Time,Fp1,F3,C3,P3,O1,F7,T3,T5,Fz,Fp2,F4,C4,P4,O2,F8,T4,T6,Cz,Pz
0.0000,-3.9426,1.9679,-4.8201,-3.8074,-13.6830,3.9855,-4.2406,-3.9279,-6.5537,-0.0272,-3.5752,1.0030,-9.6636,-6.1461,-4.1065,-0.0294,-10.1830,-1.7777,-5.3261
3.9062,-2.1911,1.9811,-1.9422,-1.0924,-8.3851,2.9885,-4.4824,-1.6399,-3.6437,1.8604,-1.5640,2.4468,-5.8400,-3.6413,-1.5195,1.9674,-6.4319,-0.0702,-2.3506
7.8125,-0.6560,2.2153,1.5335,3.1722,-1.0252,2.2163,-4.1854,2.3832,-0.1250,4.3289,0.3006,3.9591,-1.0889,0.7192,1.2869,4.3475,-2.0764,2.3708,1.2114
11.7188,0.1334,2.7627,3.8594,8.0167,6.7795,2.2182,-3.5179,7.4997,3.1111,6.7537,0.9087,5.1263,3.4995,6.3096,2.4943,6.2616,1.7705,5.0953,3.7171
15.6250,0.1487,3.5480,3.5235,12.1577,13.2107,3.1328,-2.9811,12.5840,5.3752,8.5525,-0.3664,5.5944,6.9812,11.9878,0.6976,6.8571,4.3594,7.6242,3.7340
19.5312,-0.0533,4.2122,0.2269,14.6747,17.1616,4.4661,-3.1178,16.5654,6.5174,9.4468,-3.2609,5.1675,9.0268,16.6276,-4.0869,5.7447,5.7266,9.6438,0.9463
23.4375,0.3299,4.1388,-4.8200,15.4517,18.7400,5.2788,-4.1634,18.9061,6.8877,9.4833,-6.7819,3.8547,10.0090,19.6197,-10.2346,3.2508,6.6206,11.0166,-3.5526
27.3438,1.7684,2.6962,-9.5259,15.1035,19.0521,4.7077,-5.8701,19.7329,6.9632,8.8293,-9.8277,1.8730,10.6589,21.0456,-15.3616,0.2698,7.9701,11.6444,-7.8155
31.2500,3.9783,-0.3838,-12.0858,14.4620,19.4104,2.4901,-7.6188,19.5801,6.9441,7.5427,-11.8265,-0.3919,11.5342,21.4506,-17.6985,-2.2145,10.2455,11.3612,-10.1165
35.1562,5.9964,-4.7068,-11.9388,14.0016,20.4780,-0.8745,-8.7484,18.9606,6.6471,5.5364,-12.9346,-2.4720,12.6639,21.3953,-17.0764,-3.6394,13.1357,10.0137,-9.8686
39.0625,6.7709,-9.2326,-9.9200,13.5976,21.8895,-4.4518,-8.8918,18.0622,5.7973,2.7900,-13.6738,-3.9524,13.6077,21.0810,-14.8628,-4.0769,15.7485,7.7089,-7.8152
42.9688,5.9141,-12.6784,-7.5627,12.7513,22.5698,-7.4695,-8.1216,16.7475,4.4918,-0.3710,-14.3129,-4.6217,13.8706,20.2576,-12.9162,-4.0338,17.1853,5.0099,-5.4229
46.8750,4.0957,-14.1309,-6.0642,11.0756,21.5219,-9.7650,-6.8357,14.8020,3.4369,-3.2019,-14.4908,-4.5720,13.3577,18.4272,-12.3107,-4.0118,17.0980,2.8429,-3.9184
50.7812,2.7511,-13.5151,-5.6008,8.6701,18.5664,-11.7685,-5.4800,12.2204,3.6991,-4.8151,-13.3879,-4.1814,12.5286,15.1819,-12.7146,-4.1765,15.8662,2.0710,-3.6035
54.6875,3.2305,-11.6208,-5.3782,6.1312,14.5683,-14.0475,-4.2889,9.3296,6.0673,-4.6702,-10.3266,-3.9602,12.1271,10.4858,-12.7952,-4.3785,14.3127,2.9760,-3.8324
58.5938,5.9207,-9.6471,-4.2822,4.2283,11.0294,-16.7589,-3.1909,6.6843,10.4435,-2.9370,-5.3507,-4.3163,12.6788,4.7867,-11.2718,-4.4802,13.1880,5.0243,-3.5651
62.5000,9.9368,-8.5365,-1.6326,3.5005,9.3182,-19.4223,-1.9083,4.8273,15.7204,-0.4401,0.6513,-5.3516,14.1216,-1.0462,-7.8008,-4.6753,12.7939,7.1423,-2.0548
66.4062,13.6281,-8.5087,2.4376,4.0395,10.0123,-21.1843,-0.1666,4.0595,20.2987,1.8264,6.3718,-6.7931,15.8524,-5.9114,-3.0799,-5.4748,12.9794,8.3710,0.7794
70.3125,15.5973,-9.0742,7.1292,5.5436,12.7263,-21.3805,2.1199,4.3270,22.9610,3.2942,10.7567,-8.0991,17.1747,-8.7436,1.8019,-7.2977,13.4577,8.4681,4.4510
74.2188,15.5621,-9.4841,11.4472,7.5246,16.4748,-19.9862,4.7912,5.2488,23.5465,4.1046,13.4666,-8.6906,17.8326,-8.8225,6.1706,-9.9524,14.1616,8.0236,8.2949
78.1250,14.4726,-9.2867,14.6575,9.4862,20.2994,-17.6400,7.5286,6.2575,22.9760,4.8607,14.8589,-8.2004,18.2401,-6.0510,10.0738,-12.4486,15.3490,7.9799,11.8253
82.0312,13.7910,-8.6059,16.5059,10.9905,23.7550,-15.2435,10.0268,6.8073,22.5958,6.0159,15.5854,-6.6243,19.2109,-1.0846,13.8960,-13.3951,17.3716,8.8788,14.8526
85.9375,14.4197,-7.9687,17.1921,11.6674,26.9764,-13.4363,12.1409,6.5914,23.2617,7.3511,16.1429,-4.3123,21.3478,4.8003,17.6845,-11.8102,20.2869,10.3710,17.3795
89.8438,16.0184,-7.8333,17.2144,11.2694,30.3310,-12.3101,13.9216,5.6845,24.7634,7.9513,16.6803,-1.8089,24.5048,10.1091,20.8183,-7.8314,23.6180,11.3562,19.4418
93.7500,17.1928,-8.1739,17.1778,9.7901,33.9314,-11.5199,15.5134,4.5180,25.9655,6.7438,17.1066,0.3841,27.7160,13.6599,22.3493,-2.8010,26.4706,10.6745,21.0335
97.6562,16.4434,-8.4273,17.5851,7.5476,37.3592,-10.6566,16.9784,3.6541,25.5699,3.2522,17.3091,2.0133,29.6870,14.9974,21.7681,1.4055,27.9729,7.8807,22.1283
101.5625,13.2297,-7.8445,18.6196,5.1079,39.8097,-9.5819,18.1704,3.4517,22.9975,-1.9581,17.2612,3.1542,29.5659,14.4853,19.5705,3.4314,27.7719,3.5698,22.7215
105.4688,8.4150,-6.0103,20.0009,3.0380,40.5798,-8.5024,18.7684,3.8271,18.8155,-7.4711,16.9677,4.1241,27.5041,13.0439,17.1305,3.2067,26.2739,-0.9563,22.8308
109.3750,3.7790,-3.1830,21.0478,1.6284,39.5869,-7.7803,18.4854,4.2994,14.4414,-11.7479,16.3793,5.2661,24.6311,11.6935,15.9160,1.9323,24.4623,-4.4371,22.4791
113.2812,0.9161,-0.2302,21.0070,0.7814,37.5511,-7.6651,17.3375,4.3371,11.3211,-13.9284,15.4326,6.7193,22.4292,11.1485,16.5871,1.2866,23.3858,-6.3048,21.7135
117.1875,0.2569,1.8049,19.5109,0.1546,35.6725,-8.1431,15.7789,3.7906,10.1064,-14.2016,14.2116,8.3111,21.8783,11.6362,18.6084,2.3749,23.6011,-6.8348,20.6679
121.0938,0.8568,2.2517,16.8783,-0.5389,34.9495,-8.9687,14.5570,3.0907,10.3357,-13.5331,13.0577,9.6526,22.8912,12.9591,20.6287,5.0985,24.8798,-6.7626,19.5942
125.0000,1.0700,1.1668,14.0112,-1.2900,35.5478,-9.7966,14.3149,3.0256,10.7853,-12.9667,12.4468,10.3927,24.3830,14.6924,21.3410,8.3234,26.3349,-6.6945,18.7762
128.9062,-0.3655,-0.6874,11.8988,-1.7759,36.6367,-10.2947,15.1655,4.2181,10.2376,-12.9699,12.6513,10.4756,24.9230,16.3919,20.2312,10.6834,26.8868,-6.7284,18.3435
132.8125,-3.5597,-2.2153,11.0355,-1.5527,36.8472,-10.1986,16.5300,6.6745,8.1714,-13.2315,13.4304,10.2181,23.5670,17.7548,17.7686,11.4466,25.8107,-6.4983,18.1238
136.7188,-7.5008,-2.5145,11.1515,-0.2979,35.1121,-9.3511,17.4059,9.7617,4.9656,-12.9939,14.0402,10.1295,20.3655,18.7243,15.0081,10.8749,23.0792,-5.5343,17.6929
140.6250,-10.8101,-1.3043,11.4500,2.0598,31.3750,-7.7776,16.9472,12.6557,1.5385,-11.6576,13.6376,10.5732,16.2674,19.5289,12.9487,9.8922,19.3379,-3.6436,16.6468
144.5312,-12.6683,0.9426,11.1758,5.3538,26.6962,-5.7635,15.0074,14.9310,-1.2995,-9.2499,11.8326,11.4988,12.5158,20.6009,12.0599,9.3630,15.5536,-1.0649,14.9206
148.4375,-13.2864,3.2218,10.0963,9.2411,22.6510,-3.8280,12.2723,16.8160,-3.3427,-6.4747,8.9833,12.4492,9.9354,22.3399,12.1767,9.5216,12.5434,1.6441,12.8969
152.3438,-13.6387,4.4775,8.5476,13.2097,20.3747,-2.5265,9.8607,18.8812,-5.0258,-4.3375,5.9881,12.8656,8.5477,24.7923,12.6883,9.9351,10.6399,3.8570,11.1767
156.2500,-14.6911,4.1219,7.0455,16.5585,19.8710,-2.1524,8.6249,21.3850,-7.0019,-3.5907,3.7025,12.4891,7.7156,27.4474,12.8303,9.9674,9.6525,5.1046,10.1508
160.1562,-16.6722,2.3415,5.8047,18.4877,20.0528,-2.5333,8.6099,23.8202,-9.5592,-4.3166,2.4070,11.5641,6.6751,29.3616,11.9473,9.3510,9.1129,5.2077,9.7005
164.0625,-18.8720,0.0197,4.5725,18.3968,19.5146,-3.0986,9.0366,25.0984,-12.2713,-5.8601,1.7231,10.6705,5.0858,29.6410,9.7064,8.4210,8.6298,4.3334,9.2855
167.9688,-20.0652,-1.7112,2.9161,16.2924,17.5310,-3.2224,8.8234,24.3204,-14.1207,-7.1271,1.0262,10.2801,3.2510,28.0336,6.2549,7.8445,8.1292,2.9914,8.3828
171.8750,-19.2530,-2.0721,0.7088,13.0133,14.5936,-2.6340,7.2867,21.5775,-14.0369,-7.0897,0.0072,10.3544,1.8949,25.2118,2.2465,8.0675,7.8401,1.9272,6.9376
175.7812,-16.2427,-1.0695,-1.6192,9.9988,12.0857,-1.6182,4.5329,18.1210,-11.5343,-5.2580,-1.0875,10.3015,1.6704,22.4585,-1.3740,8.9088,8.0506,1.8652,5.4382
179.6875,-11.7377,0.4955,-3.3271,8.6026,11.2732,-0.8610,1.2823,15.6580,-7.0721,-1.9086,-1.7456,9.3644,2.7258,20.8604,-3.8160,9.6165,8.8105,3.1514,4.5042
183.5938,-6.9468,1.4610,-3.9573,9.3131,12.2896,-1.0443,-1.7218,15.1999,-1.9201,2.0352,-1.7716,7.1866,4.5978,20.5142,-4.9048,9.3549,9.7878,5.4856,4.2747
187.5000,-2.9977,0.9426,-3.8146,11.4031,13.8415,-2.4675,-4.2648,16.2860,2.4030,5.4225,-1.6572,4.1477,6.4739,20.3347,-5.2336,7.7730,10.3937,7.9686,4.0964
191.4062,-0.4962,-1.1914,-3.9143,13.3113,13.9166,-4.9318,-6.7585,17.2047,4.8158,7.4007,-2.3751,1.1948,7.6441,18.6995,-5.8265,5.2412,10.1113,9.5308,2.8293
195.3125,0.5837,-4.2706,-5.3608,13.5749,11.0948,-7.9137,-9.8171,16.1304,5.1269,7.7909,-4.6800,-0.7479,7.8618,14.5821,-7.4683,2.5843,8.8292,9.5370,-0.3631
199.2188,0.7221,-7.2057,-8.5553,11.7317,5.6245,-10.8499,-13.6433,12.4109,4.0371,7.1110,-8.4190,-1.3941,7.4156,8.4181,-10.1420,0.4968,6.9668,8.1828,-5.2769
203.1250,0.5659,-9.0558,-12.7848,8.5865,-0.4838,-13.3127,-17.7020,7.0890,2.7217,6.2253,-12.3936,-1.3006,6.9006,2.0619,-12.9875,-0.9431,5.3013,6.3828,-10.5371
207.0312,0.6951,-9.4499,-16.5013,5.6602,-4.4849,-15.0084,-20.9446,2.2640,2.2348,5.8175,-14.9436,-1.5056,6.8523,-2.2252,-14.8431,-2.3110,4.5848,5.1824,-14.2373
210.9375,1.4991,-8.6672,-18.1318,4.2007,-4.4636,-15.7137,-22.4282,-0.2689,3.0418,6.0002,-14.8982,-2.8421,7.4630,-3.1308,-14.9983,-4.3868,5.1696,5.0751,-14.9739
214.8438,3.1314,-7.4060,-16.9086,4.4344,-0.4754,-15.3174,-21.8835,-0.1468,4.8888,6.3023,-12.2678,-5.3985,8.5325,-1.0966,-13.6228,-7.5224,6.8527,5.7026,-12.6138
218.7500,5.4940,-6.4424,-13.2170,5.5527,5.4586,-13.9990,-19.8255,1.4443,7.0304,6.0368,-8.2252,-8.4888,9.6569,1.9778,-11.5743,-11.2630,9.0216,6.1592,-8.3115
222.6562,8.2579,-6.3710,-8.2928,6.3854,10.5195,-12.3768,-17.1478,2.6996,8.6660,4.8010,-4.4108,-11.1286,10.5244,3.9378,-9.7621,-14.4978,11.0088,5.6886,-3.7952
226.5625,10.9553,-7.4954,-3.5151,6.2367,12.7163,-11.4002,-14.5224,2.4604,9.3529,2.7688,-2.0383,-12.6600,11.1414,3.6747,-8.5625,-16.0674,12.4496,4.2634,-0.4123
230.4688,13.1521,-9.8061,0.2537,5.2774,11.9798,-11.9238,-12.0486,0.8988,9.2062,0.5842,-1.3572,-13.0864,11.8564,1.6694,-7.7093,-15.4512,13.4445,2.6213,1.4671
234.3750,14.6356,-12.9674,2.9309,4.2645,10.0777,-14.1724,-9.3813,-0.8120,8.8075,-1.0547,-1.7310,-12.9192,13.1622,-0.5281,-6.6700,-13.1049,14.4473,1.7316,2.3908
238.2812,15.5055,-16.3193,5.0197,3.8749,9.4406,-17.4685,-6.1848,-1.5009,8.8831,-1.8117,-2.1628,-12.7056,15.3798,-1.4488,-5.1345,-10.2330,15.9532,2.0918,3.2674
242.1875,16.0900,-18.9802,7.1612,4.2003,11.6476,-20.4689,-2.5232,-0.8665,9.9107,-1.8358,-1.8615,-12.6224,18.3915,-0.6525,-3.1915,-8.1404,18.1675,3.3769,4.7539
246.0938,16.7203,-20.1116,9.7125,4.7717,16.5016,-21.8263,1.1278,0.4301,11.8466,-1.5327,-0.5262,-12.4327,21.5809,1.1424,-1.0915,-7.5518,20.8359,4.6886,6.9602
250.0000,17.5013,-19.2740,12.5430,5.0257,22.2130,-20.8791,4.2374,1.4276,14.1124,-1.2005,1.6965,-11.7911,24.0396,2.7280,1.1131,-8.2961,23.3268,5.1957,9.5459
253.9062,18.2335,-16.6742,15.0930,4.7713,26.5138,-17.9375,6.6296,1.6674,15.8596,-0.8436,4.4021,-10.6106,24.9627,3.2875,3.6481,-9.5055,24.9193,4.6682,12.0085
257.8125,18.5486,-13.1127,16.6327,4.2511,27.9648,-14.0016,8.5963,1.4495,16.3911,-0.3218,7.0815,-9.1757,24.0426,2.8194,6.6988,-10.1669,25.1442,3.5071,13.9148
261.7188,18.1702,-9.6066,16.6219,3.7595,26.6595,-10.1385,10.6123,1.3462,15.5217,0.3049,9.2078,-7.9160,21.6482,1.8572,9.9872,-9.6689,23.9991,2.2806,14.9824
265.6250,17.1208,-6.8860,15.0414,3.1820,23.9555,-6.9506,12.8852,1.4240,13.6767,0.5595,10.3499,-7.0464,18.6725,0.8123,12.7026,-8.0343,21.9243,1.1663,15.0929
269.5312,15.7278,-5.0630,12.5449,1.9020,21.4931,-4.4552,15.1173,0.8894,11.6588,-0.2906,10.3734,-6.3869,16.1046,-0.4662,13.9690,-5.7543,19.5568,-0.2337,14.3440
273.4375,14.4238,-3.6736,10.3015,-0.7751,20.1738,-2.3583,16.6883,-1.4567,10.2089,-2.7387,9.6236,-5.5240,14.5479,-2.5424,13.5382,-3.3958,17.3996,-2.5407,13.1238
277.3438,13.4871,-2.0466,9.5155,-4.9745,19.7369,-0.4223,17.1309,-6.2353,9.6190,-6.5477,8.8931,-4.1828,13.9510,-5.7918,12.1222,-1.2634,15.5966,-5.9794,12.0697
281.2500,12.9151,0.2536,10.8114,-9.8942,19.1354,1.3866,16.5260,-12.7235,9.6375,-10.6469,9.0733,-2.4974,13.7123,-9.8625,11.0033,0.6798,13.9450,-9.9822,11.8127
285.1562,12.5223,3.1886,13.8205,-14.0667,17.3942,3.0370,15.4992,-18.9457,9.7237,-13.5605,10.6421,-0.9439,13.0997,-13.6596,11.1485,2.6299,12.1348,-13.3528,12.5987
289.0625,12.1767,6.3222,17.2651,-16.1161,14.3515,4.6440,14.8056,-22.6509,9.4758,-14.1431,13.3243,0.0264,11.7323,-15.9011,12.5128,4.6703,10.0625,-14.9062,14.0525
292.9688,11.9650,9.1008,19.5735,-15.5127,10.8067,6.4738,14.8088,-22.5534,8.9273,-12.1730,16.2062,0.3625,9.8225,-15.8430,14.1288,6.6178,8.0019,-14.1519,15.3231
296.8750,12.1155,11.1200,19.7098,-12.8209,8.0106,8.6671,15.2468,-19.0143,8.4848,-8.4432,18.2693,0.4912,8.0179,-13.6603,14.9605,8.0927,6.4936,-11.5571,15.5895
300.7812,12.6921,12.2304,17.7225,-9.2977,6.8560,10.9115,15.4558,-13.7315,8.5379,-4.3116,18.9893,1.0179,6.9371,-10.2435,14.8329,8.7521,5.9941,-8.2302,14.6125
304.6875,13.2831,12.4963,14.6595,-6.1398,7.2984,12.4105,14.8810,-8.6893,9.0196,-1.0142,18.5704,2.2775,6.7006,-6.6079,14.6205,8.5267,6.4987,-5.2670,12.9252
308.5938,12.9778,12.1276,11.8978,-3.8872,8.3674,12.3098,13.4952,-5.0853,9.2708,0.8508,17.6479,4.0830,6.7806,-3.3595,15.4427,7.7085,7.4032,-3.2000,11.4889
312.5000,10.7661,11.4678,10.3278,-2.3207,8.7567,10.3632,11.8310,-2.8946,8.3722,1.4232,16.7078,5.8726,6.2962,-0.5493,17.4688,6.8438,7.7481,-1.8722,11.0294
316.4062,6.2023,10.9966,9.9273,-0.8208,7.6275,7.3600,10.6293,-1.2311,5.7742,1.3089,15.6996,7.1441,4.5966,2.0907,19.3649,6.5032,6.7484,-0.7363,11.5333
320.3125,-0.0754,11.2319,9.9814,1.1408,5.1498,4.9213,10.3798,0.8697,1.8124,1.1825,14.1697,7.8334,1.7643,4.8133,19.0032,7.0533,4.3099,0.6930,12.2833
324.2188,-6.3725,12.4881,9.7400,3.7083,2.4661,4.6770,11.0725,3.8208,-2.2832,1.4994,11.8133,8.3357,-1.3018,7.6991,15.0635,8.5342,1.1998,2.5408,12.4147
328.1250,-10.6263,14.6061,9.0028,6.6576,1.0953,7.2873,12.2865,7.3528,-4.9621,2.3955,8.9710,9.1468,-3.3184,10.7215,8.3411,10.6736,-1.2799,4.5625,11.5747
332.0312,-11.4469,16.8810,8.1978,9.5849,2.1014,11.9335,13.4794,10.8164,-5.2019,3.7142,6.5991,10.4003,-3.3355,13.8544,1.6426,13.0031,-1.9714,6.3376,10.1728
335.9375,-8.9208,18.3264,7.9165,12.0691,5.4773,16.6415,14.2254,13.5870,-3.1060,5.0763,5.6444,11.6711,-1.3139,17.0334,-1.8714,15.0122,-0.5128,7.4885,9.0164
339.8438,-4.6568,18.1821,8.2928,13.7365,10.0785,19.2868,14.2567,15.2953,0.1409,5.9930,6.2526,12.2172,1.8002,19.9923,-0.8338,16.2860,2.4278,7.8120,8.6036
343.7500,-0.9727,16.3527,8.7286,14.3060,14.1553,18.6988,13.3686,15.8424,2.9542,6.0669,7.4415,11.5002,4.5733,22.1898,3.2355,16.5923,5.4971,7.3274,8.6240
347.6562,0.3583,13.4599,8.2070,13.7105,16.2169,15.2275,11.3728,15.3467,4.2549,5.2624,7.5773,9.6022,5.8774,23.0227,6.7839,15.9098,7.4001,6.2924,8.0795
351.5625,-0.9171,10.4363,5.9806,12.2542,15.7811,10.4732,8.2076,14.1391,4.0368,4.0923,5.4069,7.2248,5.5152,22.2635,6.5427,14.4027,7.6136,5.1827,5.9758
355.4688,-3.4223,7.9208,2.1333,10.6266,13.6010,6.3817,4.1226,12.7585,3.2533,3.5150,0.9516,5.2515,4.3017,20.3854,1.7362,12.3600,6.6480,4.5698,2.0940
359.3750,-4.9888,5.8827,-2.4010,9.6281,11.2276,4.2497,-0.2695,11.8059,3.1160,4.4715,-4.3876,4.1741,3.5494,18.4326,-5.3659,10.1243,5.6955,4.8652,-2.7282
363.2812,-3.9558,3.7528,-6.3831,9.6880,10.1263,4.1729,-4.2104,11.6203,4.2697,7.2647,-8.6319,3.7826,4.2605,17.4018,-10.9524,8.0266,5.8734,6.0289,-7.0346
367.1875,-0.1653,0.9750,-8.9885,10.4901,10.8321,5.1666,-7.1910,11.9667,6.3756,11.1797,-10.4133,3.3363,6.5054,17.5247,-12.1863,6.3311,7.5181,7.4574,-9.6172
371.0938,4.9318,-2.4365,-10.2018,11.0461,12.6423,5.7948,-9.2440,12.0383,8.3569,14.6816,-9.7514,2.0968,9.3632,18.0100,-8.9945,5.1831,9.9622,8.2206,-10.2134
375.0000,9.1034,-5.7659,-10.6313,10.2862,14.0607,4.9178,-10.8763,10.9115,9.1339,16.1794,-7.9044,-0.1397,11.4646,17.5371,-3.9461,4.5573,11.9392,7.5982,-9.5606
378.9062,10.5955,-8.0211,-10.9159,7.8401,13.7709,2.1783,-12.6357,8.2393,8.3702,14.9395,-6.4330,-2.8679,11.8229,15.2381,-0.4013,4.2321,12.3809,5.6096,-8.7898
382.8125,9.0815,-8.6267,-11.1776,4.4724,11.5675,-1.9458,-14.5952,4.6969,6.7576,11.5649,-6.1480,-5.1644,10.4657,11.4872,-0.2951,3.8316,11.1245,3.1570,-8.5997
386.7188,5.7786,-7.8855,-10.9120,1.7983,8.6590,-6.4623,-16.1412,1.7738,5.6632,7.6915,-6.6620,-6.2475,8.4917,7.8719,-3.0675,2.9599,9.0939,1.6033,-8.7814
390.6250,2.7128,-6.8595,-9.3793,1.3805,7.0987,-10.3455,-16.2655,0.9383,6.3560,5.0507,-6.8015,-5.9433,7.5136,6.2713,-6.3436,1.3939,7.8268,1.9853,-8.3986
394.5312,1.6000,-6.7380,-6.1972,3.7531,8.6348,-12.9502,-14.2070,2.6807,9.2712,4.4823,-5.5212,-4.7773,8.7929,7.6194,-7.7067,-0.7644,8.6101,4.3441,-6.4662
398.4375,2.9856,-8.1261,-1.7145,8.0125,13.6485,-14.2036,-10.0268,6.0992,13.7325,5.5225,-2.6434,-3.6546,12.5534,11.2041,-6.2385,-3.0857,11.7305,7.6259,-2.6546
402.3438,6.0861,-10.7343,3.0799,12.2609,20.8298,-14.5368,-4.7253,9.3648,18.2775,6.8151,1.0704,-3.3460,17.8452,15.0165,-2.8283,-5.0026,16.2817,10.2490,2.4359
406.2500,9.3451,-13.6516,7.0317,14.6330,27.8088,-14.6200,0.1894,10.7954,21.3891,7.0404,4.4927,-4.0884,23.0243,16.9458,0.7519,-6.1058,20.6442,10.9947,7.5651
410.1562,11.3284,-15.9647,9.3652,14.2591,32.3731,-15.0347,3.4234,9.8260,22.2291,5.7280,6.8694,-5.5170,26.5663,16.0194,3.1529,-6.3749,23.3570,9.6599,11.4836
414.0625,11.4470,-17.2583,9.9808,11.5877,33.5505,-16.0286,4.4764,7.2218,20.9938,3.4322,8.1920,-6.9288,27.7665,12.8690,4.1660,-6.1856,23.8696,7.0718,13.5077
417.9688,10.1476,-17.6653,9.3937,7.9385,31.9330,-17.4515,3.7749,4.4161,18.7327,1.2117,8.9986,-7.6953,26.9640,9.1487,4.4835,-6.0713,22.7456,4.4936,13.7427
421.8750,8.5360,-17.5005,8.4273,4.6566,29.1116,-18.8766,2.3500,2.4724,16.7555,-0.1662,9.8477,-7.5745,25.2108,6.3650,4.9078,-6.3804,21.2229,2.8414,12.9108
425.7812,7.6956,-16.8327,7.8720,2.4401,26.6436,-19.8206,1.3096,1.4213,15.9527,-0.7271,10.9109,-6.7634,23.6148,4.9494,5.7400,-7.0531,20.4242,2.2219,11.9531
429.6875,8.0957,-15.3742,8.2550,1.2087,25.2248,-19.9353,1.4014,0.4152,16.3792,-1.1777,11.9700,-5.6966,22.7479,4.1750,6.7778,-7.6659,20.7044,2.0378,11.6339
433.5938,9.3918,-12.7879,9.7410,0.4554,24.5387,-19.0853,2.8293,-1.4764,17.2931,-2.3166,12.7406,-4.7397,22.4337,2.8766,7.7628,-7.7110,21.5162,1.5080,12.2930
437.5000,10.6941,-9.1570,12.1117,-0.2869,23.7653,-17.3161,5.2962,-4.4755,17.6080,-4.4248,13.1844,-3.9783,21.9930,0.3759,8.7593,-6.9152,21.8379,0.1992,13.7811
441.4062,11.1253,-5.2101,14.8031,-1.2219,22.3029,-14.7878,8.1651,-7.9127,16.5034,-7.0600,13.5278,-3.2234,20.7528,-3.0695,10.0948,-5.3838,20.8608,-1.7776,15.5532
445.3125,10.3433,-2.0665,17.0399,-2.3897,20.1774,-11.7526,10.6606,-10.7639,13.8719,-9.3595,13.9902,-2.2146,18.4961,-6.5524,11.9566,-3.4873,18.4945,-3.9620,16.8864
449.2188,8.7334,-0.6292,18.1007,-3.8818,17.9042,-8.5811,12.0995,-12.4521,10.3752,-10.5945,14.4955,-0.8708,15.5911,-9.2315,14.0699,-1.6032,15.3919,-5.9053,17.1780
453.1250,7.1621,-1.0313,17.6504,-5.8919,15.9887,-5.7663,12.1394,-13.2637,7.0902,-10.5801,14.6567,0.5888,12.7519,-10.8863,15.8007,0.0789,12.5152,-7.4000,16.2314
457.0312,6.4370,-2.5207,15.9613,-8.5178,14.4943,-3.8217,10.9559,-14.0487,4.9474,-9.6922,14.0757,1.7491,10.5990,-11.9162,16.6157,1.5487,10.5497,-8.4467,14.3871
460.9375,6.7950,-3.8733,13.8401,-11.4908,13.0031,-3.0657,9.2149,-15.4406,4.2649,-8.5406,12.7090,2.2665,9.2960,-12.8668,16.4807,2.7997,9.5354,-9.0638,12.3875
464.8438,7.7323,-4.0661,12.2317,-14.1158,10.9653,-3.3974,7.7727,-17.2210,4.6223,-7.5649,10.9684,2.1189,8.4692,-13.9242,15.8204,3.6687,8.9165,-9.1576,10.9927
468.7500,8.2913,-2.7841,11.6910,-15.5536,8.1319,-4.2303,7.2207,-18.3441,5.1207,-6.8229,9.4382,1.6577,7.4388,-14.8035,15.0532,3.8626,7.9294,-8.5846,10.5378
472.6562,7.6354,-0.4749,12.0477,-15.2963,4.7250,-4.6880,7.5414,-17.6371,4.8685,-6.0657,8.4183,1.4088,5.6057,-15.0854,14.1195,3.1811,6.0524,-7.3418,10.7038
476.5625,5.5560,2.0191,12.5020,-13.5127,1.2298,-4.0136,8.1190,-14.6792,3.4150,-4.9951,7.6751,1.7477,2.7667,-14.6785,12.4623,1.7705,3.2479,-5.6952,10.6747
480.4688,2.5892,3.9602,12.1172,-11.0029,-2.0065,-1.9911,8.1289,-10.2188,0.9123,-3.5087,6.6360,2.6699,-0.8066,-13.9831,9.5457,0.1851,-0.1007,-4.1058,9.6135
484.3750,-0.3293,5.0287,10.4029,-8.7768,-5.0339,0.8703,7.0585,-5.8216,-2.0464,-1.7930,4.9056,3.8235,-4.5369,-13.6004,5.5105,-0.8375,-3.4456,-2.9867,7.1733
488.2812,-2.4382,5.3167,7.6074,-7.5210,-8.2039,3.5290,5.0048,-2.9850,-4.7746,-0.2415,2.6942,4.7816,-7.8277,-13.8138,1.3919,-0.7660,-6.3255,-2.4695,3.7149
492.1875,-3.5717,5.1102,4.5317,-7.2836,-11.7813,4.9149,2.5520,-2.3054,-6.8071,0.7347,0.7869,5.3542,-10.2928,-14.2671,-1.3711,0.4222,-8.4668,-2.3547,0.0955
496.0938,-4.1497,4.6745,2.0062,-7.5305,-15.5499,4.4938,0.3451,-3.2144,-8.0178,0.9106,0.0214,5.6986,-11.8154,-14.1117,-1.8443,2.2334,-9.7415,-2.2717,-2.8226
500.0000,-4.7662,4.1827,0.4065,-7.4803,-18.7088,2.5848,-1.2962,-4.3859,-8.5227,0.3856,0.6416,6.1330,-12.4481,-12.5291,-0.2729,3.9456,-10.0867,-1.9127,-4.6077
503.9062,-5.6806,3.7615,-0.4609,-6.4815,-20.1591,0.2417,-2.4327,-4.4914,-8.4834,-0.4036,2.0213,6.7845,-12.2613,-9.2549,1.9964,4.9942,-9.4900,-1.1675,-5.3612
507.8125,-6.5868,3.5309,-1.0586,-4.2421,-19.0276,-1.2654,-3.2287,-2.8290,-7.9654,-0.8311,3.0020,7.3514,-11.2601,-4.7480,3.3188,5.2048,-8.0468,-0.0899,-5.4652
511.7188,-6.8274,3.5496,-1.6754,-0.8817,-15.1354,-1.1142,-3.6422,0.4659,-6.9382,-0.3702,2.6265,7.1961,-9.4257,0.0705,2.7206,4.7513,-6.0134,1.2182,-5.2165
515.6250,-5.9030,3.7090,-2.2154,3.1144,-9.1675,0.6027,-3.4166,4.6066,-5.3886,1.0918,0.7460,5.7487,-6.8346,4.2766,0.3605,3.9218,-3.7707,2.6666,-4.6536
519.5312,-3.9084,3.7002,-2.3923,6.9785,-2.4669,2.8666,-2.4433,8.5179,-3.4428,3.0981,-1.9439,2.9583,-3.7527,7.2812,-2.7996,2.8975,-1.6919,4.1247,-3.7086
523.4375,-1.5834,3.1408,-2.1616,9.8171,3.4403,4.2069,-1.1906,11.1831,-1.3940,4.7798,-4.4564,-0.5358,-0.6131,8.8949,-5.8106,1.7036,0.0089,5.3467,-2.5270
527.3438,0.0756,1.8094,-1.9964,10.9036,7.3918,3.4410,-0.7537,11.9300,0.3965,5.3118,-6.2343,-3.6683,2.1352,9.2190,-8.4037,0.3303,1.3446,6.0187,-1.6390
531.2500,0.3914,-0.1737,-2.7089,10.0694,9.0036,0.3076,-2.3145,10.6799,1.6671,4.4399,-7.4888,-5.5029,4.2322,8.5652,-11.0304,-1.1184,2.5038,5.9731,-1.7644
535.1562,-0.5904,-2.3665,-4.8701,7.9774,8.8027,-4.3398,-6.2801,8.1114,2.3955,2.7391,-8.9049,-5.7266,5.7485,7.4822,-14.3005,-2.3943,3.7279,5.4300,-3.3254
539.0625,-2.1109,-4.2311,-8.2340,6.0089,8.0089,-8.9026,-11.7107,5.5757,2.8256,1.3755,-10.9504,-4.7674,7.0660,6.7611,-18.2917,-3.2280,5.2071,5.0291,-6.0111
542.9688,-3.0923,-5.4203,-11.6358,5.6628,8.0120,-11.7987,-16.5523,4.6192,3.3579,1.4458,-13.3358,-3.4798,8.6863,7.2242,-22.2668,-3.4953,7.0430,5.5218,-8.7581
546.8750,-2.6726,-5.9358,-13.5365,7.7106,9.7278,-12.2366,-18.6684,6.2126,4.3484,3.2699,-15.0641,-2.6310,10.9463,9.2766,-24.9984,-3.2896,9.2541,7.2541,-10.2455
550.7812,-0.5931,-6.0708,-12.9188,11.6098,13.1209,-10.6003,-17.0735,10.0811,5.9085,6.0956,-15.0592,-2.5406,13.7826,12.4840,-25.4413,-2.8429,11.7637,9.7907,-9.6347
554.6875,2.7240,-6.2058,-9.9472,15.6265,17.1761,-8.2409,-12.5549,14.6225,7.8084,8.4517,-12.9194,-3.0821,16.6789,15.5660,-23.2717,-2.3757,14.3536,12.0065,-7.0762
558.5938,6.3937,-6.6194,-5.9188,17.7227,20.4074,-6.7797,-7.2240,17.6290,9.5559,8.9760,-9.2360,-3.9753,18.8567,16.9865,-18.9566,-2.0119,16.6445,12.6851,-3.6285
562.5000,9.4521,-7.4250,-2.4922,16.7435,21.6988,-7.2849,-3.2432,17.5083,10.6458,7.2304,-5.2349,-5.0950,19.6508,15.8876,-13.3840,-1.8260,18.1942,11.2892,-0.6170
566.4062,11.2476,-8.6176,-0.6755,13.1786,21.0231,-9.7478,-1.5387,14.2903,10.8806,3.9954,-1.9977,-6.5358,18.9019,12.7763,-7.3681,-1.9598,18.7307,8.3904,1.1635
570.3125,11.7106,-10.1227,-0.2324,8.9728,19.5860,-13.1185,-1.3308,9.7431,10.5892,0.8606,0.1811,-8.4002,17.1570,9.4241,-1.3656,-2.6658,18.4062,5.4251,1.8887
574.2188,11.4024,-11.7668,0.1073,6.4458,19.2343,-15.8633,-0.7656,6.4361,10.5766,-0.6456,1.8513,-10.5115,15.5304,7.9229,4.4827,-4.1858,17.8685,3.8788,2.5104
578.1250,11.2898,-13.2087,1.7780,6.9580,21.4089,-16.7371,1.7977,6.2737,11.7569,0.1341,3.8652,-12.3264,15.2357,9.4271,10.1173,-6.5188,18.0155,4.4014,4.0728
582.0312,12.2794,-13.9577,5.4203,10.1439,26.2362,-15.3717,6.6974,9.3957,14.6064,2.6892,6.6536,-13.1605,16.9846,13.3888,15.3523,-9.2525,19.4967,6.4272,6.9976
585.9375,14.6909,-13.5644,10.4417,14.1776,32.3138,-12.3981,12.7550,14.1280,18.7346,5.6811,9.8464,-12.5910,20.5576,17.8115,19.8235,-11.6227,22.2381,8.5475,10.7937
589.8438,17.9525,-11.9130,15.3395,16.8721,37.3536,-9.0776,17.9997,17.9898,22.8732,7.6627,12.4955,-10.7450,24.8025,20.3885,23.0731,-12.8168,25.3193,9.3854,14.3469
593.7500,20.7620,-9.4055,18.5422,16.8939,39.3324,-6.6583,20.8027,19.0902,25.3871,7.7485,13.7192,-8.2545,28.1122,19.7943,24.6805,-12.3606,27.3556,8.3915,16.5659
597.6562,21.7232,-6.8438,19.2330,14.3436,37.4935,-5.7936,20.6974,17.0318,25.1015,5.9012,13.3075,-5.8954,29.1650,16.3031,24.3905,-10.3524,27.2182,6.0515,16.9627
601.5625,20.1471,-5.0056,17.6983,10.4168,32.6424,-6.2983,18.4607,12.8224,21.9991,2.7723,11.8873,-4.1540,27.5439,11.3785,22.2457,-7.3971,24.6801,3.4193,15.8367
605.4688,16.5310,-4.1552,15.0850,6.4788,26.6192,-7.3267,15.5434,7.9907,17.3484,-0.7176,10.5737,-3.0051,23.8991,6.5922,18.7124,-4.2831,20.5822,1.3466,14.0226
609.3750,12.3581,-3.8287,12.7954,3.2339,21.3153,-7.8524,13.2994,3.5994,13.1229,-3.7946,10.3715,-2.0243,19.5645,2.6636,14.7130,-1.6019,16.3966,-0.0363,12.4300
613.2812,9.2741,-3.0845,11.8846,0.5253,17.8334,-7.1895,12.4610,-0.1668,10.9897,-6.0588,11.7048,-0.7215,15.8609,-0.7224,11.4376,0.4695,13.4424,-1.2537,11.6697
617.1875,8.1309,-1.1068,12.7168,-2.1998,16.2305,-5.3006,13.0339,-3.6599,11.4408,-7.4924,14.3056,1.1481,13.4928,-4.2645,9.9153,2.1265,12.2344,-2.9365,11.9301
621.0938,8.5241,2.2140,14.9320,-5.1995,15.8710,-2.7600,14.4971,-7.0624,13.5820,-8.3228,17.4326,3.4835,12.3749,-8.1229,10.5253,3.7042,12.3541,-5.2340,13.0597
625.0000,9.1547,6.1056,17.6392,-8.0781,16.0436,-0.4221,16.0905,-9.9368,15.7105,-8.8397,20.2194,5.9541,11.9367,-11.4683,12.7653,5.4227,12.8839,-7.6290,14.7065
628.9062,8.7840,9.2786,19.7336,-10.0166,16.3913,1.0121,17.0669,-11.3997,16.3227,-9.2395,21.9610,8.1913,11.6423,-12.8759,15.5047,7.2569,13.0775,-9.2766,16.4073
632.8125,7.1180,10.6107,20.2729,-10.3841,16.9104,1.3003,16.9068,-10.7740,14.9275,-9.5399,22.2694,9.9040,11.3443,-11.2986,17.6403,8.9747,12.7960,-9.5989,17.6410
636.7188,4.9821,9.7393,18.8417,-9.2456,17.6153,0.6943,15.5063,-8.2022,12.1734,-9.5926,21.1303,10.8881,11.2350,-6.9173,18.7545,10.2829,12.4343,-8.6921,17.9274
640.6250,3.6376,7.2213,15.7688,-7.3743,18.1949,-0.2740,13.2634,-4.7376,9.2542,-9.1906,18.8926,11.0139,11.4735,-1.2417,19.3049,10.9818,12.4278,-7.2579,17.0030
644.5312,3.7227,4.2132,12.0435,-5.7580,17.9648,-1.1006,10.9381,-1.8199,7.0327,-8.2229,16.1721,10.2876,11.8147,3.6438,20.1646,11.0572,12.7381,-6.1214,14.9933
648.4375,4.6041,1.9065,8.8865,-4.9560,16.1837,-1.5168,9.2654,-0.4812,5.4877,-6.7800,13.6381,8.9735,11.5711,6.2117,21.8008,10.6895,12.7211,-5.6836,12.4361
652.3438,4.6702,1.0539,7.1479,-4.7563,12.5344,-1.4917,8.5093,-0.7983,3.8482,-5.1273,11.7319,7.6431,9.9911,6.2818,23.6956,10.1917,11.5046,-5.6834,10.0832
656.2500,2.4319,1.7888,6.8738,-4.3537,7.4539,-1.0729,8.2714,-1.9146,1.2866,-3.5447,10.4687,7.0181,6.8135,4.9990,24.4959,9.8988,8.6296,-5.4109,8.5597
660.1562,-2.3019,3.7262,7.3398,-2.9067,2.0876,-0.2162,7.7536,-2.5694,-2.3433,-2.1371,9.4797,7.6169,2.6008,4.0663,22.8823,10.0374,4.5056,-4.2038,8.0824
664.0625,-8.0139,6.1878,7.5664,-0.0929,-2.1269,1.2476,6.3571,-1.7770,-6.2575,-0.7666,8.3113,9.3981,-1.4197,4.7487,18.5989,10.6209,0.3433,-1.8948,8.4120
667.9688,-12.1904,8.4146,6.9873,3.6772,-4.0360,3.4715,4.2011,0.7259,-9.1627,0.8172,6.7983,11.6662,-3.9511,7.2459,12.8953,11.4253,-2.4314,1.0606,9.0591
671.8750,-12.7601,9.7355,5.8025,7.4799,-3.2250,6.3734,2.1385,4.4426,-10.0544,2.7217,5.2334,13.3713,-4.2990,10.7352,7.9771,12.0780,-2.9319,3.8228,9.5859
675.7812,-9.3683,9.7291,4.7477,10.3511,-0.1542,9.5019,1.1810,8.4108,-8.8421,4.7242,4.1696,13.6727,-2.7050,13.9549,5.7231,12.2350,-1.2739,5.6046,9.7906
679.6875,-3.6757,8.3809,4.4289,11.7223,4.0509,12.0962,1.6965,11.6206,-6.3843,6.3203,3.9637,12.4340,-0.1436,15.9163,6.4643,11.7517,1.5286,6.0565,9.6688
683.5938,1.5151,6.1439,4.7175,11.6068,8.0341,13.3315,2.9703,13.3675,-3.9283,7.0170,4.3881,10.3213,2.2668,16.3393,8.6372,10.7441,4.1543,5.4192,9.2258
687.5000,3.7827,3.7948,4.6853,10.5053,10.6780,12.6318,3.5093,13.4506,-2.3473,6.6859,4.6328,8.4185,3.8572,15.6447,9.5975,9.4948,5.6818,4.4046,8.3288
691.4062,2.3624,2.0844,3.1807,9.1348,11.4410,9.9053,1.9492,12.1947,-1.6794,5.7249,3.7525,7.5814,4.6511,14.5994,7.1469,8.2662,6.0009,3.8799,6.7388
695.3125,-1.5283,1.3534,-0.3298,8.1291,10.4676,5.6163,-2.0306,10.3024,-1.2371,4.8950,1.2881,7.9315,5.1593,13.8659,0.8676,7.1526,5.7207,4.4917,4.3060
699.2188,-5.4310,1.3699,-5.2554,7.8173,8.4645,0.6821,-7.4195,8.5653,-0.1623,4.9192,-2.3657,8.8011,5.9186,13.6873,-7.5211,6.0759,5.6851,6.3720,1.1647
703.1250,-6.9690,1.5290,-10.0960,8.1401,6.4107,-3.7609,-12.4277,7.5326,1.9759,6.0997,-6.1192,9.1558,7.1013,13.8330,-14.9835,4.9263,6.4235,9.0470,-2.2377
707.0312,-5.0135,1.3070,-13.2603,8.7260,5.2116,-6.6720,-15.5055,7.2991,4.9232,8.1895,-8.7860,8.2211,8.4335,13.7963,-18.6783,3.7285,7.8683,11.6121,-5.3133
710.9375,-0.1257,0.6543,-13.9467,9.1140,5.4271,-7.4416,-16.1416,7.5558,7.9410,10.5694,-9.7350,5.9276,9.4323,13.1383,-17.3212,2.6903,9.4774,13.1338,-7.5871
714.8438,5.8521,0.0233,-12.5071,9.0412,7.1655,-6.1561,-14.9365,7.8994,10.2811,12.5734,-9.1729,2.9216,9.7728,11.8112,-11.7148,2.0742,10.6470,13.1131,-8.8499
718.7500,10.7579,-0.0166,-10.0857,8.6452,10.1655,-3.6658,-12.9830,8.2031,11.6059,13.7352,-7.9016,0.1677,9.5434,10.2868,-4.2627,1.9746,11.1399,11.7686,-9.1230
722.6562,13.1192,0.6901,-7.8289,8.4310,13.9969,-1.3494,-11.0655,8.7637,12.1198,13.8376,-6.7496,-1.5935,9.2489,9.3842,2.1877,2.1705,11.2672,9.9521,-8.5017
726.5625,12.7554,1.6121,-6.2263,8.9633,18.2496,-0.5913,-9.2676,10.0670,12.3874,12.8324,-6.0699,-2.2110,9.5759,9.8406,5.5670,2.1837,11.7193,8.7033,-7.0355
730.4688,10.7496,1.7623,-5.0009,10.4349,22.6026,-2.1656,-7.2079,12.2999,13.0007,10.7923,-5.6137,-2.1294,11.0525,11.8366,5.3410,1.5307,13.1506,8.6758,-4.7531
734.3750,8.8423,0.3163,-3.5393,12.3938,26.7510,-5.8372,-4.6251,14.9706,14.2903,7.9840,-4.8016,-2.0767,13.7672,14.7676,2.5620,0.0135,15.7588,9.7767,-1.7994
738.2812,8.5444,-2.7889,-1.4779,13.8657,30.2874,-10.4333,-1.7830,16.9820,16.2058,4.9793,-3.1543,-2.6408,17.2703,17.4533,-0.7113,-2.1407,19.1009,11.2500,1.4627
742.1875,10.3846,-6.6962,1.0017,13.8738,32.6889,-14.3932,0.6460,17.2048,18.3726,2.6165,-0.5878,-3.9691,20.7087,18.7227,-2.3375,-4.3805,22.2644,12.1567,4.5139
746.0938,13.6664,-10.0375,3.3483,12.0714,33.5007,-16.5163,2.1157,15.2153,20.2763,1.7069,2.5768,-5.7243,23.1632,18.0522,-0.9876,-6.1021,24.3183,11.9434,6.8993
750.0000,16.8772,-11.6569,5.1034,9.0779,32.6551,-16.4822,2.7118,11.6912,21.5034,2.5986,5.8258,-7.2814,24.0677,15.8637,3.3323,-6.9141,24.8071,10.7304,8.4626
753.9062,18.5601,-11.1877,6.2791,6.2529,30.7164,-14.8465,3.2077,8.1460,21.9577,4.8882,8.7073,-8.0389,23.5176,13.2758,9.3491,-6.7466,24.0161,9.1481,9.4241
757.8125,18.1693,-9.1400,7.3808,4.9929,28.8203,-12.5459,4.6069,6.1233,21.9553,7.5366,10.9844,-7.6879,22.2817,11.4482,15.1671,-5.7758,22.8355,7.8635,10.2391
761.7188,16.3964,-6.4903,9.0839,5.9546,28.2268,-10.2624,7.5026,6.3513,22.1046,9.3820,12.6573,-6.3260,21.4465,10.9300,19.2033,-4.2675,22.2716,7.1428,11.3318
765.6250,14.7299,-4.0863,11.8038,8.6766,29.6633,-8.0804,11.7080,8.3928,22.9645,9.7462,13.9003,-4.3854,21.8255,11.4169,20.9362,-2.4713,22.8571,6.7438,12.8808
769.5312,14.4813,-2.2574,15.4295,11.8256,32.8270,-5.6478,16.3825,10.9867,24.6191,8.7230,14.9591,-2.4264,23.4489,12.0423,21.0366,-0.6247,24.2989,6.1727,14.7780
773.4375,15.8773,-0.8345,19.3410,13.9043,36.3931,-2.6899,20.5084,12.8113,26.4309,6.9383,16.0171,-0.9019,25.4642,11.9668,20.7757,0.9896,25.5920,5.0686,16.7458
777.3438,17.8246,0.5118,22.6527,13.9790,38.6086,0.5321,23.3527,13.1397,27.2012,4.9545,17.0479,-0.0029,26.5668,10.8492,21.0552,2.0387,25.5687,3.4116,18.4936
781.2500,18.5503,1.9006,24.5388,12.0096,38.1844,3.1797,24.6344,11.9921,25.7514,2.7724,17.7300,0.3510,25.7526,8.9044,21.6965,2.2431,23.5866,1.4247,19.8019
785.1562,16.7464,3.0989,24.5187,8.6509,34.9727,4.2744,24.4019,9.7863,21.6459,-0.1634,17.5379,0.3889,22.9405,6.5768,21.5179,1.5415,19.9503,-0.7018,20.5192
789.0625,12.4890,3.6771,22.6425,4.7378,30.0092,3.3254,22.8443,6.8474,15.6144,-4.4129,16.0464,0.3186,19.0511,4.1350,19.2271,0.1935,15.7998,-2.9889,20.5411
792.9688,7.3173,3.3287,19.5275,0.8284,24.8742,0.7231,20.2455,3.1872,9.3492,-9.8276,13.3174,0.2190,15.4582,1.5133,14.5727,-1.2712,12.5058,-5.5822,19.8392
796.8750,3.3847,2.1338,16.1967,-2.9242,20.7688,-2.3721,17.0746,-1.3028,4.7161,-15.2325,10.0981,0.0562,13.1467,-1.4956,8.9291,-2.2463,10.9221,-8.4713,18.5264
800.7812,2.2045,0.6106,13.7069,-6.5685,17.8929,-4.5802,14.0201,-6.4556,2.8035,-18.8227,7.6010,-0.2006,12.1249,-4.8861,4.7901,-2.2759,10.9394,-11.2764,16.8719
804.6875,3.7716,-0.4720,12.6805,-10.0394,15.5222,-4.9564,11.7984,-11.5961,3.3720,-19.1067,6.8916,-0.4599,11.4900,-8.2299,4.3546,-1.1919,11.6089,-13.3232,15.2018
808.5938,6.5970,-0.4243,12.9779,-12.9885,12.7035,-3.3806,10.7897,-15.6984,5.0412,-15.8195,8.2162,-0.4875,10.1053,-10.7930,8.0535,0.8830,11.7511,-13.9933,13.7247
812.5000,8.6013,1.0378,13.7507,-14.8713,9.0620,-0.5139,10.7696,-17.8428,6.0974,-10.2055,10.7272,-0.0151,7.4226,-11.9029,14.0084,3.6167,10.6595,-13.1067,12.4157
816.4062,8.2784,3.6134,13.9146,-15.2131,5.1293,2.5828,10.9954,-17.6630,5.4193,-4.4580,12.8607,1.0867,3.8781,-11.3095,18.8831,6.5463,8.4574,-11.0455,11.0719
820.3125,5.4220,6.4787,12.7950,-13.8743,1.9459,4.9142,10.6522,-15.5004,2.9695,-0.6351,13.1953,2.6885,0.5825,-9.3106,19.7033,9.1231,5.8970,-8.5289,9.5173
824.2188,1.0380,8.6022,10.5264,-11.1682,0.2204,5.8829,9.3608,-12.2099,-0.3975,0.3045,11.2682,4.4229,-1.4798,-6.6025,15.5607,10.7729,3.7607,-6.2129,7.7898
828.1250,-3.3857,9.2069,7.9085,-7.7935,-0.3267,5.4106,7.3658,-8.7876,-3.6060,-1.1929,7.8113,5.8370,-2.1750,-3.9943,8.1454,11.0428,2.2861,-4.4168,6.1304
832.0312,-6.7198,8.1642,5.7906,-4.6303,-0.9136,3.8906,5.2558,-6.0472,-6.0234,-3.7301,4.2467,6.5834,-2.3528,-2.1571,0.7641,9.8259,1.0137,-3.1510,4.7473
835.9375,-8.6275,6.0847,4.4174,-2.4749,-2.9148,2.0375,3.4377,-4.4535,-7.6984,-5.8094,1.7852,6.5356,-3.2847,-1.4808,-3.5509,7.5331,-0.8350,-2.3592,3.5370
839.8438,-9.4307,3.9970,3.2358,-1.7830,-6.8591,0.6600,1.8043,-4.0751,-9.0900,-6.5374,0.7427,5.7719,-5.7868,-1.9972,-3.6878,5.0372,-3.7075,-2.1078,2.0282
843.7500,-9.6382,2.7451,1.3449,-2.4947,-11.9116,0.3710,-0.1158,-4.5841,-10.5623,-5.8306,0.5184,4.4668,-9.6242,-3.3309,-0.8927,3.3149,-7.2527,-2.5198,-0.3302
847.6562,-9.5355,2.4536,-1.7190,-4.0258,-16.2389,1.3030,-2.6365,-5.3166,-12.0425,-4.1533,0.1891,2.7824,-13.5967,-4.7290,2.1684,2.9254,-10.3767,-3.5078,-3.6968
851.5625,-9.1005,2.4224,-5.4629,-5.4836,-18.0571,2.9739,-5.4698,-5.4781,-13.0710,-2.1023,-0.7694,0.8338,-16.2394,-5.2782,3.0462,3.6333,-11.8233,-4.5818,-7.5437
855.4688,-8.2171,1.5824,-8.6321,-6.0596,-16.6886,4.4367,-7.7855,-4.5155,-13.1621,-0.1524,-2.1870,-1.2682,-16.6673,-4.3228,0.8038,4.4629,-10.9260,-4.9876,-10.8324
859.3750,-6.9417,-0.7363,-10.0468,-5.4199,-12.9397,4.7125,-8.8093,-2.4936,-12.1760,1.3522,-3.5216,-3.3550,-15.0212,-1.8944,-3.7412,4.2303,-8.0513,-4.1609,-12.6203
863.2812,-5.5858,-4.2219,-9.5043,-3.8532,-8.5667,3.3085,-8.5274,-0.1877,-10.4291,2.1227,-4.4894,-5.1887,-12.2598,1.1698,-8.8070,2.2776,-4.4348,-2.1794,-12.7081
867.1875,-4.5533,-7.6156,-8.0597,-2.0425,-5.1994,0.5207,-7.9103,1.2976,-8.4808,1.9705,-5.4419,-6.5216,-9.4795,3.6288,-12.8249,-1.0416,-1.4896,0.1772,-11.8388
871.0938,-4.0726,-9.4134,-7.4144,-0.5682,-3.4298,-2.6927,-8.3798,1.2502,-6.7732,1.0040,-7.1387,-7.1888,-7.2306,4.6186,-15.2290,-4.4672,0.0023,1.8912,-11.2360
875.0000,-4.0292,-8.8214,-8.7787,0.5354,-2.6194,-5.2233,-10.8185,-0.0360,-5.3837,-0.2156,-10.0588,-7.1707,-5.2577,4.3250,-16.4675,-6.5120,0.3264,2.4132,-11.7472
878.9062,-4.0143,-6.3414,-11.9853,1.8337,-1.4786,-6.4164,-14.8136,-1.2411,-4.0455,-0.8048,-13.8012,-6.5892,-2.7902,4.0225,-17.4033,-6.3226,0.6316,2.0930,-13.1813
882.8125,-3.5518,-3.5703,-15.4899,4.0654,1.0261,-6.3991,-18.7231,-0.7290,-2.3980,-0.0308,-17.0984,-5.6511,0.8439,5.3247,-18.6171,-4.1952,2.2069,1.9663,-14.3471
886.7188,-2.3591,-2.3005,-17.2902,7.4988,5.0368,-5.9399,-20.5936,2.3997,-0.2865,2.1297,-18.5215,-4.5825,5.6827,9.0565,-20.0649,-1.4214,5.6676,2.9928,-13.8268
890.6250,-0.5012,-3.4781,-16.1614,11.5340,9.7917,-5.9459,-19.3441,7.6102,2.0819,4.7582,-17.4188,-3.5912,10.9880,14.5103,-21.2023,0.4394,10.5354,5.2718,-10.9864
894.5312,1.6274,-6.6795,-12.3868,14.8896,14.1461,-6.9310,-15.4179,13.1175,4.2107,6.3586,-14.4103,-2.8575,15.5600,19.6702,-21.3691,0.4084,15.4561,7.8321,-6.5220
898.4375,3.4707,-10.4304,-7.5212,16.3162,17.2273,-8.7803,-10.4620,16.8972,5.5708,5.6950,-11.0471,-2.5298,18.3138,22.3541,-20.1335,-1.4516,18.9291,9.2023,-2.1335
902.3438,4.5594,-13.1412,-3.3867,15.3804,18.8208,-10.9211,-6.2701,17.8805,5.9070,2.6123,-8.8304,-2.7036,18.8092,21.5592,-17.4356,-4.2027,20.1215,8.4059,0.4892
906.2500,4.7462,-14.0419,-0.9982,12.7744,19.3364,-12.7353,-3.7198,16.5282,5.4440,-1.7112,-8.2463,-3.3934,17.4732,18.0985,-13.5583,-6.6566,19.3050,5.6857,0.7010
910.1562,4.3321,-13.5278,-0.1087,9.9068,19.4813,-13.9186,-2.4120,14.3957,4.8801,-5.3065,-8.4750,-4.5213,15.4214,14.0647,-9.0290,-8.0298,17.6739,2.4317,-0.7249
914.0625,3.9989,-12.7379,0.4058,8.0307,19.8890,-14.5665,-1.1902,13.0032,5.1363,-6.4668,-7.9705,-5.9389,13.9705,11.4671,-4.5007,-8.2397,16.6649,0.3378,-2.1179
917.9688,4.5243,-12.6917,1.6798,7.5026,20.8813,-14.9862,0.9019,12.8150,6.9312,-4.6774,-5.5140,-7.4684,14.0632,10.9746,-0.5812,-7.7384,17.1753,0.3593,-1.9564
921.8750,6.3695,-13.5725,4.1352,7.6816,22.4013,-15.4141,3.9325,13.0378,10.3615,-0.8532,-1.0415,-8.9305,15.8662,11.6323,2.3931,-7.0892,19.1215,2.1809,0.2587
925.7812,9.3423,-14.6089,7.3438,7.5260,24.0742,-15.8494,7.1188,12.3469,14.7166,3.2435,4.2788,-10.1366,18.7297,11.7244,4.5344,-6.6103,21.5711,4.5332,3.8413
929.6875,12.5592,-14.5929,10.4535,6.4400,25.3656,-16.0911,9.4830,9.9785,18.6902,6.0051,8.7283,-10.8628,21.5381,10.1382,6.3596,-6.2884,23.3409,6.0914,7.4935
933.5938,14.8051,-12.6718,12.7900,4.7487,25.8303,-15.9042,10.5908,6.3771,20.9595,6.7559,11.0112,-10.8534,23.2899,7.2305,8.4582,-5.9270,23.6983,6.2967,10.1634
937.5000,15.1474,-8.9118,14.2001,3.4501,25.3968,-15.1649,10.8317,2.9362,20.8647,5.8534,10.9183,-9.8874,23.6092,4.5725,11.0290,-5.3419,22.7529,5.5363,11.6023
941.4062,13.4698,-4.3109,14.9749,3.4300,24.5417,-13.8854,11.0919,1.0431,18.8007,4.1478,9.3364,-7.8949,22.9064,3.7726,13.6256,-4.4413,21.3291,4.6174,12.3181
945.3125,10.5851,-0.2894,15.5203,4.7159,24.1694,-12.1367,12.1229,1.1321,16.0453,2.2636,7.6945,-5.0572,22.0821,5.2417,15.3722,-3.1829,20.4189,3.9901,13.0678
949.2188,7.8135,2.0202,16.0728,6.3225,25.1477,-9.9697,14.0871,2.4136,14.0613,0.2397,7.2318,-1.8108,21.9371,7.8008,15.5930,-1.5248,20.5597,3.3324,14.3096
953.1250,6.2493,2.2900,16.6428,6.8150,27.6953,-7.4200,16.5607,3.4360,13.6589,-2.2551,8.4859,1.2708,22.6374,9.4082,14.4379,0.5277,21.5089,1.8072,15.9777
957.0312,6.1581,1.0718,17.1327,5.2054,31.0150,-4.5922,18.8939,3.0417,14.5269,-5.3675,11.1814,3.6704,23.5739,8.4887,12.9973,2.8020,22.3968,-1.2217,17.6446
960.9375,6.8834,-0.5619,17.4547,1.5761,33.5022,-1.7437,20.5906,1.0447,15.4470,-8.6564,14.4548,5.0961,23.7197,4.9409,12.7086,4.8994,22.2467,-5.5663,18.8564
964.8438,7.3231,-1.5913,17.5314,-2.9705,33.5304,0.7235,21.4317,-1.7883,15.0750,-11.1997,17.2321,5.5389,22.2754,0.1609,14.3753,6.3122,20.5415,-10.1558,19.3622
968.7500,6.6608,-1.5365,17.2310,-6.9606,30.4007,2.3854,21.3482,-4.3421,12.7985,-12.1580,18.6087,5.2064,19.1977,-3.8693,17.4770,6.6849,17.5033,-13.5883,19.1288
972.6562,4.8701,-0.6272,16.3768,-9.3353,24.8576,2.9714,20.2724,-5.8521,9.1188,-11.3788,18.1493,4.3946,15.2724,-5.7583,20.3241,6.0422,13.9438,-14.9042,18.2342
976.5625,2.6627,0.4108,14.8972,-9.8739,18.7845,2.4963,18.1795,-6.2183,5.3117,-9.5720,16.0540,3.3919,11.6781,-5.3646,21.0563,4.8013,10.8004,-14.0540,16.8080
980.4688,0.9355,0.8325,13.0111,-9.0581,14.2017,1.2803,15.2989,-5.8098,2.6017,-7.8938,13.1206,2.4638,9.3140,-3.5933,18.8595,3.5382,8.6472,-11.7838,15.0743
984.3750,0.1097,0.3600,11.2543,-7.5796,12.1542,-0.1477,12.2553,-5.0209,1.4052,-7.2091,10.4488,1.8932,8.3085,-1.6048,14.5652,2.6714,7.4570,-9.0797,13.3974
988.2812,-0.1727,-0.5883,10.2386,-5.8912,12.1777,-1.2126,9.9088,-3.9656,1.1395,-7.5387,8.9505,1.9929,8.0036,-0.0594,10.1772,2.2981,6.7137,-6.5910,12.1894
992.1875,-0.7867,-1.0750,10.2587,-4.0906,12.6669,-1.4634,8.9073,-2.5152,0.7030,-8.0720,8.8810,3.0227,7.3995,1.1076,7.6048,2.2939,5.7669,-4.4058,11.6673
996.0938,-2.4784,-0.1606,11.0270,-2.1268,11.8934,-0.7088,9.2414,-0.5712,-0.7262,-7.7314,9.6739,5.0234,5.7599,2.3398,7.4523,2.5676,4.1937,-2.2562,11.6274
1000.0000,-5.2851,2.5056,11.7662,-0.0816,9.0187,0.9091,10.1585,1.6982,-3.1266,-5.9014,10.2328,7.6652,3.0064,3.9080,8.6856,3.2267,1.9729,0.0771,11.4581
1003.9062,-8.4212,6.3593,11.6453,1.7270,4.4874,2.9245,10.5586,3.8560,-5.6739,-2.8467,9.5597,10.2391,-0.3070,5.5960,9.3932,4.4839,-0.5845,2.4859,10.4645
1007.8125,-10.7152,10.0799,10.2784,2.8897,-0.3750,4.6637,9.6367,5.4001,-7.3264,0.4259,7.3584,11.8603,-3.3679,6.8131,8.0907,6.3648,-3.0491,4.5547,8.3238
1011.7188,-11.3093,12.1915,7.9367,3.1559,-4.2159,5.4607,7.3340,5.9919,-7.5286,2.7327,4.2250,11.8274,-5.5552,6.9863,4.6612,8.4737,-5.0753,5.8150,5.3517
1015.6250,-10.1673,11.8030,5.3207,2.5895,-6.3737,4.9140,4.2871,5.5521,-6.5482,3.3322,1.2884,9.9696,-6.6886,5.9194,0.3095,10.0629,-6.4824,6.0202,2.3533
1019.5312,-8.0657,9.0866,3.0591,1.5365,-7.0426,3.0771,1.3295,4.2264,-5.2369,2.2530,-0.4810,6.7832,-6.9688,3.9029,-3.3647,10.4198,-7.2111,5.2708,0.1287
1023.4375,-6.0866,5.2214,1.3033,0.4680,-6.8875,0.4742,-1.0754,2.3317,-4.4069,0.2152,-0.8470,3.2547,-6.7117,1.5749,-5.4573,9.3168,-7.2351,3.9643,-1.0357
1027.3438,-4.9439,1.8228,-0.2919,-0.1691,-6.4689,-2.0952,-3.0548,0.3590,-4.2640,-1.7214,-0.4021,0.4290,-6.0884,-0.3162,-6.2294,7.1821,-6.5158,2.6577,-1.5285
1031.2500,-4.5709,0.1590,-2.2068,-0.0288,-5.9008,-3.8917,-5.0714,-1.0282,-4.2777,-2.5625,-0.1397,-1.0641,-5.0377,-1.1193,-6.6852,4.8373,-5.0330,1.9257,-2.1110
1035.1562,-4.2165,0.5652,-4.6114,1.0885,-4.9204,-4.5526,-7.4301,-1.1393,-3.5565,-1.6878,-0.8133,-1.2736,-3.3826,-0.4343,-7.6618,2.9745,-2.8606,2.2262,-3.3705
1039.0625,-2.9791,2.3440,-7.1869,3.1509,-3.2370,-4.2302,-9.9598,0.4103,-1.4676,0.9695,-2.5144,-0.8324,-1.0462,1.7529,-9.1700,1.7507,-0.2220,3.7445,-5.3246
1042.9688,-0.4438,4.1714,-9.3491,5.7850,-0.8518,-3.4857,-12.1166,3.3461,1.9053,4.8594,-4.7187,-0.5551,1.7814,4.9749,-10.4791,0.8019,2.5202,6.2405,-7.4517
1046.8750,2.9651,4.7683,-10.6866,8.2669,1.8754,-3.0008,-13.4088,6.6577,5.7435,8.9050,-6.7112,-0.9597,4.6285,8.3358,-10.8263,-0.3499,4.9462,9.0143,-9.0977
1050.7812,6.1277,3.4874,-11.2587,9.7406,4.4258,-3.2686,-13.7808,8.9911,8.9088,11.8045,-8.0538,-1.9955,6.8930,10.8093,-10.1488,-1.8259,6.7053,11.1102,-9.9331
1054.6875,7.7934,0.5474,-11.5086,9.6420,6.4157,-4.4201,-13.6398,9.3795,10.5323,12.5266,-8.7689,-3.1341,8.0925,11.7208,-9.2345,-3.2441,7.6412,11.7490,-10.1105
1058.5938,7.2581,-3.1536,-11.8572,8.1010,7.7906,-6.2565,-13.5007,7.8811,10.4400,10.8131,-9.1577,-3.7603,8.1066,11.1545,-9.1639,-4.0243,7.8784,10.7818,-10.0184
1062.5000,4.7846,-6.5073,-12.2997,6.0225,8.8291,-8.4315,-13.5422,5.6589,9.2019,7.3858,-9.4443,-3.6064,7.3057,9.9835,-10.4747,-3.9076,7.8272,8.8601,-9.8452
1066.4062,1.5390,-8.6987,-12.3300,4.6987,9.9919,-10.6547,-13.4332,4.3584,7.8125,3.6549,-9.5389,-2.9451,6.4873,9.4108,-12.6899,-3.2646,8.0812,7.1440,-9.3119
1070.3125,-0.9339,-9.5153,-11.2741,5.1160,11.7087,-12.7926,-12.5732,5.1126,7.2008,1.0112,-9.0889,-2.4132,6.6091,10.2476,-14.5632,-2.9178,9.2074,6.6578,-7.7968
1074.2188,-1.4285,-9.3495,-8.7935,7.3646,14.1821,-14.8275,-10.5620,7.7994,7.8234,0.0961,-7.7507,-2.5828,8.3966,12.3796,-14.8545,-3.5782,11.4922,7.6748,-4.7774
1078.1250,0.3749,-8.9309,-5.1922,10.5409,17.2596,-16.7310,-7.5394,11.0574,9.5231,0.5157,-5.4602,-3.5713,11.9847,14.7956,-13.0673,-5.3083,14.7559,9.5356,-0.2729
1082.0312,3.8119,-8.9387,-1.3028,13.2336,20.4235,-18.3594,-4.1466,13.0821,11.6852,1.2108,-2.5096,-4.9598,16.7819,16.1967,-9.6537,-7.4231,18.3599,11.0434,5.0240
1085.9375,7.6262,-9.6839,1.9680,14.3044,22.9417,-19.4557,-1.1580,12.7104,13.5821,1.2503,0.5943,-6.0823,21.6623,15.7982,-5.6164,-8.9204,21.4490,11.1968,10.0165
1089.8438,10.6317,-11.0014,4.1154,13.4729,24.1702,-19.7634,0.9350,10.1010,14.7239,0.5055,3.3623,-6.4957,25.4273,13.7922,-1.8722,-9.1410,23.3389,9.7832,13.6893
1093.7500,12.2803,-12.3843,5.2280,11.3519,23.8893,-19.1812,2.1053,6.5828,15.0497,-0.2776,5.4848,-6.3027,27.3162,11.1623,1.1485,-8.1826,23.8475,7.4484,15.5114
1097.6562,12.8283,-13.2714,5.8104,8.9524,22.4722,-17.8543,2.6659,3.7933,14.8841,-0.0711,6.8654,-6.0971,27.2890,8.9884,3.4594,-6.7781,23.3631,5.2177,15.5508
1101.5625,13.0270,-13.3285,6.4151,7.0254,20.7315,-16.1369,3.0069,2.6793,14.7013,1.5970,7.5775,-6.5482,25.9259,7.7330,5.2090,-5.7420,22.5860,3.8169,14.3124
1105.4688,13.5476,-12.5781,7.3544,5.6850,19.4754,-14.4390,3.4191,2.9941,14.8314,4.1664,7.8258,-7.8949,24.0117,6.9974,6.4578,-5.3972,22.0789,3.2617,12.4676
1109.3750,14.5056,-11.3234,8.6469,4.5217,19.0292,-13.0421,4.0881,3.5688,15.2681,6.2869,7.9263,-9.6874,22.0767,5.8959,7.2366,-5.3948,21.9045,2.9669,10.6453
1113.2812,15.3851,-9.9331,10.1452,3.0554,19.0506,-11.9884,5.1574,3.1251,15.6746,6.6181,8.2446,-10.9633,20.1892,3.7531,7.7535,-5.0349,21.5918,2.2498,9.3383
1117.1875,15.4058,-8.6263,11.6720,1.1534,18.8025,-11.1056,6.7009,1.0724,15.5811,4.6312,9.0441,-10.7666,18.1195,0.6176,8.4391,-3.8359,20.4701,0.8336,8.8693
1121.0938,14.0895,-7.3878,13.0483,-0.8884,17.7200,-10.1438,8.5815,-2.2013,14.6582,0.8675,10.2980,-8.6963,15.7320,-2.7652,9.6649,-1.9317,18.1591,-1.0059,9.3462
1125.0000,11.6503,-6.0529,14.0531,-2.6215,15.8704,-8.9355,10.3484,-5.6683,12.9161,-3.4824,11.6167,-5.1591,13.2871,-5.4785,11.3120,-0.0231,14.8874,-2.7158,10.6165
1128.9062,8.9472,-4.4883,14.4478,-3.8246,13.9416,-7.4790,11.3672,-8.3455,10.7223,-7.3248,12.4119,-1.1849,11.3974,-7.0672,12.6032,1.0666,11.4140,-3.9150,12.2906
1132.8125,7.0206,-2.7399,14.1287,-4.6787,12.7322,-5.8990,11.1954,-9.8604,8.6312,-10.1853,12.2576,2.0724,10.6315,-7.8281,12.4810,0.9190,8.5932,-4.6624,13.8797
1136.7188,6.5053,-1.0409,13.3100,-5.6111,12.5020,-4.3245,9.9638,-10.5662,7.1226,-12.1769,11.2226,3.8570,11.0376,-8.5664,10.3881,-0.2150,6.8722,-5.3609,14.9959
1140.6250,7.2874,0.3285,12.5359,-6.9447,12.6871,-2.7826,8.4279,-11.1925,6.3832,-13.5464,9.9125,4.0790,11.9461,-10.0021,6.9089,-1.5590,6.0629,-6.4024,15.4814
1144.5312,8.6064,1.2405,12.4137,-8.6282,12.2422,-1.1937,7.5508,-12.2993,6.2386,-14.2448,9.1299,3.2285,12.2455,-12.2376,3.7178,-2.2459,5.5383,-7.8424,15.3748
1148.4375,9.5133,1.8419,13.1888,-10.2385,10.4010,0.5202,7.8453,-13.8827,6.2569,-13.9093,9.3458,2.0390,10.9929,-14.6374,2.7206,-1.7713,4.7045,-9.3392,14.7497
1152.3438,9.3791,2.5048,14.4699,-11.2284,7.2980,2.2999,8.9527,-15.3464,5.9581,-12.2579,10.3480,1.1206,7.9755,-16.1763,4.8722,-0.2216,3.4041,-10.3713,13.5786
1156.2500,8.1418,3.6144,15.3650,-11.2231,3.9579,3.9030,9.8244,-15.8228,5.0219,-9.5263,11.3444,0.7538,3.8444,-16.0179,9.4633,1.8135,1.9577,-10.5406,11.7675
1160.1562,6.1819,5.3060,15.0116,-10.1603,1.6057,5.0192,9.4491,-14.6394,3.3978,-6.5194,11.4862,0.9124,-0.2762,-13.9594,14.4135,3.5687,0.8265,-9.7409,9.3523
1164.0625,3.9655,7.3122,13.1632,-8.2262,0.7758,5.4949,7.6269,-11.6785,1.2778,-4.1631,10.4549,1.4463,-3.4482,-10.4989,17.4439,4.4990,0.1612,-8.1161,6.6886
1167.9688,1.7277,9.0290,10.4025,-5.6902,0.8866,5.5182,5.2023,-7.4576,-1.0332,-2.8740,8.6894,2.2833,-5.4065,-6.5265,17.3906,4.5624,-0.3975,-5.9092,4.4262
1171.8750,-0.5951,9.7953,7.7863,-2.7944,0.6409,5.6038,3.5286,-2.9041,-3.2691,-2.2472,7.0746,3.5218,-6.5540,-2.8564,14.8070,4.2578,-1.4883,-3.3603,3.2134
1175.7812,-3.1764,9.2474,6.1413,0.2465,-0.9905,6.3319,3.5114,1.0553,-5.2878,-1.3500,6.3121,5.3622,-7.4950,0.1287,11.4827,4.3799,-3.5103,-0.7166,3.3026
1179.6875,-6.0223,7.5516,5.5137,3.1971,-3.8974,7.9639,4.9227,3.8903,-7.0474,0.5579,6.4362,7.9144,-8.4613,2.5461,9.2362,5.5805,-6.1944,1.7208,4.3489
1183.5938,-8.8174,5.3658,5.1848,5.8089,-6.7268,10.1738,6.5130,5.6510,-8.4971,3.4050,6.8403,10.9911,-9.0597,4.7973,8.8076,7.9410,-8.6023,3.6352,5.5834
1187.5000,-10.9948,3.5294,4.2560,7.9090,-7.6786,12.0999,6.8644,6.8413,-9.4691,6.2625,6.7878,14.0178,-8.5347,7.2154,9.5563,10.8080,-9.6003,4.8413,6.2697
1191.4062,-11.9730,2.6443,2.3654,9.4880,-5.6895,12.7438,5.3670,8.0455,-9.6659,7.9321,6.0047,16.1479,-6.3670,9.7768,10.0744,13.0381,-8.5203,5.4276,6.1245
1195.3125,-11.4069,2.7836,-0.0155,10.6781,-1.2016,11.5184,2.5919,9.5159,-8.7828,7.7564,4.8744,16.5728,-2.7788,12.0343,9.1995,13.5736,-5.5756,5.7335,5.3883
1199.2188,-9.3195,3.5014,-1.9526,11.6105,4.0158,8.6269,-0.2176,10.9798,-6.7141,6.0762,4.0604,14.9016,1.2270,13.3188,6.6996,12.0348,-1.7600,6.1274,4.4926
1203.1250,-6.0783,4.1345,-2.8139,12.2718,7.8851,5.0285,-2.1423,11.8157,-3.7134,4.0221,3.8402,11.4131,4.3531,13.1181,3.2202,8.9530,1.6985,6.7317,3.5889
1207.0312,-2.2676,4.2043,-2.8338,12.5117,9.2132,1.9841,-3.2922,11.5206,-0.3833,2.8102,3.6941,7.0147,5.7175,11.4423,-0.3424,5.4627,3.9697,7.3307,2.3343
1210.9375,1.4686,3.6639,-3.0058,12.2380,8.2997,0.4283,-4.6603,10.1803,2.5432,3.0438,2.5361,2.8888,5.3371,8.9591,-3.4892,2.6222,4.9486,7.5728,0.1435
1214.8438,4.5704,2.8400,-4.3384,11.6491,6.6212,0.5230,-7.2221,8.6032,4.5313,4.4796,-0.5077,-0.0176,4.0889,6.7762,-6.2984,0.8064,5.1179,7.3333,-3.2485
1218.7500,6.6760,2.1249,-7.0119,11.2689,5.8626,1.6330,-10.9761,7.9602,5.4963,6.3379,-5.3092,-1.3891,3.1918,5.9313,-9.0751,-0.4074,5.1054,6.9347,-7.3419
1222.6562,7.6943,1.6445,-10.0804,11.6713,6.9556,2.7112,-14.6955,9.0983,5.8183,7.8536,-10.5417,-1.6042,3.5474,6.8410,-11.8327,-1.7775,5.2753,6.9904,-10.9282
1226.5625,7.8035,1.1368,-11.9898,13.0360,9.6944,2.8384,-16.6324,11.9470,6.0917,8.6472,-14.2978,-1.4308,5.3348,9.0340,-14.0733,-3.6980,5.6159,7.9347,-12.6799
1230.4688,7.3517,0.1221,-11.5774,14.8716,13.0672,1.6071,-15.6949,15.4349,6.7567,8.7163,-15.1624,-1.5458,8.0581,11.3728,-15.0527,-5.7942,5.9429,9.5822,-11.9061
1234.3750,6.6965,-1.7622,-8.8571,16.1860,15.9757,-0.8282,-12.2405,18.0332,7.8427,8.1870,-13.0411,-2.1743,10.9513,12.6928,-14.3128,-7.1415,6.2062,11.1024,-8.9613
1238.2812,6.0742,-4.4994,-5.0310,16.0765,17.8422,-3.9776,-7.8970,18.6293,8.9984,7.1336,-9.1775,-3.0617,13.4492,12.5044,-12.0481,-6.9743,6.6485,11.5133,-5.0202
1242.1875,5.5969,-7.6751,-1.7176,14.3708,18.7798,-7.3080,-4.5292,17.1807,9.7978,5.6500,-5.3426,-3.7676,15.4450,11.3187,-9.0181,-5.3553,7.7049,10.3883,-1.3704
1246.0938,5.3865,-10.6886,0.0606,11.8470,19.3405,-10.4038,-3.0854,14.7092,10.1258,4.0658,-2.7356,-4.0573,17.2271,10.3456,-6.0778,-3.2789,9.7394,8.2577,1.2921
1250.0000,5.7271,-13.0193,0.4419,9.8104,20.1044,-12.9491,-3.1191,12.6154,10.3751,3.0201,-1.3243,-4.1085,19.1916,10.7040,-3.6783,-2.0796,12.8171,6.3542,3.1029
1253.9062,7.0689,-14.3647,0.4975,9.2644,21.3810,-14.6413,-3.2652,11.7588,11.2950,3.2060,-0.0410,-4.3853,21.5284,12.6231,-1.6874,-2.5421,16.6526,5.8210,4.6915
1257.8125,9.7942,-14.5947,1.4363,10.2373,23.1352,-15.1833,-2.2532,11.9280,13.5521,4.9031,2.3439,-5.2690,24.0493,15.1686,0.3913,-4.3476,20.7269,6.9194,6.5673
1261.7188,13.8542,-13.6365,3.8327,11.7615,25.0781,-14.4006,0.3004,12.0757,17.2627,7.6576,6.2900,-6.7049,26.2262,16.7278,3.0159,-6.2675,24.4596,8.8151,8.7020
1265.6250,18.5380,-11.4518,7.3797,12.5536,26.8125,-12.3947,3.8397,11.1639,21.7963,10.4199,11.1257,-8.1180,27.4066,15.9973,6.3302,-6.9733,27.3319,10.1318,10.5968
1269.5312,22.6142,-8.1666,11.2385,11.9290,27.9755,-9.5848,7.4707,9.0216,26.0023,12.1216,15.4650,-8.6754,27.1158,12.8588,10.1683,-5.8893,28.9501,9.8978,11.7384
1273.4375,24.8648,-4.2436,14.6280,10.2872,28.3744,-6.5696,10.6528,6.5777,28.7530,12.3088,18.0817,-7.7445,25.3302,8.5568,14.2416,-3.4919,29.1070,8.2083,12.0624
1277.3438,24.7349,-0.4982,17.1987,8.7915,28.1029,-3.8844,13.4265,5.2551,29.4969,11.3647,18.6418,-5.2755,22.6008,5.0149,18.2903,-0.8797,27.8731,6.1103,12.0661
1281.2500,22.6847,2.1526,18.9929,8.4528,27.5659,-1.8135,16.0710,5.9099,28.4974,10.1275,17.8349,-1.8774,19.9328,3.6900,22.0704,1.0294,25.6638,4.7839,12.4990
1285.1562,19.9635,3.1168,20.1569,9.2828,27.3351,-0.3733,18.5812,8.0593,26.6124,9.1697,16.8766,1.4563,18.4125,4.6872,25.2456,2.0674,23.1742,4.6134,13.8829
1289.0625,17.8913,2.4716,20.7365,10.1607,27.8493,0.5602,20.4850,9.9878,24.7512,8.2835,16.7523,3.8243,18.7060,6.7139,27.3704,2.7616,21.1326,4.8428,16.2105
1292.9688,17.0778,0.9780,20.7345,9.5555,29.1120,1.1136,21.1904,9.7388,23.3413,6.5935,17.6899,4.8400,20.6741,7.9188,28.0651,3.7638,19.9705,4.0902,19.0025
1296.8750,17.0858,-0.2817,20.3089,6.6186,30.5956,1.3896,20.5632,6.3768,22.1326,3.2636,19.1403,4.7835,23.3414,7.0787,27.2857,5.2555,19.6129,1.3710,21.6158
1300.7812,16.7792,-0.4497,19.8323,1.8676,31.4599,1.5485,19.2041,0.6837,20.4567,-1.6964,20.1969,4.4147,25.3003,4.3621,25.4578,6.8035,19.5548,-3.1011,23.5304
1304.6875,15.1388,0.6966,19.6650,-3.0506,30.9806,1.8714,18.1251,-5.2039,17.7674,-7.1286,20.1418,4.5444,25.3681,1.1732,23.3195,7.7559,19.2038,-7.9203,24.4228
1308.5938,12.0052,2.6943,19.7956,-6.3803,28.9168,2.6784,18.0355,-9.0165,14.1041,-11.2083,18.7966,5.5872,23.1391,-0.8105,21.5417,7.8271,18.2667,-11.3144,24.0638
1312.5000,8.2388,4.7041,19.6936,-7.3666,25.5742,4.1106,18.7969,-9.6610,10.1636,-12.4392,16.5403,7.3256,19.1040,-0.7619,20.3911,7.3837,16.9031,-12.2282,22.2435
1316.4062,5.1719,5.9686,18.5954,-6.6839,21.5321,5.9372,19.5046,-7.7856,6.9129,-10.5289,14.0663,9.0231,14.2710,0.7612,19.6835,7.1966,15.5256,-10.9271,18.8867
1320.3125,3.7107,6.1569,16.0881,-5.8918,17.2472,7.5788,19.1606,-5.2609,4.9819,-6.5730,12.0568,9.8482,9.5461,2.2166,19.0507,7.8625,14.3880,-8.7306,14.3027
1324.2188,3.6892,5.4472,12.5552,-6.3006,12.8381,8.3961,17.4212,-3.9437,4.2317,-2.4356,10.9308,9.3965,5.2923,2.1367,18.2912,9.3566,13.2806,-7.0861,9.3305
1328.1250,3.9189,4.3690,9.0874,-8.0346,8.2056,8.0731,14.8330,-4.5394,3.7969,0.2691,10.7300,8.0145,1.3567,0.1344,17.5078,11.0622,11.5931,-6.6288,5.1580
1332.0312,2.9176,3.5393,6.8411,-9.9281,3.3767,6.8173,12.3687,-6.2709,2.6042,0.9570,11.1427,6.7041,-2.4874,-2.8003,16.9178,12.2354,8.7402,-6.8470,2.8342
1335.9375,-0.1496,3.4244,6.2736,-10.3078,-1.2227,5.2100,10.6444,-7.5075,0.0529,0.1747,11.6363,6.6024,-6.0454,-4.8893,16.5091,12.5219,4.6690,-6.5289,2.7530
1339.8438,-4.9187,4.1912,6.8222,-8.1180,-4.8139,3.8012,9.4561,-6.8799,-3.5747,-0.9539,11.6618,8.2978,-8.5667,-4.6369,15.8613,12.1197,0.0757,-4.6472,4.4631
1343.7500,-10.0090,5.6556,7.2948,-3.6407,-6.6336,2.7510,8.0183,-4.1402,-7.2428,-1.5083,10.8667,11.3804,-9.1245,-1.6913,14.3316,11.4904,-3.8561,-1.0831,6.9530
1347.6562,-13.8059,7.3286,6.7103,1.6307,-6.3795,1.8032,5.7131,-0.2522,-9.7621,-1.2669,9.2257,14.5368,-7.2729,3.0167,11.5039,10.8900,-6.0586,3.2530,9.2224
1351.5625,-15.3395,8.5725,4.9705,5.8360,-4.4223,0.6192,2.7239,3.2630,-10.4798,-0.6591,7.0135,16.1931,-3.5194,7.8786,7.5642,10.1360,-6.1509,6.9246,10.7463
1355.4688,-14.7228,8.8487,2.8599,7.7452,-1.6386,-0.7927,0.0061,5.2449,-9.6243,-0.2950,4.6222,15.3683,0.7537,11.5139,3.2985,8.8143,-4.6188,8.7461,11.5227
1359.3750,-12.9191,7.9725,1.3755,7.3110,1.0171,-1.9196,-1.4300,5.4931,-8.0888,-0.4447,2.3318,12.2351,3.9161,13.4044,-0.3124,6.7535,-2.5073,8.3677,11.7190
1363.2812,-11.0390,6.2340,0.9019,5.5237,2.9240,-2.0268,-1.3754,4.7433,-6.8078,-0.8137,0.1870,8.0369,4.8919,13.9296,-2.6213,4.3562,-0.8351,6.3865,11.2427
1367.1875,-9.6439,4.2816,0.8736,3.7588,3.9575,-0.7047,-0.7247,4.1346,-6.1414,-0.7245,-1.9325,4.3944,3.6488,13.8908,-3.5992,2.4727,-0.0983,3.9937,9.6167
1371.0938,-8.4852,2.7984,0.1940,3.0594,4.3684,1.7266,-0.9375,4.5543,-5.6706,0.4498,-4.1050,2.4176,1.1033,13.9126,-3.7122,1.8662,-0.1335,2.4013,6.2942
1375.0000,-6.8059,2.1464,-1.9045,3.7335,4.5282,4.2806,-3.0195,6.2302,-4.5294,2.8824,-6.1928,2.1653,-1.4462,14.1091,-3.5431,2.6526,-0.3545,2.3358,1.1877
1378.9062,-3.9715,2.2006,-5.2174,5.3838,4.7271,5.8241,-6.7744,8.7177,-2.0465,6.1432,-7.8587,2.7672,-2.9675,14.1616,-3.4833,4.1468,-0.1550,3.7994,-5.0008
1382.8125,-0.0124,2.4789,-8.6368,7.2379,5.1126,5.6968,-10.8885,11.1921,1.7285,9.3639,-8.7844,3.0933,-3.0421,13.6719,-3.7087,5.2555,0.7871,6.1541,-10.9371
1386.7188,4.2628,2.4778,-10.8875,8.5471,5.7227,4.0060,-13.7952,12.8450,5.9516,11.6138,-8.9331,2.5056,-1.7918,12.5171,-4.3673,5.1580,2.4429,8.4604,-15.2371
1390.6250,7.6455,1.9768,-11.3802,8.8838,6.5250,1.4174,-14.6824,13.2158,9.4039,12.2975,-8.6439,1.1989,0.4421,10.9937,-5.7065,3.7980,4.5643,9.9177,-17.1066
1394.5312,9.1650,1.1050,-10.5507,8.2698,7.4305,-1.3561,-13.9166,12.3686,11.1351,11.3966,-8.4602,-0.0674,3.3677,9.7053,-7.9338,1.8496,6.8661,10.2134,-16.6350
1398.4375,8.6131,0.1410,-9.4559,7.1355,8.3254,-3.9619,-12.6084,10.8766,10.9391,9.4479,-8.7953,-0.6193,6.7808,9.2876,-10.8891,0.1938,9.1377,9.6104,-14.5926
1402.3438,6.6567,-0.7817,-8.9562,6.1307,9.1647,-6.4276,-11.6944,9.6010,9.3998,7.2614,-9.6756,-0.4282,10.4223,10.1117,-13.8504,-0.7110,11.2546,8.7157,-11.9192
1406.2500,4.4809,-1.8264,-9.1055,5.8346,10.0833,-8.8541,-11.2493,9.3064,7.5211,5.4988,-10.7491,-0.1900,13.8559,12.0809,-15.7553,-1.1245,13.1427,8.0491,-9.2689
1410.1562,3.1663,-3.3412,-9.1855,6.4735,11.4111,-11.1111,-10.5304,10.2559,6.1937,4.3243,-11.5471,-0.8809,16.5334,14.5947,-15.7984,-1.7936,14.7518,7.6755,-6.8683
1414.0625,3.1518,-5.5652,-8.3099,7.7954,13.5098,-12.8387,-8.6673,12.0069,5.8156,3.3323,-11.7934,-3.1024,18.0330,16.7217,-14.0062,-3.3788,16.0544,7.1625,-4.6777
1417.9688,4.0822,-8.3754,-6.1080,9.2045,16.4909,-13.7628,-5.4277,13.5852,6.2475,1.8366,-11.5167,-6.6549,18.3035,17.5617,-11.3179,-5.9414,17.0501,5.9314,-2.6281
1421.8750,5.1217,-11.2615,-2.9696,10.1088,20.0153,-14.0226,-1.4587,14.0068,7.0692,-0.6066,-10.8894,-10.6069,17.7264,16.6759,-9.0131,-8.8370,17.7621,3.7864,-0.7164
1425.7812,5.5473,-13.5479,0.2898,10.2710,23.3634,-14.1659,2.1550,12.8667,7.9354,-3.7474,-9.9435,-13.7914,16.9387,14.3687,-7.8271,-11.0691,18.2376,1.2392,1.0744
1429.6875,5.2608,-14.7114,3.0323,9.9113,25.7867,-14.7424,4.6432,10.6077,8.8037,-6.5846,-8.4242,-15.4012,16.5247,11.6069,-7.3775,-11.8568,18.5652,-0.6630,2.8743
1433.5938,4.8972,-14.5977,5.1795,9.4636,26.9196,-15.7946,6.0188,8.2453,9.9117,-7.8177,-5.9398,-15.3291,16.7565,9.5279,-6.3624,-11.0552,18.8892,-0.9655,4.8729
1437.5000,5.4356,-13.4288,7.0981,9.1435,26.9427,-16.6945,6.9272,6.6813,11.5398,-6.6025,-2.3178,-14.0984,17.5096,8.7559,-3.4520,-9.1881,19.3718,0.5001,7.1091
1441.4062,7.5291,-11.6470,9.1338,8.6521,26.3499,-16.5367,8.0394,6.0524,13.7168,-3.1689,2.1075,-12.4862,18.3597,8.9325,1.7161,-7.1071,20.0783,2.8505,9.2875
1445.3125,10.9662,-9.7197,11.2088,7.2800,25.4695,-14.8567,9.4914,5.5798,16.0567,1.1166,6.5269,-11.0994,18.7782,8.8094,8.1319,-5.5083,20.8361,4.5581,10.8338
1449.2188,14.6267,-8.0104,12.8194,4.3870,24.1177,-12.1338,10.7999,4.0631,17.8410,4.3496,10.0273,-10.1317,18.3345,6.9297,13.8936,-4.5929,21.1943,4.3232,11.2247
1453.1250,17.0105,-6.7296,13.4270,-0.0568,21.6957,-9.6426,11.2824,0.7118,18.3283,5.0418,12.0617,-9.3825,16.8553,2.5299,17.2565,-4.0438,20.5836,1.8585,10.3843
1457.0312,17.0530,-5.9262,12.9097,-5.2741,17.7248,-8.6846,10.6145,-4.2515,17.1401,2.8786,12.6948,-8.4641,14.5182,-3.8977,17.5600,-3.3023,18.6518,-1.9379,8.8397
1460.9375,14.7377,-5.4881,11.7082,-10.0097,12.4534,-9.7114,9.0846,-9.6417,14.5078,-1.1742,12.4616,-7.0594,11.8441,-10.7634,15.4583,-1.9678,15.5839,-5.5483,7.4764
1464.8438,11.1139,-5.1726,10.5538,-13.2021,7.0549,-11.9747,7.3793,-13.9927,11.2131,-5.4739,11.9596,-5.1113,9.5497,-16.1884,12.3961,-0.0937,12.1645,-7.7703,7.0321
1468.7500,7.6850,-4.7040,10.0014,-14.5571,3.1856,-13.9792,6.1135,-16.4078,8.2169,-8.6384,11.4835,-2.8836,8.2599,-18.9667,9.7646,1.7878,9.4614,-8.4086,7.6769
1472.6562,5.5339,-3.9230,10.1211,-14.6388,2.1138,-14.4404,5.4919,-17.0055,6.1550,-10.2432,10.9546,-0.8812,8.1872,-19.0826,8.3120,2.9334,8.2663,-8.2832,8.9787
1476.5625,4.7313,-2.9044,10.5531,-14.4266,3.9651,-13.0771,5.3350,-16.6821,4.9951,-10.8739,10.1554,0.3517,8.9609,-17.4959,8.0878,2.8196,8.6263,-8.5863,10.2656
1480.4688,4.3994,-1.9428,10.8288,-14.6509,7.5902,-10.6902,5.3782,-16.3954,4.0822,-11.5536,9.0403,0.4954,9.7575,-15.3988,8.7667,1.5072,9.7903,-10.0462,11.1025
1484.3750,3.3846,-1.3803,10.6808,-15.3564,11.1685,-8.4978,5.5462,-16.4880,2.5820,-12.9507,7.8532,-0.3277,9.7202,-13.4802,9.9656,-0.2763,10.6418,-12.4500,11.5211
1488.2812,1.0891,-1.3735,10.1214,-15.9561,13.1780,-7.2353,5.9678,-16.5079,0.0698,-14.8881,6.9656,-1.5108,8.4448,-11.6776,11.3033,-1.4228,10.3611,-14.7937,11.8504
1492.1875,-2.0956,-1.7571,9.3026,-15.6842,13.1279,-6.6749,6.7599,-15.6045,-3.1146,-16.4467,6.5865,-2.1737,6.2238,-9.5113,12.2808,-0.9844,8.8802,-15.8990,12.3206
1496.0938,-5.0481,-2.1072,8.3540,-14.1019,11.6185,-5.8926,7.8135,-13.1839,-6.0063,-16.5650,6.6048,-1.5726,3.8575,-6.6768,12.2688,1.3069,6.8215,-15.0597,12.7879
1500.0000,-6.6989,-1.9678,7.3661,-11.3266,9.7439,-4.0501,8.7942,-9.3703,-7.6033,-14.7318,6.6965,0.4866,2.1210,-3.4293,10.7790,4.8356,4.9571,-12.3400,12.8173
1503.9062,-6.8060,-1.0847,6.4977,-7.9004,8.2680,-1.0957,9.3491,-5.0030,-7.5464,-11.3416,6.5948,3.4739,1.2199,-0.4939,7.8761,8.3541,3.5751,-8.4325,12.0510
1507.8125,-6.1876,0.5005,6.0254,-4.4737,7.1218,2.1259,9.3116,-1.2311,-6.4391,-7.5094,6.2778,6.3381,0.6134,1.3864,4.3664,10.5749,2.2183,-4.2735,10.5390
1511.7188,-6.2262,2.5309,6.1848,-1.5563,5.5225,4.4185,8.7076,1.0057,-5.5599,-4.4771,5.9058,8.0129,-0.6464,1.9121,1.4970,10.7842,0.0156,-0.6906,8.7383
1515.6250,-7.9455,4.6856,6.8753,0.5463,2.6020,5.0264,7.5773,1.3368,-6.1076,-2.9645,5.5752,7.9568,-3.2473,1.3857,0.2779,9.1432,-3.5890,1.7712,7.1638
1519.5312,-11.2548,6.6644,7.4947,1.6889,-1.8752,4.1166,5.8339,0.0560,-8.4370,-2.8220,5.1402,6.4203,-7.0463,0.5191,0.8789,6.5292,-8.2032,2.8849,5.9801
1523.4375,-14.8624,8.1619,7.1428,1.8846,-7.1535,2.6419,3.3688,-1.9927,-11.7742,-3.1566,4.3068,4.2862,-10.9782,0.0844,2.5547,4.0463,-12.4124,2.7486,4.8884
1527.3438,-16.9434,8.8149,5.1585,1.3852,-11.6994,1.7170,0.3633,-3.6599,-14.6071,-2.8459,2.9587,2.5800,-13.5317,0.6464,4.1752,2.5150,-14.3827,1.7919,3.4244
1531.2500,-16.1699,8.2588,1.6383,0.7237,-13.8708,1.9476,-2.4982,-3.8355,-15.5250,-1.1627,1.4216,1.9402,-13.5307,2.4652,4.9717,2.2243,-12.8220,0.6975,1.4233
1535.1562,-12.4853,6.3301,-2.4864,0.5591,-12.6954,3.1348,-4.2347,-1.8749,-14.0001,1.8108,0.3657,2.3483,-10.7684,5.4858,4.9337,3.0191,-7.7434,0.1590,-0.7581
1539.0625,-7.1638,3.2964,-5.9645,1.3195,-8.3750,4.4819,-4.2067,2.0191,-10.6445,5.1929,0.3126,3.2437,-6.1378,9.3112,4.5587,4.5657,-0.5796,0.5370,-2.4958
1542.9688,-2.1352,-0.0931,-8.0327,2.8667,-2.2727,5.1077,-2.7802,6.6985,-6.8142,7.7469,1.0779,3.9147,-1.2000,13.1809,4.1841,6.5488,6.4288,1.6320,-3.4628
1546.8750,1.0165,-2.8577,-8.9415,4.4840,3.6280,4.5216,-1.4476,10.4597,-3.8265,8.5450,1.6246,3.9074,2.5604,16.1026,3.4803,8.6683,11.2428,2.7900,-4.0305
1550.7812,1.8012,-4.2441,-9.7700,5.3040,7.5704,2.8124,-2.1286,11.8604,-2.2698,7.5091,0.5726,3.2216,4.3948,17.2290,1.5811,10.5108,12.8999,3.3471,-5.1087
1554.6875,0.9273,-4.1215,-11.5943,4.9531,8.8088,0.5220,-5.9615,10.5582,-1.7911,5.5153,-2.8678,2.2211,4.5495,16.3522,-2.1839,11.5007,11.8297,3.1424,-7.4449
1558.5938,-0.2309,-3.0438,-14.5747,3.9504,7.9470,-1.6526,-12.3573,7.6206,-1.4303,3.9620,-8.1521,1.3617,4.0363,14.1774,-7.4945,11.0774,9.4934,2.7161,-10.8669
1562.5000,-0.4416,-1.9149,-17.6369,3.5007,6.6198,-3.1471,-19.0294,4.9938,-0.2506,4.0023,-13.4216,0.9262,4.0625,12.0724,-12.8373,9.0344,7.5790,2.9895,-14.0856
1566.4062,0.7722,-1.4618,-19.0395,4.7233,6.6112,-3.7040,-23.1172,4.3557,2.1177,5.8653,-16.3952,0.9039,5.4092,11.3113,-16.1470,5.7745,7.1709,4.5947,-15.3254
1570.3125,3.0183,-1.8585,-17.4953,7.7989,8.8285,-3.4192,-22.7725,6.0477,5.3079,8.6836,-15.6411,1.0393,8.0384,12.2339,-15.9328,2.2306,8.2892,7.3159,-13.4523
1574.2188,5.3972,-2.7404,-13.0925,11.6413,12.6980,-2.6931,-18.2168,8.8146,8.4621,10.9675,-11.4320,0.9713,11.1037,13.9017,-12.1601,-0.5803,9.9904,10.0724,-8.8548
1578.1250,7.0693,-3.5764,-7.3731,14.3965,16.3878,-2.1134,-11.5848,10.5895,10.7129,11.4685,-5.6235,0.3679,13.3585,14.5736,-6.3063,-2.1300,10.9524,11.5176,-3.4294
1582.0312,7.6850,-4.1176,-2.4858,14.5105,17.8203,-2.2856,-5.6537,9.8543,11.6321,9.9096,-0.6115,-0.9941,13.7890,12.7783,-0.5646,-2.7003,10.2424,10.8836,0.4048
1585.9375,7.4812,-4.5933,0.0444,11.6940,15.9459,-3.6411,-2.2759,6.6769,11.4335,7.1165,1.9835,-3.1880,12.1743,8.3144,3.2793,-3.2065,7.8836,8.4983,1.0814
1589.8438,7.0564,-5.5127,0.1364,7.1504,11.5247,-6.2752,-1.4963,2.7145,10.8575,4.4612,2.0983,-6.1002,9.2859,2.5042,4.6107,-4.5996,4.9221,5.6121,-1.2124
1593.7500,7.0079,-7.2154,-0.9348,2.9104,6.8864,-9.8688,-1.8348,0.1663,10.8124,2.9829,1.0450,-9.3933,6.5788,-2.4981,4.0099,-7.2182,2.9347,3.6388,-4.6732
1597.6562,7.6394,-9.4934,-1.4214,0.7007,4.7253,-13.7282,-1.4396,0.3792,11.9372,2.7753,0.5597,-12.5070,5.4882,-4.9135,2.6680,-10.5102,3.2056,3.3206,-6.9526
1601.5625,8.8671,-11.5655,-0.1699,1.0625,6.5905,-16.9359,0.7087,3.0390,14.2831,3.0485,1.7380,-14.7526,6.6787,-4.2868,1.6709,-13.3143,6.0010,4.3669,-6.4774
1605.4688,10.3302,-12.4488,2.7943,3.2323,11.9631,-18.5890,4.2875,6.4547,17.2631,2.8013,4.5028,-15.5115,9.6671,-1.5972,1.5843,-14.5213,10.3526,5.7691,-3.2204
1609.3750,11.6172,-11.5094,6.4505,5.7638,18.4907,-18.0802,8.0177,8.6785,19.9110,1.6114,7.8423,-14.4783,13.0623,1.4631,2.4659,-13.6922,14.5105,6.5232,1.4716
1613.2812,12.4914,-8.8578,9.5055,7.4018,23.2614,-15.3552,10.5442,8.6514,21.3469,-0.0367,10.5460,-11.8356,15.3199,3.4883,4.1139,-11.2536,16.8465,6.2311,5.7760
1617.1875,13.0144,-5.3448,11.1348,7.6213,24.3683,-11.0426,11.1820,6.6161,21.2229,-1.1268,11.9160,-8.2517,15.5886,3.9641,6.2813,-8.1832,16.7081,5.1871,8.4015
1621.0938,13.5092,-2.1575,11.3114,6.5684,21.8468,-6.3404,10.1263,3.6232,19.9072,-0.9190,12.0458,-4.6669,14.1446,3.1632,8.7327,-5.4309,14.7244,3.9587,9.1214
1625.0000,14.3678,-0.2392,10.6373,4.6003,17.4709,-2.6155,8.1654,0.6184,18.2779,0.4050,11.6019,-1.9396,12.1495,1.5701,11.2091,-3.4640,12.3742,2.8370,8.6353
1628.9062,15.7765,0.1480,9.9069,1.8773,13.6005,-0.8272,6.2335,-2.1514,17.2178,1.7427,11.3459,-0.5038,10.8841,-0.6196,13.4290,-2.1917,11.0717,1.5914,7.9891
1632.8125,17.4935,-0.5084,9.7193,-1.6535,11.8352,-1.0459,5.1083,-5.0015,17.0893,1.7417,11.7153,-0.2034,10.9475,-3.5151,15.1589,-1.2372,11.3317,-0.3001,7.9755
1636.7188,18.8264,-1.2879,10.3146,-5.9108,12.2894,-2.3684,5.3144,-8.1399,17.5076,-0.3144,12.6516,-0.3928,11.9319,-7.1069,16.2715,-0.2958,12.5296,-3.1473,8.8305
1640.6250,18.8804,-1.3511,11.6085,-10.3126,13.8489,-3.3566,7.0905,-11.0866,17.5669,-4.0132,13.6866,-0.2670,12.7724,-10.8331,16.7063,0.6900,13.3956,-6.6674,10.2839
1644.5312,17.0066,-0.3675,13.3018,-13.7636,15.1241,-2.8162,10.2975,-12.7119,16.4017,-8.0399,14.1870,0.7350,12.5182,-13.5837,16.3679,1.6159,12.9092,-10.0194,11.8162
1648.4375,13.2268,1.3633,14.9847,-15.0967,15.3974,-0.4820,14.3214,-11.9225,13.7426,-10.9530,13.6534,2.6550,10.9974,-14.2346,15.0979,2.4178,11.0034,-12.2264,12.9367
1652.3438,8.3739,3.1437,16.2369,-13.7237,14.9365,2.8211,18.1472,-8.5040,10.1178,-11.9827,11.9859,5.0116,8.9190,-12.3631,12.8199,3.1675,8.6139,-12.6979,13.3688
1656.2500,3.8035,4.3132,16.7465,-10.0701,14.5267,5.6726,20.6989,-3.4885,6.5626,-11.3467,9.6204,7.0719,7.3456,-8.6222,9.7809,3.9644,7.0469,-11.5151,13.1167
1660.1562,0.7736,4.6314,16.4122,-5.4971,14.6199,6.9186,21.3058,1.2513,4.0123,-9.9445,7.4296,8.2489,6.8994,-4.4739,6.6651,4.7306,7.0830,-9.3380,12.4145
1664.0625,-0.1867,4.3917,15.3494,-1.7248,14.7503,6.3640,19.9940,3.9425,2.7548,-8.7027,6.3516,8.4047,7.2493,-1.4310,4.3928,5.1278,8.4040,-7.0413,11.5675
1667.9688,0.4473,4.2106,13.7647,-0.0648,13.6612,4.8529,17.3791,3.8011,2.2870,-8.0310,6.8748,7.8863,7.2393,-0.2944,3.6531,4.7284,9.7136,-5.3223,10.7371
1671.8750,1.4639,4.6274,11.7839,-0.8568,10.0916,3.6942,14.2285,1.3488,1.6588,-7.7028,8.6639,7.2757,5.5955,-0.8550,4.4664,3.3568,9.4719,-4.4752,9.7867
1675.7812,1.5918,5.7588,9.3934,-3.3714,3.7113,3.8201,11.0258,-1.9659,0.0842,-7.1505,10.6162,7.0092,1.7609,-2.1998,6.1123,1.3456,6.7810,-4.3776,8.3300
1679.6875,0.1925,7.2110,6.5830,-6.1868,-4.4194,5.2223,7.8676,-4.5474,-2.5680,-5.9129,11.4052,7.1003,-3.6719,-3.3568,7.5163,-0.5239,1.8894,-4.6200,6.0172
1683.5938,-2.4428,8.2947,3.5972,-7.8374,-12.1974,7.0090,4.7437,-5.3687,-5.7015,-3.9419,10.2366,7.1454,-9.2010,-3.8380,7.8484,-1.4089,-3.9507,-4.6889,2.9108
1687.5000,-5.3604,8.4077,1.0473,-7.4385,-17.4598,7.9994,1.9094,-4.2938,-8.3646,-1.6333,7.3392,6.6154,-13.1741,-3.7662,6.9102,-0.8864,-9.1357,-4.1615,-0.3316
1691.4062,-7.5802,7.3641,-0.3053,-5.0293,-19.0324,7.4409,-0.0405,-1.9564,-9.8107,0.3708,3.8364,5.2529,-14.6011,-3.5906,5.0550,0.7987,-12.4507,-2.8836,-2.6835
1695.3125,-8.6709,5.4922,-0.0397,-1.5000,-17.2404,5.4017,-0.5417,0.6398,-9.8874,1.4773,1.0494,3.3189,-13.5510,-3.6516,2.7529,2.8929,-13.4873,-1.0711,-3.3290
1699.2188,-8.8898,3.4679,1.4906,1.8655,-13.6055,2.6548,0.3851,2.5835,-9.0202,1.4220,-0.3143,1.5127,-10.9482,-3.8981,0.2012,4.5909,-12.5812,0.7545,-2.2460
1703.1250,-8.8170,1.9890,3.1573,4.0328,-9.9405,0.2056,1.8775,3.4186,-7.8340,0.4595,-0.5311,0.5896,-7.9552,-3.9070,-2.6808,5.4731,-10.4192,2.0354,-0.3666
1707.0312,-8.7755,1.4616,3.6075,4.7366,-7.3948,-1.2054,2.5779,3.3099,-6.6887,-0.6165,-0.5407,0.8907,-5.3523,-3.1422,-5.8852,5.6301,-7.6226,2.5404,0.8741
1710.9375,-8.4790,1.8349,2.0706,4.5869,-5.9961,-1.3674,1.4271,2.9489,-5.4523,-0.7096,-1.1899,2.0746,-3.2713,-1.2739,-8.9522,5.4169,-4.5525,2.5884,0.3624
1714.8438,-7.1936,2.6402,-1.1207,4.6665,-4.9059,-0.5845,-1.6414,3.1898,-3.6663,1.0791,-2.6142,3.2314,-1.3768,1.6070,-11.0262,5.0569,-1.3757,2.9219,-2.0269
1718.7500,-4.3293,3.2037,-4.6940,5.8121,-3.1663,0.5015,-5.6344,4.5350,-0.9855,4.8663,-4.2205,3.3447,0.6987,4.9612,-11.4037,4.4158,1.7477,4.2346,-5.3802
1722.6562,-0.0565,2.9492,-7.2239,8.0057,-0.4365,1.1193,-9.1520,6.7338,2.4148,9.6649,-5.2622,1.8563,2.9918,7.9581,-10.1902,3.1227,4.5437,6.6303,-8.3503
1726.5625,4.5083,1.6762,-8.0236,10.2886,2.7386,0.5670,-11.3105,8.7878,5.7611,13.6416,-5.5333,-0.9855,5.1505,9.7696,-8.5026,0.9378,6.6672,9.4077,-9.9966
1730.4688,7.7375,-0.3138,-7.5195,11.3164,5.2679,-1.5790,-12.2662,9.4652,8.0203,14.9685,-5.6108,-4.2050,6.6862,9.9139,-7.9393,-1.9358,7.8658,11.3916,-10.2726
1734.3750,8.3320,-2.3328,-6.8502,10.2484,6.2213,-5.2607,-12.9603,8.0897,8.4670,12.8558,-6.4309,-6.5844,7.3376,8.5179,-9.5975,-4.8615,8.1367,11.6568,-9.8464
1738.2812,6.0713,-3.6598,-6.9830,7.3990,5.4537,-9.8540,-14.2851,5.1083,7.1327,8.1220,-8.5168,-7.3049,7.2912,6.3488,-13.3166,-7.1279,7.7670,10.1702,-9.4399
1742.1875,2.0144,-3.9841,-7.9963,4.1826,3.7683,-14.3252,-16.3119,2.0002,4.8499,2.8513,-11.4600,-6.3982,7.1189,4.5310,-17.7097,-8.4070,7.2324,7.8817,-9.2239
1746.0938,-1.9807,-3.6818,-9.0417,2.3291,2.5373,-17.6342,-18.1626,0.4858,2.8495,-0.7483,-14.0765,-4.7537,7.4798,4.0275,-20.9922,-8.9775,7.0110,6.1494,-8.7305
1750.0000,-4.1465,-3.7009,-8.9885,2.8507,3.0161,-19.1990,-18.6148,1.4901,2.1447,-1.6032,-15.1365,-3.6653,8.7751,5.1380,-22.0238,-9.5313,7.4090,5.8641,-7.3176
1753.9062,-3.6088,-5.0336,-7.2487,5.4377,5.7441,-19.1402,-16.9712,4.5436,3.0618,-0.3234,-14.1290,-4.1493,10.9599,7.3230,-20.8250,-10.6794,8.4714,6.8819,-4.7719
1757.8125,-0.6821,-8.0357,-4.1660,8.6985,10.3428,-18.1381,-13.5384,8.0577,5.1834,1.3447,-11.5047,-6.3988,13.6045,9.5080,-18.2450,-12.4950,10.0114,8.1803,-1.5387
1761.7188,3.4450,-12.0197,-0.7090,11.0870,15.7767,-16.9874,-9.3770,10.3297,7.7065,1.8013,-8.2538,-9.6705,16.1528,10.7305,-15.1165,-14.4101,11.7389,8.6425,1.6137
1765.6250,7.3912,-15.4526,2.2574,11.8891,20.8923,-16.1509,-5.5472,10.6123,9.9643,0.7165,-5.1865,-12.6655,18.2195,10.7456,-11.6191,-15.5447,13.4321,7.9071,4.2124
1769.5312,10.2291,-16.7304,4.5434,11.5994,24.9309,-15.6044,-2.4355,9.5208,11.7802,-0.8016,-2.4842,-14.1936,19.7665,10.1909,-7.3714,-15.2503,15.0706,6.6599,6.4544
1773.4375,11.7735,-15.1075,6.6335,11.4508,27.7677,-15.0395,0.3519,8.5070,13.4491,-1.1097,0.1704,-13.7493,21.0792,10.1759,-2.1368,-13.5072,16.8498,6.1409,9.0084
1777.3438,12.4438,-11.1956,9.1678,12.4591,29.8009,-14.2097,3.5133,8.7861,15.4004,0.6635,3.0710,-11.6843,22.5689,11.5361,3.5139,-10.9159,19.0420,7.2141,12.3910
1781.2500,12.8708,-6.6728,12.3588,14.6683,31.5962,-13.1129,7.4147,10.4851,17.7951,3.8810,6.0736,-8.8928,24.5145,14.2308,8.2416,-8.3019,21.7540,9.6799,16.4272
1785.1562,13.5146,-3.3360,15.8086,17.1174,33.5007,-11.8621,11.7937,12.6028,20.3370,6.7879,8.6701,-6.2224,26.8706,17.2815,10.7745,-6.2031,24.7185,12.3330,20.2555
1789.0625,14.4884,-2.0726,18.8309,18.5086,35.4238,-10.3904,15.9777,13.7689,22.4119,7.7528,10.4814,-3.9814,29.2356,19.3017,10.9404,-4.5766,27.2748,13.7269,22.9015
1792.9688,15.6148,-2.4045,20.9587,18.0610,36.8915,-8.3049,19.3665,13.2170,23.4471,6.4447,11.7067,-1.8513,30.9948,19.2821,10.0505,-2.9066,28.6138,13.0930,23.9755
1796.8750,16.6115,-2.8933,22.1956,15.9364,37.3308,-5.0988,21.7470,11.2560,23.2434,4.0717,13.0784,0.7489,31.5773,17.1371,10.2111,-0.6268,28.1941,10.7573,23.9394
1800.7812,17.2596,-2.1353,22.8276,12.9791,36.4272,-0.6227,23.2158,8.9327,22.0694,2.4956,15.2808,4.0969,30.7093,13.6914,12.9499,2.4272,26.1006,7.7857,23.7203
1804.6875,17.4674,0.3113,23.0175,10.0365,34.3517,4.5501,23.8619,7.1918,20.4744,2.8672,18.2754,7.7910,28.5440,10.1544,18.1013,5.8266,23.0980,5.1607,23.9770
1808.5938,17.2319,3.6649,22.5981,7.4123,31.7170,9.2092,23.5758,6.1958,18.9581,4.7728,21.1095,10.8420,25.5979,7.4516,23.7744,8.7398,20.2934,3.1192,24.6051
1812.5000,16.5587,6.4645,21.2885,4.8529,29.2725,12.0834,22.2094,5.3084,17.7051,6.4996,22.4418,12.2073,22.5185,5.8285,27.4760,10.3828,18.5631,1.1332,24.8757
1816.4062,15.4082,7.5227,19.1463,2.0169,27.5063,12.5638,19.9471,3.7153,16.5315,6.2118,21.4510,11.4432,19.7974,4.9282,27.6366,10.4592,18.0750,-1.4951,24.0897
1820.3125,13.6995,6.6518,16.8096,-1.0014,26.3959,11.0807,17.4984,1.1729,15.0459,3.1889,18.4587,9.0523,17.5826,4.2149,24.5037,9.3344,18.2137,-4.9127,22.2099
1824.2188,11.3622,4.7165,15.2188,-3.5450,25.4738,8.8482,15.8332,-1.6937,12.9087,-1.7260,14.7769,6.2823,15.6942,3.4216,19.8309,7.8535,17.9771,-8.4343,19.9500
1828.1250,8.4034,3.0409,14.9574,-4.7716,24.1751,7.1248,15.5745,-3.7495,10.0408,-6.7127,11.8694,4.4758,13.8262,2.7344,15.6533,6.9139,16.6127,-10.9090,18.2444
1832.0312,4.9551,2.6072,15.7239,-4.2305,22.2342,6.4817,16.5072,-4.0728,6.6839,-10.1038,10.4323,4.3580,11.8000,2.6340,13.0566,7.0345,14.0920,-11.4485,17.5263
1835.9375,1.2808,3.5626,16.4176,-2.1847,19.8469,6.5684,17.6417,-2.5018,3.3041,-11.2438,10.0660,5.6935,9.6940,3.5442,11.7816,8.1473,11.1138,-9.9771,17.4010
1839.8438,-2.2646,5.2842,15.8622,0.5601,17.4685,6.5183,17.8543,0.3517,0.3947,-10.5533,9.7517,7.5116,7.7528,5.5220,10.8297,9.7039,8.6263,-7.2303,16.9767
1843.7500,-5.3132,6.8652,13.6631,3.1606,15.3845,5.6896,16.6563,3.5537,-1.7347,-8.9095,8.7325,8.7407,6.1361,8.1617,9.4911,11.0150,7.1833,-4.2559,15.5788
1847.6562,-7.5809,7.6479,10.5294,5.1737,13.3905,4.2133,14.4961,6.3726,-3.0989,-6.9290,7.1025,8.8462,4.6990,10.7413,7.9573,11.6254,6.5640,-1.8255,13.2631
1851.5625,-8.9501,7.4813,7.7713,6.6144,10.8705,2.9636,12.3435,8.5050,-4.0432,-4.7108,5.6585,8.0799,2.9975,12.5168,7.0685,11.5204,5.9186,-0.1665,10.7181
1855.4688,-9.5057,6.6279,6.3161,7.6643,7.2844,2.9735,10.8731,9.9407,-5.0935,-2.1476,5.1592,7.2139,0.5683,13.0281,7.4588,11.0647,4.3541,0.8781,8.6565
1859.3750,-9.5015,5.4813,5.9941,8.3423,2.7432,4.6906,9.9043,10.7033,-6.6933,0.5705,5.6056,6.9622,-2.6722,12.2968,8.8248,10.7246,1.5738,1.4990,7.2211
1863.2812,-9.2624,4.3257,5.6658,8.4482,-1.7802,7.5663,8.5693,10.7557,-8.9409,2.7615,6.1239,7.4767,-6.1878,10.8323,9.9251,10.7390,-1.8545,1.7227,5.9138
1867.1875,-9.0576,3.2616,4.1194,7.8130,-4.8520,10.2415,6.0921,10.1337,-11.4718,3.5696,5.5525,8.2319,-8.9553,9.4225,9.3304,10.9338,-4.7877,1.5076,4.1039
1871.0938,-9.0013,2.2672,1.0548,6.5926,-5.4122,11.2159,2.5431,9.1107,-13.5810,2.5528,3.2737,8.3494,-9.9562,8.7651,6.3632,10.7890,-6.1718,0.9774,1.6689
1875.0000,-9.0322,1.2893,-2.6246,5.2940,-3.5097,9.6035,-1.0868,8.1476,-14.5521,0.0683,-0.3499,7.1398,-8.7563,9.0954,1.5299,9.7326,-5.6562,0.5039,-0.8097
1878.9062,-8.9838,0.2888,-5.4698,4.4681,-0.4002,5.5602,-3.6188,7.5986,-14.0283,-2.8506,-4.2583,4.5255,-5.8104,10.0266,-3.8462,7.5059,-3.7672,0.5076,-2.5076
1882.8125,-8.7076,-0.7520,-6.6065,4.3244,2.1422,0.1854,-4.6779,7.4244,-12.2070,-5.0352,-7.4544,1.1088,-2.2648,10.7529,-8.4879,4.3948,-1.5437,1.1348,-3.1134
1886.7188,-8.1718,-1.8186,-6.4486,4.6251,2.9089,-5.0034,-5.1307,7.2226,-9.7301,-5.7498,-9.6473,-2.1221,0.6544,10.5689,-11.8735,1.1831,0.1146,2.1203,-3.2275
1890.6250,-7.4635,-2.8406,-6.4263,4.9836,2.0324,-8.7226,-6.5365,6.6349,-7.3242,-4.9214,-11.3001,-4.2572,2.3093,9.4173,-14.3069,-1.1787,0.9611,3.0058,-3.9979
1894.5312,-6.6840,-3.6942,-7.9033,5.3186,0.9088,-10.3817,-9.9455,5.8233,-5.4104,-2.9639,-13.0910,-4.8461,2.9564,8.0793,-16.3729,-2.0371,1.4576,3.5601,-6.2083
1898.4375,-5.8050,-4.2694,-11.0933,6.0251,1.2729,-10.1781,-14.9323,5.5639,-3.9295,-0.4283,-15.2506,-4.0298,3.4945,7.7882,-18.2620,-1.3942,2.3627,4.0260,-9.5183
1902.3438,-4.6049,-4.5775,-14.8032,7.6322,4.0129,-8.8474,-19.6437,6.7520,-2.4914,2.2191,-17.3080,-2.4095,4.8131,9.4182,-19.5062,0.0442,4.1470,4.9256,-12.5017
1906.2500,-2.7741,-4.8134,-17.2143,10.1688,8.5150,-7.2485,-21.9095,9.6123,-0.7367,4.5877,-18.4246,-0.7608,7.1656,12.7521,-19.3205,1.1879,6.6327,6.5245,-13.5411
1910.1562,-0.1618,-5.2902,-17.1222,12.7942,12.9975,-6.0033,-20.6590,13.2368,1.3477,6.2643,-18.0203,0.2641,9.9811,16.3769,-17.2632,1.1086,9.0941,8.3981,-11.9577
1914.0625,2.9860,-6.2539,-14.7153,14.1297,15.6428,-5.3482,-16.6245,15.9300,3.3891,6.8498,-16.1777,0.3375,12.2451,18.4034,-13.6955,-0.4654,10.7466,9.5339,-8.5296
1917.9688,5.9990,-7.6915,-11.3250,13.1980,15.7920,-5.2188,-11.8091,16.2618,4.9050,6.1900,-13.5161,-0.4890,13.2023,17.6427,-9.6813,-2.9813,11.3011,9.0115,-4.9770
1921.8750,8.0654,-9.2778,-8.3703,10.3214,14.4118,-5.4616,-8.0998,14.1283,5.7062,4.6237,-10.6702,-1.8724,12.9179,14.4839,-6.3884,-5.3349,11.2158,6.8060,-2.7631
1925.7812,8.7202,-10.5244,-6.3211,7.2223,13.5128,-6.0071,-6.0381,10.9995,6.1364,2.9820,-7.8230,-3.3670,12.3140,10.8166,-4.4006,-6.4576,11.4717,4.0672,-2.0859
1929.6875,8.2444,-11.0555,-4.4721,6.0716,14.8801,-6.8898,-4.6349,9.0435,6.9495,2.2306,-4.6840,-4.6402,12.6335,8.9333,-3.3976,-5.9003,12.9954,2.5440,-1.8116
1933.5938,7.6631,-10.8359,-1.6799,8.0166,18.9225,-8.1228,-2.3396,9.6383,8.8622,2.9371,-0.9215,-5.6197,14.6555,10.0510,-2.3904,-4.0847,16.0682,3.4469,-0.3998
1937.5000,8.2372,-10.1996,2.5278,12.2055,24.3647,-9.5511,1.5870,12.3020,12.0418,4.9103,3.3222,-6.4925,18.1519,13.4278,-0.3352,-2.0734,20.0735,6.5197,2.8653
1941.4062,10.6781,-9.6565,7.3426,16.0910,28.9657,-10.8327,6.3348,14.8659,15.8554,7.2720,7.2806,-7.5415,21.9345,16.7257,3.2591,-0.9850,23.7395,10.0226,7.2537
1945.3125,14.5596,-9.5940,11.0539,16.9440,30.8087,-11.5946,9.9981,14.8694,19.0709,8.9203,9.9379,-8.8993,24.4808,17.4636,8.0597,-1.3919,25.7531,11.7300,11.0339
1949.2188,18.3555,-10.0507,12.1580,13.6280,29.3724,-11.6664,10.8926,11.2633,20.4347,9.0837,10.6786,-10.3684,24.7749,14.6460,13.0718,-3.0411,25.4173,10.3204,12.6539
1953.1250,20.1866,-10.6878,10.4021,7.4220,25.7651,-11.2048,8.7792,5.2272,19.3284,7.6229,9.7354,-11.4339,22.8694,9.4733,17.0933,-5.0358,23.0064,6.2227,11.7991
1957.0312,18.9004,-10.9562,7.0265,1.2747,22.0272,-10.5834,5.1244,-0.5212,16.1415,4.9477,8.1107,-11.4930,19.8452,4.6137,19.2215,-6.3369,19.6328,1.3297,9.5851
1960.9375,14.8384,-10.3578,4.0552,-2.0654,19.9581,-10.0952,2.2311,-3.5039,12.1432,1.6915,7.0252,-10.1839,17.1985,2.4676,19.2109,-6.2663,16.7008,-2.2400,7.7877
1964.8438,9.7806,-8.6643,3.1412,-1.8117,20.1601,-9.6752,1.8645,-3.1478,8.9028,-1.5845,7.2746,-7.6240,16.0129,3.5548,17.5818,-4.7331,15.2236,-3.4905,7.6936
1968.7500,6.0373,-6.0052,4.7313,0.3877,21.8151,-8.8673,4.3009,-1.1853,7.5562,-4.4827,8.9061,-4.4073,16.3876,6.1045,15.4622,-2.1167,15.3488,-3.1039,9.3739
1972.6562,5.1980,-2.8086,8.0221,1.5846,23.2607,-7.0959,8.3672,-0.4974,8.3001,-6.6932,11.3637,-1.3505,17.4322,7.1547,14.2043,1.0300,16.3258,-2.8545,11.8178
1976.5625,7.2816,0.3588,11.6073,-0.4917,22.9912,-4.0799,12.3228,-3.1678,10.3748,-7.9236,13.9184,0.8745,17.8148,4.4702,14.8707,4.2168,16.9283,-4.3196,13.7261
1980.4688,10.7956,2.9791,14.2964,-5.9220,20.5139,-0.1068,14.9071,-9.0475,12.5305,-7.9637,16.0461,2.0211,16.5429,-1.9461,17.7618,7.0590,16.1211,-7.7764,14.3454
1984.3750,13.6455,4.7280,15.5890,-12.5168,16.6099,4.0328,15.8719,-15.7692,13.7049,-6.8458,17.5326,2.3237,13.5381,-9.7144,22.1940,9.1958,13.6311,-12.0044,13.7897
1988.2812,14.3075,5.5315,15.6371,-17.1678,12.8864,7.4118,15.7817,-20.1750,13.5250,-4.9424,18.3362,2.3225,9.6871,-15.3917,26.6829,10.2623,10.1233,-15.0638,12.7433
1992.1875,12.5464,5.5239,14.9014,-17.7152,10.8661,9.3917,15.3826,-20.2091,12.3561,-2.8747,18.4169,2.5765,6.3454,-16.4166,29.5091,10.0292,6.8670,-15.4854,11.8843
1996.0938,9.2890,4.9441,13.8290,-14.1571,11.0901,9.8367,15.0563,-16.0836,10.8937,-1.2630,17.7078,3.4171,4.5663,-12.5105,29.4387,8.6352,5.0418,-13.0927,11.4784
2000.0000,5.8368,4.0340,12.7273,-8.5313,12.7000,9.0224,14.6815,-10.0624,9.5810,-0.4838,16.2316,4.8453,4.4818,-5.7587,26.2548,6.6946,5.0330,-9.0012,11.3632
2003.9062,3.0072,3.0000,11.7740,-3.6702,13.7475,7.3744,13.8634,-5.1044,8.2448,-0.5850,14.2119,6.5826,5.1828,0.5828,20.8387,5.1037,6.1099,-4.9038,11.1996
2007.8125,0.7713,2.0464,11.0167,-1.6632,12.1329,5.2725,12.2610,-3.2563,6.2102,-1.3751,12.0405,8.2201,5.1838,3.7890,14.7724,4.5868,6.7085,-2.1628,10.7123
2011.7188,-1.4391,1.4308,10.3259,-2.9039,6.7474,3.0564,9.7845,-4.7123,2.8418,-2.5600,10.1076,9.3921,3.2399,2.9225,9.6865,5.2572,5.2277,-1.2409,9.7596
2015.6250,-4.0712,1.4625,9.4076,-6.1238,-1.7572,1.1538,6.6291,-7.9465,-1.8384,-3.7990,8.6367,9.9169,-0.9203,-0.9329,6.6821,6.5140,0.9483,-1.6882,8.2936
2019.5312,-6.9653,2.4015,7.9879,-9.2147,-11.0289,0.1191,3.2423,-10.6757,-6.8843,-4.6744,7.6668,9.8679,-6.3518,-5.4265,6.0634,7.3985,-5.4307,-2.5456,6.3693
2023.4375,-9.3941,4.2981,6.1047,-10.2973,-17.9821,0.4400,0.2722,-11.0381,-10.7453,-4.7003,7.1787,9.5471,-11.3007,-8.1661,7.4079,7.2118,-11.9827,-2.8529,4.2468
2027.3438,-10.5658,6.8747,4.2602,-8.5200,-20.2661,2.1852,-1.5735,-8.4133,-12.0368,-3.4908,7.2118,9.3551,-14.0671,-7.7889,9.8241,5.9862,-16.4333,-2.0244,2.4403
2031.2500,-10.1967,9.5449,3.2068,-4.3334,-17.5025,4.7597,-1.8403,-3.6059,-10.3297,-1.0502,7.8111,9.5914,-13.8725,-4.4496,12.2218,4.4748,-17.2941,-0.0158,1.5293
2035.1562,-8.7367,11.5840,3.3992,0.7617,-11.5957,7.0159,-0.7281,1.5666,-6.4793,2.0301,8.8028,10.2714,-11.2564,0.3797,13.5204,3.6474,-14.6374,2.6902,1.7394
2039.0625,-7.1088,12.3712,4.4692,4.8490,-5.8590,7.7423,0.7102,5.0606,-2.2715,4.6957,9.5952,11.0680,-7.7773,4.6387,12.8356,4.0236,-10.0603,5.2556,2.5718
2042.9688,-6.1665,11.5868,5.1734,6.4030,-3.3382,6.2729,0.8677,5.4811,0.4431,5.9073,9.2545,11.4403,-5.1718,6.6234,9.7063,5.2959,-5.8354,6.8099,2.8471
2046.8750,-6.2343,9.2898,3.9932,4.9912,-5.2016,2.8472,-1.6142,2.7342,0.6616,5.2230,6.9360,10.9076,-4.4355,5.7662,4.3282,6.5020,-3.7089,6.8606,1.2945
2050.7812,-6.9916,5.8861,0.0912,1.5566,-10.0895,-1.5030,-6.9472,-1.8317,-1.3015,3.1005,2.4656,9.3249,-5.3363,2.9092,-2.3484,6.6282,-4.0250,5.6087,-2.6086
2054.6875,-7.7022,2.0388,-5.9965,-1.9432,-14.8269,-5.4653,-13.8163,-5.9485,-4.0178,0.6820,-3.3214,6.9955,-6.6278,-0.1043,-8.8083,5.2386,-5.6693,3.9456,-8.1163
2058.5938,-7.5953,-1.4449,-12.4589,-3.4744,-16.1465,-8.0381,-19.8955,-7.4701,-5.6911,-0.8343,-8.7871,4.5377,-6.8293,-1.3879,-13.4660,2.7176,-6.8400,3.0357,-13.4506
2062.5000,-6.1863,-3.7732,-17.1183,-2.0116,-12.4834,-8.8761,-23.0589,-5.4629,-5.0429,-0.8363,-12.2202,2.5736,-5.1149,-0.0575,-15.2850,-0.0087,-6.1694,3.6639,-16.7423
2066.4062,-3.4405,-4.4008,-18.6163,1.8540,-4.8420,-8.2632,-22.5697,-0.7330,-1.9009,0.4595,-12.7043,1.4175,-1.7980,3.2289,-14.2221,-2.0558,-3.5167,5.7387,-17.1070
2070.3125,0.2018,-3.2903,-17.1241,6.2060,3.7433,-6.8350,-19.4692,4.5756,2.7672,2.2927,-10.6089,0.9469,1.8576,6.6136,-11.2565,-3.0716,0.0239,8.3055,-15.1467
2074.2188,3.9121,-1.0607,-14.1329,8.8921,9.8373,-5.2828,-15.8873,8.1469,7.3474,3.9281,-7.3910,0.7185,4.3751,8.1267,-7.9667,-3.3310,2.8659,10.1126,-12.5271
2078.1250,6.6964,1.1381,-11.4832,8.7710,11.3951,-4.1886,-13.7130,8.7478,10.3448,5.0833,-4.8056,0.2444,4.9114,6.8837,-5.8572,-3.4232,3.9350,10.3838,-10.9064
2082.0312,7.7753,2.0674,-10.2815,6.3295,8.7277,-3.9754,-13.5008,6.8029,11.0625,5.9332,-3.9857,-0.7475,3.7288,3.6295,-5.7466,-3.7879,3.3121,9.2815,-10.9254
2085.9375,7.0238,0.9870,-10.3836,3.2737,4.1609,-4.8614,-14.3094,3.9413,9.8970,6.7565,-4.9130,-2.2139,2.0394,0.2540,-7.4807,-4.4256,2.1456,7.7407,-11.9096
2089.8438,5.2250,-1.9322,-10.6970,1.3811,0.6657,-6.7647,-14.5117,1.8551,8.1206,7.5613,-6.5531,-3.8855,1.3368,-1.4228,-10.0572,-4.9551,1.9307,6.7938,-12.4238
2093.7500,3.8697,-5.6467,-10.0008,1.4035,0.2889,-9.2332,-12.9498,1.2676,7.2450,8.0182,-7.5189,-5.4524,2.6093,-0.7898,-12.0745,-4.9463,3.6274,6.8717,-11.2434
2097.6562,4.4585,-8.7535,-7.6915,2.7550,3.2514,-11.5341,-9.6269,1.7016,8.2595,7.7515,-6.8426,-6.7159,5.8643,1.2546,-12.3031,-4.2798,7.1459,7.5769,-8.0748
2101.5625,7.6187,-10.2040,-4.0097,4.1447,8.1229,-12.9493,-5.5265,2.1359,11.1163,6.7292,-4.4246,-7.6251,10.1916,3.0230,-10.1703,-3.2940,11.4627,8.0712,-3.6044
2105.4688,12.5774,-9.8015,0.2753,4.6292,12.8390,-13.1426,-1.8058,1.9773,14.7467,5.4029,-0.9670,-8.2131,14.2824,3.2482,-5.9877,-2.6275,15.2337,7.7607,1.0387
2109.3750,17.4176,-8.1986,4.3852,4.2862,15.8873,-12.3571,0.9704,1.5678,17.6325,4.4487,2.4860,-8.5083,17.0880,1.9209,-0.8354,-2.8588,17.5006,6.7513,4.9452
2113.2812,20.0749,-6.4280,7.8666,4.0263,16.9889,-11.2764,3.0116,1.8375,18.6462,4.2859,5.0906,-8.4916,18.2648,0.1835,3.8734,-4.1541,18.0927,5.7332,7.7636
2117.1875,19.5198,-5.2931,10.5934,4.7357,16.9787,-10.6071,4.8704,3.4026,17.6886,4.7417,6.5413,-8.1189,18.2058,-0.5888,6.9923,-6.1260,17.5547,5.4000,9.5956
2121.0938,16.3753,-4.9994,12.5830,6.4400,17.0824,-10.6460,6.8446,5.8560,15.7345,5.1250,7.0854,-7.3722,17.6995,0.1859,8.1381,-7.9831,16.7261,5.8584,10.6803
2125.0000,12.5389,-5.2079,13.8680,8.1479,18.0925,-11.1190,8.7316,7.8557,14.2300,4.6649,7.2833,-6.2933,17.4397,1.9072,7.8197,-8.8998,16.2592,6.4836,11.1900
2128.9062,10.0212,-5.3921,14.5313,8.4937,19.9256,-11.3944,10.0936,7.9874,14.1944,2.9982,7.6814,-4.9766,17.6609,3.2754,7.0913,-8.4155,16.3371,6.3256,11.2682
2132.8125,9.7465,-5.1988,14.7918,6.6872,21.7517,-10.9106,10.7372,5.7655,15.5814,0.3645,8.5556,-3.5370,18.0729,3.2252,6.8989,-6.6527,16.6930,4.7546,11.1656
2136.7188,11.0924,-4.5793,14.9621,3.0607,22.5412,-9.5232,10.9396,2.0064,17.3141,-2.5956,9.8119,-2.0811,18.0979,1.5926,7.5054,-4.2291,16.8530,1.8679,11.2365
2140.6250,12.4418,-3.6725,15.2340,-1.1730,21.6663,-7.5560,11.2097,-1.7200,17.9756,-5.2533,11.0606,-0.6984,17.2513,-0.9406,8.3791,-1.9048,16.4375,-1.6196,11.7235
2144.5312,12.3218,-2.6160,15.4607,-4.7420,19.2139,-5.5674,11.8018,-4.1641,16.7069,-7.2965,11.8257,0.5326,15.4458,-3.4932,8.6515,-0.1667,15.3620,-4.8820,12.5061
2148.4375,10.3273,-1.4749,15.1753,-7.0962,15.8731,-4.0353,12.4404,-5.2070,13.7192,-8.7423,11.8041,1.5396,13.0496,-5.6554,7.8523,0.9973,13.8586,-7.4878,13.0827
2152.3438,7.2193,-0.3234,13.9149,-8.6023,12.5044,-3.1766,12.5362,-5.8283,10.0936,-9.7248,11.0552,2.2635,10.6723,-7.6580,6.3953,1.9872,12.3290,-9.5431,12.8830
2156.2500,4.2121,0.6480,11.6472,-10.0813,9.6686,-2.9710,11.7384,-7.2885,7.0245,-10.2999,10.0042,2.6785,8.8072,-9.9649,5.4140,3.2161,11.1135,-11.4204,11.7096
2160.1562,2.0460,1.1566,8.9495,-12.0920,7.3889,-3.2830,10.3470,-10.1485,5.0430,-10.4463,9.2214,2.8128,7.5443,-12.6895,5.9899,4.7347,10.2949,-13.3355,9.9501
2164.0625,0.5532,1.0061,6.7345,-14.5031,5.2736,-3.9282,9.1890,-13.8320,3.7536,-10.2295,9.0727,2.7591,6.5319,-15.3415,8.2870,6.1400,9.6461,-15.1187,8.3451
2167.9688,-0.9986,0.2742,5.6639,-16.6134,2.9054,-4.6336,8.9987,-16.9966,2.2394,-9.9180,9.4536,2.6621,5.2164,-17.1050,11.2389,6.8605,8.7597,-16.3317,7.4514
2171.8750,-3.1140,-0.6769,5.6651,-17.6516,0.2313,-4.9867,9.7761,-18.3880,-0.1852,-9.8693,9.8050,2.6723,3.2134,-17.3916,13.0970,6.6298,7.2977,-16.5953,7.2078
2175.7812,-5.5017,-1.4185,5.9380,-17.2447,-2.3227,-4.5115,10.6610,-17.5492,-3.4345,-10.2213,9.4557,2.8727,0.5714,-16.2063,12.5408,5.7908,5.2125,-15.8434,6.9656
2179.6875,-7.2030,-1.7514,5.4931,-15.5478,-4.1270,-2.9013,10.4805,-14.9457,-6.7102,-10.6391,8.0968,3.2071,-2.2523,-14.0569,9.6031,5.1678,2.7915,-14.3196,5.9945
2183.5938,-7.3318,-1.8331,3.8537,-13.0423,-4.8567,-0.2674,8.5959,-11.5378,-9.0932,-10.3831,6.0678,3.4640,-4.6967,-11.5369,5.7375,5.5500,0.4780,-12.3659,4.0869
2187.5000,-5.8477,-2.0046,1.4097,-10.2427,-4.8818,2.8074,5.4191,-8.2007,-10.2171,-8.7359,4.2134,3.3604,-6.4778,-8.9704,2.9219,7.1343,-1.4212,-10.2168,1.7846
2191.4062,-3.7483,-2.4263,-0.8486,-7.5391,-5.2060,5.5137,2.1978,-5.3950,-10.5160,-5.5274,3.3547,2.7169,-7.7748,-6.4000,2.3811,9.3384,-2.9323,-7.9653,0.0274
2195.3125,-2.4979,-2.8141,-2.0303,-5.1964,-6.8902,7.2414,0.2194,-3.1924,-10.8638,-1.3680,3.7123,1.6369,-9.0673,-3.8516,3.8065,11.1438,-4.3547,-5.6819,-0.5239
2199.2188,-3.0857,-2.5215,-1.9588,-3.3676,-10.2607,7.9092,0.0164,-1.4605,-11.8712,2.6268,4.6955,0.5616,-10.7142,-1.5428,5.6224,11.7441,-5.9585,-3.5165,0.0290
2203.1250,-5.3763,-0.9695,-1.2516,-2.0080,-14.4208,7.9613,1.1383,0.0355,-13.3561,5.4701,5.2517,0.1144,-12.5627,0.2313,6.1091,11.0398,-7.6489,-1.6400,0.9124
2207.0312,-8.2021,1.8542,-0.8219,-0.7642,-17.4713,8.0179,2.6045,1.6548,-14.3792,6.8688,4.5734,0.7750,-13.8801,1.4613,4.5790,9.6269,-8.8605,-0.0669,1.2807
2210.9375,-10.1097,5.1888,-1.2024,0.9632,-17.4226,8.4151,3.6326,3.8569,-13.8336,7.3152,2.6743,2.5563,-13.7045,2.6641,1.7670,8.3101,-8.8078,1.4481,0.8577
2214.8438,-10.2309,7.7745,-2.2216,3.6824,-13.3150,8.9515,4.0561,6.9731,-11.1923,7.6395,0.4025,4.8986,-11.4200,4.6696,-0.8231,7.5249,-6.9653,3.2766,0.1103
2218.7500,-8.7019,8.4731,-3.2727,7.3606,-5.8703,9.0182,4.1401,10.8513,-6.9133,8.3582,-1.1622,6.8874,-7.1978,8.0026,-2.1054,7.1124,-3.4696,5.5887,-0.1954
2222.6562,-6.4159,6.8619,-3.9420,11.2182,2.7588,8.0189,4.0189,14.6836,-2.2418,9.3103,-1.5239,7.7019,-2.0115,12.3086,-2.2380,6.5953,0.8392,8.0913,0.2866
2226.5625,-4.3605,3.4428,-4.4673,14.0337,10.0239,5.7904,3.2963,17.2860,1.4535,9.8617,-1.2059,7.0391,2.7959,16.3370,-2.4791,5.6922,4.7852,10.0974,1.0563
2230.4688,-3.0316,-0.6412,-5.6241,14.8559,14.1891,2.7444,1.2038,17.7700,3.3870,9.5147,-1.4564,5.2524,6.1351,18.6064,-4.2019,4.6152,7.4130,10.9564,0.9973
2234.3750,-2.2846,-4.1845,-8.0903,13.6624,15.0000,-0.3517,-2.7617,16.1705,3.6873,8.4311,-3.3869,3.1205,7.6175,18.3373,-7.8320,3.8784,8.3909,10.5634,-0.8688
2238.2812,-1.6258,-6.4371,-11.7677,11.4545,13.4726,-2.7977,-8.2286,13.5284,3.1985,7.4166,-7.1325,1.3940,7.5942,15.9758,-12.5126,3.7652,8.0374,9.5420,-4.6374
2242.1875,-0.6565,-7.2925,-15.6003,9.6408,11.0418,-4.3196,-13.8919,11.2687,2.9235,7.3192,-11.6350,0.4091,6.8272,12.8953,-16.7373,3.9132,7.0112,8.8940,-9.3219
2246.0938,0.6589,-7.1111,-18.0775,9.0945,8.6960,-5.1634,-18.1252,10.2548,3.4695,8.2650,-15.2250,-0.0109,6.0474,10.4739,-19.4431,3.4088,5.9130,9.3081,-13.3496
2250.0000,2.0319,-6.3710,-18.1011,9.5537,6.6582,-5.9045,-19.8613,10.1960,4.8036,9.3338,-16.6140,-0.3475,5.6730,9.2256,-20.7123,1.3820,5.0602,10.6139,-15.4125
2253.9062,3.0958,-5.3970,-15.6194,9.8320,4.7210,-7.1110,-19.1290,9.8839,6.4091,9.0069,-15.6166,-1.0610,5.7997,8.6239,-21.5425,-2.3267,4.5245,11.8164,-15.1049
2257.8125,3.6548,-4.3114,-11.5961,8.7315,2.8609,-9.0486,-16.8737,8.1360,7.6976,6.1670,-13.1209,-2.3777,6.3701,7.7219,-22.8689,-6.9518,4.3108,11.7425,-12.9657
2261.7188,3.8015,-3.1741,-7.3573,6.0172,1.5938,-11.5534,-14.2190,4.7808,8.4101,0.9935,-10.3727,-4.2932,7.3359,6.0490,-24.6028,-11.2314,4.4867,9.8780,-9.9755
2265.6250,3.8907,-2.1541,-3.7929,2.7408,1.7863,-14.1007,-11.7197,0.9512,8.7800,-4.8918,-8.1213,-6.7054,8.6930,4.0612,-25.4434,-14.1784,5.1602,6.7998,-6.9159
2269.5312,4.4238,-1.5825,-0.9575,0.6469,4.0869,-16.0234,-9.1320,-1.5617,9.3779,-9.2017,-6.2485,-9.5008,10.4115,2.7884,-23.6382,-15.6232,6.3715,3.8719,-4.0239
2273.4375,5.8738,-1.8334,1.7051,1.0558,8.4304,-16.7924,-5.8200,-1.4610,10.7387,-10.2337,-4.1061,-12.4954,12.3703,2.9767,-18.1665,-16.1318,8.0366,2.3926,-1.1034
2277.3438,8.4605,-3.1022,4.7497,3.9896,13.9812,-16.2587,-1.4475,1.2036,12.9823,-7.8101,-1.2429,-15.3054,14.3750,4.4282,-9.5176,-16.4008,10.0107,2.7762,2.0898
2281.2500,11.9281,-5.2134,8.2136,8.1320,19.5302,-14.7515,3.5774,5.0686,15.6517,-3.3171,2.0822,-17.3268,16.2367,6.0817,0.4512,-16.6352,12.1989,4.3315,5.5228
2285.1562,15.4681,-7.5828,11.5612,11.6222,24.0293,-12.9575,8.2222,8.3189,17.8833,1.1529,5.0134,-17.9398,17.8251,6.7805,9.4368,-16.4196,14.5746,5.7709,8.8391
2289.0625,17.9424,-9.3816,14.0739,13.1143,26.9084,-11.5974,11.4024,9.7481,18.8486,3.9718,6.7390,-16.8563,19.0447,6.1210,15.7479,-15.1780,17.0541,6.0684,11.5625
2292.9688,18.4158,-9.8558,15.3541,12.3999,28.0558,-11.0372,12.5946,9.2926,18.2349,4.7059,7.1430,-14.3698,19.7800,4.7138,18.8586,-12.8222,19.3371,5.0546,13.3558
2296.8750,16.7544,-8.6683,15.5688,10.2511,27.6323,-11.0554,12.0927,7.7519,16.4813,3.9976,6.9396,-11.2820,19.9069,3.6557,19.2616,-10.0223,20.9065,3.3576,14.1624
2300.7812,13.8906,-6.1001,15.3009,7.7102,25.9679,-10.9377,10.8007,6.0106,14.5875,2.7964,7.1715,-8.4963,19.4073,3.6338,17.9266,-7.8300,21.2748,1.7938,14.1973
2304.6875,11.4628,-2.9873,15.1742,5.3925,23.6101,-9.8939,9.7575,4.3940,13.5612,1.5639,8.4502,-6.5184,18.4970,4.3547,15.8345,-6.9169,20.3447,0.7050,13.8695
2308.5938,10.9226,-0.3876,15.5474,3.2668,21.3475,-7.5728,9.7043,2.6063,13.8010,0.0333,10.5160,-5.2033,17.6086,4.7247,13.8216,-7.0280,18.5912,-0.2584,13.6971
2312.5000,12.6030,0.8905,16.4490,0.9619,19.9912,-4.3559,10.8839,0.2002,14.7994,-2.3537,12.4412,-3.9366,17.1522,3.6114,12.5985,-7.1128,16.8539,-1.7724,14.1917
2316.4062,15.3721,0.6614,17.6964,-1.7427,19.9164,-1.2165,13.0586,-2.8715,15.3864,-5.7307,13.3041,-2.1412,17.1751,0.5985,12.6594,-6.0807,15.8105,-4.2116,15.6542
2320.3125,17.1851,-0.5695,19.0198,-4.6532,20.6774,0.7981,15.6334,-6.0813,14.4109,-9.4106,12.8115,0.2363,17.1838,-3.8014,13.9937,-3.6346,15.4861,-7.2596,17.9180
2324.2188,16.2750,-1.8972,20.0767,-7.2887,21.0852,1.1526,17.8118,-8.6391,11.4636,-12.1516,11.4164,2.5977,16.3452,-8.5432,15.8447,-0.5546,15.1903,-10.0602,20.2142
2328.1250,12.2597,-2.5191,20.4229,-9.2236,19.8608,0.1129,18.8034,-10.0020,7.1872,-12.9184,9.8887,4.0223,14.0213,-12.6587,16.8793,1.8002,13.9949,-11.7821,21.3670
2332.0312,6.4417,-2.1592,19.5963,-10.3306,16.5074,-1.4371,18.1134,-10.1688,2.9545,-11.5935,8.7253,3.8457,10.3057,-15.5857,15.8627,2.4276,11.4553,-12.1619,20.3475
2335.9375,1.0697,-1.1628,17.3769,-10.7448,11.7829,-2.5221,15.8317,-9.5575,0.0913,-9.1206,7.8752,2.1178,6.1525,-17.0460,12.4847,1.3939,8.0517,-11.6196,16.9333
2339.8438,-1.9966,-0.2029,14.0784,-10.6299,7.3494,-2.5961,12.7312,-8.6147,-0.8848,-6.9643,6.9668,-0.3383,2.9188,-16.7329,7.7286,-0.1760,4.9856,-10.8757,12.0407
2343.7500,-2.3765,0.2179,10.6072,-9.9859,4.7530,-1.7375,10.0127,-7.4866,-0.5349,-6.2433,5.7942,-2.2893,1.5554,-14.2252,3.4085,-0.8044,3.4197,-10.3778,7.4203
2347.6562,-1.3275,0.1493,8.1280,-8.6626,4.4163,-0.4371,8.7420,-5.9859,-0.1152,-7.1027,4.6123,-2.6563,1.9737,-9.2983,1.0873,0.4322,3.6752,-9.9675,4.7968
2351.5625,-0.8895,0.2058,7.4621,-6.5414,5.3766,0.8238,9.2706,-3.8204,-0.7885,-8.7006,3.9709,-0.9790,3.0510,-2.3902,1.0937,3.3937,4.9652,-9.0254,4.9317
2355.4688,-2.5795,1.1882,8.5875,-3.7001,5.9919,1.8876,11.0137,-0.8583,-2.9273,-9.7642,4.2269,2.4223,3.3212,5.2329,2.3546,7.0408,5.8782,-6.9658,7.2012
2359.3750,-6.4651,3.5432,10.5986,-0.4200,5.1213,2.9219,12.7732,2.7618,-5.9318,-9.3206,5.1601,6.6049,1.9179,11.8631,3.1983,10.0858,5.2920,-3.7107,9.9806
2363.2812,-11.1665,7.0023,12.1976,2.9414,2.9096,4.1523,13.4360,6.6877,-8.6422,-7.1628,6.0482,10.3700,-0.8674,16.0990,2.5624,11.6653,3.0808,0.1876,11.6062
2367.1875,-14.7270,10.6398,12.4153,6.0615,0.5902,5.5635,12.6065,10.4490,-10.0507,-3.8481,6.1714,12.6824,-3.7996,17.4538,0.7180,11.6459,0.1283,3.8347,11.2991
2371.0938,-15.7602,13.3320,11.0895,8.6445,-0.5405,6.8117,10.7601,13.4976,-9.8551,-0.3396,5.3498,13.0168,-5.5414,16.4176,-1.0337,10.4886,-2.3389,6.4672,9.4683
2375.0000,-14.1662,14.3524,8.7963,10.3480,-0.1749,7.4228,8.8182,15.2483,-8.5331,2.4401,4.0696,11.5369,-5.5366,13.9957,-1.4618,8.8785,-3.5904,7.7968,7.2407
2378.9062,-11.0326,13.7454,6.3159,10.8143,0.7679,7.1335,7.4470,15.2514,-6.9464,3.9315,3.0735,9.0353,-4.3202,11.1412,-0.4505,7.3993,-3.7916,8.0448,5.5918
2382.8125,-7.8675,12.2540,4.0432,9.8971,0.9346,6.1356,6.5714,13.5170,-5.7701,4.0836,2.7293,6.6156,-3.0516,8.5271,0.8367,6.3927,-3.6925,7.7248,4.6961
2386.7188,-5.6879,10.8414,1.7715,7.9604,-0.2340,5.0502,5.4382,10.7874,-5.1192,3.3677,2.6855,5.2048,-2.6206,6.7394,0.8346,5.9639,-3.8776,7.3640,3.9203
2390.6250,-4.5159,10.0996,-1.0178,5.9642,-1.8164,4.6381,3.1814,8.4462,-4.5731,2.6759,2.1033,5.1052,-2.9759,6.5436,-1.1597,6.0320,-4.1705,7.3281,2.4005
2394.5312,-3.5324,9.9077,-4.6050,5.1297,-1.8705,5.4116,-0.5061,7.9281,-3.5323,3.0552,0.3087,5.8401,-3.1548,8.7780,-4.3125,6.3751,-3.6695,7.7737,-0.2550
2398.4375,-1.7377,9.5555,-8.6515,6.2807,1.2144,7.3542,-5.0491,9.8806,-1.6482,5.2573,-2.6373,6.4234,-1.9883,13.7739,-6.7333,6.7036,-1.4069,8.6557,-3.6439
2402.3438,1.3064,8.2567,-12.2746,9.2700,7.4281,9.8819,-9.2280,13.6218,0.9379,9.2445,-5.8948,5.9446,1.0233,20.7151,-6.8051,6.7849,2.8375,9.7325,-6.8192
2406.2500,5.0872,5.7252,-14.5196,12.9332,14.8790,12.0505,-11.8150,17.3636,3.6572,13.9481,-8.3735,4.1339,5.2775,27.5656,-4.4076,6.5672,8.1663,10.5948,-8.8788
2410.1562,8.3199,2.4337,-14.8895,15.7020,20.8150,12.9100,-12.2099,19.1917,5.8028,17.5528,-9.4461,1.5463,9.3728,31.8719,-1.1231,6.1923,12.9228,10.7905,-9.4590
2414.0625,9.5997,-0.6347,-13.5814,16.5343,23.2706,11.8632,-10.7082,18.2349,6.8611,18.3041,-9.3244,-0.7806,11.9308,32.0765,0.7588,5.8433,15.5657,10.0483,-8.8247
2417.9688,8.1877,-2.6041,-11.3086,15.5473,22.2317,8.8985,-8.2877,15.2412,6.7220,15.4597,-8.8396,-1.9981,12.3885,28.4945,-0.2418,5.5194,15.5041,8.4825,-7.5773
2421.8750,4.5142,-3.2974,-8.8794,13.9005,19.5541,4.6134,-6.0807,12.1230,5.6970,9.8166,-8.8160,-2.0150,11.2639,23.2194,-3.8036,4.9233,13.3842,6.6080,-6.2590
2425.7812,0.1143,-3.3991,-6.8235,12.9873,17.7364,0.0098,-4.8354,10.7316,4.3798,3.4237,-9.5062,-1.5825,9.7797,18.9214,-7.9962,3.5972,10.6925,5.0941,-5.1342
2429.6875,-3.0168,-4.0441,-5.2616,13.4931,18.4133,-3.8707,-4.6167,11.6867,3.4299,-1.4246,-10.4734,-1.8196,9.1421,17.2955,-10.4772,1.2524,8.9634,4.3816,-4.2197
2433.5938,-3.3569,-6.0696,-4.0012,14.9867,21.5616,-6.3313,-4.8345,14.0701,3.3594,-3.3426,-10.9487,-3.4804,9.9457,18.1910,-9.8458,-1.9406,9.0724,4.4224,-3.4202
2437.5000,-0.6111,-9.4087,-2.7103,16.3281,25.8454,-7.2537,-4.5388,16.1927,4.3823,-2.4669,-10.3514,-6.4352,12.0226,19.9934,-6.2760,-5.3365,10.9752,4.7482,-2.5888
2441.4062,4.1235,-13.0394,-1.0484,16.5762,29.7138,-7.0698,-2.8493,16.8650,6.3612,-0.1764,-8.5956,-9.6990,14.7256,20.9365,-1.1323,-8.1205,13.9345,4.8363,-1.4842
2445.3125,8.9031,-15.5529,1.2492,15.7059,32.3959,-6.4899,0.6293,16.2303,8.8697,1.8534,-6.0271,-11.9862,17.3769,20.3651,4.0058,-9.7371,17.0037,4.5099,0.2368
2449.2188,11.9269,-15.9925,4.2676,14.5850,34.1173,-6.1368,5.5471,15.5356,11.3554,2.6240,-3.1322,-12.4335,19.5748,19.0340,8.1611,-10.1419,19.4605,4.0588,2.8498
2453.1250,12.4421,-14.4260,7.7801,14.2233,35.5009,-6.2880,10.8296,16.0086,13.3470,2.2073,-0.2877,-11.0511,21.2246,18.2748,11.1268,-9.7074,21.0002,3.9708,6.2548
2457.0312,11.0651,-11.8775,11.1946,14.8667,36.7184,-6.8479,15.0314,17.6888,14.6162,1.3946,2.2903,-8.6516,22.3703,18.7173,13.0786,-8.8786,21.6821,4.4675,9.7749
2460.9375,9.3420,-9.6706,13.7155,15.6449,37.0995,-7.5235,16.9344,19.1249,15.2162,0.9544,4.4655,-6.3433,23.0110,19.5837,14.1325,-7.8563,21.7451,5.2133,12.3224
2464.8438,8.8091,-8.6229,14.7239,15.0830,35.5094,-8.0522,16.1365,18.2331,15.3765,1.0711,6.1380,-4.9182,23.0430,19.1253,14.2848,-6.5453,21.4222,5.4490,12.9525
2468.7500,10.1033,-8.6171,14.1747,12.1379,31.2126,-8.3213,13.3037,13.7506,15.3170,1.3288,7.3225,-4.4897,22.3357,15.8952,13.7297,-4.7789,20.8266,4.4819,11.4971
2472.6562,12.6294,-8.8059,12.7097,7.0126,24.5814,-8.3291,9.8859,6.2551,15.0940,1.1570,8.2456,-4.5451,20.8565,9.9048,13.1488,-2.6041,19.9297,2.1756,8.8178
2476.5625,14.9515,-8.2685,11.3266,1.1363,17.1210,-8.0697,7.3865,-2.0092,14.5727,0.3226,9.2855,-4.3290,18.7449,2.7823,13.5523,-0.3762,18.6189,-0.9363,6.4159
2480.4688,15.6443,-6.6478,10.7624,-3.7103,10.7621,-7.4791,6.5693,-8.4356,13.5447,-0.9211,10.7044,-3.3081,16.2953,-3.2125,15.6545,1.4167,16.8086,-4.0122,5.5745
2484.3750,14.0918,-4.3440,10.9997,-6.5289,6.8583,-6.5073,7.0759,-11.6300,11.9105,-2.0979,12.3522,-1.4667,13.8633,-6.6315,19.2238,2.4495,14.5524,-6.4738,6.5746
2488.2812,10.7871,-2.1820,11.2791,-7.7074,5.5026,-5.2527,7.7089,-12.2046,9.8070,-2.9125,13.6226,0.6989,11.7451,-7.7217,22.9722,2.7319,12.0878,-8.3496,8.5293
2492.1875,7.0108,-0.8383,10.6611,-8.6757,5.5534,-4.0169,7.2276,-12.2664,7.5933,-3.4401,13.7944,2.4576,10.0718,-8.1475,25.1901,2.5313,9.7619,-10.1249,9.9791
2496.0938,4.1262,-0.4437,8.7674,-10.8552,5.3193,-3.1871,5.1618,-13.9631,5.6942,-3.9603,12.5739,3.2409,8.7561,-9.7815,24.7660,2.1387,7.8569,-12.2130,9.8615
2500.0000,2.9149,-0.6061,6.1612,-14.6311,3.4797,-2.9970,2.1203,-18.0594,4.3970,-4.6152,10.4358,2.9645,7.5206,-13.4269,21.8940,1.6944,6.4156,-14.4628,8.1909
2503.9062,3.2949,-0.7604,4.0490,-19.0367,-0.2713,-3.3336,-0.6073,-23.4618,3.7194,-5.2075,8.4474,2.1087,6.0223,-18.3317,17.9608,1.2172,5.1929,-16.1055,5.9813
2507.8125,4.5081,-0.5384,3.4766,-22.3398,-5.1671,-3.7540,-1.8864,-27.9405,3.4238,-5.3201,7.6299,1.5016,4.0365,-22.7485,14.6832,0.7842,3.7930,-16.2069,4.4819
2511.7188,5.5971,0.1105,4.5771,-23.1053,-9.8625,-3.7311,-1.4520,-29.5097,3.1600,-4.6482,8.2833,1.8913,1.6110,-25.0661,13.0997,0.6583,1.9218,-14.3112,4.2839
2515.6250,5.8731,1.0695,6.4232,-21.0284,-13.1624,-2.9759,-0.0285,-27.5490,2.6427,-3.2502,9.7730,3.5211,-0.9157,-24.7028,13.1103,1.2034,-0.4098,-10.8035,4.9443
2519.5312,5.1400,2.2702,7.6102,-17.0343,-14.5913,-1.6133,1.2000,-23.0032,1.7590,-1.5020,10.9603,5.9546,-3.0812,-22.2205,13.8193,2.6247,-2.8807,-6.7292,5.3803
2523.4375,3.6183,3.7449,7.1699,-12.6610,-14.5355,-0.0811,1.3800,-17.6583,0.5563,0.1975,10.9783,8.2826,-4.5796,-18.7269,14.3346,4.7419,-5.0691,-3.2028,4.7207
2527.3438,1.6829,5.4696,5.1699,-9.1938,-13.9404,1.1788,0.4813,-13.0748,-0.8587,1.7053,9.7853,9.6272,-5.4868,-15.1141,14.3637,7.0037,-6.7375,-0.8267,2.9684
2531.2500,-0.3918,7.1737,2.5851,-7.1029,-13.7708,2.0154,-0.8322,-9.8883,-2.4202,3.1512,8.0882,9.6535,-6.2671,-11.6941,14.1650,8.7621,-7.9888,0.4951,0.9841
2535.1562,-2.5300,8.3466,0.5596,-6.0556,-14.5360,2.6320,-1.8161,-7.8319,-4.1247,4.6830,6.7118,8.7629,-7.5142,-8.3940,13.9726,9.6127,-9.1720,1.2799,-0.1832
2539.0625,-4.7684,8.5079,-0.3789,-5.3575,-16.1074,3.3637,-2.2603,-6.2919,-5.9563,6.1810,5.9209,7.8214,-9.5592,-5.2114,13.4573,9.5494,-10.5908,1.9996,-0.1005
2542.9688,-7.0771,7.5618,-0.5844,-4.4464,-17.8713,4.3257,-2.6346,-4.8900,-7.7774,7.2160,5.2380,7.5793,-12.1795,-2.4709,11.7541,8.8410,-12.2167,2.7937,0.7218
2546.8750,-9.2390,5.9422,-0.8779,-3.1248,-19.0717,5.1950,-3.6638,-3.6659,-9.2786,7.3232,3.9022,8.1625,-14.6071,-0.6559,8.1026,7.7631,-13.6119,3.5370,1.2244
2550.7812,-10.8883,4.3896,-1.8202,-1.4865,-19.1244,5.3067,-5.6725,-2.8149,-10.0517,6.3797,1.5942,8.9900,-15.8599,0.0152,2.6060,6.4312,-14.1357,4.1236,0.6096
2554.6875,-11.6974,3.4831,-3.2616,0.2883,-17.7547,4.0414,-8.2228,-2.2889,-9.7687,4.7711,-1.1769,9.1881,-15.2271,-0.1236,-3.5385,4.8724,-13.3129,4.6653,-1.0541
2558.5938,-11.5794,3.2592,-4.5232,2.0613,-14.9684,1.2721,-10.3573,-1.6448,-8.3719,3.1940,-3.3770,8.2198,-12.6457,-0.3078,-8.6056,3.2348,-11.1373,5.4119,-2.8973
2562.5000,-10.7439,3.2061,-5.0511,3.7244,-10.9815,-2.4169,-11.2976,-0.2878,-6.1548,2.2420,-4.2417,6.2835,-8.7648,0.1982,-11.3526,1.8904,-8.1213,6.4791,-3.9450
2566.4062,-9.5308,2.6509,-4.9990,5.1402,-6.2238,-5.9037,-11.0908,2.0693,-3.6651,2.1066,-3.9480,4.1833,-4.6701,1.6475,-11.7502,1.2662,-5.0592,7.6599,-3.9173
2570.3125,-8.1135,1.2622,-5.2428,6.1560,-1.4036,-8.0291,-10.6998,5.0915,-1.4605,2.6207,-3.6035,2.7553,-1.4198,3.6916,-10.8954,1.4891,-2.6473,8.5317,-3.5266
2574.2188,-6.2895,-0.6990,-6.7630,6.7032,2.5083,-8.1566,-11.4178,7.9007,0.1609,3.5786,-4.4922,2.2643,0.3803,5.6471,-10.1786,2.1424,-1.1763,8.8047,-4.0201
2578.1250,-3.5631,-2.5534,-9.8310,6.8782,4.5205,-6.4856,-13.9710,9.5194,1.3047,5.0145,-7.0879,2.2241,0.7743,6.9127,-10.3403,2.3981,-0.4559,8.6210,-6.2691
2582.0312,0.4640,-3.6616,-13.6100,6.8972,4.0757,-3.9414,-17.9108,9.3968,2.4106,7.1531,-10.5551,1.7908,0.3684,7.2237,-11.1255,1.5177,0.0113,8.5196,-10.0412
2585.9375,5.6167,-3.8208,-16.4983,6.9350,1.4909,-1.7058,-21.7210,7.7024,3.9968,10.0361,-13.1338,0.4508,0.0280,6.6227,-11.7550,-0.6037,0.7273,9.0503,-13.9723
2589.8438,10.9316,-3.3236,-17.0175,6.9914,-1.9355,-0.6514,-23.5947,5.2382,6.3528,13.1490,-13.1852,-1.5134,0.5078,5.2837,-11.7769,-3.2647,1.9432,10.3198,-16.2775
2593.7500,14.9430,-2.6759,-14.6621,6.9302,-4.3357,-0.9896,-22.4026,3.0617,9.3557,15.4348,-10.2064,-3.1574,2.1671,3.4255,-11.5487,-5.3434,3.5765,11.8453,-15.7437
2597.6562,16.3959,-2.2294,-10.1642,6.6889,-4.0759,-2.3127,-18.2677,2.0489,12.5172,15.8085,-5.1460,-3.5537,4.8741,1.4056,-11.9019,-6.0272,5.3229,12.8656,-12.3782
2601.5625,15.0024,-2.0252,-5.0323,6.4802,-0.5443,-3.9683,-12.4371,2.6012,15.2415,13.8785,0.1674,-2.5425,8.1194,-0.1572,-13.2272,-5.3964,6.8777,12.8953,-7.3375
2605.4688,11.7591,-1.9416,-0.7034,6.7703,5.5340,-5.5053,-6.5860,4.5733,17.1502,10.3526,4.0776,-0.9938,11.2772,-0.4781,-14.7401,-4.4367,8.1325,12.0953,-2.2371
2609.3750,8.5642,-1.9755,2.1413,7.9770,12.4625,-6.8959,-2.0043,7.3841,18.2811,6.7778,5.9536,-0.3376,13.8891,0.9995,-14.6223,-4.4319,9.2422,11.1572,1.6915
2613.2812,7.2867,-2.3703,3.7211,10.0818,18.4263,-8.3977,0.8861,10.2360,19.0369,4.7109,6.3441,-1.6371,15.8351,4.1378,-11.0968,-6.1163,10.5302,10.7708,4.0986
2617.1875,8.7930,-3.4420,4.7797,12.4742,22.3514,-10.1749,2.5027,12.3835,19.9046,4.8309,6.4347,-4.8178,17.3117,7.9580,-3.7550,-9.1345,12.2903,11.0808,5.4512
2621.0938,12.4863,-5.2273,6.0203,14.2170,24.2914,-11.9783,3.6943,13.3959,21.1083,6.5664,7.2322,-8.5952,18.6377,11.0471,5.8074,-12.1643,14.5933,11.5580,6.5557
2625.0000,16.6242,-7.2578,7.7249,14.6052,25.1657,-13.1553,5.2460,13.3254,22.4130,8.4663,9.0024,-11.1800,20.0095,12.3430,14.5688,-13.6306,17.2046,11.3919,8.0232
2628.9062,19.2304,-8.6999,9.7192,13.6340,26.0650,-13.0295,7.5390,12.6710,23.2171,9.0528,11.2364,-11.3231,21.3543,11.7793,19.5733,-12.5733,19.6550,10.1050,9.9802
2632.8125,19.0820,-8.8219,11.5865,12.0051,27.5711,-11.4019,10.4483,12.0924,22.9016,7.5979,13.0583,-9.0298,22.3731,10.2921,19.4207,-9.1658,21.4283,7.9069,12.1156
2636.7188,16.2461,-7.4815,12.9236,10.6157,29.4800,-8.8049,13.4386,11.9733,21.2370,4.3691,13.7596,-5.4944,22.7352,9.1152,14.8608,-4.6151,22.1691,5.5109,13.9426
2640.6250,11.9248,-5.2721,13.4981,9.8701,31.0274,-6.2772,15.7873,12.0858,18.5936,0.2857,13.1584,-2.3237,22.2912,8.8292,8.2236,-0.5480,21.8083,3.5546,15.0865
2644.5312,7.7638,-3.1892,13.3045,9.3196,31.4086,-4.7631,16.8825,11.6085,15.8020,-3.6897,11.6600,-0.5735,21.1593,8.8585,2.1657,1.7595,20.5535,2.0869,15.4631
2648.4375,5.0427,-2.0160,12.5735,7.9362,30.2451,-4.5249,16.5211,9.5685,13.7158,-6.9967,10.0614,-0.2143,19.6338,7.8366,-1.4489,1.9203,18.7651,0.5355,15.3070
2652.3438,4.1624,-1.8385,11.7461,4.8678,27.7442,-4.9833,15.0821,5.4924,12.7231,-9.5339,9.2185,-0.3254,17.9950,4.6359,-1.9734,0.5321,16.7964,-1.8027,15.0721
2656.2500,4.6295,-2.0220,11.3558,0.1599,24.5281,-5.1210,13.4327,-0.1381,12.5045,-11.4241,9.6872,0.1752,16.3657,-0.6525,0.2680,-1.1522,14.8792,-5.1179,15.2396
2660.1562,5.4587,-1.6712,11.7873,-5.0834,21.3006,-4.1859,12.5346,-5.9539,12.2057,-12.7593,11.4465,1.7847,14.7179,-6.5126,4.4506,-1.7975,13.1020,-8.7893,16.0842
2664.0625,5.7305,-0.2635,13.0073,-9.2436,18.5714,-2.2059,12.9156,-10.3068,10.9431,-13.5266,13.8220,4.1324,13.0097,-10.7725,9.5248,-0.5633,11.4651,-11.6776,17.4867
2667.9688,5.0154,1.9688,14.4650,-11.0953,16.5557,0.0500,14.3285,-12.0796,8.3484,-13.7073,15.7058,6.2862,11.3226,-11.8637,14.2568,2.5265,9.9594,-12.8145,18.9066
2671.8750,3.4858,4.1613,15.3157,-10.4791,15.2256,1.6322,15.8610,-11.2124,4.8157,-13.3886,16.0488,7.3827,9.8662,-9.7325,17.3105,6.5670,8.6087,-12.0028,19.5835
2675.7812,1.7014,5.3633,14.9061,-8.3115,14.4040,2.0819,16.4908,-8.6312,1.2853,-12.7574,14.4158,7.1402,8.8188,-5.8057,17.6191,10.1403,7.4520,-9.9131,18.9120
2679.6875,0.2053,5.1513,13.2284,-5.9600,13.8128,1.7220,15.7475,-5.6518,-1.3177,-11.9953,11.2799,5.9587,8.1184,-2.0648,14.9311,11.9559,6.4835,-7.6339,16.7969
2683.5938,-0.8460,3.9228,11.0019,-4.4283,13.0803,1.3648,14.0275,-3.2543,-2.6491,-11.2006,7.8186,4.6205,7.3778,0.1271,10.1062,11.4983,5.6023,-6.0096,13.7622
2687.5000,-1.8077,2.6914,9.2585,-3.8788,11.7770,1.6734,12.3084,-1.6751,-3.1607,-10.4249,5.2706,3.8527,6.0345,0.6801,4.7880,9.3533,4.6218,-5.2188,10.7127
2691.4062,-3.3340,2.5147,8.6658,-3.7425,9.5406,2.6703,11.4386,-0.5157,-3.8195,-9.7722,4.2199,4.0341,3.6785,0.5655,0.5371,6.9904,3.3555,-4.8327,8.4642
2695.3125,-5.9221,3.8923,9.0450,-3.2545,6.2673,3.7644,11.5030,0.7841,-5.4972,-9.4099,4.2771,5.1511,0.3614,0.9902,-2.0190,6.0404,1.7439,-4.2395,7.3265
2699.2188,-9.4765,6.4694,9.4469,-2.0055,2.2551,4.2578,11.7387,2.4677,-8.4060,-9.4178,4.3888,6.9103,-3.3313,2.5776,-3.3847,7.4113,-0.0543,-3.0980,6.9944
2703.1250,-13.1854,9.1888,8.7651,-0.1690,-1.8305,3.9195,11.0860,4.2807,-11.9341,-9.5765,3.5821,8.8506,-6.5231,5.0666,-4.5659,10.7261,-1.6825,-1.5263,6.8022
2707.0312,-15.8489,10.7903,6.4785,1.6603,-5.2076,3.1687,8.9807,5.6424,-14.9834,-9.3240,1.6322,10.3955,-8.4860,7.6056,-6.0844,14.4368,-2.7406,0.0283,6.1510
2710.9375,-16.5167,10.3926,3.0026,2.8252,-7.3387,2.7223,5.7989,6.0025,-16.6005,-8.0280,-0.8206,10.9205,-9.0179,9.3228,-7.4413,16.6019,-3.0098,1.0749,4.8151
2714.8438,-15.0647,7.8817,-0.6004,2.9161,-8.1873,2.9941,2.6098,5.1493,-16.5072,-5.4634,-2.7883,9.9368,-8.5239,9.7630,-7.5160,15.9196,-2.6166,1.3071,2.9465
2718.7500,-12.3294,3.9500,-3.3411,1.9117,-8.1872,3.7297,0.4091,3.3396,-15.2070,-2.1556,-3.7042,7.3694,-7.7449,8.9989,-5.6476,12.4360,-2.0100,0.6879,0.8325
2722.6562,-9.6680,-0.2021,-4.9364,0.1794,-7.9105,4.1747,-0.5990,1.2484,-13.6161,0.7384,-3.8708,3.7462,-7.2939,7.5037,-2.5431,7.5140,-1.7242,-0.5625,-1.3636
2726.5625,-8.1824,-3.3554,-5.9124,-1.5987,-7.6324,3.6494,-1.1338,-0.2086,-12.4683,2.0414,-4.2483,0.0879,-7.2860,5.9719,-0.2077,3.0748,-2.0417,-1.9956,-3.6661
2730.4688,-8.0848,-4.7429,-7.1310,-2.5766,-7.0991,2.0765,-2.2898,-0.1569,-11.8771,1.3089,-5.7333,-2.5422,-7.2908,5.1623,-0.8027,0.5543,-2.7644,-2.9894,-6.1313
2734.3750,-8.6170,-4.3223,-9.1141,-2.0252,-5.7002,0.0468,-4.7232,1.8714,-11.3265,-0.8009,-8.4638,-3.6048,-6.6396,5.6931,-5.1790,0.1808,-3.2685,-2.9064,-8.6422
2738.2812,-8.5872,-2.7532,-11.6671,0.2856,-2.9759,-1.6295,-8.1825,5.5874,-10.0833,-2.8535,-11.6666,-3.3936,-4.8959,7.7362,-12.1527,0.9844,-2.8536,-1.3865,-10.8633
2742.1875,-7.1843,-1.1015,-14.0535,3.7931,0.8761,-2.5350,-11.7133,9.8309,-7.7527,-3.5089,-14.1612,-2.8382,-2.1975,10.7388,-19.1059,1.5021,-1.1956,1.3510,-12.4215
2746.0938,-4.5397,-0.3961,-15.5458,7.2068,4.8885,-2.9460,-14.3495,12.9035,-4.6163,-2.3779,-15.1493,-2.8857,0.7519,13.4540,-23.5447,0.7249,1.3864,4.4352,-13.1677
2750.0000,-1.6708,-1.2212,-15.9122,9.0503,7.7709,-3.5978,-15.7406,13.3438,-1.5324,-0.2798,-14.7160,-3.8648,3.0468,14.4596,-24.5469,-1.2984,4.0507,6.6649,-13.2933
2753.9062,0.1622,-3.5059,-15.4797,8.4703,8.6854,-5.1038,-16.2484,10.7933,0.5452,1.2968,-13.6930,-5.2836,4.0909,12.9920,-23.1084,-3.5581,5.9014,7.1303,-13.1808
2757.8125,0.2780,-6.5861,-14.7673,5.8258,7.8434,-7.4734,-16.4818,6.3966,1.1426,1.1890,-13.0065,-6.2236,3.9549,9.5770,-21.1959,-4.7948,6.5314,5.7786,-13.0877
2761.7188,-0.9387,-9.4955,-14.0185,2.6092,6.4640,-10.0781,-16.6867,2.3435,0.5925,-0.6442,-12.9970,-6.0621,3.3649,5.9306,-20.2336,-4.3550,6.2893,3.5251,-12.9148
2765.6250,-2.1771,-11.3507,-13.0160,0.6398,6.0370,-12.0601,-16.4993,0.6739,-0.0814,-3.0428,-13.1880,-5.0010,3.3223,4.0314,-20.1130,-2.6417,6.0847,1.7679,-12.2512
2769.5312,-1.8786,-11.6741,-11.3153,0.9800,7.3217,-12.8589,-15.2600,2.0149,0.3358,-4.3215,-12.6339,-3.9979,4.5651,4.8723,-19.3747,-0.8790,6.8336,1.5676,-10.6829
2773.4375,0.9378,-10.5418,-8.6875,3.2686,9.7520,-12.4869,-12.6186,5.0855,2.6333,-3.2490,-10.5644,-4.1275,7.1701,7.7177,-16.3387,-0.3490,8.8865,3.0109,-8.1392
2777.3438,6.1466,-8.5281,-5.4055,5.9411,11.7026,-11.4208,-8.9314,7.3882,6.7606,0.2810,-6.8729,-5.8194,10.5107,10.4416,-10.3224,-1.5972,11.7983,5.1837,-5.0182
2781.2500,12.5348,-6.4885,-2.1436,7.2250,11.5171,-10.2725,-5.1240,6.7440,11.8237,5.2507,-2.1594,-8.5221,13.5887,10.8125,-2.1235,-4.1095,14.5837,6.7798,-1.9958
2785.1562,18.3252,-5.2582,0.4291,6.2669,8.6731,-9.5141,-2.1182,2.7215,16.4842,10.1039,2.6215,-11.0364,15.5560,7.9228,6.4420,-6.6530,16.3002,6.9403,0.3482
2789.0625,21.9326,-5.3539,2.0519,3.6535,4.3268,-9.3964,-0.2578,-2.9820,19.5592,13.4950,6.6182,-12.2785,16.1487,2.8235,13.4891,-8.0381,16.6009,5.7690,1.8354
2792.9688,22.6088,-6.7638,2.9890,1.0019,0.8498,-9.9820,0.8575,-7.4874,20.5319,14.7712,9.3681,-11.9212,15.8117,-2.0557,17.8262,-7.7990,15.9294,4.1994,2.7409
2796.8750,20.7125,-8.9035,3.8124,-0.0722,0.6023,-11.1210,2.0454,-8.4194,19.7332,14.0178,10.8338,-10.4713,15.4518,-4.3167,19.1673,-6.3627,15.2564,3.3381,3.6010
2800.7812,17.5078,-10.7887,5.0459,1.0885,4.6588,-12.3332,4.0033,-5.2579,18.1181,11.7971,11.2994,-8.7678,15.9446,-2.9227,17.9348,-4.6400,15.5217,3.7451,4.9297
2804.6875,14.5871,-11.4017,6.9227,3.8946,12.2189,-12.7560,6.9425,0.4664,16.7540,8.8393,11.2558,-7.3163,17.6389,1.3482,15.0252,-3.3578,17.0994,5.1119,7.0084
2808.5938,13.1661,-10.1301,9.3675,6.9744,20.9942,-11.3759,10.5785,6.1683,16.2812,5.8448,11.2940,-5.9765,20.1040,6.4872,11.7254,-2.6118,19.5640,6.4926,9.8053
2812.5000,13.5691,-7.0789,12.1165,8.9797,28.2958,-7.5567,14.3619,9.6655,16.6185,3.3878,11.9331,-4.2218,22.2616,10.3776,9.6154,-1.9332,21.8614,6.8652,12.9820
2816.4062,15.1492,-3.0774,14.8205,9.1724,32.1946,-1.5804,17.6971,10.1557,17.0676,1.8225,13.3616,-1.7350,22.8676,11.7213,10.1637,-0.7815,22.7917,5.6346,15.9446
2820.3125,16.6885,0.6644,17.0666,7.5076,32.1899,5.2202,20.0175,8.2141,16.7568,1.1602,15.2247,1.1551,21.1364,10.3314,13.9975,0.9274,21.5725,2.8076,17.9601
2824.2188,17.0635,3.1008,18.4003,4.3494,29.1677,10.9516,20.8061,5.0337,15.1736,1.0077,16.6749,3.5587,17.2052,6.8635,20.2672,2.6633,18.2333,-1.1555,18.3933
2828.1250,15.8056,3.8124,18.4576,0.1767,24.8096,14.0559,19.7301,1.5833,12.4775,0.6896,16.7813,4.5811,12.1782,2.3630,26.6834,3.6109,13.6558,-5.6062,17.0298
2832.0312,13.2366,3.1337,17.1933,-4.4830,20.7974,14.0680,16.9084,-1.7473,9.4013,-0.4370,15.1160,3.9322,7.6715,-2.0694,30.4590,3.2446,9.2176,-9.8927,14.3149
2835.9375,10.1275,1.8824,15.0290,-8.9661,18.1393,11.7355,13.0941,-4.9430,6.7969,-2.6323,12.1248,2.1388,5.0426,-5.4826,29.7289,1.7262,6.1673,-13.4245,11.2812
2839.8438,7.1374,0.8724,12.7296,-12.4889,16.8184,8.4352,9.4955,-7.9770,5.1082,-5.6201,8.9608,0.2176,4.6904,-7.3038,24.5773,-0.1597,5.0086,-15.7138,9.0881
2843.7500,4.4344,0.5210,11.0008,-14.4125,15.8570,5.3132,7.1973,-10.6582,4.1121,-8.7441,6.8152,-0.9278,5.8271,-7.6137,16.9687,-1.4760,5.2177,-16.4823,8.3816
2847.6562,1.7576,0.7792,10.0572,-14.6019,13.8025,2.7624,6.5114,-12.7964,3.1052,-11.3308,6.1737,-0.9441,6.8983,-7.2426,9.5975,-1.6713,5.4958,-15.7884,8.8896
2851.5625,-1.1563,1.3811,9.5030,-13.5459,9.5039,0.5696,6.7577,-14.4075,1.4227,-13.0015,6.5356,-0.0248,6.4607,-7.4029,4.4172,-0.8154,4.4863,-14.0386,9.5884
2855.4688,-4.1432,2.1792,8.6748,-12.0347,2.8726,-1.4658,6.7373,-15.6377,-1.0592,-13.7221,6.8300,1.4447,4.0290,-8.8826,1.8204,0.5905,1.5907,-11.7938,9.4102
2859.3750,-6.5530,3.2858,7.2340,-10.5690,-4.7978,-3.0021,5.6428,-16.4052,-3.7897,-13.5930,6.2492,3.2433,0.3745,-11.2737,0.9331,2.0409,-2.6026,-9.4585,8.0395
2863.2812,-7.6490,4.9098,5.5508,-8.9581,-11.2532,-3.1905,3.7475,-16.1168,-5.8927,-12.5979,4.8744,5.3739,-2.9382,-12.8946,0.6613,3.3521,-6.5885,-7.0797,6.2173
2867.1875,-7.1868,7.0324,4.5255,-6.4893,-14.3587,-1.2815,2.2994,-13.8586,-6.7758,-10.5581,3.6007,7.8167,-4.5251,-11.6916,0.6109,4.6625,-8.8114,-4.4366,5.2662
2871.0938,-5.7237,9.2140,4.9067,-2.6125,-13.2938,2.6653,2.6023,-9.0840,-6.5786,-7.3623,3.3865,10.2476,-4.0686,-6.6800,1.1852,6.1567,-8.6259,-1.3820,6.1129
2875.0000,-4.3876,10.7308,6.5918,2.3695,-9.1274,7.5428,4.9177,-2.3309,-6.1328,-3.2911,4.3919,12.0248,-2.5413,1.0614,2.8791,7.7724,-6.7359,1.8320,8.4951
2878.9062,-4.2289,10.9845,8.4778,7.1947,-4.3206,11.6548,8.0316,4.6686,-6.4298,0.8600,5.6908,12.5064,-1.5962,8.6783,5.4484,9.1373,-4.7901,4.5371,10.9666
2882.8125,-5.5973,9.8916,9.0634,10.3088,-1.3599,13.5757,9.8963,9.7484,-7.9418,4.0250,5.8314,11.4663,-2.4902,13.1129,7.7109,9.7778,-4.3520,6.0153,11.7717
2886.7188,-7.9728,7.9529,7.4387,10.8852,-1.3259,12.8306,8.9663,11.5403,-10.2568,5.3698,3.8709,9.2722,-5.2292,12.9971,8.1928,9.4225,-5.8879,6.0058,10.0152
2890.6250,-10.3519,5.9273,3.9563,9.4439,-3.3074,9.9707,5.2842,10.3419,-12.2887,4.7337,0.1199,6.6713,-8.4954,9.5625,6.1195,8.1596,-8.4391,4.9617,6.2996
2894.5312,-11.8869,4.3408,0.0576,7.5630,-5.0599,6.0821,0.5030,7.9613,-12.9312,2.7114,-3.9851,4.3448,-10.4186,5.8630,1.9587,6.3486,-10.2039,3.8237,2.3443
2898.4375,-12.3151,3.1954,-2.6770,6.8326,-4.4905,2.1491,-3.2191,6.5843,-11.7225,0.3234,-6.8236,2.5702,-9.7040,4.7793,-2.9205,4.3879,-9.6645,3.4365,-0.1742
2902.3438,-11.9050,2.0954,-3.6040,7.7940,-0.9993,-1.2820,-4.6819,7.4256,-9.0824,-1.4958,-7.6790,1.2309,-6.3989,7.1642,-7.2007,2.5417,-6.5284,4.0288,-0.7545
2906.2500,-11.0360,0.6853,-3.4453,9.6454,4.1846,-4.0149,-4.4146,10.0905,-5.9825,-2.2606,-7.1833,0.1200,-1.8261,11.4102,-10.4325,0.9430,-1.8873,5.1470,-0.3699
2910.1562,-9.7966,-0.9583,-3.7418,10.9332,8.8375,-5.9332,-4.2005,13.0526,-3.3023,-1.9599,-6.8001,-0.7608,2.2395,14.7132,-13.0965,-0.2879,2.4775,6.0949,-0.7247
2914.0625,-7.9397,-2.3123,-5.7107,10.7017,11.1263,-6.8912,-5.7105,14.8270,-1.3257,-0.8239,-7.7388,-1.1816,4.5934,15.0813,-15.9096,-0.9803,5.1574,6.5313,-3.0033
2917.9688,-5.2122,-2.8057,-9.3202,9.2184,10.6017,-6.8839,-9.2438,14.9308,0.2869,0.9147,-10.1007,-0.9642,5.1716,12.6283,-18.9778,-1.0167,5.8485,6.7383,-7.0035
2921.8750,-1.7597,-2.3290,-13.2428,7.7146,8.2096,-6.2855,-13.4797,13.9457,2.0730,3.0622,-12.8647,-0.3047,4.8550,9.2589,-21.4953,-0.5319,5.3283,7.3251,-11.2556
2925.7812,1.7594,-1.4432,-15.7113,7.3492,5.4607,-5.8334,-16.3866,12.7432,4.2304,5.3252,-14.6765,0.1765,4.7199,7.0766,-22.2326,-0.0093,4.7769,8.5872,-14.0079
2929.6875,4.4739,-1.0903,-15.6578,8.2168,3.4550,-6.2429,-16.5943,11.6012,6.3772,7.1989,-14.8153,-0.2473,5.2844,6.7824,-20.4237,-0.1193,4.9671,10.0529,-14.3517
2933.5938,5.8062,-1.9887,-13.3319,9.2040,2.4559,-7.7001,-14.2320,10.0007,7.7875,8.0831,-13.6109,-1.9392,6.2565,7.2891,-16.3646,-1.3474,5.8711,10.6419,-12.6978
2937.5000,5.8117,-4.1520,-9.9969,8.8475,2.2002,-9.6504,-10.6773,7.2894,7.9308,7.6223,-12.0388,-4.6374,6.9008,6.7972,-11.2869,-3.6556,6.8879,9.4024,-10.3241
2941.4062,5.1189,-6.8862,-6.9776,6.5577,2.5420,-11.1209,-7.4771,3.6386,6.9306,6.0305,-10.8589,-7.6140,6.7145,4.4377,-6.6379,-6.4404,7.4496,6.3201,-8.3891
2945.3125,4.5441,-9.2667,-4.7772,3.2621,3.8255,-11.3916,-5.2804,0.4178,5.6218,4.1122,-9.9905,-10.1362,5.9166,1.1617,-3.3173,-8.8563,7.5368,2.5715,-7.1572
2949.2188,4.6829,-10.7369,-2.8815,0.9300,6.6684,-10.5228,-3.5454,-0.4621,5.1611,2.8787,-8.6005,-11.8765,5.4145,-0.8386,-1.3787,-10.3027,7.7467,-0.0430,-5.9591
2953.1250,5.7436,-11.3845,-0.3310,1.2726,11.3561,-9.3214,-1.1570,2.1425,6.4332,2.9663,-5.8102,-12.9666,6.2789,0.2513,-0.2876,-10.7404,8.9004,-0.1672,-3.8436
2957.0312,7.6525,-11.7142,3.4148,4.5381,17.3638,-8.7434,2.5799,7.6034,9.5973,4.2393,-1.4578,-13.6848,9.0707,4.4447,0.5903,-10.6144,11.4811,2.2473,-0.3808
2960.9375,10.2290,-12.1278,7.9665,9.2654,23.4081,-9.1766,7.3252,13.6269,13.9990,5.8645,3.6576,-14.0683,13.4376,9.8040,1.6753,-10.4482,15.2711,5.8768,3.9673
2964.8438,13.2180,-12.5431,12.1864,13.1714,28.0113,-10.1515,11.8726,17.4989,18.4428,6.8239,8.2068,-13.7996,18.2057,13.6783,3.1749,-10.4113,19.3900,8.8152,8.1248
2968.7500,16.1617,-12.4565,14.8827,14.5401,30.1885,-10.7070,14.9055,17.6556,21.6486,6.5255,11.0840,-12.4785,21.9003,14.4106,5.2094,-10.1830,22.6801,9.6876,11.0576
2972.6562,18.3132,-11.3891,15.5000,13.1495,29.8228,-10.1298,15.7593,14.5184,22.6846,5.1038,11.9378,-10.0605,23.4043,12.2789,7.7964,-9.2090,24.2101,8.3472,12.3196
2976.5625,18.8129,-9.3423,14.3621,10.1454,27.5602,-8.4997,14.6941,10.0410,21.2487,3.2215,11.1645,-7.0819,22.4249,9.0464,10.6571,-7.1587,23.6496,5.7301,12.1603
2980.4688,17.1342,-6.8853,12.3893,7.0419,24.3896,-6.6248,12.6065,6.3228,17.7517,1.5421,9.4917,-4.4461,19.5634,6.5303,13.0953,-4.2478,21.3701,3.0374,11.2337
2984.3750,13.5275,-4.7959,10.5687,4.6254,21.2089,-5.4275,10.4916,4.2636,13.1969,0.2621,7.5502,-2.8942,15.9857,5.2802,14.2349,-1.1961,18.2569,0.8667,10.2008
2988.2812,9.0946,-3.5363,9.5462,2.5379,18.5712,-5.2588,9.0457,3.1499,8.8621,-0.9671,5.7451,-2.5428,12.8649,4.3032,13.5990,1.1442,15.3206,-1.0978,9.5008
2992.1875,5.3414,-2.9789,9.5196,-0.2352,16.6098,-5.6648,8.5664,1.3680,5.8407,-2.6942,4.4048,-2.8387,10.8628,1.9532,11.6356,2.2285,13.2618,-3.6632,9.3356
