Time,Fp1,F3,C3,P3,O1,F7,T3,T5,Fz,Fp2,F4,C4,P4,O2,F8,T4,T6,Cz,Pz
0.0000,14.1389,-2.6909,-5.4993,-3.3047,-3.7159,0.9816,-10.0090,-1.3298,3.2959,14.8613,4.0765,-4.5461,0.7200,0.5100,4.7106,-2.3873,6.8757,1.4421,-3.4759
3.9062,14.7779,-1.6685,-2.8244,-1.1768,-1.3582,0.7577,-4.5077,1.5762,3.6301,14.9286,4.4889,-4.8062,1.6659,1.9048,4.7784,-1.6892,8.8831,2.0592,-0.7705
7.8125,14.6391,-1.5987,0.1903,1.4084,2.2893,-1.4456,2.5729,4.7250,4.2950,11.8901,4.0815,-5.5410,3.8001,3.0065,1.1514,-1.2170,11.6867,2.1011,2.4024
11.7188,12.8669,-2.2069,3.5115,4.1575,6.5380,-5.3957,9.8213,7.5500,4.3190,5.6772,2.4370,-6.3132,6.4488,3.9782,-3.1529,-1.5450,14.1323,1.5036,6.0920
15.6250,8.9238,-2.8152,6.9830,6.5668,10.4682,-10.1481,15.8379,9.5873,3.0195,-2.3241,-0.2792,-6.3853,8.6566,5.1227,-3.8809,-2.7931,15.2028,0.4471,10.0677
19.5312,3.3973,-2.9834,10.0531,7.9049,13.1743,-14.0626,19.6282,10.4336,0.7025,-9.4652,-3.0909,-5.2080,9.6552,6.3739,1.0857,-4.5425,14.4527,-0.8556,13.5824
23.4375,-1.8072,-2.9207,11.9012,7.4533,14.0372,-15.1795,20.8700,9.7478,-1.3475,-12.8972,-4.5184,-2.8503,9.1977,7.0529,9.5972,-6.0923,12.0794,-2.3552,15.6400
27.3438,-4.3403,-3.2923,11.9998,4.9525,12.9994,-12.0862,20.0549,7.4196,-1.7002,-11.2042,-3.3766,-0.0268,7.6062,6.1981,16.2342,-6.8167,8.7103,-4.1859,15.6807
31.2500,-2.9382,-4.5529,10.6960,0.9578,10.7219,-4.9544,18.4131,3.8271,0.1216,-5.6781,0.3849,2.3236,5.5714,3.3037,16.0294,-6.3694,5.1296,-6.4956,14.1643
35.1562,1.4899,-6.3529,9.2660,-3.2237,8.4446,3.9889,17.5054,-0.0687,3.1256,-0.1807,5.3951,3.6119,3.8543,-1.0924,8.3108,-4.6876,2.0996,-9.2239,12.5031
39.0625,6.1705,-7.5370,9.2402,-6.0963,7.4828,11.1825,18.5268,-3.0037,5.4004,0.7481,9.4425,3.9093,3.0365,-5.4927,-2.2737,-1.9473,0.2620,-12.0061,12.2564
42.9688,8.1457,-6.8044,11.3926,-6.7509,8.5433,13.5378,21.6384,-4.0132,5.4259,-5.3568,10.6833,3.7848,3.3799,-8.2419,-8.5679,1.3988,0.0159,-14.2792,14.1042
46.8750,6.2021,-3.5818,15.1345,-5.3552,11.2636,10.3228,25.7778,-3.0079,3.2083,-17.0138,8.7746,3.8340,4.7861,-8.5250,-5.7446,4.5735,1.3472,-15.5253,17.3628
50.7812,1.6261,1.5123,18.8243,-3.0085,14.3324,3.8115,29.1905,-0.9027,0.3571,-29.2453,5.1984,4.2916,6.8337,-6.8476,5.2484,6.6457,3.7262,-15.4977,20.4479
54.6875,-2.8151,6.9408,20.8366,-1.0303,16.2060,-1.9317,30.4528,0.8766,-1.0427,-36.3418,2.4908,5.0182,8.8916,-4.6325,18.1541,7.0160,6.2301,-14.3101,21.9766
58.5938,-4.9194,11.0621,20.6301,-0.1515,16.0053,-3.4743,29.3563,1.2572,0.0004,-35.2791,2.7635,5.8143,10.3039,-3.2195,25.5130,5.9637,7.9107,-12.3680,21.6919
62.5000,-4.5669,12.9434,19.0250,-0.1463,13.9993,-0.0418,27.0472,0.2049,2.5185,-27.5255,6.3720,6.7269,10.6027,-3.0038,23.5129,4.7541,8.2184,-10.2090,20.5111
66.4062,-3.5618,12.6944,17.4895,-0.1365,11.3280,6.2625,25.2897,-1.2473,4.1137,-17.9696,11.5518,8.0287,9.6572,-3.3354,14.1981,4.9871,7.2009,-8.3346,19.6837
70.3125,-3.9890,11.2243,17.0024,0.6747,9.1488,12.1682,25.3379,-1.6951,2.5777,-11.6831,15.3084,9.8651,7.6786,-3.2157,3.6451,7.4446,5.3343,-7.0801,19.7452
74.2188,-6.4631,9.6888,17.3835,2.3677,7.8173,15.5728,27.1717,-0.3574,-2.5101,-10.7557,15.1158,11.8948,5.0775,-2.2153,-2.3478,11.2432,3.1093,-6.5320,20.1152
78.1250,-9.7126,8.9984,17.6019,4.2038,6.6985,16.7431,29.5831,2.2821,-9.3421,-13.3611,10.4691,13.3120,2.2626,-0.8791,-1.8391,14.0820,0.6869,-6.5065,19.6625
82.0312,-11.8195,9.5807,16.7798,5.1022,4.7383,17.5401,30.9875,4.6352,-14.9389,-15.5669,3.3595,13.3409,-0.4968,-0.2999,2.8287,13.6756,-2.1229,-6.6118,17.7710
85.9375,-12.0369,11.3558,15.0497,4.3503,1.3618,19.4166,30.3560,4.9205,-16.9994,-14.4155,-2.6953,11.8776,-3.0782,-1.2000,7.6436,9.5126,-5.5589,-6.4031,15.0207
89.8438,-11.6015,13.8019,13.5493,2.0860,-2.9766,21.9179,27.6728,2.2898,-15.2947,-9.9675,-4.6072,9.7637,-5.4140,-3.2427,10.2256,3.6402,-9.5394,-5.5802,12.9018
93.7500,-12.7838,16.0802,13.5522,-0.7224,-6.9890,22.9823,23.7534,-2.5140,-11.6952,-4.9168,-1.5729,8.4002,-7.3990,-5.1170,11.2060,-0.2962,-13.5251,-4.1237,12.7582
97.6562,-16.8972,17.2831,15.4399,-2.7378,-9.3333,20.8160,19.7252,-7.3856,-8.8744,-2.2882,4.2960,8.8965,-8.8734,-5.3497,12.8673,0.6875,-16.7230,-2.2846,14.7818
101.5625,-22.9127,16.8241,18.3533,-2.8670,-9.3958,15.7521,16.5988,-9.8753,-8.6156,-3.1279,9.0595,11.3224,-9.6879,-3.2635,16.5086,6.8355,-18.4813,-0.4280,17.8420
105.4688,-27.8934,14.8069,20.7946,-0.7223,-7.5483,10.4455,15.0969,-8.4480,-10.8472,-5.9402,9.2299,14.5961,-9.7895,0.5847,20.9168,15.2598,-18.6037,1.1587,20.2684
109.3750,-29.0176,12.0972,21.6775,3.2303,-4.7809,8.0916,15.5771,-3.2995,-13.9519,-8.1291,3.9303,17.1066,-9.2681,4.7486,23.2195,21.6319,-17.4070,2.3622,20.9553
113.2812,-25.6627,9.9363,20.9696,7.8443,-2.0734,10.0051,17.8315,3.7087,-15.9977,-8.1194,-4.4361,17.6589,-8.3452,7.7355,21.2908,22.8813,-15.5440,3.1964,19.9347
117.1875,-19.9387,9.2522,19.4401,11.7127,0.0216,14.4967,20.8238,9.9646,-15.9669,-6.4106,-11.5381,16.1217,-7.3230,8.7723,15.5825,19.0685,-13.7404,3.6942,18.0320
121.0938,-15.2519,10.0956,17.7907,13.7163,1.3801,18.0034,22.7275,13.3906,-14.1849,-4.8231,-13.7588,13.3929,-6.5104,8.0700,8.8056,13.1603,-12.5694,3.8732,15.9842
125.0000,-13.9955,11.6015,15.9677,13.5262,2.0732,17.6381,21.5742,13.4301,-11.7986,-4.7238,-10.4879,10.7768,-6.1249,6.5534,3.7702,8.9192,-12.2853,3.8289,13.8133
128.9062,-16.0939,12.5341,13.2789,11.8261,2.2254,13.1929,16.3571,11.2265,-9.8297,-5.7983,-4.5412,9.2391,-6.1741,5.3425,1.2567,8.4356,-12.7028,3.8553,10.9862
132.8125,-19.3954,12.0537,9.2224,10.0605,2.0912,7.0775,7.9161,8.9145,-8.5384,-6.3874,-0.3413,9.0051,-6.3787,5.3021,-0.2805,11.0104,-13.1753,4.4209,7.1814
136.7188,-21.4612,10.1850,4.2856,9.7262,2.1675,2.3472,-1.1345,8.4198,-7.4958,-5.0398,-0.9876,9.6628,-6.2292,6.7898,-2.9951,14.0340,-12.7947,5.9172,2.9396
140.6250,-21.2915,7.7004,-0.0457,11.5341,3.0550,0.4820,-7.6127,10.4327,-6.1844,-1.9283,-6.1657,10.5739,-5.2293,9.5664,-7.4855,15.0403,-10.8577,8.3161,-0.4382
144.5312,-19.7282,5.5679,-2.1840,14.9430,5.0287,0.6873,-9.4588,14.1207,-4.5772,1.0764,-12.3541,11.2531,-3.2387,12.8248,-12.1211,13.3508,-7.4104,11.0133,-1.7405
148.4375,-18.4219,4.4088,-1.5840,18.4232,7.6346,1.1323,-6.8191,17.7154,-3.2260,1.7540,-15.2590,11.5060,-0.6944,15.3895,-14.4618,10.1961,-3.4916,13.0592,-0.7816
152.3438,-18.3572,4.3269,0.7790,20.3528,9.7461,0.8835,-1.7924,19.5897,-2.8200,-0.7548,-12.8507,11.3460,1.4984,16.1484,-13.5117,7.4496,-0.7649,13.6962,1.3464
156.2500,-19.1286,5.1137,3.0104,19.9891,10.2065,0.7539,2.9565,19.1516,-3.5951,-5.1843,-6.9039,10.8496,2.4243,14.6104,-10.7667,6.1337,-0.6178,12.8392,2.9472
160.1562,-19.4002,6.5199,3.5448,17.8522,8.6708,2.3042,5.7093,17.0166,-5.0742,-8.8588,-1.9291,10.0709,1.7108,11.2682,-9.0425,5.8709,-3.2546,11.1206,2.8187
164.0625,-17.9899,8.2935,2.1042,15.2432,5.9914,5.9343,6.2955,14.4122,-6.3506,-9.3212,-2.1758,9.0183,-0.2049,7.4388,-10.0263,5.5492,-7.4418,9.4158,0.9498
167.9688,-14.6435,9.9881,-0.3178,13.2540,3.7567,9.8822,5.5190,12.2888,-6.7049,-5.7388,-8.7293,7.6441,-2.3264,4.5528,-12.6961,4.4489,-11.1903,8.1847,-1.6707
171.8750,-10.0084,10.8466,-2.3402,12.0257,3.2373,11.2206,4.0917,10.7910,-6.0945,0.7318,-18.6676,5.8398,-3.7307,3.2993,-14.1031,2.7893,-12.9833,7.1558,-3.8960
175.7812,-5.0836,10.0562,-3.1713,10.8384,4.5084,8.1871,2.0891,9.4509,-5.1407,7.6409,-26.8205,3.4976,-4.1425,3.2344,-11.9976,1.2760,-12.6971,5.6566,-5.1855
179.6875,-0.7659,7.3280,-2.9021,8.9596,6.4446,1.9064,-0.6157,7.8913,-4.6051,12.4106,-28.9099,0.6650,-4.0144,3.1941,-7.0935,0.1712,-11.5215,3.3767,-5.6979
183.5938,2.1976,3.3677,-1.9930,6.5405,7.6263,-4.0823,-3.4475,6.4141,-4.7202,13.3362,-23.9797,-2.2983,-4.0385,2.2587,-2.9002,-1.1648,-10.9076,0.9488,-5.7499
187.5000,3.1141,-0.2434,-0.5465,4.7617,7.4606,-6.3276,-4.7822,5.9245,-4.8673,10.1311,-14.6243,-4.7379,-4.4645,0.5481,-3.0015,-3.7583,-11.3370,-0.2100,-5.2380
191.4062,1.5524,-1.8522,1.8746,5.0033,6.6179,-4.0988,-2.7686,7.1779,-3.8819,4.0106,-5.0917,-5.9907,-4.7858,-0.8030,-7.8598,-7.9465,-11.8895,1.1856,-3.6294
195.3125,-2.1183,-0.7577,5.6620,7.6354,6.4133,-0.0231,3.1338,9.9304,-0.8402,-2.6731,1.2804,-5.8079,-4.0910,-0.5297,-13.8269,-12.7163,-10.9967,5.2301,-0.5775
199.2188,-6.4043,2.2712,10.3540,11.4217,7.6236,1.8758,11.1523,12.7393,4.1703,-7.2881,3.5984,-4.5999,-1.8469,1.6810,-15.4342,-16.1399,-7.8250,10.4541,3.4083
203.1250,-9.1934,5.4203,14.4457,14.1351,9.7237,-0.7386,17.7815,13.7209,9.8428,-8.1392,3.1609,-3.2483,1.5054,4.7852,-9.4275,-16.6684,-3.1818,14.5440,6.9355
207.0312,-9.0479,6.9709,16.1950,14.0534,11.2094,-6.7106,19.8375,11.8209,14.2263,-5.5003,1.9911,-2.5380,4.6668,7.0338,2.4998,-14.2837,0.8455,15.7577,8.5310
210.9375,-6.3833,6.3827,14.9227,11.2451,10.7908,-12.2752,16.6428,7.6707,15.8036,-1.6923,1.4275,-2.6020,6.2950,7.2217,14.4771,-10.5593,2.3213,14.0618,7.7237
214.8438,-3.4316,4.5573,11.7647,7.6125,8.4923,-13.9046,10.7043,3.3074,14.4193,0.1746,1.7081,-2.8306,5.9372,5.5529,20.3089,-7.5381,0.8880,11.1355,5.5265
218.7500,-2.7010,3.0996,9.1437,5.5479,5.7250,-10.8658,6.2238,0.8404,11.4368,-1.7621,2.5242,-2.3823,4.3583,3.4031,17.6320,-6.2900,-1.9509,9.1653,3.8373
222.6562,-4.9361,3.1221,9.1892,6.1313,4.2150,-5.5290,6.3560,0.9657,8.9543,-6.6512,3.7625,-0.9443,2.9774,2.1343,9.3523,-6.2846,-3.9687,9.2533,4.1154
226.5625,-8.2324,4.4602,12.2136,8.2265,4.6234,-1.3234,11.1103,2.4263,8.5205,-11.2670,5.6904,0.8648,2.8123,1.9086,1.3943,-6.0639,-3.9255,10.5913,6.3067
230.4688,-9.2623,5.8538,16.4074,9.2224,5.9945,-0.1041,17.4026,2.8870,10.1649,-12.1978,8.4964,1.8383,3.7393,1.5047,-1.4483,-4.6474,-2.5110,11.0333,8.8573
234.3750,-5.9215,5.9363,19.0600,6.9509,6.5344,-1.0577,21.2432,0.6538,12.4042,-8.4666,11.7553,1.0884,4.6504,-0.6416,1.5347,-2.5079,-1.7468,8.6931,9.8516
238.2812,0.6115,4.2979,18.4733,1.3931,5.1434,-1.8773,20.5192,-3.9966,13.2741,-2.6111,14.4464,-1.1539,4.3966,-4.9663,7.2281,-1.2942,-3.2823,3.4243,8.4530
242.1875,6.2077,1.8614,15.1976,-5.1110,2.4674,-1.0121,16.4241,-8.8809,11.7328,0.7957,15.6102,-3.5018,2.7827,-10.0906,11.6250,-2.4801,-6.9199,-2.9003,5.5823
246.0938,6.5827,0.3265,11.6997,-9.3530,0.5672,1.0396,12.5880,-11.3733,8.4898,-1.6909,15.0971,-4.2496,0.8203,-13.5788,12.9383,-5.9887,-10.5656,-7.5358,3.3350
250.0000,0.6250,1.0863,10.7185,-9.3976,1.3859,2.4925,12.6091,-10.2334,5.6521,-9.7974,13.7298,-2.5183,0.0197,-13.6649,12.4957,-9.8869,-11.7020,-8.6422,3.5718
253.9062,-8.3084,4.3507,13.4911,-5.8388,5.1699,2.3205,17.7557,-6.4709,5.3672,-19.4962,12.6834,1.1301,1.2535,-10.6508,12.9870,-11.4504,-9.2825,-6.4481,6.7041
257.8125,-14.3382,9.0121,19.0629,-1.2918,10.0872,1.6514,26.3553,-2.6115,8.3418,-25.6573,12.5680,5.0734,4.0630,-6.8517,15.7797,-8.8827,-4.5907,-3.0208,11.4940
261.7188,-13.0356,13.2708,25.0438,1.4568,13.3806,3.1182,35.0856,-0.9095,13.2356,-25.4776,12.9739,7.7253,6.9338,-5.0452,19.6333,-2.5097,-0.3971,-0.8642,15.9136
265.6250,-4.5800,15.5787,29.1327,1.2590,13.2149,8.5769,41.0554,-1.8289,17.3596,-20.1586,12.8629,8.5233,8.3094,-6.5401,21.8135,5.3315,0.9411,-1.3747,18.3570
269.5312,6.2537,15.3477,30.2861,-0.9102,9.8444,17.1125,43.1788,-3.9004,18.2326,-13.6335,11.4832,8.0878,7.5597,-10.3041,20.5443,11.5731,-1.0093,-4.2012,18.3542
273.4375,13.3226,13.1015,28.8406,-3.0284,5.2645,25.1527,42.0899,-5.0122,14.9801,-9.4186,9.0459,7.4964,5.1916,-13.8035,16.6446,13.9973,-4.7481,-7.8296,16.4327
277.3438,13.2163,10.1057,25.7779,-3.7148,1.6811,28.8251,39.0348,-4.1032,8.6927,-8.0901,6.6050,7.3152,2.2274,-14.9057,12.9477,12.1847,-8.2433,-10.8063,13.4547
281.2500,7.2579,7.7433,21.9205,-3.1881,0.0109,26.8046,34.8615,-1.9389,1.5944,-7.3264,5.2529,7.2000,-0.6621,-13.3872,11.9911,7.4381,-10.5574,-12.6287,10.0775
285.1562,0.0468,6.9394,17.7156,-2.7985,-0.4716,21.3928,29.9264,-0.3779,-4.3288,-4.3721,5.3074,6.3806,-3.5288,-10.9186,13.9005,1.9634,-12.3832,-13.7055,6.7187
289.0625,-4.2028,7.8385,13.6089,-3.6103,-1.1839,16.8996,24.7959,-0.7257,-8.2934,1.1631,6.1588,4.5866,-6.7523,-9.5905,16.2218,-2.0984,-15.1083,-14.5820,3.8669
292.9688,-4.6861,9.8176,10.4360,-5.2571,-2.8553,16.5186,20.8612,-2.4974,-10.7190,6.4973,6.8742,2.5832,-10.2909,-10.1790,15.8502,-3.3409,-19.2475,-15.1939,2.2529
296.8750,-4.1768,11.8163,9.2689,-6.0450,-4.8747,20.0823,20.0481,-3.6078,-12.4543,7.5597,7.0153,1.7935,-13.3116,-11.5221,11.5276,-1.3746,-23.6096,-14.8201,2.5684
300.7812,-6.4038,12.8659,10.7142,-4.2575,-5.8650,24.3905,23.6036,-1.9051,-13.9456,2.1037,6.9588,3.2424,-14.6119,-11.4855,4.9530,3.1566,-25.9651,-12.7670,4.9054
304.6875,-12.8271,12.5878,14.2440,0.3647,-4.9520,25.7929,30.8240,3.0982,-14.9995,-8.3684,7.4427,6.6508,-13.5556,-8.7334,-0.3261,8.7501,-24.7527,-9.1775,8.4287
308.5938,-21.3428,11.3956,18.2142,6.1590,-2.6451,22.9791,38.8056,9.6281,-15.2296,-19.3244,8.7342,10.4348,-10.7619,-3.8992,-1.3627,13.4611,-20.4841,-5.2369,11.6677
312.5000,-27.8199,10.2417,20.7043,10.5041,-0.5903,17.8494,43.6498,14.6933,-14.6973,-25.9697,10.1493,12.6769,-7.9257,0.7622,2.2214,15.5888,-15.6953,-2.5349,13.3120
316.4062,-29.1445,10.0087,20.6278,11.5296,-0.3976,13.9045,42.5140,16.0440,-14.1299,-25.9912,10.3775,12.3693,-6.8105,2.9661,8.0936,14.4286,-13.3859,-2.0308,12.9524
320.3125,-25.3757,10.9004,18.3049,9.3270,-2.4771,13.5226,35.2383,13.6370,-14.4882,-20.4228,8.4022,10.0112,-8.1163,2.0091,12.8198,10.6799,-15.0475,-3.4053,11.2169
324.2188,-19.4606,12.2420,15.0810,5.7998,-5.7821,16.2546,24.4893,9.5581,-16.2324,-12.3613,4.3069,7.1433,-11.0425,-0.8044,13.9529,6.1648,-19.6914,-5.2952,9.2123
328.1250,-14.9350,12.8625,12.3082,3.3128,-8.6039,19.3471,14.3037,6.4994,-18.9039,-4.8469,-0.6743,5.2178,-13.8557,-3.1797,11.2018,2.9048,-24.5426,-6.2364,7.7198
332.0312,-13.5190,11.8360,10.4740,3.1605,-9.7455,19.9198,7.9299,5.9297,-21.3856,0.4547,-4.9246,4.6882,-15.0310,-3.4557,6.1529,2.0596,-26.8578,-5.6132,6.7588
335.9375,-14.4005,9.0962,9.0988,4.9318,-9.1721,17.0262,6.2654,7.2781,-22.6519,3.1530,-7.4707,4.9711,-14.1459,-1.6038,1.0726,3.3823,-25.5686,-3.9373,5.7965
339.8438,-15.4957,5.5022,7.3742,7.1167,-7.7387,12.0879,7.7523,8.6440,-22.4215,3.3179,-8.5210,5.2014,-11.9490,1.0593,-2.2517,5.5333,-21.6832,-2.3096,4.3378
343.7500,-15.4100,2.3188,4.9376,8.3653,-6.3612,7.5853,9.6421,8.4015,-21.2179,1.0852,-9.1518,5.0703,-9.6748,3.0731,-3.0305,7.0179,-17.3444,-1.5340,2.3461
347.6562,-14.4360,0.4849,2.1328,8.3963,-5.3825,5.2062,9.7336,6.4415,-19.8313,-2.9239,-10.4150,5.0198,-8.2090,3.9145,-1.4128,7.0964,-14.3769,-1.5716,0.1502
351.5625,-13.9200,0.1794,-0.3954,7.9331,-4.6102,4.8962,7.5018,4.1457,-18.6578,-7.0565,-12.5414,5.6561,-7.7168,4.1340,1.7515,6.0679,-13.3706,-1.7075,-2.0137
355.4688,-14.7633,0.9474,-2.3365,7.8567,-3.8538,5.3539,4.0370,3.1960,-17.4706,-8.9532,-14.8026,6.9371,-7.8941,4.5608,5.0895,4.8114,-13.7912,-1.2295,-4.3322
359.3750,-16.4716,2.2143,-3.9778,8.3539,-3.3596,5.3225,1.0059,4.2074,-15.7928,-6.9357,-16.0921,7.9017,-8.4804,5.3567,6.9369,4.0065,-14.7841,-0.0437,-7.2521
363.2812,-17.5618,3.7323,-5.8621,8.7652,-3.6879,4.5321,-0.5838,6.2558,-13.5266,-1.4651,-15.7798,7.2550,-9.5272,5.7626,5.8271,3.6472,-15.9066,1.2482,-10.9318
367.1875,-16.8809,5.5941,-8.1804,8.2078,-5.1327,3.6289,-1.0062,7.6360,-11.2656,4.6949,-14.2369,4.3965,-11.2042,4.7510,1.1676,3.1870,-17.2452,1.8296,-14.8181
371.0938,-14.6156,7.8346,-10.4805,6.4130,-7.2346,3.3626,-1.4873,7.2260,-9.9779,8.0734,-12.6863,0.0643,-13.3753,2.0132,-6.2954,2.1346,-18.9712,1.2967,-17.8017
375.0000,-12.1022,10.0050,-11.9835,4.0736,-8.8786,3.8510,-3.2089,5.3867,-10.2639,6.8206,-12.4859,-3.9651,-15.3791,-1.5610,-14.6168,0.5789,-20.8372,-0.0479,-18.9169
378.9062,-10.6419,11.1538,-12.2260,2.4267,-8.9546,4.5184,-6.3279,3.7238,-11.7600,1.9841,-14.2882,-5.9585,-16.2545,-4.3282,-21.4010,-0.8014,-22.0856,-1.4166,-18.0431
382.8125,-10.4015,10.3277,-11.4297,2.4222,-7.0619,4.6239,-9.6466,3.9175,-13.1718,-3.3280,-17.5625,-5.3109,-15.2623,-4.9246,-24.7287,-1.2658,-21.8384,-2.0463,-15.9980
386.7188,-10.3709,7.2735,-10.2322,4.1311,-3.7001,3.8145,-11.1566,6.5154,-12.9636,-6.2776,-20.7437,-2.8569,-12.3109,-3.1001,-23.7557,-0.6667,-19.6394,-1.5949,-13.8903
390.6250,-9.3913,2.8083,-9.0112,6.8070,0.1671,2.2372,-9.1592,10.5594,-10.2554,-6.2583,-21.9414,-0.2208,-7.9976,0.2356,-18.8135,0.2910,-15.7482,-0.1856,-12.2344
394.5312,-7.3166,-1.4777,-7.4571,9.4720,3.7546,0.2395,-3.3387,14.2484,-5.3497,-4.9274,-19.8811,1.2610,-3.2970,3.7035,-11.2301,0.4207,-11.0283,1.8169,-10.5848
398.4375,-5.2536,-4.0649,-4.8822,11.5069,6.7487,-1.9500,4.8104,16.0788,0.4115,-4.3689,-14.6314,1.2414,0.8290,6.2891,-3.1327,-1.1768,-6.5730,4.0276,-8.0552
402.3438,-4.6400,-4.3677,-1.0919,12.7955,9.0630,-4.2550,12.4648,15.6217,5.3138,-5.0437,-7.7442,0.2438,3.6601,7.7103,2.8295,-4.4772,-3.3211,6.0742,-4.3387
406.2500,-5.9425,-3.0529,2.9478,13.4138,10.4050,-6.5710,16.6617,13.4730,8.0341,-5.3548,-1.6697,-1.0451,4.7773,8.1792,4.1824,-8.4852,-1.8065,7.5146,-0.3555
410.1562,-8.1081,-1.5908,5.3824,13.2622,10.1990,-8.6873,15.6492,10.5869,8.1224,-3.2437,1.3583,-2.4022,4.1119,7.9351,-0.1401,-11.8273,-2.0347,7.8694,2.1298
414.0625,-9.2845,-1.3194,4.6961,12.0633,8.0721,-10.4688,9.7584,7.6264,6.0750,1.5788,0.4672,-4.0870,2.0799,7.0459,-8.5799,-13.5877,-3.4524,6.8953,1.7732
417.9688,-8.2664,-2.6155,1.0555,9.7747,4.5229,-12.0910,1.3742,4.8318,3.0958,6.7900,-3.2769,-6.2908,-0.3309,5.6350,-16.8281,-13.8147,-5.0593,4.9468,-1.1194
421.8750,-5.5198,-4.6906,-3.3410,7.0290,1.1056,-13.9717,-6.0198,2.3749,0.6905,8.8807,-7.2435,-8.5641,-1.7662,4.2227,-19.5331,-13.3372,-5.7399,3.0762,-4.4134
425.7812,-2.9712,-6.1295,-5.3863,5.1049,-0.2319,-16.3226,-9.3215,0.7253,0.1730,5.7685,-8.4757,-9.7960,-1.0841,3.7177,-13.3653,-13.0139,-4.7662,2.6299,-5.3122
429.6875,-2.7266,-5.8200,-3.0367,5.2750,1.6778,-18.7048,-7.1576,0.5635,2.1439,-1.5676,-5.2190,-8.8571,1.9651,4.9008,0.3460,-12.9575,-2.2133,4.4631,-2.1487
433.5938,-5.6856,-3.6880,3.2324,7.9025,6.3691,-20.1148,-0.4722,2.2237,6.1077,-9.8365,2.0537,-5.4479,6.4438,7.7398,15.4420,-12.3378,1.0312,8.2499,4.4482
437.5000,-11.0176,-0.7802,10.5842,11.9463,11.8948,-19.7120,7.9364,5.1242,10.4926,-15.9614,10.6986,-0.4957,10.6321,11.1127,23.9513,-9.9962,3.7566,12.4036,11.8692
441.4062,-16.7329,1.3558,15.5690,15.3163,15.9447,-17.6465,14.7277,7.7441,13.2477,-19.2398,17.0727,4.2376,12.9583,13.2703,20.8315,-5.5151,5.1360,14.7680,17.1271
445.3125,-20.7757,1.6134,16.2754,15.9478,17.1648,-15.1829,17.5432,8.3101,12.8624,-21.2879,18.2699,7.0910,12.8579,12.8094,7.4774,0.0216,5.1501,13.7314,18.6339
449.2188,-21.8352,0.0133,13.3887,12.9470,15.7638,-13.8093,15.9915,5.8014,9.2820,-23.8472,13.5734,7.3570,10.9677,9.5159,-8.5193,4.2490,4.4092,9.1056,16.9446
453.1250,-19.5164,-2.2955,9.4640,7.0896,13.0586,-13.9361,11.6228,0.5905,4.1060,-26.4683,4.9059,5.5173,8.5464,4.5025,-17.5583,4.7848,3.5282,2.2445,14.0531
457.0312,-14.1432,-3.7303,7.0347,0.3838,10.4222,-14.3233,6.9770,-5.7254,-0.1832,-26.3184,-3.9564,2.8017,6.5953,-0.4354,-13.7054,0.8435,2.6061,-4.6511,11.8914
460.9375,-6.6690,-3.2451,6.9980,-4.9893,8.4995,-12.9366,4.2911,-11.1854,-1.5887,-20.5908,-9.0638,0.4647,5.3646,-3.7828,1.7346,-5.8705,1.2948,-9.5979,11.1989
464.8438,1.1945,-0.9678,8.4252,-7.6843,7.2383,-8.7502,4.5942,-14.4314,0.2648,-9.6568,-8.1040,-0.7185,4.5804,-4.9567,21.0378,-11.7375,-0.5666,-11.6468,11.5246
468.7500,7.0354,1.9064,9.7817,-7.5948,6.5280,-3.0486,7.6030,-15.1795,3.9675,1.8177,-1.4979,-0.5109,4.0966,-4.3151,34.7004,-13.1009,-2.3323,-11.0606,12.1623
472.6562,8.4589,3.9138,10.4405,-5.5619,6.7156,1.0576,12.2766,-14.0058,7.2563,7.1627,7.7711,1.0145,4.3025,-2.6836,36.8746,-8.3800,-2.6227,-8.8957,13.0753
476.5625,4.3894,4.3012,11.2002,-2.7355,8.4187,0.8458,17.4960,-11.7579,8.4230,2.0791,15.5772,3.6609,5.8367,-0.8478,28.2193,0.9215,-0.2466,-6.3611,14.9509
480.4688,-3.8518,3.5367,13.3962,-0.0551,11.7464,-3.6350,22.3722,-9.0975,7.2619,-12.0582,18.6757,7.0785,8.7998,0.6500,14.6787,11.0166,4.6315,-4.3462,18.3294
484.3750,-12.6897,2.9905,17.3996,1.9112,15.6611,-8.9847,26.1164,-6.4506,4.9563,-28.5535,16.3119,10.6391,12.1806,1.4277,3.4168,17.9950,10.0439,-3.2793,22.6146
488.2812,-17.9854,3.9778,21.8436,2.8694,18.1970,-10.4487,27.8489,-4.2254,3.0597,-39.3635,10.5230,13.4809,14.1282,1.1724,-1.2315,19.9763,13.0545,-3.2135,25.9476
492.1875,-17.4593,6.8000,24.3474,2.7095,17.5750,-5.2837,26.7906,-2.9220,2.3438,-39.9893,4.9069,14.8455,13.0444,-0.2340,0.6273,17.8933,11.4920,-3.9437,26.2532
496.0938,-12.2987,10.4433,23.2716,1.5719,13.4607,4.9465,22.8848,-2.9006,2.3273,-31.9310,2.5200,14.5335,8.7493,-2.4468,5.7287,14.4731,5.4354,-5.0561,22.7754
500.0000,-6.7419,13.1634,19.1310,-0.0246,7.3866,14.9878,17.3624,-3.9579,1.7526,-21.1768,4.1457,13.1201,2.8067,-4.5530,10.3645,12.2165,-2.6455,-5.9711,16.9114
503.9062,-5.7036,13.5730,14.4747,-1.2224,1.9238,19.1853,12.5951,-5.1325,-0.4172,-14.0643,8.0101,11.6982,-2.3341,-5.3754,12.4840,11.8261,-9.2989,-6.0872,11.5842
507.8125,-11.8489,11.5019,12.1944,-1.1583,-0.8748,15.1920,11.0039,-5.0613,-4.2448,-13.5502,11.1214,11.2534,-4.8352,-4.1032,12.0687,12.1343,-12.1441,-5.0395,9.4653
511.7188,-23.9546,8.0509,13.4627,0.5427,-0.6764,5.4593,13.5633,-2.7877,-8.8190,-18.2816,11.3236,12.0755,-4.5556,-0.8523,10.1422,11.4419,-11.1919,-2.9386,11.2529
515.6250,-37.5781,4.8278,16.8431,3.4350,1.1093,-4.5223,18.9383,1.4860,-12.9228,-24.5613,8.6494,13.6073,-2.9680,3.2631,7.6220,9.1397,-8.5741,-0.4085,15.2259
519.5312,-47.5590,2.9207,19.2725,6.3515,2.4308,-9.8903,24.0267,6.2707,-15.8142,-29.2447,5.0388,14.8357,-2.0215,6.6536,4.9400,6.3312,-6.9650,1.6476,18.4022
523.4375,-50.7468,2.3274,18.2211,7.9375,1.9565,-9.3088,25.7507,9.4804,-17.5513,-31.3278,2.6808,14.9467,-2.8321,8.0626,2.4201,4.9932,-7.8701,2.4486,18.4810
527.3438,-47.3361,2.2061,13.4634,7.3382,-0.2730,-5.1302,22.9845,9.5829,-18.7090,-31.4634,2.2660,13.7994,-5.1461,7.1595,0.7060,6.3645,-10.9482,1.6858,15.2145
531.2500,-40.2220,1.7056,7.1964,4.6502,-3.2420,-1.0036,17.2875,6.5181,-19.7986,-30.4461,2.5146,11.9265,-7.8615,4.5816,0.6146,9.8518,-14.6733,-0.3554,10.3150
535.1562,-33.0695,0.7242,2.4779,0.8963,-5.9159,1.0012,11.8738,1.8108,-20.8750,-28.3266,1.3582,10.1190,-10.0501,1.4772,2.4570,13.3312,-17.6405,-2.9333,6.0857
539.0625,-28.4422,0.0237,1.1784,-2.4446,-7.9138,1.5139,9.4819,-2.1990,-21.5902,-24.8802,-2.1709,8.9256,-11.5955,-1.0980,5.4516,14.6355,-19.4395,-5.1444,3.8528
542.9688,-27.0187,0.6274,2.9156,-4.0882,-9.4191,2.5682,10.6101,-3.5578,-21.5707,-20.6851,-6.8971,8.4083,-12.9743,-2.5625,7.8399,13.1032,-20.5197,-6.2304,3.3147
546.8750,-28.0201,2.9640,5.6287,-3.4665,-10.5735,5.2271,13.3280,-1.6516,-20.7651,-17.4461,-10.2387,8.2647,-14.4889,-2.8359,7.7599,10.0228,-21.3620,-5.8068,3.1442
550.7812,-30.1977,6.4034,7.2025,-0.9121,-11.0423,8.2580,14.7383,2.5810,-19.4917,-16.9665,-10.2309,8.1544,-15.7278,-2.1487,4.3290,7.6522,-21.8168,-3.9805,2.2177
554.6875,-32.5907,9.5334,6.8495,2.5275,-10.2269,8.9980,12.9936,7.2266,-18.1962,-19.5627,-7.2500,7.9549,-15.7997,-0.8538,-1.7765,7.5657,-21.2241,-1.3365,0.4463
558.5938,-34.6896,10.9941,5.2829,5.5466,-7.9569,5.6641,8.4404,10.3975,-17.1500,-23.3981,-3.9954,7.7759,-14.1685,0.6534,-8.6085,9.5618,-19.1735,1.2392,-1.3907
562.5000,-36.1871,10.3003,3.7419,7.1273,-4.9926,-0.8437,3.1860,11.1224,-16.3251,-25.5289,-3.6190,7.7746,-11.3450,1.9646,-13.9079,11.9057,-16.1565,2.8984,-2.5500
566.4062,-36.7257,8.1117,2.8010,6.9684,-2.7790,-7.1809,-0.4443,9.7125,-15.4993,-23.9641,-7.3883,7.9549,-8.7660,2.7467,-16.1896,12.6706,-13.4448,3.2254,-3.1240
570.3125,-35.8874,5.8009,1.9524,5.6078,-2.5248,-9.7106,-1.3688,7.4774,-14.4716,-19.0986,-13.7083,8.1147,-7.8650,2.8892,-15.4082,11.1527,-12.2165,2.4747,-4.0352
574.2188,-33.3720,4.6266,0.2105,4.1456,-4.2966,-6.9370,-0.1761,5.9731,-13.2256,-13.3281,-19.3159,7.9653,-9.0387,2.5930,-12.9259,8.3338,-12.6371,1.4566,-6.2342
578.1250,-29.1704,5.0353,-2.8790,3.6598,-6.8756,-0.4186,1.5453,6.1651,-11.9688,-9.1660,-21.7481,7.3185,-11.3403,2.2747,-10.8238,6.1166,-13.6898,1.0638,-9.7904
582.0312,-23.6321,6.4807,-6.7282,4.6007,-8.5464,6.4006,2.2602,7.9291,-11.0704,-7.4408,-21.1476,6.2064,-13.1634,2.3088,-10.8519,5.9407,-13.9420,1.6926,-13.6521
585.9375,-17.4681,7.8032,-10.1060,6.5237,-8.2442,10.4300,1.1492,10.1569,-10.9331,-7.0574,-19.9623,4.8689,-13.3835,2.7884,-13.4830,7.7806,-12.6477,2.9525,-16.3021
589.8438,-11.7400,7.8974,-12.0560,8.3662,-6.1930,10.5706,-1.8278,11.4399,-11.8004,-6.4326,-20.7669,3.6415,-12.0591,3.4988,-17.5637,10.1787,-10.2867,3.9097,-16.8011
593.7500,-7.7504,6.2863,-12.5240,9.1414,-3.5697,7.7583,-6.1018,10.9717,-13.5139,-5.2345,-23.9547,2.8199,-10.1693,4.1375,-20.8562,11.2116,-8.0953,3.7545,-15.3990
597.6562,-6.6813,3.3333,-12.1816,8.6151,-1.5047,3.7536,-10.5090,9.1323,-15.3374,-4.7921,-27.1926,2.5613,-8.6602,4.6030,-21.3001,9.6897,-6.9787,2.4429,-13.2490
601.5625,-8.9810,0.0329,-11.6632,7.4943,-0.2400,-0.1299,-13.2416,7.3455,-16.0528,-6.7265,-27.1471,2.8413,-7.6274,5.1049,-18.3037,5.8282,-6.7135,0.8302,-11.4738
605.4688,-13.8084,-2.4840,-10.9440,6.9574,0.8984,-3.4113,-12.2252,7.2211,-14.4582,-10.9977,-22.1726,3.4641,-6.3213,5.9910,-13.1963,1.0582,-6.1149,0.1444,-10.3382
609.3750,-19.0145,-3.4930,-9.4386,7.8190,2.7461,-5.9710,-6.1966,9.4745,-10.1200,-15.2015,-13.8545,4.1203,-3.9430,7.4261,-8.3983,-2.7997,-4.0443,1.1277,-9.1706
613.2812,-21.9226,-3.0240,-6.7344,9.9104,5.4376,-7.5085,4.0107,13.3340,-3.9328,-15.9806,-6.1653,4.4856,-0.5213,9.1879,-5.7540,-4.4686,-0.4330,3.4536,-7.0608
617.1875,-20.6239,-1.8473,-3.2787,12.1375,8.1744,-7.6146,15.0557,16.8840,2.0072,-11.6051,-2.8300,4.3309,2.9115,10.7550,-5.1798,-3.7756,3.5272,5.8638,-3.7489
621.0938,-15.0373,-1.0808,-0.3411,13.2023,9.8164,-6.3698,22.3405,18.1908,5.3561,-3.6460,-4.8555,3.5923,5.0323,11.6217,-4.7068,-1.6402,6.2004,6.9663,0.0161
625.0000,-7.0052,-1.5875,0.8174,12.4882,9.7991,-4.7334,22.5351,16.5012,4.8669,3.7591,-9.9981,2.3620,5.2566,11.5919,-2.0314,0.4184,6.6913,6.1507,2.9295
628.9062,0.7142,-3.4655,-0.0635,10.4773,8.6185,-4.1211,15.8007,12.7131,1.2931,6.6850,-14.4258,0.8138,4.2324,10.8384,3.5056,0.9978,5.4639,3.9807,4.0384
632.8125,5.9327,-5.9257,-1.9101,8.4056,7.4934,-5.3571,6.0124,8.7997,-2.8309,4.2012,-15.2105,-0.8691,3.3724,9.7224,10.0590,-0.5484,3.9282,1.7972,3.4123
636.7188,8.0220,-7.6592,-2.9569,7.4276,7.4970,-7.8845,-1.4595,6.5890,-4.5425,-0.9715,-11.8358,-2.5018,3.7909,8.5630,14.3537,-3.8106,3.3515,0.8321,2.1010
640.6250,7.8027,-7.5221,-1.9018,7.9125,8.8600,-10.0240,-3.0407,6.7441,-2.1692,-4.4623,-5.8700,-3.8404,5.4966,7.5571,14.0264,-7.5018,3.9699,1.4725,1.4539
644.5312,6.5579,-5.1564,1.3012,9.3659,10.9688,-10.2047,0.9872,8.6097,3.6698,-3.4000,0.5534,-4.5476,7.4805,6.8685,9.4987,-10.0566,4.9711,3.1661,2.3307
648.4375,5.0382,-1.1973,5.5880,10.9606,12.9850,-8.2044,7.1700,10.9225,10.4470,1.6493,6.0425,-4.2762,8.6024,6.7095,3.8888,-10.3694,5.2924,4.9558,4.7370
652.3438,3.2538,3.0471,9.6870,12.1839,14.5085,-5.3370,11.7797,12.7456,15.2621,7.3239,10.1383,-2.8766,8.5327,7.2372,0.9336,-8.2844,4.5351,6.1646,8.0354
656.2500,1.1177,6.2403,13.0091,13.0500,15.7226,-3.3647,13.6888,13.8761,16.5338,10.0373,12.6708,-0.5979,7.9762,8.2845,2.4513,-4.5690,3.2529,6.6945,11.4481
660.1562,-0.7858,7.6163,15.8226,13.7362,16.9547,-3.0032,14.9710,14.4854,14.7669,8.4055,13.2937,1.9032,8.0134,9.1787,7.2659,-0.4134,2.4356,6.7670,14.4310
664.0625,-1.1818,7.2311,18.6539,14.0338,18.1194,-3.2812,18.7782,14.4376,11.9679,3.7307,11.8506,3.8379,9.1234,8.9253,12.3676,3.1976,2.6791,6.4251,16.7184
667.9688,0.9458,5.8001,21.5204,13.1984,18.6136,-2.3428,26.2361,13.0307,10.2038,-1.5830,9.1728,4.7266,10.7122,6.7752,15.3067,5.8372,3.7554,5.3083,18.1722
671.8750,5.1634,4.2886,23.7204,10.4572,17.8171,0.9302,34.9404,9.5231,10.3344,-6.1412,7.2453,4.7208,11.5471,2.8421,15.8594,7.5459,4.9087,2.9568,18.7086
675.7812,9.2860,3.4978,24.3896,5.8252,15.7790,5.8207,40.3823,4.0615,11.7312,-10.3588,8.1165,4.5481,10.7519,-1.7158,15.6763,8.4806,5.5626,-0.5954,18.4146
679.6875,10.5228,3.8149,23.3321,0.5211,13.4455,10.1582,39.2756,-1.8504,13.0342,-15.3622,12.1699,5.0560,8.5576,-5.2008,16.3679,8.6623,5.7895,-4.4853,17.6984
683.5938,7.4457,5.1580,21.3653,-3.5094,12.1266,11.9271,32.1775,-5.9514,13.2671,-21.1204,17.2526,6.6273,6.2023,-6.3405,17.8210,8.0392,6.1286,-7.3343,17.2160
687.5000,1.3110,7.0769,19.8203,-4.7707,12.5344,10.8266,23.3086,-6.6510,12.4603,-25.6426,19.7502,8.8708,5.0519,-5.1001,18.3099,6.7531,6.9416,-8.0819,17.5082
691.4062,-4.4676,8.9587,19.5681,-3.2838,14.1382,8.5151,17.6700,-4.2732,11.3991,-26.1855,17.1570,10.8371,5.6263,-2.7643,16.3339,5.2887,7.9113,-6.7455,18.5858
695.3125,-6.5856,10.2959,20.3772,-0.6981,15.3986,7.3270,17.6738,-1.0727,10.8157,-21.6476,10.2681,11.6525,7.2733,-1.1724,12.4872,4.2901,8.1789,-4.4945,19.8377
699.2188,-4.3318,10.9289,21.1561,0.7554,14.7957,8.4721,21.8276,0.1832,10.7330,-14.1698,3.1089,11.1515,8.7109,-1.5683,9.5050,4.1642,7.0518,-2.9035,20.4243
703.1250,-0.3998,11.1279,20.8984,-0.1952,11.9384,11.1338,26.3168,-1.8364,10.4764,-8.4062,0.3246,10.0566,8.9895,-3.8094,10.1680,4.8275,4.6984,-2.8763,19.9213
707.0312,0.7831,11.4071,19.5487,-2.9191,7.9394,13.1457,28.0262,-5.9619,9.2892,-8.6891,3.7947,9.5492,8.1266,-6.4515,14.7100,5.8585,2.2052,-4.0140,18.7161
710.9375,-3.8083,12.1246,18.0587,-5.2585,4.7475,12.6769,26.5308,-9.2129,7.0009,-16.0134,11.0440,10.4934,6.9601,-7.6464,20.0430,6.9427,0.8699,-4.9089,17.7988
714.8438,-13.4185,13.1145,17.5743,-5.0117,3.8738,9.6028,23.6406,-8.8469,4.1805,-27.0582,16.8113,12.8341,6.3814,-6.2686,21.7739,8.1876,1.2234,-4.1738,18.0400
718.7500,-23.7172,13.6626,18.4354,-1.4972,5.3830,5.5556,21.2444,-4.3296,1.6566,-36.0700,16.7515,15.5841,6.5643,-2.5666,17.6484,9.9575,2.5232,-1.4754,19.4794
722.6562,-29.6025,12.9484,19.8446,3.9108,7.8292,2.7293,19.5786,2.2144,-0.1891,-38.3851,10.5427,17.4219,6.7734,2.0214,9.6764,12.3189,3.1302,2.1731,21.1861
726.5625,-28.6929,10.7288,20.5132,8.6586,9.1657,2.4393,17.4993,7.4389,-1.7531,-33.1960,2.0462,17.5091,5.8743,5.7064,3.0310,14.6102,1.5344,5.0670,21.8523
730.4688,-23.0070,7.7799,19.7711,10.6830,8.0121,4.4965,14.3745,9.0792,-3.8662,-23.7394,-3.6014,15.9921,3.1578,7.2923,2.3275,15.6458,-2.6667,5.9420,20.7207
734.3750,-17.5794,5.6834,18.2107,9.7044,4.4665,7.6889,11.6214,7.4556,-7.0180,-14.9366,-3.7265,13.8728,-1.0995,6.6907,8.0772,14.5549,-8.4763,4.7854,18.1760
738.2812,-16.9651,5.9627,17.2872,7.2717,-0.0075,10.7747,12.1378,5.0954,-10.7579,-10.2744,0.1712,12.3599,-5.6934,4.7979,16.1299,11.6396,-14.0312,2.7836,15.5501
742.1875,-22.1196,9.0591,18.1452,5.5930,-3.4793,13.1191,17.7890,4.7781,-13.7806,-10.0885,3.9727,12.1385,-9.0994,2.9102,20.6528,8.4743,-17.5615,1.4913,14.2578
746.0938,-29.8690,13.8423,20.5872,6.0282,-4.6461,14.5949,27.0377,7.4626,-14.7063,-12.2148,4.4184,13.0206,-10.2399,2.0576,18.3949,6.9803,-18.1777,1.8357,14.8579
750.0000,-35.2795,18.0621,23.0249,8.2913,-3.4878,15.0966,35.0008,11.6085,-13.0421,-14.1809,1.6875,14.1518,-8.9912,2.5837,10.9387,8.0471,-16.1163,3.6286,16.6808
753.9062,-35.1458,19.5465,23.4932,10.8395,-1.1712,14.3163,36.3590,14.3476,-9.6475,-15.0777,-0.9622,14.5822,-6.2130,4.1080,3.2080,10.7494,-12.4727,5.8457,18.2508
757.8125,-30.0620,17.4296,20.9866,12.0593,0.6620,12.0645,29.1187,13.5912,-6.3423,-15.7121,-0.1306,13.8069,-3.3417,5.8056,-0.5218,12.8603,-8.7077,7.3822,18.1844
761.7188,-23.6748,12.6443,16.1265,11.3538,0.7862,8.7887,16.2911,9.5150,-4.8766,-17.1485,4.6441,11.9620,-1.7645,6.8388,0.1036,12.3959,-6.1849,7.7128,15.9579
765.6250,-19.8283,7.3683,10.6940,9.4039,-1.0059,5.6699,4.0070,4.3838,-5.9209,-19.0727,10.1930,9.6270,-2.2375,6.7495,1.5576,9.0801,-5.8241,7.0421,12.0886
769.5312,-19.8078,3.7816,6.4179,7.5400,-3.8652,4.0336,-2.6484,0.9341,-8.7256,-19.5239,11.9969,7.4356,-4.5769,5.6540,-0.3334,4.6026,-7.8470,5.9533,7.7070
773.4375,-21.6808,2.9053,3.9303,6.7816,-6.3957,4.4655,-2.9597,0.5583,-11.6627,-16.3688,7.6410,5.7632,-7.7608,4.1542,-6.6658,1.4232,-11.6491,4.9169,3.8797
777.3438,-22.0640,4.2021,2.6020,7.2506,-7.4308,6.3607,-0.5572,2.5838,-13.2781,-9.3755,-1.2814,4.6383,-10.4249,2.9948,-14.3211,0.9972,-15.9298,4.0430,1.1206
781.2500,-18.8310,6.1019,1.2553,8.2883,-6.6696,8.3229,-0.1646,5.0450,-13.1619,-1.1161,-10.2913,3.8468,-11.5428,2.6389,-18.3534,2.7598,-19.1677,3.2026,-0.6896
785.1562,-12.6943,7.0435,-0.8873,9.0571,-4.8290,9.1193,-3.7673,6.2367,-12.0793,4.2820,-15.2600,3.0979,-10.9434,3.0063,-15.9745,4.6296,-20.3031,2.3260,-2.0530
789.0625,-6.5895,6.3662,-3.7424,9.1135,-3.2113,8.4291,-9.2456,5.8433,-11.3122,3.8633,-15.2440,2.1514,-9.3556,3.5540,-8.9245,4.6185,-19.2610,1.5767,-3.5057
792.9688,-3.5011,4.5530,-6.6336,8.5644,-2.9147,6.8126,-12.4659,4.8853,-11.6936,-1.8840,-12.8106,0.8930,-7.9237,3.6695,-2.3432,2.2872,-16.9458,1.2462,-5.3617
796.8750,-4.4494,2.7705,-8.9311,7.8038,-4.1439,5.0131,-11.0169,4.6809,-13.0122,-8.9894,-11.7722,-0.6094,-7.4781,3.1204,-1.0549,-1.0529,-14.6525,1.4757,-7.6042
800.7812,-8.0520,2.0556,-10.4804,7.1380,-6.0524,3.2752,-6.4765,5.7308,-14.1968,-12.4469,-14.2241,-2.0741,-8.0313,2.2417,-6.1786,-3.4787,-13.2519,2.0577,-9.8949
804.6875,-11.7445,2.6519,-11.5160,6.6121,-7.2374,1.3064,-3.3425,7.3849,-14.1362,-9.5663,-19.1744,-3.0591,-8.8390,1.7059,-14.5985,-3.9708,-12.7027,2.5037,-11.6820
808.5938,-13.5296,3.8531,-12.2518,6.1202,-6.5925,-1.1268,-5.4814,8.4586,-12.5379,-1.8877,-23.6462,-3.1551,-8.9731,2.0258,-21.4921,-3.1060,-12.2281,2.3473,-12.4097
812.5000,-12.9308,4.4087,-12.5901,5.6290,-3.9763,-3.5992,-12.9331,8.2239,-10.1923,5.7575,-25.1513,-2.2603,-7.9856,3.1506,-23.7650,-2.4504,-11.0119,1.4662,-11.7914
816.4062,-10.6864,3.2509,-12.2254,5.2868,-0.2688,-5.0962,-21.5906,6.9760,-8.4311,8.4566,-23.4797,-0.7674,-6.1801,4.4691,-21.7541,-3.2394,-8.8806,0.1978,-10.0146
820.3125,-7.7846,0.1487,-11.0080,5.3360,3.2046,-4.8072,-25.9725,5.7869,-8.1548,4.4764,-20.4878,0.5243,-4.3099,5.2347,-18.1763,-5.4476,-6.4554,-0.8350,-7.7115
824.2188,-4.8264,-4.0662,-9.1843,5.9290,5.4759,-2.9836,-22.9401,5.7149,-9.1326,-3.7017,-18.2924,0.8030,-2.9688,5.1091,-15.5635,-7.9411,-4.6730,-1.0672,-5.6398
828.1250,-2.1599,-7.8479,-7.2548,7.0190,6.4269,-1.0398,-13.6172,7.1126,-10.1014,-11.2516,-17.5109,-0.2508,-2.1659,4.4210,-14.4405,-9.4621,-4.0584,-0.2910,-4.2350
832.0312,-0.3711,-9.7036,-5.5643,8.3979,6.6836,-0.6689,-2.3068,9.5130,-9.6179,-14.3636,-16.9896,-2.1804,-1.4105,3.9429,-13.5681,-9.5473,-4.3167,1.2641,-3.3385
835.9375,-0.3561,-8.9769,-4.0025,9.8194,7.0657,-2.6037,6.4997,12.0714,-7.0596,-12.6332,-15.0992,-3.9315,-0.2021,4.3471,-11.6524,-8.6502,-4.5471,3.0933,-2.3301
839.8438,-2.6730,-6.1983,-2.1078,11.0871,8.0301,-6.0222,10.6988,14.1324,-3.0516,-8.8024,-11.3608,-4.4436,1.5063,5.7349,-8.7341,-7.5135,-3.8969,4.7075,-0.6160
843.7500,-6.6945,-2.7805,0.4956,12.0580,9.4881,-9.1240,11.0841,15.4827,0.9865,-6.2084,-6.9782,-3.3092,3.2698,7.5700,-5.9860,-6.4976,-2.1541,5.8758,1.8701
847.6562,-10.4603,-0.2298,3.7026,12.6146,11.0364,-10.4445,9.9302,16.1949,3.8220,-6.0261,-3.8681,-1.0667,4.5562,9.0407,-4.2692,-5.5249,0.1482,6.6894,4.5389
851.5625,-11.6364,0.6369,6.9285,12.6927,12.3290,-9.8469,9.1456,16.3227,5.1758,-6.4946,-3.0761,1.0957,5.2300,9.5723,-3.0030,-4.6226,2.1479,7.4257,6.5302
855.4688,-9.0277,-0.0234,9.5197,12.3747,13.2700,-8.3888,9.4157,15.7937,5.7087,-4.7107,-3.9411,2.0640,5.6828,9.1359,-0.5909,-4.3989,3.2447,8.3073,7.3597
859.3750,-3.5006,-1.4366,11.2393,11.9607,13.9344,-7.2113,10.5751,14.5972,6.2877,0.4976,-4.6789,1.4960,6.4886,8.1863,3.8694,-5.8007,3.4392,9.3100,7.3542
863.2812,2.4734,-2.8888,12.4260,11.8988,14.3914,-6.4430,12.3712,13.0482,7.1700,7.0134,-3.8385,0.0403,7.8836,7.3319,9.1814,-9.1955,3.2374,10.1431,7.5278
867.1875,6.3819,-4.1747,13.7026,12.5507,14.6585,-5.1133,14.7235,11.7972,7.7982,10.5775,-1.3965,-1.0716,9.5304,6.9934,12.4194,-13.5683,3.2706,10.4157,8.9474
871.0938,7.1864,-5.4745,15.4768,13.9043,14.8205,-2.2014,17.4009,11.4580,7.3880,7.8786,1.3775,-0.7982,10.7792,7.2361,11.0423,-16.6980,3.9344,9.8745,12.0071
875.0000,5.6707,-6.8115,17.6276,15.4175,15.1214,2.0721,19.7756,12.0669,5.7948,-0.7893,3.0809,1.0659,11.2030,7.7874,5.1353,-16.4263,5.2446,8.5401,16.1069
878.9062,3.4608,-7.6320,19.5875,16.1281,15.8145,5.9003,21.1910,12.7927,3.8740,-11.4365,3.3337,3.7723,10.9316,8.1395,-2.1128,-12.1697,6.8899,6.6358,19.9487
882.8125,1.6286,-6.9811,20.7095,15.0215,16.8129,6.9523,21.6745,12.1985,2.9372,-19.0377,2.9822,6.0837,10.4833,7.6735,-6.2574,-5.4860,8.3498,4.3653,22.2475
886.7188,0.0704,-4.2443,20.6178,11.5092,17.4635,4.1331,22.1338,8.9989,3.6851,-20.9696,3.2668,7.0107,10.2451,5.8362,-4.4887,0.8348,9.0103,1.7385,22.4018
890.6250,-1.8895,0.1164,19.3299,5.8057,16.7859,-1.3299,23.5373,2.8989,5.5068,-18.6002,4.7381,6.3635,10.0842,2.4165,2.5542,4.5317,8.3287,-1.3672,20.7397
894.5312,-4.3364,4.5124,17.1786,-0.9795,14.1707,-6.4116,25.6351,-5.0052,6.8215,-15.8275,6.8576,4.8050,9.4791,-2.1659,11.3196,5.1655,6.1015,-4.9066,18.2646
898.4375,-6.2206,7.0661,14.6958,-7.1213,10.0743,-8.1580,26.5058,-12.5600,6.3091,-15.7553,8.5642,3.4123,8.0952,-6.7864,17.7098,3.9908,2.7342,-8.3681,16.1235
902.3438,-6.0518,6.8205,12.5461,-10.8820,6.0936,-5.5921,23.7342,-17.5027,4.0813,-18.1846,9.2420,3.0410,6.2914,-9.9643,19.4846,2.6097,-0.7350,-10.7954,15.1203
906.2500,-3.3047,4.4268,11.4243,-11.2387,4.1679,-0.3004,16.5941,-18.5409,1.7751,-19.9556,9.2119,3.8680,5.0403,-10.5800,17.1121,1.5975,-3.0409,-11.2655,15.4732
910.1562,0.7219,1.7340,11.7928,-8.4198,5.3267,4.6823,7.4435,-15.9794,1.3365,-17.8866,9.3326,5.3508,5.2130,-8.5771,12.8438,0.2729,-3.4068,-9.5827,16.8337
914.0625,3.4815,0.5188,13.5166,-3.9333,8.8499,6.8456,0.8374,-11.5362,3.3415,-11.9146,10.0927,6.5927,6.7564,-5.1433,9.0812,-2.2340,-2.1254,-6.6836,18.4765
917.9688,2.8889,1.2754,15.6912,0.0417,12.5325,5.6407,0.5925,-7.4272,6.1926,-5.7856,11.0216,6.8843,8.4696,-2.1338,7.3024,-5.6213,-0.5316,-4.3328,19.5753
921.8750,-1.1605,2.9786,16.9624,1.6924,13.9905,2.4890,6.8662,-5.2142,6.9772,-4.5282,10.9646,6.1194,8.6729,-1.0115,7.9522,-8.0670,-0.2583,-4.1518,19.5152
925.7812,-6.7211,3.9976,16.3041,0.5152,12.1575,-0.4363,15.6152,-5.0623,3.5150,-10.5210,9.0269,4.8633,6.3511,-1.9734,10.7440,-7.3577,-2.2079,-6.5525,18.1630
929.6875,-11.2980,3.4452,13.7827,-2.4088,7.9213,-1.6452,21.1345,-5.8383,-3.8729,-21.2019,5.4245,4.0353,1.9236,-3.8773,14.6904,-2.6696,-5.9548,-10.3337,15.9690
933.5938,-13.7398,1.8994,10.6921,-5.0469,3.4369,-0.9994,19.9663,-5.9839,-12.2644,-30.3363,1.5460,4.3694,-2.9852,-5.0514,17.8954,4.4640,-10.0465,-13.3280,13.7799
937.5000,-14.9873,0.9274,8.8108,-5.6373,0.6147,0.6368,13.2696,-4.6085,-17.9218,-32.0995,-0.8548,5.9422,-6.6482,-4.4442,17.8273,10.8921,-13.0260,-13.7619,12.3970
941.4062,-17.0561,1.7927,9.2038,-3.7529,-0.1125,2.2488,5.8327,-2.0867,-18.7588,-25.0708,-0.7577,8.0506,-8.3993,-2.3050,12.5922,13.8337,-14.4325,-11.4343,12.1121
945.3125,-21.0834,4.3748,11.4307,-0.5037,0.1402,3.2985,2.4942,0.2516,-15.7141,-13.2523,1.4935,9.5486,-8.9715,0.0830,2.6769,12.6407,-15.0197,-7.8646,12.5414
949.2188,-26.0695,7.1610,13.8154,2.2798,-0.2140,3.7883,4.7527,1.1335,-12.0173,-3.3974,4.4142,9.4978,-9.7521,1.4011,-8.2834,9.0205,-16.0107,-5.2548,12.9131
953.1250,-29.4014,8.3199,14.6591,3.3284,-1.8978,3.9677,10.1350,0.3404,-10.8721,-0.6028,6.2396,7.7653,-11.5454,1.2697,-14.8742,5.6131,-17.9661,-4.9629,12.6443
957.0312,-28.8082,7.0192,13.5116,2.7801,-4.2284,4.0893,14.6198,-1.0544,-13.2546,-5.2731,5.8484,5.1865,-13.8309,0.4695,-13.0494,4.0892,-20.1749,-6.5746,11.7866
960.9375,-24.2172,3.9885,11.5003,1.9830,-5.7659,4.3871,15.9566,-1.4309,-17.4180,-13.4103,3.2443,3.1358,-15.1199,0.2657,-3.0764,4.2412,-21.0991,-8.2535,10.9782
964.8438,-18.0364,0.9474,10.3984,2.4032,-5.5823,5.1015,15.1042,0.1615,-20.3927,-19.6887,-0.5503,2.7205,-14.1506,1.3766,9.9810,4.6519,-19.5790,-8.1230,10.8943
968.7500,-13.6207,-0.5914,11.1097,4.4610,-4.0931,6.3216,14.7241,3.2217,-20.2752,-20.8883,-4.0236,4.0900,-10.9845,3.3990,18.9648,4.2208,-15.8769,-5.6608,11.5952
972.6562,-13.0819,-0.2118,12.7665,7.1833,-2.7611,7.6988,16.2214,6.0854,-17.5546,-17.3175,-5.8454,6.3274,-7.1274,5.1308,18.9172,3.1870,-11.7132,-2.0689,12.2969
976.5625,-16.0596,1.4189,13.2165,8.9468,-2.9067,8.3868,18.0539,7.1333,-14.5335,-11.6408,-5.4539,8.0322,-4.5477,5.5285,10.0784,2.8086,-9.1987,0.6524,11.8021
980.4688,-20.2556,3.2840,10.6135,8.7503,-4.5894,7.4892,16.8830,6.0423,-13.4011,-6.4980,-3.3787,8.2407,-4.3210,4.5431,-2.4891,4.0612,-9.4172,1.2223,9.3265
984.3750,-23.1665,4.7564,4.9266,7.0349,-6.4812,4.8434,10.6262,4.1111,-14.5335,-2.9365,-1.1368,7.0690,-5.9191,3.1773,-12.3355,6.5629,-11.7037,0.0311,5.1256
988.2812,-23.6371,5.7506,-1.8102,5.4049,-6.8585,1.5180,0.7480,3.3530,-16.3423,-0.6404,-0.6135,5.6317,-7.6655,2.7259,-15.6549,8.7067,-14.1534,-1.1962,0.4391
992.1875,-22.1895,6.3215,-6.7671,5.4495,-4.9494,-0.5455,-8.2957,4.9894,-16.7160,0.7328,-3.0872,5.2748,-7.9923,3.7927,-13.1565,8.9191,-14.9761,-0.7585,-3.2391
996.0938,-20.1673,6.2604,-8.2106,7.5568,-1.5888,0.2913,-12.1587,8.4758,-14.8331,0.6563,-8.3728,6.6476,-6.5421,5.8447,-8.7604,6.9802,-13.6886,1.6855,-5.0630
1000.0000,-18.6168,5.1884,-6.6466,10.6193,1.3245,4.1352,-9.7769,11.8305,-11.8740,-1.7832,-14.6731,9.2511,-4.3194,7.6308,-6.4412,4.2787,-11.2922,4.8257,-5.2843
1003.9062,-17.8038,3.0889,-4.4056,12.8351,2.1466,9.2395,-4.0413,13.0534,-10.0874,-6.5147,-19.4195,11.7649,-2.8452,8.1169,-7.6781,2.7700,-9.3795,6.6602,-4.9723
1007.8125,-17.5029,0.7004,-4.0193,12.9685,0.5833,12.9619,0.5332,11.5731,-10.9994,-11.6522,-20.7483,12.8932,-3.0226,7.2015,-11.1552,3.4842,-8.9233,5.9531,-5.2598
1011.7188,-17.4710,-0.7689,-6.5983,11.1033,-2.2244,13.4094,1.1775,8.6138,-14.2124,-14.2395,-18.7246,12.1176,-4.5825,5.6757,-14.4244,5.7840,-9.6912,3.0706,-6.6845
1015.6250,-17.5021,-0.5367,-11.3316,8.3601,-4.6105,10.6002,-1.4712,6.1981,-17.7223,-12.2251,-15.4419,9.8485,-6.4686,4.5011,-15.8508,7.9279,-10.6734,-0.4128,-9.0540
1019.5312,-17.0869,0.9548,-16.3163,5.8887,-5.5350,6.2903,-4.6306,5.5632,-19.4463,-6.1590,-13.7919,6.9501,-7.7647,4.0167,-15.3279,8.4204,-11.0807,-2.9773,-11.8112
1023.4375,-15.2843,2.1071,-19.9362,4.0039,-5.1142,2.6184,-6.2489,6.2369,-18.7094,0.8309,-15.6104,4.0819,-8.3761,3.7187,-13.6082,7.0333,-11.0299,-4.2633,-14.5029
1027.3438,-11.2871,1.2182,-21.7161,2.1662,-4.2273,0.6223,-6.8696,6.5037,-16.5367,4.9462,-20.3991,1.3958,-8.9365,2.7807,-11.3087,4.7245,-11.3376,-5.1521,-16.9403
1031.2500,-5.4079,-2.2037,-22.1374,-0.2314,-3.6414,-0.2494,-8.8410,4.8883,-14.6119,4.2084,-25.5075,-1.2294,-10.0778,0.8770,-8.6751,2.6350,-12.6186,-6.7986,-18.9872
1035.1562,0.4570,-6.9118,-21.7978,-3.0060,-3.4107,-1.3366,-13.6371,1.4635,-13.8381,-0.2369,-27.7061,-3.7192,-11.7254,-1.3778,-6.1468,1.0736,-14.4935,-9.4428,-20.2736
1039.0625,3.6483,-10.6762,-20.7663,-5.0589,-2.9947,-3.4262,-19.7765,-2.0835,-13.6961,-4.8980,-25.1550,-5.6160,-13.0343,-2.7620,-4.7923,-0.6721,-15.6427,-12.0023,-20.2092
1042.9688,2.5791,-11.8191,-18.6895,-5.1613,-1.8959,-6.0271,-23.3533,-3.7093,-12.8731,-6.1903,-18.5175,-6.4218,-13.0349,-2.3295,-5.7675,-3.6140,-14.7476,-12.8190,-18.3801
1046.8750,-1.7271,-10.3742,-15.4564,-3.0373,-0.2047,-7.8486,-20.9341,-2.6149,-10.5583,-2.5854,-10.5648,-6.2033,-11.4568,-0.1802,-9.0382,-8.0990,-11.6048,-10.9968,-15.0243
1050.7812,-5.7826,-7.9765,-11.7133,0.1751,1.4253,-8.0224,-12.4694,0.0891,-7.2713,4.6865,-4.6059,-5.8667,-9.0408,2.4803,-12.6074,-13.3947,-7.4947,-7.2691,-11.1434
1054.6875,-5.7091,-6.5778,-8.6690,2.5471,2.3219,-6.9623,-1.7470,2.2037,-4.5225,12.5908,-2.7720,-6.7032,-7.0525,4.0712,-13.3360,-18.0829,-4.4263,-3.6715,-8.0568
1058.5938,0.0634,-7.0020,-7.2897,2.6672,2.3609,-6.0759,6.0984,2.1289,-3.5998,18.0231,-5.1344,-9.4021,-6.3488,3.6570,-9.1152,-20.8467,-3.7501,-2.2051,-6.6510
1062.5000,9.4433,-8.4614,-7.5560,0.6568,2.0649,-6.5501,8.0955,0.1008,-4.4995,19.1764,-9.9806,-13.2585,-6.7134,1.5506,-0.7832,-21.0233,-5.1558,-3.4502,-6.8480
1066.4062,17.7939,-9.3548,-8.4274,-1.8989,2.1650,-8.2728,5.2311,-1.9941,-5.8793,15.9534,-14.8382,-16.2946,-6.9811,-0.9067,7.9290,-18.6446,-6.8247,-6.1473,-7.6786
1070.3125,20.8374,-8.6387,-8.5756,-3.0825,3.0191,-9.8798,1.2369,-2.0934,-6.0576,9.6077,-17.5344,-16.3969,-5.8758,-2.2152,12.7103,-14.2033,-6.6744,-8.0552,-7.9087
1074.2188,17.3101,-6.6330,-7.3027,-2.0071,4.3740,-9.9647,-0.4693,0.4126,-4.2457,2.1328,-16.8179,-12.7771,-2.9533,-1.6351,11.6699,-8.5369,-3.8249,-7.4734,-6.7682
1078.1250,9.5128,-4.6471,-4.9228,0.5933,5.6415,-8.4497,0.8563,4.1475,-1.0536,-4.2975,-12.5221,-6.7143,1.0349,0.4410,6.7408,-2.9035,0.7529,-4.3645,-4.2870
1082.0312,1.5066,-3.8128,-2.3513,2.9595,6.4149,-6.8839,3.3959,6.7050,2.0568,-7.8809,-5.5063,-0.9540,4.6090,2.8463,2.3303,1.0858,4.8595,-0.3326,-1.0728
1085.9375,-3.5482,-4.1500,-0.3016,3.6077,6.7758,-7.2670,4.9399,6.3533,3.8545,-7.8081,2.4838,1.9303,6.5132,4.4173,2.1849,2.0204,6.5119,2.4562,2.2156
1089.8438,-4.9119,-4.6376,1.2247,2.3570,7.1606,-10.2407,5.0291,3.2079,4.0830,-4.7311,9.1469,1.1333,6.4829,4.6446,6.8341,-0.4137,5.2038,2.6179,5.2634
1093.7500,-3.7423,-4.1697,2.7806,0.3516,7.9513,-14.1252,5.2045,-0.9555,3.3688,-0.6294,12.3228,-1.9273,5.3220,3.8038,13.4894,-4.8687,2.1465,0.2664,8.1092
1097.6562,-1.3656,-2.5202,4.8745,-0.8724,9.1729,-15.7311,7.3189,-4.0274,2.5385,2.1221,10.9626,-4.6166,4.2903,2.5684,18.3054,-8.7694,-0.6063,-3.2732,10.8628
1101.5625,1.9245,-0.4691,7.5116,-0.5312,10.5366,-12.5231,11.6019,-4.9858,2.0255,2.0542,5.8929,-4.8475,4.2644,1.4462,19.0927,-9.7334,-1.4917,-6.4218,13.4491
1105.4688,6.4777,0.9869,10.2672,0.8876,11.7244,-4.6003,16.3090,-4.3946,1.8463,-0.6081,-0.2298,-2.3803,5.2392,0.4471,16.3870,-7.0973,-0.3224,-8.2585,15.6080
1109.3750,11.8495,1.5950,12.7524,2.0441,12.5965,5.0197,19.2592,-3.7358,2.0165,-4.3089,-4.0270,1.2061,6.4473,-0.8277,12.3146,-2.4073,1.7879,-8.8328,17.1022
1113.2812,15.9482,2.0860,14.9587,1.7092,13.1086,12.1364,19.8080,-4.2190,2.8445,-7.4512,-3.1377,3.7610,6.9333,-2.7978,8.5664,1.6088,3.2838,-8.8245,17.8819
1117.1875,15.9597,3.4473,17.1087,-0.4655,13.0514,13.9765,19.4067,-6.0128,4.6932,-9.5876,2.3665,4.0646,6.1509,-5.5280,5.3909,2.9155,3.1480,-8.9390,18.0147
1121.0938,10.6043,5.8678,19.1477,-3.8689,11.9382,10.8799,20.1980,-8.3906,7.3740,-11.4931,9.8089,2.5100,4.2013,-8.6305,2.3753,1.5071,1.3646,-9.5020,17.4482
1125.0000,1.8559,8.3169,20.4159,-7.4778,9.2601,5.9231,22.9049,-10.5101,9.7940,-14.0227,15.2281,0.5618,1.6330,-11.4854,-0.0133,-0.8124,-1.3259,-10.4562,15.8781
1128.9062,-5.6187,9.2046,19.9354,-10.5227,4.9752,2.7988,25.9422,-12.0941,10.3543,-16.7706,15.5308,-0.4796,-0.9755,-13.5980,0.0635,-2.0169,-4.0670,-11.6165,12.9381
1132.8125,-7.3406,7.6346,17.1948,-12.7761,-0.1785,3.4602,26.6012,-13.4622,7.9635,-17.8661,10.2567,-0.4085,-3.3286,-14.8318,4.4224,-1.5286,-6.4117,-12.8867,8.6389
1136.7188,-2.2885,4.2268,12.8044,-14.3416,-4.8761,7.1069,23.3158,-14.9797,2.9286,-15.3739,1.8994,-0.0556,-5.4325,-15.3653,12.6357,-0.6091,-8.4068,-14.2510,3.7140
1140.6250,5.9492,0.8076,8.3992,-15.2355,-7.8545,11.0591,17.0510,-16.4734,-3.0311,-9.3318,-5.4442,-0.3772,-7.3747,-15.4291,21.1052,-1.1550,-10.2894,-15.5943,-0.4745
1144.5312,11.2381,-0.8135,5.7408,-15.1706,-8.5805,12.7400,10.6402,-17.1609,-7.7659,-2.6685,-8.3397,-1.4943,-9.0836,-15.0395,24.7311,-3.9002,-12.1169,-16.5601,-2.5175
1148.4375,8.8927,-0.0230,5.6327,-13.7306,-7.4705,11.3269,6.6991,-16.1715,-10.0103,0.1177,-5.8933,-2.4863,-10.2800,-13.9473,20.3252,-7.5379,-13.6452,-16.6201,-1.6995
1152.3438,-1.1992,2.3569,7.4652,-10.7794,-5.5402,8.0254,5.9507,-13.2496,-10.0824,-4.0739,-0.1669,-2.1059,-10.6673,-11.8642,9.2361,-9.5351,-14.5308,-15.3524,1.5795
1156.2500,-14.5513,4.8720,9.7346,-6.7650,-3.7974,4.9871,7.3154,-9.0965,-9.4840,-14.3976,5.0800,0.1677,-10.2248,-8.8172,-3.0307,-8.0246,-14.6779,-12.7538,5.9810
1160.1562,-25.1357,6.5477,11.1240,-2.6669,-2.8502,3.7972,9.4363,-5.1031,-9.7602,-25.9667,6.5598,3.5943,-9.3759,-5.3606,-10.2240,-3.2666,-14.4485,-9.3689,9.8893
1164.0625,-29.2864,7.3916,11.3075,0.4030,-2.9435,4.6019,12.0000,-2.6663,-11.5066,-32.6040,3.2667,6.6008,-8.8735,-2.4430,-9.4376,2.4865,-14.5638,-6.1190,12.1441
1167.9688,-27.7026,7.9698,10.9027,1.7104,-4.2143,6.3314,15.4984,-2.5250,-14.2153,-30.7157,-3.0864,7.8607,-9.4202,-0.9454,-2.9011,6.5942,-15.7335,-3.8914,12.4455
1171.8750,-24.3255,8.5723,10.7123,1.2415,-6.7663,7.6560,19.7217,-4.4610,-16.9243,-21.6276,-9.1765,7.2104,-11.2253,-1.1500,3.8289,7.8081,-18.2234,-3.0922,11.2945
1175.7812,-23.1846,8.8041,10.9592,-0.2883,-10.3907,7.8865,22.6875,-7.4326,-19.0026,-10.7228,-11.9874,5.7196,-13.7707,-2.4873,5.8914,6.8511,-21.6095,-3.4123,9.6241
1179.6875,-25.6532,7.9958,11.1598,-1.7518,-14.2025,7.2289,21.4958,-9.9986,-20.3979,-3.9695,-10.3868,4.8820,-15.9737,-3.7699,2.3748,5.4604,-24.8726,-3.9642,8.3791
1183.5938,-29.9875,6.0281,10.6710,-2.1103,-16.6882,6.3720,14.7983,-10.8446,-21.2485,-4.2501,-5.5135,5.5482,-16.7102,-3.8202,-3.4749,4.8313,-26.8120,-3.7601,8.1963
1187.5000,-33.1421,3.7497,9.3431,-0.8881,-16.3986,5.8544,4.7925,-9.2734,-21.3763,-9.9583,0.0850,7.3870,-15.4381,-2.1336,-6.9910,4.8170,-26.6022,-2.2954,9.1992
1191.4062,-33.1970,2.5103,7.6431,1.5932,-12.9440,5.7162,-3.3737,-5.5300,-20.2715,-16.6062,3.8844,9.2324,-12.5601,0.8310,-5.5310,4.4910,-24.2236,0.1049,10.8860
1195.3125,-30.5263,3.1391,6.1337,4.3602,-7.5389,5.6276,-4.9004,-0.7958,-17.6637,-20.0430,4.4825,10.0015,-9.2806,3.9188,-0.1053,3.4287,-20.5372,2.4275,12.1849
1199.2188,-27.0705,5.2350,4.8267,6.2937,-2.5349,5.3019,0.9772,3.2711,-14.1377,-18.9179,1.8527,9.4723,-6.9937,5.9456,5.7114,2.4282,-16.9276,3.5776,11.7974
1203.1250,-24.6160,7.4157,3.0823,6.7675,-0.0842,4.8250,9.9306,5.3490,-11.1059,-14.8520,-3.1104,8.3651,-6.5348,6.3474,8.3929,2.9177,-14.6562,3.1074,8.8209
1207.0312,-23.5903,8.3620,0.2408,6.0531,-0.7970,4.6526,15.2898,5.2176,-9.9650,-10.6309,-9.1974,7.7257,-7.7363,5.4242,6.4983,5.5311,-14.2513,1.5866,3.3824
1210.9375,-23.1991,7.8014,-3.5376,5.1989,-3.3624,5.2954,12.7528,3.9533,-11.0295,-8.0995,-15.1851,8.1255,-9.5673,4.0607,0.8654,9.1677,-15.2734,0.3127,-3.1529
1214.8438,-22.4949,6.6100,-7.0300,5.3943,-5.4670,6.9293,3.4757,3.3081,-13.1475,-7.3393,-19.8385,9.2771,-10.7772,3.1465,-6.6551,11.5240,-16.6097,0.4869,-8.6848
1218.7500,-21.2635,5.9678,-8.6702,7.1869,-5.3888,9.1959,-6.9054,4.5749,-14.4306,-7.4107,-21.9844,10.3084,-10.6407,3.0873,-14.5145,10.8284,-17.1438,2.3819,-11.4330
1222.6562,-19.9749,6.3123,-7.7625,10.0793,-3.1209,11.3174,-12.5865,7.6820,-13.6278,-7.6307,-20.9572,10.4273,-9.3268,3.6959,-21.7743,7.3869,-16.4014,5.0946,-10.9423
1226.5625,-19.0227,7.0080,-5.2070,12.8164,-0.2099,12.4527,-11.8360,11.1938,-11.0793,-8.1193,-17.2390,9.4573,-7.6627,4.4661,-27.5546,3.5711,-14.7687,7.1114,-8.3571
1230.4688,-18.1401,7.0138,-3.0445,14.2047,1.5408,12.0901,-7.8232,13.2808,-8.4538,-9.2477,-12.7024,7.8788,-6.4721,4.9833,-30.6181,2.0926,-13.1430,7.3415,-5.7110
1234.3750,-16.6481,5.9441,-3.0430,13.9052,1.4894,10.2602,-5.4976,12.9955,-7.4250,-10.7569,-9.9464,6.4212,-5.9603,5.1738,-29.8284,3.8469,-12.2518,5.9078,-4.6403
1238.2812,-14.3302,4.5602,-5.3554,12.6322,0.6048,7.4711,-7.2257,10.9126,-8.3157,-11.6111,-10.8592,5.5723,-5.5869,5.2596,-25.1900,7.0664,-12.1100,4.1131,-5.3698
1242.1875,-12.0481,4.2123,-8.3072,11.6096,0.6159,4.4235,-10.8683,8.6379,-9.7986,-10.8853,-15.2726,5.3672,-4.5169,5.5144,-18.4265,8.5536,-12.0027,3.5688,-6.6658
1246.0938,-11.3661,5.6751,-9.5429,11.6821,2.5510,1.6903,-11.8747,7.5513,-9.9105,-8.8724,-20.7429,5.5363,-2.3245,6.0349,-12.3215,6.1153,-11.0192,5.0829,-6.7950
1250.0000,-13.3144,8.3673,-7.7206,12.7389,5.8318,-0.4546,-7.5440,7.7614,-7.5750,-7.2329,-23.8484,5.7903,0.5737,6.6853,-9.1216,0.3135,-8.7718,8.0905,-4.8171
1253.9062,-17.2429,10.6447,-3.5003,13.8640,8.6430,-1.9877,0.2637,8.1010,-3.4193,-7.7785,-22.3039,5.9554,3.0969,7.2117,-9.1777,-5.8720,-5.7799,11.0302,-1.2956
1257.8125,-20.7734,10.9529,0.9050,14.0751,9.3033,-2.9654,6.3773,7.1820,0.7554,-10.7591,-16.4911,5.8695,4.1978,7.4070,-10.8847,-9.2568,-3.2155,12.3893,2.0728
1261.7188,-21.0707,8.9044,3.2690,13.0749,7.5825,-3.4096,6.5682,4.6730,3.3884,-14.1573,-9.2832,5.2269,3.6120,7.2115,-11.9432,-8.8388,-2.1432,11.6729,3.6419
1265.6250,-16.6377,5.4278,2.8466,11.4608,4.9631,-3.3647,1.2372,1.7703,4.2921,-14.8293,-4.2004,3.6406,2.1349,6.7298,-10.9303,-6.4977,-2.7472,9.6401,2.9744
1269.5312,-8.4124,1.9416,0.7713,10.2867,3.6605,-3.0608,-4.6385,0.4569,4.6045,-10.8366,-3.1345,0.9986,1.2206,6.2157,-8.0148,-5.4421,-4.0710,7.7131,1.1705
1273.4375,0.5812,-0.6724,-0.8327,10.3717,5.1513,-2.9883,-5.3845,2.1047,5.6712,-3.2095,-5.2229,-2.1307,2.1563,6.0595,-4.4578,-7.5945,-4.4701,7.0585,0.1633
1277.3438,6.7914,-2.4103,-0.2773,11.8934,9.2849,-3.7231,0.7986,6.4957,7.8619,4.3400,-7.6300,-4.4456,5.3419,6.7329,-1.5390,-11.9438,-2.5224,8.0093,1.4884
1281.2500,7.9119,-3.5968,2.7644,14.4987,14.5580,-5.5558,10.3383,11.9945,10.3416,7.7186,-7.6069,-4.4373,10.1134,8.6188,0.1367,-15.1606,2.1453,10.1453,5.3585
1285.1562,3.8592,-4.0920,7.3699,17.6963,19.2282,-8.1852,17.1333,16.6879,11.9558,5.1427,-4.3003,-1.2960,15.1633,11.7304,0.5700,-14.0522,8.5869,12.7961,10.6090
1289.0625,-3.4356,-3.1377,12.2151,21.0898,22.3626,-10.7523,17.4380,19.5596,12.3923,-1.7586,0.9543,4.3645,19.2244,15.4703,-0.0425,-8.0369,14.9480,15.4436,15.4554
1292.9688,-11.0765,-0.1134,16.3795,24.2369,24.0768,-12.2589,12.8112,20.7983,12.5258,-9.2182,5.9123,10.5241,21.5626,18.6519,-1.4014,0.1979,19.2930,17.7045,18.4941
1296.8750,-16.4070,4.4573,19.5380,26.3628,24.9400,-12.1047,8.7541,21.1027,13.5809,-13.9551,9.1360,14.6549,22.0408,19.9022,-2.7692,6.3479,20.3950,19.0417,19.3072
1300.7812,-17.8385,8.6827,21.5997,26.3839,25.1861,-10.3623,10.1888,20.6903,15.8257,-15.1343,10.7745,15.0481,20.8625,18.3163,-2.7885,7.2810,18.1382,18.6621,18.3986
1304.6875,-15.1469,10.3226,22.3240,23.4559,24.4557,-7.6030,17.4696,18.9394,18.0096,-14.2738,11.8996,11.7763,18.3172,14.0100,-0.0822,3.0160,13.4402,15.8936,16.6653
1308.5938,-9.3473,8.4129,21.3758,17.7375,22.2668,-4.4613,26.1133,15.0024,18.1778,-13.4162,13.1248,6.6606,14.7614,8.2018,5.5145,-3.4160,7.8374,10.8385,14.8571
1312.5000,-2.2938,4.1987,18.7804,10.7155,18.7518,-1.3429,30.3584,8.8508,15.3101,-13.2637,13.8095,2.2218,10.7829,2.7003,12.1197,-8.0270,2.9560,4.7167,13.3604
1316.4062,3.9088,0.4840,15.3035,4.6466,14.9519,1.4722,27.6067,1.7902,10.4279,-12.8894,12.6049,0.2492,7.2765,-0.9583,16.4265,-8.3740,0.0329,-0.5610,12.3195
1320.3125,7.5744,-0.2667,12.3034,1.3244,12.3341,3.4938,20.2237,-4.1038,6.1366,-11.1806,8.8949,0.8778,5.1985,-2.2414,15.7624,-4.8652,-0.4262,-3.4649,11.8585
1324.2188,7.9867,2.3172,11.0547,0.9845,11.8489,3.9209,13.4575,-7.2752,4.8142,-8.5804,3.8553,2.7365,5.0602,-1.7957,10.2134,-0.1621,1.2087,-3.8457,12.1556
1328.1250,5.6002,6.2777,12.0192,2.1762,13.2496,2.1027,11.3731,-7.7081,6.8167,-7.3565,0.1023,4.0187,6.5121,-0.9768,3.0450,2.7342,3.8133,-3.0705,13.3114
1332.0312,1.7932,8.8444,14.6087,2.7742,15.2096,-1.6474,14.1166,-6.8613,10.1607,-9.8689,0.0432,3.7265,8.3997,-1.0323,-1.2226,2.3598,5.9285,-3.0814,15.1584
1335.9375,-1.6963,8.5493,17.6039,1.4561,16.1675,-5.5858,18.4787,-6.5540,12.0147,-16.1437,4.1380,2.2500,9.3669,-2.4325,0.1277,-0.5243,6.3739,-4.9869,17.2069
1339.8438,-3.3836,6.2916,19.8867,-1.4181,15.2871,-7.0686,20.9124,-7.6692,10.8768,-22.9087,10.4252,0.9370,8.6648,-4.7202,6.0968,-3.6873,4.7878,-8.2094,18.8059
1343.7500,-2.4908,4.5207,20.9502,-4.1657,12.8577,-4.0392,20.2916,-9.6688,7.7061,-25.2990,15.7178,1.0250,6.6100,-6.9105,12.7386,-4.9613,1.7879,-10.8570,19.4285
1347.6562,0.7982,5.2033,20.9028,-5.0938,9.9137,3.4172,18.2378,-11.2301,5.0676,-20.3330,17.6017,2.7402,4.3396,-8.1340,16.0845,-3.5101,-1.3948,-11.0883,18.9058
1351.5625,5.2562,8.2055,20.1215,-3.7580,7.4324,12.6366,17.1245,-11.4089,4.9358,-9.6459,15.7877,5.2106,3.0001,-8.1079,14.9594,-0.1122,-3.6329,-8.4732,17.4847
1355.4688,8.7690,11.3869,18.9492,-1.2143,5.7357,19.6178,17.8165,-10.3410,6.9152,0.7829,11.9170,7.2088,2.9353,-7.1716,11.4918,3.5623,-4.5489,-4.3327,15.7042
1359.3750,8.9003,12.3199,17.6773,0.8906,4.4924,21.3087,19.1737,-8.9410,8.3566,4.1036,8.1371,8.1180,3.4634,-5.9318,9.0044,6.0959,-4.6700,-0.8006,14.1781
1363.2812,3.9082,10.2482,16.6977,1.6347,3.2157,17.4397,19.5356,-7.9391,6.3580,-2.9296,5.6400,8.3565,3.4116,-4.8031,9.1270,7.1247,-4.9858,0.6817,13.3878
1367.1875,-6.1392,6.7186,16.5115,1.4811,1.7820,10.6042,18.5519,-7.1582,0.1176,-17.5852,4.2320,8.9357,2.0153,-3.7680,10.5867,7.3369,-6.2092,0.2970,13.5428
1371.0938,-18.8521,4.3913,17.4378,1.7615,0.5363,4.4945,17.5064,-5.7105,-8.2193,-32.6308,3.0521,10.5114,-0.4988,-2.5081,10.6512,7.7544,-8.2686,-0.4799,14.5227
1375.0000,-30.2124,4.9864,19.2255,3.4199,-0.0746,1.5601,17.8292,-2.9635,-14.9336,-40.7393,1.6206,12.7061,-3.0938,-0.7909,7.8838,8.8427,-10.4024,-0.1865,15.9020
1378.9062,-36.3905,7.9855,20.9673,6.0540,-0.0048,1.7828,19.3004,0.5780,-17.3096,-38.8521,0.2515,14.2772,-4.7401,1.1777,3.7061,10.0885,-11.7951,1.3961,17.0593
1382.8125,-35.7460,11.0820,21.5252,8.0620,0.1850,3.3932,19.8205,3.3148,-15.4584,-29.5972,-0.4392,14.0445,-5.2408,2.7126,1.3013,10.3619,-12.2762,3.0600,17.3646
1386.7188,-29.7300,11.9823,20.2420,7.8233,-0.3834,4.8095,17.1801,3.6129,-12.0240,-18.9802,-0.3304,11.8675,-5.4136,2.9977,2.7564,8.8324,-12.5328,3.1833,16.4029
1390.6250,-21.9933,10.1363,17.4145,5.0145,-2.3134,6.1039,11.3328,1.1102,-10.0603,-12.1738,-0.0471,8.8827,-6.4541,1.6371,6.9823,5.7887,-13.6243,1.1416,14.1541
1394.5312,-16.2116,7.0908,14.1319,1.0367,-5.4462,8.7053,5.0369,-2.7646,-10.7648,-10.4385,-0.3781,6.7612,-8.9378,-0.9367,10.3677,2.7188,-16.1138,-1.9994,11.0475
1398.4375,-14.0921,5.2736,11.5693,-1.7947,-8.8180,13.5580,2.0583,-5.5269,-12.8102,-11.1904,-1.4200,6.5146,-12.2160,-3.5018,9.7611,1.4915,-19.4477,-4.0796,7.8488
1402.3438,-14.9206,6.2029,10.2608,-1.7162,-11.1000,19.3647,4.2720,-5.1458,-13.7017,-10.8395,-2.3271,7.7625,-14.6956,-4.5839,5.2448,3.1301,-22.0849,-3.3096,5.4010
1406.2500,-16.8470,9.4634,9.8894,1.4113,-11.2680,22.6421,10.0777,-1.2709,-11.9849,-8.0335,-2.0303,9.0529,-14.8476,-3.2370,0.1921,7.0253,-22.3646,0.4734,4.2999
1410.1562,-18.7451,13.1024,9.6974,6.1388,-9.1360,19.9332,15.5236,4.6460,-8.4991,-4.8037,-0.3644,9.0168,-12.2521,0.3734,-1.6325,11.1986,-19.5743,5.6743,4.6143
1414.0625,-21.0429,15.0036,9.1151,10.4450,-5.4920,10.6804,17.2593,10.3223,-5.6972,-4.8137,1.4324,7.4700,-7.9518,4.9487,0.4605,13.5023,-14.5122,9.9985,5.7683
1417.9688,-24.8062,14.1683,8.0556,12.9219,-1.7931,-1.5191,14.8645,13.9366,-5.6271,-10.1347,1.4444,5.5776,-3.8769,8.6520,3.1251,12.9485,-9.1613,11.8997,6.6684
1421.8750,-29.9150,11.0814,6.6703,13.3103,0.4296,-10.5618,10.6284,14.8587,-8.2268,-19.0594,-1.4145,4.9100,-1.7507,10.0108,1.6103,10.2241,-5.6704,11.3831,6.0892
1425.7812,-34.0933,7.1435,4.8796,12.1692,0.2029,-11.5446,7.0675,13.4916,-11.2995,-26.6764,-6.3140,6.1034,-2.2062,8.6264,-6.0172,7.0256,-5.2739,9.6774,3.2166
1429.6875,-33.9915,3.7930,2.2224,10.1557,-2.4651,-4.0340,4.4468,10.6179,-12.1689,-27.9040,-10.8238,8.1994,-4.6310,5.3075,-16.6279,4.7266,-7.7761,8.1572,-1.8706
1433.5938,-27.8130,1.9593,-1.7213,7.6074,-6.5402,7.4563,0.5870,6.9203,-9.6935,-20.9174,-12.5375,9.2596,-7.7109,1.5913,-23.9163,3.4135,-11.8172,7.4079,-8.0420
1437.5000,-17.4836,2.0002,-6.6539,4.7309,-10.3304,16.2198,-6.7774,3.0205,-5.0810,-8.6321,-10.8329,7.8653,-10.1901,-1.0273,-23.2256,2.0392,-15.6449,7.1114,-13.4432
1441.4062,-8.3770,3.8197,-11.2819,2.0783,-12.1502,17.4926,-17.1439,-0.2148,-0.9370,2.7630,-7.4134,4.3747,-11.3335,-1.7130,-15.5348,-0.4370,-17.8766,6.7062,-16.2421
1445.3125,-6.2977,6.8516,-13.8579,0.6971,-11.0196,11.1604,-26.5439,-1.6424,0.6324,7.2829,-5.1778,0.9094,-10.9329,-0.4676,-7.2594,-3.8765,-17.8783,6.1504,-15.4756
1449.2188,-13.5712,9.9560,-13.2998,1.6221,-7.0978,1.3050,-29.9379,-0.3657,-0.6282,2.4672,-6.2432,-0.0448,-9.0891,2.0954,-5.7300,-6.7702,-15.7394,6.0782,-11.5636
1453.1250,-27.0126,11.5778,-10.0961,5.0041,-1.6416,-6.8563,-25.0067,3.4928,-3.2714,-9.3989,-10.5818,2.5231,-6.1096,5.1193,-13.6850,-7.2892,-12.0692,7.1989,-6.1863
1457.0312,-39.4186,10.3854,-6.2480,9.5928,3.5093,-10.3201,-14.3133,8.4396,-5.5041,-22.7099,-16.2207,7.2147,-2.6124,7.7640,-27.0227,-4.8078,-7.8243,9.4661,-1.5447
1460.9375,-43.7879,6.1240,-4.1577,13.1349,6.6933,-9.6392,-3.9530,12.1415,-6.5456,-31.5847,-20.7355,10.9452,0.4031,9.3093,-37.6061,-0.6792,-4.1677,11.7759,0.6349
1464.8438,-37.5051,0.0458,-5.1642,13.5883,7.0965,-7.6413,0.4578,12.6538,-6.9038,-32.7228,-22.8184,10.9022,1.8231,9.2351,-39.0182,2.4527,-2.2073,12.5515,-0.1524
1468.7500,-23.7141,-5.5722,-8.7229,10.4043,5.0418,-6.8720,-2.5055,9.5813,-7.4815,-26.6124,-22.7725,6.4092,1.0419,7.4065,-30.9190,2.4000,-2.5500,10.8500,-3.0601
1472.6562,-9.0693,-8.6677,-12.7919,4.9903,1.8008,-7.8540,-9.3950,4.3750,-8.4244,-16.7250,-21.7464,-0.5936,-1.4573,4.3019,-18.8288,-1.0249,-4.8609,7.1668,-6.4007
1476.5625,0.4559,-8.6063,-15.1390,-0.0191,-0.9643,-9.3248,-14.6237,-0.4709,-8.7877,-7.4244,-20.5396,-6.7798,-4.0954,1.0433,-9.7583,-5.8389,-7.7932,3.2861,-8.4897
1480.4688,2.8241,-6.5101,-14.6562,-2.2568,-1.8780,-9.8994,-14.4240,-2.8116,-7.3345,-1.8280,-19.0470,-9.5188,-4.9681,-0.9718,-7.2327,-9.2615,-9.5172,1.2123,-8.3791
1484.3750,0.2641,-4.4424,-11.8267,-0.9382,-0.3805,-9.5256,-9.0833,-1.9520,-3.7601,-0.6500,-16.7232,-8.3917,-3.0085,-0.7592,-9.4698,-9.6427,-8.6759,1.9013,-6.1557
1488.2812,-3.1120,-4.0162,-8.1471,2.8146,3.0870,-9.4728,-2.0553,1.1866,0.7624,-2.3947,-13.4904,-5.1768,1.2399,1.6354,-11.7476,-7.5347,-5.2103,4.6707,-2.7406
1492.1875,-4.3661,-5.4128,-5.0400,6.7838,7.3052,-10.9892,2.9836,4.8212,4.2617,-4.5649,-10.1345,-2.4416,5.8445,5.0470,-10.6485,-5.1445,-0.4718,7.6886,0.6278
1496.0938,-3.2642,-7.4663,-3.0600,9.0148,10.8214,-13.9304,4.6616,7.4004,5.3829,-5.1330,-7.7499,-1.8151,8.6434,7.7855,-6.6048,-4.6147,3.5369,9.1754,2.9448
1500.0000,-1.5110,-8.6648,-1.8540,8.8393,12.5909,-16.6400,4.2353,8.3318,4.3998,-3.5088,-6.7175,-3.1328,8.5954,8.5915,-2.8742,-6.4372,5.3553,8.4728,3.7934
1503.9062,-0.7116,-8.2664,-0.7188,6.9806,12.4265,-17.2119,3.9077,7.9982,2.9859,-0.5796,-6.1870,-4.9177,6.3914,7.3315,-2.1634,-9.1611,4.9135,6.2661,3.4039
1507.8125,-0.8598,-6.7127,0.7952,4.8092,11.0238,-15.0316,4.8851,7.2202,2.8970,2.0868,-4.6397,-5.6746,3.8984,4.9545,-3.9785,-10.5467,3.4622,3.8861,2.4501
1511.7188,-0.4578,-5.1194,2.6878,3.3468,9.5320,-11.2459,6.8108,6.6246,4.6084,3.3413,-1.1449,-4.9640,2.8365,2.7426,-4.9564,-9.2400,2.6405,2.2695,1.7000
1515.6250,2.0607,-4.3256,4.7456,2.6972,8.8961,-7.7461,8.7486,6.3201,6.9918,3.1762,3.7417,-3.5100,3.6375,1.4062,-1.7628,-5.7019,3.3425,1.3568,1.6712
1519.5312,6.9113,-4.2537,6.8731,2.2110,9.3519,-5.5504,10.4823,5.9883,8.2902,2.6394,8.2640,-2.4021,5.2890,0.6841,6.0242,-1.7532,5.1804,0.3276,2.4342
1523.4375,12.6743,-4.0172,9.1713,1.1555,10.3818,-4.0081,12.7799,5.2265,7.6075,3.0267,10.7892,-2.1242,6.2270,-0.2754,15.5035,0.8397,6.8963,-1.5731,3.6468
1527.3438,17.2440,-2.6142,11.7214,-0.6491,11.1549,-1.5485,16.4142,3.8788,5.7135,4.9078,11.1241,-2.2002,5.5737,-2.0804,22.7721,1.6204,7.3787,-4.2976,4.7976
1531.2500,19.1552,0.3425,14.3289,-2.6869,11.1445,2.6462,20.9996,2.1730,4.5058,7.6516,10.7189,-1.6864,3.7846,-4.4904,25.9188,1.6143,6.5094,-6.9295,5.5228
1535.1562,18.2805,4.3505,16.5221,-4.1619,10.4878,7.5079,24.8926,0.6200,5.5294,9.7657,11.5343,-0.0588,2.2463,-6.5393,26.1605,2.3522,5.2185,-8.3465,5.8112
1539.0625,15.5470,8.2946,17.8449,-4.6371,9.8300,10.5628,26.3825,-0.2510,8.7036,9.8021,14.4403,2.2498,2.1672,-7.3034,26.2853,4.5449,4.7359,-8.1018,5.9711
1542.9688,12.1177,11.0144,18.2040,-4.4125,9.7691,9.7749,25.1424,-0.1953,12.2503,7.1999,18.4329,4.0926,3.6237,-6.7070,27.8964,7.4297,5.6249,-6.8493,6.3818
1546.8750,8.7734,11.8086,17.9639,-4.3569,10.3239,5.3336,22.6086,0.5550,13.9048,2.5233,21.3216,4.4384,5.4764,-5.7062,29.9117,9.2667,7.3261,-5.9656,7.2028
1550.7812,5.8690,10.6804,17.6970,-5.3007,10.8387,-0.0841,20.8941,1.3326,12.5139,-2.9669,21.3702,3.1439,6.1944,-5.6622,29.6032,8.6096,8.5312,-6.6163,8.2420
1554.6875,3.6560,8.3106,17.7839,-7.4104,10.4197,-2.9023,21.1571,1.3392,8.8472,-7.9899,18.6122,1.0852,4.9487,-7.3515,25.2356,5.4288,8.0820,-8.9236,9.0787
1558.5938,2.4988,5.8202,18.1767,-9.9897,8.5958,-0.9889,22.8400,0.0852,5.0395,-11.6497,14.8158,-0.4402,2.1643,-10.3510,18.0034,1.2968,5.7198,-11.8294,9.3529
1562.5000,2.7246,4.3619,18.4940,-11.8653,5.7128,4.9351,24.4053,-2.2785,3.0878,-13.3917,12.1468,-0.5880,-0.8385,-13.2669,11.5850,-1.4931,2.1676,-13.7585,9.0180
1566.4062,4.2663,4.6202,18.3446,-12.1133,2.7633,11.8117,24.8441,-4.9684,3.4879,-12.8046,11.5883,0.5104,-2.8010,-14.6422,9.6338,-1.2961,-1.4508,-13.6244,8.3839
1570.3125,6.4574,6.4220,17.6159,-10.6393,0.7584,16.2671,24.5498,-6.9511,4.9444,-9.7045,12.3330,1.9280,-3.3570,-13.8824,13.1888,1.8954,-4.3717,-11.4894,7.9312
1574.2188,8.1816,8.7391,16.5253,-8.2166,0.0841,16.6793,24.7574,-7.4873,5.3003,-4.6056,12.5620,2.6564,-3.1685,-11.5509,19.9703,6.4392,-6.5731,-8.4460,8.0343
1578.1250,8.2717,10.2203,15.4416,-5.9605,0.2805,13.9195,26.0987,-6.4975,2.9882,0.8476,10.9378,2.3260,-3.3457,-8.8777,25.9569,9.9898,-8.5676,-5.8357,8.7704
1582.0312,5.9093,10.0302,14.6486,-4.6093,0.3714,10.4477,27.6767,-4.5288,-1.9823,4.1244,7.6278,1.4319,-4.6463,-6.9092,27.9102,10.8194,-10.8592,-4.3805,9.9112
1585.9375,0.8802,8.4527,14.2194,-4.1216,-0.5120,8.5965,27.6252,-2.3815,-8.0920,2.9566,4.1152,0.9405,-7.0380,-5.9390,25.0084,8.7425,-13.5273,-3.8299,11.0566
1589.8438,-6.2911,6.7626,14.0445,-3.8643,-2.6399,9.2804,24.7596,-0.6869,-13.2806,-3.1606,2.0426,1.5797,-9.8701,-5.5768,18.7150,5.1302,-16.2296,-3.3339,11.8032
1593.7500,-14.3084,6.3463,13.9340,-3.2236,-5.6045,11.8385,19.8634,0.2857,-16.1174,-12.1898,2.0526,3.3145,-12.4169,-5.2815,11.4493,2.0411,-18.5326,-2.2177,11.8659
1597.6562,-21.2996,7.6461,13.7100,-2.1478,-8.6174,14.8078,15.3854,0.5425,-16.4542,-20.2944,3.5008,5.3539,-14.3297,-4.8518,5.2979,1.0080,-20.2295,-0.5520,11.1497
1601.5625,-25.4179,9.7341,13.2718,-1.1799,-10.9216,16.8691,13.6725,0.1939,-15.2713,-23.9005,5.1459,6.6708,-15.6819,-4.4730,1.5170,2.2131,-21.3774,0.9120,9.7972
1605.4688,-25.7598,10.9227,12.6571,-0.9382,-12.0612,17.3537,15.1716,-0.5777,-13.9530,-21.8331,6.1442,6.6808,-16.6667,-4.3518,0.6177,4.5452,-22.0764,1.3859,8.2048
1609.3750,-23.0863,10.0351,12.0821,-1.4608,-11.9373,16.2419,18.1214,-1.3908,-13.5030,-16.0408,6.5146,5.6352,-17.2776,-4.3323,2.4008,6.4739,-22.2618,0.7599,6.9406
1613.2812,-19.6795,7.3963,11.8824,-1.9791,-10.7501,13.9827,20.0062,-1.5999,-14.1221,-10.2844,6.7732,4.4760,-17.2674,-3.8931,5.7518,7.1431,-21.7499,-0.1812,6.5200
1617.1875,-18.1026,4.7403,12.2968,-1.3826,-8.9376,11.3946,19.5394,-0.5308,-15.2765,-7.5897,7.1731,4.2405,-16.4079,-2.5647,8.6860,6.9209,-20.5129,-0.2508,7.1008
1621.0938,-19.4837,4.0236,13.1783,0.9096,-7.1136,9.5692,17.4847,2.0187,-16.1024,-8.2132,7.2859,5.3848,-14.8045,-0.4144,9.1839,7.0026,-18.9099,1.2661,8.2780
1625.0000,-22.5336,5.9909,13.8526,4.3319,-5.9128,9.5268,15.6448,5.3840,-15.8846,-9.5900,6.3155,7.4495,-12.9743,1.8450,6.5687,8.3411,-17.5944,3.9929,9.1614
1628.9062,-24.2238,9.5758,13.3287,7.3517,-5.7158,11.6044,14.9605,8.1812,-14.3927,-8.3499,3.8522,9.2918,-11.5946,3.2759,2.3246,10.7095,-17.0890,6.5814,8.7702
1632.8125,-21.9096,12.6128,10.8388,8.4300,-6.3824,14.9680,14.4640,9.0929,-11.9670,-2.9773,0.3696,9.7673,-11.0918,3.3817,-0.6674,12.6666,-17.3322,7.5448,6.5532
1636.7188,-15.4836,13.3422,6.4023,7.1331,-7.2202,17.7786,12.0950,7.8449,-9.3527,4.8140,-3.0286,8.4598,-11.3619,2.5135,-0.2847,12.5586,-17.5801,6.2618,2.7242
1640.6250,-7.8897,11.5817,1.0052,4.5858,-7.3111,18.1525,6.7401,5.6420,-7.3595,11.0325,-5.4577,6.0085,-11.8167,1.6921,2.8687,9.8809,-16.8142,3.4643,-1.8079
1644.5312,-3.3838,8.7052,-3.8037,2.8644,-6.0604,15.3935,-0.2874,4.5968,-6.4914,12.0530,-7.0064,3.8014,-11.7208,1.9539,5.4829,5.9517,-14.4139,0.8531,-5.8840
1648.4375,-4.6171,6.5010,-6.6982,3.6705,-3.6165,10.6087,-5.7254,6.3892,-6.7180,7.0969,-8.7313,3.1877,-10.6069,3.6749,3.9421,3.2665,-10.6316,0.0723,-8.6427
1652.3438,-10.6437,5.8391,-7.2552,7.1612,-0.8486,6.1376,-6.5917,11.0213,-7.5145,-1.1892,-11.8065,4.6696,-8.5325,6.3318,-2.5527,3.8547,-6.5267,1.7020,-9.8531
1656.2500,-17.4255,6.1812,-6.0950,11.7450,1.1434,4.0668,-2.4684,16.5794,-8.1614,-8.4292,-16.4302,7.5700,-6.0581,8.8295,-10.7231,7.7715,-3.3909,4.9138,-9.8800
1660.1562,-20.5997,6.2514,-4.4271,15.0068,1.6722,4.8333,3.9610,20.2665,-8.1393,-11.2593,-21.3369,10.3956,-3.9819,10.1366,-15.2007,12.8599,-2.0457,7.9904,-9.3796
1664.0625,-18.5339,5.2428,-3.3492,15.1597,0.8234,6.9326,8.5671,20.0788,-7.3832,-9.2208,-24.3668,11.6896,-2.9678,9.8026,-12.5765,16.0646,-2.4603,9.3506,-8.9608
1667.9688,-13.3949,3.5357,-3.3746,12.0751,-0.6983,7.9800,8.3763,16.0134,-6.2434,-4.6102,-23.7906,10.8544,-3.2307,8.0799,-4.4290,15.4436,-3.8851,8.4227,-8.9925
1671.8750,-9.4030,2.3478,-4.4206,7.2540,-2.0917,6.3839,3.2300,10.0019,-5.1944,-0.5932,-19.5182,8.4441,-4.4118,5.6748,3.2767,11.4722,-5.3401,5.8550,-9.5704
1675.7812,-9.5723,2.6406,-6.1114,2.8333,-2.9509,2.4388,-4.5208,4.6539,-4.5046,0.9443,-13.3551,5.7595,-5.7112,3.3670,4.3338,6.6995,-6.1034,3.0113,-10.5435
1679.6875,-13.4009,4.2206,-8.0474,0.3398,-3.3794,-1.9285,-11.7448,1.7117,-4.1001,0.3212,-8.0798,4.0177,-6.2503,1.7325,-2.9681,3.9894,-5.9268,1.1434,-11.5289
1683.5938,-17.2509,5.7925,-9.8282,0.0041,-3.7022,-4.5370,-16.2041,1.2596,-3.7018,-0.6823,-5.8915,3.6227,-5.5143,1.0423,-14.1702,4.5891,-4.9514,0.7743,-11.9640
1687.5000,-17.0895,5.9249,-10.9325,0.9767,-4.0570,-4.4355,-17.0804,2.1244,-3.1050,-0.4337,-7.1893,3.9766,-3.6457,1.2732,-21.5136,7.3658,-3.4989,1.6121,-11.2909
1691.4062,-11.4727,4.1398,-10.7366,2.1532,-4.2118,-2.4516,-14.4643,3.0164,-2.3668,1.3843,-10.4334,3.9146,-1.3878,2.1492,-19.3699,9.6767,-1.9174,2.9284,-9.2702
1695.3125,-2.5206,1.2540,-8.8148,2.9513,-3.7359,-0.4941,-8.7783,3.4870,-1.7434,3.8303,-13.1520,2.4600,0.3420,3.2152,-8.2236,9.1731,-0.5240,4.0691,-6.2414
1699.2188,5.7516,-1.2751,-5.3344,3.5307,-2.3479,-0.1913,-0.8606,4.0281,-1.4268,5.7149,-13.4370,-0.5646,1.0268,3.9898,5.7563,5.2423,0.4384,4.7616,-3.0809
1703.1250,10.3318,-2.4406,-1.1566,4.4253,-0.1374,-1.8590,7.5602,5.3821,-1.2940,6.5992,-10.9933,-4.4062,0.9111,4.1895,15.1716,-0.8193,0.8979,5.1052,-0.7691
1707.0312,11.0650,-2.3417,2.5715,5.9823,2.5092,-4.4533,13.9445,7.7388,-0.8850,6.9671,-7.1160,-7.7584,0.8740,3.9096,16.4604,-6.8158,1.0512,5.3658,0.2151
1710.9375,10.1569,-1.9279,5.1208,8.0697,5.1770,-6.4094,16.1125,10.5101,0.3430,7.5609,-3.6797,-9.4007,1.8484,3.6089,11.8180,-10.9597,1.3292,5.7817,0.2469
1714.8438,9.9770,-2.1139,6.6425,10.2156,7.6292,-6.6752,13.8614,12.8168,2.6495,8.5993,-1.8560,-8.7631,4.1407,3.8491,6.7871,-12.5651,2.1582,6.4883,0.3333
1718.7500,11.1339,-3.0201,7.9625,11.9708,9.7753,-5.2203,9.5832,14.1981,5.7870,9.6481,-1.4267,-6.1752,7.1114,4.9193,5.7104,-11.8771,3.6231,7.5143,1.3908
1722.6562,12.4196,-3.9232,9.8009,13.1316,11.4630,-2.7790,6.9411,14.8803,9.0847,10.2730,-1.1216,-2.7316,9.4620,6.5779,8.7379,-9.5059,5.2729,8.7451,3.5018
1726.5625,12.5124,-3.8744,12.0239,13.6378,12.3333,-0.1549,8.2375,15.3539,11.7920,10.8383,0.3149,0.1452,9.9737,8.0873,12.5684,-6.1028,6.2609,9.8282,5.7202
1730.4688,11.7494,-2.4143,13.5932,13.2924,11.9309,2.3328,12.4508,15.6477,13.4611,12.5990,3.1403,1.2795,8.2327,8.5262,13.9318,-2.4720,5.7928,10.1340,6.6435
1734.3750,12.1930,0.1812,13.3631,11.6392,10.0350,4.8762,15.7239,14.9959,14.1243,16.7700,6.4508,0.2534,4.8863,7.2013,12.6170,0.2668,3.6232,8.9198,5.4128
1738.2812,15.7119,3.2192,11.1656,8.2186,6.9652,7.7235,14.2899,12.3003,14.1673,23.1507,8.9536,-2.3564,1.2861,3.9468,11.4076,0.9582,0.2862,5.7189,2.4425
1742.1875,21.6513,6.0739,8.2936,3.0824,3.5969,10.6417,7.7534,7.1121,14.0001,29.4073,10.0526,-5.1676,-1.2270,-0.7933,13.0592,-0.8425,-3.0970,0.7647,-0.6780
1746.0938,26.2686,8.3749,6.8656,-2.8426,1.0225,12.7426,0.0595,0.3562,13.7524,31.8115,10.3517,-6.6047,-1.9498,-6.0874,17.0752,-4.2508,-5.3254,-4.8662,-2.1079
1750.0000,24.8746,9.8196,8.3991,-7.9348,0.0374,12.8728,-2.9565,-5.8824,13.1910,27.2638,11.1017,-5.7004,-1.0283,-10.7796,19.3017,-7.2779,-5.6590,-9.6028,-0.9117
1753.9062,15.4251,9.9618,12.5903,-10.6497,0.7489,10.3940,2.0975,-9.5222,11.9005,15.4493,12.9648,-2.6821,0.7641,-13.8502,15.0254,-8.0266,-4.1318,-12.1308,2.3275
1757.8125,0.9025,8.3740,17.2488,-10.4739,2.5173,5.8855,13.1550,-9.8599,9.6011,-0.2981,15.0976,1.0313,2.4466,-14.8176,3.2423,-6.1151,-1.5334,-12.1428,5.8522
1761.7188,-11.5926,5.1693,19.5569,-8.4218,4.2420,1.2605,23.4697,-8.1672,6.3964,-14.1741,15.4171,3.5086,3.1919,-14.0419,-11.4274,-3.2019,0.8852,-10.6020,7.8020
1765.6250,-14.8532,1.3952,17.8624,-6.6330,4.8435,-0.9548,25.9568,-6.9854,2.8010,-20.6554,12.0531,3.3456,2.5284,-12.7034,-21.0491,-2.0074,1.8577,-9.2703,7.3108
1769.5312,-6.1781,-1.2498,12.7993,-7.1735,3.7424,1.0506,18.1671,-8.4787,-0.4625,-17.3438,5.0056,0.4824,0.4428,-12.3024,-19.5291,-4.3545,0.5818,-9.7018,4.9480
1773.4375,10.5526,-1.4087,6.9666,-10.7022,1.1613,7.1332,4.3430,-12.8946,-2.7726,-6.2771,-3.2869,-3.7077,-2.5576,-13.8054,-6.9507,-9.6105,-2.8948,-12.2778,2.2925
1777.3438,26.8870,0.8717,3.3797,-15.8529,-1.8765,14.8715,-7.0149,-18.1815,-3.8572,7.0905,-9.0931,-7.1500,-5.4867,-16.9021,10.1118,-14.7705,-7.5541,-15.8948,0.9818
1781.2500,34.7133,3.8957,3.7168,-19.8267,-3.9217,20.5915,-8.5002,-21.0985,-3.8726,16.7060,-9.6319,-8.2125,-7.1686,-19.9386,22.6277,-16.2940,-11.7205,-18.5527,1.8505
1785.1562,30.9293,5.2771,7.4656,-19.9606,-3.7886,21.3647,1.5263,-19.1871,-3.3178,18.9630,-4.9129,-6.5887,-6.7967,-20.7597,24.7090,-12.5022,-13.8164,-18.5339,4.6175
1789.0625,18.8936,3.5695,12.4114,-15.3770,-1.2973,16.8503,18.0013,-12.3887,-2.8621,14.2698,2.1545,-3.3984,-4.5230,-18.0727,16.9517,-4.8493,-13.2681,-15.4652,8.1785
1792.9688,5.8444,-0.5840,16.0222,-7.6775,2.3617,9.7371,32.4075,-3.2783,-3.1672,6.3056,7.5369,-0.4648,-1.6547,-12.4621,5.4054,2.8764,-11.0313,-10.5901,11.2210
1796.8750,-1.8825,-4.6971,16.7973,-0.1669,5.0028,4.2905,37.8857,4.2759,-4.7260,-0.5003,8.5597,0.7729,-0.1631,-6.2740,-2.8300,6.9181,-9.2771,-6.0573,12.7962
1800.7812,-2.6642,-6.0240,14.8271,3.9953,4.5427,3.7526,32.8883,7.2384,-7.7047,-3.6793,5.4132,0.0546,-1.6370,-2.2924,-4.1742,5.8693,-10.2339,-3.6528,12.6213
1804.6875,-0.0532,-3.4063,11.4258,3.6012,0.2831,8.2417,21.3252,5.0374,-11.7984,-3.9483,0.7146,-1.6491,-6.2654,-2.0048,-0.2572,1.3878,-14.7857,-3.7734,11.0843
1808.5938,0.1799,1.9294,8.2602,0.0121,-6.4452,14.6166,9.5941,-0.2742,-16.1915,-4.2408,-2.4471,-2.8100,-12.5389,-4.6420,4.0738,-3.1052,-21.7260,-5.2945,9.0281
1812.5000,-5.7359,7.2001,6.5484,-3.8234,-12.8366,18.5099,2.7344,-5.3921,-19.7488,-7.2631,-2.5261,-2.2962,-17.9710,-7.7122,4.6708,-4.7446,-28.2674,-6.4041,7.3991
1816.4062,-16.9459,9.9061,6.6681,-5.3160,-16.1799,17.2058,2.0813,-7.7744,-21.4734,-13.2861,-0.2242,-0.0294,-20.4700,-8.7068,1.0418,-2.9339,-31.6093,-5.8353,6.8585
1820.3125,-28.5975,9.3464,8.1823,-3.8506,-15.5059,11.3718,5.4493,-7.0175,-21.0658,-19.7406,2.4108,3.0195,-19.5144,-6.7829,-3.5928,0.6440,-30.6016,-3.6645,7.4890
1824.2188,-35.1716,6.7623,10.1165,-0.9874,-12.1967,4.4155,9.1864,-4.7519,-19.2422,-22.9660,3.6004,5.4559,-16.3628,-3.2093,-4.9472,3.5466,-26.3900,-1.1419,8.7597
1828.1250,-34.2217,4.1330,11.3557,0.8591,-9.0619,-0.0481,10.5384,-3.2046,-17.4979,-20.9425,2.8872,6.3126,-13.1603,-0.2649,-1.0186,4.4112,-21.5738,0.3065,9.8197
1832.0312,-28.0377,2.6564,11.0868,0.2966,-8.4445,-0.7367,8.9832,-3.4706,-17.3013,-15.0645,0.9864,5.6185,-11.5481,0.5563,6.1904,3.7897,-18.4397,0.1811,9.9894
1835.9375,-22.1727,2.1093,9.1798,-1.9853,-10.6530,0.6372,6.0829,-4.7221,-19.1230,-9.5878,-1.1553,4.3520,-11.7201,-0.3556,11.7121,3.4834,-17.5152,-0.6893,9.1410
1839.8438,-21.8337,1.4942,6.3065,-3.7548,-13.8401,1.0216,4.2517,-4.9173,-21.9435,-8.9594,-3.1244,3.8032,-12.5401,-1.1719,10.7305,4.9808,-17.4667,-0.7595,7.6855
1843.7500,-28.4945,0.3002,3.6259,-2.9834,-15.4261,-1.3575,5.2273,-2.4878,-23.6972,-14.7694,-5.0080,4.7213,-12.5710,-0.2445,1.7915,8.1928,-16.3860,1.0340,6.1528
1847.6562,-38.9099,-0.7838,2.1086,0.5180,-14.0235,-5.5162,8.9998,2.2590,-22.5247,-24.4239,-6.8013,6.7713,-11.2240,2.4225,-11.9147,11.3913,-13.4628,4.3632,4.6825
1851.5625,-47.1337,-0.3713,1.8832,4.8363,-10.4329,-8.5419,13.6775,7.1241,-18.0919,-32.5385,-8.0400,8.6739,-9.1801,5.0772,-24.0676,12.3685,-9.7368,7.5948,2.8586
1855.4688,-48.2133,2.3035,2.0940,7.3265,-6.9639,-8.0304,16.3861,9.4996,-12.0448,-34.2045,-8.1664,9.0072,-7.7948,5.6406,-28.7292,9.9969,-7.3215,8.8802,0.0871
1859.3750,-41.1953,6.4034,1.4706,6.6287,-5.6118,-4.1126,14.8329,8.3236,-7.1434,-27.9907,-7.3175,7.2130,-7.9644,3.5314,-23.8356,5.1299,-7.6782,7.5156,-3.7343
1863.2812,-29.5790,9.7861,-0.7076,3.8113,-6.5076,0.6211,8.7428,5.0535,-5.5108,-16.7315,-6.6595,4.1541,-9.3252,0.3913,-12.5749,0.2481,-10.2959,4.5951,-7.7991
1867.1875,-19.0427,10.4987,-3.9421,1.7215,-7.8519,3.2531,0.2771,2.8321,-7.1386,-5.6842,-7.6903,1.7728,-10.4065,-0.9817,-1.7246,-1.9298,-12.8639,2.4260,-10.6533
1871.0938,-14.0159,8.3513,-6.7018,2.9508,-7.3903,2.9446,-6.9904,4.3282,-9.7512,0.5910,-10.8986,1.9470,-9.6443,1.2356,2.1719,-0.0188,-12.8972,3.0353,-11.0573
1875.0000,-15.3194,5.2712,-7.4312,7.8822,-4.2690,1.5544,-10.0776,9.7515,-10.2721,0.5305,-14.9340,5.2045,-6.5265,6.3284,-3.4575,5.2120,-9.6254,6.7539,-8.8701
1878.9062,-20.2500,4.0105,-5.7027,14.2754,0.2082,1.8696,-8.3577,16.5066,-6.9951,-4.2854,-17.2355,10.1481,-2.0384,11.3297,-15.8471,11.2368,-4.6937,11.8622,-5.2807
1882.8125,-24.7833,6.0660,-2.6544,18.7357,3.5522,4.8839,-3.8737,20.8233,-0.9589,-10.8419,-15.9037,14.0740,1.9189,13.0505,-28.7461,15.1293,-1.0748,15.5797,-2.1448
1886.7188,-26.2016,10.3606,-0.3153,19.0317,4.0551,8.4704,0.0990,20.2766,4.5393,-16.7264,-11.4265,14.5074,3.7399,10.3906,-36.2769,15.0785,-0.9372,15.7785,-0.8399
1890.6250,-24.3628,13.7635,-0.2286,15.6000,2.2101,8.7532,1.2947,15.4348,6.1015,-21.0068,-6.7341,10.7299,3.1237,5.2011,-36.2738,11.1998,-4.0297,12.3020,-1.4285
1894.5312,-20.9908,13.1954,-2.3285,11.1778,0.4451,3.2604,-0.0787,9.4690,2.6439,-23.6411,-5.2468,4.2951,1.2129,1.0312,-30.9583,5.2250,-7.7939,7.0392,-2.7146
1898.4375,-17.8611,7.8591,-4.8915,8.8767,1.3290,-6.6568,-1.7226,6.0094,-3.6283,-24.3733,-8.2286,-1.8539,-0.1894,0.6699,-24.6917,-0.6628,-9.1434,2.7421,-3.1290
1902.3438,-15.4489,-0.0218,-5.6410,10.1198,5.6013,-16.2466,-1.1833,6.7722,-8.4660,-22.3877,-13.5176,-5.1366,0.2376,4.2910,-20.6084,-5.0755,-6.6176,1.3937,-1.7907
1906.2500,-13.0253,-6.5407,-3.2703,13.8902,11.5244,-20.5424,2.1360,10.6022,-8.2884,-17.1433,-16.8217,-4.8263,2.5939,9.5216,-18.6534,-7.9616,-1.3466,3.1830,1.0007
1910.1562,-9.8787,-8.6258,1.6445,17.7075,16.0451,-17.9759,6.4326,14.5063,-2.5487,-9.5803,-14.8199,-2.3159,5.8523,13.2875,-16.3736,-10.1634,3.8433,6.6693,4.1159
1914.0625,-6.3935,-5.9972,6.9483,19.4729,16.8859,-11.5937,8.8550,15.8177,5.8723,-2.3818,-7.7932,-0.0257,8.6311,13.9776,-11.6197,-12.4008,6.4749,9.8940,6.4320
1917.9688,-3.9224,-1.2266,10.2079,18.7766,14.0199,-6.8262,7.7045,13.8942,12.5280,1.3098,0.3039,0.2607,10.0729,12.3200,-4.8215,-14.4865,6.0986,11.6067,7.4873
1921.8750,-3.5328,2.0897,10.1542,16.8127,9.5106,-7.4367,3.8022,10.2350,14.2579,-0.0303,4.5567,-1.5095,10.2633,10.4442,1.1021,-15.3872,4.4169,11.8069,7.5362
1925.7812,-4.8007,1.7327,7.3832,15.1855,5.9718,-12.7505,0.0007,7.1518,11.1017,-5.0495,2.6714,-3.8209,10.0079,10.0324,3.1512,-14.0786,3.8733,11.3800,7.1229
1929.6875,-5.8850,-1.8069,3.9671,14.6964,4.8955,-18.3118,-0.7430,6.1599,6.0470,-10.2236,-3.2478,-4.7797,10.2233,11.0952,0.9429,-10.5064,5.8404,11.2574,6.6629
1933.5938,-5.0321,-5.8765,2.3110,15.0623,6.0615,-19.4518,2.7444,7.2854,2.9062,-12.2031,-8.0998,-3.4099,11.3969,12.2834,-2.6500,-5.8477,9.7597,11.7822,6.4048
1937.5000,-2.3191,-7.5637,3.9629,15.6124,8.2727,-14.9662,9.3509,9.5916,3.8715,-10.1205,-7.3722,-0.1568,13.4244,12.3257,-3.6153,-1.8081,13.7664,12.6779,6.6972
1941.4062,-0.0355,-5.5581,8.9755,16.1565,10.5905,-8.0149,16.7488,12.2045,8.3912,-6.0996,-0.2730,3.6292,15.8120,11.2553,-0.0536,0.5279,16.1741,13.4715,8.1273
1945.3125,-1.0746,-0.7616,16.0036,17.1287,12.9539,-3.5595,23.0136,14.8189,13.9483,-3.5236,9.8537,6.6849,17.9955,10.3264,6.1122,1.3653,16.6018,13.8868,11.1974
1949.2188,-6.3791,4.5701,22.9393,18.8437,15.7284,-4.3909,27.4899,17.2944,17.9483,-4.3607,18.0133,8.4899,19.5322,10.6864,10.5066,1.8110,15.9214,13.8396,15.6906
1953.1250,-13.4762,8.3494,27.7341,20.6023,18.7501,-8.9102,30.4025,18.8983,19.2540,-7.6228,20.9748,9.1752,20.1136,11.9949,9.7975,2.7162,15.2161,13.1125,20.3068
1957.0312,-17.5387,9.7271,29.1178,20.6333,20.8951,-12.4157,31.8497,18.1577,18.3823,-10.1970,19.0694,8.9590,19.5300,12.2922,4.5544,3.7322,14.7297,11.1434,23.0886
1960.9375,-14.5432,9.1309,27.0345,17.1996,20.7285,-10.8654,31.3011,13.7513,16.5215,-9.4470,15.2270,7.7637,17.7368,9.4110,-0.9104,3.4725,13.7257,7.2998,22.5691
1964.8438,-4.3637,7.5410,22.6817,10.1463,17.7758,-4.1296,28.1589,5.8573,14.4045,-5.5639,12.3062,5.4260,15.0139,2.8999,-1.7330,0.7948,11.3485,1.5589,18.9032
1968.7500,8.5467,5.7559,18.0872,1.6196,13.3033,3.8212,22.8674,-3.2345,12.0128,-1.7706,10.9968,2.2847,12.0489,-5.1171,3.7200,-3.7854,7.6960,-4.9524,14.0855
1972.6562,17.6199,4.1917,15.2958,-4.8400,9.7850,7.9131,17.4324,-10.0290,9.2179,-2.0957,9.9101,-0.5085,9.7598,-10.9969,12.4713,-7.8204,4.1054,-10.1494,10.9083
1976.5625,18.2321,3.1425,15.4545,-6.4191,9.2793,5.7838,14.6185,-11.8727,6.5790,-8.2984,7.5393,-1.4440,8.8570,-11.9361,19.0965,-8.2975,2.2998,-12.0261,11.2383
1980.4688,10.5867,2.9987,18.2415,-2.9498,11.8846,-0.5343,16.2084,-8.7535,5.3728,-18.2272,4.2048,0.3087,9.3833,-7.9573,19.7700,-3.8515,3.0142,-9.9632,14.7655
1984.3750,-0.5695,4.0436,21.9997,2.7894,15.4978,-6.2705,21.5908,-3.4777,6.6514,-26.8804,2.1834,4.0674,10.5694,-2.0341,15.0339,3.8065,5.2139,-5.3859,19.1373
1988.2812,-9.1436,5.9797,24.5815,6.7299,17.1651,-7.5022,27.8359,0.0536,10.0829,-29.4929,3.8340,7.7853,11.1845,1.8087,9.1478,10.4961,6.6225,-1.1658,21.4507
1992.1875,-11.5277,7.7395,24.4820,6.0737,15.1068,-3.8470,31.3584,-0.6457,13.6647,-24.5366,9.3082,9.2646,10.2365,1.1125,6.5980,12.0595,5.2752,0.0066,20.1145
1996.0938,-8.4635,7.9897,21.6226,1.0438,9.9581,1.7060,30.0870,-5.0758,14.7849,-14.6433,15.8625,7.6614,7.6052,-3.4964,8.5818,7.1519,0.9905,-2.7112,15.8273
2000.0000,-3.8884,6.1183,17.3323,-5.3440,4.3262,5.4490,24.6740,-10.1999,11.9916,-4.9596,19.5189,4.1797,4.1829,-8.8924,12.2462,-1.6206,-4.3483,-7.7262,11.0404
2003.9062,-1.9118,2.9460,13.5512,-9.2893,0.9955,5.8098,17.9704,-12.5561,6.1399,-0.1780,17.8868,1.3680,1.3828,-11.6346,13.2062,-9.1123,-7.9696,-11.9642,8.3296
2007.8125,-4.2379,0.4507,11.7448,-8.6084,1.0754,4.1558,13.2041,-10.5317,-0.0645,-2.1933,11.9629,1.4388,0.2808,-10.1696,9.2499,-10.7514,-8.0605,-12.7989,8.8123
2011.7188,-9.7187,0.5064,12.1633,-3.9550,3.3739,3.1227,12.1275,-5.2665,-3.9191,-9.6456,5.4799,4.7716,0.9124,-5.5837,2.2459,-5.3139,-5.0157,-9.7147,11.6298
2015.6250,-15.9203,3.4735,13.8285,1.8211,5.3406,4.0957,14.2731,0.2921,-4.6581,-19.1897,2.2744,9.6565,2.1752,-0.5701,-3.2223,4.4460,-1.2387,-4.6099,14.7006
2019.5312,-21.1133,7.7366,15.1796,5.5801,4.8079,6.0555,17.5891,3.3585,-3.9979,-27.3160,3.6635,13.4464,2.4242,2.4670,-3.3403,13.6298,0.3419,-0.5530,16.0958
2023.4375,-25.0657,10.6714,14.9533,5.7264,1.2891,6.7072,19.8180,2.8890,-4.8239,-31.5817,7.7586,14.2829,0.4211,2.7865,2.1042,18.1700,-1.9614,0.1717,15.0787
2027.3438,-28.2920,10.4467,12.8152,2.8588,-3.9498,4.7972,19.6729,-0.1681,-8.9477,-30.9415,11.0987,12.1875,-3.9173,1.3483,9.6666,16.9745,-7.6698,-2.5581,12.2489
2031.2500,-30.8083,7.3593,9.4665,-0.9487,-8.8893,1.5019,17.2272,-3.8346,-15.6050,-25.6389,11.2178,8.8267,-9.4066,-0.2316,14.8297,12.0112,-14.5375,-6.7605,8.9276
2035.1562,-31.7708,3.6601,6.2501,-3.5352,-11.9818,-0.4031,13.5642,-6.3701,-21.8503,-17.1811,8.1674,6.2416,-14.1764,-0.8505,15.0789,6.5959,-19.8824,-9.7135,6.3642
2039.0625,-30.4031,1.9303,4.4914,-3.7508,-12.7951,1.0515,10.1078,-6.9641,-24.5938,-8.3506,3.9911,5.5291,-16.6090,-0.3736,11.1515,3.2742,-21.9542,-9.6526,5.2662
2042.9688,-27.2853,3.1787,4.8701,-1.7303,-11.8560,5.1027,8.0207,-5.6402,-22.7957,-2.7002,0.8268,6.3773,-16.1190,0.7379,5.8119,2.7043,-20.5831,-6.6899,5.7380
2046.8750,-24.5959,6.0953,7.0711,1.5347,-10.0790,8.5370,7.8052,-2.8246,-18.1980,-3.1672,-0.6939,7.6280,-13.3782,2.0671,1.4954,3.9916,-16.9332,-2.4636,7.3928
2050.7812,-24.7495,8.0523,9.8568,4.8220,-8.3076,8.1036,9.1001,0.8644,-14.0619,-10.2679,-1.5122,8.2729,-9.9139,3.5120,-1.1472,5.8387,-12.7251,1.0810,9.4223
2054.6875,-28.3493,7.1239,11.5637,7.0993,-7.1830,3.1851,10.7131,4.4892,-12.8549,-21.0842,-2.8372,8.0753,-7.3392,5.0262,-2.8439,7.4682,-9.4630,2.8564,10.6783
2058.5938,-33.1805,3.5971,10.8464,7.6832,-7.1594,-3.4471,11.0011,6.7137,-14.5941,-30.1262,-4.7904,7.4399,-6.6267,6.2272,-4.2153,8.7334,-7.9957,2.9956,9.9731
2062.5000,-35.3319,-0.1875,7.3368,6.3208,-8.4086,-7.4996,8.5923,6.2005,-17.0313,-32.0285,-6.2602,6.8149,-7.7663,6.3907,-4.8433,9.6368,-8.4348,2.3370,6.6462
2066.4062,-31.8775,-1.5591,1.8590,3.3133,-10.6079,-6.2795,3.1631,2.4415,-17.4807,-24.6514,-6.0828,6.2395,-9.9177,4.9548,-3.8067,9.9274,-10.2863,1.5913,1.0935
2070.3125,-23.1927,0.4997,-3.9640,-0.4206,-12.8945,-0.6913,-4.2092,-3.5634,-14.8801,-10.5959,-4.4401,5.4176,-11.9224,2.1250,-1.0549,9.2182,-12.6915,0.8820,-5.2142
2074.2188,-13.0756,4.6167,-8.5350,-3.5504,-14.2273,5.4283,-11.4410,-9.4481,-10.5498,4.0275,-3.1288,4.1694,-12.8901,-0.9987,1.8983,7.4685,-14.7475,-0.0542,-10.4297
2078.1250,-6.4076,8.0904,-11.0655,-4.8572,-14.0372,8.1320,-16.4437,-12.5789,-7.1287,12.9788,-4.3125,2.7736,-12.5740,-2.9964,2.8732,5.2837,-15.8631,-1.3008,-13.3968
2082.0312,-5.9517,8.9173,-11.8362,-3.8312,-12.6828,6.2002,-18.1506,-11.5042,-6.5382,13.3411,-8.6918,1.8447,-11.3778,-3.0322,0.8724,3.6522,-15.9990,-2.4021,-14.3476
2085.9375,-10.5931,7.2231,-11.7860,-0.9498,-11.2606,1.8808,-16.9370,-6.7969,-8.5196,6.8628,-14.6121,1.8516,-10.0254,-1.4073,-2.8215,3.2804,-15.6054,-2.5649,-14.6514
2089.8438,-16.3008,5.0117,-11.7357,2.5881,-10.7919,-0.9585,-14.2099,-0.6937,-10.8257,-1.6000,-18.9442,2.7253,-9.0896,0.6819,-5.5065,4.0848,-15.2255,-1.2715,-15.7168
2093.7500,-19.0750,4.4626,-11.8174,5.5248,-11.3570,0.1887,-11.5117,4.2419,-10.8870,-7.3929,-19.1828,3.9251,-8.6449,2.0096,-5.3821,5.2979,-14.9918,1.2128,-17.8273
2097.6562,-17.6837,6.1289,-11.5165,7.1744,-11.8903,4.5940,-9.7593,6.5370,-7.6993,-8.8438,-15.2153,4.9016,-8.2406,2.1545,-3.3859,6.1103,-14.4057,3.8826,-19.8248
2101.5625,-14.1882,8.4533,-10.2656,7.6261,-10.8878,8.8630,-9.0517,6.4048,-2.5461,-7.7049,-9.4250,5.5232,-7.2147,1.6838,-2.7628,6.3019,-12.6395,5.5943,-19.9511
2105.4688,-11.9520,8.9822,-8.0877,7.4534,-7.5586,9.4404,-8.9923,5.2401,1.9418,-7.1522,-5.0381,6.0593,-5.1602,1.5865,-6.3841,6.3099,-9.2187,5.7891,-17.2644
2109.3750,-12.7301,6.3336,-5.7428,7.2194,-2.5398,5.1780,-9.1211,4.5054,3.6721,-8.9502,-3.9281,6.7334,-2.2508,2.4437,-13.8338,6.6683,-4.5920,4.8075,-12.5433
2113.2812,-15.0999,1.3901,-4.2177,7.1719,2.4321,-1.8479,-9.0883,4.8439,2.5591,-11.9045,-5.4535,7.2872,0.8031,4.0021,-20.7723,7.3123,-0.0966,3.5846,-7.9195
2117.1875,-15.4510,-3.2183,-3.9391,7.3100,5.7096,-7.7460,-8.5476,5.9636,0.5501,-12.7162,-7.0990,7.0294,3.1718,5.4651,-21.4987,7.3919,2.7738,2.9866,-5.4280
2121.0938,-10.8017,-4.9698,-4.3409,7.6773,6.9155,-9.3652,-7.0463,7.2052,0.2388,-8.5799,-6.3622,5.4239,4.4515,6.2291,-13.1172,5.8363,3.3610,3.2964,-5.5176
2125.0000,-1.3317,-3.2653,-4.1750,8.5557,7.2149,-6.2475,-4.1739,8.2322,3.0668,0.3863,-2.4980,2.7450,4.9774,6.4461,1.7534,2.2841,2.3949,4.1986,-6.6497
2128.9062,9.2806,0.1305,-2.3862,10.3459,8.4442,-0.7898,0.0686,9.2963,8.3437,10.6653,3.0492,0.1795,5.6674,6.9489,15.9474,-2.3587,1.6591,5.1947,-6.3406
2132.8125,16.0315,2.3261,1.0777,13.2085,11.7305,3.3066,4.9968,10.9391,13.7003,17.2335,7.6816,-0.8498,7.4530,8.5932,22.0149,-6.2389,2.9169,6.0541,-2.9358
2136.7188,15.7984,1.2967,5.1295,16.7539,16.6158,3.2007,9.3761,13.4339,16.6019,16.6064,9.3116,0.2871,10.6318,11.5261,16.9543,-7.6238,6.7801,6.9183,3.1486
2140.6250,9.3878,-2.7845,8.1960,20.0512,21.3149,-1.5995,11.9603,16.4191,15.8921,9.0575,7.5283,2.8335,14.5603,14.9359,4.1676,-6.0151,12.2634,8.0055,9.6023
2144.5312,1.0818,-7.7523,9.2013,21.9881,23.8814,-9.1155,12.1103,18.9693,12.4011,-1.3933,3.6458,5.0130,17.9037,17.4640,-8.6852,-2.5405,17.3182,9.2126,13.6768
2148.4375,-3.9430,-10.9410,8.1853,21.7703,23.4073,-15.9979,10.0990,20.0208,8.3295,-9.1681,-0.1771,5.1660,19.3194,17.9753,-14.4179,0.6730,19.9875,9.9990,13.8817
2152.3438,-2.5809,-10.8534,6.1540,19.2633,20.4162,-19.1429,6.9452,18.8642,5.8967,-10.1109,-2.0589,2.8561,18.1708,16.1534,-10.4343,1.7623,19.4396,9.6875,10.7636
2156.2500,4.7053,-7.9034,4.3290,15.0062,16.2742,-17.0527,3.9406,15.4449,6.1280,-3.5176,-1.1414,-0.8636,14.8524,12.5629,0.3521,0.2288,16.2711,7.9550,6.3228
2160.1562,14.5883,-3.8919,3.3780,9.9328,12.1775,-10.4220,2.1741,10.3698,8.4547,7.7911,2.2496,-4.2153,10.5505,8.2216,12.0291,-2.8000,11.9891,5.1070,2.6048
2164.0625,23.0486,-0.7670,3.1586,4.9792,8.5207,-1.7985,2.2402,4.6665,11.2334,19.1193,6.8767,-5.9101,6.6122,4.0323,19.5815,-5.2929,8.1043,1.8943,0.5200
2167.9688,27.4774,0.4124,3.0774,0.7667,5.0478,5.5126,4.1244,-0.5968,12.7522,26.1292,11.0714,-5.9101,3.9140,0.4445,21.4849,-5.5600,5.4343,-1.0031,-0.3418
2171.8750,27.4854,-0.2810,2.6985,-2.5348,1.5224,8.8602,7.1923,-4.6996,12.0995,26.4558,13.2941,-5.2137,2.5815,-2.5231,19.5857,-3.2637,3.9695,-3.4234,-0.9406
2175.7812,24.2618,-2.1079,2.1057,-5.1443,-1.7350,7.3731,10.3077,-7.5165,9.4675,20.1372,12.7049,-4.9053,2.1592,-5.0310,16.9068,0.3976,3.2221,-5.7474,-1.7829
2179.6875,19.3067,-4.2930,1.7840,-7.4489,-3.9055,2.2644,12.1903,-9.4816,5.8588,9.0829,9.5755,-5.2582,2.0484,-7.1763,15.2983,3.4269,2.6971,-8.4746,-2.4765
2183.5938,13.5959,-6.3299,2.1931,-9.7097,-4.2434,-3.8659,12.0084,-11.2338,2.4882,-3.8097,5.2820,-5.5903,1.9016,-8.9041,14.5799,4.2339,2.1547,-11.6812,-2.1078
2187.5000,7.6587,-7.8847,3.4208,-11.8252,-2.6385,-8.3749,9.9309,-13.1110,0.2511,-15.4272,1.7276,-4.9376,1.7478,-10.0658,13.4347,2.5787,1.5788,-14.7904,-0.0489
2191.4062,2.2044,-8.5919,5.1753,-13.3017,0.3091,-9.8228,7.2087,-14.8167,-0.5102,-23.0378,0.3913,-2.9595,1.8349,-10.5285,10.9921,-0.3279,1.0067,-16.8567,3.4792
2195.3125,-1.5092,-8.0608,7.0543,-13.5009,3.7384,-8.4313,5.5593,-15.5434,0.0509,-24.8799,1.5303,-0.3289,2.3573,-10.2616,7.7322,-2.6396,0.4221,-17.1746,7.4957
2199.2188,-2.0966,-6.1287,8.8064,-12.0675,7.0938,-5.5735,6.1372,-14.5336,1.4781,-20.7745,4.0720,1.7004,3.2747,-9.3851,5.1038,-3.0930,-0.2145,-15.7819,10.8713
2203.1250,0.9539,-3.1045,10.3593,-9.2743,10.3281,-2.7402,8.7794,-11.7117,3.1775,-12.4697,6.3192,2.1959,4.3248,-8.1791,4.3397,-1.8225,-0.8784,-13.4952,12.9626
2207.0312,6.5047,0.2789,11.6465,-6.0129,13.6114,-0.7126,12.1287,-7.8988,4.5123,-3.2893,7.0295,1.2116,5.1812,-7.0335,5.5085,-0.1849,-1.4614,-11.4483,13.8313
2210.9375,11.9924,3.2339,12.4651,-3.3652,16.8507,0.5811,14.6087,-4.3868,4.8880,3.0691,6.1439,-0.2739,5.6209,-6.3120,7.5345,0.3351,-1.8570,-10.4430,13.9788
2214.8438,14.7343,5.3506,12.5556,-1.9990,19.4756,1.6223,15.5328,-2.1426,3.9074,4.1760,4.6742,-1.0629,5.5864,-6.1677,9.1017,-0.6161,-2.0798,-10.5340,13.8871
2218.7500,13.5537,6.7587,11.8553,-1.8059,20.6881,2.7868,15.4582,-1.2362,1.5736,0.0944,3.8686,-0.5272,5.1219,-6.4303,9.6945,-1.7955,-2.3098,-11.0894,13.7261
2222.6562,9.5873,7.8991,10.6733,-2.0652,19.9595,4.2004,15.4721,-0.9542,-1.5990,-6.5990,4.2907,1.0851,4.2565,-6.6841,9.9749,-1.1592,-2.8231,-11.2489,13.3799
2226.5625,5.5819,9.0911,9.5701,-2.0399,17.3484,5.9613,15.9998,-0.5236,-4.7255,-12.1588,5.4782,2.9803,2.9376,-6.5339,11.2141,2.5390,-3.8556,-10.4570,12.6722
2230.4688,4.0041,10.2367,8.9873,-1.5590,13.3949,8.3280,16.2015,0.1485,-6.9623,-13.7093,6.3875,4.4575,1.0744,-5.8869,14.1771,8.5038,-5.4842,-8.7438,11.5681
2234.3750,5.1843,10.8806,8.9258,-1.1162,8.7323,11.5208,14.6020,0.3690,-7.9939,-10.8178,6.2317,5.3564,-1.3329,-5.0188,18.2387,14.0517,-7.5722,-6.6187,10.2253
2238.2812,6.8372,10.5665,8.9748,-1.3749,3.7929,15.2351,10.5547,-0.6649,-8.2653,-5.6591,5.0590,6.0323,-4.0684,-4.3331,21.3907,16.2609,-9.7794,-4.6975,8.9281
2242.1875,5.4608,9.2158,8.7155,-2.4593,-1.1417,18.3892,5.3240,-2.9400,-8.7355,-1.6476,3.6650,6.9698,-6.6849,-3.9785,21.2584,14.0574,-11.6290,-3.3259,7.9999
2246.0938,-1.1717,7.2593,8.1818,-3.6338,-5.6656,19.5648,1.7219,-5.2702,-10.2327,-1.3491,2.9661,8.3754,-8.6496,-3.6521,16.6094,9.1995,-12.6432,-2.4312,7.7248
2250.0000,-12.0788,5.4491,7.9624,-3.7124,-9.1289,18.0238,2.3331,-5.9332,-12.8138,-4.9340,3.3450,10.0297,-9.6031,-2.8111,8.4511,5.2868,-12.5497,-1.6671,8.2347
2253.9062,-23.1294,4.4918,8.7846,-1.9651,-10.9338,14.5606,7.5617,-3.9228,-15.6022,-10.1133,4.4367,11.4233,-9.5964,-1.1887,-0.0673,5.3300,-11.4923,-0.7335,9.3454
2257.8125,-29.2754,4.7322,10.8449,1.1602,-11.0917,11.3712,15.0293,0.1405,-17.2966,-13.5853,5.4337,12.0113,-9.1446,0.7894,-5.1090,9.5690,-10.0994,0.3487,10.4427
2261.7188,-27.6503,6.0399,13.4096,4.1250,-10.5423,10.7718,20.9233,4.2310,-17.0643,-13.0911,5.6019,11.4202,-9.0168,2.0901,-4.2764,15.1756,-9.2823,1.1939,10.5904
2265.6250,-19.5185,7.9076,15.0560,5.2416,-10.8024,13.5422,22.4016,6.2339,-15.2013,-8.8031,4.6119,9.5610,-9.8313,1.7148,1.8248,18.1792,-9.7872,1.2838,8.9290
2269.5312,-9.7007,9.6711,14.4656,3.8526,-13.0083,18.1177,19.3055,5.4381,-13.0379,-3.1866,2.5347,6.6925,-11.6692,-0.5093,9.6614,16.2961,-11.7323,0.3423,5.1999
2273.4375,-3.7244,10.7424,11.2504,0.8836,-16.9601,21.3719,13.9239,3.0809,-12.0804,0.5663,-0.3456,3.4340,-13.9511,-3.5893,14.6382,10.5961,-14.4500,-1.3864,0.0554
2277.3438,-4.4873,10.7848,6.2319,-1.6797,-20.9087,20.5926,9.0528,1.4813,-12.9593,0.5421,-3.6539,0.6431,-15.6923,-5.8173,13.7368,4.7246,-16.8064,-3.1649,-5.1194
2281.2500,-10.5977,9.7917,0.9662,-2.0655,-22.3846,15.3084,5.9085,2.3625,-14.9545,-2.7142,-6.9054,-0.9073,-16.0246,-5.7829,7.2723,2.1968,-17.8540,-4.1253,-8.8424
2285.1562,-17.4651,8.0513,-3.1662,0.1517,-19.6323,7.6490,3.5270,5.6011,-16.4980,-6.5821,-9.5081,-0.9537,-14.6886,-3.2707,-1.4300,3.7543,-17.4079,-3.7750,-10.2638
2289.0625,-20.3692,6.0082,-5.6934,3.8622,-12.7368,0.9542,0.0392,9.3441,-16.3364,-8.0542,-10.9770,0.0053,-12.1928,0.5974,-8.2899,6.7813,-16.1448,-2.3215,-9.5349
2292.9688,-17.4182,4.0781,-7.1443,7.2836,-3.6859,-2.3675,-5.3290,11.4056,-14.5056,-5.6343,-11.3285,0.8883,-9.5327,4.0992,-11.1522,7.2621,-15.1387,-0.5757,-7.6005
2296.8750,-10.4318,2.5125,-8.5051,9.2130,4.6891,-2.1859,-11.2632,10.8890,-12.3543,-0.2208,-11.3326,0.6350,-7.6414,6.0108,-11.0225,2.8468,-15.1467,0.5447,-5.5939
2300.7812,-3.2840,1.3844,-10.4747,9.7366,10.2066,-0.2812,-15.2424,8.8106,-11.5367,5.5797,-12.2730,-1.1112,-6.9163,6.2913,-10.9838,-5.2635,-16.1439,0.6011,-4.2637
2304.6875,0.9765,0.6876,-13.0347,9.9079,12.3199,1.3338,-15.5739,7.2693,-12.6863,9.2218,-15.1774,-3.7228,-7.1047,5.8907,-13.6015,-13.0345,-17.4166,-0.0921,-3.7815
2308.5938,2.1071,0.4522,-15.5633,10.7107,12.0478,2.0147,-12.8657,7.8123,-14.7826,9.8624,-19.9472,-5.9511,-7.5813,5.8784,-18.7714,-16.3936,-18.1049,-0.7156,-3.9445
2312.5000,2.3880,0.7615,-17.3136,12.1637,11.0407,2.7484,-9.6583,10.2443,-15.7494,8.7633,-25.0373,-6.7192,-7.7845,6.5922,-23.6628,-14.0324,-17.7545,-0.5548,-4.4949
2316.4062,4.4407,1.6429,-17.8598,13.2832,10.5045,4.9371,-8.4597,12.7688,-13.9132,8.2073,-28.0698,-5.7984,-7.4951,7.4576,-24.8327,-8.1730,-16.4620,0.4675,-5.2535
2320.3125,8.9230,2.9170,-17.2239,12.9248,10.6808,8.7754,-9.7714,13.3312,-9.2743,9.7255,-27.1487,-3.8934,-6.7954,7.5811,-20.9145,-2.8147,-14.5559,1.7393,-6.0079
2324.2188,13.9141,4.1474,-15.6951,10.8132,11.0848,12.6255,-11.7319,11.1404,-3.6349,12.9203,-22.0936,-2.1016,-5.8076,6.6026,-13.8104,-0.8510,-12.1470,2.4433,-6.3721
2328.1250,16.4527,4.7647,-13.5793,7.9215,11.1437,13.9794,-11.6993,7.2491,0.5487,15.7403,-14.7610,-1.1782,-4.4793,5.0973,-7.4431,-2.2233,-8.9862,2.2173,-5.8710
2332.0312,14.9976,4.3123,-11.1028,5.8660,10.6733,11.3019,-8.4993,3.8066,1.7821,16.0067,-8.1605,-1.1575,-2.6219,4.1852,-4.9952,-4.3875,-4.7885,1.4758,-4.2779
2335.9375,10.8430,2.6702,-8.4897,5.7624,9.8795,5.3126,-3.5095,2.5772,0.4588,13.0707,-4.8437,-1.5659,-0.1741,4.6517,-6.7261,-4.5745,0.2466,1.1167,-1.9375
2339.8438,7.3200,0.1381,-6.0490,7.4146,9.0126,-1.3213,0.3149,3.8124,-1.5463,8.3811,-5.5327,-1.9696,2.5486,6.2808,-9.9896,-2.0113,5.2019,1.8156,0.2581
2343.7500,7.3404,-2.6459,-4.1115,9.4567,8.0688,-5.6811,0.7064,6.2338,-2.2634,4.5453,-8.8108,-2.3500,4.8716,7.9453,-11.3528,1.5707,8.7882,3.4487,1.3293
2347.6562,11.1536,-4.8873,-2.8306,10.3435,6.8314,-6.4275,-2.1633,8.0431,-0.9414,3.5820,-12.0232,-2.9905,6.0954,8.4093,-9.1051,3.4027,10.0933,5.1163,0.8237
2351.5625,16.0651,-5.8572,-2.0336,9.4462,5.2030,-4.4479,-5.8171,8.1693,1.6551,5.6514,-12.7911,-4.0210,5.9343,7.2456,-4.2314,1.8608,9.2082,5.7853,-0.8682
2355.4688,18.3794,-5.1353,-1.3029,7.4479,3.5074,-1.9593,-7.3419,6.8790,4.0776,9.1504,-10.2171,-5.0860,4.7399,5.1779,0.7590,-2.3466,7.2436,5.0796,-2.7542
2359.3750,16.1150,-2.8544,-0.2768,5.7788,2.4556,-0.8735,-5.4836,5.4199,5.3988,11.9999,-5.1399,-5.5018,3.3282,3.5959,4.0049,-6.8042,5.6858,3.6072,-3.8711
2363.2812,10.4368,0.1551,1.0579,5.5536,2.7509,-1.6976,-1.3492,5.0608,5.8031,13.0574,0.5593,-4.8178,2.5090,3.6072,5.5847,-9.2033,5.5189,2.5512,-3.8328
2367.1875,4.7316,2.5041,2.3413,6.8135,4.6085,-3.6691,2.7172,6.2491,6.1525,12.5710,5.0413,-3.3005,2.6329,5.3137,6.9117,-8.8766,6.7032,2.8181,-2.8954
2371.0938,2.0713,2.7847,3.1506,8.6017,7.5427,-5.7570,5.0481,8.4118,7.0009,11.4519,7.3073,-1.8698,3.4528,7.7989,8.9271,-6.9528,8.3290,4.3827,-1.5362
2375.0000,3.0416,0.3720,3.4291,9.7445,10.5863,-7.5108,5.7801,10.4213,7.9861,10.1499,7.3643,-1.4603,4.3696,9.7751,10.8632,-5.2019,9.2750,6.3260,0.0588
2378.9062,5.5982,-3.9561,3.6843,9.6984,12.7989,-9.0218,6.3865,11.3102,8.1736,8.2228,5.8884,-2.2803,4.8691,10.3766,10.8457,-4.6351,8.8861,7.5227,2.1479
2382.8125,6.9814,-8.0930,4.7481,8.8215,13.7352,-10.1843,8.1794,10.7490,7.0597,5.0118,3.7801,-3.5776,4.8455,9.5483,7.9153,-4.9599,7.2438,7.4347,5.1017
2386.7188,6.0778,-9.5604,7.2174,7.9215,13.5963,-10.1572,11.1542,9.0503,5.3132,0.7579,1.9211,-4.1416,4.6182,7.8412,3.6326,-5.1616,4.9629,6.3950,8.8968
2390.6250,4.2681,-6.9398,10.9562,7.4952,13.0107,-7.7648,14.1307,6.8089,4.4915,-3.0182,1.1320,-3.1821,4.6742,5.8775,1.5691,-4.5343,2.7755,5.1851,12.9111
2394.5312,4.0552,-0.9167,15.0320,7.2849,12.6188,-2.6702,15.9458,4.4775,5.8305,-4.4789,2.1071,-0.9079,5.3393,3.9386,4.6927,-3.2239,1.2225,4.2836,16.2393
2398.4375,6.6243,5.8419,18.1671,6.4847,12.7157,3.7072,16.5248,2.1440,9.0551,-3.1350,5.1541,1.6410,6.5841,1.9469,12.5752,-1.9061,0.5704,3.4235,18.2912
2402.3438,10.4390,10.0782,19.4311,4.4075,13.1327,8.5520,16.8243,-0.4001,12.2667,-0.7407,9.8353,3.3563,8.0467,-0.2490,20.8330,-1.0432,0.8360,1.8356,19.1702
2406.2500,12.2094,9.8400,18.7291,1.0706,13.3796,9.3489,17.7154,-3.3885,13.1695,-0.3521,14.8389,3.7994,9.2081,-2.5985,23.6938,-0.5058,1.7688,-1.0191,19.4977
2410.1562,9.6237,5.6814,16.7832,-2.7455,12.9446,5.7882,18.8883,-6.7884,10.7970,-3.9567,18.3626,3.3397,9.6018,-4.8276,18.1309,0.0770,2.8050,-4.8427,19.8215
2414.0625,3.6708,0.3361,14.6511,-5.9878,11.5930,0.3643,18.8953,-10.1678,6.3934,-10.4600,18.9469,2.6437,8.9773,-6.6494,6.5449,0.6291,3.1670,-8.5485,20.1164
2417.9688,-1.4979,-2.9820,13.1208,-7.9767,9.5243,-3.0148,16.4386,-12.8140,2.6543,-15.8568,16.3041,2.0158,7.3900,-7.9721,-4.2395,0.3731,2.2259,-10.9663,19.8271
2421.8750,-1.3853,-2.5596,12.3667,-8.7291,7.3089,-1.6038,11.8356,-14.0671,1.7792,-15.8741,11.5743,1.2050,5.2126,-8.9004,-7.2926,-1.5835,-0.0233,-11.6661,18.4412
2425.7812,5.2997,0.8629,12.0376,-8.7660,5.6158,4.2307,7.2997,-13.6906,3.7632,-9.3389,6.7472,-0.1463,3.0395,-9.5413,-0.3417,-5.2167,-2.7491,-11.2424,16.1056
2429.6875,15.0881,4.7761,11.6447,-8.6124,4.8498,11.1660,5.5850,-12.0457,6.2756,0.3531,3.5439,-1.8360,1.4699,-9.8240,12.4002,-9.0337,-4.6378,-10.8184,13.7201
2433.5938,21.6041,6.7128,10.9441,-8.4108,4.8867,15.1721,7.9300,-9.9203,6.3168,7.1210,2.4654,-2.8921,0.8210,-9.5352,22.7522,-10.6579,-4.7204,-11.1485,12.3574
2437.5000,19.7350,5.9083,10.0675,-7.9323,5.0815,14.2867,12.9404,-8.0822,2.4828,6.3875,2.6478,-2.1367,0.9153,-8.5665,23.8096,-8.3246,-3.1510,-12.0258,12.4325
2441.4062,9.1997,3.6779,9.3628,-6.9305,4.5871,9.9153,17.4188,-6.8387,-3.8662,-1.4229,2.6297,0.8332,1.0992,-7.1551,14.3856,-2.2547,-1.3294,-12.4715,13.3012
2445.3125,-5.0901,2.3146,9.1071,-5.5108,2.8327,5.7202,18.6420,-5.9231,-9.4748,-10.8377,1.4878,5.0455,0.5428,-5.8703,-0.2919,5.1670,-1.1603,-11.5672,13.6641
2449.2188,-16.2193,3.3488,9.3034,-4.1922,-0.1171,4.9256,16.3894,-4.8135,-11.5337,-15.0719,-0.4864,8.5199,-1.3153,-5.2954,-11.9565,10.6710,-3.8649,-9.2801,12.5183
2453.1250,-19.7783,6.4232,9.6739,-3.5976,-3.5539,8.0276,13.1371,-3.2545,-9.7934,-10.9899,-2.0713,9.4702,-4.4371,-5.6133,-14.3605,12.0407,-9.1382,-6.6222,9.9399
2457.0312,-16.5141,9.5419,9.8159,-4.0026,-6.4885,12.5589,12.1930,-1.5646,-6.8648,-1.6240,-2.1422,7.5225,-8.1781,-6.4101,-6.6894,9.4097,-15.2503,-4.9947,7.0832
2460.9375,-11.3290,10.4654,9.4022,-5.0867,-8.1650,15.0146,15.1263,-0.4445,-6.4233,5.7762,-0.6406,4.0475,-11.6145,-6.8714,6.6021,5.0577,-20.0381,-5.1952,5.3800
2464.8438,-9.5087,8.2483,8.3236,-6.0804,-8.4139,13.4525,20.4085,-0.4014,-10.5691,4.9195,1.3030,1.3137,-13.9953,-6.2637,18.9461,1.8931,-22.1162,-6.8267,5.5414
2468.7500,-13.0117,3.8887,6.7357,-6.2162,-7.6455,8.8461,24.2982,-1.2455,-18.2259,-4.8368,2.2407,1.0242,-15.0454,-4.3910,25.4060,1.6836,-21.5061,-8.5479,7.1113
2472.6562,-19.4547,-0.2797,5.0175,-5.1840,-6.5413,4.2725,23.3575,-2.1131,-25.7306,-17.7377,1.6120,3.2508,-14.9685,-1.7343,24.6693,4.1833,-19.3440,-8.9782,8.8755
2476.5625,-24.3038,-1.9736,3.6515,-3.2964,-5.6825,2.6495,16.8133,-2.0624,-29.2033,-25.4370,0.2903,6.4851,-14.2160,0.8003,18.5579,7.6008,-17.0040,-7.5971,9.7616
2480.4688,-24.4011,-0.2153,3.0348,-1.2711,-5.3528,4.7517,7.1376,-0.8055,-27.0497,-22.6528,-0.0734,8.7159,-13.2272,2.3533,10.0973,9.9269,-15.3308,-5.0091,9.5058
2484.3750,-20.1166,4.2546,3.2580,0.2126,-5.5728,8.9026,-1.4822,1.0312,-20.8979,-10.6478,1.4887,8.7335,-12.3047,2.5260,1.8257,10.1512,-14.4753,-2.4298,8.5950
2488.2812,-14.6662,9.5142,3.9560,0.8961,-6.2369,12.3995,-5.6687,2.3777,-14.4131,3.8367,4.1230,6.7677,-11.6345,1.5316,-4.7099,8.6325,-14.2655,-0.8157,7.6110
2492.1875,-11.3943,13.4999,4.3565,1.0308,-7.1864,13.4560,-4.7006,2.5819,-10.8963,13.2378,5.3570,4.1116,-11.3353,0.0492,-8.5745,6.5619,-14.6282,-0.2799,6.5868
2496.0938,-11.2936,14.9370,3.5832,1.1386,-8.1767,12.2030,-0.6268,1.9537,-11.3263,13.9789,2.7167,2.1239,-11.4343,-1.1133,-9.1432,5.0459,-15.6311,-0.1755,4.9452
2500.0000,-12.6401,13.7510,1.1173,1.6155,-8.8515,10.1664,3.1884,1.4965,-14.0687,8.1341,-4.2923,1.3791,-11.7949,-1.3861,-6.4398,4.4551,-17.1625,0.2873,2.0707
2503.9062,-12.8001,10.9049,-2.8298,2.4446,-8.8578,8.8636,4.0000,1.9997,-16.2618,1.1711,-13.3360,1.5117,-12.1165,-0.6889,-1.7537,4.3647,-18.6659,1.3998,-1.9881
2507.8125,-10.5496,7.8541,-7.2863,3.2132,-8.0849,8.7340,0.9449,3.2465,-15.7886,-2.1653,-20.3569,1.7251,-12.0839,0.5363,2.3471,3.9724,-19.3219,2.7701,-6.3056
2511.7188,-6.9923,5.8879,-10.9225,3.4353,-6.8341,9.1639,-4.8809,4.0733,-12.5092,-0.7219,-22.0815,1.4684,-11.5903,1.5519,3.0828,2.6451,-18.6308,3.6933,-9.5753
2515.6250,-4.4619,5.5934,-12.7102,2.9725,-5.7051,9.3516,-11.2809,3.3479,-8.0914,3.1949,-18.2806,0.7673,-10.8412,1.7456,-0.8944,0.2843,-16.9019,3.7550,-10.9441
2519.5312,-4.4954,6.6295,-12.4756,2.2545,-5.1881,9.0819,-16.1181,1.1238,-4.7751,6.2515,-12.1546,0.0548,-10.2041,1.0492,-8.4565,-2.6136,-15.1411,3.1851,-10.5367
2523.4375,-6.6421,7.9230,-11.0067,2.1023,-5.2281,8.6942,-18.2190,-1.0375,-4.0119,6.5696,-8.4369,-0.2496,-9.8791,0.0871,-16.4622,-5.1786,-14.3092,2.6952,-9.2768
2527.3438,-9.0377,8.2395,-9.6224,3.2094,-5.1344,8.3753,-17.7491,-1.0110,-5.8083,4.4359,-10.3941,-0.0350,-9.6578,-0.1204,-21.5712,-6.5719,-14.5067,2.9257,-8.1778
2531.2500,-10.1159,6.8714,-9.4356,5.5928,-3.9995,7.5939,-16.0048,2.2615,-8.9820,1.1990,-17.7148,0.5133,-9.0124,1.1935,-22.2400,-6.4330,-14.7965,3.9218,-7.6813
2535.1562,-9.8956,4.0500,-10.7322,8.4128,-1.3965,5.3776,-14.6951,7.6927,-11.9500,-2.2024,-26.7124,1.1247,-7.5065,3.9250,-19.5563,-5.1627,-13.9064,5.0366,-7.5337
2539.0625,-9.7394,0.7873,-12.8281,10.3646,2.1565,1.3116,-14.9488,12.4740,-13.4789,-5.6532,-32.6861,1.6157,-5.2217,6.9753,-16.3839,-3.8295,-11.3082,5.3550,-7.2168
2542.9688,-10.8635,-1.8002,-14.4771,10.4730,5.3783,-3.6510,-16.5044,13.8623,-13.0547,-9.0822,-32.8215,1.8966,-2.8206,8.8219,-15.4548,-3.6357,-7.7799,4.3627,-6.4881
2546.8750,-12.9772,-3.2608,-14.5840,8.7931,7.0181,-7.4709,-17.6355,11.1062,-10.8744,-11.6007,-27.6997,1.8812,-1.1193,8.5041,-17.6995,-5.1733,-4.9029,2.3993,-5.5454
2550.7812,-14.2801,-4.1218,-12.8027,6.5101,6.7421,-8.4237,-16.0796,6.0772,-7.6394,-11.6969,-20.5254,1.4525,-0.4468,6.3759,-21.8144,-7.9416,-3.8063,0.5573,-4.7082
2554.6875,-12.8372,-5.4846,-9.6922,5.2767,5.4595,-6.6029,-10.6007,2.0595,-4.2894,-8.4642,-14.7932,0.5414,-0.3024,4.0412,-25.1508,-10.5388,-4.1510,0.0473,-3.9708
2558.5938,-8.1406,-8.1491,-6.3742,6.1564,4.7926,-4.2219,-2.2241,1.5074,-1.7000,-2.6778,-12.1212,-0.7752,0.3518,3.4012,-25.2014,-11.5343,-4.2494,1.4074,-2.9013
2562.5000,-1.5299,-11.8895,-3.9208,8.8654,6.0091,-4.2313,5.8371,4.3805,-0.3622,3.4693,-11.6895,-2.2855,2.3041,5.3883,-20.7875,-10.5012,-2.3534,4.0716,-1.0367
2566.4062,4.8303,-15.4350,-2.8288,11.8753,9.1502,-8.1160,9.7895,8.2688,-0.1572,7.9312,-11.4410,-3.7729,5.3861,9.2538,-12.4861,-8.4667,1.8371,6.6236,1.5637
2570.3125,9.4653,-17.2138,-2.8508,13.3778,12.9801,-14.5268,7.5479,10.2092,-0.4000,10.3137,-9.9216,-5.1319,8.4290,12.9571,-2.3748,-7.3597,6.6718,7.6371,4.1450
2574.2188,12.2676,-16.3615,-3.2210,12.5002,15.8062,-19.9194,0.2213,8.8460,-0.2107,11.8557,-7.3111,-6.3271,10.0080,14.4553,6.6082,-8.7262,9.5804,6.6091,5.7199
2578.1250,13.8553,-13.2935,-3.1021,9.9343,16.5967,-20.9029,-8.2936,5.3524,0.9580,13.7659,-4.9844,-7.2188,9.4861,13.0342,11.5293,-12.5682,8.9689,4.3757,5.8672
2582.0312,14.3945,-9.4482,-1.9849,7.5071,15.6103,-16.6439,-13.4616,2.4776,2.9742,15.4275,-4.1499,-7.4516,7.5835,9.7590,10.5164,-17.1519,5.5646,2.6798,5.2162
2585.9375,13.1931,-6.4061,0.1470,6.9475,14.1172,-9.5303,-12.6397,2.4834,5.1113,14.3512,-4.7781,-6.5967,5.9948,6.7223,3.8089,-19.9889,2.1149,3.0868,5.1440
2589.8438,9.6208,-5.0112,2.9162,8.6915,13.4505,-3.5362,-6.3438,5.5257,6.5230,8.3430,-5.6765,-4.5197,6.2626,5.6156,-5.7553,-19.3601,1.5447,5.9064,6.8165
2593.7500,4.5333,-5.0697,5.7970,11.5622,14.0922,-1.4489,2.4931,9.6336,6.7774,-1.7580,-5.5552,-1.6835,8.6904,6.6253,-13.4586,-15.3488,4.8609,9.8340,10.2531
2597.6562,0.6633,-5.7336,8.3474,13.5558,15.4340,-2.9972,10.5898,12.2002,6.0813,-11.3331,-4.1148,0.9378,12.0871,8.4056,-14.7406,-9.6991,10.3403,12.6154,14.1464
2601.5625,1.1463,-6.1783,10.3264,13.1809,16.3245,-5.2517,16.1617,11.7897,5.0691,-14.4862,-2.2273,2.3921,14.5521,9.0918,-7.7165,-4.6559,14.6320,12.3730,16.6352
2605.4688,7.0077,-6.0311,11.6967,10.4021,15.9374,-4.9597,19.3157,8.9172,4.3667,-8.3836,-1.0898,2.4002,14.7574,7.5819,5.3351,-1.6514,15.0069,8.7703,16.5259
2609.3750,15.6244,-5.3006,12.5753,6.5396,14.3035,-1.0212,21.0008,5.3371,4.2815,3.8560,-1.1029,1.6192,12.8167,4.1697,18.7303,-0.7380,11.1612,3.2544,14.1057
2613.2812,21.7508,-4.0096,13.1896,3.2463,12.1637,4.7528,21.6512,2.5368,4.8215,14.3496,-1.4406,1.2491,10.1394,0.1531,26.3063,-1.0304,5.3236,-1.8006,10.9782
2617.1875,20.8042,-1.9693,13.8398,1.3485,10.3380,9.1083,20.7744,0.6743,5.9322,15.4068,-0.6721,2.2036,8.4103,-3.1797,24.9391,-1.6386,0.6731,-4.4965,9.0530
2621.0938,12.1985,1.0346,14.8246,0.4073,9.1579,9.8384,17.7926,-1.2561,7.6547,4.9267,2.0883,4.4402,8.4550,-5.3595,16.4606,-2.2640,-0.7281,-4.4512,9.3993
2625.0000,0.1881,4.7964,16.3044,-0.7219,8.3942,7.3484,13.2522,-4.2833,10.0096,-11.7567,6.4497,6.9672,9.8008,-6.7569,6.6450,-3.0253,0.9773,-2.8245,11.7265
2628.9062,-8.6429,8.4248,18.1487,-2.8194,7.6738,4.1416,9.1255,-8.3567,12.7033,-25.1599,11.0011,8.5530,11.1858,-7.9149,1.7858,-3.8100,3.9699,-1.3873,14.7556
2632.8125,-9.6310,10.6110,19.8759,-5.5856,6.9672,2.7297,7.6912,-12.1990,14.9734,-27.8900,14.2920,8.6148,11.5614,-8.8485,4.9883,-3.8870,6.3087,-1.3309,17.1158
2636.7188,-3.0423,10.3618,20.7884,-7.8369,6.6909,3.6900,9.7720,-14.2131,15.8154,-19.4320,15.7010,7.6127,10.8015,-8.9541,14.5039,-2.2741,7.2399,-2.6415,18.1018
2640.6250,6.2873,7.7168,20.2933,-8.4393,7.3098,5.4034,13.8180,-13.6837,14.5174,-6.1181,15.5246,6.6512,9.6139,-7.6164,25.0685,1.3616,7.3241,-4.3897,17.8391
2644.5312,12.3468,3.9063,18.2617,-7.2266,8.7682,5.6092,16.7761,-11.3132,11.1315,3.5280,14.3419,6.6050,8.7979,-4.9742,31.2250,6.0607,7.4722,-5.5988,16.9009
2648.4375,11.8636,0.7566,15.1979,-5.1726,10.2485,3.4390,16.2653,-8.6972,6.5085,4.5384,12.3502,7.4558,8.4890,-2.1391,30.3983,9.8800,7.8336,-5.9664,15.7955
2652.3438,5.9663,-0.3226,12.0675,-3.6890,10.5202,0.2329,12.4239,-7.1957,1.8313,-1.7931,9.3449,8.3513,8.0089,-0.5903,23.8543,11.1021,7.5117,-5.9157,14.7235
2656.2500,-1.3481,0.8727,9.8247,-3.6118,8.6831,-1.5345,7.9127,-7.0941,-2.0315,-9.8739,5.3590,8.3157,6.4208,-1.1591,15.2563,9.5018,5.3168,-6.0361,13.6832
2660.1562,-6.4794,3.2831,8.8932,-4.6736,4.7810,-0.3357,5.9345,-7.6531,-4.8915,-14.5053,1.2804,7.0282,3.3256,-3.3916,8.1308,6.6472,0.8747,-6.4723,12.6908
2664.0625,-8.6325,5.2915,8.9201,-5.8537,-0.1656,3.0418,7.7225,-7.9096,-7.0987,-14.5234,-1.3146,5.0514,-0.7526,-5.8215,4.0451,4.8756,-4.8790,-6.8159,11.8363
2667.9688,-9.7145,5.7261,8.9859,-6.2869,-4.7529,5.9900,11.4652,-7.5131,-9.0657,-12.7894,-1.2121,3.3542,-4.7018,-6.9908,2.4740,5.6006,-10.2575,-6.5820,11.1285
2671.8750,-12.1798,4.5250,8.1728,-5.9690,-8.0098,6.0854,13.5970,-6.9250,-10.8880,-13.0144,1.2734,2.5500,-7.6101,-6.4586,1.9737,8.1971,-13.9904,-5.8168,10.3342
2675.7812,-16.8160,2.6668,6.1545,-5.6827,-9.8806,3.0247,11.5576,-6.8808,-12.3692,-16.3306,4.0721,2.4827,-9.3864,-5.0356,1.4599,10.3587,-16.0519,-5.2444,9.0550
2679.6875,-22.2424,1.4534,3.4328,-6.2163,-11.0660,-1.0497,5.9217,-7.6270,-13.3882,-20.4318,4.5072,2.4794,-10.7296,-4.0693,0.6547,9.7552,-17.4842,-5.7524,7.0576
2683.5938,-26.2794,1.6305,1.0604,-7.5448,-12.3694,-3.1159,0.2098,-8.5964,-14.2277,-21.7588,1.1489,2.0189,-12.4862,-4.3382,-0.3056,5.8197,-19.3761,-7.6045,4.6021
2687.5000,-27.7751,2.9036,0.0087,-8.6842,-14.0351,-1.5250,-1.5692,-8.7864,-15.5122,-18.6707,-4.9832,1.2253,-14.9075,-5.4170,-1.3825,0.3465,-21.8453,-10.0530,2.4480
2691.4062,-27.2796,4.1377,0.5721,-8.3884,-15.5439,2.7909,2.1509,-7.5149,-17.7448,-12.8863,-10.8795,0.7622,-17.3943,-6.0043,-2.6429,-3.5867,-23.8674,-11.7432,1.4397
2695.3125,-26.1627,4.0973,2.1725,-6.1586,-15.9973,7.0518,9.2744,-4.9367,-20.8021,-8.1027,-13.4726,1.2269,-18.9253,-4.9601,-3.8488,-3.6425,-24.1057,-11.6603,1.9154
2699.2188,-25.2169,2.2593,3.6747,-2.7522,-14.8050,8.6929,15.4454,-1.9237,-23.8213,-7.1012,-11.7082,2.5783,-18.8333,-2.2465,-4.2829,0.2259,-22.0796,-9.8933,3.3621
2703.1250,-24.1632,-0.7992,4.0045,0.2539,-12.1906,7.1483,17.0154,0.5588,-25.6177,-9.7928,-7.2418,4.1007,-17.3271,0.9566,-3.2921,5.7693,-18.7242,-7.5898,4.5967
2707.0312,-22.4856,-3.6782,2.6904,1.5519,-9.1690,4.0344,13.3834,2.0649,-25.3501,-13.6814,-3.2348,4.9499,-15.3571,3.0553,-1.2371,9.9413,-15.8571,-6.0929,4.3926
2710.9375,-20.6342,-4.9334,0.0300,1.0266,-7.0058,1.7063,7.0517,2.8060,-22.9565,-16.0972,-2.1365,4.8218,-13.9321,3.1604,0.1001,10.8074,-14.9248,-5.9131,2.1581
2714.8438,-20.1831,-3.8956,-3.1668,-0.1934,-6.5067,1.4203,1.5125,3.2696,-19.0765,-16.1509,-4.0987,4.1755,-13.4109,1.6903,-1.6190,8.5545,-15.9658,-6.3437,-1.7576
2718.7500,-22.4869,-1.0447,-6.0520,-0.5985,-7.5781,2.5593,-1.3180,3.6975,-14.5907,-14.8133,-7.1632,3.8164,-13.3076,0.0297,-7.4709,5.0208,-17.5792,-6.0426,-6.2930
2722.6562,-26.9082,2.2801,-8.1413,0.5837,-9.3131,3.4463,-2.1797,3.8821,-10.1883,-13.3164,-8.9917,4.1881,-12.7504,-0.4681,-15.8342,2.2512,-17.9353,-4.1462,-10.2540
2726.5625,-30.3681,4.6480,-9.4470,2.8645,-10.5243,2.9610,-3.3961,3.4396,-6.2873,-11.5632,-8.7318,4.9713,-11.2327,0.6228,-22.7164,1.2068,-16.0887,-1.0438,-12.8709
2730.4688,-29.0547,5.3034,-10.3391,4.9426,-10.3860,1.5597,-6.6850,2.3019,-3.2642,-8.1271,-7.5590,5.3348,-9.0768,2.6420,-24.0338,1.4896,-12.6414,1.8085,-14.0328
2734.3750,-21.2846,4.4673,-11.2703,5.7491,-8.8134,0.8427,-11.6761,0.9806,-1.6416,-1.8760,-7.5367,4.6331,-7.2477,4.4682,-18.4622,2.0765,-9.2929,2.9177,-14.1545
2738.2812,-9.3033,3.0207,-12.5268,5.2595,-6.3995,2.0495,-16.2586,0.3436,-1.9176,6.3009,-9.7923,2.9665,-6.6498,5.3843,-8.7671,2.3011,-7.6300,1.8488,-13.8451
2742.1875,1.6187,1.8293,-14.0983,4.4449,-4.0079,4.7695,-18.3398,1.0384,-4.0911,13.3578,-13.5426,1.1335,-7.4339,5.5017,-0.4093,2.2553,-8.0432,-0.4478,-13.6109
2746.0938,6.4242,1.1934,-15.6846,4.4208,-2.3070,6.9975,-17.4836,2.9858,-7.2996,15.8901,-16.7730,0.0142,-8.8393,5.4633,1.8421,2.3907,-9.5297,-2.3214,-13.7166
2750.0000,3.5798,0.7872,-16.8152,5.4896,-1.5187,6.5781,-15.0934,5.3271,-10.0061,12.5144,-17.9909,-0.0966,-9.7000,5.7387,-3.0021,2.8196,-10.4755,-2.5930,-14.1894
2753.9062,-3.9907,0.0718,-17.0435,6.8502,-1.4749,2.9369,-13.0827,6.8890,-10.7682,4.9335,-17.5551,0.3505,-9.2471,6.1426,-11.5722,3.0441,-9.8068,-1.3247,-14.8789
2757.8125,-11.0632,-1.1864,-16.1587,7.2238,-1.8551,-2.2818,-12.2392,6.8669,-9.1154,-3.1552,-17.4007,0.6326,-7.6125,6.0003,-18.5284,2.3997,-7.6711,0.3696,-15.5095
2761.7188,-13.7380,-2.7197,-14.3212,5.9201,-2.3865,-6.2450,-11.6928,5.2945,-5.8776,-8.4194,-19.2965,0.4453,-5.6547,4.8287,-20.2077,0.8116,-5.1909,1.2877,-15.7280
2765.6250,-11.8361,-4.0281,-12.0230,3.5097,-2.8650,-6.9268,-9.9046,3.0177,-2.6531,-9.7009,-23.0258,0.2001,-4.2334,2.9572,-16.8952,-0.8817,-3.5224,1.1066,-15.1753
2769.5312,-8.3908,-4.8590,-9.8498,1.5572,-3.0415,-4.6090,-6.2738,1.2142,-0.7434,-8.0609,-26.0501,0.6489,-3.4844,1.5229,-12.1338,-1.4442,-2.9493,0.6100,-13.5956
2773.4375,-6.8500,-5.4544,-8.1540,1.5699,-2.5540,-1.7601,-1.9290,0.7580,-0.3131,-5.3765,-25.1101,2.1317,-2.6646,1.7563,-9.7206,-0.2740,-2.6850,1.0205,-10.9501
2777.3438,-8.3157,-6.3159,-6.8480,3.9169,-1.0576,-1.3389,1.0255,1.7831,-0.3971,-2.8976,-18.6831,4.0898,-0.7319,4.0424,-10.7641,1.8826,-1.5224,2.9759,-7.4896
2781.2500,-10.9457,-7.6598,-5.4870,7.5001,1.4821,-4.7057,1.2075,3.6572,0.2551,-0.9200,-8.4565,5.3018,2.7370,7.4663,-13.0424,3.2060,1.1563,5.9411,-3.7463
2785.1562,-11.7826,-9.0404,-3.6274,10.4255,4.5559,-10.6005,-0.8367,5.3412,2.1512,0.5016,1.3812,4.7201,6.9788,10.2397,-13.0573,1.9847,4.7650,8.5029,-0.4269
2789.0625,-9.3155,-9.5331,-1.2240,11.2080,7.1959,-15.8941,-2.9752,5.9298,4.6432,0.8904,6.6490,2.2820,10.3136,10.7839,-9.0559,-2.1200,7.7711,9.3220,1.7934
2792.9688,-4.6291,-8.4237,1.2401,9.6858,8.4411,-17.5920,-3.1523,5.1035,6.4527,-0.3497,5.7715,-0.9426,11.1605,8.7599,-2.5708,-7.6785,8.6869,8.0424,2.5394
2796.8750,-0.3173,-5.8938,3.0387,7.0493,7.9470,-14.7448,-1.0191,3.2827,6.7192,-2.8994,0.6783,-3.4057,9.1509,5.3438,2.7434,-12.3073,7.1289,5.5162,1.9793
2800.7812,1.7340,-3.1184,3.7443,5.0173,6.3295,-9.0328,1.8347,1.4135,5.7421,-4.9711,-4.5605,-4.0638,5.5589,2.5450,4.0209,-14.1345,4.2108,3.2204,0.8979
2804.6875,1.7202,-1.5913,3.6405,4.7587,4.9366,-3.7010,3.2873,0.4902,4.8198,-4.2183,-6.3346,-2.9658,2.6858,2.0014,1.4872,-12.8742,1.9642,2.3088,0.4771
2808.5938,1.3260,-2.0963,3.6601,6.2687,5.1043,-1.5852,2.6070,1.0431,5.2945,0.2648,-3.5280,-1.0456,2.5287,4.0166,-1.7064,-9.7748,2.1293,2.9525,1.7873
2812.5000,1.8395,-4.0714,4.8236,8.5328,7.3236,-3.4809,1.2938,2.8524,7.5263,6.4893,2.2663,0.6627,5.5650,7.4224,-2.0000,-6.5590,5.0749,4.3575,5.1910
2816.4062,2.7833,-5.8824,7.5203,10.2576,10.8585,-7.8070,2.0658,5.0378,10.5764,10.2193,8.2153,1.7371,10.4336,10.2967,1.7070,-4.2143,9.5292,5.3518,9.9942
2820.3125,2.3867,-5.8741,11.1341,10.6082,14.0955,-11.6621,6.6939,6.4756,12.8280,7.7114,12.1314,2.4603,14.7196,11.0319,7.1260,-2.5412,13.2817,5.0762,14.6173
2824.2188,-0.4608,-3.4830,14.3073,9.4894,15.4350,-12.5419,14.3469,6.3101,13.0670,-1.3069,13.4380,3.2773,16.3333,9.0902,10.3532,-0.7214,14.4027,3.3324,17.2884
2828.1250,-4.5390,0.3794,15.7137,7.2991,14.1760,-9.6736,21.7818,4.2833,11.2237,-12.7823,12.7988,4.1340,14.6127,5.0622,8.9858,1.6508,12.2352,0.4580,16.9294
2832.0312,-6.5573,3.9484,14.8540,4.4708,10.8532,-4.2499,25.3434,0.7382,8.2818,-20.5595,11.0842,4.3108,10.5036,0.1309,4.1598,3.9715,7.6018,-3.0508,13.7399
2835.9375,-3.4153,5.7839,12.3684,1.2087,6.8546,1.4511,23.3771,-3.6351,5.5113,-20.3080,8.7182,2.9477,5.8093,-4.6064,-0.0861,4.9692,2.2050,-6.8267,9.1248
2839.8438,5.2032,5.6646,9.6746,-2.4075,3.6164,5.4267,17.3491,-8.0918,3.6671,-12.3696,5.8915,-0.1297,2.0996,-8.5174,0.3317,3.7055,-2.3121,-10.6431,4.9922
2843.7500,15.9983,4.5862,8.1792,-6.1121,1.9287,6.9481,10.9120,-11.9776,2.7313,-1.4485,3.2020,-3.9665,0.0070,-11.3825,6.5775,0.4172,-5.0452,-14.2302,2.8226
2847.6562,23.8052,3.9204,8.5533,-9.2800,1.7383,6.6555,7.6114,-14.7216,2.2726,6.6057,1.8473,-6.8489,-0.7317,-13.1197,15.9795,-3.4881,-5.9335,-17.1426,3.0337
2851.5625,24.7771,4.3956,10.4689,-11.1193,2.4436,5.8174,8.8152,-15.8297,1.9843,8.5337,2.9228,-7.3104,-0.7071,-13.6205,23.7505,-6.2892,-5.4168,-18.8599,4.9526
2855.4688,18.7446,5.6477,12.8726,-11.1485,3.3518,5.3480,13.1719,-15.0321,1.8797,5.2445,6.2961,-5.0931,-0.3007,-12.8610,26.0232,-6.9998,-4.0458,-19.0851,7.3231
2859.3750,9.1209,6.6255,14.5519,-9.6186,3.9420,5.2916,17.7615,-12.5557,1.9979,0.3215,10.0947,-1.3736,0.3971,-11.1624,22.0591,-5.8228,-2.3562,-18.0186,8.9790
2863.2812,0.5432,6.4828,14.6574,-7.5305,3.8339,5.1035,19.9920,-9.2864,1.9728,-3.0978,11.5096,1.9379,1.2446,-9.2978,14.2706,-3.7234,-0.9873,-16.3643,9.2970
2867.1875,-3.9761,5.2549,12.9648,-6.1611,2.6603,4.4446,18.9717,-6.5672,0.9756,-4.5194,8.5878,3.3676,1.7057,-8.2405,6.3651,-1.5390,-0.7573,-15.0040,8.2633
2871.0938,-4.4483,3.8182,9.8613,-6.3558,0.1108,3.7831,15.6465,-5.6010,-1.7825,-5.7887,1.7821,2.7328,0.9301,-8.6357,1.1360,0.6205,-2.4326,-14.5140,6.2654
2875.0000,-3.1729,3.2022,6.1530,-8.0358,-3.7892,4.2101,11.8928,-6.7605,-6.3332,-8.8387,-5.9694,1.1204,-1.7073,-10.3395,-0.6304,3.2139,-6.2404,-14.8339,3.8363
2878.9062,-2.7626,3.7981,2.7849,-10.2529,-8.3951,6.4841,9.3254,-9.2771,-11.6411,-13.5702,-10.8778,0.0383,-6.0098,-12.3829,0.2351,6.5384,-11.4867,-15.3234,1.5026
2882.8125,-4.5156,5.0617,0.5204,-11.7755,-12.4940,10.0075,8.5321,-11.6019,-16.0662,-17.6724,-10.6352,0.3439,-10.8346,-13.4596,2.3906,10.0952,-16.6792,-15.2007,-0.2767
2886.7188,-8.1248,5.9099,-0.3496,-11.8393,-14.8152,12.6571,8.9994,-12.2970,-18.3602,-18.4537,-5.8627,1.6855,-14.6450,-12.6751,4.7606,12.6359,-20.2245,-14.0927,-1.1765
2890.6250,-12.5013,5.4977,-0.1371,-10.5781,-14.7553,11.8774,9.5697,-10.9103,-18.4917,-15.0719,0.3290,2.8092,-16.4201,-10.0925,6.5789,12.9126,-21.3211,-12.3299,-1.1171
2894.5312,-16.7193,3.8100,0.4044,-8.8611,-12.8293,6.4967,9.1187,-8.2403,-17.6621,-9.2951,4.3453,2.4888,-16.2874,-6.7179,7.1189,10.5719,-20.4521,-10.7616,-0.3433
2898.4375,-20.3016,1.6629,0.5236,-7.6587,-10.4828,-1.9810,7.1815,-5.7832,-17.4611,-4.2247,4.2820,0.4196,-15.4088,-3.9257,5.7691,6.5054,-19.0987,-10.1826,0.6410
2902.3438,-22.8894,0.1474,-0.0394,-7.3790,-9.3169,-9.7082,4.3086,-4.7183,-18.7593,-2.0902,0.8110,-2.5291,-15.1790,-2.6843,2.5824,2.3776,-18.8209,-10.7455,1.3046
2906.2500,-23.9497,-0.0791,-0.8654,-7.6349,-10.1942,-12.5239,1.9398,-5.1331,-21.1466,-2.8878,-3.6900,-4.8563,-16.2979,-3.0636,-1.2707,-0.3275,-20.3014,-11.7777,1.3549
2910.1562,-23.0151,0.8216,-1.1703,-7.5950,-12.7970,-8.5157,1.6988,-6.0338,-23.3100,-4.8055,-6.9756,-5.3820,-18.3641,-4.3095,-3.8471,-1.0679,-22.9836,-12.1743,0.8493
2914.0625,-20.2788,2.0343,-0.4613,-6.6548,-15.9041,0.5918,4.3300,-6.1350,-24.0324,-5.8671,-8.3433,-3.9666,-20.2476,-5.3889,-3.6282,-0.3258,-25.5200,-11.1333,0.0609
2917.9688,-16.8783,2.6627,0.9336,-4.9255,-18.1665,10.2780,8.8868,-4.8477,-23.0349,-5.3313,-8.6822,-1.5327,-20.9239,-5.6192,-0.7586,0.9470,-26.6827,-8.7293,-0.7991
2921.8750,-14.4055,2.3214,1.9186,-3.1648,-18.8472,15.8788,12.8542,-2.7328,-21.0378,-3.8027,-9.3262,0.5946,-20.1426,-4.9735,2.7456,2.0357,-26.0892,-5.8914,-1.7798
2925.7812,-13.9041,1.3773,1.3226,-2.1836,-18.0618,15.3468,13.4169,-1.0661,-19.0534,-2.2428,-10.7588,1.5601,-18.4631,-3.9144,4.1949,2.8067,-24.2765,-3.7588,-3.1427
2929.6875,-15.1582,0.7014,-1.2150,-2.1657,-16.4497,10.2899,9.2483,-0.8232,-17.5314,-0.9907,-12.2243,1.4759,-16.7010,-2.9396,2.0697,3.5351,-22.1522,-2.8499,-5.0986
2933.5938,-16.9089,1.0922,-4.8344,-2.4297,-14.6075,4.6231,1.6312,-1.8391,-16.0760,0.2780,-12.4953,1.2319,-15.2678,-2.2038,-2.8823,4.4771,-20.2970,-2.6601,-7.5428
2937.5000,-17.8619,2.7244,-7.9020,-1.8623,-12.7351,1.8311,-6.0393,-2.7993,-13.9600,1.7441,-11.1001,1.7863,-13.9335,-1.4817,-8.2001,5.5924,-18.6463,-2.0265,-10.0095
2941.4062,-17.6550,4.9677,-9.0710,0.2513,-10.7185,2.7879,-10.2640,-2.1214,-10.9855,2.7493,-8.9697,3.4507,-12.1718,-0.4604,-11.5391,6.6086,-16.7435,-0.0381,-11.9025
2945.3125,-16.9738,6.7145,-8.2146,3.5958,-8.4986,5.6107,-9.7006,0.8740,-7.9303,2.0689,-7.9507,5.6679,-9.7701,0.9020,-12.3498,7.2873,-14.3016,3.1717,-12.8449
2949.2188,-16.7423,7.0530,-6.5266,6.8913,-6.3570,7.4889,-6.0722,5.3498,-6.1312,-0.9477,-9.5343,7.4159,-7.1782,2.2517,-12.0536,7.5925,-11.5955,6.3736,-12.8971
2953.1250,-17.1365,5.8864,-5.6675,8.6715,-4.8421,6.9813,-2.9705,9.3729,-6.4607,-5.4000,-13.7560,7.9300,-5.2886,3.0546,-12.5767,7.6079,-9.3689,8.0361,-12.4956
2957.0312,-17.3362,4.0781,-6.5491,8.2664,-4.3729,5.0000,-3.3103,11.1196,-8.4853,-9.0501,-19.0724,7.2188,-4.7945,2.9934,-14.4807,7.3280,-8.3309,7.4278,-12.1627
2960.9375,-16.2815,2.9557,-8.6461,6.3029,-4.8329,3.7889,-7.2406,10.0511,-10.5188,-9.7865,-23.2867,6.0203,-5.6143,2.2453,-16.3318,6.5956,-8.6224,5.2185,-12.1885
2964.8438,-13.7895,3.4176,-10.3547,4.3502,-5.4940,4.8035,-12.0513,7.2492,-10.6395,-7.2750,-24.8365,5.2589,-6.8273,1.4265,-15.9632,5.3144,-9.6345,3.1034,-12.4790
2968.7500,-11.0149,5.2028,-10.1441,3.9328,-5.3655,7.2549,-14.1713,4.6868,-7.9966,-3.4496,-23.5579,5.4218,-7.1883,1.2369,-12.6661,3.7677,-10.2935,2.6867,-12.6287
