Time,Fp1,F3,C3,P3,O1,F7,T3,T5,Fz,Fp2,F4,C4,P4,O2,F8,T4,T6,Cz,Pz
0.0000,4.6771,-11.6360,3.2554,1.5734,12.3008,-9.2201,1.5892,10.6796,2.4362,-5.7978,2.6547,-5.7782,12.9988,5.6238,4.5579,-0.2617,12.9413,0.0133,7.4362
3.9062,3.8463,-11.7841,4.7038,0.7194,9.5961,-7.5996,7.4835,12.9669,1.6391,-7.6211,2.9241,-6.3363,11.6049,3.8557,5.3434,0.8050,12.8078,-1.4341,7.9170
7.8125,4.4286,-10.8652,6.8311,-0.8072,6.3907,-4.9115,14.6264,15.2177,1.1132,-8.1008,3.8305,-7.2052,9.2519,0.8915,6.6888,0.2972,11.9137,-3.3546,7.9009
11.7188,5.3983,-9.3066,8.6169,-3.3910,3.6031,-2.4097,20.4940,16.4035,0.4778,-8.1795,4.6373,-8.4915,6.0155,-3.3238,7.5270,-2.5892,9.7625,-5.9416,6.8541
15.6250,5.4031,-7.5834,9.3224,-6.9279,1.8094,-1.1181,23.1807,15.9417,-0.6656,-8.9086,4.7520,-9.9012,2.2464,-8.3368,7.1872,-7.3394,6.2496,-9.1159,4.8583
19.5312,3.8543,-5.7370,9.0204,-10.6826,0.8506,-0.9975,22.4405,14.1283,-2.2827,-10.4089,4.2328,-10.6831,-1.5034,-13.2277,5.9760,-12.1537,1.8718,-12.3904,2.7025
23.4375,1.3783,-3.3294,8.5165,-13.6106,-0.0564,-0.9241,19.6485,11.9913,-3.7756,-11.7257,3.7663,-9.9564,-4.6555,-16.9866,4.9683,-14.8373,-2.3850,-15.0652,1.4664
27.3438,-0.7306,0.1139,8.7212,-14.9908,-1.7398,0.4564,16.7778,10.5719,-4.3245,-11.7544,4.1167,-7.2709,-6.8192,-19.0490,5.1424,-14.0104,-5.4722,-16.6669,1.8530
31.2500,-1.5893,4.5476,9.9536,-14.9509,-4.4194,3.6452,15.1595,10.0725,-3.4782,-10.4453,5.4768,-3.0226,-7.9542,-19.6628,6.5405,-9.8604,-6.8131,-17.3190,3.7220
35.1562,-1.4375,9.2237,11.6894,-14.4949,-7.4652,7.8351,14.8723,9.4831,-1.5565,-9.1777,7.2359,1.6096,-8.4086,-19.8113,8.1431,-3.9698,-6.6527,-17.7367,6.1366
39.0625,-1.4130,13.0628,12.9155,-14.9594,-9.7944,11.4578,15.0763,7.0410,0.4473,-9.8482,8.3484,5.2269,-8.8043,-20.6819,8.5826,1.6149,-6.0123,-18.8001,7.8750
42.9688,-2.6157,15.2937,12.7935,-17.2120,-10.6664,13.3133,14.8968,1.3436,1.4124,-13.3164,8.0144,6.9374,-9.8071,-22.9755,7.1475,5.4203,-6.2390,-20.9709,8.0506
46.8750,-5.2687,15.8614,11.1422,-21.0858,-10.3182,13.3904,14.1268,-7.5531,0.7150,-18.4744,6.1571,6.7755,-11.8651,-26.4752,4.2941,7.0418,-8.3545,-23.9534,6.4594
50.7812,-8.6613,15.3100,8.4465,-25.3979,-9.9483,12.7429,13.2587,-17.7849,-1.4698,-22.7869,3.3737,5.5518,-15.0175,-30.1561,1.2796,6.9154,-12.5171,-26.8334,3.5176
54.6875,-11.8519,14.3098,5.4862,-28.5312,-11.0030,12.5556,12.9373,-26.3992,-4.3327,-23.9807,0.4737,4.2722,-18.8615,-32.7713,-0.7674,5.7108,-17.8724,-28.5921,-0.0510
58.5938,-14.4477,13.2817,2.9339,-29.2241,-14.2251,13.1958,13.3502,-30.8005,-6.8785,-21.6039,-1.9781,3.5599,-22.7068,-33.5522,-1.5885,3.8930,-22.9004,-28.6373,-3.5018
62.5000,-16.7524,12.4434,1.1908,-27.1279,-19.1269,14.0416,14.0396,-30.1039,-8.3344,-17.2339,-3.7655,3.4766,-25.8678,-32.5826,-1.7918,1.7351,-26.1350,-27.0066,-6.1911
66.4062,-19.1874,12.1555,0.4450,-22.8735,-24.2687,14.2117,14.2131,-25.6056,-8.3183,-13.1751,-4.7910,3.8112,-27.9664,-30.6271,-2.1827,-0.3781,-26.9312,-24.1641,-7.6049
70.3125,-21.6080,13.1072,0.7295,-17.6892,-28.1593,13.5389,13.2311,-20.1036,-6.8064,-10.7111,-4.8440,4.5342,-29.0837,-28.5417,-3.0524,-1.7677,-25.8844,-20.6031,-7.4510
74.2188,-23.2706,15.9830,1.8233,-12.8289,-30.1461,12.8977,10.8782,-16.4822,-4.0761,-9.3404,-3.6847,6.0021,-29.6593,-26.6612,-4.0478,-1.6633,-24.6256,-16.5766,-5.8434
78.1250,-23.6289,20.7482,3.1006,-9.0971,-30.6758,13.5204,7.3018,-16.3754,-0.7286,-7.6224,-1.4197,8.7158,-30.1750,-24.5616,-4.7047,0.3363,-25.0154,-12.1261,-3.4130
82.0312,-23.3122,26.1478,3.6011,-6.6397,-30.7765,15.8081,2.8181,-19.6096,2.2912,-4.9215,1.1909,12.8127,-30.8075,-21.3496,-5.1354,3.9335,-28.1104,-7.3189,-1.1347
85.9375,-24.3343,29.9979,2.4656,-5.0226,-31.1923,18.6303,-2.1477,-24.6073,3.8436,-2.5552,2.8761,17.7023,-31.2942,-16.3022,-6.2144,8.2289,-33.4747,-2.4510,0.1378
89.8438,-29.1068,30.2883,-0.4746,-3.5185,-31.8526,19.7926,-6.9490,-29.3685,2.9736,-3.2860,2.4712,22.1628,-31.1447,-9.4651,-9.0409,12.1723,-39.2935,1.9664,0.1505
93.7500,-38.8027,26.4270,-4.4221,-1.4881,-32.0763,17.4518,-10.6717,-32.3984,-0.6441,-9.4014,-0.3959,24.8758,-30.0981,-1.8474,-14.0899,14.9971,-43.3084,5.4138,-0.6450
97.6562,-52.2364,19.7208,-7.9928,1.2810,-31.3222,11.4852,-12.4136,-33.1296,-6.4825,-20.7722,-5.0812,25.0563,-28.5133,4.9147,-20.7438,16.3096,-44.0772,7.5798,-1.5176
101.5625,-66.1324,12.6545,-10.1112,4.4187,-29.8425,3.7900,-11.8478,-31.7917,-13.3485,-34.3525,-10.3683,22.7783,-27.3603,9.2581,-27.5861,15.8612,-41.7898,8.4248,-2.1501
105.4688,-76.6611,7.4003,-10.8136,7.1042,-28.6611,-2.7509,-9.6782,-29.0159,-19.8869,-45.5396,-15.2550,18.8277,-27.7089,10.3956,-33.2032,13.3607,-38.0874,8.0843,-3.0582
109.3750,-81.2173,4.5804,-11.3099,8.4695,-28.8277,-5.9406,-7.5253,-25.5040,-25.0959,-50.4880,-19.4756,14.2389,-29.9745,8.6657,-36.8433,8.6662,-34.9502,6.7520,-5.3279
113.2812,-79.3156,3.1484,-13.1533,8.0920,-30.5026,-5.4490,-7.1461,-21.8975,-28.5587,-47.8850,-23.3599,9.8499,-33.4233,5.3576,-38.4592,2.2991,-33.3590,4.6714,-9.7717
117.1875,-72.2494,1.4249,-17.0590,6.2949,-32.6090,-2.7775,-9.4191,-18.7606,-30.3350,-39.2272,-27.1952,6.1168,-36.3531,2.1042,-38.2556,-4.2002,-32.6442,2.2249,-16.1005
121.0938,-62.1014,-1.5358,-22.2531,4.0378,-33.3980,-0.1758,-13.7990,-16.5306,-30.7090,-27.7594,-30.6894,3.1918,-36.9587,0.1490,-36.3221,-8.6034,-31.0126,-0.0333,-22.7881
125.0000,-51.0222,-5.2908,-26.9072,2.4181,-31.5794,0.6392,-18.6793,-15.4039,-30.0452,-17.0281,-33.0642,1.0809,-34.4078,-0.1518,-32.8204,-9.0738,-26.9435,-1.5279,-27.8504
128.9062,-41.1589,-8.5154,-29.4116,2.0679,-27.2131,-0.8683,-22.4527,-15.2619,-28.8222,-9.8972,-33.7606,-0.2933,-29.4365,0.6481,-28.5891,-5.3998,-20.4965,-1.9583,-30.0687
132.8125,-34.7753,-10.1868,-29.5639,2.8338,-21.6997,-4.2503,-24.5155,-15.7366,-27.6822,-8.1545,-33.1578,-1.1332,-24.0161,1.5302,-25.4721,0.5103,-13.5752,-1.5180,-29.7978
136.7188,-33.8002,-10.4341,-28.7474,3.9621,-16.8589,-8.6766,-25.4673,-16.3821,-27.2773,-12.2730,-32.6038,-1.7866,-20.2256,1.6691,-25.7384,5.3989,-8.8741,-0.8128,-28.7291
140.6250,-38.6372,-10.3552,-28.8922,4.6762,-13.7579,-13.3277,-26.3521,-16.7905,-27.8960,-21.0191,-33.5648,-2.6297,-19.0102,0.9311,-30.6800,6.3712,-8.1585,-0.4676,-28.7132
144.5312,-47.0618,-10.9789,-30.9416,4.7500,-12.1318,-17.3670,-27.5344,-16.5367,-29.1311,-31.2362,-36.4446,-3.8502,-19.6211,-0.0713,-39.3092,2.5171,-11.0352,-0.6749,-30.4405
148.4375,-54.4535,-12.2862,-33.9752,4.6639,-10.7887,-19.7992,-28.1356,-15.0473,-29.9404,-38.5160,-39.9990,-5.3041,-20.1206,-0.3990,-48.2745,-4.6110,-15.0840,-1.0405,-32.9227
152.3438,-55.8723,-13.1701,-35.7125,5.2116,-8.6568,-19.6727,-26.5670,-11.6528,-29.2118,-39.0355,-41.9210,-6.6012,-18.6427,0.5710,-53.3928,-11.9824,-17.3090,-0.8948,-34.1679
156.2500,-49.0060,-12.4321,-34.1181,6.8143,-5.6643,-16.6973,-21.8616,-6.0081,-26.5307,-31.7812,-40.3196,-7.3974,-14.5987,2.6721,-52.0020,-16.8700,-15.9668,0.1171,-32.5954
160.1562,-35.9733,-10.0138,-28.9879,9.0276,-2.8050,-11.8052,-14.8271,1.2864,-22.5977,-19.6210,-35.0898,-7.6883,-9.0549,4.9417,-44.5934,-18.2532,-11.5678,1.6058,-28.2030
164.0625,-22.3851,-7.3924,-22.3457,10.6163,-1.3807,-7.0170,-8.0656,8.3672,-18.9065,-8.0654,-28.1616,-7.8638,-4.0594,6.0988,-34.5247,-16.9868,-6.4141,2.5362,-22.6725
167.9688,-13.8818,-6.6896,-17.2919,10.2015,-2.0342,-4.4266,-4.6515,12.5957,-16.8050,-2.0668,-22.3686,-8.4567,-1.3867,5.2265,-25.8981,-14.7962,-3.0290,1.8573,-18.3468
171.8750,-12.3278,-9.0791,-16.0378,7.0918,-4.3104,-4.8696,-6.2246,11.8641,-16.5508,-2.8027,-19.6640,-9.7533,-1.5212,2.2561,-20.9974,-12.9599,-2.5548,-0.7444,-16.7870
175.7812,-14.4096,-13.7132,-18.4523,1.7732,-7.0352,-7.2587,-11.7533,6.0526,-17.0592,-6.7677,-19.9042,-11.5550,-3.4998,-2.0234,-19.0462,-11.6604,-4.1607,-4.5097,-17.8762
179.6875,-13.9152,-18.0803,-22.1105,-4.2604,-9.1599,-9.2283,-17.8624,-2.3852,-16.5972,-8.1300,-21.0408,-13.2721,-5.6317,-6.4108,-17.1380,-10.3599,-5.7666,-7.9709,-20.0143
183.5938,-6.3760,-19.6542,-23.8127,-9.2452,-10.3859,-8.7992,-20.6269,-9.3591,-14.0078,-3.0182,-20.5776,-14.2869,-6.5524,-9.9023,-12.6503,-8.7200,-5.4998,-9.8158,-21.1870
187.5000,7.1216,-17.6918,-21.5547,-12.0122,-11.1117,-5.9408,-17.7629,-11.2912,-9.6292,7.1774,-17.2709,-14.3254,-5.9137,-12.0987,-5.3916,-7.1956,-2.8758,-9.6843,-20.1415
191.4062,19.8213,-13.8529,-15.6602,-12.4774,-11.8237,-2.8422,-9.8634,-7.2363,-5.2352,15.9891,-11.9080,-13.5825,-4.3436,-13.2064,2.0705,-6.7692,1.0227,-8.3610,-16.9243
195.3125,23.3060,-11.1256,-8.3938,-11.5056,-12.4952,-2.5443,0.0705,0.4404,-2.9752,15.7623,-6.6699,-12.5401,-2.8303,-13.7033,6.1361,-8.0623,4.3589,-7.2309,-12.5565
199.2188,13.1433,-11.7572,-2.4047,-10.2820,-12.5195,-6.7606,8.4686,7.4228,-3.9846,2.8591,-3.5832,-11.6402,-2.0390,-13.9405,4.7208,-10.6140,5.7018,-7.3659,-8.2184
203.1250,-7.6181,-15.6222,0.9098,-9.6086,-11.2279,-14.3798,13.2064,10.0901,-7.5800,-19.3082,-3.1594,-11.0570,-2.0095,-13.9577,-1.1797,-13.0047,4.7688,-8.8557,-4.5641
207.0312,-29.5964,-20.1723,2.0639,-9.5460,-8.5420,-21.7668,14.5404,7.7635,-11.5765,-41.5921,-4.1353,-10.6958,-2.3368,-13.6002,-7.9890,-13.8203,2.3819,-10.8190,-1.5719
210.9375,-42.2997,-22.0086,2.8360,-9.5734,-5.1949,-24.7900,14.4603,3.0522,-13.5247,-54.1104,-4.4158,-10.3531,-2.5748,-12.8067,-11.7365,-12.7343,-0.1692,-12.0588,1.1193
214.8438,-40.1362,-19.0092,4.8690,-9.1061,-2.3181,-21.3137,15.0110,0.0373,-12.0772,-51.8085,-2.5029,-9.8559,-2.5112,-11.8241,-10.4105,-10.8280,-1.8462,-11.8970,3.7651
218.7500,-25.3970,-11.5925,8.5192,-8.0020,-0.7147,-12.5353,16.7904,1.5029,-7.6387,-37.0862,1.5857,-9.0570,-2.1507,-11.1757,-4.9179,-9.8080,-2.2448,-10.6207,6.3201
222.6562,-6.4176,-2.3322,12.6979,-6.7299,-0.4001,-2.2810,18.6495,7.0716,-1.9502,-17.9348,6.4828,-7.7240,-1.5271,-11.4016,1.8804,-10.6158,-1.5590,-9.2593,8.5711
226.5625,7.7348,5.7290,15.7262,-6.1117,-0.7647,5.2992,18.7487,13.4661,3.0536,-2.9394,10.5223,-5.4829,-0.5949,-12.7534,7.2680,-12.4340,-0.3252,-8.8727,10.3891
230.4688,12.5496,10.8885,16.5416,-6.8326,-1.2037,8.1660,16.1607,16.6382,6.3489,3.5767,12.8922,-1.9481,0.6598,-15.0589,10.4110,-12.8760,0.8170,-9.8469,11.8326
234.3750,10.0589,13.5458,15.4116,-9.0492,-1.6873,7.4301,11.8219,14.2564,8.2159,3.2906,14.0986,2.9874,1.9855,-17.8516,12.6048,-9.3566,1.2661,-11.6707,13.0076
238.2812,6.5606,15.5280,13.6947,-12.3400,-2.8099,6.3982,8.0934,6.8947,9.7527,1.7130,15.4624,8.8864,2.7497,-20.6785,15.9793,-0.8261,0.5638,-13.3241,13.8284
242.1875,7.8769,18.5604,12.8601,-15.9993,-5.2940,8.3022,7.1890,-2.7121,11.9086,3.8642,18.0362,14.7385,2.1152,-23.3784,21.6426,11.2217,-1.4716,-13.9977,13.9198
246.0938,15.3630,22.9646,13.4647,-19.4422,-9.3693,14.1831,9.5616,-11.5947,14.7018,10.7540,21.6983,19.2515,-0.5497,-26.1404,28.5527,23.1296,-4.6390,-13.6539,12.7873
250.0000,25.1319,27.4271,14.7859,-22.4323,-14.5254,22.2362,13.4242,-18.1835,17.1202,18.8555,25.0390,21.3497,-5.2780,-29.2913,33.8615,30.6740,-8.4045,-13.0518,10.1656
253.9062,30.7475,29.9163,15.3434,-24.9919,-19.8132,28.9596,15.8182,-22.5996,17.7478,22.6798,26.1364,20.6384,-11.3884,-32.9362,34.5049,31.0253,-12.1568,-13.2181,6.3058
257.8125,27.4627,29.0894,13.9436,-27.1048,-24.4171,31.3258,14.5600,-25.6989,15.7068,18.5939,23.7503,17.6033,-17.7311,-36.6793,29.0594,24.0631,-15.5390,-14.7062,1.9915
261.7188,15.3071,25.2759,10.5348,-28.4784,-28.0250,28.6184,9.7484,-27.9019,11.3333,7.4142,18.2044,13.4559,-23.1424,-39.6186,18.7698,12.4477,-18.6158,-17.1224,-1.7532
265.6250,-0.7500,20.4470,6.3046,-28.5872,-30.7351,22.8556,3.7803,-28.8403,6.1779,-5.7487,11.4102,9.6956,-26.8542,-40.6610,7.1718,0.5038,-21.7230,-19.2320,-4.1126
269.5312,-13.4639,17.2319,2.9615,-26.9882,-32.6553,17.6227,-0.1595,-28.0081,2.3212,-14.1550,5.9849,7.5768,-28.6670,-39.0187,-1.4798,-7.5014,-25.0848,-19.5986,-4.8438
273.4375,-17.1253,17.5792,1.6850,-23.6738,-33.6094,16.0792,-0.1116,-25.6697,1.3751,-12.9515,3.9417,7.6870,-28.8756,-34.6324,-4.1552,-8.9348,-28.4931,-17.3805,-4.3666
277.3438,-10.3923,21.8094,2.4399,-19.1771,-33.2485,19.3252,3.5048,-23.0630,3.6962,-1.5823,5.6721,9.7873,-28.0684,-28.2837,-0.4029,-3.6514,-31.3234,-12.8183,-3.5389
281.2500,3.2090,28.5161,4.0820,-14.3260,-31.4828,25.9993,8.3420,-21.6009,8.2019,16.0487,9.7739,12.9686,-26.9376,-21.3170,7.5061,6.1068,-32.9176,-7.1320,-3.2340
285.1562,17.1184,35.2839,5.1432,-9.8165,-28.8378,33.2020,11.7746,-21.7294,12.8463,33.5044,13.7954,16.0572,-26.1519,-15.0935,15.6596,16.6444,-33.0719,-1.9072,-3.9360
289.0625,24.7934,39.7828,4.7277,-5.9276,-26.3807,38.0832,12.5236,-22.4904,15.4854,44.6816,15.4567,18.0999,-26.2593,-10.4518,20.2503,24.2086,-32.2638,1.6631,-5.5601
292.9688,22.4916,40.6839,2.9138,-2.5912,-25.2073,39.1563,11.1216,-22.2959,14.7074,46.2319,13.6696,18.7157,-27.5735,-7.4487,19.1595,26.3461,-31.4274,3.2504,-7.5967
296.8750,10.6670,38.0264,0.4430,0.2614,-25.8464,36.7066,9.0077,-20.3716,10.2910,38.6123,8.8458,18.1536,-30.0555,-5.5026,12.6873,22.7441,-31.4115,3.3549,-9.4968
300.7812,-6.3863,32.9947,-1.9885,2.3962,-28.0032,32.2784,7.0903,-17.6730,3.1845,25.5920,2.4387,17.0454,-33.2587,-3.8395,3.1870,15.2537,-32.4828,2.8598,-11.0668
304.6875,-22.3035,27.3385,-4.2476,3.3217,-30.7873,27.7407,4.9782,-16.4043,-4.8755,12.6494,-3.8904,16.0119,-36.4067,-1.9771,-6.1054,7.0872,-34.1959,2.5034,-12.6027
308.5938,-31.0807,22.7461,-6.6906,2.7015,-33.1978,24.5238,1.4878,-18.3755,-11.9047,4.9523,-8.9439,15.3625,-38.6044,0.0246,-12.4285,1.5103,-35.6865,2.5893,-14.6431
312.5000,-29.3133,20.3829,-9.6018,0.8190,-34.4878,23.3267,-4.0357,-23.4287,-16.2132,5.5740,-12.1813,15.0550,-39.1109,1.6712,-14.4328,0.5524,-36.1512,3.0474,-17.4753
316.4062,-17.5000,20.6391,-12.6671,-1.3259,-34.2193,24.1858,-10.7365,-29.2115,-16.8708,14.4400,-13.5176,14.8942,-37.5693,2.4105,-12.4075,4.2597,-35.1877,3.7005,-20.7385
320.3125,0.0642,23.0527,-14.9998,-2.4599,-32.1454,26.6116,-16.5095,-32.5817,-14.0276,28.3214,-13.0755,14.7782,-34.1119,2.0410,-7.8884,10.7755,-32.8150,4.4861,-23.4591
324.2188,16.8756,26.4001,-15.7803,-1.7689,-28.2056,29.6315,-19.3957,-31.6557,-8.9614,41.9710,-11.1727,14.7793,-29.3108,0.9151,-2.9684,17.1897,-29.2469,5.4757,-24.5826
328.1250,26.8247,29.0140,-15.0267,0.6040,-22.7464,31.8601,-19.0410,-26.9737,-3.7095,50.1533,-8.5086,15.0024,-23.9888,-0.1670,0.3865,20.7841,-24.6576,6.7358,-23.6925
332.0312,26.8355,29.3602,-13.8227,3.6925,-16.7415,31.8360,-17.0213,-20.9151,-0.2793,49.8886,-6.2348,15.3634,-18.9448,-0.3023,0.8711,20.1477,-19.1333,8.2092,-21.4116
335.9375,18.3393,26.7327,-13.6939,6.4092,-11.6425,28.6695,-15.6910,-15.8457,0.2862,41.9262,-5.6242,15.5179,-14.6775,1.1142,-1.8096,15.7006,-12.8270,9.7501,-19.1324
339.8438,6.7137,21.7294,-15.4982,8.3044,-8.7288,22.6848,-16.3899,-12.4627,-1.5136,30.5828,-7.3945,15.0466,-11.2293,4.1178,-6.8199,9.4057,-6.1641,11.2734,-18.1783
343.7500,-1.2818,16.1375,-18.6510,9.7885,-8.2914,15.5431,-18.4092,-9.6218,-3.8576,21.7612,-11.1265,13.7757,-8.2544,8.1296,-12.4173,3.7941,0.0823,12.8427,-18.9371
347.6562,-0.9442,12.1183,-21.3525,11.6186,-9.2761,9.5639,-19.5797,-5.7342,-4.6483,19.9588,-15.2845,11.9571,-5.3213,12.1347,-16.5846,0.7445,4.9293,14.5519,-20.5915
351.5625,7.8540,11.0307,-21.7767,14.0336,-9.8003,6.5091,-18.0878,-0.5408,-2.8453,25.8147,-17.9854,10.1139,-2.3131,15.0095,-17.9063,0.6091,7.4812,16.2548,-21.6967
355.4688,20.5657,12.5712,-19.4247,16.2397,-8.3387,6.5737,-14.1191,4.2475,0.7564,35.6705,-18.0965,8.6258,0.3336,15.8901,-16.2633,2.1512,7.2580,17.3872,-21.2441
359.3750,30.5190,14.8380,-15.6370,16.7351,-4.7974,8.3030,-9.9900,6.0639,3.9057,43.5806,-15.9231,7.3718,1.7658,14.4711,-12.8819,3.3635,4.4335,17.1228,-19.4583
363.2812,32.7625,15.4036,-12.8009,14.3346,-0.6620,9.5764,-8.5452,3.5547,4.3136,44.7384,-12.9621,5.7587,1.2322,11.1256,-9.5922,2.7372,-0.0980,14.8692,-17.7087
367.1875,26.9324,12.8057,-12.7262,9.1848,1.9793,9.0260,-10.9512,-2.0062,1.2473,38.2875,-10.8427,3.1838,-1.2995,6.7788,-7.6837,0.2328,-4.8746,10.8062,-17.5327
371.0938,17.3316,7.5120,-15.3110,2.9890,1.9041,6.8925,-15.5406,-7.1370,-3.7881,27.7358,-10.1848,-0.3808,-4.8501,2.5535,-7.1011,-2.6865,-8.2561,6.0424,-19.4246
375.0000,10.0996,1.6883,-18.4646,-1.8169,-0.3436,4.6835,-18.6490,-8.2192,-7.8335,18.6427,-10.2035,-4.1495,-7.7467,-0.6781,-6.5723,-4.0583,-8.9814,2.1743,-22.2678
378.9062,9.2536,-2.1311,-19.3951,-3.4504,-2.8080,3.8714,-16.9344,-3.7965,-8.2947,15.0443,-9.3574,-6.8908,-8.4529,-2.6169,-4.6339,-2.8758,-6.7057,0.4414,-23.8731
382.8125,14.2092,-2.6120,-16.3950,-1.8147,-3.5046,4.6184,-9.5764,4.4995,-4.6065,16.9892,-6.5649,-7.7168,-6.4396,-3.5510,-0.8349,-0.0304,-2.2369,1.0097,-22.3123
386.7188,20.4767,-0.3815,-9.9026,1.5204,-1.8139,5.5421,1.1661,13.0025,1.4096,20.8637,-2.0686,-6.7509,-2.5231,-4.0380,3.8001,1.9838,2.7431,2.8858,-17.1580
390.6250,23.0807,2.5255,-2.1337,4.3658,1.1663,4.7688,11.3752,18.2527,6.7783,22.2784,2.7180,-5.1570,1.6004,-4.4415,7.4729,0.5572,6.4401,4.5613,-9.7804
394.5312,20.3128,4.1189,4.3999,5.2642,3.5839,1.5183,17.8159,18.8767,9.3653,19.4459,6.2716,-4.4369,4.3707,-4.6320,9.0157,-5.2314,7.8427,4.9715,-2.5032
398.4375,15.0867,3.7564,8.4015,4.2329,4.3657,-3.0189,19.5743,15.9468,9.2374,14.5518,8.1069,-5.4375,5.2842,-4.0803,8.9258,-13.6855,7.2404,4.1095,2.7893
402.3438,12.7838,2.3718,10.2832,2.4486,4.1082,-6.2868,17.9990,11.8247,8.4174,12.0046,9.0949,-7.7496,5.0981,-2.3263,9.1353,-21.1557,6.0051,2.8627,5.6367
406.2500,16.9974,1.5104,11.3926,1.1826,4.5727,-6.1298,15.2503,8.5131,9.2000,14.7345,10.6644,-9.9439,5.1683,0.4699,11.5365,-24.0140,5.7063,2.1955,6.9416
410.1562,26.2310,1.9500,12.6700,0.7978,7.1127,-2.4733,12.7217,6.6931,12.2521,21.2703,13.4769,-10.5053,6.3672,3.2923,16.2765,-20.7694,7.0732,2.2907,7.9987
414.0625,34.1194,3.0023,13.8264,0.5279,11.2360,2.3606,10.5152,5.9164,15.9113,25.9469,16.6264,-8.8316,8.3396,4.5892,21.1570,-12.9959,9.4692,2.3111,9.3906
417.9688,33.3536,3.0751,13.6812,-0.8417,14.4889,5.0528,8.1829,5.4914,17.2627,22.4444,18.0792,-5.6004,9.6468,3.0446,22.7893,-4.4545,11.2546,1.0009,10.5905
421.8750,20.8101,1.0989,11.3749,-3.9308,13.9196,3.5135,5.8880,5.1889,14.2948,8.4029,16.1505,-2.2476,8.7449,-1.6180,18.8968,1.0818,10.8530,-2.2813,10.5467
425.7812,0.3412,-2.2786,7.4730,-8.1382,8.1899,-1.5923,4.8525,5.2283,7.6119,-12.1323,10.9949,0.0746,5.1510,-8.2932,10.2274,1.9735,7.8503,-6.8591,8.7715
429.6875,-18.8991,-4.7200,4.0311,-11.8940,-1.1574,-7.1039,6.6124,5.7197,0.4340,-30.3877,4.9757,1.3226,-0.0120,-14.8751,0.6484,-0.4636,3.3981,-10.9331,6.0626
433.5938,-27.7447,-3.5705,3.4586,-13.6253,-10.2654,-9.2761,11.6532,6.1903,-3.2307,-37.8634,1.5063,2.5798,-4.5147,-19.2119,-4.8527,-2.9073,-0.3844,-12.6246,4.2466
437.5000,-22.5715,2.2985,6.9177,-12.7823,-15.1204,-6.0820,18.5717,5.6874,-1.0927,-31.5216,3.0138,5.2422,-6.3016,-20.1398,-3.1043,-2.1078,-1.6774,-11.2068,5.0490
441.4062,-7.4977,11.4536,13.3784,-10.2482,-13.9552,1.5951,24.5519,3.3943,5.8754,-15.7679,9.3291,9.9254,-4.7637,-18.0395,5.2359,3.1892,-0.1167,-7.6943,8.8478
445.3125,8.2052,20.4522,20.0245,-7.8792,-8.3529,10.5933,26.9394,-0.7608,13.8871,0.1301,17.5808,15.8416,-1.1984,-14.6107,15.9237,11.5767,2.8866,-4.3615,14.1916
449.2188,15.7794,25.7064,23.7953,-7.4772,-2.3454,17.4110,24.8321,-6.0108,18.5139,7.5634,23.7198,21.0877,1.8464,-11.9890,23.5239,19.8554,4.8798,-3.4614,18.4683
453.1250,12.0523,25.5019,23.0862,-9.8239,-0.0864,20.1338,19.5565,-11.2417,17.2173,3.5293,24.7569,23.6808,1.9582,-11.6775,24.4776,24.8093,3.7249,-5.9351,19.3456
457.0312,0.7511,20.9119,18.5432,-14.3182,-3.5504,19.1691,13.6966,-15.6789,10.6950,-8.0542,20.3589,22.6990,-1.8448,-13.8481,18.9610,24.8264,-1.2238,-10.8979,16.0969
460.9375,-10.5264,15.0724,12.5007,-19.3598,-11.6133,16.5124,9.3837,-19.2555,2.2966,-19.2920,12.8787,18.8293,-8.6434,-17.3493,10.4692,20.5279,-8.7935,-16.1793,9.9983
464.8438,-15.4479,11.3268,7.4947,-23.1915,-20.9333,14.2446,7.0618,-22.4404,-4.0181,-23.4046,5.8819,14.0093,-16.1936,-20.3717,3.5210,14.2234,-16.6673,-19.5351,3.5805
468.7500,-12.7737,11.4064,4.8316,-24.6966,-27.9392,13.3397,5.5543,-25.7208,-5.8719,-18.6522,2.1242,10.4063,-22.1522,-21.3855,1.0001,8.6477,-22.6225,-19.7748,-0.7776
472.6562,-6.5848,14.7024,4.0760,-23.7473,-30.6681,13.4683,3.2949,-29.1441,-3.5465,-8.7789,2.1823,9.3454,-25.2260,-19.8563,2.7467,5.7115,-25.6078,-17.1768,-2.0596
476.5625,-3.1437,18.9308,3.6721,-21.0029,-29.4527,13.6949,-0.2458,-32.2092,0.5325,-0.0801,4.4541,10.7831,-25.6359,-16.3955,6.0906,5.8458,-26.0910,-13.0603,-0.9519
480.4688,-6.7442,21.6447,2.1833,-17.3704,-26.2846,13.3919,-4.0060,-34.1090,3.4006,2.6890,6.3734,13.5550,-24.7372,-12.3280,7.7646,8.1219,-25.5760,-8.8991,0.7911
484.3750,-17.2742,21.6251,-0.6991,-13.4889,-23.4639,12.6846,-6.0470,-34.1248,3.1994,-1.1204,6.0065,16.1706,-24.1208,-8.9587,5.8688,10.9414,-25.6603,-5.5638,1.4836
488.2812,-30.7779,19.3905,-3.9971,-9.5259,-22.4285,12.2156,-5.0039,-31.9636,-0.0429,-8.3797,3.0732,17.6524,-24.7530,-6.9529,0.7129,12.8832,-27.2064,-3.0921,0.4335
492.1875,-42.2228,16.6748,-6.1611,-5.3453,-23.3501,12.5417,-1.2156,-27.9392,-4.7626,-14.7388,-1.1187,17.9534,-26.6006,-6.1385,-5.7832,13.3064,-30.0453,-0.9851,-1.8451
496.0938,-48.3995,15.3205,-6.1340,-0.8710,-25.4985,13.6803,3.2905,-22.9708,-8.9352,-17.4186,-4.6497,17.7845,-28.8465,-5.7775,-11.5099,12.4772,-33.2643,1.2850,-4.1586
500.0000,-49.1517,16.2674,-4.0610,3.6404,-27.9310,15.1110,5.9823,-18.3605,-11.1580,-16.4130,-6.2029,18.0304,-30.4669,-5.0910,-15.3877,11.2296,-35.7950,3.9216,-5.4847
503.9062,-46.5291,19.1473,-1.2256,7.6218,-29.9992,16.1532,5.3941,-15.3313,-11.1774,-13.6318,-5.7863,19.1435,-30.7907,-3.7021,-17.6618,10.3876,-36.9162,6.7672,-5.5999
507.8125,-42.8721,22.5868,0.7045,10.5011,-31.4364,16.3914,2.0356,-14.4422,-9.7251,-10.9709,-4.5974,20.8708,-29.7529,-1.7529,-19.2612,10.2866,-36.4282,9.4981,-5.1323
511.7188,-39.3199,24.9573,0.6164,12.0725,-32.1305,15.8529,-1.9724,-15.1893,-7.9262,-8.8604,-4.1963,22.4394,-27.7767,0.3266,-20.8242,10.6664,-34.5139,11.8364,-5.0765
515.6250,-35.6173,25.1489,-1.4980,12.6569,-31.8716,14.8765,-4.3136,-16.1460,-6.6912,-6.2501,-5.5343,23.0451,-25.4337,2.2015,-22.1227,10.9759,-31.4853,13.6328,-6.1219
519.5312,-31.0053,23.0154,-4.6741,12.9228,-30.3033,13.8320,-4.0303,-15.7316,-6.3941,-1.8116,-8.4208,22.3268,-23.1095,3.8950,-22.2559,10.8578,-27.6201,14.8319,-8.2192
523.4375,-25.2679,19.3393,-7.6453,13.4806,-27.1069,12.8995,-2.2037,-13.2307,-6.8997,4.7092,-11.7139,20.5381,-20.8464,5.7652,-20.4249,10.4481,-23.1541,15.4303,-10.6251
527.3438,-19.1055,15.3910,-9.5968,14.5352,-22.2691,12.0193,-1.2914,-9.3808,-7.8112,12.0290,-14.0790,18.3303,-18.4054,8.2256,-16.7269,10.2411,-18.3554,15.5054,-12.3606
531.2500,-13.6958,12.3158,-10.5423,15.8450,-16.2433,10.9827,-3.5113,-6.0086,-8.7470,18.0106,-14.8394,16.3037,-15.4760,11.4045,-12.4281,10.5991,-13.5583,15.2758,-12.7860
535.1562,-9.9611,10.6323,-11.1461,17.0006,-9.8968,9.5651,-9.2801,-4.8290,-9.5171,20.8896,-14.4126,14.6261,-11.9150,14.9598,-9.5303,11.2796,-9.1157,15.0764,-11.9587
539.0625,-8.1868,10.0625,-12.1782,17.7897,-4.2711,7.6293,-16.7190,-6.1825,-10.1646,20.1230,-14.0847,12.9621,-7.9068,18.1588,-9.8746,11.3918,-5.3237,15.1821,-10.5974
542.9688,-8.2121,9.7561,-13.9951,18.3481,-0.2616,5.1792,-22.5951,-8.6451,-10.9004,16.3564,-15.2650,10.7577,-3.9788,20.1709,-14.2671,9.9058,-2.3989,15.5642,-9.7097
546.8750,-9.8566,8.7917,-16.3677,18.9710,1.6604,2.3766,-24.1683,-9.8904,-11.9711,10.7410,-18.6469,7.6889,-0.8471,20.4212,-22.0531,6.4102,-0.5139,15.7804,-10.1035
550.7812,-13.0423,6.7031,-18.6949,19.7539,1.6085,-0.4719,-20.8191,-8.2719,-13.4862,4.3023,-23.7316,3.9813,0.8752,18.8470,-31.2951,1.5702,0.1960,15.1624,-12.0263
554.6875,-17.3876,3.7692,-20.3756,20.3902,0.2833,-2.9618,-14.4369,-4.0076,-15.2483,-2.1038,-28.9508,0.3841,1.0068,15.9642,-39.4175,-3.1033,-0.2637,13.2648,-15.0693
558.5938,-21.6177,0.9199,-21.0447,20.3387,-1.1983,-4.6690,-8.3063,0.9197,-16.6720,-7.3418,-32.3050,-2.1947,0.0013,12.7237,-44.0236,-6.0924,-1.5684,10.3064,-18.3340
562.5000,-23.4632,-0.7016,-20.5508,19.2594,-1.6466,-5.2450,-5.1785,4.1119,-16.8943,-9.6955,-32.1965,-3.1753,-1.1409,10.1842,-43.6115,-6.7846,-2.9978,7.2584,-20.7634
566.4062,-20.4892,-0.3192,-18.8019,17.3528,-0.2631,-4.5127,-5.7385,4.3899,-15.1278,-7.3429,-28.0896,-2.6290,-1.3040,9.0765,-38.0199,-5.8360,-3.6499,5.4120,-21.5141
570.3125,-11.6074,2.0276,-15.7187,15.2784,2.9206,-2.5561,-8.4127,2.5316,-11.1536,0.4022,-20.7509,-1.2569,0.1192,9.3968,-28.5271,-4.7266,-2.9366,5.6041,-20.2615
574.2188,1.6432,5.3856,-11.4135,13.6526,6.8497,0.2089,-10.5822,0.6061,-5.6928,11.8779,-12.0109,-0.0538,2.7454,10.2370,-17.5615,-4.8104,-1.0853,7.5718,-17.3456
578.1250,15.0739,8.2106,-6.4509,12.5055,9.7075,3.0270,-10.3410,0.4580,-0.3546,22.9700,-4.1442,0.1392,5.2128,10.0400,-8.0190,-6.5096,0.7689,9.9063,-13.6834
582.0312,23.4817,8.9994,-1.8872,11.1684,9.6638,4.9334,-7.6130,2.4971,2.9702,28.6486,0.9287,-1.0425,5.8194,7.3044,-2.2981,-9.1796,1.1284,10.7460,-10.4227
585.9375,23.2853,6.9671,1.1070,8.7667,5.8601,5.0558,-3.9245,5.6506,3.0642,25.5582,2.3594,-3.4232,3.5299,1.4870,-1.3535,-11.6738,-0.8900,8.8635,-8.4283
589.8438,14.6976,2.4543,1.9081,4.9969,-0.8624,3.0107,-1.0949,8.3744,0.1752,14.1610,0.7290,-6.4566,-1.2102,-6.3878,-4.2113,-13.1540,-4.7492,4.4901,-7.8174
593.7500,2.0092,-3.1650,0.9473,0.5762,-7.9975,-0.8156,0.1466,9.8074,-3.8996,-1.0641,-2.1654,-9.4988,-6.4245,-13.8774,-8.3098,-13.5652,-8.4883,-0.6900,-7.8199
597.6562,-8.4578,-8.0841,-0.3757,-3.0690,-12.3584,-5.3265,0.5984,10.1200,-6.6465,-13.7964,-4.1042,-12.0461,-9.4987,-18.1515,-10.6728,-13.5071,-9.7011,-4.4522,-7.1259
601.5625,-11.7570,-10.9181,-0.4577,-4.7494,-11.6637,-9.1811,1.7961,9.8781,-6.2302,-19.3276,-3.5301,-13.8624,-8.6226,-17.4896,-9.4276,-13.7074,-7.0081,-5.3495,-4.6286
605.4688,-7.1620,-11.3777,1.4747,-4.4440,-5.9222,-11.4611,4.6357,9.1262,-2.6614,-17.2472,-0.4014,-14.9946,-3.9637,-12.4376,-4.8684,-14.5596,-1.1034,-3.6360,-0.1928
609.3750,1.3065,-10.3800,4.7428,-3.4954,2.2345,-12.1393,8.4899,7.1422,2.0280,-11.6373,3.6973,-15.7031,2.1838,-5.8705,0.6064,-16.0482,5.3754,-1.1993,5.0173
613.2812,7.1273,-9.4918,7.4928,-3.8351,8.6401,-12.0161,11.5200,3.1962,4.8320,-8.5551,6.3503,-16.3334,6.4783,-1.7523,3.7632,-17.9984,9.1910,-0.5083,8.9342
617.1875,5.0766,-9.9929,7.7891,-6.7133,9.6699,-12.1141,11.9837,-2.3138,3.5014,-12.3122,5.6574,-17.1478,6.2982,-3.1505,2.3620,-20.3046,8.2940,-3.1951,9.5882
621.0938,-5.6532,-12.0919,4.8787,-11.8076,4.2205,-12.9042,9.5850,-7.4342,-2.0626,-22.8638,1.3850,-18.1632,1.1908,-10.5653,-3.5053,-22.8623,2.9524,-9.1255,6.2111
625.0000,-20.8982,-14.7721,-0.1895,-17.3591,-5.5568,-13.8938,5.8593,-9.5495,-9.6376,-35.9266,-4.7845,-19.0678,-6.8576,-21.5407,-11.3813,-25.2625,-4.4831,-16.5017,-0.1847
628.9062,-33.8776,-16.3724,-5.0253,-21.2732,-15.2759,-13.8960,3.2812,-7.1258,-15.8875,-45.6843,-10.1135,-19.2922,-14.5094,-31.8310,-17.7668,-26.6140,-11.0037,-22.9015,-7.1273
632.8125,-39.0318,-15.5568,-7.1972,-22.4408,-20.5922,-11.8333,3.6932,-1.0395,-18.2390,-48.2919,-12.3139,-18.2434,-18.8845,-37.5145,-20.0221,-25.8153,-14.6232,-26.5932,-11.7927
636.7188,-35.0352,-12.0856,-5.5974,-21.3861,-19.4745,-7.5461,7.1286,5.6080,-16.2878,-43.9550,-10.8119,-15.6179,-19.0324,-36.9034,-17.7190,-22.2300,-15.2639,-27.3459,-12.3374
640.6250,-25.2513,-6.9317,-1.0588,-19.8334,-13.1858,-2.0449,11.8081,9.2152,-11.8943,-36.4047,-7.0142,-11.6326,-16.2453,-31.2319,-12.6801,-16.3048,-14.3910,-26.3187,-8.7570
644.5312,-15.5274,-1.7146,4.1157,-19.5448,-5.4410,2.9858,15.2664,7.8092,-7.9664,-30.3427,-3.4337,-7.0338,-13.1169,-23.8207,-7.7753,-9.6021,-13.7986,-25.2084,-2.8325
648.4375,-10.8369,2.1582,7.3951,-21.2551,-0.2901,6.1146,15.8198,2.1050,-6.7411,-28.6796,-2.2287,-2.8451,-11.9992,-18.2737,-5.2907,-4.0817,-14.4633,-25.2480,2.7804
652.3438,-12.8291,4.1061,7.2973,-24.3896,0.0001,6.9238,13.4303,-5.2075,-8.6371,-31.3048,-4.0434,0.0395,-13.8026,-16.7375,-5.8581,-1.0290,-16.2090,-26.6499,5.8198
656.2500,-19.5680,4.4350,4.0172,-27.6387,-4.1341,6.1345,9.5056,-11.3567,-12.3025,-35.8843,-7.8000,1.2253,-17.7705,-19.1168,-8.4678,-0.3382,-18.2434,-28.7163,5.3945
660.1562,-27.2491,3.9243,-0.8428,-29.8596,-10.2353,5.0701,5.9107,-15.1492,-15.6710,-39.7601,-11.4666,0.9719,-22.1982,-23.5065,-11.3471,-0.6571,-19.9803,-30.3966,2.2219
664.0625,-32.5311,3.3091,-5.1755,-30.6259,-15.5188,4.8567,3.9158,-17.2525,-17.2259,-41.4440,-13.2429,0.0702,-25.5075,-27.4233,-13.0057,-0.3113,-21.4393,-30.8546,-1.9074
667.9688,-34.0118,3.0102,-7.3634,-30.1146,-18.4527,5.8777,3.7113,-19.0768,-16.6608,-40.7975,-12.4318,-0.4844,-26.9837,-29.0654,-12.8092,1.6225,-22.9568,-29.7217,-5.0893
671.8750,-32.2415,3.1990,-6.8851,-28.5815,-19.3065,7.7613,4.6333,-21.3069,-14.6484,-38.1686,-9.5663,0.1378,-26.8343,-27.9690,-10.9141,4.8158,-24.5697,-27.0160,-6.1794
675.7812,-28.7427,4.0117,-4.3445,-25.9672,-19.5188,9.7974,5.7669,-23.3173,-12.0836,-33.5453,-5.8790,2.3397,-25.7344,-24.8758,-7.8705,8.0564,-25.7129,-22.9410,-5.1785
679.6875,-24.9979,5.6504,-1.0365,-21.9988,-20.4942,11.4359,6.4550,-23.8951,-9.4601,-26.5879,-2.5632,6.0217,-24.3167,-21.0784,-4.3187,10.1605,-25.5907,-17.7901,-3.0253
683.5938,-22.0452,8.2678,1.6725,-16.6743,-22.7097,12.5519,6.4517,-22.5756,-6.8163,-17.4644,-0.2898,10.6678,-22.9744,-17.7009,-0.9462,10.7587,-23.9696,-12.0052,-0.9898
687.5000,-20.5884,11.7596,2.8721,-10.6639,-25.6580,13.4015,5.7888,-20.3810,-4.1616,-7.5884,0.8409,15.5196,-22.0038,-15.2761,1.4663,10.4389,-21.7151,-6.2465,-0.0308
691.4062,-21.0912,15.6776,2.3635,-5.2064,-28.5017,14.3998,4.5882,-19.2584,-1.9075,0.6384,1.0467,19.7653,-21.8115,-13.7190,2.1822,10.2433,-20.5213,-1.3050,-0.4422
695.3125,-23.5100,19.3663,0.5913,-1.4949,-30.8313,15.9038,2.9845,-20.6047,-0.8565,5.1265,0.5786,22.7059,-22.8867,-12.5765,0.8761,10.9599,-21.8775,2.1716,-1.9133
699.2188,-26.8984,22.2177,-1.6856,0.0281,-32.9313,18.0759,1.1341,-24.0568,-1.7051,5.5208,-0.4174,23.8951,-25.4791,-11.3499,-2.0423,12.7143,-25.9468,3.9831,-3.8880
703.1250,-29.4649,23.8429,-3.8226,-0.0593,-35.3913,20.7963,-0.8044,-27.5672,-4.4459,3.5741,-1.8922,23.2404,-29.2239,-9.7349,-5.5036,15.0469,-31.1795,4.4890,-5.9554
707.0312,-29.4039,24.0519,-5.6077,-0.5394,-38.4130,23.5937,-2.7680,-28.7915,-8.1723,2.0360,-3.8382,21.0348,-33.0594,-7.7215,-8.3424,17.2650,-35.0320,4.4220,-8.0236
710.9375,-26.1105,22.7324,-7.3022,-0.3323,-41.3748,25.6570,-4.8748,-26.7770,-11.5021,2.7856,-6.2613,17.8742,-35.6100,-5.5624,-10.0143,18.7222,-35.4071,4.4952,-10.2059
714.8438,-20.8666,19.8294,-9.3815,0.8636,-43.0142,26.0415,-7.3627,-22.6788,-13.3733,5.5875,-9.1627,14.4474,-35.8749,-3.6541,-10.9310,18.8673,-31.9212,5.0370,-12.5599
718.7500,-16.2793,15.5281,-12.1366,2.4835,-42.1373,24.0932,-10.3524,-18.9454,-13.6750,8.4378,-12.4884,11.2613,-33.8239,-2.3780,-12.1072,17.2063,-26.1911,5.8578,-14.9248
722.6562,-14.6281,10.5090,-15.3950,3.5718,-38.3964,19.9177,-13.5849,-17.5670,-13.2752,9.2681,-16.0506,8.4295,-30.5151,-1.9605,-14.3349,13.4227,-20.9611,6.4008,-17.0229
726.5625,-16.1853,5.9886,-18.5588,3.4521,-32.6342,14.5847,-16.3618,-18.6774,-13.4198,7.7148,-19.4991,5.6579,-27.6253,-2.4064,-17.4965,7.7032,-18.6137,6.0608,-18.7658
730.4688,-18.7677,3.3486,-20.9438,2.1386,-26.5742,9.8339,-17.8106,-20.5231,-14.9005,5.5818,-22.4139,2.4762,-26.6230,-3.5296,-20.5689,1.0044,-19.9537,4.4924,-20.5075
734.3750,-18.9997,3.4623,-22.1934,0.2686,-22.0297,7.3358,-17.3676,-20.7937,-17.5298,5.6058,-24.4892,-1.3778,-28.0222,-5.0548,-22.3529,-5.0962,-23.9278,1.7820,-22.9730
738.2812,-14.5436,6.1239,-22.4776,-1.3133,-20.0691,7.8729,-15.1914,-18.3128,-20.2399,9.4326,-25.6757,-5.6330,-31.0964,-6.7179,-22.3914,-9.0575,-28.3334,-1.5391,-26.7984
742.1875,-5.7733,10.0105,-22.3340,-1.9840,-20.5595,10.9176,-12.2302,-13.8606,-21.7034,16.3273,-26.1479,-9.4293,-34.1783,-8.2954,-21.3540,-10.1903,-31.0029,-4.6032,-31.9274
746.0938,4.3181,13.3028,-22.2633,-1.5173,-22.2780,14.8816,-9.8597,-9.5642,-21.0570,23.5975,-26.0889,-11.6130,-35.3667,-9.5474,-20.5540,-9.0450,-30.7562,-6.3987,-37.2843
750.0000,11.9768,14.6421,-22.3659,0.0227,-23.4866,17.9165,-9.2646,-7.3473,-18.2886,28.4207,-25.4529,-11.2583,-33.2911,-10.1348,-20.9275,-7.0143,-27.6629,-6.0348,-41.0374
753.9062,15.0464,13.8360,-22.2786,2.4884,-22.6689,18.8099,-10.8826,-7.5766,-14.1090,29.7135,-23.9198,-8.1457,-27.6015,-9.6092,-22.2471,-5.3578,-22.6271,-3.0516,-41.4092
757.8125,14.1876,11.8514,-21.4564,5.7422,-19.1108,17.4703,-14.1927,-8.8588,-9.4757,28.6654,-21.1347,-2.9384,-19.0295,-7.5427,-23.1996,-4.3422,-16.6854,2.3121,-37.6164
761.7188,12.1169,10.0852,-19.6020,9.5679,-13.1201,14.7524,-17.9456,-9.0867,-5.1313,27.5666,-17.1066,3.0358,-9.0752,-3.7722,-22.3262,-3.1674,-10.4962,9.0282,-30.3873
765.6250,11.4363,9.3822,-16.9481,13.5089,-5.8519,11.7763,-20.7131,-6.9511,-1.4470,27.8381,-12.4823,8.2647,0.4873,1.3641,-19.1666,-0.7903,-4.2912,15.4764,-21.7278
769.5312,12.6293,9.4379,-14.2045,16.8174,1.1484,9.1837,-21.4868,-2.8460,1.4005,28.7515,-8.4539,11.5342,8.0834,6.9530,-14.7675,2.9416,1.7834,19.9183,-14.0428
773.4375,13.6765,8.9798,-12.1995,18.6260,6.4985,6.7856,-20.0431,1.4459,3.1481,27.8142,-6.2779,12.2004,12.6684,11.6976,-11.1458,6.7361,7.2599,21.0884,-9.0943
777.3438,11.5905,6.6162,-11.4286,18.2921,9.4325,3.8004,-16.9074,4.0364,3.3674,22.5775,-6.6378,10.2093,13.8991,14.3474,-10.0294,8.3990,11.2409,18.6577,-7.3442
781.2500,4.8078,1.8182,-11.7554,15.7406,10.0104,-0.4761,-12.9500,4.2835,1.7284,12.6107,-9.1985,5.9845,12.1794,14.2025,-11.7028,6.1966,12.7509,13.3698,-7.9628
785.1562,-5.2394,-4.5764,-12.4098,11.6052,9.0272,-5.9847,-8.8461,3.2847,-1.5395,0.2670,-12.6063,0.3330,8.5958,11.4584,-14.7108,0.1208,11.3882,6.7891,-9.3883
789.0625,-14.5064,-10.6543,-12.2750,7.0607,7.6637,-11.6385,-4.7268,3.1719,-5.3489,-10.3102,-14.9577,-5.6035,4.7072,7.1955,-16.6039,-7.8450,7.8594,0.7640,-10.0613
792.9688,-18.5054,-14.3533,-10.3449,3.3883,7.0100,-15.6941,-0.2599,5.6632,-7.9451,-15.3407,-14.5337,-10.4629,2.1511,2.9746,-15.2490,-14.7007,3.9624,-3.1869,-8.9684
796.8750,-14.9249,-14.5055,-6.1822,1.4492,7.6401,-16.6236,4.8636,10.8043,-7.6305,-13.4192,-10.4921,-12.9785,2.1060,0.1935,-9.9278,-18.0333,1.8639,-4.3519,-5.8491
800.7812,-5.0808,-11.4282,-0.2059,1.3113,9.4018,-14.0374,10.3518,16.7219,-3.6870,-6.2350,-3.2409,-12.4748,4.7884,-0.4990,-1.6484,-17.2309,2.9659,-3.0108,-1.1384
804.6875,6.6742,-6.7515,6.3340,2.2229,11.5138,-9.1181,15.0901,20.5790,3.0513,2.3286,5.6527,-9.3002,9.2465,0.5606,7.3971,-13.5851,6.9994,-0.2717,4.2156
808.5938,15.2130,-2.5850,11.7546,2.9773,12.9381,-4.2242,17.5413,20.1864,10.4076,8.1329,14.0077,-4.8614,13.6509,2.2843,14.8426,-9.3288,11.9670,2.3889,8.9967
812.5000,17.2466,-0.4614,14.6178,2.5097,12.8761,-1.7557,16.6290,15.3132,15.8517,8.6957,19.8533,-1.0839,16.0498,3.4110,19.0921,-6.3236,15.1068,3.7193,12.0530
816.4062,12.8468,-0.6010,14.4143,0.4259,11.1587,-2.8300,12.5751,7.9132,17.7777,4.1600,22.2236,0.5196,15.2714,3.1110,19.8245,-5.2250,14.4108,3.1862,12.7102
820.3125,5.1445,-1.8678,11.8957,-2.8299,8.3338,-6.5127,7.1018,1.1275,16.3377,-3.0216,21.5690,-0.3215,11.5022,1.2931,17.9612,-5.5005,9.8073,1.1422,11.1226
824.2188,-1.4813,-2.4266,8.8068,-6.2641,5.3838,-10.1266,2.7593,-2.3471,13.3190,-9.3858,19.5400,-2.4273,6.1937,-1.5169,15.2124,-6.0593,3.2492,-1.4268,8.3267
828.1250,-3.6302,-0.7414,7.0825,-8.9081,3.2054,-10.5767,1.7146,-1.5728,11.1105,-12.0346,18.1800,-3.7711,1.3119,-4.5923,13.4101,-5.9315,-2.3999,-3.4577,5.8541
832.0312,-0.3200,3.6309,7.9096,-10.3229,2.1295,-6.0125,4.7173,2.3659,11.3758,-9.7444,18.8999,-2.5898,-1.6620,-7.4121,13.8540,-4.5892,-5.0102,-4.3677,5.0248
835.9375,7.0139,9.8838,11.1840,-10.7305,1.7609,3.1203,10.8674,7.2039,14.2367,-3.1606,21.7903,1.6401,-2.4041,-9.8076,16.8892,-1.9049,-4.3208,-4.2944,6.2980
839.8438,15.7527,16.5075,15.6888,-10.7247,1.2508,14.2734,18.2726,10.8203,18.4352,5.8824,25.6885,7.9385,-1.7186,-11.8209,21.8811,1.9813,-1.8593,-3.8850,9.0823
843.7500,23.6842,22.1771,19.8710,-10.8129,-0.1519,24.1411,25.0857,12.1694,22.2959,15.4267,28.9776,14.4111,-0.8767,-13.4754,27.6035,6.6761,0.2402,-3.7926,12.1442
847.6562,29.9448,26.4068,22.7076,-11.1440,-2.6103,30.3506,30.2007,11.3030,24.7833,24.1639,30.6187,19.3030,-0.7967,-14.7061,32.8376,11.4851,0.6547,-4.2396,14.3586
851.5625,34.7911,29.5490,24.0969,-11.6116,-5.5923,32.4815,33.2211,8.6597,25.9278,31.4606,30.7299,21.8662,-1.6115,-15.5230,36.8378,15.5334,-0.4669,-4.9534,15.3072
855.4688,38.4858,32.1656,24.5597,-12.1983,-8.2306,31.8436,33.9302,4.3332,26.3830,36.7290,30.3102,22.5435,-2.8639,-16.2325,39.3828,18.1521,-2.0030,-5.5040,15.3422
859.3750,40.2166,34.2599,24.5337,-13.2083,-9.9228,30.2611,31.8988,-2.0082,26.5360,38.7739,30.2999,22.4439,-4.1054,-17.4335,40.4278,19.3147,-3.0437,-5.7539,15.1161
863.2812,37.9965,34.9908,23.8439,-15.1104,-10.7689,28.7566,26.7162,-10.4583,25.9293,35.8619,30.6691,22.5255,-5.3849,-19.6607,39.6891,19.7282,-3.7792,-6.0353,14.9621
867.1875,29.8443,33.1715,21.7869,-18.0502,-11.5433,27.0449,18.7276,-20.0563,23.5088,26.7735,30.2485,23.0359,-7.2308,-22.8689,36.5836,20.3670,-5.3654,-6.8710,14.5988
871.0938,15.5816,28.2741,17.7866,-21.4182,-13.2125,24.1326,9.6061,-28.6408,18.5557,12.2648,27.5048,23.5249,-10.1453,-26.1722,30.6797,21.6914,-8.8663,-8.4312,13.3669
875.0000,-2.0388,21.2260,12.1135,-23.9024,-16.3246,19.5085,2.0640,-33.7425,11.5902,-4.1956,21.7641,23.3290,-14.0410,-28.1586,22.3684,23.1376,-14.1375,-10.1682,10.7936
878.9062,-17.9264,14.3389,6.0708,-24.1317,-20.6852,13.9835,-1.3875,-34.0530,4.4845,-17.3229,14.0024,22.1373,-18.1165,-27.7032,13.1859,23.3738,-19.6082,-10.9818,7.0333
882.8125,-26.9724,10.2690,1.4240,-21.5443,-25.5259,9.5024,0.0705,-30.4335,-0.4299,-22.4213,6.5710,20.2550,-21.3332,-24.7777,5.3804,21.2740,-23.2492,-9.8810,2.8485
886.7188,-26.8565,10.5910,-0.5889,-16.8672,-30.0168,8.0168,4.8821,-25.6080,-1.7227,-17.9935,1.9514,18.4373,-23.1669,-20.6488,0.8556,16.9639,-24.0701,-6.6988,-0.8427
890.6250,-19.5522,14.9040,0.0083,-11.7939,-33.7335,10.2053,9.8630,-22.5696,0.2375,-6.8135,1.3329,17.4652,-24.0477,-17.2074,0.1457,12.1270,-23.0095,-2.3207,-3.4947
894.5312,-10.3734,21.0824,1.9678,-7.9930,-36.7448,14.9623,12.0324,-22.6969,3.5065,5.4934,3.9576,17.7610,-25.0958,-15.7827,2.1521,9.2080,-22.4559,1.7998,-5.1459
898.4375,-4.9405,26.5413,3.6129,-6.0908,-39.2948,20.0376,10.3671,-24.8937,5.7911,13.7031,7.6639,19.2511,-27.2833,-16.2206,4.8833,9.9366,-24.6301,4.5438,-6.1974
902.3438,-5.8762,29.6962,3.8389,-5.3356,-41.3737,23.3941,6.2934,-26.4256,5.8511,16.0638,10.2328,21.4800,-30.6144,-16.9092,6.7162,14.1384,-29.9307,5.8180,-6.9916
906.2500,-11.3615,30.6705,2.6444,-4.2098,-42.5541,24.3527,2.5546,-24.9430,4.1177,15.1147,10.6080,23.8354,-33.9511,-15.8198,7.2807,19.6763,-36.4377,6.5249,-7.5658
910.1562,-16.5515,30.8292,0.8667,-1.5796,-42.2466,23.7554,1.2215,-20.2878,2.1306,15.5987,9.1917,25.7369,-35.6733,-11.9124,7.3292,23.6277,-40.9857,7.8148,-7.7734
914.0625,-16.9620,31.5334,-0.6210,2.4280,-40.1756,23.0907,2.2200,-14.7669,1.2438,20.8171,7.1192,26.7373,-34.7457,-5.9465,7.7081,23.9685,-41.1165,10.1576,-7.6326
917.9688,-11.5746,33.0284,-1.6276,6.4592,-36.6829,23.2497,3.3977,-11.6286,1.5618,29.9397,5.1469,26.5722,-31.4459,-0.1013,8.2632,20.6866,-36.5926,12.9212,-7.5463
921.8750,-3.5525,34.2450,-2.7529,8.8707,-32.5847,23.8217,2.0750,-12.7583,1.8814,38.2164,3.0251,25.1986,-27.2173,3.3823,7.5939,15.6437,-29.4650,14.7876,-8.1439
925.7812,1.9302,33.6080,-4.8431,8.9083,-28.6707,23.4178,-3.0144,-17.2154,0.6555,40.0578,-0.1959,22.8101,-23.7318,3.6351,3.9445,11.3332,-22.6961,14.7127,-9.8260
929.6875,1.2563,30.2259,-8.2416,7.2747,-25.2312,20.7629,-10.7420,-21.6896,-2.7538,32.9205,-5.2179,19.7829,-21.8127,1.6902,-3.3743,9.3826,-18.3230,12.7288,-12.3756
933.5938,-5.1210,24.5936,-12.4195,5.6652,-21.9978,15.7577,-18.2264,-22.6318,-7.4701,19.3149,-11.6803,16.5414,-20.9701,-0.2511,-13.1112,9.7343,-16.4051,9.9906,-14.9942
937.5000,-12.9250,18.3334,-16.2653,5.5911,-18.5583,9.7484,-22.6303,-18.6387,-11.5907,5.5206,-18.1376,13.4076,-19.8635,-0.2993,-22.4823,10.9213,-15.3823,8.0231,-16.8013
941.4062,-16.8417,13.2087,-18.8116,7.3302,-14.9029,4.8193,-22.8782,-11.4702,-13.4057,-2.1305,-22.8647,10.5365,-17.3344,1.9309,-28.6731,11.1237,-13.4544,7.7190,-17.4562
945.3125,-13.8868,10.1397,-19.8581,9.7591,-11.6203,2.5963,-20.1734,-4.9900,-12.4660,-0.8924,-24.8985,7.9803,-13.2569,5.2314,-30.4315,9.2621,-9.9243,8.8180,-17.4274
949.2188,-5.0812,8.8824,-20.0386,11.1962,-9.5071,3.3581,-17.0572,-2.7175,-9.7581,7.2149,-24.5607,5.8179,-8.6050,7.8359,-28.6580,5.4838,-5.5729,10.2276,-17.6687
953.1250,5.5525,8.4930,-20.3069,10.6536,-8.8358,5.9999,-15.7380,-5.5882,-6.9228,17.2608,-23.1192,4.2130,-4.7246,8.7936,-25.6206,0.8814,-1.9148,10.9109,-18.9014
957.0312,13.7467,8.1237,-21.2342,8.6045,-8.8575,8.7893,-16.8295,-11.3532,-5.1523,24.7636,-21.8922,3.3155,-2.3808,8.6683,-23.4058,-3.2343,0.0021,10.6431,-21.0187
960.9375,17.4472,7.5158,-22.6331,6.7053,-8.0237,10.3519,-19.2511,-15.9520,-4.5853,28.1151,-21.4810,3.0566,-1.2952,9.0517,-22.7299,-6.0053,0.3183,10.0573,-23.0625
964.8438,17.3460,6.8785,-23.7540,6.6528,-4.9105,10.2412,-21.1955,-15.9310,-4.5868,28.5431,-21.6559,3.0142,-0.4985,11.2496,-22.8964,-7.3021,0.1165,9.9639,-23.8216
968.7500,15.4370,6.3693,-23.8763,8.9652,0.7231,8.8227,-21.3846,-10.3906,-4.5901,28.0382,-21.8734,2.5102,0.8014,15.1090,-22.7779,-7.5731,0.4837,10.5084,-22.6470
972.6562,13.0195,5.6989,-22.8354,12.5324,7.4996,6.7000,-19.7540,-1.3422,-4.7510,27.1531,-21.9097,0.9459,2.5286,18.8653,-21.9368,-7.4670,1.6636,10.8700,-19.9125
976.5625,9.8278,4.2336,-21.1054,15.2506,13.0111,4.1904,-17.2180,7.5878,-5.8488,24.4976,-22.0525,-1.8149,3.7736,20.1700,-20.9617,-7.4679,2.9594,9.7937,-16.7908
980.4688,4.8874,1.5125,-19.3977,15.3216,15.1514,1.2262,-14.8304,13.1950,-8.5025,18.2481,-22.7033,-5.2838,3.5503,17.6264,-20.7878,-7.6996,3.4313,6.5888,-14.4938
984.3750,-1.8065,-2.2773,-18.0950,12.3554,13.3714,-2.3308,-13.0133,14.2496,-12.3550,8.2984,-23.7645,-8.5557,1.7064,11.7955,-21.6279,-7.9482,2.8063,1.8329,-13.4968
988.2812,-8.3905,-6.3024,-16.9411,7.5739,9.0384,-6.2962,-11.3604,11.7938,-15.9435,-2.8489,-24.3859,-10.7934,-0.7189,4.9858,-22.4656,-7.8684,1.8643,-2.7978,-13.2646
992.1875,-11.9473,-9.5980,-15.2042,3.0264,4.6414,-10.0560,-9.0528,8.2342,-17.4619,-11.3218,-23.3633,-11.6885,-2.0103,-0.0483,-21.6026,-7.2767,1.9738,-5.5199,-12.6472
996.0938,-10.5086,-11.6932,-12.1826,0.3731,2.3428,-12.8372,-5.5058,5.9294,-15.9146,-14.3734,-19.9409,-11.5988,-0.8529,-1.6615,-17.8816,-6.3746,4.1042,-5.5837,-10.6533
1000.0000,-4.6505,-12.8320,-7.6923,0.0287,2.8011,-14.1287,-0.7868,6.0895,-11.8192,-12.2024,-14.4166,-11.2648,2.7643,-0.1551,-11.6286,-5.7360,8.0430,-3.7548,-7.0782
1003.9062,2.6772,-13.5970,-2.2131,1.1550,5.0024,-13.9145,4.4124,8.4590,-6.9076,-7.6612,-8.0614,-11.2947,7.4524,2.5791,-4.5467,-6.0031,12.4052,-1.7833,-2.5908
1007.8125,8.0796,-14.2454,3.3672,2.3942,7.1434,-12.5605,9.1345,11.7358,-3.0079,-4.0690,-2.3806,-11.7614,11.2176,4.3046,1.3923,-7.4346,15.4452,-1.2317,1.7292
1011.7188,9.9665,-14.3364,8.1968,2.7633,7.9147,-10.4994,12.5644,14.3414,-0.9036,-2.8531,1.7566,-12.1833,12.6268,3.7460,5.2146,-9.6176,16.1094,-2.4891,5.0536
1015.6250,9.3643,-13.0269,11.7806,2.0989,7.2838,-8.0236,14.2672,15.1171,-0.0015,-2.8913,4.4817,-11.8976,11.5738,1.1548,7.3890,-11.6131,14.6001,-4.6557,7.2164
1019.5312,8.6227,-9.8704,14.0027,0.8356,6.2694,-5.3675,14.2293,13.6971,0.9576,-2.0707,6.5409,-10.5676,9.1687,-2.1245,9.1112,-12.5280,12.0785,-6.3498,8.6350
1023.4375,9.0336,-5.4958,14.9222,-0.5987,5.9228,-2.9591,12.8014,10.5283,2.6965,0.2371,8.4888,-8.4733,6.8709,-4.7055,11.0206,-12.1527,9.7509,-6.8200,9.8486
1027.3438,9.3259,-1.5444,14.5737,-2.2386,6.3018,-1.5037,10.6289,6.6240,4.6481,1.9088,10.1230,-6.3798,5.4903,-6.0941,12.4247,-11.1664,8.0089,-6.5383,11.0326
1031.2500,6.4173,0.2486,12.9697,-4.5255,6.2288,-1.6558,8.5545,3.1647,5.2768,-0.7202,10.6346,-5.0604,4.7328,-6.9260,11.7423,-10.6569,6.2415,-6.8419,11.8354
1035.1562,-1.9359,-0.7222,10.3032,-7.8153,4.0634,-3.4019,7.4234,1.0511,3.2970,-9.8494,9.3843,-4.7839,3.5625,-8.4224,7.9222,-11.2103,3.4440,-8.8923,11.6435
1039.0625,-14.5428,-3.2739,7.1508,-11.8845,-1.0118,-5.6246,7.7850,0.5254,-1.0970,-23.6435,6.6990,-5.1088,1.0768,-11.4847,1.7708,-12.2279,-0.8338,-12.7261,10.0827
1042.9688,-26.3786,-4.9151,4.4413,-15.8844,-8.1047,-6.3394,9.6088,1.0001,-5.9544,-36.2645,4.0152,-5.1338,-2.7494,-16.0460,-3.9272,-12.0748,-5.9106,-17.1044,7.4018
1046.8750,-31.0809,-3.2940,3.1042,-18.8448,-14.8154,-3.6863,12.2062,1.2097,-8.5736,-40.9251,3.1393,-4.0681,-6.9793,-21.0851,-5.8041,-9.1150,-10.2382,-20.2978,4.4585
1050.7812,-24.9461,2.2517,3.5650,-20.3819,-18.5129,2.8234,14.4727,-0.3063,-7.2087,-34.1830,5.0526,-1.7736,-10.3451,-25.2619,-2.0340,-3.0117,-12.3851,-21.2674,2.2834
1054.6875,-9.7982,10.0552,5.4049,-21.0638,-17.9342,11.6317,15.3780,-4.5374,-2.3464,-18.6274,9.0652,1.0636,-12.1452,-27.7321,6.2000,4.6338,-12.0953,-20.4123,1.4732
1058.5938,7.3396,16.8775,7.4544,-22.0873,-14.0856,19.6206,14.4640,-11.4335,3.3510,-1.9975,12.9575,3.2608,-12.7764,-28.6013,14.9517,10.8767,-10.6722,-19.3418,1.7901
1062.5000,17.8191,19.6694,8.3413,-24.4129,-9.8100,23.6495,12.0727,-19.7244,6.4867,6.9500,14.1176,3.7968,-13.5157,-28.7246,19.4593,13.0078,-10.3469,-19.8014,2.2436
1066.4062,16.1123,17.2990,7.2238,-27.9220,-8.2066,22.3003,9.1739,-27.2737,4.8893,3.3791,11.0287,2.4227,-15.6762,-28.9891,16.7063,10.1628,-12.9497,-22.4590,1.6482
1070.3125,2.8662,11.2053,4.2899,-31.2133,-10.8187,16.7593,6.8785,-31.8742,-1.1223,-10.8752,4.2068,-0.1357,-19.6826,-29.5620,7.1113,3.9173,-18.6925,-26.3606,-0.6389
1074.2188,-15.5497,4.5925,0.7092,-32.2641,-16.6906,10.2340,5.9007,-32.1585,-8.9438,-28.3656,-3.9918,-2.5167,-24.6805,-29.6294,-5.6138,-2.5354,-25.8548,-29.4232,-4.2396
1078.1250,-30.6524,0.6673,-1.9757,-29.6050,-22.8970,6.2073,6.2457,-28.2066,-15.2015,-40.1747,-10.5870,-3.4213,-28.9541,-27.8505,-16.3257,-6.1083,-31.6358,-29.6612,-7.8504
1082.0312,-36.4066,0.9721,-2.6957,-23.2849,-26.2625,6.5706,7.2696,-21.5443,-17.6199,-40.6280,-13.5106,-2.2736,-30.9164,-23.2881,-20.9707,-5.3655,-33.7145,-26.3756,-9.9093
1085.9375,-32.1238,4.7608,-1.4624,-14.9962,-25.2624,10.7469,8.0566,-14.5084,-16.1243,-29.9175,-12.5912,0.5309,-30.0683,-16.2344,-18.4309,-0.9892,-31.5963,-20.5753,-9.4790
1089.8438,-22.2581,9.6850,0.6186,-7.2445,-20.9708,16.2743,7.9005,-9.2757,-12.6078,-13.4158,-9.4829,3.9175,-27.3401,-8.3645,-10.8325,4.9623,-26.9295,-14.3971,-6.8414
1093.7500,-13.5529,13.2681,1.9447,-2.0563,-16.4827,20.3794,6.6344,-7.0324,-9.6515,1.5445,-6.6612,6.7614,-24.6074,-2.0340,-2.3235,10.3506,-22.5860,-9.9107,-3.4380
1097.6562,-11.4018,14.2238,1.2769,-0.0098,-15.1467,21.4892,4.6349,-7.6965,-9.0777,9.3614,-6.1183,8.4569,-23.6754,0.9221,2.9245,13.9033,-21.0516,-8.0487,-1.1702
1101.5625,-17.4473,12.8706,-1.6384,-0.1616,-18.6505,19.7632,2.5041,-10.2978,-11.2016,8.3430,-8.4916,9.0829,-25.3396,0.1834,2.4771,15.3186,-23.0912,-8.2792,-1.4527
1105.4688,-29.4449,10.5273,-6.0401,-0.8638,-26.0789,16.4683,0.6106,-13.7421,-15.0838,0.5713,-13.0273,9.1088,-29.0610,-2.8898,-3.5857,14.7431,-27.4737,-9.1494,-4.5655
1109.3750,-43.0280,8.4259,-10.6986,-0.8984,-34.4691,12.8169,-1.2258,-17.4658,-19.4159,-9.9445,-18.2571,8.9001,-33.4031,-6.0524,-13.0608,12.2720,-31.8754,-9.2911,-9.6504
1113.2812,-54.0691,6.9235,-14.6579,-0.1802,-40.4953,9.1856,-3.6702,-21.5598,-23.3294,-19.4508,-22.8756,8.4121,-36.9062,-7.4578,-22.8167,7.9720,-34.3527,-8.2281,-15.2986
1117.1875,-60.3001,5.5158,-17.6794,0.4038,-42.2604,5.2560,-7.3985,-26.3042,-26.6059,-25.7688,-26.2685,7.3077,-38.8346,-6.6417,-30.1438,2.3672,-34.4437,-6.5035,-20.3119
1121.0938,-61.5489,3.5539,-20.1134,-0.1444,-40.1572,0.8623,-12.4534,-31.4633,-29.2793,-28.3550,-28.4449,5.3976,-39.3571,-4.6036,-33.6566,-3.1689,-33.2344,-5.1105,-24.1588
1125.0000,-58.8606,1.0702,-22.3330,-2.0096,-36.3638,-3.2241,-17.8523,-35.8962,-31.0843,-27.5372,-29.5607,3.0350,-39.1213,-2.9697,-33.4560,-6.6678,-32.4146,-4.6630,-26.9007
1128.9062,-53.3321,-0.9459,-24.1921,-4.2383,-33.3696,-5.3054,-21.8063,-37.8632,-31.2814,-23.7106,-29.4831,1.0995,-38.5849,-2.8186,-30.6478,-6.5155,-33.0041,-4.8917,-28.7579
1132.8125,-45.4649,-1.0786,-24.9659,-5.2570,-32.4755,-3.6868,-22.5778,-35.9464,-29.0599,-17.0610,-27.7838,0.5034,-37.6025,-3.9586,-26.6038,-2.5350,-34.6089,-4.8065,-29.7216
1136.7188,-35.3426,1.5184,-23.8810,-3.8884,-33.1492,2.0683,-19.5696,-30.0460,-24.2367,-7.8549,-24.1929,1.5376,-35.5489,-5.1151,-22.3958,3.5904,-35.6822,-3.3999,-29.5372
1140.6250,-23.3223,6.3698,-20.8795,-0.1649,-33.5267,10.4651,-13.9800,-21.7651,-17.6994,3.1109,-19.1588,3.5528,-31.8585,-4.8524,-18.6312,8.9795,-34.5653,-0.3883,-28.0479
1144.5312,-10.5865,11.7565,-17.0201,4.6304,-31.6383,18.5534,-8.4946,-13.8133,-11.1769,14.3942,-14.0100,5.2826,-26.5524,-2.5566,-15.6142,11.0125,-30.5715,3.5486,-25.5722
1148.4375,0.9767,15.6551,-14.1084,8.7487,-26.5510,23.3683,-6.0233,-8.6575,-6.3828,24.3341,-10.4481,5.6601,-20.3425,1.2074,-13.5503,8.7385,-24.3813,7.2185,-22.9385
1152.3438,9.5902,16.9556,-13.6804,11.0714,-18.7776,23.4868,-8.1149,-7.1701,-4.0468,31.7825,-9.5833,4.5883,-14.2277,5.1731,-12.5559,3.3736,-17.5244,9.7571,-21.0676
1156.2500,14.5717,16.1302,-15.9651,11.7793,-9.8415,19.7351,-13.9826,-8.1037,-3.4833,36.6170,-11.1238,3.0864,-8.8869,8.2849,-12.4737,-2.4089,-11.3738,11.2544,-20.3731
1160.1562,16.7442,14.8512,-19.5608,12.1384,-1.4171,14.6014,-20.8003,-8.7749,-3.0428,39.6003,-13.3425,2.6345,-4.3370,10.3437,-12.7416,-5.9572,-6.3914,12.6838,-20.4379
1164.0625,17.8636,14.7663,-22.1380,13.5402,5.3552,10.7174,-25.1809,-6.6082,-1.2169,41.5885,-13.9926,4.1071,-0.1267,11.9173,-12.5743,-6.0045,-2.1419,15.1315,-20.2571
1167.9688,19.3563,16.2491,-21.7927,16.4546,10.0380,9.3527,-24.9899,-0.6404,2.2981,42.6159,-11.6931,7.0280,4.0848,13.6263,-11.4638,-3.1615,2.0069,18.8440,-18.9217
1171.8750,21.2453,18.0242,-18.1871,20.0208,12.6416,9.8462,-20.4012,7.9217,6.2998,41.5893,-6.9029,9.7170,8.0382,15.4094,-9.6606,0.6501,6.1026,22.7962,-16.2647
1175.7812,22.1382,18.0002,-12.7068,22.5754,13.3278,10.2879,-13.5564,16.4258,8.8040,37.0061,-1.7701,10.3053,10.9088,16.3954,-8.1856,3.3798,9.4034,25.1651,-12.9844
1179.6875,20.4465,14.8043,-7.5076,22.7670,12.3818,8.9699,-7.0966,22.3171,8.3772,28.3755,1.1590,7.9766,11.9086,15.5389,-8.1917,3.9030,10.9489,24.4674,-10.1260
1183.5938,16.0397,8.9629,-4.0905,20.4890,10.4274,5.6339,-2.5676,24.5206,5.2161,17.3664,0.5995,3.5805,11.0257,12.5606,-10.0096,2.3757,10.4706,20.6126,-8.2839
1187.5000,11.0303,2.8367,-2.3915,16.9689,8.5601,1.6863,0.2385,23.8045,1.2112,7.6576,-2.5409,-0.8486,9.2970,8.4450,-12.5742,-0.2015,8.8868,15.1187,-7.1237
1191.4062,8.8325,-0.7625,-1.0225,13.9361,8.0750,-0.7757,2.6267,21.9555,-1.1332,3.2028,-5.6417,-3.3971,8.2942,5.0257,-13.7951,-2.8225,7.8911,10.2705,-5.6129
1195.3125,11.8562,-0.4143,1.5202,12.4378,9.7908,-0.4871,5.5979,20.4012,-0.2796,5.7651,-6.0191,-3.5398,9.0849,3.8469,-11.8094,-5.1388,8.8197,7.7370,-2.8321
1199.2188,19.3622,2.8611,5.5727,12.1401,13.3719,1.9409,8.8156,19.2801,3.2961,13.3202,-2.6776,-2.4928,11.3797,5.0569,-6.3555,-7.5400,11.5859,7.5701,1.2119
1203.1250,27.1798,6.1401,9.9191,11.6279,17.1922,4.2206,10.7746,17.6233,7.3432,20.6402,3.0273,-2.3674,13.5389,7.1357,0.7366,-10.6401,14.5191,8.2831,5.3964
1207.0312,29.8825,6.4590,12.6348,9.5112,19.0111,3.7974,10.0977,14.4919,9.2890,22.0654,8.3102,-4.6560,13.5615,7.7221,6.4442,-14.5421,15.3603,7.9736,8.1253
1210.9375,24.2670,2.8110,12.5782,5.5559,17.1862,-0.3806,6.9890,10.1769,7.9977,14.9388,10.8677,-9.0592,10.4753,5.0581,8.3994,-18.3956,12.8263,5.7200,8.4097
1214.8438,11.8392,-3.0696,10.4290,1.0082,11.7216,-6.9039,3.6706,6.4660,4.6579,1.5054,10.4755,-13.4668,5.1892,-0.8737,6.4918,-20.5990,7.6759,2.2689,6.6488
1218.7500,-1.5895,-7.7189,8.4469,-2.1683,4.4551,-12.4805,3.2917,5.6225,2.1358,-12.1408,9.1419,-15.1558,0.1582,-8.2630,3.0759,-19.6137,2.4583,-0.4851,4.5313
1222.6562,-9.2527,-8.1368,9.0230,-2.6491,-1.8185,-13.8236,7.9007,8.6838,3.1343,-19.6168,9.6655,-12.4641,-2.0232,-14.4909,1.5090,-14.9618,-0.0065,-0.8750,4.0610
1226.5625,-7.7042,-3.7378,12.9858,-0.7588,-4.8280,-9.7328,16.8185,14.2930,8.3253,-18.1531,13.5688,-5.8766,-0.2396,-17.5998,3.9071,-7.8082,1.5220,1.2725,6.3094
1230.4688,0.8262,3.2320,18.8588,1.5980,-4.0380,-2.0339,26.5949,19.0340,15.7027,-10.3104,19.8434,2.1630,4.3648,-17.2970,9.6184,-0.6941,5.7566,4.3801,10.7066
1234.3750,9.7158,9.0909,23.6476,2.0779,-0.8699,5.3165,32.7379,19.2692,21.6432,-2.3284,25.4214,8.5914,8.9810,-14.9224,15.5052,3.5677,9.5223,6.0667,15.3446
1238.2812,12.1786,11.0154,24.6923,-0.6413,2.1855,8.5174,32.2318,13.4063,23.0475,-0.1325,27.1061,11.3768,10.7543,-12.5105,17.9350,3.3224,9.6373,4.6451,18.1077
1242.1875,5.7038,8.7355,21.3680,-6.0672,2.9960,6.2333,25.3077,3.1080,19.2046,-5.6048,23.6841,10.4938,8.4151,-11.6242,15.1969,-0.9381,4.8602,0.1442,17.9131
1246.0938,-6.2684,4.5618,15.5055,-12.2859,0.8796,0.4739,15.3658,-7.4504,12.1879,-15.5604,16.7965,7.6999,2.9088,-12.6959,8.7281,-6.6349,-3.3306,-5.8197,15.2801
1250.0000,-16.5890,1.7929,10.2533,-17.2416,-3.2607,-4.5600,7.0973,-13.9331,5.5404,-24.0484,9.9751,5.3527,-3.3219,-15.1741,2.3006,-10.2847,-11.6029,-11.1765,11.8994
1253.9062,-19.0870,2.5988,8.1390,-20.0016,-7.7405,-4.9998,3.9422,-14.3872,2.1174,-26.3699,6.4814,5.0533,-7.8772,-18.1986,-0.3293,-9.2496,-16.7047,-14.7033,9.5174
1257.8125,-12.5897,6.7557,9.5921,-21.1483,-11.2306,0.3392,6.3778,-10.3869,2.4776,-22.0970,7.3677,6.9142,-9.7556,-21.2262,2.2210,-3.1401,-17.2419,-16.5878,8.8733
1261.7188,-1.6472,11.9715,12.8394,-22.0926,-13.4698,9.2307,11.9515,-6.0584,4.8095,-15.1361,11.0013,9.7778,-9.7049,-24.1777,8.1206,5.9114,-14.2443,-17.9308,9.3550
1265.6250,6.4249,15.4755,15.1563,-23.8671,-15.1519,17.3725,16.8963,-5.6025,6.3453,-10.9356,14.2874,12.1088,-9.4644,-27.1142,13.5190,14.2975,-10.2977,-19.6434,9.5452
1269.5312,6.1369,15.7644,14.5928,-26.3014,-17.1795,20.9354,18.2728,-10.8671,5.2546,-12.8329,14.7140,12.9397,-10.5123,-29.8242,14.9608,18.7716,-7.9255,-21.6093,8.2523
1273.4375,-2.9611,13.4090,11.0633,-28.1542,-19.8856,18.7494,15.3976,-20.4298,1.7615,-19.9894,11.8593,12.3240,-13.1800,-31.7262,11.4548,18.0916,-8.2873,-22.7320,5.3320
1277.3438,-16.3819,10.5212,6.1960,-28.0577,-22.7891,12.8216,9.8685,-30.6428,-2.1779,-28.1455,7.4408,11.1426,-16.6552,-32.1854,4.9244,13.5796,-10.9156,-21.7949,1.7772
1281.2500,-27.7857,9.3582,2.1722,-25.5428,-25.0152,6.9652,4.3615,-37.8546,-4.3146,-32.4780,3.9972,10.5013,-19.7400,-30.9740,-1.1445,8.3038,-14.4534,-18.4545,-0.9474
1285.1562,-32.8448,10.9983,0.3862,-21.3920,-26.0184,4.4754,1.0247,-40.3673,-3.6360,-30.5432,3.1625,11.1271,-21.7427,-28.4684,-3.9004,5.3528,-17.7217,-13.6103,-1.8656
1289.0625,-31.4321,14.8425,0.7551,-17.0925,-26.0420,6.3038,0.3905,-39.0037,-0.9904,-23.4528,4.6722,13.0663,-22.8711,-25.3917,-2.7583,6.1787,-20.3601,-8.8814,-1.1141
1292.9688,-27.0297,19.0875,1.9899,-13.8279,-25.9721,10.7595,1.3188,-36.1359,1.5130,-14.7932,6.6604,15.7477,-23.9222,-22.2872,0.4736,9.9339,-22.7147,-5.5894,0.1586
1296.8750,-24.1396,21.7421,2.5135,-11.7560,-26.7072,14.7595,1.8667,-33.9927,1.8285,-8.2986,6.9311,18.2813,-25.5809,-19.1474,2.9040,14.1439,-25.2314,-3.9926,0.5277
1300.7812,-25.5795,21.5642,1.3805,-10.0662,-28.5216,15.7296,0.5128,-33.3772,-0.8799,-5.8988,4.3063,19.8122,-27.8812,-15.5207,2.3682,16.2808,-27.9158,-3.3004,-0.8257
1304.6875,-31.2704,18.4983,-1.3211,-7.7132,-30.8907,12.9839,-2.9534,-33.4937,-5.9402,-7.2028,-0.7851,19.8052,-30.2079,-11.0419,-1.3981,15.2853,-30.2707,-2.4023,-3.6492
1308.5938,-38.8737,13.5649,-4.7027,-4.2439,-32.8868,7.8775,-7.3266,-32.7819,-11.7594,-10.3392,-6.7317,18.2096,-31.7824,-5.9729,-6.8370,12.1265,-31.6907,-0.7329,-6.8464
1312.5000,-45.4358,8.4022,-7.6723,-0.1125,-33.8246,2.8393,-10.6828,-30.0603,-16.7721,-13.2441,-11.7660,15.4857,-32.2267,-1.2900,-11.6869,9.0895,-31.9393,1.3690,-9.2157
1316.4062,-48.8231,4.6957,-9.4990,3.6918,-33.6590,0.0084,-11.4770,-25.2390,-20.1012,-14.4932,-14.8789,12.4791,-31.7746,1.8284,-14.3412,8.2601,-31.3082,3.0372,-10.2066
1320.3125,-48.2517,3.6475,-10.0688,6.3643,-32.8507,0.2782,-9.4374,-19.2875,-21.6130,-13.4131,-16.0998,10.1521,-30.9923,2.7941,-14.6150,10.1705,-30.3466,3.6612,-10.2051
1324.2188,-44.0308,5.5717,-9.7963,7.7851,-31.8441,3.1549,-5.7591,-13.6571,-21.5283,-9.8491,-16.1157,9.2443,-30.2504,2.1020,-13.5695,13.4623,-29.3936,3.4567,-10.1942
1328.1250,-37.0831,9.7285,-9.3358,8.4499,-30.6150,7.2940,-2.4834,-9.6161,-20.0240,-4.0805,-15.6279,9.9894,-29.3772,1.1041,-12.6543,15.7641,-28.2946,3.3844,-11.0529
1332.0312,-28.6515,14.5204,-9.2783,8.9433,-28.6950,11.2607,-1.4052,-7.8508,-17.1629,3.0267,-14.9353,12.0143,-27.7814,1.1428,-12.7916,15.2011,-26.5271,4.4737,-12.9898
1335.9375,-20.1497,18.0799,-9.9625,9.4060,-25.6869,14.0840,-3.1384,-8.4017,-13.1439,9.9905,-13.9801,14.4667,-24.9774,2.6083,-13.9546,11.5491,-23.6493,7.0429,-15.4935
1339.8438,-12.8687,19.0650,-11.4345,9.4264,-21.8548,15.4357,-6.8810,-10.7896,-8.5733,15.2012,-12.7154,16.3087,-21.1293,4.6022,-15.3929,6.2933,-19.7452,10.3822,-17.8035
1343.7500,-7.4415,17.2901,-13.5199,8.4370,-18.2496,15.5175,-10.9952,-14.1680,-4.4326,17.8560,-11.4285,16.6520,-17.1839,5.5149,-16.2390,1.5988,-15.5435,13.1357,-19.5310
1347.6562,-3.3730,13.8292,-15.9347,6.3059,-16.1401,14.8380,-14.0079,-17.4583,-1.6746,18.7238,-10.7216,15.0191,-14.4219,4.1980,-16.0436,-1.0746,-12.1042,14.1333,-20.9491
1351.5625,0.8709,10.4791,-18.3687,3.6652,-16.0666,13.9966,-15.3815,-19.5286,-0.6918,20.0137,-11.1358,11.4799,-13.6657,0.9530,-14.9273,-1.7583,-10.2554,13.1245,-22.7165
1355.4688,7.0006,8.8362,-20.5107,1.7076,-17.2005,13.4954,-15.5918,-19.4634,-1.0475,24.1365,-12.6995,6.6524,-14.6496,-2.3848,-13.3576,-1.6628,-10.1184,10.9380,-25.2308
1359.3750,15.6406,9.4741,-22.0486,1.5484,-17.5820,13.5656,-15.5484,-16.8765,-1.7094,31.9718,-14.7687,1.5622,-16.0146,-3.4342,-11.8147,-2.0681,-11.0098,8.9681,-28.1123
1363.2812,25.4760,11.6655,-22.7132,3.5407,-15.2377,14.0450,-15.8513,-12.1299,-1.6880,41.7632,-16.3402,-2.6517,-16.0164,-0.7718,-10.6282,-3.2863,-11.7908,8.3130,-30.2625
1367.1875,33.5073,13.7823,-22.4074,6.9599,-9.5321,14.3880,-16.4450,-6.3240,-0.6893,49.5316,-16.6830,-5.1476,-13.5755,4.9911,-10.0594,-4.4873,-11.4753,9.0952,-30.5396
1371.0938,36.4744,14.1414,-21.3626,10.2516,-1.8480,13.8753,-16.8689,-1.0030,0.6568,51.0046,-15.8692,-5.7686,-9.0287,11.2963,-10.4437,-4.5055,-9.7638,10.3723,-28.6138
1375.0000,32.7391,11.8491,-20.1677,11.7248,4.9551,11.9786,-16.7980,2.3673,1.1867,44.0662,-14.7959,-5.1815,-4.0673,14.9269,-12.1291,-2.9734,-7.1935,10.6905,-25.3709
1378.9062,23.5373,7.2459,-19.5303,10.3503,8.0820,8.7203,-16.3318,2.9943,0.0134,30.3005,-14.5953,-4.5956,-0.8177,13.7781,-15.1206,-0.8562,-4.8035,8.9616,-22.4854
1382.8125,12.7877,1.7773,-19.7980,6.2846,6.4412,4.8198,-15.7322,1.2054,-2.7366,14.6397,-15.7549,-5.1085,-0.5628,8.0711,-18.6528,0.0985,-3.4818,5.1672,-21.3504
1386.7188,5.4345,-2.6101,-20.5046,0.8780,1.3630,1.4920,-14.8403,-1.4869,-5.7530,3.1795,-17.5302,-7.0051,-2.8743,0.2910,-21.1001,-1.3646,-3.3640,0.4900,-22.0400
1390.6250,5.1191,-4.2847,-20.3150,-3.8507,-4.0726,-0.0637,-12.7665,-2.8558,-7.1224,0.2700,-18.1294,-9.4643,-5.7270,-6.1159,-20.5123,-4.9719,-3.6570,-3.2191,-23.0395
1394.5312,12.3614,-2.6452,-17.5840,-6.0602,-6.7021,0.7219,-8.3129,-0.9043,-5.3906,6.4035,-15.6902,-10.9585,-6.5898,-8.5210,-15.6489,-8.9688,-3.0411,-4.3684,-22.0214
1398.4375,24.1774,1.5295,-11.3515,-4.8922,-4.9319,3.3691,-0.9947,5.0692,-0.5133,17.9807,-9.5364,-10.2091,-3.8811,-6.3675,-6.9545,-11.3095,-0.4595,-2.4672,-17.2586
1402.3438,35.3254,6.2531,-2.2100,-0.8656,0.5890,6.3639,8.0646,13.8413,5.8877,29.0285,-0.9297,-7.1467,2.0820,-1.2524,3.1983,-11.1656,4.1620,1.5660,-8.8077
1406.2500,40.5742,9.0293,7.5773,4.3477,7.5904,7.6727,16.1713,22.5434,11.1785,33.9379,7.2437,-3.2218,9.2208,4.0958,11.3335,-9.6218,9.7206,5.8039,1.3112
1410.1562,36.9198,7.8692,14.9620,8.6883,13.5973,5.5820,20.2765,27.8968,12.9761,29.8451,11.8075,-0.7501,14.8459,7.2730,14.4576,-8.9617,14.4351,8.2231,10.1019
1414.0625,24.7609,2.2411,17.6209,10.6490,17.2051,-0.4808,18.7476,27.8580,10.3560,17.5776,10.9604,-1.5818,17.1232,7.2625,11.5837,-10.9629,16.7719,7.6627,15.1753
1417.9688,7.5867,-6.4982,15.2468,9.9059,18.4766,-9.5266,12.5655,22.7669,4.3484,0.9058,5.3294,-5.8686,15.9785,4.6202,4.3211,-15.3855,16.2534,4.3391,15.9833
1421.8750,-9.5591,-15.4758,9.8129,7.3083,18.3785,-19.2131,5.0654,15.2584,-2.5417,-15.3084,-2.2204,-11.7209,12.9342,0.8598,-3.8400,-19.7752,13.6555,-0.3317,13.9747
1425.7812,-22.0596,-21.4128,4.5837,4.2500,17.7983,-26.6455,0.2511,8.8798,-7.5203,-27.0554,-7.9457,-16.0500,10.0531,-2.4729,-9.1795,-20.8308,10.4849,-4.4811,11.6243
1429.6875,-27.2826,-22.0167,2.4050,1.8075,16.8775,-29.4544,0.6510,6.1692,-8.7627,-32.3663,-9.0187,-16.1708,8.6968,-4.4945,-9.4399,-16.5058,8.0786,-6.6938,10.9663
1433.5938,-25.1728,-17.0106,4.2615,0.1599,15.0599,-26.7035,6.0167,7.3340,-6.1191,-31.4684,-4.7976,-11.2597,8.8623,-5.1810,-4.6974,-7.4813,6.8928,-6.6141,12.5216
1437.5000,-17.8546,-8.2873,8.9226,-1.3840,11.7008,-19.2425,13.6248,10.3298,-0.9954,-26.1949,3.0404,-2.8274,9.4230,-5.1443,2.9360,2.9704,6.3906,-4.9933,15.2098
1441.4062,-8.6336,0.9077,13.8209,-3.8166,6.7134,-9.3672,19.9249,12.2560,4.4188,-19.1713,11.4611,6.0519,9.0001,-5.2513,10.4622,10.6734,5.5253,-3.2316,17.1952
1445.3125,-0.8957,7.3821,16.5692,-7.7135,0.7801,0.0513,22.4610,11.1440,8.1143,-13.1383,17.5227,12.2993,6.8355,-6.2994,15.3040,12.7606,3.4419,-2.7046,17.0716
1449.2188,2.7636,9.3332,16.1927,-12.8194,-4.9574,6.5971,20.9222,6.9888,8.9758,-10.4396,19.5568,14.2975,3.1355,-8.7988,16.1518,9.0983,-0.0588,-4.2032,14.6572
1453.1250,1.0847,7.0097,13.4170,-18.1540,-9.4386,9.0871,16.8374,1.4292,7.0274,-12.5191,17.5974,12.4997,-1.2144,-12.8069,13.1315,2.1624,-4.5153,-7.6904,10.9916
1457.0312,-5.6079,2.4390,9.9865,-22.5106,-12.0611,7.8286,12.3273,-3.5816,3.2473,-19.3917,13.0409,8.9489,-5.2414,-17.8007,7.4634,-4.4261,-9.1371,-12.3922,7.6456
1460.9375,-15.4796,-1.6001,7.5549,-25.0090,-12.7170,4.3132,8.8408,-7.1169,-0.8798,-29.3409,7.8671,6.0762,-8.3443,-22.6834,0.9300,-7.7623,-13.1729,-17.1210,5.8316
1464.8438,-25.6775,-2.8538,6.8411,-25.4005,-11.6191,0.5276,6.6446,-9.7011,-3.9077,-39.2327,3.8324,5.4797,-10.3896,-26.0577,-4.6391,-6.8775,-16.0960,-20.6958,5.8362
1468.7500,-33.2672,-0.5478,7.4596,-24.0411,-9.1838,-1.8239,5.2038,-12.6114,-4.9421,-45.6084,1.9103,7.2859,-11.5421,-26.7687,-7.8179,-2.7997,-17.6216,-22.3439,7.0212
1472.6562,-36.3754,4.3772,8.3575,-21.6537,-6.0955,-1.8874,3.9756,-16.6682,-3.9924,-46.2035,2.0787,10.3168,-12.0899,-24.5022,-7.9760,2.3502,-17.7113,-21.9724,8.2803
1476.5625,-35.0350,9.8051,8.4728,-19.0545,-3.4149,0.1632,2.9516,-21.4441,-2.0064,-41.1108,3.4394,12.8523,-12.4176,-20.0880,-5.5198,6.5698,-16.6604,-20.2003,8.6215
1480.4688,-31.2180,13.4756,7.2122,-16.9359,-2.4571,3.3557,2.5893,-25.4543,-0.4910,-32.8470,4.6175,13.5415,-13.0547,-15.2497,-1.8150,8.8356,-15.1679,-18.0910,7.5585
1484.3750,-27.9054,14.0156,4.5745,-15.6987,-4.3175,6.4101,3.2705,-27.1343,-0.8030,-25.1480,4.3345,12.0187,-14.5994,-11.8472,1.3024,9.2910,-14.1970,-16.6482,5.1787
1488.2812,-27.6051,11.4909,0.9911,-15.3212,-9.2425,8.2610,4.7608,-25.8656,-3.4275,-21.0977,1.9638,8.9878,-17.4320,-10.9853,2.2850,8.8441,-14.5596,-16.3002,1.9530
1492.1875,-31.1146,7.2407,-2.9330,-15.3282,-16.2780,8.4000,6.0967,-22.3410,-7.6622,-21.6392,-2.1796,5.7946,-21.3829,-12.4818,0.5441,8.5019,-16.4348,-16.6661,-1.5430
1496.0938,-37.2310,3.1165,-6.6405,-14.9654,-23.5438,6.9446,6.0024,-18.1031,-11.9577,-25.3049,-6.9938,3.7271,-25.6558,-15.0090,-3.3390,8.7921,-19.1982,-16.7828,-4.8478
1500.0000,-43.5545,0.5478,-9.7641,-13.5933,-29.0966,4.4772,3.5791,-14.6867,-14.7800,-29.2564,-11.1481,3.3838,-29.1843,-16.8296,-7.9855,9.5136,-21.7953,-15.7074,-7.7105
1503.9062,-47.8735,-0.0687,-12.1982,-11.1287,-31.9175,1.7838,-1.1530,-12.9967,-15.5041,-30.9428,-13.7631,4.4121,-31.2652,-16.7050,-11.9597,9.8902,-23.4983,-13.1470,-10.0813
1507.8125,-49.2950,0.6347,-14.0980,-8.2406,-32.4148,-0.3831,-7.1752,-13.2577,-14.7837,-29.3886,-14.8296,5.7462,-32.0472,-14.4710,-14.4602,9.0423,-24.5263,-9.7140,-12.0522
1511.7188,-48.5021,1.5409,-15.7859,-6.0876,-32.0956,-1.4687,-12.9006,-15.3643,-14.1426,-25.4580,-15.1309,6.2233,-32.4863,-10.9999,-15.6068,6.5568,-26.0134,-6.6176,-13.7924
1515.6250,-47.0997,1.7582,-17.5751,-5.6718,-32.5872,-1.2203,-16.8843,-19.1738,-15.0322,-21.1226,-15.7338,5.2518,-33.7288,-7.6404,-16.2338,2.8644,-29.2302,-4.9639,-15.4979
1519.5312,-46.5351,1.0751,-19.5813,-7.1777,-34.6166,0.2548,-18.4519,-24.4306,-17.9392,-18.2932,-17.3685,3.1557,-36.3069,-5.5089,-17.3639,-0.8090,-34.5307,-5.0986,-17.3497
1523.4375,-47.2335,-0.0439,-21.6253,-9.7379,-37.5913,2.5125,-17.9280,-30.4202,-22.0801,-17.8606,-20.0492,0.9916,-39.6989,-5.0285,-19.6467,-2.9531,-40.7689,-6.4025,-19.4662
1527.3438,-48.3377,-0.8095,-23.2867,-11.8228,-40.0363,4.9305,-16.3614,-35.7720,-25.8292,-19.2983,-23.0993,-0.0611,-42.5720,-5.8994,-22.9909,-2.5194,-45.6743,-7.6478,-21.8433
1531.2500,-48.0629,-0.5116,-24.0839,-12.0438,-40.5858,6.9896,-14.9093,-38.7574,-27.5604,-20.8345,-25.4884,0.6254,-43.5541,-7.4038,-26.5052,0.4892,-47.0257,-7.6601,-24.3012
1535.1562,-44.4291,1.2541,-23.6863,-9.8740,-38.8720,8.5417,-14.2380,-38.0363,-26.3833,-20.0543,-26.2558,2.7922,-42.0060,-8.7835,-28.7786,4.9257,-43.8920,-5.8622,-26.4804
1539.0625,-36.1062,4.5537,-22.0647,-5.8394,-35.7324,9.8662,-14.2874,-33.4031,-22.4080,-14.8046,-24.8452,5.4858,-38.2821,-9.4698,-28.4660,8.9807,-37.1299,-2.4060,-27.9273
1542.9688,-23.1502,9.1276,-19.5399,-1.0941,-32.6094,11.4076,-14.5264,-26.0063,-16.5365,-4.2451,-21.3056,7.6283,-33.3441,-9.1140,-25.0271,10.9922,-28.8280,2.0843,-28.2703
1546.8750,-7.3907,14.3385,-16.7356,3.2931,-30.5455,13.3236,-14.4952,-17.8435,-10.0451,10.3196,-16.3742,8.5883,-28.0590,-7.5225,-19.2954,10.1658,-21.0954,6.8819,-27.4197
1550.7812,7.8251,19.1275,-14.4468,6.8504,-29.4337,15.1724,-14.2293,-10.8156,-4.2312,25.3830,-11.4083,8.4024,-22.7134,-4.6356,-13.4673,6.8594,-15.0120,11.3575,-25.6765
1554.6875,18.6992,22.1779,-13.4237,9.7055,-28.0161,16.0475,-14.2362,-5.9179,-0.1980,36.3690,-8.0658,7.5571,-17.0754,-0.5951,-10.2804,2.3472,-10.3892,14.9413,-23.6552
1558.5938,22.6247,22.3938,-14.0986,12.1669,-24.6468,15.1725,-15.0348,-3.0273,1.3246,39.7334,-7.7053,6.5399,-10.9026,4.1748,-11.6109,-1.7638,-6.3777,17.0243,-22.0218
1562.5000,19.6410,19.5106,-16.3504,14.2641,-18.3522,12.5812,-16.6281,-1.3313,0.2057,35.0166,-10.6966,5.4922,-4.4578,8.9943,-17.2186,-4.1676,-2.3732,17.0280,-21.1723
1566.4062,12.7408,14.4230,-19.4600,15.6206,-9.5363,9.3394,-18.3713,-0.0249,-2.9071,25.4999,-16.0372,4.1810,1.3903,13.1143,-24.5014,-4.3043,1.4728,14.7023,-21.0380
1570.3125,6.5322,8.8826,-22.3591,15.7471,0.0997,7.0103,-19.4024,1.2197,-6.6788,16.7107,-21.6351,2.2528,5.5756,15.9890,-29.6555,-2.5106,4.4578,10.4544,-21.1453
1574.2188,4.7592,4.6132,-24.1003,14.5044,8.3757,6.6109,-19.3283,2.2862,-9.5754,13.3559,-25.2602,-0.4575,7.4545,17.4767,-29.7569,0.1210,5.9986,5.4068,-20.9050
1578.1250,8.0911,2.3522,-24.2910,12.3628,13.6976,7.7700,-18.5826,3.0324,-10.5796,16.4681,-25.6901,-3.7858,7.1902,17.8365,-24.5509,2.1210,6.1852,1.0285,-19.9506
1582.0312,13.6798,1.4797,-23.1939,10.2383,15.7418,8.7779,-18.0595,3.7082,-9.7115,22.6895,-23.3357,-7.3246,5.6372,17.5076,-16.7412,2.1745,5.7747,-1.5092,-18.3130
1585.9375,16.9929,0.5550,-21.3867,9.0013,15.3809,7.6550,-18.2070,5.0059,-7.9604,26.3913,-19.8834,-10.6178,3.8249,16.7952,-10.4278,-0.3426,5.6502,-1.8710,-16.3267
1589.8438,14.9190,-1.5530,-19.2000,8.9831,13.9475,3.6057,-18.2807,7.6569,-6.5950,23.4402,-17.1179,-13.2995,2.4129,15.6475,-8.5608,-5.0339,6.1792,-0.6421,-14.3528
1593.7500,8.1461,-4.7233,-16.3570,9.7961,12.3368,-2.1590,-16.4724,11.8239,-6.2637,14.1791,-15.6792,-15.1065,1.4713,13.6604,-11.0160,-10.5550,6.9648,1.1020,-12.5265
1597.6562,1.1256,-7.5331,-12.1460,10.5650,10.5312,-6.9159,-11.0381,16.7103,-6.4895,3.5610,-14.6070,-15.8308,0.6882,10.3167,-14.5849,-15.1246,7.1688,2.4649,-10.7086
1601.5625,-0.5287,-8.1910,-6.0690,10.4087,7.8362,-8.0402,-1.7440,20.7093,-5.9253,-1.7932,-12.0112,-15.3203,-0.2002,5.3340,-14.9453,-17.2749,6.1594,3.2102,-8.6579
1605.4688,6.3945,-5.8189,1.4865,8.8835,3.6417,-4.7038,9.4436,22.1037,-3.2188,2.2558,-6.4249,-13.5645,-1.0814,-1.0575,-9.3573,-16.4725,4.0258,3.7678,-6.2669
1609.3750,20.5105,-1.1589,9.1058,6.1637,-1.8308,1.5117,19.0958,19.9841,2.0845,14.7384,2.0969,-10.7841,-1.4587,-8.0545,1.6719,-13.2828,1.6229,4.8020,-3.6632
1613.2812,36.5012,3.8324,14.9540,2.9089,-7.3286,7.5685,24.1830,14.8765,9.1952,30.1975,11.8958,-7.4130,-0.7383,-14.4686,14.8020,-9.0094,0.1454,6.6565,-1.0896
1617.1875,48.2174,7.2398,17.8041,-0.0697,-11.0857,10.8901,23.8885,8.6746,16.4846,42.0833,20.6781,-3.9457,1.3984,-19.0845,25.9874,-5.0388,0.5131,9.0391,1.3314
1621.0938,52.1896,8.4079,17.7950,-2.1666,-11.7463,10.9474,20.1171,3.8274,22.3224,46.5987,26.8193,-0.7505,4.7721,-21.0396,32.8132,-2.2760,2.9164,11.1227,3.7371
1625.0000,49.2809,8.2503,16.3500,-3.2139,-9.1072,9.4288,16.2789,2.1581,25.7746,44.4633,30.0808,2.0037,8.7426,-20.0838,35.4861,-0.9472,6.7187,11.9606,6.4251
1628.9062,43.5389,8.4397,15.2586,-3.5129,-4.2123,8.8963,15.1173,3.9463,26.7629,39.6070,31.2930,4.2504,12.4514,-16.6407,35.9587,-0.7747,10.7084,10.9448,9.5609
1632.8125,39.1991,10.0854,15.5259,-3.6660,1.2396,10.8944,17.0467,7.8120,25.7207,35.9466,31.3572,5.8607,15.1269,-11.6729,36.0189,-1.3013,13.5560,8.0531,12.9120
1636.7188,37.9520,12.8729,16.7924,-4.2770,5.7625,14.8538,20.1299,11.5103,23.1306,34.6254,30.4204,6.5923,16.3105,-6.4157,35.8532,-2.1098,14.3016,3.7995,15.8395
1640.6250,38.2407,15.2895,17.7409,-5.6458,8.6683,18.5437,21.6776,13.2025,19.3318,33.5769,27.8957,6.2503,15.9371,-2.0704,34.1298,-2.8458,12.7226,-1.0223,17.5995
1644.5312,36.8395,15.7596,17.1974,-7.6044,10.0457,19.7150,20.3089,12.4522,14.6851,29.5023,23.2940,4.9656,14.2685,0.4615,29.4408,-3.1453,9.4481,-5.6350,17.7786
1648.4375,31.4148,13.8521,15.1222,-9.6014,10.2631,17.7381,16.9975,10.3273,9.8403,20.6478,17.1509,3.3528,11.7312,0.7465,21.9035,-2.6315,5.7316,-9.4802,16.5694
1652.3438,22.2436,10.6899,12.7541,-11.0141,9.4497,14.0749,14.3706,8.5346,5.7616,8.3448,11.2210,2.3543,8.7320,-1.1362,13.6292,-1.0406,2.9075,-12.2853,14.6833
1656.2500,12.0332,8.2839,11.7808,-11.5294,7.3810,11.2856,14.7823,8.1408,3.3903,-3.6801,7.6659,2.8003,5.5302,-4.6721,7.6546,1.6211,1.7397,-14.0259,12.9490
1660.1562,4.1772,8.2864,13.1200,-11.3610,3.8420,11.3075,18.5469,8.7271,3.1562,-11.5679,7.7559,4.9480,2.2246,-9.0784,6.0981,5.0399,2.0008,-14.8322,11.8574
1664.0625,0.7718,11.0398,16.1920,-11.1444,-0.8576,14.2223,23.5827,8.5655,4.7155,-13.4881,11.0222,8.3209,-1.1433,-13.5112,8.8771,8.7331,2.5738,-14.8815,11.3591
1667.9688,1.6793,15.5358,19.2190,-11.5460,-5.6864,18.3246,26.7049,5.7398,7.1446,-10.2879,15.5069,11.9830,-4.4435,-17.2496,13.8872,12.2632,2.0897,-14.3113,11.0367
1671.8750,5.0299,20.2221,20.3607,-12.8111,-9.2529,21.3613,25.6660,-0.5024,9.4777,-4.4445,18.9703,15.0797,-7.3858,-19.8098,18.4584,15.3594,-0.2341,-13.1814,10.5105
1675.7812,8.5531,24.0102,18.9005,-14.5382,-10.5444,22.0179,20.5615,-9.0499,11.2149,1.6724,20.2167,17.2810,-9.6011,-20.9761,20.9929,17.8708,-4.0752,-11.5048,9.7705
1679.6875,10.7265,26.7640,15.6702,-15.8336,-9.5582,20.6304,13.7066,-17.3532,12.4511,6.9145,19.6244,18.8306,-10.8537,-20.7717,21.6254,19.6358,-8.1717,-9.3302,9.1843
1683.5938,11.0970,28.9962,12.4373,-15.7709,-7.3899,18.7213,8.1451,-22.7250,13.5634,11.2283,18.5528,20.1895,-11.2473,-19.4059,21.5351,20.4382,-11.1093,-6.8170,9.1681
1687.5000,9.8657,31.1092,10.7007,-13.8857,-5.6997,17.7983,5.8266,-23.7252,14.7226,14.7200,18.1242,21.5589,-11.2662,-17.2222,21.5702,20.1395,-12.2401,-4.2382,9.7588
1691.4062,7.3191,32.8300,10.7274,-10.4232,-5.8856,18.3226,6.6130,-20.8263,15.6150,16.9222,18.3119,22.6529,-11.5867,-14.6413,21.3312,18.8939,-12.1320,-1.8844,10.4159
1695.3125,3.6354,33.3026,11.4662,-6.2153,-8.4610,19.5486,8.6406,-16.0492,15.5908,16.9700,18.0087,22.9026,-12.7482,-12.0792,19.4618,17.2411,-12.2373,0.0819,10.2345
1699.2188,-0.8754,31.7763,11.3549,-2.2822,-12.9583,20.2646,9.6604,-11.8911,14.1324,14.5387,16.0005,21.9498,-14.8850,-9.8417,14.9263,15.9359,-13.9878,1.7223,8.4750
1703.1250,-5.4670,28.3662,9.4335,0.6037,-18.3264,19.8303,8.4210,-10.2145,11.2958,10.6824,12.0853,20.0624,-17.6868,-8.0378,8.2520,15.5770,-17.9031,3.2891,5.0779
1707.0312,-9.0215,24.2910,6.0015,2.1718,-23.4995,18.7358,5.2536,-11.6483,7.7974,7.7198,7.4692,18.1433,-20.6106,-6.5738,1.6911,16.2767,-23.2792,5.0596,0.8168
1710.9375,-10.5813,21.3499,2.3987,2.6425,-27.7973,18.2863,1.6212,-15.6317,4.6601,8.0200,4.0985,17.2778,-23.1984,-5.2653,-1.9788,17.5989,-28.6295,7.1290,-3.0521
1714.8438,-10.0184,20.9245,0.0907,2.5162,-31.0086,19.6358,-0.9497,-20.8523,2.6321,12.4110,3.3629,18.0789,-25.2906,-4.0214,-1.2770,18.8042,-32.5536,9.2891,-5.4711
1718.7500,-8.3255,23.1261,-0.3136,2.3051,-33.2496,22.8408,-1.8227,-25.7445,1.7441,19.3277,5.0700,20.2379,-27.0149,-2.9874,2.7936,19.2240,-34.4581,11.0733,-6.2020
1722.6562,-7.2149,26.6372,0.5250,2.3309,-34.7761,26.5869,-1.5302,-28.8820,1.2816,25.4135,7.4167,22.5740,-28.5876,-2.5270,7.0951,18.5186,-34.7008,11.9543,-6.0105
1726.5625,-8.1645,29.3711,1.0780,2.6473,-35.8521,28.8064,-1.2953,-29.2980,0.2019,27.3595,8.0100,23.5849,-30.0870,-3.0131,8.1347,16.7070,-34.1402,11.5941,-6.2835
1730.4688,-11.4462,29.5790,-0.1196,3.0869,-36.6534,27.8402,-2.1725,-26.7891,-2.2415,23.9166,5.2870,22.2107,-31.3513,-4.5294,4.1887,14.0567,-33.4573,10.0238,-8.2782
1734.3750,-15.7528,26.7673,-3.6002,3.4014,-37.1488,23.4551,-4.3746,-22.1059,-6.0176,16.8200,-0.5640,18.4082,-32.0410,-6.6705,-3.5850,10.9999,-32.7117,7.6738,-12.4193
1738.2812,-18.7306,21.9088,-8.6766,3.4429,-36.9897,17.0941,-7.1910,-16.8111,-10.2534,9.9820,-7.7364,13.2326,-31.7872,-8.5940,-11.7844,8.1403,-31.3801,5.2492,-18.0343
1742.1875,-18.2003,16.8489,-13.8710,3.3099,-35.5368,11.1833,-9.5217,-12.6835,-13.6306,7.3554,-13.8596,8.3755,-30.3156,-9.3377,-16.7701,6.2298,-28.7800,3.5045,-23.6675
1746.0938,-13.4079,13.2717,-17.7568,3.3720,-32.1274,7.8591,-10.6687,-10.8604,-15.0404,10.7116,-17.2876,5.3781,-27.4981,-8.2466,-16.7873,5.9469,-24.5534,2.9975,-27.7896
1750.0000,-5.5680,11.8294,-19.6946,4.1187,-26.5163,7.8317,-10.8640,-11.1923,-14.1549,18.6566,-17.8523,4.8946,-23.3688,-5.2825,-12.8908,7.4683,-18.9093,3.8964,-29.5119
1753.9062,2.6698,11.9095,-20.0505,5.8756,-19.2355,10.0295,-11.1710,-12.2712,-11.6148,27.4688,-16.7132,6.3667,-18.1665,-1.0505,-8.1473,10.0922,-12.5275,5.9000,-28.9359
1757.8125,8.5668,12.1215,-19.8277,8.5301,-11.5818,12.2329,-12.7840,-12.2115,-8.7326,33.2187,-15.5184,8.2832,-12.4001,3.4586,-5.6971,12.2865,-6.2566,8.3076,-26.9948
1761.7188,10.6739,11.1625,-19.9927,11.4530,-5.1412,12.3322,-16.1543,-9.7588,-6.8659,33.8503,-15.4664,8.9264,-6.8502,7.2634,-6.9538,12.3285,-0.8212,10.2434,-24.9207
1765.6250,9.4139,8.5297,-20.9233,13.7205,-1.0665,9.4819,-20.5215,-5.0354,-6.7866,29.9719,-16.8120,7.2529,-2.4071,9.7290,-11.0487,9.2788,3.3191,10.9801,-23.6509
1769.5312,6.5350,4.6928,-22.2814,14.5617,0.4679,4.5006,-24.2010,0.5564,-8.3634,23.9939,-18.9885,3.4622,0.2544,10.7151,-15.7426,3.6933,5.9633,10.2476,-23.4653
1773.4375,3.8505,0.7086,-23.3187,13.7916,0.2891,-0.6722,-25.4977,5.2000,-10.6934,18.3544,-21.1084,-1.0641,1.0136,10.5180,-19.0371,-2.4734,7.1167,8.3834,-23.9821
1777.3438,2.1569,-2.4076,-23.3601,11.9546,-0.3047,-4.0848,-23.6854,7.7067,-12.5802,14.1315,-22.4349,-4.4591,0.4350,9.6733,-20.3158,-6.8442,6.9773,6.2211,-24.4386
1781.2500,1.0710,-4.1468,-22.1469,10.0474,-0.3033,-4.7657,-19.4227,8.0455,-13.0914,10.9436,-22.5632,-5.3555,-0.4502,8.7068,-20.2891,-7.9465,5.9607,4.7255,-24.0744
1785.1562,-0.1864,-4.5950,-19.8675,8.9450,0.4952,-3.0635,-14.3385,7.0635,-11.9285,7.9990,-21.3419,-3.6332,-0.6443,7.9080,-19.9497,-6.0688,4.6797,4.5209,-22.4388
1789.0625,-1.7787,-4.2252,-16.9385,8.8614,1.5089,-0.2620,-10.0726,5.6904,-9.4821,5.2484,-18.7631,-0.5095,0.3011,7.1959,-19.4805,-3.0758,3.8064,5.5444,-19.5320
1792.9688,-2.9129,-3.6401,-13.7475,9.1902,1.8944,2.1564,-7.4101,4.2758,-6.6046,3.5662,-14.9958,2.0891,2.0689,6.1476,-18.0384,-1.2748,3.8225,7.0293,-15.7695
1796.8750,-2.5047,-3.4330,-10.5309,8.8659,1.2127,3.1069,-6.0435,2.5636,-4.2306,3.7643,-10.5200,2.5251,3.8123,4.2309,-14.5908,-2.0461,4.7787,7.8729,-11.8015
1800.7812,-0.2843,-4.1254,-7.3981,7.0658,-0.1826,2.1124,-5.0197,0.2827,-2.9812,5.3534,-6.1316,0.2657,4.7228,1.1840,-9.0854,-5.0995,6.2252,7.2338,-8.2405
1804.6875,2.6983,-6.0132,-4.3827,3.8393,-1.2626,-0.7589,-3.4496,-2.1706,-2.8633,6.3399,-2.6444,-3.9186,4.5916,-2.6445,-2.9092,-8.7978,7.4154,5.0531,-5.3768
1808.5938,4.8029,-8.8709,-1.4109,0.2513,-0.8623,-4.9584,-0.9424,-3.5800,-3.1677,4.5882,-0.3763,-8.4302,4.0141,-6.2366,1.8861,-11.2801,7.7306,2.1932,-3.0012
1812.5000,5.3339,-11.7103,1.7760,-2.1056,1.6794,-9.4172,2.4571,-2.5234,-2.6686,-0.1135,1.2193,-11.6722,4.0936,-8.2619,4.1057,-11.6179,7.1111,0.0666,-0.4600
1816.4062,5.5997,-12.9409,5.5884,-2.0039,6.1308,-12.5901,6.5903,1.6055,-0.1523,-5.0236,3.3976,-12.7425,5.8019,-7.7342,4.4971,-10.2698,6.2179,-0.0974,3.0142
1820.3125,8.3501,-11.0935,10.3243,0.6258,11.4304,-12.8679,11.3325,7.8867,4.8734,-5.7074,7.3718,-11.6607,9.3609,-4.6131,5.4172,-8.6135,6.1546,2.0271,7.8124
1824.2188,15.6328,-5.8277,15.7619,4.4857,16.1538,-9.3817,16.3702,14.0462,11.6357,0.8335,13.3570,-9.1197,14.0054,0.0458,9.1227,-7.9535,7.8218,5.5608,13.5593
1828.1250,26.5015,1.4286,20.9086,7.4613,19.1381,-2.7835,20.8621,17.5230,18.1167,13.2384,20.0536,-6.0303,18.2652,4.5453,15.8301,-8.7078,11.2378,8.7417,19.0909
1832.0312,36.4596,7.8087,24.2146,7.6674,19.9464,4.6288,23.4756,16.8355,21.8044,25.4153,25.0387,-3.1714,20.6133,7.3757,23.0162,-10.2879,15.2524,9.7370,22.8938
1835.9375,39.5037,10.3460,24.2865,4.4183,18.9423,9.7811,23.0368,12.4230,20.9064,29.5189,25.9738,-1.0851,20.1352,7.9202,26.6540,-11.6706,17.9203,7.5264,23.8227
1839.8438,31.7564,7.6449,20.7529,-1.4272,16.9499,10.3631,19.4636,6.4297,15.3781,20.6852,21.9621,-0.1252,16.8805,6.5988,23.7122,-12.1963,17.4243,2.3831,21.7084
1843.7500,14.3172,0.8446,14.7187,-7.9448,14.7053,6.1413,14.2440,1.5385,7.1101,0.4426,14.2121,-0.4683,11.7562,4.3898,14.2749,-12.0115,13.0727,-4.2978,17.4982
1847.6562,-6.7600,-6.8218,8.4234,-13.1671,12.4345,-0.8288,9.9018,-0.4736,-0.9352,-23.6444,5.5474,-1.9907,6.0652,2.0923,1.8069,-11.8611,5.7780,-10.7058,12.8255
1851.5625,-23.5937,-11.6959,4.2040,-16.0566,9.8329,-7.3021,8.6028,0.3706,-6.1944,-42.0909,-0.9794,-4.1084,0.9597,-0.1405,-8.6800,-12.3998,-2.3236,-15.4443,9.2467
1855.4688,-30.7828,-11.6010,3.3447,-16.8854,6.4640,-10.5826,10.7868,2.3940,-7.7134,-48.7761,-3.5454,-5.7932,-2.9309,-2.6999,-13.3835,-13.5188,-8.9465,-18.0353,7.5723
1859.3750,-28.1067,-6.8211,5.5102,-16.8532,2.2934,-9.7932,14.8342,3.3226,-6.3739,-43.9895,-2.2384,-5.8949,-5.5775,-6.0023,-11.6123,-14.1742,-12.8136,-18.8831,7.6397
1863.2812,-19.9364,0.3896,9.1003,-17.2430,-2.0692,-5.9175,18.1179,1.6107,-4.0503,-33.3884,1.3574,-3.6793,-7.3864,-10.0186,-5.6995,-12.8786,-14.2086,-18.8219,8.5853
1867.1875,-11.9680,7.3261,12.2617,-18.6668,-5.6846,-0.7410,18.7770,-2.7331,-2.3247,-23.8478,5.2768,0.7125,-8.9403,-14.2549,0.8112,-8.5935,-14.5939,-18.5896,9.3756
1871.0938,-7.6833,12.3022,13.8748,-20.8428,-8.0130,4.4181,16.9451,-8.2680,-1.6472,-19.2225,8.2008,6.1932,-10.7772,-18.1816,5.3241,-1.5002,-15.5573,-18.5449,9.2567
1875.0000,-6.9381,15.1385,13.8994,-22.9597,-9.5371,9.2438,14.4990,-13.0804,-1.4605,-18.8403,9.7820,11.1456,-13.2525,-21.6997,7.2484,6.8246,-17.7832,-18.7122,7.9164
1878.9062,-7.3478,16.5338,12.9518,-24.2993,-11.7144,13.9434,13.4562,-15.9876,-1.0700,-19.3596,10.2298,14.1322,-16.4630,-25.1735,7.4636,13.9768,-20.7161,-19.0016,5.3959
1882.8125,-7.0462,17.0048,11.5385,-24.6584,-16.1026,18.3189,14.1911,-17.2667,-0.5028,-18.1603,9.6501,14.5080,-20.2087,-28.9181,6.9050,17.7686,-23.1086,-19.3696,1.9454
1886.7188,-6.5329,16.3104,9.5758,-24.3111,-23.1206,21.2985,14.8474,-18.4672,-0.6540,-15.5345,7.7295,12.6073,-24.0128,-32.5339,5.5215,17.2125,-24.0414,-19.8025,-2.0231
1890.6250,-8.2660,13.7865,6.5465,-23.6079,-31.3084,21.4092,12.5031,-21.3983,-2.6133,-14.1670,3.9973,9.4338,-27.2487,-34.7023,2.3878,12.9376,-23.6826,-20.1951,-5.9029
1894.5312,-14.5384,9.2286,2.1261,-22.5649,-37.7576,17.8545,5.3619,-26.8670,-6.7273,-16.6399,-1.6088,6.0855,-29.3758,-33.7728,-3.2590,6.8387,-23.2403,-20.2922,-8.9241
1898.4375,-25.4823,3.5129,-3.2608,-20.7701,-39.6597,11.3143,-5.5610,-33.9175,-12.1585,-23.1620,-8.3855,3.2807,-30.1959,-28.8557,-11.0218,1.1732,-24.1319,-19.7848,-10.3690
1902.3438,-38.7763,-1.6158,-8.4226,-17.6736,-36.0958,3.7830,-16.5149,-40.0723,-17.3014,-31.3214,-15.0376,1.2445,-29.9729,-20.6646,-19.2455,-2.4002,-26.9400,-18.4912,-9.9081
1906.2500,-51.1305,-4.4769,-11.9735,-13.0422,-28.8883,-2.4817,-22.9353,-42.5298,-20.7436,-37.8722,-20.2701,-0.0575,-29.3079,-11.4262,-25.8959,-3.3555,-30.8852,-16.4594,-7.8435
1910.1562,-60.2052,-4.4101,-13.1012,-7.2543,-21.8281,-6.1258,-22.0364,-39.7163,-22.0469,-40.9295,-23.3678,-0.5912,-28.8034,-3.7918,-29.7086,-2.2083,-34.1976,-13.8899,-5.0497
1914.0625,-65.4321,-2.0596,-12.0106,-1.2430,-18.6205,-7.1465,-14.4526,-32.3364,-21.7995,-40.7885,-24.3818,-0.1290,-28.7165,0.5874,-30.7448,0.0243,-35.1646,-10.9531,-2.5951
1917.9688,-67.3150,1.1716,-9.7760,3.8578,-20.7786,-6.3910,-3.9319,-23.2766,-20.9825,-38.9057,-23.8794,1.5553,-28.8374,1.8675,-30.0288,2.4128,-33.1847,-7.6871,-1.2619
1921.8750,-66.1616,4.0266,-7.7521,7.1405,-26.7996,-4.6439,4.6690,-16.3122,-20.2183,-36.1924,-22.5378,4.3227,-28.6965,1.6481,-28.6871,4.4086,-29.1540,-4.1032,-1.2667
1925.7812,-61.6096,5.9765,-6.9560,8.2068,-33.1601,-2.1147,7.8312,-14.2402,-19.5013,-32.2574,-20.9119,7.4489,-27.9717,1.7001,-27.3262,5.7717,-24.9530,-0.4255,-2.3475
1929.6875,-53.4486,7.1379,-7.7618,7.2315,-36.4880,1.2829,4.8636,-17.4303,-18.5519,-26.2553,-19.4640,9.7931,-26.8005,2.6945,-26.0617,6.3361,-22.3719,2.7757,-4.1140
1933.5938,-42.8961,7.7530,-9.9734,4.8585,-35.5017,5.2162,-2.2443,-23.6205,-17.3889,-18.4524,-18.6666,10.3309,-25.7415,3.8327,-24.9838,5.8997,-22.1406,4.7613,-6.3727
1937.5000,-32.9053,7.7720,-13.0836,2.0177,-31.4905,8.5539,-10.2723,-29.1264,-16.5444,-10.9041,-18.9290,8.7525,-25.3692,3.6197,-24.4746,4.3596,-23.6273,5.0798,-9.1737
1941.4062,-26.8350,6.9037,-16.4937,-0.2979,-27.1154,9.8081,-16.5286,-30.8353,-16.6875,-6.3954,-20.3182,5.7324,-25.7673,1.1901,-25.0052,1.9613,-25.3224,4.0005,-12.5596
1945.3125,-26.2796,5.0309,-19.6167,-1.2909,-24.4384,8.1474,-19.9524,-27.8700,-17.9683,-6.3651,-22.3207,2.6533,-26.2977,-2.7948,-26.5949,-0.6093,-25.7508,2.5630,-16.2503
1949.2188,-29.7603,2.5485,-21.9439,-0.6078,-23.5578,4.1645,-21.1440,-21.9514,-19.6746,-9.5449,-23.9519,0.9020,-25.8628,-6.3402,-28.5035,-2.4585,-24.2449,2.1064,-19.5600
1953.1250,-33.4780,0.2694,-23.1658,1.5360,-22.7396,-0.3030,-21.5516,-16.2274,-20.5593,-12.5810,-24.2733,1.1365,-23.5478,-7.2757,-29.5690,-2.9498,-21.1602,3.5179,-21.6787
1957.0312,-33.7517,-1.0554,-23.3179,4.4679,-19.8574,-3.2753,-22.4118,-13.2522,-19.6403,-12.3124,-23.0133,2.9545,-19.2463,-4.5807,-29.0293,-2.0991,-17.4962,6.6769,-22.1615
1960.9375,-29.4023,-1.2061,-22.8095,7.3976,-14.0610,-3.8851,-24.0228,-13.3522,-16.8775,-7.9956,-20.8340,5.1511,-13.8481,1.0048,-27.1882,-0.6093,-14.2336,10.4779,-21.2915
1964.8438,-22.3276,-0.5725,-22.2384,9.8045,-6.4889,-2.8613,-25.6531,-14.4188,-13.2082,-1.7560,-18.9953,6.3966,-8.8341,7.4411,-25.3307,0.5099,-11.8117,13.4378,-20.0297
1968.7500,-15.8967,0.1902,-22.0557,11.6220,0.4372,-1.8940,-26.0480,-13.3031,-9.9305,3.0599,-18.6003,5.9240,-5.4983,12.5534,-24.8709,0.5031,-10.0123,14.5043,-19.5258
1972.6562,-12.4707,0.6013,-22.2963,13.0953,4.5991,-2.3845,-24.2258,-7.9650,-7.9188,4.2988,-19.9287,3.8448,-4.2532,15.1254,-26.3385,-0.7388,-8.2346,13.5589,-20.4471
1976.5625,-11.9667,0.5208,-22.5644,14.4315,5.5355,-4.5182,-20.1352,0.9976,-7.2501,2.3048,-22.3016,0.9694,-4.4220,15.2986,-28.9681,-2.6828,-5.9216,11.3413,-22.5106
1980.4688,-12.4585,-0.0337,-22.2835,15.5388,4.6651,-7.3062,-14.8098,10.4692,-7.4416,-0.7923,-24.5321,-1.6899,-4.6171,14.1815,-31.1997,-4.5131,-2.8646,8.9206,-24.4990
1984.3750,-12.1360,-1.1555,-21.0268,16.0842,4.2889,-9.4639,-9.9041,16.5771,-7.9989,-3.0439,-25.6066,-3.4106,-3.4685,13.0654,-31.7031,-5.5923,0.7479,7.1081,-24.7823
1988.2812,-10.9051,-3.0774,-18.7092,15.8319,6.0894,-10.3881,-6.8489,17.0103,-8.7655,-4.1997,-25.1291,-4.0050,-0.2956,12.7710,-30.1636,-5.7596,4.4821,6.1650,-22.1024
1992.1875,-10.3263,-5.9095,-15.5666,14.9566,10.1202,-10.5012,-6.1234,12.4167,-9.8148,-5.5773,-23.3132,-3.7876,4.5968,13.4159,-27.3031,-5.3513,7.8517,5.8839,-16.2474
1996.0938,-12.0550,-9.3696,-12.0205,14.0139,14.8815,-10.8050,-7.1029,5.9841,-11.0729,-8.5577,-20.6724,-3.3903,10.0871,14.5515,-24.2274,-5.0144,10.4260,5.8528,-8.2853
2000.0000,-16.1911,-12.8437,-8.5736,13.5259,18.3371,-12.0976,-8.5750,1.4946,-12.1077,-13.1227,-17.7344,-3.5634,14.7260,15.4441,-21.6768,-5.4513,11.8552,5.6616,-0.2187
2003.9062,-20.9434,-15.7968,-5.7571,13.4979,19.1606,-14.4751,-9.5415,1.1432,-12.3309,-17.7071,-14.9565,-4.9904,17.3098,15.3372,-19.7231,-7.1881,11.9046,4.9702,5.8276
2007.8125,-23.8278,-18.1639,-4.0201,13.3081,17.4377,-17.3896,-9.6984,4.5315,-11.4358,-20.3991,-12.7376,-8.0638,17.3237,13.6811,-17.9960,-10.3780,10.5788,3.5482,8.5487
2011.7188,-23.3132,-20.2746,-3.4693,12.1534,14.4744,-20.0345,-9.2298,9.3990,-9.6292,-20.3285,-11.3024,-12.6183,15.1267,10.3638,-16.0718,-14.6548,8.2927,1.4050,8.0942
2015.6250,-19.5358,-22.2566,-3.5738,9.7646,11.9371,-21.6453,-8.1266,13.4371,-7.3816,-17.9937,-10.4158,-17.7523,11.8269,5.8798,-13.6217,-19.1084,5.9299,-1.0331,6.0396
2019.5312,-13.6284,-23.4093,-3.1403,6.8087,10.9083,-21.5477,-5.6930,15.8139,-4.8865,-14.3427,-9.1877,-21.9525,8.8658,1.2710,-10.2778,-22.4950,4.6284,-2.9192,4.6314
2023.4375,-6.4876,-22.2298,-0.8050,4.5569,11.4025,-19.1595,-0.8323,17.3320,-1.7546,-9.6431,-6.3248,-23.6227,7.4268,-2.2658,-5.5525,-23.6942,5.2923,-3.3317,5.6158
2027.3438,1.7388,-17.3448,4.0814,3.9488,12.5404,-14.2389,6.9252,19.2261,2.6683,-3.3966,-0.8980,-21.8481,7.8959,-3.9806,0.8623,-22.2416,8.0506,-1.8793,9.2489
2031.2500,10.9337,-8.8140,10.7166,4.7189,13.1805,-7.3513,16.4048,21.6608,8.5111,4.4707,6.7975,-16.9767,9.6448,-4.0315,8.5136,-18.6190,12.0070,0.8283,14.0637
2035.1562,19.8384,1.2198,16.8921,5.3080,12.5800,-0.1226,24.7320,23.2131,14.7611,12.2633,14.9655,-10.6038,11.3038,-3.4621,15.8583,-14.0574,15.5174,3.2659,17.6002
2039.0625,25.8039,9.2658,20.0351,3.7679,10.7135,5.1972,28.6076,21.8388,19.4542,16.5472,21.0227,-4.8605,11.4435,-3.6414,20.7068,-9.8903,16.9337,3.7327,17.7513
2042.9688,26.1187,12.3687,18.7388,-0.8909,8.1179,6.8526,26.2751,16.6200,20.7211,14.0438,23.0107,-1.3538,9.3185,-5.4935,21.3971,-6.8194,15.4258,1.3499,13.9704
2046.8750,20.0960,9.9599,13.7950,-7.8620,5.4265,4.7290,18.8693,8.9049,18.0242,4.1883,20.8187,-0.3784,5.2431,-9.0214,17.9749,-4.5765,11.3973,-3.3465,7.6179
2050.7812,10.1794,4.3497,7.9273,-14.8868,2.9171,0.6464,10.0848,1.8337,12.6655,-9.7103,16.3284,-0.8879,0.3629,-13.4332,12.4551,-2.2392,6.2150,-8.6810,1.2139
2054.6875,0.8711,-0.6017,4.2505,-19.6194,0.3679,-2.5900,4.1932,-1.5585,7.1084,-21.9425,12.2866,-1.2422,-4.0406,-17.7456,7.7934,0.9723,1.4007,-12.8579,-2.9617
2058.5938,-4.0270,-1.8188,4.3919,-21.0993,-2.6910,-2.8595,3.6119,-0.3626,3.5248,-27.7459,10.6190,-0.2434,-7.2627,-21.3944,6.1438,4.9534,-2.2159,-15.0586,-4.0637
2062.5000,-3.8968,1.2216,7.5306,-20.2978,-6.5032,0.0200,7.6099,3.5256,2.5721,-26.1977,11.3397,2.2100,-9.4445,-24.3988,7.5890,8.5726,-4.8421,-15.8569,-2.9457
2066.4062,-1.5774,6.4742,11.0353,-19.3491,-10.7210,4.3577,12.9953,6.5964,3.2504,-20.5186,12.8114,5.2394,-11.2436,-27.0052,10.2632,10.2949,-7.3543,-16.6579,-1.3770
2070.3125,-1.1192,10.9904,12.2796,-20.0194,-14.4342,7.9231,16.2704,5.9646,3.8814,-15.5526,13.1305,7.7272,-13.1824,-29.1620,11.7979,9.2164,-10.4854,-18.5678,-0.7815
2074.2188,-4.6834,12.9907,10.3768,-22.5136,-16.6316,9.5269,15.7523,1.0823,3.4165,-14.3382,11.5851,9.1118,-15.1736,-30.3242,11.0276,5.8366,-14.1452,-21.5127,-1.3591
2078.1250,-10.9763,12.8380,6.6240,-25.4534,-16.8329,9.6505,12.2575,-6.2341,2.0727,-16.3559,9.0924,9.6708,-16.5868,-29.8094,8.6950,2.0205,-17.3621,-24.2495,-2.1539
2082.0312,-16.4432,12.2981,3.3841,-26.9887,-15.4782,9.6889,8.0486,-13.3566,0.8690,-18.6650,7.3134,10.1338,-16.8058,-27.4535,6.6538,0.0898,-18.9074,-25.2529,-1.9553
2085.9375,-18.2759,12.7983,2.2623,-26.1783,-13.7798,10.4985,4.9940,-18.7238,0.5266,-18.8386,7.1625,10.9739,-15.8476,-24.0207,6.2220,1.5428,-18.1874,-23.8260,-0.3423
2089.8438,-16.8355,14.1248,2.9355,-23.6125,-13.0812,11.5067,3.3684,-22.6268,0.6879,-17.2002,7.9015,11.9551,-14.5576,-20.9612,6.9908,6.1607,-15.7944,-20.6228,1.8942
2093.7500,-15.5408,14.5924,3.4808,-20.8572,-14.1127,11.1746,2.1002,-26.4038,0.1196,-16.5178,7.5537,12.2986,-14.2033,-19.5909,7.0322,12.0556,-13.3348,-17.2160,3.2428
2097.6562,-18.2654,12.5204,1.9237,-19.1978,-16.6312,8.4633,0.0928,-30.8145,-2.2603,-19.4447,4.3611,11.3469,-15.7361,-20.2304,4.3622,16.6687,-12.6271,-15.0329,2.5065
2101.5625,-26.2421,7.8224,-2.1732,-18.6646,-19.6957,4.0780,-2.5631,-34.9893,-6.3748,-25.8695,-1.7984,9.2124,-19.2339,-21.9243,-1.4539,18.1636,-14.7662,-14.4278,-0.3713
2105.4688,-36.8495,2.4372,-7.2671,-18.0690,-22.3957,0.3843,-4.4978,-36.8530,-10.8326,-32.4087,-9.0933,6.8954,-23.9027,-22.9812,-8.7663,16.4179,-19.6085,-14.5234,-4.2728
2109.3750,-45.1670,-0.7539,-10.8492,-15.9860,-24.5186,-0.0588,-4.1438,-34.7181,-13.7769,-34.5149,-14.7635,5.7376,-28.6032,-22.0072,-14.7660,13.0338,-25.9288,-13.8831,-7.6674
2113.2812,-47.0716,0.2694,-11.1582,-11.9081,-26.6607,3.7285,-1.0929,-28.7896,-14.0961,-29.5465,-16.7603,6.5607,-32.5005,-18.7539,-17.1749,10.3470,-32.0739,-11.4989,-9.6149
2117.1875,-41.5767,5.4414,-8.3573,-6.7033,-29.6709,10.4350,3.3604,-21.3722,-12.0922,-18.4068,-14.8690,9.0749,-35.3784,-14.2279,-15.4956,9.9974,-36.6789,-7.4138,-10.3096
2121.0938,-30.8733,12.7658,-4.3858,-2.0680,-33.8042,17.3673,6.9065,-15.5680,-9.1518,-4.5862,-10.6283,11.9611,-37.4536,-10.0127,-11.0339,11.8980,-39.0669,-2.6218,-10.8218
2125.0000,-18.4127,19.6073,-1.6845,0.5758,-38.2107,22.2671,7.5953,-13.4020,-6.7515,8.4313,-6.2491,13.5833,-38.9169,-7.2745,-5.8637,14.2314,-39.2363,1.5818,-12.2733
2128.9062,-6.7791,24.1118,-1.7528,0.9188,-41.1993,24.6335,4.8872,-14.7227,-5.5973,19.1901,-3.3897,12.8811,-39.6218,-6.1120,-1.6293,14.5219,-37.6055,4.2932,-15.0582
2132.8125,3.0402,25.8192,-4.5029,-0.2169,-41.1899,25.5828,-0.2823,-17.5890,-5.4995,28.1660,-2.5863,9.9046,-39.1812,-5.6382,0.9792,11.1866,-34.7591,5.3095,-18.6390
2136.7188,10.8339,25.2884,-8.6843,-1.5816,-37.7665,26.4880,-6.2717,-19.7216,-5.9210,35.9469,-3.5112,5.7152,-37.3697,-4.6797,1.9292,4.6474,-31.3124,4.9844,-22.0004
2140.6250,16.0469,23.3164,-12.8630,-2.3163,-32.1124,27.6238,-11.6046,-19.8636,-6.5950,41.6212,-5.5870,1.7815,-34.4575,-2.5844,1.2814,-2.6987,-27.8411,3.8876,-24.3668
2144.5312,17.7421,20.4950,-16.1548,-2.2827,-26.4649,27.9902,-15.3192,-18.1128,-7.6292,43.0776,-8.3409,-0.7285,-31.1465,0.3983,-0.9810,-7.6981,-24.7715,2.5744,-25.6433
2148.4375,15.7991,17.3528,-18.2853,-1.7688,-22.8564,26.4386,-16.7928,-15.2214,-9.0587,39.1236,-11.2922,-1.3667,-28.1068,3.3748,-4.5824,-8.1684,-22.2251,1.5571,-26.2937
2152.3438,12.0901,14.6895,-19.1969,-0.9512,-21.8943,23.0711,-15.5683,-11.6970,-10.3677,31.5148,-13.6982,-0.3893,-25.4605,5.4792,-8.5377,-4.1195,-19.9397,1.3335,-26.8156
2156.2500,10.1191,13.5135,-18.7690,0.3604,-22.3571,19.5936,-11.6392,-7.5873,-10.5659,24.7952,-14.6467,1.5665,-22.6401,6.4861,-11.3186,2.2734,-17.3980,2.2864,-27.2661
2160.1562,12.8575,14.4216,-17.0021,2.4813,-21.9013,18.1582,-6.0562,-3.0862,-8.9058,23.5637,-13.6200,3.8543,-18.7815,6.9659,-11.7274,7.9290,-14.1493,4.4514,-27.2190
2164.0625,20.2503,16.8922,-14.4630,5.3721,-18.4921,19.5401,-1.1653,0.7618,-5.6821,29.0437,-11.1066,6.0382,-13.4048,7.9016,-9.8751,10.5762,-10.1286,7.3585,-26.1748
2167.9688,28.5295,19.2138,-12.4302,8.4112,-11.7081,22.1681,0.1425,2.1812,-2.3611,37.7227,-8.6298,7.9154,-6.8863,10.0315,-7.3874,9.8767,-5.7302,10.1763,-24.0776
2171.8750,32.3319,19.3482,-12.3600,10.6946,-3.1282,22.9624,-3.9596,-0.1581,-0.7511,43.4614,-7.9351,9.4261,-0.3587,13.3360,-6.4565,7.3033,-1.5541,12.1640,-21.5041
2175.7812,28.4271,16.2595,-14.8913,11.6762,4.4524,19.5220,-12.7440,-5.6945,-1.7187,41.8090,-9.7779,10.5528,4.9175,16.9748,-8.2740,4.9360,1.9942,13.1491,-19.3414
2179.6875,18.3754,10.7559,-19.1105,11.6352,8.5268,12.0676,-22.7377,-11.5148,-4.4161,33.3898,-13.1913,11.2617,8.2738,19.6952,-11.9880,4.0266,4.9310,13.6573,-18.1688
2183.5938,7.9536,5.1467,-22.7489,11.5543,8.2256,3.6077,-29.2730,-13.5735,-6.6995,23.7133,-15.8881,11.4796,9.9383,20.4574,-15.0672,4.2880,7.5451,14.5341,-17.7999
2187.5000,3.4836,1.8554,-23.3590,12.4407,4.7349,-1.9268,-29.0031,-9.0459,-6.5466,19.3543,-15.6569,11.0931,10.7228,18.9106,-14.9545,4.3264,9.9756,16.2828,-17.3427
2191.4062,7.5648,1.9206,-19.7678,14.5690,0.5701,-2.3027,-21.8136,1.7068,-3.4836,23.2096,-11.8414,9.9821,11.3540,15.4755,-10.8901,2.8451,11.8838,18.5932,-15.7630
2195.3125,17.3117,4.4313,-12.8205,17.2164,-1.8271,1.5234,-10.8432,14.9877,1.0495,32.3304,-5.8429,8.1082,11.9727,11.0379,-4.5589,-0.2594,12.5645,20.4460,-12.5664
2199.2188,26.4490,7.2786,-4.8703,19.1084,-1.3232,6.1235,-0.5549,25.6834,4.7269,39.9865,-0.2300,5.6379,12.1886,6.4928,0.9892,-3.6697,11.5161,20.7748,-8.1175
2203.1250,29.7954,8.6493,1.6706,19.2691,1.5379,7.9928,5.8821,30.0784,6.0481,40.4913,2.9773,3.0214,11.6367,2.4360,3.4513,-5.4343,9.0833,19.2447,-3.3710
2207.0312,26.8641,8.1645,5.7367,17.6654,5.1639,5.8770,8.1765,27.7582,5.4736,33.2588,3.6609,0.9213,10.5669,-0.8375,2.9273,-4.2342,6.6277,16.5825,0.7855
2210.9375,21.9296,6.8611,8.0179,15.1820,8.0513,1.3811,8.4918,21.4269,5.0993,23.1246,3.6307,-0.0485,9.9345,-3.1174,1.9014,-0.3148,5.9403,14.1732,4.0863
2214.8438,20.5164,6.0939,10.1265,12.9485,9.6661,-2.4861,9.4469,14.9036,7.0400,16.7135,5.2746,0.3147,10.8224,-4.1012,3.4993,4.4775,8.1535,13.1462,6.9239
2218.7500,24.9273,6.2361,13.1555,11.5060,10.5288,-3.6626,12.0402,10.7630,11.6608,17.5317,9.7497,1.5383,13.5528,-3.4804,9.1950,7.5405,12.8423,13.5484,9.8319
2222.6562,32.1568,6.1844,16.6817,10.4154,11.5409,-2.5136,14.9692,9.1984,16.9667,23.3504,15.9686,2.5162,17.1519,-1.2849,17.5560,6.7457,17.9962,14.1808,12.8097
2226.5625,35.7969,4.0681,18.9389,8.5895,13.1009,-1.3997,15.7589,8.6885,19.6790,27.7392,21.0959,1.9297,19.6558,1.7776,24.9166,1.4274,21.0186,13.2550,15.0366
2230.4688,30.6192,-1.3242,18.0513,5.1225,14.6764,-2.7486,12.8068,7.7278,17.3511,24.5982,22.2571,-1.0975,19.1837,4.3309,27.5647,-7.2801,20.2159,9.4901,15.2683
2234.3750,16.5584,-9.4052,13.4735,0.0410,15.1384,-7.1227,6.8375,6.2013,10.1180,12.4525,18.3556,-6.4274,15.1344,4.8369,24.0175,-16.8146,15.8373,2.9755,12.7110
2238.2812,-0.7552,-17.7442,6.6348,-5.5471,13.5984,-12.7016,0.7282,5.3993,0.8841,-4.4470,10.8408,-12.7529,8.7019,2.3912,15.9390,-24.0681,9.9522,-4.7448,7.7784
2242.1875,-13.3262,-23.1868,0.3256,-10.0300,10.1217,-16.4959,-2.1732,6.7769,-6.2269,-18.8384,2.9685,-18.0136,2.3032,-2.6764,7.1738,-26.4700,5.1831,-11.4320,2.1521
2246.0938,-15.7110,-23.4578,-2.8056,-12.2452,5.7817,-16.3448,-0.0911,10.5052,-8.1934,-24.9690,-1.9471,-20.2391,-1.7827,-8.8382,1.5870,-22.9452,3.0780,-15.3168,-1.9973
2250.0000,-8.2211,-18.2952,-1.7054,-12.2162,2.0017,-12.2511,6.1044,14.9549,-4.7408,-21.8491,-2.2095,-18.4287,-2.7227,-14.1158,1.0855,-14.4262,3.1803,-15.9973,-3.1927
2253.9062,3.6069,-9.4987,2.5678,-11.2186,-0.3509,-6.1859,13.4267,17.5038,1.6775,-13.2677,1.6106,-13.0240,-1.5464,-17.1440,4.9520,-3.6607,3.4180,-14.5757,-1.4865
2257.8125,12.7112,0.0471,7.5363,-11.1244,-1.4821,-0.6388,18.4894,16.0775,7.4648,-4.9259,7.3012,-5.7179,-0.4047,-17.9086,10.6974,5.7456,1.5700,-12.9971,1.6100
2261.7188,14.7756,7.7557,10.7383,-13.3982,-2.4467,2.9628,19.3115,10.3597,9.9764,-0.8771,12.3924,1.3118,-1.1588,-17.6850,15.7002,10.7602,-3.1566,-12.9970,4.0840
2265.6250,10.3237,12.3694,11.0257,-18.3026,-4.3658,4.8827,16.1841,1.9202,8.8365,-1.6054,15.4078,6.3559,-4.2186,-18.1966,18.5506,10.2239,-9.4855,-15.2476,4.6542
2269.5312,3.5800,14.1831,8.9996,-24.7304,-7.6476,6.4682,11.2432,-6.7045,5.7803,-4.6497,16.3178,8.8371,-8.3677,-20.5086,19.3959,5.3580,-14.7900,-19.1233,3.4872
2273.4375,-0.7514,14.5000,6.4243,-30.7233,-11.7408,8.9265,7.1698,-13.2868,3.3001,-6.8648,16.1072,9.3778,-11.6384,-24.3396,19.3287,-0.8373,-16.6974,-23.1297,1.9515
2277.3438,-0.4423,14.7448,5.0757,-34.3711,-15.5366,12.4507,5.8335,-16.7641,3.0752,-6.5124,15.9064,9.3043,-12.6086,-28.2030,19.4324,-5.0209,-14.5271,-25.6836,1.6129
2281.2500,3.4032,15.7502,5.7505,-34.6177,-18.0820,16.2591,7.5604,-17.3341,5.1654,-3.8658,16.2962,9.9046,-11.2521,-30.2694,20.1524,-5.0363,-9.6546,-25.8019,3.1699
2285.1562,7.7622,17.5403,7.9838,-31.5966,-19.0946,19.3547,11.2467,-15.9895,8.3299,-0.3209,17.1508,11.8425,-8.8345,-29.4147,21.2615,-0.7346,-4.6339,-23.3911,6.0333
2289.0625,10.0136,19.6073,10.5337,-26.4021,-18.9868,21.2998,15.0761,-13.9483,11.0592,2.9365,17.9550,14.9786,-7.0255,-25.8489,22.2148,6.2567,-1.7273,-19.1034,8.7783
2292.9688,9.4339,21.4178,12.2281,-20.4952,-18.4990,22.3946,17.3915,-12.2908,12.5138,5.5845,18.2397,18.5826,-6.9107,-21.0091,22.4841,13.5506,-1.8291,-13.9536,10.0909
2296.8750,7.0257,22.8017,12.6063,-15.0886,-18.2934,23.2021,17.3233,-11.8113,12.7669,7.8128,17.7992,21.7276,-8.5737,-16.8359,21.6411,19.1397,-4.4069,-8.9432,9.5257
2300.7812,4.1783,24.0030,11.9943,-10.7964,-18.7869,23.9037,14.9843,-12.9220,12.3387,9.5520,16.6070,23.6344,-11.4288,-14.8494,19.2848,22.0611,-8.3279,-4.8324,7.5887
2304.6875,1.4196,25.4029,11.0598,-7.6337,-20.2127,24.0709,11.2529,-15.5282,11.5298,10.1601,14.6205,23.8567,-14.9059,-15.4716,15.0830,22.4030,-12.8278,-2.0457,5.1873
2308.5938,-1.7734,27.1307,10.2259,-5.2541,-22.6777,23.0582,7.3030,-18.9755,10.1370,8.9258,11.7324,22.3397,-18.8664,-17.8537,9.0580,20.8889,-17.8617,-0.6280,2.9423
2312.5000,-6.1379,28.8359,9.3688,-3.2273,-26.0330,20.6851,4.1039,-22.2294,7.7544,5.9333,7.9509,19.4270,-23.4100,-20.2243,1.9293,18.4158,-23.6303,-0.2213,0.8989
2316.4062,-11.6399,29.7860,7.9836,-1.2161,-29.6429,17.6249,2.0944,-24.2924,4.3469,2.4307,3.6414,15.8281,-28.2890,-20.5952,-4.8711,15.7611,-29.7581,-0.1259,-1.1956
2320.3125,-17.2611,29.2380,5.6505,0.9683,-32.3623,15.1383,1.1444,-24.6412,0.5485,0.2075,-0.4481,12.4806,-32.5154,-17.5802,-9.7398,13.4314,-34.9068,0.4695,-3.3654
2324.2188,-21.7430,26.8687,2.4319,3.3628,-32.9593,14.3017,0.7760,-23.4012,-2.6322,0.3312,-3.5157,10.2578,-34.6306,-11.0457,-11.8053,11.5527,-37.2812,2.1061,-5.1483
2328.1250,-24.6073,23.0104,-1.1024,5.8363,-30.8658,15.2817,0.4846,-21.1491,-4.5176,2.2181,-5.2206,9.5925,-33.5819,-2.3272,-11.6111,9.8162,-35.7848,4.7015,-5.8937
2332.0312,-26.5042,18.5610,-4.2404,8.0656,-26.7723,17.1864,-0.0437,-18.5282,-5.3197,3.8775,-6.0113,10.2159,-29.6143,6.1563,-11.0043,7.6241,-31.0180,7.4712,-5.4165
2335.9375,-28.5009,14.6188,-6.6131,9.5682,-22.5486,18.6117,-0.9302,-15.9989,-6.0639,3.3145,-6.9570,11.2128,-24.4724,11.8286,-12.1256,4.5102,-25.3252,9.2596,-4.4665
2339.8438,-30.8588,12.0229,-8.4460,9.8446,-20.3615,18.4953,-2.2642,-13.9080,-7.8654,0.1361,-9.1110,11.4356,-20.6299,13.0716,-16.0458,0.6511,-21.6939,9.1565,-4.5473
2343.7500,-32.3731,11.0054,-10.3956,8.6060,-21.4304,16.6891,-4.2448,-12.7405,-11.0673,-3.8734,-12.8003,10.0839,-19.9346,9.9993,-21.9441,-2.9304,-22.0955,7.0573,-7.0846
2347.6562,-30.9970,11.0958,-13.0841,5.9840,-25.1907,13.8868,-7.1407,-13.2033,-14.8937,-5.7815,-17.3437,7.1262,-22.5010,4.4531,-27.4661,-4.7769,-26.2713,3.8076,-12.4494
2351.5625,-25.4540,11.3147,-16.6500,2.6069,-29.4447,11.0260,-11.0538,-15.8901,-17.9140,-3.5405,-21.4381,3.3183,-26.5614,-0.8326,-30.1468,-3.9019,-31.7346,0.8174,-19.5055
2355.4688,-16.6543,10.6024,-20.6074,-0.5169,-31.4667,8.6518,-15.6535,-20.6481,-19.0012,2.3983,-23.9831,-0.1818,-29.3884,-3.4811,-29.0256,-0.6188,-35.0227,-0.6366,-26.0425
2359.3750,-7.7062,8.3378,-24.0840,-2.2719,-29.4148,6.7091,-20.1067,-26.1185,-18.0787,9.1227,-24.7763,-2.3623,-28.7318,-2.4793,-25.3791,3.3681,-33.4840,0.0018,-29.8741
2363.2812,-2.2688,4.7341,-26.2610,-1.7734,-23.2141,4.8607,-23.3188,-29.9374,-16.0989,13.0553,-24.5825,-2.7597,-23.9247,1.5725,-22.0234,5.8276,-26.5967,2.4299,-29.9453
2367.1875,-2.2493,0.8775,-26.7354,1.3329,-14.4419,2.9991,-24.3910,-29.6952,-14.2746,12.3261,-24.5158,-1.5390,-16.0731,7.0112,-21.5846,5.3474,-16.1388,5.8248,-26.7896
2371.0938,-6.4550,-1.7074,-25.6202,6.6908,-5.3918,1.4781,-23.0406,-24.2060,-13.1617,8.0564,-25.1761,0.6969,-7.3399,12.0411,-24.8367,2.2619,-5.2151,9.3710,-22.1030
2375.0000,-11.2381,-1.8380,-23.3905,13.2371,2.0361,0.8417,-19.7427,-14.3265,-12.3005,3.6123,-26.1658,3.1878,0.1564,15.4707,-30.1807,-1.5256,3.2437,12.6057,-17.7539
2378.9062,-12.7785,0.5948,-20.6238,19.4361,6.9759,1.2728,-15.5222,-2.7540,-10.6829,2.3318,-26.3370,5.2316,5.1890,16.9189,-34.5788,-3.7559,7.7044,15.3982,-14.8492
2382.8125,-9.4501,4.4211,-17.7896,23.7367,9.5462,2.2514,-11.5240,7.1746,-7.6573,5.3414,-24.5796,6.3128,7.6640,16.5747,-35.3034,-3.2527,8.4404,17.6845,-13.3723
2386.7188,-2.6290,7.7475,-15.1550,25.1341,10.3673,2.7776,-8.5995,13.0366,-3.5370,11.0130,-20.5752,6.2054,8.3195,14.8672,-31.3661,-0.5953,7.0835,19.2531,-12.4963
2390.6250,4.5711,9.0258,-12.7812,23.5967,10.1008,2.0551,-7.0944,14.3544,0.5769,16.3874,-14.9853,5.0703,8.2073,12.3365,-23.7898,2.4095,5.6774,19.7910,-11.2716
2394.5312,9.6283,7.9780,-10.5711,20.1003,9.2888,0.1232,-6.8753,12.5418,3.6075,19.4179,-8.9898,3.4612,8.2556,9.6984,-14.7223,4.0222,5.7359,19.1365,-9.2272
2398.4375,12.2353,5.7152,-8.3614,16.1630,8.4280,-2.1002,-7.5043,9.8637,5.2796,20.2851,-3.5736,2.1194,9.0237,7.8448,-6.1447,3.6652,7.6892,17.4850,-6.5718
2402.3438,14.0347,3.8834,-6.0571,13.0672,8.0190,-3.4763,-8.4333,8.0894,6.2167,20.7908,0.8859,1.5651,10.6063,7.5621,0.9293,2.0538,10.8692,15.3221,-3.9709
2406.2500,16.7844,3.3741,-3.7620,11.1975,8.4227,-3.5504,-9.1391,7.6540,7.2803,22.3829,4.4775,1.7016,12.6414,9.0485,6.3716,0.3752,13.9595,13.1092,-2.1121
2410.1562,20.5161,3.5294,-1.7962,9.9236,9.6158,-2.9995,-9.1923,7.7728,8.7157,24.4809,7.2855,1.7477,14.4501,11.5944,10.3052,-0.7536,15.6887,10.9804,-1.3229
2414.0625,23.2501,2.5101,-0.5199,8.1517,11.1057,-3.2082,-8.2885,7.3326,9.8526,24.5761,9.0797,0.6571,15.3465,13.7832,12.6024,-1.7004,15.4725,8.7348,-1.4093
2417.9688,22.5672,-1.3203,-0.0180,5.2161,12.1715,-5.2141,-6.2647,5.9045,9.6686,20.1630,9.4898,-2.1581,15.0383,14.2197,12.9653,-3.3194,13.7217,6.1612,-1.7451
2421.8750,17.7961,-7.9400,0.1414,1.5067,12.3203,-8.7878,-3.1059,4.1904,7.7863,11.0315,8.5225,-6.2723,13.8893,12.3616,11.4453,-6.0227,11.6528,3.4273,-1.5387
2425.7812,10.9901,-15.2506,0.8300,-1.6526,11.6306,-12.3803,1.0479,3.6112,5.0629,0.0333,6.9254,-10.3048,12.8018,8.8687,8.8394,-9.2480,10.6578,1.1624,-0.1699
2429.6875,5.7493,-20.1398,2.8972,-2.8648,10.7000,-14.0649,5.8805,5.3155,3.1943,-8.4714,5.9715,-12.6530,12.6884,5.1716,6.4942,-11.7993,11.5281,0.0799,2.5279
2433.5938,4.6489,-20.4024,6.5546,-1.7060,10.2049,-12.8494,10.8616,9.2725,3.5333,-11.4877,6.7004,-12.4710,13.8111,2.5084,5.5719,-12.7883,13.9504,0.3731,6.1561
2437.5000,7.2161,-16.2083,11.0316,0.7890,10.3866,-9.4105,15.2447,14.0676,5.9931,-9.4647,9.1428,-10.2271,15.4440,1.0885,6.3215,-12.3781,16.5834,1.3656,9.8851
2441.4062,10.1046,-10.0441,14.8303,2.6187,10.8514,-5.6825,18.1831,17.5857,8.9324,-5.9610,12.1557,-7.4147,16.1699,-0.0140,7.9491,-11.6663,17.7155,1.7708,12.8106
2445.3125,9.5005,-5.1025,16.5321,2.0353,10.8419,-3.5529,19.0161,18.2073,10.2207,-5.0410,14.0915,-5.5654,14.7118,-2.1447,9.2298,-11.7443,16.1616,0.4784,14.3763
2449.2188,4.0732,-3.2027,15.6972,-1.2986,9.7804,-3.5805,17.6506,15.7937,8.7786,-8.2723,13.8996,-5.2236,10.8029,-6.0324,9.4247,-12.6608,11.8980,-2.6451,14.6376
2453.1250,-3.7147,-3.6862,13.2602,-6.0206,7.6782,-4.6463,14.8301,11.8369,5.4749,-13.5391,11.9009,-5.6034,5.5069,-11.1750,8.8238,-13.1518,6.0799,-6.5388,14.2009
2457.0312,-8.9915,-4.0472,11.0986,-9.8991,5.1088,-4.7723,12.0482,8.6292,2.6758,-16.5669,9.6639,-5.1783,0.7196,-16.0969,8.5223,-11.4313,0.4472,-9.5384,13.8555
2460.9375,-7.6675,-1.8227,10.9809,-11.2682,2.7750,-2.5008,11.0126,7.9071,2.6977,-14.0599,9.0294,-2.7983,-1.8860,-19.2999,9.6117,-6.5218,-3.5262,-10.4334,14.1137
2464.8438,0.7592,3.6155,13.5228,-10.1230,1.0034,2.1567,12.8320,9.7648,6.2128,-6.1797,10.9261,1.4568,-1.8251,-20.2393,12.3801,0.8490,-5.2641,-9.2866,14.9407
2468.7500,12.6907,10.6124,17.7996,-8.1329,-0.4568,7.8297,17.3339,12.4983,11.7031,3.3844,14.7541,6.2860,-0.0756,-19.6415,16.0623,8.4700,-5.2003,-7.4398,15.8342
2472.6562,22.4954,16.3691,21.8473,-7.5550,-2.1891,12.7856,22.9296,13.5008,16.3269,9.7308,18.7113,10.0189,1.5049,-18.9587,19.2470,13.8803,-4.4018,-6.6759,16.1771
2476.5625,25.6956,18.7837,23.7218,-9.7658,-4.6184,16.0104,27.1923,10.6993,17.5978,9.7505,20.8061,11.6842,1.2393,-19.3640,20.5960,15.7799,-3.9953,-8.0843,15.6092
2480.4688,21.2048,17.6750,22.4656,-14.3812,-7.6478,17.5934,27.9219,3.6937,14.7679,3.7769,19.8955,11.5361,-1.4913,-20.9927,19.4111,14.6720,-4.7302,-11.3792,14.1681
2484.3750,11.3921,14.6260,18.4455,-19.5222,-10.6966,18.2519,24.1765,-6.0525,9.0828,-5.0244,16.1579,10.6973,-6.0559,-22.9335,15.8117,12.3465,-6.8412,-15.1066,12.1421
2488.2812,0.3126,11.7295,12.9735,-23.0124,-13.1108,18.5208,16.7460,-16.0377,2.8891,-12.7829,10.8483,10.2338,-11.1038,-23.9277,10.6070,10.6220,-10.1496,-17.5692,9.7958
2492.1875,-8.4848,10.2664,7.5601,-23.6817,-14.6443,18.3461,7.8324,-24.0199,-1.7023,-16.9301,5.6208,10.3831,-15.4047,-23.2472,5.0679,10.2307,-14.2273,-17.8314,7.2135
2496.0938,-13.2410,10.2416,3.2917,-21.9279,-15.6633,17.3977,0.1175,-28.9870,-3.7367,-16.8784,1.8547,10.5066,-18.4475,-21.1367,0.6736,10.5651,-18.4934,-16.1547,4.3850
2500.0000,-14.0036,10.9232,0.6147,-19.2246,-16.9222,15.7441,-4.3145,-31.2701,-3.5021,-13.4015,0.2570,9.7728,-20.4758,-18.5513,-1.2659,10.3611,-22.2550,-13.6390,1.4373
2503.9062,-11.9533,11.7410,-0.5304,-16.9885,-19.0582,14.1834,-4.7138,-31.8590,-1.9871,-7.6908,0.7518,8.0126,-22.0526,-16.4283,-0.1651,8.7638,-24.7938,-11.3910,-1.2226
2507.8125,-8.8120,12.7204,-0.4839,-15.6194,-22.1417,13.8137,-1.8001,-31.4960,-0.2542,-0.9895,2.5483,6.0645,-23.5369,-15.0432,3.3124,6.0264,-25.5753,-9.8265,-3.0344
2511.7188,-6.5682,14.1534,0.2507,-14.3567,-25.5765,15.1112,2.6573,-30.2135,0.8735,5.1636,4.3442,5.3138,-24.8545,-13.8992,7.2005,3.4172,-24.5275,-8.5608,-3.6368
2515.6250,-7.1646,15.9310,1.0321,-11.9969,-28.4144,17.2918,6.5610,-27.6070,0.8119,8.8206,4.7128,6.7406,-25.6805,-12.1972,8.9629,2.4678,-22.2265,-6.8904,-3.1982
2519.5312,-11.7822,17.2666,1.1680,-7.9246,-29.8836,18.5999,8.2131,-23.5636,-0.8248,8.2968,2.6744,10.1636,-25.8341,-9.5144,6.8208,4.0920,-19.8150,-4.4603,-2.4513
2523.4375,-19.9296,17.1659,0.1583,-2.7138,-29.8045,17.4628,6.8331,-18.8193,-4.0913,3.4177,-1.7504,14.2366,-25.5487,-6.1895,0.9344,8.1073,-18.6085,-1.6146,-2.3487
2527.3438,-29.1088,15.3003,-2.0126,2.1223,-28.6480,13.7170,2.7564,-14.8419,-8.4877,-3.6924,-7.3595,17.2174,-25.3924,-3.1342,-6.4134,13.3655,-19.5237,0.8097,-3.5288
2531.2500,-35.7079,12.5192,-4.7707,5.0629,-27.2160,8.9528,-2.7221,-13.0392,-12.9313,-9.2573,-12.2143,17.9918,-25.8847,-1.2051,-11.9508,18.3136,-22.5977,2.0765,-5.9333
2535.1562,-36.9114,10.4730,-7.1953,5.5621,-26.1521,5.6139,-7.8271,-13.8197,-16.1226,-9.8803,-14.5929,16.6677,-27.0851,-0.5832,-13.3006,21.6097,-26.8622,2.0986,-8.8340
2539.0625,-32.4774,10.5319,-8.5196,4.4251,-25.5817,5.4067,-10.9787,-16.1928,-17.1768,-4.7068,-13.9397,14.3676,-28.4525,-0.6037,-10.4490,22.4920,-30.6851,1.5548,-11.2579
2542.9688,-25.0532,12.7894,-8.5780,3.3266,-25.0880,8.1303,-11.4306,-18.2635,-16.1142,3.8703,-11.2056,12.4049,-29.0964,-0.1762,-5.8015,20.8228,-32.4602,1.4985,-12.5440
2546.8750,-18.5801,15.9304,-7.8920,3.7816,-24.0183,11.7869,-9.5869,-18.3619,-13.8397,11.6486,-8.3050,11.4259,-28.2735,1.4725,-2.7266,16.9363,-31.3280,2.7253,-12.6847
2550.7812,-15.7083,18.1133,-7.3265,6.2323,-21.9167,13.9389,-6.8087,-16.0833,-11.5724,15.3449,-6.9891,11.0910,-25.8167,4.2277,-3.5004,11.4747,-27.5643,5.3171,-12.2623
2554.6875,-15.9594,18.2471,-7.5466,9.8334,-18.8123,13.3875,-4.7597,-12.5227,-10.0857,14.7668,-7.8394,10.4658,-22.2233,7.0893,-7.9802,5.3090,-22.4176,8.6496,-12.0568
2558.5938,-15.9607,16.7402,-8.6432,13.0650,-15.1982,11.0073,-4.5969,-9.4986,-9.2607,12.9139,-10.0210,8.8094,-18.3460,8.7785,-13.8398,-0.4934,-17.4571,11.8406,-12.5956
2562.5000,-11.6760,15.1807,-10.1554,14.7687,-11.7375,9.1556,-6.4311,-8.2388,-8.2451,13.9327,-11.9317,6.1994,-14.8860,8.5776,-18.1448,-4.7771,-13.7755,14.3237,-13.9137
2566.4062,-1.1714,15.1883,-11.4324,14.9287,-8.8980,10.0532,-9.3518,-8.4044,-6.0989,20.3260,-12.2919,3.5698,-12.0101,6.8585,-19.1782,-6.5641,-11.4885,16.1639,-15.6239
2570.3125,13.9043,17.2521,-12.0544,14.6721,-6.7418,14.2196,-11.9987,-8.1630,-2.4969,31.2652,-10.9533,2.1475,-9.3361,4.9355,-17.3420,-5.4370,-9.8206,17.9011,-17.1904
2574.2188,29.0401,20.3444,-12.0361,15.4673,-4.9736,19.9737,-13.3516,-5.3730,1.9490,42.9991,-8.9341,2.6635,-6.2847,4.3053,-14.6617,-1.8556,-7.7189,20.0297,-18.2033
2578.1250,39.2186,22.5193,-11.7369,18.0197,-3.1733,24.2837,-13.2925,0.8045,5.9165,50.9039,-7.7298,4.8447,-2.5651,5.7385,-13.3768,2.8179,-4.6053,22.4675,-18.5032
2582.0312,41.3525,22.0375,-11.6164,21.5889,-1.0366,24.3915,-12.6386,8.9006,7.9822,51.7499,-8.4014,7.4964,1.5309,8.7971,-14.6233,6.7079,-0.7847,24.3930,-18.1486
2585.9375,35.3877,18.2699,-12.0403,24.2125,1.5145,19.2174,-12.6551,15.4936,7.2599,44.8713,-11.0228,9.1086,5.2188,12.0902,-18.0066,8.1296,2.7533,24.6030,-17.3185
2589.8438,23.7034,11.8750,-13.2228,23.7631,4.3652,9.7944,-14.3320,16.8874,3.7583,31.8771,-14.7582,8.6125,7.6411,14.1035,-22.1554,6.2885,4.9959,22.2017,-16.2482
2593.7500,9.5415,4.2744,-15.2362,19.2275,7.2916,-1.3710,-17.8095,11.2499,-1.6607,15.4992,-18.4107,5.8502,8.3465,14.0707,-25.7056,1.6008,5.5721,17.2018,-15.2092
2597.6562,-4.4066,-3.1344,-17.9657,11.4301,10.0047,-11.5161,-22.2241,-0.0225,-7.6464,-1.5257,-21.0329,1.5228,7.5312,12.3386,-28.0091,-4.5689,4.9656,10.6455,-14.4754
2601.5625,-16.5650,-9.5441,-20.9936,2.7372,12.1580,-18.7283,-26.0245,-12.5899,-12.8635,-17.0482,-22.2542,-3.2934,5.9053,10.0289,-29.2043,-10.6250,4.1442,4.1442,-14.2186
2605.4688,-26.2772,-14.8546,-23.5436,-4.1031,13.4041,-22.4746,-27.5987,-21.0807,-16.4369,-29.6657,-22.2371,-7.7319,4.2983,8.2692,-29.7908,-15.5016,3.8998,-0.9020,-14.3594
2609.3750,-33.3875,-19.4258,-24.6420,-7.3086,13.5576,-23.4888,-25.9402,-21.6668,-18.1779,-38.7734,-21.4115,-11.4739,3.2650,7.5343,-30.1257,-19.0201,4.3909,-3.9348,-14.4840
2613.2812,-38.0179,-23.6992,-23.5090,-6.8227,12.7938,-23.2382,-21.0798,-13.9199,-18.5106,-44.6095,-20.1989,-14.6820,2.9253,7.5169,-30.1731,-21.6593,5.2134,-5.3468,-13.9382
2617.1875,-40.5219,-27.8773,-19.9795,-4.0903,11.7041,-23.2606,-14.0949,-0.9325,-18.1308,-48.0874,-18.8499,-17.6382,3.0850,7.5381,-29.5631,-23.9428,5.9071,-6.0391,-12.1092
2621.0938,-41.3462,-31.7428,-14.6579,-1.0731,11.0639,-24.5802,-6.6627,12.3422,-17.5559,-50.2276,-17.3939,-20.3717,3.4916,7.1240,-27.8052,-25.8992,6.4588,-6.7503,-8.7670
2625.0000,-40.6844,-34.6457,-8.6565,0.8363,11.3753,-27.3291,-0.3264,21.5796,-16.8096,-51.3828,-15.6591,-22.5295,4.0153,6.2917,-24.4913,-26.9799,7.3634,-7.6137,-4.2627
2628.9062,-38.1735,-35.6873,-3.0504,1.3427,12.4641,-30.6694,4.1863,24.9993,-15.4393,-50.8173,-13.3461,-23.5588,4.6426,5.3588,-19.4391,-26.4661,9.1595,-8.2155,0.5577
2632.8125,-33.0384,-34.1022,1.5937,0.9887,13.4613,-33.0844,7.2131,23.6890,-12.8803,-47.1226,-10.1714,-23.0565,5.3349,4.4936,-12.8032,-24.0432,11.7966,-8.0698,4.7024
2636.7188,-24.8128,-29.7305,5.2928,0.4092,13.2793,-33.0098,9.7764,20.3009,-8.9652,-39.3850,-6.0673,-21.0468,5.9073,3.4259,-5.1577,-20.1104,14.3613,-7.1422,7.4552
2640.6250,-14.2541,-23.3446,8.2905,-0.3139,11.3318,-29.5998,12.7349,17.0592,-4.2579,-28.3854,-1.3570,-18.0241,6.0420,1.5900,2.5162,-15.6227,15.4513,-6.0431,8.6319
2644.5312,-3.7673,-16.5876,10.5629,-1.7477,8.0141,-23.2808,15.9741,14.3835,0.0146,-16.9537,3.2055,-14.7670,5.4223,-1.4128,8.9941,-11.6187,13.9886,-5.7678,8.5345
2648.4375,3.1405,-11.4518,11.5987,-4.6396,4.5580,-15.7739,18.2114,10.9660,2.4181,-9.0988,6.5921,-12.0690,3.8686,-5.4351,13.0861,-8.8047,9.9102,-7.1784,7.6604
2652.3438,3.2364,-9.5044,10.6723,-9.2670,2.2870,-9.4884,17.6718,5.1502,1.9041,-8.3399,7.8090,-10.5361,1.3688,-9.8454,13.9019,-7.4573,4.2237,-10.5836,6.3721
2656.2500,-4.9388,-11.2443,7.4436,-15.0933,1.7351,-6.5182,13.3139,-3.4082,-1.7721,-16.1790,6.2316,-10.4987,-1.9967,-14.0222,11.0003,-7.6012,-1.6323,-15.6590,4.7450
2660.1562,-20.2765,-15.9249,2.4431,-20.9658,2.2346,-7.7096,5.8388,-12.9936,-7.9857,-31.5085,1.8426,-11.9805,-6.1280,-17.8792,4.4487,-9.1791,-6.6754,-21.6879,2.6733
2664.0625,-39.4191,-21.9095,-2.9559,-25.7045,2.2892,-12.2629,-2.2631,-20.5635,-15.4883,-51.1089,-4.6936,-14.6527,-10.8740,-21.9382,-5.0986,-11.9813,-10.8759,-27.8900,0.1309
2667.9688,-57.9737,-27.3327,-7.1313,-28.6763,0.5148,-18.0763,-7.8129,-23.5161,-22.7847,-70.7828,-12.1229,-17.7902,-15.9020,-26.7953,-16.2625,-15.3934,-14.9103,-33.6068,-2.6227
2671.8750,-71.9749,-30.7171,-9.0164,-29.9944,-3.4712,-22.6684,-8.6137,-21.3289,-28.4795,-86.5034,-18.8435,-20.3420,-20.5981,-32.3277,-26.8978,-18.2803,-19.3647,-38.2851,-5.0517
2675.7812,-78.9547,-31.2930,-8.5912,-30.2638,-8.7991,-24.2220,-4.6716,-15.9665,-31.5366,-95.2322,-23.2792,-21.2093,-24.1470,-37.2784,-34.4146,-19.2949,-23.9935,-41.3956,-6.5717
2679.6875,-78.3091,-28.9906,-6.7406,-30.0940,-13.8859,-22.2449,1.8300,-10.7600,-31.4733,-95.4127,-24.3283,-19.6815,-25.8212,-39.6589,-36.5745,-17.5549,-27.6054,-42.4605,-6.8396
2683.5938,-71.0288,-24.2416,-4.5933,-29.7151,-17.3781,-17.5514,7.8111,-8.4671,-28.4791,-87.2362,-21.7519,-15.8074,-25.3359,-37.8447,-32.4967,-13.2536,-28.6980,-41.2296,-5.9164
2687.5000,-59.0706,-17.7490,-2.8099,-28.9223,-18.8684,-11.6336,11.0134,-9.7624,-23.3816,-72.6061,-16.3124,-10.4369,-23.0406,-31.6936,-23.2870,-7.6995,-26.4298,-37.8742,-4.2053
2691.4062,-44.6731,-10.3049,-1.3149,-27.3289,-18.9592,-5.8126,11.0570,-13.1091,-17.3866,-54.6089,-9.5337,-4.8366,-19.8029,-22.9130,-11.7680,-2.6324,-21.2728,-33.0096,-2.2320
2695.3125,-29.8491,-2.6621,0.3637,-24.7224,-18.7235,-0.6604,9.2098,-16.0375,-11.6459,-36.5006,-3.1374,-0.0627,-16.6367,-14.3489,-1.2921,0.7914,-14.9055,-27.4829,-0.4288
2699.2188,-16.1979,4.5392,2.4284,-21.2875,-19.0065,3.9964,7.1462,-16.9269,-6.8710,-20.6334,1.5751,3.5262,-14.2993,-8.5703,5.7433,2.6487,-9.4135,-22.0517,0.9454
2703.1250,-5.0504,10.7645,4.3459,-17.5719,-20.0417,8.5457,5.6558,-16.0769,-3.2436,-7.9779,4.0638,6.2915,-13.0961,-6.6033,8.7832,4.0450,-6.3033,-17.1746,1.7423
2707.0312,2.2260,15.4948,4.9717,-14.2391,-21.5566,12.9238,4.2368,-15.3641,-0.6986,1.4101,4.4417,8.8510,-12.9776,-7.5804,8.8526,6.1768,-5.9217,-13.0416,1.8263
2710.9375,4.1004,18.1360,3.2307,-11.7578,-23.1625,16.3058,1.8011,-16.7579,0.6292,7.3344,3.0486,11.4498,-13.8114,-9.4788,7.3764,9.3315,-7.5770,-9.7718,1.0597
2714.8438,-0.7672,18.0758,-1.0932,-10.1921,-24.6697,17.4217,-2.1311,-20.7417,0.1769,8.7421,0.0561,13.6241,-15.6052,-10.4307,4.9636,12.5701,-10.2025,-7.5632,-0.6057
2718.7500,-12.6916,14.9740,-7.0163,-9.1910,-26.1124,15.3486,-6.7262,-25.7409,-2.7921,4.1318,-4.5771,14.4256,-18.5136,-9.7595,1.0572,14.3446,-13.0977,-6.6309,-3.0230
2722.6562,-30.0869,9.1864,-12.7407,-8.1729,-27.5489,10.2845,-10.2029,-28.9653,-8.5433,-6.9755,-10.7699,13.0836,-22.6340,-8.1321,-5.3033,13.6096,-16.2822,-6.9600,-5.8488
2726.5625,-49.2292,2.0351,-16.5572,-6.6122,-28.8737,3.7730,-11.0105,-28.1193,-16.2716,-22.5364,-17.8882,9.6624,-27.7415,-6.8267,-14.2103,10.6146,-20.2798,-8.0870,-8.6780
2730.4688,-65.0969,-4.3639,-17.7037,-4.2825,-29.8103,-1.8305,-8.9315,-22.8543,-24.0338,-37.7571,-24.6097,5.2569,-33.1455,-6.6786,-24.1162,6.8023,-25.5005,-9.1270,-11.2177
2734.3750,-73.0889,-7.7716,-16.6324,-1.3320,-30.0540,-4.3833,-5.2724,-15.0274,-29.3848,-46.6925,-29.2713,1.5680,-37.7649,-7.4193,-32.2088,3.8970,-31.6164,-9.0889,-13.3467
2738.2812,-70.7869,-6.7097,-14.5356,1.8530,-29.3948,-2.8926,-2.0015,-7.6311,-30.4142,-44.9362,-30.5276,0.1079,-40.3963,-7.8047,-35.7409,2.8598,-37.3230,-7.2941,-14.9990
2742.1875,-58.7868,-1.0839,-12.4756,4.9076,-27.7138,2.1561,-0.4843,-3.1206,-26.5885,-31.7880,-27.9165,1.5100,-40.0706,-6.4004,-33.4315,3.4477,-40.6747,-3.6349,-15.9722
2746.0938,-40.1457,7.8080,-10.7283,7.7022,-24.9108,9.2043,-0.7496,-2.2134,-18.9158,-10.5286,-21.9977,5.3266,-36.3820,-2.4919,-26.0326,4.6369,-39.8876,1.4726,-15.8711
2750.0000,-18.8384,17.8706,-8.7930,10.3509,-20.9306,16.4425,-1.7893,-3.8551,-9.3818,13.3478,-14.0378,10.3638,-29.6915,3.4340,-15.7839,5.5133,-34.2470,7.3587,-14.3224
2753.9062,1.8048,27.0386,-6.0422,13.0001,-15.9574,22.5309,-2.5886,-6.2260,-0.0508,34.7705,-5.5122,15.2846,-21.1259,9.8856,-5.2483,5.9220,-24.6565,13.3709,-11.3785
2757.8125,19.8251,33.8832,-2.5178,15.5550,-10.6338,26.8640,-3.0302,-7.9876,7.6339,50.9723,2.2559,19.1066,-12.3160,15.0784,3.6555,6.4048,-13.4853,18.9716,-7.8157
2761.7188,34.3593,37.7670,0.7494,17.5837,-6.0374,29.3894,-3.9366,-8.8839,13.0398,61.6734,8.2018,21.3739,-4.8977,17.7426,9.9190,7.5447,-3.6861,23.6731,-5.0179
2765.6250,44.9217,38.6568,2.2047,18.5385,-3.2690,30.2733,-6.2114,-9.3589,16.1110,67.8905,11.5151,22.0363,0.0751,17.6146,13.1349,9.2947,2.4551,26.9754,-4.3770
2769.5312,51.0031,36.8903,0.7649,18.1914,-2.8146,29.7138,-9.7704,-9.6126,17.0376,70.5383,11.7364,21.2364,2.5397,15.4278,13.1419,10.8536,4.3210,28.4521,-6.4956
2773.4375,52.3167,33.0930,-3.3191,16.9760,-4.1020,27.9703,-13.1596,-8.9458,16.1087,69.8665,8.9953,19.1842,3.4067,12.4888,10.0335,11.2009,3.1624,27.9671,-10.6931
2777.3438,49.3645,28.1891,-8.3719,15.9202,-5.6263,25.4482,-14.2753,-6.0217,13.7692,65.8960,4.1821,16.1559,4.0566,10.1011,4.4595,9.8720,1.3369,25.8424,-15.2043
2781.2500,43.6818,23.2914,-12.1302,16.1071,-5.6718,22.6427,-11.7846,0.0346,10.6895,59.1844,-1.2168,12.5315,5.5790,9.1089,-2.2139,7.3751,0.9733,22.7972,-18.0503
2785.1562,37.4048,19.3582,-13.0369,17.9482,-3.2279,19.9247,-6.2886,8.4768,7.6659,51.1165,-5.6688,8.7742,8.1816,9.7147,-8.2284,4.9208,2.8123,19.6480,-18.1140
2789.0625,32.4113,16.7665,-11.1807,20.7514,1.4649,17.3608,-0.3752,16.6627,5.3641,43.4777,-8.2478,5.3345,11.1326,11.5648,-12.1386,3.6504,5.9032,16.9604,-15.7701
2792.9688,29.6666,15.1326,-8.2501,22.9410,7.0803,14.7745,2.5967,21.0929,4.0969,37.7460,-8.9489,2.5473,13.2831,13.9789,-13.3929,3.8981,8.3343,14.8937,-12.6594
2796.8750,29.2210,13.6013,-6.4861,22.8825,11.9509,12.0562,0.3284,19.3149,3.8168,34.7123,-8.4252,0.5857,13.8403,16.1806,-12.3372,4.9790,8.5380,13.3330,-10.7154
2800.7812,30.7260,11.4766,-7.2645,19.8523,14.8990,9.4662,-7.0232,11.5777,4.3148,34.6068,-7.3330,-0.5223,12.8867,17.4525,-9.6535,5.6120,6.3516,12.1673,-11.0239
2804.6875,33.8864,8.7641,-10.1910,14.5512,15.6572,7.6195,-16.6921,1.1446,5.4306,37.3557,-5.7885,-0.8675,11.3111,17.2312,-5.7316,4.6720,3.1736,11.4591,-13.1988
2808.5938,38.3703,6.1971,-13.2785,8.8160,14.7281,7.0597,-24.4872,-7.0908,7.0774,42.4812,-3.3692,-0.6598,10.2227,15.2147,-0.5361,1.8023,1.1447,11.3527,-15.6296
2812.5000,43.2799,4.6782,-14.0954,4.6792,12.9251,7.6877,-26.6924,-9.0279,9.0753,48.6293,0.3381,-0.2312,10.2753,11.5117,5.9116,-2.4353,1.9020,11.8103,-16.4140
2816.4062,46.8194,4.5206,-11.1722,3.3260,10.9870,8.5067,-21.7192,-3.4949,10.9968,53.2925,5.1016,0.0218,11.3708,6.7647,12.9000,-6.8743,5.7004,12.4347,-14.3841
2820.3125,46.7660,5.0614,-4.8147,4.5531,9.4718,7.9865,-10.7379,7.1168,12.2525,53.3892,9.8873,-0.2196,12.9114,2.0965,18.9080,-10.2818,11.4077,12.5886,-9.6310
2824.2188,41.7141,4.9854,3.1272,7.0054,8.8218,4.9306,2.9378,18.1040,12.4393,46.7467,13.3865,-1.0355,14.3535,-1.2248,22.2839,-11.8306,17.2791,11.7704,-3.2930
2828.1250,32.3132,3.1869,10.3264,8.9916,9.3393,-0.6637,15.3388,24.9057,11.7041,33.6836,14.8839,-2.2047,15.6025,-2.3376,22.3208,-11.3249,21.9258,9.9796,3.1553
2832.0312,21.5156,-0.4026,15.1882,9.3683,10.9605,-7.3195,23.4632,25.4113,10.7990,17.5333,14.8094,-3.3048,16.9416,-1.2822,19.9172,-9.1518,24.8470,7.7779,8.6222
2835.9375,13.4279,-4.5906,17.4934,8.0130,13.0164,-12.6075,26.3072,20.8826,10.7040,3.4943,14.5225,-3.9158,18.5855,0.9023,17.2394,-6.0276,26.2791,5.9765,12.7218
2839.8438,11.3286,-7.4675,18.1951,5.7062,14.3146,-14.2286,24.9174,15.0550,12.0396,-3.6999,15.4486,-3.7749,20.2724,2.6455,16.5286,-2.6537,26.6327,5.1699,15.6328
2843.7500,16.0415,-7.3793,18.6328,3.5967,13.6936,-11.0726,21.5681,11.9900,14.6899,-1.9603,18.1869,-2.7707,21.2903,2.6946,18.8481,0.5802,26.0394,5.4507,17.7311
2847.6562,25.6482,-3.7360,19.7369,2.5922,10.7887,-3.7125,18.5675,13.8903,17.9272,7.3836,22.2330,-0.8116,20.9754,0.8505,23.6244,3.7078,24.3589,6.4880,19.3087
2851.5625,36.6287,2.7748,21.6833,2.9591,6.4621,5.8566,17.3147,20.0231,20.9470,20.5300,26.4836,2.2601,19.3003,-1.9167,29.2406,7.0298,21.5632,7.8471,20.5214
2855.4688,45.6143,10.5945,24.0718,4.2320,2.4661,15.0353,18.0082,27.2225,23.3954,33.1048,30.0836,6.5479,17.0386,-4.1298,34.1602,10.7447,18.0773,9.2369,21.4695
2859.3750,50.6678,17.9904,26.3400,5.3803,0.4183,21.5821,19.9891,31.5742,25.4637,41.8150,32.9224,11.7996,15.2763,-4.8756,37.7147,14.5785,14.6947,10.4551,22.2133
2863.2812,51.5027,23.6404,28.0358,5.1405,0.7157,24.3415,22.3381,30.3226,27.4702,45.1092,35.3899,17.1576,14.5565,-4.5765,40.0320,17.6853,12.0554,11.1042,22.6433
2867.1875,48.8675,26.8905,28.7968,2.4426,2.1619,23.5280,24.2773,23.0373,29.2754,42.9440,37.6257,21.2487,14.2891,-4.8719,41.3199,18.9601,10.0889,10.4015,22.3307
2871.0938,43.7910,27.7220,28.1868,-3.1501,2.6650,20.5257,25.1912,11.5748,30.0467,36.2858,38.9384,22.7098,12.9457,-7.5819,41.2381,17.6382,7.9258,7.3907,20.5857
