Time,Fp1,F3,C3,P3,O1,F7,T3,T5,Fz,Fp2,F4,C4,P4,O2,F8,T4,T6,Cz,Pz
0.0000,2.8128,0.2213,1.1298,1.1612,1.1918,-2.5700,-5.8551,0.5307,-1.6229,4.2431,1.5898,-0.9187,-0.5255,-0.9014,1.2409,-2.8460,-2.1049,-0.0915,-0.6393
3.9062,-2.6848,-1.6491,0.1172,-0.3280,0.0218,-0.9135,-7.1712,-0.3812,-3.0875,2.1602,1.4204,-1.4068,-0.3937,-0.4267,-0.8203,0.0014,-1.8408,-1.7570,-1.2279
7.8125,-7.4996,-2.2053,-0.8908,-1.4200,-0.5491,1.7997,-4.0938,-0.5624,-3.5707,1.2585,3.2426,-0.6216,1.0055,0.3309,-2.3602,0.7768,-1.3698,-2.3548,-0.7038
11.7188,-9.4220,-0.9876,-1.3958,-1.8270,-0.2505,4.4259,1.7104,-0.1181,-2.6640,2.6368,6.3982,1.4030,3.3274,1.0022,-2.1222,0.4389,-0.8512,-1.3522,0.9274
15.6250,-7.5155,1.4652,-1.0180,-1.6783,0.5966,5.9797,6.6220,0.4125,-0.7123,6.3346,9.2696,4.0039,5.6976,1.3323,0.4264,1.6618,-0.2069,0.8974,3.0528
19.5312,-2.7868,3.8164,0.1481,-1.4649,1.2152,6.1265,7.7200,0.3755,1.3046,11.0924,10.2284,6.1572,7.1220,1.2429,4.4859,6.3442,0.7348,3.1926,4.6839
23.4375,2.2681,4.6772,1.4913,-1.7392,0.8488,5.2177,5.0154,-0.5887,2.3166,14.9387,8.6803,6.9493,6.9771,0.7371,8.1758,13.4901,1.9362,4.0849,4.9451
27.3438,5.0067,3.4444,2.2410,-2.7648,-0.7398,3.9509,1.4862,-2.3179,1.7893,16.3007,5.4891,5.9932,5.3049,-0.2150,9.6015,19.4714,2.9948,2.7047,3.5564
31.2500,4.0628,0.6808,1.9791,-4.3541,-3.0978,2.9576,0.7984,-4.2322,0.0110,14.9279,2.4614,3.5719,2.7518,-1.6747,8.0486,20.7158,3.3233,-0.7098,1.0097
35.1562,-0.0107,-2.2288,0.9062,-6.0015,-5.3614,2.5773,4.4137,-5.6911,-2.1558,11.9946,1.2183,0.4473,0.1955,-3.6086,4.4465,16.6634,2.5484,-4.9361,-1.6944
39.0625,-5.2205,-3.9321,-0.3546,-7.2059,-6.7812,2.8575,10.3105,-6.3588,-3.8718,9.2861,2.2106,-2.5307,-1.7182,-5.7757,0.7282,10.3855,0.7939,-8.4705,-3.6086
42.9688,-9.3689,-3.9134,-1.2632,-7.7474,-7.1291,3.6425,14.3321,-6.3382,-4.8320,8.0197,4.5350,-4.7851,-2.8631,-7.7709,-1.4707,6.1099,-1.4154,-10.3516,-4.3533
46.8750,-11.2416,-2.7274,-1.7607,-7.7330,-6.7299,4.6179,13.1582,-6.0174,-5.3264,8.1241,6.6466,-6.1579,-3.5927,-9.2341,-1.8319,5.5933,-3.5629,-10.5749,-4.2507
50.7812,-11.0558,-1.5414,-2.2367,-7.4150,-6.1485,5.3150,6.6657,-5.7708,-5.8389,8.4832,7.4370,-6.8123,-4.4177,-10.0635,-1.3565,6.4991,-5.5062,-9.8704,-3.9951
54.6875,-10.0156,-1.3355,-3.1042,-6.9567,-5.8022,5.1853,-2.0396,-5.7427,-6.5302,7.9557,6.9197,-7.0104,-5.6091,-10.4394,-1.3977,4.4439,-7.4551,-9.0618,-4.0938
58.5938,-9.3917,-2.3169,-4.3628,-6.3445,-5.7763,3.8174,-8.8248,-5.8437,-7.0362,6.3984,6.0725,-6.9392,-6.9738,-10.6059,-2.5217,-2.7401,-9.5538,-8.5019,-4.4783
62.5000,-9.7719,-3.9117,-5.5451,-5.5038,-5.9183,1.2146,-11.1991,-5.9165,-6.7616,4.9041,6.0088,-6.6824,-7.9433,-10.5768,-4.1108,-12.1359,-11.4462,-7.9795,-4.5737
66.4062,-10.9031,-5.2651,-6.1108,-4.4949,-6.0637,-2.0618,-9.4869,-5.9037,-5.4423,5.0293,7.1082,-6.3094,-7.9244,-10.0299,-5.0049,-17.0684,-12.2775,-7.1091,-3.7836
70.3125,-12.0884,-5.8372,-5.9542,-3.5970,-6.1754,-5.0409,-5.8721,-5.8792,-3.5199,7.5445,8.7281,-5.9657,-6.7058,-8.5268,-4.6265,-12.0947,-11.2580,-5.8479,-2.0436
74.2188,-12.7521,-5.6713,-5.5720,-3.1855,-6.3067,-6.7531,-2.3979,-5.9452,-1.9933,11.6301,9.6644,-5.8645,-4.6713,-5.9309,-3.6252,2.1027,-8.4084,-4.6967,-0.0258
78.1250,-12.7643,-5.2084,-5.7119,-3.4887,-6.4786,-6.6952,0.3142,-6.1114,-1.8072,15.1619,8.9966,-6.1728,-2.6782,-2.7004,-3.4657,18.0389,-4.8638,-4.4078,1.1867
82.0312,-12.3730,-4.8733,-6.7674,-4.4137,-6.6328,-5.0877,2.7071,-6.2806,-3.1985,15.9706,6.7163,-6.8798,-1.6421,0.2190,-5.2460,26.0177,-2.3706,-5.4097,0.7665
85.9375,-11.9034,-4.7881,-8.4161,-5.5790,-6.7136,-2.7859,4.9244,-6.3506,-5.4697,13.2554,3.7468,-7.7515,-2.0472,1.8910,-8.6839,20.8649,-2.2150,-7.3919,-1.2905
89.8438,-11.5026,-4.8008,-9.8152,-6.5247,-6.7782,-0.8909,5.9556,-6.3281,-7.3622,8.1961,1.4059,-8.4122,-3.6501,1.9608,-12.1106,5.7392,-4.3142,-9.3756,-4.0796
93.7500,-11.1049,-4.7221,-10.2082,-6.9331,-6.9759,-0.2516,4.2581,-6.3334,-7.7784,3.3366,0.7132,-8.4999,-5.5560,0.8995,-13.5312,-10.0067,-7.1618,-10.2455,-6.2502
97.6562,-10.5684,-4.5006,-9.4533,-6.7037,-7.3652,-1.0780,-0.6333,-6.4734,-6.3708,1.1371,1.9628,-7.8023,-6.6428,-0.2675,-11.9750,-17.4229,-8.7411,-9.3821,-6.7246
101.5625,-9.8105,-4.1704,-8.0483,-5.8621,-7.7162,-2.8293,-7.0405,-6.6905,-3.6377,2.6341,4.7238,-6.3058,-6.1174,-0.5724,-8.1349,-14.0507,-7.8130,-6.9731,-5.2280
105.4688,-8.8101,-3.6598,-6.6555,-4.4300,-7.5170,-4.4401,-11.8108,-6.7302,-0.5292,7.0297,8.1392,-4.1663,-3.9016,0.3618,-3.8463,-4.9332,-4.6880,-3.8205,-2.3317
109.3750,-7.5098,-2.7132,-5.5488,-2.4009,-6.2625,-4.8233,-12.4273,-6.2791,2.1125,12.3763,11.2753,-1.6526,-0.6371,2.2182,-0.8444,2.0304,-0.9477,-0.8119,0.9602
113.2812,-5.7675,-1.0849,-4.4698,0.1463,-3.8542,-3.4576,-8.9262,-5.1788,3.8959,16.7966,13.3742,0.8936,2.6903,4.3396,0.2497,2.5398,1.6694,1.5603,3.7763
117.1875,-3.4759,1.1119,-3.0109,2.9147,-0.8029,-0.7630,-3.9803,-3.5494,4.8506,19.3947,14.0088,3.0896,5.2800,6.2321,0.0127,-1.0035,2.4066,3.3254,5.7393
121.0938,-0.8101,3.2249,-1.1750,5.3909,1.9644,2.0033,-0.9359,-1.7227,5.1598,20.3359,13.1910,4.5701,6.8809,7.8223,-0.5558,-2.0768,1.8531,4.7731,6.9542
125.0000,1.5922,4.3021,0.4090,7.0298,3.6003,3.3782,-1.2872,-0.0414,4.9261,20.2205,11.4060,5.0827,7.7725,9.2945,-0.9446,4.0069,1.3215,6.0467,7.7126
128.9062,2.7319,3.6727,0.8513,7.5094,3.7944,2.5573,-3.6060,1.3100,4.1453,19.3603,9.4714,4.5796,8.3930,10.6803,-1.4308,15.7514,1.7521,6.9085,8.1612
132.8125,1.6882,1.4671,-0.3233,6.8675,2.8689,-0.0396,-4.8195,2.3106,2.8421,17.5539,8.1827,3.2366,8.8856,11.5790,-2.6040,26.2948,2.9783,6.8457,8.1613
136.7188,-1.7901,-1.3500,-2.7443,5.4244,1.4595,-2.9412,-2.8299,2.9617,1.1931,14.4924,7.8896,1.3744,8.9019,11.2840,-4.6135,28.6582,3.8845,5.4342,7.4025
140.6250,-6.8855,-3.5285,-5.3766,3.5694,0.0506,-4.5165,1.6426,3.1543,-0.4897,10.4005,8.2881,-0.6673,7.8375,9.2644,-6.8309,21.0979,3.3077,2.7099,5.6711
144.5312,-11.8116,-4.3039,-7.1785,1.5961,-1.2672,-4.0326,5.5017,2.7034,-1.8822,6.3241,8.6400,-2.6058,5.3666,5.6541,-8.2136,8.2699,0.9944,-0.6959,3.0984
148.4375,-14.4747,-3.8244,-7.7034,-0.2861,-2.6518,-2.1142,5.6675,1.5574,-2.7440,3.7568,8.3342,-4.1912,1.8983,1.3649,-8.0358,-2.5476,-2.0959,-3.7428,0.2429
152.3438,-13.4367,-2.9031,-7.1737,-1.8155,-4.1470,-0.2088,1.5104,0.0133,-2.9025,3.8121,7.4125,-5.1351,-1.4189,-2.3068,-6.3585,-6.9007,-4.3598,-5.3909,-2.0455
156.2500,-8.7039,-2.2838,-6.0280,-2.6037,-5.4595,0.6043,-4.6039,-1.2824,-2.1872,6.5075,6.6320,-5.1179,-3.2386,-4.3496,-3.8827,-5.8197,-4.5893,-5.0340,-2.9400
160.1562,-1.8906,-2.0092,-4.4035,-2.2681,-6.1012,0.5527,-9.0571,-1.6262,-0.4595,10.6627,6.9443,-3.9551,-2.8132,-4.5574,-1.3861,-3.7956,-2.7650,-2.7625,-2.0122
164.0625,4.4029,-1.4195,-2.0705,-0.7274,-5.7934,1.0424,-9.5859,-0.6935,2.2017,14.4927,8.7196,-1.8520,-0.5272,-3.5702,0.7205,-4.1916,-0.0766,0.6450,0.4956
167.9688,7.7541,0.1859,1.0939,1.5762,-4.7701,3.4294,-6.7152,1.1831,5.2836,16.5069,11.2945,0.4630,2.2326,-2.4255,2.3539,-6.2460,1.8308,3.9959,3.6574
171.8750,7.0591,2.7482,4.5414,3.7593,-3.6788,7.5741,-3.0071,3.1201,7.8377,16.1566,13.2469,1.9231,3.8581,-1.9242,3.3832,-6.2069,1.8867,6.1250,6.1848
175.7812,3.0587,5.2010,7.0025,4.9102,-3.1074,11.3828,-0.9035,4.1478,8.8361,13.8868,13.2834,1.6267,3.4915,-2.2051,3.4079,-1.3661,0.2585,6.3429,6.9934
179.6875,-2.0465,6.0665,7.1662,4.5880,-3.1020,11.9156,-0.9881,3.7564,7.7532,10.6720,11.1475,-0.6004,1.5604,-2.7636,2.0307,6.8301,-1.7462,4.7122,5.7545
183.5938,-5.7101,4.5240,4.6542,3.0628,-3.0900,7.4527,-1.9899,2.1698,5.0033,7.4271,7.8887,-3.9625,-0.4955,-2.8489,-0.5622,13.5575,-2.4645,2.0189,3.1179
187.5000,-6.2991,1.1516,0.5137,1.1140,-2.3186,-0.9432,-2.3002,0.1750,1.8737,4.6794,5.2557,-7.0026,-1.1518,-1.9594,-3.2956,14.6917,-0.8808,-0.5759,0.4245
191.4062,-3.8345,-2.2764,-3.2652,-0.4753,-0.4985,-9.6438,-1.5320,-1.3720,-0.1017,2.6184,4.5992,-8.3425,0.2156,-0.1343,-4.6309,10.5255,2.7304,-2.0647,-0.9839
195.3125,0.1588,-3.8779,-4.9627,-1.3678,1.8514,-14.5178,-0.7517,-2.0307,0.0118,1.3345,6.0320,-7.4279,2.9391,2.0979,-3.5635,5.6308,6.8909,-2.0509,-0.4849
199.2188,3.5601,-2.9005,-4.2288,-1.7517,3.6624,-13.5370,-1.2848,-1.9454,2.0149,0.9579,8.4167,-4.8088,5.5129,4.0311,-0.4585,4.7445,9.6979,-0.9002,1.5044
203.1250,4.7724,-0.2293,-2.2509,-2.0347,4.0211,-8.1252,-3.2861,-1.6257,4.7058,1.5545,10.1659,-1.7794,6.5749,5.1413,3.0073,8.2195,9.8768,0.4948,3.8095
207.0312,3.4269,2.2098,-0.8531,-2.4352,2.8141,-2.2568,-5.4365,-1.5398,6.5995,2.8921,10.2726,0.3804,5.7467,5.2920,4.8852,11.2529,7.5175,1.2016,5.2096
210.9375,0.3398,2.7280,-1.1919,-2.8249,0.8285,0.1090,-6.0656,-1.8285,6.7651,4.3286,8.8543,1.0661,3.7767,4.7064,4.2632,7.9969,4.0608,0.7098,5.1238
214.8438,-3.1462,0.9282,-3.0198,-2.9511,-0.7765,-2.5065,-4.6788,-2.3351,5.2523,4.9955,6.8823,0.5084,1.9322,3.7683,1.8526,-2.6821,1.5106,-0.8839,3.8468
218.7500,-5.9621,-2.1825,-5.0397,-2.8300,-1.2507,-8.4125,-2.4833,-2.8904,2.8818,4.2092,5.3687,-0.5932,1.1079,2.7933,-0.6205,-14.8501,1.3078,-3.0403,2.2184
222.6562,-7.7637,-5.0296,-6.0259,-2.9378,-0.7321,-14.2033,-1.4019,-3.5950,0.6122,1.8540,4.6482,-1.6292,1.2891,1.9022,-1.7522,-19.1201,3.5293,-5.1486,0.9959
226.5625,-8.8367,-6.5852,-5.8116,-3.9761,-0.1034,-17.1870,-2.4355,-4.8464,-1.0408,-1.5291,4.2636,-2.4072,1.7179,1.0456,-1.4699,-9.8655,6.9044,-6.8523,0.3787
230.4688,-9.6320,-6.9377,-5.3783,-6.3430,-0.3608,-17.0001,-4.8530,-7.0520,-2.1608,-5.0178,3.4712,-3.0648,1.5788,0.1353,-0.9108,9.6430,9.6414,-8.1452,-0.0133
234.3750,-10.3148,-6.9736,-6.0120,-9.7168,-1.9639,-15.3474,-6.9649,-10.2250,-3.1362,-7.7779,1.9177,-3.7388,0.6511,-0.8262,-1.2913,28.6064,10.5317,-9.2263,-0.7545
238.2812,-10.6360,-7.5198,-8.2245,-13.1168,-4.6054,-14.2800,-7.8020,-13.7707,-4.2172,-9.4305,-0.0489,-4.3369,-0.5663,-1.7159,-2.7317,35.9865,9.6089,-10.2635,-2.1512
242.1875,-10.1656,-8.6706,-11.2947,-15.4575,-7.5025,-14.4814,-8.1467,-16.6661,-5.2839,-10.1069,-1.6422,-4.6237,-1.3223,-2.3824,-4.0538,28.3199,7.9419,-11.2437,-4.0447
246.0938,-8.6724,-9.7951,-13.7660,-16.2266,-9.9363,-14.8929,-9.8669,-17.9690,-5.9676,-10.1941,-2.2203,-4.5131,-1.2788,-2.7916,-3.7681,12.0241,6.7424,-11.9900,-5.9774
250.0000,-6.3639,-10.1308,-14.4749,-15.7876,-11.6300,-13.8452,-14.0013,-17.3492,-5.9668,-9.9799,-1.7110,-4.2502,-0.8324,-3.1026,-1.4548,-1.6392,6.4511,-12.2882,-7.5293
253.9062,-3.8362,-9.4027,-13.2978,-15.0672,-12.7336,-10.6503,-19.2506,-15.2906,-5.2646,-9.4551,-0.5656,-4.2533,-0.8325,-3.5897,1.6368,-5.0256,6.4712,-12.0000,-8.5291
257.8125,-1.7931,-7.9460,-11.0749,-14.8376,-13.5018,-6.3071,-22.3372,-12.8106,-4.0775,-8.4070,0.6702,-4.7092,-1.9112,-4.4356,3.3535,0.6066,5.7221,-11.0883,-8.9989
261.7188,-0.7283,-6.2893,-8.8506,-15.1187,-13.9624,-2.7775,-20.2045,-10.8555,-2.6214,-6.7300,1.7787,-5.2796,-3.9436,-5.5346,2.2435,7.0108,3.5694,-9.5785,-8.9462
265.6250,-0.7488,-4.6384,-7.0933,-15.1511,-13.8389,-1.4876,-12.4321,-9.7598,-0.9396,-4.7175,2.9343,-5.2383,-6.0583,-6.4671,-1.2426,6.3153,0.4033,-7.5399,-8.2496
269.5312,-1.5923,-2.7719,-5.5161,-13.9777,-12.7663,-2.3094,-1.9191,-9.1238,1.0282,-3.0927,4.3788,-4.0128,-7.1971,-6.7056,-4.9341,-2.2387,-2.5809,-5.1318,-6.7795
273.4375,-2.7797,-0.4578,-3.5782,-11.2201,-10.6218,-3.8212,6.8330,-8.1915,3.1890,-2.6928,6.0129,-1.7326,-6.8162,-5.9466,-6.4203,-11.6370,-4.2174,-2.6702,-4.6510
277.3438,-3.8056,2.0073,-1.1789,-7.4828,-7.7269,-4.5557,10.6234,-6.4656,5.0976,-3.9547,7.2774,0.6894,-5.2230,-4.3465,-4.7335,-12.9574,-4.1627,-0.6154,-2.3532
281.2500,-4.3080,3.6956,1.0724,-4.0770,-4.7897,-4.1521,9.4736,-4.1292,6.0405,-6.5187,7.4538,2.0849,-3.3339,-2.4826,-0.9827,-2.8977,-3.0348,0.5731,-0.5786
285.1562,-4.1984,3.5842,2.2390,-2.2433,-2.6278,-3.4787,6.1580,-1.9739,5.4044,-9.2623,6.1598,1.8204,-2.0659,-1.0362,2.4879,13.1835,-1.8233,0.6478,0.1636
289.0625,-3.7338,1.3521,1.7562,-2.4127,-1.8337,-3.7118,3.8115,-0.8809,3.0839,-10.8526,3.6500,0.2520,-1.8172,-0.3986,3.7130,25.1594,-1.0820,-0.2948,-0.1468
292.9688,-3.4820,-2.2337,-0.1433,-4.0127,-2.5432,-5.2442,3.5495,-1.2306,-0.3811,-10.5767,0.6787,-1.5388,-2.3792,-0.4632,2.2552,25.7711,-0.5733,-1.8812,-1.0780
296.8750,-4.1326,-5.7403,-2.6229,-5.9350,-4.3981,-7.3904,3.9353,-2.6662,-4.0626,-8.9610,-1.9720,-2.5578,-3.2597,-0.7457,-0.8858,15.8717,0.3604,-3.6981,-2.1196
300.7812,-6.1735,-8.0401,-4.8703,-7.3119,-6.7003,-9.1045,2.5754,-4.3812,-7.1338,-7.7087,-3.9367,-2.6424,-4.0932,-0.7368,-4.3398,3.2144,2.0435,-5.5293,-3.0924
304.6875,-9.5636,-9.0824,-6.6255,-8.0421,-8.6943,-10.0092,-1.5853,-5.7049,-9.2480,-8.8380,-5.3522,-2.5394,-4.7975,-0.2284,-7.3996,-3.9800,4.0084,-7.4004,-4.2406
308.5938,-13.5949,-9.8156,-8.1805,-8.7055,-9.8669,-10.7484,-7.1835,-6.5351,-10.5534,-13.4103,-6.5469,-3.2309,-5.3996,0.6174,-10.1652,-3.2939,5.2596,-9.3824,-5.9019
312.5000,-17.0819,-11.2741,-9.8872,-9.9579,-10.1416,-12.2906,-11.4048,-7.2847,-11.3639,-20.6022,-7.6132,-5.0273,-5.7592,1.4796,-12.8136,0.7954,5.0692,-11.3058,-8.0165
316.4062,-18.8481,-13.5412,-11.6324,-11.8760,-9.8715,-14.7754,-12.1340,-8.3967,-11.7687,-27.7918,-8.2303,-7.1643,-5.5030,2.1716,-14.8203,1.5873,3.6389,-12.6428,-9.9120
320.3125,-18.2910,-15.4573,-12.7612,-13.7564,-9.6173,-16.9746,-9.5100,-9.8309,-11.5005,-31.7838,-7.8968,-8.2709,-4.2856,2.7642,-15.0021,-3.5944,2.0397,-12.7114,-10.6175
324.2188,-15.7219,-15.3847,-12.5466,-14.5336,-9.8193,-16.9767,-5.6855,-10.9650,-10.1724,-30.5624,-6.3921,-7.3876,-2.1747,3.4385,-12.4784,-10.9161,1.4259,-11.1146,-9.5403
328.1250,-12.2691,-12.4988,-10.8296,-13.5282,-10.5453,-13.6692,-3.0986,-11.0199,-7.6959,-24.5366,-4.0909,-4.7544,0.1899,4.2135,-7.7475,-13.3407,2.1326,-8.1106,-7.0028
332.0312,-9.3605,-7.6018,-8.2932,-10.9834,-11.4647,-7.8511,-2.7287,-9.6853,-4.5389,-16.4499,-1.8547,-1.7319,1.8652,4.8124,-2.8442,-6.8288,3.3980,-4.6160,-4.1869
335.9375,-8.0387,-2.7776,-6.1103,-7.9834,-12.0578,-2.0075,-3.6919,-7.4254,-1.5947,-9.9198,-0.5446,0.1236,2.1657,4.8287,-0.2351,5.8685,3.9660,-1.7732,-2.4435
339.8438,-8.4683,-0.0791,-5.2005,-5.7820,-11.9135,1.2052,-4.3333,-5.1801,0.2779,-7.4594,-0.4970,0.1440,1.1200,4.0939,-1.1730,17.0529,3.1177,-0.3359,-2.4187
343.7500,-9.8999,-0.1996,-5.6383,-4.9910,-10.9175,0.6958,-3.7445,-3.6634,0.7302,-9.2043,-1.3397,-1.0326,-0.5262,2.9443,-4.7707,20.0354,1.3105,-0.2750,-3.6187
347.6562,-11.1129,-2.1114,-6.6503,-5.1939,-9.2285,-2.3742,-2.4108,-2.8226,0.0830,-13.1359,-2.2823,-2.0305,-1.7904,2.1268,-8.5806,14.2589,-0.1023,-0.8820,-4.7540
351.5625,-11.0948,-3.9265,-7.1956,-5.2668,-7.1112,-5.4347,-1.5613,-1.9279,-0.9338,-16.6020,-2.6707,-1.8429,-2.0852,2.3462,-10.3132,5.3794,0.1225,-1.2987,-4.6420
355.4688,-9.5860,-4.3008,-6.7008,-4.2022,-4.7989,-6.2226,-1.9426,-0.2689,-1.6664,-18.0643,-2.4079,-0.6118,-1.5575,3.7552,-9.4224,0.3343,2.1569,-1.0993,-3.0380
359.3750,-7.1940,-3.3121,-5.4270,-1.8717,-2.5018,-4.1136,-3.1596,2.0860,-1.8977,-17.8731,-1.9541,0.5283,-0.9043,5.7719,-7.3608,1.5899,4.9286,-0.5141,-0.8070
363.2812,-5.0225,-2.1824,-4.2357,0.8053,-0.5189,-0.2051,-4.1126,4.1191,-1.8428,-17.5910,-1.9292,0.4084,-0.8219,7.3970,-6.3333,5.3789,6.8656,-0.1474,0.6774
367.1875,-4.0332,-2.1385,-3.9536,2.4208,0.7152,3.7102,-4.0343,4.5075,-1.8223,-18.4558,-2.6237,-1.1818,-1.5047,7.8382,-7.5375,5.3436,6.9861,-0.4234,0.4690
371.0938,-4.5044,-3.3672,-4.7971,2.0020,0.7782,6.3497,-3.1244,2.6482,-1.8954,-20.1986,-3.7711,-3.2579,-2.5523,7.0094,-10.2551,-1.5448,5.5164,-1.1938,-1.3418
375.0000,-5.8882,-4.8979,-6.2353,-0.3219,-0.4469,7.4282,-2.2242,-0.7262,-1.7542,-21.1544,-4.7241,-4.3489,-3.3218,5.5522,-12.4564,-11.8256,3.6148,-1.8146,-3.7453
378.9062,-7.1329,-5.4615,-7.3398,-3.3590,-2.5530,7.2739,-1.9123,-3.8796,-0.9677,-19.5985,-4.8765,-3.5892,-3.4264,4.3672,-12.3817,-17.8818,2.4783,-1.6314,-5.5206
382.8125,-7.2696,-4.5718,-7.3489,-5.5720,-4.6818,6.1773,-1.9493,-5.1805,0.6180,-15.2808,-4.0164,-1.3314,-2.9897,4.0036,-9.8253,-13.9420,2.5494,-0.4942,-5.9926
386.7188,-5.9215,-2.9141,-6.0715,-5.9910,-5.9069,4.1996,-1.6466,-4.1950,2.6472,-9.9305,-2.3751,1.1888,-2.4705,4.3519,-6.1499,-0.8830,3.3938,1.1113,-5.3089
390.6250,-3.4626,-1.7252,-3.9103,-4.7181,-5.7025,1.5878,-0.8089,-1.9449,4.3975,-6.2572,-0.3897,2.8483,-2.2141,4.8470,-3.1205,14.0685,4.2475,2.4290,-4.1066
394.5312,-0.7730,-1.7013,-1.5494,-2.7182,-4.1799,-0.7434,-0.2800,-0.1180,5.2252,-6.1162,1.5959,3.4811,-2.0940,5.0029,-1.5778,22.5072,4.7081,3.0189,-2.9017
398.4375,1.2310,-2.3719,0.4547,-1.0860,-1.9316,-1.3603,-1.4098,0.1807,5.0040,-9.1768,3.4493,3.8986,-1.5336,4.8509,-1.0326,20.7832,4.9968,3.1057,-1.7010
402.3438,2.0168,-2.4850,1.9263,-0.3216,0.3906,0.7844,-4.7485,-0.8049,4.2400,-13.1080,5.1289,5.0870,0.0935,4.9389,-0.4268,12.1037,5.6318,3.4010,-0.1197
406.2500,1.6069,-1.1015,3.0484,-0.1097,2.4451,5.3400,-9.0787,-1.7712,3.7619,-15.1926,6.4777,7.2509,2.9675,5.8901,0.6884,3.4126,6.8623,4.5177,2.1379
410.1562,0.4756,1.5108,4.1223,0.2894,4.2559,10.3647,-11.7729,-1.4518,4.1862,-14.2250,7.1580,9.4962,6.5821,7.8615,1.6322,-0.1589,8.3797,6.4150,4.8520
414.0625,-0.7110,3.9480,5.2805,1.3670,5.9559,13.3243,-10.4293,0.3497,5.5098,-11.3284,6.8238,10.4243,9.9271,10.3147,1.2007,1.2625,9.5390,8.3059,7.2722
417.9688,-1.3690,4.6856,6.3330,2.9207,7.4759,12.6986,-4.6503,2.5958,7.0976,-9.1157,5.4087,9.1759,11.9735,12.2805,-1.1361,3.4785,9.8600,9.1192,8.5283
421.8750,-1.1997,3.2420,6.8398,4.1527,8.4663,9.0344,3.4021,3.8293,8.0608,-9.8208,3.2804,6.1029,12.1525,12.9280,-4.5240,2.6158,9.3525,8.1952,8.1553
425.7812,-0.3042,0.5626,6.3728,4.2177,8.5323,4.6183,10.1692,3.2979,7.7727,-13.7498,1.0997,2.5468,10.5595,12.0396,-7.1855,-1.2374,8.3924,5.7221,6.3529
429.6875,0.8057,-1.6833,4.8203,2.8157,7.5857,1.9620,12.7839,1.4972,6.1979,-19.1203,-0.5477,-0.0887,7.8117,10.0756,-7.7394,-4.2391,7.3053,2.6128,3.8221
433.5938,1.3433,-2.3286,2.5469,0.4153,6.0058,2.1954,10.6264,-0.2788,3.8611,-23.3176,-1.4848,-1.2367,4.7057,7.8233,-6.3067,-2.4879,6.0724,-0.0662,1.3443
437.5000,0.5668,-1.4927,0.2925,-2.0171,4.4543,4.5279,5.3465,-0.9790,1.5233,-24.5886,-1.9881,-1.3599,1.8999,5.9134,-4.4546,4.1575,4.4565,-1.6933,-0.5746
441.4062,-1.7939,-0.3342,-1.1611,-3.5645,3.4718,7.0993,-0.4641,-0.5753,-0.1999,-22.9756,-2.5020,-1.3474,-0.2298,4.5467,-3.9689,11.5287,2.4329,-2.3138,-1.7772
445.3125,-5.2171,-0.0284,-1.3754,-3.8098,3.1655,8.4800,-4.8328,0.0336,-1.0559,-19.9470,-3.2409,-1.6674,-1.5602,3.5783,-5.4119,14.3857,0.5028,-2.3932,-2.2878
449.2188,-8.4396,-0.8313,-0.4669,-2.9377,3.2246,8.6348,-7.1077,-0.1308,-1.1354,-17.1837,-3.9911,-1.9928,-2.1210,2.8258,-7.6324,10.6707,-0.4758,-2.3588,-2.1274
453.1250,-9.9807,-1.9777,0.9923,-1.5080,3.2371,8.6689,-7.5678,-1.2643,-0.7001,-15.5191,-4.2721,-1.5865,-2.0244,2.3150,-8.6441,3.1367,0.1099,-2.3044,-1.3017
457.0312,-8.9381,-2.4349,2.3235,-0.1174,3.0432,9.6840,-6.6091,-2.6239,-0.0042,-14.7619,-3.7324,-0.0816,-1.4516,2.2623,-7.1874,-3.0296,2.0468,-2.0490,0.0560
460.9375,-5.6037,-1.8208,3.1258,0.8273,2.8423,11.7520,-4.3595,-3.1859,0.8013,-14.3333,-2.4602,2.0461,-0.6547,2.8235,-3.7317,-4.5270,4.2382,-1.4230,1.5778
464.8438,-1.4643,-0.6871,3.4596,1.1599,2.9829,13.8338,-0.9800,-2.5379,1.6863,-14.0085,-0.9507,3.7550,0.0824,3.8356,-0.1161,-2.4706,5.3002,-0.4824,2.7668
468.7500,1.5087,0.0577,3.7350,0.9100,3.6162,14.6330,2.8459,-1.2381,2.7254,-14.0777,0.2584,4.2646,0.5303,4.7817,1.8813,-0.9453,4.4344,0.5532,3.2984
472.6562,1.9133,0.0508,4.4079,0.2665,4.5016,13.6030,5.9204,-0.3402,4.0694,-14.8512,0.9945,3.7534,0.6084,5.0403,1.8979,-2.8425,1.9688,1.5627,3.2908
476.5625,-0.3152,-0.1209,5.6937,-0.4394,5.1150,11.2722,7.1999,-0.5010,5.8768,-16.0648,1.5653,3.3207,0.4294,4.2651,1.1843,-6.6612,-0.8125,2.7125,3.2930
480.4688,-3.9135,0.5911,7.4644,-0.8051,4.9761,8.7012,6.5634,-1.4387,8.1864,-16.8423,2.4723,4.1894,0.2629,2.6406,1.4951,-7.2417,-2.4192,4.3483,3.9350
484.3750,-7.0762,2.7027,9.3417,-0.5271,3.9502,6.6465,4.9330,-2.2045,10.7772,-16.3557,3.9387,6.7440,0.4290,0.8422,3.5731,-0.0938,-1.9537,6.6335,5.4579
488.2812,-8.5203,5.5565,10.8767,0.4005,2.3249,5.2030,3.5382,-2.0280,13.1269,-14.6503,5.6365,10.1521,1.1638,-0.2844,6.4470,14.1809,0.5534,9.2302,7.4674
492.1875,-8.1568,7.6291,11.6917,1.6187,0.6376,4.1790,2.9245,-0.9984,14.5594,-12.8765,6.8554,12.8785,2.5092,-0.1399,8.1083,29.2052,4.4041,11.3297,9.1210
496.0938,-6.9849,7.6048,11.5496,2.5712,-0.6005,3.7191,2.6018,0.0130,14.5527,-12.6089,7.0079,13.7192,4.2699,1.3442,7.0414,36.8271,8.7892,12.0821,9.6467
500.0000,-6.3507,5.3681,10.3943,2.8338,-1.1110,4.4245,1.6962,0.1315,13.0404,-14.6970,6.0825,12.5883,6.0646,3.6921,3.4105,32.9431,13.1901,11.1488,8.8407
503.9062,-7.1141,2.1040,8.3960,2.3775,-0.9053,6.7005,0.0480,-0.7189,10.4986,-18.5372,4.6706,10.4964,7.4664,6.1284,-1.0064,20.6428,17.3891,8.9693,7.1912
507.8125,-9.2578,-0.6064,5.9611,1.5563,-0.2247,9.8706,-1.2890,-1.7039,7.7242,-22.3856,3.5165,8.7766,8.1790,7.9424,-4.0675,8.1132,21.2060,6.5213,5.5348
511.7188,-12.1092,-1.9826,3.6211,0.8083,0.5658,11.9923,-0.7396,-1.7905,5.4145,-24.5378,2.9207,8.1671,8.1632,8.7865,-4.7305,2.7680,24.2809,4.7192,4.4890
515.6250,-14.9029,-2.5761,1.7874,0.2963,1.0958,10.8529,2.3659,-0.6977,3.8103,-24.5053,2.4672,8.4185,7.6321,8.7711,-3.6429,6.0154,26.1238,3.8648,4.0633
519.5312,-17.2320,-3.7002,0.5033,-0.2202,1.1149,5.6260,6.8339,0.7365,2.6393,-23.2963,1.3197,8.6464,6.8980,8.3220,-2.4874,12.6107,26.3799,3.5336,3.7226
523.4375,-19.1043,-6.2118,-0.5926,-1.1546,0.6049,-2.0514,10.0740,1.1360,1.3980,-22.5818,-1.1051,8.0802,6.1557,7.8866,-2.6668,15.0083,25.0630,2.9595,2.8518
527.3438,-20.6688,-9.6280,-1.9811,-2.6689,-0.1916,-8.5987,9.8192,-0.3044,-0.2189,-23.3897,-4.5843,6.6072,5.3498,7.6566,-4.3528,9.3174,22.5573,1.6331,1.2859
531.2500,-21.9140,-12.3042,-3.7939,-4.3930,-0.8871,-10.5168,5.8453,-3.0696,-2.0418,-25.3237,-8.0924,4.7435,4.2376,7.4740,-6.5538,-1.6821,19.4040,-0.3105,-0.4759
535.1562,-22.6014,-12.5672,-5.5122,-5.5360,-1.1749,-6.6526,0.3198,-5.5608,-3.4939,-26.8922,-10.3970,3.1554,2.6333,6.9893,-8.0180,-10.6516,16.0667,-2.1664,-1.5282
539.0625,-22.4496,-9.9521,-6.1419,-5.3499,-1.0187,0.8834,-3.5828,-6.1747,-3.9622,-26.6684,-10.8444,2.1817,0.6681,5.9790,-8.1779,-11.1709,12.8589,-3.1155,-1.1238
542.9688,-21.3779,-5.6142,-4.8583,-3.6282,-0.6456,7.8815,-3.8117,-4.4099,-3.2223,-24.3803,-9.7841,1.7297,-1.1426,4.6114,-7.4162,-2.3548,10.0315,-2.7335,0.8256
546.8750,-19.5987,-1.6324,-1.7252,-0.8875,-0.3201,10.5781,-0.7317,-1.1698,-1.6370,-21.1109,-8.3355,1.5428,-2.1306,3.4503,-6.5590,10.7618,7.8591,-1.2312,3.6276
550.7812,-17.5198,0.2576,2.0569,1.8947,-0.0711,7.9079,3.3543,1.9310,-0.0018,-18.5031,-7.6702,1.5131,-1.8974,3.1447,-6.1364,21.0788,6.5736,0.6827,6.1341
554.6875,-15.5805,-0.4152,4.6605,3.7979,0.3764,1.9907,6.0024,3.6806,0.8628,-17.6197,-8.3087,1.7165,-0.6590,3.9748,-6.0640,24.3550,6.1681,2.1771,7.2996
558.5938,-14.1650,-2.8562,4.6630,4.3847,1.3544,-3.3925,6.3022,3.9432,0.5267,-18.3274,-9.8945,2.1525,0.7505,5.5586,-5.9552,21.4673,6.2608,2.6628,6.6453
562.5000,-13.5981,-5.7706,1.9451,3.7855,2.8546,-5.2273,5.1765,3.4427,-0.8585,-19.6112,-11.5405,2.4866,1.2727,6.9566,-5.6914,16.6029,6.2046,1.9729,4.3888
566.4062,-14.1095,-8.2162,-2.1777,2.4633,4.3215,-2.9719,4.2297,2.9439,-2.6743,-20.4751,-12.4469,2.1185,0.2073,7.1611,-5.6629,13.2309,5.4360,0.3359,1.2254
570.3125,-15.6767,-9.9304,-5.7320,0.8876,4.8830,1.4658,4.2394,2.5723,-4.1663,-20.6561,-12.3454,0.6084,-2.3727,5.6887,-6.4251,11.2867,3.8436,-1.7716,-2.0584
574.2188,-17.8304,-11.0466,-7.2832,-0.6450,3.9281,5.2514,4.5888,1.8256,-4.8053,-20.5974,-11.5150,-1.8592,-5.6355,2.9006,-8.0680,7.7895,1.8864,-3.8001,-4.9002
578.1250,-19.6387,-11.6213,-6.7525,-1.9793,1.6268,6.4736,4.0450,0.2013,-4.5014,-20.7732,-10.4587,-4.3941,-8.4235,-0.1606,-9.8931,0.2019,0.3622,-5.2806,-7.0543
582.0312,-20.0322,-11.4659,-5.3049,-2.9800,-1.0322,5.1020,2.1000,-2.1593,-3.5899,-21.0077,-9.5493,-5.8454,-9.8222,-2.3133,-10.7560,-10.3915,-0.0213,-5.9387,-8.4776
585.9375,-18.3747,-10.4029,-4.4123,-3.4797,-2.7775,2.6066,-0.3767,-4.3934,-2.6151,-20.4289,-8.9007,-5.4965,-9.5128,-2.8083,-9.8719,-19.0284,1.0111,-5.7420,-9.1400
589.8438,-14.9370,-8.6303,-4.7718,-3.3449,-2.8177,0.7237,-1.7825,-5.4773,-2.0281,-18.1609,-8.4812,-3.5104,-7.7315,-1.5840,-7.4683,-19.9298,3.2420,-4.8513,-8.9202
593.7500,-10.9134,-6.7779,-5.8530,-2.5746,-1.2798,0.3050,-1.1616,-4.9443,-1.9542,-14.2295,-8.2829,-0.7991,-4.9469,0.8972,-4.7537,-10.6540,6.1514,-3.4905,-7.6625
597.6562,-7.8979,-5.5478,-6.3804,-1.3180,0.9927,0.9420,0.9158,-3.1683,-2.1557,-9.9318,-8.3613,1.5703,-1.5507,4.0335,-3.1946,5.7378,9.1595,-1.8217,-5.3555
601.5625,-7.1054,-5.2452,-5.3724,0.2076,3.1128,1.4319,2.7938,-1.0103,-2.2249,-7.2910,-8.7310,2.9720,2.1975,7.3761,-3.6216,22.1081,11.7486,0.0653,-2.3031
605.4688,-8.8156,-5.6314,-2.9663,1.8047,4.7593,0.6397,3.1569,0.8293,-1.9106,-7.8839,-9.2701,3.3900,5.9790,10.6438,-5.8005,31.2715,13.4580,2.0185,0.8533
609.3750,-12.3525,-6.2445,-0.4222,3.2976,6.2548,-1.7986,2.2164,2.2005,-1.3783,-11.8092,-9.7803,3.1014,9.2189,13.5500,-8.7287,29.8887,13.8889,3.6599,3.3239
613.2812,-16.5406,-6.8949,0.6972,4.4659,8.0907,-5.2540,1.5855,3.3582,-1.2082,-17.4909,-10.1781,2.2273,11.1526,15.6914,-11.3610,19.7950,12.8369,4.3820,4.5067
617.1875,-20.2725,-7.8660,-0.4115,5.0345,10.3385,-8.3857,2.8705,4.5002,-2.0769,-22.4674,-10.6274,0.5952,11.2062,16.6815,-13.1894,6.2659,10.5029,3.6143,4.3016
621.0938,-22.8274,-9.5995,-3.2283,4.8179,12.4768,-9.7545,6.1303,5.4749,-4.2823,-24.6822,-11.4349,-1.9422,9.4540,16.4539,-14.2862,-5.2441,7.5846,1.2481,3.2070
625.0000,-23.8557,-12.1245,-6.2136,3.9522,13.7941,-8.5291,9.5445,5.9408,-7.4123,-23.5026,-12.7295,-5.0249,6.7799,15.4586,-14.8918,-11.6626,5.0809,-2.0785,2.1057
628.9062,-23.2331,-14.7557,-7.7427,2.9977,14.0195,-5.0106,10.6856,5.8031,-10.4111,-19.9057,-14.1773,-7.6320,4.5345,14.5091,-14.9769,-12.8473,3.8449,-5.1131,1.8189
632.8125,-21.0379,-16.3912,-7.0248,2.7273,13.6098,-0.6846,8.4657,5.4623,-12.0626,-15.7994,-15.0148,-8.5138,3.8296,14.3084,-14.1741,-10.4080,4.1456,-6.5580,2.6656
636.7188,-17.6855,-16.2270,-4.4238,3.6512,13.4035,2.3690,4.2105,5.5749,-11.6232,-12.9363,-14.4660,-6.9835,4.9031,14.9702,-12.1097,-6.1185,5.5369,-5.7636,4.2927
640.6250,-14.0012,-14.3218,-1.0505,5.5931,13.8960,2.5628,0.9315,6.4898,-9.2180,-12.0502,-12.2911,-3.4917,6.9855,15.9110,-8.8171,-1.0837,7.1407,-3.0975,5.8981
644.5312,-10.9868,-11.5310,2.0107,7.6773,14.7509,-0.1486,1.2507,7.8694,-5.7446,-12.6414,-9.0585,0.4955,8.7800,16.2353,-4.8636,4.1159,8.1554,0.2819,6.7305
648.4375,-9.3031,-8.8442,4.2814,8.8266,14.9992,-3.9557,5.4967,8.8835,-2.3550,-13.4454,-5.8957,3.3056,9.2531,15.3597,-1.0907,8.9065,8.2405,3.1116,6.5578
652.3438,-8.8180,-6.6661,5.9279,8.4730,13.8141,-6.0006,11.3895,8.8684,0.1435,-13.2565,-3.8452,4.0297,8.2147,13.4158,1.8016,12.5246,7.5322,4.7137,5.7972
656.2500,-8.6343,-4.6453,7.3375,6.9648,11.2477,-4.0031,15.5553,7.9006,1.5861,-11.6311,-3.2616,2.9893,6.3138,11.1176,3.4957,14.3080,6.3284,5.2304,5.2073
660.1562,-7.7019,-2.1955,8.6236,5.3281,8.3018,2.2312,15.7659,6.7617,2.3027,-9.0991,-3.6725,1.3901,4.4870,9.1898,3.9913,14.0965,4.7343,5.2858,5.3410
664.0625,-5.6356,0.7474,9.4547,4.5150,6.2294,10.4283,12.3104,6.2761,2.7000,-6.7890,-4.1967,0.4395,3.2765,7.7984,3.3962,12.3014,2.5686,5.3773,6.1305
667.9688,-3.1226,3.4182,9.3156,4.6792,5.5927,16.9605,7.6015,6.5606,2.9234,-5.6939,-4.2024,0.5743,2.5117,6.4434,1.8437,9.6006,-0.3895,5.4839,6.9022
671.8750,-1.5393,4.6983,7.9752,5.0376,5.8304,18.8602,4.4225,6.8477,2.8446,-6.0131,-3.7149,1.3317,1.5645,4.4175,-0.3625,6.5979,-4.0201,5.1784,6.8305
675.7812,-1.9804,4.0391,5.7886,4.4546,5.6976,15.4973,4.1369,6.0874,2.3311,-6.9790,-3.2866,1.8912,-0.0370,1.4864,-2.5649,3.7680,-7.6712,4.1181,5.5258
679.6875,-4.3843,2.0754,3.5966,2.3282,4.2482,8.8755,6.0769,3.8666,1.5262,-7.3135,-3.4551,1.8209,-2.1132,-1.7455,-3.8296,1.6309,-10.3444,2.4802,3.3460
683.5938,-7.4226,0.3624,2.2783,-0.8864,1.5910,2.3941,8.3687,0.8796,0.8701,-6.0699,-4.2311,1.4382,-3.8338,-4.1013,-3.3933,0.7835,-11.1627,0.9615,1.2012
687.5000,-9.2827,0.3462,2.2540,-3.9220,-1.1718,-1.0820,9.4282,-1.4810,0.8217,-3.3393,-5.0284,1.5274,-4.2231,-4.5687,-1.2284,1.5369,-9.8237,0.3202,-0.0251
691.4062,-8.8172,2.3061,3.2590,-5.5386,-2.7592,-0.6228,9.0011,-2.1268,1.5048,-0.3368,-5.1009,2.6651,-2.8064,-2.9808,1.7199,3.3874,-6.7500,0.8167,-0.0426
695.3125,-6.2566,5.0726,4.5198,-5.3316,-2.6264,2.6578,8.0977,-1.0780,2.5705,1.2546,-4.1571,4.6926,0.0585,-0.1502,3.9151,4.9136,-2.8675,1.9949,0.6862
699.2188,-3.0071,6.7665,5.2047,-3.9203,-1.2668,6.6263,8.0306,0.5808,3.4011,0.3128,-2.6819,6.7438,3.3872,2.6366,4.0750,4.5079,0.8194,2.9845,1.3017
703.1250,-0.7254,6.0448,4.8631,-2.4084,0.2869,9.4318,9.3394,1.5556,3.5053,-2.9726,-1.7042,7.8027,6.1450,4.3911,1.9563,1.6508,3.5876,3.0947,1.1665
707.0312,-0.3590,2.9748,3.6069,-1.5641,1.3030,10.2406,11.3460,1.3160,2.8122,-7.1339,-2.1521,7.3750,7.7876,4.9176,-1.4587,-2.2035,5.1183,2.2537,0.3106
710.9375,-1.7922,-1.0495,1.9731,-1.3457,1.8210,9.1525,12.5607,0.4042,1.6617,-10.2475,-4.2281,5.7974,8.4190,4.7263,-4.5172,-4.0307,5.4021,0.9850,-0.6002
714.8438,-4.2229,-4.2226,0.6005,-1.0936,2.3970,6.6973,11.6116,-0.1345,0.5363,-11.0240,-7.2187,3.9973,8.5201,4.5087,-5.8292,-0.9909,4.5816,-0.0183,-0.7383
718.7500,-6.8405,-5.3809,-0.0646,-0.1677,3.4012,3.4929,8.1256,0.3149,-0.2335,-9.4677,-9.8523,2.9098,8.5043,4.6169,-4.9781,7.4868,2.8722,-0.3615,0.3132
722.6562,-9.2327,-4.4892,0.1109,1.5129,4.5255,0.2890,3.1017,1.4435,-0.5711,-6.7088,-10.9677,2.9658,8.4374,4.9260,-2.5907,18.7723,0.5869,-0.1055,2.2839
726.5625,-11.2789,-2.3544,0.9990,3.4396,4.9552,-1.8881,-1.3902,2.3616,-0.5430,-4.1845,-10.0865,3.9569,8.0857,5.1028,0.1834,28.1141,-1.8303,0.4490,4.4009
730.4688,-12.7861,0.0623,2.3312,4.9496,4.0680,-1.9311,-3.0792,2.4444,-0.1990,-2.7675,-7.5899,5.2819,7.1873,4.9744,2.3595,31.2362,-3.8682,1.1013,5.8713
734.3750,-13.3324,2.1536,3.7796,5.7077,2.0475,0.7115,-0.6147,1.9078,0.4520,-2.4200,-4.4625,6.3359,5.6928,4.6517,3.5207,26.8274,-5.1280,1.8837,6.3107
738.2812,-12.5474,3.6943,4.9792,5.8212,-0.1432,5.3803,5.5269,1.5898,1.3132,-2.5203,-1.8055,6.7698,3.7925,4.3209,3.7720,17.2724,-5.5226,2.8764,5.8429
742.1875,-10.5973,4.5517,5.5558,5.5416,-1.4442,10.1622,12.8587,2.1225,2.0767,-2.5044,-0.3895,6.5198,1.7518,3.9448,3.4352,7.1271,-5.3533,3.9009,4.8644
746.0938,-8.3845,4.4845,5.2250,4.8889,-1.4898,12.7236,17.7343,3.2437,2.2940,-2.2788,-0.4282,5.6933,-0.2656,3.2034,2.7929,0.3751,-5.1842,4.4210,3.7036
750.0000,-7.1648,3.2800,3.9472,3.5946,-0.8555,11.6085,17.0542,3.9008,1.6548,-2.1051,-1.6062,4.4654,-2.2264,1.7835,2.0467,-1.6865,-5.5611,3.8159,2.4465
753.9062,-7.7671,1.0947,2.0316,1.4498,-0.5561,7.1480,10.0626,3.1254,0.2778,-2.1247,-3.2815,3.0552,-4.1076,-0.2137,1.4033,-0.5924,-6.7253,1.8580,1.0283
757.8125,-9.9747,-1.3715,0.0762,-1.2580,-1.2087,1.3202,-0.8234,0.9586,-1.2446,-1.9932,-4.7529,1.7363,-5.7713,-2.1352,1.0944,1.0117,-8.4848,-0.9744,-0.5357
761.7188,-12.5500,-3.1121,-1.2707,-3.6599,-2.5453,-3.3865,-10.8533,-1.3835,-2.1361,-0.9953,-5.4929,0.7973,-6.9798,-3.1047,1.2516,1.5446,-10.3183,-3.6300,-2.0053
765.6250,-13.9191,-3.3465,-1.6033,-4.7351,-3.6595,-5.3462,-15.2331,-2.3164,-1.8807,1.4020,-5.2786,0.4425,-7.5509,-2.6267,1.7534,1.4831,-11.6502,-5.0149,-2.9889
769.5312,-13.0521,-1.9545,-0.9219,-3.9679,-3.7552,-4.4987,-11.6792,-1.0600,-0.5020,4.9830,-4.1896,0.7073,-7.5063,-1.0056,2.2389,2.5378,-12.1377,-4.5700,-3.1730
773.4375,-9.9593,0.5189,0.4374,-1.7158,-2.7632,-1.9959,-1.7283,1.7599,1.5224,8.6779,-2.4962,1.4732,-7.0521,0.7851,2.3433,5.8022,-11.8037,-2.5106,-2.5181
777.3438,-5.5508,3.2692,2.0445,1.0222,-1.3276,0.8125,10.0585,4.5762,3.6242,11.0631,-0.5167,2.5771,-6.3794,1.7381,1.9850,10.4386,-10.9501,0.4000,-1.2716
781.2500,-1.0819,5.7069,3.5984,3.2729,-0.2165,3.2315,18.5792,6.0435,5.4760,11.1629,1.4592,3.9119,-5.4539,1.5060,1.4447,14.0070,-9.9179,3.3342,0.1927
785.1562,2.3652,7.6277,4.9654,4.6665,0.3040,5.3130,20.8665,5.9599,7.0271,9.0248,3.1435,5.4142,-4.0067,0.6345,1.1253,14.2252,-8.8616,5.7772,1.5628
789.0625,4.0824,8.9996,6.0312,5.4838,0.5898,7.2670,17.3405,5.2172,8.2488,5.6971,4.1811,6.9410,-1.7851,0.1534,1.1638,10.8008,-7.6892,7.5688,2.6584
792.9688,3.6982,9.6305,6.5343,6.1744,1.1564,8.8244,10.9741,4.8583,8.8647,2.6488,4.1651,8.1658,1.1083,0.8286,1.2275,5.8750,-6.2033,8.6798,3.3634
796.8750,1.1796,9.0842,6.0789,6.7975,2.0828,9.1792,5.0843,5.0698,8.3711,1.0218,2.8137,8.6378,4.0825,2.6370,0.7069,2.6501,-4.3339,8.9908,3.5351
800.7812,-2.9956,6.9728,4.3752,6.8923,2.8479,7.5990,1.3152,4.9804,6.3988,1.1621,0.2366,8.0228,6.2979,4.8443,-0.8029,3.1518,-2.2821,8.3006,3.0180
804.6875,-7.6935,3.3976,1.5366,5.9068,2.7748,4.1824,-0.8824,3.4535,3.1406,2.6352,-2.9165,6.3693,7.1643,6.5951,-3.1064,6.7619,-0.4574,6.5486,1.7787
808.5938,-11.3449,-0.8579,-1.8261,3.8099,1.6986,0.0753,-3.1180,0.2029,-0.5416,4.6083,-5.6206,4.1789,6.7513,7.5310,-5.4349,10.6181,0.7548,4.0264,0.0411
812.5000,-12.6365,-4.6059,-4.8523,1.3263,0.2420,-3.1255,-6.3038,-3.7291,-3.5014,6.3040,-6.9533,2.1771,5.7875,7.9496,-6.9185,11.6282,1.2199,1.3500,-1.7307
816.4062,-11.3168,-6.8505,-6.8916,-0.4694,-0.6031,-4.3910,-9.6723,-6.5849,-4.9595,7.2870,-6.6320,0.9136,5.2102,8.4059,-7.1611,8.6651,1.1000,-0.8298,-3.0379
820.3125,-8.5003,-7.2936,-7.8552,-0.9175,-0.2876,-3.9395,-11.2878,-7.1422,-4.9556,7.5247,-5.2376,0.4677,5.5603,9.1139,-6.4813,3.3848,0.6787,-2.1707,-3.6146
824.2188,-6.0942,-6.4015,-8.1869,-0.2848,0.7630,-3.0416,-9.5984,-5.6113,-4.2509,7.3050,-3.9074,0.4793,6.6523,9.6673,-5.6288,-0.8949,0.1076,-2.7728,-3.5587
828.1250,-5.6022,-5.0223,-8.4602,0.4202,1.3861,-3.0653,-4.7880,-3.4549,-3.7361,7.1006,-3.6276,0.4814,7.7561,9.3286,-5.1978,-1.4378,-0.7084,-3.0034,-3.2200
832.0312,-7.1003,-3.8597,-8.9012,0.2169,0.5565,-4.4525,1.1264,-2.2724,-3.7834,7.4078,-4.5656,0.2736,8.1558,7.6626,-5.1899,2.1237,-1.9784,-3.1662,-2.9297
835.9375,-9.1579,-3.1717,-9.2096,-1.0828,-1.7688,-6.3702,5.5360,-2.6354,-4.0290,8.5507,-5.9063,0.0383,7.6655,4.9907,-5.0595,7.6489,-3.7472,-3.2839,-2.7836
839.8438,-9.8397,-2.8372,-8.8262,-2.7196,-4.5163,-7.2884,6.8953,-3.7832,-3.7406,10.4955,-6.3453,0.1026,6.7178,2.2689,-4.1864,11.9837,-5.7181,-3.1613,-2.6473
843.7500,-8.1133,-2.6340,-7.4419,-3.5728,-6.2108,-6.0639,5.5829,-4.3762,-2.4710,12.7852,-4.9466,0.5451,5.9652,0.4462,-2.3920,12.9597,-7.3724,-2.6534,-2.3664
847.6562,-4.6431,-2.4512,-5.3408,-3.0312,-6.0175,-2.7696,3.3892,-3.6519,-0.4830,14.6982,-1.8020,0.9844,5.7023,-0.2204,-0.0997,10.5216,-8.3422,-1.8965,-1.9945
851.5625,-1.3588,-2.2884,-3.2913,-1.4761,-4.3314,1.2895,2.0868,-2.0361,1.3868,15.6007,1.9567,0.7610,5.5610,-0.3704,1.9623,6.3576,-8.7632,-1.2936,-1.8357
855.4688,-0.0834,-2.1232,-2.0529,-0.0164,-2.4899,4.3450,2.1908,-0.7429,2.3124,15.3098,4.8096,-0.5902,4.7188,-1.0952,3.2518,2.5145,-9.2947,-1.2598,-2.2532
859.3750,-1.2123,-1.8469,-1.8764,0.2964,-1.8508,5.1776,2.8045,-0.7423,2.0584,14.2299,5.7397,-2.9263,2.4839,-3.1684,3.7094,0.1245,-10.7213,-1.9328,-3.3966
863.2812,-3.4145,-1.3606,-2.3856,-0.8422,-2.9284,3.7263,2.5737,-1.9773,1.1179,13.1538,4.7831,-5.4773,-1.1651,-6.5092,3.6638,-0.8960,-13.3734,-3.0784,-5.0693
867.1875,-4.5859,-0.7349,-2.9249,-2.8958,-5.1855,0.9797,0.9207,-3.4689,0.3266,12.8368,2.9056,-7.2726,-5.4680,-10.2500,3.4841,-1.1821,-16.7793,-4.2620,-6.8430
871.0938,-3.3698,-0.2394,-3.0895,-4.9900,-7.5374,-1.6779,-1.4395,-4.1875,0.2686,13.6086,1.3278,-7.7322,-9.2719,-13.3187,3.3037,-1.0504,-19.8323,-5.1417,-8.3210
875.0000,-0.1586,-0.1669,-3.0135,-6.5552,-9.1067,-3.1972,-3.0901,-3.9366,0.9196,15.2494,0.7712,-7.0102,-11.6445,-15.0830,3.0314,-0.2309,-21.3975,-5.6569,-9.3370
878.9062,3.1195,-0.5868,-3.2000,-7.5963,-9.6574,-3.2632,-3.1035,-3.5076,1.7526,17.1656,1.1019,-5.8556,-12.3013,-15.6008,2.5790,1.6230,-20.9556,-5.9906,-9.9423
882.8125,4.2559,-1.2663,-4.0548,-8.4443,-9.4824,-2.2464,-1.8569,-3.9943,2.1603,18.6965,1.5419,-5.1066,-11.6035,-15.3616,2.0343,4.2107,-18.8474,-6.3761,-10.2280
886.7188,2.1756,-1.8673,-5.5236,-9.2929,-8.9777,-0.8769,-0.8062,-5.8577,1.8322,19.3391,1.2377,-5.1835,-10.1980,-14.7929,1.5797,6.4262,-15.9651,-6.9323,-10.1719
890.6250,-2.4212,-2.2718,-7.1275,-9.9726,-8.3264,0.1021,-1.3900,-8.5236,0.8249,18.7989,-0.2138,-5.9195,-8.5949,-13.9474,1.2254,7.0465,-13.1335,-7.6507,-9.6639
894.5312,-7.5350,-2.7338,-8.3448,-10.1517,-7.5175,0.1542,-3.9224,-10.8303,-0.6393,16.9528,-2.5805,-6.7937,-6.9627,-12.5806,0.6452,5.7713,-10.6338,-8.4963,-8.6786
898.4375,-11.0508,-3.6691,-8.9903,-9.7364,-6.5679,-0.9513,-7.3361,-11.9331,-2.3837,13.8770,-5.1768,-7.3337,-5.2093,-10.4888,-0.6482,3.7201,-8.1879,-9.4719,-7.4032
902.3438,-11.8330,-5.2083,-9.2575,-9.0555,-5.6405,-3.0887,-9.9588,-11.9105,-4.2753,9.9813,-7.2177,-7.3722,-3.2059,-7.7804,-2.8512,2.8460,-5.3654,-10.5437,-6.1522
906.2500,-10.1207,-6.8878,-9.4012,-8.6192,-4.9102,-5.7594,-10.6941,-11.5950,-6.0394,6.1157,-8.1184,-7.0076,-0.9520,-4.8541,-5.4957,4.5656,-2.0671,-11.4930,-5.0989
910.1562,-7.1542,-7.8036,-9.3781,-8.6579,-4.3380,-8.1738,-9.6883,-11.8106,-7.1442,3.4389,-7.6412,-6.3909,1.4071,-2.1468,-7.5275,8.5735,1.2773,-11.8816,-4.0659
914.0625,-4.4197,-7.2100,-8.8189,-8.8830,-3.6499,-9.4940,-8.0085,-12.6856,-6.9855,2.9696,-5.9328,-5.5884,3.6440,0.0840,-7.8940,12.7520,3.9110,-11.2645,-2.6230
917.9688,-2.9993,-5.1601,-7.4196,-8.7427,-2.6387,-9.1977,-6.6753,-13.6102,-5.3330,5.0031,-3.5196,-4.6674,5.4797,1.7399,-6.2868,14.3264,5.1565,-9.5721,-0.5046
921.8750,-3.2864,-2.6874,-5.4396,-7.9968,-1.5525,-7.3914,-5.8988,-13.8420,-2.7139,8.7639,-1.2563,-3.8997,6.5574,2.6720,-3.5057,11.5215,4.7202,-7.3826,1.9500
925.7812,-5.0316,-1.3166,-3.8368,-7.1064,-1.1666,-4.8703,-5.1541,-13.2118,-0.3672,12.6001,-0.1482,-3.8315,6.4511,2.5506,-1.1290,4.6299,2.7303,-5.8026,3.7335
929.6875,-7.5554,-2.1784,-3.8163,-7.0341,-2.3394,-2.8282,-3.9808,-12.3115,0.3208,14.7141,-1.0133,-5.0490,4.8171,1.0342,-0.6534,-4.1585,-0.4126,-5.9237,3.6610
933.5938,-10.0108,-5.3120,-6.0465,-8.5281,-5.3024,-2.3199,-2.7405,-12.0050,-1.4043,14.0576,-4.0920,-7.7451,1.6634,-1.8287,-2.6435,-11.9473,-4.1752,-8.1469,1.1561
937.5000,-11.6715,-9.6318,-10.1123,-11.4332,-9.2456,-3.7379,-2.5809,-12.6895,-5.1812,10.8646,-8.8304,-11.4121,-2.4515,-5.3098,-6.4325,-16.5008,-7.9234,-11.8326,-3.2133
941.4062,-12.2138,-13.5796,-14.6503,-14.6207,-12.6215,-6.5866,-4.5475,-13.9423,-9.6954,6.4810,-14.0289,-14.9601,-6.5148,-8.1750,-10.5355,-16.9889,-10.9427,-15.5710,-7.9025
945.3125,-11.8801,-16.0123,-18.1232,-16.6762,-14.0699,-9.6903,-8.5700,-14.8622,-13.4087,2.5778,-18.3449,-17.2670,-9.5060,-9.3512,-13.4703,-13.8938,-12.6126,-17.9654,-11.2377
949.2188,-11.3815,-16.7384,-19.7014,-16.8782,-13.3520,-11.7466,-13.2456,-14.8218,-15.3913,0.2231,-20.9006,-17.8284,-10.9749,-8.6885,-14.4548,-8.4597,-12.7537,-18.4527,-12.4143
953.1250,-11.5186,-16.3978,-19.6345,-15.7262,-11.5978,-11.9500,-16.7294,-14.0025,-15.7304,-0.6186,-21.6470,-17.0561,-11.3714,-7.2463,-13.6061,-2.2039,-11.9171,-17.6194,-11.9599
957.0312,-12.7037,-15.8568,-18.8790,-14.5858,-10.6275,-10.3689,-18.0901,-13.2625,-15.2882,-0.8723,-21.2715,-15.9916,-11.8473,-6.7906,-11.6430,3.3281,-11.2899,-16.7852,-11.3186
960.9375,-14.6835,-15.6014,-18.3090,-14.6857,-11.7726,-7.8887,-18.0137,-13.4415,-15.0241,-1.5970,-20.7173,-15.6106,-13.5785,-8.7289,-9.3989,6.7727,-12.1046,-17.1105,-11.8335
964.8438,-16.6616,-15.5497,-18.1341,-16.2100,-14.9981,-5.7532,-18.1896,-14.6671,-15.3600,-3.2078,-20.6206,-16.1902,-17.0023,-13.1519,-7.4731,7.3646,-14.8279,-18.8139,-13.8365
968.7500,-17.7504,-15.3369,-17.9410,-18.1719,-18.9224,-4.9465,-19.7855,-16.2223,-15.9899,-5.1883,-21.0061,-17.1707,-21.4559,-18.6381,-6.1443,5.4368,-18.6796,-21.0189,-16.4800
972.6562,-17.4514,-14.7705,-17.2587,-19.1639,-21.6990,-5.7320,-22.2488,-17.0763,-16.1961,-6.4656,-21.3898,-17.5912,-25.4772,-23.0015,-5.4383,2.5229,-21.8991,-22.3309,-18.4031
976.5625,-15.8583,-14.0544,-16.1204,-18.4152,-22.1378,-7.5729,-23.5139,-16.6524,-15.3962,-6.1703,-21.1744,-16.7743,-27.6009,-24.5299,-5.1880,0.6773,-22.7010,-21.7552,-18.7205
980.4688,-13.4973,-13.6121,-15.1284,-16.3577,-20.3245,-9.4528,-21.6055,-15.2330,-13.5351,-4.2566,-20.0558,-14.7764,-27.1631,-22.9283,-5.0481,1.2254,-20.3463,-19.3448,-17.6071
984.3750,-10.9858,-13.6783,-14.9627,-14.2889,-17.4010,-10.4082,-16.4315,-13.7079,-11.0975,-1.5711,-18.1977,-12.3100,-24.6178,-19.3809,-4.5655,3.7714,-15.6193,-16.1579,-16.0770
988.2812,-8.7848,-14.0181,-15.7591,-13.4084,-14.7634,-9.9930,-10.2734,-12.8959,-8.7974,0.6581,-16.1150,-10.2380,-21.1921,-15.7365,-3.4015,6.3230,-10.3735,-13.5780,-15.1698
992.1875,-7.1776,-14.0264,-16.9062,-13.9668,-13.2784,-8.4563,-6.4131,-12.9782,-7.1916,1.5476,-14.3934,-9.0309,-18.1274,-13.3864,-1.6362,6.6603,-6.4393,-12.4678,-15.1882
996.0938,-6.3752,-13.1549,-17.4665,-15.1502,-12.9955,-6.5798,-6.8175,-13.4584,-6.4583,1.0133,-13.4367,-8.5625,-16.0002,-12.5607,0.0785,4.0691,-4.6270,-12.7178,-15.5525
1000.0000,-6.5387,-11.3540,-16.9057,-15.7429,-13.4077,-5.2840,-10.6533,-13.6260,-6.4221,-0.3160,-13.3635,-8.3398,-14.5300,-12.4328,0.7272,0.1206,-4.4637,-13.4518,-15.3411
1003.9062,-7.6290,-9.1898,-15.5399,-15.0314,-13.9352,-5.1969,-14.8663,-13.1162,-6.7366,-1.6095,-14.0503,-7.9358,-12.9424,-11.8589,-0.5218,-2.2428,-4.7621,-13.6966,-14.0573
1007.8125,-9.2160,-7.5251,-14.3185,-13.2652,-14.2494,-6.3587,-16.4889,-12.1302,-7.0726,-2.3722,-15.2353,-7.2805,-10.5998,-10.1910,-3.7370,-0.7870,-4.5329,-13.0235,-12.0153
1011.7188,-10.4985,-6.9653,-14.0912,-11.3754,-14.2862,-8.1664,-14.9339,-11.1881,-7.2125,-2.6434,-16.6070,-6.6197,-7.4734,-7.6352,-8.0140,4.2763,-3.5610,-11.7300,-10.0729
1015.6250,-10.6570,-7.4418,-14.9249,-10.2287,-14.0823,-9.5813,-12.4525,-10.6686,-7.0497,-2.7840,-17.8590,-6.2327,-4.1782,-5.0054,-11.8365,10.2631,-2.2954,-10.4901,-8.9606
1019.5312,-9.3741,-8.2240,-16.0115,-10.0190,-13.6622,-9.5522,-12.3103,-10.5269,-6.5512,-3.0971,-18.7326,-6.1778,-1.5973,-3.1443,-13.8384,13.8248,-1.2616,-9.7835,-8.7620
1023.4375,-7.1543,-8.3680,-16.2523,-10.2403,-13.0708,-7.5280,-16.0379,-10.4011,-5.7374,-3.6223,-19.0654,-6.2760,-0.3766,-2.4551,-13.5149,13.2878,-0.5576,-9.5532,-8.9461
1027.3438,-5.1481,-7.3212,-15.0758,-10.1961,-12.4583,-3.8494,-21.9099,-9.9785,-4.6869,-4.2431,-18.8301,-6.3187,-0.6159,-2.8187,-11.4477,9.7516,0.1387,-9.3366,-8.8899
1031.2500,-4.5080,-5.2922,-12.8662,-9.5936,-12.0631,0.2177,-25.9278,-9.2969,-3.5402,-4.9405,-18.1318,-6.2955,-1.9132,-3.8504,-8.9235,6.0916,1.0962,-8.7383,-8.4345
1035.1562,-5.6544,-3.1359,-10.6808,-8.7445,-12.0545,2.9429,-24.6615,-8.7243,-2.4777,-5.8778,-17.1536,-6.4285,-3.6775,-5.2191,-7.2028,4.6416,2.0570,-7.8447,-8.0127
1039.0625,-7.9248,-1.8107,-9.4744,-8.2422,-12.3603,2.9693,-17.8280,-8.6375,-1.6641,-7.1614,-16.0792,-6.9724,-5.4683,-6.7753,-6.8910,5.3883,2.2355,-7.2244,-8.2471
1042.9688,-9.8578,-1.7425,-9.4138,-8.4095,-12.6477,0.1320,-8.6384,-9.0563,-1.1767,-8.4647,-15.0335,-7.9473,-7.1441,-8.4426,-7.7483,6.1219,0.8625,-7.4820,-9.3593
1046.8750,-9.9559,-2.5053,-9.7789,-8.9729,-12.5078,-4.2482,-1.6230,-9.5191,-0.9461,-8.9156,-14.0614,-9.0278,-8.7609,-10.0353,-8.9688,4.4243,-2.1327,-8.6907,-10.8791
1050.7812,-7.4822,-3.0421,-9.4970,-9.2187,-11.7153,-7.8913,0.4400,-9.3067,-0.7432,-7.5172,-13.1361,-9.6946,-10.3407,-11.2053,-9.6805,-0.1185,-5.8673,-10.1506,-11.9004
1054.6875,-2.8413,-2.3140,-7.8985,-8.5024,-10.3733,-8.7318,-1.7923,-7.8749,-0.2407,-3.9317,-12.1763,-9.5471,-11.7072,-11.5921,-9.3495,-5.3092,-8.9349,-10.7073,-11.6902
1058.5938,2.6277,0.0164,-5.1511,-6.7230,-8.8456,-6.1117,-5.1146,-5.2282,0.8464,0.9338,-11.0730,-8.5504,-12.5198,-11.0612,-7.9087,-7.8911,-10.2544,-9.4599,-10.1863
1062.5000,7.2819,3.3049,-2.0996,-4.4161,-7.5476,-1.2546,-6.4253,-2.0097,2.5896,5.1018,-9.7471,-7.0474,-12.4827,-9.8409,-5.6473,-6.0637,-9.7324,-6.3871,-8.0132
1066.4062,9.8663,6.2413,0.3196,-2.4158,-6.7580,3.3399,-5.0297,0.7476,4.7355,6.5360,-8.2339,-5.5345,-11.5740,-8.4361,-3.0129,-0.9526,-8.2590,-2.4469,-6.0232
1070.3125,9.9424,7.5835,1.6505,-1.3355,-6.5514,5.2813,-2.8558,2.0896,6.7506,4.4223,-6.7475,-4.3663,-10.1179,-7.3628,-0.4603,4.1678,-7.0461,0.9500,-4.7246
1074.2188,7.9178,6.8587,2.1000,-1.2189,-6.8293,3.6345,-2.5531,1.6043,8.0438,-0.1625,-5.6450,-3.5854,-8.6280,-6.8690,1.6271,6.3109,-6.7940,2.7620,-4.0153
1078.1250,4.7477,4.5985,2.2678,-1.5698,-7.3579,-0.6011,-5.1079,-0.3468,8.2683,-4.7577,-5.2597,-2.9705,-7.5131,-6.8157,2.9841,4.9558,-7.2795,2.8941,-3.3832
1082.0312,1.4935,1.9764,2.6704,-1.7127,-7.7847,-5.1601,-8.9209,-2.7641,7.5207,-6.9770,-5.6775,-2.2453,-6.8462,-6.7840,3.5151,2.2624,-7.6263,2.1498,-2.3803
1085.9375,-1.0686,0.0978,3.3905,-1.2446,-7.7026,-7.8769,-11.0503,-4.4865,6.2883,-5.9962,-6.6212,-1.3017,-6.3647,-6.3404,3.3197,1.2031,-7.0180,1.6004,-1.0010
1089.8438,-2.6483,-0.5974,4.0433,-0.3146,-6.8406,-7.8680,-9.5750,-4.7999,5.1433,-3.0633,-7.5760,-0.3064,-5.7182,-5.3117,2.6436,3.1560,-5.3107,1.8066,0.2917
1093.7500,-3.3995,-0.4624,4.0209,0.4174,-5.3272,-5.8243,-5.1732,-3.8495,4.3700,-0.6658,-8.1287,0.3588,-4.7925,-3.9166,1.7446,6.8915,-3.1197,2.4265,0.8665
1097.6562,-3.6844,-0.2781,2.8367,0.1194,-3.8157,-3.3371,-0.6861,-2.5830,3.7847,-0.9117,-8.2986,0.2844,-3.8658,-2.6797,0.7461,9.6971,-1.3648,2.4763,0.3111
1101.5625,-3.7817,-0.6885,0.3938,-1.7367,-3.2560,-1.8131,0.9521,-2.1894,2.8995,-4.2195,-8.5849,-0.7411,-3.4501,-2.1576,-0.4118,9.6233,-0.6405,1.0634,-1.3410
1105.4688,-3.7109,-1.8235,-2.9147,-4.9939,-4.3276,-1.7282,-1.2011,-3.3292,1.3430,-9.1732,-9.6176,-2.5656,-3.8966,-2.6079,-1.8682,6.9560,-0.8643,-1.9085,-3.6295
1109.3750,-3.2815,-3.3121,-6.2861,-8.7347,-6.8579,-2.6255,-5.5420,-5.6446,-0.7550,-13.5602,-11.6033,-4.6542,-5.0413,-3.7822,-3.6403,3.7446,-1.4126,-5.5459,-5.8527
1113.2812,-2.3314,-4.5973,-8.7523,-11.6082,-9.6829,-3.6896,-9.1984,-7.9191,-2.7163,-15.7945,-13.9736,-6.2622,-6.1799,-4.9895,-5.4702,1.8975,-1.5936,-8.4263,-7.2938
1117.1875,-0.9766,-5.2816,-9.5362,-12.4579,-11.1874,-4.3647,-10.0642,-8.8495,-3.6893,-15.7334,-15.5786,-6.7627,-6.4548,-5.4477,-6.8550,1.5675,-1.1009,-9.4257,-7.4237
1121.0938,0.3294,-5.2796,-8.4046,-10.9523,-10.2825,-4.5731,-8.0785,-7.9495,-3.2236,-14.4260,-15.4056,-5.9914,-5.4372,-4.7597,-7.2823,1.2513,-0.1591,-8.3855,-6.0770
1125.0000,1.0005,-4.7492,-5.8446,-7.8479,-7.1969,-4.4968,-4.9632,-5.9491,-1.6504,-13.1436,-13.3879,-4.4109,-3.5085,-3.2336,-6.5489,-0.5139,0.6774,-6.2007,-3.5770
1128.9062,0.6662,-3.9403,-2.9157,-4.6657,-3.4850,-4.2448,-2.8378,-4.3602,0.0271,-12.5098,-10.7113,-2.9479,-1.7333,-1.8028,-4.9652,-3.4247,0.8842,-4.2825,-0.7173
1132.8125,-0.5793,-3.1084,-0.7878,-2.9008,-1.1495,-3.7519,-2.8467,-4.4543,0.7068,-12.3436,-9.2920,-2.5352,-1.2520,-1.5256,-3.2926,-5.3145,0.2401,-3.7447,1.4876
1136.7188,-2.2049,-2.5134,-0.1853,-3.2050,-1.4001,-2.9662,-4.6894,-6.3528,-0.1345,-12.1791,-10.6568,-3.5907,-2.5623,-2.9271,-2.4079,-3.9447,-1.1152,-4.8214,2.2397
1140.6250,-3.5310,-2.4097,-1.0654,-5.0580,-3.8808,-2.0780,-7.1160,-8.8953,-2.1114,-11.8887,-14.9122,-5.7527,-5.1751,-5.6014,-2.8574,0.7660,-2.8083,-6.8549,1.3594
1144.5312,-4.0787,-2.9483,-2.7443,-7.1626,-6.9198,-1.4982,-8.7863,-10.4189,-4.1831,-11.8394,-20.5068,-8.0636,-7.8998,-8.3752,-4.5429,6.0681,-4.4218,-8.8180,-0.6270
1148.4375,-3.7577,-4.0320,-4.3978,-8.3242,-8.6620,-1.5520,-8.8675,-9.9171,-5.3322,-12.4931,-25.0092,-9.5125,-9.5894,-9.9838,-6.7312,8.0901,-5.6435,-9.9981,-2.8291
1152.3438,-2.8128,-5.2683,-5.5927,-8.2257,-8.3195,-2.1516,-7.2018,-7.7440,-5.2147,-13.8806,-26.4549,-9.6025,-9.8510,-9.8493,-8.4075,4.7815,-6.3361,-10.3900,-4.5698
1156.2500,-1.6322,-6.1206,-6.4774,-7.5592,-6.6782,-2.7748,-4.2572,-5.3414,-4.3393,-15.4675,-24.4236,-8.5784,-9.2425,-8.4483,-8.7980,-2.2106,-6.5420,-10.5641,-5.8011
1160.1562,-0.5840,-6.1947,-7.5008,-7.4266,-5.5144,-2.8152,-1.0457,-4.1752,-3.6602,-16.5435,-20.1810,-7.1848,-8.8363,-7.0038,-7.7780,-8.3500,-6.4395,-11.1417,-7.0392
1164.0625,0.0380,-5.4573,-8.8934,-8.4490,-6.3373,-2.0308,1.0989,-4.6620,-3.8734,-16.7631,-15.8384,-6.1497,-9.4724,-6.6959,-5.9316,-9.2782,-6.2639,-12.2730,-8.8531
1167.9688,0.0220,-4.2129,-10.3349,-10.2536,-9.3382,-0.6998,1.0834,-5.8845,-4.9169,-16.3277,-13.1227,-5.7678,-11.2320,-7.9230,-4.2208,-3.9174,-6.2127,-13.4970,-11.2969
1171.8750,-0.6961,-2.8602,-11.1011,-11.7278,-13.2641,0.6642,-1.1699,-6.3129,-6.0291,-15.6420,-12.5555,-5.8601,-13.4788,-10.1117,-3.4537,4.7150,-6.3753,-14.0845,-13.7473
1175.7812,-1.9046,-1.6400,-10.6093,-11.8573,-16.2685,1.7854,-4.3109,-4.9973,-6.3215,-14.8001,-13.4941,-6.0753,-15.3829,-12.1797,-3.8632,11.6007,-6.7241,-13.6108,-15.3028
1179.6875,-3.0603,-0.5984,-8.9486,-10.5113,-17.1129,2.8454,-6.1043,-2.3358,-5.4549,-13.4545,-14.8595,-6.2390,-16.4908,-13.2849,-5.0457,13.1587,-7.1606,-12.3323,-15.4520
1183.5938,-3.4581,0.2100,-6.9608,-8.5669,-15.8788,4.2099,-4.8751,0.1674,-3.9253,-11.2810,-15.9373,-6.4470,-16.9014,-13.3043,-6.2794,9.5037,-7.5663,-11.0744,-14.4716
1187.5000,-2.6141,0.5058,-5.7516,-7.2639,-13.7394,5.8842,-0.9358,0.9853,-2.7483,-8.6562,-16.6829,-6.8429,-16.9508,-12.7118,-7.0025,3.9813,-7.7994,-10.6834,-13.2077
1191.4062,-0.6273,-0.1696,-5.9492,-7.2709,-12.0182,7.2180,3.2158,-0.2991,-2.7546,-6.8531,-17.4206,-7.3148,-16.7156,-12.0086,-7.1319,0.5313,-7.6434,-11.4200,-12.3800
1195.3125,1.7765,-2.0805,-7.2363,-8.1688,-11.2449,7.2323,4.4040,-2.6427,-3.9948,-7.3789,-18.3041,-7.4262,-15.7941,-11.2020,-7.0259,0.9829,-6.7850,-12.7259,-11.9584
1199.2188,3.6284,-4.8615,-8.5123,-8.7464,-10.8687,5.4174,1.1212,-4.2279,-5.6761,-10.8100,-19.0443,-6.6934,-13.5871,-9.7784,-7.1456,4.2334,-4.9068,-13.5420,-11.1370
1203.1250,4.3042,-7.4274,-8.5927,-7.8777,-9.7770,2.3736,-5.0267,-3.6861,-6.6745,-16.0291,-19.1265,-4.9982,-9.8681,-7.1964,-7.6833,7.6466,-1.8961,-12.9639,-8.9729
1207.0312,3.8949,-8.4385,-6.9699,-5.3187,-7.1875,-0.3207,-10.0776,-0.9863,-6.2639,-20.6019,-18.2925,-2.7693,-5.1612,-3.4819,-8.4327,9.2909,1.9582,-10.7823,-5.2141
1210.9375,3.0648,-7.0982,-4.1141,-1.8318,-3.2489,-1.0769,-10.3819,2.6110,-4.5532,-22.2100,-16.8439,-0.7297,-0.5678,0.5975,-8.9850,9.1811,5.9585,-7.5433,-0.6511
1214.8438,2.4883,-3.7438,-1.1251,1.4167,1.0604,0.5310,-5.3202,5.4506,-2.3481,-20.1954,-15.4845,0.6284,2.8869,3.9756,-9.0832,8.7153,9.2622,-4.1192,3.3283
1218.7500,2.3020,0.2381,0.9921,3.6880,4.6147,3.2868,2.0309,6.5594,-0.5705,-16.0760,-14.8283,1.4205,4.9096,6.0326,-8.8497,9.0648,11.3010,-1.1342,5.6794
1222.6562,2.0187,3.1819,1.9099,5.0825,6.8766,5.0158,6.9591,6.1604,0.3248,-12.5903,-14.9824,2.2590,6.0827,7.0530,-8.7074,10.0352,12.0895,1.3244,6.4239
1226.5625,0.9918,4.1092,2.0361,6.2498,8.1535,4.0501,6.4903,5.3456,0.5234,-11.9066,-15.5504,3.7020,7.3574,7.9990,-9.0560,10.3437,12.1899,3.5257,6.5855
1230.4688,-0.9383,3.2344,2.0661,7.6937,9.2228,0.4606,1.5566,5.2361,0.5367,-14.2734,-16.0356,5.6913,9.2650,9.7341,-9.9573,8.9358,12.3218,5.6479,7.3658
1234.3750,-3.1605,1.6808,2.4125,9.2809,10.6415,-3.8629,-3.7424,6.2694,0.6954,-18.0588,-16.2820,7.4633,11.4553,12.2804,-11.0715,6.0839,12.8677,7.4718,9.1874
1238.2812,-4.6450,0.6432,2.9476,10.3628,12.2743,-6.4106,-5.2821,8.0691,0.8773,-21.0839,-16.5625,8.0577,12.9357,14.6992,-11.8883,3.2794,13.6235,8.4993,11.3467
1242.1875,-4.6920,0.6150,3.2198,10.3882,13.3965,-5.7294,-2.0681,9.8706,0.6831,-22.1885,-17.2344,7.0633,12.8446,15.7227,-12.0691,2.0496,13.9889,8.4033,12.5531
1246.0938,-3.4934,1.2080,2.9262,9.4593,13.2924,-2.4133,3.0472,11.0887,-0.1056,-21.8477,-18.2646,5.0097,11.1704,14.6865,-11.6414,2.7632,13.4759,7.4171,11.9441
1250.0000,-2.0452,1.6176,2.2403,8.3280,11.8987,1.2847,5.6657,11.5920,-1.1892,-21.4470,-19.0569,3.0582,8.8516,12.0645,-10.9107,4.4531,12.1703,6.2964,9.7886
1253.9062,-1.4461,1.3122,1.7277,7.8105,9.9975,2.9432,3.3789,11.5640,-1.8435,-21.8946,-18.7702,2.1939,7.1590,9.1997,-10.1824,5.7554,10.7939,5.8307,7.3344
1257.8125,-2.1100,0.4128,1.9263,8.1044,8.7743,1.5291,-2.2416,11.1789,-1.3985,-22.7440,-16.9004,2.5354,6.8172,7.4191,-9.5182,6.0922,10.2907,6.2763,5.9176
1261.7188,-3.4908,-0.4650,2.9342,8.6044,9.0176,-2.0201,-6.7861,10.4256,0.2716,-22.5398,-13.6675,3.3119,7.5227,7.1822,-8.7107,6.0649,11.2027,7.1810,6.0236
1265.6250,-4.5229,-0.6957,4.3384,8.4112,10.5096,-5.5165,-6.4141,9.2214,2.6467,-20.0828,-9.8911,3.5435,8.2177,7.8705,-7.4702,6.7642,13.2623,7.7800,7.0127
1269.5312,-4.4220,-0.0325,5.5384,7.1448,12.0612,-6.9700,-0.8744,7.6659,4.9433,-15.5648,-6.4512,2.8917,7.9029,8.3321,-5.6640,8.6600,15.4880,7.6737,7.6974
1273.4375,-3.2277,1.3591,6.2064,5.3824,12.2244,-5.7621,6.2310,6.1530,6.6837,-10.6372,-3.7621,1.9893,6.3672,7.7377,-3.4269,11.0633,16.7320,7.2344,7.2957
1277.3438,-1.7028,3.1380,6.5155,4.3145,10.2470,-2.8287,10.1556,5.1978,7.9892,-7.3436,-1.6672,1.9574,4.2966,6.1025,-1.0887,12.6074,16.3259,7.3751,6.0108
1281.2500,-0.7261,4.9993,6.9561,4.8361,6.6449,0.1217,8.5959,5.0980,9.3492,-6.7419,0.1951,3.4716,2.7111,4.1333,0.9925,12.2947,14.4181,8.8149,4.8051
1285.1562,-0.6992,6.6696,7.8875,6.7733,2.9859,1.7030,3.3900,5.7131,11.0499,-8.2665,1.9008,6.1175,2.1930,2.5915,2.5570,10.2042,11.8203,11.4054,4.5835
1289.0625,-1.4197,7.7801,9.1862,8.8864,0.9852,1.5183,-0.9609,6.5529,12.7427,-10.2686,3.0651,8.5791,2.5047,1.7178,3.4693,7.3189,9.4991,14.0764,5.4538
1292.9688,-2.4403,7.8712,10.2812,9.7007,1.4721,0.0782,-0.7769,7.1146,13.5487,-11.2594,3.1485,9.5495,2.8620,1.1575,3.6919,4.7258,8.0609,15.4990,6.6495
1296.8750,-3.5234,6.6595,10.5635,8.5716,3.8898,-1.7890,3.9944,7.2054,12.6787,-10.8892,1.9851,8.6789,2.6074,0.3894,3.2823,2.9400,7.5342,14.9976,7.1551
1300.7812,-4.7569,4.3821,9.8637,6.1788,6.6580,-3.5154,9.7719,7.0039,10.1117,-9.9785,0.0730,6.8215,1.7299,-0.7474,2.4272,1.8887,7.5275,13.0226,6.5201
1304.6875,-6.2567,1.8616,8.6281,4.0635,8.1662,-4.9822,12.0852,6.8362,6.7920,-9.7038,-1.6480,5.3846,0.8354,-1.8817,1.4440,1.4137,7.5934,10.8167,5.2176
1308.5938,-7.7925,0.1025,7.6463,3.5434,7.7550,-6.3163,8.9521,6.8721,4.1369,-10.6591,-2.3857,5.2802,0.6266,-2.4202,0.6778,1.6812,7.5327,9.5226,4.2802
1312.5000,-8.7741,-0.3658,7.5195,4.8096,6.0512,-7.5757,2.3565,6.9937,3.1662,-12.5061,-1.9994,6.2911,1.3376,-2.0554,0.3199,3.0446,7.4580,9.4126,4.5191
1316.4062,-8.7040,0.1090,8.2532,6.8618,4.4618,-8.6119,-3.2150,6.9287,3.8630,-14.3655,-1.0348,7.3329,2.5729,-1.0331,0.2791,5.5173,7.6238,9.8152,5.9371
1320.3125,-7.7369,0.5372,9.2647,8.2961,4.1897,-9.1818,-4.0264,6.5082,5.2223,-15.5066,-0.2823,7.3841,3.6471,0.0352,0.2372,8.4436,8.1763,9.7635,7.7655
1324.2188,-6.8114,0.0533,9.7904,8.3209,5.4458,-9.1629,0.2673,5.8135,5.9442,-15.7419,-0.2242,6.3311,4.1102,0.6425,-0.1118,10.7884,9.0016,8.8191,9.0508
1328.1250,-7.1151,-1.3622,9.3920,7.2366,7.3722,-8.6707,6.4377,5.0876,5.2769,-15.3036,-0.7941,5.0548,4.0223,0.7336,-0.8018,11.8470,9.7614,7.4058,9.3105
1332.0312,-9.2078,-2.8065,8.2070,6.0579,8.6887,-7.9901,9.9744,4.5030,3.4247,-14.4658,-1.5860,4.7006,3.7801,0.6501,-1.5248,11.7230,10.0791,6.4015,8.7691
1335.9375,-12.4748,-3.1524,6.7933,5.6323,8.5786,-7.3891,8.1477,4.0042,1.2845,-13.3504,-2.2720,5.7277,3.6927,0.7453,-1.8341,11.1029,9.7564,6.3465,8.0553
1339.8438,-15.4019,-2.0080,5.7186,5.9730,7.1906,-6.9565,1.7422,3.3718,-0.2389,-12.0829,-2.8454,7.5065,3.7017,1.0228,-1.4859,10.5260,8.8931,6.9382,7.6651
1343.7500,-16.5556,-0.1725,5.2090,6.3133,5.4355,-6.5691,-5.5832,2.4556,-0.8188,-11.0518,-3.5079,8.7839,3.4883,1.1199,-0.6615,9.8695,7.8445,7.2350,7.6348
1347.6562,-15.5895,0.8315,5.0949,5.7972,4.2702,-5.9973,-9.7057,1.3647,-0.8109,-10.8827,-4.3650,8.6402,2.8521,0.6473,0.1099,8.5934,7.0366,6.4077,7.6400
1351.5625,-13.5300,-0.1563,5.0413,4.2209,4.0145,-5.0888,-8.5527,0.4365,-0.8829,-12.0179,-5.2636,7.1686,1.9939,-0.4164,0.2820,6.5446,6.7301,4.4216,7.3658
1355.4688,-12.1040,-3.0421,4.8450,2.2245,4.1858,-3.9331,-3.1711,-0.0035,-1.5132,-14.2243,-5.9524,5.3436,1.4189,-1.6329,-0.3673,4.4858,6.8580,2.0933,6.7900
1359.3750,-12.5690,-6.4803,4.5585,0.7967,3.9346,-2.9119,3.1329,0.1031,-2.7256,-16.5185,-6.4047,4.1992,1.5127,-2.4103,-1.6285,3.6750,7.0291,0.4770,6.1438
1363.2812,-14.8709,-8.7904,4.3722,0.5025,2.7197,-2.5680,6.8724,0.4938,-4.1856,-17.7002,-6.9552,3.9905,2.1482,-2.4633,-3.0440,4.6995,6.7103,0.0772,5.6252
1367.1875,-17.7024,-9.1107,4.3871,1.0500,0.7154,-3.3047,6.3595,0.7809,-5.4908,-17.1614,-8.0490,4.0147,2.6788,-2.0422,-4.2132,6.6063,5.5044,0.5106,5.1574
1371.0938,-19.3833,-7.9311,4.4833,1.5284,-1.3246,-5.0477,2.4852,0.7370,-6.3957,-15.3439,-9.7777,3.2250,2.3658,-1.7312,-4.9819,7.3122,3.3777,0.8631,4.4283
1375.0000,-18.9193,-6.6392,4.3900,1.1118,-2.6027,-7.0923,-2.0196,0.4407,-6.8447,-13.4472,-11.6337,1.1363,0.9195,-1.9715,-5.4022,5.2311,0.7162,0.4204,3.1824
1378.9062,-16.5263,-6.4683,3.8830,-0.3211,-2.7859,-8.3225,-4.3202,0.1746,-6.8897,-12.5718,-12.7823,-1.7116,-1.2693,-2.6888,-5.5586,0.8704,-1.8204,-0.8258,1.5000
1382.8125,-13.3508,-7.6650,2.9423,-2.1143,-2.1297,-7.7796,-3.1895,0.1754,-6.6370,-12.9453,-12.7126,-4.0999,-3.3926,-3.3269,-5.4498,-3.0811,-3.5612,-2.2760,-0.1942
1386.7188,-10.6853,-9.4644,1.7507,-3.3357,-1.1893,-5.2858,0.2801,0.4503,-6.2714,-13.8215,-11.7427,-5.0102,-4.7769,-3.2619,-5.0307,-3.5595,-4.0680,-3.2848,-1.4187
1390.6250,-9.2638,-10.8006,0.5578,-3.4524,-0.4147,-1.6985,3.3837,0.7994,-6.0608,-14.1097,-10.8941,-4.3451,-5.2981,-2.2777,-4.3371,0.4104,-3.2550,-3.6791,-1.9901
1394.5312,-9.0485,-11.1219,-0.4645,-2.6876,0.0247,1.4566,3.5491,0.9920,-6.2349,-13.2127,-11.1332,-2.9450,-5.3643,-0.7478,-3.5285,6.5891,-1.3767,-3.8047,-2.1581
1398.4375,-9.4985,-10.6789,-1.2702,-1.8412,0.0816,2.8233,0.0786,0.9188,-6.7773,-11.4172,-12.5353,-1.9251,-5.5267,0.5925,-2.7717,10.8585,1.0596,-4.1149,-2.4179
1402.3438,-9.9982,-10.1433,-1.8967,-1.7581,-0.4417,2.0087,-5.2416,0.5859,-7.3246,-9.5764,-14.0753,-1.8819,-6.0660,1.0916,-2.0745,10.2020,3.3982,-4.7150,-3.1605
1406.2500,-10.1237,-9.9789,-2.4146,-2.8425,-1.9482,-0.2128,-9.1685,-0.0138,-7.3456,-8.4173,-14.3116,-2.5879,-6.8827,0.5177,-1.2676,5.0609,4.9566,-5.2962,-4.4379
1410.1562,-9.6762,-10.1295,-2.9372,-4.9170,-4.7440,-2.4459,-9.1182,-0.9816,-6.5532,-8.0764,-12.5167,-3.3676,-7.7280,-0.9124,-0.2154,-0.8777,5.1971,-5.5129,-6.0063
1414.0625,-8.6290,-10.2483,-3.6574,-7.4330,-8.5947,-3.5974,-5.0124,-2.4253,-5.2510,-8.2170,-9.3887,-3.7926,-8.5184,-2.7606,0.8969,-3.4459,3.9402,-5.4358,-7.5699
1417.9688,-7.1467,-10.1811,-4.8169,-9.8102,-12.5518,-3.5153,0.4564,-4.2613,-4.2887,-8.5382,-6.7315,-4.0975,-9.4297,-4.6321,1.4899,-1.2176,1.5175,-5.6246,-8.9968
1421.8750,-5.6573,-10.2087,-6.5647,-11.6674,-15.3151,-2.8918,3.4473,-6.1192,-4.5622,-9.1427,-6.2576,-4.9757,-10.6911,-6.2995,0.8942,3.3769,-1.2824,-6.6984,-10.3360
1425.7812,-4.8137,-10.8030,-8.7849,-12.8660,-15.9868,-2.5451,1.4694,-7.5078,-6.3701,-10.3906,-8.3709,-6.9410,-12.2944,-7.6751,-1.1200,6.0008,-3.5400,-8.7481,-11.6603
1429.6875,-5.2284,-12.1264,-11.0552,-13.4482,-14.7133,-2.6823,-4.9517,-8.1758,-9.1094,-12.3686,-11.8446,-9.7891,-13.9103,-8.7456,-3.9885,3.9265,-4.6753,-11.1143,-12.9169
1433.5938,-7.0783,-13.7515,-12.8328,-13.5762,-12.7083,-2.7565,-12.6287,-8.3752,-11.5818,-14.4995,-14.6602,-12.6028,-15.1115,-9.5602,-6.5117,-1.6916,-4.7807,-12.7710,-13.9386
1437.5000,-9.8561,-14.8908,-13.7781,-13.4961,-11.5519,-2.0416,-17.8528,-8.7498,-12.7310,-15.7277,-15.3916,-14.2993,-15.7049,-10.2450,-7.5012,-6.6472,-4.5549,-13.0451,-14.6002
1441.4062,-12.5032,-14.9602,-13.9819,-13.4714,-12.1843,-0.4384,-18.7829,-9.8513,-12.2831,-15.2157,-14.1059,-14.2931,-15.8616,-10.9473,-6.4931,-6.9960,-4.8248,-12.0949,-14.9534
1445.3125,-13.9025,-13.9943,-13.8915,-13.6579,-14.2784,1.1982,-16.3750,-11.6193,-10.8197,-13.0046,-12.1289,-12.7865,-15.9082,-11.6839,-4.0135,-2.2132,-5.9430,-10.7490,-15.1883
1449.2188,-13.4386,-12.5499,-13.9546,-13.9888,-16.4496,1.5605,-13.2570,-13.2647,-9.2467,-10.0669,-10.9030,-10.5202,-15.9635,-12.2092,-1.1929,4.3419,-7.4849,-9.8288,-15.4359
1453.1250,-11.2663,-11.1915,-14.2367,-14.1872,-17.1890,-0.1115,-11.5260,-13.7319,-8.0905,-7.6550,-10.8600,-8.2407,-15.7693,-12.0725,0.9797,8.0300,-8.4987,-9.5104,-15.5944
1457.0312,-8.1336,-10.0194,-14.3245,-13.9469,-15.8891,-3.3008,-11.2334,-12.4595,-7.1767,-6.4375,-11.1851,-6.3227,-14.9099,-10.9124,2.2008,6.5159,-8.1691,-9.2500,-15.3625
1460.9375,-4.9146,-8.6667,-13.6254,-13.1730,-13.2565,-6.3678,-10.7131,-9.8725,-5.9244,-6.1041,-10.6206,-4.7944,-13.2601,-8.8151,2.8027,1.4727,-6.4341,-8.3260,-14.4908
1464.8438,-2.1882,-6.7662,-11.8603,-12.0914,-10.8295,-7.5394,-8.3745,-7.1910,-3.9785,-5.7480,-8.6233,-3.6444,-11.2608,-6.4407,3.2135,-2.9069,-4.0940,-6.5354,-13.0612
1468.7500,-0.1184,-4.4576,-9.3695,-11.1215,-9.9501,-6.0410,-4.3821,-5.6394,-1.6317,-4.6979,-5.9207,-3.0630,-9.7273,-4.7486,3.4320,-3.3237,-2.3079,-4.4521,-11.5499
1472.6562,1.3630,-2.4548,-6.9770,-10.5955,-10.9122,-2.5677,-0.7497,-5.6235,0.3225,-3.1045,-4.0105,-3.3691,-9.2871,-4.4522,2.9963,0.0650,-1.8306,-3.0297,-10.5904
1476.5625,2.2907,-1.5761,-5.4907,-10.5503,-12.8613,1.2070,0.2727,-6.5009,1.1784,-1.8060,-4.0035,-4.6882,-9.8892,-5.5740,1.4876,3.9428,-2.5533,-2.8801,-10.5915
1480.4688,2.5562,-2.1188,-5.2068,-10.7602,-14.4659,3.6702,-1.8256,-7.1348,0.8486,-1.6008,-5.7344,-6.6956,-10.8155,-7.4397,-0.8830,4.6424,-3.6897,-3.8288,-11.4867
1484.3750,2.0257,-3.6167,-5.7846,-10.9744,-14.8363,4.0840,-5.1892,-6.8113,-0.1060,-2.5573,-7.8433,-8.6939,-11.2304,-9.1335,-3.1644,1.1150,-4.4553,-5.1000,-12.7913
1488.2812,0.7517,-5.1965,-6.5695,-11.1388,-14.0275,2.6649,-6.9491,-5.8004,-0.9559,-3.9438,-8.7587,-10.0075,-10.8467,-10.0826,-4.2154,-4.3158,-4.6982,-5.9527,-13.9096
1492.1875,-0.9218,-6.2337,-7.0905,-11.3955,-12.8167,0.0539,-5.5310,-5.1128,-1.3724,-4.8350,-7.8139,-10.3951,-10.1565,-10.3381,-3.5280,-7.9069,-4.9701,-6.2153,-14.4540
1496.0938,-2.4682,-6.7505,-7.3369,-11.8595,-12.0050,-3.2374,-2.0379,-5.6409,-1.6027,-4.8765,-5.6506,-10.1538,-10.0084,-10.3634,-1.6610,-7.4638,-5.9735,-6.2829,-14.3656
1500.0000,-3.4309,-7.2264,-7.6203,-12.3991,-11.8256,-6.9032,0.4877,-7.3800,-2.1289,-4.5564,-3.6501,-9.8382,-10.8597,-10.5409,0.1070,-3.9259,-7.8349,-6.6249,-13.8130
1503.9062,-3.6503,-8.0173,-8.1843,-12.6603,-11.9038,-10.4722,-0.5800,-9.3743,-3.1440,-4.7562,-2.8861,-9.8313,-12.3247,-10.8319,0.6836,-0.4374,-9.8230,-7.2817,-13.0216
1507.8125,-3.3204,-8.9298,-8.9231,-12.3609,-11.7369,-12.9974,-5.3252,-10.4529,-4.3347,-5.9545,-3.4240,-10.1149,-13.4265,-10.8812,-0.0622,0.1535,-10.7944,-7.8197,-12.2017
1511.7188,-2.8506,-9.3590,-9.4559,-11.6051,-11.2327,-13.2999,-11.1062,-10.1695,-5.1680,-7.7553,-4.4556,-10.4049,-13.3796,-10.4557,-1.2614,-2.7230,-10.0679,-7.7839,-11.5915
1515.6250,-2.6237,-8.8853,-9.4708,-10.8969,-10.8189,-10.7482,-14.4934,-9.1717,-5.4094,-9.1384,-5.0676,-10.5018,-12.2712,-9.8021,-1.7743,-7.3384,-8.0462,-7.2124,-11.4844
1519.5312,-2.7837,-7.7834,-9.0062,-10.7672,-11.0143,-5.9825,-13.8066,-8.6694,-5.3702,-9.2412,-4.9694,-10.5273,-11.0552,-9.5558,-1.1086,-11.3137,-6.0610,-6.6989,-12.1074
1523.4375,-3.1550,-6.9377,-8.3954,-11.2851,-11.8368,-0.8947,-10.2433,-9.4067,-5.6180,-8.0502,-4.6041,-10.8301,-10.8202,-10.2238,0.2026,-13.3542,-5.4981,-6.8874,-13.3900
1527.3438,-3.3318,-7.1600,-7.9174,-11.8892,-12.5948,2.3146,-6.7244,-10.9709,-6.3857,-6.4622,-4.6266,-11.6371,-11.8986,-11.6610,1.0547,-13.6855,-6.8282,-7.8179,-14.8321
1531.2500,-2.9023,-8.4530,-7.4897,-11.7686,-12.3164,2.4490,-5.4261,-12.0297,-7.2289,-5.6752,-5.2506,-12.7600,-13.5455,-13.0201,0.6790,-13.1589,-9.2659,-8.7320,-15.6722
1535.1562,-1.7098,-9.8636,-6.7239,-10.5625,-10.5418,0.0812,-6.0223,-11.3601,-7.3095,-6.3774,-6.0355,-13.6311,-14.4775,-13.2957,-0.7287,-12.1784,-11.3202,-8.5994,-15.3341
1539.0625,-0.0148,-10.1206,-5.3472,-8.8267,-7.8570,-2.8032,-6.0730,-8.8780,-6.1360,-8.3154,-6.2667,-13.6675,-13.8656,-12.0865,-2.1536,-10.5653,-11.8258,-7.0004,-13.8656
1542.9688,1.5583,-8.5989,-3.6294,-7.8171,-5.6862,-4.0622,-3.2355,-5.8514,-4.1393,-10.4942,-5.5695,-12.6880,-11.9911,-9.9765,-2.5481,-8.3522,-10.6870,-4.6437,-12.0115
1546.8750,2.3056,-5.8563,-2.3917,-8.6525,-5.4082,-2.6820,2.5214,-4.0934,-2.5299,-11.7874,-4.2165,-11.0546,-10.0289,-8.1949,-1.6198,-6.4464,-8.8009,-3.0276,-10.7936
1550.7812,1.8258,-3.3011,-2.4943,-11.4367,-7.3938,0.7662,8.5387,-4.7242,-2.4496,-11.5045,-2.8809,-9.4304,-9.1175,-7.7682,-0.0162,-6.1823,-7.2698,-3.4243,-10.8430
1554.6875,0.2697,-2.2266,-4.1589,-15.0279,-10.6675,4.7125,11.2929,-7.4242,-4.0481,-9.6029,-2.0763,-8.3480,-9.4618,-8.7889,1.1929,-7.9557,-6.5547,-5.9341,-11.9555
1558.5938,-1.7268,-2.9462,-6.6804,-17.6943,-13.4670,7.6711,9.0148,-10.7142,-6.2509,-6.5614,-1.7855,-7.9244,-10.1951,-10.3545,1.2762,-10.2592,-6.2318,-9.3498,-13.2141
1562.5000,-3.4102,-4.6662,-8.8187,-18.2272,-14.3284,8.9918,3.0464,-13.0088,-7.4783,-3.1402,-1.5924,-7.9201,-10.1158,-11.2233,0.2423,-10.3497,-5.5027,-11.9646,-13.6184
1566.4062,-4.3461,-6.1435,-9.6240,-16.7056,-12.9443,8.8288,-3.1254,-13.6193,-6.8103,-0.1965,-1.1775,-8.0486,-8.7069,-10.6901,-1.3613,-6.3930,-3.9907,-12.7311,-12.7764
1570.3125,-4.6213,-6.5738,-9.0743,-14.3481,-10.2258,7.5636,-6.3869,-12.9802,-4.6996,1.4751,-0.7110,-8.2483,-6.6073,-9.0283,-2.9738,0.5668,-2.1389,-11.9105,-11.1620
1574.2188,-4.6714,-6.0298,-8.0174,-12.5764,-7.5875,5.3227,-6.0961,-12.0298,-2.6486,1.3899,-0.7651,-8.6801,-5.1487,-7.2056,-4.3570,6.6630,-0.8774,-10.7460,-9.7578
1578.1250,-4.8742,-5.1851,-7.4553,-12.0138,-6.0332,2.0517,-4.1681,-11.3429,-2.0742,-0.3116,-1.7891,-9.4678,-5.3221,-6.1429,-5.4783,7.6586,-0.8510,-10.4503,-9.3640
1582.0312,-5.2385,-4.6493,-7.7366,-12.1778,-5.7054,-1.9810,-3.1834,-10.7561,-3.2293,-2.7086,-3.5872,-10.4316,-7.0021,-6.1170,-6.1465,2.1413,-1.8704,-11.3002,-10.0841
1585.9375,-5.4383,-4.5005,-8.3081,-12.0634,-6.1458,-5.8206,-4.1149,-9.7449,-5.0200,-4.3615,-5.2627,-11.0748,-9.0422,-6.7392,-5.8663,-7.0409,-3.0651,-12.5050,-11.3423
1589.8438,-5.1528,-4.3557,-8.2232,-11.1016,-6.9320,-8.0887,-5.5260,-8.1445,-5.8533,-3.9912,-5.7296,-10.8712,-10.1552,-7.4429,-4.1689,-14.4307,-3.6200,-12.8867,-12.3666
1593.7500,-4.4021,-3.8177,-6.9787,-9.6907,-8.0875,-7.8025,-4.8588,-6.5147,-4.8430,-1.2111,-4.4260,-9.6377,-9.8678,-8.0076,-1.1871,-15.6527,-3.4758,-11.7911,-12.7299
1597.6562,-3.5584,-2.8368,-4.9787,-8.8632,-9.9058,-5.1419,-0.7301,-5.7781,-2.4340,3.1949,-1.6952,-7.6955,-8.7991,-8.6607,2.0763,-10.4312,-3.3868,-9.5288,-12.5410
1601.5625,-2.9941,-1.6700,-3.2288,-9.3738,-12.3778,-1.5051,5.6664,-6.4171,0.0127,7.7052,1.4500,-5.6820,-8.0735,-9.7025,4.1644,-2.6541,-4.2572,-7.0696,-12.1942
1605.4688,-2.6682,-0.5414,-2.5127,-10.9745,-14.7907,1.2969,11.2249,-7.9341,1.3006,10.9562,3.9932,-4.1511,-8.3749,-11.0340,4.0862,2.5511,-6.2905,-5.3124,-11.9465
1609.3750,-2.0582,0.6059,-2.7458,-12.4927,-15.9575,2.1808,13.1714,-9.0868,1.2592,12.4967,5.5081,-3.2636,-9.4167,-12.0538,2.0748,2.4807,-8.6685,-4.5323,-11.7000
1613.2812,-0.5811,1.9819,-3.0634,-12.6729,-15.0053,1.4554,11.1234,-8.7740,0.7243,12.8826,6.2624,-2.7889,-10.2287,-12.0587,-0.4460,-1.4956,-10.0665,-4.3820,-11.1486
1617.1875,1.7787,3.5625,-2.5866,-11.1139,-12.1412,0.5264,7.3273,-6.8844,0.7120,13.0771,6.8154,-2.3872,-9.9890,-10.8270,-1.7540,-5.3960,-9.6332,-4.3324,-10.1165
1621.0938,4.1616,4.8533,-1.2253,-8.5565,-8.7471,0.8590,4.8666,-4.4216,1.5130,13.6417,7.4731,-1.9246,-8.6948,-8.8799,-0.9755,-5.8608,-7.6671,-4.1145,-8.7547
1625.0000,5.1875,5.1139,0.1733,-6.3034,-6.6222,2.9414,5.2374,-2.7866,2.4597,14.3381,8.0482,-1.5613,-7.1327,-7.1643,1.3457,-2.5658,-5.4388,-3.8040,-7.4113
1628.9062,3.8196,3.9327,0.4899,-5.2477,-6.8444,5.9584,7.2071,-2.7676,2.5333,14.4186,8.0912,-1.5517,-6.2054,-6.3851,3.6750,1.9306,-4.2773,-3.5704,-6.3016
1632.8125,0.1499,1.6782,-0.7120,-5.2860,-9.0452,8.3491,7.8878,-4.0152,1.2765,13.3407,7.3773,-1.9350,-6.1929,-6.5096,4.5854,4.4964,-4.6155,-3.4053,-5.2997
1636.7188,-4.4803,-0.5965,-2.7302,-5.5456,-11.6327,8.8059,5.2270,-5.3818,-0.7555,11.3247,6.2354,-2.3854,-6.5529,-6.8362,3.7110,3.8456,-5.7216,-3.1154,-4.0666
1640.6250,-8.1588,-1.7831,-4.1679,-5.1848,-12.8190,7.0374,-0.0257,-5.8122,-2.3655,9.3260,5.4399,-2.3626,-6.3914,-6.5584,1.8802,1.1769,-6.2993,-2.5655,-2.4228
1644.5312,-9.4393,-1.4113,-3.9516,-4.0691,-11.7401,3.8683,-4.4779,-5.0626,-2.5865,8.4585,5.7275,-1.4685,-5.1789,-5.3619,0.3992,-1.1983,-5.4625,-1.8897,-0.6312
1648.4375,-8.0454,0.1285,-2.1291,-2.7766,-8.9067,0.7393,-4.3977,-3.7130,-1.3483,9.3042,7.2802,0.2476,-3.1158,-3.5818,0.0903,-1.8182,-3.3234,-1.4203,0.6933
1652.3438,-4.8223,1.9742,0.1695,-1.9823,-5.7309,-0.9903,1.4671,-2.5488,0.5601,11.5852,9.5405,2.2555,-0.8823,-1.8354,0.8138,-0.9259,-0.7715,-1.3730,1.0153
1656.2500,-1.0770,3.4277,1.5557,-1.8036,-3.5326,-0.5483,10.6462,-1.8956,2.1354,14.3578,11.4903,3.8125,0.9566,-0.4813,1.7625,0.2822,1.3117,-1.5901,0.3120
1660.1562,2.1437,4.3002,1.3285,-1.7037,-2.7596,2.0697,18.2835,-1.4784,2.8469,16.5208,12.2250,4.3631,2.3499,0.6156,2.1947,1.0369,2.7263,-1.6207,-0.8623
1664.0625,4.3451,4.7422,-0.1759,-1.0331,-2.9218,6.1577,20.1963,-0.8743,2.8398,17.2876,11.4784,3.8251,3.6278,1.8268,1.9757,1.6053,3.9697,-1.1050,-1.7630
1667.9688,5.3894,4.8349,-2.0196,0.2906,-3.1700,10.4811,15.5385,-0.0886,2.5921,16.4104,9.7987,2.6127,4.9997,3.2691,1.5345,2.6513,5.6235,-0.1232,-1.9956
1671.8750,5.1770,4.4370,-3.4283,1.6074,-2.9904,13.5830,7.2108,0.3231,2.4270,14.1764,8.2845,1.4104,6.1743,4.5526,1.3694,4.1760,7.6697,0.8374,-1.7725
1675.7812,3.6133,3.4967,-4.2174,2.0564,-2.4782,14.2572,-0.2304,-0.2526,2.3387,11.2992,8.0191,0.8391,6.4851,5.0296,1.5891,5.2765,9.3435,1.3148,-1.6691
1679.6875,0.9155,2.4995,-4.5816,1.3933,-2.0564,12.1023,-3.6345,-1.7979,2.2297,8.7446,9.4845,1.1792,5.4470,4.3559,1.8782,5.0910,9.6694,1.3348,-2.0812
1683.5938,-2.0876,2.4776,-4.5671,0.3583,-1.9629,7.8757,-3.1001,-3.4220,2.2355,7.4398,12.2434,2.2561,3.2685,2.8737,1.8542,3.9964,8.2491,1.4580,-2.8396
1687.5000,-4.0894,4.3260,-3.8314,0.1981,-1.9802,3.3311,-1.3567,-3.8695,2.7313,7.8569,15.0613,3.5146,0.8586,1.4491,1.4314,3.7012,5.6576,2.2949,-3.3211
1691.4062,-3.9443,7.8533,-2.0021,1.6557,-1.6239,0.4672,-1.2766,-2.4540,3.9481,9.6574,16.4427,4.2480,-0.7203,0.8520,0.8376,5.8320,3.1240,3.8589,-2.9779
1695.3125,-1.4074,11.4146,0.6769,4.2360,-0.5946,0.5227,-3.4746,0.3125,5.5551,11.6985,15.3592,3.9076,-0.9312,1.1709,0.2910,10.1229,1.7484,5.3327,-1.8461
1699.2188,2.6071,12.6760,3.0859,6.3961,0.9173,3.2959,-5.8354,2.9325,6.6763,12.5568,11.8192,2.3800,-0.0359,1.7611,-0.3078,13.9565,1.8630,5.5444,-0.5856
1703.1250,6.5096,10.1810,3.7778,6.6018,2.3418,7.2417,-5.3001,3.8845,6.4573,11.3525,6.9703,0.1038,1.2406,1.8019,-1.3148,14.0300,2.9952,3.8677,0.0192
1707.0312,8.9519,4.6201,2.0484,4.4846,3.1527,10.3254,-0.4920,2.6485,4.7869,8.3417,2.6379,-2.0670,2.3543,1.0328,-2.9138,9.0541,4.3863,0.8613,-0.2855
1710.9375,9.5188,-1.2686,-1.3097,1.2099,3.2378,11.1308,6.8949,0.0511,2.5568,4.8111,0.4985,-3.2328,3.3486,0.0630,-4.7078,1.2613,5.5866,-1.9080,-0.9566
1714.8438,8.7125,-4.3091,-4.2879,-1.2627,2.9071,9.5541,13.0803,-2.3119,1.1565,2.2685,1.3069,-2.8902,4.6895,-0.0338,-5.7752,-4.7747,6.6417,-2.8171,-1.0326
1718.7500,7.3189,-2.9840,-4.9315,-1.5036,2.5543,6.6999,14.8473,-3.1327,1.5129,1.4673,4.5789,-1.2064,6.6940,1.4424,-5.2689,-5.3769,7.7892,-1.2627,0.1007
1722.6562,5.7373,1.4868,-2.7264,0.4431,2.2889,4.1132,11.8434,-2.1632,3.3975,1.9753,8.8862,1.0483,9.0644,4.1885,-3.1455,-0.6187,9.0196,1.9186,2.1518
1726.5625,3.8480,5.9374,0.9560,3.1753,1.8828,2.8802,6.7631,-0.1948,5.5621,2.6222,12.5742,2.8948,10.9571,6.9853,-0.4232,5.5461,9.9544,5.0024,4.0401
1730.4688,1.4954,7.4198,3.7717,4.9862,1.0956,3.1462,3.2785,1.6473,6.6372,2.4890,14.4967,3.6487,11.5626,8.4695,1.3337,8.1580,10.1687,6.5078,4.6493
1734.3750,-0.9062,5.2090,4.0605,5.0547,0.1001,4.2692,3.3383,2.7077,6.1260,1.6708,14.3959,3.2387,10.7350,8.0366,1.0159,5.0017,9.6470,6.1036,3.6776
1738.2812,-2.2767,1.2109,2.0397,3.9135,-0.3952,5.3978,5.9482,3.1187,4.7425,1.2071,12.8071,2.1631,9.1497,6.2201,-1.2342,-1.6789,8.9051,4.6784,1.9468
1742.1875,-1.4932,-1.4908,-0.3615,2.9160,0.4913,6.0398,8.3513,3.4819,3.8454,2.2325,10.6438,1.1411,7.8413,4.2798,-4.0183,-6.8640,8.5922,3.5982,0.9090
1746.0938,1.7022,-0.8466,-0.9139,3.1775,3.1676,6.2644,8.5837,4.2538,4.4174,5.0201,8.7524,0.7031,7.4684,3.3167,-5.5057,-6.5414,8.8716,3.7464,1.6841
1750.0000,6.2548,2.8071,1.2969,4.8002,7.1046,6.4761,7.2466,5.3452,6.3683,8.6793,7.6510,0.9842,7.8709,3.5583,-4.5321,-0.6519,9.1316,5.0366,4.3033
1753.9062,10.2537,7.1739,5.2340,6.9072,10.9360,6.9771,6.9577,6.2083,8.6612,11.7396,7.4947,1.8151,8.2606,4.3070,-1.2449,7.0415,8.3612,6.6663,7.6911
1757.8125,12.0350,9.7592,8.6830,8.3653,13.1353,7.6420,9.8746,6.2789,10.1112,13.1462,8.1745,2.9907,7.8932,4.5457,3.0944,11.9406,5.9832,7.8124,10.3898
1761.7188,11.1568,9.5777,9.8178,8.5896,12.8804,7.9270,15.3616,5.3973,10.2126,12.8783,9.4389,4.4774,6.7114,3.7345,6.9428,12.0268,2.5184,8.1930,11.5113
1765.6250,8.5439,7.5685,8.3912,7.8492,10.5719,7.2108,19.8876,3.9108,9.3842,11.7410,10.9897,6.3953,5.4834,2.2343,9.3413,9.0623,-0.4842,8.1114,11.2664
1769.5312,5.7310,5.5636,5.7303,6.9358,7.6719,5.2570,19.4955,2.4363,8.5238,10.5717,12.5536,8.7983,5.3441,1.0949,10.2656,6.8177,-1.2905,8.0499,10.7429
1773.4375,3.8053,4.7614,3.6473,6.5426,5.9394,2.4991,13.0247,1.4962,8.2916,9.5685,13.9235,11.4440,7.0735,1.3916,10.3375,7.9315,0.9498,8.2102,11.1312
1777.3438,2.8359,4.9389,3.1576,6.8424,6.4948,-0.0652,3.4807,1.2694,8.6928,8.2952,14.9465,13.7586,10.5980,3.5677,10.2146,11.9539,5.6483,8.3738,12.9486
1781.2500,2.1442,4.9321,3.9467,7.5107,9.2285,-1.3614,-3.7394,1.5584,9.2193,6.2992,15.4553,15.0625,15.0095,7.1765,10.1289,15.9783,11.1160,8.1386,15.7606
1785.1562,1.0931,3.8535,4.8777,8.0624,12.8652,-0.8473,-4.5900,1.9265,9.3443,3.7348,15.2114,14.9324,19.0357,11.1236,9.8504,17.1041,15.5452,7.2907,18.5212
1789.0625,-0.2972,1.9727,5.0253,8.1764,15.6312,1.1413,0.7348,1.9107,8.9318,1.3908,13.9672,13.4708,21.6397,14.2061,9.0133,14.6112,17.9599,6.0028,20.2402
1792.9688,-1.3851,0.5520,4.3906,7.7915,16.1614,3.5777,8.0458,1.2416,8.2739,0.0709,11.6844,11.3087,22.4154,15.6305,7.5136,10.2030,18.5353,4.7407,20.5159
1796.8750,-1.4886,0.8332,3.7958,7.0061,14.1719,5.3961,12.4006,0.0175,7.8232,-0.1175,8.7867,9.3298,21.6335,15.2706,5.7029,6.4136,18.1834,3.9975,19.6304
1800.7812,-0.4663,3.0515,4.1380,5.9625,10.5592,6.1965,11.8251,-1.2564,7.9083,0.1079,6.2120,8.2741,19.9947,13.6039,4.2775,4.7289,17.7996,4.0632,18.2247
1804.6875,1.1944,6.2623,5.6469,4.8328,6.8838,6.4849,8.5730,-1.8597,8.6483,-0.1652,5.0918,8.4338,18.2555,11.4126,3.9551,4.9517,17.7201,4.9426,16.8349
1808.5938,2.8008,9.0532,7.7041,3.8487,4.5207,7.2213,6.9305,-1.2708,10.0288,-1.1689,6.1448,9.5861,16.8898,9.4037,5.1148,6.0415,17.6820,6.3920,15.6013
1812.5000,3.9607,10.5041,9.2912,3.2432,3.9351,8.9537,9.3683,0.4035,11.9466,-2.1227,9.1399,11.1643,15.9044,7.9077,7.5662,7.3442,17.1668,7.9905,14.2957
1816.4062,4.7070,10.6296,9.6605,3.0749,4.4880,11.1951,14.2341,2.3069,14.1174,-1.8219,12.8325,12.5431,14.8815,6.7834,10.5475,8.9664,15.7840,9.2235,12.5893
1820.3125,5.1710,10.0525,8.7307,3.0809,4.8809,12.5979,16.9662,3.2232,15.9653,0.2622,15.5158,13.2780,13.2490,5.5774,12.9787,11.0710,13.4382,9.6186,10.3508
1824.2188,5.1776,9.3108,6.9967,2.7497,3.9786,11.9130,13.9372,2.3307,16.7222,3.2727,15.9056,13.1956,10.6705,3.8698,13.8992,13.0264,10.2817,8.9428,7.7824
1828.1250,4.2247,8.4473,5.1292,1.6474,1.5073,9.0726,5.7972,-0.1599,15.8078,5.3101,13.8096,12.3355,7.3346,1.6155,12.9082,13.4933,6.6218,7.3560,5.3305
1832.0312,1.9388,7.1890,3.6031,-0.2133,-1.8067,5.5287,-2.5306,-2.9871,13.2706,4.6713,10.1426,10.8255,3.9299,-0.7419,10.3748,11.5569,2.9007,5.3708,3.4435
1835.9375,-1.3816,5.4533,2.5650,-2.2724,-4.7440,3.4494,-5.4076,-4.5589,9.9153,1.0847,6.2932,8.7962,1.2623,-2.4893,7.2624,7.8551,-0.3067,3.5671,2.3333
1839.8438,-4.6795,3.6319,1.9092,-3.7275,-6.3995,4.2332,-0.8773,-3.9836,6.9229,-4.0103,3.2928,6.3874,-0.2631,-3.0824,4.6254,4.4823,-2.4131,2.2254,1.8766
1843.7500,-6.7115,2.3522,1.4073,-4.0638,-6.7392,7.4001,7.6123,-1.6983,5.1636,-8.3824,1.3558,3.8219,-0.9242,-2.5146,3.0657,3.4909,-3.0831,1.1618,1.7149
1847.6562,-6.9004,1.9305,0.7958,-3.4165,-6.5231,10.7492,13.6500,0.7884,4.6880,-10.4573,0.0538,1.4607,-1.4735,-1.3425,2.4918,5.1653,-2.4702,-0.0611,1.4933
1851.5625,-5.7921,2.0447,-0.1485,-2.4748,-6.6613,11.7831,12.6577,1.8931,4.7899,-10.2292,-1.1039,-0.2410,-2.5363,-0.3246,2.3337,7.6179,-1.1896,-1.6694,1.0955
1855.4688,-4.6926,1.9647,-1.4874,-1.9793,-7.4837,9.4326,5.3159,0.9930,4.6038,-9.0039,-2.1934,-0.8909,-4.0441,0.0853,2.0402,8.2279,0.0417,-3.3283,0.7232
1859.3750,-4.7010,1.1713,-3.0036,-2.1923,-8.4725,4.8246,-3.0764,-1.2410,3.7779,-8.2532,-2.8758,-0.3535,-5.1617,0.0249,1.4752,5.8366,0.8765,-4.2384,0.7536
1863.2812,-5.8621,-0.1767,-4.2225,-2.7445,-8.6673,0.4989,-6.8028,-3.4318,2.6954,-8.5174,-2.8193,1.1414,-4.8340,0.0711,0.9166,1.8548,1.5553,-3.6799,1.4511
1867.1875,-7.1057,-1.3573,-4.6593,-2.9720,-7.4460,-1.3749,-4.1629,-4.5271,2.0828,-9.1862,-2.1257,3.0630,-2.5973,0.7600,0.6906,-0.7407,2.6603,-1.6216,2.7195
1871.0938,-7.0481,-1.7088,-4.1758,-2.4665,-5.0876,-0.4584,1.3660,-4.4749,2.3418,-9.2386,-1.3612,4.7990,0.9431,2.1409,0.7875,0.2186,4.5609,1.0936,4.0768
1875.0000,-5.0609,-1.2339,-3.1736,-1.4005,-2.6758,1.6938,4.1240,-4.0507,3.1666,-8.2484,-1.1470,5.9107,4.3628,3.7102,0.8183,4.2920,6.9787,3.1901,4.9023
1878.9062,-1.8023,-0.6523,-2.4087,-0.3740,-1.3845,2.9848,0.9839,-4.0371,3.7699,-6.7986,-1.6674,6.2778,6.2612,4.7797,0.3682,8.7210,9.0461,3.7551,4.8132
1882.8125,1.1823,-0.8245,-2.4903,0.0793,-1.6605,2.4543,-6.0114,-4.4696,3.5301,-5.9837,-2.5292,6.0599,6.1140,5.0002,-0.5730,10.5988,9.8565,2.8243,3.9242
1886.7188,2.4792,-2.0086,-3.4094,-0.0743,-2.9006,0.9635,-11.2049,-4.5859,2.5259,-6.4559,-3.1095,5.5288,4.5324,4.6390,-1.5259,9.1236,9.1097,1.3268,2.8013
1890.6250,1.6852,-3.5664,-4.4750,-0.3424,-3.8665,0.3597,-9.8331,-3.5194,1.5110,-7.8393,-3.0978,4.9058,2.7666,4.3981,-1.9239,6.0735,7.3620,0.4324,2.1261
1894.5312,-0.4597,-4.3839,-4.7536,-0.0966,-3.5380,1.8139,-1.8960,-1.1450,1.3443,-9.0067,-2.7566,4.3153,1.8477,4.9129,-1.6870,4.1557,5.6802,0.7829,2.2884
1898.4375,-2.6990,-3.6935,-3.7222,0.9360,-1.7978,4.6927,7.6666,1.6493,2.3259,-8.9876,-2.6629,3.8523,2.0055,6.3095,-1.4358,4.6855,4.9595,2.1534,3.1804
1902.3438,-4.1073,-1.6677,-1.6566,2.4621,0.5272,6.9064,12.6162,3.5257,3.9593,-7.7628,-3.1419,3.6604,2.7434,8.1394,-2.0607,6.5917,5.4078,3.7391,4.3220
1906.2500,-4.5318,0.6638,0.5336,3.8383,2.2627,6.4983,10.0134,3.6704,5.3063,-6.3034,-3.8896,3.9072,3.4203,9.7164,-3.9120,7.5669,6.5543,4.7869,5.2137
1910.1562,-4.4014,2.0973,1.9018,4.5267,2.6731,3.2439,2.2432,2.4063,5.6351,-5.8390,-4.1409,4.6448,3.8109,10.5803,-6.2776,6.2955,7.7135,5.0684,5.6528
1914.0625,-4.1936,2.0273,2.0540,4.4401,1.8864,-1.0036,-4.9638,0.9576,4.8640,-6.9464,-3.2841,5.6719,4.1905,10.7443,-7.6819,3.7520,8.4972,4.8805,5.7976
1917.9688,-4.0610,0.7740,1.3221,3.9442,0.7111,-3.5177,-6.8298,0.5539,3.5049,-9.1631,-1.4272,6.5458,4.9329,10.5821,-6.9125,2.3774,8.9736,4.6706,5.9612
1921.8750,-3.8864,-0.7006,0.4485,3.5643,0.0452,-2.5695,-2.7895,1.5731,2.2290,-11.3805,0.5665,6.7920,6.0309,10.4941,-4.0462,3.8177,9.4085,4.6607,6.3242
1925.7812,-3.6084,-1.4188,0.0722,3.6459,0.3305,1.4096,3.6278,3.3728,1.4391,-12.6531,1.6388,6.1957,6.9983,10.6405,-0.6316,7.2120,9.8831,4.7800,6.8021
1929.6875,-3.4287,-0.9169,0.4038,4.2062,1.4067,6.1707,7.8909,4.8914,1.1577,-12.7806,1.2761,4.9613,7.2568,10.9285,1.2374,9.6073,10.1699,4.8868,7.1596
1933.5938,-3.6651,0.5971,1.2638,5.0231,2.7819,9.1558,7.8984,5.4920,1.2202,-12.2659,-0.1429,3.6005,6.6710,11.2051,0.3682,8.2778,9.9850,4.9988,7.2613
1937.5000,-4.3914,2.4357,2.3463,5.8266,4.0393,9.0273,5.1118,5.3665,1.5117,-11.7867,-1.6520,2.6054,5.7519,11.4426,-2.6262,3.0715,9.3771,5.2738,7.2343
1941.4062,-5.2406,3.7730,3.4295,6.4249,5.0603,6.1922,2.8013,5.2143,2.0102,-11.6818,-2.4009,2.1354,5.3280,11.7421,-5.6974,-3.1865,8.8677,5.7646,7.4006
1945.3125,-5.6224,3.9647,4.3818,6.7120,5.9506,2.1623,3.1286,5.5186,2.6405,-11.8632,-2.2054,1.9525,5.9399,12.1673,-6.8051,-6.6383,9.1604,6.2257,8.0298
1949.2188,-5.2218,2.7919,5.0560,6.6312,6.8063,-1.5437,5.5232,6.0588,3.1580,-12.1457,-1.5440,1.6584,7.4524,12.5877,-5.4060,-5.1775,10.6134,6.2253,9.1125
1953.1250,-4.3499,0.6081,5.2698,6.1838,7.5571,-4.0698,7.5055,6.0710,3.2480,-12.6135,-1.0679,1.0508,9.1948,12.7015,-2.8704,0.1006,12.8946,5.5257,10.3363
1957.0312,-3.7942,-1.6969,4.9494,5.4887,8.0149,-5.1357,7.0127,4.9218,2.7891,-13.6402,-1.0737,0.3183,10.4928,12.2446,-1.4826,5.8492,15.1106,4.4023,11.2860
1960.9375,-4.2179,-3.0226,4.2939,4.8033,8.0613,-4.5984,4.1639,2.7312,2.0230,-15.5177,-1.3731,-0.0896,11.1313,11.2171,-2.7335,8.9564,16.3337,3.5638,11.7099
1964.8438,-5.5589,-2.6365,3.7411,4.4327,7.8005,-2.3095,1.0633,0.4365,1.4196,-18.0287,-1.6231,0.1759,11.3679,9.9327,-6.1598,8.5617,16.1349,3.6553,11.6508
1968.7500,-6.9343,-0.7112,3.6838,4.5617,7.5490,1.5050,-0.0057,-0.7652,1.2966,-20.3797,-1.7721,1.0483,11.5214,8.8374,-9.5988,6.1353,14.7435,4.7107,11.3575
1972.6562,-7.1857,1.5931,4.1468,5.1360,7.6738,5.7736,1.6350,-0.1767,1.5119,-21.6251,-2.1909,2.0320,11.5402,8.2333,-10.6866,3.8266,12.7641,6.0187,11.0666
1976.5625,-5.7003,2.7129,4.7320,5.9025,8.3955,8.6874,4.7349,1.9817,1.5301,-21.3055,-3.3535,2.5151,10.9715,8.1175,-8.5200,2.6509,10.7296,6.5746,10.8396
1980.4688,-2.9007,1.6696,4.9425,6.5838,9.6730,8.6145,7.3279,4.7509,0.8625,-19.8207,-5.3414,2.1828,9.3925,8.2490,-4.2925,2.0238,8.8632,5.8134,10.5771
1984.3750,-0.0223,-1.1807,4.6496,7.0432,11.2120,5.2893,8.2855,7.0173,-0.4581,-18.2346,-7.6112,1.2350,6.9408,8.3711,-0.4732,0.8343,7.2031,4.0683,10.1784
1988.2812,1.6778,-4.2272,4.2884,7.3036,12.5692,0.3399,7.9007,8.0737,-1.7809,-17.6164,-9.2523,0.2595,4.4615,8.4084,0.8548,-1.1050,5.9025,2.3826,9.6984
1992.1875,1.7148,-5.5651,4.5537,7.4181,13.3065,-3.4148,7.1991,7.8333,-2.2434,-18.3528,-9.5497,-0.1251,3.0933,8.4946,-0.6792,-2.6244,5.3697,1.8015,9.3626
1996.0938,0.6115,-4.2382,5.7943,7.3349,13.1624,-3.5762,6.8236,6.6846,-1.3948,-19.8895,-8.4205,0.4036,3.5750,8.8365,-3.6200,-2.1496,6.0669,2.6696,9.4265
2000.0000,-0.5680,-0.8955,7.6052,6.9088,12.1894,0.3582,6.5911,5.2016,0.4458,-21.0668,-6.4118,1.7797,5.7938,9.5410,-5.7670,0.8758,8.1095,4.4486,9.9889
2003.9062,-1.0204,2.6212,9.0112,6.0681,10.7851,6.6598,6.0439,3.9202,2.3799,-20.8329,-4.3080,3.6854,8.8999,10.5341,-5.6236,5.4072,11.0105,6.1508,10.8989
2007.8125,-0.7483,4.4788,9.1605,4.9800,9.5422,12.3935,5.3033,3.2226,3.5139,-18.8996,-2.6968,5.7404,11.8609,11.5970,-3.2311,9.5639,13.8208,7.0117,11.8135
2011.7188,-0.4794,3.9855,7.9949,4.0231,8.9388,15.0920,5.2544,3.2555,3.4786,-15.9585,-1.8125,7.5810,14.0009,12.4526,0.0639,12.0192,15.6009,6.8833,12.3544
2015.6250,-1.0629,1.8631,6.3320,3.5381,9.0250,13.9873,6.7765,3.8492,2.5042,-13.3418,-1.6868,8.8246,15.1408,12.8282,2.5926,12.7758,15.8953,6.1070,12.2569
2019.5312,-2.8171,-0.4679,5.2451,3.5402,9.3362,10.1163,9.7166,4.5232,1.0594,-12.3147,-2.3522,9.0680,15.3418,12.4896,3.3476,12.7135,14.8833,5.0765,11.4439
2023.4375,-5.3054,-1.9776,5.2151,3.6575,9.1584,5.4410,12.6366,4.6946,-0.5738,-13.3716,-3.8323,8.0466,14.5994,11.3044,2.3650,12.4573,13.1387,3.9268,10.0287
2027.3438,-7.6722,-2.6397,5.7474,3.4009,8.0333,1.7112,13.7075,4.0469,-2.3993,-15.9075,-5.9176,5.9030,12.8373,9.3595,0.4256,11.7213,11.2272,2.6118,8.2905
2031.2500,-9.2550,-3.1560,5.7955,2.5898,6.1674,-0.2225,12.0770,2.8224,-4.4220,-18.4565,-7.9943,3.3301,10.2071,7.0599,-1.5432,9.7755,9.4548,1.2308,6.6352
2035.1562,-10.0040,-4.1201,4.6712,1.5889,4.4169,-0.4360,8.5545,1.7611,-6.2995,-19.4114,-9.2109,1.3724,7.3446,5.0780,-2.9051,6.5531,7.9071,0.2161,5.5124
2039.0625,-10.4082,-5.3765,2.6965,1.1218,3.7801,0.4334,5.0060,1.6363,-7.3335,-17.8727,-8.9674,0.9018,5.2126,4.0898,-3.3990,3.2361,6.6520,0.1189,5.2633
2042.9688,-11.0064,-6.1168,1.0399,1.7529,4.6994,1.5704,2.9556,2.6729,-6.8976,-14.1665,-7.3796,2.0807,4.5223,4.4004,-3.0012,1.5915,5.8555,1.1303,5.9425
2046.8750,-11.8657,-5.5957,0.8371,3.4131,6.6567,2.2458,2.5693,4.2935,-4.9771,-9.7056,-5.2984,4.2089,5.1632,5.7007,-1.8130,2.5176,5.6792,2.7722,7.2271
2050.7812,-12.4357,-3.8218,2.2975,5.3529,8.3886,2.0503,2.8419,5.4420,-2.3360,-6.2260,-3.7790,6.1306,6.1744,7.1605,-0.0788,5.0983,6.0624,4.1062,8.5183
2054.6875,-11.9093,-1.6100,4.5240,6.5955,8.6246,1.1464,2.7380,5.2985,-0.0953,-4.8217,-3.3448,6.9713,6.4100,7.8588,1.7656,7.1420,6.6217,4.3796,9.2243
2058.5938,-9.8573,0.0458,6.1984,6.5793,6.8727,0.3596,2.2079,3.8705,0.9993,-5.3693,-3.6107,6.7000,5.4695,7.3000,3.1749,6.9131,6.8147,3.6205,9.0740
2062.5000,-6.6923,0.7342,6.5711,5.5176,3.7261,0.8382,2.1545,2.0048,1.0518,-6.7230,-3.5912,6.0977,4.1638,5.6811,3.7346,4.6520,6.2762,2.6720,8.2492
2066.4062,-3.6100,0.8608,5.9440,4.2098,0.4884,3.2808,3.4140,0.7929,0.8387,-7.5626,-2.5013,6.1290,4.0662,3.7278,3.3980,2.5421,5.0770,2.5738,7.2311
2070.3125,-1.9938,1.1607,5.2644,3.4519,-1.6098,7.1833,5.7363,0.8145,1.1033,-7.3222,-0.4504,7.1604,6.3773,2.2124,2.5142,3.0337,3.7027,3.7323,6.4509
2074.2188,-2.6282,1.9282,5.2022,3.4979,-2.0718,10.7644,7.7698,1.7906,1.8907,-6.5439,1.5168,8.6087,10.9032,1.4912,1.5840,6.8355,2.7707,5.5287,5.9913
2078.1250,-5.2111,2.6609,5.5240,3.9719,-1.2580,11.8637,8.1345,2.8937,2.4762,-6.3938,2.0979,9.3051,15.9280,1.3731,0.9052,12.2209,2.6983,6.7066,5.5613
2082.0312,-8.4909,2.4619,5.3261,4.2715,0.0290,9.3702,6.6534,3.4433,1.9712,-7.6873,0.6479,8.3369,19.1464,1.3817,0.3728,16.2432,3.5440,6.2797,4.7739
2085.9375,-10.9625,0.8804,3.9392,4.1161,1.1340,4.1846,4.6116,3.4200,0.1284,-10.1484,-2.3336,5.7680,19.0474,1.1853,-0.4084,16.8828,5.0746,4.2867,3.5244
2089.8438,-11.7038,-1.5359,1.7146,3.7936,1.8806,-1.0982,3.7474,3.3990,-2.3135,-12.4849,-5.4915,2.7048,15.8063,0.8594,-1.7748,14.3907,6.9261,1.8205,2.1751
2093.7500,-10.8367,-3.4952,-0.0440,3.9056,2.4711,-3.7359,4.8070,3.9883,-4.0598,-13.2672,-7.4659,0.6379,11.0880,0.7942,-3.6784,10.7858,8.6946,0.2986,1.3828
2097.6562,-9.3388,-3.8784,-0.0357,4.8218,3.1302,-2.6135,6.9099,5.2564,-4.1682,-11.9940,-7.6983,0.5068,6.9414,1.3403,-5.6298,8.0260,9.9294,0.5078,1.6604
2101.5625,-8.3503,-2.6097,1.9308,6.2825,3.8309,1.0112,8.2866,6.6222,-2.7534,-9.5598,-6.6594,2.1260,4.5770,2.4843,-6.9613,6.4565,10.1504,2.1110,2.9725
2105.4688,-8.4518,-0.7732,4.6022,7.4760,4.3123,4.3601,7.7531,7.2822,-0.9493,-7.7540,-5.4091,4.3539,3.8344,3.8071,-7.2401,4.8466,9.0159,3.9427,4.6544
2109.3750,-9.3867,0.1418,6.0591,7.5489,4.3198,4.9977,5.6420,6.8048,-0.1480,-8.1101,-4.8583,5.8597,3.5936,4.7563,-6.5572,1.9065,6.5990,4.8369,5.7324
2113.2812,-10.3884,-0.7000,5.0607,6.1804,3.8187,2.3781,3.3960,5.4051,-1.0680,-10.8887,-5.2556,5.9471,2.7060,5.0167,-5.5062,-2.1183,3.5461,4.3726,5.4469
2117.1875,-10.8411,-2.9254,1.9301,3.8073,2.9893,-1.9913,2.2192,3.7030,-3.3151,-14.8793,-6.1875,4.8844,0.7293,4.7020,-4.8609,-5.2478,0.8947,3.0338,3.6495
2121.0938,-10.7769,-5.3052,-1.7109,1.3486,2.0337,-5.7878,2.0221,2.2098,-5.7143,-18.1281,-6.9927,3.5658,-1.9924,4.2309,-5.1436,-5.2251,-0.4471,1.7430,0.8329
2125.0000,-10.8467,-6.7070,-4.1504,-0.3601,0.9984,-7.5050,1.6176,0.9978,-7.1302,-19.0818,-7.2397,2.7956,-4.8076,3.9913,-6.3278,-1.4425,-0.2571,1.1661,-2.1940
2128.9062,-11.7908,-6.8932,-4.8015,-1.0313,-0.2104,-7.2677,-0.0192,-0.1800,-7.1791,-17.4089,-6.9538,2.7178,-7.3110,4.0494,-7.8405,4.2928,0.8104,1.2946,-4.7503
2132.8125,-13.8119,-6.5738,-4.4907,-0.9964,-1.6338,-6.3488,-2.6111,-1.4658,-6.3692,-14.0458,-6.5099,2.7717,-9.5270,4.1115,-8.8621,8.8504,1.5961,1.5455,-6.5594
2136.7188,-16.3157,-6.7345,-4.6381,-0.8819,-3.0818,-5.9468,-4.6666,-2.5844,-5.6482,-10.5594,-6.3352,2.1654,-11.6580,3.7594,-8.7647,9.9112,1.1642,1.2376,-7.7173
2140.6250,-18.2147,-7.8203,-6.0188,-1.1500,-4.1586,-6.2827,-4.7982,-2.9561,-5.7305,-8.3106,-6.6298,0.5093,-13.7026,2.7807,-7.4558,7.4970,-0.5921,0.0747,-8.4379
2144.5312,-18.5775,-9.4196,-8.1043,-1.8130,-4.5012,-6.6874,-3.1111,-2.1650,-6.6639,-7.9065,-7.2463,-1.8317,-15.3142,1.3603,-5.4400,3.7620,-2.8905,-1.6682,-8.8011
2148.4375,-17.1699,-10.6505,-9.4941,-2.4806,-4.0438,-6.4448,-1.3511,-0.3897,-7.8674,-9.1301,-7.7562,-3.8978,-16.0224,0.0031,-3.5593,1.3045,-4.5876,-3.3202,-8.6955
2152.3438,-14.5334,-10.8870,-9.0642,-2.6676,-3.0859,-5.5454,-1.5395,1.5883,-8.5421,-11.2080,-7.6631,-4.6995,-15.6143,-0.7554,-2.5532,1.3558,-4.9213,-4.1960,-7.9807
2156.2500,-11.5994,-10.2312,-6.9054,-2.1455,-2.0934,-4.6679,-4.1878,2.8433,-8.1636,-13.1723,-6.6879,-3.8348,-14.3549,-0.6582,-2.6861,3.1635,-3.9529,-3.9612,-6.7202
2160.1562,-9.1538,-9.3963,-4.3182,-1.1224,-1.3828,-4.4649,-7.6495,2.8964,-6.7861,-14.1671,-5.0086,-1.7859,-12.8737,0.1393,-3.6602,4.8358,-2.4290,-2.8193,-5.2851
2164.0625,-7.5296,-9.1525,-2.8912,-0.1568,-0.9238,-4.8689,-9.2730,1.9990,-5.0391,-13.6954,-3.3066,0.2804,-11.8158,1.1874,-4.8516,4.7941,-1.2043,-1.4584,-4.2231
2167.9688,-6.6744,-9.8038,-3.3949,0.1414,-0.4018,-5.1033,-7.4939,0.9179,-3.8447,-11.8137,-2.5080,1.1116,-11.5118,2.0323,-5.7020,2.6968,-0.6652,-0.7695,-3.9608
2171.8750,-6.4394,-11.0639,-5.3191,-0.5353,0.5294,-4.4059,-3.1483,0.4103,-3.9742,-9.1889,-3.2736,0.0538,-11.8608,2.4970,-5.9964,-0.6631,-0.5466,-1.4168,-4.5283
2175.7812,-6.7922,-12.3328,-7.3342,-1.9694,2.0001,-2.7919,1.1152,0.7832,-5.6149,-6.8816,-5.5014,-2.5403,-12.4365,2.7826,-5.8487,-4.0777,-0.2151,-3.4241,-5.4898
2179.6875,-7.7749,-13.0719,-8.2410,-3.4607,3.8480,-1.1144,2.8745,1.8140,-8.1421,-5.8437,-8.1898,-5.4111,-12.6918,3.3304,-5.4404,-6.5084,0.8466,-6.0068,-6.1364
2183.5938,-9.2817,-12.9792,-7.6632,-4.1491,5.7214,-0.3089,1.7440,2.9987,-10.2722,-6.3523,-9.8507,-6.9817,-12.1411,4.5219,-4.7532,-7.1839,2.7191,-7.8266,-5.8355
2187.5000,-10.8928,-11.9309,-6.0331,-3.4784,7.2455,-0.4789,-0.5352,3.8704,-10.6200,-7.7522,-9.3020,-6.1614,-10.4954,6.3966,-3.5387,-5.4992,5.0755,-7.6415,-4.3428
2191.4062,-11.9531,-9.8929,-4.0418,-1.5570,8.1327,-0.6855,-1.7603,4.1522,-8.4474,-8.7535,-6.3673,-2.9510,-7.7788,8.5578,-1.5763,-1.1980,7.4577,-5.0444,-1.9147
2195.3125,-11.8712,-6.9996,-2.1148,0.8134,8.2135,0.2671,-1.2219,3.7229,-4.1958,-8.1825,-2.0166,1.4868,-4.4144,10.3308,0.9823,5.1146,9.5336,-0.8432,0.8147
2199.2188,-10.4405,-3.7525,-0.3546,2.5006,7.4466,2.6538,-0.2451,2.5443,0.5708,-5.7395,2.1711,5.3595,-1.1920,11.0858,3.4800,11.6645,11.1420,3.2164,3.0977
2203.1250,-7.9678,-1.0780,1.1032,2.6182,5.9497,5.2846,-0.8468,0.6844,3.8762,-2.2627,4.8730,7.1137,0.9596,10.5375,4.9944,16.0013,12.1453,5.2989,4.3283
2207.0312,-5.1484,-0.0209,1.7744,0.9811,4.0167,6.1819,-3.7023,-1.5967,4.3432,0.7039,5.6439,6.1750,1.3534,8.8432,4.8298,16.2693,12.2825,4.4253,4.1848
2210.9375,-2.7905,-1.1513,0.9688,-1.8367,2.0466,4.0720,-7.2567,-3.8486,1.9175,1.7868,4.9200,3.1593,-0.1189,6.4580,2.9382,12.4455,11.1995,0.9533,2.6544
2214.8438,-1.5410,-4.0685,-1.6311,-4.8676,0.3734,-0.4442,-8.8621,-5.6075,-2.1326,0.5590,3.4997,-0.5348,-2.9126,3.8613,-0.0150,6.5417,8.6755,-3.6825,0.0045
2218.7500,-1.7005,-7.4143,-5.4248,-7.2821,-0.8925,-5.0100,-7.0538,-6.6434,-5.9278,-2.2478,1.9674,-3.4783,-6.0903,1.3491,-2.9755,1.4526,4.8849,-7.7706,-3.2415
2222.6562,-3.1259,-9.4944,-8.9065,-8.7335,-1.8649,-6.9368,-3.0139,-7.0572,-7.9403,-5.1888,0.5062,-4.8541,-8.7588,-0.9752,-4.9872,-0.8205,0.4922,-10.1375,-6.3360
2226.5625,-5.2109,-9.1669,-10.3664,-9.3183,-2.6884,-4.9427,0.1400,-7.1061,-7.6240,-6.8973,-0.8399,-4.6522,-10.4091,-3.0468,-5.5382,-0.2952,-3.5232,-10.5058,-8.4210
2230.4688,-6.9933,-6.4446,-8.8697,-9.2612,-3.3026,0.0379,-0.1963,-6.8905,-5.4082,-6.7457,-1.7992,-3.4015,-10.9705,-4.6886,-4.6185,1.3215,-6.2412,-9.2937,-8.7749
2234.3750,-7.4527,-2.4268,-4.8542,-8.6342,-3.4003,5.5241,-3.8712,-6.2012,-2.2021,-5.0367,-1.8259,-1.7162,-10.6197,-5.6284,-2.5704,2.1048,-7.1884,-7.1378,-7.1371
2238.2812,-5.9610,1.3713,0.0742,-7.3601,-2.6852,9.0999,-7.8302,-4.7227,1.1608,-2.6950,-0.4804,0.0059,-9.5587,-5.7005,0.0781,1.3488,-6.5422,-4.5408,-3.9389
2242.1875,-2.6767,3.8428,4.0236,-5.4749,-1.2659,9.7976,-8.3144,-2.4711,4.1804,-0.6897,2.0855,1.5859,-7.9546,-5.0718,2.6943,-0.1096,-5.0504,-1.8387,-0.2494
2246.0938,1.3981,4.7605,5.8071,-3.3733,0.1671,8.3519,-3.7601,-0.0754,6.6128,0.4896,5.0110,2.8904,-6.0458,-4.2755,4.6060,-0.8056,-3.6984,0.6353,2.6199
2250.0000,4.8342,4.6741,5.4432,-1.7543,0.6252,6.3335,3.8522,1.4224,8.2929,1.0568,7.1697,3.7225,-4.2429,-3.9655,5.2772,0.0660,-3.2674,2.4620,3.6957
2253.9062,6.4923,4.4038,3.9242,-1.2386,-0.5385,4.9594,10.2748,1.2044,9.0958,1.7633,7.8775,3.9116,-3.0513,-4.5260,4.5919,2.0732,-3.9893,3.2692,2.7936
2257.8125,6.1145,4.5153,2.4925,-1.9413,-3.0831,4.4725,11.9366,-0.6990,9.0579,3.4168,7.3084,3.5069,-2.8191,-5.8118,3.0476,4.0705,-5.4719,2.9732,0.5634
2261.7188,4.3975,5.0830,1.9202,-3.3586,-5.8901,4.3879,8.3413,-3.3108,8.4646,6.3060,6.2682,2.8509,-3.5072,-7.2261,1.6096,5.2619,-6.9533,1.8808,-1.9141
2265.6250,2.4846,5.7962,2.1995,-4.6981,-7.6208,4.1884,2.1838,-5.2796,7.7299,9.8349,5.5055,2.4005,-4.6908,-8.1012,1.1879,5.8360,-7.7635,0.5186,-3.7333
2269.5312,1.2266,6.2417,2.7399,-5.4087,-7.6019,3.7899,-2.7608,-5.7359,7.1179,12.6346,5.1357,2.4037,-5.8237,-8.1154,2.0262,6.6570,-7.7315,-0.6852,-4.5878
2273.4375,0.7254,6.1523,2.8650,-5.4818,-6.2854,3.4469,-4.2714,-4.7901,6.5594,13.2025,4.6720,2.7042,-6.5620,-7.4450,3.4544,8.3453,-7.2736,-1.5917,-4.7513
2277.3438,0.4653,5.5136,2.2822,-5.2715,-4.8968,3.3294,-2.8855,-3.2871,5.7797,10.7953,3.6367,2.8752,-6.8849,-6.5507,4.2705,10.5785,-7.0821,-2.2464,-4.6662
2281.2500,-0.1135,4.5419,1.2749,-4.9972,-4.4929,3.2722,-0.9697,-2.0275,4.6770,6.0534,2.2055,2.6130,-6.9219,-5.7810,3.5609,12.1926,-7.6055,-2.5928,-4.4748
2285.1562,-1.0707,3.5920,0.5438,-4.3917,-5.1285,2.9639,-0.6129,-1.1036,3.6193,0.8889,1.2733,2.0749,-6.6627,-5.1170,1.3962,11.9591,-8.6843,-2.3096,-3.8646
2289.0625,-1.8807,3.0268,0.7968,-2.8692,-5.7943,2.3699,-2.0670,0.0806,3.3296,-2.4239,1.8004,1.8465,-5.8489,-4.2640,-1.1342,9.3928,-9.6289,-0.9925,-2.3628
2292.9688,-1.8587,3.0660,2.2992,-0.1420,-5.2120,1.9335,-3.8328,2.1114,4.3565,-2.4833,3.9342,2.5045,-4.1927,-3.0054,-2.6277,5.0267,-9.7171,1.4158,0.1449
2296.8750,-0.7415,3.6542,4.6243,3.2235,-2.9023,2.2964,-4.1001,4.7826,6.5094,0.4394,6.6476,4.0812,-1.7651,-1.5102,-2.3379,0.1022,-8.7610,4.3117,3.0868
2300.7812,1.0428,4.4328,6.7678,5.8602,0.3069,3.7276,-2.2660,6.9410,8.7466,4.5750,8.2736,5.8656,0.7975,-0.3128,-0.7059,-3.9600,-7.3073,6.5651,5.3682
2304.6875,2.6169,4.8745,7.6116,6.3722,2.7609,5.7419,0.6229,7.1828,9.6959,7.7206,7.5973,6.7490,2.5175,0.0485,0.9447,-5.9685,-6.2843,7.1017,5.9646
2308.5938,3.2005,4.5373,6.5112,4.3230,3.1211,7.2525,2.6765,4.9122,8.4903,8.4987,4.6917,5.9158,2.6362,-0.5445,1.3272,-5.2279,-6.3334,5.5453,4.5451
2312.5000,2.5329,3.2880,3.6552,0.6751,1.3140,7.1773,2.4353,0.9220,5.3123,6.9862,0.8482,3.3920,1.1155,-1.6543,0.0450,-1.8299,-7.3289,2.4440,1.6785
2316.4062,0.8848,1.3409,-0.0560,-2.7535,-1.4393,5.0672,-0.3583,-3.0212,1.2340,4.3481,-2.3562,0.0457,-1.3120,-2.5794,-2.2374,3.0657,-8.4736,-1.1113,-1.5430
2320.3125,-1.2699,-0.9196,-3.5725,-4.5148,-3.5412,1.3443,-4.8801,-5.3417,-2.5326,1.8405,-4.1425,-2.9699,-3.6110,-2.8661,-4.3893,7.3207,-8.9204,-4.2038,-4.2085
2324.2188,-3.5941,-3.1960,-6.3402,-4.5656,-4.1824,-2.9391,-9.8893,-5.7151,-5.4013,-0.0231,-4.9422,-4.9342,-5.0946,-2.6475,-5.6758,8.6261,-8.4488,-6.6104,-6.1230
2328.1250,-5.9543,-5.4114,-8.5761,-4.3074,-3.8600,-6.5811,-14.3176,-5.2216,-7.6180,-1.5331,-5.8637,-5.9254,-5.7804,-2.5346,-6.2119,5.8374,-7.6565,-8.7491,-7.7981
2332.0312,-8.2254,-7.6215,-10.9599,-5.5309,-3.8690,-8.6502,-17.4628,-5.4712,-9.7914,-3.1288,-7.6807,-6.6032,-6.2046,-3.1304,-6.6949,-0.0180,-7.4979,-11.1352,-9.9239
2335.9375,-10.0979,-9.7985,-13.9594,-9.0018,-5.1872,-8.7242,-18.9389,-7.3640,-12.1803,-4.6751,-10.1705,-7.6121,-6.8785,-4.5411,-7.6953,-6.0011,-8.5212,-13.8089,-12.7318
2339.8438,-11.1426,-11.7007,-17.3096,-13.7424,-7.6486,-7.0145,-18.6904,-10.4243,-14.3575,-5.3607,-12.3096,-9.0786,-7.8437,-6.2664,-9.1250,-8.9509,-10.4139,-16.2058,-15.7310
2343.7500,-11.1194,-12.9749,-20.0772,-17.5910,-10.0615,-4.4180,-17.1413,-13.1916,-15.5355,-4.3562,-13.1236,-10.5649,-8.6837,-7.5584,-10.3231,-7.6033,-12.2347,-17.5664,-18.0180
2347.6562,-10.2530,-13.4296,-21.3009,-18.6756,-11.1673,-2.3769,-15.2316,-14.3347,-15.2721,-1.6860,-12.4730,-11.4660,-8.9525,-7.9724,-10.6644,-3.5738,-13.1585,-17.5344,-18.9202
2351.5625,-9.1810,-13.2483,-20.7273,-16.7384,-10.6655,-2.3757,-14.0884,-13.6129,-13.9354,1.4725,-11.1425,-11.4978,-8.6225,-7.6742,-10.1526,-0.3020,-13.1318,-16.4478,-18.4809
2355.4688,-8.5538,-12.9321,-19.0509,-13.3253,-9.4679,-5.1357,-14.4135,-11.9612,-12.5054,3.4227,-10.1983,-10.8850,-8.1410,-7.2625,-9.4796,-0.5677,-12.8868,-15.0817,-17.4144
2359.3750,-8.5783,-12.9690,-17.4258,-10.6808,-8.9598,-9.9454,-16.0135,-10.6832,-11.8433,3.1106,-10.1719,-10.1337,-8.0198,-7.2449,-9.4840,-4.3911,-13.2747,-14.0573,-16.5609
2363.2812,-8.8808,-13.4664,-16.5970,-10.1509,-9.8396,-14.7053,-17.8794,-10.4230,-12.0218,0.9324,-10.7342,-9.6159,-8.2964,-7.5849,-10.4506,-8.9616,-14.4469,-13.3992,-16.2508
2367.1875,-8.8190,-14.0362,-16.3328,-11.2666,-11.4611,-16.9154,-18.8180,-10.7272,-12.2813,-1.4747,-11.0847,-9.3277,-8.3486,-7.6903,-11.8318,-10.7360,-15.5722,-12.5978,-16.0639
2371.0938,-8.0043,-14.0514,-15.6411,-12.1812,-12.2281,-15.1519,-18.1951,-10.5100,-11.6747,-2.3551,-10.6781,-9.0070,-7.2769,-6.8710,-12.6331,-8.1349,-15.3786,-11.1193,-15.1718
2375.0000,-6.6201,-13.1077,-13.6434,-11.1284,-10.7787,-10.0855,-16.2661,-9.0144,-9.8992,-1.0553,-9.6666,-8.4806,-4.6129,-4.9288,-12.1701,-2.7629,-13.1515,-8.9517,-13.0221
2378.9062,-5.2927,-11.3628,-10.4404,-7.8147,-7.0757,-4.2609,-13.9182,-6.4969,-7.6468,1.5638,-8.7175,-7.9213,-0.8222,-2.4263,-10.6095,1.7820,-9.4249,-6.7521,-9.8611
2382.8125,-4.6404,-9.5071,-7.2624,-3.7203,-2.5716,-0.6619,-12.1001,-4.1091,-6.1798,3.8154,-8.4192,-7.7811,2.8084,-0.4155,-8.8833,2.5410,-5.7979,-5.4808,-6.7080
2386.7188,-4.8830,-8.3848,-5.7234,-1.0946,0.6997,-0.9683,-11.3830,-3.0955,-6.4474,4.4390,-8.8190,-8.4546,4.8615,0.1963,-8.0556,-0.8037,-3.9622,-5.8011,-4.7837
2390.6250,-5.8144,-8.5254,-6.6967,-1.3944,1.4539,-4.6740,-11.8633,-3.9350,-8.4137,3.4710,-9.4849,-9.9507,4.5988,-0.7979,-8.6300,-6.0475,-4.6216,-7.6804,-4.7847
2394.5312,-7.1058,-9.8873,-9.6468,-4.3002,-0.0437,-9.6324,-13.2731,-6.0606,-11.0946,2.1162,-9.9946,-11.8454,2.3437,-2.8077,-10.2934,-10.4165,-7.0812,-10.4491,-6.4927
2398.4375,-8.6168,-11.9406,-12.9369,-7.9897,-2.2633,-13.5609,-15.0565,-8.3102,-13.2457,1.7771,-10.3804,-13.5530,-0.7896,-4.8533,-12.2273,-12.6204,-9.7797,-13.2239,-8.9626
2402.3438,-10.4074,-13.9822,-14.9046,-10.4207,-3.5347,-15.3714,-16.3848,-9.7138,-14.1604,3.0137,-11.1129,-14.7010,-3.5907,-6.1744,-13.6913,-13.3361,-11.3513,-15.3694,-11.1305
2406.2500,-12.4450,-15.4532,-14.9241,-10.6602,-3.1777,-15.4160,-16.3283,-10.0198,-14.0015,5.1924,-12.6289,-15.3243,-5.3792,-6.6214,-14.4303,-13.9338,-11.4381,-16.7049,-12.4108
2410.1562,-14.3172,-16.0919,-13.6955,-9.3259,-1.8459,-14.6510,-14.3390,-9.6308,-13.4892,7.0098,-14.8250,-15.7554,-6.1813,-6.5980,-14.6619,-14.8132,-10.7079,-17.4013,-12.8998
2414.0625,-15.2895,-15.9129,-12.5924,-7.9100,-0.9014,-13.5774,-10.8220,-9.1028,-13.2698,7.4133,-16.9747,-16.3270,-6.4403,-6.6569,-14.7511,-14.9817,-10.1551,-17.7343,-13.1078
2417.9688,-14.7561,-15.1137,-12.6063,-7.5824,-1.3452,-11.9053,-7.2539,-8.6678,-13.4838,6.2225,-18.1617,-17.1263,-6.5657,-7.0785,-14.8847,-13.2663,-10.2825,-17.9034,-13.4709
2421.8750,-12.7572,-13.9994,-13.6937,-8.4025,-3.1112,-9.1805,-5.4862,-8.1514,-13.8169,4.0773,-17.8830,-17.9619,-6.6733,-7.7308,-14.9785,-9.9477,-10.7886,-17.9963,-14.0172
2425.7812,-10.1223,-12.9250,-14.9756,-9.4853,-5.2042,-5.7104,-6.5185,-7.2916,-13.8970,1.8973,-16.3357,-18.5158,-6.6506,-8.2666,-14.8085,-7.1208,-10.9395,-18.0362,-14.4010
2429.6875,-8.0575,-12.2036,-15.5553,-9.8993,-6.5161,-2.8394,-9.6251,-6.1369,-13.6389,0.3513,-14.1837,-18.5252,-6.4018,-8.4598,-14.1881,-7.1954,-10.2570,-18.0115,-14.2293
2433.5938,-7.4267,-11.9693,-15.2550,-9.5233,-6.6632,-2.1800,-12.6532,-5.1642,-13.2478,-0.3024,-12.0380,-17.8671,-6.0091,-8.3996,-13.0476,-10.7013,-8.9429,-17.8635,-13.3902
2437.5000,-8.2287,-12.0668,-14.6804,-9.1599,-6.2182,-4.3489,-13.4703,-5.0107,-12.9304,-0.0416,-10.1030,-16.5446,-5.6676,-8.3998,-11.4262,-15.3560,-7.7166,-17.4916,-12.1250
2441.4062,-9.6306,-12.0766,-14.5954,-9.8238,-6.1946,-8.2560,-11.5489,-6.0285,-12.6180,1.1150,-8.2494,-14.6611,-5.4677,-8.7096,-9.4808,-17.4195,-7.2330,-16.8168,-10.7997
2445.3125,-10.5096,-11.5060,-15.1554,-11.7829,-7.2043,-11.6112,-8.4079,-7.9985,-11.9730,3.0863,-6.3757,-12.4371,-5.2347,-9.2639,-7.5441,-14.4276,-7.5661,-15.8630,-9.5782
2449.2188,-10.1039,-10.0516,-15.6545,-14.1395,-8.9309,-12.3474,-6.4351,-10.2088,-10.6712,5.5576,-4.6635,-10.2181,-4.5804,-9.6717,-6.1234,-7.1395,-8.1632,-14.7596,-8.2679
2453.1250,-8.3528,-7.7661,-15.0183,-15.3253,-10.3074,-9.9150,-6.9373,-11.8355,-8.7003,7.9337,-3.4541,-8.3808,-3.1445,-9.4597,-5.7061,0.9095,-8.2752,-13.6273,-6.4769
2457.0312,-5.7940,-5.0255,-12.6710,-14.1866,-10.2578,-5.5047,-8.9976,-12.3686,-6.4088,9.5839,-2.8599,-7.1278,-0.8574,-8.3999,-6.4014,5.9293,-7.5116,-12.4392,-3.9766
2460.9375,-3.2110,-2.3330,-9.0984,-10.8752,-8.4642,-1.0996,-10.1677,-11.8304,-4.2704,10.2338,-2.5018,-6.3081,1.9539,-6.6925,-7.6727,6.4507,-6.0981,-11.0137,-0.9999
2464.8438,-1.3190,-0.1059,-5.6567,-6.8799,-5.6204,1.8462,-8.5307,-10.6911,-2.5812,10.1519,-1.6847,-5.4564,4.6764,-4.8787,-8.4682,3.9501,-4.6810,-9.2053,1.7594
2468.7500,-0.6175,1.4230,-3.7489,-4.1424,-3.0113,3.1069,-4.4645,-9.5731,-1.3507,9.9130,0.0667,-4.1076,6.6592,-3.5449,-7.8062,1.1973,-3.8704,-7.1692,3.4758
2472.6562,-1.3264,2.1742,-3.9569,-3.8525,-1.7312,3.3675,-0.5721,-8.9292,-0.4591,9.8934,2.5410,-2.2112,7.4570,-3.0090,-5.4903,-0.1040,-3.8753,-5.4530,3.6471
2476.5625,-3.2869,2.1512,-5.7342,-5.7366,-2.0761,3.3582,0.2845,-8.8542,0.0935,9.9332,4.8618,-0.3231,6.9608,-3.1860,-2.4192,-0.3474,-4.4700,-4.7640,2.3808
2480.4688,-5.8724,1.4248,-7.8375,-8.3080,-3.4913,3.2716,-2.7088,-9.1000,0.0977,9.4969,6.0331,0.6359,5.3884,-3.7007,-0.1634,-1.0138,-5.2558,-5.5165,0.3279
2484.3750,-8.1041,0.1688,-9.1528,-9.8802,-5.0517,2.9039,-7.6028,-9.2647,-0.7036,8.2336,5.6073,-0.0472,3.1671,-4.1586,-0.0003,-2.7896,-5.9820,-7.4868,-1.6919
2488.2812,-9.0896,-1.3409,-9.3303,-9.6419,-6.0963,2.2113,-11.2282,-9.0514,-2.3485,6.4471,3.9530,-2.3594,0.7656,-4.3918,-2.0491,-4.7093,-6.6946,-9.8784,-3.1297
2492.1875,-8.5984,-2.8291,-8.8395,-8.0876,-6.5746,1.5931,-11.7595,-8.4637,-4.5353,5.0094,1.9187,-5.4913,-1.4682,-4.5274,-5.1491,-5.1495,-7.6447,-11.8055,-3.9394
2496.0938,-7.3418,-4.1778,-8.4937,-6.5623,-6.9084,1.5333,-10.1343,-7.8184,-6.7660,4.6996,0.1785,-8.3065,-3.4007,-4.8486,-7.6231,-3.6441,-9.0603,-12.8642,-4.4772
2500.0000,-6.6194,-5.4848,-8.8414,-6.2814,-7.5355,1.9494,-9.0672,-7.5458,-8.6329,5.4825,-1.1990,-10.0322,-5.0912,-5.5513,-8.4122,-1.6176,-10.9432,-13.3523,-5.1600
2503.9062,-7.4421,-6.9158,-9.8393,-7.5042,-8.5079,1.9867,-10.4490,-7.8760,-9.9988,6.3708,-2.6104,-10.6691,-6.6539,-6.5592,-7.7607,-1.1186,-12.9995,-13.9425,-6.1248
2507.8125,-9.7215,-8.4192,-10.9593,-9.3889,-9.4452,0.6530,-13.3843,-8.6102,-10.9180,6.0933,-4.3488,-10.8162,-8.0758,-7.5186,-6.9388,-2.6288,-14.7170,-15.0374,-7.1074
2511.7188,-12.1784,-9.5361,-11.5691,-10.5734,-9.8505,-2.1316,-14.6888,-9.1582,-11.3893,4.1259,-6.1122,-11.0499,-9.1156,-7.9727,-7.1933,-4.1338,-15.5476,-16.3064,-7.6024
2515.6250,-13.1482,-9.5334,-11.2900,-10.0568,-9.5206,-5.0297,-11.6057,-8.8709,-11.1968,1.2775,-7.0445,-11.3525,-9.3760,-7.6084,-8.7095,-2.6947,-15.1302,-16.7921,-7.1840
2519.5312,-11.7614,-7.8649,-10.1371,-7.8035,-8.7235,-5.9691,-4.5141,-7.4804,-10.0206,-0.7056,-6.3221,-11.0544,-8.5308,-6.4266,-10.3735,2.5585,-13.4766,-15.5478,-5.7746
2523.4375,-8.6228,-4.6768,-8.4400,-4.7262,-8.0074,-3.6761,2.7776,-5.3514,-7.7577,-0.3171,-3.8474,-9.3646,-6.5681,-4.7439,-10.5421,8.7077,-11.0244,-12.3538,-3.7014
2527.3438,-5.4333,-0.9648,-6.6696,-2.1177,-7.7962,1.1164,5.6557,-3.3390,-4.7776,2.5743,-0.4972,-6.0925,-3.8756,-3.0376,-8.2799,10.5878,-8.4855,-7.9817,-1.5287
2531.2500,-3.7998,1.8289,-5.2788,-0.9261,-8.0861,5.8668,2.2796,-2.3041,-1.8605,6.4836,2.2970,-1.9956,-1.0918,-1.7333,-4.1674,4.8715,-6.5144,-3.8005,0.2173
2535.1562,-4.1254,2.5989,-4.5786,-1.3014,-8.4747,7.8694,-4.8064,-2.5882,0.1944,9.1792,3.3686,1.5518,1.1927,-1.0496,-0.0831,-6.4710,-5.3588,-0.9983,1.2662
2539.0625,-5.4353,1.2630,-4.6297,-2.6188,-8.4883,6.1891,-10.4861,-3.7995,1.0325,9.0810,2.4856,3.3704,2.6924,-0.9625,1.9131,-16.4801,-4.7241,0.0475,1.6613
2542.9688,-6.2597,-1.1168,-5.1682,-3.8876,-7.9404,2.3931,-10.9996,-5.0605,0.9482,6.2305,0.4489,3.2053,3.4850,-1.2742,0.8485,-17.6425,-3.9866,-0.1499,1.6599
2546.8750,-5.8484,-2.8926,-5.6448,-4.2658,-7.0381,-0.5485,-6.8720,-5.5549,0.6852,2.2043,-1.3930,1.8625,3.8588,-1.7232,-2.5704,-7.3984,-2.6597,-0.6362,1.5576
2550.7812,-4.7203,-2.7358,-5.4354,-3.4167,-6.1593,-0.4011,-2.4260,-5.0043,0.9806,-0.8974,-1.8616,0.6649,4.0821,-2.0823,-6.3908,9.5236,-0.8049,-0.6235,1.5340
2554.6875,-4.0984,-0.3314,-4.1651,-1.5827,-5.4990,2.7862,-2.1884,-3.7680,2.1678,-1.6503,-0.4696,0.6138,4.2583,-2.2204,-8.5429,23.9852,0.9245,0.1630,1.5836
2558.5938,-4.7140,3.5451,-1.9576,0.5886,-4.8921,6.8979,-7.0471,-2.5274,4.0787,0.0742,2.4717,1.8255,4.3356,-2.1366,-7.9370,28.5801,1.6792,1.5462,1.5441
2562.5000,-6.0076,7.5570,0.5807,2.3470,-3.9801,9.5105,-13.2878,-1.8023,6.2412,3.3302,6.0958,3.5863,4.2079,-1.9653,-4.9090,22.4980,0.9969,3.1892,1.1997
2566.4062,-6.4469,10.5532,2.6792,3.1454,-2.6005,9.7491,-15.3591,-1.6391,8.1761,6.8224,9.3657,4.9219,3.7973,-1.9354,-0.8622,11.5221,-0.8500,4.8204,0.4186
2570.3125,-4.7499,12.0586,3.8426,2.8483,-1.0729,8.7568,-10.2156,-1.6585,9.5802,9.5547,11.4232,5.2468,3.0612,-2.2724,2.5642,3.3604,-3.0070,6.2468,-0.7346
2574.2188,-1.0254,12.2744,4.1169,1.7759,-0.1124,8.4625,0.1959,-1.3856,10.3387,11.0501,11.8352,4.6633,1.9741,-3.0645,4.2814,2.0880,-4.5955,7.2551,-1.9738
2578.1250,3.1407,11.7124,3.9926,0.5545,-0.3784,9.7475,10.2598,-0.6025,10.4629,11.2180,10.7140,3.7723,0.5606,-4.1674,4.1178,5.9703,-5.2691,7.6052,-2.8907
2582.0312,5.7819,10.7992,4.0113,-0.1783,-1.9697,11.5968,14.7472,0.5155,10.0714,10.1759,8.6743,3.2057,-1.0125,-5.2219,2.6988,9.9980,-5.3604,7.1972,-3.1546
2585.9375,5.9898,9.7230,4.3681,-0.0863,-4.2470,11.9770,12.4102,1.5421,9.4289,8.2235,6.5895,3.2331,-2.3793,-5.8076,1.0154,10.6025,-5.5270,6.2676,-2.7106
2589.8438,4.5475,8.5504,4.8139,0.7083,-6.1507,9.7057,6.4074,2.0882,8.9421,5.8846,5.2091,3.6788,-3.0728,-5.6616,-0.0651,8.4298,-6.1904,5.3867,-1.8444
2593.7500,3.2439,7.4214,4.9343,1.7253,-6.8246,5.7054,1.4720,2.0355,9.0226,3.7980,4.8213,4.1283,-2.7832,-4.8344,-0.1469,6.9876,-7.2152,5.1658,-1.0433
2597.6562,3.4166,6.6080,4.5872,2.4374,-6.1329,2.5074,0.2937,1.5801,9.8547,2.3962,5.1779,4.2217,-1.6228,-3.6791,0.5951,8.6895,-8.0703,5.8503,-0.7119
2601.5625,4.9009,6.3733,4.1335,2.5929,-4.7235,2.3087,2.0042,1.0848,11.2296,1.5967,5.7439,3.8259,-0.1797,-2.6745,1.5783,12.0738,-8.3187,7.1098,-0.9228
2605.4688,6.2344,6.7571,4.2370,2.3268,-3.6088,5.1155,3.7081,0.8475,12.5968,0.8348,6.0941,3.0191,0.7469,-2.1871,2.1666,12.8528,-8.0161,8.2183,-1.3835
2609.3750,5.9425,7.4792,5.3361,1.9810,-3.5548,8.5060,3.4130,0.9127,13.3334,-0.4654,6.1513,1.9626,0.6043,-2.3109,2.0495,7.9578,-7.6797,8.5161,-1.6677
2613.2812,3.8470,8.0538,7.1708,1.7730,-4.6696,9.2979,1.6872,1.0275,13.0615,-2.2888,6.0811,0.7846,-0.5575,-2.8636,1.4349,-1.0386,-7.8483,7.8178,-1.5572
2617.1875,1.3155,8.0408,8.7585,1.5806,-6.4119,5.9026,0.7018,0.7744,11.8011,-3.8124,5.9526,-0.4548,-2.0848,-3.5082,0.9151,-8.3632,-8.5938,6.4665,-1.2403
2621.0938,0.2236,7.2642,8.9166,1.0410,-7.9401,-0.4124,1.7377,-0.1624,9.8781,-3.8704,5.4948,-1.7292,-3.0942,-3.9018,1.0554,-8.3056,-9.3920,5.0135,-1.1877
2625.0000,1.4438,5.8594,7.0330,-0.0893,-8.5342,-6.3095,3.6135,-1.7192,7.6887,-1.8720,4.2192,-2.9944,-2.9781,-3.7863,1.9541,0.0960,-9.4666,3.7995,-1.7648
2628.9062,4.0633,4.1431,3.5685,-1.5914,-7.8467,-8.6370,3.6083,-3.3376,5.5179,1.4847,1.8576,-4.1591,-1.7068,-3.0106,3.0824,11.8845,-8.3407,2.7719,-2.8594
2632.8125,5.9594,2.4153,-0.0896,-2.7672,-5.9229,-6.5127,0.1298,-4.1466,3.5236,4.3113,-1.2459,-5.0869,0.2513,-1.5322,3.5534,19.6406,-6.1614,1.6604,-3.8283
2636.7188,5.3041,0.8251,-2.3840,-2.8310,-3.0954,-1.7963,-5.3144,-3.4237,1.8364,4.5098,-4.1737,-5.6240,2.2929,0.5603,2.6708,18.8635,-3.5550,0.3262,-3.8596
2640.6250,1.8635,-0.6350,-2.4991,-1.4701,0.1269,2.2540,-8.8075,-1.1074,0.6203,1.0563,-5.9641,-5.6543,4.0416,3.0210,0.3994,10.9816,-1.1459,-1.0415,-2.5343
2644.5312,-2.8509,-2.0373,-0.8439,0.8360,3.1478,3.0674,-7.0565,1.9771,-0.0005,-5.2661,-6.2720,-5.1711,5.4604,5.4740,-2.5728,1.6945,0.8610,-2.0615,-0.1923
2648.4375,-6.6279,-3.4136,1.2119,3.0145,5.4130,0.1436,-0.3189,4.4140,-0.0889,-12.2081,-5.6472,-4.3338,6.6892,7.5251,-5.2305,-3.7777,2.7009,-2.5111,2.1880
2652.3438,-7.9767,-4.7058,2.1858,4.0302,6.6074,-5.0233,7.3186,4.9368,0.0455,-17.2806,-5.1770,-3.4533,7.7941,8.9107,-6.8152,-4.4842,4.6780,-2.5754,3.5562
2656.2500,-6.9105,-5.7884,1.3722,3.5342,6.8322,-10.1259,10.7495,3.2016,-0.0167,-19.0954,-5.7321,-2.8802,8.6584,9.5812,-7.1990,-3.5143,6.7319,-2.7564,3.4389
2660.1562,-4.6608,-6.5333,-0.7835,2.0753,6.6045,-13.3389,7.6240,0.0873,-0.5374,-17.9934,-7.3766,-2.8318,9.0945,9.6503,-6.8125,-4.2524,8.3289,-3.4881,2.2323
2664.0625,-2.7066,-6.8692,-3.0358,0.7152,6.5997,-13.9330,0.1035,-2.7344,-1.4216,-15.6276,-9.3786,-3.2603,9.0547,9.2502,-6.2186,-6.6555,8.7957,-4.7564,0.9396
2667.9688,-1.9138,-6.8065,-4.1504,0.3140,7.2527,-12.1321,-6.8015,-3.7438,-2.2603,-13.8515,-10.7898,-3.8578,8.7376,8.4224,-5.6745,-6.9912,7.8538,-6.0371,0.5383
2671.8750,-2.3221,-6.4252,-3.6356,0.9872,8.4798,-8.6808,-8.9653,-2.4514,-2.6039,-13.6577,-11.1199,-4.2138,8.4850,7.1548,-5.0061,-1.3545,5.9324,-6.6183,1.4075
2675.7812,-3.5119,-5.8444,-1.9497,2.1070,9.7371,-4.5737,-5.9827,0.3551,-2.2725,-14.7951,-10.5883,-4.0354,8.5458,5.5459,-3.8643,10.1345,3.9967,-6.0792,3.1817
2679.6875,-5.0633,-5.1981,-0.1162,2.8199,10.3956,-0.9785,-0.9649,3.1478,-1.4711,-16.1938,-9.8127,-3.2916,8.8964,3.9401,-2.1404,22.2841,2.9844,-4.5763,5.0747
2683.5938,-6.7057,-4.6257,0.9367,2.6796,10.1713,0.9333,2.3098,4.6078,-0.6336,-16.8155,-9.2627,-2.1989,9.2569,2.8632,-0.2037,28.1425,3.2378,-2.7428,6.3975
2687.5000,-8.1725,-4.2664,0.8680,1.9319,9.2976,0.4250,2.3849,4.3485,-0.1221,-16.3415,-8.9715,-1.0743,9.2828,2.7373,1.2318,24.1362,4.3257,-1.2897,6.8985
2691.4062,-9.0867,-4.2295,-0.0185,1.2700,8.3224,-2.3186,0.8114,2.9695,-0.0105,-15.2995,-8.7191,-0.1647,8.7883,3.5595,1.5267,12.8433,5.3679,-0.5960,6.7468
2695.3125,-9.1187,-4.5287,-1.0873,1.2849,7.7072,-6.1043,0.1904,1.4900,-0.0935,-14.6224,-8.4484,0.4416,7.8490,4.8130,0.5357,1.0906,5.6338,-0.5491,6.2724
2699.2188,-8.3048,-5.0087,-1.7698,2.0464,7.5505,-9.2736,1.5161,0.6379,-0.0763,-14.9723,-8.4547,0.7971,6.7464,5.7450,-1.2536,-5.1070,5.0068,-0.6895,5.7325
2703.1250,-7.1609,-5.3318,-1.7836,3.1207,7.6361,-10.5858,3.2694,0.5113,0.2244,-16.2603,-9.1107,1.0213,5.8238,5.8653,-2.9489,-4.6707,4.0221,-0.5128,5.2817
2707.0312,-6.3716,-5.0848,-1.1133,3.9669,7.7200,-9.8168,3.0428,0.7821,0.8125,-17.6404,-10.3577,1.2388,5.3546,5.3109,-3.7011,-1.4077,3.4811,0.2778,5.0867
2710.9375,-6.2391,-3.9982,0.1144,4.3647,7.7635,-7.6333,0.1393,1.1698,1.5825,-17.9706,-11.4711,1.5490,5.4666,4.7744,-3.1093,-0.0580,3.9189,1.6782,5.3781
2714.8438,-6.3700,-2.1611,1.7017,4.5232,7.8836,-4.8924,-3.3411,1.7315,2.4220,-16.4798,-11.4271,2.0049,6.1032,4.9956,-1.3696,-1.9187,5.2709,3.4307,6.3036
2718.7500,-5.9419,-0.0704,3.3638,4.8059,8.0708,-1.9882,-4.0948,2.7230,3.2466,-13.2689,-9.6680,2.5823,7.0065,6.1632,0.8774,-3.7472,6.9329,5.1314,7.6802
2722.6562,-4.4006,1.5788,4.7331,5.3272,7.9734,1.1898,-0.6185,4.1917,3.9687,-9.3571,-6.6619,3.1680,7.7493,7.6804,2.8888,-0.7765,8.1458,6.3525,8.9073
2726.5625,-2.0307,2.2803,5.4855,5.7798,7.0282,4.6972,5.0474,5.7104,4.4842,-6.2244,-3.7362,3.6126,7.8727,8.5142,4.1556,8.8060,8.4441,6.7793,9.2264
2730.4688,0.1158,2.0439,5.5528,5.6497,4.9185,7.9535,8.5861,6.5476,4.7343,-5.0757,-2.2271,3.8494,7.1122,7.9155,4.5739,21.7367,7.8837,6.3513,8.2250
2734.3750,0.9368,1.4150,5.2393,4.6477,2.0078,9.7804,6.8850,6.1858,4.7990,-6.2261,-2.5626,3.9947,5.5966,5.9977,4.3905,31.6890,6.9215,5.3381,6.2257
2738.2812,0.0990,1.1291,5.0817,3.0020,-0.6678,9.1629,0.9113,4.7763,4.9091,-8.9539,-3.9981,4.3173,3.8516,3.7296,3.9849,33.7521,6.0451,4.2619,4.2086
2742.1875,-1.7004,1.6117,5.4860,1.3633,-1.9649,6.1567,-4.5514,3.1357,5.3184,-11.9063,-5.2312,5.0435,2.5419,2.3130,3.6318,27.7738,5.4080,3.6588,3.2340
2746.0938,-3.2512,2.6861,6.3973,0.3903,-1.4139,2.1498,-4.3728,2.2344,6.1135,-13.8131,-5.4147,6.1211,2.0770,2.3708,3.3910,18.0548,4.7246,3.8022,3.7308
2750.0000,-3.7094,3.7294,7.2919,0.3363,0.3641,-0.8488,2.8459,2.5420,7.1301,-14.0831,-4.7550,7.1464,2.3454,3.5251,3.1875,9.9352,3.5084,4.5822,5.1683
2753.9062,-3.1253,4.1969,7.5631,0.9540,1.9787,-1.4371,13.3402,3.7162,8.0791,-12.9491,-4.2120,7.5817,2.7899,4.6764,3.0097,6.1834,1.5051,5.6473,6.3908
2757.8125,-2.2131,4.1232,7.0467,1.7721,2.1730,0.3352,20.6741,4.8736,8.8049,-11.1385,-4.5602,7.1627,2.8038,4.7844,3.0521,5.9005,-0.9848,6.7152,6.4110
2761.7188,-1.6013,4.1870,6.2690,2.4995,0.6916,3.1281,20.3646,5.2388,9.4537,-9.3561,-5.6123,6.2003,2.1756,3.5904,3.6490,6.2951,-3.1502,7.8087,5.0992
2765.6250,-1.2438,5.2227,6.1655,3.2183,-1.5231,5.3242,13.1374,4.6870,10.3703,-7.9509,-6.2931,5.4937,1.2497,1.7683,4.9896,5.3439,-4.1038,9.2070,3.2573
2769.5312,-0.5196,7.4984,7.4101,4.2150,-2.9789,6.0923,4.3342,3.7904,11.7581,-6.9512,-5.5514,5.8324,0.6661,0.4138,6.7995,3.0144,-3.4498,11.1235,2.0124
2773.4375,1.0610,10.3062,9.8286,5.6046,-2.6808,5.7208,-0.0557,3.3613,13.3650,-6.3458,-3.3823,7.3925,0.8579,0.2625,8.2592,0.4288,-1.5966,13.3618,1.9737
2777.3438,3.1760,12.2342,12.3564,7.0792,-0.8330,5.0712,2.2921,3.8522,14.4792,-6.3123,-1.0906,9.4723,1.6836,1.2074,8.3150,-1.6664,0.4328,15.2477,2.7789
2781.2500,4.6791,12.0045,13.6271,8.0143,1.3058,4.7154,8.5867,5.0520,14.3061,-7.1763,-0.4961,10.8195,2.4821,2.4432,6.2694,-3.3585,1.6072,15.9487,3.3725
2785.1562,4.3433,9.3270,12.8144,7.8749,2.3011,4.5053,13.2771,6.2665,12.4926,-9.1456,-2.6219,10.3880,2.5276,3.0970,2.3006,-4.6074,1.5203,14.9870,2.8076
2789.0625,1.8030,5.1633,10.1478,6.6156,1.5194,3.8735,12.2722,6.8096,9.4240,-12.0668,-6.8404,8.0360,1.5605,2.8619,-2.4595,-4.2300,0.6187,12.5895,0.9795
2792.9688,-2.0587,1.1944,6.7511,4.7674,-0.4814,2.4973,5.8215,6.4346,6.0685,-15.4292,-11.1404,4.6859,0.0137,2.1791,-6.4074,-0.4027,-0.1355,9.6203,-1.2474
2796.8750,-5.6084,-1.1596,3.9405,3.1389,-2.3879,0.6613,-1.9313,5.4304,3.4717,-18.6213,-13.3515,1.8262,-1.2257,1.8709,-8.2601,7.3323,0.0706,7.1389,-2.6033
2800.7812,-7.4776,-1.5055,2.4900,2.3483,-3.0355,-1.0208,-6.1102,4.3815,2.2498,-21.2228,-12.4726,0.6849,-1.3460,2.5260,-7.6889,16.4230,1.3820,5.8837,-2.2489
2804.6875,-7.3403,-0.5395,2.3559,2.5143,-2.1277,-2.2412,-4.4564,3.8126,2.4031,-23.0969,-9.2040,1.6026,-0.0751,4.0901,-5.4127,22.0579,3.2577,6.0035,-0.2968
2808.5938,-5.9157,0.5638,2.9644,3.2918,-0.3070,-3.3502,1.5133,3.9563,3.5008,-24.2354,-5.3963,3.9618,2.2005,5.9253,-2.7178,20.3835,4.9275,7.1402,2.3091
2812.5000,-4.2879,0.9426,3.7426,4.1732,1.3819,-5.0339,8.0328,4.7254,5.0086,-24.5437,-2.8858,6.6196,4.6795,7.2480,-0.7352,11.8057,5.9435,8.7130,4.4083
2816.4062,-3.1408,0.4492,4.4411,4.7945,2.1803,-7.5483,11.8011,5.8114,6.4803,-23.7975,-2.5367,8.4878,6.5462,7.6036,0.0759,1.3766,6.4005,10.1569,5.2651
2820.3125,-2.4823,-0.5429,5.0415,5.0333,1.9685,-10.1963,11.7970,6.7920,7.5301,-21.8427,-4.0296,8.8983,7.2810,7.0655,-0.0235,-4.6244,6.6934,10.9992,4.8275
2824.2188,-1.9569,-1.6602,5.4408,4.8887,1.1205,-11.5879,9.1652,7.2166,7.7514,-18.8631,-6.3367,7.6544,6.7725,6.0810,-0.3997,-3.5452,7.0669,10.8575,3.5335
2828.1250,-1.3436,-2.8849,5.2946,4.3220,0.0945,-10.5895,5.7726,6.7219,6.8063,-15.4598,-8.3930,4.9292,5.2759,5.1418,-0.4849,1.3190,7.3750,9.5134,1.9239
2832.0312,-0.7525,-4.4583,4.2290,3.2426,-0.8637,-7.2653,2.8657,5.2076,4.7080,-12.4341,-9.5046,1.2072,3.3134,4.5286,-0.0290,3.2018,7.2622,7.0926,0.3872
2835.9375,-0.3933,-6.4645,2.2546,1.6593,-1.7066,-3.0659,0.7785,2.9920,2.0542,-10.4205,-9.3995,-2.7172,1.5388,4.2607,0.9051,-2.4707,6.5865,4.1847,-0.8484
2839.8438,-0.2277,-8.5185,-0.0235,-0.1642,-2.3760,-0.0635,-0.5051,0.7892,-0.0970,-9.6439,-8.1418,-5.8527,0.5317,4.1965,2.0720,-13.7189,5.6697,1.6923,-1.6156
2843.7500,0.0774,-9.8820,-1.6736,-1.7476,-2.6831,0.2537,-0.8367,-0.5794,-0.7693,-9.9550,-6.1218,-7.3674,0.5275,4.1448,3.1493,-22.7631,5.0948,0.3810,-1.8141
2847.6562,0.8044,-9.9554,-2.0528,-2.6659,-2.4448,-2.1861,-0.0501,-0.6374,0.2853,-11.0485,-4.0854,-7.0662,1.2149,3.9006,3.7878,-21.7481,5.1839,0.3858,-1.5657
2851.5625,1.7905,-8.7472,-1.3074,-2.8827,-1.7653,-6.0857,1.4909,0.4007,2.3298,-12.6208,-2.9804,-5.6336,1.7920,3.2392,3.6919,-9.1600,5.6115,1.0518,-1.3421
2855.4688,2.4345,-6.9251,-0.3328,-2.8808,-1.1757,-9.5687,2.7262,1.6479,4.0462,-14.3244,-3.5093,-4.3425,1.3568,1.9588,2.7886,8.2226,5.5506,1.3005,-1.8379
2859.3750,2.2068,-5.3837,-0.1778,-3.4443,-1.4236,-11.1247,2.5470,1.9683,4.3818,-15.6330,-5.6116,-4.2981,-0.5389,-0.0004,1.3945,19.7086,4.3164,0.3226,-3.5659
2863.2812,1.2547,-4.6645,-1.3266,-5.1974,-2.9956,-10.1631,0.8100,0.5820,3.2456,-15.8780,-8.3085,-5.6962,-3.5301,-2.4391,0.1897,18.3031,2.0182,-1.8812,-6.4296
2867.1875,0.5107,-4.6751,-3.4031,-8.1893,-5.7030,-7.0344,-1.2546,-2.5087,1.5240,-14.5900,-10.1800,-7.6610,-6.5655,-4.9038,-0.1003,5.7783,-0.3454,-4.5189,-9.6282
2871.0938,1.0738,-4.9082,-5.5143,-11.7978,-8.6595,-2.7457,-1.8156,-6.5165,0.3785,-11.9488,-10.2626,-8.8487,-8.4954,-6.8594,0.8260,-8.7203,-1.5089,-6.5853,-12.0425
2875.0000,3.2730,-4.9439,-6.9333,-15.0126,-10.7152,1.3651,0.0640,-10.2641,0.3416,-8.9361,-8.7569,-8.4224,-8.7526,-7.9384,2.5647,-15.4902,-0.8559,-7.5685,-12.8809
2878.9062,6.1850,-4.8009,-7.5623,-16.9139,-11.0829,3.9452,3.4222,-12.7213,0.9018,-6.9177,-6.9796,-6.6753,-7.6577,-8.1018,4.1823,-11.2923,1.0772,-7.7499,-12.1344
2882.8125,8.1085,-4.8531,-7.8147,-17.0597,-9.7536,4.0397,5.8398,-13.3829,0.9048,-6.8279,-6.5172,-4.8087,-6.1396,-7.6022,4.8011,-1.2740,2.9372,-7.8791,-10.5065
2886.7188,7.7512,-5.4169,-8.0658,-15.5949,-7.4461,1.5827,5.1511,-12.3452,-0.5327,-8.5144,-8.1513,-4.0156,-5.0894,-6.7938,4.1975,5.4793,3.5077,-8.5054,-8.8797
2890.6250,5.2631,-6.4019,-8.1992,-13.0973,-5.1599,-2.3243,1.1574,-10.1414,-3.3037,-10.7834,-11.3353,-4.5801,-4.8372,-5.9413,2.9518,3.1239,2.5573,-9.5236,-7.7413
2894.5312,2.2768,-7.3585,-7.6903,-10.3250,-3.6502,-5.7303,-4.0303,-7.5065,-6.3476,-12.1938,-14.6153,-5.7140,-5.1311,-5.1732,1.9940,-6.6059,0.9188,-10.3139,-7.0152
2898.4375,0.8352,-7.8939,-6.1876,-8.0211,-3.1564,-6.8091,-7.3751,-5.1927,-8.4137,-12.0593,-16.6795,-6.2728,-5.5839,-4.5846,1.8644,-16.0391,-0.2585,-10.3542,-6.4076
2902.3438,1.9445,-8.0828,-4.0721,-6.8109,-3.4969,-4.9982,-7.0325,-3.8425,-8.9549,-10.9016,-17.2496,-5.7764,-6.1696,-4.3639,2.2672,-17.5963,-0.4817,-9.7779,-5.9333
2906.2500,4.8147,-8.4719,-2.4369,-7.1205,-4.3818,-1.5079,-3.6204,-3.8654,-8.4593,-9.9850,-17.1523,-4.8848,-7.3176,-4.7910,2.3014,-9.3947,-0.3187,-9.3724,-6.1226
2910.1562,7.3718,-9.6144,-2.3897,-9.0529,-5.6770,1.3050,0.2965,-5.3063,-7.9789,-10.2760,-17.5512,-4.9014,-9.5012,-6.0748,1.2295,3.7012,-0.8993,-9.9712,-7.6672
2914.0625,7.6845,-11.4903,-4.1766,-12.2635,-7.4394,1.4175,2.0717,-7.7815,-8.2505,-11.6463,-18.9548,-6.6678,-12.6646,-8.1476,-0.8127,13.9392,-2.9171,-11.7110,-10.7497
2917.9688,5.2843,-13.3164,-6.8547,-15.9671,-9.7464,-1.4921,0.7622,-10.5809,-9.1179,-12.9675,-20.7702,-9.7452,-16.0068,-10.5935,-2.7643,16.1076,-5.9534,-13.7799,-14.6199
2921.8750,1.4541,-13.9744,-8.8597,-19.1712,-12.4870,-5.7799,-2.4575,-12.9391,-9.7105,-13.0415,-21.7259,-12.5884,-18.3730,-12.7990,-3.3567,10.4242,-8.6987,-14.9183,-17.8413
2925.7812,-1.6651,-12.7934,-9.1106,-21.0754,-15.2822,-8.9201,-5.4218,-14.3469,-9.2179,-11.6269,-20.8141,-13.6370,-19.0047,-14.2415,-2.0975,1.2315,-9.9130,-14.3354,-19.1231
2929.6875,-2.4570,-10.1040,-7.8150,-21.4147,-17.5825,-9.1933,-6.6372,-14.7107,-7.6239,-9.7158,-18.0304,-12.4945,-18.0745,-14.7200,0.2429,-6.7606,-9.3598,-12.3410,-18.1609
2933.5938,-0.7286,-7.1105,-6.3158,-20.5144,-18.8618,-6.7707,-6.1698,-14.2581,-5.7956,-8.8040,-14.3807,-10.2537,-16.5647,-14.3765,2.0694,-11.4041,-7.9543,-10.1769,-15.8487
2937.5000,2.4132,-5.1220,-6.0404,-18.9941,-18.7884,-3.4189,-5.1866,-13.2699,-4.8426,-9.7034,-11.2053,-8.6757,-15.5510,-13.5128,2.0642,-13.2269,-7.0033,-9.1350,-13.6593
2941.4062,5.4682,-4.6776,-7.3319,-17.3075,-17.3042,-1.0800,-4.6950,-11.8474,-5.2436,-11.8321,-9.3616,-8.8349,-15.4275,-12.3628,0.1622,-13.4314,-7.1545,-9.6061,-12.6203
2945.3125,7.4929,-5.1990,-9.0805,-15.4420,-14.6228,-0.4206,-4.6064,-9.9002,-6.4271,-13.5539,-8.8461,-10.2838,-15.6747,-10.9971,-2.3342,-12.1262,-7.9174,-10.7762,-12.6320
2949.2188,8.4557,-5.4332,-9.4875,-13.0069,-11.1860,-0.4407,-3.8719,-7.3595,-7.1454,-13.3195,-9.0414,-11.3995,-15.3548,-9.4142,-3.6220,-8.4796,-8.1522,-11.2121,-12.6374
2953.1250,8.8987,-4.3752,-7.4238,-9.6624,-7.5956,0.5947,-1.4858,-4.4326,-6.3717,-10.7446,-9.2910,-10.6547,-13.9446,-7.7120,-2.6444,-2.3732,-7.1230,-9.9101,-11.5155
2957.0312,9.3222,-2.0110,-3.3603,-5.5787,-4.5016,3.6485,2.5462,-1.6675,-4.0615,-6.8313,-9.3201,-7.8251,-11.8460,-6.1670,0.1671,4.3703,-5.2386,-7.0429,-9.0215
2960.9375,9.8033,0.6407,0.8541,-1.5682,-2.4380,7.9893,7.0788,0.2696,-1.2254,-3.2246,-9.2338,-4.1984,-10.1586,-5.1356,3.1778,8.6637,-3.8450,-3.8669,-6.0594
2964.8438,10.0556,2.2033,3.2289,1.2536,-1.6522,11.5415,10.5863,0.9729,0.7209,-1.1330,-9.2131,-1.6276,-9.8777,-4.8436,4.6436,8.3311,-4.2044,-1.8798,-4.0774
2968.7500,9.7459,1.8447,2.9749,2.0859,-2.0146,12.2233,12.1223,0.5687,0.8507,-0.7307,-9.2500,-1.1742,-11.1284,-5.2286,3.8290,3.8620,-6.4658,-1.8499,-4.0409
2972.6562,8.7387,-0.2188,0.9590,0.9343,-3.0806,9.2890,11.6964,-0.3308,-0.7502,-1.3957,-9.1630,-2.3841,-13.0200,-5.9581,1.3832,-1.8951,-9.4543,-3.3952,-5.7502
2976.5625,7.1124,-2.9301,-1.0457,-1.3588,-4.2824,3.7517,9.8562,-0.9797,-3.1420,-2.4332,-8.8362,-3.7231,-14.2207,-6.5965,-1.2312,-5.9327,-11.4544,-5.3465,-7.9941
2980.4688,5.0452,-5.1142,-1.7218,-3.5729,-5.1436,-2.3099,6.9803,-0.9306,-5.1800,-3.6011,-8.4126,-3.7813,-13.8068,-6.7830,-2.7858,-7.3087,-11.3689,-6.5580,-9.3937
