Time,Fp1,F3,C3,P3,O1,F7,T3,T5,Fz,Fp2,F4,C4,P4,O2,F8,T4,T6,Cz,Pz
0.0000,6.2869,-10.2971,-6.6412,2.1526,4.2096,-5.0213,-3.9759,1.0755,1.3107,6.6624,1.1242,-10.0268,0.4136,5.5373,3.2177,-5.4537,2.9848,-0.8963,-4.4110
3.9062,2.8965,-17.8212,-12.9908,0.2854,-1.1014,-8.7298,-12.0445,1.0244,-1.4585,5.2323,-4.5797,-16.7822,-3.6893,5.0990,-2.7928,-11.4104,-1.9065,-2.9333,-9.7851
7.8125,1.1014,-22.0664,-15.6046,-0.4061,-2.2708,-10.9986,-15.2683,2.6248,-2.0219,3.5271,-7.4639,-19.9989,-4.1760,6.0435,-6.6749,-14.4161,-3.2061,-3.9666,-11.5725
11.7188,1.1824,-22.4177,-13.6974,0.0476,1.3005,-11.5643,-12.6352,4.6203,-0.3485,1.5037,-6.8421,-19.2382,-0.9658,7.5985,-7.8372,-14.1480,-0.7128,-3.9021,-9.3032
15.6250,2.2216,-20.2895,-8.8142,1.1701,7.3506,-10.8566,-6.6058,5.6801,2.1285,-0.6984,-4.1709,-16.1652,3.7713,8.7276,-7.3172,-11.9594,3.3525,-3.1090,-4.7435
19.5312,2.7476,-18.0857,-3.9129,2.2524,12.2263,-9.6569,-1.4376,5.2503,3.4249,-2.9479,-2.1039,-13.2654,7.0622,8.6849,-7.0354,-9.8561,5.9139,-2.2839,-0.7885
23.4375,1.7598,-17.6392,-1.6180,2.5671,13.2591,-8.6807,-0.3365,3.7193,2.3310,-5.3525,-2.7137,-12.1640,7.0835,7.2570,-8.4426,-9.2081,5.1763,-2.1866,0.3345
27.3438,-0.5753,-19.1585,-2.7300,1.5325,10.3712,-8.2612,-3.4416,1.8483,-0.7600,-8.2536,-6.0977,-12.7121,4.2388,4.6107,-11.4741,-10.0433,1.7582,-3.3318,-1.6287
31.2500,-3.0337,-21.3091,-5.9043,-1.1408,5.8447,-8.2259,-8.0095,0.0136,-4.0951,-11.9063,-10.3360,-13.3863,0.6470,0.9802,-14.5453,-11.2879,-1.9725,-5.7549,-4.9731
35.1562,-4.1641,-22.2566,-8.6590,-5.3075,2.5500,-8.0069,-10.5403,-2.0854,-5.6986,-16.0696,-12.8218,-12.5948,-1.4946,-3.4904,-15.6175,-11.6592,-3.7856,-8.9716,-7.2889
39.0625,-3.2525,-20.8815,-9.0172,-10.3190,2.0038,-6.9751,-9.2258,-5.0233,-4.6098,-19.8853,-12.0145,-9.8885,-1.4277,-8.6260,-13.6054,-10.5375,-3.2199,-12.1849,-7.0520
42.9688,-0.7599,-17.3592,-6.7071,-15.1482,3.6224,-4.8852,-4.9886,-8.9366,-1.3992,-22.2448,-8.3918,-6.2451,-0.1596,-13.9858,-9.1395,-8.2693,-1.7438,-14.6630,-4.4830
46.8750,2.0350,-12.8413,-3.1760,-18.7500,5.5230,-2.1791,-0.5279,-13.1500,2.3140,-22.4633,-3.9804,-3.3234,0.5108,-18.8104,-4.1461,-5.8148,-1.4205,-16.0986,-1.1770
50.7812,3.8934,-8.6218,-0.4880,-20.5310,6.0549,0.1242,1.7349,-16.5007,4.9135,-20.7921,-0.8849,-2.3189,-0.5875,-22.2987,-0.5498,-4.0868,-3.2121,-16.7404,1.1131
54.6875,4.3512,-5.4563,0.0875,-20.6624,4.8208,1.0100,1.2284,-18.1254,5.6434,-18.3622,0.0789,-3.2494,-3.2366,-24.0630,0.9611,-3.4533,-6.2782,-17.2107,1.6183
58.5938,3.8384,-3.4447,-1.1712,-20.0066,2.5291,0.2119,-0.7202,-18.0711,4.7479,-16.5449,-0.3167,-5.1014,-6.2149,-24.4111,1.2238,-3.6705,-8.7630,-18.1092,0.8446
62.5000,3.1728,-2.3767,-2.8036,-19.6432,0.0457,-1.4277,-2.1638,-17.2277,2.9645,-16.1496,-0.5948,-6.6165,-8.3832,-24.1869,1.7664,-4.1874,-9.3504,-19.6411,-0.0723
66.4062,2.8610,-2.1002,-3.3074,-20.2472,-2.3900,-2.3666,-2.0056,-16.6346,0.8906,-17.0084,0.1232,-7.0927,-9.5273,-24.2231,3.5091,-4.5478,-8.2861,-21.4906,-0.3458
70.3125,2.7408,-2.5677,-2.1894,-21.6913,-5.1091,-1.3929,-0.5602,-16.7170,-1.2722,-18.2233,1.4197,-6.6653,-10.3076,-24.7698,5.9969,-4.6258,-7.0599,-23.0012,-0.0667
74.2188,2.1929,-3.5951,-0.1801,-23.1241,-8.2946,1.4166,1.0388,-17.0578,-3.5065,-18.8649,1.9850,-5.9731,-11.4637,-25.3152,7.7443,-4.5911,-7.0785,-23.5357,0.0816
78.1250,0.6993,-4.6743,1.4785,-23.4790,-11.4084,4.5842,1.9163,-16.8539,-5.6428,-18.5974,0.7450,-5.5505,-13.0357,-24.9538,7.4152,-4.6839,-8.4803,-22.7930,-0.3872
82.0312,-1.7194,-5.1244,2.0713,-22.0992,-13.4277,6.1953,2.0920,-15.6515,-7.3095,-17.7873,-2.2043,-5.4085,-14.3059,-23.0607,4.9207,-4.9693,-10.0975,-20.9137,-1.1748
85.9375,-4.5242,-4.5207,1.9520,-19.1057,-13.7763,5.3440,2.2556,-13.7431,-8.2586,-17.0725,-5.5839,-5.0571,-14.5110,-19.8041,1.5819,-5.2262,-10.5832,-18.3619,-1.3351
89.8438,-7.0867,-3.0345,2.1763,-15.3142,-13.1207,2.9941,3.0164,-11.9208,-8.7482,-16.7736,-7.8322,-3.8874,-13.6949,-16.1317,-0.7787,-5.0390,-9.7400,-15.6989,-0.0649
93.7500,-9.1597,-1.3493,3.5296,-11.7965,-13.2170,1.5101,4.3268,-10.8268,-9.5522,-16.6299,-8.2157,-1.6204,-12.9380,-13.2387,-1.1342,-4.0498,-8.9058,-13.3914,2.4737
97.6562,-11.0121,-0.1747,5.7303,-9.3795,-15.7547,3.0661,5.5220,-10.4691,-11.4681,-16.0573,-7.3141,1.4572,-13.7078,-11.8821,0.0348,-2.2336,-10.0301,-11.7297,4.9860
101.5625,-13.1371,0.2533,7.4612,-8.3603,-21.0236,8.0252,5.8434,-10.3004,-14.6599,-14.7039,-6.5535,4.5743,-16.8000,-12.0082,1.1330,-0.0231,-14.1466,-10.8307,5.7481
105.4688,-15.7867,0.2637,7.2528,-8.5341,-27.4742,14.4925,4.9516,-9.7604,-18.3786,-12.8483,-7.1744,6.7999,-21.6893,-12.9201,0.6287,1.8327,-20.4541,-10.6658,3.7399
109.3750,-18.7064,0.3587,4.5778,-9.4272,-32.6014,19.4400,3.0463,-8.7859,-21.3549,-11.3162,-9.4076,7.4436,-26.7944,-13.8309,-1.8777,2.6380,-26.7428,-11.0765,-0.5872
113.2812,-21.2649,0.6920,0.3380,-10.5438,-34.5565,20.6449,0.6147,-7.8369,-22.6244,-10.9652,-12.4148,6.3569,-30.4600,-14.3901,-5.4670,2.1465,-30.8450,-11.7918,-5.4805
117.1875,-22.8555,0.8982,-3.6455,-11.4997,-33.3099,18.0673,-1.8795,-7.4281,-22.1732,-12.1108,-14.9539,4.0136,-31.9256,-14.8180,-8.6735,0.7247,-32.0049,-12.4788,-8.9202
121.0938,-23.2524,0.4430,-5.8013,-12.0483,-30.5159,13.6983,-4.1149,-7.5991,-20.8965,-14.2969,-16.2215,1.3223,-31.5982,-15.5891,-10.5726,-0.8608,-31.1615,-12.8342,-9.8416
125.0000,-22.6768,-0.8134,-5.8191,-12.0751,-28.2276,10.0459,-5.8729,-7.8190,-19.8925,-16.5554,-16.2757,-0.7671,-30.5113,-16.9328,-11.3509,-1.9190,-30.0103,-12.6780,-8.7349
128.9062,-21.5802,-2.3682,-4.8049,-11.6164,-27.4639,8.4172,-7.0499,-7.4375,-19.6382,-17.9566,-15.8286,-1.6865,-29.4614,-18.5386,-11.9866,-2.2568,-29.6433,-12.0061,-7.2379
132.8125,-20.3636,-3.4108,-4.5007,-10.8720,-27.6888,8.2523,-7.8156,-6.3033,-19.6947,-18.0813,-15.6776,-1.4788,-28.5037,-19.6839,-13.3800,-2.2379,-29.8240,-10.9771,-7.0254
136.7188,-19.2499,-3.4848,-6.1364,-10.1430,-27.4996,7.9050,-8.7425,-4.9906,-19.1664,-17.1438,-16.2476,-0.6861,-27.1318,-19.6832,-15.6674,-2.4186,-29.3802,-9.8500,-8.7554
140.6250,-18.3453,-2.8909,-9.7058,-9.6761,-25.8763,6.1471,-10.6305,-4.3858,-17.5345,-15.7517,-17.5344,0.0476,-24.9003,-18.3280,-18.2396,-3.0237,-27.2947,-8.8999,-11.7606
144.5312,-17.7440,-2.4375,-14.1056,-9.4908,-22.9688,3.1756,-13.9851,-4.9316,-15.1819,-14.5141,-19.3662,0.4044,-21.9275,-16.0021,-20.3751,-3.6749,-23.5752,-8.3310,-14.6361
148.4375,-17.5196,-2.7181,-17.9500,-9.3253,-19.8561,0.3752,-18.4858,-6.1485,-13.1782,-13.7492,-21.6704,0.5522,-18.8672,-13.4044,-21.9029,-3.6168,-19.2458,-8.1976,-16.2597
152.3438,-17.6050,-3.5465,-20.4329,-8.7758,-17.5880,-0.8787,-22.9371,-6.8688,-12.4920,-13.4226,-24.4931,0.9184,-16.4159,-11.0938,-23.3286,-2.3142,-15.5591,-8.3551,-16.5206
156.2500,-17.7207,-4.0969,-21.6547,-7.5716,-16.3680,-0.3541,-25.8980,-6.0629,-13.2590,-13.2809,-27.7895,1.7430,-14.7964,-9.1918,-25.3413,0.0151,-13.1314,-8.4836,-16.2778
160.1562,-17.5029,-3.6899,-22.2826,-5.8039,-15.5544,0.8730,-26.6352,-3.6491,-14.6882,-13.0490,-31.2180,2.7653,-13.6551,-7.4467,-28.1480,2.3539,-11.6888,-8.2146,-16.6369
164.0625,-16.7918,-2.5597,-22.9002,-3.9339,-14.4112,1.2966,-25.6971,-0.6571,-15.6707,-12.5717,-34.1639,3.3140,-12.4417,-5.5885,-31.2131,3.4126,-10.5455,-7.3285,-18.0980
167.9688,-15.8436,-1.8729,-23.5677,-2.5445,-12.9069,0.1398,-24.6107,1.4085,-15.5926,-11.8484,-36.0068,2.7677,-10.9394,-3.6818,-33.6176,2.3952,-9.3226,-5.9135,-20.1867
171.8750,-15.2275,-2.8661,-23.8780,-1.9790,-11.8370,-2.1320,-24.8450,1.5646,-14.7049,-10.9731,-36.4328,1.0485,-9.4946,-2.1882,-34.7223,-0.5156,-8.2699,-4.3628,-21.8007
175.7812,-15.4032,-5.7508,-23.3768,-2.1095,-12.1465,-4.2862,-26.7691,-0.0003,-13.7732,-10.0274,-35.5533,-1.2420,-8.7524,-1.6670,-34.5649,-4.2809,-7.9408,-3.1664,-21.9861
179.6875,-16.2687,-9.3243,-21.9593,-2.4003,-14.0184,-5.3224,-29.3722,-2.0625,-13.3235,-8.9905,-33.7532,-3.1843,-9.0999,-2.3233,-33.6654,-7.6366,-8.5489,-2.6025,-20.5696
183.5938,-17.0596,-11.7182,-19.9274,-2.2402,-16.5001,-5.1659,-30.9481,-3.1553,-13.1176,-7.7265,-31.3998,-4.1641,-10.2555,-3.7451,-32.4278,-9.7946,-9.5902,-2.5338,-18.2052
187.5000,-16.7530,-11.7864,-17.7066,-1.3325,-18.0070,-4.5689,-30.2228,-2.4445,-12.2944,-6.0812,-28.6424,-4.3070,-11.3311,-5.0536,-30.6871,-10.7653,-10.0763,-2.4717,-15.8442
191.4062,-14.7393,-10.0429,-15.5054,0.1133,-17.3378,-4.4218,-27.0964,-0.1198,-10.0649,-4.0503,-25.4416,-4.4000,-11.3418,-5.4047,-27.8340,-11.1578,-9.2027,-1.8954,-14.0520
195.3125,-11.2786,-8.3507,-13.2229,1.5093,-14.4434,-5.1159,-22.5199,2.8687,-6.3966,-1.9087,-21.7837,-5.3478,-9.8211,-4.5204,-23.4587,-11.6800,-6.9299,-0.6218,-12.6927
199.2188,-7.3799,-8.5380,-10.6874,2.2465,-10.4054,-6.4466,-17.7215,5.4395,-2.1404,-0.1701,-17.8996,-7.5489,-7.1280,-2.8884,-17.9916,-12.7198,-4.0392,1.0364,-11.2010
203.1250,-4.1638,-11.0048,-8.0142,2.0411,-6.6972,-8.0012,-13.4642,6.9067,1.5005,0.6592,-14.3110,-10.6255,-4.2518,-1.4845,-12.7696,-14.2441,-1.6455,2.4468,-9.2085
207.0312,-2.1628,-14.4265,-5.7566,1.0510,-4.3123,-9.5580,-9.8856,7.1189,3.7463,0.4117,-11.6544,-13.6724,-2.2468,-1.1900,-9.3787,-15.9719,-0.5402,3.0530,-7.0117
210.9375,-1.0711,-16.7968,-4.6688,-0.2870,-3.3618,-11.1008,-6.9017,6.2704,4.6768,-0.5534,-10.3767,-15.8139,-1.6465,-2.2805,-8.6888,-17.5900,-0.8089,2.7148,-5.4850
214.8438,-0.1104,-16.9661,-5.1950,-1.5531,-3.3077,-12.4994,-4.6612,4.6563,5.0377,-1.4897,-10.4758,-16.6666,-2.1932,-4.3079,-10.2618,-18.8341,-1.9067,1.7591,-5.4591
218.7500,1.2957,-15.4270,-7.0291,-2.5511,-3.5050,-13.2831,-3.5514,2.5858,5.6219,-1.6989,-11.4347,-16.4184,-3.0139,-6.4190,-12.5721,-19.4484,-3.0380,0.7272,-7.0095
222.6562,3.0728,-13.7263,-9.0797,-3.2929,-3.5712,-12.8559,-3.7396,0.4464,6.7287,-1.0022,-12.4052,-15.5480,-3.1171,-7.8651,-13.9113,-19.1774,-3.5398,0.0231,-9.2001
226.5625,4.6112,-13.0333,-9.9346,-3.8169,-3.3661,-11.0470,-4.7280,-1.2573,8.0829,0.0837,-12.5774,-14.4575,-1.9287,-8.3543,-13.3793,-17.8958,-3.0793,-0.2808,-10.5291
230.4688,5.3163,-13.1029,-8.5953,-4.0333,-2.7587,-8.4945,-5.4430,-2.0329,9.1932,0.6216,-11.5721,-13.3020,0.4145,-8.0515,-11.3285,-15.8030,-1.6754,-0.3730,-9.8249
234.3750,5.1173,-12.5372,-5.0629,-3.7668,-1.5313,-6.4213,-4.9172,-1.6673,9.7892,-0.1840,-9.6546,-12.0876,3.1492,-7.3126,-9.0214,-13.4850,0.3451,-0.4846,-7.0019
238.2812,4.5066,-10.1310,-0.4159,-2.9947,0.4198,-5.8698,-3.0520,-0.4490,9.9654,-2.5189,-7.6250,-10.8774,5.2843,-6.4248,-7.7886,-11.7088,2.4053,-0.7429,-3.1556
242.1875,4.0844,-6.1361,3.6983,-2.0926,2.7711,-6.9682,-0.8049,0.8345,9.9609,-5.9182,-6.3977,-9.8810,6.0899,-5.5739,-8.2545,-11.0298,3.8057,-1.2211,0.0839
246.0938,4.0028,-2.3064,5.8964,-1.8426,4.7031,-8.8434,0.4361,1.1616,9.8234,-9.6714,-6.4738,-9.3346,5.4167,-5.0203,-10.0793,-11.4723,3.9701,-2.0949,1.5213
250.0000,3.7925,-0.6023,5.7618,-3.1026,5.2595,-10.2884,-0.1372,-0.3183,9.2897,-13.3529,-7.6211,-9.2856,3.6900,-5.2472,-12.2774,-12.5208,2.7345,-3.6940,1.0587
253.9062,2.7382,-1.5878,4.0233,-6.2826,3.9534,-10.6605,-2.1232,-3.9206,7.9966,-17.0536,-8.9899,-9.4795,1.6153,-6.8392,-13.8191,-13.4373,0.4895,-6.3097,-0.3550
257.8125,0.5141,-3.8710,2.1168,-10.9573,1.1824,-10.2729,-4.1503,-9.2450,5.8368,-21.1156,-9.6334,-9.4607,-0.1981,-10.0791,-14.1158,-13.6775,-1.9699,-9.8544,-1.4024
261.7188,-2.4356,-5.1122,1.3885,-15.9082,-1.8886,-9.9626,-4.8034,-15.2365,3.1503,-25.5711,-9.1106,-8.8195,-1.4593,-14.5412,-13.1536,-13.1168,-3.8342,-13.6534,-1.2106
265.6250,-5.0900,-3.8327,2.4045,-19.6427,-3.9505,-10.2199,-3.5328,-20.4871,0.5850,-29.7492,-7.7574,-7.4120,-2.1592,-19.0514,-11.3067,-11.9654,-4.6648,-16.6118,0.2356
269.5312,-6.4901,-0.5680,4.7507,-21.1267,-4.2910,-10.6547,-0.8940,-23.7188,-1.2614,-32.4280,-6.4138,-5.4159,-2.3738,-22.1729,-9.0393,-10.5048,-4.5249,-17.7405,2.2853
273.4375,-6.3547,2.5830,7.3967,-20.3086,-3.1846,-10.2988,1.9798,-24.3085,-2.1490,-32.5122,-5.7829,-3.2259,-2.1267,-22.9896,-6.7080,-8.9040,-3.8106,-16.7336,4.1848
277.3438,-5.2386,3.6576,9.3499,-18.1168,-1.7095,-8.5168,4.1859,-22.6189,-2.2519,-29.8046,-5.8920,-1.2905,-1.4605,-21.6828,-4.5493,-7.2633,-2.9749,-14.2003,5.5533
281.2500,-4.1596,2.4015,10.1705,-15.9244,-1.1416,-5.7410,5.5066,-19.8962,-1.9838,-25.3148,-6.0794,0.0111,-0.6559,-19.4720,-2.7890,-5.7995,-2.3918,-11.3587,6.4510
285.1562,-4.0045,0.4453,10.0564,-14.7978,-2.3121,-3.3496,6.2477,-17.6731,-1.7724,-20.8291,-5.5476,0.4418,-0.3622,-17.8965,-1.7370,-4.9340,-2.4295,-9.3604,7.0839
289.0625,-5.1338,-0.0361,9.5246,-14.9660,-5.2762,-2.6992,6.7309,-16.9243,-1.9425,-17.9600,-4.0713,-0.0281,-1.4206,-17.8755,-1.7487,-5.1251,-3.5572,-8.6728,7.4708
292.9688,-7.3861,1.9319,8.9836,-15.8024,-9.4054,-4.0490,6.9436,-17.4719,-2.7112,-17.2597,-2.2917,-1.1503,-4.3984,-19.1670,-3.0321,-6.5215,-6.2451,-8.9064,7.3889
296.8750,-10.3488,5.3968,8.5191,-16.2915,-13.7743,-6.2490,6.6198,-18.0786,-4.1859,-17.9610,-1.3154,-2.3915,-9.1283,-20.5917,-5.4025,-8.7145,-10.6171,-9.1711,6.6324
300.7812,-13.6110,8.3237,7.9946,-15.6715,-17.6031,-7.4857,5.5873,-17.2702,-6.2960,-18.5101,-1.8791,-3.0811,-14.6199,-20.8697,-8.1647,-10.8304,-16.1163,-8.6951,5.3191
304.6875,-16.8233,9.2686,7.2975,-13.8698,-20.5506,-6.5495,3.9899,-14.4032,-8.7218,-17.5536,-3.7169,-2.7102,-19.4959,-19.4936,-10.2827,-11.9584,-21.5441,-7.2939,3.9259
308.5938,-19.6376,8.4847,6.4660,-11.5027,-22.7613,-3.6673,2.1589,-10.2485,-10.9624,-14.7612,-5.6642,-1.2263,-22.7188,-17.0472,-10.8438,-11.6398,-25.5999,-5.4130,2.9683
312.5000,-21.7156,7.5829,5.5805,-9.4864,-24.6740,-0.2890,0.2934,-6.6205,-12.5862,-10.9925,-6.4844,0.8929,-24.1275,-14.7714,-9.6042,-10.0769,-27.6221,-3.7793,2.5719
316.4062,-22.8839,8.0918,4.5596,-8.5158,-26.6848,1.9771,-1.6873,-5.2290,-13.5200,-7.7377,-5.8293,2.8948,-24.4005,-13.7103,-7.2676,-7.9247,-27.9910,-2.9345,2.3185
320.3125,-23.3033,10.1554,3.1213,-8.7106,-28.8277,2.4519,-3.9273,-6.5163,-14.1271,-6.2139,-4.5871,4.2067,-24.4638,-14.0410,-5.2233,-5.8318,-27.8285,-2.9565,1.5534
324.2188,-23.4325,12.4394,1.0258,-9.5979,-30.6567,1.7004,-6.2557,-9.3076,-14.9503,-6.6790,-4.2963,4.7877,-24.7729,-15.0326,-4.7913,-4.0755,-28.1499,-3.5013,-0.0429
328.1250,-23.7237,13.2659,-1.5703,-10.4010,-31.4372,0.9199,-8.0656,-11.5627,-16.2690,-8.3602,-6.0133,5.1132,-24.9979,-15.6128,-6.3919,-2.5409,-29.0752,-4.0728,-2.0728
332.0312,-24.2581,11.9798,-3.9962,-10.4509,-30.5787,0.9562,-8.6780,-11.7261,-17.8145,-9.9925,-9.4670,5.7833,-24.3390,-15.0991,-9.2115,-1.0078,-29.7170,-4.3147,-3.5877
335.9375,-24.6433,9.4086,-5.3992,-9.4999,-28.0550,1.7222,-7.9600,-9.7241,-18.9092,-10.5983,-13.1689,7.0303,-22.2214,-13.5749,-11.6882,0.5243,-28.8676,-4.1532,-3.7513
339.8438,-24.3203,7.0988,-5.3728,-7.7919,-24.5115,2.4024,-6.6609,-6.9001,-18.9692,-10.0196,-15.4499,8.4916,-18.8275,-11.6916,-12.5947,1.7546,-25.9897,-3.7539,-2.5395
343.7500,-23.0765,6.0443,-4.4182,-5.8752,-20.9403,2.1844,-6.0866,-4.9505,-17.9934,-8.8996,-15.6952,9.4308,-15.0601,-10.1084,-12.0166,2.3035,-21.7481,-3.3662,-0.9377
347.6562,-21.3432,5.9984,-3.8171,-4.2772,-18.1088,0.8926,-7.2666,-4.6574,-16.6350,-8.1664,-14.8634,9.2516,-11.9742,-9.0216,-11.4874,2.0431,-17.6542,-3.1646,-0.4301
351.5625,-19.9828,5.8802,-4.9006,-3.2198,-16.1398,-0.9324,-10.2272,-5.3552,-15.7585,-8.3752,-14.8741,7.9284,-10.1267,-8.1191,-13.0604,1.2516,-15.0706,-3.1660,-2.0910
355.4688,-19.6815,4.8220,-8.1753,-2.5374,-14.5615,-2.4721,-13.9634,-5.5093,-15.8061,-9.3353,-17.2628,6.0362,-9.3378,-6.9439,-17.8480,0.4575,-14.3219,-3.2466,-5.8945
359.3750,-20.4087,2.8898,-12.9327,-1.8420,-12.8054,-3.1696,-17.1668,-3.9486,-16.4698,-10.2477,-22.0441,4.3647,-9.0141,-5.3382,-25.0152,0.0899,-14.5778,-3.2388,-10.7177
363.2812,-21.3945,0.8842,-17.6465,-0.8347,-10.7682,-2.9646,-19.1588,-0.8146,-16.9433,-10.2443,-27.5831,3.4114,-8.7273,-3.6025,-31.9963,0.2037,-14.5701,-3.0512,-15.0219
367.1875,-21.6764,-0.4986,-20.8955,0.4397,-8.9775,-2.1587,-20.2925,2.4840,-16.5641,-8.9638,-31.5686,3.1278,-8.5470,-2.2526,-35.9028,0.4825,-13.5664,-2.7396,-17.7248
371.0938,-20.8016,-1.3036,-22.1568,1.5802,-8.1900,-1.1508,-21.5101,4.2621,-15.3335,-6.7837,-32.4140,3.0811,-8.8531,-1.5778,-35.2545,0.4969,-11.8401,-2.4636,-18.6705
375.0000,-19.1282,-2.1465,-21.9253,2.0918,-8.7171,-0.3121,-23.4277,3.7528,-13.8923,-4.5676,-30.1440,2.8696,-9.8033,-1.3606,-30.8885,0.0063,-10.3058,-2.3360,-18.4391
378.9062,-17.4834,-3.4387,-21.1377,1.7599,-10.0238,-0.0289,-25.7070,1.6371,-12.9684,-3.1093,-26.2188,2.4390,-10.9395,-0.9891,-25.4240,-0.9247,-9.6612,-2.2594,-17.7336
382.8125,-16.4608,-4.8096,-20.4061,0.8687,-10.9768,-0.7186,-27.2388,-0.4416,-12.7506,-2.6537,-22.4996,2.0492,-11.3234,0.1007,-21.6325,-2.0576,-9.7635,-1.9018,-16.8664
386.7188,-15.9427,-5.3629,-19.6696,0.0772,-10.6163,-2.6452,-26.9971,-0.9806,-12.7111,-2.8055,-20.1137,1.9336,-10.1564,1.9669,-20.8006,-3.2228,-9.7494,-0.8893,-15.7195
390.6250,-15.2429,-4.6024,-18.4848,0.0055,-8.8853,-5.6131,-24.8702,0.4656,-12.0327,-2.8555,-18.9688,1.9527,-7.4240,4.0171,-22.1521,-4.4596,-8.7896,0.8683,-14.1286
394.5312,-13.7438,-3.1752,-16.6284,0.8114,-6.7362,-8.8306,-21.7968,3.1558,-10.2984,-2.2684,-18.1384,1.5551,-4.0388,5.3043,-23.6364,-5.9406,-6.8352,2.9601,-12.2804
398.4375,-11.4775,-2.6539,-14.4356,2.0759,-5.4775,-11.1898,-19.0924,5.8065,-7.8713,-0.9838,-16.7225,0.1185,-1.3090,5.0916,-23.4480,-7.7503,-4.7238,4.5952,-10.7179
402.3438,-9.1360,-4.4014,-12.5575,3.1102,-5.8051,-11.8818,-17.4978,7.4576,-5.6385,0.6484,-14.5102,-2.5624,-0.0697,3.3420,-21.1861,-9.7102,-3.5270,5.0731,-9.9075
406.2500,-7.4823,-8.4152,-11.3550,3.4748,-7.2307,-10.9531,-16.6861,7.9348,-4.3096,2.1874,-12.0112,-6.0068,-0.0901,0.8240,-17.8999,-11.4061,-3.6458,4.3213,-9.7297
410.1562,-6.6522,-13.1531,-10.4920,3.3135,-8.3498,-9.3691,-15.5842,7.6761,-3.8343,3.3882,-9.9326,-9.2214,-0.1974,-1.2486,-15.1103,-12.4161,-4.3805,3.0833,-9.3714
414.0625,-5.9614,-16.5667,-9.1416,3.2176,-7.7796,-8.4743,-13.2332,7.1918,-3.4182,4.2323,-8.5832,-11.2336,0.9385,-1.8568,-13.6152,-12.5878,-4.3442,2.5217,-7.8094
417.9688,-4.4283,-17.5512,-6.6887,3.6886,-5.1094,-9.1727,-9.5255,6.6501,-2.1462,4.7259,-7.6808,-11.6443,3.8763,-0.7397,-12.9687,-12.1715,-2.4468,3.4178,-4.5980
421.8750,-1.6251,-16.6461,-3.3621,4.6080,-1.1912,-11.3700,-5.3097,5.8893,0.2655,4.7044,-6.6850,-10.8473,7.9513,1.4413,-11.9563,-11.7154,1.2673,5.5049,-0.3876
425.7812,1.8286,-15.4322,-0.2419,5.1639,2.4153,-14.0462,-1.8585,4.7564,3.1721,3.8710,-5.3537,-9.7805,11.5994,3.4533,-9.6305,-11.7817,5.5444,7.4654,3.2600
429.6875,4.5612,-15.1583,1.4204,4.3625,4.4340,-15.8965,-0.1409,3.4089,5.3885,2.0736,-4.0558,-9.3728,13.2523,4.1804,-6.0947,-12.6484,8.6715,7.6971,4.7135
433.5938,5.3455,-15.7617,1.0731,1.7915,4.6070,-16.1075,-0.3813,2.2905,5.9688,-0.4256,-3.5698,-10.0287,12.2438,3.2617,-2.4661,-14.1594,9.5342,5.3811,3.2536
437.5000,3.9308,-16.0775,-0.7361,-1.9449,3.7066,-14.7800,-2.0824,1.7961,4.7992,-2.9775,-4.4931,-11.4448,9.1839,1.2848,-0.0904,-15.7930,8.2657,1.1067,-0.4419
441.4062,1.1946,-14.9891,-2.7225,-5.5057,2.8911,-12.7713,-4.3313,1.9176,2.5984,-4.9300,-6.6917,-12.8328,5.6034,-0.6196,0.3819,-16.8974,6.0852,-3.4403,-4.6224
445.3125,-1.4728,-12.4670,-3.6841,-7.6720,2.9099,-11.1127,-6.1099,2.1718,0.3846,-6.1131,-9.2059,-13.3822,3.1096,-1.5678,-0.6045,-16.9741,4.4837,-6.5631,-7.3863
449.2188,-3.0552,-9.5746,-3.1463,-8.1870,3.7027,-10.3889,-6.4984,1.8777,-1.1481,-7.0249,-10.7223,-12.6844,2.5535,-1.6035,-1.8712,-15.8768,4.3219,-7.6691,-7.6232
453.1250,-3.4038,-7.4655,-1.3970,-7.9414,4.6037,-10.4465,-4.8652,0.5753,-1.8924,-8.5126,-10.3290,-10.8936,3.6702,-1.7821,-2.3177,-13.8519,5.4086,-7.6127,-5.4302
457.0312,-3.0327,-6.3064,0.9901,-8.3259,4.9214,-10.5691,-1.1386,-1.7166,-2.1160,-11.1292,-8.0726,-8.5747,5.3558,-3.5267,-1.5944,-11.4151,6.7591,-7.9995,-1.8351
460.9375,-2.4878,-5.1314,3.6435,-10.1976,4.4498,-9.9916,3.9414,-4.5659,-2.0489,-14.6370,-4.9492,-6.3661,6.3844,-7.6130,-0.2114,-9.1302,7.2936,-9.9486,1.9060
464.8438,-1.8729,-2.7859,6.4652,-13.2212,3.5758,-8.4432,8.8674,-7.4280,-1.6575,-18.0567,-2.3246,-4.6614,6.1285,-13.4554,0.9143,-7.3917,6.4952,-13.2181,4.9597
468.7500,-0.9221,0.8781,9.3006,-16.0939,2.9679,-6.3993,11.8890,-9.9457,-0.7793,-20.2667,-1.1419,-3.4785,4.8640,-19.2348,1.1054,-6.3071,4.6384,-16.3421,7.1574
472.6562,0.4995,4.6564,11.6333,-17.5028,3.1000,-4.8637,11.8588,-12.0472,0.5525,-20.7313,-1.4101,-2.5524,3.4885,-22.8785,0.3309,-5.7301,2.5034,-17.6767,8.7913
476.5625,1.9681,6.8655,12.7140,-17.0972,3.9296,-4.7643,8.9146,-13.8205,1.9313,-19.8217,-2.2801,-1.5615,2.8410,-23.2999,-0.8347,-5.4162,0.8069,-16.5746,10.1996
480.4688,2.5875,6.7230,12.1068,-15.7298,4.9059,-6.2978,4.5092,-15.3004,2.7419,-18.4958,-2.6384,-0.3335,3.0627,-21.0703,-1.5985,-5.2092,-0.2730,-13.8171,11.4524
484.3750,1.5743,5.0444,10.1874,-14.7662,5.2722,-8.6613,0.6815,-16.3438,2.5511,-17.5889,-1.8199,1.0833,3.4345,-18.0310,-1.4002,-5.1438,-1.1884,-11.0033,12.3118
488.2812,-1.1189,3.6393,8.0864,-14.9862,4.4718,-10.4336,-1.0261,-16.6811,1.4014,-17.2668,0.0145,2.4930,2.8261,-16.0740,-0.1781,-5.4013,-2.6848,-9.3849,12.4331
492.1875,-4.6703,3.9034,7.0051,-15.9348,2.4357,-10.4595,-0.3447,-16.1006,-0.2444,-17.0476,2.0521,3.6813,0.4843,-15.9119,1.6363,-6.1436,-5.2546,-9.0426,11.6378
496.0938,-7.9021,5.7998,7.3849,-16.2540,-0.3950,-8.6928,1.7122,-14.6441,-1.8758,-16.3455,3.3909,4.4972,-3.3774,-16.6949,3.3300,-7.3345,-8.7394,-9.0104,10.0775
500.0000,-10.0829,8.0671,8.5891,-14.7745,-3.3271,-6.3738,3.5598,-12.6887,-3.3294,-15.0710,3.5844,4.8491,-7.6239,-16.7381,4.1949,-8.6783,-12.3606,-8.2006,8.2037
503.9062,-11.4247,9.4103,9.3814,-11.5385,-5.8244,-5.3013,3.9813,-10.8530,-4.8954,-13.7853,2.8051,4.6751,-10.8885,-14.8299,3.7807,-9.7359,-15.1900,-6.3612,6.5707
507.8125,-12.9025,9.5807,8.8455,-7.9446,-7.8367,-6.6050,2.7176,-9.7461,-7.0503,-13.2779,1.5711,3.9795,-12.4490,-11.1657,2.0455,-10.1643,-16.7703,-4.2921,5.5808
511.7188,-15.5222,9.3940,7.0285,-5.8502,-9.8326,-9.8598,0.4259,-9.6675,-10.0189,-13.9098,0.2996,2.9549,-12.6649,-7.2331,-0.6329,-9.9314,-17.4506,-3.1561,5.3023
515.6250,-19.5607,9.7346,4.8185,-6.2655,-12.4675,-13.2310,-1.8478,-10.4121,-13.4951,-15.2604,-0.9406,2.0856,-12.6438,-4.7540,-3.5965,-9.3496,-18.1603,-3.4614,5.4542
519.5312,-24.2994,10.5426,3.1966,-8.6056,-16.0597,-14.6258,-3.2899,-11.3222,-16.7268,-16.3789,-2.2996,2.0690,-13.3750,-4.4897,-6.1615,-8.8760,-19.7269,-4.5641,5.5710
523.4375,-28.4119,10.7955,2.5034,-11.0757,-20.2169,-13.0588,-3.6822,-11.6140,-18.9080,-16.4564,-3.7955,3.4834,-14.9846,-5.8009,-7.8930,-8.7800,-22.2034,-5.1314,5.2605
527.3438,-30.7176,9.5541,2.3100,-11.9290,-23.9141,-9.2261,-3.3904,-10.8353,-19.6182,-15.4015,-5.0949,6.3449,-16.6969,-7.2601,-8.7725,-8.8924,-24.7264,-4.2280,4.4027
531.2500,-30.8036,7.0877,1.9341,-10.6848,-26.0402,-4.8551,-3.0868,-9.1781,-19.0353,-13.8762,-5.6766,9.8584,-17.5461,-7.7971,-9.1668,-8.6330,-26.0776,-2.1621,3.1619
535.1562,-29.1545,4.9288,1.0782,-8.4189,-26.0859,-1.3489,-3.4012,-7.4066,-17.8126,-12.7718,-5.2945,12.6309,-17.2762,-7.4635,-9.6097,-7.3534,-25.5945,-0.3834,1.7966
539.0625,-26.7733,4.6424,-0.0084,-6.9227,-24.4908,1.1736,-4.6617,-6.3827,-16.7181,-12.5316,-4.3621,13.3391,-16.6753,-7.2251,-10.5140,-4.8184,-23.7547,-0.4438,0.4001
542.9688,-24.5810,6.3180,-0.9787,-7.3557,-22.3705,3.6438,-6.8094,-6.4663,-16.2541,-12.8329,-3.8887,11.4964,-17.0116,-7.9878,-11.9765,-1.5144,-21.9356,-2.7815,-1.2259
546.8750,-22.9700,8.1887,-1.9864,-9.3801,-20.7803,6.8106,-9.5029,-7.2086,-16.4577,-12.8513,-4.9194,7.8183,-18.9552,-9.6825,-13.7869,1.4621,-21.4473,-6.2575,-3.4441
550.7812,-21.7446,7.8981,-3.8003,-11.3958,-20.0378,10.0914,-12.3592,-7.6047,-16.9650,-11.8887,-7.8392,3.8855,-21.8407,-11.1930,-15.6310,2.9390,-22.5199,-8.8429,-6.4645
554.6875,-20.4344,4.4823,-7.2210,-11.6821,-19.6113,11.6044,-15.1992,-6.7864,-17.2806,-9.8954,-12.0509,1.2602,-23.9254,-11.2175,-17.3600,2.3345,-24.0358,-8.9913,-10.0686
558.5938,-18.7571,-0.6115,-12.2441,-9.6023,-18.6692,9.5361,-18.1283,-4.6847,-17.0924,-7.5243,-16.2985,0.6092,-23.5523,-9.3828,-19.1507,0.0333,-24.2873,-6.7104,-13.6082
562.5000,-16.9335,-4.4622,-17.7197,-6.0115,-16.8715,3.8241,-21.3614,-2.1572,-16.4509,-5.7158,-19.4315,1.4134,-20.3954,-6.6884,-21.4346,-2.8075,-22.2611,-3.5459,-16.3228
566.4062,-15.6439,-4.9309,-21.9044,-2.6157,-14.7697,-3.2793,-24.8865,-0.4322,-15.7055,-5.1318,-21.0706,2.4549,-15.8284,-4.8698,-24.6076,-4.9430,-18.4988,-1.4828,-17.7810
570.3125,-15.6212,-2.4131,-23.5690,-0.7864,-13.4685,-8.4275,-28.2306,-0.2292,-15.2314,-5.8142,-21.7005,2.7217,-12.0766,-5.1295,-28.6726,-5.7963,-14.8416,-1.5548,-18.1310
574.2188,-17.1186,0.4210,-22.8182,-0.6984,-13.7775,-9.4363,-30.5771,-1.2000,-15.1274,-7.2395,-22.1523,2.0727,-10.7216,-7.2106,-33.0455,-5.7837,-13.1819,-3.1576,-17.9721
578.1250,-19.6124,0.7739,-20.9657,-1.3708,-15.5072,-6.8992,-31.2379,-2.1412,-15.1138,-8.6630,-22.9003,1.1914,-11.6449,-9.5522,-36.6947,-5.9740,-14.1164,-4.5441,-17.9274
582.0312,-22.0041,-1.9779,-19.5460,-1.5147,-17.4857,-3.8511,-30.1715,-1.8724,-14.7463,-9.5023,-23.7245,0.9014,-13.1907,-10.4343,-38.6052,-7.2997,-16.5091,-4.1204,-18.2282
585.9375,-23.2716,-5.7542,-19.2354,-0.5197,-18.3260,-3.6163,-28.1227,-0.1534,-13.8263,-9.5577,-23.9828,1.4055,-13.4236,-9.2468,-38.3381,-9.8637,-18.3137,-1.6004,-18.6088
589.8438,-23.1618,-7.5014,-19.5137,1.1372,-17.3846,-7.4020,-26.1957,2.0606,-12.6956,-9.0184,-23.2352,2.0623,-11.5348,-6.9124,-36.3410,-12.8345,-18.0535,1.7984,-18.5720
593.7500,-22.4016,-5.7821,-19.2753,2.3188,-15.1756,-13.4521,-25.1043,3.2672,-12.1228,-8.3165,-21.6825,1.8804,-8.3505,-5.1403,-33.7631,-15.0167,-15.8475,4.2293,-17.7993
597.6562,-22.1754,-2.0698,-17.8193,2.1379,-12.9110,-18.4060,-24.6449,2.5407,-12.7614,-7.9166,-20.0414,0.3293,-5.5888,-5.0862,-31.8184,-15.6980,-13.2079,4.5124,-16.3761
601.5625,-23.1544,0.3425,-15.3690,0.6769,-11.5049,-19.8128,-23.8232,0.3193,-14.5204,-8.1090,-18.9577,-2.1983,-4.4688,-6.4457,-31.0604,-15.1627,-11.7740,2.9338,-14.6637
605.4688,-24.7793,-1.0760,-12.7222,-0.9821,-10.8065,-17.8639,-21.5852,-1.7471,-16.3440,-8.8648,-18.4470,-4.6648,-4.7518,-7.6591,-31.0442,-14.4959,-11.9658,1.0144,-12.9457
609.3750,-25.4234,-6.1584,-10.4131,-1.4183,-9.6648,-15.0407,-17.6296,-1.8279,-16.6840,-9.8251,-17.8462,-6.1976,-4.9398,-7.0540,-30.6391,-14.8137,-12.6016,0.4529,-11.1676
613.2812,-23.4635,-12.3146,-8.1912,0.2362,-6.8038,-14.0266,-12.6962,0.8725,-14.4471,-10.4634,-16.3377,-6.7716,-3.4528,-4.0511,-28.8184,-16.4696,-11.7800,2.0064,-9.0067
617.1875,-18.5586,-16.6871,-5.3236,3.7464,-1.8713,-15.5887,-8.1243,5.5492,-9.7928,-10.3639,-13.6353,-7.1911,0.1309,0.4526,-25.3944,-18.8058,-8.3513,5.0606,-6.2302
621.0938,-12.1610,-18.2748,-1.4667,7.8825,4.1113,-18.1084,-5.0343,10.2540,-4.1681,-9.4506,-10.2745,-8.3543,4.7093,4.7478,-21.1652,-20.6113,-2.8598,8.1263,-3.0434
625.0000,-6.7526,-18.2139,2.6992,11.0711,9.2386,-19.0749,-3.7564,13.0424,0.5340,-8.0036,-7.2610,-10.3845,8.4148,7.4605,-17.3481,-20.9417,2.7500,9.8496,-0.1175
628.9062,-4.2398,-18.0917,5.7207,12.1781,11.8179,-17.2711,-3.8788,13.0255,3.1593,-6.4400,-5.3507,-12.3585,9.8990,8.3099,-14.7103,-19.7119,6.4269,9.8191,1.7681
632.8125,-4.6423,-17.9689,6.4003,10.9907,11.3318,-13.8491,-4.7568,10.6708,3.9828,-5.0353,-4.5326,-12.9078,9.1918,7.9774,-13.0688,-17.6704,7.3331,8.6565,2.2236
636.7188,-6.0887,-16.0713,4.7919,8.1888,8.6526,-11.4340,-5.9657,7.2640,4.3800,-3.8317,-4.1205,-11.2732,7.5584,7.3118,-11.5713,-15.8344,6.2471,7.4167,1.5183
640.6250,-6.1955,-10.5963,2.3127,4.8939,5.4314,-12.0064,-7.3119,4.0125,5.6967,-2.8272,-3.3676,-7.9893,6.5394,6.5777,-9.5594,-14.8400,4.8296,6.7849,0.4195
644.5312,-3.8385,-2.0671,0.8072,2.0767,3.1217,-15.2885,-8.4966,1.4390,8.1538,-2.2699,-2.0930,-4.6247,6.9280,5.3376,-7.3108,-14.6643,4.3833,6.6430,-0.2829
648.4375,0.0263,6.0337,1.2547,0.1305,2.2730,-18.9141,-8.9017,-0.6085,10.6308,-2.7334,-0.8078,-2.7222,8.3919,2.9843,-5.9895,-14.8431,5.0466,6.2557,-0.2248
652.3438,3.1455,9.2853,3.1158,-1.2100,2.4653,-20.2068,-7.8626,-2.5045,11.5270,-4.7905,-0.2429,-2.7164,9.8994,-0.5897,-6.7358,-14.9186,5.9460,4.8714,0.4085
656.2500,3.7650,5.6300,4.8151,-2.6063,2.8034,-18.1203,-5.2902,-4.4190,10.0692,-8.4657,-0.6733,-3.6587,10.5210,-4.7717,-9.5560,-14.7245,6.0627,2.2665,1.1195
660.1562,2.0305,-2.7239,4.9577,-4.6813,2.5715,-13.8315,-2.0693,-6.2623,7.0567,-12.9284,-1.6034,-3.9783,9.9861,-8.6229,-12.9395,-14.3220,5.0645,-1.1413,1.4716
664.0625,-0.1378,-10.5503,3.3229,-7.6508,1.6337,-9.6229,0.2706,-7.9658,4.4289,-16.7954,-2.0855,-2.7213,8.6687,-11.5334,-14.6545,-13.7322,3.4768,-4.6395,1.3151
667.9688,-0.6240,-13.2595,0.9043,-11.2166,0.4056,-7.0625,0.5230,-9.7578,3.9211,-18.9582,-1.4307,-0.3288,7.1520,-13.5862,-13.2697,-12.7791,2.1532,-7.7200,0.7546
671.8750,1.1056,-10.1855,-0.9397,-14.7636,-0.5019,-5.9732,-1.2884,-12.1131,5.7819,-19.3676,0.2488,1.6450,5.7901,-15.3537,-9.2939,-11.2219,1.5562,-10.3457,-0.0245
675.7812,3.4787,-4.9060,-1.4733,-17.7196,-0.7037,-4.9370,-3.8311,-15.3617,8.5169,-19.1244,2.0977,1.6814,4.5857,-17.3276,-4.9978,-9.0580,1.4442,-12.8023,-0.8597
679.6875,4.0215,-2.3111,-0.9294,-19.8348,-0.2796,-2.7801,-5.3774,-19.2626,9.8837,-19.6886,3.1391,-0.5346,3.3814,-19.4627,-2.9045,-6.6950,1.1631,-15.2802,-1.5544
683.5938,1.3759,-4.7353,-0.0435,-21.1930,0.2907,0.2725,-5.0589,-22.9134,8.4457,-21.7174,2.9840,-3.7875,2.1215,-21.1840,-3.9719,-4.7848,0.2436,-17.5306,-1.7694
687.5000,-3.4805,-10.2075,0.7078,-21.9637,0.4539,2.7184,-3.4761,-25.1236,4.5822,-24.4169,2.0971,-6.0858,0.9559,-21.8029,-6.8076,-3.8132,-1.2067,-18.8792,-1.0552
691.4062,-7.8234,-14.1399,1.4600,-22.1059,-0.0156,2.9980,-2.1513,-25.0323,0.2451,-25.9852,1.4304,-5.9509,0.1415,-20.9808,-8.5710,-3.7625,-2.6009,-18.6135,0.8996
695.3125,-9.1687,-12.9927,2.6482,-21.2887,-0.7969,0.7494,-2.2403,-22.5715,-2.3529,-24.9099,1.7154,-3.3278,-0.1313,-18.8970,-6.9869,-4.1237,-3.3347,-16.4834,3.9551
699.2188,-7.1330,-6.9163,4.3994,-19.1377,-1.1779,-2.9189,-3.5362,-18.4934,-2.1953,-21.1772,2.9397,0.4886,0.1416,-16.0729,-2.0313,-4.2482,-3.2305,-12.9620,7.4131
703.1250,-3.7343,0.6675,6.2539,-15.6417,-0.5707,-6.2635,-4.5740,-13.9826,-0.0874,-16.4420,4.3697,3.7994,0.7446,-13.0804,3.9548,-3.7544,-2.6564,-9.0712,10.2803
707.0312,-1.9287,5.9942,7.4967,-11.3904,0.9033,-8.0662,-3.7527,-10.1293,1.9107,-12.9636,5.0688,5.6144,1.2564,-10.3865,7.8340,-2.6709,-2.2989,-5.8640,11.7862
710.9375,-3.5488,7.8063,7.7881,-7.3959,2.1871,-8.1623,-0.5654,-7.5677,1.7872,-12.0697,4.5180,6.1753,1.1109,-8.3744,7.7997,-1.2419,-2.7973,-3.8876,11.8193
714.8438,-8.2226,7.7651,7.4864,-4.5598,1.7051,-7.0398,4.0357,-6.4083,-1.2635,-13.3085,2.9166,6.6073,-0.2356,-7.3668,4.5275,0.3885,-4.4660,-2.9596,10.9676
718.7500,-13.9955,8.2858,7.3343,-3.1457,-1.7087,-5.0550,8.3734,-6.3826,-6.5098,-14.9401,1.0059,8.0325,-3.0079,-7.4975,0.5546,2.3038,-7.1859,-2.3897,10.1185
722.6562,-18.9862,9.9213,7.7752,-2.6611,-7.9250,-2.0889,11.2057,-7.0313,-12.2455,-15.3671,-0.4112,10.7904,-6.8213,-8.4957,-1.5888,4.6359,-10.4353,-1.4863,9.8876
726.5625,-22.6358,10.7509,8.5220,-2.2731,-15.3198,2.0370,12.3486,-7.8366,-16.7646,-14.3532,-0.9180,14.2490,-10.6550,-9.6414,-1.0837,7.2608,-13.4264,-0.0187,10.2658
730.4688,-25.5756,8.3668,8.7891,-1.4702,-21.5179,6.8548,12.3422,-8.3166,-19.1255,-13.0500,-0.6495,17.2342,-13.2624,-10.0806,0.8508,9.6757,-15.3695,1.6611,10.7100
734.3750,-28.4066,2.6389,7.9966,-0.4647,-24.6844,11.0423,11.6168,-8.1385,-19.3566,-12.8325,-0.1400,18.7186,-13.8764,-9.3747,2.1145,11.2119,-15.8440,2.8942,10.5752
738.2812,-30.6493,-3.3684,6.3143,0.0025,-24.5287,13.0629,10.0254,-7.2452,-18.1642,-13.9493,-0.0031,18.3265,-12.7579,-7.8776,1.3497,11.4327,-15.1112,3.1865,9.5550
742.1875,-30.9488,-5.4014,4.5362,-0.6705,-22.3227,12.1917,7.1885,-5.9043,-16.4488,-15.1826,-0.6311,16.4235,-11.1261,-6.5747,-1.2454,10.3910,-14.0985,2.5533,7.8249
746.0938,-28.4541,-1.4160,3.3734,-2.3250,-19.9127,9.0432,3.2510,-4.5979,-14.9192,-14.8859,-2.0405,13.8419,-10.3978,-6.4096,-4.4304,8.5389,-13.9109,1.5073,5.8293
750.0000,-24.1450,6.5246,2.7863,-3.9946,-18.4360,5.0830,-0.8136,-3.7779,-13.9220,-12.5762,-3.8984,11.4600,-11.2014,-7.5686,-7.1486,6.3824,-15.0749,0.7099,3.9186
753.9062,-20.7771,13.6206,1.9664,-4.5373,-17.6765,1.4834,-3.8285,-3.6338,-13.4560,-9.6917,-5.7018,9.8451,-12.8856,-9.2925,-9.3083,4.1948,-17.0320,0.5380,2.1257
757.8125,-21.1978,16.0010,0.0136,-3.5041,-16.5106,-1.7149,-5.5245,-4.0320,-13.2948,-8.7129,-7.0417,9.0753,-13.9522,-10.4128,-11.4366,2.0270,-18.3570,0.8673,0.2240
761.7188,-26.1891,13.6824,-3.2661,-1.5668,-14.0481,-5.3829,-7.0925,-4.6595,-13.1533,-11.1760,-7.8421,8.7693,-13.1609,-10.2251,-13.6063,-0.0425,-17.6968,1.2224,-2.0264
765.6250,-33.5333,10.2983,-7.1423,-0.1146,-10.5343,-10.1672,-10.4756,-5.2449,-12.8419,-16.1246,-8.4389,8.3086,-10.5073,-9.0104,-14.7722,-1.7142,-14.8337,1.1755,-4.6657
769.5312,-39.1751,9.7474,-10.5238,-0.2584,-7.2762,-15.4043,-16.7699,-5.6670,-12.3439,-20.3678,-9.4188,7.1739,-7.3108,-7.7632,-13.3714,-2.5777,-11.0469,0.6979,-7.5165
773.4375,-39.7772,12.5583,-12.8212,-1.9641,-5.6522,-19.0959,-24.9856,-5.8732,-11.7763,-20.5915,-11.2714,5.2528,-5.2946,-7.3238,-8.9266,-2.4632,-8.3741,0.1991,-10.3355
777.3438,-34.8726,15.1201,-14.3638,-3.9958,-6.0163,-19.1324,-32.2903,-5.7148,-11.2689,-15.8749,-14.0526,2.9365,-5.3240,-7.6242,-3.3454,-1.6945,-8.1907,0.2179,-12.9692
781.2500,-27.0813,12.6024,-16.0172,-4.7665,-7.4120,-14.9195,-35.7246,-4.9087,-10.8728,-8.6941,-17.2944,0.9155,-6.7625,-7.6995,-0.5831,-0.9368,-10.1366,0.9888,-15.3692
785.1562,-20.2760,3.2632,-18.3560,-3.5125,-8.3559,-8.1564,-34.1553,-3.2433,-10.5847,-3.4880,-20.2522,-0.2292,-7.9579,-6.5041,-4.4662,-0.6989,-12.2664,2.2173,-17.4681
789.0625,-17.0559,-9.4609,-21.1394,-0.9267,-8.0740,-2.0843,-28.9744,-0.9137,-10.4572,-3.6528,-22.3401,-0.3752,-7.5020,-3.8960,-15.9624,-0.9092,-12.4332,3.2489,-19.0613
792.9688,-17.3070,-19.0094,-23.5508,1.2389,-7.1843,0.3591,-23.0217,1.3053,-10.6446,-9.0704,-23.4501,0.0984,-5.3057,-0.9656,-31.8546,-1.0096,-9.9403,3.5261,-19.8459
796.8750,-18.7320,-20.4749,-24.9628,1.3473,-7.2451,-1.7593,-18.6323,2.2944,-11.2648,-16.0053,-23.9151,0.6035,-2.6645,0.6220,-46.0100,-0.5875,-6.2021,2.9972,-19.6325
800.7812,-18.7721,-14.3877,-25.4934,-0.9999,-9.4919,-6.9424,-16.3765,1.2051,-12.1403,-19.5519,-24.1412,0.7270,-1.2747,-0.1843,-52.6815,-0.0430,-3.8259,2.1552,-18.5760
804.6875,-16.4398,-6.4698,-25.8031,-4.6781,-13.7395,-12.3268,-15.4034,-1.8916,-12.6739,-16.9764,-24.1948,0.3839,-1.9653,-3.0057,-49.7965,-0.6340,-4.7115,1.6567,-17.2169
808.5938,-12.8275,-3.4631,-26.2855,-7.7677,-18.2999,-15.4491,-14.8745,-5.7817,-12.0898,-9.6194,-23.6788,-0.3792,-4.1070,-6.2254,-40.0736,-3.6680,-8.5548,1.7985,-16.2351
812.5000,-10.1308,-8.2204,-26.4119,-8.7426,-20.9744,-15.5409,-15.0351,-8.5540,-9.9880,-2.0108,-22.0123,-1.7149,-6.1044,-8.0496,-29.2122,-9.3354,-12.9008,2.2675,-16.0300
816.4062,-10.0473,-17.8022,-24.9199,-7.2790,-20.3737,-13.6303,-16.8574,-8.5396,-6.8140,1.1948,-18.9107,-4.0495,-6.5292,-7.6315,-22.3512,-16.1101,-14.7558,2.3951,-16.3949
820.3125,-12.6655,-25.9245,-20.8204,-4.1860,-16.6246,-11.5867,-20.5675,-5.2203,-3.7755,-1.6559,-14.6958,-7.7027,-4.9980,-5.4397,-21.1238,-21.3461,-12.5973,1.7604,-16.5333
824.2188,-16.4347,-27.7171,-14.4308,-0.6441,-11.0679,-10.8727,-24.5130,0.4413,-2.0884,-8.1548,-10.1983,-12.2865,-2.1754,-2.6820,-23.1664,-22.8325,-7.3144,0.6816,-15.4705
828.1250,-19.0448,-23.0826,-7.5236,2.5819,-5.3330,-11.7825,-25.6628,6.4636,-2.0042,-13.5041,-6.3218,-16.4343,0.9628,-0.3423,-24.2334,-20.2655,-1.4240,0.1634,-12.6546
832.0312,-18.6147,-16.2447,-2.3449,5.3642,-0.5490,-13.4744,-21.6311,10.8314,-2.3925,-13.7200,-3.5949,-18.2785,3.9010,1.3633,-21.3376,-15.5335,2.7877,1.2482,-8.3896
835.9375,-14.6270,-12.1729,-0.1861,7.8158,2.8334,-14.5803,-12.6737,12.4301,-1.3663,-8.1943,-2.0146,-16.5466,6.7386,2.7450,-14.7701,-11.5056,4.7648,4.1822,-3.8076
839.8438,-8.2972,-12.9054,-0.5934,9.7522,4.7568,-13.9442,-1.9317,11.4172,2.3246,0.0153,-1.2380,-11.5714,9.6930,3.9619,-7.7519,-10.1183,5.7277,8.0100,-0.3390
843.7500,-2.2450,-16.5754,-1.8196,10.5721,5.3124,-11.1474,6.4684,8.8983,8.1020,6.2134,-0.9085,-5.4096,12.5150,4.6277,-4.1359,-11.1161,7.3468,10.9622,1.0473
847.6562,0.5470,-19.5244,-2.1495,9.7028,4.8285,-6.6946,10.0781,6.2014,13.5527,6.9606,-0.8401,-0.8083,14.4452,4.1107,-5.8254,-12.3610,10.2046,11.4530,0.3956
851.5625,-1.7550,-19.4083,-1.0604,7.2119,4.0672,-1.8669,9.5001,4.2351,15.8103,1.9554,-0.9645,0.4085,14.8109,2.2416,-11.6158,-11.4831,13.3171,9.0423,-1.2491
855.4688,-8.5143,-16.6787,0.6407,3.9872,4.0447,1.7353,7.4511,3.2639,13.4697,-6.1514,-1.1782,-1.5415,13.7277,-0.3084,-18.0937,-7.6540,15.0769,4.6986,-2.4467
859.3750,-16.4086,-13.5190,1.6994,1.2241,5.3130,2.8861,6.4007,3.0866,7.6687,-13.6586,-1.3071,-4.5854,12.2060,-2.4735,-21.8557,-2.1865,14.7831,0.1628,-2.2204
863.2812,-20.8657,-11.5935,1.5139,-0.4424,7.1888,1.4455,6.8173,3.3287,1.4752,-18.0627,-1.2490,-6.1989,11.4477,-3.8000,-21.5490,2.4444,13.4249,-3.1600,-0.6371
867.1875,-18.6656,-10.8127,0.5613,-1.4690,7.7430,-1.2991,7.4264,3.5605,-2.0653,-19.2455,-1.1329,-5.0652,11.8496,-5.1303,-18.4924,4.3868,12.9920,-5.0131,1.2764
871.0938,-10.1721,-10.0949,-0.0930,-3.1116,4.9285,-3.0157,7.0465,3.1954,-1.8432,-19.0357,-1.2696,-1.8304,12.5670,-8.2019,-15.6082,3.6608,14.8059,-6.2492,2.2538
875.0000,0.4938,-9.0503,0.3406,-6.4549,-1.7297,-1.4583,6.1319,1.4026,0.8303,-19.6481,-1.8455,1.5407,12.0996,-14.2481,-15.4153,1.9880,18.2158,-7.9990,1.6886
878.9062,7.8471,-8.5972,1.9138,-11.4662,-10.1466,4.1281,6.4450,-2.6849,3.4966,-22.1211,-2.5844,3.2797,9.5277,-22.6027,-18.3085,1.4112,20.7800,-10.6806,0.1097
882.8125,8.6492,-9.6290,4.1891,-16.8048,-16.3879,12.1299,9.0822,-9.4193,4.5680,-25.7132,-2.7098,3.0570,5.4404,-30.4997,-22.1138,2.7997,19.9144,-13.5856,-1.1091
886.7188,4.2305,-10.9675,6.8096,-20.5703,-16.9021,18.9045,12.7694,-18.0543,4.4945,-28.5180,-1.3448,2.0621,1.7612,-34.4733,-23.1813,5.3443,14.8261,-15.3468,-0.6341
890.6250,-0.3396,-8.9437,9.7402,-21.4755,-10.8639,20.4252,14.3211,-26.6159,5.1572,-28.7801,1.8713,1.9511,0.5049,-32.5364,-18.4615,7.3322,7.2706,-14.9335,1.9416
894.5312,0.1004,0.1974,12.9343,-19.6099,-0.9454,14.5427,11.2859,-32.5233,7.9835,-26.0351,6.3956,3.5399,2.3416,-25.6204,-7.4849,7.5230,0.5154,-12.4399,5.8175
898.4375,6.8897,16.4615,15.8343,-16.2798,8.1529,2.6609,4.6491,-33.7697,12.3390,-21.3833,10.9506,6.2591,6.0300,-17.1751,6.8669,6.0648,-2.7878,-9.0931,9.4992
902.3438,16.3442,34.0584,17.3618,-13.0982,12.4785,-10.2725,-0.9852,-30.0274,15.5786,-16.7910,14.1743,8.7203,9.1438,-11.1210,19.3849,4.3294,-2.3211,-6.4872,11.7362
906.2500,22.3713,43.5832,16.6099,-11.0253,10.9985,-17.7810,-0.4361,-22.9641,14.8516,-13.9075,15.3182,9.8538,9.5653,-9.5383,25.0384,3.9000,-0.2177,-5.6004,12.2184
910.1562,21.0762,37.7710,13.7152,-10.0263,5.6998,-15.0993,7.8583,-15.4829,9.3325,-13.1493,14.5254,9.6615,6.6794,-11.6715,21.7491,5.5186,0.4493,-6.2797,11.5641
914.0625,13.8415,17.0596,10.0666,-9.4833,-0.3054,-1.9891,19.8768,-10.2582,1.1357,-13.6047,12.5486,9.0184,1.4865,-14.8577,11.8535,8.7141,-2.3009,-7.5018,10.6696
917.9688,6.3416,-9.3193,7.4868,-8.9094,-5.1213,16.5740,28.2087,-8.4209,-5.8864,-13.7708,10.1871,8.7762,-4.3066,-16.5886,1.1805,12.2263,-8.1979,-8.1528,9.9646
921.8750,4.0322,-28.1967,6.9305,-8.3496,-9.0777,32.5929,27.0976,-9.1788,-8.6681,-12.6060,7.8841,8.9933,-9.4331,-16.1539,-4.0401,14.7799,-15.1197,-7.7413,9.1563
925.7812,7.5102,-30.4863,7.7696,-8.1891,-13.7727,39.2592,16.6016,-10.5696,-6.9639,-10.1927,5.7290,8.9629,-13.6086,-14.7393,-0.8281,15.6438,-20.6112,-6.5765,7.6291
929.6875,11.4642,-17.0318,8.3423,-8.6334,-20.1199,34.9294,2.6132,-10.8193,-3.4250,-7.5850,3.7313,7.9887,-17.2096,-14.0911,8.5337,14.7463,-23.3772,-5.3886,5.1277
933.5938,8.3307,1.8555,7.3888,-9.3865,-27.1238,24.3888,-7.3732,-9.4035,-1.6910,-5.9953,2.0276,6.1967,-20.5395,-14.9323,17.5582,12.5199,-23.7788,-4.7584,2.1293
937.5000,-5.8677,13.0646,5.1766,-9.8403,-32.4280,16.2727,-9.5093,-7.1554,-3.9036,-5.9337,0.8102,4.6346,-23.3797,-16.3989,19.3017,9.7553,-23.1810,-4.7861,-0.4196
941.4062,-27.8653,9.1601,3.3038,-9.6026,-34.1576,17.8354,-5.8219,-5.4460,-9.3992,-6.9392,0.0919,4.5271,-25.1679,-16.8603,10.6473,7.5289,-22.8037,-5.1628,-1.7863
945.3125,-48.5778,-6.9973,3.2686,-8.8659,-32.4771,30.1606,-1.8334,-5.0983,-15.3888,-8.0780,-0.3867,6.2934,-25.5473,-15.3536,-5.5465,7.0156,-22.9538,-5.4723,-1.9856
949.2188,-58.7653,-24.4740,5.0014,-8.2552,-29.5267,46.9940,-1.7207,-5.8344,-18.9632,-8.7849,-0.9386,9.1568,-24.7230,-12.4184,-21.8898,9.0313,-23.0824,-5.4268,-1.7191
953.1250,-54.9204,-31.6481,6.6816,-8.2583,-27.7598,58.3029,-5.0999,-6.6073,-18.8952,-9.3456,-1.5784,11.6921,-23.2910,-9.6718,-30.7060,13.4564,-22.4442,-4.8900,-1.7847
957.0312,-41.2050,-23.6941,6.1185,-8.7373,-28.0495,56.5769,-8.0513,-6.4911,-16.0458,-10.5972,-1.9257,12.8658,-21.7246,-8.5268,-28.4710,18.9813,-20.7533,-3.7867,-2.4721
960.9375,-26.2284,-5.2980,2.6002,-8.9807,-29.1249,41.8375,-7.3358,-5.4019,-12.3436,-13.0696,-1.5795,12.7098,-20.0249,-9.1311,-17.6962,23.5389,-18.3586,-2.0949,-3.4753
964.8438,-17.2486,12.8329,-2.3872,-8.3027,-28.7964,21.8977,-3.9814,-4.0911,-9.3429,-16.2847,-0.7234,12.0797,-17.8819,-10.3760,-5.1685,25.3221,-15.9179,0.0158,-4.3899
968.7500,-16.0767,20.9557,-6.2985,-6.7071,-25.9378,7.4718,-2.9203,-3.4543,-7.4836,-18.8520,-0.3967,11.7345,-15.2016,-10.9096,2.2007,23.7924,-13.9212,2.0565,-5.3295
972.6562,-19.3588,16.0460,-7.6743,-5.0339,-21.5667,5.2856,-8.7556,-3.7421,-6.4132,-19.3708,-2.0186,11.5607,-12.4904,-10.2686,1.2273,19.9798,-12.4520,3.3228,-7.0502
976.5625,-22.3918,2.8534,-7.4847,-4.4065,-18.1198,13.8647,-21.1866,-4.3268,-5.7989,-17.4524,-6.3450,10.6499,-10.6858,-9.1867,-6.2893,15.8273,-11.3043,3.2785,-10.3745
980.4688,-23.0435,-9.8399,-8.4183,-5.3749,-17.5168,24.9315,-34.1511,-4.2208,-5.7516,-14.0103,-12.6070,8.1993,-10.5096,-8.8574,-15.3441,13.0058,-10.2733,1.9835,-15.3342
984.3750,-22.6775,-14.8339,-12.5523,-7.4280,-19.6105,29.4264,-39.7982,-2.9202,-6.4931,-10.5081,-18.6073,4.4702,-11.8603,-9.8100,-21.0354,12.0069,-9.3434,0.2108,-20.7713
988.2812,-23.7757,-10.3144,-19.2771,-9.2848,-22.2881,23.8594,-34.3640,-0.8751,-7.6997,-7.7246,-21.9170,0.9286,-13.7714,-11.3588,-21.1773,12.1007,-8.6447,-0.9247,-24.8367
992.1875,-26.7774,0.1421,-25.2879,-9.7650,-23.1250,12.4539,-21.2712,0.8236,-8.3123,-5.0726,-21.4461,-0.6622,-15.0107,-12.0923,-16.8397,12.0886,-8.2661,-0.6355,-26.1172
996.0938,-29.1659,10.6733,-26.8518,-8.5836,-21.2281,3.6240,-8.8460,1.3141,-7.1859,-1.1483,-18.2622,0.4452,-14.8738,-10.9954,-11.0340,11.2133,-8.1208,1.0254,-24.5770
1000.0000,-27.6831,16.8614,-22.6689,-6.4693,-17.7825,3.5050,-4.3234,0.6980,-4.1385,4.7979,-14.9758,3.2962,-13.5668,-8.2870,-6.8625,9.5432,-7.9800,3.1832,-21.5800
1003.9062,-21.6580,17.6989,-15.0536,-4.5449,-14.9234,11.4036,-8.7914,0.0306,-0.4808,11.6225,-14.0303,5.7650,-11.9143,-5.2977,-6.3559,7.6324,-7.6332,4.7008,-18.9453
1007.8125,-14.3307,14.9908,-8.4065,-3.4735,-13.9341,20.5262,-16.9598,0.5364,1.5832,16.4193,-16.0717,5.9620,-10.6740,-3.5006,-10.2637,5.8588,-7.0336,4.8933,-17.7319
1011.7188,-10.7065,11.1825,-6.0836,-3.0378,-14.2866,23.3042,-21.7350,2.6415,0.4091,16.1887,-19.5582,3.4894,-10.0213,-3.4705,-18.2208,4.0536,-6.3160,3.9122,-17.6608
1015.6250,-13.5135,7.4252,-8.0696,-2.4417,-14.2738,17.1502,-19.7722,5.5814,-3.7950,9.9867,-21.8811,-0.3727,-9.5710,-4.5671,-28.6978,1.7285,-5.6795,2.5692,-17.5694
1019.5312,-20.6329,3.1804,-11.2427,-1.0424,-12.6175,6.2237,-13.5617,7.9068,-8.8289,-0.0259,-21.1628,-3.6520,-8.8221,-5.5281,-38.8370,-1.3432,-5.2237,1.7780,-16.4712
1023.4375,-26.3439,-2.6077,-11.9662,1.0990,-9.6247,-2.0653,-8.6371,8.5175,-11.7047,-9.5504,-17.4250,-5.0735,-7.5706,-5.4412,-44.8606,-4.7387,-4.8398,2.0329,-14.3344
1027.3438,-25.6212,-9.8495,-8.9094,3.2719,-6.8924,-2.9883,-8.5731,7.4369,-10.4174,-14.6220,-12.3356,-4.8223,-5.9303,-4.3209,-43.4982,-7.5575,-4.2193,3.2494,-11.9631
1031.2500,-18.1143,-16.4950,-3.8724,4.6830,-5.8335,1.8026,-12.1406,5.7468,-5.0970,-13.9324,-7.8432,-4.1883,-4.0154,-2.9018,-33.9103,-9.0293,-2.9823,4.9746,-10.1473
1035.1562,-8.5322,-19.2643,-0.0682,5.0392,-6.3279,5.6609,-14.9355,4.7480,2.1866,-9.3914,-4.8209,-4.4666,-1.6759,-1.9223,-18.7559,-9.0669,-0.8854,6.7148,-8.8728
1039.0625,-2.9757,-15.5541,0.6083,4.6782,-6.7141,2.2523,-13.8227,5.0092,8.7421,-4.5579,-2.7499,-6.0081,1.3736,-1.5449,-3.2636,-8.3321,1.9705,8.1193,-7.3289
1042.9688,-4.0554,-5.3520,-0.9818,4.1877,-5.1984,-9.4157,-10.0784,6.0213,12.7522,-2.1083,-0.5772,-8.1035,5.0924,-1.3790,7.5166,-7.7920,5.0362,8.9641,-4.7494
1046.8750,-8.7050,8.0925,-2.2288,3.8782,-1.5347,-24.1287,-8.3034,6.6752,13.9909,-2.1942,2.0730,-9.6744,8.7588,-1.0150,11.6160,-8.1389,7.4143,9.0790,-1.3637
1050.7812,-10.5198,19.4064,-1.2815,3.5594,2.4489,-34.3097,-11.9750,6.1254,13.4626,-2.8370,4.3953,-10.1305,11.1408,-0.5555,11.1403,-9.4917,8.1815,8.3726,1.4258
1054.6875,-4.8510,23.5623,1.1706,2.7724,3.9954,-35.4437,-19.6176,4.3301,12.4272,-1.9449,5.0318,-9.7074,11.1958,-0.6657,10.4757,-11.5037,6.8225,6.9414,1.9228
1058.5938,7.3474,18.3888,2.4486,1.2281,1.4096,-28.8582,-25.2313,1.8724,11.5960,0.6851,3.2829,-9.0979,8.8162,-2.1004,12.8529,-13.6556,3.5506,5.1048,-0.5262
1062.5000,19.9780,5.7451,0.3797,-0.9422,-4.6217,-19.9107,-23.0186,-0.7026,10.9919,2.9809,-0.1420,-8.7798,5.0349,-5.1127,17.7359,-15.4311,-0.6977,3.2475,-4.7863
1066.4062,26.2395,-9.3203,-4.3652,-3.3142,-11.3788,-13.3520,-12.6119,-3.3990,10.3768,2.1419,-3.4935,-8.6340,1.4803,-9.2217,21.0326,-16.3081,-4.6387,1.5535,-8.4338
1070.3125,23.5957,-20.9974,-8.1735,-5.5069,-15.8425,-9.7890,-0.2576,-6.6489,9.7412,-3.0858,-5.2008,-8.1334,-0.5535,-13.5034,18.0916,-15.7648,-7.2086,-0.1251,-9.2246
1074.2188,15.4352,-25.4367,-6.9470,-7.3947,-16.5173,-6.0630,5.4583,-10.6692,9.4007,-11.2007,-4.9644,-6.8721,-0.7663,-17.1444,7.3590,-13.5171,-8.0081,-2.0953,-6.5053
1078.1250,8.2183,-22.3495,0.6726,-9.0219,-14.0779,1.0041,0.2472,-14.9043,9.6474,-18.7944,-3.8552,-4.9509,0.1899,-19.8299,-7.9967,-9.9170,-7.3820,-4.4520,-1.5705
1082.0312,6.4424,-14.7449,11.8180,-10.3649,-10.5489,10.8583,-12.1282,-18.1447,10.3002,-22.8654,-3.3620,-2.9089,1.3303,-21.7305,-21.7291,-6.1323,-6.1243,-6.8425,3.2528
1085.9375,9.3889,-7.0999,20.9116,-11.2468,-7.8182,18.7895,-22.1406,-19.3396,10.5839,-22.8650,-4.1722,-1.3104,1.9985,-23.1978,-28.2817,-3.7466,-5.0286,-8.6398,6.0958
1089.8438,12.1087,-3.0407,23.1971,-11.5422,-6.6256,19.3585,-21.2616,-18.4883,9.5121,-20.9213,-5.6578,-0.3654,2.0878,-24.4702,-26.0065,-3.8436,-4.5615,-9.4486,6.5678
1093.7500,9.7179,-3.7170,17.8046,-11.4771,-6.6031,10.9445,-8.0790,-16.8329,6.5663,-20.0626,-6.4343,0.1207,1.7811,-25.5939,-17.6502,-6.1452,-4.8017,-9.5183,5.6943
1097.6562,1.5228,-7.5407,8.2335,-11.6613,-7.0299,-2.3340,10.8671,-16.0785,2.2276,-21.7765,-5.4833,0.4993,1.1828,-26.5119,-8.0023,-8.9119,-5.5784,-9.6351,4.9970
1101.5625,-8.2594,-11.2107,0.0344,-12.6901,-7.4991,-13.0382,26.0161,-17.1540,-2.0283,-24.7610,-2.9115,1.0074,0.2451,-27.1344,-0.6541,-9.8635,-6.6324,-10.4682,5.4938
1105.4688,-13.6627,-11.4058,-2.5984,-14.5710,-7.9868,-15.4402,31.5282,-19.4644,-4.3599,-25.8388,0.2259,1.7048,-0.9742,-27.2911,3.7205,-7.6255,-7.6876,-11.8609,7.2922
1109.3750,-11.4792,-6.3803,0.9637,-16.4874,-8.4932,-9.3729,28.6669,-21.2688,-3.5413,-22.3951,2.8009,2.6010,-2.0710,-26.6652,6.5493,-2.7286,-8.4678,-12.7135,9.8612
1113.2812,-3.6471,3.1486,7.9895,-17.2202,-8.8184,-0.0274,23.5553,-20.9689,0.2141,-14.5529,4.3933,3.7590,-2.4481,-24.8896,9.0730,2.5984,-8.7673,-11.7041,12.5386
1117.1875,4.1792,14.1517,14.4833,-16.0175,-8.8043,6.0337,21.5732,-18.3529,5.0859,-5.4729,5.3249,5.2207,-1.8517,-21.8366,10.7221,5.7854,-8.6075,-8.3907,14.7956
1121.0938,6.6156,22.4805,17.5364,-13.2603,-8.7934,5.5460,23.1414,-14.8268,8.3434,0.4928,6.0000,6.8368,-0.8370,-17.8917,9.5668,5.5444,-8.3610,-3.8217,16.1671
1125.0000,2.0280,24.7241,16.5060,-10.3404,-9.7279,0.4430,24.1574,-12.4194,7.6666,0.5373,6.2329,8.2369,-0.6449,-13.9240,4.3892,2.6584,-8.6708,-0.0470,16.1565
1128.9062,-6.9170,19.9643,12.6846,-8.7472,-12.5990,-4.1753,20.3113,-12.3013,2.4381,-4.8415,5.2529,9.0676,-2.4189,-10.8742,-3.5057,-0.5900,-10.1207,1.2472,14.4251
1132.8125,-15.6646,10.4947,8.1401,-9.0166,-17.5978,-4.1401,11.3472,-13.9585,-5.7479,-12.2121,2.4474,9.3355,-6.2877,-9.2204,-10.4504,-1.9257,-12.8405,-0.0000,11.2004
1136.7188,-21.0152,0.8944,4.6434,-10.3650,-23.7128,0.8744,1.6073,-15.6678,-13.7743,-17.3873,-1.8046,9.5136,-11.0707,-8.7466,-12.6501,-0.4740,-16.3485,-2.0826,7.4769
1140.6250,-22.7584,-4.3017,3.1452,-11.3350,-29.2354,7.6752,-3.4899,-15.9046,-18.6231,-17.9045,-6.0259,10.2143,-14.9528,-8.8347,-8.8751,2.8722,-19.8074,-2.7353,4.6385
1144.5312,-22.8284,-3.1487,3.7041,-10.9725,-32.8733,12.4992,-1.9152,-14.5678,-19.0426,-14.2158,-8.5119,11.6199,-16.7150,-9.0661,-1.5573,6.2477,-22.5554,-0.8609,3.6121
1148.4375,-23.1258,2.5117,5.6058,-9.5984,-34.5976,14.0192,3.3879,-13.0322,-16.2350,-8.9780,-8.5927,13.1494,-16.6053,-9.6211,4.5895,8.1074,-24.5248,2.5308,4.1576
1152.3438,-23.9767,8.1273,7.6138,-8.5285,-35.4986,14.0549,7.0759,-12.9652,-13.0686,-5.1282,-7.2804,13.7270,-16.1449,-11.0887,5.4749,8.0948,-26.2044,4.9568,4.9191
1156.2500,-24.3467,9.2997,8.4470,-8.9419,-36.7309,15.6550,5.8618,-14.8376,-12.2527,-4.1267,-6.6899,12.5479,-16.9647,-13.7910,0.0541,6.9858,-28.1359,4.2681,4.3199
1160.1562,-23.2859,4.6732,7.4202,-10.8094,-38.4167,20.3086,1.0557,-17.3431,-14.6250,-5.4441,-8.5481,9.7775,-19.5390,-17.1831,-9.2709,5.9258,-30.3235,0.2972,1.6906
1164.0625,-21.1113,-3.0934,4.8672,-12.7866,-39.4506,26.5753,-2.8872,-18.2523,-18.6798,-7.3889,-12.8543,6.5961,-22.7910,-19.9070,-18.2920,5.6290,-32.0462,-4.9188,-2.2390
1167.9688,-19.2493,-9.0321,1.9197,-13.2125,-38.4122,31.1182,-2.4566,-16.0986,-21.6542,-8.4706,-17.7074,4.4764,-24.8853,-20.5836,-23.3638,6.1001,-32.2825,-8.5432,-5.8984
1171.8750,-18.9688,-9.1764,-0.3565,-11.4396,-34.8394,31.1845,1.7296,-11.4036,-21.4242,-8.2857,-20.4993,4.1996,-24.5959,-18.8030,-22.9845,6.9334,-30.4767,-8.9289,-8.0808
1175.7812,-20.2211,-3.2326,-1.8687,-8.4151,-29.7713,26.5526,5.3451,-6.4577,-17.9052,-7.4315,-19.6733,5.3592,-22.1900,-15.5343,-17.9581,7.7956,-27.0716,-6.6913,-8.8542
1179.6875,-21.6394,5.2545,-3.6602,-6.0014,-25.0581,19.5523,3.9688,-3.7625,-13.0076,-6.7325,-15.8262,6.7409,-19.1591,-12.5580,-10.5767,8.6401,-23.3655,-4.0677,-9.4547
1183.5938,-21.6751,11.3701,-7.0492,-5.5362,-21.9768,13.3325,-3.1929,-4.2750,-9.2400,-6.5008,-11.3880,7.2713,-17.0414,-11.2725,-3.6543,9.5275,-20.7386,-3.0914,-11.2443
1187.5000,-19.8518,12.1867,-12.3392,-6.7743,-20.3124,9.7979,-12.5830,-6.7687,-8.0050,-6.3862,-9.1087,6.7766,-16.2889,-11.7396,0.1738,10.3024,-19.7791,-4.0188,-14.5677
1191.4062,-17.0646,8.6387,-18.1723,-8.0718,-18.7071,8.6797,-19.1007,-8.7916,-8.8063,-5.8152,-10.3792,5.9564,-16.0625,-12.6953,-0.9395,10.4902,-19.9372,-5.2224,-18.4219
1195.3125,-14.7345,4.6275,-22.1963,-7.6944,-16.0189,8.1927,-20.0316,-8.4949,-9.8596,-4.5499,-14.4766,5.6418,-15.0708,-12.5376,-7.2991,9.5549,-19.9599,-4.5913,-21.1923
1199.2188,-13.6211,4.0879,-22.6653,-5.2210,-12.5480,6.5709,-16.8704,-5.9562,-9.5473,-2.8692,-19.1451,6.0047,-12.7282,-10.5556,-17.0563,7.3261,-18.7970,-1.2960,-21.8555
1203.1250,-13.3276,8.1882,-19.7640,-1.9231,-10.0483,3.3223,-13.6874,-3.0213,-7.5723,-1.2555,-22.0355,6.4072,-9.6847,-7.4802,-26.4754,4.2489,-16.3278,3.4870,-20.6944
1207.0312,-12.8581,14.6539,-15.5680,0.1891,-10.4215,-0.5411,-13.6125,-1.8312,-4.9842,0.0863,-22.0316,6.0090,-7.3194,-4.9566,-31.5130,1.2475,-13.4121,7.4376,-18.9941
1210.9375,-11.6356,19.5733,-12.6004,-0.0989,-14.1019,-3.2475,-16.4620,-3.1907,-3.1737,1.4145,-19.6819,4.5673,-6.6500,-4.3602,-30.1090,-0.7178,-11.2660,8.8220,-18.0218
1214.8438,-10.0212,20.2208,-12.0856,-2.3063,-19.4511,-3.3896,-19.3792,-6.0238,-2.7190,3.1515,-16.6088,2.6851,-7.5565,-5.8548,-23.6759,-1.1211,-10.6427,7.7059,-18.1395
1218.7500,-8.8811,16.7886,-13.2607,-4.6911,-23.7111,-0.7922,-19.6892,-8.2906,-3.0126,5.3477,-14.3986,1.2465,-8.9263,-8.3695,-16.4533,-0.1138,-11.3919,5.7256,-18.7219
1222.6562,-8.6363,11.8750,-14.2506,-5.6425,-24.8297,3.2402,-17.3232,-8.6033,-2.8984,7.3941,-13.7011,0.5230,-9.5432,-10.4339,-12.7962,1.5395,-12.6491,4.6722,-18.8425
1226.5625,-8.6936,8.3260,-13.7211,-4.8995,-22.7682,6.3665,-14.6913,-7.2602,-1.7147,8.3016,-14.0171,-0.2181,-8.9556,-11.1740,-14.1322,2.7458,-13.4387,5.0816,-18.0624
1230.4688,-7.8027,7.2008,-11.9054,-3.6241,-19.3090,6.2097,-14.2266,-5.9040,0.1586,7.4141,-14.1802,-2.1668,-7.6230,-10.7112,-17.8459,2.4689,-13.2228,5.9639,-16.6454
1234.3750,-5.0415,7.3626,-10.1646,-3.3058,-16.5646,1.5844,-15.8977,-6.1028,1.6877,5.0405,-13.1518,-5.8692,-6.2931,-9.7498,-19.1175,0.1245,-12.0496,5.8339,-15.0942
1238.2812,-0.5788,6.8092,-9.5319,-4.4233,-15.3893,-6.5994,-16.9867,-7.9941,2.1425,2.4903,-10.6487,-10.5029,-5.2142,-8.8080,-14.5400,-4.0925,-10.3051,4.1295,-13.5282
1242.1875,4.4293,4.4984,-9.5786,-5.9759,-14.9178,-15.3681,-14.3992,-10.0648,1.7821,1.3950,-7.2809,-14.2308,-3.9004,-7.7918,-4.8597,-9.0957,-8.3584,1.8122,-11.5434
1246.0938,8.6837,1.1614,-8.6636,-6.2750,-13.5085,-20.9217,-7.5128,-10.2465,1.6787,2.7185,-4.1721,-15.4616,-1.6531,-6.2588,5.3038,-13.1852,-6.3914,0.6463,-8.7097
1250.0000,11.5767,-1.4397,-5.4025,-4.3535,-10.2432,-20.6339,0.9459,-7.4815,2.8215,6.1057,-2.2980,-14.0512,1.6398,-4.0855,10.6683,-14.7629,-4.4783,1.7574,-5.2264
1253.9062,13.3310,-2.0366,-0.0869,-0.8472,-5.7457,-14.7164,6.8328,-2.5696,5.2530,10.0214,-1.9159,-11.4487,5.1596,-1.8920,9.0692,-13.2368,-2.7522,4.6592,-2.0617
1257.8125,14.4329,-0.8070,5.2324,2.3713,-1.6984,-6.4203,7.7587,2.3272,7.9581,12.6037,-2.4127,-9.5996,7.6166,-0.7807,2.9484,-9.6038,-1.4517,7.5437,-0.3421
1261.7188,14.9941,1.0084,8.1720,3.5256,0.4753,-0.4393,4.8627,5.1153,9.6054,12.6826,-2.6780,-9.4366,8.1703,-1.5455,-2.5781,-6.2227,-0.8027,8.6007,-0.4545
1265.6250,14.7069,2.3803,7.8190,2.1954,0.6552,-0.3425,1.7234,5.0515,9.5447,10.3267,-1.8059,-10.1698,7.0600,-3.9872,-3.5576,-5.6999,-0.8668,7.3079,-1.6447
1269.5312,13.4395,3.4465,5.4159,-0.4648,-0.0245,-6.5798,1.3467,2.9607,8.2703,6.6146,0.2961,-9.9831,5.4189,-6.9249,0.0358,-9.3954,-1.5190,4.6892,-2.5283
1273.4375,11.8428,5.2527,3.3416,-2.6842,-0.1968,-16.2881,3.7602,0.3301,7.0048,2.8550,2.7924,-7.6191,4.4136,-8.9594,4.6957,-16.4214,-2.5790,2.3843,-2.1554
1277.3438,11.2431,8.4896,3.2209,-3.4392,0.6406,-24.9658,6.1859,-1.9325,6.7593,-0.1911,4.4115,-3.5893,4.3974,-9.4503,6.4835,-23.8333,-3.9573,1.3107,-0.7654
1281.2500,12.7205,12.3790,4.7224,-3.1838,1.8397,-28.8953,5.5737,-4.0990,7.6108,-2.5995,4.2480,-0.0079,4.7362,-8.9853,4.2421,-28.0427,-5.6593,0.9772,0.4170
1285.1562,16.0696,14.8078,6.0107,-3.4410,2.2793,-26.8298,1.3126,-7.1735,8.7143,-4.9769,2.3420,0.8791,4.4061,-8.9975,0.3313,-26.7146,-7.6359,-0.0646,0.2049
1289.0625,19.5841,13.7826,5.4190,-5.6392,1.3479,-20.1142,-4.1528,-11.8428,8.9696,-7.8613,-0.3659,-1.6410,2.8388,-10.8053,-1.5935,-20.0574,-9.6359,-3.0534,-1.5426
1292.9688,21.0283,9.1187,2.8980,-10.0960,-0.6152,-11.5157,-7.2687,-17.7130,7.7795,-11.2689,-2.6682,-6.1605,0.3326,-14.7470,0.2313,-10.7362,-11.2357,-8.0641,-3.7691
1296.8750,19.1806,2.9707,0.0345,-15.8491,-2.7328,-3.7409,-6.2070,-23.4408,5.3549,-14.6494,-3.8457,-10.0783,-2.2483,-19.9675,4.2796,-2.4490,-12.0616,-13.9417,-5.0533
1300.7812,14.8001,-1.3587,-1.3090,-21.3303,-4.4051,1.5020,-2.2192,-27.6180,2.4528,-17.1926,-3.9881,-11.3168,-4.1565,-24.9246,7.2992,2.0038,-12.0216,-19.0478,-4.7217
1304.6875,10.2354,-1.5566,-0.5070,-25.2775,-5.7574,3.7079,1.5567,-29.6762,-0.1235,-18.2162,-3.6709,-9.5375,-5.2159,-28.2077,7.4166,2.0563,-11.3324,-22.1627,-3.2989
1308.5938,7.9145,2.1724,1.4759,-27.2274,-7.3388,3.3930,2.7690,-30.1021,-1.8432,-17.3986,-3.3010,-6.0286,-5.7059,-29.1424,5.9654,-0.5877,-10.2990,-22.9023,-1.9216
1312.5000,8.8069,7.3284,3.1292,-27.3870,-9.4013,1.8662,1.7491,-29.8459,-2.4540,-14.8103,-2.7163,-2.5123,-5.8817,-27.9079,6.2763,-3.1405,-9.0569,-21.5349,-1.2446
1316.4062,11.9470,10.9344,3.8307,-26.1977,-11.4882,0.9131,1.0948,-29.4595,-1.8804,-10.8584,-1.4084,0.0840,-5.6707,-25.2645,10.3344,-3.3761,-7.5563,-18.5900,-0.8267
1320.3125,15.2661,11.6083,4.3333,-24.0512,-12.7787,2.1439,3.3537,-28.6931,-0.2775,-6.2492,0.8119,1.9397,-4.8924,-22.1798,16.2564,-0.7942,-5.8713,-14.6983,0.4179
1324.2188,16.9944,10.3891,5.8605,-21.3273,-12.9321,6.0385,8.7550,-26.8653,1.7644,-1.9472,3.3175,3.6477,-3.8109,-19.5606,19.1192,3.2681,-4.5892,-10.7116,3.0497
1328.1250,16.5550,9.7780,8.6688,-18.5419,-12.6690,11.2545,14.8282,-23.6659,3.1591,0.9850,4.8677,5.2855,-3.4352,-18.0986,14.9639,6.5105,-4.8678,-7.7473,6.2398
1332.0312,14.4038,11.7836,11.4675,-16.2822,-13.4863,14.9295,18.1599,-19.6868,2.6953,1.7213,4.4783,6.1579,-5.1224,-18.1357,4.9402,6.9513,-7.9338,-6.8184,8.0553
1335.9375,11.1894,16.4428,12.3484,-14.8736,-16.6104,14.1728,16.8451,-16.1998,-0.2430,0.0628,2.3135,5.4566,-9.6277,-19.5303,-4.0312,3.9183,-14.2338,-8.1518,6.8062
1339.8438,7.1097,21.8477,10.4912,-14.0684,-21.9589,7.9950,11.7451,-14.3123,-5.0907,-3.3642,-0.1748,3.2158,-16.2952,-21.6330,-3.3129,-1.6832,-22.8090,-10.7493,2.4491
1343.7500,2.0482,25.5444,7.1240,-13.1246,-27.9421,-1.6325,5.7259,-14.1435,-10.1867,-7.2864,-1.1172,0.6437,-23.1026,-23.4943,11.1219,-7.8335,-31.4239,-12.7197,-3.0938
1347.6562,-3.7268,26.1934,4.7696,-11.3331,-32.3215,-10.4910,1.6489,-14.6712,-13.6270,-10.2913,0.4357,-0.5679,-27.6838,-24.2741,34.6420,-12.2685,-37.5152,-12.3573,-7.0486
1351.5625,-9.0808,24.3050,5.2717,-8.6294,-33.5435,-14.3243,0.7043,-14.3960,-14.3835,-11.3925,3.6987,0.5391,-28.7058,-23.6354,55.5081,-13.3405,-39.4514,-9.2859,-7.5786
1355.4688,-12.3663,21.6542,8.2148,-5.7826,-31.6233,-11.1762,2.1769,-12.3671,-12.9086,-10.3476,6.5405,3.4250,-26.6539,-21.8717,61.4911,-10.5684,-37.3373,-4.8110,-4.9552
1359.3750,-12.4696,19.9636,11.1123,-3.9522,-28.0082,-2.3659,4.4704,-8.8534,-10.7720,-7.6087,6.8817,6.3826,-23.4747,-19.6878,47.3511,-4.7628,-32.8642,-1.1438,-1.2843
1363.2812,-9.7388,19.8714,11.2905,-3.9130,-24.6111,8.4391,6.3226,-5.2117,-9.5779,-4.0346,4.1195,7.7189,-21.3298,-17.7989,18.1939,2.2443,-28.3257,-0.0029,0.9537
1367.1875,-5.9777,20.8238,7.9557,-5.5361,-22.7436,17.2880,7.2617,-3.0689,-9.9448,-0.5947,-0.4723,6.8661,-21.3331,-16.6169,-13.5370,8.1759,-25.4382,-1.5842,0.4369
1371.0938,-3.3903,21.7588,2.7322,-7.9148,-22.6344,21.7434,7.2185,-3.3725,-11.2642,1.8119,-4.6779,4.5868,-23.0972,-16.1856,-35.3810,11.0621,-24.6699,-4.6154,-2.4606
1375.0000,-3.1879,21.9147,-1.7782,-10.0092,-23.6771,21.4418,5.9639,-5.8931,-12.3323,2.4980,-6.9198,2.2072,-25.2804,-16.2989,-41.6576,9.9739,-25.3698,-7.3730,-6.3565
1378.9062,-4.8434,21.1750,-4.1960,-11.2732,-25.0221,17.5041,3.0402,-9.4067,-12.2791,1.2228,-7.2987,0.5940,-26.6063,-16.6238,-35.5312,5.4681,-26.4403,-8.8233,-10.0623
1382.8125,-6.4982,19.8641,-5.4513,-11.7821,-26.0033,11.6320,-1.7683,-12.3545,-11.0422,-1.5042,-7.3246,-0.2660,-26.5809,-16.7284,-25.5505,-0.5242,-27.0109,-9.0223,-13.3022
1386.7188,-6.1897,18.3526,-7.8231,-11.8367,-26.2069,5.6077,-7.9628,-13.5570,-9.0817,-4.3083,-8.5724,-0.8234,-25.4874,-16.1050,-19.5294,-5.4534,-26.7195,-8.5852,-16.4875
1390.6250,-3.0375,16.8575,-12.7443,-11.4747,-25.3783,1.1954,-14.3806,-12.6356,-6.7089,-5.3296,-11.3326,-1.1884,-23.8642,-14.3468,-20.0149,-7.3149,-25.6000,-7.8232,-19.9241
1394.5312,2.3281,15.5032,-19.2653,-10.3786,-23.4547,-0.0921,-19.7623,-10.0346,-3.7279,-3.1212,-14.3187,-0.8347,-22.0268,-11.4849,-23.9708,-5.6739,-23.8626,-6.3871,-23.2635
1398.4375,8.1972,14.4237,-24.5392,-8.2691,-20.7642,2.3156,-23.3390,-6.7376,0.2254,2.3620,-15.6701,0.8713,-20.0318,-8.2444,-26.1528,-1.9501,-21.8191,-3.7408,-25.6971
1402.3438,12.6243,13.7038,-25.9850,-5.3969,-18.1229,7.2925,-24.9744,-3.8358,4.9406,9.3629,-14.4650,3.7736,-17.9949,-5.8946,-23.3137,1.3082,-19.9368,0.0010,-26.6724
1406.2500,14.1549,13.2293,-23.3520,-2.6163,-16.5495,12.0525,-24.8851,-2.0948,9.2177,14.9591,-11.5587,6.5379,-16.3269,-5.6066,-16.3301,1.8500,-18.8021,3.7222,-26.4302
1410.1562,12.2051,12.6981,-18.9585,-0.8820,-16.6499,13.4229,-23.3735,-1.6524,11.3081,16.5325,-9.0749,7.2786,-15.5548,-7.6530,-9.2444,-0.9548,-18.8403,5.8918,-25.8387
1414.0625,7.1843,11.8977,-15.8932,-0.5504,-18.0965,9.7727,-20.9097,-1.9811,10.0197,13.2402,-8.9210,4.8459,-15.8319,-11.0304,-6.4310,-5.7273,-19.9271,5.6967,-25.6532
1417.9688,0.4652,11.0038,-15.6615,-1.0897,-19.6752,2.2490,-18.3954,-2.1845,5.6669,6.5358,-11.4437,-0.2147,-16.6017,-13.8901,-10.0381,-9.9303,-21.2345,3.7757,-25.8568
1421.8750,-5.8905,10.4868,-17.2064,-1.4894,-19.9702,-5.7408,-17.0844,-1.5228,0.0626,-0.6468,-15.2249,-5.8454,-16.8052,-14.5855,-19.1687,-11.4669,-21.5555,1.8537,-25.6747
1425.7812,-9.8108,10.5044,-18.0549,-1.0569,-18.2300,-10.6154,-17.8776,0.1279,-4.5485,-5.5555,-18.1364,-9.7573,-15.5564,-12.6342,-30.7893,-9.9989,-19.9773,1.4704,-24.2548
1429.6875,-10.1811,10.2291,-16.5487,0.0799,-14.7554,-10.8583,-20.3967,2.2212,-6.8683,-7.0559,-18.8242,-10.8938,-12.7628,-8.8687,-41.3312,-7.0982,-16.4315,2.7893,-21.4169
1433.5938,-7.5602,7.8694,-13.2335,1.2224,-10.4946,-7.8163,-22.7112,3.9940,-7.2005,-5.9352,-17.5042,-10.0013,-9.1476,-4.6299,-47.9484,-5.1169,-11.6767,4.4832,-17.8062
1437.5000,-3.9994,1.7669,-10.2458,1.9051,-6.1708,-4.5463,-22.2821,5.1522,-6.8828,-3.9798,-15.5305,-8.9188,-5.6088,-0.6112,-49.0870,-5.5584,-6.6881,4.8550,-14.3227
1441.4062,-1.8138,-7.9673,-9.2862,2.5239,-1.6812,-3.6859,-17.7025,6.2525,-6.9611,-2.5871,-14.1635,-9.1803,-2.4288,3.6980,-44.6164,-8.1009,-1.9268,3.3198,-11.3424
1445.3125,-1.9845,-18.5443,-9.9898,4.1435,3.6832,-5.9820,-9.9827,8.3878,-7.1930,-1.9472,-13.5579,-11.0091,0.9647,9.4382,-35.8116,-10.9715,2.8936,1.0265,-8.4494
1449.2188,-3.3492,-25.3893,-10.1575,7.5180,10.3175,-10.4324,-2.2374,12.2774,-6.2203,-1.3153,-12.7632,-13.4115,5.4064,17.0427,-25.1449,-12.3807,8.3007,0.0394,-4.9472
1453.1250,-3.3375,-24.7014,-7.6911,12.0997,17.4311,-15.5834,2.2299,17.3921,-2.8099,-0.0161,-10.6839,-15.1641,10.9973,25.2034,-15.6498,-11.9293,14.2069,1.6697,-0.7209
1457.0312,0.1117,-16.1496,-2.5783,15.9522,23.0169,-20.6361,2.1455,21.8440,2.8403,1.7381,-7.1771,-15.8104,16.5476,31.1018,-9.8618,-10.9027,19.4597,5.2850,3.3310
1460.9375,6.8231,-3.7167,2.8126,16.8421,24.8496,-25.3828,-0.8909,23.3071,8.8515,2.9342,-3.3662,-15.8601,20.0398,31.9570,-8.7842,-11.2025,22.3095,8.6093,5.7438
1464.8438,14.2413,6.2466,5.4592,13.8230,21.8878,-29.2484,-3.6499,20.4678,12.7947,2.6802,-0.8923,-16.1190,19.9050,26.8934,-11.5033,-13.7148,21.5812,9.3645,5.5237
1468.7500,19.1420,8.7479,4.0550,8.1118,15.0769,-30.6553,-3.7083,14.0159,13.4172,1.1610,-0.6778,-16.8185,16.2080,17.7488,-15.7376,-17.3909,17.6931,7.0069,2.9574
1472.6562,20.0005,3.2224,0.0827,2.4779,6.9311,-27.6676,-1.2121,6.3950,11.6432,-0.2458,-2.1723,-17.3431,10.8021,8.1079,-18.9883,-19.8072,12.6597,3.1812,-0.4807
1476.5625,18.1858,-6.2113,-3.2862,-0.5539,0.1365,-19.6073,1.4000,0.3621,10.0030,0.0870,-3.6746,-16.7855,6.2350,1.1110,-19.5879,-18.8568,8.9146,0.4768,-3.0854
1480.4688,16.9510,-13.5485,-3.5621,-0.4413,-3.8722,-8.2497,1.4734,-2.7148,10.8216,2.6949,-3.5003,-14.8134,4.1304,-2.4684,-17.1111,-14.3356,7.7153,0.4037,-4.0104
1484.3750,18.8940,-14.7911,-0.6646,0.9845,-5.4021,2.6575,-1.6516,-3.6305,14.4636,6.3266,-1.1243,-12.0541,4.2134,-4.5043,-12.1479,-8.2187,8.3028,2.1533,-3.6524
1488.2812,23.8322,-10.1942,3.3143,0.8277,-5.7901,9.4569,-6.0486,-4.6043,18.9422,8.5141,2.5278,-9.6327,4.7110,-7.9256,-5.8532,-3.3840,8.5127,3.1355,-3.0690
1492.1875,28.8027,-3.3979,5.9735,-2.7592,-6.0957,10.7379,-8.6625,-7.5186,21.2205,7.0935,5.8012,-8.2503,3.8380,-14.3738,0.3563,-1.6980,6.4704,0.9263,-2.9492
1496.0938,30.2601,1.6403,6.4540,-9.1730,-6.2094,7.9138,-7.5987,-12.3955,19.2860,1.6340,7.4512,-7.6111,1.2508,-22.7923,4.9615,-2.8625,2.1418,-4.8405,-3.0026
1500.0000,26.7705,3.3768,5.7645,-15.6922,-5.0316,3.8152,-3.4118,-17.2389,13.5089,-6.2278,7.3418,-6.7246,-1.6484,-29.9768,6.6355,-4.8461,-2.4607,-12.0834,-2.2631
1503.9062,20.0412,2.9893,5.4677,-19.3173,-1.5533,0.5308,1.5434,-19.4075,6.3312,-13.7766,6.2440,-4.8603,-2.8115,-32.7043,4.7998,-5.5327,-4.6577,-17.6965,-0.0414
1507.8125,13.4319,2.3156,6.0362,-18.8059,4.0156,-1.7007,5.0096,-17.5589,0.5611,-18.8295,5.0029,-2.3502,-1.2247,-29.9252,0.1420,-4.3225,-3.1056,-19.7223,3.2850
1511.7188,9.1533,1.5319,6.4055,-15.4594,9.9596,-3.7732,6.3175,-12.7604,-2.4470,-20.8735,3.8084,-0.5263,2.1275,-23.4745,-5.4446,-2.4911,1.0662,-18.6509,6.3251
1515.6250,6.5035,-1.1205,5.1141,-12.1356,13.8879,-6.0929,6.2863,-7.9284,-3.4219,-21.0281,2.1655,-0.7708,4.8035,-16.8289,-9.7399,-2.0843,4.8977,-16.8978,7.5755
1519.5312,2.7016,-7.1493,1.9443,-11.2335,14.1440,-7.7954,5.8339,-5.9434,-4.2499,-20.9908,-0.4479,-3.3989,4.6062,-12.8298,-11.4593,-4.2366,5.6295,-16.8917,6.4964
1523.4375,-4.2746,-15.1542,-1.5068,-13.0951,10.8362,-7.6729,4.7514,-7.7446,-6.2997,-21.7870,-3.8262,-7.2553,1.2029,-11.9827,-10.9937,-8.2011,2.6708,-19.2306,3.9450
1527.3438,-13.2335,-20.4571,-2.9700,-15.9179,5.7759,-5.9056,1.9159,-11.7291,-9.3271,-23.1723,-6.8571,-10.3712,-3.5644,-12.4660,-9.9728,-11.7978,-1.9573,-22.2735,1.6365
1531.2500,-19.9554,-18.0451,-1.4558,-17.1586,1.3460,-4.6847,-3.1644,-14.8693,-11.7729,-23.9673,-8.1311,-11.2108,-6.9622,-11.7297,-9.8650,-12.9024,-5.0828,-23.4214,1.0264
1535.1562,-20.2167,-6.8923,1.6846,-15.3717,-0.9742,-6.6618,-8.9364,-14.7621,-12.1589,-22.9442,-6.9117,-9.5991,-7.3495,-8.4586,-10.6704,-10.8501,-4.7275,-21.0837,2.4021
1539.0625,-13.4285,7.9458,3.6115,-11.1901,-1.4792,-12.2462,-12.0697,-11.1984,-10.4371,-19.5953,-3.7360,-6.6882,-5.4266,-3.5042,-10.8111,-6.7683,-1.6396,-15.8638,4.7798
1542.9688,-3.8931,17.8000,2.1787,-6.8294,-1.9608,-18.2124,-9.6078,-6.2133,-8.2165,-14.3520,-0.1737,-4.0569,-3.8182,0.7864,-8.4478,-2.6992,1.1209,-10.1412,6.6040
1546.8750,1.6690,16.2340,-2.3066,-4.5565,-4.4701,-19.3697,-1.4989,-2.6520,-7.6814,-8.2910,2.1073,-2.6569,-5.2529,2.2568,-3.2721,-0.2495,0.2842,-6.4396,6.7178
1550.7812,-1.2334,4.0637,-7.2150,-5.2280,-9.9072,-12.5086,8.5850,-2.2918,-10.0418,-2.6692,2.3159,-2.3471,-10.6053,0.3921,2.6937,0.2556,-5.3191,-5.8201,4.9742
1554.6875,-11.4774,-10.5669,-9.5595,-7.8644,-17.3170,0.4235,15.1039,-4.7968,-14.6932,1.4228,0.8889,-2.2427,-18.1751,-3.4410,6.1138,-0.3634,-13.8673,-7.4203,2.1878
1558.5938,-22.9069,-17.6585,-8.2312,-10.4408,-24.3257,12.8371,14.1014,-8.1386,-19.6957,3.2543,-0.9766,-1.4803,-24.6978,-7.0143,4.6140,-0.9616,-21.6856,-9.3305,-0.4190
1562.5000,-28.6578,-12.6036,-4.7189,-11.2532,-28.4491,17.8783,5.8349,-10.0842,-23.1499,2.6247,-2.2236,0.2250,-27.3813,-8.6990,-1.3168,-0.8554,-25.5920,-10.0157,-1.8668
1566.4062,-26.0863,0.3252,-1.7743,-9.9135,-28.4817,13.5514,-5.3619,-9.6655,-24.3824,0.0453,-2.6106,2.5704,-25.5789,-8.3468,-8.3120,-0.0490,-24.8213,-9.1978,-1.8240
1570.3125,-18.5642,11.2237,-1.1607,-7.3840,-25.1379,4.4584,-13.9499,-7.6517,-24.0590,-3.2371,-2.7317,5.0451,-21.0172,-7.0936,-12.2043,1.0661,-21.2613,-7.6510,-0.6542
1574.2188,-12.7024,12.3725,-2.3473,-5.1630,-20.5816,-1.5861,-16.7590,-5.7968,-23.2398,-5.6022,-3.4537,7.2675,-16.5297,-6.3848,-10.8558,2.1033,-17.9700,-6.2663,0.8050
1578.1250,-13.0732,4.6576,-3.1871,-4.2659,-17.1567,0.2896,-14.7549,-5.4815,-22.2482,-5.7920,-5.2461,8.9989,-14.2468,-6.9995,-5.7681,2.7944,-17.1115,-5.2542,1.5906
1582.0312,-18.5070,-2.6577,-1.9606,-4.6823,-16.1059,7.9285,-11.8599,-6.7220,-20.3583,-3.6445,-7.8894,9.9401,-14.4707,-8.7082,-1.2847,2.8509,-18.7450,-4.1332,0.9747
1585.9375,-22.9222,0.9090,0.9509,-5.5794,-17.0439,13.6236,-11.8534,-8.1931,-16.6019,-0.2997,-10.7079,9.6477,-15.8789,-10.6497,-1.8535,1.8989,-21.1656,-2.4215,-1.2570
1589.8438,-20.1827,18.2022,3.1593,-5.9966,-18.4569,10.3126,-15.6842,-8.1871,-11.0298,2.3865,-13.0781,7.7831,-16.7347,-11.9975,-9.1538,-0.2738,-22.3551,-0.3443,-4.7187
1593.7500,-9.3059,40.8251,2.0562,-5.4975,-18.8385,-2.2988,-21.0666,-5.8150,-5.3106,2.9385,-14.8038,4.5341,-16.1434,-12.3847,-20.9703,-3.3086,-21.3877,1.1224,-8.6044
1597.6562,4.0666,54.0618,-3.1599,-4.3577,-17.6853,-16.7120,-24.4446,-1.6479,-2.0184,1.1704,-16.1248,0.8051,-14.4949,-11.8567,-32.4995,-6.1422,-18.8330,0.9623,-12.0827
1601.5625,11.2655,47.1503,-10.8228,-3.2341,-15.7053,-22.8788,-23.7059,2.5958,-2.9894,-1.7178,-17.4357,-2.1132,-12.9167,-10.5378,-39.1752,-7.4550,-16.0439,-0.9867,-14.6952
1605.4688,6.7368,21.4312,-17.9683,-2.6195,-14.1530,-15.8733,-19.6430,5.0815,-7.9332,-3.9410,-18.9884,-3.2655,-12.2819,-8.3811,-39.1915,-6.5225,-14.0350,-3.7142,-16.4997
1609.3750,-7.8118,-9.8260,-22.3411,-2.4879,-13.8072,-0.0299,-15.2504,4.9431,-14.3909,-4.2751,-20.7928,-2.6563,-12.5503,-5.2291,-34.2392,-3.8640,-12.8388,-5.6123,-17.8521
1613.2812,-24.3983,-30.0561,-23.6642,-2.3658,-14.3435,13.8330,-13.5660,2.7589,-19.1880,-2.7618,-22.7116,-1.2989,-12.8691,-1.1030,-28.2043,-1.1200,-11.7303,-5.5482,-18.9945
1617.1875,-34.2413,-30.3421,-23.3127,-1.7457,-14.5530,16.1356,-15.6963,0.1584,-20.4123,-0.5225,-24.5815,-0.6063,-12.2526,3.5621,-24.8269,-0.1244,-9.9941,-3.6336,-19.7810
1621.0938,-33.7366,-14.8115,-22.8692,-0.5261,-13.2448,5.3572,-20.3270,-1.1713,-18.5247,1.1087,-26.2196,-1.5234,-10.2772,7.9593,-25.7929,-1.7623,-7.5522,-1.1055,-19.7825
1625.0000,-26.5961,3.1873,-22.8613,0.8512,-10.1789,-11.1896,-24.8429,-0.4673,-15.8139,1.4540,-27.3453,-3.9869,-7.3092,11.2259,-30.2568,-5.4141,-4.9915,0.5877,-18.6974
1628.9062,-20.6784,10.9334,-22.6583,1.6782,-6.3534,-23.0347,-27.1066,1.7220,-14.6063,0.7510,-27.5736,-7.0552,-4.1968,12.8183,-35.8069,-9.3889,-3.0770,0.8064,-16.7200
1632.8125,-21.9668,4.7269,-21.4013,1.4976,-3.4256,-24.1025,-26.6922,3.9612,-15.5459,-0.2867,-26.5846,-9.5687,-1.7386,12.7186,-40.0671,-12.0322,-2.2219,0.0928,-14.5210
1636.7188,-30.1833,-9.1436,-18.9674,0.5046,-2.6537,-16.3116,-24.9317,4.8918,-17.1869,-1.1507,-24.3869,-10.8583,-0.3173,11.3842,-41.9188,-12.7225,-2.3285,-0.3458,-12.8035
1640.6250,-39.2009,-20.8698,-16.0602,-0.4618,-4.0706,-6.7942,-23.9529,4.1342,-17.1643,-1.8731,-21.4447,-11.0432,0.1382,9.5245,-41.7320,-12.0864,-3.0231,0.3895,-11.7713
1644.5312,-41.7867,-25.3818,-13.4307,-0.3785,-6.4306,-1.4915,-25.3848,2.5575,-14.0431,-2.7848,-18.4995,-10.8057,-0.0279,7.8451,-40.6702,-11.3724,-3.9694,2.2135,-10.9606
1648.4375,-35.0472,-25.7740,-11.0930,1.3159,-7.9462,-0.6125,-29.4025,1.7267,-8.4801,-3.9892,-16.1556,-10.8894,-0.3888,6.8469,-39.6545,-11.5223,-4.9537,4.1643,-9.6246
1652.3438,-22.5604,-29.5579,-8.4070,4.2932,-7.3253,0.4421,-34.4840,2.8550,-2.8694,-5.0816,-14.5218,-11.6915,-0.5398,6.6852,-38.6906,-12.6237,-5.7296,5.1615,-7.4081
1656.2500,-11.7607,-41.3185,-5.0438,7.4231,-4.4657,5.8821,-37.9442,5.9247,0.2310,-5.4029,-13.2020,-13.1561,-0.1782,7.0939,-36.9567,-14.0445,-5.8937,4.7969,-4.7827
1660.1562,-8.6522,-58.1129,-1.9101,9.3552,-0.4289,14.8752,-37.0789,9.5706,-0.2596,-4.6153,-11.6651,-14.9152,0.7669,7.4294,-33.5323,-15.0050,-5.0370,3.5602,-2.8543
1664.0625,-13.7552,-71.4418,-0.9815,9.2641,3.2187,21.6848,-30.5285,11.8496,-3.3633,-3.0721,-9.7121,-16.4872,2.0130,6.9080,-28.2239,-15.0665,-3.1087,2.3779,-2.6299
1667.9688,-22.0804,-74.0463,-3.8712,7.3121,5.2620,20.6026,-19.2503,11.4450,-6.8204,-1.6073,-7.6539,-17.4073,2.9834,5.0142,-21.8710,-14.2098,-0.6377,1.8809,-4.2552
1671.8750,-26.8783,-65.7894,-10.1457,4.5470,5.4093,11.4111,-6.4658,8.5365,-8.5544,-0.8761,-6.0326,-17.3097,3.1432,1.8901,-15.8701,-12.5956,1.5009,1.9923,-6.7860
1675.7812,-24.2532,-53.7047,-16.8478,2.2959,4.3282,0.4640,3.6611,4.7472,-7.7669,-0.8026,-5.1067,-16.0412,2.4560,-1.5756,-11.2270,-10.3617,2.7089,2.1188,-8.6801
1679.6875,-15.3851,-46.1843,-19.9333,1.4178,3.2040,-3.9335,8.1118,2.1659,-5.0241,-0.6569,-4.5476,-13.7988,1.6015,-4.1183,-7.8547,-7.6911,3.2069,1.7214,-8.6806
1683.5938,-5.1058,-46.1427,-16.8618,1.8521,3.0963,1.6906,6.7115,2.0473,-1.5196,0.2216,-3.6571,-11.1675,1.6713,-4.7947,-4.7267,-5.0383,3.9839,0.7485,-6.5022
1687.5000,1.7201,-48.8210,-8.5579,2.7106,4.4175,12.6042,2.2924,4.0235,1.7542,1.6074,-1.9870,-8.9263,3.4324,-3.5970,-0.8825,-3.1685,6.0687,-0.4286,-2.8979
1691.4062,3.1983,-46.0495,0.7820,2.8280,6.7644,18.9450,-0.9734,6.3285,4.2999,2.1927,0.1346,-7.6520,6.6471,-1.5522,3.4377,-2.8029,9.6119,-1.4857,0.8674
1695.3125,0.8124,-33.4620,6.1169,1.4331,9.1695,13.1386,-0.1504,6.8833,5.8429,0.3001,1.6591,-7.3521,10.0096,-0.1708,6.4965,-4.0503,13.5163,-2.5657,3.7323
1699.2188,-2.5800,-14.7372,4.7113,-1.4460,10.6481,-3.9998,4.6257,4.5344,5.9848,-4.9099,1.5229,-7.4040,11.8704,-0.5517,6.0539,-6.0920,16.0038,-4.2384,5.2932
1703.1250,-5.2310,0.6223,-2.0797,-5.0430,10.7687,-23.2350,10.3195,-0.3268,4.2779,-12.5989,-0.4651,-6.9025,11.3235,-2.7174,1.1127,-7.4860,15.7968,-6.9915,5.8064
1707.0312,-7.4750,4.2174,-9.6019,-8.3072,9.9210,-33.0591,13.1168,-6.0931,0.7340,-20.4445,-3.2406,-5.2258,8.8813,-5.6300,-6.8511,-6.9954,13.0635,-10.6715,5.8765
1710.9375,-10.6636,-5.1269,-12.7668,-10.4636,9.0906,-27.4378,11.0773,-10.9200,-3.7242,-25.8318,-4.9808,-2.4486,6.1905,-7.8812,-14.2566,-4.4031,9.3837,-14.3722,6.1087
1714.8438,-15.2431,-20.8029,-9.1387,-11.3597,9.2262,-9.5202,5.5067,-13.6763,-7.4197,-27.2868,-4.2224,0.6796,4.9218,-8.5813,-17.3827,-0.7137,6.7003,-16.9225,6.9111
1718.7500,-19.7445,-33.6322,-0.3045,-11.4278,10.5784,11.0665,0.1166,-14.2999,-8.7654,-25.2128,-0.8499,3.1774,5.6049,-7.8341,-14.6834,2.4496,5.9972,-17.6310,8.4423
1722.6562,-21.5812,-38.4936,9.2311,-11.3160,12.4616,24.8698,-1.4188,-13.4695,-7.2612,-21.4741,3.7490,4.3915,7.2663,-6.4924,-7.7955,3.8633,6.6817,-16.7177,10.6094
1726.5625,-19.0178,-37.1236,14.7980,-11.4308,13.6512,28.1324,2.1832,-11.9671,-3.9002,-18.1621,7.4989,4.3108,8.1567,-5.4230,-0.4116,3.4445,7.1336,-15.0925,13.0712
1730.4688,-12.7337,-35.2217,14.1845,-11.6746,13.1843,23.5510,9.0955,-10.2333,-0.6208,-16.4059,8.8751,3.4698,7.0363,-4.8680,4.2529,2.2217,5.9924,-13.6569,15.2991
1734.3750,-5.7382,-36.7213,8.6029,-11.5435,11.0006,16.6535,15.6446,-8.3675,0.8503,-15.9837,7.7324,2.5744,4.0519,-4.3948,5.5686,1.5935,3.1892,-12.6840,16.7518
1738.2812,-1.6591,-40.2371,1.6100,-10.5267,7.9245,11.3598,18.5511,-6.4302,-0.0380,-15.8645,5.2025,2.1444,0.5426,-3.4577,5.5991,2.4202,-0.0757,-11.7592,17.1129
1742.1875,-2.6032,-40.6016,-3.1492,-8.5553,4.9515,8.2379,16.6237,-4.6981,-2.5401,-15.1546,2.8158,2.3921,-2.0652,-2.0965,7.1245,4.5631,-2.3755,-10.2992,16.4376
1746.0938,-8.0228,-33.9462,-3.9355,-6.1969,2.3526,6.1078,10.9734,-3.6309,-5.3437,-13.7169,1.5239,3.3248,-3.4062,-1.1741,11.1229,7.1247,-3.2853,-8.1902,15.0834
1750.0000,-15.2416,-21.7689,-1.5510,-4.4365,-0.6886,4.6916,3.9469,-3.6054,-7.5414,-12.0761,1.2956,4.8897,-4.4588,-1.9033,15.7248,9.1346,-3.8041,-5.9912,13.4588
1753.9062,-21.1533,-10.3572,1.5456,-4.1477,-5.5419,5.4629,-2.2395,-4.6782,-9.1161,-10.8168,1.4631,6.9922,-6.7342,-4.9766,17.5352,10.1646,-5.6109,-4.5207,11.7765
1757.8125,-23.9360,-5.9494,2.9113,-5.5764,-13.0125,9.9435,-6.2599,-6.5859,-10.6619,-10.0427,1.4198,9.3892,-11.0038,-9.9478,14.3501,10.4738,-9.7122,-4.1760,10.0001
1761.7188,-23.7919,-9.6865,1.5079,-8.1733,-22.4458,17.3384,-7.6480,-8.9511,-12.6812,-9.3460,1.0682,11.6160,-16.5674,-15.3569,7.1303,10.6642,-15.5283,-4.5733,8.0017
1765.6250,-22.4705,-16.6400,-1.9430,-10.8992,-31.7715,24.1259,-6.4473,-11.4700,-15.0910,-8.2639,0.6978,13.0955,-21.6471,-19.5425,-0.3987,11.1597,-21.1413,-4.8430,5.7657
1769.5312,-22.0700,-19.8162,-5.6800,-12.8077,-38.5380,26.4091,-3.0837,-13.8906,-17.3208,-6.7923,0.4938,13.4153,-24.6100,-21.5694,-4.3242,11.8858,-24.5397,-4.3623,3.4408
1773.4375,-23.8892,-15.8888,-8.1041,-13.5237,-41.2550,23.1635,1.4676,-15.8290,-18.8505,-5.4975,0.1719,12.5784,-25.0784,-21.6083,-3.3759,12.3338,-24.9379,-3.3224,1.2071
1777.3438,-27.8925,-7.9569,-8.6726,-13.3101,-40.1101,17.4629,5.6310,-16.6700,-19.6723,-5.1237,-0.9064,11.0147,-24.0814,-20.5246,0.1663,11.9171,-23.2047,-2.6393,-0.8835
1781.2500,-32.9129,-3.0558,-7.9962,-12.7188,-36.5812,14.3345,7.6933,-15.7693,-20.2709,-6.0239,-3.2312,9.3083,-23.1585,-19.0358,2.1971,10.3641,-21.1209,-3.2457,-2.8999
1785.1562,-37.3615,-6.4339,-7.2188,-12.1207,-32.2870,16.7845,6.6785,-12.9012,-21.1647,-7.8867,-6.6997,7.8237,-23.1436,-17.1195,-0.1789,7.9119,-20.0693,-5.3209,-4.8420
1789.0625,-40.0542,-17.2155,-7.2094,-11.4847,-27.9702,23.2250,3.0173,-8.6139,-22.4364,-9.9803,-10.6316,6.5105,-23.5825,-14.1460,-6.6344,5.2124,-20.1467,-8.0826,-6.4769
1792.9688,-40.7736,-28.9024,-8.1382,-10.5527,-23.3600,28.5105,-1.6124,-4.1316,-23.6667,-11.7038,-14.2529,5.0406,-23.2155,-9.6218,-14.1305,3.0193,-20.3141,-10.3215,-7.4427
1796.8750,-40.3052,-34.2431,-9.6538,-9.2239,-17.9333,27.8674,-5.3163,-0.7504,-24.3053,-12.9850,-17.2453,3.1740,-21.1016,-3.9304,-19.4532,1.8224,-19.3822,-11.2521,-7.6274
1800.7812,-39.9057,-30.5554,-11.3967,-7.7791,-11.8684,20.6094,-7.2183,0.9140,-24.1200,-14.1945,-19.8948,1.0631,-17.4704,1.5677,-21.6984,1.6091,-17.0135,-10.9964,-7.5159
1804.6875,-40.4534,-21.3732,-13.3498,-6.7154,-6.3458,10.6885,-7.9965,1.2834,-23.3081,-15.6524,-22.7073,-0.7588,-13.6308,5.2282,-22.7290,1.8813,-13.9722,-10.3176,-8.1103
1808.5938,-41.7707,-13.3527,-15.7158,-6.3082,-2.9054,3.6871,-9.3012,1.4738,-22.1846,-17.1514,-25.8139,-1.7160,-11.0338,6.1407,-25.3052,1.9369,-11.4940,-9.8501,-10.3181
1812.5000,-42.5985,-11.1265,-18.4605,-6.2838,-2.3646,2.7024,-12.4688,2.4535,-20.7706,-17.9180,-28.6819,-1.6134,-10.2548,4.7211,-30.4845,1.2838,-10.3369,-9.4952,-14.1769
1816.4062,-41.3423,-14.2091,-20.9940,-5.9393,-4.1848,6.3618,-17.4802,4.3064,-18.7134,-17.0879,-30.4041,-0.8205,-10.6920,2.4206,-36.4608,-0.0486,-10.2860,-8.5203,-18.5439
1820.3125,-37.1827,-18.1470,-22.3828,-4.6867,-6.8242,10.3771,-22.9118,6.1544,-15.6723,-14.3534,-30.3643,-0.0715,-11.1818,0.7357,-39.8190,-1.5119,-10.4656,-6.3011,-21.6351
1824.2188,-30.8035,-18.5995,-22.0252,-2.6210,-8.8273,11.1654,-26.8686,6.8189,-11.8537,-10.2812,-28.7527,-0.0209,-10.9933,0.2212,-38.2009,-2.3923,-10.1508,-3.0851,-22.1744
1828.1250,-24.1622,-14.8439,-20.2628,-0.6314,-9.7989,8.5266,-28.1684,5.7295,-8.1853,-6.0388,-26.5071,-0.8768,-10.3881,0.2028,-32.2276,-2.3156,-9.3842,-0.0922,-20.3625
1832.0312,-19.3583,-9.9860,-18.3542,0.1047,-10.5091,5.3365,-26.9275,3.3829,-5.8764,-2.7075,-24.7024,-2.3720,-10.3149,-0.6241,-25.1192,-1.5682,-8.9017,1.2098,-17.8960
1835.9375,-17.3276,-8.0487,-17.6955,-1.0759,-12.0722,4.7623,-24.2300,0.9865,-5.6275,-0.6733,-23.8403,-4.0655,-11.5219,-3.1652,-20.3111,-0.9942,-9.4518,0.1424,-16.8991
1839.8438,-17.2765,-10.6116,-18.7993,-3.8101,-14.8879,7.4648,-21.2751,-0.4504,-7.0814,0.4794,-23.5653,-5.7139,-13.8244,-7.2129,-18.9614,-1.5062,-11.0779,-2.6343,-18.4489
1843.7500,-17.2858,-15.7722,-20.8228,-6.8850,-18.2046,11.0723,-18.7207,-0.8711,-8.9735,1.5247,-22.9983,-7.4058,-16.1128,-11.5332,-19.3053,-3.5273,-12.9466,-5.5050,-21.7434
1847.6562,-15.6748,-20.0321,-22.0769,-8.9936,-20.6419,12.1856,-16.6487,-1.1627,-9.9077,2.9585,-21.4104,-9.3517,-17.0736,-14.6489,-18.3066,-6.7348,-13.8521,-6.9465,-24.5518
1851.5625,-12.1497,-21.2477,-21.2022,-9.5170,-21.2161,9.1064,-14.9861,-2.3651,-9.2001,4.6422,-18.7268,-11.5183,-16.0382,-15.7303,-14.2240,-10.2661,-12.9989,-6.4607,-24.6716
1855.4688,-7.9169,-20.0988,-18.1412,-8.7714,-20.0140,3.0511,-13.8477,-4.7042,-7.1811,5.9614,-15.5220,-13.4422,-13.3147,-14.9787,-8.0277,-13.2150,-10.4707,-4.7262,-21.3750
1859.3750,-4.7090,-19.0241,-14.1511,-7.5772,-17.9684,-2.9660,-13.4287,-7.2257,-4.7763,6.3320,-12.5783,-14.4356,-9.8118,-13.3004,-2.5868,-15.0588,-7.0740,-2.9245,-15.8323
1863.2812,-3.4861,-19.8158,-10.8332,-6.5399,-15.9506,-6.4522,-13.5821,-8.3714,-2.7433,5.6417,-10.3905,-14.0808,-6.3314,-11.5818,-0.3642,-15.7573,-3.7313,-1.8330,-10.2494
1867.1875,-3.7861,-22.0756,-8.9374,-5.6360,-13.9654,-7.0123,-13.5807,-7.1130,-1.1853,4.3007,-8.9841,-12.6475,-3.1232,-10.1155,-1.5205,-15.5454,-0.9174,-1.4057,-6.3943
1871.0938,-4.1755,-23.7756,-7.8946,-4.4184,-11.1528,-6.0943,-12.4400,-3.7998,0.3109,2.9016,-8.1097,-11.0752,-0.0103,-8.5434,-3.9265,-14.6743,1.4665,-1.1076,-4.5933
1875.0000,-3.3928,-23.2149,-6.4517,-2.6264,-6.6187,-5.4423,-9.6610,-0.0528,2.0933,1.7931,-7.5722,-10.4557,3.1217,-6.2671,-4.9882,-13.3364,3.7751,-0.6239,-3.8651
1878.9062,-1.2686,-20.5023,-3.8841,-0.6403,-0.4154,-5.7484,-5.8014,2.2662,3.9630,0.9070,-7.3864,-11.3302,5.9710,-2.9574,-3.7285,-11.7757,6.1916,-0.2756,-2.9689
1882.8125,1.2645,-17.2840,-0.7739,0.6407,6.1608,-6.5474,-2.3243,2.2823,5.2239,-0.0569,-7.6547,-13.2916,7.9430,1.2009,-1.4188,-10.3723,8.5624,-0.7690,-1.4822
1886.7188,3.0117,-15.1175,1.3243,0.4302,11.2562,-7.1245,-0.7136,0.6374,5.2274,-1.2881,-8.3286,-15.1974,8.6401,5.6268,-0.3000,-9.5047,10.5865,-2.5151,-0.0695
1890.6250,3.4795,-14.1026,1.0994,-1.3229,13.6425,-7.3430,-1.4558,-1.0712,3.9512,-2.6840,-9.1085,-15.8805,8.2653,9.6354,-1.5077,-9.2331,12.1323,-5.1509,0.1985
1894.5312,3.1898,-13.0315,-1.3816,-3.8512,13.5025,-7.5719,-3.6594,-1.5353,2.1192,-3.9931,-9.5852,-14.8755,7.5554,12.6440,-3.9486,-9.0925,13.3610,-7.7258,-1.1355
1898.4375,3.1403,-10.8227,-4.5476,-6.1238,12.2250,-7.9337,-5.6376,-0.7482,0.7500,-5.1481,-9.4914,-12.6562,7.2673,14.1926,-5.0609,-8.2667,14.5290,-9.4321,-3.3934
1902.3438,3.9131,-7.7702,-6.3378,-7.6099,11.3757,-7.8218,-6.0560,-0.0424,0.4861,-6.4752,-8.8283,-10.2210,7.6336,13.8902,-2.8385,-6.1242,15.6511,-10.2629,-5.1365
1906.2500,5.1858,-5.3324,-5.5817,-8.6392,11.6271,-6.3513,-4.8088,-1.1273,1.2210,-8.5500,-7.7637,-8.3401,8.2367,11.4709,2.5161,-2.7488,16.3456,-11.0099,-5.1125
1910.1562,6.0283,-4.6087,-2.6915,-10.0638,12.4274,-3.3992,-2.9871,-4.8306,2.2851,-11.7604,-6.4157,-7.0268,8.4031,6.9994,8.6287,0.9704,16.0364,-12.5586,-3.0394
1914.0625,5.6947,-4.9727,0.8189,-12.4920,12.5854,-0.1813,-1.9898,-10.4536,3.0004,-15.8986,-4.7559,-5.6299,7.7815,1.0685,12.6334,3.8231,14.3860,-15.0479,0.3233
1917.9688,4.2252,-4.2876,3.5364,-15.7107,11.2508,1.3692,-2.4624,-16.1848,3.1441,-20.1194,-2.7455,-3.4725,6.6205,-5.2457,13.1628,5.0105,11.6143,-17.6089,3.7774
1921.8750,2.3615,-0.7131,5.0826,-18.7610,8.5140,0.0548,-3.8551,-20.2492,2.9766,-23.3475,-0.5823,-0.5398,5.5198,-10.7497,11.1269,4.5780,8.4317,-18.9474,6.4324
1925.7812,0.8774,5.4207,6.0819,-20.6058,5.2131,-3.5265,-4.8928,-21.9620,2.8740,-24.8849,1.2034,2.3352,4.8770,-14.6493,8.7696,3.2202,5.6017,-18.3343,8.0495
1929.6875,-0.0803,11.4233,7.3091,-20.8574,2.1916,-7.3147,-4.5559,-21.9700,2.9194,-24.8074,1.9675,3.9700,4.5060,-16.8871,7.8479,1.6400,3.4457,-16.2163,8.8434
1933.5938,-1.0730,14.1176,8.8367,-19.9978,-0.3437,-9.3302,-2.8181,-21.5850,2.8033,-23.8761,1.3736,3.6750,3.7565,-18.0626,8.4004,0.0171,1.6577,-13.9350,9.0530
1937.5000,-2.8084,12.3466,9.9435,-18.9439,-2.8530,-9.1509,-0.6184,-21.7627,2.0923,-23.0232,-0.2966,1.8224,2.0407,-18.9747,9.0068,-1.9527,-0.4261,-12.7536,8.7107
1941.4062,-5.4207,8.0137,9.8321,-18.3325,-5.9151,-8.0490,0.8488,-22.4806,0.6080,-22.7620,-2.2159,-0.2951,-0.6673,-20.0876,8.2070,-4.4894,-3.2895,-12.9445,7.7733
1945.3125,-8.2173,4.6947,8.4741,-18.1007,-9.6015,-7.6613,0.9513,-22.9089,-1.4136,-22.9106,-3.4593,-1.2436,-3.7734,-21.2697,5.8561,-7.1653,-6.8203,-13.6488,6.4037
1949.2188,-10.1287,4.8755,6.7873,-17.6664,-13.3106,-8.3701,-0.0505,-22.1534,-3.5035,-22.7875,-3.5245,-0.3257,-6.4951,-21.9555,3.3245,-8.9172,-10.3173,-13.6018,5.0597
1953.1250,-10.5220,8.0663,5.9490,-16.5125,-16.1834,-8.8636,-1.3278,-19.9566,-5.3102,-21.7166,-2.5690,2.0490,-8.4346,-21.5831,2.4319,-8.7295,-12.9231,-12.1361,4.2554
1957.0312,-9.7356,11.3549,6.4226,-14.6633,-17.7341,-7.3303,-2.1334,-16.8407,-6.8215,-19.4858,-1.2193,4.7327,-9.8308,-19.9821,4.0118,-6.4732,-14.1847,-9.6695,4.1955
1960.9375,-8.9080,11.9515,7.5484,-12.6666,-18.1665,-3.2776,-2.2614,-13.6548,-8.2969,-16.4704,-0.1348,6.6472,-11.2966,-17.4514,7.2397,-3.1813,-14.3580,-7.3159,4.6230
1964.8438,-9.2202,9.6039,8.0718,-11.1280,-18.1289,1.6461,-2.0306,-10.9468,-9.9985,-13.3814,0.3341,7.4383,-13.2604,-14.5092,10.2018,-0.4475,-14.2445,-5.9693,5.0362
1968.7500,-11.1077,6.8609,7.1732,-10.2241,-18.1383,4.6429,-1.9179,-8.6777,-11.9628,-10.8507,0.1745,7.5382,-15.5621,-11.5366,11.2013,0.6454,-14.6711,-5.6190,5.0957
1972.6562,-13.9980,6.9479,5.1213,-9.6199,-18.1739,3.8356,-2.2086,-6.4765,-13.9815,-9.1426,-0.5071,7.6639,-17.5235,-8.5960,9.7940,0.2315,-15.9542,-5.4447,4.8608
1976.5625,-16.7222,11.0063,2.9900,-8.8562,-17.7863,-0.2766,-2.9323,-4.1859,-15.7641,-8.1554,-1.6854,8.1894,-18.4338,-5.5584,6.8466,-0.5777,-17.7014,-4.5902,4.6412
1980.4688,-18.2617,16.9798,1.6869,-7.8671,-16.6303,-5.1896,-4.0458,-2.2209,-17.1078,-7.6537,-3.3905,8.8810,-18.0770,-2.4272,3.7193,-0.6999,-19.0772,-2.9662,4.5994
1984.3750,-18.3007,21.0729,1.1340,-7.1665,-14.9652,-8.2826,-5.6083,-1.4224,-17.9349,-7.5174,-5.4990,9.1579,-16.9075,0.4073,1.3022,-0.0279,-19.3574,-1.4151,4.4666
1988.2812,-17.2527,20.6081,0.3167,-7.5169,-13.6756,-8.6609,-7.7392,-2.4921,-18.2094,-7.8046,-7.5911,8.6192,-15.7600,2.2154,-0.3746,0.4918,-18.4102,-1.0925,3.6496
1992.1875,-15.8309,16.0048,-1.8343,-9.3160,-13.7384,-7.4800,-10.4063,-5.4188,-17.8637,-8.5856,-9.0940,7.3893,-15.3196,2.2996,-1.7982,-0.2605,-16.7907,-2.5429,1.6639
1996.0938,-14.5247,10.3689,-5.4827,-12.1728,-15.5036,-6.6187,-13.2865,-9.3169,-16.8360,-9.6893,-9.6771,6.0142,-15.7264,0.4750,-3.3430,-2.4725,-15.3850,-5.1879,-1.4643
2000.0000,-13.3378,7.1326,-9.6760,-15.0038,-18.3257,-6.9718,-15.8986,-12.7979,-15.1907,-10.5877,-9.6017,5.0230,-16.5603,-2.6673,-4.9505,-5.0461,-14.8389,-7.6206,-5.1720
2003.9062,-11.9145,7.6784,-13.0707,-16.5964,-20.8512,-7.8839,-17.9443,-14.6357,-13.1946,-10.5619,-9.7034,4.5293,-17.1668,-5.9335,-6.3546,-6.3816,-15.1482,-8.4891,-8.7391
2007.8125,-9.9099,10.7389,-14.9811,-16.2557,-21.8062,-8.1397,-19.5699,-14.3153,-11.2568,-9.1019,-10.9358,4.1954,-17.0716,-8.0996,-7.5647,-5.7237,-15.6902,-7.3345,-11.7662
2011.7188,-7.3429,13.8041,-15.8615,-14.1236,-20.7725,-7.4763,-21.2820,-12.1720,-9.7663,-6.3069,-13.7506,3.5627,-16.2211,-8.5704,-9.0944,-3.9477,-15.6803,-4.8139,-14.3563
2015.6250,-4.7212,15.1635,-16.8195,-11.0162,-18.4398,-7.1004,-23.5310,-9.1107,-8.9521,-3.0048,-17.7428,2.4576,-14.9428,-7.7193,-11.6602,-3.0427,-14.7480,-2.2118,-16.8621
2019.5312,-2.8703,14.8813,-18.5868,-7.9438,-16.1619,-8.6238,-26.2743,-6.1302,-8.8525,-0.4421,-21.8230,1.1335,-13.7058,-6.6551,-15.5537,-4.5826,-13.2275,-0.6285,-19.4264
2023.4375,-2.5432,14.1091,-20.8286,-5.6333,-15.0961,-12.3394,-28.8875,-3.9250,-9.3599,0.3434,-24.8083,0.0456,-12.8484,-6.5051,-20.1916,-8.3532,-11.9443,-0.3947,-21.7117
2027.3438,-3.9875,13.6250,-22.3759,-4.2907,-15.4631,-16.4845,-30.5322,-2.7155,-10.2398,-0.8713,-26.0389,-0.5397,-12.4099,-7.6336,-24.2414,-12.2806,-11.6247,-1.0293,-23.0556
2031.2500,-6.6895,13.0478,-22.1777,-3.6452,-16.3848,-18.3607,-30.7176,-2.3008,-11.0875,-3.2933,-25.6292,-0.7726,-12.1224,-9.3043,-26.2899,-13.8429,-12.3347,-1.6619,-22.9295
2035.1562,-9.4813,11.3949,-20.1664,-3.1712,-16.3955,-16.5452,-29.6222,-2.2373,-11.3254,-5.4972,-24.2506,-1.1068,-11.5468,-10.0605,-25.6308,-11.9759,-13.3593,-1.5816,-21.3353
2039.0625,-11.0431,8.3282,-17.3287,-2.3645,-14.3174,-12.3477,-27.9240,-2.0520,-10.3843,-6.2176,-22.6659,-1.9538,-10.2990,-8.6383,-22.6659,-8.0276,-13.6406,-0.5875,-18.8373
2042.9688,-10.5971,4.7824,-14.9604,-0.9871,-9.9809,-9.1601,-26.2811,-1.4304,-8.0754,-5.0930,-21.3616,-3.3940,-8.2792,-4.8509,-18.6909,-4.9800,-12.4981,0.9836,-16.2257
2046.8750,-8.3988,2.2828,-13.7578,0.7877,-4.3645,-10.0437,-24.8878,-0.3334,-4.9196,-2.8827,-20.4774,-5.1685,-5.7897,0.1604,-15.2279,-5.4452,-10.1333,2.4800,-14.0868
2050.7812,-5.6606,1.5285,-13.4868,2.4051,0.9268,-15.4086,-23.4575,1.0050,-2.0971,-0.9853,-19.9622,-6.9327,-3.4442,4.5300,-13.3135,-9.8806,-7.5445,3.2632,-12.5858
2054.6875,-3.8518,1.5789,-13.4155,3.1863,4.5417,-22.6470,-21.6136,2.2173,-0.8752,-0.5398,-19.7317,-8.5377,-1.8628,6.7862,-13.1028,-16.3124,-5.8785,3.0128,-11.5534
2058.5938,-3.7487,0.5038,-13.0253,2.7371,6.1083,-28.0479,-19.3149,3.0215,-1.7695,-1.6854,-19.6648,-10.0982,-1.2910,6.7592,-13.9208,-21.7387,-5.6436,1.9126,-10.7148
2062.5000,-4.8556,-2.9414,-12.3158,1.2846,6.3843,-29.4839,-16.9148,3.3927,-4.0061,-3.4842,-19.4847,-11.7974,-1.3792,5.6597,-14.6506,-24.1481,-6.3219,0.6306,-9.8338
2066.4062,-5.6433,-8.0282,-11.4685,-0.3197,6.7463,-27.7629,-14.7847,3.5647,-5.7595,-4.5734,-18.7162,-13.6056,-1.3055,5.2463,-14.2404,-23.6825,-6.6629,0.0480,-8.6933
2070.3125,-4.5214,-12.3252,-10.2871,-1.0167,8.3321,-25.6510,-12.8521,3.8530,-5.1560,-4.1120,-16.8599,-15.1592,-0.2254,6.6272,-12.1322,-22.1784,-5.4779,0.8135,-7.0372
2074.2188,-0.9257,-13.4163,-8.0813,-0.1644,11.3534,-25.4731,-10.5248,4.4282,-1.4564,-2.3669,-13.7260,-15.9232,2.2036,9.5073,-8.4903,-21.5606,-2.4205,2.9479,-4.6478
2078.1250,4.2247,-10.7254,-4.2490,2.0419,14.9902,-27.2963,-7.1704,5.2127,4.3757,-0.5261,-9.6924,-15.5323,5.5566,12.3962,-4.1672,-22.3744,1.7510,5.7635,-1.5723
2082.0312,9.0384,-5.9877,0.9043,4.6701,17.9109,-29.1204,-2.8171,5.9805,10.1512,0.1277,-5.6632,-14.0739,8.8319,13.6221,-0.3995,-23.5383,5.5906,8.2055,1.6959
2085.9375,11.7910,-1.9945,5.9134,6.6279,19.0720,-28.7751,1.5322,6.5605,13.7070,-0.9153,-2.6940,-12.1101,10.9991,12.4330,1.6927,-23.3924,7.7835,9.4300,4.3188
2089.8438,11.9104,-0.6287,8.8891,7.3107,18.2891,-25.8316,4.3483,6.9439,14.1145,-3.1088,-1.4877,-10.4167,11.5654,9.4189,1.6224,-21.1252,7.8578,9.2306,5.5378
2093.7500,10.1559,-1.7236,8.8166,6.8461,16.2443,-21.9222,4.5700,7.1760,12.0582,-5.3465,-2.0539,-9.5868,10.8082,5.9878,-0.1762,-17.4475,6.3841,8.0076,5.1700
2097.6562,7.9397,-3.5331,6.4176,5.7702,13.9794,-19.2941,2.4298,7.1153,9.1908,-6.8489,-3.7233,-9.7189,9.5441,3.3125,-2.4757,-14.0488,4.5950,6.3087,3.8051
2101.5625,6.3549,-4.2653,3.8066,4.4265,12.2510,-18.9272,-0.5624,6.3035,6.9847,-7.7584,-5.4844,-10.3500,8.6087,1.5310,-3.7948,-12.3438,3.6924,4.3209,2.5062
2105.4688,5.6267,-3.3508,3.0832,2.6109,11.1809,-19.8509,-2.5613,4.1476,5.9083,-8.9876,-6.4364,-10.6673,8.3915,-0.2347,-3.1131,-12.5183,4.2424,1.7512,2.1756
2109.3750,5.3051,-1.4939,4.8749,-0.2142,10.3841,-20.1828,-2.6167,0.3599,5.4435,-11.4426,-6.1272,-9.9094,8.6970,-3.1014,-0.3960,-13.5656,5.9450,-1.7754,3.0144
2113.2812,4.9042,0.3052,7.9411,-4.2974,9.4093,-18.8990,-1.2828,-4.6517,4.7942,-15.2308,-4.6527,-7.7837,8.9652,-7.5030,3.3631,-14.1818,7.8318,-6.1228,4.4556
2117.1875,4.3777,1.7119,10.1553,-9.1018,8.1328,-16.7449,-0.1227,-9.7967,3.6447,-19.4804,-2.5316,-4.6980,8.6555,-12.8089,6.6276,-13.7445,8.7413,-10.3911,5.6132
2121.0938,4.0390,3.1099,10.1161,-13.4095,6.8267,-15.5006,-0.4546,-13.8149,2.3644,-22.9193,-0.4535,-1.6546,7.5361,-17.7324,8.0899,-12.6200,7.8412,-13.3119,5.9197
2125.0000,4.0752,4.8053,8.1489,-16.0254,5.9056,-16.2811,-2.2846,-15.9981,1.5659,-24.7662,0.9921,0.2076,5.7370,-21.1740,7.3298,-11.6499,4.9921,-14.0720,5.4969
2128.9062,4.1805,6.2912,5.9595,-16.5736,5.5920,-18.3912,-4.2531,-16.6207,1.4638,-25.2318,1.5269,0.2356,3.6056,-22.8494,5.0213,-11.3278,0.8299,-12.9497,5.0186
2132.8125,3.7212,6.4240,5.2632,-15.7554,5.7709,-19.7495,-4.6531,-16.7271,1.6125,-25.2310,1.2718,-1.2923,1.5095,-23.2638,2.5869,-11.3646,-3.4615,-11.2241,5.1950
2136.7188,2.3354,4.4712,6.5040,-14.8320,6.1170,-18.5252,-2.7412,-17.3764,1.2513,-25.5359,0.6746,-3.2166,-0.2871,-23.1239,1.4891,-10.9569,-6.6132,-10.3463,6.2643
2140.6250,0.4211,1.0808,8.6494,-14.7010,6.3523,-14.5914,0.6804,-18.8536,-0.0495,-26.0568,0.2889,-4.1018,-1.6492,-22.7002,2.5250,-9.4829,-7.7940,-10.9474,7.8407
2144.5312,-1.0051,-1.8204,10.1458,-15.2658,6.4034,-9.5930,3.8697,-20.4183,-2.0027,-25.8584,0.4903,-3.0919,-2.5514,-21.6443,5.4722,-7.0377,-6.9655,-12.4221,9.1850
2148.4375,-1.0896,-2.3013,10.1865,-15.5836,6.3400,-5.6376,5.4626,-20.7981,-3.8226,-23.9447,1.2741,-0.4785,-3.0727,-19.3714,9.2368,-4.4057,-4.8974,-13.4185,9.6752
2152.3438,0.0104,0.0959,9.2494,-14.6685,6.1720,-3.7698,5.4559,-19.0949,-4.8890,-20.2182,2.2543,2.4389,-3.4102,-15.6609,12.3918,-2.5448,-2.8250,-12.8762,9.1519
2156.2500,0.9300,3.9208,8.5193,-12.3112,5.6945,-3.4920,5.0672,-15.4602,-5.3166,-15.8390,2.8721,4.1797,-3.8683,-10.9799,13.8135,-2.0073,-1.9206,-10.8280,7.9471
2160.1562,-0.1716,6.8645,8.7564,-9.2716,4.5202,-3.6000,5.5875,-11.0568,-5.9575,-12.6275,2.6979,4.0848,-4.7823,-6.2800,13.1064,-2.6978,-2.8401,-8.3571,6.6411
2164.0625,-4.3856,7.5081,9.6096,-6.7022,2.2791,-3.4378,7.1722,-7.3313,-7.7998,-11.8778,1.6532,2.8070,-6.3801,-2.4451,10.6570,-4.0405,-5.5394,-6.7489,5.7454
2167.9688,-11.1869,6.3722,9.9574,-5.2763,-1.1563,-3.3714,8.5968,-5.1243,-11.1948,-13.4226,0.0382,1.9115,-8.6389,0.1780,7.3648,-5.3243,-9.3826,-6.5021,5.5020
2171.8750,-18.5628,5.4234,8.9625,-4.7216,-5.5628,-4.0905,8.2403,-4.2462,-15.4800,-15.6492,-1.6195,2.8184,-11.2159,1.8308,4.2432,-5.9525,-13.4136,-6.9649,5.8638
2175.7812,-24.0816,6.4521,6.9174,-4.1268,-10.4166,-5.4917,5.5403,-3.7941,-19.2765,-16.5013,-2.7900,5.8053,-13.5133,2.9863,2.0859,-5.5211,-16.6427,-6.8735,6.5979
2179.6875,-26.1968,9.6454,5.1282,-2.7638,-15.0462,-6.3273,1.7150,-2.9390,-21.2596,-14.7973,-3.1283,9.7732,-14.8870,3.8969,1.2942,-3.8537,-18.2866,-5.3713,7.4089
2183.5938,-24.9565,13.4879,4.8933,-0.7565,-18.8074,-5.1012,-0.9402,-1.5824,-20.8949,-10.9673,-2.5824,12.9527,-14.9362,4.3923,1.8392,-1.1125,-17.9836,-2.7188,8.0173
2187.5000,-21.7457,16.0005,6.3872,0.9443,-21.2389,-1.4997,-0.7596,-0.4084,-18.6874,-6.7223,-1.4306,14.0604,-13.7473,4.0472,3.2963,2.0805,-15.9786,-0.1550,8.1873
2191.4062,-18.3542,16.2403,8.3514,1.2650,-22.1843,2.9570,1.8562,-0.3244,-15.8445,-3.9153,-0.2506,13.0939,-11.9421,2.5512,4.9314,4.7261,-13.1718,0.9759,7.7294
2195.3125,-16.0446,14.8309,8.8611,-0.1552,-21.8461,5.7738,4.4403,-1.7389,-13.6134,-3.3911,0.2168,11.2236,-10.4449,0.0001,5.8731,5.8583,-10.8726,0.1715,6.5064
2199.2188,-15.1588,13.1778,6.5969,-2.6425,-20.7081,5.2830,4.0269,-4.2180,-12.7021,-4.5910,-0.6653,9.8970,-10.0263,-3.0717,5.3845,5.1127,-10.2371,-1.9023,4.4599
2203.1250,-15.3338,12.1430,1.6888,-4.9170,-19.3005,1.9389,-0.7778,-6.7594,-13.0684,-6.1135,-3.1057,9.8283,-10.8547,-5.8945,3.1526,3.0501,-11.6248,-3.9115,1.6535
2207.0312,-15.9958,11.3636,-4.4410,-5.9369,-17.8975,-2.0062,-8.7245,-8.4526,-14.1059,-6.7732,-6.6906,10.5907,-12.3421,-7.7505,-0.5675,0.9055,-14.2950,-4.7753,-1.6873
2210.9375,-16.7332,9.7685,-10.0408,-5.5278,-16.3437,-4.2435,-16.6731,-9.0260,-15.0499,-6.3890,-10.5056,11.0538,-13.4441,-8.2035,-5.0834,-0.1716,-16.7476,-4.3267,-5.1840
2214.8438,-17.3798,6.7666,-14.0471,-4.3647,-14.1793,-4.1713,-21.6682,-8.8950,-15.3645,-5.7803,-13.5848,10.2804,-13.2877,-7.2213,-9.6266,0.0962,-17.6078,-3.2721,-8.4000
2218.7500,-17.9117,3.0025,-16.4640,-3.3767,-11.0452,-3.2432,-22.8643,-8.7182,-14.9350,-6.0255,-15.4428,8.1992,-11.7474,-5.1901,-13.7176,0.8828,-16.5183,-2.5482,-11.0120
2222.6562,-18.3348,-0.0140,-17.9689,-3.0577,-7.1101,-3.6263,-21.9323,-8.8246,-14.0091,-7.5436,-16.3204,5.5944,-9.5627,-2.8137,-17.2689,0.8056,-14.4036,-2.5926,-12.9644
2226.5625,-18.6401,-1.0791,-19.1858,-3.1802,-3.1852,-6.2938,-21.6883,-8.9482,-12.9462,-9.6496,-16.9216,3.4963,-7.8719,-0.8783,-20.3515,-1.0926,-12.8521,-3.0510,-14.4851
2230.4688,-18.7808,-0.2337,-20.2203,-3.0658,-0.3737,-10.1425,-23.9728,-8.4469,-11.9283,-10.8885,-17.7910,2.4817,-7.4496,0.0743,-22.8297,-4.6175,-12.9968,-3.0858,-15.9021
2234.3750,-18.6297,1.3520,-20.7347,-2.1448,0.5553,-12.8568,-28.3272,-6.8167,-10.8145,-9.9318,-18.7924,2.3945,-8.1849,0.0102,-24.2237,-8.4899,-14.6926,-2.0131,-17.3552
2238.2812,-17.9775,2.4292,-20.3732,-0.3702,-0.3573,-12.7874,-32.3825,-4.1094,-9.2613,-6.4619,-19.1375,2.6094,-9.1954,-0.5911,-24.0087,-11.1750,-16.6237,0.1916,-18.6160
2242.1875,-16.6628,2.7123,-19.1208,1.7788,-2.2930,-10.2837,-33.6039,-0.9515,-7.0635,-1.4907,-18.0229,2.5413,-9.5170,-1.0611,-22.1871,-11.8901,-17.2971,2.8413,-19.1980
2246.0938,-14.8066,2.9789,-17.3245,3.6359,-4.1900,-7.4013,-31.0697,1.8306,-4.4904,3.0883,-15.4308,1.9661,-8.8522,-1.0249,-19.6611,-11.0774,-16.1889,4.9328,-18.7314
2250.0000,-12.9445,4.1387,-15.4341,4.7399,-5.3983,-6.2728,-26.0073,3.6979,-2.3249,5.4660,-12.4394,0.9533,-7.7857,-0.6979,-17.9748,-10.0279,-14.1497,5.7116,-17.3376
2253.9062,-11.8317,6.1090,-13.7306,5.0130,-5.9767,-7.5153,-20.7878,4.6582,-1.4767,4.8630,-10.6799,-0.4312,-7.2641,-0.7344,-18.4260,-9.9631,-12.7153,5.0711,-15.6752
2257.8125,-11.9268,7.5345,-12.2496,4.6720,-6.4363,-9.9624,-17.2255,5.1387,-2.3480,1.9338,-11.2202,-2.3114,-7.7231,-1.6818,-21.0806,-11.2568,-12.8242,3.5864,-14.5408
2261.7188,-12.8934,6.6805,-10.8951,4.0130,-7.1676,-11.8542,-15.4737,5.5945,-4.3856,-1.5849,-13.6524,-4.8815,-8.5635,-3.4307,-24.4251,-13.3343,-13.9441,2.1978,-14.2673
2265.6250,-13.5746,2.8145,-9.5830,3.2539,-8.0353,-12.3966,-14.2732,6.1494,-6.2104,-3.7912,-16.1232,-8.0898,-8.4507,-5.1108,-26.0555,-15.2508,-14.3337,1.7236,-14.3854
2269.5312,-12.6200,-3.0536,-8.2880,2.5159,-8.4640,-12.3458,-12.2303,6.5215,-6.3550,-3.5982,-16.4133,-11.4351,-6.2766,-5.5809,-24.0891,-16.4410,-12.2974,2.4470,-13.8804
2273.4375,-9.4273,-8.7075,-7.0036,1.8947,-7.9177,-13.1551,-9.0411,6.2773,-4.1800,-1.2497,-13.4036,-14.1000,-2.0698,-4.2006,-18.4156,-17.0402,-7.4932,3.9857,-11.9366
2277.3438,-4.7148,-12.1416,-5.7113,1.5244,-6.3369,-15.4735,-5.6943,5.2210,-0.3402,1.8996,-7.9131,-15.3570,2.8787,-1.3119,-10.9154,-17.5508,-1.2733,5.5220,-8.6373
2281.2500,-0.2111,-12.7768,-4.4064,1.5763,-4.1408,-18.3297,-3.5433,3.6399,3.5764,4.1972,-2.2795,-14.9529,6.8355,1.9568,-4.4226,-18.1721,4.2351,6.2922,-5.0432
2285.1562,2.4222,-11.5878,-3.1282,2.2046,-1.7916,-19.7384,-3.0564,2.2217,6.0455,4.6126,1.0856,-13.1929,8.8188,4.4480,-1.0649,-18.3876,7.6219,6.0679,-2.5000
2289.0625,2.7030,-10.1495,-1.9149,3.4725,0.6811,-18.2526,-3.2999,1.6796,6.5731,3.2307,1.2016,-10.6857,9.2675,5.7327,-1.0612,-17.2070,9.1069,5.3261,-1.6309
2292.9688,1.6420,-9.4344,-0.7052,5.2829,3.7343,-14.1929,-2.6158,2.3191,5.9526,1.0517,-0.9353,-7.9744,9.6578,6.2884,-2.7640,-13.9370,10.1688,4.9549,-1.7812
2296.8750,0.9831,-9.2931,0.6931,7.3300,7.8415,-9.5514,0.0133,3.8208,5.6292,-0.7302,-3.1120,-5.3327,11.3356,6.9612,-3.8859,-8.9121,12.1904,5.6409,-1.4095
2300.7812,1.9110,-8.8956,2.4676,9.1062,12.8662,-6.6441,3.9921,5.3879,6.6349,-1.4808,-3.4028,-2.8367,14.4447,8.1400,-3.0500,-3.5948,15.2046,7.3282,0.7833
2304.6875,4.1954,-7.6105,4.5677,10.0141,17.8359,-6.5594,7.3566,6.1736,8.8680,-1.4335,-1.3602,-0.5803,17.7670,9.3045,-0.6131,0.1197,17.7518,9.1465,4.7928
2308.5938,6.4207,-5.5259,6.5938,9.5882,21.3815,-8.5531,8.1390,5.7287,11.2257,-1.4036,1.8857,1.2065,19.5965,9.3177,1.7442,0.9872,17.9802,9.9059,9.1448
2312.5000,7.1057,-3.2394,7.9905,7.7374,22.5657,-10.7367,5.8904,4.1954,12.4535,-2.1780,4.5877,2.2585,18.9755,7.2415,2.2978,-0.8211,15.1277,8.8536,11.8207
2316.4062,5.8262,-1.2407,8.4712,4.8464,21.4765,-11.4242,2.2228,2.1373,12.0426,-4.0447,5.6334,2.5062,16.3530,3.0411,0.4988,-3.7940,10.2186,6.1625,11.6490
2320.3125,3.4601,0.4691,8.3444,1.6204,19.1141,-10.1022,-0.0986,0.1313,10.5011,-6.7719,5.1843,2.2145,13.1883,-2.3651,-2.6892,-5.9661,5.4214,2.7892,9.1540
2324.2188,1.3982,2.1744,8.4034,-1.2862,16.6479,-7.4394,1.0535,-1.5993,8.8346,-9.9644,4.3291,1.8814,10.8482,-7.7242,-5.4862,-6.0501,2.5692,-0.2048,6.2160
2328.1250,0.4017,3.9098,9.3577,-3.6351,14.6173,-4.5533,5.7108,-3.2680,7.6964,-13.4240,4.1283,1.9434,9.6746,-12.2266,-6.4591,-4.0997,1.9898,-2.3644,4.7716
2332.0312,0.0656,5.1830,11.1963,-5.7094,12.6888,-2.2424,11.6998,-5.2846,6.9080,-17.1690,4.8331,2.4998,8.9262,-15.8320,-5.3282,-1.3117,2.5228,-4.0416,5.4915
2335.9375,-0.6782,5.2928,13.0194,-8.0557,10.1242,-0.7173,15.9837,-7.8753,5.7281,-21.0914,5.8416,3.2571,7.5782,-18.9360,-2.9277,0.8542,2.6425,-5.9350,7.3961
2339.8438,-2.4688,4.0023,13.5798,-11.0178,6.5352,0.1855,16.5671,-10.8373,3.6283,-24.5926,6.3391,3.7347,5.2837,-21.7262,-0.4634,1.6249,1.7399,-8.3408,8.6676
2343.7500,-4.7968,1.9474,12.2171,-14.3788,2.2862,0.7075,13.7082,-13.5935,0.9177,-26.6117,6.0440,3.5930,2.7071,-23.8248,1.3317,1.3157,0.5268,-10.7337,8.0358
2347.6562,-6.3222,0.3534,9.4930,-17.3678,-1.7756,1.0955,9.6642,-15.4897,-1.3247,-26.1724,5.4580,2.8739,0.9772,-24.5457,2.5572,0.9637,0.2772,-12.0451,5.7104
2351.5625,-6.0207,0.2241,6.9827,-19.0389,-5.0006,1.6829,7.1865,-16.1141,-2.0006,-23.1212,5.4521,2.0169,0.7377,-23.5437,3.8472,1.5037,1.5752,-11.4541,3.2047
2355.4688,-4.2234,1.6415,6.2826,-18.7757,-7.4232,2.8319,7.7947,-15.4305,-0.8656,-18.4946,6.5587,1.6547,1.5779,-21.2735,5.7169,3.0825,3.6311,-9.0790,2.2316
2359.3750,-2.6506,3.7381,7.9099,-16.6057,-9.6320,4.6254,10.9476,-13.6874,1.1449,-14.1490,8.5418,2.3006,2.2989,-18.8152,8.0584,4.9828,4.7403,-6.0161,3.5167
2363.2812,-3.3208,5.3551,10.8968,-13.1585,-12.1490,6.5748,14.5755,-11.2425,2.4043,-11.7959,10.5617,4.0739,1.7768,-17.1556,10.1245,6.1771,3.5192,-3.6710,6.3728
2367.1875,-7.1218,5.8407,13.3990,-9.3474,-14.8836,7.7448,16.5178,-8.4746,1.5668,-12.0440,11.7713,6.5835,-0.2734,-16.4850,10.9724,6.0961,-0.0777,-2.8783,9.2667
2371.0938,-13.1272,5.3706,13.8913,-6.0041,-17.1637,7.3844,15.8556,-5.8253,-1.6486,-14.0891,11.8666,9.0365,-3.2137,-16.0836,10.0463,5.0588,-4.7605,-3.4630,10.8750
2375.0000,-19.1796,4.6099,12.0972,-3.6542,-18.3351,5.6310,13.2902,-3.8441,-6.3676,-16.2714,11.1906,10.5621,-6.0744,-14.9066,7.5259,4.0677,-8.8895,-4.5372,10.8359
2378.9062,-23.2973,4.0942,9.0136,-2.4725,-18.4014,3.6444,10.4305,-3.0707,-11.1606,-17.1245,10.3673,10.6452,-8.2796,-12.4121,4.2507,4.1284,-11.6271,-5.2449,9.7271
2382.8125,-24.8559,3.8869,6.0849,-2.3313,-18.1097,2.9084,8.5927,-3.7355,-14.8618,-16.2174,9.7980,9.4599,-9.9087,-8.9835,1.2882,5.5807,-13.3402,-5.3373,8.4298
2386.7188,-24.7188,3.7499,4.1970,-2.8642,-18.3564,4.1412,7.9745,-5.4817,-17.0613,-14.2573,9.4142,7.8833,-11.3446,-5.6340,-0.5987,7.9032,-14.9923,-5.1479,7.4572
2390.6250,-24.3305,3.5599,3.2345,-3.5547,-19.3949,6.6804,7.7125,-7.3840,-18.0320,-12.4602,8.8334,7.0952,-12.7023,-3.2636,-1.3053,10.1024,-17.1005,-5.0696,6.7473
2394.5312,-24.5654,3.4950,2.4406,-3.9037,-20.5496,8.9108,6.6626,-8.3791,-18.2881,-11.6931,7.7308,7.9196,-13.6062,-2.0892,-1.3901,11.3827,-19.1738,-5.0603,5.9606
2398.4375,-25.2292,3.7875,1.1774,-3.6651,-20.7499,9.4724,4.2617,-7.8984,-18.1839,-12.0009,6.0936,10.2735,-13.5408,-1.6960,-1.7436,11.6074,-20.1092,-4.6612,4.9048
2402.3438,-25.5085,4.3089,-0.5862,-3.0190,-19.5041,8.2982,0.8524,-6.2771,-17.8341,-12.7873,4.1565,13.0924,-12.4649,-1.6163,-3.1054,11.2400,-19.2051,-3.5337,3.6725
2406.2500,-24.8785,4.4671,-2.4301,-2.5189,-17.5079,6.6091,-2.6842,-4.5984,-17.3158,-13.4211,2.1024,14.8419,-11.1055,-1.8927,-5.6931,10.8489,-16.9193,-2.0261,2.3958
2410.1562,-23.6544,3.6227,-4.0677,-2.7709,-16.3115,5.8275,-5.6196,-4.0051,-16.8764,-13.7467,-0.1916,14.3460,-10.5985,-3.0971,-9.1491,10.5834,-14.7047,-1.1967,0.9041
2414.0625,-22.7364,1.7131,-5.7794,-4.0139,-17.2002,6.2969,-7.8349,-4.9058,-16.8998,-14.1097,-3.1282,11.4374,-11.6927,-5.7530,-12.8286,10.0359,-14.0106,-2.1480,-1.3347
2417.9688,-22.8015,-0.4974,-8.2684,-5.8886,-20.1026,6.9089,-9.7341,-6.6201,-17.6242,-14.9215,-7.0730,7.0289,-14.1265,-9.6323,-16.2377,8.6019,-15.2172,-5.1218,-4.8674
2421.8750,-23.6522,-1.8621,-12.0346,-7.5835,-23.3842,6.0236,-11.7626,-7.7336,-18.8450,-16.1506,-11.9750,2.5852,-16.6897,-13.5447,-19.3222,6.0638,-17.3348,-9.0745,-9.7514
2425.7812,-24.2718,-1.7105,-16.7983,-8.2846,-24.7568,2.9717,-13.9745,-6.9438,-19.8784,-17.1781,-17.2040,-0.6424,-17.9604,-15.8666,-22.4014,2.9398,-18.6959,-12.1445,-15.3075
2429.6875,-23.5443,-0.4261,-21.4865,-7.6273,-22.7088,-1.1250,-16.0051,-3.8423,-19.8812,-17.1561,-21.7470,-2.1400,-17.1973,-15.4756,-25.7935,0.3009,-18.1105,-12.7641,-20.3609
2433.5938,-21.0684,0.7765,-24.8379,-5.8433,-17.4702,-3.9907,-17.4339,0.8672,-18.3584,-15.6210,-24.6663,-2.1557,-14.7587,-12.4263,-29.4227,-0.8578,-15.6288,-10.6556,-23.8307
2437.5000,-17.4540,0.7540,-26.1760,-3.5257,-10.8633,-3.8924,-18.1962,5.8131,-15.5355,-12.9104,-25.5585,-1.3406,-11.7947,-7.8906,-32.7304,-0.2748,-12.3998,-7.0081,-25.2645
2441.4062,-13.9261,-0.6922,-25.7661,-1.2196,-5.1873,-1.0910,-18.6686,9.7130,-12.3374,-10.0713,-24.7550,-0.3479,-9.4888,-3.4271,-34.9996,1.3431,-9.8184,-3.7055,-24.9704
2445.3125,-11.5816,-2.6864,-24.5068,0.8431,-1.9248,2.1419,-19.3529,11.9299,-9.9459,-8.2937,-23.1518,0.3463,-8.4041,-0.1146,-35.8660,2.6836,-8.6425,-2.1490,-23.6996
2449.2188,-10.8354,-4.0110,-23.2325,2.6980,-1.1039,3.0378,-20.4248,12.5351,-9.1653,-8.2237,-21.7576,0.4059,-8.3305,1.8734,-35.6170,2.5669,-8.6951,-2.4755,-22.1419
2453.1250,-11.3595,-4.1032,-22.1825,4.3963,-1.6040,0.2734,-21.5375,11.9748,-9.9493,-9.5787,-21.1922,-0.4103,-8.6104,3.0517,-35.0044,0.5994,-9.2431,-3.6512,-20.5820
2457.0312,-12.4115,-3.4983,-21.0164,5.8128,-2.0406,-5.1125,-22.0510,10.6969,-11.3719,-11.2883,-21.3913,-2.1438,-8.6041,4.0476,-34.6669,-2.6491,-9.6377,-4.2826,-18.8972
2460.9375,-13.2222,-3.3641,-19.2923,6.7044,-1.5587,-10.4972,-21.4977,9.0312,-12.0827,-12.0617,-21.6727,-4.4610,-7.9605,5.1448,-34.5822,-6.0177,-9.6887,-3.5190,-16.8163
2464.8438,-13.2085,-4.5342,-16.9611,6.9594,-0.0887,-13.5218,-19.8981,7.3222,-11.0185,-11.0492,-21.1356,-6.6542,-6.6140,6.2390,-33.9838,-8.4156,-9.5629,-1.4448,-14.2110
2468.7500,-12.0257,-6.8603,-14.4543,6.7964,1.9152,-13.6007,-17.6648,6.0738,-7.9766,-8.2376,-19.1851,-7.9717,-4.6610,7.1187,-31.8529,-9.3648,-9.4190,1.1970,-11.2239
2472.6562,-9.6063,-9.4160,-12.3155,6.7042,3.9101,-12.0159,-15.1882,5.8690,-3.7137,-4.3965,-15.8891,-8.1218,-2.2873,7.7469,-27.6599,-9.1355,-9.1554,3.6241,-8.1946
2476.5625,-6.2427,-11.3456,-10.7114,7.1400,5.5509,-10.6576,-12.4739,7.0646,0.5027,-0.6469,-11.9516,-7.5572,0.2401,8.2911,-21.8263,-8.4580,-8.4649,5.4754,-5.4769
2480.4688,-2.5923,-12.5967,-9.2492,8.2185,6.7563,-10.4959,-9.1635,9.4994,3.6298,2.0919,-8.3074,-7.2272,2.6334,8.9233,-15.5685,-8.0348,-7.0780,6.8343,-3.2717
2484.3750,0.5413,-13.8865,-7.2688,9.6375,7.6663,-10.9793,-4.9522,12.4802,5.4120,3.4801,-5.5820,-7.8862,4.7495,9.6176,-10.2322,-8.1556,-4.9343,7.9175,-1.5574
2488.2812,2.6128,-15.9277,-4.3835,10.8880,8.5867,-10.7292,-0.0672,15.0966,6.4082,3.7883,-3.7689,-9.4489,6.7378,10.1462,-6.5887,-8.6073,-2.1552,8.7646,-0.1360
2492.1875,3.6502,-18.6040,-0.8545,11.5712,9.8792,-8.8459,4.6076,16.6534,7.4675,3.6086,-2.3455,-10.9305,8.9625,10.2598,-4.5645,-8.8849,1.0738,9.1864,1.2287
2496.0938,4.1935,-20.8490,2.4867,11.5736,11.7249,-5.7200,7.9121,16.9249,9.0280,3.4444,-0.7555,-11.1041,11.6506,9.8639,-3.5314,-8.5462,4.5194,8.9669,2.6335
2500.0000,4.8400,-21.3897,4.7093,11.0026,13.8388,-2.7348,9.0549,16.0916,10.7566,3.4283,1.0880,-9.4358,14.5002,9.0217,-2.8699,-7.4989,7.7757,8.1011,3.9128
2503.9062,5.7305,-19.7660,5.3194,9.9948,15.3870,-1.1884,8.0687,14.4731,11.8101,3.3119,2.6617,-6.5824,16.6269,7.7970,-2.3586,-6.0677,10.1847,6.8499,4.6741
2507.8125,6.4151,-16.7692,4.5181,8.5972,15.3283,-1.3594,5.7646,12.3011,11.5365,2.6936,3.1891,-4.0182,17.0304,6.1166,-2.1367,-4.8101,11.0242,5.5749,4.5293
2511.7188,6.2563,-13.9055,3.0563,6.8102,13.0903,-2.4369,3.2498,9.6856,10.0757,1.2962,2.2592,-3.0076,15.3288,3.8055,-2.3577,-4.1839,9.9550,4.4943,3.4240
2515.6250,5.0665,-12.2858,1.8290,4.6982,9.1357,-3.2653,1.3783,6.7166,8.3668,-0.8975,0.2549,-3.6673,12.2062,0.7769,-2.8778,-4.2490,7.4163,3.5474,1.8395
2519.5312,3.4368,-11.8301,1.4737,2.4047,4.9161,-3.2051,0.5115,3.5314,7.5113,-3.7150,-1.7549,-4.8349,9.1429,-2.8072,-3.2517,-4.5811,4.5814,2.4505,0.6668
2523.4375,2.4222,-11.4177,2.1755,0.0301,2.0919,-2.4054,0.6712,0.2529,7.9633,-6.9597,-2.6211,-4.8700,7.5230,-6.5708,-3.0130,-4.4706,2.7744,0.8883,0.7500
2527.3438,2.7800,-9.8556,3.7165,-2.4871,1.4744,-1.3701,1.8450,-3.1122,9.1876,-10.4919,-1.8112,-2.8196,7.7370,-10.1368,-1.9771,-3.3204,2.6863,-1.2817,2.3612
2531.2500,4.3550,-6.8827,5.6794,-5.2992,2.4534,-0.3268,4.1112,-6.6410,10.0931,-14.1428,0.2934,0.9011,8.9706,-13.3256,-0.3130,-1.0253,3.9554,-3.9092,4.9790
2535.1562,6.1285,-3.4173,7.6696,-8.3730,3.3926,0.9720,7.4528,-10.2742,9.9302,-17.5557,2.7052,4.7904,9.8772,-16.1558,1.6434,1.8989,5.4540,-6.5540,7.5781
2539.0625,6.9232,-0.8818,9.4605,-11.2374,2.7745,2.8476,11.4531,-13.5821,8.9379,-20.1632,4.5107,7.2707,9.6343,-18.6503,3.6299,4.5392,6.0930,-8.6110,9.2694
2542.9688,6.2143,-0.1678,11.0164,-13.0575,0.2726,5.1207,15.2098,-15.7908,8.1808,-21.4203,5.4225,7.6777,8.5464,-20.6539,5.5285,6.0500,5.5413,-9.5357,9.8492
2546.8750,4.4017,-1.0481,12.4045,-13.1090,-3.0593,6.9776,17.6559,-16.1795,8.6465,-21.1859,5.8167,6.5462,7.6949,-21.8731,7.2255,6.0909,4.3161,-9.1064,9.8448
2550.7812,2.3430,-2.4349,13.6561,-11.3620,-5.6385,7.4989,18.1377,-14.6266,10.3031,-19.9587,6.2722,5.0783,7.9007,-22.1416,8.4447,4.9753,3.2022,-7.6002,10.0167
2554.6875,0.5671,-3.1966,14.6758,-8.6929,-6.5941,6.4538,16.8597,-11.8743,11.9068,-18.7078,7.0047,4.2759,8.8582,-21.6725,8.7727,3.4492,2.5023,-5.7379,10.7029
2558.5938,-1.1416,-2.8503,15.2815,-6.4514,-6.4325,4.6679,14.8567,-9.2163,11.8043,-18.3189,7.6531,4.3968,9.2006,-21.0223,7.9203,2.2580,1.7594,-4.3530,11.5329
2562.5000,-3.4286,-1.6410,15.3731,-5.6036,-6.6101,3.5854,13.4615,-7.7399,9.1764,-18.9948,7.5784,5.0522,7.5189,-20.7188,6.0267,1.7880,0.1856,-3.9251,11.7606
2566.4062,-6.6105,-0.0848,15.1053,-6.0598,-8.3675,4.3056,13.5796,-7.6393,4.7619,-20.0526,6.4232,5.7327,3.5531,-20.8254,3.7370,1.9982,-2.5740,-4.2675,10.9566
2570.3125,-10.1775,1.5237,14.8882,-6.7350,-11.7734,6.8298,15.2010,-8.1302,0.4430,-20.3168,4.4735,6.2621,-1.4286,-20.8266,1.9403,2.6370,-6.0158,-4.6212,9.4843
2574.2188,-13.0607,3.1985,15.1384,-6.3637,-15.7482,10.1078,17.4189,-8.0709,-2.0682,-18.8830,2.5264,6.8351,-5.4446,-20.0021,1.3203,3.5357,-9.0942,-4.1548,8.3229
2578.1250,-14.5062,4.9465,15.9062,-4.4924,-19.0364,12.8439,18.9075,-6.8513,-2.4739,-15.7317,1.3604,7.7017,-7.2448,-18.0509,2.0121,4.7306,-11.0500,-2.5617,8.3215
2582.0312,-14.8231,6.4588,16.6698,-1.8908,-21.3025,14.4195,18.5745,-4.8751,-2.1036,-11.7565,1.2140,8.8532,-7.2717,-15.4778,3.5777,6.3252,-12.0607,-0.3290,9.4536
2585.9375,-15.3075,7.1993,16.5338,-0.0340,-23.4140,15.2107,16.0599,-3.2558,-2.8859,-8.1882,1.6644,10.0035,-7.3532,-13.3880,5.2738,8.2294,-13.1309,1.5517,10.6948
2589.8438,-17.2884,6.8783,14.7994,-0.0227,-26.6364,16.0869,11.8900,-2.9520,-5.8252,-5.8408,1.9809,10.8501,-9.3021,-12.7831,6.4067,10.0264,-15.2519,2.2575,10.6912
2593.7500,-20.9951,5.8803,11.5510,-1.7601,-31.3756,17.5422,7.2680,-4.0139,-10.1303,-4.7254,1.6666,11.3389,-13.4594,-13.8569,6.5679,11.1299,-18.4805,1.7182,8.7635
2597.6562,-25.1642,5.1902,7.8067,-4.0214,-36.5160,19.2000,3.6066,-5.5306,-13.6767,-4.2750,0.7787,11.6857,-18.2916,-15.8221,5.6937,11.1609,-21.6945,0.6762,5.4916
2601.5625,-27.7789,5.7642,5.0263,-5.3617,-39.9616,20.1056,1.9608,-6.3152,-14.4796,-3.9400,-0.1930,12.1575,-21.3724,-17.4155,4.0183,10.2759,-23.2735,0.1653,2.4053
2605.4688,-27.4522,7.7935,4.2201,-5.1551,-40.0452,19.5640,2.5503,-5.7862,-12.0982,-3.6343,-0.7609,12.8469,-21.0414,-17.7151,1.9889,9.1784,-22.2243,0.7891,0.9582
2609.3750,-24.4328,10.4556,5.2394,-3.9639,-36.7609,17.8223,4.5755,-4.3573,-7.9424,-3.6694,-0.8438,13.6458,-17.5350,-16.6801,0.1242,8.7475,-18.9092,2.3301,1.5039
2613.2812,-20.4685,12.3977,6.7599,-2.9841,-31.8862,16.0123,6.4705,-3.0558,-4.2856,-4.2718,-0.8512,14.4026,-12.8014,-15.0522,-1.2343,9.4912,-14.8354,3.9666,2.9986
2617.1875,-17.6140,12.6279,7.0258,-3.0473,-27.8850,15.3562,6.5662,-2.7070,-2.7416,-5.1539,-1.4247,15.0489,-9.1917,-13.7548,-2.2160,11.1729,-11.6841,4.9110,3.6367
2621.0938,-16.8701,11.1591,4.8920,-3.9944,-26.3939,16.2269,3.8921,-3.3466,-3.3215,-5.5766,-3.0529,15.5284,-8.0163,-13.2873,-3.5397,12.8688,-10.3159,4.9669,1.9683
2625.0000,-17.6450,8.9443,0.4913,-4.9024,-27.3644,17.7849,-1.3029,-4.3007,-4.6953,-4.9137,-5.8244,15.6100,-8.9641,-13.5552,-6.2320,13.4489,-10.4623,4.5958,-2.2532
2628.9062,-18.3838,7.1847,-4.8922,-4.9245,-29.3960,18.4863,-7.6379,-4.8013,-5.3516,-3.2603,-9.4252,14.8536,-10.6647,-14.1706,-10.9620,12.2036,-11.2277,4.4852,-8.0002
2632.8125,-17.8216,6.5553,-9.6163,-4.0091,-30.8882,17.1105,-13.2915,-4.5773,-4.7080,-1.5247,-13.2944,12.9057,-11.8165,-14.8683,-17.3665,9.2554,-11.8937,5.0008,-13.6167
2636.7188,-15.8791,6.9055,-12.5806,-2.8866,-31.0855,13.5895,-16.9085,-3.9255,-3.3494,-0.8287,-16.7878,9.9649,-11.9760,-15.6299,-23.8979,5.5241,-12.3394,5.9697,-17.6728
2640.6250,-13.5571,7.5754,-13.6604,-2.3551,-30.2859,9.0774,-18.1848,-3.2567,-2.3146,-1.6133,-19.2824,6.9850,-11.4998,-16.4273,-28.4734,2.2835,-12.7903,6.9331,-19.4946
2644.5312,-11.9953,7.9834,-13.4801,-2.4994,-29.2164,5.2530,-17.7931,-2.5799,-2.1004,-3.1534,-20.2777,5.2843,-10.8721,-16.8899,-29.6427,0.5641,-13.2283,7.6068,-19.1785
2648.4375,-11.5004,7.9795,-12.8097,-2.5403,-28.2257,3.3601,-16.7580,-1.4389,-2.2240,-3.9291,-19.5635,5.6862,-10.1121,-16.3060,-27.5329,0.7152,-13.0898,8.1246,-17.2897
2652.3438,-11.3208,7.7287,-12.0696,-1.4755,-27.0055,3.6127,-15.7516,0.6092,-1.6750,-2.6662,-17.4120,7.7828,-8.7927,-14.0833,-23.8664,2.3142,-11.6108,8.8498,-14.5714
2656.2500,-10.3185,7.3188,-11.2580,1.0043,-25.0242,5.2700,-14.7965,3.3956,0.1483,0.6837,-14.6287,9.9540,-6.6075,-10.3518,-20.9403,4.4141,-8.5787,9.9307,-11.8198
2660.1562,-7.9702,6.5116,-10.2362,4.0953,-22.2234,7.2103,-13.5274,5.9950,2.8094,4.7599,-12.3110,10.2788,-3.9231,-6.1890,-20.2032,5.9621,-4.8353,11.0181,-9.8250
2664.0625,-4.8923,4.8923,-9.0438,6.3356,-19.3175,8.5457,-11.7259,7.2431,5.0307,7.5930,-11.3495,7.7794,-1.7669,-3.1782,-21.3994,6.1880,-2.0116,11.4300,-9.2025
2667.9688,-2.4668,2.2868,-7.9545,6.6110,-17.3972,8.9058,-9.6492,6.5562,5.5789,7.8631,-11.9276,3.1094,-1.1889,-2.5198,-22.8817,4.8242,-1.5700,10.6736,-10.1013
2671.8750,-1.8458,-0.9395,-7.2474,4.9383,-17.1386,8.3356,-7.8679,4.4014,4.1718,5.7549,-13.3453,-1.8573,-2.4770,-4.2880,-22.8520,2.1246,-3.8010,8.9116,-11.9952
2675.7812,-3.0607,-4.0003,-6.9247,2.4343,-18.2528,7.0439,-6.7506,2.0163,1.7453,2.8361,-14.3279,-5.2768,-4.8437,-7.3623,-20.6144,-1.2750,-7.5068,6.9811,-13.8072
2679.6875,-4.8764,-6.1639,-6.6340,0.5198,-19.6141,5.2642,-6.0413,0.5782,-0.0845,1.0703,-13.6722,-6.5235,-6.8417,-10.0913,-16.9334,-4.5875,-10.6292,5.9140,-14.4059
2683.5938,-5.4846,-7.2211,-5.8752,-0.0141,-19.9703,3.3010,-4.9306,0.4574,0.0392,1.6549,-10.8642,-6.4483,-7.2130,-11.2344,-13.2880,-7.1276,-11.4088,6.2936,-13.2115
2687.5000,-3.5690,-7.5778,-4.3370,0.6076,-18.7054,1.6067,-2.6389,1.1134,2.5003,4.4367,-6.3223,-6.5509,-5.5749,-10.5573,-10.6660,-8.5249,-9.3040,7.9073,-10.5225
2691.4062,0.9306,-7.9088,-2.1277,1.5077,-16.1295,0.6903,0.8890,1.6582,6.6117,8.1992,-1.1672,-7.7441,-2.5068,-8.7452,-8.8710,-8.8301,-5.1121,9.9206,-7.3363
2695.3125,6.7873,-8.6532,0.2448,1.8862,-13.1628,0.8297,4.7060,1.5791,11.0684,11.5059,3.3003,-9.6818,0.9326,-6.7995,-6.8790,-8.4627,-0.3179,11.4090,-4.7796
2699.2188,12.1496,-9.7372,2.1074,1.5096,-10.7233,1.7869,7.2705,1.0227,14.5809,13.4742,6.1041,-11.1451,3.8497,-5.4117,-3.9129,-7.9975,3.7999,11.8513,-3.5187
2703.1250,15.4739,-10.7031,2.9271,0.6443,-9.2683,2.8048,7.3339,0.4603,16.3347,14.0141,6.8615,-11.1152,5.8863,-4.7294,-0.3185,-7.8689,6.7083,11.2692,-3.4970
2707.0312,16.2188,-11.0896,2.5470,-0.3751,-8.7336,2.9896,4.7536,0.0979,16.1523,13.5194,5.7887,-9.6249,7.1650,-4.5696,2.5125,-8.1371,8.5605,10.0096,-4.0970
2710.9375,14.9789,-10.7360,1.2786,-1.4780,-8.7712,1.8852,0.6984,-0.4002,14.4408,12.3709,3.5490,-7.6883,7.9877,-4.7874,3.1487,-8.4560,9.7539,8.4181,-4.5460
2714.8438,13.0472,-9.7884,-0.1727,-2.8035,-9.0131,-0.1523,-2.9130,-1.6170,12.0320,10.6511,1.0447,-6.4031,8.5744,-5.4603,1.2651,-8.2842,10.5234,6.6723,-4.2893
2718.7500,11.6706,-8.4658,-0.9494,-4.3870,-9.1776,-2.0883,-4.4245,-3.7940,9.9331,8.2174,-0.8198,-6.0098,8.9950,-6.7708,-1.9887,-7.2369,10.8453,4.8401,-3.1615
2722.6562,11.3933,-6.8411,-0.4076,-5.9746,-9.0478,-2.8217,-3.3113,-6.5082,8.9772,4.9822,-1.4080,-5.7279,9.2339,-8.7569,-4.7060,-5.3669,10.6101,3.0148,-1.3645
2726.5625,11.8372,-4.8467,1.5309,-7.2061,-8.4627,-1.8932,-0.3992,-8.9429,9.4577,1.1372,-0.5886,-4.5149,9.2519,-11.1854,-5.4778,-3.1827,9.8309,1.3455,0.6591
2730.4688,12.0478,-2.4837,4.2550,-8.0124,-7.3918,0.2015,2.6873,-10.5406,10.9590,-2.8332,1.2019,-2.0998,8.9897,-13.6596,-4.2249,-1.3626,8.6959,-0.0744,2.3946
2734.3750,11.2194,-0.0102,6.7264,-8.8134,-6.0123,2.3367,4.5196,-11.4608,12.5683,-6.3193,3.1838,0.6187,8.3794,-15.8463,-2.0044,-0.3271,7.4713,-1.3232,3.4640
2738.2812,9.3543,2.1045,8.0650,-10.2419,-4.6598,3.5186,4.7108,-12.4138,13.4191,-8.8026,4.6797,2.2022,7.4321,-17.6173,-0.0180,0.0488,6.3850,-2.6172,3.8412
2742.1875,7.3937,3.4653,8.1236,-12.5626,-3.6435,3.5573,4.1049,-13.9864,13.2355,-10.0251,5.5178,1.8569,6.3533,-19.0069,1.3314,0.3690,5.5910,-4.1196,3.9515
2746.0938,6.6520,4.0521,7.6389,-15.2866,-3.0722,3.1591,4.1751,-16.0468,12.4754,-10.0855,6.0931,0.1968,5.5390,-20.0691,2.5714,1.3002,5.1801,-5.7530,4.5082
2750.0000,7.8632,4.2733,7.7706,-17.3813,-2.8622,3.3552,5.9775,-17.7797,11.9265,-9.4565,6.9996,-1.0908,5.3622,-20.7935,4.4211,3.0665,5.1481,-7.1959,6.0789
2753.9062,10.4842,4.6933,9.2771,-17.9888,-2.9361,4.6662,9.3097,-18.3705,12.0314,-8.8786,8.4738,-0.4842,5.8557,-21.1500,6.8606,5.2021,5.3071,-8.0877,8.6128
2757.8125,12.8117,5.6248,11.8944,-17.0986,-3.4236,6.6212,12.6531,-17.7686,12.4626,-9.0870,10.0792,2.1715,6.5532,-21.1757,8.8532,6.7721,5.2517,-8.2722,11.2909
2761.7188,12.9502,6.8936,14.4114,-15.5969,-4.6362,8.0160,14.0227,-16.8474,12.3141,-10.4300,10.9236,5.4573,6.6886,-20.9676,9.0152,6.9590,4.5064,-7.8695,12.9144
2765.6250,10.0411,7.9671,15.4561,-14.5957,-6.7841,7.7677,12.2604,-16.7516,10.7970,-12.5831,10.3028,7.3723,5.6800,-20.5533,6.7305,5.6467,2.8254,-7.1142,12.6642
2769.5312,4.8979,8.3577,14.4680,-14.5458,-9.6679,5.7683,7.9443,-17.9225,7.9039,-14.6010,8.3057,6.8039,3.5583,-19.7728,2.7996,3.6010,0.4294,-6.1190,10.7290
2773.4375,-0.4560,8.0033,12.1420,-14.8541,-12.6622,3.1074,3.2455,-19.6063,4.4887,-15.3832,5.8870,4.3794,0.9791,-18.3413,-0.9482,2.0832,-2.0683,-4.7942,8.3068
2777.3438,-4.0922,7.3394,9.9857,-14.3474,-15.0959,1.4581,0.7062,-20.3051,1.6529,-14.3319,4.2834,2.0578,-1.2479,-16.1142,-2.8481,2.1094,-4.0793,-3.0136,6.8905
2781.2500,-5.4413,7.0095,9.2828,-12.2448,-16.7769,2.0132,1.6566,-18.8762,-0.1111,-11.7825,4.1546,1.7658,-2.7845,-13.3592,-2.5223,3.8142,-5.5287,-0.8793,7.2819
2785.1562,-5.6142,7.4274,10.2165,-8.8711,-18.2208,4.6899,5.3094,-15.4425,-1.3311,-8.8775,5.0766,4.0731,-4.0536,-10.7717,-1.0963,6.3312,-7.0113,1.1805,9.0318
2789.0625,-6.5363,8.5135,11.8008,-5.5263,-20.3216,8.1479,9.2002,-11.3951,-3.1492,-6.9155,5.7927,7.8445,-5.9248,-9.1376,-0.3524,8.2780,-9.4129,2.6169,10.7341
2792.9688,-9.5038,9.7888,12.6608,-3.5937,-23.6386,10.6131,10.7460,-8.4738,-6.3614,-6.5864,5.0799,11.0617,-8.9966,-8.8440,-1.4604,8.5494,-13.2111,3.1345,10.9941
2796.8750,-14.2011,10.7474,12.0541,-3.5691,-27.8246,10.9513,8.9028,-7.6249,-10.6319,-7.6085,2.6156,12.1742,-13.0177,-9.6061,-4.2237,6.9307,-17.9686,2.9225,9.3842
2800.7812,-18.8831,11.2214,10.3539,-4.7589,-31.6768,9.2900,4.7828,-8.4912,-14.5271,-9.0051,-0.7858,11.0171,-16.9181,-10.6555,-7.3589,4.1734,-22.4530,2.5200,6.6961
2804.6875,-21.5781,11.4686,8.6431,-5.8608,-33.8425,6.8252,0.7946,-9.8661,-16.4127,-9.8043,-3.7417,8.7238,-19.4750,-11.2836,-9.5397,1.5231,-25.3673,2.3918,4.3171
2808.5938,-21.4293,11.9220,7.7767,-5.9504,-33.7054,5.0109,-1.0774,-10.6813,-15.5971,-9.6474,-5.2540,6.8140,-20.1418,-11.3423,-10.3807,0.0210,-26.1946,2.5482,3.2040
2812.5000,-19.2195,12.7994,7.6763,-5.1009,-31.8031,4.7095,-0.6113,-10.7126,-12.8820,-8.8856,-5.3483,6.1738,-19.4258,-11.3117,-10.6289,0.0058,-25.5312,2.5355,3.2181
2816.4062,-16.7413,13.8797,7.4210,-4.1853,-29.4546,5.8340,0.6642,-10.4835,-10.0912,-8.1493,-4.9468,6.6240,-18.5217,-11.8662,-11.4635,1.0689,-24.6373,1.8326,3.2915
2820.3125,-15.5186,14.6336,6.0442,-4.0703,-27.8540,7.6090,0.7862,-10.5381,-8.8806,-7.7651,-5.1096,7.2674,-18.4542,-13.2623,-13.4884,2.4104,-24.5119,0.3557,2.2621
2824.2188,-15.8078,14.6360,3.3751,-4.8705,-27.2817,9.1569,-1.0587,-10.7669,-9.6534,-7.4809,-6.2457,7.2555,-19.3474,-15.0160,-16.2088,3.3216,-25.1685,-1.3358,-0.2741
2828.1250,-16.5479,13.9570,0.2329,-5.8408,-26.9885,9.9624,-3.9228,-10.3808,-11.3271,-6.6808,-7.8881,6.3910,-20.3368,-16.1226,-18.3914,3.5004,-25.6455,-2.3158,-3.7187
2832.0312,-16.2065,13.2235,-2.1903,-5.9477,-25.8066,9.9633,-5.9433,-8.5469,-12.0927,-4.8820,-9.1709,5.1956,-20.1709,-15.6599,-19.0304,3.0705,-24.7383,-1.8615,-6.9689
2835.9375,-13.8610,13.2540,-3.2667,-4.6347,-23.0212,9.3430,-5.9725,-5.1329,-10.6231,-2.1107,-9.5924,4.4857,-18.0670,-13.3442,-18.1887,2.3777,-21.9080,0.0950,-9.2298
2839.8438,-9.7748,14.4822,-3.4406,-2.1933,-18.8891,8.2941,-4.6806,-0.9290,-6.9112,1.1065,-9.4436,4.8025,-14.2376,-9.6659,-17.0764,1.7405,-17.7044,2.9445,-10.5220
2843.7500,-5.1722,16.5643,-3.9016,0.4870,-14.4890,6.9566,-4.2000,2.8270,-2.2247,4.0728,-9.5671,6.0669,-9.7752,-5.5662,-17.2849,1.3018,-13.4233,5.7858,-11.5431
2847.6562,-1.4897,18.4734,-5.6762,2.5236,-11.0845,5.5118,-6.5229,5.2184,1.7097,6.2840,-10.6497,7.6272,-6.0365,-1.9383,-19.6906,1.0211,-10.2935,7.9108,-13.0605
2851.5625,0.3430,19.0723,-8.8380,3.5144,-9.4765,4.2559,-11.8658,6.0981,3.6925,7.5714,-12.6229,8.6187,-3.9652,0.6973,-23.7782,0.7591,-8.8036,9.0558,-15.3314
2855.4688,0.1956,17.8144,-12.4280,3.5851,-9.7403,3.5178,-18.2881,5.9176,3.5780,8.0114,-14.6508,8.4101,-3.7524,2.2025,-27.8495,0.3837,-8.6197,9.3240,-17.9643
2859.3750,-1.4110,15.1054,-15.1153,3.0999,-11.3961,3.4618,-22.9137,5.1786,2.1061,7.7807,-15.7183,6.9096,-4.9401,2.6463,-29.9987,-0.1516,-9.0548,8.9501,-20.2493
2863.2812,-3.6442,12.0631,-16.0751,2.3661,-13.7621,3.9508,-23.8649,4.0370,0.2866,7.1190,-15.3670,4.5877,-6.7797,2.1790,-29.2409,-0.7814,-9.6427,8.1511,-21.6401
2867.1875,-5.6497,9.8071,-15.4336,1.5687,-16.2040,4.6071,-21.4645,2.3948,-1.1815,6.3779,-14.0201,2.2093,-8.5722,1.0559,-26.0906,-1.3679,-10.3481,7.1511,-22.0186
2871.0938,-6.7341,8.7414,-14.0076,0.8938,-18.1886,5.0321,-17.8159,0.3298,-2.1131,5.9907,-12.6630,0.3983,-9.8353,-0.2979,-22.2419,-1.8051,-11.3058,6.2574,-21.6102
2875.0000,-6.5125,8.3074,-12.6126,0.6083,-19.2625,5.0057,-15.1194,-1.6069,-2.6561,6.2625,-12.1407,-0.7384,-10.3222,-1.3589,-19.5605,-2.1498,-12.3912,5.8062,-20.7117
2878.9062,-5.0435,7.3733,-11.5045,0.9445,-19.1086,4.5044,-14.0457,-2.5757,-2.9832,7.0995,-12.5977,-1.6966,-9.9956,-1.7489,-19.0122,-2.6937,-13.0607,5.9584,-19.4926
