Time,Fp1,F3,C3,P3,O1,F7,T3,T5,Fz,Fp2,F4,C4,P4,O2,F8,T4,T6,Cz,Pz
0.0000,-0.5839,0.9642,1.8687,3.4408,4.4188,1.9111,-0.2087,5.2289,-1.5923,-0.8792,-1.9583,0.6593,2.1705,4.4047,-0.3214,1.4543,1.8920,1.3619,2.4656
3.9062,3.9993,1.8112,2.4916,4.9162,6.0141,3.0449,-1.4861,6.4351,0.5646,4.1416,0.7027,3.3034,3.9201,6.5161,3.3836,4.5446,4.2696,2.8721,4.1840
7.8125,5.6626,1.0189,2.5266,5.9675,6.9587,2.7709,-3.6069,6.9609,1.8268,6.3472,2.5674,5.7869,5.4974,8.1905,5.1532,7.2672,6.2012,4.2652,5.7770
11.7188,2.8703,-1.6147,1.8731,5.9881,6.5838,0.7818,-5.7772,6.0080,1.5897,3.9146,2.8584,7.1241,6.4043,8.5804,3.8446,8.4210,6.7959,5.0892,6.7081
15.6250,-4.3348,-5.4717,0.6881,4.6983,4.7168,-2.6752,-6.9443,3.2087,-0.1743,-3.3199,1.3170,6.6473,6.3604,7.2697,-0.5500,7.2368,5.6793,5.0170,6.6417
19.5312,-14.3088,-9.3868,-0.7421,2.3292,1.8040,-6.9126,-6.3584,-1.0627,-2.9013,-13.6674,-1.7282,4.3791,5.4093,4.5197,-6.9493,3.7995,3.1984,4.0169,5.5779
23.4375,-24.3320,-12.1632,-2.1447,-0.4266,-1.2997,-10.9696,-4.0449,-5.7297,-5.6449,-24.1072,-5.4705,1.1082,3.8829,1.1649,-13.6245,-0.8850,0.2410,2.4306,3.8370
27.3438,-31.3926,-13.0208,-3.3001,-2.6790,-3.7427,-13.7561,-0.9035,-9.4244,-7.3858,-31.2569,-8.8146,-1.8971,2.2597,-1.7855,-18.7319,-5.2358,-2.2036,0.8939,1.9262
31.2500,-33.0159,-11.7684,-3.9743,-3.6971,-5.0371,-14.2415,1.6563,-11.0771,-7.3277,-32.4644,-10.6070,-3.4226,0.9969,-3.6065,-20.7396,-7.7158,-3.4736,0.0973,0.3675
35.1562,-28.0334,-8.7081,-3.8619,-3.1942,-5.1729,-11.7906,2.3866,-10.3820,-5.1314,-26.7305,-9.9312,-2.8380,0.4055,-4.1172,-18.7478,-7.4509,-3.4295,0.4781,-0.4432
39.0625,-17.1382,-4.4322,-2.6680,-1.4252,-4.4740,-6.5854,0.8451,-7.9075,-1.0548,-15.1904,-6.4544,-0.3643,0.5905,-3.6248,-12.7603,-4.5680,-2.3705,1.9929,-0.3247
42.9688,-2.9273,0.3346,-0.3355,0.9282,-3.3564,0.1483,-2.3223,-4.8101,4.0556,-0.8890,-0.6886,3.0544,1.4415,-2.6455,-3.8454,-0.0979,-0.8035,4.1078,0.6418
46.8750,10.8604,4.8304,2.7397,3.0200,-2.1759,6.4351,-5.6282,-2.3177,8.9859,12.2609,6.0455,6.2077,2.6528,-1.6200,6.0157,4.5038,0.7576,6.0343,2.1028
50.7812,20.8336,8.3748,5.7162,4.1407,-1.2284,10.4129,-7.4251,-1.2391,12.5814,21.0728,12.0633,8.1713,3.7773,-0.8043,14.5317,7.9803,1.8791,7.1022,3.4922
54.6875,25.5239,10.5637,7.6275,3.9513,-0.8089,11.3626,-6.6949,-1.7112,14.2230,24.5257,16.0237,8.6701,4.3327,-0.3483,19.9943,9.7349,2.2283,7.0722,4.1919
58.5938,26.0909,11.4575,7.8690,2.5736,-1.1835,10.2208,-3.5467,-3.2530,14.0968,24.1941,17.5160,8.0784,3.9624,-0.4216,21.9928,9.9178,1.6246,6.2107,3.7739
62.5000,25.5347,11.5870,6.5448,0.5122,-2.4321,9.0956,0.8494,-5.0576,13.0532,23.2418,17.1452,7.0864,2.6011,-1.2208,21.4630,9.1324,0.1464,5.0896,2.2208
66.4062,26.7197,11.6733,4.4187,-1.5646,-4.2798,9.9372,4.8684,-6.3699,12.0892,24.4232,16.0339,6.2487,0.5564,-2.8171,19.9704,7.9734,-1.7885,4.2293,-0.0150
70.3125,30.4241,12.1753,2.4697,-3.1005,-6.1060,13.1743,7.2574,-6.7914,11.7525,28.2912,15.0629,5.6898,-1.5712,-4.9665,18.6756,6.6910,-3.4962,3.8059,-2.1908
74.2188,34.7970,12.9642,1.3362,-3.8595,-7.2093,17.2864,7.7178,-6.3995,11.8655,32.8459,14.3841,5.1333,-3.1246,-7.0733,17.7103,5.1810,-4.2894,3.5975,-3.6270
78.1250,36.7388,13.3972,1.0293,-3.9626,-7.1949,19.7315,6.9167,-5.6376,11.7772,34.9843,13.5510,4.2125,-3.6791,-8.4021,16.4271,3.2754,-3.8117,3.1989,-4.0381
82.0312,34.3434,12.8019,1.1090,-3.7253,-6.2099,18.7100,5.9369,-5.0243,10.9825,32.8491,12.1491,2.8394,-3.2229,-8.4410,14.3248,1.0950,-2.2340,2.3643,-3.6280
85.9375,28.6436,11.0566,1.1766,-3.3859,-4.8239,14.5710,5.5350,-4.8165,9.6555,27.4238,10.4003,1.3764,-2.1184,-7.1846,11.8838,-0.8203,-0.1644,1.2552,-2.8803
89.8438,23.2467,8.8261,1.2906,-2.8960,-3.6065,9.8101,5.6978,-4.8075,8.6638,22.1223,9.2045,0.4844,-0.8579,-5.1360,10.5525,-1.7344,1.6919,0.4246,-2.1756
93.7500,21.9156,7.2198,1.9559,-1.9287,-2.7025,7.5316,5.7883,-4.4037,8.9895,20.4963,9.5094,0.7401,0.2362,-3.0149,11.7597,-1.1684,2.9097,0.5276,-1.5071
97.6562,25.7190,7.0523,3.6613,-0.1308,-1.7422,9.3471,5.1561,-2.9807,10.9314,23.6033,11.4536,2.2657,1.1731,-1.3650,15.6310,0.7241,3.5135,1.9143,-0.5095
101.5625,31.8614,8.2123,6.3019,2.5225,-0.1934,14.1536,3.7502,-0.3456,13.6735,28.9557,13.9774,4.6075,2.2053,-0.3274,20.4346,3.1374,3.8389,4.3378,1.1938
105.4688,35.2327,9.6193,8.9548,5.5101,2.0814,18.7004,2.2591,2.9764,15.5954,31.9593,15.3047,6.9353,3.5465,0.2806,23.3377,4.9978,4.1985,6.9562,3.5616
109.3750,31.7902,9.8584,10.2569,7.8679,4.4913,19.6377,1.6434,5.8504,15.1933,28.9839,14.0592,8.4343,5.0884,0.6663,22.1105,5.5270,4.6025,8.6531,5.9445
113.2812,21.4810,8.1030,9.2019,8.6066,5.9107,15.7031,2.3916,7.0357,12.0315,19.9738,10.2600,8.6530,6.3261,0.7909,16.6563,4.6314,4.7327,8.5337,7.3162
117.1875,8.6140,4.7095,5.8453,7.2287,5.3344,8.5747,4.0682,5.8324,7.0914,8.7395,5.4610,7.6291,6.5771,0.3502,9.2745,2.8814,4.1842,6.3607,6.8306
121.0938,-0.6836,1.0745,1.4233,4.0449,2.5753,1.8243,5.5364,2.4986,2.2682,0.6509,1.8745,5.7747,5.3847,-0.9658,3.3964,1.1208,2.7972,2.7161,4.3726
125.0000,-2.2470,-1.1551,-2.2376,0.0859,-1.4822,-1.3102,5.7493,-1.8226,-0.6591,-0.7154,1.0465,3.6525,2.8631,-3.1265,1.5917,-0.0139,0.8436,-1.1915,0.7479
128.9062,3.6686,-0.9986,-3.6781,-3.3546,-5.2775,0.1655,4.5548,-5.6374,-0.9203,4.3140,2.9874,1.7994,-0.2394,-5.6006,4.1514,-0.3471,-1.0578,-3.9982,-2.6351
132.8125,12.8793,1.3999,-2.5430,-5.2969,-7.3891,4.6320,2.9039,-7.7942,1.0380,12.0391,6.3424,0.6637,-2.8259,-7.5285,9.1424,-0.0643,-2.2404,-4.7254,-4.4284
136.7188,20.2698,5.0102,0.3397,-5.4599,-7.2577,9.1541,2.2571,-7.9421,4.0828,18.0848,9.4422,0.5964,-3.9459,-8.1452,13.8030,0.5988,-2.3127,-3.1599,-3.9869
140.6250,23.1331,8.6113,3.5376,-4.2673,-5.3786,11.4525,3.5611,-6.5299,7.2156,20.2993,11.4444,1.7938,-3.2360,-7.1888,16.2626,1.5989,-1.3191,0.0854,-1.6422
144.5312,22.5559,11.4271,5.8408,-2.5215,-2.8901,11.1860,6.5043,-4.4110,10.0827,19.8406,12.7362,4.1614,-1.0765,-5.0367,16.4341,3.0583,0.3261,3.8418,1.5136
148.4375,22.0355,13.3054,6.8073,-0.9704,-0.8779,9.7751,9.5929,-2.3514,12.8589,19.8235,14.3402,7.1905,1.6058,-2.4922,15.6130,5.0113,2.0601,6.8548,4.1779
152.3438,24.5055,14.4284,6.7420,-0.0139,0.1424,9.0648,11.0243,-0.7439,15.6838,22.6660,16.8171,9.9952,3.7672,-0.3666,15.2501,7.1594,3.4029,8.2464,5.4084
156.2500,29.9899,14.8868,6.2247,0.3277,0.2837,9.8821,9.7859,0.3556,18.1621,28.1291,19.5371,11.5845,4.6772,0.8810,15.8765,8.8784,4.0900,7.7776,4.9369
160.1562,35.5220,14.5011,5.5877,0.2435,-0.0441,11.4987,6.2559,0.9959,19.3665,33.4199,20.9090,11.2774,4.1483,1.2508,16.9010,9.5157,4.0762,5.8301,3.1277
164.0625,37.2541,13.0175,4.7142,-0.0798,-0.5324,12.2682,1.9382,1.1360,18.3791,35.1684,19.4391,9.0377,2.4959,1.0412,17.2651,8.7840,3.4614,3.1508,0.6782
167.9688,33.1574,10.4705,3.2521,-0.5679,-1.1383,10.8654,-1.4427,0.6452,14.9828,31.7698,14.8687,5.5185,0.3008,0.5722,16.3134,6.9584,2.4037,0.5058,-1.7406
171.8750,24.4145,7.3662,1.0209,-1.2381,-1.9506,7.2121,-2.8672,-0.5379,9.9870,24.4386,8.5674,1.7665,-1.8694,-0.0100,14.1870,4.7244,1.0655,-1.5962,-3.7309
175.7812,14.6523,4.4934,-1.7271,-2.1158,-2.9466,2.5022,-2.3994,-2.2596,4.9160,16.3537,2.8737,-1.2535,-3.6479,-0.7467,11.5336,2.7784,-0.4017,-3.0111,-5.2298
179.6875,7.6939,2.4819,-4.3939,-3.1821,-3.8949,-1.5824,-0.8903,-4.1723,1.2370,10.6375,-0.2004,-3.0471,-4.9148,-1.7363,8.9030,1.4626,-1.8524,-3.8927,-6.4159
183.5938,5.4044,1.4362,-6.3962,-4.3898,-4.5045,-3.8576,0.6663,-5.9240,-0.3903,8.6137,-0.0701,-3.6911,-5.7357,-2.9901,6.3944,0.6849,-3.1429,-4.5265,-7.5424
187.5000,6.9528,0.9218,-7.5280,-5.7047,-4.6912,-4.1906,1.6362,-7.3644,-0.3782,9.4111,2.1895,-3.6363,-6.2644,-4.3796,3.8208,0.1484,-4.1434,-5.1611,-8.7801
191.4062,9.7273,0.3112,-8.0599,-7.1061,-4.7127,-3.3686,1.8330,-8.5914,0.1472,10.9398,4.5679,-3.3789,-6.6618,-5.6944,1.1706,-0.3175,-4.7681,-5.9072,-10.1273
195.3125,11.1023,-0.7661,-8.5090,-8.5198,-5.0248,-2.4900,1.2928,-9.7801,0.0770,11.3881,5.2998,-3.2150,-7.0465,-6.7429,-1.1040,-0.5968,-5.0105,-6.7204,-11.4107
199.2188,9.9154,-2.1881,-9.2421,-9.7360,-5.9341,-2.3003,0.0507,-10.9205,-1.0285,10.2412,3.7920,-3.1914,-7.4646,-7.4146,-2.2515,-0.4193,-4.9555,-7.4448,-12.3667
203.1250,6.9324,-3.4601,-10.1857,-10.4021,-7.3023,-2.8161,-1.8519,-11.6785,-2.7260,8.3608,0.8247,-3.2125,-7.8728,-7.6770,-1.6932,0.3423,-4.7414,-7.8849,-12.7669
207.0312,4.2960,-4.0708,-10.8369,-10.1528,-8.5426,-3.3521,-4.1743,-11.5254,-3.9897,7.3395,-1.9703,-3.1734,-8.1477,-7.5416,0.6109,1.4690,-4.4760,-7.8865,-12.5306
210.9375,4.4167,-3.8167,-10.5753,-8.8428,-8.9513,-2.8840,-6.3494,-10.0936,-3.8173,8.6605,-2.9808,-3.0216,-8.1410,-7.0559,4.2024,2.4739,-4.1531,-7.4144,-11.7753
214.8438,8.8267,-2.8950,-9.0914,-6.7582,-8.1781,-0.5979,-7.6237,-7.5402,-1.8046,13.0464,-1.3767,-2.7456,-7.7767,-6.3369,8.4789,2.9141,-3.6427,-6.6114,-10.7854
218.7500,17.3525,-1.7534,-6.6789,-4.6539,-6.5288,3.5637,-7.4299,-4.6630,1.5846,20.0895,2.5334,-2.3640,-7.1427,-5.6066,12.9823,2.6952,-2.7972,-5.8077,-9.9198
222.6562,27.8478,-0.8532,-4.2136,-3.5344,-4.8852,8.6016,-5.7342,-2.6428,5.1596,28.1517,7.4178,-1.9643,-6.5130,-5.1642,17.3255,2.1218,-1.6330,-5.4470,-9.5012
226.5625,36.6942,-0.5067,-2.8025,-4.2284,-4.2626,12.6540,-3.0992,-2.5082,7.4805,34.6340,11.4154,-1.7567,-6.2523,-5.2694,20.8522,1.6476,-0.4611,-5.9236,-9.7209
230.4688,40.1215,-0.8396,-3.2534,-6.9380,-5.2461,13.7659,-0.4119,-4.5915,7.4732,36.7776,12.8433,-2.0482,-6.6280,-5.9846,22.4693,1.5160,0.1674,-7.3799,-10.5714
234.3750,36.0011,-1.8113,-5.6138,-10.9987,-7.6222,10.9796,1.5327,-8.2708,4.9379,32.9242,10.9045,-3.0843,-7.6210,-7.0744,21.0334,1.5743,-0.2655,-9.5581,-11.8093
238.2812,25.2845,-3.2098,-9.0176,-15.0142,-10.4152,5.1572,2.3258,-12.1571,0.7280,23.6983,6.1371,-4.8208,-8.8541,-8.0488,16.2093,1.4124,-1.8809,-11.8088,-12.9657
242.1875,12.1364,-4.6246,-11.9582,-17.3632,-12.3155,-1.0781,1.9830,-14.6581,-3.5123,12.3088,0.3560,-6.7907,-9.7070,-8.3544,9.2127,0.7251,-4.1795,-13.2937,-13.4364
246.0938,2.3444,-5.4834,-12.9129,-16.8811,-12.2840,-4.4681,0.8053,-14.6623,-5.9845,3.4699,-3.9990,-8.2111,-9.5831,-7.6256,2.7444,-0.3819,-6.1514,-13.3236,-12.6727
250.0000,0.6020,-5.2235,-11.0571,-13.4011,-10.0285,-2.8215,-0.7697,-12.0196,-5.4918,1.2595,-4.9037,-8.3287,-8.1953,-5.8628,-0.1060,-1.3825,-6.7160,-11.6790,-10.4290
253.9062,8.1055,-3.5527,-6.7163,-7.8776,-6.1237,3.6878,-2.2390,-7.5952,-1.9625,7.0418,-1.6997,-6.8244,-5.7159,-3.4372,2.5303,-1.6334,-5.2704,-8.7445,-6.9512
257.8125,21.9080,-0.6471,-1.2947,-2.0021,-1.7286,12.4831,-3.0945,-2.8754,3.5332,18.7195,4.5642,-4.0216,-2.7044,-0.9234,10.1575,-0.7757,-2.0249,-5.3640,-2.9737
261.7188,36.4911,2.8697,3.3346,2.5192,1.9367,19.9304,-2.9819,0.6773,9.2918,31.8416,11.6286,-0.7489,0.1474,1.1467,20.0125,1.0473,2.0820,-2.4695,0.5323
265.6250,46.6415,6.1823,5.6963,4.6742,4.0852,23.2911,-1.9410,2.2081,13.7470,41.9170,17.1168,2.0781,2.3052,2.4713,28.4106,3.2925,5.8421,-0.6634,2.7628
269.5312,49.8872,8.6227,5.3844,4.4826,4.5821,22.0768,-0.5369,1.7191,16.0849,46.5018,19.6166,3.9033,3.5597,3.0183,32.5417,5.3370,8.3321,0.0235,3.4291
273.4375,47.0832,9.8790,3.1682,2.8082,3.8107,17.9759,0.3398,-0.1040,16.3915,45.8265,19.1533,4.7356,3.9996,2.9215,31.6467,6.7718,9.2436,0.0678,2.8410
277.3438,41.0156,9.9622,0.4732,0.7777,2.3119,13.4806,0.0073,-2.3553,15.3164,41.7794,16.8448,5.0079,3.8447,2.3261,26.9576,7.4839,8.8355,0.1212,1.6742
281.2500,34.2171,9.0076,-1.4556,-0.8413,0.4470,10.2119,-1.4421,-4.3804,13.5385,36.2007,14.0527,5.2142,3.2792,1.2978,20.6220,7.5302,7.6157,0.6083,0.5689
285.1562,27.6046,7.1178,-2.2017,-1.9447,-1.6962,8.1035,-2.9963,-5.9941,11.4181,29.8263,11.6315,5.5878,2.4049,-0.1443,14.4546,6.9792,6.0184,1.4965,-0.1769
289.0625,20.7864,4.4019,-2.2501,-2.9270,-4.1161,5.9372,-3.2348,-7.3532,9.0498,22.5800,9.7441,6.0300,1.3280,-1.9038,9.3341,5.8913,4.2987,2.3772,-0.6239
292.9688,13.5432,1.1824,-2.4662,-4.1946,-6.5956,2.7236,-1.2767,-8.6111,6.6108,14.7744,8.2575,6.3078,0.2841,-3.6951,5.4693,4.4550,2.6631,2.8025,-0.9377
296.8750,7.0824,-1.8402,-3.3462,-5.7017,-8.5471,-1.1876,2.4458,-9.6153,4.6621,8.0227,7.2992,6.3393,-0.3319,-5.0466,3.0723,3.1188,1.4531,2.6535,-1.0807
300.7812,3.8838,-3.6866,-4.5575,-6.8321,-9.1755,-4.1442,6.1822,-9.8724,4.0840,4.8905,7.4539,6.3380,-0.0997,-5.4516,2.7245,2.5278,1.1632,2.2883,-0.7158
304.6875,6.1001,-3.5031,-5.0931,-6.7176,-7.9012,-4.3657,7.7574,-8.8206,5.6003,7.3407,9.3882,6.6952,1.1903,-4.6014,5.0582,3.2200,2.2142,2.3493,0.5766
308.5938,13.6692,-1.0668,-3.9521,-4.8000,-4.7841,-1.3696,5.8725,-6.2435,9.1798,15.0593,13.1621,7.6857,3.3477,-2.5749,10.0150,5.2540,4.6206,3.3355,2.9105
312.5000,23.6327,2.9431,-0.8970,-1.2780,-0.6528,3.4373,0.9918,-2.5540,13.7500,24.9836,17.7821,9.2093,5.7801,0.1308,16.3467,8.0452,7.8011,5.2114,5.8316
316.4062,31.3580,7.1420,3.2255,2.8526,3.1878,7.4918,-4.7848,1.2531,17.5102,32.5865,21.4236,10.7644,7.7127,2.7628,21.8890,10.5803,10.7100,7.3216,8.4101
320.3125,33.0274,10.0573,6.8422,6.2146,5.5320,8.6545,-8.8233,3.9875,18.7566,34.2521,22.3042,11.6901,8.5250,4.5998,24.5618,11.9218,12.2602,8.7043,9.6789
324.2188,27.8391,10.8467,8.4918,7.6987,5.8095,6.5553,-9.3630,4.7954,16.7859,29.2861,19.7109,11.5298,8.0262,5.2311,23.4785,11.7011,11.8120,8.6405,9.1560
328.1250,18.5126,9.7109,7.6384,6.9915,4.2852,2.7910,-6.3796,3.5584,12.3502,20.2992,14.5325,10.2907,6.5229,4.6958,19.4263,10.2779,9.4596,7.1129,7.1204
332.0312,9.7769,7.7599,4.9673,4.7001,1.8348,-0.1261,-1.4320,0.9505,7.3660,11.7378,8.9167,8.4377,4.6489,3.4219,14.3848,8.4635,5.9681,4.8789,4.4607
335.9375,5.7893,6.4013,1.9897,2.0215,-0.5400,-0.3322,3.3205,-1.8751,3.9992,7.4811,5.2066,6.6282,3.0542,2.0014,10.4012,6.9882,2.4163,3.0859,2.1976
339.8438,8.0331,6.5947,0.2056,0.1434,-2.1627,2.3456,6.2638,-3.8112,3.6129,8.9367,4.7553,5.3541,2.1154,0.9131,8.5450,6.0700,-0.2516,2.6394,0.9775
343.7500,14.8493,8.3808,0.3215,-0.3039,-2.8692,6.4727,6.9636,-4.2797,6.1450,14.6539,7.2954,4.7047,1.8071,0.3269,8.5727,5.3618,-1.5497,3.6916,0.8325
347.6562,22.7043,10.9317,1.9600,0.5232,-2.8933,10.0375,6.0366,-3.4479,10.2476,21.5031,11.2101,4.3881,1.7818,0.0837,9.4185,4.3024,-1.5313,5.5644,1.3082
351.5625,28.2950,13.0749,3.9862,1.8615,-2.5915,11.6670,4.5126,-2.0857,14.0916,26.5756,14.5215,3.9902,1.6067,-0.1458,10.0909,2.6255,-0.6438,7.1633,1.8242
355.4688,30.2392,13.9816,5.2110,2.8122,-2.2043,11.2587,3.1865,-1.1429,16.3757,28.6774,16.0064,3.3093,1.0347,-0.6069,10.3459,0.6849,0.5357,7.6419,2.0170
359.3750,29.4935,13.6305,5.0485,2.8455,-1.7731,9.7558,2.3283,-1.2533,16.9714,28.6733,15.8013,2.5601,0.1759,-1.2565,10.7404,-0.6236,1.5565,6.9234,1.8750
363.2812,28.4423,12.7832,3.7713,2.0791,-1.2061,8.3741,1.7858,-2.4053,16.8532,28.6531,15.1761,2.3124,-0.5198,-1.7332,12.1195,-0.3087,2.2453,5.7588,1.6464
367.1875,29.3032,12.4844,2.2744,1.1973,-0.3989,7.8658,1.2588,-3.9433,17.3728,30.5013,15.6469,3.1816,-0.4717,-1.5425,14.9405,2.1517,2.7097,5.2802,1.6392
371.0938,32.7532,13.3701,1.5336,1.0587,0.6767,8.2347,0.5084,-4.9044,19.3191,34.6684,17.9685,5.4328,0.7184,-0.3688,18.8696,6.4400,3.2054,6.3064,2.0562
375.0000,37.4639,15.1903,2.0819,2.2018,1.9484,8.9270,-0.5651,-4.5271,22.3274,39.7540,21.5987,8.7238,3.0059,1.6628,22.8455,11.4186,3.9374,8.8128,2.9336
378.9062,40.7315,16.8545,3.7710,4.5094,3.2606,9.2280,-1.8955,-2.6762,25.0081,43.0878,24.9400,12.1491,5.8435,3.9489,25.5098,15.5338,4.9001,11.8807,4.1534
382.8125,39.8567,17.0155,5.8973,7.2093,4.4036,8.5720,-3.1972,0.0370,25.7326,42.0303,26.2102,14.5934,8.3836,5.6537,25.7438,17.4186,5.8516,14.1650,5.4770
386.7188,33.5880,14.8843,7.5791,9.2163,5.1454,6.6704,-3.9351,2.5087,23.6199,35.3770,24.4360,15.2267,9.8593,6.1217,23.0812,16.4294,6.4512,14.6119,6.5829
390.6250,22.9068,10.7963,8.1670,9.6410,5.2750,3.5396,-3.4566,3.6459,19.1256,24.1697,19.9996,13.8868,9.9484,5.2247,17.8912,12.8943,6.4815,13.0175,7.1386
394.5312,10.7294,6.1551,7.4982,8.2082,4.6609,-0.4652,-1.3418,2.8694,13.8614,11.4484,14.4371,11.1446,8.9104,3.4252,11.3181,7.9735,6.0106,10.1157,6.9257
398.4375,0.6312,2.7338,5.9096,5.3775,3.3076,-4.6265,2.1806,0.3737,9.7368,0.9806,9.6251,8.0151,7.4063,1.5016,4.9983,3.1908,5.3690,7.1600,5.9758
402.3438,-4.7758,1.7109,4.0493,2.1230,1.3807,-7.9686,6.0630,-2.9637,7.9333,-4.4374,6.8430,5.4745,6.1032,0.0954,0.5924,-0.1642,4.9358,5.2564,4.6152
406.2500,-4.9547,3.0131,2.5960,-0.5023,-0.8147,-9.5599,8.7553,-5.9623,8.3341,-4.2149,6.2488,4.0432,5.2992,-0.6386,-0.7574,-1.5074,4.8694,4.8271,3.3443
410.1562,-1.4393,5.3777,2.0069,-1.7977,-2.9003,-8.9202,8.9524,-7.6178,9.7431,-0.0476,7.0343,3.6482,4.8002,-1.0556,1.1485,-1.0974,4.9680,5.4896,2.5767
414.0625,3.2457,7.1147,2.3730,-1.6556,-4.5174,-6.3025,6.3798,-7.4802,10.7254,5.1955,8.0902,3.8002,4.1150,-1.7088,5.4715,0.2122,4.7740,6.3704,2.3847
417.9688,7.0385,7.1021,3.4095,-0.5371,-5.4284,-2.6493,2.1077,-5.7988,10.4987,9.0837,8.7074,3.9401,2.8267,-2.9208,10.6444,1.4573,3.8601,6.6274,2.4230
421.8750,9.2313,5.3902,4.5634,0.7614,-5.6045,0.7789,-1.8860,-3.4039,9.2897,10.7212,8.8510,3.7250,0.8857,-4.5343,14.9456,2.0176,2.1079,5.8573,2.1091
425.7812,10.2589,3.0400,5.2018,1.4300,-5.2626,2.8943,-3.7311,-1.3840,7.9451,10.6677,8.8687,3.0959,-1.3666,-6.0147,17.0434,1.7945,-0.2121,4.1790,0.9723
429.6875,10.6373,1.3205,4.8277,0.9351,-4.8104,3.1161,-2.6962,-0.6659,7.1126,9.8443,8.9082,2.1374,-3.4359,-6.8233,16.2598,1.0497,-2.6074,2.0101,-1.0398
433.5938,9.9432,0.8121,3.2632,-0.8057,-4.6805,1.4112,0.3870,-1.6409,6.6116,8.3231,8.5301,0.8822,-4.9878,-6.7903,12.5273,0.0612,-4.6455,-0.2580,-3.4907
437.5000,6.7312,1.0204,0.7349,-3.4025,-5.1049,-1.8817,3.5883,-3.9848,5.4791,4.9954,6.8604,-0.7651,-6.0028,-6.2141,6.2358,-1.1320,-6.1450,-2.4532,-5.6703
441.4062,-0.4088,0.7487,-2.1851,-6.1346,-5.9493,-6.2399,4.9880,-6.7719,2.6857,-1.5405,3.2224,-2.9156,-6.6806,-5.6175,-1.8080,-2.7018,-7.1512,-4.5779,-6.9643
445.3125,-11.3676,-1.0396,-4.7812,-8.2185,-6.7307,-11.0182,3.7847,-8.8707,-1.9839,-11.4910,-2.1941,-5.4870,-7.1927,-5.3456,-10.2932,-4.7500,-7.7484,-6.6119,-7.1527
449.2188,-23.7742,-4.4625,-6.4681,-9.1147,-6.8562,-15.4254,0.7454,-9.4590,-7.5415,-22.9533,-8.1465,-8.0739,-7.4991,-5.3067,-17.4344,-7.0122,-7.8929,-8.3534,-6.4668
453.1250,-33.7681,-8.5746,-7.0140,-8.7387,-5.9690,-18.5819,-2.2743,-8.3980,-12.2323,-32.4482,-12.8503,-10.0297,-7.3792,-5.0562,-21.4017,-8.8217,-7.4253,-9.4441,-5.3941
457.0312,-38.0165,-11.9116,-6.5965,-7.4631,-4.1934,-19.7722,-3.4528,-6.2495,-14.5481,-36.7624,-14.9234,-10.7466,-6.6473,-4.1671,-21.1478,-9.4279,-6.2637,-9.5693,-4.3740
460.9375,-35.7397,-13.3381,-5.6529,-5.8913,-2.1040,-18.8087,-2.0958,-3.9147,-14.1426,-34.9508,-14.1671,-9.9734,-5.3688,-2.6160,-17.1924,-8.4856,-4.6108,-8.6811,-3.5778
464.8438,-29.3390,-12.6325,-4.6071,-4.5221,-0.4196,-16.2477,0.9629,-2.1114,-12.0114,-29.0892,-11.6572,-7.9701,-3.8868,-0.8938,-11.7220,-6.3699,-2.9727,-7.0687,-2.8911
468.7500,-23.0465,-10.4599,-3.6385,-3.5078,0.3870,-13.2244,3.8969,-1.0237,-9.7896,-23.1113,-9.0555,-5.3900,-2.6203,0.2552,-7.6571,-4.0497,-1.9191,-5.2090,-2.0773
472.6562,-20.3321,-7.8211,-2.6425,-2.6578,0.3047,-10.9068,5.0303,-0.3497,-8.6349,-20.3524,-7.5697,-2.9444,-1.7848,0.2974,-7.0301,-2.5404,-1.7230,-3.4939,-0.9903
476.5625,-21.7048,-5.4079,-1.4127,-1.6829,-0.3105,-9.8599,3.8817,0.3037,-8.4580,-21.3709,-7.2319,-1.0429,-1.2533,-0.7388,-9.6336,-2.2673,-2.1382,-2.0241,0.3058
480.4688,-24.3866,-3.3069,0.0832,-0.4957,-1.0487,-9.7346,1.4467,0.9922,-8.0380,-23.5341,-6.9654,0.3818,-0.6792,-2.2618,-12.9248,-2.7627,-2.5050,-0.6131,1.5736
484.3750,-24.1572,-1.2007,1.5426,0.6606,-1.7269,-9.5232,-0.4698,1.3169,-5.9530,-22.7429,-5.3939,1.7570,0.2037,-3.4670,-13.4643,-2.9320,-2.1538,0.9997,2.5499
488.2812,-18.2371,1.1519,2.4267,1.3660,-2.4219,-8.2594,-0.4601,0.7374,-1.6951,-16.2486,-1.8613,3.5260,1.3246,-3.8067,-9.1250,-1.7559,-0.8637,2.8757,3.0905
492.1875,-7.3477,3.5486,2.2839,1.3491,-3.2521,-5.7249,1.5198,-0.9051,3.7936,-4.7404,3.0037,5.7715,2.2610,-3.2834,-0.6647,1.0010,0.9302,4.7270,3.2154
496.0938,4.4236,5.3584,1.0829,0.7294,-4.1192,-2.6889,4.0687,-3.0716,8.5389,7.6988,7.5407,8.0290,2.4861,-2.4031,8.4622,4.5275,2.3345,5.9932,3.0317
500.0000,11.9263,5.8820,-0.6979,-0.0351,-4.6647,-0.4949,5.2304,-4.7093,10.6391,15.8192,9.9631,9.4155,1.7066,-1.8476,14.0694,7.3316,2.4979,6.0929,2.5987
503.9062,11.9901,4.7775,-2.3315,-0.4847,-4.5171,-0.2394,3.7983,-4.8747,9.3383,16.2566,9.3402,9.0293,0.0554,-2.0875,13.7763,8.0279,1.1148,4.6997,1.8383
507.8125,5.2989,2.2508,-3.3158,-0.5415,-3.6512,-2.0627,0.1741,-3.3866,5.3840,9.5067,6.0587,6.4264,-1.9901,-3.1597,8.4522,6.0824,-1.3766,1.8896,0.5605
511.7188,-4.0662,-1.0903,-3.7454,-0.6343,-2.5540,-5.0163,-3.8118,-1.0417,0.4760,-0.3990,1.5156,1.9201,-3.8957,-4.7009,1.5796,2.0890,-4.0219,-1.8971,-1.4022
515.6250,-11.0941,-4.5719,-4.3001,-1.4376,-2.0132,-7.5992,-6.0336,0.7937,-3.7894,-8.2907,-2.7174,-3.4666,-5.3589,-6.1657,-3.0616,-2.5551,-5.8671,-6.0245,-4.0322
519.5312,-12.7545,-7.7246,-5.8055,-3.3755,-2.6321,-8.6269,-5.4265,0.9730,-6.7719,-10.8249,-5.7150,-8.3923,-6.4064,-7.0777,-3.8307,-6.3521,-6.4567,-9.8516,-7.0387
523.4375,-9.5620,-10.3188,-8.6159,-6.2353,-4.3985,-7.8843,-2.6628,-0.7704,-8.9047,-8.2066,-7.5189,-11.7395,-7.2509,-7.1861,-2.1351,-8.3679,-6.0217,-12.8559,-9.8998
527.3438,-4.9158,-12.1994,-12.2124,-9.1710,-6.6203,-6.1605,0.3138,-3.7065,-11.0654,-3.7004,-8.8258,-13.0244,-8.0248,-6.4865,-1.2187,-8.5125,-5.2568,-14.6727,-12.0119
531.2500,-2.7577,-13.1044,-15.3006,-11.1116,-8.2815,-4.6658,1.5896,-6.5740,-13.6851,-1.3654,-10.3095,-12.4622,-8.5795,-5.1435,-3.7106,-7.3532,-4.8262,-15.0833,-12.8584
535.1562,-5.0947,-12.6503,-16.3864,-11.3028,-8.5755,-4.2221,0.5460,-8.2757,-16.2305,-3.5074,-12.0483,-10.6744,-8.4805,-3.3802,-9.6604,-5.6548,-4.8974,-13.9974,-12.1154
539.0625,-10.9097,-10.5265,-14.5100,-9.6288,-7.2619,-4.7515,-1.7641,-8.3478,-17.4112,-9.4137,-13.4131,-8.2356,-7.1999,-1.3833,-16.4126,-3.9555,-4.9880,-11.4508,-9.6709
542.9688,-17.0045,-6.7720,-9.7253,-6.5349,-4.6491,-5.3728,-3.3705,-6.9627,-15.9662,-16.0214,-13.4541,-5.3554,-4.3927,0.7445,-20.3611,-2.4019,-4.2281,-7.6111,-5.6078
546.8750,-20.0768,-1.9352,-3.0712,-2.6684,-1.2971,-5.0207,-2.7446,-4.5927,-11.5041,-19.9270,-11.5087,-1.8941,-0.1143,2.9745,-19.3120,-0.8626,-1.8995,-2.7781,-0.2213
550.7812,-18.6298,3.0171,3.9066,1.4549,2.2772,-3.1718,0.1667,-1.6773,-4.8497,-19.3682,-7.6356,2.3178,5.1182,5.2817,-13.8136,0.8321,2.0578,2.6233,5.9155
554.6875,-13.5645,7.0267,9.7864,5.5126,5.6714,-0.2120,3.9167,1.4417,2.3144,-14.9743,-2.6208,7.0990,10.4409,7.5437,-6.6048,2.7132,6.8769,8.0555,11.9099
558.5938,-7.2605,9.3504,13.7161,9.1702,8.4663,2.7680,6.5299,4.3455,8.2722,-8.9872,2.4210,11.7679,14.8845,9.4681,-0.6924,4.6535,11.2572,12.8948,16.6496
562.5000,-1.9404,9.8414,15.5088,11.8558,10.1145,4.5997,6.7843,6.3866,12.0513,-3.6706,6.5806,15.3626,17.6578,10.6161,2.5118,6.4608,13.9727,16.4928,19.0993
566.4062,1.5277,8.9634,15.4537,12.7915,10.0632,4.6806,4.9473,6.8164,13.7037,-0.0545,9.4964,17.1091,18.3772,10.5480,3.7097,7.9696,14.4596,18.2933,18.7088
570.3125,3.6784,7.5274,14.0441,11.3545,8.0960,3.2526,2.5178,5.1929,13.9826,2.2178,11.3255,16.8352,17.1589,9.0421,4.6679,9.0483,13.0487,17.9895,15.7220
574.2188,5.5128,6.2847,11.7969,7.5546,4.6435,1.1880,1.2105,1.7921,13.6913,4.0334,12.4139,15.0545,14.5393,6.2713,6.5290,9.5467,10.7144,15.6686,11.1742
578.1250,7.4170,5.5820,9.2015,2.2793,0.7679,-0.5348,1.8900,-2.3193,13.1589,5.7501,12.9283,12.6672,11.2567,2.8245,8.8149,9.2755,8.5046,11.8648,6.5164
582.0312,8.7871,5.2625,6.7215,-2.9261,-2.2588,-1.3208,4.1279,-5.6862,12.1735,6.8045,12.7170,10.4777,7.9949,-0.4658,9.8511,8.0931,7.0042,7.4696,3.0275
585.9375,8.6117,4.8655,4.7576,-6.4754,-3.5621,-1.1399,6.5869,-7.1422,10.3709,6.2734,11.5006,8.8424,5.2065,-2.8236,8.2238,6.0701,6.1489,3.5068,1.3157
589.8438,6.5103,4.0119,3.5543,-7.4293,-3.0766,-0.3612,7.8911,-6.3610,7.7626,3.9040,9.2495,7.6520,3.0816,-3.8191,4.1097,3.6046,5.4647,0.8423,1.1719
593.7500,3.3770,2.7354,3.1160,-5.8750,-1.5074,0.5763,7.3959,-3.9579,4.9977,0.7411,6.4557,6.6023,1.6306,-3.5157,-0.5647,1.3528,4.5237,-0.0690,1.8246
597.6562,1.0746,1.5358,3.2118,-2.8130,0.1144,1.4109,5.4279,-1.1117,3.1370,-1.2311,4.0621,5.5170,0.7847,-2.4164,-3.2842,-0.0479,3.2790,0.6913,2.4115
601.5625,1.3287,1.0866,3.4877,0.3527,0.9738,2.0833,2.9630,1.0330,3.0589,-0.2807,3.0296,4.4794,0.4289,-1.2401,-2.6000,-0.3217,2.0525,2.5504,2.3793
605.4688,4.5645,1.7586,3.6256,2.4294,0.7865,2.5937,1.0381,1.8331,4.8752,3.8450,3.7849,3.7052,0.3711,-0.6265,0.8980,0.2605,1.2235,4.6515,1.6160
609.3750,9.4984,3.2708,3.4628,2.8616,-0.2378,2.8574,0.2661,1.2771,7.7538,9.5363,5.9014,3.3046,0.3300,-0.8803,4.9607,1.0132,0.8874,6.1554,0.3264
613.2812,13.7860,4.7342,3.0160,1.8268,-1.6543,2.6975,0.6553,-0.1887,10.2930,14.1069,8.2498,3.1526,0.0251,-1.8497,7.1232,1.2425,0.7667,6.5394,-1.1780
617.1875,15.3212,5.1145,2.4198,0.0322,-3.0327,1.9786,1.7210,-1.9538,11.2428,15.2876,9.5645,2.9805,-0.6508,-2.9937,6.2112,0.6812,0.4479,5.7755,-2.6033
621.0938,13.3653,3.8525,1.8267,-1.6499,-4.0670,0.7539,2.7461,-3.4834,10.1412,12.4917,9.1018,2.5995,-1.5046,-3.6320,2.9264,-0.3402,-0.2514,4.3009,-3.6788
625.0000,8.8290,1.2422,1.3108,-2.5579,-4.5849,-0.7123,3.0628,-4.4485,7.4875,7.0754,6.9960,2.0480,-2.1108,-3.2953,-0.7902,-1.1250,-1.0905,2.7742,-4.1474
628.9062,3.6129,-1.7062,0.8032,-2.5094,-4.5714,-2.0842,2.2816,-4.7809,4.3661,1.4840,4.1047,1.5224,-2.0940,-2.0183,-3.0894,-1.1107,-1.5647,1.7154,-3.8560
632.8125,-0.4947,-3.8620,0.0787,-1.8728,-4.2416,-3.1549,0.4250,-4.6817,1.7830,-2.1199,1.4621,1.1394,-1.4618,-0.4054,-3.3125,-0.3026,-1.3120,1.2129,-2.9301
636.7188,-2.6462,-4.6567,-1.1781,-1.3980,-4.0598,-3.9478,-2.0817,-4.5590,0.1412,-2.8862,-0.2945,0.7418,-0.7308,0.6170,-2.1831,0.6720,-0.4557,0.8698,-1.8748
640.6250,-3.0486,-4.4069,-3.2163,-1.8439,-4.5741,-4.6332,-4.5868,-4.8566,-0.8324,-1.4114,-1.1653,-0.0602,-0.6901,0.2767,-1.0879,0.9515,0.3960,0.0431,-1.4336
644.5312,-2.4475,-4.0581,-6.0188,-3.5544,-6.0807,-5.3175,-6.4996,-5.8122,-1.7172,0.9477,-1.5829,-1.6070,-1.9044,-1.5889,-1.0334,0.0201,0.5195,-1.7485,-2.2013
648.4375,-1.4627,-4.5225,-9.1762,-6.2123,-8.3252,-5.8759,-7.5385,-7.2810,-2.8890,3.0085,-1.9667,-3.8728,-4.2808,-4.3806,-2.0023,-1.9202,-0.4399,-4.4924,-4.2126
652.3438,-0.2702,-6.0612,-11.9627,-8.9488,-10.5077,-5.9820,-7.7816,-8.7724,-4.2489,4.3133,-2.3962,-6.3790,-7.0314,-7.0208,-3.0778,-4.0570,-2.2199,-7.6452,-6.8161
656.2500,1.2027,-8.1360,-13.6456,-10.7952,-11.6834,-5.3465,-7.4861,-9.7264,-5.3733,5.0294,-2.6513,-8.4471,-9.1107,-8.5393,-3.1687,-5.4985,-4.1124,-10.4319,-8.9891
660.1562,2.8076,-9.8320,-13.8925,-11.2347,-11.3439,-4.0186,-6.8196,-9.8701,-5.9523,5.4081,-2.5674,-9.6374,-9.8663,-8.6157,-1.8029,-5.8695,-5.4285,-12.3011,-9.9417
664.0625,3.8520,-10.5550,-13.0244,-10.5106,-9.7808,-2.5261,-5.7361,-9.4048,-6.1690,5.2764,-2.3955,-10.0625,-9.4601,-7.7337,0.5160,-5.5583,-5.9278,-13.2434,-9.6188
667.9688,3.2221,-10.5151,-11.9045,-9.4673,-7.9384,-1.7185,-4.1283,-8.8674,-6.7107,3.9428,-2.8392,-10.3299,-8.7518,-6.8408,2.5630,-5.4391,-5.9195,-13.7578,-8.7409
671.8750,-0.0821,-10.6478,-11.4694,-9.0022,-6.8167,-2.3567,-2.1554,-8.7421,-8.3711,0.5730,-4.6752,-11.1314,-8.7068,-6.7292,3.0510,-6.2565,-5.9939,-14.4845,-8.3288
675.7812,-6.3105,-12.0092,-12.1678,-9.4732,-6.8249,-4.6668,-0.4603,-9.0958,-11.4926,-5.2191,-8.1889,-12.7534,-9.7349,-7.5455,1.2824,-8.0973,-6.6082,-15.7491,-9.0241
679.6875,-14.6041,-15.0333,-13.6710,-10.4600,-7.5411,-8.1192,-0.0228,-9.5103,-15.6250,-12.9271,-12.8224,-14.8512,-11.4232,-8.7478,-2.5469,-10.3086,-7.8273,-17.3243,-10.6744
683.5938,-23.1333,-19.1375,-15.0747,-11.0498,-8.0512,-11.5775,-1.6468,-9.3754,-19.6404,-21.1066,-17.3183,-16.6455,-12.8482,-9.5233,-7.4921,-11.9101,-9.3702,-18.5699,-12.4720
687.5000,-29.6924,-22.9356,-15.4860,-10.4643,-7.6183,-13.7639,-5.3806,-8.3429,-22.2517,-27.7704,-20.3120,-17.4100,-13.2350,-9.3652,-12.3074,-12.2115,-10.8656,-18.8536,-13.5385
691.4062,-32.4995,-24.9389,-14.6115,-8.6139,-6.1982,-13.8154,-10.2755,-6.6175,-22.6342,-31.0744,-21.0246,-16.9186,-12.4881,-8.4092,-15.9328,-11.2193,-12.0836,-17.9668,-13.5283
695.3125,-30.8782,-24.3280,-12.9488,-6.2109,-4.4454,-11.6588,-14.7069,-4.8790,-20.8007,-30.0415,-19.6318,-15.5622,-11.2191,-7.3166,-17.7998,-9.5840,-12.9701,-16.2637,-12.8212
699.2188,-25.5559,-21.3590,-11.4433,-4.3722,-3.2361,-8.0326,-17.1181,-3.8927,-17.5439,-25.0434,-17.0977,-14.0792,-10.2753,-6.8150,-17.8812,-8.1612,-13.5123,-14.4429,-12.1799
703.1250,-18.4480,-17.1972,-10.8483,-3.9750,-3.0860,-4.1618,-16.7625,-4.0786,-14.0196,-17.8115,-14.6004,-13.1008,-10.1299,-7.2364,-16.5481,-7.5058,-13.6115,-13.1301,-12.1450
707.0312,-11.9835,-13.3083,-11.2272,-5.1722,-3.8765,-1.2502,-14.0148,-5.3126,-11.2210,-10.8854,-12.9147,-12.8121,-10.5806,-8.3616,-14.3684,-7.6271,-13.1183,-12.5342,-12.6190
710.9375,-8.1942,-10.7582,-11.9329,-7.3414,-5.0389,-0.0229,-10.0936,-7.0519,-9.6059,-6.6395,-12.1091,-12.9200,-10.9499,-9.6340,-11.9480,-8.1162,-12.0132,-12.3777,-12.9366
714.8438,-7.9187,-9.7835,-12.0559,-9.4502,-5.9880,-0.5011,-6.3951,-8.6465,-9.0124,-6.2720,-11.6765,-12.9007,-10.6075,-10.5385,-9.8392,-8.4953,-10.5563,-12.1081,-12.3510
718.7500,-10.4645,-9.8112,-11.0142,-10.5809,-6.4481,-2.0757,-3.8376,-9.6141,-8.8341,-9.2388,-10.9477,-12.3331,-9.4116,-10.8537,-8.4666,-8.5198,-9.2271,-11.2287,-10.5704
722.6562,-13.9054,-9.8598,-8.8834,-10.3111,-6.4564,-3.8093,-2.5548,-9.7398,-8.3308,-13.4671,-9.4933,-11.1067,-7.7590,-10.6301,-8.0217,-8.2438,-8.4432,-9.5456,-7.9637
726.5625,-15.9086,-9.0766,-6.2832,-8.7962,-6.1324,-4.8214,-2.0292,-9.0290,-6.9337,-16.2935,-7.2917,-9.4178,-6.2484,-9.9815,-8.3361,-7.8603,-8.2508,-7.2211,-5.3215
730.4688,-14.7208,-7.1375,-3.9586,-6.5961,-5.4847,-4.5938,-1.5126,-7.6357,-4.4504,-15.6699,-4.6303,-7.6109,-5.2457,-8.9175,-8.8246,-7.4779,-8.2356,-4.6588,-3.3745
734.3750,-9.8542,-4.3367,-2.3798,-4.3990,-4.4524,-3.0963,-0.4792,-5.8453,-1.1222,-11.0159,-1.8754,-5.9931,-4.6824,-7.3742,-8.6045,-7.0075,-7.7623,-2.3238,-2.4190
738.2812,-2.1770,-1.3669,-1.6091,-2.7797,-3.1205,-0.7132,1.0969,-4.0705,2.4746,-3.3078,0.7132,-4.7234,-4.2054,-5.4049,-6.8230,-6.2206,-6.4023,-0.5903,-2.2701
742.1875,6.5742,1.0672,-1.4406,-2.0427,-1.8595,1.9650,2.7294,-2.7650,5.6521,5.5553,3.0329,-3.7984,-3.5165,-3.3311,-3.0803,-4.9124,-4.2526,0.3488,-2.5011
746.0938,14.5544,2.5892,-1.6166,-2.1534,-1.1848,4.3819,3.6584,-2.2242,7.8792,13.6642,5.0794,-3.1008,-2.6119,-1.6766,2.2710,-3.0507,-1.9148,0.5226,-2.7369
750.0000,20.4610,3.2853,-1.9227,-2.7572,-1.3846,6.1918,3.2544,-2.3787,8.9843,19.7732,6.8703,-2.4699,-1.7440,-0.8865,8.1577,-0.8263,-0.1356,0.1762,-2.7862
753.9062,23.8386,3.5934,-2.1332,-3.3079,-2.2007,7.3255,1.4321,-2.7564,9.2004,23.4809,8.4188,-1.7652,-1.1674,-1.0207,13.1973,1.4055,0.6489,-0.2924,-2.5792
757.8125,25.0373,4.0451,-1.9430,-3.2905,-2.8511,7.9528,-1.1320,-2.7004,9.0353,25.0401,9.7633,-0.9105,-0.8977,-1.6534,16.3198,3.2575,0.5670,-0.4604,-2.0441
761.7188,24.9783,5.0232,-1.0367,-2.4535,-2.4387,8.3830,-3.1586,-1.7439,9.0453,25.1052,11.0079,0.1017,-0.6789,-2.0691,17.2811,4.4704,0.2104,-0.0349,-1.0772
765.6250,24.8647,6.6622,0.7102,-0.9173,-0.4897,8.9510,-3.3213,0.0966,9.6350,24.6072,12.3252,1.2523,-0.1714,-1.6378,16.7820,5.0468,0.2733,1.0412,0.3625
769.5312,25.8623,8.9018,3.0655,0.9197,2.7430,9.9152,-0.9689,2.3148,10.9684,24.6718,13.9019,2.5604,0.8040,-0.1341,16.1096,5.2962,1.1764,2.5970,2.1409
773.4375,28.7283,11.5945,5.4893,2.6249,6.4033,11.3779,3.3997,4.2011,12.9857,26.3558,15.8447,4.1102,2.1534,2.1745,16.4741,5.7265,2.8920,4.3483,3.9513
777.3438,33.4386,14.5488,7.4114,3.9505,9.4642,13.2366,8.2568,5.2218,15.4525,30.1397,18.0850,5.9863,3.5883,4.6793,18.3866,6.7797,5.0213,6.0346,5.4507
781.2500,39.0099,17.4751,8.5435,4.8672,11.1522,15.1873,11.7818,5.2324,17.9845,35.4372,20.3294,8.1339,4.7998,6.6841,21.3955,8.5171,7.0130,7.4858,6.4241
785.1562,43.7364,19.9170,8.9845,5.4013,11.1153,16.8030,12.8191,4.4127,20.0647,40.5666,22.1006,10.2462,5.5812,7.6149,24.3108,10.4563,8.3701,8.5902,6.8384
789.0625,45.8783,21.3024,9.0333,5.4417,9.3342,17.6835,11.4669,3.0315,21.1346,43.4252,22.8861,11.8092,5.8350,7.1338,25.7905,11.7284,8.7655,9.2341,6.7570
792.9688,44.5193,21.1712,8.8794,4.7271,5.9883,17.6284,8.9134,1.2666,20.8064,42.6097,22.3627,12.3475,5.5264,5.2027,24.9944,11.5491,8.0880,9.3131,6.2214
796.8750,40.1098,19.4781,8.4495,3.0843,1.4666,16.7484,6.6297,-0.7747,19.1243,38.3058,20.5989,11.7521,4.6841,2.1421,21.9901,9.7561,6.4672,8.8467,5.2405
800.7812,34.3130,16.7618,7.5647,0.7482,-3.5021,15.4439,5.4731,-2.8930,16.6997,32.3057,18.1129,10.4656,3.4774,-1.3487,17.7372,7.0590,4.2786,8.1087,3.9200
804.6875,29.1899,14.0133,6.2773,-1.5267,-7.8230,14.2440,5.3097,-4.6959,14.5566,27.0554,15.7140,9.3403,2.2767,-4.3143,13.6779,4.7681,2.0754,7.6230,2.6020
808.5938,26.1974,12.2609,5.0705,-2.7443,-10.3195,13.5867,5.3732,-5.7130,13.6960,24.3182,14.1761,9.1971,1.5791,-5.8568,11.1474,4.1039,0.4154,7.9509,1.8341
812.5000,25.6256,12.0990,4.6860,-2.2183,-10.2735,13.6589,5.0276,-5.6794,14.5967,24.3442,13.9132,10.3368,1.7788,-5.5413,10.8789,5.4904,-0.3592,9.3594,2.1077
816.4062,26.8030,13.4443,5.6496,-0.0327,-7.8881,14.3835,4.3105,-4.7580,16.9609,26.0904,14.8481,12.3396,2.9203,-3.6564,12.8187,8.2958,-0.2504,11.5963,3.5183
820.3125,28.8559,15.6696,7.8490,2.9439,-4.2955,15.5377,3.8388,-3.4823,19.8924,28.2673,16.5569,14.3205,4.6331,-1.1178,16.2958,11.2155,0.4693,13.9668,5.6170
824.2188,31.4078,18.0069,10.5203,5.5516,-1.0057,16.9014,4.1894,-2.4162,22.4146,30.3707,18.5849,15.5028,6.3408,0.9918,20.4150,13.0647,1.5027,15.7132,7.6206
828.1250,34.6717,19.9370,12.7029,7.0256,0.8995,18.3176,5.3091,-1.7779,23.9977,32.8876,20.7063,15.7310,7.6284,1.9998,24.4374,13.4652,2.7688,16.4685,8.8830
832.0312,38.8848,21.3136,13.8413,7.3966,1.2987,19.6307,6.4815,-1.3362,24.7532,36.5331,22.9406,15.5621,8.5021,1.9745,27.9521,12.9773,4.4344,16.4700,9.3029
835.9375,43.5877,22.1892,14.0758,7.3217,0.9230,20.5838,6.9097,-0.6937,25.1815,41.1775,25.3253,15.8580,9.3307,1.5857,30.7903,12.6143,6.6780,16.3643,9.3549
839.8438,47.4214,22.5476,13.9948,7.4819,0.6905,20.8104,6.4331,0.2532,25.6830,45.4143,27.6497,17.1531,10.4896,1.5827,32.8121,13.0995,9.3493,16.7246,9.6957
843.7500,48.7434,22.2084,14.0566,8.0180,0.9801,19.9909,5.7422,1.0662,26.2081,47.2441,29.3995,19.2411,11.9715,2.2478,33.7674,14.3900,11.8098,17.6190,10.6244
847.6562,46.6985,21.0061,14.1664,8.4491,1.3860,18.1022,5.8459,0.9938,26.3093,45.4491,30.0076,21.2742,13.2786,3.2088,33.3626,15.7714,13.1471,18.5491,11.8094
851.5625,41.9574,19.0881,13.7811,8.1462,1.1387,15.5684,7.1740,-0.4255,25.5469,40.6175,29.2507,22.3061,13.7215,3.7439,31.4856,16.4074,12.6902,18.8146,12.5107
855.4688,36.4821,17.0343,12.4687,6.9798,-0.1361,13.1426,9.0568,-2.8231,23.9166,34.9534,27.4803,21.8953,12.9360,3.3600,28.3977,15.9148,10.5016,18.0473,12.1522
859.3750,32.3616,15.6121,10.4450,5.5999,-1.9216,11.5206,10.0805,-4.9865,21.9449,30.8862,25.4619,20.3463,11.2409,2.2228,24.7041,14.5520,7.4852,16.5169,10.8147
863.2812,30.4568,15.2663,8.5832,5.0681,-3.0030,10.8983,9.1325,-5.4939,20.3430,29.4203,23.8801,18.4357,9.5402,1.1140,21.0787,12.9345,4.9746,14.9700,9.2568
867.1875,29.8021,15.6940,7.8019,6.0638,-2.2650,10.7775,6.3544,-3.6395,19.4586,29.4194,22.8370,16.8424,8.7868,0.9253,17.9140,11.5430,4.0141,14.1000,8.4129
871.0938,28.2271,15.8529,8.2726,8.2554,0.4550,10.2024,3.2103,-0.0255,18.9356,28.3847,21.7189,15.7031,9.3484,2.0306,15.1527,10.4222,4.7719,14.0230,8.7142
875.0000,23.8184,14.4829,9.1021,10.3484,4.0867,8.3339,1.5103,3.6387,17.8647,24.2093,19.5730,14.6051,10.7114,3.9738,12.4377,9.2759,6.4656,14.1431,9.7331
878.9062,16.2491,10.8599,8.8384,10.8534,6.8686,5.0167,2.0526,5.4753,15.3646,16.6827,15.7765,12.9938,11.7493,5.7016,9.4853,7.8339,7.8557,13.5220,10.4307
882.8125,7.0858,5.3132,6.5165,9.0755,7.3950,0.9608,3.9068,4.5485,11.2173,7.6967,10.5572,10.6710,11.4069,6.1997,6.4060,6.1600,8.0023,11.5109,9.8578
886.7188,-1.1129,-0.8359,2.4928,5.6371,5.4883,-2.6156,4.9598,1.4333,6.1317,0.0466,5.0061,8.0084,9.3692,5.1198,3.7274,4.6407,6.8103,8.2180,7.8246
890.6250,-6.2720,-5.8946,-1.5956,2.1430,2.3184,-4.6784,3.4282,-2.1387,1.4493,-4.2914,0.5543,5.7277,6.2861,2.9881,2.0852,3.6742,5.0333,4.4971,5.0704
894.5312,-7.8654,-8.6081,-3.8072,0.1916,-0.3160,-4.9694,-0.7145,-4.3355,-1.5329,-5.2034,-1.7597,4.4262,3.4091,0.8641,1.8001,3.3269,3.7569,1.4695,2.8086
898.4375,-6.9249,-8.6884,-3.1657,0.3908,-1.0858,-4.1089,-5.4544,-4.3062,-2.2078,-4.1543,-1.7786,4.2016,1.8710,-0.3210,2.6445,3.2495,3.7065,-0.0987,1.9589
902.3438,-5.1074,-6.7907,-0.3345,2.0339,0.0904,-3.1412,-7.8928,-2.6000,-0.9000,-2.9146,-0.1958,4.6391,2.0551,-0.3170,3.9672,2.9308,4.8156,-0.1666,2.5830
906.2500,-3.5457,-4.0252,2.8004,3.6303,2.0692,-2.8273,-6.1187,-0.6831,1.3990,-2.2953,1.9246,5.1451,3.4291,0.3498,5.0832,2.0986,6.3039,0.6723,3.8895
910.1562,-2.2709,-1.3495,4.3620,3.9081,3.2692,-3.1577,-0.5459,0.0938,3.5985,-1.7801,3.7406,5.3598,4.9172,0.7844,5.6547,0.9629,7.1883,1.6341,4.7806
914.0625,-0.5083,0.7914,3.6740,2.6054,2.7077,-3.4110,6.1983,-0.6186,5.0285,-0.2043,4.9735,5.3458,5.5589,0.3552,5.8125,0.1166,6.8900,2.2218,4.5566
917.9688,2.4836,2.4280,1.5940,0.5508,0.6322,-2.7106,10.7807,-1.9998,5.6356,3.1400,5.8465,5.4341,5.0454,-0.8625,5.9709,0.1613,5.5687,2.4301,3.3213
921.8750,6.6766,3.7518,-0.2038,-0.9649,-1.6326,-0.7024,11.0877,-2.6851,5.8070,7.8199,6.7358,5.8739,3.8326,-2.1162,6.4989,1.3168,4.0036,2.5913,1.8555
925.7812,11.1209,4.7943,-0.4466,-1.0520,-2.5118,2.1037,7.3513,-1.7357,5.9836,12.4349,7.8037,6.5663,2.7967,-2.4563,7.4816,3.2641,3.1204,3.0176,1.0837
929.6875,14.4000,5.3237,0.8964,0.2594,-1.1592,4.5523,1.8238,0.7005,6.3175,15.4159,8.8446,7.0877,2.6719,-1.3577,8.6979,5.3041,3.4583,3.7126,1.5014
933.5938,15.3318,5.0050,2.7133,2.1444,2.0083,5.4807,-2.6894,3.4626,6.5629,15.8258,9.4032,6.9830,3.6171,0.9127,9.7721,6.7098,4.8837,4.3431,2.9136
937.5000,13.4921,3.6906,3.6530,3.5937,5.5349,4.3763,-4.4438,5.1143,6.2456,13.6714,9.0619,6.1137,5.1522,3.4155,10.3616,7.0619,6.6919,4.4667,4.6035
941.4062,9.3538,1.6362,3.1349,4.0542,7.7586,1.6621,-3.5332,4.8461,5.0010,9.6897,7.7192,4.8074,6.4727,5.0714,10.2741,6.4029,8.0129,3.8426,5.7797
945.3125,4.0896,-0.5056,1.7358,3.6832,7.7453,-1.5321,-1.4787,2.9604,2.8846,4.9337,5.7111,3.7006,6.9273,5.2734,9.5029,5.1721,8.2734,2.6145,6.0082
949.2188,-0.8042,-1.9308,0.7175,3.1077,5.7689,-3.9471,-0.0531,0.6483,0.4682,0.4781,3.7110,3.3738,6.3649,4.2035,8.2197,3.9839,7.4574,1.2533,5.3842
953.1250,-3.9556,-2.0540,1.0792,2.9156,3.0724,-4.7813,-0.1675,-0.7701,-1.3687,-2.7140,2.4406,4.0092,5.1544,2.6641,6.7385,3.3531,6.0401,0.3042,4.3876
957.0312,-4.5736,-0.8206,2.8270,3.2498,1.0809,-3.9916,-1.4803,-0.6428,-1.8769,-3.9416,2.3100,5.2751,3.8937,1.5491,5.4168,3.4696,4.6588,0.0949,3.5465
960.9375,-2.8062,1.2075,4.9513,3.7506,0.5597,-2.2080,-2.8383,0.6709,-0.8861,-3.0462,3.1600,6.4949,3.0098,1.2993,4.4833,4.1062,3.7326,0.5713,3.1236
964.8438,0.2129,3.0625,6.0802,3.8359,1.2243,-0.3682,-3.1420,2.0905,1.0094,-0.6604,4.2729,6.9896,2.5115,1.6848,3.8755,4.7151,3.2566,1.3410,2.9946
968.7500,2.8032,3.8062,5.3282,3.0927,2.0111,0.7165,-2.0458,2.5146,2.6875,1.9065,4.7090,6.3987,2.0395,2.0326,3.2386,4.7019,2.8784,1.8856,2.7634
972.6562,3.5862,2.9912,2.7858,1.5221,1.8036,0.6749,-0.1117,1.4725,3.0864,3.2970,3.8417,4.8165,1.1649,1.7226,2.1759,3.7646,2.1910,1.8183,2.0256
976.5625,2.3278,0.9073,-0.6080,-0.4876,0.1395,-0.3289,1.5870,-0.6584,1.8338,2.9638,1.7960,2.6982,-0.2787,0.6048,0.6431,2.1077,1.0425,1.0489,0.6201
980.4688,0.2203,-1.5379,-3.6446,-2.4009,-2.5319,-1.7151,2.1095,-2.9549,-0.4650,1.6665,-0.5081,0.6120,-2.0542,-0.9313,-0.8020,0.3727,-0.3385,-0.2168,-1.2695
984.3750,-0.6889,-3.2574,-5.4634,-3.8138,-5.1624,-2.7445,1.1646,-4.5289,-2.4920,1.1448,-1.8067,-1.0173,-3.6605,-2.2571,-1.1585,-0.7148,-1.4767,-1.6230,-3.2133
988.2812,1.3392,-3.5073,-5.8570,-4.6059,-6.7419,-2.8017,-0.7405,-4.9999,-2.9162,3.0763,-1.2131,-2.0439,-4.6448,-2.9344,0.4487,-0.7839,-1.9486,-2.8555,-4.7637
992.1875,6.7015,-2.1957,-5.1732,-4.9057,-6.8379,-1.5877,-2.5506,-4.5935,-1.1231,7.9926,1.2363,-2.5650,-4.8690,-2.9671,4.1300,-0.0509,-1.6456,-3.7629,-5.6741
996.0938,14.2510,0.1910,-3.9809,-4.9276,-5.7257,0.8484,-3.1630,-3.8655,2.4682,14.9356,4.5886,-2.7636,-4.5513,-2.7127,8.9980,0.8320,-0.8346,-4.3499,-5.9784
1000.0000,22.0827,2.9669,-2.7529,-4.8048,-4.1018,4.2297,-1.9429,-3.2936,6.6863,22.1245,7.5647,-2.7456,-4.0749,-2.5552,13.5839,1.2276,0.0139,-4.6722,-5.8990
1003.9062,28.7547,5.6532,-1.7280,-4.5267,-2.6374,8.2221,0.9702,-3.0253,10.2874,28.1506,9.3562,-2.4833,-3.7191,-2.6081,16.6863,0.9525,0.5018,-4.7351,-5.6638
1007.8125,34.0544,8.1274,-0.9604,-4.0145,-1.6831,12.5241,4.6996,-2.9218,12.5849,32.7958,10.0822,-1.9017,-3.5157,-2.6756,18.0742,0.3832,0.5021,-4.4871,-5.3714
1011.7188,38.7471,10.4319,-0.4542,-3.2743,-1.2641,16.8065,7.9976,-2.8111,13.6331,36.8482,10.5780,-1.0438,-3.3213,-2.4851,18.5218,0.1421,0.1668,-3.9250,-5.0023
1015.6250,43.5143,12.4243,-0.2734,-2.5143,-1.2691,20.5669,9.7717,-2.7227,13.9048,41.0684,11.6577,-0.1835,-3.0266,-1.9846,19.1183,0.5917,-0.2286,-3.2265,-4.5534
1019.5312,47.9303,13.5863,-0.5636,-2.1257,-1.6221,23.0681,9.5177,-2.9129,13.7518,45.1466,13.3814,0.2227,-2.7182,-1.4543,20.3404,1.5169,-0.4726,-2.7845,-4.1746
1023.4375,50.3317,13.1969,-1.4858,-2.5106,-2.2984,23.5086,7.4493,-3.6682,13.0744,47.5279,14.8688,-0.2522,-2.6548,-1.3328,21.5848,2.2417,-0.5095,-3.0731,-4.1736
1027.3438,48.7772,10.7964,-3.1005,-3.8445,-3.2304,21.4098,4.2840,-5.0452,11.4380,46.3305,14.8169,-1.7468,-3.0732,-1.8947,21.5314,2.1006,-0.4069,-4.3962,-4.8592
1031.2500,42.4591,6.6249,-5.2644,-5.9252,-4.2519,17.0131,0.8434,-6.7563,8.5250,40.7278,12.3736,-3.9774,-3.9833,-3.0351,19.0952,0.9113,-0.2689,-6.6710,-6.3215
1035.1562,32.5506,1.6996,-7.6057,-8.2232,-5.1834,11.3968,-2.2720,-8.3003,4.5560,31.7779,7.7643,-6.3358,-5.1222,-4.3339,14.2760,-0.9005,-0.1919,-9.4023,-8.3138
1039.0625,21.8438,-2.5740,-9.6211,-10.1322,-5.9949,6.1520,-4.7516,-9.2568,0.3458,22.0636,2.2494,-8.1817,-6.1151,-5.3520,8.2864,-2.6107,-0.2892,-11.8896,-10.3348
1042.9688,13.3753,-5.0483,-10.8715,-11.2823,-6.8763,2.7239,-6.4038,-9.5459,-3.0662,14.3539,-2.5412,-9.1603,-6.7253,-5.9272,2.8747,-3.6986,-0.7262,-13.5603,-11.8706
1046.8750,8.9209,-5.3543,-11.1846,-11.7223,-8.1017,1.7590,-6.9503,-9.4765,-4.9621,10.1795,-5.4363,-9.3547,-7.0086,-6.2444,-0.6540,-4.1659,-1.6789,-14.2322,-12.6383
1050.7812,8.2804,-4.0004,-10.7377,-11.8503,-9.7583,2.8219,-6.0149,-9.5541,-5.3061,9.2195,-6.2011,-9.1899,-7.2585,-6.6426,-2.0356,-4.4591,-3.2022,-14.1542,-12.6801
1054.6875,9.6780,-2.0341,-9.9539,-12.1332,-11.5653,4.6414,-3.3785,-10.1745,-4.7087,9.7770,-5.4490,-9.1627,-7.7899,-7.3294,-1.9173,-5.0933,-5.0968,-13.8169,-12.2725
1058.5938,10.8638,-0.5119,-9.2624,-12.7967,-12.9746,5.7387,0.6570,-11.3921,-4.0598,9.8834,-4.1741,-9.5773,-8.7267,-8.2401,-1.2246,-6.2879,-6.9076,-13.6655,-11.7451
1062.5000,10.1628,-0.0912,-8.8745,-13.6868,-13.5242,5.0915,5.0867,-12.8867,-4.0893,8.2598,-3.2757,-10.4366,-9.9368,-9.1433,-0.5814,-7.8726,-8.1073,-13.8931,-11.3464
1066.4062,6.9558,-0.9142,-8.7223,-14.3819,-13.1838,2.5181,8.4149,-14.1198,-5.1024,4.6536,-3.3238,-11.5160,-11.1361,-9.8737,-0.1894,-9.4740,-8.3792,-14.4126,-11.2204
1070.3125,1.6058,-2.7278,-8.5898,-14.4614,-12.3907,-1.3415,9.2345,-14.5675,-6.9611,-0.3789,-4.5349,-12.5201,-12.0493,-10.4641,-0.1077,-10.7668,-7.8070,-14.9738,-11.4388
1074.2188,-4.8258,-5.0677,-8.3213,-13.7404,-11.6934,-5.3466,6.8999,-13.9079,-9.2205,-5.8405,-6.7744,-13.1967,-12.4991,-11.0359,-0.5198,-11.5594,-6.8247,-15.3129,-11.9927
1078.1250,-10.8206,-7.3811,-7.9374,-12.3260,-11.2483,-8.2950,1.9309,-12.1082,-11.2885,-10.5258,-9.4946,-13.3563,-12.3852,-11.5411,-1.6458,-11.6894,-5.9420,-15.2380,-12.7148
1082.0312,-14.6821,-9.1043,-7.5739,-10.5020,-10.5884,-9.3312,-4.0884,-9.4312,-12.5667,-13.2008,-11.7354,-12.8571,-11.6373,-11.6129,-3.3681,-10.9178,-5.4365,-14.6447,-13.2250
1085.9375,-15.0850,-9.7889,-7.3213,-8.5785,-8.9247,-8.2572,-9.0938,-6.4027,-12.6144,-12.9861,-12.4031,-11.6436,-10.2539,-10.7336,-5.0052,-9.0306,-5.2425,-13.5250,-13.0331
1089.8438,-11.8785,-9.3115,-7.1315,-6.8394,-5.8450,-5.6904,-11.3509,-3.7429,-11.3602,-9.9797,-10.8518,-9.8624,-8.4421,-8.6749,-5.6108,-6.1508,-5.1281,-12.0181,-11.8309
1093.7500,-6.6745,-8.0532,-6.9016,-5.6015,-1.9154,-2.9711,-10.1422,-2.2251,-9.2697,-5.7168,-7.4648,-7.9596,-6.7345,-5.9032,-4.7131,-2.9970,-5.0234,-10.4707,-9.8167
1097.6562,-2.5772,-6.8653,-6.6668,-5.2591,1.3251,-1.7347,-6.0610,-2.4373,-7.2986,-2.8924,-3.7567,-6.6195,-5.9073,-3.5842,-2.9243,-0.7706,-5.2232,-9.4068,-7.7871
1101.5625,-2.8234,-6.7240,-6.7020,-6.1710,2.1139,-3.2070,-0.8136,-4.5007,-6.5275,-4.1494,-1.7365,-6.4859,-6.6401,-3.0610,-1.8122,-0.5878,-6.2517,-9.3364,-6.8224
1105.4688,-8.9109,-8.2020,-7.3724,-8.3806,-0.4395,-7.5147,3.3872,-7.8827,-7.5953,-10.4666,-2.7786,-7.7807,-9.0627,-5.0497,-2.9385,-2.7537,-8.4259,-10.4532,-7.6633
1109.3750,-19.3786,-11.0658,-8.7804,-11.3503,-5.6163,-13.4296,4.6301,-11.4561,-10.2473,-20.1963,-6.6883,-10.0559,-12.4878,-9.0537,-6.6646,-6.3861,-11.4099,-12.3967,-10.1459
1113.2812,-30.2166,-14.2879,-10.4758,-13.9627,-11.2519,-18.8235,2.0468,-13.8582,-13.3306,-29.5822,-11.6402,-12.2905,-15.5736,-13.4187,-11.6337,-9.7420,-14.1212,-14.2756,-13.1039
1117.1875,-36.9050,-16.5326,-11.5216,-14.9193,-14.7903,-21.7044,-3.7777,-14.0360,-15.3252,-34.6815,-15.1450,-13.3449,-16.9147,-16.0816,-15.4424,-11.1415,-15.1606,-15.0175,-14.8939
1121.0938,-36.9504,-16.8632,-10.9856,-13.3887,-14.6375,-21.2895,-10.9130,-11.7281,-15.1521,-33.6041,-15.4999,-12.5513,-15.7681,-15.6246,-16.1590,-9.9465,-13.5839,-13.8989,-14.2950
1125.0000,-31.3343,-15.2564,-8.5928,-9.5399,-11.0076,-18.4505,-16.7385,-7.6290,-12.7828,-27.6512,-12.8054,-10.0988,-12.4935,-12.0395,-13.6729,-6.9637,-9.5718,-10.9640,-11.2462
1128.9062,-23.9149,-12.6136,-5.0872,-4.5980,-5.7553,-15.2050,-18.9504,-3.1252,-9.2681,-20.5749,-8.8789,-6.9733,-8.4206,-6.7593,-9.8972,-3.9879,-4.5492,-7.0692,-6.9446
1132.8125,-19.1451,-10.2612,-1.9785,-0.3223,-1.3168,-13.5260,-16.5297,0.2896,-6.1584,-16.4086,-6.1198,-4.4650,-5.1941,-1.9448,-7.6287,-2.7589,-0.6041,-3.4969,-3.2093
1136.7188,-19.5713,-9.2446,-0.7463,1.8343,0.5916,-14.2100,-10.2282,1.6390,-4.6708,-17.2519,-6.0751,-3.5171,-3.9540,0.5712,-8.8103,-3.9831,0.5234,-1.3382,-1.4815
1140.6250,-24.6704,-9.8263,-1.9634,1.4131,-0.2454,-16.5220,-2.2964,0.8301,-5.1046,-22.3819,-8.6246,-4.2768,-4.8108,0.1112,-13.3690,-7.0088,-1.6610,-0.9823,-2.0657
1144.5312,-31.6162,-11.4497,-4.9039,-0.9020,-2.6667,-18.8158,4.4730,-1.4011,-6.8235,-29.1076,-12.2498,-6.0822,-6.8863,-2.6476,-19.3767,-10.3048,-6.1290,-1.9899,-4.0574
1148.4375,-37.2445,-13.1325,-7.9140,-3.7323,-4.9838,-19.6678,7.9547,-3.9003,-8.7428,-34.5994,-15.0995,-7.8585,-8.8554,-6.1269,-24.3384,-12.3754,-10.8327,-3.3947,-5.9639
1152.3438,-39.7727,-14.0085,-9.3346,-5.7440,-5.9602,-18.7223,7.5581,-5.6272,-9.9537,-37.3593,-16.0723,-8.6725,-9.6445,-8.6459,-26.6531,-12.5150,-13.7127,-4.2347,-6.5948
1156.2500,-39.1940,-13.6916,-8.4068,-6.2341,-5.3378,-16.6959,4.3159,-6.0377,-10.0833,-37.4279,-15.2137,-8.1367,-8.8919,-9.1315,-26.2591,-10.9832,-13.6559,-4.0018,-5.6665
1160.1562,-36.3706,-12.2967,-5.6067,-5.2605,-3.6917,-14.6202,0.1720,-5.1606,-9.2321,-35.4644,-13.2935,-6.4787,-6.9604,-7.4383,-24.1592,-8.6050,-10.9066,-2.7816,-3.7942
1164.0625,-31.8235,-10.1909,-2.2412,-3.3451,-1.8431,-12.9664,-3.1064,-3.4038,-7.6479,-31.6787,-11.0201,-4.3039,-4.5823,-4.2241,-21.3621,-6.1671,-6.7613,-1.0638,-1.9611
1167.9688,-25.3318,-7.7028,0.3859,-1.0425,-0.3006,-11.3537,-4.7633,-1.2629,-5.4595,-25.6082,-8.5493,-2.2368,-2.4123,-0.5485,-18.1445,-4.0392,-2.7909,0.6044,-0.8727
1171.8750,-16.6661,-5.0038,1.6755,1.3025,0.9079,-9.0620,-5.1724,0.8734,-2.6936,-16.9455,-5.6295,-0.6578,-0.7672,2.5654,-14.1797,-2.2125,-0.0692,1.8896,-0.6169
1175.7812,-6.7546,-2.2134,1.8836,3.4905,1.9821,-5.9221,-5.2351,2.7357,0.4667,-6.6824,-2.1856,0.3577,0.3412,4.4274,-9.3284,-0.6173,1.1771,2.7264,-0.7920
1179.6875,1.8672,0.3993,1.7027,5.2467,2.9521,-2.8262,-5.5130,4.0696,3.4461,2.5213,1.2113,0.9270,0.9906,4.7872,-4.3331,0.6030,1.3824,3.1846,-0.9287
1183.5938,5.9800,2.3270,1.6418,6.1188,3.4933,-1.3716,-5.7178,4.5696,5.3370,7.3211,3.4397,1.2022,1.1646,3.8010,-0.7431,1.1023,1.1470,3.2976,-0.8584
1187.5000,3.5711,2.9800,1.6657,5.6555,3.1202,-2.7972,-4.9349,3.9667,5.3116,5.5830,3.4900,1.2816,0.7634,1.9352,-0.0142,0.6210,0.8161,3.0035,-0.7688
1191.4062,-4.5492,2.0361,1.3259,3.7755,1.6238,-6.9476,-2.4413,2.2489,3.1648,-2.0141,1.2402,1.2254,-0.2018,-0.1476,-2.4068,-0.6838,0.4080,2.2410,-0.9429
1195.3125,-14.6126,-0.2377,0.2336,1.0350,-0.5842,-12.0398,1.4658,-0.1479,-0.3824,-11.8251,-2.2322,1.1191,-1.4036,-1.7220,-6.5161,-2.1446,-0.1246,1.1067,-1.4185
1199.2188,-21.5491,-2.9448,-1.5101,-1.4739,-2.5140,-15.4943,5.2750,-2.3711,-3.8783,-18.8354,-5.0850,1.0946,-2.1853,-2.1691,-9.8627,-2.8483,-0.5722,-0.0762,-1.8484
1203.1250,-21.5836,-4.9081,-3.2680,-2.6252,-3.0674,-15.3684,6.9563,-3.4787,-5.7996,-19.2055,-5.6819,1.2639,-1.8272,-1.1697,-10.2488,-2.1330,-0.4039,-0.8692,-1.6885
1207.0312,-14.2769,-5.2658,-4.2482,-1.8977,-1.6767,-11.5055,5.1909,-2.9332,-5.3299,-12.3293,-3.5220,1.6060,0.0254,1.1425,-7.0456,-0.0176,0.9293,-0.9631,-0.5913
1210.9375,-2.8007,-3.9677,-4.0389,0.2570,1.2846,-5.6776,0.3574,-0.9753,-2.8040,-1.2013,0.4450,1.9090,3.0348,4.1563,-1.5986,2.7187,3.5142,-0.3918,1.2715
1214.8438,7.7397,-1.8327,-2.9077,2.5938,4.6032,-0.6244,-5.4279,1.3906,0.4761,9.1562,4.3333,1.8533,6.1917,6.9499,3.5258,4.8971,6.6929,0.4530,3.2048
1218.7500,13.0059,-0.0635,-1.6360,3.7495,6.8194,1.4340,-9.3563,2.8629,2.9816,14.3604,6.3916,1.2283,8.2469,8.6236,6.0220,5.5701,9.2578,1.0574,4.3459
1222.6562,11.6588,0.5259,-0.9855,3.0426,6.9867,-0.0523,-9.4904,2.5449,3.8451,12.9685,6.0239,0.1616,8.3562,8.6704,5.1862,4.5711,10.0846,1.1432,4.1856
1226.5625,5.9228,0.0846,-1.1524,0.9163,5.1644,-3.7702,-5.8964,0.4868,3.3677,7.1517,4.1667,-0.8113,6.5819,7.2037,2.3278,2.6475,8.8282,0.9134,2.9333
1230.4688,0.2137,-0.3182,-1.5915,-1.2616,2.3572,-7.3499,-0.6136,-2.2735,2.8208,1.3741,2.7766,-0.9395,3.9334,4.9102,-0.0060,1.0639,6.2120,0.9926,1.4807
1234.3750,-1.3871,0.6029,-1.3525,-1.9545,-0.0488,-8.6634,3.5598,-4.2343,3.6305,-0.1932,3.6816,0.3457,1.8831,2.7324,0.4305,0.8708,3.6709,2.0530,0.9498
1238.2812,2.5776,3.3977,0.2673,-0.3431,-1.0172,-6.8972,4.7353,-4.2482,6.4250,3.9131,7.4321,3.0427,1.6014,1.4359,4.1512,2.2606,2.5287,4.3357,2.0649
1242.1875,10.1412,7.3210,3.1733,3.1698,-0.3348,-2.8735,3.0256,-2.1689,10.5373,11.5761,12.8306,6.4550,3.3389,1.2929,9.4735,4.4166,3.2217,7.3769,4.7090
1246.0938,17.0501,10.6081,6.4011,7.1342,1.4130,1.4741,0.3825,1.0508,14.3059,18.3027,17.4730,9.4547,6.3127,2.0402,13.3646,5.9839,5.0743,10.1500,7.9374
1250.0000,19.2267,11.4974,8.6042,9.8110,3.2889,4.1426,-0.7035,3.8732,16.0272,19.8664,19.0602,11.0265,9.1609,3.1143,13.2009,5.9075,6.7791,11.5838,10.4590
1253.9062,15.1899,9.3866,8.8282,10.0865,4.5549,4.0762,1.1882,5.0078,14.9958,14.8912,16.7534,10.7947,10.6954,3.9938,8.4647,4.1260,7.2699,11.1677,11.3204
1257.8125,7.0529,5.3601,7.1036,8.0329,4.9860,1.6740,5.4995,4.0868,11.9824,5.8511,11.7624,9.2195,10.5103,4.4395,1.3417,1.6703,6.4075,9.2752,10.4035
1261.7188,-0.5138,1.6902,4.4809,4.8172,4.8082,-1.4281,10.0339,1.8107,8.8342,-2.1563,6.7666,7.3381,9.1080,4.5093,-4.2472,0.0781,5.0287,6.9903,8.4506
1265.6250,-2.7973,0.5727,2.4699,2.0400,4.3879,-3.1706,12.3006,-0.4896,7.4312,-4.1981,4.4639,6.2023,7.5118,4.3965,-4.7311,0.4793,4.3448,5.5257,6.6153
1269.5312,2.3989,2.8740,2.2111,0.8968,3.9446,-2.0749,11.0137,-1.5977,8.6404,1.7667,6.0969,6.3476,6.6380,4.2482,1.0813,2.9279,5.1118,5.5758,5.8162
1273.4375,13.6345,7.6760,3.8699,1.6272,3.4886,2.0512,6.8389,-1.0320,11.9118,13.8266,10.8460,7.5987,6.8203,4.1060,11.2543,6.4037,7.1339,6.9867,6.2780
1277.3438,26.7678,12.8907,6.6080,3.5248,2.9788,8.0452,1.9831,0.7827,15.7341,27.3151,16.4437,9.2879,7.7409,3.9824,21.7538,9.4624,9.4172,8.9251,7.5105
1281.2500,37.3149,16.5194,9.1194,5.4419,2.5121,13.9741,-1.0740,2.8375,18.6105,37.4704,20.5845,10.7037,8.7414,3.9620,28.6670,11.0914,10.8300,10.4114,8.6917
1285.1562,42.7547,17.7363,10.3805,6.4560,2.3451,18.0575,-0.9311,4.1255,19.8936,41.8960,22.2058,11.4632,9.2601,4.1975,30.2703,11.2136,10.7991,10.8673,9.1787
1289.0625,43.4177,17.1335,10.1500,6.3100,2.7034,19.4425,2.0543,4.1450,19.9537,41.3745,21.8363,11.5994,9.1064,4.7748,27.7087,10.5542,9.5783,10.3459,8.8198
1292.9688,41.5889,16.0627,8.9466,5.4110,3.5276,18.4501,6.0725,3.0672,19.6432,38.7257,20.8786,11.3749,8.4421,5.5553,23.9522,10.0333,7.9579,9.3447,7.9090
1296.8750,39.6250,15.6018,7.5832,4.4510,4.3787,16.2184,8.9059,1.5300,19.5068,36.6597,20.4240,11.0170,7.5530,6.1508,21.8000,10.1476,6.6728,8.3806,6.8730
1300.7812,38.4413,15.8730,6.6107,3.9208,4.6144,13.9991,9.1047,0.2288,19.3360,36.1171,20.4826,10.5793,6.6165,6.0946,22.2566,10.7507,5.9452,7.6438,5.9481
1304.6875,37.3018,16.1190,6.0418,3.8194,3.7463,12.5239,6.6862,-0.4470,18.3759,36.0791,20.1422,9.9923,5.6242,5.1125,24.2428,11.2957,5.4505,6.9568,5.0661
1308.5938,34.8231,15.3821,5.4952,3.7100,1.7443,11.7633,3.0512,-0.5469,15.9968,34.7156,18.4451,9.2002,4.4758,3.3018,25.6295,11.2659,4.6646,6.0278,3.9942
1312.5000,30.2562,13.2361,4.5983,3.0525,-0.9160,11.1357,0.2134,-0.4295,12.3038,30.8542,15.2484,8.2288,3.1312,1.0799,24.7153,10.4363,3.2930,4.7806,2.5866
1316.4062,24.0578,10.0587,3.3248,1.5903,-3.4863,9.9767,-0.2499,-0.4837,8.2216,24.7089,11.3914,7.1323,1.6947,-1.0610,21.1226,8.8295,1.4693,3.5018,0.9495
1320.3125,17.4638,6.7293,2.0296,-0.4424,-5.3001,7.9800,1.9870,-0.8773,4.9929,17.5417,8.0808,5.9081,0.3829,-2.8050,15.6817,6.5375,-0.3684,2.7001,-0.5852
1324.2188,11.6174,4.0586,1.1867,-2.4020,-6.0265,5.4022,5.8096,-1.4682,3.4617,10.7844,6.0310,4.5180,-0.5694,-4.0802,9.6893,3.6883,-1.7700,2.7844,-1.6297
1328.1250,7.0836,2.4031,1.0541,-3.5444,-5.7036,2.9794,9.2031,-1.9094,3.6478,5.4453,5.0749,3.0522,-0.9857,-4.9060,4.2873,0.6509,-2.4900,3.7971,-1.9175
1332.0312,4.1072,1.6967,1.5228,-3.3818,-4.5970,1.6301,10.2744,-1.8690,4.8852,2.1798,4.5432,1.9036,-0.7682,-5.1790,0.3904,-1.7397,-2.4986,5.3888,-1.3818
1335.9375,3.1970,1.7716,2.2445,-1.8994,-3.0349,2.0690,8.2537,-1.2277,6.3689,1.6770,4.0572,1.7415,0.1060,-4.6207,-1.0723,-2.2934,-1.8563,7.0398,-0.1301
1339.8438,5.2515,2.6263,2.9167,0.4626,-1.3331,4.4562,3.9417,-0.1441,7.6792,4.6822,4.0185,3.1897,1.5661,-2.9852,0.8064,-0.0567,-0.6225,8.3671,1.6142
1343.7500,10.8468,4.3918,3.4906,3.0216,0.1911,8.2093,-0.6769,1.0387,8.9092,11.3509,5.3236,6.3516,3.4012,-0.3960,6.2968,4.9021,1.0974,9.3012,3.5451
1347.6562,19.1575,7.0389,4.1411,5.1264,1.2077,12.0941,-3.4839,1.9685,10.3583,20.3936,8.4872,10.5070,5.2412,2.4655,14.2301,11.1008,3.0282,10.0265,5.2893
1351.5625,27.5292,10.1076,5.0299,6.3419,1.4425,14.6342,-3.3820,2.4224,12.0889,28.9075,12.8921,14.2628,6.6260,4.5305,21.8495,16.0969,4.6846,10.7448,6.4582
1355.4688,32.4089,12.7351,6.0495,6.4746,0.7976,14.7288,-0.8903,2.3183,13.7278,33.4466,16.8545,16.1634,7.1630,4.8346,25.8576,17.7009,5.5204,11.4432,6.7584
1359.3750,31.3233,14.0174,6.7534,5.4772,-0.5829,12.1973,2.1824,1.6111,14.6760,31.9221,18.5816,15.4403,6.6930,3.0400,24.2894,15.2694,5.2044,11.8316,6.1117
1363.2812,24.6349,13.4727,6.5453,3.3498,-2.3900,7.9289,3.8078,0.1818,14.5577,25.1114,17.3877,12.4429,5.3549,-0.3577,18.0124,10.2181,3.8300,11.4941,4.6869
1367.1875,15.7301,11.2920,5.0226,0.1447,-4.3362,3.4829,2.9155,-2.1548,13.5490,16.5866,14.2697,8.4607,3.5024,-4.2919,10.6480,5.3142,1.8902,10.1530,2.7994
1371.0938,9.2593,8.2133,2.2642,-3.9099,-6.3118,0.3068,-0.0289,-5.4783,12.3222,10.8506,11.3634,5.0263,1.5266,-7.6929,6.6651,3.0923,0.0155,7.8752,0.7394
1375.0000,8.4192,5.1234,-1.1153,-8.2727,-8.3696,-0.9928,-3.3745,-9.5226,11.6324,10.7286,10.5979,3.1209,-0.2952,-9.9966,8.6963,4.3574,-1.3496,5.0929,-1.3401
1378.9062,13.0234,2.6550,-4.1889,-12.0947,-10.5323,-0.8814,-5.3159,-13.5560,11.8331,15.6787,12.4555,2.7588,-1.8314,-11.2771,15.8010,7.7369,-2.1164,2.4294,-3.3809
1382.8125,19.6579,1.0137,-6.1132,-14.4589,-12.5750,-0.4835,-4.9422,-16.5382,12.6505,22.1540,15.6763,3.1699,-3.0192,-11.9633,23.8899,10.5868,-2.4765,0.4314,-5.2663
1386.7188,23.8357,0.0747,-6.5028,-14.7851,-13.9909,-0.7963,-2.6711,-17.5453,13.3554,25.8057,18.0898,3.4064,-3.7741,-12.3887,28.1231,10.6778,-2.6754,-0.6446,-6.7113
1390.6250,22.7319,-0.3883,-5.5996,-13.1815,-14.2274,-2.0520,0.1383,-16.2593,13.1995,24.1014,17.9847,2.9482,-3.9903,-12.5241,25.7716,7.5752,-2.8276,-0.8901,-7.3389
1394.5312,16.7304,-0.5303,-4.1469,-10.4963,-13.0680,-3.6441,2.0743,-13.2270,11.8306,17.6887,15.1024,1.9272,-3.6417,-12.0781,17.7280,2.8330,-2.9000,-0.6392,-6.9299
1398.4375,8.8810,-0.4092,-3.0158,-7.9702,-10.8868,-4.6337,2.4675,-9.6853,9.4481,9.7219,10.6575,0.8820,-2.8956,-10.8571,7.7781,-1.0830,-2.8372,-0.2802,-5.6630
1402.3438,2.7897,-0.0639,-2.7568,-6.6322,-8.5520,-4.4449,1.6252,-6.9975,6.6515,3.7320,6.4778,0.2789,-2.1177,-9.0764,0.2306,-2.4007,-2.6833,-0.0918,-4.1210
1406.2500,0.4447,0.4126,-3.3036,-6.7697,-6.9813,-3.2402,0.4512,-5.9883,4.1151,1.5188,3.9139,0.1596,-1.7233,-7.3509,-2.4894,-1.1119,-2.5829,-0.1806,-2.9917
1410.1562,1.3694,0.8744,-4.0074,-7.7932,-6.6088,-1.7181,-0.2186,-6.5506,2.2944,2.3962,3.2171,0.1482,-1.9548,-6.3449,-0.8084,1.1611,-2.6689,-0.5212,-2.6354
1414.0625,3.4673,1.1909,-4.0142,-8.5979,-7.1140,-0.5079,-0.1112,-7.7538,1.2986,4.1091,3.6731,-0.2295,-2.7383,-6.3250,2.8446,2.3489,-2.9572,-1.0433,-2.8344
1417.9688,4.7606,1.3180,-2.8012,-8.2186,-7.6172,0.3650,0.4282,-8.3953,0.9491,4.6270,4.2458,-1.1678,-3.7282,-6.9498,5.8735,1.3350,-3.3577,-1.6919,-2.9424
1421.8750,4.7387,1.3262,-0.5604,-6.3913,-7.2413,1.5293,0.7762,-7.6771,0.9504,3.5343,4.2268,-2.4165,-4.5183,-7.4693,6.9997,-1.3630,-3.7904,-2.4233,-2.3709
1425.7812,4.4628,1.3750,1.8259,-3.6871,-5.6914,3.7748,0.4960,-5.6218,1.0718,2.1466,3.5065,-3.4231,-4.8758,-7.2174,6.5325,-4.0405,-4.2833,-3.1578,-1.0790
1429.6875,5.5186,1.6543,3.2483,-1.1549,-3.4749,7.3556,-0.3626,-3.0108,1.2557,2.4043,2.4318,-3.6664,-4.8398,-6.0657,5.5387,-5.0224,-4.9332,-3.7474,0.3041
1433.5938,8.6686,2.3067,3.0241,0.2883,-1.6096,11.5865,-1.2738,-0.9104,1.6133,5.3778,1.4807,-2.9508,-4.6273,-4.5251,4.7553,-3.7952,-5.7385,-4.0048,0.8556
1437.5000,13.1550,3.3451,1.3430,0.3373,-0.9929,15.0399,-1.5158,-0.0827,2.3117,10.3894,1.0119,-1.4879,-4.4285,-3.4150,4.0956,-1.2987,-6.4580,-3.7911,0.0016
1441.4062,17.0797,4.5951,-0.7884,-0.6206,-1.8294,16.2673,-0.5636,-0.6185,3.4130,15.2886,1.1891,0.2547,-4.2538,-3.3129,2.9948,0.7820,-6.6610,-3.1017,-2.0149
1445.3125,18.5608,5.7149,-2.0944,-1.8242,-3.4800,14.6350,1.5871,-1.9702,4.7639,17.6782,2.0149,1.8156,-3.9431,-4.1502,1.1607,1.2067,-5.9922,-2.0825,-4.1850
1449.2188,16.9143,6.3317,-1.7447,-2.6123,-4.8368,10.7850,4.3180,-3.3197,6.0235,16.3381,3.3715,2.9478,-3.3218,-5.2277,-0.9480,0.0265,-4.4770,-0.9523,-5.2972
1453.1250,13.1475,6.2527,0.1998,-2.7432,-4.9980,6.4397,6.5784,-4.0381,6.8425,12.0113,5.0374,3.6694,-2.3755,-5.6521,-2.2951,-1.4846,-2.6158,0.1194,-4.6512
1457.0312,9.4819,5.6291,2.8724,-2.3993,-3.8289,3.6191,7.3335,-3.9743,7.0954,7.0940,6.7242,4.1628,-1.3033,-4.9186,-1.9311,-1.7522,-1.1435,1.0927,-2.4580
1460.9375,8.1665,4.9330,5.1353,-1.9367,-2.0561,3.6521,6.0926,-3.4370,7.0014,4.3836,8.1609,4.6071,-0.4035,-3.2601,0.3626,-0.0389,-0.5804,2.0344,0.3228
1464.8438,10.2297,4.7153,6.2072,-1.5889,-0.8239,6.4804,3.2468,-2.9199,7.0216,5.5608,9.1915,5.0514,0.1266,-1.5236,3.8978,2.9881,-0.8807,3.0109,2.5786
1468.7500,14.8687,5.2793,6.0043,-1.3183,-0.9690,10.6387,-0.0181,-2.7520,7.5708,10.2627,9.8128,5.3993,0.3357,-0.6316,7.4639,5.6608,-1.4424,3.9901,3.6711
1472.6562,19.8741,6.5001,5.0382,-0.8780,-2.4496,13.9729,-2.2612,-2.8803,8.7315,16.3126,10.1295,5.5082,0.5033,-0.9555,9.9958,6.4305,-1.4918,4.8411,3.7097
1476.5625,22.9240,7.9398,4.0144,-0.0025,-4.2953,14.7796,-2.5247,-2.9027,10.1832,21.0298,10.2812,5.3405,0.9724,-2.0069,11.1106,4.9585,-0.5843,5.4448,3.3456
1480.4688,23.0337,9.1862,3.4309,1.4041,-5.1389,12.7722,-0.8451,-2.3319,11.4112,22.8624,10.4136,5.0652,1.9346,-2.6727,11.2229,2.4272,1.1232,5.8210,3.2806
1484.3750,21.2367,10.1458,3.4069,3.1737,-4.0494,9.2976,1.7929,-0.9438,12.0483,22.3032,10.6959,5.0223,3.2968,-1.8939,11.2011,0.8237,3.0034,6.1460,3.8282
1488.2812,19.9338,11.0270,3.7592,4.8936,-1.1737,6.5872,4.0524,0.9897,12.0835,21.4209,11.2972,5.5316,4.7005,0.6075,11.7643,1.6262,4.3746,6.6036,4.7781
1492.1875,21.1741,11.9919,4.1771,6.0186,2.2194,6.3921,5.0185,2.7361,11.7695,22.2245,12.2479,6.6354,5.6748,4.0126,12.9385,4.7445,4.8912,7.1587,5.5821
1496.0938,24.9501,12.7605,4.3452,6.0489,4.3743,8.8063,4.6479,3.4277,11.3067,24.9509,13.2457,7.9399,5.8412,6.7458,13.8883,8.4350,4.6465,7.4375,5.6917
1500.0000,28.7791,12.5586,3.9839,4.7445,4.0365,12.0716,3.6165,2.5316,10.5865,27.5657,13.6067,8.7063,5.0786,7.3274,13.2913,10.3041,3.9718,6.8650,4.8354
1503.9062,29.1203,10.5820,2.8963,2.3102,1.2308,13.6152,2.7104,0.2151,9.2557,27.0333,12.5386,8.2098,3.5895,5.2674,10.1523,8.8053,3.1486,5.0369,3.1225
1507.8125,23.8935,6.7193,1.0876,-0.5576,-2.6470,11.7519,2.2305,-2.6257,7.1013,21.6452,9.6827,6.1981,1.8497,1.4563,4.6542,4.2920,2.2856,2.1034,0.9820
1511.7188,14.3888,1.9769,-1.1017,-2.8540,-5.5250,6.9472,1.8471,-4.7419,4.4479,12.7597,5.5769,3.1659,0.4568,-2.2194,-1.5154,-1.0699,1.4344,-1.1220,-0.9905
1515.6250,5.0081,-1.8502,-3.0081,-3.6681,-5.7674,1.7029,0.9856,-5.1467,2.1760,4.4920,1.6125,0.2132,-0.0862,-3.8664,-5.7467,-4.5234,0.7847,-3.4855,-2.2239
1519.5312,0.6459,-3.2099,-3.9139,-2.6383,-3.0770,-1.0051,-0.5903,-3.6455,1.2126,1.2269,-0.6680,-1.5066,0.4144,-2.6298,-5.8773,-4.3567,0.6959,-4.1201,-2.3684
1523.4375,3.2575,-1.9108,-3.4817,-0.2089,1.3418,0.2150,-2.4798,-0.9711,1.7806,4.4595,-0.5883,-1.4649,1.7155,0.8114,-1.6402,-0.9595,1.4684,-3.0162,-1.4587
1527.3438,10.0146,0.4903,-2.0785,2.5015,5.4538,4.0293,-3.8739,1.5739,2.9737,11.2122,1.0257,-0.1432,3.1816,4.5979,4.7630,3.3591,3.0126,-1.1481,0.0363
1531.2500,14.6260,1.4497,-0.7063,4.1989,7.5043,7.0539,-4.1348,2.7793,3.0959,15.4296,2.1588,1.1700,4.0245,6.7018,9.5365,5.7001,4.7132,-0.0121,1.3551
1535.1562,11.3019,-1.0028,-0.4877,4.0323,6.9188,6.0414,-3.2704,2.1233,0.6946,11.7635,0.8319,1.1152,3.6661,6.0169,9.3200,4.2678,5.6782,-0.7898,1.7738
1539.0625,-1.1379,-6.8695,-1.9733,1.9985,4.4830,0.1745,-1.9363,-0.0291,-4.3367,-0.6431,-3.4897,-0.8794,2.0606,2.9135,3.2422,-0.5754,5.2715,-3.6159,0.9881
1542.9688,-17.8878,-13.9235,-4.7100,-1.0833,1.7449,-8.1218,-0.9784,-2.7083,-10.3763,-17.0221,-9.2922,-4.1517,-0.2088,-1.0340,-6.3207,-6.5046,3.5749,-7.4016,-0.6713
1546.8750,-30.7309,-18.8621,-7.3859,-3.9897,0.0519,-14.5090,-0.8826,-4.8972,-14.8123,-29.5340,-13.7567,-7.0922,-2.1489,-3.9494,-14.9088,-10.5486,1.4275,-10.3552,-2.3506
1550.7812,-33.1166,-19.2231,-8.5100,-5.6522,-0.1731,-15.4186,-1.5502,-6.0137,-15.5522,-32.0635,-14.4923,-8.0387,-2.8203,-4.6438,-18.4931,-10.7486,-0.0361,-10.9285,-3.0940
1554.6875,-24.4594,-14.8686,-7.2368,-5.5596,0.4938,-10.3475,-2.5293,-6.0552,-12.3778,-24.1705,-11.1583,-6.2599,-1.8206,-3.1415,-15.8391,-7.2054,-0.0716,-8.6551,-2.3504
1558.5938,-10.7377,-8.0798,-3.8420,-3.8468,1.0283,-2.2371,-3.4564,-5.3946,-7.2261,-11.5300,-5.8496,-2.4250,0.4803,-0.5025,-9.2275,-1.9451,1.2206,-4.4041,-0.2728
1562.5000,-0.8727,-2.1963,0.4225,-1.1159,0.7175,4.3164,-4.3084,-4.4405,-3.1260,-2.4661,-1.8978,1.7434,3.1042,1.8728,-3.0392,2.2718,2.9831,0.0872,2.3698
1566.4062,-1.2015,0.3231,3.9855,1.8435,-0.3772,5.8298,-5.2608,-3.4209,-2.4021,-2.7943,-1.8053,4.4333,4.9643,3.0097,-1.0795,3.4819,4.1735,3.1219,4.6116
1570.3125,-11.6548,-0.8180,5.7182,4.2869,-1.5195,1.8693,-6.3145,-2.4045,-5.2747,-12.3306,-5.6589,4.7381,5.4344,2.7709,-4.3282,1.5164,4.2329,3.8692,5.7817
1574.2188,-26.0876,-3.8992,5.3759,5.6603,-1.8401,-5.0238,-7.0690,-1.4651,-9.7614,-25.2943,-11.0839,3.0768,4.6648,1.7525,-10.5168,-2.0626,3.4007,2.6559,5.7783
1578.1250,-36.4028,-6.5571,3.5326,5.6955,-0.9239,-11.1997,-6.9045,-0.7867,-12.9576,-34.2100,-14.7806,0.8038,3.4502,0.8143,-15.7262,-4.9887,2.4796,0.6034,4.9871
1582.0312,-37.6037,-7.3950,1.1360,4.4801,0.9370,-14.1729,-5.4665,-0.5898,-12.8720,-34.6118,-14.6263,-0.7149,2.7164,0.5654,-16.8946,-5.6379,2.2301,-1.1247,3.9379
1585.9375,-30.4343,-6.7364,-1.0013,2.4600,2.9504,-13.7756,-3.0553,-0.9361,-9.6327,-27.4426,-10.9480,-0.9501,2.9248,1.0843,-13.5924,-3.9061,2.8215,-1.9898,2.9480
1589.8438,-20.0770,-6.0827,-2.4915,0.3100,4.3074,-11.5930,-0.5541,-1.6013,-5.3002,-17.7484,-6.1537,-0.4445,3.7600,1.9688,-7.9906,-1.1382,3.7057,-2.2719,1.9832
1593.7500,-12.1326,-6.7511,-3.3517,-1.3277,4.6110,-9.3391,1.1171,-2.1630,-2.4467,-10.8410,-3.0235,-0.3144,4.3079,2.6207,-3.1989,0.7895,3.9872,-2.7144,0.8053
1597.6562,-8.8621,-8.7198,-3.7755,-2.1165,4.0039,-7.5017,1.6421,-2.2711,-2.4637,-8.7404,-2.8575,-1.3853,3.6365,2.5778,-1.2055,0.6329,3.0268,-3.8856,-0.7227
1601.5625,-8.2529,-10.5192,-3.8923,-2.1355,2.9829,-5.2392,1.5554,-1.8977,-4.7136,-9.3157,-4.7318,-3.5625,1.4308,1.7318,-1.8190,-1.5307,0.8794,-5.6898,-2.3997
1605.4688,-6.3092,-10.2467,-3.6620,-1.7370,2.0868,-1.4738,1.8792,-1.3500,-7.0556,-8.5112,-6.3219,-5.8636,-1.7154,0.3657,-3.2267,-4.4849,-1.7048,-7.3498,-3.6908
1609.3750,-0.6646,-6.9887,-2.9452,-1.2342,1.6798,3.7825,3.3874,-1.0034,-7.3559,-3.8555,-5.6721,-7.0840,-4.5561,-0.9723,-3.6304,-6.7575,-3.6963,-7.8733,-3.9858
1613.2812,7.1967,-1.6531,-1.6772,-0.6465,1.9301,8.9504,6.0097,-0.9409,-4.9550,3.3491,-2.6651,-6.6292,-5.8641,-1.6850,-2.7156,-7.5880,-4.3453,-6.7061,-2.9583
1617.1875,12.6805,3.3767,-0.0290,0.2998,2.9078,11.6436,8.7886,-0.7899,-1.1260,8.6991,0.8156,-4.9372,-5.1192,-1.3538,-1.8951,-7.3256,-3.5440,-4.1473,-0.8049
1621.0938,11.1769,5.5635,1.5551,1.8971,4.6482,10.1099,10.4050,0.0698,1.7541,7.6842,2.1286,-3.1934,-2.7929,0.1019,-3.1900,-7.0063,-1.8040,-1.2498,1.7902
1625.0000,1.2843,3.6734,2.4896,4.1076,7.0814,4.3226,9.9069,2.0248,1.7462,-1.1337,-0.3241,-2.5233,-0.0531,2.3879,-7.5789,-7.4323,0.0977,0.7506,3.9633
1628.9062,-14.0401,-1.5308,2.3113,6.4147,9.8788,-4.0003,7.1819,4.7944,-1.4048,-14.9357,-5.9374,-3.2068,1.9277,4.9405,-14.0108,-8.4340,1.5639,1.1389,5.0896
1632.8125,-29.0755,-7.7487,0.9479,8.0160,12.3701,-12.3780,2.9453,7.3790,-6.1018,-28.1815,-12.1327,-4.4502,2.6327,7.1343,-19.8012,-8.8730,2.4504,0.1291,5.0809
1636.7188,-38.4926,-12.4137,-1.1670,8.2573,13.6736,-18.8068,-1.6469,8.4901,-9.8617,-35.7450,-15.8122,-4.8750,2.4261,8.5063,-22.1688,-7.4217,3.0330,-1.2686,4.3949
1640.6250,-39.9812,-13.9793,-3.2348,7.0242,13.0432,-22.4498,-5.4626,7.2469,-10.7615,-35.5691,-15.1027,-3.4091,2.2274,8.8955,-19.9005,-3.5867,3.7265,-1.8355,3.7490
1644.5312,-34.8406,-12.4985,-4.4520,4.8330,10.2705,-23.4792,-7.7053,3.7269,-8.4577,-29.2661,-10.3256,0.0021,2.8647,8.4412,-14.0566,1.7579,4.7475,-0.8303,3.7048
1648.4375,-26.5138,-9.2795,-4.4070,2.5650,5.9023,-22.4238,-8.0393,-0.9724,-4.2101,-20.5734,-3.6717,4.3197,4.5329,7.4582,-7.2876,6.7436,5.9310,1.6301,4.3637
1652.3438,-18.3435,-5.9678,-3.2762,1.0200,1.1086,-19.6558,-6.6200,-5.2200,-0.0070,-12.9545,2.1175,8.0029,6.6854,6.2673,-2.2493,9.5694,6.8036,4.6917,5.3482
1656.2500,-12.0721,-3.6748,-1.6897,0.5615,-2.7823,-15.4015,-4.0767,-7.6232,2.5833,-7.9688,5.1971,9.8706,8.3960,5.0713,-0.1587,9.5481,6.8602,7.2692,6.0662
1660.1562,-7.7901,-2.6193,-0.3399,1.0312,-4.8618,-10.1362,-1.3830,-7.6643,3.1277,-5.2425,5.3602,9.6895,8.9227,3.9243,-0.3717,7.4352,5.8755,8.6058,6.0831
1664.0625,-4.8967,-2.3420,0.4155,1.9233,-5.0352,-4.8681,0.4679,-5.8716,2.2789,-3.6295,3.7697,8.1563,8.1065,2.7803,-1.1316,4.8436,4.0637,8.5610,5.3635
1667.9688,-3.0275,-2.1973,0.6981,2.6642,-4.0145,-0.9149,0.9127,-3.4654,1.1489,-2.4154,2.0256,6.3566,6.3807,1.5712,-0.8590,3.1830,1.9950,7.5186,4.2427
1671.8750,-2.1999,-1.7429,0.9198,2.8380,-2.9073,0.7696,0.1395,-1.6994,0.6097,-1.6298,1.2427,5.1047,4.4440,0.2676,0.9318,2.8711,0.3177,6.0500,3.1700
1675.7812,-2.2646,-0.8394,1.4151,2.2899,-2.6230,0.2394,-0.9962,-1.2603,0.9483,-1.4381,1.6659,4.5864,2.8507,-1.0957,3.6376,3.3204,-0.5530,4.5967,2.4176
1679.6875,-2.3999,0.4653,2.1729,1.1303,-3.4227,-1.3674,-1.4951,-2.0245,1.9693,-1.3920,2.8935,4.4652,1.7837,-2.4222,6.3172,3.6143,-0.6073,3.3547,1.9509
1683.5938,-1.3301,2.0548,2.8583,-0.3211,-4.8581,-2.4749,-0.8716,-3.2582,3.3141,-0.3925,4.3662,4.2790,1.1000,-3.5788,8.4914,3.2893,-0.1918,2.3593,1.5246
1687.5000,1.7407,3.7371,3.0849,-1.6445,-6.1180,-2.0602,0.5225,-4.1162,4.6862,2.4615,5.6988,3.7889,0.5427,-4.4393,10.3413,2.6145,0.2110,1.6220,0.9015
1691.4062,6.2148,5.1641,2.7057,-2.4905,-6.5619,-0.3245,1.7797,-4.1467,5.8559,6.8273,6.6752,3.0484,-0.0730,-4.9442,12.2176,2.2062,0.2308,1.1677,0.0121
1695.3125,10.0865,5.8441,1.8919,-2.7666,-6.1072,1.4457,2.1431,-3.5275,6.5597,10.8696,7.0715,2.2173,-0.8144,-5.1503,13.9763,2.3626,-0.2501,0.9543,-1.0528
1699.2188,11.0992,5.3473,0.9554,-2.7253,-5.2382,1.7777,1.6052,-2.9099,6.5077,12.2656,6.6106,1.3473,-1.6957,-5.2313,14.8243,2.7187,-1.1138,0.7872,-2.1735
1703.1250,8.4132,3.6155,0.0872,-2.8463,-4.6445,0.0945,0.9090,-2.9731,5.5803,9.9160,5.1903,0.3478,-2.7341,-5.4046,13.9239,2.5358,-2.1277,0.3629,-3.3113
1707.0312,3.5944,1.1423,-0.7497,-3.5274,-4.7407,-2.7526,0.9157,-3.9578,4.0659,5.1218,3.2134,-0.8483,-3.9182,-5.8092,11.3226,1.3909,-3.0690,-0.5391,-4.4875
1710.9375,0.0549,-1.1683,-1.6825,-4.7680,-5.3929,-4.8973,1.8247,-5.4737,2.6860,1.2055,1.6627,-2.0998,-5.1262,-6.4096,8.3957,-0.3283,-3.7846,-1.8501,-5.6570
1714.8438,1.1006,-2.4428,-2.6815,-6.0897,-6.0367,-4.5974,2.8940,-6.7178,2.2765,1.5974,1.7015,-3.0638,-6.1099,-7.0043,7.2655,-1.5886,-4.1939,-3.1756,-6.6237
1718.7500,7.7636,-2.3234,-3.4575,-6.8137,-6.1001,-1.3903,2.9544,-6.9901,3.2730,7.5523,3.9477,-3.4365,-6.6181,-7.3529,9.4381,-1.4696,-4.2798,-4.0074,-7.1236
1722.6562,17.8702,-1.1723,-3.6404,-6.5470,-5.4316,3.4878,1.3730,-6.1815,5.3462,17.0651,7.8986,-3.2499,-6.6020,-7.3484,14.5782,0.0524,-4.1052,-4.0722,-7.0536
1726.5625,27.0662,0.1597,-3.1287,-5.5348,-4.4256,7.7179,-1.2834,-4.8979,7.4861,25.8334,11.9736,-2.9585,-6.3392,-7.1110,20.3790,1.9371,-3.8295,-3.5722,-6.6598
1730.4688,31.2406,0.8638,-2.3108,-4.5778,-3.7501,9.1951,-3.4672,-4.0977,8.5378,29.7477,14.2672,-3.1857,-6.3349,-6.9169,23.7747,2.7257,-3.6745,-3.1199,-6.4849
1734.3750,28.8342,0.6549,-1.9223,-4.5103,-3.8641,7.2096,-3.6816,-4.4459,7.8666,27.3111,13.6044,-4.2694,-7.0160,-6.9943,22.7789,1.5723,-3.8172,-3.3728,-7.0357
1738.2812,21.5711,-0.1106,-2.5743,-5.5786,-4.6712,2.7838,-1.6010,-5.8078,5.7221,20.3997,10.2353,-5.9284,-8.4027,-7.3247,17.7314,-1.0881,-4.2597,-4.5927,-8.3718
1742.1875,13.1958,-0.7406,-4.2686,-7.1822,-5.5619,-2.0204,1.5747,-7.2551,3.0634,12.8925,5.7102,-7.3272,-9.9997,-7.6037,11.0982,-3.7452,-4.7770,-6.4264,-9.9312
1746.0938,7.1354,-0.7062,-6.2732,-8.2126,-5.8239,-5.3461,3.8614,-7.6294,0.9807,8.1591,2.0036,-7.5452,-11.0175,-7.4129,5.9631,-4.7718,-5.0102,-8.0721,-10.7788
1750.0000,4.6809,0.0218,-7.4970,-7.7971,-5.1315,-6.5184,3.8457,-6.3224,0.1098,7.1495,0.4549,-6.1630,-10.8110,-6.4994,4.2472,-3.4705,-4.6703,-8.7362,-10.1707
1753.9062,4.8463,1.0176,-7.1408,-5.9265,-3.7609,-6.1415,1.6858,-3.7423,0.4153,8.3432,1.1920,-3.5688,-9.2606,-4.9654,5.8359,-0.4827,-3.7222,-8.0909,-8.0662
1757.8125,5.8099,1.7633,-5.1928,-3.4942,-2.3739,-5.3305,-0.9839,-1.1167,1.4266,9.4399,3.3434,-0.7640,-6.8440,-3.2183,9.0880,2.6941,-2.4082,-6.4399,-5.2175
1761.7188,6.7096,2.0411,-2.4301,-1.6849,-1.5270,-4.6980,-2.1993,0.2796,2.6817,9.4174,5.7902,1.2189,-4.3530,-1.7009,12.1914,4.6963,-1.0788,-4.4976,-2.7391
1765.6250,8.3574,2.0627,0.0611,-1.1348,-1.2676,-3.8727,-1.0511,-0.0301,4.0123,9.3617,7.8675,1.9068,-2.4442,-0.5905,14.2845,5.0798,0.0554,-2.9450,-1.4299
1769.5312,12.3221,2.2542,1.5039,-1.4832,-1.1280,-1.9201,1.6867,-1.3942,5.4727,11.4438,9.5365,1.5970,-1.3262,0.2999,15.5718,4.3850,1.0591,-2.0662,-1.3137
1773.4375,19.1269,2.8695,1.7654,-1.6746,-0.5397,1.6564,4.1229,-2.4774,7.0207,16.8537,10.9986,1.0584,-0.7804,1.3153,16.5413,3.5279,2.1696,-1.7010,-1.7285
1777.3438,27.0488,3.7261,1.2161,-0.8306,0.6188,6.1210,4.5826,-2.2144,8.2652,24.3214,12.1651,0.9344,-0.4809,2.5678,17.1138,3.0412,3.5025,-1.5239,-1.9105
1781.2500,32.6085,4.2568,0.2758,0.9277,1.7466,9.5977,2.7334,-0.6309,8.5352,30.4505,12.4752,1.2566,-0.3676,3.6447,16.5449,2.7478,4.7766,-1.4312,-1.6602
1785.1562,32.5894,3.8403,-0.9789,2.3301,1.7518,10.0968,-0.2864,1.0487,7.2586,31.7572,11.2463,1.3981,-0.7966,3.6679,14.1873,2.0662,5.2907,-1.7432,-1.6030
1789.0625,26.2371,2.1901,-2.8442,1.6565,-0.3147,6.8255,-2.7801,1.1281,4.3848,27.0253,8.2812,0.5044,-2.3420,1.7455,10.4166,0.6509,4.2364,-3.0512,-2.8296
1792.9688,16.0645,-0.4404,-5.6501,-2.1295,-4.6080,0.8694,-3.7258,-1.4402,0.5352,18.3145,4.2303,-1.8773,-5.3652,-2.4193,6.8176,-1.1710,1.2058,-5.7809,-6.1288
1796.8750,6.6039,-3.3386,-9.3249,-8.5462,-10.2335,-5.2720,-3.4106,-6.2611,-3.2374,9.8750,0.3790,-5.3754,-9.6269,-8.1384,5.3028,-2.5178,-3.4107,-9.7453,-11.3149
1800.7812,1.8578,-5.6203,-13.2007,-15.6235,-15.5588,-9.0427,-3.0290,-11.5596,-5.9262,5.6675,-2.0335,-8.8587,-14.1990,-13.8535,6.7437,-2.5413,-8.4102,-13.9887,-17.1023
1804.6875,3.0859,-6.5554,-16.2160,-20.8137,-18.9272,-9.2167,-3.6004,-15.0897,-6.9815,7.1093,-2.5042,-10.9684,-17.7604,-17.7562,10.1709,-1.0447,-12.2145,-17.0740,-21.6316
1808.5938,8.3049,-5.7956,-17.3973,-22.2517,-19.3790,-6.4434,-5.0632,-15.3500,-6.4319,12.4495,-1.4976,-10.8206,-19.1397,-18.6077,13.2351,1.3170,-13.5651,-17.7020,-23.3441
1812.5000,13.6966,-3.4619,-16.3241,-19.6411,-17.0146,-2.6684,-6.2508,-12.3856,-4.7191,18.0265,-0.0869,-8.4804,-17.8296,-16.3172,13.6711,3.3914,-12.1183,-15.3544,-21.7046
1816.4062,15.8831,-0.1187,-13.3199,-14.2969,-12.8598,0.1063,-5.7820,-7.7259,-2.4287,20.4415,0.7176,-4.9431,-14.2208,-11.9634,10.7242,4.1874,-8.6238,-10.6111,-17.3898
1820.3125,13.5944,3.3469,-9.2957,-8.3962,-8.3672,0.8763,-3.2039,-3.5335,-0.1074,18.2372,0.4930,-1.6354,-9.4456,-7.2509,5.5084,3.4055,-4.5835,-4.9523,-11.8904
1824.2188,7.8570,5.9462,-5.3667,-3.9181,-4.8367,-0.1071,0.4717,-1.4854,1.7858,12.2128,-0.5153,0.2883,-4.9142,-3.7071,0.0831,1.5279,-1.5603,-0.1257,-6.8018
1828.1250,0.9296,6.9012,-2.4447,-1.8515,-3.0110,-1.8594,3.2668,-2.0105,2.8908,4.5279,-1.7089,0.4753,-1.7611,-2.0516,-3.9921,-0.5299,-0.4804,2.6117,-3.1963
1832.0312,-5.0316,5.9620,-0.9689,-2.0104,-2.9532,-3.4257,3.4660,-4.2459,3.0319,-2.5338,-2.5448,-0.5450,-0.4504,-2.0456,-6.4966,-1.9434,-1.2722,2.9942,-1.3570
1835.9375,-8.6726,3.5681,-0.8352,-3.4155,-4.1697,-4.2874,0.7501,-6.6435,2.3650,-7.3164,-2.7466,-1.7483,-0.6989,-2.8415,-8.1821,-2.3572,-3.0045,1.7437,-0.9167
1839.8438,-9.3219,0.7132,-1.5101,-4.9239,-5.8676,-4.2312,-3.5292,-7.8259,1.4410,-8.8564,-2.2573,-2.2340,-1.7275,-3.5728,-9.6045,-1.9452,-4.4347,0.0878,-1.2330
1843.7500,-6.5783,-1.4830,-2.2737,-5.7497,-7.2457,-2.9899,-7.1205,-7.2221,1.0401,-6.6643,-1.0920,-1.7203,-2.6986,-3.8250,-10.2135,-1.1971,-4.6709,-0.9249,-1.7659
1847.6562,-0.2550,-2.2995,-2.5158,-5.6715,-7.7443,-0.1379,-8.1881,-5.2040,1.7885,-0.7315,0.7108,-0.6432,-3.1170,-3.7405,-8.5559,-0.6129,-3.6065,-0.9318,-2.2817
1851.5625,9.1693,-1.7407,-1.9879,-4.9351,-7.2026,4.5570,-6.3360,-2.7436,3.7656,8.1460,2.9924,0.1720,-2.9989,-3.7610,-3.5221,-0.4830,-1.9075,-0.3277,-2.8357
1855.4688,20.0616,-0.4583,-0.8988,-3.9976,-5.8737,10.5970,-2.7251,-0.8427,6.3752,18.1228,5.3660,0.0488,-2.7405,-4.2241,4.3291,-0.8318,-0.5796,0.0986,-3.6013
1859.3750,29.7613,0.6934,0.2061,-3.2769,-4.2848,16.5547,0.7304,-0.0558,8.6104,26.6211,7.2664,-1.1262,-2.7846,-5.0937,12.4863,-1.4932,-0.3650,-0.2877,-4.6628
1863.2812,35.5343,1.1940,0.7406,-3.0094,-2.9886,20.5343,2.5308,-0.3247,9.5783,31.2839,8.1864,-2.8558,-3.2940,-5.9815,17.6278,-2.2380,-1.3163,-1.5744,-5.8927
1867.1875,35.8732,1.1390,0.3910,-3.2293,-2.3164,21.1148,2.3840,-1.1568,8.9645,31.0705,7.9455,-4.3578,-4.0338,-6.4133,17.5075,-2.8766,-2.7891,-3.2832,-6.9737
1871.0938,31.2924,1.0849,-0.7338,-3.8300,-2.2580,18.1827,1.1803,-1.9949,7.1465,26.7743,6.7783,-5.0397,-4.5308,-6.1410,12.3155,-3.3041,-3.8499,-4.6994,-7.5546
1875.0000,24.0504,1.5689,-2.2049,-4.6438,-2.5223,13.0806,0.2503,-2.5467,4.9056,20.5744,5.1652,-4.8185,-4.4011,-5.2874,4.5821,-3.4907,-3.8471,-5.3110,-7.4476
1878.9062,16.9544,2.6382,-3.5508,-5.4913,-2.7314,7.9378,0.4422,-2.8862,2.9546,14.8812,3.5333,-4.1003,-3.6247,-4.2422,-2.2974,-3.4441,-2.7941,-5.0756,-6.7471
1882.8125,12.0259,3.7306,-4.5085,-6.1896,-2.6259,4.6017,1.6232,-3.2866,1.6068,11.2134,2.0630,-3.4637,-2.5773,-3.3967,-5.9130,-3.1790,-1.3303,-4.3678,-5.7838
1886.7188,9.8495,4.0190,-5.0787,-6.5443,-2.1692,3.8343,2.8846,-3.9218,0.7864,9.7846,0.7496,-3.2734,-1.7883,-2.9056,-5.8727,-2.7126,-0.2951,-3.6770,-4.9274
1890.6250,9.8940,3.0214,-5.3607,-6.3703,-1.5197,5.2240,3.2633,-4.6580,0.3200,9.9469,-0.3532,-3.4710,-1.5806,-2.6301,-3.4753,-2.0824,-0.1920,-3.2776,-4.3537
1894.5312,11.3966,1.0837,-5.3240,-5.5628,-0.9260,7.7562,2.4670,-5.1000,0.2505,11.0407,-0.9335,-3.6483,-1.8305,-2.2852,-0.4449,-1.3570,-0.8875,-3.0802,-3.9287
1898.4375,14.0741,-0.6076,-4.7186,-4.1879,-0.6236,10.5688,1.1163,-4.8750,0.9172,12.9802,-0.4688,-3.3159,-2.0143,-1.6749,2.2758,-0.6110,-1.7269,-2.7330,-3.2922
1902.3438,18.1551,-0.5585,-3.2221,-2.5193,-0.7684,13.3686,0.3488,-3.9519,2.7336,16.1785,1.4770,-2.1753,-1.5198,-0.8488,4.8610,0.1279,-1.9699,-1.8749,-2.0973
1906.2500,23.8099,2.2131,-0.7279,-0.9568,-1.3911,16.3010,1.0546,-2.7418,5.8234,20.9483,4.9058,-0.2392,-0.0281,-0.0760,7.9850,0.9158,-1.2471,-0.3627,-0.2490
1910.1562,30.5098,7.5198,2.4455,0.1582,-2.3499,19.4770,3.2447,-1.8681,9.7795,26.8873,9.2434,2.2182,2.2716,0.3324,11.8674,1.8540,0.2574,1.6541,2.0085
1914.0625,36.8719,13.9088,5.5999,0.7242,-3.3061,22.5813,5.9696,-1.7431,13.7266,32.7389,13.5167,4.7942,4.7605,0.2223,15.7713,2.9730,1.9848,3.8194,4.2047
1917.9688,41.1573,19.2381,7.9574,0.9242,-3.7970,24.8696,7.8478,-2.2593,16.6687,36.8569,16.7510,7.0691,6.6966,-0.3231,18.3269,4.1125,3.3773,5.7303,5.8670
1921.8750,42.1228,21.6762,9.0316,1.0722,-3.4427,25.5572,7.8803,-2.8518,17.9285,37.9987,18.3540,8.6653,7.5528,-1.0684,18.4173,4.9147,4.1699,7.0696,6.7038
1925.7812,39.7030,20.6216,8.8387,1.3495,-2.2171,24.3233,6.0499,-2.9249,17.4404,35.9829,18.2937,9.3010,7.1939,-1.8041,15.9794,4.9936,4.4124,7.6704,6.6493
1929.6875,35.1301,17.0473,7.8315,1.6215,-0.6014,21.5920,3.3441,-2.3438,15.7579,31.8585,17.0247,8.8803,5.8297,-2.4795,12.1773,4.2113,4.2636,7.5322,5.7923
1933.5938,30.4378,13.0512,6.6275,1.5024,0.5564,18.4115,1.1984,-1.5984,13.7913,27.5055,15.2612,7.5960,3.8350,-3.1873,8.8536,2.8753,3.7736,6.8217,4.2983
1937.5000,27.6029,10.8082,5.7190,0.6621,0.4813,15.9900,0.7042,-1.4610,12.4173,24.8525,13.7277,5.9492,1.5921,-4.0111,7.6158,1.6772,2.8624,5.8620,2.4098
1941.4062,27.7061,11.4559,5.3339,-0.8209,-1.0101,15.1290,2.0461,-2.3398,12.1351,25.0353,12.9608,4.6050,-0.5508,-4.8531,9.0789,1.3445,1.5164,5.0727,0.5057
1945.3125,30.4442,14.5115,5.4775,-2.3327,-3.2619,15.8312,4.4664,-3.8052,12.9004,27.8387,13.1713,4.1094,-2.2362,-5.3895,12.6204,2.1883,0.0159,4.8380,-0.8928
1949.2188,34.1887,18.1495,6.0556,-2.9710,-5.0367,17.2707,6.7304,-4.6974,14.1848,31.6751,14.1709,4.6127,-3.0852,-5.2166,16.6937,3.8420,-1.0507,5.3369,-1.2673
1953.1250,36.6114,20.2035,6.9510,-2.0575,-5.1958,18.1587,7.7895,-3.8301,15.2242,34.1868,15.4029,5.7760,-2.8033,-4.1151,19.4887,5.3966,-1.0793,6.4256,-0.3703
1957.0312,35.6956,19.3470,8.0049,0.4006,-3.4081,17.3628,7.2744,-0.8520,15.3580,33.3019,16.1294,6.9429,-1.3748,-2.2606,19.6430,5.8885,0.1145,7.6658,1.5474
1960.9375,30.7483,15.8006,8.9650,3.6199,-0.4134,14.5111,5.5975,3.3463,14.3272,28.3148,15.7553,7.4906,0.8034,-0.2147,16.7561,4.8589,2.0405,8.5179,3.7463
1964.8438,22.9274,11.1807,9.5056,6.4202,2.3804,10.2752,3.6852,7.0259,12.4131,20.4408,14.1546,7.1598,2.9985,1.3366,11.5510,2.6346,3.7035,8.6170,5.3114
1968.7500,14.9244,7.5985,9.3648,7.8638,3.7493,6.1443,2.5298,8.5973,10.3498,12.4607,11.8056,6.1748,4.4561,1.9663,5.6365,0.1593,4.1652,7.9815,5.6288
1972.6562,9.8219,6.5410,8.5339,7.7645,3.4160,3.7445,2.7756,7.5844,9.0355,7.5041,9.6132,5.1013,4.8051,1.7761,0.9299,-1.5163,3.1657,7.0294,4.7473
1976.5625,9.6204,8.1616,7.3598,6.7481,2.2093,4.0256,4.4798,4.9059,9.1538,7.5272,8.4779,4.5439,4.2983,1.3646,-1.0682,-1.7663,1.3809,6.3764,3.3830
1980.4688,14.1936,11.3349,6.4531,5.8308,1.4939,6.7552,7.0867,2.2707,10.8621,12.2800,8.8400,4.8606,3.7066,1.4788,0.1336,-0.6386,0.0944,6.5135,2.5371
1984.3750,21.2763,14.3658,6.4113,5.7847,2.2377,10.6262,9.6035,1.0882,13.6806,19.3579,10.4574,6.0287,3.8817,2.5397,3.8264,1.2795,0.4327,7.5302,2.9385
1988.2812,27.5428,15.8855,7.4921,6.6898,4.3381,13.9379,10.9425,1.6219,16.6379,25.3517,12.5424,7.6883,5.2296,4.3322,8.4200,3.2354,2.6251,9.0336,4.6375
1992.1875,30.2132,15.4301,9.4206,7.9375,6.6638,15.4597,10.3504,2.9453,18.6263,27.4950,14.1649,9.3037,7.4163,6.0715,12.1366,4.6721,5.7669,10.3140,6.9856
1996.0938,28.3200,13.4566,11.4560,8.6614,7.7895,14.9720,7.7744,3.6963,18.8376,24.9394,14.6834,10.3584,9.5093,6.8351,13.7556,5.3863,8.2722,10.6882,9.0026
2000.0000,22.9805,10.9135,12.7012,8.3080,6.9326,13.1842,3.9752,3.0807,17.1102,19.0129,13.9785,10.5278,10.4946,6.1148,13.0557,5.4706,8.7730,9.8548,9.9019
2003.9062,16.6041,8.6988,12.5094,6.9898,4.4665,11.1332,0.2622,1.4225,14.0357,12.4004,12.4044,9.7959,9.8649,4.1505,10.7664,5.1537,6.9255,8.0810,9.4693
2007.8125,11.5568,7.3078,10.7796,5.4158,1.6799,9.4879,-2.0865,-0.1017,10.7486,7.7469,10.5400,8.4796,7.9200,1.8267,8.0913,4.6671,3.6282,6.1069,8.0968
2011.7188,9.0320,6.7638,7.9883,4.4562,-0.0443,8.2062,-2.4407,-0.3292,8.4445,6.4218,8.8998,7.1212,5.5873,0.1781,6.0705,4.1826,0.5050,4.7878,6.4879
2015.6250,8.6601,6.7343,4.9381,4.6094,-0.0799,6.7134,-1.1177,1.0404,7.8099,8.0003,7.7360,6.2485,3.8682,-0.2012,5.0959,3.7883,-1.0362,4.6352,5.2349
2019.5312,8.9140,6.6877,2.3553,5.6820,1.1075,4.3987,0.8422,3.1957,8.6334,10.5956,6.9785,6.0897,3.2558,0.5192,4.7892,3.4621,-0.6005,5.4959,4.5177
2023.4375,7.9607,6.0304,0.5535,6.8615,2.3246,1.0414,2.3123,4.7071,9.8290,11.7778,6.2952,6.4035,3.4889,1.5509,4.2621,3.0568,1.0261,6.5702,4.0815
2027.3438,4.4900,4.2658,-0.6477,7.1425,2.4388,-3.1067,2.7395,4.4106,9.9306,9.6254,5.2397,6.5673,3.7942,2.0077,2.6087,2.3467,2.4336,6.8059,3.4809
2031.2500,-1.7996,1.2126,-1.7011,5.8832,1.0715,-7.5536,2.4006,2.0958,7.8580,3.5016,3.4560,5.9302,3.4587,1.4770,-0.6045,1.1601,2.5182,5.4930,2.4352
2035.1562,-10.1278,-2.7809,-2.9315,3.2051,-1.2145,-11.8477,2.0852,-1.4022,3.5669,-5.6859,0.8912,4.2582,2.3603,0.2839,-5.0636,-0.4556,1.2075,2.7436,1.0877
2039.0625,-18.8820,-6.7871,-4.2015,0.0266,-3.2871,-15.6486,2.4303,-4.6929,-1.7955,-15.7828,-2.0674,1.9983,1.1123,-0.7041,-9.7584,-2.1474,-0.4677,-0.4376,0.0205
2042.9688,-26.0689,-9.5459,-4.8655,-2.2992,-4.0902,-18.5677,3.3808,-6.5366,-6.3688,-24.1288,-4.6314,0.1615,0.7228,-0.6000,-13.3333,-3.3333,-1.0002,-2.5777,0.0056
2046.8750,-29.8832,-9.9747,-4.0781,-2.5879,-3.1592,-20.0064,4.1757,-6.3417,-8.4732,-28.4962,-5.8716,-0.1574,1.9768,0.9805,-14.5965,-3.4311,0.6493,-2.4631,1.6062
2050.7812,-29.3020,-7.7109,-1.3092,-0.3908,-0.7572,-19.2671,3.8937,-4.2515,-7.4499,-27.9121,-5.1300,1.6257,4.9189,3.7011,-12.9889,-2.1300,4.3616,0.2118,4.8219
2054.6875,-24.5518,-3.3847,3.2179,3.7409,2.3490,-15.9943,2.1838,-0.9168,-3.9874,-23.0545,-2.3995,5.2058,8.7464,6.6871,-8.8403,0.4274,8.8338,4.6314,8.9616
2058.5938,-17.2338,1.5569,8.4309,8.4275,5.2597,-10.6923,-0.3448,2.8022,0.2390,-16.0473,1.5344,9.4446,12.1664,8.9573,-3.3260,3.6357,12.2291,9.2038,12.8284
2062.5000,-9.9437,5.4146,12.7419,11.9980,7.2423,-4.9035,-2.3841,6.0295,3.3993,-9.6915,5.3054,12.8318,13.9964,9.8377,1.8677,6.5863,13.1185,12.2764,15.1527
2066.4062,-5.4030,6.9121,14.6656,13.1550,7.8669,-0.7752,-2.7094,7.9708,4.3453,-6.4036,7.4782,14.1126,13.6696,9.1498,5.0770,8.3394,11.1828,12.8415,15.0902
2070.3125,-5.3715,5.6643,13.4279,11.4692,7.0262,-0.1193,-0.9797,8.0309,3.0216,-7.2625,7.1502,12.7794,11.3939,7.1464,5.2519,8.2377,7.3048,10.8830,12.5621
2074.2188,-9.7959,2.2474,9.2785,7.4975,4.9211,-3.4400,1.9712,6.0118,0.3007,-11.5503,4.3766,9.2275,7.9409,4.3166,2.4234,6.1826,3.0520,7.2387,8.2850
2078.1250,-16.6465,-2.1074,3.3817,2.4973,2.0385,-9.5049,4.5624,2.3018,-2.5783,-17.0026,0.2129,4.5567,4.2418,1.2092,-2.1535,2.7751,-0.1199,3.1226,3.4847
2082.0312,-22.6549,-6.0225,-2.6426,-2.1052,-0.9247,-15.7833,5.3514,-2.1308,-4.6116,-20.7299,-3.6769,0.1403,1.0331,-1.6590,-6.3413,-0.7914,-1.4998,-0.4047,-0.5703
2085.9375,-24.7543,-8.4648,-7.3089,-5.2464,-3.2391,-19.6038,3.8352,-6.0469,-5.3782,-20.4976,-5.7131,-2.8629,-1.2996,-3.8506,-7.9464,-3.1403,-1.2925,-2.7643,-3.0096
2089.8438,-21.6188,-9.0556,-9.7455,-6.5407,-4.3881,-19.4591,0.6844,-8.4515,-5.0486,-15.8498,-5.1146,-3.8941,-2.6814,-5.0764,-5.7710,-3.3192,-0.3220,-3.9050,-3.6013
2093.7500,-14.5171,-8.1200,-9.8983,-6.2888,-4.2633,-15.7685,-2.6957,-9.0344,-4.1592,-8.5292,-2.3047,-3.1629,-3.2204,-5.2881,-0.3924,-1.3293,0.5015,-4.1436,-2.7254
2097.6562,-6.9065,-6.4787,-8.4185,-5.2255,-3.1832,-10.6665,-4.9742,-8.2596,-3.3239,-1.8615,1.2287,-1.5322,-3.1011,-4.7217,5.8477,1.7619,0.6411,-3.9438,-1.1307
2101.5625,-2.7840,-5.0556,-6.3072,-4.1477,-1.7027,-6.8945,-5.5709,-7.0302,-2.9967,0.7757,3.6246,-0.1319,-2.5362,-3.8058,9.8405,4.2917,0.1161,-3.7330,0.3995
2105.4688,-4.5226,-4.4486,-4.4720,-3.5844,-0.3180,-6.3578,-4.8243,-6.1309,-3.3173,-2.2512,3.6071,0.1715,-1.7465,-2.9453,9.3294,4.8861,-0.6165,-3.7809,1.3366
2109.3750,-11.3531,-4.6593,-3.3754,-3.6323,0.7546,-9.1124,-3.6203,-5.7982,-4.0486,-9.7131,1.2273,-0.7846,-0.9282,-2.3002,4.3042,3.2735,-0.9619,-4.1302,1.5509
2113.2812,-19.4636,-5.1356,-2.9274,-4.0042,1.5907,-13.3408,-2.7710,-5.6858,-4.6377,-17.8245,-2.0614,-2.3526,-0.2100,-1.7213,-2.7157,0.5144,-0.5061,-4.5840,1.2771
2117.1875,-23.8687,-5.1379,-2.6686,-4.2505,2.3682,-16.3549,-2.5461,-5.2240,-4.4367,-22.0220,-4.1230,-3.4091,0.3651,-0.9091,-7.8523,-1.5607,0.7783,-4.7820,0.9306
2121.0938,-21.1555,-4.2424,-2.1495,-4.0386,3.1213,-16.1017,-2.6122,-4.1093,-3.0430,-19.3891,-3.3296,-2.9890,0.8040,0.3017,-7.9731,-1.4149,2.5015,-4.3696,0.8607
2125.0000,-11.5780,-2.6769,-1.2856,-3.3442,3.6242,-12.3457,-2.3597,-2.5820,-0.6031,-10.3997,0.4322,-0.8721,1.0997,1.7404,-2.5528,1.2612,4.0034,-3.1996,1.1555
2128.9062,0.7879,-1.2546,-0.4635,-2.4466,3.5017,-6.8587,-1.3730,-1.3023,2.1269,1.0925,5.5583,2.2357,1.1998,2.9469,5.8541,5.3312,4.6296,-1.4467,1.6015
2132.8125,10.0487,-0.9124,-0.3005,-1.7264,2.5037,-2.4865,0.2540,-0.9144,4.0745,9.7351,9.5129,5.0588,1.0519,3.4564,12.9030,8.8519,4.0352,0.4547,1.8259
2136.7188,11.5927,-2.1281,-1.1894,-1.3879,0.7607,-1.6008,1.9255,-1.6008,4.3904,11.4361,10.1962,6.4504,0.6997,3.1260,14.8193,10.1735,2.3837,2.0354,1.5513
2140.6250,4.5269,-4.5897,-2.9225,-1.2955,-1.1683,-4.8018,2.8406,-2.9282,2.9338,5.4496,7.1096,6.0108,0.3426,2.2613,10.4588,8.8242,0.3230,3.0417,0.8096
2144.5312,-7.9362,-7.3397,-4.6786,-1.0548,-2.5189,-10.5995,2.3967,-4.0911,0.3896,-5.3794,1.6264,4.2559,0.2780,1.4329,1.8654,5.6690,-1.2869,3.5419,-0.0265
2148.4375,-20.3077,-9.3022,-5.4360,-0.3083,-2.7092,-16.2340,0.4862,-4.3914,-2.0853,-16.2774,-3.7885,2.2513,0.7316,1.1032,-6.9538,2.3143,-1.7822,3.8131,-0.4404
2152.3438,-27.7250,-9.8473,-4.5821,0.9455,-1.6694,-19.1425,-2.4401,-3.6462,-3.4915,-23.0608,-6.9305,0.9724,1.6788,1.3290,-12.2435,0.1917,-1.0287,4.0926,-0.0885
2156.2500,-28.2275,-9.0367,-2.3294,2.2519,0.0871,-18.2315,-5.5404,-2.2678,-3.5033,-24.0373,-6.9651,0.8019,2.7984,1.7592,-12.3719,-0.1084,0.5172,4.3830,0.9622
2160.1562,-23.2170,-7.4307,0.3578,2.9289,1.7130,-14.2766,-7.8800,-0.9806,-2.5516,-20.3264,-4.6722,1.4544,3.6245,1.9322,-8.3413,1.0741,2.0705,4.4671,2.2413
2164.0625,-16.1035,-5.6465,2.3104,2.5084,2.4651,-9.3183,-8.7342,-0.3677,-1.4400,-14.6814,-1.7633,2.3106,3.8214,1.6524,-2.8284,2.8756,2.9582,4.1276,3.1420
2167.9688,-10.1954,-4.0106,2.8355,1.0989,2.0861,-5.4986,-7.8028,-0.5396,-0.7710,-9.7589,0.2208,2.8804,3.4055,1.1567,1.4790,4.4520,2.9746,3.4013,3.2862
2171.8750,-7.1648,-2.5394,2.0897,-0.6031,0.9108,-4.0434,-5.3014,-1.1234,-0.5797,-6.9299,0.7196,3.0678,2.7529,0.9364,3.1895,5.3144,2.4361,2.6509,2.7503
2175.7812,-6.8253,-1.2031,0.8997,-1.7000,-0.3615,-4.9001,-1.9267,-1.5574,-0.4177,-6.1653,0.2207,3.0926,2.3651,1.3347,2.4960,5.3491,1.9101,2.3637,1.9963
2179.6875,-8.0120,-0.2118,0.1550,-1.6495,-1.0869,-7.0900,1.2963,-1.4831,0.1877,-6.7421,-0.3481,3.1813,2.5336,2.2219,0.5151,4.6546,1.8018,2.7896,1.5470
2183.5938,-9.7165,-0.0532,0.1878,-0.6199,-1.0332,-9.4192,3.2764,-0.9749,1.2390,-8.0611,-0.4205,3.2869,3.1194,3.0078,-1.6996,3.3902,2.0742,3.6689,1.6153
2187.5000,-11.6753,-1.2243,0.5609,0.6072,-0.4602,-11.0788,3.2015,-0.4674,2.1016,-9.9923,-0.2405,3.0454,3.5998,3.0127,-3.7881,1.7292,2.2802,4.2666,1.9323
2191.4062,-14.1644,-3.8465,0.4007,1.1383,0.1088,-11.8475,0.8791,-0.4433,1.8115,-12.6488,-0.6975,1.9860,3.3640,1.9556,-6.0511,-0.1367,1.8823,3.7339,1.8938
2195.3125,-17.3571,-7.4502,-0.9575,0.5438,0.2576,-11.9205,-3.0683,-1.0968,-0.3165,-15.9305,-2.6968,-0.1558,2.0805,0.2102,-8.9193,-2.0275,0.6422,1.5979,0.9350
2199.2188,-20.8248,-11.0965,-3.4540,-0.8778,-0.0629,-11.5935,-7.2995,-2.1992,-4.1603,-19.2632,-6.4840,-3.2267,-0.0874,-1.3711,-12.3631,-3.8458,-1.1703,-1.9155,-1.0950
2203.1250,-23.5521,-13.7698,-6.2625,-2.3233,-0.5556,-11.0397,-10.1952,-3.2496,-8.6870,-21.7272,-11.3352,-6.6576,-2.5401,-1.9768,-15.6376,-5.6018,-2.8844,-5.9271,-3.7871
2207.0312,-24.4298,-14.8080,-8.2435,-3.0331,-0.8476,-10.2780,-10.5215,-3.8034,-12.3755,-22.4672,-15.7909,-9.6617,-4.5327,-1.3660,-17.5134,-7.3221,-3.7844,-9.2963,-6.3345
2210.9375,-22.8950,-14.1399,-8.5943,-2.7844,-0.8021,-9.2822,-8.0286,-3.7538,-13.9540,-21.1289,-18.3090,-11.5172,-5.5248,-0.0511,-16.8782,-8.8869,-3.5021,-11.1390,-7.9044
2214.8438,-19.3535,-12.2473,-7.2871,-1.9961,-0.6373,-8.1179,-3.6576,-3.3790,-13.0527,-18.1141,-18.0055,-11.8161,-5.3994,0.9996,-13.4170,-9.9511,-2.2254,-11.1853,-8.0122
2218.7500,-15.1644,-9.9251,-5.0449,-1.3900,-0.7578,-7.0121,0.8236,-3.1264,-10.4076,-14.5560,-15.1167,-10.5960,-4.4549,0.9644,-8.0282,-10.0762,-0.6099,-9.8090,-6.7115
2222.6562,-12.1659,-7.9811,-2.9063,-1.4642,-1.4199,-6.3116,3.6365,-3.2855,-7.4879,-11.9940,-10.9417,-8.3182,-3.2066,-0.3055,-2.6937,-9.0337,0.5480,-7.7517,-4.5290
2226.5625,-11.8859,-6.9774,-1.6680,-2.1523,-2.4796,-6.3360,3.8665,-3.7753,-5.7309,-11.7796,-7.2616,-5.6948,-2.1267,-2.1738,0.2718,-7.0607,0.7077,-5.7296,-2.2076
2230.4688,-14.7264,-7.0595,-1.5288,-2.8960,-3.4210,-7.1703,1.9135,-4.1929,-5.7903,-14.3660,-5.4838,-3.4103,-1.4572,-3.5956,-0.6473,-4.8348,-0.1505,-4.1408,-0.3930
2234.3750,-19.5165,-7.8970,-2.0985,-3.0603,-3.6656,-8.4994,-0.7582,-4.0926,-7.2081,-18.8094,-5.9275,-1.8455,-1.1692,-3.7555,-5.1968,-3.1188,-1.5180,-3.0030,0.5932
2238.2812,-23.7889,-8.7832,-2.7077,-2.3861,-2.9584,-9.6144,-2.4590,-3.3055,-8.7025,-22.8858,-7.6465,-0.9397,-1.0593,-2.5734,-11.1645,-2.2918,-2.6198,-2.1034,0.8154
2242.1875,-24.8521,-8.9172,-2.8043,-1.1679,-1.5671,-9.6755,-2.2329,-2.0827,-8.9250,-24.0092,-8.9388,-0.2900,-0.9124,-0.7717,-15.2777,-2.1058,-2.8234,-1.2339,0.6132
2246.0938,-21.2523,-7.8059,-2.2192,-0.0490,-0.1540,-8.1652,-0.3734,-0.9617,-7.2675,-20.6459,-8.3214,0.5439,-0.6444,0.5337,-14.8807,-1.8768,-2.0004,-0.3618,0.3812
2250.0000,-13.8271,-5.5917,-1.1967,0.4032,0.5957,-5.2960,1.8107,-0.4448,-4.2543,-13.4466,-5.4421,1.6983,-0.3579,0.4731,-9.5136,-1.0065,-0.6441,0.3513,0.3457
2253.9062,-5.5994,-3.0818,-0.2194,0.0448,0.3458,-2.0724,2.8334,-0.6996,-1.2802,-5.2774,-1.3785,2.8571,-0.2887,-1.0844,-1.4142,0.5295,0.3440,0.6712,0.4450
2257.8125,-0.3485,-1.3852,0.2512,-0.7983,-0.7506,0.1331,1.9542,-1.4793,0.1668,0.1066,1.9032,3.4175,-0.6698,-3.4630,5.4995,2.0889,0.1230,0.4632,0.3814
2261.7188,-0.5459,-1.3105,-0.0095,-1.5883,-2.2072,0.3223,-0.3872,-2.3059,-0.6574,0.1194,2.6525,2.8911,-1.5814,-5.5592,7.6991,2.7566,-1.5965,-0.1964,-0.1778
2265.6250,-5.8744,-2.8805,-0.9065,-1.9438,-3.5266,-1.5027,-2.8825,-2.7866,-3.3483,-5.0946,0.3562,1.2771,-2.8704,-6.4379,3.9987,1.9672,-4.3204,-1.0413,-1.3562
2269.5312,-13.3159,-5.2886,-2.0964,-1.8716,-4.4658,-4.2617,-4.1972,-2.8492,-6.6175,-12.6381,-3.9475,-0.8554,-4.1918,-5.8051,-3.7789,-0.0743,-6.9573,-1.7581,-2.9277
2273.4375,-18.8533,-7.3641,-3.1695,-1.7307,-5.0906,-6.3804,-3.7931,-2.7453,-9.0482,-18.4912,-8.2587,-2.6589,-5.1643,-4.1121,-11.8333,-2.4697,-8.3584,-2.1690,-4.3799
2277.3438,-19.7761,-8.2679,-3.8537,-1.9790,-5.6291,-6.7095,-2.2129,-2.8309,-9.8658,-19.8196,-10.7455,-3.4991,-5.5607,-2.2679,-16.4875,-4.1539,-7.9227,-2.3385,-5.1630
2281.2500,-16.1506,-7.9678,-4.1363,-2.8821,-6.2606,-5.1930,-0.6691,-3.2860,-9.2591,-16.5082,-10.7137,-3.3256,-5.4256,-1.1533,-16.0933,-4.5225,-5.9234,-2.5349,-4.9891
2285.1562,-10.5370,-7.1759,-4.2386,-4.3578,-6.9953,-2.8441,-0.2336,-3.9680,-8.0916,-10.9680,-8.8455,-2.6767,-5.0467,-1.2125,-11.6526,-3.7560,-3.3589,-3.0553,-4.0064
2289.0625,-6.1888,-6.7895,-4.4548,-6.0279,-7.7024,-1.0392,-1.1683,-4.5000,-7.2400,-6.4023,-6.6152,-2.3159,-4.7928,-2.3230,-5.9095,-2.6508,-1.4116,-4.0205,-2.7417
2292.9688,-4.9450,-7.2212,-4.9509,-7.4202,-8.2345,-0.6076,-2.8162,-4.5299,-7.0156,-4.7180,-5.3103,-2.7429,-4.9119,-3.9616,-1.6060,-2.0913,-0.8323,-5.2663,-1.8452
2296.8750,-6.1733,-8.0756,-5.6523,-8.1967,-8.5399,-1.3273,-4.0851,-3.9869,-7.0323,-5.4313,-5.2865,-3.8940,-5.4113,-5.5249,-0.0072,-2.5050,-1.6043,-6.4122,-1.7861
2300.7812,-7.3562,-8.3950,-6.3025,-8.2913,-8.6891,-2.1474,-4.1724,-3.1630,-6.5591,-6.1794,-5.8806,-5.2081,-6.0847,-6.6046,-0.4927,-3.6240,-3.0581,-7.0737,-2.6658
2304.6875,-5.8156,-7.3065,-6.6606,-7.9091,-8.8181,-1.9491,-3.0478,-2.5651,-5.0782,-4.3704,-5.9498,-5.9901,-6.6600,-7.0886,-1.2714,-4.6616,-4.3278,-7.0925,-4.2289
2308.5938,-0.4024,-4.6385,-6.7061,-7.4081,-9.0385,-0.3029,-1.4090,-2.6273,-2.6663,1.1668,-4.6376,-5.8257,-6.9627,-7.0855,-0.6238,-4.7722,-4.8463,-6.6362,-6.0264
2312.5000,7.8641,-1.1092,-6.6994,-7.1258,-9.3671,2.2847,-0.1900,-3.4577,0.0263,9.5209,-1.8923,-4.7996,-6.9913,-6.7719,2.1006,-3.5266,-4.5887,-6.1027,-7.6143
2316.4062,16.4434,2.0239,-7.0323,-7.2294,-9.6965,4.7530,0.0165,-4.7637,2.1391,18.2678,1.5154,-3.4210,-6.8671,-6.2770,6.2090,-1.1574,-3.9616,-5.8839,-8.6850
2320.3125,22.6499,3.6230,-7.9490,-7.6496,-9.8064,6.1881,-0.7528,-5.9951,3.0537,24.7568,4.4113,-2.3403,-6.7123,-5.6588,10.1183,1.5323,-3.4666,-6.1353,-9.1057
2324.2188,24.9077,3.2454,-9.3157,-8.1249,-9.4198,6.3500,-1.9761,-6.6164,2.6737,27.3153,5.7986,-2.0378,-6.5507,-4.9488,12.1973,3.5426,-3.3768,-6.6937,-8.9033
2328.1250,23.3022,1.3299,-10.6038,-8.3375,-8.3120,5.7165,-3.0626,-6.3609,1.4285,25.8329,5.3158,-2.6335,-6.3030,-4.2006,11.5756,4.1504,-3.6163,-7.1845,-8.2414
2332.0312,19.3576,-1.0602,-11.1250,-8.0757,-6.4528,5.0907,-3.7254,-5.3417,0.0625,21.6431,3.3975,-3.8751,-5.8714,-3.5006,8.5938,3.2596,-3.8676,-7.2445,-7.3932
2335.9375,15.3165,-2.7549,-10.3945,-7.3410,-4.1174,5.0916,-4.0726,-3.9783,-0.6568,16.9240,1.1061,-5.2702,-5.2450,-2.9417,4.7191,1.4454,-3.7997,-6.7196,-6.6786
2339.8438,13.2548,-2.9839,-8.4147,-6.3406,-1.8720,5.8527,-4.4046,-2.7915,-0.2088,13.8784,-0.3028,-6.2940,-4.5467,-2.5965,1.9246,-0.3479,-3.2635,-5.7306,-6.3495
2343.7500,14.2756,-1.6610,-5.7136,-5.3714,-0.3877,7.0496,-4.9125,-2.1711,1.4792,13.8869,0.0605,-6.6011,-3.9888,-2.5119,1.7337,-1.3193,-2.3664,-4.5919,-6.4686
2347.6562,17.9906,0.6293,-3.1152,-4.6659,-0.1342,8.1459,-5.5092,-2.2215,3.9400,16.8611,2.2515,-6.1715,-3.7674,-2.7169,4.3542,-1.2552,-1.4190,-3.6588,-6.8632
2351.5625,22.5358,2.8961,-1.3712,-4.2947,-1.1138,8.6640,-5.8976,-2.7414,6.2496,21.1107,5.3541,-5.3271,-3.9624,-3.2127,8.4052,-0.6335,-0.8061,-3.1997,-7.2152
2355.4688,25.2950,4.1461,-0.8534,-4.1786,-2.8018,8.3558,-5.7964,-3.3329,7.3357,23.9854,7.8257,-4.5870,-4.4996,-3.9345,11.5262,-0.2984,-0.8302,-3.3446,-7.2529
2359.3750,24.1870,3.7889,-1.4495,-4.1886,-4.3620,7.2659,-5.1424,-3.5852,6.4579,23.1934,8.2409,-4.4049,-5.1849,-4.7128,11.6644,-0.8836,-1.5728,-4.0913,-6.9247
2363.2812,18.9349,1.8991,-2.6830,-4.2485,-5.0336,5.7307,-4.1313,-3.2525,3.6530,18.1942,6.0897,-4.9152,-5.7835,-5.2838,8.3466,-2.3531,-2.8143,-5.3207,-6.4277
2367.1875,11.5337,-0.7764,-3.9594,-4.3604,-4.4793,4.3156,-3.0903,-2.3557,-0.1227,10.8086,2.1691,-5.8422,-6.1007,-5.3801,3.1180,-3.9768,-4.0677,-6.7923,-6.0557
2371.0938,5.4562,-3.0967,-4.7980,-4.5361,-2.9000,3.6598,-2.2922,-1.1705,-3.3187,4.5024,-1.7187,-6.6454,-6.0345,-4.8658,-1.2259,-4.7839,-4.7498,-8.1439,-5.9655
2375.0000,3.8857,-3.9991,-4.9561,-4.6972,-0.8680,4.2283,-1.8390,-0.1096,-4.4824,2.5946,-3.6562,-6.8308,-5.5918,-3.8353,-2.2251,-4.2047,-4.4479,-8.9460,-6.0294
2378.9062,7.9522,-2.9617,-4.4303,-4.6378,1.0028,6.0649,-1.6674,0.4539,-2.9761,6.3945,-2.6117,-6.2372,-4.8712,-2.5917,0.8104,-2.4606,-3.1511,-8.8289,-5.8922
2382.8125,16.0533,-0.2361,-3.3862,-4.0992,2.3543,8.7012,-1.6350,0.3543,0.6833,14.4143,1.0285,-5.1103,-4.0170,-1.4951,6.4311,-0.4267,-1.2989,-7.6421,-5.2019
2386.7188,24.7062,3.2727,-2.0708,-2.9192,3.2003,11.3156,-1.6026,-0.2740,5.0706,23.1694,5.7048,-3.9154,-3.1553,-0.7583,11.9678,0.9470,0.4215,-5.5517,-3.8569
2390.6250,30.4246,6.4282,-0.7322,-1.1553,3.8435,13.0915,-1.4589,-1.0187,8.5617,29.0758,9.5547,-3.0160,-2.3299,-0.3191,15.1145,1.2533,1.4413,-2.9988,-2.0868
2394.5312,31.4932,8.3858,0.4573,0.9063,4.6740,13.5897,-1.0968,-1.3336,10.1273,30.2894,11.3964,-2.4308,-1.4704,0.1180,15.1474,0.8601,1.6334,-0.5159,-0.3056
2398.4375,28.6604,8.9710,1.4735,2.8685,5.9572,12.9401,-0.3944,-0.7658,9.8014,27.4535,11.2865,-1.8218,-0.4175,0.8795,13.0791,0.6126,1.3898,1.5144,1.1630
2402.3438,24.5166,8.7468,2.4741,4.3892,7.6762,11.7761,0.7555,0.8074,8.6168,23.0978,10.4012,-0.6997,0.9919,2.0749,10.8218,1.2466,1.3944,3.0262,2.2900
2406.2500,22.1121,8.7445,3.7445,5.2942,9.4576,10.9753,2.3708,3.0337,8.0825,20.2519,10.3806,1.3052,2.8171,3.4593,10.0682,2.9409,2.2233,4.2709,3.3277
2410.1562,23.6386,9.9776,5.5374,5.5777,10.6091,11.3339,4.3075,5.1245,9.4781,21.1330,12.5178,4.2707,4.9420,4.5019,11.6238,5.3048,4.0140,5.6500,4.5859
2414.0625,29.6967,12.9368,7.8630,5.3237,10.3084,13.2690,6.2488,6.1096,13.2748,26.4456,17.1631,7.9751,7.0867,4.6393,15.4164,7.7454,6.3937,7.4742,6.1591
2417.9688,39.1732,17.2815,10.3574,4.6308,7.9462,16.5904,7.7914,5.2435,18.8950,35.2903,23.5433,11.9953,8.9075,3.5812,20.8400,9.8819,8.6873,9.7801,7.8018
2421.8750,49.5177,21.8820,12.3507,3.6041,3.5130,20.3998,8.6192,2.3960,24.8861,45.4156,30.0052,15.8154,10.1364,1.4982,26.9599,11.6732,10.2586,12.2979,9.0440
2425.7812,57.3382,25.2461,13.1545,2.4006,-2.1817,23.2306,8.6998,-1.7795,29.4518,53.6996,34.5908,18.9043,10.6897,-1.0175,32.4670,13.2021,10.7776,14.5769,9.4716
2429.6875,59.4161,26.1875,12.4441,1.2575,-7.6693,23.5291,8.3964,-6.0310,31.1744,56.9962,35.7850,20.8004,10.6870,-3.2057,35.7256,14.3593,10.2926,16.1905,8.9824
2433.5938,54.0871,24.4383,10.5100,0.4407,-11.3880,20.4052,8.3904,-9.0078,29.6557,53.3941,33.1979,21.2445,10.3745,-4.4828,35.3044,14.7574,9.1249,16.9130,7.8525
2437.5000,42.4536,20.8650,8.1984,0.1261,-12.4135,14.3142,9.3688,-9.8508,25.7681,43.4618,27.8757,20.3290,9.9934,-4.6983,30.9060,13.9907,7.6973,16.7849,6.5797
2441.4062,28.5350,17.0989,6.5271,0.3042,-10.9383,7.1930,11.5700,-8.5647,21.3174,30.6159,21.9786,18.5429,9.6660,-4.1720,24.0283,12.0390,6.4046,16.0526,5.6183
2445.3125,17.7718,14.7064,6.1724,0.7999,-8.1666,1.7595,14.4203,-5.9598,18.1874,19.9326,17.8325,16.6077,9.3577,-3.4892,17.6005,9.4509,5.5502,15.0322,5.1758
2449.2188,14.3001,14.3324,7.1233,1.4157,-5.6317,0.1800,16.5484,-3.1873,17.3653,15.6413,16.7475,15.1359,8.9306,-3.1584,14.4696,7.0986,5.3121,13.9742,5.1838
2453.1250,18.4830,15.3366,8.7118,2.0950,-4.3236,2.8140,16.3258,-1.1355,18.4042,18.6332,18.2642,14.2996,8.2575,-3.3164,15.5644,5.6413,5.6993,12.9933,5.4202
2457.0312,26.4065,16.1958,10.0042,2.9576,-4.1746,7.8566,12.7762,-0.0444,19.7003,25.6767,20.3608,13.7453,7.3312,-3.6455,19.0536,5.0945,6.5145,12.0785,5.6706
2460.9375,32.0144,15.4727,10.3075,4.1465,-4.2414,12.2459,6.3836,0.4444,19.4898,31.1659,20.6230,12.8469,6.3025,-3.5629,21.3170,4.8548,7.3833,11.1572,5.8097
2464.8438,30.8066,12.7565,9.4843,5.5750,-3.4614,13.4049,-0.7643,0.8654,16.9887,30.5605,17.7372,11.1547,5.4185,-2.5898,19.3081,4.1893,7.8814,10.1616,5.7731
2468.7500,22.7769,8.9508,7.9019,6.7808,-1.4695,10.7785,-5.7801,1.4457,12.9365,23.3622,12.3707,8.7349,4.8836,-0.6966,12.7744,2.8365,7.7188,9.0594,5.4827
2472.6562,12.5436,5.6803,6.0946,7.0528,1.0897,6.1657,-6.4552,1.9018,9.1493,13.5610,6.8232,6.1531,4.7171,1.5818,4.7258,1.2584,6.8721,7.8410,4.8211
2476.5625,6.3900,4.1801,4.3958,5.8176,2.9667,2.5744,-2.6272,1.6561,7.3254,7.0760,3.6083,4.1013,4.6932,3.3487,-0.3500,0.3354,5.5692,6.4866,3.6967
2480.4688,8.0486,4.4059,2.7940,3.0585,3.1396,2.2849,3.4425,0.3072,7.8721,7.7679,3.8485,2.9276,4.4159,3.7759,0.5562,0.7075,4.1242,4.9515,2.1490
2484.3750,16.0058,4.9849,1.0766,-0.5288,1.4886,5.3437,8.0796,-1.9943,9.5452,14.6637,6.5229,2.4054,3.5066,2.5285,6.8183,2.2373,2.7279,3.1881,0.3958
2488.2812,24.1714,4.0763,-0.8863,-3.8036,-1.1517,9.4517,8.1654,-4.5457,10.1717,22.2975,9.0599,1.9017,1.8133,-0.0530,14.3192,3.9849,1.3401,1.1988,-1.2426
2492.1875,25.5251,0.5923,-2.9563,-5.7503,-3.5688,11.3137,2.9658,-6.4750,8.0031,23.9979,8.8883,0.8210,-0.4749,-3.1171,17.8590,4.7214,-0.2349,-0.9145,-2.5067
2496.0938,16.3949,-5.0215,-4.7748,-6.0092,-4.9429,8.5944,-5.3075,-7.2374,2.8250,15.9984,4.9472,-0.9963,-2.8812,-5.7163,14.2700,3.6345,-2.1359,-2.9415,-3.3367
2500.0000,-1.3324,-10.9511,-5.9880,-5.0273,-5.2583,1.2844,-12.6314,-6.8841,-3.8804,-0.2508,-1.7659,-3.1859,-4.8414,-7.2318,4.2472,0.7739,-4.2393,-4.6126,-3.8756
2503.9062,-21.3179,-15.0041,-6.4582,-3.7286,-5.0976,-8.2891,-15.3941,-5.9367,-9.7870,-18.9157,-8.8565,-5.1147,-5.9469,-7.5770,-8.1734,-3.0084,-6.1120,-5.6907,-4.3246
2507.8125,-36.2711,-15.7775,-6.3065,-2.9289,-5.0330,-16.7056,-12.3909,-4.9976,-12.9999,-33.0304,-13.8715,-6.2633,-6.0987,-7.0938,-17.9864,-6.5148,-7.1737,-6.0666,-4.7539
2511.7188,-41.5478,-13.2912,-5.7849,-2.8900,-5.1157,-21.1359,-5.3910,-4.4060,-12.9444,-38.0126,-15.4419,-6.4668,-5.4982,-6.2484,-21.8255,-8.7247,-6.9923,-5.8128,-5.0208
2515.6250,-36.8082,-8.7783,-5.1139,-3.3033,-4.8653,-20.5250,2.0425,-4.1827,-10.3872,-33.4126,-13.6269,-5.8850,-4.4981,-5.3430,-19.2704,-9.0961,-5.5460,-5.1637,-4.8750
2519.5312,-25.2176,-3.8870,-4.4240,-3.6728,-3.7480,-15.7672,6.6975,-4.2462,-6.7239,-22.2626,-9.4775,-4.7962,-3.4140,-4.4189,-12.3684,-7.5855,-3.3021,-4.4237,-4.1844
2523.4375,-11.2340,0.1383,-3.8097,-3.7742,-1.7467,-9.0009,7.4603,-4.6533,-3.1096,-8.9474,-4.3058,-3.4129,-2.4073,-3.3767,-4.0741,-4.5302,-1.0546,-3.8307,-3.1082
2527.3438,1.4177,2.8313,-3.3794,-3.8197,0.4523,-2.5504,5.6181,-5.6017,0.0028,2.8452,0.8239,-1.8519,-1.4893,-2.1868,3.2099,-0.5527,0.4074,-3.4324,-2.0551
2531.2500,10.6188,4.3687,-3.1848,-4.1924,1.8304,1.9476,3.6573,-7.1540,2.7434,11.0675,5.2109,-0.2212,-0.6108,-1.0162,8.2267,3.4859,0.6426,-3.0352,-1.4210
2535.1562,15.6925,5.1966,-3.0554,-4.9701,1.7114,3.9595,3.4787,-8.9229,5.3842,15.1757,8.4278,1.3176,0.2404,-0.1767,10.6580,6.6011,-0.2581,-2.2693,-1.2786
2539.0625,16.9410,5.7519,-2.5185,-5.6475,0.2451,4.0082,5.2526,-10.0475,7.9917,15.6155,10.2926,2.6030,1.0014,0.0607,10.7032,7.9612,-1.7397,-0.7685,-1.2619
2542.9688,15.4140,6.3901,-0.9827,-5.3407,-1.6551,3.2903,7.6008,-9.5987,10.3956,13.5122,10.9620,3.5947,1.5620,-0.3548,8.9150,7.2580,-3.0722,1.5984,-0.7784
2546.8750,12.8139,7.3926,1.8316,-3.3941,-2.8774,3.1038,8.8213,-7.2026,12.3780,10.5474,10.9601,4.4144,1.8238,-1.2082,6.2604,4.9379,-3.7113,4.5567,0.5534
2550.7812,11.1006,8.8781,5.4871,0.0292,-2.7770,4.2517,8.1796,-3.4395,13.8240,8.6188,10.9542,5.2209,1.7417,-2.1304,4.0286,2.0717,-3.5414,7.4251,2.5352
2554.6875,11.6484,10.6189,8.8087,3.8306,-1.4872,6.6470,6.3395,0.3299,14.6800,9.0807,11.3266,5.9911,1.3349,-2.7849,3.3468,-0.1446,-2.8653,9.3318,4.3769
2558.5938,14.4069,11.9653,10.3973,6.4928,0.2978,9.3381,4.7133,2.6791,14.8078,11.9315,11.8599,6.4038,0.6787,-3.0061,4.5291,-0.9973,-2.1577,9.5771,5.1093
2562.5000,17.7900,12.0840,9.4462,6.9376,1.8565,11.0151,4.3188,2.9377,13.9572,15.6334,11.8472,5.9774,-0.1070,-2.8195,6.7853,-0.6003,-1.7405,7.9770,4.1861
2566.4062,19.6030,10.4780,6.3359,5.1741,2.8736,10.7696,5.0456,1.5726,11.9684,17.9305,10.6317,4.4102,-0.8760,-2.3632,8.6402,0.2492,-1.5979,4.9978,1.8784
2570.3125,18.4987,7.4651,2.5531,2.2945,3.4824,8.6633,5.8500,-0.1473,9.0704,17.2668,8.2033,1.8903,-1.4974,-1.7902,8.8611,0.6142,-1.4591,1.5858,-0.8284
2574.2188,14.9409,4.2210,-0.1014,-0.1899,3.9490,5.7236,5.6587,-0.9872,5.9905,13.8471,5.3712,-0.8808,-1.9195,-1.2177,7.2481,0.0094,-1.0871,-1.2406,-2.7981
2578.1250,10.9258,2.2429,-0.5503,-1.2424,4.3084,3.3375,4.2365,-0.5226,3.6929,9.5415,3.3187,-3.0100,-2.2168,-0.7325,4.7046,-1.3268,-0.5568,-2.8318,-3.4097
2582.0312,8.6230,2.5132,0.9548,-0.8435,4.2716,2.4325,2.3542,0.6672,2.8605,6.6542,2.8282,-3.8829,-2.5657,-0.4107,2.5524,-2.6247,-0.2912,-3.1443,-2.8823
2585.9375,8.9215,4.8967,3.0722,0.1442,3.4777,2.9934,1.1740,1.4934,3.4714,6.4221,3.7467,-3.4684,-3.1304,-0.3113,1.6378,-3.0797,-0.7910,-2.6545,-2.0421
2589.8438,10.9369,8.1907,4.2927,0.6510,1.8733,4.2275,1.3776,1.1688,4.7943,8.3059,5.1030,-2.2601,-3.9165,-0.4430,1.9084,-2.3255,-2.2293,-2.0184,-1.7009
2593.7500,12.7873,10.8106,3.9114,0.1283,-0.1077,5.2119,2.7240,-0.2474,5.8302,10.5262,5.7951,-0.9272,-4.7005,-0.7424,2.7152,-0.6141,-4.2139,-1.6957,-2.0901
2597.6562,12.9718,11.6603,2.3820,-1.1567,-1.7365,5.5110,4.3334,-1.9349,5.8986,11.3618,5.3226,0.0529,-5.1207,-1.0982,3.4789,1.3466,-5.9331,-1.7603,-2.7509
2601.5625,11.2806,10.6249,0.8419,-2.4050,-2.4315,5.3113,5.4007,-2.9280,4.9605,10.2126,4.0163,0.5277,-4.9075,-1.4119,4.0877,2.7492,-6.6335,-1.9845,-2.9497
2605.4688,8.6277,8.4157,0.1974,-2.8861,-2.1291,5.0402,5.7216,-2.7834,3.4855,7.7157,2.6216,0.5354,-4.1095,-1.6426,4.6892,3.0263,-6.1206,-2.0953,-2.2979
2609.3750,6.1105,5.9676,0.4691,-2.4010,-1.3054,4.8633,5.6186,-1.8146,2.0238,5.0061,1.6191,0.0987,-3.1391,-1.7863,5.1398,2.0411,-4.9173,-1.9955,-1.1034
2613.2812,4.1989,3.8728,0.8783,-1.2996,-0.6270,4.5443,5.3973,-0.7504,0.8547,2.8666,0.8632,-0.8203,-2.5588,-1.7947,4.7371,0.1113,-3.9335,-1.7887,-0.1749
2617.1875,2.7469,2.2404,0.5849,-0.1065,-0.4774,3.8102,4.8759,-0.1155,-0.0208,1.4739,-0.1568,-2.1482,-2.7113,-1.5060,2.6422,-2.0946,-3.8396,-1.6141,-0.2112
2621.0938,1.7094,0.9825,-0.5213,0.9099,-0.6952,2.8855,3.4690,0.1769,-0.5986,0.8247,-1.6680,-3.4958,-3.4347,-0.6701,-1.2461,-3.7599,-4.5699,-1.4509,-1.2233
2625.0000,1.7677,0.1841,-1.6131,1.8777,-0.7048,2.6498,0.8150,0.7033,-0.6229,1.2716,-3.1623,-4.1875,-4.0842,0.9017,-5.7063,-4.2064,-5.3173,-1.0804,-2.4360
2628.9062,4.1147,0.1752,-1.5001,3.0790,0.0518,4.1452,-2.5848,1.9816,0.3321,3.5125,-3.5888,-3.6171,-3.8968,3.1373,-8.5460,-3.1988,-5.0500,-0.2689,-2.7724
2632.8125,9.4162,1.2199,0.4236,4.5476,1.6833,7.7135,-5.3349,3.9246,2.4558,7.9195,-2.1168,-1.7291,-2.4952,5.5971,-7.8380,-1.1254,-3.2188,0.9577,-1.6028
2636.7188,16.7851,3.1008,3.5687,5.8587,3.7081,12.4290,-5.9086,5.7357,5.3043,13.7897,1.1043,0.7536,-0.2037,7.5733,-3.2374,1.1050,-0.1748,2.1729,0.7677
2640.6250,23.7611,5.0068,6.3646,6.3130,5.3011,16.3673,-3.7434,6.3604,7.8098,19.2981,4.8187,2.6125,2.0596,8.3938,3.6148,2.4898,2.9935,2.7055,3.2283
2644.5312,27.5734,5.9044,7.1959,5.4146,5.7738,17.6639,0.1381,5.2038,8.8152,22.4280,7.3543,2.8305,3.2871,7.7844,10.0039,2.5046,5.1048,2.0418,4.5415
2648.4375,26.9209,5.1790,5.4404,3.3040,4.9928,15.6986,3.5249,2.6159,7.8254,22.3159,7.6940,1.2758,2.9901,6.0768,13.8117,1.4839,5.5907,0.2283,4.1246
2652.3438,22.9764,3.0837,1.9049,0.8223,3.4896,11.5806,4.2764,-0.2028,5.4395,19.9919,6.1745,-1.1074,1.5310,4.1101,14.7880,0.5182,4.8080,-2.0149,2.4174
2656.2500,18.7816,0.6457,-1.6269,-0.8756,2.1967,7.5493,1.6508,-1.8440,3.0982,17.8442,4.2977,-2.7772,-0.0427,2.8410,14.5158,0.8490,3.7715,-3.5942,0.6027
2660.1562,17.3508,-0.9254,-3.4281,-0.9353,1.9532,5.6577,-3.1767,-1.4903,2.2527,18.0722,3.7685,-2.4743,-0.5793,2.8553,15.1033,3.0847,3.5049,-3.6147,-0.1250
2664.0625,19.7780,-0.9171,-2.7704,0.7257,3.0375,6.6063,-7.7544,0.6135,3.4895,21.2041,5.4158,0.0447,0.5231,4.0462,17.5718,6.7265,4.4320,-1.8893,0.7351
2667.9688,24.6866,0.5892,-0.2106,3.3639,4.9632,9.4892,-9.7334,3.2869,6.2063,25.7841,8.7326,3.8798,2.9753,5.6481,21.1305,10.3434,6.1746,0.9314,2.7419
2671.8750,29.4067,2.9731,2.8759,5.7861,6.6422,12.5721,-8.0986,5.0414,9.0635,29.5045,12.3136,7.5244,5.7594,6.6204,23.8615,12.3354,7.8371,3.6962,4.8314
2675.7812,32.0047,5.6287,5.1361,6.9199,6.8495,14.5127,-3.5322,4.8315,10.8916,30.9781,14.8397,9.7021,7.6832,6.1774,24.2717,11.8364,8.5567,5.3598,5.9524
2679.6875,32.6640,8.3528,5.9009,6.2610,4.7871,15.1600,2.1804,2.5209,11.4144,30.8221,15.8941,9.9746,7.9927,4.1782,22.5119,9.1981,7.9688,5.4961,5.6080
2683.5938,33.3842,11.2603,5.3266,3.9974,0.4962,15.4216,7.1770,-1.1421,11.2872,31.1859,16.0557,8.7886,6.6999,1.1716,20.3087,5.7544,6.3399,4.4281,4.0077
2687.5000,36.2029,14.3250,4.0596,0.8182,-5.0764,16.3644,10.2731,-4.9555,11.4425,33.9883,16.2578,7.0218,4.4723,-1.9133,19.6285,3.0234,4.3470,2.9314,1.8161
2691.4062,41.2412,16.9692,2.7523,-2.4234,-10.4048,18.2486,11.0916,-7.8233,12.2401,39.1132,16.9213,5.3939,2.1973,-4.2423,21.0626,1.8564,2.6825,1.7273,-0.2731
2695.3125,46.0484,18.1152,1.7580,-5.0025,-13.9732,20.1979,9.7435,-9.1508,13.0584,43.9291,17.5112,4.1337,0.4990,-5.4487,23.1686,2.0539,1.7176,1.0902,-1.8583
2699.2188,46.8292,16.7565,1.1211,-6.4696,-14.8683,20.7270,6.5236,-8.9338,12.6492,44.6204,16.8435,3.0509,-0.5188,-5.7132,23.3292,2.6428,1.3816,0.7847,-2.8938
2703.1250,40.8329,12.6860,0.7429,-6.6732,-13.1110,18.7381,1.9278,-7.5854,10.0271,38.5640,13.9323,1.8606,-1.1944,-5.5467,19.5880,2.5760,1.2755,0.3199,-3.5403
2707.0312,28.3423,6.8464,0.5280,-5.7345,-9.5828,14.2965,-3.1195,-5.6645,5.2772,26.2182,8.7936,0.4695,-1.9900,-5.4380,12.1841,1.3719,0.9319,-0.6813,-3.9623
2710.9375,12.9262,0.9959,0.4068,-4.0249,-5.6056,8.6754,-7.2248,-3.6715,-0.2960,11.2432,2.6529,-0.9777,-3.1461,-5.5914,3.6790,-0.6947,0.0844,-2.2449,-4.2137
2714.8438,-0.2781,-3.1540,0.2820,-2.1249,-2.3953,3.6677,-8.9530,-1.9776,-4.8153,-1.3033,-2.6004,-2.2640,-4.5153,-5.8873,-2.4764,-2.8980,-1.1734,-4.0582,-4.2541
2718.7500,-7.2322,-4.7968,0.0123,-0.7085,-0.6464,0.6301,-7.5802,-0.8512,-6.8729,-7.6237,-5.3845,-3.2880,-5.6499,-6.0497,-4.0138,-4.5771,-2.4135,-5.6766,-4.0374
2722.6562,-7.0140,-4.3478,-0.5135,-0.3315,-0.4055,-0.1464,-3.6591,-0.4837,-6.3078,-7.0872,-5.2383,-4.0947,-6.0714,-5.8704,-1.1993,-5.4826,-3.0780,-6.7597,-3.5823
2726.5625,-2.0295,-3.0431,-1.2676,-1.1829,-1.2190,0.5982,1.0923,-0.9484,-4.2367,-2.2763,-3.0070,-4.7325,-5.5523,-5.3350,3.4084,-5.7515,-2.7735,-7.1924,-2.9797
2730.4688,3.5984,-2.1195,-2.0470,-2.9311,-2.4136,1.6900,4.6253,-2.1069,-2.3449,2.7491,-0.3240,-5.0826,-4.2480,-4.5830,6.5999,-5.6117,-1.5061,-7.0559,-2.3428
2734.3750,6.3934,-2.1273,-2.5636,-4.7844,-3.3503,2.2533,5.6354,-3.5499,-1.9080,4.8169,1.2727,-4.8389,-2.6134,-3.7642,6.4591,-5.1031,0.2850,-6.5201,-1.7471
2738.2812,5.2071,-2.7950,-2.6043,-5.7943,-3.5737,2.1252,4.1862,-4.6679,-3.1515,3.1801,1.0695,-3.6960,-1.1596,-2.9195,3.3615,-4.0540,1.9348,-5.7515,-1.2009
2742.1875,1.3317,-3.4551,-2.1463,-5.2870,-2.8797,1.7485,1.4973,-4.8742,-5.2949,-0.5916,-0.6286,-1.6233,-0.1962,-1.9786,-0.5367,-2.3186,2.8992,-4.8820,-0.6612
2746.0938,-2.7947,-3.6538,-1.3483,-3.2173,-1.3549,1.6864,-0.9114,-3.8922,-7.1665,-4.0772,-2.8644,0.9822,0.2954,-0.8712,-2.8707,-0.0629,3.0372,-4.0124,-0.0883
2750.0000,-5.2798,-3.4759,-0.4403,-0.2489,0.5992,2.1223,-2.0918,-1.9471,-7.9290,-5.7002,-4.6511,3.4056,0.5938,0.3439,-2.5910,2.1595,2.6521,-3.2041,0.4914
2753.9062,-5.7307,-3.3673,0.3898,2.5086,2.3130,2.6824,-1.9838,0.2727,-7.4489,-5.5040,-5.4380,4.9456,1.0236,1.4373,-0.4498,3.6374,2.2643,-2.4495,0.9487
2757.8125,-4.9725,-3.6363,1.0288,3.9966,3.0310,2.6851,-1.0748,1.8990,-6.1396,-4.6074,-5.1777,5.2715,1.7338,2.0939,1.7688,3.8962,2.2691,-1.6580,1.0772
2761.7188,-3.9503,-4.0597,1.3912,3.6957,2.2169,1.6347,0.1913,2.2808,-4.4963,-3.9206,-4.0624,4.5827,2.6020,2.0747,2.6325,2.9906,2.7094,-0.7062,0.6899
2765.6250,-2.7832,-3.9396,1.3694,1.8574,-0.1470,-0.3835,1.7058,1.2850,-2.7260,-3.2100,-2.2280,3.4719,3.3193,1.3518,2.0484,1.4928,3.3085,0.4527,-0.2489
2769.5312,-0.7474,-2.6093,0.8617,-0.6431,-3.4463,-2.6852,3.4650,-0.6624,-0.7560,-1.2873,0.2935,2.5794,3.5903,0.1395,1.1932,0.1852,3.7172,1.6892,-1.5346
2773.4375,2.8097,-0.0341,-0.1250,-2.7520,-6.6218,-4.3772,5.1037,-2.8091,1.4295,2.7957,3.3363,2.2508,3.3116,-1.1931,1.5065,-0.3428,3.7763,2.6945,-2.7578
2777.3438,7.4005,2.9527,-1.3853,-3.7459,-8.6077,-4.9104,5.7257,-4.4448,3.4483,8.4952,6.3188,2.3956,2.6122,-2.2720,3.5221,0.0497,3.5917,3.1073,-3.4833
2781.2500,11.1395,5.0041,-2.5414,-3.5391,-8.8081,-4.4309,4.3376,-5.2014,4.5229,13.5364,8.2525,2.6084,1.7355,-2.8566,6.3887,1.0710,3.3781,2.7076,-3.4944
2785.1562,11.6873,5.0236,-3.2100,-2.6419,-7.3580,-3.6872,0.6538,-5.1403,3.9066,15.0625,8.1759,2.4524,0.8594,-2.9093,8.4063,2.2221,3.2123,1.5590,-2.9546
2789.0625,7.8477,2.8548,-3.2214,-1.8176,-5.0252,-3.5465,-4.3590,-4.6219,1.4676,11.5005,5.7964,1.7219,-0.0105,-2.5828,8.1716,3.0577,2.9124,0.0051,-2.3589
2792.9688,0.6619,-0.5654,-2.7435,-1.6422,-2.8134,-4.4455,-8.7345,-4.0734,-2.0105,3.8398,1.8801,0.5329,-0.9953,-2.1405,5.5050,3.3325,2.1542,-1.4810,-2.2682
2796.8750,-6.9323,-3.7214,-2.2157,-2.2149,-1.4923,-6.1584,-10.5374,-3.7992,-5.1045,-4.6947,-1.9857,-0.7832,-2.1825,-1.8461,1.5116,2.9966,0.7416,-2.5021,-2.9685
2800.7812,-11.8490,-5.3990,-2.1206,-3.1661,-1.3091,-8.0503,-9.0438,-3.9162,-6.5144,-10.5364,-4.2320,-1.8917,-3.4848,-1.8658,-2.2411,2.1116,-1.1880,-2.8817,-4.2717
2804.6875,-12.9390,-5.3898,-2.7316,-3.9348,-2.0121,-9.6372,-5.2561,-4.4013,-5.8624,-12.0761,-4.2745,-2.6322,-4.6394,-2.2254,-4.8288,0.7825,-3.1977,-2.6880,-5.6016
2808.5938,-11.9716,-4.5837,-3.9877,-4.1386,-3.1237,-11.0380,-1.3511,-5.1730,-4.0029,-10.8263,-2.9657,-3.0636,-5.3646,-2.8442,-6.5728,-0.8573,-4.8167,-2.1587,-6.3348
2812.5000,-12.7121,-4.3975,-5.5566,-3.8114,-4.2597,-12.9561,0.6161,-6.1394,-2.5930,-10.5793,-2.1613,-3.3717,-5.5611,-3.6250,-8.7290,-2.6374,-5.8363,-1.5944,-6.1817
2816.4062,-18.5408,-5.8938,-7.0197,-3.3668,-5.2882,-16.1514,-0.0895,-7.1895,-3.1359,-14.9964,-3.5966,-3.7134,-5.3915,-4.5298,-12.4905,-4.3617,-6.4032,-1.2660,-5.3533
2820.3125,-30.0814,-9.1247,-8.0437,-3.3028,-6.2447,-20.7404,-2.5536,-8.1535,-6.0557,-25.1241,-7.7450,-4.0904,-5.1503,-5.5648,-18.0007,-5.8450,-6.8243,-1.3347,-4.3857
2824.2188,-44.3875,-13.0773,-8.4378,-3.8217,-7.0933,-25.8202,-4.9240,-8.7730,-10.3651,-38.4363,-13.3875,-4.3194,-4.9960,-6.6549,-24.0454,-6.9418,-7.2272,-1.7726,-3.7287
2828.1250,-56.2854,-16.2306,-8.1033,-4.6008,-7.5341,-29.7348,-5.6408,-8.7150,-14.1448,-50.0463,-18.1996,-4.1118,-4.7455,-7.4950,-28.6336,-7.5379,-7.3466,-2.3077,-3.3795
2832.0312,-61.1222,-17.3784,-6.9746,-4.8854,-7.0331,-30.8906,-4.3640,-7.6477,-15.5709,-55.3741,-20.0278,-3.2320,-3.9240,-7.5333,-30.0999,-7.5324,-6.6396,-2.4719,-2.8382
2835.9375,-57.2970,-16.2525,-5.0523,-3.9000,-5.1127,-28.6597,-2.0552,-5.3772,-13.9151,-52.6657,-18.1032,-1.6772,-2.0993,-6.1979,-28.0585,-6.8710,-4.6920,-1.8108,-1.4631
2839.8438,-47.1139,-13.6342,-2.5401,-1.3787,-1.7547,-23.8343,-0.2741,-2.0158,-9.9660,-43.9012,-13.4846,0.1971,0.6839,-3.3108,-23.6671,-5.6554,-1.6553,-0.2067,0.9765
2843.7500,-35.5332,-10.9407,0.0228,2.0950,2.3388,-18.3495,-0.2400,1.8943,-5.6550,-33.6470,-8.5049,1.6898,3.6778,0.5581,-19.0844,-4.2591,1.6063,1.8680,3.9140
2847.6562,-27.6294,-9.5463,1.7917,5.1896,5.8479,-14.4215,-2.2504,5.4078,-3.1045,-26.6236,-5.5675,1.9578,5.6352,4.1007,-16.4479,-3.3111,3.8173,3.3939,6.0751
2851.5625,-26.2036,-10.1821,1.8911,6.3966,7.3378,-13.5657,-5.7024,7.4297,-3.6010,-25.4073,-5.9760,0.3864,5.4125,5.7786,-16.8967,-3.4523,3.9160,3.2369,6.0740
2855.4688,-30.7662,-12.6699,-0.1479,4.8189,5.9572,-15.9928,-9.5255,7.1554,-7.0011,-29.4623,-9.3872,-3.0145,2.6615,4.6387,-20.0851,-4.9384,1.6571,0.8039,3.2231
2859.3750,-38.2233,-16.0554,-4.0167,0.7496,1.9697,-20.6414,-12.6533,4.5154,-11.8321,-35.8365,-14.0938,-7.4141,-1.8136,0.9720,-24.3655,-7.3325,-2.1629,-3.4570,-1.9127
2863.2812,-44.6905,-19.0372,-8.5785,-4.3279,-3.2107,-25.7558,-14.2890,0.3601,-16.0042,-40.9452,-17.9073,-11.3542,-6.3063,-3.6494,-27.5399,-9.5625,-6.0175,-8.0790,-7.5909
2867.1875,-47.3986,-20.4966,-12.2500,-8.3900,-7.5733,-29.6749,-13.9845,-3.7909,-17.7773,-42.4069,-19.1737,-13.3404,-8.9934,-7.0907,-27.8663,-10.4254,-8.3547,-11.2145,-11.6259
2871.0938,-45.7906,-19.9251,-13.6850,-9.8673,-9.4191,-31.4521,-11.6861,-6.3856,-16.5284,-40.0318,-17.4655,-12.5854,-8.8513,-7.7811,-24.9076,-9.3054,-8.3311,-11.5844,-12.4356
2875.0000,-41.4288,-17.5921,-12.4263,-8.4414,-8.1623,-31.0706,-7.8096,-6.5598,-12.9761,-35.6034,-13.6893,-9.4929,-6.1859,-5.5901,-19.8255,-6.6569,-6.1927,-9.1911,-9.8376
2878.9062,-36.9132,-14.3892,-9.1643,-5.1802,-4.5868,-29.2338,-3.2358,-4.5441,-8.7684,-31.7000,-9.6003,-5.5427,-2.4576,-1.8958,-14.9066,-3.8704,-3.1056,-5.3364,-5.1464
2882.8125,-34.4044,-11.4035,-5.4235,-1.9161,-0.4031,-26.8923,0.9238,-1.5067,-5.6356,-30.2080,-6.9425,-2.5532,0.5134,1.2340,-12.4387,-2.5066,-0.5347,-1.8959,-0.4943
2886.7188,-34.4734,-9.4027,-2.8055,-0.2159,2.6556,-24.7562,3.7766,1.0949,-4.5243,-31.2749,-6.5886,-1.6889,1.5158,2.2585,-13.4393,-3.3176,0.5011,-0.2613,2.2646
2890.6250,-35.8361,-8.4804,-2.1748,-0.5390,3.6945,-23.0234,5.0618,2.2840,-5.1524,-33.2303,-8.0866,-2.7930,0.5446,1.0291,-16.9369,-5.6843,-0.0926,-0.5878,2.4732
2894.5312,-36.1365,-8.0614,-3.2259,-2.0652,3.0058,-21.4322,5.2158,2.0184,-6.2268,-33.5497,-9.8778,-4.4782,-1.2926,-1.2228,-20.3232,-7.8872,-1.5085,-1.7924,0.9192
2898.4375,-33.4153,-7.2901,-4.6743,-3.2608,1.7478,-19.5866,4.9913,1.0915,-6.2204,-30.4001,-10.1397,-4.9620,-2.4641,-2.7302,-20.7306,-8.1083,-2.5261,-2.2817,-0.6964
2902.3438,-27.4719,-5.6003,-4.9729,-2.8110,1.1965,-17.3450,4.8804,0.5833,-4.2850,-23.9294,-7.8470,-3.1578,-1.8699,-2.2914,-16.7342,-5.5681,-2.1835,-0.9363,-0.7411
2906.2500,-20.2820,-3.1370,-3.1674,-0.3550,2.0412,-15.0209,4.7772,1.2206,-0.7802,-16.4991,-3.4521,0.6522,0.6276,0.0797,-9.3703,-1.0687,-0.2667,2.2501,1.4830
2910.1562,-15.0876,-0.7608,0.5714,3.3759,4.1166,-13.2468,4.1588,3.0130,2.8985,-11.5849,1.2616,4.9808,4.2455,3.3131,-1.7649,3.4239,2.6274,6.2255,5.4445
2914.0625,-14.5710,0.3920,5.0120,7.0196,6.6454,-12.5689,2.6569,5.3165,5.0987,-11.8566,4.1330,8.0245,7.7805,6.0509,2.5155,5.9165,5.4448,9.5207,9.7559
2917.9688,-19.1685,-0.4517,8.4674,9.2959,8.7431,-13.0407,0.5542,7.2116,4.8376,-17.5321,3.8521,8.6979,10.2046,7.4475,1.4632,5.5309,7.2098,11.0306,12.9252
2921.8750,-26.6087,-3.2366,9.5999,9.5394,9.8195,-14.1140,-1.2326,7.9336,2.3265,-26.0413,0.7161,7.1659,11.0110,7.4805,-4.2254,2.9420,7.4362,10.4710,14.0274
2925.7812,-33.0584,-7.0597,8.0058,7.8210,9.6664,-14.9439,-1.7356,7.1468,-1.2007,-33.2940,-3.5626,4.5840,10.2046,6.6676,-11.5629,-0.1301,6.2304,8.3252,12.9626
2929.6875,-35.2338,-10.5928,4.3127,4.7279,8.2990,-14.9308,-0.6725,5.0025,-4.2108,-35.8406,-6.8746,2.2939,8.0882,5.5226,-16.9771,-2.0017,4.1138,5.4409,10.2756
2933.5938,-32.1741,-12.6921,-0.1955,1.0517,5.7962,-14.1267,1.2284,2.0470,-5.6715,-32.6285,-7.8993,1.0547,5.0925,4.2200,-18.2434,-1.9631,1.7481,2.6052,6.7700
2937.5000,-25.5731,-12.8554,-4.1816,-2.4126,2.3294,-13.1953,2.5944,-0.9425,-5.4511,-25.3062,-6.7148,0.7975,1.7691,2.6966,-15.4763,-0.5034,-0.2571,0.3397,3.2013
2941.4062,-18.5164,-11.3228,-6.7661,-4.9473,-1.6555,-12.9154,2.2362,-3.1681,-4.1446,-16.9790,-4.5012,0.9656,-1.1475,1.0207,-10.6775,1.2305,-1.4110,-1.0788,0.1746
2945.3125,-13.5281,-8.8479,-7.7386,-5.9941,-5.3326,-13.5553,-0.1380,-4.0644,-2.5468,-10.3208,-2.6329,1.0812,-2.8173,-0.3696,-6.2843,2.2856,-1.3734,-1.5376,-1.8364
2949.2188,-11.2412,-6.3282,-7.4520,-5.3328,-7.6812,-14.5700,-3.7951,-3.5383,-1.1880,-6.2951,-1.8330,1.0685,-2.6145,-0.8299,-3.7456,2.4574,-0.0591,-1.0956,-2.5165
2953.1250,-10.4913,-4.4975,-6.5360,-3.2809,-7.9455,-14.8716,-7.4611,-2.0608,-0.2251,-4.2067,-1.9391,1.1251,-0.5509,0.0138,-3.0008,2.2201,2.1991,-0.0692,-1.8500
2957.0312,-9.5854,-3.7613,-5.6044,-0.7164,-6.0941,-13.5303,-10.0085,-0.4916,0.3388,-2.8127,-2.3219,1.3358,2.5097,1.8643,-3.0175,2.1857,4.5860,0.9505,-0.2626
2960.9375,-7.6977,-4.1514,-5.0725,1.2205,-2.9333,-10.4421,-10.8634,0.3422,0.3911,-1.5076,-2.5205,1.4309,5.1078,3.7938,-2.8125,2.5637,6.0142,1.2817,1.4279
2964.8438,-5.3658,-5.3449,-5.1008,1.6640,0.2671,-6.5026,-9.9584,0.0985,-0.3141,-0.6742,-2.5595,0.9451,5.8789,4.7657,-2.1538,3.0325,5.6149,0.4987,2.3389
2968.7500,-3.8345,-6.7510,-5.6211,0.4950,2.4331,-3.1461,-7.4708,-0.8913,-1.9025,-1.0525,-2.7492,-0.3410,4.3150,4.2915,-1.5142,3.0741,3.2732,-1.2689,1.9881
2972.6562,-3.8975,-7.7060,-6.3987,-1.5771,3.2040,-1.5345,-3.7182,-1.8604,-4.0854,-2.7878,-3.2310,-2.0675,1.1133,2.7474,-1.4844,2.4514,-0.1539,-3.3195,0.5948
2976.5625,-5.2185,-7.7677,-7.1115,-3.4246,2.9627,-1.9142,0.6565,-2.1457,-6.1327,-5.0432,-3.7361,-3.4104,-2.1601,1.1064,-2.2265,1.4199,-3.1662,-4.7150,-1.0255
2980.4688,-6.6554,-6.9838,-7.4481,-4.1697,2.3733,-3.5394,4.4734,-1.6709,-7.2228,-6.5458,-3.8077,-3.6243,-3.9391,0.2637,-3.4213,0.5016,-4.3902,-4.7936,-1.9557
2984.3750,-7.2689,-5.9420,-7.2172,-3.6892,1.7811,-5.1840,6.1932,-1.0216,-6.9640,-6.6248,-3.3025,-2.6257,-3.5502,0.4290,-4.6734,0.0190,-3.3609,-3.5510,-1.7583
2988.2812,-7.1505,-5.4907,-6.4318,-2.6310,0.9320,-5.8849,4.6230,-1.0360,-5.7083,-5.8604,-2.7058,-1.1517,-1.5819,1.0062,-5.9339,-0.2133,-0.8267,-1.6494,-0.7570
2992.1875,-7.3738,-6.2261,-5.3187,-1.9480,-0.7689,-5.4436,-0.2158,-2.1875,-4.3911,-5.7494,-2.9138,-0.3252,0.4959,1.0266,-7.5014,-0.7636,1.6462,-0.0551,0.1813
2996.0938,-9.0854,-8.0436,-4.2322,-2.2797,-3.6508,-4.4000,-6.7183,-4.2038,-3.9595,-7.5720,-4.5728,-0.9069,1.2178,-0.1898,-9.5619,-2.0955,2.5520,0.4697,0.2217
3000.0000,-12.4354,-10.0671,-3.4984,-3.5983,-7.2914,-3.5493,-12.2651,-6.2115,-4.7514,-11.2853,-7.4550,-2.7645,-0.0367,-2.6022,-11.6657,-4.0896,1.2778,-0.2813,-0.8950
