Time,Fp1,F3,C3,P3,O1,F7,T3,T5,Fz,Fp2,F4,C4,P4,O2,F8,T4,T6,Cz,Pz
0.0000,-5.1299,0.2710,0.4045,-4.5762,-6.7769,6.5425,4.9950,-3.7931,-7.7946,0.3142,5.2574,5.2472,-3.5784,-1.2642,2.5538,6.2253,-5.8378,-1.8654,1.3909
3.9062,-9.7652,1.2016,-0.1000,-2.7237,-8.5481,5.2224,5.2175,-2.6613,-9.8021,-5.7045,1.9440,7.5594,-4.9661,-0.1474,-1.2666,7.3232,-6.6361,-1.1767,-0.0995
7.8125,-15.3140,3.0599,-0.4281,0.3377,-8.9654,2.0562,4.2505,-0.3005,-11.3532,-12.1838,-2.4325,9.2350,-6.0711,1.1978,-4.7061,7.4654,-6.7766,0.2131,-1.5801
11.7188,-19.5621,5.2425,0.2133,5.1361,-7.4049,-2.0301,3.0181,4.1066,-11.5003,-15.5504,-6.0469,9.2682,-6.2031,3.3196,-6.3154,6.7292,-5.7806,3.0266,-2.0486
15.6250,-20.2039,6.8348,1.8983,11.2160,-4.2461,-5.1174,2.3244,10.2110,-9.9073,-13.4130,-7.6094,7.3004,-5.2813,6.3172,-5.7864,5.4400,-3.8492,7.0670,-1.2908
19.5312,-15.9131,7.1941,3.4981,16.8361,-0.6690,-5.2416,1.8558,16.0992,-7.0271,-6.0980,-7.3454,3.8619,-3.9282,9.3843,-4.2416,3.8822,-1.8485,10.9084,-0.2844
23.4375,-7.0848,6.3723,3.1230,19.6998,2.0297,-1.5886,0.1526,19.1025,-3.8044,3.5457,-6.8767,0.1492,-3.0114,11.0942,-3.5171,2.1857,-0.7937,12.6339,-0.6579
27.3438,4.1274,5.0526,-0.6308,18.4227,3.1403,4.7974,-4.2570,17.4768,-1.1171,11.9289,-8.0246,-2.5185,-2.9506,10.3733,-4.8997,0.4554,-1.1476,11.2587,-3.4928
31.2500,14.5436,4.0385,-7.4667,13.7226,2.8175,11.3119,-11.4021,11.8052,0.6693,16.8045,-11.4063,-3.2626,-3.3231,7.4637,-8.2167,-1.0415,-2.4344,7.7812,-8.3445
35.1562,21.1815,3.6833,-15.1738,8.3167,1.8060,15.0345,-19.3376,4.9796,1.7682,18.1989,-15.9017,-1.9624,-3.1116,4.0415,-11.9512,-1.8867,-3.4815,4.8865,-13.3021
39.0625,22.4610,3.6949,-20.7468,5.3647,0.8723,14.2537,-25.1447,0.5554,2.6737,17.6738,-19.4220,0.7621,-1.4528,2.2320,-14.3118,-1.7974,-3.1665,5.2665,-16.1615
42.9688,18.8567,3.4558,-22.1763,6.4259,0.3639,9.3809,-26.8433,0.5079,3.7545,16.6958,-20.4048,3.8194,1.6558,3.1537,-14.4700,-0.9852,-1.1612,9.6409,-15.9147
46.8750,12.6766,2.5872,-19.6724,10.3977,0.1644,2.6890,-24.7819,3.9787,5.0366,15.5180,-18.8869,6.0152,5.2409,6.0925,-13.0514,-0.2496,1.8574,15.9765,-13.4422
50.7812,7.0361,1.2942,-15.4173,14.3076,-0.0088,-2.9838,-21.3739,7.9786,6.2991,13.4476,-16.3381,6.4040,7.9485,9.0150,-11.5275,-0.6273,4.6886,20.6555,-10.8486
54.6875,4.4937,0.2105,-11.9984,15.4763,-0.2582,-5.7876,-19.3060,9.5969,7.3627,10.1427,-14.4221,4.5553,8.9323,10.1015,-10.9974,-2.7658,6.4340,20.9159,-9.9065
58.5938,6.0162,-0.1327,-10.6593,13.4935,-0.3937,-5.7326,-19.5547,8.1174,8.3246,6.6726,-13.7038,0.6779,8.3808,9.1193,-11.3168,-6.4508,7.0549,16.8405,-10.7865
62.5000,10.7875,0.2233,-10.6449,10.5066,-0.1060,-4.3873,-20.7384,5.4694,9.5527,5.2535,-13.3462,-4.4570,7.2882,7.5098,-11.2538,-10.6562,7.2533,11.3818,-12.0517
66.4062,16.9156,0.6465,-10.0766,9.5580,0.7563,-3.6635,-20.2994,4.6835,11.4438,7.7009,-12.0159,-9.8133,6.6491,7.0603,-9.5474,-14.1304,7.7834,8.3050,-11.9198
70.3125,22.5696,0.3772,-7.6180,12.2020,2.0526,-4.5293,-16.5748,7.5367,14.1164,13.7946,-9.2118,-14.5125,6.6993,8.2201,-6.0292,-16.1319,8.7532,9.5042,-9.7820
74.2188,26.8410,-0.8835,-3.5966,17.2288,3.4621,-6.4886,-10.1207,13.1910,17.2487,20.9599,-5.8752,-18.1651,6.7961,9.5051,-1.9102,-16.8004,9.4951,13.6747,-6.7530
78.1250,29.8391,-2.7160,0.2834,21.5050,4.7320,-8.1087,-3.2738,18.8511,20.1676,25.7019,-3.7314,-20.8949,6.0443,8.6341,1.0154,-16.9062,9.1480,17.3544,-4.7857
82.0312,32.0781,-4.2524,2.3573,22.3152,5.8495,-8.1441,1.6400,21.8899,22.1463,25.8523,-3.8717,-23.0108,4.1929,4.6068,1.6557,-17.1721,7.5170,17.5656,-5.0467
85.9375,33.7158,-4.7620,2.3603,19.4070,7.0077,-6.4218,3.9742,21.7499,22.7542,21.9849,-5.7391,-24.5328,2.0976,-0.9628,0.4121,-17.6767,5.5196,14.0662,-6.8651
89.8438,34.2762,-4.1065,1.6225,15.1481,8.4104,-3.8791,4.9782,20.1346,22.0888,16.9287,-7.3780,-24.9317,1.3484,-4.5222,-1.1270,-17.7792,4.7950,9.5030,-8.1370
93.7500,33.0744,-2.7509,1.9624,12.6614,10.0880,-1.8003,6.4707,19.3848,20.7780,13.7178,-6.7962,-23.3361,3.2707,-3.0049,-1.3500,-16.6119,6.6776,7.3600,-6.9020
97.6562,29.9651,-1.3708,4.2175,13.3805,11.8622,-0.8913,9.1483,20.3868,19.7352,13.4847,-3.3826,-19.1419,7.9777,3.7153,0.2406,-13.7673,11.2345,9.2773,-2.8549
101.5625,25.7405,-0.4033,7.6293,15.9243,13.4601,-0.9160,11.9726,21.7255,19.7511,14.8146,1.7184,-12.6357,14.1321,12.2620,2.7574,-9.6751,17.0666,13.7867,2.4125
105.4688,21.7634,0.1150,10.5638,17.1607,14.6559,-1.1370,13.1240,20.7811,21.0888,14.9530,6.5254,-5.1672,19.5944,17.7005,4.6749,-5.4099,22.0494,17.3956,6.6346
109.3750,19.0628,0.3592,11.9165,14.6271,15.3228,-1.1412,11.6646,15.8958,23.2869,11.8881,9.6493,1.3318,22.5429,16.7254,4.9720,-2.0931,24.5308,17.1492,8.5749
113.2812,17.6207,0.4153,11.9880,8.4330,15.3850,-1.3117,8.4585,7.8779,25.3198,5.7613,11.0800,5.2445,22.3630,9.8267,3.7904,-0.3232,24.1888,12.7020,8.8392
117.1875,16.4961,0.1817,12.0877,1.2040,14.7646,-2.4919,5.5569,-0.3623,26.1004,-1.3205,11.7685,6.0469,19.8014,0.8629,2.1668,-0.0045,22.0131,6.3799,9.1607
121.0938,14.7790,-0.4296,13.2344,-3.8326,13.4230,-5.0712,4.5881,-5.7643,25.0996,-6.7511,12.4840,4.4854,16.3807,-5.6328,1.1459,-0.6072,19.5063,1.3154,10.7771
125.0000,12.6316,-1.1978,15.1232,-5.1037,11.4853,-8.2545,5.5562,-7.1390,22.7245,-8.9813,13.0225,2.0660,13.5196,-7.4228,1.0357,-1.5739,17.7248,-0.8040,13.2750
128.9062,11.4775,-1.5288,16.3097,-3.5775,9.3291,-10.2131,7.0846,-5.7326,20.1712,-8.1076,12.4956,0.2126,11.9000,-5.6721,1.3759,-2.5319,16.8177,-0.6409,14.8900
132.8125,12.9870,-0.7668,15.5099,-1.7145,7.5088,-9.1697,7.8629,-3.9928,18.7577,-5.3394,10.4322,-0.3622,11.3726,-3.5193,1.5503,-3.1967,16.2836,-0.2099,14.0395
136.7188,17.4793,1.3083,12.9036,-1.4369,6.5049,-4.7053,7.9707,-3.6090,19.0878,-2.0477,7.6527,0.2661,11.3072,-3.3743,1.4357,-3.1622,15.6074,-0.9559,10.8129
140.6250,22.9775,4.1893,10.2602,-2.7597,6.4402,1.6845,8.8239,-4.3879,20.5733,0.7796,6.0085,1.6361,11.0622,-5.0973,1.4902,-1.8849,14.7024,-2.5465,7.1356
144.5312,25.8543,6.8347,9.6617,-4.0766,6.9609,7.2960,11.7014,-4.7595,21.6725,2.4593,7.0451,3.3834,10.2792,-6.4053,2.2158,1.0019,13.8210,-3.3107,5.3922
148.4375,22.9129,8.2687,11.8069,-3.7085,7.3898,9.7993,16.1255,-3.3494,20.7690,2.3788,10.6292,5.4210,8.9186,-5.0299,3.5102,5.2410,13.0967,-1.8386,6.5724
152.3438,13.6285,8.1874,15.3104,-1.3422,7.0767,8.6545,19.6359,-0.2384,17.1808,0.1702,14.7317,7.7400,7.1446,-0.7787,4.5426,9.7619,12.2010,1.6860,9.4414
156.2500,0.9751,7.1470,17.6530,1.8042,5.7445,5.3951,19.4016,3.1125,11.6562,-3.7025,16.6923,10.0941,5.2123,4.1895,4.3429,13.0265,10.4961,5.5463,11.4548
160.1562,-9.9084,6.1996,17.0987,4.1162,3.6303,2.5898,14.5264,5.1204,6.0132,-7.5820,15.0893,11.9224,3.4207,7.0577,2.6496,13.8093,7.6115,7.8516,10.7384
164.0625,-14.5251,6.2357,14.0562,4.9587,1.3626,2.2068,7.1621,5.3951,2.1227,-9.1492,10.7900,12.6435,2.0828,6.5914,0.2846,11.9567,3.9661,8.0025,7.5816
167.9688,-11.5707,7.4857,10.7665,5.1068,-0.3394,4.4886,1.3432,4.9963,0.8669,-6.7989,6.3401,12.1047,1.4383,4.0971,-1.3303,8.5986,0.7336,7.0259,4.2461
171.8750,-3.6077,9.4859,9.5249,5.9209,-0.9774,8.0385,0.2332,5.4706,1.7203,-0.9370,4.1284,10.7932,1.5079,2.3511,-1.2080,5.5999,-0.8360,6.5510,3.2165
175.7812,4.5546,11.4664,10.8376,8.0536,-0.4681,10.9329,3.8091,7.5360,3.1919,5.9241,4.7115,9.5745,1.9822,3.4001,0.4134,4.5325,-0.3036,7.3585,5.2491
179.6875,8.7051,12.8307,12.9843,10.8418,0.8306,11.9873,8.7904,10.5331,3.8028,10.6086,6.5513,9.0979,2.2634,7.0113,2.1652,5.7853,1.5269,8.7687,8.7344
183.5938,7.4925,13.3923,13.3350,12.8951,2.2513,11.2950,10.9492,13.0502,2.9554,11.3668,7.2950,9.3061,1.7071,10.9629,2.4946,8.3757,3.0145,9.3677,10.8561
187.5000,2.7659,13.2720,10.3745,13.3310,3.0687,9.7855,8.1114,14.1158,1.1643,9.0664,5.5472,9.4542,-0.0189,12.8541,0.7572,10.5921,2.7196,8.3918,9.6375
191.4062,-2.0258,12.6384,4.8364,12.5542,2.8137,8.2977,1.6153,13.9123,-0.4238,6.4903,1.7553,8.6770,-2.6451,11.9256,-2.3682,11.0697,0.3916,6.5272,5.3096
195.3125,-4.1713,11.5612,-0.9048,11.9057,1.5405,6.9552,-4.8277,13.4518,-0.8337,6.1667,-2.3868,6.7179,-5.2699,9.4682,-5.4434,9.6219,-2.7818,5.4098,0.0197
199.2188,-3.2304,10.0896,-4.6326,12.5098,-0.1068,5.2881,-7.9406,13.5950,0.1537,8.3539,-5.4090,4.2706,-6.6729,7.6137,-7.3532,7.3103,-4.8655,6.2594,-3.7965
203.1250,-0.9163,8.4330,-5.8110,14.3443,-1.1399,2.8916,-7.1971,14.3456,1.9625,10.7737,-7.1572,2.6307,-5.8796,7.6105,-8.0677,5.7224,-4.3780,8.8431,-5.0696
207.0312,0.3706,7.0083,-5.6685,16.3373,-0.7401,-0.0065,-4.9448,15.0353,3.6629,10.3835,-8.6627,2.8488,-2.7188,9.0055,-8.5243,5.9300,-1.2257,11.6780,-4.5629
210.9375,-0.7485,6.2433,-5.9082,17.3691,1.2107,-2.5665,-4.3812,15.1493,4.5423,5.8764,-11.0187,4.9529,1.9399,10.2911,-9.7787,7.7907,3.2229,13.2935,-3.9601
214.8438,-3.7714,6.2592,-7.2206,17.2533,3.9283,-3.9106,-7.0610,14.9336,4.4542,-1.0248,-14.3027,7.7968,6.4624,10.3187,-12.1280,10.0197,6.9540,13.4453,-4.4577
218.7500,-6.7002,6.7032,-8.8473,16.8046,6.0619,-3.7498,-11.8566,15.1431,3.8107,-6.5324,-17.4687,9.6724,9.1761,9.2055,-14.8795,10.9591,8.4778,13.2095,-6.0171
222.6562,-7.2613,6.9169,-9.4705,16.9458,6.4477,-2.5452,-16.0427,16.1403,3.3170,-7.3444,-19.2409,9.3029,9.1998,8.0145,-16.8837,9.5415,7.6238,13.8699,-7.7412
226.5625,-4.1452,6.3615,-8.5439,17.7017,4.8466,-1.1069,-17.4789,17.2477,3.6453,-2.8815,-19.1652,6.5685,6.9141,7.6258,-17.3429,5.8580,5.5145,15.5952,-8.8566
230.4688,2.3895,5.0001,-6.8409,18.0689,2.1834,-0.0080,-16.0939,17.1163,5.1839,4.4396,-17.8811,2.4988,3.7672,7.9154,-16.2386,1.0255,3.8105,17.1167,-9.3381
234.3750,10.7256,3.3338,-5.7352,16.9730,0.0893,0.6790,-13.5822,14.9642,7.8998,11.0321,-16.4140,-1.4366,1.4901,8.0201,-14.1075,-3.4883,3.7489,16.7661,-9.6536
238.2812,18.6605,2.0359,-5.8885,14.5073,0.0058,1.1384,-11.7453,11.6452,11.3161,14.6056,-15.1854,-4.2466,1.1743,7.4148,-11.4651,-6.6160,5.5655,14.0261,-9.9812
242.1875,24.3163,1.4349,-6.5631,12.2893,2.4118,1.3421,-10.9692,9.4787,14.6322,15.4027,-13.6849,-5.9397,2.7774,6.7346,-8.4450,-8.0719,8.5794,10.2343,-9.7458
246.0938,26.8220,1.2315,-6.2250,12.4519,6.6503,0.8426,-10.0897,10.7220,17.0116,15.3935,-11.1265,-7.3406,5.3543,7.4579,-4.9678,-8.2280,11.7791,7.7442,-8.0112
250.0000,26.5446,0.6804,-3.9427,15.9601,11.4171,-0.9254,-7.6467,15.7573,17.9666,16.2556,-7.4762,-9.3756,7.8275,10.5987,-1.2274,-7.6922,14.4653,8.1438,-4.4253
253.9062,24.8002,-0.8646,-0.3376,21.6121,15.5220,-4.0674,-3.3538,22.4659,17.6443,17.8729,-3.8420,-12.3371,9.7346,15.5172,2.0391,-6.9404,16.5374,10.9786,0.1645
257.8125,23.1441,-3.4193,2.8118,26.6368,18.3853,-7.8922,1.5078,27.4456,16.7913,18.5492,-1.7478,-15.6016,11.4183,19.9767,3.8543,-6.2147,18.3104,14.0654,4.0874
261.7188,22.5389,-6.2363,4.0440,28.5390,19.9933,-11.1747,5.0790,28.2855,16.3389,16.6542,-1.8324,-17.9501,13.5469,21.5750,3.7020,-5.6353,20.0749,15.1955,6.0241
265.6250,22.8342,-8.1903,3.5162,26.8020,20.4842,-12.8859,6.3957,25.2028,16.8255,12.2306,-3.1143,-18.2429,16.3697,19.4906,2.0494,-5.3125,21.7639,13.8599,6.0322
269.5312,22.9081,-8.4440,2.9610,23.1096,19.8091,-12.8519,6.0608,20.7550,18.0411,7.1680,-3.5819,-16.0284,19.3174,15.1268,0.1897,-5.3104,22.9649,11.5792,5.5185
273.4375,21.4714,-6.9632,4.2391,19.8932,17.7986,-11.8317,5.5530,17.8022,19.1758,3.7853,-1.7569,-11.7678,21.2921,11.0668,-0.5562,-5.5235,23.2377,10.5475,6.0964
277.3438,18.0715,-4.5486,7.6513,18.3463,14.5550,-10.9495,5.8130,17.2691,19.4047,3.0094,2.0087,-6.6305,21.4367,9.1170,0.2950,-5.6628,22.4697,11.6872,8.2206
281.2500,13.6093,-2.3704,11.4564,17.4876,10.7632,-10.9260,6.3681,17.4404,18.5001,3.6684,5.6298,-2.0369,19.7792,8.9829,2.1220,-5.4644,20.9861,13.7193,10.7351
285.1562,9.9216,-1.3100,13.0919,15.0267,7.5398,-11.6963,5.7809,15.3470,17.0066,3.4760,6.8150,0.8192,17.2340,8.6417,3.7318,-4.9914,19.3358,14.0445,11.7620
289.0625,8.6052,-1.5173,11.1887,9.3588,5.8361,-12.6723,3.0481,9.1859,15.8281,0.8843,4.8643,1.3257,14.9491,6.1174,4.2644,-4.7314,17.9368,10.7683,10.2592
292.9688,9.8523,-2.4310,6.7633,1.1108,5.8286,-13.3691,-1.2648,-0.0780,15.5310,-3.7158,1.2928,-0.3622,13.5226,1.2294,3.7516,-5.2908,16.8715,4.2784,6.9940
296.8750,12.1577,-3.2003,2.5886,-6.9841,6.8109,-13.8353,-5.1734,-9.1333,15.9121,-8.3859,-1.2658,-3.3330,12.7142,-4.0924,2.9187,-6.8302,15.9957,-2.8705,4.1160
300.7812,13.2129,-3.2081,1.1962,-11.8106,7.7302,-14.5120,-6.6535,-14.4294,16.1859,-11.2269,-1.0407,-6.1777,11.8656,-7.1828,2.4458,-8.6880,15.2435,-7.6678,3.6218
304.6875,11.4557,-2.3740,3.0627,-11.9048,7.9777,-15.6609,-5.1557,-14.3988,15.6532,-11.8014,1.5755,-7.5070,10.6326,-6.6165,2.3483,-9.6092,14.8169,-8.6362,5.8950
308.5938,7.2107,-1.0901,6.3857,-8.3221,7.7944,-16.8847,-2.0207,-10.2406,14.2991,-11.2374,4.4322,-6.5906,9.3551,-3.2433,2.0029,-8.5712,15.0187,-6.6272,9.4414
312.5000,2.5632,0.1021,8.5761,-3.7979,7.9271,-17.2108,0.5521,-4.8703,12.7988,-11.0274,5.3803,-3.8038,8.6899,0.4734,0.7758,-5.6710,15.7949,-3.9478,11.9951
316.4062,-0.0333,0.8537,8.2356,-0.9294,8.7870,-15.7421,1.1575,-0.9899,11.8786,-11.6504,3.9378,-0.5487,8.7971,2.2295,-1.3229,-2.3487,16.3681,-2.6286,12.1071
320.3125,0.4943,1.1560,6.0605,-0.7240,9.8164,-12.3963,0.1423,0.2908,11.5374,-12.2517,1.5179,1.4442,8.8276,1.3650,-3.5582,-0.6086,15.3844,-3.1932,10.0053
324.2188,2.9514,1.2513,4.0438,-2.4149,9.6695,-8.1481,-0.8665,-0.5078,10.8118,-11.6427,0.0805,1.1237,7.2952,-1.0014,-5.0615,-1.6430,11.6652,-4.7263,7.1644
328.1250,4.5152,1.4163,3.7419,-4.4077,7.1814,-4.5510,-0.4379,-2.1965,8.3833,-9.6833,0.3846,-1.1689,3.2005,-3.1103,-5.5928,-4.8220,5.1551,-5.9277,5.0617
332.0312,2.5330,1.7846,5.0737,-5.4516,2.4209,-2.8547,1.4015,-3.8876,3.6518,-7.7335,1.3348,-3.8020,-2.9259,-3.9247,-5.7975,-7.8863,-2.6262,-6.1327,4.1749
335.9375,-3.6916,2.3025,6.5790,-5.1923,-3.0401,-3.3233,3.1284,-5.2529,-2.5407,-7.6583,0.9776,-4.8154,-8.9769,-3.6438,-6.6956,-8.3794,-9.1112,-5.5148,3.9524
339.8438,-12.2997,2.8040,6.7882,-3.9537,-6.9784,-5.1846,2.9031,-6.1658,-8.1683,-10.1547,-1.7071,-3.1947,-12.4557,-3.1405,-8.8005,-5.4078,-12.0415,-4.5371,3.5975
343.7500,-19.8510,3.1239,5.4508,-2.2400,-7.9706,-7.1656,0.0072,-6.3764,-11.1916,-13.8455,-5.7659,0.3710,-12.1672,-3.0203,-11.6097,-0.4628,-10.8674,-3.3836,2.8439
347.6562,-23.2421,3.1775,3.5742,-0.4998,-6.4013,-8.1857,-4.5869,-5.6805,-10.8631,-16.0288,-8.9129,3.8032,-9.1927,-3.2114,-13.9247,3.3975,-7.2412,-1.9822,2.0172
351.5625,-21.3696,2.9920,2.3243,0.7762,-4.2385,-7.7589,-8.9024,-4.3742,-8.2322,-14.6178,-9.3663,4.8904,-6.3434,-3.3654,-14.7717,3.5564,-4.1645,-0.5161,1.4146
355.4688,-15.5825,2.7062,1.8429,1.0103,-3.6646,-5.9767,-11.3027,-3.3464,-5.4578,-9.7810,-7.3686,2.6995,-6.3574,-3.5177,-14.1810,-0.3202,-4.2204,0.2597,0.7060
359.3750,-8.7786,2.5425,1.0786,-0.1250,-5.5125,-3.2730,-11.4530,-3.4452,-4.3919,-3.9582,-5.1064,-1.7832,-10.0455,-4.2077,-13.1745,-5.9284,-7.9727,-0.5588,-0.9576
363.2812,-3.8156,2.7316,-1.2106,-2.1592,-8.6349,-0.2532,-10.2600,-4.5214,-5.4263,-0.1897,-5.0577,-6.2219,-15.6827,-5.8262,-12.9603,-9.7688,-13.5630,-3.0866,-4.1348
367.1875,-2.1977,3.3785,-5.2001,-3.6621,-10.6793,2.3431,-9.0037,-5.0663,-7.3969,-0.0255,-8.0928,-8.3462,-20.0861,-7.7983,-13.9915,-9.4197,-17.7822,-6.0710,-8.3116
371.0938,-3.6752,4.3246,-9.6534,-2.9056,-9.7270,3.7156,-8.4517,-3.0368,-8.5633,-2.5968,-12.8645,-7.2881,-20.6395,-8.5109,-15.6638,-5.0747,-17.9464,-7.4140,-11.9556
375.0000,-6.7591,5.1156,-12.8566,0.9157,-5.6335,3.2906,-8.6142,2.5347,-7.9124,-5.4901,-16.9634,-3.9906,-16.8865,-6.3146,-16.8983,0.7017,-13.4065,-5.6301,-13.5339
378.9062,-9.6692,5.1646,-14.0484,6.8084,-0.1412,1.1449,-9.1592,10.3715,-5.8387,-6.6393,-18.8624,-0.4827,-10.6663,-0.9369,-17.1115,4.7685,-5.8098,-1.1518,-12.7409
382.8125,-11.1514,4.0793,-14.0789,12.2917,4.2661,-1.7811,-9.9527,17.3267,-3.7602,-5.7102,-19.0468,1.4283,-4.8225,5.8811,-16.7438,5.4352,1.9298,3.6785,-10.8988
386.7188,-10.8463,1.9691,-14.6641,14.8992,5.9178,-4.0120,-11.1827,20.2841,-3.0223,-3.9720,-19.4258,1.1623,-1.4704,11.2224,-16.8892,3.3021,7.2011,6.1395,-10.0939
390.6250,-9.2135,-0.5013,-16.8228,13.8811,4.8438,-4.3676,-13.0098,18.3092,-3.9303,-2.9444,-21.5612,-0.5282,-0.9876,12.8483,-18.3291,0.4306,8.8355,5.1366,-11.6383
394.5312,-7.1834,-2.4184,-19.8311,10.8169,2.4795,-2.7988,-15.1678,13.4237,-5.5840,-3.0804,-25.2253,-2.2877,-2.2390,10.7193,-20.7902,-1.4028,7.2822,2.1249,-15.0421
398.4375,-5.7074,-3.1523,-21.6401,8.5747,0.5480,-0.5969,-16.9768,9.3099,-6.5505,-3.5952,-28.4933,-3.1184,-3.6293,6.9967,-23.0745,-1.9985,3.9807,0.1340,-18.3238
402.3438,-5.3282,-2.7798,-20.4751,9.3023,0.0006,0.2986,-17.8024,8.8052,-5.8150,-3.4615,-29.2754,-2.9144,-4.0980,4.4786,-23.9760,-2.6499,0.5226,1.5439,-19.4320
406.2500,-5.8898,-2.0877,-16.3136,12.9201,0.7173,-1.4767,-17.5425,12.0051,-3.3279,-2.5456,-26.9940,-2.3184,-3.4256,4.6435,-23.2298,-4.8722,-1.8856,6.2840,-17.6777
410.1562,-6.5322,-2.1019,-11.0062,17.2505,1.9994,-5.7659,-16.6670,16.3675,0.1427,-1.7664,-23.0140,-2.1579,-1.8901,6.7835,-21.6892,-9.0254,-2.5588,11.8470,-14.0808
414.0625,-6.0589,-3.4221,-6.9193,19.6778,3.2973,-10.9070,-15.7566,18.7019,3.6062,-2.1008,-19.5110,-2.9437,0.2003,8.8380,-20.5700,-13.9170,-1.2995,15.1216,-10.4345
417.9688,-3.5730,-5.8098,-5.2133,19.0654,4.5535,-14.7445,-14.9706,17.5092,6.3914,-3.3713,-17.7724,-4.7328,2.6349,9.1951,-20.3859,-17.6385,1.5905,14.6317,-7.9196
421.8750,0.9386,-8.3282,-5.1628,16.4729,5.9836,-15.9698,-13.9640,13.9186,8.3045,-4.0368,-17.3654,-7.3001,5.0992,7.9898,-20.4836,-18.9175,5.2978,11.4741,-6.4122
425.7812,6.4544,-9.9595,-5.0363,14.1812,7.6351,-14.8805,-12.3560,10.6081,9.4573,-2.3558,-16.8153,-10.3421,7.0367,6.8916,-19.5941,-17.9233,8.7125,8.2949,-4.9778
429.6875,11.3673,-10.2772,-3.7252,13.8578,9.2115,-13.0615,-10.2977,9.6679,10.0574,1.9671,-15.1154,-13.5129,7.8962,7.6290,-16.9663,-15.9696,10.9564,7.1933,-3.0065
433.5938,14.3187,-9.7016,-1.6905,15.3329,10.3325,-12.2480,-8.5310,11.1214,10.3629,7.1064,-12.6881,-16.3509,7.6393,10.5064,-13.1365,-14.4586,11.9546,8.2326,-0.9143
437.5000,14.9169,-9.1551,-0.4139,16.9057,10.9447,-13.1827,-7.7623,13.1928,10.7370,10.1681,-10.9363,-18.3043,7.0101,14.1207,-9.6600,-13.9561,12.5695,9.6702,0.2377
441.4062,13.8778,-9.3657,-0.8683,16.8416,11.4312,-15.2337,-7.8445,13.9531,11.5830,9.2958,-10.8099,-18.9623,7.1666,16.4485,-7.9821,-14.0783,14.0284,9.5831,-0.1505
445.3125,12.4988,-10.3257,-2.4067,14.7831,12.2483,-16.9587,-7.5548,12.8987,13.0730,5.1776,-11.7233,-18.3462,8.8174,16.3499,-8.3418,-14.1377,16.9262,7.4643,-1.4333
449.2188,11.8261,-11.2973,-3.1312,11.9290,13.3857,-17.1424,-5.3479,11.1660,14.8631,0.6603,-11.8863,-16.9778,11.5139,14.2479,-9.5992,-13.8803,20.5258,4.4840,-2.0563
453.1250,12.0764,-11.3588,-1.5035,9.8978,14.1698,-15.5621,-0.6326,10.2913,16.1224,-1.3563,-9.8575,-15.5791,13.7561,11.5022,-10.1295,-13.6569,22.9917,2.2977,-0.8258
457.0312,12.6758,-10.0886,2.1780,9.2789,13.6736,-13.0154,5.4372,10.6527,16.0021,-0.1547,-5.9849,-14.5837,13.9714,9.1158,-9.0619,-13.9409,22.5429,1.5085,1.9636
460.9375,12.8273,-7.8880,5.7904,9.1036,11.4738,-10.7004,10.4181,10.9651,14.2789,2.2060,-2.3889,-13.8517,11.6997,6.9388,-6.8654,-14.7054,18.7726,1.1412,4.5836
464.8438,12.1486,-5.7134,7.0156,7.6679,8.1426,-9.4539,12.1086,9.2787,11.6671,2.4590,-1.3394,-12.8593,8.0649,4.0395,-4.8343,-15.2813,13.1447,-0.4389,5.1960
468.7500,10.9111,-4.4182,5.3119,4.0082,5.0229,-9.3530,10.0889,4.6518,9.4721,-1.3235,-3.2922,-11.2435,5.0969,-0.1472,-3.9396,-14.8504,8.2086,-3.9849,3.4178
472.6562,9.7448,-4.1808,2.5578,-1.1955,3.3942,-9.8401,6.0971,-1.8956,8.7574,-8.1856,-6.2645,-9.2475,4.3497,-4.9675,-4.0282,-13.1307,6.0117,-8.5578,0.8057
476.5625,9.0881,-4.4145,1.7216,-6.0156,3.6454,-10.1680,2.8912,-7.9399,9.6226,-14.9477,-7.2077,-7.6451,5.8376,-8.7952,-4.0374,-10.6227,6.8268,-12.1535,-0.2420
480.4688,8.8355,-4.2045,4.5286,-8.6287,5.0914,-9.8206,2.3953,-11.2790,11.1595,-18.5376,-4.3912,-7.1381,8.0962,-10.1987,-3.0135,-8.1773,9.1179,-13.2357,1.6321
484.3750,8.4455,-2.9485,9.9845,-8.5261,6.5653,-8.7004,4.4909,-11.3384,12.1478,-18.1573,1.1108,-7.6937,9.3144,-9.0336,-1.0289,-6.2726,10.7575,-11.8773,5.5817
488.2812,7.3871,-0.7621,14.9914,-6.6677,7.2971,-7.0884,7.3237,-9.3048,11.9543,-15.6197,6.1038,-8.4075,8.6519,-6.5197,0.8226,-4.6655,10.5659,-9.5725,9.1017
492.1875,5.5381,1.5985,16.6345,-4.5704,7.3675,-5.4897,8.8318,-7.0062,10.9143,-13.6835,7.6786,-8.0924,6.7184,-4.2448,1.3726,-2.7638,9.0045,-7.9328,9.9143
496.0938,3.2103,3.2055,14.3566,-3.1775,7.3877,-4.4413,8.2789,-5.5421,9.8781,-13.8033,5.4653,-6.1956,4.8722,-2.9663,0.4536,-0.3965,7.5249,-7.4221,7.7240
500.0000,0.8013,3.4940,10.3042,-2.4387,7.7242,-4.2916,6.6234,-4.7721,9.2972,-15.1266,1.9152,-3.3144,3.9534,-2.2420,-0.8608,1.7492,7.1432,-7.2077,4.4328
503.9062,-1.6103,2.5399,7.5786,-1.8263,7.9759,-4.9878,5.5217,-3.9425,8.6400,-15.4844,0.3405,-0.8401,3.5186,-1.1685,-1.1226,2.5197,7.4218,-6.1900,2.6234
507.8125,-4.3605,0.9627,7.8033,-1.1680,7.2119,-5.9974,5.8619,-2.7368,6.6921,-13.4669,2.2467,0.0699,2.2317,0.4959,0.2049,1.2922,6.7233,-4.2216,3.5147
511.7188,-7.8752,-0.4325,9.9498,-0.9359,4.8141,-6.5094,7.0546,-1.7214,2.5773,-9.8017,6.0892,-0.5793,-0.8933,1.9070,2.1441,-1.2425,3.5742,-2.3630,6.0303
515.6250,-12.1635,-1.0445,11.3330,-1.6942,1.2188,-5.9021,7.6314,-1.7760,-3.2940,-6.8657,8.4754,-1.5408,-5.4266,1.8668,2.8687,-3.2593,-1.9375,-1.9032,7.7344
519.5312,-16.5339,-0.7084,9.9260,-3.2477,-2.1287,-4.2114,6.5893,-3.0673,-9.1574,-6.7272,6.8773,-1.2215,-9.5536,0.0971,1.1715,-2.9579,-7.8793,-3.0137,6.8748
523.4375,-19.7811,0.3039,6.0878,-4.3813,-3.6789,-2.2222,4.3048,-4.5802,-12.8632,-9.3376,1.7021,1.0947,-11.2622,-2.1366,-2.4433,0.1047,-11.6193,-4.3015,3.8672
527.3438,-20.7544,1.4768,2.3016,-3.5979,-2.8964,-0.9946,2.2215,-4.7460,-13.2200,-12.3699,-3.9357,4.6314,-9.8096,-2.7617,-5.9837,4.5412,-11.6009,-3.7866,0.9945
531.2500,-18.9403,2.3411,1.1454,-0.3477,-0.7143,-1.0680,1.5701,-2.7183,-10.7299,-12.8558,-6.5748,7.6118,-6.3359,-0.5376,-7.4162,7.9555,-8.4394,-0.5710,0.5353
535.1562,-14.7020,2.7292,3.1476,4.2915,1.0782,-1.9144,2.2056,0.7919,-7.1683,-9.3303,-5.0526,8.5113,-3.1260,3.7297,-6.2350,8.5139,-4.5208,4.2193,2.8174
539.0625,-9.0640,2.8664,6.2532,8.1708,1.0984,-2.1423,2.5640,3.9079,-4.3360,-2.8161,-1.3780,7.1254,-2.0525,7.5060,-3.9116,6.1301,-2.3898,8.1136,5.7716
542.9688,-3.2305,3.2179,7.3173,9.5556,-0.6594,-0.4378,0.8143,4.9801,-2.9260,4.0460,0.8060,4.6440,-3.3542,8.2927,-2.8372,2.4060,-3.0998,9.1541,6.3814
546.8750,1.8507,4.1389,4.4297,8.4113,-2.8845,3.3641,-3.7118,3.8770,-2.3263,8.9317,-1.0715,2.6895,-5.6316,5.5278,-4.5582,-0.5929,-5.6882,7.4510,2.9188
550.7812,5.6727,5.5266,-1.7431,6.4411,-3.9954,7.8935,-9.9537,2.1013,-1.4251,11.2602,-6.7343,2.0793,-7.0077,1.1123,-8.6667,-1.7775,-8.0711,5.1271,-3.7580
554.6875,8.1102,6.7385,-8.5678,5.7806,-3.3688,10.9448,-15.8482,1.5903,0.2970,12.0709,-13.4931,2.2814,-6.5291,-1.9263,-13.1864,-1.6174,-8.6067,4.6285,-10.8212
558.5938,9.2611,6.9186,-13.4148,7.3468,-1.8052,10.8755,-19.7208,3.1584,2.2860,12.6445,-18.3908,1.9722,-4.7510,-1.6458,-16.1100,-1.4952,-7.1480,6.7411,-15.4807
562.5000,9.3189,5.5937,-15.3813,10.1513,-0.8733,7.7464,-21.2142,5.8579,3.4018,13.1714,-20.2736,0.2364,-3.1232,1.4352,-16.8489,-2.4216,-4.8750,9.9409,-16.8129
566.4062,8.5026,3.1460,-15.4859,12.1481,-1.6393,3.3497,-21.0746,7.8101,2.9323,12.6330,-20.2076,-2.5623,-2.7318,4.8722,-16.4657,-4.1643,-3.1650,11.6519,-16.0527
570.3125,7.0077,0.7625,-15.3750,11.9586,-3.7569,0.0367,-20.1256,7.8420,1.2751,9.9411,-20.1019,-4.9447,-3.4094,6.3061,-16.5709,-5.4630,-2.4519,10.4208,-15.2631
574.2188,4.9761,-0.2271,-15.7661,10.0862,-5.6179,-0.8641,-18.4363,6.5739,-0.2694,5.2666,-20.8567,-5.4063,-3.8907,5.3399,-17.8468,-5.1218,-1.9567,7.2312,-15.5604
578.1250,2.5426,0.7445,-15.9538,8.6133,-5.4637,0.0867,-15.4639,6.0126,-0.4092,0.3328,-21.6312,-3.6049,-2.8430,3.7801,-19.4322,-3.0858,-0.4294,4.8401,-16.3402
582.0312,-0.0080,2.9563,-14.6929,9.5740,-2.6427,0.9151,-11.0205,7.9153,1.2675,-2.6485,-20.7730,-0.7404,0.0618,4.0630,-19.6616,-0.6510,2.7394,5.6140,-16.0444
585.9375,-2.0621,4.7025,-11.5725,13.2695,1.8927,-0.2834,-6.0993,12.2151,4.1319,-2.5375,-17.4985,1.1559,3.8575,7.1470,-17.5224,0.3445,6.9204,9.5800,-13.7170
589.8438,-2.6794,4.3240,-7.6116,17.8731,6.1897,-3.9285,-2.6431,16.8135,7.1242,-0.0309,-12.8124,0.4932,6.9624,11.5866,-13.6112,-1.2738,10.5956,14.2702,-9.9881
593.7500,-0.9209,1.3270,-4.5440,20.6804,8.5472,-8.6151,-2.2466,18.9942,9.5679,3.0000,-8.8527,-2.9535,8.2688,14.5508,-9.7928,-5.2910,12.3548,16.5232,-6.6642
597.6562,3.5890,-3.1870,-3.4253,20.0777,8.5450,-12.0652,-4.7856,17.4334,11.5134,5.0288,-7.2294,-8.0602,7.8217,13.9938,-7.8392,-10.3242,11.7874,14.8515,-5.2967
601.5625,10.2225,-7.1236,-3.7862,16.7311,7.1897,-12.6503,-8.1766,13.2763,13.3987,5.9825,-7.7759,-13.1811,6.6341,10.2637,-8.1439,-14.7367,9.6655,10.5310,-5.9497
605.4688,17.4179,-8.6702,-4.0664,13.0931,6.1662,-10.3939,-9.6423,9.4309,15.4286,7.0413,-8.7592,-17.1029,5.8696,5.8895,-9.5197,-17.5459,7.3777,6.5891,-7.1856
609.3750,23.3513,-7.3924,-2.9441,11.6136,6.7681,-6.8019,-7.6243,8.5686,17.2937,9.3555,-8.3367,-19.4631,6.0609,3.7311,-10.1840,-18.7368,6.0955,5.5172,-7.2502
613.2812,26.8527,-4.4142,-0.4038,13.0096,9.2092,-3.7583,-2.8841,11.2869,18.4965,12.8084,-6.0023,-20.4826,6.9254,4.9422,-9.0896,-18.9114,6.2491,7.5027,-5.4451
617.1875,27.9559,-1.5779,2.3705,15.8668,12.6635,-2.3602,2.1038,15.7472,18.9514,15.8965,-2.8170,-20.4159,7.8136,8.2928,-6.5409,-18.6725,7.5629,10.4988,-2.5562
621.0938,27.6664,-0.1959,4.1531,17.7942,15.8673,-2.5007,5.0268,18.9859,19.2371,16.8288,-0.3045,-19.2652,8.3368,11.2766,-3.6980,-18.2304,9.4592,11.9620,-0.0391
625.0000,27.0836,-0.2745,4.8336,17.1825,17.8154,-3.3520,5.4134,18.8857,20.1703,14.9139,0.9521,-16.9734,8.6418,12.0286,-1.5165,-17.4366,11.4368,10.7941,1.2819
628.9062,26.5231,-0.7203,5.5182,14.2247,18.1453,-4.2053,4.7906,15.3926,22.0089,11.0725,1.7444,-13.8327,9.1536,10.5189,-0.0914,-16.0861,13.1754,7.9661,1.8583
632.8125,25.3274,-0.3162,7.4529,10.5094,17.1102,-4.9474,5.2187,10.2216,23.9968,7.0641,3.3258,-10.6384,10.0696,8.1740,1.0676,-14.1884,14.4225,5.4485,2.8631
636.7188,22.5409,1.2875,10.7108,7.6342,15.3028,-5.8720,7.4300,5.4511,24.7511,4.0995,6.0016,-8.3554,11.0762,6.3989,2.1879,-12.0269,14.9016,4.4619,4.9585
640.6250,17.9314,3.2945,13.8479,6.0019,13.3645,-7.1347,10.1431,2.1532,23.2959,2.0050,8.5527,-7.5117,11.5449,5.3322,2.7098,-10.0383,14.4070,4.5411,7.5101
644.5312,12.5116,4.3666,14.9410,4.7202,11.7984,-8.4355,11.1652,0.0258,19.9469,-0.3926,9.1211,-7.8040,11.0452,3.8798,1.6840,-8.6369,13.0228,4.1335,8.9997
648.4375,8.0609,3.6289,13.2178,2.5812,10.8805,-9.2324,9.4009,-1.8881,16.2810,-4.0378,6.8828,-8.2555,9.7474,0.9345,-1.1859,-8.0571,11.2417,2.1231,8.3419
652.3438,5.9330,1.3304,9.9069,-0.7644,10.6260,-9.2548,6.0771,-4.1438,14.1136,-8.6490,3.0618,-7.8365,8.3748,-3.3337,-4.8091,-8.2133,9.8167,-1.0898,5.9857
656.2500,6.0494,-1.3010,7.5021,-4.4218,10.8136,-8.7848,4.0651,-6.4008,14.2075,-12.8030,0.2962,-6.1022,7.7268,-7.2795,-7.0802,-8.6053,9.3872,-3.8895,3.7987
660.1562,6.9047,-2.8709,7.9166,-6.9332,11.0999,-8.3922,5.7094,-7.8099,15.7042,-15.0124,0.7222,-3.4044,8.1232,-8.9055,-6.2569,-8.3901,10.1112,-4.8451,3.7180
664.0625,6.6438,-2.7038,10.9606,-7.4176,11.2053,-8.3476,10.8334,-7.8359,16.7368,-14.8778,4.2611,-0.5720,9.1741,-7.4066,-2.3315,-6.7337,11.5413,-3.9713,6.2051
667.9688,4.4146,-1.2058,14.3886,-6.2126,11.0652,-8.2881,16.5468,-6.7529,15.7734,-13.3580,8.5310,1.6543,10.0241,-3.8680,2.7347,-3.3670,12.8217,-2.7327,9.7748
671.8750,0.9331,0.4875,15.5510,-4.5146,10.8252,-7.5266,19.1232,-5.4037,12.6693,-11.9778,10.5475,3.0188,9.8805,-0.5304,6.2184,0.9984,13.0797,-2.7618,12.0448
675.7812,-2.2091,1.2795,13.4013,-3.3640,10.6579,-5.8045,16.6008,-4.4842,8.6415,-11.6755,8.9374,3.7553,8.4526,0.8029,6.4533,4.7969,11.7881,-4.3781,11.5339
679.6875,-3.9534,0.7713,9.3022,-2.8464,10.5279,-3.8062,10.1692,-4.0127,5.2337,-12.2492,4.9446,4.3026,6.0381,-0.0364,3.9089,6.3922,8.9333,-6.2006,8.7995
683.5938,-4.7416,-0.5731,5.9941,-2.1701,10.1051,-2.8562,3.3135,-3.4419,3.1314,-12.7872,1.4375,5.0067,3.2581,-1.6842,0.7171,5.1191,4.9533,-6.2378,5.9953
687.5000,-6.1925,-1.7803,5.5252,-0.5172,8.9266,-3.8848,-0.6105,-2.2849,1.7666,-12.6050,0.7009,6.0048,0.6726,-2.4843,-0.9717,1.8679,0.5267,-3.5924,5.1727
691.4062,-9.6774,-1.9622,7.7444,2.0849,6.7225,-6.4460,-0.5375,-0.6626,-0.0186,-11.8185,2.7450,7.2691,-1.4621,-1.8106,-0.5271,-1.3143,-3.6749,0.6347,6.6550
695.3125,-14.9317,-0.7958,10.5023,4.6365,3.6720,-8.6802,1.9607,0.7399,-2.8534,-11.0818,5.4279,8.6579,-3.1873,-0.4093,0.8881,-2.4673,-7.1738,4.0309,8.7683
699.2188,-19.9002,1.3322,11.3556,5.9112,0.3938,-8.4549,4.2397,1.2918,-6.2213,-10.8205,6.2277,9.8907,-4.6657,0.4352,1.4385,-1.0044,-9.7596,4.6483,9.1491
703.1250,-22.0846,3.5350,9.4087,5.4614,-2.3359,-4.9559,4.6877,1.0655,-8.8541,-10.7538,4.2066,10.5274,-6.0041,0.1308,0.1608,1.8887,-11.4329,2.4684,6.6021
707.0312,-20.4331,4.8561,5.8641,4.0456,-3.9482,0.4766,3.6911,0.9202,-9.7866,-10.1964,0.6071,10.0963,-7.1854,-0.6688,-2.3279,4.0912,-12.2577,-0.6099,2.0521
710.9375,-16.2830,4.7232,2.9106,3.1122,-4.2873,5.0240,2.8136,1.8910,-9.1649,-8.8494,-2.3276,8.3896,-8.1069,-0.6389,-4.4800,4.0689,-12.2163,-2.2399,-2.1497
714.8438,-12.5168,3.2299,1.8938,3.7482,-3.5519,6.2240,3.0382,4.3556,-8.1149,-7.2636,-3.2733,5.7322,-8.6483,1.0435,-5.2154,1.9836,-11.1813,-1.3744,-4.0085
718.7500,-11.4650,1.1051,2.2426,5.9352,-2.0689,3.6812,3.6505,7.6640,-7.7724,-6.4108,-2.8967,2.9579,-8.7083,3.9547,-4.8604,-0.4397,-9.0590,1.0880,-3.3642
722.6562,-13.1193,-0.6519,1.9742,8.6882,-0.1078,-0.6238,2.7348,10.5590,-8.2897,-6.6484,-3.2318,1.0027,-8.2156,6.7495,-4.8428,-1.2074,-6.0270,3.2183,-1.9370
726.5625,-15.0740,-1.3169,-0.6736,10.9174,2.1250,-3.7170,-1.1481,12.0701,-8.6697,-7.0370,-5.9292,0.3411,-7.1555,8.2600,-6.4241,0.4412,-2.6822,3.7252,-1.9559
730.4688,-14.3304,-0.8689,-5.8079,12.2644,4.3514,-3.7310,-7.5459,12.1667,-7.5952,-5.8124,-10.8451,0.6704,-5.6300,8.4050,-9.5575,3.4475,0.0695,2.9798,-4.4779
734.3750,-9.6591,-0.0121,-11.7590,13.2150,6.1180,-1.1904,-14.1989,11.6557,-4.5960,-1.8518,-16.1155,1.1161,-3.9078,8.1150,-12.8512,5.6927,1.3905,2.5729,-8.6976
738.2812,-2.7331,0.2756,-16.3106,14.4332,6.8789,1.4600,-18.6094,11.4300,-0.5960,4.0012,-19.6086,0.8476,-2.3949,8.3468,-14.6752,5.5212,0.9532,3.8163,-12.7073
742.1875,2.8810,-0.5893,-18.2617,15.9456,6.2650,1.7187,-19.8375,11.7176,2.6370,8.9864,-20.5288,-0.3378,-1.4936,9.0728,-14.4928,2.8795,-0.8406,6.4835,-15.0129
746.0938,4.1860,-2.3617,-18.0939,16.9509,4.3746,-1.1187,-19.0639,11.9786,3.7443,10.1106,-19.8613,-1.9086,-1.4015,9.1915,-13.2967,-0.7551,-3.0295,8.8827,-15.5558
750.0000,0.8955,-4.1047,-17.2957,16.4899,1.8798,-5.4894,-18.4657,11.5422,2.7823,6.3813,-19.3442,-3.0606,-1.9639,7.5214,-12.7761,-3.5499,-4.5576,9.2415,-15.4684
753.9062,-4.2942,-4.8423,-16.9796,14.4396,-0.1562,-8.7834,-19.3267,10.4257,1.2271,-0.1078,-19.8785,-3.3944,-2.6778,4.0770,-13.8839,-4.6576,-4.7381,7.2768,-15.8599
757.8125,-7.4640,-4.2762,-16.9538,11.9468,-0.6823,-9.2844,-20.9305,9.5843,0.9948,-5.2270,-20.7209,-3.2725,-2.8700,0.4946,-15.9730,-4.7081,-3.4339,4.6370,-16.7113
761.7188,-5.9732,-3.0256,-15.9720,10.8216,0.9100,-7.3598,-21.1343,10.2892,3.2248,-5.4224,-20.1178,-3.5613,-1.9687,-0.8956,-17.2071,-5.1311,-0.9013,3.7942,-16.8213
765.6250,0.0491,-2.1741,-12.8921,12.2603,4.5283,-5.0477,-18.1519,13.0712,7.6903,-0.0858,-16.8269,-4.9378,0.2606,1.2524,-15.9261,-6.8959,2.5055,6.2156,-14.8346
769.5312,8.1266,-2.4310,-7.7505,15.8784,9.4033,-4.4403,-12.0948,17.0935,13.1597,8.0339,-11.2506,-7.2878,3.6226,6.1579,-11.8933,-9.6682,6.4947,11.2379,-10.4721
773.4375,15.2508,-3.5347,-1.8701,19.8654,14.3788,-6.1460,-5.0308,20.5443,18.3039,14.6965,-5.2532,-9.6652,7.5740,11.2650,-6.4789,-12.0104,10.7571,16.5288,-4.9228
777.3438,19.6629,-4.3788,3.0532,22.2284,18.3513,-8.9746,0.4713,21.8499,22.4105,16.9756,-0.8340,-10.8623,11.4301,13.9246,-1.6961,-12.4301,14.7964,19.7800,-0.0617
781.2500,21.4175,-3.8096,6.1165,22.2163,20.6864,-10.9879,3.1310,20.8241,25.4474,15.0039,1.2506,-10.1908,14.5977,13.1979,1.1084,-10.4628,17.9289,20.3191,2.8654
785.1562,21.6342,-1.5235,7.6936,20.8279,21.4374,-11.0050,3.6721,18.8453,27.6183,11.4923,1.8248,-7.9271,16.7447,10.4392,1.9178,-7.0111,19.5711,19.4165,4.0260
789.0625,21.3248,1.6113,8.9058,19.9797,21.2545,-9.3785,3.9641,17.8573,28.9387,9.5249,2.4013,-5.1345,17.8512,8.2149,1.6752,-3.7656,19.6396,19.0996,4.6480
792.9688,20.8167,4.0714,10.5907,20.9468,20.9984,-7.5191,5.3730,18.8884,29.2345,10.3476,3.8726,-3.0207,18.1433,8.3700,1.3465,-2.1910,18.7204,20.4452,5.8696
796.8750,20.0614,4.6782,12.6497,23.2685,21.2364,-6.6693,7.6978,21.1898,28.4950,12.7372,5.8868,-2.2850,17.9479,10.6847,1.2643,-2.7872,17.7850,22.6869,7.7796
800.7812,19.2578,3.3663,14.2817,24.9759,21.9000,-6.9738,9.5212,22.6617,27.1449,14.2296,7.3617,-2.8519,17.5346,13.0953,1.2337,-5.0183,17.5793,23.7952,9.4374
804.6875,18.9913,1.1796,14.8291,23.9905,22.3305,-7.5622,9.5899,21.2897,25.8810,13.0777,7.6009,-4.0719,17.0158,13.2622,1.1377,-7.7855,18.1138,22.0276,9.8145
808.5938,19.6598,-0.4724,14.4516,19.6496,21.7254,-7.4755,7.9979,16.5606,25.1548,9.3823,6.9848,-5.1565,16.3472,10.2773,1.3410,-10.0101,18.6653,17.2299,8.8144
812.5000,20.7551,-0.7412,14.0244,13.2238,19.7282,-6.5858,6.1569,9.8480,24.7648,4.6575,6.6298,-5.5333,15.4299,5.2568,2.4335,-10.9883,18.3406,10.9324,7.4725
816.4062,20.8272,0.2036,14.3567,7.0678,16.7708,-5.7253,5.6065,3.5228,23.9796,0.4013,7.3415,-4.9707,14.2566,0.4648,4.5357,-10.4774,16.8174,5.2568,7.1475
820.3125,18.4074,1.4497,15.4336,3.0728,13.9024,-5.9537,6.7152,-0.5301,22.1634,-3.0281,8.8210,-3.5348,13.0084,-2.2826,6.8740,-8.6706,14.7019,1.5438,8.3888
824.2188,13.2630,2.0697,16.3730,1.5705,12.1729,-7.6242,8.4156,-1.9247,19.4045,-6.3316,9.8610,-1.5230,12.0248,-2.7153,8.1520,-6.1580,13.1971,-0.2783,10.4512
828.1250,6.9236,1.7319,16.1706,1.4285,11.9598,-10.0467,9.2139,-1.6751,16.5877,-10.1963,9.3930,0.5711,11.6331,-1.9836,7.5374,-3.7935,13.2818,-1.2378,11.8883
832.0312,1.8965,0.7964,14.6086,1.1328,12.6984,-12.0047,8.6052,-1.2030,14.7804,-14.2940,7.4768,2.1385,11.9168,-1.5661,5.4618,-2.3566,14.9763,-2.3070,11.7388
835.9375,0.0289,-0.0706,12.5325,-0.0585,13.2228,-12.6507,7.6412,-1.2942,14.3807,-17.2969,5.3384,2.6655,12.5664,-2.1639,3.4839,-2.0885,17.2297,-3.7109,10.3065
839.8438,1.2303,-0.3817,11.2155,-1.7523,12.5059,-12.0166,8.0947,-1.7676,14.7145,-17.9172,4.3710,2.0206,12.9346,-3.4044,3.1973,-2.4267,18.5251,-5.0349,8.8697
843.7500,3.5684,-0.0400,11.3108,-2.9948,10.3072,-10.7522,10.8619,-1.9678,14.4455,-16.0468,4.9228,0.6195,12.3142,-4.4319,4.9845,-2.2578,17.7885,-5.8645,8.5601
847.6562,4.7088,0.7990,12.2702,-3.1714,7.2933,-9.3975,14.9385,-1.5279,12.5240,-12.9648,5.9275,-0.7177,10.3136,-4.7372,7.6297,-0.6652,14.9867,-6.2636,9.3673
851.5625,3.6117,1.9843,12.7527,-2.4487,4.5627,-7.8873,17.8958,-0.7108,8.9634,-10.3807,5.7550,-1.1993,7.1153,-4.4866,9.1730,2.2984,11.0409,-6.6339,10.1329
855.4688,1.1744,3.4633,11.7271,-1.4673,2.9152,-5.7458,17.5745,-0.0926,4.8490,-9.0988,3.6262,-0.5245,3.4399,-4.1483,8.4004,5.4329,7.1723,-7.1446,9.5625
859.3750,-0.6666,5.1422,9.3693,-0.6850,2.3620,-2.7770,13.7003,0.0362,1.5709,-8.4511,0.4096,0.9499,0.1977,-3.8820,5.8154,7.0693,4.1652,-7.3672,7.4037
863.2812,-0.6477,6.7047,6.9835,-0.0420,2.1834,0.4173,8.1357,-0.0582,-0.1448,-7.0188,-1.9240,2.4753,-1.9952,-3.3442,3.3014,6.2227,2.0296,-6.5725,4.7631
867.1875,0.6616,7.6342,5.9584,0.7511,1.4468,2.6322,3.5424,0.1258,-0.6926,-4.0730,-1.8292,3.4220,-3.1501,-2.1275,2.6929,3.3969,0.2086,-4.5059,3.2388
871.0938,1.1801,7.4937,6.5803,1.6406,-0.3950,2.8800,1.4857,0.7282,-1.2289,-0.5093,0.5050,3.6580,-3.8739,-0.4049,4.3420,0.3875,-1.9085,-1.9276,3.5529
875.0000,-1.1178,6.2543,7.6830,2.0203,-3.2096,1.1746,1.4489,1.2681,-2.8033,1.5830,3.1444,3.5185,-4.9735,0.9044,6.7926,-0.8675,-4.5602,-0.3095,4.8353
878.9062,-6.5832,4.3845,7.4755,1.2076,-6.3233,-1.3992,1.4918,1.0396,-5.6219,0.4834,3.7742,3.4149,-6.9301,0.7370,7.8257,0.3872,-7.5165,-0.7743,5.2106
882.8125,-13.4408,2.5910,4.9340,-0.7612,-8.9205,-3.4298,-0.0309,-0.1336,-8.9292,-3.6596,1.4106,3.4204,-9.5723,-1.1674,6.0890,3.1825,-10.2747,-3.0789,3.2739
886.7188,-18.8197,1.3944,0.6614,-2.7853,-10.4136,-4.1541,-3.1101,-1.4871,-11.5085,-8.6103,-2.8694,3.1867,-12.1566,-3.7994,2.0773,5.4801,-12.3280,-5.5375,-0.7319
890.6250,-20.4911,0.8645,-3.4990,-3.2814,-10.5989,-3.8806,-6.1803,-1.7215,-12.3879,-11.3810,-6.7667,2.2692,-13.8016,-5.4060,-2.2575,5.5689,-13.3286,-6.0963,-5.0240
894.5312,-18.0925,0.7122,-5.8310,-1.3716,-9.6156,-3.5405,-7.5638,-0.0093,-11.2915,-10.2007,-8.5288,0.5892,-13.9921,-4.7214,-4.9410,3.2032,-13.1284,-3.8289,-7.6418
898.4375,-13.0944,0.6362,-6.0421,2.2640,-7.8394,-3.7795,-7.0427,3.2000,-8.6479,-5.6922,-8.2848,-1.3700,-12.8300,-1.9677,-5.3617,-0.3158,-11.7919,0.3006,-7.9925
902.3438,-7.7165,0.6188,-5.4659,5.6775,-5.7951,-4.3832,-6.2245,6.3170,-5.2942,-0.4044,-7.9198,-2.8291,-10.8909,1.2120,-4.5994,-3.1229,-9.6342,4.0717,-7.3278
906.2500,-3.6664,0.9198,-5.9994,7.0146,-4.0598,-4.5250,-7.3523,7.7084,-2.1284,2.9446,-9.5937,-3.2592,-8.8153,2.9262,-4.5219,-4.0717,-7.2206,5.6292,-7.7354
910.1562,-1.5078,1.7876,-8.5948,5.9612,-3.0847,-3.6006,-11.4800,6.9565,0.1441,3.2369,-14.0493,-2.7762,-6.9408,2.4548,-6.3889,-3.3815,-5.2158,4.8729,-10.4256
914.0625,-0.8486,3.1492,-12.4848,4.1024,-2.9613,-1.8927,-17.4763,5.2662,1.1790,1.5003,-19.9907,-2.0512,-5.2241,0.8122,-9.9990,-2.2461,-4.0804,3.5192,-14.6803
917.9688,-0.9450,4.5560,-15.7420,3.8061,-3.2887,-0.4546,-22.6833,4.6176,1.1070,-0.0670,-24.9675,-1.7817,-3.4735,-0.0240,-13.9271,-1.7978,-3.7876,3.7441,-18.3196
921.8750,-1.1954,5.4348,-16.7262,6.4106,-3.3146,-0.2866,-24.7579,6.2599,0.5257,0.2071,-27.0520,-2.1305,-1.6732,1.3441,-16.5594,-2.2646,-3.7966,6.4369,-19.3313
925.7812,-1.3101,5.4337,-15.2815,11.1126,-2.3539,-1.5206,-23.2946,9.7080,0.2562,2.2994,-26.0429,-2.5906,-0.1167,4.6060,-17.1010,-2.9360,-3.3709,10.4296,-17.3804
929.6875,-1.2979,4.5773,-12.7596,15.4728,-0.2502,-3.3523,-20.0037,13.0643,0.8863,4.6189,-23.3623,-2.4137,0.7769,7.9162,-15.8753,-2.8760,-2.0577,13.3391,-14.0141
933.5938,-1.4616,3.1192,-10.8878,17.2083,2.4558,-4.8226,-17.3475,14.4537,2.3564,5.2160,-20.8474,-1.2948,0.8346,9.2565,-13.8504,-1.7586,0.0233,13.3979,-11.4249
937.5000,-2.3686,1.2437,-10.4129,15.9109,4.8302,-5.7931,-16.7151,13.4636,3.9359,3.1213,-19.4486,0.2248,0.3987,7.9539,-11.8921,-0.1625,2.3340,10.8576,-10.7790
941.4062,-4.6009,-1.1075,-10.6074,13.3463,6.1612,-7.2363,-17.5246,11.4495,4.7216,-1.1101,-18.8088,0.9851,0.2612,5.1980,-10.3302,0.8594,4.4271,7.8556,-11.4349
945.3125,-8.2419,-4.1238,-10.0052,12.0829,6.4624,-10.4973,-17.8666,10.4489,4.3685,-5.9076,-17.9193,-0.0446,1.2613,3.1815,-9.0523,0.5454,6.4162,6.8162,-11.6309
949.2188,-12.4275,-7.8245,-7.7365,13.5100,6.4771,-16.0546,-16.0974,11.5612,3.4894,-9.7328,-16.1833,-3.0173,3.7870,3.5341,-7.8751,-1.0788,8.9872,8.6049,-10.0225
953.1250,-15.4589,-11.8282,-4.3521,16.7913,7.1387,-22.7860,-12.1010,14.0876,3.3215,-11.8705,-13.9607,-6.9984,7.4970,6.2314,-6.7875,-3.2993,12.8576,11.8592,-6.7954
957.0312,-15.6626,-15.3991,-1.4580,19.5646,8.8534,-28.4008,-7.2918,16.1251,4.8086,-12.4854,-12.1816,-10.4654,11.4399,9.7462,-5.8794,-5.2440,18.0369,14.0186,-3.4730
960.9375,-12.5435,-17.7532,-0.4557,19.8150,11.1350,-30.8014,-3.4707,16.1380,7.7704,-12.0916,-11.4313,-12.1865,14.5019,12.2291,-5.1165,-6.3854,23.4637,13.2684,-1.6339
964.8438,-7.3583,-18.4130,-1.4108,17.4301,12.8927,-29.3892,-1.5252,14.2340,10.8657,-10.9827,-11.3368,-11.8881,15.9199,12.7540,-4.2584,-6.6699,27.3834,9.9086,-1.6370
968.7500,-2.5031,-17.3849,-2.9637,14.2114,13.2021,-25.3607,-0.9871,12.0963,12.4963,-9.1004,-10.7998,-10.2891,15.5859,11.7016,-3.0432,-6.2994,28.3129,6.1064,-2.4028
972.6562,0.0284,-15.0903,-3.3548,12.3607,12.0156,-20.8120,-0.6752,11.5998,12.0337,-6.3806,-8.8861,-8.5391,14.0082,10.1160,-1.4685,-5.4719,25.9784,4.2313,-2.3803
976.5625,0.0460,-12.1591,-1.7381,12.6700,10.2834,-17.3724,0.2431,13.2085,10.4095,-3.2102,-5.6252,-7.4941,11.9979,8.6898,0.1155,-4.3420,21.5718,5.0447,-0.8427
980.4688,-0.6909,-9.2355,1.2507,13.8598,9.3598,-15.3851,1.7058,15.4403,9.5182,-0.5448,-2.0507,-7.3285,10.2739,7.2608,1.2217,-3.1784,17.1049,7.1062,1.5871
984.3750,0.1794,-6.8584,4.0879,13.5756,10.0794,-14.1426,3.1127,15.8584,10.7911,0.4742,0.5582,-7.6726,9.1834,5.1877,1.5761,-2.4533,14.2558,7.8163,3.5844
988.2812,3.7168,-5.3695,5.5944,10.2366,12.1395,-12.8196,4.1363,12.8477,14.0050,-0.8270,1.6231,-8.0641,8.6455,2.1885,1.2965,-2.6478,13.4627,5.2960,4.3349
992.1875,8.6861,-4.8039,5.7926,4.2830,14.2261,-11.2388,5.1513,6.8278,17.2965,-4.1737,1.6495,-8.3020,8.3078,-1.1560,0.7452,-3.8554,13.8535,-0.2805,4.2319
996.0938,12.3291,-4.8216,5.7283,-2.1119,14.8174,-9.8670,6.8390,0.0074,18.4689,-8.3711,1.7625,-8.4441,7.8126,-3.7078,0.2015,-5.5270,14.0193,-6.8115,4.4569
1000.0000,12.4011,-4.8101,6.4679,-6.5757,13.1348,-9.1789,9.3318,-5.0934,16.6575,-11.8540,2.7894,-8.5315,7.0335,-4.6356,-0.3347,-6.6689,13.0618,-11.6645,5.8288
1003.9062,8.9294,-4.2094,8.1539,-8.0917,9.6153,-9.0855,11.7477,-7.2194,13.0710,-13.4583,4.6218,-8.3626,6.1538,-4.0884,-1.0271,-6.4556,11.1728,-13.2773,7.9591
1007.8125,4.2762,-2.9092,9.9125,-7.4305,5.6105,-9.0154,12.6695,-6.9327,10.1719,-12.9998,6.3315,-7.5718,5.5376,-3.0890,-1.9004,-4.8447,9.3640,-11.8766,9.4896
1011.7188,1.3647,-1.4185,10.6575,-6.2746,2.5325,-8.5700,11.2812,-5.8794,9.8384,-11.3613,6.8993,-5.9687,5.4486,-2.7207,-2.6748,-2.6985,8.5876,-8.9829,9.2426
1015.6250,1.3780,-0.5989,10.0643,-5.8715,1.0224,-8.0831,8.2097,-5.4820,11.8665,-10.0433,5.9523,-3.8219,5.7842,-3.2838,-2.9495,-1.2466,8.9200,-6.2623,7.2936
1019.5312,2.7239,-1.0579,8.8522,-6.3047,0.6717,-8.4473,5.2658,-6.0892,13.9671,-10.3973,3.9529,-1.7853,6.0099,-4.1170,-2.6116,-1.2245,9.4164,-4.6294,5.0071
1023.4375,2.1503,-2.6104,8.1219,-6.8278,0.4381,-10.2338,4.1558,-7.1003,13.3195,-12.9080,1.7603,-0.4649,5.3887,-4.2175,-2.0886,-2.3072,8.7458,-4.1218,3.9499
1027.3438,-2.7488,-4.2501,8.3236,-6.7765,-0.5657,-12.8509,5.1452,-7.7312,8.5740,-16.8848,-0.0151,0.0362,3.4058,-3.1192,-2.1486,-3.2845,6.1427,-4.3784,4.5710
1031.2500,-11.5015,-4.7466,8.7703,-6.1642,-2.4535,-14.5868,6.7946,-7.6489,0.8478,-20.7489,-1.3398,0.1856,0.1359,-1.2863,-3.3292,-2.8931,1.9913,-5.1387,5.7821
1035.1562,-20.7711,-3.5104,8.1616,-5.4801,-4.5166,-13.7108,7.0760,-6.9796,-7.0026,-22.8244,-2.5695,0.5809,-3.7077,0.2967,-5.4441,-0.7355,-2.3750,-6.3409,5.8408
1039.0625,-26.4856,-1.1116,5.7120,-5.0132,-5.7473,-9.8871,5.0361,-5.8752,-12.2857,-22.2582,-4.0035,1.3223,-7.1198,0.9644,-7.6195,2.3685,-5.5112,-7.8844,3.8392
1042.9688,-26.5870,0.9715,1.9337,-4.4614,-5.5608,-4.7616,1.6486,-4.2307,-14.1746,-19.5702,-5.6176,1.7404,-9.3540,0.9098,-8.9148,4.8591,-6.7527,-9.4482,0.5518
1046.8750,-22.4356,1.2617,-1.6299,-3.2728,-4.2314,-1.1177,-0.9211,-1.9251,-14.0218,-16.4714,-7.1925,0.7993,-10.3303,0.9610,-9.0819,5.4185,-6.5634,-10.6410,-2.1075
1050.7812,-17.8880,-0.7528,-3.5623,-1.4030,-2.7621,-1.0818,-1.1342,0.6639,-14.1630,-14.9640,-8.6516,-2.0370,-10.6229,1.7954,-8.8392,3.7864,-6.1427,-11.3442,-2.6282
1054.6875,-16.7275,-4.2683,-3.7074,0.3064,-2.2829,-4.6476,0.4706,2.5073,-16.1671,-16.1774,-10.2235,-6.1221,-11.0321,3.2788,-9.3755,0.8697,-6.6065,-11.8447,-1.2008
1058.5938,-20.2473,-7.6801,-3.3418,0.6354,-3.3676,-9.6257,1.4518,2.5113,-19.8018,-19.6150,-12.2232,-9.7368,-12.0258,4.5102,-11.4038,-1.8911,-8.3086,-12.5204,0.3126
1062.5000,-26.5837,-9.5978,-4.2124,-0.9343,-5.6960,-13.0970,-0.7274,0.4954,-23.3587,-23.3139,-14.6382,-11.0533,-13.4279,4.5484,-14.4889,-3.4293,-10.7141,-13.3014,-0.2423
1066.4062,-32.1013,-9.6605,-7.1852,-3.5079,-8.2568,-13.3388,-6.6024,-2.2987,-24.9509,-24.9036,-16.9408,-9.3525,-14.5533,3.2117,-17.2159,-3.6144,-12.8203,-13.4435,-3.6585
1070.3125,-33.7441,-8.6130,-11.5798,-5.1867,-9.9489,-10.8546,-14.0025,-3.8010,-23.7642,-22.9822,-18.3877,-5.6196,-14.6817,1.2720,-18.1408,-3.1366,-13.7682,-11.9657,-8.7508
1074.2188,-30.7586,-7.6568,-15.7212,-4.4414,-10.2072,-7.8241,-19.4204,-2.5619,-20.4206,-17.9802,-18.6339,-2.0250,-13.5409,-0.1253,-16.8487,-2.8752,-13.2386,-8.5242,-13.2586
1078.1250,-24.8073,-7.5875,-18.2601,-1.4094,-9.2846,-6.4609,-20.5260,1.0032,-16.3751,-11.9469,-18.1545,-0.5813,-11.4955,-0.3379,-14.3201,-3.2496,-11.4680,-4.0189,-15.5450
1082.0312,-18.6637,-8.3325,-19.2015,1.9902,-8.0527,-7.5159,-17.9387,4.6412,-12.9532,-7.3493,-18.0569,-1.8884,-9.3587,0.3232,-12.3022,-4.0127,-9.0181,-0.3130,-15.7547
1085.9375,-14.5216,-9.1528,-19.8217,3.3518,-7.4702,-9.9570,-14.8632,5.7225,-10.7513,-5.6069,-19.3363,-4.8482,-7.9900,0.9260,-12.1233,-4.5795,-6.5474,0.8935,-15.5572
1089.8438,-12.9777,-9.2734,-21.5634,1.5688,-8.0455,-11.9110,-14.7934,3.1462,-9.6719,-6.2826,-22.1078,-7.5413,-7.9292,0.7319,-13.8082,-4.5891,-4.7039,-0.7292,-16.7483
1093.7500,-13.1011,-8.4345,-24.8066,-2.2740,-9.5894,-12.0404,-18.9771,-1.7460,-9.3134,-7.4544,-25.4195,-8.6151,-9.2221,-0.1986,-16.1272,-4.2458,-4.0555,-3.7927,-19.8566
1097.6562,-13.2700,-6.9916,-28.4941,-5.6369,-11.3599,-10.3286,-25.5348,-6.0050,-9.2555,-7.0326,-27.8314,-8.1636,-11.4342,-1.1021,-17.5131,-4.1849,-4.9101,-6.0547,-23.8192
1101.5625,-12.1335,-5.5771,-30.8742,-6.3569,-12.4746,-7.8349,-30.8681,-7.0944,-9.0505,-4.1639,-28.3448,-7.4778,-13.7712,-1.1900,-17.1426,-4.9778,-7.0324,-5.9200,-26.8710
1105.4688,-9.2023,-4.6527,-30.7338,-4.1653,-12.3425,-5.8054,-32.2534,-4.6024,-8.1271,0.2107,-26.9835,-7.9083,-15.2626,-0.2988,-15.3902,-6.6680,-9.4830,-3.4758,-27.8201
1109.3750,-4.9260,-4.2938,-28.1453,-0.7275,-10.8983,-4.9207,-29.6392,-0.3717,-5.9222,4.0188,-24.6014,-9.7484,-15.0284,1.0508,-13.3743,-8.6966,-10.8497,-0.2773,-26.6734
1113.2812,-0.3686,-4.2998,-24.2099,1.7860,-8.5529,-5.1811,-25.3476,3.0048,-2.2767,5.4985,-22.1063,-12.0081,-12.6196,2.2140,-12.0075,-10.2877,-9.9013,1.9431,-24.2280
1117.1875,3.3348,-4.4525,-20.1230,2.4221,-5.9270,-6.3037,-22.0437,4.1197,2.2441,4.4385,-19.7572,-13.2344,-8.2972,3.0751,-11.3165,-11.0125,-6.3248,2.6307,-21.1639
1121.0938,5.5476,-4.6714,-16.3983,2.0855,-3.5210,-8.1132,-20.6697,3.6210,6.5096,2.3582,-17.1120,-12.7106,-3.0345,4.1795,-10.5360,-11.1182,-1.0288,2.7621,-17.5371
1125.0000,6.4984,-4.9691,-12.8584,2.6280,-1.4816,-10.5409,-19.9796,3.4106,9.5012,1.4886,-13.6427,-11.0763,1.8787,6.1903,-8.8513,-11.3691,4.2928,3.9290,-13.1078
1128.9062,7.2096,-5.3156,-9.2664,5.1888,0.4298,-13.3249,-17.9451,4.9145,11.0488,3.2442,-9.4601,-9.8769,5.4798,9.1296,-6.1623,-12.4986,8.1336,6.9006,-8.0933
1132.8125,8.9162,-5.5908,-5.9046,9.1721,2.6460,-15.8263,-13.7552,7.8739,11.9981,7.2390,-5.4847,-10.4020,7.6314,12.0916,-3.2575,-14.6520,10.0499,10.8317,-3.5064
1136.7188,12.2333,-5.6841,-3.4954,12.6850,5.4616,-17.2604,-8.6790,10.6149,13.5649,11.5324,-2.8650,-12.7250,8.9922,13.7479,-1.2750,-17.2144,10.8128,13.7688,-0.6197
1140.6250,16.6020,-5.6297,-2.5165,14.0301,8.7249,-17.2025,-5.0467,11.4973,16.2910,13.9336,-2.1045,-15.6851,10.4208,13.2991,-0.8938,-19.1463,11.7058,14.0630,0.0528
1144.5312,20.4693,-5.6179,-2.5790,12.9882,11.7456,-15.9185,-4.2181,10.2743,19.4193,13.4380,-2.6413,-17.7949,12.2121,11.1172,-1.8822,-19.6004,13.4753,11.5717,-0.6744
1148.4375,22.1858,-5.8429,-2.5373,10.8346,13.5350,-14.1922,-5.2868,8.2073,21.2549,10.7768,-3.2796,-18.3340,13.7566,8.5318,-3.3210,-18.4035,15.7239,7.7013,-1.1607
1152.3438,21.0470,-6.3217,-1.3537,9.1200,13.3150,-12.7738,-5.6875,6.8651,20.3339,7.6918,-3.1616,-17.7691,13.9495,6.8836,-4.2776,-16.0964,17.2226,4.2748,-0.2142
1156.2500,17.7168,-6.8705,0.9830,8.2881,11.0339,-11.9307,-3.2863,6.6663,16.5556,5.4821,-2.4796,-17.2104,12.1062,6.5532,-4.3849,-13.5458,16.9106,2.1437,1.9017
1160.1562,13.6851,-7.2875,3.3308,7.3206,7.5530,-11.4920,1.7411,6.4442,11.3955,3.9178,-2.2981,-17.3921,8.6976,6.7063,-3.9077,-11.4312,14.8014,0.6499,3.6430
1164.0625,10.1571,-7.5859,4.2802,4.7141,4.3086,-11.3024,6.8328,4.4440,6.9893,1.3689,-3.5762,-18.0296,5.2772,5.9420,-3.3290,-9.9643,12.0612,-1.6545,3.4951
1167.9688,7.2534,-8.0401,3.3912,-0.0412,2.5760,-11.5922,8.9215,-0.0639,4.7418,-3.8867,-6.1698,-18.0629,3.5543,3.3449,-2.8745,-8.9851,10.1705,-5.6423,1.3806
1171.8750,4.1880,-8.9479,1.7355,-5.7473,2.7563,-12.8167,6.8271,-5.9182,4.4957,-12.1057,-8.6743,-16.5514,4.2404,-0.8419,-2.3911,-8.2787,9.8149,-10.7124,-1.0437
1175.7812,0.2937,-10.2706,1.2014,-10.1745,4.1624,-15.0398,2.2523,-10.7163,4.8713,-21.4405,-9.3255,-13.4581,6.5359,-5.3758,-1.6436,-7.8067,10.3981,-15.0797,-1.5457
1179.6875,-3.9865,-11.4678,3.0340,-11.6063,5.4911,-17.4469,-1.4419,-12.5023,4.4815,-28.7725,-7.3154,-9.6790,8.6911,-8.8120,-0.7003,-7.6578,10.5960,-17.0100,0.9366
1183.5938,-7.0760,-11.7346,6.7664,-10.0176,5.7094,-18.5860,-1.7402,-11.1571,3.0475,-31.5318,-3.4936,-6.3213,9.2703,-10.3125,0.0025,-7.7940,9.5283,-16.0223,5.3745
1187.5000,-7.3889,-10.5373,10.4521,-6.9714,4.7575,-17.3471,1.2086,-8.3935,1.5291,-29.2900,0.1405,-3.8634,8.1758,-9.9246,0.0231,-7.8700,7.5917,-13.1473,9.3522
1191.4062,-4.7893,-8.0739,12.0771,-4.3801,3.5534,-13.9738,4.8730,-6.3927,1.1814,-24.0372,1.8117,-1.9145,6.6368,-8.2769,-0.6066,-7.3517,6.2171,-10.1119,10.8759
1195.3125,-1.1591,-5.2812,11.0500,-3.1785,3.2547,-10.2027,6.4501,-6.2019,2.3117,-18.9395,1.1697,0.2361,6.1383,-6.0821,-1.2563,-5.8998,6.6598,-8.1615,9.8442
1199.2188,0.5712,-3.3146,8.5685,-2.9570,4.2804,-8.2088,5.0868,-7.1576,3.7692,-16.4038,-0.6038,2.7709,7.1035,-3.8803,-1.1284,-3.7230,8.7454,-7.4423,7.9760
1203.1250,-1.6067,-2.8195,6.5519,-2.7314,5.8220,-9.0033,2.4396,-7.7103,3.6339,-16.7207,-1.8450,4.9550,8.3711,-2.1154,0.0431,-1.5799,10.6147,-7.3226,7.2512
1207.0312,-7.2108,-3.4942,6.0184,-2.0566,6.2643,-11.4929,1.1769,-6.8629,0.6239,-18.1283,-1.7566,5.5839,7.9368,-1.2743,1.6105,-0.3522,9.8085,-7.2245,8.1567
1210.9375,-13.3452,-4.2705,6.2682,-1.4463,4.2952,-13.0383,2.7020,-4.9754,-4.8383,-18.1618,-0.9626,3.9444,4.4610,-1.7697,2.3488,-0.4524,5.0030,-7.1597,9.2293
1214.8438,-16.5145,-4.0122,5.5924,-1.7374,-0.0519,-11.2598,5.9771,-3.2962,-10.7314,-15.3349,-0.8277,0.5158,-1.5705,-3.5645,1.3535,-1.4879,-2.8456,-7.5110,8.3277
1218.7500,-14.9807,-2.2696,2.9471,-3.0252,-5.1875,-5.8302,8.3896,-2.7035,-14.6733,-10.0657,-2.1266,-3.1686,-7.9303,-5.8878,-1.1585,-2.4437,-10.8293,-8.3397,4.6188
1222.6562,-10.0139,0.4162,-0.8255,-4.2172,-8.8116,1.0864,7.9089,-2.8233,-15.4175,-4.3546,-4.2045,-5.4250,-11.9724,-7.4316,-3.8168,-2.2838,-15.7415,-8.9571,-0.3947
1226.5625,-5.1318,2.8549,-3.3538,-3.7271,-9.2967,6.1520,4.7323,-2.3377,-13.5555,-0.5508,-5.3902,-5.4162,-12.2844,-7.0553,-4.9726,-0.5718,-15.9626,-8.2694,-3.7611
1230.4688,-3.8333,3.9561,-2.5275,-0.8071,-6.6988,7.0314,1.0607,-0.2368,-10.9734,-0.0515,-4.3956,-3.5242,-9.5181,-4.5556,-3.9073,2.2908,-12.3287,-5.6833,-3.2937
1234.3750,-7.3723,3.3839,1.6367,3.6181,-2.7188,3.8828,-0.7922,3.0944,-9.5058,-2.6722,-1.5780,-0.8927,-5.8578,-0.9108,-1.4817,5.3308,-7.4619,-1.7874,0.5958
1238.2812,-14.0448,1.7070,6.5902,7.4127,0.3550,-0.8869,-0.3820,5.9594,-9.7641,-6.9035,1.0153,1.4306,-3.5541,2.2567,0.3244,7.5548,-4.0967,1.8665,4.9360
1242.1875,-20.3776,-0.0141,8.7688,8.7317,1.0123,-4.3683,0.4394,6.6247,-10.9110,-10.7460,0.9765,3.0766,-3.5726,3.6691,-0.2696,8.4201,-3.5558,3.8290,6.1732
1246.0938,-23.3220,-0.8952,6.0005,7.4056,-0.6935,-5.0901,-0.9868,4.7667,-11.4305,-12.6121,-2.7063,4.2977,-5.2364,3.1423,-3.5827,7.9827,-5.3034,3.8627,2.6492
1250.0000,-21.9826,-0.7135,-0.9627,5.0841,-3.3935,-3.7720,-5.9254,1.8676,-10.2536,-11.9107,-8.8008,5.4664,-6.9681,1.5680,-8.1840,6.7456,-7.6750,3.1754,-4.2640
1253.9062,-17.8715,0.0665,-8.9403,3.9779,-5.4280,-2.4640,-13.1099,0.1696,-7.4400,-9.1771,-14.5731,6.6470,-7.4754,0.1784,-11.8191,5.3912,-9.1063,3.5183,-11.1946
1257.8125,-13.7323,0.6808,-14.4835,5.1690,-5.9062,-2.8573,-19.5685,0.9829,-4.0316,-5.7798,-17.6049,7.5932,-6.5182,-0.3281,-12.9084,4.5519,-8.9957,5.8046,-15.1519
1261.7188,-11.8493,0.5701,-16.1087,7.8184,-5.1207,-5.0872,-22.7356,3.6949,-1.3113,-3.3058,-17.3579,8.0713,-4.8311,-0.1482,-11.5541,4.6331,-7.7660,9.3299,-15.4690
1265.6250,-12.8896,-0.3249,-15.0034,9.8932,-4.1416,-7.8508,-22.1787,6.2832,-0.0502,-2.8060,-15.3635,8.1015,-3.4370,-0.0076,-9.3559,5.6334,-6.3225,12.2340,-13.9341
1269.5312,-15.7994,-1.6237,-13.7999,9.8244,-3.9784,-9.5852,-19.6454,6.9270,-0.2142,-4.2115,-13.9670,7.8356,-2.9541,-0.4247,-8.2060,7.0021,-5.4256,12.8707,-13.1637
1273.4375,-18.5658,-2.8239,-14.4583,7.7718,-4.9151,-9.6759,-17.5197,5.4317,-1.1843,-6.2815,-14.6259,7.2031,-3.3502,-1.2167,-8.9670,7.7059,-5.3613,11.0318,-14.5709
1277.3438,-19.2718,-3.6354,-16.8830,5.5054,-6.4091,-8.7620,-17.0083,3.3416,-2.2037,-7.2571,-17.0224,5.7492,-4.1502,-1.6175,-10.9782,6.6556,-5.9304,8.0798,-17.4602
1281.2500,-16.9186,-4.1202,-19.2206,5.0248,-7.5109,-8.0243,-17.4804,2.6851,-2.7164,-5.9553,-19.5438,2.9490,-4.7778,-0.8625,-12.6765,3.3886,-6.5662,5.9055,-19.7888
1285.1562,-11.7681,-4.5824,-19.4453,7.0276,-7.4436,-8.1617,-17.3411,4.3783,-2.4666,-2.6327,-20.6080,-1.1897,-4.7430,1.2526,-12.7758,-1.4070,-6.4659,5.5483,-19.8276
1289.0625,-5.1849,-5.3177,-16.9120,10.4162,-5.9772,-8.9244,-15.5542,7.5530,-1.4545,1.0535,-19.7339,-5.7862,-3.6688,4.2546,-11.0827,-6.0028,-4.8129,6.5543,-17.3684
1292.9688,0.9411,-6.4020,-12.7236,13.1726,-3.4508,-9.5167,-12.4949,10.2886,0.1163,3.1151,-17.5921,-9.4386,-1.3461,7.3345,-8.3860,-8.5018,-1.1806,7.5263,-13.6463
1296.8750,5.0225,-7.6481,-8.7880,13.8543,-0.5413,-9.4203,-9.5032,11.1027,1.8732,2.6897,-15.1791,-11.1290,2.0789,9.8114,-5.6295,-8.0271,4.0232,7.3608,-10.2425
1300.7812,6.5366,-8.7363,-6.4511,12.5395,2.0414,-8.8849,-7.6627,9.9972,3.3765,0.8175,-12.9551,-11.0060,5.9409,11.3647,-3.1342,-5.4148,9.4489,6.1438,-7.9775
1304.6875,6.2956,-9.4194,-5.7829,10.5741,3.8115,-8.6944,-6.9401,8.2993,4.3323,-0.1647,-10.6989,-10.3508,9.2001,11.9625,-0.5230,-2.8141,13.3389,5.0049,-6.6369
1308.5938,5.9477,-9.6674,-5.9156,9.4569,4.6748,-9.4806,-6.4017,7.5438,4.8067,1.6651,-8.1030,-10.6383,10.9789,11.7043,2.6466,-2.3222,14.5486,5.1140,-5.5479
1312.5000,6.8838,-9.6661,-5.9322,9.8253,4.9778,-11.2261,-5.2075,8.3752,5.2449,6.1890,-5.4250,-12.3530,11.1873,10.8126,6.1709,-4.5301,13.4059,6.6990,-4.3112
1316.4062,9.2202,-9.6743,-5.4589,11.2832,5.3754,-13.3641,-3.4039,10.3050,6.2033,10.9974,-3.4700,-14.5019,10.7199,9.7537,9.1104,-8.0287,11.6870,8.8996,-2.9962
1320.3125,11.6315,-9.8227,-4.5454,13.0195,6.4935,-15.3053,-1.7751,12.3530,7.9449,12.8878,-2.8324,-15.2776,10.9377,9.2281,10.4740,-10.3145,11.5334,10.5385,-1.7353
1324.2188,12.3051,-9.9689,-3.1576,14.5110,8.5048,-16.8360,-0.9330,13.8536,10.2145,10.1771,-3.0805,-13.4240,12.6976,9.8197,10.1203,-9.5282,13.9492,11.1053,-0.2760
1328.1250,10.4463,-9.6961,-0.9484,15.6495,10.8826,-17.9976,-0.5525,14.6768,12.4185,4.1593,-2.7271,-9.2642,15.6337,11.4415,9.0723,-5.8024,17.9662,11.0907,1.9249
1332.0312,7.2199,-8.4784,2.3785,16.2830,12.5803,-18.6112,0.4628,14.7716,14.1150,-1.4777,-0.1994,-4.5660,18.3013,13.0423,8.8882,-1.2214,21.1917,11.3922,5.0710
1335.9375,5.2753,-5.9553,6.4770,15.7826,12.6361,-18.0156,2.9717,13.6487,15.4288,-3.0302,4.8760,-1.3183,19.1778,12.9936,10.5197,1.6176,21.4669,12.3316,8.4833
1339.8438,6.9996,-2.1984,10.2342,13.2520,10.8668,-15.4405,6.6518,10.5046,17.0083,0.6460,11.1391,-0.3488,17.8230,10.0938,13.5656,1.4149,18.4805,13.1783,10.8074
1343.7500,12.6680,2.1747,12.4302,8.3573,8.1584,-10.8232,10.0354,5.0462,19.4799,7.2101,16.2618,-0.8497,15.3047,4.5649,16.5572,-0.9690,14.1207,12.6407,10.9904
1347.6562,19.8981,6.1393,12.7324,2.0651,6.0665,-5.3517,11.5906,-1.6999,22.7877,12.2966,18.5248,-1.1542,13.5051,-1.7471,18.0954,-3.2184,11.2351,9.9550,9.2806
1351.5625,24.9746,8.6510,12.1359,-3.5084,5.9055,-1.0917,10.9630,-7.4804,25.9677,12.4066,18.0119,-0.1106,13.7764,-6.2795,17.9435,-3.2854,11.6560,5.6547,7.3321
1355.4688,25.2460,9.1349,12.3157,-6.2594,7.9067,0.2463,9.2888,-10.0213,27.6275,7.2332,16.4681,2.0608,15.9499,-7.2788,17.1842,-0.8261,14.9324,1.3456,7.1486
1359.3750,20.9193,7.8294,14.2781,-5.4977,11.0382,-1.4335,8.2665,-8.5651,26.8619,-0.1885,15.9032,4.0989,18.4632,-4.9166,17.2849,2.7102,18.7087,-1.3779,9.5778
1363.2812,14.9177,5.7536,17.3922,-2.4844,13.6443,-4.3395,8.7586,-4.5234,23.9451,-5.5761,17.0290,4.8988,19.5260,-1.1718,18.8133,5.3453,20.4557,-2.0151,13.5440
1367.1875,10.8271,4.2412,19.6983,0.4139,14.4841,-5.8650,10.1355,-0.6011,20.2343,-6.2426,18.7616,4.5401,18.4308,1.4946,20.8596,6.1540,19.2456,-1.3730,16.7096
1371.0938,10.3712,4.2418,19.3870,1.3907,13.4507,-4.3409,10.9474,1.0618,17.2760,-2.7216,19.1723,4.2607,15.9930,1.7606,21.6705,5.9126,16.2436,-0.7644,17.1436
1375.0000,12.2403,5.7784,16.3241,0.4273,11.4747,-0.2050,10.3379,0.3396,15.7149,1.8543,17.1040,5.3844,13.7811,0.2055,20.0219,6.3289,13.5950,-0.8863,14.7307
1378.9062,13.1389,7.9195,12.3426,-0.8889,9.7113,4.3165,8.9221,-0.9853,14.8071,4.0446,13.1396,8.0987,12.7502,-1.3238,16.2348,8.5096,12.6206,-1.3315,11.2060
1382.8125,10.3015,9.3447,9.9445,-0.8211,8.6271,6.8360,8.2840,-0.8350,12.9420,2.3871,9.1515,11.1273,12.3736,-1.2465,12.0036,11.9166,12.7415,-1.1342,8.7636
1386.7188,3.6449,9.1930,10.3534,0.9527,7.6652,6.5577,9.4651,1.3154,8.8495,-1.8445,6.8283,12.6166,10.9850,0.4846,9.1543,14.6633,11.9531,0.1532,8.3296
1390.6250,-4.0053,7.6552,12.4657,2.9569,5.7240,4.8427,11.7711,3.8594,2.6470,-5.7482,6.4051,11.5482,7.0964,2.3365,8.3169,14.9167,8.4452,1.8298,8.8756
1394.5312,-8.7724,5.8825,13.6133,3.0757,2.0737,4.1467,13.0428,4.2759,-4.0408,-6.8120,6.6316,8.5464,0.6868,2.3933,8.5704,12.2933,2.0899,2.4764,8.3300
1398.4375,-8.3325,5.2193,11.6254,0.3540,-2.9756,6.1112,11.3191,1.2206,-9.0161,-4.4131,5.9603,5.4230,-6.5415,-0.1279,8.3227,8.1504,-5.3363,1.1439,5.3596
1402.3438,-3.4348,6.2431,6.5937,-4.0159,-8.1369,10.2406,6.5726,-4.1731,-10.8722,0.0727,3.9128,3.8224,-12.1560,-4.2027,6.6825,4.5655,-11.3205,-1.7000,0.5801
1406.2500,2.6556,8.2764,0.9131,-7.3736,-11.8741,14.1621,1.0218,-8.8679,-9.8572,4.3658,1.4460,4.0491,-14.5156,-7.6742,4.1757,2.8406,-14.2361,-4.3236,-3.7988
1410.1562,6.2932,9.7530,-2.4991,-7.4670,-13.2582,15.2856,-2.3779,-9.9893,-7.6536,6.6629,0.0020,4.9977,-13.7188,-8.7548,2.2148,2.7148,-14.2025,-4.9550,-5.6425
1414.0625,5.6244,9.2381,-2.4503,-4.0870,-12.3742,12.6387,-2.1529,-6.8146,-6.2480,6.4257,0.0690,5.1978,-11.3338,-7.2194,1.7765,2.8639,-12.6341,-3.1314,-4.5623
1417.9688,1.3858,6.4203,-0.4243,0.8201,-10.0740,7.5462,0.5182,-1.1627,-6.6779,4.3066,0.5241,4.0835,-9.1846,-4.4162,2.4203,2.2072,-10.9742,-0.0682,-2.2682
1421.8750,-3.9872,2.3821,0.5343,4.6529,-7.3514,2.6952,2.6496,4.0768,-8.4890,1.5528,-0.6084,2.4375,-8.1339,-2.1437,2.5151,0.8954,-9.6767,2.2968,-1.3183
1425.7812,-8.0743,-1.0632,-1.8464,6.0849,-4.8326,0.3163,1.6700,7.0768,-10.2073,-0.6001,-4.5496,1.6612,-7.7248,-1.2972,0.5399,0.1516,-8.1874,2.8468,-3.2386
1429.6875,-9.7391,-2.5192,-7.3246,5.9063,-2.6960,0.8089,-2.7287,8.1823,-10.4269,-1.2907,-10.6283,2.5025,-6.8400,-1.3191,-3.5893,1.1096,-5.7988,2.1637,-7.4594
1433.5938,-9.2543,-1.8439,-13.3376,6.1366,-0.9443,2.7356,-8.5473,9.1768,-8.7371,-0.2059,-16.5932,4.3160,-4.7674,-0.8230,-8.2749,3.6501,-2.5515,1.9993,-11.8472
1437.5000,-7.5504,-0.1121,-16.9507,8.1605,0.3075,4.0549,-13.1922,11.4034,-5.8977,2.3087,-20.1820,5.4877,-1.8238,1.1649,-11.3242,6.2525,0.6032,3.7410,-14.3542
1441.4062,-5.4264,1.2270,-17.0198,11.4254,0.8148,3.5823,-15.4846,14.3621,-3.2353,5.2572,-20.7159,4.6925,0.8894,4.3607,-11.5371,7.0507,2.4844,7.1257,-14.4726
1445.3125,-3.3418,1.3481,-14.8992,13.7870,0.4490,1.6044,-16.3278,15.9854,-1.7517,7.2994,-19.4510,1.9666,2.3303,7.4310,-9.5455,5.2729,2.5899,10.2961,-13.4040
1449.2188,-1.7107,0.4752,-13.2131,13.2477,-0.5567,-0.6861,-17.5779,14.3861,-1.5512,7.3887,-18.4231,-1.2790,2.2672,9.0491,-7.2503,1.8941,1.4591,11.2234,-12.9182
1453.1250,-1.1149,-0.5232,-13.7355,9.6881,-1.6263,-2.3440,-20.1880,9.6201,-1.8919,5.4410,-18.7443,-3.3278,1.3919,8.9251,-6.3240,-1.0674,0.2196,9.3909,-13.8944
1457.0312,-1.9926,-0.9812,-16.0737,5.1697,-2.1524,-3.4380,-23.2689,3.9627,-1.7121,2.5437,-19.7456,-3.4699,0.7894,7.9763,-6.9778,-2.0964,-0.2579,6.3639,-15.7089
1460.9375,-3.9863,-1.0154,-18.1333,2.5085,-1.8644,-4.8582,-24.8632,0.3933,-0.2228,0.4258,-19.6443,-2.5368,1.2232,7.5198,-7.9512,-1.3648,0.1207,4.7202,-16.8719
1464.8438,-5.6395,-1.3862,-17.8909,3.2098,-0.9587,-7.4180,-23.7151,0.4523,2.7711,0.4330,-17.1503,-2.2582,2.7571,8.1632,-7.6680,-0.6073,0.8632,6.1180,-16.2864
1468.7500,-4.9951,-2.7881,-14.9924,6.3791,0.1088,-11.0576,-20.4528,3.1770,6.8891,2.6743,-12.6623,-3.9580,4.8922,9.3118,-5.5699,-1.7635,1.5394,9.9918,-14.0583
1472.6562,-0.9154,-5.1898,-10.9313,9.4754,0.9990,-14.8216,-17.1248,5.9776,11.3785,5.9529,-8.0613,-7.5845,6.9951,9.7061,-2.5402,-5.4246,2.2570,13.9125,-11.2457
1476.5625,5.7933,-7.7833,-7.7708,10.3249,1.7362,-17.6050,-15.4837,6.7617,15.3392,8.5509,-5.2907,-11.7692,8.6479,8.5602,-0.1212,-10.2866,3.5346,15.3628,-8.8678
1480.4688,12.4361,-9.5864,-6.5435,8.8186,2.6504,-19.0115,-15.5115,5.6080,17.9332,9.3204,-4.9046,-14.7973,9.7253,6.3679,0.7624,-14.0284,5.7137,13.5781,-7.0887
1484.3750,15.8946,-10.1848,-6.6251,6.9668,4.0891,-19.5844,-15.4759,4.6455,18.6355,8.3233,-5.7676,-15.7155,10.2853,4.6908,0.4959,-14.9419,8.4819,10.0556,-5.2723
1488.2812,14.6571,-9.9859,-6.4817,7.2693,6.1450,-20.2052,-13.4638,6.2328,17.5162,6.6262,-6.0985,-14.7850,10.4826,5.0409,0.3398,-13.0791,10.9854,7.3756,-2.7904
1492.1875,10.0157,-9.7669,-5.0251,10.6766,8.6000,-21.1609,-9.0417,10.8951,15.3868,5.4963,-4.9298,-13.0601,10.5884,7.7015,1.3039,-10.0847,12.4787,7.2718,0.2044
1496.0938,5.4835,-9.9087,-2.3845,15.7206,11.0869,-21.6819,-3.5861,16.6685,13.5896,5.6351,-2.7462,-11.5410,11.0044,11.4012,3.3258,-7.9054,12.9593,9.4268,2.7829
1500.0000,4.6829,-9.9861,0.4824,19.4693,13.2917,-20.3930,0.9850,20.3818,13.3864,6.9519,-0.8189,-10.5835,12.1126,14.1147,5.4357,-7.4081,13.2203,11.8441,4.0449
1503.9062,9.0544,-9.1003,2.8424,19.5534,15.0239,-16.3895,3.9094,19.8782,15.2206,8.8721,0.0971,-9.9309,13.9708,14.3999,6.6998,-7.9423,14.2287,12.4029,3.9992
1507.8125,16.9213,-6.7101,4.8434,15.7251,16.1405,-10.1228,6.1318,15.4629,18.3325,10.7676,0.4935,-9.1849,16.0902,12.2801,7.0541,-8.0958,16.3168,10.3294,3.6858
1511.7188,24.5454,-3.2662,7.1487,9.8370,16.4680,-3.3834,9.1615,9.5192,21.0792,12.1216,1.5862,-8.2237,17.5625,9.0420,7.2678,-6.9510,18.8485,6.4996,4.3507
1515.6250,28.4567,-0.0772,9.9399,4.3867,15.8760,1.6722,13.2607,4.6925,21.8687,12.4218,4.0118,-7.2249,17.5705,6.1647,8.0882,-4.8051,20.6507,2.4999,6.3392
1519.5312,27.4912,1.5562,12.3329,0.8424,14.4894,3.7916,16.7044,2.1257,20.1607,11.1084,6.9642,-6.3565,15.9815,4.2501,9.3871,-2.8095,20.8806,-0.6371,8.6859
1523.4375,23.2238,1.2930,12.9225,-0.9846,12.8499,3.3070,16.9971,1.0815,16.8634,7.8472,8.6606,-5.4950,13.5761,2.7846,10.1516,-1.8897,19.6557,-2.9497,9.8428
1527.3438,18.6345,0.0338,11.1117,-2.1996,11.8099,1.7686,13.1815,0.0816,13.8101,2.9954,7.8597,-4.2614,11.6753,0.8623,9.4051,-1.8831,17.9645,-4.9978,9.0209
1531.2500,16.0504,-0.7159,8.0394,-3.5222,12.1227,0.8314,7.2416,-1.5457,12.6120,-2.2128,5.1535,-2.3442,11.3531,-1.7830,7.2630,-1.6314,16.9487,-6.9000,7.0351
1535.1562,15.8183,0.0639,6.1066,-4.6063,13.9482,1.2050,3.1601,-3.0743,13.6322,-6.1227,2.8170,0.1901,12.7501,-4.3368,5.1186,0.0327,17.1156,-7.9453,5.8667
1539.0625,16.5193,2.1928,7.2433,-4.5308,16.6187,2.3862,4.0860,-3.2063,15.7656,-7.5943,3.1534,2.8741,14.9604,-5.4598,4.6611,3.2060,18.0494,-7.2029,7.1729
1542.9688,16.3772,4.4884,11.2254,-2.9337,18.8768,3.2806,9.7646,-1.5109,17.1699,-6.7469,6.5777,5.1142,16.5731,-4.4093,6.4566,6.6338,18.7650,-4.5857,10.8735
1546.8750,14.6923,5.7058,15.5019,-0.6866,19.4926,3.1753,16.3856,0.8716,16.4455,-4.8687,11.0320,6.5170,16.4973,-1.8047,9.2958,8.4993,18.3610,-1.3366,14.9714
1550.7812,12.2272,5.4813,16.8872,0.5881,17.9022,2.3107,19.1957,1.9689,13.4676,-3.4592,13.3513,7.0172,14.5226,0.6331,10.9560,7.7147,16.4707,0.6485,16.8511
1554.6875,10.3572,4.5596,13.9564,-0.1858,14.4823,1.6599,15.9971,0.5961,9.3415,-3.1120,11.6307,6.7705,11.2833,1.2310,9.8650,4.7536,13.2622,0.2300,15.1385
1558.5938,9.7524,4.1652,8.2880,-2.5294,10.3048,2.1407,8.8309,-2.5207,5.5736,-3.1537,6.7682,5.9947,7.7272,-0.4609,6.3543,1.4042,9.1364,-1.9826,10.7273
1562.5000,9.6774,5.0400,3.4839,-4.6167,6.5496,3.8950,2.4808,-5.1378,3.0788,-2.3905,1.9161,4.9488,4.5127,-3.3732,2.4517,-0.3748,4.4671,-3.9544,6.1717
1566.4062,8.4652,6.8998,2.6021,-4.6226,3.9456,6.1733,0.9039,-5.1730,1.7114,-0.3802,0.1901,4.0369,1.7457,-5.7323,0.3255,0.3267,-0.4134,-3.7209,3.8853
1570.3125,4.7928,8.6960,5.9217,-2.1568,2.5553,7.8718,4.3449,-2.3391,0.5863,1.8737,2.3692,3.8278,-0.8307,-6.3508,0.6111,2.9056,-5.0779,-0.9105,4.4895
1574.2188,-1.2176,9.4260,10.7645,1.4013,1.9604,8.2816,9.3549,1.6128,-1.1169,2.5172,6.3684,4.8155,-3.4145,-5.3920,1.9812,5.7809,-8.9686,2.9386,6.5327
1578.1250,-7.8939,8.8381,13.5269,3.9751,1.6497,7.4907,11.6351,4.2719,-3.4796,0.3850,8.8881,7.0021,-5.8414,-4.0430,2.3223,7.4567,-11.5851,5.5656,7.7339
1582.0312,-12.9667,7.5143,12.3495,4.4211,1.3260,6.1895,9.3945,4.4614,-5.7648,-3.7315,7.9441,9.6413,-7.6136,-3.4101,0.5539,7.3439,-12.7546,5.7549,6.7434
1585.9375,-14.8763,6.3411,8.3550,3.3857,0.9658,5.0966,4.5459,3.1000,-6.9325,-7.2313,4.2946,11.4627,-8.2082,-3.5704,-2.4290,5.8497,-12.7160,4.2636,4.0523
1589.8438,-13.5384,5.8450,4.5193,2.6779,0.6747,4.4790,0.8556,2.3232,-6.3419,-7.3567,0.6674,11.3609,-7.4326,-3.5663,-4.5050,3.8424,-11.9036,3.1532,1.3973
1593.7500,-10.1330,5.9103,3.1261,3.6803,0.5187,4.1088,0.6368,3.5990,-4.1521,-3.2076,-0.5562,9.1339,-5.5944,-2.3280,-4.1777,2.0195,-10.6014,4.0669,0.2109
1597.6562,-6.2128,6.0251,3.8712,6.1391,0.4801,3.6195,2.7340,6.4217,-1.1994,3.4372,0.6706,5.7255,-3.3980,0.2705,-1.9896,0.6607,-8.7925,6.8676,0.4004
1601.5625,-2.8418,5.7654,4.1443,8.3767,0.5464,2.9121,3.4527,8.7091,1.4937,9.2226,1.9897,2.7296,-1.6418,3.1470,-0.2752,-0.1696,-6.3612,9.7660,0.4370
1605.4688,-0.3195,5.0808,1.2525,8.7843,0.8097,2.2618,-0.3381,8.6036,3.2216,11.5175,0.5303,1.4367,-0.8687,4.8034,-1.3720,-0.3029,-3.4709,10.8367,-1.3398
1609.3750,1.4979,4.1915,-5.2205,7.3403,1.4456,2.0570,-8.4736,6.1797,3.8243,10.2121,-4.7524,2.0619,-1.1275,4.5427,-5.7003,0.5787,-0.7364,9.6594,-5.2776
1613.2812,2.7157,3.2749,-12.8363,5.8225,2.5557,2.4160,-17.3627,3.5837,3.5932,7.6405,-12.1473,3.6858,-1.9493,3.0859,-11.2791,2.6292,1.0489,7.6998,-10.0008
1617.1875,3.2111,2.2843,-17.9891,6.4334,3.9952,3.0144,-22.5746,3.4009,3.0056,6.6652,-18.3819,4.9351,-2.5699,2.0295,-15.1221,5.4589,1.4707,7.0791,-13.3693
1621.0938,2.8262,1.0708,-18.5349,9.9034,5.3498,3.2674,-22.0752,6.5364,2.4749,8.3845,-20.9818,4.9063,-2.3279,2.5413,-15.4469,8.0893,0.8836,8.7376,-14.0431
1625.0000,1.6593,-0.3476,-15.2955,14.6512,6.1285,2.7118,-17.5666,11.3588,2.2152,11.2345,-19.9496,3.6812,-1.0527,4.3644,-12.9579,9.3920,0.2571,11.5386,-12.4198
1628.9062,0.1182,-1.6843,-11.2872,17.7986,6.0725,1.2832,-12.9498,14.8879,2.2163,12.2001,-17.5098,2.1057,0.7940,5.9911,-10.1931,8.7488,0.5386,13.1165,-10.2258
1632.8125,-1.3171,-2.6059,-9.3407,17.3398,5.3700,-0.7107,-11.2351,15.1440,2.3060,9.2204,-16.2206,1.0493,2.3712,5.9279,-9.4643,6.4521,2.0147,11.8305,-9.1218
1636.7188,-2.3546,-3.1008,-10.0229,13.7784,4.6043,-2.8592,-12.3903,12.7855,2.2870,2.9518,-17.0036,0.7141,3.0121,4.0494,-11.0402,3.5225,4.1900,8.2346,-9.4457
1640.6250,-2.8785,-3.6307,-11.4670,9.8848,4.4392,-4.9162,-13.7542,10.6687,2.1202,-3.4692,-18.6241,0.4840,2.7404,1.8987,-13.0100,1.0421,6.2902,4.8117,-10.0737
1644.5312,-2.6724,-4.8494,-11.1431,8.6838,5.2304,-6.8556,-12.5081,11.6031,2.0590,-6.4994,-18.9262,-0.6191,2.3565,1.6039,-12.9069,-0.5373,7.9641,4.1116,-9.4589
1648.4375,-1.2169,-7.0479,-8.0502,11.1968,6.8185,-8.7126,-8.0865,16.0473,2.5957,-4.5635,-16.7225,-3.2289,2.9466,4.2069,-9.7649,-1.6298,9.5687,6.7492,-6.9677
1652.3438,2.0818,-9.7672,-3.5377,15.7002,8.6470,-10.3989,-2.5732,21.5892,4.1669,0.9897,-12.7848,-7.1669,5.0872,8.7301,-4.9584,-3.1377,11.7625,10.8765,-3.4261
1656.2500,7.2656,-11.9409,-0.1432,19.0894,10.1280,-11.6849,1.1173,24.6805,6.7537,6.9625,-9.1898,-11.4839,8.3043,12.7811,-1.1732,-5.7369,14.7383,13.5887,-0.4548
1660.1562,13.2963,-12.5342,0.5291,19.2853,11.0067,-12.3710,1.6528,23.3098,9.6776,10.5173,-7.6362,-14.9260,11.2473,14.2912,-0.3560,-9.3175,17.7883,13.1723,0.8373
1664.0625,18.2178,-11.2432,-0.8854,16.7901,11.4790,-12.4862,0.2616,18.5399,11.8354,10.8617,-8.1432,-16.5087,12.5489,13.0576,-2.2784,-12.9476,19.6668,10.4092,0.7312
1667.9688,20.1412,-8.7432,-2.0738,14.1696,11.9866,-12.3167,-0.4671,13.6978,12.3324,9.2785,-9.1543,-15.8986,11.8087,10.8708,-4.8138,-15.3599,19.5510,7.8879,0.6478
1671.8750,18.4872,-6.2923,-0.9645,13.8848,12.8475,-12.2171,1.1389,11.8346,11.1246,7.6927,-8.8808,-13.4803,9.9651,10.0882,-5.6415,-15.6339,17.8432,7.8617,1.9907
1675.7812,14.5579,-4.9636,2.6022,16.2026,13.9892,-12.3536,4.4356,13.4125,9.1809,7.0272,-6.7291,-10.1623,8.7081,11.7406,-3.9795,-13.6649,16.0868,10.3554,5.0227
1679.6875,10.8718,-5.0342,6.8110,18.8488,14.9708,-12.5912,7.0892,15.9894,7.9496,6.6172,-3.6601,-7.0385,9.2787,14.6394,-0.9995,-10.1877,15.9296,13.0314,8.6550
1683.5938,9.5811,-5.9187,9.4069,18.6844,15.2655,-12.6191,7.1372,16.1056,8.4201,5.0055,-1.2697,-5.0092,11.5012,16.1905,1.3112,-6.4096,17.8444,12.9314,11.2714
1687.5000,11.0486,-6.6296,9.5112,14.0939,14.5907,-12.2045,4.6991,11.8957,10.4268,1.3407,-0.4343,-4.4611,13.7882,14.3005,1.8267,-3.4940,20.5933,8.7384,11.8889
1691.4062,13.6464,-6.4019,8.2120,6.2386,13.0537,-11.3623,1.8937,4.4375,12.7397,-3.7846,-0.6659,-5.1239,14.1829,8.9238,1.1178,-2.1511,21.9282,1.8104,10.7363
1695.3125,14.9915,-5.0728,7.4949,-1.7517,11.0383,-10.3133,1.0628,-3.1049,13.9383,-8.6641,-0.6525,-6.2133,11.7364,2.0984,0.8233,-2.4700,20.1068,-4.7706,8.8694
1699.2188,13.7509,-3.0455,8.4854,-6.9598,8.9570,-9.2868,2.8317,-7.7765,13.4680,-11.6255,0.5581,-6.8480,7.2406,-3.5019,2.1613,-3.9907,15.1616,-8.3475,7.2467
1703.1250,10.6747,-0.9638,10.5259,-8.5283,7.0758,-8.3527,5.6506,-8.7598,12.0869,-12.0600,2.7838,-6.5424,2.7757,-6.3497,4.8520,-5.9362,9.0000,-8.3739,6.0944
1707.0312,8.0513,0.6453,11.8674,-7.8258,5.5244,-7.4167,7.1943,-7.5477,11.3253,-10.6109,4.9797,-5.4661,0.3787,-6.8418,7.3250,-7.5060,4.2400,-6.4315,5.0626
1710.9375,7.9606,1.5826,11.3496,-6.9826,4.4173,-6.3505,6.4173,-6.4279,12.3093,-8.5328,6.2547,-4.2640,0.7640,-6.5909,7.9944,-8.1384,2.5883,-4.7404,3.9344
1714.8438,10.6270,2.0168,9.5835,-7.1072,3.9090,-5.1057,4.5086,-6.6342,14.8110,-6.8442,6.6852,-3.5293,2.9699,-6.9291,6.5171,-7.6586,3.8663,-4.4600,3.1429
1718.7500,14.1215,2.4032,8.5566,-7.6344,4.0769,-3.7028,3.9071,-7.6396,17.2545,-5.9155,7.1831,-3.3028,5.1151,-7.8768,4.0155,-6.2624,6.2905,-5.1075,3.5334
1722.6562,15.6527,3.3018,9.9296,-7.2086,4.7143,-2.1353,6.1670,-8.0015,17.7179,-5.6418,8.5324,-2.9994,5.6586,-8.3532,2.1320,-4.3547,7.7125,-5.3896,5.5149
1726.5625,13.4913,5.0941,13.4384,-5.2012,5.2548,-0.3441,10.4429,-6.8677,15.2256,-5.8421,10.4681,-1.8666,4.2554,-7.3380,1.7395,-2.3379,6.8986,-4.5646,8.3622
1730.4688,8.1079,7.6726,16.7983,-2.4805,4.9880,1.6543,13.8998,-4.7874,10.3983,-6.4391,11.6697,0.3439,1.6827,-4.9291,2.3657,-0.4729,4.0183,-3.1076,10.3900
1734.3750,1.7261,10.3014,17.3064,-0.7680,3.4928,3.5858,13.8046,-3.1735,5.0004,-7.3181,10.7628,3.0244,-0.9557,-2.3974,2.7458,1.1269,0.1751,-2.1651,10.0267
1738.2812,-3.3014,11.8549,13.9326,-1.1616,0.9956,4.9140,9.6932,-2.9702,0.7406,-8.1478,7.5326,5.0154,-3.0390,-1.2218,1.9740,2.4176,-3.4954,-2.3924,7.0172
1742.1875,-6.0306,11.4343,8.2422,-3.1280,-1.6535,5.1408,3.9075,-3.7483,-1.7859,-8.4837,3.3162,5.4072,-4.6498,-1.9445,0.2613,3.3749,-6.4412,-3.2851,2.7816
1746.0938,-7.2646,9.0353,3.3741,-4.8512,-3.4435,4.2608,0.0413,-4.0385,-3.2627,-8.1411,0.1714,4.2601,-6.1606,-3.7961,-1.3093,4.0387,-8.6710,-3.6316,-0.4479
1750.0000,-8.5634,5.7735,1.8206,-4.6550,-3.8304,2.9948,0.4315,-2.6062,-4.8825,-7.4624,-0.5835,2.6647,-7.6757,-5.3537,-1.7767,4.5976,-10.3224,-2.6659,-1.1419
1753.9062,-10.8179,3.3744,3.6928,-2.3074,-3.0973,2.4973,4.5397,0.4471,-7.2923,-7.1177,0.6714,2.0268,-8.8750,-5.6279,-1.1733,5.3727,-11.3297,-0.8502,0.4751
1757.8125,-13.5342,3.1402,6.7644,0.8725,-2.1737,3.6201,9.3759,3.7134,-10.0788,-7.4907,2.1524,3.0501,-9.3823,-4.6686,-0.5398,6.6219,-11.5037,0.4685,2.6256
1761.7188,-15.3151,5.0544,8.1981,3.1545,-2.0179,6.2225,11.5839,5.6085,-12.1392,-8.1578,1.9909,5.1654,-9.2633,-3.2551,-1.0854,8.2582,-10.8790,0.2701,3.2754
1765.6250,-15.0323,7.6935,6.5805,3.7898,-2.9840,9.0999,9.6365,5.6303,-12.5799,-7.9995,-0.4501,6.8618,-9.1208,-2.0534,-3.2017,9.7247,-9.9053,-1.1287,1.5403
1769.5312,-12.6798,9.1074,2.7303,3.4832,-4.6051,10.7097,4.6112,4.6815,-11.3998,-6.0029,-4.2572,6.7290,-9.6155,-1.0454,-6.1361,10.2206,-9.2085,-2.2127,-1.8372
1773.4375,-9.2608,8.1247,-1.2227,3.6033,-5.9246,10.2609,-0.8534,4.2208,-9.4479,-2.1820,-7.8196,4.4801,-10.7909,0.2790,-8.5661,9.2213,-9.0710,-1.5162,-5.2255
1777.3438,-5.9168,5.1779,-3.6258,4.8892,-6.1146,8.3745,-4.4972,5.0246,-7.7539,2.1685,-10.1057,1.2142,-11.8238,2.2174,-9.5856,6.9566,-9.0981,1.0557,-7.3979
1781.2500,-3.1253,2.0360,-4.4918,6.8250,-4.9485,6.7517,-5.8207,6.6560,-6.8197,5.2175,-11.3257,-1.2868,-11.5174,4.3713,-9.3184,4.4443,-8.4321,4.0065,-8.3381
1785.1562,-0.6478,0.5953,-5.2165,8.2259,-2.8410,6.9946,-6.0205,8.0796,-6.4271,5.8704,-12.5080,-1.7383,-9.2374,5.8943,-8.7184,2.9437,-6.4275,5.4042,-8.9853
1789.0625,1.8196,1.5718,-7.1953,8.4706,-0.5138,9.3911,-6.7317,8.8153,-6.0381,4.6040,-14.4337,-0.1832,-5.5663,6.2731,-8.7899,3.1278,-3.2725,4.5028,-10.2396
1792.9688,3.9900,4.0187,-10.5667,8.2101,1.4079,12.5731,-8.6571,9.5174,-5.3628,3.1564,-16.8760,2.0951,-2.1004,5.8919,-9.8829,4.5533,-0.0251,2.4552,-12.1305
1796.8750,5.0159,6.0015,-14.1097,8.8345,2.5901,14.3597,-11.1038,11.3709,-4.5702,3.2332,-18.7853,3.4792,-0.4556,5.7826,-11.5799,5.8707,2.0429,1.4451,-13.8468
1800.7812,4.2384,5.9250,-16.2916,11.1105,2.9406,13.2213,-12.6564,14.7866,-3.9848,5.1881,-19.2173,3.0768,-1.1699,6.7008,-13.1577,5.7120,2.3457,2.8814,-14.5362
1804.6875,1.9846,3.5575,-16.5049,14.2176,2.5018,9.3154,-12.3512,18.6002,-3.5971,7.7095,-18.1672,1.1955,-3.3121,8.3364,-14.1494,3.6690,1.4529,6.1399,-14.1125
1808.5938,-0.3754,0.0575,-15.4308,16.1595,1.4707,4.3381,-10.4181,20.6452,-2.8915,8.7975,-16.5645,-1.0442,-5.0950,9.4394,-14.5328,0.6464,0.7462,8.9531,-13.3182
1812.5000,-1.2884,-2.9384,-14.2726,15.3651,0.3249,0.3079,-8.0759,19.4166,-1.1984,7.3113,-15.4258,-2.6069,-5.0513,8.8692,-14.4691,-1.7220,1.4826,9.2197,-12.9796
1816.4062,-0.1467,-4.4389,-13.5893,12.1935,-0.1624,-1.8058,-6.6105,15.5140,1.7153,3.9042,-14.9084,-3.2687,-2.9266,6.7215,-13.9400,-2.2322,3.9359,6.8037,-13.1346
1820.3125,2.2679,-4.6194,-12.7840,8.9988,0.7991,-2.5959,-6.4625,11.5723,5.3557,0.6252,-14.1139,-3.6699,0.3184,4.5143,-12.6861,-1.0263,7.2353,3.8216,-12.8633
1824.2188,4.4646,-4.4409,-10.7035,8.5148,3.5258,-3.5271,-6.9762,10.5266,8.8173,-0.5081,-11.8569,-4.7221,3.3237,4.1400,-10.5284,0.4166,10.0107,3.0991,-11.0503
1828.1250,5.5486,-4.7564,-6.8161,11.7257,7.5048,-5.6198,-6.9363,13.4275,11.4827,1.1264,-7.7752,-6.8519,5.2994,6.3548,-7.7440,0.2555,11.3649,5.9608,-7.4614
1832.0312,6.0768,-5.6270,-1.9158,16.9200,11.5237,-8.5506,-5.4610,18.5009,13.5244,4.4750,-2.8304,-9.6369,6.4360,10.0543,-5.0820,-2.4295,11.4735,11.1073,-3.1815
1835.9375,7.6935,-6.3300,2.3073,20.7781,14.3095,-10.8609,-2.6157,22.2791,15.7526,7.7564,1.2783,-12.0500,7.5264,13.0182,-3.3101,-6.9384,11.4026,15.5141,0.0581
1839.8438,11.7530,-5.9672,4.5173,20.7579,15.2901,-11.0894,0.6460,22.0494,18.8897,9.8251,3.3605,-13.0844,9.1924,13.6091,-2.6254,-11.3221,12.3132,16.6909,1.1917
1843.7500,17.9948,-4.1515,4.7705,16.9679,14.9312,-8.9296,3.1333,17.8108,22.8481,10.8466,3.6404,-12.3028,11.3586,12.0697,-2.4373,-13.5576,14.6409,14.5409,0.7054
1847.6562,24.3658,-1.2635,4.4595,12.0637,14.3753,-5.5224,4.2020,12.2548,26.6238,11.7889,3.5652,-9.9867,13.3553,10.3167,-1.7613,-12.7237,17.8178,11.3540,0.3155
1851.5625,28.2215,1.8365,5.1822,9.2204,14.6238,-2.6794,4.1638,8.7739,28.9321,13.2265,4.6400,-6.8902,14.4878,10.3358,0.0348,-9.4157,20.6799,9.9290,1.6231
1855.4688,28.0565,4.3420,7.4519,9.7324,15.8623,-1.6595,4.0777,8.9931,29.1094,14.5204,7.2149,-3.8579,14.5654,12.4589,2.7082,-5.2142,22.2212,11.3017,4.8028
1859.3750,24.4860,5.8666,10.3097,12.0886,17.4324,-2.4197,5.0714,11.6698,27.5751,14.1210,10.2077,-1.5639,13.9731,14.9648,5.2661,-1.6710,22.1567,13.8666,8.4082
1863.2812,19.7672,6.4591,12.1594,13.2108,18.4443,-3.8412,7.6164,13.7392,25.4951,10.8078,11.9967,-0.4305,13.2938,15.4028,6.6633,0.4651,20.9556,14.5870,10.5025
1867.1875,16.2619,6.3930,12.1345,10.8622,18.5194,-4.6534,11.1909,12.6507,23.9298,4.8838,11.7654,-0.6091,12.8564,12.6141,6.5437,1.3445,19.4148,11.3514,10.2362
1871.0938,15.0224,5.9856,10.8668,5.3535,18.0488,-4.2827,14.5239,8.2052,23.1544,-1.6615,10.2056,-1.9098,12.5918,7.7999,5.4625,1.5413,18.1361,4.6560,8.5890
1875.0000,15.5096,5.5644,10.0130,-0.7314,17.7617,-3.0066,16.2764,2.5603,22.6737,-6.2247,8.9947,-3.7266,12.2644,3.7030,4.4353,1.4888,17.2687,-2.6634,7.6352
1878.9062,16.5001,5.4838,10.9175,-4.4946,17.9793,-1.4267,15.7678,-1.4791,21.8599,-7.1569,9.4594,-5.1339,11.7984,2.4950,4.1839,1.2612,16.6153,-7.4072,8.8817
1882.8125,17.2931,6.0277,13.4991,-4.7936,18.2162,0.1671,13.3420,-2.4927,20.6126,-4.7200,11.5015,-5.2565,11.3617,4.0452,4.6665,0.7605,15.9250,-8.1703,12.0030
1886.7188,18.1507,7.1841,16.2673,-2.8474,17.5174,1.9466,10.1828,-1.2610,19.4355,-0.8048,13.6531,-3.7732,11.1285,5.9974,5.2265,0.0294,15.1018,-6.0929,15.0163
1890.6250,19.6300,8.4858,17.4555,-1.0350,15.3003,4.1141,7.7032,0.1331,18.8417,2.2995,14.2175,-1.2088,10.9733,5.6532,5.1891,-0.6378,14.1942,-3.7607,15.7958
1894.5312,21.4657,9.1448,16.3581,-0.9586,12.0136,6.3579,6.8593,0.0711,18.6135,3.1655,12.5721,1.2793,10.4307,2.2006,4.3914,-0.8679,13.2388,-3.2246,13.7475
1898.4375,22.1020,8.4975,13.8069,-2.3360,9.0136,7.7875,7.7553,-1.3952,17.6160,1.7113,9.5872,2.5790,9.0176,-2.4871,3.2248,-0.4713,12.1416,-4.6778,10.3106
1902.3438,19.4720,6.4898,11.4365,-3.5019,7.6640,7.5204,9.7085,-2.7703,14.4493,-1.2062,6.8451,2.3511,6.6602,-5.1513,2.1951,0.4608,10.7138,-6.6848,7.8756
1906.2500,12.5727,3.8282,10.3695,-2.9592,8.3004,5.4823,11.6809,-2.4551,8.5200,-4.5439,5.3272,1.2799,3.8381,-3.5684,1.4159,1.6908,8.8205,-7.5765,7.9616
1910.1562,2.6374,1.6278,10.4012,-0.6285,9.8636,2.7256,12.8058,-0.0536,0.7224,-7.5211,4.6703,0.6153,1.2755,1.7624,0.4930,3.0383,6.5000,-6.7817,10.0828
1914.0625,-7.1151,0.7622,10.3260,2.1903,10.5330,0.9067,12.7393,3.3616,-6.8493,-9.5700,3.6132,1.2892,-0.5926,7.9334,-1.0909,4.4422,3.9485,-5.0645,12.1826
1917.9688,-13.1687,1.3606,9.0984,3.9918,8.9409,1.2322,11.7091,6.1142,-12.0296,-10.1366,1.2530,3.2387,-1.9308,11.6586,-3.4231,5.8361,1.3949,-3.6381,12.2692
1921.8750,-13.7724,2.8011,6.8335,4.2933,5.1029,3.6407,10.3012,7.1256,-13.7950,-8.7876,-1.9601,5.4547,-3.3077,11.4430,-5.9344,7.0076,-1.0168,-3.0445,9.9503
1925.7812,-9.9825,4.1846,4.8010,3.8796,0.3988,6.8447,9.1274,6.4945,-12.7425,-5.6684,-4.3743,6.7487,-5.1388,8.3056,-7.7379,7.6358,-3.2390,-2.7783,6.6697
1929.6875,-4.9604,4.9231,4.3965,3.9421,-3.3626,9.2107,8.5228,5.1248,-10.5447,-1.8447,-4.3812,6.6729,-7.2411,4.6744,-8.2957,7.5185,-5.2402,-1.9001,4.5028
1933.5938,-1.9905,5.0207,5.9203,4.9507,-5.1025,9.8262,8.3792,3.8760,-8.8182,1.0185,-1.7847,5.8798,-8.9045,2.4870,-7.8822,6.7790,-6.9338,0.0005,4.4967
1937.5000,-2.5333,4.8924,8.1588,6.2791,-5.0406,8.9771,8.1696,3.0210,-8.1991,1.6654,1.8267,5.6121,-9.4542,2.0204,-7.4438,5.8170,-8.2019,2.3894,5.8664
1941.4062,-5.5535,4.9306,9.1313,6.8857,-4.3374,7.7364,7.1672,2.3998,-8.1925,0.2769,4.0643,6.6839,-8.8469,2.2245,-7.9235,4.9970,-8.9919,4.2786,6.6344
1945.3125,-8.4615,5.1943,7.4446,6.3886,-4.1583,7.0488,4.7927,1.9706,-7.7637,-1.3858,3.3669,8.7386,-7.7765,2.0379,-9.5566,4.3380,-9.3730,5.1412,5.1540
1949.2188,-8.9391,5.4501,3.2356,5.5256,-4.8862,7.0477,0.9437,2.1175,-6.1505,-1.0702,0.0429,10.3915,-7.1546,1.4338,-11.6910,3.5217,-9.4644,5.3916,1.3020
1953.1250,-6.4175,5.4693,-1.9838,5.5486,-6.0083,7.0971,-3.8723,3.3568,-3.3362,2.2718,-4.0600,10.2045,-7.3610,1.3220,-13.2956,2.2696,-9.2759,5.9762,-3.5375
1957.0312,-2.3181,5.2787,-6.4114,7.0736,-6.6483,6.4424,-8.7144,5.7127,0.0278,7.4338,-6.9752,7.7828,-7.8899,2.5287,-13.7824,0.7795,-8.6167,7.4367,-7.5804
1960.9375,0.9598,5.1293,-9.1187,9.4267,-6.2540,4.8807,-12.6328,8.4009,3.0474,11.4793,-8.0149,4.1558,-7.7251,4.8808,-13.5058,-0.2169,-7.2133,9.3074,-9.8919
1964.8438,1.5451,5.2200,-10.4501,11.1208,-4.9195,2.9002,-15.1135,10.2237,5.0109,11.6551,-8.0853,1.1237,-6.1883,7.2699,-13.5311,0.0692,-5.0023,10.4396,-10.8183
1968.7500,-0.8582,5.4436,-11.4550,11.1139,-3.1901,1.2218,-16.2730,10.4356,5.6170,7.4063,-8.7382,0.0330,-3.5816,8.6222,-14.8114,1.7883,-2.3773,10.0277,-11.3861
1972.6562,-4.9196,5.4124,-12.8929,9.7793,-1.6146,0.1822,-16.6766,9.3671,5.0404,1.0104,-10.7699,0.8868,-1.0723,8.8543,-17.3791,4.1264,-0.1323,8.4607,-12.2964
1976.5625,-8.4927,4.7748,-14.6119,8.7112,-0.4405,-0.4954,-16.9014,8.2326,3.9355,-3.7250,-13.4947,2.4448,0.1525,8.9005,-20.1630,5.7072,0.9650,7.2127,-13.3836
1980.4688,-9.6978,3.5733,-15.7217,9.4579,0.3664,-1.3579,-17.1374,8.2112,3.3570,-3.8528,-15.2349,3.2085,-0.1684,9.7614,-21.5958,5.5054,0.7315,7.7747,-13.9062
1984.3750,-7.6753,2.3344,-15.3239,12.2034,0.9183,-2.6321,-17.0929,9.5223,4.4616,0.8987,-14.5858,2.5171,-1.0751,11.4511,-20.5973,3.5875,-0.1497,10.4565,-13.2895
1988.2812,-2.7366,1.7769,-13.1679,15.5166,1.2893,-3.9280,-16.2495,11.2620,7.9546,8.1384,-11.4316,0.9126,-1.0160,12.8623,-17.2471,1.0679,-0.4101,14.0477,-11.5963
1992.1875,3.9674,2.3219,-9.7525,17.4342,1.6009,-4.5239,-14.2710,12.1671,13.5215,14.5583,-6.9543,-0.4667,1.0333,12.7648,-12.6979,-0.7367,1.0547,16.6613,-9.3408
1996.0938,10.9613,3.7472,-5.9048,17.0348,2.1648,-4.0095,-11.2736,11.7036,19.6868,18.0757,-2.7261,-0.9306,4.7941,11.0934,-8.4325,-1.3088,4.4301,17.1203,-6.9175
2000.0000,16.8974,5.2343,-2.2759,15.2170,3.4413,-2.7397,-7.7870,10.5854,24.3873,18.8286,0.3135,-0.8513,8.8425,9.3256,-5.4191,-1.2849,8.7566,15.7917,-4.2741
2003.9062,20.8708,5.7878,0.8308,14.0122,5.7393,-1.6814,-4.4557,10.2679,26.0706,18.4559,2.1952,-1.3498,11.5911,9.4632,-3.7382,-1.8648,12.4449,14.2021,-1.1898
2007.8125,22.6255,4.7673,3.2622,14.9436,8.8699,-1.7275,-1.6966,11.7842,24.6577,18.4433,3.4328,-3.3325,12.3650,12.3512,-2.8482,-3.7556,14.2346,13.7535,2.1190
2011.7188,22.6422,2.2204,4.7793,17.7394,12.0760,-2.9985,0.4790,14.8398,21.6694,18.9612,4.2926,-6.6808,11.7828,16.7340,-2.1718,-6.5336,13.9663,14.5862,4.7340
2015.6250,22.0166,-1.1412,5.1184,20.4487,14.3866,-4.6882,2.4035,17.8908,19.3216,19.0820,4.5502,-10.2621,11.1904,19.9501,-1.4926,-8.9654,12.6381,15.5158,5.5297
2019.5312,22.0392,-4.2696,4.3477,20.8998,15.1942,-5.6010,4.5212,19.1721,19.1326,18.0165,3.9401,-12.7337,11.6128,19.8420,-0.8939,-10.0150,11.7101,15.0868,4.1374
2023.4375,23.5486,-6.2137,3.1544,18.3651,14.6438,-4.9948,7.1203,17.9023,20.9862,16.1323,2.7994,-13.4572,13.0322,16.4083,-0.4049,-9.6574,12.1442,12.8684,1.5591
2027.3438,26.3616,-6.4596,2.6801,14.1268,13.5340,-3.1056,10.1422,14.7695,23.3180,14.7433,2.1762,-12.7669,14.5140,11.8468,0.2278,-8.7690,13.8500,9.9081,-0.2236
2031.2500,29.1750,-5.0710,3.8833,10.5019,12.7936,-0.9734,13.1396,11.3689,24.2956,14.7941,3.1477,-11.4206,15.0336,8.8898,1.3681,-8.1740,15.8964,7.9396,0.4909
2035.1562,30.1508,-2.6194,6.8604,9.0964,12.9150,0.2872,15.4226,9.0591,23.1301,15.6308,5.8599,-9.7798,14.3263,8.7174,3.0592,-7.7135,17.2840,7.9605,3.9033
2039.0625,27.9756,0.0434,10.6772,9.6435,13.7425,0.2244,16.3808,8.1041,20.5612,15.0908,9.1651,-7.5112,13.0953,10.1082,4.7683,-6.2554,17.6724,9.3252,8.5101
2042.9688,22.7919,2.0876,13.9160,10.2994,14.7154,-0.7341,15.8707,7.6828,18.1830,11.0669,11.3102,-4.1179,12.4419,10.5113,5.6438,-2.7776,17.5218,10.1130,12.1485
2046.8750,16.3448,2.9853,15.5848,9.1176,15.3177,-1.7012,14.4401,6.6552,17.1588,3.3855,11.2423,0.1783,12.9910,8.1816,5.1734,2.3430,17.5837,8.5299,13.5260
2050.7812,11.1109,2.6652,15.7200,5.5341,15.3619,-2.0293,13.1651,4.4293,17.3337,-5.5913,9.4913,4.0875,14.4060,3.6535,3.7226,7.0343,18.1887,4.2863,13.0527
2054.6875,8.8501,1.4828,15.2262,0.7416,14.9294,-1.7512,13.0683,1.2888,17.4254,-12.3197,7.8394,5.9295,15.6612,-0.6380,2.4328,8.7153,18.9238,-1.0946,12.3287
2058.5938,9.4989,0.0264,15.0834,-3.2549,14.1124,-1.4566,14.4083,-1.9559,16.1237,-14.4925,7.9414,4.9317,15.8393,-2.2758,2.4394,6.2168,18.9633,-5.2693,12.7137
2062.5000,11.2041,-1.1406,15.5473,-5.0901,12.8579,-1.7404,16.3379,-4.5971,13.2114,-12.6755,9.9593,2.0840,14.8202,-0.7622,3.9531,0.9369,17.7715,-6.6185,14.1559
2066.4062,11.5683,-1.6744,15.9743,-4.8700,11.0772,-2.6717,17.2900,-6.4000,9.8010,-9.8214,12.3399,-0.3013,13.3272,2.1299,5.9499,-3.8327,15.5828,-5.2223,15.2455
2070.3125,9.3069,-1.5113,15.4002,-3.8278,8.8956,-3.6869,15.9724,-7.4946,7.4810,-8.9545,12.9886,-0.1819,12.3010,3.8150,6.8076,-5.0939,13.2314,-2.6204,14.4506
2074.2188,5.1427,-0.8142,13.3959,-3.2110,6.7451,-3.9699,12.3489,-8.0175,7.0282,-10.8093,10.9517,2.6212,12.0933,2.9511,5.4908,-2.2747,11.4388,-0.6420,11.5040
2078.1250,1.2351,0.1284,10.5058,-3.3599,5.1325,-3.0195,7.8683,-7.9123,7.6974,-13.3127,7.2564,6.1326,12.1018,0.4182,2.4013,2.3516,10.1313,-0.2300,7.7656
2082.0312,-0.5042,1.0009,7.9116,-3.6745,4.2291,-0.9826,4.6575,-7.0770,7.6743,-13.3724,4.1927,7.6193,11.1386,-1.5433,-0.7976,5.3772,8.3810,-1.0751,5.2244
2085.9375,0.0231,1.5594,6.5929,-3.3702,3.6455,1.4666,4.1453,-5.6659,5.3873,-9.5785,3.5683,5.7253,8.2832,-1.2711,-2.3133,4.8658,5.0988,-2.1710,4.9344
2089.8438,0.8930,1.7456,6.6530,-2.2819,2.6536,3.5796,6.0779,-4.1821,0.7200,-3.6282,5.3227,1.7060,3.6213,0.9417,-1.4815,1.8590,0.0042,-2.7055,6.1751
2093.7500,-0.4173,1.7724,7.3328,-1.0087,0.7544,4.9689,8.6765,-3.1955,-4.7734,0.7571,7.6297,-1.2916,-1.6457,3.1718,0.8099,-0.4218,-5.8689,-2.5507,7.0528
2097.6562,-4.9642,2.0855,7.6729,-0.3247,-1.8365,5.7244,9.8759,-2.9045,-8.8157,0.6598,8.4143,-0.4882,-5.8061,3.5948,2.8614,0.8832,-10.5798,-2.0670,6.0772
2101.5625,-11.2172,3.1329,7.2568,-0.4348,-4.2076,6.1714,8.7503,-2.9529,-9.8498,-3.6709,7.0494,4.3840,-7.5719,2.1303,3.4840,5.9329,-12.3974,-1.5526,3.4241
2105.4688,-15.8661,5.0187,6.4263,-0.7668,-5.3297,6.5031,6.0506,-2.7184,-7.9746,-8.8384,4.8221,10.7153,-6.7658,0.5814,2.8455,11.8842,-10.8901,-0.9152,0.8249
2109.3750,-16.1085,7.2704,5.8094,-0.4877,-4.7957,6.5938,3.4407,-1.8639,-4.7734,-10.7740,3.7531,14.7907,-4.3664,1.1066,2.1634,14.9142,-7.2417,0.1467,0.1306
2113.2812,-11.7728,8.9559,5.5876,0.7292,-3.1605,6.1361,2.0414,-0.6636,-2.2251,-7.7870,4.7217,14.4272,-1.9232,4.2797,2.5017,13.0528,-3.5671,1.6879,1.6964
2117.1875,-5.6356,9.1818,5.1507,2.3922,-1.5939,4.9768,1.4599,0.2269,-1.4940,-1.8121,6.4652,10.5009,-0.7149,8.3835,3.6817,7.6673,-1.6792,3.2900,3.9115
2121.0938,-1.5730,7.7001,3.4691,3.6342,-1.0798,3.3668,0.1189,0.4093,-2.3927,3.1322,6.3561,6.2049,-1.1312,10.6050,4.2504,2.4621,-2.1124,4.3393,4.3044
2125.0000,-1.8284,5.1911,-0.0835,4.0292,-1.7551,1.9017,-3.3520,0.2365,-3.7729,4.0691,2.4249,4.5971,-2.5943,9.2342,2.5962,0.7511,-4.0030,4.5801,1.3918
2128.9062,-5.4191,2.9435,-5.1144,4.0357,-2.8899,1.1650,-8.7932,0.6616,-4.4537,1.3166,-4.9552,6.3066,-4.0144,5.1104,-1.6584,3.0610,-5.8295,4.4109,-4.1687
2132.8125,-8.9137,2.0640,-10.3173,4.6176,-3.5305,1.3241,-14.3857,2.4554,-4.0020,-1.8927,-13.1009,9.1362,-4.4922,1.1051,-7.1360,6.8376,-6.4622,4.5790,-10.0273
2136.7188,-9.0435,2.7259,-14.2529,6.3092,-3.3178,1.9728,-17.9012,5.3810,-2.8949,-2.0930,-18.8217,9.8305,-3.8667,-0.0169,-11.5433,8.4058,-5.8278,5.4727,-13.8424
2140.6250,-5.1981,4.0035,-16.2327,8.5259,-2.8494,2.3508,-18.3799,8.0499,-2.0797,1.5901,-20.6490,6.6127,-2.8043,2.2873,-13.2680,5.6517,-4.8134,6.6259,-14.9113
2144.5312,0.0918,4.4606,-16.6536,9.7907,-3.2872,1.7966,-16.8845,8.7228,-2.3254,6.7238,-19.7920,0.5316,-2.3773,5.9083,-12.4997,-0.5620,-4.5590,6.9422,-14.4904
2148.4375,3.0647,3.1212,-16.5656,8.8198,-5.4702,0.1260,-15.6748,6.5705,-3.7959,9.5120,-19.0964,-5.3825,-3.3571,7.7001,-10.9862,-7.1851,-5.6455,5.5648,-14.6118
2152.3438,1.5859,0.1461,-16.8305,5.6689,-9.1615,-2.3170,-16.4038,2.4757,-6.0220,7.8249,-20.8168,-8.4350,-5.6295,5.9095,-10.6101,-11.2235,-7.6849,2.7353,-16.3749
2156.2500,-3.2227,-3.2708,-17.5128,2.0010,-12.9752,-4.9483,-18.7473,-1.2915,-8.1613,2.8928,-24.9006,-8.2273,-8.0932,1.5542,-11.9054,-11.6860,-9.5113,-0.0990,-19.0589
2160.1562,-7.8073,-5.7169,-17.9192,0.1569,-15.0600,-7.3361,-20.5664,-2.3979,-9.3230,-1.6603,-29.0383,-6.7647,-9.1576,-2.3021,-13.6787,-9.8756,-9.8066,-1.1255,-20.7067
2164.0625,-8.8047,-6.5017,-17.1851,1.6246,-14.1133,-9.4033,-19.5071,0.1043,-8.8211,-2.6295,-30.3619,-6.7124,-7.6004,-2.8082,-14.0110,-8.0391,-7.7849,0.5992,-19.6586
2167.9688,-5.4445,-6.0516,-14.9192,6.0034,-10.0982,-11.3107,-14.8119,5.2064,-6.3527,0.3700,-27.4534,-9.2439,-3.3052,0.6037,-11.8202,-7.6057,-3.5892,4.4354,-15.8067
2171.8750,0.0646,-5.5046,-11.4442,11.2310,-4.2537,-13.1566,-7.9667,10.6368,-2.1334,4.7853,-21.2022,-13.1823,2.5725,5.8781,-7.7358,-8.3924,1.7621,8.5343,-10.6349
2175.7812,4.3659,-5.8429,-7.5473,14.9241,1.5572,-14.7812,-1.7344,14.3060,3.0588,7.2876,-14.0356,-16.0511,8.1492,9.9178,-3.6263,-9.2182,6.8243,11.0565,-6.1079
2179.6875,5.4951,-7.2200,-4.0267,15.8749,5.7438,-15.8708,1.6298,15.4759,8.0460,6.4015,-8.2848,-16.1167,11.7748,10.8336,-1.2122,-9.2060,10.3524,11.3510,-3.3523
2183.5938,4.1577,-8.9536,-1.3937,14.6497,7.6316,-16.2890,1.6290,14.8786,11.6686,3.4882,-4.9619,-13.7590,12.8548,9.1633,-0.9020,-8.6029,11.8235,10.2436,-2.1379
2187.5000,2.8519,-10.1235,0.1483,12.9279,7.5737,-16.3379,-0.5735,13.8202,13.3209,1.3868,-3.6888,-11.1069,12.0516,7.2139,-1.7385,-8.4871,11.6127,9.2667,-1.4348
2191.4062,3.6810,-10.2650,0.6123,12.1474,6.5742,-16.6651,-3.2858,13.0440,13.3002,1.9434,-3.4980,-10.2977,10.7684,7.1281,-2.3858,-9.7290,10.7264,9.4593,-0.4396
2195.3125,6.6816,-9.6223,0.2358,12.4891,5.7038,-17.8012,-5.3905,12.2393,12.6980,4.5050,-3.6150,-11.7963,10.2665,9.1954,-2.2358,-12.1532,10.2150,10.6560,0.8356
2199.2188,9.9676,-8.8182,-0.4129,12.9067,5.6198,-19.6417,-6.5758,10.5108,12.8152,6.5766,-3.5931,-14.1035,10.9741,11.6564,-1.6941,-14.5949,10.5831,11.7525,1.8355
2203.1250,11.4523,-8.2667,-0.4646,12.0784,6.3830,-21.2938,-6.7740,7.3418,14.4034,6.0022,-2.9554,-15.0201,12.3874,12.0652,-1.4845,-15.7378,11.5439,11.6523,2.2219
2207.0312,10.6411,-7.8323,0.8820,9.4798,7.5838,-21.4974,-5.6284,3.2188,17.1950,2.7922,-1.0157,-13.3954,13.5544,9.1172,-1.7012,-14.9991,12.2849,10.0932,2.3448
2210.9375,9.0020,-7.0005,3.7733,5.7577,8.6525,-19.4073,-2.6935,-0.6068,20.0358,-0.9238,2.6845,-9.9632,13.7595,3.5823,-1.5476,-12.7802,12.0835,7.7156,2.9615
2214.8438,8.6617,-5.3884,7.3486,2.1870,9.1768,-15.2271,1.7712,-3.0144,21.5617,-2.7229,7.6398,-6.6686,12.9448,-2.2649,-0.0509,-10.0049,10.8620,5.3949,4.4711
2218.7500,10.5657,-3.1598,10.0507,-0.2859,9.0769,-10.2344,6.3087,-3.8342,21.0059,-1.9174,12.1580,-5.1229,11.6363,-6.1933,2.8839,-7.4530,9.2874,3.4649,6.4073
2222.6562,13.6381,-1.0101,10.5701,-1.6430,8.5743,-6.1391,8.8560,-3.9257,18.6245,-0.0893,14.1609,-5.4635,10.5041,-7.3687,6.0830,-5.4569,8.3288,1.5012,7.7211
2226.5625,15.5914,0.2537,8.8243,-2.6211,8.0024,-4.1710,8.2342,-4.4628,15.4739,0.2589,12.6103,-6.4807,9.9125,-6.6042,7.8365,-4.0857,8.5744,-1.1805,7.6674
2230.4688,14.6608,0.2053,6.1898,-3.9918,7.5861,-4.4794,5.3721,-6.0080,12.6914,-2.2639,8.4469,-6.7801,9.7570,-5.4909,7.2185,-3.4564,9.8003,-4.7863,6.5268
2234.3750,10.8256,-0.9880,4.6628,-5.9271,7.3265,-6.2022,3.0528,-8.1122,10.7588,-6.9382,4.1357,-5.9328,9.6376,-5.1808,4.8799,-3.7472,11.1088,-8.7298,5.4753
2238.2812,5.5976,-2.7307,5.4342,-7.9386,7.0511,-8.0929,4.0547,-9.7315,9.2374,-11.7300,1.9771,-4.6612,9.1745,-5.7234,2.5859,-4.8721,11.5376,-12.0200,5.6291
2242.1875,0.7019,-4.3560,7.9171,-9.3573,6.5736,-9.2386,8.9415,-10.0883,7.1506,-15.0664,2.4179,-3.9972,8.2154,-6.3190,1.8214,-6.2052,10.6914,-14.0023,7.0332
2246.0938,-3.1368,-5.3983,10.0374,-9.8796,5.8332,-9.4010,15.2608,-9.2638,3.7557,-16.9703,3.7331,-4.2310,6.8265,-6.1323,2.6112,-6.7713,8.9361,-14.7970,8.4817
2250.0000,-6.3006,-5.6488,9.6989,-9.7090,4.9092,-8.8496,18.9743,-8.0612,-0.8209,-18.5754,3.4332,-4.6105,5.1467,-4.9706,3.5658,-5.8876,7.0324,-15.0521,8.4101
2253.9062,-9.3435,-5.0739,6.3976,-9.2313,3.9102,-7.9364,17.2324,-7.2990,-5.5329,-20.5562,0.3484,-4.0493,3.2702,-3.3612,3.1408,-3.7540,5.5152,-15.2504,6.1974
2257.8125,-12.0352,-3.7552,1.7545,-8.5894,2.8411,-6.8011,10.4595,-7.1588,-9.0151,-22.0342,-4.2853,-2.1984,1.2475,-2.0976,1.0454,-1.4273,4.3005,-15.2196,2.8139
2261.7188,-13.3893,-1.9098,-1.5247,-7.5970,1.5662,-5.4089,2.1389,-7.1376,-10.4630,-21.1245,-7.6850,0.0964,-0.8431,-1.6972,-1.4301,-0.0953,2.8062,-14.3259,0.2219
2265.6250,-12.7201,0.0910,-1.5649,-6.0781,-0.0975,-3.8022,-3.5955,-6.6173,-10.2105,-16.7838,-7.7124,1.3980,-2.8704,-2.1823,-2.5027,-0.1864,0.4563,-12.2078,-0.0730
2269.5312,-10.7388,1.8163,1.2930,-4.2853,-2.2323,-2.2727,-4.7652,-5.5236,-9.5952,-10.3292,-4.6606,0.8652,-4.7257,-3.2471,-1.5042,-1.0579,-2.8486,-9.3802,1.7934
2273.4375,-9.5451,2.9666,4.7001,-2.9337,-4.7379,-1.2667,-2.6555,-4.4710,-10.1551,-5.1020,-1.1536,-0.9809,-6.4306,-4.5584,0.3836,-1.5617,-6.6539,-7.0887,4.0746
2277.3438,-11.2776,3.5074,5.9801,-2.7179,-7.3738,-1.1062,-0.4842,-4.2435,-12.6443,-4.2523,-0.1669,-2.5918,-8.1535,-5.9086,0.9726,-1.0531,-10.2863,-6.4210,4.6728
2281.2500,-16.4004,3.6026,4.0293,-3.6789,-9.8770,-1.7820,-0.7976,-5.0582,-16.4980,-8.2910,-2.7136,-2.5937,-10.0796,-7.1577,-1.1425,0.0025,-13.2923,-7.3688,2.6681
2285.1562,-23.0487,3.3800,0.0027,-5.0048,-12.0587,-3.0062,-3.7055,-6.2820,-20.1036,-14.4314,-7.0591,-0.8949,-12.2218,-8.1383,-5.3377,0.3662,-15.6213,-8.6674,-1.0755
2289.0625,-28.0989,2.7469,-3.7246,-5.5427,-13.8184,-4.4607,-7.2772,-6.9043,-21.7247,-18.4255,-10.1324,1.2071,-14.3371,-8.7034,-9.3572,-0.9399,-17.4512,-8.6574,-4.6923
2292.9688,-29.2484,1.4674,-5.4911,-4.6988,-15.1136,-5.9986,-9.5916,-6.4120,-20.4989,-17.5915,-10.0310,2.0174,-16.0478,-8.9033,-11.1082,-3.7525,-18.8723,-6.5567,-6.8577
2296.8750,-26.5369,-0.5137,-5.6530,-3.0056,-15.9587,-7.6090,-10.5826,-5.3168,-16.8872,-12.6978,-7.6106,0.7488,-17.0964,-9.0768,-10.4050,-6.7959,-19.7476,-3.1228,-7.8510
2300.7812,-22.1434,-2.7789,-6.2305,-1.8216,-16.4747,-9.2046,-12.0668,-4.8234,-12.3177,-7.2097,-5.8568,-1.8954,-17.5354,-9.6664,-9.1873,-8.6295,-19.8742,-0.1082,-9.2818
2304.6875,-18.6525,-4.4986,-9.1811,-2.2946,-16.9151,-10.4863,-15.9562,-5.8243,-8.2957,-4.4926,-7.5132,-4.3003,-17.6815,-10.8178,-9.9603,-8.7483,-19.2652,1.1241,-12.6881
2308.5938,-17.1905,-4.9056,-14.6791,-4.3557,-17.5678,-11.0901,-22.2519,-8.0163,-5.5858,-5.2131,-12.8472,-5.1920,-17.8481,-12.0795,-13.6822,-7.9265,-18.2468,0.7327,-18.1223
2312.5000,-16.8920,-3.8719,-20.7813,-6.5686,-18.5335,-10.9417,-28.6328,-9.9056,-3.9813,-7.0244,-19.3350,-4.5588,-18.0617,-12.5293,-18.8377,-7.5128,-17.2376,0.3245,-23.8648
2316.4062,-16.0337,-2.1167,-24.7663,-7.0469,-19.5328,-10.4924,-32.0991,-9.8059,-2.7430,-6.7596,-23.5209,-3.5365,-18.0015,-11.3539,-22.5096,-8.2638,-16.3933,1.6577,-27.5287
2320.3125,-13.7936,-0.8106,-25.1055,-4.8152,-19.9457,-10.5405,-31.3495,-7.1174,-1.3181,-3.2984,-23.5782,-3.4088,-17.2394,-8.5120,-22.6418,-9.6936,-15.4605,5.1201,-27.7287
2324.2188,-11.1063,-0.8102,-22.5298,-0.5931,-19.1489,-11.6732,-27.8866,-2.8907,0.2118,1.2922,-20.5658,-4.5681,-15.6110,-4.9634,-19.6855,-10.4938,-14.0155,9.2268,-25.0471
2328.1250,-9.8773,-2.0891,-19.3713,3.6307,-16.9626,-13.7333,-24.8587,0.8223,1.2671,3.3381,-17.4480,-6.2710,-13.4161,-2.1956,-16.2859,-9.6848,-11.9101,11.6222,-21.5731
2332.0312,-11.2171,-3.8209,-17.7310,5.9605,-13.8650,-15.7805,-24.5319,2.4024,1.3462,0.6130,-16.7251,-7.3486,-11.2548,-1.2901,-15.2268,-7.5475,-9.5089,10.8737,-19.3860
2335.9375,-14.1958,-5.0666,-17.9285,5.8957,-10.7423,-16.6768,-26.4501,1.8228,0.5685,-5.6192,-18.5812,-7.2507,-9.5845,-2.1587,-17.2532,-5.5540,-7.4437,7.6622,-19.1336
2339.8438,-16.2064,-5.5261,-18.4352,4.6021,-8.2880,-15.9165,-27.8104,0.6503,-0.2505,-11.2804,-20.9534,-6.5632,-8.3215,-3.5226,-20.4892,-5.3388,-6.0323,4.3914,-19.7442
2343.7500,-14.7199,-5.7364,-17.2784,3.9631,-6.4832,-14.0651,-25.7614,0.8729,-0.0675,-12.4031,-21.3371,-6.5894,-6.8237,-3.7179,-21.8885,-7.5230,-4.8587,3.4522,-19.4084
2347.6562,-9.0914,-6.5384,-13.7358,5.1473,-4.6038,-12.4190,-19.7554,3.4274,1.7097,-8.0284,-18.7773,-8.3446,-4.3302,-1.8160,-19.5493,-11.3070,-2.9614,5.4504,-17.0175
2351.5625,-1.0441,-8.2424,-8.9461,7.7844,-1.8367,-12.0852,-12.0496,7.5251,4.8129,-0.8286,-14.4592,-11.7559,-0.5894,1.7057,-14.0820,-15.1018,0.4005,8.7698,-12.9606
2355.4688,6.4913,-10.2032,-4.9834,10.3490,1.9085,-13.1579,-5.9830,11.2538,8.2552,4.9803,-10.5537,-15.6630,3.7748,5.2239,-8.0361,-17.6395,4.9584,10.8210,-8.7522
2359.3750,11.2506,-11.2112,-3.2032,11.4026,5.6438,-14.6336,-3.4784,12.9583,10.9086,6.7407,-8.4220,-18.5754,7.4699,7.0016,-3.9546,-18.6722,9.3077,10.0178,-5.8842
2363.2812,12.8349,-10.4409,-3.2384,10.6913,7.7878,-15.1548,-3.8005,12.3381,12.1227,5.0454,-7.7213,-19.5860,9.2493,6.3006,-2.6570,-18.7837,11.6874,6.9512,-4.8322
2367.1875,12.4856,-8.2128,-3.4415,9.2475,7.2605,-14.0337,-4.4944,10.4697,11.9919,2.8081,-7.0750,-18.7976,8.6960,3.8270,-3.0389,-18.6114,11.2052,3.8583,-4.9273
2371.0938,11.8271,-5.9226,-2.3510,8.4571,4.4292,-11.7765,-3.5857,8.8242,11.1546,2.6186,-5.5814,-17.0538,6.5563,1.2296,-3.3573,-18.2304,8.6195,2.8166,-5.0534
2375.0000,11.6684,-5.1274,0.0818,8.8764,1.1504,-9.7134,-1.1182,8.1183,10.3158,4.5883,-3.7411,-15.2905,4.3615,0.0172,-2.7782,-17.2275,6.0255,4.0813,-4.5061
2378.9062,11.7119,-6.4518,2.5354,9.7558,-0.2602,-9.0281,1.2392,7.8977,9.8300,6.3642,-2.9616,-14.0245,3.5416,0.6301,-1.8759,-15.3164,5.5625,5.8595,-3.3262
2382.8125,11.1559,-9.1388,3.5608,9.6311,1.4857,-9.9327,2.0518,7.1096,9.5790,5.1587,-4.1081,-13.2691,4.5735,2.2534,-1.7871,-12.8424,7.9945,5.6772,-1.9586
2386.7188,9.4898,-11.5931,2.9328,7.4854,5.7211,-11.5974,1.6923,5.1109,9.1618,0.0409,-6.4455,-12.7714,6.7067,3.4225,-2.9162,-10.6426,12.1680,2.2691,-0.6761
2390.6250,6.8089,-12.5045,1.9252,3.5496,10.1511,-12.8311,2.1442,2.2515,8.2295,-7.3448,-7.9921,-12.2596,8.4477,2.9550,-4.4199,-9.3454,15.7527,-3.4531,0.6519
2394.5312,3.5746,-11.7021,2.2569,-0.8635,12.2871,-12.9338,5.1471,-0.4195,6.7640,-14.0678,-7.0533,-11.5040,8.5055,0.5893,-4.9296,-8.7524,16.7699,-9.0434,2.2673
2398.4375,0.2797,-10.1228,4.6017,-4.3052,11.0554,-12.0568,10.3230,-2.0201,5.1706,-18.0016,-3.6363,-10.2637,6.6054,-3.0082,-3.8160,-7.9179,14.8550,-12.2147,4.0653
2402.3438,-2.5619,-8.9686,7.9492,-6.1351,7.4934,-10.8601,15.0335,-2.5187,4.1543,-18.9919,0.5023,-8.3205,3.6623,-6.7425,-1.8024,-5.9403,11.4027,-12.2741,5.5016
2406.2500,-4.1950,-8.7456,10.3972,-6.7468,4.0516,-9.8482,16.2707,-2.6754,4.4210,-18.3280,3.2689,-5.6749,1.2139,-9.6815,-0.3309,-2.8217,8.5443,-10.2916,6.0377
2410.1562,-3.6675,-8.9239,10.7282,-6.9973,2.9677,-8.9911,13.0968,-3.3442,6.2984,-17.2501,3.9260,-2.7325,0.4752,-11.3724,-0.2288,0.3666,7.7108,-8.0437,5.7406
2414.0625,-0.4529,-8.4329,9.4327,-7.4130,4.8020,-7.9329,7.5703,-4.7693,9.4278,-15.9495,3.6122,-0.2308,1.6016,-11.8103,-0.8919,2.2198,8.7695,-6.6923,5.4212
2417.9688,4.6990,-6.5489,8.2742,-7.8598,8.0980,-6.5299,3.2780,-6.4667,12.7131,-13.8987,4.2205,1.1523,3.6022,-11.2430,-0.7728,2.0769,10.2522,-6.2332,6.0463
2421.8750,9.5172,-3.4609,8.7260,-7.8945,10.3540,-5.1589,2.5771,-7.7358,14.6595,-11.0041,6.5848,1.2549,4.9292,-10.0325,1.1950,0.5525,10.4100,-5.9874,7.8208
2425.7812,11.1425,-0.1115,10.5961,-7.3832,9.6248,-4.4582,4.7835,-8.2870,14.0378,-8.2832,9.5638,0.5702,4.3621,-8.6251,4.4771,-0.9362,8.3101,-5.5134,9.7314
2429.6875,7.8783,2.4943,12.0544,-6.7537,5.6957,-4.7062,6.8184,-8.4030,10.5712,-7.2423,10.8838,-0.0981,1.6524,-7.5125,7.1613,-1.2790,4.2729,-5.0452,10.0716
2433.5938,0.5452,3.9283,11.1268,-6.6204,0.1177,-5.4268,5.8166,-8.5165,5.2220,-8.4400,9.1000,-0.2250,-2.4218,-7.0737,7.4263,-0.5086,-0.5043,-5.0935,7.6936
2437.5000,-7.7332,4.4558,7.4672,-7.1332,-4.8262,-5.6562,1.5612,-8.6495,-0.1890,-10.6335,5.0248,0.0835,-6.5614,-7.3495,5.0593,0.3366,-4.7357,-5.6743,3.0643
2441.4062,-13.4187,4.6346,2.9102,-7.6937,-7.4849,-4.7315,-3.2819,-8.3017,-3.9067,-11.5168,1.3409,0.2952,-9.6598,-7.9550,1.7243,0.2055,-7.6695,-5.9897,-1.7642
2445.3125,-14.9009,4.8157,0.2485,-7.3759,-7.6650,-2.9545,-5.3481,-6.9468,-5.1986,-9.6456,0.5981,0.0641,-11.2947,-8.2835,-0.3005,-0.9551,-9.2297,-4.9677,-4.3898
2449.2188,-13.5682,4.9777,1.1228,-5.7381,-6.4867,-1.5051,-3.3843,-4.6891,-4.7370,-5.9349,3.1700,-0.2850,-11.7606,-7.9197,0.0889,-2.0494,-9.7690,-2.2497,-3.6786
2453.1250,-12.7106,4.9689,4.6837,-3.3097,-5.4860,-1.5672,0.6558,-2.4088,-4.1230,-3.2683,6.8517,0.1182,-11.7087,-6.9605,1.9804,-1.7035,-9.7461,1.2662,-0.5787
2457.0312,-14.9682,4.8433,8.1215,-1.2616,-5.6121,-3.3072,3.1704,-1.1419,-4.8207,-4.2651,8.4872,1.9632,-11.6769,-5.9498,3.2490,0.5427,-9.5500,3.8981,2.5124
2460.9375,-20.1993,4.9104,8.6992,-0.4650,-6.7360,-5.5474,1.8617,-1.1498,-7.1845,-8.8990,6.3652,4.9911,-11.8033,-5.4244,2.3372,3.7275,-9.4612,4.3856,3.3968
2464.8438,-25.4066,5.4224,5.7190,-0.7152,-7.8886,-6.4840,-2.3627,-1.5112,-10.2274,-14.0120,1.4729,7.8721,-11.8468,-5.4067,-0.4747,6.1133,-9.6099,2.8693,1.5404
2468.7500,-26.8494,6.1945,0.8999,-0.8199,-7.9836,-4.9829,-6.1484,-0.7165,-12.2923,-15.3776,-3.3979,8.9645,-11.4361,-5.2798,-3.3606,6.5174,-9.8810,0.8162,-1.7183
2472.6562,-22.8196,6.5594,-3.0982,0.4456,-6.5321,-1.4930,-6.5383,2.0958,-12.1799,-10.8995,-5.9643,7.4789,-10.3570,-4.2168,-4.5470,5.2695,-9.8801,-0.0956,-4.3309
2476.5625,-15.0372,5.7761,-4.8040,3.2701,-3.9381,2.1377,-3.5859,6.2490,-9.9788,-2.4649,-6.3067,4.1701,-8.7132,-1.8805,-3.8644,4.0019,-9.1139,0.7486,-5.1531
2480.4688,-7.6363,3.6013,-5.0201,6.5324,-1.2512,3.8469,-0.5644,9.8048,-7.0494,5.1251,-6.7620,0.9544,-6.9025,1.1556,-2.9481,4.3910,-7.3593,2.4985,-4.7674
2484.3750,-4.4806,0.5520,-6.0311,8.6097,0.4322,2.6945,-1.5219,10.9251,-5.1890,7.4882,-9.9477,-0.3646,-5.4478,3.6592,-3.9200,6.8089,-4.9638,3.6318,-4.9128
2488.2812,-6.7313,-2.3852,-9.6144,8.6579,0.5659,-0.5984,-8.0824,9.3119,-5.5373,3.7808,-16.5198,0.6361,-4.7685,4.5496,-7.6479,9.9394,-2.7696,3.2726,-7.0145
2492.1875,-12.3212,-4.3888,-15.4726,7.3169,-0.5722,-4.2433,-18.0187,6.5541,-7.9205,-2.7799,-24.4683,2.6907,-4.9751,3.6939,-13.0122,11.6837,-1.6014,1.9282,-10.9850
2496.0938,-17.5408,-5.2893,-21.3313,6.2272,-2.0604,-6.6048,-26.7204,5.0116,-11.0072,-7.3926,-30.5008,3.7731,-5.7656,2.0714,-17.7437,10.6923,-1.6300,1.0327,-15.2232
2500.0000,-19.4568,-5.5360,-24.5870,6.7089,-2.8597,-7.1359,-30.3993,6.0334,-13.1113,-7.2319,-32.3856,2.6091,-6.4878,1.1391,-20.0966,7.3765,-2.1076,1.6922,-17.7741
2503.9062,-17.4591,-5.7074,-24.1655,8.6684,-2.3947,-6.4257,-28.5461,8.8943,-13.1070,-3.3516,-30.3997,-0.3510,-6.3886,1.8362,-19.9675,3.6479,-1.7618,3.7119,-17.7137
2507.8125,-13.0703,-6.0048,-21.1403,10.6479,-0.8623,-5.4951,-23.8277,11.3270,-10.9223,0.4654,-26.8082,-3.2508,-4.9791,3.9573,-18.6127,1.5799,0.3473,5.7487,-15.6922
2511.7188,-8.4892,-6.1634,-17.7114,11.0172,0.9156,-5.0208,-19.6888,11.2892,-7.4057,0.8933,-23.9169,-4.2296,-2.3382,6.3617,-17.3323,1.9728,4.1032,6.4711,-13.2773
2515.6250,-5.1284,-5.8363,-15.4632,9.3574,2.0266,-5.0996,-17.6995,8.6059,-3.7447,-2.3004,-22.3505,-2.8770,0.8509,7.8546,-16.3422,3.8421,8.3066,5.7370,-11.6941
2519.5312,-3.1249,-5.0835,-14.3336,6.9068,2.0770,-5.6051,-16.7485,5.1940,-0.8252,-6.2288,-20.9234,-0.6430,3.6166,8.0686,-14.8103,5.1545,11.4316,4.7596,-10.9915
2523.4375,-1.8566,-4.4951,-13.0454,5.6753,1.4946,-6.6426,-14.5530,3.6709,1.1330,-7.3768,-18.0766,0.1326,5.2363,7.6857,-11.9453,4.2376,12.6630,5.0804,-10.2464
2527.3438,-0.7333,-4.7938,-10.4968,6.9192,1.3081,-8.5647,-10.0273,5.4207,2.5385,-4.4972,-13.5441,-2.1121,5.6727,7.8543,-8.0730,0.8602,12.4613,7.1973,-8.5438
2531.2500,0.4709,-6.2209,-6.8486,10.1896,2.5060,-11.4807,-4.4230,9.6130,4.0781,0.4575,-8.7734,-7.0011,5.5996,9.2724,-4.6460,-3.7211,12.2153,10.0298,-5.8524
2535.1562,1.8487,-8.2253,-3.3768,13.7087,5.3637,-14.7414,-0.2882,13.9078,6.2677,4.0649,-5.7425,-12.4051,5.9520,11.6377,-3.1065,-7.6838,13.2012,11.7315,-3.0652
2539.0625,3.6729,-9.7480,-1.2816,15.7467,9.1723,-16.9931,0.8075,16.2413,9.1286,4.3159,-5.2206,-15.8259,7.2686,13.8511,-3.5891,-9.8201,15.5904,11.2249,-1.2197
2542.9688,6.2954,-9.9138,-0.5514,15.8640,12.5713,-16.9430,-0.2247,16.2537,12.1470,2.2205,-6.0049,-15.9871,9.2776,14.7668,-4.6517,-10.1657,18.2399,9.1823,-0.6107
2546.8750,9.6579,-8.6075,0.0781,15.0143,14.3011,-14.3316,-0.6112,15.2513,14.5474,0.8035,-5.8400,-13.5223,11.0430,13.8906,-4.3727,-9.7379,19.4442,7.5755,-0.5738
2550.7812,12.9417,-6.5000,2.0034,14.4628,13.9143,-10.3325,1.9984,14.8137,15.7467,2.3424,-3.2865,-10.3494,11.6020,11.5344,-1.9532,-9.6801,18.1312,8.0724,-0.1111
2554.6875,14.8517,-4.5339,5.4341,14.4689,12.0004,-6.9631,7.4554,15.2512,15.7268,6.1755,1.0251,-8.2697,10.6549,8.4095,1.5233,-10.4687,14.6579,10.5323,1.2083
2558.5938,14.4659,-3.2954,9.0406,13.8798,9.7871,-5.8413,12.9919,15.2155,15.0665,8.9493,4.8285,-7.8409,8.8000,5.0802,3.8634,-11.7015,10.6438,12.8395,2.8731
2562.5000,12.0025,-2.7553,10.9252,11.0241,8.3820,-7.1519,15.2203,12.7923,14.5607,7.1860,6.0196,-8.2773,7.1219,1.7379,3.4869,-12.5211,7.9611,12.2970,3.9159
2566.4062,8.8262,-2.5221,10.1464,5.2006,8.1469,-9.5706,12.7011,7.1825,14.6493,0.1431,4.3591,-8.3196,6.4206,-1.5916,0.7067,-12.2864,7.5908,7.5795,3.8313
2570.3125,6.6033,-2.3095,7.5382,-2.4596,8.5958,-11.1941,7.0707,-0.4038,15.0701,-9.3265,1.6859,-7.3091,6.6562,-4.7054,-2.4781,-10.9914,9.1228,-0.2106,3.1080
2574.2188,6.2317,-2.1684,5.1344,-9.4970,8.8544,-10.7948,1.8773,-7.3722,15.0504,-16.6257,0.4721,-5.6326,7.0388,-7.1411,-3.9057,-9.1764,11.1962,-8.1651,2.8802
2578.1250,7.3807,-2.2869,4.6545,-13.6462,8.3427,-8.5116,0.0729,-11.4063,13.9712,-18.5604,1.9048,-4.2712,6.7064,-8.4736,-2.8460,-7.4674,12.5038,-13.3968,3.9669
2582.0312,8.9707,-2.5858,6.2772,-14.2292,7.2010,-5.5521,2.1025,-11.8950,12.0249,-15.3886,5.0451,-3.9077,5.4641,-8.7206,-0.3955,-6.1335,12.6122,-14.7326,6.1209
2585.9375,10.1257,-2.5543,8.6635,-12.4025,6.1632,-3.2335,5.9552,-10.0945,10.2906,-10.3032,7.7063,-4.3525,3.9865,-8.4513,1.5726,-4.9961,12.0308,-13.1241,8.1546
2589.8438,10.7348,-1.5676,10.1481,-10.1612,5.9626,-2.1293,8.9363,-8.0327,10.0188,-6.9134,8.2685,-4.7326,3.2804,-8.4431,1.9482,-3.7336,11.5443,-10.6502,8.8719
2593.7500,11.1298,0.5229,10.0616,-8.9528,6.6897,-1.9180,9.6217,-7.1097,11.5411,-6.7753,6.9004,-4.2364,3.7946,-9.1392,1.1005,-2.3066,11.3707,-9.0126,8.0366
2597.6562,11.2082,3.0441,9.0883,-8.9591,7.5689,-1.9176,8.4857,-7.4530,13.6214,-8.8195,5.1969,-2.7687,4.8772,-10.3554,0.2229,-1.1339,10.8181,-8.6571,6.5494
2601.5625,9.8983,4.7806,8.4298,-9.4511,7.3585,-1.7650,6.9278,-8.3416,13.8861,-10.8698,4.5968,-0.9837,5.0641,-11.4776,-0.0235,-0.8362,8.7290,-9.0011,5.6626
2605.4688,5.6374,4.7682,8.5762,-9.7144,5.1570,-1.6655,5.7714,-9.1032,10.2351,-11.7622,4.9775,0.2932,3.0612,-11.9693,-0.2926,-1.7139,4.3988,-9.3186,5.8854
2609.3750,-2.3329,3.0265,8.8048,-9.6469,1.0992,-2.0666,4.6282,-9.6066,2.3638,-12.2189,4.6682,0.7321,-1.2690,-11.7414,-2.0068,-3.3671,-1.7069,-9.4075,6.5190
2613.2812,-12.8423,0.6362,7.8609,-9.5591,-3.5428,-3.1168,2.6192,-9.9928,-7.6951,-13.8264,1.9126,0.6801,-6.6605,-11.0811,-5.9262,-4.8092,-7.9911,-9.5314,6.2521
2617.1875,-22.8550,-0.9682,5.2149,-9.5089,-6.9848,-4.4149,-0.3428,-10.0854,-16.5193,-17.1436,-3.4363,0.7242,-11.1685,-10.2558,-11.1076,-5.0760,-12.5486,-9.8698,4.3445
2621.0938,-28.9076,-1.0029,1.7557,-8.9501,-7.9415,-5.2583,-3.0301,-9.2329,-21.2231,-20.7064,-9.4443,1.0474,-13.3821,-9.2180,-15.2572,-3.9311,-14.2491,-10.1481,1.4001
2625.0000,-29.0493,0.1161,-0.7582,-7.1442,-6.4033,-5.1468,-3.7602,-6.8768,-21.1161,-21.8927,-13.3278,1.1814,-13.2697,-7.7335,-16.3195,-2.1285,-13.3691,-9.8641,-0.9672
2628.9062,-23.9635,1.1181,-1.0964,-4.0026,-3.6705,-4.0920,-1.9741,-3.3481,-17.9766,-18.9847,-13.4708,0.4180,-12.0552,-5.8230,-14.0673,-0.9624,-11.3561,-8.8777,-1.3660
2632.8125,-16.4889,0.8817,0.3550,-0.5206,-1.5888,-2.4936,0.8756,-0.0416,-14.7569,-12.7044,-10.6471,-1.4446,-11.2356,-4.0432,-10.3890,-1.3554,-9.8900,-7.7167,0.2183
2636.7188,-9.8854,-0.6589,1.7583,1.7522,-1.4460,-0.7476,2.0498,1.4111,-13.6278,-5.8960,-7.4793,-3.6814,-11.4807,-3.2159,-7.9900,-3.1336,-9.8642,-7.1878,2.2957
2640.6250,-6.0520,-2.4122,1.1612,1.9004,-3.2282,1.0123,-0.5600,0.4245,-14.7124,-1.5487,-6.5552,-4.9894,-12.2321,-3.7189,-8.4937,-5.0688,-10.9421,-7.5657,2.9090
2644.5312,-4.8622,-2.9389,-2.0527,0.5011,-5.7147,2.7937,-6.8011,-1.8909,-16.3341,-0.7238,-8.6633,-4.4228,-12.2826,-4.9390,-11.4055,-5.7348,-11.9429,-8.1216,1.0322
2648.4375,-4.8992,-1.5803,-6.7610,-0.6789,-7.3484,4.3908,-14.2590,-3.4067,-16.4899,-2.0231,-12.4663,-2.2094,-10.8664,-5.4854,-14.6958,-4.5937,-11.7531,-7.5450,-2.7630
2652.3438,-4.8647,0.9497,-11.0447,-0.0439,-7.2993,5.2011,-19.9554,-2.5902,-14.4019,-2.9666,-15.7572,0.2424,-8.4036,-4.1745,-16.4622,-2.4833,-10.1322,-5.0355,-6.8678
2656.2500,-4.5495,2.9862,-13.6647,2.4688,-6.0059,4.4988,-22.4429,0.2068,-11.0130,-2.0943,-17.2003,1.2499,-6.3056,-1.0854,-16.3108,-1.0683,-7.8805,-1.1665,-9.9189
2660.1562,-4.7311,3.0686,-14.8478,5.2045,-4.8290,2.0229,-22.6584,2.9114,-8.1439,-0.0522,-17.1566,0.0643,-5.9624,2.2228,-15.4049,-1.5891,-6.2864,2.3148,-11.7313
2664.0625,-6.2540,0.9986,-15.7776,6.0646,-5.0624,-1.6045,-22.8909,3.3452,-7.0414,1.1818,-17.0289,-2.5181,-7.6600,3.6798,-15.2720,-3.8297,-6.2495,3.7494,-13.1408
2667.9688,-9.1359,-1.9841,-17.3073,4.2967,-6.9813,-5.0650,-24.7420,1.0683,-7.4609,0.2042,-17.8116,-4.6403,-10.2415,2.2511,-16.4590,-6.1352,-7.6673,2.9456,-14.9633
2671.8750,-12.4105,-4.0564,-19.0700,1.3326,-9.5849,-7.1148,-27.7625,-2.0681,-7.9432,-2.4401,-19.1441,-4.6669,-11.7841,-1.1132,-18.1687,-6.5638,-9.4724,1.5068,-17.0288
2675.7812,-14.7492,-4.1023,-19.7934,-0.1239,-11.2040,-7.4195,-29.8717,-3.2193,-6.9982,-4.6058,-19.6672,-2.3634,-10.8277,-3.9620,-19.1021,-4.3820,-10.2672,1.6993,-18.1760
2679.6875,-15.2899,-2.5231,-18.5453,1.8422,-10.5576,-6.8138,-29.1847,-0.7635,-4.2336,-4.3290,-18.3214,0.8713,-7.3033,-4.0232,-18.6810,-0.7885,-9.1341,4.6393,-17.2454
2683.5938,-14.0170,-0.9887,-15.7834,6.7377,-7.5487,-6.7345,-25.7022,4.3038,-0.5748,-1.5217,-15.4102,2.8866,-2.5402,-0.8713,-17.5336,1.7333,-6.1247,9.2194,-14.2185
2687.5000,-11.4852,-1.2978,-13.2099,11.8237,-3.2988,-8.1964,-21.4361,8.9682,2.5184,1.8883,-12.4645,2.1475,1.6069,3.7026,-16.8183,1.0392,-2.1725,12.7153,-10.4801
2691.4062,-8.2403,-4.1312,-12.4570,14.0409,0.5513,-11.0484,-18.8370,10.4024,4.1594,3.5403,-10.9956,-1.3606,3.8762,6.9550,-17.0143,-3.2097,1.4619,12.7215,-7.8991
2695.3125,-4.4793,-8.5489,-13.6753,12.2687,2.7738,-14.0632,-18.8126,8.0977,4.5950,2.6471,-11.2058,-6.2693,4.2226,7.1650,-17.3016,-9.2790,3.8534,8.9847,-7.4328
2699.2188,-0.2020,-12.5547,-15.2612,8.1765,3.1280,-15.8021,-19.9754,4.2487,4.8493,0.7264,-11.7895,-10.8145,3.6170,4.8259,-16.1481,-14.4692,4.8217,3.7074,-8.3966
2703.1250,4.3754,-14.3318,-15.0456,4.9869,2.2993,-15.6251,-19.7625,2.0774,5.8299,0.3867,-11.0408,-13.9096,3.2842,2.1567,-12.6615,-16.7915,4.9222,0.0415,-9.0242
2707.0312,8.6080,-13.3200,-12.0301,5.0907,1.3689,-14.1093,-16.5267,3.4008,7.6558,3.1128,-8.3539,-15.5595,3.9726,1.3505,-7.5536,-16.0373,5.0945,-0.1156,-7.8780
2710.9375,11.6792,-10.4538,-7.2404,8.3490,1.2345,-12.5825,-10.8947,7.3436,9.7061,7.8735,-4.8290,-16.4380,5.7097,2.9573,-2.8376,-13.5788,6.1823,2.6395,-4.9568
2714.8438,13.1563,-7.4668,-2.9480,12.3598,2.3088,-12.1293,-5.2811,11.1709,11.2530,11.7557,-2.4188,-17.0871,8.0649,5.6567,-0.4169,-11.1983,8.5424,5.8500,-1.5932
2718.7500,13.3832,-5.7793,-0.8553,14.4115,4.5353,-12.7984,-1.9617,12.5230,12.0758,12.1982,-2.2828,-17.4243,10.5731,7.5209,-0.6649,-9.9042,11.8751,7.1535,0.7506
2722.6562,13.3581,-5.7070,-0.7343,13.5298,7.5354,-13.5719,-1.2969,11.2235,12.5335,9.0619,-3.7257,-16.9222,12.9447,7.6463,-2.1493,-9.5760,15.3184,5.9942,1.7425
2726.5625,14.1486,-6.4588,-0.6748,11.0020,10.7130,-13.0937,-1.5662,9.2168,13.0871,4.8499,-4.6663,-15.2464,14.9664,6.7627,-2.7493,-9.5321,17.7717,3.7723,2.4013
2730.4688,16.2588,-6.8297,1.2173,9.0373,13.3201,-10.6217,-0.5402,8.7327,13.7571,2.8312,-3.3259,-12.7749,16.3086,6.3241,-1.2971,-9.3864,18.3460,2.3938,4.0713
2734.3750,19.3931,-6.0618,5.0680,8.7402,14.6179,-6.5448,2.5391,10.2274,14.0330,4.5036,0.2206,-10.5439,16.5294,6.9154,1.5499,-9.4228,16.7705,2.4805,7.0403
2738.2812,22.7482,-4.2915,8.9281,9.1093,14.1922,-2.1415,6.2510,11.8265,13.3362,8.3946,3.9474,-9.6393,15.3481,7.4281,3.8864,-10.2266,13.5577,2.7471,10.0441
2742.1875,25.5705,-2.3441,10.2548,7.8979,12.2765,1.2098,8.1976,10.7611,11.6206,11.1662,5.4063,-10.4896,12.9713,5.8366,4.1086,-11.9921,9.8103,1.0732,11.1810
2746.0938,27.5574,-1.0921,8.0402,3.6152,9.7953,2.8214,7.1415,5.6500,9.5596,10.1859,3.7137,-12.5759,10.1496,1.0230,2.1982,-14.1737,6.7256,-3.6108,9.5476
2750.0000,28.8456,-0.8610,3.8387,-3.0024,7.9678,2.9964,4.2833,-2.2170,8.1091,5.5570,0.3892,-14.7452,7.8343,-5.8779,-0.2625,-15.8005,5.0466,-10.1929,6.2175
2753.9062,29.6681,-1.2763,0.7756,-9.2983,7.6311,2.7074,2.5314,-9.6459,7.7753,0.0234,-1.7023,-15.8755,6.6341,-11.8625,-1.3272,-16.1565,4.7664,-15.9726,3.6455
2757.8125,29.9967,-1.6027,1.2322,-12.5758,8.7154,2.9215,4.2522,-13.7637,8.1866,-3.1701,-0.5525,-15.4327,6.4578,-14.0480,-0.1762,-15.2217,5.2568,-18.5538,3.8551
2761.7188,29.4553,-1.2871,5.0068,-12.0601,10.2642,4.0123,9.2778,-13.9591,8.3392,-2.7711,3.3525,-13.6043,6.6167,-11.7936,2.3025,-13.5152,5.7210,-17.5518,6.8193
2765.6250,27.5562,-0.3067,9.4326,-9.3813,11.0372,5.5874,14.8147,-12.0517,7.3436,-0.4078,7.2869,-11.0269,6.3167,-7.2673,4.2561,-11.5471,5.6533,-14.7653,10.3745
2769.5312,24.0662,0.8969,11.4032,-7.2171,10.2986,6.7840,17.4191,-10.6427,5.0935,0.8166,8.3082,-8.3765,5.1743,-3.9330,4.3061,-9.4348,4.9979,-12.6855,11.8222
2773.4375,19.2400,1.8072,9.7364,-7.2074,8.2403,6.8234,15.5436,-11.0332,2.3381,-1.1006,5.5303,-6.0896,3.3796,-4.0637,2.5519,-7.0445,3.9291,-12.5401,10.0038
2777.3438,13.7693,2.2345,6.0181,-8.8182,5.7443,5.5081,10.6662,-12.3794,0.1081,-5.3596,0.8905,-4.3004,1.4090,-7.1765,0.3983,-4.4829,2.4759,-13.4292,6.2049
2781.2500,8.4912,2.4343,3.2594,-10.0230,3.6805,3.3944,6.1045,-12.6857,-1.0545,-8.8876,-2.2180,-2.9117,-0.4534,-10.5832,-0.5904,-2.3798,0.3328,-13.2204,3.1386
2785.1562,4.0323,2.8711,3.4369,-9.1774,2.2822,1.5458,4.4441,-10.7175,-1.4832,-8.7105,-1.4434,-1.6916,-2.3825,-11.5886,0.1198,-1.5725,-2.9456,-10.4589,2.7873
2789.0625,0.5756,3.8149,5.8785,-6.5040,1.0691,0.9773,5.6087,-7.1976,-2.1233,-4.3395,2.7689,-0.3779,-4.8371,-9.5870,1.6986,-2.3818,-7.4918,-5.7380,4.8140
2792.9688,-2.1402,5.0732,7.7899,-3.9572,-0.6436,2.0686,7.0898,-4.2914,-3.8473,1.6701,7.4773,1.1728,-8.0750,-6.4174,2.6579,-4.1357,-12.7670,-1.4190,6.8260
2796.8750,-4.5976,6.0571,6.5136,-3.5914,-3.0716,4.2771,6.1259,-3.8302,-6.8601,5.4301,9.3567,2.8124,-11.7474,-4.7522,1.9867,-5.4792,-17.6195,0.0883,6.3027
2800.7812,-7.1625,6.1461,1.7300,-5.7914,-5.6664,6.3590,2.0626,-5.7670,-10.5822,4.4233,7.0292,4.0411,-14.9171,-5.8661,-0.1630,-5.3446,-20.7802,-1.8640,2.6583
2804.6875,-9.8080,5.1072,-4.1510,-8.8326,-7.4339,7.0378,-3.0207,-8.1512,-14.0177,-0.7937,1.8992,4.2074,-16.5312,-8.5922,-2.7018,-3.8205,-21.4945,-5.6666,-2.2124
2808.5938,-12.0763,3.2887,-7.7409,-10.1412,-7.6227,5.7634,-5.9431,-8.6434,-16.2910,-7.0897,-3.0486,2.9482,-16.0365,-10.2766,-4.4759,-2.1295,-19.8752,-8.6265,-5.3600
2812.5000,-13.3557,1.4550,-7.2113,-8.2349,-6.2535,3.0848,-5.0187,-6.3242,-16.9998,-11.0031,-5.4943,0.6150,-13.7098,-8.9145,-5.0785,-1.6119,-16.7570,-8.8640,-5.0616
2816.4062,-13.3618,0.3554,-3.6607,-3.7825,-4.0985,0.3444,-1.5372,-2.3243,-16.2487,-11.0391,-5.3543,-1.6653,-10.4787,-4.7203,-5.0199,-2.4788,-13.1734,-6.4692,-2.1571
2820.3125,-12.5343,0.2908,-0.2717,1.0418,-2.1492,-1.1796,1.0836,1.2104,-14.4736,-8.4081,-4.5675,-2.4617,-7.3663,0.1100,-5.2229,-3.3923,-9.8218,-3.1012,0.6074
2824.2188,-12.0295,0.9345,0.0592,4.3387,-0.9917,-1.1536,-0.1534,2.9295,-12.2437,-5.8436,-5.3956,-0.8338,-4.9467,3.1923,-6.3061,-2.3416,-6.8488,-0.4761,0.6976
2828.1250,-13.1903,1.5168,-3.2161,5.9148,-0.5485,-0.4813,-5.5450,3.3498,-10.1260,-5.5508,-8.6314,3.0386,-3.1690,3.7962,-8.2039,1.7599,-4.0299,0.9700,-2.3073
2832.0312,-16.7310,1.2621,-8.0871,7.2009,-0.3356,-0.7488,-12.4401,4.2954,-8.5767,-7.8366,-13.0836,7.8339,-1.6270,3.2440,-10.3341,7.9876,-1.1506,2.1748,-6.5093
2835.9375,-22.1409,-0.1768,-11.6946,9.7640,0.0198,-3.1377,-17.2013,7.1747,-7.8205,-11.2889,-16.6306,11.7383,-0.0361,3.5994,-12.0925,13.7476,1.7043,4.3140,-9.2977
2839.8438,-27.7698,-2.5363,-12.5595,13.6918,0.4272,-7.5364,-17.8506,11.5362,-7.7695,-14.1251,-17.9157,13.3740,1.4498,5.7949,-13.2580,16.3903,4.1193,7.4702,-9.4496
2843.7500,-31.6542,-5.1173,-11.5916,17.2402,0.4121,-12.4934,-15.3879,15.1414,-8.0878,-15.5255,-17.3279,12.4313,2.3106,8.7767,-14.0415,14.9365,5.5480,10.2874,-8.0461
2847.6562,-32.6267,-7.2100,-11.1628,18.0978,-0.4591,-16.0995,-12.8456,15.5736,-8.4194,-15.9616,-16.5599,9.6449,2.0618,10.3664,-14.8267,10.6411,5.5911,10.9494,-7.5051
2851.5625,-30.9885,-8.5153,-13.0591,15.2842,-2.1520,-17.2295,-12.8976,12.1525,-8.6248,-16.4513,-17.1834,6.2084,0.6946,9.1049,-15.8582,5.9996,4.2165,8.7050,-9.5359
2855.4688,-28.2506,-9.3036,-16.9483,10.1498,-4.0582,-16.2833,-15.8903,6.6493,-8.8081,-17.5119,-19.4059,3.0738,-1.1601,5.5395,-17.0960,2.9836,1.8652,4.6821,-13.6567
2859.3750,-26.0659,-10.2072,-20.5343,5.6314,-5.2827,-14.8971,-19.7346,2.2067,-9.0621,-18.7004,-21.9426,0.5853,-2.4688,1.8999,-18.2630,1.8425,-0.5770,1.2799,-17.4342
2863.2812,-25.0630,-11.7638,-21.2168,4.2829,-5.1269,-14.8122,-21.5925,1.2454,-9.1353,-19.0242,-23.0138,-1.4115,-2.3010,0.4418,-18.9705,1.3050,-1.9700,0.5555,-18.2330
2867.1875,-24.4120,-13.9935,-17.9490,6.5639,-3.4587,-16.6921,-19.9474,3.8985,-8.3657,-17.7621,-21.6207,-3.1931,-0.3058,1.8114,-18.8141,-0.1106,-1.2983,2.8242,-15.1010
2871.0938,-22.4769,-16.2866,-11.9174,10.6562,-0.7699,-19.7208,-15.4935,8.0926,-6.0627,-14.9835,-18.1389,-4.8524,3.1123,4.7229,-17.4466,-2.7945,1.8482,6.5297,-9.3753
2875.0000,-18.1378,-17.6984,-5.6452,13.8961,2.0810,-22.2515,-10.3356,11.1406,-2.1258,-11.4181,-13.8896,-6.2496,7.0103,7.1341,-14.7049,-5.7668,6.9302,9.4573,-3.6397
2878.9062,-11.8485,-17.4919,-1.3116,14.6875,4.2810,-23.0183,-6.3425,11.6136,2.6028,-7.9264,-10.1617,-7.1522,10.3875,7.8912,-10.7935,-7.5337,12.5388,10.3382,0.0733
2882.8125,-5.6308,-15.6002,0.4435,13.4571,5.4287,-22.0262,-4.0324,10.1394,6.6526,-5.0945,-7.4857,-7.3772,12.6608,7.4910,-6.3976,-7.2761,16.9988,9.6341,1.4551
2886.7188,-1.9265,-12.7178,0.4817,12.0207,5.6978,-20.4870,-2.7456,8.6559,8.8120,-3.2315,-5.6190,-6.8312,13.8822,7.4101,-2.5439,-5.3832,19.2380,8.9624,1.7015
2890.6250,-2.0483,-9.9540,0.1701,11.9755,5.7318,-19.8781,-1.6981,8.8121,8.9862,-2.5868,-4.0539,-5.5045,14.5933,8.6597,-0.1663,-2.9802,19.3897,9.6868,2.2765
2894.5312,-5.2876,-8.2522,0.3562,13.4272,6.3013,-20.8393,-0.8225,10.7594,8.3347,-3.3907,-2.4880,-3.5290,15.4107,10.8335,0.4231,-0.9733,18.6735,11.7992,3.7583
2898.4375,-9.3127,-7.9230,1.0822,15.0018,7.8656,-22.7140,-0.6348,13.1590,8.4809,-5.5690,-0.8721,-1.2891,16.5954,12.4365,-0.1981,0.5225,18.5502,13.9312,5.6434
2902.3438,-11.6063,-8.5531,2.0484,15.0240,10.2652,-24.0430,-1.3561,14.2544,10.3093,-8.4243,0.8527,0.5698,17.8638,12.1677,-0.8141,1.9340,19.6879,14.4148,7.0890
2906.2500,-10.9680,-9.3093,3.2029,12.8500,12.7533,-23.6119,-2.2410,13.1027,13.2528,-10.7427,2.9068,1.3809,18.5678,10.0311,-0.2714,3.5020,21.4786,12.5178,7.7996
2910.1562,-8.0726,-9.4182,4.8340,9.3041,14.4126,-21.2699,-1.8742,10.0730,15.6691,-11.4578,5.4505,0.8743,18.1401,7.3324,1.7833,4.8314,22.5013,8.9048,8.2496
2914.0625,-4.7485,-8.5297,7.1163,5.9569,14.7439,-17.9507,0.7211,6.3852,16.0829,-10.4447,8.1835,-0.5315,16.5221,5.5901,4.6257,5.1696,21.6350,5.0427,9.1146
2917.9688,-2.5508,-6.7897,9.6406,3.9078,14.0391,-14.9403,5.1294,3.1975,14.3666,-8.7594,10.2486,-1.8740,14.2800,5.3014,6.8752,4.1497,19.0019,2.0975,10.5180
2921.8750,-1.6811,-4.6550,11.4949,3.0602,13.2312,-12.9795,9.6611,0.9804,11.9203,-7.9871,10.7118,-2.2383,12.2993,5.5965,7.3861,2.2706,15.9892,0.2100,11.8329
2925.7812,-1.0255,-2.6203,11.9375,2.3981,13.2503,-11.8562,12.5573,-0.4555,10.6517,-9.0927,9.3454,-1.4120,11.2305,5.0334,6.0332,0.6207,14.2743,-1.3407,12.2357
2929.6875,0.7587,-1.0236,11.0978,0.9333,14.3003,-10.7282,13.3210,-1.4905,11.4999,-11.6585,7.0488,-0.0745,11.0526,2.8254,3.8441,0.0520,14.5492,-3.3209,11.4906
2933.5938,3.9521,0.0153,10.0250,-1.4944,15.6010,-8.8623,13.0293,-2.2917,13.6394,-14.1767,5.4191,0.7080,11.0725,-0.5267,2.3509,0.5400,15.9272,-5.7988,10.2190
2937.5000,7.2667,0.5608,9.9231,-4.1700,15.8544,-6.2120,13.3046,-2.7912,15.0096,-15.2477,5.6502,0.3583,10.3937,-3.6707,2.5635,1.3201,16.5339,-8.0725,9.3737
2941.4062,8.5285,0.7894,11.1325,-6.1387,14.1686,-3.4489,14.7741,-2.9374,13.7901,-14.7662,7.5576,-0.6508,8.5525,-5.4617,4.2570,1.6804,14.8879,-9.2727,9.3692
2945.3125,6.0795,0.8890,12.7066,-6.9208,10.7835,-1.5101,16.3436,-2.8672,9.6973,-14.1128,9.5370,-1.0758,5.8687,-5.7101,6.0750,1.6665,11.0400,-9.0993,9.6623
2949.2188,-0.0959,0.9285,13.0081,-6.7277,7.0238,-1.0519,15.9891,-2.7852,4.1041,-15.1257,9.5949,0.0956,3.2343,-5.0402,6.4133,2.0065,6.5808,-8.0870,9.1975
2953.1250,-8.2987,0.7455,10.9285,-6.1106,4.4438,-2.1758,12.5041,-2.6908,-1.0863,-18.6099,6.7428,2.6585,1.4581,-4.1086,4.5055,3.2732,3.4678,-7.2232,7.3629
2957.0312,-16.1116,-0.0333,6.7931,-5.4627,3.7397,-4.4980,6.7832,-2.2942,-4.8995,-23.5514,1.7140,5.0527,0.6255,-2.9873,0.9743,5.0569,2.5367,-7.2700,4.6153
2960.9375,-21.7281,-1.7568,2.2253,-4.8526,4.2244,-7.3584,1.5133,-1.2956,-7.9003,-27.6821,-3.5445,5.3167,-0.0388,-1.3056,-2.5342,6.0026,2.8285,-8.3301,2.1869
2964.8438,-24.7035,-4.3734,-0.9518,-4.2663,4.2793,-9.9551,-0.6079,0.1844,-11.4713,-28.9801,-7.2070,2.5312,-1.6573,1.0237,-4.3926,4.8437,2.2717,-9.9309,1.0754
