Time,Fp1,F3,C3,P3,O1,F7,T3,T5,Fz,Fp2,F4,C4,P4,O2,F8,T4,T6,Cz,Pz
0.0000,9.9232,0.7750,2.1667,10.8361,5.3673,-3.2168,14.2174,4.8664,-13.2047,7.0493,7.0578,4.7476,8.5687,5.3654,1.4825,3.9025,9.0167,11.5056,-2.0685
3.9062,2.7509,0.6836,-1.1006,7.6491,0.2765,-2.8790,-11.3364,2.3446,-5.8935,3.7603,1.2065,1.0858,4.9373,5.5845,-7.8681,-3.0840,7.4716,10.5318,-7.2053
7.8125,-6.7675,3.0739,-7.9506,2.9789,-6.6534,-2.7656,-33.4470,0.7816,0.2940,1.6739,-6.8053,-2.1571,-0.9216,6.1743,-15.7225,-6.3173,4.4078,8.5793,-13.0158
11.7188,-14.5938,5.6669,-16.1338,-0.3257,-12.1352,-5.9320,-47.4165,2.1958,1.8465,3.0385,-14.9351,-4.9681,-6.3465,8.2645,-19.4355,-5.2672,1.3179,6.8348,-17.9255
15.6250,-17.8321,5.3238,-22.1826,0.0093,-13.2377,-13.2616,-54.1876,7.0908,-1.8191,7.5087,-21.2212,-7.7883,-8.7615,12.1240,-18.8844,-2.8384,-0.0628,5.9745,-20.6207
19.5312,-16.6279,0.1882,-23.3328,3.9140,-9.1621,-21.7912,-57.8536,13.6711,-8.2894,11.9791,-24.5953,-10.9744,-7.2838,16.7222,-15.9399,-3.0464,1.1694,5.4633,-20.4328
23.4375,-13.9291,-8.8822,-19.2139,8.7998,-1.7071,-26.0728,-60.9113,18.6075,-14.0634,12.6211,-25.1016,-14.3544,-3.1930,20.2997,-12.6881,-7.6891,4.4840,3.9068,-17.4713
27.3438,-13.2488,-18.5937,-12.1205,11.2619,5.9091,-22.0239,-61.4004,19.0492,-16.8699,7.7156,-23.5228,-17.2275,1.0653,21.5991,-9.9657,-14.6847,8.2250,0.3053,-12.5249
31.2500,-16.0519,-25.0313,-5.5726,9.4996,11.0467,-10.5216,-54.5022,14.5728,-16.7128,-0.8592,-20.7775,-18.7941,3.5838,20.8236,-7.3382,-19.5013,10.6273,-4.7568,-6.7815
35.1562,-20.6792,-25.8290,-2.0811,4.6499,13.0662,2.2319,-37.4347,7.6270,-15.1261,-8.7065,-17.5163,-18.6836,4.1349,19.5194,-4.3050,-18.6585,10.8290,-9.0492,-1.4416
39.0625,-23.5839,-21.3648,-1.6583,-0.0343,13.2313,8.3631,-13.5901,1.9960,-13.5513,-11.8587,-14.1007,-17.1926,3.9459,19.3833,-1.4453,-12.5900,9.1890,-10.0353,2.6518
42.9688,-21.9434,-14.3745,-2.1381,-1.6149,13.3054,3.7160,7.7914,0.2509,-12.2742,-9.4524,-10.8168,-15.0919,4.3935,20.8717,-0.3263,-5.5816,6.7692,-6.7532,5.2215
46.8750,-15.7044,-8.3895,-1.0595,0.3131,14.0215,-8.9025,16.7278,1.9987,-10.6539,-4.1548,-8.0275,-13.1762,5.7509,22.7241,-2.1601,-2.7497,4.4811,-0.8126,6.5059
50.7812,-7.5862,-6.0022,2.3115,3.3388,14.6413,-21.2220,8.9080,4.2719,-8.1581,-0.0482,-6.0848,-11.8830,7.0404,22.8579,-6.3837,-6.3218,2.6174,4.3989,6.9972
54.6875,-1.1201,-7.8496,6.3834,4.1522,13.8962,-24.9755,-11.2525,3.8563,-5.0688,0.4043,-5.0811,-11.2048,7.0891,20.0214,-10.5022,-14.0194,1.0936,5.9015,7.1465
58.5938,1.7404,-12.6266,8.5505,1.2018,11.4422,-17.5694,-33.2094,-0.1470,-2.1776,-1.9813,-4.6944,-10.8748,5.8341,14.9184,-11.5241,-20.7199,0.0579,3.1794,7.2196
62.5000,1.6593,-17.8833,7.3946,-4.0021,8.5146,-3.9026,-46.7188,-5.5167,0.1469,-4.0372,-4.3204,-10.6324,4.6600,9.8437,-7.9841,-22.0807,0.1624,-1.4474,7.3445
66.4062,0.9290,-21.1353,3.9953,-8.0325,7.1077,6.9932,-47.5898,-8.5991,2.4747,-2.9825,-3.4495,-10.3772,5.3286,6.9842,-1.0186,-17.4063,2.0808,-4.5229,7.6130
70.3125,1.3556,-20.8756,1.2033,-8.3151,8.2546,8.0745,-38.9740,-7.3066,5.7407,1.1697,-2.0324,-10.1601,8.2862,6.6306,6.3262,-9.7536,5.5886,-4.0592,8.0583
74.2188,2.7396,-17.2034,1.3413,-5.3651,10.8297,-1.2108,-27.8607,-3.1068,9.9992,5.3895,-0.5580,-10.0925,11.7861,6.7272,11.0137,-3.4504,9.0688,-1.1274,8.4841
78.1250,3.1335,-11.8430,4.1406,-2.6475,12.0101,-15.1084,-19.8826,-0.2956,13.7123,5.7559,0.2325,-10.2708,12.7510,4.2559,11.7445,-1.0849,10.1296,0.8155,8.3444
82.0312,0.6072,-7.4346,6.6891,-4.0177,9.2745,-25.9682,-16.3580,-2.8517,14.4819,0.3255,-0.1877,-10.7460,8.9531,-2.4429,9.3342,-2.1887,7.1656,-1.5392,6.9275
85.9375,-4.9416,-6.2612,5.6724,-10.6118,2.5297,-29.3800,-15.2816,-11.1081,10.9098,-9.3848,-1.7974,-11.5030,0.9428,-12.1134,5.7110,-4.3053,0.8060,-8.7839,3.8819
89.8438,-11.4171,-8.9802,0.3182,-19.6005,-5.3130,-26.2792,-14.6819,-20.8381,4.1459,-19.3554,-4.0441,-12.4265,-7.8307,-21.0393,2.5060,-5.2531,-5.9567,-18.1161,-0.2369
93.7500,-15.9283,-14.1313,-6.3076,-25.9004,-9.9575,-20.8832,-15.0727,-25.7300,-2.3095,-25.7110,-6.1832,-13.2921,-13.0193,-25.3379,0.3090,-4.6634,-9.3413,-25.1291,-3.9002
97.6562,-16.8903,-18.8819,-8.9562,-25.7268,-8.5621,-16.6342,-18.8496,-21.7375,-4.7163,-27.1372,-7.7018,-13.8447,-12.2168,-23.5427,-1.0994,-3.7440,-7.1720,-26.8366,-5.2867
101.5625,-15.1938,-20.7115,-3.9119,-19.4219,-1.8269,-13.6951,-27.3290,-10.2610,-1.7118,-25.4188,-8.5485,-13.9523,-6.6435,-17.6397,-2.0891,-3.8089,-0.4663,-23.7542,-3.4289
105.4688,-13.5196,-19.0050,7.8388,-11.4394,6.2199,-9.9535,-38.2475,2.2449,4.5561,-23.8784,-9.0465,-13.7304,-0.4150,-11.7714,-2.8463,-5.0401,6.9954,-19.5150,0.9262
109.3750,-14.2973,-15.4417,20.4510,-7.4040,10.7038,-4.3346,-46.2023,8.2030,9.7912,-24.9557,-9.5799,-13.4989,2.1635,-9.4705,-3.5696,-6.5257,10.9659,-18.2744,5.4576
113.2812,-17.8344,-12.8084,26.5244,-10.2900,9.0110,0.8323,-46.0645,3.8223,10.5649,-28.6312,-10.2821,-13.5468,-0.5789,-11.3350,-4.7429,-7.3436,9.3986,-21.7571,7.5139
117.1875,-22.0145,-12.9927,21.8048,-18.4072,2.4176,0.8773,-36.8677,-8.3495,6.8278,-32.6446,-10.9267,-13.8539,-6.6767,-14.7378,-6.9342,-7.5328,3.6740,-28.0432,5.7567
121.0938,-23.7835,-15.5830,8.0862,-26.5739,-4.8369,-7.2260,-23.1301,-20.9916,2.0469,-34.1497,-11.0750,-14.0016,-11.9883,-15.7237,-10.1357,-7.9948,-2.4495,-32.9196,1.1081
125.0000,-21.3342,-18.1447,-7.7598,-29.5902,-8.3468,-21.1956,-12.4234,-26.6475,0.8067,-31.5580,-10.3718,-13.4047,-13.0307,-11.7215,-13.2972,-9.4462,-5.4065,-32.7883,-3.7142
128.9062,-15.4233,-18.0420,-18.0472,-25.5588,-6.2846,-33.4852,-10.7730,-22.3207,5.5749,-25.3920,-8.8040,-11.7507,-9.2009,-3.2009,-14.7084,-11.4674,-4.1252,-27.0643,-5.8522
132.8125,-8.9314,-14.4954,-18.9742,-16.8387,-0.3149,-35.7034,-19.0326,-11.0464,14.9308,-17.7882,-6.7735,-9.3393,-2.9419,6.7713,-13.1619,-12.6205,-0.5154,-18.4492,-4.0818
136.7188,-5.0536,-9.3283,-12.6195,-8.1929,5.7522,-24.5545,-32.6140,0.3937,24.4698,-11.1892,-4.9453,-7.0354,2.0790,14.5995,-9.0103,-11.6225,2.0652,-11.0323,0.4837
140.6250,-5.4299,-5.7777,-5.0276,-3.6408,8.4642,-4.9110,-44.5491,5.8447,29.6574,-7.1310,-3.9465,-5.8075,3.3608,18.3064,-4.1391,-8.5577,1.1679,-7.6742,5.2244
144.5312,-9.4462,-6.1867,-1.8872,-4.2455,6.6467,12.5751,-49.6718,3.2493,28.5861,-5.7690,-4.0613,-6.1268,0.8794,18.3145,-0.7069,-5.0191,-3.2414,-8.4885,7.7733
148.4375,-14.9995,-10.2546,-4.8666,-8.1468,1.6173,18.0405,-47.2230,-4.8694,22.8037,-6.2036,-5.0697,-7.6309,-3.3888,16.5386,0.4021,-2.9703,-9.0504,-11.2931,7.4745
152.3438,-19.9813,-15.1466,-11.0132,-12.4186,-4.1288,8.7743,-40.5371,-13.7787,15.8782,-7.2177,-6.3139,-9.2901,-7.1094,14.6972,0.1139,-3.2364,-13.6385,-13.4383,5.5704
156.2500,-23.3494,-17.4070,-15.3287,-15.1234,-8.6025,-8.9935,-34.4670,-19.7526,10.9524,-7.9428,-6.9812,-9.9769,-9.0731,13.1915,0.1715,-4.8816,-15.5749,-13.5412,4.0946
160.1562,-25.1446,-15.3037,-14.4292,-16.0861,-11.1973,-24.0989,-32.4302,-21.8774,9.0598,-8.1475,-6.4823,-9.0674,-9.5362,11.2850,1.4218,-5.9976,-15.2127,-11.9447,4.3595
164.0625,-25.7080,-9.9332,-8.6534,-16.1284,-12.4030,-27.4807,-34.7734,-21.5459,9.1721,-8.1059,-4.7472,-6.7053,-9.4458,8.2165,2.8958,-5.2499,-13.9794,-9.8378,6.1424
167.9688,-24.9325,-4.3447,-1.3553,-15.7474,-12.9138,-17.5138,-39.0358,-20.5314,9.5706,-8.1964,-2.2836,-3.6118,-9.4009,4.1795,2.5843,-2.9138,-13.1351,-7.9857,8.0651
171.8750,-22.2417,-1.3830,3.7502,-14.5111,-13.0005,-0.2864,-41.5803,-19.4003,9.2768,-8.4747,0.0409,-0.6359,-9.2444,0.3137,-0.6614,-0.5861,-13.0167,-6.1759,8.7427
175.7812,-17.2881,-1.8267,5.0447,-11.6565,-12.5863,14.9366,-39.5933,-17.4452,8.4967,-8.4766,1.3863,1.6269,-8.5091,-2.2481,-5.7646,0.1188,-13.2182,-3.7464,7.7485
179.6875,-10.7179,-4.0919,3.5573,-7.2503,-11.7528,21.6474,-32.5855,-13.9208,7.9938,-7.4106,1.2870,2.9317,-7.1844,-3.4257,-9.9258,-1.2285,-13.3237,-0.5996,5.6921
183.5938,-4.2686,-5.5814,1.5369,-2.7618,-11.0446,19.4254,-22.8630,-9.3080,8.1532,-4.6937,-0.2208,3.2385,-6.0404,-4.3969,-10.7708,-3.7288,-13.4233,2.2854,3.4689
187.5000,0.0050,-4.5967,0.4584,-0.3993,-11.1946,12.8570,-14.7425,-5.4184,8.5890,-0.5364,-2.7368,2.5329,-6.1880,-6.7265,-8.4145,-6.0699,-13.9560,3.3660,1.3957
191.4062,0.8778,-1.4417,0.0885,-1.6174,-12.4823,7.4160,-12.6388,-4.1971,8.5302,3.8385,-5.7771,0.7986,-8.2306,-11.0704,-5.6118,-7.6149,-15.0975,1.7017,-1.0256
195.3125,-1.3397,1.9393,-0.8385,-5.9420,-14.3154,5.5528,-18.7049,-6.1884,7.5112,6.6068,-8.9990,-1.8601,-11.7150,-16.4734,-5.6683,-8.7131,-16.3338,-2.1849,-4.5471
199.2188,-5.0469,3.3556,-3.1632,-11.0694,-15.4657,5.6478,-31.2267,-9.9148,5.7022,6.2549,-12.2376,-5.1056,-15.3369,-20.8316,-9.7021,-10.0488,-16.6757,-6.5002,-9.3316
203.1250,-8.3753,1.7143,-6.4325,-14.2462,-14.8440,4.1302,-44.9571,-12.7031,3.6285,2.4845,-15.3791,-8.4255,-17.7486,-22.2078,-15.5434,-11.7279,-15.3778,-9.3499,-14.5645
207.0312,-10.2796,-2.5536,-9.3344,-13.9755,-12.2379,-1.2087,-53.6601,-12.3929,1.6123,-3.4731,-18.2234,-11.3644,-18.3617,-20.0499,-19.3292,-13.0051,-12.5594,-10.0313,-18.8683
210.9375,-10.9803,-8.0603,-10.9378,-10.8603,-8.4535,-9.2883,-53.6752,-8.7164,-0.5032,-9.3850,-20.4807,-13.7610,-17.5781,-15.4564,-18.6382,-12.9275,-9.1900,-9.4729,-21.1964
214.8438,-11.5431,-13.3973,-11.5396,-7.0419,-4.7672,-16.4993,-46.3163,-3.4168,-3.0931,-13.1009,-21.9185,-15.7897,-16.3466,-10.3601,-14.6309,-11.2997,-6.4316,-9.4773,-21.4923
218.7500,-12.9800,-17.7061,-12.3061,-4.6940,-2.1192,-19.3959,-37.3134,0.9198,-6.2174,-13.5505,-22.5196,-17.7460,-15.4336,-6.2711,-11.3417,-9.0623,-4.8570,-11.3120,-20.5964
222.6562,-15.5286,-20.6211,-13.9998,-4.6497,-0.6387,-17.2449,-33.3175,2.4850,-9.3269,-11.0878,-22.4818,-19.7173,-14.9404,-3.4759,-12.5413,-7.6989,-4.1466,-14.6751,-19.4868
226.5625,-18.5441,-21.8898,-15.9318,-6.0486,0.2156,-12.5961,-37.5746,1.2735,-11.4976,-7.0669,-22.0140,-21.3840,-14.3400,-1.1659,-18.6198,-8.1622,-3.4532,-17.7757,-18.4670
230.4688,-20.9511,-21.1866,-16.1478,-7.1100,1.1092,-9.5243,-47.6823,-1.0460,-12.0063,-3.0166,-21.0762,-22.1161,-12.9017,1.7366,-26.0217,-10.2467,-2.0842,-18.4674,-16.9346
234.3750,-21.8397,-18.3508,-12.8336,-6.3822,2.3546,-10.8018,-57.0879,-2.2150,-10.7678,0.0418,-19.3039,-21.3261,-10.1445,5.7399,-29.7719,-12.9245,0.0600,-15.6368,-13.8990
238.2812,-20.7968,-13.8235,-5.8850,-3.6053,3.8368,-15.9360,-59.4237,-0.7067,-8.2925,1.8015,-16.2536,-18.8615,-6.0472,10.4977,-27.1452,-15.2916,2.5816,-9.9160,-8.8423
242.1875,-17.8768,-8.8244,2.6166,0.2710,5.2860,-21.3830,-52.7169,3.4344,-5.2508,2.4537,-11.8485,-15.1894,-0.9947,15.1372,-19.5967,-17.2242,5.0244,-3.3001,-2.2742
246.0938,-13.4215,-4.9953,9.4668,3.7482,6.5657,-22.8236,-40.5400,8.5886,-2.0485,2.3386,-6.6974,-11.2546,4.3851,18.8029,-11.4712,-19.1363,7.1981,1.9973,4.4091
250.0000,-7.9826,-3.6576,12.2171,5.5696,7.6996,-18.0747,-29.3532,12.2961,1.2387,1.7252,-1.9757,-8.0875,9.3597,20.9696,-6.6001,-21.1028,9.1027,4.6670,9.6404
253.9062,-2.3843,-5.1360,10.5523,5.1747,8.6618,-8.7952,-24.0603,12.3546,4.5879,0.7766,1.1641,-6.3674,13.2093,21.3943,-5.5586,-22.2617,10.5913,4.7438,12.4729
257.8125,2.2873,-8.5670,6.2743,2.7150,9.2051,0.1484,-25.0620,7.8288,7.7431,-0.3923,2.3181,-6.1581,15.3937,19.9386,-5.7315,-21.2203,11.1797,3.2403,12.9649
261.7188,4.9893,-12.2931,2.0531,-1.1642,8.9581,3.3917,-28.8837,-0.4287,10.2448,-1.6537,2.1882,-6.9309,15.7616,16.5619,-3.9632,-17.2792,10.2821,1.3727,11.9977
265.6250,5.2756,-14.6021,-0.0706,-5.5478,7.7439,-1.6894,-31.6637,-9.9915,11.7715,-2.8065,2.2349,-7.8489,14.6626,11.5309,0.5498,-11.4514,7.7264,-0.0640,10.7316
269.5312,3.7330,-14.4290,0.5386,-9.4294,5.8177,-13.1653,-32.5782,-17.8033,12.4679,-3.5115,3.7518,-8.1785,12.8020,5.5830,5.5783,-6.2659,4.0840,-0.8651,10.0388
273.4375,1.8730,-11.7317,3.3021,-11.9422,3.7534,-25.3552,-34.3756,-21.5119,12.9117,-3.2957,6.9162,-7.6380,10.8473,-0.2542,7.8928,-4.2739,0.4435,-1.2157,10.1637
277.3438,1.3741,-7.4545,7.0755,-12.6866,2.0178,-31.9041,-40.5530,-20.5728,13.6858,-1.7544,10.4697,-6.5198,9.0229,-5.1947,6.1749,-6.2733,-2.2842,-1.4247,10.6770
281.2500,3.0618,-3.1459,10.6052,-12.0055,0.5843,-29.3751,-51.4932,-16.5112,14.8940,1.0542,12.3302,-5.5149,7.0104,-9.2051,2.2421,-10.6139,-4.0064,-1.8191,10.6920
285.1562,6.3043,-0.3741,12.6229,-10.9456,-1.0406,-19.2058,-62.8768,-12.1158,16.0445,4.2693,10.8358,-5.3086,4.2852,-13.0297,-0.4917,-14.1964,-5.4823,-2.7729,9.2824
289.0625,9.3059,-0.1170,11.9616,-10.7789,-3.3242,-6.8226,-68.0214,-9.9506,16.4384,6.3265,5.8662,-6.1523,0.6888,-17.5828,0.0082,-14.5054,-7.6491,-4.6843,6.0072
292.9688,10.1897,-2.3423,8.0852,-12.2815,-6.1179,1.5457,-62.6885,-11.0243,15.7742,5.6600,-0.8967,-7.6614,-3.1916,-23.0770,2.5792,-11.2350,-10.7131,-7.7778,1.3370
296.8750,8.1944,-5.9864,1.8554,-15.2175,-8.4887,2.3742,-48.7532,-14.4053,14.4803,1.6910,-6.7978,-8.9959,-6.1760,-28.5417,3.8134,-6.3829,-13.7206,-11.8297,-3.3135
300.7812,4.1761,-9.4160,-4.2248,-18.4245,-9.2125,-3.4784,-33.7038,-17.9927,13.4853,-4.5958,-9.6642,-9.3615,-7.1503,-32.1754,1.0080,-2.8452,-15.0079,-16.0731,-6.1345
304.6875,0.0622,-11.2104,-6.9560,-20.5179,-7.6482,-11.8211,-25.9388,-19.9114,13.5880,-11.0503,-9.0068,-8.5558,-5.8184,-32.3850,-5.4076,-2.6026,-13.2801,-19.4645,-5.9025
308.5938,-2.3825,-10.8762,-4.3646,-20.7881,-4.3587,-18.0173,-29.0524,-19.6042,14.9039,-15.6236,-6.2271,-7.2115,-3.0260,-28.8300,-12.0834,-5.7556,-8.5840,-21.2306,-2.8546
312.5000,-2.6397,-9.0800,2.6178,-19.6853,-0.9603,-19.6857,-39.2831,-17.9341,16.8067,-17.6660,-3.7110,-6.5417,-0.3944,-22.7391,-15.4781,-10.8927,-2.4824,-21.3569,1.1868
316.4062,-1.6496,-7.2358,10.1400,-18.5330,0.7831,-17.5167,-48.1700,-16.3215,18.3907,-18.2533,-3.3958,-7.6957,0.5371,-16.2507,-14.8162,-16.2545,2.7180,-20.6584,3.7065
320.3125,-1.0573,-6.6732,13.5131,-18.6342,0.0408,-13.9770,-48.6860,-15.6100,19.0803,-19.1976,-5.7141,-11.0952,-0.8707,-11.2135,-12.7403,-20.7120,5.1815,-20.3311,2.9864
324.2188,-2.0685,-7.8867,10.2436,-20.3655,-2.5741,-11.1667,-40.4707,-15.5026,18.9243,-21.4427,-9.5523,-16.1570,-4.0876,-8.2529,-13.0495,-23.9613,4.4248,-21.2426,-0.7403
328.1250,-4.7237,-10.3122,1.9265,-22.8805,-5.4355,-9.5269,-30.2831,-14.9407,18.3872,-24.1376,-13.1776,-21.5817,-7.8401,-6.6986,-17.3909,-26.1015,1.3448,-23.4212,-5.3186
332.0312,-8.0422,-12.7326,-6.5329,-24.6363,-6.9930,-8.2086,-27.1763,-13.0764,17.8527,-25.2408,-15.4584,-26.0261,-10.9335,-5.3421,-23.7015,-27.2024,-2.5309,-26.0788,-7.9941
335.9375,-10.8285,-14.0153,-10.0687,-24.3896,-6.7748,-6.4972,-35.7593,-10.0566,17.2639,-23.2934,-16.5373,-28.7411,-12.9353,-3.4205,-27.7642,-27.2685,-6.0135,-28.1398,-7.2234
339.8438,-12.4854,-13.7127,-6.8866,-21.9876,-5.6252,-4.8894,-52.4097,-7.0076,16.1840,-18.9439,-17.5251,-29.7872,-14.3023,-1.1156,-26.6373,-26.4649,-8.8104,-28.9007,-3.7454
343.7500,-13.2470,-12.1998,0.2757,-18.4252,-5.0359,-4.8426,-67.2962,-5.2379,14.2158,-14.8484,-19.4748,-29.7366,-15.9077,0.7281,-21.1127,-25.1767,-11.3919,-28.3708,-0.1213
347.6562,-13.7549,-10.3577,6.0502,-15.1532,-6.0643,-7.4390,-70.9384,-5.2771,11.4352,-13.7965,-22.3980,-29.1163,-18.3086,1.3682,-15.1368,-23.7065,-14.3659,-27.0896,1.0010
351.5625,-14.4083,-9.0724,6.2137,-13.1415,-8.5963,-12.1792,-60.7471,-6.4956,8.4967,-16.4086,-25.0523,-28.0056,-21.2468,0.7837,-12.6368,-21.9037,-17.8530,-25.6079,-1.2792
355.4688,-15.0459,-8.8470,0.6355,-12.3538,-11.4540,-17.0149,-42.9342,-7.6056,6.3244,-20.2820,-25.6847,-26.0704,-23.7157,-0.3225,-14.3656,-19.2216,-21.2915,-24.0511,-5.4757
359.3750,-15.1755,-9.6663,-6.7293,-11.9779,-13.2460,-19.6708,-28.4236,-7.6796,5.6019,-21.4757,-23.2399,-22.9837,-24.5665,-1.1070,-17.3776,-15.3330,-23.7791,-22.1008,-8.7436
363.2812,-14.4833,-11.0641,-10.7673,-11.1978,-13.3524,-19.1980,-25.6127,-6.9219,6.3976,-17.3971,-18.1978,-18.8999,-23.2786,-1.2888,-17.5783,-10.8287,-24.7076,-19.3868,-8.8649
367.1875,-13.1313,-12.2836,-8.8695,-9.9059,-12.3605,-16.4981,-35.0106,-6.5963,8.1560,-8.9210,-12.4379,-14.6011,-20.4015,-1.4271,-13.2409,-7.2787,-24.2701,-15.9539,-5.7888
371.0938,-11.5658,-12.4794,-2.6311,-8.8024,-11.6621,-13.4220,-49.3739,-8.1176,10.0343,-0.0057,-8.1754,-11.1642,-17.3548,-2.5667,-6.5741,-6.3765,-23.4993,-12.3999,-1.6358
375.0000,-10.0218,-10.9736,3.5871,-8.8021,-12.4979,-11.2363,-59.0365,-11.9258,11.3686,5.0672,-6.6494,-9.3390,-15.6546,-5.4949,-2.0236,-8.7005,-23.7650,-9.5403,0.8249
378.9062,-8.2004,-7.5477,6.0299,-10.1971,-15.0950,-9.7525,-58.5281,-16.9377,12.0016,4.8146,-7.4183,-9.0468,-16.0027,-10.1170,-2.6738,-13.0818,-25.9675,-7.8326,0.1202
382.8125,-5.4679,-2.6528,4.2263,-12.2344,-18.4653,-7.8101,-49.8635,-20.9979,12.3053,1.6407,-8.7235,-9.3494,-17.7962,-15.3481,-7.6829,-17.1825,-29.8597,-7.0041,-2.9502
386.7188,-1.4747,2.6267,0.9704,-13.4817,-20.9798,-4.6268,-40.4613,-22.0807,12.9014,-0.0105,-8.6817,-8.9508,-19.3934,-19.5658,-12.8545,-18.9240,-33.9092,-6.2040,-5.9805
390.6250,3.3006,6.9206,-0.2578,-12.7742,-21.3292,-0.7949,-37.5434,-19.4895,14.2269,2.9179,-6.5285,-6.9508,-19.0236,-21.3274,-13.9180,-17.6689,-35.8594,-4.6133,-6.7531
394.5312,7.5652,9.0955,1.6975,-10.0827,-19.2496,1.9610,-43.2218,-14.2965,16.1716,9.6957,-3.1214,-3.4106,-15.8183,-19.9467,-9.9265,-14.2423,-33.7721,-2.1019,-4.8514
398.4375,9.8465,8.6689,4.6335,-6.6667,-15.5788,2.0521,-53.6648,-8.7527,17.9891,16.2631,-0.4152,0.5992,-10.3427,-15.6703,-4.1091,-9.8802,-27.0365,0.5383,-1.9537
402.3438,9.3104,5.8793,4.7266,-4.3604,-11.6608,-0.7924,-62.5337,-5.0483,18.5632,18.1778,-0.2917,3.4853,-4.3071,-9.4549,-1.5442,-5.1574,-16.7900,1.9694,-0.6462
406.2500,6.1679,1.4038,-0.3700,-4.4597,-8.5361,-5.4535,-65.7735,-4.1930,16.9264,13.7745,-3.5139,3.8689,0.3494,-2.5428,-5.4866,0.0273,-5.4873,1.0544,-2.6505
410.1562,1.3894,-4.0484,-9.5408,-6.9613,-6.4550,-10.4847,-64.1183,-5.6650,12.7683,5.1583,-9.4304,1.1691,2.4220,3.9361,-15.1262,5.3364,4.1753,-2.5056,-7.7251
414.0625,-4.0056,-9.9794,-18.8993,-10.6558,-4.9885,-15.3169,-61.7178,-7.9607,6.6427,-3.5871,-16.5164,-4.2408,1.8714,9.1965,-26.3233,8.8888,10.4028,-8.0335,-13.9496
417.9688,-9.4927,-16.0545,-24.5888,-13.9657,-3.5803,-20.4808,-62.3721,-9.6088,-0.2608,-9.4152,-23.2849,-11.3023,-0.4593,12.8508,-34.5432,7.5669,12.9045,-14.2668,-19.0799
421.8750,-14.9898,-21.8860,-25.4785,-15.9051,-2.0849,-26.6193,-66.5539,-9.9661,-6.6530,-12.1343,-28.9258,-18.7397,-3.5343,14.8462,-37.6675,-0.9385,12.6884,-19.9653,-21.9331
425.7812,-20.2989,-26.9006,-23.6640,-16.4945,-0.8853,-33.2055,-71.4831,-9.3335,-11.6589,-13.7229,-33.3134,-25.4484,-6.6774,15.3599,-36.7167,-15.6646,11.2675,-24.3356,-22.8403
429.6875,-24.5918,-30.4515,-22.4626,-16.4119,-0.5209,-38.2449,-73.8796,-8.4345,-15.0023,-15.9537,-36.5293,-30.6606,-9.6372,14.7035,-34.3166,-31.6047,9.8077,-27.0784,-22.9715
433.5938,-26.4857,-32.1122,-23.5796,-16.2476,-1.1475,-39.4490,-72.8554,-7.7290,-16.7994,-18.4915,-38.3935,-33.9418,-12.2529,13.2498,-32.4352,-41.8228,8.6985,-28.1762,-23.1836
437.5000,-24.7832,-31.9230,-25.7411,-15.9987,-2.2796,-36.0567,-70.4523,-7.0948,-17.1926,-19.1191,-38.4323,-35.1646,-14.1429,11.3763,-31.2092,-41.5129,7.6793,-27.6999,-23.3302
441.4062,-19.3774,-30.3923,-25.8654,-15.1945,-3.0526,-29.7887,-69.4555,-6.0779,-16.1646,-15.8496,-36.3085,-34.5539,-14.7830,9.4055,-29.5152,-31.3287,6.2883,-25.8179,-22.5311
445.3125,-11.6121,-28.2440,-21.7792,-13.4955,-2.8291,-23.9971,-70.5044,-4.4539,-13.6957,-9.0361,-32.3311,-32.7424,-13.9504,7.5343,-26.4490,-17.4498,4.2646,-22.9463,-20.1046
449.2188,-3.7416,-26.0877,-14.2410,-11.2059,-1.6896,-21.5014,-71.1546,-2.6038,-10.1025,-1.5766,-27.5616,-30.6852,-12.1295,5.7706,-22.3012,-7.9818,1.6729,-19.8104,-16.3529
453.1250,2.2148,-24.2206,-6.5971,-9.2167,-0.4131,-22.7181,-67.8906,-1.3640,-6.1967,3.0517,-23.3345,-29.3446,-10.4360,3.9240,-18.2934,-7.9345,-1.2183,-17.2460,-12.5379
457.0312,5.4633,-22.6372,-2.3075,-8.3848,0.0638,-25.5320,-59.5126,-1.4434,-3.0153,3.3309,-20.4786,-29.2467,-9.9917,1.6908,-15.5270,-16.1924,-4.1269,-15.8063,-10.0484
460.9375,6.6128,-21.1647,-2.2954,-8.8527,-0.6882,-27.0083,-48.9856,-2.8593,-1.2332,0.7002,-18.7955,-30.1747,-11.1634,-1.1776,-14.2059,-26.5982,-6.8741,-15.4452,-9.4088
464.8438,6.9646,-19.5899,-4.2354,-9.8979,-2.3104,-25.5910,-41.9206,-4.8540,-0.6778,-1.8095,-17.2155,-31.2468,-13.2629,-4.7056,-13.7731,-32.3839,-9.4217,-15.5370,-9.9043
468.7500,7.4800,-17.7184,-4.3696,-10.4870,-3.9778,-22.0630,-42.5500,-6.3870,-0.3604,-2.1290,-14.5779,-31.4051,-14.9940,-8.6391,-13.6567,-30.8039,-11.8867,-15.2628,-10.1186
472.6562,8.1949,-15.4127,-0.4527,-10.1207,-5.0714,-18.5785,-50.2041,-6.8499,0.9241,-0.7204,-10.5246,-30.0528,-15.3569,-12.5611,-13.7733,-24.7154,-14.5343,-14.1196,-8.9779
476.5625,8.4768,-12.6685,6.4649,-9.2831,-5.6571,-16.6615,-59.1279,-6.4604,3.8153,0.1526,-5.8837,-27.4366,-14.3345,-16.1196,-14.2766,-20.1038,-17.6656,-12.2114,-6.5104
480.4688,7.8556,-9.6995,12.7949,-9.0903,-6.3733,-15.8904,-62.0388,-6.0367,7.9749,-1.2259,-2.2484,-24.5006,-12.8229,-19.2035,-14.8763,-21.4786,-21.3477,-10.1391,-3.7606
484.3750,6.7162,-6.9193,15.1178,-10.3722,-7.7998,-14.3751,-54.9872,-6.3296,12.3348,-4.1632,-0.9984,-22.2803,-11.8539,-21.9257,-14.5567,-28.5253,-25.1090,-8.5939,-1.9448
488.2812,6.2516,-4.7537,12.7499,-12.9005,-9.8179,-10.6016,-40.0555,-7.4400,15.8050,-5.9119,-2.3988,-21.2169,-11.7185,-24.4056,-12.1856,-36.3595,-27.8660,-7.9516,-1.5014
492.1875,7.6479,-3.3741,8.2202,-15.4043,-11.5093,-5.0431,-24.0018,-8.7743,17.9012,-4.0634,-5.3631,-20.8466,-11.6972,-26.5102,-7.6204,-39.0470,-28.2937,-8.1301,-1.7556
496.0938,11.0767,-2.5747,5.3352,-16.4162,-11.7298,-0.1211,-13.9169,-9.5590,18.8424,1.0145,-8.0419,-20.0789,-10.6282,-27.7726,-2.3183,-33.7509,-25.5395,-8.7536,-1.4321
500.0000,15.2538,-1.9599,6.3442,-15.3371,-9.9477,1.5257,-13.0333,-9.4818,19.1110,5.8652,-8.8675,-17.8948,-7.8776,-27.5902,1.2619,-22.5772,-19.8538,-9.4488,0.3875
503.9062,17.9472,-1.3653,10.3536,-12.9057,-6.6879,-0.9204,-19.4898,-8.9231,18.8977,6.2399,-7.4168,-14.0260,-3.9426,-25.5925,1.2027,-10.9995,-12.6464,-10.0503,3.5877
507.8125,17.1611,-1.1818,14.1266,-10.6912,-3.2015,-5.7821,-28.5013,-8.5796,17.9222,0.3098,-4.5908,-9.1967,-0.2007,-21.9195,-2.4891,-4.1991,-5.8157,-10.6119,7.1132
511.7188,12.2544,-2.2468,14.5809,-9.9672,-0.5731,-10.1391,-35.9167,-8.7861,15.7774,-9.7584,-2.0513,-4.7956,2.0148,-17.1947,-7.7424,-3.9537,-0.7280,-11.2930,9.7324
515.6250,4.2933,-5.2550,11.0670,-10.7935,1.0634,-12.0007,-40.4329,-9.1025,12.4774,-19.1957,-1.2912,-2.1940,2.3071,-12.1935,-11.6948,-8.0532,2.4674,-12.2500,10.8845
519.5312,-4.5508,-10.0618,5.7712,-11.9812,2.5892,-11.6499,-43.1548,-8.5329,8.7056,-23.9860,-2.8849,-2.1072,1.4049,-7.4378,-12.4870,-12.2834,4.6933,-13.5958,10.9907
523.4375,-12.1369,-15.4322,2.0621,-11.9479,5.1751,-11.1164,-45.4279,-6.2331,5.5032,-23.6022,-6.3064,-4.3229,0.5411,-3.0044,-10.3142,-13.3149,7.0710,-15.3778,11.0452
527.3438,-17.3069,-19.5536,2.1091,-9.8233,9.3040,-12.2791,-47.0894,-2.1669,3.6150,-21.0287,-10.3352,-7.8779,0.5359,1.3216,-7.0697,-10.5218,9.9708,-17.5078,11.8367
531.2500,-20.1293,-21.0799,5.5265,-6.0111,14.2791,-15.2102,-46.6158,2.7948,3.0096,-20.1306,-13.7490,-11.5270,1.2934,5.6795,-4.9606,-5.8150,12.7024,-19.6636,13.3998
535.1562,-21.4256,-20.0180,9.9033,-1.8581,18.5847,-18.1268,-42.8346,7.3928,2.9652,-22.5160,-15.8872,-14.2433,2.0447,9.8399,-5.1465,-2.0365,14.0654,-21.2834,15.0690
539.0625,-22.0256,-17.7870,12.6419,1.2491,20.8144,-18.9474,-36.5087,10.6953,2.6582,-26.3831,-16.8034,-15.5416,2.0544,13.2097,-7.2762,-1.2288,13.3011,-21.7580,16.0320
542.9688,-22.2998,-16.3126,12.6602,2.6663,20.4678,-17.1076,-30.3073,12.4610,1.7908,-28.1940,-16.9873,-15.5299,1.1728,15.1320,-10.0307,-3.7949,10.6757,-20.7688,15.9153
546.8750,-22.2203,-16.7197,10.7878,2.6383,18.0536,-14.0936,-27.1397,12.9258,0.7714,-25.7352,-16.8838,-14.7148,-0.1947,15.2629,-12.0854,-8.6857,7.2349,-18.5545,14.9633
550.7812,-21.7630,-18.5236,8.7874,1.8375,14.5037,-12.2449,-28.2312,12.2903,0.3366,-20.0504,-16.5331,-13.6654,-1.5929,13.7663,-12.7868,-14.0948,3.9581,-15.8708,13.7293
554.6875,-21.2174,-19.9161,7.9306,0.7658,10.4340,-12.8343,-32.4734,10.4186,0.9453,-14.6969,-15.5652,-12.6916,-2.9883,11.2150,-12.2462,-18.1102,1.0345,-13.6011,12.5865
558.5938,-21.0836,-18.9870,8.2355,-0.4943,5.8551,-15.0347,-37.4519,7.0430,2.4394,-12.9565,-13.5521,-11.7006,-4.7664,8.2857,-11.0392,-19.1713,-2.1265,-12.2439,11.4685
562.5000,-21.6192,-15.0428,8.7982,-2.0727,0.5112,-16.6283,-41.1827,2.2765,4.2108,-15.2490,-10.4784,-10.3241,-7.2700,5.4462,-9.8445,-16.4734,-6.1679,-11.6309,10.0221
566.4062,-22.4297,-9.0969,8.7599,-3.9505,-5.5243,-15.8557,-43.1582,-3.0799,5.6919,-18.7829,-6.9815,-8.2575,-10.3262,2.7880,-9.1777,-10.3673,-10.9838,-11.0854,7.9993
570.3125,-22.5101,-3.1834,8.0475,-5.8313,-11.5748,-12.8483,-44.0732,-7.8053,6.7386,-19.6657,-4.1210,-5.5879,-13.2221,0.0469,-9.1775,-2.5022,-15.5670,-9.9106,5.5349
574.2188,-20.8130,1.0205,7.3481,-7.3555,-16.6780,-9.4438,-44.7849,-10.9641,7.6135,-15.7826,-2.7406,-2.8439,-15.1825,-3.2304,-9.4330,4.6247,-18.6885,-7.8453,3.0883
578.1250,-16.9783,3.2869,7.4729,-8.4071,-20.2246,-7.5349,-45.5808,-12.4893,8.6426,-8.2348,-2.8040,-0.6643,-15.9343,-7.4245,-9.0250,8.7089,-19.8729,-5.1524,1.1335
582.0312,-11.6680,4.8826,8.7157,-9.1652,-22.3400,-7.3358,-46.2975,-13.1194,9.8937,-0.3513,-3.1984,0.7224,-15.8455,-12.5415,-6.9730,8.7573,-19.8446,-2.3022,-0.1122
585.9375,-6.1915,7.5559,10.7138,-9.8073,-23.6419,-7.0369,-46.8705,-13.6842,11.1653,4.8180,-2.2650,1.8053,-15.4954,-17.9707,-2.9749,5.5606,-20.0271,0.4616,-0.6923
589.8438,-1.6321,12.1992,12.8190,-10.1439,-24.5554,-4.2011,-47.4949,-14.3024,12.2609,6.5507,1.1589,3.5616,-15.0563,-22.4752,2.0706,1.1613,-21.4480,3.2909,-0.6922
593.7500,1.8893,18.1266,14.5685,-9.5914,-24.7918,2.1702,-48.1129,-14.1914,13.2397,6.5866,6.8187,6.7398,-14.0678,-24.5646,6.3140,-2.3476,-23.9114,6.4859,-0.0613
597.6562,5.2086,23.4435,15.8368,-7.6218,-23.5033,10.5349,-47.8512,-12.3275,14.3589,7.4633,12.9081,11.1267,-11.8681,-23.2064,8.0288,-3.8727,-26.1020,10.0350,1.2947
601.5625,9.2927,26.2082,16.6063,-4.3819,-20.0664,17.5724,-45.3154,-8.4821,15.7151,10.4847,16.9334,15.3851,-8.3568,-18.5428,6.8275,-3.5430,-26.5437,13.3467,3.1874
605.4688,14.1659,25.5619,16.6550,-0.9375,-14.8800,20.2792,-39.8916,-3.7803,16.9037,14.8450,17.1113,17.7041,-4.4197,-12.1164,4.0360,-2.0897,-24.6540,15.4324,4.8928
609.3750,18.4423,22.0852,15.5118,1.1754,-9.4705,17.8641,-33.0556,-0.2282,17.0419,18.3766,13.4011,16.8996,-1.5656,-6.2946,1.7551,-0.0166,-21.0750,15.4402,5.2879
613.2812,19.9529,17.2269,12.7522,0.8746,-5.7002,12.1071,-28.2845,0.5573,15.2108,19.1394,7.4444,13.2003,-0.9621,-3.0678,1.1838,2.7058,-17.0693,13.1445,3.4069
617.1875,17.1516,12.2991,8.3769,-1.7161,-4.5919,6.0234,-29.1061,-1.4813,11.0160,16.6010,1.4085,8.0995,-2.5926,-2.8993,1.5059,6.2019,-13.5322,9.0266,-0.9157
621.0938,10.3346,7.7664,2.9328,-5.2733,-5.6375,1.8955,-36.4548,-4.6744,4.8471,11.6946,-3.4751,3.3164,-5.2205,-4.4034,0.3594,9.9755,-10.4519,3.9079,-6.7902
625.0000,1.7230,3.2664,-2.7358,-8.0966,-7.1436,0.0757,-47.4144,-6.6571,-2.3466,5.9866,-7.6175,-0.3956,-7.2404,-5.1742,-4.2881,12.6573,-7.2264,-1.5509,-12.6450
628.9062,-5.7760,-1.7744,-7.9011,-9.1867,-7.3994,-0.7510,-56.6460,-5.9127,-9.5622,0.7422,-12.4688,-3.6806,-7.7902,-3.3192,-12.2409,12.5839,-3.4919,-7.0768,-17.0245
632.8125,-10.3406,-7.4635,-12.1964,-8.8127,-5.8272,-2.2672,-59.7589,-2.7413,-16.1252,-3.4951,-19.0198,-7.8771,-7.2714,1.2863,-20.7234,8.8665,0.3206,-12.5845,-19.2873
636.7188,-12.2810,-13.2075,-15.5259,-8.1632,-3.2768,-5.2642,-56.2031,1.0260,-21.6947,-6.7670,-26.5455,-13.6840,-6.8758,6.8886,-26.0381,2.1502,3.2247,-17.7718,-19.7466
640.6250,-13.5632,-18.0260,-17.7727,-8.3577,-1.2710,-9.2616,-49.4316,3.3404,-25.9967,-9.3569,-32.6337,-20.2465,-7.5019,11.0011,-26.1159,-5.5558,4.5180,-21.9163,-19.1960
644.5312,-16.1074,-21.1081,-18.6095,-9.5564,-0.7903,-13.0466,-44.1225,3.3238,-28.6365,-11.5352,-34.6294,-25.4542,-8.9267,12.0353,-22.0322,-11.9215,4.4676,-24.1147,-18.2123
648.4375,-20.1016,-22.1795,-17.6101,-10.8199,-1.5202,-15.5180,-42.6050,1.7629,-29.2440,-13.4067,-31.5408,-27.3321,-9.9039,10.2911,-17.2669,-15.5236,4.1906,-23.8272,-16.7652
652.3438,-23.6269,-21.4752,-14.5891,-10.8011,-2.1122,-16.1858,-43.3362,0.4273,-27.8523,-14.7505,-25.0072,-25.5276,-9.1201,7.6256,-15.1965,-16.4537,4.7607,-21.3114,-14.4034
656.2500,-23.9598,-19.4601,-9.8936,-8.7432,-1.2362,-15.1496,-42.6566,0.7686,-25.1382,-14.9244,-18.5163,-21.7454,-6.2694,6.0625,-16.7054,-15.9866,6.2660,-17.5937,-10.8319
660.1562,-19.6589,-16.6053,-4.4047,-5.0652,1.3789,-12.8513,-38.3529,2.9463,-22.2090,-13.0934,-15.2970,-18.7263,-2.4084,6.3590,-19.7341,-15.6499,7.6325,-13.9724,-6.3996
664.0625,-11.9024,-13.3985,0.7729,-1.1503,4.6834,-9.9514,-31.9983,5.8098,-20.0033,-8.8978,-16.3042,-18.4565,0.6830,7.5516,-21.0748,-16.3776,7.4248,-11.3959,-2.1007
667.9688,-4.0277,-10.4727,4.7357,1.4688,6.9924,-7.3451,-27.9767,7.7386,-18.7325,-3.2028,-19.7088,-20.8953,1.6585,7.7629,-18.9611,-18.2336,5.0237,-10.1276,0.9299
671.8750,0.4823,-8.5788,7.0771,1.9495,7.0982,-6.0384,-29.8394,7.6799,-17.8145,1.7838,-22.2608,-24.1351,0.4368,5.6308,-14.3919,-20.6858,1.2447,-9.8579,2.0694
675.7812,0.1863,-8.2589,7.9413,0.4876,5.0265,-6.6806,-36.9582,5.6896,-16.3789,3.4882,-21.5620,-25.8428,-1.8460,1.3076,-10.1724,-23.0369,-2.1173,-10.0767,1.5622
679.6875,-3.4799,-9.3999,7.8819,-1.9424,1.9624,-8.9714,-44.3558,2.7379,-13.9582,0.6672,-17.6403,-24.8821,-3.6457,-3.6527,-8.5104,-24.6515,-3.4818,-10.3753,0.3629
683.5938,-7.2666,-11.0674,7.6404,-4.1750,-0.5200,-11.4771,-46.0984,0.0618,-10.8209,-5.3480,-12.7445,-21.9293,-3.9440,-7.3516,-9.1659,-24.9568,-2.5067,-10.4952,-0.3911
687.5000,-8.2688,-11.8992,7.9097,-5.3706,-1.3490,-12.2392,-39.7190,-1.4421,-7.6933,-11.0113,-9.5853,-18.7168,-2.6814,-8.7252,-9.6877,-23.4766,-0.1894,-10.2283,0.0707
691.4062,-5.6507,-10.9180,9.0939,-5.2426,-0.4134,-9.9545,-28.1955,-1.4781,-5.1313,-12.6410,-9.3660,-16.6032,-0.5326,-8.0292,-7.5537,-20.1057,1.9584,-9.4116,1.8691
695.3125,-0.8237,-8.2296,11.1049,-4.0326,1.5870,-4.9473,-17.8737,-0.2892,-3.0928,-8.9703,-11.0398,-15.6429,1.6389,-6.4160,-2.4742,-15.4977,2.9544,-8.1167,4.5222
699.2188,3.8386,-5.0452,13.3152,-2.3762,3.6554,0.8553,-13.9122,1.5205,-1.0817,-2.3244,-12.2681,-14.8419,3.1748,-5.0737,3.0424,-11.1532,2.8001,-6.8570,7.1975
703.1250,6.6361,-2.9036,14.7969,-1.1289,4.9922,5.0726,-16.7662,3.1560,1.2776,2.6330,-11.2693,-13.2778,3.6733,-4.6215,5.3832,-8.8803,2.0967,-6.5033,9.0158
707.0312,7.3206,-2.5764,14.8265,-1.1091,5.2317,6.4208,-22.3422,3.8362,3.7717,1.9153,-8.1273,-11.0618,2.8779,-5.1100,2.5222,-9.7574,1.2883,-7.7955,9.3362
710.9375,6.6372,-3.4473,13.4053,-2.7393,4.4406,5.5663,-25.5010,3.1074,5.7019,-5.0483,-4.6116,-9.2967,0.6991,-6.4086,-4.3397,-13.2201,0.2592,-10.7175,8.0059
714.8438,5.2843,-3.8843,11.4299,-5.7253,3.0155,4.6272,-23.9718,1.1744,6.5222,-14.9110,-2.7327,-9.0760,-2.5632,-8.4777,-11.4131,-16.9963,-1.3764,-14.2388,5.5163
718.7500,3.3219,-2.4148,10.2978,-9.0317,1.5580,5.6421,-19.5934,-1.0238,6.4734,-22.5420,-3.2059,-10.4012,-6.0496,-11.2387,-14.7387,-18.1551,-3.6237,-16.7520,2.9333
722.6562,0.5195,1.1215,11.1094,-11.3097,0.6959,9.0923,-16.1457,-2.2139,6.6160,-24.2939,-4.9891,-11.9784,-8.5413,-14.2245,-12.6074,-14.7855,-5.7712,-17.0257,1.5072
726.5625,-2.8046,5.3193,13.9545,-11.6257,0.8221,13.5353,-15.8674,-1.5619,8.1360,-20.1147,-6.1678,-12.1120,-9.0586,-16.4714,-6.3295,-7.2990,-6.7581,-15.0342,2.0662
730.4688,-5.4010,8.1213,17.7882,-10.0503,1.8427,16.5980,-17.7062,0.6540,11.4308,-13.1298,-5.4016,-9.9783,-7.4894,-16.9194,0.9722,1.5399,-5.9847,-12.0194,4.5175
734.3750,-5.7211,8.2984,21.0327,-7.6682,3.1303,16.5958,-18.6858,3.0140,15.7249,-7.2212,-2.7746,-6.2258,-4.7426,-15.1056,6.4435,8.0088,-3.8635,-9.6544,7.8201
738.2812,-3.1724,6.4308,22.5404,-5.9237,3.8091,13.6212,-16.9983,3.7433,19.5892,-4.5225,0.5483,-2.4051,-2.2286,-11.5937,8.9140,9.4956,-1.5995,-8.8580,10.5399
742.1875,1.0680,4.6297,22.2725,-5.6951,3.2578,9.3919,-13.9422,1.8968,22.0091,-4.5975,3.4519,0.2893,-0.9874,-7.7236,8.8648,6.0006,-0.3372,-9.1247,11.6888
746.0938,4.5183,5.1379,21.2285,-6.7277,1.5066,6.0722,-12.8953,-1.8545,23.1612,-5.5903,5.7645,1.8987,-1.0930,-4.7948,7.3820,0.1278,-0.3706,-8.9037,11.3007
750.0000,4.9731,8.7712,20.6805,-7.8391,-0.7831,4.9895,-16.1754,-5.4471,24.2369,-6.0800,8.1564,3.4607,-1.7790,-3.2751,5.1865,-4.4701,-1.0724,-6.7968,10.3285
753.9062,2.0737,14.3100,21.2567,-7.7706,-2.7851,6.1299,-22.5722,-6.6198,26.3919,-6.0109,11.1783,5.8641,-2.1689,-2.6371,2.4951,-5.2584,-1.5870,-2.7096,9.9124
757.8125,-2.3662,19.2717,22.5191,-6.0890,-4.1025,8.6116,-27.8414,-4.3455,29.6246,-6.0872,14.3426,8.8084,-2.0184,-1.9352,-0.4366,-2.2591,-1.6661,1.9127,10.5396
761.7188,-5.6232,21.5097,23.3146,-3.4963,-5.0428,11.5734,-27.9249,0.4436,32.5017,-6.4690,16.1428,10.8221,-1.8690,-0.6433,-2.8586,2.1347,-1.8976,4.9807,11.7130
765.6250,-6.0307,20.5005,22.6274,-1.3319,-6.3470,14.6846,-22.2754,5.3421,33.0296,-6.2035,15.1194,10.4135,-2.5024,0.9271,-3.7572,4.8409,-3.1125,5.1723,12.3777
769.5312,-4.1898,17.4505,20.3123,-0.6351,-8.5589,17.9144,-14.4782,7.8701,30.0805,-4.0621,11.1626,7.4418,-4.1679,1.9509,-2.6356,4.1690,-5.4933,2.8504,11.7762
773.4375,-2.5108,14.2431,17.2026,-1.4455,-11.5166,20.9050,-9.5774,6.8839,24.3133,-0.0537,5.9577,3.5416,-6.2512,1.8581,-0.1212,0.9263,-8.2097,-0.1742,10.0672
777.3438,-3.4320,12.0859,14.5434,-2.8285,-14.3667,22.6580,-10.2640,3.1128,17.8656,3.8789,2.0847,1.1389,-7.6927,0.8842,2.2261,-2.1954,-9.9792,-1.8633,8.2188
781.2500,-7.6578,10.8634,13.1758,-3.5763,-16.1107,21.9765,-15.0381,-1.4509,12.9963,4.8719,1.3322,1.7282,-7.8320,-0.0660,2.8550,-2.5547,-10.1373,-1.2862,7.2518
785.1562,-13.7123,9.5918,13.0368,-3.0540,-16.2802,18.4169,-19.7950,-4.8211,10.6403,1.2605,3.4371,4.7154,-6.9824,-0.1276,1.2048,0.5008,-9.3066,0.8526,7.4289
789.0625,-19.0726,7.4913,13.2885,-1.5837,-15.2327,12.9827,-21.4174,-6.0763,9.9069,-5.8896,6.2021,7.7445,-6.2347,0.8371,-2.0248,5.0580,-9.0209,2.8111,8.0349
792.9688,-21.9464,4.7573,12.9410,-0.1281,-13.8492,7.8834,-20.3051,-5.5684,8.8567,-13.2116,6.9503,8.3109,-6.6095,2.1401,-5.4925,7.8907,-10.5182,3.0507,7.9393
796.8750,-22.3371,2.4224,11.5183,0.4530,-12.8745,5.3515,-19.7384,-4.2869,5.9639,-17.2671,4.2933,5.4903,-8.2184,2.8278,-8.1901,6.7323,-13.6492,1.2258,6.5042
800.7812,-21.6719,1.4786,9.3300,0.0130,-12.4074,6.2572,-22.7074,-2.9615,1.2001,-16.8997,-1.0274,0.5336,-10.1124,2.4222,-10.0018,1.9837,-16.8278,-1.7138,4.1197
804.6875,-21.4292,2.0302,7.2091,-0.8246,-11.9259,9.4958,-29.0133,-1.5917,-4.0006,-13.8530,-6.7760,-4.0550,-10.9650,1.2350,-11.4754,-3.4155,-18.1472,-4.2764,1.9220
808.5938,-21.9339,3.1838,5.9315,-1.1605,-10.8092,12.6399,-35.1891,0.2958,-7.7941,-11.1477,-10.8121,-6.2207,-10.0755,0.0285,-13.1035,-5.9770,-16.8322,-5.4161,0.8949
812.5000,-22.2509,3.7476,5.7107,-0.4752,-8.9367,13.4724,-37.3485,2.9416,-9.1802,-10.5351,-12.4583,-5.5932,-7.9194,-0.6476,-14.7724,-4.1841,-13.8788,-5.0645,1.0460
816.4062,-21.1524,3.1451,6.0782,1.0210,-6.8893,11.3851,-34.5215,5.8134,-8.5588,-11.1230,-12.6998,-3.4483,-5.8151,-0.8570,-15.8298,0.2660,-11.3322,-3.9298,1.3195
820.3125,-18.2650,1.7945,6.1973,2.5567,-5.5887,7.7021,-29.5902,7.7068,-7.2676,-10.3254,-13.1678,-1.5854,-4.9575,-1.0854,-15.6569,3.4981,-10.7266,-2.8438,0.3514
824.2188,-14.4282,0.6814,5.3986,3.3295,-5.6373,4.7262,-26.9668,7.4708,-6.5325,-6.3546,-14.7390,-1.0626,-5.5517,-1.6608,-14.2174,2.1785,-11.8895,-2.1983,-2.4684
828.1250,-11.0208,0.5228,3.6100,3.0171,-6.8438,4.1787,-28.9421,4.8638,-6.6404,-0.1474,-16.8044,-1.6990,-6.6871,-2.3245,-12.1217,-3.9484,-13.0564,-1.8407,-6.4107
832.0312,-8.8904,1.2308,1.4325,1.9489,-8.2769,6.1006,-33.7889,0.9184,-6.8979,4.9859,-17.7108,-2.5508,-7.0225,-2.3541,-10.1856,-11.5688,-12.2273,-1.3836,-9.7435
835.9375,-7.8148,2.0850,-0.1786,0.8739,-8.8057,8.9304,-37.2353,-2.4940,-6.3177,5.8493,-16.0054,-2.8159,-5.7430,-1.1402,-8.8854,-15.8512,-8.7291,-0.5885,-10.7687
839.8438,-6.9136,2.4019,-0.4430,0.5167,-7.7521,10.6438,-36.0726,-3.6676,-4.4556,2.0346,-11.5599,-2.4039,-3.0775,1.2831,-8.1517,-13.7332,-3.7854,0.4972,-8.8477
843.7500,-5.5844,2.0837,0.8138,1.2041,-5.2293,10.1260,-30.8489,-2.0149,-1.7758,-3.4368,-5.7908,-1.8157,-0.0368,4.2173,-7.6241,-6.1707,0.3385,1.6913,-4.7323
847.6562,-4.0937,1.5849,3.0813,2.7556,-1.9864,7.8385,-25.3714,1.6386,0.6732,-6.1751,-0.8570,-1.5909,2.3693,6.8103,-7.0922,2.2900,1.9520,2.9068,-0.0286
851.5625,-3.2847,1.3824,5.4940,4.6478,1.0859,5.3849,-23.4368,5.6078,1.9832,-3.6974,1.5941,-1.8720,3.8189,8.6575,-6.7260,6.4239,1.0971,4.2218,3.7875
855.4688,-3.6697,1.4846,7.3713,6.3253,3.4407,4.3556,-25.5558,8.3958,1.9729,2.6124,1.3128,-2.4124,4.7826,9.9893,-6.9053,3.7656,-0.5871,5.7428,6.1330
859.3750,-4.7463,1.4548,8.6275,7.4860,5.0684,5.2850,-28.4438,9.5692,1.2598,8.4335,-0.5415,-2.9004,6.0456,11.3109,-7.7992,-3.8010,-1.1207,7.4262,7.4188
863.2812,-5.2147,0.9251,9.7786,8.2121,6.3498,7.4012,-27.7205,9.9102,0.8261,9.6787,-2.1797,-3.2144,8.0763,12.8503,-9.0366,-11.4149,0.4363,9.0551,8.5441
867.1875,-4.0009,0.0929,11.5299,8.8973,7.7325,9.2363,-21.5752,10.7697,1.4130,5.5026,-2.2128,-3.3788,10.7264,14.3226,-9.7293,-14.6108,3.4946,10.4045,10.2188
871.0938,-1.2624,-0.3212,14.2168,10.0028,9.4540,9.5813,-12.3635,13.0575,3.1283,-1.1507,-0.3248,-3.3501,13.4223,15.2148,-8.8630,-12.3355,6.5934,11.4289,12.5689
875.0000,1.5023,0.3117,17.4863,11.7451,11.4377,8.1153,-4.8474,16.5337,5.4583,-5.8609,2.7207,-2.9529,15.6020,15.2962,-5.8519,-7.5128,8.5731,12.2687,15.1861
878.9062,2.4310,1.8652,20.4517,13.8687,13.3483,5.3778,-2.5818,19.8566,7.6062,-6.0996,5.6333,-2.1112,17.0005,14.8378,-0.9801,-4.8158,9.2990,13.0349,17.4566
882.8125,0.6699,3.3850,22.2242,15.6467,14.7193,2.2746,-5.4212,21.3450,8.9260,-3.0496,7.3297,-1.1577,17.5862,14.2852,4.4927,-7.2680,9.4329,13.5590,18.8745
886.7188,-2.9036,3.7714,22.4538,16.1608,15.0847,-0.4077,-10.0860,19.9610,9.2293,-0.4989,7.4505,-0.8313,17.2996,13.6629,8.6665,-14.0794,9.5737,13.3695,19.1729
890.6250,-6.1832,2.7154,21.5108,14.7606,14.1081,-2.1392,-13.1177,15.9040,8.8556,-1.7125,6.4448,-1.8033,15.9252,12.3009,9.7272,-21.1869,9.5835,11.9923,18.3088
894.5312,-7.2078,1.0972,20.2041,11.4651,11.7163,-2.4960,-13.6088,10.4815,8.5163,-6.7401,5.2550,-4.0286,13.2892,9.2519,6.8262,-24.0309,8.7066,9.3908,16.4406
898.4375,-5.4016,0.4489,19.2687,7.0554,8.2061,-1.0641,-13.4375,5.3937,8.9912,-12.2627,4.8122,-6.4853,9.6350,4.1602,0.7051,-20.5631,6.3649,6.1935,13.9549
902.3438,-1.8087,1.8407,19.0026,2.7502,4.2409,2.3420,-14.9999,1.8989,10.7885,-14.1038,5.6019,-7.6521,5.8031,-2.1318,-6.3547,-12.4307,2.9095,3.4586,11.4618
906.2500,1.7594,5.0531,19.2716,-0.3974,0.6729,7.2494,-18.6152,0.3327,13.8914,-10.4878,7.4868,-6.5029,2.9363,-7.8442,-11.4069,-3.6678,-0.3784,2.0579,9.6397
910.1562,3.9367,8.6959,19.7870,-2.0553,-1.7843,12.3109,-22.0001,0.1626,17.7021,-3.5677,9.8230,-3.3280,1.8087,-11.3369,-12.2164,2.0031,-2.1278,2.0634,8.9239
914.0625,4.4537,11.1823,20.3495,-2.7854,-2.8849,15.6755,-22.3088,0.4174,21.2379,1.9341,11.7698,0.2597,2.2252,-12.2470,-8.4076,3.2963,-1.9288,2.5784,9.2115
917.9688,3.8412,11.7763,20.8319,-3.7075,-2.9865,15.8957,-18.9042,0.1690,23.5230,1.9617,12.6223,2.2148,2.9777,-11.7880,-1.6789,1.5403,-0.7465,2.1851,9.8180
921.8750,2.6011,10.8961,20.9640,-5.8322,-2.8784,12.8399,-14.3128,-1.1659,24.0118,-4.1293,12.0275,1.2622,2.4923,-11.8968,5.1057,-0.9451,-0.3113,-0.2306,9.7892
925.7812,0.6526,9.4997,20.2156,-9.4502,-3.3580,7.9519,-12.3636,-3.7311,22.8379,-13.2588,10.0456,-2.4024,-0.1942,-13.8025,9.4195,-2.8564,-1.8890,-4.7834,8.4268
929.6875,-2.4408,8.1502,18.0194,-13.9404,-4.7814,3.5739,-14.9825,-7.2421,20.7550,-20.8569,7.0964,-7.3594,-4.7705,-17.0844,10.2384,-4.7519,-5.3362,-10.4678,5.7103
933.5938,-6.6974,6.6035,14.2585,-18.1095,-6.8514,1.6848,-20.3711,-11.0348,18.7865,-23.9345,3.8476,-11.9173,-9.7767,-19.9573,8.1871,-8.2114,-9.1592,-15.6961,2.3406
937.5000,-11.1536,4.2562,9.6305,-20.8494,-8.7845,2.8399,-24.2203,-14.1931,17.7541,-22.7957,1.0524,-15.0628,-13.4793,-20.6041,4.7141,-14.1049,-11.5600,-19.1595,-0.6344
941.4062,-14.1408,0.9975,5.4964,-21.7058,-9.7707,5.9773,-23.0801,-15.8265,17.9156,-20.3139,-0.6856,-16.7927,-14.9365,-18.5650,1.0211,-21.3953,-11.7225,-20.4823,-2.3789
945.3125,-14.3416,-2.3815,3.1860,-21.0170,-9.4573,9.1816,-17.1647,-15.4514,18.8825,-19.5136,-1.1930,-17.7351,-14.5475,-15.1302,-2.4537,-27.4188,-10.4097,-20.2843,-2.6669
949.2188,-11.8655,-4.6763,3.1889,-19.5649,-8.1570,10.8536,-10.2850,-13.2662,19.8494,-21.3378,-0.9168,-18.4853,-13.7154,-12.4323,-5.7470,-29.4480,-9.4462,-19.6556,-1.8935
953.1250,-8.4694,-5.2840,4.8279,-17.9941,-6.6523,10.5183,-6.9340,-10.0884,20.0092,-24.1827,-0.8345,-19.1954,-13.8553,-11.9144,-8.7408,-26.4170,-10.4602,-19.4202,-0.7329
957.0312,-6.6242,-4.8282,6.7102,-16.4027,-5.7215,8.8249,-8.8691,-6.9133,18.9455,-25.3660,-2.0078,-19.6423,-15.4270,-13.3172,-10.9083,-19.6329,-13.7798,-19.6742,0.3005
960.9375,-7.9822,-4.7455,7.6708,-14.3823,-5.6969,6.8963,-13.9129,-4.3470,16.8058,-23.2836,-4.9484,-19.5731,-17.6593,-14.9196,-11.7294,-12.0632,-18.2422,-19.8776,1.0984
964.8438,-12.2790,-6.0724,7.5264,-11.4717,-6.3435,5.5980,-17.8443,-2.3176,14.1723,-18.6144,-9.1806,-18.9562,-19.1496,-14.8229,-11.3625,-6.7515,-22.0083,-19.3897,1.8780
968.7500,-17.4325,-8.4237,7.0724,-7.6956,-7.1287,5.2375,-17.7471,-0.2994,11.7114,-13.7636,-13.3531,-17.9465,-18.9104,-12.3090,-10.8177,-5.3797,-23.7667,-18.0426,2.8730
972.6562,-20.7825,-10.0923,7.3294,-3.7877,-7.6769,5.7713,-14.0907,2.0920,9.8097,-11.0706,-15.9301,-16.6816,-17.1182,-8.2945,-11.2685,-7.7352,-23.4762,-16.3295,4.0403
976.5625,-20.6410,-9.3090,8.6318,-0.9043,-8.0736,7.1734,-9.9892,4.5958,8.4242,-11.1615,-16.0688,-15.1684,-15.0226,-4.6200,-12.9502,-12.1594,-22.1724,-15.0688,4.9988
980.4688,-17.1527,-5.7069,10.2789,0.0119,-8.7904,9.5479,-8.4632,6.3180,7.2439,-12.6168,-14.0989,-13.3758,-14.0748,-2.7746,-14.6098,-16.5017,-21.0612,-14.7848,5.2414
984.3750,-11.9888,-0.7841,11.0274,-1.2032,-10.2889,12.8677,-10.1006,6.3014,6.0476,-13.1009,-11.2491,-11.4103,-14.8990,-3.0081,-14.1629,-18.9991,-20.6222,-15.2705,4.4646
988.2812,-7.2137,3.0812,10.0249,-3.8305,-12.6078,16.6116,-13.0103,4.2395,4.9787,-11.0602,-8.8019,-9.5548,-16.8574,-4.4121,-10.2473,-18.7746,-20.3942,-15.6852,2.7738
992.1875,-4.1612,4.3319,7.4287,-6.7155,-15.2632,19.7002,-14.9104,0.7701,4.4855,-6.7737,-7.2934,-8.1112,-18.5418,-5.7765,-3.5328,-15.9620,-19.5665,-15.1658,0.6061
996.0938,-3.0242,3.2986,4.2094,-8.9723,-17.5548,20.9024,-15.3830,-2.9120,4.9090,-2.0842,-6.3635,-7.2075,-18.8473,-6.4889,3.3170,-11.5636,-17.8706,-13.5391,-1.5905
1000.0000,-3.2488,1.7671,1.3113,-10.4667,-19.0491,19.4865,-16.2841,-5.8513,6.0035,0.9038,-5.3541,-6.7894,-17.8383,-6.8048,7.1644,-7.0806,-16.0301,-11.6018,-3.6938
1003.9062,-4.2297,1.4019,-1.1188,-11.7466,-19.8585,15.6758,-19.9809,-7.9186,6.8041,1.2089,-4.1440,-6.8190,-16.7380,-7.3807,6.3672,-3.9250,-15.3568,-10.6968,-6.0005
1007.8125,-5.6864,2.3348,-3.7681,-13.4829,-20.4782,10.5996,-26.9984,-9.7217,6.0725,-0.4729,-3.4786,-7.4505,-17.0061,-8.5428,1.7583,-2.7683,-16.7418,-11.8059,-8.9684
1011.7188,-7.4833,3.1107,-7.4010,-15.8369,-21.2950,5.7877,-35.1527,-11.9059,3.1315,-2.3243,-4.4460,-8.9248,-19.1554,-9.9176,-4.0849,-3.1819,-19.7930,-14.7553,-12.7546
1015.6250,-9.2079,2.0569,-11.9338,-18.2288,-22.1641,2.5461,-40.9503,-14.4205,-1.4676,-2.6107,-7.4651,-11.1909,-22.1972,-10.6959,-8.6933,-3.9087,-22.8235,-18.1197,-16.8776
1019.5312,-10.0503,-1.0694,-16.1492,-19.6879,-22.4222,1.5529,-42.1016,-16.3773,-5.9952,-0.7227,-11.6309,-13.5977,-24.1834,-10.2736,-11.2509,-3.7525,-23.8092,-19.9687,-20.2966
1023.4375,-9.2507,-4.5758,-18.3769,-19.5266,-21.3713,2.7855,-39.0896,-16.6622,-8.4281,2.5516,-15.0573,-15.0570,-23.5185,-8.7313,-12.6979,-2.5725,-21.7147,-19.0231,-21.9318
1027.3438,-6.8245,-5.9859,-17.6773,-17.8328,-18.8736,5.6520,-34.5799,-14.8371,-7.6778,5.5879,-16.0902,-14.7266,-20.1175,-6.7757,-14.4543,-1.6425,-17.2617,-15.4699,-21.3275
1031.2500,-3.9226,-3.9837,-14.6198,-15.3957,-15.5658,9.1651,-31.2745,-11.5957,-4.3499,6.8870,-14.5178,-12.7526,-15.5463,-5.2080,-16.9284,-2.9542,-12.5498,-10.8749,-19.0011
1035.1562,-2.3643,0.4127,-11.0040,-13.1080,-12.4701,12.1340,-30.0242,-8.3562,-0.4565,5.8499,-11.8141,-10.4171,-11.9900,-4.3349,-19.0864,-7.7810,-9.7237,-7.2214,-16.1861
1039.0625,-3.5050,4.4454,-8.6707,-11.2878,-10.2521,13.4700,-29.6471,-6.2540,1.7944,2.9818,-10.1378,-9.3974,-10.7453,-3.7554,-19.4038,-15.4464,-9.5711,-5.6950,-14.0758
1042.9688,-7.1951,5.5734,-8.2577,-9.4408,-8.6920,12.6263,-28.3618,-5.2941,1.3525,-0.4847,-10.7804,-10.5542,-11.3085,-2.6509,-17.3226,-23.2481,-11.0179,-6.0128,-13.0491
1046.8750,-11.6504,3.2870,-8.8184,-6.6609,-6.8184,9.9711,-25.4237,-4.3366,-1.1042,-3.2597,-13.2301,-13.1463,-11.7271,-0.3472,-13.9137,-27.7703,-11.8830,-6.7232,-12.4203
1050.7812,-14.4687,-0.6268,-8.5818,-2.3882,-3.6566,6.7645,-21.5598,-1.9568,-3.7670,-4.5887,-15.5860,-15.1654,-9.9815,3.2405,-11.1438,-26.8503,-10.3775,-6.2371,-10.9237
1054.6875,-14.1887,-3.5513,-6.2807,3.0382,0.9451,4.5698,-18.0221,2.4534,-5.0217,-4.5091,-16.0187,-14.6785,-5.4173,7.5412,-10.3557,-20.9359,-6.3049,-3.8698,-7.6318
1058.5938,-11.3153,-4.0622,-2.0652,8.4514,6.0547,4.3349,-15.3489,8.1709,-4.5359,-3.7142,-14.1424,-11.2511,0.7884,11.6299,-11.2550,-12.9178,-1.1354,-0.1991,-2.6784
1062.5000,-8.0394,-2.9227,2.6365,12.5148,10.2026,5.7214,-13.0815,13.5920,-3.3389,-3.1452,-11.2222,-6.3808,6.4383,14.6681,-12.2666,-6.5138,3.0591,3.4366,2.7345
1066.4062,-6.7829,-2.3235,6.1447,14.4971,12.3639,7.2040,-10.6572,17.2854,-2.8918,-3.5267,-9.0693,-2.5643,9.7888,16.2274,-11.9491,-4.2411,5.0139,5.8666,7.0654
1070.3125,-8.5594,-4.0506,7.6315,14.6170,12.6534,6.9840,-8.4782,18.8405,-3.9089,-5.0583,-8.5435,-1.6481,10.6091,16.3629,-10.2527,-6.2485,5.0031,6.7479,9.3880
1074.2188,-12.3094,-8.0705,7.4974,13.7401,12.2056,4.1670,-7.9378,18.8932,-5.8552,-7.3875,-8.9147,-3.6728,10.0950,15.4674,-8.5422,-10.6483,4.4105,6.5214,9.8955
1078.1250,-15.6846,-12.6213,6.8258,12.6905,12.3209,-0.5931,-10.1814,18.3831,-7.4843,-9.8540,-8.6396,-7.0487,9.7776,14.0359,-8.3691,-14.9641,4.5332,5.7974,9.6064
1082.0312,-16.7024,-15.6427,6.4360,11.7036,13.5179,-5.4545,-14.6857,17.6909,-7.9429,-11.8592,-6.9172,-9.8704,10.3122,12.4667,-10.0532,-17.6372,5.5766,4.7244,9.5182
1085.9375,-15.0596,-16.3278,6.3081,10.4022,15.2025,-8.5323,-19.0984,16.3704,-7.5080,-13.1507,-4.6867,-11.3102,11.0768,10.9693,-12.2961,-18.6449,6.6119,2.8715,9.8598
1089.8438,-12.1654,-15.5628,5.7874,8.2522,16.1864,-9.0523,-20.7678,13.6664,-7.3326,-13.8646,-4.1181,-12.0109,10.8438,9.5812,-13.1691,-19.0214,6.4923,-0.2985,10.0035
1093.7500,-9.9362,-14.9990,4.3131,5.0907,15.6295,-7.7396,-18.8583,9.3498,-8.3907,-14.3179,-6.8703,-13.2403,8.9432,8.2450,-11.6463,-19.8354,4.9541,-4.7802,9.0784
1097.6562,-9.3294,-15.6207,2.0117,1.2948,13.6643,-6.2162,-15.2575,4.1369,-10.4933,-14.7099,-12.4667,-15.5820,5.9577,6.8853,-8.3967,-21.4248,2.9829,-9.7680,6.7777
1101.5625,-9.7627,-17.0188,-0.3504,-2.5198,11.2244,-5.8716,-13.3452,-0.6962,-12.2248,-14.9468,-18.1757,-18.2934,3.3825,5.4370,-5.1941,-23.3252,2.1096,-14.0489,3.7073
1105.4688,-9.8246,-17.9056,-1.9990,-5.9881,9.2478,-6.9993,-15.4599,-4.2192,-11.9250,-14.7180,-20.6796,-19.8733,2.5091,3.8272,-3.4807,-24.7328,3.1701,-16.7790,0.9917
1109.3750,-8.6279,-17.3436,-2.8222,-9.2482,7.9200,-8.7369,-21.0610,-6.5408,-8.9903,-13.7654,-18.3993,-19.3534,3.4152,1.9601,-3.3236,-25.0190,5.5189,-18.0560,-0.5475
1113.2812,-6.6374,-15.6040,-3.5042,-12.7380,6.5877,-9.7603,-27.1094,-8.7004,-4.4719,-12.1455,-12.7373,-17.2060,4.8619,-0.2404,-3.6238,-23.9439,7.3662,-18.8389,-0.9819
1117.1875,-5.2501,-13.9543,-4.9968,-16.7092,4.4174,-9.1897,-30.4013,-11.7970,-0.4625,-10.2882,-7.2323,-15.0782,5.1927,-2.7261,-3.3323,-21.5964,7.0409,-20.2533,-1.1578
1121.0938,-5.4691,-13.6258,-7.7393,-20.8677,1.2555,-7.1155,-29.9700,-16.0101,1.3031,-8.8093,-5.1587,-14.5393,3.5479,-5.2350,-2.5449,-18.3145,4.2400,-22.7877,-1.9579
1125.0000,-6.8187,-14.8768,-11.2375,-24.4538,-2.0364,-4.4902,-27.6002,-20.2786,0.5929,-8.2120,-7.3004,-15.8640,0.4648,-7.3281,-2.4707,-14.7273,0.3044,-25.9658,-3.5384
1128.9062,-7.5087,-16.9184,-14.3262,-26.7173,-4.0918,-2.5583,-26.0647,-22.9257,-1.2785,-8.6792,-11.5233,-17.8521,-2.5817,-8.5924,-4.2744,-11.7750,-2.7228,-28.7221,-5.1623
1132.8125,-5.8378,-18.6697,-15.9079,-27.4225,-4.0367,-2.2057,-26.6037,-22.8004,-2.5022,-10.0620,-14.4454,-18.8377,-4.3226,-8.9088,-7.8110,-10.4532,-3.5660,-30.1791,-5.7752
1136.7188,-1.7482,-19.5965,-15.6141,-26.9883,-2.2018,-3.5342,-27.7970,-20.1127,-2.0806,-12.0076,-13.9370,-18.0548,-4.6248,-8.5871,-11.4016,-11.2619,-2.6179,-30.2392,-4.8691
1140.6250,2.7942,-19.8787,-13.9158,-26.1548,0.0284,-5.7794,-26.7992,-16.3501,-0.3774,-14.0751,-10.5848,-16.2279,-4.4938,-8.2211,-12.9294,-13.7185,-1.5911,-29.5573,-2.9289
1144.5312,5.0533,-19.8192,-11.6511,-25.4296,1.1554,-7.5573,-21.8959,-13.3252,1.4662,-15.7580,-7.0616,-14.8943,-5.1660,-8.3127,-11.3987,-16.4250,-2.1818,-28.9379,-1.0774
1148.4375,3.5563,-19.1318,-9.3548,-24.7329,0.6122,-7.3881,-14.2038,-12.0194,2.7144,-16.4756,-5.9347,-15.0124,-7.0191,-8.9163,-7.6822,-17.8380,-4.7521,-28.6272,-0.1713
1152.3438,-0.6524,-16.8649,-6.8903,-23.4916,-0.8604,-4.3828,-7.0362,-12.0132,3.8173,-15.6784,-7.6116,-16.0073,-9.1645,-9.5835,-3.8446,-17.3017,-8.0214,-28.0393,-0.0547
1156.2500,-4.5809,-12.1299,-3.6176,-21.0863,-1.7798,1.1723,-3.4148,-11.8658,6.1317,-13.1154,-9.9768,-16.0613,-10.0493,-9.6826,-1.6035,-15.5553,-9.9970,-26.1239,0.4176
1160.1562,-5.3456,-5.0371,1.0652,-17.3032,-0.9994,7.7126,-3.7666,-10.1435,10.7923,-9.1173,-9.9704,-13.4549,-8.6112,-8.8731,-1.1822,-14.2115,-9.4469,-22.1089,2.5639
1164.0625,-2.2002,3.0101,7.2023,-12.4669,1.4991,13.0333,-5.6973,-6.3821,17.6354,-4.6295,-5.8955,-7.9147,-5.1043,-7.3594,-1.4335,-14.4733,-6.8194,-16.0898,6.8582
1167.9688,2.9827,10.0016,14.1101,-7.2015,4.6651,15.4896,-6.0114,-1.3583,25.0389,-0.8500,1.2717,-0.9166,-0.9615,-5.6965,-1.0141,-16.0254,-3.9358,-9.0623,12.4839
1171.8750,7.1184,14.4990,20.6140,-2.0480,7.1971,15.0809,-3.2997,3.4496,30.8256,1.3792,8.5121,5.2856,2.2060,-4.2796,0.4811,-17.0269,-2.6893,-2.3949,17.8084
1175.7812,8.0892,16.3806,25.4996,2.7538,8.4726,13.6066,1.0099,6.7942,33.5535,2.0254,12.8190,9.1493,3.7215,-2.9372,2.4101,-15.3464,-3.7065,2.8788,21.4414
1179.6875,6.0194,16.5847,27.9227,7.1755,8.8853,13.5674,3.9223,8.3450,33.2433,1.8099,13.1468,10.7225,4.2378,-1.0154,4.0134,-10.1966,-5.9355,6.4789,23.0985
1183.5938,2.7434,16.1196,27.6240,11.1186,9.3629,16.3731,3.3201,8.7054,31.0601,1.6414,10.8677,11.3013,5.1184,2.0317,5.4260,-2.9297,-7.4414,8.7709,23.6362
1187.5000,0.0500,15.2148,24.9354,14.2010,10.4637,21.0668,-0.4710,8.8050,28.2877,1.9526,8.5013,12.2110,7.2615,5.9648,7.7110,3.6840,-6.8273,10.2688,24.2431
1191.4062,-1.7497,13.3391,20.6345,15.7980,11.7560,24.6078,-5.2161,9.1157,25.4361,2.4654,7.7396,13.6944,10.2304,9.5534,11.7351,7.2285,-4.2772,11.1343,25.3954
1195.3125,-3.7221,10.0267,15.6995,15.3195,11.9576,23.7454,-8.8076,9.2276,22.1460,2.5947,8.2380,14.7411,12.3330,11.1013,16.8129,7.1591,-1.5116,11.0224,26.3503
1199.2188,-6.8322,5.7312,11.0083,12.5327,9.7384,17.3283,-10.9752,8.0705,17.8654,2.1576,8.0056,13.9217,11.6215,9.4174,20.4112,4.9178,-0.7084,9.3586,25.5551
1203.1250,-10.4723,1.8801,7.0608,7.7257,4.6192,7.4278,-13.2231,4.6466,12.6565,1.7455,5.0329,10.5342,7.1459,4.5806,19.4512,2.5729,-3.1333,5.8380,21.6830
1207.0312,-12.4303,-0.0058,3.8513,1.6338,-2.6573,-1.6428,-17.1514,-1.1843,7.4341,2.3384,-1.0653,5.2054,-0.3673,-2.0500,12.4499,1.0765,-8.3680,0.7968,14.5755
1210.9375,-10.5068,0.5648,0.9831,-4.8042,-10.5119,-5.8700,-22.7249,-8.3732,3.4448,4.3812,-8.5639,-0.4390,-8.8398,-8.6066,0.9593,-0.4443,-14.5899,-4.7916,5.4535
1214.8438,-4.5157,2.6359,-2.0102,-10.7231,-17.3829,-3.9502,-28.0449,-15.0539,1.4306,7.0909,-14.6078,-4.7198,-15.9364,-13.7363,-10.8524,-3.7575,-19.6595,-9.7016,-3.7202
1218.7500,3.0719,4.4812,-5.3269,-15.5416,-22.4714,2.0910,-30.8125,-19.4523,1.1543,8.7175,-16.9579,-6.7840,-20.2290,-17.1843,-18.3398,-9.6819,-22.2960,-12.9965,-11.2766
1222.6562,8.5782,4.8626,-8.7740,-19.0661,-25.9271,8.4712,-30.1743,-20.8294,1.6340,7.7809,-15.3371,-6.8945,-21.7408,-19.5846,-18.8883,-16.8421,-22.6339,-14.4211,-16.6040
1226.5625,9.6951,3.8649,-11.9487,-21.4810,-28.4322,12.2378,-27.3348,-19.8973,1.8491,4.4432,-11.5516,-6.0953,-21.6222,-21.6961,-13.2058,-22.1306,-21.8946,-14.4408,-20.2066
1230.4688,7.1960,2.6429,-14.5867,-23.2190,-30.5322,12.9867,-24.4591,-18.4236,1.3263,0.8786,-8.3938,-5.5916,-21.2554,-23.6957,-4.6928,-22.6677,-21.4622,-13.9298,-23.1160
1234.3750,4.3554,2.3114,-16.7937,-24.7222,-32.1846,12.5298,-22.9248,-18.2132,0.1800,0.1027,-8.0774,-6.2321,-21.3947,-25.0403,2.5355,-17.8429,-21.9725,-13.6992,-26.1046
1238.2812,4.4128,2.9097,-18.9549,-26.1721,-32.7984,12.9172,-22.5296,-20.0449,-1.3241,3.8796,-11.1515,-8.2599,-21.8423,-24.9302,5.6520,-9.8921,-22.9546,-14.1285,-29.2047
1242.1875,8.0006,3.3020,-21.3691,-27.3358,-31.6893,14.4643,-22.3264,-23.2035,-3.2102,11.1651,-16.4435,-11.2917,-21.7752,-22.9530,4.0568,-2.5335,-23.1935,-15.0815,-31.7702
1246.0938,12.5580,2.0925,-23.8956,-27.6584,-28.6173,15.3847,-22.1855,-25.9099,-5.8084,18.3479,-21.9165,-14.4537,-20.4256,-19.3984,-0.9573,1.3591,-21.5437,-16.1116,-32.9517
1250.0000,14.2511,-1.2011,-25.9211,-26.6011,-24.0459,13.3220,-23.4318,-26.4058,-9.3326,21.3535,-25.8243,-16.6753,-17.6430,-15.0516,-7.2302,1.3616,-17.6798,-16.7947,-32.2358
1253.9062,10.9579,-5.6785,-26.7172,-24.0394,-18.9639,7.5362,-27.7116,-24.0320,-13.4286,18.2868,-27.4745,-17.1430,-13.9962,-10.7003,-12.6916,-0.7178,-12.3368,-16.9683,-29.7267
1257.8125,4.0161,-9.6707,-25.9476,-20.4502,-14.3919,-0.0580,-34.9505,-19.6300,-17.1455,10.7810,-27.2425,-15.7682,-10.3992,-6.7813,-15.8753,-2.5774,-6.9155,-16.7383,-26.0560
1261.7188,-2.6372,-11.9355,-23.9328,-16.7173,-10.8806,-5.9335,-42.3282,-15.0152,-19.4297,3.0293,-25.9722,-13.3676,-7.5453,-3.4089,-16.0839,-3.2542,-2.7157,-16.2862,-22.0350
1265.6250,-5.2939,-12.4851,-21.4449,-13.6453,-8.3058,-7.3837,-45.5541,-11.8552,-19.7800,-0.9053,-24.2474,-11.3214,-5.5314,-0.6633,-13.4435,-3.6466,-0.2764,-15.6456,-18.2767
1269.5312,-3.1196,-12.4196,-19.1573,-11.4899,-6.0731,-4.5368,-41.8016,-10.6623,-18.5473,0.3362,-22.0367,-10.8014,-3.9048,1.1985,-8.8998,-5.4338,0.7753,-14.6380,-14.9901
1273.4375,1.3747,-12.9584,-17.1597,-9.8364,-3.5941,-0.3983,-32.0524,-10.5283,-16.6424,4.7267,-18.9226,-12.0362,-2.0777,1.8402,-4.0047,-9.3858,1.2998,-13.0289,-12.0247
1277.3438,4.3304,-14.4829,-14.9263,-7.9327,-0.7283,1.1806,-20.7927,-9.7489,-14.8894,8.4809,-14.7109,-14.1548,0.1833,1.1659,-0.4025,-14.4996,1.9565,-10.7939,-9.1083
1281.2500,3.4238,-16.3452,-11.7997,-5.2672,2.0958,-1.8215,-13.0018,-6.9314,-13.5413,8.7568,-9.9490,-15.7979,2.5278,-0.4543,0.8099,-18.6631,2.7339,-8.2870,-6.1276
1285.1562,-0.5589,-17.5362,-7.6546,-2.0030,4.1625,-8.1828,-10.6181,-1.9038,-12.3169,5.4661,-5.9262,-16.1135,4.2081,-2.3047,-0.5149,-20.2785,3.0252,-6.1621,-3.2901
1289.0625,-4.5550,-17.6095,-3.2395,1.0280,4.9674,-14.2680,-11.2746,4.1020,-10.8720,0.9632,-4.0782,-15.4158,4.5596,-3.7353,-3.6424,-19.4986,2.1826,-5.0695,-1.0684
1292.9688,-5.6855,-17.0872,0.1072,2.7694,4.5972,-16.4743,-10.4272,9.0538,-9.2584,-2.0013,-5.1366,-14.9822,3.4582,-4.5451,-7.3841,-18.0645,0.1357,-5.3135,0.0512
1296.8750,-3.3794,-17.0332,1.2269,2.5314,3.7183,-13.5695,-5.3008,11.1240,-7.9532,-2.4063,-8.5787,-16.0913,1.4506,-5.0175,-10.5418,-17.8861,-2.3978,-6.6859,-0.1235
1300.7812,0.4133,-18.1670,-0.1015,0.3561,3.1675,-7.3667,2.4830,9.5319,-7.4240,-1.5421,-12.7737,-18.9903,-0.5275,-5.5810,-12.1258,-19.5220,-4.2864,-8.5735,-1.3147
1304.6875,2.9192,-20.2425,-2.9360,-3.0451,3.4112,-1.4124,7.8090,4.8194,-7.6085,-1.6909,-15.7784,-22.5686,-1.6639,-6.3809,-11.4250,-21.7787,-4.6887,-10.2606,-2.8590
1308.5938,2.6922,-22.1724,-5.6613,-6.7026,4.2421,1.2812,5.9575,-1.4963,-7.7759,-4.0467,-16.3125,-25.0065,-1.6920,-7.1313,-8.1873,-22.7293,-3.5839,-11.2395,-4.0285
1312.5000,0.5429,-22.7760,-6.8990,-9.8737,4.9236,-0.0770,-3.4976,-7.6409,-6.9348,-7.5740,-14.3288,-24.9539,-0.9754,-7.3802,-2.9786,-21.3089,-1.7454,-11.3804,-4.4126
1316.4062,-1.3344,-21.5616,-6.2680,-12.3312,4.6779,-3.9118,-15.8841,-12.2990,-4.5003,-9.7294,-10.8748,-22.4057,-0.2399,-6.9678,2.6051,-18.1979,-0.1885,-10.9241,-4.1271
1320.3125,-1.1645,-18.9712,-4.5169,-14.3417,3.1828,-7.5065,-24.4779,-15.0238,-0.7141,-8.4825,-7.4024,-18.6696,-0.1516,-6.2866,6.3537,-15.3007,0.4953,-10.3658,-3.7126
1324.2188,1.1763,-15.9644,-2.9616,-16.3997,0.7487,-8.6051,-25.1532,-16.2161,3.5108,-4.0519,-5.0017,-15.4842,-0.9986,-6.0981,6.5846,-14.2532,0.4378,-10.2971,-3.7702
1328.1250,4.3819,-13.3075,-2.5957,-18.8760,-1.9038,-6.3888,-19.1124,-16.7345,7.2072,1.0100,-3.9919,-13.9280,-2.6164,-7.0159,3.4035,-15.1495,0.2500,-11.2213,-4.5478
1332.0312,7.0127,-11.1049,-3.4382,-21.7352,-4.0576,-1.4760,-11.6410,-17.3427,9.9789,3.4863,-3.9812,-13.8516,-4.5190,-9.0343,-0.9176,-16.4687,0.4749,-13.3278,-5.7281
1335.9375,8.6593,-8.8706,-4.5122,-24.4314,-5.2937,4.7048,-7.9127,-18.2637,12.1871,1.7014,-4.1919,-14.1393,-6.0987,-11.4526,-3.0471,-16.2217,1.1909,-16.2792,-6.5463
1339.8438,10.0087,-6.0201,-4.4456,-26.0438,-5.5001,10.5717,-9.1327,-19.0702,14.5911,-3.3253,-3.7717,-13.5243,-6.7893,-13.2562,-0.7165,-13.3979,2.0562,-19.1541,-6.1729
1343.7500,11.8779,-2.3915,-2.3096,-25.6470,-4.6969,14.7484,-11.9723,-18.9849,17.7366,-8.5614,-1.9922,-11.3673,-6.1888,-13.6876,5.5487,-8.6231,2.6990,-20.7018,-4.1442
1347.6562,14.1741,1.5646,1.8154,-22.8025,-2.9180,16.2194,-11.6224,-17.4341,21.5394,-10.9220,1.5653,-7.9389,-4.1852,-12.6303,12.4721,-3.6131,3.0766,-19.8977,-0.6073
1351.5625,15.7551,5.0217,6.8649,-17.9300,-0.2975,14.5374,-5.9526,-14.5199,25.3404,-9.1046,6.7422,-4.1429,-1.0770,-10.5875,16.0668,0.0478,3.4750,-16.5439,3.7403
1355.4688,15.3381,7.2659,11.3634,-12.2930,2.7424,10.1378,2.5469,-11.0787,28.3604,-4.1092,12.5773,-0.9598,2.4131,-8.3275,14.3856,1.8202,4.1597,-11.5198,7.9679
1359.3750,12.6736,8.1322,14.1897,-7.4858,5.4611,4.5013,8.5483,-8.2321,30.2227,1.7130,17.4287,1.0375,5.3392,-6.4567,9.0047,2.1861,5.0080,-6.4229,11.3111
1363.2812,8.9608,8.1401,15.0920,-4.6249,7.0882,-0.1679,7.9508,-6.6812,31.2052,6.2224,19.6346,1.8929,6.9280,-5.1713,4.0436,1.8754,5.4839,-2.7247,13.4522
1367.1875,6.1113,8.2499,14.6903,-3.7131,7.2961,-1.8042,1.0246,-6.2169,32.0816,8.5386,18.4857,2.1861,6.9674,-4.2705,3.2985,1.1111,5.0167,-0.9382,14.5588
1371.0938,5.4180,9.3446,14.0123,-3.6340,6.4850,0.4973,-7.7736,-5.8285,33.6671,9.0179,14.8861,2.7432,5.9157,-3.3515,7.5210,-0.4565,3.4779,-0.3638,15.0831
1375.0000,6.6588,11.6946,13.8680,-2.8814,5.5741,5.9008,-13.0894,-4.4076,36.3245,8.4822,11.0980,4.2372,4.6052,-2.0473,13.8591,-3.1141,1.3400,0.3666,15.4494
1378.9062,8.3077,14.7082,14.4306,-0.6130,5.3533,12.1115,-12.4620,-1.6101,39.6816,7.4930,9.5222,6.8082,3.6969,-0.2063,17.9225,-6.3687,-0.6501,2.2833,15.8061
1382.8125,8.6505,17.1683,15.2358,2.6751,5.8371,16.4408,-7.7498,1.7258,42.7002,6.2391,11.2033,9.8888,3.2545,2.0270,16.9810,-8.8527,-2.0357,5.3051,15.9803
1386.7188,6.9461,17.9021,15.5526,5.3743,6.1408,17.1062,-3.2723,3.9543,44.0883,4.9606,15.0894,12.4076,2.7563,4.2466,11.9344,-9.0410,-2.9855,8.2706,15.6554
1390.6250,3.8143,16.5300,14.8716,5.8171,5.0531,14.0733,-2.3075,3.6091,42.9032,4.3419,18.6649,13.3626,1.5517,5.9337,6.5980,-6.2923,-4.1072,9.7800,14.6510
1394.5312,0.6809,13.8129,13.2182,3.4745,1.9459,9.0090,-4.7312,0.3801,39.0796,5.3660,19.6229,12.4774,-0.5717,6.6795,4.8581,-1.4365,-5.8767,9.2536,13.1117
1398.4375,-1.1970,11.2968,11.1342,-0.5486,-2.6428,4.4020,-7.5142,-4.5748,33.5976,8.6273,17.4430,10.4867,-3.1532,6.3767,7.8365,3.5553,-8.1596,7.4256,11.4613
1402.3438,-1.4032,10.3997,9.3734,-4.1220,-7.2220,2.3277,-7.4648,-9.2150,28.1276,13.6245,13.7314,8.7622,-5.3543,5.2549,13.1683,6.6300,-10.2360,5.8842,10.1348
1406.2500,-0.3674,11.5025,8.5093,-5.4300,-10.2486,3.4829,-3.9114,-11.7403,24.2588,18.6489,11.0368,8.4359,-6.5703,3.7181,16.8714,6.7615,-11.3290,5.9677,9.2695
1410.1562,1.1043,13.6673,8.6613,-4.1273,-11.0759,6.9411,0.7616,-11.5363,22.6910,21.4928,10.9791,9.6013,-6.8747,2.0881,16.3394,4.4410,-11.2036,7.8123,8.5875
1414.0625,2.3054,15.2067,9.4468,-1.4969,-10.2579,10.7085,2.9884,-9.3554,22.8609,20.6161,13.0604,11.2015,-6.9269,0.4565,12.1893,1.3263,-10.3276,10.2454,7.5810
1417.9688,2.7954,14.7277,10.1327,0.5042,-8.9928,12.7690,0.6845,-6.6716,23.2601,16.0611,15.0381,11.7546,-7.3922,-1.2218,7.6211,-0.6597,-9.4412,11.5981,5.8918
1421.8750,2.3053,11.9189,9.8871,0.6277,-8.1464,12.0795,-5.3958,-4.6862,22.2822,9.5282,14.5703,10.4270,-8.3272,-2.8593,5.8527,-0.2463,-8.8831,10.8355,3.6107
1425.7812,0.6430,7.5467,8.0418,-0.8433,-7.6149,9.0120,-12.4975,-3.6590,19.0857,3.5242,10.8923,7.6510,-9.0385,-4.0370,7.6079,2.6704,-8.2516,8.1860,1.2591
1429.6875,-2.2295,2.7377,4.3159,-2.4036,-6.5110,5.0298,-18.0077,-2.9633,13.9411,0.0501,5.2689,4.7896,-8.5661,-4.0969,10.5306,7.0449,-6.7178,4.8516,-0.5556
1433.5938,-6.0299,-1.8240,-1.0301,-2.5020,-3.9997,1.8040,-21.1161,-1.7392,7.8887,-0.4343,-0.0724,3.0775,-6.4450,-2.5215,10.9080,11.1283,-3.7683,2.0811,-1.5621
1437.5000,-10.1162,-6.1217,-7.1593,-0.6919,-0.0957,0.2844,-22.8103,0.3769,2.0164,0.8210,-3.6575,2.6556,-3.1487,0.6780,6.3831,13.1502,0.2280,0.3481,-1.9951
1441.4062,-13.6833,-10.3165,-12.8141,2.0883,4.2312,0.2648,-24.5023,2.9728,-3.0900,1.6637,-5.7787,2.4756,0.1541,4.8958,-2.3212,12.0304,4.1307,-0.7589,-2.3630
1445.3125,-16.0816,-14.0572,-16.6847,4.2743,7.7301,0.6680,-26.6338,5.1891,-7.3596,0.3782,-8.0365,1.1735,2.3742,9.2905,-11.8380,7.8801,6.7811,-1.9243,-2.9834
1449.2188,-17.0321,-16.3150,-17.8960,4.8595,9.7754,0.3268,-28.4180,6.3640,-10.8084,-3.2128,-11.8134,-1.7674,3.2271,13.3069,-18.3355,2.0391,7.8291,-3.3383,-3.6620
1453.1250,-16.6188,-16.0273,-16.3982,4.0868,10.7612,-1.2705,-28.7408,6.4941,-13.1363,-7.5609,-16.9154,-5.5035,3.3487,16.9306,-19.8472,-3.4835,7.9674,-4.4382,-3.8070
1457.0312,-15.1391,-13.0895,-13.0338,3.1440,11.6543,-3.7378,-27.2251,6.1742,-13.7706,-10.2925,-21.4690,-8.3996,3.7119,20.4273,-17.1927,-6.9920,8.3532,-4.3718,-2.9298
1460.9375,-12.9784,-8.8256,-9.1886,3.1371,13.0647,-6.1432,-24.4504,6.0812,-12.3607,-9.7039,-23.1617,-9.2499,4.7974,23.7610,-13.0380,-8.0030,9.6398,-2.7799,-1.1551
1464.8438,-10.5745,-5.3987,-6.1702,4.1701,14.5981,-7.6318,-21.2320,6.4048,-9.2882,-5.9278,-20.8726,-8.1792,6.1729,26.2023,-9.9422,-7.4716,11.3754,-0.2207,0.6922
1468.7500,-8.3813,-4.4625,-4.6321,5.2554,15.0491,-7.8540,-17.8091,6.6609,-5.6851,-0.9697,-15.4653,-6.5035,6.8179,26.5527,-8.8113,-7.0937,12.2713,2.1504,1.5570
1472.6562,-6.7214,-6.0390,-4.3563,5.1217,13.3257,-6.9595,-13.8562,6.0404,-2.8295,2.5105,-9.1866,-5.6631,5.9492,23.9316,-8.7212,-8.0503,11.1793,3.4149,0.8808
1476.5625,-5.5791,-8.5181,-4.4996,3.2799,9.4006,-5.3034,-9.3648,4.0544,-1.3275,2.9401,-4.1847,-6.0930,3.7074,18.5751,-8.0203,-10.0277,8.0610,3.5749,-0.9450
1480.4688,-4.5515,-9.8461,-4.1337,0.5113,4.5399,-3.2213,-5.4626,1.0174,-0.7197,0.9250,-1.2655,-6.9459,1.1666,11.9947,-5.7734,-11.2701,4.2111,3.5306,-2.7641
1484.3750,-3.1276,-9.0252,-2.7454,-1.6123,0.6059,-1.0933,-4.1215,-1.9906,0.1351,-1.1378,0.2657,-6.8806,-0.3444,6.2727,-2.4918,-9.7631,1.5344,4.3558,-3.3772
1488.2812,-1.1749,-6.7768,-0.4180,-1.8230,-1.0661,0.4407,-6.6657,-3.6891,2.1536,-0.7719,1.7206,-5.2578,-0.1008,2.9257,0.2966,-4.8222,1.3671,6.4399,-2.2972
1492.1875,0.7644,-4.8630,2.3517,-0.0518,-0.3972,0.4854,-12.2238,-3.3382,5.2889,2.6778,3.9054,-2.7493,1.6135,2.1241,1.2528,2.0260,3.6619,9.1700,0.0014
1496.0938,1.7332,-4.6233,5.0156,2.5385,1.6001,-1.6646,-17.6244,-1.1802,8.5403,7.3320,6.6255,-0.8500,3.8254,2.8235,0.3252,7.5990,7.0811,11.3954,2.5020
1500.0000,1.1233,-5.9095,7.2495,4.3922,3.6991,-5.8426,-19.2349,1.6997,10.7212,9.8809,9.0768,-0.6794,5.6300,3.6881,-1.0222,8.8279,9.8984,12.2990,4.4002
1503.9062,-0.6027,-7.2612,8.9960,4.6509,5.3459,-10.6494,-15.6044,4.0017,11.3924,7.8604,10.6577,-2.0411,6.7973,4.0948,-0.6277,4.6535,11.0652,11.9900,5.6260
1507.8125,-1.8911,-7.1467,10.3294,3.7097,6.9027,-13.8783,-8.8567,4.9259,11.2392,1.5539,11.4874,-3.4943,7.8059,4.4704,3.0060,-3.1921,10.7431,11.3766,6.7734
1511.7188,-0.9867,-5.2168,11.3221,2.8723,9.1335,-13.6522,-3.5004,4.5310,11.6035,-5.8578,12.2655,-3.3764,9.3569,5.7551,9.6497,-11.0647,10.0332,11.4536,8.5484
1515.6250,2.7902,-2.5272,12.0399,3.3915,12.4130,-9.5988,-3.2664,3.5443,13.5407,-10.1075,13.7001,-0.9669,11.8128,8.4793,17.2653,-15.4104,10.1895,12.5852,11.2103
1519.5312,8.3245,-0.5615,12.6399,5.5904,16.3105,-3.2355,-8.2484,2.7916,17.1167,-8.4562,16.0284,3.0924,15.0003,12.2174,23.0042,-14.6265,11.8911,14.3216,14.4375
1523.4375,13.1867,0.0916,13.4150,8.6501,19.8538,2.7990,-14.6141,2.6512,21.4341,-1.3868,18.9612,7.3737,18.4581,15.8441,24.7371,-9.6501,14.9938,15.8214,17.6686
1527.3438,15.0931,0.2501,14.6623,11.1434,22.2083,6.2238,-17.3090,2.8856,25.2853,7.7131,21.9470,10.6889,21.8173,18.3352,22.2192,-3.0268,18.7801,16.4680,20.5594
1531.2500,13.3463,1.3678,16.4159,11.8867,23.1968,6.3371,-13.8507,2.9243,27.8698,14.5846,24.4054,12.7213,24.9222,19.4175,17.1904,2.7854,22.3970,16.1558,23.1219
1535.1562,9.2049,4.1053,18.2422,10.5305,23.2567,4.1713,-6.3423,2.3546,29.0468,16.4335,25.7409,13.8242,27.5854,19.5209,12.3452,6.6874,25.1507,15.0673,25.4206
1539.0625,4.8990,7.4652,19.3078,7.5670,22.9198,1.5291,-0.0692,1.2488,29.0507,13.0856,25.2908,14.2987,29.2574,19.1089,9.8108,9.0124,26.5514,13.2299,27.1305
1542.9688,2.0264,9.2867,18.7541,3.8672,22.2872,-0.3554,0.3664,0.0978,28.0607,6.4367,22.5120,13.8850,29.0234,18.0107,10.0781,10.5492,26.2476,10.3298,27.4288
1546.8750,0.5353,7.7861,16.1850,0.1371,20.9448,-1.5538,-5.5201,-0.5882,26.0744,-1.1080,17.4545,11.9608,26.0786,15.3979,12.0200,11.4143,24.0399,6.0084,25.4379
1550.7812,-0.9672,2.9458,11.9571,-3.3537,18.3745,-3.0964,-13.7344,-0.7066,23.1766,-7.9490,11.1615,8.2666,20.3918,10.5018,13.8885,10.7236,20.0189,0.3967,20.9504
1554.6875,-3.8742,-3.3587,7.0717,-6.6826,14.4961,-5.8887,-18.8263,-0.7063,19.8632,-13.5388,5.4930,3.4709,13.0221,3.5165,14.5290,7.3501,14.6855,-5.6155,14.8649
1558.5938,-8.2981,-8.6191,2.7216,-9.9898,9.8818,-9.7746,-17.9844,-1.3393,16.9991,-17.7214,2.2407,-1.0009,5.7523,-4.0836,13.9556,1.1779,8.8800,-10.6902,8.9154
1562.5000,-12.8623,-11.3674,-0.2282,-13.2371,5.4714,-13.4670,-13.0366,-3.1866,15.3393,-20.0312,2.0305,-3.8118,0.2031,-10.1607,12.9639,-6.1737,3.4920,-13.7628,4.7911
1566.4062,-15.7112,-11.9823,-1.5254,-16.1416,2.0279,-15.3796,-8.8136,-6.2651,14.9999,-19.7100,3.8407,-4.5739,-2.9880,-13.0917,12.2137,-11.8556,-0.8874,-14.6345,3.2269
1570.3125,-15.9243,-12.0685,-1.4572,-18.2636,-0.2421,-14.7136,-9.1907,-9.9556,15.3835,-16.4464,5.6305,-4.0132,-4.3558,-12.6811,11.5984,-13.3487,-4.1415,-13.9745,3.6988
1574.2188,-14.2411,-12.9894,-0.5483,-19.1586,-1.6472,-12.0075,-13.9726,-13.2733,15.6959,-11.1268,5.7454,-3.3002,-5.0533,-10.1680,10.4287,-10.0928,-6.5272,-12.7353,4.9204
1578.1250,-12.5767,-14.7706,0.7191,-18.5330,-2.6621,-8.7986,-19.1272,-15.3105,15.6388,-5.8192,4.0954,-3.0947,-5.9893,-7.3550,8.2379,-4.0457,-8.3990,-11.4638,5.7553
1582.0312,-12.7548,-16.2144,1.9926,-16.3868,-3.6096,-6.6984,-20.2079,-15.6126,15.6453,-2.8189,2.1735,-3.0931,-7.2981,-5.5115,5.4597,1.3307,-9.9709,-10.0617,5.8679
1585.9375,-15.4215,-16.0340,2.9756,-13.1158,-4.6242,-6.5446,-16.2125,-14.3348,16.3790,-3.3543,1.8331,-2.4342,-8.4921,-4.8078,3.3214,3.1253,-11.2710,-8.1562,5.6791
1589.8438,-19.8557,-13.9894,3.3704,-9.4919,-5.8394,-8.1294,-10.7128,-12.1509,17.8877,-6.8439,3.7262,-0.5888,-9.0869,-4.5719,2.9666,0.8026,-12.2572,-5.7098,5.7570
1593.7500,-24.6326,-11.0718,2.9749,-6.4424,-7.5106,-10.5320,-9.2127,-9.9842,19.1977,-11.2086,6.6375,2.0525,-9.1265,-4.0347,4.5111,-3.4023,-12.9324,-3.2874,6.2064
1597.6562,-28.4897,-8.6380,1.8899,-4.6569,-9.8529,-12.6954,-14.7264,-8.6507,18.8457,-14.0169,8.3013,4.4217,-9.1452,-2.9268,6.8444,-5.8457,-13.3215,-1.6982,6.5800
1601.5625,-30.7613,-7.2984,0.6269,-4.2086,-12.6810,-13.8609,-25.0777,-8.5173,16.0582,-13.7296,7.1350,5.6593,-9.6068,-1.5210,8.3919,-3.7890,-13.3294,-1.2937,6.3615
1605.4688,-31.2730,-6.5434,-0.0691,-4.4517,-15.1967,-13.7247,-34.1745,-9.2921,11.6383,-10.3637,3.5639,5.8903,-10.3228,-0.2228,8.2442,2.7869,-12.6459,-1.5485,5.5686
1609.3750,-30.0876,-5.4158,0.3427,-4.3369,-16.2325,-12.4253,-36.4189,-10.0724,7.7151,-5.3497,-0.1316,6.2012,-10.4014,0.8443,6.7292,11.0416,-10.8525,-1.3568,4.9075
1613.2812,-27.5051,-3.6035,1.7752,-3.0183,-14.9011,-10.4944,-30.8987,-9.7091,6.3606,-0.8200,-1.4001,7.7762,-8.8491,1.8881,4.9619,16.9340,-7.7281,0.1116,5.2844
1617.1875,-24.2917,-1.9416,3.4375,-0.3955,-11.2310,-8.7480,-22.0852,-7.3844,8.0336,1.2701,0.7156,10.8578,-5.3950,3.1555,3.7829,17.6478,-3.5510,2.6603,7.0339
1621.0938,-21.7102,-1.8158,4.2420,2.7712,-6.2900,-8.0068,-16.4233,-3.1276,11.0809,-0.1036,4.8195,14.3691,-0.8790,4.6364,3.0350,13.2509,0.8539,5.0650,9.4964
1625.0000,-21.0100,-3.9154,3.4767,5.2800,-1.6359,-8.6554,-17.4049,2.0506,12.7978,-4.5698,8.0755,16.5393,3.1530,6.0773,1.8371,6.5460,4.4303,5.9023,11.3321
1628.9062,-22.5662,-7.3854,1.2953,6.1887,1.5682,-10.2950,-22.9413,6.5501,11.3544,-10.3392,8.1105,16.0919,5.4015,7.2899,-0.3843,1.2365,6.4186,4.6204,11.3840
1632.8125,-25.3476,-10.1537,-1.3425,5.3489,3.1634,-11.8302,-27.1101,8.9336,7.1606,-14.7813,4.5218,13.1233,5.6296,8.4350,-3.0759,-0.3770,6.7684,2.0298,9.4571
1636.7188,-27.3123,-10.2750,-3.2829,3.4343,3.8993,-12.0926,-24.9622,8.6189,2.6043,-15.5710,-1.0416,9.0380,4.7443,9.9659,-4.8024,1.3192,6.1493,-0.1923,6.4276
1640.6250,-26.6516,-7.3014,-3.9407,1.4739,4.7258,-10.6631,-16.6691,6.1059,0.3180,-11.9659,-6.1520,5.6238,4.0898,12.2324,-4.4843,3.7800,5.5230,-0.6385,3.6066
1644.5312,-23.0537,-2.6423,-3.6786,0.2322,6.0186,-8.2898,-7.7524,2.6194,1.2722,-5.4542,-9.1863,3.9661,4.4866,15.0795,-2.5931,4.2134,5.5344,0.8907,1.8524
1648.4375,-18.0069,1.3560,-3.5133,-0.1408,7.3249,-6.4896,-5.1286,-0.5707,4.1451,0.8312,-10.0689,3.9598,5.7298,17.8195,-1.1463,1.5516,6.1124,3.3389,1.1025
1652.3438,-13.8233,2.9216,-4.3392,0.0060,7.8057,-6.5054,-11.9216,-2.7067,6.4325,3.8226,-9.7892,4.6707,6.8878,19.6495,-2.2666,-2.8498,6.5476,5.2430,0.6492
1656.2500,-12.0434,1.8663,-6.2129,0.2520,7.0033,-8.3298,-24.9578,-3.6655,6.4081,2.3963,-9.2865,5.1586,7.1267,20.1972,-6.3314,-6.2167,6.0022,5.8104,-0.1159
1660.1562,-12.3986,-0.5516,-8.2218,0.4783,5.3154,-10.5464,-36.8367,-3.6870,4.3894,-1.8393,-8.6933,5.0954,6.3895,19.7461,-11.2654,-6.3421,4.1135,5.4107,-1.1194
1664.0625,-13.1052,-2.6695,-9.0494,0.9066,3.7867,-11.1891,-41.0258,-3.0281,2.3403,-5.4952,-7.4927,4.7675,5.4020,18.9410,-13.7630,-3.1831,1.2769,5.1587,-1.6646
1667.9688,-12.2406,-3.5022,-7.8509,1.8126,3.3658,-9.0626,-36.2033,-1.8501,2.1825,-5.5586,-5.3015,4.5863,5.0210,18.2092,-11.6987,1.0129,-1.5991,5.9738,-1.0675
1671.8750,-9.1289,-3.1055,-4.8204,3.1886,4.1959,-4.5895,-26.7248,-0.3737,4.2110,-1.3112,-2.4787,4.5935,5.4667,17.3752,-5.8966,3.1276,-3.7155,7.8812,0.6728
1675.7812,-4.6955,-2.1240,-1.0457,4.6607,5.4860,0.4324,-19.0635,0.9517,6.9009,5.3242,0.0253,4.3854,6.0680,15.7929,0.2376,1.1903,-4.9549,10.0734,2.7477
1679.6875,-0.6096,-1.0628,2.2395,5.7410,6.0746,3.9839,-17.0435,1.5552,8.2360,11.2208,1.4483,3.4832,5.7472,12.8991,3.1292,-4.3243,-5.9771,11.6157,4.0941
1683.5938,2.0110,0.0647,4.4643,6.2128,5.2789,5.0510,-19.4352,1.1471,7.4358,14.1794,1.9189,1.8067,3.8875,8.7467,1.7390,-10.7396,-7.7144,12.1766,4.2094
1687.5000,3.2755,1.5015,6.0047,6.3233,3.4157,4.0591,-21.5218,0.1060,5.6347,14.1737,2.4354,-0.1538,0.9239,4.1035,-1.5574,-14.7781,-10.5650,12.1913,3.5776
1691.4062,4.1155,3.2582,7.7495,6.6074,1.6266,2.2787,-19.1913,-0.5529,4.9348,12.8670,4.0952,-1.6046,-1.8008,0.0527,-2.7248,-14.4936,-13.8284,12.3697,3.3470
1695.3125,5.2703,4.8901,10.2852,7.4563,1.1472,0.7460,-12.3047,0.2504,6.6075,11.9320,7.1871,-1.9459,-2.8313,-2.5792,0.7711,-10.3514,-15.8291,13.0045,4.4789
1699.2188,6.6010,5.7552,13.3163,8.7559,2.5342,-0.4369,-4.8242,2.8810,9.9457,11.6250,10.8741,-1.1378,-1.4880,-3.5486,7.8026,-4.8536,-14.7440,13.6751,7.0026
1703.1250,7.3012,5.4993,15.7640,9.8782,5.3611,-1.9268,-1.7662,6.5808,12.7599,10.7845,13.7101,0.2964,1.7565,-3.1022,14.1643,-1.0138,-9.6765,13.5761,9.9366
1707.0312,6.7309,4.3041,16.4746,10.0441,8.5291,-4.3273,-5.4158,9.8089,13.1758,8.1809,14.5684,1.5865,5.6290,-1.6492,15.5820,-0.6447,-1.3126,12.1666,11.9296
1710.9375,5.0491,2.6669,15.0143,8.8000,10.9217,-7.4834,-13.6455,11.1641,11.2964,3.9722,13.2709,2.1086,8.8331,0.4601,10.9373,-3.4645,8.2804,9.5774,12.1400
1714.8438,3.0451,0.9156,11.9574,6.2669,11.9489,-10.4962,-21.4579,10.2561,9.3511,-0.0857,10.5018,1.6135,10.6913,2.8824,3.2492,-7.4738,16.6181,6.4399,10.7074
1718.7500,1.3444,-1.0944,8.4501,2.9971,11.6798,-12.4425,-24.4548,7.8825,10.1170,-1.9664,7.1894,0.2044,11.2536,5.0978,-2.3958,-10.2828,21.9489,3.3061,8.5003
1722.6562,-0.2215,-3.8181,5.3773,-0.4323,10.5939,-13.1865,-21.6692,5.3640,14.7656,-1.1790,3.9165,-1.8520,10.9147,6.3960,-2.4835,-10.5426,23.9008,0.1731,6.3802
1726.5625,-2.4248,-7.5262,2.7574,-3.7728,9.2159,-13.5874,-15.8865,3.5296,21.7674,0.5041,0.7980,-4.3259,9.9280,6.1792,2.4009,-8.6369,23.2887,-3.4742,4.5711
1730.4688,-5.7431,-11.9044,-0.1710,-7.1480,7.8975,-14.9002,-11.5219,2.1220,27.6995,0.1393,-2.2091,-7.1144,8.2233,4.3975,8.0155,-6.2793,21.3082,-8.1346,2.6128
1734.3750,-9.5828,-16.0943,-4.2201,-10.7857,6.8114,-17.8184,-11.7642,0.0846,29.3834,-4.2134,-4.9706,-10.1854,5.6338,1.7352,9.5230,-5.3356,18.7265,-13.7244,-0.0972
1738.2812,-12.4372,-19.1507,-9.4173,-14.6771,6.0375,-21.8917,-16.9056,-3.4845,25.8166,-11.9070,-7.1768,-13.4203,2.2819,-0.6961,4.8975,-6.6359,15.6164,-19.4487,-3.6241
1742.1875,-13.0021,-20.5540,-14.6908,-18.4490,5.5869,-25.7503,-24.6456,-8.4523,18.5827,-19.9815,-8.6549,-16.4586,-1.2473,-2.0196,-3.7752,-9.5114,11.7296,-24.2189,-7.2265
1746.0938,-11.3721,-20.3983,-18.3405,-21.5498,5.3403,-27.9473,-31.7229,-13.5368,10.6078,-25.1205,-9.6246,-18.6658,-4.1264,-2.1526,-11.9184,-12.3096,7.1157,-27.2767,-9.7152
1750.0000,-9.2425,-19.1635,-18.9972,-23.5906,5.0091,-27.7803,-35.5810,-17.0736,4.3148,-25.8021,-10.5608,-19.3081,-5.7474,-1.8377,-15.6531,-13.5078,2.4284,-28.5343,-10.1814
1753.9062,-8.7817,-17.3164,-16.4219,-24.5564,4.2432,-25.5304,-35.1745,-18.0984,0.5258,-23.0342,-11.7104,-17.9045,-6.0681,-2.0935,-14.1535,-12.6648,-1.3559,-28.3959,-8.5577
1757.8125,-10.9488,-15.0740,-11.6122,-24.7111,2.8694,-22.0408,-30.8948,-16.9460,-1.2829,-19.2331,-12.6827,-14.5753,-5.5743,-3.4724,-9.5792,-10.5776,-3.5921,-27.2718,-5.6163
1761.7188,-14.5801,-12.4691,-6.1703,-24.2765,1.0936,-18.0576,-24.1224,-14.9355,-1.8798,-16.2817,-12.5347,-10.1369,-4.8877,-5.6599,-4.9311,-8.5632,-4.4616,-25.2313,-2.4262
1765.6250,-17.0482,-9.5709,-1.3887,-23.1678,-0.5297,-13.8647,-16.7943,-13.4056,-1.4118,-14.3817,-10.3806,-5.7896,-4.3221,-7.6992,-1.7140,-7.4095,-4.8934,-22.0916,0.3225
1769.5312,-16.0924,-6.6073,2.3273,-21.0336,-1.4038,-9.4322,-10.9611,-12.8367,0.5203,-12.5383,-6.0906,-2.5090,-3.7212,-8.6597,0.7525,-6.7804,-5.9430,-17.8333,2.6543
1773.4375,-11.4798,-3.8710,5.3635,-17.6079,-1.3014,-4.8451,-8.1582,-12.6916,4.0568,-10.0659,-0.5325,-0.5037,-2.6891,-8.2560,4.0083,-5.5390,-8.0878,-12.9330,5.1033
1777.3438,-5.2559,-1.5264,8.2895,-13.1090,-0.5938,-0.5798,-8.7070,-12.0303,8.4148,-7.6298,4.8523,0.8671,-1.0204,-6.9858,8.4268,-2.7686,-10.9605,-8.2691,8.1677
1781.2500,-0.4117,0.4730,11.2490,-8.3390,-0.1039,2.6303,-11.4381,-10.3630,12.0787,-6.7909,8.8250,2.5969,1.0110,-5.7290,12.3304,1.2793,-13.6945,-4.6276,11.8406
1785.1562,1.0183,2.2665,13.8032,-4.3382,-0.6356,4.2190,-14.2691,-8.0588,13.7653,-8.4101,10.9128,5.2600,2.7305,-5.1355,13.0890,5.0719,-15.5779,-2.1985,15.5433
1789.0625,-0.9572,3.8871,15.3013,-1.7839,-2.4589,4.1432,-15.4800,-6.0158,13.3580,-11.3880,11.4000,8.5123,3.4562,-5.2418,9.3517,6.6902,-16.4878,-0.4862,18.4701
1792.9688,-4.6983,5.1801,15.4382,-0.5529,-5.0807,2.8913,-14.8676,-4.8920,11.9772,-13.0606,10.8738,11.2650,2.9218,-5.5475,2.5648,5.1483,-16.7826,1.2609,20.0673
1796.8750,-8.3529,5.9180,14.5328,0.2070,-7.4580,1.1660,-13.8807,-4.5285,11.0571,-11.2020,9.7756,12.4425,1.4287,-5.4364,-3.5804,1.1943,-16.7928,3.4183,20.3046
1800.7812,-11.1035,5.9847,13.3029,1.4919,-8.5394,-0.4892,-14.5185,-4.0220,11.1361,-6.1145,8.3078,11.7765,-0.3668,-4.6093,-5.5254,-3.0107,-16.3849,5.6334,19.5816
1804.6875,-13.3493,5.4314,12.3166,3.7133,-7.8206,-1.8527,-17.7448,-2.3920,11.3326,-0.9945,6.6380,10.0146,-1.8706,-3.2419,-2.3553,-5.1484,-15.0071,7.0186,18.3786
1808.5938,-15.8935,4.3381,11.5548,6.3270,-5.5992,-2.9300,-22.6194,0.6617,9.9517,0.0224,5.0342,8.3436,-2.8773,-1.8116,3.4246,-4.0787,-12.2073,6.7298,16.9193
1812.5000,-18.9859,2.6346,10.4252,8.0950,-2.8011,-3.7722,-26.8473,4.4543,5.7664,-5.1100,3.6547,7.4364,-3.6047,-0.7563,7.4726,-0.3716,-8.1931,4.4887,15.0647
1816.4062,-22.0624,0.1055,8.2114,7.8252,-0.4988,-4.4054,-28.3631,7.6511,-1.0140,-14.4827,2.1349,6.8570,-4.4509,-0.2033,6.4679,4.2359,-3.9369,0.6792,12.4713
1820.3125,-24.3054,-3.3583,4.6069,5.1020,0.5962,-4.9060,-26.7589,8.9795,-8.8235,-23.0677,-0.5524,5.3210,-5.6802,0.0899,0.2491,7.9485,-0.6734,-3.9922,8.8677
1824.2188,-25.4076,-7.4615,-0.0684,0.5253,0.3975,-5.4824,-23.5024,7.8395,-15.7752,-25.8516,-5.6020,1.6667,-7.2603,0.5832,-8.2109,9.7498,0.8677,-8.9473,4.2615
1828.1250,-25.7985,-11.4652,-5.1050,-4.6760,-0.6455,-6.4126,-20.8581,4.4912,-20.8319,-21.1415,-13.4195,-4.1653,-8.9340,1.6966,-14.8754,9.4745,0.9165,-13.9236,-1.0277
1832.0312,-26.1470,-14.5265,-9.8689,-9.3546,-1.8939,-7.8448,-20.4166,-0.1703,-24.2305,-11.7224,-22.8894,-10.8814,-10.4234,3.5797,-17.2382,7.3184,0.4493,-18.7874,-6.4809
1835.9375,-26.6407,-16.2023,-14.1010,-12.9707,-2.8955,-9.6362,-22.3522,-5.0009,-26.9058,-3.0495,-31.5573,-16.5219,-11.5800,6.0116,-15.6650,3.4336,0.4589,-23.1983,-11.5336
1839.8438,-26.7371,-16.7113,-17.8171,-15.5957,-3.5689,-11.4071,-25.8180,-8.9184,-29.4577,0.2538,-36.8115,-19.5998,-12.3696,8.4827,-12.7124,-1.9359,1.2566,-26.4763,-15.6919
1843.7500,-25.6213,-16.7029,-20.9357,-17.4673,-4.1117,-12.8022,-29.9184,-11.0906,-31.5308,-2.8196,-37.3648,-19.8891,-12.7342,10.4357,-11.1202,-7.9516,2.3238,-27.8464,-18.5965
1847.6562,-22.9509,-16.6849,-23.0116,-18.5159,-4.7242,-13.7472,-34.2978,-11.0959,-32.0972,-9.4000,-34.0107,-18.3458,-12.4898,11.5506,-12.0140,-12.9674,2.7958,-26.9026,-20.0673
1851.5625,-19.2076,-16.5721,-23.3842,-18.2821,-5.3613,-14.4597,-38.8852,-9.1093,-30.3836,-14.9731,-29.0740,-16.3021,-11.3912,11.9058,-14.5293,-15.1136,2.1736,-23.9327,-20.1447
1855.4688,-15.3568,-15.7494,-21.6940,-16.3146,-5.6989,-15.1693,-43.2191,-6.0049,-26.6672,-16.3822,-24.9013,-14.5810,-9.3486,11.8843,-16.9089,-13.4715,0.7006,-19.8312,-19.0964
1859.3750,-12.1523,-13.6282,-18.3627,-12.7166,-5.3567,-15.7662,-46.2095,-3.1704,-22.2821,-13.5204,-22.4448,-13.1600,-6.6290,11.8570,-18.0479,-8.9646,-0.8701,-15.6327,-17.3383
1863.2812,-9.7232,-10.2434,-14.5795,-8.3525,-4.2234,-15.7019,-46.7542,-1.9503,-18.8066,-8.7549,-20.9254,-11.5186,-3.8474,11.8559,-18.2410,-4.1051,-1.8937,-11.9706,-15.2626
1867.1875,-7.7745,-6.3756,-11.6699,-4.4591,-2.6381,-14.2879,-44.7139,-2.9221,-17.0379,-4.7987,-18.7523,-9.2653,-1.6800,11.5114,-18.6176,-1.5308,-2.3117,-8.8160,-13.0438
1871.0938,-6.1133,-3.0612,-10.2177,-1.8778,-1.2519,-11.2260,-41.2570,-5.4314,-16.5117,-2.7289,-14.9458,-6.4918,-0.4433,10.3613,-19.8139,-2.2581,-2.5942,-5.6424,-10.5464
1875.0000,-4.8971,-0.8709,-9.5780,-0.4617,-0.6177,-6.9826,-38.0390,-7.7620,-15.9034,-1.5282,-9.9714,-3.6161,0.1801,8.3459,-21.0149,-4.9463,-3.2089,-1.8790,-7.4215
1878.9062,-4.3041,0.4406,-8.2188,0.8533,-0.7716,-2.6996,-35.7694,-7.9677,-14.0036,0.7250,-5.3933,-0.9614,1.0379,6.0905,-20.1943,-6.8186,-4.0773,2.6470,-3.3754
1882.8125,-3.9653,1.6044,-4.7637,3.2886,-1.1242,0.3475,-33.4460,-4.9568,-10.5722,5.0849,-2.6828,1.4723,3.0189,4.6695,-15.4621,-5.6635,-4.5044,7.5273,1.5350
1886.7188,-2.8532,3.0820,0.9308,7.2684,-0.7947,1.4086,-29.1557,0.7996,-6.5097,10.7410,-2.1400,3.8072,6.4396,4.9154,-6.5914,-1.4777,-3.6859,11.9129,6.7635
1890.6250,0.0304,4.5232,7.4298,11.9601,0.7884,0.6130,-22.0289,7.3948,-3.2881,15.4601,-2.7458,5.8642,10.6938,6.7323,4.3587,3.4710,-1.4150,14.8628,11.4072
1894.5312,4.6111,4.9228,12.4198,15.6816,3.4248,-1.1935,-13.7693,12.4267,-2.0706,17.0582,-2.9965,6.9703,14.4336,8.9633,13.8025,6.2080,1.5864,15.7199,14.5695
1898.4375,9.2970,3.3962,14.0533,16.9421,6.1732,-2.9971,-8.2471,14.2361,-3.0947,14.8272,-2.0243,6.2742,16.2389,10.0140,18.3426,5.0622,4.0296,14.3664,15.7644
1902.3438,11.7587,-0.0358,12.0649,15.4070,7.9075,-4.1905,-9.0709,12.7287,-5.6443,9.9766,-0.1495,3.3852,15.4106,8.8739,16.4366,0.6243,4.9102,11.2765,15.1320
1906.2500,10.5619,-4.3038,7.9061,12.1045,8.0515,-4.8405,-16.7771,9.3039,-8.5346,4.8785,1.4812,-1.1789,12.4074,5.8241,9.0983,-4.9874,4.2472,7.3477,13.3324
1910.1562,6.4315,-7.9442,3.7993,8.7117,6.9811,-5.5401,-27.8594,5.9467,-10.7551,1.6679,1.7877,-6.1585,8.6302,2.2871,-0.6584,-9.8510,3.1503,3.5501,11.1702
1914.0625,2.0180,-10.0724,1.3479,6.4136,5.7882,-6.9885,-36.6638,4.0403,-11.9077,1.0755,0.4505,-10.2775,5.6464,-0.1242,-9.2247,-13.5081,3.1133,0.5140,9.1666
1917.9688,0.1248,-10.9346,0.6375,5.1410,5.5471,-9.5508,-39.0062,3.6310,-12.2661,2.1339,-2.0673,-13.0131,4.3049,-0.6893,-13.8938,-16.7810,4.9834,-1.7531,7.3337
1921.8750,1.6247,-11.6256,0.4092,3.7307,6.5969,-13.0084,-34.9186,3.5902,-12.5092,2.8432,-5.0420,-14.8307,4.2854,0.0000,-13.8035,-20.4111,8.3090,-3.8419,5.2874
1925.7812,4.6772,-13.2102,-0.8677,0.8871,8.3546,-16.5866,-28.4275,2.5506,-13.3099,1.3591,-8.0211,-16.7027,4.3724,0.6011,-10.0629,-23.8083,11.5293,-6.5710,2.6259
1929.6875,5.9632,-15.9336,-3.8169,-3.7541,9.7940,-19.2379,-24.4560,-0.0184,-14.9741,-2.9635,-10.9252,-19.2838,3.2915,0.1355,-5.1603,-25.1140,12.9123,-10.4520,-0.6737
1933.5938,3.1056,-19.1005,-7.7022,-9.2425,10.2224,-20.0869,-25.1637,-3.3406,-17.2738,-9.2163,-13.7417,-22.3695,0.5813,-1.2110,-1.9381,-22.6419,11.6398,-15.3117,-4.1078
1937.5000,-3.5240,-21.6520,-10.9821,-13.8977,9.7556,-18.8799,-28.5339,-5.8334,-19.5377,-15.4382,-16.2135,-25.0295,-3.0608,-2.2473,-2.4628,-16.5359,8.3339,-20.3310,-6.8610
1941.4062,-10.9968,-22.9261,-12.4159,-16.4516,9.1216,-16.2359,-30.3086,-6.2784,-20.9625,-19.6884,-17.8879,-26.2789,-6.1902,-1.8006,-7.1387,-9.1992,4.6752,-24.4974,-8.2578
1945.3125,-15.8770,-22.9921,-11.8864,-16.9204,8.9543,-13.5082,-27.7477,-4.8576,-20.9978,-21.0964,-18.4979,-25.7500,-7.5174,0.1840,-14.4172,-3.9938,2.3555,-27.1737,-8.1563
1949.2188,-16.5647,-22.3467,-10.3467,-16.5666,9.1594,-12.2145,-22.1981,-3.2641,-19.5927,-20.2869,-18.2762,-23.8645,-6.7103,2.3555,-21.3321,-3.1136,2.0342,-28.3864,-7.0126
1953.1250,-14.1535,-21.3011,-8.9720,-16.9617,8.9043,-13.2408,-18.3235,-3.6859,-17.1420,-18.9111,-17.8229,-21.4300,-4.5681,2.7788,-24.7716,-6.2389,2.9624,-28.6268,-5.5527
1957.0312,-11.2277,-19.6213,-8.1900,-18.8103,7.2930,-16.2333,-20.4567,-7.2598,-14.1441,-18.5448,-17.5552,-19.0275,-2.4615,0.3088,-22.9612,-10.9867,3.5042,-28.3208,-4.2653
1960.9375,-9.6443,-16.7415,-7.3393,-21.3807,4.2118,-19.5788,-28.8608,-13.0550,-10.7946,-19.6242,-17.1973,-16.6823,-1.4313,-4.4936,-16.3803,-14.7454,2.2010,-27.3824,-3.0640
1964.8438,-9.1115,-12.3650,-5.2153,-22.9609,0.6333,-21.0875,-38.8863,-18.3862,-6.8219,-21.1108,-15.8175,-14.0315,-1.5688,-9.6218,-7.5261,-16.4041,-1.3239,-25.2221,-1.3739
1968.7500,-7.6664,-6.9417,-1.0853,-22.0386,-1.9529,-19.0704,-43.8680,-20.3876,-1.7325,-21.1368,-12.4992,-10.7874,-2.0984,-12.9251,0.4267,-16.6441,-6.2078,-21.2459,1.3912
1972.6562,-3.5843,-1.6065,4.6012,-18.3871,-2.6279,-13.2296,-39.7378,-17.8696,4.6661,-18.2453,-7.1780,-7.0841,-2.0773,-13.5491,5.3102,-16.7210,-11.0180,-15.4912,5.2845
1976.5625,2.8936,2.4090,10.3542,-13.3009,-1.8235,-4.8586,-27.9634,-12.1893,11.8416,-12.4299,-0.9658,-3.4343,-1.1855,-12.4889,6.9533,-16.9506,-14.7569,-8.9101,9.6120
1980.4688,9.4386,4.4750,14.5453,-8.8151,-1.1280,3.7479,-14.6215,-6.4644,18.5743,-5.2923,4.3742,-0.3725,-0.0099,-11.8548,6.8532,-16.3319,-17.4701,-3.0354,13.2413
1984.3750,13.2032,4.8919,16.4170,-6.4434,-2.1618,10.3142,-6.2812,-3.5894,23.5175,0.7898,7.4882,1.8891,0.4009,-13.3628,6.7947,-13.6912,-19.9983,0.7997,15.2598
1988.2812,12.8006,4.6493,16.4701,-6.2928,-5.3094,13.4576,-5.7227,-4.3798,25.9456,3.9425,8.2662,3.5104,-0.6157,-17.1024,7.4294,-9.3034,-23.0373,2.1822,15.5420
1992.1875,9.1383,4.8108,15.9639,-7.1375,-9.2872,13.0074,-10.5631,-7.1337,26.1658,3.7188,7.8212,4.7683,-2.7325,-21.4247,7.8681,-5.4008,-26.2126,1.7910,14.8104
1996.0938,4.5324,5.9210,15.9142,-7.3681,-11.9556,9.7508,-15.6176,-8.9281,25.2614,1.1393,7.6071,5.7404,-4.7692,-23.9987,6.5954,-4.8339,-27.9394,0.8962,14.1129
2000.0000,0.9251,7.7503,16.3266,-6.1406,-11.8577,4.9170,-17.0311,-7.7391,24.2913,-2.0631,8.3059,6.1960,-5.5246,-23.2880,3.0069,-8.7540,-26.3198,0.5106,14.0493
2003.9062,-1.3250,9.4417,16.2148,-3.9398,-9.3609,-0.2528,-15.0070,-3.8765,23.4882,-4.4292,9.2889,5.7677,-4.7239,-19.4525,-1.6580,-15.1858,-20.5620,0.7488,14.2856
2007.8125,-3.2056,9.9206,14.3686,-2.2046,-6.5065,-4.7102,-13.1907,0.2853,22.0429,-5.3802,9.0284,4.2394,-3.3671,-14.1248,-4.8215,-19.8494,-11.9326,0.8028,13.7235
2011.7188,-5.7568,8.3669,10.3015,-2.3121,-5.5955,-7.6868,-15.4018,2.0561,18.6812,-5.2044,6.1586,1.7166,-3.1586,-9.2964,-4.2889,-18.8866,-3.4584,-0.4707,11.2456
2015.6250,-8.9592,4.5896,4.6984,-4.6399,-7.5008,-8.8213,-22.3905,0.3619,12.6798,-4.6285,0.4430,-1.4295,-5.3549,-6.1194,-0.0036,-11.5912,1.5942,-3.7466,6.5479
2019.5312,-11.7747,-0.8105,-0.9345,-8.3295,-10.9590,-8.3228,-31.1332,-3.5538,4.6232,-4.3737,-6.9762,-4.7539,-9.8146,-4.4116,5.4797,-1.1074,1.5661,-8.7251,0.4853
2023.4375,-13.2153,-6.5774,-5.1501,-11.8633,-13.4202,-6.9861,-37.1057,-7.1351,-3.6587,-4.9368,-14.1497,-7.8929,-14.9345,-3.1014,8.2825,7.4823,-2.6268,-14.2211,-5.3261
2027.3438,-13.3862,-11.2490,-7.3557,-14.0104,-12.8925,-5.8786,-37.6622,-8.4237,-9.9939,-6.5549,-19.2810,-10.5850,-18.5563,-1.1975,5.5099,10.3233,-8.0810,-18.7619,-9.4012
2031.2500,-13.4852,-13.7747,-8.0189,-14.4821,-9.4535,-5.7639,-33.8951,-7.4209,-13.0569,-9.1651,-21.4823,-12.6116,-19.2528,1.4502,-2.9053,6.9566,-11.6913,-21.3079,-11.1861
2035.1562,-14.7083,-13.9955,-8.2189,-13.8956,-5.2981,-6.6038,-29.6464,-5.9064,-13.0735,-12.2856,-20.9723,-13.7775,-17.1310,4.1129,-14.0267,0.0654,-11.9607,-21.6723,-11.2516
2039.0625,-17.0256,-12.6730,-8.9163,-13.1545,-3.2339,-7.5369,-28.5874,-5.9188,-11.5859,-14.9661,-18.7728,-13.9869,-13.6253,5.8299,-23.5172,-6.7504,-9.6483,-20.4383,-10.7834
2042.9688,-18.9593,-10.9927,-10.4382,-12.7477,-4.6778,-7.4429,-31.6852,-8.1152,-10.4383,-16.0206,-16.2033,-13.3426,-10.4637,6.2159,-27.9919,-11.3114,-6.8999,-18.4919,-10.7552
2046.8750,-18.6475,-9.8276,-12.4453,-12.4698,-8.5882,-5.7635,-36.9042,-11.2718,-10.6541,-14.5708,-14.4414,-12.1446,-8.5488,5.8167,-26.6758,-13.5864,-5.5674,-16.4931,-11.3516
2050.7812,-15.3488,-9.2549,-14.2745,-11.7057,-12.1131,-2.9921,-41.1282,-13.2611,-11.9212,-10.6180,-14.2302,-10.7418,-7.5247,5.7504,-21.4651,-14.5781,-5.9605,-14.6033,-11.9957
2054.6875,-10.1146,-8.6673,-15.3305,-9.9926,-12.5055,-0.4201,-42.5793,-12.6840,-12.9665,-5.2232,-15.6866,-9.3263,-6.2723,6.8917,-15.5496,-14.6807,-6.8836,-12.5741,-11.8801
2058.5938,-5.0267,-7.3828,-15.2625,-7.3932,-8.9546,0.7514,-41.7882,-9.8533,-12.4999,-0.0663,-18.2021,-7.8259,-3.8986,9.1929,-11.5853,-13.1354,-6.8096,-10.0656,-10.5623
2062.5000,-1.5996,-5.2559,-13.9114,-4.4056,-3.0617,0.3229,-40.5172,-6.3903,-10.0493,3.4260,-20.5284,-5.9819,-0.4593,11.6377,-10.5076,-9.0693,-5.1999,-6.9307,-8.1935
2066.4062,0.3307,-2.7807,-11.2155,-1.5266,2.3195,-0.6635,-39.7740,-3.8235,-6.1450,4.8591,-21.1524,-3.5558,3.1014,12.8860,-11.4956,-3.0597,-2.9249,-3.2717,-5.2788
2070.3125,2.3023,-0.5902,-7.2458,1.1382,4.9974,-0.6160,-38.7503,-2.3691,-1.8080,5.0459,-18.9057,-0.5187,5.6922,12.1720,-12.8358,2.4200,-1.5027,0.7236,-2.2391
2074.2188,5.7581,1.2128,-2.3619,3.8746,4.7402,1.4033,-35.6377,-0.8982,2.2029,5.4491,-13.5516,2.8887,6.8853,9.8257,-13.0005,4.3851,-1.8260,4.9757,0.8262
2078.1250,10.6497,3.2701,2.7020,6.9616,3.0991,4.8092,-29.6069,1.8895,5.8016,7.2416,-6.0160,6.2272,7.1647,7.0377,-11.3287,1.6042,-3.4378,9.5225,3.9882
2082.0312,15.2990,6.4488,7.0003,10.2116,2.0057,7.6454,-22.1794,6.0616,9.3613,10.5797,1.9114,8.9742,7.4450,5.0117,-8.0972,-4.1449,-4.9389,14.2921,7.1153
2085.9375,17.6642,10.9385,9.7736,12.8578,2.2562,7.7668,-16.6699,10.0067,13.1075,14.5382,8.2872,10.6215,8.2707,4.0964,-4.1379,-9.0641,-5.1647,18.8173,9.6557
2089.8438,16.9844,15.7139,10.8435,13.9440,3.0048,4.3266,-15.9560,11.3870,16.6558,17.7158,11.7856,10.7685,9.3455,3.5277,-0.3079,-10.0049,-4.1359,22.1878,10.8327
2093.7500,14.4576,18.9072,10.7153,12.9691,2.5767,-1.4342,-20.2574,8.8286,19.1142,19.1080,12.1663,9.2601,9.7671,1.9967,2.9264,-6.8033,-2.9782,23.4040,10.1630
2097.6562,12.3920,18.9426,10.2843,10.3156,-0.0819,-6.6920,-26.7019,3.0850,19.7115,18.7001,10.2618,6.3489,8.7785,-1.3309,5.6348,-2.3966,-2.8721,21.9975,7.9130
2101.5625,12.5094,15.6445,10.3133,7.1235,-4.4326,-8.6042,-31.1244,-3.2199,18.4671,17.4330,7.5500,2.7527,6.4432,-6.0667,8.2425,-0.5380,-3.9188,18.5074,5.1085
2105.4688,14.7422,10.4671,11.0245,4.6617,-8.5649,-5.9840,-30.8306,-7.1247,16.3461,16.5829,5.5353,-0.5351,3.7106,-10.6854,11.0810,-2.8523,-4.9076,14.4036,3.0250
2109.3750,17.4333,5.6088,12.0579,3.6149,-10.4137,-0.0428,-26.3155,-7.0748,14.7044,16.9365,5.1749,-2.6843,1.8131,-13.4273,13.8984,-7.5535,-4.2420,11.3720,2.4711
2113.2812,18.6969,2.6074,12.7892,3.7619,-9.0760,6.2653,-20.7219,-3.7089,14.3774,18.2491,6.5334,-3.4938,1.4442,-13.4131,15.6787,-10.8672,-1.3161,10.3317,3.3399
2117.1875,17.7972,1.4186,12.7493,4.2343,-5.3096,9.8814,-17.5277,0.7576,15.0700,19.3139,8.7729,-3.5627,2.3194,-11.1919,15.0337,-10.0579,2.7837,10.8204,4.7200
2121.0938,15.4748,0.6335,11.8485,4.1327,-0.9372,9.2417,-18.2241,4.0063,15.5266,18.6228,10.5082,-3.9778,3.4213,-8.3382,11.0845,-5.6779,5.8792,11.2116,5.4701
2125.0000,13.0790,-1.3541,10.2929,3.0513,2.3395,4.8965,-21.6339,4.8936,14.4087,15.2640,10.4334,-5.6557,3.7146,-6.3844,4.3222,-1.2596,6.2104,9.7049,4.8625
2128.9062,11.3502,-5.1086,8.3314,1.1742,3.8656,-1.1302,-25.1739,3.7632,11.2840,9.5340,7.9729,-8.7469,2.7962,-5.8545,-3.2163,-0.6972,3.7183,5.4826,2.8949
2132.8125,9.9133,-9.7358,6.0868,-1.0448,4.1275,-6.7019,-26.8929,1.7951,7.0238,2.8723,3.6198,-12.5129,1.0432,-6.0704,-8.7840,-5.3643,0.1169,-0.7294,0.1466
2136.7188,7.8543,-13.5347,3.6139,-3.3043,4.0970,-10.7058,-26.6607,0.0375,3.3168,-2.8933,-1.2758,-15.7737,-0.7705,-5.8298,-10.4062,-13.1723,-2.3085,-7.0896,-2.6290
2140.6250,4.7876,-15.1739,1.1000,-5.6380,4.4034,-13.2667,-25.7372,-1.1669,1.6282,-6.5657,-5.2069,-17.6265,-2.0338,-4.4124,-8.0893,-20.1835,-2.2652,-11.7817,-4.8567
2144.5312,1.4183,-14.5164,-1.0258,-8.2565,4.9404,-15.0448,-25.3270,-2.0977,2.3246,-8.2209,-7.3122,-17.9432,-2.6076,-2.1526,-3.8833,-23.3858,-0.2159,-14.1021,-6.2472
2148.4375,-0.9201,-12.5559,-2.2393,-11.2393,5.0980,-16.2721,-25.4810,-3.1911,4.5524,-9.0232,-7.7767,-17.3189,-2.7237,-0.1818,-0.6409,-22.4285,2.1692,-14.7658,-6.7103
2152.3438,-1.3553,-10.6203,-2.2564,-14.3689,4.3344,-16.3294,-25.2619,-4.6613,6.9133,-10.2999,-7.5569,-16.5502,-2.6587,0.4120,-0.2325,-19.1207,3.3576,-15.2569,-6.2622
2156.2500,-0.2371,-9.4961,-1.2900,-17.2417,2.6053,-14.2094,-23.8916,-6.4537,8.4213,-12.4958,-7.6098,-16.0514,-2.5162,-0.6728,-2.4098,-15.4093,3.0036,-16.7165,-5.0460
2160.1562,1.0990,-9.0755,0.0256,-19.5276,0.3586,-9.5071,-21.7169,-8.4162,9.0683,-14.7774,-8.1611,-15.6339,-2.2884,-2.8664,-5.0966,-11.7503,1.9190,-19.1600,-3.4083
2164.0625,1.3798,-8.6538,1.0500,-21.1226,-1.8283,-3.1376,-20.0243,-10.4118,9.6545,-15.6355,-8.5292,-14.7707,-2.0811,-5.3135,-5.8895,-7.2911,1.0943,-21.5385,-1.8679
2167.9688,0.3751,-7.5326,1.6164,-22.0559,-3.6456,2.8561,-19.8253,-12.2514,11.0895,-14.1045,-7.6260,-13.0967,-2.2259,-7.6034,-3.6928,-1.5644,0.6628,-22.5297,-0.8965
2171.8750,-0.9974,-5.4599,2.1955,-22.2644,-5.1932,6.3898,-20.7331,-13.5846,13.7255,-10.6981,-4.7681,-10.7410,-3.1174,-10.0354,0.6509,4.0353,-0.3032,-21.4400,-0.6253
2175.7812,-1.5029,-2.6903,3.5693,-21.5003,-6.8190,6.6178,-21.0582,-13.9780,17.1866,-7.2890,-0.2202,-8.2524,-4.8884,-13.2208,5.1047,6.5923,-3.0041,-18.5833,-0.7191
2179.6875,-0.6373,0.2194,6.1954,-19.5298,-8.8313,4.5050,-19.2021,-13.2237,20.7328,-5.9078,4.8862,-6.2161,-7.2149,-17.3919,7.9089,3.8252,-7.8137,-14.9514,-0.5724
2183.5938,0.9791,2.6451,9.7128,-16.5042,-11.3061,2.2337,-15.2152,-11.6437,23.7869,-7.2832,9.1466,-4.8859,-9.4637,-22.0264,8.6530,-3.6618,-13.7976,-11.5276,0.2605
2187.5000,2.1422,4.0490,12.9790,-13.1681,-14.0825,1.7900,-11.0948,-10.0689,26.1839,-10.2260,11.5403,-4.1072,-11.1068,-26.1155,8.2101,-12.0631,-19.2546,-8.8041,1.7004
2191.4062,2.0258,4.1117,14.6807,-10.6343,-16.8797,3.6641,-9.3748,-9.3900,27.9921,-12.4003,11.7327,-3.5500,-12.0878,-28.8467,7.7271,-16.5754,-22.8357,-6.8078,3.1330
2195.3125,0.7285,2.9077,14.1466,-9.7775,-19.4037,6.5471,-11.0384,-9.9396,29.1430,-11.9936,9.9518,-3.0209,-12.8359,-30.1091,7.5759,-14.6332,-24.3375,-5.4742,3.7937
2199.2188,-1.0193,1.0277,11.8232,-10.6353,-21.3772,8.2408,-14.5109,-11.1587,29.2605,-9.0708,6.7027,-2.5939,-13.8947,-30.3755,7.1190,-7.7114,-24.5609,-4.9304,3.2888
2203.1250,-2.6561,-0.5525,9.0738,-12.2681,-22.5290,7.1687,-16.7481,-11.8399,27.8817,-5.5669,2.6130,-2.4769,-15.4479,-30.0627,5.4115,-0.2265,-24.4172,-5.3870,1.8797
2207.0312,-4.3358,-0.9371,7.4041,-13.2471,-22.6176,3.4655,-15.7359,-10.8313,24.8952,-3.8767,-1.5445,-2.7695,-17.1178,-28.9426,2.1825,3.6950,-24.0804,-6.7516,0.3197
2210.9375,-6.7181,0.1191,7.5899,-12.4937,-21.5205,-1.0788,-12.4210,-7.7513,20.8048,-5.0768,-4.8823,-3.3450,-18.2094,-26.1789,-1.7641,3.1110,-22.9155,-8.3856,-0.6444
2214.8438,-10.2122,1.9566,9.2414,-9.9306,-19.3430,-4.1592,-10.3542,-3.2530,16.5458,-8.1408,-6.6953,-3.9675,-18.2259,-21.0534,-5.0640,0.5919,-20.2330,-9.3482,-0.7556
2218.7500,-14.3916,3.3562,11.0502,-6.5225,-16.4637,-4.3967,-13.0612,1.3070,12.9470,-10.7705,-6.9350,-4.5380,-17.2733,-13.8376,-6.7835,-0.2303,-16.2021,-9.0477,-0.3886
2222.6562,-18.1533,3.3210,11.5388,-3.6937,-13.4707,-2.1262,-21.0485,4.5499,10.2333,-11.2135,-6.4580,-5.2418,-16.0490,-6.0664,-7.0691,2.1103,-12.1014,-7.8132,-0.2795
2226.5625,-20.5168,1.7497,9.8540,-2.5183,-10.9983,0.9335,-30.8418,5.6874,7.9547,-9.6445,-6.6730,-6.4419,-15.4216,0.1264,-6.9478,5.5350,-9.6203,-6.8639,-1.0512
2230.4688,-21.3567,-0.5177,6.1706,-3.1880,-9.5213,2.8333,-37.0355,4.7674,5.4092,-7.9915,-8.6456,-8.3663,-15.8935,3.2366,-7.4838,6.0479,-9.7058,-7.5658,-2.8558
2234.3750,-21.3867,-2.3379,1.5460,-5.0266,-9.1758,2.5625,-36.0222,2.5336,2.2482,-8.3026,-12.2349,-10.8087,-17.3005,3.3348,-9.0008,1.1084,-11.8369,-10.4235,-5.3266
2238.2812,-21.3650,-3.0897,-2.6242,-6.9464,-9.6694,0.4974,-28.6655,0.0693,-1.1835,-10.9239,-15.9637,-13.0754,-18.9134,2.0323,-10.9694,-7.9333,-14.2923,-14.5217,-7.8083
2242.1875,-21.2149,-3.0303,-5.2330,-8.0044,-10.3406,-2.0485,-19.8542,-1.5916,-4.0194,-13.9638,-17.8686,-14.2511,-19.8311,1.4555,-12.5648,-16.3329,-15.2261,-17.8743,-9.6769
2246.0938,-19.8971,-2.9097,-5.8910,-7.7576,-10.3982,-3.7518,-15.1823,-1.8020,-5.4179,-14.5540,-16.8290,-13.6550,-19.4047,2.9182,-13.3511,-19.1050,-13.7723,-18.5271,-10.5703
2250.0000,-16.2661,-3.1980,-5.0234,-6.3260,-9.2893,-4.0145,-17.1768,-0.5514,-5.0892,-11.0076,-13.4244,-11.2300,-17.4789,6.1865,-13.5030,-14.5028,-10.4256,-15.7283,-10.4717
2253.9062,-10.2732,-3.6153,-3.6462,-4.2586,-7.0363,-3.0843,-23.8436,1.4569,-3.4477,-4.2310,-9.6279,-7.6440,-14.4000,9.7915,-13.4423,-5.2499,-6.5266,-10.4138,-9.6794
2257.8125,-3.4869,-3.3913,-2.9160,-2.3183,-4.3260,-1.6245,-30.5136,3.0330,-1.3278,2.7372,-7.4872,-4.0344,-10.8623,12.1035,-13.3071,3.3345,-3.3326,-4.7001,-8.7087
2261.7188,1.6402,-2.0310,-3.6058,-1.2235,-2.2180,-0.1573,-33.4541,3.0559,0.5003,6.7687,-7.7310,-1.5142,-7.6842,12.3898,-12.8028,6.8580,-1.3763,-0.7117,-8.1258
2265.6250,3.3413,0.1084,-5.7021,-1.3523,-1.5642,1.1935,-32.4223,1.1396,1.6817,6.7621,-9.3450,-0.6827,-5.5542,11.1598,-11.5964,4.4503,-0.4742,0.5312,-8.3144
2269.5312,1.7994,1.9895,-8.3335,-2.4915,-2.4628,2.5416,-30.2874,-2.0058,2.3132,4.2563,-10.4449,-1.3850,-4.7776,9.6647,-9.8774,-1.2817,-0.1920,-0.4697,-9.2496
2273.4375,-0.8918,2.7226,-10.1424,-3.8173,-4.1234,3.8763,-30.2390,-4.8511,2.7238,2.1097,-9.7798,-2.8464,-5.1072,9.0050,-8.5043,-6.5853,-0.2583,-2.1351,-10.4289
2277.3438,-2.1247,2.3432,-9.9881,-4.2472,-5.2958,4.8436,-32.9898,-5.9089,3.2033,2.2907,-7.6958,-4.1124,-5.7857,9.4995,-8.4919,-9.2024,-0.5846,-2.7661,-11.0766
2281.2500,-0.5563,1.8212,-7.6306,-3.0659,-5.0435,4.8653,-36.2696,-4.6689,3.8482,4.4894,-5.8033,-4.5553,-5.8622,10.6827,-10.1836,-9.3720,-0.9810,-1.4308,-10.5666
2285.1562,3.0175,2.2183,-3.9633,-0.4537,-3.3626,3.5198,-36.9195,-1.9601,4.5574,6.5938,-5.6160,-4.1569,-4.6760,11.8014,-12.7817,-8.7462,-0.9605,1.6732,-8.8188
2289.0625,6.3225,3.6733,-0.5764,2.5038,-1.2093,0.9162,-33.7116,0.5746,5.1095,6.6035,-7.2582,-3.4043,-2.2340,12.3580,-14.6790,-8.4500,0.0684,5.4714,-6.3839
2292.9688,7.3029,5.1090,1.1560,4.4418,0.1175,-2.2009,-28.4477,1.5779,5.2500,4.4235,-9.2962,-2.8821,0.7746,12.3097,-14.4166,-8.0320,2.3170,8.6412,-4.1184
2296.8750,5.6061,4.9933,0.9158,4.6184,-0.1665,-4.7113,-24.4019,0.8937,4.7801,2.0846,-9.8623,-2.8538,3.3681,11.8662,-11.5959,-6.1109,5.2517,10.2404,-2.6495
2300.7812,2.7965,2.5926,-0.3548,3.4531,-1.8233,-5.6315,-23.4694,-0.3650,3.6587,2.1771,-8.1923,-3.1446,4.8243,11.1466,-7.1040,-2.0163,7.7279,10.0430,-2.0059
2304.6875,1.1905,-1.3177,-1.0585,2.2563,-3.7824,-4.6314,-24.5235,-0.6543,2.0925,5.7104,-5.3396,-3.4124,5.0273,10.0179,-2.5408,3.0893,8.6145,8.4887,-1.6856
2308.5938,2.2035,-4.9241,0.0134,2.2836,-4.8773,-2.2927,-24.4688,0.8690,0.5323,11.0883,-3.4510,-3.5844,4.3907,8.2394,0.6780,6.6176,7.5002,6.3486,-1.1024
2312.5000,5.4005,-6.6999,2.8975,3.7931,-4.5847,0.0572,-21.1463,3.7558,-0.4787,15.0622,-4.1214,-4.0697,3.4610,5.7675,1.8941,6.2008,4.9727,4.3220,-0.0551
2316.4062,8.8772,-6.5180,6.4714,5.8334,-3.2431,0.9179,-15.5764,6.6294,-0.5555,15.0044,-7.0833,-5.5049,2.5408,2.9547,1.1590,1.3008,2.2650,2.7763,1.1591
2320.3125,10.6271,-5.6167,9.2511,6.9681,-1.6395,-0.6291,-11.4759,8.1956,0.3405,10.8212,-10.2516,-8.1620,1.6280,0.4655,-1.1857,-6.4063,0.5128,1.7434,2.0727
2324.2188,9.8917,-5.4199,10.4102,6.4073,-0.3378,-4.3542,-12.2536,8.1045,1.9250,5.0662,-11.1153,-11.4768,0.6756,-1.0476,-4.7879,-14.0559,0.1292,1.1244,2.5362
2328.1250,7.5885,-6.1874,10.3057,4.6664,0.7041,-8.8482,-17.9049,7.0267,3.8293,1.1496,-8.4514,-14.1427,-0.1128,-1.2980,-9.1394,-19.1828,0.6898,0.9262,2.9349
2332.0312,5.6159,-6.6583,10.1622,3.2056,1.9468,-12.1295,-24.4819,5.9502,5.8749,0.9536,-3.1149,-14.8274,-0.2731,-0.5270,-13.2207,-20.7702,1.3459,1.3251,3.9188
2335.9375,5.5968,-5.0592,11.1688,3.2920,3.7116,-12.6276,-26.8113,5.3248,8.1537,3.5905,2.6103,-13.0745,0.5827,0.6254,-15.4507,-19.2634,1.4367,2.4803,5.8376
2339.8438,7.9152,-0.7098,13.6424,4.9614,5.7588,-10.0069,-22.4467,4.7712,10.8242,6.1815,6.5377,-9.7325,2.3576,1.4618,-14.2686,-15.8875,0.8910,4.2220,8.3433
2343.7500,11.5968,5.0895,16.8184,6.9063,7.3808,-5.3335,-13.7074,3.5642,13.7752,6.0395,7.8245,-6.5376,4.3734,1.5894,-9.1267,-11.9636,0.2035,5.8772,10.5133
2347.6562,14.9765,9.6794,19.3487,7.4050,7.9456,-0.4641,-6.0761,1.4340,16.4494,2.6309,7.1086,-5.0702,5.7390,1.1002,-1.2114,-8.6095,0.0651,6.4446,11.4426
2351.5625,16.6351,10.7740,20.0964,5.5826,7.4320,2.9665,-4.1237,-1.0438,18.0269,-2.1001,5.6221,-5.7850,5.9416,0.4654,6.7480,-6.6716,0.9097,5.0907,10.8703
2355.4688,16.0376,8.0152,18.6860,2.0263,6.4890,4.3139,-8.1580,-2.8429,17.8963,-5.2286,4.1345,-7.7903,5.1915,0.1936,11.6653,-6.5455,2.6344,1.6766,9.3631
2359.3750,13.6019,3.1811,15.5393,-1.7118,5.9417,3.9811,-14.2561,-3.3498,16.0998,-5.0197,2.5832,-9.5167,4.2222,0.4429,11.6667,-7.8543,4.6176,-3.0527,7.9172
2363.2812,10.3040,-1.0690,11.5429,-4.3018,6.1319,2.8140,-17.6333,-2.9500,13.4187,-2.1828,0.5767,-9.7745,3.6747,0.8336,7.1121,-9.3661,6.0003,-7.7884,7.2930
2367.1875,7.1321,-2.9257,7.6888,-5.5498,6.6332,1.3631,-16.5917,-2.7886,11.0059,0.6582,-1.8139,-8.4370,3.5576,0.6133,0.4292,-9.5250,6.0976,-11.3131,7.5836
2371.0938,4.6802,-2.3550,4.8934,-6.3207,6.5838,-0.3975,-13.8086,-3.8427,9.7903,0.8252,-3.7608,-6.3059,3.2346,-0.8820,-5.1627,-7.4479,4.7517,-13.0772,8.3110
2375.0000,3.0145,-0.6652,3.9132,-7.5907,5.3759,-2.7137,-13.8941,-6.0506,10.0328,-2.6074,-4.1918,-4.3618,1.9720,-3.7441,-7.3042,-3.6744,2.4456,-13.3378,8.9018
2378.9062,1.7906,0.7432,5.1498,-9.4789,3.1391,-5.4334,-19.2241,-8.2497,11.2940,-8.3253,-2.6789,-3.0530,-0.3888,-7.3228,-5.5930,0.0393,0.0760,-12.8206,9.1083
2382.8125,0.5152,1.3359,8.3185,-11.1129,0.6208,-7.7496,-27.5175,-9.0464,12.7835,-13.8484,0.0641,-2.1818,-3.1995,-10.5367,-1.5681,1.8922,-1.5466,-12.2015,9.0324
2386.7188,-1.1782,1.4103,12.2461,-11.4601,-1.4402,-8.6276,-33.2575,-7.9725,13.8137,-17.2708,2.5258,-1.4014,-5.4379,-12.5067,2.3168,1.3275,-2.2117,-11.7938,8.7931
2390.6250,-3.3582,1.3109,15.1568,-10.3970,-2.9297,-7.6314,-31.9292,-5.9967,14.0682,-18.3627,3.3321,-0.8064,-6.4895,-13.0973,4.0745,-0.6300,-2.4990,-11.6109,8.2073
2394.5312,-5.8001,0.7881,15.5004,-9.0408,-4.4450,-5.4444,-23.7040,-4.9221,13.5822,-18.3025,2.0525,-1.0334,-6.6549,-12.9677,3.1364,-2.3462,-3.4557,-11.6386,6.8404
2398.4375,-8.1531,-0.8189,12.9002,-8.9576,-6.7649,-3.5504,-13.5677,-6.0586,12.5547,-18.3933,-0.7084,-2.7331,-6.9574,-13.0604,0.4018,-3.0901,-5.9010,-11.9902,4.4307
2402.3438,-10.1640,-3.7371,8.5394,-10.8243,-10.1220,-3.1993,-7.6961,-9.1512,11.1936,-18.8642,-3.9089,-5.8553,-8.3746,-13.8693,-2.5377,-3.7558,-9.7971,-12.7661,1.3159
2406.2500,-11.8102,-7.1062,4.5833,-13.6535,-13.8688,-4.4199,-8.8808,-12.3856,9.6949,-18.7297,-6.7932,-9.3932,-11.0838,-15.0255,-4.4585,-6.0377,-14.1474,-13.7598,-1.5630
2410.1562,-13.2552,-9.2574,2.9025,-15.3046,-16.8262,-5.9035,-14.5806,-13.5119,8.2928,-16.7938,-9.1429,-11.8828,-14.3079,-15.5427,-5.1821,-10.6272,-17.5531,-14.3515,-3.1786
2414.0625,-14.6674,-8.8402,3.9273,-13.9987,-18.0648,-5.9522,-19.0981,-11.3028,7.2552,-12.9516,-10.9516,-12.3240,-16.8816,-14.5815,-5.4703,-15.9706,-19.0885,-13.8070,-3.0997
2417.9688,-16.0432,-5.8987,6.4461,-9.7102,-17.5323,-3.8326,-18.1288,-6.3406,6.7734,-8.6770,-11.9546,-10.8216,-18.0887,-12.1875,-6.2495,-18.8425,-18.8865,-11.8339,-1.8081
2421.8750,-17.1632,-1.9490,8.5096,-4.3480,-16.0706,-0.4750,-12.1010,-0.6382,6.8277,-6.2017,-11.5686,-8.4405,-18.1229,-9.4373,-7.7240,-16.5542,-18.0030,-8.9604,-0.3790
2425.7812,-17.6982,1.0915,8.7862,-0.5444,-14.8402,2.1043,-5.7483,3.5608,7.1643,-6.9126,-9.3808,-6.3933,-17.8335,-7.8363,-9.0284,-9.1719,-17.6426,-6.3620,0.2427
2429.6875,-17.3600,2.2931,7.3707,0.0624,-14.6102,2.3064,-4.3665,4.9423,7.4297,-10.1531,-5.7630,-5.2063,-17.9942,-8.3584,-8.7209,0.0910,-18.3077,-5.1644,-0.1843
2433.5938,-15.9845,2.2841,5.4736,-2.2155,-15.4220,0.2613,-9.7643,3.5328,7.3691,-13.3858,-1.9889,-4.5081,-18.6988,-10.7945,-5.8313,6.8233,-19.4975,-5.6904,-1.2041
2437.5000,-13.5328,2.5329,4.2908,-5.5812,-16.7982,-2.1023,-19.0293,0.2913,6.9292,-13.7181,0.3984,-3.5647,-19.3572,-13.8675,-0.7394,8.3573,-20.1727,-7.2193,-2.1990
2441.4062,-10.0974,3.9554,3.9937,-8.1940,-18.2280,-2.3720,-26.8918,-3.6149,6.1889,-9.7982,0.5741,-2.0697,-19.2617,-16.0306,4.7804,5.4658,-19.6135,-8.4754,-2.9783
2445.3125,-5.9917,6.0509,3.6586,-9.4233,-19.4914,0.5723,-29.6471,-7.2683,5.1983,-2.7839,-0.9835,-0.5084,-18.2331,-16.3909,8.4603,1.4756,-18.0052,-8.5130,-3.9181
2449.2188,-1.8617,7.3244,2.1721,-9.9778,-20.5966,5.6416,-27.5314,-10.0109,3.8925,4.2942,-2.8144,0.2088,-16.8065,-15.1388,8.8163,-0.5088,-16.3018,-7.3453,-5.5562
2453.1250,1.3639,6.6508,-0.6660,-10.9288,-21.4777,10.2014,-23.8903,-11.2857,2.1840,8.3565,-3.5154,-0.4725,-15.8098,-13.2409,5.9276,-0.0342,-15.4850,-5.8427,-8.0158
2457.0312,2.8238,4.4006,-3.7914,-12.5299,-21.8075,11.8637,-22.1246,-10.6899,0.1633,8.0732,-2.7305,-2.2126,-15.6799,-11.6785,1.1899,0.6086,-15.7995,-4.9841,-10.7752
2460.9375,2.2648,2.3146,-5.6050,-13.8459,-21.1391,10.1141,-23.0611,-8.2989,-1.7799,4.4868,-1.3465,-3.9318,-16.0630,-10.7902,-3.7349,-1.2858,-16.5501,-5.0386,-12.9887
2464.8438,0.4081,2.1648,-5.2036,-13.4749,-19.2582,6.6003,-24.7983,-4.9183,-3.0678,0.1482,-0.7604,-4.5322,-16.0075,-10.1409,-7.9450,-6.0403,-16.5957,-5.3150,-14.0754
2468.7500,-1.2464,4.2874,-3.1000,-10.7247,-16.4134,3.9067,-24.8736,-1.8600,-3.2505,-2.5410,-1.8063,-3.6173,-14.5951,-8.9299,-11.5190,-10.7618,-15.1492,-4.6747,-14.0604
2472.6562,-1.2325,7.2268,-0.8234,-6.2502,-13.1923,3.7451,-22.6896,-0.2245,-2.3230,-2.6337,-4.1773,-1.6786,-11.5436,-6.5911,-14.8293,-11.3573,-12.2886,-2.4189,-13.3847
2476.5625,0.8847,8.8282,0.2783,-1.6405,-10.1437,5.8731,-20.0872,-0.1689,-0.8157,-0.8153,-6.7596,0.3208,-7.3840,-3.1793,-17.6255,-5.9172,-8.8500,1.1199,-12.3903
2480.4688,4.0293,7.9105,0.0433,1.6678,-7.4850,8.4547,-19.6718,-0.7836,0.4260,1.4630,-8.5615,1.5645,-3.1593,0.6440,-18.7921,3.2729,-5.8557,4.7211,-10.9941
2484.3750,6.1235,5.1529,-0.5270,3.2473,-5.1634,9.4836,-22.4500,-0.7813,0.6494,3.1143,-9.4539,1.7176,0.0830,3.9265,-17.1258,10.8797,-3.9400,7.0370,-8.8960
2488.2812,5.4008,2.4689,-0.2884,3.6598,-3.1981,8.1617,-26.8476,0.4663,-0.4460,3.9782,-10.1206,0.8201,1.6720,5.8115,-12.5647,12.1534,-3.1529,7.4168,-6.1529
2492.1875,1.7074,1.3957,0.9187,3.6919,-1.9410,5.2653,-29.9156,2.3664,-2.5834,4.5394,-11.2801,-0.9991,1.4315,5.8206,-6.7938,6.3357,-3.1660,6.2278,-3.5518
2496.0938,-3.1373,1.8475,2.0410,3.6053,-1.9280,2.3802,-29.6349,3.5361,-5.0483,5.2068,-12.8432,-3.6173,-0.3775,3.9937,-2.5370,-2.7947,-3.6072,4.5149,-2.3136
2500.0000,-6.2872,2.2716,1.7387,3.0806,-3.3619,0.7268,-26.3536,2.9596,-6.9866,5.8311,-13.7310,-6.7272,-3.1431,0.9060,-1.8717,-9.7112,-4.2336,3.3096,-3.2227
2503.9062,-5.5858,1.0697,-0.2852,1.8545,-5.6551,0.4936,-22.2294,0.9705,-7.7164,5.8490,-12.5500,-9.6400,-5.9959,-2.4547,-4.7695,-11.1584,-4.8900,3.0920,-5.8432
2507.8125,-0.9324,-1.9186,-2.7120,0.3818,-7.5040,1.0635,-19.3002,-0.7859,-6.9524,4.8722,-8.6443,-11.4485,-8.0036,-4.9880,-9.0187,-8.3451,-5.4142,3.7089,-8.5307
2511.7188,5.6439,-5.1365,-3.3873,-0.1970,-7.5848,1.7562,-17.9257,-0.4863,-4.8996,3.1763,-2.7409,-11.5911,-8.5132,-5.9188,-11.6934,-5.6956,-5.6579,4.6704,-9.3897
2515.6250,11.2725,-6.5035,-0.9421,1.1146,-5.4300,2.3572,-16.9067,2.4501,-2.1991,1.6595,3.2933,-10.4145,-7.5004,-5.1812,-11.1429,-7.2181,-5.5977,5.5042,-7.5584
2519.5312,14.0105,-5.1277,4.0069,4.1974,-1.8273,3.0067,-15.0275,6.7611,0.2764,1.2994,7.4147,-9.1948,-5.6542,-3.4877,-8.0345,-13.3582,-5.3638,5.9016,-3.8679
2523.4375,13.8743,-2.1430,9.0805,7.5688,1.6183,3.6619,-12.5117,10.0837,1.7339,2.5311,8.4270,-9.4412,-4.0366,-1.9622,-4.6861,-20.7291,-5.0777,5.6423,-0.3320
2527.3438,12.4565,0.0208,11.6973,9.1857,3.4912,3.7452,-11.0126,10.5374,1.7584,4.9947,6.4224,-11.9032,-3.4686,-1.5030,-3.2395,-24.7960,-4.6243,4.4913,1.2003
2531.2500,11.4781,-0.6332,10.8208,7.7641,3.4227,2.4090,-12.1309,7.9754,0.4456,7.7661,2.4648,-16.0177,-4.0535,-2.2734,-4.1128,-23.3095,-3.6340,2.2439,0.2491
2535.1562,11.3941,-4.2865,7.5672,3.6262,2.1728,-0.7403,-15.8156,3.9669,-1.7147,9.8113,-2.1384,-20.2594,-5.1972,-3.6704,-5.9134,-17.8252,-1.8144,-1.0941,-2.1249
2539.0625,11.0990,-9.3014,4.2261,-1.5735,0.9043,-5.0750,-20.1374,0.5485,-4.1311,10.3094,-6.4313,-23.1669,-6.1245,-4.8037,-6.7967,-12.2964,0.5741,-5.1704,-4.2703
2542.9688,8.9299,-13.5141,2.4787,-6.0199,0.2399,-9.0824,-22.7143,-1.2681,-6.3770,8.7111,-9.9559,-24.2724,-6.4884,-5.1428,-6.0919,-10.0612,2.5489,-9.3600,-5.2412
2546.8750,4.1737,-15.7462,2.2125,-8.8999,-0.1508,-11.1971,-22.5880,-2.0770,-8.2514,4.7062,-12.5384,-24.2268,-6.5796,-4.8649,-4.8345,-11.6781,2.8489,-13.0401,-5.4118
2550.7812,-2.0988,-16.3840,1.8289,-10.7009,-1.1292,-10.7498,-20.9234,-3.3439,-9.6308,-1.6558,-14.0445,-24.0570,-6.9628,-4.6700,-4.7851,-15.1639,0.8101,-15.8809,-5.9532
2554.6875,-7.5418,-16.7055,-0.2582,-12.5180,-3.2106,-8.3421,-19.9095,-6.0130,-10.3017,-9.6741,-14.3575,-24.1988,-7.8556,-5.2366,-6.7904,-18.1068,-2.9556,-17.9546,-7.6454
2558.5938,-10.0433,-17.6519,-4.1738,-15.0270,-5.9822,-5.3934,-20.8148,-9.6299,-9.9905,-17.8236,-13.5510,-24.1237,-8.8079,-6.7611,-9.8909,-19.6608,-6.6932,-19.6061,-10.0380
2562.5000,-9.1386,-19.0993,-8.3541,-17.9782,-8.3175,-3.2348,-22.8962,-12.7052,-8.6229,-24.0533,-12.0280,-22.8668,-9.0044,-8.9257,-11.9470,-20.7303,-8.5159,-21.2045,-11.6783
2566.4062,-6.3063,-20.1557,-10.7067,-20.5514,-9.2272,-2.4300,-24.1232,-14.0006,-6.5893,-26.6071,-10.4303,-19.9954,-7.9830,-11.2713,-11.2740,-22.3865,-7.6533,-22.9526,-11.2491
2570.3125,-3.9467,-20.1020,-10.2151,-22.1586,-8.6528,-2.7609,-23.0818,-13.6405,-4.7096,-24.9666,-9.3425,-16.1738,-6.1704,-13.6175,-7.9301,-24.1509,-5.0250,-24.8418,-8.7006
2574.2188,-3.8019,-19.0937,-7.7090,-22.9419,-7.5476,-3.7518,-20.3675,-13.0847,-3.7964,-20.2913,-9.0054,-12.8233,-4.7444,-16.1550,-3.5995,-23.8699,-2.6540,-26.7140,-5.4517
2578.1250,-5.9398,-18.0331,-5.2147,-23.5485,-7.1685,-5.1937,-18.1906,-13.9432,-4.0712,-14.9737,-9.2470,-11.1418,-4.8663,-19.1378,-0.2036,-19.4452,-2.2946,-28.3380,-3.4668
2582.0312,-8.9573,-17.7814,-4.4322,-24.4509,-8.1431,-7.1951,-18.4731,-16.5935,-4.8946,-11.4872,-9.6622,-11.2990,-6.8653,-22.4641,1.5615,-10.9671,-4.2648,-29.4622,-3.9069
2585.9375,-11.1372,-18.4265,-5.5425,-25.4821,-10.0578,-9.7508,-21.0599,-19.7631,-5.1025,-11.1888,-9.8818,-12.4678,-10.0261,-25.5375,2.5203,-1.3388,-7.3512,-29.8714,-6.3784
2589.8438,-11.6323,-19.2106,-7.2348,-26.0287,-11.8776,-12.2687,-23.6407,-21.4743,-3.7829,-13.7713,-9.7356,-13.6326,-13.1599,-27.5574,3.9303,5.3218,-9.8367,-29.4762,-9.3150
2593.7500,-10.8217,-19.1023,-7.8440,-25.6878,-12.8279,-13.5581,-23.5548,-20.6303,-0.9348,-17.6267,-9.2335,-14.4404,-15.4952,-28.0180,6.0096,6.3570,-10.8374,-28.3848,-11.1439
2597.6562,-9.7027,-17.4756,-6.6408,-24.7398,-12.9977,-12.4101,-20.0432,-17.9685,2.5292,-20.8053,-8.4535,-15.3328,-17.1587,-27.0084,7.4334,2.2601,-10.9049,-26.8638,-11.3042
2601.5625,-8.9351,-14.3572,-4.2759,-23.9439,-13.1732,-8.4090,-15.0801,-15.5804,5.4885,-21.9467,-7.4703,-16.8455,-18.8536,-25.0788,6.3336,-3.9021,-11.4451,-25.1581,-10.3772
2605.4688,-8.3728,-10.1866,-2.1238,-23.7960,-14.0663,-2.3961,-12.0518,-15.3406,7.4997,-20.7041,-6.3783,-18.7334,-21.0273,-22.8035,2.0178,-8.7862,-13.4589,-23.2860,-9.3424
2609.3750,-7.4448,-5.4798,-1.1612,-23.9309,-15.6129,3.7752,-13.3016,-17.4698,9.1254,-17.6058,-5.3427,-19.7883,-23.2714,-20.4197,-4.0643,-10.9156,-16.6454,-21.0140,-8.6695
2613.2812,-5.9967,-0.7877,-1.3194,-23.2796,-16.9594,8.0719,-18.4778,-20.3700,11.3643,-13.6366,-4.5811,-18.6484,-24.5190,-17.8333,-9.0350,-11.0566,-19.5958,-18.1103,-8.0252
2617.1875,-4.8042,3.0883,-1.7795,-20.9496,-17.1704,9.2141,-24.9433,-21.8629,14.5678,-9.8649,-4.2614,-15.0113,-23.9298,-14.9443,-10.5489,-10.7894,-20.9059,-14.7430,-6.7956
2621.0938,-5.2324,5.0416,-1.8688,-17.1188,-16.0712,7.1887,-29.8188,-20.8501,17.7116,-7.2240,-4.4130,-10.2237,-21.7396,-11.9565,-8.5170,-10.7476,-20.2858,-11.6923,-4.9069
2625.0000,-8.2379,4.1016,-1.7523,-13.1443,-14.5004,3.1246,-31.9583,-18.0881,18.7097,-6.3587,-4.9630,-6.6425,-19.3190,-9.3615,-5.2365,-10.1499,-18.7618,-10.1161,-3.1819
2628.9062,-13.4894,0.1842,-2.3423,-10.6984,-13.7172,-1.3235,-32.3178,-15.4846,15.6910,-7.4454,-5.8994,-6.1369,-18.3061,-7.5906,-3.7965,-7.9644,-17.8239,-10.9198,-2.8745
2632.8125,-19.3472,-5.4886,-4.5280,-10.5668,-14.4043,-4.7226,-32.5949,-14.5078,8.3802,-10.0590,-7.4250,-8.8358,-19.4373,-6.6534,-5.9551,-4.4905,-18.2359,-14.1239,-4.7365
2636.7188,-23.7993,-10.8358,-8.3719,-12.0676,-16.0602,-6.4016,-33.4452,-14.9904,-1.4406,-13.2651,-9.9264,-13.0874,-21.9884,-6.1060,-11.0557,-1.7213,-19.4859,-18.7034,-8.3700
2640.6250,-25.7040,-14.0956,-12.9007,-13.5779,-17.2881,-6.6007,-33.8397,-15.2694,-10.7983,-16.0117,-13.7077,-16.6707,-24.2836,-5.4116,-16.6976,-1.9579,-20.2968,-23.0707,-12.3957
2644.5312,-25.4304,-14.9089,-16.6149,-13.7571,-16.7907,-6.2160,-32.0459,-13.5222,-17.1729,-17.6341,-18.6340,-18.3191,-24.8956,-4.3916,-20.5148,-5.7953,-19.7317,-25.9149,-15.3112
2648.4375,-24.4261,-14.4261,-18.3046,-12.4849,-14.3249,-6.2550,-27.2922,-9.2179,-19.7975,-18.1284,-23.9456,-18.3846,-23.6135,-3.3685,-21.6605,-11.3153,-17.9521,-26.8287,-16.3839
2652.3438,-24.0476,-14.2726,-17.6128,-10.7776,-10.9007,-7.2240,-20.6303,-3.5544,-19.7526,-17.9733,-28.4356,-18.1812,-21.4458,-2.8603,-20.9765,-15.3840,-16.0138,-26.3049,-15.9378
2656.2500,-24.5397,-15.1562,-15.0791,-9.7994,-8.0914,-8.7413,-14.2784,1.4012,-18.8863,-17.6318,-30.9500,-18.6261,-19.6993,-3.0827,-19.9657,-16.1222,-14.9202,-25.1597,-14.9127
2660.1562,-24.9188,-16.2554,-11.7989,-9.8409,-6.9913,-9.6326,-10.0793,4.1212,-18.4313,-17.1349,-30.9504,-19.3491,-18.9068,-3.7080,-19.5808,-14.4751,-14.7763,-23.8623,-14.1341
2664.0625,-23.8102,-15.9385,-9.0008,-10.1358,-7.5864,-8.5560,-8.4357,4.4538,-18.3340,-16.1017,-28.8019,-19.0236,-18.4692,-4.1158,-19.8007,-13.4248,-14.7771,-22.2878,-13.8854
2667.9688,-20.5651,-13.2485,-7.7097,-9.6452,-8.9474,-4.8714,-8.5809,3.3198,-17.6796,-14.1711,-25.5942,-16.6225,-17.2730,-3.9415,-20.1262,-15.3397,-14.0184,-20.0315,-14.0199
2671.8750,-15.7890,-8.8913,-8.4570,-8.0873,-10.0060,0.7731,-9.7866,1.6796,-15.7216,-11.4454,-22.5666,-12.5091,-14.7335,-3.4419,-20.2957,-19.6224,-12.3910,-16.9423,-14.3528
2675.7812,-10.8995,-4.8097,-10.9916,-6.2672,-10.2726,6.5849,-12.2648,-0.2468,-12.6000,-8.5037,-20.4407,-8.3832,-11.3785,-3.3257,-20.4343,-22.7437,-10.7441,-13.3684,-14.8701
2679.6875,-7.0916,-2.6030,-14.1380,-5.3759,-9.9744,10.5293,-16.8375,-2.8307,-9.1803,-5.9135,-19.0314,-6.0561,-8.4806,-4.1472,-20.5299,-20.8673,-10.1427,-9.8831,-15.5459
2683.5938,-4.5353,-2.0833,-16.0798,-5.8467,-9.6074,11.4852,-23.6465,-6.1590,-6.2351,-3.6424,-17.3714,-6.0182,-7.0425,-5.7526,-19.8836,-13.0900,-10.8513,-6.7451,-16.0058
2687.5000,-2.4131,-1.2647,-15.1677,-6.7898,-9.3583,9.9133,-31.1518,-9.3234,-3.7483,-0.9369,-14.3115,-6.9841,-6.9748,-7.2580,-17.2849,-2.6493,-11.9499,-3.6135,-15.4817
2691.4062,0.2798,2.0432,-10.9082,-6.5713,-8.8991,7.5623,-36.5234,-10.6479,-0.9890,3.1069,-9.2917,-6.8391,-7.1415,-7.6147,-11.9844,5.0476,-11.9727,0.1646,-13.2576
2695.3125,3.8493,8.2240,-4.4689,-4.1331,-7.6942,6.3766,-37.3400,-8.8105,2.6926,8.6500,-2.8493,-4.2897,-6.2396,-6.3305,-4.7007,6.1987,-10.0837,4.8782,-9.3188
2699.2188,7.6486,15.0842,1.7999,0.0229,-5.5117,7.3227,-33.3138,-3.9847,7.0464,14.6152,3.4701,0.0642,-3.7989,-3.7757,2.3022,1.2925,-6.8131,9.9559,-4.6384
2703.1250,10.6318,19.1066,5.6775,4.0374,-2.6848,9.9070,-26.6200,1.9749,10.8353,19.0886,7.8193,4.0809,-0.5125,-0.8431,6.3552,-5.4190,-3.7018,14.1191,-0.7525
2707.0312,12.2174,17.9163,6.4023,5.9844,0.0915,12.6493,-20.4984,6.5621,12.6242,20.4449,9.0247,5.5932,2.3412,1.7380,6.0134,-9.2774,-2.0967,16.1458,1.1651
2710.9375,12.7104,12.1139,5.0729,5.2468,2.2398,14.0904,-17.1929,8.1447,11.8458,18.4287,7.2615,3.9273,3.8884,3.8513,1.9765,-8.7683,-2.0566,15.6859,1.0633
2714.8438,12.9111,5.0128,3.7840,2.8854,3.6528,13.5685,-16.8177,6.8603,9.2725,14.3876,3.9743,0.2825,4.2656,5.8450,-3.3994,-6.4560,-2.2725,13.4885,0.0182
2718.7500,13.2334,0.3754,4.0868,0.7179,4.6576,11.2556,-17.9260,4.2511,6.4786,10.4463,1.0240,-3.2654,4.3939,7.9540,-7.6149,-6.5756,-1.0968,10.8482,-0.5517
2722.6562,13.1071,-0.2100,5.8996,-0.1254,5.6742,7.5906,-19.1145,1.9972,4.6908,8.1797,-0.4442,-5.3095,5.1700,9.8493,-9.4231,-11.2434,2.1230,8.6972,0.1241
2726.5625,11.2509,1.6392,7.6811,0.0156,6.8921,2.7383,-20.1717,0.7935,3.9282,7.7056,-0.6690,-5.9936,6.7759,10.7723,-9.1469,-18.3826,6.4710,7.0604,1.7247
2730.4688,6.7076,2.4363,7.7266,-0.1601,8.2324,-3.3639,-21.7801,0.2252,3.1211,7.7913,-0.9783,-6.5845,8.6702,10.2010,-7.8971,-23.1073,10.1185,5.3012,3.2689
2734.3750,-0.1195,-0.4711,5.5922,-1.5584,9.5759,-10.3820,-24.1597,-0.3808,1.1293,6.8237,-2.6689,-8.1426,10.2235,8.4905,-6.5334,-21.5305,11.7013,2.9420,4.0571
2738.2812,-7.2782,-6.8349,2.5559,-3.6378,10.9974,-16.9959,-26.0592,-0.9755,-2.1315,3.9092,-5.8131,-10.3928,11.4180,6.8914,-5.2715,-13.9751,11.3476,0.3672,4.3666
2742.1875,-12.1903,-13.5793,0.7810,-4.5756,12.7521,-21.0442,-25.2396,-0.6085,-5.3382,-0.6324,-8.8811,-11.7143,12.9876,6.8160,-4.0949,-4.9791,10.5645,-1.2063,5.3372
2746.0938,-13.1219,-16.9046,1.8339,-2.5789,15.0041,-20.5697,-20.2383,1.7404,-6.4830,-5.5895,-9.5603,-10.2824,15.8476,8.8381,-3.3124,0.0083,11.0870,-0.5318,8.1260
2750.0000,-10.2008,-14.8559,5.6677,2.6525,17.5340,-15.1591,-11.9518,6.0151,-4.1674,-9.6176,-6.3118,-5.5040,20.2514,12.1718,-3.4882,-1.2834,13.5781,2.6647,12.9676
2753.9062,-5.2765,-8.5415,10.7585,9.4356,19.6973,-6.5920,-3.5523,10.6415,1.4374,-11.8622,0.3844,1.3218,25.3367,15.0436,-4.6855,-6.2584,17.1377,7.2314,18.8349
2757.8125,-0.7326,-1.2712,15.1625,14.9544,20.7018,1.8190,1.4305,13.2676,8.5970,-12.1449,8.0173,7.6064,29.4225,15.7173,-5.8046,-9.5255,19.9273,11.0444,23.9268
2761.7188,1.9077,3.6030,17.6075,16.8248,20.0128,6.9246,1.4618,12.2073,14.9274,-10.8357,13.3747,10.9156,30.8573,13.4549,-4.9266,-7.1692,20.3739,12.0800,26.6062
2765.6250,2.6380,4.5546,17.8413,14.2782,17.6039,7.4335,-2.0755,7.5206,18.5753,-8.6989,14.3884,10.2788,28.8465,8.7731,-0.7374,0.0534,18.0603,9.4145,26.1442
2769.5312,2.5242,2.2886,16.1833,8.2592,13.9111,4.5051,-6.1576,0.9345,18.9549,-6.8091,11.2815,6.5469,23.7557,2.9064,5.9989,7.0725,13.7466,3.5690,22.8520
2773.4375,2.6109,-1.2915,12.9053,0.5883,9.5780,0.8596,-8.5711,-5.3032,16.7385,-6.3491,6.2731,1.6802,16.8026,-3.0378,12.2999,8.2044,8.6792,-3.8994,17.6733
2777.3438,3.0626,-4.5450,8.1104,-7.0536,5.1997,-0.9819,-9.5254,-9.7469,13.3071,-8.0976,2.0964,-2.4623,9.4434,-8.5885,14.6563,1.4499,3.8288,-11.1883,11.6533
2781.2500,3.1686,-6.8795,2.1993,-13.6294,1.2048,-0.1581,-11.0824,-12.3065,10.1038,-11.7572,0.3875,-5.0304,2.8564,-13.7906,11.5435,-9.7971,-0.3894,-16.9264,5.6506
2785.1562,2.1258,-8.5013,-3.6456,-18.6373,-2.1508,2.2867,-14.8918,-13.7581,8.2068,-15.6531,1.0230,-6.3107,-2.2769,-18.6922,4.8510,-18.8937,-3.8682,-20.4594,0.3390
2789.0625,-0.0973,-9.6360,-7.6327,-21.8094,-4.7851,4.4092,-20.1824,-14.7774,8.1619,-17.3021,2.7265,-7.1593,-5.7597,-22.9577,-1.0783,-20.3952,-6.4411,-21.7906,-3.7278
2792.9688,-2.5501,-10.0326,-8.2981,-23.0567,-6.8227,4.8267,-23.8267,-15.3586,9.9591,-14.7871,4.3132,-8.2334,-7.7965,-25.9435,-2.3502,-13.6439,-7.8274,-21.3757,-6.2014
2796.8750,-3.9391,-9.1548,-5.5593,-22.6823,-8.5734,3.5962,-22.6076,-15.0484,13.0850,-8.1515,5.5383,-9.5344,-8.9013,-27.1380,1.6773,-3.0507,-7.9487,-19.9028,-7.1399
2800.7812,-3.6295,-6.7862,-0.9966,-21.4923,-10.3598,1.9788,-15.9542,-13.6682,16.6952,0.2190,6.9282,-10.4854,-9.7364,-26.5540,7.8276,4.9685,-7.2698,-18.0677,-7.0850
2804.6875,-2.2254,-3.4328,3.0008,-20.4818,-12.2416,1.3827,-6.9014,-11.7822,19.9388,6.7169,8.8645,-10.4060,-10.8405,-24.7336,11.3282,6.1493,-6.7589,-16.3355,-6.8278
2808.5938,-1.2560,-0.1358,4.6852,-20.2186,-13.8595,2.3195,-0.3481,-10.4365,22.3162,8.5778,10.8066,-9.0369,-12.3548,-22.3825,9.2652,0.7992,-7.3890,-14.7835,-6.9566
2812.5000,-2.1614,2.1483,3.9361,-20.4417,-14.6163,4.1165,0.1934,-10.3799,23.8278,5.5617,11.4085,-6.7921,-13.9624,-19.9619,2.7188,-6.9365,-9.5175,-13.1739,-7.5188
2816.4062,-5.2898,3.0863,2.0422,-20.3120,-14.1690,5.5161,-5.0598,-11.4647,24.7576,0.0712,9.5007,-4.6040,-15.1550,-17.5705,-4.0290,-12.1513,-12.6199,-11.2885,-8.0867
2820.3125,-9.6083,3.0111,0.4781,-19.2079,-12.8951,5.6487,-12.4923,-12.7844,25.2162,-4.4299,5.1461,-3.4566,-15.6795,-15.1554,-6.6262,-12.3372,-15.5985,-9.3158,-8.1985
2824.2188,-13.3186,2.4926,-0.3349,-17.4221,-11.9020,4.6395,-17.8309,-13.4634,24.8153,-5.6337,-0.1424,-3.8685,-15.8139,-12.7956,-3.7711,-8.5918,-17.4515,-7.9504,-7.8197
2828.1250,-14.9492,1.8255,-1.2907,-16.1038,-12.4279,3.4383,-19.2171,-13.4306,22.8042,-3.7156,-4.2880,-5.6149,-16.2019,-10.7569,1.9897,-4.3739,-17.8319,-8.0218,-7.4274
2832.0312,-14.2015,0.8447,-3.6949,-16.3805,-14.9607,3.0491,-18.3355,-13.5028,18.6531,-0.9011,-6.0081,-7.8456,-17.3100,-9.2640,6.3059,-2.9462,-17.1365,-9.8426,-7.6174
2835.9375,-12.0431,-0.8273,-7.9529,-18.3151,-18.7081,3.7636,-18.8517,-14.6766,12.6703,0.3139,-5.6047,-9.5324,-18.9099,-8.2267,6.2741,-5.2983,-16.1273,-12.7647,-8.5402
2839.8438,-10.0582,-3.3348,-12.9362,-20.5800,-21.8906,4.9592,-23.4382,-17.2004,6.1402,-1.0680,-4.5624,-9.9699,-20.0294,-7.2186,2.4169,-9.7525,-15.4007,-15.3541,-9.6335
2843.7500,-9.5207,-6.2878,-16.5576,-21.2104,-22.7593,5.5918,-31.6307,-20.1953,0.7830,-4.0523,-4.2708,-9.0218,-19.4849,-5.7773,-2.0125,-13.2234,-15.0645,-16.1586,-9.9012
2847.6562,-10.7521,-8.8042,-17.1167,-18.9349,-20.6797,5.0040,-40.0066,-22.1466,-2.1459,-6.6585,-4.8862,-6.9797,-16.6580,-3.7869,-3.7028,-13.1266,-14.7750,-14.5642,-8.5590
2851.5625,-13.0692,-9.8486,-14.3836,-14.0797,-16.5183,3.4618,-44.3891,-21.8878,-2.5033,-7.5055,-5.2573,-4.1951,-11.9584,-1.6000,-1.7760,-8.7547,-14.0249,-11.1201,-5.5725
2855.4688,-15.2456,-8.6807,-9.6335,-8.3413,-12.0419,2.0379,-42.3865,-19.3171,-1.2034,-6.6901,-3.9985,-0.8249,-6.6316,0.2358,1.7814,-1.4762,-12.4604,-7.0943,-1.7035
2859.3750,-16.1583,-5.2220,-4.6945,-3.6084,-8.7586,1.9273,-34.5584,-15.3373,0.4693,-5.3395,-0.8709,3.0630,-2.0506,1.4315,3.9105,6.1238,-10.0662,-3.6073,1.9399
2863.2812,-15.2795,-0.2095,-0.8142,-0.7513,-7.0364,3.6734,-23.7047,-11.1537,1.6525,-4.3450,2.6518,7.1053,0.9951,2.2058,2.9226,11.5396,-7.1819,-1.0147,4.4895
2867.1875,-12.8324,4.9504,1.8024,0.7057,-6.1110,6.8294,-13.1317,-7.5442,2.2404,-3.4390,4.1589,10.3656,2.5343,3.1049,-0.3723,13.3869,-4.3820,1.0148,5.6304
2871.0938,-9.6101,8.6558,3.5729,1.8644,-4.9012,10.2696,-5.2227,-4.6503,2.5975,-1.4493,1.9253,11.5501,3.0890,4.5338,-3.6353,11.7733,-2.2570,2.8697,5.5036
2875.0000,-6.5744,9.8027,4.7676,3.3766,-2.9353,12.9201,-1.0372,-2.3180,2.9925,2.4637,-3.7789,9.7372,3.1369,6.3974,-5.1137,7.9566,-1.1439,4.4251,4.4037
2878.9062,-4.4072,8.3937,5.1470,4.9539,-0.6417,14.3994,-0.6708,-0.5311,3.2800,7.6537,-10.6580,5.1701,2.8223,8.1642,-5.0830,3.5676,-0.9154,5.0798,2.5957
