Time,Fp1,F3,C3,P3,O1,F7,T3,T5,Fz,Fp2,F4,C4,P4,O2,F8,T4,T6,Cz,Pz
0.0000,-12.0526,-4.1060,2.9634,2.8006,2.6305,-8.6230,3.2937,11.8018,0.5690,-11.7918,1.7112,-5.7447,1.6919,-2.9077,-3.1446,-4.5457,1.1063,-3.5539,2.9274
3.9062,0.0980,1.6415,6.0591,2.5580,2.6637,-1.7838,4.9288,6.5522,3.4828,-1.7310,4.2141,-2.0873,1.9215,-1.3903,9.2103,-0.8427,1.4944,-1.8499,6.3710
7.8125,14.5955,7.7225,7.8974,0.1107,2.6413,6.3484,5.0341,-0.8249,5.4062,7.7360,4.2378,1.5683,2.0922,-2.0100,20.2596,3.3328,2.3806,-1.0065,8.2674
11.7188,24.8675,10.7289,6.3411,-5.0467,1.7550,11.1593,2.2842,-8.5778,4.0454,11.0491,0.9132,3.0319,0.8292,-5.9961,23.7956,5.6759,2.0127,-3.0979,6.5934
15.6250,25.4723,8.4712,1.1395,-12.0908,-0.7123,9.3626,-2.9513,-14.9122,-1.4384,5.4844,-4.4690,1.3758,-2.6741,-12.6570,17.5750,4.8009,-0.8670,-8.6643,1.4868
19.5312,15.5433,1.6546,-5.5233,-19.0306,-4.7580,1.3296,-8.2068,-18.6463,-9.5261,-6.8871,-9.1831,-2.1144,-7.7455,-19.4980,5.0882,1.4115,-5.8141,-15.8649,-4.5420
23.4375,-0.2504,-6.2357,-10.1670,-23.6248,-9.3893,-8.8107,-10.1472,-19.5009,-16.8913,-20.1408,-10.8595,-4.5187,-12.2944,-23.5438,-6.4500,-1.9231,-10.6449,-21.2507,-8.0886
27.3438,-14.0944,-10.9468,-10.1986,-24.5452,-13.0277,-15.4872,-6.8452,-18.0493,-20.2337,-27.8204,-9.0819,-3.1771,-13.9882,-23.0312,-10.6369,-2.3983,-12.7700,-21.8002,-7.0612
31.2500,-19.4251,-10.0842,-5.6721,-22.0689,-14.4153,-14.9481,0.4784,-15.4677,-18.2994,-26.5326,-5.6389,2.3439,-11.8387,-18.3668,-5.8720,1.0510,-11.0417,-16.8947,-2.0731
35.1562,-14.5604,-4.5358,0.6258,-17.8547,-13.4111,-7.3535,7.7139,-13.1702,-12.7376,-17.5525,-3.2412,9.6557,-7.0755,-11.7541,3.9154,6.8528,-6.7655,-8.8534,3.9604
39.0625,-3.2403,2.3213,4.8821,-13.9448,-11.0602,3.5906,10.2546,-12.3393,-7.1407,-5.5535,-3.6274,14.8896,-2.5945,-5.7964,12.2062,11.7164,-3.0410,-1.6018,7.7247
42.9688,8.1600,7.0489,4.6204,-11.6325,-8.8290,13.0578,6.0252,-13.4282,-4.8205,4.4958,-6.4140,15.1706,-1.2431,-2.0369,14.3286,12.8089,-2.7768,1.6639,7.5542
46.8750,14.7121,8.4242,0.1336,-10.8974,-7.5527,17.8600,-2.9899,-15.8619,-6.7728,10.1001,-9.4811,10.5461,-4.0666,-0.3563,10.2598,9.6765,-6.7265,0.2652,4.2275
50.7812,15.4954,7.9165,-5.9259,-10.7030,-6.9182,17.7688,-11.9199,-18.2168,-11.1944,11.9453,-10.5519,4.0047,-9.7117,0.5145,3.9808,4.5276,-12.9367,-3.8484,0.0839
54.6875,13.0873,8.1036,-10.4084,-9.8670,-5.9190,14.8160,-16.1616,-18.9408,-14.8567,12.4187,-8.7711,-0.4585,-15.3903,1.8780,0.1400,0.6640,-18.0231,-7.6052,-2.7442
58.5938,10.7747,10.3630,-11.6223,-7.8656,-3.9342,11.4436,-14.3179,-17.2877,-15.3444,13.3640,-5.1399,-0.3834,-18.7058,4.1915,0.6651,0.2059,-19.3947,-8.7751,-3.6304
62.5000,9.8889,13.7131,-10.0681,-5.0506,-1.5249,9.0218,-8.8433,-13.8667,-12.5706,14.8585,-1.5565,3.7806,-19.0468,6.9753,3.7964,2.7762,-16.8710,-7.0345,-3.4143
66.4062,9.3288,15.7301,-7.6119,-2.2151,-0.2011,7.6823,-3.9907,-10.3465,-8.5335,15.7871,0.7365,9.3722,-17.6131,9.4194,6.0211,6.0779,-12.5978,-3.5582,-3.2508
70.3125,7.3837,14.7799,-5.8883,0.0900,-1.2278,7.2058,-2.6360,-8.3908,-5.5872,15.4692,2.0807,13.6690,-16.1755,11.1173,5.1616,7.8550,-9.4011,0.3119,-3.4023
74.2188,4.0252,11.7072,-5.1836,1.9562,-4.3833,7.8752,-4.3496,-8.4924,-4.5881,14.7691,3.9922,15.8256,-15.5944,12.3497,2.1014,7.6753,-8.8259,4.1632,-2.9804
78.1250,1.5022,9.5283,-4.5511,3.9533,-7.7459,10.3973,-6.0885,-9.5468,-4.3322,15.6342,7.7353,17.1576,-15.2494,13.7552,-0.1475,7.1333,-10.2684,8.5417,-0.8115
82.0312,2.6029,11.2612,-2.9063,6.5553,-8.8579,14.9724,-4.8730,-9.5713,-2.6786,19.3926,12.9786,19.6408,-13.7665,15.7063,0.8342,8.3322,-11.7384,14.0176,3.3186
85.9375,8.0397,17.5445,-0.1391,9.6036,-6.5204,20.4624,-0.3338,-7.1711,1.5528,25.2629,17.5897,23.8888,-10.4004,17.8949,4.6373,11.8830,-11.5667,20.1706,8.0742
89.8438,15.2853,25.9199,2.6381,12.2157,-1.8722,24.6078,4.8261,-2.7524,7.4192,30.4480,18.8015,28.2681,-5.9230,19.4376,8.1094,16.0717,-9.7169,25.4077,11.1413
93.7500,20.0606,32.3879,3.8453,13.2344,2.1701,25.3530,6.7776,1.4442,12.3577,31.9403,14.9897,29.9101,-2.2818,19.4139,7.7205,17.9437,-7.7377,27.8217,10.5762
97.6562,19.4524,34.0851,2.5582,11.9496,2.8385,22.3259,3.4197,2.6572,13.9834,28.7498,6.8515,26.8743,-1.2713,17.4639,2.3551,15.5342,-7.4698,26.4556,5.9843
101.5625,14.1924,31.0749,-0.8599,8.6437,-0.5283,17.2561,-3.9981,-0.5220,11.8117,22.8221,-2.8270,19.7891,-3.2372,14.0612,-5.6604,9.5202,-9.5559,22.0188,-1.2593
105.4688,8.1951,25.9547,-5.0338,4.6108,-5.9334,12.8790,-11.6485,-6.9815,7.5942,17.8384,-10.6803,11.6614,-6.7979,10.3127,-12.1140,2.9643,-12.8921,16.5199,-8.8294
109.3750,5.6318,21.6922,-8.4779,1.5937,-10.0248,11.0696,-15.6750,-13.5107,4.0346,16.6922,-14.5807,5.9369,-9.7759,7.4190,-13.8845,-0.7364,-15.3877,12.0901,-14.7015
113.2812,7.8216,19.4348,-10.4356,0.9094,-10.3526,11.5988,-14.6610,-16.6721,2.8831,19.4733,-14.6311,4.2321,-10.6136,6.1002,-11.1132,-0.1878,-15.3910,9.8240,-18.0302
117.1875,12.3910,17.9653,-11.1161,2.7183,-6.9730,12.4651,-10.3317,-14.9758,3.8472,23.4441,-12.7715,5.4147,-9.2250,6.2797,-6.9889,3.1221,-12.6920,9.3919,-19.2131
121.0938,15.3291,15.0960,-11.2908,5.8579,-2.2778,11.5431,-6.1486,-9.9240,5.0793,25.0278,-11.3393,6.6836,-6.7325,7.1733,-5.3659,6.0498,-8.4209,9.5675,-19.2802
125.0000,14.2481,9.7578,-11.6524,8.3937,0.7781,8.2680,-4.9149,-5.1571,4.7713,22.3509,-11.5498,5.7889,-4.4236,7.7414,-8.0018,6.1711,-4.0662,9.1901,-19.1201
128.9062,10.2401,3.0667,-12.3961,8.6622,0.7364,4.0597,-7.0579,-4.1545,2.5755,16.5245,-12.8436,2.6964,-2.8201,7.2876,-13.3886,3.4961,-0.4839,7.8669,-19.0240
132.8125,6.9320,-2.4330,-13.2175,6.2564,-1.4760,1.1879,-10.6222,-7.9344,-0.2085,10.8268,-13.4410,-0.5341,-1.5691,5.8918,-17.8945,0.2579,2.3272,6.0253,-18.7138
136.7188,7.6263,-4.6503,-13.5940,2.3571,-3.3792,0.9990,-12.7784,-14.2755,-1.7212,8.4890,-11.6773,-1.4996,-0.1218,4.4086,-18.2630,-0.9908,4.6312,4.4318,-17.7106
140.6250,12.8741,-3.4125,-13.0984,-0.8860,-2.7955,2.8966,-11.7258,-19.0589,-0.9655,10.6981,-7.2398,0.5517,1.4877,3.9654,-13.6647,0.5475,6.2080,3.6173,-15.7635
144.5312,20.2945,-0.4212,-11.5843,-1.6539,0.6330,4.8369,-7.7822,-18.9490,1.5483,16.1046,-1.5389,4.0117,2.4938,5.1971,-6.0058,3.2672,6.2274,3.5916,-13.1111
148.4375,26.5011,2.1046,-9.2389,0.3203,5.2687,4.8993,-3.1021,-13.6958,4.3340,21.9129,2.9885,5.9988,2.0267,7.6780,1.4562,4.3877,3.9442,3.9351,-10.4633
152.3438,29.3457,2.8914,-6.5405,3.4355,8.6378,2.6777,-0.3185,-6.4915,6.0814,25.5528,4.2039,4.3901,-0.0316,9.9826,6.0289,2.0559,-0.3606,4.0932,-8.7074
156.2500,28.7170,2.0522,-4.1114,5.1451,9.0285,-0.5502,-0.9466,-2.0151,6.4649,25.7684,1.4398,-0.7140,-2.7201,10.4525,6.7546,-3.2961,-5.0634,3.6573,-8.4406
160.1562,25.6756,0.3940,-2.4369,3.6459,6.4727,-2.9060,-4.4190,-3.3223,6.0598,22.6873,-4.1261,-7.1000,-4.5221,8.2709,4.3479,-9.3036,-7.9338,2.5324,-9.5421
164.0625,21.2345,-1.5240,-1.5294,-0.7390,2.6178,-3.2967,-8.2510,-9.5853,5.6404,17.3079,-10.0393,-11.9208,-4.3451,4.1566,0.3668,-13.3431,-7.4953,1.0125,-11.0468
167.9688,16.1908,-3.5996,-0.7558,-5.4738,-0.2385,-1.9948,-9.2790,-16.2497,5.6123,11.0945,-13.6980,-13.3733,-2.1836,0.1495,-3.5624,-14.1782,-4.0212,-0.2242,-11.4874
171.8750,12.0189,-5.5320,0.9485,-7.2254,-0.2703,-0.0498,-5.3866,-17.6773,6.0749,5.8938,-13.4024,-11.4067,1.0454,-1.4773,-6.0298,-12.3890,0.6204,-0.2591,-9.6103
175.7812,11.3969,-6.1419,4.4831,-3.9700,3.1615,1.8415,3.1707,-10.7108,7.3023,3.7611,-8.8420,-7.1668,4.3150,0.4548,-5.8445,-9.4612,4.2177,1.7207,-5.0830
179.6875,17.0004,-3.6573,9.9214,3.5607,9.3678,3.9579,13.6272,3.0757,9.9563,6.2222,-0.9433,-1.8733,7.2443,5.3106,-2.2221,-6.4753,5.6697,5.9432,1.2558
183.5938,28.9102,2.9108,16.2455,12.0799,16.6309,7.1086,21.9734,17.9197,14.5766,13.1259,8.6278,3.8602,10.1664,11.0065,4.6938,-3.5268,5.5832,11.6859,7.8053
187.5000,42.8376,12.3301,21.7266,17.5233,22.7683,11.5097,25.0283,26.9402,20.6551,21.9747,17.9370,9.8017,13.4836,15.2219,13.3874,-0.2431,5.5909,17.3098,13.0247
191.4062,51.4282,21.0345,24.7652,17.2889,25.8471,15.9940,22.1333,25.8827,26.1801,28.6460,25.0740,15.3896,16.9062,16.6569,21.2070,3.2540,6.9286,20.7985,16.1246
195.3125,48.6914,24.8529,24.6616,11.5338,24.9123,18.3345,15.4074,15.2957,28.3507,29.5132,28.4061,19.3888,19.2886,15.5312,25.4772,5.9692,9.3596,20.5969,17.1794
199.2188,34.7299,21.6186,21.8365,2.7877,20.4474,16.5888,8.3701,-0.0547,25.2535,23.7674,27.0092,20.4103,19.2766,13.0839,24.9532,6.6969,11.2510,16.3244,16.6682
203.1250,16.9433,12.8153,17.4225,-5.7227,14.2419,10.5412,3.8355,-13.9679,17.3882,14.2699,21.2463,17.9586,16.2910,10.5323,20.6626,5.1866,10.7267,8.9836,14.8998
207.0312,6.0058,2.9358,12.5937,-11.8463,8.5709,2.2046,2.4959,-21.9595,7.8169,6.0823,13.1096,13.1162,11.0619,8.2869,15.4611,2.7328,7.0240,0.5598,11.8478
210.9375,8.8556,-3.1645,8.1214,-15.2765,5.0422,-5.0164,3.1035,-22.9645,0.5934,3.4440,5.8208,8.1746,5.2607,5.9445,12.4635,1.5244,1.0626,-6.7632,7.5259
214.8438,23.6185,-3.1593,4.3654,-17.0476,3.7821,-7.9977,3.9471,-18.9484,-1.6095,7.1810,2.5382,5.3422,0.4793,2.9504,13.2871,3.1287,-5.1406,-11.3907,2.5047
218.7500,40.4336,1.5702,1.4963,-18.4008,3.5051,-5.4119,4.3311,-13.1780,0.9021,14.3370,4.6841,5.4181,-2.6882,-0.6856,17.1919,7.2675,-9.7276,-12.7910,-2.0209
222.6562,47.9708,7.1825,-0.4188,-19.9623,2.4404,1.7060,4.8207,-8.5278,5.1265,20.2740,10.8953,7.3936,-4.8079,-4.2190,21.6145,11.8883,-12.0069,-11.5387,-4.8550
226.5625,41.1004,10.0355,-1.6027,-21.7235,-0.5102,10.5030,6.1094,-6.7403,7.3289,21.7288,17.4504,9.2596,-6.9673,-6.6704,23.7027,14.5416,-12.5726,-8.9910,-5.7157
230.4688,24.1296,8.8447,-2.7639,-23.5500,-5.1759,17.5500,7.6241,-8.5497,5.3337,18.6644,20.1857,9.3984,-9.8942,-7.5654,21.8759,14.0401,-12.6060,-6.7359,-5.6696
234.3750,7.2444,4.9823,-4.8972,-25.5457,-10.4344,20.1821,7.3099,-13.9336,-0.3666,13.7260,16.8811,7.5467,-13.5225,-7.3119,16.5309,11.1536,-12.9997,-5.9755,-6.5788
238.2812,-1.0936,1.0386,-8.5908,-27.8534,-15.1032,17.4796,3.0834,-21.9619,-7.2804,9.9238,8.6314,4.7082,-17.2562,-6.9181,9.6193,7.8616,-13.9502,-7.0303,-9.8093
242.1875,-0.0037,-1.0318,-13.2772,-30.1180,-18.6590,10.6378,-5.0751,-30.4755,-12.6948,8.4288,-0.7616,2.2368,-20.5887,-7.2805,3.5017,5.8211,-15.1791,-9.1683,-15.1063
246.0938,4.0636,-0.8114,-17.1249,-31.2433,-21.2537,2.5875,-14.1990,-36.3392,-15.2281,8.1238,-7.0689,0.9076,-23.4706,-8.5791,-0.2023,5.2827,-16.4192,-10.9029,-20.5257
250.0000,3.2396,1.0028,-17.9213,-29.8677,-23.1314,-3.1413,-19.6843,-36.7000,-15.1908,7.0693,-8.1381,0.6865,-26.1046,-10.1919,-1.1950,5.2602,-17.6676,-10.7025,-23.5741
253.9062,-5.0143,3.6074,-14.5355,-25.3220,-24.0545,-4.0196,-18.2409,-30.7313,-13.7915,4.5282,-4.9761,1.2416,-28.3963,-11.1135,-0.3519,4.6937,-19.0214,-7.7956,-22.7905
257.8125,-15.6775,6.6555,-7.9532,-18.3120,-23.3055,0.1176,-10.3616,-20.6142,-12.0422,1.8493,-0.7391,2.5917,-29.6270,-10.5125,0.9386,3.5496,-20.3502,-2.6211,-18.6381
261.7188,-20.1303,9.9921,-1.0122,-10.6877,-20.2824,6.8142,-0.3602,-10.7370,-10.2441,1.5199,1.5824,5.2151,-28.7375,-8.0465,1.5467,2.9080,-21.2014,3.3758,-13.0747
265.6250,-13.0564,13.0835,3.1691,-4.3617,-15.1576,12.2741,6.2570,-5.2945,-8.2722,5.2046,1.0945,9.4770,-25.0781,-3.8397,1.1124,3.9874,-21.0822,8.5120,-8.1736
269.5312,3.1837,14.9557,3.0876,-0.1592,-8.9990,13.6579,6.3069,-5.7551,-6.1600,12.3501,-0.8005,14.8967,-19.0446,1.6823,0.0812,6.9695,-19.8594,11.7372,-4.8726
273.4375,20.0461,14.8896,-0.2439,2.5076,-3.2212,11.0082,0.8296,-9.9693,-4.3220,20.4114,-1.9412,19.9857,-12.0694,7.8691,-0.7269,10.6526,-17.8722,13.0587,-2.7835
277.3438,28.8326,13.2654,-4.0704,4.8767,1.1779,7.3859,-5.9548,-13.6634,-3.2025,26.4495,-1.3712,22.9439,-5.9220,13.8166,-0.7631,13.2483,-15.6079,13.2830,-1.0996
281.2500,26.5109,11.6432,-5.8296,7.5996,3.9710,6.8601,-9.7743,-13.3687,-2.7472,28.8516,-0.1346,22.7750,-1.8091,18.4359,-0.2068,13.6690,-13.2242,13.3129,0.2576
285.1562,17.0456,11.7643,-4.8827,10.0436,5.4122,11.5321,-9.1579,-8.7634,-2.2796,27.9903,-0.2803,19.9800,0.1010,20.7915,0.1151,12.2475,-10.3996,13.5369,0.2917
289.0625,7.7115,14.1535,-2.8182,10.7238,5.6630,19.6661,-5.9870,-2.7961,-0.9841,25.5808,-2.9262,16.2607,0.4559,20.6027,-0.6310,10.3176,-6.7371,13.7376,-2.2727
292.9688,3.7195,17.4949,-2.1556,8.5321,4.5413,26.4420,-3.5798,0.4426,1.3908,23.4632,-7.0216,13.4128,0.0665,18.5324,-2.4966,9.0444,-2.4350,13.5088,-7.7053
296.8750,5.3745,19.4331,-4.4445,3.7687,1.8570,27.0602,-4.0097,-1.4778,4.2317,22.7531,-9.9183,12.2041,-0.6288,15.9295,-4.4468,8.5059,1.3873,12.7691,-14.6112
300.7812,9.4403,18.2918,-9.1535,-1.8726,-2.0062,20.1551,-6.7844,-7.8406,6.4561,23.7294,-9.3983,12.0408,-1.6159,14.0693,-4.9329,7.7840,3.1234,11.9055,-20.5505
304.6875,12.7914,14.3743,-14.1040,-6.3735,-5.9142,9.0589,-9.7344,-15.5326,7.2935,26.1087,-5.5762,11.6108,-2.9615,13.3755,-3.0945,5.9421,1.6896,11.4250,-23.5519
308.5938,14.8467,9.7630,-17.0267,-8.6651,-8.5322,-0.1514,-11.1180,-21.2771,6.8010,29.1747,-1.1046,9.9613,-4.4750,13.2073,0.2526,3.0064,-2.5936,11.4329,-23.3811
312.5000,16.8756,6.7184,-17.0243,-9.1038,-9.2312,-2.6098,-11.0614,-23.5994,5.7007,31.6806,0.6139,7.1849,-5.7076,12.4266,2.7232,0.0721,-7.9486,11.4347,-21.5662
316.4062,19.3951,5.9388,-14.8897,-8.8091,-8.5533,2.1018,-11.1754,-23.1800,4.7274,31.9694,-2.0638,4.2482,-6.2493,10.3659,1.7687,-1.5824,-12.0390,10.7038,-20.1295
320.3125,20.6556,6.1035,-12.1677,-8.4663,-7.7238,9.7323,-12.8206,-21.6276,4.1021,28.7242,-7.6789,2.1912,-5.9946,7.4761,-3.4111,-1.6256,-13.2350,8.9773,-19.9820
324.2188,18.0614,5.1050,-9.8078,-7.6266,-7.5088,14.3330,-15.6157,-19.9110,3.6161,22.1143,-12.5414,1.3736,-5.0927,5.1402,-10.8061,-1.0650,-11.3893,6.9235,-20.2022
328.1250,11.3927,1.9871,-7.4877,-5.1149,-7.3688,12.3190,-17.4935,-17.7701,3.2213,14.4321,-13.2024,1.3345,-3.6381,4.7617,-16.3434,-1.5202,-7.6426,5.9430,-18.7442
332.0312,4.6515,-2.0148,-4.0852,-0.2141,-5.7235,4.7602,-16.2318,-14.4372,3.5075,9.3658,-8.7242,1.2810,-1.4537,6.7933,-16.2148,-3.9285,-3.5066,7.3412,-14.0342
335.9375,4.2027,-4.2589,1.1538,6.3650,-1.2562,-3.6347,-11.1580,-9.8273,5.4874,9.9720,-1.1448,0.7238,1.7374,10.4174,-9.3674,-7.7247,0.0358,11.3876,-6.2687
339.8438,14.0405,-2.7720,7.7089,12.5720,5.7417,-7.9640,-3.6583,-5.0180,9.7061,16.5381,6.0710,-0.2759,5.8276,14.0855,1.5327,-11.1684,2.7979,16.8949,2.5108
343.7500,31.7794,1.9965,13.8409,16.1611,13.1478,-6.4370,3.8022,-1.5517,15.3628,25.8890,10.3090,-1.3857,9.9739,16.4730,11.4373,-12.5839,4.9987,21.6259,9.5660
347.6562,48.8782,7.1611,17.5461,16.0509,18.2381,-1.2142,9.2251,-0.1977,20.2656,32.8649,11.1165,-2.4689,12.8068,17.1256,15.7949,-11.5545,6.7296,23.3088,12.9728
351.5625,55.5227,9.2297,17.7054,12.8914,19.5163,3.5886,11.9472,-0.3103,21.8769,33.1899,9.7627,-3.7645,13.1903,16.3788,13.1511,-9.1756,7.8149,20.6852,12.4829
355.4688,46.9373,6.4567,14.6520,8.4627,17.7261,5.0060,12.3571,-0.3985,18.8484,25.9088,7.7057,-5.6023,11.0106,14.7481,5.8162,-7.2203,8.1359,14.0413,9.2982
359.3750,26.6183,-0.0070,9.8687,4.4217,15.2062,3.0327,11.0393,0.5521,11.9731,13.8039,5.3962,-7.9338,7.3470,12.3883,-1.7525,-6.9061,7.9800,5.0160,5.1265
363.2812,4.1597,-6.9914,5.1255,1.3530,14.0477,-0.0656,8.3086,2.1408,3.8209,1.5859,2.3684,-10.1507,3.7978,9.0935,-5.7150,-8.1899,7.9275,-4.1313,1.2787
367.1875,-10.7277,-11.5227,1.6533,-1.2452,14.4945,-2.1000,4.5057,2.8206,-2.7631,-6.8547,-1.6729,-11.4208,1.4105,4.7751,-4.9513,-10.0291,8.2627,-11.3971,-1.6552
371.0938,-13.7728,-12.7340,-0.2146,-4.1933,14.8684,-2.8726,0.5259,1.1706,-6.2928,-10.3308,-5.9505,-11.2973,0.0292,-0.0937,-1.2816,-11.2656,8.4543,-15.6871,-3.5768
375.0000,-7.6503,-12.1286,-0.8800,-7.8016,13.0875,-4.0534,-2.2407,-2.8843,-7.2973,-10.3387,-8.8571,-10.0791,-1.4007,-4.5499,2.0943,-11.3704,7.3326,-17.0411,-4.5074
378.9062,1.0130,-12.1177,-1.0266,-11.6363,8.5581,-7.2031,-2.7521,-7.9167,-7.5903,-9.4858,-9.1833,-8.5713,-3.7766,-7.7289,2.7389,-10.5277,4.0429,-16.4022,-4.4377
382.8125,6.4253,-14.0073,-1.1576,-14.9469,2.8941,-11.7179,-1.2127,-12.0138,-8.7285,-9.6584,-7.1869,-7.3959,-6.8671,-9.4680,0.3328,-9.1584,-0.9081,-15.0436,-3.4185
386.7188,6.7215,-16.9250,-1.3042,-17.2657,-1.1525,-14.5909,0.9554,-14.1164,-10.7827,-11.1168,-4.4298,-6.4148,-9.2457,-10.3646,-3.3943,-7.4366,-5.4693,-13.8940,-1.6613
390.6250,3.7299,-18.4054,-0.9910,-18.6311,-1.7336,-12.4220,2.2861,-14.5998,-12.2851,-12.8150,-2.4005,-4.7847,-9.2686,-11.1899,-5.8303,-5.2522,-7.1351,-13.0790,0.5315
394.5312,0.4853,-16.1348,0.5045,-19.3090,0.6808,-4.2332,2.6604,-14.7043,-11.3547,-13.3737,-1.1144,-1.6727,-6.3954,-12.1425,-4.8927,-2.5817,-4.6984,-11.9531,2.9260
398.4375,-1.0978,-9.5965,3.6505,-19.3815,3.6202,7.1352,3.5781,-15.3941,-7.1785,-11.9183,0.9588,2.8940,-1.8300,-12.6141,0.0281,0.1867,0.6170,-9.6633,5.3850
402.3438,-0.7959,-0.5365,8.1376,-18.6597,4.4000,16.3247,6.8201,-16.6467,-0.8121,-8.4018,5.3815,7.7427,2.0710,-11.7270,7.8423,2.3725,5.6270,-5.9363,7.6821
406.2500,0.8278,7.9597,12.6964,-17.0150,1.9870,18.7425,12.4789,-17.7117,5.2387,-3.5326,11.8467,11.1456,3.2528,-9.2217,16.1372,3.5154,7.1071,-1.5564,9.3026
410.1562,3.3671,13.0951,15.5287,-14.7700,-2.4507,13.5995,18.1187,-17.9900,8.3690,1.4369,17.6301,11.9360,1.2479,-5.9147,21.9816,3.8095,3.8770,1.8800,9.5448
414.0625,6.5523,13.6901,15.2515,-12.6947,-6.6206,4.5637,20.0860,-17.6590,7.2876,5.0232,19.1686,10.3636,-2.6266,-3.2498,23.0122,4.0105,-2.4536,2.8831,7.9933
417.9688,9.5857,10.5441,11.8082,-11.5174,-8.8643,-2.4693,16.2032,-17.4682,2.6358,6.0461,14.7652,8.0383,-6.2768,-2.2312,18.5330,4.8272,-8.6429,1.0909,5.0331
421.8750,10.9397,5.8128,6.6692,-11.3557,-9.2216,-3.0035,7.7364,-17.9429,-3.4939,4.3174,6.2938,6.9409,-8.2834,-2.5979,10.1209,6.2980,-12.0446,-2.3460,1.8894
425.7812,9.2000,1.8879,2.0410,-11.6076,-9.0996,3.4288,-1.1188,-18.8039,-8.7676,1.0423,-1.6533,8.1436,-8.7525,-2.9821,1.1951,7.7154,-12.2799,-5.3723,-0.0288
429.6875,4.3299,0.3873,-0.4869,-11.4734,-10.0026,13.2665,-6.0778,-19.2081,-11.7846,-1.5777,-4.7966,11.1011,-9.0151,-2.0188,-4.5287,8.2128,-11.1711,-6.2855,-0.1231
433.5938,-1.8994,1.6564,-0.9308,-10.6974,-12.4371,21.3600,-5.8172,-18.6285,-12.5628,-1.5629,-2.1973,13.9938,-10.4962,0.4390,-5.0029,7.5447,-11.1011,-4.7854,0.8163
437.5000,-6.9068,4.8737,-0.7855,-9.8632,-15.7873,24.0987,-2.7946,-17.5441,-12.1522,1.5313,3.0668,14.8928,-13.6404,3.0119,-1.0205,6.3877,-13.1360,-2.0604,1.0048
441.4062,-8.9980,8.5976,-1.8220,-9.9101,-19.0360,21.2070,-1.1073,-17.2171,-11.7349,6.2273,6.2100,12.9824,-17.6401,3.7413,4.3029,5.8644,-16.3535,0.1583,-1.1116
445.3125,-8.3324,11.4566,-4.6858,-11.2092,-21.5205,15.2789,-3.0667,-18.6363,-11.8322,10.1236,4.3429,9.0691,-21.0406,1.6409,7.5447,6.6506,-18.7810,0.8744,-5.6350
449.2188,-6.3821,12.6670,-8.3741,-12.9696,-23.0465,9.6905,-7.2889,-21.4914,-12.1143,11.6327,-1.3879,5.0993,-22.6506,-2.3344,7.1662,8.3991,-19.0460,0.4807,-10.9201
453.1250,-4.5126,12.1662,-11.0211,-13.5442,-23.4197,6.4760,-9.9219,-24.1099,-11.8738,11.0975,-6.8083,3.0446,-22.0650,-5.6996,4.3112,9.9807,-17.3309,0.3134,-14.5020
457.0312,-3.1078,10.3612,-11.3952,-11.4954,-22.0761,5.5232,-8.0591,-24.5212,-10.7714,10.3159,-8.1051,3.8599,-19.5415,-5.9985,1.6046,10.3685,-14.8994,1.4850,-14.6505
460.9375,-2.0261,7.7215,-9.9265,-6.6466,-18.3849,5.3485,-2.5203,-21.8729,-9.2760,10.8105,-4.9341,7.0909,-15.5445,-2.4015,0.8690,9.4534,-12.7286,3.9329,-11.4780
464.8438,-1.6993,4.5348,-8.4344,-0.3200,-12.4774,4.6161,2.3808,-17.0932,-8.4371,12.3340,-0.7716,11.2512,-10.4842,3.8045,1.5765,8.1173,-10.5507,6.4365,-6.8531
468.7500,-3.3658,0.9973,-8.7571,5.4229,-5.8034,3.1970,2.0318,-12.2911,-9.1123,13.0417,-0.1881,14.6277,-4.8858,10.1364,1.3394,7.4949,-7.2249,7.5699,-3.2396
472.6562,-7.7238,-2.4933,-11.3756,8.9660,-0.6940,2.0789,-4.8283,-9.3857,-11.2051,11.3724,-5.1680,16.0100,0.2774,14.5122,-1.8808,8.0242,-2.1508,6.8044,-2.3147
476.5625,-13.0828,-5.1948,-15.1287,9.8937,0.9843,2.3497,-14.9494,-9.0270,-13.5229,8.0726,-13.3833,15.0094,3.5936,16.3470,-7.6352,9.0615,3.5640,4.8679,-4.2765
480.4688,-15.1355,-6.2915,-18.2224,8.8689,-0.8579,4.1181,-22.8726,-10.5466,-14.4582,6.3925,-19.8223,11.9531,3.8071,16.4503,-12.7985,9.3749,7.3656,3.0908,-8.1373
484.3750,-9.4759,-5.4805,-19.6693,6.9059,-4.3220,6.1995,-24.8823,-12.7782,-13.0871,9.8349,-20.5497,7.5790,0.6918,15.9972,-13.7263,8.1165,6.9599,2.3106,-12.5552
488.2812,4.4983,-3.4126,-19.9501,4.7256,-6.7010,6.7925,-21.4867,-14.9168,-9.9110,18.9703,-15.7001,2.7658,-4.4654,15.5145,-9.2204,5.4912,2.2002,2.2628,-16.4858
492.1875,21.4999,-1.5258,-20.3576,2.6721,-6.2580,4.6658,-16.5430,-16.7080,-6.6468,29.9543,-9.4060,-1.6137,-9.2697,14.6817,-1.9261,2.5994,-4.4061,1.9623,-19.2823
496.0938,32.5404,-1.2297,-21.6222,1.0575,-3.3104,0.0456,-13.8853,-18.0075,-5.1274,36.3841,-6.7334,-4.7896,-11.3998,12.9702,3.1667,0.6065,-9.1375,0.7248,-20.4673
500.0000,30.6778,-2.9583,-23.0483,0.3910,0.1523,-5.3800,-14.2970,-18.3808,-6.0418,33.5748,-9.9836,-6.2384,-9.8607,10.4250,2.2394,-0.0777,-9.4810,-1.0794,-19.6664
503.9062,16.3991,-5.8174,-22.9751,1.1047,1.9784,-9.3386,-15.2691,-17.3295,-8.4155,22.2144,-17.1277,-5.8709,-5.4889,7.8290,-4.3801,0.0271,-5.7401,-2.2329,-16.9180
507.8125,-1.7039,-8.1840,-20.2317,2.9738,1.3271,-10.1868,-13.5970,-14.9990,-10.2375,8.4762,-23.4254,-4.1365,-0.3750,6.1045,-12.1120,0.0289,-0.6077,-1.7056,-13.0476
511.7188,-12.1565,-8.8918,-15.3606,4.8649,-0.9392,-7.7371,-8.4994,-12.5815,-9.8106,0.1639,-24.8345,-1.9047,3.4130,5.5224,-15.1558,-0.5573,2.9576,0.3556,-9.5672
515.6250,-8.3803,-8.1279,-10.5025,5.2699,-3.0805,-3.2552,-2.5714,-11.7444,-6.8639,1.4918,-20.5793,-0.1108,4.9700,5.4757,-10.5606,-1.4630,3.8990,2.5727,-7.9047
519.5312,6.6334,-7.3190,-7.9218,3.3975,-3.7373,1.2956,0.2393,-13.2900,-2.6382,10.2934,-13.1047,0.6644,4.8598,5.0628,-0.3812,-2.0023,3.6059,3.3497,-8.4103
523.4375,22.4310,-8.0326,-8.3004,-0.0197,-2.6357,4.2606,-2.0711,-16.1166,1.0773,19.7493,-5.7954,0.4262,4.4874,3.9748,9.6782,-1.7602,4.4694,2.1739,-9.9426
527.3438,28.6528,-10.6956,-10.1801,-2.9772,-0.3609,4.9693,-7.7437,-17.5574,3.1972,23.3647,-0.5161,-0.3550,5.0466,2.8714,14.1757,-1.0221,7.6700,0.1172,-10.5092
531.2500,22.4986,-14.1175,-11.0482,-3.5125,2.3630,3.7815,-12.4134,-15.1649,3.9371,19.4952,3.0829,-1.1497,6.7623,2.8466,11.5889,-0.5877,12.0058,-0.9505,-8.6283
535.1562,10.5275,-16.2087,-9.2393,-1.1846,5.1372,1.6356,-12.2927,-8.7519,4.3627,12.1168,6.2160,-1.7881,8.8576,4.3876,5.1561,-1.1450,14.7154,0.1146,-4.4456
539.0625,3.4944,-15.3791,-5.1618,2.4256,7.7503,-0.4990,-6.8451,-1.0745,5.3405,7.4543,9.0565,-2.5932,10.1445,6.7212,0.4417,-2.7449,13.6248,2.6687,0.2663
542.9688,8.2318,-11.5796,-0.8993,4.6706,9.7676,-1.9147,1.0599,3.5844,6.7930,9.2194,10.1354,-4.1164,9.7609,8.1672,1.5092,-4.8067,8.8898,4.5812,3.2808
546.8750,22.7488,-6.2481,1.4598,3.6244,10.4524,-2.1499,7.4211,2.1053,7.8652,16.1127,7.6542,-6.6503,7.5842,7.2926,8.4342,-6.6170,2.9417,3.7566,3.4205
550.7812,38.0853,-1.2761,1.4060,-0.5914,9.2558,-0.8947,9.8554,-5.3620,7.8148,23.2782,1.5468,-9.8634,4.1612,3.9674,17.7106,-7.8677,-1.2957,-0.2368,1.2910
554.6875,45.1604,2.1606,0.2626,-5.9132,6.4642,1.9264,8.7330,-15.3746,6.8161,26.2256,-5.6148,-12.8304,0.3450,-0.5322,24.9145,-8.7677,-2.4687,-5.6746,-1.2533
558.5938,41.1370,4.0406,-0.0175,-9.7689,3.3224,5.8837,6.1566,-23.2536,5.9393,23.9359,-9.8679,-14.4566,-3.0463,-4.4606,27.4923,-9.6434,-1.4911,-9.7357,-2.4290
562.5000,30.5504,5.0098,1.5337,-10.7516,1.3521,9.8705,4.0200,-25.7536,6.2774,18.8096,-8.4540,-14.0122,-5.3638,-6.8196,25.7737,-10.3963,-0.3797,-10.3679,-1.5872
566.4062,20.8535,5.5409,4.1984,-9.3280,1.3204,12.3651,2.8837,-22.5627,7.9425,13.9038,-1.7717,-11.4218,-6.1108,-7.8731,21.8971,-10.3164,-0.2699,-7.6215,0.7259
570.3125,16.4272,5.5377,6.2864,-7.1825,2.6964,12.1691,2.3563,-15.8758,9.8104,10.1360,6.8642,-7.1524,-4.9575,-8.5830,17.9151,-8.4630,-0.3286,-3.5222,3.5787
574.2188,15.9571,4.6950,6.5783,-5.8572,4.0821,9.2205,2.1761,-8.7333,10.2937,5.9635,13.5093,-1.8525,-1.9022,-9.5121,14.7007,-4.3632,1.4679,-0.6334,6.5019
578.1250,14.9038,3.1874,5.2574,-5.7997,4.2820,4.8777,2.6674,-3.5131,8.5716,-0.2919,16.1884,3.9236,2.5060,-10.1944,12.2861,1.4893,6.2901,-0.3808,9.6056
582.0312,10.4358,1.9369,3.6094,-6.4589,3.1269,1.3280,4.1050,-1.4524,5.2955,-7.7487,15.8710,9.6868,7.1079,-9.5603,10.9138,7.7169,12.8561,-2.2937,12.9449
585.9375,4.3136,2.0925,2.8575,-7.1295,1.3807,0.3817,5.8192,-2.9538,2.1846,-12.5841,15.2052,14.7685,10.4208,-7.0676,11.5340,12.6940,17.7220,-4.5726,15.8590
589.8438,1.2802,4.1070,3.2173,-7.6582,-0.1186,2.4208,6.2848,-7.7998,0.8055,-10.6565,16.1426,18.2052,11.2308,-3.5250,15.1350,15.3387,17.4438,-5.4254,17.0700
593.7500,4.5564,7.2333,3.9757,-8.3709,-1.2492,6.2525,4.4698,-14.8084,1.4789,-1.1172,18.3717,19.0372,9.2029,-0.7975,21.4862,15.5955,11.0781,-4.1675,15.6308
597.6562,12.5505,9.9703,4.4242,-9.3859,-2.5738,10.0190,1.2964,-21.4337,3.1475,12.0730,19.7313,16.9554,5.1314,-0.5031,28.5243,14.3725,1.1218,-1.4063,11.9564
601.5625,19.7412,11.1870,4.6888,-10.0921,-4.5269,12.5398,-0.3906,-24.2878,4.2606,22.2704,18.1475,12.8436,0.6094,-2.7004,33.1452,13.0343,-7.9024,1.6085,7.9493
605.4688,20.9980,11.0246,5.6100,-9.4288,-6.6469,14.0968,2.1845,-20.9151,3.9340,24.5289,13.4687,8.6914,-2.7634,-5.6563,32.9980,12.7532,-12.2738,3.8287,5.8950
609.3750,15.6125,10.8003,7.7383,-6.8308,-7.7073,16.0501,9.1521,-11.8450,2.4709,18.9430,7.7390,6.7248,-4.2069,-6.9695,27.9928,14.0184,-11.3211,4.8379,6.8491
613.2812,7.6048,11.9284,10.3934,-3.0020,-6.7889,19.5369,17.0809,-1.2081,0.8971,10.3793,3.7493,8.1802,-4.1260,-5.2469,20.3929,16.4684,-7.5324,4.7383,9.7660
617.1875,2.1344,14.7049,11.7685,0.2807,-4.3879,24.2406,20.8924,5.1028,-0.0176,4.8212,3.0412,12.5057,-3.7717,-1.0703,13.4058,19.0672,-4.5544,3.8255,12.1412
621.0938,1.1981,17.9487,10.1753,1.3356,-2.4642,28.2301,17.4824,2.9304,-0.4002,5.1635,4.8870,17.5795,-4.4015,3.4629,9.2850,20.5442,-4.6298,2.4375,11.7686
625.0000,2.3334,19.8176,5.4719,-0.1568,-3.1648,29.1137,8.2957,-7.2946,-1.0749,9.6257,6.9241,20.8830,-6.4865,6.2347,8.2390,19.9418,-7.3485,1.0390,8.3033
628.9062,1.3430,19.1630,-0.5605,-2.8439,-7.1385,25.7589,-1.3428,-20.5127,-2.7671,13.7841,6.8529,20.8958,-9.5044,6.4624,8.7537,17.0526,-10.5115,0.2732,3.4158
632.8125,-3.4924,16.3462,-5.3313,-4.6770,-12.8521,19.3476,-5.8911,-30.0769,-5.4497,14.3584,3.9004,17.8100,-12.4622,4.9191,8.8869,12.5268,-12.2691,0.7104,-0.5862
636.7188,-9.5318,12.8823,-7.2524,-4.4422,-17.5945,12.9335,-3.5611,-31.8666,-8.3972,11.6408,-0.9163,13.1306,-14.7561,2.9852,7.4984,7.5624,-12.7671,2.3659,-2.5837
640.6250,-11.9590,10.2438,-6.8283,-2.6229,-19.4651,9.6981,2.4603,-26.5918,-10.8497,8.7626,-5.7063,8.5274,-16.6897,1.4399,4.6339,3.3202,-13.9754,4.3964,-3.4698
644.5312,-8.1505,8.8313,-6.1461,-0.8815,-18.7399,11.0154,6.5151,-18.7121,-12.6381,8.6714,-8.9741,4.8142,-19.1889,0.0407,1.0553,0.4092,-17.8435,5.3778,-5.3149
648.4375,-0.3546,7.9475,-7.1718,-0.5814,-17.4522,15.5876,4.7519,-12.9299,-14.1683,11.5122,-10.3388,1.7835,-22.8571,-1.8120,-2.4776,-1.2358,-24.2627,4.1431,-9.5444
652.3438,5.7990,6.7390,-10.2316,-1.5797,-17.4941,20.2067,-2.1640,-10.9978,-15.7686,14.6136,-10.3849,-1.0821,-27.0850,-4.0215,-5.5595,-2.0245,-30.5162,0.6683,-15.5978
656.2500,5.8520,5.2337,-13.8921,-2.3175,-18.8484,21.6365,-9.9635,-11.2076,-17.0184,14.9913,-9.9945,-3.7009,-29.9956,-5.4083,-7.9953,-2.2128,-32.7998,-3.6523,-21.1570
660.1562,0.3383,4.5143,-16.2850,-1.1652,-19.5239,18.4364,-14.4278,-10.7054,-16.7542,12.1594,-9.7444,-5.1156,-29.4535,-4.4688,-9.5026,-1.6564,-28.8252,-6.6345,-23.7858
664.0625,-5.3973,5.8092,-16.7252,2.0847,-17.3562,11.6711,-14.7293,-8.5006,-13.8832,8.8295,-9.7083,-4.1393,-24.5423,-0.7183,-9.6712,-0.0375,-19.6405,-6.5006,-22.7024
667.9688,-5.3396,9.2247,-16.2452,5.8479,-12.1875,4.2180,-13.7500,-6.5521,-8.4119,8.8786,-9.6038,-0.4317,-16.4536,4.5445,-8.2533,2.6258,-9.2825,-2.8925,-19.3074
671.8750,2.4283,13.2090,-16.6034,7.8793,-6.4810,-0.7788,-15.2285,-7.9955,-1.8353,14.2326,-9.0465,4.8974,-8.0261,8.8311,-5.4961,5.6575,-2.3789,2.9360,-16.0791
675.7812,14.1597,15.2887,-18.6235,7.0478,-3.6401,-1.3926,-20.2165,-14.0254,3.5229,23.1631,-7.7680,9.7306,-2.1100,10.1076,-2.1742,7.9488,-1.2688,8.8330,-14.7185
679.6875,23.2491,13.6146,-21.2960,4.3345,-5.2521,2.3570,-25.8693,-22.1409,5.8169,31.3162,-5.8049,12.1917,0.1745,8.2696,0.7495,8.6438,-4.5853,12.8755,-14.9865
683.5938,25.0305,8.1923,-22.4383,2.2139,-9.5244,8.6796,-27.6153,-27.4063,4.7212,34.6134,-3.6486,11.7977,0.0430,5.2682,2.5857,7.7716,-8.2634,14.2111,-15.0904
687.5000,19.7334,0.8944,-20.4081,2.8434,-12.3707,14.8021,-22.9381,-25.9232,1.4892,31.7932,-2.2156,9.6400,0.0293,3.7018,3.1812,6.2782,-8.2946,13.1913,-13.2562
691.4062,11.5044,-5.7335,-15.4819,6.4282,-10.4980,17.9620,-13.6672,-17.8583,-1.9501,24.8093,-2.4718,7.4445,2.0302,4.8808,2.8555,5.3470,-3.3805,10.8700,-9.2338
695.3125,4.7316,-9.9814,-9.7866,10.9945,-4.1317,16.3164,-4.8951,-7.6319,-4.1580,17.0752,-4.7916,6.2189,5.8239,7.8041,2.1343,5.4758,4.2655,8.2980,-4.5971
699.2188,0.9586,-11.7474,-5.8477,13.7216,2.8458,9.5990,-1.3639,-1.0443,-4.8139,11.1208,-8.4649,5.5208,9.1686,9.8211,1.4770,6.0266,10.4436,6.0440,-1.6737
703.1250,-1.1889,-12.1536,-4.9135,12.8172,5.6122,-0.6298,-4.1503,-1.4593,-4.5094,7.4100,-11.8461,3.9030,9.4429,8.4957,1.0967,5.6436,11.7381,4.1165,-1.9679
707.0312,-3.4953,-12.4694,-6.3327,8.5728,1.9826,-11.3228,-10.1526,-7.8285,-4.0647,4.8884,-13.2578,0.1839,5.6419,3.3146,0.8564,3.2732,7.6706,2.1813,-5.2362
710.9375,-5.7323,-13.2337,-8.3481,2.9416,-5.8818,-18.9353,-14.6043,-15.8500,-3.9847,2.4194,-12.1368,-5.4483,-0.7400,-3.9558,0.2600,-0.9704,0.8688,-0.1339,-9.7805
714.8438,-5.6846,-14.1672,-9.5270,-1.8853,-12.9530,-20.8154,-14.5173,-21.1536,-4.3924,-0.2208,-9.5695,-11.3512,-6.5902,-10.4291,-1.3507,-5.7586,-4.7292,-2.9922,-13.5854
718.7500,-1.5451,-14.7490,-9.6316,-4.7593,-14.8638,-16.4190,-10.4342,-22.0032,-5.2750,-2.4423,-7.6783,-15.4323,-9.1694,-13.8559,-4.3194,-9.3667,-6.3268,-6.2055,-15.3912
722.6562,5.6877,-14.8309,-9.3320,-5.8444,-10.7954,-7.7096,-5.4123,-19.6344,-6.6283,-3.6236,-8.1499,-16.4747,-7.7560,-13.7390,-8.1056,-10.7459,-3.7324,-9.2099,-15.0193
726.5625,12.2339,-14.7448,-9.2127,-5.9125,-3.6175,1.5721,-2.3880,-16.3690,-8.2927,-3.6874,-10.9180,-14.7987,-3.7928,-11.1768,-11.0890,-10.0548,1.0064,-11.1970,-12.9595
730.4688,14.1932,-14.8865,-9.0778,-5.4507,2.6192,7.5018,-2.1387,-13.3718,-9.6930,-3.0077,-14.0061,-11.8103,0.4489,-7.7939,-11.1600,-8.3024,5.3308,-11.4156,-9.7704
734.3750,10.6161,-15.2291,-8.1886,-4.3849,5.6987,7.6875,-3.2711,-9.9802,-9.8858,-1.9474,-14.7362,-8.8559,3.5654,-4.7002,-6.9961,-6.4550,7.9153,-9.5542,-5.8276
738.2812,4.3141,-15.2374,-6.1450,-2.5630,6.3791,2.2861,-3.8497,-5.0246,-8.0687,-0.6427,-11.4878,-6.3067,5.7558,-2.1966,0.7408,-4.7556,9.2176,-6.0059,-1.4980
742.1875,-0.3066,-14.2463,-3.5092,-0.4410,6.9506,-6.1272,-3.0597,1.1999,-4.2353,0.7599,-4.7591,-3.5699,8.1158,-0.2145,9.2783,-2.7791,10.6051,-1.8266,2.6142
746.0938,-0.5041,-11.9496,-1.5171,0.7533,8.6647,-13.7120,-1.5636,6.1854,0.5808,1.8213,3.2018,0.0495,11.1969,1.1161,15.0968,-0.1080,12.8884,1.6342,5.7187
750.0000,3.2138,-8.5758,-1.0918,-0.3813,10.3475,-16.9654,-0.5471,6.5011,4.7720,2.0114,9.8575,4.3892,14.1106,1.3605,16.1059,3.0075,15.4576,3.2346,7.2027
753.9062,8.3395,-4.6566,-2.0502,-4.4853,9.4003,-14.0864,-0.5566,0.2208,7.0590,1.3607,13.8101,8.1959,14.9797,0.1971,13.1633,5.6102,16.6685,2.3948,6.9768
757.8125,12.9890,-0.6715,-3.2515,-10.8794,4.2988,-5.6147,-1.1859,-11.3644,7.1645,0.8628,15.1934,9.8580,12.4099,-2.0971,9.6938,6.6838,15.1267,-0.8471,5.4784
761.7188,17.2415,3.0710,-3.5906,-17.7868,-3.6001,5.8146,-1.6899,-24.0679,5.7513,1.9265,14.9196,8.5768,6.7983,-4.6093,9.4339,5.9642,10.8510,-5.9918,3.3456
765.6250,21.9012,6.2457,-2.9442,-23.1477,-10.5680,16.4586,-1.7076,-32.9618,3.7150,5.0165,13.5916,5.1005,0.3977,-6.2890,13.7571,4.2448,5.4306,-12.2305,1.0985
769.5312,26.0704,8.3108,-2.1876,-25.4638,-13.0282,22.8552,-1.3179,-34.9005,1.4667,8.5970,11.0833,1.4567,-3.9774,-6.5770,20.5161,2.9152,1.0811,-18.4593,-0.8645
773.4375,26.3733,8.6529,-2.2262,-24.2176,-10.1154,23.1548,-0.4882,-29.8437,-1.1587,9.6053,7.1196,-0.1565,-4.6755,-5.6504,25.3719,3.0881,-0.6866,-23.2589,-2.0083
777.3438,19.3473,7.1118,-2.9122,-19.8193,-4.2613,17.9127,1.2997,-20.4084,-4.2969,5.5911,2.2523,1.4147,-2.1320,-4.1240,24.7971,4.9727,0.1382,-25.0825,-1.5382
781.2500,5.4193,4.4855,-2.9007,-13.3460,0.6076,9.9749,4.6166,-10.2747,-7.3371,-2.8699,-1.7670,5.7254,1.5920,-2.5313,18.6461,7.9193,2.2562,-22.7827,1.2478
785.1562,-9.1969,2.4890,-0.7140,-6.3045,1.7927,3.3956,9.1260,-2.5749,-8.8536,-11.5137,-2.7338,11.1101,4.1932,-1.0733,10.4172,10.9944,3.9322,-16.2869,6.2441
789.0625,-15.2698,2.9811,3.8037,-0.3934,-0.6372,1.7458,13.1093,0.9737,-7.4461,-14.4967,0.5768,15.6480,4.3685,0.1704,4.9641,13.5585,3.8482,-6.9829,12.0452
792.9688,-6.8466,6.8525,8.9100,2.8969,-4.5194,6.5186,14.2347,0.1598,-2.9564,-8.2192,7.3499,18.0703,2.1145,0.8460,5.2632,15.3951,1.4219,2.5682,16.2661
796.8750,13.4302,13.3036,11.8871,2.8503,-7.6975,16.3753,11.2149,-4.0322,2.8936,5.7450,14.8784,18.1282,-1.8669,0.2307,10.5116,16.4103,-3.3672,9.5837,16.7111
800.7812,34.5013,20.0481,10.8596,-0.0485,-9.7079,27.6315,5.0278,-9.8570,7.0757,20.9063,19.8766,16.3819,-6.9318,-2.3411,16.8287,16.3224,-10.2104,12.2179,12.7130
804.6875,43.2912,24.3768,6.1090,-4.2251,-11.7374,35.7992,-1.4768,-15.3744,6.8166,29.4744,20.1016,13.7182,-12.7137,-6.8113,19.9393,14.7505,-18.4218,10.2941,5.6938
808.5938,33.2489,24.4524,-0.1592,-7.7602,-15.0892,37.4847,-5.4812,-19.1597,1.1819,27.0669,15.2826,10.9604,-18.7239,-12.0637,17.8617,11.6924,-26.7097,5.2272,-1.5413
812.5000,8.9501,20.0941,-5.4114,-9.3634,-19.6277,31.7821,-6.1790,-20.8886,-8.3392,15.3556,6.9461,8.7230,-23.8973,-16.2858,11.7886,7.9435,-33.2035,-0.7534,-6.3680
816.4062,-16.7284,12.6985,-8.4679,-8.9128,-23.5754,20.5666,-5.2034,-21.3282,-18.5992,0.8742,-2.5104,7.4280,-26.7162,-17.8523,4.8014,4.9681,-36.0369,-5.5795,-7.7235
820.3125,-30.9808,4.5019,-9.9519,-7.1755,-24.7921,7.6257,-5.1154,-21.5505,-26.3797,-9.1287,-10.7983,7.3196,-25.9979,-16.1282,-0.3811,4.1514,-34.2768,-8.0060,-6.3943
824.2188,-29.0684,-2.2982,-11.2459,-4.9622,-22.4028,-2.9152,-7.1994,-21.8372,-29.8117,-10.9258,-16.3228,8.3997,-21.7714,-11.6514,-2.9230,5.9105,-28.5572,-7.7519,-4.1253
828.1250,-16.3954,-6.1393,-12.9533,-2.4462,-17.4226,-8.1609,-10.4445,-21.1923,-28.8811,-5.8859,-18.4022,10.3490,-15.4957,-5.6470,-3.7762,9.3345,-20.8596,-5.2769,-2.3272
832.0312,-3.6039,-6.3169,-14.2599,0.7522,-11.9662,-7.3663,-12.5918,-18.0697,-24.9492,1.3353,-17.3615,12.5437,-9.3554,0.6774,-4.4198,12.6871,-13.4737,-1.4758,-1.3820
835.9375,1.2945,-2.9882,-13.7715,4.7824,-7.8241,-1.9052,-12.3288,-11.9542,-19.7953,6.3603,-14.5366,14.2218,-5.1007,6.5150,-5.6355,14.4661,-7.8144,2.5582,-0.9721
839.8438,-2.0802,2.9048,-11.0821,8.8178,-5.5987,5.5955,-10.6646,-4.5509,-14.8045,7.8102,-11.9309,14.7500,-3.2479,11.3576,-7.1990,14.2905,-3.9159,5.7634,-0.9654
843.7500,-7.5469,9.8234,-7.6243,11.1467,-4.9325,12.4951,-10.1838,0.6127,-10.6158,7.5380,-11.3278,13.8847,-3.1436,14.7223,-8.4167,13.0073,-0.9170,7.4317,-1.9396
847.6562,-7.9304,16.0276,-5.9105,10.2463,-5.3179,17.1621,-12.7266,0.2545,-7.1790,8.6833,-13.1565,11.9176,-3.6977,16.1508,-8.7691,11.9781,1.9146,7.5547,-4.7794
851.5625,-0.4487,20.1382,-7.6414,6.1063,-6.5405,19.3328,-17.4900,-6.2397,-4.0165,13.2612,-15.8952,9.6339,-4.1179,15.5916,-8.0624,12.0891,4.4709,6.9341,-9.6478
855.4688,11.9793,21.6010,-12.1910,0.7182,-8.3440,19.7162,-21.2871,-15.8753,-0.5667,20.9449,-16.7169,8.0457,-4.1043,13.7901,-6.1776,13.1746,5.9584,6.8330,-15.2587
859.3750,23.7447,20.7400,-16.7758,-2.8315,-9.8362,19.1744,-20.9075,-23.5209,3.4187,29.5059,-13.2805,7.9435,-3.5387,12.1618,-2.9803,14.1991,5.7270,8.2403,-19.2278
863.2812,30.7794,18.3321,-18.3135,-2.1791,-9.5408,18.0377,-15.6941,-24.9760,7.5219,36.1664,-5.5991,9.4229,-2.1696,12.0101,1.2794,13.9828,4.0136,11.1736,-19.4305
867.1875,32.5098,14.9998,-15.6082,2.8271,-6.3905,16.0063,-8.1872,-19.5499,10.5885,38.7966,3.4077,11.6498,0.2695,13.5732,5.4331,11.9295,1.9322,14.5232,-15.4389
871.0938,30.5502,10.8889,-10.2002,10.0379,-0.9178,12.6690,-2.2523,-10.3287,11.1634,36.4519,9.3264,13.1015,3.5904,15.6834,7.4839,8.3127,0.7058,16.6262,-8.9488
875.0000,26.1262,5.8832,-5.2364,16.3908,4.5624,8.2057,-0.2072,-1.9625,8.3534,29.4531,8.8904,12.2922,6.8677,16.4618,5.6786,4.0501,0.7937,16.2476,-2.8128
878.9062,19.0464,0.1568,-3.2413,19.7762,7.2898,3.6681,-1.2983,2.3829,2.6322,19.3807,2.1147,8.6561,8.8050,14.6681,-0.0213,0.2280,1.6529,13.3277,0.6777
882.8125,9.1706,-5.4552,-4.4801,20.0687,6.0906,0.5202,-2.7294,2.7043,-4.0417,8.9617,-7.5863,3.0431,8.6213,10.7235,-7.2715,-2.3088,2.3175,8.9926,1.0594
886.7188,-1.3503,-9.6741,-7.0792,18.6834,2.4674,-0.3114,-2.2820,1.3806,-9.0616,1.4721,-15.4509,-2.5833,6.7616,6.5619,-12.3044,-3.1599,2.2690,4.8387,-0.3393
890.6250,-7.7625,-11.5099,-8.6640,17.1519,-0.3335,0.8169,-0.2434,0.7588,-10.5611,-0.5111,-18.2075,-6.1795,4.7414,4.3142,-12.1202,-2.4083,1.8360,2.0067,-1.6140
894.5312,-5.3570,-10.9749,-8.1364,15.9081,0.2474,2.3533,0.9998,1.1406,-8.4662,3.4966,-15.7738,-6.7902,4.1029,4.7562,-6.4291,-0.5749,1.8046,0.6725,-1.7044
898.4375,6.7041,-9.1962,-6.2290,14.2089,4.0207,2.5228,-0.7075,0.7660,-4.4598,11.3295,-10.7522,-5.0791,5.2489,6.7064,2.1255,1.5178,2.6385,0.2421,-0.9664
902.3438,23.5986,-7.7794,-4.5577,11.1428,8.1033,0.5424,-5.1220,-2.2940,-0.8362,19.0943,-6.2675,-2.8146,7.1316,7.8944,9.7088,3.0225,4.0632,0.0033,-0.5573
906.2500,36.9902,-7.8522,-4.1103,6.7891,9.2142,-2.8270,-9.5401,-7.9910,0.9706,23.2054,-3.8268,-1.6211,8.1410,6.6986,13.7417,3.4368,5.4155,-0.3028,-1.2221
910.1562,39.9521,-9.4674,-4.4730,2.5000,6.4616,-5.8702,-10.9419,-13.7554,1.1563,22.2554,-2.7046,-1.8507,7.5419,3.4530,14.2399,2.8698,6.4281,-0.3962,-2.4861
914.0625,31.2404,-11.7581,-4.3704,0.0261,2.3215,-7.2726,-8.5089,-16.1088,1.1101,17.4673,-1.0793,-2.3920,6.2735,0.2996,13.1254,1.9806,7.6644,0.1632,-2.8885
917.9688,15.8893,-13.6442,-2.9436,0.1651,0.8461,-7.2117,-4.3409,-13.2446,2.1789,11.4931,2.1957,-1.5682,6.3600,-0.3563,12.2408,1.5634,10.0933,1.5064,-1.0528
921.8750,1.8473,-14.4844,-0.6035,2.0206,4.3761,-7.2626,-1.7354,-6.5860,4.6226,6.5650,6.6603,1.5183,9.2910,2.3372,11.8278,2.0333,14.0815,3.2844,3.2406
925.7812,-4.7772,-14.1769,1.2887,3.4910,11.3564,-9.0432,-2.4829,-0.0875,7.5505,3.4226,10.7980,6.1953,14.6269,6.9445,10.7735,3.1892,18.6895,4.8901,8.7862
929.6875,-2.5620,-12.7422,1.6266,2.6651,17.1322,-12.5446,-5.4545,2.2717,9.8072,1.6984,13.4435,10.5825,19.9978,10.6519,8.3395,4.4399,21.9945,5.8449,13.6661
933.5938,5.7820,-9.9030,0.6137,-0.8776,17.3049,-15.4846,-7.6211,-0.9624,11.0024,1.1447,14.7582,12.8544,22.6151,11.1720,5.7092,5.3112,22.3278,6.0292,16.4147
937.5000,16.1691,-5.1813,-0.2315,-5.7772,11.1510,-14.4206,-6.5559,-7.8655,11.7856,2.3705,15.9412,12.4758,21.2081,8.2647,5.7436,5.8070,19.4880,5.6226,16.8280
941.4062,25.5658,1.4533,0.8557,-9.7765,2.4334,-7.1031,-2.2557,-14.4564,13.1205,6.2513,17.9666,10.5056,16.9172,3.8024,10.8384,6.3142,14.9320,4.8811,15.9270
945.3125,32.4636,8.9334,4.5768,-11.1238,-3.1396,5.4698,3.1919,-17.1755,15.1851,12.4774,20.4824,8.7740,12.4519,0.3869,20.5145,7.1389,10.7445,3.9840,15.1899
949.2188,35.8699,15.1388,10.0170,-9.5522,-1.9862,18.8531,7.6231,-14.8466,16.8833,18.6666,21.8620,8.5799,10.1492,-0.4445,30.8481,8.1044,8.1946,3.0569,15.6182
953.1250,34.5934,17.8678,15.2171,-6.2730,4.7608,27.2531,10.5675,-9.0036,16.4935,21.1941,20.4358,9.8872,10.3966,0.8515,36.5583,8.6111,7.0384,2.2827,17.2097
957.0312,27.9959,16.2195,18.3887,-3.1263,12.0619,26.8314,13.1801,-2.6556,13.0524,17.5063,15.9433,11.5706,11.5630,2.3320,34.4659,8.1529,6.0830,1.9281,19.0696
960.9375,17.5713,11.4250,18.8849,-1.5263,14.5365,18.2016,16.5198,1.4989,7.4184,8.3079,10.0463,12.4329,11.3771,2.0364,25.8077,6.8479,4.4302,2.2258,19.9820
964.8438,7.4919,6.4259,17.3395,-1.8371,10.1302,6.4655,19.9499,2.3020,2.1104,-2.1781,5.4656,12.1392,8.5993,-0.6926,15.5883,5.4740,2.2349,3.2184,19.0623
968.7500,2.8755,4.3173,15.0491,-3.4203,1.2561,-1.4025,21.3539,0.3006,-0.1136,-8.4040,4.3401,11.3453,3.7064,-4.9190,9.3011,4.8992,0.2750,4.7164,16.1672
972.6562,6.5315,6.5847,13.1563,-5.1648,-7.2306,-0.3706,19.1341,-2.9385,1.9652,-6.8540,6.9519,10.9896,-1.7980,-8.9119,9.3330,5.3515,-1.2326,6.4042,11.9264
976.5625,16.5622,12.2594,12.1563,-6.1174,-11.5219,9.8509,14.1648,-5.7948,7.0993,1.6912,11.6409,11.4099,-6.6972,-11.3251,13.6219,6.1803,-3.3447,7.9679,7.4373
980.4688,26.9230,18.5450,11.8697,-5.9069,-11.1900,24.6488,9.6934,-7.3557,12.1615,12.5759,15.8589,12.0589,-10.8247,-11.8895,17.4721,6.4007,-7.7361,9.1064,3.7730
984.3750,30.9364,22.5121,11.6893,-4.8391,-8.8446,37.0371,8.9142,-7.7406,13.9079,20.1307,17.5870,12.0628,-14.6949,-11.2397,17.1152,5.6436,-15.0164,9.4460,1.5054
988.2812,25.4751,22.7800,10.8759,-3.6824,-7.7225,41.3759,12.1215,-7.9402,10.8242,21.0728,16.2464,11.1387,-18.4802,-10.1837,12.3901,4.7112,-23.4569,8.5515,0.4670
992.1875,12.9183,20.1561,8.8439,-3.2385,-9.2641,36.1722,15.9900,-9.2104,3.9522,16.2413,12.7178,10.0665,-21.3918,-9.0719,6.6757,5.1779,-29.4717,6.1973,-0.1005
996.0938,-0.4398,16.9135,5.4721,-3.8621,-12.4602,24.5065,15.9193,-12.2148,-3.7359,9.6841,8.6853,10.2658,-22.1280,-7.7180,4.2893,8.2240,-29.8531,2.7965,-1.0403
1000.0000,-8.3252,15.2607,1.3507,-5.1660,-15.1588,12.0631,9.7595,-16.3340,-8.9710,5.9057,5.7961,12.7584,-20.0458,-5.8062,7.3574,13.5689,-24.2020,-0.3892,-2.6899
1003.9062,-8.0285,16.0088,-2.2881,-6.1293,-15.9816,4.0633,-0.1398,-19.6619,-9.8639,7.1818,5.0118,17.3070,-15.9946,-3.3374,14.3829,19.3834,-15.5868,-1.6269,-4.5924
1007.8125,-1.3625,18.2261,-4.1401,-5.6427,-15.2308,2.8465,-8.4421,-19.9347,-6.7447,12.5706,6.2735,22.3966,-11.9733,-0.7060,21.3412,23.3525,-8.6766,0.3488,-5.7596
1011.7188,7.1513,19.9900,-3.7059,-3.2244,-14.2245,7.2697,-10.9013,-16.0181,-1.8253,18.9664,8.4801,26.0814,-9.7721,1.6305,24.3049,24.1547,-6.5715,5.3748,-5.3739
1015.6250,13.2069,19.6691,-1.8891,0.5569,-13.8818,13.9417,-7.7797,-9.0225,2.0249,23.2307,9.8171,27.0763,-9.6735,3.5600,21.6879,22.2622,-8.6991,11.6099,-3.4711
1019.5312,14.7402,16.9154,-0.7397,4.2986,-13.9028,19.3132,-3.7498,-2.1351,2.7152,23.9557,8.4608,25.3359,-10.3064,5.4213,14.7419,19.4600,-11.4389,16.3548,-1.0972
1023.4375,12.1640,12.8077,-2.3029,6.5560,-13.2119,21.3581,-4.2006,0.9867,-0.1196,21.9136,3.4849,21.8073,-9.8238,7.6982,6.3302,17.4655,-11.0515,17.5489,0.2334
1027.3438,7.3586,9.1461,-7.2519,6.7092,-11.1423,20.0567,-10.8345,-1.6115,-5.0730,19.2023,-4.4754,17.6798,-7.4674,10.5446,-0.8788,16.7262,-6.6502,14.9830,-0.5540
1031.2500,2.5424,7.3809,-14.2842,5.3026,-8.2085,16.7320,-20.1196,-8.8614,-9.7973,17.8302,-13.2971,13.7567,-4.2355,13.5240,-5.5643,16.3065,-0.8775,10.3661,-3.4411
1035.1562,-0.3488,7.8180,-20.8077,3.6082,-5.7508,12.9341,-25.9296,-17.1700,-12.2703,18.6134,-20.3127,10.3472,-2.0974,15.7726,-7.7818,14.8847,2.2475,6.1517,-7.3834
1039.0625,0.0346,9.5191,-24.5130,2.7339,-4.7934,9.6594,-24.3253,-22.4952,-11.8365,20.8997,-23.6660,7.5599,-2.3976,16.4722,-8.2761,11.9895,0.5816,3.9271,-11.0414
1042.9688,4.0375,10.8972,-24.7355,2.9402,-5.1642,7.2655,-16.6684,-22.6460,-9.4567,23.1084,-23.2501,5.5572,-4.7710,15.2995,-7.7987,8.4350,-4.4125,3.5083,-13.6349
1046.8750,10.5248,10.6267,-22.6327,3.6615,-5.6714,5.8629,-8.5757,-18.2886,-7.0198,23.6987,-20.6017,4.4601,-7.4579,12.5675,-6.8446,5.6095,-8.8458,3.3709,-15.3039
1050.7812,16.9539,8.3449,-20.0971,4.1610,-5.1726,5.6547,-5.5565,-12.0745,-6.1177,22.0308,-17.8215,4.0267,-8.7381,9.0144,-5.7270,4.2510,-9.5147,2.0465,-16.7476
1054.6875,20.4531,4.7744,-18.2896,4.2436,-3.5725,6.8441,-8.8250,-6.6551,-7.0397,18.6797,-16.2762,3.5256,-8.2699,5.4380,-4.6987,3.7790,-6.3955,-0.6134,-18.4742
1058.5938,19.5036,1.2345,-16.9454,4.4177,-1.8575,9.1816,-14.5878,-3.0899,-8.6434,15.0373,-15.9757,2.0901,-7.2137,2.4281,-3.9772,2.7848,-2.4969,-3.2819,-20.2766
1062.5000,15.0462,-1.1439,-14.9417,5.3782,-1.1399,11.6096,-17.2674,-0.7364,-9.1967,12.4303,-15.9841,-0.6249,-7.0656,0.3148,-3.7382,0.2885,-1.2368,-4.2111,-21.3362
1066.4062,10.0080,-2.0312,-11.5674,7.2738,-1.5669,12.4741,-13.9693,1.5169,-7.6277,11.3054,-15.4308,-4.0330,-8.2231,-0.7407,-4.1556,-3.3071,-3.5597,-2.6437,-20.8421
1070.3125,7.4057,-1.9897,-7.3714,9.4238,-2.0793,10.3624,-6.6008,3.8626,-4.3082,11.0528,-14.2635,-6.8907,-9.5354,-0.6717,-5.3906,-6.4158,-7.2003,0.5448,-18.6026
1074.2188,8.4036,-2.0219,-3.8456,10.7798,-1.2597,5.1087,-0.0627,5.2620,-0.8038,10.6480,-13.1574,-8.1551,-9.2405,0.4563,-7.3757,-7.5163,-8.6848,3.4818,-15.1626
1078.1250,11.8538,-2.8909,-2.2161,10.7835,1.4439,-1.7445,1.8442,4.4719,1.2426,9.6715,-12.7279,-7.7913,-6.4974,2.3477,-9.4520,-6.4441,-6.3367,4.6993,-11.3666
1082.0312,15.6677,-4.6555,-2.3893,9.8902,5.1758,-7.4812,-0.6133,1.4902,1.2870,8.8853,-12.7769,-6.8526,-2.1923,4.4539,-10.2406,-4.6348,-1.7020,4.1831,-7.7689
1085.9375,18.7897,-6.7071,-2.9889,9.2653,8.2903,-9.5734,-3.6083,-1.9055,0.2575,9.7673,-12.2588,-6.6985,1.6945,6.1152,-8.1515,-4.0614,1.8485,3.2407,-4.3936
1089.8438,21.9638,-8.2445,-2.4905,9.8274,9.6182,-7.1156,-3.1549,-3.1479,-0.1580,13.1929,-10.0353,-7.9236,3.6461,6.8197,-2.4773,-5.6790,2.1506,3.3102,-1.0293
1093.7500,26.5090,-8.8266,-0.5091,11.3794,9.3139,-1.4490,1.5109,-0.7562,1.2204,18.2367,-5.8190,-9.8539,3.7714,6.4210,5.6273,-8.6316,0.2676,4.6827,2.2380
1097.6562,32.1711,-8.6029,1.8643,12.5555,8.5781,4.4618,7.3434,4.3376,4.1910,22.1853,-0.5334,-11.0521,3.5692,5.1617,13.2007,-10.8860,-0.3537,6.1833,4.7659
1101.5625,36.1647,-8.0663,3.0021,11.6978,8.5121,7.5864,10.0685,9.1183,7.3500,22.0637,4.2217,-10.4595,4.4844,3.4809,16.9212,-10.8120,2.9877,6.0943,5.6626
1105.4688,34.7318,-7.5320,2.1969,8.0458,9.1055,6.4362,7.7082,10.3526,9.1913,16.7928,7.2109,-8.2534,6.5037,1.7379,15.2309,-8.4493,9.4575,3.6108,4.4740
1109.3750,26.3961,-6.7558,0.4133,2.3575,9.2447,1.8080,2.1533,6.6989,9.2974,8.4215,8.3438,-5.6891,8.0520,0.0500,9.6854,-5.4351,14.7451,-0.3154,1.7207
1113.2812,14.3398,-5.0102,-0.3355,-3.5048,7.7563,-3.7160,-2.3949,-0.4350,8.7164,1.3410,8.6543,-4.0105,7.3659,-1.6387,4.3743,-3.6404,14.2138,-3.4361,-1.1652
1117.1875,5.5731,-1.6008,1.4741,-7.7149,4.6076,-7.1569,-2.7069,-7.8574,9.2220,-0.2381,9.5535,-3.3061,4.2382,-3.3162,3.5387,-3.6081,6.7699,-3.6775,-2.5193
1121.0938,6.8355,3.5271,5.6506,-9.5151,1.2238,-6.5920,1.1785,-12.6239,11.9807,5.0462,11.9293,-2.2917,0.6208,-4.6909,8.8807,-4.0617,-3.7013,-0.5701,-1.3057
1125.0000,19.8149,9.5313,10.3684,-9.4294,-0.4098,-1.9080,6.3835,-13.6489,16.5805,14.7109,15.6884,0.7104,-0.5628,-5.2161,18.4289,-2.9023,-10.7009,4.3744,2.3909
1128.9062,39.1605,14.9776,13.4979,-8.5988,0.8056,5.4079,9.7685,-11.8369,21.1143,23.8298,19.9302,6.3040,2.4105,-4.3919,27.8082,1.0781,-9.6726,8.5829,7.5116
1132.8125,55.0436,18.5371,14.1237,-7.8368,4.2025,13.1249,10.3911,-8.8688,23.2631,27.9132,23.4864,13.2359,8.5801,-2.1695,33.0516,7.1130,-1.3331,9.9711,12.6332
1136.7188,58.8415,19.6362,13.0532,-7.1521,7.7190,19.1840,9.8605,-5.7901,21.6443,25.3513,25.4114,18.9964,14.7246,0.8352,32.9648,12.8591,8.7762,8.0809,16.6081
1140.6250,48.2396,18.6551,11.9604,-6.0480,9.2299,22.2268,10.4858,-2.5917,16.5574,17.8930,25.2041,21.4380,17.4545,3.5283,29.4056,15.9618,14.1972,4.1290,18.8789
1144.5312,28.3870,16.5786,11.9134,-4.2582,7.8429,21.6834,12.9567,0.9686,9.7139,9.0745,22.8301,20.2222,15.4422,4.8673,25.4196,15.5808,11.9684,0.0747,19.4187
1148.4375,8.4736,14.3693,12.5140,-2.2481,4.2531,17.6753,15.5669,4.1767,3.2228,1.9059,18.7122,16.9860,10.1348,4.4223,22.7756,12.7458,4.2744,-2.5764,18.4999
1152.3438,-3.8097,12.4941,12.3353,-1.0374,0.0257,11.0034,15.5857,5.0647,-1.4782,-2.5477,13.7175,14.0809,4.4687,2.5910,20.8258,9.3704,-3.7264,-3.4776,16.5172
1156.2500,-6.2337,10.8886,10.2546,-1.4737,-3.5302,3.2316,11.5659,1.5527,-4.1313,-4.9454,8.9967,12.8402,0.6255,0.2988,17.5016,6.8001,-7.9962,-3.3433,13.9228
1160.1562,-2.1323,9.3077,6.5437,-3.5381,-6.0369,-3.3961,4.6683,-6.6796,-5.4509,-6.3758,5.5676,12.7027,-1.4355,-1.6307,11.5303,5.0690,-8.3823,-3.2916,11.1746
1164.0625,2.8098,7.7283,2.7889,-6.2398,-7.9044,-6.4875,-2.0169,-17.0995,-6.4903,-7.2439,3.7818,11.8577,-3.6031,-3.0027,3.9982,3.3724,-8.0466,-4.1281,8.6007
1167.9688,4.4350,6.4619,0.6826,-8.2036,-9.6992,-4.4714,-5.5242,-25.1364,-8.0442,-7.1949,3.0461,8.8917,-7.7982,-4.2945,-2.0642,1.2219,-10.3131,-5.9635,6.2323
1171.8750,2.0492,5.8923,0.6528,-8.5400,-11.6722,2.4358,-4.8133,-26.6911,-10.3736,-5.8904,2.1098,4.1262,-14.2132,-6.1796,-3.7966,-0.7993,-15.6944,-8.2549,3.7643
1175.7812,-2.3282,6.0835,1.4355,-7.3933,-13.7974,11.9159,-1.0711,-20.7733,-13.2516,-3.7116,-0.1350,-0.4179,-20.9897,-8.8783,-0.6744,-1.3771,-21.5308,-10.1250,0.7556
1179.6875,-6.1160,6.6383,0.9532,-5.8134,-16.1153,20.3127,3.4303,-10.4078,-16.1407,-1.6229,-3.8166,-2.4169,-25.5329,-11.8262,4.9807,0.3810,-24.3951,-10.7576,-3.0118
1183.5938,-7.7852,7.0060,-2.1529,-5.0659,-18.8736,24.2864,6.8044,-1.0191,-18.3461,-0.2837,-7.7999,-0.9177,-26.3741,-13.9192,9.5655,3.9964,-23.1079,-9.7182,-7.2534
1187.5000,-6.9783,7.0518,-7.4703,-5.8487,-22.2082,22.5431,8.2387,2.7627,-19.1337,0.7452,-10.2243,3.0101,-24.1231,-14.1651,10.6567,7.7522,-19.7720,-7.1080,-11.1980
1191.4062,-3.7127,7.4152,-12.9946,-7.8914,-25.6366,16.6184,7.6811,-0.2263,-17.9026,2.8789,-9.5856,7.1348,-20.8358,-12.2648,8.5287,9.8864,-17.9699,-3.4934,-13.9138
1195.3125,2.0671,9.2496,-16.3760,-10.1371,-27.9413,10.1283,5.1902,-7.3262,-14.4533,7.4263,-5.7027,9.7336,-18.3926,-8.7133,5.6470,9.9088,-19.6762,0.3789,-14.7451
1199.2188,9.9686,13.3638,-16.3415,-11.3494,-27.7698,6.7896,0.7323,-14.2043,-9.2563,14.3640,0.0273,10.7483,-17.2137,-4.3984,4.6105,8.9518,-23.5062,3.9429,-13.6053
1203.1250,18.2879,19.2943,-13.3685,-10.7770,-24.6423,8.3107,-5.4311,-17.9314,-3.5176,21.9702,5.2399,11.5293,-16.2806,-0.0636,6.1531,8.8173,-25.7951,7.0180,-10.9950
1207.0312,24.0214,25.0332,-9.2873,-8.5231,-19.5975,13.4202,-12.3081,-18.7564,1.1126,27.6831,7.7132,13.4134,-14.3339,3.9190,8.6795,10.4510,-23.6354,9.6866,-7.8094
1210.9375,24.3035,27.8012,-6.2086,-5.4453,-14.8481,18.6558,-18.3107,-19.3257,3.1523,29.5938,6.3716,16.3270,-11.1821,7.3395,9.5834,13.0736,-17.3707,11.9147,-5.0756
1214.8438,18.4546,25.5609,-5.5002,-2.6559,-12.5245,20.4485,-22.0000,-22.0154,1.9675,27.5122,1.6956,18.5932,-8.0225,9.7960,7.2544,14.7122,-10.4836,13.2431,-3.7112
1218.7500,9.0038,18.3698,-7.3330,-0.8894,-13.3137,17.2024,-22.8611,-26.4906,-1.8443,22.9003,-4.5853,18.1577,-6.5213,10.6522,2.2409,13.7619,-6.9392,12.9016,-4.2945
1222.6562,0.5998,8.6419,-10.8602,-0.0897,-15.9637,10.0797,-21.4649,-29.4879,-6.6224,17.8404,-10.2973,14.2970,-7.4183,9.4793,-3.2309,10.3643,-8.1101,10.3924,-6.8369
1226.5625,-2.7062,0.0175,-14.7586,0.5186,-18.0572,2.0668,-18.9294,-27.1561,-10.3498,13.8720,-13.7328,8.4453,-9.7958,6.6637,-6.9060,6.4844,-11.7390,6.1566,-10.6503
1230.4688,0.0292,-4.5508,-17.8158,1.8636,-17.5624,-3.9463,-16.2143,-18.3089,-11.5789,11.4955,-14.2878,3.4227,-11.6105,3.5820,-8.0168,4.5638,-13.7488,1.7338,-14.4808
1234.3750,6.1629,-4.3283,-19.3761,4.2740,-14.1146,-6.7242,-13.8730,-6.1052,-10.1019,10.5062,-12.5899,1.5743,-11.0960,1.9947,-7.5643,5.7337,-11.4459,-0.8982,-16.9897
1238.2812,11.3996,-0.9909,-19.5621,7.0436,-9.1771,-6.8861,-12.3600,3.3161,-6.9989,10.6554,-10.0908,3.1760,-7.9832,2.9297,-7.2639,8.9397,-5.5952,-0.5032,-17.4067
1242.1875,12.7449,2.5988,-19.1979,8.6922,-5.0229,-5.8172,-12.3843,4.5548,-4.0272,11.9755,-8.3252,6.2843,-3.6541,5.8435,-8.0545,11.6499,0.2142,2.5077,-15.9646
1246.0938,10.3423,4.1715,-19.3835,7.8797,-3.2703,-4.3321,-14.7121,-3.4389,-2.6900,14.5207,-8.2103,8.1257,-0.1594,8.7789,-9.3379,11.6285,2.3415,6.1723,-13.7646
1250.0000,6.9396,3.1996,-20.8231,4.4372,-3.9501,-2.2451,-19.3843,-16.3698,-3.5024,17.8490,-9.7526,6.9906,1.1441,9.5615,-9.4986,8.4566,-0.1907,8.1431,-12.0726
1253.9062,5.5385,0.7427,-23.2372,-0.2077,-5.6358,0.8346,-25.0027,-26.9855,-5.8422,20.8105,-12.2890,3.2574,0.3733,7.2729,-7.2753,3.6988,-5.0914,7.1971,-11.4716
1257.8125,7.1188,-1.7093,-25.2663,-3.6207,-6.4249,4.2844,-28.8801,-29.3133,-8.3978,21.9439,-15.0252,-1.1236,-1.1548,2.9479,-2.9275,-0.3541,-8.6425,4.0459,-11.4575
1261.7188,10.1706,-3.3967,-25.0571,-3.7106,-5.0499,6.1058,-28.2495,-21.9916,-9.8677,20.2783,-17.4215,-4.1876,-1.9307,-1.0543,1.6996,-2.3673,-8.4409,0.8543,-10.7938
1265.6250,12.2891,-4.5622,-21.2733,-0.0146,-1.4459,4.0601,-21.8551,-8.6588,-9.4610,16.0141,-19.1078,-5.3157,-1.2106,-2.5954,4.3159,-2.7960,-4.9255,-0.2040,-8.3995
1269.5312,12.4563,-5.7342,-13.9375,5.9360,3.4291,-2.3524,-10.8611,4.5782,-6.9751,10.6391,-19.4632,-5.4018,0.7098,-1.1238,3.7782,-3.2836,-0.6573,1.6666,-4.1485
1273.4375,12.1229,-6.7662,-4.5604,11.4478,8.2280,-10.6524,1.5485,12.6736,-2.5775,6.4048,-17.3838,-5.8165,2.9632,2.1073,1.0414,-5.1544,1.8797,5.5161,0.9865
1277.3438,14.1844,-6.5767,4.5336,14.1721,11.8329,-16.1731,11.6028,13.8632,3.3755,5.4288,-11.7217,-7.0919,4.8397,5.0716,-1.2283,-8.2030,2.1240,9.4802,5.5238
1281.2500,20.6147,-3.9211,11.2576,13.3081,13.6632,-14.7510,16.5047,9.5110,10.2763,8.8121,-2.3157,-8.4175,6.1980,6.4174,-0.2176,-10.7265,1.5361,12.0965,8.3394
1285.1562,30.5892,1.3886,14.5530,9.7670,13.6798,-5.6366,15.3177,2.3227,17.0785,16.0829,9.1306,-8.3279,7.3218,6.2270,5.2327,-10.7767,2.0465,13.0873,9.1852
1289.0625,40.5713,7.8683,14.5396,5.3031,12.2549,7.4832,8.9996,-5.3805,22.3306,25.1542,19.2330,-5.9888,8.4550,5.5806,13.7288,-7.6814,4.2527,13.0884,8.5593
1292.9688,46.3657,12.9900,12.1199,1.3218,10.0243,18.3235,-0.0686,-12.1511,24.6598,32.8796,24.4578,-2.0097,9.4728,5.3946,21.9483,-2.6862,6.8677,12.6880,7.1537
1296.8750,45.6871,14.7129,8.4451,-1.7953,7.7111,21.6888,-8.7097,-16.8630,23.5320,36.1483,23.2249,1.8906,9.9764,5.5622,26.4805,1.7688,7.8357,11.6854,5.4049
1300.7812,39.4495,12.8126,4.5795,-4.4962,5.8754,16.6127,-13.7387,-18.2763,19.7552,33.2048,17.1463,4.1155,9.7141,5.1151,25.7977,3.6260,6.1657,9.2438,3.4939
1304.6875,30.9615,8.9955,1.3884,-7.3377,4.6532,6.8330,-13.0581,-15.5978,15.2424,24.6123,10.3356,4.3561,8.9445,3.2222,21.1484,2.5298,2.9720,4.8141,1.6839
1308.5938,23.7392,5.6987,-0.5421,-10.4174,3.6613,-1.7060,-6.8363,-9.7033,12.0362,13.2565,7.0228,3.7878,8.3985,0.1043,15.8070,-0.0061,0.8487,-0.9855,0.5539
1312.5000,19.5591,4.4912,-1.0639,-13.3775,2.2178,-4.5877,2.0180,-3.6934,11.1850,3.1833,8.9978,4.1592,8.8130,-2.9871,13.1380,-1.6440,1.9983,-6.3478,0.8019
1316.4062,18.0390,5.2884,-0.5548,-15.8268,-0.1803,-1.3575,8.8977,-1.7013,12.2564,-2.2584,14.6717,6.4941,10.3620,-4.7600,14.6905,-0.7178,6.4826,-9.2305,2.7340
1320.3125,17.7734,6.9201,0.3160,-17.6554,-3.4033,4.8566,9.9892,-6.2824,13.8605,-1.9779,20.4461,10.4015,12.4202,-4.9993,19.5047,2.8280,11.8910,-8.5944,5.9224
1324.2188,17.8893,8.4851,1.1601,-18.8811,-6.5871,10.0056,4.8716,-16.1527,14.8040,2.5073,23.3868,14.4862,13.8846,-4.7951,24.9935,7.6008,14.7199,-4.9807,9.4307
1328.1250,18.6873,10.2903,2.3888,-19.1922,-8.5062,11.9823,-2.6941,-26.2071,14.9864,8.1338,23.1991,17.4856,13.8823,-5.5930,28.7059,11.7905,12.5726,-0.0063,12.5105
1332.0312,20.9132,13.5393,5.1381,-17.7403,-8.2260,11.6625,-6.8025,-30.2879,15.3257,12.0736,22.0297,19.2044,12.3919,-7.8021,29.7223,14.2922,5.7442,4.7834,15.1956
1335.9375,24.3966,19.0100,10.4165,-13.5871,-5.6401,11.6178,-3.3004,-25.1014,16.7584,13.0977,22.3158,20.5126,10.3178,-10.1667,28.7707,15.1891,-2.8376,8.7750,18.2118
1339.8438,27.3550,25.8647,17.9673,-6.6124,-1.5724,13.7479,7.0509,-12.5979,19.1259,11.7436,24.4591,22.4280,8.8997,-10.5611,27.1461,15.3825,-9.2950,12.2107,22.1618
1343.7500,27.1360,31.6987,25.7625,1.8454,2.5930,17.7399,18.5878,0.9920,20.9019,9.3856,26.2550,25.0347,8.7934,-7.7103,25.3996,15.7499,-11.0885,15.3454,26.6041
1347.6562,21.9879,33.9563,30.7550,9.2884,5.5012,21.4273,24.2767,8.9784,20.0833,7.0529,24.6028,27.1249,9.4326,-2.5006,22.8899,16.4696,-8.5410,17.6665,29.8527
1351.5625,12.5562,31.7093,30.6152,13.3041,6.2951,22.5652,20.4943,8.3384,15.6382,4.8993,18.1576,26.8981,9.1557,2.2492,18.5414,16.9506,-4.6903,17.9489,29.8302
1355.4688,1.9014,26.4221,25.3166,12.9665,4.7644,20.5186,9.6504,1.3359,8.4136,2.5925,8.7675,23.2494,6.1183,3.5450,12.1431,16.3462,-3.5374,15.1958,25.4594
1359.3750,-6.1180,21.0551,17.3575,9.3692,1.2113,16.6107,-1.3683,-6.4132,0.7699,0.1172,0.4656,16.7244,-0.5184,0.2783,5.0501,14.2449,-7.6874,9.7094,17.5634
1363.2812,-9.0626,18.1206,10.2891,4.8367,-3.7836,13.0552,-5.9552,-9.9621,-4.8394,-1.8109,-3.2759,9.4452,-9.8670,-5.9336,-0.3948,11.0595,-16.7377,3.3449,8.5244
1367.1875,-7.2456,18.1035,6.4738,1.3417,-9.5348,11.4665,-2.3490,-8.2586,-7.3306,-2.1331,-1.9234,4.0277,-19.5611,-11.7828,-2.3657,7.8708,-27.3641,-1.4030,0.8651
1371.0938,-3.3275,19.3693,5.6470,-0.7106,-15.3289,12.0757,5.3147,-4.3817,-7.4646,-0.3283,1.9255,2.1901,-26.8776,-14.4430,-0.8538,5.8455,-35.0874,-2.9116,-4.2386
1375.0000,-0.5357,19.5381,5.3438,-2.4295,-20.4689,14.0042,10.2249,-2.8359,-7.0736,2.9554,4.6115,3.9227,-30.0786,-13.2970,2.2530,5.5926,-36.7120,-1.4542,-7.4178
1378.9062,-0.7626,17.2273,2.8969,-5.1833,-24.3465,16.0535,7.9783,-6.0358,-7.7064,6.0748,4.0474,7.6746,-29.1673,-10.0055,4.4024,6.8420,-32.0112,1.0269,-10.2247
1382.8125,-3.7493,12.8750,-2.4723,-9.1559,-26.5392,17.2399,-0.2504,-12.5639,-9.7171,7.3035,0.8542,11.3437,-25.6334,-6.9743,4.0038,8.6218,-23.6696,2.2568,-13.6247
1386.7188,-7.6773,8.1684,-9.0306,-12.8883,-26.8781,16.8326,-8.7599,-18.3448,-12.3629,5.8696,-2.7433,13.4026,-21.4213,-5.4653,1.2603,9.8268,-15.5665,1.1243,-17.0822
1390.6250,-10.4994,4.7024,-13.8310,-14.2157,-25.4602,14.3093,-11.7230,-19.7132,-14.6233,2.4541,-5.1308,13.5121,-17.8413,-4.7925,-2.3271,9.8478,-10.5243,-1.6906,-18.9768
1394.5312,-10.9876,3.0042,-14.9227,-11.9003,-22.6237,9.7101,-7.5945,-16.0689,-15.9324,-1.1038,-6.6410,12.3884,-15.1109,-3.1290,-5.2633,8.8992,-8.9615,-4.3204,-18.0180
1398.4375,-8.9304,2.6157,-12.7751,-6.6896,-18.9142,4.2611,-0.2622,-10.2531,-16.2350,-2.6470,-8.8913,11.1587,-12.7132,0.8153,-7.0753,7.8452,-9.2356,-5.0148,-14.5056
1402.3438,-4.7038,2.9663,-9.8390,-0.9421,-15.0234,0.4947,3.8317,-6.5022,-15.4836,-0.6160,-12.8175,10.6752,-10.1589,6.6137,-8.2860,7.6178,-9.2739,-3.1764,-10.3818
1406.2500,1.1282,4.1296,-8.6120,2.9445,-11.6375,1.1915,0.4068,-7.5170,-13.2375,5.3160,-17.2870,11.1564,-7.4962,12.3414,-9.5258,8.5743,-8.2061,0.5310,-7.9633
1410.1562,7.7711,6.7488,-9.7143,4.1440,-9.1834,7.4319,-9.5346,-12.6615,-8.9062,14.0179,-19.6878,12.2468,-5.1919,15.9556,-10.6892,10.2051,-6.7845,4.9099,-8.2953
1414.0625,13.9305,11.2192,-11.4474,3.8592,-7.5884,17.1030,-20.3119,-18.3913,-2.5151,23.1138,-18.1239,13.3349,-3.5675,16.7165,-10.9470,11.4064,-6.3678,9.1072,-10.3881
1417.9688,17.8970,16.9052,-11.1473,4.3011,-6.2602,25.3243,-25.3054,-20.4831,4.7211,29.6689,-13.3348,13.8889,-2.3594,15.5669,-9.6116,11.1763,-7.3939,12.9545,-11.9417
1421.8750,18.2981,22.1460,-7.2809,6.9692,-4.4174,27.0588,-21.1438,-16.5707,10.6900,31.3034,-8.5390,13.6440,-0.8597,14.2643,-7.0464,9.2905,-8.6862,16.6126,-11.0341
1425.7812,15.1411,25.1151,-0.7132,11.5013,-1.6577,20.4422,-9.6097,-7.4950,13.5182,27.4001,-7.0946,12.6049,1.4217,14.0250,-4.7227,6.4928,-8.2608,19.9450,-7.5347
1429.6875,10.2871,24.8646,5.7500,15.8992,1.6017,8.4753,3.6773,3.1530,12.7698,19.7587,-9.7704,10.9262,4.1203,14.7428,-4.2464,4.0353,-5.0501,22.2271,-3.2313
1433.5938,6.7427,21.7397,9.1373,17.8965,4.1943,-2.4151,12.5854,10.8601,9.7689,12.0848,-13.9100,8.7676,6.0040,15.2985,-6.0855,2.8485,-0.1249,22.4656,-0.6296
1437.5000,7.0027,16.9057,8.0914,16.4272,4.8658,-6.2892,13.5764,12.3329,6.7348,8.2800,-15.3385,6.2078,5.7114,14.5843,-9.0503,2.9028,3.7110,20.0789,-1.3356
1441.4062,11.4881,11.4655,3.4584,12.1646,3.1571,-1.5304,6.9508,6.9246,5.3374,10.3339,-11.6407,3.2575,2.7546,12.3638,-11.0094,3.2191,3.8244,15.3901,-5.1540
1445.3125,18.1897,5.9316,-2.5340,6.8572,-0.1162,8.0712,-3.9652,-3.2113,5.7370,17.0914,-4.2391,-0.0462,-1.9738,9.3219,-10.3406,2.5456,-0.2129,9.5506,-10.4236
1449.2188,23.8411,0.4114,-7.7285,2.0791,-3.2199,15.8060,-14.7390,-14.1921,6.7769,24.7890,2.4396,-3.5353,-6.6242,6.3850,-7.0247,0.2402,-6.0543,3.9511,-15.1913
1453.1250,25.8593,-4.8237,-11.0487,-1.6385,-4.5552,16.3949,-21.6788,-22.1554,7.0832,29.1556,4.1493,-6.8881,-9.4910,3.9625,-2.5854,-3.2640,-10.0336,-0.4508,-18.3045
1457.0312,23.7519,-9.0500,-12.5231,-4.7295,-3.7199,9.1865,-22.9238,-24.8823,6.1438,27.7954,-0.0641,-9.7277,-10.0139,1.7485,1.0105,-6.7455,-9.6704,-3.4430,-19.7182
1460.9375,19.1009,-11.4408,-12.6104,-7.7826,-1.7963,-1.9133,-18.6882,-22.5429,4.5365,21.3374,-7.2046,-11.7935,-8.9620,-0.8103,2.6032,-9.0298,-5.3971,-5.3725,-20.0021
1464.8438,14.2785,-11.7470,-11.5530,-10.7434,-0.5823,-11.4721,-10.8370,-17.2224,3.2432,12.6764,-12.5771,-13.0594,-7.6907,-3.8434,2.3307,-9.7690,-0.2101,-6.6857,-19.6082
1468.7500,10.9149,-10.6276,-9.2732,-12.7849,-1.2559,-16.1235,-2.0018,-11.5257,2.7478,4.9585,-13.1552,-13.6976,-7.0610,-6.7706,1.1527,-9.6049,2.5206,-7.5666,-18.5099
1472.6562,9.1836,-9.2286,-5.7455,-12.9181,-3.4309,-16.1324,5.4967,-7.1003,2.7244,-0.2108,-9.4849,-13.8956,-6.8457,-8.6313,-0.0233,-9.6082,1.4664,-7.9015,-16.3972
1476.5625,8.2385,-8.3068,-1.3765,-10.8321,-5.3363,-14.0984,10.4904,-3.9863,2.5319,-3.1523,-4.7995,-13.6641,-6.0540,-8.7403,-0.8354,-10.4178,-1.7993,-7.5187,-13.1341
1480.4688,7.2486,-7.6655,2.9979,-7.3007,-5.0544,-12.2241,13.1135,-1.1646,1.9816,-5.0637,-2.2490,-12.8012,-3.8822,-7.1505,-1.2865,-11.7163,-4.0952,-6.4617,-9.0339
1484.3750,6.1398,-6.4497,6.4863,-3.8501,-1.9463,-10.5397,14.1601,2.1624,1.6128,-6.5886,-2.5404,-11.0704,-0.5147,-4.6065,-1.2725,-12.4177,-3.0665,-5.0766,-4.7522
1488.2812,5.5438,-4.0942,8.5481,-1.9321,2.7875,-7.4595,14.1348,5.5708,2.1898,-7.2371,-3.7774,-8.4728,2.8639,-2.0907,-0.4338,-11.4211,1.0714,-3.8721,-0.9479
1492.1875,6.1584,-1.0882,9.1264,-2.1705,6.8607,-1.9736,12.7990,7.5089,3.8718,-6.0648,-3.4042,-5.4032,4.8548,-0.3374,1.4517,-8.3887,5.7309,-3.2870,1.9874
1496.0938,8.1315,1.1815,8.4924,-4.1489,8.4441,4.6124,9.6676,6.4613,5.8350,-2.9212,-0.4895,-2.5463,4.8096,0.3733,3.9457,-4.0244,7.8515,-3.5442,3.9691
1500.0000,10.9103,1.4693,7.0305,-6.8043,7.3728,9.0593,5.0646,2.2930,6.7387,0.8871,3.5305,-0.5665,3.2228,0.1108,5.9288,0.2886,6.0189,-4.6766,5.1017
1503.9062,13.5153,-0.2563,5.1609,-9.1067,5.1244,8.5310,0.7078,-3.3093,5.6801,3.1499,6.1204,0.2012,1.2634,-0.9228,6.2942,3.1981,1.2626,-6.6594,5.5728
1507.8125,14.8999,-2.6496,3.3719,-10.5808,3.5996,3.0110,-0.9659,-7.7225,2.8442,2.1318,5.7193,-0.1442,-0.1638,-2.5237,4.8618,3.9785,-3.9154,-9.4950,5.6259
1511.7188,14.1776,-3.9417,2.1827,-11.3982,3.6396,-4.2288,1.5203,-9.0032,-0.6757,-2.2786,2.8697,-1.2003,-1.0747,-4.4932,2.7060,2.7283,-7.3832,-13.1278,5.5333
1515.6250,10.8199,-3.2458,1.9496,-12.0728,4.4157,-8.6235,7.2844,-7.0643,-3.6766,-8.4735,-0.4017,-2.4819,-2.2689,-6.6150,1.5041,0.2063,-8.6443,-17.2019,5.4796
1519.5312,5.0180,-1.1063,2.6603,-13.0134,4.1470,-7.3358,13.2802,-3.5858,-5.5377,-14.0573,-2.2353,-3.5478,-4.5262,-8.6715,2.3397,-2.4700,-8.6861,-20.8326,5.4150
1523.4375,-1.8937,1.1879,3.9525,-14.2295,1.5715,-1.0616,16.2388,-0.8067,-6.2375,-17.0368,-2.1419,-3.9887,-7.7995,-10.4644,4.9093,-4.1046,-8.7648,-22.6378,5.0537
1527.3438,-7.4418,2.9168,5.4111,-15.3471,-2.9883,6.6623,15.0127,-0.1703,-5.8274,-16.4767,-0.8541,-3.4041,-11.0705,-11.7659,7.7960,-3.6972,-9.2706,-21.1823,4.1175
1531.2500,-8.8916,4.6599,6.8888,-15.8970,-7.8055,12.0071,11.4339,-1.7962,-4.0439,-12.4313,0.7817,-1.5232,-13.0124,-12.2231,9.5963,-0.7903,-9.6101,-15.7395,2.6800
1535.1562,-4.8186,7.6988,8.4987,-15.6714,-11.0283,13.2812,8.8207,-4.9828,-0.6113,-5.5845,2.6592,1.5407,-12.9635,-11.3624,9.9568,4.1807,-9.0779,-6.9857,1.2924
1539.0625,3.5761,12.5301,10.2016,-14.9061,-12.0493,11.5201,9.1648,-9.0718,3.9525,2.9038,5.1812,5.1229,-11.4587,-8.8103,9.6500,9.8075,-7.8241,2.8647,0.6831
1542.9688,12.5369,17.8188,11.3514,-14.1458,-11.8804,9.0770,11.2580,-13.7974,7.8723,11.3209,8.2614,8.1847,-9.8935,-4.6521,9.6563,14.1598,-6.9775,10.7683,1.1828
1546.8750,17.5663,20.8896,10.7368,-13.8539,-12.2478,7.5892,11.4492,-18.8499,8.7297,17.5400,10.6975,9.8574,-9.5514,0.3622,10.0958,15.7128,-7.7621,14.1982,2.3329
1550.7812,16.0447,19.5981,7.3200,-14.0287,-14.1426,6.9991,6.6558,-23.2298,5.0016,19.7420,10.7468,10.0338,-10.7151,5.0293,10.0085,14.2662,-10.3602,12.4323,3.0696
1554.6875,8.9195,14.1678,1.2233,-14.1314,-17.0054,6.2429,-2.6893,-25.2638,-2.5762,17.4748,7.5672,9.5345,-12.5222,8.2861,8.2342,11.2057,-13.5423,6.9705,2.4333
1558.5938,0.1678,7.4179,-5.8720,-13.4531,-19.2187,4.7508,-12.2584,-23.5846,-11.0297,12.2356,2.2486,9.6096,-13.6743,9.7969,4.6429,8.7841,-15.4650,0.7106,0.2775
1562.5000,-5.7520,2.9869,-11.4526,-11.7227,-19.5207,3.2918,-16.6242,-18.4164,-16.8132,6.8821,-2.6457,11.0292,-13.4669,10.0665,0.5835,8.7638,-15.0563,-3.7089,-2.6252
1566.4062,-6.7539,2.7780,-13.7056,-9.5124,-18.1891,3.3781,-13.2842,-12.0333,-18.0535,4.0187,-4.8603,13.4011,-12.3670,9.9420,-1.9614,11.2805,-12.8828,-5.3710,-5.2256
1570.3125,-4.2806,5.5928,-12.7910,-8.0536,-16.9914,5.7800,-4.8154,-7.7593,-15.7151,4.4097,-4.1764,15.2794,-11.6973,9.8721,-1.9138,14.7302,-10.7714,-5.3697,-7.0949
1574.2188,-1.9627,8.0852,-10.8170,-8.4609,-17.8635,9.5155,2.6697,-8.0140,-12.7462,6.6229,-2.6227,15.0903,-12.6460,9.5388,-0.0683,16.8142,-10.4466,-5.7067,-8.8085
1578.1250,-2.8140,7.3761,-10.3918,-10.8408,-21.3095,12.2848,3.7825,-12.7481,-11.8044,8.2496,-2.8989,12.2660,-15.3247,8.2103,1.3756,16.0544,-12.2416,-7.5737,-11.4267
1582.0312,-7.0489,3.3149,-12.7446,-13.9500,-25.7874,12.0923,-2.3059,-19.4220,-13.3061,7.8174,-6.2408,7.7578,-18.5746,5.5530,0.4253,12.7346,-14.8941,-10.2882,-15.4460
1585.9375,-12.0789,-1.3993,-16.8391,-15.7741,-28.6290,8.7732,-11.3584,-24.5634,-15.3188,5.9127,-11.4655,3.4980,-20.6844,2.1989,-3.2027,8.6178,-16.5824,-11.7240,-20.1126
1589.8438,-14.5510,-3.3687,-20.2124,-14.7539,-27.8766,4.1950,-17.2925,-25.7820,-15.3629,4.6122,-15.9917,1.1462,-20.5306,-0.4964,-7.8880,5.6734,-16.3678,-9.9738,-23.7645
1593.7500,-12.7853,-1.2479,-20.9454,-10.8648,-23.6988,0.9529,-16.6837,-22.8538,-12.6454,5.6765,-17.9887,1.0062,-18.3365,-1.4070,-11.3725,4.7550,-14.8859,-5.0114,-25.0441
1597.6562,-7.7929,3.0693,-19.2425,-5.7667,-18.3441,0.5610,-11.1547,-17.3039,-8.8839,8.9748,-17.8586,1.9004,-15.5126,-0.5534,-12.4608,5.1717,-13.7284,0.9553,-24.0420
1601.5625,-2.2849,5.7822,-17.3516,-1.8529,-14.6588,2.4906,-5.9311,-11.1113,-7.0175,12.4483,-17.8057,2.0849,-13.6848,0.8274,-11.8062,5.3937,-14.0114,4.8130,-22.3911
1605.4688,1.3488,4.0124,-17.8344,-0.8035,-14.2420,4.7015,-5.8047,-5.7189,-8.8216,13.6771,-19.8556,0.5149,-13.5885,1.2268,-11.2066,4.2803,-15.2952,4.6409,-22.1220
1609.3750,2.4653,-2.0470,-21.5111,-2.6247,-16.5263,5.1527,-11.6605,-2.0184,-13.3566,11.8008,-23.9883,-2.4806,-14.5972,0.1337,-12.0653,1.8697,-15.7695,1.0317,-24.1012
1613.2812,2.0713,-9.2802,-26.6872,-5.8091,-19.3476,3.1216,-20.1196,-0.9173,-17.5173,8.2451,-27.9610,-5.5832,-15.2004,-1.4073,-14.3096,-0.8188,-13.6311,-3.3763,-27.2793
1617.1875,1.6190,-13.9108,-30.2800,-8.4364,-20.4680,-0.5544,-26.3090,-3.4854,-18.2634,5.6694,-28.9863,-7.5696,-14.0751,-1.4816,-16.6015,-2.7119,-8.6201,-5.8265,-29.3798
1621.0938,1.9067,-14.0894,-29.9718,-9.3599,-18.8963,-4.2831,-27.3729,-10.1210,-14.7734,5.9868,-25.8959,-8.2141,-10.9837,1.2328,-17.5493,-3.5231,-2.5031,-5.3777,-28.5295
1625.0000,2.9486,-10.8803,-25.7304,-8.6296,-15.1340,-6.7976,-23.9801,-19.3041,-8.8649,9.0254,-20.0419,-8.3101,-6.8753,6.3606,-16.8054,-3.8359,1.9532,-3.3816,-24.5681
1628.9062,4.6178,-7.0787,-19.5801,-6.9584,-10.3793,-7.7130,-18.9300,-27.2607,-3.4548,12.8375,-14.2614,-8.8529,-3.1517,11.9945,-15.1212,-4.4370,2.8429,-2.1730,-19.0288
1632.8125,7.1450,-4.9933,-13.9259,-4.8286,-5.4948,-7.3564,-14.3962,-29.4288,-0.3964,15.3085,-10.8174,-10.1082,-0.6672,16.0380,-13.4062,-5.5470,0.4871,-3.0472,-13.8648
1636.7188,10.8329,-5.0117,-9.8641,-2.0895,-0.6033,-6.2797,-10.3230,-23.1934,0.5634,15.7068,-9.9986,-11.3690,0.7921,17.6793,-11.7376,-6.6523,-2.7017,-5.1602,-10.0119
1640.6250,15.2978,-5.9375,-6.8261,1.5833,4.4705,-4.9771,-5.2816,-10.0714,0.9992,14.9708,-10.4008,-11.6098,2.1763,17.8195,-9.2847,-7.0778,-3.7951,-6.2489,-6.9819
1644.5312,19.1913,-6.5386,-3.7074,5.8167,9.4533,-3.9330,1.2012,4.4588,2.0550,14.6479,-10.4450,-10.4774,4.2663,18.1228,-5.2473,-6.7569,-1.2771,-4.5915,-3.7714
1648.4375,20.9906,-6.7970,-0.3548,9.1501,13.3590,-3.6949,7.1840,13.7896,3.3454,15.5072,-9.7011,-8.7529,6.9133,19.4899,0.0567,-6.4489,4.0074,-0.6120,-0.2165
1652.3438,20.3472,-7.7575,1.9971,9.6793,15.0313,-4.6440,9.3118,14.0296,3.4632,17.0101,-8.8962,-7.8420,9.0348,21.2360,5.0075,-7.1234,9.5029,3.2126,2.4861
1656.2500,18.7282,-10.2118,1.7829,6.3996,14.0751,-6.5422,5.6435,6.3187,1.5716,17.9675,-8.7599,-8.6534,9.4019,21.6713,7.6913,-8.9890,12.6851,4.1307,2.6606
1660.1562,18.4788,-13.5248,-1.2572,0.2193,11.3682,-8.3308,-2.0967,-4.0071,-1.4310,17.6455,-8.9264,-10.7655,7.6356,19.5945,7.3256,-11.0279,12.6547,1.2006,-0.2464
1664.0625,20.8098,-15.7794,-5.3687,-6.2723,8.6470,-8.5861,-8.9974,-10.8634,-3.3235,16.2555,-8.0247,-12.5857,4.6462,15.4228,4.9082,-11.5485,10.5160,-3.9706,-4.7408
1667.9688,24.3566,-15.2205,-7.7713,-10.2917,7.4038,-6.4883,-10.1611,-11.1405,-2.3041,14.4294,-4.9410,-12.4388,2.1433,10.9634,2.5163,-9.4415,8.3866,-8.4294,-7.9663
1671.8750,25.7589,-11.7798,-6.6700,-10.6122,7.9066,-2.6019,-4.3090,-6.2310,1.4020,12.2908,-0.0911,-9.7766,1.5317,7.9698,1.8016,-5.1808,7.8374,-10.0755,-7.6198
1675.7812,22.1386,-7.3216,-2.6702,-8.3019,9.0800,1.2498,5.0627,-0.5190,5.4933,9.1423,4.5493,-5.5920,2.9697,6.6761,2.9035,-0.7272,8.8866,-9.1201,-3.6435
1679.6875,13.6517,-4.3068,1.6208,-5.8839,9.3283,3.0967,12.0486,1.8754,7.2481,4.1950,6.8302,-1.7288,5.2573,5.5636,4.6314,1.6962,10.1674,-7.6767,1.6746
1683.5938,3.9596,-3.9288,3.5701,-5.5318,7.6641,2.1843,12.5632,-0.2859,5.5812,-2.2757,6.1064,0.3722,6.6218,2.6157,5.6821,1.0964,10.0068,-7.8630,5.3393
1687.5000,-2.0435,-5.2601,2.5285,-7.6414,4.3058,-0.4495,7.2657,-5.0650,1.8305,-8.4980,3.7429,0.5428,5.8361,-2.9302,5.7933,-1.6383,7.5497,-9.9885,5.7845
1691.4062,-1.6987,-6.1271,0.2628,-10.8124,0.3578,-2.6898,0.9510,-9.2366,-1.3708,-12.1133,1.9480,-0.2386,2.9011,-9.7678,5.8362,-4.4218,3.1652,-12.3076,3.8622
1695.3125,3.4098,-4.9865,-0.5350,-13.1574,-3.0830,-2.8710,-1.1270,-10.6845,-2.1986,-11.8679,1.8940,-0.7794,-1.1072,-15.3345,6.8194,-5.4668,-1.9854,-12.5164,1.9538
1699.2188,8.5644,-2.2249,1.5566,-13.8303,-5.6376,-0.9644,2.8105,-9.5098,-0.9880,-8.7274,2.7573,-0.6096,-4.8124,-17.6160,8.7539,-4.4592,-6.7085,-9.7426,1.9777
1703.1250,9.3882,0.2216,5.5781,-13.5400,-7.6364,1.4988,9.8570,-7.2755,0.2532,-5.3853,2.5673,-0.1780,-7.3153,-16.4994,10.4564,-2.5424,-10.2311,-5.3750,3.9218
1707.0312,5.0409,0.6206,9.0466,-13.6857,-9.4908,2.7272,14.7919,-5.3268,-0.2969,-4.3919,0.1811,-0.2141,-8.4702,-13.6179,10.5234,-1.1883,-12.1339,-2.0384,6.0440
1710.9375,-1.3198,-0.9100,10.0350,-14.9088,-11.0688,2.1786,14.1415,-3.7220,-2.6422,-6.2831,-3.3380,-0.8615,-8.6192,-10.8888,8.6431,-0.9008,-12.0928,-1.5493,6.4813
1714.8438,-5.1058,-2.2827,8.7217,-16.3302,-11.6696,1.0779,8.7928,-1.6175,-4.9435,-9.1678,-5.2443,-1.3620,-8.1653,-9.0102,6.0599,-0.8059,-9.9116,-3.5171,4.8597
1718.7500,-3.8160,-1.0179,7.1201,-16.1630,-10.6475,1.5008,3.2104,1.3763,-5.1106,-10.1288,-3.2604,-0.5901,-7.3891,-7.1675,4.7005,0.5468,-5.9581,-5.7266,2.5607
1722.6562,1.2519,3.7205,7.2420,-13.2137,-8.1481,4.7045,1.9521,4.1939,-2.6615,-7.3899,2.3521,1.9883,-6.5754,-4.1183,5.6234,3.8301,-1.5664,-5.9715,1.4875
1726.5625,6.2884,10.2766,9.2724,-8.0066,-5.2745,9.9953,6.2125,4.6926,0.7095,-1.6261,8.5598,5.7314,-6.1582,0.3758,8.0722,8.1467,1.2082,-3.8336,2.4589
1730.4688,8.0020,15.5496,11.3251,-2.5446,-3.4483,15.0327,13.0113,1.2719,2.3265,4.5077,11.5003,9.1268,-6.5703,5.0974,9.9545,11.4750,0.6429,-0.9636,4.6385
1734.3750,5.8418,17.1346,11.0071,1.1602,-3.4040,17.3801,17.5353,-5.4955,0.5082,8.1882,9.1847,10.7955,-7.8269,8.3439,9.4069,12.0595,-3.3875,0.3330,6.4539
1738.2812,1.7519,14.9036,7.4703,2.5965,-4.6147,16.1630,16.7330,-12.5920,-4.2550,8.1968,2.9063,10.4471,-9.2455,9.4713,6.2220,9.7063,-8.9424,-0.9830,7.1177
1742.1875,-1.9754,10.8539,2.1869,3.0321,-5.6691,12.6179,11.3895,-16.0970,-9.7846,5.4620,-3.7047,9.0701,-9.7251,9.5877,2.0332,6.0030,-12.9563,-3.8345,7.3172
1746.0938,-4.5996,7.4540,-2.2544,4.2682,-5.4023,9.1524,5.1920,-13.6836,-13.8399,2.2289,-7.2103,8.2205,-8.5651,10.6606,-0.8392,3.2926,-13.1791,-5.9133,8.3783
1750.0000,-6.8629,5.8715,-4.3468,6.8541,-3.9621,7.6420,1.6604,-6.4369,-15.5011,0.6874,-6.5347,8.9440,-6.2588,13.6866,-0.9362,3.1508,-9.8172,-5.5270,10.6163
1753.9062,-9.2211,5.4726,-4.9783,9.2662,-2.9687,8.2211,1.4128,1.3109,-15.2743,2.0454,-3.2310,11.1018,-4.5413,17.4777,1.5578,5.4483,-5.5968,-2.8684,12.4113
1757.8125,-10.3592,4.8569,-6.6684,8.8492,-4.5419,9.4042,1.8781,4.2283,-14.0671,6.3844,0.1145,13.5291,-5.4385,19.2196,5.2338,8.6021,-4.0088,0.2987,11.0237
1761.7188,-7.7966,3.4172,-11.2685,3.9128,-9.7929,9.3507,-0.4038,-0.9121,-12.1538,12.9171,1.8674,14.8267,-9.8558,16.5259,8.5235,10.7320,-6.8600,2.1932,4.6837
1765.6250,-0.3936,2.0276,-18.0178,-4.6125,-17.8168,7.2570,-6.7649,-13.1093,-9.1422,20.1385,2.1103,14.1697,-16.7222,9.4257,10.4515,10.8268,-12.8937,2.4368,-5.7061
1769.5312,9.4496,2.2600,-23.6658,-13.3181,-25.9266,3.8292,-15.0675,-27.3262,-4.9317,25.8632,1.7746,11.6051,-23.4259,0.6663,10.5870,9.1269,-18.5752,2.1319,-16.7534
1773.4375,16.2554,4.8155,-24.7473,-18.2903,-31.0474,0.5587,-21.1006,-37.0239,-0.6403,27.6211,1.1578,7.7720,-27.3548,-5.9918,8.5556,6.6004,-20.5662,2.5934,-24.6803
1777.3438,14.8766,8.5522,-20.3144,-17.5455,-31.3941,-1.5432,-21.6632,-37.6778,1.5802,23.7394,-0.6932,3.4157,-27.4893,-8.2167,3.8754,4.0709,-18.0966,3.9241,-27.7941
1781.2500,4.5060,11.0180,-12.9558,-12.1747,-27.3546,-2.6966,-17.0002,-29.2708,-0.0517,14.6838,-5.1263,-0.8655,-24.8707,-6.4027,-3.5173,1.7290,-13.4283,4.7836,-27.3854
1785.1562,-9.9506,10.1667,-7.1887,-5.3892,-21.0263,-3.9807,-10.7540,-16.2748,-5.3725,3.6010,-12.3273,-4.5113,-21.5718,-2.8626,-12.5035,-0.6613,-9.9913,3.6567,-26.3239
1789.0625,-20.5816,5.9416,-6.3380,-0.2096,-14.7560,-6.1486,-7.4544,-5.0637,-11.8902,-4.7656,-20.5154,-6.7828,-18.9369,0.3501,-20.6574,-3.1623,-9.5630,0.5633,-26.4765
1792.9688,-21.5412,0.4715,-10.2256,2.4838,-9.6882,-8.6259,-9.3810,-0.2448,-16.0962,-6.4966,-26.7273,-6.8142,-16.4674,3.1539,-25.2194,-5.2794,-10.6828,-2.3516,-27.0590
1796.8750,-12.7917,-3.3206,-15.4074,4.1565,-5.2932,-9.6055,-15.0573,-2.1134,-15.6299,-0.7942,-28.6685,-4.0612,-12.2777,7.2636,-24.6719,-6.1737,-9.6452,-2.0773,-25.3109
1800.7812,0.2675,-3.6884,-17.7726,7.0556,-0.1496,-7.3310,-20.4045,-6.7953,-10.7296,9.4803,-26.1782,1.1227,-4.8396,14.2912,-19.7753,-5.3081,-3.4629,2.9628,-18.9982
1804.6875,10.9234,-1.1813,-15.5383,12.1760,6.6248,-1.7109,-21.6463,-8.9823,-3.9199,19.5526,-21.1449,7.2612,5.3200,23.7531,-13.1921,-2.9759,7.3947,11.3509,-8.7183
1808.5938,15.7913,1.8552,-10.4166,18.3380,14.3517,4.9763,-17.8391,-5.4845,1.7814,25.6418,-15.9721,12.1854,15.3581,32.7344,-7.8581,-0.2408,18.6621,19.1978,1.9353
1812.5000,16.4624,2.9646,-6.1602,23.0312,20.9500,9.0001,-11.2736,2.7261,4.7643,27.0226,-11.8507,13.9891,21.6514,37.6328,-5.2243,1.7077,24.8082,22.5369,8.6211
1816.4062,17.1629,1.1947,-5.6777,24.2911,24.2037,7.3375,-5.6012,11.3031,5.4861,25.8619,-8.1962,11.9841,22.1157,36.6880,-4.5972,2.3056,22.7580,19.9091,9.2540
1820.3125,20.6587,-2.4611,-8.9237,22.1199,23.2669,-0.2449,-3.1874,15.5311,5.5905,25.1303,-3.6058,7.0768,17.6431,31.3151,-3.9622,1.8992,14.1407,13.2564,5.4610
1824.2188,25.9158,-5.9719,-13.0797,18.3771,19.3277,-10.5961,-3.6597,13.4100,6.3803,26.2989,2.5551,1.3173,11.5684,25.1514,-1.5730,1.3466,4.3737,6.4840,1.3495
1828.1250,29.3620,-7.7324,-14.7503,15.2932,14.9169,-18.6237,-4.6267,6.6761,7.9106,28.5663,9.2812,-3.1409,7.4923,21.5047,2.8926,1.2506,-0.8563,2.7908,0.5125
1832.0312,28.4502,-7.4904,-12.4147,13.8095,12.2954,-20.0328,-3.8690,-0.8284,9.3055,30.0169,14.4581,-5.0824,6.9876,21.1254,8.3452,1.4227,0.7302,2.7408,3.5314
1835.9375,24.2806,-6.1633,-7.3046,13.0296,12.0285,-13.7533,-1.2195,-6.0537,9.8239,29.5298,16.3174,-4.7017,8.7993,21.9523,13.2329,1.0068,6.7346,4.4098,7.8143
1839.8438,20.9167,-4.8445,-2.1853,11.1604,12.7524,-2.5802,1.3559,-8.6311,9.6396,27.7302,14.6405,-3.2782,10.0534,20.9350,16.5549,-0.8082,12.0424,5.3131,9.7941
1843.7500,21.9355,-3.8506,0.8733,7.1548,12.3080,8.3647,1.5289,-10.3598,9.6675,26.2107,10.8323,-2.2929,8.5374,16.4617,18.2082,-4.0102,12.5376,4.4915,7.7316
1847.6562,27.1814,-2.5419,1.9699,1.7542,9.4356,14.4146,-1.1828,-12.8871,10.6688,25.7983,6.9365,-2.5289,4.3691,9.5395,18.6240,-7.5170,7.8982,3.1190,3.0016
1851.5625,32.5590,-0.0035,3.0269,-2.8797,4.7999,13.7198,-4.5747,-15.6773,12.4858,25.4839,4.4339,-3.6844,-0.1250,2.9290,18.2199,-9.6970,1.5683,3.2509,-1.0103
1855.4688,33.1369,3.9688,6.0120,-4.6666,0.5826,7.8677,-5.0869,-16.1435,14.0852,23.0429,3.6727,-4.7004,-2.1612,-0.9597,17.1795,-9.3531,-1.9025,5.8226,-1.4412
1859.3750,27.0259,8.3411,11.1684,-3.1247,-1.0795,0.5693,-0.4571,-11.9884,14.3401,16.8955,4.1219,-4.5685,-0.5473,-1.7289,15.5946,-6.5256,-0.1062,9.5611,2.0379
1863.2812,16.8374,11.1967,16.5983,0.2031,0.3313,-4.6074,8.2358,-3.8311,12.8455,7.6519,4.9884,-3.0861,3.4596,-1.0063,13.6221,-2.5642,5.7156,11.6957,7.1438
1867.1875,7.5697,10.7929,19.4655,2.7053,3.3010,-6.0322,16.7390,4.2587,10.0936,-1.9859,5.6247,-1.0546,7.0525,-0.9677,11.3891,0.6153,11.8219,9.9128,10.7142
1871.0938,2.7544,6.6730,17.8960,2.3521,5.3652,-4.4008,20.0796,7.1528,6.9492,-8.9402,5.5777,0.2263,7.8107,-2.6463,8.7998,1.6409,14.7296,4.0456,10.8374
1875.0000,2.0929,0.1356,12.2285,-1.0846,4.9046,-1.7793,15.7370,2.4191,3.9776,-11.7355,4.5625,-0.1503,5.2612,-5.3356,5.6424,0.4672,13.4752,-3.7597,7.8634
1878.9062,2.4540,-6.2653,4.8255,-6.0029,2.3266,-0.1569,5.3996,-7.4426,1.2376,-11.1959,2.6497,-2.0257,1.0113,-7.4000,2.1131,-1.6608,9.8336,-10.4668,3.7911
1882.8125,1.1892,-9.9591,-1.3081,-10.0475,-0.2466,-0.4429,-5.9041,-16.2302,-1.3563,-9.4148,0.5423,-4.2050,-2.5192,-7.6839,-0.6851,-3.0363,6.5851,-14.0528,0.7581
1886.7188,-1.2495,-9.6708,-4.1209,-11.5053,-0.5537,-2.3210,-12.7422,-18.1058,-3.5710,-7.9691,-0.5003,-5.2083,-3.7597,-6.3328,-0.9587,-2.5776,5.3399,-14.5234,-0.1570
1890.6250,-1.7473,-6.0742,-3.3650,-10.1284,2.1437,-4.7241,-12.3604,-11.6213,-4.8464,-6.9044,0.6479,-4.2451,-2.8553,-4.4545,2.6313,-0.4779,5.5948,-13.4480,0.8916
1894.5312,2.3214,-1.3975,-0.3606,-6.9790,6.5444,-6.4297,-5.9635,-0.7175,-4.8265,-5.2595,4.0201,-1.7277,-1.2266,-3.0463,9.5797,1.9921,5.5898,-12.5524,3.1544
1898.4375,9.9901,1.8163,2.9588,-3.5640,10.2841,-6.4703,2.4617,8.0869,-3.9368,-2.5272,8.1214,1.0641,-0.2953,-2.1619,17.1008,3.3815,4.0944,-12.5167,5.9767
1902.3438,16.4772,2.0922,5.0442,-0.9201,11.6172,-4.3959,8.7950,10.2406,-3.3877,0.3538,10.5912,2.9418,-0.4029,-0.9954,21.3572,3.0506,1.5909,-12.7966,8.9798
1906.2500,16.3142,-0.2585,5.2679,0.7772,10.5042,-0.5229,11.0621,6.0705,-4.4544,1.4432,9.6983,3.6905,-0.7181,1.2614,19.8013,1.5934,-0.1022,-12.3962,11.7956
1910.1562,7.4842,-3.4873,3.8996,1.9511,8.3077,3.9192,9.9704,-0.0255,-7.5368,-0.6269,5.6321,4.2007,-0.1329,4.5551,13.0268,0.4165,0.5558,-10.8079,13.8412
1914.0625,-6.6784,-5.5527,1.7398,3.0197,6.4235,7.0666,7.6649,-3.3107,-11.7500,-5.2528,0.5531,5.7265,1.5952,7.8122,4.6580,0.7810,3.2861,-8.3406,14.4885
1917.9688,-19.3536,-5.2687,-0.3049,3.9371,5.0068,7.3193,5.8719,-2.3766,-15.3943,-9.8283,-2.7511,8.8164,3.3562,9.5840,-0.8287,2.9755,5.7721,-5.6720,13.4971
1921.8750,-24.4734,-2.6952,-1.5288,4.1920,2.8492,4.5311,4.8272,0.0802,-16.9433,-11.1768,-2.6554,12.7505,3.2595,8.9644,-0.8615,6.1903,5.0218,-3.1285,11.2575
1925.7812,-20.2128,1.4123,-1.5747,3.2286,-1.4977,0.6648,3.6025,-0.1791,-15.7959,-7.3991,0.4039,15.9577,-0.1091,6.1097,3.8858,9.1557,-0.6057,-0.3693,8.5396
1929.6875,-9.3944,6.5444,-0.4550,0.9571,-8.2921,-0.8434,1.3284,-5.2308,-12.2954,1.1513,4.5702,17.1387,-6.6173,2.0636,10.4898,11.0574,-10.1138,3.2545,5.9182
1933.5938,3.0233,12.9008,1.5040,-2.0340,-16.0718,3.0152,-1.7875,-13.1710,-7.1833,12.2817,8.1572,16.2439,-14.4610,-1.8829,16.1835,12.0477,-20.2200,7.9837,3.3689
1937.5000,13.0952,20.8872,3.7430,-4.7476,-22.5110,12.6890,-4.4512,-19.6106,-1.1211,23.2074,10.8273,14.5237,-21.1153,-4.8232,20.1432,12.9748,-27.1442,13.1768,0.3892
1941.4062,19.3347,29.9871,5.5371,-6.3847,-26.0256,25.1719,-5.2287,-21.2099,5.2475,31.6236,13.3748,13.5576,-24.7773,-6.5266,23.2190,14.5413,-28.7119,17.4579,-3.4771
1945.3125,21.9167,37.9927,6.0520,-6.8911,-26.8654,35.1913,-3.6762,-18.3740,10.8420,36.0427,16.3472,13.9690,-25.3875,-7.3692,26.0056,16.5406,-25.4998,19.3742,-8.1971
1949.2188,21.0599,41.4735,4.4623,-7.0433,-26.8223,37.9643,-0.8140,-14.9579,13.9435,35.6586,18.7868,14.8173,-24.5785,-8.0684,27.1775,17.7755,-20.3899,18.1037,-13.2740
1953.1250,16.4418,37.5019,0.2054,-7.9409,-27.7723,31.8645,1.3581,-15.2569,12.7554,30.3765,18.3388,14.1850,-24.5737,-9.3472,23.8763,16.7700,-16.8742,13.7934,-18.1702
1957.0312,8.1727,25.6457,-6.6506,-10.1744,-30.1809,19.3036,0.9324,-20.6816,6.5495,21.2473,12.8447,10.5840,-26.7222,-11.5661,14.1618,12.7955,-17.1282,7.4285,-22.6670
1960.9375,-1.8713,8.8510,-15.1158,-13.1970,-32.7091,5.2939,-2.9301,-28.6736,-3.4278,10.8192,2.2452,4.1684,-30.5827,-14.3893,-0.4270,6.4952,-20.9188,0.4433,-26.7674
1964.8438,-10.0503,-7.5572,-23.3393,-15.3709,-33.1716,-5.3003,-9.6114,-34.5641,-14.1163,2.6577,-10.7568,-3.1422,-34.1240,-16.6797,-14.5829,-0.3360,-25.8578,-5.6650,-30.2136
1968.7500,-12.8045,-18.3183,-29.1650,-14.7563,-30.0563,-10.0255,-17.3072,-34.7837,-21.9769,-0.1518,-21.9344,-8.7430,-34.9078,-16.8438,-21.9840,-5.6702,-28.7548,-9.6107,-32.1307
1972.6562,-9.0719,-20.7159,-31.0164,-10.2201,-23.4394,-9.3413,-23.7115,-28.9471,-24.7249,3.2555,-27.8826,-10.8714,-31.5084,-13.6096,-19.4022,-8.2565,-27.2710,-10.5490,-31.2752
1976.5625,-1.2867,-15.6583,-28.6568,-2.1907,-14.7073,-5.4548,-26.8226,-19.4622,-22.3586,10.7886,-27.8391,-9.5369,-24.2887,-6.8446,-9.1723,-8.0982,-21.0018,-8.3181,-26.8544
1980.4688,6.0217,-6.8447,-23.3623,7.4259,-5.4874,-0.7015,-25.6713,-9.3903,-16.8810,18.3903,-23.7724,-6.2799,-15.0893,2.1648,1.9723,-6.1850,-11.4931,-3.6156,-19.3259
1984.3750,9.1069,1.3032,-17.3572,16.1311,3.2335,3.2987,-20.8032,-0.5502,-11.0312,22.2689,-18.8573,-3.0478,-6.0959,11.2818,7.0637,-3.7787,-1.3032,2.0764,-10.4941
1988.2812,7.2711,5.6349,-12.8157,21.9738,11.1262,5.4515,-14.2895,6.6765,-6.9498,20.9549,-15.5815,-1.0605,1.3247,18.6488,3.2006,-1.7793,7.2891,6.9223,-2.7184
1992.1875,2.9547,5.1798,-10.9875,24.2709,17.8601,4.7453,-9.0605,12.1078,-5.5536,15.8734,-14.7902,-0.4277,7.0619,23.6155,-6.9709,-0.5277,13.1947,9.3950,2.2597
1996.0938,-0.1880,0.8448,-11.8828,23.5653,22.6001,0.4789,-7.6295,14.7008,-6.7015,10.1863,-16.0227,-0.6194,11.7580,26.7887,-17.4398,-0.0116,16.6075,8.8546,4.0581
2000.0000,0.3712,-5.4837,-14.5525,21.0134,24.3275,-6.7781,-10.7200,13.0183,-9.6454,6.8401,-18.4222,-1.2343,15.8379,29.1727,-22.8694,-0.1592,18.3723,5.7477,3.5007
2003.9062,4.9007,-11.7259,-17.6427,17.7310,22.8158,-14.4791,-16.6020,6.9903,-13.2567,7.1434,-21.2202,-2.3657,18.8680,31.0964,-21.5426,-0.9382,19.1660,1.3507,1.8105
2007.8125,11.8775,-16.0335,-19.8546,14.5199,19.3550,-18.7947,-21.7257,-0.7349,-16.0162,10.5836,-23.4751,-4.2986,19.7764,31.8207,-15.4035,-2.2317,19.0931,-2.7639,-0.1425
2011.7188,19.1827,-17.0783,-20.1757,11.9821,16.3671,-16.8136,-22.5278,-5.5090,-16.1835,15.5895,-23.6629,-6.8901,17.7943,30.1849,-7.7527,-3.6966,17.9438,-5.2603,-1.9852
2015.6250,24.9287,-14.4607,-18.0163,10.6702,15.9398,-8.8971,-17.4754,-3.4879,-12.4621,20.4150,-19.9669,-9.2588,13.3967,25.7812,-0.7904,-4.8167,15.8344,-5.3751,-3.4352
2019.5312,27.6455,-9.1008,-13.4058,10.9451,18.3022,0.7452,-8.1139,5.3789,-4.8972,23.5910,-11.4334,-10.1385,8.4677,19.6616,5.1079,-5.1579,13.6275,-3.0330,-3.9091
2023.4375,26.4152,-3.1424,-7.1791,12.5835,21.4949,6.1835,1.6166,16.5875,4.7243,24.0615,0.8342,-8.6778,5.4492,13.9135,10.2928,-4.6312,12.6744,1.1964,-2.6542
2027.3438,21.4825,0.9394,-0.8712,14.5459,22.6713,3.5371,7.4886,23.5027,13.5367,21.4353,13.6007,-5.0816,5.9657,10.3504,14.4302,-3.5438,13.9488,6.2573,0.6405
2031.2500,14.9620,1.7078,3.8771,15.3122,20.1860,-6.1404,7.3025,21.5341,19.0985,16.4446,22.9638,-0.5900,9.8329,9.3173,16.3494,-2.4020,17.1687,10.8912,5.3327
2035.1562,10.5576,-0.2695,6.2095,13.7557,14.9273,-17.0547,2.0466,11.1871,20.7530,11.1133,26.5171,3.2081,15.1285,9.5609,15.2939,-1.6273,20.6228,14.0274,9.9905
2039.0625,11.6814,-2.6590,6.6660,9.9986,9.8229,-22.0916,-4.7361,-2.1960,19.8281,8.0269,24.6693,5.2483,19.3026,9.2817,12.2226,-1.4007,21.9820,15.1526,13.2409
2042.9688,18.8469,-2.8206,6.9679,5.5523,7.8059,-17.2915,-8.9153,-11.8456,18.4793,8.7641,20.1144,5.4686,20.6155,7.5261,9.6472,-1.7040,19.6807,14.4613,14.6702
2046.8750,28.3826,0.4390,8.9488,2.4819,9.7073,-4.3659,-7.8647,-13.7224,18.0446,12.4812,15.8435,4.6361,18.9956,4.7983,9.8456,-2.4451,13.9732,12.6668,15.0229
2050.7812,34.0480,6.0615,13.2700,2.0618,13.6286,10.4380,-1.5287,-8.5930,18.1919,15.9192,13.2357,3.7347,15.8244,2.4112,12.9079,-3.5035,6.9091,10.5696,15.4906
2054.6875,31.0381,11.4949,18.8292,3.8430,16.2462,20.2761,7.9283,-0.8320,17.5196,15.2639,11.6712,3.3775,12.8730,1.1421,16.4395,-4.6571,1.1574,8.6588,16.6496
2058.5938,19.7046,14.4715,23.3466,5.8318,15.0642,21.7176,17.4163,4.8374,15.0744,8.8301,9.8372,3.5981,11.1382,0.3501,17.4190,-5.5144,-1.6009,7.0082,17.9344
2062.5000,6.0267,14.4924,24.7744,5.7110,9.9712,16.2233,24.2668,6.1361,11.4733,-1.3481,7.4824,4.0483,10.3234,-1.6566,14.8014,-5.6099,-1.6582,5.4943,18.1063
2066.4062,-2.0016,12.9231,22.5402,2.2784,3.0500,8.4340,26.9687,3.7121,8.6271,-10.4015,6.0139,4.3608,9.2273,-6.2430,10.6474,-4.6626,-0.9684,4.1034,16.3413
2070.3125,0.2104,11.6891,17.7470,-3.8708,-3.0539,2.8491,25.2080,-0.5285,8.2251,-13.6287,7.3432,4.4064,6.7057,-13.1562,8.6641,-2.8067,-1.7222,3.0262,13.0231
2074.2188,10.5236,11.6483,12.2407,-10.8236,-6.8700,1.3371,19.5743,-5.4427,10.2171,-9.6240,11.9399,4.3294,2.5377,-20.3856,11.2002,-0.5677,-4.7546,2.4436,9.5590
2078.1250,21.4045,11.9447,7.3222,-16.5560,-8.6740,2.9246,11.3264,-11.2045,12.5899,-1.2932,17.8245,4.4155,-2.3511,-25.3470,17.1341,1.4533,-8.8753,2.2069,7.3516
2082.0312,25.0854,10.8422,3.1200,-19.9599,-9.6587,5.4245,2.2906,-18.0845,12.7128,6.0241,21.5407,4.9070,-6.4197,-26.5231,22.4880,2.9665,-11.6192,1.7478,6.7721
2085.9375,18.8172,7.3321,-0.9437,-21.0429,-10.5957,7.2366,-5.3411,-24.8264,9.2480,8.0323,20.5229,5.8473,-8.4424,-24.3406,23.4130,4.1334,-10.9611,0.3835,6.9775
2089.8438,6.4133,2.1965,-5.0919,-20.3677,-11.1763,7.9528,-9.5529,-28.4122,3.1364,4.1217,15.0554,6.9981,-8.2631,-20.6709,19.2146,5.3330,-6.8606,-2.1668,6.7015
2093.7500,-4.8834,-2.3476,-8.5375,-18.3802,-10.5231,7.7366,-9.3135,-25.8110,-3.1050,-2.5852,8.2347,7.8872,-6.9158,-17.3958,12.9791,6.7506,-1.5564,-5.4555,5.3277
2097.6562,-9.6481,-4.1478,-9.8789,-15.2417,-8.3013,6.5442,-5.2175,-16.5077,-7.1967,-7.6140,3.8669,8.0310,-6.0261,-15.1510,9.2509,8.1606,1.6843,-8.4587,3.3413
2101.5625,-7.6320,-2.5790,-8.2653,-11.2140,-5.3553,4.1749,0.5518,-3.7241,-8.5866,-8.0869,3.8482,7.2847,-6.8210,-13.1420,10.5672,9.1289,0.6336,-10.1264,1.8072
2105.4688,-2.9402,1.1504,-4.3407,-7.0799,-3.2505,1.0650,5.1200,6.9301,-8.4977,-4.1818,6.9860,6.1178,-9.3267,-10.0513,15.5564,9.4773,-4.3399,-9.9301,1.3687
2109.3750,-0.1351,5.0203,-0.0970,-4.0314,-3.0917,-1.2088,6.3135,10.7081,-8.6232,1.6341,10.0960,5.5452,-12.2672,-5.2435,20.0332,9.5841,-10.3038,-8.0212,1.6558
2113.2812,-0.6705,7.6658,2.3488,-2.9781,-4.6462,-0.6229,3.7832,6.6689,-9.6427,6.6373,10.4525,6.6100,-13.8003,0.6518,20.1387,10.1804,-13.4819,-4.9505,1.6053
2117.1875,-2.4721,9.1111,2.1213,-3.8342,-6.5579,3.6483,-0.8429,-1.8027,-10.8052,9.4601,7.6779,9.6465,-12.7145,6.1264,15.0378,11.7242,-11.6438,-1.2682,0.3805
2121.0938,-2.6437,10.2586,0.0076,-5.4715,-7.5067,9.9892,-4.9484,-9.3203,-10.8607,10.2579,3.6851,13.8220,-9.3528,9.7421,7.1851,13.8420,-5.6287,2.6094,-1.9399
2125.0000,-0.6496,11.6839,-2.4046,-6.5027,-7.3381,14.8247,-6.5225,-12.0370,-9.4566,9.7525,0.8693,17.3822,-5.6035,10.9068,0.2075,15.3558,1.0545,6.1816,-4.5022
2128.9062,0.9191,12.8379,-4.1409,-6.3179,-7.1892,14.8418,-5.4042,-9.9229,-7.7327,8.3009,0.0930,18.5831,-3.8323,10.0139,-3.7146,14.9918,4.3938,8.6096,-6.4821
2132.8125,-1.3462,12.3805,-5.6056,-5.5038,-8.4666,9.4327,-3.3711,-6.2567,-7.5537,5.8388,0.0706,16.7600,-5.3472,8.0344,-4.9132,12.3029,2.4513,8.8565,-7.7815
2136.7188,-8.3501,9.3785,-8.0323,-5.2264,-11.5070,1.4245,-2.9631,-4.8563,-9.9902,2.5437,-1.4452,12.7954,-9.4005,5.9860,-5.1947,8.1063,-3.3624,6.3221,-8.9616
2140.6250,-17.0926,4.3555,-12.0795,-6.0392,-15.0523,-4.6567,-5.7454,-7.1755,-14.3040,-0.6542,-5.7159,8.5982,-13.4951,4.6105,-5.9233,4.0530,-9.2309,1.5589,-10.4842
2144.5312,-22.4665,-0.7180,-16.8013,-7.1293,-17.0317,-5.6216,-11.1316,-11.3859,-18.2895,-2.3739,-11.8915,5.8993,-14.9252,4.2723,-7.0014,1.5963,-11.5347,-3.5811,-12.0161
2148.4375,-20.8281,-3.5525,-19.9663,-6.7299,-16.0784,-1.6956,-16.5830,-14.0000,-19.7197,-1.6954,-17.5492,5.1874,-12.5990,4.9063,-7.4785,1.1019,-9.3714,-6.7077,-12.5419
2152.3438,-12.4862,-2.9496,-19.5941,-3.4798,-12.5945,3.9381,-19.1238,-12.6827,-17.7850,1.1657,-20.3982,5.5356,-7.8836,5.9598,-6.9501,1.7465,-5.2288,-6.2112,-11.2990
2156.2500,-1.2543,0.5423,-15.5264,2.3273,-8.5094,7.7322,-17.2251,-8.0668,-13.4726,5.0642,-19.8022,5.4293,-3.8033,6.4902,-6.2450,2.2535,-3.2585,-2.2713,-8.7333
2160.1562,8.3214,5.1410,-9.7439,8.6699,-5.9004,8.4187,-11.8136,-3.2184,-8.7229,8.8033,-17.0301,3.9630,-3.0486,5.5844,-6.7062,1.8775,-6.2760,3.2060,-6.5337
2164.0625,13.6669,9.0201,-5.1017,13.0710,-5.5325,7.5979,-5.7176,-1.2236,-5.1353,11.8273,-14.2091,1.5100,-6.1341,2.9787,-8.8055,0.8825,-13.5661,7.7595,-6.5288
2167.9688,14.8016,11.2350,-3.4202,14.2855,-6.4230,7.8636,-1.9156,-2.7953,-3.2221,14.0768,-12.9015,-0.6108,-11.0006,-0.5648,-11.5277,0.1897,-21.0876,9.8751,-9.2370
2171.8750,12.9019,11.7853,-4.4012,13.0804,-6.7255,10.0951,-1.7834,-5.7597,-2.6079,15.2462,-13.3443,-1.1732,-14.3726,-3.5445,-13.2270,0.5410,-24.0267,9.7721,-13.2735
2175.7812,8.6355,11.0002,-6.1783,11.4662,-5.2070,12.2648,-4.5180,-6.8322,-2.7389,14.3926,-14.7020,0.0398,-13.9292,-4.6244,-13.1963,1.8862,-19.9833,8.9429,-16.2079
2179.6875,2.0393,8.9695,-6.9997,10.9794,-2.1670,10.8811,-8.0549,-4.3306,-3.3326,10.6039,-15.8653,2.1326,-9.7635,-3.5597,-12.3898,3.4717,-10.5946,8.8490,-16.2982
2183.5938,-6.0535,5.5946,-6.6344,11.4084,0.8726,4.0032,-10.6871,0.2683,-4.2037,4.3620,-16.0536,3.8318,-4.1320,-1.4063,-12.4429,4.5012,-0.4754,9.7924,-13.7589
2187.5000,-12.7984,1.1625,-6.3534,11.0311,2.4014,-6.6104,-12.1051,3.1873,-4.8098,-1.6971,-14.8869,4.4287,0.2527,0.2364,-13.7604,4.7648,5.7660,10.8191,-10.5346
2191.4062,-14.1330,-3.2142,-7.5444,8.2074,2.0847,-16.0830,-13.0803,1.0824,-4.1734,-3.7458,-12.1806,4.1784,2.0823,0.4206,-14.5084,4.6990,6.3538,10.6752,-8.7343
2195.3125,-7.5381,-5.8967,-10.1706,3.0392,0.9686,-19.4940,-14.1525,-6.3134,-1.4641,0.7668,-7.9256,3.8954,2.1189,-0.4566,-11.7459,4.8599,3.1155,8.9983,-8.9727
2199.2188,5.3436,-5.7161,-12.4331,-2.3078,0.6231,-15.2478,-14.5481,-15.5948,3.1816,10.8188,-2.5745,4.1549,2.2861,-1.0544,-4.0654,5.3165,-0.1670,6.7528,-9.9559
2203.1250,18.7005,-2.9509,-12.0023,-4.9888,1.9310,-6.2549,-12.4168,-21.6557,8.3803,21.6254,2.7272,4.8010,4.0101,-0.2907,6.4439,5.5325,-0.4727,5.5310,-9.6404
2207.0312,25.7488,0.5488,-7.8719,-3.5656,4.4517,1.9395,-6.3943,-20.9131,12.1723,27.1381,6.4242,5.1543,7.1487,1.6444,14.8476,4.8572,2.6679,6.2651,-7.0059
2210.9375,23.0857,2.3352,-1.3438,0.8153,6.7944,4.7099,2.7027,-13.5838,13.2477,23.7735,7.3715,4.6854,10.2859,3.3455,16.5549,3.1845,7.4296,8.3752,-2.9837
2214.8438,12.9958,0.8463,4.6816,5.0962,7.6491,1.0732,11.5493,-3.4942,11.8008,12.8079,5.6365,3.5212,12.0234,3.3313,10.7733,1.1568,11.4937,10.0470,0.2165
2218.7500,1.9104,-3.6032,7.5938,6.3566,6.6730,-6.1778,15.9364,4.3611,9.3214,-0.3240,2.5797,2.3219,12.1187,1.3433,1.4713,-0.3240,13.7877,9.4548,0.8188
2222.6562,-3.8731,-9.0027,6.7090,3.7163,4.6163,-12.7181,13.4177,6.7801,7.4712,-9.3940,0.0172,1.6408,11.5204,-1.3072,-5.1216,-0.8975,14.8134,6.0162,-1.1688
2226.5625,-2.0433,-12.8482,3.4678,-1.2845,2.6955,-15.4817,5.1296,3.8789,6.9366,-11.0653,-0.9683,1.3528,11.3341,-2.7019,-4.7496,-1.1553,15.5223,0.7618,-4.0374
2230.4688,5.0041,-13.5438,0.1747,-5.9967,1.7654,-14.0740,-4.6233,-1.6224,7.1497,-6.4002,-0.6440,0.6997,11.6836,-1.8409,2.0598,-2.2415,15.9441,-4.4060,-5.7542
2234.3750,12.7167,-11.1232,-1.6160,-8.5580,1.9076,-10.1909,-10.8618,-6.5392,7.0291,0.5925,-0.1562,-1.0357,11.5129,0.5311,10.7021,-4.8933,14.9221,-7.9541,-5.4444
2238.2812,17.8372,-6.9699,-1.8003,-8.9142,2.6494,-5.9697,-10.8362,-9.1129,6.0393,5.9582,-0.3495,-3.7733,9.5462,2.5203,16.0605,-8.6800,11.2583,-9.5298,-3.7606
2242.1875,19.9708,-2.9050,-1.1188,-8.3234,3.5174,-2.7372,-5.3624,-9.4279,4.6340,7.9850,-0.8788,-6.4611,5.5927,2.6380,16.0649,-12.0939,5.2535,-9.8190,-1.9351
2246.0938,20.3965,-0.3129,0.0153,-7.9589,4.4231,-0.9035,2.2262,-8.4311,3.7295,7.1860,-0.4217,-7.6924,1.0291,1.0202,12.5132,-13.4948,-0.8281,-9.7035,-0.4538
2250.0000,19.7294,0.2503,2.0908,-7.8863,5.5888,-0.5642,8.5806,-6.6913,3.7391,4.6494,2.1090,-6.6835,-2.0546,-0.7437,8.7738,-12.2246,-4.0012,-9.4744,1.4031
2253.9062,16.9194,-1.0118,5.9365,-7.2462,7.1449,-1.8309,12.3725,-4.0411,4.0960,0.6122,6.3363,-3.8727,-2.4395,-1.0684,6.5749,-9.0528,-2.6927,-8.7241,4.7168
2257.8125,10.6281,-3.3522,11.5708,-5.3641,8.7924,-4.4150,14.4575,-0.2826,3.7567,-5.3452,10.2667,-0.6837,-0.8222,0.1057,4.7473,-5.6175,1.8963,-6.9236,9.5455
2261.7188,1.6199,-5.6337,17.5924,-2.6998,9.8464,-6.9851,16.3188,3.8973,2.2706,-12.7869,11.4978,1.3674,0.5711,1.0644,0.9765,-3.2966,6.3665,-4.1251,14.3020
2265.6250,-6.3586,-6.4911,21.8006,-0.7340,9.6379,-7.2769,18.2931,6.8516,0.4320,-19.2953,8.9624,1.5626,-0.4317,-0.3461,-5.1065,-2.3604,7.3205,-1.1726,16.5862
2269.5312,-8.5482,-4.7144,22.6414,-0.8640,7.9482,-3.3636,19.1346,6.9877,-0.1796,-21.2339,3.8702,0.2634,-4.3709,-4.8407,-10.4496,-1.9980,3.5919,0.7471,14.9023
2273.4375,-2.7700,0.1256,20.2959,-3.2841,5.1206,4.6514,17.2431,4.0420,1.4763,-16.2297,-0.9517,-1.5184,-9.7955,-10.8417,-10.3728,-1.1091,-3.1339,0.8274,9.8704
2277.3438,8.2697,7.1354,16.4604,-6.8541,1.7520,13.9280,12.4165,-0.5733,4.7556,-5.4971,-2.9245,-2.8360,-14.3787,-15.4488,-2.4349,0.8266,-9.6986,-0.9349,3.8806
2281.2500,18.1182,14.1131,12.9447,-10.0890,-1.7923,20.0714,6.5143,-4.8138,7.3733,6.0876,-1.4513,-3.2486,-16.6053,-16.5497,10.8019,3.4826,-13.7143,-3.8933,-0.6047
2285.1562,20.6395,18.3259,10.2323,-12.3966,-5.6449,19.7090,2.3396,-7.6581,6.7531,12.6477,1.7558,-2.7505,-16.7113,-14.4074,22.6577,6.1525,-14.9367,-7.2622,-2.7668
2289.0625,14.0615,17.7472,7.2175,-14.4449,-10.2408,12.7699,1.5684,-9.9470,1.7596,11.0163,3.9918,-1.4116,-16.1946,-11.4212,26.5811,8.4686,-14.8242,-10.5122,-3.7926
2292.9688,1.9593,12.0629,2.3697,-17.2934,-15.7626,2.7819,3.4135,-13.5532,-6.4598,2.8227,3.5362,0.8481,-16.3838,-10.1959,20.6978,10.7144,-14.8441,-13.3604,-5.6084
2296.8750,-9.5352,2.8488,-4.6375,-21.0381,-21.6371,-5.1850,5.1547,-19.4377,-15.1530,-6.6316,0.8219,4.1289,-17.2891,-11.4304,9.1805,13.4653,-15.0565,-15.4910,-9.0481
2300.7812,-16.0967,-7.1754,-12.2243,-24.2222,-26.5109,-7.6294,4.1656,-26.2165,-21.6681,-11.9465,-2.0518,8.2262,-17.6761,-13.3155,-0.6897,16.8872,-14.1833,-16.3999,-12.9891
2304.6875,-17.8011,-15.3363,-17.7920,-24.6752,-28.8461,-4.6968,-0.1525,-30.6169,-24.9490,-11.0801,-3.0630,12.4686,-16.2641,-12.9520,-3.6148,20.3214,-11.0444,-15.6161,-15.1851
2308.5938,-18.1375,-19.9499,-19.5491,-21.2225,-27.8355,0.1626,-6.0324,-29.7193,-25.8004,-6.2625,-1.9371,15.9307,-13.0130,-8.6956,0.2603,22.5446,-6.0531,-13.1461,-14.1258
2312.5000,-20.5012,-20.5901,-17.8237,-14.8752,-24.0509,2.6752,-10.7946,-23.3285,-25.8562,-1.8839,-0.4757,17.8857,-9.3956,-1.5892,5.9937,22.5300,-1.3956,-9.6983,-10.3937
2316.4062,-25.1298,-17.7551,-14.7875,-8.4224,-19.3190,0.6507,-12.8432,-14.5156,-26.1308,-1.0907,-1.2734,18.1472,-7.3913,5.2464,7.9009,20.1313,0.3796,-6.3658,-6.3918
2320.3125,-28.8817,-12.3567,-12.7922,-4.5886,-15.7730,-4.6070,-12.5796,-7.6907,-26.2512,-3.6290,-5.7340,17.0542,-7.9847,8.8028,3.7856,16.1863,-1.7131,-3.9076,-4.6299
2324.2188,-27.8355,-5.4179,-12.6370,-4.1127,-14.5892,-9.2119,-11.5910,-5.5356,-24.8627,-6.3539,-12.8101,15.1684,-10.3554,8.2823,-3.8135,12.0011,-6.2075,-2.1678,-5.9143
2328.1250,-20.4550,1.9523,-13.1416,-5.2475,-15.2123,-9.2101,-10.9671,-7.1540,-20.7985,-5.7554,-19.3885,12.9699,-12.4064,5.5466,-10.0459,8.6307,-10.1003,-0.1530,-8.8468
2332.0312,-8.7987,8.5330,-12.3422,-5.1169,-15.6503,-3.0377,-10.3203,-8.9658,-14.0985,-0.4665,-22.1073,10.7792,-12.2350,3.6583,-11.6707,6.4555,-10.9230,3.1911,-10.9861
2335.9375,2.9950,13.1558,-9.3154,-1.9250,-13.7628,7.5317,-8.4222,-7.7394,-6.1759,8.0136,-19.4276,8.8559,-9.4543,4.6907,-9.3362,5.2402,-8.4321,8.0318,-10.7221
2339.8438,11.5148,15.0682,-5.1453,3.6643,-8.7707,18.3452,-4.8781,-3.3965,0.8935,16.6166,-12.6243,7.4403,-5.4228,8.4407,-6.6142,4.4676,-4.6836,13.2514,-8.4161
2343.7500,15.9182,14.2575,-2.2487,9.0231,-1.9727,25.0143,-1.2466,0.7194,5.4076,22.7712,-5.0883,6.5870,-2.2870,12.8712,-6.8549,3.6044,-2.4940,16.9596,-6.0031
2347.6562,17.6129,11.4643,-2.5964,11.5268,3.9005,25.0088,-0.3747,0.4763,6.7441,25.6562,-0.4083,5.9320,-1.5781,15.7562,-10.5412,2.1562,-3.4638,17.6139,-5.4780
2351.5625,18.4529,7.8305,-6.2237,10.4752,6.3726,18.7073,-4.2260,-5.4745,5.4284,25.9684,-0.4339,4.7155,-3.3314,16.1887,-15.1839,-0.3341,-6.9618,14.9880,-7.4822
2355.4688,19.1792,4.3892,-11.1625,7.5290,4.8747,9.0714,-11.8784,-14.0280,2.6922,24.7794,-4.4641,2.2319,-6.2120,14.8998,-17.6054,-4.1168,-10.6621,10.3272,-11.0011
2359.3750,19.2930,1.7002,-14.7880,5.4054,1.2310,0.2417,-19.4565,-19.3474,-0.1331,22.6145,-9.9514,-1.5238,-8.3944,13.3843,-16.5703,-8.8952,-12.0888,5.6095,-14.2294
2363.2812,18.1027,-0.2050,-15.5076,5.8990,-1.4191,-4.2861,-22.3683,-16.8823,-2.1008,19.4321,-14.1752,-5.5456,-8.5297,12.7136,-13.6339,-13.6207,-10.0353,2.4453,-15.7945
2367.1875,15.7114,-1.6338,-13.5514,8.7324,-0.5984,-3.1685,-18.3960,-6.7614,-2.8879,15.2698,-15.7947,-8.2333,-6.2596,12.9763,-11.6924,-16.7703,-5.0257,1.3508,-15.4110
2371.0938,13.0073,-2.9878,-10.4227,12.0020,3.9443,2.2051,-9.3975,5.9884,-2.7686,10.7869,-15.3523,-8.3964,-2.1751,13.5960,-12.5888,-17.1178,1.2103,1.7969,-13.6612
2375.0000,10.8534,-4.5919,-7.6206,13.7206,10.1341,8.3616,-0.2825,14.6297,-2.3371,7.1639,-14.5149,-6.1677,2.5450,14.0151,-15.7309,-14.5532,6.6700,2.8521,-11.3296
2378.9062,9.4641,-6.5891,-5.7005,13.1874,14.9834,11.4331,4.1117,15.0475,-2.0639,5.4808,-14.6545,-3.0960,6.5638,14.0589,-18.6611,-10.3236,9.8255,3.8620,-8.9466
2382.8125,8.6458,-8.8376,-4.2951,11.1913,16.5147,9.1490,2.0879,8.1730,-1.9075,6.1356,-15.7599,-1.2292,8.7990,13.7527,-18.8855,-6.4017,9.9980,4.6860,-6.8102
2386.7188,8.5532,-10.8392,-2.8488,9.0720,14.8613,2.1041,-4.0036,-1.0743,-1.2711,8.7242,-16.4232,-1.7666,8.8206,12.9594,-15.4168,-4.3164,7.4989,5.4315,-5.2130
2390.6250,9.9530,-11.8433,-1.2855,7.5418,11.8406,-6.4865,-9.5561,-7.3499,0.5506,12.3251,-14.9056,-4.2473,7.1245,11.3442,-8.9955,-4.2294,3.6375,6.0255,-4.4472
2394.5312,13.4399,-11.2348,-0.0400,6.2356,9.4178,-12.5412,-10.8351,-8.2861,3.6567,15.8201,-10.5487,-6.8999,5.0440,8.7699,-1.2082,-4.9252,0.4546,6.0333,-4.5041
2398.4375,18.2252,-9.0908,0.4371,4.2373,8.2577,-13.4511,-7.2620,-5.4427,7.0830,18.0302,-4.5354,-7.9313,4.1557,5.7039,6.4598,-4.7361,-0.0074,4.8749,-4.8317
2402.3438,21.8335,-6.5320,0.1121,1.0027,7.4334,-9.6232,-1.4271,-2.5063,9.0829,17.8244,0.5918,-6.8114,5.3900,3.1265,12.8673,-2.7409,3.2512,2.2406,-4.5651
2406.2500,21.4633,-5.4635,-0.7079,-3.1440,5.4360,-4.2371,2.9133,-2.4201,8.1375,14.4964,2.4314,-4.5910,8.4015,1.8816,16.9279,0.6347,9.4260,-1.6295,-3.1985
2410.1562,16.2518,-7.6242,-1.8224,-7.2886,1.6352,-1.2932,3.2891,-5.6188,4.0919,8.3895,0.3148,-3.0052,11.7155,1.9884,17.5798,4.0351,16.0939,-5.9922,-1.1397
2414.0625,8.5855,-13.3716,-3.3932,-10.6188,-2.9733,-3.1159,-0.2149,-10.3664,-1.4173,1.2808,-4.0490,-3.0377,13.6768,2.5669,14.4725,6.2631,20.4661,-9.8989,0.4580
2417.9688,3.0474,-20.9664,-5.6137,-12.8603,-6.3099,-8.8548,-5.4516,-14.4626,-5.6739,-4.0632,-7.3443,-4.0362,13.5988,2.5388,8.8878,7.1927,21.0178,-12.5125,0.6268
2421.8750,3.4188,-26.9773,-8.0330,-14.1261,-6.6146,-14.9300,-9.7806,-16.7218,-6.3772,-5.2213,-6.4252,-4.0742,12.2756,1.5576,3.8356,7.8086,18.3922,-13.2842,-0.4143
2425.7812,9.8839,-27.8045,-9.2511,-14.4496,-3.6462,-17.1616,-11.4878,-17.1809,-2.9600,-1.6212,-0.0640,-1.3265,11.4237,0.3502,2.7333,9.3518,14.8889,-12.0069,-1.0986
2429.6875,18.6820,-21.5925,-7.5177,-13.5748,1.1905,-13.2838,-10.2481,-16.2930,3.1462,4.8684,10.3295,4.5180,12.4105,0.0998,7.2852,12.2291,12.8532,-8.8610,0.4904
2433.5938,24.6588,-9.4460,-1.9925,-11.2841,5.8162,-4.3318,-6.6955,-14.1902,9.4480,10.8428,21.3755,11.8205,15.1941,1.3353,16.0798,15.5240,13.1101,-4.4826,5.1121
2437.5000,24.8688,4.8325,6.2780,-7.9547,8.7712,5.8988,-1.7390,-10.7986,13.8404,13.2999,29.3346,17.8510,18.2746,3.2767,25.1255,17.4934,14.5614,0.0624,11.5417
2441.4062,20.4688,16.4483,14.5782,-4.7197,9.8996,12.9513,3.8106,-6.5612,15.5796,11.3418,31.7563,20.3728,19.7050,4.2760,30.1663,16.7133,15.1773,3.5542,17.1919
2445.3125,15.4562,21.8789,19.9958,-2.8994,10.0481,14.1130,9.2263,-2.8058,15.2236,6.4889,28.3759,18.9157,18.4108,3.0916,29.2302,13.0756,13.5595,5.1283,19.8362
2449.2188,13.3203,20.4625,21.1854,-3.0454,10.1799,9.7680,13.7700,-1.0956,13.7929,1.4574,20.9861,14.9562,14.8478,-0.0076,23.6236,7.9552,9.8734,4.7456,19.1588
2453.1250,14.3396,14.4506,19.1240,-4.3811,10.6684,3.0160,16.7907,-1.9324,11.9221,-1.6453,12.5391,10.9549,10.5494,-3.2476,16.7332,3.4466,5.5195,3.2556,16.9103
2457.0312,15.6818,7.5449,16.2512,-5.2115,11.2522,-2.1220,17.9719,-3.9711,9.6308,-2.4007,5.9756,8.9011,6.9671,-4.5519,11.6329,1.1761,1.9465,1.8916,15.4971
2460.9375,14.1107,2.8068,14.6107,-4.1176,11.5053,-2.8499,17.4602,-4.6600,6.7151,-1.7976,3.2128,9.2373,4.5041,-3.0627,9.3101,1.4302,-0.3704,1.4482,16.0702
2464.8438,8.9403,1.1562,14.3973,-1.0716,11.2652,1.0648,15.7007,-2.0660,3.2349,-1.0526,4.5428,10.7331,2.4202,0.1788,8.6896,3.0878,-2.0192,1.6925,17.6072
2468.7500,2.7077,1.2866,14.0150,2.4066,10.6026,7.3935,13.1149,3.4422,-0.4188,-0.6271,8.5692,11.2971,-0.4262,2.9199,8.1194,4.3285,-3.9109,1.4827,17.7232
2472.6562,-0.9970,0.9517,11.5706,4.2331,9.4320,12.8127,9.9298,9.0378,-3.8943,-0.2108,12.7415,9.2305,-4.6551,3.2339,6.8708,3.6605,-6.4851,-0.3908,14.5955
2476.5625,-0.6733,-1.2540,6.6081,3.1923,7.2561,14.7141,6.3300,11.0975,-7.2304,0.5043,14.4070,4.2537,-9.9520,0.7730,5.3841,0.7001,-9.5606,-4.1642,8.5029
2480.4688,1.6872,-4.7799,0.7054,-0.2258,3.4382,12.4825,2.7693,7.5721,-10.7292,1.1417,12.0393,-2.2077,-15.3583,-3.1219,4.2383,-3.6609,-12.8180,-8.5997,1.7860
2484.3750,2.1848,-7.3948,-3.5361,-4.1718,-2.1211,7.6366,0.0777,-0.6103,-14.3851,0.7969,6.0623,-7.6242,-19.8860,-6.4136,3.0133,-7.7228,-16.2661,-11.4594,-2.7380
2488.2812,-1.7008,-6.6838,-4.3200,-6.6675,-8.4838,2.8760,-0.8519,-10.0777,-17.4191,-1.0584,-1.2571,-9.5793,-22.9231,-7.6404,0.2893,-9.8070,-20.0933,-10.7478,-3.6848
2492.1875,-8.8597,-1.7943,-1.8972,-6.8035,-13.9035,0.6464,0.3620,-17.0436,-18.4871,-3.7739,-6.9303,-7.0150,-24.2193,-6.5810,-5.0519,-9.0362,-24.0001,-5.9679,-1.9168
2496.0938,-15.2277,5.7350,1.6813,-5.0942,-16.7829,2.0122,3.1868,-19.3902,-16.5822,-5.6567,-8.8299,-0.8463,-23.6905,-4.0299,-12.3356,-5.7021,-26.7689,1.4226,0.2687
2500.0000,-16.8459,12.6733,4.0296,-2.8804,-16.7365,6.3603,6.2844,-17.4975,-11.9785,-5.0759,-6.8088,6.4451,-21.4080,-1.1026,-18.8452,-1.0469,-26.7536,8.6816,0.8473
2503.9062,-12.7938,15.9524,3.9408,-1.3655,-14.9541,11.9459,8.0976,-13.5556,-6.3936,-1.6749,-2.6537,12.0958,-17.8402,1.3004,-21.2814,3.4305,-23.1510,13.1998,-0.6609
2507.8125,-5.6293,14.5277,1.8505,-1.0160,-13.5188,16.8555,7.5317,-10.1402,-2.0867,3.3468,1.0947,14.5388,-14.0175,2.6059,-17.9504,6.7786,-17.0439,13.8220,-3.2258
2511.7188,0.9172,10.0420,-0.9301,-1.6227,-14.0894,19.8359,4.3274,-9.0826,-0.4606,8.1803,2.6662,14.1982,-11.2270,2.4891,-10.0009,9.0493,-11.1469,11.3180,-5.4247
2515.6250,4.9671,5.8284,-3.4162,-2.7294,-16.8329,20.6439,-0.9919,-11.0870,-1.1934,11.8356,1.9294,13.0815,-10.2440,0.9660,-0.7160,11.1166,-8.1357,7.7956,-6.6097
2519.5312,7.6742,4.8634,-5.5552,-3.9199,-20.3217,19.8981,-7.3984,-15.8182,-2.5685,14.8425,0.0993,13.3963,-10.6269,-1.3295,6.6116,13.9493,-8.6770,5.4872,-7.1950
2523.4375,11.6274,7.9682,-7.8256,-4.7439,-22.4312,18.6424,-13.5991,-21.9852,-2.7609,18.5817,-1.3702,16.0760,-10.7376,-3.0773,10.5812,17.8013,-10.7374,5.6491,-7.9720
2527.3438,17.9396,13.4031,-10.3337,-4.5257,-21.6008,17.8551,-18.1828,-27.3688,-1.1007,23.7474,-1.8182,20.1884,-8.6850,-2.7914,11.9553,21.8780,-10.9108,8.1491,-9.1823
2531.2500,24.6109,18.0785,-12.3147,-2.4679,-17.6448,18.0480,-19.8479,-29.2224,1.6283,29.2370,-1.5944,23.6123,-3.6486,0.2106,12.2696,24.7488,-6.9412,11.8301,-10.2084
2535.1562,27.6855,19.5466,-12.5377,1.8364,-11.6937,19.0372,-17.8609,-25.3810,4.0137,32.5108,-1.4367,24.4878,3.3696,5.0933,12.1163,25.2609,0.4284,15.2915,-10.1207
2539.0625,24.3624,17.4580,-10.2851,7.8479,-5.4586,19.9807,-12.5999,-15.7198,5.2330,31.3278,-1.6522,22.4163,9.9903,9.7636,10.6502,23.3308,7.7629,17.5791,-8.5473
2542.9688,15.5630,13.5778,-6.0613,14.0350,-0.3840,19.7642,-5.7596,-2.9407,5.6713,25.6318,-1.8358,18.5966,13.8685,12.1494,6.7484,20.0418,11.2779,18.4570,-6.0718
2546.8750,5.8443,10.4579,-1.4135,18.5506,2.8314,17.6658,0.1400,8.2212,6.4866,18.1343,-1.3284,14.8843,14.1071,11.6585,0.7544,16.9561,9.5081,18.2607,-3.8174
2550.7812,0.6423,9.7405,2.0027,20.2492,4.2432,13.9701,2.8576,13.2722,8.5540,13.0192,0.0595,12.5357,11.6887,9.6784,-4.8587,15.1147,4.3026,17.5531,-2.6012
2554.6875,2.8829,11.2299,3.3744,19.3173,4.4051,10.0641,1.5588,10.4412,11.6919,13.5302,1.7616,11.5569,8.6678,8.6062,-6.7406,14.4349,-0.5850,16.8219,-2.3947
2558.5938,11.3883,13.2458,3.0000,17.0359,4.0949,7.7530,-2.7501,1.7258,14.7808,19.9985,2.8940,11.0377,6.7771,10.0363,-3.0477,13.9154,-2.1968,16.3275,-2.5165
2562.5000,22.0174,13.8684,1.7945,14.8519,4.0957,8.0673,-7.7929,-8.2686,16.6078,29.5664,3.0269,10.0532,6.4802,13.4712,4.8779,12.4606,-0.2898,16.0799,-2.3222
2566.4062,30.4157,12.1411,0.5730,13.4770,4.9757,10.3359,-11.2359,-14.9512,16.6996,37.7330,2.5731,8.3363,7.0786,16.6011,12.9757,9.6765,2.9161,15.8876,-1.7339
2570.3125,34.2722,8.4729,-0.2533,12.6859,6.8598,12.3166,-11.7614,-16.0798,15.5010,40.7089,2.4037,6.2190,7.6255,17.0033,16.9275,6.0416,4.7992,15.4644,-1.1477
2574.2188,33.7266,4.1468,-0.4256,11.8922,9.3290,11.5445,-9.3767,-12.3465,13.8811,37.1940,3.0168,4.0431,7.8067,13.9852,14.9189,2.3714,4.4516,14.5963,-0.8566
2578.1250,30.2202,0.4599,0.5316,10.9259,11.6142,7.1292,-4.9388,-6.1182,12.5158,28.7054,4.0324,1.6997,8.0828,9.1407,8.7264,-0.9340,3.1577,13.3220,-0.5892
2582.0312,25.1769,-1.8547,3.2316,10.2839,13.0544,0.7193,0.5659,0.4317,11.6965,18.5271,4.5372,-1.2092,9.0697,5.1806,2.3673,-4.2005,2.9743,12.0026,0.3419
2585.9375,19.6182,-2.6557,7.8033,10.6031,13.5237,-4.2461,6.3793,6.2985,11.6020,10.0515,4.0354,-4.7353,10.7809,3.9408,-0.6745,-8.0635,4.7233,11.1604,2.3582
2589.8438,14.6238,-2.0931,13.2559,11.8161,13.4634,-4.7084,11.8004,11.1923,12.5630,5.3961,3.1402,-8.1354,12.4225,5.1062,0.3535,-12.6610,7.1382,11.1056,5.0034
2593.7500,11.6547,-0.3951,17.5469,12.7804,13.4258,-0.1679,15.8679,14.4392,14.8591,4.8079,3.2656,-10.1653,12.9163,6.5954,3.3371,-17.1299,7.8773,11.5650,7.0028
2597.6562,11.9903,2.0701,18.5826,11.8263,13.4608,6.7349,17.4364,14.5622,18.1285,6.8944,5.4109,-10.0036,11.6971,6.2307,5.1498,-19.8988,5.5266,11.6185,7.0560
2601.5625,15.5980,4.6399,15.5836,7.9143,12.8903,11.8151,15.8118,10.1797,21.0110,9.4180,9.0048,-8.0457,9.1275,3.3435,4.0121,-19.6492,0.9050,10.1124,4.8021
2605.4688,20.5587,6.4382,9.8240,1.5472,10.7725,12.1274,11.5195,1.5555,21.6173,10.2975,11.8935,-5.7962,6.2352,-0.8991,0.6477,-16.2602,-3.4040,6.3948,1.2189
2609.3750,23.8798,6.7883,4.0982,-5.3002,6.7938,7.9911,6.5026,-8.6368,18.7433,8.4609,11.7311,-4.7875,4.0497,-4.5697,-2.4488,-11.0180,-4.8945,0.9299,-1.8590
2613.2812,23.3385,5.6836,1.1722,-10.2612,1.8856,2.7593,3.3587,-16.2927,12.9788,4.2295,7.8505,-5.3192,3.0853,-6.4719,-2.9126,-5.8899,-2.8616,-4.6783,-2.7637
2617.1875,18.9837,3.8883,2.2284,-11.9523,-2.0393,0.4331,3.9372,-18.1870,6.7245,-0.9548,2.1475,-6.0776,3.2982,-6.8397,-0.1157,-2.3558,1.3076,-8.4016,-0.8506
2621.0938,13.0594,2.4915,6.3366,-10.7129,-3.2138,2.8238,8.1681,-14.0466,2.8553,-5.3668,-1.8820,-5.0733,4.3720,-6.8191,4.5784,-0.6207,5.3522,-8.8993,3.3183
2625.0000,8.3502,2.2024,11.2419,-8.2529,-1.2775,8.3319,13.9531,-6.8487,2.8521,-7.9703,-1.4267,-1.2671,5.9327,-7.3656,8.8821,0.2602,7.7402,-6.3576,8.4320
2628.9062,6.2506,2.9335,14.8409,-6.5201,2.2659,13.2309,18.2920,-1.0398,5.7653,-8.9492,3.6439,4.3845,7.4807,-8.5995,11.0457,1.4885,8.3557,-2.4880,13.0798
2632.8125,6.0860,4.0246,16.3093,-6.5910,4.8315,14.4738,19.0083,0.1368,8.8577,-9.4406,10.5815,9.3642,8.2287,-10.1109,10.6976,3.5615,7.8980,0.3881,16.1677
2636.7188,6.1419,4.9328,16.2065,-8.2724,4.3229,11.9031,16.0229,-3.5902,9.5321,-10.6268,15.5817,11.2812,7.2304,-11.7498,8.6941,5.9519,6.7750,0.6403,17.0221
2640.6250,5.4016,5.7969,15.6793,-10.5345,0.4292,8.2217,11.3886,-9.7459,7.1372,-12.8027,16.3295,9.5626,3.9241,-13.9766,6.3612,7.6162,4.6245,-1.7859,15.4028
2644.5312,4.4162,7.3489,15.4798,-12.3369,-5.2535,6.8061,8.0545,-14.9884,3.2940,-15.0808,13.4063,5.8426,-1.2697,-17.3179,4.7910,7.8828,0.8899,-5.4589,11.6054
2648.4375,4.5367,10.1780,15.4908,-13.2539,-10.3557,9.0860,8.0896,-17.2300,0.5017,-15.9615,9.5491,2.7244,-6.8870,-21.4186,4.5626,7.0050,-4.2035,-8.4533,6.5574
2652.3438,6.2324,13.9257,14.9468,-13.5653,-13.3072,13.5032,11.3994,-16.6158,0.1050,-14.3761,7.3878,1.8608,-11.1593,-24.7145,5.7812,5.9672,-9.3462,-9.5789,1.6315
2656.2500,8.0933,17.1286,13.0217,-13.8962,-14.2408,16.7936,15.6803,-14.9404,1.2006,-10.4705,7.4369,2.8440,-13.1398,-25.2865,8.1349,5.7307,-12.9634,-9.0327,-1.9267
2660.1562,7.5749,17.9701,9.3193,-14.7209,-14.6350,16.5281,17.6596,-14.1712,1.3289,-5.5852,7.8886,3.7592,-13.3646,-22.3744,10.8655,6.5355,-14.4902,-8.0620,-3.6588
2664.0625,3.0349,15.4938,4.0546,-16.0196,-16.0291,12.9144,14.9622,-15.1782,-1.5825,-1.4656,6.3235,2.9391,-13.4359,-17.2693,12.8499,7.8023,-14.8987,-7.9112,-4.1166
2667.9688,-4.5904,10.4208,-1.9791,-17.2035,-18.7886,8.5146,7.5837,-17.3761,-7.5108,0.7409,1.9427,0.4998,-14.7337,-12.6525,13.0212,8.6799,-15.8528,-8.8114,-4.3655
2671.8750,-11.9604,4.9375,-7.5127,-17.2972,-21.8072,6.2081,-1.8768,-19.2427,-14.1514,1.0388,-3.4825,-1.5899,-17.2175,-10.6941,11.0269,8.7691,-18.1118,-9.7332,-5.0686
2675.7812,-15.4100,1.5312,-11.0072,-15.3318,-23.3072,7.0669,-9.4394,-19.1986,-18.3724,0.3893,-6.7412,-0.9872,-19.3130,-11.3606,7.6585,8.4285,-20.5944,-9.0829,-5.8842
2679.6875,-13.4498,1.6116,-11.1296,-10.8660,-22.1134,9.7811,-11.8416,-16.3502,-18.2300,-0.0093,-5.5616,3.1427,-19.0843,-12.3745,4.5804,8.4231,-21.0787,-5.8700,-5.7497
2683.5938,-7.8158,4.7886,-7.4949,-4.4412,-18.4912,11.9442,-8.3817,-10.8977,-14.1298,0.5578,-0.4252,9.3121,-15.8572,-11.0121,3.3583,9.2181,-18.1295,-0.5444,-3.9283
2687.5000,-2.2855,9.2056,-1.3011,2.3244,-14.0176,12.0160,-1.4265,-4.2038,-8.4331,2.0345,5.5727,14.5996,-11.0233,-6.4004,4.3904,10.5130,-12.6808,5.0664,-0.9939
2691.4062,-0.1589,12.6225,4.7194,7.2246,-10.6527,10.3299,4.8003,1.4997,-3.9489,3.8214,8.7284,16.5679,-7.3112,-0.4477,6.5475,11.4198,-7.8092,8.6928,1.1392
2695.3125,-2.2471,13.5251,7.3221,8.4411,-9.6806,8.4116,6.5248,3.8354,-2.4273,5.2674,7.1288,14.7756,-6.9750,3.4514,7.8843,11.1638,-6.6420,8.8403,0.3439
2699.2188,-6.7196,11.6511,4.3662,5.5214,-11.1680,7.3394,2.4857,1.3247,-3.9579,6.0789,1.7320,10.8156,-10.2115,3.0192,6.9821,9.7495,-9.9304,5.5470,-4.1806
2703.1250,-10.6974,7.8037,-3.9146,-0.2677,-14.1526,6.6496,-5.4952,-5.6970,-7.3801,6.4306,-4.5476,6.9736,-14.9860,-1.0344,3.9456,8.0362,-15.2463,0.2785,-11.1340
2707.0312,-12.2439,3.2737,-14.8656,-6.5234,-17.2905,4.7693,-13.7770,-14.9193,-11.1264,6.7809,-8.9413,4.6201,-18.4038,-5.4148,0.2857,7.1197,-18.5821,-4.8888,-17.7785
2710.9375,-11.2999,-0.7029,-24.7295,-10.9317,-19.4930,0.6007,-19.1570,-22.9663,-13.8496,7.5528,-10.5153,3.5513,-18.6122,-6.6774,-2.2455,7.4749,-17.2458,-8.2416,-21.6351
2714.8438,-9.1069,-3.2369,-30.5477,-12.3670,-20.2344,-5.1333,-20.6402,-27.0107,-14.6196,8.8772,-10.2965,2.6527,-15.8521,-3.8165,-2.9690,8.5325,-11.8531,-9.0114,-21.9879
2718.7500,-6.8481,-3.8805,-31.4582,-11.1642,-19.5058,-10.0016,-19.6036,-26.1504,-12.9309,10.5442,-9.9554,1.1919,-11.9663,1.0405,-2.6990,9.0579,-5.8647,-7.3609,-20.0943
2722.6562,-4.6944,-2.6716,-28.6439,-8.4552,-17.5942,-11.4419,-18.3874,-21.6678,-8.8169,12.1851,-10.2399,-0.3873,-8.8581,4.3864,-2.9227,8.0863,-3.0072,-3.9786,-17.9901
2726.5625,-1.9192,-0.1554,-24.1510,-5.1522,-14.8709,-8.5895,-18.4448,-16.0182,-3.0542,13.5671,-10.4350,-0.8118,-7.1386,4.1392,-4.4039,5.7111,-4.5670,0.3260,-16.8633
2730.4688,2.1876,2.7158,-19.5495,-1.3961,-11.6733,-2.9220,-19.4217,-11.2765,2.8483,14.7738,-9.2153,0.8578,-5.9570,1.2518,-6.3863,3.0902,-8.6201,4.7675,-16.2831
2734.3750,7.4465,4.8817,-15.3827,3.1283,-8.2712,2.7625,-19.7518,-8.1196,7.1115,16.0765,-6.1203,4.2283,-4.0105,-1.1542,-7.1331,1.6102,-11.7074,8.5067,-14.8488
2738.2812,12.6258,5.5818,-11.6086,8.3600,-4.8883,6.1986,-18.1438,-5.9476,8.4487,17.5130,-2.3938,7.5595,-0.8060,-0.4060,-5.4489,1.7993,-11.5378,10.6064,-11.6662
2742.1875,16.0403,4.6400,-8.4078,13.3209,-1.7538,6.9112,-14.6804,-3.8441,6.6615,18.4836,-0.4314,8.7702,2.8766,3.4920,-1.9634,2.8230,-8.5480,10.2392,-7.3870
2746.0938,16.4570,2.4493,-6.5008,16.4477,0.8633,6.0211,-10.6377,-1.4770,2.6672,17.8066,-2.1476,6.7260,5.6522,7.8426,0.9671,3.0046,-5.1536,7.1277,-3.9189
2750.0000,13.7834,-0.3021,-6.6359,16.6305,2.7036,4.9675,-7.2553,0.7733,-2.0194,14.4338,-7.4018,1.9035,6.7139,9.4720,0.8400,1.0527,-3.4434,1.9341,-3.0116
2753.9062,9.2664,-2.9400,-8.7206,14.1358,3.6745,4.3310,-4.5938,2.4068,-5.9425,8.4913,-13.6266,-3.9723,6.5204,7.3726,-3.0480,-2.8905,-3.3136,-3.7450,-4.8536
2757.8125,5.1742,-4.9487,-11.4538,10.5936,4.0194,3.7095,-1.5498,3.4115,-8.0835,1.8581,-17.0166,-8.9849,6.4179,3.6063,-8.8165,-7.1967,-2.6198,-7.9310,-7.8254
2761.7188,4.0233,-5.9590,-12.9418,7.9317,4.3098,2.5758,2.9085,4.2171,-7.8994,-2.4137,-14.6309,-12.0335,7.5123,1.6961,-13.1141,-9.8109,0.7938,-9.1639,-9.6394
2765.6250,7.4860,-5.7661,-11.9502,6.9940,5.1337,1.1652,8.3320,5.0142,-5.2992,-1.7942,-6.1850,-13.2007,9.7073,3.7579,-13.4159,-9.7054,6.9118,-7.2921,-9.0025
2769.5312,15.3295,-4.5122,-8.8587,6.8935,6.5961,0.4679,12.5127,5.1442,-0.8029,3.8913,5.5125,-13.3986,11.6725,8.6541,-9.8094,-7.6646,13.0829,-3.6736,-6.5305
2773.4375,25.0064,-2.9160,-5.5373,5.6430,7.9939,1.2833,12.7904,3.3017,4.2505,11.8587,15.7667,-13.6591,11.7673,12.6560,-4.8683,-5.7715,15.7489,-0.5979,-4.2381
2777.3438,32.4610,-2.2271,-4.1554,1.6504,8.0363,3.2265,8.0787,-1.4112,7.8850,17.7175,20.2529,-14.5341,9.2216,12.1368,-1.6301,-5.9045,13.0526,-0.1606,-4.0152
2781.2500,34.1043,-3.6816,-5.7345,-4.9951,5.6508,4.6989,0.0543,-8.3755,8.3311,18.1515,17.1872,-15.8716,4.7175,6.2424,-1.1845,-8.3090,6.2806,-3.1549,-6.2364
2785.1562,29.0089,-7.6417,-9.4421,-12.3770,0.9254,4.0245,-7.5229,-15.3018,5.1899,13.1770,8.3086,-16.9617,0.0056,-2.4643,-1.7496,-11.3119,-0.9867,-8.5844,-9.4813
2789.0625,19.8842,-12.9848,-13.0749,-17.8398,-4.5123,0.8965,-11.0074,-19.3609,0.0673,6.2951,-1.8666,-16.9012,-3.1094,-9.8045,-0.0334,-12.4439,-5.3484,-14.0946,-11.4729
2792.9688,11.8964,-17.3170,-14.3362,-19.5277,-8.1253,-3.0838,-9.0727,-18.8913,-4.0356,2.2248,-8.2147,-15.0184,-3.6937,-12.8036,6.0948,-10.2092,-5.7718,-17.1328,-10.4772
2796.8750,9.7635,-18.0910,-12.0309,-17.3314,-7.8774,-5.3188,-3.3820,-14.4301,-4.4375,3.6726,-7.5536,-11.2223,-1.9693,-11.4366,15.6720,-5.2259,-3.8784,-16.2328,-6.2000
2800.7812,14.8667,-14.0409,-6.4792,-12.6983,-3.5688,-3.9516,2.6969,-8.2765,-0.5180,9.4173,-0.2564,-6.1385,1.0753,-8.1609,25.0141,0.1097,-2.2525,-11.7329,0.2840
2804.6875,24.3140,-6.0190,0.9190,-7.6035,2.8407,0.8766,6.3497,-2.9064,5.8042,15.1374,9.9798,-0.9227,4.3514,-5.8360,30.2133,3.2264,-2.2306,-5.5433,7.2939
2808.5938,32.6806,3.3689,8.4943,-3.4848,8.2524,7.1715,6.9498,0.5603,11.3219,16.4315,18.1588,3.2248,7.1520,-5.7520,29.9154,3.1040,-2.9494,-0.1152,13.3541
2812.5000,35.3094,11.1469,14.9330,-0.8064,10.2185,12.4342,6.0537,2.7187,13.6779,11.8366,20.7145,5.6076,9.2461,-7.1888,26.2472,0.8822,-2.3368,2.7867,17.5948
2816.4062,30.9591,15.4955,19.4872,0.6779,8.3578,15.1049,5.9910,4.9085,12.8114,3.6450,17.3755,6.3054,10.6959,-8.5612,23.1415,-1.0669,0.8529,2.8166,19.7514
2820.3125,22.0944,16.4619,21.9122,1.4004,4.4730,15.0390,8.2125,7.8129,10.6132,-4.0036,11.0464,5.9707,11.6310,-8.9604,23.3171,-0.8890,5.6698,0.9220,20.0472
2824.2188,12.8488,15.4837,22.3715,1.6762,1.3139,12.8827,12.5159,10.8049,9.0992,-8.1925,5.7900,5.2910,12.1324,-8.7591,26.2393,1.4906,9.3957,-1.4596,19.1363
2828.1250,6.3332,14.1723,21.3686,1.7392,0.8350,9.1723,17.4374,12.5212,8.6176,-9.0478,4.2118,4.5414,12.2253,-8.9072,28.6601,4.5097,9.4601,-3.3083,18.0033
2832.0312,3.2418,13.2538,19.5840,1.8609,3.0955,4.1272,21.2333,12.0782,7.6044,-8.9664,5.9573,3.5993,11.9113,-9.7211,27.3286,6.3459,5.3721,-4.4566,17.6162
2835.9375,2.4775,12.3410,17.5370,2.2647,6.4404,-1.6840,22.6556,9.8300,4.1248,-10.0418,8.2917,2.4059,11.1985,-10.3555,21.7446,6.4147,-0.7961,-5.3574,18.3658
2839.8438,2.8492,10.5447,15.2392,2.8467,8.6972,-6.6122,21.1749,7.0090,-2.0927,-11.9477,8.3020,1.4294,10.1255,-9.4686,14.7538,5.8029,-5.7315,-6.4672,19.6604
2843.7500,4.1590,7.3545,12.1573,3.0196,8.4839,-8.1717,16.8843,4.6050,-8.9245,-12.1237,5.1250,1.6127,8.7679,-6.4956,10.4605,6.2996,-7.0457,-7.7663,20.0979
2847.6562,6.7671,3.1385,7.6538,1.9706,5.7869,-4.4989,10.4760,2.5166,-13.2046,-8.1450,0.5899,3.6882,7.1852,-2.3911,11.0574,8.8050,-4.7721,-8.7696,18.2682
2851.5625,10.2367,-0.9994,1.6754,-0.7377,1.6066,3.9404,3.3398,-0.2201,-13.2011,-0.2690,-2.1896,7.3328,5.3025,0.8560,15.0680,12.3972,-1.2383,-8.9711,13.7094
2855.4688,12.5856,-3.7763,-4.8351,-4.6626,-2.8620,13.8745,-2.5590,-4.2794,-10.2101,8.0892,-1.2436,10.9065,2.8189,1.5898,18.4289,14.8394,0.4751,-8.3191,7.3258
2859.3750,11.1512,-4.2810,-10.2101,-8.5304,-6.8436,20.7278,-5.3248,-8.9822,-7.8508,12.5333,2.5928,12.1787,-0.7071,-0.3441,17.6136,14.1814,-1.6117,-7.3187,0.9124
2863.2812,4.5880,-2.2645,-12.9351,-10.9037,-10.0601,21.3409,-4.1123,-12.3431,-9.4443,10.8911,6.0317,9.6953,-5.5333,-3.5376,12.3717,10.2484,-7.3640,-6.6764,-3.9050
2867.1875,-5.6284,1.8106,-12.5575,-11.0328,-12.4595,16.0659,0.2251,-12.3765,-15.4501,4.9003,5.4921,3.8673,-11.3330,-6.0690,5.9249,4.8773,-14.8175,-6.7751,-6.5490
2871.0938,-15.5811,6.8470,-9.9829,-9.2838,-14.0172,8.6720,5.4188,-8.7466,-22.9775,-1.0050,-0.4342,-3.0467,-17.0429,-6.7934,2.4462,0.7140,-21.3756,-7.3966,-7.5715
2875.0000,-21.0906,11.3248,-6.9382,-6.8399,-14.8242,4.0089,8.9531,-3.4702,-27.8012,-2.8683,-9.9115,-8.1356,-21.2091,-5.8894,3.7902,-0.5288,-25.1004,-7.8858,-7.9567
2878.9062,-20.1384,13.7689,-4.9879,-4.9149,-15.2820,5.0044,9.3570,-0.0096,-27.3408,0.1616,-18.8822,-9.4311,-22.7318,-4.3546,8.0531,0.9316,-25.4415,-7.5860,-8.2734
2882.8125,-13.7726,13.4555,-4.7860,-4.0557,-16.0517,11.0446,6.7305,-1.2533,-22.3062,5.7721,-23.4231,-6.8356,-21.5549,-3.0124,11.1116,3.3724,-23.2160,-6.1704,-8.3733
2886.7188,-4.9580,11.0145,-6.0062,-3.9900,-17.6357,18.7450,2.2222,-7.6983,-15.7931,10.8760,-21.8451,-1.8297,-18.7787,-1.9206,9.9432,4.9851,-20.0571,-3.6311,-7.8175
2890.6250,3.5348,8.3903,-7.8483,-4.0182,-19.8846,24.3648,-2.9811,-17.0236,-10.6666,14.3124,-15.2700,3.6862,-16.0345,-0.6275,5.1150,5.1450,-17.6779,-0.0321,-6.5676
2894.5312,10.4673,7.8886,-9.6248,-3.5534,-21.9055,26.0207,-8.2551,-25.3111,-7.4207,17.5305,-6.5713,8.4712,-14.4999,1.0688,0.4610,4.5863,-17.2190,4.6311,-5.2627
2898.4375,15.8124,10.6952,-10.9975,-2.3979,-22.5780,24.2103,-13.3032,-29.1273,-4.2466,22.7138,1.3584,12.1876,-14.2358,2.6314,0.1642,4.4738,-18.8445,10.2228,-4.8002
2902.3438,19.4408,15.8167,-11.8470,-0.6563,-21.3622,20.6040,-17.5195,-27.2253,0.8353,30.0623,6.8073,14.8308,-14.3215,3.0712,5.4782,5.2452,-21.6928,16.0479,-5.5879
2906.2500,20.3289,20.3282,-12.0973,1.4816,-18.7558,16.3891,-19.8073,-20.9853,7.6628,36.7426,9.3482,16.0560,-13.6639,1.7905,13.6021,6.2242,-24.2297,20.6732,-7.1528
2910.1562,17.2127,21.0055,-11.7789,3.8123,-15.9703,11.6075,-19.2798,-13.5170,13.4824,38.6398,9.1948,15.1429,-11.8436,-0.7489,19.5525,6.2977,-24.9094,22.3704,-8.4909
2914.0625,10.1228,16.3900,-11.2520,6.0134,-14.0094,5.8805,-16.3258,-8.0481,14.8451,33.6218,6.6038,11.6908,-9.3443,-3.1446,19.5938,5.0220,-22.8695,20.0886,-8.8820
2917.9688,1.2504,7.8751,-11.2364,7.5864,-12.8639,-0.3750,-12.9644,-6.4531,10.3501,23.6200,1.8338,6.3906,-7.0271,-3.9184,13.6697,3.1528,-18.3086,14.3402,-8.4691
2921.8750,-5.9437,-1.0328,-12.4095,8.0544,-11.5081,-5.5592,-11.8458,-8.5614,1.9789,13.6658,-4.4849,1.0515,-5.3441,-2.4718,5.1426,2.0886,-12.3421,7.2653,-8.0951
2925.7812,-8.8965,-6.8700,-14.7885,7.3332,-8.7717,-7.8558,-14.4119,-12.4523,-6.1225,8.4746,-11.1231,-2.3610,-3.9972,0.5894,-1.7558,2.6568,-6.4314,1.6115,-8.5480
2929.6875,-7.6427,-8.3364,-17.4546,5.9267,-4.4400,-6.7958,-19.6212,-15.5352,-10.4973,9.2089,-16.5570,-3.0548,-2.3578,3.9581,-4.7101,4.2606,-1.7381,-0.8484,-9.8977
2933.5938,-4.5326,-6.9137,-19.0241,4.6583,0.3138,-4.0197,-24.4048,-15.9020,-10.6288,12.9648,-19.6555,-2.0791,-0.2766,6.5099,-4.3278,5.1502,1.2316,-0.4317,-11.5262
2937.5000,-2.1025,-5.5796,-18.6549,4.0488,3.5834,-2.4197,-25.7103,-13.3009,-8.8544,15.3431,-20.2137,-1.7256,1.4738,7.8733,-2.9201,3.6692,2.5692,0.6400,-12.8172
2941.4062,-0.8864,-6.5912,-16.8154,3.8374,4.0528,-4.1710,-22.6491,-9.1906,-8.1179,13.9763,-18.9041,-4.0081,1.6180,8.3371,-2.3625,-0.4760,2.6669,-0.2839,-13.8350
