Time,Fp1,F3,C3,P3,O1,F7,T3,T5,Fz,Fp2,F4,C4,P4,O2,F8,T4,T6,Cz,Pz
0.0000,21.5294,12.1592,10.0389,2.8985,-0.6578,13.1092,7.6982,-0.9395,11.8800,19.8762,13.2518,10.0519,2.1871,1.9191,12.9527,2.8176,2.5122,7.6592,4.8062
3.9062,23.8577,13.5689,11.9699,5.3868,1.9913,14.7097,10.3211,2.1772,12.9866,20.4414,12.1481,10.2970,4.0039,3.2141,11.1197,-0.3394,2.4532,9.6827,6.3949
7.8125,26.6636,15.1097,13.6881,8.0602,5.0770,16.4587,13.5546,5.8180,13.9495,20.8312,10.3375,9.0021,5.6700,4.4357,9.0955,-5.0111,1.4571,11.8758,7.9141
11.7188,28.5534,15.9629,14.3121,9.8518,7.4485,17.4741,16.8195,9.0031,14.2345,20.8554,8.7416,5.6457,6.2559,4.8237,7.8366,-9.1046,-0.5471,13.2720,8.6117
15.6250,28.3297,15.4567,13.2498,9.9976,8.1819,17.0452,19.3145,10.9025,13.5493,20.4852,8.3549,0.6927,5.2501,3.8935,7.8895,-10.5242,-2.9969,13.0637,7.9778
19.5312,25.7550,13.4865,10.4891,8.4729,7.1169,15.0804,20.0833,11.1404,11.9634,19.7555,9.4068,-4.3767,2.9494,1.7893,8.9092,-8.7590,-4.8618,11.0467,6.0587
23.4375,21.7618,10.6008,6.5948,5.9986,4.9380,12.2318,18.2756,9.8799,9.7645,18.6005,10.8982,-7.6990,0.3879,-0.7058,9.7664,-5.4635,-5.1453,7.7400,3.4873
27.3438,17.8972,7.6362,2.3983,3.5848,2.7262,9.5524,13.5890,7.6977,7.1522,16.7830,10.9605,-8.0615,-1.2148,-2.5406,9.2362,-3.4104,-3.4763,4.0781,1.1696
31.2500,15.3040,5.1022,-1.4601,1.8885,1.2698,7.8304,6.6483,5.3268,4.0064,14.0045,7.9347,-5.7531,-1.1836,-2.9457,6.8094,-4.4419,-0.4587,0.8489,-0.2295
35.1562,13.9029,2.7398,-4.8731,0.8048,0.5995,6.9950,-1.0158,3.3681,-0.0570,10.1337,1.5146,-2.6556,0.1496,-1.8378,3.0474,-7.9268,2.4525,-1.7615,-0.7136
39.0625,12.3716,-0.3812,-8.2754,-0.4181,0.0707,6.0210,-7.5385,2.0742,-5.3308,5.3858,-6.8311,-1.3831,1.5717,0.1582,-0.7900,-10.9826,3.5526,-4.2088,-1.0170
42.9688,9.0198,-5.1953,-12.2782,-2.5800,-1.0657,3.5016,-11.6052,1.3019,-11.5807,0.3146,-14.5133,-3.8521,1.6735,2.0745,-3.5782,-10.4499,1.7285,-7.1656,-2.2080
46.8750,3.0477,-11.7898,-17.1160,-5.8183,-3.0017,-1.3662,-13.1125,0.6897,-17.8498,-4.3816,-19.1973,-10.0631,-0.2839,3.1248,-5.0109,-5.2439,-2.8535,-10.9017,-5.0069
50.7812,-4.6473,-18.9499,-22.2439,-9.2641,-5.0927,-7.9773,-13.1293,0.0038,-22.7094,-8.1146,-20.0391,-17.8415,-3.8337,3.0871,-5.6365,2.6651,-8.5840,-14.8864,-9.1999
54.6875,-11.7199,-24.4973,-26.3782,-11.3455,-6.1685,-14.2870,-13.1160,-0.5434,-24.8808,-10.5701,-18.0103,-23.7822,-7.4385,2.3441,-6.2566,9.4174,-12.9484,-17.9130,-13.5226
58.5938,-15.6292,-26.3346,-28.0386,-10.6203,-5.2401,-17.7325,-13.8899,-0.2555,-23.8958,-11.7246,-15.1452,-24.9566,-9.2486,1.6023,-7.1920,11.7585,-13.6224,-18.7101,-16.1573
62.5000,-15.1552,-23.6249,-26.3336,-6.6656,-2.1351,-16.6814,-15.0441,1.6803,-20.3984,-11.7684,-13.2575,-20.4695,-8.0716,1.4829,-8.0175,9.0414,-9.6620,-16.6880,-15.6288
66.4062,-11.2090,-17.3867,-21.5345,-0.4779,2.3551,-11.5577,-15.2428,5.5738,-15.8733,-11.0260,-12.9734,-11.9944,-4.0132,2.2230,-7.9774,3.3205,-2.1775,-12.3565,-11.6177
70.3125,-6.3633,-10.0889,-15.0516,5.9072,6.9013,-4.8765,-13.2073,10.7641,-11.9217,-9.9004,-13.6401,-2.9623,1.5669,3.6245,-6.7250,-2.3938,5.9606,-7.1379,-5.2095
74.2188,-3.3335,-4.4251,-8.7581,10.4030,10.3513,-0.0187,-8.6997,15.7074,-9.4723,-8.7946,-14.0171,3.1748,6.7505,5.2295,-4.7443,-6.2512,11.3850,-2.6636,1.6091
78.1250,-3.3353,-1.9501,-4.0182,11.9265,12.2763,0.6331,-2.8049,18.7049,-8.3672,-7.9653,-13.1544,4.6702,10.0136,6.5833,-3.0551,-8.3802,11.9080,0.0473,6.9493
82.0312,-5.3621,-2.3627,-0.9932,10.9134,13.0353,-2.8864,2.6978,18.8884,-7.5482,-7.3567,-10.8385,2.2728,10.9119,7.4300,-2.3985,-9.8980,7.7224,1.0571,9.9495
85.9375,-6.8643,-3.8348,1.3267,8.9917,13.3734,-8.0514,6.4286,16.8182,-5.7364,-6.5612,-7.4283,-1.3237,10.1404,7.7554,-2.5652,-11.1507,1.3878,1.3662,11.0825
89.8438,-5.4256,-4.1708,4.3560,8.0009,13.8549,-11.2342,8.1989,14.2118,-2.2233,-5.0320,-3.4024,-3.0438,8.9739,7.6914,-2.4718,-10.8756,-3.5071,2.2557,11.6581
93.7500,-0.3886,-2.1041,8.8720,8.9251,14.5016,-9.7825,8.9608,12.8818,2.6553,-2.5039,0.8915,-1.1380,8.4394,7.3648,-1.0179,-7.1818,-4.3280,4.4970,12.8338
97.6562,6.5928,2.0107,14.3522,11.3530,14.8298,-3.5668,9.9871,13.5314,7.6121,0.6225,5.0765,3.8783,8.7069,6.7887,1.8888,0.3762,-0.8953,7.8679,14.7650
101.5625,12.4138,6.4634,19.1331,13.7634,14.2119,4.9095,11.8859,15.2257,11.0074,3.2391,8.4217,9.5315,9.0433,5.8548,4.9658,9.4376,4.4157,11.2289,16.4460
105.4688,14.2466,9.1965,21.3167,14.4452,12.3069,11.8790,14.1423,15.9542,11.6392,3.9690,9.8167,12.7381,8.3393,4.4279,6.2307,15.5956,8.0780,13.0997,16.3614
109.3750,11.0742,8.9417,19.8826,12.5075,9.3073,14.3203,15.4786,13.9716,9.3256,1.9027,8.2793,11.4525,5.8859,2.4876,4.3262,15.0457,7.5009,12.4220,13.5400
113.2812,4.1359,5.8532,15.3311,8.4024,5.8921,11.4356,14.7527,9.0509,5.0026,-2.7965,3.7338,5.7408,1.9354,0.2379,-0.4361,7.2914,2.5418,9.1207,8.3357
117.1875,-3.8900,1.3430,9.4744,3.6932,2.9520,4.8195,11.7783,2.8074,0.3095,-8.8166,-2.5474,-2.2568,-2.2928,-1.8876,-6.1010,-4.1618,-4.4651,4.1933,2.4195
121.0938,-10.3662,-2.7145,4.5150,0.2366,1.2409,-2.6321,7.5480,-2.1452,-3.1224,-14.2476,-8.3113,-9.4126,-5.1817,-3.3434,-10.2128,-13.8079,-10.1355,-0.6987,-2.0414
125.0000,-13.9098,-4.9242,1.9612,-0.7423,1.1055,-8.3048,3.7596,-3.6736,-4.3370,-17.4586,-11.4204,-13.1480,-5.5518,-3.6728,-11.3168,-17.5278,-11.9835,-3.9367,-3.5291
128.9062,-14.6987,-4.9608,1.9834,0.8098,2.3764,-11.0025,1.9546,-1.3054,-3.3802,-17.8040,-11.0296,-12.6155,-3.2955,-2.6961,-9.7853,-14.9880,-9.6783,-4.6224,-1.9596
132.8125,-13.8789,-3.5600,3.5053,3.8513,4.4406,-11.1151,2.7432,3.5960,-1.1700,-15.7830,-8.0610,-8.9519,0.5429,-0.5948,-7.4076,-9.3856,-4.9162,-2.9345,1.3423
136.7188,-12.6411,-2.0046,4.8811,6.8238,6.4665,-9.9504,5.4655,8.6901,0.9820,-12.6386,-4.6340,-4.5426,4.2832,2.1507,-6.0721,-4.8292,-0.1471,-0.0204,4.4250
140.6250,-11.6315,-1.4427,4.7183,8.3756,7.7126,-8.8215,8.3890,11.9340,1.9399,-9.7209,-2.8162,-1.7497,6.4346,4.9365,-6.5074,-3.3687,2.8954,2.5074,5.7487
144.5312,-10.9968,-2.4069,2.4120,7.8737,7.8098,-8.4737,9.3347,12.4800,1.1318,-8.0159,-3.5170,-1.8007,6.3804,7.2306,-7.9831,-3.8659,3.9059,3.2398,4.8709
148.4375,-10.8495,-4.7372,-1.7877,5.5185,6.8947,-9.0702,6.5237,10.7563,-1.3822,-8.0354,-6.2230,-4.3810,4.5720,8.7036,-9.1389,-3.4329,3.6480,1.5122,2.4451
152.3438,-11.6518,-7.8636,-7.0692,2.1111,5.5135,-10.5315,-0.6115,7.8822,-5.1163,-9.9543,-9.6529,-8.0453,2.1719,9.2582,-9.2657,-0.1947,2.9956,-2.3969,-0.3559
156.2500,-14.1349,-11.2136,-12.4564,-1.3368,4.3299,-12.8416,-10.9491,4.9438,-9.4518,-13.7220,-12.7618,-11.1167,0.3915,8.9883,-9.0244,4.8320,2.2074,-7.4568,-2.5513
160.1562,-18.7758,-14.4720,-17.1001,-3.9527,3.7891,-16.0636,-21.8106,2.6115,-13.8287,-18.9746,-15.3281,-12.5268,-0.0929,8.1260,-10.0096,8.2147,0.9674,-12.3390,-3.7559
164.0625,-25.2173,-17.5518,-20.4035,-5.2091,3.9301,-20.0941,-29.8135,1.1997,-17.7618,-24.8447,-17.7406,-12.1730,0.6496,7.0020,-13.4354,6.5813,-0.9488,-15.9096,-4.1112
167.9688,-32.0919,-20.3452,-22.0428,-4.9833,4.4526,-24.4021,-32.2165,0.9114,-20.7689,-29.9523,-20.2585,-10.7151,2.0095,5.9959,-18.9086,-0.7617,-3.0370,-17.5609,-3.9210
171.8750,-37.4545,-22.4874,-21.9645,-3.5242,4.9759,-28.0061,-28.1861,1.9274,-22.3685,-32.7914,-22.4340,-9.0631,3.2606,5.4313,-24.2465,-11.0012,-4.0772,-17.2937,-3.3403
175.7812,-39.6379,-23.3690,-20.3909,-1.3729,5.2899,-29.7780,-19.3164,4.2237,-22.2420,-32.4357,-23.2503,-7.9273,3.9161,5.4101,-26.5984,-19.3679,-2.8791,-15.5942,-2.3575
179.6875,-38.0783,-22.4673,-17.8049,0.7510,5.4070,-28.9492,-9.0323,7.2990,-20.4928,-29.1754,-21.9333,-7.6581,3.8364,5.6635,-24.2163,-21.9528,0.7601,-13.2116,-1.0434
183.5938,-33.6688,-19.8176,-14.8783,2.1002,5.3822,-25.5722,-1.0937,10.1153,-17.8024,-24.6304,-18.8194,-8.3470,3.1009,5.5453,-17.7366,-17.8745,5.6139,-10.9365,0.1910
187.5000,-28.4476,-16.2941,-12.3339,2.0853,5.0698,-20.6931,2.0536,11.4075,-15.2953,-21.1418,-15.5401,-9.9769,1.8134,4.2578,-10.0984,-9.4807,9.4862,-9.4161,0.6011
191.4062,-24.7572,-13.4279,-10.7706,0.4570,4.0642,-16.1024,0.2262,10.2376,-14.0914,-20.6776,-14.2386,-12.4317,0.0168,1.2670,-5.0760,-0.6979,10.3301,-9.0085,-0.5421
195.3125,-24.2525,-12.7541,-10.4939,-2.5726,1.9493,-13.7037,-4.7069,6.4808,-14.7558,-23.8247,-16.2400,-15.3607,-2.2259,-3.2838,-5.2614,5.1848,7.3389,-9.6851,-3.4490
199.2188,-27.1883,-15.0045,-11.3986,-6.3288,-1.2687,-14.7148,-9.9795,0.9665,-16.9683,-29.4364,-21.0475,-18.0662,-4.6764,-8.4197,-10.6668,6.8885,1.3605,-11.0239,-7.4890
203.1250,-32.2999,-19.6136,-12.9548,-9.8250,-4.8721,-19.0409,-13.3110,-4.7967,-19.6498,-35.1602,-26.3929,-19.6110,-6.8527,-12.6027,-18.7270,5.1039,-5.5554,-12.3437,-11.3034
207.0312,-37.3471,-24.8784,-14.3449,-12.0443,-7.5792,-25.1559,-13.7705,-9.1554,-21.5186,-38.5799,-29.4139,-19.1851,-8.1473,-14.3681,-25.6529,1.5060,-11.1365,-12.9714,-13.3581
210.9375,-40.1159,-28.7442,-14.7588,-12.2744,-8.1535,-30.6464,-11.7908,-10.8645,-21.7775,-38.3732,-28.2959,-16.5559,-8.0964,-13.0432,-28.3436,-2.2542,-13.8164,-12.5456,-12.6709
214.8438,-39.4520,-29.8108,-13.7680,-10.3812,-6.1562,-33.2545,-8.5526,-9.4656,-20.5379,-34.8911,-23.3895,-12.3179,-6.6486,-9.1658,-25.8255,-4.9925,-13.1888,-11.2018,-9.3315
218.7500,-35.8439,-28.0099,-11.6107,-6.9043,-2.3567,-31.9516,-5.2610,-5.4147,-18.7341,-29.8997,-17.1165,-7.7490,-4.2664,-4.3374,-19.5429,-5.9548,-9.9253,-9.5263,-4.5319
222.6562,-31.2413,-24.5882,-9.1997,-2.9181,1.5305,-27.4872,-2.7446,0.0418,-17.5873,-25.6772,-12.6965,-4.3123,-1.7836,-0.5351,-12.4963,-4.7721,-5.3756,-8.2865,-0.0763
226.5625,-28.1486,-21.4372,-7.7764,0.3096,3.7027,-22.0838,-1.4524,5.2102,-17.9453,-23.9679,-12.4230,-3.0555,-0.0785,0.7930,-7.7940,-1.6927,-1.1034,-8.0803,2.3907
230.4688,-28.4197,-20.1715,-8.3370,1.7364,3.2429,-18.4023,-1.6228,8.4521,-19.8785,-25.3109,-16.4621,-4.2162,0.2820,-0.6181,-7.3681,2.1177,1.5255,-9.0946,2.0655
234.3750,-32.3669,-21.4575,-11.1203,0.8828,0.6189,-18.3116,-3.3515,8.7269,-22.7326,-29.0032,-22.8256,-7.2103,-0.7380,-3.7938,-11.3797,4.6976,1.7013,-11.0854,-0.7379
238.2812,-38.6532,-24.8831,-15.4559,-2.0350,-2.6138,-22.1021,-6.4813,5.9801,-25.5466,-33.6029,-28.4859,-10.9580,-2.6505,-7.0871,-18.4125,4.0859,-0.5451,-13.5512,-4.8214
242.1875,-45.0052,-29.3161,-20.0755,-6.2062,-4.7327,-28.5049,-10.4673,1.1888,-27.5419,-37.6313,-30.9822,-14.3402,-4.6609,-9.0464,-26.1933,-0.5279,-4.2600,-15.9539,-8.6993
246.0938,-49.3276,-33.4408,-23.7166,-10.4963,-4.8227,-35.3995,-14.4368,-4.0016,-28.3914,-40.1095,-29.6309,-16.5566,-5.9933,-9.0964,-32.4484,-8.0394,-7.8398,-17.8511,-11.2486
250.0000,-50.5905,-36.1661,-25.6729,-13.7809,-3.2053,-40.7356,-17.5125,-7.9208,-28.1721,-40.7388,-25.7214,-17.2715,-6.1835,-7.6670,-35.5840,-15.6779,-9.6605,-18.9055,-12.1051
253.9062,-49.0480,-36.7882,-25.9928,-15.2452,-1.0817,-43.1752,-19.2463,-9.5104,-27.1273,-39.7693,-21.6562,-16.5703,-5.2306,-5.7438,-35.0493,-20.2722,-8.8167,-18.8597,-11.6516
257.8125,-45.7894,-35.0094,-25.2677,-14.5948,0.3349,-42.2551,-19.8832,-8.6637,-25.4681,-37.7462,-19.5616,-14.8322,-3.5589,-4.1683,-31.3783,-19.8557,-5.5702,-17.5876,-10.6668
261.7188,-42.0215,-30.9750,-24.2101,-12.1457,0.6015,-38.2218,-20.2565,-6.1326,-23.3636,-35.3063,-20.1485,-12.6094,-1.8201,-3.1524,-25.9603,-14.6701,-1.2224,-15.2462,-9.8681
265.6250,-38.5688,-25.3678,-23.3120,-8.7600,0.2302,-31.8344,-21.3239,-3.0884,-21.0792,-33.0736,-22.4327,-10.5359,-0.6272,-2.3092,-20.6003,-6.9761,2.5464,-12.4104,-9.6031
269.5312,-35.8188,-19.4308,-22.7522,-5.6001,0.1877,-24.2896,-23.5678,-0.5727,-19.0811,-31.5836,-24.4229,-9.2296,-0.3289,-1.1387,-16.9605,0.2016,4.5001,-10.0132,-9.8214
273.4375,-33.9665,-14.7339,-22.5002,-3.7224,1.1001,-17.1644,-26.5750,0.9031,-17.9408,-31.1534,-24.3535,-9.1499,-0.9088,0.4135,-16.0220,4.6460,4.3665,-9.0062,-10.2681
277.3438,-33.2077,-12.6425,-22.4305,-3.6347,2.7406,-12.1566,-29.0415,1.4619,-18.0315,-31.7158,-21.7400,-10.4193,-2.0300,1.7595,-17.7527,5.9357,2.7985,-9.8533,-10.7144
281.2500,-33.6538,-13.6873,-22.3193,-5.0238,4.1645,-10.5463,-29.2679,1.6618,-19.1985,-32.7421,-17.6559,-12.6749,-3.1858,2.0123,-21.1276,5.3340,0.8824,-12.1425,-11.0533
285.1562,-35.0511,-17.1864,-21.7721,-6.8438,4.3854,-12.5949,-25.9832,2.1083,-20.6567,-33.3943,-14.0809,-15.0511,-3.8819,0.6489,-24.5278,4.7141,-0.4506,-14.6040,-11.2230
289.0625,-36.6251,-21.3997,-20.2577,-7.7994,3.1038,-17.2713,-19.1488,3.0553,-21.2543,-32.9132,-12.7122,-16.3686,-3.7831,-1.9849,-26.3744,5.2050,-0.7682,-15.6183,-11.0731
292.9688,-37.3018,-24.2110,-17.3584,-7.0216,0.9636,-22.5694,-10.3199,4.1826,-20.0130,-31.0562,-13.9407,-15.5284,-2.7923,-4.7290,-25.7349,6.3889,-0.1242,-14.0037,-10.3382
296.8750,-36.2528,-24.0253,-13.1340,-4.5736,-0.8465,-26.3259,-2.2683,4.6940,-16.6521,-28.2976,-16.5912,-11.9962,-1.0612,-6.2504,-22.6455,6.5598,1.1667,-9.6631,-8.7890
300.7812,-33.3998,-20.4287,-8.3137,-1.4610,-1.3625,-27.1106,2.1127,3.7465,-11.7814,-25.6060,-18.5738,-6.1714,1.0575,-5.8763,-18.0225,3.9418,2.7384,-3.7081,-6.4635
304.6875,-29.4873,-14.2903,-4.0734,0.9123,-0.4465,-24.7123,1.1952,1.0429,-6.6207,-23.8734,-18.0572,0.5775,3.1090,-4.0566,-13.2282,-1.8326,4.2435,2.0466,-3.7795
308.5938,-25.6270,-7.2971,-1.4290,1.5609,1.1895,-20.0143,-4.3991,-2.7436,-2.3901,-23.3338,-14.4827,6.3145,4.6712,-2.1185,-9.5059,-8.9214,5.3295,5.9612,-1.3900
312.5000,-22.6209,-1.2148,-0.5989,0.5201,2.5236,-14.4392,-11.8271,-6.0437,0.2757,-23.3695,-8.8541,9.2704,5.4861,-1.4451,-7.5367,-13.8001,5.6486,7.3378,0.1644
316.4062,-20.5576,2.7353,-0.8008,-1.1638,2.9144,-9.3564,-17.2070,-7.0706,1.5372,-22.8836,-3.1821,8.5907,5.5258,-2.6068,-7.2861,-13.0328,4.9610,6.6452,0.7702
320.3125,-18.9860,4.1185,-0.7113,-2.0949,2.4383,-5.7581,-17.4550,-4.8379,2.0577,-21.0512,0.5500,4.7140,4.9439,-5.0211,-8.1636,-5.4048,3.2659,5.0850,0.7688
324.2188,-17.5271,3.1485,0.6260,-1.4622,1.6565,-4.2266,-11.8547,0.0483,2.4007,-17.9808,1.2980,-0.8524,3.9252,-7.3572,-9.3812,6.8452,0.8420,3.7737,0.6356
328.1250,-16.4321,0.3691,3.0169,0.3320,1.0365,-4.9979,-2.5136,5.3700,2.5215,-14.8355,-0.7216,-6.2725,2.5282,-8.4072,-10.3316,18.6049,-1.8561,3.0434,0.5189
332.0312,-16.6101,-3.6027,5.0107,1.7796,0.5149,-7.9392,6.5534,8.2170,1.7121,-13.2843,-4.3855,-10.2437,0.6439,-7.8333,-10.8237,24.2120,-4.3758,2.2886,-0.0047
335.9375,-19.0410,-8.1631,4.6308,1.0996,-0.4242,-12.4599,11.2368,6.4454,-0.9247,-14.5837,-8.3930,-12.5007,-1.8684,-6.3110,-11.0958,20.3916,-6.3943,0.4509,-1.7139
339.8438,-23.9698,-12.6957,0.5492,-2.6654,-2.2011,-17.5397,9.1063,-0.1077,-5.7562,-18.8334,-11.9230,-13.6950,-4.9428,-5.0125,-11.6266,8.1910,-7.7357,-3.1699,-5.1500
343.7500,-30.4764,-16.5816,-6.9931,-8.9376,-4.5613,-22.0159,0.3184,-9.3697,-12.1330,-24.8555,-14.8871,-14.7696,-8.1494,-4.8275,-12.8538,-7.2493,-8.3329,-8.2986,-10.0350
347.6562,-36.7821,-19.3332,-16.0992,-15.7254,-6.4765,-25.0398,-12.6321,-17.9350,-18.5025,-30.7605,-17.7272,-16.2688,-10.7827,-5.8614,-14.9398,-19.0677,-8.2374,-13.6693,-15.1525
351.5625,-41.1393,-20.8010,-24.0380,-20.5434,-6.7048,-26.4109,-25.9985,-22.6575,-23.1223,-34.8566,-20.9495,-18.0356,-12.2066,-7.5143,-17.6949,-21.9685,-7.7044,-17.6504,-18.8631
355.4688,-42.7383,-21.2914,-28.5186,-21.6380,-4.6811,-26.5249,-36.0925,-22.0779,-24.9733,-36.3764,-24.6805,-19.4582,-12.2564,-9.0097,-20.6843,-14.7003,-7.2453,-19.1380,-19.9984
359.3750,-42.0465,-21.4523,-28.7103,-18.8465,-1.1063,-25.9543,-40.3251,-16.9522,-24.3092,-35.6509,-28.4651,-20.0283,-11.4125,-9.9364,-23.4404,-0.4970,-7.4981,-18.1707,-18.5739
363.2812,-40.3888,-21.9284,-25.4898,-13.6351,2.2505,-24.9831,-37.7980,-9.6904,-22.4752,-33.7211,-31.3878,-19.7577,-10.5660,-10.4068,-25.6512,14.5934,-8.8795,-15.8773,-15.8341
367.1875,-39.0827,-22.9589,-20.8620,-8.3225,3.5086,-23.4818,-29.4920,-3.1200,-21.0790,-31.6965,-32.4520,-19.1278,-10.4732,-10.7641,-27.2139,24.4831,-11.2004,-13.7847,-13.5509
371.0938,-38.7118,-24.1702,-16.9463,-4.9367,1.8205,-21.2404,-18.0873,0.7182,-21.0168,-30.2546,-31.0559,-18.6229,-11.2339,-11.1277,-28.1413,25.5131,-13.5472,-12.9127,-12.9850
375.0000,-38.9747,-24.7268,-15.0829,-4.3164,-2.0403,-18.4794,-7.3366,1.1837,-21.9623,-29.5093,-27.3565,-18.2308,-12.1588,-11.1745,-28.4152,17.5969,-14.6231,-13.2173,-14.1552
378.9062,-39.1165,-23.7921,-15.4549,-5.8902,-6.0632,-16.0598,-0.9443,-1.0683,-22.6423,-29.2034,-22.3312,-17.3410,-12.1604,-10.3484,-27.9226,3.8286,-13.4411,-13.7214,-15.8719
382.8125,-38.5637,-21.0514,-17.2857,-8.1675,-8.1479,-15.1059,-1.1805,-4.6441,-21.7192,-29.0081,-17.4568,-15.1730,-10.4476,-8.3349,-26.5499,-10.9745,-9.9699,-13.2359,-16.5079
386.7188,-37.3033,-16.9865,-19.3839,-9.6015,-7.3069,-16.2303,-7.7989,-8.0281,-18.7160,-28.7149,-14.1092,-11.4620,-7.0874,-5.4260,-24.3811,-22.0713,-5.2945,-11.1999,-15.0176
390.6250,-35.7939,-12.7281,-20.7142,-9.3382,-4.1785,-18.9262,-17.9152,-10.0139,-14.3955,-28.2550,-12.9636,-6.9024,-3.0608,-2.4737,-21.8426,-26.3401,-1.1288,-8.1067,-11.5769
394.5312,-34.5614,-9.5535,-20.7570,-7.4964,-0.5552,-21.6573,-27.1207,-9.9242,-10.3666,-27.6213,-13.7270,-2.9919,0.2295,-0.4421,-19.6441,-23.1930,1.0652,-5.2546,-7.4799
398.4375,-33.8255,-8.3063,-19.5833,-4.9217,1.7392,-22.7038,-31.4270,-7.7080,-8.1806,-26.8084,-15.3778,-1.3177,1.6915,0.1366,-18.4908,-14.6525,0.8230,-3.9948,-4.4002
402.3438,-33.4198,-9.0519,-17.6976,-2.6394,1.9023,-21.2476,-29.0831,-3.9494,-8.4876,-25.8182,-16.7910,-2.7095,1.0644,-0.5640,-18.7040,-4.5174,-1.1584,-4.9511,-3.4880
406.2500,-32.9956,-11.1276,-15.7631,-1.3366,0.5035,-17.9455,-21.2945,0.2769,-10.7473,-24.6915,-17.3656,-6.7745,-1.0562,-1.8237,-19.9833,3.1943,-3.5104,-7.6820,-4.8242
410.1562,-32.2853,-13.5148,-14.3222,-1.1248,-1.0149,-14.5452,-11.4691,3.7616,-13.6128,-23.5011,-17.2496,-12.0818,-3.6357,-2.8283,-21.4800,5.9676,-4.9948,-10.9535,-7.4841
414.0625,-31.1988,-15.2946,-13.6079,-1.6322,-1.2991,-12.7593,-3.4547,5.6477,-15.6923,-22.2998,-17.0243,-16.8619,-5.7439,-3.0962,-22.1818,3.8670,-5.1129,-13.4193,-10.0970
417.9688,-29.7225,-15.9547,-13.5095,-2.3030,0.1186,-13.1470,0.2235,5.8065,-16.2146,-21.0845,-17.0991,-19.7984,-6.8912,-2.6281,-21.4266,-0.6696,-4.1981,-14.2888,-11.5410
421.8750,-27.7863,-15.4553,-13.6947,-2.7116,2.6375,-14.7708,-0.7853,4.8454,-15.2584,-19.8455,-17.2956,-20.4965,-7.0402,-1.7595,-19.2811,-4.3123,-3.0340,-13.6256,-11.4178
425.7812,-25.2986,-14.1239,-13.8195,-2.7457,5.0380,-15.8710,-4.9948,3.6913,-13.5248,-18.6877,-16.9819,-19.4524,-6.4177,-0.8957,-16.5878,-4.7965,-2.3265,-12.1807,-10.1293
429.6875,-22.3755,-12.5053,-13.7063,-2.6098,6.2059,-15.0954,-10.1749,2.9827,-11.8930,-17.9226,-15.6932,-17.6477,-5.3492,-0.3363,-14.6446,-2.1868,-2.3717,-10.9325,-8.6010
433.5938,-19.5678,-11.2345,-13.3900,-2.6852,5.6770,-12.4449,-14.4418,2.6680,-11.0456,-18.0036,-13.7700,-16.0443,-4.2183,-0.2605,-14.6472,1.3496,-3.0499,-10.6158,-7.8237
437.5000,-17.8226,-10.9015,-13.0219,-3.3221,3.7461,-9.2984,-16.7980,2.1010,-11.3048,-19.2768,-12.4546,-15.2251,-3.4785,-0.7789,-17.1233,3.1027,-4.0261,-11.4576,-8.4135
441.4062,-18.0726,-11.8568,-12.7251,-4.6429,1.1916,-7.5177,-17.0788,0.5875,-12.6395,-21.6733,-13.2416,-15.2770,-3.5672,-1.9232,-21.5950,1.6654,-4.9485,-13.1696,-10.3458
445.3125,-20.6466,-13.9916,-12.5271,-6.4318,-1.1356,-8.2485,-15.6488,-1.9888,-14.7288,-24.5654,-16.8321,-15.8841,-4.6784,-3.5449,-26.6376,-2.1785,-5.5371,-15.1275,-12.9559
449.2188,-24.8885,-16.6431,-12.4259,-8.1676,-2.6202,-11.2061,-13.2015,-4.9141,-17.0311,-26.9523,-22.4056,-16.5387,-6.5410,-5.2379,-30.3720,-6.0890,-5.6093,-16.6278,-15.2177
453.1250,-29.3029,-18.7826,-12.5199,-9.2167,-3.0004,-14.8786,-10.7260,-6.9794,-18.9003,-27.9396,-27.7919,-16.7832,-8.4215,-6.4293,-31.2572,-7.8233,-5.1417,-17.1429,-16.2063
457.0312,-32.2299,-19.4935,-13.0545,-9.1298,-2.3522,-17.4582,-9.4222,-7.2083,-19.7989,-27.2630,-30.5572,-16.4011,-9.4511,-6.6569,-28.8695,-6.7027,-4.3757,-16.5154,-15.5434
460.9375,-32.6920,-18.5179,-14.2897,-7.9045,-1.0318,-17.8682,-10.3385,-5.5001,-19.5629,-25.5209,-29.3869,-15.4853,-9.1172,-5.8752,-24.2683,-3.8734,-3.8412,-15.0316,-13.5925
464.8438,-30.9151,-16.5171,-16.2415,-6.0556,0.3973,-16.2570,-13.7842,-2.7475,-18.5604,-23.9223,-24.9027,-14.3402,-7.5976,-4.5501,-19.6539,-1.2566,-4.1652,-13.3160,-11.2695
468.7500,-28.1964,-14.8091,-18.4888,-4.4099,1.2907,-13.7370,-18.8741,-0.3349,-17.5851,-23.6385,-19.3729,-13.2584,-5.6770,-3.4198,-17.3482,-0.0529,-5.6833,-12.0493,-9.5448
472.6562,-26.1884,-14.6544,-20.2399,-3.6944,1.1341,-11.6353,-23.6253,0.6698,-17.4731,-25.1161,-15.4717,-12.3014,-4.2662,-3.0353,-18.5390,0.0443,-8.0805,-11.6198,-8.9097
476.5625,-26.0099,-16.4866,-20.6886,-4.1311,-0.2121,-10.7766,-25.7351,0.1172,-18.6265,-27.7650,-14.8318,-11.2389,-3.8296,-3.3795,-22.4882,0.3514,-10.3557,-11.8958,-9.1229
480.4688,-27.6843,-19.5684,-19.4696,-5.2791,-2.3650,-11.1950,-23.7163,-1.1922,-20.7283,-30.2363,-17.2446,-9.7113,-4.1011,-3.8432,-26.7586,1.8410,-11.2374,-12.2726,-9.3853
484.3750,-30.1846,-22.3158,-16.9122,-6.2361,-4.4881,-12.3273,-17.7709,-2.0315,-22.8379,-31.1559,-20.9273,-7.5193,-4.2675,-3.6064,-28.4827,4.0230,-9.8691,-11.9963,-8.8199
488.2812,-32.0046,-23.1237,-13.8914,-6.1013,-5.5925,-13.4385,-9.8626,-1.4652,-23.8310,-29.8931,-23.6125,-4.8380,-3.4837,-2.1945,-26.0334,4.9827,-6.3612,-10.5860,-6.9437
492.1875,-31.9064,-21.2028,-11.3364,-4.4403,-4.9567,-13.9627,-2.8759,0.6849,-22.9402,-26.9138,-23.7652,-2.1921,-1.3756,0.1538,-20.1054,2.6279,-1.8478,-8.1017,-3.8566
496.0938,-29.4611,-16.9480,-9.7028,-1.4939,-2.4687,-13.6083,0.7389,3.8558,-20.1078,-23.5135,-21.2473,-0.2098,1.7585,2.5510,-13.4696,-3.7096,2.0136,-5.1045,-0.0946
500.0000,-25.1760,-11.6645,-8.7575,1.9602,1.2667,-12.2978,0.1430,7.1363,-15.9920,-21.0941,-17.1670,0.6618,5.1017,3.9207,-9.4367,-12.4617,3.8145,-2.3595,3.6634
503.9062,-20.2377,-6.8846,-7.8236,4.9755,5.1118,-10.1148,-3.4967,9.7187,-11.6745,-20.4174,-13.1507,0.2688,7.6569,3.5613,-9.9025,-20.4129,3.0001,-0.4914,6.7905
507.8125,-16.0409,-3.7128,-6.3227,6.8014,7.7968,-7.3450,-7.5956,11.1323,-8.2456,-21.2577,-10.5309,-1.3616,8.5593,1.4716,-14.1829,-24.3487,0.0052,0.1990,8.7166
511.7188,-13.6851,-2.5369,-4.2386,7.0728,8.3914,-4.5397,-9.4295,11.2143,-6.4471,-22.6151,-9.8640,-4.1974,7.2752,-1.7261,-19.4043,-22.7260,-4.0652,-0.2925,8.8820
515.6250,-13.5752,-3.1347,-2.1816,5.8077,6.6778,-2.4444,-7.4768,9.9878,-6.4622,-23.3089,-10.8999,-8.2134,3.7427,-5.1636,-22.2443,-16.3593,-7.9455,-1.7911,6.8531
519.5312,-15.2229,-4.9525,-1.0061,3.3287,3.2877,-1.7157,-2.1799,7.6430,-7.8689,-22.5752,-12.8637,-13.1532,-1.4897,-8.1289,-20.9358,-7.7944,-10.6146,-3.9881,2.6602
523.4375,-17.3493,-7.3034,-1.2435,0.2131,-0.4722,-2.5424,4.2346,4.6454,-9.7524,-20.3470,-14.8185,-18.2205,-7.2028,-10.2496,-16.2592,0.1231,-11.4725,-6.3733,-2.8621
527.3438,-18.3390,-9.4215,-2.7344,-2.7358,-3.0811,-4.4217,8.7909,1.8000,-10.9817,-17.1419,-15.9557,-22.0289,-11.7050,-11.4071,-10.9057,5.5626,-10.3597,-8.1828,-8.0874
531.2500,-16.9553,-10.5044,-4.7036,-4.6076,-3.4073,-6.3040,9.1634,0.0669,-10.6201,-13.7232,-15.7683,-23.0211,-13.3889,-11.5318,-7.6592,8.1942,-7.5442,-8.5429,-11.1554
535.1562,-13.0256,-9.9098,-6.2153,-4.6706,-1.2133,-7.1009,4.7742,0.1151,-8.3415,-10.7862,-14.1244,-20.2288,-11.4785,-10.4983,-7.6195,8.7617,-3.7056,-6.8512,-10.8777
539.0625,-7.7079,-7.4917,-6.7001,-2.7447,2.6890,-6.2937,-2.9337,1.8667,-4.6472,-8.8159,-11.2522,-13.9375,-6.5501,-8.2294,-9.6304,8.2272,0.1758,-3.2049,-7.4613
542.9688,-3.0794,-3.8556,-6.2222,0.5719,6.7527,-4.2718,-11.1677,4.3958,-0.7120,-8.0833,-7.6445,-5.7901,-0.4206,-4.9275,-11.2403,7.1259,3.1076,1.4362,-2.5340
546.8750,-1.1549,-0.2662,-5.3539,4.0502,9.3721,-2.1655,-17.0581,6.3617,2.1250,-8.6506,-3.9138,1.8210,4.6608,-1.2265,-10.4866,5.4799,4.4814,5.5546,1.6414
550.7812,-2.8225,1.8635,-4.7886,6.3671,9.6035,-1.2396,-18.8941,6.7813,2.9810,-10.3085,-0.6650,6.7751,7.1134,1.9133,-7.2588,3.1661,4.3455,7.7476,3.3394
554.6875,-7.3188,1.6655,-4.9657,6.7663,7.5598,-2.1956,-16.7319,5.6482,1.8158,-12.5043,1.5645,8.0941,6.7667,3.5744,-3.3250,0.3402,3.3354,7.3949,2.2288
558.5938,-12.5957,-0.7151,-5.9143,5.4441,4.2708,-4.7915,-12.1309,3.9485,-0.6388,-14.3992,2.3227,6.2025,4.7808,3.3299,-1.0455,-2.4337,2.2576,4.9212,-0.6003
562.5000,-16.4013,-4.1752,-7.3312,3.3989,1.0998,-7.9954,-7.2348,3.0101,-3.3375,-15.1319,1.3073,2.5183,2.8162,1.5036,-1.6919,-4.4153,1.5945,1.5043,-3.4057
566.4062,-17.4376,-7.2055,-8.7508,1.8281,-0.9398,-10.5543,-3.7232,3.6071,-5.4478,-14.2008,-1.4602,-1.2885,2.0225,-0.9339,-4.5402,-5.0709,1.2932,-1.5556,-4.8121
570.3125,-15.9030,-8.6036,-9.6580,1.4636,-1.5783,-11.6182,-2.1635,5.4474,-6.6020,-11.7472,-5.4151,-3.9078,2.5213,-2.7999,-7.3475,-4.3122,1.0045,-3.3903,-4.4162
574.2188,-13.1317,-7.9371,-9.5217,2.2762,-1.2044,-11.0563,-2.0098,7.4285,-6.7641,-8.5418,-9.3782,-4.6142,3.6716,-3.2347,-7.8760,-2.4481,0.5830,-3.7242,-2.6645
578.1250,-10.6274,-5.5449,-7.8504,3.7106,-0.4176,-9.3347,-2.1388,8.4912,-5.9045,-5.6489,-11.8172,-3.1778,4.8274,-2.0466,-5.4239,0.0596,0.4162,-2.6476,-0.2334
582.0312,-9.1665,-2.1798,-4.3741,5.2215,0.4434,-7.1143,-1.5659,8.4393,-3.8199,-3.9411,-11.4379,0.2727,5.9471,0.3057,-1.3378,2.8102,1.2495,-0.2958,2.5329
585.9375,-8.5302,1.4143,0.6805,6.6729,1.4767,-4.8838,0.0236,8.0829,-0.2966,-3.7264,-7.8383,5.2518,7.5613,3.0463,1.8332,5.4728,3.5651,3.2437,5.6878
589.8438,-7.9421,4.7312,6.4067,8.2829,3.0013,-2.8517,2.1355,8.5426,4.4979,-4.6663,-1.8316,10.8335,10.1354,5.4916,1.9861,7.6159,6.9692,7.7124,9.2594
593.7500,-6.7877,7.4879,11.3446,10.1725,5.1364,-1.0947,3.7195,10.1954,9.7399,-5.9851,4.8144,15.7010,13.3551,7.2762,-1.1506,8.5665,10.1128,12.3823,12.7592
597.6562,-5.0522,9.4958,13.9738,11.9150,7.4960,0.2434,3.6726,12.0685,14.0926,-6.8254,10.1304,18.4746,15.9488,8.2829,-5.7781,7.5311,11.3245,16.0284,15.1016
601.5625,-3.2054,10.5851,13.3843,12.5150,9.2366,0.9174,1.3933,12.2300,16.2665,-6.5822,12.7779,18.2265,16.2656,8.3936,-9.0877,4.0402,9.6043,17.3426,15.0815
605.4688,-1.7367,10.6347,9.7675,10.9397,9.4554,0.7576,-2.8133,9.0299,15.6674,-5.1136,12.4993,14.8888,13.2622,7.3211,-8.9589,-1.4955,5.3100,15.6109,12.1129
609.3750,-0.7966,9.6423,4.4255,6.8899,7.7049,-0.1013,-7.6587,2.4076,12.7075,-2.8011,9.9823,9.2847,7.2346,4.7244,-5.2551,-7.5107,0.0339,11.2232,6.7095
613.2812,-0.2536,7.7418,-0.7536,1.2681,4.3164,-1.1653,-11.2231,-5.6528,8.5674,-0.4577,6.3233,2.7504,-0.2047,0.5816,0.0619,-11.6288,-4.2907,5.6372,0.3585
617.1875,-0.0632,5.1550,-4.1046,-4.0505,0.3386,-1.8055,-11.6864,-11.9258,4.5674,0.9293,2.4975,-3.4189,-6.8914,-4.4527,4.0568,-11.6416,-6.4721,0.7447,-5.1470
621.0938,-0.5367,2.1415,-4.8747,-7.0927,-2.8860,-1.6392,-8.1832,-13.6092,1.5525,0.5903,-0.8565,-8.3791,-11.1301,-9.0422,4.4989,-6.7262,-6.6246,-2.0253,-8.5051
625.0000,-2.1709,-0.9994,-3.4701,-6.8230,-4.2961,-0.8054,-1.3865,-9.8786,-0.3563,-1.6237,-3.3439,-11.8301,-12.3699,-11.6606,1.0997,1.7690,-5.8801,-2.3651,-9.3808
628.9062,-5.1047,-3.9057,-1.1821,-3.7259,-3.5616,0.0769,6.5304,-2.4095,-1.5774,-5.0543,-4.6867,-13.8581,-11.2199,-11.3724,-4.4028,10.5393,-5.5118,-1.1525,-8.3656
632.8125,-8.6565,-6.1995,0.4280,0.4148,-1.2077,0.2629,12.6416,5.4345,-2.6742,-8.4461,-4.8101,-14.7290,-8.9302,-8.4333,-9.3204,15.6351,-6.1164,0.0807,-6.5538
636.7188,-11.4259,-7.6449,0.1832,3.4171,1.6346,-0.6712,14.4477,10.2640,-4.0513,-10.5343,-4.1158,-14.7761,-6.7293,-4.2715,-11.5735,14.3371,-7.3873,-0.0478,-5.0372
640.6250,-12.0385,-8.3214,-2.2764,3.7731,3.7339,-2.5739,10.9485,10.2485,-5.8801,-10.7176,-3.6245,-14.3584,-5.3730,-0.7715,-10.7879,6.6424,-8.5295,-2.1219,-4.5488
644.5312,-10.0857,-8.6383,-6.4004,1.3255,4.2967,-4.8103,3.0957,5.8195,-8.1641,-9.3966,-4.6681,-13.7803,-5.0148,0.7574,-8.3027,-4.5019,-8.8965,-5.7218,-5.3099
648.4375,-6.5821,-9.0929,-10.9563,-2.7640,3.2992,-6.6273,-6.5900,-0.7540,-10.7712,-7.7271,-8.1356,-13.1367,-5.3015,0.2931,-6.1550,-14.4798,-8.3387,-9.6884,-7.0192
652.3438,-3.5423,-9.8962,-14.4833,-6.6636,1.4622,-7.5572,-15.0389,-6.5588,-13.3721,-6.9115,-13.7053,-12.2016,-5.5649,-0.9757,-5.7391,-19.2271,-7.0743,-12.6781,-8.9449
656.2500,-2.8848,-10.7581,-15.8324,-8.7537,-0.1256,-7.6286,-19.8071,-9.3268,-15.4115,-7.4874,-19.6594,-10.5433,-5.0692,-1.4845,-7.0156,-17.2456,-5.3324,-13.7428,-10.1515
660.1562,-5.3528,-11.0732,-14.6325,-8.3040,-0.5526,-7.2921,-19.9042,-8.2390,-16.2854,-9.0981,-23.5845,-7.9033,-3.3294,-0.3452,-8.7460,-10.3070,-3.1847,-12.7178,-9.8783
664.0625,-10.1332,-10.4580,-11.5039,-5.6736,0.4782,-7.1415,-15.9934,-4.0069,-15.7320,-10.8885,-23.6721,-4.6246,-0.4401,2.0833,-9.5335,-2.4322,-0.7506,-10.2925,-7.9570
667.9688,-15.3782,-9.2624,-7.8870,-2.0242,2.5479,-7.6032,-9.9831,1.6556,-14.1909,-12.2104,-19.8558,-1.7748,2.7802,4.4869,-8.9107,2.3066,1.4641,-7.7436,-5.0227
671.8750,-19.2362,-8.6028,-5.4882,1.2594,4.8051,-8.7498,-4.2445,6.8458,-12.7869,-13.0835,-14.0285,-0.7440,5.0357,5.5387,-7.7035,1.9410,2.5411,-6.4170,-2.3018
675.7812,-20.7245,-9.7516,-5.5379,3.1584,6.4564,-10.3049,-0.7600,10.2258,-12.7949,-14.0522,-9.1165,-2.4597,5.1938,4.8285,-7.4170,-2.4795,1.6637,-7.1396,-0.9969
679.6875,-19.9832,-13.2013,-8.1934,3.3847,7.1714,-11.8094,-0.4599,11.4519,-14.8246,-15.5624,-7.5098,-6.6907,3.0134,3.1324,-9.0793,-7.6894,-1.1109,-9.8083,-1.5878
683.5938,-17.9254,-18.0476,-12.4002,2.4046,7.1686,-12.8586,-2.9268,11.1537,-18.2534,-17.3827,-9.7691,-11.9330,-0.5163,1.8482,-12.3617,-10.2072,-4.4566,-13.3636,-3.4935
687.5000,-15.6580,-22.2080,-16.3186,1.1544,6.9676,-13.2912,-6.5626,10.5026,-21.3637,-18.5792,-14.3745,-16.0392,-3.5454,2.0198,-15.6037,-8.3391,-6.2529,-16.2052,-5.3544
691.4062,-14.0507,-23.4655,-18.1328,0.5936,7.0054,-13.2330,-9.2003,10.5690,-22.2151,-18.1220,-18.6362,-17.2716,-4.3258,3.6565,-16.7520,-3.0438,-4.8148,-16.8892,-5.8037
695.3125,-13.5654,-20.7468,-16.8607,1.2905,7.3848,-12.9610,-8.9975,11.7718,-19.7791,-15.6828,-20.2026,-15.1751,-2.2301,5.8167,-14.6041,2.7647,-0.1251,-14.7926,-4.2621
699.2188,-14.2109,-14.8353,-12.7846,3.1987,7.8963,-12.6607,-5.2869,13.6866,-14.6370,-12.0008,-18.2850,-10.7802,1.8056,7.3516,-9.5625,5.9636,5.8276,-10.4315,-1.2674
703.1250,-15.4981,-8.0538,-7.3284,5.6870,8.2367,-12.2421,0.9941,15.2994,-8.7840,-8.5083,-13.9522,-6.0642,5.7201,7.7210,-3.4572,4.9326,9.9836,-5.2885,1.8416
707.0312,-16.4677,-3.1053,-2.4753,7.7793,8.2141,-11.3778,7.5552,15.5476,-4.6307,-6.4733,-9.4268,-3.0306,7.4045,7.2639,1.3941,0.2671,9.9320,-1.2386,3.6555
710.9375,-15.9918,-1.7702,-0.0035,8.5004,7.7811,-9.7955,11.6551,13.8454,-3.7861,-6.2911,-6.8581,-2.9112,5.7882,6.7564,3.2761,-5.7891,5.3431,0.1673,3.3753
714.8438,-13.3964,-4.1908,-0.8385,7.2198,6.9215,-7.6490,11.2985,10.3282,-6.3131,-7.4260,-7.2550,-5.8147,1.3271,6.6534,1.7168,-10.6932,-1.8213,-1.7162,1.0885
718.7500,-9.1046,-9.0316,-4.7207,3.9181,5.5707,-5.6634,6.1883,5.7555,-10.8191,-8.9788,-10.0811,-10.8227,-4.3101,6.6647,-2.5354,-12.8605,-8.4571,-6.3727,-2.4031
722.6562,-4.7775,-14.2509,-10.2582,-0.6882,3.7196,-4.8440,-2.0294,1.2102,-15.2306,-10.3686,-13.6211,-16.3318,-9.0768,6.0403,-7.9838,-12.1629,-12.0654,-12.2461,-5.9698
726.5625,-2.6254,-17.9386,-15.3421,-5.2340,1.6537,-5.8386,-10.3744,-2.2098,-17.7472,-11.5621,-15.8616,-20.4652,-11.3888,4.3509,-12.9300,-9.5854,-11.9720,-17.2034,-8.4867
730.4688,-4.1318,-18.8276,-17.8337,-8.0649,0.0874,-8.3569,-15.7428,-3.6141,-17.4773,-12.7160,-15.4470,-21.5258,-10.5706,2.1141,-15.8762,-6.4717,-9.3099,-19.2257,-9.0268
734.3750,-8.9615,-16.4507,-16.3501,-7.8397,-0.0527,-11.1173,-16.1846,-2.5007,-14.5536,-13.6367,-12.2920,-18.5194,-6.8490,0.6826,-15.8166,-3.9049,-5.9360,-17.1479,-7.0157
738.2812,-14.8644,-11.1595,-10.8814,-4.1912,1.8128,-12.4940,-11.6860,1.0365,-9.8577,-13.6411,-7.5989,-11.6603,-1.1000,1.3656,-12.5351,-2.4891,-3.1501,-11.1923,-2.4616
742.1875,-18.7991,-4.1492,-2.9453,1.8782,5.3349,-11.5318,-4.1246,6.1265,-4.6266,-12.0562,-3.2775,-2.5902,5.4145,4.3725,-6.8673,-2.4085,-1.1156,-3.0333,3.8020
746.0938,-18.6632,2.6228,4.8867,8.1637,9.0923,-8.6587,3.5549,11.1555,-0.1289,-8.9916,-1.0230,5.9773,11.2460,8.3784,-0.6751,-3.4803,0.7370,4.7314,10.1016
750.0000,-14.5432,6.8733,9.9773,12.0498,11.1274,-5.5400,8.5516,14.1869,2.5688,-5.6926,-1.4947,11.2213,14.9827,11.1148,3.7026,-5.0884,2.7984,9.5651,14.3504
753.9062,-8.6647,6.8447,10.7090,11.6333,9.9545,-4.0796,9.2621,13.7085,2.8087,-4.0372,-4.0308,11.4134,15.5865,10.6656,4.4455,-6.1748,4.6734,10.0142,14.8601
757.8125,-4.0861,2.2297,7.1388,6.6299,5.4543,-5.2000,5.7411,9.3643,0.5317,-5.4115,-7.0902,6.7278,12.7755,6.6244,1.2047,-5.5598,5.3763,6.2697,11.1581
761.7188,-3.0059,-5.4279,0.8782,-1.4324,-0.9339,-8.2458,-0.5592,2.2331,-3.6465,-9.7510,-9.2037,-0.8329,7.2389,0.3381,-4.6140,-2.6231,4.1465,-0.0242,4.3209
765.6250,-5.7546,-13.2757,-5.7330,-9.8701,-6.8971,-11.4582,-7.5469,-5.5736,-8.5846,-15.4836,-9.8745,-8.4039,0.4863,-5.9095,-10.5388,2.0284,1.2002,-6.6030,-3.4356
769.5312,-10.9866,-18.4886,-10.6984,-16.0140,-10.4243,-13.2024,-13.3161,-11.8061,-12.9935,-20.4707,-9.8469,-13.5946,-5.6717,-10.1961,-14.3706,6.4708,-2.2131,-11.5851,-9.7283
773.4375,-16.7241,-19.6713,-13.1084,-18.2753,-10.7617,-13.0609,-16.6562,-14.9654,-15.8845,-23.2807,-10.5299,-15.4590,-9.7838,-11.8656,-15.3659,8.2551,-4.5395,-14.1082,-13.0132
777.3438,-21.4007,-17.4715,-13.2210,-16.5881,-8.5908,-11.9851,-17.1184,-14.7101,-16.8711,-23.8785,-12.9194,-14.6194,-11.2371,-11.4984,-14.5020,5.7762,-4.9212,-14.3334,-13.0925
781.2500,-24.2417,-14.0164,-11.9669,-12.1102,-5.3978,-11.3973,-14.8018,-11.6573,-16.1870,-23.2649,-16.7451,-12.6026,-10.3487,-10.1105,-13.6524,-0.5976,-3.7571,-12.9688,-10.9167
785.1562,-24.9876,-11.5421,-10.2904,-6.4929,-2.5191,-11.9432,-10.1479,-6.8551,-14.4643,-22.4289,-20.4618,-10.8983,-8.0894,-8.2797,-14.2353,-8.4386,-2.4360,-10.7351,-7.9063
789.0625,-23.5109,-11.1113,-8.7439,-1.1995,-0.5015,-12.8889,-3.9192,-1.3504,-12.4345,-21.4964,-22.1554,-10.3172,-5.6336,-5.8743,-16.2525,-14.4074,-2.4406,-8.1335,-5.2508
792.9688,-19.8480,-12.2176,-7.4904,2.8137,0.8844,-12.6793,2.7191,3.9264,-10.7072,-19.7701,-20.7930,-10.9143,-3.9492,-2.5243,-18.3508,-16.0043,-4.4301,-5.5612,-3.5498
796.8750,-14.6252,-13.4359,-6.5465,5.0735,2.1419,-10.2709,8.2595,8.0914,-9.6698,-16.5934,-16.9696,-12.3210,-3.5400,1.6399,-18.8172,-12.8495,-7.8643,-3.5184,-2.8611
800.7812,-9.3371,-13.5658,-5.9720,5.4662,3.5358,-6.2101,11.2343,10.3578,-9.4534,-12.2727,-12.6207,-14.1080,-4.3484,5.6693,-16.7810,-6.7036,-11.3285,-2.6005,-2.9544
804.6875,-5.9368,-12.4383,-5.8449,4.2166,4.9648,-2.5662,10.8152,10.3530,-9.9144,-8.2244,-9.8674,-15.9125,-5.7945,8.2344,-12.8025,-0.2781,-13.2699,-3.2058,-3.5227
808.5938,-5.7802,-10.8813,-6.1050,1.9453,6.2284,-1.6666,7.2714,8.4975,-10.6559,-6.1556,-9.7568,-17.3528,-6.9609,8.5275,-8.5032,4.3185,-12.6848,-5.1903,-4.2457
812.5000,-8.6408,-9.9896,-6.4850,-0.3898,7.3534,-4.5000,1.9231,6.0420,-11.1619,-6.8933,-11.7266,-17.9617,-6.9290,6.9325,-5.5722,6.4706,-9.4434,-7.8069,-4.7803
816.4062,-12.6479,-10.3137,-6.6511,-1.8077,8.6225,-9.9432,-3.4672,4.5379,-11.0545,-9.8029,-14.1146,-17.3252,-5.1928,4.9060,-4.8626,6.8075,-4.2351,-10.0630,-4.8021
820.3125,-15.3969,-11.5513,-6.4605,-1.7697,10.2474,-15.3933,-7.5253,4.9704,-10.3526,-13.2751,-15.3108,-15.3801,-1.9646,4.0919,-6.1320,6.2018,1.6985,-11.2893,-4.1270
824.2188,-15.5540,-12.8743,-6.0993,-0.4852,11.9894,-18.3704,-9.7926,7.1346,-9.5296,-15.8979,-14.7488,-12.6255,1.8341,5.2693,-8.4588,4.9059,6.8904,-11.5096,-2.8248
828.1250,-13.7832,-13.5379,-5.9491,1.2105,13.1195,-17.9641,-10.6352,9.7532,-9.2600,-17.3653,-13.0996,-10.0208,4.9579,7.8659,-10.9110,2.5098,9.9957,-11.3272,-1.2148
832.0312,-12.2196,-13.2791,-6.2734,2.3780,12.8441,-15.1421,-10.6802,11.3174,-9.9634,-18.3905,-11.6386,-8.5660,6.4283,10.3593,-12.9709,-1.3358,10.1707,-11.4118,0.2656
835.9375,-12.7852,-12.2749,-6.9979,2.5439,10.9104,-11.8017,-10.2769,11.0734,-11.4502,-19.7248,-11.3201,-8.8118,5.9900,11.2572,-14.5290,-6.1466,7.4091,-11.9877,1.2141
839.8438,-15.5702,-10.8299,-7.8076,1.8985,7.8990,-9.3600,-9.4314,9.4234,-12.9588,-21.1503,-12.2328,-10.6122,4.1535,9.9630,-15.6349,-10.5435,2.6510,-12.7260,1.3245
843.7500,-18.5472,-9.1561,-8.5172,0.9714,4.9105,-7.9497,-8.2334,7.4349,-13.6245,-21.3746,-13.7437,-13.2617,1.8046,6.9711,-16.3308,-13.0649,-2.5047,-13.1194,0.3513
847.6562,-18.9448,-7.4443,-9.3993,0.0486,2.8189,-6.7489,-7.3251,5.8476,-13.0930,-19.0197,-15.1012,-15.8928,-0.3477,3.3589,-16.7061,-13.2494,-6.4442,-13.0181,-1.9062
851.5625,-15.3507,-6.0931,-11.1370,-1.1741,1.6398,-5.0629,-7.8705,4.3825,-11.8413,-13.9609,-15.9706,-17.8491,-2.1086,0.0414,-17.0257,-12.0875,-8.2427,-12.8604,-5.4855
855.4688,-8.9976,-5.7689,-14.3379,-3.3736,0.5256,-3.2100,-10.8768,1.9484,-10.9341,-7.8914,-16.5094,-18.8144,-3.7112,-2.6446,-17.6772,-11.3780,-8.0255,-13.3650,-10.0354
859.3750,-3.2141,-7.1049,-18.9184,-6.9409,-1.5506,-2.4715,-16.3113,-2.3662,-11.3306,-3.5234,-17.0180,-18.6988,-5.4151,-4.7973,-18.8656,-12.3726,-6.7571,-14.8954,-14.6759
863.2812,-1.3323,-10.1947,-23.8367,-11.3930,-4.8885,-4.1381,-22.7432,-8.2803,-13.1967,-2.8883,-17.5336,-17.4664,-7.1268,-6.4911,-20.2751,-14.6972,-5.5831,-17.0004,-18.1573
867.1875,-4.4850,-14.2833,-27.4552,-15.3709,-8.6116,-8.4096,-27.9360,-14.1249,-15.7049,-5.9502,-17.7382,-15.1003,-8.3472,-7.4747,-21.0440,-16.4089,-5.1380,-18.5395,-19.3485
871.0938,-10.8366,-17.9790,-28.3724,-17.3256,-11.0592,-14.0169,-30.1024,-17.7084,-17.4909,-10.5840,-17.2376,-11.7389,-8.4907,-7.3157,-20.2007,-15.2469,-5.2440,-18.3678,-17.8175
875.0000,-16.7941,-19.9372,-26.2057,-16.4669,-10.8113,-18.8707,-28.9592,-17.6735,-17.4841,-13.9876,-15.9348,-7.8343,-7.3269,-5.8611,-17.3301,-10.2529,-5.1506,-16.1144,-14.1324
878.9062,-19.3517,-19.5920,-21.8079,-13.3082,-7.6694,-21.2680,-25.7814,-14.3696,-15.5677,-14.5377,-14.1504,-4.1331,-5.2027,-3.5851,-12.9992,-2.6219,-4.1065,-12.4841,-9.6385
882.8125,-17.9557,-17.4403,-16.7714,-9.3904,-2.9181,-20.7992,-22.3634,-9.5959,-12.6325,-12.7687,-12.3721,-1.4100,-2.8680,-1.4681,-8.5818,4.8527,-1.8697,-8.8311,-5.7996
886.7188,-14.6575,-14.6807,-12.5489,-6.3377,1.3367,-18.3693,-19.6379,-5.3928,-9.9956,-10.8096,-10.8491,-0.0803,-1.0223,-0.4266,-5.5383,9.4105,1.1468,-6.2738,-3.4812
890.6250,-12.5533,-12.4515,-9.7536,-4.8701,3.3512,-15.4213,-17.0200,-2.7553,-8.5714,-10.7472,-9.3815,0.0618,0.0971,-0.6900,-4.6112,9.9623,4.1131,-4.9530,-2.6008
894.5312,-13.6691,-11.1805,-8.0388,-4.4331,2.7181,-13.0035,-13.0331,-1.1786,-8.3288,-13.1420,-7.4945,-0.2065,0.8092,-1.5908,-5.4699,7.6602,6.1899,-3.9455,-2.3218
898.4375,-17.7417,-10.4497,-6.5408,-3.6710,0.5641,-11.3402,-6.7923,0.6879,-8.3599,-16.7452,-4.8680,0.1056,1.7200,-1.9434,-7.0278,5.0468,6.8484,-1.8943,-1.6209
902.3438,-22.6138,-9.4081,-4.5173,-1.3975,-1.1043,-10.1050,0.7939,3.8201,-7.4821,-19.5275,-1.6803,1.7220,3.2964,-0.7624,-8.1754,4.3644,5.9923,2.0614,0.1477
906.2500,-25.8106,-7.4043,-1.7599,2.5932,-0.4819,-9.0414,7.1129,7.9583,-4.9760,-20.1692,1.4017,4.7493,5.5714,2.1575,-8.4061,6.1309,3.9321,7.6571,3.0012
910.1562,-26.1188,-4.4140,1.3952,7.3808,3.1264,-8.3620,9.3135,11.7223,-1.0186,-18.8881,3.5759,8.6175,8.1480,6.1538,-7.9333,8.8786,1.3170,13.5558,6.4370
914.0625,-24.1312,-1.0337,4.3325,11.4673,8.9901,-8.6082,6.1966,13.5705,3.4051,-17.0695,4.3412,12.3195,10.4509,10.0949,-7.3021,10.1893,-0.9563,18.0198,9.7221
917.9688,-21.5517,1.8780,6.4414,13.6063,15.2851,-10.1150,-0.7981,12.8679,7.0102,-16.0918,3.7270,14.8162,12.0278,12.9443,-6.8660,8.3552,-1.9292,19.7798,12.1402
921.8750,-19.9112,3.6410,7.2673,13.3810,19.8290,-12.5371,-8.2461,10.2999,8.8293,-16.3021,2.2174,15.4310,12.7109,14.1259,-6.5449,3.6338,-0.9105,18.6123,13.1124
925.7812,-19.6404,4.0236,6.5659,11.2437,20.8852,-14.8319,-12.6428,7.3807,8.6209,-16.8842,0.4948,14.0847,12.5791,13.5438,-6.0074,-1.6664,2.1448,15.3623,12.2659
929.6875,-20.0482,3.2554,4.3731,8.1079,17.7647,-15.7489,-12.3191,5.4561,6.9034,-16.6184,-0.7962,11.2937,11.8012,11.3883,-5.0600,-4.3464,6.4354,11.4699,9.5460
933.5938,-20.0504,1.8494,1.1054,4.8283,11.0750,-14.5268,-8.1664,4.9012,4.6472,-14.8596,-1.1807,7.9370,10.4887,7.9624,-3.8753,-2.0923,10.5010,8.2882,5.3474
937.5000,-19.0167,0.3558,-2.4383,1.8786,2.5520,-11.3811,-2.8285,5.0047,2.7973,-11.9820,-0.4414,4.8773,8.6480,3.6577,-2.8594,5.1044,12.7952,6.5180,0.5194
941.4062,-17.1457,-0.8541,-5.3134,-0.6678,-5.5012,-7.5041,0.9616,4.5241,1.8488,-9.0331,1.2569,2.5902,6.2335,-0.9939,-2.2835,14.6808,12.3792,5.9831,-3.8767
945.3125,-15.2116,-1.7134,-6.8647,-2.9529,-11.0220,-4.5741,1.7653,2.4845,1.6655,-6.9787,3.2591,0.9796,3.2555,-5.3509,-2.0153,22.5991,9.3479,5.8103,-6.9996
949.2188,-13.9818,-2.4423,-7.0961,-5.1134,-12.9512,-3.9999,-0.2180,-1.2677,1.6243,-6.1672,4.5137,-0.5050,-0.1188,-8.8446,-1.6041,25.3019,4.7380,4.9264,-8.5985
953.1250,-13.7572,-3.3701,-6.6713,-7.1322,-11.6081,-6.2358,-3.7803,-6.0006,1.0255,-6.3648,3.9981,-2.4821,-3.5189,-11.2067,-0.6715,21.5415,-0.0242,2.6645,-9.0593
957.0312,-14.3027,-4.6612,-6.4716,-8.7961,-8.4701,-10.4801,-7.6211,-10.4486,-0.4439,-7.1868,1.3436,-5.1837,-6.4144,-12.5580,0.7090,13.1084,-3.7980,-0.8054,-9.0710
960.9375,-15.1144,-6.1090,-6.9846,-9.7533,-5.4391,-14.9448,-10.8642,-13.3409,-2.4635,-8.4488,-2.7369,-8.2109,-8.2619,-13.2671,1.9770,4.0144,-6.1400,-4.4726,-9.1387
964.8438,-15.7643,-7.1813,-7.9744,-9.6681,-3.9680,-17.6526,-13.0112,-13.8826,-4.2326,-10.1122,-6.6189,-10.6833,-8.7247,-13.6830,2.4701,-1.5034,-7.2647,-6.9777,-9.2982
968.7500,-16.0756,-7.3510,-8.7074,-8.4357,-4.4999,-17.4296,-13.6820,-12.0482,-4.9664,-11.9304,-8.5846,-11.7332,-7.8703,-13.9475,1.9704,-1.1260,-7.6659,-7.3856,-9.2336
972.6562,-16.0484,-6.5158,-8.5808,-6.3566,-6.4725,-14.5647,-12.5843,-8.6114,-4.4351,-13.2057,-7.8412,-11.0545,-6.2131,-14.0232,1.0033,4.4123,-7.7026,-5.7986,-8.6777
976.5625,-15.6248,-5.1676,-7.6557,-4.1200,-8.7916,-10.6721,-9.8003,-4.8658,-3.1637,-12.9750,-5.0469,-9.1501,-4.5274,-13.8720,0.6356,11.8166,-7.4180,-3.3842,-7.7440
980.4688,-14.4634,-4.0944,-6.6463,-2.5256,-10.4238,-7.7055,-6.0597,-2.0838,-2.1007,-10.5407,-1.8995,-7.0877,-3.4820,-13.5835,1.8704,17.0657,-6.6536,-1.7170,-6.8915
984.3750,-11.8794,-3.7490,-6.3386,-2.0493,-10.7674,-6.6431,-2.6016,-0.9219,-1.9316,-5.9198,0.0179,-5.8893,-3.2954,-13.3104,5.0306,17.5419,-5.3142,-1.7941,-6.5404
988.2812,-7.0360,-3.7494,-6.9055,-2.5355,-9.6981,-6.7103,-0.5848,-1.1048,-2.5140,0.1793,0.3588,-5.9417,-3.6377,-13.0668,9.5491,13.2737,-3.5634,-3.3675,-6.6720
992.1875,0.6354,-2.9861,-7.7189,-3.2818,-7.4391,-5.7909,-0.4546,-1.6484,-2.8938,6.8575,0.2717,-6.8178,-3.8784,-12.6159,14.3231,6.6668,-1.8212,-5.0993,-6.7900
996.0938,10.9373,-0.4162,-7.8891,-3.5442,-4.4655,-1.9325,-1.7866,-1.5705,-1.9886,13.5870,1.5270,-7.6387,-3.5496,-11.6223,18.4085,1.0015,-0.5943,-5.5139,-6.3394
1000.0000,22.5961,3.9337,-7.1569,-3.1596,-1.5015,4.9825,-3.7667,-0.6725,0.4722,20.3531,5.0706,-7.7321,-2.7226,-10.0100,21.5978,-1.3597,-0.2656,-4.1424,-5.2777
1003.9062,33.4109,8.5171,-6.3932,-2.8168,0.5378,12.6079,-5.9142,0.1725,3.4333,27.2427,10.0399,-7.1248,-2.0229,-8.2243,24.4787,-0.0576,-0.9647,-2.0415,-4.3087
1007.8125,40.9475,10.8593,-7.1850,-3.6891,0.8307,17.1872,-8.4103,-0.4778,4.8923,33.8384,14.0274,-6.5062,-2.2306,-7.1006,27.8988,3.3428,-2.5506,-1.2342,-4.5004
1011.7188,43.5470,8.9684,-10.6709,-6.5770,-0.8684,15.7906,-11.6890,-3.5775,3.0565,38.9859,14.5218,-6.6675,-3.7041,-7.3213,32.1488,6.3458,-4.6708,-3.3550,-6.4849
1015.6250,41.1312,2.6885,-16.4342,-11.1197,-3.8515,8.3191,-15.5966,-8.6685,-2.4230,41.2332,10.5990,-7.8105,-6.0132,-8.8033,36.3984,6.7582,-6.8452,-8.3842,-9.8049
1019.5312,35.2870,-5.9613,-22.3451,-15.6739,-6.5533,-2.1383,-18.8771,-13.7832,-9.9833,39.6898,3.6950,-9.2424,-8.0555,-10.5094,38.8171,3.5553,-8.5601,-14.3809,-12.9451
1023.4375,28.4579,-13.7969,-25.6283,-18.0688,-7.2429,-10.9792,-19.5894,-16.3650,-16.8505,34.6710,-3.1275,-9.7398,-8.6302,-10.9303,37.4322,-2.8561,-9.3853,-18.4983,-14.1273
1027.3438,22.6256,-18.2408,-24.5493,-16.8455,-4.9931,-14.7946,-16.3655,-14.7139,-20.5526,27.5977,-6.9956,-8.3918,-7.1395,-9.0111,31.3132,-10.8611,-9.1097,-18.7009,-12.3977
1031.2500,18.2414,-18.7053,-19.5943,-12.2092,-0.3255,-13.3424,-9.6806,-9.0635,-20.3174,20.1620,-6.9598,-5.3712,-3.9890,-4.9203,21.3953,-18.1358,-7.8458,-15.0809,-8.2851
1035.1562,14.0872,-16.6808,-13.2932,-6.0494,4.9465,-9.4703,-2.1325,-1.5834,-17.4626,13.3288,-4.5287,-2.0740,-0.4377,-0.1036,10.3617,-22.3060,-6.0277,-9.8881,-3.5676
1039.0625,8.1958,-14.5193,-8.7390,-0.9585,8.6615,-7.0570,2.6951,4.7350,-14.5249,6.8853,-2.6887,-0.4577,2.0236,3.4744,1.4782,-21.7238,-4.2664,-6.2150,-0.2786
1042.9688,-0.7306,-13.8192,-7.7551,1.1700,9.4869,-8.4029,2.2369,7.6516,-13.6967,-0.1552,-4.0820,-1.9452,2.4077,4.4380,-3.1079,-16.2135,-3.1049,-6.1588,0.4086
1046.8750,-12.3179,-14.5694,-9.9140,0.1066,7.5939,-12.8557,-3.4091,6.7781,-15.5857,-8.6227,-9.5167,-6.5751,0.6701,2.7390,-3.6874,-7.4519,-2.7973,-9.6301,-1.2865
1050.7812,-24.6025,-15.6135,-13.0278,-2.7609,4.4132,-17.5562,-11.3018,3.5905,-19.0744,-18.4496,-17.6915,-12.9497,-2.3709,-0.4399,-3.1034,1.3815,-3.2392,-14.5482,-4.0939
1054.6875,-35.1631,-15.9836,-14.7265,-5.4047,1.6681,-19.6752,-17.1736,0.4211,-22.3018,-28.6681,-26.1707,-19.0282,-5.5483,-3.5099,-5.4381,6.7602,-4.1030,-18.2490,-6.6134
1058.5938,-42.5664,-16.0005,-14.0244,-6.4078,0.3466,-18.4920,-17.8032,-0.9109,-24.0397,-38.1162,-32.8599,-23.2635,-7.9759,-5.4349,-13.8653,6.3504,-5.1026,-19.1625,-8.1608
1062.5000,-47.1825,-17.2234,-11.8348,-5.6981,0.2751,-15.8437,-12.8416,-0.0209,-24.5018,-46.2687,-37.0166,-25.3597,-9.4393,-6.1864,-28.8119,0.1593,-6.2175,-17.6811,-9.0028
1066.4062,-50.8453,-21.2328,-10.1629,-4.3618,0.4980,-14.7032,-4.9972,2.0418,-25.0571,-53.5218,-39.2673,-26.1869,-10.3510,-6.4562,-47.4835,-9.3922,-7.7047,-15.7160,-9.9027
1070.3125,-55.6017,-28.1506,-10.6107,-3.7465,0.1068,-16.9899,1.5311,3.6143,-27.0923,-60.6962,-40.8161,-26.9553,-11.3327,-6.9333,-65.0902,-18.6043,-9.8449,-15.3058,-11.3722
1074.2188,-62.3800,-36.0551,-13.2504,-4.4949,-1.1066,-22.2119,3.4449,3.5059,-30.8544,-68.1457,-42.5150,-28.2365,-12.6921,-7.7243,-77.1436,-24.2789,-12.5524,-17.2263,-13.1792
1078.1250,-70.4360,-41.8317,-16.6004,-6.1372,-2.5977,-27.8711,0.1580,1.6991,-35.0948,-75.1925,-44.4235,-29.5078,-14.1178,-8.3259,-81.5764,-25.2059,-15.1183,-20.4885,-14.4374
1082.0312,-77.8941,-42.9710,-18.6504,-7.4621,-3.5685,-31.2601,-6.0105,-0.7108,-37.7736,-80.3879,-46.0339,-29.5247,-14.7951,-8.1020,-79.5439,-22.5820,-16.3465,-22.9960,-14.1842
1085.9375,-82.9895,-39.1413,-18.2012,-7.3742,-3.5810,-31.3257,-11.3439,-2.2632,-37.3592,-82.4873,-46.8559,-27.2635,-13.9079,-6.8447,-74.5527,-19.1926,-15.1410,-22.8919,-12.0477
1089.8438,-85.1945,-32.5029,-15.6405,-5.6664,-2.8281,-29.3092,-13.0260,-2.1065,-33.8745,-81.4787,-46.8681,-22.7975,-11.2587,-4.9756,-70.5217,-17.8468,-11.2903,-19.7372,-8.5833
1093.7500,-85.5426,-26.5794,-12.7145,-3.2286,-1.9207,-27.8145,-10.8587,-0.6112,-29.0239,-78.9201,-46.5409,-17.5228,-7.6320,-3.2632,-69.9339,-19.8882,-5.9651,-14.8296,-5.1001
1097.6562,-86.0098,-24.4289,-11.5091,-1.5879,-1.4233,-29.0488,-7.3660,0.7726,-25.3384,-77.2887,-46.4948,-13.5706,-4.6232,-2.3152,-73.0499,-24.4948,-1.4854,-10.5272,-3.0936
1101.5625,-88.3920,-27.2279,-13.2960,-2.0668,-1.5196,-33.4667,-6.1904,0.3840,-24.8750,-78.7041,-47.1041,-12.7530,-3.9316,-2.2471,-78.4105,-29.0552,-0.2807,-9.0163,-3.5890
1105.4688,-93.3650,-33.9967,-17.8879,-5.0470,-2.0219,-39.6387,-9.7154,-2.5262,-28.2300,-83.8003,-48.3340,-15.6459,-6.4376,-2.7487,-84.0706,-30.4229,-3.4940,-11.2190,-6.6914
1109.3750,-100.2244,-42.4051,-23.7800,-9.7334,-2.6352,-45.2645,-17.3604,-7.1124,-34.3696,-91.4189,-49.8796,-21.3006,-11.5714,-3.4324,-88.6896,-26.4973,-10.0438,-16.3844,-11.5149
1113.2812,-107.3508,-49.9904,-28.9126,-14.5269,-3.2059,-48.5359,-25.6632,-11.1968,-41.2639,-99.2683,-51.4535,-27.6907,-17.3870,-4.1406,-91.8949,-17.4470,-16.8418,-22.4996,-16.5049
1117.1875,-113.0445,-55.0570,-31.6255,-17.7974,-3.7528,-48.9748,-30.2287,-12.4555,-46.8767,-105.1110,-52.9950,-32.6150,-21.4035,-4.9627,-93.9461,-5.9859,-20.2618,-27.2428,-20.0379
1121.0938,-116.2434,-56.9443,-31.3595,-18.6544,-4.3060,-47.3783,-28.4516,-9.8936,-49.9547,-107.7769,-54.6694,-34.5976,-21.8281,-5.9878,-95.1869,3.5566,-18.1550,-28.9945,-21.0853
1125.0000,-116.7979,-55.8267,-28.8273,-17.3301,-4.7533,-45.1212,-21.3462,-4.6907,-50.2798,-107.4811,-56.6768,-33.3982,-18.5110,-7.0449,-95.7677,7.1138,-11.2417,-27.4528,-19.6712
1128.9062,-115.2749,-52.4033,-25.6072,-14.9856,-4.8617,-43.3728,-13.2442,0.2241,-48.4066,-105.3919,-59.0028,-29.9715,-13.0724,-7.6874,-95.7521,2.9086,-2.9438,-23.6264,-16.8844
1132.8125,-112.4929,-47.6749,-23.3358,-13.0411,-4.4592,-42.6472,-9.3816,1.7620,-45.1597,-102.8130,-61.2537,-25.9478,-8.0818,-7.4569,-95.3301,-7.4201,2.4005,-19.2561,-14.3637
1136.7188,-109.0719,-42.7527,-22.8499,-12.3797,-3.5951,-42.7661,-12.7425,-1.4557,-41.2125,-100.4852,-62.6754,-22.8674,-5.7044,-6.2196,-94.7975,-19.3459,1.9778,-15.9559,-13.4440
1140.6250,-105.2010,-38.5700,-23.6994,-12.8500,-2.5157,-43.0700,-22.0936,-8.1030,-36.9265,-98.3434,-62.3760,-21.4780,-6.5599,-4.3038,-94.2401,-27.5728,-3.8544,-14.4769,-14.3891
1144.5312,-100.6838,-35.5328,-24.3355,-13.3541,-1.4637,-42.7065,-32.4974,-14.7247,-32.4454,-95.7512,-59.6980,-21.3942,-9.4329,-2.3285,-93.2229,-28.7250,-11.7537,-14.4406,-16.1702
1148.4375,-95.1897,-33.3437,-22.9644,-12.4948,-0.4861,-40.9363,-38.0800,-17.6177,-27.9032,-91.9817,-54.5966,-21.3137,-11.9992,-0.8525,-90.8626,-23.1143,-17.3442,-14.6673,-16.9924
1152.3438,-88.5643,-31.2199,-18.6570,-9.4357,0.5607,-37.4447,-35.3968,-14.9066,-23.5865,-86.6530,-47.8274,-19.7505,-12.1460,-0.1044,-86.3685,-14.5021,-17.7515,-13.9226,-15.3354
1156.2500,-81.0368,-28.4530,-12.0722,-4.4768,1.7945,-32.5666,-25.3322,-7.5521,-19.9419,-79.9153,-40.7740,-15.9602,-9.1325,0.0331,-79.6982,-7.9052,-13.1651,-11.6686,-10.9135
1160.1562,-73.2129,-24.9462,-5.2871,1.0104,3.0727,-27.2541,-12.3888,1.3138,-17.4140,-72.3507,-34.9050,-10.5361,-3.9385,-0.1774,-71.7800,-6.6966,-6.4843,-8.3824,-4.9559
1164.0625,-65.8427,-21.3094,-0.7281,5.2883,3.9781,-22.6910,-1.8851,8.2716,-16.1900,-64.6767,-31.0773,-5.2478,1.3660,-0.5476,-64.0181,-10.7233,-1.3326,-5.2405,0.4153
1167.9688,-59.4701,-18.3921,0.2180,7.2052,4.0940,-19.6983,3.1077,11.5157,-15.9891,-57.4094,-29.0676,-2.0860,4.8327,-1.0248,-57.3488,-16.5559,0.2456,-3.3480,3.3687
1171.8750,-54.1502,-16.5789,-1.9411,6.8350,3.3833,-18.2883,3.1650,11.6128,-16.0436,-50.6450,-27.6559,-2.0061,5.7123,-1.5789,-51.5353,-19.6635,-1.0699,-2.9918,3.3943
1175.7812,-49.4014,-15.4018,-5.0687,5.4086,2.3577,-17.7015,1.4801,10.7409,-15.3447,-44.0686,-25.2952,-4.1558,4.7840,-2.0593,-45.2911,-17.1291,-2.5664,-3.4085,1.5432
1179.6875,-44.4404,-13.8146,-6.6809,4.5593,1.8502,-16.9480,1.2658,11.0189,-13.0879,-37.1966,-21.0236,-6.1851,3.7807,-2.1827,-37.2471,-9.2488,-1.4978,-3.2469,-0.2726
1183.5938,-38.5855,-10.9733,-5.4710,5.3256,2.5013,-15.4994,3.4187,13.0641,-9.1137,-29.7400,-15.0726,-5.5927,4.2777,-1.6865,-27.1122,0.8566,2.9557,-1.4589,-0.4711
1187.5000,-31.6106,-6.9448,-2.1131,7.5130,4.3045,-13.6270,5.9962,15.6759,-4.0894,-21.8818,-8.7663,-1.3554,6.7106,-0.5223,-16.1591,9.2135,9.0327,1.9464,1.2698
1191.4062,-23.8521,-2.7805,1.1831,9.8090,6.5495,-12.1195,5.7589,16.7595,0.7209,-14.2774,-3.7319,5.2074,10.0997,1.0786,-6.5948,13.2253,13.4274,5.7881,3.9146
1195.3125,-16.0160,0.1560,2.0955,10.5970,8.2339,-11.5730,0.6449,14.8160,4.0370,-7.7309,-0.8933,10.9896,12.6363,2.7379,-0.1703,12.8346,13.3295,8.3485,5.8300
1199.2188,-8.8018,1.1549,-0.3042,8.9927,8.6869,-11.7874,-8.5144,10.0377,5.2127,-2.7072,0.1222,12.8573,12.7913,4.1659,3.0239,10.1044,8.2043,8.3895,5.8883
1203.1250,-2.5576,0.7303,-4.9038,5.4889,7.9977,-11.7400,-18.1473,4.3730,4.6040,1.0203,0.7772,9.5853,10.3028,5.3239,4.7109,7.7173,0.2700,5.9309,4.2073
1207.0312,2.8532,0.3702,-9.1488,1.8179,6.9684,-10.1929,-23.8240,0.5795,3.4280,4.3285,2.7373,2.7592,6.4619,6.3963,7.3762,7.4355,-6.5573,2.3117,2.0829
1210.9375,7.9236,1.6211,-10.4925,0.0904,6.6282,-6.5191,-22.6714,0.8372,3.1597,8.2810,6.8446,-3.9705,3.5026,7.6005,12.7044,9.3802,-8.6196,-0.5080,1.1936
1214.8438,13.2030,5.1154,-7.8151,1.6727,7.6152,-1.1734,-14.8959,5.6501,4.7676,13.4925,12.5673,-6.8825,3.4074,8.9837,20.5568,12.3340,-4.3238,-0.9914,2.5861
1218.7500,18.9858,10.1690,-2.0040,6.4055,9.7923,4.5091,-3.6324,13.5311,8.1870,19.7094,18.2295,-4.2444,6.7734,10.3441,29.1509,14.6478,5.0782,1.1822,6.0434
1222.6562,25.1302,15.1633,4.5601,12.5761,12.2895,9.0287,6.6562,21.5543,12.3041,25.8873,21.8573,2.7798,12.3747,11.3120,36.2553,15.1172,16.0353,5.0011,10.1635
1226.5625,31.0819,18.4138,9.2347,17.6575,13.9123,11.4698,12.2699,26.4990,15.4672,30.7435,22.1495,10.8661,17.6862,11.5145,40.5243,13.4068,24.2409,8.6956,13.0548
1230.4688,36.0930,18.9803,10.3510,19.4435,13.6788,11.8427,11.7898,26.1213,16.2748,33.4639,19.0811,16.3997,20.1119,10.7167,42.0756,9.9768,26.4555,10.6405,13.2411
1234.3750,39.5658,17.0072,7.8496,17.0330,11.2381,10.9138,6.4056,20.0760,14.2700,34.1468,13.9081,17.3275,18.2741,8.8890,42.0350,5.7357,21.8316,10.0928,10.3185
1238.2812,41.3969,13.5485,3.1130,11.2160,7.0278,9.7628,-0.9269,10.1327,10.2161,33.7399,8.6602,13.9479,12.6806,6.2225,41.5534,1.6784,12.2067,7.4202,5.0953
1242.1875,42.1679,10.1059,-1.7925,4.1141,2.1505,9.3962,-6.9738,-0.4373,5.8225,33.5393,5.3926,8.3293,5.4297,3.1280,41.1297,-1.3431,1.2568,3.7863,-0.7844
1246.0938,43.0416,8.1454,-5.0397,-1.7266,-1.9712,10.5669,-9.6508,-8.1066,3.0285,34.5725,5.4772,2.8898,-0.8596,0.2100,40.7304,-2.7103,-7.1242,0.5318,-5.5190
1250.0000,45.3303,8.7058,-5.7280,-4.3672,-4.0607,13.7094,-8.7875,-10.4815,3.1456,37.2116,9.1254,-0.9015,-4.2944,-1.8354,40.4697,-2.0575,-10.4969,-1.4115,-7.8352
1253.9062,49.8727,12.0876,-4.1088,-3.1829,-3.4378,18.8210,-5.9409,-7.2234,6.2414,41.1709,15.2675,-2.9555,-4.4652,-2.4252,41.1169,0.6934,-8.8187,-1.8111,-7.4203
1257.8125,56.5195,17.6485,-1.3204,1.0241,-0.2881,25.2781,-3.3865,-0.0724,11.0658,45.7922,21.8623,-4.0315,-2.3619,-1.3345,43.8343,5.2278,-4.1921,-1.0573,-4.9512
1261.7188,64.0455,23.8450,1.2202,6.4989,4.3878,31.7748,-2.8012,8.0341,15.6000,50.3838,26.6206,-4.7686,0.4104,1.1550,49.2284,10.6886,0.4395,0.1797,-1.7209
1265.6250,70.6251,28.6798,2.5036,11.3319,9.1671,36.6122,-4.3328,14.2874,18.0084,54.4236,27.9484,-5.0224,2.5930,4.3219,56.4573,15.6117,2.9273,1.3469,0.9770
1269.5312,74.6835,30.5099,2.3759,14.2006,12.7836,38.3460,-6.5848,17.1073,17.5419,57.5955,25.7210,-3.9623,3.8412,7.2846,63.2321,18.1450,2.9559,2.2563,2.4245
1273.4375,75.6719,28.8624,1.5212,14.7434,14.6106,36.4901,-7.5439,16.5139,14.9102,59.7484,21.4537,-0.8302,4.6195,9.3475,66.9370,16.6623,1.9035,3.0670,2.7309
1277.3438,74.2980,24.7570,0.9707,13.4622,14.7962,31.8386,-5.9005,13.7131,11.8865,60.8741,17.6619,4.1943,5.5871,10.2239,66.2210,10.6252,1.6684,4.0346,2.6262
1281.2500,72.0454,20.2371,1.4102,11.2879,14.0005,26.1487,-1.9247,10.2724,10.3212,61.1140,16.6338,9.6583,6.9395,10.0281,61.9528,1.2488,3.2528,5.1996,2.9111
1285.1562,70.2571,17.2961,2.7136,9.0910,12.9240,21.3269,2.6883,7.4072,11.1104,60.7353,19.2329,13.3421,8.1672,9.0927,56.7848,-8.5537,6.0445,6.2368,3.8987
1289.0625,69.3666,16.8271,4.0308,7.3935,11.9405,18.5876,5.9175,5.7055,13.7323,60.0399,24.4174,13.3985,8.3893,7.7730,53.5274,-15.1720,8.2604,6.6076,5.2071
1292.9688,68.7879,18.2679,4.4120,6.3773,11.0520,18.0656,6.7206,5.2641,16.6575,59.2523,29.8007,9.4958,7.0349,6.3701,53.4100,-15.8938,8.2271,5.9660,6.0547
1296.8750,67.5490,20.1858,3.5707,6.0849,10.1394,19.0510,5.6401,5.9612,18.4026,58.4906,32.9788,3.2736,4.4072,5.1751,55.4387,-10.2574,5.6144,4.5682,5.8754
1300.7812,65.2331,21.4069,2.2496,6.6019,9.2648,20.6100,4.2907,7.6025,18.5696,57.8617,32.8756,-2.2442,1.7361,4.5163,57.3105,-0.3345,1.7741,3.3746,4.8398
1304.6875,62.5434,21.9035,1.8797,8.0567,8.7584,22.1428,4.1121,9.8861,18.1797,57.5982,30.3269,-4.0675,0.6345,4.6886,57.2320,10.3063,-1.0417,3.6799,3.8969
1308.5938,61.0262,22.7991,3.6953,10.4354,9.0019,23.5505,5.3095,12.3322,19.0364,58.0618,27.5655,-0.7817,2.2423,5.7644,55.3172,18.3825,-1.0605,6.3995,4.2588
1312.5000,62.0564,25.4571,7.8597,13.3698,10.0680,25.0000,6.7740,14.3468,22.4759,59.5130,26.9160,6.6229,6.5359,7.4224,53.5154,22.3701,1.9419,11.4067,6.6222
1316.4062,65.7257,30.2688,13.1848,16.0980,11.4999,26.5505,7.0401,15.4427,28.2878,61.7442,29.4521,15.1315,12.2036,8.9645,54.0684,22.8186,6.5532,17.3521,10.6167
1320.3125,70.4091,35.9908,17.6542,17.6906,12.4277,27.9441,5.5520,15.4651,34.5238,63.8623,34.3602,21.1460,17.1752,9.5783,57.5892,21.4511,10.6200,22.1508,14.8470
1324.2188,73.3897,40.1437,19.4395,17.4493,11.9819,28.6779,3.2521,14.6349,38.3785,64.4907,39.3193,22.2408,19.5451,8.7272,62.1898,19.7918,12.5106,23.9313,17.5287
1328.1250,72.2523,40.2891,17.7915,15.2538,9.7631,28.2552,1.9923,13.3538,37.6599,62.4149,41.6491,18.2926,18.4220,6.4431,64.4009,18.3057,11.9406,21.9402,17.3570
1332.0312,66.2393,35.4332,13.3021,11.6416,6.0876,26.4193,3.1476,11.9043,32.0015,57.3490,39.6034,11.3872,14.2857,3.3394,61.3784,16.5545,9.9055,16.8972,14.1199
1335.9375,56.7544,26.7133,7.4649,7.5643,1.8770,23.2541,6.4255,10.2654,23.1167,50.3242,33.1833,4.5997,8.6977,0.3291,52.9429,14.0687,7.8560,10.6100,8.7468
1339.8438,46.7063,16.9592,1.8981,3.9534,-1.7331,19.1683,9.7748,8.1751,13.9747,43.3590,24.1411,0.3723,3.5400,-1.7956,42.0228,11.1153,6.7006,5.0813,2.8258
1343.7500,39.0753,9.3790,-2.2711,1.3401,-3.8523,14.8344,10.5422,5.3939,7.3917,38.4992,15.2373,-0.5945,0.1846,-2.7046,33.0875,8.7047,6.2676,1.6190,-2.0941
1347.6562,35.5253,6.0915,-4.5750,-0.2739,-4.1562,11.0950,7.1615,1.9776,4.8219,36.7474,9.1177,0.6241,-0.9967,-2.6319,29.4886,7.8346,5.5234,0.4161,-5.0438
1351.5625,35.8016,7.2586,-5.0112,-1.2541,-2.9590,8.7747,0.2871,-1.6220,5.9419,37.5250,7.2816,2.1208,-0.5726,-2.2153,31.3912,8.6003,3.3747,0.7567,-5.8082
1355.4688,38.1452,11.1982,-3.7882,-2.0085,-1.0446,8.3638,-7.3619,-4.6847,9.1204,39.0180,9.5438,2.4309,0.4667,-2.1606,35.6462,9.8959,-0.4453,1.6342,-4.7608
1359.3750,40.3605,15.3279,-1.2500,-2.7024,0.6691,9.6786,-12.3594,-6.4919,12.3859,39.2142,14.1917,1.3688,1.3621,-2.8729,37.7361,9.9673,-4.9467,2.3724,-2.5411
1363.2812,40.8667,17.4084,2.0361,-3.1635,1.5195,11.7407,-12.3264,-6.5903,14.3169,37.0113,18.7673,-0.0049,1.9883,-4.1992,34.6023,7.4427,-8.2013,2.9016,0.2294
1367.1875,39.1920,16.4812,5.2418,-3.0045,1.4022,13.0812,-7.1005,-4.9427,14.4457,32.7341,21.1411,-0.1752,2.7866,-5.4043,26.5856,2.1633,-8.3145,3.5974,3.0909
1371.0938,35.7888,13.1067,7.4690,-1.8756,0.8406,12.4351,1.2481,-1.9394,13.1140,27.7808,20.3925,1.7976,4.2866,-5.4458,17.2516,-4.6565,-4.5848,4.8506,5.7472
1375.0000,31.4541,8.8733,8.1278,0.2886,0.7308,9.4830,9.4567,1.7061,11.0142,23.6635,17.0745,5.6006,6.5330,-3.4970,11.1868,-10.9243,1.7853,6.6589,7.9828
1378.9062,26.7898,5.4764,7.2472,3.1403,1.8210,5.1630,14.5553,5.1395,8.7392,21.0685,12.7369,9.6909,8.8053,0.4844,11.1165,-14.4546,7.9293,8.4818,9.5654
1382.8125,21.9949,3.8363,5.4637,5.9598,4.1730,1.2622,15.0771,7.5955,6.5568,19.5033,8.9837,11.9909,9.8641,5.4637,16.1219,-13.6794,10.5664,9.4356,10.2048
1386.7188,17.0006,3.6790,3.6491,7.8616,6.9386,-0.5710,11.5138,8.6206,4.4360,17.7009,6.6105,10.9158,8.6362,9.5772,22.0653,-8.1437,7.7378,8.7270,9.6206
1390.6250,11.7493,3.7631,2.4074,8.1045,8.6706,0.1546,5.9192,8.2055,2.2214,14.4741,5.3188,6.2496,4.9586,10.9332,23.9891,1.2086,0.1033,6.1065,7.7166
1394.5312,6.3884,2.6150,1.7689,6.4025,8.0781,2.3608,0.9027,6.7526,-0.1878,9.4686,4.1305,-0.5638,-0.0960,8.6162,19.0512,12.0286,-9.0513,2.1028,4.7740
1398.4375,1.2690,-0.6226,1.2686,3.1042,4.8225,3.9124,-1.5428,4.8717,-2.7460,3.3742,2.1739,-6.9326,-4.5908,3.3263,8.2398,21.0477,-15.3169,-2.1177,1.5055
1402.3438,-3.2119,-5.6811,0.3244,-0.8682,-0.1487,2.8157,-0.8858,3.1036,-5.2778,-2.4841,-0.7203,-10.2987,-6.6766,-2.8038,-4.1546,25.1687,-15.4971,-5.2506,-1.1559
1406.2500,-6.8082,-11.2603,-1.3555,-4.3443,-4.9928,-1.5697,1.8080,1.7200,-7.5674,-6.8894,-4.0024,-9.4790,-5.6271,-7.2228,-12.9873,22.8661,-9.4847,-6.4937,-2.4988
1410.1562,-9.5550,-15.6615,-3.5897,-6.3795,-7.9108,-8.0302,4.5344,0.7037,-9.4552,-9.3643,-6.9103,-5.4489,-2.3457,-8.2896,-15.1651,15.1535,-0.5026,-5.9847,-2.4705
1414.0625,-11.7841,-17.6064,-5.8330,-6.6591,-8.0922,-14.0394,5.4927,-0.1148,-10.8857,-10.3614,-9.0536,-1.0025,1.0204,-6.1422,-11.3016,5.3594,6.5721,-4.7447,-1.7930
1417.9688,-14.0268,-16.8125,-7.4636,-5.6182,-6.0934,-17.0770,4.0911,-0.8913,-11.8877,-10.9609,-10.5993,0.7092,2.2143,-2.5667,-5.1955,-2.4384,7.9133,-4.0965,-1.5918
1421.8750,-16.8402,-14.0678,-8.0725,-4.2034,-3.4361,-16.0144,1.2031,-1.7039,-12.5184,-12.2877,-11.9380,-1.9481,0.1406,0.0708,-1.5232,-5.5515,2.8956,-4.8628,-2.7000
1425.7812,-20.6126,-10.8398,-7.6510,-3.3999,-1.6989,-11.8033,-1.5215,-2.6115,-12.8421,-14.9804,-13.1684,-7.9355,-4.4737,0.1794,-3.1852,-4.0899,-5.6226,-6.8481,-5.0762
1429.6875,-25.4216,-8.6805,-6.6558,-3.7904,-1.6870,-7.0827,-2.8777,-3.7370,-12.9891,-18.9713,-13.9166,-13.9607,-9.4553,-2.2444,-9.8875,-0.6748,-13.0617,-8.9872,-7.7774
1433.5938,-31.0094,-8.7208,-5.9502,-5.3798,-3.1691,-4.8943,-3.0340,-5.2465,-13.2651,-23.6486,-13.7389,-16.4213,-12.4222,-5.8098,-18.7137,1.4160,-15.8335,-10.1286,-9.5832
1437.5000,-36.8954,-11.4078,-6.5833,-7.7476,-5.2620,-7.1698,-3.4800,-7.1992,-14.1997,-28.2682,-12.8278,-13.7775,-12.1668,-8.7287,-26.1830,0.4502,-13.3237,-9.9573,-9.8945
1441.4062,-42.5679,-16.4671,-9.3842,-10.3810,-7.1150,-13.7648,-5.9523,-9.3841,-16.4105,-32.3629,-12.3909,-7.8177,-9.3591,-9.9165,-30.4051,-2.7092,-7.9684,-9.3958,-9.2764
1445.3125,-47.6478,-23.0009,-14.4746,-12.9482,-8.3968,-22.5259,-11.0514,-11.3198,-20.2717,-35.9197,-14.2112,-2.8406,-6.1345,-9.4886,-31.9694,-5.4055,-3.4933,-10.1165,-9.1961
1449.2188,-51.9370,-29.6740,-20.9619,-15.3487,-9.2992,-30.3450,-17.5560,-12.4897,-25.5399,-39.2390,-19.4987,-3.0862,-4.8101,-8.4149,-33.1087,-5.2263,-2.5394,-13.3991,-11.0555
1453.1250,-55.3510,-35.0091,-27.1017,-17.5629,-10.1526,-34.6523,-23.0125,-12.6912,-31.2019,-42.5842,-27.7574,-9.9663,-6.5072,-7.6855,-35.8280,-1.7991,-5.1979,-19.0725,-15.1412
1457.0312,-57.8308,-37.7995,-30.9995,-19.4640,-11.0170,-34.5908,-25.2797,-12.2413,-35.7373,-45.8697,-36.5449,-20.9041,-10.5098,-7.6270,-40.3433,2.9113,-9.2737,-25.3056,-20.2318
1460.9375,-59.3419,-37.5400,-31.5513,-20.7604,-11.5677,-31.2954,-23.9756,-11.8338,-37.7512,-48.6244,-42.5008,-30.6389,-14.7208,-7.8187,-44.9063,5.9282,-11.9139,-29.4877,-24.1864
1464.8438,-59.9881,-34.6749,-29.0669,-21.1071,-11.3266,-27.1864,-20.7747,-12.0785,-36.6686,-50.2999,-43.1661,-34.2626,-16.8961,-7.5647,-47.1094,5.1784,-11.4119,-29.7051,-25.1714
1468.7500,-60.1420,-30.4900,-25.1273,-20.2870,-10.0156,-24.7016,-18.2772,-13.0020,-33.0856,-50.7519,-38.5072,-30.1032,-15.8814,-6.4843,-45.7459,0.6318,-8.0369,-25.8849,-22.7334
1472.6562,-60.4408,-26.6459,-21.6893,-18.3261,-7.7460,-25.1682,-18.2014,-13.8741,-28.5403,-50.5656,-31.1446,-20.6530,-12.1304,-4.7606,-41.9206,-5.9979,-3.5317,-19.8679,-18.0288
1476.5625,-61.5706,-24.5673,-19.9781,-15.4897,-4.9362,-28.3873,-20.1755,-13.5499,-24.8110,-50.9410,-25.0569,-11.0161,-7.2864,-2.9213,-38.6128,-12.5384,0.1563,-14.3714,-13.1058
1480.4688,-63.9205,-24.9876,-19.9024,-12.2182,-2.0797,-33.0590,-22.0188,-11.1814,-23.1392,-53.1093,-23.4848,-5.9488,-3.2014,-1.4153,-38.9220,-17.5289,1.9474,-11.5248,-9.7654
1484.3750,-67.3182,-27.8409,-20.3896,-9.0895,0.4117,-37.6828,-21.3575,-6.8820,-23.8113,-57.5674,-27.2634,-7.3869,-1.0570,-0.3769,-44.0965,-20.4619,1.8643,-11.9080,-8.7586
1488.2812,-71.0370,-32.4608,-20.3886,-6.8089,2.1893,-41.3281,-17.4482,-1.9062,-26.2818,-63.5921,-34.5317,-13.8909,-1.0713,0.2456,-52.5835,-21.1900,0.5012,-14.6163,-9.7581
1492.1875,-74.1080,-37.8836,-19.7844,-6.1254,2.8706,-43.8349,-11.9065,1.8286,-29.6664,-69.3874,-41.9098,-22.0652,-2.8075,0.3736,-60.6975,-19.3077,-1.6677,-18.1510,-11.9415
1496.0938,-75.7716,-43.0693,-19.5139,-7.5787,2.0619,-45.4449,-7.7850,2.6605,-33.2274,-72.8712,-46.3649,-28.7467,-5.6915,-0.3470,-64.5064,-14.2593,-4.5423,-21.4066,-14.6227
1500.0000,-75.8183,-47.0201,-20.7678,-11.1264,-0.4132,-46.2670,-7.6007,0.0443,-36.5516,-72.7138,-46.6646,-32.4576,-9.2929,-2.3155,-61.8406,-6.1648,-8.0905,-24.0699,-17.4441
1503.9062,-74.6435,-48.9203,-23.8764,-15.8902,-4.2148,-46.0707,-11.6548,-5.1269,-39.4043,-69.0637,-43.6787,-33.3851,-13.2143,-5.5149,-53.3193,3.4048,-11.8534,-26.2825,-20.1052
1507.8125,-73.0263,-48.3914,-27.7631,-20.2957,-8.3909,-44.6002,-17.7840,-10.9263,-41.4972,-63.5383,-39.5452,-32.3177,-16.8120,-9.2157,-41.9225,11.5700,-14.7839,-28.0085,-22.0327
1511.7188,-71.7897,-45.7770,-30.4600,-22.6844,-11.6588,-42.1445,-22.7062,-15.3101,-42.4410,-58.4636,-36.3448,-29.6347,-19.1252,-12.1620,-31.4632,15.3818,-15.6428,-28.7324,-22.4363
1515.6250,-71.5190,-42.2050,-30.3912,-22.1396,-12.9727,-39.8351,-24.0484,-17.0519,-41.9543,-55.7635,-35.0769,-25.1852,-19.2098,-13.1995,-24.8443,13.4311,-13.7158,-27.7780,-20.8121
1519.5312,-72.4200,-39.2261,-27.5170,-19.0430,-12.0392,-39.2915,-21.7308,-16.2142,-40.1482,-56.0890,-35.4027,-19.0030,-16.7083,-11.9458,-22.9657,6.7213,-9.3530,-24.9800,-17.4963
1523.4375,-74.2962,-38.1022,-23.4877,-14.9595,-9.4402,-41.7188,-17.8634,-13.9475,-37.6178,-58.6299,-36.1179,-12.0697,-12.2437,-9.0363,-24.6870,-1.8355,-3.9483,-21.1196,-13.7372
1527.3438,-76.5952,-39.1346,-20.6473,-11.8442,-6.2738,-47.0257,-15.3267,-11.7815,-35.2193,-61.6696,-35.9626,-6.3197,-7.2983,-5.7660,-27.6806,-8.9779,0.6467,-17.7031,-11.0947
1531.2500,-78.5268,-41.4947,-20.5565,-11.0075,-3.5494,-53.6187,-16.0241,-10.8252,-33.6633,-63.5450,-34.3255,-3.7482,-3.5811,-3.3713,-29.6414,-12.6805,2.9362,-16.1780,-10.5222
1535.1562,-79.2890,-43.7395,-23.0520,-12.4560,-1.7327,-59.1266,-19.8963,-11.2939,-33.2021,-63.4856,-31.5594,-5.2493,-2.2361,-2.4314,-29.2762,-12.7971,2.3910,-17.1191,-11.7853
1539.0625,-78.3923,-44.7203,-26.4607,-14.9975,-0.7034,-61.6699,-25.1779,-12.5497,-33.6083,-61.9086,-28.8333,-10.0483,-3.3498,-2.7442,-26.7137,-10.5334,-0.4035,-19.9416,-13.6606
1542.9688,-75.9512,-44.2759,-28.7551,-16.9974,-0.0740,-60.8752,-29.5440,-13.5388,-34.4045,-60.0653,-27.5980,-16.1341,-6.0089,-3.6594,-23.2738,-7.3296,-4.0578,-23.2978,-14.7777
1546.8750,-72.7429,-43.2047,-28.7854,-17.2723,0.4342,-57.9498,-31.3183,-13.3223,-35.1210,-59.2807,-28.8509,-21.3478,-8.8070,-4.5369,-20.7893,-4.0266,-6.9568,-25.8239,-14.4767
1550.7812,-69.9104,-42.5167,-26.7412,-15.5645,0.8543,-54.7495,-30.0515,-11.4181,-35.3832,-60.2227,-32.4870,-24.3469,-10.4670,-4.9787,-20.8059,-0.8082,-7.8738,-26.7072,-13.0526
1554.6875,-68.4100,-42.4991,-23.6336,-12.3933,1.1366,-52.4599,-26.3313,-7.8677,-34.8290,-62.5887,-37.0805,-24.8663,-10.2602,-4.7490,-23.9970,2.2498,-6.4242,-25.7657,-11.2553
1558.5938,-68.5129,-42.3117,-20.3338,-8.5332,1.3964,-50.7987,-21.1926,-3.1297,-33.0495,-65.3490,-40.3453,-23.3033,-8.1195,-3.6032,-30.0179,4.6078,-3.2202,-23.1608,-9.5132
1562.5000,-69.6844,-40.4702,-16.9855,-4.5803,1.9654,-48.2973,-15.6284,2.0370,-29.7385,-67.3740,-40.2076,-20.1604,-4.5440,-1.3149,-37.8204,5.1615,0.3564,-19.1228,-7.5637
1566.4062,-70.9425,-35.9302,-13.2233,-0.9027,3.1476,-43.4712,-10.4361,6.6471,-25.0214,-68.0691,-36.0191,-15.8614,-0.4387,2.0298,-46.2299,2.6752,2.7300,-13.9695,-4.8177
1570.3125,-71.4654,-29.0121,-8.9188,2.1229,4.8687,-36.0544,-6.2723,9.6131,-19.6970,-67.6498,-29.2007,-10.9992,3.0717,5.7258,-54.4539,-3.5613,2.8503,-8.3388,-1.1485
1574.2188,-71.0367,-21.4682,-4.7286,3.9490,6.5442,-27.4120,-3.6450,10.0526,-15.0935,-66.9074,-22.7946,-6.6063,4.9165,8.4997,-62.2387,-13.2274,0.7165,-3.2913,2.6063
1578.1250,-70.0286,-15.5773,-1.8855,4.0515,7.3509,-19.8102,-2.7196,7.7535,-12.4874,-66.6298,-19.9945,-3.9841,4.4641,9.0622,-69.6181,-24.8221,-2.6079,-0.0093,4.9523
1582.0312,-68.9704,-12.8354,-1.3290,2.3949,6.7648,-15.0262,-3.1000,3.5470,-12.3920,-67.0537,-22.3983,-4.0462,1.8849,6.8949,-76.4710,-35.8878,-5.5528,0.8172,4.7283
1585.9375,-68.0648,-13.1189,-2.8670,-0.2363,4.9807,-13.2573,-3.8644,-0.7626,-14.1994,-67.7113,-29.0187,-6.6358,-1.7694,2.7326,-82.2448,-43.5791,-6.8943,-0.5156,2.0558
1589.8438,-67.0460,-14.8823,-5.1002,-2.4372,2.8734,-13.0886,-3.9851,-3.0770,-16.4871,-67.7827,-36.7271,-10.4258,-4.9521,-1.6765,-86.0975,-45.5398,-6.4146,-2.7921,-1.5322
1593.7500,-65.4888,-16.2480,-6.2804,-2.9256,1.4794,-12.5416,-2.9372,-2.0591,-17.8567,-66.7303,-41.9630,-13.6247,-6.3744,-4.4779,-87.4146,-40.9310,-4.9707,-4.5713,-3.9874
1597.6562,-63.2964,-16.2380,-5.5278,-1.3777,1.3421,-10.4647,-1.0882,2.0251,-17.7817,-64.7801,-42.7256,-15.0839,-5.7280,-4.7479,-86.3615,-31.1902,-3.9371,-5.0888,-4.0956
1601.5625,-60.9247,-15.3166,-3.5034,1.2581,2.1890,-7.2866,0.4542,7.2727,-16.9001,-62.8954,-39.6449,-15.0355,-3.9018,-2.9855,-84.0593,-19.9599,-4.3798,-4.7416,-2.3161
1605.4688,-59.1046,-14.9029,-1.9842,3.2812,3.1833,-4.6003,0.5162,11.0897,-16.5416,-62.2095,-35.4761,-14.8967,-2.4867,-0.7254,-82.1818,-11.8662,-6.4735,-4.7861,-0.4731
1609.3750,-58.2435,-16.2250,-2.5918,3.3202,3.5706,-3.8820,-1.3398,11.6556,-17.8022,-63.2592,-33.3458,-16.2313,-2.8119,0.4704,-82.1427,-10.4818,-9.4843,-6.4247,-0.4759
1613.2812,-57.9924,-19.3205,-5.5597,1.2681,3.2406,-5.2641,-4.3957,9.0400,-20.7815,-65.5200,-34.8605,-19.5711,-5.0966,-0.0314,-84.3304,-16.4688,-12.2587,-9.8966,-2.9533
1617.1875,-57.3786,-22.8638,-9.4344,-1.5817,2.7775,-7.2544,-7.0372,5.2339,-24.4790,-67.5758,-39.2410,-23.9206,-8.2653,-1.6558,-87.8490,-27.0380,-13.8545,-14.1955,-6.7681
1621.0938,-55.4743,-24.9190,-11.9498,-3.3243,2.9496,-7.6318,-7.5654,3.0075,-27.3883,-67.8463,-43.9579,-27.3008,-10.5675,-3.1534,-90.9372,-37.2169,-13.9267,-17.6037,-9.7528
1625.0000,-52.1119,-24.1031,-11.4892,-2.6457,4.0196,-4.9158,-5.0925,4.2676,-28.3615,-65.4289,-46.3681,-27.9725,-10.6203,-3.5237,-91.8368,-42.3394,-12.7154,-18.6770,-10.1494
1628.9062,-48.0639,-20.3983,-8.1342,0.3632,5.4157,0.5996,-0.0058,8.9384,-27.1741,-60.5287,-45.2571,-25.5231,-8.2176,-2.6606,-89.6266,-40.3531,-10.7621,-17.0343,-7.7476
1632.8125,-44.4721,-15.1189,-3.5926,4.3153,6.0550,6.9660,6.2509,15.0745,-24.4671,-54.2243,-41.3363,-21.1101,-4.4033,-1.2965,-84.5787,-32.6187,-8.6011,-13.4665,-3.9555
1636.7188,-41.9055,-10.1030,-0.0788,7.4598,5.1327,11.7785,11.9232,20.1121,-21.1926,-47.7564,-36.4997,-16.7275,-0.7909,-0.3527,-77.8905,-22.8190,-6.5901,-9.3622,-0.7979
1640.6250,-39.7674,-6.6799,1.0794,8.7862,2.8185,13.6443,15.7783,22.4191,-17.9983,-41.8318,-32.4617,-13.9894,1.4045,-0.2234,-71.0087,-14.7790,-4.8779,-5.8770,0.4223
1644.5312,-36.5829,-5.0514,0.1815,8.5568,0.3243,12.9454,17.5629,22.1205,-14.9685,-36.3957,-29.7338,-13.2075,1.9928,-0.5372,-64.9621,-10.5974,-3.4289,-3.3877,-0.1261
1648.4375,-31.0673,-4.4114,-1.2032,7.9449,-0.7760,11.4235,17.8754,20.6935,-11.8334,-30.9815,-27.5727,-13.3148,1.7187,-0.5513,-60.0576,-10.1200,-2.0751,-1.5184,-1.1129
1652.3438,-23.2548,-3.6406,-1.3883,8.0779,0.4316,10.9204,17.5877,19.6751,-8.4165,-25.3331,-24.8116,-12.6436,1.5716,0.1544,-56.0353,-11.7863,-0.6445,0.3695,-1.1308
1656.2500,-14.8433,-2.0802,0.2826,9.1733,3.5178,12.1566,17.1943,19.4304,-4.9510,-19.8203,-20.9056,-10.0566,1.9986,1.2361,-52.4882,-13.9972,0.8136,2.6078,0.2433
1660.1562,-8.4046,0.1070,3.0352,10.3635,6.8563,14.3536,16.4856,18.8636,-2.0336,-15.3316,-16.4358,-5.7391,2.5702,1.7566,-49.2268,-16.0028,1.8273,4.9446,2.1448
1664.0625,-5.8977,2.1685,5.2174,10.3143,8.5589,15.8872,14.7263,16.2781,-0.2620,-12.7188,-12.7583,-1.1809,2.3208,0.8620,-46.3514,-17.8743,1.5572,6.7004,3.0532
1667.9688,-7.4457,3.3767,5.3931,8.2037,7.6300,15.4551,11.2195,10.7781,0.1800,-12.1874,-11.0819,1.6526,0.5295,-1.5238,-44.0260,-19.8803,-0.7526,7.2184,1.8973
1671.8750,-11.2001,3.5912,3.2581,4.3983,4.6078,12.9402,5.9038,3.2204,-0.2906,-13.0675,-11.6234,1.4945,-2.5945,-4.5040,-42.1622,-21.9257,-5.0903,6.3167,-1.1262
1675.7812,-14.3998,3.3926,-0.1706,0.3758,1.2696,9.4305,-0.3900,-3.9714,-0.8175,-14.1275,-13.3877,-1.3819,-5.8078,-6.6829,-40.2774,-23.4623,-10.2241,4.4779,-4.5568
1679.6875,-14.9383,3.7082,-3.1587,-2.0665,-0.4296,6.4728,-6.1980,-8.0586,-0.5195,-14.2231,-14.6861,-5.1765,-7.4305,-7.0103,-37.6638,-23.7730,-13.9553,2.6729,-6.4883
1683.5938,-12.4280,5.1784,-4.2404,-1.8291,0.4701,5.1429,-10.0690,-7.5222,1.0655,-12.8564,-14.0487,-7.4904,-6.3176,-5.4346,-33.7719,-22.2623,-14.1624,1.9077,-5.6767
1687.5000,-8.1242,7.6795,-2.9944,0.8651,3.3762,5.5538,-11.2325,-2.9252,3.7324,-10.3078,-10.9856,-6.6923,-2.6226,-2.9255,-28.5488,-18.5498,-10.1298,2.7195,-2.2632
1691.4062,-3.8598,10.3222,-0.1912,4.6032,6.5367,7.0349,-9.9095,3.4070,6.6743,-7.3018,-6.2021,-2.9387,2.1386,-0.8500,-22.4838,-12.5086,-3.3107,4.8794,2.3037
1695.3125,-0.7898,11.9457,2.7119,7.5783,8.1216,8.7127,-7.1074,8.6511,8.8356,-4.4782,-1.2105,1.8040,5.8124,-0.1132,-16.3090,-4.4979,3.1218,7.4710,6.0715
1699.2188,1.1964,11.8101,4.3901,8.5645,7.3076,9.9980,-4.0550,10.9062,9.3988,-2.0348,2.4056,4.8330,6.7435,-0.6285,-10.5500,4.2538,5.8589,9.3257,7.6237
1703.1250,3.0714,10.0557,4.3076,7.5012,4.7011,10.6615,-1.6453,9.9564,8.1878,0.2493,3.6943,4.2989,4.6821,-1.4585,-5.2399,11.5591,3.3269,9.6056,6.7616
1707.0312,5.6735,7.6303,2.8727,5.3696,1.8648,10.5774,-0.2045,7.0387,5.7834,2.6850,2.7029,0.3558,0.9286,-1.5205,-0.0098,14.9530,-3.2931,8.2143,4.4704
1710.9375,8.9092,5.7199,1.0660,3.4798,0.2869,9.4923,0.3511,3.9048,3.2725,5.3176,0.3999,-4.8683,-2.3842,-0.3820,5.4954,13.0790,-10.5830,5.8017,2.2417
1714.8438,11.7450,5.0361,-0.1869,2.6413,0.4667,7.1124,0.2005,1.8291,1.7292,7.8177,-1.7696,-8.5067,-3.4672,1.3934,11.1746,6.9627,-14.6980,3.3586,1.1881
1718.7500,12.9721,5.4150,-0.5058,2.7423,1.6891,3.4728,-0.5409,1.1311,1.6925,9.6966,-2.4875,-8.6411,-1.8309,2.5896,16.3411,0.0694,-13.4201,1.6593,1.4789
1722.6562,12.1631,5.9850,-0.1415,2.9799,2.5950,-0.7539,-1.6880,1.3564,2.9296,10.6833,-1.0802,-5.3721,1.5260,2.1608,20.0381,-3.3532,-7.2625,0.9017,2.4043
1726.5625,10.1158,5.7877,0.3354,2.5476,2.1361,-4.3637,-2.7371,1.8233,4.6250,10.9877,2.2498,-0.6067,4.7770,-0.0081,21.6174,-0.9194,0.9600,0.7550,2.9701
1730.4688,8.4608,4.4325,0.4792,1.2772,0.2682,-6.1925,-2.8472,2.0809,5.8753,11.2501,6.5568,3.2493,6.3476,-2.9196,21.1975,5.9612,7.7455,0.7277,2.5972
1734.3750,8.6929,2.3442,0.2228,-0.2292,-2.0650,-5.8112,-1.2503,2.0084,6.1748,12.1856,10.5747,4.7781,5.7483,-5.0194,19.6899,12.4293,10.6976,0.5431,1.4536
1738.2812,11.2630,0.4438,-0.2183,-1.0708,-3.6160,-3.8526,2.0856,1.6241,5.5850,14.1361,13.2237,4.2165,3.6883,-5.1594,18.3784,13.0147,9.5065,0.2333,0.2185
1742.1875,15.3011,-0.4990,-0.6664,-0.7677,-3.6943,-1.6918,6.0425,0.9010,4.5158,16.8073,13.9702,2.9310,1.4815,-3.3524,18.3366,5.4282,5.7310,-0.0776,-0.5120
1746.0938,19.1065,-0.3698,-1.2258,0.3309,-2.6022,-0.6448,8.6417,-0.1740,3.3330,19.3663,12.9087,2.1989,0.1999,-0.7998,20.0505,-7.1627,1.7216,-0.4465,-0.7063
1750.0000,21.0735,0.2959,-2.2082,1.2931,-1.3509,-1.1954,8.0445,-1.3428,2.1303,20.8670,10.5985,2.2665,0.1460,0.8702,23.4247,-17.1584,-0.5858,-1.1284,-0.8801
1753.9062,20.5047,0.8155,-3.7728,1.3507,-0.8691,-2.7537,3.7084,-1.9190,0.8527,20.7757,7.8181,2.3832,0.9275,0.6900,28.0412,-16.6405,-0.3949,-2.2587,-1.5788
1757.8125,17.9019,0.9675,-5.5848,0.5742,-1.2786,-4.0975,-3.0986,-1.0301,-0.3543,19.3063,5.3850,1.7103,1.9637,-0.9511,33.3724,-2.2974,1.8874,-3.4747,-2.7673
1761.7188,14.6661,1.2123,-6.8379,-0.0956,-1.7735,-4.1967,-9.8856,1.7479,-0.9308,17.3666,4.0683,0.2970,2.9642,-2.5055,38.7623,21.8591,5.0502,-3.8923,-3.6513
1765.6250,12.4338,2.3072,-6.7308,0.4296,-1.2186,-2.8891,-14.3494,5.7580,-0.1147,16.1238,4.4925,-0.7350,4.0068,-2.2985,43.2806,45.8666,7.6298,-2.6291,-3.1629
1769.5312,12.3915,4.5635,-5.1090,2.4001,0.9274,-0.9962,-15.7034,9.1842,2.4714,16.4092,6.9254,-0.0240,5.2077,0.2455,45.7606,58.7607,8.4184,0.4045,-0.8280
1773.4375,14.8267,7.3118,-2.7780,4.7527,4.0204,0.1586,-14.9993,9.8083,6.2737,18.2780,10.9938,2.8012,6.3374,4.0051,45.2459,54.4110,6.8737,4.0590,2.6188
1777.3438,19.0310,9.0592,-1.1603,5.6218,6.4294,-0.4922,-14.1822,6.3155,9.7969,20.9711,15.5428,6.4940,6.7806,6.6615,41.7040,34.9405,3.3799,6.3348,5.4071
1781.2500,23.5515,8.3615,-1.4277,3.6006,6.4658,-3.1698,-14.5395,-0.6352,11.3027,23.3133,18.8907,8.7661,5.9450,6.0662,36.5158,9.7551,-0.7660,5.5383,5.7026
1785.1562,26.7136,4.8945,-3.6702,-1.0967,3.4800,-7.1247,-15.6890,-8.3741,9.8679,24.3400,19.5248,7.7755,3.8223,1.6521,32.2254,-9.3103,-3.7717,1.5083,2.7954
1789.0625,27.2663,-0.0213,-6.7133,-6.4563,-1.5858,-10.9920,-15.9092,-13.4541,6.1096,23.8045,16.9481,3.5131,1.2230,-5.0275,31.4411,-14.0560,-4.1180,-3.9699,-2.2981
1792.9688,24.9218,-3.9139,-8.7950,-9.7310,-6.5781,-13.4125,-13.6346,-13.5560,2.0136,22.2790,12.1640,-1.9292,-0.5843,-11.0382,35.3854,-3.8966,-1.3536,-7.9965,-7.2882
1796.8750,20.5360,-4.5041,-8.7085,-9.1304,-9.2574,-13.6253,-9.0176,-8.9284,-0.1405,20.7863,7.3868,-5.4812,-0.6486,-13.6881,42.9615,14.3123,3.5457,-8.2310,-9.8935
1800.7812,15.7824,-1.1418,-6.6478,-5.0248,-8.5097,-11.7994,-4.3171,-2.3917,0.8621,20.1826,5.0003,-4.9260,0.9968,-12.0622,51.0262,30.3451,8.5418,-4.3708,-9.1573
1804.6875,12.4165,4.5770,-4.1510,0.1807,-4.9314,-8.9861,-2.6587,2.2130,4.3898,20.6656,6.2836,-0.2677,3.2715,-7.5241,55.8818,36.2228,11.4949,1.5587,-5.9652
1808.5938,11.4772,9.4858,-3.1346,3.4679,-0.4602,-6.7045,-5.9128,2.2457,8.2916,21.7109,10.6547,6.2281,4.6712,-2.8718,55.2336,30.2914,11.2052,6.3477,-2.4482
1812.5000,12.8550,10.5247,-4.6449,3.0100,2.7053,-6.2919,-13.1648,-2.2058,10.1631,22.4746,15.9300,11.3156,4.1833,-0.6715,49.5057,17.6493,7.9473,7.4835,-0.6789
1816.4062,15.4701,6.4880,-8.1592,-0.8050,3.2542,-8.2681,-20.9430,-8.4561,8.7678,22.3980,19.4982,12.5450,1.8894,-1.7931,41.7253,6.8831,3.2227,4.5821,-1.4996
1820.3125,17.9421,-1.1808,-11.9040,-5.7570,1.3432,-12.0127,-25.1905,-12.9194,4.7366,21.6078,19.7321,9.4747,-1.1219,-5.0235,35.9945,5.0789,-1.0600,-0.5139,-4.1826
1824.2188,19.3280,-9.0474,-13.9685,-9.2550,-1.6563,-15.9718,-23.7357,-13.2775,0.1344,20.8335,16.8016,3.7043,-3.4368,-7.9415,35.3725,13.9185,-3.4539,-4.9658,-7.0450
1828.1250,19.4826,-13.4648,-13.4673,-9.8649,-4.0156,-18.3710,-17.6240,-9.7435,-2.7939,20.8801,12.4261,-2.1300,-4.1127,-8.4557,40.3180,28.9381,-3.4288,-6.6464,-8.5348
1832.0312,18.8741,-12.4861,-11.0027,-7.9360,-4.5745,-18.1167,-10.4205,-4.6860,-2.8964,22.0074,8.7738,-5.7020,-3.0900,-6.0333,48.5026,42.1810,-1.2990,-5.2343,-8.0769
1835.9375,18.0666,-6.8515,-8.1785,-5.0463,-3.2309,-15.4041,-5.9614,-0.9772,-0.6440,23.6466,7.2297,-5.9446,-1.0379,-1.8971,56.0398,46.5957,2.1350,-2.0995,-6.2161
1839.8438,17.2906,0.4732,-6.5496,-2.8021,-0.7993,-11.6615,-6.0616,-0.2281,2.3245,24.6768,7.7855,-3.2445,1.1524,1.8505,59.4274,39.6740,5.9018,0.7832,-4.0955
1843.7500,16.4004,5.9087,-6.7195,-1.8772,1.5869,-8.8223,-9.6575,-2.0443,4.2718,24.1067,9.3439,1.0054,2.8326,3.5575,57.1833,24.4237,8.9988,2.0734,-2.7019
1847.6562,15.1799,7.0999,-8.1290,-1.8769,3.1292,-8.3156,-13.8302,-4.6409,4.3405,21.7168,10.6159,5.1165,3.7597,2.9537,50.3848,7.4042,10.4852,1.6698,-2.3574
1851.5625,13.6753,3.9845,-9.5717,-1.9494,3.7063,-10.3438,-15.8705,-6.2093,2.8820,18.2295,10.9413,7.7317,3.9807,1.1468,41.9284,-4.8060,9.7254,0.4384,-2.6908
1855.4688,12.2354,-1.4198,-10.0179,-1.5580,3.7609,-13.8395,-14.9295,-6.0098,1.0361,14.8814,10.5051,8.1990,3.6560,-0.2371,34.9729,-8.6434,6.7827,-0.5697,-2.9954
1859.3750,11.2185,-6.2795,-9.2044,-0.8261,3.8622,-17.0851,-12.2214,-4.5127,-0.0834,12.6800,9.9037,6.6710,2.9952,-0.1683,31.3964,-4.5959,2.6797,-0.7960,-2.6970
1863.2812,10.6345,-8.4876,-7.6919,-0.2951,4.2470,-18.6018,-9.8443,-2.6996,-0.0639,11.8416,9.4860,3.9609,2.2885,1.1353,31.0389,3.9079,-0.8247,-0.3486,-1.6760
1867.1875,10.0646,-7.6379,-6.4607,-0.4009,4.6357,-17.8178,-9.2213,-1.2268,0.6372,11.7797,9.0100,1.1969,1.8856,2.4062,32.0754,12.6972,-2.0260,0.2822,-0.3220
1871.0938,8.9651,-4.9893,-6.3558,-1.1282,4.4475,-15.2297,-10.2845,-0.1226,1.0542,11.6147,7.8656,-0.6325,2.0293,2.2234,32.2657,18.7287,-0.2610,0.6328,0.6712
1875.0000,7.1102,-2.5735,-7.6790,-2.0633,3.2945,-12.0983,-11.8416,0.8712,0.3330,10.8126,5.6621,-1.0674,2.6446,0.0355,30.3652,20.7859,3.5486,0.4874,0.6822
1878.9062,4.7790,-2.0344,-10.0600,-2.7040,1.4446,-9.9267,-12.6445,1.7788,-1.7560,9.4747,2.7004,-0.3048,3.3037,-3.3244,26.8771,19.1116,7.2645,-0.1399,-0.4320
1882.8125,2.4931,-3.8416,-12.5832,-2.7127,-0.0810,-9.9546,-12.2459,2.2673,-4.6656,8.0846,-0.0568,1.0080,3.4900,-5.9599,23.6854,14.6853,8.7149,-1.1079,-2.0960
1886.7188,0.5129,-7.2217,-14.1004,-1.9400,0.0678,-12.7593,-11.0401,2.0688,-7.3248,6.9471,-1.5254,2.1848,3.0222,-5.9145,22.7495,8.7783,7.0082,-2.1819,-3.1359
1890.6250,-1.4370,-10.7224,-13.6651,-0.3206,2.7751,-17.9683,-9.6202,1.5285,-8.6554,5.8037,-1.1893,2.8400,2.2985,-2.3129,24.6416,2.8793,3.1228,-3.0126,-2.3255
1894.5312,-3.8879,-13.0126,-10.9937,2.1232,7.7206,-24.1421,-8.1238,1.6639,-8.1097,3.9855,0.5257,2.9287,2.0846,3.9925,27.8612,-1.3815,-0.6663,-3.2075,0.8337
1898.4375,-6.9365,-13.4834,-6.7705,5.0798,13.1837,-28.9900,-6.1669,3.5024,-5.9895,1.0320,2.4374,2.4965,2.9077,10.6507,29.4516,-2.6607,-2.2116,-2.5742,5.5315
1902.3438,-9.7094,-12.3921,-2.5663,7.7384,16.6369,-30.0500,-3.3929,7.1184,-3.3892,-2.6956,3.2247,1.3843,4.4721,14.8409,26.6382,-0.6065,-0.8682,-1.4086,9.7193
1906.2500,-10.5449,-10.5694,-0.2575,8.8878,15.9347,-25.7113,-0.1018,11.1600,-1.7539,-5.9389,2.0925,-0.8113,5.5899,14.5980,18.5294,3.6576,2.0744,-0.5525,10.9746
1910.1562,-7.9509,-8.9055,-1.1221,7.4577,10.5051,-16.1310,2.6632,13.3916,-2.2165,-7.1734,-0.8944,-4.4287,4.8039,9.7645,6.8046,7.7633,4.1972,-1.0396,7.7986
1914.0625,-1.7573,-7.8962,-5.0683,3.2514,1.8563,-3.4725,3.7318,12.0296,-5.0113,-5.5847,-4.9469,-9.2962,1.3646,2.0772,-5.0970,9.0785,3.4700,-3.4578,0.6137
1917.9688,6.3905,-7.4562,-10.4994,-2.6488,-6.9717,8.8383,2.6746,6.9882,-9.2771,-1.7285,-9.0175,-14.5313,-4.1050,-5.6596,-13.8415,5.9245,-0.5053,-7.4372,-8.2114
1921.8750,13.6738,-7.0647,-15.0175,-8.2064,-12.8049,17.5762,0.2170,0.1177,-13.4062,2.6205,-12.3090,-18.8378,-9.7849,-10.8921,-17.9895,-1.6779,-6.3194,-11.6857,-15.4502
1925.7812,17.5665,-6.1558,-16.6605,-11.4230,-13.8691,21.1437,-2.1873,-5.8225,-15.8213,5.3797,-14.5747,-21.1940,-13.6585,-12.4516,-18.6248,-12.1242,-11.7229,-14.6574,-18.6686
1929.6875,17.1823,-4.5447,-14.9888,-11.4411,-10.6281,20.1518,-3.3635,-8.8132,-15.7988,5.2550,-16.1121,-21.5002,-14.7290,-10.9469,-18.4795,-23.0211,-15.0562,-15.4835,-17.4833
1933.5938,13.5973,-2.6513,-11.3489,-9.0481,-5.4583,16.8280,-3.2679,-8.7361,-13.8804,2.3282,-17.4998,-20.7127,-13.6395,-8.2602,-20.1630,-32.0977,-16.1811,-14.5492,-13.6667
1937.5000,8.9580,-1.3558,-8.1060,-6.2114,-1.3382,13.6460,-3.0286,-7.2505,-11.5933,-2.1884,-19.2124,-20.2912,-12.2386,-6.4642,-24.6276,-37.7477,-16.3271,-13.2750,-10.0220
1941.4062,5.0512,-1.5091,-7.2517,-4.8856,-0.2733,12.0383,-4.0887,-6.4786,-10.5767,-6.7653,-21.2706,-21.2489,-12.3278,-6.7516,-30.7612,-39.1255,-17.0162,-13.1732,-8.7077
1945.3125,2.3821,-3.3351,-9.1929,-5.8110,-2.3065,11.9417,-7.0165,-7.4146,-11.5748,-10.3139,-23.0769,-23.3888,-14.3864,-8.9084,-36.2068,-36.0727,-18.8408,-14.7538,-10.0149
1949.2188,0.3762,-6.0840,-12.4377,-8.0343,-5.6072,12.3202,-10.8086,-9.1490,-13.8803,-12.3979,-23.5522,-25.2385,-17.1139,-11.5293,-38.7339,-29.1582,-20.9393,-17.0019,-12.3010
1953.1250,-1.5800,-8.2146,-14.3735,-9.4376,-7.5271,12.1526,-13.2031,-9.4246,-15.6016,-12.9002,-21.5899,-24.7856,-18.1166,-12.7822,-37.2498,-19.8041,-21.5040,-17.8160,-13.0586
1957.0312,-3.2078,-8.1039,-12.7050,-7.9539,-6.0095,11.1289,-11.8728,-6.1360,-14.6676,-11.6019,-16.6797,-20.6205,-15.3355,-11.2921,-31.9447,-10.1855,-18.9518,-15.2011,-10.4294
1960.9375,-3.3550,-4.9459,-6.7591,-2.7645,-0.6145,9.6194,-5.8135,1.2152,-10.0443,-8.1657,-9.3936,-12.8366,-8.3465,-6.7344,-23.7403,-2.6441,-12.9609,-8.5267,-4.2679
1964.8438,-1.0035,0.6711,2.0425,5.1696,7.3076,8.0807,3.8655,11.0163,-2.4725,-2.6104,-1.4031,-3.1641,1.2456,0.0668,-13.6418,1.2537,-4.7120,0.8973,3.7966
1968.7500,3.5590,6.8936,10.7685,13.4822,15.2858,6.4793,14.1924,20.2425,5.7282,4.1448,5.1104,5.7497,10.5353,7.4963,-2.4965,1.4794,3.7596,10.2802,11.2248
1972.6562,8.4377,11.4272,16.2955,19.4366,20.8375,4.2388,21.4973,25.8754,11.7300,10.2552,8.4427,11.5278,16.7133,13.7585,8.8015,-0.4393,10.6028,16.6012,15.7873
1976.5625,11.0942,12.6287,16.6875,21.0838,22.4738,0.7445,22.9229,26.2076,13.5766,13.6855,8.2383,13.0918,18.3338,17.5034,19.0451,-2.2717,14.8838,17.9782,16.4669
1980.4688,9.9539,10.2562,11.9903,18.0250,20.1886,-4.0340,17.5995,21.4053,11.1163,13.3237,5.7132,11.0188,15.7975,18.2618,26.7974,-2.3193,16.6145,14.4497,13.6653
1984.3750,5.4647,5.4657,4.1164,11.5020,15.3018,-9.3343,7.0098,13.2207,5.9805,9.7058,3.0217,7.1039,10.9061,16.5606,30.8992,-0.2365,16.2363,7.8234,8.7716
1988.2812,-0.2370,0.0959,-4.0562,3.8533,9.8062,-14.0012,-5.5591,4.1932,0.6448,4.7662,2.0782,3.4197,5.8606,13.6745,31.0671,3.0966,14.0986,0.7520,3.4524
1992.1875,-4.8511,-4.2964,-9.9080,-2.3942,5.5432,-17.2001,-16.2249,-3.1957,-2.8628,0.6951,3.5104,1.3940,2.3121,11.0940,28.1406,6.5101,10.4044,-4.4347,-0.9396
1996.0938,-7.4985,-7.0741,-12.0570,-5.4268,3.5534,-18.9116,-21.9043,-7.1270,-3.8645,-1.3519,6.3828,1.3500,0.9158,9.9160,23.7760,9.5578,5.6394,-6.5693,-3.6282
2000.0000,-9.1568,-8.5182,-10.6946,-4.7106,3.8486,-19.8560,-21.3762,-6.7711,-3.0750,-1.8104,8.8618,2.6485,1.4654,10.4330,19.7842,12.8210,1.0218,-5.8390,-4.3731
2003.9062,-11.6130,-9.3077,-7.2162,-1.0425,5.6501,-20.9426,-15.6340,-2.4181,-1.8637,-2.1583,9.3983,4.2368,3.3415,12.1245,17.5071,17.2432,-1.5960,-3.3853,-3.2995
2007.8125,-15.7611,-9.9216,-3.4277,3.8885,7.9276,-22.6742,-7.4204,4.5608,-1.2932,-3.6960,7.6645,5.2248,5.9018,14.0464,17.5184,22.9781,-0.5598,-0.6388,-0.7692
2011.7188,-20.6170,-10.3851,-0.7766,8.2112,9.9318,-24.9249,-0.1526,11.9909,-1.5759,-6.5686,4.6535,5.1801,8.5992,15.3838,19.6418,28.6492,4.4400,1.2396,2.6397
2015.6250,-23.8930,-10.4743,0.0329,10.5384,11.4367,-27.1721,3.3236,17.4697,-2.2503,-9.7427,1.9131,4.0729,10.8781,15.8280,23.0919,31.6953,11.7145,1.6051,6.1028
2019.5312,-23.7635,-10.1381,-1.0367,10.3348,12.5859,-28.9214,1.6737,19.1465,-2.8451,-11.9081,0.4696,2.0457,12.0773,15.5652,26.6114,29.7603,18.0337,0.2945,8.5979
2023.4375,-20.4775,-9.7498,-3.6766,7.9024,13.5005,-29.9663,-4.6036,16.4284,-3.4516,-12.5634,0.1925,-0.7369,11.5474,14.9384,28.6860,22.3441,20.1428,-2.5055,9.1314
2027.3438,-16.5182,-9.9612,-7.4688,4.0940,13.9623,-30.3407,-13.5090,10.2677,-4.7208,-12.4183,0.0257,-4.0262,8.9916,14.0779,27.9949,11.6637,16.5451,-6.3264,7.1264
2031.2500,-15.0642,-11.2541,-11.8655,-0.0460,13.4399,-30.1135,-22.3228,2.8313,-7.2583,-12.7916,-1.1097,-7.3055,4.8164,12.8033,24.0687,2.0522,8.4792,-10.4094,2.8075
2035.1562,-17.7933,-13.5305,-16.0193,-3.5626,11.4724,-29.2909,-28.5262,-3.3625,-10.8878,-14.4898,-3.4084,-9.7207,0.2015,10.8705,17.7978,-1.9631,-0.5746,-13.7461,-2.6646
2039.0625,-23.6161,-16.0560,-18.7685,-5.7660,8.1417,-27.9322,-30.5782,-6.4774,-14.4061,-17.0718,-5.9374,-10.3070,-3.2682,8.3398,11.3092,2.0130,-6.6521,-15.3096,-7.4924
2042.9688,-29.2949,-17.8261,-18.9943,-6.3522,4.2569,-26.3261,-28.3489,-6.0911,-16.1333,-19.1182,-7.2434,-8.4716,-4.2951,5.7201,7.0135,12.7364,-7.3459,-14.4685,-9.9444
2046.8750,-31.5635,-18.1249,-16.2541,-5.4950,1.0438,-24.9717,-23.0850,-3.2789,-14.9732,-19.3380,-6.3956,-4.4555,-2.5334,3.7121,6.2193,25.5209,-2.9697,-11.3863,-9.1670
2050.7812,-29.2882,-16.9233,-11.2766,-3.8452,-0.5236,-24.2758,-16.8819,-0.0084,-11.2802,-17.6724,-3.7347,0.5535,1.1640,2.7066,8.1630,34.2052,3.7802,-7.1197,-5.6706
2054.6875,-24.1920,-14.8862,-5.8779,-2.3423,-0.3336,-24.1762,-11.7961,1.8601,-6.8862,-15.5246,-0.8034,4.8124,5.0977,2.4282,10.2132,34.0382,9.3912,-3.2558,-1.1670
2058.5938,-19.6888,-13.0122,-2.1895,-1.8366,0.7295,-24.0471,-8.9390,1.4624,-4.1774,-14.8857,0.5068,6.7596,7.5147,2.0471,9.3176,24.0921,11.3667,-1.2093,2.2235
2062.5000,-18.6847,-12.1451,-1.5745,-2.6857,1.2543,-23.0727,-8.0180,-0.7502,-4.7560,-16.9628,-0.9681,5.7137,7.4219,0.7328,3.9013,7.9360,9.3003,-1.5494,2.9983
2066.4062,-21.8511,-12.6270,-3.8983,-4.5803,0.1019,-20.8880,-7.6619,-3.4309,-8.5238,-21.3013,-5.0453,2.1566,4.9810,-1.7330,-4.9873,-7.8936,4.7121,-3.7598,0.9683
2070.3125,-27.4443,-14.2303,-7.6468,-6.7548,-2.9511,-18.0073,-6.4508,-5.2542,-13.7657,-26.0453,-10.3802,-2.5368,1.2934,-4.7512,-14.1002,-16.9744,-0.0674,-6.5918,-2.7644
2074.2188,-32.6200,-16.3240,-10.8469,-8.4819,-7.1116,-15.6382,-4.0694,-5.7825,-18.1571,-29.1531,-15.2570,-6.7486,-2.2601,-7.2918,-19.8135,-16.1103,-3.1943,-8.7983,-6.5060
2078.1250,-35.2101,-18.1340,-12.1959,-9.5178,-11.0313,-14.9129,-1.7830,-5.7279,-20.0314,-29.6993,-18.4310,-9.2906,-4.7138,-8.6048,-20.2551,-6.8450,-4.0612,-9.7860,-8.9024
2082.0312,-34.7677,-18.9758,-11.6630,-10.1622,-13.5062,-16.0312,-1.7464,-6.3979,-19.1157,-28.3563,-19.5221,-9.7879,-5.8548,-8.7224,-16.4118,5.4526,-3.2315,-9.7761,-9.5415
2085.9375,-32.3638,-18.4174,-10.1999,-10.8605,-13.9761,-17.9463,-5.4176,-8.6348,-16.3528,-26.7667,-18.8413,-8.6587,-6.0652,-8.3590,-11.5350,14.4523,-1.8060,-9.4064,-8.9139
2089.8438,-29.5430,-16.3821,-8.8364,-11.6333,-12.5817,-18.8911,-12.0667,-11.9317,-13.0587,-26.3117,-16.9347,-6.7915,-5.8520,-8.2671,-9.2480,16.0932,-0.7130,-9.0910,-7.8527
2093.7500,-27.3282,-13.1891,-7.8625,-11.7960,-9.8563,-17.4578,-18.5192,-14.3819,-10.0730,-27.1823,-14.2596,-5.1141,-5.4155,-8.5422,-11.5502,10.3981,-0.3123,-8.6248,-6.8922
2097.6562,-25.9249,-9.4940,-6.7066,-10.2644,-6.3535,-13.5310,-20.6000,-13.6292,-7.4697,-28.3782,-11.1991,-4.2246,-4.5375,-8.4384,-17.9089,0.9330,-0.4060,-7.3323,-5.9769
2101.5625,-25.1056,-6.0991,-4.5724,-6.3198,-2.4793,-8.4426,-15.6199,-8.3401,-4.9223,-28.5585,-8.2811,-4.1836,-2.8255,-6.8878,-25.8645,-7.6141,-0.5087,-4.6597,-4.6639
2105.4688,-24.7365,-3.6730,-1.3098,-0.3314,1.4200,-4.2201,-4.3978,0.6994,-2.3224,-27.0691,-6.2780,-4.5197,-0.1140,-3.3870,-32.6183,-12.1659,-0.1715,-0.7734,-2.6041
2109.3750,-24.9217,-2.5029,2.1820,6.1042,4.8845,-2.4029,8.6058,10.6160,-0.1110,-24.4035,-5.9785,-4.4739,3.2583,1.3960,-36.5396,-12.6389,0.7691,3.2933,0.0721
2113.2812,-25.6966,-2.4217,4.3707,10.7987,7.3021,-3.1696,17.3937,17.7213,0.9388,-21.8230,-7.7322,-3.4455,6.4711,5.7752,-37.7363,-11.2797,2.0641,6.0937,2.7202
2117.1875,-26.6604,-2.9641,4.0562,12.0552,8.0921,-5.2998,17.7003,19.3691,0.2919,-20.4826,-11.1078,-1.4744,8.5222,7.9166,-37.5336,-10.6164,3.0729,6.5501,4.4857
2121.0938,-27.0003,-3.6649,1.2015,9.5581,7.0009,-6.9455,9.5029,15.3447,-1.8945,-20.7172,-14.9763,0.5234,8.6366,6.8812,-37.3949,-11.5387,2.9732,4.5603,4.7193
2125.0000,-25.9994,-4.3084,-2.9557,4.5331,4.3044,-6.6971,-2.7921,7.9752,-4.7931,-21.9591,-18.0317,1.0203,6.5894,3.1679,-38.0497,-12.8205,1.1494,1.0475,3.2586
2128.9062,-23.6553,-4.9712,-6.5844,-0.9042,0.7737,-4.3011,-12.6879,0.8936,-7.3817,-23.2545,-19.4425,-1.3456,2.8218,-1.5738,-39.3052,-12.3129,-2.3821,-2.5601,0.4742
2132.8125,-20.8865,-5.8370,-8.2594,-4.7993,-2.5824,-0.6692,-15.1254,-2.8345,-9.0088,-23.9392,-19.2207,-6.8268,-1.6718,-5.4501,-40.4975,-8.8580,-6.7681,-5.0646,-2.8679
2136.7188,-19.0884,-6.9338,-7.6334,-6.1993,-4.8579,2.7309,-9.1556,-2.1695,-9.6471,-23.9889,-18.0933,-14.0358,-5.6410,-7.2624,-41.1584,-3.5009,-10.5527,-6.0001,-5.8282
2140.6250,-19.3017,-8.0035,-5.4221,-5.3665,-5.5231,4.6782,1.7427,1.6136,-9.7056,-23.8712,-17.0122,-20.2897,-7.9840,-6.9400,-41.4414,0.8903,-12.3372,-5.6547,-7.5469
2144.5312,-21.5632,-8.6267,-2.8409,-3.3739,-4.5512,4.7443,11.7555,5.8552,-9.6181,-24.1071,-16.6598,-22.8243,-8.1501,-5.3095,-42.0962,1.3559,-11.5496,-4.7082,-7.5222
2148.4375,-24.8881,-8.5367,-0.9538,-1.4362,-2.4000,3.3569,15.9119,8.0348,-9.5687,-24.9117,-17.2576,-20.2959,-6.3929,-3.4722,-44.0701,-3.2370,-8.8599,-3.8021,-5.8670
2152.3438,-27.8801,-7.9014,-0.3322,-0.3883,0.1251,1.4543,12.5202,7.0192,-9.5512,-26.1476,-18.7048,-13.7092,-3.7326,-2.2366,-47.9807,-11.3609,-5.9283,-3.3218,-3.4059
2156.2500,-29.5344,-7.3442,-1.0885,-0.5148,2.1060,-0.0110,3.6548,3.4349,-9.6421,-27.5336,-20.8156,-6.1427,-1.5731,-1.9031,-53.7026,-19.6114,-4.5680,-3.4387,-1.4553
2160.1562,-29.7025,-7.6310,-3.0511,-1.6613,2.8151,-0.4529,-6.2850,-0.8805,-10.1749,-28.8708,-23.3968,-1.3154,-1.0935,-2.3909,-60.2337,-24.5950,-5.7836,-4.2466,-1.2669
2164.0625,-28.9733,-9.1801,-5.8326,-3.4230,1.9989,0.2213,-12.8966,-3.9202,-11.5910,-30.0922,-26.1129,-1.7303,-2.6912,-3.4798,-65.9205,-24.7623,-9.2470,-5.7859,-3.3584
2167.9688,-28.1461,-11.6991,-8.7652,-5.2779,0.0031,1.7233,-13.6717,-4.4593,-14.0420,-31.1454,-28.3501,-7.4113,-5.7820,-4.9448,-69.0267,-21.1430,-13.5161,-7.9094,-7.1213
2171.8750,-27.7193,-14.2092,-10.9152,-6.6763,-2.3698,3.6155,-8.6886,-2.5087,-17.0748,-31.8823,-29.3447,-15.9187,-9.0957,-6.5382,-68.4892,-16.6747,-16.8390,-10.1404,-11.0129
2175.7812,-27.7250,-15.5021,-11.3770,-7.1786,-4.2430,5.5162,-0.1191,0.8138,-19.7131,-32.1079,-28.6295,-23.5980,-11.3270,-7.9321,-64.5529,-14.6260,-18.0476,-11.7318,-13.3111
2179.6875,-27.9296,-14.8020,-9.7877,-6.6581,-5.0984,7.1833,8.8792,3.8269,-20.9647,-31.7714,-26.5205,-27.3405,-11.7822,-8.7543,-58.9106,-17.0197,-17.0270,-11.9962,-13.0366
2183.5938,-28.1458,-12.2535,-6.7234,-5.4538,-4.9997,8.4714,15.2834,4.9796,-20.4423,-31.1188,-24.2119,-25.9196,-10.6572,-8.7352,-54.1314,-23.7926,-14.5614,-10.7412,-10.4923
2187.5000,-28.3681,-8.9264,-3.5981,-4.3053,-4.4616,9.2482,17.0314,3.4631,-18.6523,-30.6233,-23.2425,-20.2968,-8.8092,-7.8624,-52.5236,-32.9266,-11.7544,-8.5059,-7.0760
2191.4062,-28.6449,-6.2963,-1.9860,-4.0105,-4.0496,9.3843,13.5372,-0.4292,-16.7163,-30.6837,-24.5453,-12.9207,-7.1973,-6.4159,-54.9604,-41.3096,-9.4430,-6.3817,-4.4707
2195.3125,-28.8463,-5.4640,-2.7124,-4.9503,-3.9838,8.8699,5.9235,-5.3122,-15.6762,-31.2892,-27.6764,-6.5350,-6.3564,-4.8514,-60.3330,-45.8894,-7.9398,-5.4554,-3.7055
2199.2188,-28.5782,-6.5494,-5.2894,-6.7694,-4.0230,7.9903,-3.1315,-9.1375,-15.8368,-31.9184,-30.8162,-3.1324,-6.2143,-3.6063,-66.0223,-44.7423,-7.1535,-6.1826,-4.6544
2203.1250,-27.3705,-8.6087,-8.1043,-8.4527,-3.6988,7.3867,-10.0970,-9.9639,-16.5870,-31.7996,-31.6947,-3.4378,-6.3079,-2.9438,-69.2177,-37.8080,-6.8802,-8.0718,-6.2443
2207.0312,-25.0332,-10.1358,-9.2996,-8.8133,-2.7178,7.8576,-11.8238,-6.8159,-16.8194,-30.4058,-28.9718,-6.9365,-6.1911,-2.8944,-68.3834,-27.1071,-7.0009,-9.8956,-7.1901
2210.9375,-21.9199,-9.8791,-7.8328,-7.1439,-1.2259,9.9162,-6.9244,-0.2578,-15.6742,-27.8706,-23.2286,-12.2402,-5.7358,-3.2804,-64.0406,-16.2814,-7.4648,-10.3383,-6.7711
2214.8438,-18.8807,-7.5248,-4.0841,-3.6692,0.2566,13.3411,3.3535,7.6473,-13.1263,-25.0351,-16.8904,-17.5759,-5.1465,-3.7783,-58.4085,-9.4179,-8.1475,-8.7275,-5.1900
2218.7500,-16.8873,-3.8809,0.3310,0.4704,1.1723,17.0483,15.3289,14.0745,-10.0550,-23.0617,-13.0223,-21.2925,-4.7406,-4.0071,-54.1208,-9.4236,-8.7712,-5.4514,-3.3624
2222.6562,-16.5324,-0.4771,3.4065,3.7061,1.2771,19.4777,24.2522,16.6045,-7.7730,-22.8230,-13.6502,-22.3361,-4.6998,-3.6616,-52.7822,-16.5808,-8.9996,-1.8323,-2.3388
2226.5625,-17.6953,1.1897,3.7480,4.7555,0.7518,19.3673,26.3053,14.2912,-7.3174,-24.4185,-18.5778,-20.5957,-4.9792,-2.6798,-54.2026,-28.0663,-8.6598,0.4812,-2.7336
2230.4688,-19.5702,0.3632,1.2054,3.2060,0.0212,16.4928,20.3188,8.1044,-8.9134,-27.0904,-25.4062,-16.9516,-5.4030,-1.3617,-56.7049,-38.9130,-7.9214,0.3004,-4.4562
2234.3750,-21.0472,-2.6488,-3.1263,-0.3009,-0.5510,11.9049,8.3724,0.5076,-11.8775,-29.5720,-30.7587,-12.9165,-5.8240,-0.3194,-58.2412,-44.1800,-7.2774,-2.5163,-6.8119
2238.2812,-21.2451,-6.6476,-7.4454,-4.3483,-0.8484,7.4651,-5.0319,-5.6279,-14.9549,-30.6611,-32.0164,-9.9596,-6.1952,-0.2073,-57.5821,-41.3391,-7.3050,-6.9481,-8.8446
2242.1875,-19.9199,-10.0752,-10.0121,-7.3363,-0.9543,4.9173,-14.8517,-8.2373,-16.8740,-29.7127,-28.6032,-8.8375,-6.5070,-1.3444,-54.8665,-31.5801,-8.3291,-11.2201,-9.7297
2246.0938,-17.5547,-11.6358,-9.8181,-8.1237,-0.9601,5.0257,-17.5923,-6.8222,-16.8459,-26.8346,-22.1500,-9.3140,-6.6773,-3.4607,-51.2557,-19.1994,-10.1812,-13.5562,-9.0738
2250.0000,-15.1054,-10.7535,-6.9443,-6.4609,-0.8386,7.2710,-12.6905,-2.4406,-14.8232,-22.7576,-15.5269,-10.4447,-6.5293,-5.7743,-48.0131,-9.2909,-12.1961,-12.9498,-7.0568
2253.9062,-13.5433,-7.7370,-2.5262,-3.0608,-0.5064,10.2371,-2.6370,2.9631,-11.4716,-18.5128,-11.3437,-11.2437,-5.9084,-7.4022,-45.6605,-5.0053,-13.4669,-9.6134,-4.3885
2257.8125,-13.4180,-3.6418,1.6548,0.7024,-0.0141,12.3947,8.1564,7.4608,-7.9028,-15.0923,-10.7418,-11.2915,-4.8559,-7.8678,-43.7462,-6.0015,-13.2511,-4.8986,-2.0715
2261.7188,-14.6347,0.0986,3.8456,3.3421,0.3356,12.7903,15.2268,9.8067,-5.2694,-13.2010,-13.0592,-10.8749,-3.6857,-7.3714,-41.3181,-9.0539,-11.3439,-0.7006,-1.0135
2265.6250,-16.5218,2.1638,3.0491,3.8483,0.0976,11.2924,15.8805,9.6277,-4.3418,-13.1114,-16.4247,-10.5893,-2.8689,-6.6299,-37.7287,-10.4481,-8.2411,1.3981,-1.6199
2269.5312,-18.1349,1.8232,-0.4926,2.0870,-1.0169,8.3913,10.2330,7.2295,-5.2093,-14.5949,-18.8546,-10.7247,-2.7755,-6.3855,-33.2121,-8.6141,-4.9952,0.8504,-3.5675
2273.4375,-18.6509,-0.7663,-5.3285,-1.1486,-2.8703,4.8265,1.0651,3.3019,-7.2385,-16.9382,-19.2341,-10.9219,-3.4400,-6.9158,-28.8525,-5.2258,-2.7991,-1.6260,-5.9188
2277.3438,-17.6920,-4.5900,-9.4049,-4.4693,-4.8835,1.3306,-7.4371,-1.2495,-9.3466,-19.1052,-17.7151,-10.3940,-4.5152,-7.8783,-25.9804,-3.9628,-2.4652,-4.4454,-7.5687
2281.2500,-15.4691,-8.1783,-11.0134,-6.4777,-6.3260,-1.4343,-11.5336,-5.3444,-10.5105,-20.0837,-15.4289,-8.5788,-5.4550,-8.5796,-25.3884,-7.7020,-4.0419,-5.9981,-7.8059
2285.1562,-12.7126,-10.2518,-9.6175,-6.3715,-6.7274,-2.8935,-9.5871,-7.8282,-10.2821,-19.3441,-13.7636,-5.7490,-5.8141,-8.4638,-26.8529,-16.0520,-6.7673,-5.5140,-6.6748
2289.0625,-10.4251,-10.3176,-6.1114,-4.2990,-6.1302,-2.7090,-2.7874,-7.7978,-9.0402,-17.1997,-13.6289,-3.0924,-5.4790,-7.4713,-29.2349,-25.0198,-9.4030,-3.4852,-4.9182
2292.9688,-9.5376,-8.9007,-2.3567,-1.2962,-5.0150,-1.0499,5.4154,-5.0814,-7.8126,-14.8112,-15.0660,-2.1311,-4.6972,-6.0386,-31.0695,-29.2284,-10.7902,-1.4072,-3.5321
2296.8750,-10.5736,-7.2544,-0.2377,1.1855,-3.9639,1.2432,10.9488,-0.5572,-7.7329,-13.7207,-17.3362,-3.8052,-3.9039,-4.7757,-31.2818,-25.3480,-10.3429,-0.9623,-3.2019
2300.7812,-13.4310,-6.6785,-0.7417,1.9603,-3.3046,2.8608,11.0792,4.0354,-9.4088,-15.0657,-19.3690,-7.8056,-3.4657,-4.0788,-29.6284,-14.4741,-8.2253,-3.0782,-3.9525
2304.6875,-17.3707,-7.8103,-3.5366,0.6884,-2.9697,2.6224,5.7443,6.8608,-12.5468,-18.8749,-20.2958,-12.6011,-3.4918,-3.9403,-26.6667,-1.7748,-5.1504,-7.3743,-5.1957
2308.5938,-21.2441,-10.2846,-7.2216,-1.9269,-2.6262,0.1706,-2.4272,6.9730,-16.0453,-23.8784,-19.8035,-16.1701,-3.8021,-4.0392,-23.3401,6.5016,-1.9551,-12.2965,-6.1050
2312.5000,-23.8943,-12.9528,-10.0555,-4.4439,-1.9397,-3.7017,-9.4515,4.9153,-18.5110,-28.0219,-18.1726,-17.0097,-4.0457,-3.9855,-20.4608,6.7884,0.7757,-15.8708,-6.0599
2316.4062,-24.5794,-14.5276,-10.7525,-5.3637,-0.7703,-7.3809,-12.0059,2.4791,-18.9207,-29.4688,-16.0424,-14.8422,-3.8886,-3.5199,-18.3773,0.3004,2.8333,-16.6683,-4.9057
2320.3125,-23.2378,-14.2754,-8.9724,-3.8725,0.8010,-9.2965,-9.0751,1.6704,-17.0836,-27.5546,-14.0704,-10.6546,-3.1770,-2.5648,-16.9537,-7.8896,4.2502,-14.4749,-2.9321
2324.2188,-20.4746,-12.3695,-5.3492,-0.2768,2.5670,-8.8177,-2.3545,3.4766,-13.6850,-23.1455,-12.6678,-6.1238,-2.0146,-1.1776,-15.7938,-12.1717,5.0769,-10.3355,-0.6633
2328.1250,-17.2847,-9.7334,-1.1448,4.0969,4.2796,-6.6254,4.7749,7.2089,-9.9246,-18.1813,-11.9131,-2.8175,-0.7331,0.4739,-14.5252,-9.9209,5.2691,-5.9918,1.3669
2332.0312,-14.6485,-7.5067,2.2548,7.4979,5.6569,-4.3145,9.0851,10.8648,-6.9701,-14.6555,-11.6309,-1.6112,0.2269,2.0735,-12.9785,-2.9455,4.7611,-3.0456,2.7335
2335.9375,-13.1808,-6.4605,3.7943,8.5482,6.3624,-3.4643,9.0936,12.3015,-5.5020,-13.6126,-11.5461,-2.5516,0.4830,3.1362,-11.1960,3.9784,3.6309,-2.2892,3.1390
2339.8438,-12.9568,-6.6794,3.0330,6.8425,6.0650,-4.7444,5.5364,10.4874,-5.5391,-14.7079,-11.4151,-5.0839,-0.1303,3.1321,-9.3137,6.3900,2.1846,-3.5036,2.4141
2343.7500,-13.5304,-7.6334,0.2213,3.0669,4.6226,-7.5853,0.5626,6.0559,-6.5619,-16.5228,-11.0835,-8.3964,-1.4750,1.7704,-7.4109,3.0134,0.8624,-5.7471,0.5685
2347.6562,-14.0911,-8.5389,-3.8169,-1.3786,2.2908,-10.5741,-3.7177,0.8684,-7.8087,-17.3793,-10.4760,-11.6642,-3.1345,-0.7093,-5.4086,-3.6109,0.0280,-7.8984,-2.1237
2351.5625,-13.6955,-8.7700,-7.9480,-5.0128,-0.2200,-12.2957,-6.3504,-3.0603,-8.5740,-16.1542,-9.5534,-14.1521,-4.5488,-3.4758,-3.0628,-8.9813,-0.1975,-9.1356,-5.0854
2355.4688,-11.5444,-8.1047,-11.0626,-6.8172,-1.9529,-12.0994,-7.6498,-4.5491,-8.3917,-12.6727,-8.2674,-15.2662,-5.2032,-5.3966,-0.0526,-9.5940,0.0711,-9.1339,-7.5191
2359.3750,-7.2761,-6.7154,-12.3741,-6.4569,-2.1116,-10.3612,-8.3915,-3.5780,-7.0779,-7.5779,-6.5312,-14.6512,-4.7908,-5.5682,3.8673,-5.0269,0.6445,-7.9706,-8.6117
2363.2812,-1.1837,-4.9593,-11.5871,-4.1721,-0.4435,-8.1440,-8.8278,-0.9068,-4.6816,-1.8748,-4.2154,-12.3131,-3.2828,-3.7791,8.7135,2.0934,1.4293,-5.8920,-7.7872
2367.1875,5.7933,-3.1107,-8.8979,-0.5163,2.6312,-6.5042,-8.3570,2.5846,-1.4101,3.5418,-1.1818,-8.6541,-0.8931,-0.6130,14.2163,8.0150,2.4637,-3.1317,-4.9015
2371.0938,12.4163,-1.1763,-4.8613,3.8529,6.2226,-5.8578,-6.1214,6.3078,2.4339,8.1841,2.6464,-4.3261,2.0252,2.8745,19.9291,10.2854,3.7955,0.1232,-0.3078
2375.0000,17.7662,1.1182,-0.2051,8.2532,9.3738,-5.7441,-2.0347,9.9197,6.5001,12.0764,7.2034,0.0546,5.0936,5.6980,25.5000,9.1270,5.3240,3.6537,5.2229
2378.9062,21.8295,4.1696,4.3362,11.9988,11.4260,-5.0829,2.6672,13.0386,10.4387,15.7402,12.2361,4.1539,7.9873,7.3643,30.9644,7.0361,6.7613,7.1357,10.6935
2382.8125,25.6461,8.2379,8.1418,14.4844,12.1645,-2.7709,5.9400,15.1165,13.9465,20.0719,17.3355,7.9437,10.4625,7.9452,36.8394,7.0286,7.7621,10.1584,15.1258
2386.7188,30.7809,13.2031,10.7810,15.3622,11.7328,1.6864,6.2644,15.6561,16.7964,26.0462,22.0329,11.4667,12.3411,7.8245,43.8537,10.6900,8.1163,12.3344,17.7918
2390.6250,38.2896,18.4604,12.0457,14.6994,10.4446,7.8002,3.8279,14.5777,18.8276,34.2128,25.9025,14.5122,13.4677,7.3527,52.3606,17.1546,7.8317,13.4163,18.3667
2394.5312,47.7444,23.0203,11.9242,12.9571,8.6409,14.1525,0.5671,12.3453,19.9063,44.1371,28.6045,16.4762,13.6638,6.6584,61.7456,23.5002,7.0220,13.3362,16.9519
2398.4375,56.9807,25.7940,10.5121,10.7327,6.6450,18.8577,-1.1395,9.6418,19.8930,54.1291,29.8656,16.5760,12.7192,5.7032,70.2545,26.2633,5.6964,12.1561,13.9691
2402.3438,62.8768,25.9580,7.9140,8.4086,4.7599,20.2526,-0.2829,6.8089,18.6690,61.5932,29.4714,14.3468,10.4612,4.4698,75.5111,23.2641,3.6638,9.9957,9.9852
2406.2500,62.8650,23.2520,4.2310,5.9612,3.2303,17.5426,1.8195,3.5499,16.2385,64.0297,27.3612,10.1166,6.9150,3.0911,75.5900,14.8521,0.7034,7.0271,5.5686
2410.1562,56.3595,18.0951,-0.3048,3.1091,2.1602,11.1515,2.2969,-0.7405,12.8587,60.2754,23.8296,5.1143,2.4969,1.8180,70.1045,3.9685,-3.0579,3.5541,1.2518
2414.0625,45.2495,11.4904,-5.1149,-0.2658,1.4638,2.6386,-1.1288,-6.1618,9.0998,51.2895,19.6883,1.0629,-1.8957,0.8752,60.6420,-5.0581,-6.8362,0.0983,-2.4186
2417.9688,33.0980,4.7633,-9.1756,-3.7318,0.9337,-5.7916,-8.0946,-11.6353,5.7426,39.9207,16.1727,-0.5808,-5.0365,0.3444,50.1828,-8.4953,-9.2562,-2.6378,-4.8519
2421.8750,23.4310,-0.7785,-11.2461,-6.2930,0.4176,-12.0160,-15.2462,-15.0358,3.5009,29.6367,14.4717,0.6571,-5.8002,0.1708,41.7145,-5.0608,-8.8952,-3.9974,-5.5214
2425.7812,18.0391,-4.1861,-10.4507,-6.8598,-0.0187,-14.7106,-18.1213,-14.2744,2.6728,22.8264,15.0272,3.9906,-3.7238,0.2628,36.7771,3.3146,-5.0852,-3.7144,-4.2290
2429.6875,16.2084,-5.1503,-6.9497,-4.9634,-0.0917,-13.8205,-14.2046,-8.7479,2.9043,19.6100,17.0028,7.6969,0.6003,0.5732,34.7656,12.3227,1.4823,-2.1778,-1.3839
2433.5938,15.2573,-4.1591,-2.2485,-1.2472,0.4886,-10.6191,-5.0954,-0.1654,3.2310,17.8554,18.3539,9.8776,5.5838,1.0766,33.4078,17.4009,8.7685,-0.4090,1.9312
2437.5000,12.0296,-2.4494,1.2117,2.6496,1.7174,-7.3081,3.8851,7.9586,2.4332,14.4222,16.6517,9.2698,9.2285,1.6712,30.1395,16.0619,14.1237,0.3157,4.2594
2441.4062,4.5038,-1.6922,1.1353,4.8381,3.1270,-6.2485,6.6950,12.0215,-0.4316,6.9407,10.3404,5.7200,10.0042,2.1172,23.5722,9.1423,15.4466,-0.9520,4.3694
2445.3125,-7.3070,-3.4341,-3.3883,4.1572,3.9153,-9.0572,0.4160,10.2988,-5.5735,-4.8736,-0.2509,0.1345,7.5626,2.1032,14.2123,0.2506,12.1849,-4.3434,1.8604
2449.2188,-21.5424,-8.4659,-11.2182,0.8034,3.3417,-15.9060,-12.5641,3.9464,-12.3311,-19.0886,-12.7875,-6.0064,2.8795,1.4211,4.0650,-6.2485,5.6393,-9.0664,-2.5851
2453.1250,-35.5517,-16.3926,-19.5627,-3.7882,1.1652,-25.3559,-25.6180,-3.6344,-19.4348,-32.6299,-23.8897,-11.2921,-2.2824,0.1189,-4.5684,-7.5075,-1.6258,-13.7679,-7.4946
2457.0312,-47.2049,-25.6608,-25.3387,-7.7596,-2.1584,-34.8847,-31.7303,-8.7382,-25.5450,-42.9084,-30.7258,-14.8756,-6.2948,-1.4970,-10.3487,-3.4267,-6.9892,-17.1889,-11.3198
2460.9375,-55.7878,-34.1034,-26.7794,-9.8645,-5.6614,-41.9555,-27.8160,-9.4544,-29.7969,-49.0766,-32.3775,-16.6312,-8.4388,-3.0331,-13.5042,3.7067,-8.9848,-18.7580,-13.1806
2464.8438,-62.0918,-39.7990,-24.3650,-10.1060,-8.3360,-45.1593,-16.7805,-6.6705,-32.0774,-52.2583,-30.2105,-16.9738,-9.0922,-4.2378,-15.5266,10.6822,-7.8903,-18.7931,-13.2181
2468.7500,-67.7232,-41.8449,-20.5074,-9.6037,-9.6089,-44.8554,-5.9447,-3.4027,-32.9153,-54.7102,-27.0478,-16.4914,-9.2514,-5.1217,-18.2420,14.8615,-5.3919,-18.2048,-12.3624
2472.6562,-74.0304,-40.6669,-18.1420,-9.7901,-9.5432,-42.9310,-2.7252,-2.8889,-33.0748,-58.4596,-25.6322,-15.6025,-9.7318,-5.8865,-22.8332,14.8883,-3.5298,-17.8823,-11.6777
2476.5625,-81.2205,-37.7230,-19.0360,-11.4422,-8.6721,-41.7680,-10.1892,-6.6040,-33.1005,-64.1987,-27.2558,-14.4139,-10.5851,-6.7226,-29.3075,10.5947,-3.5334,-18.1343,-11.7012
2480.4688,-88.1518,-34.7843,-22.8050,-14.1496,-7.6126,-42.9666,-25.1916,-13.3653,-33.0764,-71.0145,-31.2948,-12.8374,-11.1176,-7.6394,-36.5776,2.7112,-5.2200,-18.5245,-12.1834
2484.3750,-92.9628,-33.1888,-27.2096,-16.5541,-6.7363,-46.5494,-40.2030,-20.0224,-32.7263,-77.0383,-35.8272,-10.8856,-10.4891,-8.4620,-43.0016,-7.0953,-7.3002,-18.2122,-12.3764
2488.2812,-94.2472,-33.4407,-29.5495,-17.2246,-6.1087,-51.1056,-47.6800,-23.2909,-31.7791,-80.5964,-38.8873,-8.9573,-8.4806,-8.9978,-47.0845,-15.9992,-8.3792,-16.6036,-11.6724
2492.1875,-92.1306,-35.2922,-28.3279,-15.6434,-5.6939,-54.7707,-44.3327,-21.6558,-30.3580,-81.2042,-39.5952,-7.9002,-5.8940,-9.2461,-48.0781,-20.3190,-7.9923,-13.9164,-10.1754
2496.0938,-88.5620,-38.1518,-24.2085,-12.6917,-5.6189,-56.4216,-32.7957,-16.2566,-29.1269,-79.8573,-38.5510,-8.7395,-4.2719,-9.4816,-46.3147,-16.8796,-6.9665,-11.2858,-8.8273
2500.0000,-86.5087,-41.5007,-19.7101,-10.2987,-6.2424,-56.3343,-19.8571,-10.2696,-29.0549,-78.4715,-37.3521,-12.1423,-5.0567,-10.1346,-43.1784,-5.0346,-6.8187,-10.2886,-8.9767
2503.9062,-88.3825,-45.0520,-17.8142,-10.4018,-7.9242,-55.9047,-12.4607,-7.1442,-30.8827,-78.7897,-37.5856,-17.8821,-8.6760,-11.5242,-40.6693,11.9884,-8.5544,-12.0991,-11.6122
2507.8125,-94.5625,-48.6107,-20.2792,-13.7846,-10.6344,-56.6395,-13.9191,-8.6834,-34.5766,-81.3658,-39.8892,-24.6337,-14.1145,-13.6075,-40.6218,27.7876,-11.6918,-16.7342,-16.6889
2511.7188,-102.9445,-51.8139,-26.6097,-19.4712,-13.7068,-59.0930,-22.4826,-14.0428,-39.1073,-85.2011,-43.5791,-30.3147,-19.2742,-15.8990,-43.8339,35.7347,-14.2723,-22.8364,-22.9491
2515.6250,-109.9066,-54.0132,-34.2523,-25.0768,-15.9902,-62.4458,-32.8719,-20.2128,-42.7559,-88.2549,-47.0056,-32.9097,-21.9700,-17.6231,-49.5191,32.7049,-14.0032,-28.1794,-28.3822
2519.5312,-112.2251,-54.4468,-39.9022,-27.9833,-16.3952,-64.9863,-39.6174,-23.7246,-43.8625,-88.5594,-48.4194,-31.4135,-21.0396,-18.0389,-55.4615,21.2161,-9.8873,-30.6819,-31.1233
2523.4375,-108.8281,-52.6309,-41.1915,-26.7169,-14.5427,-65.1640,-40.1044,-22.6164,-41.6591,-85.3167,-46.8889,-26.3968,-16.9609,-16.7895,-58.9411,8.3075,-3.2545,-29.4135,-30.3397
2527.3438,-101.3100,-48.7187,-37.8321,-21.7491,-11.0859,-62.5288,-35.5878,-17.5271,-36.7202,-79.3376,-42.7955,-19.8375,-11.6218,-14.1151,-58.0369,1.5254,2.6261,-25.0420,-26.6317
2531.2500,-92.8625,-43.5656,-31.6049,-15.2406,-7.4401,-57.9672,-29.8019,-11.2606,-30.7325,-72.5580,-37.6401,-14.2343,-7.3465,-10.8182,-52.6125,4.3946,4.3127,-19.4609,-21.7141
2535.1562,-86.2817,-38.4003,-25.2420,-9.8491,-5.0150,-53.1226,-26.2479,-7.0599,-25.6477,-66.9013,-33.2375,-11.4216,-5.6880,-7.9704,-44.3816,14.2887,0.3515,-14.7871,-17.5217
2539.0625,-82.3081,-34.2514,-20.8742,-7.2818,-4.3969,-49.4000,-25.9415,-6.6216,-22.6625,-63.1652,-30.7071,-11.7090,-6.6408,-6.4620,-35.9603,24.1561,-7.5267,-12.2816,-15.2138
2542.9688,-79.3483,-31.4495,-18.9475,-7.4442,-5.0068,-47.1954,-26.9731,-9.0765,-21.6050,-60.6026,-29.8154,-13.8181,-8.7100,-6.5851,-29.4335,27.0429,-15.0512,-11.7990,-14.6276
2546.8750,-74.7233,-29.5074,-18.2196,-8.6859,-5.4928,-45.8023,-26.0323,-11.6025,-21.1090,-57.4600,-29.0866,-15.6594,-9.8104,-7.8626,-25.2908,20.4854,-17.6722,-12.0599,-14.4987
2550.7812,-66.5986,-27.4651,-16.7841,-8.9711,-4.6409,-44.0005,-20.8222,-11.3180,-19.4955,-52.1463,-26.6828,-15.5147,-8.4988,-9.2441,-22.3742,7.9353,-13.1734,-11.5533,-13.3245
2554.6875,-55.3242,-24.5084,-13.4472,-7.2238,-2.2250,-40.9086,-11.7978,-7.2627,-15.8377,-44.3126,-21.5862,-12.9512,-4.8370,-9.6152,-18.8411,-3.6216,-3.0800,-9.4981,-10.3581
2558.5938,-43.3255,-20.4798,-8.5647,-3.9841,0.7849,-36.5515,-2.1361,-1.1662,-10.5511,-35.1710,-14.3658,-8.9496,-0.3693,-8.3784,-13.5018,-8.1731,8.0334,-6.2682,-6.1172
2562.5000,-33.6470,-15.9591,-3.8033,-0.9603,2.8381,-31.8037,4.0328,3.5595,-5.1273,-26.8454,-6.9962,-5.1927,2.7993,-5.7847,-6.6587,-4.3105,14.9871,-3.0389,-2.0752
2566.4062,-28.1024,-11.8464,-0.9821,0.2196,2.8746,-27.7769,4.0522,4.0234,-1.1658,-21.1401,-1.7492,-2.9689,3.3024,-2.8027,0.0845,4.3002,14.7993,-0.9106,0.2940
2570.3125,-26.1903,-8.7156,-0.7597,-0.7793,1.1499,-25.0563,-1.6262,-0.1328,0.6808,-18.4589,0.2073,-2.3725,1.4137,-0.5637,4.8981,11.6909,8.2440,-0.1045,0.5209
2574.2188,-25.3940,-6.3723,-2.0502,-2.6389,-0.7636,-23.2711,-9.5456,-6.2357,1.1601,-17.5131,-0.3842,-2.3007,-1.0208,0.3128,6.9762,13.5814,-0.6901,0.2313,-0.4624
2578.1250,-22.6050,-3.9387,-2.5874,-3.1415,-0.8571,-21.2703,-15.0001,-9.9848,1.9614,-15.9758,-1.2289,-1.2366,-1.6267,0.1123,7.1650,9.9255,-7.0580,1.4743,-0.8240
2582.0312,-15.7739,-0.4471,-0.3145,-0.5685,2.0784,-17.8082,-14.4341,-7.9513,4.6228,-11.6974,0.1515,1.6921,1.0771,-0.1155,7.5841,4.5011,-7.5937,4.5950,1.0435
2585.9375,-4.8603,4.4339,5.2704,5.1515,7.6367,-12.3359,-7.1780,0.3395,9.4994,-3.8030,4.8719,6.0735,6.7303,0.8306,10.4788,2.0627,-2.2492,9.4526,5.4704
2589.8438,8.3299,10.0362,12.6698,12.2738,13.9299,-5.4243,4.3331,12.0051,15.4579,6.8971,11.9472,10.4205,13.2536,3.5760,16.9784,5.0837,6.1116,14.7753,11.1999
2593.7500,21.1657,14.9725,19.1331,18.1533,18.5983,1.4453,15.8449,22.3130,20.4972,18.3396,18.8608,13.1046,17.9920,7.7601,26.4401,12.1886,13.5178,18.8394,16.0411
2597.6562,31.4105,17.9165,22.1416,20.6715,20.0814,6.6234,23.2972,27.1907,22.9045,28.1898,23.0919,13.4047,19.2013,12.1877,36.6961,19.1235,17.0546,20.4131,18.1017
2601.5625,38.0227,18.3957,20.7392,19.3180,18.3899,9.1537,24.5338,25.2810,22.2256,34.8466,23.6309,11.9696,16.9843,15.4455,45.0367,21.4742,16.1707,19.3875,16.8565
2605.4688,41.2801,17.0865,15.9502,15.3295,14.9593,9.2631,19.9770,18.4381,19.4707,38.0065,21.5258,10.3750,13.1246,16.6211,49.4321,17.3674,12.5419,16.7384,13.4135
2609.3750,42.3604,15.4255,10.1162,10.8997,11.7497,8.2096,12.1376,10.5235,16.4778,38.6084,19.1535,10.0604,9.9556,15.7206,49.4434,8.5726,8.7779,13.9059,9.8497
2613.2812,42.7174,14.8053,5.6379,8.0117,10.1881,7.5909,4.3637,5.3246,14.8829,38.2880,18.7402,11.3699,8.9979,13.5869,46.4464,-0.5089,6.8630,12.0230,8.0566
2617.1875,43.5603,15.8829,3.8912,7.5871,10.5770,8.5332,-0.5335,4.7953,15.3453,38.6559,21.1143,13.3678,10.2175,11.4206,43.0806,-5.2571,7.2411,11.4656,8.8049
2621.0938,45.5813,18.4140,4.8805,9.3516,12.2300,11.2235,-1.2250,8.4838,17.4490,40.7178,25.4525,14.5830,12.3216,10.2099,42.1261,-3.2550,8.9519,11.9325,11.5532
2625.0000,48.9238,21.6340,7.6612,12.3283,14.1215,15.0070,1.8933,14.2409,20.2246,44.6260,30.0651,14.1810,13.8220,10.3778,45.2414,4.5551,10.5588,12.8946,15.0147
2628.9062,53.2983,24.8238,11.1013,15.5178,15.5635,18.9019,7.1358,19.6041,22.8493,49.7837,33.5750,12.7313,14.1040,11.7720,52.1059,14.4931,11.1796,14.0363,18.0297
2632.8125,58.1529,27.6197,14.4372,18.3202,16.4944,22.1449,12.3760,23.0023,25.0326,55.1869,35.6484,11.9714,13.7726,13.9096,60.4158,22.1119,10.9639,15.3813,20.1447
2636.7188,62.8318,29.8946,17.3381,20.5212,17.2847,24.4220,15.9282,24.1870,26.8904,59.8332,36.8404,13.6459,14.0677,16.2687,66.8544,24.4282,10.7831,17.0605,21.5678
2640.6250,66.6987,31.4225,19.5965,22.0029,18.2827,25.7242,17.0933,23.8361,28.5075,63.0394,37.8036,18.1644,15.7934,18.4559,68.6746,21.2454,11.4249,18.9585,22.6334
2644.5312,69.2386,31.7348,20.8202,22.4966,19.4519,26.0658,16.1690,22.7479,29.6064,64.5816,38.5540,24.0138,18.5445,20.2102,65.1359,14.9267,12.8894,20.5542,23.2489
2648.4375,70.1652,30.3987,20.4485,21.6115,20.3279,25.3807,14.0023,21.2129,29.6273,64.6586,38.3978,28.4123,20.8073,21.3281,58.0000,8.8366,14.2896,21.1185,22.7835
2652.3438,69.5374,27.5490,18.1233,19.1272,20.2927,23.7175,11.4106,18.9525,28.1820,63.7471,36.5742,28.8863,20.9106,21.6258,50.7209,5.4111,14.4447,20.1641,20.5148
2656.2500,67.8305,24.2006,14.1400,15.3287,18.9693,21.5428,8.8522,15.6093,25.5271,62.4299,33.0956,24.8063,18.2000,20.9926,46.6831,4.9966,12.7724,17.8450,16.3162
2660.1562,65.8705,21.9498,9.5963,11.1077,16.4973,19.8053,6.5159,11.3897,22.6496,61.2535,29.0903,17.8932,13.6313,19.4913,47.4319,6.0825,9.8607,15.0050,11.0605
2664.0625,64.5764,22.1069,6.0323,7.6908,13.5390,19.5615,4.6462,7.3355,20.8133,60.6187,26.3038,11.3255,9.3347,17.4104,51.9015,6.6416,7.2692,12.7910,6.3739
2667.9688,64.5756,24.7877,4.6878,6.0863,11.0187,21.3258,3.7024,4.9194,20.8044,60.6922,26.0385,7.9626,7.3725,15.1981,57.0962,5.5811,6.6036,12.0164,3.8122
2671.8750,65.8947,28.6329,5.7886,6.5336,9.7152,24.6022,4.0735,5.1223,22.3704,61.3502,28.2504,8.7560,8.4603,13.2904,59.8237,3.3003,8.4113,12.6489,3.9453
2675.7812,67.9433,31.4711,8.3183,8.2813,9.8958,28.0167,5.5008,7.5773,24.2688,62.1997,31.4592,12.3055,11.4717,11.9271,58.4527,1.0701,11.6366,13.7517,5.9513
2679.6875,69.8602,31.6001,10.4908,9.8825,11.1579,30.0834,6.7533,10.4531,24.9718,62.7264,33.5929,15.7948,14.0772,11.0641,53.6802,-0.1351,14.0822,13.9733,8.0311
2683.5938,71.0380,28.8843,10.7261,9.9198,12.5695,30.1570,6.0774,11.3575,23.6275,62.5487,33.2495,16.6933,14.1530,10.4361,47.9235,-0.3239,13.7077,12.3526,8.4424
2687.5000,71.4769,24.9133,8.5979,7.8102,13.0675,28.9174,2.4015,8.8537,20.6681,61.6574,30.5579,14.1825,11.1026,9.7290,43.8001,-0.1209,10.0069,8.9901,6.5337
2691.4062,71.6960,22.0509,5.1689,4.2294,11.9453,27.9838,-3.4390,3.6411,17.6295,60.4753,27.0627,9.4896,6.2693,8.7530,42.6610,0.2538,4.5644,5.1582,3.1304
2695.3125,72.2325,21.9407,2.4422,0.8467,9.1962,28.8377,-8.4946,-1.5140,16.2322,59.6428,24.6997,5.0282,2.1675,7.5133,44.0143,1.5959,0.3184,2.7082,0.0138
2699.2188,73.0918,24.4300,2.1798,-0.5634,5.5304,31.7422,-9.0532,-3.2935,17.2666,59.6084,24.5305,2.9520,0.9881,6.1491,46.0498,5.1126,-0.1509,3.0451,-1.1908
2703.1250,73.5924,27.6342,4.7742,0.8292,2.0538,35.4128,-3.0066,0.0094,20.0033,60.2713,26.0720,4.0088,3.2802,4.8063,46.7966,10.8708,3.6800,6.2422,-0.0160
2707.0312,72.7903,29.1385,8.8943,4.3322,-0.2257,37.7328,8.2558,7.0784,22.5618,60.9374,27.6639,7.2967,7.6107,3.5500,45.1560,16.6009,9.6794,10.8525,2.5967
2710.9375,70.2208,27.5832,12.2069,8.0396,-0.8054,37.1095,19.9155,14.0040,23.0680,60.6784,27.6273,10.9308,11.4013,2.3829,41.2748,18.2143,14.0558,14.6093,4.9527
2714.8438,66.3970,23.6137,12.7938,9.9148,0.1772,33.6001,26.1202,16.5094,20.8910,58.9057,25.4320,13.1101,12.4295,1.3342,36.2217,12.2256,13.4780,15.6662,5.7262
2718.7500,62.6212,19.5540,10.3918,9.0172,2.0946,29.0334,23.4619,12.6680,17.1338,55.7856,22.0753,12.9470,10.0793,0.5158,31.3301,-1.3384,7.1021,13.6551,4.7990
2722.6562,60.1463,17.9709,6.6193,6.0837,4.1162,25.9777,13.3328,4.3220,13.9932,52.1864,19.4021,10.6771,5.5981,0.0548,27.6372,-17.7363,-2.7451,9.8866,3.2563
2726.5625,59.2454,19.9998,3.9687,3.0453,5.4614,26.1571,1.4393,-3.8694,13.3296,49.1462,18.8143,7.2834,1.2400,-0.0747,25.6220,-29.3620,-11.7303,6.5181,2.5492
2730.4688,58.8914,24.4772,4.1611,1.7484,5.5455,29.3091,-5.4737,-7.2780,15.3567,47.1896,20.2500,3.8731,-1.1382,-0.1781,25.1875,-29.9370,-15.9120,5.1771,3.4072
2734.3750,57.3701,28.4558,6.9377,2.7124,4.0729,33.2401,-3.7280,-4.2464,18.3431,45.9648,22.1471,1.1790,-1.1426,-0.7682,25.7364,-18.5006,-13.9715,5.9141,5.2613
2738.2812,53.4831,28.8467,10.1402,4.7812,1.1505,35.1043,5.0191,2.8532,19.6066,44.4814,22.4457,-0.6140,0.0748,-2.2557,26.2900,-0.4673,-7.9233,7.1944,6.5951
2742.1875,47.5198,24.2525,11.1020,5.9441,-2.6008,33.1580,14.9107,9.2106,17.2241,41.8189,19.9657,-1.7381,0.7191,-4.5689,25.7176,15.2027,-1.8437,6.9719,6.0029
2746.0938,41.2676,15.9116,8.4719,4.7976,-6.0806,27.9129,19.7537,10.7967,11.3657,37.8279,15.2177,-2.5618,-0.3784,-6.9868,23.1290,21.0810,0.6251,4.1578,3.2386
2750.0000,36.9567,7.1698,3.2496,1.6312,-8.0266,21.9391,17.0684,7.0388,4.3433,33.3147,10.0744,-3.3281,-2.9599,-8.3945,18.3146,15.3771,-1.5336,-0.5105,-0.4781
2753.9062,35.7873,1.7286,-1.7167,-1.6570,-7.5757,18.3728,9.6044,1.1196,-0.7253,29.5328,6.5098,-4.0257,-5.5175,-7.9006,11.9720,2.4609,-6.1858,-4.8310,-3.1394
2757.8125,37.0139,1.6250,-3.5050,-2.8239,-4.7989,18.9823,3.3039,-2.3182,-1.8274,27.2919,5.2632,-4.4389,-6.3162,-5.4744,5.4988,-10.3817,-9.5215,-6.5463,-3.2011
2761.7188,38.2322,6.0690,-1.0400,-0.8930,-0.8472,22.9547,3.1106,-0.4779,0.6689,26.2834,5.3558,-4.3589,-4.5935,-2.1672,0.3810,-17.6175,-8.6021,-4.8924,-0.6054
2765.6250,36.7232,11.8034,4.1015,3.0019,2.4820,27.1871,9.4964,5.5642,4.1974,25.1141,4.8021,-3.8602,-1.1655,0.3120,-2.5065,-18.3804,-3.3631,-1.2472,3.0853
2769.5312,31.0135,14.8100,8.5453,6.1679,3.5955,27.9913,18.0736,11.5177,5.5238,22.0790,2.0282,-3.4796,1.9434,0.4918,-3.2838,-15.8718,3.2154,1.5911,5.5360
2773.4375,21.6753,12.4390,9.1076,5.9951,1.9113,23.2651,22.5300,12.7738,2.6572,16.2074,-2.9930,-4.1195,2.6230,-1.9981,-2.9210,-14.0766,6.9041,1.0692,4.9522
2777.3438,10.9016,4.8016,4.6700,1.6398,-1.8540,13.8545,18.8635,7.5544,-4.0374,7.9207,-8.6817,-6.6177,-0.1182,-6.1309,-2.6984,-14.4677,4.8700,-3.5569,1.0770
2781.2500,1.1936,-5.3226,-3.2016,-5.3421,-6.0847,3.2533,8.0482,-1.8114,-12.1538,-1.1153,-12.9114,-11.1372,-5.5533,-9.9645,-3.6385,-15.1557,-2.4925,-10.7327,-4.6824
2785.1562,-5.9692,-13.9804,-11.2089,-11.8157,-9.1049,-4.2569,-4.6037,-10.3063,-18.6874,-8.8495,-14.4416,-16.7326,-11.5527,-11.6416,-6.2284,-12.9211,-11.6983,-17.4647,-10.0107
2789.0625,-10.6683,-18.0933,-16.1803,-14.8125,-9.9558,-5.9836,-12.8554,-13.3367,-21.6445,-13.8816,-13.7256,-21.4570,-15.6050,-10.3315,-10.4786,-6.3325,-18.1899,-20.9576,-12.8442
2792.9688,-14.0674,-16.9320,-16.6851,-13.1243,-8.7022,-2.3290,-13.3884,-9.4724,-20.8605,-16.0615,-12.5384,-23.1280,-15.9859,-6.5910,-16.1029,2.6046,-18.9751,-20.0254,-12.2950
2796.8750,-17.3629,-12.2571,-13.5165,-7.8294,-6.1984,3.4842,-7.5712,-1.1090,-17.6920,-16.3544,-12.7046,-20.4568,-12.5054,-1.9874,-22.5706,9.5892,-14.2616,-15.5064,-8.9187
2800.7812,-20.9230,-7.1526,-8.9309,-1.5598,-3.5690,7.3209,-0.1635,7.1889,-13.9884,-16.1444,-14.8201,-13.9333,-6.5339,1.7346,-29.0000,11.0662,-7.1310,-9.5891,-4.3069
2804.6875,-24.1584,-4.2996,-5.2643,2.9287,-1.7542,6.5411,3.9639,11.4211,-11.1129,-16.4673,-17.8464,-5.8773,-0.3702,3.4443,-34.1151,6.8102,-1.5388,-4.6011,-0.3122
2808.5938,-26.1203,-4.6929,-3.7940,4.0156,-1.2999,1.4527,2.8214,10.1915,-9.5715,-17.6273,-19.8255,0.5152,3.7262,2.9860,-36.5342,0.0738,0.0554,-2.0073,1.6960
2812.5000,-26.3385,-7.4553,-4.4047,1.6966,-2.3322,-5.0603,-1.8719,4.9606,-9.2621,-19.3413,-19.2003,2.7129,4.4324,1.0367,-35.4173,-4.7940,-2.0256,-2.0726,1.2583
2816.4062,-25.3105,-10.7140,-6.0485,-2.7606,-4.5616,-9.4769,-6.3140,-1.3075,-9.9315,-21.1989,-15.8520,0.1536,1.8543,-1.3321,-31.1442,-5.4468,-5.1717,-4.1438,-1.1493
2820.3125,-24.3389,-12.8941,-7.5543,-7.5888,-7.2660,-9.9110,-7.3793,-5.9816,-11.4079,-23.0712,-11.2193,-5.4466,-2.5581,-3.1079,-25.5315,-3.0582,-6.3154,-7.1786,-4.4240
2824.2188,-24.8604,-13.6181,-8.2747,-11.2454,-9.3767,-7.2825,-4.6125,-7.9159,-13.5036,-25.2076,-7.5079,-10.9957,-6.6473,-3.6446,-21.2953,-1.2142,-3.8777,-10.1641,-7.3255
2828.1250,-27.7044,-13.7325,-8.2835,-12.8308,-9.8139,-4.6644,-0.2770,-7.4666,-15.8298,-28.0118,-6.5631,-13.6587,-8.4984,-2.8170,-20.9256,-3.1183,1.3469,-12.3160,-8.9677
2832.0312,-32.7068,-14.5559,-8.1484,-12.2045,-8.0296,-5.2456,2.3464,-5.7432,-17.8222,-31.6981,-9.0827,-12.3028,-7.3127,-1.0643,-25.5465,-9.2374,6.7860,-13.1611,-9.1348
2835.9375,-38.8406,-16.8988,-8.4954,-9.9055,-4.4543,-10.2221,1.1436,-3.8113,-19.0346,-36.0627,-14.5055,-7.9595,-3.7868,0.7007,-34.3860,-17.0554,9.6559,-12.6202,-8.2925
2839.8438,-44.7233,-20.4770,-9.6072,-6.9288,-0.4697,-17.9539,-3.5635,-2.3098,-19.4480,-40.4941,-21.4323,-3.0985,0.2277,1.3934,-45.1291,-22.9404,8.4879,-11.0662,-7.2800
2843.7500,-49.2019,-24.0430,-11.2301,-4.3542,2.2286,-24.9031,-9.3100,-1.4520,-19.4840,-44.1970,-28.1935,-0.2122,2.6653,0.2729,-54.9228,-24.5786,3.7732,-9.2287,-6.8312
2847.6562,-51.7505,-26.1099,-12.6657,-2.8924,2.5867,-27.7437,-12.9846,-1.1155,-19.6511,-46.5150,-33.2760,-0.5725,2.3219,-2.5254,-61.4739,-22.1671,-2.4757,-7.8853,-7.1817
2851.5625,-52.5694,-25.8157,-13.1226,-2.5523,0.8764,-25.3317,-12.5456,-0.8519,-20.0961,-47.2293,-35.5926,-3.8350,-0.5216,-5.7816,-63.7349,-17.6801,-7.8202,-7.4747,-7.9885
2855.4688,-52.4199,-23.4427,-12.1856,-2.6771,-1.3872,-19.3606,-8.0218,0.0582,-20.4609,-46.7337,-34.7251,-8.5830,-4.2896,-7.5775,-62.0090,-13.0774,-10.4704,-7.8920,-8.6052
2859.3750,-52.3044,-20.3246,-10.1583,-2.4223,-2.3208,-13.3762,-1.4023,2.2822,-20.2163,-46.0046,-31.1709,-13.3145,-7.0189,-6.2263,-57.6414,-9.0541,-9.8555,-8.6457,-8.5304
2863.2812,-53.1066,-18.2137,-8.0402,-1.4273,-0.8313,-10.8095,4.3700,5.8571,-19.2387,-46.3151,-26.4097,-17.1783,-7.4563,-1.3068,-52.5701,-5.3084,-6.6065,-9.2842,-7.7311
