Time,Fp1,F3,C3,P3,O1,F7,T3,T5,Fz,Fp2,F4,C4,P4,O2,F8,T4,T6,Cz,Pz
0.0000,-7.3519,0.0592,0.4524,-1.0794,-1.8772,-2.7698,-5.0811,-0.2317,-3.2209,-8.8018,-3.7488,-2.3721,-1.8852,-2.4611,-3.9341,0.7492,1.9198,-1.5806,-1.0933
3.9062,-5.0857,0.1409,0.7886,-1.5676,-1.9213,-2.7342,-4.4017,-1.1192,-3.3411,-8.5525,-2.9810,-2.4862,-2.1324,-2.0200,-3.0712,3.4078,1.8743,-1.9275,-0.7058
7.8125,-5.4619,-1.8336,-0.2791,-2.4557,-2.5245,-3.9202,-2.7940,-2.7175,-4.7571,-10.1465,-3.4553,-3.5998,-3.4838,-2.1653,-3.4738,4.5648,0.3200,-3.1451,-1.2239
11.7188,-9.3833,-6.0560,-3.3168,-3.4966,-3.4953,-6.3573,-0.5046,-4.6618,-7.4060,-13.7582,-5.5742,-5.6198,-5.6626,-2.8610,-5.5443,3.6119,-2.7228,-5.0307,-2.8304
15.6250,-15.5497,-11.4014,-7.8937,-4.2577,-4.2302,-9.2025,1.9055,-6.3174,-10.4539,-18.2896,-8.7842,-7.8081,-7.7221,-3.5703,-8.7056,1.2922,-6.3932,-6.8828,-5.0173
19.5312,-20.8346,-15.7492,-12.4881,-4.2766,-3.9332,-10.9513,3.8944,-7.0112,-12.5800,-21.5906,-11.6629,-9.0332,-8.4598,-3.4589,-11.4858,-0.6728,-9.3231,-7.7722,-6.6974
23.4375,-21.9263,-16.9949,-15.1038,-3.2712,-2.0200,-10.1046,5.2347,-6.3054,-12.6127,-21.3746,-12.6036,-8.3552,-7.0860,-1.8496,-12.2129,-0.7270,-10.3075,-7.0217,-6.7474
27.3438,-17.2456,-14.2131,-14.3303,-1.3045,1.5056,-5.9495,6.0520,-4.1904,-10.1738,-16.3966,-10.7304,-5.6275,-3.7499,1.3312,-9.9570,1.3584,-8.9334,-4.6279,-4.6940
31.2500,-7.9158,-8.2730,-10.2221,1.1894,5.9323,0.9762,6.5874,-1.1151,-5.9452,-7.2497,-6.4731,-1.7233,0.4285,5.3971,-5.1492,4.1588,-5.8017,-1.3506,-1.1035
35.1562,2.8229,-1.5016,-4.4067,3.5563,10.0781,8.9963,6.8879,2.1659,-1.3738,3.6916,-1.4064,1.8179,3.8883,9.1597,0.5383,5.4317,-2.2202,1.6276,2.6202
39.0625,11.3395,3.4481,0.7160,5.1928,12.7861,15.9241,6.6999,4.8691,2.0379,13.1891,2.5825,3.5776,5.4332,11.4749,5.0198,3.6313,0.4460,3.3090,4.9631
42.9688,15.3620,4.8869,3.2414,5.8110,13.4269,19.8819,5.6858,6.4707,3.4535,18.4613,4.2956,3.0368,4.8466,11.7794,6.8520,-0.9152,1.4000,3.4124,5.1389
46.8750,14.7335,2.8223,2.7350,5.5593,12.1526,19.9387,3.8237,6.8845,3.0359,18.2612,3.7810,0.8741,2.9605,10.3352,5.9009,-6.0178,0.6967,2.5149,3.5273
50.7812,10.9286,-1.2283,0.3358,4.9316,9.7826,16.3392,1.6625,6.4450,1.7311,13.2390,2.1299,-1.4139,1.1573,8.0765,3.2587,-8.8923,-0.9056,1.7147,1.4436
54.6875,5.9154,-5.1554,-2.0322,4.5083,7.4000,10.3186,0.1731,5.6990,0.6775,5.5256,0.6996,-2.3536,0.6226,6.1691,0.5256,-7.8899,-2.3826,2.0123,0.3824
58.5938,1.2330,-7.3279,-2.8046,4.6612,5.8726,3.6415,0.2078,5.1027,0.6149,-2.1657,0.3025,-1.2975,1.7844,5.5179,-1.0565,-3.5539,-2.9136,3.7714,1.1939
62.5000,-2.2419,-7.2304,-1.5655,5.3724,5.5185,-1.9629,1.8871,4.7781,1.6176,-7.4864,0.8743,1.2741,4.2166,6.4306,-1.1073,1.7035,-2.1809,6.5518,3.6674
66.4062,-4.0384,-5.4259,0.9346,6.2478,6.0363,-5.3217,4.3428,4.4638,3.2310,-9.1252,1.7565,4.0944,6.9731,8.5275,-0.0360,5.0906,-0.4322,9.3756,6.7120
70.3125,-3.9055,-3.0226,3.4060,6.7059,6.6819,-6.1617,6.0529,3.6931,4.8279,-7.0849,2.2938,5.8425,9.0754,10.8796,1.4184,5.1134,1.6476,11.2275,8.9610
74.2188,-2.0331,-1.0627,4.7855,6.2375,6.5873,-5.1456,5.6384,2.1044,5.9079,-2.5916,2.2651,5.8060,9.8560,12.3048,2.6475,2.3686,3.1744,11.4889,9.4103
78.1250,0.5491,-0.1776,4.6506,4.6156,5.0994,-3.5294,2.6729,-0.2953,6.1765,2.3030,1.8589,4.1136,9.0397,11.7526,3.3474,-1.0026,3.3473,10.0959,7.7670
82.0312,1.9761,-0.5815,3.1423,1.9796,2.0449,-2.5325,-1.9783,-3.0715,5.4555,5.3681,1.2944,1.4863,6.6568,8.7001,3.4059,-2.7603,1.7252,7.4136,4.4190
85.9375,0.3237,-2.2282,0.6398,-1.2139,-2.1445,-2.7046,-6.5090,-5.5461,3.6108,4.9790,0.4749,-1.2463,2.9730,3.4416,2.7329,-1.9316,-1.5738,3.9860,0.1760
89.8438,-5.1280,-4.9031,-2.4573,-4.3308,-6.4905,-3.6539,-9.0236,-7.1133,0.6416,0.8133,-0.9811,-3.5256,-1.4793,-2.8711,1.2604,0.7514,-5.8379,0.3482,-4.0104
93.7500,-12.9802,-8.1611,-5.6812,-6.7286,-9.7260,-4.3376,-8.4171,-7.4966,-3.1059,-5.8559,-3.3169,-5.1468,-5.8482,-8.5292,-0.8651,3.5111,-9.9512,-3.0226,-7.2362
97.6562,-19.9379,-11.2275,-8.3397,-7.9094,-10.7020,-3.7701,-4.8152,-6.7980,-6.7993,-12.4998,-6.1564,-6.0944,-9.0554,-11.8526,-3.0989,4.7368,-12.7623,-5.6714,-8.7741
101.5625,-22.2723,-13.0601,-9.5387,-7.6267,-8.8141,-1.7005,0.6174,-5.3325,-9.2547,-16.2788,-8.3976,-6.3395,-10.1139,-11.8320,-4.5588,3.9281,-13.4881,-7.1634,-8.2166
105.4688,-17.7701,-12.6767,-8.5203,-5.9325,-4.2705,1.2086,6.3246,-3.3876,-9.3776,-15.2313,-8.6691,-5.7851,-8.5611,-8.5268,-4.3950,1.8268,-11.9680,-7.1823,-5.6329
109.3750,-7.0247,-9.6424,-5.1445,-3.1618,1.9331,3.8369,11.0613,-1.0930,-6.7136,-9.1680,-6.1268,-4.3875,-4.7519,-3.0184,-2.2785,-0.2146,-8.6613,-5.6890,-1.6368
113.2812,6.7143,-4.4474,-0.1592,0.1368,8.3388,5.3689,14.2737,1.5012,-1.7970,0.1709,-1.0932,-2.3299,0.2009,3.0538,1.3107,-1.1239,-4.4209,-3.0347,2.7480
117.1875,19.0392,1.4906,4.9947,3.3037,13.5117,5.7888,16.0180,4.2059,3.9308,9.7890,4.8971,-0.0866,4.8568,8.1251,5.2085,-0.6913,-0.1876,0.0683,6.4269
121.0938,26.3515,6.2821,8.7762,5.6826,16.4713,5.7194,16.5628,6.5231,8.6315,16.6318,9.7241,1.6949,8.0306,11.1967,8.0631,0.4311,3.2477,2.7276,8.6249
125.0000,27.2406,8.3091,10.1870,6.7372,16.9009,5.7335,15.9856,7.7075,10.7759,18.7681,11.6494,2.4375,9.2205,12.0014,8.9312,1.1928,5.3552,4.1362,9.1194
128.9062,22.6808,6.9111,9.0978,6.1709,15.1018,5.7134,14.0453,7.0899,9.7223,16.0572,10.0964,1.8719,8.6769,10.8719,7.6585,0.7406,5.8964,3.8223,8.1990
132.8125,15.1878,2.6771,6.1343,4.0400,11.7871,4.8440,10.4226,4.4985,5.9254,10.0727,5.8537,0.1548,7.1308,8.4852,4.8799,-1.1574,4.9436,1.8010,6.4104
136.7188,7.5736,-2.8012,2.2964,0.8229,7.8459,2.3424,5.1877,0.5139,0.7237,3.3820,0.6497,-2.1711,5.3858,5.6457,1.6976,-3.9917,2.9021,-1.4077,4.2877
140.6250,1.9487,-7.5973,-1.3974,-2.6252,4.1547,-1.5992,-0.8069,-3.6452,-4.1710,-1.4854,-3.6233,-4.3478,4.0056,3.1440,-0.7656,-6.6822,0.4652,-4.9070,2.2275
144.5312,-0.7189,-10.2229,-4.0860,-5.2829,1.4282,-5.4540,-5.9133,-6.5971,-7.2734,-2.9773,-5.6415,-5.6451,3.2110,1.6238,-1.7385,-7.9672,-1.5679,-7.6809,0.5287
148.4375,-0.5435,-10.1544,-5.1358,-6.3150,0.0743,-7.0278,-8.1921,-7.4068,-7.8072,-1.0314,-5.0437,-5.6118,2.9494,1.4023,-1.0036,-6.9166,-2.5956,-8.9306,-0.5329
152.3438,1.6234,-7.9040,-4.2742,-5.4343,0.0678,-4.8349,-6.2957,-6.0064,-5.9265,3.0102,-2.4093,-4.2618,3.0191,2.3034,1.0782,-3.4181,-2.4922,-8.3817,-0.7362
156.2500,4.6499,-4.6537,-1.8176,-3.0821,0.9283,0.7413,-0.3276,-3.2009,-2.6079,7.0526,1.0844,-2.1079,3.1654,3.6563,3.6995,1.5880,-1.6793,-6.4217,-0.0677
160.1562,7.5880,-1.6679,1.2026,-0.2840,1.8854,7.3933,7.8231,-0.2614,0.7575,9.2199,4.1506,0.0144,3.1480,4.5632,5.8748,6.3343,-0.9061,-3.9618,1.1401
164.0625,10.0338,0.2289,3.2851,1.7954,2.2178,12.1129,15.0069,1.6647,2.9364,8.7457,5.8628,1.3058,2.8131,4.3613,6.8079,8.9360,-0.8385,-2.0411,2.2586
167.9688,12.2233,0.9003,3.1288,2.3941,1.6090,12.9600,18.1142,2.0162,3.3608,6.3684,5.9647,1.3954,2.1725,3.0206,6.2437,8.3032,-1.6954,-1.3472,2.6459
171.8750,14.7684,0.8172,0.4096,1.4978,0.3063,10.2109,15.5964,0.9365,2.3325,4.0052,4.9171,0.5492,1.4307,1.1995,4.6317,4.7639,-3.1521,-1.9043,2.0103
175.7812,18.1405,0.7437,-3.8664,-0.2097,-1.0416,6.1048,8.4004,-0.9504,0.8069,3.8165,3.6404,-0.4619,0.8948,-0.1241,2.9595,-0.0268,-4.5587,-3.1146,0.6010
179.6875,22.2260,1.3531,-7.7890,-1.7644,-1.7884,3.3566,-0.2978,-2.9234,-0.1503,7.1042,3.0388,-0.8030,0.7850,-0.2422,2.2796,-3.9288,-5.3193,-4.1391,-0.9352
183.5938,26.2865,2.9240,-9.5951,-2.4581,-1.6812,3.4508,-6.5734,-4.4649,0.0590,13.6016,3.5216,-0.0882,1.0614,0.8522,3.1482,-5.4666,-5.1900,-4.3946,-1.9584
187.5000,29.3944,5.2065,-8.7116,-2.1705,-0.9781,5.8544,-7.7370,-5.3390,1.2779,21.5292,4.7859,1.3540,1.4127,2.4843,5.2986,-4.5994,-4.3334,-3.8654,-2.2295
191.4062,31.0454,7.4884,-6.0796,-1.3146,-0.2156,8.6231,-3.7342,-5.4779,2.7632,28.3855,6.0123,2.6550,1.4563,3.7606,7.7642,-2.6149,-3.1470,-3.0438,-2.0150
195.3125,31.4837,8.8515,-3.5015,-0.4640,0.2052,9.8941,2.8852,-4.8296,3.6930,32.0558,6.3860,2.9432,1.0371,4.1605,9.4086,-1.1967,-2.0206,-2.5508,-1.8323
199.2188,31.4777,8.5608,-2.4257,0.0648,0.3075,9.1793,8.4668,-3.3183,3.6868,31.6853,5.6358,1.9235,0.4099,3.8563,9.5604,-1.2606,-1.1805,-2.6967,-2.0231
203.1250,31.7196,6.4648,-3.0007,0.3923,0.4899,7.5840,10.3655,-0.9530,3.0128,27.9361,4.2440,0.1265,0.1421,3.5471,8.3766,-2.3258,-0.6674,-3.2678,-2.4769
207.0312,32.3384,3.2282,-4.0601,0.9146,1.1795,6.8827,8.3996,2.0160,2.3746,22.6026,3.1773,-1.3458,0.7665,3.9381,6.7256,-2.8506,-0.3833,-3.6692,-2.7086
210.9375,32.9286,0.2277,-4.0397,1.9477,2.4544,8.1865,4.7565,5.0512,2.4519,17.8598,3.3012,-1.4375,2.4048,5.2342,5.6768,-1.3285,-0.1237,-3.3064,-2.2316
214.8438,33.0587,-0.9404,-2.1596,3.4482,3.9343,11.1618,2.4308,7.4817,3.5183,15.5069,4.8585,0.2546,4.6304,6.9927,5.9201,2.5740,0.4087,-1.9440,-0.9424
218.7500,32.7954,0.8169,0.9922,5.0183,5.0357,14.3015,3.2282,8.8033,5.3734,16.4522,7.3517,3.2545,6.6867,8.4185,7.4536,7.5973,1.5378,0.1895,0.7743
222.6562,32.7410,5.4775,3.8937,6.1829,5.4103,15.9822,6.6531,8.9487,7.5854,20.5133,9.8925,6.4888,7.9330,8.8736,9.6861,11.4922,3.4411,2.5936,2.3014
226.5625,33.5009,11.7605,5.2151,6.7266,5.2303,15.5360,10.4017,8.3410,9.8231,26.5073,11.7655,8.8912,8.2184,8.2442,11.8338,12.2991,5.9294,4.8240,3.2137
230.4688,35.0276,17.6131,4.8044,6.8383,5.0886,13.6365,12.0864,7.6679,12.0209,32.6014,12.8153,9.9552,7.9302,6.9335,13.3389,9.5193,8.3474,6.7244,3.5575
234.3750,36.4667,21.1426,3.8147,6.9588,5.5675,11.8252,10.9678,7.4855,14.2829,36.8917,13.4157,9.9187,7.6848,5.5264,14.0700,4.4624,9.7493,8.4200,3.7798
238.2812,36.7518,21.5306,3.8902,7.4445,6.7827,11.5681,8.4651,7.8860,16.6464,38.0932,14.0863,9.5115,7.8825,4.3941,14.2459,-0.4395,9.3319,10.1128,4.3703
242.1875,35.5410,19.4267,6.0164,8.3011,8.2464,13.4545,7.0785,8.4410,18.9260,36.0894,15.0719,9.4692,8.4405,3.5233,14.2001,-2.9384,6.9056,11.8564,5.4892
246.0938,33.7083,16.5854,9.8659,9.1845,9.1668,16.9520,8.4903,8.4759,20.7782,32.0364,16.2003,10.1336,8.8905,2.6692,14.1725,-2.1300,3.0994,13.4853,6.8618
250.0000,32.8637,14.9301,14.0836,9.6730,8.9875,20.7374,12.2234,7.5273,21.9326,27.8755,17.1041,11.3686,8.7653,1.6849,14.2451,1.1866,-0.8670,14.7438,8.0122
253.9062,34.1355,15.5576,17.2564,9.6134,7.7840,23.3288,15.8642,5.7085,22.3964,25.4288,17.6042,12.7894,7.9937,0.7595,14.4162,5.1100,-3.7396,15.5080,8.6491
257.8125,37.1091,18.2229,18.8290,9.2811,6.2306,23.6865,16.7519,3.7473,22.4635,25.5377,17.9335,14.0979,7.0155,0.3692,14.7103,7.7967,-4.7902,15.9225,8.9011
261.7188,39.8139,21.5562,19.3092,9.2232,5.1513,21.5710,13.9699,2.6405,22.5114,27.7281,18.6058,15.2731,6.5270,0.9573,15.2214,8.4809,-4.0565,16.3356,9.2126
265.6250,39.9149,23.8405,19.6670,9.8726,4.9655,17.5872,9.2075,3.1036,22.7372,30.5837,20.0119,16.4911,7.0201,2.5586,16.0483,7.7712,-2.1580,17.0613,9.9693
269.5312,36.3341,23.8827,20.4397,11.1912,5.4180,12.9335,5.8122,5.1226,23.0226,32.5718,22.0387,17.8573,8.4261,4.6344,17.1656,7.0962,0.1345,18.1227,11.1345
273.4375,30.1276,21.5136,21.2498,12.5940,5.7827,8.9316,6.6074,7.8738,23.0200,32.7966,24.0024,19.1732,10.1056,6.2639,18.3214,7.6763,2.2667,19.1594,12.1819
277.3438,23.9359,17.5242,21.1038,13.2339,5.4036,6.5088,11.9366,10.0784,22.3930,31.2596,24.9746,19.9414,11.2040,6.6141,19.0503,9.6729,3.9948,19.5826,12.4071
281.2500,20.3638,13.1876,19.2330,12.4928,4.1987,5.8723,19.2787,10.6125,21.0492,28.5882,24.3164,19.6425,11.1580,5.4342,18.8381,12.0431,5.2390,18.9122,11.4240
285.1562,20.4418,9.7066,15.8285,10.3875,2.7827,6.5782,24.7336,9.0522,19.2325,25.5673,22.0951,18.1187,10.0444,3.2808,17.3960,13.1922,5.9049,17.1055,9.5094
289.0625,23.2469,7.8711,12.1033,7.6349,2.1188,7.9763,25.4193,5.8717,17.4424,22.8661,19.1334,15.8005,8.5599,1.3178,14.9176,12.0177,5.8651,14.6784,7.5437
292.9688,26.8672,7.9865,9.6103,5.3242,2.9231,9.7304,21.2120,2.2038,16.2391,21.0809,16.6579,13.5893,7.6395,0.7658,12.1570,8.6896,5.1086,12.5213,6.5551
296.8750,29.8662,9.9375,9.2792,4.3661,5.1999,12.0029,14.7168,-0.6946,16.0244,20.8559,15.7303,12.4220,7.9294,2.2743,10.2088,4.6579,3.8883,11.4830,7.1339
300.7812,32.0649,13.2218,10.8246,5.0220,8.1869,15.0963,9.5405,-1.9937,16.8597,22.7375,16.7435,12.7544,9.4086,5.5508,10.0198,1.8582,2.6807,11.9286,9.0714
304.6875,34.0644,16.9230,12.9051,6.7646,10.7269,18.7883,8.0367,-1.6006,18.3698,26.6838,19.2102,14.2752,11.3659,9.4561,11.8400,1.5954,1.9381,13.5078,11.4378
308.5938,36.0083,19.7607,13.9043,8.5337,11.8244,21.9251,9.9742,-0.1215,19.7799,31.5764,21.9324,16.0392,12.7449,12.5258,14.9313,3.8046,1.8106,15.2699,13.0480
312.5000,36.7478,20.3836,12.8103,9.2390,11.0667,22.7541,12.8958,1.4558,20.1324,35.2731,23.4768,16.9584,12.6723,13.6476,17.7737,7.1604,2.0636,16.0793,13.0404
316.4062,34.2814,17.9163,9.6642,8.2434,8.7091,19.9528,13.8015,2.1851,18.6629,35.4631,22.7686,16.3669,10.8914,12.5361,18.7545,9.9543,2.2708,15.1254,11.2463
320.3125,27.2960,12.5207,5.3752,5.5965,5.4470,13.7086,10.9904,1.5196,15.1979,30.9791,19.5632,14.3286,7.8777,9.7689,17.0137,11.1545,2.1336,12.2716,8.1778
324.2188,16.6669,5.6016,1.1178,1.9431,2.0661,6.0117,4.9284,-0.4981,10.3524,22.7506,14.5866,11.5146,4.5822,6.4038,12.9647,10.9340,1.6639,8.0781,4.6920
328.1250,5.6640,-0.6039,-2.2579,-1.7971,-0.8210,-0.2213,-2.2350,-3.2451,5.3534,13.6539,9.2537,8.7499,1.9480,3.4300,8.1478,10.3173,1.0813,3.5119,1.5609
332.0312,-1.5052,-3.9701,-4.4706,-4.7915,-2.8552,-2.7565,-7.9778,-5.7159,1.5108,7.1749,5.0616,6.5303,0.4637,1.3773,4.4498,10.2137,0.5206,-0.4813,-0.8115
335.9375,-1.9728,-3.5192,-5.6584,-6.5367,-3.8804,-1.3467,-10.6082,-6.8704,-0.4012,5.6068,2.9320,4.8137,-0.0095,0.2662,3.1223,10.5556,-0.1759,-3.3170,-2.4118
339.8438,4.1749,0.0318,-6.0557,-6.9257,-3.8800,2.1807,-9.6970,-6.0543,-0.4904,8.8815,2.8388,3.1947,-0.0588,-0.1573,4.1737,10.2060,-1.3617,-4.8822,-3.4394
343.7500,13.9884,4.5761,-5.7739,-6.1826,-2.9755,5.1535,-5.7482,-3.3427,0.4002,14.7595,3.9252,1.3127,-0.3124,-0.1351,6.4830,7.7687,-3.2206,-5.4235,-4.0891
347.6562,23.3359,7.6680,-4.8273,-4.7466,-1.4661,5.7700,0.3641,0.3744,1.2432,20.2200,5.0462,-0.8070,-1.0548,0.2244,8.5339,2.7657,-5.4232,-5.3370,-4.4379
351.5625,29.0193,7.7622,-3.3287,-3.1516,0.1845,4.1171,7.6551,3.6826,1.4228,23.1216,5.4090,-2.7145,-2.0872,0.8572,9.2816,-3.6626,-7.1222,-4.9954,-4.4739
355.4688,30.0185,4.9484,-1.6565,-1.8993,1.4787,1.8167,14.8868,5.2551,0.9905,23.0921,4.9248,-3.8114,-2.8919,1.5926,8.6135,-9.1100,-7.3701,-4.6707,-4.1972
359.3750,27.3155,0.7718,-0.4222,-1.3124,2.1039,0.6400,20.3908,4.5178,0.4493,21.2154,4.0754,-3.7400,-2.9712,2.1373,7.1784,-11.1810,-5.7073,-4.5161,-3.6852
363.2812,22.7808,-2.7269,-0.2200,-1.3963,2.1148,1.1723,22.3210,2.0047,0.2743,18.9513,3.4330,-2.6104,-2.1323,2.2611,5.7975,-8.9118,-2.5066,-4.5459,-3.0663
367.1875,18.1139,-4.1565,-1.2941,-1.7900,1.9425,2.5315,19.4366,-0.8483,0.5574,17.1855,3.2073,-0.9250,-0.5505,2.0462,4.9266,-3.4123,1.1895,-4.6020,-2.4312
371.0938,14.4974,-3.4157,-3.3311,-1.8862,2.1831,3.2938,11.9969,-2.4216,1.0367,16.0596,3.1576,0.7277,1.3910,1.9605,4.5348,2.7188,4.2438,-4.3656,-1.7667
375.0000,12.8357,-1.4909,-5.5210,-1.1164,3.2575,2.8312,2.0971,-1.7743,1.4434,15.5065,2.9139,1.9843,3.3350,2.6203,4.4006,6.8619,6.0177,-3.4802,-0.9793
378.9062,13.9246,0.3768,-6.8881,0.7172,5.1293,1.9488,-6.9666,0.8385,1.8350,15.8228,2.4206,2.8226,5.0812,4.3528,4.4987,7.8247,6.5838,-1.7715,-0.0007
382.8125,18.0834,1.5539,-6.7388,3.2554,7.2534,2.2809,-12.1063,4.1098,2.5996,17.6358,2.1124,3.4438,6.5460,6.8588,5.1108,6.3895,6.4541,0.5602,1.1044
386.7188,24.4754,2.3260,-4.9965,5.6833,8.8049,4.8990,-11.8888,6.4118,4.1063,21.2265,2.6380,4.0549,7.6350,9.2596,6.5560,4.6749,6.0821,2.9383,2.1213
390.6250,30.8739,3.5021,-2.2356,7.1055,9.0790,9.2392,-7.1938,6.6840,6.2971,25.8280,4.3231,4.7339,8.1849,10.5611,8.7884,4.7694,5.5553,4.6676,2.7948
394.5312,34.4635,5.6526,0.6198,7.0107,7.8531,13.2402,-0.6967,4.9547,8.6000,29.6626,6.8032,5.4663,8.0649,10.2686,11.2430,7.5030,4.7108,5.3407,3.0092
398.4375,33.4495,8.5685,2.7850,5.5650,5.5199,14.6716,4.5313,2.2102,10.2979,30.9296,9.1623,6.2789,7.3695,8.7457,13.1217,12.0586,3.5456,5.1431,2.9176
402.3438,28.4404,11.3352,4.0209,3.5570,2.9225,12.7199,6.5274,-0.2619,11.1012,29.1412,10.5336,7.3162,6.5269,7.0547,13.9431,16.5486,2.5321,4.8273,2.9201
406.2500,22.4812,12.9495,4.7185,2.0129,0.9787,8.6871,5.2567,-1.6119,11.4607,25.7813,10.7432,8.7565,6.1726,6.3510,13.9339,19.1009,2.5052,5.3179,3.4733
410.1562,19.4406,13.0072,5.5967,1.6894,0.2821,5.2848,2.3913,-1.7943,12.3144,23.6357,10.5026,10.6164,6.8069,7.2005,13.9272,18.7824,4.1269,7.1588,4.8257
414.0625,21.6388,11.9533,7.1859,2.7194,0.8673,5.0005,0.2760,-1.3861,14.3884,25.0836,10.9625,12.6081,8.4371,9.2409,14.7997,15.9052,7.2873,10.1415,6.8284
417.9688,28.2616,10.7233,9.4100,4.5894,2.2360,8.6271,0.6890,-1.0531,17.5483,30.4575,12.9094,14.1989,10.4584,11.3902,16.8382,11.7030,10.9086,13.3629,8.9427
421.8750,35.6826,10.0646,11.5437,6.4387,3.6106,14.8655,4.0201,-1.0636,20.7099,37.6297,16.1659,14.8774,11.9022,12.4572,19.5018,7.6945,13.3666,15.6980,10.4613
425.7812,39.5703,10.0490,12.5934,7.4968,4.2899,21.1340,9.1901,-1.1713,22.4409,43.1855,19.6285,14.4652,11.9412,11.7781,21.7584,5.1061,13.3266,16.4076,10.8376
429.6875,37.4393,10.1262,11.8897,7.4249,3.9435,24.9431,14.2419,-0.8965,21.8757,44.4425,21.9246,13.2590,10.3590,9.5156,22.7506,4.5456,10.4914,15.5144,9.9554
433.5938,30.0104,9.6418,9.5315,6.4039,2.7241,24.9687,17.2561,0.0370,19.3128,40.9838,22.2360,11.8856,7.6949,6.4914,22.3058,5.9192,5.7962,13.7300,8.1934
437.5000,20.5624,8.3969,6.4069,4.9603,1.1571,21.3367,17.1620,1.4300,16.0660,34.7116,20.7292,10.9483,4.9646,3.7001,20.9350,8.5072,0.9307,12.0012,6.2494
441.4062,12.8146,6.8134,3.7665,3.6541,-0.1399,15.2361,14.1229,2.6730,13.6530,28.4604,18.3328,10.6870,3.1164,1.8048,19.3600,11.1702,-2.5249,10.9724,4.8096
445.3125,8.7973,5.5947,2.5940,2.7965,-0.7795,8.3201,9.3777,3.0763,12.8642,24.1812,16.0707,10.8674,2.5400,0.8734,17.9598,12.7070,-3.8464,10.6879,4.2321
449.2188,8.0486,5.1684,3.1276,2.3320,-0.8150,2.2475,4.6479,2.2375,13.3258,21.9334,14.4469,10.9623,2.9025,0.4425,16.5668,12.3284,-3.3998,10.6773,4.3989
453.1250,8.4583,5.3540,4.7854,1.9200,-0.7243,-1.6135,1.3934,0.2323,13.8154,20.2670,13.2875,10.4970,3.3842,-0.1796,14.7452,10.0689,-2.2917,10.3180,4.8061
457.0312,7.9560,5.5055,6.5011,1.1619,-1.1526,-2.4897,0.2660,-2.4341,13.0764,17.5655,12.0703,9.3315,3.1540,-1.5499,12.2928,6.8802,-1.6919,9.2149,4.8398
460.9375,5.7934,4.9968,7.2593,-0.1460,-2.5251,-0.5543,1.0078,-5.0374,10.5721,13.2964,10.4224,7.7106,1.8087,-3.8257,9.5395,4.2526,-2.2222,7.3701,4.0956
464.8438,2.6505,3.6558,6.5443,-1.8580,-4.7309,2.9138,2.8103,-6.8730,6.7236,8.2973,8.3934,6.0774,-0.4484,-6.6892,7.1860,3.4789,-3.7142,5.0923,2.5866
468.7500,-0.2547,1.8223,4.5075,-3.5035,-7.0676,5.8842,4.8881,-7.4379,2.5669,4.0200,6.3470,4.7946,-2.9480,-9.4651,5.8109,4.9338,-5.4071,2.7689,0.7433
472.6562,-2.1937,0.0219,1.8281,-4.4874,-8.5163,6.4865,6.8912,-6.5406,-0.8555,1.4260,4.6356,3.9603,-4.8997,-11.3785,5.4396,7.7902,-6.4311,0.6858,-0.7875
476.5625,-3.2938,-1.4400,-0.6135,-4.3714,-8.2345,4.0564,8.8964,-4.3442,-2.9512,0.4009,3.3664,3.4157,-5.7466,-11.8535,5.5255,10.3702,-6.3063,-1.0038,-1.4422
480.4688,-4.1030,-2.6212,-2.0872,-3.0964,-6.0137,-0.3603,11.0198,-1.3327,-3.6660,0.0611,2.4356,2.9051,-5.3672,-10.7330,5.3614,10.9621,-5.2082,-2.1978,-0.9985
484.3750,-4.8906,-3.7282,-2.2603,-1.0268,-2.4420,-4.4833,12.9811,1.8239,-3.2911,-0.4065,1.7413,2.2546,-4.0641,-8.3260,4.5987,8.6699,-3.8761,-2.7764,0.3262
488.2812,-5.3714,-4.7729,-1.2779,1.2107,1.3396,-6.0718,14.0140,4.4859,-2.2356,-1.1123,1.3290,1.4559,-2.3831,-5.2555,3.4678,3.8556,-3.2074,-2.6361,1.9760
492.1875,-5.1004,-5.4461,0.3232,3.0030,4.1766,-4.2482,13.2713,6.2555,-0.9378,-1.5438,1.3040,0.6270,-0.8666,-2.1780,2.5328,-2.0118,-3.7359,-1.8127,3.3085
496.0938,-4.1448,-5.3604,1.8307,3.9950,5.4520,-0.0379,10.4803,7.0637,0.1178,-1.2333,1.5911,-0.0842,0.1535,0.4850,2.1844,-6.9747,-5.2673,-0.5787,3.8814
500.0000,-3.3683,-4.4730,2.6244,4.1755,5.3553,4.2177,6.3636,7.0811,0.4367,-0.3919,1.7971,-0.5680,0.6493,2.6693,2.2804,-9.3498,-6.8929,0.5977,3.6429
503.9062,-3.9648,-3.3066,2.3982,3.7852,4.7263,6.1987,2.4433,6.5180,-0.3010,0.0708,1.3691,-0.7577,0.8521,4.5920,2.2234,-8.3260,-7.4196,1.2487,2.9374
507.8125,-6.5206,-2.7128,1.2456,3.1309,4.5697,4.8553,0.2707,5.4698,-1.9931,-0.7882,-0.0079,-0.6076,1.0984,6.5327,1.4239,-4.2310,-6.0243,1.1521,2.3204
511.7188,-10.3235,-3.2927,-0.4273,2.4277,5.5029,0.8416,0.5516,3.9297,-4.0187,-3.1064,-2.0727,-0.1050,1.6335,8.5981,-0.2079,1.5627,-2.7790,0.4631,2.2642
515.6250,-13.5248,-4.8977,-2.1103,1.7465,7.4240,-4.0292,2.7544,1.9471,-5.4468,-5.8852,-4.0096,0.6647,2.4601,10.5887,-2.1167,7.0477,1.2698,-0.3706,2.8933
519.5312,-14.1522,-6.6277,-3.4120,1.0496,9.5492,-7.8708,5.4777,-0.2233,-5.4915,-7.4861,-4.8827,1.4535,3.3023,12.0235,-3.4222,10.2330,4.5505,-0.8780,3.8799
523.4375,-11.3397,-7.3985,-4.1909,0.2445,10.7736,-9.6648,7.3207,-2.1509,-3.9555,-6.6577,-4.2184,1.8728,3.7073,12.3037,-3.4759,9.8830,5.7231,-0.8589,4.5611
527.3438,-5.9540,-6.7183,-4.5609,-0.7955,10.1612,-9.5774,7.6477,-3.4621,-1.3800,-3.3984,-2.3375,1.5408,3.2409,10.9537,-2.2701,6.0846,4.3276,-0.5208,4.2302
531.2500,-0.1927,-5.1294,-4.8108,-2.2287,7.3380,-8.6208,6.7289,-4.1134,1.1977,0.9331,-0.2007,0.2977,1.6904,7.8599,-0.4363,0.3307,0.9681,-0.3656,2.4685
535.1562,3.5828,-3.9743,-5.3039,-4.1967,2.6405,-7.9818,5.2248,-4.4682,2.7369,4.3320,1.1332,-1.6461,-0.8178,3.4221,1.1299,-5.0459,-3.0495,-0.8903,-0.6446
539.0625,4.0434,-4.6022,-6.3890,-6.7014,-3.0053,-8.4196,3.4818,-5.0629,2.6484,5.2239,1.0770,-3.7495,-3.8357,-1.4615,1.7402,-7.9317,-6.3899,-2.2794,-4.5399
542.9688,1.4237,-7.5090,-8.3023,-9.4622,-8.3938,-9.9724,1.2417,-6.1913,0.9887,3.2536,-0.2373,-5.3775,-6.7320,-5.6239,1.1961,-7.4790,-8.2761,-4.2717,-8.3760
546.8750,-2.8097,-11.9453,-11.0345,-11.8770,-12.4107,-12.0041,-1.9843,-7.6104,-1.6465,-0.6108,-2.1344,-6.1107,-8.8899,-8.0318,-0.2251,-4.5384,-8.6912,-6.2778,-11.3480
550.7812,-6.7991,-16.2133,-14.1988,-13.1839,-14.3395,-13.4943,-6.1878,-8.6223,-4.3958,-4.6052,-3.8079,-5.9398,-9.8807,-8.2059,-1.9695,-1.1603,-8.1577,-7.6680,-12.9359
554.6875,-9.0666,-18.4552,-17.0031,-12.7919,-14.0156,-13.4471,-10.4235,-8.5231,-6.4050,-6.9476,-4.6707,-5.2183,-9.5551,-6.4389,-3.4144,0.6080,-7.3078,-8.0560,-12.9909
558.5938,-8.8456,-17.4777,-18.4277,-10.6101,-11.7939,-11.2972,-13.1138,-7.1250,-7.0150,-6.4732,-4.4670,-4.4003,-8.0342,-3.6512,-3.9932,-0.0688,-6.5324,-7.4192,-11.6593
562.5000,-6.0183,-13.2155,-17.6034,-7.1637,-8.3604,-7.1770,-12.9738,-4.9681,-5.8865,-2.9547,-3.1964,-3.7373,-5.6224,-0.9165,-3.2908,-2.3483,-5.8811,-6.0102,-9.2330
566.4062,-0.9730,-6.6956,-14.2355,-3.3905,-4.4734,-1.9214,-9.9137,-3.0333,-3.1049,2.8525,-1.0274,-3.1365,-2.6937,1.0936,-1.1924,-4.2967,-5.1874,-4.1529,-6.0363
570.3125,5.3731,0.3716,-8.8466,-0.2112,-0.7434,3.2178,-5.2220,-2.1224,0.7510,9.3458,1.6825,-2.2780,0.3967,2.4126,1.9284,-4.1668,-4.2686,-2.0799,-2.4054
574.2188,11.4567,6.1448,-2.6778,1.8802,2.4619,7.0223,-0.8330,-2.3224,4.6642,14.3901,4.3144,-0.9136,3.3446,3.6249,5.1326,-1.5577,-3.0595,0.0796,1.2677
578.1250,15.1691,9.1633,2.7185,2.9637,4.9770,8.6897,1.8387,-2.9359,7.4287,15.8675,6.0286,0.8562,5.8779,5.3448,7.1198,2.2810,-1.6391,2.1733,4.5055
582.0312,14.4314,8.7258,5.9956,3.5020,6.7288,7.9555,2.6717,-2.9425,8.0513,12.4195,6.0173,2.5186,7.7266,7.6751,6.7255,5.1756,-0.1972,3.8874,6.8002
585.9375,8.1411,5.0741,6.3992,3.9506,7.6589,4.9562,2.6622,-1.6888,6.1399,4.1271,3.8844,3.3540,8.6332,10.0252,3.5011,5.2985,1.0083,4.7382,7.7549
589.8438,-2.9952,-0.6827,3.9050,4.4360,7.7445,0.0247,2.9486,0.6563,2.0795,-7.2555,-0.0846,2.7962,8.4326,11.4351,-1.9588,2.1841,1.7042,4.2496,7.2470
593.7500,-16.3279,-6.9393,-0.8483,4.7097,7.1004,-6.3673,3.7903,3.1838,-3.1069,-18.7738,-4.9650,0.7430,7.1766,11.2017,-8.1714,-3.0923,1.6956,2.2352,5.5247
597.6562,-28.0973,-12.1706,-6.7117,4.3930,6.0663,-13.4756,4.3018,4.8049,-8.1426,-27.3524,-9.5549,-2.3483,5.2242,9.3843,-13.3578,-8.5718,0.9951,-0.9888,3.1765
601.5625,-34.9435,-15.4776,-12.2053,3.3319,5.1794,-20.1506,3.1754,4.9147,-11.9390,-31.0052,-12.8515,-5.6179,3.2104,6.8400,-16.1658,-12.4041,-0.0893,-4.6159,0.9748
605.4688,-35.3596,-16.8276,-15.7828,1.8099,4.9965,-24.9643,-0.1322,3.7360,-13.8998,-29.5747,-14.3712,-8.1177,1.8528,4.7545,-16.1504,-13.5663,-1.0158,-7.6175,-0.3503
609.3750,-30.3271,-16.8550,-16.2523,0.4644,5.8387,-26.6824,-4.6635,2.1497,-14.0013,-24.6369,-14.1730,-9.1377,1.6562,3.9772,-13.8035,-12.0114,-1.2484,-9.1519,-0.3370
613.2812,-22.7881,-16.3563,-13.2910,-0.0500,7.5960,-24.8584,-8.2901,1.1523,-12.6851,-18.6660,-12.6583,-8.4276,2.6543,4.5877,-10.2027,-8.3954,-0.5692,-8.9116,1.0542
617.1875,-16.2380,-15.8057,-7.7903,0.5541,9.7171,-20.1582,-8.9628,1.3007,-10.6601,-13.9396,-10.3458,-6.2644,4.3445,5.9488,-6.5303,-3.7392,0.7430,-7.2326,3.4083
621.0938,-13.1703,-15.1905,-1.7093,2.0047,11.4168,-14.1431,-6.0481,2.4692,-8.6871,-11.7373,-7.7686,-3.3614,5.8887,7.1687,-3.7139,0.7475,2.0235,-4.9135,5.9734
625.0000,-14.1389,-14.2261,2.6779,3.5973,12.0169,-8.5928,-0.8237,4.0219,-7.3737,-12.1366,-5.4772,-0.6416,6.5111,7.6429,-2.2743,3.7691,2.6044,-2.8332,7.9204
628.9062,-17.8213,-12.7293,3.8655,4.5791,11.2621,-4.7648,4.2369,5.2415,-6.9909,-14.3305,-4.0101,1.0880,5.9021,7.3389,-2.3151,4.2171,2.2500,-1.5501,8.6751
632.8125,-21.9172,-10.8322,1.9428,4.5820,9.4537,-3.0107,6.9318,5.7359,-7.3591,-17.1501,-3.7276,1.4720,4.4103,6.6991,-3.5473,1.7005,1.3579,-1.0682,8.1902
636.7188,-24.3260,-8.8757,-1.3818,3.8545,7.3276,-2.9016,6.5904,5.5977,-7.8831,-19.4895,-4.5634,0.8088,2.9003,6.2946,-5.3256,-2.9388,0.7635,-0.8717,7.0091
640.6250,-24.0061,-7.1040,-3.6782,3.1495,5.7191,-3.6581,4.3233,5.2636,-7.7867,-20.5253,-5.8954,-0.0225,2.3292,6.4835,-6.7702,-7.6089,1.2346,-0.2116,6.0398
644.5312,-21.1853,-5.4504,-3.1543,3.3071,5.1630,-4.5355,2.1593,5.1918,-6.4872,-19.8050,-6.7179,0.0498,3.2461,7.2585,-7.0373,-9.7403,2.9552,1.4867,6.1047
648.4375,-16.9806,-3.6270,0.3188,4.7498,5.6231,-4.9595,1.6989,5.5580,-3.9377,-17.3115,-6.1127,1.7274,5.4788,8.3047,-5.6835,-7.6103,5.3257,4.2808,7.4810
652.3438,-12.7486,-1.4547,5.1454,7.1730,6.5005,-4.4934,3.1890,6.1393,-0.7297,-13.5045,-3.7802,4.8954,8.1800,9.1697,-2.9325,-1.4792,7.2233,7.6079,9.6939
656.2500,-9.5196,0.8535,8.9548,9.6333,6.9487,-2.8620,5.5821,6.4499,2.1450,-9.2391,-0.2972,8.5739,10.2250,9.4408,0.3531,6.2480,7.5947,10.4903,11.7177
660.1562,-7.7203,2.7331,9.9784,11.0169,6.3548,-0.1365,7.4438,6.0580,3.7820,-5.4950,3.1021,11.3571,10.7647,8.8855,3.0453,12.1045,6.0446,11.9770,12.5072
664.0625,-7.1901,3.6471,8.0107,10.6471,4.7338,3.0733,8.0171,4.9102,3.8390,-2.9954,5.1393,12.1326,9.6460,7.5513,4.2894,13.3684,3.0841,11.6099,11.5737
667.9688,-7.3816,3.5197,4.3948,8.6783,2.7874,5.6984,7.6942,3.4646,2.7169,-1.9389,5.1596,10.6801,7.4715,5.7950,3.8989,9.5516,-0.1109,9.6676,9.2613
671.8750,-7.6278,2.8550,1.1007,6.0227,1.5439,6.6739,7.5964,2.5146,1.3217,-2.0376,3.4660,7.7849,5.2586,4.1844,2.3677,2.6606,-2.3030,7.0302,6.5454
675.7812,-7.3992,2.3961,-0.4814,3.8274,1.7450,5.5510,8.5927,2.7524,0.5265,-2.8552,1.1207,4.7844,3.8760,3.2499,0.4999,-3.9386,-2.8315,4.7159,4.4591
679.6875,-6.5005,2.5399,-0.2842,2.8063,3.3337,2.8183,10.4704,4.2986,0.6489,-4.1976,-0.6681,2.8105,3.5702,3.1792,-1.0946,-7.3600,-1.9390,3.3395,3.4945
683.5938,-5.1447,2.9546,0.5569,2.8426,5.3900,-0.3650,11.8647,6.4953,1.2642,-6.2348,-1.2135,2.1878,3.8563,3.6538,-2.3087,-6.6357,-0.6066,2.8104,3.3477
687.5000,-3.8456,2.7302,0.5256,3.1227,6.6146,-2.8830,11.0456,8.1476,1.4853,-9.2141,-0.6843,2.3432,3.8470,3.9925,-3.4622,-2.9483,0.0119,2.4632,3.1668
691.4062,-3.1383,1.0112,-1.3134,2.7202,6.1116,-4.3194,7.0864,8.1428,0.5550,-12.9554,0.0752,2.2638,2.8350,3.5773,-4.9199,1.3485,-0.7543,1.5472,2.1424
695.3125,-3.2524,-2.3123,-4.7836,1.2439,3.9899,-5.0593,0.6638,6.1105,-1.6044,-16.5459,0.1164,1.1916,0.7775,2.3047,-6.6906,4.1892,-2.7177,-0.2297,0.0608
699.2188,-3.9376,-6.3562,-8.7435,-0.8908,1.3656,-5.7710,-6.0603,2.7156,-4.2385,-18.5741,-1.0013,-0.8860,-1.6253,0.7283,-8.3006,4.8030,-4.9603,-2.4587,-2.5326
703.1250,-4.5841,-9.6420,-11.7352,-2.7541,-0.2912,-6.6947,-10.4710,-0.6420,-6.1239,-17.8721,-2.9220,-3.2393,-3.3284,-0.2681,-9.0381,3.7553,-6.3988,-4.2508,-4.6606
707.0312,-4.5927,-10.8994,-12.7157,-3.5534,-0.0902,-7.3327,-10.8734,-2.5832,-6.2500,-14.3223,-4.6934,-4.8564,-3.5836,-0.0890,-8.4070,2.2071,-6.4578,-4.7816,-5.5149
710.9375,-3.7478,-9.7412,-11.4797,-3.1797,1.6667,-6.8045,-7.3983,-2.5202,-4.4068,-9.1365,-5.3271,-5.0408,-2.4203,1.0922,-6.4794,1.0426,-5.4316,-3.7973,-4.9449
714.8438,-2.3030,-6.7784,-8.6167,-2.2564,3.6224,-4.5752,-1.8904,-0.9682,-1.3057,-4.3027,-4.3733,-3.7733,-0.6462,2.3686,-3.9042,0.4670,-4.2900,-1.7493,-3.5273
718.7500,-0.6778,-3.1416,-5.1113,-1.6571,4.2061,-0.9457,3.1643,0.8009,1.8550,-1.4480,-2.1626,-1.6490,0.6520,2.6815,-1.5586,0.2145,-4.0257,0.5200,-2.1907
722.6562,1.0240,0.2122,-1.8475,-1.8487,2.6548,3.1110,6.0239,1.5402,4.1093,-0.8229,0.4226,0.5155,0.7911,1.5643,-0.0642,0.0310,-4.9561,2.3048,-1.6504
726.5625,3.2664,2.9126,0.7219,-2.5552,-0.4574,6.6287,6.5471,0.7482,5.2573,-1.1194,2.4857,2.1220,-0.0952,-0.4910,0.5200,-0.0439,-6.4555,3.4014,-2.0210
730.4688,6.8014,5.0618,2.6013,-3.0051,-3.5566,9.2549,6.0076,-1.1192,5.8577,-0.3326,3.6083,3.0064,-1.1988,-2.3481,0.6402,0.1864,-7.3402,4.0649,-2.8420
734.3750,11.9542,6.7664,4.0089,-2.5915,-5.0788,11.2630,6.0301,-3.0498,6.6824,2.8300,3.9831,3.3465,-1.6502,-3.0344,0.8777,0.7108,-6.6953,4.6224,-3.4725
738.2812,17.9697,7.7559,5.0427,-1.4524,-4.5028,12.9694,7.3785,-4.1898,8.0209,7.9182,4.1257,3.3862,-1.1872,-2.4762,1.5274,1.1147,-4.6023,5.0639,-3.5731
742.1875,23.0054,7.4449,5.4839,-0.5123,-2.7207,14.1109,9.4216,-4.3847,9.3486,12.8325,4.3973,3.2017,-0.4033,-1.6133,2.4094,0.7986,-2.2417,4.9499,-3.3507
746.0938,24.9747,5.4257,4.8908,-0.9103,-1.4877,13.8147,10.6260,-4.2061,9.6344,15.0764,4.6995,2.6677,-0.3778,-1.7695,3.0353,-0.5156,-1.2342,3.7320,-3.4078
750.0000,22.8223,2.0059,2.9484,-3.1846,-2.2914,11.3039,9.7154,-4.4851,8.1091,13.4031,4.5677,1.6224,-1.9105,-3.6942,3.0010,-2.3967,-2.5986,1.2571,-4.3064
753.9062,17.3874,-1.6721,-0.1532,-6.7853,-5.3642,6.8015,6.6628,-5.6984,4.9552,8.7683,3.5863,0.0872,-4.8757,-6.9439,2.3191,-3.7934,-5.9991,-1.9316,-6.1427
757.8125,11.1562,-4.1200,-3.6020,-10.2759,-9.4721,1.8279,2.8053,-7.6268,1.3912,3.9006,1.7930,-1.6330,-8.1510,-10.0572,1.4457,-3.6159,-9.8092,-4.7610,-8.4131
761.7188,6.9041,-4.3353,-6.2609,-12.1226,-12.6111,-1.5083,-0.0088,-9.4923,-0.9802,1.6899,-0.2574,-3.0528,-10.2059,-11.4289,0.9725,-1.4514,-12.0000,-6.1939,-10.2593
765.6250,6.0292,-2.4327,-7.2456,-11.5677,-13.1697,-1.8243,-0.6345,-10.4513,-1.1622,3.3995,-1.8440,-3.7559,-9.9900,-10.3070,1.1972,2.0724,-11.3144,-5.8363,-10.9347
769.5312,7.6931,0.3800,-6.4185,-9.0362,-10.8396,0.5694,0.6462,-10.1025,0.5744,7.8585,-2.5858,-3.6333,-7.5597,-7.2514,1.8853,5.5349,-7.9879,-4.1807,-10.1984
773.4375,9.4222,2.5095,-4.4424,-5.8369,-6.7400,3.8204,2.3863,-8.6875,2.8367,12.1781,-2.7031,-2.9602,-4.0469,-3.7627,2.4058,7.4398,-3.5663,-2.3180,-8.4049
777.3438,8.8436,2.9327,-2.3204,-3.3830,-2.7287,5.7674,3.0013,-6.8906,3.9954,13.5442,-2.8082,-2.2534,-1.0030,-1.3525,2.1649,6.9601,0.0366,-1.3062,-6.2589
781.2500,5.4009,1.7888,-0.7257,-2.4364,-0.3586,5.3863,1.8195,-5.4008,3.2270,10.9407,-3.3625,-1.9894,0.4548,-0.6755,1.0382,4.2757,1.6139,-1.5970,-4.4135
785.1562,0.8420,0.2285,0.3949,-2.8152,-0.1096,3.4025,-0.5536,-4.5300,1.0162,5.7160,-4.2200,-2.3417,0.1699,-1.2673,-0.5032,0.3567,1.1929,-2.8650,-3.1669
789.0625,-1.9171,-0.3638,1.6375,-3.6659,-1.2975,1.6374,-2.7200,-4.1092,-1.2101,0.6866,-4.6343,-3.0861,-1.1297,-1.9967,-1.6681,-3.6037,-0.2567,-4.2949,-2.4181
792.9688,-0.8135,0.7484,3.5110,-4.0442,-2.6237,1.6126,-3.3757,-3.6940,-2.0382,-1.5806,-3.7651,-3.7202,-2.3795,-1.8654,-1.8305,-6.7226,-1.6336,-5.0864,-1.8500
796.8750,3.8555,3.2413,5.8630,-3.4095,-2.9659,3.4729,-1.9383,-2.9169,-0.9422,-0.1767,-1.3234,-3.7188,-2.7896,-0.6042,-0.8839,-8.6304,-2.4101,-4.8312,-1.1674
800.7812,9.5136,6.0206,7.8529,-1.7738,-1.9316,6.0080,1.4233,-1.7563,1.5029,3.8878,2.1351,-2.7715,-2.1355,1.2950,0.7747,-9.3110,-2.7466,-3.5619,-0.2126
804.6875,12.9537,7.9679,8.5567,0.4821,0.0875,7.6793,6.1571,-0.5590,4.1511,8.5818,5.5098,-0.8785,-0.6278,3.0548,2.5942,-8.7937,-3.0116,-1.5334,1.0825
808.5938,12.4231,8.6047,7.7632,2.9088,2.2908,7.7959,11.6068,0.1891,6.1066,12.1658,7.8428,1.7156,1.4287,4.2098,4.2615,-6.9801,-3.1717,1.0223,2.8013
812.5000,8.6986,8.2383,6.3158,5.1835,3.9714,6.9210,16.9179,0.1983,7.2164,13.9965,8.8841,4.6623,3.8620,4.8974,5.8241,-3.7620,-2.6073,3.9581,5.0487
816.4062,4.4181,7.5486,5.6479,7.1218,4.8344,6.2474,20.7800,-0.3931,7.9132,14.3897,9.1124,7.6024,6.5717,5.6659,7.4484,0.6487,-0.5698,7.0735,7.7996
820.3125,2.1663,6.9757,6.7745,8.5879,4.9934,6.5060,21.5178,-1.0475,8.6139,13.8478,9.2120,10.1616,9.2805,6.9691,9.0276,5.4371,3.0297,9.9493,10.7006
824.2188,2.6855,6.3890,9.4627,9.4378,4.7352,7.3129,17.8232,-1.1262,9.2134,12.3923,9.4333,11.9083,11.3778,8.7198,9.9973,9.2272,7.1279,11.9662,13.0269
828.1250,4.4680,5.2752,12.2353,9.5565,4.2598,7.4626,9.8206,-0.2998,9.1135,9.5708,9.3677,12.3978,12.0771,10.2218,9.5831,10.5600,9.7957,12.5656,13.9266
832.0312,4.9828,3.2806,13.2776,8.9432,3.5777,5.9068,-0.3320,1.1765,7.7701,5.1046,8.3425,11.3642,10.8545,10.5413,7.3682,8.6501,9.2652,11.6027,12.8793
835.9375,2.6279,0.6756,11.6473,7.7534,2.6023,2.6364,-8.9871,2.5222,5.3119,-0.4083,6.1435,8.9836,7.8897,9.0951,3.7893,4.0258,5.1054,9.5350,10.1020
839.8438,-1.9939,-1.6303,7.9352,6.2527,1.3352,-1.1915,-12.6490,2.8380,2.7013,-5.3809,3.4807,6.0097,4.1740,6.0974,0.1600,-1.3843,-1.2300,7.2776,6.6080
843.7500,-6.3615,-2.5553,3.9058,4.7196,-0.0102,-3.9204,-9.8230,1.6565,1.2534,-7.9183,1.7727,3.6034,1.1425,2.5839,-1.8893,-4.9344,-6.9311,5.7797,3.8108
847.6562,-7.6600,-1.4800,1.3777,3.3755,-1.0478,-4.3179,-1.8960,-0.6934,1.8239,-6.8759,2.3227,2.8558,-0.0044,-0.0248,-1.2646,-4.5093,-9.2323,5.5672,2.8519
851.5625,-4.6039,1.3786,1.1401,2.3857,-1.3989,-2.1177,7.5791,-3.1585,4.2371,-2.5778,5.4308,4.2316,1.0925,-0.6052,1.9599,0.2748,-6.9134,6.5268,4.0295
855.4688,1.7605,5.0806,2.6410,1.9002,-0.8958,2.0574,14.7872,-4.4725,7.3662,3.3031,10.0722,7.2672,3.7738,1.1021,6.5317,7.6395,-1.0193,8.0486,6.6663
859.3750,8.7420,8.4551,4.5815,2.0650,0.3273,7.1366,17.5498,-3.8312,9.8126,8.6323,14.3972,10.7475,6.7234,4.3455,10.6531,14.3778,5.6520,9.4174,9.4961
863.2812,13.6333,10.6288,5.8920,2.9623,1.9180,11.9788,16.0807,-1.3315,10.7196,11.8995,16.7517,13.2992,8.6606,7.7247,12.8869,17.4814,10.0272,10.1966,11.3355
867.1875,15.1740,11.2841,6.3357,4.5116,3.5080,15.5080,12.2910,2.0937,10.1870,12.8460,16.5621,14.0688,8.9712,9.8811,12.8134,15.7850,10.3684,10.3810,11.6472
871.0938,13.9645,10.5767,6.3544,6.4129,4.9019,16.7747,8.3247,5.2037,9.0566,12.3237,14.5322,13.0846,7.9376,10.1532,11.0902,10.6138,7.1041,10.2607,10.6862
875.0000,11.7220,8.8792,6.3988,8.1967,6.1249,15.2040,5.4141,7.1087,8.2743,11.5727,12.0698,11.0986,6.4678,8.8455,8.9376,4.9529,2.4320,10.1258,9.1986
878.9062,10.0187,6.5766,6.3768,9.3725,7.3031,11.0104,3.7192,7.6528,8.2820,11.4160,10.3543,9.0335,5.5099,6.9706,7.3929,1.5778,-1.0357,10.0190,7.9054
882.8125,9.3708,4.0199,5.6968,9.5974,8.4665,5.4207,2.9576,7.3108,8.8079,11.8268,9.6545,7.4066,5.4961,5.6212,6.7676,1.3161,-1.7655,9.6843,7.1021
886.7188,9.1820,1.5615,3.8452,8.7752,9.4267,0.3137,3.0491,6.7206,9.1144,12.0380,9.2907,6.0936,6.1213,5.3417,6.5791,2.6035,-0.0661,8.7190,6.5840
890.6250,8.4280,-0.4584,0.9730,7.0492,9.8346,-2.7007,4.1401,6.2048,8.4711,11.0472,8.1968,4.5499,6.5572,5.8671,5.9386,2.6799,2.2787,6.8193,5.8817
894.5312,6.5234,-1.8256,-2.0409,4.7170,9.3940,-3.2213,6.0596,5.6157,6.5432,8.2218,5.6762,2.2986,5.9595,6.3674,4.1419,-0.3540,3.2203,3.9753,4.6083
898.4375,3.7951,-2.5743,-4.1397,2.1365,8.0884,-2.3045,7.8582,4.5776,3.5178,3.7222,1.8731,-0.6585,3.9735,6.0253,1.1315,-6.0458,1.7182,0.5260,2.6988
902.3438,1.3176,-2.9868,-4.8261,-0.3374,6.2495,-1.7382,8.0603,2.9087,-0.0121,-1.4251,-2.2884,-3.7715,0.9581,4.5684,-2.4040,-11.7535,-1.7003,-2.9332,0.4289
906.2500,0.2734,-3.4297,-4.5034,-2.3855,4.3996,-2.7820,5.6223,0.8820,-3.2777,-5.6497,-5.6082,-6.2261,-2.1873,2.4234,-5.3305,-14.3949,-5.3877,-5.7380,-1.7463
910.1562,1.2510,-4.1293,-4.1531,-3.7612,2.9584,-5.2648,0.8925,-0.8792,-5.5670,-7.4583,-7.2213,-7.3731,-4.4856,0.4158,-6.6055,-12.5603,-7.6801,-7.3668,-3.4112
914.0625,3.8834,-5.0452,-4.6032,-4.3437,2.0135,-7.7092,-4.2692,-1.7925,-6.4132,-6.1092,-6.9605,-7.0343,-5.3670,-0.7575,-5.7724,-7.4511,-7.9100,-7.6083,-4.3463
917.9688,7.0286,-5.9127,-5.9438,-4.1828,1.3229,-8.3834,-7.4621,-1.7015,-5.7185,-1.9930,-5.2955,-5.5330,-4.9022,-0.9178,-3.1506,-1.9393,-6.6818,-6.6294,-4.5709
921.8750,9.4178,-6.3850,-7.4943,-3.4896,0.5590,-6.4837,-7.1965,-0.9729,-3.7687,3.5550,-2.9295,-3.4789,-3.6585,-0.4065,0.3770,1.5531,-5.2811,-4.9063,-4.2797
925.7812,10.4483,-6.1432,-8.2791,-2.5493,-0.3740,-2.5696,-3.7917,-0.2424,-1.0942,8.9992,-0.3335,-1.4563,-2.2821,0.2654,3.8532,2.7203,-4.6687,-3.0239,-3.7172
929.6875,10.6790,-4.9198,-7.6047,-1.5942,-1.1872,2.0011,0.9306,-0.0015,1.7946,13.5043,2.4704,0.2269,-1.0747,0.8379,6.7072,3.2423,-4.7763,-1.4178,-3.0418
933.5938,11.6763,-2.5150,-5.3356,-0.7111,-1.3510,6.0883,4.9054,-0.3198,4.6536,17.3957,5.7217,1.6456,0.1590,1.4735,8.8975,4.8947,-4.5858,-0.1832,-2.2421
937.5000,15.1754,1.0847,-1.7864,0.1551,-0.4608,9.3692,7.0745,-0.8806,7.5569,21.7952,9.4475,3.1957,1.8912,2.5582,10.6588,7.3987,-2.9245,0.9295,-1.1567
941.4062,21.9500,5.5021,2.5269,1.1041,1.4246,12.0853,7.7262,-1.2633,10.6834,27.6051,13.0546,5.3822,4.4227,4.2959,12.0792,7.9050,0.5911,2.3085,0.3914
945.3125,31.0719,9.8769,6.9947,2.1626,3.7224,14.3002,7.7927,-1.2358,13.9799,34.5515,15.3682,8.5053,7.5129,6.4212,12.8931,2.9034,5.1281,4.1704,2.4053
949.2188,40.1335,13.1071,10.8494,3.2357,5.6197,15.4953,7.8225,-0.8352,16.9781,41.0684,15.2506,12.3515,10.3669,8.2704,12.7424,-8.5387,9.0369,6.3431,4.5984
953.1250,46.4683,14.4273,13.1694,4.1705,6.5548,15.0247,7.5692,-0.2035,18.9674,45.2578,12.5129,16.0603,12.0283,9.1891,11.7758,-22.5966,10.8206,8.3003,6.4638
957.0312,48.7223,13.9931,13.1833,4.8868,6.5738,13.1087,6.5506,0.6534,19.4617,46.3343,8.5099,18.3224,11.9557,8.9939,11.0960,-31.5685,10.0370,9.4537,7.5363
960.9375,47.7714,12.9920,10.8038,5.4723,6.3160,11.4092,5.0369,1.9545,18.6328,45.4721,5.8622,17.9225,10.4114,8.1487,12.5385,-27.8551,7.5476,9.5284,7.7016
964.8438,46.2793,13.0331,6.9846,6.1524,6.6122,12.4028,4.4699,3.9755,17.3465,45.2729,7.2303,14.4122,8.3830,7.5013,17.6811,-8.8186,4.9674,8.7676,7.3313
968.7500,47.0408,15.0906,3.4814,7.1289,7.9300,17.7089,6.7303,6.7327,16.6944,48.0329,13.7252,8.5330,7.0450,7.7254,26.5915,20.6372,3.6860,7.8086,7.0973
972.6562,51.1091,18.6995,1.9855,8.3781,10.0084,26.5072,12.6394,9.7618,17.2930,53.9458,23.9238,2.0669,7.0638,8.8281,37.1834,49.7408,4.0833,7.2811,7.5315
976.5625,56.9503,22.0505,3.1145,9.5464,11.9111,35.3522,20.8273,12.1880,18.8300,60.5707,34.2321,-2.9104,8.1678,10.0523,45.8108,67.1338,5.3957,7.3788,8.5980
980.4688,61.2508,23.0494,5.9621,10.0389,12.4792,39.8187,27.9875,13.0920,20.1984,64.1031,40.5587,-5.0213,9.2598,10.2611,48.9746,66.7481,6.2550,7.6890,9.5863
984.3750,60.9108,20.6843,8.5845,9.2853,10.9337,37.0740,30.5749,11.9662,20.1531,61.7082,40.4052,-4.2634,9.0266,8.5867,45.2118,50.7933,5.5137,7.4117,9.4563
988.2812,54.9335,15.7380,9.1611,7.0576,7.2983,27.6904,26.9181,8.9918,18.0525,53.3587,34.1357,-1.9525,6.7005,4.9644,35.9859,28.1214,2.8536,5.8500,7.4658
992.1875,44.9747,10.2844,7.0666,3.6651,2.4322,15.4277,18.3207,4.9720,14.1921,41.8896,24.6462,0.0590,2.5378,0.2453,24.9432,9.0922,-1.1238,2.8723,3.7007
996.0938,34.2313,6.2799,3.1446,-0.0952,-2.3240,5.0739,8.3618,0.9688,9.5399,31.2177,15.6551,0.4304,-2.2537,-4.1711,15.9322,0.1291,-5.2797,-0.9368,-0.8430
1000.0000,25.4776,4.2550,-0.9572,-3.2317,-5.6943,-0.2380,0.8270,-2.1425,5.1127,23.9604,9.6990,-0.9819,-6.0911,-6.9743,10.9976,1.1302,-8.4969,-4.5325,-4.7109
1003.9062,19.5941,3.0755,-3.8755,-4.9663,-6.9472,-0.4971,-2.3789,-3.9652,1.4588,20.0986,7.0646,-3.1961,-7.7740,-7.5148,9.5834,6.8912,-10.1015,-6.9194,-6.7234
1007.8125,15.5121,0.9586,-5.2706,-5.0646,-6.1218,1.7685,-2.0108,-4.6042,-1.4267,17.5314,6.2050,-4.8451,-7.0253,-6.0370,9.3635,11.1430,-10.0002,-7.6247,-6.5651
1011.7188,11.4455,-3.0299,-5.7691,-3.9284,-3.9431,3.5213,-0.5581,-4.4742,-3.7933,13.9805,5.1772,-5.0781,-4.5593,-3.5004,8.0354,10.3864,-8.5782,-6.8837,-4.8951
1015.6250,6.3987,-8.1551,-6.2810,-2.4060,-1.4979,3.1729,-0.3709,-4.0483,-5.7695,8.7521,3.0140,-4.0452,-1.6820,-1.1117,4.8141,5.2488,-6.4902,-5.4730,-2.9410
1019.5312,0.8488,-12.5199,-7.2864,-1.4116,0.1911,1.1874,-2.1441,-3.6887,-7.2605,3.0759,0.1276,-2.6923,0.3415,0.1971,0.6737,-0.9929,-4.4479,-4.3129,-1.8378
1023.4375,-3.7838,-14.5113,-8.6086,-1.5360,0.5417,-0.8321,-4.7068,-3.5998,-8.1517,-1.1061,-2.3610,-2.0578,0.8371,0.1226,-2.6709,-5.2021,-3.0333,-4.0613,-2.0934
1027.3438,-6.3364,-14.0511,-9.7353,-2.8267,-0.3904,-1.6390,-6.0985,-3.8561,-8.5684,-2.8286,-3.6847,-2.5714,-0.0552,-0.9452,-4.1645,-6.3889,-2.5422,-4.8815,-3.4471
1031.2500,-6.8060,-12.6502,-10.3157,-4.8335,-1.9691,-1.2144,-5.0751,-4.4290,-8.9020,-2.8993,-4.0181,-3.8145,-1.5522,-2.1531,-4.1396,-5.7658,-2.8965,-6.4513,-5.1384
1035.1562,-6.3241,-12.2068,-10.3977,-6.8814,-3.2850,-0.4865,-2.0102,-5.1918,-9.5472,-3.2231,-4.2136,-4.8675,-2.6815,-2.6034,-3.9251,-5.2581,-3.6891,-8.1706,-6.3899
1039.0625,-6.3502,-13.4994,-10.2837,-8.4262,-3.5978,-0.3584,1.3245,-5.9358,-10.5885,-5.2879,-5.0382,-4.9819,-2.7944,-1.7948,-4.7730,-5.8939,-4.3875,-9.4570,-6.8286
1042.9688,-7.7942,-15.5931,-10.2450,-9.3131,-2.7200,-1.0005,2.8379,-6.4472,-11.7528,-9.0946,-6.6228,-4.1223,-1.8992,0.1036,-7.0072,-7.3075,-4.6206,-10.0120,-6.6543
1046.8750,-10.7120,-16.6703,-10.4160,-9.8109,-1.1401,-2.0074,1.3078,-6.6318,-12.7153,-13.3899,-8.5664,-3.0374,-0.6598,2.2818,-10.0214,-8.5133,-4.3876,-9.9557,-6.5039
1050.7812,-14.6635,-15.6575,-10.9427,-10.4124,0.2066,-3.1921,-3.0195,-6.6121,-13.5111,-16.9435,-10.5150,-2.8311,-0.0559,3.6419,-13.0073,-9.0737,-4.0483,-9.7687,-7.1043
1054.6875,-19.2788,-13.3486,-12.1441,-11.5124,0.4262,-5.2100,-8.6637,-6.6971,-14.6593,-19.7324,-12.6118,-4.3042,-0.8612,3.3381,-15.7060,-9.5875,-4.0819,-10.0465,-8.8750
1058.5938,-24.5022,-12.0820,-14.3948,-13.1411,-0.8369,-9.3607,-13.7299,-7.2006,-16.8165,-22.9883,-15.3556,-7.4551,-3.1960,1.2464,-18.5206,-11.1156,-4.7592,-11.1645,-11.6620
1062.5000,-30.3745,-14.1409,-17.7202,-14.9012,-3.1747,-16.6413,-16.8160,-8.1968,-20.1789,-28.0432,-18.9787,-11.4122,-6.3956,-1.8940,-21.9305,-14.1057,-5.9401,-13.0238,-14.7342
1066.4062,-36.6746,-20.0579,-21.4516,-16.1530,-5.6010,-26.7916,-17.5746,-9.3789,-24.1197,-34.9456,-22.9308,-14.8237,-9.2830,-4.7779,-25.7799,-17.7812,-7.1304,-15.0417,-17.0748
1070.3125,-42.8362,-28.1022,-24.3556,-16.3516,-7.0516,-38.1175,-16.7264,-10.1489,-27.4191,-42.0572,-26.0158,-16.4912,-10.7244,-6.1501,-29.1307,-20.5416,-7.7626,-16.4338,-17.8586
1074.2188,-48.2339,-35.3424,-25.3043,-15.3530,-6.9202,-48.2685,-15.5756,-9.9271,-28.9955,-47.0499,-27.1683,-15.9294,-10.1803,-5.4265,-30.8749,-21.0647,-7.5174,-16.6540,-16.8827
1078.1250,-52.5321,-39.4857,-24.0567,-13.5150,-5.3272,-55.3965,-15.2605,-8.5124,-28.6247,-48.5718,-26.2726,-13.5830,-7.9549,-2.9874,-30.6252,-19.2305,-6.4913,-15.7330,-14.7031
1082.0312,-55.7143,-40.1423,-21.5201,-11.5267,-2.9885,-58.8429,-16.0782,-6.2614,-27.0949,-47.2720,-24.3263,-10.6067,-5.0107,0.0227,-29.1192,-16.1489,-5.1215,-14.2845,-12.3591
1085.9375,-57.7617,-38.6579,-19.1849,-10.0539,-0.7843,-58.9118,-17.2294,-3.9497,-25.6482,-45.3635,-22.7648,-8.3175,-2.4568,2.2795,-27.7554,-13.3179,-3.9401,-13.1443,-10.8074
1089.8438,-58.3687,-36.7836,-18.0658,-9.3913,0.7034,-56.0286,-17.1846,-2.3720,-25.1066,-45.0667,-22.4641,-7.5796,-1.0014,2.9313,-27.5973,-11.6292,-3.3135,-12.8492,-10.3816
1093.7500,-57.1272,-35.3128,-17.9286,-9.3116,1.4325,-50.0533,-14.5752,-1.9101,-25.3285,-47.1484,-23.2345,-8.4110,-0.6629,1.9783,-28.6474,-11.0168,-3.3005,-13.2832,-10.6092
1097.6562,-54.1584,-33.7361,-17.4260,-9.1910,1.8271,-40.3420,-9.1732,-2.3301,-25.3935,-50.6536,-24.2174,-9.9953,-0.8659,0.2098,-29.9856,-10.9603,-3.6644,-13.7252,-10.5088
1101.5625,-50.6006,-31.0570,-15.0893,-8.3345,2.4833,-26.4985,-2.3602,-2.9324,-24.3472,-53.9165,-24.8171,-11.0880,-0.8190,-1.2240,-30.6413,-11.3083,-3.9889,-13.2706,-9.1882
1105.4688,-48.2585,-26.9499,-10.4502,-6.3247,3.8464,-9.1625,3.3232,-2.9620,-21.9086,-55.8898,-25.3016,-10.6151,0.0658,-1.3559,-30.4367,-12.5918,-3.8242,-11.3578,-6.3680
1109.3750,-48.3195,-22.2138,-4.4356,-3.2183,6.0098,9.8710,5.4424,-2.0294,-18.5964,-56.6333,-26.4493,-8.1705,1.9319,0.1957,-30.0342,-15.4370,-2.8244,-8.0711,-2.5110
1113.2812,-49.9565,-18.1445,1.2634,0.4820,8.6755,28.4070,3.0973,-0.3015,-15.2208,-56.6078,-28.4572,-4.1811,4.4869,3.1069,-30.0965,-19.4930,-0.8643,-4.0585,1.4878
1117.1875,-50.0681,-15.4268,5.3414,4.0309,11.2339,45.0216,-2.3431,1.6266,-12.2128,-55.5504,-30.0686,0.3122,7.1805,6.4973,-30.2764,-22.8304,1.8770,-0.1661,4.8057
1121.0938,-44.8276,-13.5865,7.6367,6.7019,12.9151,59.8783,-7.7356,3.0716,-9.3868,-52.1511,-28.8633,4.1222,9.4168,9.2523,-29.0007,-22.5452,4.9120,2.9438,7.0448
1125.0000,-32.3877,-11.5548,8.9172,8.0033,13.0084,74.6595,-9.7104,3.6042,-6.3446,-45.0890,-22.7986,6.3944,10.7165,10.4111,-24.4460,-16.4423,7.5660,4.9664,8.2418
1128.9062,-14.9556,-8.8943,9.9319,7.8059,11.1463,91.6472,-6.4378,3.2165,-3.1464,-34.7195,-12.0140,6.8926,10.8278,9.5293,-16.1123,-4.7776,9.2158,5.8925,8.6237
1132.8125,1.4891,-6.5716,10.5858,6.3894,7.5828,112.4615,1.3964,2.2699,-0.5990,-23.9127,0.5052,6.0137,9.8130,6.9112,-5.7874,9.1943,9.5478,5.8683,8.3766
1136.7188,10.1517,-6.4427,10.0033,4.4065,3.3002,137.0503,10.9720,1.3031,0.2104,-16.9805,10.1592,4.5806,8.0918,3.5926,3.0140,20.4638,8.6920,5.1442,7.6319
1140.6250,7.4780,-9.6688,7.4849,2.7413,-0.2220,163.2807,18.8411,0.8195,-1.1366,-17.0698,13.2837,3.5258,6.3661,0.9917,6.9852,24.7566,7.1331,4.1403,6.6423
1144.5312,-4.2875,-15.2604,3.5551,2.2436,-1.5903,187.1729,22.6749,1.1352,-3.7093,-23.7458,9.4115,3.5782,5.3726,0.2922,5.1250,20.8557,5.4301,3.4832,5.9122
1148.4375,-17.9117,-20.0252,0.1288,3.3916,-0.2033,203.6670,22.2601,2.3039,-5.4667,-32.6345,1.6941,5.0319,5.5243,1.8157,-0.4591,11.3606,3.9071,3.8532,6.0699
1152.3438,-25.1183,-20.2322,-0.5272,6.0291,3.3194,207.8041,19.2474,4.1104,-4.4116,-37.6835,-4.8873,7.6571,6.6319,4.7440,-5.6886,1.3911,2.5113,5.6391,7.4902
1156.2500,-21.3284,-13.9913,2.6242,9.3552,7.3109,196.1639,15.9211,6.1336,0.0710,-34.7346,-6.4123,10.7932,7.9217,7.4364,-6.9211,-4.0389,0.9379,8.6130,9.9375
1160.1562,-8.2296,-2.7028,8.4549,12.2477,9.8433,168.2112,13.8187,7.8926,6.6556,-24.0534,-2.1628,13.6200,8.4193,8.2663,-3.0694,-2.4911,-1.0522,11.9091,12.5490
1164.0625,7.4582,9.5257,14.1855,13.8037,9.7423,126.9971,13.0514,9.0493,12.7760,-10.0548,5.3072,15.5209,7.5281,6.5534,3.9398,4.9149,-3.3249,14.4226,14.2625
1167.9688,18.2280,18.2160,17.1058,13.8171,7.2494,78.6944,12.6747,9.5777,16.1904,1.6542,12.0901,16.3751,5.4628,3.0359,10.6151,14.4172,-5.2882,15.4415,14.4548
1171.8750,20.3534,21.1103,16.3365,12.8977,3.9107,30.8835,11.7677,9.7841,16.3915,7.9565,15.4667,16.6089,3.2379,-0.4484,14.2320,21.7499,-6.1053,15.1125,13.3617
1175.7812,15.9757,19.3509,13.3868,12.1297,1.7236,-9.8221,10.4328,10.1228,14.9195,10.1801,15.4084,16.9554,2.1689,-1.9331,14.4903,24.2435,-5.1022,14.4034,11.9696
1179.6875,11.5796,16.5541,11.1048,12.4509,2.0314,-39.7511,9.9908,10.8898,14.3737,13.0641,14.2117,18.0382,3.1591,-0.3892,13.4753,21.8179,-2.1436,14.5443,11.4223
1183.5938,14.0050,16.4911,11.7559,14.1218,4.8212,-58.8108,12.1773,11.9884,16.7923,21.4930,14.7260,20.0233,6.1959,3.7562,14.0842,16.5572,2.2340,16.2863,12.3301
1187.5000,26.5244,20.9268,15.5651,16.6090,8.8281,-69.5596,17.8104,12.9497,22.4535,37.1910,18.4826,22.5475,10.3611,8.9473,18.0621,11.3516,7.0097,19.4507,14.4334
1191.4062,47.2110,28.9019,20.6838,18.9406,12.3420,-75.3785,25.7929,13.2297,29.8141,57.4848,24.9022,24.9570,14.3373,13.4375,24.9352,8.4687,11.0890,23.0479,16.8218
1195.3125,70.2197,37.6676,24.5015,20.2834,14.1826,-78.8679,33.1762,12.6014,36.5097,76.7848,31.8878,26.6804,17.0811,16.2203,32.4187,8.7442,13.7279,25.8608,18.5215
1199.2188,88.8694,44.4143,25.3054,20.3596,14.2406,-81.3115,36.4079,11.3623,40.6745,89.6864,37.1794,27.4782,18.2527,17.3771,37.8731,11.5866,14.7637,27.0897,19.0288
1203.1250,98.6373,47.6028,23.1448,19.4497,13.3029,-83.2387,33.1591,10.1827,41.7397,93.7152,39.5064,27.4182,18.1725,17.6902,39.7871,15.5416,14.5535,26.6497,18.4472
1207.0312,98.6245,47.2300,19.4352,18.0356,12.3589,-85.3432,23.7192,9.6668,40.3405,90.1951,38.9260,26.6430,17.4057,17.8731,38.4036,18.9978,13.6769,24.9924,17.2012
1210.9375,91.1934,44.2206,15.7697,16.3886,11.8975,-88.8547,11.1185,9.9234,37.6023,83.0425,36.4033,25.1577,16.3023,18.0013,35.2811,20.7360,12.5798,22.6658,15.6077
1214.8438,80.4414,39.6659,12.8993,14.4226,11.6494,-94.9887,-0.1726,10.4595,34.4202,76.5054,33.1354,22.8357,14.8121,17.5299,32.2565,20.2327,11.3563,19.9776,13.6545
1218.7500,70.4693,34.5014,10.5738,11.9110,10.8868,-103.9056,-6.3158,10.4942,31.2047,73.2453,30.0899,19.6492,12.6638,15.8292,30.5282,17.7495,9.7876,16.9922,11.1371
1222.6562,64.1021,29.6567,8.1977,8.8685,9.0040,-114.0744,-5.8486,9.4925,28.1130,73.6489,27.8842,15.9193,9.7309,12.7922,30.3257,14.2284,7.5990,13.7945,8.0088
1226.5625,62.2773,26.2445,5.6454,5.7638,5.9562,-122.6976,-0.1893,7.5395,25.4160,76.3700,26.8303,12.3412,6.2859,9.0392,31.1650,10.9696,4.7682,10.7344,4.6311
1230.4688,64.0755,25.3644,3.5463,3.3527,2.2778,-127.0902,7.3003,5.2810,23.6164,79.4736,26.9448,9.6940,2.9488,5.5679,32.3555,9.1172,1.6707,8.3982,1.7017
1234.3750,67.3204,27.5160,2.8516,2.2182,-1.2754,-126.1821,13.1004,3.4576,23.2118,81.4670,27.9117,8.4050,0.3661,3.1168,33.3973,9.1184,-1.0560,7.2915,-0.1094
1238.2812,69.6207,32.0542,4.0792,2.3419,-4.1727,-121.1594,15.1598,2.3634,24.3164,81.8142,29.1433,8.2724,-1.1521,1.7115,34.1122,10.4392,-2.8700,7.4708,-0.5607
1242.1875,69.5128,37.1959,6.8535,3.0395,-6.3373,-114.8053,13.5463,1.6278,26.4697,80.8982,30.0296,8.5681,-1.7883,0.7147,34.5622,11.7671,-3.6818,8.4252,0.0057
1246.0938,67.1574,40.7259,10.0774,3.3453,-8.0430,-109.9470,9.9406,0.4982,28.7967,79.6037,30.2631,8.4778,-2.0679,-0.6744,34.8966,11.6786,-3.9575,9.3342,0.8636
1250.0000,64.1274,41.0460,12.5719,2.6188,-9.6007,-107.9790,6.4441,-1.5550,30.4160,78.7448,29.9965,7.5921,-2.5062,-2.8351,35.2240,9.4473,-4.4555,9.5506,1.3259
1253.9062,62.3072,37.9475,13.7005,0.9761,-11.0709,-108.3399,4.4600,-4.3360,30.8324,78.5652,29.6793,6.1261,-3.2744,-5.4557,35.5373,5.5219,-5.7232,8.9890,1.1242
1257.8125,62.5357,32.6552,13.5773,-0.7415,-12.1811,-109.1572,4.2163,-6.8935,30.0962,78.5450,29.6805,4.7353,-4.0802,-7.7297,35.6947,1.3616,-7.6642,8.1587,0.5251
1261.7188,63.9084,27.1480,12.8088,-1.4532,-12.4663,-108.5308,5.0213,-8.0223,28.6919,77.6664,29.9982,4.0767,-4.3218,-8.8461,35.4777,-1.3037,-9.4799,7.8224,0.1418
1265.6250,64.2933,23.1837,12.0455,-0.4798,-11.5170,-105.5909,5.9287,-6.9920,27.2774,75.0659,30.2998,4.4270,-3.4203,-8.4286,34.7229,-1.3619,-10.0709,8.5060,0.5735
1269.5312,61.7936,21.5714,11.6702,2.0494,-9.1880,-100.7309,6.3511,-4.0350,26.4215,70.7196,30.2599,5.5963,-1.1523,-6.6619,33.4714,1.1621,-8.6841,10.1652,2.0812
1273.4375,56.1779,22.0120,11.7566,5.2561,-5.6796,-95.0315,6.3137,-0.2779,26.4226,65.6790,29.8966,7.1408,2.1827,-4.0886,32.0199,5.2339,-5.4073,12.1986,4.4565
1277.3438,49.2390,23.4670,12.1943,7.9810,-1.4832,-89.4149,6.3127,2.8495,27.2184,61.5905,29.5949,8.6648,5.8376,-1.2697,30.7895,9.4418,-1.1862,13.7690,7.1208
1281.2500,43.7430,24.7534,12.8000,9.3698,2.7636,-84.1459,6.9342,4.3648,28.3860,59.7026,29.7595,9.9707,8.9016,1.4536,30.0512,12.6941,2.6685,14.2221,9.3804
1285.1562,41.6181,25.0334,13.3339,9.2450,6.4580,-78.9445,8.4577,4.1981,29.2563,59.9794,30.3704,10.9713,10.6620,3.9797,29.6822,14.5551,5.1839,13.3661,10.7031
1289.0625,42.5977,24.0174,13.4889,8.0794,9.1882,-73.4865,10.6204,3.1135,29.1501,60.9588,30.8214,11.4943,10.8766,6.3003,29.1468,15.0938,6.1941,11.4870,10.8914
1292.9688,44.2641,21.8983,12.9537,6.6310,10.8096,-67.8183,12.6512,2.1732,27.6689,60.5409,30.2215,11.1966,9.8206,8.3285,27.7667,14.4754,6.2854,9.1344,10.0828
1296.8750,43.5084,19.1471,11.5604,5.4733,11.4027,-62.3458,13.5906,2.0866,24.8934,57.2536,27.9753,9.7124,8.0791,9.8204,25.1399,12.6746,6.2718,6.8249,8.5949
1300.7812,38.4794,16.3068,9.4083,4.6927,11.1303,-57.4413,12.7878,2.8295,21.3521,51.1846,24.2219,6.9553,6.1972,10.4253,21.4396,9.5439,6.5700,4.8260,6.7165
1304.6875,29.7852,13.8527,6.8506,3.9098,10.0814,-53.0281,10.3348,3.7252,17.7547,43.9603,19.8096,3.3475,4.3937,9.8247,17.3886,5.1528,6.9019,3.1174,4.5763
1308.5938,20.2177,12.1181,4.3341,2.5918,8.2188,-48.5131,7.1530,3.8965,14.6471,37.7844,15.8169,-0.2217,2.5209,7.8958,13.9114,0.0879,6.5225,1.5283,2.1779
1312.5000,13.2191,11.2495,2.2069,0.4664,5.4921,-43.1495,4.5827,2.7972,12.2139,34.1645,12.9636,-2.7296,0.3099,4.8382,11.6794,-4.5729,4.8068,-0.0425,-0.4216
1316.4062,11.0464,11.1694,0.6267,-2.2117,2.0495,-36.5606,3.6348,0.5175,10.3483,33.1312,11.3102,-3.4662,-2.2601,1.2058,10.8230,-7.6449,1.7819,-1.4565,-2.9303
1320.3125,13.6822,11.5579,-0.3964,-4.7081,-1.6189,-29.0128,4.3427,-2.2861,8.9059,33.3749,10.4051,-2.3398,-4.7392,-2.2045,10.9567,-8.3445,-1.7706,-2.3312,-4.8052
1324.2188,18.9932,11.8972,-0.9109,-6.1638,-4.7647,-21.2096,5.6872,-4.7574,7.9137,33.1052,9.7075,0.1199,-6.3301,-4.6082,11.4544,-6.6009,-4.7199,-2.2296,-5.4713
1328.1250,23.8905,11.6187,-0.9965,-6.0697,-6.6977,-13.7486,6.2392,-6.2731,7.5463,31.0140,8.9409,3.0350,-6.3279,-5.5521,11.7672,-3.0060,-6.2318,-0.9563,-4.6697
1332.0312,25.7635,10.3383,-0.8113,-4.5835,-7.1563,-6.6553,5.1650,-6.6984,7.8835,26.7771,8.1453,5.5550,-4.6075,-5.1325,11.6038,1.5065,-6.2295,1.2162,-2.6991
1335.9375,23.4710,8.0869,-0.6175,-2.4845,-6.4709,0.6245,2.9094,-6.3475,8.6644,20.9435,7.4630,7.1395,-1.8140,-3.9587,10.9257,6.0088,-5.3686,3.5550,-0.3484
1339.8438,17.5501,5.3936,-0.6851,-0.7697,-5.3688,8.7258,1.0166,-5.7120,9.2797,14.4870,6.8999,7.6467,0.9192,-2.8292,9.8460,9.7611,-4.5544,5.1528,1.4898
1343.7500,9.7452,3.1185,-1.0971,-0.1140,-4.5153,17.7085,1.1116,-5.1421,9.0657,8.4183,6.2774,7.2508,2.5869,-2.2750,8.5474,12.2271,-4.3243,5.3616,2.3036
1347.6562,2.2122,2.0634,-1.6208,-0.5195,-4.0881,26.7484,3.6915,-4.6746,7.7121,3.6403,5.3926,6.2871,2.8781,-2.2420,7.2559,13.0593,-4.4980,4.1269,2.2228
1351.5625,-3.2342,2.5402,-1.8120,-1.3759,-3.6848,34.4745,7.5828,-4.0938,5.4788,0.9258,4.2102,5.1059,2.3148,-2.1279,6.2205,12.1720,-4.3162,2.0076,1.8651
1355.4688,-5.5981,4.1415,-1.3510,-1.8992,-2.6448,39.7925,10.5186,-3.1592,3.0367,0.7768,2.8883,3.9656,1.8559,-1.1783,5.6259,9.8593,-2.9731,-0.1516,1.8534
1359.3750,-4.8362,5.8595,-0.3936,-1.6710,-0.5726,42.6558,10.5225,-1.8336,1.0196,3.0892,1.5984,2.9564,2.2178,0.9980,5.4457,6.7881,-0.2100,-1.7128,2.3273
1363.2812,-1.7051,6.5020,0.3542,-0.9303,2.3021,44.2204,7.1930,-0.3549,-0.4104,6.8281,0.2926,1.9552,3.3604,4.1209,5.3312,3.7452,3.3910,-2.6069,2.7905
1367.1875,2.5498,5.1730,-0.0354,-0.4266,5.1858,46.1990,2.0085,0.8929,-1.6811,10.0482,-1.3748,0.6436,4.4823,7.3385,4.6540,1.2231,6.5886,-3.3443,2.4129
1371.0938,6.5127,1.5703,-2.1514,-0.9296,7.1728,49.7739,-2.5742,1.6210,-3.5332,10.4460,-3.8749,-1.3717,4.5294,9.6732,2.7427,-0.8736,8.0403,-4.6709,0.5963
1375.0000,8.8343,-4.0025,-5.8217,-2.7122,7.7833,54.7719,-4.6313,1.8272,-6.5344,6.2926,-7.4822,-4.3422,2.8860,10.5321,-0.7753,-3.1272,6.9457,-7.0762,-2.5710
1378.9062,8.4102,-10.8082,-10.1284,-5.3299,7.2338,59.6883,-3.8834,1.8095,-10.6920,-2.6842,-12.0100,-8.1462,-0.1923,9.9800,-5.6973,-6.0918,3.4555,-10.4417,-6.2665
1382.8125,4.6078,-17.8520,-13.8625,-7.8208,6.2769,62.6263,-1.6907,1.9952,-15.3753,-14.9256,-16.7681,-12.1739,-3.6631,8.6445,-11.1880,-9.6791,-1.3408,-14.0136,-9.3184
1386.7188,-2.3883,-23.9726,-16.1098,-9.1797,5.7407,62.6137,0.0068,2.6899,-19.5437,-27.4026,-20.7580,-15.4374,-6.2209,7.3566,-15.9903,-12.9083,-5.8305,-16.6924,-10.7725
1390.6250,-11.2339,-27.9316,-16.5873,-8.8127,6.0785,60.4731,0.0327,3.8990,-22.1138,-36.5999,-22.9952,-16.9123,-6.9263,6.7619,-18.8315,-14.3003,-8.5090,-17.4703,-10.3004
1394.5312,-19.4057,-28.6606,-15.5549,-6.7344,7.1920,58.6486,-1.3121,5.3148,-22.2875,-39.7551,-22.8193,-15.9817,-5.5872,7.0962,-18.8758,-12.7593,-8.5590,-15.8122,-8.2470
1398.4375,-23.8248,-25.6961,-13.4492,-3.4629,8.5790,60.0137,-2.5916,6.4613,-19.7670,-35.9024,-20.1093,-12.7699,-2.7360,8.1712,-16.0586,-8.4018,-6.1455,-11.8468,-5.3564
1402.3438,-22.1217,-19.5930,-10.5700,0.2534,9.6450,66.3037,-2.3144,6.9069,-14.8696,-26.3404,-15.3746,-8.1725,0.7005,9.4971,-11.1774,-2.7487,-2.3081,-6.3350,-2.3947
1406.2500,-14.0406,-11.9726,-7.0484,3.6916,9.9597,77.0595,0.0333,6.4378,-8.5459,-14.3165,-9.6971,-3.5273,3.8031,10.4458,-5.6855,1.9405,1.5041,-0.4547,0.1136
1410.1562,-2.1447,-5.0029,-3.0629,6.2984,9.3453,89.6800,3.6761,5.1290,-2.2433,-3.9595,-4.4896,-0.0569,5.9388,10.4208,-1.2210,3.8587,4.0599,4.5385,1.9478
1414.0625,8.8423,-0.4816,0.9489,7.7426,7.8331,100.5524,7.0866,3.3096,2.4567,1.2235,-1.0722,1.6477,6.8567,9.0420,0.9800,2.6618,4.8560,7.6937,3.1131
1417.9688,14.0182,0.9715,4.3107,7.9400,5.6009,106.6432,8.9246,1.4481,4.3825,-0.2764,-0.1832,1.8293,6.6562,6.3232,0.5586,-0.3389,4.2660,8.6783,3.7291
1421.8750,10.7126,0.0901,6.3740,7.0710,2.9533,106.7359,8.7339,-0.0043,3.2761,-7.3501,-1.6532,1.3400,5.6979,2.7509,-1.8359,-2.9524,3.2496,7.8829,3.9508
1425.7812,-0.0035,-1.6413,6.8233,5.5420,0.3090,101.7619,7.0071,-0.7769,-0.0422,-16.7810,-4.4579,1.1071,4.4840,-0.8394,-4.8614,-3.4029,2.7640,6.2322,3.9168
1429.6875,-13.6666,-2.9883,5.7890,3.8473,-1.8770,94.2011,4.7014,-0.8941,-4.0137,-24.7390,-7.1902,1.5966,3.4993,-3.5957,-7.1252,-1.3709,3.1932,4.7458,3.7037
1433.5938,-24.5674,-3.6899,3.7141,2.3670,-3.2688,86.9813,2.6253,-0.6767,-7.0573,-28.5542,-8.7290,2.5894,3.0365,-5.0418,-7.8348,1.8445,4.1203,4.0554,3.3025
1437.5000,-28.5627,-4.4119,1.1271,1.2246,-3.7963,82.4409,1.1052,-0.5933,-8.2778,-27.8524,-8.7319,3.4011,3.0810,-5.2919,-7.1072,4.1261,4.5847,4.1450,2.6571
1441.4062,-25.0046,-5.9956,-1.4759,0.3127,-3.6791,81.7291,0.0658,-1.0015,-7.7634,-24.4466,-7.6648,3.4013,3.3426,-4.9347,-5.7691,3.8101,3.6860,4.4746,1.7724
1445.3125,-16.7669,-8.5903,-3.5970,-0.5198,-3.2880,84.6949,-0.6611,-1.9130,-6.3315,-21.0876,-6.3774,2.4873,3.4408,-4.6446,-4.7845,0.6650,1.1766,4.4078,0.8208
1449.2188,-8.4764,-11.3575,-4.6991,-1.2674,-2.9364,90.1015,-1.1021,-2.9438,-4.9426,-19.8566,-5.5336,1.1907,3.1432,-4.7745,-4.6799,-3.9869,-2.3163,3.6627,0.1329
1453.1250,-4.0761,-13.0087,-4.3608,-1.7355,-2.7512,95.9941,-1.1615,-3.5293,-4.1908,-21.1668,-5.2883,0.3348,2.5013,-5.2006,-5.3259,-8.0426,-5.5846,2.4786,0.0224
1457.0312,-5.1063,-12.8005,-2.6184,-1.7261,-2.7091,100.1788,-0.8382,-3.3126,-4.1772,-23.9080,-5.3985,0.4638,1.7923,-5.5044,-6.1871,-9.7938,-7.4691,1.3939,0.5352
1460.9375,-10.4917,-11.2349,-0.2362,-1.3031,-2.7774,100.8357,-0.4171,-2.4697,-4.7439,-26.4955,-5.6194,1.4373,1.3177,-5.3284,-6.8191,-8.7970,-7.4425,0.8087,1.3157
1464.8438,-17.6456,-9.8924,1.4301,-0.8935,-3.0057,97.1967,-0.4339,-1.7244,-5.7763,-28.0161,-6.0206,2.4836,1.2139,-4.6240,-7.2278,-5.9507,-5.7957,0.6683,1.7470
1468.7500,-23.9960,-10.4476,1.0750,-1.0815,-3.4634,90.0252,-1.3872,-1.9782,-7.2721,-28.6866,-6.9384,2.6987,1.4135,-3.6173,-7.8214,-2.7933,-3.3492,0.5151,1.3331
1472.6562,-28.0325,-13.5223,-1.7238,-2.1919,-4.0673,81.5361,-3.3691,-3.7305,-9.1310,-29.4061,-8.5945,1.6678,1.7650,-2.5641,-9.0024,-0.5081,-0.9208,-0.1252,0.0833
1476.5625,-29.5137,-18.1767,-6.0414,-3.9580,-4.4797,74.5775,-5.8722,-6.6410,-10.9087,-30.8636,-10.7047,-0.2114,2.1849,-1.5405,-10.7289,0.7226,1.0696,-1.3151,-1.3900
1480.4688,-29.0836,-22.4102,-9.9268,-5.5568,-4.2246,71.3140,-7.9389,-9.5442,-11.8538,-32.9425,-12.4456,-1.9323,2.6949,-0.4666,-12.4046,1.6288,2.6074,-2.5709,-2.1823
1484.3750,-27.7863,-24.3485,-11.4198,-6.0455,-2.9985,72.0663,-8.6105,-10.9721,-11.3179,-34.8605,-12.8795,-2.4827,3.3145,0.6638,-13.2129,3.1302,3.7548,-3.1438,-1.6462
1488.2812,-26.7505,-23.3312,-9.6714,-4.9386,-0.9589,75.0314,-7.4296,-9.9281,-9.2838,-35.8660,-11.5727,-1.4521,3.9236,1.5939,-12.6656,5.5022,4.3017,-2.5244,0.1898
1492.1875,-26.9781,-20.2036,-5.4446,-2.5322,1.2560,77.1917,-4.6933,-6.4752,-6.5877,-35.8776,-8.9600,0.7521,4.2574,1.8906,-10.9676,8.0162,3.7308,-0.8118,2.6366
1496.0938,-29.0476,-16.6800,-0.6556,0.2532,2.8466,76.0050,-1.2911,-1.7905,-4.5813,-35.5361,-6.1639,3.1982,4.0839,1.3069,-8.9231,9.3192,1.5807,1.3195,4.7984
1500.0000,-32.7548,-14.2672,2.7466,2.4076,3.3153,70.8976,1.7728,2.3636,-4.3867,-35.6555,-4.3630,5.0069,3.4329,0.1320,-7.4489,8.3127,-2.0429,3.0244,6.1450
1503.9062,-36.9925,-13.4802,3.8259,3.3743,2.7366,63.5986,3.8632,4.4667,-6.2261,-36.5633,-4.1314,5.8089,2.6563,-0.8272,-7.0441,4.9388,-6.2309,3.7723,6.7829
1507.8125,-40.1704,-13.8084,2.9707,3.2358,1.6186,57.0279,4.8797,3.9196,-9.2909,-37.8997,-5.1896,5.7990,2.2054,-0.7460,-7.5875,0.3374,-9.5821,3.5823,7.2229
1511.7188,-41.1060,-14.3332,1.3456,2.4611,0.4425,53.3881,5.0205,1.2293,-12.2472,-39.0327,-6.7037,5.4129,2.2454,0.5277,-8.5706,-3.7483,-10.9528,2.8818,7.8242
1515.6250,-39.8458,-14.4620,-0.0448,1.4520,-0.7665,52.7065,4.3670,-2.3578,-14.0226,-39.6998,-7.8800,4.9238,2.4070,2.1211,-9.5416,-5.9311,-10.1835,2.1440,8.3591
1519.5312,-37.7551,-14.2448,-0.9887,0.2631,-2.4809,52.8380,2.6825,-5.5307,-14.3317,-40.2693,-8.4108,4.2836,1.9272,2.4941,-10.3895,-5.8751,-8.2875,1.5971,8.0720
1523.4375,-36.6486,-14.1178,-1.9954,-1.3034,-5.2527,50.9897,-0.3443,-7.5178,-13.6181,-41.3428,-8.4873,3.3086,0.1572,0.3940,-11.2573,-4.2955,-6.9063,1.1954,6.2379
1527.3438,-37.4696,-14.3727,-3.6815,-3.3446,-9.1260,45.7590,-4.5594,-8.3245,-12.5404,-43.0103,-8.4491,2.0169,-2.8883,-4.1864,-12.2018,-2.3202,-7.3228,0.8092,2.8263
1531.2500,-39.4777,-14.8345,-6.1647,-5.5815,-13.3409,38.2532,-8.9808,-8.5406,-11.4595,-44.4408,-8.4182,0.7918,-6.3590,-9.7362,-12.9421,-0.7050,-9.6498,0.4132,-1.2490
1535.1562,-40.6530,-15.0192,-8.9506,-7.4281,-16.6084,31.4383,-12.0498,-8.8853,-10.3352,-44.2803,-8.2387,0.1869,-8.9691,-13.9267,-12.9698,0.5379,-12.7320,0.0901,-4.5437
1539.0625,-39.1575,-14.6231,-11.3536,-8.3777,-17.8215,28.0928,-12.4977,-9.7641,-9.0593,-41.6682,-7.7496,0.4905,-9.7557,-14.9122,-11.9779,1.8831,-14.8437,-0.1391,-5.9359
1542.9688,-34.8388,-13.9087,-13.0468,-8.3998,-16.7312,28.7769,-10.2839,-11.0649,-7.8615,-37.1021,-7.1117,1.3910,-8.6961,-12.4205,-10.2555,3.6737,-14.7431,-0.4620,-5.3439
1546.8750,-29.6083,-13.6156,-14.2473,-8.0048,-14.1038,31.2903,-6.8626,-12.2611,-7.3550,-32.3818,-6.8436,2.0452,-6.7402,-7.9114,-8.6696,5.6691,-12.4020,-1.2078,-3.7970
1550.7812,-26.2773,-14.4092,-15.3719,-7.8903,-11.2344,32.0870,-4.4117,-12.7300,-8.1011,-29.5156,-7.4723,1.5652,-5.2084,-3.6891,-8.1549,7.1228,-8.9565,-2.5677,-2.7768
1554.6875,-26.5912,-16.2727,-16.4719,-8.4189,-9.1442,28.7122,-4.4121,-12.1004,-10.0267,-29.3106,-9.0561,-0.3926,-4.9550,-1.5414,-9.0438,7.3065,-5.9482,-4.3299,-3.2599
1558.5938,-29.8866,-18.3512,-16.9746,-9.3377,-8.0211,21.5401,-6.5490,-10.4542,-12.2255,-30.7157,-11.0001,-3.3585,-5.8786,-1.7909,-10.7537,6.0345,-4.3996,-5.8980,-5.1141
1562.5000,-33.4338,-19.4516,-16.0346,-9.9780,-7.2876,13.5352,-8.8083,-8.2965,-13.4279,-31.5175,-12.3915,-6.3194,-7.1191,-3.3371,-12.1326,3.7479,-4.3443,-6.6649,-7.2603
1566.4062,-34.3167,-18.9059,-13.2954,-9.8036,-6.2182,8.1612,-8.8463,-6.3222,-12.8945,-29.9886,-12.6683,-8.3644,-7.7880,-4.5893,-12.2770,1.0996,-5.0835,-6.5116,-8.4801
1570.3125,-31.5180,-17.1728,-9.4762,-8.8913,-4.6275,6.9168,-5.7474,-5.1045,-11.0833,-26.3039,-12.1187,-9.2577,-7.6862,-4.5947,-11.2399,-1.5865,-5.9049,-6.0364,-8.2950
1574.2188,-26.6514,-15.6702,-6.2566,-7.9528,-3.1016,8.2911,-0.8891,-4.8560,-9.5193,-22.6072,-11.7750,-9.5302,-7.4677,-3.5879,-10.0719,-4.4850,-6.6849,-6.2653,-7.2965
1578.1250,-22.7369,-15.8472,-5.4089,-7.8477,-2.5898,8.9208,2.8186,-5.3759,-9.8326,-21.5418,-12.6894,-10.0182,-8.1168,-2.6448,-10.0943,-7.8835,-7.9133,-7.9607,-6.7018
1582.0312,-21.8855,-18.0804,-7.6953,-8.9292,-3.6571,6.1163,2.8962,-6.1978,-12.5689,-24.2176,-15.0710,-11.1829,-10.1211,-2.7781,-11.8809,-11.5545,-10.1412,-10.9823,-7.4571
1585.9375,-23.6347,-21.1874,-12.2698,-10.7170,-5.9642,-0.1037,-0.8956,-6.8535,-16.6164,-29.0922,-17.9288,-12.7110,-12.9629,-4.1761,-14.6887,-14.4729,-13.3080,-14.1841,-9.5353
1589.8438,-25.2501,-22.9934,-17.0340,-12.1650,-8.3831,-6.9947,-6.2323,-7.1094,-19.7272,-32.6805,-19.5530,-13.6996,-15.3351,-6.1280,-16.7969,-15.2479,-16.5049,-16.0008,-11.9229
1593.7500,-23.8484,-21.6800,-19.7708,-12.3617,-9.6921,-11.1218,-9.7014,-7.0476,-19.8658,-31.7320,-18.5744,-13.3071,-15.9631,-7.6259,-16.5844,-13.0668,-18.4086,-15.3963,-13.3012
1597.6562,-18.7846,-17.0552,-19.3620,-11.1659,-9.3651,-10.9517,-9.0869,-6.9542,-16.5182,-25.4362,-14.8991,-11.4006,-14.4638,-8.1321,-13.6274,-8.4746,-18.1040,-12.5586,-12.9310
1601.5625,-12.4704,-10.8611,-16.3359,-9.3125,-7.8869,-8.0662,-4.8544,-7.0867,-11.0787,-16.1335,-9.8605,-8.7248,-11.6314,-7.9053,-9.0604,-3.3317,-15.7076,-8.8508,-11.1174
1605.4688,-8.9069,-5.8365,-12.4278,-7.8954,-6.3641,-6.0788,0.2199,-7.4644,-6.0358,-8.0078,-5.4553,-6.4532,-8.9323,-7.6578,-4.9375,0.1520,-12.3288,-6.0106,-8.9414
1609.3750,-10.9225,-4.0921,-9.4708,-7.5829,-5.7054,-8.0475,3.0013,-7.8106,-3.4866,-4.6170,-3.1673,-5.4305,-7.5544,-7.8483,-3.0217,0.7094,-9.3820,-5.1001,-7.4719
1613.2812,-18.1183,-5.8538,-8.3351,-8.1221,-5.9581,-14.3012,2.1212,-7.6874,-3.9511,-6.8869,-3.1671,-5.6405,-7.6630,-8.2033,-3.8087,-1.2578,-7.7329,-5.8885,-7.0323
1617.1875,-27.0462,-9.4090,-8.5598,-8.4905,-6.2749,-22.2818,-1.2261,-6.7455,-6.2356,-12.8220,-4.4016,-6.2749,-8.3681,-7.8704,-6.3951,-4.0525,-7.2757,-7.0751,-7.0393
1621.0938,-33.5127,-12.2843,-8.8388,-7.5971,-5.5329,-28.4810,-4.3095,-4.9408,-8.3637,-18.9631,-5.4506,-6.3462,-8.4024,-6.1054,-9.1894,-5.9061,-7.2095,-7.1991,-6.5021
1625.0000,-35.3227,-12.8397,-7.9849,-5.0523,-3.1575,-30.9801,-4.8735,-2.5884,-8.8828,-22.4527,-5.5004,-5.4006,-7.0172,-2.9621,-10.8937,-6.1758,-6.7633,-5.6267,-4.7984
1628.9062,-33.4566,-11.1929,-5.7270,-1.4767,0.4364,-30.6743,-2.6368,-0.2192,-7.6552,-22.2952,-4.7420,-3.8202,-4.4709,0.5728,-11.0675,-5.6504,-5.7996,-2.9643,-2.1560
1632.8125,-30.8645,-8.8799,-2.8624,1.8564,4.0977,-30.2994,0.7499,1.6762,-5.6669,-19.1507,-3.9730,-2.5092,-1.7949,3.1481,-9.9822,-5.7549,-4.8418,-0.6393,0.4955
1636.7188,-29.8720,-7.5705,-0.7238,3.7931,6.6937,-32.0832,3.1148,2.8669,-4.1096,-14.1564,-3.7851,-2.2095,-0.0420,3.9358,-8.0461,-7.2702,-4.5370,0.0479,2.1751
1640.6250,-30.2390,-7.8185,-0.3429,3.9607,7.8218,-35.8929,3.3765,3.4368,-3.4779,-7.9237,-4.0168,-2.9531,0.4228,3.1913,-5.3743,-9.5505,-5.0092,-1.2438,2.5143
1644.5312,-29.4002,-8.7597,-1.8413,2.8881,7.9690,-39.3488,2.1439,3.6512,-3.3446,-0.5469,-3.9051,-4.0502,0.0888,2.0622,-1.8853,-10.8591,-5.6471,-3.7239,1.9531
1648.4375,-24.7220,-8.9355,-4.3993,1.5357,8.0179,-39.8281,0.9597,3.7230,-2.9190,7.5200,-2.8027,-4.6149,-0.1683,1.7572,2.2003,-9.6066,-5.5258,-6.0463,1.3398
1652.3438,-16.0236,-7.5661,-6.7806,0.5847,8.4740,-36.7979,0.9047,3.6272,-1.8938,14.6771,-0.8676,-4.2402,0.1796,2.6596,5.9715,-5.5950,-4.1539,-7.2193,1.2426
1656.2500,-6.3605,-5.2776,-8.0733,-0.0238,8.9890,-32.6323,1.7064,3.0819,-0.8832,18.4187,0.8512,-3.3312,0.8597,4.0221,8.0032,-0.3520,-1.9559,-7.2379,1.4801
1660.1562,-0.3427,-3.7195,-8.2051,-0.9965,8.5496,-31.2095,2.0081,1.7132,-1.0886,16.6834,1.0437,-2.8626,0.9578,4.4766,7.0980,3.7125,-0.0782,-7.0357,1.2138
1664.0625,-1.1140,-4.3658,-7.9411,-3.1246,6.2232,-35.2731,0.5017,-0.6872,-3.4217,9.4084,-0.9599,-3.7319,-0.4230,3.0226,3.1005,4.7539,0.3885,-7.8170,-0.4582
1667.9688,-8.1492,-7.4069,-8.3720,-6.6340,1.9544,-44.4824,-3.0116,-3.9555,-7.7292,-0.9401,-4.6758,-6.1564,-3.4617,-0.1794,-2.8303,2.5622,-0.7807,-10.2252,-3.8111
1671.8750,-17.4544,-11.5522,-10.1830,-10.8742,-3.1390,-55.5677,-7.4261,-7.5128,-12.6936,-10.4283,-8.7131,-9.5058,-7.3592,-3.7496,-8.7420,-1.4414,-2.7087,-13.8773,-8.1643
1675.7812,-24.0271,-14.8667,-13.1123,-14.5337,-7.1966,-64.4488,-11.0574,-10.5116,-16.5019,-15.7291,-11.5950,-12.6478,-10.6870,-5.8096,-12.8866,-5.2072,-3.9597,-17.5307,-12.1210
1679.6875,-24.8328,-15.9946,-15.9233,-16.2461,-8.5207,-68.7580,-12.6430,-12.1060,-17.8363,-15.8514,-12.5643,-14.5430,-12.1143,-5.0168,-14.5356,-7.3246,-3.5029,-19.7407,-14.2159
1683.5938,-20.2619,-14.8828,-16.9514,-15.2300,-6.4162,-68.9898,-11.8666,-11.7339,-16.5389,-12.3793,-11.8372,-14.7053,-11.0594,-1.2708,-14.1033,-7.7110,-1.4246,-19.5904,-13.5871
1687.5000,-13.2187,-12.5462,-14.9792,-11.6280,-1.4878,-67.5928,-9.1492,-9.3112,-13.5551,-8.1225,-10.2113,-13.2914,-7.8989,4.3015,-12.5874,-7.3555,1.1156,-17.0865,-10.3222
1691.4062,-6.7221,-10.1637,-9.9928,-6.4073,4.7224,-66.8549,-5.0830,-5.2802,-10.2630,-5.1855,-8.4076,-10.8630,-3.6770,10.0003,-10.8116,-7.4243,2.6551,-13.0570,-5.3624
1695.3125,-1.8790,-8.2561,-3.3856,-0.9275,10.4865,-67.2422,-0.0983,-0.5024,-7.6781,-3.8123,-6.6684,-8.0549,0.4445,14.3948,-9.0377,-8.4127,2.3933,-8.6897,-0.0884
1699.2188,2.3574,-6.5460,2.5653,3.5848,14.5914,-67.3752,5.3714,3.9803,-6.0355,-2.7117,-4.8577,-5.3660,3.6600,16.8642,-7.1532,-9.8863,0.6984,-5.0081,4.1789
1703.1250,7.6871,-4.4959,5.7423,6.4242,16.6628,-65.4978,10.5114,7.2618,-4.9279,-0.4538,-2.8723,-3.1221,5.7038,17.6223,-5.1538,-10.8689,-1.1529,-2.5443,6.5772
1707.0312,14.5778,-1.9813,5.2363,7.5411,17.0689,-61.1776,14.0599,8.8738,-3.7825,3.2225,-0.9333,-1.5127,6.7571,17.3532,-3.4229,-10.4958,-1.7796,-1.3001,6.9203
1710.9375,21.5443,0.4929,1.8331,7.4272,16.5801,-55.8908,14.8165,8.9533,-2.2891,7.1772,0.5221,-0.5859,7.2331,16.7738,-2.5281,-8.4635,-0.4747,-0.9224,5.7169
1714.8438,26.1416,2.1819,-2.3572,6.8377,16.0136,-52.0915,12.4372,8.1730,-0.5150,9.8081,1.2414,-0.1976,7.5921,16.3719,-2.7055,-5.0595,2.5301,-0.9504,3.9855
1718.7500,26.8554,2.7152,-4.9657,6.4646,15.9817,-51.5393,7.9010,7.4202,1.2683,10.3483,1.4583,-0.0118,8.2280,16.3682,-3.5064,-0.8946,6.3955,-1.0153,2.8767
1722.6562,24.4017,2.3833,-4.5643,6.6758,16.7493,-54.1621,3.2056,7.3475,2.8225,9.4868,1.7740,0.3648,9.3867,16.7905,-3.9720,3.3874,10.2658,-0.9380,3.1916
1726.5625,21.4339,1.8667,-1.3467,7.4202,18.1737,-58.2224,0.4084,8.0323,4.0408,8.8609,2.6678,1.1608,11.0819,17.5380,-3.2689,7.2473,13.6657,-0.7184,4.9968
1730.4688,20.8704,1.6791,3.0810,8.3437,19.7487,-61.5280,0.6108,8.9620,4.8898,9.8572,4.0365,2.2897,13.0500,18.4142,-1.3140,10.2639,16.4769,-0.4375,7.5652
1734.3750,24.0470,1.8425,6.6678,9.0706,20.8059,-62.7018,3.5208,9.4027,5.3367,12.6647,5.1901,3.4169,14.8255,19.1852,1.1134,12.1516,18.6334,-0.1184,9.7473
1738.2812,29.9557,2.0886,8.0824,9.5033,20.8543,-61.6360,7.8035,8.9582,5.3968,16.2683,5.3800,4.2279,15.9614,19.6962,2.9022,12.8346,19.8853,0.3814,10.6215
1742.1875,35.9950,2.3838,7.4125,9.9526,19.9037,-59.0182,11.8992,7.9656,5.2785,19.3227,4.4886,4.7048,16.2975,19.9888,3.4133,12.4940,19.8766,1.3657,10.0569
1746.0938,39.6094,3.2589,6.0203,10.9839,18.5486,-55.5470,14.7465,7.4217,5.4578,21.1928,3.3268,5.1817,16.0980,20.3019,2.9659,11.4717,18.4818,3.1512,8.8202
1750.0000,39.7027,5.5630,5.6747,13.0336,17.6842,-51.5717,16.0315,8.4077,6.5297,22.3875,3.2463,6.1037,15.9301,20.9046,2.6424,10.0429,16.0997,5.8351,8.1181
1753.9062,37.0352,9.7588,7.4873,16.0200,17.9728,-47.3635,15.9778,11.3222,8.8620,24.1268,5.2804,7.6511,16.3280,21.8557,3.5481,8.2356,13.6171,9.1222,8.8358
1757.8125,33.5912,15.3052,11.2686,19.2183,19.3932,-43.5698,14.9803,15.4196,12.2788,27.4305,9.4096,9.5207,17.4502,22.8771,6.0609,5.8943,12.0077,12.3542,10.9612
1761.7188,31.5063,20.6719,15.6470,21.5350,21.2098,-41.2167,13.3701,19.0238,16.0343,32.4024,14.4875,11.0586,18.9705,23.4815,9.5961,3.0025,11.8204,14.7697,13.5850
1765.6250,32.2052,24.0732,18.8451,22.0688,22.4410,-41.0672,11.3974,20.3947,19.1583,38.1445,18.9031,11.6826,20.2918,23.3010,13.0193,0.0206,12.9052,15.8692,15.4980
1769.5312,36.0334,24.4649,19.6479,20.6410,22.5462,-42.8138,9.3314,18.7885,20.9834,43.2391,21.5331,11.3021,20.9439,22.3904,15.3795,-2.0942,14.5516,15.6665,15.9931
1773.4375,42.2821,22.1401,18.0272,17.9624,21.8526,-44.8731,7.5532,15.0676,21.5076,46.3972,22.3422,10.4247,20.8884,21.2604,16.4373,-2.3238,15.9280,14.6652,15.3337
1777.3438,49.4167,18.5487,15.1087,15.3094,21.3821,-45.1619,6.5858,11.4216,21.3445,46.9040,22.2513,9.8569,20.5117,20.5761,16.6652,-0.2511,16.5164,13.5716,14.5639
1781.2500,55.4721,15.5055,12.5507,13.8760,22.1392,-42.4488,7.0465,10.2631,21.2953,44.7746,22.4186,10.1965,20.3135,20.7108,16.8020,3.5290,16.2789,12.9305,14.7811
1785.1562,58.6801,14.3271,11.7006,14.1716,24.3231,-37.3216,9.4720,12.8673,21.8397,40.7436,23.4634,11.4612,20.5173,21.4681,17.3388,7.6188,15.5147,12.9150,16.3605
1789.0625,58.2414,15.3915,12.9807,15.8042,27.0137,-31.9768,13.9653,18.5203,22.8892,36.1842,25.1517,13.1014,20.8883,22.1812,18.2950,10.5923,14.5764,13.3792,18.6523
1792.9688,54.8661,18.2437,15.7915,17.7505,28.5909,-28.8398,19.7572,24.6932,23.9471,32.8721,26.6928,14.3735,20.8902,22.1266,19.3686,11.8347,13.6696,14.0888,20.3580
1796.8750,50.6102,22.0055,18.9259,18.9239,27.6488,-28.8944,25.0005,28.2043,24.5227,32.4522,27.3636,14.8084,20.0625,20.9586,20.2571,11.8428,12.8312,14.9254,20.3387
1800.7812,47.8691,25.7580,21.2303,18.6976,23.8279,-30.8759,27.1813,26.7839,24.4824,35.6723,26.9939,14.4706,18.3438,18.8601,20.8675,11.7355,12.0207,15.9036,18.3314
1804.6875,47.9808,28.7462,22.1427,17.1102,18.0302,-31.9453,24.2452,20.2314,24.0937,41.7658,26.0099,13.8674,16.1132,16.3225,21.2870,12.3038,11.1867,17.0148,15.1213
1808.5938,50.3073,30.4729,21.8417,14.7027,11.8985,-29.4784,15.9710,10.5657,23.7654,48.4814,25.0773,13.6087,13.9351,13.7465,21.6066,13.3042,10.2493,18.0657,12.0791
1812.5000,52.4850,30.7872,20.9724,12.1610,6.9188,-22.8458,4.7027,1.1056,23.7079,52.9599,24.6450,14.0538,12.2084,11.1861,21.7920,13.5631,9.0592,18.6886,10.3717
1816.4062,51.8113,29.9392,20.1538,10.0069,3.7253,-14.0462,-5.2980,-5.0391,23.7765,53.0963,24.6962,15.1452,10.9746,8.4292,21.7076,11.8758,7.4402,18.5581,10.3343
1820.3125,46.9448,28.4670,19.5870,8.4887,2.0082,-6.7690,-9.8219,-6.3079,23.5984,48.6145,24.8188,16.4806,10.0034,5.3345,21.2399,8.0717,5.3406,17.6592,11.3628
1824.2188,38.8249,26.8678,19.0016,7.6531,0.9925,-4.4223,-6.9853,-3.2274,22.8669,41.1753,24.4864,17.5325,9.0605,2.1349,20.3842,3.4339,2.9862,16.3886,12.3459
1828.1250,30.2084,25.2434,17.9590,7.4669,0.0878,-8.2576,1.6167,2.0531,21.5760,33.4370,23.3571,17.8852,8.1338,-0.5608,19.2233,0.0870,0.8792,15.3757,12.3431
1832.0312,24.1285,23.2397,16.2895,7.8697,-0.7461,-16.6268,11.7341,6.9164,20.0383,27.6651,21.4513,17.3994,7.4468,-2.0960,17.8519,-0.2988,-0.4151,15.1236,11.1051
1835.9375,22.2747,20.4361,14.3454,8.7387,-1.1140,-25.7399,18.8598,9.5026,18.6978,24.7575,19.1728,16.2762,7.2686,-2.1881,16.3581,2.3934,-0.5781,15.7126,9.1644
1839.8438,24.2725,16.9502,12.8662,9.8420,-0.6135,-31.4786,20.7140,9.4023,17.8880,24.2119,17.1936,15.0119,7.6868,-1.1225,14.8949,6.6167,0.2739,16.7733,7.4902
1843.7500,28.1799,13.7405,12.5152,10.8646,0.7800,-31.3138,18.2278,7.5431,17.6880,24.8789,16.2247,14.2354,8.5269,0.4355,13.7481,10.1577,1.6736,17.7435,6.9354
1847.6562,31.7124,12.2215,13.3895,11.5195,2.6411,-25.3893,14.4573,5.4331,17.9334,25.8431,16.7093,14.4486,9.4679,1.8765,13.2713,11.5787,3.1070,18.2193,7.7816
1851.5625,33.3526,13.3266,14.8555,11.6711,4.3353,-16.2976,12.2929,4.2410,18.3291,26.8128,18.5426,15.7561,10.2416,3.0006,13.6634,11.0993,4.3105,18.1542,9.6032
1855.4688,32.7655,16.6742,15.8636,11.3758,5.3483,-7.7198,12.6221,4.2243,18.5761,27.8900,20.9896,17.7311,10.7434,4.0190,14.7416,10.2882,5.3268,17.7840,11.4876
1859.3750,30.5376,20.5521,15.5720,10.8020,5.4593,-2.6280,14.1837,4.7689,18.4684,29.1119,22.9340,19.5372,10.9688,5.1962,15.9309,10.7731,6.2768,17.3641,12.4701
1863.2812,27.6818,22.8916,13.8829,10.0830,4.6814,-1.9275,15.0336,4.9329,17.9592,30.2628,23.4162,20.2924,10.8465,6.4060,16.5611,12.8881,7.0341,16.9383,11.9577
1867.1875,25.3029,22.6340,11.5227,9.2076,3.0891,-4.1893,14.3467,4.1097,17.2020,31.1186,22.1868,19.4974,10.1364,6.9569,16.3154,15.2515,7.0921,16.3128,9.9391
1871.0938,24.4637,20.4991,9.5934,8.0268,0.7217,-6.5754,13.1039,2.4035,16.5313,31.8210,19.9138,17.2767,8.5129,5.8695,15.5059,15.6311,5.7803,15.2399,6.9032
1875.0000,26.0051,18.5198,8.8767,6.3762,-2.3521,-6.4534,13.1688,0.5270,16.3412,32.9283,17.8475,14.2829,5.8020,2.4715,14.9305,12.5407,2.7268,13.6538,3.5383
1878.9062,30.1627,18.5961,9.3495,4.2311,-5.8873,-2.8342,15.5660,-0.6577,16.8766,34.9914,17.0919,11.3256,2.2058,-3.0580,15.3562,6.4658,-1.7448,11.7742,0.3902
1882.8125,36.1655,21.0848,10.2349,1.7946,-9.3964,3.1426,19.3953,-0.6383,18.0483,37.9818,17.9332,8.9675,-1.6614,-9.5573,16.9704,-0.1715,-6.5824,10.0012,-2.3294
1886.7188,42.2508,24.4615,10.5483,-0.5403,-12.2632,8.9223,22.2843,0.5063,19.4179,41.1126,19.6727,7.3378,-4.9770,-15.2871,19.2024,-4.3583,-10.4041,8.6864,-4.6964
1890.6250,46.3556,26.3303,9.7640,-2.3415,-13.9864,12.0197,22.0427,2.2137,20.4148,43.3153,21.0946,6.2445,-7.0454,-18.6740,21.0688,-4.3042,-12.1174,7.9425,-6.8477
1894.5312,47.2278,25.0583,8.1477,-3.3236,-14.3975,11.4101,18.2341,3.7638,20.6763,44.0687,21.2572,5.4503,-7.5728,-18.9977,21.8196,-0.5431,-11.4087,7.6037,-8.7488
1898.4375,45.2518,20.8569,6.5344,-3.4802,-13.7137,8.0483,12.4686,4.5916,20.2750,43.9082,20.0667,4.8735,-6.7432,-16.6682,21.4267,4.3943,-8.8407,7.3345,-10.1282
1902.3438,42.3272,15.5583,5.7179,-3.0982,-12.4100,4.2757,7.2459,4.4323,19.6452,44.1194,18.2480,4.5730,-5.0889,-12.9683,20.5636,7.5224,-5.5428,6.7940,-10.6365
1906.2500,40.7334,11.3208,5.8791,-2.6404,-11.0092,2.5365,4.2930,3.2972,19.2244,45.7519,16.7655,4.5703,-3.2607,-9.4269,20.0923,7.1623,-2.6986,5.7625,-10.1228
1910.1562,41.6524,9.2707,6.4465,-2.5413,-9.9137,4.1760,3.6673,1.3914,19.0650,48.6737,16.1391,4.7051,-1.8200,-7.1518,20.4335,3.8224,-1.1039,4.2043,-8.8246
1914.0625,44.3432,9.0631,6.4822,-2.9991,-9.3355,8.9543,4.2007,-0.9365,18.7308,51.4409,16.1609,4.6829,-1.1120,-6.4401,21.2816,-0.2867,-0.9675,2.2900,-7.3143
1917.9688,46.5736,9.5694,5.3252,-3.8624,-9.2933,15.4055,4.7582,-3.2146,17.6127,52.1875,16.1930,4.2970,-1.2094,-6.8046,21.8667,-2.6919,-1.9634,0.3969,-6.2030
1921.8750,46.0630,10.0119,3.0618,-4.6793,-9.6217,21.6756,5.1780,-4.9167,15.4736,49.9520,15.7760,3.6384,-1.9004,-7.3429,21.5615,-2.0782,-3.4381,-0.9461,-5.7828
1925.7812,41.9817,10.5637,0.5110,-4.9110,-9.9913,26.2974,6.1222,-5.6279,12.8160,45.4775,15.0417,3.0934,-2.7366,-7.2296,20.3763,1.1646,-4.6660,-1.2180,-5.8502
1929.6875,35.5074,11.9356,-1.2659,-4.2294,-9.9887,28.5531,8.0597,-5.2539,10.7359,40.8486,14.5889,3.0881,-3.1787,-6.0967,18.9750,5.4609,-5.0894,-0.1636,-5.8512
1933.5938,29.0861,14.3488,-1.6240,-2.7568,-9.3008,28.4298,10.3712,-4.1358,10.2719,38.1573,14.9113,3.7422,-2.8414,-4.1603,18.1936,9.1143,-4.5110,1.9585,-5.2799
1937.5000,24.9248,16.8167,-0.7573,-1.1133,-7.9474,26.3983,11.4628,-2.9613,11.6421,38.1020,15.8308,4.6846,-1.7428,-2.0885,18.4056,11.1328,-3.1851,4.3092,-4.0847
1941.4062,23.7249,17.4307,0.3665,-0.2153,-6.4105,23.2218,9.8996,-2.4843,13.9041,39.4937,16.4105,5.1830,-0.3956,-0.7047,19.1897,11.3498,-1.7437,5.7002,-2.8049
1945.3125,24.4358,14.5408,0.5231,-0.8880,-5.5096,19.8280,5.6573,-3.1961,15.3389,40.0158,15.4682,4.5251,0.3794,-0.6595,19.5378,9.9765,-0.9346,5.0807,-2.3191
1949.2188,25.0764,8.0031,-1.0866,-3.4565,-6.0068,17.1511,0.4166,-5.1253,14.3941,37.7234,12.3685,2.4250,-0.1215,-2.1766,18.4742,7.1390,-1.2569,2.0638,-3.3287
1953.1250,23.9847,-0.4230,-4.3610,-7.5095,-8.1235,15.8929,-3.4426,-7.8537,10.6278,32.2833,7.5486,-0.7853,-2.0378,-4.9438,15.6847,2.8677,-2.6771,-2.7857,-5.8758
1957.0312,20.6746,-7.8525,-8.2825,-11.9681,-11.2682,16.2930,-4.4466,-10.7077,5.0614,25.1759,2.4057,-4.2733,-4.7590,-8.1764,11.7593,-2.4650,-4.6075,-8.0856,-9.1977
1960.9375,15.8662,-11.7387,-11.3799,-15.4622,-14.1978,18.0706,-3.0135,-13.0039,-0.3017,18.7995,-1.3986,-7.0459,-7.1611,-10.8556,7.9151,-7.7241,-6.1949,-12.1622,-12.0297
1964.8438,10.8629,-11.1144,-12.4425,-16.8749,-15.5912,20.6108,-1.0538,-14.2468,-3.5188,15.1209,-2.7792,-8.3295,-8.1710,-12.0908,5.3865,-11.1377,-6.7740,-13.7363,-13.2062
1968.7500,6.8194,-6.9117,-11.1265,-15.8246,-14.7455,23.2822,-0.4808,-14.2472,-3.6998,14.7206,-1.7108,-7.8267,-7.3479,-11.4932,4.8476,-11.0896,-6.2214,-12.4528,-12.2345
1972.6562,4.3603,-1.3059,-8.1341,-12.8577,-11.9886,25.6694,-1.7746,-13.1626,-1.3826,16.7253,0.8951,-5.7803,-5.1304,-9.3865,6.1719,-7.1382,-4.9926,-9.0093,-9.5230
1976.5625,3.6272,3.4121,-4.8511,-9.2304,-8.5424,27.5772,-3.6964,-11.4498,1.8810,19.5077,3.7689,-2.8551,-2.5884,-6.7097,8.6022,-0.5398,-3.8203,-4.8287,-6.1451
1980.4688,4.4927,5.7812,-2.6146,-6.3433,-5.8820,28.8755,-4.3577,-9.6914,4.4311,21.6035,5.9245,0.1061,-0.8196,-4.5896,11.1728,6.1893,-3.2650,-1.4269,-3.2801
1984.3750,6.6469,5.5495,-1.9997,-5.0751,-4.9444,29.3933,-2.8012,-8.3107,5.3457,22.2922,6.9985,2.3830,-0.3490,-3.7605,13.1229,10.5126,-3.4031,0.2401,-1.6462
1988.2812,9.5010,3.4915,-2.5350,-5.3461,-5.6397,29.0173,0.1415,-7.3004,4.7679,21.6264,7.1784,3.6389,-0.8864,-4.1435,14.1044,11.1943,-3.8367,0.1541,-1.2269
1992.1875,12.1128,0.9057,-3.0322,-6.1644,-6.9459,27.9346,2.3892,-6.1701,3.6095,20.0740,6.8755,4.0334,-1.5682,-4.8660,14.1509,8.8929,-3.9994,-0.8334,-1.4055
1996.0938,13.3809,-0.9551,-2.3562,-6.1696,-7.5225,26.7784,2.1598,-4.2443,2.8952,18.1180,6.4144,4.1114,-1.5119,-4.7621,13.5101,5.6730,-3.5396,-1.4848,-1.3836
2000.0000,12.5305,-1.3463,-0.1692,-4.4044,-6.4710,26.4615,-0.6244,-1.2050,3.1754,16.0677,5.9243,4.4968,-0.3268,-3.0880,12.4862,3.7660,-2.5274,-0.8355,-0.6126
2003.9062,9.6256,-0.2648,2.8297,-0.8835,-3.7943,27.7238,-4.1197,2.4722,4.3270,14.1179,5.4313,5.5488,1.7226,-0.0084,11.3766,4.3594,-1.3616,1.3109,1.0036
2007.8125,5.7339,1.6452,5.3523,3.3858,-0.3037,30.6721,-5.7046,5.5718,5.7840,12.5099,5.0177,7.1834,3.9656,3.4818,10.4851,7.1152,-0.4569,4.3177,3.2015
2011.7188,2.5429,3.5136,6.3934,6.9650,2.9267,34.6420,-3.6861,6.7825,6.9776,11.6131,4.8915,8.9783,5.7856,6.1741,10.1279,10.6039,0.0629,7.1163,5.6193
2015.6250,1.5742,4.7961,5.9584,8.7987,5.1850,38.4994,1.6009,5.5920,7.6759,11.8249,5.3068,10.4850,6.9678,7.4032,10.5595,13.2647,0.4523,8.8326,8.0101
2019.5312,3.4160,5.6038,5.1360,8.7767,6.4231,41.1877,8.0017,2.8123,8.0220,13.3201,6.3864,11.5219,7.7139,7.4217,11.8274,14.2432,1.1457,9.2570,10.2638
2023.4375,7.4032,6.5291,5.4113,7.6924,7.0710,42.1700,12.8396,0.2716,8.2888,15.7889,7.9668,12.2296,8.3427,7.1247,13.6457,13.6543,2.4034,8.8675,12.2608
2027.3438,11.9237,8.0287,7.6203,6.6362,7.5439,41.5273,14.3868,-0.2492,8.5564,18.3472,9.5684,12.8549,8.9231,7.3165,15.4016,12.2572,4.0406,8.4076,13.7181
2031.2500,15.1733,9.8055,11.2134,6.2485,7.8329,39.7476,12.5785,1.8188,8.5578,19.7505,10.5279,13.4445,9.1249,8.0651,16.3440,10.8928,5.4395,8.3273,14.1926
2035.1562,15.9450,10.7294,14.3386,6.3501,7.5053,37.4378,8.6622,5.3839,7.8174,18.8905,10.2408,13.7129,8.4215,8.6430,15.8835,10.0787,5.8687,8.4862,13.2785
2039.0625,14.0444,9.4872,14.7591,6.1970,6.1290,35.1544,4.2183,8.3440,5.9970,15.3607,8.4093,13.2078,6.5143,8.1273,13.8457,9.9312,4.9324,8.3317,10.8758
2042.9688,10.1574,5.5702,11.1042,5.1535,3.7970,33.3509,0.3295,8.9619,3.2109,9.7564,5.1792,11.6553,3.6753,6.2192,10.5308,10.3029,2.8663,7.4045,7.3372
2046.8750,5.3049,-0.1399,3.7361,3.2664,1.3179,32.2976,-2.5863,7.0355,0.0691,3.4572,1.1001,9.2017,0.7302,3.6394,6.5473,10.9178,0.4659,5.7702,3.3762
2050.7812,0.2466,-5.7191,-5.2688,1.2924,-0.1562,31.9018,-4.3719,4.0282,-2.6203,-2.0675,-3.0741,6.3469,-1.3601,1.7364,2.5340,11.3926,-1.3488,4.0186,-0.2182
2054.6875,-4.7948,-9.3372,-13.0226,0.1398,0.1220,31.5717,-4.7061,2.0362,-4.3200,-6.0429,-6.6449,3.6095,-2.0815,1.5313,-1.0453,11.2192,-2.0857,2.8057,-2.8819
2058.5938,-9.9274,-10.3996,-17.1319,0.1345,1.8712,30.3884,-3.1757,2.2946,-5.0929,-8.7348,-9.1605,1.1968,-1.7285,2.8815,-3.9157,9.8574,-1.9967,2.2831,-4.4190
2062.5000,-15.0565,-9.8452,-16.7375,0.6747,3.7715,27.6742,0.1257,4.2748,-5.5442,-11.0672,-10.4620,-1.0421,-1.2735,4.4148,-5.8570,6.9860,-1.9197,1.8851,-4.9355
2066.4062,-19.4343,-9.3484,-12.7938,0.5692,4.1718,23.6732,3.9911,6.0096,-6.3787,-13.7257,-10.6045,-3.3328,-1.7815,4.3594,-6.5955,2.7807,-2.7070,0.6943,-4.6620
2070.3125,-21.7046,-10.0168,-7.5095,-1.1507,2.1205,19.7900,6.1649,5.4136,-7.8576,-16.4009,-9.7572,-5.6056,-3.7167,1.7418,-5.8892,-2.0032,-4.5912,-1.8354,-3.8233
2074.2188,-20.5767,-11.5842,-3.2782,-4.5125,-1.9497,17.9995,4.3564,1.6652,-9.5415,-17.8201,-8.1849,-7.3819,-6.5921,-2.8773,-3.8060,-6.2685,-6.9270,-5.3300,-2.6413
2078.1250,-15.8174,-12.7355,-1.6414,-8.4983,-6.3748,19.6014,-2.2464,-4.2940,-10.5437,-16.6958,-6.3194,-8.0716,-9.2167,-7.6676,-1.0000,-9.0427,-8.5350,-8.5706,-1.4243
2082.0312,-8.9277,-12.3155,-2.7635,-11.6424,-9.2113,24.0855,-11.9485,-10.4227,-10.1654,-13.0004,-4.8223,-7.4944,-10.4172,-10.6447,1.2908,-9.9137,-8.4778,-10.2106,-0.6136
2085.9375,-2.9184,-10.4635,-5.6234,-12.9225,-9.4075,28.9847,-20.8937,-14.8559,-8.4942,-8.6043,-4.4963,-6.2124,-9.7893,-10.8929,1.6580,-9.1825,-6.7750,-9.6745,-0.6887
2089.8438,-1.0805,-8.7454,-8.7676,-12.3402,-7.4394,31.0321,-24.8994,-16.8682,-6.5272,-6.6273,-5.9985,-5.3580,-7.9935,-9.0815,-0.7982,-7.6588,-4.5490,-7.6125,-1.9555
2093.7500,-5.2994,-9.1227,-11.1934,-10.8210,-4.9882,28.0376,-21.8832,-16.9230,-5.6736,-9.7156,-9.4649,-5.9960,-6.3835,-6.9504,-5.9050,-6.2448,-3.4360,-5.5714,-4.3474
2097.6562,-14.8759,-12.5038,-12.8643,-9.5475,-3.8590,20.3022,-13.4018,-15.9473,-6.9155,-18.2864,-14.2793,-8.4226,-6.1825,-6.1457,-12.3436,-5.5491,-4.5834,-5.0714,-7.3740
2101.5625,-26.6486,-17.9625,-14.5588,-9.2132,-4.8364,10.5877,-4.1581,-14.5208,-10.1574,-29.9400,-19.1801,-11.8836,-7.7138,-7.1943,-18.1803,-5.7129,-7.8604,-6.6875,-10.2614
2105.4688,-36.4888,-23.2125,-17.1339,-9.6846,-7.2067,2.5881,0.5123,-12.6268,-14.1943,-40.5554,-22.7169,-14.9276,-10.1651,-9.2589,-21.7434,-6.4708,-11.8082,-9.7158,-12.2029
2109.3750,-41.3788,-25.9931,-20.6590,-10.2243,-9.2274,-1.1253,-2.1590,-10.0539,-17.3266,-46.4740,-23.8441,-16.1806,-12.0272,-10.7521,-22.3602,-7.3456,-14.3931,-12.6044,-12.5956
2113.2812,-40.8579,-25.3682,-24.0026,-10.0332,-9.2098,-0.3438,-10.4313,-6.9611,-18.2338,-46.4185,-22.3323,-15.0529,-11.9320,-10.3286,-20.5408,-7.8547,-14.1134,-13.8261,-11.1736
2117.1875,-36.9608,-22.0646,-25.2214,-8.7002,-6.5122,3.1283,-18.7298,-4.0067,-16.5696,-41.9454,-18.7805,-11.9566,-9.3841,-7.6115,-17.5308,-7.6681,-10.7877,-12.6358,-8.0408
2121.0938,-32.7091,-17.7310,-22.6056,-6.3119,-1.8528,7.0583,-20.7562,-1.8779,-12.9616,-36.2031,-14.2452,-7.9605,-4.9776,-3.2793,-14.5402,-6.7119,-5.5785,-9.3065,-3.6462
2125.0000,-30.1464,-13.7821,-15.7818,-3.2725,3.1692,10.3947,-13.2964,-0.6443,-8.5179,-31.8950,-9.7324,-4.1714,-0.0346,1.3879,-12.1326,-5.2155,-0.3030,-4.8306,1.2722
2128.9062,-29.2021,-10.7015,-6.1782,-0.0816,6.9556,13.7239,1.5806,0.4153,-4.2434,-29.8273,-5.8552,-1.2603,4.0601,5.1136,-10.1294,-3.6693,3.4821,-0.3940,5.8025
2132.8125,-28.1013,-8.2078,3.4827,2.7460,8.6248,18.2927,17.3604,2.2279,-0.7521,-28.9318,-2.8211,0.6245,6.4228,7.0334,-8.0312,-2.6582,5.0702,3.0341,9.0644
2136.7188,-24.9823,-5.9740,10.3951,4.6523,8.1978,24.4050,26.5667,4.9663,1.6388,-27.5747,-0.6770,1.6223,6.8707,6.8191,-5.6291,-2.6023,4.6170,4.8592,10.4709
2140.6250,-19.5531,-4.2038,12.8755,5.0857,6.2991,30.4814,24.8620,7.5079,2.6713,-25.0741,0.4259,1.8724,5.7721,4.6520,-3.3703,-3.5231,2.7435,4.8674,9.9354
2144.5312,-13.6067,-3.5873,10.8893,3.7438,3.7018,33.5915,13.3458,7.8883,2.0860,-22.2898,0.1763,1.4138,3.7530,1.1797,-2.2188,-4.9829,0.1202,3.2394,7.8943
2148.4375,-10.0112,-4.7244,5.7039,0.8986,1.0386,31.1892,-2.2497,4.5926,-0.1536,-20.9140,-1.6887,0.3072,1.4710,-2.5613,-3.0856,-6.2630,-2.6923,0.5953,5.1082
2152.3438,-10.8676,-7.5405,-0.9490,-2.4831,-1.2379,22.8985,-14.8669,-2.1699,-3.5604,-22.0789,-5.0606,-1.1835,-0.4859,-5.3852,-6.1830,-6.7017,-5.1763,-2.0643,2.3448
2156.2500,-16.0983,-11.1753,-7.5795,-5.0417,-2.7940,11.1237,-19.8667,-10.1626,-7.0990,-25.3784,-9.2762,-2.5504,-1.6606,-6.3983,-10.7153,-6.0051,-6.8086,-3.6623,0.1206
2160.1562,-23.4317,-14.4078,-13.1349,-5.6738,-3.4381,0.0365,-17.0323,-16.1363,-9.6093,-29.0430,-13.2509,-3.2192,-1.8431,-5.4599,-15.1317,-4.3618,-7.2209,-3.5383,-1.3703
2164.0625,-29.7737,-16.2695,-16.8121,-4.1585,-3.2534,-6.4621,-9.8842,-17.6015,-10.4783,-31.1183,-15.9115,-2.8450,-1.2168,-3.3397,-17.8423,-2.3232,-6.4925,-1.8610,-2.1617
2167.9688,-33.0195,-16.4230,-17.9369,-1.3373,-2.6797,-6.5945,-3.0619,-14.2421,-10.0952,-30.7632,-16.7076,-1.5377,-0.3897,-1.3642,-18.0228,-0.5528,-5.2836,0.3573,-2.3861
2171.8750,-33.0987,-15.1422,-16.2255,1.3172,-2.3614,-1.3624,0.4207,-8.0624,-9.6940,-28.7365,-15.9084,0.1287,-0.1757,-0.6806,-16.0627,0.4059,-4.5722,1.7403,-2.2321
2175.7812,-31.6257,-13.0543,-12.2647,2.5057,-2.7604,6.2212,0.4269,-2.1802,-10.5950,-26.7688,-14.4837,1.3447,-1.1614,-1.5738,-13.3807,0.2639,-5.0647,1.2830,-1.9769
2179.6875,-30.5113,-10.8920,-7.6773,1.7919,-3.7650,12.7280,-0.9987,0.9577,-13.2948,-26.3338,-13.5951,1.4269,-3.2916,-3.2939,-11.6706,-0.9562,-6.6679,-1.0975,-1.9698
2183.5938,-30.5748,-9.3584,-4.5452,-0.2330,-4.6080,15.8057,-1.4726,0.8294,-17.0214,-27.7189,-13.9504,0.1534,-5.7680,-4.5300,-11.9690,-2.8852,-8.4473,-4.5359,-2.4620
2187.5000,-31.1212,-9.0138,-4.2494,-2.3723,-4.2348,14.8713,0.0857,-1.1444,-20.0964,-30.0066,-15.3840,-2.0816,-7.3993,-4.2309,-14.0643,-4.8137,-9.1871,-7.7241,-3.3452
2191.4062,-30.7064,-10.0908,-6.4788,-3.5309,-1.9538,10.8792,2.9586,-2.7127,-20.9257,-31.8811,-16.9304,-4.3867,-7.2496,-2.2282,-16.6133,-5.8382,-8.2159,-9.6137,-4.0277
2195.3125,-28.4576,-12.3177,-9.2349,-3.2636,2.0285,5.5144,5.3351,-2.2622,-19.0074,-32.5954,-17.3943,-5.7549,-5.2132,0.7318,-17.9390,-5.2244,-5.9266,-9.8859,-3.6615
2199.2188,-24.9499,-14.9604,-10.0389,-1.8862,6.5491,0.3291,5.5474,0.2587,-15.3174,-32.3920,-16.1230,-5.5684,-2.1504,3.5244,-17.0729,-2.8922,-3.5952,-8.9500,-1.6991
2203.1250,-21.9899,-17.1833,-7.6390,-0.1707,9.9860,-3.7958,3.0460,3.4271,-11.8151,-32.1366,-13.5185,-3.9796,0.5244,5.3441,-14.4163,0.2639,-2.5867,-7.5559,1.5503
2207.0312,-21.4417,-18.5366,-3.0192,1.1185,11.0437,-6.7321,-1.3105,5.2751,-10.3587,-32.5109,-10.9344,-1.9185,1.5815,6.0881,-11.5815,2.5465,-3.4733,-6.3276,4.8156
2210.9375,-23.8867,-19.1771,1.1151,1.5752,9.3882,-8.8179,-5.6055,4.4470,-11.6691,-33.3977,-9.9389,-0.6402,0.6192,6.2199,-10.4482,2.2058,-5.6601,-5.5005,6.4295
2214.8438,-28.0156,-19.5736,2.1457,1.2574,5.7899,-10.4135,-7.5809,0.9493,-14.9318,-33.8884,-11.3323,-1.0014,-1.7451,6.2968,-11.9718,-1.5394,-7.7591,-4.9466,5.3238
2218.7500,-31.1656,-19.8862,-0.5686,0.5836,1.7265,-11.5516,-5.4814,-3.8371,-18.2291,-32.8726,-14.5108,-2.8798,-4.2254,6.5468,-15.4750,-7.8114,-8.4399,-4.3700,1.8327
2222.6562,-30.7072,-19.5673,-5.0891,0.1256,-1.3108,-11.8854,1.1391,-7.8041,-19.5274,-29.7796,-17.6257,-5.1420,-5.5398,6.7786,-18.9037,-14.2380,-7.1924,-3.4971,-2.2941
2226.5625,-25.4912,-17.6471,-8.0923,0.3741,-2.4461,-10.9857,10.8686,-9.0698,-17.6731,-24.9924,-18.5282,-6.2641,-5.0368,6.6098,-19.9471,-18.0311,-4.5436,-2.1782,-4.7984
2230.4688,-16.5697,-13.6177,-7.0956,1.5183,-1.7103,-8.8163,20.4884,-6.8139,-12.9025,-19.7182,-15.9915,-5.2788,-2.9685,5.7665,-17.3809,-17.4465,-1.6813,-0.4285,-4.2430
2234.3750,-6.8164,-8.2408,-2.1721,3.2880,0.0790,-6.0454,25.9033,-1.6754,-6.6676,-15.4426,-10.4826,-2.4560,-0.3215,4.2075,-11.8256,-12.7806,0.1878,1.5351,-0.9284
2238.2812,0.3635,-3.4984,4.0583,4.9524,1.7348,-3.8882,23.8356,4.4282,-0.9221,-13.2819,-3.9807,0.7632,1.6683,2.0317,-5.4553,-6.2752,0.3299,3.2780,3.2267
2242.1875,2.6290,-1.4839,8.1673,5.5525,2.2143,-3.4631,13.6072,8.9959,2.7631,-13.5136,1.0909,2.5903,2.0696,-0.6680,-0.8180,-0.9367,-1.3755,4.2357,5.8057
2246.0938,-0.1231,-2.8930,8.1741,4.3353,1.0368,-5.0217,-1.9806,9.9077,3.8568,-15.4265,3.2063,1.9744,0.6473,-3.8121,0.5359,1.0505,-4.5494,3.9568,5.3252
2250.0000,-5.5648,-6.2390,4.7669,1.2014,-1.5263,-7.5962,-17.3825,6.3009,3.0277,-17.5127,2.5506,-0.7499,-2.0437,-7.1696,-1.1727,-0.6007,-8.4652,2.4137,2.0804
2253.9062,-9.8938,-8.5283,0.7040,-3.0965,-4.5484,-9.4066,-26.5473,-0.9943,1.7541,-17.9697,0.8205,-4.0726,-4.8808,-10.1828,-4.1865,-4.3071,-12.1367,0.1779,-2.0991
2257.8125,-9.6267,-7.1054,-1.1007,-7.1670,-6.8055,-8.8681,-25.6490,-9.6618,1.5615,-15.4230,0.1458,-6.2280,-6.6243,-11.9946,-6.2638,-7.6386,-14.4385,-1.7249,-4.9796
2261.7188,-3.4644,-1.4622,0.5619,-9.5443,-7.2760,-5.5803,-14.9146,-16.7067,3.2272,-9.6488,1.7973,-6.2141,-6.4344,-11.7509,-5.9053,-8.6590,-14.4095,-2.2790,-5.1929
2265.6250,6.7176,6.2702,4.6123,-9.3282,-5.5875,-0.6282,1.4242,-19.5701,6.3367,-1.9409,5.4533,-4.2660,-4.2494,-9.0335,-3.0762,-6.7974,-11.7140,-1.0300,-2.8803
2269.5312,16.4446,12.5477,8.6038,-6.5738,-2.2085,4.0372,17.0326,-17.1287,9.4401,5.2196,9.4304,-1.5459,-0.8482,-4.1588,0.9103,-2.8631,-6.9975,1.6063,0.5842
2273.4375,20.7593,14.5553,10.3410,-2.2512,1.7278,6.7368,26.2431,-10.1835,10.7795,9.2408,11.6946,0.6514,2.4670,1.8503,4.1952,1.6106,-1.7976,4.4892,3.4877
2277.3438,16.9566,11.8224,9.0418,2.1724,4.9122,6.9551,26.3394,-1.2190,9.2507,8.8234,11.0258,1.6022,4.4581,7.6116,5.3730,5.1614,2.0964,6.2960,4.6701
2281.2500,6.4624,6.2819,5.4128,5.3070,6.4425,5.4142,18.3704,6.5295,5.0946,4.9140,7.6791,1.3499,4.5430,11.8723,4.1720,6.8813,3.5500,6.1663,3.9336
2285.1562,-5.3844,0.8691,0.8887,6.3293,6.2242,3.3715,6.3276,10.3898,-0.0831,0.5138,3.2305,0.4052,3.0918,13.9169,1.5313,6.4952,2.7135,4.1020,1.8954
2289.0625,-11.8261,-2.2508,-3.1957,5.2391,4.9921,1.7415,-4.7454,9.4395,-4.0213,-0.7617,-0.2248,-0.6915,1.2552,13.7576,-0.8880,4.2556,0.9445,0.9343,-0.4445
2292.9688,-8.2755,-2.6109,-5.9201,2.8395,3.9394,0.7189,-10.8146,5.0157,-4.8919,3.3167,-1.0436,-1.5815,0.3966,12.0823,-1.4832,0.8849,0.0267,-2.0852,-2.0993
2296.8750,5.0011,-1.0806,-6.6304,0.4565,4.1318,0.1133,-10.3162,0.1962,-2.1878,12.1976,1.3071,-2.0032,1.4128,10.0018,0.5747,-2.4380,1.1571,-3.8322,-2.3277
2300.7812,22.7688,1.2299,-4.8341,-0.5558,5.9809,-0.0158,-4.5815,-1.6567,3.0605,22.6916,6.1416,-1.6503,4.2983,8.6558,4.9808,-4.2673,4.3237,-3.7450,-0.7836
2304.6875,37.5138,3.7915,-0.5143,0.5938,9.0233,0.9012,2.8461,1.3167,8.8331,30.6891,11.9366,-0.2489,8.1695,8.7696,10.4251,-3.4202,8.4274,-1.9985,2.3246
2308.5938,43.4668,6.6055,5.3298,3.6714,12.1090,3.4882,7.7714,8.2828,13.0964,33.4791,16.9557,2.1226,11.7132,10.3180,15.1478,0.3181,12.0006,0.5953,6.1306
2312.5000,39.6064,9.5228,10.5541,7.3601,13.9205,7.5688,7.2637,15.8831,14.6582,31.2366,19.8450,4.7654,13.8022,12.4849,17.6870,5.7871,14.0068,2.8893,9.2632
2316.4062,29.8446,11.7298,12.6366,9.7659,13.5902,11.6812,1.1662,19.8614,13.4746,26.7123,20.0145,6.4980,13.9508,14.0260,17.4811,10.7960,14.2207,3.8071,10.3698
2320.3125,20.3242,12.0007,10.1109,9.3452,11.1280,13.5495,-7.5789,17.3854,10.3480,23.3001,17.7232,6.2712,12.4084,13.9220,15.0444,13.2215,13.0432,2.7403,8.8350
2324.2188,15.5635,9.5869,3.7446,5.7992,7.4424,11.3888,-14.1731,8.7737,6.3095,22.7349,13.8774,3.9098,9.8990,11.9833,11.6241,12.2803,11.0129,-0.1927,5.2578
2328.1250,15.8954,4.9939,-3.5139,0.3875,3.9187,5.2111,-14.3838,-2.4517,2.1107,23.9532,9.6277,0.4228,7.2035,9.0149,8.5248,9.1238,8.4390,-4.1469,1.2835
2332.0312,17.7741,-0.0716,-8.0440,-4.6193,1.7472,-2.8434,-6.9828,-11.3465,-1.9037,23.9015,5.9171,-2.4524,4.8256,6.3786,6.4671,6.2326,5.4019,-7.8606,-1.2389
2335.9375,16.6293,-3.6491,-7.6922,-7.1157,1.3447,-9.5215,5.2102,-14.1977,-5.5824,19.7722,3.1629,-3.2733,2.8958,5.1798,5.3343,5.8607,2.0327,-10.1797,-1.3214
2339.8438,10.2924,-4.7054,-3.1548,-6.3032,2.1906,-12.2618,16.4836,-10.5051,-8.6810,11.1669,1.2135,-1.8398,1.3073,5.5936,4.4250,8.4818,-1.2384,-10.5639,0.5555
2343.7500,0.6891,-3.6906,2.3796,-3.1016,3.1870,-10.6434,21.1663,-3.1004,-10.7827,0.7019,-0.4109,0.5993,-0.0505,6.7951,3.0224,12.2968,-3.7164,-9.3156,2.7282
2347.6562,-7.3006,-2.0934,5.1721,0.4408,3.3438,-6.5269,16.7576,3.6556,-11.5019,-7.3956,-2.1321,2.0787,-1.1225,7.5614,0.9070,14.2304,-4.7519,-7.3930,3.3914
2351.5625,-9.0089,-1.3682,3.2253,2.3789,2.3845,-2.8022,5.4037,6.4697,-10.8025,-9.8074,-4.0048,1.1552,-1.6802,7.1436,-1.4993,11.8650,-4.0889,-5.8962,1.7388
2355.4688,-3.0436,-2.0285,-2.5502,1.9806,0.9015,-1.5742,-7.2487,4.9108,-9.1484,-6.1094,-5.6540,-2.1382,-1.4588,5.8017,-3.4123,5.0948,-1.9864,-5.4976,-1.5325
2359.3750,7.7614,-3.4852,-9.0078,0.0419,-0.0330,-2.9605,-15.2109,1.3530,-7.3165,1.0704,-6.4786,-6.2377,-0.3370,4.6265,-4.1640,-3.5893,0.9556,-6.1155,-4.6731
2363.2812,18.0774,-4.5930,-12.7539,-1.7343,0.4564,-5.2195,-15.4338,-0.7761,-5.9465,7.7911,-5.9795,-8.9286,1.5608,4.7840,-3.5555,-10.4135,4.1114,-6.9873,-5.9649
2367.1875,23.3152,-4.3814,-12.1077,-1.8347,2.5293,-6.0284,-9.2142,0.7584,-5.1113,11.2585,-4.0170,-8.6022,3.9022,6.7279,-1.8835,-12.4323,7.0469,-7.0750,-4.7158
2371.0938,22.2713,-2.4489,-7.8020,0.2118,5.5975,-4.0159,-0.9163,5.6869,-4.2117,11.3905,-0.8720,-5.1244,6.2953,9.9323,0.3188,-9.1307,9.5192,-5.5747,-1.5412
2375.0000,17.5798,1.0865,-2.1316,3.7194,8.7659,0.4152,5.0629,11.5879,-2.3095,10.5277,2.8818,0.1645,8.4509,13.2985,2.6004,-2.5592,11.3365,-2.2846,2.1743
2378.9062,13.8324,5.7980,2.7030,7.4315,11.4075,5.3860,7.0258,15.5340,1.2697,11.5855,6.5878,5.2415,10.2552,15.8857,4.7499,4.0012,12.2635,2.3112,5.1929
2382.8125,14.6719,11.0095,5.8680,10.3292,13.4518,8.6398,6.5999,15.8951,6.4189,15.9486,9.6823,8.4576,11.7120,17.4032,6.7242,7.9315,12.0883,7.2385,7.0719
2386.7188,20.6752,15.7108,8.0072,12.1162,15.1995,8.7015,6.9402,13.1891,12.1445,22.4946,11.7904,9.2520,12.8039,18.1240,8.4669,8.5378,10.7986,11.3998,8.1577
2390.6250,29.1898,18.6326,10.2969,13.1352,16.8383,5.4723,9.9008,9.5784,16.9666,28.3093,12.7619,8.2037,13.3825,18.3573,9.7911,6.9992,8.6914,13.9656,9.0376
2394.5312,36.0132,18.7215,13.2573,13.8914,18.0645,0.0941,14.3006,7.4682,19.6199,30.5288,12.6805,6.5158,13.1793,17.9612,10.4314,5.2145,6.2866,14.6542,9.9273
2398.4375,37.7655,15.8523,16.1963,14.5836,18.1292,-5.6535,16.6346,8.1209,19.6727,28.0712,11.8532,5.3144,11.9532,16.3279,10.2215,4.4334,4.0725,13.8063,10.4577
2402.3438,33.5833,11.2403,17.6304,14.9597,16.3057,-10.0208,13.8106,11.0505,17.7273,22.2115,10.7518,5.1567,9.6893,12.8757,9.2625,4.5916,2.2669,12.2169,9.9882
2406.2500,25.3578,7.0722,16.3222,14.5344,12.4537,-11.7686,5.9589,14.4123,15.1046,15.7757,9.8959,5.9399,6.7257,7.6683,7.9658,4.6946,0.7812,10.7818,8.1747
2410.1562,16.6321,5.4034,12.2059,12.9624,7.2786,-10.4321,-2.8236,16.0512,13.2021,11.5861,9.7048,7.1576,3.7171,1.6691,6.9376,3.8537,-0.5666,10.1089,5.3585
2414.0625,10.9113,6.9709,6.6109,10.3073,2.1021,-6.4257,-6.5852,14.6145,12.8732,11.1329,10.3839,8.2865,1.4406,-3.5840,6.7661,2.1723,-1.7416,10.2862,2.5002
2417.9688,10.2265,10.7427,1.6807,7.0721,-1.7105,-0.9843,-1.2832,10.2152,14.1335,14.1368,11.8879,9.0796,0.5302,-6.6770,7.7987,0.8397,-2.3274,10.9304,0.7072
2421.8750,14.4738,14.5628,-0.6464,4.0165,-3.3107,4.1397,12.2566,4.3961,16.2851,19.0363,13.9538,9.6292,1.2553,-6.9380,9.9851,1.3679,-1.6729,11.4843,0.6645
2425.7812,21.6145,16.4781,0.4559,1.8752,-2.6238,7.2460,28.2542,-0.5632,18.3266,23.9253,16.1605,10.2060,3.4200,-4.6295,12.8343,4.4856,0.6884,11.5696,2.3005
2429.6875,28.5314,15.8426,4.3255,1.0805,-0.2452,7.3586,39.0057,-2.7138,19.3961,27.3685,17.9866,10.9893,6.3985,-0.7017,15.5196,9.4259,4.5829,11.1654,4.8422
2433.5938,32.2077,13.4711,9.0880,1.5673,2.8627,4.6724,39.2223,-1.4304,19.0428,28.7713,18.8857,11.8625,9.2909,3.6377,17.1349,14.0978,9.0073,10.5033,7.1841
2437.5000,30.8527,10.8261,12.4349,2.7316,5.6744,0.4821,28.9824,2.1570,17.2703,28.3092,18.4211,12.4130,11.1691,7.2639,17.0450,16.0957,12.3931,9.7834,8.3619
2441.4062,24.5886,8.9193,12.5812,3.6152,7.3245,-3.4374,13.4867,5.6085,14.4254,26.6066,16.4547,12.1596,11.3782,9.3174,15.1887,14.0064,13.2697,8.9525,7.9258
2445.3125,15.3919,7.7491,9.0322,3.3181,7.2967,-5.6990,-0.1389,6.4015,11.0449,24.3550,13.2971,10.8809,9.8140,9.3385,12.1580,8.2858,11.0297,7.7406,6.0901
2449.2188,6.2409,6.6102,2.8385,1.4921,5.6117,-5.9501,-6.9032,3.3657,7.7218,21.9961,9.6801,8.8257,7.0470,7.4447,8.9553,1.1884,6.3827,5.9429,3.6263
2453.1250,-0.2004,4.9040,-3.8167,-1.3611,2.9347,-4.9485,-6.3603,-2.5001,4.9827,19.5635,6.4861,6.6325,4.1645,4.4485,6.5055,-4.2752,1.1907,3.7170,1.5305
2457.0312,-2.7279,2.7274,-8.5778,-4.0384,0.4340,-4.0548,-2.0788,-8.4188,3.1560,16.7629,4.3296,4.9674,2.3163,1.6869,5.1778,-5.8570,-2.3304,1.6296,0.5704
2460.9375,-1.9677,0.7680,-10.0123,-5.2468,-0.6778,-4.4624,1.1646,-11.3450,2.2605,13.2999,3.2356,4.0997,2.1371,0.4553,4.6108,-3.2779,-2.6943,0.3617,0.8971
2464.8438,0.2242,-0.3469,-8.2856,-4.3690,0.2464,-6.6041,0.4485,-9.7657,1.9912,9.2991,2.6485,3.7185,3.3677,1.2763,3.9786,1.5603,0.0590,0.2565,1.9371
2468.7500,1.9439,-0.6475,-5.0156,-1.9036,2.8974,-10.0256,-3.8990,-4.6768,1.8650,5.5216,1.8198,3.1609,4.9564,3.4959,2.5623,5.5540,4.3421,1.0446,2.6911
2472.6562,2.2622,-0.8314,-2.3345,0.7609,6.1455,-13.7117,-9.1561,0.9462,1.4930,3.1334,0.3584,1.9378,5.6632,5.5998,0.2792,6.1099,7.8664,1.9830,2.3460
2476.5625,1.4732,-1.6642,-1.6651,2.1602,8.6917,-16.6070,-12.3560,3.9270,0.8333,3.0583,-1.4180,0.2013,4.8492,6.1742,-2.1757,2.6676,8.9255,2.3429,0.8651
2480.4688,0.5130,-3.2638,-2.9319,1.6685,9.8369,-18.0205,-12.0922,2.8239,0.2554,5.2906,-2.5971,-1.2111,2.9444,4.9061,-3.6883,-2.8736,7.3640,1.9173,-0.8467
2484.3750,0.0689,-4.8601,-4.6981,-0.0913,9.8437,-17.7440,-8.8902,-1.2206,0.3403,8.6789,-2.2202,-1.2558,1.2306,2.8828,-3.3826,-7.1639,4.6084,1.1773,-1.4035
2488.2812,0.0825,-5.2433,-5.1532,-1.6395,9.6173,-15.9309,-4.2592,-5.2771,1.5127,11.4376,0.0653,0.5851,1.0064,1.8741,-1.1795,-7.3529,2.6906,0.9462,0.1754
2492.1875,-0.0161,-3.5836,-3.3282,-1.6032,9.9229,-12.9168,0.5584,-6.5576,3.7224,12.1400,3.6735,3.8101,2.6436,3.0211,2.0769,-2.8608,2.8573,1.8066,3.6902
2496.0938,-0.6302,-0.0363,0.2451,0.3715,10.7142,-9.1462,5.1388,-4.2115,6.3798,10.5452,7.2990,7.0175,5.1823,5.8508,5.0010,4.1252,4.6740,3.6487,7.6479
2500.0000,-1.5426,4.2681,3.8611,3.3612,11.0883,-5.2294,9.5023,0.1820,8.5960,7.6585,9.5700,8.6256,6.8011,8.3872,6.3299,9.8076,6.2527,5.6781,9.9857
2503.9062,-2.1536,7.8025,5.7395,5.7283,9.9307,-2.0033,13.4032,3.7204,9.5942,4.9385,9.7422,7.7729,5.9187,8.3713,5.5043,10.9556,5.4933,6.8786,9.2527
2507.8125,-2.2281,9.3872,5.1731,6.1357,6.7942,-0.4173,16.0667,4.1225,9.0609,3.2008,8.0312,4.8347,2.2304,4.7923,2.8795,6.7961,1.5271,6.6227,5.5270
2511.7188,-2.3843,8.6744,2.9727,4.3561,2.3676,-1.1675,16.6402,1.2233,7.2645,2.0434,5.4192,1.2277,-3.0163,-1.3399,-0.4963,-0.5498,-4.6187,5.0309,0.4589
2515.6250,-3.5926,6.2017,0.9287,1.3830,-1.8219,-4.2033,14.9210,-2.9313,4.9154,0.2799,3.1023,-1.3748,-7.7072,-7.5361,-3.3716,-7.3592,-10.5948,2.8773,-3.6262
2519.5312,-5.7027,3.1216,0.6553,-1.1833,-4.2752,-8.4085,11.6565,-5.4019,2.8807,-2.8763,1.9255,-1.9241,-10.0678,-11.3114,-4.7922,-10.5084,-14.1460,1.1412,-5.0246
2523.4375,-5.9919,0.8037,2.5792,-2.0481,-4.3586,-11.7681,8.1040,-4.1899,1.9003,-6.7491,2.1059,-0.4451,-9.5996,-11.5775,-4.4051,-9.1974,-14.3876,0.5134,-3.5461
2527.3438,0.8534,0.4283,5.7138,-0.8697,-2.5608,-12.1213,5.2104,0.5770,2.3898,-9.1325,3.3153,2.1626,-7.1583,-9.0116,-2.4863,-5.1456,-12.0823,1.1423,-0.4664
2531.2500,20.5553,2.5875,8.3230,1.6946,-0.0596,-8.2437,3.1240,6.7962,4.3351,-7.4431,4.9758,4.7644,-4.1977,-5.2558,0.2576,-1.2332,-8.8058,2.7001,2.3701
2535.1562,55.5574,6.9557,9.0047,4.4745,2.0301,-0.7024,1.4531,11.6930,7.2632,-0.4319,6.5472,6.6078,-1.7729,-1.6569,3.0042,0.4296,-5.7070,4.6373,3.6711
2539.0625,101.8885,12.2014,7.4790,6.4416,3.1892,8.0891,0.0158,13.4038,10.3106,10.6788,7.6740,7.5417,-0.0222,1.4642,5.1227,-0.2974,-2.8444,6.4241,3.3167
2542.9688,148.8532,16.3460,4.6171,7.1440,3.5157,14.8335,-0.6466,11.8857,12.4409,22.4760,8.2012,7.7911,1.5602,4.5230,6.3714,-1.8388,0.4144,7.6622,2.1541
2546.8750,182.5040,17.5700,1.7699,6.7459,3.3672,16.9657,0.4554,8.6906,12.8104,31.0043,8.1430,7.5632,3.3681,7.7343,6.9256,-2.3012,4.3142,8.0966,1.2226
2550.7812,191.6211,15.1394,-0.0937,5.7537,2.9994,14.0798,3.8258,5.8582,11.1630,33.8280,7.6610,6.8397,5.1053,10.4269,7.2276,-0.9280,7.9212,7.6200,1.0155
2554.6875,173.1474,9.9107,-0.8643,4.6596,2.4769,8.2953,8.6390,4.6642,8.0338,31.2550,7.0290,5.5102,5.8818,11.2801,7.7250,1.4356,9.3918,6.3160,1.2734
2558.5938,133.9526,4.0167,-1.1330,3.7025,1.8130,3.2037,12.7574,4.9604,4.5828,25.9749,6.5340,3.6894,4.9215,9.3525,8.6159,3.1433,7.2362,4.4878,1.3604
2562.5000,87.6653,-0.2047,-1.6054,2.8234,1.0764,1.8602,13.7552,5.4256,2.0669,21.3513,6.3190,1.8968,2.3118,5.0560,9.7315,3.1488,1.6671,2.5854,0.8421
2566.4062,48.1192,-1.4725,-2.5642,1.7793,0.2821,4.9260,10.3216,4.4947,1.2051,19.4341,6.2607,0.8732,-0.8309,0.1977,10.6234,1.9213,-5.0592,1.0155,-0.2051
2570.3125,22.9873,-0.2709,-3.7592,0.3273,-0.8297,10.0903,3.1054,1.3785,1.8048,19.9053,6.0001,1.1115,-2.9703,-3.0843,10.8161,1.1720,-9.7316,-0.0680,-1.3494
2574.2188,11.1071,1.4464,-4.7387,-1.5992,-2.8163,13.2249,-5.5365,-3.4157,2.8984,20.5645,5.1589,2.4353,-3.1280,-3.7670,10.0932,2.5743,-10.0753,-0.8362,-2.2223
2578.1250,4.8039,1.4151,-5.2937,-3.7868,-6.1570,10.7133,-12.6606,-8.3246,3.3351,18.9961,3.6286,3.9725,-1.5231,-2.6705,8.6578,6.4045,-6.1782,-1.6385,-2.8105
2582.0312,-4.4640,-1.5804,-5.6244,-5.7567,-10.6537,1.6494,-15.9834,-11.5545,2.4779,14.3406,1.7332,4.6144,0.5961,-1.8540,7.0743,11.0971,-0.4438,-2.7140,-3.3750
2585.9375,-20.7144,-6.9220,-6.0853,-6.9155,-15.0914,-11.3854,-14.5924,-12.0004,0.5751,8.0466,0.1162,3.6978,1.8158,-3.0540,6.0111,14.0741,3.9314,-3.9589,-4.0969
2589.8438,-41.4976,-12.3871,-6.7296,-6.8004,-17.5809,-23.4679,-8.9920,-9.7477,-1.4218,3.1220,-0.6142,1.4592,1.5007,-6.2958,5.9149,13.3268,4.9351,-4.9306,-4.7864
2593.7500,-60.2431,-15.2616,-7.0638,-5.3166,-16.5441,-29.7985,-0.8026,-5.9163,-2.4695,2.3242,-0.2734,-1.0641,0.1584,-9.7234,6.7842,8.7196,2.8483,-5.1181,-4.9358
2597.6562,-70.9827,-13.7436,-6.2822,-2.8424,-11.7667,-28.1212,7.5786,-2.0051,-2.0763,6.3922,0.7433,-2.6507,-0.9985,-10.8241,8.1646,2.1789,-0.2026,-4.3131,-4.0929
2601.5625,-72.1946,-7.9184,-3.8788,-0.1300,-4.7750,-19.7874,13.4035,0.8238,-0.5755,13.4173,1.6625,-2.6411,-0.9398,-8.1939,9.3742,-3.3388,-1.8460,-2.8316,-2.2535
2605.4688,-67.3810,0.1750,-0.2019,1.9632,1.8259,-8.9484,14.3692,2.0985,1.1193,19.7854,1.7895,-1.3254,0.4940,-2.5847,9.8505,-5.4414,-1.0482,-1.4159,0.0597
2609.3750,-62.3710,7.4225,3.5057,2.7942,5.7195,-0.4220,9.7990,1.8980,2.0902,22.1807,0.9407,0.2787,2.5649,3.5175,9.4389,-3.5028,1.3923,-0.8445,2.1122
2613.2812,-61.5190,11.0525,5.7171,2.1683,6.1064,2.5566,1.6106,0.4594,1.9464,19.4804,-0.4244,1.1072,4.2346,7.4790,8.4707,1.1727,3.6709,-1.4681,3.4327
2617.1875,-65.4789,9.9333,5.5568,0.4047,4.0187,-0.4436,-5.8772,-2.0597,1.0030,13.4015,-1.4558,0.7362,4.9114,8.1507,7.5826,6.2051,4.4124,-2.9491,4.0871
2621.0938,-71.8339,5.1193,3.4581,-1.7676,1.5492,-7.3051,-7.7932,-5.4298,0.0453,7.4861,-1.3913,-0.3731,4.8127,6.4278,7.3772,9.4201,3.6400,-4.3714,4.5574
2625.0000,-77.6833,-0.6632,1.0581,-3.4418,0.5395,-14.7118,-1.5586,-8.9620,-0.1321,5.0127,0.0307,-1.2139,4.7259,4.4156,8.1117,9.8193,2.6299,-4.6868,5.3400
2628.9062,-81.9544,-4.4012,0.3036,-3.8409,1.5788,-19.7253,10.9733,-11.3385,0.8602,7.0827,2.4592,-0.9140,5.3856,3.8612,9.5865,7.7963,2.8526,-3.2759,6.5804
2632.8125,-85.6553,-4.3941,2.2524,-2.6360,3.8763,-20.8149,23.7781,-11.0374,2.8257,12.0257,5.1443,0.6971,6.9206,4.9760,11.2788,4.6430,4.8325,-0.3332,7.9961
2636.7188,-90.0707,-1.2278,6.2857,-0.1765,5.9351,-18.0445,29.6808,-7.2802,5.0530,16.4507,7.3019,2.9860,8.7227,6.4212,12.6143,1.7558,7.7366,3.1306,9.0878
2640.6250,-94.6073,2.4602,10.2486,2.5071,6.4580,-12.6279,24.5949,-0.9135,6.5592,17.2535,8.3969,4.9111,9.7766,6.3649,13.1968,0.0121,9.9186,5.6991,9.4227
2644.5312,-96.2918,3.3918,11.5128,4.0330,4.8950,-6.2755,10.3314,5.5168,6.4207,13.3350,8.2251,5.6362,9.2049,3.7981,12.8735,-0.4168,9.9634,6.2024,8.7750
2648.4375,-91.5908,-0.4642,8.4257,3.2836,1.4341,-0.6462,-6.0362,8.8213,4.1420,6.0372,6.8521,4.9791,6.7134,-0.8028,11.6669,0.1512,7.4980,4.3165,7.0945
2652.3438,-79.3084,-8.5525,1.3673,0.0524,-3.3234,3.0204,-16.1309,6.9093,-0.0031,-1.8205,4.5646,3.4656,2.7421,-5.8372,9.7097,1.2983,3.2887,0.8194,4.4580
2656.2500,-62.3195,-17.7240,-7.1748,-4.6543,-8.6258,4.1562,-15.1943,0.1773,-4.8081,-7.5478,1.9178,2.0212,-1.6879,-9.6098,7.2958,2.7998,-1.3149,-2.6529,1.1494
2660.1562,-46.6172,-23.6432,-13.6085,-8.9352,-13.6199,3.0113,-4.8468,-8.4288,-8.3471,-9.7893,-0.2059,1.5276,-5.3307,-11.2792,4.9965,4.6708,-5.1266,-4.2808,-2.1838
2664.0625,-38.0892,-22.9247,-14.8637,-10.8715,-17.3492,0.5912,8.0999,-14.8845,-8.6594,-8.7326,-0.7228,2.4789,-7.1487,-11.1389,3.6494,6.9823,-7.5827,-2.8864,-4.5330
2667.9688,-39.1339,-14.9102,-9.8670,-9.5352,-18.9520,-1.7278,15.9827,-16.2956,-4.7253,-5.5041,1.2268,4.8469,-6.7054,-10.1703,4.0497,9.5969,-8.7377,1.4753,-4.8812
2671.8750,-47.4082,-2.1773,-0.1437,-5.5356,-18.0787,-2.8349,14.9267,-12.5028,2.7417,-1.4339,5.6906,8.1278,-4.3786,-9.2799,6.4054,12.0162,-8.9546,7.4656,-2.8113
2675.7812,-57.5139,10.4856,10.7751,-0.7286,-15.2333,-2.4614,6.8187,-6.0672,11.2339,2.2639,11.5288,11.4982,-1.2590,-8.7493,9.8983,13.4693,-8.5854,13.0177,1.0331
2679.6875,-64.3744,18.1685,18.8944,2.7994,-11.6647,-1.3126,-2.4680,-0.6412,17.3719,4.4230,16.6298,14.0397,1.3074,-8.1798,12.7730,13.2330,-7.8257,16.2607,5.0647
2683.5938,-65.9425,18.0353,21.5358,3.8889,-8.7298,-0.5811,-7.1474,1.2293,18.4981,3.9522,18.7927,15.0187,2.3767,-6.8571,13.1099,11.0258,-6.7408,16.3709,7.5315
2687.5000,-63.5030,10.6384,18.4968,2.9030,-7.0930,-1.0817,-5.0408,-0.5238,14.1313,0.3339,16.8869,14.1696,1.9187,-4.2423,9.9554,7.2439,-5.3547,13.9149,7.5382
2691.4062,-59.6758,-0.2558,12.0089,1.3888,-6.3429,-2.5598,1.6827,-3.7598,6.4010,-5.6264,11.6059,11.8490,0.8377,-0.3193,4.1082,2.8694,-3.7239,10.4966,5.6177
2695.3125,-55.8853,-9.3142,5.5045,1.0173,-5.3624,-3.6887,8.6715,-5.7471,-0.9296,-11.5386,5.2604,8.9194,0.4085,4.3169,-2.0579,-0.9407,-1.9905,7.8811,3.3932
2699.2188,-51.3107,-12.1006,1.8272,2.4798,-3.2348,-2.8515,12.5893,-4.9771,-4.4260,-14.2862,0.5986,6.3429,1.4193,8.6104,-5.8010,-3.3745,-0.4336,7.0558,2.4833
2703.1250,-44.0474,-7.2715,1.8349,5.0398,-0.0379,0.7371,12.9788,-1.9765,-2.8609,-11.8314,-0.7229,4.6682,3.5630,11.3599,-5.6031,-4.2961,0.5124,7.7348,3.3669
2707.0312,-33.4236,2.5845,4.1433,7.0107,3.0758,6.2950,11.6703,1.3143,2.0971,-4.8869,0.9018,3.7231,5.5107,11.6180,-2.1514,-4.1890,0.3414,8.5822,5.0044
2710.9375,-21.5030,12.0319,6.1177,6.8333,4.5960,11.6523,10.5452,3.0260,6.8374,2.8573,3.2707,2.7448,5.6735,9.0626,1.9782,-3.7559,-1.3202,8.0290,5.5060
2714.8438,-12.4405,15.4457,5.5018,4.0553,3.6506,14.3020,9.6280,2.6114,7.8803,6.4644,3.7111,0.9082,3.1881,4.1841,3.8116,-3.4485,-4.4790,5.2242,3.4026
2718.7500,-10.0172,9.9841,1.7085,-0.3939,0.5565,12.7153,7.0630,1.0322,3.8631,2.5925,0.7052,-2.0783,-1.5129,-1.8450,1.7252,-3.2502,-8.6686,0.5764,-1.3562
2722.6562,-15.0814,-2.7318,-3.9711,-4.7666,-3.4537,7.1460,0.9448,-0.1273,-3.7282,-8.3269,-5.2070,-5.7138,-6.9161,-7.6152,-3.6524,-2.8578,-13.0716,-4.4288,-7.3511
2726.5625,-24.7193,-17.2858,-9.2898,-7.5048,-7.0759,-0.5159,-8.5121,0.1155,-11.4812,-22.0825,-11.7931,-8.9767,-11.2705,-12.0345,-9.9373,-2.1151,-16.8080,-8.0325,-12.5821
2730.4688,-33.7422,-27.2650,-12.4396,-8.0536,-9.6784,-7.6834,-18.2644,1.4753,-16.0313,-32.9703,-16.4831,-10.9478,-13.4924,-14.6831,-14.5049,-1.3455,-19.2104,-9.1607,-15.6345
2734.3750,-37.4646,-28.6770,-13.0049,-7.0155,-11.4030,-12.1984,-23.8934,2.7035,-15.8771,-36.9484,-17.8191,-11.3529,-13.5622,-15.7614,-15.9888,-1.2866,-19.9282,-7.9790,-16.3195
2738.2812,-33.9556,-22.0010,-11.9170,-5.6227,-12.6288,-13.0426,-22.3082,2.5585,-11.9895,-33.6417,-16.0953,-10.6517,-12.2425,-15.6969,-14.8102,-2.6081,-18.8672,-5.7251,-15.4350
2742.1875,-24.4687,-11.6462,-10.5634,-4.9166,-13.3314,-10.4092,-13.8462,0.7166,-6.9679,-26.0006,-12.8857,-9.6370,-10.4259,-14.7194,-12.5239,-5.3287,-16.1183,-3.9348,-13.9675
2746.0938,-12.1158,-3.1697,-9.7641,-5.1493,-12.9329,-5.3539,-2.3140,-1.9787,-3.3946,-18.0545,-9.9137,-8.8704,-8.6287,-12.7406,-10.5945,-8.5689,-12.0133,-3.5406,-12.4251
2750.0000,0.0397,-0.0149,-9.3481,-5.7286,-10.8022,0.6043,7.0917,-4.0092,-2.4571,-12.4496,-8.0921,-8.3864,-6.9462,-9.6238,-9.5371,-10.8939,-7.2713,-4.3911,-10.7856
2753.9062,10.1867,-1.8090,-8.5575,-5.6731,-6.9821,5.7629,10.6440,-4.0194,-3.6122,-9.4210,-7.3243,-7.8672,-5.3679,-5.6062,-8.9608,-11.1019,-3.0127,-5.4671,-8.9756
2757.8125,17.8153,-5.1887,-6.8737,-4.2560,-2.4844,8.5273,7.9519,-1.4640,-5.3160,-7.6220,-7.0223,-7.1046,-4.0669,-1.4823,-8.2920,-8.9823,-0.4419,-5.6315,-7.3345
2761.7188,23.1304,-6.4281,-4.5686,-1.4628,1.1878,7.9238,1.7891,3.2200,-6.1727,-5.8070,-6.7778,-6.3308,-3.3531,1.6765,-7.4475,-5.5323,-0.2464,-4.4196,-6.5616
2765.6250,26.6735,-3.9902,-2.5510,1.9638,3.0072,4.2694,-3.8125,8.8541,-5.6979,-3.8584,-6.6052,-6.1130,-3.3295,3.1222,-6.8526,-2.4439,-2.0729,-2.3648,-7.1287
2769.5312,29.4802,0.7041,-1.6541,4.8663,3.1616,-0.4547,-5.8907,13.9218,-4.2930,-2.3890,-6.6251,-6.8726,-3.6016,2.9180,-6.8290,-1.1397,-4.5232,-0.6693,-8.6665
2773.4375,33.3321,4.6535,-1.9558,6.1923,2.9635,-3.0692,-3.9040,16.9495,-2.6390,-1.4797,-6.5843,-8.4181,-3.3905,1.9210,-6.9676,-1.9455,-5.8341,-0.4513,-9.9286
2777.3438,40.3870,5.6455,-2.6804,5.4329,3.9211,-0.6182,0.5022,16.8455,-1.0833,0.1115,-5.7538,-9.9054,-2.0642,1.2122,-6.1422,-3.9145,-4.9222,-2.0610,-9.5108
2781.2500,51.9978,3.8575,-2.7628,2.7940,6.5917,7.8692,4.8813,13.2329,0.5145,4.3479,-3.4012,-10.3172,0.2771,1.3421,-3.2857,-5.4153,-2.1345,-4.8913,-6.8785
2785.1562,67.4129,1.6097,-1.6315,-0.9383,10.0262,20.3805,7.4793,6.7135,2.4470,12.2552,0.5090,-9.1469,2.6468,1.9177,1.6372,-5.1133,0.8473,-7.7664,-2.9404
2789.0625,83.4767,1.5917,0.3859,-4.7436,12.2216,32.5435,7.9418,-1.1383,4.7060,22.5704,5.0023,-6.7897,3.6502,1.8408,7.2696,-2.7440,1.9751,-9.6286,0.3255
2792.9688,95.9329,4.9436,2.3210,-7.7546,11.3150,39.7830,7.0074,-8.2121,6.8347,31.9733,8.5310,-4.3370,2.3357,0.0601,11.5122,0.7695,0.1036,-10.0747,1.0213
2796.8750,101.7787,10.5528,3.2568,-9.5137,6.7656,39.8433,5.6557,-12.6453,8.2197,36.9866,9.9308,-2.9008,-1.1392,-3.6450,12.8048,3.8736,-4.2460,-9.4378,-1.4869
2800.7812,101.1890,15.9349,2.9174,-10.0055,-0.1951,34.1017,4.4272,-13.5835,8.5750,36.2798,9.2186,-2.9268,-5.4800,-8.3459,11.1487,5.2325,-9.1175,-8.4274,-6.1299
2804.6875,97.6269,18.9234,1.7522,-9.4876,-7.0768,26.7433,3.3648,-11.4707,8.2202,31.6964,7.6239,-3.9517,-8.8835,-12.2956,8.1296,4.3633,-12.1825,-7.6119,-10.7122
2808.5938,95.8952,18.9348,0.5385,-8.2483,-11.2593,22.2276,2.4769,-7.6753,7.9317,27.2057,6.8046,-4.9313,-9.9127,-13.6914,5.9267,1.7585,-11.9452,-7.0872,-13.0950
2812.5000,99.3001,17.0556,-0.1137,-6.4514,-11.0993,22.6348,2.2249,-3.6892,8.4852,26.4935,7.8072,-4.8742,-8.0854,-11.4401,6.0174,-1.4505,-8.3642,-6.5026,-12.2277
2816.4062,107.7444,15.1238,0.0285,-4.1627,-6.4978,26.5994,3.5314,-0.4237,10.2261,30.8634,10.5118,-3.3473,-3.9032,-5.5704,8.4659,-3.9956,-2.6221,-5.3696,-8.4550
2820.3125,117.9572,14.6029,0.9603,-1.5211,1.2154,30.4866,7.1878,1.9588,12.9373,38.8163,13.9031,-0.5779,1.5513,2.7997,12.1944,-4.8673,3.6435,-3.4254,-3.0758
2824.2188,125.6132,15.9667,2.6607,1.0938,9.8797,30.9419,13.0199,3.6532,16.0133,47.3668,16.8715,2.7998,7.0808,11.8136,15.8824,-3.5232,9.0564,-0.8380,2.4083
2828.1250,127.8549,18.7429,5.0895,3.0629,17.2599,27.0363,19.4237,4.6580,18.7272,53.9189,18.8683,6.0838,11.6245,19.3549,18.7299,-0.0034,12.7630,1.8226,6.8449
2832.0312,124.5661,21.8767,7.9339,3.7529,21.6928,20.5750,23.7230,4.5695,20.3898,57.3041,19.9371,8.6902,14.3019,23.5454,20.5508,4.9684,14.2915,3.7941,9.5738
2835.9375,117.7431,24.0507,10.4068,2.8599,22.4823,14.5037,23.3168,2.9192,20.3906,57.4730,20.2202,10.1624,14.4634,23.2245,21.3030,9.9794,13.3758,4.4042,10.3202
2839.8438,109.6834,23.9327,11.4422,0.6567,19.9844,10.7087,17.0665,-0.2183,18.2828,54.5212,19.4985,10.1653,11.9137,18.3425,20.6533,13.2100,10.0436,3.3341,9.1269
2843.7500,101.4501,20.5684,10.3081,-2.0372,15.3731,8.8761,6.1526,-3.8938,14.0322,48.1938,17.2707,8.6064,7.2125,10.1198,18.0963,13.0944,4.9075,0.7968,6.4349
2847.6562,92.6773,13.9824,7.2331,-4.1847,10.1595,7.1844,-6.1423,-6.5913,8.3187,38.4030,13.3473,5.8416,1.7564,0.7979,13.5791,9.1437,-0.7042,-2.4343,3.1570
2851.5625,82.6349,5.6258,3.4999,-4.9915,5.6437,4.1531,-15.7053,-7.0523,2.5777,26.1883,8.3992,2.7473,-2.6014,-7.0421,8.0271,2.4484,-5.0940,-5.2129,0.5037
2855.4688,71.4877,-1.8915,0.7883,-4.2422,2.5419,0.0770,-19.3230,-5.0580,-1.4596,13.9777,3.8511,0.4772,-4.3132,-11.3806,3.1475,-4.5832,-6.9490,-6.4211,-0.4864
2859.3750,60.6216,-5.9923,0.1322,-2.3284,0.9500,-3.1601,-16.0216,-1.5971,-2.6194,4.5257,1.0319,-0.0591,-2.8771,-11.4824,0.4507,-9.2824,-6.0366,-5.4606,0.5325
2863.2812,51.7488,-5.7052,1.2226,0.0255,0.6041,-3.7650,-7.3783,1.7343,-1.0492,-0.8861,0.1772,1.2999,0.9134,-8.0853,0.1477,-10.0529,-3.3228,-2.5905,3.0126
2867.1875,45.5574,-2.5507,2.6087,2.1539,1.2033,-1.8225,3.2810,3.6952,1.6696,-3.5564,0.1221,3.8208,5.3956,-2.9613,0.8246,-7.1794,-0.3744,1.1119,5.8185
2871.0938,41.0603,0.0838,2.7100,3.7253,2.5449,0.3622,12.3292,4.0646,3.2604,-6.6732,-0.9386,6.2241,8.8866,1.9167,0.2945,-2.5653,1.5685,4.2127,7.8683
2875.0000,36.2397,-1.0794,0.9290,4.7680,4.4079,-0.1815,17.1993,3.5728,1.9654,-13.0754,-4.0914,7.3366,10.4380,5.1827,-2.8706,1.4727,2.2087,5.5934,8.6905
2878.9062,29.5181,-7.0800,-1.9502,5.4897,6.3648,-4.7253,17.0820,3.2187,-2.5101,-23.0411,-8.7750,6.6595,10.0785,6.5020,-8.2320,3.5744,2.0973,4.9629,8.5404
2882.8125,20.8910,-15.9116,-4.3776,6.0628,7.7937,-11.5290,12.8024,3.5275,-8.9310,-33.8515,-13.0687,4.5356,8.5063,6.4936,-13.6888,3.9578,1.9892,2.9190,8.0553
2886.7188,11.7996,-23.6907,-5.1978,6.5362,8.1895,-16.7724,6.1350,4.3048,-15.3598,-41.6475,-15.0818,1.8749,6.5583,6.2833,-16.9568,3.8923,2.2316,0.5446,7.7544
2890.6250,3.8319,-27.0972,-4.4725,6.9087,7.5770,-17.2559,-0.9987,5.0155,-20.2845,-44.3320,-14.4323,-0.3298,4.8586,6.9389,-17.2981,4.4485,2.7068,-1.1846,7.7647
2894.5312,-2.6784,-25.4504,-3.3437,7.2584,6.6491,-12.9581,-7.0973,5.4006,-23.2725,-43.3463,-12.6546,-1.3972,3.8051,9.0009,-16.2128,5.4890,3.3294,-1.8090,7.9253
2898.4375,-8.9385,-21.0083,-3.0629,7.7729,6.3949,-7.4659,-11.2970,5.7647,-24.7652,-42.8579,-12.1440,-1.1020,3.7181,12.2253,-16.4874,5.6915,4.5580,-1.4054,8.0925
2902.3438,-16.5019,-17.3167,-3.9651,8.6100,7.3670,-5.7268,-13.3216,6.6528,-25.2966,-46.7751,-14.3788,0.3798,4.8431,15.5788,-20.1816,3.6157,7.2892,-0.3107,8.3201
2906.2500,-25.4558,-16.7870,-5.2013,9.6709,9.0761,-10.5290,-13.3166,8.1707,-24.8416,-55.6779,-18.7751,2.5829,7.0805,17.5043,-26.9497,-0.9952,11.9981,1.1650,8.7309
2910.1562,-33.4903,-19.1750,-5.4418,10.4745,10.0111,-20.1564,-11.6686,9.5449,-22.8519,-65.9346,-23.0961,4.8411,9.6534,16.4388,-33.9284,-6.7167,17.7086,2.8031,9.2027
2914.0625,-36.8489,-21.9236,-3.9883,10.2863,8.3992,-28.9892,-8.8518,9.3826,-18.9398,-71.7740,-25.1542,6.4027,11.1091,11.4750,-37.3639,-11.2155,21.7324,4.3341,9.1960
2917.9688,-32.7863,-22.0057,-1.4052,8.4970,3.3069,-30.8394,-5.3261,6.5641,-13.6018,-68.9835,-24.4966,6.6498,9.8862,2.9291,-34.9448,-12.7922,20.7250,5.3181,7.9644
2921.8750,-21.9167,-17.9236,0.8387,5.0561,-4.6000,-22.8984,-1.5232,1.1693,-8.3021,-57.7183,-22.7127,5.3903,5.2464,-7.4772,-27.2967,-11.5561,12.6764,5.2697,5.0765
2925.7812,-8.6616,-10.5649,1.4460,0.6816,-13.1436,-7.6896,2.0631,-5.2656,-4.7343,-42.5122,-22.0237,3.0406,-2.0021,-17.0135,-17.6585,-9.3100,-1.3776,4.0125,0.8887
2929.6875,0.8465,-2.5362,0.2353,-3.3397,-19.5586,8.2892,4.7461,-10.4526,-3.7545,-29.5085,-23.1843,0.4976,-9.5619,-22.8527,-9.9729,-8.1629,-17.1945,1.9805,-3.4236
2933.5938,2.3152,3.3622,-1.7893,-5.7142,-21.7422,18.3604,5.6243,-12.6405,-4.7987,-22.8086,-24.3734,-1.3282,-14.6260,-23.1588,-6.6581,-8.8746,-29.1237,0.1409,-6.3903
2937.5000,-3.9296,5.4496,-3.3011,-5.7920,-19.1560,19.4526,3.8107,-11.6745,-6.2735,-22.3379,-22.1228,-2.0764,-15.3129,-17.8730,-7.4730,-10.2019,-32.9918,-0.5393,-7.0522
2941.4062,-12.8567,3.5954,-3.7587,-3.9420,-12.9608,13.5151,-1.0881,-9.1228,-6.6866,-24.4821,-13.8383,-2.2197,-11.7336,-8.8224,-10.0910,-9.8230,-28.3826,0.2218,-5.5523
2945.3125,-17.6115,-1.1541,-3.8669,-1.4150,-5.4227,5.8319,-8.4628,-7.3489,-5.7031,-24.8386,-0.1831,-2.8168,-6.0167,0.9305,-11.8492,-6.2296,-18.8648,1.6825,-3.1231
2949.2188,-13.7149,-7.2049,-4.9973,0.2666,1.0298,1.5246,-16.5192,-8.0831,-4.3447,-21.1052,14.4836,-4.8279,-1.2183,8.2434,-11.4304,-0.1924,-9.9391,2.4139,-1.4459
2953.1250,-1.9847,-12.8625,-7.9909,0.0867,4.6636,2.5767,-22.6974,-11.3583,-4.1690,-14.2482,24.1791,-8.4065,0.2893,11.0807,-9.4100,5.3763,-5.9046,1.1798,-1.7412
2957.0312,11.7133,-16.5848,-12.2690,-1.9378,4.9431,7.1633,-24.6578,-15.4394,-6.0243,-7.4144,24.7117,-12.6412,-1.9668,9.2469,-7.4609,7.2113,-7.5408,-2.1900,-4.1066
2960.9375,19.8374,-17.2878,-15.9746,-4.7702,2.6055,11.4204,-21.4258,-17.7682,-9.2918,-3.5796,16.2725,-15.9514,-6.4195,4.3679,-6.9252,3.9559,-11.9876,-6.5395,-7.4707
2964.8438,17.6690,-14.7906,-17.1099,-6.9099,-0.6640,12.2200,-14.0796,-16.3602,-12.1692,-3.6044,3.4943,-16.9266,-10.4395,-0.8814,-7.8006,-2.7091,-14.8234,-9.9687,-10.1758
2968.7500,6.2209,-10.1124,-14.8868,-7.1963,-2.8966,9.0668,-5.5076,-10.8786,-12.7928,-5.8762,-7.1155,-15.1072,-11.8353,-3.9921,-8.7981,-8.9502,-12.9737,-10.9234,-10.8653
2972.6562,-8.2015,-5.1950,-10.3328,-5.4290,-2.6974,4.0497,0.7902,-2.8454,-10.4054,-7.5391,-10.7812,-11.2387,-10.0126,-3.7639,-8.3221,-11.1674,-6.6221,-9.1015,-9.1974
2976.5625,-17.5093,-1.9511,-5.7069,-2.4727,0.0135,0.1934,2.3378,5.0568,-5.7730,-6.3179,-6.8939,-6.8599,-6.1733,-0.8417,-5.6137,-8.2973,1.0056,-5.5957,-6.0135
2980.4688,-16.3010,-1.1196,-3.1080,0.2087,3.7985,-0.4705,-1.0721,10.1880,-0.6157,-1.7365,1.1234,-3.4819,-2.5131,2.6554,-1.2498,-2.4618,5.7338,-2.1880,-2.8744
