Time,Fp1,F3,C3,P3,O1,F7,T3,T5,Fz,Fp2,F4,C4,P4,O2,F8,T4,T6,Cz,Pz
0.0000,-12.1708,-4.9056,-1.5285,-1.5030,-1.5747,-7.1525,-4.5462,-1.2359,-3.5737,-10.8060,-4.3458,-1.3042,-0.2125,-0.2930,-4.5866,1.6144,-0.7281,-1.3196,-1.0134
3.9062,-15.2258,-5.6206,-0.9537,-0.3653,-0.8265,-7.2306,-1.7765,-0.0532,-3.8335,-13.0167,-3.5507,0.2566,0.9431,0.3846,-4.1083,3.2708,-0.0252,-0.8743,0.1348
7.8125,-15.3347,-4.7209,0.0694,1.2001,0.2948,-5.1897,2.8439,1.5106,-2.8563,-12.7084,-1.5214,2.4605,2.4279,1.0968,-2.5382,4.0328,1.1419,0.2462,1.6803
11.7188,-13.6247,-3.0773,1.0136,2.5012,1.3044,-2.1702,7.5153,2.8428,-1.4303,-11.1285,0.6693,4.3007,3.4969,1.4215,-0.8364,2.8996,2.3700,1.3849,2.9766
15.6250,-13.6287,-2.6313,1.1713,2.7372,1.5430,-0.6611,9.7941,3.2771,-1.1831,-11.5360,1.3636,4.6602,3.3325,1.0128,-0.5742,-0.2040,2.9935,1.5445,3.2902
19.5312,-18.8858,-5.0808,0.0792,1.4614,0.5308,-2.9194,8.0364,2.4558,-3.5043,-16.9494,-0.6141,3.0137,1.5355,-0.1813,-2.9020,-4.1695,2.4370,0.0452,2.1922
23.4375,-30.0440,-10.4970,-2.1461,-1.0962,-1.7108,-9.2412,2.5612,0.5597,-8.4123,-27.5828,-5.0319,-0.1418,-1.5449,-1.8567,-7.5907,-7.1988,0.6049,-2.9086,-0.1761
27.3438,-43.6786,-16.9446,-4.8124,-4.0850,-4.5931,-17.3771,-4.3096,-1.7554,-14.2452,-39.9663,-10.1813,-3.4741,-4.8970,-3.5069,-12.8933,-7.8140,-1.9627,-6.2095,-3.1413
31.2500,-53.9843,-21.5364,-7.0365,-6.4763,-7.2254,-23.6822,-9.4922,-3.7008,-18.5379,-48.6958,-13.8357,-5.5697,-7.3552,-4.7102,-16.4596,-5.7670,-4.3174,-8.4816,-5.8364
35.1562,-56.4157,-22.3108,-8.2825,-7.6393,-8.8746,-25.3582,-10.9499,-4.7863,-19.5902,-49.8341,-14.6653,-5.8062,-8.2482,-5.3696,-16.7803,-2.2537,-5.6094,-8.9908,-7.6474
39.0625,-50.8026,-19.6399,-8.7027,-7.6885,-9.3421,-22.2927,-8.9156,-5.0797,-17.6571,-43.6385,-13.1452,-4.7620,-7.7839,-5.7460,-14.1866,0.7406,-5.5615,-8.1994,-8.5000
42.9688,-41.6554,-16.1112,-9.0404,-7.3753,-9.0217,-17.1802,-5.7038,-5.1324,-14.8759,-34.5872,-11.2803,-3.8597,-6.9080,-6.2595,-10.6699,1.5800,-4.5994,-7.5297,-8.8217
46.8750,-35.2863,-14.8604,-10.1362,-7.5887,-8.6059,-13.7694,-4.1969,-5.6129,-13.8953,-28.5235,-11.2682,-4.4379,-6.7094,-7.1886,-8.5787,-0.1024,-3.5454,-8.4340,-9.2153
50.7812,-35.6487,-17.4490,-12.3508,-8.7893,-8.6346,-14.3895,-5.9768,-6.8711,-16.1019,-28.8140,-13.9839,-6.8491,-7.7443,-8.4697,-9.0560,-3.2643,-3.0829,-11.3799,-10.0607
54.6875,-41.7748,-22.7511,-15.2765,-10.7359,-9.1763,-18.4449,-10.3162,-8.7018,-20.6596,-34.1907,-18.3342,-10.1830,-9.7062,-9.7272,-11.2972,-6.1558,-3.3508,-15.4508,-11.2907
58.5938,-48.6081,-27.6574,-17.9335,-12.6645,-9.8351,-22.9059,-14.6818,-10.4507,-25.0449,-39.8024,-21.9564,-12.8149,-11.6418,-10.5086,-13.1634,-7.3950,-3.9336,-18.8666,-12.4630
62.5000,-50.6455,-29.1474,-19.3287,-13.7796,-10.0559,-24.4420,-16.3986,-11.3946,-26.7266,-40.7371,-22.8093,-13.4287,-12.5544,-10.5655,-12.7371,-6.7381,-4.2267,-20.0950,-13.0548
66.4062,-45.8397,-26.3281,-19.0278,-13.7237,-9.5155,-21.7215,-14.3668,-11.1643,-24.8501,-35.5393,-20.5775,-11.8463,-11.9938,-9.9971,-9.7412,-5.0980,-3.9005,-18.8149,-12.7768
70.3125,-37.0653,-21.0580,-17.3893,-12.7359,-8.3474,-16.3139,-9.7200,-9.9593,-20.7935,-27.2787,-16.9302,-9.1289,-10.2695,-9.1772,-5.8335,-3.8590,-3.1330,-16.0877,-11.7167
74.2188,-30.1945,-16.7437,-15.3285,-11.4335,-7.0760,-11.6297,-5.0364,-8.4340,-17.2516,-21.4832,-14.4545,-6.8971,-8.1943,-8.5287,-3.5670,-3.9683,-2.4651,-13.6393,-10.2480
78.1250,-30.1789,-16.1392,-13.7746,-10.3991,-6.3188,-10.6696,-2.6785,-7.3279,-16.4993,-22.4267,-14.9822,-6.3302,-6.5742,-8.2934,-4.7266,-5.3808,-2.4100,-12.7494,-8.7948
82.0312,-37.8094,-19.6122,-13.1581,-9.8482,-6.4405,-14.1084,-3.3707,-7.0552,-18.9976,-30.3140,-18.4182,-7.4928,-5.7920,-8.4244,-9.1560,-7.1600,-3.1057,-13.4885,-7.6110
85.9375,-49.2116,-24.9754,-13.2232,-9.5624,-7.3395,-19.9220,-5.9120,-7.4761,-23.2041,-41.1442,-22.8117,-9.3923,-5.7178,-8.6285,-14.8174,-8.1124,-4.2430,-14.7761,-6.6964
89.8438,-58.1762,-28.8993,-13.2507,-9.0805,-8.4581,-24.6745,-8.1300,-7.9694,-26.6047,-49.1247,-25.5670,-10.6778,-5.9261,-8.5025,-18.9771,-7.5190,-5.2818,-15.1660,-5.8681
93.7500,-59.5911,-28.9023,-12.5251,-7.9914,-8.9923,-25.5143,-8.3681,-7.7617,-27.2025,-49.8655,-24.9628,-10.4886,-6.0102,-7.6800,-19.6880,-5.5205,-5.7701,-13.7995,-4.9168
97.6562,-51.7616,-24.6343,-10.7598,-6.1540,-8.2099,-21.5913,-6.5006,-6.3428,-24.5048,-42.3108,-21.0128,-8.9042,-5.7693,-5.9474,-16.6334,-2.9633,-5.5426,-10.9102,-3.7483
101.5625,-36.4580,-17.7444,-8.2393,-3.7582,-5.7642,-14.1388,-3.8459,-3.7592,-19.4949,-28.4919,-15.2048,-6.7573,-5.1975,-3.3236,-10.9197,-0.8548,-4.7051,-7.6077,-2.4432
105.4688,-17.1776,-10.6014,-5.6191,-1.2415,-1.8885,-5.4052,-2.1134,-0.6380,-13.7860,-11.7405,-9.4116,-4.9971,-4.3659,-0.1020,-4.1353,0.2191,-3.4792,-5.1474,-1.2218
109.3750,2.8696,-4.8193,-3.5220,0.8750,2.6184,2.7096,-2.1439,2.0798,-8.6206,5.1589,-4.7519,-4.0597,-3.3390,3.1760,2.5893,0.3775,-2.0627,-4.1846,-0.3400
113.2812,21.7490,-0.5322,-2.1691,2.1728,6.6538,9.4464,-3.2962,3.5764,-4.3399,20.7392,-1.1120,-3.6455,-2.1888,5.8568,8.9244,0.2972,-0.5977,-4.4512,0.0413
117.1875,38.5329,3.2562,-1.2576,2.5045,9.2533,15.0837,-3.8629,3.5563,-0.5231,34.4632,2.4695,-3.0014,-1.0441,7.4140,15.0147,0.7543,0.7852,-4.9813,-0.0378
121.0938,52.5281,7.6560,-0.1500,2.0908,10.0285,20.2451,-2.2113,2.4047,3.4550,45.9547,6.9225,-1.4754,-0.0786,7.6953,20.8870,2.1369,1.9454,-4.6846,-0.3066
125.0000,62.9283,12.9730,1.7315,1.4842,9.3648,25.2201,2.1095,1.0095,7.8866,54.6763,12.3920,1.0282,0.5957,7.0328,26.1079,4.2066,2.7887,-2.9193,-0.3486
128.9062,69.1958,18.4709,4.5269,1.3591,8.2303,29.7327,8.0021,0.3228,12.5174,60.2471,18.0632,3.9631,1.0433,6.1151,29.9257,6.2342,3.3535,0.2162,0.2100
132.8125,71.6872,22.8685,7.7913,2.1876,7.6560,33.1910,13.4046,0.8819,16.6908,62.9251,22.6035,6.4409,1.5059,5.6522,31.7316,7.4254,3.8222,3.9608,1.4820
136.7188,71.7787,25.1540,10.6731,3.9550,8.1598,35.1250,16.4377,2.5440,19.6812,63.6466,24.8885,7.7071,2.2410,6.0057,31.4596,7.3799,4.4037,7.2511,3.1913
140.6250,71.1762,25.1620,12.3269,6.0952,9.4518,35.4716,16.3982,4.5765,21.0151,63.4713,24.5698,7.5127,3.2905,6.9921,29.6361,6.3094,5.1468,9.1868,4.7313
144.5312,70.8225,23.5915,12.3353,7.7251,10.6107,34.5491,14.0224,6.0499,20.6579,62.8532,22.1980,6.1958,4.3528,7.9737,27.0750,4.8684,5.8295,9.4072,5.4144
148.4375,70.1996,21.5222,10.9049,8.0733,10.6307,32.7959,10.9164,6.3071,19.0231,61.3335,18.8910,4.4643,4.8847,8.1808,24.4477,3.6950,6.0304,8.2301,4.7989
152.3438,67.5742,19.7754,8.7271,6.8701,9.0080,30.4792,8.5652,5.2509,16.8100,57.9061,15.7694,3.0276,4.3991,7.0790,21.9975,2.9535,5.3620,6.4853,2.9218
156.2500,61.0703,18.5030,6.5974,4.4740,6.0131,27.5533,7.5526,3.3161,14.7124,51.7644,13.4597,2.2779,2.7856,4.5950,19.5300,2.2018,3.7240,5.1043,0.3101
160.1562,49.8916,17.2139,5.0291,1.6792,2.5104,23.7469,7.4409,1.1885,13.1086,42.8815,11.9023,2.1750,0.4475,1.1217,16.6359,0.7184,1.4114,4.6584,-2.2323
164.0625,34.9686,15.1893,4.0932,-0.6566,-0.5191,18.8342,7.3107,-0.5265,11.9019,32.0852,10.5420,2.3732,-1.8365,-2.6419,13.0052,-1.8901,-0.9897,5.1000,-3.9379
167.9688,18.7311,12.0346,3.5631,-1.9308,-2.4246,12.9638,6.5430,-1.4920,10.6498,20.7340,8.7931,2.5013,-3.2498,-5.9029,8.6943,-5.2051,-2.8472,5.8721,-4.3268
171.8750,4.2543,8.0658,3.2354,-1.9051,-3.0442,6.8716,5.3051,-1.6257,8.9653,10.3611,6.5367,2.4317,-3.2862,-7.9602,4.2501,-8.0187,-3.7259,6.3418,-3.2936
175.7812,-5.7158,4.3135,3.1840,-0.6232,-2.5534,1.8229,4.4333,-0.9774,6.9590,2.5182,4.3594,2.3797,-1.9355,-8.3534,0.6285,-8.9396,-3.5116,6.2852,-1.0469
179.6875,-9.4708,2.1198,3.7523,1.7134,-1.2041,-0.7778,4.8255,0.3556,5.3956,-1.3111,3.3524,2.7660,0.3580,-6.9912,-1.1157,-7.2572,-2.3975,6.0889,2.0059
183.5938,-6.6965,2.5003,5.2800,4.7761,0.8080,-0.0022,6.7766,2.2034,5.3650,-0.0426,4.5170,3.9142,2.9039,-4.2362,-0.3065,-3.5108,-0.7864,6.4935,5.3441
187.5000,1.4261,5.5732,7.7484,8.0427,3.2615,4.0365,9.7063,4.2463,7.5821,6.3295,8.0676,5.7626,5.0180,-0.8713,2.8954,0.6535,0.8261,8.0205,8.3757
191.4062,12.3362,10.3471,10.5981,10.7656,5.7414,9.9939,12.4486,6.0068,11.7314,16.0768,13.0477,7.7785,6.2143,2.1118,7.3245,3.3187,1.9661,10.4627,10.4930
195.3125,22.5469,15.0113,12.8700,12.1143,7.6016,15.6707,13.8940,6.9863,16.3223,25.7537,17.5573,9.1562,6.2942,3.8647,11.1305,3.3445,2.2984,12.8165,11.1932
199.2188,28.5595,17.6359,13.6149,11.5012,8.1752,18.8647,13.5625,6.8896,19.2565,31.2916,19.5663,9.2097,5.3422,4.0204,12.5445,0.9797,1.7368,13.7599,10.2522
203.1250,28.1144,16.9896,12.3553,8.9313,7.1395,18.3262,11.7647,5.7920,18.8669,29.8704,17.9322,7.7461,3.6631,2.8338,10.7538,-2.3430,0.4999,12.4140,7.8669
207.0312,21.2847,13.1037,9.3477,5.1423,4.7930,14.3447,9.3101,4.1258,14.8604,21.5821,13.0675,5.2057,1.6909,1.0343,6.4048,-4.8855,-0.9461,8.9231,4.6637
210.9375,10.7658,7.3155,5.5131,1.3967,2.0291,8.6501,7.0142,2.4862,8.6034,9.7932,6.8514,2.4851,-0.1051,-0.5250,1.3922,-5.5850,-2.0615,4.4797,1.5355
214.8438,0.9707,1.7524,2.0769,-1.0116,-0.0219,3.6507,5.3475,1.3770,2.5465,-0.2523,1.7797,0.5396,-1.3038,-1.2216,-2.0230,-4.5239,-2.4521,0.7646,-0.6409
218.7500,-3.8428,-1.5327,0.0935,-1.3027,-0.5045,1.3621,4.4065,1.0446,-0.9304,-3.9992,-0.2213,-0.0227,-1.6030,-0.8431,-2.3318,-2.6531,-2.0180,-0.8798,-1.2920
222.6562,-1.5751,-1.4049,0.0595,0.4614,0.7658,2.5361,4.1260,1.4647,-0.6503,0.0450,1.3013,0.8394,-0.8860,0.4482,0.4688,-1.0464,-0.9603,-0.0810,-0.3306
226.5625,6.6284,1.8896,1.7581,3.4162,3.2170,6.3846,4.4860,2.4257,2.8337,9.4790,5.1716,2.6404,0.7121,2.2592,4.8931,-0.2465,0.3358,2.4459,1.8186
230.4688,16.8553,6.8404,4.3698,6.2651,5.7661,11.0018,5.5164,3.6126,7.5582,19.2259,9.2343,4.6000,2.7618,4.0875,8.7319,-0.1300,1.4533,5.3044,4.3469
234.3750,24.3032,11.3145,6.7933,7.8027,7.2639,14.2609,7.1151,4.6432,11.1149,24.1509,11.4333,5.9333,4.5766,5.3752,10.1387,-0.2874,2.0470,7.0815,6.3024
238.2812,25.6124,13.4475,8.0557,7.3700,6.9470,14.7540,8.8788,5.1040,11.7550,21.6450,10.7484,6.0858,5.3859,5.5725,8.4626,-0.5296,1.8876,6.9242,6.8894
242.1875,20.4403,12.3952,7.6685,5.0760,4.7313,12.3580,10.1567,4.6623,9.1056,12.8015,7.5418,4.8709,4.6309,4.3025,4.4383,-1.0743,0.8923,4.7936,5.7538
246.0938,11.4744,8.6313,5.7974,1.7201,1.2558,8.1964,10.3644,3.2543,4.2080,1.6439,3.2186,2.5154,2.2733,1.6093,-0.2819,-2.2717,-0.8173,1.3624,3.1559
250.0000,2.9469,3.6808,3.1770,-1.5403,-2.3362,4.0587,9.3685,1.2338,-1.0625,-7.0448,-0.5369,-0.3826,-1.0651,-1.8741,-3.9375,-4.1288,-2.8626,-2.3178,-0.0674
253.9062,-1.4775,-0.5588,0.8014,-3.6475,-4.8147,1.5828,7.6599,-0.6737,-4.8582,-10.0371,-2.5100,-2.9965,-4.2656,-5.0298,-5.3761,-6.0692,-4.6418,-5.2047,-2.7824
257.8125,-0.2907,-2.5806,-0.4748,-4.0418,-5.3371,1.5886,6.1526,-1.6677,-6.0804,-6.9159,-2.3382,-4.5152,-6.1552,-6.6778,-4.3754,-7.1788,-5.5077,-6.5742,-3.9991
261.7188,5.5384,-1.7844,-0.2512,-2.8314,-3.7839,3.8477,5.6895,-1.2888,-4.6674,0.2168,-0.4332,-4.4306,-6.0241,-6.1274,-1.5204,-6.7865,-5.0345,-6.1819,-3.2775
265.6250,13.4630,1.4289,1.3214,-0.6576,-0.7904,7.3288,6.5477,0.3031,-1.4052,8.1663,2.3995,-2.7464,-3.9362,-3.5330,2.1915,-4.9454,-3.2250,-4.2667,-0.8940
269.5312,20.7599,5.9417,3.6743,1.6678,2.5599,10.7238,8.2526,2.3922,2.5501,14.2464,5.3654,0.0099,-0.6552,0.1850,5.7711,-2.4373,-0.5151,-1.4233,2.3224
273.4375,25.5773,10.3855,6.0872,3.5496,5.2347,12.9606,9.8258,4.0972,6.1537,17.1911,7.9079,3.0059,2.7629,3.8157,8.5047,-0.2790,2.4352,1.6067,5.3923
277.3438,27.2049,13.5825,7.9454,4.8031,6.6764,13.4911,10.3303,4.8500,8.7455,17.0995,9.7230,5.4537,5.4565,6.4325,10.0286,0.9096,5.0289,4.1546,7.5949
281.2500,25.7583,14.8497,8.8921,5.5668,6.9222,12.3271,9.3986,4.6524,10.0807,14.7862,10.6743,6.9093,7.0424,7.7133,10.2795,1.2221,6.9063,5.7927,8.6689
285.1562,21.8090,14.1469,8.8676,6.0361,6.3857,9.9376,7.4429,3.9616,10.2286,11.1764,10.7438,7.3654,7.5722,7.8535,9.4193,1.2570,7.9191,6.4092,8.7374
289.0625,16.3199,12.0769,8.0768,6.2416,5.4866,7.1215,5.4332,3.3126,9.4781,7.1412,10.0626,7.1124,7.2753,7.2189,7.7830,1.5766,7.9920,6.1859,8.0760
292.9688,10.7710,9.7091,6.9180,6.0465,4.4019,4.8581,4.3702,2.9675,8.2906,3.6596,8.9458,6.4839,6.3297,6.0475,5.8300,2.2635,7.0522,5.4989,6.9187
296.8750,7.0306,8.1968,5.8648,5.3481,3.0970,4.0544,4.7431,2.8287,7.2288,1.8605,7.8241,5.6579,4.8350,4.4225,4.0475,2.8980,5.1353,4.7677,5.4259
300.7812,6.6821,8.2607,5.2880,4.2906,1.5627,5.1658,6.2642,2.6375,6.7782,2.6226,7.0460,4.6306,2.9641,2.4753,2.7945,2.9396,2.5862,4.2868,3.7766
304.6875,10.0520,9.7602,5.2632,3.2745,0.0189,7.8400,8.0228,2.2552,7.0877,5.8893,6.6638,3.3458,1.1025,0.5687,2.1478,2.1853,0.1311,4.0919,2.2420
308.5938,15.6511,11.6487,5.4807,2.7170,-1.1206,10.8696,8.9762,1.7839,7.8038,10.2803,6.3821,1.8632,-0.2076,-0.7651,1.8618,0.9433,-1.3453,3.9342,1.1251
312.5000,20.6578,12.4599,5.3727,2.7423,-1.5121,12.6483,8.5152,1.4433,8.1888,13.5317,5.7661,0.4379,-0.5279,-1.1284,1.5174,-0.1878,-1.2597,3.4197,0.5947
316.4062,22.4025,11.1552,4.4547,3.0732,-1.1547,12.0154,6.7986,1.3426,7.5543,13.7325,4.6162,-0.5433,0.1956,-0.5554,0.8201,-0.7335,0.2662,2.2867,0.5623
320.3125,20.0151,7.8591,2.7133,3.2595,-0.4132,9.0324,4.6695,1.3795,5.7835,10.6390,3.2512,-0.7222,1.5644,0.4797,-0.1222,-0.6210,2.3815,0.6838,0.7439
324.2188,15.1180,3.9832,0.7771,3.1024,0.2726,5.1594,3.2042,1.3839,3.5762,6.1157,2.4538,0.0714,2.9601,1.4040,-0.7437,-0.1359,3.9555,-0.7509,0.9005
328.1250,10.9888,1.5666,-0.3025,2.9440,0.7876,2.6064,3.1529,1.3931,2.1757,3.2334,3.0485,1.7420,3.9324,2.0012,-0.2804,0.3547,4.2541,-1.1302,1.0877
332.0312,10.6505,2.1644,0.4056,3.5464,1.5211,3.1660,4.6021,1.8022,2.6769,4.4804,5.3523,3.9570,4.4685,2.6106,1.7705,0.6547,3.4030,0.1971,1.6988
335.9375,15.1135,5.9483,3.1469,5.5835,3.1333,7.2160,7.0430,3.1989,5.3384,10.2306,8.8743,6.2531,4.9465,3.8711,5.2648,0.7805,2.3082,3.1904,3.2216
339.8438,22.9003,11.5819,7.2485,9.0737,6.0253,13.5091,9.7662,5.9396,9.3615,18.5090,12.5039,8.1741,5.8070,6.1616,9.3679,0.8235,2.0652,7.0061,5.8434
343.7500,31.0649,16.9424,11.3867,13.1722,9.8833,19.8605,12.2832,9.7523,13.3054,26.2088,15.0949,9.3967,7.1831,9.1523,12.9113,0.8230,3.2441,10.3604,9.1805
347.6562,36.8777,20.2099,14.2104,16.5137,13.6520,24.2597,14.4687,13.6774,15.8643,30.8895,16.0639,9.8097,8.7577,11.8352,14.9470,0.7970,5.5200,12.1837,12.3449
351.5625,38.9769,20.6368,14.9529,17.9163,16.0148,25.6926,16.3431,16.4485,16.4832,31.8959,15.5962,9.5215,9.9450,13.0662,15.1547,0.8772,7.8827,12.1648,14.3449
355.4688,37.3533,18.5847,13.6874,16.9990,16.0977,24.2438,17.7125,17.1140,15.4238,30.1052,14.3317,8.7849,10.2555,12.2661,13.8602,1.3468,9.2593,10.8273,14.5828
359.3750,32.5476,14.9636,11.1291,14.3218,13.9517,20.6127,18.0236,15.5218,13.3160,26.6985,12.7925,7.8612,9.5812,9.7943,11.6966,2.4392,9.1200,9.0913,13.1414
363.2812,25.0329,10.6012,8.1704,10.9851,10.5041,15.5722,16.6388,12.3753,10.6119,22.1019,11.0066,6.8877,8.2082,6.7244,9.1901,3.9978,7.6827,7.6254,10.6882
367.1875,15.4260,6.0161,5.4647,7.9837,7.0209,9.8186,13.3847,8.8347,7.3943,16.0256,8.6237,5.8204,6.5708,4.1695,6.5755,5.3062,5.6359,6.4451,8.0712
371.0938,5.2260,1.6431,3.2721,5.7424,4.4317,4.1928,8.9393,5.9224,3.6510,8.5181,5.4208,4.4895,4.9394,2.6178,3.9355,5.3476,3.6278,5.0285,5.8678
375.0000,-2.9257,-1.8695,1.5581,4.0905,2.9276,-0.1571,4.6679,4.0794,-0.2927,0.9812,1.7593,2.7390,3.2651,1.7241,1.4725,3.4435,1.8950,2.8398,4.1570
378.9062,-6.2115,-3.7259,0.1817,2.6089,2.0399,-2.0844,1.8943,3.0974,-3.6460,-3.9960,-1.4283,0.5645,1.2801,0.6743,-0.3913,-0.1362,0.2565,-0.1410,2.6228
382.8125,-3.4849,-3.4748,-0.9839,1.0493,1.0862,-1.1623,1.0630,2.4036,-5.5253,-4.1683,-3.1764,-1.8309,-1.2275,-1.1530,-1.2310,-4.0795,-1.5829,-3.2778,0.8883
386.7188,3.3789,-1.5252,-2.0221,-0.4666,-0.3350,1.7555,1.4196,1.4816,-5.5640,0.5304,-3.1585,-4.0870,-4.1522,-3.6911,-0.9928,-6.6447,-3.6791,-5.6177,-1.1473
390.6250,9.9958,0.8568,-2.9556,-1.5525,-2.0998,4.7564,1.5397,0.1782,-4.2354,7.4002,-1.9503,-5.7995,-6.9902,-6.1784,-0.1736,-6.6597,-5.7029,-6.4457,-3.1699
394.5312,11.9648,2.2485,-3.6835,-1.8347,-3.6690,5.9597,0.4228,-1.2447,-2.5513,12.3982,-0.6229,-6.6269,-8.9950,-7.6229,0.4296,-4.2587,-7.0858,-5.6530,-4.5805
398.4375,7.8355,2.0499,-3.9292,-1.1881,-4.4356,4.8162,-1.6114,-2.2963,-1.3134,12.7814,0.0659,-6.3567,-9.4949,-7.4134,0.2889,-0.8273,-7.3396,-3.6909,-4.8110
402.3438,0.3717,0.9878,-3.3196,0.1916,-4.0840,2.6251,-2.9384,-2.5518,-0.5048,9.0771,0.2608,-4.9453,-8.2225,-5.6917,-0.3959,1.8481,-6.3425,-1.2151,-3.6532
406.2500,-5.0900,0.6536,-1.6426,1.8668,-2.7723,1.7231,-1.6750,-1.9015,0.6431,4.7832,0.8799,-2.5626,-5.5023,-3.2778,-0.7673,2.6699,-4.4361,1.2627,-1.4297
410.1562,-4.3189,2.3029,0.8593,3.3019,-1.0698,3.7723,2.8909,-0.6435,2.8956,3.8136,2.8052,0.3673,-2.1931,-1.2302,0.0466,1.8154,-2.3002,3.4635,1.0889
414.0625,2.6119,5.7677,3.4120,4.0157,0.2954,8.3464,9.4935,0.6235,6.1499,7.4552,5.9899,3.1920,0.6165,-0.3175,2.1409,0.4293,-0.6822,5.1864,2.9985
417.9688,11.0223,9.3493,5.0142,3.7345,0.7583,12.9354,15.3645,1.2660,9.1998,13.1323,9.2048,5.1849,2.0527,-0.6910,4.5155,-0.3335,-0.1015,6.1513,3.6691
421.8750,14.6765,10.8859,5.0099,2.5340,0.1667,14.5303,17.7921,0.9289,10.4301,16.0626,10.7103,5.8120,1.8406,-1.8996,5.5664,-0.2061,-0.6434,6.0657,3.0467
425.7812,10.1983,9.2921,3.5605,0.8917,-1.1496,11.7602,15.7827,-0.2600,9.0007,12.7612,9.4416,4.9870,0.4222,-3.1933,4.1381,0.0119,-1.9245,4.8992,1.6727
429.6875,-0.2819,5.4476,1.6383,-0.4491,-2.5362,6.0454,10.7101,-1.7198,5.6299,3.8745,5.8593,3.1462,-1.2861,-3.9315,0.4211,-0.8775,-3.2572,3.1052,0.3836
433.5938,-10.2683,1.7141,0.4619,-0.8222,-3.3394,0.8376,5.4821,-2.6977,2.3049,-5.8268,1.8007,1.0578,-2.3908,-3.8846,-3.9836,-3.4458,-3.9643,1.5164,-0.1665
437.5000,-13.2060,0.3431,0.7047,-0.0348,-3.2415,-0.6412,2.7457,-2.6690,1.0237,-10.4753,-0.6368,-0.5538,-2.4975,-3.2904,-6.9639,-7.0131,-3.7039,0.8914,0.1161
441.4062,-7.0234,1.8756,2.0223,1.4446,-2.4142,2.3694,3.3032,-1.6247,2.4237,-7.1272,-0.4396,-1.3464,-1.8729,-2.6530,-7.2006,-9.8989,-2.6273,1.4081,0.7306
445.3125,4.2740,4.6995,3.2643,2.6956,-1.3840,7.5483,5.7696,-0.0659,5.3006,2.0596,1.6851,-1.4524,-1.1825,-2.4000,-4.9924,-10.4089,-1.2615,2.5031,0.9398
449.2188,13.1400,6.1314,3.2659,2.8862,-0.6765,10.9800,7.6553,1.3072,7.4093,11.0892,3.8340,-1.2726,-0.9762,-2.5955,-2.0250,-7.9087,-0.1656,3.2319,0.3056
453.1250,13.4632,4.3057,1.6869,1.8166,-0.4641,9.7764,7.1084,2.0156,7.0178,14.0314,4.2365,-1.1304,-1.2795,-2.8867,-0.2262,-3.2828,0.4251,2.9302,-0.9540
457.0312,4.6124,-0.4439,-0.6982,0.0887,-0.4605,4.0567,4.1417,2.0600,4.1203,8.9152,2.4633,-1.0414,-1.5883,-2.7339,-0.4876,1.5096,0.7226,1.6984,-2.0500
460.9375,-8.1554,-5.6818,-2.4789,-1.2503,-0.1468,-3.0547,0.5664,1.8490,0.4507,-1.0169,-0.3087,-0.7595,-1.2804,-1.7991,-2.1202,4.4858,1.1791,0.3377,-2.1188
464.8438,-17.1105,-8.3973,-2.5382,-1.3698,0.8232,-7.3945,-1.2542,1.8617,-1.7059,-9.4801,-2.1298,-0.0475,-0.1423,-0.2363,-3.3900,4.6545,2.0887,-0.2332,-0.8097
468.7500,-16.9224,-6.9271,-0.7890,-0.1746,2.3353,-6.3601,0.0466,2.2979,-1.0566,-11.1965,-1.6035,1.0545,1.3923,1.3348,-2.7319,2.4238,3.2980,0.3445,1.4425
472.6562,-7.7736,-1.9984,1.7846,1.6819,3.8678,-0.4417,3.9935,2.9689,1.8766,-5.0937,1.2103,2.1857,2.4989,2.2005,0.2033,-0.7498,4.2619,1.6022,3.6617
476.5625,5.1475,3.7544,3.7868,3.2890,4.8612,7.2213,8.6005,3.4949,5.1858,5.3518,4.8894,2.8895,2.5483,2.0480,4.3568,-3.1845,4.4331,2.5870,4.9330
480.4688,15.1513,7.4097,4.2931,4.1047,5.1333,12.8353,11.5663,3.6389,6.8936,14.6123,7.6069,2.9372,1.5970,1.2417,7.9890,-3.7747,3.7059,2.5573,4.9531
484.3750,18.0647,7.4231,3.3496,4.2562,5.0182,14.1235,11.5268,3.5017,6.2105,18.5917,8.2547,2.4973,0.4018,0.6493,9.7718,-2.3830,2.5710,1.5136,4.1506
488.2812,14.2218,4.3125,1.7884,4.3052,5.1024,11.3356,8.6351,3.4152,3.8997,16.7916,6.9961,2.0149,-0.0792,1.0841,9.5009,0.2744,1.8306,0.1774,3.3088
492.1875,7.4866,0.0718,0.5583,4.6837,5.7380,6.6563,4.2558,3.6157,1.6032,11.9791,4.9673,1.8900,0.6409,2.7127,8.0142,3.0833,2.0539,-0.5504,2.9726
496.0938,2.3639,-3.1537,0.0855,5.2526,6.6939,2.6307,0.1105,3.9605,0.6996,7.9308,3.4402,2.1928,2.2131,4.8377,6.4821,5.0513,3.1563,-0.2377,3.0706
500.0000,1.2828,-4.2261,0.1014,5.3384,7.2267,0.7230,-2.5563,3.9334,1.5045,6.9686,3.0569,2.6242,3.6578,6.2402,5.6262,5.6669,4.4162,0.7945,3.0099
503.9062,3.6694,-3.3696,-0.0078,4.2307,6.5503,0.8316,-3.3813,2.9701,3.2750,8.8638,3.5976,2.7370,3.9994,5.8934,5.3869,4.9964,4.9324,1.7331,2.1526
507.8125,7.0036,-1.7043,-0.6578,1.7676,4.3903,1.8125,-2.7998,0.8844,4.8598,11.5359,4.3127,2.2430,2.8831,3.5971,5.1748,3.5375,4.2043,1.8533,0.3140
511.7188,8.7774,-0.4376,-1.7587,-1.4348,1.2368,2.4300,-1.6818,-1.9119,5.4323,12.7525,4.4836,1.1804,0.7580,0.1236,4.4294,1.9324,2.4332,0.9828,-2.0751
515.6250,7.9486,-0.2686,-2.8441,-4.2894,-1.8875,2.0404,-0.9358,-4.5717,4.8098,11.5548,3.8128,-0.1558,-1.4681,-3.2206,3.0540,0.6790,0.3503,-0.4636,-4.2368
519.5312,5.1317,-1.2599,-3.4867,-5.8709,-3.9911,0.6847,-1.2104,-6.2647,3.2693,8.5773,2.4615,-1.4302,-3.0244,-5.3277,1.4662,-0.0264,-1.2802,-1.8473,-5.5285
523.4375,1.7502,-3.0543,-3.6467,-5.9389,-4.6369,-1.2419,-2.7077,-6.6302,1.1638,5.3181,0.8334,-2.4431,-3.6950,-5.8498,0.3117,-0.2540,-2.1129,-2.7576,-5.7917
527.3438,-1.0305,-5.1500,-3.6827,-5.0060,-4.0989,-3.3470,-5.1098,-5.9398,-1.2841,3.0657,-0.6672,-3.1426,-3.8008,-5.2588,0.0939,-0.1603,-2.3175,-3.2135,-5.3491
531.2500,-2.8602,-7.0493,-4.0360,-3.9402,-3.0887,-5.3582,-7.6577,-4.8841,-3.8842,2.2247,-1.7515,-3.5088,-3.8237,-4.4188,0.9543,0.1894,-2.2982,-3.5101,-4.7024
535.1562,-4.0638,-8.3015,-4.8433,-3.4017,-2.2749,-7.0245,-9.4229,-4.1424,-6.2611,2.3346,-2.2480,-3.4555,-3.9953,-3.9961,2.6667,0.8444,-2.2946,-3.8792,-4.1841
539.0625,-5.1200,-8.5631,-5.7726,-3.4954,-1.9260,-8.0217,-9.7046,-4.0176,-7.8133,2.5674,-2.0897,-2.8669,-4.1575,-4.1005,4.7601,1.8060,-2.1927,-4.2533,-3.8072
542.9688,-6.2134,-7.7259,-6.1957,-3.8302,-1.8783,-8.0236,-8.3654,-4.3454,-7.9692,2.2779,-1.3409,-1.7455,-3.9590,-4.3488,6.6632,2.8125,-1.6848,-4.3069,-3.3739
546.8750,-7.1120,-6.0216,-5.5723,-3.8836,-1.7832,-6.9056,-5.8939,-4.6858,-6.5718,1.3028,-0.2215,-0.3276,-3.1954,-4.2433,7.8388,3.2932,-0.6314,-3.7196,-2.7070
550.7812,-7.3264,-3.9627,-3.7890,-3.3841,-1.4097,-4.8907,-3.1283,-4.6265,-4.0841,-0.0319,0.9515,0.9697,-2.0149,-3.5615,7.9401,2.6198,0.6842,-2.4470,-1.8083
554.6875,-6.3586,-2.0906,-1.2545,-2.4585,-0.7804,-2.4848,-0.7995,-3.9910,-1.4201,-1.0802,1.9102,1.7653,-0.8451,-2.4956,6.9842,0.5526,1.6355,-0.8027,-0.8458
558.5938,-3.9023,-0.6770,1.2785,-1.4905,-0.0839,-0.2223,0.8080,-2.8531,0.5090,-1.1139,2.5704,1.9422,-0.1226,-1.4831,5.4472,-2.4235,1.6327,0.6861,-0.0278
562.5000,0.0283,0.3989,3.0389,-0.8350,0.5170,1.5938,1.8527,-1.4120,1.2313,0.4011,3.0284,1.6999,-0.0404,-0.8946,4.1481,-5.1751,0.5389,1.5304,0.5069
566.4062,5.0016,1.4760,3.5367,-0.6058,1.0006,2.9628,2.6144,0.1284,0.8491,3.5102,3.3924,1.3743,-0.4860,-0.8121,3.8864,-6.4604,-1.1814,1.4751,0.6992
570.3125,10.1206,2.7434,2.7122,-0.6641,1.4325,4.0177,3.1155,1.5756,-0.1851,7.5571,3.5749,1.1508,-1.1793,-1.0356,4.9796,-5.6425,-2.7002,0.5489,0.5137
574.2188,14.1111,3.9495,0.9122,-0.7831,1.8032,4.7564,3.0000,2.6777,-1.4513,11.2214,3.2348,0.9004,-1.8728,-1.2764,6.9830,-3.1058,-3.3025,-1.0058,-0.0902
578.1250,15.6337,4.4314,-1.2663,-0.8453,1.9181,4.8983,1.7929,3.0836,-2.8097,12.9222,1.9726,0.2848,-2.4579,-1.3669,8.8207,-0.0552,-2.7943,-2.8364,-1.1018
582.0312,13.7991,3.5022,-3.1864,-0.9266,1.4677,4.0115,-0.6302,2.4428,-4.3466,11.5092,-0.3150,-0.9244,-2.9208,-1.3319,9.3278,2.2185,-1.5796,-4.5546,-2.3599
585.9375,8.7042,0.9719,-4.3657,-1.2090,0.2665,1.8652,-3.7180,0.6430,-6.0897,6.9429,-3.1670,-2.5423,-3.2173,-1.2821,7.9321,3.1348,-0.3639,-5.7788,-3.5145
589.8438,1.7066,-2.5369,-4.5920,-1.7851,-1.4930,-1.2156,-6.3419,-1.9601,-7.7392,0.5779,-5.6036,-3.9284,-3.1933,-1.2313,5.0742,3.1304,0.3170,-6.1848,-4.1214
593.7500,-4.8073,-5.7233,-3.9335,-2.4977,-3.1699,-4.2594,-7.3224,-4.5164,-8.6492,-5.1970,-6.5264,-4.2789,-2.6297,-0.9986,2.0875,3.2400,0.4368,-5.5873,-3.8411
597.6562,-8.2090,-7.1687,-2.6590,-2.9472,-3.8951,-5.9584,-6.0862,-5.9697,-8.1215,-7.8971,-5.2776,-3.0993,-1.3964,-0.2932,0.5582,4.2264,0.4674,-4.0356,-2.6287
601.5625,-6.7260,-6.0476,-1.1227,-2.7009,-3.0103,-5.2836,-3.0495,-5.5672,-5.8487,-6.0658,-2.0419,-0.5651,0.3855,1.0504,1.4950,5.8774,1.0181,-1.8683,-0.7975
605.4688,-0.3645,-2.5971,0.3261,-1.5992,-0.4918,-2.0912,0.5278,-3.3199,-2.2293,-0.0363,2.1527,2.4662,2.2849,2.8436,4.7558,7.0063,2.3539,0.3270,1.0878
609.3750,8.8689,1.9279,1.3906,0.0465,2.9095,2.6494,3.1610,-0.1045,1.6765,8.1009,5.8644,4.8256,3.6716,4.5037,9.0562,6.2192,4.1097,1.8707,2.4348
613.2812,17.7146,5.8250,1.8666,1.5407,5.9512,7.2159,3.9013,2.7252,4.5850,15.3931,7.8894,5.5993,3.9803,5.2888,12.5749,2.9622,5.4188,2.2375,2.8655
617.1875,23.1449,7.7710,1.7196,2.1943,7.5049,9.9684,2.8276,4.0540,5.6255,19.3994,7.8210,4.5936,3.0239,4.7209,13.8584,-1.8741,5.4214,1.3128,2.3828
621.0938,23.8723,7.4816,1.1841,1.8136,7.1732,10.2323,1.0091,3.6445,4.8393,19.3631,6.2450,2.4612,1.1981,2.9600,12.5641,-6.2580,3.8713,-0.4595,1.4041
625.0000,21.0140,5.8467,0.7890,0.9541,5.5497,8.7004,-0.0455,2.2888,3.2371,16.5321,4.4753,0.4236,-0.5682,0.8683,9.6502,-8.1068,1.4512,-2.1518,0.6399
628.9062,17.4169,4.4402,1.2008,0.6960,3.9271,7.0441,0.8256,1.3317,2.3214,13.3920,3.9398,-0.2795,-1.1681,-0.3447,6.8963,-6.5043,-0.4591,-2.6920,0.8288
632.8125,15.9172,4.6353,2.8774,1.9922,3.5745,6.8850,3.8008,1.8202,3.2788,12.1827,5.4864,1.0376,0.1411,0.2406,5.9729,-2.2755,-0.5017,-1.3692,2.3959
636.7188,17.5307,6.7967,5.6991,4.9638,4.9830,8.7126,7.9068,3.8079,6.2693,13.5355,8.9283,4.1723,3.2725,2.6821,7.5351,2.4599,1.8350,1.7323,5.1728
640.6250,20.7395,10.0180,8.8428,8.6331,7.5393,11.4492,11.4198,6.2771,10.2391,16.0798,13.0657,8.0928,7.2140,6.0294,10.8307,5.4966,5.7900,5.6410,8.3466
644.5312,22.4494,12.5987,11.0765,11.3575,9.8505,13.0251,12.6706,7.7655,13.4275,17.3433,16.2197,11.3772,10.4300,8.7483,14.0726,5.7760,9.6133,8.8836,10.7387
648.4375,20.1290,13.0329,11.3900,11.7696,10.5512,11.6969,10.8810,7.3095,14.3329,15.4680,17.0581,12.8425,11.6023,9.5155,15.4159,3.8984,11.4583,10.2089,11.3379
652.3438,13.7834,10.9507,9.6067,9.6465,9.1100,7.3113,6.6134,5.0872,12.5954,10.6754,15.3037,12.0720,10.3146,7.9381,14.0164,1.6321,10.3922,9.2644,9.8281
656.2500,6.3835,7.4233,6.5613,6.1120,6.1353,1.6590,1.5675,2.3199,9.2482,5.4595,11.9224,9.5791,7.2717,4.7669,10.5524,0.7570,6.9302,6.8063,6.7962
660.1562,2.2814,4.3870,3.6639,2.9863,2.9928,-2.4235,-2.2257,0.4861,6.1359,3.2205,8.6292,6.5127,3.9004,1.4665,6.8617,1.9771,2.7615,4.2674,3.4531
664.0625,4.4679,3.4753,2.0757,1.6707,0.9824,-2.7417,-3.4275,0.3718,4.8123,6.0642,6.9338,4.0528,1.5584,-0.5963,4.8591,4.5529,-0.1743,2.9065,0.9978
667.9688,12.3949,4.9553,2.0132,2.2963,0.6045,0.8090,-2.0891,1.5982,5.5796,13.1400,7.2572,2.8209,0.8299,-0.8562,5.3636,6.8361,-0.7096,3.0548,-0.0091
671.8750,21.8648,7.4620,2.6511,3.7071,1.3682,6.0055,0.3943,2.9375,7.2867,20.6916,8.6671,2.6344,1.3260,0.2672,7.5708,7.3210,1.0242,3.9497,0.1231
675.7812,27.2515,8.7721,2.7084,4.2881,2.2248,9.5232,2.0921,3.1803,8.0489,23.9985,9.4430,2.7383,2.0757,1.7659,9.5429,5.5397,3.8315,4.2770,0.5145
679.6875,24.8146,7.1999,1.3366,3.0674,2.2978,8.9441,1.6776,1.9412,6.4652,20.1737,8.1759,2.3587,2.2077,2.7179,9.4529,2.2700,6.2343,3.0810,0.3347
683.5938,15.0859,2.7609,-1.2861,0.3471,1.4117,4.3116,-0.7673,-0.1466,2.5737,10.1337,4.7302,1.2251,1.4648,2.7865,6.8102,-1.0106,7.2805,0.4435,-0.6696
687.5000,2.7912,-2.6679,-4.0567,-2.5413,0.0995,-1.7828,-3.7868,-1.9422,-2.0762,-1.5645,0.4397,-0.2685,0.2491,2.2661,2.8604,-3.0185,6.9093,-2.5190,-2.0721
691.4062,-5.7500,-6.3694,-5.6672,-4.1398,-0.8474,-5.7056,-5.4377,-2.6066,-5.3043,-9.0804,-2.6388,-1.3532,-0.7534,1.7280,-0.1396,-3.3179,5.7486,-4.3412,-3.1139
695.3125,-6.2388,-6.4080,-5.4437,-3.7740,-0.9269,-4.9915,-4.5080,-2.1161,-5.6020,-8.5494,-2.9803,-1.4193,-1.0456,1.5811,-0.3406,-2.3563,4.5890,-4.1239,-3.2199
699.2188,1.1372,-2.8524,-3.7372,-1.8647,-0.1894,0.1095,-1.3075,-1.1405,-3.0473,-0.3293,-0.5662,-0.4318,-0.5605,1.8633,2.4969,-0.9484,3.9254,-2.0827,-2.3212
703.1250,11.8684,2.1992,-1.6305,0.4928,0.9112,6.7337,2.4820,-0.4405,0.7353,11.1372,3.0624,1.0461,0.4291,2.3538,6.8088,0.3612,3.8196,0.6096,-0.8026
707.0312,19.8064,5.8490,-0.2010,2.2923,1.8976,11.1209,4.8303,-0.2825,3.5406,19.8061,5.7315,2.2196,1.5684,2.8398,10.1850,1.5781,4.0579,2.5531,0.8147
710.9375,20.7321,6.1379,0.1292,3.1479,2.5623,10.8911,4.6198,-0.3166,3.8712,21.4110,5.9619,2.5577,2.5977,3.2808,10.8555,3.0004,4.3864,2.9279,2.1749
714.8438,14.6625,3.1950,-0.2725,3.2677,2.9796,6.4633,2.3380,0.0253,1.7543,15.7376,3.8417,2.0784,3.3363,3.7458,8.7356,4.6665,4.6324,1.8693,3.1547
718.7500,5.5598,-0.9398,-0.6675,3.0133,3.2907,0.7347,-0.2501,0.9707,-1.3934,6.4718,0.8777,1.2478,3.5743,4.2185,5.3547,5.9916,4.6816,0.2218,3.7110
722.6562,-1.2911,-3.7052,-0.5684,2.4818,3.4902,-2.7658,-1.2505,2.1515,-3.7345,-1.2136,-1.0688,0.5905,3.0629,4.4848,2.7553,5.9559,4.4251,-1.1045,3.7084
726.5625,-2.5602,-3.7138,-0.1031,1.4629,3.4062,-2.0760,0.1300,2.8544,-4.1849,-3.8005,-1.0542,0.2989,1.6762,4.2362,2.1284,3.7914,3.7843,-1.7201,2.9265
730.4688,1.2108,-1.6386,0.1144,-0.2386,2.8708,2.0323,3.0694,2.5647,-3.0593,-1.3632,0.3174,0.1166,-0.3809,3.3181,3.1079,-0.2972,2.7982,-1.9185,1.2634
734.3750,6.1586,0.2869,-0.5267,-2.4465,1.9081,6.6199,5.6641,1.3596,-1.8101,2.8114,1.3235,-0.4361,-2.5437,1.9075,4.1548,-4.9453,1.6546,-2.3603,-1.0429
738.2812,7.6514,-0.1862,-2.1600,-4.5731,0.7542,8.4701,6.1636,-0.1607,-2.0555,4.5418,0.3197,-1.6664,-4.1413,0.4466,3.7032,-8.2302,0.5794,-3.5386,-3.3917
742.1875,3.1587,-3.7726,-4.3138,-5.9588,-0.3174,6.0628,4.1072,-1.3375,-4.5265,1.4248,-3.0989,-3.4251,-4.7959,-0.6469,1.2281,-8.7793,-0.3609,-5.3921,-5.0654
746.0938,-6.3626,-9.1322,-6.1887,-6.3246,-1.2168,0.3927,0.6333,-1.9366,-8.5888,-5.8500,-7.7516,-5.1308,-4.6713,-1.2781,-2.4952,-6.6941,-1.3671,-7.3022,-5.5930
750.0000,-17.3143,-13.7080,-7.1217,-5.9621,-2.1050,-5.8120,-2.2196,-2.2666,-12.6134,-14.2707,-11.5677,-6.0882,-4.3554,-1.7432,-6.0521,-3.6444,-2.7845,-8.4476,-4.9851
753.9062,-25.8054,-15.3319,-6.9175,-5.4999,-3.2354,-9.8545,-2.7569,-2.8502,-14.9293,-20.6512,-12.8610,-5.8904,-4.4306,-2.4946,-8.4131,-1.9684,-4.7889,-8.2750,-3.6838
757.8125,-29.8363,-13.5020,-5.8561,-5.4198,-4.6824,-10.6074,-0.6214,-3.9221,-14.7428,-23.5758,-11.3370,-4.6505,-5.0363,-3.7611,-9.5323,-3.2647,-7.1045,-6.7963,-2.2757
761.7188,-29.9030,-9.4974,-4.4232,-5.6946,-6.1729,-8.8544,3.0638,-5.1558,-12.4595,-23.8151,-8.1815,-2.9233,-5.7484,-5.2957,-10.1009,-7.3279,-8.9993,-4.5515,-1.1735
765.6250,-27.8136,-5.3315,-2.9791,-5.8141,-7.1628,-6.3537,6.4386,-5.8341,-9.2610,-23.0818,-5.2038,-1.3766,-5.8687,-6.4418,-10.7096,-12.1204,-9.6223,-2.2800,-0.4648
769.5312,-24.8192,-2.3535,-1.5875,-5.1665,-7.1246,-4.4262,8.0167,-5.3350,-6.2757,-22.2381,-3.6384,-0.4228,-4.9123,-6.4877,-11.1417,-14.8521,-8.4896,-0.5107,0.0213
773.4375,-20.6082,-0.5185,-0.0890,-3.4860,-5.8576,-3.1351,7.4616,-3.5697,-3.9318,-20.4482,-3.4178,-0.0349,-2.9417,-5.0865,-10.4193,-13.5569,-5.8011,0.6798,0.5287
777.3438,-13.9711,1.1929,1.6620,-1.0560,-3.6240,-1.5977,5.5963,-1.0663,-1.9140,-15.9986,-3.3901,0.1500,-0.5285,-2.4874,-7.6264,-8.2370,-2.3705,1.5991,1.2143
781.2500,-4.5632,3.6007,3.5674,1.4399,-1.0396,0.9232,3.7364,1.3401,0.3027,-8.1548,-2.2921,0.5186,1.5898,0.5498,-2.8943,-0.9069,0.7820,2.6111,2.0834
785.1562,5.7726,6.3725,5.2155,3.2791,1.2035,4.0974,2.8381,2.9730,2.7953,1.4803,0.2258,1.1697,2.8876,3.0928,2.2585,5.4701,2.9046,3.7702,2.9972
789.0625,13.4394,8.0920,6.0232,4.0301,2.6184,6.5670,3.0051,3.6287,4.9492,9.3754,3.2571,1.8177,3.2178,4.4390,5.6149,8.5125,3.7689,4.6839,3.7011
792.9688,15.2712,7.3647,5.5308,3.6925,3.0819,6.9630,3.5984,3.5758,5.8612,12.2105,5.2335,1.9902,2.7357,4.3932,5.6069,7.5456,3.6045,4.7421,3.8745
796.8750,11.0123,4.1440,3.7038,2.6450,2.8277,5.1117,3.7868,3.3078,5.1159,9.3224,5.0541,1.4103,1.7425,3.3170,2.4265,3.7429,2.8434,3.6063,3.2492
800.7812,4.1742,0.2217,1.0787,1.4913,2.3086,2.4410,3.1297,3.2448,3.3441,3.6108,2.9646,0.3126,0.6208,1.9518,-1.9073,-0.6825,1.8977,1.6357,1.8028
804.6875,0.3287,-1.6217,-1.3607,0.8699,1.9910,1.1707,1.8315,3.5522,2.0713,0.0226,0.5501,-0.5524,-0.1354,1.0925,-4.6553,-3.6815,1.0957,-0.0945,-0.0749
808.5938,3.7007,0.6522,-2.5702,1.2417,2.1481,2.7892,0.5645,4.1176,2.8480,2.4273,-0.2067,-0.2921,0.0460,1.2318,-3.9795,-4.2770,0.7194,-0.3044,-1.6124
812.5000,14.2555,6.8715,-1.9436,2.6723,2.7247,6.9069,0.0285,4.6384,6.1835,10.9345,1.7815,1.5492,1.5764,2.3167,-0.0555,-2.7687,0.9934,1.6876,-1.9779
816.4062,27.3233,14.4843,0.3292,4.7106,3.3473,11.3524,0.5335,4.7616,11.0097,21.5318,5.9007,4.5594,4.3357,3.7424,5.0284,-0.2906,1.9516,5.3710,-0.7727
820.3125,36.1829,19.8826,3.2692,6.5021,3.5147,13.5091,1.8272,4.2511,15.1040,28.4101,10.0660,7.4915,7.4600,4.6298,8.5044,1.8879,3.2786,9.1063,1.6118
824.2188,36.0321,20.4231,5.5392,7.1873,2.9067,11.9960,3.2282,3.1507,16.2850,27.5187,11.8876,8.8303,9.5732,4.2878,8.5066,2.8978,4.3156,10.9247,4.0757
828.1250,26.8027,15.8815,6.1123,6.4181,1.6436,7.5429,3.9730,1.8633,13.6749,19.0375,10.0777,7.6281,9.4712,2.6321,5.0363,2.4526,4.3372,9.6524,5.3774
832.0312,13.0291,8.4616,4.8221,4.6599,0.3085,2.4757,3.6129,1.0427,8.2452,7.1714,5.2486,4.1306,6.8902,0.3038,-0.2026,0.7555,2.9860,5.6784,4.8852
835.9375,0.9374,1.4237,2.4675,3.0060,-0.3382,-0.7989,2.2878,1.2737,2.2995,-2.5347,-0.3847,-0.2148,2.8325,-1.6244,-4.8859,-1.6679,0.5847,0.8430,3.0233
839.8438,-5.2753,-2.7503,0.3786,2.5317,0.1799,-1.2556,0.7394,2.6807,-1.7951,-6.5499,-4.2225,-3.4418,-0.8575,-2.2207,-7.3358,-4.0841,-1.9266,-2.5525,1.0729
843.7500,-5.5770,-3.5229,-0.3284,3.5706,1.7079,0.2997,0.0128,4.7276,-2.8614,-5.2163,-4.7047,-4.0917,-2.4868,-1.2121,-7.2298,-5.6437,-3.4437,-3.0487,0.3976
847.6562,-3.4384,-2.1970,0.6198,5.4200,3.4784,1.9972,0.9272,6.4110,-1.4209,-2.0482,-2.1227,-2.0038,-1.4788,0.8716,-5.4579,-5.5592,-3.2909,-0.8535,1.5693
851.5625,-3.0615,-0.7839,2.5117,6.7402,4.5315,2.2556,3.5515,6.8062,0.7881,-1.1266,1.6266,1.6018,1.3107,3.0281,-3.3783,-3.4073,-1.5852,2.3247,3.9693
855.4688,-6.4869,-0.6792,4.0826,6.4356,4.2904,0.7598,6.9971,5.6493,1.9282,-4.4056,4.1716,4.8127,4.1468,4.3757,-2.0157,0.5642,0.8541,4.3338,6.1505
859.3750,-12.4477,-1.9697,4.2613,4.4401,2.9250,-1.5269,9.7387,3.5568,1.1176,-10.6317,4.0141,6.0937,5.4878,4.6286,-1.6478,5.3426,2.9857,3.8709,6.7446
863.2812,-17.5136,-3.6691,2.7880,1.8493,1.2593,-3.1836,10.3921,1.6928,-1.1742,-16.3815,1.3343,5.1152,4.8908,4.1635,-1.8953,9.4189,4.1094,1.2210,5.3389
867.1875,-18.5481,-4.5655,0.3481,0.2718,0.2777,-3.3167,8.5565,1.0671,-3.5435,-18.3526,-2.1775,2.8710,3.1904,3.6672,-2.1220,11.3687,4.1745,-1.9790,2.7594
871.0938,-14.7912,-4.0550,-1.8393,0.8078,0.5474,-2.0462,5.1946,1.9179,-4.5587,-15.3871,-4.3350,1.0389,1.8786,3.6383,-1.8508,10.4804,3.6808,-3.7658,0.5858
875.0000,-8.3281,-2.4706,-2.7187,3.3244,1.9175,-0.2827,2.2230,3.5877,-3.5982,-9.0699,-3.7261,0.9819,2.1243,4.0831,-0.9976,7.1030,3.2811,-3.0099,0.2061
878.9062,-2.8439,-0.8118,-1.9739,6.4996,3.6504,0.9061,1.4580,4.9603,-1.1668,-2.7417,-0.5275,2.9745,4.0624,4.5804,0.1185,2.5157,3.3576,-0.0300,1.9953
882.8125,-1.5713,-0.1404,-0.1736,8.5851,4.8563,0.8569,3.5077,5.1420,1.4210,0.3307,3.5779,6.0771,6.7526,4.6107,0.9355,-1.6258,3.8181,3.6428,5.0915
886.7188,-5.6343,-1.0248,1.5633,8.3786,4.9290,-0.4939,7.3135,3.9247,2.7577,-1.4348,6.3186,8.6800,8.7579,3.8805,0.9082,-3.9930,4.1943,6.1319,7.8633
890.6250,-13.5755,-3.2958,2.1666,5.8022,3.7429,-2.7407,10.6895,1.7642,2.0470,-7.2939,6.0675,9.3684,8.9292,2.4212,-0.2127,-4.1028,3.9409,6.1700,8.7610
894.5312,-22.1355,-6.1697,1.1447,1.7952,1.5738,-5.2383,11.5845,-0.6236,-0.5569,-14.6633,2.7063,7.6132,6.9288,0.4519,-2.1866,-2.4346,2.7456,3.6262,7.0665
898.4375,-27.7779,-8.6264,-1.2157,-2.3069,-1.1098,-7.2747,9.3062,-2.6940,-4.1051,-20.3742,-2.3458,3.9442,3.2629,-1.8241,-4.3034,-0.1411,0.6867,-0.5890,3.1735
902.3438,-28.2393,-9.8591,-4.0434,-5.4532,-3.8159,-8.1994,4.9399,-4.2308,-7.3771,-22.0879,-6.9312,-0.4162,-1.0872,-4.2996,-5.6767,1.4723,-1.8178,-5.0779,-1.6784
906.2500,-23.4623,-9.6064,-6.3325,-7.2273,-6.0997,-7.5966,0.6969,-5.2047,-9.4697,-19.2731,-9.3108,-4.1969,-5.1487,-6.8743,-5.7111,1.4623,-4.2197,-8.6042,-6.0156
910.1562,-15.5413,-8.2246,-7.3995,-7.7759,-7.6065,-5.4896,-1.3884,-5.5705,-10.1462,-13.3432,-9.0207,-6.6311,-8.2919,-9.3200,-4.4784,-0.4280,-6.0886,-10.5190,-8.7580
914.0625,-7.6920,-6.4538,-7.1274,-7.5080,-8.1595,-2.4212,-0.5855,-5.2468,-9.7864,-6.8917,-6.9619,-7.6608,-10.3137,-11.2665,-2.7332,-3.7142,-7.2743,-10.8352,-9.5876
917.9688,-2.6869,-4.9846,-5.9028,-6.8268,-7.8715,0.7379,2.2671,-4.3001,-9.0110,-2.3738,-4.7213,-7.7564,-11.3240,-12.3577,-1.4898,-7.3642,-7.9025,-10.0208,-8.9334
921.8750,-1.5235,-4.0596,-4.3141,-6.0167,-7.1523,3.2127,5.4603,-3.1049,-8.2349,-0.9033,-3.5694,-7.5164,-11.5589,-12.4640,-1.3876,-10.1597,-8.2132,-8.6786,-7.6296
925.7812,-3.0584,-3.3655,-2.7925,-5.2315,-6.5172,4.7203,7.5543,-2.2305,-7.4322,-1.8265,-3.7463,-7.2925,-11.2204,-11.7669,-2.2558,-11.1201,-8.3381,-7.2675,-6.4300
929.6875,-4.8542,-2.3052,-1.3923,-4.4769,-6.2541,5.5519,8.1995,-2.0435,-6.2513,-3.3210,-4.4387,-7.0322,-10.3924,-10.6264,-3.1905,-9.8597,-8.1668,-5.9598,-5.6170
933.5938,-4.7391,-0.4798,0.1740,-3.5694,-6.1687,6.2800,8.1548,-2.3181,-4.3721,-3.6252,-4.4025,-6.3884,-9.0446,-9.3222,-3.1225,-6.7561,-7.4082,-4.6534,-4.8968
937.5000,-2.0702,1.9678,2.2777,-2.1633,-5.6313,7.3298,8.5922,-2.2251,-1.8317,-2.0680,-2.7955,-5.0052,-7.1193,-7.8730,-1.5056,-2.8434,-5.8361,-3.1108,-3.6414
941.4062,2.1533,4.4275,5.0488,0.0693,-3.9656,8.7685,10.2265,-0.8242,0.9335,0.8000,0.3091,-2.8100,-4.6651,-6.0854,1.3394,0.5583,-3.5649,-1.1566,-1.3533
945.3125,6.3789,6.2911,8.1815,3.1562,-0.9566,10.4658,12.8569,2.2249,3.3662,4.0145,4.0087,-0.1479,-1.9473,-3.8052,4.4501,2.3486,-1.1495,1.1602,1.9103
949.2188,9.9372,7.4731,10.9956,6.6354,2.8721,12.4343,15.5555,6.2525,5.1810,7.2511,7.1410,2.3152,0.5511,-1.1759,6.8399,2.0752,0.6104,3.5239,5.4213
953.1250,13.6628,8.5526,12.7363,9.6497,6.4372,14.9675,17.2821,9.8335,6.5613,11.2139,8.9324,3.8764,2.2774,1.3072,8.0677,0.0883,1.0858,5.4632,8.0801
957.0312,19.1376,10.3678,12.9548,11.3432,8.6582,18.3622,17.4687,11.6029,7.9964,16.9688,9.3323,4.1263,2.8544,3.0139,8.3824,-2.6499,0.2075,6.5712,8.9878
960.9375,27.1020,13.3190,11.7655,11.3429,9.0574,22.4147,16.2256,11.1025,9.8688,24.7163,8.8984,3.1582,2.2937,3.5347,8.4036,-5.0074,-1.4337,6.7199,7.9654
964.8438,36.3248,16.9072,9.8358,10.0120,8.0153,26.1664,14.1387,9.0678,12.1103,33.0503,8.3959,1.5484,1.0402,2.9420,8.6371,-6.1577,-2.8711,6.1506,5.7014
968.7500,43.9701,19.9093,8.1071,8.2840,6.5224,28.2587,11.8945,6.9410,14.2051,39.4603,8.4125,0.1125,-0.1977,1.7832,9.2032,-5.8679,-3.2784,5.3824,3.4227
972.6562,47.3639,21.1309,7.3816,7.1615,5.5981,27.7746,10.0057,5.9430,15.5518,41.8749,9.1876,-0.4451,-0.7546,0.8123,9.9316,-4.4934,-2.4061,4.9786,2.2698
976.5625,45.8996,20.2262,7.9716,7.1838,5.7452,24.9823,8.7431,6.3382,15.9096,40.1424,10.6525,0.1764,-0.2921,0.6207,10.6559,-2.7265,-0.6754,5.2881,2.7350
980.4688,41.5894,17.9790,9.5696,8.1847,6.7575,21.3548,8.1859,7.3799,15.5714,36.2647,12.5328,1.7702,1.0781,1.3766,11.3911,-1.2563,1.1112,6.2868,4.4720
984.3750,37.7173,15.8069,11.3936,9.4643,7.9434,18.7240,8.2502,7.9257,15.1119,33.0723,14.3993,3.7395,2.8767,2.7904,12.2209,-0.5035,2.2415,7.5923,6.5541
988.2812,36.5050,14.8166,12.5370,10.2351,8.5733,18.0965,8.6594,7.2534,14.9015,32.2333,15.6881,5.3671,4.4815,4.2951,13.0235,-0.5198,2.4484,8.6389,7.9950
992.1875,37.5292,15.0819,12.3715,10.0531,8.2625,18.9794,8.9538,5.5070,14.7770,33.0748,15.8105,6.1084,5.3817,5.3252,13.3448,-1.0445,1.9601,8.9330,8.2242
996.0938,38.1288,15.6636,10.8297,8.9981,7.1017,19.7512,8.6494,3.5163,14.1609,33.1540,14.4105,5.7895,5.3599,5.5621,12.6239,-1.6531,1.2703,8.2761,7.2810
1000.0000,35.5518,15.3502,8.4414,7.5481,5.5353,18.8600,7.5284,2.1901,12.5673,30.2150,11.6610,4.6437,4.5509,5.0497,10.6559,-1.9307,0.8223,6.8592,5.6876
1003.9062,29.2404,13.5737,6.0991,6.2757,4.1200,15.9958,5.8765,1.9542,10.1136,24.0848,8.3670,3.1909,3.3704,4.1490,7.9228,-1.6220,0.8097,5.1841,4.1317
1007.8125,21.5029,10.8346,4.6448,5.5555,3.3007,12.3748,4.4467,2.5992,7.6162,17.0579,5.7026,2.0157,2.3395,3.3526,5.4633,-0.7307,1.1685,3.8361,3.1504
1011.7188,16.0267,8.3473,4.4677,5.4188,3.2725,9.9071,4.0828,3.5564,6.1437,12.4304,4.6487,1.5273,1.8565,3.0371,4.2903,0.4664,1.6942,3.2056,2.9442
1015.6250,15.3289,7.1941,5.3161,5.5857,3.9305,9.8488,5.1873,4.3164,6.3153,12.2429,5.4459,1.7947,2.0065,3.2634,4.7377,1.5133,2.1623,3.2933,3.3546
1019.5312,19.0579,7.6220,6.4371,5.6289,4.9049,11.9227,7.3738,4.6703,7.8506,15.9037,7.4314,2.5256,2.5069,3.7377,6.2226,1.9663,2.3846,3.7126,3.9708
1023.4375,24.4137,8.9788,6.9927,5.1935,5.6921,14.5468,9.5769,4.6631,9.7180,20.7155,9.4161,3.2124,2.8497,3.9778,7.6374,1.6111,2.2272,3.9082,4.3182
1027.3438,28.3386,10.2891,6.5350,4.1937,5.8749,15.9906,10.6096,4.4037,10.8071,23.9040,10.4028,3.3916,2.5948,3.6121,8.1214,0.5910,1.6437,3.4893,4.0748
1031.2500,29.7859,10.9974,5.2722,2.9035,5.3507,15.6029,9.8581,3.9507,10.6628,24.6222,10.1947,2.8971,1.6611,2.6367,7.6662,-0.6428,0.7317,2.4879,3.2446
1035.1562,30.3361,11.3118,3.9546,1.8748,4.4275,14.2163,7.6836,3.3616,9.7663,24.4356,9.4906,1.9667,0.4251,1.4519,7.1062,-1.5560,-0.2448,1.3738,2.1974
1039.0625,32.7091,11.9126,3.4283,1.6755,3.6808,13.4516,5.2553,2.7967,9.1573,25.9352,9.3848,1.1209,-0.4661,0.6252,7.4832,-1.8177,-0.9355,0.7874,1.5146
1042.9688,38.3262,13.2798,4.1094,2.5504,3.6057,14.4497,3.8894,2.5030,9.6589,30.5224,10.5885,0.8597,-0.4841,0.5147,9.2277,-1.4802,-1.0771,1.1289,1.6761
1046.8750,45.7949,15.1665,5.6957,4.1925,4.2639,16.9540,4.2763,2.6340,11.2430,37.0168,12.8802,1.3421,0.4240,1.0027,11.7387,-0.9384,-0.6586,2.2526,2.7451
1050.7812,51.4872,16.6228,7.2985,5.7995,5.1780,19.3924,6.0667,3.0504,12.9753,42.1316,15.1543,2.2484,1.7540,1.5396,13.6688,-0.6871,0.0473,3.4736,4.2543
1054.6875,51.8352,16.5568,7.9312,6.4439,5.5897,19.8884,8.0757,3.3214,13.5844,42.5169,16.0521,2.9333,2.7138,1.4935,13.7332,-1.0197,0.6349,3.9192,5.4056
1058.5938,45.7253,14.4434,7.0668,5.5837,4.9533,17.4979,8.9925,2.9983,12.2786,36.9763,14.7821,2.8008,2.6923,0.5810,11.5119,-1.8524,0.8103,3.0367,5.5052
1062.5000,35.3340,10.7010,4.9370,3.4121,3.3453,12.8490,8.1732,1.9942,9.2767,27.3685,11.6188,1.6805,1.6331,-0.9150,7.7339,-2.7752,0.5674,0.9558,4.3824
1066.4062,24.8754,6.5033,2.3966,0.8107,1.4916,7.8023,6.0341,0.7616,5.7155,17.6259,7.7693,-0.0381,0.0688,-2.3057,3.8832,-3.2919,0.1728,-1.5288,2.5193
1070.3125,18.1583,3.1660,0.4396,-1.1067,0.3521,4.3928,3.8035,0.0726,2.9982,11.5579,4.6921,-1.6176,-1.2111,-2.9352,1.3967,-3.1000,-0.0277,-3.3722,0.7843
1074.2188,16.5586,1.4918,-0.3492,-1.6088,0.5065,3.7330,2.7732,0.4967,1.9875,10.8161,3.2837,-2.4168,-1.6500,-2.6076,0.9403,-2.2535,0.1548,-3.8659,-0.0836
1078.1250,18.5978,1.4383,-0.0956,-0.7599,1.7364,5.5041,3.5040,1.9277,2.5260,14.1855,3.4133,-2.2938,-1.2651,-1.7178,2.1472,-1.1332,0.6328,-3.0593,0.0718
1082.0312,21.1761,2.2379,0.4592,0.6122,3.0871,8.2464,5.4672,3.5198,3.5455,18.4685,4.0647,-1.7092,-0.6340,-1.0069,3.8964,-0.2679,1.1035,-1.7652,0.7157
1085.9375,21.4906,2.8385,0.3713,1.3715,3.3881,10.1864,7.3409,4.1266,3.6779,20.2968,3.9741,-1.4526,-0.5494,-1.1145,4.9083,-0.1156,1.2291,-1.1383,0.9213
1089.8438,18.4233,2.3980,-1.0206,0.6775,1.9181,10.0962,7.7745,2.9879,2.0014,17.7956,2.3643,-2.1607,-1.5646,-2.2244,4.3183,-0.9046,0.8063,-2.0619,-0.1116
1093.7500,12.7271,0.5950,-3.7935,-1.6048,-1.1854,7.7531,6.1481,0.2228,-1.4931,11.2736,-0.6539,-3.9292,-3.6974,-4.0108,1.9753,-2.5759,-0.1670,-4.6835,-2.6274
1097.6562,6.1787,-2.3370,-7.4453,-4.8911,-4.9989,3.8556,2.8677,-3.1913,-5.9444,2.7579,-4.2243,-6.2590,-6.4407,-5.8747,-1.6010,-4.8100,-1.5305,-8.3506,-6.2059
1101.5625,0.4250,-5.7990,-11.1558,-8.2170,-8.2939,-0.4553,-0.9534,-5.9389,-10.1070,-5.1969,-7.2991,-8.3591,-9.0362,-7.2756,-5.5076,-7.1061,-3.0364,-11.9572,-9.9905
1105.4688,-3.7621,-9.1052,-14.1304,-10.6997,-10.1239,-4.1577,-4.1761,-7.0556,-12.9756,-10.7170,-9.2325,-9.5990,-10.8275,-7.9433,-8.8210,-8.8950,-4.4004,-14.4832,-13.0805
1109.3750,-6.5222,-11.7082,-15.8546,-11.8691,-10.1968,-6.7030,-6.2108,-6.3766,-14.1951,-13.2492,-10.0400,-9.8141,-11.5017,-7.8798,-10.8817,-9.6788,-5.3283,-15.4172,-14.8608
1113.2812,-8.4131,-13.2932,-16.1724,-11.7397,-8.8828,-8.0373,-7.1293,-4.5191,-14.0562,-13.4209,-10.1912,-9.2883,-11.1290,-7.2328,-11.4186,-9.1766,-5.5586,-14.8524,-15.1368
1117.1875,-9.8216,-13.7499,-15.2204,-10.6671,-6.9375,-8.3631,-7.3105,-2.4782,-13.1449,-12.3427,-10.1239,-8.4649,-10.0355,-6.1839,-10.5128,-7.4283,-4.9498,-13.2638,-14.0860
1121.0938,-10.6698,-13.1033,-13.3136,-9.1296,-5.1452,-7.8638,-6.9652,-1.1231,-11.9176,-10.8446,-9.8557,-7.6182,-8.6214,-4.9376,-8.4733,-4.7985,-3.5805,-11.1649,-12.1317
1125.0000,-10.5807,-11.4996,-10.8677,-7.5668,-4.0657,-6.6110,-5.9541,-0.8766,-10.5022,-9.1300,-8.9989,-6.7282,-7.2270,-3.7706,-5.7216,-1.8632,-1.7847,-8.8882,-9.8263
1128.9062,-9.3762,-9.2762,-8.3752,-6.3190,-3.9429,-4.7264,-4.0583,-1.6857,-8.8418,-7.0350,-7.1849,-5.6317,-6.0846,-3.0308,-2.7510,0.7802,-0.0704,-6.6072,-7.7588
1132.8125,-7.5716,-7.0406,-6.3823,-5.6295,-4.7276,-2.6506,-1.4698,-3.1975,-7.0356,-4.6539,-4.5891,-4.3063,-5.3329,-3.0255,-0.1393,2.6849,1.0607,-4.5213,-6.4490
1136.7188,-6.4815,-5.6170,-5.4004,-5.6422,-6.1386,-1.2384,0.9505,-4.9731,-5.5693,-2.8007,-2.1336,-3.0426,-5.0409,-3.8440,1.4796,3.6338,1.3037,-2.9959,-6.2079
1140.6250,-7.7341,-5.7731,-5.7330,-6.3642,-7.7304,-1.4778,1.9627,-6.6198,-5.1924,-2.8450,-1.1360,-2.3424,-5.2027,-5.2433,1.5761,3.6087,0.6556,-2.4861,-7.0055
1144.5312,-12.3451,-7.8042,-7.2840,-7.6100,-8.9845,-3.9050,0.6839,-7.8298,-6.4658,-5.9005,-2.5568,-2.5902,-5.7051,-6.6973,0.0006,2.7109,-0.6038,-3.2502,-8.4321
1148.4375,-19.8663,-11.2165,-9.4730,-8.9786,-9.4425,-8.0736,-2.7158,-8.3792,-9.2729,-11.8685,-6.3082,-3.7273,-6.3016,-7.5999,-2.7844,1.1196,-2.0203,-5.0479,-9.8098
1152.3438,-28.2156,-14.7762,-11.3604,-9.9110,-8.8502,-12.5106,-6.8881,-8.1371,-12.6695,-19.0627,-11.1038,-5.1720,-6.6353,-7.5087,-5.7263,-0.8777,-3.1004,-7.0708,-10.4325
1156.2500,-34.4812,-17.0073,-11.9859,-9.8386,-7.2484,-15.3317,-9.9336,-7.0879,-15.2492,-24.8319,-15.0058,-6.0715,-6.3342,-6.2967,-7.5585,-2.8266,-3.4325,-8.2267,-9.8306
1160.1562,-36.3832,-16.9216,-10.7906,-8.3902,-4.9552,-15.2449,-10.4415,-5.3454,-15.8504,-26.9239,-16.3847,-5.7458,-5.1605,-4.1563,-7.3955,-4.1207,-2.7920,-7.6600,-7.9419
1164.0625,-33.5704,-14.5639,-7.9133,-5.5844,-2.4454,-12.3412,-8.2925,-3.1444,-14.1777,-24.7613,-14.7308,-4.0525,-3.1532,-1.4993,-5.2192,-4.1627,-1.2335,-5.2167,-5.1203
1167.9688,-27.9134,-11.0148,-4.1852,-1.9169,-0.1930,-8.1320,-4.7050,-0.8210,-10.9440,-19.7852,-10.8466,-1.4560,-0.6814,1.1654,-1.9352,-2.6407,0.8653,-1.5658,-1.9961
1171.8750,-22.5230,-7.8090,-0.7900,1.7339,1.4514,-4.7444,-1.4963,1.2159,-7.4449,-14.6049,-6.3370,1.2301,1.6488,3.3291,1.0815,0.2208,2.8743,2.1117,0.7455
1175.7812,-20.0227,-6.0988,1.2651,4.3953,2.3189,-3.7329,-0.0356,2.5440,-4.8403,-11.4875,-2.7389,3.2599,3.2290,4.5816,2.7142,3.6162,4.1334,4.7018,2.5913
1179.6875,-21.1015,-6.0559,1.6115,5.3993,2.4429,-5.2274,-0.5398,2.8501,-3.5861,-11.1401,-0.8055,4.2957,3.7357,4.7461,2.6862,6.4176,4.2683,5.6839,3.3749
1183.5938,-24.1905,-6.8452,0.6853,4.7256,2.0741,-7.9200,-2.1014,2.1052,-3.3202,-12.4931,-0.3017,4.5090,3.3280,4.0287,1.6669,7.6694,3.4346,5.3331,3.3550
1187.5000,-26.3843,-7.1386,-0.4886,3.0946,1.6790,-9.8472,-3.3439,0.7022,-3.1905,-13.4820,-0.3157,4.4365,2.6332,3.0716,0.8756,7.0872,2.3168,4.5176,3.1553
1191.4062,-24.9778,-5.8218,-0.7845,1.7090,1.8612,-9.4440,-3.2322,-0.5798,-2.3520,-12.2061,0.1892,4.7005,2.4835,2.7876,1.4444,5.2766,1.8185,4.2334,3.5407
1195.3125,-18.7221,-2.4951,0.4954,1.7077,3.1527,-6.2452,-1.5496,-0.8576,-0.3379,-7.7489,1.9044,5.7279,3.5005,3.9588,3.9020,3.4989,2.5750,5.1206,5.0676
1199.2188,-8.2440,2.4219,3.2965,3.5727,5.7173,-0.9332,1.1466,0.4102,2.8193,-0.3626,4.9450,7.5604,5.7214,6.7633,7.9912,3.0453,4.5557,7.1759,7.7394
1203.1250,4.3292,7.9070,6.8269,6.8028,9.1177,5.1210,3.9300,3.0473,6.6437,8.7692,8.8372,9.7935,8.4737,10.5092,12.8096,4.5160,7.0086,9.7515,10.8586
1207.0312,16.1236,12.6706,9.8950,10.0678,12.3401,10.4357,5.9476,6.1188,10.3322,17.8319,12.6430,11.6693,10.6053,13.8025,17.1222,7.4028,8.8142,11.8139,13.2260
1210.9375,24.3011,15.4862,11.4210,11.8199,14.1616,13.8204,6.6848,8.3246,12.9126,24.6478,15.2082,12.3354,11.0024,15.1497,19.7195,10.2546,9.0722,12.3639,13.6670
1214.8438,26.8049,15.5238,10.9059,11.0792,13.7379,14.5850,6.0426,8.6622,13.5236,27.1468,15.5642,11.2284,9.1676,13.7174,19.7855,11.4021,7.5984,10.8817,11.6589
1218.7500,23.1218,12.7124,8.6625,7.9826,11.1072,12.6974,4.3342,6.9922,11.8357,24.2322,13.4303,8.4434,5.5604,9.8315,17.2545,9.8887,5.0496,7.6346,7.7121
1222.6562,14.8839,8.0109,5.6978,3.7772,7.2870,8.9396,2.2527,4.1533,8.4347,16.7633,9.5791,4.8728,1.4907,4.9039,13.0341,6.0908,2.6024,3.6886,3.2398
1226.5625,5.8229,3.3288,3.2781,0.2277,3.8418,4.8949,0.7413,1.5272,4.8454,7.9070,5.7494,1.9441,-1.4323,0.7815,8.8795,1.6341,1.3635,0.5417,-0.0822
1230.4688,0.6417,0.9066,2.3517,-1.2698,2.1112,2.5295,0.6812,0.2839,2.9856,2.1967,3.9616,0.9904,-2.0576,-1.1503,6.7833,-1.4124,1.8261,-0.5300,-1.1555
1234.3750,2.9685,2.2947,3.1010,-0.3921,2.5178,3.3678,2.4547,0.7478,4.2044,3.4088,5.4830,2.5377,-0.2735,-0.6255,8.0394,-1.6542,3.6525,0.8746,-0.0315
1238.2812,13.3499,7.4474,4.8648,1.9782,4.3603,7.6348,5.6249,2.2576,8.4376,12.3479,10.0232,5.9276,2.9087,1.4385,12.4566,0.8258,5.8715,4.0025,2.1295
1242.1875,28.5556,14.5394,6.5069,4.2689,6.2291,13.9383,9.0087,3.5942,14.0678,26.0000,15.7270,9.5586,5.8424,3.4904,18.2549,4.4663,7.3654,7.2685,3.7194
1246.0938,42.8721,20.7582,7.0601,5.0945,6.8093,19.8224,11.2106,3.7076,18.6947,38.8244,20.0825,11.6786,7.0685,4.1828,22.8458,7.0602,7.3839,9.0676,3.5964
1250.0000,50.8358,23.7019,6.2864,3.9944,5.6006,22.9683,11.3543,2.3063,20.4134,45.5763,21.2577,11.2958,6.0308,3.0279,24.1304,6.9595,5.8387,8.6341,1.7241
1253.9062,49.8273,22.5568,4.8063,1.6179,3.1365,22.3342,9.5601,-0.0255,18.8072,43.9492,19.0390,8.6656,3.2916,0.5315,21.5542,3.9536,3.2616,6.4207,-0.8420
1257.8125,40.9625,18.3176,3.6813,-0.7327,0.5946,18.5202,6.8356,-2.2156,15.0084,35.3820,14.7680,5.0507,0.1336,-2.2168,16.2558,-0.6891,0.4903,3.7347,-2.6109
1261.7188,27.8356,12.9339,3.6837,-1.9087,-0.9386,13.1612,4.4311,-3.3336,10.8030,23.6234,10.3374,1.9142,-2.2026,-4.2095,10.2285,-5.0160,-1.7351,1.8516,-2.5610
1265.6250,14.1348,8.0075,4.7156,-1.5791,-1.0878,7.8263,3.0857,-3.0842,7.4286,12.2002,6.9581,0.0701,-3.1820,-5.0383,5.0822,-7.5123,-3.0558,1.1878,-0.7519
1269.5312,1.8690,3.9680,5.7853,-0.3595,-0.3314,3.2305,2.6718,-1.9011,4.9232,2.6405,4.5591,-0.6607,-3.1472,-4.9885,1.2632,-7.8495,-3.5415,1.1007,1.7173
1273.4375,-8.6570,0.2820,5.6138,0.6494,0.3850,-0.7220,2.4616,-0.6343,2.4671,-5.3952,2.2103,-1.0981,-2.9266,-4.7075,-1.7688,-6.8264,-3.5167,0.4622,3.3694
1277.3438,-17.4212,-3.5421,3.5195,0.6087,0.2901,-4.2211,1.7908,-0.0435,-0.5933,-12.4673,-0.8048,-1.9445,-3.1654,-4.6985,-4.6293,-5.6071,-3.2979,-1.3898,3.2314
1281.2500,-23.2842,-7.0141,0.0119,-0.4947,-0.7203,-6.8551,0.6177,-0.3852,-3.8705,-17.7784,-4.1227,-3.1765,-3.8324,-4.9600,-7.1437,-4.8164,-3.0016,-4.0039,1.4209
1285.1562,-24.0179,-8.6133,-3.3284,-1.8033,-2.0175,-7.5975,-0.4314,-1.2920,-5.9346,-19.1375,-6.3343,-4.0184,-4.2188,-4.9764,-8.2543,-4.1257,-2.5182,-5.9537,-0.8921
1289.0625,-17.9202,-6.7701,-4.6671,-2.0748,-2.6033,-5.5582,-0.5459,-1.9713,-5.2415,-14.6131,-5.9243,-3.4951,-3.4075,-4.0356,-6.8103,-2.6039,-1.6355,-5.7039,-2.1050
1292.9688,-5.7364,-1.1904,-2.9597,-0.3945,-1.6620,-0.9113,0.6357,-1.6024,-1.3246,-4.5468,-2.4222,-1.1533,-0.8838,-1.6695,-2.6275,0.4347,-0.2095,-2.6283,-1.0256
1296.8750,8.8347,6.5004,1.4093,3.2996,1.0105,4.8032,2.7200,0.2529,4.6491,7.8338,3.1057,2.5642,3.1116,2.0335,3.0460,4.7060,1.7293,2.5068,2.5193
1300.7812,20.7938,13.3877,6.7845,8.1485,4.8974,9.3718,4.8037,3.3991,10.4176,17.9544,8.6147,6.5381,7.6838,6.3955,8.0985,8.8924,3.9798,7.9198,7.5994
1304.6875,26.7200,16.8592,11.0959,12.7564,8.9757,11.2046,6.0790,7.0150,13.9230,22.6598,12.3053,9.6033,11.7278,10.3898,10.8124,11.3299,6.2480,11.7917,12.6151
1308.5938,26.8645,16.1283,12.8984,15.7863,12.1096,10.3442,6.3513,9.9345,14.4895,22.2288,13.6453,11.1406,14.4020,13.0214,10.9172,11.0114,8.2208,13.2036,15.9878
1312.5000,24.8659,12.6596,11.9952,16.4642,13.4433,8.4402,6.1002,11.1064,13.0817,20.1002,13.4820,11.2505,15.3602,13.6811,9.6652,8.2484,9.5979,12.4593,16.7674
1316.4062,25.1489,9.1945,9.3397,14.7967,12.6633,7.6539,6.0546,10.0566,11.5004,20.3974,13.2147,10.4634,14.6879,12.3447,8.8593,4.5444,10.1032,10.6693,14.9129
1320.3125,29.7493,8.0133,6.3617,11.4774,10.0767,9.2077,6.6028,7.1390,11.1073,24.9449,13.6712,9.2739,12.6999,9.5688,9.5313,1.7436,9.5377,8.9604,11.1970
1324.2188,36.7669,9.5663,4.1784,7.5877,6.5034,12.5464,7.4594,3.4257,11.9597,31.8652,14.5139,7.8645,9.8046,6.2976,11.2156,0.9872,7.8946,7.8663,6.8450
1328.1250,41.5306,12.3255,3.1470,4.2242,3.0122,15.6578,7.8201,0.2489,12.9048,36.7373,14.5707,6.1850,6.5058,3.5453,12.3258,2.1209,5.4775,7.2416,3.0899
1332.0312,39.6879,13.8826,2.9339,2.1636,0.5671,16.3257,6.8918,-1.4023,12.4932,35.5140,12.8000,4.2478,3.4405,2.0521,11.3417,3.8998,2.9058,6.6340,0.8000
1335.9375,30.1457,12.5220,2.9356,1.6369,-0.3027,13.4950,4.4453,-1.3221,10.0385,27.2290,9.1579,2.3392,1.2925,2.0308,7.9499,4.8273,0.9351,5.7480,0.2708
1339.8438,15.9610,8.2611,2.7156,2.2786,0.3223,7.9077,1.0335,-0.1236,6.1083,14.7443,4.7559,0.9421,0.5350,3.1087,3.3478,4.0798,0.1347,4.6511,1.2071
1343.7500,2.7100,2.7725,2.1929,3.2859,1.8235,1.6796,-2.2544,1.1519,2.1782,3.1663,1.2359,0.4260,1.1413,4.5030,-0.4621,1.9491,0.5904,3.6322,2.8766
1347.6562,-4.5197,-1.6573,1.5419,3.7617,3.3373,-2.8544,-4.3526,1.6190,-0.2557,-2.9456,-0.1711,0.7572,2.4937,5.3685,-1.8706,-0.4322,1.8235,2.9045,4.3832
1351.5625,-3.6462,-3.4209,0.9607,3.1159,4.1338,-4.3133,-4.7702,0.9835,-0.5045,-1.8405,0.7285,1.4719,3.6245,5.1627,-0.5497,-1.8577,3.0084,2.4242,4.9764
1355.4688,3.7137,-2.3712,0.5067,1.3383,3.8946,-2.8366,-3.8320,-0.4143,1.0288,4.8813,3.1215,1.9486,3.7003,3.8569,2.4877,-1.7964,3.3953,1.9582,4.3017
1359.3750,13.4572,0.2726,0.0996,-1.0031,2.7704,0.1673,-2.4869,-1.9286,3.1976,13.4623,5.7507,1.7897,2.4759,1.9011,5.5839,-0.6661,2.7050,1.3120,2.5069
1363.2812,21.1474,2.7210,-0.3510,-3.0447,1.2305,2.8477,-1.7844,-3.0493,4.8048,19.9818,7.5841,1.0529,0.4413,-0.0189,7.3651,0.4991,1.2745,0.5205,0.1756
1367.1875,23.8850,3.6007,-0.8126,-4.0340,-0.1729,3.8442,-2.2873,-3.6438,5.2211,22.0303,8.2075,0.1962,-1.4306,-1.2823,7.3381,0.7335,-0.1261,-0.1316,-1.8839
1371.0938,21.1646,2.6139,-1.0877,-3.6361,-0.9893,2.8832,-3.7229,-3.8606,4.6283,19.4053,7.8315,-0.1917,-2.1799,-1.5352,5.9154,-0.2678,-0.6976,-0.2437,-2.9108
1375.0000,14.6675,0.5987,-0.8838,-1.9950,-0.9472,0.8158,-5.0734,-3.8211,3.8334,13.8139,7.0556,0.3155,-1.3166,-0.7246,4.0195,-1.9967,-0.0102,0.5245,-2.4372
1378.9062,7.3570,-0.9693,0.0487,0.4310,0.0334,-0.8778,-5.0967,-3.3914,3.7990,7.9516,6.5872,1.8260,0.9918,0.9837,2.5946,-3.4681,1.8049,2.3260,-0.4381
1382.8125,2.2854,-0.7633,1.7691,3.1007,1.8246,-0.8823,-3.0429,-2.2544,5.1215,4.3707,7.0054,4.1321,4.0474,3.2950,2.2697,-3.7977,4.1397,5.0524,2.6425
1386.7188,1.4271,1.6812,4.0432,5.5275,4.0530,1.2201,0.8061,-0.2541,7.6775,4.4733,8.5521,6.7892,6.9335,5.8109,3.2183,-2.6618,6.1917,8.2799,5.9966
1390.6250,4.8481,5.6518,6.3259,7.2838,6.1126,4.6339,5.1021,2.2635,10.5906,7.9194,10.9506,9.1993,8.8346,8.0195,5.1462,-0.3986,7.2881,11.2556,8.6706
1394.5312,10.5648,9.5115,7.8712,7.9715,7.3120,7.6550,7.9880,4.4278,12.5595,12.7229,13.3613,10.7081,9.2491,9.3448,7.3681,2.2478,7.1093,13.0158,9.8582
1398.4375,15.3282,11.4421,7.9806,7.2925,7.1585,8.5040,8.0147,5.2449,12.4428,16.1273,14.6179,10.7744,8.0860,9.3191,9.0033,4.5321,5.7517,12.7090,9.1908
1402.3438,16.1535,10.3490,6.3333,5.2449,5.6505,6.2950,4.9435,4.2134,9.8534,15.9711,13.7593,9.2173,5.6806,7.8298,9.3108,6.0126,3.6467,10.0536,6.9159
1406.2500,11.9046,6.4672,3.2524,2.3148,3.3821,1.6085,-0.0193,1.7462,5.4552,11.8778,10.6253,6.4242,2.7381,5.2871,8.0600,6.6160,1.3977,5.6790,3.8638
1410.1562,4.0391,1.3137,-0.2692,-0.5365,1.3408,-3.6942,-4.7317,-0.9253,0.7634,5.5547,6.1405,3.3358,0.1758,2.5551,5.7261,6.5027,-0.3967,1.0648,1.1702
1414.0625,-4.0205,-3.0355,-2.8805,-2.1913,0.4566,-7.3679,-7.1355,-2.3666,-2.5058,-0.0668,2.0144,1.1147,-1.1497,0.6169,3.3343,5.8739,-1.2886,-2.0234,-0.1587
1417.9688,-8.6327,-4.9745,-3.4431,-1.8877,1.1373,-7.9214,-6.2594,-1.7315,-3.2296,-2.4217,-0.0675,0.6029,-0.7674,0.1159,1.9732,4.8589,-1.0703,-2.3803,0.3373
1421.8750,-7.8421,-4.1343,-1.6005,0.3545,3.0552,-5.3603,-2.6729,0.7514,-1.4031,-0.7104,0.6637,1.8631,1.1736,1.0248,2.2317,3.5197,0.1928,-0.0262,2.3741
1425.7812,-2.3628,-1.4623,1.9647,3.6716,5.3131,-1.1238,1.8449,3.8977,1.8817,3.7189,3.6129,4.0966,3.9036,2.6427,3.8915,1.9207,2.1781,3.7279,5.0470
1429.6875,4.8770,1.3988,5.7696,6.7274,6.8950,2.7254,5.2331,6.2246,4.9797,8.1937,7.1040,6.0308,6.3080,3.9387,6.0589,0.1848,4.3582,6.9061,7.2244
1433.5938,10.2882,3.0278,8.1847,8.3327,7.1439,4.5678,6.1703,6.7481,6.4555,10.1919,9.2424,6.5758,7.3726,4.0605,7.6447,-1.5050,6.0924,7.8594,8.0256
1437.5000,11.3427,2.8841,8.1828,7.9697,6.0101,3.9505,4.6644,5.4535,5.6728,8.5759,8.8635,5.3781,6.5959,2.7334,7.8973,-2.9417,6.7707,6.0683,7.1554
1441.4062,7.5709,1.3664,5.7942,5.9452,3.9734,1.6174,1.9326,3.1915,2.9556,3.9448,6.0478,2.9556,4.1771,0.3451,6.6951,-3.9360,6.0075,2.3193,4.9545
1445.3125,0.4777,-0.6553,2.0329,3.1279,1.7322,-1.0726,-0.3187,1.1090,-0.6798,-1.9200,1.9676,0.3619,0.9075,-2.3016,4.4918,-4.3537,3.8357,-1.8033,2.1736
1449.2188,-7.3669,-2.4508,-1.6511,0.4608,-0.1349,-2.9374,-0.8102,-0.0128,-4.0250,-7.0394,-1.7817,-1.3971,-2.1689,-4.4056,2.0217,-4.1586,0.7968,-4.7734,-0.3868
1453.1250,-13.4974,-3.7784,-4.0847,-1.4589,-1.3629,-3.5260,0.6740,-0.1258,-6.1608,-10.0730,-3.9610,-1.8464,-4.1646,-5.5227,-0.0340,-3.4588,-2.1770,-5.8319,-2.1839
1457.0312,-16.4879,-4.8230,-4.8689,-2.5269,-2.0012,-3.2061,3.2353,0.1846,-6.7517,-10.7026,-4.1899,-1.1820,-4.6619,-5.6951,-1.2728,-2.5150,-4.1104,-5.2000,-3.0640
1460.9375,-16.3989,-5.8817,-4.4245,-2.9959,-2.2896,-2.8384,5.3888,0.1435,-6.0940,-9.5870,-2.9895,-0.0517,-3.8210,-5.3319,-1.6570,-1.6553,-4.4331,-3.7744,-3.1997
1464.8438,-14.6649,-7.0830,-3.6120,-3.2010,-2.5142,-3.2753,5.8780,-0.7238,-4.9395,-8.0477,-1.4295,0.8388,-2.2592,-4.9467,-1.4891,-1.0955,-3.2877,-2.5614,-2.9142
1468.7500,-13.4381,-8.3146,-3.1784,-3.3320,-2.9023,-4.9277,4.3501,-2.3377,-4.1506,-7.5851,-0.5865,1.0630,-0.7556,-4.9011,-1.2917,-0.7638,-1.4811,-2.1815,-2.5003
1472.6562,-14.5293,-9.3198,-3.3452,-3.3553,-3.5546,-7.5498,1.5479,-4.1421,-4.2889,-9.2614,-1.0459,0.6110,0.1004,-5.2610,-1.5831,-0.2855,-0.0496,-2.6590,-2.1090
1476.5625,-18.3194,-9.8069,-3.7398,-3.0787,-4.3911,-10.2862,-1.0739,-5.4131,-5.2967,-13.0899,-2.6329,-0.1759,0.1727,-5.7959,-2.5885,0.7827,0.3378,-3.5155,-1.7261
1480.4688,-23.2381,-9.4784,-3.6659,-2.2781,-5.1202,-11.9620,-2.1038,-5.5940,-6.4560,-17.7550,-4.4795,-0.7910,-0.1734,-6.0901,-4.0277,2.5549,-0.2266,-4.0490,-1.2111
1484.3750,-26.3126,-8.0455,-2.5336,-0.8166,-5.2816,-11.5468,-0.9001,-4.4907,-6.7178,-21.0115,-5.4339,-0.7788,-0.2791,-5.7097,-5.1629,4.5178,-0.9732,-3.6592,-0.3711
1488.2812,-24.7585,-5.3539,-0.2117,1.2780,-4.4081,-8.6474,2.0922,-2.2847,-5.3032,-20.7919,-4.6737,0.0744,0.4290,-4.3759,-5.1865,5.6077,-0.9929,-2.1090,0.9503
1492.1875,-17.8468,-1.6381,2.8641,3.7809,-2.2778,-3.8199,5.5946,0.5754,-2.2650,-16.5235,-2.2422,1.6198,2.0803,-2.1019,-3.7878,4.7331,0.1045,0.3405,2.7777
1496.0938,-7.8591,2.2825,5.8577,6.2883,0.8607,1.5070,8.1692,3.5163,1.3496,-9.8223,0.8110,3.3432,4.2265,0.7524,-1.5352,1.4943,1.8540,2.9735,4.9275
1500.0000,0.7160,5.1289,7.8766,8.3035,4.2450,5.5589,8.9383,5.9684,3.9173,-3.9351,2.8576,4.5261,6.0267,3.5449,0.2596,-3.3585,3.1726,4.8582,6.9931
1503.9062,3.5580,5.7058,8.3350,9.3901,6.8319,7.0111,7.9670,7.4874,4.0764,-2.0358,2.5456,4.5489,6.6675,5.5452,0.2373,-8.0983,3.0402,5.2261,8.4346
1507.8125,-0.8342,3.6296,7.1871,9.3482,7.7467,5.6686,6.1331,7.8802,1.5320,-5.2912,-0.3590,3.2215,5.7930,6.2062,-2.1134,-10.8233,1.1931,3.8406,8.7706
1511.7188,-9.8922,-0.2383,4.9482,8.3246,6.7426,2.6359,4.6022,7.3023,-2.6594,-11.9093,-4.6618,0.9557,3.7047,5.4068,-5.9303,-10.4559,-1.6260,1.1611,7.8083
1515.6250,-18.0900,-4.0412,2.4973,6.7775,4.4083,-0.1805,4.2248,6.2492,-6.5373,-17.8872,-8.2271,-1.3570,1.2244,3.5385,-9.2371,-7.3288,-4.0283,-1.8212,5.7942
1519.5312,-19.9331,-5.8418,0.7388,5.2854,1.9589,-1.0245,5.1795,5.3822,-8.2053,-19.1439,-9.0614,-2.7466,-0.6979,1.3663,-9.9304,-2.9722,-4.7284,-4.0295,3.3826
1523.4375,-13.1010,-4.7016,0.2509,4.2867,0.6656,0.7992,7.0021,5.2206,-6.7939,-13.8300,-6.4045,-2.6513,-1.4131,-0.2949,-6.9591,0.7792,-3.2211,-4.8047,1.3997
1527.3438,0.1600,-1.2427,1.0639,3.8922,1.1975,4.5656,8.9166,5.8473,-2.8891,-3.4488,-1.1881,-1.2138,-0.8230,-0.9394,-0.9985,2.7947,-0.0024,-4.1921,0.4951
1531.2500,14.2512,2.7101,2.6676,3.8793,3.2379,8.5350,10.2457,6.8198,1.7914,7.8761,4.4228,0.7949,0.6444,-0.5756,5.7986,3.1335,3.7408,-2.8488,0.8524
1535.1562,23.2976,5.2177,4.2519,3.8728,5.6170,10.9033,10.6827,7.3884,5.2679,15.5404,8.1458,2.3905,2.2783,0.3382,10.8441,2.7306,6.7261,-1.6375,2.1114
1539.0625,24.2214,5.3573,5.0724,3.5956,6.9248,10.7593,10.3279,6.9374,6.2263,16.7578,8.7082,2.8897,3.3972,1.1924,12.3536,2.5527,8.0945,-1.1562,3.5485
1542.9688,18.0347,3.6647,4.7643,3.0298,6.2792,8.5029,9.5232,5.3945,4.5250,11.7506,6.3547,2.2227,3.5845,1.5804,10.1026,2.8470,7.6187,-1.4787,4.4174
1546.8750,8.7635,1.6162,3.4503,2.3867,3.8097,5.5042,8.6026,3.3323,1.0807,3.2991,2.5032,0.8725,2.7778,1.4935,5.3430,3.0113,5.6099,-2.2354,4.2686
1550.7812,0.8888,0.5371,1.6002,1.9127,0.5667,3.2355,7.6911,1.6566,-2.7171,-4.9083,-1.1600,-0.4919,1.2219,1.2381,0.0312,2.1512,2.6950,-2.9399,3.0886
1554.6875,-3.0107,0.7091,-0.2534,1.6764,-2.0928,2.4275,6.6541,1.0493,-5.6876,-10.0767,-3.5579,-1.4382,-0.6578,1.1460,-4.1218,-0.1095,-0.3741,-3.3206,1.2206
1558.5938,-3.0589,1.2932,-1.7618,1.4969,-3.2674,2.7720,5.2309,1.5212,-7.2785,-11.2834,-4.5723,-1.9763,-2.4024,1.2894,-6.2599,-3.1717,-2.8486,-3.4429,-0.8427
1562.5000,-1.1223,1.0914,-2.8246,1.0786,-2.9506,3.3318,3.3018,2.3919,-7.5727,-9.2901,-4.7570,-2.4360,-3.6445,1.4155,-6.4235,-5.7067,-4.1136,-3.5665,-2.6525
1566.4062,0.9679,-0.4382,-3.4684,0.2651,-1.8901,3.3484,1.1388,2.7409,-6.9874,-5.5765,-4.7211,-3.1298,-4.1867,1.1558,-5.1722,-6.4468,-3.8707,-3.8755,-3.8898
1570.3125,2.6689,-2.6769,-3.6738,-0.7791,-0.9959,2.8635,-0.5437,2.0475,-5.9279,-1.3643,-4.6555,-4.0560,-4.0256,0.3546,-3.1395,-4.9895,-2.3059,-4.2954,-4.3648
1574.2188,4.6470,-4.2452,-3.3236,-1.6176,-0.7304,2.6884,-0.8576,0.5761,-4.6267,2.7480,-4.3156,-4.8608,-3.3328,-0.7473,-0.8155,-2.0820,-0.1037,-4.5389,-4.0137
1578.1250,7.5875,-4.0323,-2.3388,-1.8310,-0.9107,3.7054,0.7479,-0.7827,-3.2340,6.4408,-3.4157,-5.0955,-2.4109,-1.6506,1.3867,0.7849,1.7802,-4.3490,-2.9563
1582.0312,10.9189,-2.1144,-0.9040,-1.3720,-1.0449,5.9841,4.0057,-1.1411,-2.0268,9.0546,-2.0989,-4.5927,-1.6456,-1.9934,2.9534,2.1915,2.5163,-3.7588,-1.5774
1585.9375,12.5194,0.1299,0.4268,-0.7321,-0.9159,8.3820,7.7255,-0.2905,-1.5159,9.3244,-1.0987,-3.6942,-1.4487,-1.9232,3.2240,1.5022,1.7557,-3.1717,-0.5152
1589.8438,9.7742,0.8355,0.8901,-0.7567,-0.9306,9.0209,10.2358,1.0570,-2.2998,5.8396,-1.4304,-3.1500,-2.1734,-2.1321,1.5994,-0.9214,-0.2659,-3.1801,-0.4702
1593.7500,1.3840,-1.1248,-0.0988,-2.1708,-1.9163,6.4395,10.2042,1.6678,-4.7059,-1.9433,-3.7771,-3.7177,-3.9897,-3.4574,-2.0801,-4.0524,-2.9266,-4.2233,-1.8755
1597.6562,-11.2637,-5.3340,-2.5627,-5.0864,-4.4687,0.6999,7.3808,0.5880,-8.4438,-12.7920,-7.9543,-5.6941,-6.7584,-6.2695,-7.2325,-6.8005,-5.5719,-6.2991,-4.6113
1601.5625,-24.1809,-9.9971,-5.8569,-8.8185,-8.3268,-6.3283,2.7905,-2.1854,-12.5417,-23.6330,-12.8126,-8.6681,-9.9830,-10.0640,-12.5513,-8.5043,-7.7913,-8.9139,-7.9721
1605.4688,-32.5030,-12.9867,-8.9528,-12.1661,-12.2842,-11.8128,-1.7864,-5.6311,-15.6913,-30.6505,-16.6929,-11.6629,-12.9213,-13.5891,-16.4295,-9.0837,-9.4671,-11.3111,-10.9651
1609.3750,-33.0202,-13.0978,-10.9636,-14.0273,-14.7877,-13.4996,-4.7521,-8.2964,-16.8687,-31.1495,-18.2206,-13.6049,-14.8549,-15.4930,-17.6447,-8.8652,-10.6337,-12.8411,-12.7958
1613.2812,-26.1071,-10.7213,-11.5874,-13.9913,-14.8773,-11.0299,-5.4801,-9.1767,-15.8926,-25.1930,-17.0246,-13.8603,-15.4047,-15.1126,-15.9795,-8.2710,-11.3116,-13.2528,-13.2544
1617.1875,-15.8678,-7.5472,-11.1894,-12.5408,-12.8374,-6.1980,-4.4907,-8.3031,-13.5699,-15.9782,-13.9811,-12.5430,-14.7095,-12.8905,-12.4350,-7.5802,-11.4668,-12.7465,-12.7575
1621.0938,-8.2433,-5.5349,-10.4804,-10.7339,-10.0818,-1.9577,-2.9670,-6.6591,-11.3021,-8.5142,-10.8284,-10.4284,-13.3396,-10.1235,-8.8639,-6.8659,-11.1016,-11.7849,-12.0178
1625.0000,-7.9627,-5.8141,-10.0231,-9.5577,-8.2988,-0.7629,-1.9929,-5.4986,-10.3392,-7.1292,-9.3212,-8.5332,-11.9675,-8.1807,-7.1361,-6.0860,-10.3512,-10.8019,-11.5626
1628.9062,-15.9225,-8.1487,-9.8977,-9.3513,-8.3882,-3.2222,-2.0264,-5.5227,-11.0937,-13.0843,-10.3401,-7.6007,-10.9829,-7.6801,-8.2078,-5.2276,-9.4505,-9.9947,-11.4174
1632.8125,-28.4239,-11.1783,-9.7316,-9.6485,-9.8745,-7.8249,-2.8683,-6.4478,-12.8968,-23.6354,-13.4010,-7.7585,-10.2921,-8.1480,-11.5615,-4.4031,-8.5627,-9.2972,-11.1495
1636.7188,-38.7587,-13.1717,-9.0280,-9.5151,-11.1809,-11.8160,-3.9913,-7.2134,-14.3304,-33.1535,-16.8190,-8.5043,-9.4290,-8.3701,-15.3352,-3.8363,-7.6101,-8.5027,-10.2135
1640.6250,-40.3909,-12.7997,-7.5301,-8.1513,-10.5901,-12.6305,-4.8628,-6.6618,-13.9390,-35.7960,-18.4576,-8.9893,-7.9053,-7.1950,-17.1301,-3.7412,-6.2821,-7.4155,-8.3399
1644.5312,-30.1362,-9.5618,-5.3637,-5.3785,-7.2914,-9.0662,-5.0174,-4.2477,-10.9372,-28.3577,-16.7124,-8.4336,-5.5696,-4.2704,-15.1391,-4.1564,-4.2718,-5.9302,-5.7049
1648.4375,-9.7405,-3.8120,-2.8935,-1.7348,-1.8818,-1.6534,-3.9614,-0.3643,-5.5629,-11.8336,-11.2643,-6.4758,-2.7437,-0.2639,-9.0519,-4.8438,-1.6007,-4.0282,-2.7998
1652.3438,14.8945,3.4419,-0.4537,1.8366,3.9438,7.7776,-1.2053,3.8524,1.0492,9.0640,-3.2569,-3.3250,-0.0617,3.5301,-0.2815,-5.3446,1.2179,-1.7571,-0.1400
1656.2500,36.3791,10.7875,1.8163,4.4793,8.2803,16.9323,3.3961,7.0728,7.3519,28.0956,5.1693,0.3151,1.8673,5.9104,8.6129,-5.2034,3.3410,0.7444,1.9589
1660.1562,49.0145,16.6762,3.9162,5.7970,9.9367,23.8343,9.1847,8.3523,11.9692,40.2169,11.7543,3.4991,2.7502,6.3635,15.0363,-4.2498,4.0321,3.1919,3.4028
1664.0625,50.9433,19.7864,5.7977,5.9313,8.9064,27.3161,14.5784,7.4757,14.1379,43.4955,14.9973,5.3782,2.6913,5.2136,17.4653,-2.7469,3.1045,5.1566,4.1910
1667.9688,44.3632,19.4864,7.2474,5.3673,6.2066,27.2123,17.6234,4.9700,13.8807,39.4259,14.6530,5.5163,2.0574,3.3207,16.0249,-1.2737,1.0759,6.1951,4.3064
1671.8750,33.9307,16.2084,7.9708,4.6342,3.2753,24.3246,17.0585,1.8495,11.9009,31.7140,11.6674,4.0744,1.2556,1.5769,12.2822,-0.3759,-1.0904,6.0806,3.7481
1675.7812,24.3442,11.4434,7.8252,4.0786,1.2946,20.1621,13.2350,-0.7749,9.2713,24.3124,7.6409,1.7773,0.5718,0.5134,8.3960,-0.2114,-2.5097,4.9907,2.6675
1679.6875,18.3694,7.1994,6.9998,3.7918,0.7628,16.4323,8.1745,-2.0862,7.0275,19.7158,4.1148,-0.3583,0.1344,0.1877,6.0746,-0.4558,-2.8387,3.4982,1.4478
1683.5938,16.1778,5.1049,5.9701,3.6687,1.4420,14.3787,4.5568,-1.8336,5.8040,18.2482,2.0156,-1.4481,-0.0403,0.3219,5.8616,-0.5700,-2.3872,2.3171,0.5906
1687.5000,16.0803,5.6281,5.2259,3.5201,2.6101,14.2463,4.1834,-0.3914,5.6485,18.4942,1.4684,-1.1347,-0.0033,0.5355,7.0701,-0.2570,-1.8238,1.9318,0.4348
1691.4062,16.0103,7.8890,4.9560,3.1738,3.4442,15.2048,6.9002,1.4338,6.0918,18.4658,1.9798,0.2462,0.1288,0.5257,8.3320,0.2432,-1.6867,2.3350,0.8969
1695.3125,14.8043,10.1979,4.9184,2.5329,3.3553,15.8458,10.7138,2.7786,6.4336,16.7969,2.8117,1.8287,0.1616,0.1360,8.4076,0.2863,-2.0365,3.0416,1.4439
1699.2188,12.5788,10.9950,4.5920,1.5869,2.1600,14.9930,13.0497,3.1049,6.0877,13.3338,3.3176,2.6372,-0.1506,-0.6620,6.7983,-0.6676,-2.4799,3.3668,1.3574
1703.1250,10.1365,9.6113,3.5072,0.3784,0.0594,12.3256,12.3169,2.3848,4.7985,8.8903,3.0996,2.0456,-1.0204,-1.8211,3.8591,-2.5392,-2.5344,2.7842,0.1411
1707.0312,7.9620,6.4224,1.5363,-1.0497,-2.5221,8.4267,8.7597,0.9947,2.6380,4.4474,2.0004,0.0406,-2.5266,-3.2665,0.4320,-4.5354,-2.0640,1.1492,-2.1857
1710.9375,5.6223,2.4063,-1.0241,-2.6826,-5.1264,4.2865,4.1032,-0.5830,-0.1383,0.4182,0.0504,-2.8250,-4.5586,-4.9156,-2.6937,-5.6177,-1.4649,-1.3044,-5.0870
1714.8438,2.0881,-1.4803,-3.5903,-4.4920,-7.3698,0.6930,0.3500,-2.0221,-3.2052,-3.4583,-2.5158,-5.7215,-6.8327,-6.6595,-5.1187,-5.2403,-1.4462,-4.1175,-7.7788
1718.7500,-3.1835,-4.6370,-5.5277,-6.3236,-8.9290,-2.0093,-1.3786,-3.1894,-6.1360,-7.4897,-5.1820,-7.8825,-8.9583,-8.3080,-6.7786,-3.8112,-2.5343,-6.7516,-9.5783
1722.6562,-9.1919,-6.7072,-6.3500,-7.7971,-9.4737,-3.6651,-1.2113,-3.9699,-8.2913,-11.1491,-7.1351,-8.8241,-10.5125,-9.5366,-7.6161,-2.4840,-4.6283,-8.6457,-10.1278
1726.5625,-13.2674,-7.2778,-5.8304,-8.3399,-8.6731,-3.9038,-0.0261,-4.0919,-8.8378,-12.7212,-7.4510,-8.3904,-11.1099,-9.9075,-7.3125,-2.3678,-6.9230,-9.2426,-9.4150
1730.4688,-12.2464,-5.8160,-4.0558,-7.4242,-6.3586,-2.0951,1.3636,-3.1869,-7.0543,-9.9793,-5.4899,-6.6968,-10.4897,-9.0201,-5.3641,-3.6984,-8.2867,-8.1125,-7.6676
1734.3750,-4.4066,-2.0328,-1.4551,-4.9267,-2.7753,2.1399,2.6567,-1.1183,-2.8383,-1.6632,-1.3209,-4.0747,-8.6332,-6.7599,-1.5043,-5.5858,-7.8876,-5.2103,-5.2532
1738.2812,9.0452,3.5722,1.2357,-1.3913,1.2783,8.2248,3.8974,1.6634,2.9231,11.1845,4.1073,-1.0491,-5.8682,-3.5105,3.8323,-6.5680,-5.6913,-1.1237,-2.6434
1742.1875,24.0436,9.5042,3.1450,2.0372,4.6164,14.4041,5.0140,4.0891,8.4836,25.0779,9.2383,1.7080,-2.8666,-0.1503,9.4051,-5.6119,-2.5219,2.9361,-0.3939
1746.0938,35.4945,13.7556,3.5875,4.0680,6.1494,18.4107,5.6097,4.9313,11.9528,35.5209,12.5517,3.5244,-0.4647,2.2487,13.6057,-2.8628,0.3525,5.5408,0.9526
1750.0000,39.8935,14.8197,2.4066,3.9069,5.4484,18.7473,5.2501,3.5475,12.2527,39.3089,13.2516,3.9664,0.6590,2.9139,15.2321,0.3962,1.8627,5.7215,1.0545
1753.9062,37.1281,12.6057,0.1263,1.7190,3.0307,15.7152,3.9738,0.4182,9.7246,36.2731,11.6062,3.0552,0.2932,1.7896,14.1172,2.5556,1.6338,3.5377,-0.0433
1757.8125,30.2849,8.5895,-2.2398,-1.3938,0.1352,11.3638,2.4916,-2.9517,5.9533,29.2675,8.7341,1.3072,-1.1945,-0.3885,11.1864,2.6984,0.0741,0.1512,-1.8697
1761.7188,23.5544,5.0066,-3.6632,-3.9232,-1.9209,8.2497,1.7825,-4.7999,2.8671,22.3200,5.9758,-0.4670,-3.0289,-2.4409,7.8885,1.1293,-1.9387,-2.7101,-3.6972
1765.6250,19.6077,3.5599,-3.5965,-4.6986,-2.4227,7.7888,2.3430,-4.1009,1.6714,18.1363,4.2411,-1.5144,-4.3928,-3.3340,5.3746,-0.9141,-3.5349,-3.6267,-4.8421
1769.5312,18.1996,4.4802,-2.1913,-3.4176,-1.5505,9.3591,3.7122,-1.1548,2.3002,16.6396,3.7142,-1.4506,-4.7753,-2.6713,3.9676,-2.1152,-4.2008,-2.1919,-4.9284
1773.4375,16.9112,6.5568,-0.1152,-0.6799,-0.1174,10.8371,4.7361,2.6197,3.7151,15.5327,4.0340,-0.3616,-4.1132,-0.8124,3.2429,-1.8771,-3.8499,0.8641,-3.9755
1777.3438,13.4398,8.0949,1.8893,2.4394,1.0411,10.2215,4.4473,5.5501,4.7939,12.4425,4.7385,1.3330,-2.6822,1.4173,2.5978,-0.5464,-2.6776,4.1762,-2.2990
1781.2500,7.7415,8.1215,3.3994,4.9717,1.5931,7.1882,2.9036,6.6629,5.1526,7.0648,5.6155,3.1401,-0.8577,3.2140,1.8451,1.0031,-0.9787,6.5331,-0.3216
1785.1562,2.4363,7.0184,4.4208,6.4461,1.8163,3.4423,1.2992,6.1215,5.3350,1.7192,6.7289,4.7128,1.0784,4.1785,1.3879,2.0410,0.9381,7.4688,1.5866
1789.0625,1.1465,6.1886,5.2057,6.9286,2.2710,1.5955,1.1971,4.9263,6.2925,-0.1146,8.1807,5.9332,2.9875,4.4063,1.8831,2.4069,2.7488,7.3496,3.1889
1792.9688,5.9453,7.0463,5.9788,6.8025,3.3387,3.3672,3.4072,4.1594,8.5994,3.7649,9.8773,6.8719,4.8107,4.3096,3.6977,2.4540,4.1369,6.9956,4.4098
1796.8750,15.7435,10.0517,6.7948,6.5083,4.9761,8.3836,7.3312,4.3233,11.9970,12.6225,11.5328,7.6988,6.4959,4.3434,6.6021,2.6625,4.9113,7.1417,5.3388
1800.7812,26.7603,14.4139,7.5907,6.3952,6.8190,14.3911,11.2528,5.1812,15.5620,23.0770,12.9000,8.5961,7.9808,4.8043,9.9120,3.2817,5.1590,8.0667,6.1932
1804.6875,34.7210,18.5696,8.3077,6.6780,8.4741,18.6670,13.3583,6.0968,18.2961,31.0892,13.9864,9.6697,9.2085,5.7542,12.9161,4.2460,5.2715,9.5369,7.1935
1808.5938,37.2129,21.0220,8.9148,7.4003,9.7130,19.5865,12.7570,6.5304,19.6446,34.2043,15.0055,10.8459,10.1128,7.0194,15.2007,5.3316,5.7397,10.9909,8.3629
1812.5000,34.6027,20.9727,9.2985,8.3561,10.4192,17.2888,9.8256,6.3040,19.5824,32.5154,16.0482,11.7938,10.5563,8.2093,16.6127,6.3222,6.7950,11.7978,9.3714
1816.4062,29.0517,18.4412,9.1576,9.0483,10.3979,13.1307,5.7488,5.5092,18.3087,27.8581,16.7463,11.9668,10.2966,8.7712,16.9550,7.0116,8.1448,11.4736,9.5898
1820.3125,22.5877,13.9960,8.0859,8.8155,9.3078,8.5215,1.7099,4.2423,15.9222,22.0767,16.2802,10.8287,9.0765,8.1467,15.7795,7.0942,9.0426,9.8352,8.4188
1824.2188,15.8087,8.4427,5.8695,7.1626,6.8689,4.0970,-1.6432,2.4646,12.4235,15.8117,13.8540,8.1998,6.8418,6.0429,12.5822,6.1539,8.7202,7.1041,5.7467
1828.1250,8.1814,2.7101,2.8038,4.1383,3.2329,-0.2082,-4.1669,0.1304,8.0496,8.7098,9.3802,4.5222,3.9537,2.7101,7.3471,3.8974,6.9340,3.9232,2.2291
1832.0312,-0.4421,-2.1271,-0.2501,0.5004,-0.7899,-4.4210,-5.8353,-2.5434,3.6007,0.7348,3.8852,0.8295,1.2046,-0.9686,1.0248,0.5267,4.2505,1.2148,-0.8637
1835.9375,-8.4717,-4.9294,-2.1934,-2.5082,-3.9007,-7.8826,-6.4624,-4.9400,0.3739,-6.6545,-0.7302,-1.6379,-0.4504,-3.7090,-4.5147,-3.0573,1.8442,-0.1363,-2.2203
1839.8438,-12.6758,-4.8274,-2.2380,-3.6980,-4.8534,-9.3226,-5.8026,-6.2136,-0.3781,-10.6032,-2.5244,-1.9887,-0.3270,-4.3299,-7.1805,-5.4843,0.9007,0.3441,-1.1602
1843.7500,-9.8968,-1.6773,-0.3189,-2.4956,-3.0619,-7.6523,-3.8917,-5.7029,1.8581,-8.3670,-0.4783,-0.0864,1.6512,-2.2891,-5.6619,-5.5504,1.9959,2.5021,2.0188
1847.6562,0.7185,3.6915,2.9022,0.7919,1.0925,-2.8671,-1.2485,-3.3243,6.4865,0.7598,4.9808,3.4359,4.9279,2.0330,-0.1337,-2.9062,4.8313,5.6449,6.2427
1851.5625,16.5453,9.6847,6.4200,5.1383,6.4165,3.6445,1.3095,0.3061,12.0211,14.4696,12.1805,7.5345,8.6021,7.4536,7.7623,1.6527,8.4576,8.8908,10.2547
1855.4688,32.2789,14.5499,9.3557,9.2520,11.3923,9.6428,3.1088,4.0962,16.7473,28.1784,18.9630,11.2252,11.8163,12.4385,15.6271,6.5169,11.7857,11.5477,13.1839
1859.3750,42.3268,17.0415,11.1939,12.0452,14.7059,13.0826,3.9447,6.9081,19.3988,37.0997,23.5366,13.8674,13.9878,15.6501,21.2687,10.0460,14.0311,13.2738,14.7271
1863.2812,43.4241,16.7791,11.7058,12.9134,15.5918,13.0134,4.0236,7.9769,19.4887,38.4591,24.9998,15.1515,14.7994,16.3604,23.4169,11.3427,14.8538,13.9623,14.9216
1867.1875,36.0336,14.1757,10.7688,11.7986,13.9613,9.8702,3.6170,7.1548,17.2434,32.6442,23.4126,14.9401,14.0863,14.6156,21.9441,10.5812,14.2323,13.5303,13.8192
1871.0938,23.9003,10.1054,8.3646,9.1389,10.4020,5.1332,2.7969,4.9343,13.3585,22.8041,19.5764,13.2093,11.8359,11.1689,17.6870,8.7482,12.3037,11.8659,11.4234
1875.0000,12.1809,5.5848,4.8148,5.7796,6.0895,0.6676,1.5248,2.2755,8.8044,13.2773,14.7381,10.1881,8.3626,7.2441,12.1049,7.0130,9.3618,9.0233,7.9644
1878.9062,5.1926,1.5940,0.9965,2.8085,2.5346,-1.9232,-0.0067,0.2810,4.6955,7.7091,10.2891,6.5374,4.4752,4.1754,6.9090,6.1228,5.9775,5.4824,4.2109
1882.8125,4.7885,-1.0489,-1.8146,1.2359,1.0900,-1.7800,-1.1907,-0.2192,2.0602,7.6644,7.3954,3.2848,1.3577,2.9661,3.6328,6.1354,3.0229,2.1578,1.4011
1886.7188,9.8855,-1.9028,-2.5649,1.5578,2.3230,0.9185,-1.2991,0.9561,1.4268,12.1760,6.5534,1.3985,0.0688,3.8836,3.1189,6.5601,1.4151,0.0081,0.6533
1890.6250,17.1617,-1.1716,-1.1522,3.4315,5.6006,4.9197,-0.1186,3.2003,2.4221,18.2984,7.2749,1.2163,0.9113,6.2888,5.0950,6.7463,1.6476,-0.5488,2.2001
1894.5312,22.5964,0.2307,1.3241,5.7507,9.2618,8.2745,1.6244,5.3723,3.7792,22.4635,8.2271,2.1703,3.1412,8.8765,8.1741,6.2762,3.4291,0.0394,5.0566
1898.4375,23.3197,1.0688,3.1375,7.2123,11.4535,9.1841,2.5638,6.3981,3.9852,22.1905,7.9606,3.1178,5.3367,10.3091,10.4948,5.1734,5.7538,0.7329,7.5113
1902.3438,19.0671,0.5587,3.0744,7.1049,11.2178,7.0269,1.6798,5.9181,2.3122,17.4523,5.9140,3.1465,6.2849,9.9488,10.7869,3.8594,7.4482,0.6721,8.2229
1906.2500,12.4986,-0.9538,1.3632,5.8000,9.1276,2.9475,-0.7208,4.5554,-0.4677,10.9289,3.0208,2.2992,5.8049,8.2410,9.2213,2.9043,7.8663,-0.0962,7.1763
1910.1562,7.9756,-1.9994,-0.3585,4.5396,6.9602,-0.5523,-2.8920,3.5574,-2.3399,6.7488,1.3385,1.6275,4.8815,6.4489,7.3780,2.6903,7.2477,-0.5449,5.7458
1914.0625,9.1557,-0.8827,-0.1570,4.5751,6.5185,-1.0160,-2.7090,3.9670,-1.3223,8.1426,2.7366,2.4245,4.9323,5.8376,7.1957,3.1554,6.4628,0.5837,5.7118
1917.9688,16.6307,3.0056,2.7130,6.2113,8.3514,2.3361,0.7199,5.8483,3.0036,15.2774,7.4227,5.1259,6.6767,6.8072,9.5269,3.7707,6.3162,3.6778,7.8710
1921.8750,27.1333,8.3958,7.0348,8.4552,11.2780,7.8666,6.0800,8.1248,8.8259,24.7385,13.3876,8.7037,9.4344,8.5665,13.3342,3.8136,6.9214,7.6398,11.2593
1925.7812,35.1316,12.5982,10.2379,9.6010,13.1192,12.3542,10.3958,9.2138,12.9581,31.3001,17.3570,11.1039,11.4314,9.6137,16.2215,2.8250,7.6226,10.3272,13.6379
1929.6875,36.1384,13.1159,10.0887,8.4116,12.1921,13.0316,10.9120,8.0849,12.8293,31.1354,16.8078,10.5448,10.9819,8.7364,16.0602,0.9808,7.5279,9.8833,12.9955
1933.5938,29.7303,9.4067,6.3247,5.0837,8.5399,9.5199,7.0771,5.0339,8.3130,24.4470,11.7493,6.8101,7.7391,5.8588,12.5962,-0.9060,6.2502,6.0803,9.0362
1937.5000,20.1419,3.5172,1.0402,1.2694,4.0037,4.2578,1.1740,1.6138,2.0524,15.6022,4.9619,1.5873,3.0960,2.1386,7.8167,-1.8342,4.2749,0.6891,3.5621
1941.4062,13.6997,-1.0341,-2.5563,-0.9361,1.0375,0.9670,-2.9933,-0.2778,-2.1118,10.3784,0.3512,-2.4850,-0.6177,-0.7762,4.6740,-1.2809,2.6528,-3.4985,-0.5998
1945.3125,14.5090,-1.5361,-2.2456,-0.3910,1.0601,2.0738,-2.5778,0.4248,-1.6777,11.9412,0.3895,-3.4815,-1.6408,-1.8256,4.9725,0.3655,2.2300,-4.4220,-1.4427
1949.2188,21.2238,1.9697,1.6526,2.2712,3.4832,6.8381,2.3337,3.2845,2.7150,18.2638,4.3551,-1.4442,0.0404,-1.2065,7.9215,1.9602,2.9893,-2.1133,0.8641
1953.1250,27.2852,6.4808,6.3683,4.9845,6.0915,11.5668,8.6382,6.6229,7.5145,22.9578,8.6430,1.6535,2.6669,-0.1730,10.4777,2.3207,4.0075,1.2860,4.0573
1957.0312,24.8357,7.8513,8.3963,5.5541,6.5097,11.9073,12.1422,8.5152,8.4819,19.2645,9.0629,3.2346,3.8718,-0.1246,9.3589,1.0523,4.0762,2.9105,5.2622
1960.9375,9.9869,3.5286,5.7248,3.0573,3.7490,5.7640,10.2329,7.8612,3.4983,4.7374,3.6586,1.8410,2.2430,-1.6315,3.3870,-1.1110,2.5437,1.0576,2.8779
1964.8438,-13.9881,-5.5900,-0.8706,-1.5777,-1.1940,-5.1010,3.5263,4.8786,-5.8934,-16.4998,-5.8242,-1.9169,-1.7648,-4.0728,-5.4795,-2.7531,-0.2260,-3.6734,-2.3898
1968.7500,-37.7909,-15.4565,-8.2719,-6.1618,-6.0249,-15.8812,-4.5554,0.8072,-15.2479,-35.5721,-14.8305,-5.8041,-6.1536,-6.1015,-13.1849,-2.7468,-3.0890,-8.7341,-7.9932
1972.6562,-51.0702,-21.1877,-12.8600,-8.5663,-8.5858,-21.4596,-9.9196,-2.8668,-19.8062,-43.7627,-18.6961,-7.4551,-8.6729,-6.5685,-16.0221,-1.0782,-4.8604,-11.2100,-11.1345
1976.5625,-48.2413,-19.9339,-12.5453,-7.9000,-8.0552,-19.3266,-10.2005,-5.1241,-17.2632,-37.4956,-15.4225,-5.8803,-8.1835,-5.2441,-12.8571,1.0923,-5.0225,-9.5857,-10.4023
1980.4688,-31.6033,-12.4946,-7.7693,-4.8425,-5.1996,-10.8855,-5.9111,-5.6877,-9.0075,-20.3323,-6.7847,-1.9975,-5.2263,-2.8731,-5.6966,2.2185,-3.9313,-4.5785,-6.4399
1984.3750,-9.9417,-2.7351,-1.0113,-1.0574,-1.6759,-0.4636,0.2138,-4.8685,0.8294,-0.8666,2.8271,2.0768,-1.5217,-0.6049,1.6660,1.4619,-2.4495,1.3952,-1.3517
1988.2812,6.3752,4.7117,4.7069,1.8066,1.0036,7.1907,5.0443,-3.2562,7.7802,12.0235,8.9727,4.3976,1.1541,0.7327,5.9070,-0.7016,-1.3378,5.6670,2.6151
1992.1875,10.7566,6.9494,7.3264,2.8601,2.1404,9.3139,6.7766,-1.5120,9.3597,13.6225,9.4740,4.2738,1.9355,1.0065,5.8290,-2.8275,-0.8584,6.7104,4.2153
1996.0938,3.1687,4.0497,6.4658,2.1141,1.8580,6.1098,5.5651,-0.2894,5.9917,5.0641,5.1633,2.4217,1.1259,0.6198,2.4972,-3.5649,-0.8122,4.6921,3.5564
2000.0000,-10.8493,-1.5143,3.1810,0.1473,0.6799,0.0432,2.9468,-0.1337,0.2512,-8.2502,-1.1128,0.2534,-0.2578,0.0581,-1.9254,-2.6623,-0.8753,1.0322,1.6552
2003.9062,-23.7998,-6.6017,-0.8257,-2.3046,-0.8636,-5.7929,0.6966,-1.2545,-4.8382,-20.0298,-6.3331,-1.0828,-1.2108,-0.4516,-5.6090,-1.1661,-0.8987,-2.5581,-0.3155
2007.8125,-30.0672,-9.1025,-3.9934,-4.5497,-2.3338,-9.1422,-0.0812,-3.2809,-7.3238,-26.0683,-8.7605,-1.2529,-1.2409,-0.9363,-7.7739,-0.6506,-0.9396,-4.9002,-1.5703
2011.7188,-27.9812,-8.6792,-5.3691,-5.9561,-3.2897,-9.2136,0.7736,-5.2652,-6.9078,-25.3795,-8.3186,-0.6418,-0.4339,-1.4310,-8.4597,-2.0342,-1.0671,-5.6450,-1.8449
2015.6250,-19.5686,-6.4148,-4.7591,-6.0090,-3.2973,-6.5132,2.7026,-6.0966,-4.5821,-19.5287,-6.0346,0.1243,0.7764,-1.8012,-7.8926,-4.8531,-1.1912,-5.0974,-1.2717
2019.5312,-8.8366,-3.9019,-2.7015,-4.5505,-2.1860,-2.3429,4.7886,-5.1711,-1.8282,-11.2163,-3.2165,0.5861,1.8632,-1.8440,-6.1704,-7.5263,-1.1136,-3.8775,-0.2451
2023.4375,0.1380,-2.4343,-0.3051,-2.0605,-0.3657,1.6612,6.0319,-2.8802,0.0648,-3.1608,-0.9409,0.5381,2.3429,-1.5791,-3.5108,-8.4234,-0.7658,-2.6713,0.6415
2027.3438,4.5114,-2.6359,1.1102,0.3374,1.1640,3.9146,5.5982,-0.5053,0.3376,2.4129,0.0616,-0.1032,1.8487,-1.4179,-0.6637,-6.9599,-0.3907,-2.0939,0.7088
2031.2500,3.2834,-4.4426,0.5772,1.3398,1.2991,3.3437,3.1587,0.5235,-1.1490,4.0370,-0.5933,-1.3721,0.2632,-1.9619,1.1214,-3.9432,-0.4438,-2.5497,-0.5187
2035.1562,-2.5539,-7.2160,-1.9676,0.2224,-0.4116,-0.0900,-0.7570,-0.4283,-3.9162,1.4012,-2.8054,-3.1249,-2.0966,-3.4990,0.7736,-0.9565,-1.2347,-4.0404,-2.9325
2039.0625,-10.2779,-9.9069,-5.5161,-2.5999,-3.2758,-5.1118,-4.7057,-2.6958,-6.9620,-4.2357,-5.8020,-4.8574,-4.4205,-5.5765,-1.7317,0.7314,-2.5827,-6.0493,-5.6666
2042.9688,-16.2790,-11.3625,-8.4452,-5.6737,-5.6830,-9.4840,-6.8392,-4.6547,-9.0731,-10.1720,-8.2380,-5.7582,-5.6637,-7.0557,-5.0711,0.9240,-3.8097,-7.6971,-7.4007
2046.8750,-17.4999,-10.8253,-9.4431,-7.3207,-6.0229,-11.0301,-5.8708,-4.7436,-9.3769,-13.3018,-8.7840,-5.1260,-5.1013,-6.7366,-7.2427,0.4084,-4.1552,-8.2044,-7.0967
2050.7812,-12.9667,-8.4285,-8.3569,-6.6947,-3.7531,-8.8462,-1.9593,-2.5205,-7.8968,-11.7304,-6.9671,-2.9340,-2.8757,-4.2009,-6.8476,0.1612,-3.3563,-7.4230,-4.7493
2054.6875,-4.5185,-5.3163,-6.3649,-4.3809,0.1080,-3.9307,3.1318,0.9581,-5.7091,-5.9961,-3.6779,-0.0996,-0.1266,-0.2901,-4.0818,0.5100,-1.9602,-6.0490,-1.6052
2058.5938,3.9155,-3.1484,-5.2696,-2.0844,3.4548,1.2635,6.8489,3.7166,-4.4596,1.0212,-0.8537,1.8568,1.5030,3.1829,-0.6735,0.9079,-1.0785,-5.2820,0.4123
2062.5000,8.2843,-3.1763,-6.3098,-1.5590,4.2929,4.1606,7.2307,4.0439,-5.4182,5.6172,-0.3903,1.6571,0.7777,4.3941,1.2507,0.4751,-1.6869,-6.0717,-0.1897
2066.4062,6.5292,-5.4618,-9.2664,-3.4537,1.9289,3.4649,4.0150,1.5273,-8.6368,5.3203,-2.9335,-0.8984,-2.3352,2.5744,0.5917,-1.1406,-3.9160,-8.4270,-3.5056
2070.3125,-0.4541,-8.8057,-12.4894,-6.8431,-2.6004,-0.2504,-1.2452,-2.7160,-12.7957,0.1879,-7.3722,-4.6848,-6.5173,-1.4932,-2.0110,-3.2836,-6.8312,-11.2818,-8.0436
2074.2188,-9.5876,-11.4992,-13.8756,-9.7671,-7.1279,-5.1001,-6.1325,-6.7325,-15.9149,-7.4561,-11.4332,-7.8224,-9.7514,-5.8805,-4.6750,-4.6015,-8.8959,-13.0645,-11.4933
2078.1250,-17.5342,-12.4079,-12.1856,-10.4427,-9.6029,-9.1367,-8.7566,-8.8825,-16.5191,-14.5697,-13.0324,-8.7440,-10.4248,-8.5874,-5.5992,-3.9613,-8.8605,-12.6396,-12.0123
2082.0312,-22.4450,-11.6311,-7.8488,-8.3647,-9.2145,-11.4070,-8.6905,-8.7097,-14.5166,-19.1175,-11.5114,-7.0984,-8.2342,-8.6295,-4.2709,-1.3246,-6.5285,-10.0182,-9.2611
2085.9375,-24.4301,-10.2689,-2.7440,-4.5929,-6.7334,-12.1443,-6.9106,-7.0227,-11.2184,-20.8526,-7.9677,-3.9236,-4.3479,-6.4880,-1.7404,2.0574,-2.9187,-6.3701,-4.5669
2089.8438,-24.6568,-9.4886,0.8892,-1.0613,-3.9246,-12.1122,-4.8949,-5.2061,-8.4948,-20.8155,-4.5068,-1.0022,-0.7344,-3.6923,0.1511,4.2998,0.2773,-3.3308,-0.1457
2093.7500,-23.9829,-9.6030,1.7022,0.6187,-2.4535,-11.7332,-3.5811,-4.2698,-7.6341,-20.1481,-2.9549,0.1751,0.9306,-1.8475,-0.0135,3.9862,1.6097,-2.0559,2.1228
2097.6562,-22.2662,-9.8570,-0.1112,0.0864,-2.9705,-10.7291,-2.9022,-4.2603,-8.6441,-19.2121,-3.8737,-0.8098,0.1311,-1.7347,-2.4053,1.0123,0.6152,-2.6201,1.6363
2101.5625,-18.8224,-9.0680,-3.0989,-1.6729,-4.8860,-8.5236,-2.1323,-4.3796,-10.4029,-17.6101,-6.4369,-3.2076,-2.3311,-3.0150,-5.9846,-3.3515,-2.0194,-4.1073,-0.7763
2105.4688,-13.5104,-6.6129,-5.4957,-3.0675,-6.8872,-5.0173,-0.6810,-3.6707,-11.4860,-14.9153,-9.1088,-5.6671,-4.9215,-4.6416,-9.2239,-7.1978,-4.9165,-5.2692,-3.4894
2109.3750,-7.4152,-2.9968,-6.1890,-2.9427,-7.8014,-1.0395,1.3073,-1.7752,-11.0654,-11.3675,-10.5701,-7.0373,-6.2972,-5.6358,-10.9421,-9.0453,-6.7717,-5.2865,-5.0479
2113.2812,-2.4571,0.4291,-5.1434,-1.2433,-7.2515,1.9592,2.9865,0.7477,-9.2956,-7.8991,-10.2935,-6.9097,-6.0016,-5.6892,-10.7340,-8.5881,-6.9700,-4.1461,-4.8814
2117.1875,-0.1647,2.3813,-3.1370,1.0922,-5.7378,2.8069,3.4136,2.7444,-7.0033,-5.4679,-8.5258,-5.6390,-4.5495,-5.2216,-8.8744,-6.7236,-5.7416,-2.4572,-3.4066
2121.0938,-0.5552,2.5044,-1.1059,2.8684,-4.1652,1.4572,2.2572,3.2106,-4.9870,-4.2613,-5.8773,-3.9419,-2.9223,-4.9196,-5.9508,-4.9012,-3.8478,-0.9075,-1.5660
2125.0000,-2.0065,1.5635,0.4282,3.4612,-3.1765,-0.8475,0.0994,1.9719,-3.4582,-3.4409,-2.9151,-2.4010,-1.8513,-5.1219,-2.5571,-4.2161,-2.0497,0.2305,-0.1658
2128.9062,-2.2613,0.8701,1.5249,3.1843,-2.7348,-2.2523,-1.8622,-0.1359,-1.9920,-1.6627,-0.0180,-1.1891,-1.3585,-5.4955,0.8089,-4.7780,-0.6957,1.2219,0.5669
2132.8125,0.1363,1.3982,2.5815,2.9844,-2.2115,-1.3810,-2.4945,-1.7068,0.0354,1.9824,2.5414,-0.1205,-0.8290,-5.2268,3.7325,-5.6882,0.3616,2.5866,0.9858
2136.7188,4.9506,3.2227,3.9327,3.7161,-0.8937,1.8524,-1.3474,-1.5640,2.8804,7.2612,4.4987,1.0814,0.4709,-3.5932,5.9022,-5.6060,1.5255,4.6463,1.6614
2140.6250,10.4556,5.6122,5.5836,5.5121,1.4408,6.2002,1.1464,0.5620,6.1450,12.7864,5.6413,2.5164,2.7949,-0.5275,7.1919,-3.5727,3.0875,7.2224,2.9311
2144.5312,14.4972,7.6120,7.2168,7.6706,4.2694,9.7963,3.9579,3.8755,8.9525,16.6835,5.9539,4.0062,5.6395,3.2079,7.7003,0.3549,4.9691,9.6742,4.6541
2148.4375,15.6735,8.6470,8.4141,9.1153,6.5695,11.1780,6.0257,6.9657,10.4472,17.5242,5.6977,5.1913,7.9708,6.3631,7.6570,5.0051,6.7196,11.2359,6.2968
2152.3438,13.9544,8.7578,8.9148,9.1032,7.4143,10.0413,6.7780,8.5877,10.2912,15.0301,5.3076,5.7409,8.8106,7.8563,7.2498,8.5911,7.7504,11.4366,7.2606
2156.2500,10.5368,8.4235,8.7579,7.7058,6.5435,7.3689,6.3714,8.3142,8.8642,10.2553,5.1624,5.5473,7.8108,7.3475,6.5420,9.5775,7.6544,10.3607,7.2331
2160.1562,7.1957,8.2112,8.2512,5.7650,4.5424,4.9277,5.5742,6.6886,7.0761,5.2239,5.4054,4.8019,5.4619,5.3872,5.5840,7.4789,6.4250,8.6198,6.3537
2164.0625,5.5324,8.5208,7.8122,4.3754,2.5101,4.4160,5.3749,4.8234,5.9203,2.1750,5.9427,3.9183,2.8194,3.0682,4.6190,3.1702,4.4595,7.0648,5.1174
2167.9688,6.3749,9.5017,7.7698,4.2437,1.4198,6.6467,6.4836,3.7131,6.0053,2.6421,6.5852,3.3387,0.9287,1.4036,4.1336,-1.4898,2.3609,6.3909,4.0997
2171.8750,9.4207,11.0427,8.2112,5.3222,1.5698,11.1023,8.9288,3.6851,7.2808,6.6690,7.1726,3.3098,0.3048,0.8078,4.5877,-4.5691,0.6596,6.8207,3.6674
2175.7812,13.2069,12.7386,8.9272,6.9074,2.4578,16.0564,11.9292,4.2965,9.0625,12.5242,7.5583,3.7373,0.7567,0.9711,5.9516,-5.0537,-0.3934,8.0002,3.8272
2179.6875,15.5546,13.8914,9.4750,8.0881,3.1416,19.2625,14.1426,4.6952,10.3347,17.2234,7.4993,4.2051,1.6144,1.1658,7.4345,-3.3833,-0.8619,9.1519,4.2620
2183.5938,14.5316,13.6991,9.3476,8.2310,2.8444,18.9740,14.2434,4.1886,10.2079,17.8437,6.6298,4.1716,2.1706,0.7592,7.7520,-1.2072,-0.9941,9.4189,4.5053
2187.5000,9.6188,11.6768,8.1946,7.2215,1.4260,14.8555,11.5994,2.6647,8.3485,13.1175,4.6515,3.2623,2.0470,-0.3909,5.9071,-0.4518,-1.0240,8.2544,4.1534
2191.4062,2.4053,8.1016,6.0093,5.3791,-0.5546,8.2994,6.7122,0.6356,5.1906,4.4268,1.6704,1.5055,1.2918,-1.8894,2.0124,-2.1910,-1.0274,5.6832,3.0294
2195.3125,-3.8382,4.1198,3.1897,3.1831,-2.1912,1.8833,1.1419,-1.0824,1.8043,-4.5531,-1.5869,-0.6286,0.2168,-3.0996,-2.4734,-5.9620,-0.9158,2.3088,1.2573
2199.2188,-5.7647,1.2959,0.4268,1.0313,-2.7588,-1.8530,-3.1167,-1.8308,-0.5585,-9.6036,-3.9362,-2.4313,-0.8589,-3.5707,-5.4024,-9.9471,-0.5599,-0.9451,-0.7602
2203.1250,-1.9426,0.7717,-1.5492,-0.8318,-2.1012,-1.6967,-4.5341,-1.4420,-1.0530,-8.2523,-4.2955,-3.3054,-1.7734,-3.3194,-5.1820,-11.9592,0.0453,-3.2380,-2.4536
2207.0312,6.0285,2.5554,-2.2524,-2.2374,-0.6770,1.6209,-2.7607,-0.2810,0.3302,-1.2559,-2.3392,-3.0702,-2.5150,-2.7996,-1.8289,-10.6890,0.6909,-4.1543,-3.2715
2210.9375,14.1646,5.4568,-1.6222,-2.9942,0.7241,5.8808,1.2355,0.9969,2.7480,7.7114,1.1956,-2.0414,-3.1019,-2.5912,2.9008,-6.4851,1.0163,-3.8105,-2.8909
2214.8438,18.3021,7.7835,-0.0059,-2.8808,1.4168,8.6750,5.6930,1.8206,4.9465,14.0954,4.8189,-0.8296,-3.4694,-3.0051,6.4714,-1.1865,0.7112,-2.6802,-1.3684
2218.7500,16.5640,8.3811,2.0441,-1.7393,1.1823,8.7834,8.9570,2.0189,5.9473,15.0499,7.0872,0.0324,-3.4464,-3.8428,7.0650,2.9229,-0.2456,-1.2574,0.8642
2222.6562,10.5140,7.3310,4.0520,0.4144,0.3954,6.7988,10.2574,1.9246,5.6018,11.0123,7.4243,0.4161,-2.8229,-4.4513,4.6864,4.4301,-1.4598,0.2274,3.1902
2226.5625,4.2232,5.8406,5.8187,3.3463,-0.1331,4.6400,9.9519,2.2083,4.6842,5.3202,6.4456,0.6764,-1.4549,-4.0498,1.1798,3.5827,-2.2203,1.8610,5.1035
2230.4688,1.8371,5.4155,7.4232,6.6422,0.4558,4.2992,9.1365,3.4925,4.4458,2.1520,5.5676,1.4189,0.6405,-2.1664,-0.8572,2.0544,-1.8268,3.8424,6.4311
2234.3750,5.2003,6.8847,9.0215,9.7760,2.5914,6.6330,8.8941,5.9053,5.8638,4.0982,6.1302,3.0763,3.2154,1.0342,0.4014,1.8106,-0.0086,6.1670,7.3221
2238.2812,12.9984,9.9191,10.5658,12.1549,5.9056,10.9251,9.6347,8.8037,9.0076,10.8191,8.5629,5.5346,5.7578,4.6983,4.9511,3.7759,2.7918,8.4230,7.9874
2242.1875,21.8013,13.3004,11.6416,13.1617,9.1905,15.4073,10.8995,10.8710,12.8904,19.4654,12.0922,8.0434,7.5351,7.5534,10.9504,7.1574,5.4729,9.8658,8.3689
2246.0938,28.1470,15.6808,11.5733,12.2661,10.8005,18.3071,11.7011,10.6490,15.9085,26.4160,15.1512,9.5032,7.7729,8.4098,15.7176,9.8913,6.7174,9.7589,8.0089
2250.0000,30.2500,16.2881,9.7948,9.2483,9.4168,18.7252,11.1617,7.3168,16.6456,29.1652,16.2353,9.0159,5.9777,6.6930,17.1330,9.9704,5.6507,7.8034,6.2867
2253.9062,28.3872,15.1654,6.2974,4.4603,4.8418,16.8641,9.0526,1.3233,14.6130,27.2944,14.7092,6.4202,2.2895,2.7705,14.6817,6.8184,2.3806,4.4018,2.9307
2257.8125,24.0448,12.9179,1.8656,-1.0608,-1.6303,13.6224,5.9242,-5.5423,10.5323,22.1942,11.1285,2.5107,-2.3516,-2.0987,9.6345,1.8044,-1.9130,0.5874,-1.5346
2261.7188,18.7017,10.2623,-2.1152,-5.8030,-7.5878,9.9593,2.7719,-10.8081,6.0056,15.9847,6.9306,-1.2243,-6.4165,-6.2163,4.3393,-2.4905,-5.4593,-2.3780,-5.7760
2265.6250,13.1471,7.7071,-4.2611,-8.3242,-10.5589,6.4711,0.4555,-12.4613,2.7418,10.4157,3.6959,-3.2623,-8.3862,-8.1349,1.0264,-3.8399,-6.7532,-3.5499,-8.2009
2269.5312,7.5977,5.4848,-3.9126,-7.9065,-9.2573,3.3530,-0.7778,-9.9904,1.7336,6.2994,2.3784,-2.7938,-7.4868,-7.2832,0.7272,-1.7891,-5.3458,-2.7262,-7.8128
2273.4375,2.1960,3.6254,-1.5591,-4.9608,-4.3252,0.6013,-1.3878,-4.7214,2.8027,3.5493,2.8922,-0.1654,-4.1582,-4.2218,2.8144,2.0063,-2.1168,-0.5394,-4.8573
2277.3438,-2.7163,2.0152,1.3313,-0.9061,1.9042,-1.7998,-2.2067,0.8024,4.7363,1.5473,4.2275,3.2408,0.0639,-0.3797,5.3682,4.7761,1.1606,1.8324,-0.8124
2281.2500,-6.7825,0.4095,3.0423,2.4703,6.5587,-3.8458,-3.8769,4.0986,5.9368,-0.4602,5.0089,5.6616,3.2577,2.6184,6.1860,4.3572,2.7531,3.2037,2.3432
2285.1562,-9.9817,-1.4950,2.5150,3.8553,7.6775,-5.5631,-6.3914,3.9817,5.2415,-3.0605,4.1986,5.8197,4.0646,3.7031,3.9387,0.5449,1.8858,2.9147,3.1856
2289.0625,-12.6758,-3.8511,-0.0887,2.9971,5.1462,-6.9988,-9.0054,1.0668,2.4948,-6.4432,1.6037,3.5499,2.3547,2.8039,-1.1133,-4.7963,-0.8753,1.1126,1.6003
2292.9688,-15.1821,-6.3996,-3.4999,0.7228,0.6016,-8.0950,-10.5685,-2.7134,-1.4071,-10.2276,-2.0422,-0.1444,-0.7683,0.7640,-7.2219,-8.9248,-3.9959,-1.3478,-1.2184
2296.8750,-17.1868,-8.3804,-6.0626,-1.6005,-3.5862,-8.5533,-10.0868,-5.2493,-4.9896,-13.4322,-5.4322,-3.6282,-3.6202,-1.2035,-12.0232,-9.9263,-5.8748,-3.3302,-3.5116
2300.7812,-17.5359,-8.7872,-6.6229,-2.8252,-5.6080,-7.8518,-7.2057,-5.3566,-6.9111,-14.6996,-7.2761,-5.4598,-4.8568,-2.1897,-13.7007,-7.8150,-5.7362,-3.9585,-3.9741
2304.6875,-14.6971,-6.8985,-5.0633,-2.5654,-5.0231,-5.4749,-2.3636,-3.2262,-6.5338,-12.7717,-6.8341,-5.0597,-4.1327,-2.0090,-11.7949,-4.3387,-3.9924,-3.0087,-2.4299
2308.5938,-7.6849,-2.7769,-2.2053,-1.2490,-2.6845,-1.2420,3.4244,-0.0593,-4.0931,-7.0466,-4.1657,-2.8881,-2.1500,-1.1483,-7.2386,-1.6794,-1.8901,-0.9689,0.2039
2312.5000,3.1094,2.5952,0.7790,0.2767,0.0287,4.4624,8.9874,2.7671,-0.4593,2.0305,-0.0365,-0.0923,-0.1295,-0.3317,-1.6847,-0.9773,-0.6947,1.2455,2.5705
2316.4062,15.6977,7.6609,3.0178,1.2885,2.0849,10.6976,13.3753,4.4318,3.2916,12.9143,4.4035,2.1243,0.9284,-0.0105,3.3773,-1.6904,-0.9371,2.7534,3.6806
2320.3125,27.0325,10.9241,4.2408,1.5383,3.2225,16.2054,16.0249,4.8888,6.2356,23.2744,7.9880,3.0466,0.7455,-0.1100,7.1507,-2.1874,-2.1756,3.1017,3.3772
2324.2188,34.0577,11.5285,4.6197,1.2484,3.7622,19.7718,16.7270,4.5727,7.7587,30.5999,9.8251,2.6460,-0.2225,-0.1650,9.4708,-1.1014,-3.3770,2.3997,2.2365
2328.1250,34.8483,9.5203,4.3820,0.8340,4.0934,20.5926,15.5315,3.9260,7.5748,32.9749,9.4880,1.4121,-1.1926,0.2895,10.3920,1.5527,-3.6239,1.1657,1.0691
2332.0312,29.4371,5.7571,3.5613,0.5921,4.2931,18.5651,12.7200,3.1247,5.7474,29.8449,7.1320,-0.0016,-1.5719,1.3623,9.8956,4.2943,-2.6737,0.0124,0.4034
2335.9375,20.0241,1.5925,2.0830,0.5615,4.1484,14.4290,8.8455,2.1470,2.7682,22.4892,3.5255,-1.0885,-1.2621,2.7242,8.0084,5.1793,-1.0307,-0.6351,0.2695
2339.8438,10.3637,-1.5324,0.0656,0.5971,3.4816,9.6387,4.7197,1.0252,-0.4208,13.8323,-0.0938,-1.6207,-0.6133,3.8260,5.1798,3.1691,0.4627,-0.6573,0.3463
2343.7500,4.3331,-2.5396,-1.9810,0.5453,2.4413,5.8736,1.2245,-0.0072,-2.6434,7.3853,-2.4070,-1.6169,-0.1223,4.2370,2.4467,-1.0937,1.1948,-0.1885,0.2863
2347.6562,4.0865,-1.1643,-3.3095,0.3617,1.4786,4.2676,-1.0323,-0.6275,-2.9895,5.5725,-2.5769,-1.2399,-0.1054,3.8679,1.0436,-5.6274,1.1221,0.5132,-0.0374
2351.5625,8.6593,1.7607,-3.3832,0.1022,1.0276,4.7113,-2.0256,-0.6969,-1.3741,8.2556,-0.7207,-0.7048,-0.5397,2.9572,1.5993,-8.3118,0.6846,1.1744,-0.4940
2355.4688,14.0100,4.4580,-2.2883,-0.1581,1.1736,5.7227,-2.3400,-0.4312,1.2425,12.4670,2.0355,-0.2108,-1.1200,1.8913,3.5222,-8.1188,0.4177,1.5674,-0.8238
2359.3750,14.9269,4.9528,-0.7547,-0.3697,1.6114,5.1776,-2.8204,-0.2804,3.2598,13.8640,4.0765,0.1291,-1.4415,1.0286,5.1735,-5.5750,0.5804,1.5606,-0.7855
2363.2812,8.0950,2.1955,0.2953,-0.4668,1.9486,1.6530,-4.0084,-0.5724,3.3529,9.3480,4.1863,0.3572,-1.1747,0.6487,4.8891,-2.2356,1.0646,1.1939,-0.2209
2367.1875,-5.3992,-3.0655,0.3863,-0.2934,2.1034,-4.3948,-5.7168,-1.1917,1.3719,-0.6697,2.3018,0.6875,-0.1581,0.9960,2.2111,0.3714,1.6098,0.7438,0.9519
2371.0938,-19.9086,-8.3430,-0.1489,0.3856,2.4390,-10.4896,-7.0519,-1.5691,-1.4111,-11.9613,-0.3770,1.4078,1.5804,2.2797,-1.5952,1.5731,2.1014,0.6804,2.7329
2375.0000,-27.9726,-10.6121,-0.3772,1.7356,3.4745,-13.3536,-6.9149,-1.0356,-2.9878,-18.6730,-2.0669,2.6796,3.8211,4.5373,-4.2496,1.6491,2.6785,1.4559,4.9739
2378.9062,-24.6399,-8.0863,0.5633,3.6385,5.3589,-10.8908,-4.6888,0.6866,-1.8893,-16.8906,-1.5019,4.3455,6.1515,7.4209,-4.0155,1.2830,3.5482,3.1882,7.2981
2382.8125,-10.7537,-1.4750,2.7914,5.5889,7.5232,-3.6933,-0.6695,3.2093,1.7591,-7.3492,1.2328,5.8956,8.0040,10.1096,-1.0387,0.8984,4.6649,5.4400,9.1170
2386.7188,7.0579,6.1925,5.4930,6.8379,8.8406,5.0183,4.0501,5.6335,6.1515,4.6300,4.6918,6.6685,8.7893,11.5217,2.5546,0.4142,5.5700,7.2991,9.8094
2390.6250,19.9679,11.2177,7.3795,6.7603,8.2619,11.1524,8.1736,7.0491,8.8322,12.1806,6.9287,6.2039,8.1218,10.8045,3.9940,-0.4531,5.5886,7.8014,9.0077
2394.5312,22.0466,11.3891,7.5043,5.2415,5.5326,12.1748,10.8932,7.0506,8.2290,11.1090,6.6940,4.5409,6.0430,7.8409,1.7928,-1.6816,4.3007,6.4954,6.8267
2398.4375,13.6966,7.2682,5.8947,2.8243,1.4932,8.6475,12.2369,5.9266,4.6966,2.5809,4.2157,2.2582,3.0986,3.4336,-3.0631,-2.7268,1.9617,3.7928,3.8790
2402.3438,1.2429,1.7553,3.5771,0.4843,-2.2791,3.8356,12.8762,4.4179,0.3600,-7.5265,1.0752,0.2102,0.1751,-1.0086,-7.5398,-2.8296,-0.4692,0.8384,1.0395
2406.2500,-7.0319,-1.7700,1.9783,-0.8632,-4.2951,1.6065,13.5575,3.2297,-2.1639,-12.2471,-0.7230,-0.8932,-1.8603,-4.1385,-8.3787,-1.6222,-1.7880,-1.0745,-0.9223
2410.1562,-5.8453,-1.4924,2.0936,-0.8355,-3.9440,3.9831,14.5567,2.6372,-1.3467,-7.8043,0.1078,-0.8128,-2.5405,-5.3063,-4.1427,0.4676,-1.2468,-1.2098,-1.6466
2414.0625,4.2303,1.9325,3.9367,0.2472,-1.7777,9.9322,15.5029,2.4245,2.3772,4.1688,3.4658,0.1703,-1.9923,-4.7865,3.8419,2.3860,0.9445,0.2228,-1.2785
2417.9688,17.5829,6.0943,6.5731,1.5828,0.8472,16.1084,15.6401,2.1386,6.9598,17.7676,7.9881,1.4759,-0.8368,-3.4922,12.2188,3.1332,3.6546,2.2372,-0.3424
2421.8750,27.1787,8.5243,8.6539,2.3381,2.5053,18.9633,14.3066,1.4314,10.0083,26.3973,11.7981,2.5371,0.1377,-2.4043,17.4795,2.4755,5.4091,3.6697,0.4974
2425.7812,28.4696,8.1319,9.0831,2.0417,2.3638,16.7842,11.3066,0.2377,10.1053,26.4067,13.3695,2.9990,0.3344,-2.1013,17.7689,1.1602,5.1693,3.8023,0.6596
2429.6875,21.2701,5.4787,7.4468,0.7085,0.4352,10.4141,6.9803,-1.2863,7.3711,18.5986,12.0602,2.7200,-0.4495,-2.6466,13.5759,0.4423,2.8559,2.6171,-0.2115
2433.5938,8.9448,1.9272,4.0556,-1.3037,-2.5994,2.4060,2.0122,-2.9378,3.0547,7.0451,8.1691,1.6641,-2.0394,-3.7915,7.0865,1.2326,-0.6626,0.5807,-2.1687
2437.5000,-3.9558,-1.4888,-0.2917,-3.5257,-5.7714,-4.5921,-2.8307,-4.5592,-1.3912,-3.5945,2.6755,-0.1519,-4.0308,-5.2289,0.8300,3.4570,-4.0511,-1.7964,-4.9125
2441.4062,-13.8166,-4.5626,-4.6060,-5.5073,-8.1474,-9.0714,-6.8691,-5.9642,-5.0399,-10.3501,-3.0988,-2.5693,-5.9265,-6.6586,-3.4627,6.0758,-6.1339,-4.2438,-7.7817
2445.3125,-18.7629,-7.5167,-7.9311,-6.8061,-8.9960,-10.8656,-9.5701,-6.8113,-7.5969,-12.5953,-7.7841,-5.1379,-7.1923,-7.6622,-5.2258,7.7528,-6.3163,-6.6507,-9.8558
2449.2188,-18.3489,-10.2332,-9.5019,-6.9595,-7.8772,-10.5329,-10.5888,-6.6210,-9.0131,-11.2232,-10.2417,-7.0950,-7.2894,-7.6185,-4.7364,7.7118,-4.6524,-8.7562,-10.2251
2453.1250,-13.0530,-11.9102,-8.9159,-5.5975,-4.7666,-8.6506,-9.8668,-5.0289,-9.0983,-7.4358,-9.8777,-7.6014,-5.7953,-5.8947,-2.5985,6.1970,-1.6556,-9.9628,-8.3806
2457.0312,-4.1999,-11.5158,-6.3204,-2.7102,-0.1983,-5.6022,-7.7394,-2.1408,-7.5439,-2.1541,-6.9113,-6.1741,-2.6472,-2.3015,0.5349,4.2405,1.9411,-9.5431,-4.5450
2460.9375,5.9062,-8.6740,-2.4949,1.1166,4.7347,-1.8404,-4.9136,1.2983,-4.3348,3.7886,-2.4101,-3.0588,1.6230,2.5042,3.9514,2.9187,5.3426,-7.1690,0.2776
2464.8438,14.3218,-4.2111,1.3201,4.7495,8.6768,1.8544,-2.2291,4.1363,-0.1423,9.2733,2.0508,0.7364,5.8851,7.0632,6.8362,2.6205,7.7897,-3.3690,4.6425
2468.7500,18.5855,0.1576,3.8733,6.9403,10.5658,4.5478,-0.2837,5.3932,3.7331,13.0080,5.0245,3.8430,8.7767,9.7411,8.4347,2.8210,8.6999,0.5031,7.2816
2472.6562,18.0602,2.8218,4.4463,6.9584,10.1684,5.6986,0.8487,4.8451,5.9446,14.1831,5.8117,5.1860,9.3334,9.6364,8.3853,2.4968,7.8808,2.8911,7.6854
2476.5625,14.4427,3.2215,3.1847,5.0353,8.2367,5.5932,1.5934,3.2109,5.8446,13.0903,4.7085,4.5163,7.5337,7.1827,6.9451,0.8859,5.7011,2.9047,6.3176
2480.4688,10.8189,2.0520,0.9952,2.2941,6.1167,5.2028,2.5246,1.7650,3.8663,11.0537,2.7333,2.5000,4.3875,3.9823,4.8672,-1.9227,3.0374,0.8605,4.3165
2484.3750,9.7252,0.6209,-0.9615,0.1482,4.9915,5.4813,3.9118,1.5808,1.2557,9.5872,1.0098,0.3051,1.4330,1.8918,2.9639,-4.9543,0.9208,-1.8993,2.8389
2488.2812,11.5176,-0.1089,-1.8893,-0.4851,5.2114,6.6208,5.4780,2.8780,-0.6730,9.3695,0.1860,-1.0608,-0.1046,1.9084,1.6594,-6.8856,0.0254,-3.8246,2.4272
2492.1875,14.2149,-0.0681,-1.7223,0.3288,6.1373,7.8670,6.5526,4.8962,-1.2619,9.8178,0.2161,-1.2611,0.0135,3.5755,0.8519,-6.8131,0.3046,-4.0827,2.7731
2496.0938,14.9227,0.1150,-1.0336,1.6607,6.6020,8.0642,6.5230,6.3752,-0.7616,9.5740,0.5691,-0.6948,0.9719,5.3132,0.1564,-4.7835,1.0327,-2.9844,3.0094
2500.0000,11.7900,-0.2144,-0.5813,2.3489,5.6902,6.5149,5.2694,6.3251,-0.0092,7.5031,0.6583,-0.1146,1.4972,5.4648,-0.7025,-1.7796,1.2640,-1.6499,2.3371
2503.9062,5.1273,-1.1866,-0.8041,1.7232,3.3320,3.4927,3.2819,4.5913,0.1869,3.4495,0.1954,-0.0742,0.7356,3.3797,-1.6671,0.8121,0.4382,-1.1753,0.5863
2507.8125,-2.9643,-2.3862,-1.5852,-0.0361,0.3444,0.0446,1.3839,1.8759,-0.4653,-1.7285,-0.7045,-0.5689,-1.1632,-0.1636,-2.4366,1.9360,-1.2525,-1.8877,-1.6407
2511.7188,-9.9484,-3.2691,-2.3991,-2.0928,-2.0707,-2.7010,0.2644,-0.7418,-1.6424,-6.7034,-1.6397,-1.0807,-3.1413,-3.4350,-2.7324,1.3936,-2.9697,-3.1824,-3.3242
2515.6250,-14.0598,-3.5728,-2.6984,-3.5144,-3.0160,-4.1333,0.1423,-2.4305,-2.6560,-10.2509,-2.1142,-0.9654,-3.9336,-4.7868,-2.4732,-0.1088,-3.7336,-4.0051,-3.6455
2519.5312,-14.5845,-3.3474,-2.2605,-3.8019,-2.3361,-4.2239,0.7634,-2.9709,-2.8194,-11.4444,-1.6935,0.0950,-2.8984,-3.5681,-1.7148,-1.3893,-2.9974,-3.5936,-2.4750
2523.4375,-11.3798,-2.6396,-1.2804,-3.0652,-0.5752,-3.1299,1.6807,-2.6806,-1.7144,-9.5619,-0.1140,1.8719,-0.4307,-0.3872,-0.4636,-1.4403,-0.9367,-1.9530,-0.4337
2527.3438,-4.4631,-1.2127,-0.1904,-1.8097,1.4352,-0.8256,2.5690,-2.0431,0.7051,-4.1421,2.6080,3.7251,2.2956,3.3509,1.3975,0.0524,1.6923,0.2284,1.4927
2531.2500,5.7135,1.3463,0.6306,-0.5541,3.0411,2.8051,3.3402,-1.3518,4.1074,4.5531,6.0742,4.9835,4.0532,6.2565,3.9373,2.5848,3.9924,2.0976,2.5269
2535.1562,17.5398,5.1499,1.0512,0.4358,3.9965,7.4614,4.0141,-0.6072,7.8174,14.9593,9.5023,5.3158,4.2619,7.6006,6.8853,5.1419,5.3645,3.1771,2.5045
2539.0625,27.9852,9.5714,1.1809,1.1646,4.3980,12.0244,4.5042,0.3294,10.9169,24.1821,11.9227,4.8674,3.2321,7.4839,9.5111,6.7424,5.7038,3.5549,1.8788
2542.9688,33.5203,13.2869,1.2119,1.7504,4.4686,14.7951,4.5436,1.5097,12.4811,28.9590,12.5541,4.1030,1.8518,6.5665,10.8686,6.9081,5.3049,3.6509,1.3624
2546.8750,31.9640,14.8889,1.2520,2.2729,4.3905,14.4069,3.8440,2.8020,11.9360,27.3009,11.1807,3.4840,0.9897,5.6289,10.3075,5.8090,4.6096,3.8020,1.4572
2550.7812,24.0511,13.6959,1.2704,2.7398,4.2776,10.8267,2.3766,3.9789,9.3832,19.8137,8.2948,3.1979,1.0212,5.2283,7.9076,4.0396,3.9852,4.0079,2.1730
2554.6875,13.4491,10.2008,1.1737,3.1478,4.2278,5.6569,0.5453,4.8846,5.6693,9.7016,4.8873,3.1008,1.7446,5.5554,4.5074,2.2063,3.6316,4.0121,3.0868
2558.5938,4.9518,5.8444,0.9320,3.5333,4.3414,1.3818,-0.9140,5.5288,2.0867,1.2497,1.9937,2.8884,2.6559,6.4505,1.2843,0.6138,3.6006,3.6136,3.6733
2562.5000,1.8984,2.2784,0.6485,3.9474,4.6650,-0.0336,-1.2814,6.0437,-0.1821,-2.3744,0.2643,2.3679,3.3322,7.5030,-0.8322,-0.7475,3.8496,2.9324,3.6706
2566.4062,4.4935,0.6064,0.5239,4.3947,5.1250,1.7281,-0.2402,6.5684,-0.5796,-0.6427,-0.1961,1.6467,3.6622,8.2136,-1.5209,-1.9367,4.2802,2.4108,3.2522
2570.3125,10.1043,1.0389,0.7438,4.8216,5.5494,5.2473,1.9348,7.1683,0.6392,4.4095,0.3266,1.1166,3.8239,8.2133,-1.0012,-2.7566,4.7709,2.5440,2.9099
2574.2188,15.2225,3.0475,1.3677,5.1886,5.7939,8.3578,4.5049,7.8396,2.6354,9.7024,1.4580,1.2392,4.0938,7.4802,0.3286,-2.6913,5.2265,3.5378,3.1414
2578.1250,17.6521,5.7629,2.2881,5.5540,5.8762,9.5126,6.6290,8.5518,4.4598,12.9739,2.9424,2.2589,4.6488,6.4153,2.2099,-1.2012,5.6323,5.1331,4.1396
2582.0312,17.4392,8.2975,3.2731,6.0571,5.9855,8.5935,7.7515,9.2526,5.4748,13.7605,4.6292,4.0103,5.4698,5.6635,4.5455,1.7879,6.0616,6.7065,5.6653
2585.9375,16.0901,9.8759,4.0563,6.7701,6.3272,6.6858,7.8097,9.8218,5.5048,13.0025,6.3107,5.9399,6.3560,5.7185,7.1527,5.5557,6.6009,7.5744,7.1598
2589.8438,14.8976,9.8911,4.4233,7.5292,6.9069,5.0949,7.1759,10.0480,4.7075,11.7912,7.6041,7.3403,7.0057,6.5471,9.5242,8.7250,7.2323,7.3130,8.0196
2593.7500,13.7574,8.0482,4.2630,7.9220,7.4331,4.3796,6.3957,9.7073,3.3389,10.3172,8.0241,7.6840,7.1260,7.5162,10.8746,9.8845,7.7745,5.9364,7.8765
2597.6562,11.3467,4.5834,3.5841,7.5109,7.4458,4.0743,5.8773,8.7284,1.6107,7.8021,7.2343,6.8863,6.5611,7.7405,10.5176,8.3780,7.9683,3.8746,6.7467
2601.5625,6.4309,0.3537,2.5108,6.1744,6.6044,3.2066,5.6867,7.3160,-0.2846,3.3832,5.3105,5.3573,5.4102,6.6610,8.3387,4.7785,7.6795,1.7989,4.9939
2605.4688,-0.7783,-3.3999,1.2641,4.3058,4.9343,1.1344,5.5362,5.8868,-2.0666,-2.8010,2.8288,3.8075,4.0611,4.4595,5.0251,0.7108,7.0762,0.3759,3.1477
2609.3750,-8.2787,-5.5826,0.1184,2.6631,2.8448,-1.9369,4.9543,4.8088,-3.3344,-9.1994,0.6885,2.8940,3.0579,1.9846,1.8539,-1.9329,6.6099,0.0231,1.6719
2613.2812,-13.2432,-5.7743,-0.6791,1.9118,0.8932,-5.0926,3.5446,4.1134,-3.7018,-13.4791,-0.2676,2.8809,2.8034,0.1974,0.1225,-1.9699,6.7471,0.7279,0.7831
2617.1875,-13.6789,-4.4078,-1.0101,2.1535,-0.5442,-7.3337,1.2086,3.4248,-3.0444,-13.8435,0.3379,3.4912,3.2409,-0.4951,0.5180,0.4552,7.5885,2.0005,0.3872
2621.0938,-9.7320,-2.4720,-0.9528,2.7991,-1.4599,-8.2047,-1.7657,2.2248,-1.6867,-10.2229,2.1779,4.0459,3.7499,-0.5339,2.7571,3.9598,8.6404,3.0274,0.1548
2625.0000,-3.8408,-0.9366,-0.7510,2.9319,-2.1303,-8.0048,-4.7757,0.3124,-0.3544,-4.5890,4.2985,3.8464,3.4175,-0.8840,5.6795,6.6716,8.9545,3.0291,-0.2894
2628.9062,0.3839,-0.2690,-0.6576,1.9621,-2.8206,-7.4912,-7.0858,-1.8710,0.1628,-0.1298,5.5372,2.6243,1.6183,-2.2820,7.7629,7.2218,7.6406,1.7043,-1.1289
2632.8125,0.0041,-0.3058,-0.7197,0.1353,-3.4930,-7.3210,-8.0327,-3.3333,-0.4953,0.3623,5.1497,0.8162,-1.4193,-4.5710,7.8465,5.4571,4.4952,-0.4687,-2.1736
2636.7188,-5.5733,-0.4721,-0.6478,-1.4806,-3.7327,-7.6050,-7.1970,-3.0531,-1.8858,-3.8999,3.3443,-0.5260,-4.4598,-6.6114,5.7464,2.5161,0.3645,-2.3008,-2.8474
2640.6250,-13.9477,-0.1376,0.0818,-1.5809,-2.9678,-7.8371,-4.5420,-0.6290,-2.7948,-10.9547,1.3734,-0.2187,-5.7389,-6.8871,2.4560,0.2544,-3.0459,-2.3990,-2.4167
2644.5312,-20.5559,1.0969,1.8654,0.5467,-0.8722,-7.2283,-0.5390,3.3590,-1.7855,-16.7458,0.9737,2.3611,-3.9092,-4.4681,-0.2499,0.3149,-3.9161,0.0733,-0.4199
2648.4375,-20.7978,3.2428,4.5162,4.4522,2.2709,-5.2645,3.7542,7.5179,1.9243,-17.0507,3.3121,6.7229,1.0388,0.2550,-0.7221,3.2801,-1.2893,4.7733,2.8843
2652.3438,-12.5743,5.8531,7.0227,8.5695,5.4646,-2.1834,6.7904,10.2425,7.7158,-9.8410,7.9924,11.2006,7.4463,5.5226,1.5436,8.2866,4.2202,10.0770,6.3211
2656.2500,2.0808,8.0358,7.7954,10.8802,7.2564,0.9191,6.9483,10.3913,13.4712,3.1916,12.8217,13.5337,12.5309,8.9051,5.3675,13.2818,10.4162,13.6512,8.0826
2660.1562,17.3877,8.6555,5.4241,9.8512,6.3052,2.4953,3.2605,7.6802,16.3688,16.9655,14.7169,11.9108,13.6220,8.4014,8.2810,15.8465,14.3265,13.4860,6.4966
2664.0625,26.3823,6.8060,-0.3838,5.1770,2.0510,1.3485,-3.8318,2.6671,14.3082,25.3026,11.4343,5.9909,9.4909,3.3960,7.8214,14.2726,13.5294,8.8946,0.9877
2667.9688,24.5000,2.4230,-8.2421,-2.0179,-4.8076,-2.5680,-12.1871,-3.5366,7.2255,24.1011,3.1533,-2.6683,1.0879,-4.9667,3.0769,8.4427,7.4001,0.9584,-7.2783
2671.8750,12.1765,-3.3530,-15.3667,-9.5830,-12.3102,-7.8656,-18.5428,-9.5949,-2.5294,13.6048,-7.1724,-11.1051,-8.7286,-14.1430,-4.4778,0.0750,-2.3675,-7.8475,-15.5330
2675.7812,-5.2150,-8.4679,-18.7328,-15.1593,-17.8352,-12.2619,-19.9243,-14.1965,-11.1480,-1.6628,-15.1482,-16.2357,-16.3827,-21.1284,-11.5293,-7.8770,-12.3147,-14.6996,-20.4421
2679.6875,-20.2634,-10.9447,-16.5994,-17.0782,-19.1571,-13.7807,-15.2563,-16.2787,-15.2651,-15.3896,-17.3427,-16.3190,-19.1396,-23.6066,-14.7068,-12.4992,-18.6880,-17.6452,-19.6495
2683.5938,-27.6253,-10.0795,-9.5705,-15.0077,-15.5338,-11.9504,-6.2295,-15.3275,-13.7761,-22.9557,-13.3505,-11.8387,-16.2989,-20.8792,-12.6000,-12.3095,-19.1706,-16.4111,-13.0679
2687.5000,-26.8287,-7.0496,-0.5252,-10.1068,-8.2651,-8.2154,3.2634,-11.7138,-8.4805,-23.7806,-6.1682,-5.2946,-9.4678,-14.2092,-6.7348,-8.0540,-14.0203,-12.4275,-3.1686
2691.4062,-22.0483,-4.3986,6.6571,-4.6126,-0.3330,-5.1852,9.0073,-6.8358,-3.1098,-21.1215,-0.5358,0.0220,-1.8064,-6.4025,-0.8023,-2.4196,-6.0011,-8.0915,6.0028
2695.3125,-19.0898,-4.5859,8.9468,-0.9758,4.8299,-5.0984,8.6789,-2.8021,-1.2719,-19.5739,-0.1997,1.6280,3.3771,-0.7236,1.4648,1.2807,0.9099,-5.6563,10.6724
2699.2188,-21.6518,-8.4790,5.5962,-0.8569,4.9057,-8.4512,3.0822,-1.6184,-4.5263,-22.0127,-5.7864,-1.0314,4.0170,0.4565,-1.5335,0.8044,3.4054,-6.2873,9.1149
2703.1250,-29.2936,-14.7841,-1.6233,-4.3992,-0.1980,-13.6954,-4.3985,-4.2028,-11.7114,-27.9765,-14.5949,-6.5125,0.0460,-3.2953,-8.3996,-3.8575,0.3625,-9.6931,2.4191
2707.0312,-38.2177,-20.8158,-9.4638,-10.1316,-8.2924,-18.2116,-9.8343,-9.7805,-19.8336,-34.3698,-22.3610,-12.3091,-6.7676,-10.2490,-15.6826,-10.5036,-6.7726,-14.4267,-6.1630
2710.9375,-43.9653,-24.0898,-14.8780,-15.5961,-15.9571,-19.8896,-11.0095,-16.0888,-25.8440,-37.7047,-25.7765,-16.1890,-13.7369,-17.2708,-19.9454,-15.9278,-14.8647,-18.6321,-12.9074
2714.8438,-43.9450,-23.6700,-16.3700,-18.4448,-20.1414,-18.2375,-8.4775,-20.3890,-28.1394,-36.1578,-24.1335,-17.1594,-18.4287,-21.2482,-19.5742,-17.6166,-20.6864,-20.8430,-15.4061
2718.7500,-38.1810,-20.4143,-14.3397,-17.4972,-19.4828,-14.3217,-4.7864,-20.7890,-26.9472,-30.1179,-19.1786,-15.5984,-19.5468,-20.5006,-15.2361,-14.9817,-22.3454,-20.4901,-13.5044
2722.6562,-28.2786,-16.0920,-10.4102,-13.2431,-14.7085,-9.7235,-2.4921,-17.1730,-23.6057,-21.2372,-13.5407,-12.6536,-17.1991,-15.4822,-8.9075,-9.4789,-19.8514,-17.9705,-8.9814
2726.5625,-15.9755,-12.1415,-6.3276,-7.5565,-8.0332,-5.4118,-2.3878,-11.2368,-19.4819,-11.1277,-9.0085,-9.4318,-12.5781,-8.4486,-2.3842,-3.6513,-14.7024,-14.3465,-4.3153
2730.4688,-2.6707,-9.0031,-3.1670,-2.7884,-2.0073,-1.4121,-3.1827,-5.6324,-15.3673,-0.8779,-5.8511,-6.5333,-7.3419,-2.3020,3.5785,0.2440,-8.9222,-10.8700,-1.3498
2734.3750,9.9146,-6.4013,-1.2285,-0.7076,1.5303,2.5720,-2.7893,-2.6976,-11.6381,8.4341,-3.4368,-4.1324,-3.0364,0.7582,8.9830,1.2080,-4.1871,-8.5327,-0.6164
2738.2812,19.0982,-4.1466,-0.4553,-1.8026,1.9367,6.2568,-0.2032,-3.4297,-8.7665,15.1288,-1.3901,-2.3721,-0.7428,0.1034,13.6266,-0.3895,-1.4438,-7.7742,-1.5524
2742.1875,21.8987,-2.6437,-0.8716,-5.2261,-0.3569,8.5142,3.4663,-7.1697,-7.5062,17.2626,-0.2089,-1.6356,-0.9412,-3.2963,16.4507,-3.4201,-0.9941,-8.4024,-3.2649
2746.0938,17.0209,-2.6194,-2.6310,-9.3251,-4.2985,8.0973,5.6146,-12.0631,-8.4460,14.0070,-0.8417,-2.4206,-3.4795,-7.5751,15.8883,-6.7753,-2.7281,-9.7266,-5.2148
2750.0000,6.6542,-4.3268,-5.6760,-12.4385,-8.6747,4.8099,3.9831,-15.9894,-11.2916,6.9620,-3.6626,-4.9089,-7.5947,-10.9497,11.0209,-9.7849,-6.2168,-10.8603,-7.3762
2753.9062,-3.7932,-6.9851,-9.3811,-13.5752,-12.4145,0.0901,-1.6106,-17.4954,-14.5957,-0.0142,-7.8061,-8.6014,-12.0406,-12.4592,2.6317,-12.1367,-10.6513,-11.0994,-9.8828
2757.8125,-8.5282,-9.0486,-12.5836,-12.7046,-14.7611,-3.6310,-8.9142,-16.3288,-16.3726,-2.8622,-11.5042,-12.3542,-15.4083,-12.1658,-6.7475,-13.5705,-14.8479,-10.2225,-12.5518
2761.7188,-5.1468,-9.1907,-14.0915,-10.5943,-15.3827,-4.4539,-14.5232,-13.3908,-15.3042,-0.0504,-13.2094,-14.8498,-16.6093,-10.8312,-13.9679,-13.7490,-17.5284,-8.5600,-14.7179
2765.6250,3.4200,-7.2434,-13.3455,-8.3197,-14.4143,-2.2945,-15.9091,-10.1712,-11.6721,6.0878,-12.6040,-15.2059,-15.3218,-9.3265,-16.8587,-12.4716,-17.8309,-6.7617,-15.5196
2769.5312,10.5737,-4.3086,-10.7489,-6.6858,-12.3484,1.1033,-12.8071,-7.9397,-7.2454,10.7077,-10.6716,-13.3279,-12.1238,-8.1091,-15.2278,-10.0286,-15.7441,-5.3634,-14.4132
2773.4375,10.5393,-1.8976,-7.3967,-5.8214,-9.7518,3.5123,-7.0988,-7.0755,-4.0924,9.8409,-8.7689,-9.8069,-8.1750,-7.0096,-10.6520,-7.3031,-12.1297,-4.3958,-11.5227
2777.3438,2.6391,-0.7478,-4.3722,-5.1378,-6.9445,3.9323,-1.4157,-6.8764,-3.1196,3.4871,-7.4603,-5.4986,-4.5896,-5.4042,-5.3102,-5.3961,-8.2557,-3.3003,-7.5753
2781.2500,-7.8046,-0.2530,-2.1041,-3.6843,-3.8702,3.3416,2.4577,-5.9870,-3.4063,-3.9347,-6.0749,-1.1160,-1.8725,-2.6619,-0.7417,-4.9409,-5.1174,-1.2495,-3.4919
2785.1562,-12.8069,1.0241,-0.2337,-0.7423,-0.3008,3.8741,4.3002,-3.2574,-2.8550,-6.3234,-3.3576,2.9047,0.2210,1.3732,2.6561,-5.5836,-2.9884,2.2870,0.0625
2789.0625,-7.1031,4.1471,1.9327,3.6582,3.7404,7.0326,4.9797,1.4342,0.2795,-0.0358,1.3174,6.2724,2.3172,6.1313,5.2255,-6.0678,-1.4818,7.0805,2.8686
2792.9688,8.1773,8.8587,4.7419,8.6084,7.6714,12.3287,5.3862,6.9107,6.0798,13.4668,7.1730,8.6755,4.8178,10.4664,7.2691,-4.9714,-0.0287,12.1054,5.0170
2796.8750,26.1385,13.6452,7.7995,12.7004,10.4707,17.4455,5.7087,11.2180,12.8178,28.3659,12.3614,9.8114,7.4995,13.1697,8.6143,-1.6766,1.6122,15.9945,6.6250
2800.7812,38.5806,16.7745,10.1593,14.7382,11.2396,19.8510,5.5727,12.7021,18.0588,38.1219,15.1816,9.6211,9.6133,13.5894,8.8433,3.0617,3.1928,17.7373,7.6638
2804.6875,41.1344,17.5065,10.9588,14.3751,9.8552,18.6598,4.7649,11.0115,20.2086,39.4639,15.2474,8.5022,10.4066,12.0004,7.8872,7.3651,4.2420,17.1970,8.0164
2808.5938,35.5417,16.5480,10.0345,12.2803,7.2217,15.3226,3.7832,7.3781,19.4083,34.0230,13.6982,7.2334,9.6718,9.4716,6.3689,9.2043,4.4982,15.1227,7.6684
2812.5000,27.7301,15.4222,8.0689,9.7127,4.8509,12.5969,3.6428,3.9456,17.2030,26.6696,12.2895,6.5603,7.9023,7.2683,5.3111,7.5326,4.1296,12.6570,6.8220
2816.4062,23.3517,15.2639,6.1612,7.7585,3.9761,12.5536,5.0519,2.5202,15.3250,21.9640,12.0697,6.6900,5.9357,6.1265,5.3942,2.9046,3.5629,10.6581,5.8037
2820.3125,24.0965,15.9770,5.1254,6.7196,4.7715,15.0912,7.6541,3.5214,14.5326,21.3252,12.6617,7.0808,4.3577,5.8518,6.3617,-2.7820,3.0824,9.2728,4.8304
2824.2188,27.2454,16.3820,5.0054,6.0528,6.2331,18.0449,10.0347,5.8056,14.3218,22.7636,12.6843,6.7512,3.1318,5.5181,7.0927,-7.2552,2.5640,8.0174,3.8471
2828.1250,28.3912,15.2127,5.1377,4.8963,6.8501,18.7847,10.5981,7.4834,13.6184,23.0206,10.9631,4.9670,1.7499,4.1648,6.3560,-8.9788,1.6013,6.2841,2.6025
2832.0312,25.0159,12.1851,4.7034,2.8240,5.6500,16.1225,8.7173,7.1983,11.8262,20.2692,7.5899,1.8656,-0.2017,1.5554,3.7278,-7.7928,-0.0477,3.9145,0.9417
2835.9375,18.2668,8.3458,3.3781,0.3002,2.9219,11.1694,5.3025,5.0336,9.4100,15.3663,4.0261,-1.4310,-2.5032,-1.5100,0.0129,-4.7961,-2.0562,1.4493,-0.9051
2839.8438,11.8808,5.4682,1.6271,-1.4964,0.1181,6.5936,2.3338,2.4611,7.6087,10.9599,2.1850,-3.3491,-4.2381,-3.5662,-3.1450,-1.6347,-3.5334,-0.1130,-2.2899
2843.7500,9.3762,4.9514,0.4437,-1.3910,-1.0214,4.8752,1.6502,1.3781,7.5531,9.4079,3.1752,-2.7492,-4.3134,-3.3408,-4.2135,0.3426,-3.5099,0.1042,-2.4555
2847.6562,11.7124,6.9838,0.7042,0.9855,0.4405,6.7900,3.8139,2.8706,9.4695,11.1834,6.5962,0.3715,-2.2334,-0.5756,-2.6614,0.6087,-1.6015,2.2961,-1.0178
2851.5625,16.9666,10.4768,2.5684,4.8363,4.0340,11.0794,7.7986,6.4963,12.5217,14.8255,10.8261,4.7994,1.4215,3.7092,0.7606,-0.5280,1.6245,5.7772,1.7032
2855.4688,21.9167,13.7237,5.3234,8.5376,8.1440,15.3718,11.6632,10.5284,15.3421,18.1851,14.0263,8.7061,5.1870,7.6964,4.4795,-2.2903,4.8760,9.2631,4.7581
2859.3750,24.1312,15.3101,7.7843,10.4961,10.9591,17.6169,13.7144,12.9779,16.8337,19.8335,15.1484,10.5891,7.5084,9.7337,6.9750,-3.8835,6.8553,11.4812,7.0523
2863.2812,23.1233,14.7621,9.0110,10.0323,11.5084,17.1070,13.4076,12.7513,16.7224,19.6348,14.3362,10.0239,7.6522,9.2252,7.5490,-4.7773,7.0202,11.7940,7.9674
2867.1875,20.1240,12.6856,8.9008,7.7803,10.1674,14.6100,11.4951,10.2547,15.5932,18.3591,12.6202,7.8339,6.1573,6.9410,6.6033,-4.7540,5.9000,10.5190,7.7392
2871.0938,17.0810,10.4626,8.2862,5.3804,8.3664,11.7755,9.4695,7.1327,14.5089,16.9761,11.2596,5.6272,4.5337,4.5787,5.3568,-3.8180,4.7588,8.7934,7.3410
2875.0000,15.7789,9.7034,8.4611,4.6346,7.7218,10.3165,8.7483,5.3477,14.5023,16.3033,11.1918,4.9747,4.3858,3.8323,5.2108,-2.1103,4.8223,8.0400,7.9173
2878.9062,17.4593,11.6296,10.3965,6.5774,9.1174,11.3789,10.0730,6.1445,16.1775,17.0922,12.8079,6.6586,6.4844,5.4865,7.0818,0.1142,6.5471,9.2762,10.0868
2882.8125,22.6711,16.5150,14.0995,10.9325,12.2407,15.2051,13.3322,9.4478,19.4927,20.0753,15.9657,10.3319,10.3243,9.0190,10.9690,2.4903,9.3712,12.5768,13.5204
2886.7188,30.9567,23.3594,18.4893,16.2143,15.7776,21.0211,17.7209,13.9496,23.7082,25.5362,20.0524,14.7058,14.3969,12.8959,15.9018,4.6065,12.0656,16.9507,17.0446
2890.6250,40.4448,30.0154,21.8780,20.3998,18.1018,27.1308,22.0441,17.7719,27.5137,32.5662,24.0400,18.1345,16.9837,15.3720,20.2760,6.1437,13.4415,20.7155,19.2190
2894.5312,47.9101,33.8915,22.8005,21.8335,18.0652,31.3245,25.0466,19.3358,29.3883,38.7264,26.6499,19.3156,17.0087,15.3542,22.4626,7.0086,12.9769,22.2288,19.0667
2898.4375,49.7700,33.0524,20.7406,19.9350,15.4960,31.6471,25.7571,18.0235,28.1726,40.7561,26.7361,17.8049,14.4965,12.8820,21.4596,7.3472,11.0128,20.6445,16.5551
2902.3438,43.7858,27.2066,16.3660,15.3969,11.2039,27.3043,23.8250,14.3676,23.6495,36.2068,23.7955,14.1439,10.4494,9.0092,17.3133,7.4019,8.4547,16.3259,12.5743
2906.2500,30.4949,17.9910,11.1646,9.8111,6.5495,19.2171,19.7242,9.7340,16.8023,25.0504,18.3124,9.5707,6.2830,5.1973,11.1045,7.3026,6.2123,10.6943,8.4520
2910.1562,13.3317,8.2906,6.7087,4.9323,2.8287,9.7898,14.6523,5.6800,9.5155,10.1183,11.6597,5.4695,3.1665,2.5841,4.4961,6.9576,4.7392,5.5774,5.2984
2914.0625,-2.8300,0.8994,3.9634,1.9477,0.7733,1.8739,10.0730,3.2945,3.7889,-4.0794,5.5411,2.8176,1.6082,1.5235,-0.9362,6.1525,3.9331,2.3900,3.5509
2917.9688,-13.9071,-2.7300,2.9935,1.0921,0.3749,-2.5491,7.0806,2.8121,0.8675,-13.5137,1.2772,1.8814,1.4371,1.6106,-4.2530,4.8047,3.4074,1.5719,2.9414
2921.8750,-18.2677,-2.9385,3.1642,1.7542,1.0612,-3.2068,5.9337,3.6554,0.7770,-16.4653,-0.6485,2.2699,2.0970,2.1076,-5.3345,3.1729,2.9080,2.5550,2.8437
2925.7812,-16.9054,-1.3113,3.6405,2.9516,2.0779,-1.4156,6.0338,4.8445,2.5117,-13.9641,-0.5636,3.2625,3.0215,2.4610,-4.6860,1.8198,2.5675,4.2269,2.7347
2929.6875,-12.2731,0.4337,3.8526,3.8794,2.8513,0.8650,6.3497,5.5384,4.7087,-8.7555,0.7783,4.1924,3.8659,2.5775,-3.0747,1.2921,2.8137,5.5777,2.4699
2933.5938,-6.7812,1.3654,3.6760,4.2281,3.1572,2.1486,6.0040,5.4122,6.3496,-3.6500,2.6045,4.6721,4.5073,2.7152,-1.2450,1.7127,3.9948,6.1459,2.2300
2937.5000,-1.9904,1.5279,3.2981,4.1479,3.0580,2.0117,4.6590,4.6914,7.0727,-0.3548,4.2873,4.5873,4.8947,3.1199,0.1808,2.5943,5.9874,6.0487,2.2367
2941.4062,1.2254,1.4274,2.9480,3.9597,2.7139,0.9027,2.5263,3.8699,7.0035,0.6755,5.2824,3.9534,4.9173,3.7033,0.7097,3.0736,8.0879,5.6651,2.4875
2945.3125,2.1265,1.3413,2.7130,3.8527,2.2268,-0.5146,0.1113,3.3256,6.3619,-0.3296,5.0809,2.8107,4.4193,4.0130,0.0530,2.4757,9.3078,5.2542,2.7212
2949.2188,-0.0082,1.0278,2.5554,3.7753,1.6154,-1.8912,-2.0402,3.0877,5.2186,-3.0023,3.3849,1.2595,3.3544,3.5226,-1.6859,0.8553,8.9228,4.7858,2.6346
2953.1250,-5.2847,0.0325,2.4621,3.5553,0.8979,-3.2192,-3.4198,2.8860,3.5779,-6.8681,0.4462,-0.4151,1.9447,2.0301,-3.8592,-0.8861,6.9340,4.0705,2.1668
2957.0312,-12.4233,-1.7210,2.5627,3.1158,0.1768,-4.4538,-3.5190,2.4157,1.6506,-11.0143,-2.7430,-1.6950,0.6824,-0.1292,-5.3863,-1.4593,4.1300,3.0435,1.6116
2960.9375,-18.7164,-3.5987,3.0905,2.5957,-0.3700,-5.1811,-1.8862,1.6103,-0.0035,-13.9788,-4.7177,-1.9859,0.1182,-2.2161,-5.2204,0.0058,1.6803,1.9482,1.4461
2964.8438,-21.1532,-4.5219,4.1978,2.2764,-0.5922,-4.7256,1.6026,0.7280,-0.6760,-14.2836,-4.2709,-0.9485,0.5420,-3.4826,-2.9776,3.3020,0.4942,1.2558,1.9858
2968.7500,-18.2090,-3.6919,5.7612,2.3753,-0.4741,-2.6831,6.3951,0.1996,0.0246,-11.4221,-1.2594,1.1985,1.7642,-3.5669,0.6608,7.0789,0.7381,1.3578,3.1199
2972.6562,-11.1111,-1.2658,7.3305,2.8681,-0.1419,0.5363,11.1621,0.3516,1.7747,-6.5721,3.0647,3.6406,3.1683,-2.6355,4.1095,9.4668,1.8078,2.2488,4.3360
2976.5625,-3.5541,1.5334,8.2815,3.4812,0.2490,3.6503,14.1874,1.1974,3.5374,-2.3254,6.5231,5.2904,4.0336,-1.2052,5.6225,9.0596,2.7620,3.4317,5.0410
2980.4688,0.2074,3.0145,8.1008,3.8650,0.6673,5.0965,14.1593,2.4322,4.0447,-1.3528,7.1155,5.3315,3.9452,0.2089,4.2540,5.7006,2.9303,4.1400,4.9620
2984.3750,-2.1458,1.9931,6.6500,3.8329,1.2720,3.9551,10.9253,3.6242,2.5124,-4.7126,4.1607,3.6807,3.0420,1.3779,0.4914,0.6293,2.3106,3.7650,4.3504
2988.2812,-9.4339,-1.4495,4.2667,3.4998,2.3275,0.6015,5.7032,4.4721,-0.8393,-10.8879,-1.2042,1.0881,1.9441,2.4117,-3.8407,-4.0793,1.5245,2.2375,3.8385
2992.1875,-17.3801,-5.8960,1.6515,3.2278,4.0092,-3.3760,0.5368,4.9584,-4.7905,-16.2858,-6.5001,-1.2048,1.4058,3.5884,-6.4060,-6.4647,1.3927,0.1292,4.0417
2996.0938,-20.8485,-9.2812,-0.4084,3.4080,6.2297,-5.9971,-2.7305,5.3086,-7.6836,-17.0640,-9.1378,-2.0767,1.9026,5.1020,-5.5038,-5.5311,2.4175,-1.6064,5.1681
3000.0000,-16.6784,-9.9615,-1.3556,4.2080,8.6001,-5.9757,-3.3666,5.7856,-8.2557,-11.3003,-7.7489,-1.0842,3.3907,6.8898,-0.9436,-1.6194,4.4885,-2.1304,6.8882
3003.9062,-5.4963,-7.5747,-1.0829,5.4338,10.5583,-3.4218,-2.0047,6.4557,-6.2956,-0.2461,-2.9019,1.3204,5.3523,8.6180,5.8070,3.7990,6.9526,-1.1897,8.5352
3007.8125,8.5364,-3.2176,0.0398,6.5884,11.5926,0.2582,-0.1218,7.0822,-2.7738,12.1171,3.1812,4.0130,7.0674,9.8043,12.2829,8.7436,8.9590,0.7006,9.4872
3011.7188,19.9099,1.1520,1.3497,7.1041,11.4484,3.1972,0.8948,7.2281,0.6354,21.0431,7.7519,5.7359,7.9376,10.0063,16.1667,11.4772,9.8551,2.4824,9.4812
3015.6250,24.6641,3.7538,2.2099,6.6352,10.2249,4.1382,0.5041,6.5268,2.3984,23.4560,8.9148,5.6830,7.6994,9.0052,16.3570,11.1215,9.4319,3.0888,8.6769
3019.5312,22.3786,3.8875,2.3110,5.2581,8.3343,3.1136,-0.8320,4.9611,1.8943,19.5091,6.5394,3.8529,6.4599,6.9298,13.4378,7.9531,7.9432,2.0110,7.4697
3023.4375,16.1597,2.1989,1.7929,3.4634,6.3446,1.3469,-2.0970,2.9658,-0.2989,12.3941,2.2362,1.0165,4.5931,4.2684,9.3144,3.2891,5.9471,-0.4177,6.2100
3027.3438,10.6751,0.1727,1.1109,1.9220,4.7616,0.4559,-2.4096,1.2517,-2.7708,6.5043,-1.5736,-1.6765,2.5781,1.7266,6.1982,-1.0228,4.0687,-3.1942,5.0187
3031.2500,9.4036,-0.8290,0.7132,1.1304,3.8228,1.4425,-1.5045,0.4200,-4.1079,4.9903,-2.9864,-3.2561,0.8424,-0.0527,5.4573,-3.3587,2.7692,-5.1934,3.7977
3035.1562,12.7148,-0.3939,0.7255,1.1269,3.3889,4.0697,0.2335,0.5859,-3.7205,8.0970,-1.6144,-3.3844,-0.3574,-0.7930,6.9394,-3.0228,2.1823,-5.7878,2.3909
3039.0625,17.8794,0.7578,0.8495,1.4511,3.0059,6.9901,2.0945,1.2606,-2.1836,13.2143,1.2908,-2.4734,-0.9988,-0.7348,9.1373,-0.5572,2.0689,-5.1759,0.7605
