Time,Fp1,F3,C3,P3,O1,F7,T3,T5,Fz,Fp2,F4,C4,P4,O2,F8,T4,T6,Cz,Pz
0.0000,-0.0251,0.2105,-0.8898,-1.4823,-0.3421,-0.7157,-0.7449,0.0430,-0.0897,0.1803,0.1913,-1.2968,-2.5529,-1.6684,-0.3069,-1.1445,-1.9264,-1.9345,-1.9791
3.9062,0.4050,0.4487,-1.5414,-2.6616,-2.1593,-0.7495,-0.4881,-0.6111,-0.0189,0.2694,-0.0047,-2.1844,-3.9440,-3.9942,-0.8857,-2.0561,-3.3995,-2.6092,-3.2685
7.8125,0.7099,0.4466,-2.2922,-3.9853,-4.0748,-0.7557,-0.3388,-1.2133,-0.0390,0.1675,-0.4717,-3.2580,-5.3764,-6.4434,-1.5903,-3.4055,-5.0098,-3.3426,-4.7529
11.7188,0.6821,0.0606,-2.9883,-5.0301,-5.2603,-0.8529,-0.4918,-1.3918,-0.3173,-0.2106,-1.3126,-4.3767,-6.4375,-8.1013,-2.3935,-4.9253,-6.2789,-4.0567,-6.0281
15.6250,0.2776,-0.8088,-3.6651,-5.6375,-5.3496,-1.2425,-1.0535,-1.0980,-1.0521,-0.8716,-2.5944,-5.5485,-7.0522,-8.4988,-3.3448,-6.2804,-6.9636,-4.8827,-6.9491
19.5312,-0.3504,-2.2030,-4.5790,-6.0728,-4.8221,-2.1006,-1.9922,-0.7856,-2.3839,-1.7550,-4.3114,-6.9438,-7.5878,-7.9796,-4.5105,-7.2570,-7.2427,-6.1208,-7.7730
23.4375,-0.9435,-4.0653,-6.0515,-6.8867,-4.8320,-3.4477,-3.1665,-1.2512,-4.2909,-2.7648,-6.3377,-8.7568,-8.6390,-7.5608,-5.8467,-7.8799,-7.6335,-8.0384,-9.0008
27.3438,-1.2944,-6.1869,-8.2106,-8.5513,-6.5266,-5.0865,-4.4045,-3.1862,-6.5285,-3.7854,-8.3917,-10.9981,-10.6079,-8.3407,-7.0988,-8.3619,-8.6616,-10.6294,-10.9978
31.2500,-1.3670,-8.1990,-10.8092,-11.1106,-10.2674,-6.6589,-5.5844,-6.7032,-8.6717,-4.6737,-10.0595,-13.3659,-13.3538,-10.8113,-7.8301,-8.9044,-10.4845,-13.5117,-13.6491
35.1562,-1.3070,-9.6707,-13.2658,-14.0816,-15.2719,-7.8012,-6.6754,-11.1446,-10.2685,-5.2559,-10.9145,-15.3096,-16.1637,-14.5075,-7.6161,-9.4856,-12.7168,-16.0522,-16.3026
39.0625,-1.3463,-10.3053,-14.9297,-16.6731,-19.9389,-8.3094,-7.7296,-15.3149,-11.0422,-5.3712,-10.7113,-16.2762,-18.0861,-18.2093,-6.3194,-9.8053,-14.5877,-17.6608,-18.0670
42.9688,-1.6703,-10.1333,-15.4189,-18.1784,-22.6736,-8.2202,-8.8336,-18.0179,-11.0362,-4.9700,-9.5715,-16.0056,-18.4334,-20.5630,-4.2846,-9.4625,-15.3476,-18.0739,-18.2923
46.8750,-2.3337,-9.5656,-14.8272,-18.2969,-22.7085,-7.7644,-10.0378,-18.5947,-10.6141,-4.2139,-8.0374,-14.6969,-17.1439,-20.7420,-2.3050,-8.2703,-14.6807,-17.4569,-16.9344
50.7812,-3.2664,-9.2283,-13.6738,-17.2092,-20.4302,-7.2331,-11.2826,-17.1717,-10.3011,-3.4950,-6.9196,-12.9414,-14.7903,-18.7768,-1.3293,-6.4965,-12.8742,-16.2798,-14.5824
54.6875,-4.3475,-9.6403,-12.6318,-15.4100,-17.0571,-6.8441,-12.3586,-14.5194,-10.5462,-3.3149,-6.9683,-11.4544,-12.2489,-15.4232,-2.0321,-4.8335,-10.6498,-15.0630,-12.1403
58.5938,-5.4827,-10.9123,-12.1984,-13.4425,-13.9202,-6.6833,-12.9409,-11.6438,-11.5248,-4.0539,-8.5123,-10.7508,-10.2489,-11.7172,-4.4619,-4.0668,-8.7736,-14.1592,-10.3696
62.5000,-6.6277,-12.6559,-12.4849,-11.7005,-11.8074,-6.7325,-12.7223,-9.3554,-13.0769,-5.7420,-11.2545,-10.9380,-9.0678,-8.5119,-7.9574,-4.6207,-7.6826,-13.6779,-9.5568
66.4062,-7.7476,-14.1733,-13.2162,-10.3648,-10.7260,-6.9362,-11.6027,-8.0132,-14.7918,-7.9733,-14.3524,-11.7174,-8.5160,-6.2272,-11.3909,-6.2642,-7.3351,-13.5459,-9.4682
70.3125,-8.7518,-14.8260,-13.9047,-9.4356,-10.1278,-7.2412,-9.8295,-7.5088,-16.1810,-10.0379,-16.7647,-12.5745,-8.1636,-4.8645,-13.6323,-8.1839,-7.3376,-13.6093,-9.5686
74.2188,-9.4670,-14.3681,-14.0865,-8.7850,-9.3660,-7.5860,-7.9713,-7.4247,-16.8503,-11.2286,-17.7060,-13.0441,-7.6335,-4.1794,-14.0209,-9.4092,-7.2353,-13.6947,-9.3427
78.1250,-9.6890,-13.0530,-13.5100,-8.2008,-8.0770,-7.8676,-6.6851,-7.2605,-16.6110,-11.1708,-16.9865,-12.9182,-6.7944,-3.8705,-12.6309,-9.3489,-6.7787,-13.6211,-8.5421
82.0312,-9.2969,-11.4645,-12.2158,-7.4516,-6.3118,-7.9405,-6.3751,-6.6440,-15.5173,-10.0029,-15.0688,-12.3084,-5.7808,-3.7000,-10.2175,-8.1188,-6.0272,-13.2154,-7.2601
85.9375,-8.3631,-10.1874,-10.5011,-6.3972,-4.4357,-7.6733,-6.9414,-5.4799,-13.8393,-8.3074,-12.8186,-11.5477,-4.8820,-3.5445,-7.8741,-6.4623,-5.2643,-12.3724,-5.8389
89.8438,-7.1772,-9.5141,-8.7914,-5.1009,-2.9234,-7.0347,-7.7938,-3.9978,-11.9828,-6.8258,-11.0766,-10.9878,-4.3807,-3.3990,-6.5514,-5.3111,-4.8057,-11.1331,-4.6799
93.7500,-6.1420,-9.3392,-7.4568,-3.8447,-2.1618,-6.1407,-8.1489,-2.6652,-10.3599,-6.1045,-10.2671,-10.7866,-4.4089,-3.3419,-6.6482,-5.2499,-4.8096,-9.6983,-4.0402
97.6562,-5.5778,-9.2750,-6.6378,-2.9820,-2.2995,-5.2124,-7.4455,-1.9628,-9.2352,-6.2544,-10.2333,-10.7897,-4.8573,-3.4499,-7.8524,-6.1968,-5.1773,-8.3286,-3.8894
101.5625,-5.5436,-8.8964,-6.1608,-2.6825,-3.1496,-4.4582,-5.6243,-2.1044,-8.6099,-6.9407,-10.3753,-10.5767,-5.3657,-3.6850,-9.3093,-7.4721,-5.5713,-7.1741,-3.8887
105.4688,-5.7941,-7.9769,-5.6140,-2.7418,-4.1814,-3.9516,-3.1107,-2.8515,-8.2216,-7.5984,-10.0137,-9.6726,-5.4195,-3.8222,-10.0483,-8.1944,-5.5392,-6.1637,-3.5250
109.3750,-5.9217,-6.6028,-4.5764,-2.6260,-4.6606,-3.5900,-0.5401,-3.5646,-7.6946,-7.7498,-8.7885,-7.8339,-4.5573,-3.5022,-9.4740,-7.7628,-4.7019,-5.0624,-2.3694
113.2812,-5.6144,-5.1271,-2.8933,-1.7762,-3.9508,-3.1696,1.5644,-3.5100,-6.7799,-7.2503,-6.8801,-5.2582,-2.6222,-2.4235,-7.6747,-6.1548,-2.9442,-3.6831,-0.3498
117.1875,-4.8720,-3.9944,-0.8276,0.0042,-1.8662,-2.5303,2.9534,-2.2720,-5.5388,-6.3345,-4.9255,-2.5758,0.0769,-0.5816,-5.3773,-3.8992,-0.5274,-2.0998,2.1264
121.0938,-4.0253,-3.5161,1.0404,2.3520,1.1350,-1.6773,3.5920,-0.0225,-4.3280,-5.4438,-3.6628,-0.5863,2.8242,1.6081,-3.5526,-1.7714,1.9482,-0.6753,4.3130
125.0000,-3.5243,-3.6931,2.1395,4.5079,4.0898,-0.7952,3.5117,2.5377,-3.5635,-4.9426,-3.4921,0.1500,4.8055,3.4290,-2.8771,-0.3987,3.7560,0.1618,5.5025
128.9062,-3.6199,-4.1717,2.2801,5.7742,5.9959,-0.1427,2.7595,4.5568,-3.3963,-4.8909,-4.2005,-0.3529,5.5316,4.2046,-3.3521,0.0161,4.3624,0.2651,5.4517
132.8125,-4.1527,-4.3719,1.8294,5.9766,6.3687,0.1073,1.5114,5.5103,-3.5263,-5.0073,-5.0264,-1.4477,5.1380,3.6899,-4.3095,-0.2643,3.7073,-0.0092,4.5975
136.7188,-4.6108,-3.7500,1.5558,5.6177,5.5560,-0.0123,0.2295,5.4915,-3.3117,-4.8445,-5.0485,-2.1322,4.3633,2.2833,-4.8083,-0.6929,2.2879,0.0979,3.9000
140.6250,-4.4338,-2.0721,2.2132,5.6010,4.5911,-0.2539,-0.3508,5.1364,-2.1368,-4.0653,-3.6918,-1.5293,4.1894,0.9117,-4.1858,-0.7264,0.9722,1.3481,4.3688
144.5312,-3.3650,0.4483,4.1131,6.6868,4.6364,-0.2549,0.4937,5.2343,0.1863,-2.6487,-1.0570,0.6866,5.3340,0.6183,-2.4291,-0.0773,0.6143,4.0427,6.5235
148.4375,-1.6010,3.2446,6.9459,9.0181,6.3259,0.3146,3.0441,6.2618,3.2546,-0.8953,2.1253,4.1459,7.8836,2.0503,-0.1439,1.1783,1.6567,7.7972,10.0942
152.3438,0.3731,5.6824,9.9529,12.0074,9.3816,1.6277,6.8591,8.1103,6.2710,0.7662,4.8944,7.9816,11.2650,5.0990,1.8409,2.6635,3.9229,11.7041,14.1268
156.2500,2.1451,7.3753,12.3309,14.6371,12.7179,3.6493,10.8833,10.1433,8.4805,2.0404,6.5722,11.2407,14.5477,8.8757,2.9644,3.8927,6.7023,14.7832,17.4258
160.1562,3.6594,8.3404,13.6112,15.9775,14.9679,6.1514,13.9254,11.5259,9.5584,2.9177,7.0811,13.2722,16.8777,12.0512,3.2038,4.5006,9.0765,16.4340,19.0811
164.0625,5.1918,8.8986,13.8033,15.6203,15.1422,8.7659,15.2248,11.6335,9.7025,3.6190,6.8861,13.9097,17.8023,13.4232,2.9757,4.4067,10.3187,16.6300,18.8106
167.9688,7.0185,9.3994,13.2622,13.8143,13.0884,11.0464,14.7507,10.3371,9.3944,4.3783,6.6271,13.4088,17.3505,12.4749,2.7800,3.8485,10.1828,15.7854,16.9865
171.8750,9.0275,9.9625,12.4176,11.2903,9.5519,12.5364,13.0712,8.0553,9.0305,5.2236,6.7020,12.2400,15.9084,9.6751,2.8608,3.2685,8.9741,14.4443,14.3953
175.7812,10.5982,10.4144,11.5593,8.9225,5.8481,12.8571,10.9357,5.5813,8.7005,5.9180,7.0765,10.8822,14.0228,6.3571,3.1181,3.1094,7.4022,13.0287,11.8996
179.6875,10.9003,10.4503,10.7893,7.4113,3.3198,11.8165,8.8908,3.7733,8.2567,6.1067,7.4217,9.7035,12.2465,4.1843,3.2918,3.6104,6.2987,11.7808,10.1582
183.5938,9.4488,9.8839,10.1092,7.0958,2.8133,9.5131,7.1730,3.2264,7.5789,5.5671,7.4423,8.9241,11.0420,4.4008,3.2346,4.6977,6.3061,10.8565,9.4786
187.5000,6.5348,8.7908,9.5238,7.9082,4.3668,6.3771,5.8609,4.0401,6.7852,4.3845,7.1316,8.6085,10.6916,7.2093,3.0390,6.0174,7.6323,10.4075,9.7940
191.4062,3.1937,7.4423,9.0675,9.4316,7.2185,3.0998,5.0551,5.7726,6.1934,2.9280,6.7605,8.6557,11.1883,11.6032,2.9234,7.0918,9.9440,10.5361,10.7297
195.3125,0.6800,6.0976,8.7532,11.0341,10.1287,0.4420,4.8660,7.6181,6.0529,1.6457,6.6198,8.8119,12.1656,15.7895,2.9906,7.5239,12.4459,11.1501,11.7378
199.2188,-0.2397,4.8353,8.5192,12.0662,11.8947,-1.0214,5.2184,8.7574,6.2754,0.8242,6.7308,8.7526,12.9702,18.0320,3.0838,7.1597,14.1522,11.8767,12.2848
203.1250,0.2891,3.5694,8.2443,12.0903,11.8552,-1.1112,5.7027,8.7354,6.4159,0.4764,6.7680,8.2369,12.9251,17.4920,2.8840,6.1442,14.2788,12.1720,12.0496
207.0312,1.3505,2.2373,7.8309,11.0611,10.1542,-0.1058,5.7124,7.6729,5.9691,0.4233,6.2789,7.2655,11.6882,14.6125,2.1961,4.8599,12.6053,11.6178,11.0519
210.9375,1.8770,0.9975,7.2894,9.3595,7.6301,1.3905,4.8644,6.1867,4.7859,0.4890,5.0589,6.1401,9.4993,10.8231,1.1999,3.7815,9.6265,10.2260,9.6357
214.8438,1.3319,0.2527,6.7518,7.6290,5.3675,2.7217,3.4033,5.0388,3.2932,0.6538,3.4081,5.3571,7.1253,7.7331,0.4508,3.3093,6.3788,8.5270,8.2956
218.7500,0.0085,0.4448,6.4014,6.4761,4.1379,3.4646,2.2149,4.7075,2.3138,1.0476,2.0611,5.3726,5.4875,6.2778,0.5890,3.6335,3.9875,7.3386,7.4293
222.6562,-1.2346,1.7494,6.3708,6.1830,4.0281,3.5794,2.3231,5.1267,2.5679,1.7946,1.7997,6.3578,5.1597,6.3065,1.9273,4.6711,3.1428,7.3266,7.1518
226.5625,-1.5952,3.8897,6.6768,6.5904,4.4598,3.3494,4.1531,5.7504,4.1792,2.8329,2.9766,8.0838,6.0391,6.8228,4.1882,6.0911,3.7823,8.6173,7.2737
230.4688,-0.8728,6.2140,7.2207,7.2132,4.5822,3.1507,7.0861,5.8991,6.5304,3.8562,5.2487,9.9997,7.4020,6.6889,6.5673,7.4228,5.1609,10.7002,7.4450
234.3750,0.4202,8.0014,7.8329,7.5186,3.8028,3.1922,9.6864,5.1710,8.5827,4.4367,7.6953,11.4649,8.3243,5.3399,8.0998,8.2205,6.2798,12.6863,7.3670
238.2812,1.4287,8.8018,8.3184,7.2080,2.1478,3.3870,10.5184,3.6732,9.4642,4.2620,9.2656,12.0171,8.2189,3.0888,8.1254,8.2329,6.4370,13.7684,6.9445
242.1875,1.5284,8.6036,8.4899,6.3520,0.2542,3.4337,9.0272,1.9453,8.9526,3.3376,9.3065,11.5528,7.1642,0.8889,6.6055,7.5100,5.5893,13.6168,6.3039
246.0938,0.7117,7.7481,8.2060,5.3237,-0.9839,3.0527,5.8806,0.6495,7.5522,2.0273,7.8831,10.3475,5.8307,-0.2434,4.1483,6.3930,4.3258,12.4950,5.6900
250.0000,-0.4478,6.6804,7.4291,4.5800,-0.9047,2.2155,2.5289,0.2208,6.1413,0.8992,5.7284,8.9212,5.0557,0.2252,1.7507,5.3751,3.4814,11.0554,5.3175
253.9062,-1.1924,5.7153,6.2797,4.4129,0.5574,1.2072,0.2904,0.6718,5.4363,0.4595,3.8623,7.8103,5.3295,2.1165,0.3898,4.8820,3.6289,9.9525,5.2547
257.8125,-1.0511,4.9503,5.0300,4.7854,2.8012,0.4697,-0.4034,1.6208,5.6163,0.9135,3.0874,7.3382,6.4953,4.6810,0.6315,5.0751,4.7457,9.4988,5.3810
261.7188,-0.0848,4.3350,3.9983,5.3253,4.7914,0.3218,-0.1073,2.4852,6.3113,2.0722,3.6170,7.4790,7.8302,6.9510,2.4018,5.7799,6.2365,9.5412,5.4221
265.6250,1.2142,3.8026,3.3841,5.4814,5.4748,0.7466,0.2056,2.7198,6.9119,3.4471,5.0105,7.8788,8.4481,8.0954,5.0058,6.5861,7.2767,9.6020,5.0525
269.5312,2.2591,3.3570,3.1489,4.7846,4.2099,1.3944,-0.0856,2.0051,6.9643,4.4839,6.4334,8.0432,7.7880,7.6542,7.4070,7.0744,7.2631,9.1888,4.0445
273.4375,2.7026,3.0727,3.0443,3.1103,1.0570,1.8092,-0.8419,0.3514,6.4023,4.8227,7.1020,7.6149,5.9194,5.6422,8.6793,7.0449,6.1127,8.0998,2.4184
277.3438,2.5720,3.0396,2.7941,0.8159,-3.1749,1.7311,-1.3726,-1.8850,5.5110,4.4605,6.6845,6.5997,3.5093,2.5539,8.4462,6.6134,4.2638,6.5626,0.5206
281.2500,2.1664,3.3053,2.3132,-1.3420,-7.1626,1.2707,-1.0381,-4.0775,4.6998,3.7347,5.4529,5.3973,1.4856,-0.7296,7.0766,6.1137,2.4114,5.1358,-1.0497
285.1562,1.8222,3.8435,1.7991,-2.5105,-9.5316,0.8337,0.2399,-5.5069,4.2596,3.1321,4.1080,4.5886,0.5855,-3.1677,5.4964,5.8617,1.1525,4.4215,-1.6784
289.0625,1.7122,4.5437,1.6095,-2.1407,-9.3933,0.8438,1.9273,-5.6158,4.2462,3.0170,3.3737,4.5824,1.0250,-3.9107,4.6731,5.9333,0.7450,4.7405,-1.0453
292.9688,1.7877,5.2145,1.9971,-0.2821,-6.7319,1.4494,3.2668,-4.2512,4.5229,3.4296,3.5883,5.3359,2.4489,-2.6576,5.0533,6.1088,1.0901,5.9442,0.6694
296.8750,1.8667,5.6192,2.8888,2.4063,-2.4419,2.4092,3.7691,-1.7707,4.8905,4.0764,4.5292,6.3477,4.1657,0.1654,6.3030,6.0387,1.9027,7.4739,2.8316
300.7812,1.7851,5.5632,3.8803,4.9585,2.0334,3.2313,3.4431,1.0721,5.2052,4.5278,5.5772,6.9584,5.5197,3.5437,7.5424,5.5347,2.9292,8.6442,4.6591
304.6875,1.5099,5.0152,4.4642,6.5605,5.3066,3.4695,2.6567,3.4273,5.4201,4.5067,6.1165,6.7825,6.1925,6.2970,7.9444,4.7879,4.0630,8.9951,5.6194
308.5938,1.1518,4.1863,4.3425,6.9093,6.5950,2.9842,1.8213,4.6905,5.5535,4.0806,5.9184,5.9839,6.2740,7.5735,7.3046,4.3389,5.2927,8.5139,5.6736
312.5000,0.8872,3.4816,3.6070,6.2720,5.9406,2.0103,1.1839,4.7082,5.6296,3.6205,5.2635,5.1888,6.0902,7.1504,6.1813,4.7735,6.5474,7.5971,5.2113
316.4062,0.8551,3.3054,2.6723,5.2358,4.0216,1.0136,0.8524,3.7593,5.6426,3.5451,4.7284,5.0732,5.9204,5.4017,5.4920,6.3068,7.5785,6.7859,4.7314
320.3125,1.1021,3.8203,2.0227,4.3335,1.7146,0.4508,0.9387,2.3575,5.5693,4.0254,4.7927,5.8950,5.8028,3.0078,5.8438,8.5258,7.9993,6.4471,4.5044
324.2188,1.6149,4.8242,1.9616,3.7949,-0.3077,0.5900,1.6065,1.0170,5.4231,4.8653,5.5393,7.2993,5.5588,0.6255,7.0854,10.4946,7.4960,6.6060,4.4611
328.1250,2.4091,5.8590,2.5242,3.5610,-1.7268,1.4761,2.9331,0.1036,5.3129,5.6592,6.6520,8.5470,5.0114,-1.2813,8.4185,11.2171,6.0862,7.0245,4.3763
332.0312,3.5937,6.5078,3.5731,3.4982,-2.4671,3.0061,4.7144,-0.1979,5.4558,6.1200,7.6912,9.0204,4.2287,-2.4182,9.0012,10.2141,4.2411,7.4465,4.1848
335.9375,5.3335,6.6847,4.9534,3.6118,-2.4961,5.0124,6.4396,0.1412,6.1085,6.3306,8.4259,8.6536,3.5930,-2.5709,8.5956,7.8664,2.7453,7.8145,4.1539
339.8438,7.6985,6.7029,6.5585,4.0763,-1.7406,7.2789,7.5368,1.0067,7.4244,6.7097,8.9627,7.9760,3.6114,-1.6071,7.7630,5.2858,2.3221,8.2908,4.7438
343.7500,10.4871,7.0511,8.2667,5.0651,-0.1858,9.5016,7.7442,2.1408,9.3010,7.6861,9.5759,7.7271,4.5696,0.3922,7.4344,3.7502,3.2215,9.0685,6.2331
347.6562,13.1644,8.0209,9.8429,6.5276,1.9513,11.2826,7.3202,3.1834,11.3191,9.3050,10.3846,8.3067,6.2611,2.9935,8.1596,4.0085,5.0184,10.1265,8.3893
351.5625,15.0119,9.4509,10.9418,8.1076,4.1612,12.2246,6.8989,3.8014,12.8488,11.0657,11.1465,9.4478,7.9961,5.4375,9.5955,5.8590,6.7732,11.1288,10.4560
355.4688,15.4510,10.7833,11.2586,9.2853,5.7949,12.1091,7.0680,3.8637,13.3070,12.1444,11.3549,10.3494,8.9196,6.9002,10.6413,8.2538,7.4928,11.5681,11.5110
359.3750,14.3607,11.4018,10.7230,9.6477,6.3550,11.0442,7.9707,3.5388,12.4421,11.8830,10.5864,10.1833,8.4616,6.8679,10.1576,9.8707,6.6427,11.0623,10.9770
363.2812,12.1768,11.0147,9.5650,9.0937,5.7350,9.4576,9.2159,3.2065,10.4742,10.2178,8.8371,8.6271,6.6425,5.3925,7.7736,9.8166,4.4160,9.5939,8.9465
367.1875,9.6732,9.8065,8.1651,7.8319,4.2459,7.8989,10.1480,3.2004,7.9852,7.7478,6.5820,6.0635,4.0449,3.0513,4.2098,8.0575,1.6039,7.5138,6.1049
371.0938,7.5362,8.2531,6.7769,6.1916,2.4220,6.7487,10.2488,3.5412,5.6047,5.3843,4.4928,3.3233,1.4749,0.6282,0.8812,5.3479,-0.8469,5.3030,3.3120
375.0000,6.0034,6.7490,5.3382,4.4039,0.7485,6.0129,9.3720,3.8653,3.6807,3.8151,3.0106,1.1665,-0.4682,-1.2794,-0.9475,2.7421,-2.3195,3.2680,1.1316
378.9062,4.8140,5.3332,3.5426,2.5207,-0.5158,5.3437,7.6731,3.6353,2.1507,3.1425,2.0897,-0.1355,-1.6460,-2.4872,-0.8811,1.0110,-2.7679,1.3951,-0.3877
382.8125,3.5151,3.7250,1.1518,0.5182,-1.3424,4.2898,5.3648,2.5161,0.7026,2.9267,1.3021,-0.8471,-2.3236,-3.1724,0.4692,0.3114,-2.5988,-0.5269,-1.5716
386.7188,1.9111,1.6404,-1.6758,-1.5208,-1.8205,2.6267,2.5600,0.6611,-0.8881,2.5752,0.2215,-1.4514,-2.8770,-3.6294,1.9679,0.2638,-2.3123,-2.6136,-2.7659
390.6250,0.3201,-0.8595,-4.3054,-3.3124,-2.0494,0.5609,-0.6440,-1.3061,-2.4897,1.7823,-1.2057,-2.2291,-3.4849,-4.0341,2.6737,0.3222,-2.1617,-4.6528,-4.0410
394.5312,-0.5750,-3.2662,-5.9049,-4.4585,-2.1091,-1.3295,-3.9360,-2.6260,-3.6279,0.7101,-2.5874,-3.0459,-4.0152,-4.3719,2.3050,0.1564,-2.0555,-6.1288,-5.1505
398.4375,-0.2081,-4.8678,-5.9287,-4.6644,-2.0864,-2.3933,-6.6748,-2.8409,-3.7962,-0.1928,-3.3666,-3.4897,-4.1605,-4.5363,1.2062,-0.2020,-1.7364,-6.5184,-5.7302
402.3438,1.3862,-5.1834,-4.4930,-3.9356,-2.0825,-2.2717,-8.0743,-2.0509,-2.8605,-0.5652,-3.2462,-3.2335,-3.7060,-4.4757,-0.0529,-0.5010,-1.0779,-5.6647,-5.5620
406.2500,3.4478,-4.2872,-2.3781,-2.6189,-2.1677,-1.1152,-7.6264,-0.8289,-1.2670,-0.4067,-2.4383,-2.3472,-2.7311,-4.2540,-1.0864,-0.5475,-0.2647,-3.9709,-4.7109
410.1562,4.8593,-2.7964,-0.6404,-1.2629,-2.3265,0.4766,-5.4758,0.1267,0.1224,-0.0528,-1.5527,-1.3246,-1.6113,-3.9877,-1.8267,-0.3943,0.2794,-2.2578,-3.4734
414.0625,4.7996,-1.5252,-0.0691,-0.3913,-2.4728,1.7597,-2.4580,0.3553,0.4945,0.1081,-1.2060,-0.8073,-0.8278,-3.7397,-2.3711,-0.3007,0.1630,-1.3544,-2.2196
417.9688,3.2671,-1.0288,-0.8181,-0.3165,-2.5516,2.2256,0.2607,-0.2114,-0.4347,-0.0553,-1.6322,-1.1921,-0.7133,-3.4754,-2.7579,-0.5119,-0.6931,-1.6609,-1.2594
421.8750,1.1275,-1.3233,-2.4124,-1.0693,-2.6470,1.8437,1.7268,-1.3529,-2.2291,-0.3158,-2.5630,-2.3830,-1.2877,-3.1221,-2.8963,-1.0382,-1.9639,-2.9453,-0.7974
425.7812,-0.3586,-1.9360,-4.0804,-2.4348,-2.9768,1.0401,1.5959,-2.7768,-3.9618,-0.2637,-3.4407,-3.8385,-2.2618,-2.6656,-2.6927,-1.6093,-3.0794,-4.4902,-0.9367
429.6875,-0.2400,-2.2297,-5.1753,-4.0385,-3.7287,0.4315,0.1787,-4.2579,-4.7325,0.3799,-3.7936,-4.8733,-3.1846,-2.1873,-2.2191,-1.8452,-3.5297,-5.4943,-1.6580
433.5938,1.6098,-1.7896,-5.4395,-5.4465,-4.8391,0.4674,-1.8219,-5.6144,-4.1664,1.5411,-3.5116,-5.0247,-3.6434,-1.7965,-1.7383,-1.5288,-3.1281,-5.4972,-2.7655
437.5000,4.4500,-0.6563,-5.0129,-6.2787,-5.9045,1.1763,-3.6688,-6.6114,-2.6105,2.8083,-2.8604,-4.2829,-3.4251,-1.5217,-1.5454,-0.7900,-2.0846,-4.5995,-3.8721
441.4062,7.0861,0.6959,-4.2669,-6.3405,-6.3497,2.1519,-4.8436,-6.9521,-0.9325,3.6553,-2.2718,-3.0800,-2.5894,-1.2667,-1.7627,-0.0727,-0.8701,-3.3824,-4.5184
445.3125,8.4667,1.5910,-3.6161,-5.7359,-5.7876,2.7781,-5.1420,-6.4325,-0.0570,3.7135,-2.0870,-2.0780,-1.4463,-0.8929,-2.2746,0.0992,0.0244,-2.5978,-4.4168
449.2188,8.1312,1.4623,-3.4067,-4.8794,-4.3329,2.5682,-4.6719,-5.1618,-0.5045,2.9289,-2.4172,-1.8748,-0.4527,-0.3746,-2.8599,-0.5858,0.2936,-2.8010,-3.6832
453.1250,6.3195,0.1082,-3.8646,-4.3440,-2.6217,1.4335,-3.8137,-3.6455,-2.1619,1.5451,-3.1637,-2.7588,-0.0526,0.1022,-3.3961,-2.0520,-0.1037,-4.1016,-2.8657
457.0312,3.7686,-2.1950,-5.0388,-4.5764,-1.4782,-0.2570,-3.1171,-2.5948,-4.3708,-0.0297,-4.1161,-4.5953,-0.5054,0.1983,-3.9409,-3.8727,-0.9959,-6.1273,-2.6841
460.9375,1.3649,-4.7610,-6.7196,-5.6248,-1.4268,-1.8535,-3.0788,-2.5320,-6.2528,-1.3746,-5.0309,-6.8703,-1.7640,-0.3775,-4.6109,-5.4850,-2.1191,-8.1937,-3.5947
464.8438,-0.1777,-6.7288,-8.4073,-7.0572,-2.3776,-2.7390,-3.8418,-3.4407,-7.1017,-2.1660,-5.6625,-8.8734,-3.4716,-1.6584,-5.3695,-6.4509,-3.2322,-9.5928,-5.4516
468.7500,-0.5199,-7.4013,-9.4336,-8.1608,-3.7069,-2.6180,-5.0033,-4.7229,-6.6721,-2.2458,-5.7975,-9.9660,-5.1005,-3.3510,-5.9442,-6.6297,-4.1870,-9.8803,-7.5108
472.6562,0.2362,-6.5626,-9.2552,-8.3342,-4.6791,-1.6380,-5.7461,-5.5317,-5.2624,-1.6686,-5.3421,-9.8457,-6.1833,-4.9659,-5.9904,-6.1901,-4.9427,-9.0524,-8.8164
476.5625,1.6069,-4.6199,-7.7879,-7.4428,-4.9104,-0.2965,-5.3253,-5.2871,-3.5710,-0.7139,-4.4336,-8.6936,-6.5211,-6.0621,-5.4020,-5.4865,-5.5358,-7.5416,-8.7504
480.4688,2.9091,-2.4640,-5.5595,-5.9081,-4.5497,0.8076,-3.6465,-4.0411,-2.3898,0.1780,-3.4702,-7.1195,-6.2498,-6.4435,-4.5094,-4.8863,-6.0193,-6.0284,-7.4015
484.3750,3.5365,-1.0707,-3.5259,-4.4619,-4.0685,1.2476,-1.5050,-2.4471,-2.2544,0.5657,-2.9737,-5.8957,-5.7236,-6.1884,-3.9581,-4.6341,-6.3967,-5.1423,-5.5134
488.2812,3.2387,-1.0233,-2.5961,-3.7117,-3.8411,0.9399,-0.2127,-1.3508,-3.1996,0.2111,-3.3154,-5.5902,-5.2863,-5.5198,-4.3051,-4.7984,-6.5854,-5.1804,-4.0390
492.1875,2.2573,-2.2146,-3.1233,-3.7903,-3.8512,0.1446,-0.7593,-1.2728,-4.7405,-0.7894,-4.4669,-6.2822,-5.0733,-4.6363,-5.6087,-5.2974,-6.4433,-5.9785,-3.5860
496.0938,1.2089,-3.9131,-4.6777,-4.3134,-3.7461,-0.6874,-3.0459,-2.1203,-6.1090,-2.0460,-5.9614,-7.5246,-4.9716,-3.6361,-7.3274,-5.9642,-5.8648,-7.0079,-4.1009
500.0000,0.7361,-5.1768,-6.2700,-4.6637,-3.1844,-1.1396,-5.7700,-3.2979,-6.6468,-3.0888,-7.1304,-8.5914,-4.7534,-2.5762,-8.6349,-6.6189,-4.8990,-7.6562,-4.9754
503.9062,1.1095,-5.3835,-6.9156,-4.4107,-2.1883,-1.0224,-7.1374,-4.1196,-6.1582,-3.6322,-7.4923,-8.8825,-4.2860,-1.5892,-8.9500,-7.1213,-3.8099,-7.5529,-5.4831
507.8125,2.0276,-4.5663,-6.2087,-3.5873,-1.2053,-0.4507,-5.9919,-4.2289,-5.0227,-3.7211,-7.0453,-8.2583,-3.6671,-0.9313,-8.3112,-7.3997,-3.0131,-6.7648,-5.2477
511.7188,2.7661,-3.3541,-4.5559,-2.6532,-0.8163,0.2222,-2.6117,-3.7576,-3.9929,-3.6650,-6.2695,-7.1125,-3.1914,-0.8939,-7.3314,-7.4574,-2.8944,-5.7559,-4.4487
515.6250,2.6044,-2.5640,-2.9279,-2.1821,-1.3043,0.5804,1.3966,-3.1518,-3.7794,-3.8099,-5.8314,-6.1415,-3.1731,-1.6231,-6.7700,-7.3589,-3.6027,-5.1371,-3.6642
519.5312,1.2720,-2.7069,-2.2868,-2.4932,-2.4229,0.3475,4.0668,-2.8278,-4.6588,-4.3102,-6.1847,-5.9529,-3.7516,-2.9834,-7.0318,-7.2045,-4.9464,-5.3465,-3.4888
523.4375,-0.8725,-3.7172,-3.0453,-3.4707,-3.5544,-0.4843,4.2613,-2.9150,-6.3329,-5.0560,-7.3249,-6.7451,-4.8124,-4.5767,-7.9433,-7.1014,-6.4739,-6.4398,-4.1940
527.3438,-3.0453,-5.0597,-4.8816,-4.6799,-4.1589,-1.6644,2.2784,-3.2548,-8.1185,-5.7938,-8.8426,-8.2375,-6.0734,-5.9287,-8.9419,-7.1420,-7.7058,-8.0952,-5.6349
531.2500,-4.4899,-6.1192,-6.9975,-5.6826,-4.1844,-2.8278,-0.5094,-3.6153,-9.3427,-6.3320,-10.2102,-9.8694,-7.2626,-6.7312,-9.5107,-7.3914,-8.3822,-9.8079,-7.4191
535.1562,-4.8808,-6.5957,-8.6239,-6.3261,-4.1262,-3.6949,-2.6858,-3.9298,-9.6968,-6.6681,-11.0874,-11.1228,-8.2550,-6.9863,-9.5280,-7.8774,-8.5700,-11.1413,-9.1762
539.0625,-4.4225,-6.6421,-9.4318,-6.8065,-4.6726,-4.2061,-3.7296,-4.3558,-9.3354,-6.9384,-11.4413,-11.7602,-9.0700,-6.9604,-9.2890,-8.5726,-8.5581,-11.8812,-10.7219
542.9688,-3.6041,-6.6645,-9.5950,-7.4647,-6.1709,-4.5074,-4.2008,-5.1060,-8.6767,-7.2362,-11.4250,-11.8462,-9.7385,-6.9774,-9.2105,-9.3662,-8.6081,-12.0220,-12.0142
546.8750,-2.8023,-6.9424,-9.4963,-8.4560,-8.2851,-4.7965,-5.0864,-6.1801,-8.0536,-7.4483,-11.1389,-11.5724,-10.1502,-7.1840,-9.4590,-10.0463,-8.7260,-11.6265,-12.9667
550.7812,-2.0207,-7.3441,-9.3147,-9.5212,-10.0887,-5.1337,-6.8397,-7.2146,-7.4542,-7.2519,-10.4699,-11.0319,-10.0129,-7.4313,-9.7789,-10.3209,-8.6126,-10.6849,-13.2945
554.6875,-0.9449,-7.3478,-8.8036,-10.0270,-10.5465,-5.3583,-8.8574,-7.5918,-6.5253,-6.2991,-9.1367,-10.1120,-8.9767,-7.3438,-9.6348,-9.9015,-7.8377,-9.0855,-12.5409
558.5938,0.7380,-6.3667,-7.4322,-9.2733,-9.0871,-5.1868,-9.8029,-6.7690,-4.8373,-4.4772,-6.9104,-8.5820,-6.8631,-6.5313,-8.5590,-8.6346,-6.1347,-6.7241,-10.3048
562.5000,2.9891,-4.1727,-4.8036,-6.9011,-5.9244,-4.4414,-8.5533,-4.6320,-2.2389,-2.0708,-3.8586,-6.3104,-3.8541,-4.8263,-6.4705,-6.6232,-3.6333,-3.6727,-6.5401
566.4062,5.2935,-1.1398,-1.0668,-3.1685,-1.9597,-3.2526,-5.0944,-1.6466,0.9242,0.2917,-0.4443,-3.4622,-0.5124,-2.4203,-3.7737,-4.2615,-0.8780,-0.2841,-1.7372
570.3125,6.8618,1.8603,2.9701,1.0672,1.6419,-2.0755,-0.7203,1.3005,3.8736,1.8937,2.5935,-0.5318,2.4005,0.1662,-1.2032,-2.1326,1.3902,2.8598,3.1458
574.2188,7.0411,3.8617,6.1329,4.6656,3.9412,-1.4733,2.6245,3.2921,5.7235,2.2532,4.5195,1.8244,4.2232,2.2636,0.4809,-0.7858,2.5751,5.1481,6.9931
578.1250,5.6821,4.2774,7.4302,6.6661,4.5327,-1.7811,3.4476,3.7903,5.8966,1.3439,4.9037,3.0735,4.6608,3.3074,0.7903,-0.4872,2.5035,6.1909,8.9475
582.0312,3.2395,3.1719,6.5463,6.6769,3.5782,-2.8632,1.5613,2.8485,4.4124,-0.3930,3.8022,3.0554,3.8908,3.0631,-0.3086,-1.0713,1.4981,5.9888,8.7392
585.9375,0.5489,1.1918,3.9995,5.0170,1.6365,-4.1363,-1.8233,1.0358,1.8977,-2.2441,1.7458,2.0638,2.4720,1.7370,-2.3711,-1.9853,0.2163,4.9334,6.7883
589.8438,-1.5841,-0.7881,0.8873,2.5596,-0.5694,-4.8684,-4.7839,-0.8594,-0.6852,-3.5228,-0.4549,0.7205,1.1134,-0.0750,-4.6025,-2.5271,-0.6512,3.6416,4.0418
593.7500,-2.7486,-2.0880,-1.6249,0.3644,-2.3484,-4.5867,-5.7184,-2.1704,-2.4594,-3.8407,-2.0092,-0.2927,0.4181,-1.5924,-6.1168,-2.1715,-0.6653,2.7059,1.6244
597.6562,-3.0576,-2.4869,-2.7901,-0.7360,-3.1796,-3.3489,-4.1282,-2.5720,-2.9997,-3.2409,-2.4436,-0.5147,0.7001,-2.1403,-6.2666,-0.8262,0.2209,2.4768,0.4395
601.5625,-3.0004,-2.2116,-2.5058,-0.4221,-2.8144,-1.7126,-0.7612,-2.1069,-2.4754,-2.1541,-1.7834,0.1273,1.9240,-1.4115,-4.9336,1.1131,1.7109,2.9651,0.8681
605.4688,-3.1305,-1.7060,-1.2144,1.0533,-1.3399,-0.4208,2.8872,-1.0563,-1.5091,-1.2028,-0.5380,1.3268,3.7596,0.4159,-2.6329,2.9381,3.3488,3.8921,2.6669
609.3750,-3.7762,-1.3465,0.4077,3.0362,0.8381,0.0081,5.3824,0.2392,-0.8311,-0.9340,0.5251,2.5690,5.7116,2.7671,-0.3282,3.9511,4.7337,4.8491,5.0971
613.2812,-4.9165,-1.2694,1.7785,4.7818,3.1269,-0.4527,6.0232,1.5146,-0.9054,-1.5846,0.7400,3.3785,7.2780,4.9318,1.0054,3.7805,5.6581,5.4878,7.2347
617.1875,-6.2558,-1.3775,2.6032,5.7636,4.9653,-1.3566,5.0636,2.6282,-1.7156,-2.9740,-0.1238,3.5292,8.0944,6.3672,0.8701,2.5402,6.1214,5.6590,8.3414
621.0938,-7.4181,-1.4769,2.8865,5.8485,6.0223,-2.0588,3.4286,3.5361,-2.8179,-4.5758,-1.7282,3.1234,8.0273,6.8878,-0.4877,0.7687,6.2368,5.4410,8.1449
625.0000,-8.1357,-1.4316,2.8176,5.2718,6.2612,-2.0791,2.1274,4.2310,-3.6242,-5.7495,-3.3274,2.5043,7.1879,6.6454,-2.2113,-0.8158,6.1035,5.0513,6.9033
628.9062,-8.3417,-1.2445,2.6189,4.4415,5.8329,-1.3517,1.6953,4.6826,-3.7562,-6.0351,-4.1616,2.0506,5.8622,5.9317,-3.3134,-1.6221,5.7263,4.6933,5.2241
632.8125,-8.1510,-1.0397,2.4301,3.6861,4.8852,-0.2421,1.9596,4.8088,-3.2684,-5.3761,-3.8793,1.9621,4.3866,4.9459,-3.2296,-1.4186,5.0325,4.4241,3.7319
636.7188,-7.7766,-0.9848,2.2600,3.0906,3.4405,0.6577,2.2396,4.4908,-2.6086,-4.1545,-2.7436,2.1602,3.0297,3.6918,-2.1123,-0.3941,3.9734,4.1297,2.7635
640.6250,-7.4428,-1.2078,2.0123,2.5111,1.4489,0.8373,1.8499,3.6389,-2.3382,-3.0100,-1.4897,2.3631,1.9410,2.0753,-0.6859,0.9640,2.6436,3.6317,2.2610
644.5312,-7.3255,-1.7438,1.5698,1.7528,-1.0190,0.1258,0.5992,2.2851,-2.7765,-2.5251,-0.8988,2.2969,1.1836,0.1289,0.2358,2.1052,1.3309,2.8684,1.9157
648.4375,-7.5157,-2.5144,0.9019,0.7877,-3.6011,-1.2208,-1.0256,0.6519,-3.7866,-2.9382,-1.3402,1.9063,0.8112,-1.8191,0.2557,2.6507,0.4431,2.0249,1.4596
652.3438,-7.9937,-3.3407,0.1369,-0.1454,-5.6658,-2.6397,-2.1203,-0.8653,-4.8443,-4.0392,-2.5593,1.4182,0.9118,-3.1842,-0.4032,2.5179,0.3310,1.4982,0.8999
656.2500,-8.6220,-3.9945,-0.4630,-0.6440,-6.5722,-3.5348,-1.9206,-1.8306,-5.3581,-5.3091,-3.8528,1.1963,1.5620,-3.3955,-1.1184,1.8909,1.0923,1.6769,0.5305
660.1562,-9.1864,-4.2902,-0.6381,-0.3998,-6.0324,-3.5790,-0.3121,-1.9715,-5.0525,-6.2262,-4.5261,1.4649,2.7096,-2.2437,-1.3466,1.0708,2.4746,2.6496,0.7030
664.0625,-9.4978,-4.1927,-0.3184,0.5563,-4.3336,-2.8940,2.0382,-1.3423,-4.1742,-6.5602,-4.3463,2.0869,4.0737,-0.0804,-1.0290,0.3056,3.9468,4.0317,1.5161
667.9688,-9.5148,-3.8767,0.2651,1.7966,-2.2488,-2.0036,4.0257,-0.3312,-3.3788,-6.4784,-3.6923,2.5686,5.1670,2.2834,-0.6403,-0.3009,4.9213,5.0635,2.6538
671.8750,-9.4037,-3.6750,0.6506,2.6923,-0.6565,-1.5606,4.7236,0.5251,-3.3475,-6.3946,-3.2985,2.3240,5.4764,3.9490,-0.8434,-0.7570,5.0182,4.9721,3.5054
675.7812,-9.4617,-3.9061,0.3963,2.7561,-0.0908,-1.9761,3.8889,0.8279,-4.3575,-6.6561,-3.7487,1.0518,4.7212,4.3610,-1.9818,-1.0773,4.2285,3.4084,3.5097
679.6875,-9.9173,-4.6656,-0.6261,1.9192,-0.5003,-3.1574,2.0566,0.5297,-6.0733,-7.2736,-5.0548,-1.0262,3.0324,3.5459,-3.7550,-1.2034,2.8835,0.6888,2.4937
683.5938,-10.7260,-5.7181,-2.0985,0.5561,-1.3642,-4.5231,0.1836,-0.0749,-7.7045,-7.8828,-6.6093,-3.2446,0.9171,2.0218,-5.3152,-1.0334,1.4486,-2.3347,0.7717
687.5000,-11.5213,-6.5926,-3.4070,-0.7661,-2.0816,-5.3142,-0.9132,-0.5901,-8.4565,-7.9827,-7.5614,-4.8714,-0.9971,0.4497,-5.7465,-0.5508,0.2622,-4.7289,-1.0712
691.4062,-11.8009,-6.8542,-4.0121,-1.6529,-2.3736,-5.0370,-0.9772,-0.8382,-8.0126,-7.3046,-7.3799,-5.5511,-2.2968,-0.7452,-4.6384,0.0560,-0.6233,-5.9921,-2.5603
695.3125,-11.2637,-6.3920,-3.8073,-2.1205,-2.4351,-3.7718,-0.3660,-1.0311,-6.7474,-6.0607,-6.2289,-5.5144,-2.9846,-1.5496,-2.3866,0.4123,-1.4027,-6.3038,-3.6075
699.2188,-10.0719,-5.5203,-3.2107,-2.5430,-2.7446,-2.1475,0.2395,-1.6530,-5.5242,-4.8770,-4.8885,-5.3949,-3.4084,-2.2471,-0.0141,0.1602,-2.3084,-6.3453,-4.4801
703.1250,-8.8249,-4.7980,-2.8980,-3.3435,-3.6743,-0.9795,0.2514,-3.1068,-5.1764,-4.4204,-4.2512,-5.7566,-3.9594,-3.1159,1.3964,-0.7590,-3.3688,-6.7979,-5.4891
707.0312,-8.2093,-4.6628,-3.3336,-4.6371,-5.1668,-0.7912,-0.5280,-5.3494,-5.9801,-4.9462,-4.7183,-6.6469,-4.7399,-4.1590,1.3207,-1.9450,-4.3020,-7.8493,-6.6318
710.9375,-8.5279,-5.1208,-4.4146,-6.0736,-6.6981,-1.5186,-1.8568,-7.7732,-7.4474,-6.0778,-5.9032,-7.4959,-5.4400,-5.0479,0.0770,-2.6688,-4.6332,-9.0379,-7.4742
714.8438,-9.4408,-5.7184,-5.4878,-6.9967,-7.5524,-2.5864,-3.2154,-9.4438,-8.5879,-7.0000,-6.8607,-7.4611,-5.5280,-5.3100,-1.4040,-2.2768,-3.9838,-9.5506,-7.3931
718.7500,-10.1389,-5.8394,-5.7553,-6.8275,-7.2348,-3.3023,-4.0599,-9.5765,-8.5044,-6.9767,-6.7127,-6.0164,-4.6447,-4.6325,-2.1828,-0.6480,-2.3627,-8.7869,-6.0345
722.6562,-9.8833,-5.1379,-4.8129,-5.4316,-5.7663,-3.3035,-4.0466,-7.9720,-6.9651,-5.8655,-5.2615,-3.3948,-2.9380,-3.0866,-1.9032,1.6074,-0.2701,-6.8174,-3.6723
726.5625,-8.5599,-3.8075,-2.9609,-3.2395,-3.6886,-2.7605,-3.1644,-5.1488,-4.5965,-4.2714,-3.1711,-0.5714,-1.0924,-1.1404,-0.9898,3.3921,1.4751,-4.4249,-1.1923
730.4688,-6.8425,-2.4857,-1.0669,-1.0443,-1.7842,-2.2069,-1.7482,-2.0935,-2.5534,-3.1983,-1.5734,1.2414,0.0029,0.5399,-0.3171,3.7172,2.1147,-2.6874,0.3299
734.3750,-5.7968,-1.8397,-0.0555,0.4018,-0.6803,-2.1231,-0.3613,0.2217,-1.8469,-3.3908,-1.3376,1.2909,-0.2362,1.3817,-0.5650,2.3085,1.3369,-2.3538,0.2201
738.2812,-6.1451,-2.1094,-0.3480,0.7558,-0.5539,-2.5655,0.4356,1.2789,-2.7265,-4.7902,-2.4775,-0.2550,-1.7112,1.1423,-1.6911,-0.1680,-0.5462,-3.4024,-1.3964
742.1875,-7.6828,-2.9200,-1.6054,0.2190,-1.0822,-3.0984,0.3550,1.1798,-4.4944,-6.4800,-4.0918,-2.3725,-3.6368,-0.0111,-2.8840,-2.4321,-2.7313,-5.0457,-3.6347
746.0938,-9.2778,-3.5020,-2.9280,-0.6162,-1.6422,-3.0765,-0.4412,0.4816,-5.8730,-7.1928,-4.8880,-3.7361,-4.9251,-1.5848,-3.0473,-3.2958,-4.2980,-6.1695,-5.3019
750.0000,-9.5123,-3.1714,-3.3687,-1.0958,-1.6389,-2.0875,-1.3854,-0.1630,-5.7118,-6.0792,-3.9560,-3.4241,-4.7354,-2.9479,-1.5082,-2.3224,-4.6190,-5.9243,-5.4909
753.9062,-7.5833,-1.7490,-2.4375,-0.8230,-0.7960,-0.2580,-1.7855,-0.3472,-3.6149,-3.2501,-1.2993,-1.3606,-2.8754,-3.5443,1.5176,-0.0329,-3.5947,-4.1223,-3.9770
757.8125,-3.8738,0.3573,-0.3071,0.1902,0.7235,1.7792,-1.2034,-0.0595,-0.1240,0.2607,2.2058,1.7403,0.1575,-3.0613,5.0165,2.4600,-1.6083,-1.2352,-1.2253
761.7188,0.2017,2.4476,2.3559,1.5865,2.4088,3.2367,0.2927,0.3942,3.6280,3.1011,5.3702,4.8461,3.4835,-1.5136,7.7694,4.1432,0.7328,1.9491,1.9371
765.6250,3.0047,3.9826,4.7781,2.8741,3.6532,3.6198,2.1663,0.6164,6.5565,4.3900,7.3856,7.1712,6.2823,0.7736,9.0548,4.6714,2.8960,4.7589,4.7514
769.5312,3.6255,4.8785,6.4303,3.6656,4.0448,2.9961,3.7148,0.3529,8.1574,4.1950,8.2052,8.4951,8.1119,3.2788,9.0050,4.4636,4.5883,6.8962,6.8090
773.4375,2.3764,5.4575,7.1657,3.8324,3.5620,1.9329,4.4372,-0.3707,8.6330,3.4063,8.3979,9.0897,8.9610,5.4603,8.3945,4.3005,5.7321,8.4059,8.0760
777.3438,0.5213,6.1174,7.1386,3.5259,2.5815,1.1566,4.2337,-1.2558,8.5845,3.1082,8.6266,9.3737,9.0773,6.9344,8.0321,4.7265,6.3261,9.4488,8.7281
781.2500,-0.5603,6.9808,6.6288,3.0807,1.6959,1.1472,3.3434,-1.8582,8.5262,3.8657,9.1401,9.5681,8.7408,7.5865,8.1874,5.6666,6.3377,10.0823,8.9576
785.1562,-0.2222,7.7830,5.9086,2.8605,1.4324,1.9017,2.1227,-1.7713,8.5588,5.3791,9.6229,9.5842,8.1420,7.5706,8.4423,6.5006,5.7248,10.2137,8.8874
789.0625,1.1261,8.0741,5.2056,3.1193,2.0163,2.9858,0.8654,-0.7884,8.4003,6.7088,9.4775,9.1855,7.4087,7.2061,8.0493,6.5166,4.5646,9.7397,8.6079
792.9688,2.3901,7.5788,4.7145,3.9310,3.3018,3.8183,-0.2123,1.0190,7.7121,6.9009,8.3114,8.2716,6.7003,6.8292,6.5250,5.4218,3.1683,8.7473,8.2563
796.8750,2.5690,6.4485,4.5882,5.1999,4.8967,4.0091,-0.8737,3.3377,6.4577,5.6054,6.2801,7.0605,6.2441,6.6734,4.0554,3.5705,2.0522,7.6037,8.0374
800.7812,1.4152,5.2225,4.8850,6.7284,6.3981,3.5605,-0.8187,5.7393,5.0291,3.3085,4.0602,6.0376,6.2590,6.8241,1.4393,1.7830,1.7348,6.8479,8.1517
804.6875,-0.4332,4.5226,5.5170,8.2956,7.5910,2.8325,0.1906,7.8309,4.0541,1.0618,2.4931,5.7066,6.8167,7.2429,-0.3717,0.8944,2.4635,6.9351,8.6793
808.5938,-1.8830,4.6883,6.2662,9.7066,8.4953,2.3132,2.1023,9.3553,4.0262,-0.0974,2.1472,6.3115,7.7568,7.8210,-0.8097,1.3262,4.0448,7.9890,9.5138
812.5000,-2.0581,5.5946,6.8847,10.8015,9.2483,2.3397,4.4514,10.1986,5.0115,0.3225,3.0697,7.7045,8.7410,8.4160,0.0526,2.9207,5.9034,9.7148,10.4024
816.4062,-0.7756,6.7599,7.2258,11.4455,9.9185,2.9285,6.5073,10.3312,6.6236,2.0758,4.8433,9.4313,9.4266,8.8652,1.6572,5.0884,7.3579,11.5306,11.0758
820.3125,1.4379,7.6589,7.3173,11.5322,10.3879,3.8010,7.6528,9.7510,8.2641,4.3914,6.8580,10.9640,9.6498,8.9937,3.3725,7.1309,7.9593,12.8434,11.3844
824.2188,3.7325,8.0282,7.3248,11.0161,10.3872,4.5735,7.7444,8.4854,9.4556,6.4187,8.6015,11.9376,9.4979,8.6508,4.8484,8.5385,7.6999,13.3186,11.3579
828.1250,5.4357,7.9773,7.4292,9.9568,9.6621,4.9855,7.1773,6.6540,10.0527,7.6352,9.8112,12.2643,9.2278,7.7808,6.0866,9.1317,6.9761,13.0031,11.1557
832.0312,6.3537,7.8582,7.7052,8.5399,8.1632,5.0286,6.5803,4.5259,10.2241,8.0122,10.4604,12.0960,9.0967,6.4983,7.2364,9.0355,6.3454,12.2558,10.9508
835.9375,6.7439,8.0077,8.0831,7.0477,6.1427,4.9062,6.3503,2.4977,10.2636,7.9027,10.6608,11.6956,9.2252,5.1178,8.3228,8.5623,6.2333,11.5446,10.8308
839.8438,7.0461,8.5379,8.4155,5.7859,4.1020,4.8658,6.3744,0.9745,10.3870,7.7679,10.5766,11.3073,9.5808,4.0988,9.1438,8.0787,6.7609,11.2318,10.7800
843.7500,7.5858,9.2988,8.5962,5.0035,2.6218,5.0239,6.1577,0.2153,10.6490,7.9184,10.3846,11.0875,10.0715,3.9074,9.4110,7.8905,7.7672,11.4544,10.7457
847.6562,8.4223,10.0080,8.6458,4.8430,2.1584,5.3017,5.2700,0.2469,10.9979,8.3945,10.2490,11.0950,10.6566,4.8394,9.0058,8.1486,8.9726,12.1322,10.7293
851.5625,9.3835,10.4333,8.7017,5.3315,2.8865,5.5047,3.7716,0.9034,11.3799,9.0087,10.2713,11.3045,11.3773,6.8758,8.1307,8.7871,10.1499,13.0629,10.8239
855.4688,10.2065,10.5013,8.9209,6.3935,4.6339,5.4790,2.2845,1.9591,11.7824,9.4830,10.4214,11.6145,12.2795,9.6392,7.2195,9.5304,11.1946,14.0237,11.1601
859.3750,10.6703,10.2749,9.3563,7.8580,6.9173,5.2228,1.6356,3.2475,12.1807,9.5897,10.5087,11.8570,13.2961,12.4820,6.6598,9.9990,12.0751,14.8269,11.7887
863.2812,10.6591,9.8452,9.8862,9.4574,9.0692,4.8720,2.3134,4.6746,12.4503,9.2300,10.2456,11.8350,14.1932,14.6866,6.5277,9.8891,12.7338,15.3243,12.5840
867.1875,10.1612,9.2362,10.2445,10.8470,10.4349,4.5750,4.1141,6.1276,12.3504,8.4409,9.3926,11.4010,14.6430,15.7074,6.5333,9.1404,13.0357,15.4002,13.2470
871.0938,9.2476,8.4004,10.1415,11.6763,10.5937,4.3606,6.2171,7.3781,11.6318,7.3575,7.9097,10.5447,14.3894,15.3586,6.2221,7.9840,12.8092,14.9889,13.4273
875.0000,8.0575,7.2995,9.4167,11.7092,9.5248,4.1067,7.6248,8.0957,10.2146,6.1637,6.0143,9.4336,13.4007,13.8636,5.3025,6.8265,11.9508,14.1190,12.9035
878.9062,6.7849,5.9983,8.1458,10.9393,7.6301,3.6394,7.6814,8.0014,8.3146,5.0493,4.1038,8.3599,11.9053,11.7425,3.8746,6.0278,10.5173,12.9445,11.7148
882.8125,5.6491,4.6864,6.6440,9.6240,5.5750,2.8914,6.3662,7.0659,6.4088,4.1726,2.5860,7.6057,10.2874,9.5853,2.4074,5.7075,8.7426,11.7218,10.1605
886.7188,4.8460,3.6036,5.3554,8.1925,3.9982,1.9972,4.2477,5.5967,5.0350,3.6247,1.7162,7.2990,8.9076,7.8190,1.4750,5.7032,6.9704,10.7229,8.6622
890.6250,4.5024,2.9189,4.6732,7.0612,3.2303,1.2498,2.1901,4.1178,4.5327,3.4040,1.5250,7.3494,7.9604,6.5754,1.4199,5.7038,5.5415,10.1271,7.5667
894.5312,4.6570,2.6541,4.7734,6.4512,3.1737,0.9415,0.9991,3.0972,4.8783,3.4219,1.8578,7.5093,7.4396,5.7143,2.1502,5.4659,4.6889,9.9547,7.0027
898.4375,5.2699,2.7095,5.5423,6.3117,3.4105,1.1994,1.1431,2.6970,5.7134,3.5489,2.4766,7.5263,7.2066,4.9656,3.1937,4.9704,4.4742,10.0825,6.8654
902.3438,6.2408,2.9671,6.6350,6.3908,3.4725,1.9222,2.5945,2.7181,6.5425,3.6868,3.1528,7.2921,7.0922,4.0993,3.9670,4.4190,4.7734,10.3292,6.9235
906.2500,7.4102,3.3878,7.6382,6.4061,3.1081,2.8520,4.8016,2.7802,6.9805,3.8229,3.7141,6.8950,6.9636,3.0296,4.0955,4.0864,5.3096,10.5484,6.9696
910.1562,8.5496,4.0158,8.2518,6.2101,2.3912,3.7192,6.8295,2.6080,6.9077,4.0239,4.0511,6.5464,6.7391,1.8206,3.5989,4.1378,5.7336,10.6715,6.9228
914.0625,9.3745,4.8811,8.3976,5.8553,1.6252,4.3617,7.7019,2.2183,6.4619,4.3627,4.1162,6.4362,6.3810,0.6252,2.8415,4.5315,5.7452,10.6829,6.8349
917.9688,9.6148,5.8785,8.2053,5.5341,1.1290,4.7565,6.8765,1.8767,5.8997,4.8216,3.9304,6.6118,5.9064,-0.3775,2.2904,5.0608,5.2252,10.5639,6.8201
921.8750,9.1346,6.7331,7.8958,5.4398,1.0518,4.9749,4.6262,1.8677,5.4321,5.2475,3.5848,6.9496,5.4125,-1.0141,2.2301,5.4843,4.3123,10.2612,6.9641
925.7812,8.0378,7.1083,7.6361,5.6368,1.3225,5.1206,2.0462,2.2521,5.1303,5.4081,3.2089,7.2210,5.0710,-1.1323,2.5981,5.6440,3.3620,9.7052,7.2641
929.6875,6.6791,6.8007,7.4496,6.0058,1.7306,5.2918,0.5611,2.7974,4.9329,5.1279,2.9040,7.1927,5.0520,-0.6430,3.0299,5.4956,2.7753,8.8588,7.6143
933.5938,5.5355,5.8889,7.2192,6.2856,2.0525,5.5637,1.1337,3.1281,4.7165,4.4178,2.6713,6.6976,5.3923,0.3981,3.0782,5.0512,2.7682,7.7451,7.8263
937.5000,4.9864,4.7152,6.7678,6.1834,2.1314,5.9576,3.6378,2.9824,4.3619,3.4966,2.3889,5.6534,5.8940,1.7180,2.4727,4.3080,3.2132,6.4254,7.6688
941.4062,5.1173,3.6916,5.9587,5.5055,1.8874,6.3892,6.8340,2.3882,3.7803,2.6735,1.8671,4.0615,6.1506,2.8425,1.2726,3.2376,3.6668,4.9470,6.9296
945.3125,5.6710,3.0517,4.7663,4.2587,1.2995,6.6395,9.0338,1.6358,2.9093,2.1566,0.9639,2.0230,5.7301,3.2475,-0.1678,1.8548,3.5940,3.3141,5.5028
949.2188,6.1882,2.7188,3.2940,2.6788,0.4161,6.4121,9.0660,1.0808,1.7208,1.9214,-0.3062,-0.2262,4.4313,2.6018,-1.3910,0.3096,2.6768,1.5227,3.4799
953.1250,6.2628,2.3874,1.7454,1.1667,-0.6050,5.4897,6.9279,0.9232,0.2587,1.7378,-1.7361,-2.3120,2.4548,0.9724,-2.0680,-1.0875,1.0283,-0.3609,1.1876
957.0312,5.7624,1.7656,0.3659,0.1360,-1.4799,3.9108,3.6936,1.1167,-1.3167,1.3495,-2.9964,-3.8095,0.3606,-1.1410,-2.1432,-1.9573,-0.8251,-2.1474,-0.8830
960.9375,4.8801,0.8030,-0.6350,-0.1717,-1.8673,2.0331,0.7557,1.4477,-2.7343,0.6796,-3.7799,-4.4197,-1.1934,-2.9906,-1.8267,-2.0330,-2.1938,-3.5663,-2.2608
964.8438,3.9896,-0.2647,-1.1671,0.1806,-1.5230,0.3963,-1.0557,1.7053,-3.7013,-0.0924,-3.9476,-4.1532,-1.7936,-3.9069,-1.4613,-1.3283,-2.5723,-4.4041,-2.7196
968.7500,3.3988,-1.0948,-1.3210,0.8269,-0.4625,-0.5666,-1.8641,1.8029,-4.0519,-0.6508,-3.6000,-3.3923,-1.4956,-3.6008,-1.3546,-0.1855,-1.8936,-4.6570,-2.4155
972.6562,3.1604,-1.5144,-1.3684,1.2570,0.9760,-0.7962,-2.4067,1.7759,-3.8729,-0.7857,-3.0388,-2.7540,-0.7988,-2.2917,-1.6643,0.8411,-0.5610,-4.5860,-1.8398
976.5625,3.0563,-1.6888,-1.6716,1.0605,2.2281,-0.6577,-3.2732,1.6797,-3.5117,-0.5819,-2.6366,-2.7977,-0.3875,-0.6070,-2.3743,1.2174,0.7406,-4.6103,-1.5912
980.4688,2.7584,-2.0445,-2.5195,0.1286,2.7235,-0.7133,-4.3315,1.4922,-3.4351,-0.4028,-2.6791,-3.7344,-0.7883,0.6813,-3.3415,0.6590,1.3411,-5.0849,-2.0842
984.3750,2.0548,-2.9842,-3.9643,-1.3043,2.1234,-1.3432,-4.7947,1.1092,-3.9942,-0.6629,-3.2499,-5.3126,-2.1310,0.9573,-4.3622,-0.7583,0.8426,-6.0946,-3.3543
988.2812,0.9965,-4.5784,-5.7531,-2.7993,0.4657,-2.4656,-3.8739,0.4388,-5.2226,-1.5350,-4.2065,-6.9571,-4.1188,-0.0196,-5.2271,-2.6517,-0.7545,-7.3971,-5.0625
992.1875,-0.1241,-6.4475,-7.4125,-3.9425,-1.8372,-3.5530,-1.5080,-0.4817,-6.7858,-2.7944,-5.2499,-8.0788,-6.1873,-2.0355,-5.7584,-4.5087,-3.0713,-8.5560,-6.6797
996.0938,-0.9392,-7.9210,-8.4535,-4.5240,-4.1289,-3.9525,1.4033,-1.4422,-8.1224,-3.9180,-6.0481,-8.3669,-7.7430,-4.4907,-5.8436,-5.8869,-5.4763,-9.1822,-7.7277
1000.0000,-1.2080,-8.3828,-8.5916,-4.5683,-5.7176,-3.3069,3.4681,-2.1342,-8.7068,-4.3814,-6.3560,-7.8940,-8.3637,-6.5895,-5.4657,-6.5414,-7.2703,-9.1313,-7.9454
1003.9062,-0.9357,-7.5917,-7.8589,-4.2292,-6.1033,-1.8015,3.6558,-2.3041,-8.2958,-3.9624,-6.0815,-6.9937,-7.9041,-7.6106,-4.7116,-6.4439,-7.8960,-8.5421,-7.3197
1007.8125,-0.3513,-5.7943,-6.5533,-3.6513,-5.1689,-0.0771,1.9406,-1.8923,-7.0282,-2.8594,-5.2830,-6.0191,-6.5092,-7.1822,-3.7391,-5.7209,-7.1311,-7.7067,-6.0203
1011.7188,0.2250,-3.5826,-5.0688,-2.9055,-3.2708,1.1350,-0.7014,-1.0735,-5.3341,-1.5560,-4.1174,-5.1542,-4.5622,-5.4565,-2.7078,-4.5724,-5.1993,-6.8730,-4.3172
1015.6250,0.5421,-1.5996,-3.7179,-2.0289,-1.1601,1.4196,-2.9126,-0.1744,-3.7122,-0.5321,-2.7754,-4.3874,-2.5775,-3.0787,-1.7123,-3.2189,-2.7253,-6.1086,-2.5299
1019.5312,0.5247,-0.2673,-2.6416,-1.1027,0.2897,0.8815,-3.7497,0.4848,-2.4994,-0.0079,-1.4364,-3.6286,-1.0453,-0.9227,-0.7642,-1.8802,-0.5079,-5.3036,-0.9899
1023.4375,0.2909,0.3387,-1.8343,-0.2741,0.4695,0.0442,-3.1336,0.7404,-1.7499,0.1306,-0.2467,-2.8487,-0.2563,0.3071,0.1637,-0.7616,0.8139,-4.2859,0.0288
1027.3438,0.0902,0.4416,-1.2268,0.3111,-0.6475,-0.4643,-1.7196,0.6476,-1.2704,0.2084,0.6891,-2.1266,-0.1824,0.4017,1.0621,-0.0210,1.0390,-2.9616,0.4130
1031.2500,0.1972,0.4106,-0.7537,0.6109,-2.4595,-0.2369,-0.3648,0.4257,-0.7753,0.5417,1.3206,-1.5799,-0.4964,-0.2950,1.8425,0.2784,0.4599,-1.3902,0.2857
1035.1562,0.7964,0.5898,-0.3703,0.7195,-4.0397,0.7511,0.3987,0.3139,-0.0678,1.2624,1.6628,-1.2551,-0.7556,-1.1463,2.3660,0.1985,-0.3503,0.2314,-0.0353
1039.0625,1.8884,1.1684,-0.0411,0.7810,-4.6581,2.1861,0.5573,0.4152,0.8461,2.2711,1.7914,-1.0821,-0.6667,-1.6484,2.5301,-0.0908,-0.9027,1.6462,-0.2170
1042.9688,3.2499,2.1116,0.2521,0.8392,-4.2137,3.5942,0.4368,0.6162,1.7597,3.3106,1.8077,-0.9321,-0.2715,-1.7450,2.3524,-0.3771,-1.0771,2.6174,-0.1370
1046.8750,4.4753,3.1604,0.4708,0.7502,-3.2932,4.5322,0.3690,0.6337,2.3727,4.0924,1.7860,-0.7251,0.0804,-1.8161,1.9875,-0.4858,-1.1372,2.9814,0.0050
1050.7812,5.1086,3.9081,0.4884,0.2507,-2.7890,4.7170,0.4689,0.1729,2.4431,4.4038,1.7380,-0.4896,-0.0225,-2.3443,1.6586,-0.3303,-1.4662,2.6747,-0.2017
1054.6875,4.8263,3.9513,0.1229,-0.8444,-3.3053,4.0786,0.6363,-0.8883,1.9111,4.1661,1.6258,-0.3189,-0.7414,-3.4926,1.5442,0.0870,-2.2104,1.7506,-1.0855
1058.5938,3.5920,3.0726,-0.7531,-2.4572,-4.7422,2.7586,0.7010,-2.4015,0.9360,3.4446,1.4202,-0.2654,-1.8259,-4.9030,1.6908,0.7075,-3.0955,0.3863,-2.6102
1062.5000,1.6981,1.3712,-2.0878,-4.2251,-6.3481,1.0659,0.5503,-4.0039,-0.1693,2.4225,1.1567,-0.2715,-2.7350,-5.8804,1.9948,1.4428,-3.5688,-1.1415,-4.3145
1066.4062,-0.3423,-0.7439,-3.6110,-5.6807,-7.2160,-0.6124,0.1478,-5.3040,-1.0772,1.3445,0.9357,-0.2104,-2.9825,-5.8523,2.2543,2.1770,-3.1888,-2.5271,-5.5493
1070.3125,-2.0069,-2.7188,-4.9346,-6.5162,-6.8894,-1.9368,-0.5198,-6.0821,-1.5923,0.4374,0.8458,-0.0126,-2.4806,-4.7881,2.2514,2.7550,-1.9962,-3.5382,-5.8743
1074.2188,-2.9729,-4.1019,-5.7479,-6.7419,-5.6597,-2.7335,-1.4703,-6.3750,-1.7344,-0.1705,0.8606,0.2278,-1.6394,-3.2741,1.8269,2.9966,-0.5899,-4.0986,-5.3465
1078.1250,-3.2161,-4.7364,-5.9830,-6.6189,-4.3474,-3.0420,-2.6769,-6.3876,-1.7115,-0.4912,0.7976,0.2720,-1.1329,-2.1706,0.9329,2.7567,0.1782,-4.2979,-4.4895
1082.0312,-2.9636,-4.7838,-5.8277,-6.4186,-3.7213,-3.0569,-3.9878,-6.2976,-1.7922,-0.6538,0.3999,-0.1081,-1.4681,-2.0704,-0.3327,2.0086,-0.2836,-4.3145,-3.9471
1085.9375,-2.5467,-4.5705,-5.5738,-6.1944,-3.9685,-2.9957,-5.1106,-6.1012,-2.1429,-0.8246,-0.4835,-0.9411,-2.6358,-2.9199,-1.7183,0.8935,-1.9118,-4.2958,-4.0514
1089.8438,-2.2501,-4.3634,-5.4047,-5.7512,-4.5877,-2.9780,-5.7107,-5.6252,-2.7178,-1.1153,-1.7339,-1.9790,-4.0784,-4.0607,-2.8600,-0.3138,-3.9745,-4.2710,-4.6021
1093.7500,-2.2339,-4.2239,-5.2819,-4.8468,-4.7789,-2.9949,-5.5794,-4.7077,-3.2705,-1.5355,-2.9470,-2.8083,-5.0053,-4.6646,-3.3941,-1.3206,-5.4612,-4.1549,-5.0160
1097.6562,-2.5364,-4.0294,-5.0145,-3.4729,-4.0466,-2.9785,-4.7646,-3.4140,-3.4864,-2.0090,-3.6141,-3.0890,-4.8624,-4.2719,-3.1190,-1.9487,-5.6426,-3.8333,-4.7432
1101.5625,-3.1146,-3.6290,-4.4585,-1.9906,-2.5859,-2.9013,-3.5740,-2.1122,-3.1674,-2.4323,-3.4153,-2.7657,-3.6611,-3.0808,-2.1275,-2.2025,-4.4639,-3.2699,-3.6645
1105.4688,-3.8692,-3.0073,-3.6858,-0.9862,-1.1799,-2.8159,-2.4452,-1.3189,-2.3639,-2.7283,-2.4436,-2.1013,-1.9690,-1.8054,-0.8147,-2.2311,-2.5449,-2.5560,-2.1942
1109.3750,-4.6454,-2.3302,-2.9794,-0.9221,-0.6803,-2.7987,-1.7539,-1.3949,-1.3723,-2.8640,-1.2017,-1.5089,-0.5790,-1.2120,0.2818,-2.2155,-0.8096,-1.8692,-1.0206
1113.2812,-5.2400,-1.8371,-2.6428,-1.8136,-1.4325,-2.8489,-1.6536,-2.2912,-0.5941,-2.8379,-0.3439,-1.2909,-0.0696,-1.6403,0.7452,-2.2610,0.0193,-1.3707,-0.6656
1117.1875,-5.4520,-1.6594,-2.7575,-3.1648,-3.0328,-2.8397,-2.0112,-3.5295,-0.3273,-2.6657,-0.3045,-1.4582,-0.5178,-2.8086,0.5014,-2.3632,-0.2349,-1.1110,-1.1610
1121.0938,-5.1673,-1.6990,-3.0745,-4.2245,-4.5675,-2.5794,-2.4552,-4.4487,-0.6058,-2.3791,-1.0329,-1.7425,-1.5128,-4.0044,-0.1424,-2.4525,-1.1869,-1.0056,-2.0490
1125.0000,-4.4282,-1.6561,-3.1368,-4.4071,-5.1609,-1.9468,-2.5177,-4.5664,-1.1755,-2.0279,-2.0032,-1.7809,-2.4263,-4.5146,-0.6787,-2.4652,-2.1663,-0.8890,-2.6859
1128.9062,-3.4268,-1.1960,-2.5624,-3.6094,-4.4688,-0.9954,-1.8296,-3.8244,-1.6201,-1.6621,-2.4998,-1.3424,-2.7563,-4.0178,-0.6973,-2.3755,-2.5946,-0.6063,-2.6302
1132.8125,-2.4133,-0.1520,-1.2976,-2.2245,-2.8208,0.0646,-0.3086,-2.5648,-1.5721,-1.2940,-2.0151,-0.4513,-2.3460,-2.7162,-0.1193,-2.1729,-2.2492,-0.0841,-1.8628
1136.7188,-1.5721,1.3555,0.3342,-0.8596,-0.9641,0.9996,1.7434,-1.2737,-0.8981,-0.8755,-0.5338,0.6536,-1.3850,-1.1631,0.7706,-1.8273,-1.3025,0.6544,-0.7227
1140.6250,-0.9471,2.9498,1.8194,0.0467,0.3869,1.7031,3.7053,-0.2787,0.2352,-0.3330,1.4486,1.6709,-0.2406,0.0730,1.5018,-1.2985,-0.1642,1.5201,0.3566
1144.5312,-0.4638,4.1530,2.7446,0.4526,0.9008,2.2431,4.8747,0.3920,1.4393,0.3423,3.1684,2.3851,0.7521,0.6945,1.6808,-0.6064,0.7502,2.3971,1.1048
1148.4375,-0.0227,4.5835,2.9947,0.6531,0.6944,2.7654,4.7852,0.9138,2.2810,1.0101,3.9527,2.7188,1.4162,0.7585,1.1767,0.0938,1.1952,3.1603,1.4997
1152.3438,0.4093,4.1041,2.7363,0.9931,0.1324,3.3320,3.4435,1.4326,2.4644,1.3905,3.5047,2.6816,1.7301,0.5464,0.1362,0.5115,1.1439,3.6688,1.6572
1156.2500,0.7777,2.8658,2.2277,1.5636,-0.4615,3.8270,1.3433,1.8869,1.9292,1.2025,1.9888,2.2791,1.7324,0.3300,-1.1454,0.3348,0.7185,3.7630,1.6460
1160.1562,0.9927,1.2443,1.6123,2.0918,-0.9867,4.0160,-0.7637,2.0229,0.8317,0.3628,-0.0953,1.4667,1.4214,0.1888,-2.3906,-0.5931,0.0631,3.2952,1.3837
1164.0625,1.0037,-0.2987,0.8516,2.1019,-1.5494,3.7204,-2.2147,1.5888,-0.5647,-0.8937,-2.1607,0.1842,0.7194,-0.0161,-3.4417,-2.1492,-0.7615,2.1953,0.6915
1167.9688,0.8314,-1.3789,-0.1666,1.2399,-2.2960,2.9755,-2.7058,0.5589,-2.0158,-2.0884,-3.7760,-1.5566,-0.4713,-0.5088,-4.2716,-3.9518,-1.8031,0.5433,-0.5428
1171.8750,0.5404,-1.8230,-1.4472,-0.4465,-3.2279,2.0426,-2.3521,-0.7844,-3.3692,-2.7555,-4.8026,-3.5996,-2.1567,-1.3962,-4.9422,-5.5292,-3.1472,-1.4052,-2.2220
1175.7812,0.1860,-1.7228,-2.7908,-2.4581,-4.1230,1.2580,-1.5427,-1.9757,-4.5565,-2.7281,-5.3877,-5.6478,-4.1526,-2.5284,-5.5634,-6.5361,-4.7893,-3.2742,-4.0229
1179.6875,-0.2129,-1.3853,-3.8675,-4.0698,-4.6161,0.8208,-0.7182,-2.6205,-5.5338,-2.2601,-5.8395,-7.3531,-6.0726,-3.5181,-6.2663,-6.8876,-6.5303,-4.6994,-5.5248
1183.5938,-0.6585,-1.1932,-4.4177,-4.7099,-4.3962,0.6741,-0.2080,-2.6134,-6.2366,-1.8843,-6.4511,-8.4563,-7.4377,-3.9282,-7.1663,-6.7427,-7.9796,-5.4849,-6.4053
1187.5000,-1.1461,-1.4339,-4.4338,-4.2806,-3.4163,0.5603,-0.1762,-2.1874,-6.5951,-2.0906,-7.3578,-8.9052,-7.8773,-3.5298,-8.2969,-6.3735,-8.7004,-5.7058,-6.5898
1191.4062,-1.6636,-2.1796,-4.1895,-3.2319,-1.9955,0.2082,-0.6316,-1.7725,-6.6072,-3.0315,-8.4863,-8.8888,-7.3309,-2.4793,-9.5448,-6.0239,-8.4420,-5.6938,-6.2784
1195.3125,-2.2220,-3.2775,-4.0871,-2.3381,-0.7365,-0.4862,-1.4322,-1.7597,-6.4076,-4.4491,-9.6134,-8.7577,-6.1313,-1.2892,-10.6462,-5.8404,-7.3275,-5.8931,-5.8428
1199.2188,-2.8712,-4.4521,-4.4213,-2.2874,-0.2683,-1.4040,-2.2844,-2.3055,-6.2574,-5.8580,-10.4920,-8.8557,-4.8985,-0.5814,-11.2866,-5.8823,-5.8629,-6.6410,-5.6539
1203.1250,-3.6563,-5.4580,-5.2111,-3.3079,-0.9287,-2.2977,-2.8004,-3.2762,-6.4298,-6.8434,-10.9714,-9.3376,-4.2667,-0.7479,-11.2674,-6.1505,-4.7215,-7.9809,-5.9219
1207.0312,-4.5230,-6.1959,-6.2013,-5.0388,-2.5558,-2.9524,-2.6688,-4.3395,-7.0452,-7.2664,-11.0451,-10.0700,-4.5760,-1.7239,-10.6345,-6.5825,-4.4049,-9.6105,-6.6214
1210.9375,-5.2559,-6.7298,-7.0271,-6.7291,-4.5331,-3.2969,-1.8844,-5.1414,-7.9677,-7.2576,-10.8139,-10.6890,-5.7041,-3.0276,-9.6700,-7.0237,-4.9738,-11.0126,-7.5308
1214.8438,-5.5402,-7.2097,-7.4309,-7.6613,-6.0988,-3.4078,-0.8751,-5.4779,-8.8553,-7.0473,-10.4078,-10.8083,-7.1481,-4.0657,-8.7351,-7.2414,-6.0287,-11.7169,-8.3679
1218.7500,-5.1580,-7.7570,-7.4007,-7.5636,-6.7658,-3.4313,-0.3730,-5.3858,-9.3593,-6.7933,-9.9386,-10.2801,-8.3252,-4.5226,-8.0679,-7.0323,-6.9676,-11.5612,-8.9539
1222.6562,-4.2021,-8.3813,-7.1554,-6.7677,-6.6017,-3.5000,-1.0295,-5.1162,-9.3556,-6.5393,-9.5132,-9.3517,-8.9163,-4.5739,-7.6787,-6.3843,-7.3671,-10.8003,-9.3201
1226.5625,-3.1332,-8.9676,-6.9965,-6.0084,-6.1757,-3.6972,-2.9778,-5.0026,-9.0439,-6.3035,-9.2749,-8.5942,-9.0368,-4.7618,-7.4218,-5.5718,-7.2373,-9.9817,-9.6837
1230.4688,-2.5790,-9.3240,-7.1184,-5.9706,-6.1770,-4.0606,-5.6332,-5.2785,-8.8197,-6.1755,-9.3972,-8.6011,-9.1168,-5.5870,-7.1817,-5.0690,-6.9757,-9.6380,-10.2884
1234.3750,-2.9550,-9.2516,-7.4827,-6.8528,-6.9345,-4.5798,-7.9078,-5.9319,-8.9758,-6.2956,-9.9808,-9.6059,-9.5589,-7.0824,-7.0143,-5.2792,-7.0426,-9.9577,-11.1915
1238.2812,-4.1464,-8.6064,-7.8219,-8.2167,-8.1593,-5.1664,-8.7495,-6.6844,-9.4245,-6.7068,-10.8956,-11.2462,-10.3997,-8.6769,-7.1063,-6.2290,-7.5814,-10.6317,-12.1332
1242.1875,-5.4886,-7.3432,-7.7667,-9.2309,-9.1063,-5.6247,-7.6943,-7.1272,-9.6487,-7.2052,-11.6862,-12.6487,-11.2092,-9.4866,-7.5578,-7.4393,-8.2558,-10.9839,-12.6015
1246.0938,-6.1084,-5.5438,-7.0356,-9.1724,-9.0752,-5.6843,-5.0987,-6.9606,-8.9547,-7.3434,-11.6620,-12.8265,-11.3173,-8.8843,-8.1480,-8.0994,-8.4352,-10.3314,-12.0916
1250.0000,-5.4322,-3.4252,-5.5880,-7.8795,-7.9236,-5.1174,-1.9275,-6.2002,-6.8983,-6.6371,-10.1855,-11.1886,-10.2350,-6.9816,-8.2927,-7.4788,-7.6156,-8.3774,-10.4255
1253.9062,-3.5353,-1.3074,-3.6654,-5.8678,-6.2295,-3.8883,0.7496,-5.2083,-3.6183,-4.8629,-7.0310,-7.8693,-7.9963,-4.6731,-7.2886,-5.3386,-5.7892,-5.4048,-7.9253
1257.8125,-1.0932,0.4741,-1.6882,-4.0250,-4.9568,-2.2303,2.2341,-4.4997,0.1538,-2.2438,-2.6003,-3.6806,-5.1838,-3.1572,-4.7380,-2.0919,-3.4928,-2.1475,-5.2983
1261.7188,1.0397,1.6904,-0.0544,-3.0674,-4.8225,-0.5722,2.3985,-4.4209,3.4407,0.6160,2.1649,0.2918,-2.6042,-3.1960,-0.8916,1.3919,-1.4813,0.5938,-3.2664
1265.6250,2.3417,2.3180,1.0570,-3.1022,-5.7811,0.6651,1.5739,-4.9066,5.5231,3.0174,6.1614,3.2142,-0.8126,-4.5776,3.3351,4.2181,-0.2359,2.3634,-2.1509
1269.5312,2.8847,2.5474,1.7654,-3.5757,-6.9930,1.2834,0.2865,-5.4892,6.2887,4.4923,8.6011,4.8498,0.2067,-6.1547,6.7322,5.8750,0.3596,3.2456,-1.6792
1273.4375,3.1798,2.6763,2.3939,-3.6455,-7.3250,1.3929,-0.9598,-5.5858,6.2115,4.9719,9.3230,5.5415,0.9910,-6.4781,8.3687,6.3917,0.9384,3.7276,-1.1584
1277.3438,3.7390,2.9388,3.2443,-2.7343,-6.0687,1.3111,-1.7734,-4.8861,5.9834,4.7185,8.7723,5.8811,2.2114,-4.6594,8.0449,6.1929,2.2057,4.3312,0.0724
1281.2500,4.6724,3.3693,4.3733,-0.9044,-3.4068,1.3431,-1.8968,-3.5788,6.0503,4.1020,7.6783,6.2997,4.1992,-0.9325,6.3632,5.7812,4.4167,5.2556,2.1931
1285.1562,5.5985,3.7927,5.5162,1.1934,-0.3146,1.5897,-1.2548,-2.2441,6.3554,3.3902,6.6377,6.8373,6.6959,3.4460,4.3756,5.4583,7.1312,6.2678,4.7494
1289.0625,5.9108,3.9467,6.2193,2.7550,2.0359,1.9072,-0.0369,-1.4653,6.4459,2.6726,5.8486,7.2043,8.9870,6.9015,3.0171,5.2306,9.4170,6.9055,6.9062
1292.9688,5.1918,3.6570,6.1116,3.3461,2.9706,2.0271,1.2812,-1.4221,5.8471,1.9202,5.1270,7.0522,10.3243,8.4139,2.6489,4.9022,10.3816,6.8434,7.9469
1296.8750,3.4824,2.9433,5.1443,3.1549,2.6496,1.7395,2.0821,-1.7578,4.4324,1.0923,4.1515,6.2416,10.3579,8.0189,2.9585,4.2556,9.6943,6.1632,7.6955
1300.7812,1.2433,1.9872,3.6430,2.8058,1.8436,1.0091,1.8982,-1.8324,2.5394,0.1987,2.7552,4.9362,9.3047,6.6472,3.2435,3.2013,7.7687,5.3294,6.5890
1304.6875,-0.9255,0.9943,2.1321,2.8746,1.3394,-0.0345,0.6887,-1.1980,0.7669,-0.7034,1.0791,3.4932,7.7673,5.4440,2.8848,1.8413,5.5033,4.8856,5.3658
1308.5938,-2.5890,0.0657,1.0504,3.4569,1.4088,-1.1921,-1.0968,0.0438,-0.3837,-1.5339,-0.4856,2.2644,6.3546,5.0399,1.7200,0.4531,3.7620,5.0819,4.5960
1312.5000,-3.6088,-0.8149,0.5482,4.1089,1.7126,-2.2787,-2.7366,1.2773,-0.7679,-2.1929,-1.5015,1.4640,5.3713,5.2483,0.1161,-0.5751,2.9320,5.7061,4.3797
1316.4062,-4.0634,-1.6643,0.4994,4.2192,1.6858,-3.1346,-3.6114,1.8050,-0.5928,-2.5468,-1.6974,1.1734,4.7725,5.3587,-1.2711,-0.8488,2.8279,6.2490,4.4081
1320.3125,-4.0761,-2.3551,0.7038,3.5488,1.0961,-3.5888,-3.4889,1.3875,-0.1826,-2.4474,-1.0715,1.4320,4.3759,4.7792,-1.8753,-0.1061,2.9639,6.2979,4.3196
1324.2188,-3.7041,-2.5842,1.1122,2.5397,0.3478,-3.4527,-2.5445,0.4996,0.2895,-1.8111,0.1446,2.2947,4.1371,3.5574,-1.5061,1.6369,2.9780,5.8805,4.0690
1328.1250,-2.9551,-2.0243,1.8882,2.1330,0.2862,-2.6008,-1.1375,0.0898,0.9002,-0.7185,1.6119,3.7837,4.2626,2.4102,-0.3911,4.0103,2.9063,5.4997,4.0270
1332.0312,-1.8765,-0.5836,3.2464,3.1764,1.6248,-1.1018,0.4647,0.9714,1.8449,0.5504,3.0167,5.7666,5.0671,2.2488,1.0075,6.3609,3.1304,5.8136,4.7271
1335.9375,-0.6131,1.4103,5.1853,5.8046,4.3948,0.7062,2.2043,3.2456,3.1925,1.6068,4.1490,7.8799,6.6859,3.5358,2.2538,7.9817,4.0509,7.1625,6.4419
1339.8438,0.6186,3.2675,7.3315,9.2263,7.8129,2.2934,4.1336,6.1583,4.7268,2.1329,4.9156,9.5997,8.8648,5.9225,3.1055,8.4073,5.7290,9.2717,8.9010
1343.7500,1.6070,4.2532,9.0488,12.1018,10.6802,3.1586,6.2140,8.5139,6.0014,2.0382,5.3084,10.4546,11.0042,8.4136,3.5115,7.6182,7.7492,11.3462,11.3691
1347.6562,2.2005,3.9979,9.7753,13.3012,12.0612,3.0733,8.1979,9.3925,6.5783,1.4828,5.3644,10.2635,12.4496,9.9456,3.4998,6.0341,9.4019,12.5173,13.0505
1351.5625,2.3156,2.7412,9.3727,12.5666,11.8027,2.1887,9.6921,8.7046,6.2868,0.7570,5.1425,9.2446,12.8464,9.9952,3.0913,4.3000,10.0751,12.3537,13.5527
1355.4688,1.9360,1.2329,8.2398,10.6489,10.5615,0.9322,10.3431,7.2193,5.3310,0.1188,4.7265,7.9161,12.3265,8.8329,2.3324,2.9992,9.6073,11.1073,13.1003
1359.3750,1.1552,0.3241,7.0902,8.8244,9.3370,-0.2387,10.0014,6.0459,4.1832,-0.2849,4.2420,6.8447,11.4057,7.2849,1.4220,2.4562,8.3857,9.5365,12.3575
1363.2812,0.2523,0.4879,6.5232,8.1006,8.8257,-1.0570,8.7634,5.9136,3.3431,-0.3659,3.8651,6.3877,10.6634,6.1893,0.7959,2.7158,7.1318,8.4315,11.9807
1367.1875,-0.2937,1.5657,6.6674,8.6201,9.0109,-1.4978,6.9083,6.7191,3.1136,0.0033,3.7937,6.5722,10.4119,5.9069,1.0314,3.6461,6.5051,8.1588,12.2008
1371.0938,0.0525,2.8982,7.1341,9.6370,9.2339,-1.6519,4.8145,7.6316,3.5091,0.9971,4.1742,7.1576,10.5589,6.1777,2.5555,5.0398,6.7536,8.5091,12.7026
1375.0000,1.5910,3.7507,7.3092,10.0582,8.6688,-1.5492,2.9113,7.6711,4.3125,2.6891,5.0075,7.8106,10.7283,6.3750,5.3069,6.6292,7.6068,8.9174,12.8648
1378.9062,4.1053,3.7578,6.7832,9.1814,6.8851,-1.0980,1.6243,6.3728,5.2048,4.8444,6.0908,8.2734,10.5394,5.9593,8.5861,8.0432,8.4583,8.8769,12.1891
1382.8125,6.8106,3.1041,5.6295,7.1487,4.1490,-0.2019,1.2463,4.1081,5.8864,6.8441,7.0536,8.4366,9.8582,4.8447,11.2531,8.8220,8.7290,8.2562,10.6369
1386.7188,8.6459,2.3438,4.3481,4.8418,1.3042,1.0396,1.7426,1.8685,6.1465,7.8846,7.5028,8.3132,8.8708,3.4695,12.2297,8.5708,8.2028,7.3302,8.6697
1390.6250,8.8015,2.0042,3.5295,3.3162,-0.6681,2.2336,2.6301,0.6676,5.8997,7.3966,7.2194,7.9742,7.9581,2.5545,11.0535,7.2076,7.1527,6.5455,6.9862
1394.5312,7.1831,2.2533,3.4750,3.1583,-1.1421,2.8292,3.1079,0.9443,5.2128,5.4391,6.3003,7.5060,7.4668,2.6974,8.1647,5.1314,6.1877,6.2171,6.1351
1398.4375,4.5147,2.8484,4.0312,4.1658,-0.1303,2.4381,2.4734,2.3288,4.3137,2.7851,5.1454,7.0038,7.5176,4.0192,4.7406,3.1405,5.9021,6.3639,6.2348
1402.3438,1.9827,3.3713,4.7336,5.5217,1.7594,1.1343,0.6239,3.8869,3.5423,0.5862,4.2723,6.5710,7.9476,6.0377,2.1431,2.0769,6.5173,6.7634,6.9466
1406.2500,0.6170,3.5572,5.1372,6.3110,3.6342,-0.4960,-1.7099,4.6687,3.2203,-0.2208,4.0456,6.2906,8.3967,7.8358,1.2740,2.3739,7.7155,7.1373,7.6877
1410.1562,0.7701,3.4683,5.0966,6.0415,4.7230,-1.6319,-3.2432,4.2254,3.4807,0.5822,4.4716,6.1739,8.4818,8.4662,2.1763,3.7866,8.7702,7.3128,7.9431
1414.0625,1.9992,3.3988,4.8096,4.8697,4.7008,-1.6731,-2.8491,2.8126,4.1579,2.3901,5.1830,6.1346,7.9741,7.4276,4.0791,5.4970,8.9249,7.2605,7.5084
1417.9688,3.3981,3.6019,4.6205,3.4473,3.8082,-0.5896,-0.2870,1.2023,4.8381,4.1348,5.6346,6.0293,6.9137,4.9889,5.8299,6.5572,7.8262,7.0312,6.5579
1421.8750,4.1531,4.0627,4.7463,2.5300,2.7327,1.0656,3.5447,0.2469,5.0771,4.8904,5.4077,5.7586,5.6234,2.1738,6.4694,6.4125,5.7753,6.6875,5.5340
1425.7812,3.9801,4.4941,5.1300,2.5948,2.3012,2.4951,7.0474,0.4456,4.6767,4.3597,4.4568,5.3651,4.6119,0.3500,5.6562,5.1919,3.6412,6.3011,4.9365
1429.6875,3.2065,4.5591,5.5130,3.6564,3.0976,3.1285,8.8124,1.7318,3.8435,2.9747,3.1620,5.0468,4.3886,0.5767,3.7673,3.5972,2.4552,5.9949,5.1124
1433.5938,2.4967,4.1454,5.6556,5.3290,5.1666,2.9254,8.4068,3.5537,3.1067,1.5878,2.1531,5.0572,5.2456,3.0276,1.6697,2.4760,2.8855,5.9494,6.1292
1437.5000,2.4277,3.4782,5.5298,7.0490,7.9462,2.3286,6.5511,5.1774,3.0149,0.9713,1.9940,5.5372,7.0920,6.8213,0.3032,2.3471,4.8671,6.3198,7.7627
1441.4062,3.1731,2.9820,5.3390,8.3264,10.4878,1.9231,4.5942,6.0438,3.7833,1.4204,2.8819,6.3858,9.4263,10.3993,0.2576,3.1525,7.5916,7.1015,9.5863
1445.3125,4.4506,2.9879,5.3563,8.9180,11.8822,2.0494,3.6555,6.0110,5.1141,2.6546,4.5099,7.2583,11.4829,12.2837,1.5069,4.3480,9.8709,8.0563,11.1130
1449.2188,5.7140,3.4983,5.7046,8.8745,11.6878,2.6263,4.0036,5.3774,6.3170,4.0194,6.1623,7.7064,12.5106,11.8050,3.3950,5.2352,10.6895,8.7865,11.9387
1453.1250,6.4491,4.1739,6.2397,8.4667,10.1342,3.2746,5.0475,4.6889,6.6749,4.8346,7.0095,7.3869,12.0660,9.3876,4.8885,5.3162,9.6639,8.9348,11.8414
1457.0312,6.4101,4.5433,6.6194,8.0272,7.9854,3.6167,5.8712,4.4311,5.8424,4.6968,6.4725,6.2230,10.1899,6.2377,5.0188,4.4835,7.1822,8.3814,10.8229
1460.9375,5.6967,4.2812,6.5035,7.7757,6.1354,3.5174,5.8885,4.7626,4.0364,3.6095,4.4940,4.4325,7.3818,3.6393,3.3426,2.9858,4.1762,7.2925,9.0953
1464.8438,4.6612,3.3628,5.7446,7.7015,5.1618,3.1014,5.1583,5.4245,1.9006,1.9198,1.5784,2.4140,4.3902,2.2959,0.1983,1.2433,1.6620,5.9775,7.0239
1468.7500,3.7075,2.0101,4.4394,7.5649,5.0817,2.5694,4.1928,5.8755,0.1265,0.1240,-1.4356,0.5581,1.9158,2.0970,-3.4069,-0.3636,0.2900,4.6550,5.0320
1472.6562,3.0758,0.5002,2.8185,7.0226,5.4206,1.9864,3.4639,5.5792,-0.9431,-1.3614,-3.7735,-0.9179,0.3597,2.3871,-6.2761,-1.6356,0.1091,3.3014,3.4739
1476.5625,2.7119,-1.0033,1.0650,5.8148,5.5167,1.2275,3.0074,4.2881,-1.4893,-2.3674,-5.0975,-2.0376,-0.2859,2.4900,-7.6431,-2.5927,0.6254,1.6972,2.4993
1480.4688,2.2866,-2.4763,-0.7971,3.9114,4.8630,0.1272,2.4051,2.1704,-2.0742,-3.0134,-5.6485,-3.0094,-0.3753,2.1085,-7.5884,-3.4216,1.0887,-0.3569,1.9694
1484.3750,1.3710,-3.9225,-2.8582,1.5388,3.3042,-1.2921,1.1346,-0.2779,-3.2686,-3.6017,-6.0627,-4.0822,-0.4168,1.3705,-6.9767,-4.3598,0.8571,-2.8110,1.4917
1488.2812,-0.3089,-5.2383,-5.1480,-0.9148,1.0353,-2.7085,-0.9884,-2.4652,-5.2743,-4.4114,-6.9522,-5.3795,-0.8347,0.5772,-6.9188,-5.5506,-0.3243,-5.2893,0.6064
1492.1875,-2.6702,-6.1779,-7.4582,-3.0438,-1.5262,-3.6152,-3.5818,-3.9353,-7.7584,-5.4961,-8.4901,-6.7885,-1.7811,-0.0842,-8.0613,-6.9223,-2.2316,-7.2239,-0.9378
1496.0938,-5.2432,-6.4539,-9.3042,-4.5336,-3.8840,-3.5969,-5.8269,-4.4761,-9.9855,-6.6044,-10.2552,-7.9667,-3.0746,-0.6271,-10.1491,-8.1611,-4.2797,-8.1170,-2.9678
1500.0000,-7.3462,-5.9007,-10.0910,-5.1982,-5.5682,-2.5769,-6.8608,-4.0898,-11.1690,-7.2817,-11.4473,-8.4789,-4.2974,-1.1276,-12.1506,-8.8257,-5.7924,-7.7727,-4.8911
1503.9062,-8.3730,-4.5864,-9.4154,-4.9833,-6.2263,-0.8565,-6.1986,-2.9088,-10.8443,-7.1113,-11.3550,-8.0201,-5.0143,-1.5448,-12.8826,-8.5786,-6.3094,-6.3791,-5.9776
1507.8125,-8.0361,-2.8027,-7.3383,-3.9896,-5.7391,1.0758,-3.9711,-1.1594,-9.0772,-5.9557,-9.7910,-6.6161,-5.0126,-1.7062,-11.7382,-7.4169,-5.7968,-4.4237,-5.7925
1511.7188,-6.4393,-0.9534,-4.4526,-2.5187,-4.3314,2.8252,-0.8841,0.8054,-6.4155,-4.0528,-7.2245,-4.6828,-4.4299,-1.4965,-9.0488,-5.7485,-4.6553,-2.5135,-4.5169
1515.6250,-3.9725,0.5821,-1.6725,-1.0692,-2.5789,4.2599,2.0619,2.4813,-3.6342,-1.9080,-4.5267,-2.8769,-3.6793,-1.0754,-5.8530,-4.2244,-3.5114,-1.1837,-2.9173
1519.5312,-1.1334,1.5464,0.1770,-0.1970,-1.2171,5.4614,3.9708,3.3110,-1.4115,-0.0525,-2.4934,-1.7835,-3.1933,-0.8885,-3.2468,-3.3886,-2.8856,-0.7451,-1.9198
1523.4375,1.5952,1.8506,0.7626,-0.2431,-0.7844,6.5211,4.4174,2.9305,-0.0856,1.1822,-1.4447,-1.5981,-3.1284,-1.3912,-1.7601,-3.3475,-2.9142,-1.1799,-2.0178
1527.3438,3.7674,1.5931,0.4160,-1.0643,-1.2834,7.3629,3.6310,1.4464,0.4144,1.7449,-1.1405,-1.9928,-3.2225,-2.6568,-1.1707,-3.6825,-3.2876,-2.1064,-2.8893
1531.2500,4.9615,1.0596,-0.0377,-1.9780,-2.0997,7.7484,2.3927,-0.4626,0.4626,1.7820,-1.0342,-2.2745,-2.9261,-4.1762,-0.8392,-3.6937,-3.4519,-2.8584,-3.5122
1535.1562,4.8433,0.6741,0.2749,-2.0403,-2.2967,7.4669,1.6506,-1.7660,0.5219,1.4832,-0.6673,-1.7719,-1.7535,-5.0493,-0.2809,-2.8514,-2.9598,-2.7135,-2.7629
1539.0625,3.3388,0.8627,1.7872,-0.5685,-1.1644,6.5598,2.0092,-1.5713,0.9224,0.9793,0.0606,-0.2409,0.3531,-4.4910,0.4597,-1.1712,-1.7528,-1.2270,-0.1554
1542.9688,0.8135,1.8472,4.2306,2.3858,1.2989,5.3890,3.3663,0.3690,1.7220,0.3502,0.9049,1.9587,2.8972,-2.3261,0.8994,0.7417,-0.1938,1.4803,3.7479
1546.8750,-1.9172,3.4713,6.7517,5.9333,4.2930,4.4670,4.9412,3.4501,2.7011,-0.2987,1.5177,4.0348,5.0493,0.8625,0.5742,2.0374,1.1748,4.6676,7.5464
1550.7812,-3.8509,5.1939,8.3540,8.7403,6.6110,4.1515,5.7350,6.4709,3.4893,-0.7920,1.7213,5.1985,6.1033,4.0382,-0.5025,2.1535,1.9839,7.2529,9.7388
1554.6875,-4.2537,6.3157,8.4235,9.7278,7.3069,4.4129,5.1824,8.2410,3.7677,-0.9332,1.6187,5.1096,5.8879,6.2602,-1.7460,1.1979,2.2594,8.3272,9.5550
1558.5938,-3.0555,6.3537,7.0458,8.6700,6.2321,4.8481,3.5833,8.1974,3.4513,-0.6227,1.4901,4.0680,4.8619,7.1186,-2.3526,-0.0759,2.3596,7.6359,7.3772
1562.5000,-0.9268,5.3497,4.9424,6.3187,4.1027,4.9414,1.9974,6.6685,2.7551,0.0511,1.5774,2.8388,3.8225,6.8001,-1.8442,-0.7014,2.6733,5.7369,4.4950
1566.4062,1.0471,3.8959,3.0689,3.9658,2.0493,4.3992,1.6125,4.6333,2.0959,0.8262,1.9211,2.2165,3.4078,5.8056,-0.4097,-0.0807,3.2999,3.7162,2.3519
1570.3125,1.9195,2.8195,2.1095,2.7059,0.9328,3.3289,2.9601,3.1305,1.8619,1.3865,2.3484,2.5889,3.7138,4.5742,1.2019,1.6475,3.9465,2.6032,1.7482
1574.2188,1.3385,2.6840,2.1486,2.8455,0.8521,2.1399,5.4890,2.6797,2.1658,1.5046,2.5854,3.7430,4.2698,3.2902,2.1545,3.6799,4.1251,2.8200,2.4661
1578.1250,-0.3633,3.4095,2.6880,3.8034,1.1479,1.2377,7.8037,3.0561,2.7245,1.1114,2.3940,5.0040,4.3770,1.9634,2.0257,5.0108,3.5131,3.9764,3.5048
1582.0312,-2.4706,4.2637,2.9706,4.5270,0.8866,0.7252,8.4480,3.5231,2.9545,0.2622,1.6469,5.5998,3.5782,0.6454,0.9983,4.9949,2.2171,5.1166,3.7343
1585.9375,-4.3547,4.2584,2.4052,4.1397,-0.4879,0.3185,6.7513,3.3461,2.2584,-0.9456,0.3339,5.0363,1.9476,-0.4476,-0.3550,3.6741,0.7464,5.2511,2.5497
1589.8438,-5.7987,2.7296,0.8560,2.4161,-2.7441,-0.4615,3.2105,2.2525,0.3587,-2.4175,-1.4486,3.2921,0.0269,-1.0264,-1.4948,1.6955,-0.2952,3.8602,0.1557
1593.7500,-6.9911,-0.2412,-1.3407,-0.1655,-4.9479,-1.9513,-0.8191,0.5674,-2.5053,-4.0283,-3.4856,0.7746,-1.5282,-0.9592,-2.2193,-0.0888,-0.5857,1.1058,-2.6308
1597.6562,-8.2438,-3.8204,-3.5973,-2.7636,-5.9879,-4.0856,-3.9068,-1.0278,-5.6418,-5.5567,-5.4299,-1.8924,-2.3419,-0.4344,-2.6496,-1.0716,-0.2721,-2.3153,-4.8792
1601.5625,-9.6728,-6.8385,-5.3815,-4.6509,-5.2320,-6.3864,-5.3050,-1.9319,-8.2097,-6.6808,-6.8519,-4.1139,-2.4980,0.0965,-2.9568,-1.1243,0.1551,-5.5371,-6.0278
1605.4688,-11.0757,-8.3878,-6.4365,-5.5400,-2.9324,-8.2058,-5.2347,-1.9788,-9.6031,-7.0886,-7.3862,-5.4984,-2.4169,0.1731,-3.0951,-0.5241,0.2014,-7.8863,-6.0962
1609.3750,-12.0740,-8.2631,-6.8273,-5.6151,-0.1506,-9.0676,-4.5887,-1.5125,-9.7110,-6.6598,-6.9208,-5.9266,-2.5449,-0.4010,-2.7791,0.3111,-0.3189,-9.0799,-5.5714
1613.2812,-12.3877,-7.0106,-6.8343,-5.3268,1.7545,-8.8988,-4.3044,-1.1689,-8.9177,-5.5916,-5.7069,-5.5380,-3.0765,-1.4627,-1.7337,1.0709,-1.2046,-9.2252,-5.0906
1617.1875,-12.0269,-5.5835,-6.7832,-5.1241,1.7992,-8.0215,-4.8259,-1.5171,-7.8574,-4.3559,-4.2844,-4.6636,-3.8792,-2.6268,-0.0096,1.6352,-2.0529,-8.6943,-5.1191
1621.0938,-11.2665,-4.8200,-6.9035,-5.2748,-0.1479,-6.9323,-5.9507,-2.7698,-7.0748,-3.4750,-3.2325,-3.7229,-4.6328,-3.5479,1.9105,1.9975,-2.5535,-7.9601,-5.7713
1625.0000,-10.4412,-5.0359,-7.2609,-5.8214,-3.3250,-6.0190,-7.0779,-4.7014,-6.7813,-3.2368,-2.8763,-3.0917,-5.0575,-4.1131,3.3383,2.1538,-2.6721,-7.4433,-6.8197
1628.9062,-9.7252,-5.9310,-7.7611,-6.6282,-6.4804,-5.3837,-7.6335,-6.7828,-6.8255,-3.5255,-3.1298,-2.9706,-5.0728,-4.4473,3.8032,2.0779,-2.6097,-7.3849,-7.8456
1632.8125,-9.0593,-6.8230,-8.2036,-7.4562,-8.4993,-4.8603,-7.3952,-8.4334,-6.8618,-3.8841,-3.5747,-3.3070,-4.8054,-4.7563,3.3754,1.7977,-2.5980,-7.7636,-8.4432
1636.7188,-8.2649,-7.0471,-8.3642,-8.0360,-8.9255,-4.1881,-6.5600,-9.2563,-6.5911,-3.7835,-3.7249,-3.8246,-4.4794,-5.1449,2.6429,1.4747,-2.7097,-8.2991,-8.3935
1640.6250,-7.2433,-6.2972,-8.0880,-8.1494,-8.1189,-3.2168,-5.5771,-9.1630,-5.9278,-2.9384,-3.3076,-4.1668,-4.2877,-5.5494,2.3416,1.3723,-2.8295,-8.5748,-7.7475
1644.5312,-6.1038,-4.7469,-7.3671,-7.7198,-6.9872,-2.0196,-4.8855,-8.3619,-5.0109,-1.4815,-2.3897,-4.0889,-4.3235,-5.8156,2.8830,1.6942,-2.7964,-8.2537,-6.7908
1648.4375,-5.1240,-2.9180,-6.3666,-6.8755,-6.4605,-0.8601,-4.7017,-7.2480,-4.0845,0.1088,-1.2875,-3.5955,-4.5842,-5.8484,4.1004,2.4035,-2.5818,-7.2838,-5.9067
1652.3438,-4.5686,-1.3985,-5.3687,-5.9298,-7.0010,-0.0499,-4.9438,-6.2487,-3.3414,1.2767,-0.3459,-2.9360,-5.0072,-5.7085,5.3847,3.1797,-2.3488,-5.9642,-5.3959
1656.2500,-4.4931,-0.5641,-4.6452,-5.2525,-8.4060,0.2140,-5.3006,-5.6828,-2.8274,1.6940,0.2557,-2.4558,-5.4928,-5.5852,6.1042,3.5849,-2.3326,-4.8034,-5.3417
1660.1562,-4.6653,-0.4360,-4.3166,-5.0836,-9.9831,-0.0509,-5.4073,-5.6661,-2.4488,1.4231,0.5486,-2.3871,-5.9101,-5.6680,6.0115,3.3525,-2.6365,-4.2331,-5.5885
1664.0625,-4.6614,-0.7207,-4.2787,-5.3926,-10.9679,-0.6156,-5.0491,-6.0878,-2.0567,0.8578,0.6699,-2.7085,-6.1151,-6.0088,5.3583,2.5944,-3.1097,-4.3437,-5.8477
1667.9688,-4.0865,-0.9871,-4.2532,-5.8851,-10.9344,-1.1277,-4.2973,-6.6643,-1.5475,0.4863,0.7063,-3.1616,-6.0059,-6.4714,4.6553,1.7592,-3.4204,-4.8157,-5.8721
1671.8750,-2.8015,-0.8836,-3.9483,-6.1713,-9.9848,-1.2429,-3.4910,-7.0619,-0.9221,0.6220,0.6108,-3.4192,-5.5995,-6.8080,4.2673,1.3442,-3.2901,-5.1064,-5.6013
1675.7812,-1.0353,-0.2952,-3.2449,-6.0115,-8.6527,-0.7520,-3.0471,-7.0508,-0.2861,1.2460,0.2488,-3.3041,-5.0782,-6.8242,4.1472,1.5462,-2.7257,-4.7921,-5.2011
1679.6875,0.6756,0.6153,-2.2988,-5.4938,-7.6217,0.3318,-3.1871,-6.6296,0.1976,2.0353,-0.4708,-2.9213,-4.7526,-6.5386,3.9000,2.1010,-2.0757,-3.8582,-4.9853
1683.5938,1.7000,1.4858,-1.4901,-5.0297,-7.4336,1.7494,-3.7519,-6.0540,0.3747,2.5447,-1.4793,-2.6170,-4.9352,-6.2377,3.1246,2.4377,-1.8504,-2.7529,-5.2680
1687.5000,1.5876,1.9124,-1.2363,-5.1514,-8.3166,3.0553,-4.2502,-5.7351,0.1609,2.4362,-2.5323,-2.7761,-5.7766,-6.3700,1.7781,2.0577,-2.4111,-2.1549,-6.2216
1691.4062,0.2905,1.6265,-1.7634,-6.2085,-10.1580,3.7641,-4.1465,-6.0317,-0.4156,1.6427,-3.3057,-3.5708,-7.1517,-7.3069,0.2886,0.8820,-3.7249,-2.5781,-7.7927
1695.3125,-1.7690,0.6288,-2.9563,-8.1225,-12.5638,3.5498,-3.2191,-7.0295,-1.2004,0.3977,-3.5406,-4.8067,-8.6629,-9.0817,-0.6777,-0.6730,-5.3462,-4.0339,-9.6882
1699.2188,-3.8224,-0.7689,-4.3680,-10.3349,-14.9423,2.4287,-1.7418,-8.4253,-1.9350,-0.8648,-3.1521,-5.9630,-9.7693,-11.2574,-0.6403,-1.9437,-6.6408,-5.9474,-11.4270
1703.1250,-5.0336,-2.0271,-5.3887,-11.9932,-16.6063,0.8247,-0.3416,-9.6021,-2.3214,-1.6833,-2.2458,-6.4213,-9.9904,-13.0337,0.3678,-2.4230,-7.1146,-7.3859,-12.4474
1707.0312,-4.8227,-2.5758,-5.4988,-12.3031,-16.9235,-0.5504,0.3931,-9.8879,-2.1163,-1.7372,-1.0488,-5.7702,-9.0947,-13.5859,1.7942,-2.0464,-6.6516,-7.4910,-12.2688
1710.9375,-3.0980,-2.0658,-4.4949,-10.8898,-15.5250,-0.9898,0.2907,-8.8835,-1.2294,-0.9526,0.1958,-4.0251,-7.1939,-12.4812,2.8889,-1.1805,-5.5294,-5.9005,-10.6783
1714.8438,-0.2963,-0.5644,-2.5900,-7.9992,-12.5047,-0.1412,-0.3050,-6.6911,0.2154,0.4806,1.3085,-1.6444,-4.7070,-9.9477,3.1451,-0.3476,-4.2251,-2.9448,-7.8756
1718.7500,2.7903,1.4177,-0.3460,-4.4328,-8.4834,1.7679,-0.7872,-3.9108,1.8941,2.1800,2.1994,0.6739,-2.2095,-6.8179,2.5780,0.1074,-3.1463,0.4849,-4.4798
1722.6562,5.3263,3.1214,1.5420,-1.2307,-4.4445,3.9751,-0.7009,-1.3877,3.3823,3.7015,2.8499,2.3133,-0.2277,-4.1475,1.6823,0.1834,-2.4481,3.3392,-1.3431
1726.5625,6.7472,3.8936,2.5289,0.7662,-1.3644,5.5175,-0.0147,0.1677,4.3176,4.6957,3.2875,3.0194,0.9456,-2.6981,1.1180,0.1411,-2.0245,4.8908,0.7901
1730.4688,6.9491,3.5337,2.4595,1.2745,0.1990,5.7066,0.9421,0.4950,4.5626,5.0366,3.5799,2.9980,1.3464,-2.5672,1.3397,0.2772,-1.6388,5.0593,1.6284
1734.3750,6.2800,2.4338,1.6586,0.6773,0.3478,4.4980,1.8034,-0.1252,4.2931,4.8717,3.8463,2.7935,1.3128,-3.1661,2.3881,0.7407,-1.0841,4.4200,1.4961
1738.2812,5.3522,1.4084,0.8161,-0.1696,-0.2260,2.5387,2.4707,-1.0400,3.9527,4.5585,4.2555,3.0151,1.3466,-3.5497,3.9324,1.5131,-0.2663,3.8932,1.1958
1742.1875,4.7614,1.2763,0.6922,-0.3449,-0.5894,0.8455,3.1349,-1.5487,4.0665,4.4940,4.9753,4.0518,1.9154,-2.8985,5.4848,2.5166,0.8159,4.2710,1.6166
1746.0938,4.8302,2.4168,1.7600,0.7167,-0.0134,0.2749,3.9944,-1.2054,4.9800,4.9035,6.0718,5.9060,3.2691,-0.8887,6.6223,3.7128,2.1393,5.8243,3.2811
1750.0000,5.4790,4.5481,3.9515,2.9887,1.7191,1.0738,4.9137,0.0395,6.6437,5.6931,7.4055,8.2033,5.3401,2.2219,7.0930,5.0774,3.6885,8.1841,6.0729
1753.9062,6.2742,6.8628,6.6422,5.9022,4.2812,2.7634,5.3461,1.8961,8.5645,6.4559,8.6043,10.3487,7.7620,5.7843,6.7954,6.4706,5.4127,10.5488,9.2900
1757.8125,6.6378,8.4438,8.9085,8.6353,7.0273,4.4198,4.6534,3.9133,9.9816,6.6533,9.1666,11.7470,9.9993,9.0710,5.7151,7.5398,7.1467,12.0924,11.9901
1761.7188,6.1337,8.7240,9.9473,10.4811,9.3203,5.1878,2.6324,5.6603,10.2086,5.8943,8.6816,11.9961,11.5374,11.5327,3.9067,7.7942,8.5828,12.3516,13.4350
1765.6250,4.7068,7.7323,9.4543,11.1116,10.7789,4.7332,-0.1443,6.8265,8.9834,4.1672,7.0644,11.0018,12.0618,12.9056,1.5415,6.8598,9.3540,11.3992,13.3984
1769.5312,2.7569,6.0101,7.7643,10.6331,11.3337,3.3840,-2.4795,7.2357,6.6400,1.8928,4.6671,8.9965,11.5602,13.1821,-1.0392,4.7672,9.2063,9.7413,12.1954
1773.4375,0.9956,4.2824,5.6782,9.4453,11.1117,1.9012,-3.1658,6.8251,3.9965,-0.2406,2.1787,6.4718,10.3100,12.5209,-3.3424,2.0605,8.1590,8.0304,10.4533
1777.3438,0.1367,3.0991,4.0688,8.0111,10.2627,1.0369,-1.6944,5.6447,1.9994,-1.5768,0.3392,4.0412,8.7583,11.1589,-4.8464,-0.3852,6.5359,6.7692,8.7812
1781.2500,0.5614,2.6463,3.4754,6.6682,8.8579,1.1432,1.4034,3.8880,1.3005,-1.7696,-0.3883,2.2621,7.3435,9.3464,-5.1828,-1.7634,4.8282,6.1511,7.5218
1785.1562,2.1284,2.7910,3.9013,5.5597,6.9278,2.0425,4.8182,1.9132,1.9829,-0.8961,-0.0083,1.4635,6.3335,7.3063,-4.2896,-1.7268,3.4562,6.0828,6.6953
1789.0625,4.2337,3.2673,4.8980,4.6827,4.6022,3.1971,7.1672,0.2042,3.5696,0.6325,1.0563,1.6382,5.7481,5.2184,-2.4593,-0.5392,2.5746,6.3217,6.1190
1792.9688,6.0943,3.8471,5.8590,3.9887,2.2347,4.0403,7.6982,-0.7542,5.2897,2.2908,2.2132,2.4511,5.3965,3.2403,-0.2637,1.0876,2.0405,6.6206,5.5917
1796.8750,7.1119,4.3941,6.3316,3.4564,0.3862,4.2631,6.5737,-0.6522,6.4430,3.6552,2.9931,3.3692,5.0028,1.5480,1.6145,2.3629,1.5607,6.8019,5.0200
1800.7812,7.1245,4.8083,6.1717,3.0952,-0.3807,3.9078,4.6103,0.4903,6.6681,4.5112,3.2173,3.8637,4.3517,0.3501,2.5861,2.7690,0.9135,6.7545,4.4241
1804.6875,6.4242,4.9558,5.4872,2.8916,0.1829,3.2562,2.7066,2.2739,6.0005,4.8316,2.9669,3.5954,3.3810,-0.1750,2.3358,2.2149,0.0943,6.3986,3.8500
1808.5938,5.5467,4.6675,4.4561,2.7537,1.7711,2.6186,1.3596,4.0178,4.7409,4.6836,2.4181,2.5073,2.1798,-0.0116,0.9278,0.9542,-0.7101,5.6715,3.2747
1812.5000,4.9667,3.8202,3.1757,2.5120,3.5412,2.1595,0.5504,4.9930,3.2502,4.1450,1.6822,0.7974,0.9141,0.5823,-1.2102,-0.6303,-1.2875,4.5517,2.5827
1816.4062,4.8694,2.4360,1.6493,1.9964,4.4568,1.8480,-0.0065,4.7095,1.8011,3.2774,0.7620,-1.1892,-0.2646,1.1101,-3.4398,-2.2216,-1.5764,3.1007,1.6373
1820.3125,5.1092,0.7251,-0.1001,1.1512,3.8177,1.5298,-0.5045,3.1412,0.5397,2.1489,-0.3704,-3.0838,-1.2661,1.0675,-5.1625,-3.6445,-1.7185,1.4871,0.3966
1824.2188,5.3511,-0.9606,-1.9008,0.1154,1.6916,1.0578,-0.8589,0.7767,-0.4676,0.8679,-1.6600,-4.5794,-2.0487,0.2669,-6.0607,-4.8267,-1.9438,-0.0323,-1.0079
1828.1250,5.2903,-2.2298,-3.4099,-0.7996,-1.0326,0.4017,-0.8097,-1.5525,-1.1733,-0.4003,-2.9195,-5.4676,-2.5748,-0.9603,-6.1967,-5.7147,-2.3754,-1.1736,-2.2918
1832.0312,4.8213,-2.7559,-4.2346,-1.2441,-3.0534,-0.3106,-0.1935,-3.0116,-1.5213,-1.4431,-3.8801,-5.6477,-2.7843,-1.8683,-5.8947,-6.2202,-2.8991,-1.7060,-3.1341
1835.9375,4.0776,-2.3487,-4.1216,-1.0093,-3.3328,-0.8330,0.8473,-3.1232,-1.4557,-2.0270,-4.2941,-5.1298,-2.6133,-1.7047,-5.4623,-6.2259,-3.2025,-1.5256,-3.3191
1839.8438,3.3464,-0.9956,-3.0841,-0.1452,-1.6564,-0.9013,1.8848,-1.9685,-0.9385,-1.9416,-4.0117,-4.0314,-2.0414,-0.1916,-4.9276,-5.6351,-2.9668,-0.6918,-2.8181
1843.7500,2.9270,1.1133,-1.3810,1.0642,1.2586,-0.3549,2.4440,-0.1174,0.0398,-1.0645,-2.9967,-2.5502,-1.1234,2.2403,-3.9877,-4.4312,-2.0826,0.5899,-1.7636
1847.6562,3.0120,3.5881,0.6318,2.2631,4.1793,0.7710,2.2926,1.6796,1.4498,0.5593,-1.3080,-0.9053,0.0273,4.6519,-2.2377,-2.7191,-0.7412,2.0424,-0.3414
1851.5625,3.6362,5.9040,2.6676,3.2235,6.0401,2.2322,1.5925,2.8669,3.1959,2.6631,0.9008,0.7309,1.2937,6.1290,0.4495,-0.7369,0.6660,3.4238,1.3146
1855.4688,4.6899,7.5469,4.5789,3.9501,6.4711,3.6629,0.8232,3.3146,5.0801,4.7837,3.3512,2.2714,2.6041,6.3103,3.6552,1.1776,1.7743,4.6170,3.1484
1859.3750,5.9648,8.2016,6.2984,4.6181,5.8604,4.7341,0.5346,3.2774,6.7970,6.3913,5.6275,3.6946,3.9289,5.5605,6.4817,2.6702,2.4526,5.6516,5.1096
1863.2812,7.1991,7.8857,7.7236,5.3869,4.9570,5.3013,1.0716,3.1349,7.9975,7.0876,7.2518,4.9827,5.2265,4.6760,7.9633,3.4881,2.8541,6.6363,7.0501
1867.1875,8.1160,6.9356,8.6574,6.2288,4.3243,5.4500,2.4133,3.1038,8.4166,6.7709,7.8544,6.0674,6.3854,4.3321,7.5941,3.5861,3.2853,7.6390,8.6845
1871.0938,8.4622,5.8278,8.8746,6.9077,4.0329,5.3975,4.1854,3.1255,8.0022,5.6691,7.3600,6.8351,7.2260,4.6582,5.6368,3.1562,3.9809,8.5911,9.6758
1875.0000,8.0628,4.9282,8.2762,7.1372,3.7804,5.3060,5.8231,2.9978,6.9568,4.2123,6.0610,7.1960,7.5857,5.2273,3.0094,2.5466,4.9359,9.2902,9.8157
1878.9062,6.8868,4.3209,7.0184,6.8142,3.3038,5.1358,6.8035,2.6345,5.6519,2.8201,4.5056,7.1679,7.4445,5.4484,0.8082,2.0984,5.8997,9.5139,9.1889
1882.8125,5.0946,3.8237,5.5110,6.1565,2.7348,4.6563,6.8531,2.2364,4.4549,1.7323,3.2452,6.9084,7.0019,5.0620,-0.2348,1.9898,6.5330,9.1786,8.2034
1886.7188,3.0294,3.1779,4.2675,5.6300,2.6057,3.6337,6.0585,2.2230,3.5768,0.9789,2.5927,6.6562,6.6325,4.3763,-0.0381,2.1813,6.6241,8.4336,7.4408
1890.6250,1.1323,2.2782,3.6909,5.6980,3.4901,2.0796,4.8385,2.9571,3.0318,0.4792,2.5341,6.6099,6.7208,4.0771,0.9345,2.4907,6.2251,7.6170,7.3940
1894.5312,-0.2019,1.2839,3.9207,6.5557,5.5446,0.3766,3.7853,4.4618,2.7214,0.1676,2.8317,6.8194,7.4555,4.7492,2.0416,2.7368,5.6246,7.0859,8.2316
1898.4375,-0.7647,0.5368,4.8200,8.0243,8.3028,-0.8429,3.4293,6.3489,2.5641,0.0385,3.2210,7.1583,8.7054,6.4471,2.8143,2.8431,5.1736,7.0251,9.7193
1902.3438,-0.6001,0.3439,6.0831,9.6731,10.8877,-1.0302,4.0203,8.0305,2.5600,0.0844,3.5520,7.3946,10.0568,8.6122,3.0760,2.8304,5.0746,7.3524,11.3393
1906.2500,0.0463,0.7754,7.3757,11.0719,12.5039,-0.0720,5.4167,9.0723,2.7437,0.2078,3.7902,7.3152,11.0048,10.3860,2.8309,2.7247,5.2665,7.7812,12.5383
1910.1562,0.8691,1.6080,8.4207,11.9953,12.8706,1.5711,7.1326,9.4346,3.0747,0.2173,3.9205,6.8316,11.2006,11.1109,2.1009,2.4793,5.4796,7.9922,12.9696
1914.0625,1.6520,2.4408,9.0104,12.4441,12.3045,3.0562,8.5241,9.4243,3.3744,-0.0526,3.8711,6.0170,10.6230,10.6963,0.8979,2.0059,5.4297,7.8030,12.6121
1917.9688,2.3326,2.8974,8.9913,12.4985,11.4188,3.5873,9.0367,9.3922,3.3869,-0.5790,3.5472,5.0704,9.5848,9.6336,-0.6416,1.3066,5.0304,7.2312,11.7234
1921.8750,2.9475,2.7894,8.2839,12.1469,10.6717,2.8376,8.4172,9.4080,2.9383,-1.0922,2.9440,4.2387,8.5722,8.6734,-2.1189,0.5958,4.4846,6.4350,10.6747
1925.7812,3.5076,2.1605,6.9471,11.2493,10.0906,1.1123,6.8160,9.1670,2.0786,-1.2081,2.2219,3.7335,8.0043,8.3749,-2.9321,0.2761,4.1825,5.5930,9.7656
1929.6875,3.9132,1.2235,5.2323,9.6791,9.3463,-0.8357,4.7471,8.2190,1.0909,-0.6949,1.6431,3.6625,8.0351,8.7938,-2.5866,0.7238,4.4546,4.8170,9.1083
1933.5938,3.9900,0.2521,3.5507,7.5347,8.0924,-2.2199,2.9190,6.3624,0.3383,0.3093,1.3856,3.9828,8.4925,9.4700,-1.0810,1.9970,5.3248,4.1428,8.6231
1937.5000,3.6382,-0.5078,2.3282,5.2381,6.2991,-2.6126,1.9776,3.9148,0.0432,1.3026,1.3734,4.4876,8.9744,9.6968,0.9209,3.6690,6.4256,3.5746,8.1268
1941.4062,2.9795,-0.8935,1.8088,3.4059,4.3325,-2.1026,2.2385,1.6383,0.1450,1.6787,1.2715,4.8480,9.0420,8.9095,2.3229,4.9458,7.1452,3.1158,7.4542
1945.3125,2.3687,-0.8630,1.9242,2.5424,2.7285,-1.1646,3.5099,0.3402,0.3348,1.0884,0.6855,4.7194,8.4120,6.9838,2.1563,5.0489,6.9431,2.7504,6.5467
1949.2188,2.2180,-0.5216,2.3201,2.7413,1.8309,-0.3601,5.1070,0.3944,0.2443,-0.3353,-0.5571,3.8884,7.0597,4.2982,0.1499,3.6594,5.6536,2.3975,5.4675
1953.1250,2.7253,-0.1101,2.5400,3.5952,1.5565,-0.0641,6.1039,1.4981,-0.3314,-2.0358,-2.2394,2.3963,5.2033,1.5445,-3.0462,1.1548,3.6019,1.9045,4.3452
1957.0312,3.6922,0.0777,2.2624,4.3847,1.4464,-0.3529,5.7511,2.8243,-1.3125,-3.3366,-3.8258,0.5625,3.1987,-0.6056,-6.1365,-1.5244,1.4585,1.1204,3.2903
1960.9375,4.5858,-0.1567,1.4559,4.4419,0.9661,-1.0618,3.8715,3.4751,-2.3762,-3.7846,-4.7321,-1.1235,1.4098,-1.7999,-7.8058,-3.3189,-0.0877,0.0194,2.3395
1964.8438,4.8370,-0.7777,0.3636,3.4743,-0.1550,-1.9236,1.0094,2.9534,-3.1181,-3.3232,-4.6200,-2.2043,0.1074,-2.1230,-7.3422,-3.5628,-0.6549,-1.2169,1.4612
1968.7500,4.1973,-1.4902,-0.6612,1.6680,-1.7650,-2.6857,-1.7918,1.3733,-3.2391,-2.2192,-3.5412,-2.4525,-0.5846,-1.9848,-4.9277,-2.2866,-0.3226,-2.2443,0.6112
1972.6562,2.9145,-1.8844,-1.3637,-0.4697,-3.4084,-3.1655,-3.5051,-0.6855,-2.6705,-0.8489,-1.8751,-1.9660,-0.7102,-1.8652,-1.4874,-0.1636,0.4488,-2.7319,-0.2154
1976.5625,1.5931,-1.6952,-1.7176,-2.4096,-4.6326,-3.2696,-3.6557,-2.5516,-1.6063,0.4765,-0.1462,-1.1166,-0.4799,-2.0732,1.7615,1.8391,1.0629,-2.5770,-0.9856
1980.4688,0.8199,-1.0229,-1.9150,-3.8562,-5.2760,-3.0171,-2.5675,-3.8126,-0.4530,1.5368,1.1450,-0.3879,-0.2396,-2.6587,3.7963,2.8975,1.0561,-2.0184,-1.6886
1984.3750,0.7974,-0.3599,-2.2396,-4.8258,-5.5532,-2.5668,-1.1645,-4.4467,0.2827,2.1206,1.6055,-0.1874,-0.3800,-3.4946,4.0943,2.6369,0.2680,-1.5619,-2.4018
1988.2812,1.2316,-0.3726,-2.9109,-5.5364,-5.8856,-2.2093,-0.4427,-4.7057,0.1523,1.9741,0.9819,-0.7160,-1.1822,-4.4336,2.6962,1.1946,-1.1305,-1.7429,-3.2877
1992.1875,1.5427,-1.5438,-3.9832,-6.2115,-6.5913,-2.2828,-0.9375,-4.8811,-1.0599,0.8833,-0.7874,-1.9319,-2.6523,-5.3975,0.0903,-0.9296,-2.7267,-2.8577,-4.4929
1996.0938,1.2475,-3.8838,-5.3420,-6.9308,-7.6392,-3.0282,-2.5056,-5.1268,-3.2093,-1.1432,-3.4860,-3.5984,-4.4478,-6.3358,-2.9824,-3.1185,-4.0231,-4.8138,-6.0001
2000.0000,0.2501,-6.8846,-6.7762,-7.6077,-8.6340,-4.4557,-4.5291,-5.4354,-5.7926,-3.7433,-6.5792,-5.3789,-5.9835,-7.1168,-5.7419,-4.8588,-4.6200,-7.1766,-7.5508
2003.9062,-1.1444,-9.7488,-8.0761,-8.0802,-9.0546,-6.3085,-6.3605,-5.7335,-8.1206,-6.2645,-9.3257,-6.9412,-6.7109,-7.4890,-7.5797,-5.8738,-4.3836,-9.3733,-8.7258
2007.8125,-2.4704,-11.7633,-9.1020,-8.2331,-8.6038,-8.1564,-7.6858,-5.9863,-9.6065,-8.0300,-11.0513,-8.0466,-6.4349,-7.1997,-8.2332,-6.1551,-3.5405,-10.9291,-9.1678
2011.7188,-3.3988,-12.6025,-9.7987,-8.0672,-7.4422,-9.5698,-8.5639,-6.2161,-10.0227,-8.6569,-11.4555,-8.6018,-5.4699,-6.2128,-7.8592,-5.9088,-2.6265,-11.6121,-8.8122
2015.6250,-3.8728,-12.4072,-10.1622,-7.6764,-6.1374,-10.2785,-9.1658,-6.4332,-9.5710,-8.2222,-10.7485,-8.6572,-4.5004,-4.8493,-6.9431,-5.4425,-2.2583,-11.4384,-7.9585
2019.5312,-4.0161,-11.6241,-10.1897,-7.1653,-5.3381,-10.2339,-9.4619,-6.5554,-8.7139,-7.1734,-9.5069,-8.3536,-4.1945,-3.6959,-6.0549,-5.0268,-2.8012,-10.5811,-7.1106
2023.4375,-3.9300,-10.7299,-9.8527,-6.5743,-5.3651,-9.5683,-9.1403,-6.4056,-7.8754,-6.0511,-8.3256,-7.8442,-4.7941,-3.2904,-5.5662,-4.7849,-4.1090,-9.2685,-6.6757
2027.3438,-3.5818,-10.0103,-9.1169,-5.8702,-5.9879,-8.5046,-7.8431,-5.8115,-7.2148,-5.2199,-7.4982,-7.2382,-5.9535,-3.7802,-5.4935,-4.6651,-5.5290,-7.7373,-6.7257
2031.2500,-2.8887,-9.4995,-8.0065,-5.0086,-6.5479,-7.2856,-5.5413,-4.7459,-6.6274,-4.7713,-6.9450,-6.6037,-6.9525,-4.8056,-5.5656,-4.5164,-6.2301,-6.2390,-6.9914
2035.1562,-1.9245,-9.0720,-6.6723,-4.0213,-6.3720,-6.1465,-2.7417,-3.4034,-5.9609,-4.6245,-6.4215,-6.0170,-7.1615,-5.7150,-5.4707,-4.2256,-5.6988,-5.0476,-7.0957
2039.0625,-1.0473,-8.5949,-5.4058,-3.0572,-5.2125,-5.3077,-0.3240,-2.1425,-5.2638,-4.7010,-5.8262,-5.6055,-6.4504,-5.9783,-5.1074,-3.8246,-4.0952,-4.4159,-6.8481
2042.9688,-0.7958,-8.0330,-4.5592,-2.3344,-3.4207,-4.9423,0.9155,-1.3139,-4.8487,-5.0127,-5.3501,-5.5204,-5.2549,-5.5049,-4.6604,-3.4857,-2.2032,-4.4764,-6.3712
2046.8750,-1.5800,-7.4600,-4.3841,-2.0216,-1.7274,-5.1117,0.7145,-1.0735,-5.0924,-5.6000,-5.3360,-5.8342,-4.2475,-4.6347,-4.4471,-3.3977,-0.9610,-5.1431,-5.9563
2050.7812,-3.3720,-6.9934,-4.8679,-2.1234,-0.7731,-5.7065,-0.5237,-1.2993,-6.1055,-6.3956,-5.9588,-6.4275,-3.8430,-3.8177,-4.6525,-3.6049,-0.8485,-6.0893,-5.7606
2054.6875,-5.6321,-6.7160,-5.6739,-2.4500,-0.7054,-6.4507,-2.0078,-1.6679,-7.5334,-7.1603,-6.9906,-6.9712,-3.8968,-3.2379,-5.1583,-3.9326,-1.5477,-6.8461,-5.5995
2058.5938,-7.5544,-6.6315,-6.2531,-2.7070,-1.1248,-6.9923,-3.0515,-1.8484,-8.6778,-7.5766,-7.8656,-7.0595,-3.8264,-2.6862,-5.6051,-4.0710,-2.1360,-6.9933,-5.0316
2062.5000,-8.4932,-6.6703,-6.1034,-2.6591,-1.4128,-7.0427,-3.4433,-1.6965,-8.9006,-7.4496,-8.0291,-6.4414,-3.0789,-1.7866,-5.6524,-3.7777,-1.7183,-6.3531,-3.7102
2066.4062,-8.2965,-6.7264,-5.0472,-2.2678,-1.2067,-6.4880,-3.4583,-1.3304,-8.0503,-6.8617,-7.3268,-5.2078,-1.6085,-0.3950,-5.2480,-3.0628,-0.0866,-5.0855,-1.7487
2070.3125,-7.3345,-6.6993,-3.3684,-1.7132,-0.6756,-5.4117,-3.5417,-1.0434,-6.6082,-6.1490,-6.1439,-3.7950,-0.0027,1.1617,-4.7030,-2.2198,2.0546,-3.6297,0.1960
2074.2188,-6.2180,-6.5237,-1.7106,-1.2843,-0.3946,-4.0259,-3.9244,-1.1120,-5.4249,-5.6913,-5.1746,-2.7744,0.8562,2.2217,-4.5015,-1.6637,3.4772,-2.5181,1.2360
2078.1250,-5.4045,-6.1814,-0.7720,-1.2113,-0.9091,-2.5640,-4.4537,-1.6207,-5.2016,-5.6521,-4.9745,-2.5477,0.3733,2.2213,-4.9666,-1.6724,3.1959,-2.1521,0.7847
2082.0312,-4.9528,-5.6970,-0.9575,-1.5524,-2.3065,-1.2003,-4.7413,-2.4159,-6.0516,-5.8474,-5.6050,-3.1374,-1.3406,1.0985,-6.0092,-2.2014,1.1060,-2.6485,-1.0488
2085.9375,-4.5679,-5.1217,-2.1784,-2.2071,-4.1166,-0.0297,-4.4862,-3.2146,-7.4302,-5.8432,-6.6089,-4.2064,-3.5138,-0.6504,-7.1391,-2.9002,-1.9351,-3.8210,-3.4897
2089.8438,-3.8740,-4.5122,-3.9104,-3.0330,-5.6180,0.9082,-3.7082,-3.7935,-8.4759,-5.2255,-7.3238,-5.2856,-5.1974,-2.3201,-7.7369,-3.3249,-4.6349,-5.2885,-5.5521
2093.7500,-2.7156,-3.9174,-5.4696,-3.9669,-6.3335,1.5991,-2.7202,-4.1330,-8.5352,-3.8764,-7.3020,-6.0483,-5.8557,-3.4918,-7.4173,-3.2137,-6.0436,-6.6442,-6.6215
2097.6562,-1.2899,-3.3819,-6.3448,-5.0435,-6.3514,2.0426,-1.8737,-4.4159,-7.5320,-2.0854,-6.5548,-6.4497,-5.6589,-4.2954,-6.2502,-2.6460,-6.0660,-7.5973,-6.7755
2101.5625,-0.0506,-2.9624,-6.4004,-6.2926,-6.2321,2.2533,-1.2910,-4.8775,-5.9643,-0.4293,-5.4801,-6.6561,-5.2874,-5.2256,-4.7062,-1.9900,-5.3911,-8.0327,-6.6293
2105.4688,0.5330,-2.7354,-5.8572,-7.5904,-6.5549,2.2575,-0.7940,-5.6007,-4.5635,0.5097,-4.5615,-6.8437,-5.4006,-6.6441,-3.3693,-1.6737,-4.9268,-7.9844,-6.8230
2109.3750,0.2084,-2.7725,-5.0923,-8.5949,-7.4237,2.0798,-0.0835,-6.3895,-3.8611,0.4308,-4.0651,-7.0320,-6.1455,-8.3456,-2.6063,-1.9291,-5.1553,-7.5623,-7.5135
2113.2812,-0.9502,-3.0791,-4.4006,-8.8441,-8.2870,1.7392,0.9720,-6.8145,-3.9330,-0.5382,-3.9297,-7.0706,-7.0397,-9.5335,-2.3967,-2.6608,-5.8440,-6.8830,-8.2213
2117.1875,-2.5760,-3.5319,-3.8612,-7.9841,-8.2237,1.2730,2.1591,-6.4191,-4.4450,-1.9011,-3.8843,-6.7717,-7.2929,-9.2627,-2.4165,-3.5065,-6.2742,-6.0353,-8.1387
2121.0938,-4.1404,-3.8706,-3.3665,-5.9951,-6.5282,0.7753,2.9919,-4.9802,-4.9156,-3.0206,-3.6734,-6.0684,-6.3358,-7.0639,-2.3068,-4.0372,-5.7842,-5.0816,-6.6880
2125.0000,-5.1212,-3.7815,-2.7653,-3.2695,-3.2298,0.4107,2.9928,-2.6789,-4.9996,-3.4053,-3.2256,-5.0746,-4.2057,-3.3320,-1.9416,-3.9696,-4.2348,-4.0748,-3.9622
2128.9062,-5.1666,-3.0520,-2.0047,-0.4854,0.7892,0.3624,2.0006,-0.0805,-4.6227,-2.9227,-2.6714,-4.0119,-1.5548,0.7863,-1.5214,-3.2788,-2.0961,-3.0706,-0.7624
2132.8125,-4.2225,-1.7120,-1.1767,1.6637,4.1629,0.7257,0.3128,2.0771,-3.9321,-1.8412,-2.2348,-3.0756,0.6944,3.9420,-1.4294,-2.1693,-0.1396,-2.1258,1.7843
2136.7188,-2.5788,-0.0629,-0.4482,2.7371,5.7006,1.4181,-1.4223,3.1890,-3.1432,-0.6784,-2.0858,-2.3479,1.8162,5.2338,-1.9383,-0.9481,1.0180,-1.2854,2.7913
2140.6250,-0.7859,1.4534,0.0668,2.6824,4.9693,2.1925,-2.4969,3.0394,-2.3975,0.0817,-2.2363,-1.8041,1.6040,4.5868,-2.9541,0.1187,1.2136,-0.5623,2.0374
2144.5312,0.5671,2.4898,0.4032,1.7954,2.4927,2.7790,-2.4617,1.8887,-1.6987,0.2633,-2.5090,-1.3736,0.4050,2.6817,-3.9646,0.8939,0.7243,0.0845,0.0372
2148.4375,1.1355,2.9997,0.7478,0.5591,-0.5254,3.0810,-1.3155,0.3536,-0.9239,0.1188,-2.5758,-0.9737,-1.0901,0.5326,-4.2475,1.3817,0.0164,0.7656,-2.2372
2152.3438,1.0165,3.2786,1.3486,-0.5374,-2.7911,3.2864,0.5094,-0.8600,0.1209,0.2075,-2.0526,-0.4823,-2.1537,-1.0129,-3.2376,1.6834,-0.5330,1.6577,-3.7994
2156.2500,0.7214,3.8001,2.3849,-1.1228,-3.5142,3.7853,2.3528,-1.2495,1.6253,1.0775,-0.6427,0.3001,-2.2752,-1.5894,-0.8546,1.9349,-0.7615,2.9600,-4.0266
2160.1562,0.9012,4.9316,3.8692,-0.9936,-2.7133,4.9136,3.6313,-0.6993,3.6802,2.9167,1.7052,1.6158,-1.2901,-1.3366,2.3973,2.2563,-0.6660,4.8088,-2.8245
2164.0625,1.9545,6.7008,5.6243,-0.1200,-1.1030,6.6763,4.1131,0.5178,6.1817,5.3747,4.6944,3.6063,0.6141,-0.6918,5.6245,2.7233,-0.2684,7.1718,-0.5658
2167.9688,3.7460,8.7533,7.3413,1.3627,0.3514,8.6454,4.0347,1.9123,8.7802,7.6802,7.7139,6.1359,2.9823,-0.1078,7.9380,3.3580,0.4614,9.7770,2.1133
2171.8750,5.6172,10.5273,8.6841,3.1707,0.9651,10.1317,3.9814,3.0286,10.9368,9.0084,10.0382,8.7202,5.2370,0.1596,8.8416,4.1300,1.5675,12.1334,4.5490
2175.7812,6.7053,11.5348,9.3974,4.9234,0.6723,10.5488,4.5578,3.6481,12.1066,8.9024,11.1231,10.6621,6.8570,0.1238,8.4158,4.9638,3.0053,13.6710,6.2415
2179.6875,6.3993,11.5787,9.3858,6.2454,0.0103,9.7513,5.9963,3.8523,11.9833,7.5130,10.8502,11.3630,7.5462,0.0084,7.2178,5.7548,4.5744,13.9609,6.9717
2183.5938,4.6761,10.7896,8.7453,6.9025,-0.2186,8.1304,7.9244,3.9294,10.6784,5.5212,9.5792,10.6475,7.3375,0.1169,5.9768,6.3966,5.9612,12.9258,6.8400
2187.5000,2.1305,9.4923,7.7443,6.9154,0.6013,6.4035,9.4644,4.1935,8.7162,3.7948,7.9734,8.9056,6.5829,0.7021,5.2636,6.8205,6.8783,10.9298,6.2295
2191.4062,-0.3087,8.0175,6.7546,6.5834,2.5895,5.2271,9.6637,4.8212,6.8238,2.9748,6.6945,6.9555,5.8297,1.8899,5.3006,7.0352,7.2245,8.6862,5.6934
2195.3125,-1.8084,6.5911,6.1420,6.3818,5.3592,4.8748,8.0447,5.7847,5.6185,3.2151,6.1357,5.6904,5.6269,3.6702,5.9742,7.1454,7.1652,6.9998,5.7742
2199.2188,-1.9815,5.3499,6.1390,6.7540,8.2688,5.1650,4.9498,6.8918,5.3568,4.1909,6.3224,5.6919,6.3331,5.9252,6.9858,7.3255,7.0778,6.4498,6.7959
2203.1250,-0.9970,4.4270,6.7429,7.8816,10.7449,5.6538,1.4497,7.8812,5.8719,5.3322,6.9938,7.0004,7.9843,8.4454,8.0211,7.7437,7.3712,7.1505,8.6967
2207.0312,0.5607,3.9915,7.6886,9.5385,12.4667,5.9390,-1.1659,8.5038,6.7134,6.1234,7.7790,9.1309,10.2526,10.9085,8.8468,8.4609,8.2567,8.7017,10.9868
2210.9375,1.9747,4.1781,8.5251,11.1189,13.3296,5.8684,-2.0281,8.5594,7.3854,6.3102,8.3523,11.2946,12.5062,12.8528,9.3251,9.3573,9.5830,10.3531,12.8831
2214.8438,2.6734,4.9418,8.7827,11.8527,13.2820,5.5391,-1.0841,7.9047,7.5462,5.9342,8.5090,12.7058,13.9696,13.7198,9.3946,10.1399,10.8335,11.3133,13.5993
2218.7500,2.3968,5.9569,8.1623,11.1334,12.2167,5.1290,0.9756,6.4766,7.0815,5.2258,8.1740,12.8481,13.9667,13.0185,9.0670,10.4485,11.3169,11.0667,12.6828
2222.6562,1.2247,6.6717,6.6594,8.8133,10.0368,4.7113,3.1774,4.3441,6.0585,4.4447,7.3891,11.6234,12.1876,10.5721,8.4369,10.0187,10.4844,9.5618,10.2384
2226.5625,-0.5078,6.5268,4.5579,5.3148,6.8495,4.1937,4.7909,1.7564,4.6357,3.7546,6.2954,9.3560,8.8720,6.7093,7.6683,8.8172,8.2241,7.1959,6.9109
2230.4688,-2.3535,5.2325,2.3002,1.4873,3.1095,3.4128,5.5868,-0.8738,3.0002,3.1749,5.1002,6.6664,4.7982,2.2455,6.9302,7.0715,4.9688,4.6142,3.6132
2234.3750,-3.9077,2.9425,0.3033,-1.7368,-0.4517,2.3005,5.7116,-3.0822,1.3559,2.6104,4.0091,4.2530,1.0319,-1.7969,6.3120,5.1739,1.5428,2.4286,1.1275
2238.2812,-4.9279,0.2176,-1.1766,-3.7197,-3.1198,0.9912,5.3479,-4.5225,-0.0711,1.9324,3.1492,2.6521,-1.4834,-4.6063,5.7854,3.5146,-1.1890,0.9898,-0.2092
2242.1875,-5.3830,-2.2062,-2.0745,-4.3400,-4.5420,-0.2081,4.4672,-5.1045,-1.0553,1.0774,2.5348,2.0624,-2.3039,-5.9011,5.2596,2.3424,-2.6841,0.3107,-0.5699
2246.0938,-5.4160,-3.7219,-2.4538,-3.9552,-4.8907,-0.9662,2.8768,-5.0127,-1.4378,0.1192,2.1105,2.3101,-1.6389,-5.9567,4.6976,1.7231,-2.9030,0.1552,-0.4361
2250.0000,-5.2408,-4.0765,-2.4257,-3.1521,-4.7278,-1.1014,0.5029,-4.5945,-1.2059,-0.7294,1.8401,2.9673,-0.1968,-5.3356,4.1952,1.5949,-2.2251,0.2139,-0.2780
2253.9062,-5.0295,-3.4275,-2.1210,-2.4504,-4.6604,-0.6830,-2.3513,-4.1867,-0.5363,-1.2061,1.7544,3.5570,1.1806,-4.5168,3.9340,1.8528,-1.1811,0.2563,-0.3304
2257.8125,-4.8570,-2.2369,-1.7237,-2.1310,-5.0165,-0.0137,-5.0218,-3.9903,0.2328,-1.1528,1.8925,3.7332,1.8871,-3.6811,4.0153,2.3875,-0.1846,0.1746,-0.5906
2261.7188,-4.7277,-1.0827,-1.5041,-2.2572,-5.7453,0.4914,-6.8061,-4.0587,0.6987,-0.6489,2.1677,3.3486,1.7324,-2.7795,4.2960,3.0568,0.5791,-0.0776,-0.9952
2265.6250,-4.6543,-0.4681,-1.7718,-2.8114,-6.5690,0.4699,-7.3719,-4.3772,0.5282,-0.0303,2.2804,2.4117,0.8808,-1.7837,4.3812,3.6432,1.0840,-0.5742,-1.5930
2269.5312,-4.7124,-0.6793,-2.7269,-3.7957,-7.2353,-0.2392,-6.9451,-4.9422,-0.4210,0.2527,1.8018,1.0086,-0.3523,-0.8761,3.8332,3.8760,1.3220,-1.4355,-2.5492
2273.4375,-5.0118,-1.7023,-4.2859,-5.1956,-7.6667,-1.5148,-6.1286,-5.7618,-2.0288,-0.1200,0.4346,-0.7243,-1.6829,-0.3954,2.4892,3.5458,1.2323,-2.7394,-3.9630
2277.3438,-5.5912,-3.2096,-6.0152,-6.8408,-7.9110,-2.9751,-5.4747,-6.7705,-3.9201,-1.1277,-1.7043,-2.5593,-2.9167,-0.5681,0.6658,2.6517,0.7599,-4.3772,-5.6528
2281.2500,-6.3132,-4.6351,-7.2627,-8.3097,-7.9752,-4.1077,-5.1228,-7.7428,-5.5596,-2.3744,-3.9984,-4.1384,-3.9029,-1.2532,-0.9320,1.4680,-0.0284,-5.9729,-7.1163
2285.1562,-6.8564,-5.3515,-7.4551,-9.0142,-7.7161,-4.4753,-4.7657,-8.3062,-6.4169,-3.2734,-5.5662,-5.0266,-4.4845,-1.9400,-1.5882,0.4480,-0.8961,-6.9619,-7.7487
2289.0625,-6.8465,-4.9137,-6.4042,-8.4750,-6.9080,-3.9194,-3.9645,-8.0919,-6.1554,-3.3589,-5.7186,-4.8847,-4.5248,-2.0501,-1.0195,-0.0043,-1.5306,-6.8266,-7.1993
2292.9688,-6.0696,-3.2732,-4.4298,-6.6331,-5.4487,-2.6557,-2.5700,-6.9502,-4.7717,-2.5435,-4.3644,-3.6729,-3.9963,-1.3459,0.4106,0.2373,-1.7236,-5.3754,-5.6182
2296.8750,-4.6416,-0.8427,-2.2103,-3.9804,-3.5426,-1.1929,-0.9332,-5.0951,-2.6189,-1.1681,-2.0911,-1.7410,-3.0479,-0.1435,1.8754,0.9459,-1.5007,-2.8981,-3.6014
2300.7812,-3.0102,1.6554,-0.4348,-1.3848,-1.6986,-0.0910,0.2607,-3.0614,-0.2852,0.1855,0.1513,0.2870,-1.9678,0.8443,2.5703,1.6770,-1.0941,-0.0871,-1.8553
2304.6875,-1.7647,3.5088,0.5373,0.3225,-0.5134,0.3237,0.4233,-1.4747,1.6309,1.0029,1.5731,1.7947,-1.0518,0.9449,2.1935,2.0323,-0.7725,2.2541,-0.8022
2308.5938,-1.3405,4.3461,0.8105,0.7633,-0.3627,0.1247,-0.5348,-0.7507,2.7508,1.0850,1.9448,2.4567,-0.4633,-0.0533,1.1058,1.8791,-0.6560,3.5700,-0.3950
2312.5000,-1.7824,4.2956,0.8141,0.1831,-1.1893,-0.2719,-2.1040,-0.8975,3.0470,0.6028,1.6307,2.3546,-0.1838,-1.7756,0.0670,1.3851,-0.6544,3.7869,-0.2504
2316.4062,-2.7028,3.8802,0.9965,-0.7266,-2.5153,-0.3645,-3.4382,-1.5347,2.8153,-0.0463,1.2677,1.8650,-0.0810,-3.4988,-0.2715,0.8600,-0.5684,3.3015,0.0197
2320.3125,-3.4666,3.7045,1.5547,-1.2419,-3.6697,0.1264,-3.8038,-2.1207,2.5087,-0.4712,1.3316,1.4076,-0.0288,-4.5715,0.2250,0.5293,-0.2639,2.7401,0.5329
2324.2188,-3.5071,4.1176,2.3577,-1.0070,-4.1045,1.0895,-2.9414,-2.2530,2.5204,-0.4661,1.8841,1.2255,0.0186,-4.7358,1.1326,0.4032,0.2173,2.6261,1.1072
2328.1250,-2.6051,5.0428,3.0833,-0.1872,-3.6419,2.0950,-1.1469,-1.8704,3.0186,-0.0542,2.6341,1.3237,0.0441,-4.1731,1.7984,0.3230,0.6888,3.1363,1.4661
2332.0312,-0.9892,6.0621,3.4492,0.6941,-2.5406,2.6620,0.9277,-1.2427,3.8998,0.5895,3.2172,1.5654,0.0412,-3.3040,1.7963,0.1285,0.9526,4.0598,1.4887
2335.9375,0.7910,6.6864,3.3811,1.1151,-1.3610,2.5506,2.6018,-0.7619,4.8633,1.2543,3.4556,1.8209,0.0608,-2.5184,1.1847,-0.1950,0.9212,4.9603,1.3058
2339.8438,2.1403,6.6353,3.0229,0.8874,-0.6886,1.8951,3.4339,-0.6674,5.5576,1.7726,3.4158,2.0501,0.1871,-2.0053,0.4018,-0.5048,0.6454,5.4343,1.1832
2343.7500,2.6947,5.9609,2.6159,0.2669,-0.8363,1.1017,3.3294,-0.8752,5.7277,2.0346,3.2629,2.2784,0.4682,-1.7358,-0.1039,-0.6225,0.2551,5.3189,1.3108
2347.6562,2.4598,4.9617,2.3456,-0.2060,-1.6632,0.5844,2.4934,-1.0232,5.3068,1.9712,3.0661,2.5173,0.8731,-1.5405,-0.2226,-0.4860,-0.1152,4.7485,1.6780
2351.5625,1.7527,3.9682,2.2570,-0.0356,-2.6213,0.5118,1.3035,-0.7122,4.4264,1.5466,2.7300,2.7156,1.3173,-1.2048,-0.2575,-0.2064,-0.3530,4.0455,2.1174
2355.4688,0.9984,3.1552,2.2672,0.9251,-3.0394,0.7262,0.1710,0.2020,3.3535,0.7820,2.1004,2.7813,1.7299,-0.5561,-0.6760,0.0099,-0.3623,3.5227,2.4528
2359.3750,0.5050,2.5017,2.2450,2.3646,-2.5201,0.8780,-0.5722,1.4598,2.3856,-0.2106,1.1455,2.6440,2.0904,0.4462,-1.7266,0.0068,-0.0860,3.3157,2.6058
2363.2812,0.3408,1.9080,2.0980,3.6658,-1.2187,0.6838,-0.7464,2.5097,1.7466,-1.2215,0.0519,2.3000,2.3946,1.6272,-3.2020,-0.2252,0.4167,3.3391,2.5809
2367.1875,0.3694,1.3664,1.8268,4.2440,0.2019,0.1395,-0.3443,2.8426,1.5256,-1.9859,-0.8470,1.8090,2.5863,2.5950,-4.5186,-0.5683,0.9001,3.3849,2.3826
2371.0938,0.3979,1.0486,1.5376,3.8926,0.9697,-0.4464,0.5067,2.3504,1.6774,-2.2678,-1.2592,1.2638,2.5409,2.8938,-5.0578,-0.8846,0.9781,3.2944,1.9859
2375.0000,0.3329,1.2296,1.4132,2.9349,0.7382,-0.6267,1.6229,1.4682,2.0779,-1.9514,-1.0987,0.7709,2.1538,2.2865,-4.5344,-1.1111,0.3361,3.0882,1.4221
2378.9062,0.2384,2.0876,1.6426,2.0759,-0.1005,-0.0950,2.8310,0.9659,2.5959,-1.0976,-0.5151,0.4513,1.4829,1.0019,-3.1508,-1.2669,-0.9929,2.9603,0.8985
2382.8125,0.2687,3.5110,2.3191,2.0065,-0.5893,1.0932,3.9771,1.4781,3.1401,0.0628,0.2186,0.4292,0.8180,-0.2639,-1.4480,-1.3774,-2.4960,3.1317,0.7949
2386.7188,0.5328,5.0575,3.3429,2.9698,0.1786,2.4929,4.8774,3.0480,3.6566,1.2054,0.8689,0.7750,0.5741,-0.6787,0.0300,-1.3947,-3.3567,3.6546,1.4552
2390.6250,0.9993,6.1199,4.3927,4.5492,2.3715,3.4654,5.2781,4.9918,4.0922,2.0362,1.3475,1.4236,1.0346,0.2141,1.0318,-1.1930,-2.9026,4.3063,2.8801
2394.5312,1.5171,6.2240,5.0192,5.8344,5.1389,3.5032,4.9080,6.2131,4.3636,2.4183,1.7106,2.1409,2.1090,2.1316,1.6779,-0.6512,-1.0607,4.6668,4.5638
2398.4375,1.9417,5.2913,4.8455,5.9082,6.9865,2.5128,3.6439,5.8132,4.3694,2.4424,2.0850,2.6070,3.3002,4.1161,2.3020,0.2484,1.5027,4.3545,5.6661
2402.3438,2.2736,3.7036,3.7817,4.3859,6.6315,0.8979,1.7018,3.6361,4.0493,2.3952,2.5839,2.6005,3.9504,5.0463,3.1875,1.3892,3.7060,3.2809,5.4813
2406.2500,2.6949,2.1204,2.1208,1.6863,3.8156,-0.6174,-0.3076,0.4067,3.4512,2.6226,3.2573,2.1700,3.6422,4.2992,4.3772,2.5846,4.6747,1.7569,3.9211
2410.1562,3.4611,1.1453,0.4369,-1.1443,-0.4498,-1.3444,-1.5686,-2.6368,2.7557,3.3427,4.0773,1.6513,2.4990,2.1449,5.6583,3.6855,4.2686,0.3668,1.6674
2414.0625,4.7042,1.0320,-0.6760,-2.9645,-4.3796,-0.9826,-1.4486,-4.3919,2.2242,4.5048,4.9409,1.4845,1.1742,-0.3842,6.7015,4.6390,3.1575,-0.3259,-0.1489
2417.9688,6.2772,1.5977,-0.8807,-3.1116,-6.3500,0.2206,0.1218,-4.4268,2.0879,5.7821,5.6825,1.9286,0.5130,-2.0662,7.2387,5.4568,2.3802,-0.0618,-0.5682
2421.8750,7.7539,2.3802,-0.2315,-1.6836,-5.7025,1.5967,2.5266,-3.0892,2.4300,6.7142,6.1088,2.8697,1.0823,-2.1414,7.1685,6.1251,2.6733,1.0085,0.6677
2425.7812,8.6020,2.9235,0.9004,0.6146,-2.9594,2.4046,4.7150,-1.1694,3.1238,6.9269,6.0593,3.8651,2.8462,-0.6570,6.5475,6.5443,4.0093,2.4475,3.0071
2429.6875,8.4372,3.0046,2.0434,2.9195,0.6031,2.2116,5.7093,0.6140,3.8578,6.3062,5.4679,4.4010,5.1699,1.6534,5.5087,6.5535,5.6365,3.7774,5.4440
2433.5938,7.2157,2.6665,2.8359,4.6411,3.6823,1.0978,5.0825,1.9555,4.2406,5.0268,4.3839,4.1826,7.1280,3.8084,4.1811,6.0199,6.5697,4.6806,7.0767
2437.5000,5.2606,2.0699,3.1151,5.6175,5.5077,-0.4232,3.1279,2.9384,3.9446,3.4295,2.9323,3.2554,7.9263,5.0315,2.6603,4.9143,6.1838,5.0368,7.5026
2441.4062,3.1200,1.3040,2.8718,5.9552,5.9628,-1.7069,0.6410,3.7411,2.8352,1.8375,1.2441,1.8865,7.2125,4.9812,1.0303,3.3103,4.5255,4.8232,6.8439
2445.3125,1.3445,0.3179,2.1568,5.7477,5.3381,-2.3222,-1.5212,4.3514,1.0429,0.4360,-0.5825,0.3291,5.1529,3.7281,-0.6020,1.3203,2.1810,4.0038,5.4781
2449.2188,0.2970,-0.9709,1.0378,4.9259,4.0051,-2.2387,-2.8165,4.5246,-1.0537,-0.7221,-2.4509,-1.3263,2.2957,1.6112,-2.0957,-0.9523,-0.1479,2.5308,3.7356
2453.1250,0.0651,-2.4887,-0.3706,3.3598,2.2569,-1.7721,-3.1222,4.0025,-2.9407,-1.6194,-4.1962,-3.0905,-0.6647,-0.8887,-3.3015,-3.3814,-2.0356,0.4619,1.7889
2457.0312,0.4795,-3.9115,-1.8642,1.1047,0.3527,-1.3507,-2.5801,2.7897,-4.1536,-2.1926,-5.5584,-4.8757,-3.1091,-3.2243,-4.1060,-5.7248,-3.4435,-1.9197,-0.2429
2460.9375,1.1967,-4.7802,-3.1740,-1.4362,-1.3862,-1.2665,-1.3766,1.2422,-4.4690,-2.3514,-6.2647,-6.3592,-4.6390,-4.8681,-4.4722,-7.5751,-4.5377,-4.1224,-2.1400
2464.8438,1.8092,-4.7775,-4.0749,-3.6004,-2.5951,-1.5557,0.3310,-0.1150,-4.0140,-2.0880,-6.1950,-7.0742,-5.1353,-5.4559,-4.4567,-8.4551,-5.4128,-5.6384,-3.5594
2468.7500,1.9694,-3.9761,-4.5020,-4.7736,-3.0158,-2.0517,2.2961,-0.9051,-3.2197,-1.5747,-5.5140,-6.7009,-4.7387,-4.9408,-4.1969,-8.0532,-5.9570,-6.2008,-4.1896
2472.6562,1.5168,-2.8619,-4.5736,-4.7089,-2.6508,-2.5322,4.0246,-1.1044,-2.6150,-1.1366,-4.6413,-5.3450,-3.7620,-3.6393,-3.8699,-6.4601,-5.9442,-5.9249,-3.9504
2476.5625,0.5748,-2.0804,-4.4841,-3.6388,-1.7744,-2.8423,4.8039,-0.9844,-2.5481,-1.0780,-4.0347,-3.5673,-2.5592,-2.0955,-3.6291,-4.2215,-5.2521,-5.2171,-3.0622
2480.4688,-0.4448,-2.0547,-4.3392,-2.1086,-0.7803,-2.9230,4.0156,-0.8515,-2.9879,-1.4646,-3.9044,-2.1021,-1.3985,-0.8224,-3.5388,-2.1228,-4.0154,-4.5062,-1.9173
2484.3750,-0.9777,-2.7244,-4.0687,-0.6596,0.0179,-2.7642,1.5822,-0.8027,-3.5306,-2.0281,-4.0586,-1.4333,-0.4013,-0.0803,-3.5368,-0.8051,-2.5926,-3.9782,-0.8514
2488.2812,-0.5615,-3.5876,-3.4966,0.4248,0.4860,-2.3596,-1.7683,-0.6885,-3.6284,-2.2933,-4.0105,-1.5237,0.4272,0.1701,-3.4556,-0.4507,-1.3757,-3.5034,0.0118
2492.1875,0.9046,-4.0168,-2.5215,1.1652,0.6295,-1.7200,-4.6831,-0.2942,-2.9191,-1.8762,-3.3033,-1.8814,1.1106,0.1391,-3.1094,-0.7450,-0.5863,-2.7959,0.7411
2496.0938,3.0486,-3.6362,-1.2602,1.7498,0.5042,-0.9287,-5.8011,0.4302,-1.4600,-0.7632,-1.8440,-1.9103,1.6342,0.0375,-2.4115,-1.1390,-0.1904,-1.6750,1.4542
2500.0000,5.1592,-2.5063,-0.0208,2.3552,0.1964,-0.1638,-4.4876,1.2976,0.2841,0.6310,-0.0098,-1.2859,1.9586,0.0060,-1.4544,-1.2253,0.0329,-0.2272,2.1954
2503.9062,6.5241,-1.0098,0.8985,3.0619,-0.1091,0.3706,-1.2358,2.0355,1.7034,1.6915,1.5615,-0.0973,2.1019,0.1714,-0.4925,-0.9627,0.3392,1.2523,2.9382
2507.8125,6.7979,0.4524,1.4394,3.8853,-0.0834,0.5848,2.5485,2.5304,2.3998,1.9874,2.3695,1.3115,2.2057,0.7138,0.1794,-0.6042,0.8873,2.4823,3.6839
2511.7188,6.1817,1.7130,1.8572,4.8371,0.6392,0.6133,5.2924,2.9502,2.4156,1.5581,2.3703,2.6361,2.5028,1.8122,0.3864,-0.4123,1.6888,3.3981,4.5260
2515.6250,5.2966,2.8523,2.5521,5.9216,2.2018,0.7849,6.0987,3.6230,2.1877,0.8976,1.9958,3.7884,3.1748,3.4562,0.1709,-0.4062,2.6275,4.1690,5.5811
2519.5312,4.8083,3.9802,3.7585,7.0546,4.2873,1.4304,5.1768,4.7500,2.2495,0.6256,1.8514,4.8231,4.1919,5.2764,-0.2464,-0.3559,3.5093,5.0110,6.8168
2523.4375,5.0206,4.9808,5.3095,7.9938,6.1318,2.6299,3.6017,6.1746,2.8645,1.0505,2.2892,5.7029,5.2581,6.5898,-0.6230,-0.0303,4.1117,5.9406,7.9271
2527.3438,5.6799,5.4491,6.6603,8.3815,6.8701,4.0744,2.5699,7.4005,3.8198,1.9145,3.1383,6.1374,5.9256,6.7173,-0.8677,0.5085,4.2374,6.6668,8.3992
2531.2500,6.1172,4.9083,7.1806,7.9184,6.0412,5.1657,2.6448,7.8662,4.5133,2.5089,3.7759,5.6738,5.8231,5.4065,-1.1033,0.8298,3.7792,6.7202,7.7768
2535.1562,5.6500,3.1764,6.5381,6.5672,3.9215,5.3311,3.4805,7.2950,4.2914,2.1065,3.4978,4.0094,4.8567,3.0658,-1.5648,0.3850,2.7813,5.7471,5.9632
2539.0625,4.0120,0.6222,4.9239,4.6387,1.4298,4.3772,4.1868,5.8797,2.8424,0.4497,1.9633,1.3050,3.2589,0.6114,-2.3934,-1.0701,1.4565,3.7749,3.3517
2542.9688,1.5567,-1.8979,2.9746,2.6822,-0.3693,2.6576,4.0531,4.1794,0.4209,-2.0195,-0.5570,-1.7530,1.4664,-1.0125,-3.4737,-3.1920,0.1294,1.2731,0.6806
2546.8750,-0.8896,-3.4253,1.4399,1.2323,-0.8556,0.9278,3.1082,2.8062,-2.2294,-4.3463,-3.2758,-4.2236,-0.0826,-1.3393,-4.4451,-5.1453,-0.8836,-1.0329,-1.3085
2550.7812,-2.4489,-3.3939,0.8029,0.5650,-0.1531,-0.0498,2.1075,2.1090,-4.2132,-5.5698,-5.2701,-5.3653,-1.1035,-0.5860,-4.9026,-6.0556,-1.3953,-2.4817,-2.1976
2554.6875,-2.6517,-1.9425,1.0770,0.6098,1.0429,0.0771,1.9539,2.0473,-4.9029,-5.2525,-5.9299,-4.9939,-1.5014,0.5620,-4.6637,-5.5323,-1.4032,-2.7470,-2.0156
2558.5938,-1.6804,0.1431,1.8756,1.0561,1.9734,1.0604,2.9717,2.3013,-4.2193,-3.7160,-5.2314,-3.5303,-1.3121,1.4225,-3.9183,-3.9111,-1.0464,-1.9267,-1.1144
2562.5000,-0.2579,1.8271,2.6812,1.5685,2.3020,2.2082,4.5779,2.5143,-2.6329,-1.8443,-3.6997,-1.7272,-0.6231,1.7232,-3.1381,-2.0420,-0.4976,-0.4340,0.0855
2566.4062,0.7547,2.3367,3.1331,1.9715,2.2680,2.7953,5.6220,2.5021,-0.8982,-0.5743,-2.0969,-0.2614,0.4643,1.6973,-2.7842,-0.7615,0.1405,1.2204,1.3056
2570.3125,0.8274,1.5144,3.1707,2.2975,2.4393,2.4830,5.1857,2.3158,0.3290,-0.3784,-1.0192,0.5645,1.8323,1.8529,-2.9944,-0.3989,0.8693,2.6301,2.4637
2574.2188,0.0361,-0.1622,2.9798,2.6940,3.2713,1.4972,3.2825,2.1546,0.7820,-1.0381,-0.6212,0.8665,3.3381,2.6106,-3.4592,-0.6395,1.7428,3.5957,3.5850
2578.1250,-1.0104,-1.8744,2.8103,3.2671,4.7749,0.4681,0.9364,2.2055,0.6339,-1.8290,-0.6107,0.9949,4.8232,4.0469,-3.5861,-0.8150,2.7669,4.1100,4.6682
2582.0312,-1.5457,-2.8918,2.7939,3.9655,6.4884,0.0358,-0.4535,2.5091,0.3010,-1.9900,-0.5010,1.2690,6.1274,5.8606,-2.8631,-0.4052,3.8157,4.2683,5.6093
2585.9375,-1.1061,-2.9092,2.8694,4.5721,7.7346,0.4681,-0.0500,2.9165,0.1332,-1.1887,0.0377,1.7928,7.0854,7.5263,-1.2024,0.5991,4.6237,4.1665,6.2221
2589.8438,0.1925,-2.1308,2.8439,4.8095,7.9799,1.5139,1.8348,3.1512,0.1898,0.2879,0.9404,2.4281,7.5150,8.5134,0.9521,1.7067,4.8770,3.8416,6.3298
2593.7500,1.7213,-1.0888,2.5409,4.5030,7.0953,2.5684,3.9232,2.9512,0.2393,1.7167,1.7714,2.9062,7.2443,8.4777,2.8254,2.2808,4.3719,3.2841,5.8697
2597.6562,2.7075,-0.3173,1.9399,3.7145,5.4096,3.0337,4.8124,2.2297,-0.0281,2.3679,1.9970,2.9930,6.2110,7.3908,3.7035,1.9807,3.1673,2.5090,4.9592
2601.5625,2.6835,-0.0657,1.2251,2.7681,3.5642,2.6553,3.8952,1.1748,-0.7263,1.9211,1.3381,2.6192,4.5945,5.5921,3.2921,0.9910,1.6388,1.6352,3.8910
2605.4688,1.7493,-0.2025,0.7087,2.1299,2.2493,1.6404,1.7267,0.2149,-1.6338,0.6313,-0.0226,1.9229,2.8683,3.7272,1.8480,-0.0973,0.3748,0.9085,3.0451
2609.3750,0.4964,-0.3446,0.6682,2.1837,1.9287,0.5139,-0.3994,-0.1640,-2.2939,-0.8303,-1.5143,1.1939,1.6709,2.5373,0.0316,-0.6547,-0.0676,0.6274,2.7405
2613.2812,-0.3453,-0.1213,1.1916,3.0144,2.6552,-0.1810,-1.3385,0.3286,-2.2898,-1.7463,-2.4887,0.7504,1.5084,2.5413,-1.4121,-0.3771,0.5626,0.9966,3.0820
2617.1875,-0.3154,0.5930,2.1253,4.3371,4.0621,-0.1528,-0.8061,1.6077,-1.5063,-1.7100,-2.5681,0.8041,2.4541,3.7628,-1.9628,0.5790,2.0630,1.9942,3.8933
2621.0938,0.5603,1.6161,3.1665,5.6387,5.5578,0.5412,0.5727,3.2347,-0.1943,-0.7823,-1.8115,1.3810,4.0620,5.6907,-1.4835,1.7487,3.8660,3.3514,4.7980
2625.0000,1.8505,2.5932,4.0470,6.4717,6.6458,1.5919,1.8470,4.6484,1.2038,0.6073,-0.6085,2.3332,5.6000,7.5492,-0.1938,2.6707,5.3385,4.6774,5.4300
2628.9062,3.0094,3.2272,4.6867,6.7214,7.1922,2.6356,2.4688,5.4686,2.3355,1.9178,0.6017,3.4308,6.4838,8.7393,1.4756,3.1519,6.1264,5.6614,5.6556
2632.8125,3.6696,3.4434,5.2048,6.6592,7.4578,3.4226,2.5991,5.6687,3.1178,2.7511,1.5748,4.4717,6.6284,9.1651,3.0533,3.3325,6.3272,6.2173,5.6508
2636.7188,3.7606,3.3799,5.7710,6.7245,7.8444,3.8726,2.7954,5.4997,3.6888,2.9762,2.3105,5.3382,6.4637,9.2073,4.1572,3.5424,6.3734,6.4710,5.7617
2640.6250,3.4256,3.2264,6.4035,7.1736,8.5146,4.0239,3.3919,5.2292,4.1887,2.6999,2.9061,5.9754,6.5923,9.3598,4.5742,4.0652,6.7013,6.6047,6.2265
2644.5312,2.8526,3.0524,6.8756,7.8480,9.1731,3.9461,4.1264,4.9073,4.5654,2.1518,3.3723,6.3350,7.3295,9.8053,4.2996,4.9598,7.4336,6.6863,6.9617
2648.4375,2.1736,2.7714,6.8328,8.2527,9.2147,3.6878,4.3498,4.3534,4.5856,1.5739,3.5830,6.3557,8.4639,10.2652,3.5366,6.0319,8.3031,6.6292,7.5881
2652.3438,1.4955,2.2772,6.0632,7.9135,8.1815,3.2820,3.6483,3.3821,4.0622,1.1619,3.4061,6.0198,9.4130,10.2505,2.6384,6.9478,8.8672,6.3193,7.7025
2656.2500,0.9871,1.6395,4.7319,6.7642,6.2022,2.7788,2.3341,2.0770,3.1143,1.0477,2.8921,5.4399,9.6501,9.5075,1.9842,7.4046,8.8478,5.8005,7.2038
2660.1562,0.8916,1.1766,3.3818,5.2660,4.0481,2.2612,1.3314,0.8614,2.2244,1.2836,2.3318,4.8771,9.0704,8.2799,1.8231,7.2593,8.3271,5.3384,6.4132
2664.0625,1.4006,1.3013,2.6543,4.1401,2.6952,1.8232,1.4728,0.2605,1.9890,1.8118,2.0953,4.6252,8.0151,7.1388,2.1571,6.5589,7.6420,5.2706,5.8658
2667.9688,2.4636,2.2173,2.8887,3.8845,2.6615,1.5303,2.7356,0.5111,2.7069,2.4457,2.3479,4.8048,6.9488,6.4961,2.7355,5.4781,7.0591,5.7257,5.9046
2671.8750,3.6998,3.6805,3.8718,4.4209,3.6075,1.3974,4.0679,1.3217,4.0963,2.9064,2.8683,5.2134,6.0662,6.1995,3.1753,4.2174,6.4998,6.4330,6.3788
2675.7812,4.5270,5.0318,4.9289,5.1396,4.5354,1.3968,4.0416,2.0077,5.3782,2.9259,3.1344,5.3732,5.1594,5.5860,3.1485,2.9235,5.5619,6.8051,6.6967
2679.6875,4.4648,5.5255,5.3191,5.3209,4.4906,1.4812,1.9225,1.9378,5.7092,2.3733,2.6512,4.7950,3.8601,4.0084,2.5340,1.6667,3.8544,6.2813,6.2276
2683.5938,3.4188,4.7634,4.6793,4.6238,3.2671,1.5901,-1.6348,0.9750,4.6917,1.3283,1.2962,3.3049,2.0529,1.4511,1.4531,0.4724,1.3980,4.7061,4.7711
2687.5000,1.7433,2.9420,3.2158,3.2767,1.5737,1.6324,-4.8481,-0.4328,2.6117,0.0480,-0.5707,1.2032,0.0964,-1.2771,0.1811,-0.6291,-1.2367,2.4592,2.7385
2691.4062,0.0236,0.7345,1.5128,1.8300,0.4960,1.4695,-5.9307,-1.6016,0.2408,-1.1611,-2.3239,-0.8808,-1.3706,-2.9957,-0.9982,-1.5795,-3.2095,0.2181,0.8883
2695.3125,-1.2796,-1.1271,0.0956,0.6690,0.6248,0.9398,-4.3251,-2.1517,-1.6639,-2.0886,-3.4698,-2.3698,-1.9185,-2.9753,-1.9074,-2.3143,-3.9445,-1.4966,-0.2133
2699.2188,-2.0776,-2.2913,-0.9415,-0.3226,1.5025,-0.0640,-1.1696,-2.3196,-2.8118,-2.6982,-3.9435,-3.1038,-1.7354,-1.5330,-2.5105,-2.8184,-3.5431,-2.6656,-0.6210
2703.1250,-2.6322,-2.9560,-1.9815,-1.6715,1.8409,-1.5043,1.3644,-2.7866,-3.4809,-3.0996,-4.1037,-3.4378,-1.6041,0.0724,-2.8801,-3.1695,-2.7605,-3.7493,-1.0064
2707.0312,-3.3016,-3.6637,-3.5793,-3.8554,0.4007,-3.1646,1.4358,-4.1317,-4.2268,-3.4527,-4.4474,-3.9948,-2.4161,0.4236,-3.1477,-3.5302,-2.5363,-5.3097,-2.2114
2710.9375,-4.2649,-4.8809,-6.0272,-6.8328,-3.0765,-4.7209,-1.3259,-6.3198,-5.4373,-3.8770,-5.2683,-5.2422,-4.5492,-1.1215,-3.4732,-4.0739,-3.3930,-7.5573,-4.6658
2714.8438,-5.4314,-6.6631,-9.0964,-9.9431,-7.5583,-5.8945,-5.6585,-8.6266,-7.0655,-4.4238,-6.5030,-7.1793,-7.5608,-3.9994,-4.0252,-4.8809,-5.1167,-10.1613,-8.0714
2718.7500,-6.5831,-8.6298,-12.1234,-12.2778,-11.2787,-6.5966,-9.5390,-10.0780,-8.7157,-5.1015,-7.8503,-9.3443,-10.4294,-6.8167,-4.9371,-5.8649,-6.9332,-12.4637,-11.5581
2722.6562,-7.5979,-10.2393,-14.3630,-13.2605,-12.7879,-6.9614,-11.4364,-10.0898,-9.9779,-5.9025,-9.0279,-11.1120,-12.1808,-8.2593,-6.2248,-6.7833,-8.0364,-13.9268,-14.1834
2726.5625,-8.5403,-11.1459,-15.3597,-13.0019,-11.7847,-7.2333,-11.0835,-8.8377,-10.7236,-6.7834,-9.9433,-12.0599,-12.4591,-7.8949,-7.7032,-7.3371,-8.0873,-14.4672,-15.4194
2730.4688,-9.5267,-11.3776,-15.1012,-12.1624,-9.1897,-7.5705,-9.3264,-7.0878,-11.1300,-7.6105,-10.6492,-12.1480,-11.6529,-6.3368,-8.9793,-7.3103,-7.3454,-14.4238,-15.3174
2734.3750,-10.4815,-11.2291,-13.9009,-11.4307,-6.4691,-7.8973,-7.3047,-5.6283,-11.4349,-8.1355,-11.1491,-11.6201,-10.5233,-4.7114,-9.5744,-6.6727,-6.3798,-14.2008,-14.3010
2738.2812,-11.0222,-10.9798,-12.1476,-11.0169,-4.7276,-7.9158,-5.6592,-4.7399,-11.6477,-8.0656,-11.2560,-10.7448,-9.6362,-3.8685,-9.1468,-5.5900,-5.6156,-13.8862,-12.8011
2742.1875,-10.6265,-10.6680,-10.1223,-10.5496,-4.1928,-7.2845,-4.3394,-4.1035,-11.4788,-7.2223,-10.6564,-9.6189,-9.0205,-3.9066,-7.7003,-4.3391,-5.0637,-13.1662,-11.0284
2746.0938,-9.0065,-10.0873,-7.9902,-9.4506,-4.3664,-5.8600,-3.0326,-3.1918,-10.5632,-5.6997,-9.1567,-8.1765,-8.2715,-4.2968,-5.6416,-3.1809,-4.4118,-11.6174,-9.0196
2750.0000,-6.4193,-8.9926,-5.9092,-7.4889,-4.6121,-3.8458,-1.7306,-1.8162,-8.8071,-3.8991,-6.9156,-6.3665,-6.9748,-4.4256,-3.6200,-2.2633,-3.3658,-9.1479,-6.8553
2753.9062,-3.6459,-7.3415,-4.1094,-5.0765,-4.6696,-1.7445,-0.8794,-0.3777,-6.5706,-2.3762,-4.4583,-4.3254,-5.0973,-4.0867,-2.2171,-1.5964,-1.9466,-6.2238,-4.8131
2757.8125,-1.5971,-5.3845,-2.8380,-3.0600,-4.7192,-0.1346,-0.9658,0.3883,-4.5176,-1.5636,-2.4249,-2.3848,-3.0510,-3.5537,-1.6533,-1.0971,-0.5096,-3.6718,-3.2921
2761.7188,-0.7862,-3.5417,-2.2058,-2.1473,-5.0267,0.6028,-1.9180,-0.0150,-3.2171,-1.5274,-1.2156,-0.9019,-1.4031,-3.2321,-1.6869,-0.6585,0.5126,-2.1706,-2.5521
2765.6250,-1.0330,-2.1678,-2.0685,-2.3890,-5.5346,0.4503,-2.8989,-1.4005,-2.7831,-1.9221,-0.7802,-0.0452,-0.4784,-3.2273,-1.7721,-0.2010,0.9269,-1.7959,-2.4795
2769.5312,-1.6162,-1.3747,-2.0660,-3.1009,-5.7788,-0.2720,-2.7675,-2.9369,-2.8168,-2.1908,-0.7031,0.2945,-0.1610,-3.2058,-1.3890,0.3098,0.9004,-1.9605,-2.5851
2773.4375,-1.7790,-1.0245,-1.8203,-3.3006,-5.2161,-1.0940,-0.9306,-3.6682,-2.6988,-1.9027,-0.5200,0.4046,-0.0283,-2.6701,-0.3560,0.8641,0.8003,-1.8087,-2.2735
2777.3438,-1.2340,-0.8680,-1.1642,-2.3629,-3.6988,-1.6253,2.0634,-3.1503,-2.0203,-1.0193,-0.0356,0.5459,0.3027,-1.4246,1.0576,1.4058,0.8857,-0.7987,-1.2187
2781.2500,-0.3125,-0.7060,-0.2416,-0.4487,-1.7063,-1.7003,4.6966,-1.7542,-0.8448,0.0828,0.5805,0.8006,0.8861,0.1460,2.2787,1.8273,1.0960,0.9345,0.4008
2785.1562,0.3398,-0.4587,0.5927,1.5754,-0.1340,-1.3788,5.3830,-0.4256,0.3768,0.8541,0.9753,1.0771,1.4185,1.2226,2.7505,1.9858,1.0941,2.6803,1.9668
2789.0625,0.2860,-0.1212,1.0077,2.6638,0.2307,-0.8373,3.5103,-0.0738,1.1603,0.9302,0.9254,1.2455,1.4728,1.0402,2.2432,1.7643,0.5314,3.6400,2.7525
2792.9688,-0.3483,0.3230,0.9063,2.2149,-0.8144,-0.2375,-0.0964,-1.0100,1.3461,0.3811,0.5492,1.2827,0.8149,-0.6091,0.9891,1.1666,-0.6636,3.4587,2.3253
2796.8750,-0.9508,0.9365,0.4813,0.4080,-2.7684,0.3460,-3.6190,-2.7906,1.2037,-0.3093,0.2696,1.3103,-0.4158,-3.1970,-0.4185,0.3909,-2.1746,2.4476,0.7926
2800.7812,-0.8668,1.7763,0.0920,-1.9237,-4.7263,0.9127,-5.3060,-4.5329,1.2253,-0.5224,0.5585,1.5070,-1.7643,-5.7195,-1.3009,-0.1874,-3.4413,1.3705,-1.2377
2804.6875,0.1190,2.8042,0.0530,-3.7641,-5.8818,1.4718,-4.4514,-5.4549,1.7702,0.1274,1.6370,1.9731,-2.7019,-7.2291,-1.1988,-0.1548,-3.9603,0.9628,-2.9498
2808.5938,1.6150,3.8447,0.4670,-4.4300,-5.9223,1.9849,-1.6870,-5.2870,2.8166,1.5588,3.3216,2.6512,-2.8949,-7.3158,-0.0678,0.7256,-3.5591,1.5074,-3.7092
2812.5000,2.8834,4.6366,1.1880,-3.8519,-5.1156,2.3585,1.5245,-4.3322,3.9815,3.2589,5.0968,3.3493,-2.3545,-6.2690,1.7104,2.3391,-2.4879,2.7187,-3.3535
2816.4062,3.3303,4.9483,1.9118,-2.5157,-4.0922,2.4875,3.7847,-3.2060,4.7701,4.5538,6.3515,3.8355,-1.4064,-4.8571,3.4885,4.1982,-1.2883,3.9657,-2.2477
2820.3125,2.8701,4.6805,2.3238,-1.1531,-3.4888,2.3145,4.4451,-2.4682,4.8675,4.9471,6.6388,3.9299,-0.5147,-3.8773,4.6073,5.6177,-0.5181,4.6492,-1.0805
2824.2188,1.9149,3.8869,2.2211,-0.3736,-3.6429,1.8620,3.7139,-2.3693,4.2781,4.3307,5.8335,3.5500,-0.0540,-3.7342,4.6400,6.0134,-0.4762,4.4939,-0.5024
2828.1250,1.0230,2.7098,1.5633,-0.4142,-4.4630,1.2124,2.2570,-2.8077,3.2491,2.9674,4.1410,2.7106,-0.1323,-4.2672,3.5361,5.1699,-1.0606,3.6091,-0.7867
2832.0312,0.4845,1.2846,0.4535,-1.0936,-5.4962,0.4458,0.6751,-3.4542,2.0674,1.2907,1.9881,1.5110,-0.5493,-4.9008,1.6189,3.3328,-1.8307,2.3396,-1.6916
2835.9375,0.1482,-0.3148,-0.9195,-1.9535,-6.1471,-0.4257,-0.7726,-3.9318,0.8892,-0.3345,-0.1395,0.1241,-0.9129,-5.0194,-0.5573,1.0786,-2.2484,1.0446,-2.6050
2839.8438,-0.4002,-2.0546,-2.3426,-2.5042,-5.9585,-1.4777,-2.0901,-3.9661,-0.2876,-1.7421,-1.8498,-1.2241,-0.8657,-4.3505,-2.4281,-0.9578,-1.9792,-0.0553,-2.8989
2843.7500,-1.4601,-3.8674,-3.6207,-2.4580,-4.8413,-2.8185,-3.2896,-3.4757,-1.5158,-2.9333,-2.9415,-2.3028,-0.2990,-3.1331,-3.6218,-2.3387,-1.0896,-0.8991,-2.2913
2847.6562,-2.9307,-5.5838,-4.5958,-1.8469,-3.1392,-4.4749,-4.2193,-2.5983,-2.7553,-3.9392,-3.4206,-2.9396,0.5810,-1.9611,-4.0577,-2.9303,-0.0092,-1.5050,-0.9972
2851.5625,-4.3235,-6.9289,-5.1489,-0.9734,-1.4735,-6.2753,-4.6116,-1.6426,-3.8083,-4.6985,-3.4339,-3.0626,1.3927,-1.3857,-3.9012,-2.8315,0.7443,-1.8727,0.4264
2855.4688,-5.0594,-7.6017,-5.2053,-0.2236,-0.4244,-7.8137,-4.2768,-0.9646,-4.3824,-5.0435,-3.1540,-2.6876,1.8514,-1.5192,-3.4166,-2.2139,0.9246,-1.9394,1.4393
2859.3750,-4.8329,-7.4083,-4.7537,0.1520,-0.2180,-8.5499,-3.2681,-0.7966,-4.2436,-4.8024,-2.6814,-1.8685,1.9835,-1.9137,-2.8119,-1.2007,0.7591,-1.6170,1.8417
2863.2812,-3.7953,-6.3849,-3.8808,0.1607,-0.6177,-8.0370,-1.8932,-1.1141,-3.3701,-3.9423,-2.0273,-0.6655,2.1109,-1.8343,-2.1712,0.1326,0.8228,-0.8819,1.8412
2867.1875,-2.4496,-4.8390,-2.7933,0.0166,-1.1078,-6.1810,-0.5832,-1.6316,-2.0153,-2.6483,-1.1916,0.8196,2.5815,-0.7838,-1.5061,1.6621,1.6213,0.1427,1.8238
2871.0938,-1.3479,-3.2706,-1.7928,-0.0455,-1.2668,-3.3913,0.2759,-1.9584,-0.6395,-1.2789,-0.2774,2.3640,3.4243,1.0579,-0.8710,3.1288,3.1439,1.1761,2.0028
2875.0000,-0.8034,-2.1837,-1.1845,0.0358,-1.0832,-0.5056,0.4591,-1.8374,0.2694,-0.2198,0.4597,3.5862,4.1952,2.8092,-0.4350,4.1591,4.7160,1.8682,2.2114
2878.9062,-0.7868,-1.8634,-1.1480,0.0878,-0.9876,1.5197,-0.0554,-1.3209,0.4088,0.2824,0.6985,4.0383,4.1806,3.3503,-0.4312,4.4094,5.3145,1.9581,2.0037
2882.8125,-1.0380,-2.2254,-1.6372,-0.1782,-1.5583,2.0339,-1.0849,-0.7582,-0.1911,0.2143,0.2460,3.4277,2.8686,2.0185,-0.9956,3.7541,4.1985,1.4189,1.0023
2886.7188,-1.2804,-2.8319,-2.3803,-0.9463,-3.0890,1.0178,-2.2690,-0.5893,-1.1661,-0.2239,-0.7824,1.8472,0.3822,-0.9119,-2.0024,2.3900,1.4579,0.4955,-0.7588
2890.6250,-1.3825,-3.0903,-2.9998,-2.1273,-5.3093,-0.8730,-3.1483,-1.0635,-1.9798,-0.7271,-1.9378,-0.1587,-2.4495,-4.3007,-3.0318,0.7842,-1.9081,-0.4067,-2.7506
2894.5312,-1.3755,-2.5505,-3.1945,-3.3583,-7.4519,-2.6039,-3.3194,-2.0599,-2.1812,-1.0176,-2.6210,-1.7859,-4.4779,-6.7492,-3.5297,-0.5161,-4.4831,-0.9309,-4.2003
2898.4375,-1.3510,-1.1519,-2.8801,-4.1737,-8.6294,-3.2630,-2.6233,-3.1216,-1.6272,-0.9366,-2.3904,-2.3515,-4.8639,-7.3708,-3.0951,-1.1075,-5.2171,-0.9513,-4.5163
2902.3438,-1.3362,0.7235,-2.2026,-4.2377,-8.2859,-2.5159,-1.2586,-3.6863,-0.5474,-0.4707,-1.2134,-1.6504,-3.5498,-6.2392,-1.7280,-0.8732,-4.0117,-0.6119,-3.6099
2906.2500,-1.2459,2.4317,-1.4231,-3.4971,-6.4572,-0.7628,0.2828,-3.3806,0.5946,0.2717,0.4957,-0.0657,-1.2708,-4.2455,0.1247,0.0097,-1.7355,-0.1943,-1.9161
2910.1562,-0.9401,3.3948,-0.7531,-2.1830,-3.7200,1.0952,1.4533,-2.2174,1.3630,1.1040,2.0810,1.6418,0.8920,-2.4914,1.7705,1.1751,0.3325,0.0917,-0.1257
2914.0625,-0.3445,3.3982,-0.2468,-0.6857,-0.9055,2.1623,1.9277,-0.5990,1.5802,1.8056,2.9752,2.7433,2.1179,-1.6386,2.6173,2.2159,1.2592,0.2443,1.1772
2917.9688,0.4532,2.6967,0.1884,0.6068,1.2342,2.0470,1.7450,0.8656,1.3863,2.1708,2.9615,2.9023,2.2234,-1.6319,2.4617,2.8105,0.9338,0.4327,1.7499
2921.8750,1.2010,1.8707,0.6923,1.4292,2.2534,1.0742,1.2264,1.6360,1.0994,2.0680,2.2281,2.2824,1.6094,-1.9189,1.5583,2.8034,-0.0100,0.8218,1.6965
2925.7812,1.5895,1.5157,1.3427,1.6932,2.0908,0.0853,0.7494,1.4860,0.9810,1.5002,1.2090,1.3653,0.8796,-1.9466,0.4377,2.2362,-0.7144,1.3971,1.3055
2929.6875,1.4184,1.9307,2.1099,1.4938,1.0400,-0.0590,0.5527,0.6152,1.0688,0.6349,0.3280,0.6231,0.4309,-1.5537,-0.4020,1.3306,-0.6818,1.9341,0.8653
2933.5938,0.7335,2.9640,2.8809,1.0765,-0.3450,1.0098,0.7080,-0.4251,1.1839,-0.2327,-0.1984,0.2543,0.2853,-1.0062,-0.7413,0.4116,-0.0447,2.1399,0.5589
2937.5000,-0.1527,4.0838,3.5092,0.7552,-1.4134,2.9393,1.2324,-0.9755,1.0905,-0.7895,-0.4068,0.1266,0.2117,-0.7159,-0.6888,-0.2256,0.6018,1.8581,0.4451
2941.4062,-0.7887,4.6297,3.8426,0.7732,-1.6581,4.8403,2.1880,-0.5939,0.6764,-0.8449,-0.4887,-0.0803,-0.0253,-0.9065,-0.5340,-0.4580,0.6294,1.1751,0.4659
2945.3125,-0.8120,4.1200,3.7280,1.1458,-0.9741,5.7742,3.6257,0.6829,0.0197,-0.4281,-0.6367,-0.6501,-0.5091,-1.4900,-0.5253,-0.4098,-0.2445,0.3421,0.4489
2949.2188,-0.1585,2.4812,3.0359,1.5810,0.2062,5.2579,5.3903,2.2857,-0.6942,0.2184,-0.9320,-1.6629,-1.2014,-2.2168,-0.7201,-0.3907,-1.8462,-0.4200,0.1305
2953.1250,0.8726,0.1042,1.7346,1.5688,1.0424,3.5007,6.9717,3.3388,-1.3250,0.7584,-1.3206,-2.9615,-2.0727,-2.9405,-0.9881,-0.7069,-3.7052,-1.0725,-0.7507
2957.0312,1.7572,-2.2925,-0.0102,0.6442,0.6854,1.2503,7.6031,3.0887,-1.8640,0.9327,-1.6698,-4.2341,-3.1749,-3.7608,-1.1330,-1.4493,-5.3222,-1.7361,-2.2959
2960.9375,2.0274,-3.9405,-1.7961,-1.3004,-1.2387,-0.6340,6.6436,1.3299,-2.3862,0.6874,-1.8533,-5.1527,-4.5698,-4.9323,-1.0306,-2.3989,-6.3677,-2.5129,-4.3122
2964.8438,1.5379,-4.3290,-3.0771,-3.8496,-4.3518,-1.6121,4.0365,-1.4157,-2.9129,0.1880,-1.8155,-5.4991,-6.1834,-6.6192,-0.6889,-3.1313,-6.7428,-3.3034,-6.3218
2968.7500,0.5544,-3.4124,-3.3827,-6.1831,-7.6560,-1.6485,0.5181,-4.0994,-3.3113,-0.2832,-1.5833,-5.2376,-7.7318,-8.6955,-0.2071,-3.2700,-6.5408,-3.7861,-7.7525
2972.6562,-0.3965,-1.6184,-2.5535,-7.4517,-10.0298,-1.0762,-2.6240,-5.6479,-3.3282,-0.4810,-1.2262,-4.5154,-8.8129,-10.7393,0.3143,-2.7253,-5.9788,-3.6030,-8.2205
2976.5625,-0.8263,0.3564,-0.8480,-7.2121,-10.8021,-0.2750,-4.1580,-5.5071,-2.7483,-0.3088,-0.7894,-3.5907,-9.1101,-12.2173,0.8427,-1.7518,-5.3227,-2.6252,-7.7281
2980.4688,-0.5462,1.8710,1.1564,-5.6666,-10.0574,0.5911,-3.5321,-3.9245,-1.5599,0.1696,-0.2413,-2.7110,-8.5554,-12.7233,1.4199,-0.7792,-4.7864,-1.0985,-6.6424
2984.3750,0.2709,2.6206,2.8203,-3.5616,-8.4963,1.5981,-1.1398,-1.8106,-0.0003,0.8067,0.5237,-1.9934,-7.3297,-12.1206,2.1187,-0.1291,-4.4131,0.4527,-5.4651
2988.2812,1.2506,2.7255,3.7101,-1.8020,-6.9653,2.8569,1.9267,-0.2567,1.5596,1.4727,1.6138,-1.3760,-5.7084,-10.5352,2.9901,0.1841,-4.0056,1.5111,-4.5460
2992.1875,2.0732,2.5862,3.7330,-1.0011,-5.9706,4.2582,4.4648,0.0195,2.8117,2.1097,3.0297,-0.6771,-3.8858,-8.2545,4.0311,0.4259,-3.1940,1.8505,-3.9223
2996.0938,2.6409,2.6022,3.0960,-1.2156,-5.4713,5.3911,5.7255,-0.9992,3.6478,2.7130,4.5859,0.2643,-1.9174,-5.6196,5.1769,0.9172,-1.6594,1.6322,-3.3683
3000.0000,3.0530,2.9329,2.1550,-1.9833,-5.0349,5.7290,5.6454,-2.6801,4.1517,3.2730,5.9343,1.4572,0.1927,-2.9619,6.3034,1.7801,0.6021,1.2651,-2.5860
3003.9062,3.4373,3.4470,1.2715,-2.6078,-4.1939,4.9777,4.6823,-4.1058,4.4713,3.7377,6.7041,2.7324,2.3559,-0.5623,7.2404,2.8441,3.1624,1.1462,-1.3886
3007.8125,3.7966,3.8735,0.7406,-2.5080,-2.7411,3.3427,3.4421,-4.5263,4.6852,4.0333,6.6979,3.8470,4.3542,1.3958,7.8051,3.7746,5.3172,1.4603,0.2350
3011.7188,4.0000,4.0297,0.7714,-1.4539,-0.7954,1.5112,2.3650,-3.6662,4.7675,4.1260,6.0214,4.6444,5.9350,2.8767,7.8645,4.3155,6.4566,2.1496,2.1692
3015.6250,3.9215,3.9558,1.4587,0.3935,1.3423,0.3224,1.6247,-1.7636,4.6656,4.0657,5.0525,5.1463,6.9676,3.9952,7.4034,4.4534,6.4235,3.0270,4.2449
3019.5312,3.5897,3.8612,2.7202,2.6078,3.3813,0.3122,1.2125,0.6191,4.4061,3.9628,4.2447,5.4984,7.5233,4.9354,6.5493,4.3810,5.6129,3.9157,6.2603
3023.4375,3.1996,3.9340,4.2537,4.6950,5.1338,1.4106,1.0638,2.8763,4.1243,3.8977,3.8733,5.8100,7.8040,5.8156,5.5153,4.3028,4.7268,4.7122,7.9583
3027.3438,2.9525,4.1678,5.5928,6.2728,6.4789,2.9819,1.1143,4.5834,3.9798,3.8304,3.8834,6.0180,7.9758,6.5890,4.4807,4.2516,4.3394,5.3626,9.0394
3031.2500,2.8523,4.3451,6.2894,7.1764,7.2876,4.1830,1.2851,5.5841,4.0242,3.5892,3.9409,5.9012,8.0449,7.0626,3.4899,4.0748,4.5607,5.8186,9.2667
3035.1562,2.6495,4.1923,6.1362,7.4706,7.4145,4.4231,1.4667,5.9407,4.1310,2.9752,3.6617,5.2518,7.8789,7.0329,2.4587,3.6001,5.0194,6.0354,8.6209
3039.0625,2.0210,3.5923,5.2807,7.3692,6.7790,3.6531,1.5560,5.8068,4.0567,1.9318,2.8701,4.0769,7.3489,6.4393,1.3106,2.8385,5.1590,6.0082,7.3803
3042.9688,0.8782,2.6911,4.1309,7.0917,5.4634,2.3327,1.5147,5.3004,3.5958,0.6639,1.7197,2.6622,6.4639,5.4181,0.1543,2.0374,4.6256,5.7849,6.0222
3046.8750,-0.4426,1.8169,3.0919,6.7183,3.7287,1.1246,1.3766,4.4421,2.7199,-0.3966,0.5945,1.4220,5.3767,4.2132,-0.6505,1.5193,3.4805,5.4118,4.9686
3050.7812,-1.3050,1.2669,2.3099,6.1262,1.9217,0.5197,1.1725,3.1859,1.5970,-0.7975,-0.1431,0.6277,4.2547,3.0184,-0.6435,1.4184,2.1136,4.8418,4.3342
3054.6875,-1.1836,1.1133,1.6063,5.0665,0.3371,0.6100,0.8324,1.5247,0.4818,-0.3410,-0.3884,0.2152,3.1357,1.8867,0.4160,1.5299,0.9586,3.9015,3.8646
3058.5938,-0.0937,1.1628,0.6587,3.3608,-0.8645,1.1089,0.1758,-0.3957,-0.4407,0.7407,-0.3600,-0.1692,1.9097,0.7868,2.2601,1.4158,0.2369,2.3891,3.1320
3062.5000,1.2917,1.0949,-0.6986,1.1090,-1.6378,1.5629,-0.9591,-2.2371,-1.1399,1.8403,-0.4498,-0.8968,0.4690,-0.2402,4.0891,0.7166,-0.0927,0.2721,1.8720
