Time,Fp1,F3,C3,P3,O1,F7,T3,T5,Fz,Fp2,F4,C4,P4,O2,F8,T4,T6,Cz,Pz
0.0000,-7.8339,-0.9638,-1.1520,-0.4106,0.2641,-3.5034,0.0418,1.1171,-0.7879,-6.8511,1.4933,-0.0832,0.5684,2.1256,-2.2264,1.3744,1.4941,-1.3685,-0.3401
3.9062,-4.6190,1.1990,1.0636,1.5639,1.9498,-1.6598,1.9653,3.3168,1.3813,-2.6359,3.6333,2.2511,2.2675,3.5025,-1.0666,2.0048,2.6443,0.0988,0.9633
7.8125,-1.7917,2.6411,2.3960,2.5484,3.0259,-0.0082,3.3750,4.8076,2.3495,1.5354,4.2800,3.5703,3.5883,4.6113,-0.1672,1.4873,3.6704,0.5551,1.5549
11.7188,-0.9284,2.2148,1.8747,1.8145,2.8308,0.3845,3.4214,4.8168,1.0016,3.4660,2.3026,2.8975,3.7104,4.9401,-0.2641,-0.0951,4.1413,-0.6736,1.0019
15.6250,-2.4583,-0.3038,-0.4720,-0.3610,1.4414,-0.9428,1.9766,3.4147,-2.5364,1.9704,-2.0184,0.4863,2.5097,4.5544,-1.5358,-1.8663,3.9409,-3.2091,-0.4578
19.5312,-5.2175,-3.9411,-3.5130,-2.7442,-0.2581,-3.4538,-0.2227,1.5115,-6.7370,-2.1965,-6.8800,-2.2417,0.7485,4.1027,-3.3264,-2.7095,3.3758,-5.7317,-1.9553
23.4375,-7.1394,-7.0254,-5.6336,-3.8455,-1.0407,-5.8864,-2.0105,0.2871,-9.4355,-6.6295,-9.8691,-3.5932,-0.3432,4.3902,-4.4461,-2.0552,3.0132,-6.7756,-2.4422
27.3438,-6.6817,-8.1753,-5.7055,-2.8406,-0.0651,-7.0453,-2.5321,0.4336,-9.0959,-8.6878,-9.3959,-2.7074,0.1611,5.8306,-3.9222,-0.3161,3.3444,-5.6697,-1.2996
31.2500,-4.0018,-7.1434,-3.7815,-0.1033,2.5931,-6.5845,-1.7963,1.7332,-5.7819,-7.1370,-5.7280,-0.0877,2.2810,8.1786,-1.7177,1.3843,4.4831,-2.9689,1.2631
35.1562,-0.9978,-4.9573,-1.0632,3.0097,5.9528,-5.2314,-0.6618,3.2541,-1.1898,-2.9271,-0.9123,2.7921,5.0979,10.7223,1.1078,2.0082,6.0823,-0.0862,4.2703
39.0625,-0.1015,-3.2613,0.8344,4.9878,8.6774,-4.2803,-0.2652,4.0168,2.3072,1.4193,2.4148,4.4831,7.3019,12.7580,2.9794,1.3410,7.5113,1.5961,6.4760
42.9688,-2.6072,-3.2860,0.8470,5.0724,9.8131,-4.6974,-1.2681,3.6564,3.0135,3.3951,2.5867,4.4287,7.9406,13.9726,2.8056,0.1149,8.1794,1.5198,7.0133
46.8750,-7.6884,-5.1050,-0.9427,3.6635,9.2588,-6.4487,-3.4147,2.6297,0.8320,2.0164,-0.1576,3.1326,6.8892,14.4593,0.7392,-0.5730,7.8171,0.1513,5.8284
50.7812,-12.8124,-7.6369,-3.4170,1.9925,7.6968,-8.5125,-5.6724,1.8469,-2.7896,-1.7149,-3.9402,1.6077,4.7890,14.4058,-1.8558,-0.1041,6.5653,-1.4540,3.6684
54.6875,-15.3104,-9.3595,-5.1274,1.3024,6.0692,-9.5628,-6.8495,2.0092,-5.8018,-5.6172,-6.4931,0.5985,2.5676,13.7524,-3.2811,1.1909,4.8423,-2.3468,1.6459
58.5938,-14.0641,-9.2624,-5.1364,2.0726,4.9612,-8.8596,-6.2908,3.1132,-6.7626,-7.7793,-6.5437,0.1603,0.8934,12.1323,-2.6938,2.2784,3.0819,-2.1634,0.6392
62.5000,-10.1935,-7.4462,-3.5064,3.7614,4.2897,-6.7540,-4.2334,4.4474,-5.5784,-7.6654,-4.4534,-0.1712,-0.1025,9.1667,-0.8107,2.1875,1.4997,-1.1619,0.8583
66.4062,-6.3105,-5.0277,-1.1964,5.1917,3.4771,-4.4890,-1.6416,5.0612,-3.3875,-6.2101,-1.7765,-0.8512,-0.7313,4.9041,0.4091,0.7197,0.0300,0.0761,1.8034
70.3125,-4.8623,-3.4490,0.5169,5.3064,1.9726,-3.4433,0.3476,4.3827,-1.7467,-4.9724,-0.1352,-1.8920,-1.4073,0.0741,-1.0135,-1.4015,-1.5227,0.9980,2.6154
74.2188,-6.6607,-3.6274,0.7412,3.8234,-0.2355,-4.3081,1.0266,2.5951,-1.6699,-5.0195,-0.2083,-2.8268,-2.3061,-4.0525,-5.6867,-3.0095,-3.2044,1.2889,2.6082
78.1250,-10.5118,-5.4402,-0.5816,1.4123,-2.4618,-6.6934,0.4397,0.5585,-3.0876,-6.2902,-1.4645,-3.0259,-3.2067,-6.1514,-12.2000,-3.2229,-4.6864,0.9224,1.6769
82.0312,-14.0952,-7.8132,-2.6805,-0.6847,-3.6454,-9.3664,-0.7179,-0.6550,-4.9834,-7.7692,-2.6990,-2.0877,-3.5812,-5.4322,-17.7006,-1.9112,-5.2844,0.1381,0.3544
85.9375,-15.4351,-9.3297,-4.3796,-1.3527,-2.9767,-10.9362,-1.5320,-0.3346,-6.0497,-8.2383,-2.8975,-0.0449,-2.8745,-2.0358,-19.4104,0.3576,-4.2839,-0.6164,-0.5167
89.8438,-13.9971,-9.0028,-4.7059,-0.2254,-0.4575,-10.5693,-1.3798,1.4931,-5.4420,-7.0495,-1.8082,2.6705,-0.8477,2.9369,-16.1803,2.7473,-1.4322,-0.8279,-0.3046
93.7500,-10.7803,-6.7925,-3.3755,2.1081,2.9599,-8.3561,-0.2492,4.0627,-3.2159,-4.4609,0.0862,5.3947,2.1763,7.7822,-9.1288,4.5987,2.7018,-0.1716,1.0047
97.6562,-7.4768,-3.6022,-0.9181,4.4194,5.7785,-5.1817,1.2885,6.2255,-0.2535,-1.4191,2.0329,7.4185,5.3131,10.8103,-0.9820,5.6150,6.7873,1.2328,2.7670
101.5625,-5.3391,-0.7751,1.6246,5.5076,6.7177,-2.2290,2.4231,6.9843,2.2306,0.9955,3.4770,8.1722,7.4297,11.0049,5.4562,5.7903,9.2810,2.7803,4.0460
105.4688,-4.4888,0.6321,3.2708,4.8603,5.4105,-0.3984,2.5741,5.9565,3.3188,2.1286,4.1971,7.4374,7.6800,8.4624,8.7407,5.2739,9.2173,3.6899,4.1821
109.3750,-4.0235,0.4030,3.6357,2.9475,2.6309,0.0736,1.7216,3.5544,2.8380,2.0647,4.1243,5.5348,6.0003,4.3887,9.2746,4.3340,6.7819,3.5411,3.2187
113.2812,-2.7376,-0.7525,3.1282,0.9801,-0.1065,-0.3518,0.4114,0.7928,1.4228,1.5971,3.1373,3.3348,3.2554,0.5829,8.6490,3.3921,3.2843,2.6729,1.9176
117.1875,0.0672,-1.6241,2.6849,0.2535,-1.3681,-0.8103,-0.5720,-1.1918,0.1841,1.8812,1.1154,1.9540,0.8725,-1.4091,8.3837,2.9701,0.4852,2.0949,1.3322
121.0938,4.1751,-1.1947,3.1892,1.4374,-0.5772,-0.4938,-0.6693,-1.6780,0.1548,3.8817,-1.7512,2.2039,0.1064,-1.0594,8.9504,3.4585,-0.3535,2.8839,2.1886
125.0000,8.6254,0.7958,4.9260,4.2123,1.7062,0.9462,0.1383,-0.6786,1.7817,7.8106,-4.6919,4.0977,1.3459,0.8972,9.6799,4.8224,0.8655,5.4345,4.4469
128.9062,12.2716,3.7380,7.4110,7.4610,4.1640,3.2396,1.3609,1.1308,4.7085,12.8278,-6.4684,6.7734,3.8958,2.9234,9.4866,6.4955,3.0977,9.1020,7.3125
132.8125,14.3588,6.5419,9.6996,9.8951,5.5171,5.6553,2.3567,2.8273,7.9486,17.2442,-5.9477,8.9618,6.3935,3.6052,7.7901,7.6232,4.8373,12.5300,9.6860
136.7188,14.8064,8.2744,10.9699,10.7381,5.2469,7.3879,2.7698,3.7558,10.3583,19.2523,-2.8273,9.7414,7.6131,2.4829,4.9546,7.5522,5.0184,14.4695,10.7679
140.6250,14.0984,8.6429,10.9929,10.0589,3.8053,7.9677,2.7474,3.8347,11.1642,17.8795,1.9842,9.0859,7.1502,0.2601,1.9998,6.2413,3.5784,14.5258,10.4476
144.5312,12.9010,8.0387,10.1863,8.5810,2.2098,7.4724,2.7840,3.4820,10.2786,13.6215,6.6623,7.8213,5.5626,-1.7402,-0.1007,4.2952,1.3766,13.3113,9.2560
148.4375,11.6492,7.1469,9.2387,7.1314,1.3196,6.4276,3.3048,3.2366,8.2535,8.2945,9.3321,7.0183,3.9099,-2.4993,-0.9540,2.5913,-0.4121,11.9185,7.9478
152.3438,10.3258,6.4220,8.5876,6.1123,1.2757,5.4698,4.2931,3.3450,5.9214,4.0840,9.0050,7.2450,3.0347,-1.9730,-0.7563,1.7697,-0.9996,11.1169,7.0098
156.2500,8.5433,5.8018,8.1293,5.3368,1.4631,4.9854,5.2417,3.5948,3.9429,2.3088,6.0211,8.1983,3.0714,-1.0650,0.1162,1.9434,-0.3534,10.8638,6.4140
160.1562,5.8861,4.8544,7.3610,4.3019,0.9896,4.9538,5.4795,3.4929,2.5170,2.6819,1.7492,8.9487,3.4762,-0.9541,1.4923,2.7918,0.9237,10.4574,5.7518
164.0625,2.3356,3.2369,5.8449,2.6760,-0.6562,5.0859,4.6537,2.6467,1.4050,3.6000,-2.2249,8.5944,3.4973,-2.2685,3.4096,3.8897,2.0367,9.1771,4.6270
167.9688,-1.4579,1.1239,3.6551,0.6479,-3.2060,5.1477,3.0291,1.0751,0.2282,3.3333,-4.8779,6.8590,2.7273,-4.6762,5.7716,4.9632,2.4423,6.9156,3.0255
171.8750,-4.2431,-0.7180,1.4876,-1.0918,-5.7130,5.2353,1.3911,-0.7548,-1.1602,1.3585,-6.0300,4.2536,1.3748,-7.1293,8.0520,5.8797,2.0596,4.3542,1.4177
175.7812,-4.6078,-1.2843,0.3490,-1.7063,-7.0635,5.7920,0.6110,-2.1725,-2.4640,-1.0739,-6.0420,1.7620,0.1285,-8.5332,9.4237,6.4555,1.2090,2.5931,0.5371
179.6875,-1.6181,0.1043,1.0210,-0.6594,-6.5659,7.3322,1.1598,-2.6497,-3.0307,-1.5756,-5.2594,0.3188,-0.2446,-8.3566,9.3159,6.3495,0.3993,2.5291,0.9845
183.5938,4.6547,3.3889,3.6349,2.0162,-4.2760,10.0425,2.8785,-2.0292,-2.1938,1.8995,-3.6716,0.4172,0.7021,-6.8153,7.9774,5.2342,0.0953,4.3934,2.8979
187.5000,13.0209,7.7661,7.5948,5.7528,-0.9151,13.5223,5.1252,-0.5299,0.3238,9.6684,-1.0383,2.0108,2.8949,-4.6113,6.5319,3.1521,0.5335,7.6898,5.8681
191.4062,21.5780,12.0771,11.8613,9.7093,2.5129,16.8608,7.1679,1.4201,4.1790,19.9248,2.6621,4.6484,5.7826,-2.5040,6.3659,0.7404,1.6073,11.4771,9.1206
195.3125,28.4665,15.3417,15.4028,13.0852,5.1627,19.0399,8.5516,3.3825,8.4936,29.5925,6.8748,7.6797,8.5494,-1.0121,8.2211,-0.9510,2.8576,14.7703,11.8470
199.2188,32.5976,17.1271,17.5640,15.3425,6.6310,19.4490,9.2283,5.0298,12.2213,35.8892,10.5507,10.4376,10.4067,-0.3459,11.6432,-1.0166,3.6263,16.8571,13.5103
203.1250,33.9820,17.5778,18.2015,16.2929,7.0020,18.2164,9.4244,6.1736,14.6042,37.6424,12.6753,12.4021,10.8833,-0.4629,15.2184,0.7265,3.3753,17.4642,13.9977
207.0312,33.5060,17.1590,17.5883,16.0827,6.6993,16.1554,9.3924,6.7538,15.4728,35.6214,12.8886,13.3632,10.0326,-1.1039,17.4524,3.5664,2.0428,16.7939,13.5801
210.9375,32.3196,16.3237,16.2002,15.1120,6.2495,14.3391,9.2322,6.8302,15.2289,31.8213,11.7409,13.5182,8.4483,-1.8040,17.6694,6.2875,0.2026,15.4411,12.7295
214.8438,31.2095,15.3097,14.5088,13.8990,6.0538,13.5300,8.8782,6.5665,14.5342,28.2713,10.3667,13.3861,7.0207,-1.9902,16.2976,7.8765,-1.1459,14.1663,11.8880
218.7500,30.3059,14.1464,12.8534,12.8945,6.2381,13.7777,8.2121,6.1711,13.8933,26.1255,9.7681,13.4981,6.4945,-1.2395,14.3826,8.0609,-1.1068,13.5427,11.2883
222.6562,29.2342,12.7962,11.4038,12.3013,6.6271,14.4098,7.1946,5.7906,13.3794,25.4664,10.1807,14.0112,7.0502,0.4135,12.7544,7.3257,0.5670,13.6240,10.8953
226.5625,27.5321,11.2879,10.1907,11.9931,6.8590,14.4231,5.9293,5.4197,12.6571,25.7019,10.9452,14.5158,8.1826,2.3680,11.5070,6.4378,3.2803,13.8538,10.4859
230.4688,25.0152,9.7403,9.1696,11.6029,6.5986,13.0632,4.6434,4.9084,11.2669,26.0974,10.9661,14.2254,8.9975,3.7174,10.1550,5.8596,5.9129,13.3509,9.8196
234.3750,21.8619,8.2814,8.2874,10.7553,5.7425,10.2748,3.6199,4.0890,8.9813,26.0502,9.4449,12.4802,8.7691,3.7740,8.2689,5.4810,7.4552,11.4547,8.8061
238.2812,18.4384,6.9533,7.5215,9.3077,4.4930,6.7780,3.1176,2.9468,6.0077,25.0685,6.4116,9.2346,7.3917,2.5090,6.0071,4.8243,7.5313,8.1970,7.5726
242.1875,15.0790,5.6982,6.8782,7.4464,3.2408,3.7339,3.2906,1.7041,2.9262,22.7220,2.7335,5.1859,5.4103,0.5697,4.0797,3.5108,6.4595,4.3664,6.3926
246.0938,12.0430,4.4516,6.3661,5.5784,2.3260,2.1854,4.1169,0.7365,0.4276,18.8223,-0.3629,1.4357,3.6088,-1.1648,3.1765,1.5990,4.8487,1.0945,5.5216
250.0000,9.6691,3.2795,5.9815,4.1017,1.8408,2.5758,5.3649,0.3605,-0.9707,13.7952,-1.9223,-1.0844,2.4675,-2.1707,3.3625,-0.4576,3.0787,-0.7661,5.0529
253.9062,8.5262,2.4434,5.7324,3.2223,1.6226,4.5868,6.6435,0.6373,-1.0711,8.9010,-1.6630,-2.0369,1.8996,-2.5638,3.9824,-2.1670,1.0926,-1.0500,4.8920
257.8125,9.3079,2.3160,5.6854,2.9318,1.4455,7.3516,7.5470,1.3300,0.0306,5.9403,0.0307,-1.6991,1.4571,-2.8738,4.1963,-3.3604,-1.3448,-0.2182,4.8644
261.7188,12.4125,3.1623,5.9776,3.1246,1.2608,9.8940,7.8371,2.0448,2.0583,6.4209,2.4284,-0.6430,0.8159,-3.5061,3.7274,-4.2713,-4.1634,1.0716,4.8720
265.6250,17.4545,4.9052,6.7405,3.7178,1.2824,11.5449,7.5521,2.4534,4.6374,10.6153,4.8304,0.6318,0.1226,-4.3488,3.1927,-5.2821,-6.7316,2.3983,4.9674
269.5312,23.1145,7.0337,7.9536,4.6552,1.8223,12.1365,6.9528,2.4411,7.3072,17.1491,6.7894,1.8493,-0.1024,-4.8541,3.6898,-6.5547,-8.1057,3.6925,5.2812
273.4375,27.5793,8.7499,9.3254,5.7962,2.9861,11.9240,6.3255,2.0962,9.5283,23.5069,8.1305,2.8642,0.5581,-4.5287,5.8957,-7.8342,-7.6553,5.0058,5.8522
277.3438,29.4192,9.3163,10.3232,6.8236,4.4702,11.3380,5.7689,1.5808,10.7749,27.2685,8.8617,3.5215,1.9573,-3.4145,9.3477,-8.5713,-5.5964,6.2062,6.5000
281.2500,28.3751,8.4286,10.3917,7.3068,5.6569,10.7318,5.1279,1.0077,10.7233,27.3649,9.0812,3.6655,3.3450,-2.1361,12.4844,-8.2636,-2.9924,6.9142,6.8627
285.1562,25.5004,6.3960,9.2624,6.9333,5.9867,10.2451,4.1388,0.4197,9.4262,24.5714,8.9130,3.2995,3.8276,-1.4485,13.4913,-6.7704,-1.1644,6.7546,6.6037
289.0625,22.4853,4.0005,7.1569,5.7529,5.3642,9.8132,2.6923,-0.1341,7.3240,20.9127,8.4383,2.6993,3.0010,-1.6352,11.4223,-4.3986,-0.8949,5.6944,5.6508
292.9688,20.5658,2.0930,4.7235,4.2291,4.2940,9.2690,1.0144,-0.5250,5.0316,18.3577,7.6087,2.2876,1.2724,-2.2507,6.8610,-1.7342,-1.9774,4.1418,4.2902
296.8750,19.7595,1.1520,2.7133,3.0105,3.6116,8.4659,-0.3943,-0.5678,3.0142,17.6526,6.2064,2.2997,-0.3898,-2.4352,1.6928,0.6401,-3.4206,2.6801,3.0221
300.7812,18.9927,1.0688,1.5829,2.5428,3.9543,7.3712,-1.0508,-0.1454,1.3745,18.0477,3.9471,2.5077,-1.1070,-1.5788,-1.8636,2.3565,-4.1506,1.6381,2.2569
304.6875,17.0729,1.2941,1.2803,2.7859,5.3136,6.1058,-0.8230,0.6638,-0.0838,18.0628,0.7381,2.2878,-0.6712,0.1677,-2.3736,3.3044,-3.7155,0.8581,2.0508
308.5938,13.8219,1.2520,1.3552,3.2422,6.9736,4.9210,-0.0601,1.5690,-1.5470,16.7207,-3.0464,1.0584,0.3480,1.9222,0.1768,3.5310,-2.5232,-0.1269,2.0673
312.5000,10.5087,0.7509,1.3118,3.2889,7.8901,4.1090,0.5971,2.1968,-2.8759,14.3567,-6.5056,-1.2098,1.0170,2.6141,4.5055,3.1078,-1.5043,-1.6375,1.7947
316.4062,9.1700,0.1165,0.9529,2.5858,7.2808,3.8698,0.6198,2.2859,-3.5546,12.4096,-8.5140,-3.8266,0.6413,1.6414,8.7504,2.0604,-1.4825,-3.4905,0.8765
320.3125,11.2065,-0.0503,0.4740,1.2729,5.0610,4.1929,-0.0599,1.8116,-2.9976,12.3291,-8.2901,-5.7460,-0.8659,-0.8104,11.3310,0.3968,-2.6972,-5.0504,-0.6705
324.2188,16.2164,0.6686,0.2482,-0.1716,1.8767,4.8347,-1.0032,0.9570,-1.0313,14.3758,-5.9058,-6.2399,-3.0521,-3.9550,11.5350,-1.7982,-4.7447,-5.6674,-2.4889
328.1250,21.9494,2.1460,0.4773,-1.2922,-1.2557,5.4360,-1.5689,-0.0339,1.8050,17.2086,-2.3715,-5.3951,-5.2928,-6.8912,9.6348,-4.2708,-6.8877,-5.1648,-4.1222
332.0312,25.5253,3.7020,0.9806,-1.9588,-3.4584,5.7347,-1.3711,-0.9997,4.4061,18.6239,0.8279,-4.0567,-7.1367,-9.0142,6.5878,-6.5779,-8.4565,-3.9881,-5.2819
335.9375,25.1756,4.4775,1.2899,-2.3908,-4.3492,5.7417,-0.5794,-1.8946,5.6669,17.0094,2.5137,-3.2421,-8.4053,-10.1222,3.5281,-8.1826,-9.0887,-2.8968,-5.9515
339.8438,21.3530,3.9567,0.9866,-2.9026,-4.0868,5.7402,0.1533,-2.7054,5.1261,12.5385,2.4272,-3.4538,-9.0741,-10.2721,1.2835,-8.6500,-8.7443,-2.4396,-6.2809
343.7500,16.4338,2.2978,0.0292,-3.5876,-3.1517,6.0696,0.0997,-3.3515,3.2561,7.2517,1.2746,-4.3882,-9.1384,-9.6153,0.1052,-7.8667,-7.6092,-2.6154,-6.3877
347.6562,13.1748,0.2467,-1.1801,-4.2011,-2.0521,6.8128,-1.0623,-3.6807,1.1793,3.8916,0.1628,-5.2330,-8.6238,-8.3758,-0.2965,-6.1556,-6.0197,-2.9623,-6.2476
351.5625,12.9369,-1.3160,-2.0521,-4.3443,-1.1320,7.6055,-3.0151,-3.5874,-0.0285,4.1949,-0.1940,-5.3053,-7.7090,-6.9263,-0.4451,-4.1809,-4.4316,-2.9768,-5.7666
355.4688,14.8561,-1.9033,-2.2091,-3.8072,-0.5373,7.7450,-4.9696,-3.1574,0.0041,7.7395,0.0549,-4.5402,-6.7818,-5.7776,-0.6904,-2.6422,-3.3506,-2.5177,-4.9597
359.3750,16.5065,-1.6752,-1.7342,-2.7961,-0.2740,6.5907,-6.1202,-2.6915,0.7666,12.1107,0.0853,-3.4790,-6.2913,-5.3736,-0.9405,-1.8991,-3.1616,-1.8865,-4.0536
363.2812,15.5909,-1.2532,-1.0806,-1.8437,-0.2544,4.0392,-6.0869,-2.5360,1.2943,14.3096,-0.8778,-2.7997,-6.4547,-5.7887,-0.7193,-1.7532,-3.9108,-1.5444,-3.3801
367.1875,11.5174,-1.2212,-0.6982,-1.4387,-0.2927,0.7619,-5.0611,-2.7986,0.9134,12.5314,-2.8224,-2.7648,-7.0399,-6.5752,0.4672,-1.5575,-5.1991,-1.7051,-3.1042
371.0938,5.8131,-1.6591,-0.6507,-1.6331,-0.0987,-1.9947,-3.5864,-3.1553,-0.2082,7.2112,-4.7546,-3.0026,-7.4272,-6.9381,2.6832,-0.6376,-6.3141,-2.1169,-2.9978
375.0000,1.1343,-2.0455,-0.5186,-1.9283,0.6485,-2.9940,-2.1576,-2.9325,-1.1041,0.7223,-5.2495,-2.7689,-6.9538,-6.1782,5.3489,1.2082,-6.5745,-2.1886,-2.4823
378.9062,-0.4341,-1.6209,0.3081,-1.5659,2.1191,-1.6775,-0.9413,-1.4896,-0.6477,-4.0327,-3.4252,-1.4896,-5.3301,-4.1283,7.4394,3.4476,-5.6992,-1.3620,-0.9894
382.8125,1.3460,0.0111,2.1253,-0.0663,4.1256,1.4663,0.1895,1.2934,1.6183,-5.2311,0.3044,0.7910,-2.8554,-1.2972,8.0014,4.9966,-3.9774,0.5158,1.5609
386.7188,4.8212,2.4535,4.5473,2.3333,6.0426,5.0680,1.3561,4.7340,5.0129,-2.9828,4.2409,3.3405,-0.3049,1.3689,6.6680,4.7823,-2.1364,3.0348,4.4989
390.6250,7.5901,4.5839,6.5611,4.6533,6.9716,7.5208,2.3755,7.5077,7.9522,0.9806,6.2395,5.0700,1.4233,2.9434,3.8461,2.3803,-0.9911,5.3464,6.5999
394.5312,8.0228,5.1358,7.0200,5.6250,6.1363,7.7715,2.7323,8.2389,8.7819,4.4405,4.9017,5.0595,1.6826,2.9183,0.4709,-1.6555,-1.0731,6.4881,6.6832
398.4375,6.1578,3.4624,5.2992,4.3836,3.3277,5.8398,1.8905,6.2325,6.7204,5.8673,0.4050,2.9921,0.2904,1.3536,-2.4962,-5.9837,-2.4195,5.7694,4.2821
402.3438,3.4549,0.0032,1.7067,0.9947,-0.8546,2.7865,-0.2629,1.9312,2.3390,4.9707,-5.5352,-0.6948,-2.4597,-1.2296,-4.5034,-9.1072,-4.5856,3.0787,-0.0321
406.2500,1.6750,-3.8721,-2.6181,-3.5066,-5.1542,0.1441,-3.1835,-3.1993,-2.7125,2.4774,-10.5471,-4.9838,-5.9167,-4.0836,-5.5406,-10.1077,-6.8319,-1.0021,-4.8860
410.1562,1.7007,-6.5819,-6.2725,-7.6009,-8.1788,-0.8870,-5.8692,-7.3395,-6.5667,-0.4997,-12.8026,-8.6782,-9.2424,-6.4691,-5.9544,-9.0823,-8.3888,-5.3472,-8.7716
414.0625,3.0858,-7.1942,-8.2862,-10.0214,-9.0508,-0.0535,-7.4120,-9.1976,-8.0723,-2.9812,-11.8483,-10.8541,-11.6073,-7.8390,-6.1253,-7.0366,-8.7141,-8.6939,-10.7411
417.9688,4.5620,-5.9029,-8.5332,-10.3235,-7.8349,1.8491,-7.5510,-8.6186,-7.2618,-4.2665,-8.6400,-11.1737,-12.4153,-7.9704,-6.2199,-5.2874,-7.6790,-10.1645,-10.7309
421.8750,5.0672,-3.8299,-7.6373,-8.9822,-5.4932,3.4335,-6.8363,-6.5852,-5.1289,-3.8396,-4.8500,-9.9214,-11.5087,-7.0254,-6.1287,-4.6910,-5.6214,-9.6481,-9.3712
425.7812,4.5327,-2.2885,-6.4772,-7.0019,-3.3729,3.4837,-6.2610,-4.6202,-2.9173,-1.3632,-1.9213,-7.7518,-9.2481,-5.4870,-5.5678,-5.1253,-3.2205,-7.8080,-7.4774
429.6875,3.8800,-1.9854,-5.6394,-5.3132,-2.5076,1.6059,-6.5856,-3.9463,-1.3996,3.0681,-0.4223,-5.2942,-6.3723,-3.9473,-4.2650,-5.5344,-1.2086,-5.6715,-5.5985
433.5938,4.2606,-2.6638,-5.1685,-4.3312,-3.1247,-1.5791,-7.8033,-4.8847,-0.5756,8.5965,0.0041,-2.8580,-3.6700,-2.8329,-2.1545,-4.5566,-0.0363,-4.0325,-3.8968
437.5000,6.1134,-3.3823,-4.7289,-3.9114,-4.6304,-4.7889,-9.1166,-6.8084,0.0952,13.5880,0.1896,-0.4302,-1.6386,-2.2360,0.4783,-1.4218,0.3266,-3.0476,-2.3587
441.4062,8.7338,-3.2034,-4.0000,-3.6613,-6.0492,-6.7531,-9.4499,-8.6196,1.1633,16.1887,0.8454,2.0482,-0.3393,-1.9764,2.9854,3.3915,0.3200,-2.2939,-1.0826
445.3125,10.6846,-1.8116,-2.9823,-3.3356,-6.6211,-6.8143,-8.1606,-9.4134,2.7557,15.2673,2.1799,4.3629,0.4681,-1.8488,4.5529,8.1785,0.4794,-1.2330,-0.3633
449.2188,10.7727,0.3299,-1.9933,-3.0206,-6.1832,-5.1340,-5.4753,-8.9181,4.5089,11.1754,3.8714,5.9604,1.0333,-1.8470,4.5985,10.8014,1.0752,0.2747,-0.4890
453.1250,8.8991,2.3338,-1.3887,-2.9931,-5.1254,-2.4488,-2.3713,-7.4862,5.8459,5.7463,5.3046,6.2511,1.4012,-2.1505,3.1846,9.8814,1.9491,1.8041,-1.4286
457.0312,6.1570,3.4552,-1.2573,-3.3907,-4.0030,0.3998,0.0048,-5.7227,6.3465,1.3902,5.8676,5.0839,1.4377,-2.8588,1.1506,5.7078,2.6620,2.6769,-2.6948
460.9375,4.0703,3.4720,-1.3419,-3.9710,-3.1067,2.8259,0.9891,-4.0491,5.9420,-0.2464,5.1664,3.0080,1.0506,-3.6976,-0.2495,0.2635,2.8430,2.5046,-3.5439
464.8438,3.4887,2.6689,-1.2430,-4.1643,-2.2885,4.5526,0.7187,-2.4962,4.8512,0.7666,3.1344,1.0500,0.3926,-3.9990,-0.0945,-3.7603,2.4819,1.5317,-3.4035
468.7500,3.9390,1.5364,-0.7233,-3.4009,-1.1351,5.4255,-0.0436,-0.8182,3.3896,2.7114,0.0819,0.0957,-0.1487,-3.0646,1.5184,-4.4541,1.9505,0.5042,-2.2253
472.6562,3.9488,0.4778,0.1483,-1.4876,0.6658,5.2491,-0.4085,1.2120,1.8526,3.3180,-3.3038,0.3081,-0.1831,-0.6948,3.3800,-1.8051,1.7446,0.1671,-0.4981
476.5625,2.1841,-0.2567,1.1328,1.2324,3.0446,3.8661,0.1572,3.5646,0.5554,1.2219,-6.0647,1.0358,0.4154,2.5201,3.8668,2.2833,2.1409,0.7847,1.0978
480.4688,-1.3797,-0.4341,2.1117,4.0492,5.5397,1.4559,1.6333,5.9303,-0.0781,-3.1297,-7.2414,1.3231,1.4264,5.4256,2.0624,5.1365,3.0203,2.0451,2.1458
484.3750,-5.1292,0.2707,3.2602,6.2679,7.5391,-1.2226,3.5743,7.8907,0.4382,-7.6934,-6.2606,0.6669,2.4533,6.9471,-1.4554,4.9408,3.9653,3.3914,2.7292
488.2812,-6.6704,2.1669,4.9201,7.5480,8.5856,-2.9533,5.4052,9.1320,2.4029,-10.0263,-3.2586,-0.5531,3.2021,6.7201,-4.7886,1.8402,4.5353,4.4781,3.2822
492.1875,-4.3790,5.2543,7.2429,7.9926,8.5501,-2.6108,6.6835,9.5554,5.6208,-8.7043,0.8789,-1.3176,3.6397,5.2557,-5.8454,-2.2070,4.5070,5.3729,4.1849
496.0938,1.4024,8.9995,9.8982,7.9694,7.6068,0.1593,7.2243,9.2502,9.3114,-4.0902,4.8567,-0.7185,3.9225,3.5246,-3.7088,-4.7147,3.9295,6.3650,5.4203
500.0000,8.4072,12.4394,12.1246,7.8242,6.0909,4.6041,7.1033,8.4013,12.3978,1.9840,7.5551,1.3463,4.1833,2.2747,0.7059,-4.2573,3.0085,7.5870,6.5580
503.9062,13.8055,14.6330,13.1508,7.6943,4.3696,9.1751,6.5966,7.2236,14.0654,7.3619,8.5438,4.0679,4.3855,1.5887,5.2061,-1.3223,1.9543,8.8076,7.0746
507.8125,16.0213,15.1777,12.7068,7.5206,2.7860,12.3550,6.0735,5.9467,14.2316,10.7852,8.2241,6.2886,4.3719,0.9863,7.7348,2.1016,0.9202,9.5878,6.7599
511.7188,15.7554,14.4108,11.2352,7.1936,1.6359,13.4713,5.8297,4.8011,13.5749,12.4468,7.5102,7.2952,4.0474,-0.0547,7.6584,3.8792,0.0358,9.6571,5.8907
515.6250,15.4359,13.1109,9.6044,6.6815,1.1040,12.9348,5.8853,3.9534,13.0472,13.5953,7.2399,7.2354,3.5065,-1.6013,6.0235,3.0901,-0.5563,9.1612,5.0305
519.5312,17.3814,11.8941,8.4945,6.0357,1.1565,11.7285,5.8648,3.4078,13.1685,15.5075,7.6703,6.8563,2.9703,-3.1859,4.6269,0.5037,-0.7402,8.5428,4.5996
523.4375,21.9019,10.7443,7.8924,5.2939,1.4787,10.5220,5.1059,2.9630,13.5888,18.5109,8.3488,6.8038,2.5840,-4.1833,4.6134,-2.0806,-0.5226,8.1396,4.5355
527.3438,26.6935,9.0504,7.0866,4.3966,1.5636,9.0903,3.0325,2.3025,13.2538,21.6586,8.4188,7.0587,2.2709,-4.3095,5.6477,-3.0991,-0.0757,7.8488,4.3061
531.2500,28.0773,6.1522,5.2047,3.2206,0.9613,6.5239,-0.3753,1.2001,11.1066,23.2335,7.1657,6.9609,1.8003,-3.8277,6.2563,-2.1966,0.3486,7.1693,3.2831
535.1562,23.3883,2.0135,1.9433,1.7196,-0.4430,2.1320,-4.3268,-0.2854,6.8843,21.7652,4.4908,5.7969,1.0345,-3.3053,5.0432,-0.2808,0.5928,5.6232,1.2264
539.0625,12.9861,-2.4778,-2.0254,0.0645,-2.3112,-3.6163,-7.4341,-1.7764,1.4834,16.9630,1.0654,3.4789,0.1395,-3.1373,1.8368,1.2862,0.7145,3.2351,-1.4539
542.9688,0.5151,-5.8389,-5.2810,-1.3472,-3.9978,-8.8732,-8.3588,-2.7526,-3.3659,10.0370,-1.9085,0.7803,-0.4505,-3.2328,-2.0931,1.7123,0.9322,0.6762,-3.8431
546.8750,-8.8773,-6.7715,-6.4079,-2.0472,-4.8827,-11.2217,-6.5510,-2.8386,-5.9420,3.2263,-3.2200,-1.0618,-0.3242,-3.1097,-4.8859,1.2771,1.4224,-1.0661,-4.9928
550.7812,-11.3509,-4.9049,-4.8105,-1.7353,-4.6808,-9.0910,-2.6138,-2.0117,-5.4039,-1.2241,-2.2342,-1.0935,0.5731,-2.3033,-5.3431,1.0000,2.1282,-1.2724,-4.4313
554.6875,-6.5223,-1.0430,-1.0879,-0.4511,-3.5313,-2.8766,1.9716,-0.5958,-2.2075,-2.1182,0.7097,0.7801,1.8383,-0.7536,-3.6548,1.7752,2.7508,0.0802,-2.4124
558.5938,2.3431,3.2208,3.2552,1.4289,-1.8345,5.0183,5.6243,0.9486,2.1351,0.1435,4.2892,3.7532,2.8419,1.1244,-1.1144,3.6277,2.9495,2.3257,0.2281
562.5000,10.1947,6.2687,6.5726,3.3660,0.0208,11.3373,7.4761,2.2833,5.7816,3.8044,6.6617,6.5875,3.1312,2.7145,0.8846,5.6218,2.5988,4.5128,2.5081
566.4062,12.9810,7.1649,7.8657,4.9005,1.8325,13.6635,7.7189,3.3251,7.3759,6.6654,6.2851,8.2512,2.7111,3.5813,1.7723,6.4718,1.8952,5.9061,3.7718
570.3125,9.7264,5.9580,7.1690,5.8254,3.5570,11.6409,7.2948,4.1815,6.5676,7.2054,2.7617,8.3481,2.0059,3.6796,1.9861,5.4249,1.2254,6.2752,3.9506
574.2188,2.7752,3.5058,5.3737,6.2125,5.1454,7.0067,7.1636,4.9675,4.0453,5.3231,-2.7500,7.1672,1.5566,3.2846,2.3719,2.8224,0.9059,5.8643,3.4964
578.1250,-3.7759,0.9951,3.6500,6.2990,6.4176,2.4646,7.6441,5.6576,1.1334,2.3071,-7.8912,5.4268,1.6969,2.7629,3.3622,-0.0284,1.0097,5.1561,3.0568
582.0312,-6.4050,-0.5800,2.8157,6.3151,7.1074,0.1289,8.2445,6.0812,-0.8297,0.0645,-10.1856,3.9107,2.4314,2.3870,4.6003,-1.5906,1.4141,4.6195,3.0859
585.9375,-3.8741,-0.7717,2.9786,6.3509,7.0525,0.4795,8.0555,6.0514,-1.0585,0.0603,-8.3454,3.1523,3.5475,2.2986,5.2702,-0.9977,2.0044,4.5461,3.6058
589.8438,2.5392,0.2253,3.5975,6.3269,6.3767,2.3812,6.4091,5.5179,0.3954,2.5876,-3.0538,3.2508,4.8062,2.5606,4.8120,1.4141,2.8272,4.9695,4.2412
593.7500,10.1831,1.7351,3.8827,6.0746,5.4993,4.0320,3.3680,4.6300,2.7498,6.7731,3.3141,3.8547,6.0324,3.1765,3.4226,4.2502,4.0282,5.6361,4.4965
597.6562,16.6630,2.9463,3.2992,5.4744,4.9365,4.1612,-0.2463,3.6742,4.9262,11.2482,7.9644,4.3445,7.0674,4.0351,1.9460,5.8044,5.6136,6.0579,4.1063
601.5625,20.9211,3.3090,1.8993,4.5696,5.0162,2.7317,-3.2652,2.9412,6.0930,14.9843,9.2329,4.1766,7.6993,4.8647,1.2556,5.0064,7.2494,5.7031,3.2406
605.4688,23.2200,2.8024,0.3053,3.5819,5.6944,0.7920,-4.7507,2.6109,6.0298,17.7076,7.4527,3.2379,7.7039,5.3085,1.6125,2.0491,8.3142,4.3029,2.4242
609.3750,24.2618,1.9176,-0.6488,2.8117,6.5918,-0.3192,-4.4071,2.7116,5.1136,19.6404,4.5727,1.9718,6.9979,5.1241,2.4723,-1.6678,8.2210,2.1050,2.2035
613.2812,24.2169,1.3365,-0.4195,2.4763,7.2218,0.1507,-2.6368,3.1490,3.9569,20.8445,2.7661,1.1241,5.7599,4.3688,2.8671,-4.2826,6.7931,-0.1394,2.7670
617.1875,22.4277,1.4851,0.9016,2.5892,7.2598,1.9519,-0.2665,3.7642,2.9581,20.7686,2.9567,1.2140,4.3708,3.4006,2.0750,-4.5266,4.4087,-1.5312,3.7752
621.0938,18.0194,2.2551,2.6262,2.9679,6.6920,4.0695,1.8721,4.3866,2.0921,18.4636,4.2602,2.0871,3.1797,2.6565,0.1282,-2.4972,1.7919,-1.5364,4.5405
625.0000,10.9683,3.1072,3.8934,3.3727,5.7747,5.3988,3.2923,4.8734,1.0933,13.4030,4.7176,2.9249,2.2753,2.3559,-2.1490,0.3277,-0.4079,-0.3088,4.4655
628.9062,2.8009,3.5038,4.2203,3.6857,4.8535,5.4125,3.9855,5.1375,-0.1215,6.3084,2.7944,2.7854,1.4654,2.3523,-3.5636,1.9059,-1.9448,1.4278,3.4589
632.8125,-3.7167,3.3589,3.8156,3.9935,4.1630,4.4295,4.3075,5.1641,-1.1581,-0.7321,-1.4148,1.3284,0.4996,2.2511,-3.1806,0.8469,-2.9932,2.8725,2.0368
636.7188,-5.8819,3.1434,3.4230,4.5031,3.7190,3.3698,4.6961,5.0030,-1.2735,-5.1271,-6.1267,-0.8235,-0.6492,1.7011,-0.8214,-2.6885,-3.8750,3.6558,1.0187
640.6250,-2.6303,3.5249,3.7806,5.3418,3.3498,3.1777,5.3686,4.7341,0.1004,-5.1857,-8.9896,-2.4227,-1.6988,0.6332,2.7900,-6.9859,-4.7410,3.9874,1.0040
644.5312,4.6238,4.7880,5.0643,6.3911,2.8318,4.2628,6.1603,4.4246,2.8108,-1.1628,-8.5893,-2.4481,-2.2613,-0.7245,6.2931,-9.7306,-5.4587,4.3474,1.9800
648.4375,12.5161,6.4894,6.7161,7.2905,2.0456,6.2677,6.6024,4.1053,5.8677,4.7989,-5.2990,-0.8618,-2.1773,-2.0390,8.2591,-9.3737,-5.7701,4.9959,3.3283
652.3438,17.4381,7.6609,7.7981,7.6266,1.0654,8.2726,6.2100,3.7741,7.9270,9.8603,-0.9350,1.3120,-1.6867,-3.0952,7.8286,-6.0764,-5.5573,5.7144,4.2284
656.2500,17.4607,7.4646,7.6301,7.1744,0.1260,9.3057,4.8213,3.4096,8.0901,12.0701,2.4671,2.6778,-1.2720,-3.8715,5.1271,-1.6309,-4.9748,5.9905,4.1764
660.1562,13.3194,5.8287,6.2521,6.0167,-0.5186,8.8737,2.7707,2.9674,6.4635,11.3211,3.8534,2.4345,-1.2867,-4.4392,1.2240,1.6050,-4.3384,5.4730,3.2640
664.0625,7.8461,3.5618,4.3707,4.4521,-0.7656,7.2202,0.7606,2.3577,4.0571,9.0857,3.5262,0.8964,-1.6786,-4.8108,-2.3978,2.0955,-3.8674,4.2918,2.0416
667.9688,4.1944,1.8068,2.8262,2.7687,-0.7523,5.1738,-0.5208,1.4411,2.0684,7.1835,2.5515,-0.8192,-2.0533,-4.8889,-4.6102,-0.0290,-3.5026,2.9501,1.0877
671.8750,3.9567,1.1930,1.9736,1.0620,-0.7948,3.6676,-0.8116,0.0789,1.0531,6.4779,1.7602,-1.6873,-2.0373,-4.5551,-5.2065,-3.1800,-2.9520,1.8720,0.6032
675.7812,6.3294,1.3064,1.4346,-0.7670,-1.1991,3.1916,-0.4535,-1.7694,0.5784,6.4046,1.1278,-1.5653,-1.6417,-3.8049,-4.8960,-5.3908,-1.9322,0.9908,0.3085
679.6875,8.7945,0.8936,0.3998,-2.8487,-2.0651,3.4853,-0.2039,-3.9702,-0.3993,5.5931,-0.0593,-1.2810,-1.3156,-2.8023,-4.7076,-5.5426,-0.4258,-0.2540,-0.3182
683.5938,8.8123,-1.2989,-1.7519,-5.1641,-3.2237,3.6563,-0.7837,-6.2383,-2.7210,3.0571,-2.4828,-1.9750,-1.6306,-1.8151,-5.1933,-3.9578,1.2293,-2.4808,-1.6613
687.5000,5.4163,-5.6105,-4.9654,-7.4942,-4.3550,2.6813,-2.4318,-8.2648,-6.3704,-0.9450,-6.1363,-4.2137,-2.8415,-1.1003,-6.0050,-2.0365,2.4698,-5.8256,-3.7145
691.4062,-0.2661,-11.0994,-8.4893,-9.5225,-5.2003,0.0342,-4.7316,-9.8604,-10.4350,-4.9825,-10.2314,-7.5310,-4.6665,-0.8314,-6.1751,-1.2485,2.7669,-9.7169,-6.0853
695.3125,-5.7859,-15.9682,-11.2934,-10.9731,-5.6950,-3.9005,-6.8027,-10.9828,-13.6631,-7.3549,-13.6718,-10.6928,-6.4398,-1.0807,-4.9211,-2.1775,1.8717,-13.1272,-8.1863
699.2188,-8.8318,-18.4974,-12.5953,-11.6501,-5.9085,-7.8734,-7.7336,-11.6078,-15.1786,-7.1409,-15.6711,-12.4328,-7.4934,-1.7962,-2.3756,-4.2171,-0.0563,-15.0917,-9.4405
703.1250,-8.4202,-17.8944,-12.1437,-11.3664,-5.8438,-10.2841,-7.0093,-11.5509,-14.8500,-4.6630,-16.0468,-12.1079,-7.4622,-2.7368,0.3477,-6.0401,-2.4658,-15.1108,-9.3943
707.0312,-5.1585,-14.5776,-10.1488,-9.8936,-5.2992,-9.9253,-4.7287,-10.4421,-13.1306,-1.1193,-15.0533,-9.8775,-6.3278,-3.4387,1.8635,-6.4663,-4.5639,-13.2122,-7.7748
710.9375,-0.6041,-9.8199,-7.0392,-7.0810,-3.9726,-6.5878,-1.5455,-7.9731,-10.6081,2.2637,-13.0050,-6.4246,-4.2720,-3.3528,1.5225,-5.1473,-5.5799,-9.7631,-4.5917
714.8438,3.7183,-5.0676,-3.3034,-3.1345,-1.7961,-1.2167,1.5942,-4.3057,-7.6742,4.9208,-10.0646,-2.5512,-1.5679,-2.1901,-0.0287,-2.6786,-5.0906,-5.3010,-0.2940
718.7500,6.9980,-1.3596,0.4885,1.1625,0.7464,4.4670,3.7913,-0.3309,-4.5431,7.0549,-6.3564,1.0506,1.3630,-0.2963,-1.1880,-0.1550,-3.2860,-0.5355,4.1549
722.6562,9.2264,0.9042,3.6314,4.5622,2.6366,8.6946,4.4966,2.5253,-1.4953,9.2103,-2.2316,3.8185,3.8432,1.2752,-0.4445,1.4843,-1.0017,3.5973,7.4722
726.5625,10.8412,1.8697,5.4103,5.8804,2.7924,10.3665,3.6966,2.9681,0.9815,11.7258,1.6268,5.3226,5.0296,1.2040,2.5895,1.9104,0.5956,6.0834,8.5565
730.4688,12.2901,1.9946,5.4431,4.6855,0.7616,9.4154,1.9246,0.6273,2.3620,14.4715,4.4176,5.3964,4.3121,-1.2922,6.8848,1.4438,0.5839,6.2717,7.0726
734.3750,13.7808,1.8215,4.0125,1.6873,-2.8333,6.6686,0.0606,-3.5567,2.4526,16.9765,5.6131,4.3151,1.8036,-5.7932,10.6399,0.7411,-1.1774,4.3550,3.7411
738.2812,15.2487,1.7992,2.0664,-1.5212,-6.4788,3.3358,-1.0426,-7.6923,1.6265,18.7527,5.2265,2.7797,-1.4946,-10.6846,12.4017,0.3722,-3.9088,1.4657,0.0697
742.1875,16.4419,2.1368,0.7682,-3.2989,-8.5592,0.4303,-0.9611,-9.9094,0.6709,19.5411,3.7604,1.5829,-4.1156,-13.9674,11.8862,0.5289,-6.3270,-0.8416,-2.3948
746.0938,17.0485,2.7217,0.8324,-2.8781,-8.2834,-1.5644,0.0832,-9.3757,0.3155,19.3686,1.9106,1.1331,-4.9671,-14.4198,9.9713,0.9795,-7.4080,-1.4749,-2.8649
750.0000,16.8657,3.1810,2.0990,-0.7697,-6.1375,-2.6609,1.3490,-6.7111,0.7899,18.4886,0.2782,1.2102,-4.0314,-12.3386,7.9432,1.2336,-7.0138,-0.4593,-1.6658
753.9062,15.9970,3.1176,3.6708,1.6249,-3.5376,-3.0813,2.0125,-3.5341,1.7477,17.3196,-0.7258,1.1950,-2.3864,-9.3180,6.5848,0.8022,-5.9501,1.1400,0.0816
757.8125,14.9469,2.4093,4.5339,2.9390,-1.9043,-2.9770,1.6707,-1.4437,2.5966,16.3779,-0.8257,0.6263,-1.4701,-7.1828,5.7499,-0.5681,-5.3930,2.0070,1.2192
761.7188,14.4367,1.3568,4.2196,2.6697,-1.7879,-2.3597,0.5883,-1.1130,2.9425,16.1085,0.1296,-0.3705,-2.0845,-6.8065,4.6631,-2.7683,-6.0716,1.5064,1.2378
765.6250,14.9218,0.5279,3.0341,1.3642,-2.6365,-1.2505,-0.4875,-2.0655,2.7829,16.5902,2.0160,-1.1692,-3.8604,-7.6426,2.6607,-5.3414,-7.7772,0.0626,0.4426
769.5312,16.0843,0.3708,1.7155,0.0817,-3.3351,0.1392,-0.8361,-3.2111,2.3283,17.2950,4.2457,-1.2065,-5.5777,-8.2806,-0.1908,-7.6284,-9.5463,-1.2784,-0.4530
773.4375,16.7551,0.8760,0.8236,-0.4283,-3.0898,1.4114,-0.2564,-3.6925,1.6741,17.1946,5.8129,-0.5475,-6.0931,-7.5854,-3.0193,-8.9912,-10.3683,-1.7261,-0.9496
777.3438,15.5261,1.5710,0.3577,-0.2155,-1.9933,2.2274,0.7950,-3.4199,0.6825,15.3417,5.7242,0.0692,-5.1584,-5.5572,-4.6297,-9.0286,-9.8846,-1.3367,-1.1116
781.2500,11.8054,1.8912,-0.1065,0.0455,-0.8702,2.6213,1.5118,-2.9571,-0.7728,11.6606,3.6265,-0.1847,-3.5056,-3.2805,-4.1971,-7.6943,-8.5559,-0.8431,-1.3926
785.1562,6.5969,1.6598,-0.9079,-0.2906,-0.5500,3.0932,1.2747,-2.9280,-2.4134,7.3814,0.1913,-1.4520,-2.1522,-2.0345,-1.7336,-5.2730,-7.1877,-0.8885,-2.1080
789.0625,2.2974,1.2886,-1.8742,-1.2412,-1.1496,4.3236,0.0458,-3.4519,-3.4283,4.6414,-3.1086,-2.8822,-1.4982,-2.2688,1.9212,-2.2348,-6.1967,-1.3323,-2.9977
792.9688,1.4073,1.5093,-2.3574,-2.1220,-1.9245,6.6384,-1.6338,-4.0456,-2.8479,5.3083,-4.7814,-3.1100,-0.9493,-3.2308,5.5331,0.9433,-5.2114,-1.2432,-3.2543
796.8750,4.8804,2.8108,-1.7228,-2.0407,-1.8112,9.6029,-3.0045,-4.0342,-0.2325,9.7020,-4.1706,-1.2146,0.6146,-3.5197,8.0593,3.8949,-3.3500,0.3765,-2.0334
800.7812,11.2614,5.0131,0.1050,-0.5738,-0.2559,12.1051,-3.5270,-3.1129,3.8412,16.1138,-1.7942,2.5606,3.8720,-2.1378,9.0808,6.3724,0.0024,3.7079,0.9054
804.6875,17.3573,7.3246,2.4944,1.8866,2.2907,12.9808,-3.1020,-1.6086,7.9352,21.5909,1.0681,6.8895,8.3352,0.7391,8.8881,8.1761,4.4892,7.7971,4.8885
808.5938,20.1563,8.8591,4.5008,4.3570,4.5857,11.8254,-1.9710,-0.2487,10.5304,23.6084,3.2264,10.1937,12.4340,3.8173,8.2079,9.0880,8.7056,11.0880,8.5882
812.5000,18.7546,9.2255,5.5112,5.8755,5.3735,9.4302,-0.4491,0.3668,10.9298,21.5776,4.2470,11.5976,14.3799,5.4991,7.7315,8.8912,10.8771,12.4164,10.7035
816.4062,14.9222,8.7370,5.6439,6.0615,4.1956,7.4609,1.2650,0.1831,9.6441,17.1607,4.4782,11.3137,13.2223,4.8693,7.7016,7.4907,9.8896,11.7224,10.6425
820.3125,11.8160,8.0848,5.5970,5.2579,1.6913,7.4798,3.0644,-0.2983,7.9749,13.1294,4.5084,10.2417,9.4024,2.2119,7.7975,5.0720,6.0149,9.9724,8.7975
824.2188,11.6535,7.7435,6.0652,4.2222,-0.7850,9.8881,4.7696,-0.3907,7.0882,11.4943,4.5697,9.1844,4.4874,-1.2046,7.4057,2.1821,0.8634,8.4030,6.2788
828.1250,13.9699,7.5877,7.1714,3.6376,-1.9459,13.4872,6.0234,0.3192,7.2437,12.1620,4.4085,8.3351,0.3232,-3.8440,6.1248,-0.3623,-3.4178,7.6990,4.3000
832.0312,15.7518,7.0281,8.3439,3.7810,-1.2445,16.0166,6.3888,1.7425,7.7197,13.0362,3.7040,7.3941,-1.8343,-4.6387,4.1765,-1.7501,-5.2205,7.7050,3.5865
835.9375,13.4733,5.5606,8.7266,4.5125,0.9407,15.4201,5.6152,3.4062,7.4619,11.5089,2.6170,6.1090,-1.7344,-3.3680,2.4065,-1.5311,-4.2105,7.8009,4.1205
839.8438,5.7121,3.2977,7.8245,5.5021,3.6443,11.1076,3.8825,4.7826,5.9603,6.3513,1.9180,4.6973,0.0185,-0.5972,1.8156,0.1301,-1.3387,7.5504,5.3117
843.7500,-5.4309,1.0627,5.9277,6.4832,5.8995,4.4530,1.8364,5.5885,3.7213,-1.2436,2.5001,3.7707,2.4555,2.6660,2.9049,2.4677,1.8107,7.0795,6.4448
847.6562,-15.1324,-0.0363,4.0380,7.3821,7.2114,-1.7923,0.3635,5.8927,2.0171,-8.1364,4.6363,3.8587,4.7463,5.3921,5.2979,4.4410,3.9166,6.9364,7.1311
851.5625,-18.4355,0.7467,3.3560,8.3032,7.6950,-4.8504,0.2225,6.0279,2.1090,-10.9237,7.6103,4.9889,6.4931,6.8893,7.9513,5.2459,4.5534,7.6298,7.5180
855.4688,-13.0477,3.3629,4.6532,9.4427,7.8821,-3.2835,1.7198,6.4087,4.4756,-7.7893,10.0888,6.6977,7.7643,7.0271,9.8420,4.7486,4.2429,9.2606,8.1558
859.3750,-0.6705,7.0009,7.8725,10.9824,8.3555,2.3471,4.5685,7.3493,8.5152,0.5326,11.0021,8.4277,8.9175,6.2510,10.6429,3.5831,3.9598,11.5005,9.5994
863.2812,13.8520,10.4974,12.1234,12.9670,9.4043,9.8199,7.9656,8.9176,12.8396,11.1264,10.2630,9.9077,10.2913,5.3363,10.8648,2.8174,4.4183,13.8326,11.9661
867.1875,24.9541,12.8286,16.0265,15.1701,10.8430,16.3249,10.8407,10.8417,15.9170,20.2601,8.7458,11.1535,11.8827,4.9440,11.3293,3.3402,5.5726,15.7757,14.7088
871.0938,28.9065,13.4230,18.2335,17.0234,12.0603,19.6704,12.2028,12.5194,16.6880,24.9558,7.5295,12.1229,13.1809,5.2064,12.3624,5.3025,6.6256,16.9237,16.7694
875.0000,25.2005,12.2398,17.9349,17.7282,12.2856,19.0559,11.5005,13.1954,14.9034,24.0385,7.0118,12.4295,13.3213,5.6303,13.3558,7.9475,6.5407,16.8903,17.0800
878.9062,16.2832,9.7124,15.1941,16.5972,10.9796,15.1551,8.8843,12.3047,11.1348,18.3468,6.6226,11.4905,11.5721,5.4440,13.0945,9.9523,4.7502,15.3762,15.1625
882.8125,6.0881,6.6497,10.9838,13.4979,8.1770,9.6258,5.2368,9.8368,6.5456,10.2064,5.3931,9.0675,7.9169,4.1962,10.6617,10.1098,1.6197,12.4237,11.4820
886.7188,-1.7275,4.0694,6.8587,9.1235,4.5883,4.3733,1.8886,6.4908,2.5144,2.4909,2.9339,5.7223,3.3301,2.1838,6.2569,7.9771,-1.6403,8.6537,7.3111
890.6250,-5.0495,2.8927,4.3346,4.8463,1.3594,0.8986,0.0768,3.4541,0.1859,-2.3900,0.0091,2.6935,-0.5413,0.3608,1.2815,4.1297,-3.5958,5.1773,4.1410
894.5312,-3.7312,3.5417,4.2172,2.1492,-0.4283,-0.0785,0.3856,1.8647,0.0572,-3.2787,-1.8209,1.1571,-2.1987,-0.2527,-2.4200,-0.1080,-3.3796,3.0913,2.9546
898.4375,0.7610,5.6557,6.2258,1.9201,-0.2621,1.3173,2.4751,2.2485,1.7726,-0.5862,-1.2878,1.4034,-1.1342,0.7489,-3.6378,-3.2950,-1.1643,2.8453,3.7849
902.3438,6.2035,8.1892,9.1575,4.0250,1.5799,4.3086,5.2829,4.2723,4.2883,4.0164,1.5693,2.6153,1.8764,2.8879,-2.4275,-4.5231,1.9789,3.9592,5.8121
906.2500,10.6324,9.9492,11.5432,7.4206,4.2153,7.8143,7.6070,6.9714,6.3965,8.4628,5.2608,3.4987,5.2570,5.1406,0.1286,-3.7634,4.7292,5.3610,7.9125
910.1562,13.1543,10.2924,12.4285,10.7252,6.6259,10.8387,8.7268,9.2967,7.3575,11.3382,7.7443,3.3091,7.5758,6.6010,2.7835,-1.7815,6.2372,6.1346,9.2833
914.0625,14.2031,9.5117,11.8042,12.8794,8.1080,12.7712,8.6903,10.6212,7.2550,12.5418,7.7514,2.4471,8.2956,6.9478,4.9083,0.2800,6.4478,6.1138,9.7431
917.9688,15.0633,8.5887,10.4243,13.4975,8.4408,13.4867,8.1099,10.8957,6.8194,13.1332,5.5983,2.0997,7.8227,6.3724,6.6110,1.4181,5.8563,5.8499,9.5511
921.8750,16.8451,8.4272,9.1526,12.7563,7.7305,13.2168,7.6401,10.4094,6.8091,14.4022,2.8941,3.1706,6.8855,5.1047,8.1840,1.1597,4.9514,5.9738,8.9461
925.7812,19.4823,9.0908,8.3030,10.9957,6.1202,12.2743,7.5074,9.3896,7.3635,16.7292,1.3614,5.3539,5.7843,3.0207,9.4428,-0.2986,3.8102,6.4755,7.7923
929.6875,21.4407,9.6188,7.4293,8.3763,3.6288,10.8070,7.3939,7.7628,7.7927,19.0284,1.6143,7.1364,4.1352,-0.2596,9.6023,-2.2146,2.1658,6.5174,5.6200
933.5938,20.4778,8.6088,5.6913,4.8377,0.2410,8.7402,6.7038,5.2396,6.9843,19.2442,2.7580,6.7979,1.3057,-4.8298,7.8646,-3.6161,-0.1364,4.9793,2.0307
937.5000,15.1175,5.2007,2.5159,0.3409,-3.8577,5.9488,4.9782,1.6265,4.1754,15.6845,3.0760,3.6774,-2.8364,-10.0037,4.2610,-3.6993,-2.7139,1.3394,-2.8497
941.4062,5.9358,-0.2192,-1.9253,-4.8448,-8.1380,2.5354,2.1617,-2.8961,-0.4286,8.3594,1.3039,-1.2577,-7.5105,-14.3900,0.0187,-2.1722,-4.6679,-3.7923,-8.2286
945.3125,-4.2569,-6.0978,-6.7382,-10.0594,-11.8375,-1.0019,-1.4138,-7.7371,-5.6131,-0.5945,-2.3992,-5.9822,-11.3320,-16.6169,-2.9518,0.5873,-5.1145,-8.9181,-12.9468
949.2188,-11.6286,-10.5432,-10.7769,-14.4481,-14.2801,-3.8760,-5.2331,-12.1105,-9.7326,-7.7919,-6.4374,-8.7008,-13.1454,-16.2227,-3.1736,3.6461,-3.8571,-12.5090,-16.0310
953.1250,-13.3196,-12.3486,-13.2146,-17.2973,-15.1810,-5.3763,-8.7871,-15.3388,-11.5456,-10.3401,-8.7184,-8.9125,-12.7594,-14.0216,-0.5591,5.8839,-1.6759,-13.8542,-17.1336
957.0312,-9.0401,-11.5483,-13.8455,-18.2923,-14.7249,-5.2916,-11.6319,-17.0544,-10.8038,-7.4230,-7.9254,-7.5248,-11.0313,-11.6056,3.4804,6.4675,0.0458,-13.3188,-16.5916
960.9375,-1.2774,-9.1981,-12.9944,-17.5606,-13.3729,-4.1117,-13.3691,-17.2211,-8.2811,-0.7751,-4.3272,-6.0387,-9.2473,-10.2942,6.8629,5.2142,0.1526,-11.8993,-15.1064
964.8438,6.0483,-6.6137,-11.1946,-15.5281,-11.5552,-2.8370,-13.6842,-16.0404,-5.2883,6.2490,0.3381,-5.4912,-8.2729,-10.2829,8.0430,2.6638,-1.5448,-10.4834,-13.2981
968.7500,9.6862,-4.6331,-8.9097,-12.7184,-9.4730,-2.4564,-12.4993,-13.8497,-3.0008,10.4630,3.7885,-5.9211,-8.0835,-10.6052,6.8104,-0.1756,-4.1309,-9.3739,-11.4301
972.6562,8.6840,-3.3641,-6.4608,-9.6132,-7.1258,-3.3748,-10.1350,-11.0635,-1.9653,10.4656,4.3737,-6.6249,-7.9586,-9.9153,4.2273,-2.2744,-6.1377,-8.3490,-9.4407
976.5625,4.6449,-2.4705,-4.1129,-6.6040,-4.4990,-5.1315,-7.3004,-8.1294,-1.9848,7.1991,1.8608,-6.8397,-7.1133,-7.4974,1.8569,-3.0006,-6.4169,-7.0824,-7.1904
980.4688,0.5754,-1.6621,-2.1532,-3.9925,-1.7371,-6.6072,-4.8320,-5.4542,-2.3562,3.2166,-2.5313,-6.2550,-5.2636,-3.7690,0.8572,-2.3239,-4.7705,-5.5108,-4.7101
984.3750,-0.8987,-0.9731,-0.8511,-1.9914,0.8352,-6.6339,-3.3055,-3.3095,-2.2906,1.1537,-6.7929,-5.0301,-2.7594,0.0311,1.4843,-0.7502,-1.9825,-3.8742,-2.2804
988.2812,1.1043,-0.6568,-0.3310,-0.7147,2.8444,-4.6773,-2.7769,-1.7816,-1.3199,2.2952,-9.0895,-3.4738,-0.2985,2.6665,3.1701,0.9406,0.6888,-2.4869,-0.3195
992.1875,5.4630,-0.8610,-0.4827,-0.1711,4.0433,-1.1972,-2.8337,-0.8127,0.4636,5.9898,-8.5534,-1.7876,1.4721,3.6039,4.9504,2.0160,2.1841,-1.5073,0.8181
996.0938,9.8716,-1.4078,-0.9968,-0.2680,4.4081,2.5346,-2.9155,-0.2984,2.4269,10.1415,-5.5551,-0.0982,2.1831,3.1360,5.9017,2.0467,2.0829,-0.9072,1.0055
1000.0000,12.1354,-1.8789,-1.4999,-0.8136,4.1218,5.0667,-2.6639,-0.1504,3.6827,12.4174,-1.3924,1.3566,1.7487,1.9696,5.4075,1.0304,0.6446,-0.5972,0.4016
1003.9062,11.1979,-1.9323,-1.6896,-1.5172,3.4888,5.4922,-2.0608,-0.2599,3.5427,11.4783,2.3899,2.1982,0.3090,0.7020,3.2859,-0.6391,-1.4442,-0.5159,-0.5999
1007.8125,7.4436,-1.5860,-1.4018,-2.0181,2.8454,3.8584,-1.3032,-0.4083,1.9208,7.5971,4.6815,2.1625,-1.7598,-0.4042,-0.1289,-2.3433,-3.3973,-0.5743,-1.4992
1011.7188,2.2899,-1.2350,-0.6222,-1.9842,2.4882,1.0450,-0.5785,-0.2501,-0.5512,2.4101,5.1592,1.4235,-3.8201,-1.2775,-3.9712,-3.4992,-4.5789,-0.5500,-1.8669
1015.6250,-2.5772,-1.3803,0.5059,-1.2707,2.6077,-1.7813,0.0420,0.5466,-2.8089,-1.9900,4.1899,0.6246,-5.1017,-1.7878,-7.0291,-3.8110,-4.6455,-0.1292,-1.5197
1019.5312,-5.8870,-2.2619,1.6707,-0.0468,3.2231,-3.7857,0.5193,2.0595,-3.9131,-4.0900,2.4281,0.4855,-5.0459,-1.6892,-8.1943,-3.3931,-3.6088,0.8520,-0.6167
1023.4375,-7.1135,-3.6486,2.4444,1.2332,4.1595,-4.7914,0.7104,3.9609,-3.5483,-3.5777,0.4122,1.2593,-3.6743,-0.8104,-7.0195,-2.6828,-1.8156,2.1579,0.4023
1027.3438,-6.4199,-4.9208,2.4571,2.0596,5.1147,-5.1618,0.3790,5.6186,-2.1440,-1.2805,-1.5802,2.5093,-1.6651,0.7219,-4.0417,-2.1729,0.1904,3.1819,1.0510
1031.2500,-4.3762,-5.3911,1.6382,2.1825,5.8084,-5.3786,-0.5920,6.4365,-0.5366,1.4523,-3.3834,3.4432,0.0185,2.4713,-0.5906,-2.1103,1.9061,3.3365,1.0905
1035.1562,-1.6601,-4.6742,0.3530,1.7900,6.1227,-5.6356,-1.9566,6.2126,0.5855,3.5041,-4.7048,3.5624,0.7412,3.9214,1.8807,-2.3450,3.0869,2.5446,0.6916
1039.0625,1.1212,-2.9065,-0.7301,1.3843,6.1240,-5.7149,-3.0954,5.2481,1.0602,4.4418,-5.0695,3.0762,0.5934,4.7400,2.5642,-2.4260,3.7878,1.4052,0.3248
1042.9688,3.4782,-0.7054,-1.0231,1.4058,5.9363,-5.1896,-3.3396,4.1116,1.2026,4.4740,-4.0635,2.7072,0.2407,4.8461,1.6816,-1.8823,4.1763,0.8156,0.4180
1046.8750,5.0497,1.1121,-0.4099,1.8763,5.5721,-3.7689,-2.4389,3.2357,1.4172,4.0708,-1.7160,3.0345,0.3223,4.2666,0.2512,-0.5026,4.2606,1.2903,1.0155
1050.7812,5.6762,1.9277,0.6706,2.3604,4.8839,-1.5270,-0.8033,2.6643,1.8215,3.6011,1.3056,3.9480,0.8886,2.9956,-0.5890,1.5518,3.7836,2.5244,1.7084
1054.6875,5.5424,1.6499,1.5681,2.3256,3.7160,1.1250,0.7238,2.1565,2.2070,3.2601,3.9197,4.7188,1.3674,1.0660,-0.2421,3.8438,2.4313,3.6103,1.9324
1058.5938,5.2642,0.7964,1.9739,1.6562,2.1546,3.6627,1.4524,1.5531,2.3564,3.2667,5.1982,4.6578,1.1185,-1.2014,1.1010,5.8556,0.2362,3.7949,1.4404
1062.5000,5.7502,0.2507,2.2488,0.9050,0.6478,5.6813,1.3705,1.0732,2.4062,4.0475,4.9151,3.7960,0.1188,-3.0697,2.7103,7.1434,-2.1640,3.1735,0.5911
1066.4062,7.7750,0.7798,3.2083,1.0169,-0.1724,6.9828,1.1863,1.2431,2.8804,6.1146,3.6777,2.9526,-0.8402,-3.6519,3.8035,7.3904,-3.7060,2.7081,0.1874
1070.3125,11.4355,2.5648,5.4561,2.6541,0.1007,7.5151,1.8139,2.4606,4.2906,9.6221,2.5165,3.0587,-0.6875,-2.5168,3.9203,6.4249,-3.4992,3.4707,0.9267
1074.2188,15.8481,5.0376,8.7431,5.5935,1.2956,7.2827,3.6597,4.5283,6.5968,13.9301,2.1977,4.2694,1.0368,-0.1966,3.0019,4.2939,-1.4617,5.6745,2.8422
1078.1250,19.4058,7.1782,11.8906,8.6837,2.6771,6.3567,6.2454,6.5751,9.0043,17.6212,2.7441,5.6425,3.6607,1.8966,1.2585,1.3873,1.4913,8.2944,5.1669
1082.0312,20.6052,8.1369,13.4343,10.4762,3.3933,4.9819,8.4750,7.5185,10.3592,19.1514,3.5066,5.7468,5.7220,2.2515,-0.9660,-1.5221,3.9162,9.6688,6.7775
1085.9375,19.0281,7.8077,12.6092,10.1503,3.0829,3.6591,9.3723,6.7975,9.9337,17.8287,3.7341,3.7980,5.9864,0.2776,-3.2073,-3.4767,4.7049,8.7027,6.9444
1089.8438,15.8381,6.9550,9.9808,8.0987,2.1948,3.0568,8.7600,4.8482,8.0358,14.4621,3.2167,0.4363,4.3895,-3.1733,-4.8397,-3.7672,3.7611,5.7733,5.8641
1093.7500,13.3459,6.7634,7.2300,5.7371,1.7383,3.7307,7.3838,2.9326,5.9439,11.1289,2.5150,-2.5217,2.1557,-6.2338,-5.1504,-2.3740,2.0124,2.6121,4.5682
1097.6562,13.7561,8.0652,6.1718,4.6355,2.5830,5.7969,6.3925,2.3758,5.1332,10.0591,2.5924,-3.2477,0.9561,-7.1706,-3.6114,-0.0938,0.7413,1.1937,4.2393
1101.5625,17.7954,10.7514,7.6396,5.5414,4.7850,8.7757,6.5530,3.7056,6.3009,12.2716,4.1037,-1.1531,1.7120,-5.4738,-0.2372,1.8227,0.7104,2.4175,5.3960
1105.4688,24.1028,13.7740,10.9767,7.9485,7.4401,11.7414,7.7527,6.2817,8.8779,16.8582,6.8557,2.6947,3.9370,-2.1185,4.2207,2.3607,1.6935,5.5362,7.5182
1109.3750,29.8629,15.7623,14.4621,10.4823,9.2125,13.7192,9.1139,8.6772,11.3949,21.4561,9.8356,6.2918,6.1080,1.1703,8.4352,1.3359,2.7210,8.7242,9.3862
1113.2812,32.3813,15.8525,16.3634,11.8097,9.1988,14.1108,9.5963,9.5593,12.4633,23.6761,11.8012,8.0160,6.7783,3.0883,11.0092,-0.5159,2.8228,10.3400,9.9018
1117.1875,30.6581,14.1794,15.9034,11.4420,7.5280,12.9173,8.6406,8.4834,11.6874,22.5925,12.0266,7.5912,5.5892,3.4944,11.0891,-2.0358,1.7072,9.9509,8.8173
1121.0938,25.9622,11.7115,13.5401,9.9103,5.2613,10.6614,6.4308,6.0896,9.8739,19.3148,10.6942,6.0575,3.4438,3.2199,8.7738,-2.4033,-0.0996,8.4237,6.8692
1125.0000,21.0214,9.5667,10.4670,8.2561,3.6444,8.0947,3.6715,3.6147,8.4084,16.2470,8.6755,4.8628,1.7514,3.1641,5.1072,-1.6461,-1.7106,7.1116,5.2294
1128.9062,18.3308,8.2962,7.7674,7.2460,3.2256,5.8785,1.1198,2.0796,8.2555,15.5044,6.8720,4.8007,1.3475,3.4235,1.6448,-0.5652,-2.5513,6.8140,4.6681
1132.8125,18.6527,7.6183,5.8234,6.8660,3.4548,4.3926,-0.7732,1.6957,9.2839,17.5152,5.5836,5.5397,1.8921,3.1349,-0.2157,-0.1569,-2.7528,7.2711,5.0075
1136.7188,20.6404,6.7490,4.3177,6.4041,3.0472,3.7120,-1.9113,1.8345,10.3669,20.7042,4.3418,5.9797,2.1483,1.1293,0.1423,-0.9585,-3.0099,7.4775,5.2346
1140.6250,21.7730,5.0500,2.7054,5.0027,0.8695,3.6818,-2.3675,1.5145,10.1501,22.4342,2.3135,5.0683,0.8778,-3.1230,2.2507,-2.7639,-4.0555,6.4758,4.1810
1144.5312,19.9425,2.5163,0.7332,2.2655,-3.2476,4.0038,-2.1940,0.0405,7.9399,20.5714,-1.0069,2.4723,-2.3165,-8.9867,4.7269,-4.8498,-6.1450,4.0064,1.3074
1148.4375,14.6605,-0.2256,-1.3753,-1.4781,-8.3054,4.3025,-1.4001,-2.6050,4.1229,14.6811,-5.2932,-1.2774,-6.7565,-14.9142,5.8895,-6.4744,-8.8847,0.6045,-2.9151
1152.3438,7.1841,-2.3702,-3.1400,-5.3713,-12.6639,4.1968,-0.0856,-5.8090,-0.1098,6.1729,-9.4214,-5.1229,-11.1278,-19.2563,4.5824,-7.2537,-11.4622,-2.7990,-7.2467
1156.2500,-0.3817,-3.4860,-4.2214,-8.5031,-14.9471,3.4136,1.4280,-8.7127,-3.4888,-2.5703,-12.0408,-7.9820,-14.2043,-21.0555,0.8225,-7.1839,-13.0723,-5.3933,-10.3560
1160.1562,-6.2985,-3.7793,-4.6768,-10.3352,-14.7559,1.9193,2.6148,-10.6615,-5.3387,-9.4265,-12.3359,-9.1367,-15.3706,-20.3480,-4.0916,-6.3996,-13.2642,-6.7772,-11.4982
1164.0625,-9.9166,-3.9103,-4.9124,-10.8568,-12.7798,-0.0094,2.9293,-11.4670,-5.7981,-13.3651,-10.5130,-8.4231,-14.7075,-17.9048,-8.1409,-4.9634,-12.0568,-6.9562,-10.8068
1167.9688,-11.5606,-4.5227,-5.4040,-10.4479,-10.2973,-1.8574,2.0453,-11.3851,-5.5346,-14.5090,-7.7163,-6.2725,-12.7480,-14.7086,-9.5834,-2.9003,-9.8424,-6.2083,-9.0871
1171.8750,-11.8687,-5.8203,-6.3957,-9.5997,-8.4213,-3.0924,0.0126,-10.8793,-5.2253,-13.6254,-5.4237,-3.6194,-10.1653,-11.5343,-7.8704,-0.4211,-7.1892,-4.9797,-7.2995
1175.7812,-11.2130,-7.4603,-7.7567,-8.6717,-7.5496,-3.4396,-2.7370,-10.3302,-5.1692,-11.5608,-4.6866,-1.6250,-7.5663,-8.7962,-3.9533,1.9329,-4.6373,-3.8125,-6.0646
1179.6875,-9.6380,-8.7954,-9.0444,-7.7864,-7.3017,-3.0515,-5.5155,-9.8424,-5.2420,-9.0023,-5.6555,-1.2095,-5.3905,-6.5912,0.2238,3.4483,-2.5355,-3.2033,-5.4491
1183.5938,-7.2438,-9.2735,-9.7085,-6.8622,-6.9014,-2.4483,-7.5753,-9.2291,-5.1419,-6.5556,-7.6446,-2.5711,-3.8378,-4.7921,2.7731,3.6546,-0.9517,-3.3689,-5.0873
1187.5000,-4.5336,-8.7297,-9.3277,-5.7241,-5.7190,-2.2213,-8.3249,-8.1617,-4.6957,-4.8219,-9.6440,-4.9995,-2.8175,-3.1332,2.8545,2.6949,0.2951,-4.0629,-4.5040
1191.4062,-2.2859,-7.4071,-7.7930,-4.2253,-3.6425,-2.6373,-7.5226,-6.3956,-3.9952,-4.1963,-10.9183,-7.1886,-1.9965,-1.3395,1.0413,1.3285,1.4582,-4.6432,-3.4236
1195.3125,-0.9531,-5.7297,-5.3740,-2.3321,-1.0969,-3.3640,-5.3843,-3.9466,-3.2855,-4.4496,-11.2970,-7.9244,-0.9985,0.6808,-1.1150,0.5045,2.6106,-4.4289,-1.9055
1199.2188,-0.0698,-3.9974,-2.6335,-0.1484,1.2414,-3.5140,-2.5370,-1.1217,-2.7061,-4.4782,-10.9992,-6.7226,0.3325,2.6746,-2.0178,0.7738,3.4851,-3.1308,-0.2664
1203.1250,1.7377,-2.2052,-0.1975,2.1187,2.8299,-2.0489,0.2135,1.6146,-2.0866,-2.6129,-10.1728,-3.9903,1.7968,4.0739,-0.8832,1.9488,3.5657,-1.0297,1.1289
1207.0312,5.9476,-0.0975,1.5323,4.2281,3.5125,1.6123,2.2167,3.8500,-0.9632,2.4904,-8.5431,-0.6268,2.9643,4.2782,1.9466,3.2488,2.4362,1.2488,2.0746
1210.9375,12.9751,2.5739,2.5704,5.9648,3.5176,7.0981,3.2402,5.3776,1.1577,10.8429,-5.4926,2.5948,3.4911,3.0398,5.3296,3.8206,0.1761,3.1902,2.6112
1214.8438,21.4552,5.7463,3.3038,7.1595,3.2427,13.0143,3.4946,6.1986,4.4251,20.6784,-0.5735,5.3786,3.3849,0.6849,8.0118,3.2674,-2.4977,4.7020,2.9575
1218.7500,28.5939,8.8945,4.2060,7.6792,2.9863,17.4296,3.4014,6.3990,8.3818,28.9958,5.8880,7.7546,3.0003,-2.0083,9.2418,1.8414,-4.5107,6.0251,3.3408
1222.6562,31.5303,11.1565,5.4726,7.4311,2.8036,18.7388,3.2650,6.0251,12.0098,32.9052,12.5634,9.6469,2.7657,-4.1933,9.0093,0.2198,-5.0023,7.3411,3.8401
1226.5625,28.9427,11.7115,6.8316,6.4230,2.5685,16.4787,3.0882,5.0814,14.1145,31.0548,17.5262,10.6280,2.8761,-5.3233,7.8686,-0.9253,-3.8229,8.4496,4.3474
1230.4688,21.8997,10.2302,7.6877,4.8570,2.1801,11.6372,2.6635,3.6660,13.8830,24.3126,19.1297,10.1510,3.2155,-5.2539,6.5370,-1.2540,-1.6043,8.8418,4.6763
1234.3750,13.3925,7.1427,7.5312,3.1772,1.7526,6.2374,1.8524,2.1157,11.3253,15.3082,16.8628,8.0932,3.5698,-4.0740,5.5223,-0.8097,0.6615,8.1479,4.7448
1238.2812,6.8032,3.5472,6.3409,1.9803,1.6349,2.3800,0.8093,0.9942,7.3424,7.1273,11.6645,5.1182,3.9211,-1.8863,4.9532,0.1476,2.2505,6.5802,4.6995
1242.1875,4.2235,0.7695,4.6884,1.7855,2.2251,1.2488,-0.0543,0.8582,3.3568,1.9298,5.4955,2.4663,4.5308,1.2206,4.6477,1.3374,3.1068,4.9600,4.8745
1246.0938,5.5944,-0.2137,3.4490,2.7720,3.6960,2.6161,-0.3568,1.9221,0.6860,0.2414,0.4168,1.2528,5.7041,4.9935,4.3353,2.5451,3.7493,4.2396,5.5896
1250.0000,9.0762,0.8117,3.2974,4.6561,5.8255,5.0939,-0.0576,3.8614,-0.0147,1.1818,-2.2952,1.7844,7.4292,8.8535,3.8868,3.6027,4.7877,4.8597,6.9097
1253.9062,12.2806,3.2522,4.3172,6.8104,8.0692,6.9408,0.4694,5.9281,1.0418,3.3016,-2.5322,3.4238,9.2289,12.0104,3.4105,4.3666,6.4285,6.4393,8.5350
1257.8125,13.5315,6.0313,5.9718,8.5750,9.8511,6.9304,0.6791,7.3464,2.9936,5.4045,-1.1127,5.1034,10.4106,13.8681,3.1500,4.7548,8.3392,8.0462,9.9195
1261.7188,12.4489,8.0804,7.4337,9.5707,10.8899,4.8149,0.2390,7.7428,4.8108,6.8910,0.8317,6.0705,10.5602,14.4399,3.2439,4.8043,9.9468,8.8394,10.5673
1265.6250,9.7059,8.7383,8.0365,9.8200,11.3419,1.2230,-0.7449,7.3229,5.7608,7.5993,2.4297,6.2797,9.8919,14.4028,3.5258,4.6566,10.9084,8.5864,10.3252
1269.5312,6.3588,7.8952,7.5659,9.6098,11.6533,-2.8050,-1.8332,6.6717,5.6353,7.4792,3.3124,6.1678,9.1419,14.6638,3.5547,4.4419,11.3684,7.6819,9.4774
1273.4375,3.3085,5.8918,6.2502,9.2129,12.2087,-6.2788,-2.6031,6.3142,4.6919,6.4709,3.5094,6.0720,9.0454,15.7005,2.9253,4.1492,11.7956,6.7087,8.5636
1277.3438,1.1745,3.3016,4.5304,8.6730,13.0053,-8.4722,-2.9577,6.3389,3.4190,4.6796,3.1966,5.8357,9.7688,17.1495,1.6747,3.6134,12.5206,5.9383,8.0231
1281.2500,0.4390,0.7322,2.8055,7.8010,13.5715,-8.9130,-3.1519,6.3341,2.2869,2.6180,2.5175,4.9472,10.7195,17.9596,0.4552,2.6636,13.3299,5.1786,7.8867
1285.1562,1.5135,-1.3004,1.3103,6.3622,13.1956,-7.3519,-3.5237,5.6703,1.5893,1.1999,1.5627,3.0618,10.8814,17.0167,0.2404,1.3223,13.4331,4.0483,7.7210
1289.0625,4.5390,-2.4462,0.1428,4.3056,11.3327,-3.8640,-4.1620,3.9276,1.3951,1.3705,0.4412,0.4224,9.4354,13.8052,1.6590,-0.1281,11.8580,2.3956,6.8748
1292.9688,9.0699,-2.5771,-0.6550,1.8670,7.9473,0.9731,-4.7842,1.1890,1.5744,3.5788,-0.6740,-2.2121,6.2384,8.6698,4.3934,-1.3052,8.0357,0.4833,4.8883
1296.8750,13.9833,-1.8175,-1.0588,-0.5149,3.5899,6.0455,-4.9244,-1.9721,1.8692,7.4513,-1.5820,-4.0751,1.8677,2.5672,7.1375,-2.0138,2.2173,-1.2030,1.8163
1300.7812,17.8188,-0.5132,-1.0886,-2.4000,-0.8341,9.9880,-4.2774,-4.7772,1.9924,11.8993,-2.1341,-4.8980,-2.7340,-3.4345,8.2738,-2.4319,-4.5245,-2.3284,-1.7359
1304.6875,19.3996,0.8804,-0.8430,-3.5370,-4.4694,11.7234,-2.9259,-6.6142,1.7348,15.5835,-2.2917,-4.9951,-6.7231,-8.5343,6.8942,-3.0227,-10.7061,-2.9313,-4.8924
1308.5938,18.3385,1.9510,-0.4825,-3.9414,-6.8675,10.9632,-1.2815,-7.2904,1.0431,17.4395,-2.1257,-4.8942,-9.6348,-12.2724,3.4567,-4.2118,-15.0317,-3.3179,-6.9398
1312.5000,15.1037,2.4569,-0.1512,-3.8473,-8.1107,8.3484,0.2004,-7.0571,0.0312,16.9854,-1.7764,-4.8745,-11.3869,-14.4194,-0.4510,-6.0663,-16.8834,-3.7509,-7.6543
1316.4062,10.6670,2.3867,0.1152,-3.5698,-8.6513,5.1309,1.3056,-6.4230,-1.0690,14.3529,-1.3998,-4.8211,-12.1165,-14.9127,-3.1507,-8.2225,-16.4832,-4.2051,-7.3283
1320.3125,6.0630,1.9602,0.4397,-3.3378,-8.9676,2.5866,2.1436,-5.8632,-1.9663,10.1811,-1.1031,-4.4698,-12.0138,-13.9333,-4.0030,-10.1146,-14.6775,-4.3709,-6.4899
1324.2188,2.1868,1.5987,1.0807,-3.1507,-9.2314,1.5024,2.9984,-5.5588,-2.3318,5.5129,-0.8634,-3.7342,-11.2236,-11.9737,-3.7899,-11.3177,-12.4647,-3.8488,-5.4997
1328.1250,-0.1458,1.8526,2.3386,-2.7269,-9.1744,1.9810,4.0919,-5.2897,-1.8014,1.6691,-0.4649,-2.7482,-9.7905,-9.6914,-4.0222,-11.7308,-10.4999,-2.3456,-4.2957
1332.0312,-0.1700,3.2314,4.4062,-1.6095,-8.2408,3.5598,5.4355,-4.5512,-0.0473,-0.0562,0.4608,-1.5789,-7.6281,-7.5404,-5.6594,-11.4731,-8.8243,0.2409,-2.4688
1335.9375,2.5277,5.9151,7.1951,0.5562,-5.9559,5.4664,6.8368,-2.8744,3.0145,1.0571,2.2266,0.0395,-4.5706,-5.4502,-8.2105,-10.6210,-6.9670,3.7909,0.3596
1339.8438,7.4416,9.4471,10.2052,3.6783,-2.3124,6.8419,7.9994,-0.2056,6.9447,4.5871,4.7646,2.5512,-0.5744,-2.8882,-9.9481,-9.0621,-4.3769,7.8704,4.0927
1343.7500,12.7901,12.6364,12.5427,7.0229,2.0586,6.9139,8.6114,2.8816,10.6408,8.8199,7.3894,5.9921,3.9860,0.6315,-9.1442,-6.6405,-0.9417,11.6033,7.9520
1347.6562,15.9044,13.8757,13.1698,9.3779,6.0661,5.2014,8.3900,5.3333,12.5712,11.3427,8.8901,9.4564,8.1524,4.9358,-5.4398,-3.4971,2.7383,13.7185,10.6930
1351.5625,14.4418,11.8608,11.3557,9.5964,8.6268,1.7748,7.1296,6.1240,11.4155,10.2411,8.0400,11.2243,10.5968,8.9976,-0.3155,-0.2958,5.5446,12.9760,11.1717
1355.4688,7.8154,6.3826,7.1281,7.2701,9.1822,-2.5798,4.8031,4.8745,6.8368,5.2502,4.3186,9.7019,10.2447,11.4266,3.7378,1.9418,6.4466,8.8874,8.9621
1359.3750,-2.1214,-1.3029,1.4391,3.1088,7.9716,-6.5173,1.6780,2.1862,-0.0953,-1.9173,-1.5789,4.6218,6.9934,11.3752,4.7902,2.3794,5.1763,2.2921,4.6619
1363.2812,-11.7660,-8.8625,-4.1384,-1.2879,5.8924,-8.6889,-1.6693,-0.5874,-7.1945,-8.4079,-7.8313,-2.4079,2.0238,9.2111,2.6784,0.9528,2.5289,-4.7248,-0.3110
1367.1875,-17.5816,-13.9273,-8.0981,-4.2206,4.0174,-8.4628,-4.5263,-2.0709,-12.1179,-11.8014,-12.2418,-8.5588,-2.6194,6.4063,-0.9953,-1.4338,0.0441,-9.7211,-4.3455
1371.0938,-17.9756,-15.2341,-9.7036,-4.8054,3.0442,-6.3566,-6.3508,-1.6809,-13.4966,-11.4493,-13.2887,-11.3297,-5.0309,4.6529,-4.0281,-3.3147,-0.7981,-11.1512,-6.3514
1375.0000,-14.0566,-13.1969,-9.2817,-3.4426,2.9897,-3.8276,-7.0221,0.0008,-11.5723,-8.7015,-10.8848,-9.9702,-4.4491,4.8000,-5.0747,-3.4761,0.5993,-9.1821,-6.1832
1378.9062,-8.7893,-9.5559,-7.9078,-1.5255,3.2838,-2.4715,-6.8510,1.5704,-7.9447,-5.8795,-6.3952,-5.7939,-1.6189,6.3593,-4.3652,-1.6801,3.6086,-5.4914,-4.5701
1382.8125,-5.1242,-6.3301,-6.6831,-0.5606,3.1694,-3.1091,-6.3270,1.6697,-4.5920,-4.7064,-1.8943,-1.1825,1.7254,7.9145,-3.2480,1.1727,6.7337,-2.1532,-2.6348
1386.7188,-4.3316,-4.7275,-6.0794,-1.2656,2.1455,-5.3560,-5.7778,-0.1728,-2.7773,-5.2695,0.9039,1.9794,3.9138,8.1099,-2.9946,3.5657,8.4492,-0.3709,-1.2973
1390.6250,-5.5575,-4.6574,-5.7735,-3.2120,0.2023,-7.9486,-5.1915,-3.2726,-2.5031,-6.1798,1.4375,3.3220,4.2465,6.5000,-3.7926,4.2639,8.0173,0.0755,-0.8878
1394.5312,-6.7287,-5.0543,-5.0401,-5.1987,-2.2379,-9.5667,-4.3247,-6.2493,-2.7759,-5.7240,0.4020,3.8209,3.2071,3.7005,-4.6322,3.0365,5.8161,0.3468,-1.1250
1398.4375,-6.0329,-4.6918,-3.3753,-6.0510,-4.5684,-9.5525,-2.9941,-7.8849,-2.4058,-3.1159,-0.8084,4.7245,1.9453,0.8400,-4.0830,0.7700,3.0335,1.4789,-1.3967
1402.3438,-2.9357,-2.9072,-0.8837,-5.2833,-6.2530,-8.0439,-1.3055,-7.7996,-0.7650,1.0473,-0.9362,6.4949,1.4691,-1.1887,-1.3299,-1.0823,0.9602,3.5872,-1.1323
1406.2500,1.8082,0.1674,1.8238,-3.2280,-6.9651,-5.5270,0.3651,-6.5253,1.9484,5.3616,0.5117,8.5610,2.1021,-2.1233,3.2661,-1.3630,0.3170,5.9098,-0.0649
1410.1562,6.8999,3.8591,4.0841,-0.6487,-6.6152,-2.2705,1.6136,-4.9997,4.9868,8.6811,3.1346,9.9463,3.4794,-2.1935,8.3920,0.1385,0.9696,7.5490,1.7068
1414.0625,11.2835,7.3692,5.5966,1.7925,-5.3347,1.8309,2.2692,-3.8934,7.5510,10.8149,5.9787,10.1406,4.9384,-1.7189,12.5301,2.6227,2.1211,8.2178,3.8171
1417.9688,14.4347,10.0307,6.4826,3.8102,-3.4615,6.8638,2.4663,-3.2501,9.1342,12.3750,8.0806,9.4661,5.9399,-0.8689,14.6870,4.8120,2.8079,8.3588,5.7985
1421.8750,16.1670,11.3508,6.9994,5.3893,-1.4949,12.3251,2.4932,-2.6371,9.5670,14.0100,8.9036,8.7017,6.2516,0.2411,14.7055,5.7279,2.4065,8.5859,7.2331
1425.7812,16.3835,11.0174,7.2095,6.4984,0.0338,16.9464,2.5696,-1.6209,8.8986,15.7265,8.4786,8.3765,5.8885,1.3056,13.1262,5.2351,0.9068,8.9991,7.8585
1429.6875,15.1255,9.0370,6.9193,6.9391,0.7641,19.1992,2.7506,-0.1731,7.3292,16.8632,7.2470,8.3785,4.9854,1.7776,10.8340,4.0302,-1.1407,9.0174,7.6217
1433.5938,12.8362,5.9420,5.9346,6.4787,0.6741,18.2047,3.0120,1.2809,5.2588,16.6887,5.7469,8.1775,3.7405,1.1451,8.7247,3.1120,-2.9438,7.8994,6.6721
1437.5000,10.4369,2.8082,4.3841,5.1276,0.0859,14.3994,3.3961,2.1609,3.3115,15.0694,4.3335,7.3947,2.4112,-0.6720,7.4715,3.0930,-3.8863,5.5013,5.2919
1441.4062,8.9367,0.8793,2.7854,3.2899,-0.5262,9.4253,4.0383,2.1262,2.1656,12.6277,3.0826,6.1729,1.2657,-3.1699,7.3595,3.8059,-3.8387,2.5953,3.7865
1445.3125,8.7767,0.9161,1.7588,1.6253,-0.8028,5.2642,5.0245,1.2894,2.2043,10.2865,1.9135,5.0362,0.4628,-5.5239,8.1899,4.4620,-3.1995,0.4432,2.3970
1449.2188,9.4742,2.6916,1.6121,0.7183,-0.6529,3.1815,6.2186,0.1515,3.2307,8.6308,0.8316,4.4234,-0.0306,-7.0799,9.3434,4.2440,-2.6324,-0.0481,1.2886
1453.1250,9.9834,5.0480,2.1536,0.8116,-0.1832,3.1726,7.2621,-0.6410,4.5234,7.6507,0.1002,4.3593,-0.3599,-7.6824,10.0676,2.9167,-2.6331,1.0892,0.6137
1457.0312,9.5923,6.5706,2.8980,1.7868,0.5155,4.2299,7.8094,-0.5466,5.2711,7.0484,0.1748,4.5527,-0.5680,-7.5985,9.8889,1.0190,-3.1880,3.0052,0.5685
1460.9375,8.6320,6.4544,3.4890,3.3501,1.5118,5.1564,7.8319,0.7092,5.1006,6.7496,1.3801,4.7617,-0.4520,-7.1582,8.8877,-0.5123,-3.7673,4.7026,1.3416
1464.8438,8.3108,4.9563,3.9539,5.2047,2.9382,5.3133,7.7096,3.0451,4.2845,7.0618,3.5233,4.9999,0.2992,-6.4802,7.6071,-1.0257,-3.6980,5.6562,2.9292
1468.7500,9.6629,3.0956,4.5455,7.0408,4.7024,4.8172,7.9659,5.9745,3.4343,8.2546,5.7440,5.3308,1.7157,-5.5445,6.6232,-0.6448,-2.6914,5.8800,4.9285
1472.6562,12.3976,1.8233,5.2945,8.3904,6.2531,4.1748,8.7973,8.6292,2.8981,9.9303,6.8026,5.4570,3.2208,-4.5165,6.0892,-0.1854,-1.1555,5.4789,6.5049
1476.5625,14.6650,1.2889,5.6881,8.5769,6.6723,3.7478,9.7611,9.9501,2.3538,10.8547,5.7237,4.5940,3.7413,-3.9471,5.6255,-0.5303,-0.0243,4.2049,6.6638
1480.4688,14.1362,0.7665,4.8352,6.9500,5.1402,3.4963,9.9220,9.0771,0.9789,9.6150,2.4205,1.9246,2.3290,-4.5498,4.6641,-1.9076,-0.1690,1.5294,4.7591
1484.3750,9.7582,-0.7019,2.0888,3.3403,1.5152,3.1454,8.4242,5.8067,-1.8688,5.7629,-2.1327,-2.6195,-1.0792,-6.6463,2.9821,-3.6226,-1.7714,-2.7587,0.9590
1488.2812,2.8970,-3.4433,-2.3110,-1.5888,-3.3774,2.5552,5.1212,0.8503,-5.9530,0.5705,-6.3577,-7.9046,-5.3590,-9.7308,0.9761,-4.4868,-4.1153,-7.9583,-3.6574
1492.1875,-3.0951,-6.7389,-7.1020,-6.4282,-8.0133,1.9408,0.8070,-4.3331,-10.0104,-3.3329,-8.9126,-11.9853,-8.6983,-12.5864,-0.5715,-3.6741,-5.9818,-12.4846,-7.5147
1496.0938,-4.7546,-9.1834,-10.5620,-9.6113,-10.8887,1.7660,-3.1427,-8.1206,-12.3434,-3.4031,-9.3835,-13.2103,-9.6610,-13.9744,-1.0639,-1.4020,-6.4108,-14.6561,-9.2923
1500.0000,-0.6240,-9.5571,-11.4458,-10.1917,-11.2696,2.4247,-5.4963,-9.4417,-11.8009,1.1848,-8.3722,-11.2967,-8.0998,-13.4313,-0.5366,1.0766,-5.3132,-13.7256,-8.5914
1503.9062,7.8076,-7.5787,-9.6748,-8.3194,-9.5066,3.9757,-5.7813,-8.2235,-8.4925,8.8400,-6.9425,-7.5565,-5.2483,-11.5699,0.3881,2.2045,-3.5082,-10.3805,-6.1150
1507.8125,16.9414,-4.0210,-6.3168,-5.1012,-6.7340,6.1034,-4.4032,-5.3157,-3.7526,16.3360,-5.8398,-4.0544,-2.8896,-9.6371,0.9939,1.0938,-2.1654,-6.3054,-3.2437
1511.7188,23.0611,-0.1678,-2.8930,-1.9419,-4.1783,8.2648,-2.2528,-1.9636,0.6102,20.5948,-5.0507,-2.2807,-2.1853,-8.6501,0.9888,-1.9084,-2.0506,-3.1168,-1.2674
1515.6250,24.1414,2.9401,-0.5072,0.1914,-2.5352,9.8667,-0.1344,0.8243,3.2679,20.3121,-3.9980,-2.2957,-3.0066,-8.7626,0.6144,-5.4295,-3.1021,-1.4541,-0.7426
1519.5312,20.4189,4.9269,0.6224,1.1196,-1.7873,10.3769,1.5772,2.6437,3.9256,16.4032,-2.1777,-2.9361,-4.2258,-9.3183,0.2799,-7.8824,-4.5996,-0.8619,-1.3496
1523.4375,13.6671,5.9583,0.9907,1.2585,-1.4920,9.4177,2.8783,3.6343,3.1990,11.1055,0.2857,-2.8630,-4.6950,-9.4950,0.0847,-8.3206,-5.7516,-0.4571,-2.2820
1527.3438,5.9897,6.3030,1.2270,1.1201,-1.2480,6.9323,3.8359,4.1333,2.0210,6.4891,2.6008,-1.6144,-4.1271,-8.9767,-0.3061,-6.8110,-6.2330,0.2275,-2.8548
1531.2500,-0.9433,6.0141,1.5951,0.9241,-0.9643,3.3904,4.3647,4.3424,1.0512,3.4396,3.8064,0.1195,-3.2048,-8.0989,-1.2917,-4.1820,-6.2847,0.9072,-2.9040
1535.1562,-5.9265,4.9889,1.9182,0.5891,-0.7640,-0.1603,4.2778,4.2413,0.4590,1.6911,3.4029,1.1323,-2.8809,-7.3777,-2.8047,-1.4363,-6.3490,0.9279,-2.7366
1539.0625,-7.9691,3.2879,1.8925,0.0339,-0.6675,-2.3891,3.5298,3.7542,0.1077,0.6497,1.6399,0.6842,-3.4775,-6.8603,-4.1451,0.7295,-6.5718,-0.0280,-2.7274
1542.9688,-6.3932,1.3596,1.4584,-0.5301,-0.3716,-2.2896,2.3906,2.9775,-0.1222,0.1996,-0.7176,-0.9393,-4.3324,-5.8932,-4.4172,2.0483,-6.5857,-1.5422,-2.9110
1546.8750,-1.4002,-0.0894,0.9036,-0.6089,0.6425,0.2311,1.3482,2.2480,-0.1652,0.8237,-2.9002,-2.6609,-4.2836,-3.5598,-3.2718,2.5251,-5.7459,-2.6929,-2.8975
1550.7812,5.4394,-0.5137,0.6408,0.2406,2.7157,4.1997,0.7890,1.9730,0.1487,3.0155,-4.4897,-3.3776,-2.6041,0.5163,-1.3251,2.2610,-3.6344,-2.6985,-2.1800
1554.6875,11.4798,0.0974,0.8828,2.0061,5.6186,8.0396,0.7102,2.3378,0.8978,6.5557,-5.3821,-2.6488,0.3520,5.6255,0.1690,1.4294,-0.4520,-1.4382,-0.5991
1558.5938,14.2145,1.2038,1.4996,4.0757,8.4756,10.3940,0.7144,3.1086,1.9563,10.3108,-5.4998,-0.8605,3.2908,10.1356,0.2186,0.3491,2.9898,0.5328,1.3991
1562.5000,12.7101,2.0807,2.1597,5.4987,10.1190,10.7766,0.3118,3.6882,3.0471,12.7550,-4.6224,1.1194,4.7944,12.3003,-1.1149,-0.5311,5.6618,2.4108,2.9345
1566.4062,8.2027,2.2900,2.6069,5.5031,9.6960,9.6268,-0.6885,3.4167,3.8872,12.8335,-2.5680,2.4419,4.2056,11.1954,-2.6915,-0.8299,6.8290,3.6202,3.2084
1570.3125,3.3115,1.9100,2.8296,3.9440,7.1725,7.7936,-1.9953,1.9539,4.2944,10.5410,0.4163,2.5998,1.9673,7.1945,-3.1152,-0.4846,6.3629,3.9946,2.0321
1574.2188,0.3483,1.3861,3.0014,1.4060,3.4262,5.8948,-2.9946,-0.4781,4.2086,6.8467,3.4693,1.5074,-0.7467,1.7368,-1.8047,0.1817,4.7084,3.6463,0.0098
1578.1250,-0.0717,1.1693,3.2827,-1.0859,-0.1421,4.0640,-3.1317,-3.1365,3.6817,3.1054,5.4396,-0.5172,-2.7697,-3.4062,0.5158,0.6948,2.5868,2.7819,-1.7588
1582.0312,0.8866,1.4436,3.6846,-2.5618,-2.2741,2.2389,-2.2411,-5.0763,2.9036,0.4240,5.5982,-2.7651,-3.5147,-6.9028,2.3132,0.8138,0.6461,1.6885,-2.2801
1585.9375,1.5076,2.1257,4.1116,-2.5288,-2.4428,0.6583,-0.6088,-5.5913,2.2420,-0.6244,4.2278,-4.2285,-3.0716,-8.2856,2.3780,0.7519,-0.7568,0.8400,-1.2077
1589.8438,1.0572,3.0583,4.5151,-1.1280,-1.0594,0.0394,1.2369,-4.5534,2.1868,0.0888,2.5705,-3.9286,-1.9149,-7.9179,0.7416,1.0215,-1.5826,0.8673,0.9957
1593.7500,0.3843,4.1612,4.9775,0.9994,0.7936,1.1720,2.8232,-2.4722,3.1232,2.4348,2.0548,-1.4475,-0.5411,-6.6400,-1.3142,2.0049,-1.9915,2.2316,3.3487
1597.6562,1.1257,5.3761,5.6177,3.0183,1.9491,4.1942,3.9121,-0.2395,5.0171,6.0424,3.2859,2.6439,0.7103,-5.3212,-2.1679,3.5958,-2.1761,4.7679,4.8878
1601.5625,4.1785,6.4693,6.3858,4.2225,1.7457,8.1529,4.4800,1.3123,7.2363,10.1462,5.5176,6.8528,1.6391,-4.4965,-1.0138,5.2172,-2.2264,7.5060,5.1254
1605.4688,8.7013,6.9275,6.9508,4.2577,0.3218,11.3072,4.5825,1.8022,8.7155,13.5396,7.0312,9.4343,2.1225,-4.1927,1.5756,6.2108,-2.0845,9.0551,4.1859
1609.3750,12.4894,6.1356,6.8287,3.1980,-1.5198,12.0809,4.2545,1.4348,8.4648,14.8909,6.2164,9.3142,2.1265,-3.9925,4.0553,6.2720,-1.6110,8.4067,2.6089
1613.2812,13.4785,3.7913,5.7110,1.4843,-2.7742,10.0464,3.5218,0.8145,6.1590,13.3895,2.6494,6.6708,1.7606,-3.3201,4.9545,5.5606,-0.7337,5.6257,1.0044
1617.1875,11.2427,0.2766,3.7644,-0.2403,-2.7560,6.2401,2.4819,0.5669,2.4389,9.3533,-2.5380,2.7780,1.2627,-1.8291,3.8106,4.4035,0.4113,1.9051,-0.2050
1621.0938,7.3537,-3.3188,1.6626,-1.3480,-1.4004,2.5585,1.3415,0.9976,-1.3023,4.3440,-7.2199,-0.7629,0.8726,0.3241,1.3878,2.8810,1.4614,-1.0994,-0.8378
1625.0000,4.3413,-5.6211,0.2812,-1.4369,0.7862,0.6263,0.3413,1.9774,-3.5635,0.5909,-9.3872,-2.8541,0.6877,2.5152,-0.8817,0.7154,1.9838,-2.2143,-0.8608
1628.9062,4.0324,-5.6415,0.2201,-0.4738,3.0428,0.8848,-0.3910,3.0783,-3.4604,-0.0421,-8.1274,-3.2592,0.6339,4.0097,-1.7773,-2.3698,1.7337,-1.3346,-0.3012
1632.8125,6.4537,-3.3112,1.4461,1.1779,4.7151,2.4728,-0.9488,3.8254,-1.1393,2.9942,-3.9669,-2.3809,0.5781,4.4132,-0.9128,-6.0887,0.8316,0.6927,0.7319
1636.7188,9.9950,0.4282,3.2751,2.8656,5.4587,3.9064,-1.6119,3.8930,2.3184,8.5878,1.4831,-0.7971,0.4613,3.8876,1.2068,-9.3448,-0.2941,2.7068,1.9572
1640.6250,12.5852,4.0382,4.7089,3.8744,5.2293,4.0442,-2.6658,3.1621,5.4152,14.4224,6.2580,1.0064,0.3060,2.9607,3.5934,-10.6281,-1.1903,3.8810,2.9041
1644.5312,12.9763,6.0824,4.9413,3.7148,4.1639,2.7094,-4.1708,1.6965,6.8962,18.0209,8.7540,2.5831,0.0939,2.0798,5.3152,-8.8908,-1.6871,3.9726,3.0793
1648.4375,11.3009,5.8637,3.7678,2.3737,2.5039,0.6516,-5.8224,-0.2585,6.2488,17.8748,8.2016,3.4072,-0.3254,1.2836,5.8716,-4.3188,-1.9798,3.1660,2.2743
1652.3438,8.7115,3.7036,1.7021,0.4081,0.6135,-1.0011,-7.0037,-2.2287,3.8644,14.1365,4.8622,3.0178,-1.1285,0.2800,5.3035,1.5775,-2.3948,1.8138,0.8093
1656.2500,6.5528,0.7581,-0.2453,-1.2144,-0.9918,-1.3845,-7.0358,-3.5194,0.8368,8.5516,-0.0348,1.4244,-2.2469,-1.1331,4.0906,6.6756,-3.0166,0.3435,-0.5085
1660.1562,5.6874,-1.5300,-1.0229,-1.5203,-1.7447,-0.2743,-5.5231,-3.4111,-1.5067,3.6544,-4.6487,-0.6138,-3.1873,-2.6930,2.9278,9.3217,-3.4965,-0.6953,-0.7717
1664.0625,6.2844,-2.0947,-0.0276,-0.0339,-1.2878,1.9034,-2.6280,-1.5429,-2.1701,1.5741,-7.1884,-1.8572,-3.2113,-3.7340,2.4492,9.0976,-3.2506,-0.6974,0.4834
1667.9688,7.9550,-0.7324,2.5824,2.8805,0.2426,4.3099,0.8832,1.7230,-0.9332,3.0120,-6.7065,-1.3890,-1.8651,-3.7096,2.9703,6.8405,-1.9381,0.6666,2.9160
1671.8750,9.9676,1.8097,5.9029,6.0708,2.1460,6.0176,3.8916,5.2572,1.5298,6.9085,-3.6373,0.6066,0.5066,-2.7650,4.3515,3.9995,0.1506,3.0372,5.4691
1675.7812,11.4377,4.1978,8.6445,8.0890,3.4369,6.3313,5.3922,7.5963,3.9593,11.0200,0.3230,2.7833,2.7336,-1.8280,6.0774,1.8187,2.1453,5.2884,6.8999
1679.6875,11.5928,5.1685,9.6964,7.9087,3.3667,5.0588,4.9642,7.6851,5.1427,13.1469,3.0749,3.4948,3.4464,-2.0316,7.5329,0.8410,3.1138,6.0388,6.4532
1683.5938,10.1796,4.1566,8.6309,5.4763,1.8768,2.6506,2.9891,5.4917,4.5605,12.3582,3.3009,2.0240,2.0048,-3.8368,8.3159,0.9049,2.6936,4.5262,4.2737
1687.5000,7.8253,1.5678,5.8931,1.7684,-0.3287,0.0849,0.4725,2.0759,2.6757,9.5017,1.2588,-0.7719,-0.9370,-6.5350,8.3811,1.4567,1.3630,1.2329,1.3110
1691.4062,5.9853,-1.4505,2.5746,-1.6951,-2.1595,-1.5404,-1.4588,-0.9788,0.6719,6.6737,-1.3627,-2.9727,-3.7052,-8.5763,7.9360,1.8900,0.1281,-2.2678,-1.2020
1695.3125,6.2801,-3.6041,-0.1038,-3.6013,-2.7321,-1.5509,-2.1138,-2.4310,-0.2215,5.9604,-2.4881,-2.9475,-4.6003,-8.5512,7.2161,1.7665,-0.1563,-4.2275,-2.3601
1699.2188,9.5007,-4.0667,-1.3138,-3.4202,-1.7998,-0.0508,-1.5294,-1.9973,0.5942,8.2344,-0.9440,-0.5260,-2.9395,-6.1291,6.3674,0.9557,0.6686,-3.7800,-1.9248
1703.1250,14.9408,-2.7721,-0.8742,-1.5006,0.2332,2.1751,-0.3374,-0.3457,2.8252,12.7607,2.8431,2.9266,0.5803,-2.2669,5.5457,-0.2517,2.0431,-1.3831,-0.2492
1707.0312,20.6155,-0.2669,0.8456,1.2945,2.6634,4.1861,0.6871,1.4698,5.5732,17.8146,7.1788,5.5930,4.4256,1.4497,5.0987,-1.1317,3.1610,1.6555,2.0656
1710.9375,24.3343,2.7092,3.2357,4.1115,4.9109,5.4840,1.0881,2.6911,7.9307,21.8178,10.1983,6.5689,7.2313,3.8180,5.5576,-0.7797,3.5307,4.1608,4.4971
1714.8438,24.9417,5.6001,5.7356,6.4391,6.7175,6.2488,0.9144,3.1832,9.4502,24.1613,10.9615,6.4091,8.5163,4.6344,7.3047,1.3497,3.1844,5.8030,6.7095
1718.7500,22.8678,8.1421,7.9497,8.1093,8.0453,7.0358,0.5494,3.2483,10.1946,25.1700,9.8356,6.4368,8.6462,4.5264,10.1119,4.8912,2.4294,7.0265,8.4680
1722.6562,19.6283,10.2268,9.6152,9.1032,8.8563,8.1870,0.3651,3.1807,10.4229,25.3591,8.0024,7.4362,8.2171,4.2566,12.9679,8.4566,1.4371,8.3607,9.5429
1726.5625,16.7026,11.7254,10.5630,9.4132,9.0251,9.4549,0.4819,2.9810,10.2481,24.6930,6.5447,8.8690,7.4730,4.1362,14.4833,10.2261,0.0899,9.7820,9.7635
1730.4688,14.6762,12.4767,10.7691,9.0994,8.4755,10.1748,0.7905,2.4652,9.5839,22.5407,5.7964,9.3107,6.2629,4.0098,13.7200,9.0031,-1.7567,10.7106,9.1926
1734.3750,13.2685,12.4485,10.4439,8.4390,7.3919,9.8710,1.1636,1.6236,8.4086,18.4123,5.3623,7.7536,4.5029,3.7162,10.8773,5.0594,-3.8559,10.6237,8.2340
1738.2812,12.0942,11.8881,10.0112,7.9425,6.2557,8.7882,1.6275,0.8543,7.0611,12.8564,4.6718,4.6592,2.6264,3.4979,7.2653,0.1154,-5.4427,9.6909,7.4961
1742.1875,11.3762,11.2610,9.8932,8.1107,5.5949,7.8608,2.3204,0.7948,6.2239,7.6658,3.5636,1.8156,1.5139,3.9091,4.4799,-3.6413,-5.6199,8.7982,7.4333
1746.0938,11.8832,10.9573,10.1984,9.0607,5.6022,8.0645,3.2764,1.8372,6.5089,5.0246,2.4488,1.0422,1.8754,5.2669,3.3202,-4.8870,-4.0197,8.8627,8.0013
1750.0000,14.0710,10.9704,10.5558,10.3199,5.9292,9.6120,4.2468,3.7097,7.9237,6.0728,1.9818,2.7600,3.5955,7.1604,3.2494,-3.9175,-1.2056,9.9963,8.6133
1753.9062,17.1834,10.8235,10.2796,11.0128,5.8648,11.6289,4.7602,5.4996,9.6596,9.9174,2.5417,5.5897,5.6415,8.5300,2.8403,-2.2855,1.5726,11.2549,8.4830
1757.8125,19.2158,9.8513,8.8135,10.3719,4.8124,12.6150,4.4192,6.1602,10.4457,13.9024,3.9250,7.3239,6.6904,8.3452,0.9040,-1.5922,3.1558,11.2545,7.1521
1761.7188,18.0066,7.6672,6.1611,8.2349,2.7282,11.4043,3.2128,5.1601,9.2902,15.0945,5.4312,6.5119,6.0164,6.3619,-2.5465,-2.3453,3.2201,9.2025,4.8272
1765.6250,12.7704,4.4834,2.9725,5.1619,0.1888,7.9451,1.5814,2.8103,6.1137,12.0480,6.2211,3.4165,3.9380,3.3250,-6.2477,-3.7369,2.4167,5.5252,2.2658
1769.5312,4.9149,1.0394,0.1842,2.0745,-1.9758,3.3437,0.1535,0.0382,1.8289,5.6734,5.6776,-0.3613,1.4727,0.4214,-8.6003,-4.4745,1.7924,1.5795,0.2728
1773.4375,-2.5880,-1.8202,-1.5579,-0.3251,-3.2193,-0.8435,-0.6669,-2.2092,-2.2009,-1.3712,3.5856,-3.2091,-0.4991,-1.5806,-8.8460,-3.9663,1.9442,-1.3215,-0.8374
1777.3438,-6.9564,-3.6228,-2.2864,-1.9320,-3.5962,-3.5434,-0.9500,-3.4963,-4.9515,-6.3360,0.1333,-4.6590,-1.8558,-2.7964,-7.5932,-2.8824,2.5779,-2.7882,-1.4159
1781.2500,-7.2916,-4.4707,-2.6296,-3.1479,-3.6399,-4.6730,-1.1398,-4.0057,-6.2454,-7.9625,-4.1550,-5.4657,-3.1336,-3.9152,-6.2903,-2.6235,2.8140,-3.4577,-2.1570
1785.1562,-5.0207,-4.8532,-3.3194,-4.4223,-3.9168,-4.9279,-1.6855,-4.2140,-6.6680,-6.9779,-8.4927,-6.6469,-4.8237,-5.3982,-6.0748,-4.1140,1.9857,-4.2876,-3.5110
1789.0625,-2.7779,-5.2365,-4.6503,-5.8036,-4.6060,-5.1051,-2.6952,-4.4441,-7.0103,-5.2884,-11.9544,-8.3883,-6.7118,-6.8992,-6.9102,-6.9020,0.2731,-5.6678,-5.2685
1792.9688,-2.5285,-5.7415,-6.2773,-6.8546,-5.4057,-5.5182,-3.8747,-4.6506,-7.6665,-4.5387,-13.7156,-9.7802,-7.8687,-7.4395,-7.6782,-9.3236,-1.3457,-7.0876,-6.6330
1796.8750,-4.2552,-6.1190,-7.4764,-6.9880,-5.8024,-5.9062,-4.7752,-4.5596,-8.3952,-5.0592,-13.3654,-9.5902,-7.3428,-6.2227,-7.1296,-9.6572,-1.7980,-7.5952,-6.7442
1800.7812,-6.0872,-5.9949,-7.6480,-5.9442,-5.4621,-5.8045,-5.1303,-3.9852,-8.5526,-5.8437,-11.1224,-7.3760,-4.9875,-3.4148,-4.9248,-7.4021,-0.7274,-6.6160,-5.2844
1804.6875,-5.7130,-5.1680,-6.6881,-4.0295,-4.4416,-4.9982,-5.0046,-3.0253,-7.5776,-5.4339,-7.7742,-3.9603,-1.7291,-0.2144,-1.9489,-3.7020,1.2134,-4.4267,-2.7390
1808.5938,-2.0480,-3.7452,-4.9833,-1.9376,-3.0909,-3.6785,-4.6506,-1.9848,-5.3753,-3.0101,-4.3235,-0.8595,0.9747,1.8847,0.3195,-0.5816,2.7974,-1.9165,-0.1286
1812.5000,3.9717,-2.0512,-3.0877,-0.3042,-1.7731,-2.2360,-4.2206,-1.1280,-2.3783,1.0429,-1.5333,0.8453,2.0697,2.0743,0.8706,0.4371,3.0342,0.1097,1.6007
1816.4062,9.9273,-0.4193,-1.3623,0.6616,-0.6506,-0.9356,-3.5988,-0.4980,0.6937,5.3723,0.3530,1.2494,1.5151,0.6953,-0.1556,-0.6783,1.7500,1.4698,2.1133
1820.3125,13.3473,0.9786,0.1621,1.2088,0.3095,0.2232,-2.5012,0.0435,3.1837,8.4301,1.5639,1.3903,0.1337,-1.1494,-1.6337,-2.5723,-0.4482,2.5590,1.8016
1824.2188,13.0873,2.1740,1.6513,1.7604,1.1601,1.3774,-0.7596,0.6210,4.7604,9.2626,2.5063,2.2900,-1.1095,-2.4794,-2.2584,-3.5524,-2.7109,3.8353,1.4396
1828.1250,9.8723,3.3375,3.2324,2.5688,1.8219,2.5835,1.4562,1.1993,5.5087,7.9127,3.4689,4.1096,-1.7787,-3.0920,-1.3471,-2.7747,-4.5188,5.3497,1.6359
1832.0312,5.8128,4.6729,4.8640,3.5739,2.1019,3.7535,3.6708,1.6314,5.8559,5.3373,4.5146,6.1041,-2.0829,-3.5022,0.9012,-0.7218,-5.8697,6.7424,2.4561
1835.9375,3.2794,6.3091,6.3837,4.5306,1.8633,4.7916,5.3663,1.8462,6.3763,2.9779,5.5696,7.3460,-2.4421,-4.2981,3.7315,1.2823,-7.0242,7.6583,3.4371
1839.8438,3.7544,8.1928,7.6293,5.2442,1.1860,5.7463,6.2663,1.9777,7.5164,2.1804,6.5474,7.5327,-2.9701,-5.5149,6.3485,2.0547,-8.1094,8.1370,3.9397
1843.7500,7.1576,10.0037,8.4878,5.6932,0.3680,6.7449,6.4237,2.2800,9.3143,3.6306,7.3610,7.1736,-3.3516,-6.5581,8.1992,1.2812,-8.9343,8.5699,3.5809
1847.6562,11.8629,11.1652,8.8343,5.9509,-0.2443,7.6979,6.0679,2.8746,11.2462,6.9637,7.8273,7.0366,-3.1791,-6.7005,8.9323,-0.4653,-9.1307,9.2491,2.4709
1851.5625,15.3710,11.0254,8.4673,6.0154,-0.4645,8.0387,5.3689,3.5483,12.3482,10.7409,7.6184,7.3927,-2.3823,-5.6837,8.2831,-2.2806,-8.4385,9.9494,1.1373
1855.4688,15.4061,9.1852,7.1700,5.7380,-0.3585,6.8342,4.3279,3.8085,11.6444,12.9312,6.3944,7.7492,-1.3158,-3.9027,6.1580,-3.5351,-6.8697,9.9835,0.2179
1859.3750,11.0332,5.8065,4.9046,4.9324,-0.1676,3.3424,2.8776,3.1973,8.7073,11.8177,4.0783,7.2944,-0.4261,-2.0536,2.8994,-4.0816,-4.6474,8.7438,0.1184
1863.2812,3.2879,1.6668,1.9859,3.5728,-0.1457,-2.2992,1.0790,1.6409,4.0201,6.9401,1.0588,5.6378,0.1661,-0.6010,-0.5756,-4.0311,-2.0454,6.2740,0.8138
1867.1875,-5.0984,-2.1519,-0.9528,1.8894,-0.4395,-8.7781,-0.7810,-0.4413,-1.1342,-0.4732,-1.8926,3.1770,0.7380,0.4519,-3.0495,-3.4224,0.6791,3.3411,1.8707
1871.0938,-10.9068,-4.8087,-3.2415,0.2538,-1.0750,-14.0368,-2.2993,-2.3693,-5.2634,-7.9436,-4.0001,0.7786,1.5923,1.3233,-3.6283,-2.1380,3.2115,0.8918,2.6493
1875.0000,-12.0540,-6.1459,-4.5332,-1.0676,-2.0099,-16.2696,-3.1919,-3.6199,-7.4146,-12.9130,-4.9195,-0.9247,2.5886,2.0243,-2.2931,-0.1269,5.1072,-0.6727,2.5833
1878.9062,-8.7457,-6.7187,-4.9768,-2.0938,-3.1672,-14.9040,-3.4625,-4.1275,-7.6243,-14.0246,-4.9139,-1.9862,3.0601,2.1912,0.0726,2.3114,5.8928,-1.7791,1.4191
1882.8125,-3.4198,-7.3644,-5.0636,-3.0869,-4.4146,-10.9396,-3.3617,-4.2615,-6.7872,-11.7589,-4.6296,-2.9624,2.2767,1.3645,2.2548,4.4935,5.3416,-3.2518,-0.6741
1886.7188,0.5863,-8.5930,-5.2513,-4.3119,-5.5358,-6.4140,-3.1740,-4.5161,-6.0384,-8.0451,-4.6273,-4.2881,0.1092,-0.5355,3.4777,5.6557,3.7073,-5.5085,-3.1673
1890.6250,0.9112,-10.2194,-5.6489,-5.7838,-6.2678,-3.3157,-3.0052,-5.1522,-6.0621,-5.0967,-5.0159,-5.7888,-2.6839,-2.9929,3.7988,5.3935,1.6726,-8.0600,-5.3849
1894.5312,-2.5323,-11.4930,-5.9908,-7.1981,-6.4135,-2.5954,-2.7385,-6.0429,-6.7658,-4.2008,-5.4493,-6.7707,-4.8502,-5.1711,3.8539,3.9188,-0.0159,-9.7565,-6.7790
1898.4375,-7.6121,-11.6176,-5.8993,-8.0964,-5.9537,-3.8236,-2.1785,-6.7988,-7.4783,-5.1653,-5.4595,-6.5892,-5.4574,-6.4660,4.2008,1.9658,-0.9762,-9.6048,-7.1381
1902.3438,-11.2995,-10.2748,-5.2029,-8.1367,-5.0609,-5.6088,-1.2509,-7.0406,-7.4632,-6.6638,-4.8361,-5.1742,-4.4937,-6.8606,4.8270,0.4270,-1.3420,-7.4988,-6.6237
1906.2500,-11.3859,-7.7778,-4.0461,-7.2722,-3.9849,-6.4464,-0.0907,-6.6109,-6.3560,-7.1359,-3.7403,-3.0416,-2.7768,-6.7807,5.2205,-0.0411,-1.5047,-4.2804,-5.6186
1910.1562,-7.5385,-4.7809,-2.7142,-5.7300,-2.8951,-5.4900,1.0430,-5.5995,-4.2527,-5.6303,-2.4722,-0.8041,-1.2546,-6.5964,4.9152,0.7572,-1.6599,-1.0983,-4.4797
1914.0625,-1.1776,-1.8123,-1.3475,-3.8413,-1.8032,-2.8753,1.9372,-4.2225,-1.4868,-2.1410,-1.1123,1.3470,-0.2794,-6.2383,4.0107,2.5466,-1.5557,1.3914,-3.3483
1917.9688,5.5319,0.9796,0.1866,-1.8725,-0.6277,0.4639,2.5376,-2.6871,1.6374,2.5799,0.6276,3.6942,0.5543,-5.2885,3.1965,4.7144,-0.6841,3.3378,-2.1333
1921.8750,10.7838,3.6793,2.1298,0.0239,0.6625,3.3056,2.9258,-1.1424,4.9022,7.4312,3.1689,6.5243,1.9050,-3.4673,3.2357,6.5145,1.2175,5.3098,-0.6687
1925.7812,13.6679,6.2185,4.5032,1.7454,1.9561,4.7125,3.2092,0.2886,8.0108,11.2846,6.5929,9.5767,3.9715,-1.0540,4.3328,7.3131,3.7751,7.5952,1.0763
1929.6875,14.0583,8.1325,6.8975,3.1624,3.0469,4.4527,3.4353,1.4749,10.4240,13.1569,10.2972,11.9512,6.1971,1.1799,5.9126,6.8468,6.0539,9.8107,2.8894
1933.5938,12.2653,8.7325,8.5957,4.1244,3.7820,3.1352,3.6005,2.3013,11.4524,12.3901,13.1005,12.6333,7.6439,2.5182,7.0064,5.3878,7.0934,11.1491,4.3954
1937.5000,8.8971,7.6222,8.9797,4.5508,4.1804,1.9960,3.7163,2.7318,10.6421,8.9586,13.8134,11.2436,7.7157,2.8683,6.9519,3.6730,6.5178,11.0320,5.2719
1941.4062,4.9799,5.1680,7.9392,4.5153,4.4128,2.3625,3.8419,2.8422,8.2018,3.7774,11.9537,8.4044,6.6186,2.8401,5.8700,2.5406,4.7633,9.5927,5.4498
1945.3125,1.9712,2.5046,5.9766,4.2317,4.6499,4.9631,4.0283,2.7715,5.1076,-1.3304,8.1490,5.4039,5.1803,3.2251,4.5686,2.4334,2.7606,7.5811,5.1499
1949.2188,1.2932,0.9668,3.9147,3.9242,4.9006,9.3971,4.2226,2.6193,2.6949,-4.2546,3.9304,3.3992,4.1935,4.2883,3.9658,3.0898,1.3213,5.7846,4.7214
1953.1250,3.4531,1.2648,2.3964,3.6704,4.9714,14.0944,4.2336,2.3677,1.9098,-3.6581,0.9812,2.7454,3.8287,5.4690,4.4644,3.6894,0.6824,4.4585,4.3839
1957.0312,7.3375,2.9506,1.5180,3.3314,4.5796,16.9070,3.8227,1.8905,2.6767,0.1024,0.2448,2.9094,3.5751,5.7611,5.6957,3.4204,0.5038,3.2247,4.0513
1960.9375,10.3770,4.5806,0.8387,2.6335,3.5362,16.1268,2.8703,1.0451,3.8327,4.8722,1.3979,2.9500,2.7125,4.4842,6.7513,2.1037,0.2474,1.4829,3.3680
1964.8438,9.7871,4.5397,-0.2483,1.3612,1.8713,11.4250,1.4943,-0.2143,3.7551,7.6848,3.0146,2.1515,0.8967,1.8345,6.7000,0.4086,-0.3988,-1.0356,1.9565
1968.7500,4.3038,2.0529,-2.0388,-0.4559,-0.1623,4.1753,0.0180,-1.7736,1.3651,6.4241,3.3704,0.3725,-1.5934,-1.2074,5.0710,-0.5454,-1.3507,-4.0177,-0.2707
1972.6562,-4.6666,-2.2396,-4.2475,-2.4765,-2.1801,-3.0839,-1.1990,-3.3738,-3.0831,1.2137,1.4655,-2.0102,-4.0677,-3.5079,2.0956,0.0384,-2.2543,-6.7684,-2.9339
1976.5625,-13.3606,-6.5227,-6.1142,-4.1558,-3.7750,-7.8190,-1.9545,-4.6888,-7.9420,-5.3793,-2.3058,-4.3646,-5.8406,-4.4311,-1.3336,2.0325,-2.7132,-8.6350,-5.2796
1980.4688,-17.4561,-8.7594,-6.8197,-4.9864,-4.6085,-8.7072,-2.2936,-5.4370,-10.9475,-9.6056,-6.2587,-6.0233,-6.5027,-4.0322,-3.9434,4.4066,-2.4201,-9.3045,-6.5234
1984.3750,-14.4301,-7.8230,-5.9692,-4.7609,-4.4972,-6.2468,-2.4505,-5.4948,-10.4488,-8.6428,-8.3027,-6.4055,-5.9290,-2.7418,-4.5503,5.8848,-1.1700,-8.8181,-6.2680
1988.2812,-5.1144,-4.1638,-3.8717,-3.7207,-3.5083,-2.4542,-2.7021,-4.9746,-6.4111,-2.3553,-7.1542,-5.1702,-4.1882,-0.9163,-2.6237,5.7841,1.1100,-7.4284,-4.7581
1992.1875,6.5071,0.3775,-1.4603,-2.4901,-2.0157,0.1900,-3.2298,-4.2152,-0.5948,6.3868,-3.1804,-2.4696,-1.5606,1.3241,1.2808,4.4446,4.2236,-5.5177,-2.8079
1996.0938,15.2332,3.5188,0.1187,-1.7942,-0.6210,0.0076,-4.0510,-3.6457,4.2490,13.1294,1.6728,0.8651,1.3470,3.8844,5.5338,2.9556,7.5645,-3.6306,-1.4109
2000.0000,17.2920,3.7341,0.0622,-2.0758,0.1070,-3.0233,-5.0113,-3.5478,5.7782,14.2830,4.9056,3.5029,3.6288,6.4101,8.0749,2.3900,10.1967,-2.4520,-1.2253
2003.9062,12.2860,1.0509,-1.6563,-3.2125,-0.0305,-7.2311,-5.8079,-3.8410,3.3091,9.2342,4.8882,4.2555,4.4452,8.2977,7.4883,3.0938,11.2622,-2.5557,-2.2149
2007.8125,3.4023,-2.9758,-4.1980,-4.5205,-0.6732,-10.0412,-6.0429,-4.0574,-1.7805,0.8792,1.8289,2.8581,3.5878,9.0592,3.9167,4.5128,10.5167,-3.9905,-3.6538
2011.7188,-4.2063,-6.0888,-6.1957,-5.0889,-1.0527,-9.2236,-5.3352,-3.5855,-6.7446,-5.8046,-2.3431,0.3034,1.7969,8.7147,-0.8406,5.6273,8.5815,-6.0352,-4.5108
2015.6250,-6.0222,-6.4962,-6.3888,-4.2902,-0.4642,-4.0187,-3.4963,-2.0841,-8.9001,-6.4291,-5.1553,-1.6526,0.4419,7.8094,-4.2608,5.6479,6.6218,-7.4411,-4.0107
2019.5312,-0.4190,-3.7562,-4.2614,-2.1727,1.2232,4.3854,-0.7008,0.2015,-7.0228,0.3445,-5.1219,-1.6013,0.6372,6.9727,-4.5728,4.4816,5.5788,-7.1341,-2.0691
2023.4375,10.5333,1.0676,-0.3549,0.5148,3.3804,13.2688,2.4732,2.4714,-1.9494,11.9272,-2.6594,0.5355,2.3813,6.3751,-1.8362,2.6914,5.4792,-4.9387,0.6391
2027.3438,22.0710,6.0097,3.9282,2.7037,4.9387,19.5223,5.2122,3.7927,3.9228,23.0160,0.2026,3.3844,4.4063,5.5739,2.1201,1.0476,5.3679,-1.7777,3.0085
2031.2500,29.0070,9.1850,6.9476,3.5657,5.0423,20.9933,6.7943,3.6637,7.9197,28.2548,1.1297,4.9995,4.9560,3.9269,4.8829,0.0195,3.9809,0.8527,4.0401
2035.1562,28.1315,9.6048,7.5590,2.9095,3.6007,17.3985,6.8982,2.3393,8.4212,24.9043,-1.0408,4.1314,2.9912,1.2425,4.9536,-0.4672,0.7084,1.7904,3.2923
2039.0625,19.5945,7.4390,5.5827,1.1816,1.3548,10.3670,5.7077,0.6735,5.5234,14.1093,-5.6019,0.9776,-1.0509,-1.9025,2.5341,-0.9103,-3.8586,0.8575,1.0234
2042.9688,6.6737,3.7014,1.7940,-0.8808,-0.5933,2.6209,3.7568,-0.4229,0.7570,0.1692,-10.4658,-3.0897,-5.5204,-4.4883,-0.8842,-1.8910,-8.2244,-1.1868,-2.0046
2046.8750,-5.8445,-0.3474,-2.5039,-2.6679,-1.4502,-3.2583,1.6378,-0.5313,-3.8557,-11.6714,-13.4589,-6.5338,-8.6479,-5.7754,-3.7243,-3.7421,-10.9233,-3.2812,-4.9030
2050.7812,-13.7863,-3.6964,-6.0458,-3.8883,-1.1308,-5.8425,-0.2226,0.1148,-6.7934,-17.6341,-13.5374,-8.5838,-9.6403,-5.8145,-5.3589,-6.3821,-11.4129,-4.7414,-6.9886
2054.6875,-15.1674,-5.7666,-8.0102,-4.4488,-0.1283,-5.1899,-1.5938,0.9553,-7.5466,-16.7673,-11.1718,-9.4078,-8.9726,-5.2964,-6.2312,-9.3358,-10.2843,-5.4687,-7.9207
2058.5938,-10.5818,-6.3334,-8.1272,-4.2042,0.9965,-2.4560,-2.3254,1.6429,-6.4967,-10.7266,-7.7673,-9.5296,-7.7288,-4.8658,-7.0901,-11.8848,-8.6830,-5.6293,-7.6427
2062.5000,-2.4400,-5.3966,-6.5569,-2.8602,2.0818,0.8673,-2.2549,2.3580,-4.4169,-2.3885,-4.6470,-9.1086,-6.5992,-4.5041,-8.0837,-13.2844,-7.4288,-5.2079,-6.2480
2066.4062,6.3402,-3.1594,-3.7117,-0.1701,3.4230,3.6169,-1.2633,3.6426,-1.9988,5.7237,-2.3428,-7.7614,-5.3822,-3.5510,-8.5179,-12.9998,-6.5177,-3.9166,-3.8987
2070.3125,13.4622,-0.0935,-0.1446,3.7148,5.3969,5.2413,0.5570,5.8823,0.3321,12.3187,-0.6186,-5.0606,-3.3683,-1.3855,-7.4762,-10.9110,-5.3402,-1.5601,-0.8453
2074.2188,17.7703,3.0651,3.5036,8.0527,7.9761,5.7310,2.7966,8.8551,2.3394,17.2507,0.9402,-1.2181,-0.2242,1.8055,-4.7402,-7.4066,-3.3696,1.5095,2.5103
2078.1250,19.1913,5.5117,6.5844,11.7072,10.5392,5.4174,4.8397,11.7199,3.8404,20.8446,2.3256,2.7205,3.4275,4.8650,-1.1853,-3.2974,-0.7245,4.3437,5.6071
2082.0312,18.4132,6.7078,8.5995,13.6727,12.1448,4.8291,6.1728,13.4847,4.6940,23.2750,2.9888,5.4094,6.2632,6.3255,1.7290,0.4499,1.8384,5.9075,7.8356
2085.9375,16.5677,6.6487,9.3796,13.6027,12.0783,4.6052,6.6850,13.6182,4.9098,24.4123,2.2724,6.0656,7.1658,5.4181,2.9835,3.0557,3.4532,5.7893,8.7414
2089.8438,14.9506,5.8604,9.1582,11.9819,10.2802,5.3461,6.7293,12.3651,4.7340,24.0855,0.0253,4.9664,6.0484,2.6473,2.7058,4.1877,3.7361,4.5312,8.2252
2093.7500,14.6617,5.0991,8.4600,9.8202,7.3694,7.3349,6.8700,10.5469,4.5794,22.3948,-3.0839,3.1938,3.9289,-0.5305,1.9807,4.0171,2.9734,3.2790,6.6267
2097.6562,16.1352,4.9344,7.8446,8.0758,4.2743,10.2548,7.4806,9.0153,4.8106,19.7567,-5.7948,1.8609,2.2035,-2.6797,1.9232,3.0558,1.8064,3.0053,4.6335
2101.5625,18.7793,5.4761,7.6508,7.1858,1.7477,13.1448,8.4718,8.1574,5.5318,16.6697,-6.8680,1.4502,1.7039,-3.2713,2.7733,1.8664,0.7263,3.9048,3.0334
2105.4688,21.0655,6.3969,7.8847,6.9787,0.0736,14.7483,9.3358,7.7787,6.5378,13.4630,-5.6879,1.7357,2.2523,-2.8447,3.7358,0.7881,-0.2013,5.4076,2.4080
2109.3750,21.2196,7.1900,8.2931,6.9605,-0.9087,14.1369,9.4607,7.3834,7.4590,10.2891,-2.5142,2.2256,2.9879,-2.4128,3.6699,-0.2068,-1.2054,6.7364,2.8977
2113.2812,18.2389,7.4657,8.5446,6.7180,-1.5640,11.2527,8.4881,6.5939,7.9877,7.3614,1.6953,2.6433,3.1185,-2.6485,2.0447,-1.4640,-2.4534,7.5029,4.1507
2117.1875,12.6229,7.1050,8.3970,6.1559,-2.2070,7.0075,6.4836,5.3967,8.0233,5.1723,5.7147,3.0177,2.4701,-3.4893,-0.6089,-3.4143,-3.8104,7.8602,5.4918
2121.0938,6.2692,6.2293,7.7717,5.4547,-2.9706,2.8443,3.8560,4.0855,7.6562,4.3968,8.4748,3.3984,1.4652,-4.3718,-3.0779,-6.2338,-4.9001,8.1585,6.2450
2125.0000,1.4886,5.0740,6.7368,4.8523,-3.8023,0.0140,1.1392,3.0138,7.0390,5.4496,9.3175,3.5854,0.6702,-4.7760,-4.3253,-9.5499,-5.3657,8.4859,6.0537
2128.9062,-0.2956,3.8773,5.4444,4.4466,-4.5217,-0.9957,-1.1936,2.3682,6.2664,7.9968,8.0654,3.2247,0.3695,-4.5735,-4.1264,-12.3858,-5.0749,8.5418,5.0310
2132.8125,0.6740,2.8226,4.0611,4.1423,-4.8966,-0.5637,-2.8093,2.0991,5.3457,10.8486,4.9821,2.2048,0.4961,-3.9498,-3.0252,-13.4730,-4.1154,7.9336,3.6526
2136.7188,2.7575,2.0053,2.7044,3.7273,-4.7424,0.4251,-3.5340,1.9880,4.2516,12.4353,0.6926,0.9271,0.8606,-3.1051,-1.7500,-11.8737,-2.6535,6.5772,2.4574
2140.6250,4.0598,1.3968,1.3978,2.9891,-4.0414,1.1196,-3.3932,1.7521,2.9968,11.6488,-3.9122,0.0922,1.3601,-2.1085,-0.6484,-7.6161,-0.8544,4.7936,1.7384
2144.5312,3.6631,0.8349,0.0782,1.8036,-3.0185,1.0842,-2.6657,1.1309,1.6642,8.5227,-7.8049,0.1089,1.9402,-1.0487,0.3836,-1.9356,1.0464,3.0136,1.4223
2148.4375,2.1095,0.1001,-1.3139,0.2007,-2.0763,0.3599,-1.8526,-0.0262,0.3983,4.2772,-10.0022,0.6559,2.4067,-0.2516,1.4939,3.1410,2.6358,1.4084,1.2087
2152.3438,0.8269,-0.9243,-2.6884,-1.5817,-1.5697,-0.7183,-1.4775,-1.6424,-0.6210,0.6565,-9.8002,0.8702,2.3815,-0.2157,2.4399,5.7437,3.3818,-0.1526,0.8594
2156.2500,0.9431,-2.1093,-3.7099,-3.0914,-1.5407,-1.7532,-1.7749,-3.3250,-1.2117,-1.0484,-7.0331,0.1002,1.5563,-1.1991,2.5895,5.1325,2.9164,-1.7402,0.4161
2160.1562,2.3700,-3.0906,-3.8733,-3.7783,-1.6244,-2.4279,-2.4765,-4.4302,-1.2479,-0.6778,-2.2764,-1.4005,0.0550,-2.8028,1.4095,2.0896,1.3509,-2.9717,0.1750
2164.0625,3.8342,-3.4676,-2.7729,-3.2535,-1.2500,-2.5506,-2.8982,-4.3479,-0.7427,0.8350,3.1420,-2.5035,-1.4770,-4.0207,-0.9654,-1.5582,-0.6748,-3.0608,0.4316
2167.9688,3.8474,-3.0595,-0.4292,-1.5735,-0.0461,-2.0671,-2.3434,-2.8943,0.0985,2.1724,7.4542,-2.0512,-2.2484,-3.8795,-3.5894,-4.0235,-2.3314,-1.4118,1.1920
2171.8750,1.9321,-2.0067,2.5681,0.6605,1.8355,-1.0736,-0.5898,-0.5462,0.9392,2.5408,9.1002,0.1249,-1.9242,-2.2383,-5.1648,-4.5611,-3.1228,1.6920,2.0866
2175.7812,-0.7796,-0.6092,5.2596,2.5351,3.7427,0.2078,1.8796,1.7075,1.5093,2.1974,7.4989,2.8894,-0.9448,-0.0774,-4.7933,-3.7429,-3.1955,4.9627,2.5802
2179.6875,-2.0365,0.9771,6.7956,3.3099,4.9178,1.5328,4.0874,2.8765,1.8400,2.2787,3.5298,4.5515,-0.2286,1.0684,-2.4828,-2.8489,-3.1718,6.8123,2.3415
2183.5938,0.2193,2.9070,6.9087,2.8625,4.9972,2.7802,5.1002,2.5344,2.3453,4.0619,-0.6644,4.1538,-0.4397,0.1845,0.9244,-2.8292,-3.6218,6.4546,1.5029
2187.5000,6.5381,5.4773,6.0585,1.7743,4.2465,4.0247,4.5441,1.0481,3.6227,8.1330,-2.6219,2.2793,-1.4126,-2.4496,4.3017,-3.5874,-4.5918,4.5526,0.6109
2191.4062,15.4692,8.7093,5.1352,0.9630,3.3491,5.4447,2.7644,-0.7038,6.0391,13.9676,-0.8441,0.6872,-2.2432,-5.4171,6.8421,-4.0843,-5.5685,2.8396,0.2899
2195.3125,24.1979,12.0344,4.9124,1.0966,2.9069,7.1047,0.5568,-1.9290,9.3684,20.1536,4.3080,1.0157,-2.0117,-7.1622,8.3280,-3.1668,-5.9044,2.9268,0.8581
2199.2188,29.9251,14.4197,5.6179,2.1932,3.0376,8.7830,-1.3125,-2.4036,12.7657,25.0871,10.6996,3.5475,-0.5561,-7.0611,8.9850,-0.5014,-5.3467,5.1786,2.1664
2203.1250,31.1811,14.9522,6.8975,3.6855,3.3709,10.0120,-2.4643,-2.4944,15.1547,27.7026,15.5221,6.9928,1.3603,-5.7374,9.1387,3.0637,-4.2366,8.5097,3.7586
2207.0312,28.3456,13.4914,8.1495,4.8812,3.4283,10.3358,-2.9478,-2.7376,15.8024,27.8167,16.7883,9.4244,2.6438,-4.4077,8.9612,5.9619,-3.2339,11.2350,5.2098
2210.9375,23.1575,10.8711,8.9448,5.4590,3.0584,9.6019,-3.0256,-3.3285,14.6953,25.9376,14.3188,9.5976,2.7350,-3.8345,8.4358,6.8616,-2.8278,12.2712,6.3723
2214.8438,17.6002,8.4132,9.2146,5.6248,2.5726,8.0521,-2.9234,-3.9338,12.4576,22.7477,9.6336,7.6344,2.0112,-3.7635,7.4669,5.4532,-3.0541,11.7432,7.3510
2218.7500,12.8774,7.0476,9.1104,5.8356,2.4767,6.1367,-2.7292,-3.9628,9.8885,18.6702,4.8873,4.6425,1.3882,-3.2867,5.9954,2.5614,-3.6306,10.5802,8.2577
2222.6562,9.0733,6.6812,8.7180,6.3416,3.0379,4.2103,-2.4491,-3.0606,7.4746,13.8403,1.6047,1.7328,1.4773,-1.7752,4.0566,-0.4420,-4.3268,9.5461,8.9756
2226.5625,5.6191,6.3192,7.9136,6.9330,4.0545,2.3809,-2.0959,-1.4176,5.2404,8.4837,0.0424,-0.6717,2.0450,0.4504,1.8059,-2.4950,-5.1773,8.5893,9.1507
2230.4688,2.1606,4.8887,6.4959,7.0916,5.0160,0.6482,-1.6964,0.3482,3.0071,3.3583,-0.5115,-2.7185,2.2570,2.3000,-0.4635,-3.4152,-6.3136,7.0634,8.4331
2234.3750,-0.8240,2.1536,4.4643,6.4131,5.5113,-0.8044,-1.2332,1.6220,0.7897,-0.1893,-0.8898,-4.4805,1.4931,2.7868,-2.3562,-3.8617,-7.5793,4.5589,6.7792
2238.2812,-2.1288,-0.9943,2.1678,4.9473,5.5339,-1.4771,-0.6258,2.1851,-1.0469,-0.7671,-1.3769,-5.5365,-0.0031,1.8386,-3.5219,-4.7773,-8.3502,1.5322,4.5654
2242.1875,-0.6194,-3.1234,0.1606,3.1865,5.4339,-0.7932,0.1833,2.2719,-2.0318,2.1596,-1.6982,-5.2640,-1.2473,0.3540,-3.8709,-6.6870,-7.8345,-0.8940,2.4086
2246.0938,3.8001,-3.3036,-1.1374,1.7263,5.5748,1.4021,1.1012,2.2920,-2.0226,7.6051,-1.5413,-3.5764,-1.3412,-0.5360,-3.6881,-9.2715,-5.6947,-1.8201,0.8194
2250.0000,9.7462,-1.8054,-1.6908,0.8867,6.0010,4.4797,1.8637,2.4832,-1.4276,13.2065,-1.0387,-1.3318,-0.2965,-0.3643,-3.4839,-11.4443,-2.4898,-1.3575,-0.0581
2253.9062,14.8292,0.0846,-1.7913,0.5830,6.4023,7.1715,2.1924,2.7832,-0.9719,16.2748,-0.7253,0.1193,0.8818,0.3660,-3.6123,-11.8909,0.4969,-0.5784,-0.4394
2257.8125,16.8369,0.9895,-1.7454,0.5086,6.3913,8.2426,2.0313,2.9792,-1.1563,15.2276,-1.0037,-0.0221,0.9663,0.6864,-3.9324,-9.8007,2.0047,-0.6200,-0.6573
2261.7188,14.9279,0.3922,-1.5880,0.4238,5.8302,7.2751,1.6455,2.9432,-1.8539,10.5248,-1.6395,-1.2695,-0.4996,-0.0015,-3.8297,-5.4243,1.5939,-1.7047,-0.8938
2265.6250,10.0788,-1.1175,-1.0974,0.2833,4.9056,4.9974,1.4447,2.7031,-2.4121,4.4561,-1.8286,-2.1661,-2.8317,-1.4937,-2.6720,-0.1365,-0.1153,-2.9524,-1.0996
2269.5312,4.4945,-2.4550,-0.1185,0.1117,3.8792,2.8650,1.6267,2.2884,-2.2244,-0.1670,-0.8830,-1.5105,-4.7863,-3.0979,-0.3914,4.1032,-1.9605,-3.1876,-1.1461
2273.4375,0.3557,-2.9813,1.0905,-0.2114,2.7458,2.1348,1.9265,1.5311,-1.3214,-1.6221,1.0003,0.4953,-5.6039,-4.3591,2.2902,5.6904,-3.1184,-2.0673,-1.0604
2277.3438,-1.2930,-2.9912,1.8350,-1.0047,1.1307,3.0570,1.7251,0.0686,-0.4714,-0.1644,2.5962,2.2086,-5.6201,-5.5063,4.2543,4.2413,-3.6657,-0.5277,-1.1234
2281.2500,-0.8405,-3.3554,1.3886,-2.5730,-1.4337,4.7509,0.5043,-2.3802,-0.6440,2.3737,2.3899,1.7811,-5.9125,-7.2030,4.7648,0.8599,-4.3934,-0.1017,-1.7290
2285.1562,0.4944,-4.6282,-0.4348,-4.8833,-5.0446,5.8511,-1.6664,-5.6685,-2.2127,3.9583,-0.2604,-1.2604,-7.2786,-9.8268,4.0437,-2.4308,-6.0426,-1.6221,-3.0936
2289.0625,1.6341,-6.3800,-2.9832,-7.4154,-9.1527,5.4615,-4.0016,-9.1116,-4.5183,3.7252,-4.4163,-5.3851,-9.4260,-12.9380,3.1504,-3.8259,-8.5806,-4.3889,-5.0324
2292.9688,2.2513,-7.3376,-5.0207,-9.3534,-12.7282,3.7493,-5.3858,-11.7611,-6.1730,2.3884,-7.9155,-7.9764,-11.0848,-15.4344,3.2036,-2.7672,-11.0880,-6.5327,-6.9693
2296.8750,2.6439,-6.2580,-5.4084,-10.0100,-14.7847,1.7873,-5.0492,-12.8995,-5.9270,1.4521,-8.6362,-7.1511,-10.9681,-16.2857,4.5272,-0.1841,-12.3286,-6.3314,-8.1847
2300.7812,3.1297,-2.8666,-3.7625,-9.1827,-14.8999,0.8013,-3.0676,-12.4040,-3.4755,1.8820,-5.8195,-3.0868,-8.7880,-15.2337,6.3984,2.2382,-11.5488,-3.4490,-8.1407
2304.6875,3.5900,1.8709,-0.6465,-7.1869,-13.3763,1.3804,-0.3311,-10.7186,0.3786,3.2962,-0.5303,2.1643,-5.4781,-12.8849,7.6181,3.2807,-8.9090,0.8762,-6.6926
2308.5938,3.6186,6.3518,2.8181,-4.5724,-10.9616,3.1895,2.0040,-8.4806,4.3071,4.3226,5.0454,6.2018,-2.4494,-10.1616,7.4615,3.0398,-5.2821,4.8041,-4.0898
2312.5000,3.1476,9.3431,5.6279,-1.7657,-8.3660,5.3183,3.1994,-6.1093,7.3246,3.8515,8.9419,7.9226,-0.5116,-7.6229,6.2485,2.7781,-1.6521,7.2069,-0.8100
2316.4062,2.9237,10.6353,7.3977,1.0828,-5.9305,6.9440,3.3020,-3.6685,9.2903,2.1775,10.4504,8.0307,0.6474,-5.2389,5.0768,3.8737,1.3949,8.2777,2.6452
2320.3125,4.2471,10.9001,8.3918,3.9695,-3.6380,7.8050,2.9879,-1.0632,10.7100,1.0555,10.2034,8.1239,2.0263,-2.7502,4.9423,6.6436,3.7543,9.0314,5.8880
2324.2188,7.9807,10.9521,9.1512,6.7917,-1.3752,8.1884,3.0493,1.6474,12.0682,2.5014,9.4021,9.2269,4.3357,-0.1960,5.9674,9.9434,5.5281,10.2297,8.6860
2328.1250,13.5276,11.0598,10.0429,9.2364,0.8148,8.5232,3.9075,4.1182,13.2784,7.1560,8.8809,11.0094,7.3346,1.9409,7.3562,11.8830,6.7283,11.7009,10.9375
2332.0312,18.6751,10.8486,11.0460,10.9133,2.6899,8.9421,5.4420,5.8819,13.7099,13.4470,8.7131,12.2630,10.0193,3.1359,8.0805,11.1593,7.2415,12.6011,12.6223
2335.9375,20.6612,9.8091,11.8504,11.6084,3.9687,9.1485,7.1614,6.6537,12.7536,18.2743,8.5295,12.1018,11.4591,3.3856,7.6972,8.0332,7.0355,12.3015,13.7443
2339.8438,17.8984,7.9156,12.1068,11.4253,4.5227,8.6520,8.5065,6.5045,10.4392,18.8623,8.1162,10.7756,11.5307,3.3584,6.6195,4.2289,6.3570,11.0414,14.2758
2343.7500,11.1808,5.7926,11.6066,10.6814,4.4388,7.1660,9.0618,5.7599,7.5698,14.5457,7.6853,9.3911,10.9350,3.9216,5.6568,1.8319,5.6944,9.7322,14.1266
2347.6562,3.4355,4.2786,10.3031,9.6491,3.9318,4.8704,8.6108,4.7317,5.2354,7.2531,7.5746,8.8439,10.5299,5.4204,5.2801,1.9851,5.5198,9.0958,13.1757
2351.5625,-1.9473,3.7604,8.2561,8.3706,3.2167,2.3811,7.1236,3.5265,4.0747,0.3393,7.7041,8.9597,10.6007,7.3457,5.2808,4.2936,6.0300,8.9394,11.3760
2355.4688,-3.1368,3.8509,5.6288,6.7112,2.4505,0.4797,4.7852,2.0925,3.8604,-3.4401,7.3795,8.6399,10.7023,8.7181,5.1100,7.2751,7.0888,8.2647,8.8838
2359.3750,-0.8601,3.7030,2.7628,4.6055,1.7552,-0.2132,2.0530,0.4344,3.7416,-3.4409,5.7570,6.9007,10.1670,8.8792,4.5447,9.4191,8.3716,6.1694,6.1185
2363.2812,2.3142,2.7258,0.2272,2.2825,1.2467,0.5456,-0.3728,-1.2227,2.9606,-1.1602,2.6897,3.8960,8.7813,8.0121,4.0193,10.0362,9.5382,2.7829,3.6802
2367.1875,3.8870,1.1359,-1.2889,0.2706,1.0122,2.5712,-1.7536,-2.4834,1.5008,1.1133,-0.7413,1.0171,7.0203,6.9407,4.2604,9.3600,10.2897,-0.5860,2.1434
2371.0938,3.1555,-0.1030,-1.2481,-0.8363,1.0650,5.3305,-1.6282,-2.9999,0.1693,1.9761,-2.5704,-0.0469,5.6651,6.3987,5.5204,8.0184,10.3426,-2.2600,1.8328
2375.0000,1.5212,0.0712,0.4432,-0.6861,1.3617,8.0930,-0.0493,-2.6564,0.0415,1.7055,-1.1086,1.4676,5.1925,6.4400,7.1216,6.4622,9.4862,-1.3443,2.7104
2378.9062,1.1939,2.0416,3.3163,0.6584,1.9014,10.1176,2.4286,-1.5585,1.6603,1.6874,3.7899,4.8661,5.5001,6.5281,7.8088,4.8501,7.7920,1.6729,4.4254
2382.8125,3.2914,5.1560,6.4827,2.7606,2.8147,10.8510,5.0077,0.1293,4.5523,3.0247,10.2475,8.5245,6.1700,6.2153,6.7133,3.3824,5.8207,5.2879,6.4699
2386.7188,6.7832,8.0228,8.9582,4.9924,4.3006,10.0918,6.9771,2.3006,7.3930,5.4503,15.1163,10.9846,6.9434,5.7485,4.1613,2.6141,4.5415,7.9556,8.3280
2390.6250,9.0966,9.2501,9.9915,6.7202,6.3869,8.0585,7.9147,4.8268,8.7136,7.3889,15.6148,11.7284,7.8906,5.9759,1.6132,3.2976,4.8466,8.8903,9.5468
2394.5312,7.9715,8.1595,9.2642,7.4346,8.6789,5.3178,7.6955,7.3474,7.7029,7.1147,10.9063,11.1227,9.0968,7.5557,0.7006,5.7703,6.9116,8.1724,9.7596
2398.4375,3.2191,5.0883,6.9394,6.8578,10.3573,2.5994,6.4101,9.1849,4.6326,4.1246,2.6713,9.7792,10.2168,10.1486,2.0680,9.3949,9.8907,6.2904,8.7445
2402.3438,-2.9076,1.1873,3.6157,5.0719,10.5531,0.5771,4.3326,9.5845,0.6977,-0.3064,-5.6809,8.0162,10.4472,12.3759,4.9103,12.6186,12.2934,3.6845,6.5568
2406.2500,-7.0342,-2.1059,0.2150,2.6144,8.9286,-0.3009,1.9634,8.2057,-2.5902,-3.8197,-10.7174,5.8786,9.0995,12.7143,7.5555,13.7640,12.8859,0.7148,3.6618
2410.1562,-6.7865,-3.6438,-2.2257,0.4025,6.0661,0.0999,0.0177,5.5127,-4.1084,-4.4499,-10.6487,3.5515,6.3426,10.6715,8.6232,12.0560,11.5096,-2.0577,0.9156
2414.0625,-2.2773,-2.9898,-2.8867,-0.5972,3.3180,1.5747,-0.7813,2.7006,-3.5808,-1.8799,-6.0659,1.6022,3.4028,7.2782,7.8610,8.1507,9.1889,-3.7619,-0.6995
2417.9688,4.0066,-0.5801,-1.5390,0.1511,2.1174,3.5968,-0.0759,1.0997,-1.6134,2.3534,0.5742,0.6887,1.8863,4.4325,6.0746,3.7627,7.4017,-3.6016,-0.5149
2421.8750,8.7776,2.4151,1.2413,2.4078,3.1483,5.4028,1.8208,1.4054,0.6563,5.8049,6.3333,0.9610,2.6423,3.5634,4.3244,0.6442,7.0310,-1.5137,1.4449
2425.7812,9.8939,4.5292,4.2234,5.2155,5.9199,6.1931,3.9673,3.2581,2.1108,6.5767,9.2270,1.7704,5.0601,4.6482,3.1262,-0.3769,7.7873,1.5157,4.3956
2429.6875,7.4446,4.6343,6.0505,7.3906,9.0440,5.4456,5.2538,5.4808,2.1565,4.3748,8.9544,2.0781,7.4339,6.3482,2.3038,0.3224,8.5378,3.9061,7.1297
2433.5938,3.4103,2.5288,5.9079,8.1628,11.0482,3.2267,5.0323,6.8209,0.9686,0.5883,6.6371,1.3053,8.1849,7.1192,1.5080,1.6451,8.2690,4.4921,8.5940
2437.5000,0.2944,-0.8491,3.9413,7.5539,11.1974,0.3077,3.4970,6.6889,-0.6308,-2.5540,3.8726,-0.1057,7.0103,6.3819,0.8209,2.5767,6.9054,3.3319,8.3895
2441.4062,-0.3086,-3.7925,1.1590,6.2489,9.8097,-2.0668,1.5336,5.4049,-1.6073,-3.1899,1.7578,-0.9764,5.0433,4.8259,0.8251,2.7168,5.3347,1.6379,6.9065
2445.3125,1.6194,-4.6809,-1.1405,5.0709,7.9149,-2.7276,0.1292,3.8423,-1.2607,-0.7360,0.4672,-0.3617,3.8939,3.6758,2.0428,2.2681,4.6388,0.8366,5.0342
2449.2188,4.8197,-2.8888,-2.0714,4.4408,6.5407,-1.2051,-0.2512,2.7789,0.3890,3.8805,-0.4550,1.5836,4.3434,3.6032,4.2651,1.6605,5.1785,1.4830,3.6330
2453.1250,7.6130,0.7857,-1.5784,4.1906,6.1125,1.9161,0.1065,2.4322,2.5788,8.6734,-1.4182,3.5997,5.7450,4.2121,6.4305,1.1978,6.2837,2.8904,3.0804
2457.0312,8.7099,4.4686,-0.3543,3.8081,6.3058,5.1504,0.4587,2.4504,4.1628,11.4602,-2.2862,4.2308,6.5866,4.4717,7.2485,0.9661,6.7882,3.7508,3.1313
2460.9375,7.6085,6.1735,0.6324,2.8789,6.3537,6.7482,0.1656,2.2687,4.1752,10.7824,-2.4461,2.9273,5.7168,3.6448,6.1128,0.9400,5.9497,3.2101,3.1308
2464.8438,4.5865,4.8443,0.6809,1.3770,5.5391,5.5226,-0.8989,1.5074,2.3085,6.5553,-1.3843,0.4445,3.2142,1.8674,3.5647,1.0670,3.9932,1.5073,2.4202
2468.7500,0.4878,0.8910,-0.3332,-0.3709,3.5653,1.4524,-2.3496,0.1452,-0.9241,0.2000,0.6954,-1.7690,0.2223,-0.0873,0.9235,1.2242,1.8555,-0.3047,0.7042
2472.6562,-3.5541,-4.0544,-1.9847,-1.9514,0.6621,-4.2474,-3.6264,-1.5598,-4.4060,-5.8652,2.7307,-2.6639,-2.0367,-1.5696,-0.6301,1.1575,0.3854,-1.2536,-1.7992
2476.5625,-6.4517,-7.9810,-3.5649,-3.1071,-2.5389,-9.6318,-4.3582,-3.2423,-6.8950,-9.2628,3.3186,-2.2622,-3.1859,-2.5930,-0.8026,0.5773,-0.3086,-1.1578,-4.4689
2480.4688,-7.5655,-9.4488,-4.4054,-3.7905,-5.2500,-12.8702,-4.4883,-4.5407,-7.5410,-8.8135,1.5748,-1.4163,-3.7924,-3.6574,-0.2231,-0.5856,-0.8329,-0.5829,-6.5723
2484.3750,-7.0311,-8.1599,-4.1309,-4.0648,-6.8115,-13.0282,-4.1455,-5.1450,-6.2288,-5.2184,-2.2561,-0.9670,-4.6393,-5.0635,0.1812,-1.9904,-1.8733,-0.1785,-7.5953
2488.2812,-5.7570,-4.9392,-2.7931,-4.0178,-6.9599,-10.4196,-3.4579,-4.8773,-3.6183,-0.7930,-6.8738,-1.0901,-5.8941,-6.4201,-0.0928,-3.0152,-3.5311,-0.0740,-7.4649
2492.1875,-4.9467,-1.2339,-0.8678,-3.7864,-5.9935,-6.3690,-2.5062,-3.8370,-0.8664,1.7378,-10.6296,-1.3709,-6.9455,-6.8704,-0.8689,-3.2000,-5.2061,0.0973,-6.5712
2496.0938,-5.3339,1.5582,0.9042,-3.6214,-4.7118,-2.5133,-1.4228,-2.4892,0.8664,0.7792,-12.3786,-1.4291,-7.0317,-5.8768,-1.6103,-2.6745,-6.0985,0.6170,-5.5752
2500.0000,-6.6207,2.6245,1.8241,-3.8326,-4.0629,-0.0044,-0.4696,-1.5220,0.9285,-3.1719,-11.9139,-1.4072,-6.0460,-3.8404,-1.9375,-2.1705,-5.8663,1.1693,-5.0840
2503.9062,-7.5831,1.9556,1.5851,-4.5618,-4.6201,0.9701,0.0584,-1.4517,-0.5275,-7.7950,-9.7773,-1.8122,-4.7402,-1.9332,-1.8703,-2.5179,-4.8620,0.9770,-5.3494
2507.8125,-6.8913,0.2184,0.4679,-5.5385,-6.1895,1.0931,0.0646,-2.2097,-2.6372,-10.3514,-6.7170,-2.8725,-4.1047,-1.2107,-1.6531,-3.9696,-3.7707,-0.4647,-6.1478
2511.7188,-4.1443,-1.6248,-0.7878,-6.0780,-7.8506,1.3225,-0.2023,-3.0574,-4.2970,-9.3806,-3.2917,-4.0942,-4.4735,-1.7449,-1.4318,-5.9076,-3.0093,-2.7298,-6.9167
2515.6250,-0.3758,-2.7828,-1.4197,-5.4380,-8.4875,2.1702,-0.2737,-2.9929,-4.7834,-5.5994,0.0895,-4.5511,-5.1775,-2.5447,-1.1525,-7.2136,-2.4355,-4.5623,-7.0807
2519.5312,2.4176,-2.9852,-1.1357,-3.3516,-7.5096,3.3221,0.1794,-1.4397,-4.1627,-1.4098,2.8444,-3.7310,-5.0969,-2.3735,-0.7720,-7.0569,-1.6117,-4.7788,-6.3820
2523.4375,2.5017,-2.5526,-0.3226,-0.3495,-5.2796,3.8599,1.0326,1.2703,-3.2212,0.6664,4.0612,-2.1620,-3.6569,-0.7846,-0.5149,-5.4815,-0.3451,-3.2613,-5.0256
2527.3438,-0.4109,-2.1470,0.2078,2.4231,-2.9211,2.9459,1.7278,4.0125,-2.9349,-0.4125,2.8243,-1.1466,-1.3956,1.5100,-0.8419,-3.3222,1.0228,-1.1715,-3.5583
2531.2500,-4.8388,-2.3357,-0.2125,3.8369,-1.6058,0.5004,1.6630,5.5586,-3.8068,-3.6207,-1.1117,-1.7094,0.4138,3.2554,-2.0881,-1.5275,1.8648,-0.1229,-2.5657
2535.1562,-8.3295,-3.2268,-1.6214,3.4474,-1.7969,-2.6202,0.6691,5.3700,-5.5118,-6.6301,-6.8272,-3.6311,0.7785,3.7158,-4.0955,-0.4726,1.8317,-0.9418,-2.3762
2539.0625,-8.8742,-4.4027,-3.3806,1.7391,-2.9767,-5.1038,-0.8121,3.9242,-7.0976,-7.3475,-12.4166,-5.4697,-0.2262,3.2548,-6.2224,0.1504,1.1996,-3.0252,-2.9353
2542.9688,-6.0258,-5.1986,-4.6124,-0.2256,-4.0395,-6.0134,-2.0203,2.3363,-7.6121,-5.1691,-15.8658,-5.6689,-1.5698,2.9284,-7.7773,0.7905,0.6527,-4.8399,-3.8938
2546.8750,-1.0432,-5.1445,-4.8024,-1.4933,-4.0638,-5.3915,-2.4322,1.5625,-6.7309,-1.1699,-16.1005,-3.8824,-2.1698,3.4524,-8.5082,1.3682,0.6657,-5.1557,-4.8164
2550.7812,3.9357,-4.2813,-4.1298,-1.7566,-2.9173,-4.2044,-2.1466,1.7750,-4.9589,2.7537,-13.5011,-1.3791,-1.7965,4.4625,-8.6877,1.1508,1.0315,-3.9947,-5.3781
2554.6875,7.0684,-3.1479,-3.2991,-1.3983,-1.2990,-3.6554,-1.7884,2.3473,-3.2885,5.0764,-9.5352,-0.1133,-1.2064,4.7294,-8.6979,-0.6224,0.9753,-2.5311,-5.4582
2558.5938,7.5926,-2.4607,-3.0261,-1.0837,-0.2391,-4.3501,-1.9999,2.4089,-2.5720,5.3453,-5.7916,-1.1762,-1.4247,3.1560,-8.5182,-3.8540,-0.2114,-2.0695,-5.1366
2562.5000,5.8880,-2.6982,-3.5726,-1.2597,-0.4439,-5.9012,-2.9186,1.5129,-3.0440,4.0649,-3.1172,-3.9099,-2.8371,-0.2953,-7.6628,-7.2606,-2.5533,-2.9979,-4.6367
2566.4062,3.0358,-3.8408,-4.6534,-1.9249,-1.9220,-7.2327,-4.0497,-0.0836,-4.2788,2.0930,-1.4331,-6.4450,-4.8928,-4.5327,-5.7218,-9.0311,-5.3244,-4.5929,-4.2509
2570.3125,0.3389,-5.3912,-5.7267,-2.7728,-4.0705,-7.3382,-4.6298,-1.6792,-5.5393,0.1557,-0.2522,-7.2305,-6.6456,-8.1566,-3.0449,-8.0975,-7.5984,-5.7805,-4.2477
2574.2188,-0.9389,-6.6265,-6.3935,-3.5049,-6.0715,-5.9408,-4.1940,-2.6628,-6.2221,-1.1891,0.6153,-6.2774,-7.6063,-10.4491,-0.8553,-5.0566,-8.9476,-6.1275,-4.7619
2578.1250,0.2593,-6.9337,-6.6008,-4.0344,-7.2982,-3.6140,-2.9191,-2.8916,-6.1076,-1.3356,0.7770,-5.0742,-8.1186,-11.7001,-0.4917,-1.9576,-9.6945,-6.1713,-5.7133
2582.0312,4.4311,-6.0894,-6.5569,-4.4581,-7.5254,-1.3500,-1.5104,-2.6793,-5.3410,0.3619,-0.3921,-5.2657,-8.9403,-12.6679,-2.2627,-0.9979,-10.5169,-6.8323,-6.8286
2585.9375,10.9693,-4.3982,-6.5181,-4.9102,-6.9401,0.0469,-0.7595,-2.5038,-4.2775,4.1306,-3.0998,-7.2387,-10.4511,-13.7489,-4.8774,-3.0286,-11.7759,-8.4892,-7.7972
2589.8438,17.8530,-2.6456,-6.6689,-5.4826,-6.0511,0.3019,-1.1167,-2.7307,-3.3567,9.1869,-6.7595,-9.8264,-12.2522,-14.6530,-6.0904,-6.9600,-13.1716,-10.5878,-8.4870
2593.7500,22.1289,-1.8358,-7.1574,-6.2677,-5.5509,-0.4126,-2.5477,-3.5443,-3.0326,13.6519,-10.2161,-11.3586,-13.5401,-14.8605,-4.2572,-10.5158,-14.0298,-12.1383,-9.0609
2597.6562,21.3002,-2.7466,-8.1483,-7.4059,-6.0992,-1.7814,-4.6787,-5.0203,-3.6571,15.3564,-12.3983,-11.1152,-13.8903,-14.3628,0.3247,-11.7903,-13.9503,-12.6204,-9.8701
2601.5625,14.9645,-5.4558,-9.7268,-8.9899,-8.0118,-3.5403,-7.0181,-7.1387,-5.2578,13.1955,-12.8896,-9.9049,-13.6843,-13.9002,5.3819,-10.4896,-13.2194,-12.4299,-11.1538
2605.4688,5.5746,-9.1118,-11.6686,-10.8465,-10.9778,-5.4175,-9.0672,-9.6457,-7.3290,8.1048,-12.0041,-9.2780,-13.7286,-14.3774,8.0898,-8.0045,-12.5987,-12.4332,-12.7493
2609.3750,-2.4819,-12.1852,-13.3056,-12.4102,-14.0360,-6.9813,-10.3206,-11.9172,-8.8838,2.8053,-10.3828,-10.1004,-14.3931,-15.9493,6.9762,-6.3464,-12.6675,-13.0445,-14.0578
2613.2812,-5.2204,-13.1916,-13.7280,-12.9035,-15.9533,-7.6781,-10.3133,-13.0722,-8.9018,0.2727,-8.4964,-11.7736,-15.0938,-17.6544,2.9059,-6.7719,-13.3063,-13.7202,-14.3512
2617.1875,-1.4683,-11.5323,-12.3112,-11.8065,-15.8741,-7.1540,-8.8212,-12.4134,-6.9895,1.8588,-6.4665,-12.7997,-14.6867,-18.0464,-1.5766,-9.0603,-13.7946,-13.4074,-13.2515
2621.0938,6.2775,-7.9224,-9.2309,-9.3024,-13.8474,-5.6280,-6.1167,-9.9472,-3.8021,6.3763,-4.2838,-12.1723,-12.5119,-16.3757,-4.0256,-11.8365,-13.4523,-11.5920,-11.0521
2625.0000,13.2839,-4.0543,-5.5432,-6.3225,-10.8418,-3.9381,-3.0315,-6.5676,-0.8271,10.8769,-2.1425,-10.3225,-9.1765,-13.3212,-3.6415,-13.5602,-12.2640,-8.9776,-8.6233
2628.9062,15.5233,-1.6319,-2.6702,-4.0676,-8.1779,-3.0866,-0.6624,-3.6669,0.4546,12.6741,-0.5247,-8.7371,-6.3108,-10.5870,-1.4786,-13.4174,-10.9254,-7.0894,-6.9278
2632.8125,12.2381,-1.3698,-1.5813,-3.2941,-6.7339,-3.5339,0.1724,-2.3607,-0.4744,11.2249,0.0755,-8.5664,-5.3923,-9.6315,0.6988,-11.5739,-10.2542,-7.0424,-6.4590
2636.7188,6.3862,-2.6351,-2.2346,-3.8718,-6.4660,-4.7722,-0.6231,-2.8418,-2.7695,8.5236,-0.4530,-9.4806,-6.5818,-10.5673,1.8754,-8.8113,-10.4726,-8.5186,-6.9818
2640.6250,2.6133,-3.9911,-3.6879,-4.9479,-6.5736,-5.5721,-2.4025,-4.3259,-4.7292,7.6776,-1.6889,-9.8551,-8.5708,-12.1523,2.3720,-5.9713,-10.9887,-9.9024,-7.7520
2644.5312,4.0843,-4.2653,-4.8053,-5.5969,-6.1598,-4.8078,-4.2089,-5.6305,-4.9139,10.6283,-2.9348,-8.2041,-9.6232,-12.8748,3.1886,-3.6206,-10.8799,-9.5673,-8.0494
2648.4375,10.3185,-3.3724,-5.0395,-5.4659,-4.8827,-2.2979,-5.3536,-5.9653,-3.1223,16.6091,-3.6892,-4.6463,-8.9715,-12.1916,4.7987,-2.0274,-9.6700,-7.2818,-7.6428
2652.3438,17.4975,-2.2975,-4.7187,-4.9343,-3.1248,0.9680,-5.7342,-5.3693,-0.5399,22.4288,-3.9583,-1.0912,-7.3992,-10.8531,6.5061,-1.2675,-7.7382,-4.5280,-6.8729
2656.2500,21.0176,-2.2693,-4.6595,-4.7027,-1.6119,3.4222,-5.7074,-4.5284,1.0502,24.4126,-4.1716,0.1048,-6.5123,-10.0587,6.9272,-1.2711,-6.0177,-3.3942,-6.3316
2660.1562,18.5263,-3.7624,-5.4444,-5.1795,-0.8399,3.9350,-5.6833,-4.1820,0.4416,20.6978,-4.7901,-2.0482,-7.3154,-10.2280,5.1574,-1.8116,-5.2527,-4.9008,-6.4053
2664.0625,11.3857,-6.0887,-6.9419,-6.1708,-0.7826,2.5398,-5.8052,-4.6078,-2.2421,12.3858,-5.9278,-6.3727,-9.3051,-10.5244,1.5997,-2.5646,-5.4508,-8.1273,-7.0217
2667.9688,3.6391,-7.8771,-8.4167,-7.0996,-1.0692,0.3642,-5.9510,-5.5478,-5.6916,2.8646,-7.2561,-10.3842,-10.8576,-9.6003,-2.2510,-3.2884,-5.9735,-10.8676,-7.7540
2671.8750,-0.7144,-8.0505,-9.0917,-7.5247,-1.4047,-1.1541,-5.9836,-6.5371,-8.2768,-4.1584,-8.2019,-12.0786,-10.5728,-6.9257,-4.8687,-3.9810,-6.1398,-11.2799,-8.1541
2675.7812,-0.2238,-6.5399,-8.6746,-7.4898,-1.8183,-1.1859,-5.9528,-7.2851,-8.9843,-6.6062,-8.2334,-11.1820,-8.4265,-3.4963,-5.7073,-4.8167,-5.7847,-9.1895,-8.0326
2679.6875,3.3837,-4.2079,-7.4407,-7.4032,-2.5166,0.0710,-6.0279,-7.7799,-7.8135,-4.8164,-7.0320,-8.9250,-5.7556,-1.2222,-5.3617,-5.8465,-5.2921,-6.0171,-7.4865
2683.5938,6.7196,-2.0918,-5.8638,-7.5748,-3.5098,1.7017,-6.2216,-8.0897,-5.4865,-0.8792,-4.5322,-6.7004,-4.1169,-1.4437,-4.8461,-6.7232,-5.1267,-3.4791,-6.7038
2687.5000,7.2032,-0.6064,-4.1695,-7.8426,-4.4016,2.8036,-6.2054,-8.1267,-2.8245,2.8328,-0.9545,-4.8839,-4.0255,-3.8160,-4.6874,-6.7770,-5.3456,-2.2104,-5.7506
2691.4062,4.7389,0.6557,-2.2186,-7.6357,-4.5877,3.0776,-5.4594,-7.6503,-0.2984,4.9467,3.0959,-2.8414,-4.6493,-6.5308,-4.6138,-5.4982,-5.5646,-1.4580,-4.5321
2695.3125,1.5532,2.4021,0.1953,-6.4367,-3.7260,2.9057,-3.7006,-6.5232,1.9948,5.5126,6.5879,0.0056,-4.6753,-7.7172,-4.0115,-3.0850,-5.3997,-0.0124,-2.9456
2699.2188,0.4860,4.8712,2.9388,-4.2466,-2.0615,2.9658,-1.2429,-4.9582,4.0749,5.5597,8.3018,3.1819,-3.5298,-6.8577,-2.6254,-0.5448,-4.9330,2.5385,-1.0684
2703.1250,3.0432,7.4815,5.4270,-1.6486,-0.2899,3.7502,1.0602,-3.4749,5.8745,6.2650,7.4029,5.2741,-1.8521,-5.0455,-0.8121,0.8656,-4.7093,5.3765,0.8006
2707.0312,8.5342,9.2049,6.9574,0.5924,0.9636,5.3331,2.3207,-2.5451,7.2785,8.2787,4.0751,5.1355,-0.8232,-3.9052,0.8589,0.5283,-5.2155,7.2031,2.2958
2710.9375,14.7263,9.3710,7.2364,2.0639,1.6221,7.4633,2.2218,-2.2159,8.3075,11.4800,-0.2676,3.0830,-0.9958,-4.1422,2.2085,-1.0007,-6.3088,7.4466,3.2150
2714.8438,19.3769,8.2522,6.6623,2.9421,2.1785,9.7897,1.2602,-2.0488,9.1943,15.1273,-3.4971,0.9184,-1.7184,-4.9747,3.6142,-2.2973,-7.1610,6.8053,3.6458
2718.7500,21.5082,6.9617,6.1155,3.7620,3.2293,11.9962,0.4202,-1.4595,10.2255,18.2230,-3.8298,0.6297,-1.6906,-4.8991,5.5434,-2.0554,-6.8446,6.6327,3.9046
2722.6562,21.6322,6.7395,6.4056,4.9525,4.9146,13.7915,0.5125,-0.1828,11.4853,19.9294,-0.7934,2.8466,-0.1411,-3.0601,7.9064,-0.0259,-5.0888,7.7433,4.3534
2726.5625,20.9737,8.1645,7.7909,6.5429,6.7513,14.8823,1.6719,1.5313,12.7630,19.9160,4.5446,6.4011,2.4675,0.0130,9.9063,2.8344,-2.5317,9.7470,5.2385
2730.4688,20.4076,10.8508,9.9121,8.2585,8.0187,15.0653,3.3709,3.1612,13.7446,18.5097,10.2493,9.4101,4.8751,2.9412,10.6200,5.1386,-0.2013,11.5269,6.6425
2734.3750,19.8968,13.7835,12.1341,9.8569,8.3769,14.4095,4.8991,4.3799,14.3275,16.5353,14.6188,10.9326,6.2175,4.7746,9.8337,6.1629,1.3546,12.4027,8.5197
2738.2812,18.7283,15.9676,13.9793,11.3464,8.1853,13.3466,5.9012,5.3234,14.7470,14.8486,16.9488,11.7156,6.8601,5.8155,8.3496,6.3763,2.5256,12.8594,10.7242
2742.1875,16.2327,16.8983,15.3177,12.8674,8.2336,12.5101,6.5581,6.4144,15.3540,13.7900,17.4981,13.3241,8.0480,7.2094,7.4023,6.9802,4.2414,14.0994,12.9856
2746.0938,12.3883,16.5958,16.2306,14.3690,9.0953,12.3703,7.3130,7.8961,16.2100,12.9246,16.8334,16.4184,10.6263,9.6745,7.6322,8.8391,7.0275,16.7692,14.8902
2750.0000,7.8987,15.3381,16.7613,15.4404,10.6412,12.9155,8.4225,9.5060,16.8760,11.3252,15.2050,19.7686,13.9853,12.5649,8.5193,11.6897,10.3411,20.0362,15.9700
2753.9062,3.7721,13.4269,16.8261,15.5382,12.1239,13.6373,9.7247,10.6160,16.6510,8.2914,12.5091,21.0204,16.2738,14.2037,8.8376,14.2870,12.8210,21.9617,15.9198
2757.8125,0.7724,11.1859,16.3618,14.4727,12.7671,13.8650,10.8003,10.7532,15.1314,4.0278,8.8223,18.6872,15.8351,13.2839,7.8015,15.3722,13.3197,20.9955,14.8258
2761.7188,-0.8794,9.0840,15.5261,12.7291,12.3689,13.2184,11.3478,10.0569,12.6545,-0.2507,4.9384,13.6854,12.6995,10.1298,5.9172,14.6691,11.8833,17.3679,13.2168
2765.6250,-1.4238,7.7230,14.7022,11.2795,11.4265,11.8552,11.4264,9.2487,10.2266,-2.9603,2.2925,8.9990,8.8139,6.6617,4.7361,13.0980,9.8388,13.1481,11.8426
2769.5312,-1.2616,7.5618,14.2479,10.9532,10.6940,10.3394,11.3555,9.0872,8.9264,-3.1571,2.1701,7.5924,6.7042,5.0026,5.6229,12.0462,8.8602,10.8120,11.2800
2773.4375,-0.6967,8.5563,14.1969,11.8298,10.5638,9.2445,11.3781,9.7322,9.2093,-1.2123,4.7607,10.1934,7.6003,5.8673,8.5260,12.3054,9.7435,11.4368,11.6190
2777.3438,0.1230,10.0587,14.2032,13.1540,10.7986,8.7901,11.4024,10.5512,10.6374,1.3628,8.8316,14.7470,10.5553,8.1060,11.8033,13.5322,11.8741,13.9843,12.4552
2781.2500,1.1095,11.1587,13.8259,13.8748,10.8263,8.7552,11.0620,10.5652,12.2417,2.8640,12.3744,18.0018,13.2970,9.8057,13.3180,14.6273,13.8076,16.2497,13.2031
2785.1562,2.1345,11.2792,12.9416,13.4165,10.3245,8.6890,10.0520,9.2108,13.2231,2.4669,13.8175,17.9493,14.1049,10.0055,11.9691,14.6587,14.4599,16.6572,13.5123
2789.0625,3.0346,10.5779,11.9209,12.0845,9.5788,8.2257,8.4545,6.8327,13.4342,0.6725,12.9310,15.1562,13.1436,9.5350,8.4497,13.5372,13.9105,15.3950,13.4855
2792.9688,3.6994,9.8050,11.3780,10.7970,9.3006,7.2783,6.7742,4.5152,13.2795,-1.1763,10.7718,11.9874,12.1507,10.2350,4.6500,11.9177,13.1729,13.9749,13.5407
2796.8750,4.1319,9.6788,11.6521,10.3608,10.0557,6.0191,5.6411,3.3810,13.1538,-1.9308,8.7543,10.4794,12.7771,13.2250,2.2224,10.4890,13.1781,13.6742,14.0217
2800.7812,4.3964,10.2437,12.4309,10.8683,11.7809,4.7212,5.4037,3.8800,12.9281,-1.4542,7.6080,10.7038,15.0238,17.7274,1.4682,9.3279,13.8818,14.2704,14.8533
2804.6875,4.4890,10.7285,12.8499,11.6732,13.7838,3.6007,5.9089,5.5776,11.9459,-0.6314,7.0355,10.9542,17.1279,21.4948,1.3728,7.8961,14.2798,14.1974,15.5068
2808.5938,4.2617,10.0654,12.0426,11.9357,15.2167,2.7432,6.6144,7.5446,9.5660,-0.5919,6.2852,9.4885,17.0026,22.5115,0.6258,5.6551,13.3108,11.9887,15.3212
2812.5000,3.5132,7.7224,9.7679,11.2829,15.6346,2.1138,6.9321,9.0034,5.8221,-1.7456,5.0837,6.2368,14.0110,20.5463,-1.3163,2.7227,10.8536,7.7364,13.9704
2816.4062,2.2290,4.2417,6.6644,10.0715,15.2151,1.6126,6.5649,9.7482,1.6487,-3.3538,4.0752,2.9848,9.5770,17.2608,-3.9832,-0.0422,7.9412,3.2714,11.7567
2820.3125,0.8014,1.0606,3.9423,9.0888,14.5186,1.1628,5.6491,10.0937,-1.5520,-3.9514,4.3280,1.9051,6.1277,14.8180,-6.5082,-1.6291,5.9953,0.8701,9.5224
2824.2188,0.0166,-0.3052,2.7121,8.9664,14.0387,0.8223,4.6647,10.4932,-2.7266,-2.3215,6.2680,3.7343,5.2611,14.1951,-8.3853,-1.6497,5.7232,1.5503,8.2116
2828.1250,0.7260,0.8115,3.3784,9.7641,13.9091,0.8641,4.1997,11.1711,-1.8009,1.6480,8.9245,7.1492,6.6389,14.6045,-9.6094,-0.6469,6.6011,4.3533,8.3365
2832.0312,3.3454,3.7935,5.4490,10.9874,13.9352,1.7179,4.6809,12.0130,0.3068,6.7919,10.2046,9.8127,8.4401,14.4119,-10.1433,0.3144,7.3518,7.1503,9.6546
2835.9375,7.4956,7.0701,7.8227,11.9383,13.8197,3.7109,6.1521,12.6938,2.2757,11.2704,8.1469,10.1330,8.8835,12.6419,-9.3977,0.4247,6.9789,8.2379,11.2469
2839.8438,12.0642,8.9961,9.3423,12.0833,13.3255,6.7102,8.1682,12.8580,3.1598,13.5479,2.3386,8.2509,7.4974,9.7064,-6.4582,-0.3528,5.4742,7.3983,11.9609
2843.7500,15.7109,8.7370,9.3063,11.2028,12.2614,9.9259,9.8833,12.2165,2.8516,13.1556,-5.5074,5.5526,5.1515,6.7764,-1.0594,-1.4038,3.6392,5.6642,10.9896
2847.6562,17.5271,6.6550,7.7189,9.3357,10.4070,12.1260,10.3704,10.5857,1.9893,10.8314,-12.2875,3.3215,3.0096,4.4853,5.5373,-2.0533,2.2512,4.1858,8.2847
2851.5625,17.4164,4.0133,5.2222,6.6924,7.5675,12.2527,9.0850,7.9689,1.4420,8.0234,-15.1510,1.8120,1.4666,2.2568,10.7272,-2.0997,1.3574,3.3070,4.5856
2855.4688,15.9338,2.2102,2.7745,3.6463,3.7920,10.0915,6.2298,4.6825,1.7343,6.0810,-13.0566,0.4906,0.0229,-1.0612,11.9762,-1.8860,0.3196,2.6172,1.0435
2859.3750,13.7116,1.9912,1.2065,0.7355,-0.4440,6.5051,2.7501,1.3791,2.7438,5.5800,-7.3127,-0.9812,-1.9085,-5.8306,8.5397,-1.9344,-1.4619,1.7476,-1.3677
2863.2812,10.9334,3.0626,0.8292,-1.4734,-4.3316,2.9762,-0.1211,-1.1748,3.7946,6.1086,-0.8239,-2.1288,-4.1487,-10.8412,2.1472,-2.5267,-3.8314,0.9801,-2.3322
2867.1875,7.3098,4.2999,1.2821,-2.6716,-7.1179,0.7012,-1.5322,-2.5116,4.0510,6.5862,3.4660,-2.0901,-5.7427,-13.9547,-3.9918,-3.5769,-5.8310,0.9873,-2.2948
2871.0938,2.6194,4.4235,1.7402,-3.0443,-8.5225,-0.1421,-1.4614,-2.7774,2.9935,5.9187,4.0268,-0.6613,-5.8234,-13.7253,-7.2189,-4.8105,-6.3796,1.9574,-2.1209
2875.0000,-2.6237,2.7652,1.4215,-3.1990,-8.8275,-0.3964,-0.6175,-2.6450,0.7438,3.6311,1.3266,1.1487,-4.5016,-10.6091,-7.0202,-5.9781,-5.0920,3.0503,-2.5206
2878.9062,-7.0187,-0.3079,0.1134,-3.7392,-8.5382,-1.1554,0.1477,-2.8058,-1.9292,0.1284,-2.6766,1.7518,-2.8774,-6.6591,-5.0391,-6.8681,-2.5453,2.8840,-3.5960
2882.8125,-8.9643,-3.5772,-1.6385,-4.7576,-7.8866,-2.7858,0.4784,-3.3894,-3.9631,-3.5653,-5.7638,0.3494,-2.0906,-3.9005,-3.5994,-7.1707,0.1968,0.7576,-4.8016
2886.7188,-7.8299,-5.6783,-2.8617,-5.6621,-6.6221,-4.5119,0.7114,-3.7900,-4.5786,-6.4329,-6.6919,-2.2177,-2.2718,-2.7511,-3.9532,-6.4646,2.3459,-2.4871,-5.3382
2890.6250,-4.7447,-5.9132,-2.8213,-5.5332,-4.3097,-4.9362,1.4830,-3.1042,-3.7724,-8.0554,-5.7740,-4.0214,-2.3995,-1.8509,-5.5799,-4.4945,3.7801,-4.8692,-4.6996
2894.5312,-2.2414,-4.6485,-1.5494,-3.7923,-0.9095,-3.1527,3.0736,-0.8927,-2.3864,-8.7617,-4.5137,-3.6315,-1.2612,0.5450,-6.9168,-1.5630,4.7981,-4.7484,-2.9888
2898.4375,-2.7496,-3.0119,0.1839,-0.6813,2.8731,0.3869,5.0475,2.3259,-1.6114,-9.2142,-4.5176,-1.3542,1.3305,4.8171,-6.7393,1.3709,5.5700,-2.1682,-0.7892
2902.3438,-6.8422,-2.0636,1.4724,2.8258,5.8259,3.9589,6.5058,5.2718,-2.1560,-9.7164,-6.3228,1.0358,4.2087,9.4022,-4.9999,3.1301,5.8642,1.1446,1.2905
2906.2500,-12.4923,-2.0061,2.0001,5.6169,6.9297,5.6161,6.7589,6.6848,-3.6147,-9.7731,-8.8635,1.9110,5.7794,11.8952,-2.5532,3.0747,5.3045,3.2077,3.0263
2910.1562,-16.0439,-2.0126,2.2964,7.0779,5.9850,4.4844,5.8570,6.1112,-4.5434,-8.2974,-9.9785,1.3315,5.4109,10.8853,-0.2263,1.5926,3.8565,3.4480,4.6173
2914.0625,-14.4331,-0.8453,3.2642,7.2915,3.6595,1.3837,4.5233,4.1016,-3.3226,-4.3994,-7.7502,1.0608,4.0086,6.9574,1.8095,-0.1286,1.9930,3.1343,6.3257
2917.9688,-7.2499,2.1400,5.3155,6.7011,0.9212,-1.6742,3.5358,1.7002,0.6803,1.7714,-1.8963,2.9236,3.1844,2.0525,3.8271,-0.9503,0.3148,4.1384,8.0296
2921.8750,2.7753,6.3240,7.8119,5.5981,-1.6655,-2.7617,3.0814,-0.3316,6.4396,8.7595,5.6991,6.8993,3.7120,-2.1712,5.8427,-0.6099,-1.0280,7.0660,9.0907
2925.7812,11.2585,10.0068,9.3195,3.9140,-4.1874,-1.2156,2.6447,-1.9225,11.6233,14.3710,11.7834,10.7055,4.6745,-5.4845,7.2535,0.1445,-2.5040,10.4186,8.7016
2929.6875,14.6757,11.3677,8.5601,1.4898,-6.9817,2.0336,1.5386,-3.4406,13.8314,16.7482,13.4971,11.4025,4.1677,-8.7575,7.2720,0.2331,-4.6964,11.6153,6.4826
2933.5938,12.2555,9.5612,5.3608,-1.4702,-9.9653,5.1107,-0.3792,-5.0763,11.9484,15.2661,10.0646,7.7748,1.0409,-12.5580,5.7602,-0.8227,-7.5286,9.0880,2.8716
2937.5000,6.0673,5.2064,0.8597,-4.2464,-12.3277,6.3082,-2.4529,-6.4587,6.7359,10.7103,3.3296,1.4712,-3.8375,-16.0813,3.5896,-2.5074,-9.9734,3.6783,-1.0225
2941.4062,-0.5922,-0.0368,-3.2215,-5.9789,-12.9156,4.9392,-3.7076,-6.8820,0.3003,4.7230,-3.2599,-4.1483,-7.9864,-17.5071,2.0444,-3.7943,-10.6484,-1.9022,-4.0319
2945.3125,-5.2538,-4.4647,-5.7049,-6.2959,-11.0426,1.5079,-3.6975,-5.9515,-5.1597,-1.0036,-6.6264,-6.5689,-9.1694,-15.5389,1.7188,-4.0810,-8.9148,-5.1496,-5.5794
2949.2188,-7.3399,-7.1936,-6.6361,-5.6473,-7.0678,-2.7213,-3.0027,-4.0636,-8.4647,-5.2403,-5.7785,-5.9670,-7.1790,-10.7310,1.9372,-3.7387,-5.5589,-5.6543,-5.9043
2953.1250,-7.6882,-8.3521,-7.0270,-5.0047,-2.2607,-6.3652,-2.9001,-2.2545,-9.7467,-7.2623,-2.2169,-4.7990,-4.0112,-5.3209,1.3482,-3.7570,-2.3939,-5.2081,-5.7316
2957.0312,-7.2044,-8.6055,-7.9125,-5.1244,1.9492,-8.4182,-4.4032,-1.4987,-9.8830,-6.6857,1.1601,-5.5072,-2.2268,-1.6043,-0.7202,-4.7606,-1.0007,-6.0620,-5.6699
2960.9375,-5.8964,-8.4882,-9.4921,-5.9663,4.7447,-8.4892,-7.4045,-2.0247,-9.6333,-3.4851,1.8923,-8.3291,-2.8571,-0.2238,-3.3458,-6.2646,-1.5952,-8.8526,-5.8079
2964.8438,-3.0770,-8.0657,-11.0143,-6.7556,6.1405,-6.8335,-10.6123,-3.2177,-9.1452,1.7403,-0.6314,-11.0937,-4.6267,0.1182,-4.4726,-6.8817,-2.9650,-11.9888,-5.7854
2968.7500,1.5625,-7.0920,-11.4268,-6.6411,6.5728,-4.2327,-12.3632,-4.1817,-8.0910,7.5994,-4.9796,-11.1526,-5.1502,1.2526,-2.5100,-5.4027,-3.5443,-13.0086,-5.2172
2972.6562,7.0844,-5.4010,-10.2055,-5.3988,6.3184,-1.6989,-11.7155,-4.4734,-6.1636,12.2728,-8.6595,-7.7365,-3.0587,3.6926,2.2364,-1.9016,-2.7297,-10.7037,-4.0771
2976.5625,11.5413,-3.1413,-7.6870,-3.5932,5.2930,-0.0235,-9.0217,-4.3839,-3.4427,14.4218,-9.5403,-2.6728,0.7830,6.0220,7.5855,2.0660,-1.3197,-6.1607,-2.7229
2980.4688,13.2476,-0.6905,-4.7110,-2.0857,3.3691,0.6448,-5.6066,-4.5558,-0.3624,14.0769,-6.8612,1.1326,4.0071,6.1152,11.0473,4.4020,-0.7143,-1.8477,-1.5824
2984.3750,12.0802,1.5808,-1.9795,-1.3432,0.8213,0.8881,-2.8666,-5.3113,2.5739,12.7379,-1.3904,2.0714,4.7454,3.1180,11.6767,3.8594,-1.6002,0.3945,-0.8179
2988.2812,9.6983,3.4148,0.2683,-1.1658,-1.6314,1.6026,-1.4959,-6.3146,4.9948,12.3944,5.1248,0.9549,3.1229,-1.6189,10.6321,0.8431,-3.3126,0.6596,-0.2894
2992.1875,8.4099,4.5574,2.0304,-1.0556,-3.3286,3.2739,-1.3499,-6.8758,6.6061,14.0228,10.7557,-0.0719,0.9392,-5.5689,9.9267,-2.9554,-4.4723,0.4694,0.1569
2996.0938,9.5063,4.6337,3.0928,-0.8541,-4.2874,5.4513,-1.8825,-6.6090,7.0453,16.6667,14.0393,0.2392,-0.1250,-7.1668,10.4389,-5.7501,-4.3428,1.0105,0.3675
3000.0000,12.3342,3.2678,2.9112,-1.0153,-5.3094,6.8809,-2.6644,-5.8280,5.9378,17.9114,14.3227,0.9681,-0.1034,-7.1391,10.9573,-6.7481,-3.6567,1.8218,-0.1272
3003.9062,14.8097,0.4540,1.0441,-2.2103,-7.3472,6.3015,-3.5376,-5.2904,3.2352,15.5682,11.8349,-0.0609,-0.6459,-7.7596,9.1976,-6.3795,-4.0740,1.2074,-1.7369
3007.8125,14.9424,-3.1440,-2.2244,-4.5909,-10.5796,3.3702,-4.3988,-5.5058,-0.4543,9.4020,7.5294,-3.9856,-3.2834,-10.6032,4.0044,-5.6643,-6.6404,-1.9750,-4.3446
3011.7188,12.1757,-6.3455,-5.7194,-7.4033,-13.9994,-0.9826,-4.9833,-6.2390,-3.9543,1.5873,2.7069,-9.3810,-7.6508,-14.7888,-3.1684,-5.3564,-10.5672,-6.8393,-7.1728
3015.6250,7.5454,-8.1046,-7.9818,-9.3873,-15.9741,-5.0806,-4.9825,-6.6938,-6.1429,-4.5517,-1.5128,-13.0436,-11.3775,-17.3824,-8.9055,-5.5408,-13.4852,-10.8000,-9.1675
3019.5312,2.6580,-8.2361,-8.2764,-9.7103,-15.4426,-7.5484,-4.4307,-6.2550,-6.7229,-6.6812,-4.6452,-12.5652,-11.9043,-15.7848,-10.2448,-5.8426,-13.1219,-11.5817,-9.6601
3023.4375,-1.5645,-7.6122,-7.1894,-8.6661,-12.8226,-8.0969,-3.9355,-5.1370,-6.5029,-4.9391,-6.9333,-8.4854,-8.7150,-10.1272,-6.9482,-5.8649,-9.1110,-9.1966,-8.8106
3027.3438,-5.2951,-7.5667,-6.2438,-7.5010,-9.8551,-7.4631,-4.3882,-4.3265,-6.8467,-1.6645,-8.9566,-4.0490,-3.9979,-3.5606,-1.7438,-5.4058,-3.4476,-6.0734,-7.4761
3031.2500,-9.0620,-8.8659,-6.7359,-7.4321,-8.4263,-6.5946,-6.2543,-4.7958,-8.5964,0.4265,-10.9831,-2.6299,-1.0367,-0.0418,1.7224,-4.3820,0.8415,-5.0752,-6.5853
3035.1562,-12.5742,-11.0107,-8.6647,-8.6181,-9.2372,-5.7802,-8.9966,-6.6191,-11.2639,0.2605,-12.5380,-4.9488,-1.6029,-1.3552,1.5936,-2.7666,1.7974,-7.0213,-6.4828
3039.0625,-14.2368,-12.4414,-10.6130,-9.9252,-11.3337,-4.4569,-11.1830,-8.7441,-13.1572,-0.8717,-12.5617,-8.4741,-4.5402,-5.8151,-1.0026,-0.7935,-0.2367,-9.8532,-6.7213
3042.9688,-11.9369,-11.5443,-10.7052,-9.7063,-12.8433,-1.8498,-11.3169,-9.6532,-12.4294,-0.4017,-10.1078,-9.5554,-6.7603,-9.7162,-3.1743,0.7569,-3.1539,-10.2356,-6.4255
3046.8750,-4.6291,-7.7343,-7.9168,-6.9887,-12.3144,2.1129,-8.8214,-8.4023,-8.3179,3.4658,-5.0971,-6.4782,-5.8098,-10.3015,-2.7902,0.6891,-4.8433,-6.2881,-4.9112
3050.7812,6.4609,-1.8250,-2.7353,-2.1425,-9.6173,6.4144,-4.4306,-5.2155,-1.6819,10.2700,1.4410,-0.8203,-1.8214,-7.7582,-0.1535,-1.8036,-4.6717,0.8588,-2.0841
3054.6875,17.9951,4.5425,3.2835,3.4576,-5.7719,9.4677,0.3144,-1.1885,5.5285,17.4445,7.8379,4.0343,2.7916,-4.6364,2.5280,-6.1078,-3.5364,7.9969,1.6296
3058.5938,26.0755,9.9143,8.6269,8.4307,-1.9767,10.1699,4.0642,2.5886,11.4288,21.9487,12.6340,5.8762,5.5561,-3.3287,3.2980,-9.8780,-2.6362,12.4314,5.6625
