Time,Fp1,F3,C3,P3,O1,F7,T3,T5,Fz,Fp2,F4,C4,P4,O2,F8,T4,T6,Cz,Pz
0.0000,-25.6868,-9.0187,-5.0314,-3.2561,2.9867,-11.8039,-4.2444,-1.8296,-8.8743,-25.9750,-10.3626,-2.4768,-1.3192,2.1302,-10.5236,-4.2633,0.5254,-3.9670,-4.0618
3.9062,-20.1742,-8.0696,-4.5141,-2.8807,3.2757,-9.8613,-4.4107,-1.2141,-7.9492,-19.6549,-8.8856,-2.7283,-0.3437,4.6449,-9.1056,-4.9317,1.5804,-4.2889,-3.8551
7.8125,-12.6241,-6.6442,-3.9457,-2.1760,3.5089,-6.6010,-4.1135,-0.3104,-6.6757,-11.4429,-6.7897,-3.5590,0.7944,7.9698,-7.7149,-5.3185,2.9299,-5.1159,-3.5303
11.7188,-5.1782,-4.8906,-3.5091,-1.4773,3.1787,-2.7829,-3.2539,0.4956,-5.2833,-3.8283,-4.5555,-4.9512,1.4999,10.9833,-6.6846,-5.4018,3.8258,-6.2512,-3.2797
15.6250,0.0565,-2.8885,-3.1889,-1.2279,1.7680,0.5662,-1.9343,0.7686,-3.8559,0.9525,-2.5468,-6.4870,1.2159,12.3971,-5.9857,-5.3429,3.4423,-7.1364,-3.3149
19.5312,2.1570,-0.6522,-2.7656,-1.7224,-0.9407,2.6811,-0.4409,0.2521,-2.2760,2.1328,-0.7973,-7.5177,-0.2615,11.3497,-5.2345,-5.3082,1.3345,-7.1157,-3.7537
23.4375,1.8376,1.7427,-1.9930,-2.8907,-4.6600,3.4290,0.8636,-0.9872,-0.3725,0.7595,0.9211,-7.5403,-2.6337,7.8167,-3.9422,-5.2931,-2.2560,-5.8446,-4.5326
27.3438,0.9512,4.0453,-0.8174,-4.2477,-8.6198,3.3207,1.7041,-2.5688,1.8506,-1.0023,2.8220,-6.5196,-5.1946,2.6262,-1.8226,-5.0953,-6.4442,-3.5630,-5.3679
31.2500,1.3960,5.8783,0.5557,-5.0438,-11.8096,3.1914,2.0448,-3.9358,4.1168,-1.1071,4.8698,-4.9033,-7.0997,-2.9042,1.0499,-4.4648,-10.0734,-1.0026,-5.7754
35.1562,4.1145,6.9676,1.8265,-4.5503,-13.3152,3.7655,2.1440,-4.5386,6.0251,1.3732,6.7919,-3.2887,-7.6554,-7.4871,4.3100,-3.3099,-12.2008,1.0621,-5.1599
39.0625,8.7376,7.3914,2.8834,-2.3584,-12.5989,5.3436,2.4573,-3.9890,7.3539,6.0075,8.3258,-1.9778,-6.5061,-10.2820,7.4952,-1.7951,-12.4342,2.3395,-2.9918
42.9688,13.9619,7.6236,3.9609,1.4256,-9.6357,7.7328,3.4086,-2.1592,8.2712,11.4885,9.4729,-0.7649,-3.6925,-11.0573,10.1946,-0.2507,-10.9771,3.2471,0.9482
46.8750,18.3099,8.2664,5.4980,6.1511,-4.9157,10.3839,5.1317,0.7605,9.2441,16.3896,10.5146,0.8520,0.3640,-10.1164,12.0673,1.0301,-8.4295,4.6328,6.3325
50.7812,20.7970,9.6107,7.7458,10.7662,0.6396,12.6263,7.3227,4.2425,10.6640,19.7280,11.7444,3.1636,4.9046,-8.1084,12.8020,1.9423,-5.5140,7.1248,12.1919
54.6875,21.2220,11.3268,10.3885,14.0904,5.8209,13.9003,9.3037,7.4740,12.4430,21.1620,13.1257,5.8225,8.9175,-5.8307,12.1610,2.5461,-2.8831,10.5210,17.0765
58.5938,20.0979,12.5470,12.4873,15.1496,9.3561,13.9425,10.2880,9.5281,13.9016,20.9519,14.1733,7.8408,11.3224,-4.0574,10.1689,2.8977,-1.0437,13.6475,19.4818
62.5000,18.4059,12.3440,12.8687,13.4854,10.2316,12.8957,9.7243,9.6565,14.0886,19.8686,14.2007,8.0704,11.2762,-3.3670,7.3261,2.8929,-0.3316,14.8399,18.4005
66.4062,17.3143,10.3304,10.7795,9.3437,8.0467,11.2991,7.5538,7.6140,12.3699,19.0697,12.7880,5.8778,8.5145,-3.9680,4.6265,2.2851,-0.8535,12.8199,13.7611
70.3125,17.8823,6.9951,6.4313,3.6635,3.2505,9.9144,4.2620,3.8556,8.9171,19.8080,10.1389,1.5839,3.5601,-5.5838,3.2375,0.9064,-2.3977,7.4816,6.5408
74.2188,20.7276,3.5485,1.0852,-2.1598,-2.9080,9.4105,0.7160,-0.5345,4.7703,22.9104,7.0666,-3.6043,-2.3554,-7.4951,3.9421,-1.0583,-4.3976,0.1437,-1.5176
78.1250,25.7310,1.3560,-3.4140,-6.6835,-8.7691,10.0401,-2.1267,-4.2071,1.4137,28.2293,4.6108,-8.1092,-7.6774,-8.7862,6.6587,-2.9729,-6.0495,-6.8850,-8.4652
82.0312,31.9548,1.2936,-5.4301,-8.8639,-12.8619,11.5037,-3.5160,-6.0696,0.1037,34.4655,3.5461,-10.6242,-11.0693,-8.7230,10.3752,-3.9643,-6.5948,-11.2179,-12.7519
85.9375,37.9237,3.3830,-4.2521,-8.3755,-14.4355,13.1227,-3.1254,-5.7251,1.3222,39.6442,4.0894,-10.5386,-11.8622,-7.0879,13.6097,-3.3737,-5.6522,-11.3470,-13.6426
89.8438,42.2162,6.8712,-0.3776,-5.6720,-13.6573,14.2562,-1.1404,-3.6105,4.6297,42.1068,5.9421,-8.0024,-10.2109,-4.2919,15.1820,-1.1819,-3.4225,-7.2224,-11.3272
93.7500,44.0804,10.6491,4.7547,-1.7585,-11.3838,14.7117,1.7915,-0.7570,8.9405,41.4598,8.5593,-3.7213,-6.9063,-1.1899,14.8666,1.8832,-0.6325,-0.2362,-6.7316
97.6562,43.7224,13.7454,9.4315,2.2341,-8.6468,14.8684,4.7540,1.7094,13.0284,38.8492,11.4201,1.3317,-2.9689,1.3130,13.5435,4.6742,1.7774,7.3512,-1.1391
101.5625,42.0968,15.6556,12.4058,5.4932,-6.1532,15.4060,6.8753,3.0814,15.9999,36.3239,14.1501,6.1716,0.7687,2.6613,12.7414,6.2346,3.0764,13.2930,4.2439
105.4688,40.3373,16.4141,13.3808,7.7939,-4.0641,16.8001,7.6728,3.3430,17.5514,35.6489,16.5118,10.0189,3.9105,2.8529,13.8059,6.3415,3.0677,16.2056,8.6434
109.3750,39.1848,16.4578,13.0399,9.4767,-2.1368,18.9258,7.2821,3.0802,17.9626,37.3125,18.3763,12.5083,6.5042,2.3536,17.1259,5.6419,2.1542,16.0589,11.8895
113.2812,38.7379,16.3886,12.6299,11.1502,-0.0896,21.0536,6.4179,3.0932,17.8794,40.3408,19.7428,13.8281,8.8518,1.7872,21.8223,5.2746,1.1172,14.1074,14.3392
117.1875,38.6046,16.7190,13.2954,13.2718,2.0695,22.2619,6.0302,3.9271,17.9844,42.9879,20.7519,14.6597,11.2395,1.5758,26.0685,6.1843,0.7204,12.2671,16.5709
121.0938,38.2749,17.6584,15.4693,15.8251,3.9596,21.9993,6.7963,5.5719,18.6701,43.8094,21.5985,15.8384,13.7148,1.7249,27.9153,8.5342,1.3364,12.1872,18.9763
125.0000,37.4392,18.9991,18.6134,18.2681,5.0264,20.4228,8.7220,7.4827,19.8335,42.4255,22.3373,17.8461,16.0032,1.8607,26.2474,11.5771,2.7812,14.4335,21.4529
128.9062,36.0895,20.1628,21.4465,19.7827,4.8803,18.2869,11.1007,8.8918,20.8972,39.5641,22.7193,20.4284,17.5948,1.4888,21.4132,14.0665,4.4324,18.1918,23.3754
132.8125,34.4295,20.4337,22.5638,19.6900,3.5514,16.4632,12.8750,9.2245,21.0744,36.4790,22.2364,22.6144,17.9565,0.3238,15.1818,14.9525,5.5644,21.6611,23.8841
136.7188,32.7314,19.2980,21.1383,17.7957,1.4993,15.4136,13.1945,8.3754,19.7743,34.2041,20.4187,23.1861,16.7657,-1.5059,9.9726,13.9269,5.7119,22.9544,22.3385
140.6250,31.2432,16.7237,17.3333,14.4720,-0.6254,14.9627,11.8345,6.6986,16.9369,33.1036,17.2118,21.3340,14.0487,-3.5046,7.6763,11.4854,4.8576,21.0351,18.6773
144.5312,30.1505,13.2131,12.2054,10.4438,-2.3242,14.5004,9.2322,4.7401,13.1006,32.8899,13.1519,17.0943,10.1559,-5.0915,8.6618,8.4997,3.3447,16.1992,13.4765
148.4375,29.5454,9.5850,7.1621,6.4251,-3.4889,13.4613,6.1608,2.9057,9.1580,32.9644,9.1732,11.3100,5.6028,-5.9522,11.5534,5.6206,1.5849,9.8702,7.6910
152.3438,29.3881,6.6123,3.2977,2.8428,-4.3920,11.7550,3.2961,1.2889,5.9444,32.8020,6.1495,5.1868,0.8914,-6.2319,13.9932,2.9413,-0.2247,3.8703,2.2622
156.2500,29.5087,4.7272,0.9831,-0.1958,-5.4333,9.8687,0.9750,-0.2357,3.9065,32.1832,4.4784,-0.2267,-3.5725,-6.4214,14.0233,0.1502,-2.1644,-0.3974,-2.1648
160.1562,29.6861,3.9445,-0.0922,-2.7112,-6.7965,8.5869,-0.7364,-1.7397,3.0233,31.2243,3.9818,-4.3103,-7.4292,-6.9768,11.2827,-2.9638,-4.3723,-2.4291,-5.2858
164.0625,29.7678,3.9903,-0.5299,-4.6208,-8.2334,8.5088,-1.8006,-3.0176,2.9654,30.2551,4.1533,-6.8214,-10.2681,-7.9035,7.2410,-6.0629,-6.7003,-2.5921,-7.0062
167.9688,29.7245,4.4942,-0.7898,-5.6712,-9.1306,9.6626,-2.0567,-3.6082,3.3272,29.6101,4.5215,-7.7115,-11.6212,-8.5914,4.2543,-8.2516,-8.5245,-1.7290,-7.3143
171.8750,29.5833,5.1108,-0.9928,-5.5983,-8.8425,11.4443,-1.3162,-3.0813,3.7693,29.4110,4.8529,-7.0564,-11.1216,-8.0599,4.0124,-8.5657,-8.9197,-0.6875,-6.2870
175.7812,29.3058,5.5522,-1.0218,-4.3896,-7.1099,12.9214,0.3750,-1.3982,4.0440,29.4550,5.1018,-5.1587,-8.7574,-5.5164,6.4095,-6.6367,-7.1604,-0.0124,-4.1962
179.6875,28.7748,5.6249,-0.7530,-2.4265,-4.3052,13.3365,2.5615,0.9239,4.0082,29.3257,5.2642,-2.6492,-5.0428,-0.9147,9.6422,-3.0503,-3.2596,0.1493,-1.5601
183.5938,27.9703,5.3424,-0.1874,-0.3656,-1.3367,12.5362,4.4982,2.9996,3.7153,28.7342,5.3557,-0.3614,-0.9479,4.8312,11.5079,0.8825,1.8170,0.0004,0.9785
187.5000,27.2094,5.0505,0.6089,1.1824,0.7601,11.0844,5.5334,4.0249,3.5345,27.8837,5.5563,1.0419,2.4179,10.1312,11.0002,3.8110,6.4513,-0.0219,2.9069
191.4062,27.1630,5.3941,1.6435,1.9581,1.3193,9.9763,5.4908,3.7080,4.1155,27.5267,6.3238,1.4368,4.2072,13.3644,9.0346,5.0277,9.0569,0.5737,4.0421
195.3125,28.4670,7.0112,3.0280,2.1273,0.3464,10.0862,4.7589,2.4004,6.0715,28.5178,8.2218,1.2783,4.1022,13.5432,7.7318,4.7034,8.7719,2.0800,4.5101
199.2188,31.0905,10.0639,4.8287,2.0870,-1.5419,11.6426,4.0110,0.8510,9.4924,31.0536,11.4557,1.2212,2.3344,10.6598,8.7542,3.5687,5.7834,4.3454,4.5230
203.1250,33.9606,13.9313,6.8715,2.1700,-3.4814,14.0441,3.7629,-0.2359,13.6369,34.1693,15.4498,1.5991,-0.4813,5.5892,11.9472,2.3437,1.1460,6.7176,4.1639
207.0312,35.3251,17.3806,8.7287,2.4839,-4.7913,16.1671,4.1033,-0.5324,17.1489,36.0467,18.9149,2.2089,-3.5367,-0.3302,15.3756,1.3717,-3.7391,8.3264,3.4046
210.9375,33.8547,19.2353,9.9824,2.9946,-5.2234,17.0316,4.7872,-0.1104,18.8088,35.1766,20.5538,2.6267,-5.9439,-5.7848,16.8177,0.6965,-7.6613,8.6382,2.3737
214.8438,29.8429,19.1589,10.5948,3.7391,-4.9286,16.4476,5.5775,0.7992,18.3890,31.6924,20.0130,2.8173,-6.8246,-9.8338,15.6376,0.4228,-9.9029,7.9493,1.6235
218.7500,25.5659,17.9884,11.0531,4.9274,-4.2429,15.2231,6.5130,2.0659,16.9796,27.8389,18.3587,3.4730,-5.5081,-12.0613,13.5636,0.9437,-10.2739,7.4045,2.0562
222.6562,24.2715,17.2813,12.0686,6.7775,-3.4892,14.7386,7.8451,3.7036,16.4173,26.9514,17.5654,5.6540,-1.8818,-12.5812,13.6351,2.7414,-9.0102,8.3753,4.3966
226.5625,28.2023,18.2747,13.9583,9.1736,-2.9242,16.0900,9.6789,5.6720,18.0689,31.3444,19.1986,9.8606,3.2827,-11.9531,17.9443,5.8671,-6.6665,11.4840,8.4889
230.4688,36.8804,20.9287,16.1517,11.4408,-2.7944,19.3087,11.6383,7.6373,21.7506,40.4423,23.1529,15.2143,8.3447,-10.9957,25.7885,9.5540,-4.0088,15.9086,12.9599
234.3750,46.9277,23.7526,17.2745,12.5035,-3.3541,23.1810,12.8952,8.9584,25.5872,50.5664,27.4087,19.4929,11.3488,-10.4713,33.6791,12.3967,-1.8167,19.5308,15.6498
238.2812,53.7803,24.6317,15.8929,11.4346,-4.7406,25.8432,12.6289,8.9901,27.0311,56.8102,29.1404,20.2215,10.9657,-10.6998,37.3796,13.1135,-0.5675,19.9867,14.7175
242.1875,54.3590,22.1737,11.5029,8.0808,-6.7656,25.8355,10.6164,7.5240,24.4578,55.9837,26.5373,16.2163,7.3060,-11.2985,34.6635,11.4118,-0.1449,16.0566,9.7986
246.0938,48.9845,16.6971,5.0899,3.3283,-8.8180,22.9721,7.4990,5.0294,18.2961,48.7226,20.1160,8.5406,2.0416,-11.2728,26.8894,8.3084,0.1791,8.5268,2.4459
250.0000,41.2069,10.1759,-1.1935,-1.2299,-10.0444,18.4703,4.4757,2.4696,10.9099,39.2662,12.5731,0.1363,-2.3743,-9.5299,18.2538,5.5886,1.3456,-0.0644,-4.5270
253.9062,35.5816,5.1440,-5.1146,-4.0683,-9.7765,14.2397,2.5925,0.7708,5.2696,32.9204,7.2144,-5.7271,-4.0087,-5.5949,13.1844,4.7121,3.8479,-6.6892,-8.4778
257.8125,34.8251,3.2603,-5.5528,-4.4749,-7.9489,11.7768,2.1200,0.2951,3.2688,32.8167,5.9934,-7.2125,-2.4987,-0.0969,13.6318,5.9058,7.2297,-9.3462,-8.2847
261.7188,38.2441,4.4554,-3.0406,-2.8020,-5.1964,11.3694,2.4677,0.6934,4.7690,38.1075,8.4671,-4.7484,0.8300,5.3504,18.0678,8.0898,10.1576,-7.9218,-4.7854
265.6250,42.4635,7.1702,0.6860,-0.0875,-2.5069,12.1033,2.6999,1.2475,7.9409,44.7761,12.3227,-0.4441,3.8759,8.9041,22.7876,9.6902,11.1374,-3.9410,-0.0615
269.5312,43.9005,9.4572,3.8048,2.6642,-0.6221,12.6303,2.2708,1.4548,10.5801,48.4497,15.0286,3.4269,5.1249,9.4871,24.5139,9.7539,9.4791,0.5271,3.9231
273.4375,41.2409,10.1685,5.4429,5.0386,0.4096,12.1536,1.4349,1.4181,11.4614,47.2487,15.4146,5.7879,4.5778,7.4121,22.4721,8.5609,5.8700,4.0426,6.4281
277.3438,36.2289,9.4737,5.9775,7.2478,1.1973,10.9623,1.0303,1.7425,10.8602,42.7614,14.1356,7.0790,3.6413,4.2166,18.5903,7.3146,2.1108,6.3354,8.1063
281.2500,32.3181,8.4740,6.4862,9.6823,2.4815,10.1767,1.8035,3.0030,10.0277,38.6171,12.8469,8.4664,4.0840,1.7715,15.8680,7.1802,0.1118,8.0161,10.2237
285.1562,32.2352,8.3054,7.8131,12.3571,4.4689,10.9107,3.7820,5.1753,10.1415,37.8289,12.8455,10.6696,6.7742,1.1992,16.2085,8.4108,0.7616,9.8279,13.5425
289.0625,36.2047,9.4032,9.9320,14.6857,6.5026,13.4419,6.1649,7.4660,11.5286,40.8481,14.2181,13.3232,11.0372,2.2672,19.2502,10.2020,3.3969,12.0379,17.6501
292.9688,42.0105,11.3813,12.0114,15.7512,7.3332,16.9524,7.8101,8.7000,13.6373,45.6159,16.0305,15.2846,15.0187,3.6167,22.8746,11.3371,6.2192,14.3316,21.1415
296.8750,46.7029,13.4764,13.0564,14.8765,5.8506,20.0021,7.9687,8.0301,15.6139,49.3657,17.2403,15.5316,16.7678,3.6573,24.8270,11.0856,7.3806,16.1378,22.4608
300.7812,48.6250,15.1254,12.6152,12.0909,1.8182,21.4049,6.7513,5.4995,16.9328,50.6994,17.5159,13.8924,15.3175,1.5494,24.1928,9.6620,6.0389,17.0182,20.8032
304.6875,48.3260,16.2391,11.0542,8.1859,-3.8568,20.9377,5.0240,2.0871,17.5989,50.4037,17.3291,11.0717,11.1239,-2.3136,21.7521,7.9389,2.7417,16.8154,16.5269
308.5938,47.8500,17.0515,9.2698,4.3491,-9.4823,19.4449,3.8427,-0.7912,17.8790,50.5465,17.3645,8.0586,5.7081,-6.5561,19.1730,6.7116,-1.0171,15.5478,10.9175
312.5000,49.0802,17.7721,8.1102,1.6374,-13.3423,18.3041,3.8341,-2.0016,17.9148,52.7095,17.8460,5.4849,0.8513,-9.5711,17.8228,6.1441,-3.6859,13.2782,5.5671
316.4062,52.4047,18.3711,7.9322,0.6033,-14.4107,18.6015,4.9176,-1.1964,17.6052,56.7611,18.3863,3.4580,-2.1243,-10.2801,18.0875,5.8277,-4.3847,10.1615,1.7799
320.3125,56.5795,18.6471,8.5472,1.2317,-12.6531,20.5081,6.4839,1.1522,16.8364,61.0243,18.4499,1.9169,-2.6591,-8.4953,19.5231,5.3506,-3.0922,6.6365,0.2659
324.2188,59.7021,18.4559,9.4900,3.1114,-8.8427,23.1877,7.8298,4.1319,15.7856,63.5486,17.9644,1.0777,-0.8729,-4.7991,21.4632,4.8378,-0.3410,3.5143,1.1105
328.1250,60.4407,17.8561,10.3414,5.6596,-4.1012,25.2478,8.5315,6.8887,14.9489,63.4027,17.4916,1.4753,2.6530,-0.1511,23.4506,4.9597,3.2083,1.7498,3.8656
332.0312,58.6392,17.0470,10.8800,8.2648,0.5349,25.4655,8.5578,8.9470,14.8148,61.0302,17.7782,3.5045,7.0363,4.4811,25.1867,6.3671,6.9808,1.9498,7.6581
335.9375,55.0428,16.1903,11.0404,10.3579,4.3373,23.4150,8.1520,10.2338,15.4497,57.5675,19.0712,6.8582,11.2052,8.3069,26.2370,9.0196,10.4374,3.9451,11.3517
339.8438,50.5924,15.3221,10.8195,11.4912,6.9067,19.7074,7.6482,10.9006,16.3869,53.8579,20.8103,10.4111,14.1006,10.7538,25.9766,11.9929,12.9810,6.7812,13.8429
343.7500,45.9476,14.4540,10.2654,11.4659,8.1128,15.7475,7.3531,11.1256,16.9636,50.0288,22.0030,12.7570,15.0167,11.4913,23.9888,13.9871,14.0526,9.2016,14.4548
347.6562,41.5280,13.7573,9.5390,10.4358,8.0500,13.1186,7.4979,11.0199,16.8601,45.8972,21.9973,13.0589,13.9283,10.5010,20.6195,14.1865,13.4229,10.3321,13.2328
351.5625,37.8096,13.6044,8.9259,8.8726,7.0056,12.8623,8.1826,10.6361,16.3874,41.6846,21.0133,11.5724,11.5403,8.1333,17.1221,12.8214,11.4340,10.0989,10.9113
355.4688,35.3886,14.3475,8.7082,7.3523,5.3900,14.9712,9.2841,10.0048,16.2471,38.2609,19.9691,9.4215,8.9317,5.0382,15.0878,10.9917,8.9195,9.1047,8.5018
359.3750,34.6196,15.9656,8.9574,6.2712,3.6060,18.3483,10.4051,9.1437,16.9236,36.5943,19.7177,7.7773,6.9576,1.9421,15.4514,9.8722,6.7680,8.0803,6.7233
363.2812,35.1428,17.8795,9.4344,5.6791,1.9222,21.2953,10.9842,8.0534,18.1914,36.8580,20.3100,7.0522,5.7925,-0.6233,17.7923,9.8980,5.4032,7.3419,5.6473
367.1875,35.8435,19.1656,9.7312,5.3554,0.4370,22.3368,10.5873,6.7467,19.1710,38.0300,20.8994,6.7133,4.9418,-2.4705,20.5161,10.5348,4.5663,6.6583,4.8063
371.0938,35.4862,19.0992,9.5962,5.0721,-0.8381,20.9821,9.2292,5.3209,18.9408,38.4736,20.3974,5.8327,3.7242,-3.6897,21.8678,10.7840,3.5836,5.5986,3.6904
375.0000,33.6541,17.6766,9.1966,4.8391,-1.8500,18.0081,7.4853,4.0158,17.2655,37.1589,18.3834,3.9287,1.8822,-4.4321,21.0821,10.0097,1.9420,4.0524,2.2684
378.9062,31.2500,15.7169,9.0725,4.9327,-2.4504,15.0674,6.2513,3.1791,14.8754,34.5769,15.5490,1.4428,-0.1261,-4.7163,18.8360,8.4430,-0.2512,2.4883,1.1361
382.8125,30.0321,14.4135,9.7544,5.6719,-2.4716,13.7983,6.2476,3.1190,13.0526,32.5415,13.3082,-0.5031,-1.3728,-4.4025,16.6756,6.9930,-2.2653,1.7307,1.1608
386.7188,31.3738,14.5962,11.2986,7.1118,-1.8707,14.9182,7.5714,3.9200,12.8008,32.9037,12.8482,-0.8630,-1.0656,-3.3354,15.8558,6.5405,-3.2034,2.4194,2.8638
390.6250,35.0992,16.1942,13.1008,8.8971,-0.8065,17.8235,9.6030,5.3503,14.1945,36.0777,14.3226,0.6411,0.9252,-1.5205,16.4743,7.2862,-2.5773,4.5618,5.9801
394.5312,39.3028,18.2719,14.1867,10.4078,0.4341,20.9345,11.3503,6.9393,16.3753,40.5026,16.7807,3.3890,3.9874,0.8193,17.5423,8.6566,-0.5849,7.5091,9.5199
398.4375,41.4129,19.6235,13.8293,11.1070,1.6088,22.5834,12.0160,8.1890,18.1820,43.5224,18.8640,6.3385,7.1684,3.3473,17.9022,9.8179,2.0845,10.3618,12.3002
402.3438,39.8440,19.5296,12.0786,10.8454,2.6406,21.9117,11.4194,8.7828,18.9392,43.1230,19.7353,8.7054,9.7408,5.7744,17.2465,10.3625,4.7278,12.4946,13.5922
406.2500,35.0983,18.1702,9.8114,9.9029,3.5653,19.2510,10.0078,8.6618,18.8298,39.3057,19.5581,10.3370,11.5220,7.9297,16.4111,10.6078,7.0019,13.8184,13.4545
410.1562,29.5022,16.4390,8.2235,8.7454,4.3357,15.7999,8.4785,7.9358,18.6065,34.1050,19.2067,11.5530,12.7508,9.6786,16.6889,11.2614,8.9227,14.6232,12.5532
414.0625,25.7037,15.3102,8.0798,7.6803,4.6600,12.8526,7.2953,6.7264,18.8930,30.2179,19.4671,12.6526,13.6701,10.7801,18.6792,12.7154,10.5406,15.1660,11.6258
417.9688,24.9393,15.2021,9.2168,6.6701,4.0599,11.0960,6.4362,5.0788,19.6168,29.2009,20.3454,13.5162,14.1751,10.8490,21.5711,14.5376,11.6136,15.3458,10.9721
421.8750,26.2558,15.7524,10.6338,5.4360,2.1793,10.3940,5.5186,3.0181,19.9940,30.4854,20.9843,13.6107,13.8122,9.5235,23.4573,15.5894,11.5954,14.7184,10.3122
425.7812,27.2210,16.1131,11.1147,3.7639,-0.8483,10.1189,4.1758,0.6942,19.0646,31.8693,20.2288,12.3706,12.1291,6.7640,22.5167,14.7380,9.9934,12.8306,9.0764
429.6875,25.6285,15.5231,9.9653,1.7723,-4.2600,9.7166,2.3873,-1.5275,16.3789,31.1005,17.4232,9.6460,9.1014,3.0736,18.2547,11.6748,6.8385,9.6156,6.8987
433.5938,21.0290,13.7599,7.3916,-0.0747,-6.9252,9.0795,0.5284,-3.1447,12.3482,27.4371,12.8944,5.8880,5.3106,-0.5606,11.9345,7.2553,2.8913,5.5575,3.9585
437.5000,15.0694,11.2009,4.2976,-1.2394,-7.9129,8.4912,-0.8786,-3.7587,8.0366,22.1385,7.8305,1.9588,1.7266,-3.0360,5.8979,3.0972,-0.6163,1.5095,0.9426
441.4062,10.4598,8.5176,1.6795,-1.4879,-7.0352,8.2572,-1.5116,-3.3352,4.5655,17.6283,3.6762,-1.2801,-0.7670,-3.6332,2.2439,0.6810,-2.5754,-1.7073,-1.3399
445.3125,9.3090,6.2658,0.0409,-1.1089,-5.0133,8.3665,-1.4434,-2.3043,2.5508,15.9745,1.4493,-3.3276,-1.8025,-2.3639,1.7468,0.5334,-2.5647,-3.6627,-2.4291
449.2188,11.9451,4.6576,-0.7924,-0.8038,-3.1309,8.4751,-1.0587,-1.4021,1.9180,17.7284,1.3656,-4.1596,-1.6573,0.0368,3.6778,2.0108,-1.0353,-4.4248,-2.4640
453.1250,16.9282,3.6236,-1.3844,-1.2920,-2.5596,8.2278,-0.7767,-1.3158,2.1486,21.8198,2.9118,-4.0940,-1.0296,2.4659,6.5362,3.7925,0.9780,-4.3900,-2.0578
457.0312,22.1162,3.0443,-2.1784,-2.8609,-3.7454,7.6427,-0.7895,-2.3219,2.7179,26.4244,5.2259,-3.5404,-0.6285,3.9500,9.0825,4.7281,2.4152,-3.9765,-1.8832
460.9375,25.9616,2.9247,-3.1429,-5.1343,-6.2094,7.2190,-0.9929,-4.1244,3.3962,30.0905,7.5151,-2.7936,-0.8257,4.0165,10.9336,4.4756,2.6747,-3.3870,-2.2364
464.8438,28.1593,3.3678,-3.8100,-7.2094,-8.8534,7.6306,-1.1331,-5.9909,4.2372,32.3407,9.2960,-1.9653,-1.5472,2.7710,12.3803,3.5360,1.7690,-2.5707,-2.8537
468.7500,29.3245,4.3918,-3.6411,-8.0994,-10.5680,9.1970,-1.0352,-7.1192,5.3313,33.4564,10.4040,-1.0542,-2.4188,0.6996,13.6939,2.7162,0.1357,-1.3787,-3.0965
472.6562,30.0969,5.7744,-2.4319,-7.2413,-10.7818,11.5185,-0.7348,-7.0375,6.5601,33.7814,10.8599,-0.0909,-3.0443,-1.6380,14.5501,2.4320,-1.7084,0.2095,-2.3877
476.5625,30.4412,7.0905,-0.4577,-4.7909,-9.6656,13.5795,-0.4211,-5.8294,7.5639,33.1930,10.7323,0.7345,-3.2431,-3.8369,14.0671,2.3542,-3.4328,1.9439,-0.6226
480.4688,29.6868,7.9477,1.7275,-1.5463,-7.9295,14.3048,-0.2510,-4.0674,7.9501,31.1844,10.0876,1.0584,-3.1234,-5.7012,11.4570,1.6533,-4.9455,3.3494,1.7108
484.3750,27.2388,8.2526,3.6677,1.4541,-6.3856,13.2280,-0.1906,-2.5029,7.5866,27.4677,9.0385,0.4946,-2.9708,-7.1564,6.8054,-0.3302,-6.2684,3.9526,3.7888
488.2812,23.3633,8.2887,5.2604,3.4320,-5.5465,10.8291,-0.0208,-1.6849,6.7547,22.5741,7.8203,-1.0917,-3.0292,-8.1351,1.3741,-3.4650,-7.3730,3.5695,4.9281
492.1875,19.3800,8.5139,6.7018,4.1903,-5.4655,8.3003,0.4815,-1.7167,6.0345,17.9029,6.8042,-3.3421,-3.3096,-8.5375,-2.8610,-6.7179,-8.1095,2.4800,4.9776
496.0938,17.0315,9.1945,8.1733,4.0908,-5.8549,6.8684,1.3149,-2.2701,5.9761,15.0746,6.3889,-5.3948,-3.5449,-8.2904,-4.2039,-8.6774,-8.2736,1.3579,4.3669
500.0000,17.4075,10.1363,9.5318,3.7269,-6.3590,7.0926,2.1591,-2.8335,6.7613,14.9644,6.8041,-6.2083,-3.3280,-7.4461,-2.1711,-8.3993,-7.7481,0.9546,3.7830
503.9062,20.1490,10.7348,10.2769,3.5158,-6.7929,8.5695,2.5190,-3.0307,8.0730,17.0629,7.9377,-5.1013,-2.3601,-6.2279,2.1986,-6.0215,-6.6136,1.6967,3.6952
507.8125,23.4986,10.3525,9.8669,3.4725,-7.2053,10.2150,2.0495,-2.8171,9.2687,19.6304,9.3267,-2.1951,-0.6544,-4.9659,6.8384,-2.7184,-5.1429,3.4374,4.0627
511.7188,25.2157,8.7910,8.1823,3.3028,-7.7450,10.9260,0.8563,-2.4403,9.7607,20.6026,10.3656,1.5649,1.4416,-3.9449,9.6617,0.0025,-3.6721,5.5352,4.4326
515.6250,23.8095,6.5263,5.7913,2.7288,-8.4369,10.2027,-0.4472,-2.2084,9.3724,18.7153,10.6395,4.8891,3.4352,-3.2521,9.5286,1.2144,-2.4216,7.2357,4.3544
519.5312,19.3405,4.5058,3.7698,1.7964,-9.0313,8.3596,-1.0197,-2.2354,8.4389,14.1667,10.1719,6.8579,4.9655,-2.7286,6.6851,1.0862,-1.3828,8.1199,3.7985
523.4375,13.3206,3.5954,3.1247,0.9235,-9.0523,6.2350,-0.2791,-2.3459,7.5769,8.4273,9.3965,7.3994,5.9769,-2.0718,2.5123,0.6483,-0.3560,8.3195,3.2468
527.3438,7.8032,4.0156,4.1618,0.6335,-8.0475,4.6202,1.6893,-2.2091,7.2578,3.3394,8.8336,7.1907,6.6538,-1.0447,-1.2211,0.9678,0.8585,8.3386,3.3569
531.2500,4.2402,5.1478,6.2211,1.1539,-5.9041,3.7845,4.0800,-1.6052,7.4546,0.0782,8.6725,7.0415,7.1600,0.3298,-3.2024,2.3077,2.2257,8.5989,4.4237
535.1562,2.7791,5.8698,7.9949,2.1829,-3.0256,3.3815,5.7490,-0.6251,7.6054,-1.3951,8.5605,7.2073,7.3847,1.7170,-3.1336,3.8675,3.3578,9.0381,6.0358
539.0625,2.3673,5.2381,8.2738,3.0221,-0.2223,2.7617,5.8358,0.3579,6.9417,-2.1027,7.7835,7.1561,6.9160,2.6155,-1.7964,4.3026,3.6285,9.0754,7.2155
542.9688,1.5238,3.0944,6.6718,3.0219,1.6671,1.4638,4.2622,0.9421,4.9899,-3.2512,5.7500,5.9895,5.3062,2.6312,-0.6341,2.6693,2.4998,8.0068,6.9909
546.8750,-0.7283,0.2046,3.8728,2.0464,2.2245,-0.4322,1.7943,1.0058,1.9326,-5.4128,2.4566,3.2226,2.4659,1.7240,-1.0413,-0.8629,-0.1122,5.5706,5.0336
550.7812,-4.3125,-2.1684,1.2351,0.6265,1.6995,-2.3069,-0.3820,0.8420,-1.4125,-8.1975,-1.3991,-0.6656,-1.1026,0.2712,-3.6565,-5.0342,-3.6636,2.2743,1.9256
554.6875,-8.1885,-2.9961,-0.0024,-0.3331,0.8836,-3.3441,-1.3194,1.0011,-3.9951,-10.5708,-4.7547,-4.3592,-4.4388,-1.1029,-7.9626,-8.2349,-7.1415,-0.7840,-1.1382
558.5938,-10.9487,-2.0651,0.5847,-0.1191,0.6614,-3.0025,-0.7998,1.9263,-5.0740,-11.5424,-6.7479,-6.4611,-6.5786,-1.8378,-12.4072,-9.4466,-9.4964,-2.5157,-3.0251
562.5000,-11.5319,-0.0556,2.4321,1.3175,1.4994,-1.3404,0.6319,3.6209,-4.5709,-10.7436,-7.1310,-6.3600,-7.0522,-1.7068,-15.0489,-8.7413,-10.1117,-2.4769,-3.2766
566.4062,-9.6730,1.9051,4.4069,3.2967,3.1822,0.9838,2.0793,5.5778,-3.0358,-8.5416,-6.2749,-4.5957,-6.0993,-0.8866,-14.4771,-7.0338,-9.0396,-1.1131,-2.2755
570.3125,-5.9277,2.9080,5.5137,4.7917,4.9516,3.0242,2.8565,7.0300,-1.2818,-5.6921,-4.8124,-2.4651,-4.4666,0.1989,-10.5635,-5.3289,-6.8785,0.5486,-0.9005
574.2188,-1.3622,2.7243,5.4171,5.0059,5.9535,3.9947,2.8265,7.3638,0.0555,-2.8487,-3.2229,-1.1604,-2.9360,1.1464,-4.6242,-4.0470,-4.3987,1.5437,0.0587
578.1250,2.8653,1.8089,4.4741,3.7767,5.7046,3.6139,2.3300,6.4323,0.7632,-0.2987,-1.6644,-1.0496,-1.9094,1.7747,1.1608,-2.9091,-2.1693,1.5195,0.3262
582.0312,5.8418,0.9057,3.3311,1.5839,4.3034,2.1865,1.8132,4.5848,0.9987,1.9322,-0.1197,-1.5769,-1.3063,2.1423,4.8096,-1.4058,-0.4091,0.8467,0.1665
585.9375,7.0980,0.5611,2.4318,-0.7828,2.2968,0.4125,1.4714,2.4293,1.0545,3.7866,1.3466,-1.7914,-0.7887,2.4079,5.5176,0.5769,0.9014,0.2710,0.0781
589.8438,6.7089,0.8740,1.8063,-2.6248,0.3463,-0.9418,1.1792,0.5202,1.1546,5.0318,2.5073,-1.0676,-0.0897,2.6643,3.9999,2.5059,1.8064,0.3944,0.4366
593.7500,5.3347,1.6036,1.2631,-3.5399,-1.0600,-1.3296,0.7377,-0.8109,1.4239,5.4649,3.1699,0.5122,0.8208,2.8858,1.9994,3.5355,2.2691,1.3531,1.3443
597.6562,4.1535,2.4934,0.7805,-3.3624,-1.6835,-0.5396,0.2082,-1.4042,1.9955,5.3401,3.4753,2.3364,1.8321,3.0206,1.2654,3.1688,2.2598,2.8674,2.7328
601.5625,4.5899,3.5355,0.7344,-1.9941,-1.4336,1.3569,0.0309,-1.1105,3.0921,5.6249,3.9869,3.7938,2.9128,3.1331,2.6219,1.7205,1.9321,4.5474,4.5471
605.4688,7.8016,4.9670,1.7313,0.6471,-0.2592,4.1268,0.7907,0.2791,4.9475,7.7313,5.4022,4.7092,4.2123,3.4507,5.6681,0.2057,1.6791,6.1682,6.7933
609.3750,14.0628,7.0126,4.1245,4.4669,1.8150,7.4498,2.7747,2.8996,7.5845,12.7198,8.0381,5.3668,5.9108,4.2397,9.2185,-0.2842,1.9523,7.6957,9.3853
613.2812,22.3541,9.5756,7.5641,8.9502,4.5188,10.9075,5.6455,6.5471,10.6183,20.4114,11.4640,6.1562,7.9207,5.5761,12.1126,0.7247,2.9285,9.0843,11.9316
617.1875,30.4793,12.1201,10.9420,13.0853,7.2077,13.9542,8.4946,10.5026,13.2739,29.0342,14.5986,7.1620,9.7026,7.1759,13.8168,2.8103,4.2734,10.0603,13.6943
621.0938,35.8197,13.8512,12.8445,15.6261,8.9623,15.9781,10.2824,13.6481,14.6688,35.7930,16.2596,8.0248,10.4089,8.4370,14.4576,4.9626,5.2218,10.1208,13.8424
625.0000,36.4724,14.0940,12.2764,15.6216,8.9519,16.4988,10.3963,14.8870,14.2217,38.1864,15.8179,8.1578,9.3261,8.7054,14.3743,6.2251,4.9801,8.7947,11.8943
628.9062,32.2240,12.6430,9.2236,12.9205,6.8783,15.4223,8.9695,13.6634,11.9421,35.3673,13.5146,7.1298,6.3450,7.6237,13.6327,6.2107,3.2128,5.9960,8.0788
632.8125,24.7978,9.8781,4.7038,8.3272,3.2141,13.1810,6.7626,10.2721,8.4265,28.7214,10.2408,4.9286,2.1293,5.3476,11.9286,5.1742,0.2848,2.2124,3.3604
636.7188,17.1482,6.5891,0.2695,3.2786,-0.9545,10.6183,4.6962,5.7564,4.5707,21.2491,6.9609,1.9560,-2.1635,2.4899,8.9620,3.6730,-2.9224,-1.6215,-0.9263
640.6250,12.1013,3.6258,-2.7471,-0.7997,-4.4239,8.6291,3.3458,1.4372,1.1850,16.0532,4.2065,-1.1839,-5.4546,-0.1851,4.9556,2.1337,-5.5139,-4.5067,-3.6503
644.5312,11.0461,1.5712,-3.8174,-3.1036,-6.4297,7.7422,2.7093,-1.6639,-1.2649,14.7913,1.9780,-3.9203,-7.2582,-2.1368,0.8547,0.6519,-7.0769,-5.7987,-4.3595
648.4375,13.3934,0.5922,-3.3329,-3.6999,-6.9411,7.8941,2.3566,-3.1932,-2.6807,16.9888,0.0628,-5.8494,-7.8266,-3.2771,-2.0206,-0.8807,-7.8430,-5.4411,-3.4168
652.3438,17.0941,0.4969,-2.2495,-3.3176,-6.5402,8.5357,1.8119,-3.4525,-3.1799,20.5701,-1.5431,-6.7724,-7.8652,-3.9312,-2.6728,-2.4961,-8.4228,-3.9276,-1.7543
656.2500,19.8894,0.9100,-1.5203,-2.8473,-5.9905,8.9995,0.8911,-3.0736,-2.9331,23.2164,-2.4827,-6.7178,-8.0294,-4.5755,-1.0002,-3.9857,-9.3075,-2.0614,-0.4004
660.1562,20.5354,1.4422,-1.6510,-2.8616,-5.7813,8.8825,-0.2192,-2.6170,-2.1186,23.6707,-2.2873,-5.9764,-8.5363,-5.5221,2.1502,-4.9885,-10.4854,-0.6586,-0.0284
664.0625,19.2966,1.7790,-2.5805,-3.4071,-5.9137,8.2048,-1.1494,-2.3309,-0.9868,22.2200,-0.8260,-5.0766,-9.1109,-6.7337,5.4707,-5.2409,-11.4241,-0.3089,-0.7260
667.9688,17.4924,1.7043,-3.8670,-4.1201,-6.0148,7.2781,-1.6266,-2.1600,0.0826,20.1789,1.4225,-4.6109,-9.2473,-7.8557,7.8752,-4.7726,-11.4155,-1.2300,-2.0534
671.8750,16.4980,1.1218,-4.9913,-4.5263,-5.6516,6.4315,-1.6335,-1.9177,0.6584,18.8657,3.5268,-4.9305,-8.5715,-8.4192,8.9334,-3.8883,-10.0339,-3.2079,-3.3160
675.7812,16.9112,0.1171,-5.5802,-4.3115,-4.6213,5.8264,-1.3496,-1.4562,0.4776,18.8306,4.6174,-5.8807,-7.0584,-8.0795,8.8503,-2.9586,-7.4013,-5.6272,-3.9015
679.6875,18.4069,-0.9785,-5.4629,-3.4241,-3.0487,5.4881,-0.9550,-0.7240,-0.3271,19.8112,4.4139,-6.7965,-4.9992,-6.7636,8.1305,-2.1840,-4.1052,-7.6231,-3.5274
683.5938,20.2637,-1.6165,-4.6165,-2.0143,-1.2839,5.4711,-0.4758,0.2717,-1.1822,21.2887,3.3993,-6.8363,-2.7929,-4.6771,7.2509,-1.5021,-0.8545,-8.3663,-2.3097
687.5000,22.0593,-1.2235,-3.1133,-0.3153,0.2870,5.9510,0.1945,1.5010,-1.3101,23.0767,2.5143,-5.4894,-0.7385,-2.2099,6.5596,-0.6832,1.8761,-7.4070,-0.6493
691.4062,23.9565,0.4844,-1.1369,1.4288,1.3782,7.1037,1.1112,2.8679,-0.1597,25.4147,2.5773,-2.9361,1.0358,0.1821,6.3532,0.4733,3.9860,-4.9220,0.9836
695.3125,26.3775,3.2342,0.9713,2.9629,1.8345,8.8464,2.0890,4.1231,2.2202,28.5092,3.8079,0.0016,2.4991,2.0646,6.9134,1.9844,5.6168,-1.7001,2.2539
699.2188,29.3827,6.1816,2.7302,4.0088,1.5955,10.6840,2.6861,4.8431,5.1187,31.9716,5.7530,2.3125,3.5991,3.0788,8.3579,3.6526,6.8839,1.1833,3.0585
703.1250,32.3196,8.2426,3.6649,4.3168,0.6722,11.8685,2.4206,4.5711,7.4985,34.7203,7.6299,3.3709,4.2121,2.9945,10.4055,5.1508,7.6851,2.8728,3.4877
707.0312,34.0869,8.6423,3.5335,3.7866,-0.8264,11.8327,1.1048,3.0853,8.5622,35.5409,8.8352,3.2614,4.2007,1.7769,12.3223,6.1522,7.7217,3.1567,3.6996
710.9375,33.8475,7.3765,2.4929,2.5831,-2.6576,10.6035,-0.9362,0.6291,8.2122,33.9280,9.2769,2.6510,3.5232,-0.3578,13.2319,6.4406,6.7058,2.5601,3.7964
714.8438,31.6407,5.2773,1.0692,1.1338,-4.4717,8.8548,-2.9419,-2.0867,7.1117,30.5421,9.3373,2.3112,2.2976,-2.9558,12.6739,5.9715,4.5967,2.0339,3.7754
718.7500,28.4058,3.5972,-0.0854,-0.0378,-5.9279,7.5026,-4.0888,-4.1751,6.2919,26.8707,9.5322,2.6189,0.7718,-5.4429,11.0325,4.8828,1.7007,2.4062,3.5693
722.6562,25.3953,3.3343,-0.5143,-0.5706,-6.8494,7.1082,-3.9453,-5.0178,6.5493,24.3002,10.1390,3.3652,-0.7697,-7.3148,9.4762,3.4605,-1.4249,3.9133,3.1366
726.5625,23.4411,4.7137,-0.1469,-0.4541,-7.3078,7.5391,-2.7149,-4.5952,8.0194,23.2951,11.0619,3.9769,-2.0795,-8.3063,9.3593,2.0653,-4.1876,6.0940,2.5411
730.4688,22.6434,7.1546,0.7725,-0.0067,-7.5623,8.1716,-1.0917,-3.4748,10.1980,23.3190,12.0189,3.9861,-2.9424,-8.4428,11.4280,1.0422,-6.1525,8.1152,1.9830
734.3750,22.6733,9.7290,1.9643,0.3642,-7.8728,8.4900,0.1961,-2.4493,12.3710,23.5394,12.8851,3.4267,-3.1177,-7.9416,15.3360,0.6459,-7.1077,9.3255,1.7679
738.2812,23.3371,11.7708,3.3771,0.4676,-8.3095,8.5924,0.8541,-2.0498,14.1206,23.6948,13.8935,2.8987,-2.3216,-7.0364,19.7768,1.0073,-7.0111,9.6819,2.2215
742.1875,24.8151,13.1913,5.2059,0.4789,-8.6974,9.1385,1.1731,-2.2549,15.5193,24.3342,15.4860,3.2520,-0.3361,-5.8525,23.1342,2.1285,-5.9120,9.7588,3.5550
746.0938,27.2839,14.2831,7.6088,0.8027,-8.7508,10.7077,1.7402,-2.5887,16.8656,26.1465,17.8693,5.0668,2.7714,-4.4268,24.2409,3.8679,-3.9445,10.3131,5.7092
750.0000,30.2438,15.2022,10.3199,1.7186,-8.3172,13.0524,2.9002,-2.5312,18.1826,28.9114,20.5918,8.2247,6.4518,-2.8511,22.8258,5.8996,-1.4007,11.6755,8.2416
753.9062,32.2567,15.5952,12.4904,3.0581,-7.5541,14.9106,4.3609,-1.9402,18.9233,31.0464,22.5183,11.8194,9.6860,-1.4088,19.5016,7.6966,1.2092,13.3809,10.3565
757.8125,31.5839,14.7465,12.9819,4.1708,-6.8937,14.6863,5.2662,-1.1773,18.2081,30.3682,22.3562,14.4838,11.3028,-0.5547,15.4352,8.6264,3.2276,14.3275,11.1488
761.7188,27.4755,12.2086,11.0249,4.2622,-6.7857,11.6342,4.7464,-0.8377,15.5109,25.7295,19.4961,14.9991,10.5058,-0.6986,11.9491,8.2028,4.0842,13.4225,10.0140
765.6250,21.1917,8.4433,6.8473,2.9146,-7.3757,6.7055,2.5961,-1.2790,11.3126,18.3529,14.6325,12.8910,7.3380,-1.9109,10.1821,6.3969,3.5896,10.3333,7.0338
769.5312,15.8104,4.9041,1.8152,0.4457,-8.3440,2.3286,-0.4023,-2.2967,7.1665,11.6908,9.6695,8.7027,2.7794,-3.7668,10.7846,3.7960,2.0913,5.8519,3.0778
773.4375,14.6448,3.3468,-2.1146,-2.1707,-9.0434,1.0998,-2.7934,-3.1988,4.9758,9.5952,6.8202,3.7691,-1.6480,-5.4841,13.6158,1.4165,0.3459,1.5824,-0.5257
777.3438,19.1428,4.7355,-3.3841,-3.8173,-8.8812,4.1580,-3.2568,-3.2467,5.8520,13.8501,7.3517,-0.4195,-4.6044,-6.3218,17.5663,0.1868,-0.8691,-0.9147,-2.6422
781.2500,27.6780,8.4838,-1.6944,-3.8723,-7.7121,10.3322,-1.4111,-2.1597,9.2912,22.7425,10.7382,-2.9414,-5.5899,-6.0083,20.7591,0.3783,-1.1862,-1.0258,-2.9524
785.1562,36.1804,12.6164,1.8058,-2.5628,-5.9767,16.6939,1.9171,-0.3266,13.2766,31.7790,14.8081,-3.8458,-5.1415,-4.9134,21.2620,1.3829,-0.8452,0.5304,-2.1402
789.0625,40.3482,14.8337,5.1461,-0.7941,-4.4731,20.2119,5.1523,1.4307,15.3289,36.2222,16.8796,-3.9910,-4.4288,-3.8279,18.0865,2.0605,-0.5028,2.0966,-1.4789
792.9688,38.0714,13.8196,6.6080,0.4348,-3.8850,19.4538,6.8746,2.3807,13.8848,33.8328,15.2314,-4.4064,-4.4829,-3.4665,11.9046,1.5005,-0.7536,2.0284,-2.0279
796.8750,30.5065,9.9351,5.5967,0.6419,-4.3619,15.2459,6.5925,2.3305,9.1347,26.0149,10.0195,-5.5794,-5.5281,-4.0137,4.9248,-0.2948,-1.6690,-0.3725,-3.9366
800.7812,21.1479,4.8551,2.8082,0.0983,-5.4246,9.9250,4.9076,1.6953,2.8022,16.6575,3.0874,-7.1278,-6.8404,-5.0088,-0.1736,-2.3039,-2.6725,-4.5035,-6.3153
804.6875,13.6171,0.4387,-0.3426,-0.4448,-6.2643,5.7808,3.0144,1.1582,-2.9417,9.5668,-3.1593,-8.0817,-7.2230,-5.6514,-1.6941,-3.0954,-2.8609,-8.8695,-7.7742
808.5938,9.7198,-2.3468,-2.6001,-0.3208,-6.2454,3.7897,1.9127,1.1797,-6.6703,6.3256,-7.0500,-7.5862,-5.7949,-5.3246,0.1432,-1.7787,-1.5819,-11.9542,-7.2896
812.5000,9.0305,-3.7135,-3.4715,0.6026,-5.2915,3.4462,1.8693,1.7051,-8.2193,6.0077,-8.2933,-5.5444,-2.5915,-3.9902,3.4365,1.3495,1.1038,-12.9901,-4.8338
816.4062,10.0598,-4.4358,-3.2321,1.8882,-3.9117,3.6431,2.4389,2.2621,-8.2872,6.7319,-7.6536,-2.7541,1.3982,-2.2078,5.8962,4.9360,4.3808,-12.1805,-1.3694
820.3125,11.8895,-4.9059,-2.4598,2.8917,-2.8669,3.7918,2.9389,2.3477,-7.5567,7.6568,-6.0511,-0.4417,4.7601,-0.7876,6.3433,7.4111,7.0892,-10.3325,1.7552
824.2188,14.8914,-4.6711,-1.5314,3.2271,-2.7031,4.2687,2.9739,1.8060,-6.0869,9.7457,-3.8452,0.4815,6.3977,-0.3324,5.3880,7.9666,8.3199,-8.2433,3.5760
828.1250,19.9727,-2.8493,-0.4644,2.9886,-3.4526,5.8773,2.6320,0.9266,-3.4543,14.6688,-0.8386,-0.0698,6.0285,-0.9664,4.8201,6.9916,7.8215,-6.2930,3.9400
832.0312,27.0526,0.9094,0.8467,2.5969,-4.6666,8.8342,2.2748,0.2178,0.5269,22.7576,3.0892,-1.4072,4.1713,-2.3895,6.1613,5.6754,5.9914,-4.4655,3.3619
835.9375,34.1661,5.7286,2.2883,2.4274,-5.7224,12.1817,2.1648,0.0478,5.1691,31.7694,7.3428,-2.6028,1.7142,-4.1517,9.4329,5.0863,3.5190,-2.6687,2.5020
839.8438,38.1537,9.7283,3.4357,2.5289,-6.1771,14.1976,2.2652,0.4236,8.9759,37.6809,10.6011,-3.0940,-0.5995,-5.9051,13.0431,5.4081,0.9729,-1.0169,1.6956
843.7500,36.6410,11.1159,3.8252,2.6390,-5.9511,13.5697,2.3563,1.0467,10.4679,37.1823,11.5538,-2.9354,-2.4354,-7.4556,14.8856,5.8811,-1.3810,0.1755,0.8629
847.6562,29.9129,9.3922,3.3576,2.4463,-5.2724,10.4571,2.3174,1.5606,9.1920,30.1487,9.8592,-2.5783,-3.7870,-8.6335,13.8558,5.4645,-3.4553,0.6523,-0.2120
851.5625,21.2007,5.7649,2.4569,1.8581,-4.4788,6.5846,2.2787,1.7695,6.1319,20.2110,6.5589,-2.4196,-4.7123,-9.1619,10.6813,3.7050,-5.0887,0.4589,-1.5330
855.4688,14.9629,2.3973,1.7903,1.0469,-3.8424,4.2006,2.4742,1.6654,3.1438,12.8048,3.5482,-2.5102,-5.1498,-8.6966,7.4604,1.1614,-5.9321,-0.0769,-2.7949
859.3750,14.1888,0.9761,1.7263,0.2574,-3.5099,4.5796,2.9125,1.2822,1.7637,11.8642,2.4082,-2.6286,-4.9566,-7.0479,6.2324,-0.9219,-5.6090,-0.6314,-3.6064
863.2812,18.5272,1.6051,1.9702,-0.4305,-3.5330,7.1242,3.1799,0.5537,2.2262,17.3576,3.4160,-2.5989,-4.0947,-4.4122,7.6007,-1.4398,-4.0369,-1.1801,-3.8101
867.1875,24.5563,2.8326,1.7230,-1.1473,-3.8959,9.7369,2.6181,-0.6575,3.4118,25.3559,5.4482,-2.5241,-2.7646,-1.4013,10.3811,-0.1496,-1.6398,-2.0053,-3.5893
871.0938,28.0685,2.8149,0.3247,-2.0267,-4.4894,10.2475,0.8185,-2.3529,3.7750,30.6311,6.8599,-2.6970,-1.3412,1.2054,12.5070,2.2089,0.7585,-3.3539,-3.2461
875.0000,26.8680,0.7915,-2.0644,-2.9200,-5.0703,7.9366,-1.9150,-4.1896,2.5872,30.0622,6.7043,-3.2584,-0.1505,2.8431,12.5274,4.4421,2.3361,-4.9989,-2.8362
878.9062,22.2139,-2.1963,-4.2847,-3.3077,-5.3001,4.1076,-4.5229,-5.4895,0.5842,24.5976,5.4158,-3.9158,0.7268,3.4167,10.6286,5.6743,2.7093,-6.1015,-2.0010
882.8125,17.9575,-3.8886,-4.7285,-2.5505,-4.9023,1.2994,-5.6835,-5.5372,-0.4689,18.5136,4.4743,-4.0173,1.4541,3.2493,8.4645,5.8253,2.1047,-5.5847,-0.1979
886.7188,17.9627,-2.3191,-2.3297,-0.3492,-3.8645,1.6506,-4.5734,-4.0131,0.9916,16.5315,5.3136,-2.9836,2.2307,2.7652,7.9345,5.5113,1.1445,-2.8385,2.8005
890.6250,23.5240,2.7755,2.6450,2.9133,-2.5338,5.4906,-1.4026,-1.2692,5.1654,20.7446,8.2705,-0.7851,3.0454,2.1486,9.7813,5.5082,0.4003,1.7204,6.5163
894.5312,32.4644,9.6234,8.5604,6.2303,-1.4962,11.0809,2.6424,1.7688,10.6113,29.3522,12.3183,1.9250,3.6053,1.2381,12.9942,6.1877,0.0311,6.6768,9.8302
898.4375,40.4588,15.3999,13.2139,8.4469,-1.2724,15.6652,6.0326,4.0516,15.0601,37.9277,15.7407,4.1697,3.5230,-0.2600,15.4409,7.2957,-0.2417,10.2978,11.5292
902.3438,43.6892,17.8813,15.0105,8.8775,-2.0035,17.1435,7.7114,4.9468,16.7746,42.2747,17.2380,5.2667,2.6435,-2.3978,15.3041,8.1613,-0.8210,11.4748,11.0110
906.2500,41.1226,16.6997,13.8028,7.6775,-3.3272,15.3095,7.5896,4.5458,15.5573,40.9652,16.6878,5.2667,1.2721,-4.7379,12.3655,8.1446,-1.8180,10.3313,8.6850
910.1562,35.0184,13.4269,10.9026,5.7442,-4.5276,11.8954,6.4508,3.5588,12.7771,35.9855,15.0830,4.8914,0.1221,-6.4333,8.2810,7.0268,-2.8417,8.1026,5.8020
914.0625,29.4398,10.5068,8.2911,4.2243,-4.8732,9.4457,5.3860,2.8862,10.4539,31.2355,13.7775,5.0245,-0.0087,-6.6123,5.6604,5.1481,-3.1503,6.3754,3.8218
917.9688,27.7807,9.7845,7.5352,3.9458,-3.9401,9.7631,5.1593,3.1426,10.0466,29.9986,13.6259,6.1351,1.3580,-4.8344,6.5266,3.2772,-2.0725,6.1841,3.7125
921.8750,30.8557,11.5674,9.0460,5.0998,-1.7579,12.8920,5.8922,4.4087,11.7211,33.0435,14.6032,8.0455,4.1332,-1.3420,11.1084,2.3131,0.5663,7.5340,5.5789
925.7812,36.6438,14.7258,12.0505,7.2981,1.2583,17.2243,7.1945,6.3082,14.4890,38.4613,16.0747,10.1702,7.6970,3.0250,17.6885,2.9385,4.2670,9.6029,8.7660
929.6875,41.7019,17.6285,15.1865,9.8815,4.4891,20.5867,8.5614,8.2946,17.0098,43.1380,17.4036,11.9884,11.1636,7.1743,23.5564,5.3151,8.0175,11.4089,12.2761
933.5938,43.2551,19.2067,17.2874,12.2355,7.2795,21.5768,9.7154,9.9284,18.4476,44.7493,18.3870,13.3512,13.7057,10.1517,26.4527,8.9107,10.6802,12.4478,15.1952
937.5000,40.6647,19.4517,17.8872,13.9377,9.0391,20.3116,10.6752,10.9825,18.8244,42.9668,19.2135,14.3874,14.7771,11.3866,25.6396,12.5572,11.4013,12.8787,16.9153
941.4062,35.4726,19.1197,17.2276,14.7320,9.3111,18.1725,11.5644,11.3736,18.7198,39.2314,20.0478,15.1280,14.1808,10.7358,22.0243,14.8026,9.8737,13.1938,17.1430
945.3125,30.1741,18.9680,15.8848,14.4557,7.8749,16.7888,12.3614,11.0433,18.6323,35.4591,20.6359,15.2132,12.0344,8.4033,17.3856,14.4886,6.3948,13.6793,15.8335
949.2188,26.6310,19.1243,14.3274,13.0371,4.8741,16.9666,12.8045,9.9220,18.5118,32.7008,20.2943,13.9915,8.7146,4.8459,13.2894,11.3162,1.7577,14.0947,13.1708
953.1250,25.1551,19.0227,12.6919,10.5745,0.8804,18.2562,12.5265,8.0122,17.7997,30.6820,18.3361,11.0004,4.8134,0.7133,10.3948,6.0881,-2.9633,13.8056,9.5939
957.0312,24.7403,17.8991,10.8605,7.4025,-3.2166,19.3894,11.3145,5.5100,15.9203,28.4280,14.6439,6.4866,1.0717,-3.2196,8.5026,0.4355,-6.6874,12.2653,5.7669
960.9375,24.1072,15.4448,8.7172,4.0500,-6.5034,19.2263,9.3067,2.8399,12.8410,25.3729,9.9689,1.5421,-1.7613,-6.1924,7.1447,-3.8821,-8.6245,9.4854,2.4178
964.8438,22.7117,12.1323,6.3711,1.0766,-8.3946,17.5300,6.9884,0.5372,9.2768,22.0371,5.7076,-2.3191,-3.1425,-7.6722,6.1609,-5.7537,-8.5277,6.1576,0.0868
968.7500,20.9913,8.9874,4.1891,-1.1202,-8.8427,15.0457,4.9868,-0.9732,6.3679,19.7268,3.2445,-3.9276,-2.9426,-7.5509,5.7908,-5.1492,-6.7995,3.3311,-1.0685
972.6562,19.7531,6.9776,2.6287,-2.4110,-8.2755,12.8784,3.7872,-1.5705,5.0286,19.4875,3.2348,-3.0937,-1.5312,-6.2006,6.2546,-2.9885,-4.3615,1.8539,-1.2771
976.5625,19.2893,6.4454,1.9885,-2.8992,-7.3000,11.6682,3.5247,-1.4829,5.3972,21.1438,5.2517,-0.7031,0.3383,-4.3221,7.2538,-0.5588,-2.2966,1.9288,-0.9612
980.4688,19.0107,6.9689,2.2358,-2.7928,-6.3668,11.1965,3.9571,-1.1521,6.7575,23.2380,8.0113,1.7911,1.8190,-2.6456,7.9218,1.1521,-1.3994,3.0527,-0.4751
984.3750,17.9714,7.7222,3.0161,-2.2831,-5.6060,10.7156,4.6156,-0.9933,7.9982,24.0272,10.0622,3.1655,2.3113,-1.6375,7.3989,1.8304,-1.8524,4.3524,0.0504
988.2812,15.9162,8.0700,3.8383,-1.5035,-4.9184,9.7338,5.0462,-1.1904,8.3200,22.8765,10.5537,3.0272,1.6907,-1.3725,5.6510,1.7678,-3.2043,5.0945,0.6714
992.1875,13.9823,7.9788,4.3285,-0.5641,-4.2195,8.6197,5.0183,-1.6342,7.7329,21.0056,9.6561,1.8855,0.3053,-1.6285,3.8452,1.4828,-4.6676,5.0568,1.4566
996.0938,14.3482,7.9708,4.4085,0.3990,-3.6306,8.4989,4.6041,-2.0282,7.0143,20.9174,8.3965,0.7028,-1.2532,-2.1244,3.8215,1.3276,-5.5744,4.5587,2.3198
1000.0000,18.8682,8.6675,4.2989,1.2215,-3.4601,10.4440,4.0972,-2.0851,7.1481,24.7490,8.0067,0.2447,-2.4850,-2.7381,6.8541,1.3205,-5.7279,4.1640,2.9867
1003.9062,27.5492,10.2543,4.3467,1.7649,-3.9850,14.5165,3.8248,-1.6931,8.6079,32.6008,9.1549,0.6364,-3.2354,-3.5640,12.5051,1.2522,-5.4494,4.2654,3.1156
1007.8125,37.9779,12.2436,4.7814,1.9881,-5.1918,19.3901,3.9546,-0.9563,10.9566,42.0216,11.5100,1.3666,-3.7193,-4.7772,18.4557,0.9281,-5.3006,4.8117,2.4923
1011.7188,46.2674,13.7036,5.5459,1.9836,-6.6739,22.9149,4.4031,-0.0955,13.0340,49.1232,13.8919,1.6857,-4.2963,-6.4036,21.6148,0.3535,-5.6599,5.3396,1.1797
1015.6250,49.0771,13.8025,6.3065,1.9529,-7.7742,23.3225,4.8929,0.7169,13.6251,50.7182,14.9249,1.1190,-5.1327,-8.1607,19.9294,-0.2523,-6.4209,5.2779,-0.4578
1019.5312,45.4897,12.3081,6.6370,2.1308,-7.8991,20.2970,5.1208,1.4729,12.1896,46.1650,13.8117,-0.2260,-5.9754,-9.4950,13.7571,-0.5955,-7.0103,4.3315,-1.8654
1023.4375,37.5526,9.7297,6.2696,2.6914,-6.8190,15.1987,4.9313,2.3118,9.2003,37.7618,10.7862,-1.7227,-6.2128,-9.8233,5.8688,-0.4912,-6.7281,2.7103,-2.4976
1027.3438,29.1326,7.0380,5.2634,3.6662,-4.7847,10.2901,4.3916,3.3778,5.9002,29.4587,7.0037,-2.5887,-5.2268,-8.8480,0.0051,0.0277,-5.2070,1.0676,-2.0282
1031.2500,23.8080,5.1765,4.0016,4.9060,-2.4020,7.4777,3.7300,4.6482,3.6609,24.7253,3.9725,-2.3076,-2.8334,-6.7563,-1.1446,0.7392,-2.7058,0.1923,-0.4877
1035.1562,23.1022,4.6806,3.0297,6.1110,-0.3406,7.3775,3.1884,5.8615,3.3534,24.8831,2.8823,-0.8529,0.4863,-4.1619,2.6970,1.3806,-0.0367,0.6378,1.7412
1039.0625,26.0524,5.6015,2.8362,6.9424,0.9667,9.2416,2.8936,6.6205,5.0792,28.8120,4.1926,1.3975,3.7634,-1.7946,9.4749,1.8371,1.8586,2.4968,4.0941
1042.9688,30.1790,7.6815,3.6849,7.1906,1.4945,11.6623,2.8285,6.6259,8.3276,33.9785,7.6186,3.9632,6.0661,-0.1018,16.1447,2.2616,2.4473,5.4233,6.1033
1046.8750,33.0382,10.5630,5.5515,6.9202,1.5952,13.4733,2.9026,5.8982,12.3366,37.9271,12.3846,6.5531,7.0617,0.9989,20.3319,3.0319,1.9375,8.8403,7.6429
1050.7812,33.3187,13.8426,8.1445,6.4940,1.7983,14.2243,3.0526,4.8281,16.3617,39.2506,17.4971,9.1377,7.2345,2.0482,21.2753,4.5296,1.1855,12.1740,8.9819
1054.6875,30.9562,16.9731,10.9689,6.4209,2.5334,14.0267,3.2876,3.9971,19.7234,37.6268,21.8963,11.7616,7.5780,3.6730,19.6411,6.8357,1.2077,14.9742,10.5762
1058.5938,26.5378,19.2039,13.4165,7.0833,3.9070,13.0750,3.6528,3.8589,21.7523,33.2739,24.5520,14.2547,8.9255,6.1293,16.6024,9.5265,2.5746,16.9045,12.7015
1062.5000,20.7196,19.7542,14.9093,8.5025,5.6405,11.3583,4.1563,4.4810,21.8613,26.5406,24.6675,16.1001,11.3536,9.0535,12.9966,11.7478,5.0510,17.7040,15.1698
1066.4062,14.1819,18.2273,15.1039,10.3099,7.2134,8.8363,4.7373,5.5244,19.8412,18.0589,22.0481,16.6224,14.0783,11.6079,9.1408,12.6017,7.7153,17.2372,17.3573
1070.3125,8.0282,15.0238,14.0981,11.9764,8.1526,5.8910,5.3134,6.4906,16.2128,9.2475,17.4448,15.4291,15.9480,12.9628,5.2608,11.6708,9.5005,15.6449,18.5795
1074.2188,4.0372,11.4157,12.5061,13.1684,8.3190,3.5705,5.8715,7.0853,12.3059,2.5080,12.5458,12.8169,16.2242,12.8277,1.9893,9.3630,9.8361,13.4700,18.5881
1078.1250,4.2317,9.1044,11.2830,13.9839,8.0173,3.2648,6.5188,7.4491,9.8400,0.5944,9.4123,9.8203,15.1154,11.6850,0.3899,6.8089,8.9897,11.5833,17.8260
1082.0312,9.7919,9.4150,11.3009,14.8682,7.8306,5.9038,7.4310,8.0806,10.1161,5.2711,9.5206,7.7770,13.6697,10.5411,1.4038,5.3023,7.8867,10.8431,17.2006
1085.9375,19.9662,12.5588,12.8608,16.2227,8.2434,11.1932,8.7138,9.4682,13.2571,16.0171,12.9145,7.6099,13.0634,10.3158,5.1263,5.5752,7.5053,11.6301,17.4564
1089.8438,31.8097,17.4127,15.4229,17.9496,9.2638,17.4639,10.2627,11.6525,17.9899,29.6882,18.0223,9.2564,13.7477,11.2327,10.4771,7.3470,8.2217,13.5441,18.5483
1093.7500,41.1390,21.9911,17.7653,19.2687,10.2910,22.3411,11.7224,14.0068,22.1820,41.5507,22.3512,11.6309,15.0443,12.6025,15.5547,9.4495,9.5148,15.5158,19.4809
1097.6562,44.3324,24.3832,18.5480,18.9965,10.3561,23.8980,12.5887,15.4134,23.8855,47.2845,23.7376,13.1975,15.4971,13.1609,18.4874,10.4769,10.2275,16.3403,18.8092
1101.5625,40.0333,23.6547,17.0023,16.1850,8.6359,21.6278,12.4074,14.7745,22.3113,44.9377,21.4580,12.8345,13.7834,11.7849,18.2833,9.5702,9.2317,15.3578,15.5524
1105.4688,29.8159,20.2335,13.3584,10.7603,4.9595,16.6647,10.9736,11.5940,18.1810,35.7904,16.5534,10.4653,9.6046,8.1702,15.2229,6.8631,6.1011,12.8633,9.9524
1109.3750,17.4398,15.5969,8.7532,3.7636,0.0037,11.1383,8.4343,6.3090,13.2664,23.6672,11.1808,7.0641,3.9757,3.0683,10.6431,3.3370,1.3938,9.9623,3.5569
1113.2812,7.0706,11.4618,4.6587,-2.9842,-4.9518,7.0487,5.2583,0.1846,9.4002,13.0496,7.3837,4.0352,-1.2766,-2.0501,6.2805,0.2222,-3.6076,7.9257,-1.4872
1117.1875,1.3743,8.9318,2.1555,-7.6357,-8.5791,5.2921,2.0921,-5.1795,7.5285,6.9500,6.0050,2.3690,-4.4879,-5.7009,3.5017,-1.6486,-7.5194,7.4244,-3.5373
1121.0938,0.4183,8.0366,1.4625,-9.0837,-10.0567,5.3384,-0.4358,-8.4814,7.3174,5.6031,6.3495,2.1122,-4.9909,-7.0521,2.7261,-2.1378,-9.4703,8.1209,-2.2956
1125.0000,1.8900,7.8671,1.9678,-7.3484,-9.3282,5.6770,-1.8995,-9.1831,7.4878,6.6141,6.7446,2.4744,-3.3216,-6.1937,3.2539,-1.6382,-9.3744,8.8829,1.1125
1128.9062,2.5056,7.1885,2.6994,-3.4259,-6.9702,4.7487,-2.1937,-7.6166,6.6475,6.4781,5.6293,2.4661,-0.7318,-3.9203,3.6057,-0.6494,-7.7698,8.4970,4.8445
1132.8125,-0.0868,5.1878,2.9193,1.2503,-3.8122,1.8614,-1.5483,-4.7273,4.1430,2.7043,2.5318,1.6198,1.6100,-1.2275,2.3160,0.5556,-5.4008,6.4381,7.3648
1136.7188,-5.8695,1.9608,2.4784,5.3998,-0.5796,-2.3745,-0.4329,-1.6267,0.4733,-4.5698,-1.6011,0.3053,3.1939,1.1444,-1.1141,1.9549,-2.8408,3.2162,8.1527
1140.6250,-12.2767,-1.5092,1.7478,8.2408,2.2435,-6.3164,0.6174,0.8186,-2.9460,-12.3991,-4.8885,-0.5605,4.1882,2.8692,-5.6256,3.5405,-0.3719,0.0801,7.6993
1144.5312,-15.4957,-3.8786,1.2207,9.4989,4.3248,-8.1528,1.1825,2.1933,-4.5471,-16.5201,-5.5453,-0.2005,4.9809,3.8849,-8.8747,5.0683,1.8724,-1.7388,6.8818
1148.4375,-12.6829,-4.2074,1.0755,9.2027,5.3370,-6.9462,1.0593,2.4999,-3.5108,-13.8210,-2.9150,1.4074,5.6400,4.1277,-8.4614,6.0316,3.6807,-1.7772,6.1938
1152.3438,-3.9162,-2.5511,0.9962,7.4844,4.9457,-3.3020,0.2473,1.9711,-0.3239,-4.4386,2.0421,3.4024,5.7103,3.3998,-3.5478,5.9044,4.6688,-0.6286,5.3683
1156.2500,7.3402,-0.0243,0.3655,4.5319,2.9865,0.7651,-1.1477,0.8697,3.3442,7.8381,7.1004,4.4938,4.5006,1.4868,4.1707,4.4834,4.4168,0.4050,3.6314
1160.1562,15.7773,1.7563,-1.2925,0.6808,-0.2938,2.8118,-2.9970,-0.6144,5.4531,17.3251,9.8418,3.7185,1.6518,-1.5591,10.9983,2.0861,2.7556,0.0897,0.3896
1164.0625,17.1403,1.5891,-3.9045,-3.4861,-4.1482,1.3448,-5.1388,-2.3404,4.7099,19.5423,8.9373,1.0392,-2.4173,-5.1943,13.2521,-0.5358,0.0035,-1.9965,-4.1348
1167.9688,10.8614,-0.5536,-6.7441,-7.1733,-7.5286,-3.1741,-7.2854,-4.1248,1.3806,13.8870,4.9497,-2.5789,-6.5216,-8.4199,9.6436,-2.5189,-3.0304,-5.1895,-8.7682
1171.8750,0.7329,-3.4143,-8.7276,-9.5842,-9.5101,-8.3671,-8.9561,-5.6787,-2.7353,4.1753,0.1416,-5.6606,-9.2127,-10.1205,2.4273,-3.2646,-5.3194,-8.0962,-11.8734
1175.7812,-7.0440,-5.1351,-8.9759,-10.2223,-9.7103,-11.1475,-9.5623,-6.6476,-5.2610,-3.4711,-2.7199,-7.0031,-9.5011,-9.5507,-3.6887,-2.6806,-6.0523,-9.3809,-12.1929
1179.6875,-7.4775,-4.3948,-7.3394,-9.1188,-8.4478,-9.4931,-8.6750,-6.7547,-4.6577,-4.2630,-1.9703,-6.3093,-7.3847,-6.7104,-4.4343,-1.1977,-5.0078,-8.5349,-9.5560
1183.5938,0.0779,-1.3157,-4.5802,-6.8518,-6.5367,-3.7416,-6.3400,-5.9683,-1.2621,2.2958,1.8659,-4.3277,-3.8831,-2.3965,1.1085,0.4150,-2.6757,-6.1864,-5.0350
1187.5000,11.3059,2.4709,-2.0670,-4.3260,-4.8372,3.4468,-3.2141,-4.5807,2.7612,12.0346,6.2423,-2.4271,-0.5549,2.1067,9.5840,1.3510,-0.0567,-3.7672,-0.4506
1191.4062,19.4033,4.7278,-1.1009,-2.4092,-3.8331,8.5472,-0.3553,-3.1244,4.6429,18.6726,8.0436,-1.8415,1.2455,5.5455,15.2670,1.0821,1.7728,-2.7078,2.5048
1195.3125,19.2449,3.9859,-2.2113,-1.5956,-3.4815,9.2298,1.2779,-2.1433,2.7427,17.7705,5.5340,-2.9896,0.9825,7.1647,13.7387,-0.4059,2.1272,-3.6093,3.0530
1199.2188,10.6589,0.5348,-4.8155,-1.8559,-3.3960,5.7631,1.3475,-1.9312,-2.2856,9.5872,-0.4056,-5.2381,-0.8785,6.9056,4.9627,-2.5539,0.9912,-5.8668,1.6064
1203.1250,-1.3123,-3.6442,-7.4725,-2.7400,-3.2131,0.8514,0.3348,-2.3851,-7.7084,-1.0033,-6.6127,-7.2428,-3.1944,5.2725,-6.3622,-4.4117,-1.0190,-7.9834,-0.5895
1207.0312,-9.4246,-6.0375,-8.6433,-3.6711,-2.8755,-2.0368,-0.7496,-3.0661,-10.2849,-7.5140,-9.4723,-7.6983,-4.7822,2.9836,-13.5605,-5.0417,-2.9910,-8.4253,-2.2247
1210.9375,-8.6785,-5.1728,-7.5667,-4.2693,-2.6419,-0.8299,-1.0006,-3.4423,-8.2885,-5.8760,-7.1734,-6.1019,-5.0302,0.6236,-12.1539,-3.9951,-4.1748,-6.5510,-2.6588
1214.8438,0.5843,-1.6204,-4.7538,-4.5310,-2.8257,3.8463,-0.2088,-3.1804,-2.7074,3.0454,-0.9735,-3.1086,-4.1646,-1.5134,-2.7503,-1.6114,-4.3304,-3.0744,-2.2062
1218.7500,12.8805,2.2487,-1.7808,-4.7665,-3.4598,9.0494,0.9849,-2.3177,3.1908,14.0066,5.3994,-0.2557,-3.0428,-3.3425,9.2534,1.0680,-3.7783,0.2401,-1.8259
1222.6562,20.9442,3.6528,-0.4477,-5.3377,-4.1414,11.3424,1.4928,-1.2166,5.7409,20.6138,7.9228,0.8359,-2.5983,-4.7736,16.9826,2.7964,-3.1295,1.5206,-2.4152
1226.5625,20.1366,1.1163,-1.7483,-6.3532,-4.1949,8.9222,0.5008,-0.3348,3.0928,19.1798,4.7329,-0.6233,-3.2459,-5.5505,16.2794,2.8006,-2.8484,-0.1344,-4.1398
1230.4688,11.2008,-4.5335,-5.2368,-7.5083,-3.0751,2.7512,-1.9507,0.0478,-3.5949,10.8665,-2.6567,-4.0550,-4.5821,-5.2820,8.1259,1.2626,-2.9115,-4.0526,-6.2108
1234.3750,-0.2397,-10.5065,-9.1734,-8.1738,-0.7608,-3.9648,-4.9010,-0.0207,-10.7184,0.9238,-10.1364,-7.6770,-5.5527,-3.6612,-2.1437,-0.7063,-2.7764,-8.2233,-7.2503
1238.2812,-7.0019,-13.5353,-11.3910,-7.6916,2.1244,-7.5865,-6.9677,-0.2183,-14.2152,-4.3641,-13.3122,-9.3206,-5.0066,-0.7301,-8.1938,-1.6318,-1.7010,-10.2708,-6.0396
1242.1875,-4.3897,-11.6315,-10.4036,-5.7116,4.5687,-6.0275,-7.1004,-0.1623,-11.7862,-1.1263,-9.9527,-7.4985,-2.3357,3.0014,-6.3979,-0.4887,0.7645,-8.6477,-2.2127
1246.0938,7.4046,-5.1050,-6.1380,-2.3795,5.6764,0.2249,-5.1293,0.3582,-4.0637,10.2053,-1.1365,-2.1679,2.1516,6.6912,2.3451,2.7001,4.4083,-3.4049,3.5040
1250.0000,23.7706,3.6981,0.1084,1.7261,5.1317,8.5552,-1.7902,1.2772,5.8881,25.4451,9.5013,5.2141,7.3330,9.5040,13.5830,6.8347,8.3520,3.8647,9.6360
1253.9062,38.4930,11.7184,6.4231,5.8601,3.3515,15.7580,1.7525,2.3285,14.3506,39.0830,17.8742,12.3731,11.7964,10.9655,22.1920,10.3146,11.4415,10.8516,14.6716
1257.8125,47.1183,16.7638,11.2802,9.4248,1.2377,19.7243,4.5659,3.2455,18.9139,47.1080,21.6070,17.2772,14.5006,11.1294,25.2618,11.9017,12.8238,15.6506,17.7293
1261.7188,48.9839,18.4634,14.2088,12.1593,-0.3179,20.3527,6.3876,3.9442,19.5258,48.7338,21.0448,19.0216,15.2158,10.4608,23.3414,11.3842,12.3770,17.5727,18.8227
1265.6250,46.9800,18.1393,15.7823,14.1205,-0.8847,19.2885,7.6103,4.5710,18.1461,46.3118,18.6734,18.0963,14.5197,9.5192,19.5968,9.6659,10.7399,17.2552,18.6289
1269.5312,45.4461,17.7776,17.0035,15.5005,-0.6422,18.7601,8.8740,5.3808,17.3525,43.7033,17.4471,15.9413,13.3778,8.6407,17.6867,8.2284,8.9224,16.0859,17.9599
1273.4375,47.5244,18.7550,18.5107,16.4066,-0.1627,20.2237,10.5503,6.5247,18.7726,44.0778,19.0652,14.0686,12.5649,7.8125,19.7081,8.2655,7.7300,15.3226,17.2790
1277.3438,53.3970,21.0353,20.0938,16.7381,0.0176,23.5372,12.4377,7.8831,22.2026,48.2328,23.1219,13.2461,12.2544,6.8014,25.2495,9.9701,7.3409,15.4066,16.5263
1281.2500,60.2048,23.2277,20.7859,16.2196,-0.2358,27.0437,13.8298,9.0562,25.7976,54.1764,27.4638,13.1648,11.9883,5.4295,31.7905,12.3700,7.2783,15.8057,15.2926
1285.1562,63.5391,23.3978,19.4364,14.5564,-0.5755,28.4596,13.8931,9.5307,27.1167,58.0979,29.4171,12.7264,11.0097,3.7962,35.9990,13.8126,6.7713,15.4025,13.1657
1289.0625,59.6720,20.1517,15.4052,11.6185,-0.4145,26.0796,12.1271,8.9351,24.4064,56.2465,27.1610,10.7457,8.7394,2.2854,35.2111,12.8447,5.2660,13.1581,10.0062
1292.9688,47.4428,13.4187,8.9835,7.5534,0.6639,19.6953,8.6581,7.2396,17.4755,46.8547,20.5698,6.6605,5.1191,1.3432,28.5166,9.0165,2.7732,8.6821,6.0039
1296.8750,28.9589,4.5672,1.3359,2.7745,2.5782,10.7851,4.2236,4.7849,7.7943,31.2116,11.2014,0.8707,0.6449,1.1685,17.1450,3.1742,-0.1439,2.4440,1.5374
1300.7812,8.8468,-4.1564,-5.9628,-2.1593,4.6971,1.8946,-0.1306,2.1205,-2.1495,13.3502,1.5509,-5.4414,-3.8909,1.5231,4.0877,-2.9224,-2.7015,-4.4221,-3.0186
1304.6875,-7.5685,-10.5574,-11.5301,-6.7085,6.0940,-4.4820,-3.4845,-0.2555,-9.8770,-1.5531,-6.0078,-10.8690,-7.7701,1.8008,-6.9307,-7.4534,-4.3190,-10.5710,-7.3906
1308.5938,-16.3222,-13.3364,-14.6173,-10.4785,5.9742,-6.9678,-5.3969,-2.1025,-13.8463,-9.3407,-10.0939,-14.3927,-10.6127,1.3339,-12.8215,-9.3996,-4.8736,-14.9219,-11.3656
1312.5000,-16.1932,-12.4797,-15.2202,-13.2469,4.0515,-5.7917,-6.0097,-3.4701,-13.8946,-8.5621,-10.6568,-15.7289,-12.4088,-0.2333,-12.3371,-8.9448,-4.6615,-16.9591,-14.6797
1316.4062,-8.8353,-9.0635,-13.8716,-14.8944,0.6930,-2.4725,-5.8600,-4.5435,-11.0588,-0.8712,-8.7040,-15.2784,-13.3505,-2.7263,-6.5575,-7.2137,-4.1404,-16.7773,-16.9587
1320.3125,2.3173,-4.6220,-11.2741,-15.2988,-3.2343,1.1107,-5.5032,-5.4086,-6.9216,10.0299,-5.6299,-13.7673,-13.6083,-5.5117,1.6565,-5.5265,-3.6539,-14.9076,-17.7835
1324.2188,13.7671,-0.4136,-7.9740,-14.2871,-6.7306,3.7432,-5.1538,-5.9032,-2.8332,20.3134,-2.5100,-11.8229,-13.2071,-7.8260,9.0557,-4.6251,-3.3140,-12.0318,-16.8585
1328.1250,23.4217,3.0684,-4.2202,-11.7072,-9.0750,5.4389,-4.5519,-5.6683,0.6228,27.7981,0.2972,-9.7157,-12.0658,-9.1788,13.5564,-4.3244,-3.0783,-8.7092,-14.1811
1332.0312,31.1348,6.1409,-0.0381,-7.6055,-10.0983,7.2545,-3.1462,-4.3909,3.6985,32.6854,3.0997,-7.3644,-10.1403,-9.6021,15.1197,-3.7664,-2.9096,-5.2106,-10.1050
1335.9375,38.1626,9.5631,4.5572,-2.4045,-10.2072,10.4926,-0.5017,-2.0911,7.1179,36.9698,6.4819,-4.5349,-7.5502,-9.6062,15.4689,-2.0762,-2.8643,-1.5052,-5.2526
1339.8438,45.9512,13.9768,9.3501,3.0549,-10.1636,15.7731,3.3048,0.7368,11.5165,42.9420,10.8431,-1.0750,-4.5907,-9.8736,16.8319,1.0204,-3.0348,2.6030,-0.3230
1343.7500,54.9696,19.4437,13.8384,7.6872,-10.7262,22.5066,7.5527,3.2451,16.9869,51.6382,16.1174,2.9411,-1.6336,-10.8697,20.4717,5.0021,-3.4062,7.2433,4.0964
1347.6562,64.2075,25.2907,17.3290,10.5082,-12.3172,29.0591,11.1180,4.5766,22.9323,62.0461,21.7639,7.1925,1.0015,-12.5954,25.8830,8.8642,-3.7707,12.2437,7.6189
1351.5625,71.5519,30.3104,19.1722,10.9930,-14.8526,33.4999,12.9764,4.2524,28.2504,71.4354,26.9426,11.1643,3.1074,-14.6093,31.0978,11.6877,-3.7993,17.0040,10.0205
1355.4688,74.7927,33.2083,19.0219,9.2646,-17.7918,34.5152,12.6946,2.3917,31.7182,76.6066,30.7274,14.2234,4.5518,-16.2885,33.8562,13.0708,-3.2472,20.5679,11.1404
1359.3750,72.7224,33.0989,16.9988,6.0206,-20.3563,32.0098,10.6325,-0.3473,32.4066,75.4265,32.2815,15.7177,5.2056,-17.1526,32.8991,13.1668,-2.1491,21.9193,10.8319
1363.2812,65.7968,29.8603,13.6866,2.2555,-21.8012,27.1133,7.7509,-3.0540,29.9932,67.9152,31.0310,15.1439,4.9365,-17.0524,28.6227,12.3750,-0.8501,20.4193,9.0447
1367.1875,56.0587,24.2249,9.9693,-1.0585,-21.6168,21.6311,5.1470,-4.9075,24.9103,56.3719,26.8956,12.3921,3.7162,-16.1287,22.7787,10.9748,0.1734,16.2057,6.0156
1371.0938,46.3650,17.5781,6.7812,-3.1804,-19.6049,17.2433,3.5859,-5.3976,18.2958,44.4643,20.5274,7.9721,1.7817,-14.6036,17.4895,8.9983,0.5955,10.3356,2.4306
1375.0000,39.2521,11.5263,4.8574,-3.6584,-15.8556,14.8420,3.2740,-4.3594,11.7302,35.6770,13.3699,3.0455,-0.2915,-12.5815,14.1975,6.4204,0.4387,4.5279,-0.6162
1378.9062,35.9281,7.3721,4.5479,-2.3168,-10.6957,14.2914,3.9447,-1.8871,6.7785,31.8243,7.3391,-0.8752,-1.7223,-10.0186,13.1209,3.4718,0.0479,0.5416,-1.9575
1382.8125,35.8394,5.6813,5.7301,0.7204,-4.6646,14.6724,5.1390,1.7458,4.4515,32.3416,4.1235,-2.5209,-1.8552,-6.8929,13.4140,0.7743,-0.1437,-0.5666,-0.8862
1386.7188,37.0349,6.1216,7.8397,4.9462,1.4911,14.8529,6.4731,6.0866,4.8046,34.7244,4.3962,-1.4897,-0.5278,-3.4451,13.8201,-0.8681,0.0974,1.0580,2.3803
1390.6250,37.1955,7.6649,10.0317,9.4300,6.8647,14.0943,7.7466,10.4648,6.9090,35.9258,7.4064,1.4664,1.7545,-0.2916,13.3912,-0.9156,0.6581,4.1093,6.6154
1394.5312,34.8669,9.0962,11.4616,12.9688,10.5376,12.4116,8.8860,14.0325,9.2864,34.0116,11.2873,4.7350,3.9889,1.7206,11.9075,0.5393,1.1643,6.7483,10.0223
1398.4375,30.2786,9.6039,11.6136,14.4758,11.8247,10.5330,9.8321,15.9662,10.6463,29.2020,14.0073,6.6405,5.1427,1.8788,9.8702,2.7623,1.2357,7.5355,11.0500
1402.3438,25.2931,9.1550,10.5406,13.4665,10.5273,9.4938,10.4875,15.7855,10.5446,23.7305,14.4571,6.3382,4.6814,-0.0081,8.1669,4.7693,0.7339,6.1816,9.1797
1406.2500,22.4491,8.4408,8.8676,10.3649,7.0663,10.0718,10.7575,13.6179,9.5711,20.5830,13.0158,4.2890,2.8600,-3.4326,7.6267,5.8756,-0.1546,3.6824,5.2324
1410.1562,23.5505,8.3960,7.5018,6.3960,2.4037,12.3425,10.6217,10.2217,8.9167,21.7995,11.2178,1.9993,0.5991,-7.3428,8.6502,6.0403,-1.0399,1.7266,0.9830
1414.0625,28.5416,9.5486,7.1526,3.0528,-2.2433,15.5707,10.1517,6.7003,9.5452,27.2589,10.6965,1.1387,-0.9959,-10.5550,11.0211,5.7847,-1.5577,1.6810,-1.7446
1417.9688,35.2943,11.5765,7.9103,1.3971,-5.7861,18.4883,9.4486,4.0282,11.4662,34.5894,12.0586,2.5316,-1.2060,-12.2053,13.9283,5.7494,-1.5476,3.7301,-2.0088
1421.8750,40.4771,13.3590,9.1407,1.5812,-7.5899,19.8214,8.5556,2.6437,13.5753,40.2296,14.4027,5.6215,-0.0428,-12.0097,16.1891,6.2046,-1.0791,6.6828,-0.1833
1425.7812,41.0977,13.5301,9.7978,2.8671,-7.6163,18.8176,7.4310,2.3312,14.2016,41.0674,15.8032,8.7367,1.8167,-10.2286,16.6326,6.8451,-0.3356,8.5886,2.3509
1429.6875,35.9539,11.2417,9.0046,4.1221,-6.3405,15.5403,6.0176,2.4514,12.0658,35.8419,14.4695,10.0129,3.4488,-7.4073,14.5497,7.0040,0.5403,7.8283,4.0557
1433.5938,26.2633,6.7008,6.5717,4.4859,-4.4973,10.8213,4.3550,2.3663,7.0873,25.6835,9.8666,8.4351,4.2026,-4.0755,10.0525,6.1268,1.5265,4.0576,4.1198
1437.5000,15.1646,1.1588,3.1389,3.8126,-2.7702,5.9200,2.6335,1.7989,0.5542,13.6301,3.1189,4.3978,4.0241,-0.5776,4.1645,4.1818,2.6805,-1.5397,2.8574
1441.4062,6.3362,-3.6623,-0.1561,2.6449,-1.5473,2.0444,1.1274,0.9254,-5.4567,3.4049,-3.5320,-0.5261,3.4180,2.9044,-1.4659,1.7284,4.0224,-6.8372,1.4192
1445.3125,2.3874,-6.3985,-2.2887,1.7815,-0.8365,-0.0776,0.0398,0.1762,-9.0880,-2.0220,-7.8779,-4.4442,3.0923,6.2046,-5.1776,-0.3951,5.4280,-9.8541,1.0248
1449.2188,3.7536,-6.6780,-2.8749,1.7336,-0.3647,-0.4349,-0.6304,-0.0962,-9.5835,-1.5550,-8.8310,-6.1239,3.5016,9.0307,-5.9977,-1.5580,6.6038,-9.7393,2.1980
1453.1250,8.5721,-5.2306,-2.3126,2.4097,0.1897,0.2980,-1.0910,0.1412,-7.5799,3.6036,-6.8669,-5.5450,4.5485,10.9333,-4.1019,-1.6850,7.1576,-7.1301,4.4448
1457.0312,13.5716,-3.4343,-1.4788,3.1956,0.9482,1.0553,-1.6117,0.5977,-4.6900,10.3973,-3.6453,-3.7623,5.6007,11.4116,-0.7702,-1.2537,6.7313,-3.7306,6.5302
1460.9375,15.5806,-2.5668,-1.1897,3.3531,1.7104,0.8593,-2.3202,0.8759,-2.6369,15.1351,-1.0851,-2.2205,5.8130,10.1105,2.1914,-0.9574,5.1443,-1.3840,7.1590
1464.8438,13.0058,-3.1563,-1.7476,2.4843,2.0499,-0.6830,-3.0740,0.7596,-2.4002,15.0967,-0.4136,-1.9413,4.5862,7.0214,3.3160,-1.2542,2.5009,-1.1499,5.6698
1468.7500,6.6364,-4.7461,-2.8062,0.8042,1.6015,-3.0817,-3.4966,0.3893,-3.7840,9.8810,-1.6478,-3.0289,1.9320,2.6051,2.2033,-2.0835,-0.7713,-2.8394,2.3924
1472.6562,-0.6115,-6.1533,-3.5834,-0.9120,0.3799,-5.0611,-3.1624,0.2191,-5.5761,1.8137,-3.6962,-4.7121,-1.4438,-2.2317,-0.2796,-2.9147,-3.9863,-5.1904,-1.4758
1476.5625,-4.9656,-6.0705,-3.2667,-1.6717,-1.0914,-5.0996,-1.8277,0.7749,-6.1871,-4.9578,-4.9702,-5.8430,-4.3984,-6.3373,-2.4528,-3.0887,-6.3825,-6.5391,-4.3813
1480.4688,-3.5830,-3.7239,-1.4076,-0.7420,-1.9875,-2.2332,0.4086,2.3347,-4.4640,-6.4385,-4.1961,-5.5507,-5.8531,-8.6740,-2.7228,-2.2451,-7.3944,-5.6472,-5.0761
1484.3750,3.9421,0.6912,1.8396,1.9385,-1.6734,3.2572,3.0820,4.6879,-0.3216,-0.9434,-1.0736,-3.7157,-5.3198,-8.7318,-0.4663,-0.5842,-6.9190,-2.3149,-3.1672
1488.2812,15.0980,5.9751,5.6874,5.5854,-0.2152,9.6868,5.4737,7.0920,5.0866,9.7080,3.4955,-1.0525,-3.1989,-6.8202,3.5726,1.1838,-5.4365,2.4663,0.6520
1492.1875,25.3428,10.3193,8.8949,8.7373,1.4321,14.5336,6.8124,8.4717,9.7617,20.7383,7.7276,1.2142,-0.6739,-4.0557,7.5934,2.1764,-3.8748,6.8812,4.7905
1496.0938,30.0582,12.0142,10.1426,9.7569,1.7647,15.5573,6.5116,7.8093,11.6973,26.5977,9.7301,1.9235,0.7922,-1.9634,9.6147,1.7860,-3.2229,9.0442,7.3428
1500.0000,26.6952,10.2136,8.5405,7.5163,-0.5049,11.9440,4.3937,4.5909,9.8328,23.7448,8.4231,0.5469,0.1559,-1.8120,8.4657,0.0082,-4.0506,7.8507,6.8860
1503.9062,16.0586,5.4298,4.1120,1.9922,-5.6509,4.8606,0.8306,-0.8764,4.6794,12.5590,4.1757,-2.4975,-2.6485,-3.9824,4.3847,-2.5128,-6.1799,3.5654,3.1752
1507.8125,2.0354,-0.5192,-1.9917,-5.5317,-12.5827,-2.9461,-3.2753,-7.4417,-1.7387,-2.6972,-1.2123,-5.9402,-6.5900,-7.7133,-1.0833,-4.7458,-8.7120,-2.1527,-2.6105
1511.7188,-10.1629,-5.1887,-7.7603,-12.8284,-19.2001,-8.3773,-6.7283,-13.4459,-6.6977,-15.9091,-5.2693,-8.1565,-9.9599,-11.4070,-5.8301,-5.7156,-10.4293,-6.8768,-8.2658
1515.6250,-16.3910,-6.5778,-11.0800,-17.5640,-23.3199,-9.4371,-8.4537,-17.3149,-8.0168,-22.0831,-6.0381,-7.8684,-11.1473,-13.3783,-8.1783,-4.9254,-10.3823,-8.4655,-11.4931
1519.5312,-15.3822,-4.0960,-10.6768,-18.2498,-23.6854,-6.1539,-7.9370,-18.1604,-5.1210,-19.6779,-3.0842,-4.7425,-9.3857,-12.6627,-7.6102,-2.5626,-8.3491,-6.0636,-10.9483
1523.4375,-9.0600,1.1038,-6.7552,-14.8446,-20.5055,-0.4705,-5.4628,-16.1023,0.6616,-11.0730,2.2532,0.4139,-5.0845,-9.4462,-4.8711,0.6001,-4.9169,-0.5335,-6.8569
1527.3438,-1.2367,6.6734,-0.9315,-8.6946,-15.2323,4.8395,-1.9966,-12.1424,6.7806,-1.0034,7.5607,5.9768,0.4214,-4.8808,-1.4290,3.5579,-1.1509,5.9449,-0.8512
1531.2500,4.5285,10.2661,4.5643,-1.8463,-9.7322,7.6273,1.2657,-7.6486,10.7845,6.0854,10.6435,10.2112,5.5485,-0.4105,1.3757,5.5085,1.9512,10.9287,4.8975
1535.1562,6.7016,10.7459,8.0011,3.8956,-5.3461,7.3923,3.4537,-3.7241,11.5604,8.2513,10.6789,12.0092,9.1839,2.9894,2.9924,6.1627,3.9054,12.8742,8.7654
1539.0625,6.2219,8.7188,8.9403,7.6645,-2.3691,5.3285,4.3774,-0.7953,9.7897,6.6567,8.5565,11.2935,11.0633,5.2213,3.7677,5.7878,4.8546,11.7855,10.3739
1542.9688,5.4840,6.0705,8.2603,9.6540,-0.1901,3.4269,4.4844,1.3789,7.3794,4.3674,6.2197,8.9038,11.6489,6.9207,4.4758,4.9830,5.3288,9.0242,10.5321
1546.8750,6.5806,4.7913,7.4369,10.6862,2.0800,3.2108,4.4671,3.3310,6.2442,4.2117,5.4368,6.0743,11.6562,8.9006,5.6137,4.3246,5.8426,6.4400,10.5298
1550.7812,9.9262,5.8056,7.5662,11.5531,4.9319,4.8731,4.7820,5.4064,7.1965,7.0466,6.7793,3.8270,11.5657,11.5594,6.9572,4.0827,6.5882,5.3595,11.2666
1554.6875,14.0773,8.5135,8.7448,12.5368,8.1428,7.2995,5.3866,7.4855,9.6046,11.4334,9.4220,2.6085,11.4114,14.6030,7.6988,4.1585,7.3839,6.0022,12.7527
1558.5938,16.7599,11.2823,10.1474,13.3348,10.9491,8.8930,5.8364,9.0505,11.9549,14.7872,11.8222,2.3060,10.9145,17.1969,7.0886,4.2504,7.8516,7.5791,14.2266
1562.5000,16.3579,12.5160,10.6640,13.3415,12.5143,8.6240,5.6352,9.5121,12.8767,15.1495,12.7612,2.5294,9.7948,18.3933,5.1275,4.1140,7.6584,8.9014,14.7163
1566.4062,12.8806,11.5839,9.6160,12.0419,12.3539,6.6298,4.5767,8.5572,11.9299,12.4091,12.0340,2.9088,8.0052,17.5495,2.7815,3.7346,6.6593,9.0584,13.6235
1570.3125,7.8463,9.0431,7.0966,9.2845,10.4802,4.0215,2.8529,6.3074,9.6863,8.2377,10.3714,3.2212,5.7471,14.5332,1.4873,3.3000,4.8922,7.7819,10.9795
1574.2188,3.2809,6.1048,3.8011,5.3440,7.2691,2.1013,0.8965,3.2342,7.1665,4.9008,8.7540,3.3419,3.3189,9.6959,2.2149,3.0169,2.5055,5.3964,7.3130
1578.1250,0.5839,3.8094,0.5783,0.8369,3.2354,1.5570,-0.8792,-0.0562,5.1258,3.8264,7.6897,3.1633,0.9724,3.7363,4.7102,2.9246,-0.2691,2.5352,3.3376
1582.0312,0.0089,2.5059,-1.9377,-3.4129,-1.0947,2.1698,-2.2378,-3.0067,3.7190,4.8985,6.9972,2.6160,-1.0963,-2.4280,7.4802,2.8601,-3.0699,-0.1252,-0.2813
1585.9375,0.9711,1.9337,-3.4203,-6.5290,-5.1753,3.1621,-3.0886,-5.1822,2.7140,6.8589,6.1990,1.7856,-2.6570,-7.7729,8.6160,2.6012,-5.3730,-1.9965,-2.9900
1589.8438,2.7756,1.7145,-3.7469,-7.7927,-8.4141,3.8563,-3.3600,-6.2750,1.9685,8.3957,5.1339,0.9766,-3.4132,-11.3391,6.9715,2.0682,-6.5970,-2.6462,-4.3558
1593.7500,5.1128,1.7758,-2.9246,-6.9175,-10.2671,4.1282,-2.9443,-6.1403,1.6993,9.0564,4.2369,0.5857,-3.1496,-12.5048,2.9419,1.4051,-6.3717,-1.9236,-4.1810
1597.6562,7.9651,2.3487,-1.1639,-4.2828,-10.4623,4.3431,-1.8010,-4.8906,2.2915,9.3448,4.2279,0.8039,-1.9996,-11.2669,-1.6831,0.8567,-4.8322,-0.1391,-2.7217
1601.5625,11.1267,3.5903,1.0044,-0.9423,-9.1989,4.8948,-0.1282,-2.9697,3.8252,10.0446,5.4582,1.3604,-0.6049,-8.3355,-4.7071,0.5274,-2.7092,1.8768,-0.8103
1605.4688,13.8954,5.2209,2.7928,1.7182,-7.1242,5.7695,1.5825,-1.0789,5.7767,11.4174,7.4789,1.5600,0.0537,-4.8906,-4.7230,0.2314,-1.0643,3.0237,0.3565
1609.3750,15.3311,6.5580,3.4960,2.5851,-5.0284,6.5115,2.7229,0.0875,7.2304,12.9702,9.2445,0.6833,-0.8410,-2.0576,-1.7691,-0.4082,-0.7529,2.4795,-0.2139
1613.2812,14.9416,6.9756,2.9279,1.3768,-3.4207,6.6149,2.9011,0.1794,7.5085,13.9643,9.8545,-1.4686,-3.3837,-0.3762,2.8971,-1.6405,-1.9187,0.2555,-2.6790
1617.1875,13.1995,6.4221,1.6063,-1.1946,-2.2773,5.9945,2.1911,-0.6161,6.7308,14.1773,9.2700,-4.2737,-6.7309,0.3982,7.6377,-3.2810,-3.8650,-2.6517,-6.1160
1621.0938,11.3429,5.5332,0.4591,-3.8110,-1.1664,5.1145,1.0901,-1.6896,5.8081,14.1902,8.3998,-6.5140,-9.4568,1.0073,11.2449,-4.6865,-5.4443,-4.7234,-8.9291
1625.0000,10.4773,5.1801,0.1835,-5.2936,0.3079,4.6372,0.1779,-2.3940,5.7841,14.8717,8.4129,-7.0592,-10.3341,2.0781,13.2168,-5.1024,-5.7662,-4.7959,-9.7452
1628.9062,10.6331,5.7672,0.7076,-5.2584,2.0538,4.8692,-0.2866,-2.4595,6.9771,16.4557,9.7494,-5.5957,-9.0698,3.5909,13.4874,-4.1904,-4.7892,-2.8120,-8.2515
1632.8125,10.6029,6.8443,1.2015,-4.2678,3.3836,5.4848,-0.5247,-2.1540,8.5960,18.0430,11.6040,-2.9025,-6.5016,4.7989,12.0443,-2.3705,-3.3946,0.0813,-5.4032
1636.7188,8.8579,7.3962,0.7093,-3.3757,3.3832,5.8036,-1.0086,-2.0642,9.2087,18.1014,12.3611,-0.4404,-4.0889,4.6836,8.8976,-0.6890,-2.8594,2.2200,-2.8148
1640.6250,4.9840,6.6578,-1.0128,-3.3622,1.5501,5.4422,-1.9977,-2.6359,7.8099,15.7361,10.7655,0.5203,-2.9995,2.6646,4.4587,-0.2302,-4.0363,2.4893,-1.6997
1644.5312,0.5448,4.8519,-3.0838,-4.1635,-1.7286,4.8108,-3.1930,-3.7905,4.7359,11.7781,7.0201,-0.3142,-3.3794,-0.9012,-0.0831,-1.4196,-6.7518,1.0752,-2.0543
1648.4375,-1.4516,3.2526,-3.8950,-4.8743,-5.2161,4.9855,-3.8008,-4.8945,1.7107,8.7224,2.9693,-2.0733,-4.2846,-4.7635,-2.9178,-3.6731,-9.8096,-0.6164,-2.6415
1652.3438,1.6589,3.4355,-2.1307,-4.3238,-7.4102,6.9537,-3.0139,-5.1197,0.8812,9.3222,1.1262,-3.2580,-4.3195,-7.3517,-2.4515,-5.6507,-11.6019,-0.8503,-1.8059
1656.2500,10.2653,6.1854,2.2516,-1.8539,-7.3365,10.7445,-0.5987,-3.9630,3.4269,14.6859,3.1096,-2.6572,-2.5564,-7.5265,1.6331,-5.9848,-10.9561,1.2997,1.4029
1660.1562,21.7626,10.8148,7.7719,2.1964,-5.0582,15.1208,2.8197,-1.5857,8.6640,23.2125,8.5095,-0.0692,0.8615,-5.0723,7.8692,-4.0503,-7.7153,5.2954,6.5227
1664.0625,31.6758,15.3933,12.1330,6.5953,-1.5925,18.1501,5.9983,1.2474,14.2767,31.2250,14.9511,3.5964,4.8064,-0.6842,13.5624,-0.3164,-2.7445,9.3753,11.8340
1667.9688,36.0269,17.7747,13.4624,9.8373,1.7048,18.3439,7.7126,3.5821,17.5629,35.0097,19.3506,6.8496,7.8481,4.4643,16.2031,3.9078,2.5726,11.5310,15.2667
1671.8750,33.4921,16.7733,11.3212,10.9010,3.8904,15.6151,7.4025,4.7804,16.9245,32.9676,19.5894,8.4154,9.0653,9.2618,14.8872,7.1499,6.9962,10.6135,15.4949
1675.7812,26.0176,12.7687,6.8787,9.7292,4.8689,11.3902,5.4429,4.8190,12.6971,26.4834,15.5947,7.8273,8.4844,13.0010,10.8200,8.4644,9.8684,6.9305,12.5923
1679.6875,17.5802,7.4267,2.2141,7.2114,5.2899,7.7906,2.9125,4.2405,6.8749,18.9925,9.2461,5.5474,6.9333,15.4131,6.5630,7.7765,11.1567,2.0535,7.9419
1683.5938,11.9673,2.8034,-0.7504,4.7431,6.0360,6.4275,1.0436,3.8355,1.9968,13.9412,3.2838,2.6644,5.4945,16.5066,4.5148,5.7717,11.2063,-1.9626,3.5477
1687.5000,10.9792,0.4273,-1.0287,3.6294,7.6594,7.6013,0.6929,4.2657,-0.0759,13.0061,-0.0411,0.4227,4.9507,16.3981,5.6008,3.4870,10.4436,-3.4651,1.1833
1691.4062,14.0208,0.8464,1.2999,4.6097,10.0998,10.3710,2.0888,5.8174,1.1811,15.6251,0.1833,-0.1778,5.5333,15.2467,8.9537,1.8640,9.2136,-1.7637,1.7853
1695.3125,19.0362,3.7245,5.4874,7.6595,12.7835,13.3402,4.8904,8.3500,5.0655,19.8849,3.4895,1.3745,7.0195,13.2600,12.6580,1.4564,7.7671,2.7852,5.2672
1699.2188,23.9207,8.2200,10.6200,12.0747,14.9606,15.5399,8.4166,11.3916,10.2464,23.9090,8.5739,4.9834,8.9894,10.6851,14.9515,2.3382,6.2936,9.0521,10.6886
1703.1250,27.4609,13.3207,15.8792,16.7572,16.0321,16.8188,11.8815,14.3009,15.3827,26.7413,13.9511,9.9255,11.0254,7.7480,15.0903,4.1640,4.9138,15.5509,16.6200
1707.0312,29.4366,18.0217,20.5311,20.5972,15.7094,17.5932,14.5727,16.4490,19.4738,28.3228,18.3861,14.9873,12.7771,4.6078,13.4634,6.3274,3.6525,20.8555,21.5822
1710.9375,30.2089,21.4573,23.8775,22.8406,14.0094,18.2978,16.0053,17.4060,21.9592,28.9532,21.0807,18.8299,13.9701,1.4101,11.1214,8.1892,2.4713,23.9700,24.4871
1714.8438,30.3623,23.1229,25.3885,23.3223,11.1867,19.0330,16.0740,17.0972,22.7408,28.9239,21.7696,20.5240,14.4597,-1.5681,9.2042,9.3323,1.3962,24.6135,24.9861
1718.7500,30.6428,23.1312,24.9858,22.4563,7.6802,19.6416,15.1324,15.8528,22.2077,28.6365,20.8028,20.0052,14.3219,-3.8188,8.6130,9.7419,0.6456,23.3156,23.5731
1722.6562,31.9507,22.2578,23.2033,20.9481,4.0544,20.0285,13.8789,14.2686,21.1647,28.8804,19.1042,18.1334,13.8553,-4.7138,9.9020,9.7873,0.6055,21.1958,21.3133
1726.5625,35.0022,21.5719,20.9676,19.3398,0.8678,20.3288,13.0046,12.8904,20.5131,30.6792,17.8346,16.2135,13.3916,-3.8542,13.1406,9.9603,1.5807,19.4215,19.2406
1730.4688,39.6370,21.7490,19.0295,17.6278,-1.5348,20.7111,12.7494,11.8689,20.7247,34.5077,17.7820,15.1856,12.9757,-1.4672,17.6462,10.4953,3.4510,18.5592,17.7083
1734.3750,44.2803,22.4842,17.4060,15.2080,-3.1968,20.9850,12.6523,10.8101,21.4076,39.3983,18.7960,14.9774,12.1526,1.4629,21.8289,11.1219,5.5006,18.1946,16.1003
1738.2812,46.2249,22.4838,15.2818,11.2444,-4.5315,20.4306,11.7327,8.9738,21.3441,42.8226,19.7039,14.4826,10.1052,3.5366,23.5474,11.1622,6.6378,17.1172,13.1670
1742.1875,42.9198,20.1827,11.5437,5.2975,-6.0417,18.1297,9.0803,5.7600,19.1337,41.8211,18.9099,12.2643,6.1678,3.6497,21.0958,9.9636,5.9640,14.0571,7.8760
1746.0938,33.6410,14.8193,5.6686,-2.1529,-7.9091,13.6584,4.5298,1.2134,14.1432,34.8928,15.4135,7.5894,0.4409,1.6744,14.3831,7.4021,3.3678,8.5864,0.2972
1750.0000,20.4260,7.1783,-1.6237,-9.6444,-9.7225,7.6391,-1.0257,-3.7910,7.1629,23.3965,9.6163,1.1302,-5.9240,-1.3536,5.4891,4.0991,-0.2671,1.6341,-8.0599
1753.9062,7.4527,-0.5509,-8.4466,-15.2418,-10.5832,1.6694,-5.9441,-7.8502,0.2668,11.3272,3.3393,-5.1632,-11.0542,-3.7388,-2.0074,1.1615,-3.4455,-4.7589,-14.7528
1757.8125,-0.9751,-5.8046,-12.5923,-17.3874,-9.5902,-2.4341,-8.6384,-9.6974,-4.1464,3.3551,-1.0563,-9.0047,-13.2045,-4.0819,-4.7796,-0.4147,-4.8520,-8.3744,-17.5451
1761.7188,-2.6830,-6.9796,-12.6796,-15.6358,-6.4338,-3.6248,-8.4106,-8.8523,-4.6089,2.2487,-1.9503,-8.9831,-11.6634,-2.1226,-1.6264,-0.2893,-4.0750,-7.9414,-15.5480
1765.6250,1.2924,-4.2642,-8.9114,-10.8576,-1.7106,-2.1893,-5.8020,-5.8690,-1.3784,7.3344,0.6420,-5.3162,-7.1674,1.0661,5.7220,1.0952,-1.7998,-3.8148,-9.7009
1769.5312,7.5029,0.5376,-2.9795,-4.7929,3.2864,0.5036,-2.2413,-2.0219,3.7229,15.0253,5.1233,0.2974,-1.5491,3.6847,13.4773,2.8758,0.6527,2.1830,-2.3046
1773.4375,12.2586,5.0588,2.8240,0.7910,7.2095,2.8945,0.7845,1.3824,8.3293,21.0921,9.2752,5.6097,3.1926,4.2652,17.8969,4.3472,2.1405,7.6681,4.1253
1777.3438,13.7807,7.6417,6.7552,4.8672,9.3436,4.1600,2.5176,3.6534,10.7910,23.1951,11.5137,8.9547,5.8582,2.5359,17.3575,5.3386,2.3355,10.8400,8.0279
1781.2500,13.0016,8.0774,8.3613,7.4287,9.8970,4.5690,3.1991,4.9382,10.9304,22.0621,11.6661,9.9238,6.4959,-0.4393,13.1328,6.1448,1.7846,11.2462,9.3502
1785.1562,12.6133,7.4437,8.4361,9.1678,9.7000,5.0930,3.6991,5.9052,9.8980,20.6524,10.8386,9.2597,6.1138,-2.9327,8.4432,7.1099,1.3951,9.7900,9.2321
1789.0625,15.1017,7.2406,8.2907,10.7922,9.5004,6.6087,4.7925,7.1131,9.2930,21.9952,10.5333,8.1441,5.8849,-3.6227,6.4378,8.2212,1.7258,8.0350,9.0819
1792.9688,21.0858,8.4070,8.8279,12.4063,9.3182,9.2739,6.5716,8.4803,10.1255,27.1834,11.6155,7.3836,6.3580,-2.4151,8.3916,9.0370,2.5693,7.2341,9.6173
1796.8750,28.9549,10.7915,9.9743,13.3222,8.2930,12.4634,8.3571,9.1953,12.2229,34.7606,13.7607,6.9778,7.1343,-0.5311,13.1657,8.9921,3.0867,7.6126,10.4174
1800.7812,35.8855,13.3023,10.7594,12.3984,5.1513,15.2201,9.1226,8.1323,14.3594,41.7191,15.6595,6.2527,7.1555,0.1757,18.1048,7.8251,2.3707,8.2671,10.1943
1804.6875,39.4707,14.5503,9.9337,8.7024,-0.9731,16.8356,8.1227,4.5251,14.9553,45.3001,15.7856,4.3773,5.3778,-1.7373,20.6612,5.7793,0.0458,7.6924,7.5861
1808.5938,38.9539,13.5698,6.7302,2.1227,-9.8557,17.1573,5.3224,-1.4946,12.9142,44.4346,13.2462,0.9067,1.4143,-6.4867,19.7061,3.4296,-3.4750,4.6334,2.0065
1812.5000,35.4585,10.2491,1.3355,-6.3968,-20.0399,16.4960,1.3907,-8.8014,8.1692,40.0942,8.2576,-3.9505,-4.2048,-12.9069,15.8605,1.2874,-7.2013,-1.1836,-5.9028
1816.4062,31.2810,5.3285,-5.1573,-15.1142,-29.3240,15.3108,-2.6794,-15.6739,1.7197,34.5993,2.0535,-9.4182,-10.2503,-18.9898,10.8818,-0.4904,-10.0642,-8.8069,-14.4326
1820.3125,28.7715,0.0527,-11.2396,-22.1012,-35.6054,13.9547,-6.0477,-20.4641,-4.7935,30.4745,-3.6620,-14.4784,-15.3274,-22.7942,6.6703,-2.0661,-11.3825,-16.4159,-21.4793
1824.2188,29.3622,-4.3198,-15.6307,-25.9128,-37.6407,12.6187,-8.3141,-22.1953,-9.7467,29.4605,-7.4247,-18.2390,-18.4280,-23.2480,4.5040,-3.6134,-11.0567,-22.0985,-25.3883
1828.1250,33.0503,-6.9515,-17.7417,-26.0247,-35.3729,11.3978,-9.4999,-20.8146,-12.1487,31.9607,-8.5746,-20.2009,-19.2518,-20.4831,4.7623,-5.0228,-9.4668,-24.6690,-25.5720
1832.0312,38.3767,-7.6730,-17.7663,-22.8885,-29.7482,10.3088,-9.8182,-17.0383,-11.9830,36.9058,-7.4726,-20.3661,-18.1999,-15.6288,7.0153,-5.8933,-7.2229,-24.1333,-22.6415
1835.9375,42.8496,-6.9794,-16.4212,-17.6442,-22.2132,9.2066,-9.4421,-11.9392,-10.1579,41.9775,-5.3057,-19.1925,-16.1056,-10.2528,10.2284,-5.8418,-4.9474,-21.5860,-18.0325
1839.8438,43.7582,-5.7812,-14.5225,-11.6615,-14.1914,7.7233,-8.4261,-6.5242,-8.0793,44.2456,-3.5605,-17.4214,-13.8629,-5.7591,12.9798,-4.8883,-3.1654,-18.6074,-13.3385
1843.7500,39.2538,-4.9861,-12.6285,-6.1119,-6.7615,5.4108,-6.7964,-1.4935,-7.0045,41.2505,-3.3597,-15.8109,-12.1100,-2.9862,13.7839,-3.5887,-2.2610,-16.4764,-9.6777
1847.6562,29.3627,-5.0713,-10.8938,-1.7041,-0.5785,2.1102,-4.6886,2.7716,-7.4481,32.2723,-4.9283,-14.8422,-11.0632,-2.0914,11.6163,-2.7614,-2.4148,-15.5972,-7.3664
1851.5625,16.4153,-5.8406,-9.1427,1.3796,4.0607,-1.6763,-2.3962,6.0910,-8.9180,19.1655,-7.4382,-14.5038,-10.5205,-2.6569,6.5175,-2.9628,-3.5040,-15.4104,-5.9930
1855.4688,4.4591,-6.5056,-7.0649,3.3897,7.1347,-4.7504,-0.2733,8.3754,-10.1363,6.0789,-9.3418,-14.2672,-9.9914,-3.8991,-0.0893,-4.0655,-5.0361,-14.7967,-4.7832
1859.3750,-2.3213,-6.0821,-4.4129,4.8201,8.8486,-5.6915,1.4406,9.6059,-9.6701,-2.1398,-9.0819,-13.3016,-8.8914,-4.9012,-5.7244,-5.2429,-6.2232,-12.7296,-3.0312
1863.2812,-1.5337,-3.9215,-1.1335,6.1776,9.5749,-3.6531,2.7396,9.8786,-6.6759,-2.2410,-5.8583,-10.8624,-6.7449,-4.8488,-7.8515,-5.3967,-6.2397,-8.8239,-0.3909
1867.1875,6.1526,-0.0997,2.5763,7.7597,9.7254,1.0004,3.8189,9.4264,-1.3800,5.6509,-0.0697,-6.6851,-3.3578,-3.2756,-5.1203,-3.7722,-4.5809,-3.5176,3.0523
1871.0938,17.1974,4.5515,6.2746,9.4997,9.5542,6.6820,4.9031,8.5504,4.9659,17.9055,6.8108,-1.1895,1.0745,-0.2768,1.8377,-0.3922,-1.3517,2.1575,6.8798
1875.0000,26.8824,8.8053,9.3458,10.9539,8.9881,11.2997,6.0509,7.4814,10.6410,29.1486,12.8834,4.6205,5.9545,3.4130,10.5858,3.9366,2.6852,7.0530,10.4999
1878.9062,31.6609,11.6118,11.1602,11.4727,7.6165,13.3258,7.0755,6.2635,14.2409,35.0244,16.6719,9.5320,10.3997,6.5872,18.0160,8.0223,6.3603,10.3662,13.2981
1882.8125,30.8765,12.5801,11.3142,10.5212,4.9039,12.5808,7.6411,4.7604,15.2874,34.3905,17.7451,12.6032,13.4897,7.9990,21.8539,10.8475,8.5565,11.8810,14.7712
1886.7188,26.8742,12.1199,9.8670,8.0114,0.5509,10.2404,7.4785,2.7988,14.3581,29.6605,16.7997,13.5257,14.5841,6.9133,21.7045,11.9838,8.6695,11.9263,14.6681
1890.6250,23.4478,11.1672,7.4302,4.4615,-5.1852,8.0609,6.5729,0.3640,12.6881,25.1092,15.1821,12.6973,13.5867,3.5130,19.0611,11.6709,6.8507,11.1299,13.1163
1894.5312,23.5445,10.6468,4.9926,0.8607,-11.4075,7.3079,5.1953,-2.2857,11.4779,24.1912,14.1188,10.9734,11.0168,-1.0907,16.3047,10.5676,3.9153,10.1151,10.6532
1898.4375,27.5702,10.9517,3.4998,-1.7325,-16.8151,8.0537,3.7492,-4.6695,11.2728,27.4975,14.0645,9.2193,7.8113,-5.3105,15.2957,9.3403,0.9555,9.2687,8.0786
1902.3438,33.2496,11.7127,3.3743,-2.6590,-20.1600,9.2514,2.5335,-6.2738,11.7279,32.5395,14.4969,7.8863,4.9205,-7.7997,16.3670,8.3073,-1.1524,8.6431,6.1343
1906.2500,37.0424,11.9728,4.2526,-1.9438,-20.7040,9.4831,1.5812,-6.7599,11.8462,35.3832,14.2416,6.8229,2.8885,-8.0631,18.2511,7.3118,-2.1028,7.9956,5.1481
1910.1562,36.1932,10.6760,5.1276,-0.2327,-18.4526,7.8631,0.6859,-6.0656,10.5383,33.0403,12.1332,5.4205,1.6474,-6.6207,18.9110,5.8692,-2.2061,6.9241,4.8558
1914.0625,30.1831,7.2252,4.8654,1.5785,-14.0745,4.5201,-0.3993,-4.3602,7.2016,25.1435,7.6646,3.0216,0.6530,-4.6339,16.7419,3.5139,-2.1124,5.0523,4.5428
1917.9688,20.7959,1.8366,2.8313,2.8026,-8.5837,0.4068,-1.7266,-1.9193,2.0407,13.9830,1.3033,-0.6217,-0.7052,-3.2156,11.4546,0.1621,-2.3804,2.2119,3.4658
1921.8750,10.9224,-4.4720,-0.7216,3.2430,-2.9756,-3.3541,-3.0460,0.9679,-3.9928,3.0665,-5.6527,-5.0831,-2.6575,-2.8381,4.2069,-3.7041,-3.1389,-1.4309,1.3256
1925.7812,2.9672,-10.2433,-4.7267,3.1601,2.0073,-6.0979,-3.9092,3.9927,-9.5675,-4.7715,-11.5773,-9.3451,-4.8443,-3.1824,-2.9932,-7.1561,-4.0378,-5.3505,-1.4944
1929.6875,-2.1363,-14.1194,-7.8037,2.9811,5.9109,-7.8120,-3.9305,6.7577,-13.4488,-8.5441,-15.1181,-12.2028,-6.4840,-3.4939,-8.2040,-9.2090,-4.5059,-8.7688,-4.0829
1933.5938,-4.8246,-15.3211,-8.9118,2.9681,8.4730,-8.8404,-3.0457,8.7506,-14.8840,-9.0250,-15.6348,-12.7942,-6.8288,-3.1884,-10.2954,-9.2945,-4.1537,-10.8811,-5.4742
1937.5000,-6.0154,-13.8822,-7.8160,3.0550,9.5223,-9.4030,-1.6084,9.4455,-13.7815,-7.7338,-13.3354,-10.9990,-5.6429,-2.3042,-9.2237,-7.5613,-3.0678,-11.1407,-5.1710
1941.4062,-6.2194,-10.5731,-5.1482,2.9354,8.9705,-9.3400,-0.2592,8.5188,-10.6784,-5.8611,-9.1224,-7.5112,-3.4139,-1.5079,-5.8494,-4.8245,-1.8116,-9.4956,-3.4153
1945.3125,-5.3164,-6.5739,-2.0691,2.3142,6.9018,-8.2810,0.3681,6.0646,-6.5506,-3.8579,-4.2689,-3.5569,-1.1608,-1.6556,-1.5142,-2.1797,-1.1298,-6.4657,-1.0576
1949.2188,-3.0618,-3.0372,0.2721,1.1448,3.6759,-6.0829,-0.0493,2.6640,-2.5275,-1.7856,-0.0477,-0.3945,0.0663,-3.1959,2.3959,-0.4876,-1.5290,-2.9907,0.8897
1953.1250,0.2116,-0.6996,1.2201,-0.2920,-0.0557,-3.1567,-1.3571,-0.7637,0.4352,0.0917,2.6021,1.1740,-0.2733,-5.7928,4.7967,-0.0083,-2.9805,-0.0813,1.7569
1957.0312,3.3856,0.3264,0.8420,-1.5035,-3.4754,-0.3788,-2.9742,-3.2803,1.8558,1.1171,3.3219,1.0736,-1.9200,-8.4030,5.1642,-0.3684,-4.9070,1.5892,1.5039
1960.9375,5.1192,0.5069,-0.1664,-2.0143,-5.8396,1.3989,-4.1320,-4.2731,1.8916,0.6873,2.4374,-0.0885,-3.9255,-9.7643,3.6985,-0.8460,-6.4510,1.9528,0.6525
1964.8438,4.8102,0.6052,-0.8361,-1.5927,-6.7352,1.9066,-4.2008,-3.6712,1.2617,-1.0384,0.8507,-1.3411,-5.1108,-9.0169,1.3138,-0.7862,-6.8692,1.5217,-0.0714
1968.7500,3.2111,1.2777,-0.3864,-0.3722,-6.2430,1.6705,-2.9661,-1.9451,0.9088,-2.8277,-0.2996,-1.7902,-4.6388,-6.1224,-0.6500,0.0872,-5.8489,1.0684,-0.1686
1972.6562,2.1542,2.7420,1.4012,1.1750,-4.9236,1.7040,-0.7353,0.0967,1.5316,-2.8673,-0.1164,-0.9869,-2.4165,-1.8773,-0.9783,1.6020,-3.6055,1.1880,0.3745
1976.5625,3.4863,4.7002,4.0746,2.4066,-3.6143,2.8719,1.7850,1.6247,3.2449,0.1738,1.6641,0.9339,0.8713,2.4556,0.8293,3.2982,-0.7466,2.0107,1.1368
1980.4688,7.9147,6.5851,6.7405,2.7742,-3.0987,5.3556,3.8068,2.0989,5.5916,6.2341,4.5994,3.4027,4.1140,5.6932,4.2778,4.6953,2.0069,3.2530,1.5906
1984.3750,14.5633,7.9999,8.5430,2.0912,-3.7759,8.5797,4.8415,1.4606,7.9286,13.7920,7.8693,5.7719,6.3368,7.1873,8.1410,5.5243,4.1047,4.5733,1.5104
1988.2812,21.5454,9.0727,9.1494,0.6854,-5.4736,11.6295,4.9537,0.1373,9.9447,20.7522,10.8273,7.6904,7.1847,7.0020,11.1775,5.8338,5.3399,5.9708,1.2143
1992.1875,27.1390,10.4559,8.9593,-0.6680,-7.5042,13.8449,4.7372,-1.1497,11.9341,25.7007,13.4140,9.2855,7.0723,5.7721,12.8758,5.9488,5.8567,7.9083,1.4704
1996.0938,30.7366,12.9140,8.8888,-1.0511,-8.9578,15.1781,4.9955,-1.7019,14.5855,28.6588,16.1274,11.0358,6.9119,4.3473,13.7255,6.3057,6.0063,11.0103,3.0891
2000.0000,32.9440,16.7287,9.8372,0.1763,-9.0996,16.0960,6.2882,-1.1442,18.3844,30.8161,19.5302,13.3990,7.5680,3.4109,14.7932,7.2242,6.1325,15.5080,6.4186
2003.9062,34.8431,21.3277,12.1569,3.0580,-7.6715,17.1518,8.6049,0.4433,23.0407,33.4583,23.6256,16.4181,9.3451,3.2473,16.8588,8.7039,6.3939,20.8237,11.0470
2007.8125,37.0255,25.4380,15.4648,7.0184,-4.9393,18.5685,11.3756,2.6398,27.3924,36.8765,27.5662,19.5663,11.8135,3.7486,19.7005,10.3515,6.7172,25.6516,15.9156
2011.7188,39.1084,27.7299,18.9100,11.1630,-1.4682,20.1205,13.8212,4.9756,29.9383,40.0346,29.9717,21.9563,14.0818,4.6161,22.0533,11.5129,6.9069,28.5673,19.8126
2015.6250,40.0137,27.5643,21.6974,14.7219,2.2139,21.3374,15.4187,7.2119,29.6993,41.1966,29.7020,22.8111,15.3505,5.6138,22.3154,11.5885,6.8406,28.8194,21.9680
2019.5312,38.7090,25.3438,23.4875,17.3523,5.8388,21.8062,16.1677,9.4079,26.8371,39.0315,26.5913,21.9130,15.3973,6.7058,19.5604,10.3849,6.6164,26.7801,22.3910
2023.4375,34.8266,22.2193,24.3926,19.1087,9.3518,21.3229,16.4699,11.7145,22.5898,33.4275,21.6381,19.7464,14.6817,7.9913,14.1890,8.2959,6.5340,23.7278,21.7413
2027.3438,28.7886,19.3453,24.6120,20.1325,12.6459,19.8320,16.7101,14.0396,18.5472,25.5400,16.5049,17.2423,14.0036,9.4909,7.8037,6.1714,6.9004,21.0764,20.8219
2031.2500,21.5301,17.2054,24.0438,20.3279,15.2987,17.3176,16.8555,15.8547,15.7554,17.1976,12.6547,15.2832,13.9433,10.9495,2.4159,4.9137,7.7791,19.5539,20.0348
2035.1562,14.2050,15.4849,22.2438,19.3103,16.5583,13.8552,16.3951,16.3458,14.2616,10.1932,10.6902,14.2758,14.4600,11.8240,-0.4809,5.0228,8.8642,18.8722,19.1642
2039.0625,8.1261,13.5613,18.8266,16.7058,15.6609,9.8451,14.6997,14.8738,13.3828,5.9056,10.2945,14.0342,14.9136,11.5009,-0.4150,6.3572,9.5889,18.0928,17.6229
2042.9688,4.8024,11.2167,14.0180,12.5914,12.3107,6.1982,11.5663,11.4609,12.4420,5.2667,10.7210,13.9990,14.4866,9.6274,2.1754,8.2460,9.4233,16.3998,14.9744
2046.8750,5.6892,8.9948,8.8877,7.7169,7.0068,4.1739,7.5392,6.9504,11.3764,8.7313,11.3980,13.6022,12.7116,6.3438,6.4152,9.8632,8.1741,13.7152,11.3480
2050.7812,11.4720,7.8890,4.9751,3.2763,0.9622,4.7949,3.7362,2.6735,10.7399,15.9800,12.1859,12.5328,9.7567,2.2633,11.3885,10.6176,6.0896,10.7240,7.4500
2054.6875,21.2164,8.5631,3.4612,0.3213,-4.3817,8.1300,1.2469,-0.2145,11.1114,25.5062,13.1510,10.7788,6.3029,-1.7915,16.2172,10.3349,3.7060,8.3225,4.1668
2058.5938,32.0959,10.6849,4.4118,-0.8129,-7.9759,12.9528,0.4904,-1.3249,12.4000,34.6015,14.1371,8.5048,3.1367,-5.1218,19.9414,9.1784,1.5527,6.9230,2.0464
2062.5000,40.2156,12.9062,6.6289,-0.6716,-9.5562,17.1316,0.9713,-1.1749,13.6321,40.1386,14.5702,5.9266,0.7552,-7.3514,21.5299,7.4461,-0.0743,6.1353,1.0185
2066.4062,42.3276,13.5588,8.2610,-0.3110,-9.5936,18.6337,1.6100,-0.7916,13.4383,39.9586,13.7165,3.2776,-0.7721,-8.4045,20.2089,5.4240,-1.1342,5.0460,0.5239
2070.3125,37.4899,11.6163,7.8141,-0.6382,-8.8816,16.5765,1.4310,-1.0520,10.9141,34.0542,11.2052,0.8323,-1.6609,-8.3480,15.9466,3.3733,-1.6931,2.8653,-0.0763
2074.2188,27.5668,7.2721,4.9308,-1.9095,-8.0581,11.6662,0.1480,-2.1980,6.2318,24.6608,7.3798,-1.1303,-2.1691,-7.2783,9.6922,1.5720,-1.7788,-0.5408,-1.1210
2078.1250,16.1428,1.7664,0.4683,-3.7052,-7.3653,5.7354,-1.7359,-3.8263,0.5642,15.0113,3.1627,-2.4717,-2.4642,-5.3608,3.0717,0.2804,-1.3872,-4.5954,-2.5470
2082.0312,6.4813,-3.3727,-4.1144,-5.3550,-6.7440,0.6834,-3.3502,-5.3053,-4.6052,7.4691,-0.4884,-3.3484,-2.6665,-2.9666,-2.3541,-0.4044,-0.6370,-8.4105,-4.0683
2085.9375,-0.1448,-7.1152,-7.6057,-6.4640,-6.1111,-2.4855,-4.0803,-6.2795,-8.2710,2.2944,-3.1144,-4.1959,-2.9500,-0.7257,-5.8002,-0.6804,0.0990,-11.2947,-5.4285
2089.8438,-4.6563,-9.2306,-9.5716,-7.1437,-5.5551,-3.9280,-3.9529,-6.8861,-10.2469,-2.0617,-4.8642,-5.4555,-3.5294,0.6440,-7.4503,-0.9873,0.2692,-12.9897,-6.5033
2093.7500,-8.8414,-10.0050,-10.2944,-7.7997,-5.2943,-4.4471,-3.5376,-7.5470,-10.8978,-7.3125,-6.1139,-7.1761,-4.4878,0.6870,-8.0149,-1.7201,-0.5500,-13.5323,-7.2011
2097.6562,-13.5295,-9.7244,-10.2881,-8.6785,-5.4565,-4.6589,-3.4719,-8.5293,-10.5837,-13.5420,-6.9420,-8.7942,-5.5838,-0.4850,-8.0211,-2.8828,-2.3111,-12.9637,-7.3184
2101.5625,-17.6393,-8.3994,-9.8190,-9.5511,-5.8947,-4.4896,-3.9717,-9.6313,-9.3271,-18.6427,-6.9359,-9.3410,-6.2566,-2.1883,-7.4047,-3.9695,-4.3974,-11.2160,-6.5573
2105.4688,-18.8159,-5.9415,-8.7788,-9.7987,-6.2247,-3.3524,-4.6709,-10.2434,-6.9723,-19.5177,-5.5321,-8.0457,-5.9203,-3.5320,-5.7248,-4.2466,-5.9159,-8.3084,-4.7590
2109.3750,-15.1831,-2.5772,-6.9406,-8.8441,-6.0815,-0.8091,-4.8778,-9.7442,-3.6524,-14.2828,-2.6380,-4.9827,-4.4042,-3.9558,-2.8080,-3.3055,-6.2416,-4.6691,-2.1897
2113.2812,-6.9133,0.9332,-4.3310,-6.6100,-5.4065,2.8459,-4.0495,-7.9423,-0.0968,-3.9106,0.9866,-1.3003,-2.2287,-3.5909,0.7379,-1.5065,-5.4583,-1.2380,0.3861
2117.1875,3.5459,3.5370,-1.4042,-3.6661,-4.5378,6.5648,-2.1519,-5.2525,2.5644,7.9178,3.9606,1.2160,-0.4704,-3.1832,3.6231,0.0618,-4.3670,0.8457,1.9769
2121.0938,12.7658,4.4579,1.1009,-0.9631,-4.0169,9.1260,0.3068,-2.4945,3.4167,16.7575,5.0323,1.0586,-0.2328,-3.6047,4.5974,0.1734,-4.0098,0.8273,1.8588
2125.0000,18.2354,3.6557,2.4869,0.6541,-4.2341,9.8818,2.5516,-0.4679,2.3414,19.8838,3.8432,-2.1361,-2.0204,-5.2582,3.2938,-1.7325,-4.9963,-1.2093,-0.0214
2128.9062,19.5570,1.8031,2.3631,0.8253,-5.1558,9.1172,3.9128,0.4099,0.0980,17.6719,1.1562,-7.3100,-5.4039,-7.7652,0.5611,-5.0760,-7.0715,-4.3612,-3.0064
2132.8125,18.1849,-0.2217,0.7080,-0.2723,-6.3188,7.7584,4.0703,0.1969,-2.1799,12.9962,-1.6240,-12.4831,-9.1914,-10.1359,-2.0010,-8.3515,-9.2184,-7.4149,-6.0823
2136.7188,16.0219,-1.9367,-2.2257,-2.1643,-7.0915,6.6554,3.0742,-0.7452,-3.7119,9.1299,-3.3069,-15.7386,-12.0036,-11.3089,-3.0192,-9.9496,-10.2364,-9.4997,-8.3863
2140.6250,13.9668,-3.4870,-6.0141,-4.3867,-7.0269,5.9749,1.2066,-2.0145,-4.4842,7.6183,-3.5635,-16.1148,-12.9074,-10.7130,-2.1776,-9.0832,-9.4269,-10.4425,-9.5472
2144.5312,11.4538,-5.3270,-10.0788,-6.6377,-6.0882,5.1453,-1.1759,-3.3356,-5.0614,7.5332,-2.9537,-13.9144,-11.7588,-8.5145,-0.3516,-6.2317,-6.9595,-10.6128,-9.6764
2148.4375,7.2362,-7.6222,-13.6738,-8.7175,-4.6294,3.3823,-3.7230,-4.5591,-5.9738,6.5066,-2.3822,-10.3284,-9.1129,-5.4368,1.0169,-2.8265,-3.7176,-10.4323,-9.0904
2152.3438,0.7531,-9.8653,-15.9718,-10.3792,-3.1705,0.4074,-6.0904,-5.5690,-7.1771,2.7137,-2.4150,-6.6876,-5.8326,-2.3130,0.8514,-0.3919,-0.7604,-9.9602,-8.0134
2156.2500,-6.9656,-11.0471,-16.3111,-11.2651,-2.1158,-3.1605,-7.9234,-6.2150,-8.0083,-3.6050,-2.9360,-3.8250,-2.6667,0.3302,-0.9392,0.3038,1.2419,-8.8762,-6.4754
2160.1562,-13.5174,-10.2924,-14.4985,-11.0034,-1.5634,-6.0218,-8.8782,-6.3312,-7.6608,-10.0885,-3.3229,-1.8771,-0.0201,2.4283,-3.5088,-0.4230,2.2697,-6.8499,-4.4329
2164.0625,-16.3240,-7.5019,-10.9600,-9.3886,-1.2768,-6.8838,-8.6899,-5.7983,-5.8020,-13.6269,-2.9392,-0.5257,2.0334,4.2425,-5.6719,-1.5139,2.8146,-3.9719,-1.9635
2167.9688,-14.0099,-3.5211,-6.5927,-6.5036,-0.8050,-5.1779,-7.2519,-4.5787,-2.8551,-12.1940,-1.5529,0.5890,3.5964,6.0779,-6.5914,-1.8989,3.4868,-0.8751,0.6517
2171.8750,-7.1029,0.3124,-2.3637,-2.6964,0.3094,-1.3673,-4.6694,-2.6938,0.2649,-5.9570,0.5867,1.5923,4.7918,8.0460,-6.1145,-1.1251,4.6346,1.5813,3.0218
2175.7812,2.3095,2.9491,1.1134,1.5542,2.3067,3.3153,-1.2679,-0.1913,2.7558,2.9500,2.9962,2.3783,5.6808,9.9842,-4.6157,0.4791,6.1721,2.8483,4.8296
2179.6875,11.6649,4.2170,3.7718,5.7730,5.0440,7.5072,2.4454,2.8286,4.4295,11.7120,5.2886,2.8112,6.2537,11.5261,-2.5594,2.1329,7.6563,3.0575,5.9609
2183.5938,19.0555,4.8395,5.9548,9.5465,7.9651,10.3388,5.8670,6.1246,5.7593,18.2869,7.3469,2.9316,6.4564,12.2453,-0.1420,3.1480,8.5199,2.9510,6.5001
2187.5000,23.7933,5.8965,8.0659,12.5156,10.2543,11.7028,8.4279,9.2408,7.4688,22.1613,9.2685,3.0088,6.2352,11.8017,2.7449,3.3257,8.3287,3.4148,6.6355
2191.4062,26.2308,8.0961,10.2494,14.3806,11.1535,12.0761,9.7481,11.5566,9.9704,24.0943,11.1866,3.4221,5.6030,10.0597,6.2486,2.9956,6.9692,4.9272,6.5711
2195.3125,27.1198,11.3195,12.2942,14.9703,10.3161,12.0728,9.7601,12.4958,13.0444,25.2036,13.1274,4.4615,4.7084,7.1644,10.2166,2.7369,4.7164,7.2813,6.5020
2199.2188,27.0052,14.6956,13.7876,14.3437,8.0114,12.0399,8.7356,11.8037,15.9472,26.0975,14.9814,6.1719,3.8579,3.5561,14.0500,3.0012,2.1662,9.7359,6.6208
2203.1250,26.0236,17.1195,14.3882,12.8284,5.0368,11.9409,7.1826,9.7259,17.8475,26.6136,16.5596,8.3129,3.4334,-0.1081,16.8730,3.8733,0.0350,11.4718,7.0838
2207.0312,24.1547,17.8818,14.0346,10.9297,2.3537,11.5652,5.6495,6.9560,18.2933,26.2400,17.6637,10.4345,3.7081,-3.1317,17.9387,5.0787,-1.1186,12.0521,7.9197
2210.9375,21.6478,17.0445,12.9852,9.1368,0.6302,10.8763,4.5295,4.3582,17.4361,24.8148,18.1309,12.0254,4.6543,-4.9994,17.0391,6.1865,-1.1418,11.6160,8.9445
2214.8438,19.2395,15.3781,11.6931,7.7397,-0.0447,10.2171,3.9600,2.6103,15.9111,22.9252,17.8662,12.6741,5.8775,-5.5464,14.6720,6.8589,-0.3693,10.7273,9.7842
2218.7500,17.9243,13.9218,10.6062,6.7693,-0.1093,10.1829,3.8522,1.9611,14.4748,21.6666,16.8759,12.1917,6.7584,-4.9871,11.8380,6.9997,0.5358,9.9996,10.0351
2222.6562,18.3749,13.4223,9.9882,6.0882,-0.1814,11.2103,4.0081,2.2207,13.6097,21.9004,15.2830,10.6578,6.7501,-3.7915,9.5488,6.7405,0.9232,9.7310,9.4807
2226.5625,20.3998,13.9519,9.8285,5.5511,-0.6420,13.1594,4.2424,2.9593,13.2996,23.5462,13.2920,8.3781,5.6667,-2.4751,8.3159,6.3014,0.4997,9.7499,8.2182
2230.4688,22.8827,14.9030,9.8660,5.1157,-1.4180,15.2245,4.4464,3.7732,13.0838,25.4770,11.1141,5.7779,3.7864,-1.4113,7.9344,5.8333,-0.5240,9.5423,6.6011
2234.3750,24.3706,15.3636,9.7209,4.8357,-2.0858,16.3163,4.5879,4.4624,12.3636,26.1992,8.9123,3.2842,1.7028,-0.7426,7.7306,5.3455,-1.5749,8.5877,5.0353
2238.2812,24.0192,14.6657,9.0872,4.7630,-2.2049,15.7296,4.6787,5.0365,10.8075,24.9247,6.8312,1.2454,0.0155,-0.3999,7.1441,4.7584,-2.0600,6.7183,3.7679
2242.1875,22.2580,12.7954,7.9003,4.8473,-1.6429,13.6536,4.7389,5.5809,8.6297,22.2777,5.0876,-0.1001,-0.9566,-0.1893,6.2523,4.0304,-1.6988,4.2987,2.8038
2246.0938,20.6175,10.4069,6.3838,4.9102,-0.6774,11.1246,4.7646,6.0886,6.5476,20.0308,4.0076,-0.6407,-1.2799,0.1090,5.8191,3.2520,-0.6525,2.1026,1.9825
2250.0000,20.6762,8.4125,4.9265,4.7058,0.1775,9.3712,4.6933,6.3757,5.3883,19.9038,3.8947,-0.4319,-1.2913,0.6583,6.7369,2.6167,0.6073,0.9204,1.1317
2253.9062,22.7572,7.3879,3.8496,4.0265,0.4942,8.9556,4.3865,6.1389,5.5390,22.1727,4.7502,0.2549,-1.3516,1.5126,9.1831,2.2743,1.5852,1.1014,0.1867
2257.8125,25.3212,7.1816,3.2110,2.8011,0.1949,9.3244,3.6699,5.1351,6.5912,25.1124,6.0475,0.9454,-1.6154,2.6029,12.1124,2.1736,2.0217,2.3051,-0.7780
2261.7188,25.6627,7.0156,2.7920,1.1568,-0.3928,9.1616,2.4527,3.3892,7.4648,25.8412,6.8117,1.1121,-1.9321,3.7766,13.5836,2.0356,1.9902,3.6502,-1.5747
2265.6250,21.6512,6.0449,2.2929,-0.5635,-0.7031,7.3769,0.8793,1.3052,7.0214,22.1884,6.0882,0.4439,-1.9153,4.8859,11.8816,1.5179,1.8118,4.2122,-1.9350
2269.5312,13.4356,4.0131,1.6048,-1.8483,-0.2153,4.0604,-0.6037,-0.4144,4.8235,14.3971,3.5784,-0.9086,-1.1419,5.8795,6.7832,0.4810,1.8657,3.5852,-1.5478
2273.4375,3.8763,1.5389,0.9461,-2.1562,1.2870,0.6685,-1.3726,-1.0480,1.5349,5.4266,0.0140,-2.3076,0.6013,6.8239,0.0736,-0.8377,2.3981,2.1411,-0.1539
2277.3438,-2.8005,-0.2082,0.7363,-1.1436,3.5853,-0.8010,-0.9377,-0.2232,-1.3617,-0.5452,-3.0734,-2.9241,3.1250,7.8095,-5.1919,-1.9054,3.3975,0.7899,2.2745
2281.2500,-3.4453,-0.2616,1.2713,1.0933,6.0618,0.8324,0.7177,1.8170,-2.4221,-0.6016,-4.1520,-2.2376,5.7950,8.7812,-6.3783,-2.2179,4.5625,0.3679,5.3442
2285.1562,1.9909,1.4628,2.4321,3.9090,7.8849,4.9733,3.0033,4.2266,-1.1488,5.0177,-2.6097,-0.4396,7.6985,9.4204,-2.9057,-1.6614,5.3702,1.0525,8.2055
2289.0625,10.2203,4.0407,3.6579,6.2569,8.2932,9.4216,4.9373,5.8921,1.6498,12.8928,0.8041,1.5590,7.9988,9.2075,3.2478,-0.6422,5.2482,2.2066,9.7992
2292.9688,16.4343,6.0815,4.2390,7.1003,6.8914,11.6605,5.6371,5.9525,4.3178,18.3778,4.3487,2.5949,6.3458,7.6918,8.5930,0.1463,3.8245,2.7842,9.3435
2296.8750,17.1044,6.5891,3.7505,5.9123,3.8486,10.4538,4.8102,4.2335,5.3607,18.3431,6.2912,1.9495,3.1372,4.8331,10.1522,0.1947,1.1666,2.0418,6.8130
2300.7812,12.0337,5.5726,2.3418,2.9941,-0.1044,6.6814,2.9373,1.3478,4.3655,12.9917,5.9307,-0.1508,-0.5450,1.1867,7.2293,-0.4332,-2.1221,0.0826,3.0950
2304.6875,4.4040,4.0102,0.6872,-0.5976,-3.9131,2.8261,1.0201,-1.6043,2.2506,5.6465,4.0164,-2.5755,-3.3495,-2.2387,1.8359,-1.0811,-5.0581,-2.1353,-0.3361
2308.5938,-1.1557,3.2181,-0.3660,-3.5086,-6.5924,1.4266,0.0431,-3.5708,0.7032,0.7157,2.3081,-3.8830,-4.2465,-4.4243,-2.4831,-0.8995,-6.6661,-3.3401,-2.0972
2312.5000,-1.2308,4.0588,-0.2265,-4.6991,-7.5982,3.5132,0.4770,-4.0156,1.1784,1.1642,2.5558,-3.1258,-2.9980,-4.8521,-2.6946,0.5867,-6.4307,-2.6849,-1.5579
2316.4062,4.5916,6.4892,1.1867,-3.8826,-6.9937,8.0376,2.1118,-3.0686,4.0776,7.0095,5.5038,-0.3898,-0.2530,-3.7776,2.0269,3.1186,-4.5634,-0.2238,0.8849
2320.3125,13.7430,9.6725,3.4669,-1.5701,-5.3326,12.6181,4.2729,-1.3134,8.5556,15.5830,10.4609,3.2435,2.7807,-2.0861,9.8881,5.7994,-1.9148,3.1407,4.0569
2324.2188,22.2646,12.4873,5.9403,1.2646,-3.3413,15.0387,6.2281,0.6068,12.9872,23.1570,15.6180,6.2644,4.9026,-0.8097,17.4780,7.5867,0.4401,6.1522,6.6073
2328.1250,26.8712,14.0585,7.9163,3.6750,-1.5909,14.4870,7.5026,2.2994,15.7534,26.8257,18.8869,7.4814,5.4212,-0.5876,21.5115,7.8646,1.7172,7.7982,7.6061
2332.0312,26.3316,14.0207,8.8587,5.1123,-0.3376,11.7821,7.9443,3.6785,15.9101,25.6220,18.8253,6.5331,4.3521,-1.3808,20.3546,6.7400,1.7535,7.6777,6.8441
2335.9375,21.6364,12.4831,8.4796,5.5171,0.4211,8.5861,7.5907,4.7938,13.4758,20.5333,15.2488,3.9392,2.2729,-2.5837,14.6352,4.9137,0.9796,6.0153,4.7617
2339.8438,15.1924,9.8686,6.8090,5.1654,0.7707,6.2644,6.5244,5.6158,9.3269,13.7586,9.3234,0.7513,-0.0197,-3.4288,6.8155,3.2528,0.0903,3.4338,2.1466
2343.7500,9.6762,6.7920,4.2482,4.4253,0.7424,5.1924,4.8593,5.9610,4.8427,7.7823,3.1371,-1.9461,-1.8419,-3.4223,0.0761,2.3571,-0.3663,0.6847,-0.1957
2347.6562,7.0820,3.9873,1.5282,3.5808,0.3131,4.8689,2.8368,5.6072,1.4466,4.6288,-1.0983,-3.4336,-2.8080,-2.5650,-2.9570,2.3589,-0.2345,-1.5431,-1.6730
2351.5625,8.1715,2.1728,-0.5055,2.7837,-0.4880,4.5788,0.8826,4.4943,0.1400,5.3475,-1.9435,-3.5294,-2.8574,-1.2759,-1.1869,2.9996,0.2694,-2.7460,-2.0278
2355.4688,12.3139,1.7919,-1.2499,2.0922,-1.4862,4.0058,-0.5032,2.8403,1.1291,9.6878,0.6187,-2.5559,-2.1946,-0.1184,4.5590,3.8484,0.7724,-2.7199,-1.3839
2359.3750,17.7008,2.7386,-0.6661,1.5234,-2.3874,3.3548,-0.9919,1.0772,3.6894,16.0590,5.1048,-1.1731,-1.2014,0.4829,11.8330,4.4904,0.9750,-1.6577,-0.2112
2363.2812,21.9642,4.2926,0.6601,1.0755,-2.9268,2.9993,-0.6340,-0.3529,6.4048,21.9765,9.1509,-0.1404,-0.3334,0.3862,17.5078,4.6070,0.7578,-0.1400,0.8291
2367.1875,23.1203,5.4076,1.8071,0.7287,-3.0391,3.0471,0.1534,-1.2039,7.7677,25.0187,10.6163,-0.0476,0.0099,-0.2947,19.0602,3.9949,0.1430,1.0619,1.1563
2371.0938,20.5009,5.2474,2.0209,0.4482,-2.9216,3.2184,0.8456,-1.5076,6.8967,23.9402,8.6422,-1.0775,-0.3747,-1.3248,15.6886,2.6038,-0.7998,1.3308,0.5531
2375.0000,15.1705,3.6490,1.1302,0.1948,-2.9349,3.1207,1.1468,-1.5019,3.9839,19.3226,4.0783,-2.8988,-1.4089,-2.4891,8.7142,0.6132,-2.0011,0.5130,-0.7172
2378.9062,9.4943,1.2061,-0.3838,-0.0690,-3.4010,2.6572,1.1611,-1.4755,0.1901,13.3122,-0.9922,-4.7728,-2.7648,-3.6732,1.0002,-1.5272,-3.3587,-1.0085,-2.0636
2382.8125,6.0090,-1.0879,-1.7025,-0.3904,-4.4278,2.2065,1.2674,-1.6351,-2.9738,8.5494,-4.3754,-5.8636,-4.0134,-4.8646,-4.3758,-3.1843,-4.6776,-2.5398,-2.9238
2386.7188,6.2226,-2.3871,-2.1555,-0.8381,-5.8688,2.4232,1.7845,-2.0577,-4.4103,6.9356,-4.8788,-5.6173,-4.8103,-6.0952,-5.5140,-3.7696,-5.6681,-3.4612,-3.0961
2390.6250,10.0466,-2.3656,-1.5703,-1.4869,-7.4315,3.8156,2.6733,-2.7200,-3.8851,8.9813,-2.7605,-4.0129,-5.0106,-7.3627,-2.4081,-3.0099,-6.0415,-3.5227,-2.8169
2394.5312,16.1498,-1.2056,-0.2948,-2.3665,-8.8528,6.4149,3.4964,-3.5513,-1.9285,14.0251,0.6932,-1.5526,-4.6645,-8.5726,3.3537,-1.1061,-5.6612,-2.8795,-2.5349
2398.4375,22.8925,0.7011,1.0666,-3.4038,-10.0229,9.7501,3.6750,-4.4626,0.6608,20.9706,4.1015,0.9895,-3.9319,-9.5385,9.6250,1.3192,-4.6525,-1.8953,-2.5569
2402.3438,29.1457,3.0459,1.9981,-4.4080,-10.9827,13.0924,2.8725,-5.3402,3.3085,28.8665,6.7749,2.9049,-3.0059,-10.0540,14.7800,3.4683,-3.3899,-0.8975,-2.8363
2406.2500,34.4731,5.6521,2.2882,-5.1255,-11.8069,15.7601,1.2516,-6.0240,5.8173,36.9105,8.8595,3.7924,-2.0960,-10.0081,18.2101,4.6835,-2.3499,-0.0691,-3.0602
2410.1562,38.7144,8.2960,2.0426,-5.3407,-12.4605,17.2939,-0.5599,-6.3021,8.1474,44.0580,10.8526,3.6135,-1.4409,-9.4761,20.0858,4.6841,-1.8989,0.4886,-2.9506
2414.0625,41.4779,10.5290,1.5553,-4.9664,-12.7352,17.4698,-1.7740,-5.9475,10.0960,48.8212,12.9413,2.5956,-1.2759,-8.7149,20.7476,3.6327,-2.1259,0.6444,-2.5296
2417.9688,42.0646,11.7300,1.1474,-4.0788,-12.3255,16.2567,-1.8414,-4.8031,11.1978,49.6882,14.6934,1.0868,-1.7261,-8.0428,20.2702,2.0248,-2.8107,0.2256,-2.1345
2421.8750,39.9111,11.3980,1.0349,-2.8961,-11.0177,13.8165,-0.7347,-2.8970,10.9484,46.0008,15.3022,-0.5598,-2.6886,-7.6656,18.4987,0.4640,-3.5456,-0.8591,-2.1777
2425.7812,35.1503,9.4727,1.2325,-1.7321,-8.8878,10.5370,1.0160,-0.5380,9.1684,38.6167,14.1563,-2.0581,-3.8195,-7.5595,15.4195,-0.5848,-3.9513,-2.4770,-2.8493
2429.6875,28.7699,6.4263,1.5074,-0.9400,-6.3780,7.0013,2.5407,1.6870,6.2053,29.7288,11.2899,-3.2368,-4.6857,-7.4959,11.4689,-0.9684,-3.8715,-4.2559,-3.9898
2433.5938,22.1963,3.0567,1.4410,-0.8333,-4.1712,3.8341,3.0079,3.0743,2.8209,21.8322,7.4214,-4.0613,-5.0049,-7.1984,7.4827,-0.8695,-3.4397,-5.7354,-5.2069
2437.5000,16.6334,0.1524,0.6469,-1.5565,-2.8935,1.4947,2.0117,3.1065,-0.1287,16.5187,3.6227,-4.5928,-4.8022,-6.5254,4.3321,-0.6601,-2.9766,-6.5663,-6.1056
2441.4062,12.6853,-1.7204,-0.9081,-2.9343,-2.7888,0.1675,-0.1893,1.7695,-1.9702,13.9551,0.9036,-4.8701,-4.3496,-5.5517,2.5542,-0.6458,-2.7756,-6.5931,-6.4358
2445.3125,10.5207,-2.2031,-2.6748,-4.4013,-3.5577,-0.1585,-2.7083,-0.3173,-2.2836,13.3848,-0.0394,-4.7742,-3.9153,-4.4970,2.2567,-0.8436,-2.9030,-5.7620,-6.0711
2449.2188,10.3239,-1.0330,-3.6138,-5.1299,-4.4843,0.5021,-4.3755,-2.1007,-0.8325,14.1691,1.1150,-3.9987,-3.5157,-3.5629,3.3031,-0.9465,-3.1439,-3.9715,-4.9148
2453.1250,12.4960,1.9391,-2.6808,-4.3823,-4.8097,2.2348,-4.2813,-2.5897,2.4474,16.4506,4.2949,-2.2134,-2.8808,-2.8106,5.5300,-0.5315,-3.1371,-1.0604,-2.8989
2457.0312,17.2909,6.5193,0.5118,-1.9405,-4.1541,5.0972,-2.2701,-1.4001,7.2870,20.8414,8.9565,0.6337,-1.6862,-2.1700,8.7487,0.5999,-2.6213,2.9868,-0.1315
2460.9375,24.1355,11.9126,5.2750,1.6482,-2.7307,8.8227,0.9013,0.9842,12.8786,27.3856,14.0363,4.0800,0.1139,-1.5649,12.5325,2.1839,-1.6323,7.7567,2.9415
2464.8438,31.2854,16.7539,10.0128,5.2259,-1.2089,12.6211,3.8851,3.4376,17.9031,34.7276,18.1403,7.2006,2.1261,-1.0371,16.0521,3.5634,-0.5114,12.3169,5.5752
2468.7500,36.3345,19.5897,12.9825,7.5661,-0.3002,15.3356,5.4249,4.8174,20.9603,40.3459,20.0584,9.0025,3.6880,-0.7568,18.2442,4.0733,0.2943,15.5020,7.0491
2472.6562,37.4538,19.6120,13.2349,8.0205,-0.3218,15.9782,5.0355,4.6244,21.2498,41.9014,19.3906,8.9657,4.2774,-0.8980,18.3261,3.5097,0.5136,16.4796,7.1048
2476.5625,34.5852,17.1766,11.1534,6.8773,-1.0153,14.3456,3.2727,3.2889,19.0764,38.8155,16.8632,7.3799,3.8696,-1.4742,16.3358,2.3489,0.2271,15.2500,6.1736
2480.4688,29.6912,13.6905,8.2308,5.1832,-1.7289,11.2814,1.4065,1.8892,15.7764,32.8866,14.0172,5.2208,2.9728,-2.2665,13.2694,1.5201,-0.1875,12.7168,5.1697
2484.3750,25.7241,10.8523,6.1987,4.1162,-1.8340,8.3194,0.6721,1.4764,13.0149,27.3556,12.3566,3.6044,2.3004,-2.9107,10.6219,1.8358,-0.3057,10.2256,4.9354
2488.2812,24.8589,9.6796,6.0434,4.2914,-1.0950,6.8442,1.5458,2.4328,11.8449,24.9248,12.4532,3.1496,2.3114,-3.0864,9.5640,3.4405,0.0649,8.8275,5.7026
2492.1875,27.0854,9.9349,7.4992,5.4288,0.2370,7.2533,3.4829,4.2603,12.1145,26.0128,13.5993,3.6594,2.9428,-2.6812,10.2648,5.6541,0.7635,8.7197,6.9522
2496.0938,30.0787,10.3150,9.2858,6.5752,1.6303,8.6527,5.2601,5.9038,12.6011,28.4145,14.2540,4.3167,3.7062,-1.8252,11.7928,7.3289,1.3824,9.2032,7.7766
2500.0000,30.4649,9.2724,9.8818,6.7110,2.5983,9.3161,5.6865,6.3684,11.7776,28.6128,13.0013,4.2448,4.0474,-0.7965,12.6465,7.4950,1.5145,9.1561,7.4792
2503.9062,25.7298,5.9432,8.3292,5.3398,2.9085,7.6706,4.2351,5.2270,8.7193,23.9121,9.3939,3.0466,3.6860,0.1177,11.5708,5.8743,0.9676,7.7038,5.9836
2507.8125,15.6646,0.6326,4.6319,2.7139,2.5672,3.2464,1.2419,2.7403,3.6103,14.0792,4.1657,0.9854,2.7020,0.7066,8.1766,2.9561,-0.1819,4.6817,3.7880
2511.7188,2.5777,-5.3604,-0.3641,-0.3815,1.6662,-2.9532,-2.3748,-0.3995,-2.3814,1.5608,-1.2445,-1.2542,1.3634,0.8474,3.0778,-0.3622,-1.6926,0.6742,1.5581
2515.6250,-9.7369,-10.3767,-5.4022,-3.0701,0.2748,-8.8653,-5.6214,-3.4524,-7.6831,-9.7268,-5.4558,-2.9926,-0.1037,0.4889,-2.4161,-3.2718,-3.3008,-3.3013,-0.2797
2519.5312,-17.6287,-13.0734,-9.2545,-4.7437,-1.5098,-12.3290,-7.8249,-5.8766,-10.9520,-16.2318,-7.6746,-3.8518,-1.5831,-0.3281,-6.7880,-5.3410,-4.7837,-6.2185,-1.6330
2523.4375,-18.9825,-12.8188,-11.0025,-5.1611,-3.4207,-12.0779,-8.7354,-7.3507,-11.4510,-16.2104,-7.7382,-3.7621,-2.9348,-1.4173,-8.7445,-6.4595,-5.9204,-7.3559,-2.5082
2527.3438,-13.8208,-9.7485,-10.1869,-4.3407,-4.9664,-8.2712,-8.3949,-7.6840,-9.1161,-10.1701,-5.8290,-2.7739,-3.8289,-2.4289,-7.5146,-6.5873,-6.4349,-6.4356,-2.7272
2531.2500,-4.0412,-4.6170,-6.9152,-2.4268,-5.5903,-2.3446,-6.9713,-6.7889,-4.4584,-0.3446,-2.2261,-0.9082,-3.7641,-2.9373,-3.0603,-5.5949,-6.0291,-3.6467,-1.9077
2535.1562,7.4223,1.4117,-1.9215,0.3376,-4.9820,3.6833,-4.7026,-4.7657,1.5581,10.3259,2.6768,1.8053,-2.3314,-2.6274,3.7887,-3.3603,-4.5302,0.3918,0.2315
2539.0625,17.6121,7.0108,3.5469,3.5640,-3.3131,8.0786,-1.9392,-1.9893,7.6627,19.1862,8.1825,5.1614,0.4512,-1.4709,11.3853,-0.0346,-2.0574,4.7504,3.4989
2542.9688,24.3983,11.0180,8.1114,6.7309,-1.1839,10.0280,0.8489,0.9580,12.5437,24.5210,13.2334,8.6868,4.0118,0.2397,17.6415,3.7883,0.9362,8.4421,7.1501
2546.8750,26.9617,12.8140,10.8175,9.3414,0.7294,9.7998,3.1907,3.5388,15.2514,25.8167,16.6948,11.7692,7.4501,2.0477,20.7289,7.2081,3.8153,10.7790,10.2336
2550.7812,25.8190,12.5809,11.5636,11.1489,2.1000,8.4280,4.8123,5.5381,15.5825,23.6916,17.8714,13.9509,9.9926,3.5881,19.8471,9.4263,6.0395,11.6657,12.1399
2554.6875,22.4256,11.2265,11.0926,12.2681,3.1308,7.1222,5.7568,7.1353,14.1867,19.5760,16.8976,15.1625,11.3645,4.7707,15.6591,10.1603,7.3955,11.6187,12.9299
2558.5938,18.5245,9.9216,10.4841,13.0353,4.3356,6.6988,6.3000,8.6665,12.2453,15.2222,14.6789,15.6854,11.8133,5.7552,10.0861,9.7637,8.0337,11.4348,13.1702
2562.5000,15.5050,9.4603,10.4318,13.6803,6.0559,7.2741,6.6930,10.2222,10.8468,12.1654,12.3759,15.8480,11.7806,6.7392,5.4920,8.9536,8.2917,11.6701,13.3905
2566.4062,14.0198,9.8263,10.7796,14.0467,8.0636,8.3153,6.9120,11.3913,10.4163,11.2881,10.7600,15.6843,11.4893,7.7169,3.6319,8.3262,8.4304,12.2583,13.5921
2570.3125,13.9600,10.2545,10.6432,13.6043,9.5598,8.9730,6.6173,11.3932,10.5536,12.6191,9.8718,14.8434,10.7729,8.3969,4.8951,7.9906,8.4616,12.5423,13.2120
2574.2188,14.7071,9.7677,9.0592,11.7979,9.6115,8.5146,5.3752,9.5690,10.3848,15.4077,9.1878,12.8603,9.2828,8.3584,8.2155,7.5650,8.1754,11.7252,11.5947
2578.1250,15.4806,7.8471,5.7327,8.5225,7.7546,6.6678,3.0092,5.9218,9.1938,18.4263,8.1384,9.6161,6.9070,7.3521,11.6734,6.5231,7.3359,9.4569,8.6159
2582.0312,15.6383,4.8109,1.3833,4.3922,4.3651,3.7542,-0.1604,1.3230,6.9292,20.4075,6.5893,5.6462,4.0623,5.5444,13.4670,4.6440,5.9064,6.1653,4.9688
2585.9375,14.8877,1.6703,-2.5482,0.5814,0.5467,0.5937,-3.3573,-2.8007,4.2756,20.5134,4.9558,2.0363,1.6097,3.5345,12.7708,2.2655,4.1564,2.9059,1.8685
2589.8438,13.4092,-0.4213,-4.6486,-1.7023,-2.4026,-1.7744,-5.6619,-5.1402,2.2703,18.7008,3.9069,-0.0779,0.4221,2.1170,10.0807,0.1793,2.5840,0.8204,0.3687
2593.7500,11.8432,-0.7757,-4.2750,-1.8124,-3.6229,-2.4678,-6.4169,-5.1422,1.7167,15.8084,3.8940,-0.1117,0.8859,1.9161,6.8990,-0.7584,1.7016,0.5400,0.7655
2597.6562,11.0465,0.5128,-1.8632,0.0220,-3.0596,-1.1343,-5.5112,-3.2401,2.7416,13.2207,4.8293,1.6396,2.6713,3.0888,4.9208,-0.0733,1.7960,1.8868,2.4914
2601.5625,11.6073,2.6704,1.3367,2.8329,-1.3911,1.8126,-3.4089,-0.5668,4.7232,12.1492,6.1048,4.1500,4.9116,5.2435,5.1170,2.0696,2.7824,4.0179,4.5337
2605.4688,13.3330,4.6533,3.9036,5.4007,0.3908,5.2345,-0.9354,1.6499,6.6023,12.8587,6.9186,6.1980,6.6656,7.6002,7.1808,4.9168,4.2179,5.8886,6.0496
2609.3750,15.0957,5.6281,4.9051,6.8094,1.4818,7.6619,1.0633,2.6521,7.4049,14.3450,6.7072,6.9754,7.3690,9.3034,9.6600,7.4487,5.4731,6.7590,6.7551
2613.2812,15.3257,5.3149,4.2655,6.7874,1.5854,7.9537,2.0446,2.3945,6.7283,14.8221,5.4600,6.4311,7.0223,9.7448,10.7566,8.8134,5.9941,6.4904,6.8871
2617.1875,13.0217,4.0874,2.7247,5.7068,0.9381,5.9339,1.9605,1.4052,4.9677,12.8769,3.7625,5.1904,6.0548,8.7691,9.3915,8.6767,5.5451,5.5292,6.8584
2621.0938,8.6716,2.8043,1.4501,4.3001,0.0883,2.6293,1.2477,0.4133,3.1561,8.6054,2.5399,4.1275,4.9986,6.6939,5.9161,7.3306,4.3140,4.6285,6.9128
2625.0000,4.3413,2.4164,1.4759,3.2677,-0.4237,-0.1348,0.6106,-0.0299,2.4485,3.8846,2.5869,3.8450,4.1839,4.1490,1.9870,5.5103,2.8128,4.4442,7.0045
2628.9062,2.6346,3.4651,3.1825,2.9616,-0.3342,-0.6711,0.6669,0.2304,3.4558,1.4061,4.0815,4.3359,3.6108,1.8084,-0.4001,4.0032,1.6094,5.1711,6.9080
2632.8125,5.0218,5.6927,6.0318,3.2641,0.2351,1.5795,1.6078,0.9500,5.7780,2.9473,6.3430,4.9945,3.0293,0.1351,-0.1679,3.2460,1.0279,6.3734,6.3995
2636.7188,10.6232,8.0179,8.7177,3.6959,0.8619,5.6087,3.0613,1.6564,8.0587,8.0110,8.0407,4.9619,2.1536,-0.7455,2.1024,3.1311,0.9983,7.1199,5.3629
2640.6250,16.4015,9.0070,9.7449,3.6993,1.0680,9.2971,4.2751,1.9080,8.6475,13.8559,7.8498,3.6285,0.8915,-0.9873,4.4842,3.1402,1.1574,6.4249,3.8106
2644.5312,18.8393,7.6823,8.2198,2.9715,0.6119,10.5778,4.5627,1.5367,6.5754,17.0585,5.2574,1.0310,-0.5282,-0.8285,4.9309,2.7287,1.1409,3.8284,1.8964
2648.4375,16.1235,4.2219,4.4512,1.6811,-0.3257,8.6449,3.7665,0.7670,2.2722,15.6573,1.0300,-2.0829,-1.6054,-0.3946,2.6322,1.7168,0.8651,-0.1946,-0.0366
2652.3438,9.3981,0.0627,-0.0311,0.4330,-1.1923,4.4656,2.4354,0.1348,-2.4858,10.4400,-3.0345,-4.5836,-1.7971,0.3612,-1.4178,0.4220,0.5879,-4.2900,-1.4485
2656.2500,2.1831,-2.7761,-3.1535,-0.0339,-1.3605,0.2571,1.5596,0.2151,-5.4788,4.4595,-5.0391,-5.5302,-0.8296,1.5378,-5.0511,-0.5651,0.6898,-6.8178,-1.7528
2660.1562,-1.7246,-2.8195,-3.3585,0.7301,-0.5178,-1.7609,1.9854,1.2819,-5.3061,1.0770,-4.0857,-4.6636,1.0752,3.0802,-6.3395,-0.8046,1.3291,-6.7065,-0.6270
2664.0625,-0.5059,-0.0189,-0.4480,2.5907,1.0920,-0.5710,3.8732,3.1014,-2.2132,1.8691,-0.8275,-2.5201,3.2304,4.6636,-4.8211,-0.3202,2.2395,-4.0670,1.6955
2667.9688,4.7429,4.2171,4.3183,4.8673,2.7559,3.2069,6.5621,5.0132,2.0880,5.8204,2.9429,-0.0720,4.8097,5.7870,-1.6984,0.4394,2.8515,-0.1454,4.4129
2671.8750,10.9512,7.9118,8.9592,6.7062,3.6853,7.8612,8.9549,6.2853,5.5283,10.2891,5.4570,1.8902,5.3134,6.0404,1.0958,0.9661,2.6763,3.4079,6.5276
2675.7812,15.1621,9.7652,11.8924,7.5681,3.4766,11.6875,10.1860,6.5402,6.9940,12.9610,6.1177,3.2298,4.8834,5.3603,2.2591,1.1029,1.6767,5.5107,7.4238
2679.6875,16.3061,9.9118,12.7376,7.5125,2.3373,13.9008,10.1320,5.9753,6.9472,13.3495,5.8283,4.4537,4.2235,4.0729,1.9193,1.1639,0.3305,6.2269,7.2562
2683.5938,15.5205,9.6651,12.3049,7.0841,0.9203,14.8126,9.4255,5.2182,6.9247,12.8187,6.2438,6.2044,4.1256,2.6675,1.3335,1.6459,-0.6885,6.5528,6.8359
2687.5000,14.9675,10.4326,11.8276,6.8748,-0.1213,15.2752,8.9714,4.9037,8.2720,13.2522,8.4490,8.6019,4.8857,1.4478,1.7803,2.7404,-0.9951,7.5550,7.0392
2691.4062,16.1356,12.5768,12.0010,7.0632,-0.5531,15.8827,9.3050,5.2507,11.0218,15.4720,12.0050,10.9227,6.0166,0.3165,3.5213,4.0354,-0.7827,9.4667,8.1303
2695.3125,18.8389,15.0424,12.4952,7.2540,-0.6660,16.5164,10.2300,5.9240,13.7281,18.5943,15.0656,11.8982,6.4955,-1.1341,5.6085,4.6784,-0.6850,11.3911,9.4836
2699.2188,21.4808,16.0197,12.2475,6.7292,-1.0161,16.5001,10.9677,6.2641,14.3852,20.6977,15.5122,10.4846,5.4226,-3.2735,6.6286,3.9280,-1.2968,11.8405,9.9321
2703.1250,22.1867,14.1712,10.2864,4.9372,-2.0025,15.1623,10.6900,5.7125,11.7836,20.1611,12.3296,6.5994,2.6636,-6.0740,5.7576,1.7094,-2.7042,9.7491,8.5229
2707.0312,19.8890,9.5574,6.4832,1.8890,-3.5915,12.3448,9.0573,4.1380,6.3546,16.6055,6.2792,1.3122,-0.9721,-9.0048,3.3012,-1.2407,-4.3832,5.2594,5.1701
2710.9375,14.6921,3.6333,1.7234,-1.7898,-5.3638,8.5116,6.4143,1.8645,-0.0624,10.8332,-0.5667,-3.6692,-4.1597,-11.2706,0.3495,-3.7708,-5.5539,-0.2551,0.7690
2714.8438,7.5360,-1.6379,-2.5745,-5.1561,-6.8130,4.4632,3.5574,-0.5679,-5.3241,4.0456,-6.0569,-6.8955,-5.8174,-12.2369,-2.1011,-4.9910,-5.7344,-4.9333,-3.2816
2718.7500,-0.3069,-4.8986,-5.2211,-7.3792,-7.6490,0.9475,1.2805,-2.6948,-8.1665,-2.8384,-9.0855,-7.8771,-5.6901,-11.7582,-3.8082,-4.7648,-5.0836,-7.4240,-5.8038
2722.6562,-7.4433,-5.9844,-5.7903,-8.0416,-7.8919,-1.5351,0.0178,-4.2649,-8.6820,-9.1722,-9.8864,-7.1599,-4.3837,-10.2054,-5.2019,-3.6901,-4.2795,-7.4930,-6.3454
2726.5625,-12.3188,-5.6733,-4.6505,-7.1925,-7.7348,-2.6758,-0.2294,-5.1815,-7.8775,-14.0548,-9.4291,-5.7898,-2.8701,-8.2091,-6.6868,-2.6150,-4.0258,-5.9135,-5.2093
2730.4688,-13.3699,-4.9115,-2.6003,-5.2247,-7.3421,-2.2481,0.2748,-5.3862,-6.7641,-16.0412,-8.4969,-4.5890,-1.8467,-6.3225,-7.9831,-2.0607,-4.5571,-3.8270,-3.1150
2734.3750,-9.6777,-4.1575,-0.4470,-2.7258,-6.7712,-0.1743,1.2064,-4.8501,-5.7038,-13.6903,-7.1827,-3.7545,-1.4051,-4.8306,-8.1309,-1.9581,-5.4998,-2.0786,-0.8086
2738.2812,-1.8661,-3.3036,1.1993,-0.3840,-6.0615,3.2119,2.2635,-3.7007,-4.4465,-6.7640,-5.1294,-3.0014,-1.1948,-3.7787,-6.2240,-1.8427,-6.1723,-0.9538,1.1257
2742.1875,7.5058,-2.1200,1.9069,1.1002,-5.3611,6.9540,3.1290,-2.3397,-2.7076,2.8609,-2.2162,-2.0546,-0.8835,-3.1192,-2.3076,-1.3077,-6.0765,-0.3743,2.2520
2746.0938,14.6865,-0.7571,1.3716,1.1882,-4.9167,9.6223,3.4493,-1.3622,-0.7263,11.5249,0.9449,-1.0506,-0.5114,-2.8069,2.3102,-0.3468,-5.2088,-0.2662,2.2483
2750.0000,16.4988,0.1666,-0.4931,-0.2438,-4.8892,9.9102,2.9503,-1.2381,0.6902,15.4945,3.1535,-0.5291,-0.4559,-2.7697,5.6641,0.6543,-3.9827,-0.7429,1.0025
2753.9062,12.1705,-0.0217,-3.3598,-2.7242,-5.1426,7.3994,1.6570,-1.9463,0.6789,13.1007,3.3270,-1.0387,-1.0647,-2.8296,6.2877,1.2273,-2.8652,-1.9757,-1.2141
2757.8125,4.0139,-1.4743,-6.4050,-5.2746,-5.2296,2.9952,0.0375,-2.8590,-1.0179,5.8850,1.2437,-2.6896,-2.2846,-2.7180,4.1187,1.1574,-2.0399,-3.9192,-3.7079
2761.7188,-3.6417,-3.5707,-8.5373,-6.8231,-4.6593,-1.3353,-1.1090,-3.0419,-3.7644,-2.1244,-2.2232,-5.0095,-3.6114,-2.2362,0.5192,0.5876,-1.3572,-6.1748,-5.6123
2765.6250,-6.7438,-5.2160,-8.9031,-6.7588,-3.2972,-3.4769,-1.0373,-1.8422,-6.3357,-6.6471,-5.5445,-7.2069,-4.4154,-1.4573,-2.5942,-0.1515,-0.5806,-8.1384,-6.3412
2769.5312,-3.6840,-5.4934,-7.3795,-5.2859,-1.5906,-2.2534,0.4884,0.6108,-7.5963,-5.5139,-7.3360,-8.6322,-4.3833,-0.7754,-3.8988,-0.8088,0.3102,-9.3170,-5.9396
2773.4375,3.9612,-4.2120,-4.7104,-3.3184,-0.3994,1.9375,2.9623,3.3590,-7.0873,0.3119,-7.0051,-9.0926,-3.7242,-0.6960,-3.3292,-1.3456,1.0313,-9.5650,-5.0440
2777.3438,12.5008,-1.9808,-2.1443,-1.9398,-0.4831,7.3195,5.3157,5.1090,-5.1682,7.6077,-4.8956,-8.8256,-2.9741,-1.4681,-1.8838,-1.8474,1.2052,-9.0699,-4.4306
2781.2500,18.2635,0.2045,-0.7654,-1.7517,-1.9651,11.6544,6.4420,4.9857,-2.7031,12.9694,-1.9569,-8.2090,-2.5603,-2.8166,-0.8110,-2.3305,0.6917,-8.1402,-4.4538
2785.1562,19.4617,1.5485,-0.9243,-2.5267,-4.1475,13.3556,5.7771,3.0745,-0.5671,14.6978,0.7667,-7.4764,-2.4745,-4.0089,-0.7898,-2.6442,-0.2404,-7.0036,-4.7880
2789.0625,16.7612,1.8298,-2.1090,-3.3868,-5.8335,12.1873,3.6004,0.4049,0.7073,13.3780,2.5211,-6.6549,-2.3208,-4.2651,-1.6221,-2.5689,-1.0604,-5.7776,-4.6810
2792.9688,12.4481,1.3778,-3.3119,-3.3825,-5.9781,9.2123,0.8819,-1.6144,1.0150,11.0131,2.9900,-5.7270,-1.6978,-3.2651,-2.5259,-2.0298,-1.3414,-4.5894,-3.5467
2796.8750,8.9313,0.7628,-3.6365,-2.0865,-4.2663,6.0969,-1.2272,-1.9536,0.5751,9.5146,2.2789,-4.8182,-0.6083,-1.4071,-2.7065,-1.2312,-1.0665,-3.6666,-1.4610
2800.7812,7.5689,0.4604,-2.7638,0.1730,-1.2684,4.2173,-1.9680,-0.4580,-0.2025,9.6230,0.8434,-4.2056,0.4427,0.3839,-1.7838,-0.5735,-0.6385,-3.2479,0.8144
2804.6875,8.3822,0.6906,-1.0322,2.5575,1.8998,4.0578,-1.2985,2.1792,-0.8137,10.8442,-0.6169,-4.1153,0.7639,1.2014,0.1355,-0.3900,-0.5761,-3.3523,2.3098
2808.5938,10.5526,1.4438,0.8540,4.2444,4.1803,5.1624,0.1802,4.8848,-0.7642,12.2053,-1.3497,-4.4778,-0.0064,0.7177,2.6502,-0.6863,-1.1144,-3.6168,2.4936
2812.5000,13.1509,2.5775,2.2568,4.8754,5.0738,6.5627,1.6157,6.7841,0.2601,13.1238,-0.8314,-4.8667,-1.5615,-0.5973,5.2892,-1.0764,-1.9959,-3.4075,1.6282
2816.4062,15.5918,3.8772,2.9103,4.6654,4.7780,7.3709,2.3675,7.5471,2.2086,13.7661,0.9810,-4.7113,-3.0259,-1.7361,7.6236,-0.9696,-2.5979,-2.1981,0.5949
2820.3125,17.6575,5.0774,2.9628,4.1544,3.9478,7.2013,2.2866,7.3601,4.6088,14.7543,3.6034,-3.6546,-3.4503,-1.7344,9.2989,0.0996,-2.3126,0.0271,0.3180
2824.2188,19.2769,5.9097,2.7908,3.8117,3.2692,6.2441,1.6855,6.6324,6.7459,16.5600,6.2579,-1.8126,-2.3895,-0.2239,10.0961,2.1917,-0.9305,2.6555,1.1846
2828.1250,20.3354,6.2065,2.7314,3.7504,3.0978,5.0313,1.0571,5.6775,8.0164,19.0604,8.2614,0.2466,-0.1960,2.3523,10.0497,4.8780,1.1998,4.7412,2.8290
2832.0312,20.6411,5.9931,2.8785,3.6974,3.3225,4.0822,0.7317,4.5622,8.2316,21.5221,9.3118,1.7862,2.1502,4.9587,9.5148,7.3790,3.3144,5.5337,4.3819
2835.9375,19.9991,5.4636,3.0230,3.1848,3.4733,3.6312,0.6789,3.1642,7.6454,22.9493,9.4847,2.2572,3.5589,6.4763,9.0428,8.8483,4.5793,4.8828,4.9808
2839.8438,18.2907,4.8106,2.7462,1.8207,2.9874,3.5529,0.5580,1.3455,6.6773,22.5480,8.9812,1.5153,3.3854,6.2241,9.0640,8.6870,4.4526,3.2429,4.2112
2843.7500,15.5351,4.0245,1.6237,-0.5015,1.5086,3.4805,-0.0292,-0.8911,5.5438,20.0782,7.8700,-0.1905,1.7136,4.2471,9.5685,6.7837,2.9032,1.3002,2.2496
2847.6562,11.9752,2.8491,-0.5310,-3.5278,-0.8997,3.0319,-1.2473,-3.3423,4.1057,16.0007,6.0699,-2.3930,-0.7556,1.2616,10.0423,3.6026,0.4176,-0.4779,-0.3027
2851.5625,8.1962,0.9912,-3.4848,-6.7050,-3.7199,2.0326,-2.8795,-5.6494,2.0809,11.4121,3.6027,-4.6012,-3.1109,-1.6886,9.7731,0.0693,-2.1924,-2.0320,-2.7372
2855.4688,5.1638,-1.5226,-6.5703,-9.3513,-6.1705,0.6426,-4.4120,-7.4108,-0.5243,7.7801,0.8858,-6.4195,-4.6896,-3.7022,8.3698,-2.7417,-4.1068,-3.5224,-4.5255
2859.3750,4.0254,-4.1117,-8.8959,-10.8960,-7.5720,-0.6633,-5.3033,-8.3219,-3.1226,6.4911,-1.2419,-7.5887,-5.3557,-4.4168,6.1478,-4.0310,-4.8314,-4.9625,-5.4754
2863.2812,5.6363,-5.7735,-9.7279,-11.1188,-7.7306,-1.2728,-5.2781,-8.3051,-4.6874,8.3034,-1.8798,-8.0073,-5.4846,-4.1632,4.0847,-3.6261,-4.4177,-6.0203,-5.7494
2867.1875,10.0046,-5.5904,-8.8741,-10.2864,-7.1195,-0.7198,-4.4767,-7.5852,-4.3198,12.9214,-0.6201,-7.7580,-5.6987,-3.8003,3.3239,-2.0686,-3.4555,-6.1944,-5.7738
2871.0938,16.0115,-3.3357,-6.8508,-9.0879,-6.7013,1.0317,-3.3791,-6.6566,-1.8948,18.9508,2.0936,-7.1071,-6.5050,-4.2880,4.5087,-0.3482,-2.8006,-5.2575,-6.0636
2875.0000,21.6845,0.2240,-4.6967,-8.3466,-7.4252,3.4540,-2.5554,-6.1174,1.6694,24.3662,5.0959,-6.4202,-8.0194,-6.1827,7.3600,0.6047,-3.1393,-3.6095,-6.9920
2878.9062,24.9915,3.5896,-3.4864,-8.6188,-9.6506,5.5903,-2.3880,-6.4096,4.7668,27.3414,7.0875,-5.9921,-9.9014,-9.3044,10.7647,0.3944,-4.6068,-2.2106,-8.5790
2882.8125,24.7689,5.2667,-3.7820,-9.8861,-12.8407,6.4585,-2.9129,-7.5831,5.9278,27.0432,7.3276,-5.8771,-11.5182,-12.7616,13.3248,-0.6741,-6.6842,-2.0568,-10.4121
2886.7188,21.2600,4.5759,-5.3223,-11.5287,-15.7468,5.5614,-3.8454,-9.2215,4.6383,23.9515,6.0016,-5.8384,-12.2451,-15.3453,14.0475,-1.8388,-8.4611,-3.5112,-11.7829
2890.6250,15.9359,2.0552,-7.1361,-12.6226,-17.0218,3.2250,-4.7473,-10.6013,1.6573,19.5160,4.0470,-5.4754,-11.7475,-16.0959,12.7868,-2.3756,-9.1306,-5.9477,-12.0108
2894.5312,10.6896,-0.8051,-8.0354,-12.4076,-15.9294,0.5251,-5.2322,-11.0279,-1.3705,15.3400,2.5754,-4.4700,-10.1064,-14.7452,10.2229,-2.0293,-8.4281,-7.9922,-10.7954
2898.4375,6.8811,-2.3582,-7.2273,-10.6678,-12.7402,-1.2277,-5.1050,-10.1766,-2.7871,12.3680,2.2700,-2.7998,-7.7397,-11.7970,7.4424,-1.1150,-6.7495,-8.2569,-8.3908
2902.3438,4.7896,-1.6771,-4.7174,-7.8155,-8.5874,-1.1963,-4.3945,-8.2520,-1.7809,10.5435,3.1097,-0.7811,-5.1836,-8.2233,5.3917,-0.2503,-4.8796,-6.1372,-5.4860
2906.2500,3.7662,0.9843,-1.2910,-4.6477,-4.8731,0.4916,-3.2928,-5.8713,1.2424,9.1061,4.5299,1.0837,-2.8666,-4.9691,4.5021,0.0800,-3.5122,-2.1840,-2.8534
2910.1562,2.9271,4.3933,1.9065,-1.9340,-2.5761,2.8000,-2.0483,-3.7368,4.9531,7.2929,5.8461,2.3598,-0.9907,-2.5537,4.6379,-0.1690,-2.8655,2.1776,-0.9727
2914.0625,1.8849,7.0621,3.9576,-0.0760,-1.8431,4.3921,-0.8580,-2.2802,7.8514,4.9580,6.6432,2.8802,0.4470,-0.9661,5.3142,-0.6090,-2.6249,5.4115,0.1510
2917.9688,1.0093,8.0611,4.6131,0.9930,-2.0539,4.4374,0.2059,-1.4772,9.0348,2.6858,6.9091,2.7899,1.5484,0.1432,5.9949,-0.7028,-2.2171,6.6615,0.8893
2921.8750,1.0379,7.4595,4.3598,1.6580,-2.2663,3.1065,1.2110,-0.9247,8.5632,1.3167,6.8913,2.4331,2.4145,1.1455,6.2886,-0.1155,-1.2129,6.1200,1.6996
2925.7812,2.3250,6.1699,4.0967,2.3459,-1.7554,1.4220,2.3048,-0.1251,7.2634,1.2127,6.8253,2.1732,3.1044,2.1995,5.9820,1.0903,0.4034,4.7953,2.8341
2929.6875,4.2949,5.3277,4.6020,3.2895,-0.3557,0.5566,3.5955,1.1931,6.1422,1.8029,6.7332,2.2428,3.6439,3.2110,4.9856,2.5129,2.2428,3.8574,4.2120
2933.5938,5.5688,5.5977,6.0816,4.4364,1.5314,1.0428,5.0232,2.9004,5.7842,1.8064,6.4145,2.6819,4.0391,3.9550,3.3225,3.6505,3.7518,3.9700,5.4957
2937.5000,4.7904,6.8166,8.0354,5.5135,3.2106,2.4295,6.3008,4.5282,6.0889,0.0898,5.6258,3.3608,4.2722,4.2432,1.2219,4.1603,4.5066,4.9879,6.2952
2941.4062,1.6581,8.1570,9.5080,6.1825,4.0669,3.6163,6.9846,5.5228,6.4697,-3.3539,4.3315,4.0534,4.2975,4.0332,-0.7582,4.0004,4.3894,6.1553,6.3743
2945.3125,-2.5565,8.6814,9.5900,6.2031,3.8534,3.6257,6.6649,5.5412,6.3525,-7.0080,2.8667,4.5294,4.0727,3.4434,-1.7483,3.4112,3.5861,6.6418,5.7653
2949.2188,-5.4726,7.9305,7.9060,5.5383,2.7717,2.2755,5.1890,4.6184,5.6294,-8.4359,1.8910,4.6432,3.6240,2.6997,-0.8466,2.7795,2.4561,6.0731,4.7590
2953.1250,-4.8988,6.1939,4.8378,4.3657,1.3303,0.2922,2.7918,3.1168,4.7679,-5.6809,2.1087,4.3931,3.0892,2.0503,2.3961,2.4598,1.3722,4.7451,3.7879
2957.0312,-0.2165,4.3242,1.3733,2.9936,0.0555,-1.1855,0.0505,1.4959,4.5046,1.3443,3.8705,3.9207,2.6718,1.6660,7.5467,2.6235,0.5965,3.4224,3.2432
2960.9375,7.0594,3.2373,-1.3328,1.7181,-0.8047,-1.3381,-2.3218,0.0495,5.3302,10.4219,6.8669,3.4360,2.5001,1.5453,13.2330,3.1828,0.2095,2.8656,3.2871
2964.8438,14.0047,3.4127,-2.4595,0.6919,-1.4271,-0.1174,-3.7394,-1.2203,7.1113,17.9983,10.1267,3.0948,2.4790,1.4665,17.6141,3.8194,0.0905,3.3841,3.7409
2968.7500,17.9413,4.6802,-1.8351,-0.1122,-2.3053,1.8577,-3.9361,-2.5098,9.1067,21.1277,12.3920,2.8988,2.2710,1.0485,19.2084,4.1220,-0.0390,4.6730,4.1280
2972.6562,18.0195,6.3772,0.0631,-0.8096,-3.9096,3.8138,-3.0107,-3.9582,10.3776,19.2462,12.7245,2.6960,1.4738,-0.0542,17.6409,3.7881,-0.4940,6.0135,3.8978
2976.5625,15.6989,7.7405,2.3914,-1.4283,-6.2832,5.3211,-1.3368,-5.4044,10.3358,14.6112,11.0236,2.2994,-0.0762,-1.8929,13.8582,2.7996,-1.4481,6.7015,2.7522
2980.4688,13.7692,8.2874,4.3409,-1.7725,-8.8248,6.4191,0.5929,-6.3392,9.0859,11.0115,8.1413,1.6629,-2.0714,-4.0584,9.6436,1.4732,-2.7802,6.4478,0.9018
2984.3750,14.5069,7.9932,5.4605,-1.4491,-10.4464,7.3464,2.3181,-6.1237,7.3587,11.4604,5.4875,0.9933,-3.7626,-5.7591,6.6935,0.3404,-4.0531,5.5259,-0.9253
2988.2812,18.1571,7.2260,5.7765,-0.0852,-10.0851,8.1731,3.5212,-4.3699,6.0968,16.3024,4.3200,0.7064,-4.2895,-6.1674,5.7885,-0.0906,-4.6774,4.6005,-1.7843
2992.1875,22.7383,6.5290,5.6895,2.3743,-7.3219,8.6795,4.0887,-1.2588,5.9543,22.9622,5.1124,1.2236,-3.1489,-4.8783,6.5332,0.4307,-4.2048,4.3514,-1.0018
2996.0938,25.3041,6.3776,5.7207,5.4820,-2.7444,8.5761,4.1163,2.4145,6.9946,27.5302,7.3492,2.7137,-0.5268,-2.2116,7.7652,1.7872,-2.5939,5.1045,1.4103
3000.0000,23.8291,6.9906,6.2246,8.3690,2.1943,7.8421,3.8398,5.5307,8.7125,27.1813,9.8378,4.9285,2.7166,0.8515,8.3190,3.5485,-0.2895,6.6529,4.6606
3003.9062,18.4892,8.2238,7.1817,10.0875,5.7915,6.8445,3.4929,7.1299,10.3031,21.8784,11.3286,7.2338,5.4148,3.1010,7.6441,5.1395,1.9459,8.3386,7.4841
3007.8125,11.5391,9.5632,8.1592,10.0395,6.8703,6.0973,3.1502,6.8322,10.9979,14.2973,11.0816,8.8357,6.6147,3.6756,5.9432,6.0305,3.3660,9.3309,8.7042
3011.7188,5.9391,10.2595,8.4770,8.2535,5.2999,5.8496,2.6578,4.9715,10.3237,8.0989,9.1134,9.0999,5.9726,2.4671,3.8628,5.8867,3.5632,8.9707,7.7660
3015.6250,3.6816,9.6287,7.5449,5.3593,1.9911,5.8723,1.7375,2.3900,8.2432,5.7406,6.0830,7.8223,3.8475,0.1337,2.0508,4.6653,2.6218,7.0502,4.9797
3019.5312,4.8795,7.4484,5.2403,2.2920,-1.5996,5.6659,0.2445,0.0304,5.2031,7.2401,2.9754,5.3414,1.0950,-2.2638,0.9032,2.6676,1.0464,3.9390,1.3771
3023.4375,8.0709,4.2537,2.1361,-0.0906,-4.1614,4.9558,-1.5768,-1.4435,2.0856,10.5738,0.7718,2.4493,-1.2901,-3.7801,0.5813,0.5180,-0.4727,0.5196,-1.7208
3027.3438,11.3553,1.2997,-0.5953,-1.2735,-5.0461,4.0606,-3.0422,-1.8192,0.0121,13.2520,0.2030,0.1331,-2.5099,-3.9775,1.1349,-0.9833,-1.3347,-2.0677,-3.2113
3031.2500,13.5005,0.0838,-1.6328,-1.1395,-4.3886,3.7795,-3.2958,-1.2699,-0.0359,13.9055,1.5730,-0.7685,-2.1761,-3.0201,2.5166,-1.1514,-1.2347,-2.8179,-2.5853
3035.1562,14.3487,1.5959,-0.1457,0.1356,-2.8516,4.8170,-1.7949,-0.1557,2.3185,12.8650,4.6376,0.1225,-0.3845,-1.4835,4.4561,0.2412,-0.2429,-1.2740,-0.0549
