Time,Fp1,F3,C3,P3,O1,F7,T3,T5,Fz,Fp2,F4,C4,P4,O2,F8,T4,T6,Cz,Pz
0.0000,-1.0790,3.5351,5.5146,5.1233,3.0135,0.6140,3.1295,3.9233,3.7468,5.1993,3.0003,5.1695,5.1128,2.8749,2.3859,3.9705,3.3666,6.3867,5.5800
3.9062,-0.5220,4.1190,6.7067,7.0628,5.2722,1.8521,3.1492,5.9578,4.0044,4.5895,3.3046,5.7525,5.8692,4.4797,1.6031,4.0856,4.5258,7.3504,6.9539
7.8125,-0.1891,4.7019,7.8319,9.3617,8.3331,3.2238,3.1407,8.2401,4.1854,3.9551,3.8099,6.4963,7.2049,6.9946,0.6214,4.0171,6.2790,8.2186,8.9715
11.7188,-0.6369,4.7144,8.0340,10.9620,11.1537,3.6995,2.7077,9.6577,3.8463,3.4111,4.1645,6.9712,8.7066,9.7432,-0.3209,3.5871,8.1234,8.2281,10.9510
15.6250,-2.1961,3.5595,6.5774,10.7938,12.4828,2.2683,1.4431,9.1355,2.5639,2.9294,3.8989,6.6752,9.6454,11.6737,-0.9629,2.6882,9.3159,6.7365,11.9408
19.5312,-4.6698,0.9779,3.3044,8.3680,11.4990,-1.3888,-0.7382,6.2451,0.2287,2.3403,2.7087,5.3092,9.3275,11.8532,-1.1376,1.3503,9.2051,3.6451,11.1735
23.4375,-7.3110,-2.6896,-1.1613,4.1220,8.2938,-6.4951,-3.4121,1.5597,-2.7871,1.4529,0.6978,2.9862,7.4920,9.9729,-0.8632,-0.2385,7.5640,-0.4283,8.4933
27.3438,-9.1518,-6.5461,-5.6346,-0.7285,3.8842,-11.3778,-5.8039,-3.5083,-5.7308,0.2183,-1.6026,0.2265,4.4952,6.5417,-0.3613,-1.7796,4.7281,-4.3853,4.4853
31.2500,-9.5227,-9.5278,-8.9346,-4.7819,-0.2913,-14.2460,-7.2537,-7.3606,-7.8265,-1.1798,-3.4914,-2.2915,1.1353,2.6286,0.0181,-2.9776,1.4499,-7.2015,0.2031
35.1562,-8.4534,-10.9518,-10.4909,-7.1567,-3.1128,-14.1404,-7.6947,-9.0221,-8.6947,-2.3861,-4.5018,-4.0926,-1.7927,-0.7030,-0.0580,-3.6796,-1.4531,-8.4824,-3.3635
39.0625,-6.6980,-10.9006,-10.6319,-7.8936,-4.3147,-11.4889,-7.7804,-8.6402,-8.5762,-3.0593,-4.6970,-5.1596,-3.9318,-2.9196,-0.7510,-3.9694,-3.4551,-8.6747,-5.7669
42.9688,-5.3469,-10.1881,-10.3693,-7.8225,-4.5014,-7.9049,-8.4992,-7.3653,-8.2011,-3.0655,-4.6463,-5.9108,-5.5011,-4.1794,-1.9567,-4.1445,-4.4909,-8.7790,-7.2425
46.8750,-5.2452,-9.8959,-10.7921,-7.9940,-4.6565,-5.3163,-10.4746,-6.6615,-8.3587,-2.5517,-5.0636,-6.9014,-7.0498,-5.0618,-3.3240,-4.5555,-4.8678,-9.7254,-8.4418
50.7812,-6.5543,-10.7408,-12.4227,-9.0392,-5.4812,-4.9271,-13.4147,-7.4463,-9.4202,-1.8478,-6.3134,-8.4311,-9.0014,-6.0832,-4.3858,-5.3746,-5.0104,-11.7903,-9.9487
54.6875,-8.6961,-12.6563,-14.9153,-10.8489,-6.9897,-6.6173,-16.1285,-9.5702,-11.1058,-1.2651,-8.1055,-10.3126,-11.3092,-7.3473,-4.7496,-6.4294,-5.2207,-14.4192,-11.8985
58.5938,-10.6840,-14.8456,-17.2698,-12.7345,-8.5971,-9.1187,-17.1729,-11.9449,-12.6440,-0.9305,-9.6018,-11.9607,-13.4623,-8.5558,-4.2658,-7.2363,-5.5934,-16.5675,-13.9322
62.5000,-11.6274,-16.2757,-18.4266,-13.9246,-9.5976,-10.8301,-15.7598,-13.2334,-13.2357,-0.7686,-9.9121,-12.7559,-14.8324,-9.3280,-3.1020,-7.2660,-6.1013,-17.3451,-15.4854
66.4062,-11.1295,-16.3023,-17.8876,-14.0546,-9.6797,-10.7656,-12.3438,-12.6758,-12.5482,-0.6396,-8.6968,-12.4551,-15.1095,-9.5539,-1.6929,-6.3161,-6.7380,-16.5675,-16.1878
70.3125,-9.4047,-15.0459,-16.0067,-13.3508,-9.1259,-9.0820,-8.4873,-10.5534,-10.9507,-0.5279,-6.4986,-11.3826,-14.5151,-9.5004,-0.5929,-4.7634,-7.5772,-14.8809,-16.0941
74.2188,-7.1231,-13.3040,-13.8024,-12.4380,-8.5900,-6.9167,-6.0567,-8.0289,-9.3559,-0.6358,-4.5599,-10.2746,-13.6457,-9.5943,-0.2894,-3.4936,-8.6886,-13.4019,-15.6059
78.1250,-5.1134,-12.0796,-12.4259,-11.9427,-8.6363,-5.6860,-6.2322,-6.4858,-8.7599,-1.3028,-4.1856,-9.8651,-13.0631,-10.0634,-1.0422,-3.4801,-9.9755,-13.1028,-15.1707
82.0312,-4.0714,-12.0314,-12.5901,-12.1586,-9.3716,-6.2849,-8.9210,-6.7761,-9.7324,-2.7856,-5.9920,-10.4672,-12.9234,-10.7234,-2.7917,-5.2133,-11.0824,-14.3054,-14.9864
85.9375,-4.3510,-13.1638,-14.2558,-12.9545,-10.4047,-8.6335,-12.8911,-8.8051,-12.1183,-5.0349,-9.4789,-11.7968,-12.9021,-11.0813,-5.1526,-8.3092,-11.4815,-16.5488,-14.9175
89.8438,-5.8545,-14.8943,-16.6946,-13.9153,-11.1220,-11.7729,-16.4775,-11.6480,-15.0862,-7.6141,-13.1931,-13.1325,-12.4523,-10.6814,-7.4938,-11.5632,-10.7276,-18.8573,-14.6522
93.7500,-8.0306,-16.3950,-18.8426,-14.5718,-11.0581,-14.3956,-18.3906,-14.0693,-17.4772,-9.8233,-15.4207,-13.6996,-11.2034,-9.4321,-9.0949,-13.4746,-8.7398,-20.2131,-13.9568
97.6562,-10.0106,-16.9740,-19.7387,-14.5687,-10.1102,-15.4858,-18.1644,-15.1132,-18.2784,-10.9766,-15.0377,-13.0477,-9.2191,-7.6738,-9.3564,-12.9798,-5.9252,-19.9707,-12.8243
101.5625,-10.8953,-16.3002,-18.8573,-13.7198,-8.4915,-14.7392,-16.0935,-14.4551,-17.0143,-10.6953,-12.0549,-11.2216,-6.9505,-5.9437,-8.0174,-10.0003,-3.0457,-18.0391,-11.4200
105.4688,-10.1275,-14.4249,-16.2424,-12.0028,-6.5189,-12.5925,-12.8572,-12.3964,-13.9102,-9.0764,-7.5689,-8.6742,-4.9416,-4.6202,-5.3021,-5.4972,-0.8791,-14.8229,-9.8959
109.3750,-7.7818,-11.6840,-12.4565,-9.5680,-4.4262,-9.9056,-9.1737,-9.6024,-9.7878,-6.6641,-3.1700,-6.0174,-3.5118,-3.7096,-1.9161,-1.0070,0.1402,-11.0260,-8.2490
113.2812,-4.5876,-8.5853,-8.4025,-6.7701,-2.3350,-7.4964,-5.6919,-6.7872,-5.7516,-4.2458,-0.1580,-3.7757,-2.6332,-2.9207,1.1490,2.0781,0.0987,-7.4338,-6.3607
117.1875,-1.6141,-5.7173,-5.0703,-4.1575,-0.3622,-5.7747,-3.0551,-4.5029,-2.7916,-2.5682,1.0000,-2.2550,-2.0647,-1.9537,2.9593,3.0939,-0.5003,-4.7299,-4.1973
121.0938,0.2511,-3.6389,-3.2525,-2.3493,1.2695,-4.6432,-1.9069,-3.0705,-1.4479,-2.0865,0.7074,-1.5411,-1.6153,-0.7779,3.0032,2.2659,-1.0555,-3.3484,-2.0098
125.0000,0.7424,-2.7152,-3.2849,-1.8077,2.2415,-3.6915,-2.6813,-2.5957,-1.6582,-2.8340,-0.1785,-1.5627,-1.3314,0.3032,1.4088,0.4221,-1.2133,-3.3617,-0.3510
128.9062,0.3082,-2.9460,-4.9055,-2.6173,2.2809,-2.5525,-5.2651,-3.0004,-2.8457,-4.4465,-0.9167,-2.1574,-1.4756,0.8337,-1.1040,-1.5248,-1.0442,-4.4448,0.1506
132.8125,-0.2087,-3.9085,-7.3223,-4.4156,1.3277,-1.2040,-8.8114,-4.0508,-4.2085,-6.3226,-1.2585,-3.1208,-2.3294,0.4914,-3.5361,-3.0182,-0.9620,-5.9744,-0.8620
136.7188,-0.1060,-4.9133,-9.5138,-6.5446,-0.4028,-0.0238,-11.9543,-5.4062,-5.0862,-7.8578,-1.4558,-4.2614,-3.9728,-0.7260,-5.0539,-4.0139,-1.4545,-7.2744,-3.2275
140.6250,0.7659,-5.3461,-10.6637,-8.3576,-2.5128,0.4473,-13.4080,-6.7086,-5.2391,-8.6665,-1.9723,-5.4745,-6.2015,-2.5247,-5.3529,-4.8369,-2.7943,-7.9223,-6.2938
144.5312,1.9668,-5.0154,-10.5278,-9.5082,-4.6066,-0.1046,-12.6348,-7.6887,-4.9133,-8.7127,-3.1382,-6.8029,-8.6302,-4.5039,-4.7651,-5.8892,-4.8980,-7.9594,-9.2176
148.4375,2.8073,-4.2828,-9.5316,-10.0577,-6.4428,-1.4806,-10.1573,-8.2322,-4.6678,-8.2957,-4.9670,-8.4215,-10.8969,-6.3614,-4.0546,-7.3928,-7.3952,-7.8662,-11.3625
152.3438,2.8219,-3.8580,-8.5209,-10.3506,-7.9696,-2.9991,-7.2807,-8.3690,-5.0554,-7.8990,-7.1971,-10.5159,-12.8237,-7.9875,-4.0082,-9.2829,-9.8395,-8.2903,-12.5615
156.2500,2.0613,-4.3576,-8.2848,-10.7520,-9.2489,-3.8565,-5.3607,-8.1995,-6.3225,-7.9662,-9.4572,-13.1009,-14.4385,-9.4219,-5.0282,-11.2563,-11.9197,-9.6638,-13.1040
160.1562,1.0335,-5.8900,-9.1108,-11.4187,-10.3523,-3.6040,-5.0513,-7.8183,-8.2732,-8.7049,-11.4041,-15.8952,-15.8671,-10.7474,-6.9332,-12.9088,-13.5470,-11.9292,-13.4861
164.0625,0.3715,-7.9349,-10.6320,-12.2369,-11.3070,-2.4295,-5.9876,-7.2933,-10.3571,-10.0098,-12.7620,-18.3603,-17.1926,-12.0131,-9.0625,-13.8950,-14.7935,-14.5403,-14.0987
167.9688,0.4686,-9.6091,-12.0587,-12.9417,-12.1106,-1.0406,-7.0819,-6.7018,-11.9263,-11.5368,-13.3125,-19.9211,-18.3853,-13.2256,-10.6225,-14.0639,-15.7536,-16.7429,-15.0433
171.8750,1.3125,-10.1657,-12.6608,-13.3173,-12.7702,-0.2157,-7.2288,-6.1742,-12.5301,-12.8869,-12.9321,-20.2585,-19.3377,-14.3749,-11.0906,-13.5407,-16.4435,-17.9700,-16.1547
175.7812,2.5748,-9.4281,-12.2104,-13.3393,-13.3085,-0.3189,-5.9714,-5.8843,-12.1136,-13.7993,-11.7109,-19.5016,-19.9608,-15.4444,-10.4686,-12.7198,-16.8079,-18.1234,-17.1716
179.6875,3.8383,-7.8988,-11.1187,-13.1758,-13.7256,-1.1084,-3.7369,-5.9737,-11.0388,-14.2537,-10.0626,-18.1889,-20.2598,-16.3879,-9.2597,-12.1387,-16.8154,-17.5838,-17.9112
183.5938,4.7827,-6.4859,-10.1875,-13.0608,-13.9553,-1.9634,-1.5460,-6.4552,-9.9320,-14.4322,-8.6887,-17.0087,-20.3358,-17.1069,-8.1915,-12.2455,-16.5551,-16.9620,-18.3398
187.5000,5.2324,-6.0194,-10.1333,-13.1352,-13.8699,-2.3578,-0.4233,-7.1710,-9.4269,-14.5753,-8.3288,-16.4608,-20.3183,-17.4694,-7.8403,-13.1525,-16.2437,-16.7520,-18.5245
191.4062,5.1059,-6.8394,-11.1775,-13.3553,-13.3485,-2.2352,-0.8896,-7.8453,-9.9116,-14.8235,-9.3969,-16.6350,-20.2819,-17.3745,-8.3602,-14.5169,-16.1182,-17.0904,-18.5376
195.3125,4.3757,-8.6756,-12.9445,-13.5210,-12.3685,-2.0176,-2.8076,-8.2072,-11.3772,-15.1453,-11.7207,-17.2234,-20.2005,-16.8183,-9.4556,-15.6552,-16.2750,-17.7423,-18.4021
199.2188,3.1032,-10.8531,-14.7144,-13.3993,-11.0575,-2.2578,-5.5941,-8.1139,-13.4277,-15.3970,-14.5754,-17.7419,-19.9618,-15.9063,-10.5965,-15.8782,-16.5668,-18.2933,-18.1091
203.1250,1.5067,-12.6756,-15.8526,-12.8704,-9.6684,-3.2081,-8.5893,-7.6083,-15.4513,-15.4722,-17.0248,-17.8139,-19.4261,-14.8037,-11.3420,-14.8830,-16.6377,-18.4096,-17.6710
207.0312,-0.0393,-13.7618,-16.1491,-12.0181,-8.4938,-4.6335,-11.3245,-6.8949,-16.8823,-15.4396,-18.3824,-17.3524,-18.4967,-13.6662,-11.5763,-12.9717,-16.0988,-18.0150,-17.1486
210.9375,-1.1322,-14.1695,-15.8731,-11.1177,-7.7731,-6.0035,-13.5643,-6.2649,-17.4414,-15.5638,-18.5158,-16.5575,-17.1772,-12.6101,-11.5235,-10.9431,-14.7565,-17.3054,-16.6258
214.8438,-1.5398,-14.2790,-15.5458,-10.5273,-7.6328,-6.9008,-15.1886,-6.0094,-17.2412,-16.1726,-17.8223,-15.7682,-15.6035,-11.7393,-11.5474,-9.6932,-12.7662,-16.6245,-16.1589
218.7500,-1.3358,-14.5359,-15.6045,-10.5282,-8.0689,-7.3230,-16.0777,-6.3423,-16.7036,-17.4350,-16.9190,-15.2814,-14.0413,-11.1815,-11.8737,-9.7438,-10.6188,-16.2939,-15.7530
222.6562,-0.8605,-15.2033,-16.1746,-11.1843,-8.9498,-7.6436,-16.1198,-7.3253,-16.3284,-19.1872,-16.2666,-15.2427,-12.8363,-11.0680,-12.4224,-10.9772,-8.9528,-16.4860,-15.3916
226.5625,-0.5215,-16.2411,-17.0656,-12.2868,-10.0244,-8.2690,-15.3179,-8.8015,-16.4346,-20.9321,-15.9681,-15.6391,-12.3083,-11.4357,-12.8601,-12.7315,-8.2742,-17.1852,-15.0878
230.4688,-0.5634,-17.3460,-17.9440,-13.4179,-10.9518,-9.2670,-13.8731,-10.3739,-17.0136,-22.0478,-15.8333,-16.3529,-12.6112,-12.1159,-12.8381,-14.1907,-8.7179,-18.2206,-14.9046
234.3750,-0.9632,-18.1062,-18.5334,-14.1180,-11.3820,-10.2627,-12.1349,-11.4860,-17.7676,-22.1073,-15.6121,-17.2138,-13.6171,-12.7194,-12.2520,-14.8201,-9.9644,-19.3367,-14.9122
238.2812,-1.5060,-18.1822,-18.7070,-14.0911,-11.0924,-10.6859,-10.4306,-11.6208,-18.2992,-21.1270,-15.2023,-18.0189,-14.9015,-12.7831,-11.3419,-14.5796,-11.3588,-20.2677,-15.1149
242.1875,-1.9636,-17.4311,-18.4502,-13.3512,-10.1257,-10.1780,-8.9055,-10.5581,-18.3285,-19.5805,-14.6900,-18.5380,-15.8771,-12.0260,-10.5542,-13.8033,-12.1833,-20.8032,-15.4157
246.0938,-2.2297,-15.9332,-17.7754,-12.2353,-8.8405,-8.8461,-7.5124,-8.5505,-17.8061,-18.1441,-14.2280,-18.5433,-16.0431,-10.5615,-10.2453,-12.8614,-11.9646,-20.8354,-15.6659
250.0000,-2.3171,-13.9278,-16.6895,-11.2585,-7.8052,-7.1757,-6.1791,-6.2876,-16.8640,-17.3060,-13.8769,-17.8761,-15.2347,-8.9053,-10.4214,-11.8565,-10.6766,-20.3753,-15.7731
253.9062,-2.2459,-11.7078,-15.2460,-10.8729,-7.5505,-5.6797,-5.0245,-4.6176,-15.6625,-17.0731,-13.5370,-16.5227,-13.7295,-7.7324,-10.6916,-10.5721,-8.7404,-19.5253,-15.7802
257.8125,-1.9449,-9.5295,-13.6148,-11.2380,-8.2924,-4.5637,-4.4266,-4.1429,-14.2562,-16.9661,-13.0097,-14.6471,-12.1242,-7.5027,-10.4849,-8.7050,-6.8174,-18.4110,-15.8317
261.7188,-1.2697,-7.5723,-12.0695,-12.1189,-9.7757,-3.6606,-4.8338,-4.9037,-12.5824,-16.3316,-12.1217,-12.5483,-11.0230,-8.1730,-9.4064,-6.2112,-5.4913,-17.1044,-16.0258
265.6250,-0.1328,-5.9444,-10.8552,-12.9662,-11.3394,-2.6644,-6.4022,-6.3327,-10.5751,-14.7920,-10.8125,-10.5540,-10.6974,-9.1779,-7.5193,-3.5102,-4.9933,-15.5858,-16.2475
269.5312,1.3676,-4.6988,-10.0089,-13.1457,-12.1857,-1.4546,-8.7010,-7.5203,-8.3071,-12.5521,-9.1369,-8.9034,-10.9142,-9.7064,-5.3702,-1.3852,-5.1131,-13.7698,-16.1207
273.4375,2.9457,-3.8240,-9.2669,-12.2089,-11.7244,-0.2342,-10.7254,-7.6517,-6.0307,-10.3462,-7.2065,-7.6692,-11.0430,-9.1203,-3.7259,-0.6125,-5.3377,-11.5820,-15.1460
277.3438,4.2815,-3.2066,-8.1549,-10.0763,-9.8207,0.6365,-11.2773,-6.3806,-4.0579,-9.0233,-5.1289,-6.7438,-10.3934,-7.2788,-3.1571,-1.5276,-5.1409,-9.0291,-12.9674
281.2500,5.2287,-2.6038,-6.2318,-7.0499,-6.8321,0.9746,-9.5337,-3.9504,-2.5393,-9.0001,-2.9772,-5.8783,-8.5932,-4.5923,-3.6943,-3.7753,-4.2570,-6.2087,-9.6054
285.1562,5.9204,-1.6791,-3.3474,-3.6554,-3.4286,0.9989,-5.4817,-1.0188,-1.2985,-9.9192,-0.7781,-4.7507,-5.7877,-1.7897,-4.7458,-6.3840,-2.7853,-3.2475,-5.5020
289.0625,6.6824,-0.1234,0.2497,-0.4017,-0.2995,1.2441,0.0318,1.6912,0.1404,-10.7504,1.4990,-3.0485,-2.5473,0.4574,-5.3343,-8.1278,-1.0746,-0.2194,-1.3359
292.9688,7.8036,2.1804,4.0175,2.4158,2.1113,2.2080,5.6617,3.7166,2.3029,-10.3183,3.9378,-0.5674,0.4511,1.8452,-4.5462,-8.0004,0.5258,2.8834,2.2798
296.8750,9.3214,5.0397,7.3658,4.7701,3.7250,3.9860,10.1209,4.9962,5.4167,-7.9769,6.6130,2.6822,2.7689,2.5289,-1.9872,-5.5979,1.8766,6.0810,5.0348
300.7812,10.9672,7.9688,9.8827,6.7956,4.7689,6.1657,12.6247,5.7897,9.1724,-4.0429,9.4566,6.3952,4.3654,2.9734,1.9686,-1.2732,3.0820,9.2748,6.9566
304.6875,12.3044,10.3575,11.4139,8.5910,5.5874,8.0628,13.0237,6.4523,12.7561,0.2779,12.1219,9.9780,5.4922,3.6638,6.2603,3.9711,4.3336,12.1513,8.2489
308.5938,12.9565,11.7193,11.9849,10.0587,6.4240,9.1301,11.6425,7.2003,15.1717,3.4551,13.9724,12.6845,6.4160,4.8359,9.5339,8.7965,5.6857,14.2138,9.0681
312.5000,12.7761,11.8872,11.6669,10.8867,7.2810,9.2493,9.0135,7.9843,15.6979,4.3896,14.2947,13.8657,7.1748,6.3547,10.6967,11.9533,6.9386,14.9618,9.3958
316.4062,11.8647,11.0510,10.5109,10.6980,7.9233,8.7177,5.7029,8.5184,14.2412,2.9491,12.6862,13.2401,7.5351,7.7880,9.3978,12.6922,7.7285,14.1331,9.0843
320.3125,10.4727,9.6191,8.5978,9.2889,8.0203,7.9718,2.2948,8.4356,11.3973,-0.0022,9.4115,11.0494,7.1754,8.6244,6.2186,11.0330,7.7712,11.8706,8.0147
324.2188,8.8802,7.9951,6.1417,6.8117,7.3489,7.2796,-0.5637,7.4916,8.1867,-3.0808,5.4693,7.9994,5.9556,8.5227,2.4642,7.7753,7.0856,8.7066,6.2364
328.1250,7.3403,6.4044,3.5324,3.7814,5.9442,6.6315,-2.2073,5.7199,5.6057,-5.0887,2.2466,4.9890,4.0746,7.4709,-0.3759,4.2073,6.0269,5.3613,3.9837
332.0312,6.0836,4.8660,1.2467,0.8810,4.1045,5.8884,-2.1516,3.4630,4.2186,-5.5564,0.8834,2.7438,1.9984,5.7804,-1.2705,1.5959,5.0845,2.4623,1.5690
335.9375,5.3114,3.3063,-0.3369,-1.3333,2.2447,5.0316,-0.3545,1.2589,3.9831,-4.8502,1.6866,1.5337,0.2048,3.9231,-0.0942,0.6663,4.5728,0.3339,-0.7529
339.8438,5.1256,1.7173,-1.0993,-2.6587,0.6854,4.2894,2.6468,-0.3698,4.3660,-3.8319,3.9391,1.1165,-1.0756,2.3063,2.3419,1.3243,4.4282,-1.0454,-2.8422
343.7500,5.4235,0.2435,-1.2064,-3.2682,-0.4820,4.0194,5.8652,-1.1237,4.6586,-3.3087,6.2430,0.9311,-1.9414,1.1111,4.6987,2.7752,4.2621,-1.9178,-4.6194
347.6562,5.8606,-0.8592,-0.9769,-3.5166,-1.3588,4.4339,8.2424,-1.0255,4.3221,-3.6004,7.2257,0.4334,-2.6685,0.2864,5.7595,3.9864,3.6454,-2.5487,-5.9598
351.5625,5.9694,-1.3577,-0.6774,-3.6560,-2.0521,5.3878,9.0951,-0.3584,3.2072,-4.4478,6.2266,-0.6024,-3.4356,-0.3066,4.9967,4.2421,2.4348,-3.0695,-6.6439
355.4688,5.4149,-1.1681,-0.3791,-3.6496,-2.4805,6.4121,8.3929,0.5129,1.5778,-5.2604,3.6004,-1.9707,-4.1303,-0.7061,2.7752,3.4799,0.9142,-3.4289,-6.4279
359.3750,4.2395,-0.3913,0.0382,-3.2140,-2.3401,6.9866,6.7214,1.3248,-0.0343,-5.5099,0.4970,-3.1516,-4.3810,-0.7586,0.1113,2.2296,-0.3514,-3.4508,-5.2024
363.2812,2.9169,0.7556,0.7477,-2.0659,-1.2969,6.8642,4.9560,1.9906,-1.0572,-5.0204,-1.7303,-3.5828,-3.8048,-0.2056,-1.8625,1.2195,-0.8538,-2.9445,-3.1341
367.1875,2.1333,2.0472,1.8018,-0.2105,0.7003,6.2125,3.8230,2.5342,-1.0991,-4.0082,-2.1637,-2.9378,-2.3034,1.0986,-2.4324,0.9175,-0.4441,-1.8120,-0.6810
371.0938,2.3929,3.3109,3.0332,1.9355,3.2126,5.4699,3.5695,2.9518,-0.0940,-2.8994,-0.6975,-1.2774,-0.1999,2.9902,-1.5753,1.2923,0.6025,-0.1198,1.5497
375.0000,3.6846,4.4035,4.0907,3.6896,5.4030,5.0229,3.8914,3.1235,1.6615,-2.0795,1.9877,0.9807,1.8866,4.9770,0.1315,1.9166,1.7928,1.8762,3.0386
378.9062,5.4301,5.1463,4.5835,4.4473,6.4320,4.9381,4.1349,2.8545,3.5903,-1.7356,4.7860,3.2326,3.3564,6.4441,1.8590,2.3003,2.7376,3.7633,3.5620
382.8125,6.7693,5.3033,4.2576,4.0157,5.9410,4.9429,3.6567,2.0212,5.0239,-1.8524,6.6652,4.9064,3.9358,6.9740,2.9251,2.2034,3.3604,5.0706,3.2636
386.7188,7.0272,4.6642,3.1213,2.7253,4.3079,4.6624,2.1649,0.7077,5.4514,-2.3039,7.0832,5.6354,3.7827,6.5780,3.0498,1.7322,3.8554,5.4290,2.5582
390.6250,6.0858,3.2040,1.4709,1.2483,2.4798,3.9375,-0.1182,-0.7805,4.7413,-2.9340,6.1678,5.3387,3.3370,5.6820,2.3927,1.1990,4.4457,4.7453,1.9237
394.5312,4.4426,1.2155,-0.1902,0.2367,1.4539,2.9908,-2.5444,-2.0504,3.2345,-3.5646,4.6065,4.2121,3.0270,4.8683,1.4134,0.8949,5.1388,3.3031,1.6885
398.4375,2.9295,-0.7058,-1.3152,0.0045,1.7178,2.3184,-4.3355,-2.8137,1.6389,-3.9627,3.3031,2.6535,3.0250,4.5363,0.6568,0.9515,5.6702,1.7073,1.9150
402.3438,2.2671,-1.8653,-1.5103,0.4348,2.9999,2.3789,-4.9402,-3.0066,0.7388,-3.8511,2.9425,1.1445,3.1968,4.6971,0.5481,1.3523,5.6764,0.6545,2.4199
406.2500,2.7127,-1.7842,-0.7041,1.1333,4.4782,3.2877,-4.2770,-2.7683,1.0311,-3.0205,3.6532,0.1028,3.2437,5.0201,1.2415,2.0088,4.9608,0.6074,2.8996
410.1562,3.9785,-0.4624,0.7780,1.6862,5.2944,4.7126,-2.7451,-2.3222,2.4556,-1.5019,4.9264,-0.2736,2.9082,5.0724,2.5435,2.7712,3.6397,1.5299,3.0783
414.0625,5.4243,1.5622,2.2836,1.8308,5.0178,6.0269,-1.0149,-1.8768,4.3616,0.3219,5.8445,-0.1201,2.0906,4.5697,3.9340,3.3440,2.0516,2.8341,2.7939
417.9688,6.3780,3.4083,3.0444,1.4475,3.7659,6.6088,0.2709,-1.6256,5.7485,1.7822,5.5165,0.0928,0.8163,3.4710,4.7127,3.2176,0.4953,3.5969,1.9888
421.8750,6.4044,4.2118,2.4642,0.4382,1.9467,6.1062,0.7115,-1.8144,5.6853,2.1844,3.5083,-0.2829,-0.8778,1.8885,4.2563,1.7789,-0.9943,2.9672,0.6430
425.7812,5.4162,3.4833,0.3687,-1.3413,-0.1318,4.5366,0.1849,-2.7549,3.7264,1.1486,0.0536,-1.7780,-3.0055,-0.0688,2.3110,-1.3523,-2.6428,0.5801,-1.2699
429.6875,3.6375,1.2998,-2.8898,-3.9803,-2.4552,2.2217,-1.2507,-4.6918,0.1403,-1.1539,-4.0458,-4.4925,-5.5592,-2.3564,-0.8188,-5.9277,-4.6902,-3.2198,-3.7352
433.5938,1.4943,-1.7343,-6.5283,-7.2888,-5.1476,-0.3508,-3.4546,-7.5598,-4.1506,-4.0099,-7.7525,-7.9292,-8.3479,-4.8993,-4.3052,-10.9089,-7.0769,-7.4588,-6.5716
437.5000,-0.5024,-4.7141,-9.5927,-10.6415,-8.1087,-2.6432,-6.1870,-10.8102,-7.8920,-6.4279,-10.1723,-11.1030,-10.8925,-7.4316,-7.0804,-14.7507,-9.3175,-10.8918,-9.3222
441.4062,-1.8663,-6.7393,-11.2808,-13.0807,-10.7727,-4.1422,-9.0029,-13.4949,-9.9521,-7.5299,-10.8033,-12.9214,-12.5123,-9.4436,-8.2588,-16.0669,-10.6947,-12.4828,-11.2884
445.3125,-2.2542,-7.1892,-11.2033,-13.7081,-12.2452,-4.4425,-11.2047,-14.6488,-9.7281,-6.8827,-9.5992,-12.6747,-12.6085,-10.3433,-7.5003,-14.3337,-10.6783,-11.8045,-11.7616
449.2188,-1.5843,-5.8986,-9.4922,-12.1671,-11.7871,-3.3782,-12.0047,-13.7873,-7.3548,-4.6339,-6.8995,-10.3880,-10.9982,-9.7679,-5.1361,-10.2073,-9.2943,-9.1868,-10.3694
453.1250,-0.1005,-3.2085,-6.7257,-8.9103,-9.3269,-1.1688,-10.8957,-11.2097,-3.6403,-1.4222,-3.3198,-6.8363,-8.0805,-7.8412,-2.0005,-5.2366,-7.1754,-5.5581,-7.3403
457.0312,1.6835,0.1159,-3.7059,-5.0416,-5.6248,1.5384,-8.0223,-7.8862,0.2428,1.8637,0.3578,-3.1987,-4.7045,-5.1800,0.9322,-1.1198,-5.2296,-2.0535,-3.4953
460.9375,3.1759,3.0972,-1.1716,-1.7876,-1.9331,3.8339,-4.2722,-4.9627,3.1877,4.3687,3.3209,-0.5275,-1.7926,-2.6143,2.9209,1.0679,-4.1247,0.4327,0.0790
464.8438,3.9554,4.8513,0.4453,0.0971,0.6497,4.9053,-0.9377,-3.1789,4.5356,5.5082,4.9192,0.6834,0.0667,-0.7861,3.6690,1.2411,-3.9213,1.5506,2.5182
468.7500,3.9432,4.8961,1.1249,0.6285,1.7161,4.4276,0.9077,-2.5631,4.2537,5.1132,4.8743,0.6079,0.8142,0.1172,3.3121,0.1051,-4.0989,1.5223,3.5467
472.6562,3.3902,3.3349,1.1798,0.4200,1.6345,2.7512,0.9506,-2.5852,2.8411,3.4617,3.3922,-0.1577,0.8033,0.3347,2.2427,-1.4107,-3.9589,0.9000,3.5003
476.5625,2.6849,0.8058,1.0229,0.1698,1.1569,0.7423,-0.2619,-2.6397,1.0184,1.1874,1.0752,-1.0199,0.4721,0.2576,0.8955,-2.6932,-3.1367,0.1954,2.9959
480.4688,2.1030,-1.8058,0.8996,0.1637,0.8524,-0.6646,-1.7370,-2.5100,-0.6367,-0.9295,-1.3577,-1.7230,0.0381,0.1256,-0.3984,-3.6416,-1.8785,-0.4090,2.4759
484.3750,1.6570,-3.7639,0.7309,0.1236,0.7692,-0.9548,-2.6875,-2.4911,-1.9186,-2.2365,-3.3918,-2.4042,-0.5834,-0.0866,-1.4536,-4.4822,-0.9015,-1.1068,1.9354
488.2812,1.1360,-4.7797,0.1695,-0.5189,0.5343,-0.2732,-2.9732,-3.1048,-2.9788,-2.4459,-4.8830,-3.3723,-1.6072,-0.5333,-2.1997,-5.4228,-0.9314,-2.2578,1.0134
492.1875,0.2935,-5.0492,-1.1512,-2.1387,-0.2329,0.7216,-3.0366,-4.6352,-4.1011,-1.7215,-5.9693,-4.7906,-3.1081,-1.2574,-2.6334,-6.4313,-2.2275,-4.0658,-0.6360
496.0938,-0.9544,-5.0252,-3.3216,-4.5765,-1.5384,1.2871,-3.4171,-6.8330,-5.4264,-0.5595,-6.8170,-6.4964,-4.8709,-2.0643,-2.7933,-7.2788,-4.4028,-6.3604,-2.9770
500.0000,-2.4531,-5.0842,-6.0076,-7.1783,-2.9620,1.0338,-4.2414,-9.0036,-6.8132,0.4779,-7.4126,-8.0764,-6.4801,-2.6319,-2.7557,-7.7581,-6.6493,-8.6358,-5.5128
503.9062,-3.8902,-5.3128,-8.5665,-9.1766,-3.9616,0.1026,-5.1027,-10.4117,-7.9234,1.0282,-7.5758,-9.1350,-7.5855,-2.7784,-2.6336,-7.8679,-8.2089,-10.3299,-7.5642
507.8125,-4.9589,-5.5444,-10.3771,-10.1387,-4.2848,-0.9988,-5.4314,-10.7110,-8.4674,1.0407,-7.1832,-9.5591,-8.1414,-2.6659,-2.5619,-7.8086,-8.7845,-11.1665,-8.7091
511.7188,-5.4856,-5.5907,-11.1846,-10.1805,-4.1656,-1.7558,-5.0601,-10.1066,-8.4312,0.6830,-6.4057,-9.5892,-8.4392,-2.7591,-2.6662,-7.8084,-8.6408,-11.3313,-9.0643
515.6250,-5.4569,-5.4671,-11.2342,-9.8257,-4.1570,-1.9480,-4.5064,-9.1624,-8.1196,0.1338,-5.7323,-9.6494,-8.9019,-3.5364,-3.0267,-7.9297,-8.3590,-11.3565,-9.2002
519.5312,-4.9697,-5.4218,-11.0932,-9.6391,-4.7357,-1.7054,-4.6938,-8.4177,-7.9761,-0.5726,-5.7066,-10.0500,-9.7838,-5.1496,-3.6478,-8.0095,-8.4290,-11.7797,-9.7441
523.4375,-4.1798,-5.7345,-11.2677,-9.8983,-5.9748,-1.3266,-6.2602,-8.0893,-8.2959,-1.5255,-6.5400,-10.7656,-10.9874,-7.2768,-4.4397,-7.7702,-8.9455,-12.7920,-10.9490
527.3438,-3.2928,-6.4449,-11.8609,-10.5046,-7.5173,-1.0259,-8.9506,-8.0443,-9.0256,-2.7601,-7.8884,-11.4349,-12.1191,-9.2819,-5.2189,-7.0058,-9.5856,-14.1008,-12.5257
531.2500,-2.5672,-7.2415,-12.5032,-11.1393,-8.8434,-0.8030,-11.5775,-8.0110,-9.7845,-4.0729,-8.9891,-11.5822,-12.7386,-10.5768,-5.7394,-5.7149,-9.8495,-15.0961,-13.8418
535.1562,-2.2611,-7.6305,-12.6035,-11.5024,-9.6114,-0.5076,-12.6490,-7.8344,-10.0924,-5.0041,-9.1022,-10.9168,-12.6236,-10.9392,-5.7621,-4.1149,-9.3914,-15.2154,-14.3334
539.0625,-2.4947,-7.2850,-11.7592,-11.4517,-9.8189,-0.0156,-11.2866,-7.5766,-9.6516,-5.0434,-7.9737,-9.5272,-11.8753,-10.5803,-5.1528,-2.5677,-8.2339,-14.2785,-13.8396
542.9688,-3.1018,-6.3148,-10.0480,-10.9760,-9.6888,0.6446,-7.8239,-7.4110,-8.5048,-3.9473,-6.0073,-7.8537,-10.8148,-9.9376,-3.9724,-1.4844,-6.7537,-12.5914,-12.6439
546.8750,-3.6053,-5.2274,-8.0063,-10.0827,-9.4047,1.3149,-3.6706,-7.4187,-6.9779,-1.9520,-4.0217,-6.4626,-9.7634,-9.3577,-2.5058,-1.2403,-5.4735,-10.7652,-11.2288
550.7812,-3.4049,-4.5711,-6.3068,-8.7331,-8.9168,1.8462,-0.5134,-7.4586,-5.4643,0.2812,-2.7499,-5.7536,-8.8646,-8.8892,-1.1899,-2.0754,-4.7932,-9.3694,-9.9407
554.6875,-2.1204,-4.4948,-5.3474,-6.8887,-7.9640,2.2233,0.6355,-7.2058,-4.2019,1.9830,-2.4067,-5.7567,-8.0487,-8.3059,-0.4487,-3.9582,-4.8018,-8.6257,-8.7980
558.5938,0.1102,-4.5535,-5.0228,-4.6128,-6.2779,2.5618,-0.0572,-6.3204,-3.1768,2.6723,-2.5882,-6.1153,-7.1260,-7.3046,-0.4996,-6.4586,-5.2453,-8.3096,-7.5453
562.5000,2.5957,-3.9382,-4.8219,-2.1165,-3.8025,2.9764,-1.4802,-4.6275,-2.1911,2.3956,-2.5465,-6.2512,-5.9149,-5.7176,-1.2269,-8.7500,-5.6426,-7.8952,-5.8772
566.4062,4.3978,-2.0151,-4.1801,0.3091,-0.7754,3.4332,-2.3520,-2.2037,-1.0213,1.6690,-1.6410,-5.6254,-4.3184,-3.6005,-2.1983,-9.8372,-5.4835,-6.8488,-3.6589
570.3125,4.8291,1.1759,-2.8501,2.4253,2.3608,3.7178,-2.0066,0.6464,0.4422,1.1730,0.3094,-3.9790,-2.3373,-1.1796,-2.8332,-8.9802,-4.4318,-4.9124,-1.0131
574.2188,3.8453,4.8128,-1.0557,4.1294,5.1240,3.5640,-0.6963,3.4793,2.1481,1.3897,2.9571,-1.4590,-0.0670,1.2551,-2.6552,-6.1146,-2.4669,-2.2457,1.7362
578.1250,2.0821,7.6768,0.6583,5.4185,7.1220,2.8611,0.7342,5.8152,3.9210,2.3867,5.6260,1.4165,2.2807,3.4175,-1.5096,-2.0068,0.0794,0.6234,4.1840
582.0312,0.4987,8.8072,1.7667,6.2747,8.1042,1.7875,1.5294,7.2463,5.5276,3.8388,7.6257,3.9367,4.3525,5.0337,0.3565,2.0068,2.6118,3.0041,5.9456
585.9375,-0.1543,8.0192,2.0681,6.5879,7.9817,0.7641,1.5799,7.5573,6.7275,5.2284,8.5070,5.4569,5.6949,5.8536,2.3946,4.6081,4.4679,4.3079,6.7247
589.8438,0.2821,5.9648,1.7656,6.2086,6.8671,0.2416,1.4882,6.8364,7.3059,6.0853,8.1656,5.6386,5.9064,5.7266,3.9854,5.1105,5.1626,4.2685,6.3782
593.7500,1.3597,3.7147,1.2909,5.1050,5.1177,0.4503,2.1145,5.5042,7.1157,6.1454,6.8105,4.5754,4.8525,4.7228,4.6929,3.7560,4.5845,3.0315,4.9937
597.6562,2.3535,2.1392,1.0054,3.4915,3.2970,1.2649,3.9110,4.1880,6.1412,5.3918,4.8605,2.7464,2.8109,3.1991,4.4234,1.5331,3.0527,1.0828,2.9340
601.5625,2.6997,1.4784,0.9804,1.8013,1.9922,2.2632,6.4789,3.4527,4.5538,4.0149,2.8245,0.8134,0.4188,1.7085,3.4235,-0.3702,1.1957,-0.9517,0.7713
605.4688,2.2675,1.3412,0.9909,0.4876,1.5392,2.9408,8.6466,3.5158,2.7055,2.3387,1.1866,-0.6506,-1.5910,0.7559,2.1276,-1.1589,-0.3043,-2.5470,-0.9158
609.3750,1.3325,1.0851,0.7114,-0.2179,1.8240,2.9556,9.0504,4.1290,1.0294,0.7348,0.3000,-1.3753,-2.7322,0.5330,0.9413,-0.7516,-0.9857,-3.4502,-1.7986
613.2812,0.3300,0.2959,-0.0265,-0.4148,2.3248,2.2739,6.9062,4.7300,-0.1195,-0.4811,0.3040,-1.4515,-2.9777,0.8156,0.0707,0.3049,-0.7741,-3.7088,-1.9550
617.1875,-0.4076,-0.9444,-1.0872,-0.4266,2.4189,1.1542,2.5363,4.7940,-0.5992,-1.1586,1.0890,-1.2153,-2.7068,1.1160,-0.5210,1.2158,0.0358,-3.5575,-1.8026
621.0938,-0.7638,-2.1404,-2.0896,-0.5537,1.7818,-0.0048,-2.6599,4.1628,-0.5121,-1.3781,2.3259,-1.0319,-2.4162,1.0124,-1.0198,1.3630,0.9631,-3.2430,-1.8256
625.0000,-0.7793,-2.7220,-2.6260,-0.8675,0.6120,-0.8621,-6.8091,3.1278,-0.1159,-1.4155,3.5544,-1.1000,-2.3859,0.4438,-1.5941,0.5541,1.5904,-2.8968,-2.2588
628.9062,-0.5311,-2.4001,-2.5024,-1.1966,-0.4875,-1.2779,-8.4444,2.2039,0.3243,-1.5921,4.3044,-1.3778,-2.5164,-0.2325,-2.2579,-0.9803,1.7527,-2.5222,-2.9362
632.8125,-0.0774,-1.3269,-1.8522,-1.3035,-0.9066,-1.3403,-7.2070,1.7517,0.6447,-2.0826,4.2246,-1.6551,-2.4388,-0.4694,-2.8477,-2.7606,1.5790,-2.0828,-3.4120
636.7188,0.4961,-0.0007,-1.0630,-1.1087,-0.4457,-1.2737,-4.0011,1.7182,0.7913,-2.8021,3.1935,-1.7117,-1.8122,0.0983,-3.1261,-4.2682,1.3770,-1.6113,-3.2810
640.6250,1.0014,0.9867,-0.5759,-0.7884,0.5319,-1.2897,-0.5240,1.6824,0.7441,-3.4597,1.3868,-1.4619,-0.6051,1.3771,-2.9472,-5.0929,1.4346,-1.2492,-2.4872
644.5312,1.1530,1.2002,-0.6841,-0.6775,1.3110,-1.4668,1.5698,1.1716,0.4362,-3.7615,-0.7390,-1.0052,0.8268,2.8126,-2.3792,-5.0025,1.8465,-1.1927,-1.4162
648.4375,0.6923,0.4939,-1.4442,-1.0569,1.2525,-1.7291,1.4212,0.0148,-0.2522,-3.6306,-2.5778,-0.5683,1.9079,3.6609,-1.6982,-3.9706,2.4574,-1.5883,-0.7072
652.3438,-0.4389,-0.9926,-2.7240,-1.9841,0.1530,-1.9349,-0.7421,-1.5248,-1.4088,-3.2926,-3.6036,-0.3835,2.1432,3.3702,-1.2504,-2.1878,2.9465,-2.4596,-0.9002
656.2500,-2.0005,-2.9213,-4.3199,-3.2773,-1.6822,-2.0115,-3.8726,-2.9299,-2.9750,-3.1552,-3.6112,-0.5801,1.3648,1.8515,-1.2602,-0.0475,3.0033,-3.7144,-2.1332
660.1562,-3.5166,-4.8667,-6.0452,-4.6390,-3.6608,-2.0405,-6.7087,-3.7817,-4.6976,-3.5575,-2.8370,-1.1442,-0.2079,-0.4978,-1.7013,1.9251,2.4925,-5.2144,-4.0663
664.0625,-4.4783,-6.4242,-7.7365,-5.8063,-5.2367,-2.2233,-8.3471,-4.0214,-6.2040,-4.5542,-1.8676,-1.9578,-2.1040,-3.0030,-2.3171,3.2039,1.5162,-6.8437,-6.0649
667.9688,-4.5741,-7.3130,-9.2067,-6.6256,-6.1307,-2.7415,-8.4988,-3.9363,-7.1758,-5.8811,-1.3604,-2.8828,-3.8314,-5.0180,-2.7828,3.4175,0.3392,-8.5210,-7.5245
671.8750,-3.8272,-7.4651,-10.2238,-7.0300,-6.3360,-3.6100,-7.3943,-3.8931,-7.5209,-7.1194,-1.7251,-3.8354,-5.0718,-6.1681,-2.9140,2.4647,-0.7713,-10.1555,-8.1530
675.7812,-2.5766,-7.0636,-10.5730,-6.9870,-5.9747,-4.6352,-5.5178,-4.0321,-7.4357,-7.9434,-2.9492,-4.8092,-5.7536,-6.4313,-2.7924,0.5406,-1.6881,-11.5973,-8.0616
679.6875,-1.3280,-6.4891,-10.1791,-6.4909,-5.1601,-5.5196,-3.3937,-4.1512,-7.3062,-8.2872,-4.6618,-5.8349,-6.0004,-6.0559,-2.7281,-1.9296,-2.4522,-12.6413,-7.6348
683.5938,-0.5490,-6.1689,-9.1996,-5.6092,-3.9683,-6.0372,-1.5176,-3.8638,-7.4957,-8.3346,-6.3747,-6.9036,-6.0052,-5.3868,-3.0740,-4.4142,-3.1709,-13.0952,-7.2676
687.5000,-0.4863,-6.3833,-7.9976,-4.5208,-2.5057,-6.1458,-0.3540,-2.9073,-8.1352,-8.3653,-7.7263,-7.9033,-5.9047,-4.6980,-4.0015,-6.4051,-3.8599,-12.8719,-7.1223
691.4062,-1.0617,-7.1281,-6.9852,-3.4828,-0.9741,-5.9421,-0.2647,-1.3791,-9.0377,-8.5792,-8.5781,-8.6156,-5.7100,-4.1028,-5.3696,-7.5221,-4.3560,-12.0432,-7.0444
695.3125,-1.8817,-8.1132,-6.4236,-2.7248,0.3458,-5.4985,-1.3341,0.2618,-9.7912,-9.0143,-8.9460,-8.7926,-5.3251,-3.5718,-6.7645,-7.5829,-4.3829,-10.8226,-6.6881
699.2188,-2.3776,-8.9103,-6.3112,-2.3477,1.1877,-4.7312,-3.2094,1.4216,-9.9835,-9.5787,-8.8790,-8.2843,-4.6436,-3.0318,-7.6875,-6.6377,-3.7497,-9.4938,-5.7840
703.1250,-2.0536,-9.1744,-6.4326,-2.3107,1.3984,-3.4451,-5.1307,1.6711,-9.4367,-10.1369,-8.4217,-7.1533,-3.6798,-2.4798,-7.7860,-4.9648,-2.5487,-8.3313,-4.3905
707.0312,-0.7578,-8.8196,-6.5294,-2.5169,0.9736,-1.5600,-6.2195,0.9418,-8.3205,-10.5648,-7.6865,-5.7012,-2.6532,-2.0341,-7.0052,-3.0131,-1.2008,-7.5448,-2.9607
710.9375,1.1643,-8.0531,-6.4686,-2.9197,0.0321,0.6462,-5.8984,-0.4717,-7.0770,-10.7538,-6.9300,-4.3733,-1.9542,-1.8793,-5.5969,-1.2907,-0.2792,-7.2481,-2.1499
714.8438,2.9581,-7.2499,-6.2891,-3.5499,-1.2260,2.5067,-4.1933,-2.0653,-6.1934,-10.6097,-6.4953,-3.5715,-1.9709,-2.1317,-3.9983,-0.2177,-0.1938,-7.4332,-2.4469
718.7500,3.8052,-6.7373,-6.1109,-4.4328,-2.5388,3.2500,-1.7294,-3.3313,-5.9465,-10.1036,-6.5986,-3.4692,-2.8542,-2.7154,-2.6631,0.0052,-0.9295,-7.9464,-3.8414
722.6562,3.2770,-6.6082,-5.9941,-5.4718,-3.6016,2.4678,0.5678,-3.9278,-6.2589,-9.3675,-7.1042,-3.9296,-4.3608,-3.3538,-1.9234,-0.5391,-2.0201,-8.4987,-5.7556
726.5625,1.6416,-6.6627,-5.8720,-6.4184,-4.1344,0.4584,1.8738,-3.7735,-6.7468,-8.7468,-7.5019,-4.5817,-5.9038,-3.7118,-1.9240,-1.5234,-2.8007,-8.7410,-7.3185
730.4688,-0.1890,-6.5082,-5.6099,-6.9814,-4.0093,-1.8249,1.7472,-3.0646,-6.9306,-8.7080,-7.1784,-5.0153,-6.8219,-3.6139,-2.6152,-2.5067,-2.7997,-8.4008,-7.8486
734.3750,-1.0911,-5.7675,-5.1280,-7.0047,-3.3642,-3.2456,0.2057,-2.2067,-6.4841,-9.5873,-5.8401,-4.9871,-6.7323,-3.1863,-3.7724,-3.1071,-2.0270,-7.4145,-7.2471
738.2812,-0.3250,-4.2878,-4.4670,-6.5654,-2.5845,-3.1036,-2.3314,-1.6567,-5.3841,-11.3069,-3.7856,-4.5190,-5.7476,-2.7965,-5.0283,-3.1405,-0.9690,-5.9642,-6.0374
742.1875,2.0414,-2.2439,-3.7280,-5.8932,-2.1035,-1.5088,-5.1202,-1.7021,-3.8838,-13.2568,-1.7889,-3.8366,-4.4027,-2.7976,-5.9340,-2.6655,-0.2796,-4.3766,-5.0033
746.0938,5.1347,-0.0843,-2.9367,-5.1607,-2.1086,0.7372,-7.1722,-2.2727,-2.3453,-14.4855,-0.6272,-3.1958,-3.3140,-3.2322,-6.0737,-1.9162,-0.3541,-2.9349,-4.6471
750.0000,7.7079,1.6552,-1.9662,-4.3126,-2.3549,2.6628,-7.4389,-2.9095,-1.0482,-14.1519,-0.5644,-2.7124,-2.7821,-3.7139,-5.2239,-1.1611,-1.0531,-1.7253,-4.8321
753.9062,8.7565,2.5801,-0.6235,-3.0939,-2.2535,3.6928,-5.1915,-2.9603,-0.0949,-12.0083,-1.1670,-2.3051,-2.6012,-3.6025,-3.4948,-0.5641,-1.7568,-0.6310,-4.8604
757.8125,7.9738,2.5940,1.1372,-1.2811,-1.2278,3.8828,-0.4998,-1.9341,0.5464,-8.6220,-1.6095,-1.7811,-2.2133,-2.3944,-1.3612,-0.1249,-1.7249,0.5207,-3.9489
761.7188,5.8181,1.9149,3.0381,1.0541,0.8776,3.6944,5.4881,0.1802,0.9222,-5.1686,-1.2611,-0.9972,-1.1132,-0.0844,0.4789,0.2717,-0.5471,1.7662,-1.7879
765.6250,3.2038,0.9495,4.5184,3.4699,3.6196,3.5202,10.7788,2.8409,1.0087,-2.8802,-0.1306,0.0186,0.7676,2.7529,1.3886,0.7372,1.5881,2.9244,1.2028
769.5312,1.0334,0.1005,5.0221,5.3642,6.1609,3.3395,13.3298,5.2009,0.7389,-2.4375,1.1669,1.0718,2.9652,5.2424,1.0979,1.2770,3.9684,3.7033,4.0995
773.4375,-0.1640,-0.3891,4.3704,6.3421,7.7474,2.7630,12.0598,6.5442,0.1210,-3.6441,1.9006,1.9236,4.7505,6.6888,-0.1362,1.7789,5.7303,3.9267,6.0337
777.3438,-0.3388,-0.4836,2.9504,6.4729,8.1458,1.4191,7.4814,6.6481,-0.6584,-5.5603,1.8036,2.4436,5.5820,6.9586,-1.6250,2.1025,6.3116,3.7078,6.7027
781.2500,0.2042,-0.2940,1.5491,6.2321,7.7457,-0.6311,1.5143,5.8441,-1.2568,-7.0195,1.2942,2.6785,5.4391,6.5198,-2.5781,2.1980,5.7242,3.4173,6.4903
785.1562,1.0271,0.0274,0.8975,6.1474,7.2566,-2.7867,-3.4861,4.7523,-1.3490,-7.2424,1.1554,2.7863,4.8071,6.1171,-2.5112,2.1523,4.5041,3.4382,6.1285
789.0625,1.7420,0.3546,1.2084,6.3968,7.2124,-4.2094,-5.9325,3.8777,-0.8565,-6.2233,1.8956,2.8810,4.3276,6.2982,-1.5152,2.1104,3.3853,3.8649,6.1518
792.9688,2.1063,0.5781,2.0195,6.6595,7.6263,-4.3308,-5.7205,3.3423,-0.0743,-4.7010,3.2683,2.9000,4.3563,7.0904,-0.2272,2.1207,2.8979,4.3677,6.5287
796.8750,2.0479,0.5492,2.4684,6.3420,8.0271,-3.2111,-4.0371,2.9185,0.4199,-3.7525,4.3243,2.6005,4.7289,8.0203,0.4951,2.0291,3.1159,4.3478,6.7168
800.7812,1.6592,0.0574,1.8365,5.0329,7.8344,-1.5036,-2.4355,2.3069,0.0581,-4.2303,3.9927,1.7059,4.8915,8.4383,0.0364,1.5322,3.6798,3.3124,6.0844
804.6875,1.1643,-1.0992,0.0169,2.8626,6.7942,-0.0591,-1.8126,1.4340,-1.3769,-6.3218,1.8043,0.1215,4.2966,7.9233,-1.6234,0.3889,4.0498,1.2381,4.3926
808.5938,0.8435,-2.9607,-2.3914,0.5056,5.1675,0.5554,-1.9552,0.5441,-3.5672,-9.4332,-1.7331,-1.9211,2.7910,6.5140,-3.8592,-1.3427,3.8227,-1.3206,2.0008
812.5000,0.9185,-5.2653,-4.4196,-1.1931,3.5532,0.3166,-1.8966,0.0229,-5.7556,-12.4359,-5.3634,-3.8970,0.7342,4.6499,-5.6895,-3.2232,2.9240,-3.4705,-0.3319
816.4062,1.4459,-7.4397,-5.2760,-1.7257,2.4824,-0.3494,-0.7744,0.0913,-7.0926,-14.1566,-7.7634,-5.2061,-1.2240,2.8941,-6.2570,-4.6038,1.5848,-4.4432,-1.9019
820.3125,2.2846,-8.7837,-4.7713,-1.2323,2.0733,-0.9045,1.4336,0.5991,-7.0565,-13.8922,-8.2415,-5.4708,-2.5499,1.6300,-5.2571,-4.9754,0.1480,-4.0194,-2.4656
824.2188,3.1650,-8.7892,-3.3880,-0.4223,1.9713,-1.0337,3.7838,1.0698,-5.7258,-11.7293,-7.0386,-4.7526,-3.1452,0.9063,-3.0964,-4.2869,-1.1505,-2.6706,-2.3438
828.1250,3.8191,-7.4336,-1.9949,-0.1681,1.5971,-0.7821,4.9022,0.9689,-3.7612,-8.5284,-5.0994,-3.5649,-3.3793,0.4866,-0.7097,-3.0192,-2.2829,-1.3413,-2.1909
832.0312,4.0856,-5.2704,-1.4069,-1.0320,0.5201,-0.4556,3.8006,0.0150,-2.1112,-5.5764,-3.5166,-2.6625,-3.8318,0.0331,0.8625,-1.9551,-3.3620,-0.9937,-2.6043
835.9375,3.9267,-3.2316,-2.0417,-2.9967,-1.2799,-0.4002,0.4590,-1.6621,-1.5937,-4.0541,-3.0072,-2.7088,-4.9200,-0.7005,0.9223,-1.7785,-4.4745,-2.1578,-3.8209
839.8438,3.3722,-2.2177,-3.8138,-5.5219,-3.4028,-0.8077,-4.1416,-3.6001,-2.5569,-4.5492,-3.6945,-3.9799,-6.6450,-1.7602,-0.6213,-2.7430,-5.5458,-4.7051,-5.6521
843.7500,2.4614,-2.6767,-6.2502,-7.8424,-5.2390,-1.6363,-8.4967,-5.2475,-4.7676,-6.8327,-5.2312,-6.2461,-8.5914,-2.9873,-3.2711,-4.5920,-6.3402,-7.9331,-7.6409
847.6562,1.2514,-4.3949,-8.7111,-9.3146,-6.2514,-2.6443,-11.2592,-6.2141,-7.5503,-9.9923,-7.0974,-8.8790,-10.1525,-4.0880,-6.1980,-6.7428,-6.5982,-10.8916,-9.3043
851.5625,-0.1170,-6.6129,-10.6016,-9.6395,-6.1792,-3.4903,-11.7762,-6.3945,-10.0884,-12.8502,-8.8575,-11.1232,-10.8305,-4.7315,-8.5866,-8.5873,-6.2150,-12.7811,-10.3159
855.4688,-1.3751,-8.4057,-11.5238,-8.9024,-5.0954,-3.8597,-10.2713,-5.9357,-11.7363,-14.4576,-10.2563,-12.4044,-10.4509,-4.6568,-9.9113,-9.7276,-5.3385,-13.2483,-10.5683
859.3750,-2.1842,-9.1218,-11.3682,-7.4767,-3.3458,-3.5905,-7.6547,-5.1123,-12.2174,-14.4351,-11.1746,-12.5402,-9.2105,-3.7729,-10.0496,-10.0538,-4.3226,-12.4727,-10.1467
863.2812,-2.2959,-8.6534,-10.3423,-5.8758,-1.4352,-2.7631,-5.0833,-4.2034,-11.6504,-13.0282,-11.5442,-11.7763,-7.5821,-2.2374,-9.2317,-9.7000,-3.5741,-11.0366,-9.2792
867.1875,-1.7111,-7.4110,-8.9136,-4.6096,0.0952,-1.6996,-3.4530,-3.4276,-10.4280,-10.8997,-11.3105,-10.6512,-6.1509,-0.4724,-7.8934,-8.9696,-3.3927,-9.6533,-8.2971
871.0938,-0.7085,-6.0449,-7.6505,-4.0637,0.7863,-0.8374,-3.0207,-2.9305,-9.0245,-8.8064,-10.4658,-9.7579,-5.4486,0.9180,-6.5090,-8.2726,-3.8935,-8.8734,-7.5852
875.0000,0.3073,-5.0870,-6.9959,-4.4014,0.3787,-0.5111,-3.3214,-2.7903,-7.8179,-7.3274,-9.1134,-9.5030,-5.8105,1.3347,-5.4525,-8.0383,-5.0233,-8.8824,-7.4864
878.9062,1.0497,-4.7136,-7.0738,-5.5070,-1.0928,-0.7606,-3.4499,-3.0115,-6.9855,-6.7370,-7.5049,-9.9541,-7.2646,0.4186,-4.9069,-8.5520,-6.6132,-9.4616,-8.1626
882.8125,1.5119,-4.7359,-7.6371,-7.0025,-3.2726,-1.2982,-2.6048,-3.5127,-6.4934,-7.0096,-6.0072,-10.8288,-9.4776,-1.7616,-4.8271,-9.7471,-8.4039,-10.1157,-9.4718
886.7188,1.9218,-4.7899,-8.2030,-8.3585,-5.5686,-1.6794,-0.6233,-4.1319,-6.1620,-7.8849,-4.9950,-11.6245,-11.8081,-4.6740,-4.9684,-11.0971,-10.0373,-10.3035,-10.9505
890.6250,2.5153,-4.5851,-8.3063,-9.0782,-7.3437,-1.5760,1.8181,-4.6694,-5.7682,-8.9371,-4.6988,-11.8380,-13.4959,-7.4865,-4.9885,-11.7589,-11.0768,-9.6720,-11.9588
894.5312,3.2995,-4.0636,-7.7324,-8.8916,-8.1560,-0.9645,3.5013,-4.9613,-5.1406,-9.6490,-5.0787,-11.1838,-13.9541,-9.3886,-4.6034,-10.9860,-11.1221,-8.1954,-11.9543
898.4375,4.0018,-3.3895,-6.5989,-7.8806,-7.9477,-0.0907,3.3337,-4.9598,-4.2169,-9.5278,-5.8005,-9.7196,-13.0395,-9.9416,-3.7359,-8.6126,-10.0109,-6.1719,-10.7770
902.3438,4.2602,-2.8040,-5.2581,-6.4752,-7.0958,0.7622,0.9968,-4.7788,-3.0497,-8.2716,-6.3597,-7.8221,-11.1582,-9.2962,-2.5739,-5.2926,-7.9973,-4.0946,-8.7904
906.2500,3.9261,-2.4499,-4.0952,-5.3102,-6.2857,1.5119,-2.8245,-4.6793,-1.7718,-5.9326,-6.3199,-6.0261,-9.1206,-8.1530,-1.4881,-2.2762,-5.7608,-2.4641,-6.7833
910.1562,3.2425,-2.2768,-3.3509,-4.9859,-6.2468,2.3190,-6.7776,-4.9819,-0.5448,-2.9741,-5.5471,-4.8055,-7.7984,-7.4604,-0.8375,-0.7920,-4.1749,-1.6236,-5.6510
914.0625,2.7383,-2.0736,-3.0545,-5.8191,-7.4499,3.3824,-9.5206,-5.9262,0.4839,-0.1487,-4.2905,-4.4036,-7.7535,-7.9718,-0.7675,-1.3834,-3.9188,-1.6738,-6.0000
917.9688,2.8867,-1.5956,-3.0713,-7.6868,-9.8920,4.6550,-10.3096,-7.5255,1.2037,1.7814,-3.0365,-4.7885,-9.0298,-9.8753,-1.1259,-3.6147,-5.1401,-2.4788,-7.8724
921.8750,3.7635,-0.7027,-3.2010,-10.0422,-13.0626,5.7418,-9.1604,-9.4859,1.5515,2.3585,-2.2038,-5.7312,-11.2006,-12.6839,-1.5593,-6.3429,-7.3706,-3.7410,-10.7292
925.7812,4.9633,0.5691,-3.2584,-12.1131,-16.1125,6.1247,-6.5731,-11.2487,1.5245,1.6197,-1.8711,-6.9358,-13.6117,-15.4487,-1.7323,-8.3802,-9.7574,-5.1014,-13.6986
929.6875,5.8589,2.0339,-3.1091,-13.2097,-18.1561,5.5951,-3.1182,-12.1705,1.2045,0.0627,-1.7279,-8.1300,-15.6552,-17.1891,-1.5306,-9.1182,-11.4756,-6.2295,-15.9475
933.5938,6.0411,3.4469,-2.6814,-12.9999,-18.5768,4.5630,0.7728,-11.7804,0.7741,-1.5938,-1.2989,-9.0768,-16.9211,-17.3127,-1.1098,-8.7240,-12.0861,-6.8855,-16.9785
937.5000,5.6284,4.5975,-1.9824,-11.6160,-17.2117,3.9450,4.6967,-10.0006,0.4902,-2.7289,-0.2993,-9.5436,-17.1947,-15.8157,-0.7584,-7.8308,-11.6474,-6.9518,-16.7118
941.4062,5.2085,5.3494,-1.1213,-9.5415,-14.3573,4.6088,8.0449,-7.2144,0.5897,-3.0640,1.1244,-9.3117,-16.3874,-13.1879,-0.6772,-6.9977,-10.5612,-6.4424,-15.3592
945.3125,5.4255,5.6174,-0.3122,-7.3484,-10.6296,6.6976,9.9661,-4.1321,1.1478,-2.7323,2.4436,-8.2727,-14.5226,-10.1182,-0.8397,-6.3545,-9.2929,-5.4992,-13.2220
949.2188,6.4795,5.3241,0.1751,-5.4430,-6.7664,9.3147,9.6789,-1.5088,1.9645,-2.1653,3.0580,-6.5689,-11.8155,-7.1992,-1.0448,-5.6707,-8.1591,-4.3712,-10.5713
953.1250,7.8887,4.3928,0.1144,-3.9608,-3.4561,10.8643,6.9670,0.1522,2.5752,-1.8700,2.6559,-4.6591,-8.7568,-4.7910,-1.1267,-4.7434,-7.2820,-3.3681,-7.6748
957.0312,8.7045,2.8106,-0.5681,-2.8461,-1.2196,9.9306,2.4826,0.7669,2.4322,-2.1972,1.3775,-3.2031,-6.0584,-3.0687,-1.1588,-3.7509,-6.6724,-2.7808,-4.8929
960.9375,8.0741,0.7280,-1.7325,-2.0214,-0.3254,6.1875,-2.4224,0.6373,1.2000,-3.1905,-0.3119,-2.7676,-4.4002,-2.1462,-1.4761,-3.2504,-6.3207,-2.7811,-2.6987
964.8438,5.8039,-1.4838,-3.0514,-1.5037,-0.7214,0.7585,-6.2904,0.2472,-0.9907,-4.5638,-1.9228,-3.5022,-4.0842,-2.1351,-2.4626,-3.7928,-6.2117,-3.3376,-1.5349
968.7500,2.5625,-3.3017,-4.1216,-1.3824,-2.0131,-4.2506,-8.2181,0.0022,-3.5050,-5.8165,-3.1860,-4.9940,-4.8237,-3.0823,-4.2290,-5.4431,-6.2777,-4.2018,-1.5699
972.6562,-0.4234,-4.2546,-4.6172,-1.6997,-3.5507,-6.8176,-8.1723,0.0412,-5.4531,-6.4464,-4.0800,-6.4346,-5.8564,-4.8490,-6.4070,-7.5901,-6.3764,-4.9978,-2.5357
976.5625,-2.0116,-4.1739,-4.4259,-2.3539,-4.6573,-6.0630,-6.7978,0.2021,-6.1274,-6.1785,-4.6674,-7.0361,-6.3643,-7.0559,-8.2342,-9.2316,-6.3530,-5.3920,-3.8052
980.4688,-1.7498,-3.3334,-3.7084,-3.1258,-4.9296,-2.6899,-4.9114,0.1417,-5.3860,-5.1048,-4.9175,-6.4610,-5.9590,-9.1668,-8.9173,-9.5641,-6.1488,-5.2639,-4.7123
984.3750,-0.0918,-2.3581,-2.8498,-3.8136,-4.4476,1.4378,-3.0658,-0.4587,-3.7422,-3.6546,-4.6834,-4.9951,-4.9074,-10.6683,-8.0671,-8.4765,-5.8501,-4.7696,-4.9223
988.2812,1.8869,-1.9064,-2.3098,-4.3616,-3.7388,4.3064,-1.4616,-1.7036,-2.0829,-2.3932,-3.8518,-3.3451,-3.9220,-11.2289,-5.9337,-6.5970,-5.6023,-4.2437,-4.6012
992.1875,3.0895,-2.2898,-2.4273,-4.8635,-3.4695,4.7539,-0.1875,-3.4025,-1.1664,-1.7441,-2.5226,-2.1853,-3.6381,-10.7411,-3.2872,-4.8555,-5.4301,-3.9819,-4.2501
996.0938,2.9562,-3.2649,-3.2640,-5.4316,-4.0263,2.9093,0.4915,-5.1415,-1.2058,-1.7903,-1.0416,-1.7487,-4.1323,-9.2597,-1.0085,-3.8595,-5.1147,-4.0363,-4.3130
1000.0000,1.6757,-4.1531,-4.5734,-6.0453,-5.2503,-0.1094,0.0882,-6.4800,-1.7963,-2.2726,0.1655,-1.7350,-4.8332,-6.9318,0.3610,-3.5117,-4.2682,-4.1698,-4.8371
1003.9062,-0.0306,-4.2508,-5.9220,-6.5258,-6.5145,-2.9676,-1.8296,-7.1756,-2.2313,-2.7856,0.8376,-1.5888,-4.9137,-4.0084,0.8434,-3.1241,-2.6063,-4.0190,-5.4381
1007.8125,-1.3752,-3.2909,-6.9066,-6.6815,-7.1144,-4.8446,-5.2316,-7.3108,-1.9944,-3.0420,1.0079,-0.9504,-3.9082,-0.9187,0.9052,-1.9467,-0.2499,-3.3732,-5.6058
1011.7188,-1.9264,-1.6653,-7.3454,-6.5130,-6.7178,-5.7076,-9.3962,-7.2319,-1.1019,-3.0280,0.9167,0.0451,-2.1199,1.7100,1.0976,0.2503,2.1774,-2.3787,-5.1244
1015.6250,-1.7529,-0.2486,-7.3286,-6.2887,-5.5714,-6.0542,-13.0628,-7.3156,-0.0756,-2.9506,0.7853,0.8354,-0.5061,3.2035,1.6958,2.9255,3.7818,-1.5087,-4.2883
1019.5312,-1.2598,0.0804,-7.1015,-6.3869,-4.3177,-6.3951,-14.9266,-7.6929,0.4204,-3.0292,0.6459,0.8260,-0.0854,3.1492,2.5583,5.0115,3.8620,-1.2904,-3.7325
1023.4375,-0.8729,-1.0710,-6.8695,-6.9887,-3.5538,-6.8756,-14.2345,-8.1163,0.0152,-3.2997,0.3712,-0.1636,-1.2506,1.6854,3.2630,5.5029,2.3302,-1.9537,-3.9831
1027.3438,-0.7918,-3.4086,-6.6697,-7.8550,-3.4427,-7.2791,-11.1863,-8.0864,-1.1553,-3.5911,-0.1275,-1.7177,-3.4564,-0.4544,3.4017,4.0310,-0.1845,-3.2428,-5.0496
1031.2500,-0.9470,-6.1484,-6.4077,-8.3950,-3.6491,-7.3505,-6.9468,-7.1895,-2.5840,-3.6957,-0.7185,-3.0443,-5.5105,-2.2484,2.8303,1.0933,-2.6327,-4.5353,-6.3643
1035.1562,-1.1373,-8.4579,-6.0227,-8.0287,-3.6338,-7.1372,-3.2471,-5.4405,-3.7484,-3.5938,-1.0645,-3.4600,-6.2938,-2.9127,1.7305,-2.1801,-4.0778,-5.2134,-7.1315
1039.0625,-1.2060,-9.8424,-5.6351,-6.6146,-3.0818,-7.0475,-1.7139,-3.3855,-4.4126,-3.5318,-0.8529,-2.8221,-5.4485,-2.3428,0.4748,-4.5807,-4.1550,-5.0488,-6.8572
1042.9688,-1.1197,-10.2471,-5.5281,-4.6304,-2.1487,-7.5485,-3.1763,-1.8554,-4.6687,-3.8579,-0.0676,-1.6240,-3.5924,-1.1840,-0.5889,-5.3900,-3.2053,-4.3444,-5.6929
1046.8750,-0.9142,-9.8693,-5.9404,-2.9455,-1.3542,-8.7194,-7.2348,-1.4922,-4.7223,-4.7074,0.9269,-0.6956,-1.9302,-0.4666,-1.2911,-4.6734,-2.0329,-3.7285,-4.3552
1050.7812,-0.5884,-8.8851,-6.8118,-2.3050,-1.2108,-10.0108,-12.3222,-2.3438,-4.6277,-5.7769,1.5873,-0.7007,-1.5186,-1.0122,-1.6543,-3.1689,-1.4522,-3.7332,-3.6716
1054.6875,-0.0624,-7.3301,-7.6917,-2.8617,-1.8605,-10.4451,-16.3079,-3.8059,-4.2039,-6.3934,1.5527,-1.7481,-2.6477,-2.9633,-1.7922,-1.8497,-1.8785,-4.4358,-4.0528
1058.5938,0.7484,-5.2196,-7.9308,-4.0706,-2.9696,-9.1892,-17.4346,-4.9711,-3.2053,-5.8888,0.9009,-3.3413,-4.7000,-5.6979,-1.7839,-1.3982,-3.1531,-5.4048,-5.2328
1062.5000,1.8027,-2.7752,-7.0715,-5.0224,-3.9293,-6.1485,-15.1564,-5.1734,-1.6087,-4.0633,0.1015,-4.6772,-6.5344,-8.1487,-1.6081,-1.8638,-4.6478,-5.9894,-6.4292
1066.4062,2.8664,-0.5244,-5.1909,-4.9967,-4.1998,-2.1795,-10.4179,-4.3783,0.2255,-1.4235,-0.3141,-5.0971,-7.1292,-9.3106,-1.1721,-2.6827,-5.5599,-5.7638,-6.8071
1070.3125,3.5900,0.8648,-2.9487,-3.8781,-3.5598,1.2644,-5.1755,-3.1620,1.6650,0.9953,-0.1333,-4.4305,-6.1012,-8.6506,-0.4040,-3.0502,-5.2638,-4.8384,-5.9519
1074.2188,3.6971,0.9331,-1.2776,-2.1839,-2.1325,2.8731,-1.3874,-2.3047,2.1304,2.1509,0.3796,-3.0649,-3.8433,-6.2440,0.6474,-2.4504,-3.5922,-3.8377,-4.0842
1078.1250,3.1546,-0.2799,-0.8916,-0.7217,-0.2347,2.1705,-0.0413,-2.2756,1.4102,1.5550,0.6576,-1.7431,-1.2707,-2.6485,1.7589,-1.0498,-0.9584,-3.5618,-1.9270
1082.0312,2.1959,-2.2240,-1.9151,-0.1223,1.7959,-0.2633,-0.7913,-2.9529,-0.2494,-0.4678,0.2095,-1.2236,0.6288,1.3450,2.5568,0.2865,1.7372,-4.5388,-0.3371
1085.9375,1.1705,-4.1257,-3.8545,-0.5429,3.6784,-3.1602,-2.3977,-3.7470,-2.3247,-2.9781,-1.0660,-1.9737,1.1953,4.9499,2.6178,0.4010,3.4186,-6.7324,0.0849
1089.8438,0.3245,-5.3820,-5.9085,-1.6775,5.1753,-5.2747,-3.6439,-4.0140,-4.3190,-4.9474,-2.8391,-4.0079,0.2905,7.5504,1.6238,-1.5195,3.2824,-9.5579,-0.7726
1093.7500,-0.3278,-5.8010,-7.3997,-3.0052,6.0775,-5.9878,-4.0924,-3.4632,-5.9727,-5.7867,-4.5873,-6.9025,-1.7357,8.8100,-0.4774,-5.4180,1.1987,-12.1739,-2.5302
1097.6562,-0.9480,-5.5607,-8.0588,-4.0755,6.2552,-5.4545,-4.1773,-2.2975,-7.2592,-5.5708,-5.9247,-9.9506,-4.2326,8.7294,-3.3753,-10.2604,-2.1516,-13.8699,-4.5085
1101.5625,-1.6771,-4.9735,-8.0256,-4.6673,5.7436,-4.2696,-4.6230,-1.0338,-8.2228,-4.8621,-6.7921,-12.3975,-6.4956,7.6260,-6.4264,-14.4361,-5.5295,-14.3454,-6.0162
1105.4688,-2.4555,-4.2690,-7.6324,-4.7881,4.7644,-2.9487,-5.6716,-0.1751,-8.8308,-4.2908,-7.3991,-13.6881,-7.9954,5.9964,-8.8347,-16.4798,-7.7014,-13.7630,-6.6251
1109.3750,-3.0081,-3.5532,-7.1651,-4.5878,3.6177,-1.6138,-6.7377,0.0305,-8.9700,-4.1791,-7.9927,-13.6510,-8.5345,4.2869,-9.9359,-15.7438,-8.0372,-12.5925,-6.3354
1113.2812,-3.0188,-2.9208,-6.7586,-4.2799,2.4985,-0.0878,-6.7780,-0.3861,-8.5801,-4.4340,-8.6395,-12.5512,-8.2837,2.6832,-9.4724,-12.6754,-6.8069,-11.3586,-5.5637
1117.1875,-2.3750,-2.5571,-6.4466,-4.0976,1.3748,1.7208,-5.1153,-1.2505,-7.7873,-4.7338,-9.1735,-10.9784,-7.6815,1.0558,-7.7258,-8.5697,-4.9969,-10.4263,-4.9487
1121.0938,-1.2989,-2.6845,-6.2576,-4.2514,0.0394,3.4812,-2.0987,-2.3825,-6.9038,-4.8363,-9.3242,-9.6009,-7.2280,-0.8869,-5.4283,-4.9477,-3.7451,-9.9094,-5.0464
1125.0000,-0.2591,-3.3713,-6.2428,-4.8576,-1.6847,4.4581,0.9238,-3.6219,-6.2699,-4.7792,-8.9139,-8.8888,-7.2608,-3.3278,-3.4721,-2.8900,-3.7281,-9.7121,-6.0596
1128.9062,0.2873,-4.3750,-6.4107,-5.8573,-3.7390,3.9188,2.3528,-4.7678,-6.0534,-4.8370,-7.9809,-8.9347,-7.8204,-6.1358,-2.5433,-2.6517,-4.8543,-9.6514,-7.7388
1132.8125,0.1520,-5.1963,-6.6491,-6.9941,-5.7865,1.6736,1.3283,-5.5480,-6.1562,-5.2748,-6.7557,-9.4537,-8.6674,-8.8726,-2.8467,-3.7035,-6.4128,-9.5783,-9.5129
1136.7188,-0.4994,-5.3536,-6.7342,-7.8952,-7.3751,-1.6302,-1.6927,-5.7051,-6.2943,-6.0803,-5.5288,-9.9557,-9.4270,-11.0001,-4.0490,-5.1183,-7.5393,-9.4358,-10.7732
1140.6250,-1.2807,-4.6954,-6.4479,-8.2324,-8.1865,-4.6941,-5.1492,-5.1605,-6.1850,-6.8667,-4.5105,-9.9895,-9.7676,-12.1364,-5.4604,-6.0627,-7.6845,-9.2330,-11.1461
1144.5312,-1.8351,-3.5069,-5.7242,-7.8705,-8.1860,-6.1620,-7.2389,-4.1181,-5.7034,-7.0292,-3.7707,-9.3358,-9.5178,-12.1792,-6.3636,-6.1467,-6.8148,-8.9741,-10.6084
1148.4375,-2.0258,-2.3191,-4.7126,-6.9165,-7.5699,-5.2941,-6.8913,-2.9945,-4.9162,-6.0791,-3.2766,-8.0692,-8.6846,-11.2365,-6.3292,-5.4963,-5.2957,-8.6085,-9.4105
1152.3438,-1.9516,-1.5618,-3.7093,-5.6506,-6.5789,-2.3445,-4.2872,-2.1955,-4.0090,-3.9668,-2.9804,-6.4931,-7.4097,-9.4680,-5.3777,-4.5719,-3.6171,-8.0579,-7.8993
1156.2500,-1.8051,-1.3335,-3.0117,-4.3993,-5.3476,1.5546,-0.6823,-1.8929,-3.1984,-1.2059,-2.8865,-5.0086,-5.9227,-7.0063,-3.9249,-3.8718,-2.1821,-7.3142,-6.3799
1160.1562,-1.7009,-1.4636,-2.8031,-3.4326,-3.9218,4.9159,2.2892,-1.9676,-2.6994,1.2873,-3.0559,-3.9888,-4.5175,-4.0418,-2.5580,-3.6868,-1.2630,-6.5385,-5.0903
1164.0625,-1.6053,-1.7948,-3.1316,-2.9253,-2.4112,6.5437,3.4076,-2.1581,-2.7312,2.5713,-3.5522,-3.6889,-3.5242,-0.9819,-1.7620,-4.0126,-1.0555,-6.0633,-4.2471
1167.9688,-1.4062,-2.4131,-3.9577,-2.9575,-1.1158,5.9912,2.3640,-2.2894,-3.4804,2.0953,-4.3664,-4.1901,-3.2333,1.5051,-1.7295,-4.6288,-1.6881,-6.2504,-4.0562
1171.8750,-1.0465,-3.5862,-5.1884,-3.5048,-0.4661,3.6576,-0.2094,-2.3913,-4.9796,-0.0497,-5.3694,-5.3656,-3.7743,2.6891,-2.3300,-5.2626,-3.1182,-7.2605,-4.6268
1175.7812,-0.5996,-5.4259,-6.6500,-4.4086,-0.7773,0.5409,-3.1061,-2.6118,-6.9603,-3.1647,-6.3198,-6.8821,-5.0128,2.1512,-3.2248,-5.7226,-5.0046,-8.8748,-5.8346
1179.6875,-0.2238,-7.5552,-8.0404,-5.3729,-1.9857,-2.1970,-5.1023,-3.0083,-8.8221,-6.2375,-6.9276,-8.2639,-6.5552,0.0898,-4.0411,-5.9241,-6.7179,-10.5099,-7.2654
1183.5938,-0.0312,-9.1175,-8.9577,-6.0420,-3.5871,-3.6639,-5.4721,-3.4126,-9.8193,-8.3530,-6.9484,-9.0292,-7.8921,-2.6833,-4.5039,-5.8078,-7.5767,-11.4609,-8.3378
1187.5000,0.0156,-9.2247,-9.0546,-6.1593,-4.8614,-3.5187,-4.2748,-3.5114,-9.4168,-9.0264,-6.2705,-8.8625,-8.6177,-5.1048,-4.4715,-5.2437,-7.2085,-11.2565,-8.5748
1191.4062,0.0932,-7.5826,-8.2560,-5.7187,-5.2596,-2.0292,-2.3019,-3.1015,-7.6152,-8.3189,-4.9603,-7.7453,-8.5981,-6.3827,-3.9008,-4.0312,-5.7991,-9.9174,-7.8641
1195.3125,0.3910,-4.8350,-6.8811,-4.9953,-4.6987,0.0902,-0.6942,-2.3149,-5.0202,-6.7211,-3.2539,-5.9747,-7.9886,-6.3599,-2.8175,-2.0496,-4.0322,-7.9514,-6.5276
1199.2188,0.9616,-2.3141,-5.5439,-4.4061,-3.5718,1.9907,-0.3811,-1.6074,-2.5740,-4.8984,-1.5051,-4.0525,-7.0996,-5.4988,-1.3489,0.5117,-2.7186,-6.0766,-5.1391
1203.1250,1.6595,-1.2922,-4.8478,-4.2704,-2.4783,3.0298,-1.6172,-1.4819,-1.0896,-3.4401,-0.1098,-2.4991,-6.2121,-4.5242,0.2002,3.0114,-2.3418,-4.8420,-4.2029
1207.0312,2.2151,-2.2062,-5.0543,-4.6266,-1.8723,3.0007,-3.8696,-2.1300,-0.8626,-2.7116,0.5789,-1.6814,-5.4674,-3.9768,1.3268,4.4730,-2.8124,-4.3767,-3.9025
1210.9375,2.3952,-4.3779,-5.9441,-5.2315,-1.8628,2.1559,-6.1331,-3.2676,-1.5930,-2.8230,0.3425,-1.7199,-4.8823,-3.9629,1.4623,3.9929,-3.5844,-4.4162,-4.0779
1214.8438,2.1407,-6.4342,-6.9724,-5.7427,-2.2644,1.0220,-7.4834,-4.3061,-2.6360,-3.6609,-0.8063,-2.4867,-4.4369,-4.2170,0.2657,1.2758,-4.0365,-4.5579,-4.4198
1218.7500,1.5928,-7.1501,-7.6149,-5.9485,-2.8061,0.1156,-7.5208,-4.7543,-3.3940,-4.9269,-2.5510,-3.6556,-4.1311,-4.3661,-2.0619,-3.0064,-3.8407,-4.5507,-4.7151
1222.6562,0.9995,-6.1563,-7.6628,-5.8761,-3.3108,-0.2827,-6.4318,-4.5604,-3.5885,-6.1757,-4.2813,-4.7692,-3.9491,-4.1679,-4.6643,-7.3021,-3.0727,-4.4118,-4.9519
1226.5625,0.5745,-4.0594,-7.2665,-5.7004,-3.7157,-0.1786,-4.6767,-4.1326,-3.2695,-6.8940,-5.2418,-5.3175,-3.7692,-3.5646,-6.2798,-9.7618,-2.0242,-4.3000,-5.2141
1230.4688,0.4051,-1.9431,-6.7169,-5.5327,-3.9633,0.2592,-2.5946,-4.0136,-2.6227,-6.6556,-4.8154,-4.8539,-3.3273,-2.5749,-5.8131,-9.0742,-0.9007,-4.2675,-5.4689
1234.3750,0.4588,-0.6366,-6.1518,-5.2660,-3.9074,0.8819,-0.2678,-4.4420,-1.7691,-5.3216,-2.8382,-3.1552,-2.3150,-1.1795,-2.9556,-5.1324,0.3357,-4.1046,-5.4423
1238.2812,0.6658,-0.2595,-5.4313,-4.6164,-3.3558,1.6588,2.2415,-5.1327,-0.7209,-3.1818,0.2272,-0.3772,-0.5859,0.6551,1.5093,0.8435,1.8529,-3.4256,-4.7180
1242.1875,1.0012,-0.3134,-4.2918,-3.3526,-2.2429,2.6218,4.5112,-5.4534,0.4974,-0.9195,3.4039,2.8895,1.6567,2.8182,5.9583,6.8237,3.6620,-1.9648,-3.0267
1246.0938,1.5003,-0.1819,-2.6665,-1.5576,-0.7946,3.7125,5.6369,-4.8923,1.7009,0.6373,5.6018,5.7459,3.8373,4.9065,8.6642,10.8761,5.4045,0.1190,-0.5389
1250.0000,2.1952,0.3647,-0.9168,0.2750,0.4694,4.6717,4.5969,-3.4874,2.5284,0.8885,6.1272,7.2891,5.2027,6.2581,8.6474,11.9980,6.4131,2.1620,2.0559
1253.9062,3.0241,1.0189,0.2370,1.4088,0.9429,5.0874,0.9448,-1.9071,2.6055,-0.2358,5.0218,6.9790,5.1500,6.2132,6.1666,10.4562,6.0487,3.2397,3.7787
1257.8125,3.7903,1.2029,0.0870,1.2240,0.2463,4.6031,-4.6526,-1.0980,1.7799,-2.2170,3.0211,4.8897,3.5180,4.4768,2.5625,7.4928,4.1092,2.6318,3.8071
1261.7188,4.2151,0.5156,-1.6052,-0.4295,-1.5401,3.1656,-10.4778,-1.7152,0.2580,-4.1846,1.1372,1.7064,0.6923,1.3625,-0.4640,4.6032,1.0437,0.2489,1.9071
1265.6250,4.0715,-0.9702,-4.3612,-3.0872,-3.8585,1.1449,-14.4857,-3.6883,-1.4607,-5.3312,0.1048,-1.5421,-2.5220,-2.2479,-1.7295,2.7961,-2.1775,-3.2291,-1.3825
1269.5312,3.3240,-2.7383,-7.1225,-5.8172,-5.8840,-0.7741,-15.2740,-6.1955,-2.8124,-5.2840,0.0206,-3.8898,-5.1834,-5.2282,-1.1066,2.2164,-4.4702,-6.5965,-4.9209
1273.4375,2.1899,-4.1163,-8.7144,-7.5890,-6.8487,-1.8867,-12.7003,-8.0546,-3.4125,-4.2405,0.3882,-4.7858,-6.5261,-6.6535,0.5523,2.2741,-5.0989,-8.6356,-7.4195
1277.3438,1.0766,-4.5968,-8.3840,-7.6846,-6.3261,-1.7972,-7.7816,-8.2978,-3.1764,-2.8148,0.5189,-4.2365,-6.1848,-6.1528,2.0106,2.1327,-3.9582,-8.6407,-7.9684
1281.2500,0.4154,-4.0079,-6.1284,-5.9688,-4.3642,-0.6012,-2.0121,-6.6111,-2.2786,-1.6987,0.0133,-2.7057,-4.2818,-4.0135,2.3740,1.2427,-1.5600,-6.7006,-6.3954
1285.1562,0.4741,-2.5029,-2.6576,-2.9129,-1.4409,1.1756,3.3913,-3.4288,-1.0202,-1.3320,-0.9923,-0.8550,-1.3703,-1.0209,1.5199,-0.3708,1.2265,-3.6128,-3.3011
1289.0625,1.2429,-0.4554,0.9577,0.6163,1.7188,2.8470,7.8208,0.3137,0.2922,-1.7435,-1.9554,0.7344,1.7392,1.8722,0.0286,-2.1809,3.5344,-0.4940,0.2350
1292.9688,2.4523,1.6456,3.7533,3.6985,4.3881,3.9002,11.0764,3.5952,1.4047,-2.6099,-2.3166,1.7416,4.2308,3.8966,-1.2697,-3.4905,4.7991,1.7141,3.1310
1296.8750,3.7088,3.2899,5.2258,5.6848,6.0614,4.2250,12.9493,5.6756,2.1309,-3.4620,-1.8638,2.1439,5.5430,4.7044,-1.8024,-3.8038,4.9031,2.6071,4.7332
1300.7812,4.6748,4.0746,5.4356,6.3766,6.5789,4.1286,13.0443,6.2741,2.3735,-3.9091,-0.8276,2.1351,5.5443,4.4174,-1.5141,-3.0372,4.1388,2.3951,5.0019
1304.6875,5.1960,3.8725,4.8566,5.9992,6.1068,4.1365,11.0411,5.5468,2.1658,-3.7769,0.3286,1.9831,4.5355,3.4808,-0.7729,-1.4955,3.0224,1.6870,4.3838
1308.5938,5.3195,2.9536,4.0823,5.0055,4.9893,4.6859,7.1708,3.9338,1.6910,-3.1255,1.2432,1.8864,3.0655,2.3996,-0.0572,0.3216,2.0335,1.1152,3.4683
1312.5000,5.2103,1.9299,3.5393,3.8269,3.5558,5.8636,2.4553,1.9738,1.2268,-2.1779,1.8618,1.8807,1.6465,1.4850,0.3372,1.9411,1.3888,1.0042,2.6437
1316.4062,5.0296,1.4795,3.3384,2.7085,2.0064,7.3241,-1.5928,0.1542,1.0146,-1.2143,2.3752,1.8281,0.5289,0.7470,0.3966,3.0474,0.9604,1.2512,1.9575
1320.3125,4.8555,1.9694,3.3123,1.7138,0.4468,8.4348,-3.6869,-1.1759,1.1275,-0.4789,2.9615,1.5014,-0.3301,-0.0027,0.2822,3.4882,0.3969,1.4684,1.2514
1324.2188,4.6843,3.2146,3.2029,0.8690,-0.9623,8.5882,-3.4296,-1.8300,1.4309,-0.1175,3.5487,0.7345,-1.0953,-0.9023,0.1444,3.2086,-0.6005,1.2871,0.4503
1328.1250,4.4958,4.5588,2.8842,0.3203,-1.8855,7.5316,-1.4590,-1.7638,1.6794,-0.1492,3.7926,-0.4334,-1.8115,-1.8180,0.0053,2.1989,-2.0085,0.6374,-0.2226
1332.0312,4.3226,5.2605,2.4883,0.3621,-1.8673,5.5472,1.0214,-1.0393,1.6897,-0.4702,3.2961,-1.7098,-2.2814,-2.3287,-0.2231,0.5092,-3.4054,-0.1720,-0.2892
1335.9375,4.2662,4.9493,2.3498,1.2811,-0.5873,3.3780,2.9877,0.1988,1.4701,-0.8888,1.9174,-2.6488,-2.1685,-1.9708,-0.6298,-1.6828,-4.1783,-0.6241,0.6793
1339.8438,4.4432,3.8513,2.7919,3.1076,1.8317,1.9185,4.0970,1.7250,1.2109,-1.1862,-0.0545,-2.8668,-1.2644,-0.6075,-1.2039,-4.0196,-3.9112,-0.3120,2.6982
1343.7500,4.8965,2.6298,3.8775,5.4555,4.7023,1.8072,4.6412,3.2324,1.1423,-1.1870,-1.9866,-2.2559,0.2817,1.3419,-1.8141,-5.9974,-2.7043,0.7937,5.2169
1347.6562,5.5277,1.9491,5.2927,7.6040,6.9946,3.1188,5.0703,4.3711,1.3634,-0.8193,-3.2037,-1.0577,1.9630,3.0208,-2.2743,-7.1072,-1.1811,2.3017,7.3297
1351.5625,6.0996,2.0547,6.4570,8.8210,7.8352,5.3071,5.5109,4.8512,1.7674,-0.1459,-3.3199,0.2664,3.1820,3.5936,-2.4394,-7.0293,-0.1281,3.6152,8.2579
1355.4688,6.3105,2.6484,6.8216,8.7526,7.0016,7.4297,5.6619,4.5842,2.1140,0.6457,-2.4031,1.3024,3.6219,2.7856,-2.2749,-5.7858,0.0265,4.2772,7.8099
1359.3750,5.9118,3.1265,6.1868,7.6357,5.0897,8.5519,5.1145,3.7809,2.1921,1.2919,-0.8947,1.9242,3.4658,1.1477,-1.8687,-3.7612,-0.4522,4.2315,6.5129
1363.2812,4.8163,3.0015,4.8395,6.1788,3.2153,8.1404,3.7992,2.9152,1.9538,1.5325,0.6450,2.3447,3.2948,-0.1711,-1.3915,-1.5640,-0.7162,3.8353,5.3086
1367.1875,3.1542,2.2191,3.4165,5.1669,2.4095,6.2748,2.1683,2.5290,1.5293,1.2021,1.8023,2.9363,3.7106,-0.0471,-1.0289,0.2195,0.1396,3.6170,4.9906
1371.0938,1.2526,1.1729,2.5629,5.0245,3.0710,3.5927,0.9516,2.9567,1.1264,0.3069,2.4447,3.9355,4.9262,1.9632,-0.9046,1.2666,2.4578,3.9334,5.7332
1375.0000,-0.4586,0.4335,2.5871,5.6055,4.8077,1.0080,0.6699,4.1246,0.8969,-0.9481,2.6841,5.2313,6.5963,5.3448,-1.0174,1.6445,5.7183,4.7420,7.0117
1378.9062,-1.5878,0.3924,3.3164,6.3325,6.7399,-0.6637,1.2807,5.5610,0.8673,-2.2089,2.7293,6.3892,8.0079,8.9015,-1.2184,1.7550,8.7772,5.6286,7.9570
1382.8125,-1.9223,1.0501,4.2296,6.5834,8.0425,-1.0147,2.2244,6.6299,0.9676,-3.0965,2.7406,6.9029,8.5058,11.4129,-1.2552,2.1169,10.5094,6.0660,7.9076
1386.7188,-1.5059,2.0568,4.7708,6.0665,8.3619,-0.1666,2.8293,6.8607,1.1149,-3.3656,2.7643,6.5083,7.8726,12.2539,-0.8890,3.0793,10.4429,5.7356,6.7977
1390.6250,-0.6128,2.9435,4.6449,4.9464,7.8615,1.3329,2.7686,6.1726,1.2768,-3.0242,2.7640,5.3498,6.4181,11.5961,-0.0409,4.6005,8.9725,4.7108,5.1391
1394.5312,0.3860,3.3791,3.9238,3.6584,6.9236,2.7797,2.2422,4.8577,1.4678,-2.3451,2.6997,3.8881,4.7296,10.0997,1.1134,6.2035,7.0237,3.3972,3.6274
1398.4375,1.2007,3.3046,2.9251,2.5631,5.7720,3.6281,1.7763,3.3461,1.6970,-1.7478,2.5904,2.6143,3.2656,8.3454,2.1743,7.1509,5.4076,2.2804,2.6503
1402.3438,1.7476,2.8965,1.9719,1.6914,4.3085,3.7051,1.8155,1.9256,1.9240,-1.5966,2.5193,1.7641,2.0696,6.4182,2.6851,6.7738,4.3126,1.6469,2.0311
1406.2500,2.1421,2.4173,1.2002,0.7552,2.2743,3.2296,2.4079,0.6160,2.0643,-2.0169,2.5809,1.2174,0.7934,3.9300,2.3567,4.8074,3.2716,1.4467,1.1714
1410.1562,2.5537,2.0516,0.5238,-0.5932,-0.4056,2.6336,3.1825,-0.7217,2.0356,-2.8288,2.8011,0.6309,-1.0011,0.4489,1.2185,1.5638,1.6065,1.3637,-0.5101
1414.0625,3.0175,1.8119,-0.2500,-2.4487,-3.3757,2.2817,3.5860,-2.1379,1.7973,-3.6428,3.0797,-0.3059,-3.4732,-3.9854,-0.3995,-2.1574,-0.9817,1.0249,-3.1410
1417.9688,3.3332,1.5434,-1.2641,-4.5192,-5.9100,2.2453,3.1771,-3.4221,1.3449,-4.0729,3.1880,-1.6734,-6.3218,-8.6429,-2.0480,-5.3909,-4.0990,0.2029,-6.2496
1421.8750,3.1466,1.0107,-2.5264,-6.2735,-7.2681,2.2586,1.7817,-4.1682,0.6677,-3.9548,2.8388,-3.3022,-8.9090,-12.3615,-3.3884,-7.3980,-6.8415,-1.1068,-9.0047
1425.7812,2.1823,0.0257,-3.9396,-7.2770,-7.1283,1.8822,-0.5308,-4.0589,-0.2813,-3.4495,1.8085,-4.9090,-10.6034,-14.1356,-4.3212,-7.9288,-8.3422,-2.7513,-10.6830
1429.6875,0.4863,-1.4392,-5.3945,-7.4844,-5.8162,0.7788,-3.5417,-3.1722,-1.5569,-2.9713,0.0657,-6.2631,-11.1193,-13.6665,-4.9358,-7.2259,-8.3027,-4.5475,-11.0688
1433.5938,-1.4943,-3.2030,-6.8329,-7.2798,-4.1776,-1.0637,-6.9110,-2.0604,-3.1380,-2.9767,-2.1579,-7.2601,-10.6414,-11.5240,-5.3341,-5.8034,-7.1528,-6.3592,-10.5392
1437.5000,-3.0778,-4.9282,-8.2255,-7.2235,-3.1560,-3.2930,-10.1177,-1.4952,-4.8526,-3.7265,-4.4054,-7.8829,-9.6750,-8.8194,-5.4803,-4.1692,-5.7479,-8.0745,-9.7988
1441.4062,-3.6849,-6.2608,-9.4880,-7.6665,-3.3140,-5.3569,-12.4278,-2.0063,-6.3884,-5.1514,-6.1551,-8.1316,-8.7369,-6.5987,-5.2129,-2.6829,-4.8316,-9.5294,-9.4420
1445.3125,-3.1515,-6.9976,-10.4209,-8.4901,-4.5568,-6.7628,-13.0382,-3.5068,-7.4158,-6.8959,-7.0488,-8.0204,-8.0933,-5.3290,-4.4321,-1.6146,-4.6304,-10.4779,-9.6224
1449.2188,-1.8214,-7.1877,-10.7500,-9.1562,-6.2021,-7.2777,-11.4218,-5.2739,-7.7680,-8.5115,-7.0849,-7.6594,-7.6992,-4.7777,-3.3292,-1.2994,-4.8320,-10.6795,-10.0247
1453.1250,-0.3530,-7.0982,-10.2679,-9.0522,-7.3472,-6.9591,-7.7120,-6.3328,-7.5628,-9.6877,-6.6639,-7.3277,-7.3476,-4.3230,-2.4551,-2.1807,-4.9195,-10.0716,-10.1328
1457.0312,0.6464,-7.0498,-8.9956,-7.9134,-7.3389,-6.0343,-2.8636,-6.0227,-7.1703,-10.3855,-6.4302,-7.4179,-6.8984,-3.4684,-2.5165,-4.6081,-4.5913,-8.9042,-9.6056
1460.9375,0.9364,-7.2099,-7.2478,-6.0469,-6.1067,-4.7376,1.5950,-4.3963,-7.0188,-10.7941,-6.9596,-8.2211,-6.4162,-2.2190,-3.9688,-8.4674,-3.9705,-7.7066,-8.5118
1464.8438,0.7212,-7.4704,-5.5370,-4.1984,-4.1966,-3.2307,4.1648,-2.1959,-7.3412,-11.1430,-8.4369,-9.6720,-6.1252,-1.0871,-6.6467,-12.9106,-3.4759,-7.0565,-7.2839
1468.7500,0.4549,-7.4987,-4.3530,-3.1347,-2.4947,-1.6479,4.0445,-0.4236,-8.0172,-11.4936,-10.5012,-11.2521,-6.2257,-0.7422,-9.6912,-16.4720,-3.4816,-7.2648,-6.4351
1472.6562,0.5098,-6.9478,-3.9398,-3.2005,-1.7798,-0.1975,1.4943,0.2225,-8.6216,-11.6518,-12.3657,-12.1843,-6.7125,-1.5464,-11.8824,-17.6421,-4.0252,-8.1742,-6.2371
1476.5625,0.9259,-5.7099,-4.2015,-4.1311,-2.3303,0.7995,-2.3206,-0.3052,-8.6692,-11.2739,-13.1739,-11.8523,-7.3312,-3.2759,-12.2316,-15.6469,-4.7720,-9.2218,-6.5651
1480.4688,1.3966,-4.0568,-4.7921,-5.2386,-3.7855,1.0104,-5.9272,-1.4705,-7.9160,-10.1090,-12.4189,-10.1992,-7.7070,-5.2061,-10.5096,-10.9754,-5.2432,-9.7535,-7.0003
1484.3750,1.4917,-2.5643,-5.3278,-5.8459,-5.3365,0.2898,-8.2440,-2.5550,-6.5321,-8.2277,-10.1983,-7.8274,-7.5619,-6.5024,-7.3947,-5.2815,-5.1339,-9.4049,-7.1058
1488.2812,0.9688,-1.8346,-5.5854,-5.6847,-6.1514,-1.1561,-8.9890,-3.1070,-5.0256,-6.0786,-7.1646,-5.6976,-6.8755,-6.6751,-4.1359,-0.6369,-4.4979,-8.3061,-6.6874
1492.1875,-0.0245,-2.1560,-5.5655,-5.0054,-5.8097,-2.7790,-8.5984,-3.1494,-3.9510,-4.3165,-4.1974,-4.5881,-5.8879,-5.8269,-1.9131,1.4751,-3.6886,-6.9727,-5.8776
1496.0938,-0.9851,-3.2914,-5.4000,-4.3435,-4.5140,-3.9092,-7.7638,-3.0433,-3.5748,-3.4864,-1.9900,-4.6556,-4.9526,-4.5593,-1.2599,0.8456,-3.1222,-5.9565,-5.0105
1500.0000,-1.3077,-4.5414,-5.1923,-4.1224,-2.9629,-4.0850,-6.9340,-3.1493,-3.7138,-3.7434,-0.7858,-5.3901,-4.3435,-3.6102,-1.8767,-1.4965,-3.0400,-5.4958,-4.3954
1503.9062,-0.6182,-5.0867,-4.9285,-4.3718,-1.9576,-3.3081,-6.1162,-3.5479,-3.8640,-4.7754,-0.4000,-6.0014,-4.1428,-3.4476,-2.9190,-4.0032,-3.4210,-5.4124,-4.1513
1507.8125,0.9935,-4.4562,-4.5348,-4.7512,-1.9651,-2.0675,-5.0812,-4.0126,-3.5546,-5.9722,-0.4775,-5.9813,-4.2668,-4.0501,-3.5590,-5.5444,-4.0748,-5.3269,-4.2002
1511.7188,2.9650,-2.8681,-4.0389,-4.8437,-2.8803,-1.1091,-3.7734,-4.2274,-2.7111,-6.7429,-0.7912,-5.4611,-4.5873,-4.9746,-3.4621,-5.9760,-4.8099,-5.0311,-4.3927
1515.6250,4.4844,-1.2226,-3.6934,-4.4968,-4.1102,-1.0711,-2.5737,-4.0655,-1.7817,-6.7986,-1.3707,-5.1139,-5.0427,-5.6381,-2.8963,-6.0135,-5.5408,-4.7339,-4.6494
1519.5312,4.8417,-0.6960,-3.9271,-3.9577,-4.9189,-2.1784,-2.1695,-3.7133,-1.5179,-6.2531,-2.3843,-5.6623,-5.6535,-5.6310,-2.4438,-6.5538,-6.2626,-4.9709,-5.0050
1523.4375,3.7494,-2.1068,-5.1060,-3.7082,-4.8280,-4.1484,-3.0911,-3.5532,-2.5171,-5.5090,-3.8782,-7.3224,-6.4402,-4.8897,-2.5399,-7.9391,-6.9355,-6.2101,-5.5302
1527.3438,1.4893,-5.3895,-7.2344,-4.1200,-3.8525,-6.3351,-5.2463,-3.8964,-4.7937,-5.0175,-5.5794,-9.5634,-7.3207,-3.6644,-3.1601,-9.6655,-7.3971,-8.4154,-6.2103
1531.2500,-1.1826,-9.4922,-9.8059,-5.1798,-2.4632,-8.0155,-7.8279,-4.7617,-7.6523,-5.0516,-6.9262,-11.3555,-8.0846,-2.3467,-3.8515,-10.7107,-7.3951,-10.8888,-6.8905
1535.1562,-3.3362,-12.8073,-11.9445,-6.4789,-1.3235,-8.6662,-9.7212,-5.8513,-9.9663,-5.5940,-7.3287,-11.7520,-8.4806,-1.2839,-4.0607,-10.2215,-6.7398,-12.5427,-7.3412
1539.0625,-4.2478,-13.9423,-12.8035,-7.4703,-0.9595,-8.1183,-10.1773,-6.7295,-10.7204,-6.3624,-6.4967,-10.4378,-8.3671,-0.6787,-3.5090,-8.0764,-5.4786,-12.4725,-7.4018
1542.9688,-3.6987,-12.4244,-12.0114,-7.8093,-1.5329,-6.5626,-9.2941,-7.0731,-9.5215,-6.9286,-4.6244,-7.9001,-7.8173,-0.5931,-2.3530,-4.9510,-3.9609,-10.4838,-7.0922
1546.8750,-2.0579,-8.9474,-9.9007,-7.5432,-2.8023,-4.4535,-7.9477,-6.8312,-6.7908,-6.8746,-2.3151,-5.1351,-7.0961,-0.9984,-1.0357,-1.8795,-2.7233,-7.2473,-6.6081
1550.7812,-0.1105,-5.0159,-7.3668,-7.0310,-4.2566,-2.3745,-7.1888,-6.2092,-3.5430,-5.9441,-0.2955,-3.0919,-6.5086,-1.8043,0.0419,0.3547,-2.2339,-3.9756,-6.1953
1554.6875,1.2946,-2.1898,-5.4194,-6.6662,-5.3306,-0.9009,-7.5006,-5.5188,-0.8877,-4.1607,0.9050,-2.2065,-6.2102,-2.8432,0.7799,1.5782,-2.6296,-1.8121,-5.9907
1558.5938,1.6155,-1.3515,-4.6760,-6.6043,-5.6073,-0.4607,-8.4378,-5.0073,0.4664,-1.8745,1.1346,-2.2865,-6.1005,-3.8434,1.3831,2.1274,-3.6012,-1.2873,-5.9368
1562.5000,0.8376,-2.3869,-5.0802,-6.6806,-4.9428,-1.1990,-8.9123,-4.7695,0.4537,0.3085,0.5930,-2.7634,-5.8731,-4.4539,2.1266,2.4234,-4.5094,-2.1379,-5.8254
1566.4062,-0.5572,-4.4048,-5.9979,-6.5572,-3.4941,-2.8839,-7.9507,-4.7655,-0.4433,1.7337,-0.3350,-3.1001,-5.2004,-4.3471,3.0738,2.5754,-4.6920,-3.5515,-5.4372
1570.3125,-1.8492,-6.2988,-6.6177,-5.9827,-1.6571,-4.9279,-5.4093,-4.8955,-1.5209,1.9813,-1.2583,-3.0791,-3.9451,-3.3666,3.9724,2.3176,-3.8114,-4.6510,-4.6870
1574.2188,-2.4336,-7.2913,-6.4156,-4.9824,0.0651,-6.5694,-2.1577,-5.0635,-2.2071,1.0902,-1.8776,-2.8159,-2.2774,-1.6386,4.4126,1.3141,-2.0544,-4.9247,-3.6848
1578.1250,-2.0942,-7.1727,-5.4197,-3.8577,1.2284,-7.1779,0.3957,-5.1955,-2.2644,-0.4216,-1.9983,-2.5484,-0.6234,0.4317,4.1343,-0.4168,-0.0657,-4.3855,-2.6858
1582.0312,-1.0678,-6.1896,-4.1423,-3.0091,1.6017,-6.5472,1.1189,-5.2265,-1.7873,-1.7924,-1.5181,-2.3934,0.5281,2.2968,3.2515,-2.3043,1.3693,-3.4327,-1.9667
1585.9375,0.1201,-4.7562,-3.2453,-2.7067,1.2488,-5.0068,-0.2211,-5.0912,-1.0526,-2.4039,-0.4420,-2.2511,0.8594,3.4796,2.2233,-3.4367,1.7319,-2.5559,-1.7003
1589.8438,0.9506,-3.2210,-3.1477,-2.9499,0.4955,-3.2580,-2.9008,-4.7411,-0.3372,-2.0995,1.0774,-1.9081,0.3730,3.7551,1.5799,-3.0761,1.0445,-2.0732,-1.8907
1593.7500,1.1787,-1.8025,-3.7993,-3.4917,-0.2200,-1.9977,-5.7254,-4.1814,0.2024,-1.2363,2.7237,-1.2422,-0.6231,3.2099,1.5920,-1.1486,-0.1500,-2.0301,-2.3936
1597.6562,0.9317,-0.6479,-4.7355,-3.9990,-0.5592,-1.5347,-7.6847,-3.5008,0.5515,-0.4305,4.0722,-0.3697,-1.6868,2.1515,2.1083,1.6163,-1.1079,-2.2672,-3.0062
1601.5625,0.5886,0.1142,-5.3675,-4.2510,-0.4590,-1.6321,-8.3569,-2.8724,0.7724,-0.1577,4.7072,0.3668,-2.4805,0.9232,2.6648,4.0067,-1.3302,-2.5817,-3.5829
1605.4688,0.5148,0.3964,-5.3355,-4.2689,-0.1812,-1.6858,-7.8771,-2.5160,0.8949,-0.4727,4.3481,0.5534,-2.9517,-0.2692,2.7796,4.9296,-0.8755,-2.8844,-4.1240
1609.3750,0.8040,0.2083,-4.7309,-4.3119,-0.1943,-1.1401,-6.6169,-2.6248,0.8182,-1.0387,2.9186,-0.1029,-3.3578,-1.4268,2.2229,3.9469,-0.3478,-3.2810,-4.7895
1613.2812,1.1856,-0.3466,-4.0660,-4.7420,-0.9324,0.1156,-4.8884,-3.2739,0.2842,-1.4406,0.5399,-1.6587,-4.1188,-2.6906,1.0888,1.4468,-0.5497,-4.0476,-5.8187
1617.1875,1.1637,-1.1662,-4.0056,-5.8179,-2.5453,1.6249,-2.8813,-4.3405,-1.0382,-1.5580,-2.5229,-3.9403,-5.5732,-4.1916,-0.3537,-1.6215,-1.9968,-5.5068,-7.3779
1621.0938,0.3189,-2.2535,-4.9987,-7.5177,-4.7716,2.6046,-0.7994,-5.4839,-3.3670,-1.7224,-5.9116,-6.6317,-7.7631,-5.9120,-1.8878,-4.2688,-4.5771,-7.8417,-9.4101
1625.0000,-1.3985,-3.7060,-7.0028,-9.4830,-7.0141,2.4039,1.0198,-6.2272,-6.5983,-2.5265,-9.2039,-9.3700,-10.3638,-7.6429,-3.4731,-5.9317,-7.5597,-10.9242,-11.5774
1628.9062,-3.5711,-5.5533,-9.4516,-11.1336,-8.5928,0.8987,2.1743,-6.1433,-10.2062,-4.3988,-11.9429,-11.7981,-12.7933,-9.0601,-5.1775,-6.6379,-9.9501,-14.2490,-13.3529
1632.8125,-5.4902,-7.5584,-11.4961,-11.9178,-9.0548,-1.4219,2.4304,-5.0786,-13.3523,-7.2259,-13.7055,-13.5832,-14.4439,-9.8658,-6.9896,-6.8216,-10.9841,-17.0448,-14.2379
1636.7188,-6.5185,-9.1787,-12.4039,-11.5800,-8.3762,-3.7181,1.9150,-3.2911,-15.2029,-10.2885,-14.2153,-14.4445,-14.9140,-9.9118,-8.6783,-6.9510,-10.4767,-18.5504,-13.9958
1640.6250,-6.4296,-9.7929,-11.9091,-10.2987,-6.9484,-5.2339,1.0752,-1.3944,-15.3076,-12.5769,-13.4549,-14.2201,-14.1303,-9.2377,-9.8357,-7.2167,-8.8389,-18.3415,-12.7665
1644.5312,-5.5092,-9.0888,-10.3225,-8.6001,-5.3552,-5.6295,0.3982,-0.0938,-13.8252,-13.3056,-11.7046,-12.9502,-12.3180,-8.0177,-10.0906,-7.4601,-6.7844,-16.5356,-10.9860
1648.4375,-4.3457,-7.3336,-8.3351,-7.0766,-4.0703,-5.0275,0.0992,0.1670,-11.4404,-12.3195,-9.4588,-10.9116,-9.8594,-6.4650,-9.3495,-7.3494,-4.9233,-13.7407,-9.1488
1652.3438,-3.4357,-5.2858,-6.6216,-6.0613,-3.2467,-3.7887,0.0249,-0.5513,-8.9917,-10.1493,-7.2415,-8.5456,-7.1329,-4.7568,-7.8842,-6.6522,-3.4867,-10.7520,-7.5514
1656.2500,-2.8577,-3.7421,-5.4665,-5.4509,-2.7131,-2.2085,-0.1416,-1.7047,-7.0195,-7.6952,-5.4014,-6.2830,-4.4107,-3.0177,-6.1931,-5.4084,-2.3187,-8.1518,-6.1710
1660.1562,-2.2344,-3.0031,-4.6328,-4.7897,-2.1587,-0.3590,-0.5344,-2.5585,-5.5073,-5.7389,-3.9882,-4.3498,-1.8459,-1.3462,-4.7193,-3.8954,-1.0980,-6.0428,-4.7456
1664.0625,-1.0171,-2.6438,-3.5503,-3.5707,-1.3789,1.8296,-0.9068,-2.5834,-3.9816,-4.5750,-2.7750,-2.6747,0.4771,0.1511,-3.6145,-2.4318,0.3773,-4.0760,-2.9991
1667.9688,1.0899,-1.7974,-1.7156,-1.5752,-0.4189,4.3312,-0.7618,-1.7204,-1.9117,-3.9649,-1.4198,-0.9764,2.4728,1.3500,-2.7063,-1.1818,2.0143,-1.7627,-0.8658
1671.8750,3.8526,0.2009,0.9358,0.9545,0.4628,6.8291,0.2615,-0.3619,0.8470,-3.4085,0.3083,0.9920,4.0066,2.1242,-1.6895,-0.1090,3.4414,1.1186,1.4213
1675.7812,6.5695,3.2408,3.9097,3.4110,0.9696,8.7292,2.0323,0.9227,3.8518,-2.5467,2.3436,3.1793,4.8859,2.3699,-0.4078,0.8890,4.1784,4.2711,3.4208
1679.6875,8.4414,6.3528,6.3633,5.1238,0.9546,9.4021,3.8924,1.7279,6.2494,-1.4354,4.2775,5.1259,4.8995,2.0278,0.9694,1.7794,3.8554,6.9477,4.6855
1683.5938,9.0035,8.2116,7.5258,5.6892,0.5030,8.5180,5.0045,2.0073,7.2231,-0.5270,5.4935,6.1146,3.9038,1.1107,1.9976,2.3053,2.3839,8.3091,4.9608
1687.5000,8.3366,7.9232,7.0947,5.1454,-0.1199,6.2738,4.8776,2.0246,6.4388,-0.3732,5.4467,5.5346,1.9397,-0.2518,2.2093,2.1057,0.0280,7.8701,4.2800
1691.4062,6.9292,5.5858,5.3868,3.9183,-0.5949,3.3736,3.7212,2.1306,4.2250,-1.2357,3.9691,3.2693,-0.6736,-1.7687,1.4065,0.9843,-2.6355,5.7780,2.9327
1695.3125,5.3102,2.2577,3.1716,2.5911,-0.6601,0.7602,2.3846,2.5356,1.3971,-2.8472,1.4391,-0.1284,-3.3397,-2.9919,-0.1896,-0.8658,-4.8614,2.7671,1.3452
1699.2188,3.7264,-0.6464,1.2871,1.6375,-0.1630,-0.7721,1.8983,3.2189,-1.1478,-4.4867,-1.3062,-3.6093,-5.3354,-3.4235,-2.0258,-2.8694,-5.9636,-0.1849,-0.0640
1703.1250,2.0988,-2.1382,0.2502,1.2440,0.9255,-0.9009,2.8806,3.9945,-2.8234,-5.3489,-3.3189,-6.0871,-6.0828,-2.7197,-3.4893,-4.3444,-5.5717,-2.3059,-1.0058
1707.0312,0.2696,-2.1332,0.0569,1.2831,2.4936,0.1127,5.1452,4.6467,-3.5271,-5.0076,-3.9938,-6.9423,-5.4217,-0.9016,-4.2047,-4.8880,-3.8140,-3.3438,-1.3888
1710.9375,-1.6714,-1.3610,0.2583,1.4185,4.2604,1.5643,7.7267,5.0272,-3.5443,-3.7006,-3.3823,-6.2892,-3.7160,1.5649,-4.1913,-4.6159,-1.3182,-3.5920,-1.3224
1714.8438,-3.2602,-0.8241,0.2464,1.2823,5.7906,2.6339,9.3087,5.0711,-3.2944,-2.2436,-2.1655,-4.8526,-1.7001,3.9136,-3.8018,-4.0828,1.0221,-3.6386,-1.0512
1718.7500,-3.8663,-1.1816,-0.4060,0.6510,6.6074,2.7518,8.8457,4.7694,-3.0909,-1.5937,-1.2739,-3.5330,-0.1208,5.4070,-3.4938,-3.9203,2.4320,-4.0001,-0.8382
1722.6562,-3.1108,-2.4280,-1.7243,-0.4413,6.3951,1.8428,6.0875,4.1579,-3.0383,-2.2949,-1.3577,-2.9234,0.6220,5.6779,-3.5719,-4.4305,2.6026,-4.8482,-0.8456
1726.5625,-1.1969,-4.0000,-3.3262,-1.6997,5.1861,0.3399,1.7695,3.3388,-3.0796,-4.1324,-2.4266,-3.0641,0.6158,4.8788,-4.0415,-5.4059,1.7984,-5.9694,-1.0770
1730.4688,1.1050,-5.1631,-4.6193,-2.6882,3.3988,-1.0373,-2.6292,2.4925,-3.1131,-6.2183,-3.8820,-3.5531,0.2699,3.5430,-4.6425,-6.2948,0.6507,-6.9463,-1.4152
1734.3750,2.8441,-5.4003,-5.0938,-3.0334,1.6614,-1.6306,-5.4824,1.8264,-3.0848,-7.4801,-4.9184,-3.9010,-0.0359,2.2452,-5.0260,-6.5858,-0.2394,-7.4259,-1.7330
1738.2812,3.4135,-4.5942,-4.5641,-2.6197,0.5031,-1.1449,-5.7323,1.4682,-3.0048,-7.2714,-5.0232,-3.8641,-0.2293,1.2884,-4.9623,-6.1359,-0.6387,-7.2980,-1.9917
1742.1875,2.8708,-2.9777,-3.2432,-1.6647,0.0969,0.2490,-3.4060,1.3756,-2.9034,-5.7388,-4.2438,-3.5329,-0.5474,0.6166,-4.4607,-5.2126,-0.7445,-6.6877,-2.2508
1746.0938,1.8535,-0.9709,-1.6237,-0.6184,0.2196,2.0487,0.3392,1.3443,-2.7799,-3.7178,-3.0578,-3.1457,-1.2648,-0.0124,-3.7401,-4.2405,-0.9438,-5.7984,-2.5774
1750.0000,1.1524,0.9602,-0.2373,0.0683,0.4490,3.6975,3.7208,1.1305,-2.5893,-2.2240,-1.9697,-2.8103,-2.3720,-0.7527,-3.0770,-3.4622,-1.4604,-4.7467,-2.9345
1753.9062,1.2328,2.3764,0.5737,0.1709,0.4537,4.8309,5.1827,0.6059,-2.2780,-1.8580,-1.1537,-2.3788,-3.4813,-1.5217,-2.6273,-2.7853,-2.1595,-3.5280,-3.1615
1757.8125,2.0074,2.9085,0.7508,-0.2295,0.1703,5.3526,4.1696,-0.1687,-1.8431,-2.4962,-0.4171,-1.5997,-4.0717,-2.0950,-2.3333,-1.9378,-2.6621,-2.1450,-3.0974
1761.7188,2.9744,2.3308,0.4444,-0.8676,-0.2457,5.3274,1.3919,-1.0134,-1.3745,-3.4482,0.4943,-0.4372,-3.9143,-2.3517,-1.9747,-0.8080,-2.6833,-0.7915,-2.7738
1765.6250,3.5833,0.6609,-0.1666,-1.5286,-0.6323,4.8067,-1.5992,-1.7860,-1.0513,-3.9582,1.5062,0.7025,-3.3495,-2.4491,-1.3392,0.3141,-2.3256,0.0781,-2.5204
1769.5312,3.5541,-1.7795,-1.0291,-2.2276,-1.0122,3.7427,-3.3119,-2.5004,-1.0877,-3.7109,2.0772,1.0623,-3.1632,-2.7485,-0.4095,0.8144,-2.0777,-0.1005,-2.8573
1773.4375,2.9466,-4.4206,-2.2403,-3.1999,-1.6037,2.0661,-3.1742,-3.3076,-1.6498,-3.0161,1.4692,-0.0556,-4.0930,-3.5239,0.5496,0.1371,-2.4849,-1.6847,-4.1947
1777.3438,1.9836,-6.6248,-3.9268,-4.7021,-2.6418,-0.1412,-1.8423,-4.3531,-2.7812,-2.5723,-0.7331,-2.8024,-6.2826,-4.6760,1.0741,-1.7847,-3.7127,-4.5372,-6.5172
1781.2500,0.8149,-7.9187,-6.0691,-6.7616,-4.1562,-2.5336,-0.7709,-5.6279,-4.3704,-2.9856,-4.2226,-6.5498,-9.0770,-5.7020,0.7257,-4.3700,-5.3331,-7.9733,-9.2777
1785.1562,-0.5679,-8.1591,-8.3988,-9.0530,-5.8817,-4.5741,-1.3150,-6.9338,-6.1730,-4.3690,-8.0000,-10.1014,-11.3335,-5.9882,-0.6573,-6.6453,-6.5199,-11.0150,-11.6056
1789.0625,-2.2015,-7.5493,-10.4508,-10.9927,-7.3733,-5.7733,-3.9199,-7.9903,-7.8749,-6.2666,-10.8463,-12.2551,-12.0696,-5.2358,-2.8208,-7.7732,-6.5547,-12.8224,-12.7283
1792.9688,-3.9281,-6.5041,-11.7478,-11.9966,-8.2329,-5.9459,-7.8862,-8.5932,-9.1650,-7.9243,-11.9419,-12.3911,-11.0261,-3.7056,-5.1563,-7.5138,-5.3072,-13.0499,-12.3495
1796.8750,-5.2931,-5.4372,-12.0063,-11.7424,-8.2827,-5.3018,-11.8138,-8.6964,-9.7878,-8.7109,-11.2287,-10.7377,-8.7763,-2.0796,-6.9422,-6.3172,-3.3560,-11.9224,-10.7511
1800.7812,-5.6865,-4.5758,-11.2459,-10.2889,-7.5761,-4.3014,-14.3976,-8.3626,-9.5729,-8.4307,-9.3030,-8.1745,-6.3255,-1.0176,-7.6470,-4.9969,-1.6539,-10.0103,-8.5698
1804.6875,-4.6696,-3.8835,-9.7487,-8.0118,-6.2822,-3.3718,-15.0539,-7.6485,-8.4555,-7.3711,-6.9537,-5.7187,-4.4916,-0.7241,-7.1430,-4.2118,-0.9516,-7.8790,-6.4152
1808.5938,-2.2729,-3.1187,-7.9111,-5.4303,-4.5759,-2.6757,-14.0204,-6.5485,-6.5089,-6.1073,-4.6960,-4.0231,-3.4904,-0.8435,-5.7288,-4.1051,-1.3623,-5.8504,-4.5937
1812.5000,0.9399,-2.0004,-6.0855,-3.0376,-2.6320,-2.0893,-11.9623,-5.0662,-3.9811,-5.2107,-2.6167,-3.1690,-2.9771,-0.7667,-3.9599,-4.3208,-2.3438,-4.0087,-3.1001
1816.4062,4.0983,-0.4054,-4.4930,-1.2066,-0.7052,-1.3855,-9.4434,-3.3548,-1.2985,-5.0169,-0.5888,-2.8232,-2.4584,-0.1249,-2.3876,-4.3529,-3.0902,-2.3861,-1.8342
1820.3125,6.4087,1.4942,-3.2265,-0.1608,0.8287,-0.4774,-6.6668,-1.7853,1.0071,-5.5290,1.3719,-2.5906,-1.7366,0.8990,-1.3421,-3.9543,-3.0541,-1.1338,-0.8361
1824.2188,7.4683,3.2343,-2.3025,0.0371,1.5713,0.4614,-3.6358,-0.8381,2.4548,-6.4490,2.9254,-2.2989,-1.0584,1.6743,-0.8554,-3.3183,-2.2536,-0.5150,-0.3373
1828.1250,7.3499,4.2260,-1.7087,-0.4990,1.3127,1.0833,-0.5423,-0.8539,2.8023,-7.2942,3.5626,-2.0464,-0.8863,1.5691,-0.7356,-2.9200,-1.1914,-0.7129,-0.5887
1832.0312,6.4549,4.0329,-1.4208,-1.4842,0.2033,1.0921,1.9895,-1.8089,2.1668,-7.5662,2.9813,-2.0268,-1.4997,0.4155,-0.7236,-3.1525,-0.4838,-1.6153,-1.6063
1835.9375,5.2724,2.6256,-1.3992,-2.5319,-1.2696,0.4458,3.0626,-3.2813,1.0001,-6.9415,1.3919,-2.2987,-2.7394,-1.3436,-0.6340,-4.0225,-0.4758,-2.7641,-3.0485
1839.8438,4.1998,0.4715,-1.5865,-3.2854,-2.5219,-0.5980,2.0152,-4.6497,-0.0880,-5.4289,-0.4909,-2.6755,-4.0789,-2.9217,-0.4104,-5.1104,-1.0851,-3.5395,-4.3343
1843.7500,3.4926,-1.6197,-1.9119,-3.5479,-3.1770,-1.6112,-1.0588,-5.3972,-0.5767,-3.4081,-1.7816,-2.8008,-4.9480,-3.6707,-0.0873,-5.8056,-1.9318,-3.4709,-4.9345
1847.6562,3.2933,-2.8405,-2.2903,-3.3302,-3.2259,-2.2061,-5.1528,-5.3264,-0.2263,-1.4871,-1.8648,-2.3430,-5.0595,-3.4393,0.2939,-5.6444,-2.6100,-2.4672,-4.6385
1851.5625,3.6462,-2.7546,-2.6101,-2.7822,-2.9350,-2.2004,-8.7120,-4.5654,0.8734,-0.2093,-0.6644,-1.1750,-4.5136,-2.5829,0.7506,-4.5360,-2.8977,-0.8222,-3.6291
1855.4688,4.4560,-1.4941,-2.7242,-2.0640,-2.5898,-1.6614,-10.3407,-3.4061,2.3984,0.2452,1.4014,0.5592,-3.6466,-1.6635,1.3589,-2.7600,-2.7912,0.9869,-2.3347
1859.3750,5.4424,0.3262,-2.4762,-1.2563,-2.2830,-0.8345,-9.4593,-2.1251,3.9544,0.1697,3.6976,2.5026,-2.7741,-1.0844,2.1890,-0.7867,-2.4022,2.5505,-1.1823
1863.2812,6.1836,1.9308,-1.7719,-0.3760,-1.9092,-0.0170,-6.5485,-0.9121,5.2108,0.1531,5.6725,4.2167,-2.0282,-0.9125,3.2114,0.9377,-1.8401,3.6625,-0.4157
1867.1875,6.2842,2.7637,-0.6650,0.5325,-1.3470,0.5661,-2.8663,0.0899,5.9568,0.6908,7.0001,5.3191,-1.3775,-0.9629,4.2338,2.1123,-1.1745,4.2884,-0.0651
1871.0938,5.5951,2.7217,0.6095,1.3249,-0.6517,0.8463,0.1790,0.7362,6.0978,1.8265,7.5442,5.5903,-0.7620,-1.0230,4.9165,2.5875,-0.4698,4.4516,-0.0356
1875.0000,4.3344,2.1256,1.7003,1.7878,-0.0780,0.9327,1.6540,0.9176,5.6416,3.0708,7.2599,5.0368,-0.1985,-1.0197,4.8850,2.3241,0.1780,4.1640,-0.2113
1878.9062,3.0008,1.4704,2.2896,1.7620,0.0945,1.0560,1.4213,0.6673,4.7030,3.6803,6.1626,3.8953,0.2244,-1.0261,3.9076,1.3863,0.6621,3.4605,-0.5035
1882.8125,2.1030,1.1178,2.2463,1.2611,-0.2194,1.4335,0.0543,0.2167,3.5067,3.1374,4.3972,2.5637,0.4310,-1.1548,2.0645,-0.0149,0.9272,2.4762,-0.8439
1886.7188,1.8644,1.1117,1.6858,0.4801,-0.8420,2.1084,-1.5410,-0.1029,2.3478,1.5210,2.3177,1.4604,0.4239,-1.4619,-0.1891,-1.4866,1.0091,1.4602,-1.1775
1890.6250,2.0974,1.2103,0.8978,-0.3250,-1.4813,2.8594,-2.5717,-0.0845,1.4961,-0.4841,0.4567,0.8599,0.2686,-1.9332,-2.1310,-2.5086,1.0077,0.6778,-1.4837
1894.5312,2.3363,1.0927,0.1863,-0.9969,-1.9662,3.2748,-2.6646,0.1694,1.0864,-1.9645,-0.6556,0.7875,0.0294,-2.5187,-3.0447,-2.6031,1.0174,0.2644,-1.8016
1898.4375,2.1470,0.5940,-0.2778,-1.5504,-2.3559,2.9894,-1.9445,0.2781,1.0651,-2.3101,-0.7379,1.0394,-0.2631,-3.1361,-2.5539,-1.5573,1.0830,0.1523,-2.2089
1902.3438,1.4082,-0.1817,-0.5074,-2.1032,-2.8156,1.9578,-0.9085,-0.1509,1.2342,-1.5663,0.0833,1.3197,-0.5736,-3.6197,-0.8503,0.4207,1.2195,0.1403,-2.7422
1906.2500,0.3820,-0.9375,-0.6442,-2.7290,-3.3691,0.5674,-0.1896,-1.1993,1.3686,-0.3881,1.3135,1.4056,-0.8046,-3.6935,1.3272,2.7131,1.4613,0.0502,-3.3208
1910.1562,-0.4621,-1.3903,-0.8559,-3.3627,-3.7638,-0.5307,-0.3013,-2.5164,1.3301,0.3676,2.3197,1.2308,-0.8104,-3.0706,2.9981,4.4959,1.8623,-0.1598,-3.7559
1914.0625,-0.7399,-1.4622,-1.2512,-3.8400,-3.6096,-0.8018,-1.4331,-3.5198,1.1098,0.1497,2.6279,0.8400,-0.5140,-1.6747,3.4033,5.0593,2.4113,-0.4184,-3.8692
1917.9688,-0.3587,-1.3162,-1.8419,-4.0271,-2.7082,-0.1720,-3.3411,-3.7891,0.7931,-0.9882,2.1328,0.2781,-0.0368,0.1693,2.3928,4.1123,2.9303,-0.6683,-3.6383
1921.8750,0.4880,-1.2032,-2.5283,-3.9123,-1.2964,0.9235,-5.3688,-3.3481,0.4954,-2.4603,1.1229,-0.4717,0.3002,1.7790,0.5160,1.9370,3.0797,-0.9576,-3.2363
1925.7812,1.5035,-1.2199,-3.0901,-3.5620,0.0433,1.8585,-6.6219,-2.6018,0.3260,-3.5180,0.1214,-1.4257,0.1691,2.4593,-1.2589,-0.6886,2.5396,-1.3889,-2.8975
1929.6875,2.4874,-1.1635,-3.2028,-2.9771,0.7922,2.2905,-6.2787,-1.9636,0.3827,-3.6747,-0.3751,-2.4663,-0.4863,1.9692,-2.0630,-2.7900,1.2801,-1.9539,-2.6915
1933.5938,3.3974,-0.6269,-2.5362,-2.0035,0.9214,2.4326,-3.9549,-1.4728,0.7313,-2.9429,-0.1451,-3.2804,-1.3144,0.7703,-1.6020,-3.6131,-0.2902,-2.4220,-2.3977
1937.5000,4.2358,0.6783,-0.9536,-0.4355,0.9614,2.8766,0.0251,-0.7417,1.3275,-1.7773,0.6241,-3.4888,-1.7304,-0.1925,-0.3197,-2.9859,-1.4751,-2.4422,-1.6370
1941.4062,4.8773,2.5656,1.2688,1.7111,1.5886,4.0516,4.6038,0.6802,1.9155,-0.7997,1.3774,-2.9337,-1.3486,-0.1146,0.8475,-1.4453,-1.7183,-1.8500,-0.2252
1945.3125,5.0042,4.2534,3.3671,3.9589,2.9890,5.7068,8.2929,2.7809,2.0089,-0.4855,1.4115,-1.9278,-0.3829,1.0334,0.9897,-0.0288,-1.0410,-0.9612,1.4921
1949.2188,4.2411,4.6464,4.3006,5.4086,4.4939,6.8546,9.7309,4.8360,1.0507,-0.9772,0.2043,-1.2364,0.3169,2.3303,-0.2779,0.2150,-0.1515,-0.5722,2.6185
1953.1250,2.4211,2.9299,3.2265,5.1371,4.8404,6.3095,8.2724,5.7000,-1.2656,-2.0857,-2.2809,-1.7107,-0.2919,2.3890,-2.6138,-1.2195,-0.0686,-1.5615,2.1167
1957.0312,-0.2008,-0.8518,0.0110,2.7613,2.9685,3.5207,4.3191,4.5092,-4.6868,-3.4330,-5.4768,-3.7507,-2.7513,0.2491,-5.1456,-3.9665,-1.4463,-4.2869,-0.5406
1960.9375,-2.9558,-5.6212,-4.5448,-1.2027,-1.1604,-0.8711,-0.8100,1.3200,-8.3361,-4.6342,-8.3804,-6.9396,-6.6133,-3.8976,-6.9317,-6.9002,-4.0480,-8.1870,-4.8907
1964.8438,-5.0233,-9.6827,-8.9753,-5.4785,-6.3203,-5.1976,-5.4555,-2.7954,-11.0202,-5.4286,-9.9727,-10.1401,-10.5303,-8.6598,-7.4198,-8.6747,-6.7714,-11.9202,-9.5361
1968.7500,-5.8057,-11.5538,-11.8305,-8.6475,-10.5944,-7.6249,-8.3799,-6.3208,-11.7977,-5.7257,-9.7040,-12.0566,-12.9349,-12.1624,-6.6567,-8.4286,-8.2789,-14.0353,-12.7814
1972.6562,-5.1978,-10.7484,-12.4059,-9.8968,-12.4435,-7.1987,-9.3217,-8.1827,-10.4934,-5.5775,-7.7859,-11.9545,-12.9197,-13.1009,-5.1696,-6.2670,-7.8565,-13.7891,-13.5148
1976.5625,-3.5959,-8.0349,-11.0846,-9.4255,-11.5892,-4.3996,-9.0294,-8.3570,-7.8305,-5.1161,-5.1140,-10.0882,-10.7664,-11.4743,-3.6308,-3.2306,-5.9269,-11.5849,-11.8050
1980.4688,-1.6553,-4.9921,-9.0678,-8.2424,-9.1280,-0.8333,-8.7315,-7.7820,-5.0658,-4.4931,-2.8378,-7.5557,-7.7835,-8.5406,-2.5197,-0.7473,-3.8431,-8.7304,-8.8388
1984.3750,0.0443,-3.1217,-7.6439,-7.4790,-6.8025,1.7496,-9.3234,-7.6346,-3.3266,-3.8394,-1.8046,-5.6561,-5.5476,-6.0424,-1.9613,0.1282,-3.0627,-6.6549,-6.2280
1988.2812,1.2258,-3.0562,-7.4352,-7.6610,-5.9094,2.4660,-10.7357,-8.4739,-3.0465,-3.2529,-2.1799,-5.1513,-5.0218,-5.2058,-1.7870,-0.7551,-4.2320,-6.0880,-5.1071
1992.1875,1.9260,-4.3333,-8.0800,-8.4035,-6.5531,1.6963,-11.8718,-9.8336,-3.8338,-2.8016,-3.4460,-5.8869,-6.0826,-6.1264,-1.7274,-2.6459,-6.7760,-6.7189,-5.5622
1996.0938,2.3316,-5.8335,-8.5253,-8.7083,-7.6931,0.6461,-11.1920,-10.5329,-4.8229,-2.5274,-4.7519,-6.9872,-7.7046,-7.8641,-1.5949,-4.4016,-9.2572,-7.5219,-6.7066
2000.0000,2.5817,-6.5440,-7.7235,-7.6473,-7.9030,0.4217,-7.6451,-9.4775,-5.2446,-2.4355,-5.3849,-7.4586,-8.6313,-9.1023,-1.3527,-5.1723,-10.2502,-7.4836,-7.3053
2003.9062,2.6779,-6.1271,-5.2903,-4.9801,-6.3068,1.2736,-1.4299,-6.4091,-4.8318,-2.4726,-5.0838,-6.7890,-8.0853,-8.9070,-1.0635,-4.8254,-9.1535,-6.2271,-6.5291
2007.8125,2.5392,-4.9470,-1.7340,-1.3290,-3.1005,2.5061,5.8595,-2.1250,-3.8253,-2.5108,-4.0445,-5.1686,-6.1067,-7.1395,-0.7883,-3.8728,-6.4380,-4.1405,-4.3823
2011.7188,2.1341,-3.6183,1.8349,2.1592,0.6126,3.0640,11.8212,1.9360,-2.6469,-2.3687,-2.6772,-3.2464,-3.3928,-4.3651,-0.5203,-2.9985,-3.2406,-1.9999,-1.6025
2015.6250,1.5730,-2.4730,4.2925,4.4139,3.4889,2.3365,14.2858,4.4418,-1.5362,-1.8814,-1.3250,-1.6540,-0.8309,-1.4366,-0.1997,-2.5501,-0.6465,-0.4185,0.8293
2019.5312,1.0880,-1.3689,5.0180,4.9292,4.6521,0.6045,12.2853,4.7814,-0.4367,-1.0006,-0.1422,-0.6569,0.9411,0.9257,0.2105,-2.3573,0.8346,0.4665,2.2183
2023.4375,0.9172,0.0378,4.0783,3.8931,4.0385,-1.1589,6.4769,3.2317,0.8033,0.1281,0.8190,-0.1550,1.7101,2.3330,0.6443,-1.9931,1.3021,0.8885,2.4202
2027.3438,1.1775,1.8112,2.0587,1.9644,2.2654,-1.9518,-1.1559,0.6757,2.1153,1.1694,1.4341,0.0293,1.5843,2.6956,0.9090,-1.2579,1.0970,1.0805,1.7532
2031.2500,1.8077,3.4719,-0.2798,-0.0985,0.2074,-1.3839,-8.1341,-1.8762,3.0710,1.7072,1.4264,-0.1483,0.7735,2.1031,0.7433,-0.4998,0.3968,0.9789,0.6998
2035.1562,2.6066,4.2096,-2.2960,-1.7296,-1.4231,0.1367,-12.4239,-3.6745,3.0689,1.4206,0.4849,-0.9998,-0.5605,0.7542,-0.0592,-0.4932,-0.8967,0.2475,-0.3703
2039.0625,3.3258,3.4468,-3.6058,-2.6596,-2.2871,1.7480,-13.0718,-4.3858,1.7307,0.2401,-1.4854,-2.8439,-2.3072,-1.0440,-1.5196,-1.9171,-2.9226,-1.4059,-1.3069
2042.9688,3.7535,1.3337,-4.0845,-2.8721,-2.4022,2.7171,-10.3366,-4.0506,-0.7829,-1.6014,-4.1658,-5.6333,-4.3171,-2.8823,-3.4029,-4.7763,-5.5187,-3.8841,-2.1162
2046.8750,3.7532,-1.2247,-3.8214,-2.5127,-1.9985,2.8377,-5.3843,-2.9587,-3.7846,-3.6622,-6.8523,-8.7658,-6.3282,-4.3325,-5.2615,-8.1842,-8.0893,-6.6116,-2.8335
2050.7812,3.2682,-3.0788,-3.0753,-1.8152,-1.3624,2.4038,0.2190,-1.5221,-6.4124,-5.4840,-8.7423,-11.2565,-7.9792,-5.0889,-6.5952,-10.7093,-9.8249,-8.7837,-3.4390
2054.6875,2.3274,-3.5505,-2.2096,-1.0429,-0.7240,1.8503,4.9802,-0.1541,-8.0868,-6.7806,-9.3340,-12.1996,-8.9044,-5.0735,-7.0691,-11.1181,-10.1329,-9.7853,-3.8524
2058.5938,1.0678,-2.8563,-1.5725,-0.4162,-0.1943,1.3819,7.8006,0.8586,-8.7639,-7.5205,-8.7006,-11.2460,-8.8545,-4.4264,-6.6820,-9.0801,-8.9769,-9.4958,-3.9747
2062.5000,-0.2482,-1.9298,-1.3415,-0.0355,0.2464,0.8772,8.1526,1.4588,-8.8251,-7.8612,-7.4615,-8.8068,-7.7908,-3.3902,-5.7846,-5.4007,-6.8944,-8.2913,-3.7347
2066.4062,-1.2676,-1.7547,-1.4209,0.1513,0.6985,0.1106,6.1646,1.8280,-8.7041,-7.9849,-6.4463,-5.8560,-5.9233,-2.1839,-4.9127,-1.6318,-4.6911,-6.7739,-3.1224
2070.3125,-1.6545,-2.6678,-1.4859,0.2897,1.2385,-0.9192,2.6166,2.2604,-8.5315,-7.9442,-6.2308,-3.4500,-3.6815,-0.9571,-4.5077,0.7182,-3.0262,-5.4316,-2.2162
2074.2188,-1.2402,-4.1122,-1.1854,0.4864,1.8141,-1.8425,-1.2110,2.9503,-8.0516,-7.6230,-6.8101,-2.2361,-1.6114,0.1630,-4.6748,0.9209,-2.1465,-4.4439,-1.2019
2078.1250,-0.1370,-5.0147,-0.3956,0.6932,2.2177,-2.0950,-3.8934,3.8252,-6.8637,-6.8452,-7.6004,-2.2089,-0.2066,1.0087,-5.1274,-0.6890,-1.8915,-3.7174,-0.3556
2082.0312,1.2610,-4.5338,0.6377,0.6984,2.1777,-1.3063,-4.3792,4.5444,-4.8090,-5.5645,-7.7779,-2.8217,0.2772,1.3815,-5.3626,-3.0012,-1.9064,-3.0723,0.0382
2085.9375,2.4144,-2.6764,1.3757,0.2482,1.5220,0.3728,-2.4826,4.6729,-2.2275,-4.0071,-6.7708,-3.3569,-0.0688,1.1471,-4.9769,-4.7746,-1.8884,-2.4262,-0.1842
2089.8438,2.8574,-0.3790,1.2532,-0.7822,0.2952,2.2436,0.9152,3.9173,0.0992,-2.6581,-4.6264,-3.3390,-0.8577,0.3371,-3.9302,-5.2551,-1.7284,-1.8633,-0.9598
2093.7500,2.3954,0.9992,-0.0148,-2.2872,-1.2637,3.3735,4.1386,2.2658,1.2934,-2.0689,-2.0418,-2.7716,-1.6249,-0.8444,-2.5931,-4.4519,-1.5132,-1.5789,-2.0010
2097.6562,1.1832,0.4486,-2.2633,-3.9723,-2.8745,3.0700,5.4275,-0.0463,0.8146,-2.5778,-0.0286,-2.0944,-2.1028,-2.1333,-1.5428,-2.9933,-1.4435,-1.7609,-2.9310
2101.5625,-0.3544,-2.1233,-4.9315,-5.5016,-4.3772,1.2418,3.7831,-2.6903,-1.2654,-4.1004,0.6100,-1.9000,-2.3763,-3.3572,-1.2293,-1.7166,-1.7324,-2.4818,-3.4807
2105.4688,-1.7184,-5.8475,-7.3005,-6.6408,-5.7668,-1.5495,-0.4800,-5.3795,-4.2849,-6.1162,-0.2971,-2.5715,-2.7931,-4.4959,-1.7177,-1.2463,-2.5073,-3.6392,-3.6160
2109.3750,-2.5541,-9.3615,-8.7828,-7.2982,-7.0647,-4.3559,-5.8055,-7.8869,-7.2838,-7.8743,-2.1993,-4.0266,-3.6629,-5.5907,-2.6597,-1.7490,-3.7173,-4.9540,-3.5014
2113.2812,-2.7914,-11.4903,-9.1277,-7.4597,-8.1374,-6.2712,-10.1133,-9.9683,-9.4012,-8.7131,-4.1210,-5.7025,-4.9349,-6.5687,-3.4962,-2.9140,-5.0664,-6.0328,-3.3217
2117.1875,-2.6483,-11.7589,-8.4737,-7.1028,-8.6361,-6.8023,-11.8216,-11.3077,-10.1909,-8.3303,-5.1766,-6.7916,-6.0906,-7.1366,-3.7542,-4.0964,-6.0346,-6.4967,-3.0979
2121.0938,-2.4998,-10.4960,-7.2578,-6.1882,-8.1499,-6.0285,-10.6395,-11.5900,-9.7254,-6.8724,-5.0133,-6.6181,-6.3623,-6.8614,-3.2537,-4.5427,-6.0351,-6.1521,-2.6486
2125.0000,-2.6729,-8.5388,-6.0346,-4.7499,-6.4945,-4.5101,-7.6877,-10.6869,-8.4726,-4.8233,-3.9378,-4.9715,-5.1716,-5.4150,-2.1252,-3.6451,-4.6789,-5.1261,-1.7451
2128.9062,-3.2612,-6.7490,-5.2726,-3.0016,-3.9271,-3.0165,-4.8692,-8.8210,-7.0293,-2.7814,-2.6711,-2.2311,-2.5199,-2.8269,-0.6721,-1.1918,-2.0196,-3.8696,-0.3555
2132.8125,-4.0468,-5.6110,-5.1864,-1.3449,-1.1081,-2.1985,-3.8283,-6.5522,-5.8448,-1.2548,-1.8919,0.7840,0.9269,0.4395,0.7929,2.4527,1.3814,-2.9804,1.2120
2136.7188,-4.5790,-5.0931,-5.6621,-0.2283,1.2005,-2.3267,-5.0793,-4.5494,-5.0622,-0.5600,-1.8523,3.1626,4.1303,3.6564,2.0233,6.3474,4.6455,-2.9090,2.4020
2140.6250,-4.3903,-4.7927,-6.3165,0.0707,2.5167,-3.1858,-7.7840,-3.2671,-4.5407,-0.8186,-2.2868,4.2746,6.1798,6.1477,2.8145,9.2377,6.9462,-3.7123,2.7077
2144.5312,-3.2585,-4.2499,-6.6898,-0.4090,2.8481,-4.1669,-10.2823,-2.7361,-4.0334,-1.9864,-2.6521,3.9873,6.7009,7.5567,2.9558,10.0443,7.8574,-5.0214,1.9784
2148.4375,-1.3891,-3.2506,-6.4973,-1.3553,2.5965,-4.5367,-11.0412,-2.6137,-3.4141,-3.8600,-2.5286,2.6338,5.9374,7.9090,2.2582,8.3706,7.4839,-6.2704,0.5185
2152.3438,0.5933,-1.9706,-5.8163,-2.3994,2.2322,-3.7941,-9.4632,-2.4632,-2.8176,-6.0674,-1.9231,0.7741,4.4849,7.4619,0.6729,4.7449,6.3095,-7.0583,-1.1099
2156.2500,1.8665,-0.9028,-5.0867,-3.3647,1.9659,-1.9686,-6.1150,-2.0773,-2.6072,-8.1036,-1.2892,-1.1049,2.8707,6.4711,-1.5821,0.4082,4.8710,-7.4112,-2.4624
2160.1562,1.7605,-0.6200,-4.8994,-4.3690,1.6336,0.2910,-2.3081,-1.6282,-3.1817,-9.4595,-1.2624,-2.7921,1.2520,5.0415,-4.0107,-3.2845,3.4624,-7.7622,-3.5112
2164.0625,0.0725,-1.4979,-5.6711,-5.7009,0.8503,1.9224,0.6429,-1.5461,-4.7318,-9.8178,-2.2801,-4.3654,-0.5905,3.1453,-5.9990,-5.5237,2.0386,-8.6471,-4.6523
2167.9688,-2.8138,-3.5307,-7.3837,-7.5445,-0.6943,1.9044,2.0160,-2.2077,-7.0886,-9.2101,-4.3104,-6.0364,-2.9888,0.7602,-7.0812,-6.3673,0.3510,-10.3060,-6.3947
2171.8750,-6.0668,-6.3144,-9.5428,-9.7394,-2.9948,-0.2247,1.8219,-3.6358,-9.7489,-8.0192,-6.8337,-7.9278,-6.0418,-1.9910,-7.1531,-6.5177,-1.7919,-12.4493,-8.9284
2175.7812,-8.7344,-9.1800,-11.3823,-11.7476,-5.6783,-4.0331,0.5278,-5.3996,-12.0532,-6.7937,-9.0623,-9.9105,-9.4131,-4.8013,-6.4943,-6.6989,-4.3049,-14.3474,-11.8575
2179.6875,-10.0942,-11.3980,-12.2017,-12.8666,-8.1365,-8.2438,-1.3332,-6.7741,-13.4112,-5.9651,-10.2656,-11.5865,-12.3941,-7.2535,-5.5762,-7.0635,-6.7712,-15.1925,-14.2953
2183.5938,-9.8607,-12.3638,-11.6518,-12.5747,-9.7423,-11.1944,-3.3542,-7.0703,-13.4589,-5.6338,-10.0355,-12.4274,-14.1974,-8.9465,-4.7781,-7.0549,-8.5792,-14.5155,-15.2881
2187.5000,-8.1783,-11.7224,-9.8348,-10.8098,-10.0449,-11.5312,-5.1709,-5.9637,-12.1032,-5.5557,-8.3967,-12.0118,-14.3178,-9.6042,-4.1867,-5.8508,-9.1808,-12.4171,-14.3298
2191.4062,-5.4541,-9.4412,-7.2041,-8.0288,-8.9007,-8.8256,-6.3001,-3.6660,-9.4892,-5.3335,-5.7533,-10.2548,-12.7777,-9.1361,-3.6027,-3.0954,-8.3554,-9.4954,-11.6635
2195.3125,-2.1635,-5.8513,-4.3589,-5.0236,-6.5387,-3.8102,-6.1793,-0.8741,-5.9582,-4.6827,-2.7305,-7.5193,-10.1404,-7.6628,-2.7330,0.6050,-6.3597,-6.5425,-8.1964
2199.2188,1.2584,-1.6409,-1.8569,-2.6010,-3.5538,1.8957,-4.5042,1.4735,-2.0216,-3.5995,0.0232,-4.5368,-7.2886,-5.5198,-1.4320,3.8243,-3.8831,-4.1950,-5.0758
2203.1250,4.4143,2.2535,-0.1091,-1.2915,-0.7911,6.4558,-1.6521,2.5346,1.6830,-2.3339,2.0220,-2.1445,-5.0722,-3.2213,0.1703,5.0778,-1.7986,-2.7244,-3.1679
2207.0312,6.9008,4.8948,0.6550,-1.2096,0.9064,8.5657,1.1959,1.8747,4.5092,-1.2063,3.0763,-0.9361,-3.9787,-1.3507,1.7292,3.7430,-0.7915,-2.0400,-2.7167
2210.9375,8.3198,5.6822,0.4024,-2.0927,1.0326,7.9289,2.4834,-0.3544,5.9949,-0.4086,3.3350,-0.9897,-3.9698,-0.3714,2.8849,0.5385,-1.0293,-1.8519,-3.3426
2214.8438,8.3866,4.6246,-0.6850,-3.4591,-0.3121,5.2530,1.1246,-3.4406,6.0461,0.0775,3.2024,-1.8213,-4.5529,-0.4258,3.4650,-2.7863,-2.0555,-1.8743,-4.3413
2218.7500,7.0881,2.3772,-2.2180,-4.7906,-2.3926,1.8148,-2.7232,-6.3439,4.9908,0.4119,3.1438,-2.6172,-5.0531,-1.2352,3.5651,-4.3928,-3.0047,-1.9579,-5.0848
2222.6562,4.7789,-0.0319,-3.6760,-5.6705,-4.1244,-1.1435,-7.5036,-8.0645,3.4382,0.7518,3.4548,-2.6466,-4.9558,-2.1912,3.4685,-3.3637,-3.0670,-2.1045,-5.2993
2226.5625,2.1278,-1.6690,-4.5614,-5.8557,-4.5643,-2.8654,-10.9267,-8.0093,2.0024,1.1488,4.1130,-1.6477,-4.1540,-2.6283,3.4668,-0.1755,-1.9626,-2.3847,-5.0950
2230.4688,-0.0898,-2.0984,-4.5721,-5.3008,-3.3586,-3.1892,-11.1325,-6.2069,1.0513,1.5508,4.8033,0.0263,-2.9771,-2.1535,3.6935,3.6252,-0.1478,-2.8204,-4.7817
2234.3750,-1.2635,-1.4854,-3.7050,-4.1541,-0.9061,-2.3532,-7.6815,-3.2778,0.6312,1.8812,5.1151,1.5893,-1.9938,-0.8587,4.0611,6.3020,1.4008,-3.3013,-4.6202
2238.2812,-1.1558,-0.3479,-2.2322,-2.7296,1.8487,-0.7072,-1.7782,-0.1737,0.5982,2.1100,4.7991,2.2353,-1.7013,0.7061,4.3238,6.8079,1.7229,-3.5899,-4.6727
2242.1875,0.0482,0.8531,-0.5708,-1.4422,3.8680,1.4451,4.3952,2.1976,0.8346,2.2564,3.9277,1.5568,-2.2724,1.7901,4.2174,5.1691,0.4274,-3.4231,-4.8277
2246.0938,1.8548,1.9872,0.8723,-0.6975,4.4711,3.8027,8.8050,3.2995,1.3726,2.3274,2.8574,-0.2636,-3.4932,1.8016,3.5968,2.2364,-2.0716,-2.6711,-4.9508
2250.0000,3.6737,3.1964,1.8006,-0.7540,3.5686,5.9382,10.4707,3.1157,2.3219,2.2605,2.0213,-2.5770,-4.9065,0.5900,2.5058,-0.9269,-4.7792,-1.4637,-5.0308
2253.9062,5.0274,4.5766,2.0532,-1.6092,1.6156,7.2864,9.6655,2.0814,3.6642,1.9266,1.6861,-4.6165,-6.0592,-1.4770,1.1532,-3.5849,-6.6601,-0.1919,-5.2047
2257.8125,5.6839,5.8828,1.5953,-2.9679,-0.6301,7.3527,7.4306,0.8524,5.0997,1.2027,1.8291,-5.8549,-6.7037,-3.6654,-0.1818,-5.4995,-7.1624,0.6546,-5.6379
2261.7188,5.6841,6.5478,0.5314,-4.3292,-2.3981,6.0477,4.8495,0.0224,6.1077,0.0599,2.2023,-6.1773,-6.8487,-5.1751,-1.2622,-6.7432,-6.4160,0.7515,-6.3421
2265.6250,5.2764,6.0630,-0.8530,-5.1686,-3.1356,3.8983,2.5962,-0.0946,6.2292,-1.3899,2.5253,-5.8040,-6.6611,-5.4560,-1.9675,-7.4034,-5.0241,0.1640,-7.0666
2269.5312,4.7966,4.4689,-2.0803,-5.1398,-2.6401,1.9173,0.9629,0.4581,5.3957,-2.9098,2.6706,-5.0560,-6.3070,-4.4121,-2.2971,-7.4354,-3.6276,-0.6214,-7.3575
2273.4375,4.5340,2.5588,-2.5736,-4.1977,-1.0957,1.1318,0.1594,1.3605,4.0671,-4.1953,2.7241,-4.1314,-5.8393,-2.4199,-2.3100,-6.7446,-2.5451,-0.9093,-6.7708
2277.3438,4.6286,1.5613,-1.8716,-2.5821,0.9898,2.0209,0.4836,2.2098,3.0436,-4.9378,2.8969,-3.0293,-5.1886,-0.1569,-2.0506,-5.3687,-1.6987,-0.1586,-5.1215
2281.2500,5.0357,2.4283,0.1197,-0.6729,2.9602,4.2181,2.1367,2.7383,3.0336,-4.8914,3.3611,-1.6413,-4.2382,1.6912,-1.5193,-3.5698,-0.8194,1.7045,-2.6194
2285.1562,5.5712,5.1706,2.9863,1.1968,4.2661,6.6908,4.8313,2.9486,4.2295,-3.9559,4.1163,0.0763,-2.9189,2.7187,-0.7172,-1.7476,0.2617,4.2103,0.1959
2289.0625,6.0143,8.7040,5.8964,2.8628,4.7033,8.3057,7.5952,3.0932,6.1548,-2.2759,4.9557,1.9805,-1.2652,2.9547,0.2614,-0.2501,1.4583,6.5604,2.6897
2292.9688,6.2134,11.3618,7.9186,4.3231,4.4955,8.4341,9.0843,3.5030,7.8834,-0.2992,5.5386,3.7491,0.5855,2.8013,1.1684,0.7630,2.4969,8.0156,4.4068
2296.8750,6.1339,11.7923,8.4283,5.6229,4.1453,7.2227,8.3228,4.3567,8.5085,1.2906,5.5252,5.0131,2.4330,2.7822,1.6480,1.3082,3.1250,8.2377,5.2377
2300.7812,5.8257,9.6929,7.3934,6.7201,4.1153,5.3857,5.4117,5.5280,7.5983,1.8114,4.7237,5.5315,4.0641,3.2313,1.3996,1.4575,3.2851,7.4035,5.3966
2304.6875,5.3448,5.9336,5.3827,7.4309,4.5269,3.6990,1.6714,6.6120,5.3938,0.9151,3.2051,5.3045,5.2941,4.0945,0.3769,1.2332,3.1306,6.0482,5.2423
2308.5938,4.7006,2.0219,3.2846,7.4926,5.0739,2.5605,-0.9761,7.1237,2.6687,-1.1649,1.3425,4.5619,5.9967,4.9611,-1.1113,0.6114,2.8905,4.7582,5.0560
2312.5000,3.8806,-0.7221,1.8825,6.7032,5.2150,1.9025,-1.0726,6.7497,0.3565,-3.6375,-0.2685,3.6365,6.1196,5.3055,-2.4979,-0.3862,2.6986,3.8959,4.8981
2316.4062,2.9414,-1.7562,1.5059,5.0474,4.5196,1.4610,1.5063,5.4969,-0.8481,-5.5009,-1.0231,2.7919,5.6823,4.7925,-3.2293,-1.6156,2.5116,3.4970,4.6103
2320.3125,2.0862,-1.3529,1.9310,2.7358,2.9399,1.1386,5.4226,3.6519,-0.7289,-6.0514,-0.5967,2.1059,4.7563,3.4634,-3.0687,-2.8314,2.1649,3.3587,3.9442
2324.2188,1.6392,-0.1646,2.5678,0.1501,0.8351,1.1482,8.5779,1.5970,0.4444,-5.2630,0.8313,1.4774,3.4416,1.7000,-2.2366,-3.7891,1.5160,3.2284,2.7396
2328.1250,1.8921,1.2951,2.8205,-2.2586,-1.2393,1.8181,9.2281,-0.3725,2.0978,-3.7872,2.5830,0.7587,1.8626,0.0123,-1.2815,-4.3333,0.5791,2.9733,1.0617
2332.0312,2.8982,2.8755,2.4206,-4.0592,-2.8108,3.2257,6.8651,-2.1005,3.6167,-2.5481,3.7831,-0.0643,0.1952,-1.1996,-0.7397,-4.3882,-0.4257,2.6495,-0.7630
2335.9375,4.3539,4.6132,1.5613,-4.9006,-3.6423,4.9751,2.4062,-3.4753,4.5829,-2.1663,3.8423,-0.7611,-1.2970,-1.7620,-0.7844,-3.8724,-1.1301,2.4635,-2.2262
2339.8438,5.6779,6.3868,0.7707,-4.5638,-3.6932,6.3329,-2.3389,-4.3046,4.9091,-2.5685,2.8480,-0.9074,-2.2660,-1.6828,-1.0912,-2.6519,-1.1552,2.6687,-2.8067
2343.7500,6.2807,7.7485,0.6063,-3.0341,-2.9869,6.6586,-5.5598,-4.3070,4.8357,-3.0313,1.5910,-0.0970,-2.3646,-1.0292,-1.0176,-0.6277,-0.2787,3.4480,-2.1695
2347.6562,5.8865,8.1144,1.3380,-0.5735,-1.5482,5.8296,-6.2173,-3.2763,4.7936,-2.6400,1.1478,1.7869,-1.4032,0.1421,-0.0037,2.0642,1.4248,4.8195,-0.3221
2351.5625,4.7144,7.1815,2.7892,2.2703,0.5155,4.3490,-4.3738,-1.3148,5.1784,-0.8803,2.2262,4.4031,0.4953,1.7382,2.0421,4.8944,3.5290,6.5890,2.3397
2355.4688,3.3945,5.2329,4.4097,4.7817,2.8724,3.0469,-1.0445,1.0561,6.1222,1.9961,4.6687,7.0031,2.8461,3.5212,4.6011,6.9998,5.3356,8.3638,5.1314
2359.3750,2.6461,3.0584,5.5277,6.3124,4.9377,2.5721,2.2663,3.0436,7.3727,5.0447,7.4456,8.7043,4.9225,5.0619,6.7348,7.5008,6.0991,9.6409,7.2989
2363.2812,2.8925,1.5053,5.6436,6.5330,6.0601,3.0117,4.1238,3.9437,8.3618,7.0876,9.1806,8.8569,6.0186,5.8513,7.5078,5.9276,5.3341,9.9569,8.2751
2367.1875,4.0296,0.9657,4.6189,5.5605,5.8494,3.8731,3.6472,3.5018,8.4607,7.2894,8.9111,7.3207,5.7403,5.5362,6.4254,2.5008,3.0759,9.0587,7.8669
2371.0938,5.4782,1.1660,2.6922,3.8764,4.4296,4.4056,0.8087,2.0343,7.3185,5.5470,6.6271,4.5225,4.1820,4.1430,3.6763,-1.9140,-0.0506,7.0261,6.2967
2375.0000,6.4883,1.4183,0.3527,2.0808,2.4213,4.0260,-3.5355,0.2226,5.1110,2.5204,3.2709,1.2820,1.9047,2.1324,0.0875,-6.1561,-3.0214,4.2905,4.0949
2378.9062,6.5195,1.1521,-1.8364,0.6296,0.6362,2.5841,-7.9281,-1.2891,2.5494,-0.6631,0.2175,-1.4864,-0.2714,0.2301,-3.1716,-9.2149,-4.8004,1.5275,1.9100
2382.8125,5.4887,0.3393,-3.3845,-0.2919,-0.3296,0.3607,-10.8510,-2.2262,0.6054,-2.8655,-1.4301,-3.0582,-1.5601,-0.8804,-5.0057,-10.5297,-4.7466,-0.5468,0.3240
2386.7188,3.7606,-0.5029,-3.9716,-0.7099,-0.3461,-2.1239,-11.3330,-2.7331,0.0593,-3.3622,-1.3199,-3.0800,-1.4676,-0.8353,-4.7864,-10.0378,-2.8472,-1.4111,-0.2692
2390.6250,1.9058,-0.7441,-3.5229,-0.7083,0.2979,-4.3291,-9.3542,-3.1339,1.0797,-2.1044,0.1170,-1.6329,0.0654,0.3008,-2.5987,-8.0424,0.3228,-0.9322,0.2744
2394.5312,0.3808,-0.2044,-2.2800,-0.3282,1.1672,-5.8420,-5.8402,-3.6001,3.0542,0.2419,2.0025,0.7909,2.6599,2.1212,0.7377,-5.0601,3.8665,0.5461,1.8167
2398.4375,-0.6878,0.5565,-0.8267,0.3906,1.9597,-6.4620,-2.2440,-3.9792,4.7795,2.4886,3.4410,3.3873,5.6091,4.0722,3.9092,-1.7416,6.9033,2.2625,3.9263
2402.3438,-1.4997,0.4585,0.0153,1.2816,2.6017,-6.2682,0.0746,-3.9041,4.9577,3.3259,3.7989,5.2306,8.0680,5.6387,5.5691,1.1779,8.8188,3.2572,5.9252
2406.2500,-2.3779,-1.4749,-0.5277,1.9866,3.1359,-5.6488,0.3687,-3.0911,2.7913,1.8407,2.7786,5.5586,9.2866,6.4507,4.8811,3.0075,9.3554,2.7155,7.0467
2410.1562,-3.4975,-5.4554,-2.7812,2.0719,3.5458,-5.2014,-1.2826,-1.5961,-1.5913,-2.0209,0.4023,4.0875,8.8406,6.3206,1.9241,3.3459,8.5716,0.3323,6.7050
2414.0625,-4.7141,-10.6302,-6.3079,1.2952,3.6902,-5.4427,-4.0851,0.1609,-7.0847,-7.2685,-2.9702,1.2079,6.7892,5.2566,-2.2580,2.3217,6.7529,-3.4579,4.7814
2417.9688,-5.5995,-15.3319,-9.9104,-0.1599,3.4021,-6.4252,-6.8365,1.6142,-11.9805,-12.1220,-6.6008,-2.0866,3.6856,3.4732,-6.0448,0.6268,4.3319,-7.5326,1.7628
2421.8750,-5.6695,-17.7606,-12.0558,-1.6864,2.6507,-7.5160,-8.2931,2.3517,-14.6275,-14.6840,-9.4499,-4.5753,0.4007,1.3708,-7.9360,-0.7735,1.8163,-10.4632,-1.3942
2425.7812,-4.6740,-16.7641,-11.5825,-2.5554,1.6037,-7.5900,-7.5326,2.2866,-14.1042,-13.7744,-10.4905,-5.3514,-2.1950,-0.5602,-7.2359,-1.1461,-0.3061,-11.1107,-3.6630
2429.6875,-2.7782,-12.3549,-8.3415,-2.3574,0.5234,-5.6472,-4.2980,1.6103,-10.6146,-9.5327,-9.1953,-4.2572,-3.5642,-1.9071,-4.3770,-0.4133,-1.6951,-9.1746,-4.4239
2433.5938,-0.5210,-5.7517,-3.3933,-1.2937,-0.4187,-1.5396,0.7555,0.6020,-5.4281,-3.4607,-5.9261,-1.9710,-3.6938,-2.4995,-0.7040,0.7972,-2.2716,-5.4065,-3.7599
2437.5000,1.4330,1.0511,1.4088,-0.0957,-1.2367,3.6830,6.0816,-0.5312,-0.3811,2.1697,-1.9249,0.3207,-3.0442,-2.4679,2.1765,1.5378,-2.2465,-1.3367,-2.3861
2441.4062,2.6116,6.0027,4.2806,0.4153,-2.0354,8.1345,9.6930,-1.6660,2.8495,5.2895,1.1925,1.4947,-2.2824,-2.1418,3.1417,1.1307,-2.0195,1.3951,-1.2386
2445.3125,2.9409,7.7306,4.3705,-0.1413,-2.8001,10.0453,9.9934,-2.6526,3.3914,4.9283,2.2124,1.0029,-1.9360,-1.8385,2.0102,-0.4211,-1.9843,1.7908,-0.9545
2449.2188,2.7245,6.0286,2.1563,-1.4297,-3.2672,8.7666,6.6377,-3.2278,1.4702,1.6037,0.9301,-0.9350,-2.1551,-1.6817,-0.4935,-2.4663,-2.3410,-0.0512,-1.5462
2453.1250,2.4206,1.9115,-0.8491,-2.5797,-3.0348,5.1862,0.9016,-3.0783,-1.7611,-2.9713,-1.7781,-3.5269,-2.7026,-1.5738,-3.1952,-4.1441,-3.0213,-3.0161,-2.4596
2457.0312,2.3600,-2.7999,-2.9235,-2.7287,-1.8818,1.2542,-4.7839,-2.0563,-4.7641,-6.7045,-4.4686,-5.8415,-3.1661,-1.3461,-5.0603,-4.9222,-3.7706,-5.5508,-2.9693
2460.9375,2.5776,-6.2243,-3.0410,-1.5914,-0.0740,-1.1181,-8.0049,-0.3952,-6.2819,-8.0614,-5.9180,-7.2326,-3.2593,-0.9757,-5.6072,-4.8734,-4.3315,-6.4421,-2.6624
2464.8438,2.8438,-7.1989,-1.3711,0.3012,1.6060,-1.1097,-7.6254,1.2607,-5.8435,-6.6913,-5.7184,-7.5538,-3.0283,-0.7009,-4.9807,-4.5365,-4.6128,-5.4015,-1.7162
2468.7500,2.8485,-5.7454,0.8744,1.8512,2.1978,0.6474,-4.3756,2.0931,-3.9036,-3.4859,-4.3634,-7.1124,-2.8409,-0.9271,-3.7360,-4.4980,-4.7394,-3.1693,-0.8070
2472.6562,2.3980,-2.9894,2.1304,1.9833,1.1013,2.5819,-0.3763,1.5126,-1.5811,-0.0895,-2.8398,-6.4482,-3.1596,-1.9627,-2.5149,-5.0033,-4.9518,-1.1093,-0.7166
2476.5625,1.4972,-0.5572,1.3093,0.2305,-1.5231,3.1954,2.1326,-0.5048,-0.1309,1.8756,-2.0332,-6.0735,-4.2334,-3.7567,-1.7930,-5.8476,-5.4225,-0.5185,-1.8770
2480.4688,0.2886,0.2501,-1.6655,-3.0158,-4.7687,1.9131,2.0640,-3.3569,-0.3896,1.5096,-2.3130,-6.2825,-5.8945,-5.8280,-1.7758,-6.5703,-6.1082,-2.0051,-4.1174
2484.3750,-1.0698,-0.9257,-5.8686,-6.7131,-7.4355,-0.7190,-0.0401,-6.0823,-2.4357,-1.0354,-3.4913,-7.0717,-7.5961,-7.4647,-2.4150,-6.7683,-6.7395,-5.2314,-6.7466
2488.2812,-2.4751,-3.4159,-9.8752,-9.6916,-8.6590,-3.5151,-2.5899,-7.8154,-5.6033,-4.7081,-5.0815,-8.1717,-8.6870,-8.0954,-3.4784,-6.3020,-6.9670,-9.1224,-8.9088
2492.1875,-3.8490,-5.9991,-12.4615,-11.1983,-8.3447,-5.4070,-4.1369,-8.1821,-8.8264,-8.0884,-6.6293,-9.1717,-8.7774,-7.6139,-4.6323,-5.2939,-6.5869,-12.4066,-10.0052
2496.0938,-5.0582,-7.6379,-13.1464,-11.1860,-7.1563,-5.9788,-4.3371,-7.4354,-11.1431,-10.0339,-7.9050,-9.7018,-7.9812,-6.4544,-5.5364,-3.9919,-5.7080,-14.2085,-9.9594
2500.0000,-5.8909,-8.0383,-12.3323,-10.2384,-6.0900,-5.5216,-4.0519,-6.2796,-12.1152,-10.1480,-8.9015,-9.6134,-6.8814,-5.3623,-5.9502,-2.6474,-4.7494,-14.4044,-9.2046
2503.9062,-6.1493,-7.7172,-11.0170,-9.2164,-5.9046,-4.7099,-4.5852,-5.5008,-11.9646,-8.8685,-9.7166,-9.0731,-6.2222,-4.9896,-5.8263,-1.4929,-4.2494,-13.5897,-8.4264
2507.8125,-5.8070,-7.5763,-10.2563,-8.8262,-6.7390,-4.2023,-6.6543,-5.6015,-11.3763,-7.1623,-10.4416,-8.5041,-6.5000,-5.5520,-5.3336,-0.7815,-4.5814,-12.7030,-8.2121
2511.7188,-5.1037,-8.2781,-10.6476,-9.3157,-8.1048,-4.4049,-9.8364,-6.6077,-11.0857,-5.9981,-11.1132,-8.3845,-7.6953,-6.7423,-4.7806,-0.7836,-5.7390,-12.5239,-8.7878
2515.6250,-4.4718,-9.8228,-12.0762,-10.4137,-9.2046,-5.4271,-12.8432,-8.1090,-11.4843,-5.8715,-11.7157,-8.9980,-9.3062,-7.9384,-4.4682,-1.6869,-7.3222,-13.3074,-9.9566
2519.5312,-4.3074,-11.5735,-13.8225,-11.5042,-9.3600,-7.1094,-14.3677,-9.4760,-12.4540,-6.6162,-12.1906,-10.2778,-10.6597,-8.5679,-4.5532,-3.4559,-8.7400,-14.7307,-11.2458
2523.4375,-4.7284,-12.6863,-14.9590,-11.9386,-8.3128,-9.0376,-13.8686,-10.1372,-13.5049,-7.5812,-12.4453,-11.8359,-11.2987,-8.4058,-4.9992,-5.7701,-9.5101,-16.1487,-12.1621
2527.3438,-5.4913,-12.6565,-14.8329,-11.3415,-6.2830,-10.5902,-11.7703,-9.7959,-14.1128,-8.0557,-12.3826,-13.1570,-11.2000,-7.6406,-5.6310,-8.1114,-9.4780,-16.9858,-12.4227
2531.2500,-6.1405,-11.6425,-13.3998,-9.7838,-3.8165,-11.1339,-9.0275,-8.5179,-14.0394,-7.6977,-11.9597,-13.8373,-10.6968,-6.6960,-6.2342,-9.9590,-8.8266,-17.0320,-12.0541
2535.1562,-6.3015,-10.3865,-11.2500,-7.7580,-1.5495,-10.3715,-6.4642,-6.6815,-13.4463,-6.7283,-11.2440,-13.7326,-10.1837,-5.9473,-6.6255,-10.9623,-7.8931,-16.4884,-11.3354
2539.0625,-5.9227,-9.7965,-9.3243,-5.9733,-0.0065,-8.6510,-4.3984,-4.8285,-12.7513,-5.7939,-10.4070,-12.9533,-9.8304,-5.5207,-6.6612,-10.9909,-6.9334,-15.7722,-10.6389
2542.9688,-5.2998,-10.4418,-8.4654,-5.0617,0.5134,-6.9541,-2.7758,-3.4791,-12.3401,-5.5808,-9.6359,-11.7533,-9.5105,-5.2894,-6.2243,-10.0700,-6.0036,-15.2337,-10.2637
2546.8750,-4.8694,-12.2378,-9.0297,-5.3261,-0.0291,-6.4362,-1.6043,-2.9725,-12.3286,-6.4030,-9.0179,-10.4091,-8.9835,-5.0389,-5.2530,-8.3055,-5.0298,-14.9758,-10.3363
2550.7812,-4.9177,-14.4738,-10.7425,-6.6355,-1.4277,-7.7179,-1.2568,-3.3788,-12.5221,-7.9929,-8.4933,-9.1577,-8.1726,-4.6627,-3.8282,-5.8921,-3.9877,-14.8682,-10.8018
2554.6875,-5.4019,-16.1502,-12.8514,-8.4996,-3.2825,-10.3786,-2.3472,-4.4968,-12.5753,-9.6079,-7.9360,-8.1847,-7.3053,-4.2415,-2.2546,-3.1953,-3.0282,-14.7093,-11.4741
2558.5938,-5.9975,-16.4456,-14.4792,-10.2741,-5.0946,-13.0512,-5.2476,-5.9312,-12.2308,-10.3981,-7.3098,-7.6066,-6.7914,-3.9602,-1.0316,-0.7885,-2.4283,-14.3856,-12.1038
2562.5000,-6.3176,-15.0874,-14.9902,-11.3928,-6.3976,-14.1447,-9.6110,-7.2186,-11.4700,-9.8405,-6.7673,-7.4198,-6.9202,-3.9347,-0.6626,0.6698,-2.3932,-13.9072,-12.4333
2566.4062,-6.1392,-12.4609,-14.1962,-11.5319,-6.8954,-12.7814,-14.2728,-7.9645,-10.4887,-8.0119,-6.5783,-7.4511,-7.6035,-4.0912,-1.3750,0.7157,-2.8641,-13.3073,-12.2460
2570.3125,-5.4836,-9.4158,-12.3340,-10.6589,-6.5480,-9.3432,-17.6392,-7.9540,-9.5315,-5.5618,-6.9022,-7.3855,-8.3721,-4.1933,-2.9183,-0.6407,-3.4980,-12.5132,-11.4186
2574.2188,-4.5208,-6.8694,-9.8679,-8.9828,-5.5593,-5.2547,-18.3501,-7.2038,-8.7132,-3.3992,-7.5650,-6.9014,-8.6427,-4.0017,-4.5999,-2.8382,-3.8597,-11.3230,-9.9731
2578.1250,-3.4010,-5.3985,-7.2535,-6.8536,-4.2723,-2.1333,-15.8510,-5.9372,-7.9520,-2.2580,-8.0387,-5.8558,-8.0762,-3.4528,-5.5857,-4.9860,-3.7003,-9.5381,-8.0977
2582.0312,-2.1613,-5.0220,-4.7920,-4.6623,-3.0257,-0.8639,-10.6088,-4.4895,-7.0593,-2.3692,-7.7033,-4.3964,-6.7802,-2.7265,-5.3253,-6.2820,-3.1206,-7.1718,-6.1113
2585.9375,-0.7814,-5.2821,-2.6301,-2.7644,-2.0526,-1.1955,-3.9335,-3.1761,-5.9238,-3.4083,-6.2645,-2.9104,-5.2268,-2.1585,-3.8663,-6.3870,-2.4942,-4.5799,-4.3735
2589.8438,0.6654,-5.5738,-0.8651,-1.4317,-1.4725,-2.0861,2.4486,-2.1805,-4.6691,-4.7384,-4.0607,-1.8324,-3.9656,-2.0575,-1.8762,-5.5386,-2.2049,-2.3936,-3.1834
2593.7500,1.9011,-5.5265,0.3468,-0.8227,-1.3568,-2.5085,6.8882,-1.5137,-3.6765,-5.8011,-2.0186,-1.4355,-3.3422,-2.5482,-0.3520,-4.3580,-2.3865,-1.2624,-2.7164
2597.6562,2.4848,-5.1995,0.7748,-0.9657,-1.7957,-2.1364,8.2611,-1.0636,-3.4386,-6.4220,-1.2280,-1.7418,-3.4012,-3.5283,-0.1673,-3.4926,-2.8485,-1.5418,-3.0172
2601.5625,2.0110,-4.9629,0.2241,-1.7508,-2.8820,-1.4587,6.3100,-0.6984,-4.3035,-6.8450,-2.3454,-2.5867,-3.9818,-4.7370,-1.6816,-3.3120,-3.2259,-3.0975,-4.0162
2605.4688,0.3568,-5.1379,-1.2836,-2.9299,-4.5906,-1.3007,1.8083,-0.3527,-6.2286,-7.4762,-5.1686,-3.7504,-4.8679,-5.8580,-4.5793,-3.7986,-3.2235,-5.3329,-5.5241
2609.3750,-2.1714,-5.6483,-3.3747,-4.1301,-6.6215,-2.1415,-3.5686,-0.0335,-8.6791,-8.5045,-8.6356,-5.0257,-5.8423,-6.5821,-7.9819,-4.6262,-2.7683,-7.4188,-7.1941
2613.2812,-4.8870,-5.9523,-5.3477,-4.8992,-8.3341,-3.7267,-7.7367,0.2571,-10.7548,-9.6576,-11.2713,-6.1728,-6.6250,-6.6181,-10.7608,-5.3240,-1.9769,-8.6053,-8.5090
2617.1875,-6.9568,-5.3477,-6.3959,-4.8016,-8.8810,-5.2210,-8.9729,0.6160,-11.5293,-10.2834,-11.8545,-6.8436,-6.8206,-5.7057,-11.9269,-5.4322,-1.0053,-8.4759,-8.8735
2621.0938,-7.7121,-3.4831,-5.9544,-3.5653,-7.5335,-5.7550,-6.6656,1.2556,-10.4755,-9.7388,-9.9700,-6.6171,-6.0182,-3.6906,-10.9794,-4.6325,0.0650,-7.0555,-7.8389
2625.0000,-6.9017,-0.7328,-4.0050,-1.2365,-4.0632,-4.9666,-1.6716,2.3936,-7.7771,-7.8601,-6.1847,-5.2090,-4.0512,-0.6521,-8.1153,-2.8768,1.2003,-4.7625,-5.3714
2628.9062,-4.7860,1.8570,-1.1633,1.7424,1.0323,-3.1892,3.9676,4.0632,-4.3435,-5.2058,-1.7892,-2.7488,-1.2430,3.0046,-4.2230,-0.4956,2.2903,-2.2468,-1.9911
2632.8125,-2.0419,3.0769,1.5365,4.6129,6.6178,-1.2124,7.8815,5.9704,-1.4695,-2.8782,1.7488,0.0997,1.5957,6.5970,-0.6178,1.8057,3.0784,-0.1785,1.3600
2636.7188,0.4776,2.2389,3.0846,6.5529,11.3217,0.1762,8.4168,7.5274,-0.2673,-1.9822,3.3594,2.3390,3.5078,9.3836,1.4370,3.1590,3.2620,0.9554,3.7104
2640.6250,2.0387,-0.3853,2.9589,7.0116,14.0654,0.5683,5.3748,8.0884,-1.1412,-3.0128,2.7359,3.1146,3.9072,10.8572,1.2621,2.9342,2.7273,0.9900,4.5171
2644.5312,2.2704,-3.6588,1.3679,5.9626,14.4588,0.0484,0.0867,7.2799,-3.5845,-5.5291,0.3690,2.1987,2.9390,10.9485,-0.8993,1.1357,1.7361,0.1126,3.9180
2648.4375,1.2732,-6.1637,-0.8593,3.9251,12.8618,-0.9385,-5.1945,5.2321,-6.4212,-8.3210,-2.7201,0.1602,1.4143,10.0066,-3.9435,-1.4792,0.8758,-1.2316,2.6075
2652.3438,-0.4404,-6.9232,-2.6809,1.7207,10.1043,-1.8171,-8.2866,2.5575,-8.3722,-9.9922,-5.4069,-1.9223,0.3255,8.5635,-6.3970,-3.7138,0.7444,-2.5276,1.4026
2656.2500,-2.1421,-5.8327,-3.3341,0.0855,7.0402,-2.0784,-7.9970,0.0662,-8.6429,-9.6456,-6.8644,-3.0529,0.2411,7.0203,-7.1191,-4.5561,1.5470,-3.3901,0.7651
2660.1562,-3.1393,-3.5711,-2.6547,-0.6529,4.1890,-1.4023,-4.5824,-1.6270,-7.2223,-7.3032,-6.7889,-2.8546,0.9760,5.4460,-5.8502,-3.7515,2.8820,-3.6837,0.5821
2664.0625,-2.9899,-1.1029,-1.0786,-0.6609,1.6368,0.2639,0.4150,-2.3782,-4.7628,-3.8503,-5.3973,-1.7229,1.7466,3.6015,-3.2989,-1.9426,3.8913,-3.5167,0.3292
2667.9688,-1.6181,0.8728,0.6405,-0.4175,-0.8016,2.6554,4.8543,-2.5139,-2.1616,-0.5646,-3.2461,-0.5222,1.6948,1.1591,-0.7145,-0.2546,3.7138,-3.1316,-0.5143
2671.8750,0.6815,2.1788,1.8133,-0.3950,-3.3054,5.2071,6.9047,-2.5675,-0.1211,1.4927,-0.9883,-0.0434,0.4234,-2.0195,0.8014,0.4238,1.9804,-2.7730,-2.0883
2675.7812,3.3273,3.0141,2.0912,-0.7988,-5.8391,7.1930,5.8033,-2.9186,1.0667,1.9032,0.8221,-0.5722,-1.7972,-5.7044,0.8431,-0.0124,-0.9452,-2.6051,-4.0567
2679.6875,5.5976,3.5838,1.5244,-1.5031,-8.1140,7.9812,2.1484,-3.5579,1.4521,0.9476,1.8291,-1.8105,-4.2416,-9.2967,-0.1971,-0.8837,-4.1143,-2.6961,-5.8246
2683.5938,6.8247,3.8213,0.4320,-2.1828,-9.7015,7.3010,-2.3972,-4.1063,1.2129,-0.6725,1.9022,-3.1376,-6.1651,-11.9914,-1.4874,-1.2716,-6.4331,-3.0328,-6.8860
2687.5000,6.6138,3.4158,-0.7951,-2.5246,-10.2042,5.3750,-5.8704,-4.0634,0.5002,-2.2459,1.1409,-3.9939,-7.1531,-13.0312,-2.3066,-0.7297,-7.1477,-3.5177,-7.0553
2691.4062,5.0284,2.1122,-1.8404,-2.3822,-9.4012,2.8276,-6.8968,-3.1247,-0.5476,-3.3560,-0.1299,-4.1370,-7.1922,-11.9693,-2.4260,0.3475,-6.1381,-3.9510,-6.4603
2695.3125,2.6426,0.0420,-2.5150,-1.8100,-7.3336,0.4127,-5.2886,-1.3860,-1.6867,-3.9440,-1.4076,-3.6624,-6.5046,-8.8738,-2.1113,0.9666,-3.9184,-4.0460,-5.3648
2699.2188,0.3782,-2.1791,-2.7468,-1.0023,-4.3396,-1.2877,-2.0613,0.6682,-2.5089,-4.1557,-2.1530,-2.8578,-5.3449,-4.4073,-1.8071,0.2272,-1.3913,-3.5308,-4.0003
2703.1250,-0.8615,-3.6820,-2.5589,-0.2113,-1.0369,-2.0352,1.1276,2.3657,-2.5586,-4.1167,-2.0087,-2.0359,-3.9271,0.2847,-1.7685,-2.0127,0.5146,-2.3160,-2.5348
2707.0312,-0.6090,-3.7742,-2.0586,0.3138,1.7805,-1.9136,2.8153,3.1248,-1.5815,-3.8035,-0.9920,-1.4424,-2.4819,3.8999,-1.9019,-4.9564,1.1911,-0.6273,-1.1548
2710.9375,0.9281,-2.3029,-1.4157,0.3724,3.3526,-1.1716,2.4061,2.6755,0.2725,-3.0916,0.4767,-1.2264,-1.3083,5.4486,-1.8938,-7.2931,0.5755,1.0184,-0.1247
2714.8438,2.9769,0.2621,-0.8096,-0.1296,3.2338,-0.0562,0.3495,1.1438,2.4650,-1.9327,1.7806,-1.4091,-0.6924,4.6742,-1.4876,-7.9383,-0.8202,2.0381,0.2888
2718.7500,4.6320,3.0635,-0.3512,-1.1128,1.5161,1.2706,-2.2133,-1.0127,4.3323,-0.5198,2.4606,-1.8294,-0.7153,2.1955,-0.6799,-6.6033,-2.1141,2.1067,-0.0023
2722.6562,5.3687,5.2611,-0.0286,-2.3012,-1.1484,2.7169,-4.0836,-3.1751,5.4390,0.7091,2.5049,-2.1291,-1.1144,-0.7577,0.3042,-3.8551,-2.4521,1.3845,-0.7684
2726.5625,5.3162,6.3811,0.2810,-3.2956,-3.7906,4.2041,-4.5519,-4.7727,5.7958,1.2750,2.3683,-1.8579,-1.3615,-2.9241,1.2110,-0.6902,-1.4451,0.4805,-1.5156
2730.4688,5.1039,6.4461,0.7310,-3.7392,-5.5370,5.6318,-3.5999,-5.4623,5.7984,0.9746,2.6794,-0.7043,-0.9637,-3.6109,1.9567,2.0405,0.5797,0.1406,-1.7371
2734.3750,5.3756,5.8618,1.4098,-3.4895,-5.9802,6.8873,-1.7382,-5.2196,5.9387,0.1086,3.8074,1.2637,0.1985,-2.9761,2.6593,3.9687,2.6921,0.8306,-1.2065
2738.2812,6.3016,5.1579,2.2942,-2.6843,-5.2993,7.8780,0.3418,-4.3073,6.4856,-0.5660,5.5766,3.5199,1.7409,-1.8321,3.4839,5.1440,3.8264,2.4636,-0.1092
2742.1875,7.4334,4.7356,3.2753,-1.6470,-4.0740,8.5565,2.0784,-3.1310,7.3425,-0.1993,7.3295,5.2616,2.9676,-1.1028,4.4306,5.7115,3.3640,4.4383,1.0796
2746.0938,8.0129,4.7314,4.2214,-0.6938,-2.9217,8.9222,3.1888,-2.0420,8.1505,1.6353,8.3069,5.7804,3.2696,-1.2824,5.2374,5.6417,1.4871,5.9601,1.8798
2750.0000,7.5271,5.0355,5.0168,0.0254,-2.1916,9.0106,3.6648,-1.1832,8.5388,4.5714,8.0927,4.8176,2.4628,-2.2304,5.4848,4.7334,-0.9316,6.4436,2.0459
2753.9062,6.1109,5.4203,5.5460,0.5381,-1.8888,8.8794,3.6985,-0.4594,8.3381,7.4885,6.8282,2.6900,0.8426,-3.3948,4.8383,2.8637,-2.8487,5.7598,1.6081
2757.8125,4.5015,5.6965,5.6576,0.9217,-1.8256,8.5954,3.5966,0.3500,7.6282,9.0066,5.0635,0.1133,-1.0589,-4.2616,3.2664,0.2533,-3.6567,4.2096,0.7267
2761.7188,3.5645,5.8092,5.1763,1.1525,-1.8457,8.2147,3.6900,1.4037,6.6240,8.2046,3.3749,-2.1634,-2.8170,-4.6868,1.0980,-2.4999,-3.4930,2.2853,-0.4815
2765.6250,3.7214,5.8294,3.9995,1.0736,-1.9326,7.7659,4.2232,2.6504,5.5188,5.1674,2.0330,-3.6961,-4.3101,-4.8844,-1.1107,-4.6773,-3.0650,0.4019,-1.9836
2769.5312,4.6855,5.8552,2.2328,0.5218,-2.1368,7.2553,5.2399,3.8180,4.4078,1.0260,0.9510,-4.4733,-5.6496,-5.1164,-2.8066,-5.8195,-3.1324,-1.2391,-3.7101
2773.4375,5.6918,5.8938,0.2545,-0.4810,-2.4120,6.7038,6.5246,4.5495,3.3321,-2.5619,-0.0796,-4.7985,-6.9376,-5.3608,-3.6362,-5.9614,-4.0063,-2.6072,-5.4037
2777.3438,6.0533,5.8132,-1.3809,-1.6375,-2.5280,6.1978,7.6512,4.6052,2.3789,-4.2205,-1.0790,-5.0337,-8.0638,-5.2396,-3.5215,-5.5546,-5.3885,-3.7059,-6.6104
2781.2500,5.6413,5.4171,-2.1874,-2.4836,-2.1636,5.8994,8.1342,4.0069,1.7331,-3.5092,-1.7548,-5.3668,-8.7058,-4.2751,-2.6183,-5.1311,-6.6172,-4.4652,-6.8712
2785.1562,4.9493,4.6077,-2.0095,-2.6430,-1.1276,5.9781,7.6128,3.0353,1.6200,-1.0666,-1.6751,-5.7222,-8.5257,-2.2821,-1.2202,-4.9420,-7.1071,-4.7409,-6.0008
2789.0625,4.7022,3.5317,-1.1279,-2.0571,0.4547,6.4812,5.9832,2.0842,2.1699,1.8055,-0.6105,-5.8329,-7.4067,0.4050,0.3305,-4.8189,-6.6695,-4.4039,-4.2482
2792.9688,5.3041,2.5897,-0.1199,-1.0249,2.1356,7.2269,3.4407,1.4586,3.2981,3.8495,1.2146,-5.4142,-5.5645,3.0453,1.7058,-4.3463,-5.5331,-3.4457,-2.2094
2796.8750,6.5236,2.2651,0.4591,-0.0280,3.3345,7.8191,0.4451,1.2290,4.6871,4.4447,3.1630,-4.3496,-3.4725,4.8629,2.6469,-3.2225,-4.1279,-2.0335,-0.5410
2800.7812,7.6363,2.8507,0.3762,0.5294,3.5965,7.8176,-2.3615,1.2128,5.8971,3.7855,4.5041,-2.8073,-1.6811,5.4083,3.0223,-1.5586,-2.8461,-0.4959,0.3289
2804.6875,7.9140,4.2365,-0.1880,0.4801,2.7518,6.9842,-4.2874,1.0763,6.5489,2.6187,4.8043,-1.2376,-0.6552,4.6690,2.8761,0.0908,-1.9531,0.7447,0.3052
2808.5938,7.1098,5.9042,-0.8185,-0.1414,0.8972,5.4495,-4.7972,0.4924,6.4876,1.7571,4.1332,-0.2333,-0.6960,2.8968,2.4236,0.9982,-1.6452,1.2731,-0.4877
2812.5000,5.6065,7.1540,-1.1878,-1.2601,-1.7357,3.6755,-3.7661,-0.7203,5.8447,1.6663,2.9682,-0.2895,-1.9185,0.3396,1.9701,0.6749,-2.1098,0.8046,-1.9042
2816.4062,4.1490,7.4447,-1.2981,-2.8773,-4.8881,2.2094,-1.6629,-2.5237,4.9676,2.3115,1.8855,-1.5562,-4.2181,-2.8802,1.7722,-0.8245,-3.4601,-0.6853,-3.8707
2820.3125,3.3663,6.6487,-1.4703,-5.0191,-8.2652,1.3739,0.5089,-4.6592,4.2504,3.2700,1.2512,-3.7109,-7.2180,-6.6487,1.9093,-2.8932,-5.5690,-2.8781,-6.2964
2824.2188,3.4153,5.0799,-2.0878,-7.5507,-11.4478,1.0885,1.5991,-6.7097,3.9436,3.9798,1.0953,-6.0499,-10.2678,-10.6316,2.2404,-4.6724,-7.9662,-5.1480,-8.8977
2828.1250,3.9599,3.2915,-3.2739,-10.0302,-13.8602,0.9417,0.9009,-8.2091,4.0334,3.9826,1.2057,-7.7841,-12.5855,-14.1747,2.4781,-5.4923,-9.9528,-6.7596,-11.1260
2832.0312,4.4538,1.7772,-4.7372,-11.7770,-14.9047,0.4726,-1.3848,-8.7856,4.2537,3.0809,1.3310,-8.4015,-13.5399,-16.4804,2.3497,-5.2032,-10.9203,-7.1776,-12.3241
2835.9375,4.4987,0.7522,-5.9070,-12.1768,-14.2374,-0.5180,-4.1534,-8.3057,4.2311,1.3996,1.3383,-7.8934,-12.9434,-16.9783,1.7601,-4.2011,-10.6728,-6.3394,-12.0506
2839.8438,4.0372,0.1202,-6.2801,-11.0498,-12.0196,-1.8214,-5.9620,-6.9607,3.6916,-0.6444,1.2442,-6.7050,-11.1610,-15.6372,0.8693,-3.1343,-9.5115,-4.7200,-10.3611
2843.7500,3.2936,-0.3940,-5.7514,-8.8265,-8.9459,-2.9290,-5.8749,-5.2350,2.6191,-2.4721,1.1423,-5.4373,-8.9276,-12.9839,0.0394,-2.4632,-7.9996,-3.1134,-7.8360
2847.6562,2.5601,-1.0494,-4.7010,-6.3763,-5.9711,-3.3199,-4.0649,-3.7358,1.2707,-3.5645,1.1181,-4.4872,-6.9507,-9.7975,-0.3289,-2.1476,-6.5668,-2.2245,-5.3032
2851.5625,2.0083,-1.9457,-3.7714,-4.5620,-3.8581,-2.7550,-1.7453,-2.9374,0.0367,-3.7070,1.2154,-3.8545,-5.5354,-6.6849,0.0061,-1.6712,-5.2461,-2.2997,-3.4155
2855.4688,1.6449,-2.9830,-3.4723,-3.7855,-2.8063,-1.4140,-0.4271,-2.9590,-0.7746,-3.1284,1.4487,-3.2344,-4.4732,-3.8263,0.9902,-0.4140,-3.7421,-3.0233,-2.3398
2859.3750,1.3941,-3.9113,-3.8705,-3.8060,-2.3890,0.1823,-0.9579,-3.5011,-1.0949,-2.4142,1.8128,-2.3172,-3.2684,-1.0493,2.2659,1.8405,-1.7752,-3.7477,-1.7483
2863.2812,1.2018,-4.4299,-4.5683,-3.9398,-1.8524,1.4036,-2.9810,-3.9948,-1.1006,-2.1940,2.2533,-1.0767,-1.5514,1.8506,3.3069,4.5911,0.5696,-3.9147,-1.1001
2867.1875,1.0666,-4.3042,-4.9801,-3.5061,-0.6002,1.7734,-5.1853,-3.9012,-1.0679,-2.7605,2.6224,0.1563,0.6032,4.7994,3.6397,6.7343,2.7734,-3.3988,-0.0224
2871.0938,0.9921,-3.4763,-4.7231,-2.2340,1.4281,1.1517,-6.1831,-3.0037,-1.1820,-3.8598,2.6836,0.8878,2.6696,7.3772,3.0541,7.1023,4.1663,-2.5492,1.4480
2875.0000,0.9318,-2.1343,-3.8581,-0.3886,3.7093,-0.2168,-5.4109,-1.5312,-1.4312,-4.8152,2.2087,0.7864,3.9800,9.0364,1.7017,5.1351,4.3627,-1.9102,2.8989
2878.9062,0.7984,-0.6886,-2.8242,1.4308,5.4452,-1.7899,-3.4339,-0.0363,-1.6503,-4.9392,1.1344,-0.0823,4.1404,9.4348,0.0311,1.2902,3.5277,-1.8139,3.8062
2882.8125,0.5419,0.3735,-2.1162,2.6598,6.0329,-2.9161,-1.4622,0.9050,-1.6693,-3.9866,-0.3243,-1.2661,3.2761,8.6435,-1.4168,-3.0900,2.2763,-2.1279,3.8495
2886.7188,0.2287,0.7131,-1.9333,3.0599,5.4143,-3.0740,-0.4506,1.0051,-1.4520,-2.3568,-1.7071,-2.1702,1.9536,7.0927,-2.2555,-6.4128,1.2767,-2.3330,3.0884
2890.6250,0.0410,0.3256,-2.0455,2.7713,4.1022,-2.0876,-0.4446,0.4116,-1.1243,-0.9032,-2.5113,-2.3765,0.8401,5.3146,-2.4195,-7.6295,0.8444,-1.8837,1.9141
2894.5312,0.1791,-0.4458,-1.9734,2.1420,2.8792,-0.2300,-0.6465,-0.3895,-0.8829,-0.4609,-2.4667,-1.8424,0.3318,3.6768,-2.1666,-6.7298,0.8105,-0.6079,0.8271
2898.4375,0.7267,-1.1092,-1.3547,1.4853,2.3581,1.8560,-0.1315,-0.8521,-0.8587,-1.3821,-1.7136,-0.8771,0.3843,2.2792,-1.9145,-4.6532,0.7382,1.1298,0.1861
2902.3438,1.5808,-1.3260,-0.2364,0.9370,2.6655,3.4248,1.3373,-0.6668,-1.0322,-3.3534,-0.7500,0.0690,0.6317,1.0447,-2.0002,-2.6812,0.3035,2.6216,0.0713
2906.2500,2.5010,-1.1127,0.9269,0.4815,3.4226,3.9829,3.0206,0.0911,-1.2450,-5.5783,-0.1452,0.6625,0.6874,-0.1041,-2.4901,-1.6884,-0.4445,3.2540,0.3215
2910.1562,3.2533,-0.7852,1.5795,0.0848,4.0183,3.5593,3.6828,1.0338,-1.2791,-7.1841,-0.1781,0.8491,0.4138,-1.1332,-3.1441,-1.7109,-1.1264,2.9087,0.7004
2914.0625,3.7493,-0.6717,1.4714,-0.1934,3.9997,2.7245,2.5098,1.6991,-0.9437,-7.6048,-0.6316,0.8440,-0.0080,-1.9174,-3.5522,-2.0736,-1.3217,2.0629,1.0747
2917.9688,4.0823,-0.8061,0.8725,-0.2023,3.3441,2.3097,-0.1934,1.8068,-0.1333,-6.7582,-0.9020,0.9744,-0.2308,-2.3422,-3.3711,-1.9658,-0.8767,1.5159,1.4895
2921.8750,4.4330,-0.8531,0.4291,0.1906,2.4624,2.9444,-3.0437,1.3894,1.1290,-4.9922,-0.3949,1.4674,0.0101,-2.3782,-2.5359,-1.0678,-0.0064,1.9006,2.0998
2925.7812,4.9023,-0.3602,0.7390,0.9743,1.9435,4.6551,-4.3691,0.7368,2.6490,-2.9044,1.0239,2.2959,0.7296,-2.0622,-1.3308,0.1859,0.8690,3.2844,3.0111
2929.6875,5.3866,0.8290,1.9288,1.9543,2.2023,6.7653,-3.2409,0.2061,4.0385,-1.1478,2.8220,3.1652,1.7087,-1.4185,-0.2767,0.8807,1.4159,5.1086,4.1472
2933.5938,5.5875,2.3219,3.5266,2.8357,3.2359,8.1880,-0.0819,0.0173,4.7813,-0.2658,4.0186,3.6541,2.6645,-0.4126,0.1164,0.2522,1.5946,6.5080,5.2456
2937.5000,5.1673,3.3248,4.7315,3.3758,4.6212,7.9839,3.5331,0.1508,4.4292,-0.5435,3.7455,3.4494,3.4375,0.9933,-0.3889,-1.7366,1.6469,6.8174,5.9963
2941.4062,3.9687,3.1457,4.9088,3.5020,5.7374,5.8916,5.7480,0.3898,2.8736,-1.8773,1.8263,2.5478,4.0605,2.7135,-1.6135,-4.2548,1.8923,5.9553,6.2314
2945.3125,2.1675,1.7201,3.9840,3.3174,6.0724,2.5276,5.4255,0.4639,0.5311,-3.7333,-1.0002,1.3029,4.6646,4.4481,-3.0173,-6.0097,2.4866,4.4493,6.0274
2949.2188,0.2534,-0.2380,2.4753,2.9941,5.4452,-0.8810,2.6996,0.2003,-1.7313,-5.2888,-3.3985,0.2610,5.2988,5.7287,-3.9397,-5.9710,3.3003,3.0954,5.6349
2953.1250,-1.1731,-1.6146,1.1503,2.6336,4.0403,-3.1048,-1.1793,-0.3972,-2.9676,-5.7672,-4.1441,-0.1385,5.8077,6.1143,-3.9100,-3.9806,3.9797,2.4690,5.2742
2957.0312,-1.6897,-1.5863,0.5494,2.2003,2.2736,-3.5352,-4.5393,-1.1662,-2.6508,-4.8284,-2.8051,0.1749,5.8732,5.4306,-2.8693,-0.8734,4.1386,2.5992,4.9483
2960.9375,-1.2656,-0.1524,0.7008,1.5819,0.5950,-2.4673,-6.0832,-1.8667,-0.9910,-2.7811,0.0226,0.8570,5.2128,3.9052,-1.1793,1.9821,3.5639,3.0108,4.4266
2964.8438,-0.2681,1.8706,1.2049,0.7418,-0.6618,-0.8763,-5.3792,-2.2682,1.1626,-0.4466,3.0825,1.3786,3.8104,2.0992,0.5932,3.4720,2.3373,3.0977,3.4395
2968.7500,0.7558,3.4038,1.6004,-0.1520,-1.3294,0.1844,-2.8811,-2.2076,2.8164,1.2831,5.1937,1.3998,2.0183,0.6617,1.9981,3.3954,0.8305,2.5746,1.9541
2972.6562,1.3990,3.8232,1.7257,-0.7328,-1.3829,0.2030,0.4102,-1.6164,3.4257,1.9331,5.8888,1.0418,0.4392,0.0386,2.9369,2.5915,-0.4175,1.6993,0.3197
2976.5625,1.6184,3.3274,1.8063,-0.6139,-0.9024,-0.5343,3.3976,-0.5386,3.1907,1.6635,5.5554,0.8473,-0.3634,0.2909,3.6576,2.4291,-0.8964,1.1077,-0.8618
