Time,Fp1,F3,C3,P3,O1,F7,T3,T5,Fz,Fp2,F4,C4,P4,O2,F8,T4,T6,Cz,Pz
0.0000,-4.0151,-2.7276,-4.5288,-3.2597,-2.3790,-5.3397,4.6776,-2.3569,-5.0398,-5.9265,-3.9487,-4.4546,-3.0171,-2.7340,-2.5111,-3.9456,-3.5990,-4.7018,-3.7479
3.9062,-3.6502,-3.6375,-3.4266,-1.1720,-0.4285,-6.1820,2.8664,0.1566,-4.4105,-6.3609,-3.4515,-1.7499,-0.7308,-0.6706,-2.1972,-3.1999,-1.9230,-3.8811,-1.5104
7.8125,-3.3571,-5.5807,-2.6741,1.1010,1.7621,-6.2710,-0.4159,2.9362,-4.1861,-6.8676,-3.7926,0.9329,1.2544,1.3572,-2.3752,-2.6675,-0.2773,-3.5054,0.6278
11.7188,-3.4702,-7.9886,-2.7560,2.7090,3.1754,-5.0426,-4.2926,4.9008,-4.6575,-6.8446,-5.2292,2.4649,1.8136,2.4723,-3.5451,-2.7447,0.4688,-3.8709,1.5952
15.6250,-4.1219,-9.8682,-3.6091,3.0583,2.9985,-2.4585,-7.4813,5.2437,-5.6726,-5.6564,-7.3719,2.1791,0.3983,2.1647,-5.8008,-3.5484,-0.1611,-4.8186,0.7786
19.5312,-5.0526,-10.3364,-4.5236,2.1650,1.1370,0.9008,-9.0063,3.9043,-6.6538,-3.1130,-9.2858,0.2779,-2.5614,0.6133,-8.5899,-4.7432,-1.8755,-5.7718,-1.5426
23.4375,-5.6755,-9.1428,-4.5398,0.6327,-1.6782,4.0640,-8.6746,1.5941,-6.9221,0.2200,-9.9668,-2.2659,-5.8235,-1.3958,-10.8579,-5.6310,-3.7199,-6.0757,-4.2890
27.3438,-5.4088,-6.8333,-3.1294,-0.7451,-4.2870,6.0804,-7.0293,-0.6579,-6.1167,3.1632,-8.9074,-4.2511,-7.9817,-2.9172,-11.5560,-5.5046,-4.6251,-5.4255,-6.1696
31.2500,-4.0726,-4.4270,-0.6784,-1.4799,-5.7455,6.4059,-4.9284,-2.1310,-4.4104,4.5278,-6.3740,-4.8740,-8.1799,-3.3704,-10.2223,-4.0706,-4.0380,-4.0703,-6.3821
35.1562,-2.0741,-2.8075,1.6340,-1.6295,-5.7974,5.0873,-3.1696,-2.7803,-2.3661,3.8411,-3.2142,-4.0433,-6.4482,-2.8038,-7.2658,-1.6739,-2.2087,-2.6304,-4.9709
39.0625,-0.2142,-2.2227,2.5672,-1.6104,-4.8706,2.7030,-2.4429,-3.0934,-0.5411,1.7112,-0.3274,-2.2218,-3.4859,-1.7378,-3.7489,0.8558,0.0606,-1.6327,-2.6317
42.9688,0.7885,-2.2207,1.6954,-1.7384,-3.6426,0.1204,-3.4782,-3.5620,0.8592,-0.4716,1.8226,0.0181,-0.1114,-0.7242,-0.8035,2.6686,2.0047,-1.1004,-0.1569
46.8750,0.7489,-2.0469,-0.2052,-1.8719,-2.5237,-1.8221,-6.9735,-4.1846,2.0137,-1.3636,3.3198,2.3592,3.1902,0.0486,0.9401,3.3833,3.3841,-0.5153,2.0376
50.7812,0.1254,-1.2122,-1.5887,-1.4676,-1.4430,-2.6043,-13.0540,-4.3946,3.1922,-0.5106,4.4933,4.7606,6.3111,0.8200,1.5515,3.2733,4.5204,0.7867,3.9684
54.6875,-0.3009,0.1683,-1.1461,-0.0393,-0.0718,-2.1932,-20.5430,-3.4894,4.3885,1.3683,5.4781,7.1786,9.1955,1.9605,1.5424,3.0150,5.8723,3.0511,5.7453
58.5938,0.0322,1.4970,1.3051,2.3261,1.7322,-1.0253,-26.7513,-1.2433,5.2056,2.8817,6.0210,9.2850,11.4848,3.5540,1.3964,3.1670,7.5021,5.7887,7.1933
62.5000,1.0837,2.1647,4.6870,4.8272,3.6429,0.2158,-28.3537,1.7673,5.1263,2.9396,5.7123,10.4848,12.4985,5.1958,1.2558,3.7475,8.8618,7.9721,7.8222
66.4062,2.2529,2.0147,7.3941,6.3594,4.9995,0.9458,-23.1753,4.4043,3.9812,1.5377,4.4592,10.2749,11.6299,6.1837,0.9766,4.2188,9.0934,8.6506,7.2220
70.3125,2.8197,1.4509,8.3721,6.2385,5.2712,0.9808,-11.8814,5.6358,2.2413,-0.2083,2.7928,8.6822,8.8794,5.9914,0.4450,3.8998,7.6417,7.5774,5.5715
74.2188,2.4652,1.1090,7.7607,4.7265,4.4974,0.6033,1.6743,5.1712,0.8514,-0.8375,1.6918,6.4078,5.0950,4.6923,-0.1643,2.5103,4.7408,5.4073,3.7885
78.1250,1.4940,1.3337,6.6437,2.9463,3.3477,0.3288,11.9994,3.6169,0.6575,0.3888,1.9692,4.4976,1.6676,3.0170,-0.4439,0.4425,1.4105,3.3099,3.0894
82.0312,0.5998,1.8568,6.1211,2.1904,2.7214,0.5067,14.7373,2.0453,1.8007,2.8723,3.6329,3.7165,-0.1797,1.9682,-0.1012,-1.4546,-1.0608,2.2451,4.1873
85.9375,0.3492,1.9270,6.4279,3.0663,3.1511,1.0329,9.0676,1.2834,3.5187,4.9725,5.7089,4.0496,-0.0662,2.2120,0.6955,-2.4394,-1.8238,2.3823,6.6891
89.8438,0.7613,0.8222,6.7735,5.0570,4.4155,1.4044,-1.7803,1.4144,4.5373,5.0443,6.7213,4.6923,1.3467,3.6247,1.2897,-2.3927,-0.9262,3.0467,9.1681
93.7500,1.2933,-1.6044,6.0121,6.8048,5.6295,1.1122,-12.2894,1.8123,3.8301,2.5303,5.5678,4.5604,2.7579,5.2829,0.9070,-1.9083,0.7413,3.2068,9.9390
97.6562,1.2365,-4.7266,3.5980,6.9314,5.7471,0.0981,-17.6622,1.6366,1.2614,-1.6365,2.2243,2.9891,2.9682,5.9228,-0.8271,-1.8899,1.9443,2.1563,8.0547
101.5625,0.2349,-7.4362,0.0704,4.8563,4.1511,-1.0883,-16.2756,0.4092,-2.3030,-5.5939,-2.1893,0.1608,1.5029,4.6202,-3.5957,-2.9290,1.7398,-0.0651,3.8774
105.4688,-1.4520,-8.7416,-3.3083,1.1016,0.9803,-1.6130,-10.1973,-1.7213,-5.4804,-7.6929,-6.0332,-3.0038,-1.2224,1.3235,-6.5496,-4.8925,-0.0897,-2.7522,-1.1363
109.3750,-3.1196,-8.2816,-5.4467,-3.0504,-2.9495,-0.9780,-3.6342,-4.1454,-7.1239,-7.4429,-8.0486,-5.3797,-4.2085,-3.0347,-8.7954,-6.9839,-2.9747,-4.9929,-5.2535
113.2812,-4.0809,-6.4446,-6.1161,-6.2461,-6.5164,0.5000,-0.4308,-6.1851,-6.8648,-5.6364,-7.9580,-6.2199,-6.3901,-6.8998,-9.8548,-8.2113,-5.8281,-6.1409,-7.3183
117.1875,-4.0756,-4.0521,-5.8767,-7.6204,-8.7118,1.7528,-2.1514,-7.3829,-5.1381,-3.6149,-6.4159,-5.4193,-7.0437,-8.7522,-9.7799,-7.9291,-7.4842,-5.9867,-7.1135
121.0938,-3.3377,-1.8562,-5.3286,-6.9356,-8.9241,1.6004,-7.7057,-7.5145,-2.7514,-2.2395,-4.4184,-3.3656,-5.9356,-7.7629,-8.8984,-6.1185,-7.1378,-4.5942,-5.1162
125.0000,-2.3065,-0.1934,-4.3652,-4.3733,-7.0506,-0.4211,-14.4074,-6.4293,-0.3420,-1.3144,-2.6243,-0.5815,-3.2670,-4.1660,-7.4504,-3.2940,-4.6579,-2.0410,-1.9798
128.9062,-1.2396,1.0074,-2.1445,-0.2978,-3.4998,-3.6156,-19.5642,-3.9799,1.9029,0.1330,-1.0515,2.5285,0.4316,0.8046,-5.4442,-0.1909,-0.6889,1.6416,1.7908
132.8125,-0.0488,1.9359,2.0892,4.7564,0.8773,-6.4157,-21.6196,-0.1995,4.1233,2.9440,0.7022,5.6637,4.3787,5.3911,-2.8380,2.5173,3.5239,6.2390,5.7606
136.7188,1.5062,2.5944,7.9459,9.9110,4.9608,-7.2691,-20.4065,4.3837,6.4167,6.9732,2.9482,8.4432,7.6468,8.0123,0.1412,4.3311,6.5767,11.0419,9.2822
140.6250,3.4297,2.7309,13.5128,13.8794,7.6787,-5.5709,-16.7093,8.6107,8.5397,10.9284,5.5188,10.3075,9.3833,7.9023,2.8663,4.9245,7.4856,14.7924,11.4162
144.5312,5.2413,2.0607,16.1504,15.2757,8.4053,-2.0441,-11.6479,10.9881,9.9133,13.0513,7.7760,10.6786,9.1303,5.4049,4.5370,4.1733,6.1370,16.0844,11.2843
148.4375,6.1132,0.6022,14.0705,13.2642,7.2473,1.6721,-6.2744,10.3687,9.9332,12.1921,8.9822,9.3121,7.0775,1.7753,4.6311,2.2694,3.3468,14.0769,8.6741
152.3438,5.3547,-1.1524,7.6442,8.1675,5.0069,3.9541,-1.4667,6.6394,8.3720,8.5634,8.7399,6.5774,4.0421,-1.4333,3.2382,-0.1938,0.4392,9.0993,4.4147
156.2500,2.9258,-2.3975,-0.5389,1.5663,2.7671,4.0576,2.0214,0.9520,5.6036,3.6776,7.1996,3.4063,1.1118,-3.1112,1.0109,-2.3422,-1.4582,2.7212,0.1321
160.1562,-0.3873,-2.4437,-7.0162,-4.3029,1.3043,2.4069,3.5207,-4.7247,2.5050,-0.4781,4.9301,0.8803,-0.8795,-3.0817,-1.2441,-3.3953,-1.9966,-2.8467,-2.5692
164.0625,-3.3008,-1.1544,-9.3884,-7.5878,0.6787,0.2036,2.5009,-8.5293,0.0815,-2.4942,2.5865,-0.3130,-1.7284,-2.0845,-3.0332,-3.1108,-1.7082,-5.7487,-3.0038
167.9688,-4.6952,0.8967,-7.5982,-7.7058,0.2790,-1.3254,-1.2621,-9.5900,-0.9867,-2.1845,0.6129,-0.2116,-1.8499,-1.2663,-4.3660,-1.9812,-1.5571,-5.3443,-1.7715
171.8750,-4.2148,2.6707,-3.7463,-5.5489,-0.7000,-1.5544,-7.4281,-8.3598,-0.6546,-0.4955,-0.8659,0.5117,-1.8970,-1.4826,-5.5635,-0.9810,-2.2362,-2.4648,-0.3219
175.7812,-2.4452,3.1888,-0.6283,-2.8942,-2.6633,-0.6384,-14.8512,-6.2354,0.4658,1.1702,-1.9692,0.9926,-2.2831,-2.8196,-6.8746,-0.9701,-3.6828,1.0613,-0.0009
179.6875,-0.5721,2.0389,-0.0122,-1.3933,-5.3061,0.7444,-21.5780,-4.7171,1.3826,1.7495,-2.9153,0.6823,-2.9398,-4.6134,-8.2233,-2.1334,-5.1391,3.3413,-1.2156
183.5938,0.2601,-0.4238,-1.7740,-1.7470,-7.7974,1.8215,-25.3371,-4.6189,1.1881,0.9820,-3.9006,-0.3891,-3.4584,-5.9280,-9.2619,-3.8484,-5.7082,3.3082,-3.2644
187.5000,-0.4886,-3.2918,-4.3384,-3.5087,-9.3130,2.0411,-24.5378,-5.7572,-0.4857,-0.6329,-5.0167,-1.7157,-3.4773,-6.1722,-9.6416,-5.0889,-5.0112,1.1279,-4.8994
191.4062,-2.5623,-5.5996,-5.9530,-5.5388,-9.5431,1.1656,-19.3609,-7.2231,-3.2317,-2.2413,-6.1770,-2.6661,-3.0015,-5.4563,-9.2382,-5.0941,-3.4821,-2.0256,-5.1884
195.3125,-5.1365,-6.8031,-5.8286,-6.7486,-8.8319,-0.7754,-12.1926,-8.0035,-5.9911,-3.1125,-7.0670,-2.8358,-2.4131,-4.4759,-8.1523,-3.8411,-2.0997,-4.6442,-4.0781
199.2188,-7.2718,-6.9747,-4.4040,-6.6646,-7.8872,-3.5271,-6.8082,-7.5588,-7.5258,-2.9498,-7.1967,-2.2058,-2.1780,-4.0256,-6.5347,-2.0077,-1.7494,-5.6288,-2.3211
203.1250,-8.3135,-6.6227,-2.7187,-5.5435,-7.3037,-6.5933,-6.4316,-6.0592,-7.0376,-1.9550,-6.1217,-1.0757,-2.4908,-4.4781,-4.4614,-0.4847,-2.6553,-4.7395,-0.9011
207.0312,-8.0554,-6.2783,-1.5178,-4.0835,-7.2487,-9.2406,-11.6864,-4.2255,-4.6214,-0.6888,-3.7784,0.1195,-3.1358,-5.5711,-2.0268,0.1819,-4.2613,-2.5806,-0.4160
210.9375,-6.6635,-6.1278,-0.8057,-2.9992,-7.5039,-10.6395,-19.8145,-2.9299,-1.2728,0.1903,-0.7265,0.9778,-3.6629,-6.6190,0.4179,0.0215,-5.6141,-0.1885,-0.8326
214.8438,-4.4927,-5.9261,-0.1107,-2.7191,-7.7679,-10.1713,-25.9481,-2.7951,1.6015,0.2268,1.9375,1.2240,-3.7300,-6.9837,2.1553,-0.5762,-5.9643,1.5282,-1.6959
218.7500,-1.9413,-5.2357,0.8794,-3.3051,-7.9412,-7.7726,-25.9173,-3.9616,2.9365,-0.5856,3.0649,0.7597,-3.3398,-6.4822,2.3509,-1.2864,-5.1809,2.2117,-2.5350
222.6562,0.5991,-3.8142,1.9152,-4.5297,-8.1584,-4.1074,-18.9110,-6.0724,2.5977,-1.7320,2.1240,-0.2889,-2.7961,-5.4792,0.6032,-2.1041,-3.7398,2.1464,-3.1193
226.5625,2.7419,-1.8749,2.3712,-5.9944,-8.5706,-0.4103,-8.2007,-8.4286,1.4431,-2.3714,-0.3599,-1.5402,-2.4342,-4.6357,-2.5757,-3.2209,-2.3545,2.0033,-3.4156
230.4688,4.1323,-0.0292,1.8436,-7.2338,-9.0933,1.9823,0.7097,-10.2357,0.7930,-1.7684,-2.9424,-2.4155,-2.3568,-4.5079,-5.7718,-4.6546,-1.5387,2.3950,-3.3851
234.3750,4.5362,1.0600,0.6290,-7.8267,-9.3705,2.2163,3.4278,-10.8700,1.6081,0.2412,-3.9911,-2.3418,-2.3922,-5.2580,-7.3044,-5.9853,-1.3907,3.4893,-2.8860
238.2812,3.9481,1.0828,-0.3615,-7.5406,-9.0235,0.3339,-0.6565,-10.0973,3.8709,3.0400,-2.6303,-1.0496,-2.3050,-6.6312,-6.1686,-6.4819,-1.6898,4.8893,-1.8231
242.1875,2.6314,0.2644,-0.2374,-6.4707,-8.0068,-2.7045,-8.1535,-8.1782,6.5565,5.4578,0.6734,1.1893,-2.0804,-8.1624,-2.6957,-5.5824,-2.1687,5.8401,-0.4180
246.0938,1.0357,-0.8050,1.1506,-5.0720,-6.7812,-5.4374,-14.0518,-5.7990,8.2118,6.3588,4.2737,3.5600,-2.0388,-9.4435,1.5219,-3.3891,-2.7360,5.6406,0.6762
250.0000,-0.3918,-1.5767,2.9656,-4.0037,-6.1247,-6.5908,-15.0602,-3.8182,7.7913,5.2506,6.2040,5.0038,-2.6653,-10.2759,4.4335,-0.7885,-3.4971,4.0287,0.6093
253.9062,-1.4041,-1.9066,3.8345,-3.8172,-6.6622,-5.7241,-11.6414,-2.9011,5.2375,2.5360,5.2384,4.6975,-4.2614,-10.6501,4.5796,0.9424,-4.5989,1.3262,-1.1669
257.8125,-2.0550,-2.1207,2.7131,-4.6428,-8.4067,-3.4999,-7.4087,-3.1981,1.4739,-0.7522,1.5327,2.4638,-6.6620,-10.6169,1.7617,0.8168,-6.0363,-1.7207,-4.4586
261.7188,-2.6411,-2.7464,-0.4158,-6.0676,-10.6274,-1.4007,-6.4191,-4.2396,-2.1525,-3.5454,-3.5182,-1.1197,-9.2242,-10.1752,-3.0183,-1.3229,-7.5663,-4.2980,-8.2764
265.6250,-3.5108,-4.1050,-4.4754,-7.3072,-12.1599,-0.9768,-10.3197,-5.1430,-4.6040,-5.2605,-8.0841,-4.9825,-11.1034,-9.2584,-8.2124,-4.7385,-8.7719,-5.8701,-11.2585
269.5312,-4.8396,-6.0595,-7.8955,-7.6045,-12.0029,-2.9793,-17.3158,-5.0728,-5.6169,-5.9241,-10.8494,-8.0479,-11.6465,-7.8186,-12.4921,-8.2121,-9.2244,-6.3367,-12.3382
273.4375,-6.4921,-8.0865,-9.4812,-6.6436,-9.8673,-6.8438,-23.5523,-3.7407,-5.6571,-5.8874,-11.5468,-9.6767,-10.6698,-5.9361,-15.1627,-10.6511,-8.6515,-5.9609,-11.2598
277.3438,-8.0466,-9.6011,-9.0085,-4.7502,-6.3717,-10.8592,-25.7915,-1.6673,-5.4675,-5.4248,-10.8121,-9.8353,-8.4859,-3.8720,-16.0914,-11.5118,-7.0443,-5.1573,-8.6480
281.2500,-8.9810,-10.2789,-7.2159,-2.7544,-2.7767,-12.9986,-23.4464,-0.0115,-5.5422,-4.5596,-9.5444,-8.9332,-5.7137,-2.0262,-15.3771,-10.8478,-4.6866,-4.2869,-5.6201
285.1562,-8.9315,-10.1465,-5.2624,-1.5810,-0.4026,-12.0021,-18.6306,0.0066,-5.8617,-3.2341,-8.2474,-7.4722,-3.0183,-0.8176,-13.1241,-9.0600,-2.1085,-3.5599,-3.2064
289.0625,-7.8895,-9.4049,-4.0292,-1.7704,-0.0247,-8.1055,-14.3787,-2.1782,-6.0059,-1.6165,-6.7831,-5.7479,-0.9205,-0.5385,-9.5029,-6.5933,0.0339,-3.0423,-1.9151
292.9688,-6.2300,-8.1739,-3.6911,-3.1837,-1.5416,-2.9701,-12.4673,-6.0212,-5.5137,-0.2083,-4.6633,-3.7878,0.2716,-1.2465,-4.9909,-3.7913,1.1439,-2.7077,-1.6486
296.8750,-4.5383,-6.3993,-3.7644,-5.0454,-4.0610,1.1887,-12.4128,-9.9805,-4.2193,0.4118,-1.6270,-1.5402,0.4534,-2.7332,-0.5031,-0.9475,0.8896,-2.4732,-1.9355
300.7812,-3.3179,-4.0171,-3.5367,-6.3138,-6.3451,2.7930,-12.2444,-12.2134,-2.3635,0.0355,1.9250,0.8478,-0.2989,-4.5841,2.7978,1.5754,-0.6538,-2.2158,-2.2781
304.6875,-2.7339,-1.2282,-2.5761,-6.1953,-7.3919,1.7263,-10.3209,-11.5222,-0.4502,-0.9219,4.9608,2.8858,-1.7393,-6.3087,3.9673,3.3162,-3.0098,-1.8012,-2.3987
308.5938,-2.5463,1.3824,-1.0089,-4.5415,-6.8714,-0.6965,-6.7607,-8.0254,1.0161,-1.6332,6.3189,3.8753,-3.4768,-7.4874,2.7488,3.8406,-5.4739,-1.1456,-2.2823
312.5000,-2.2873,3.0495,0.5760,-1.9171,-5.2070,-2.5852,-3.4299,-3.1398,1.7409,-1.4345,5.3813,3.2838,-5.0421,-7.8737,-0.2489,2.9575,-7.3745,-0.2793,-2.0533
316.4062,-1.5929,3.2612,1.5126,0.7014,-3.2705,-2.6353,-2.5415,1.1570,1.6994,-0.3390,2.5015,1.1498,-5.9935,-7.4080,-3.7874,0.8853,-8.2812,0.6451,-1.8037
320.3125,-0.4928,2.1151,1.4855,2.4336,-1.8620,-0.8944,-4.9208,3.3799,1.0662,0.9374,-1.0879,-1.7537,-6.0211,-6.1539,-6.5220,-1.7416,-8.0600,1.4289,-1.4887
324.2188,0.5353,0.3106,0.7364,2.9253,-1.2682,1.3102,-9.2070,3.2857,0.1012,1.4997,-3.8589,-4.1540,-5.0130,-4.2221,-7.5415,-4.0543,-6.7801,1.9430,-0.9444
328.1250,0.8130,-1.2618,-0.0844,2.4518,-1.1591,2.2148,-12.5868,1.8705,-0.9347,0.9671,-4.7507,-4.8554,-3.0840,-1.7533,-6.6767,-5.2522,-4.5885,2.1908,-0.0201
332.0312,-0.1141,-2.0688,-0.3413,1.6402,-0.8928,0.7129,-12.6016,0.6242,-1.8213,-0.2155,-3.6946,-3.3811,-0.5879,1.0107,-4.4819,-4.9125,-1.6794,2.2523,1.2425
335.9375,-2.1294,-2.2407,0.1346,0.9915,-0.0455,-2.9441,-8.8474,0.5246,-2.4114,-1.1272,-1.6192,-0.3270,1.8812,3.6284,-1.9471,-3.1817,1.6093,2.1357,2.4805
339.8438,-4.5107,-2.4167,0.8567,0.5190,1.1786,-7.2235,-3.4449,1.4167,-2.6732,-1.1403,0.0647,2.8150,3.5513,5.4500,-0.0907,-0.7512,4.6789,1.6572,3.0375
343.7500,-6.2698,-3.2450,0.9047,-0.2503,1.9543,-10.0947,0.0740,2.1683,-2.7287,-0.5065,0.2135,4.3318,3.6587,5.7883,0.4100,1.4033,6.7025,0.4765,2.1980
347.6562,-6.6941,-4.8984,-0.5357,-1.8984,1.3096,-10.0705,-1.1665,1.4816,-2.8355,-0.2588,-1.4693,3.1525,1.7663,4.2434,-0.5689,2.4349,6.8973,-1.6855,-0.4272
351.5625,-5.7711,-6.9443,-3.6167,-4.6034,-1.1927,-6.9551,-7.5976,-1.1821,-3.2822,-1.4369,-4.3234,-0.5478,-1.9060,1.0257,-2.6041,2.0098,4.9480,-4.7591,-4.5411
355.4688,-4.2244,-8.6375,-7.5951,-7.8338,-4.9881,-1.9392,-16.7989,-5.1657,-4.2215,-4.1876,-7.1256,-5.3402,-6.3414,-2.9337,-4.9409,0.4594,1.3365,-8.1630,-9.0524
359.3750,-3.1078,-9.3957,-11.0876,-10.4669,-8.5897,2.9646,-24.7773,-8.9266,-5.5248,-7.4294,-8.7442,-9.1729,-9.9492,-6.2167,-6.8252,-1.4080,-2.6758,-10.9114,-12.3614
363.2812,-3.1765,-9.1037,-12.6948,-11.2840,-10.2297,5.8433,-28.2268,-10.8630,-6.7528,-9.3930,-8.6812,-10.3347,-11.1426,-7.4415,-7.8033,-2.7502,-5.4925,-11.9796,-12.9798
367.1875,-4.4043,-8.0594,-11.6580,-9.5611,-8.7376,5.7232,-26.4241,-10.1204,-7.2895,-8.7104,-7.2213,-8.2659,-9.0422,-5.8456,-7.8468,-3.1418,-5.8792,-10.7572,-10.2127
371.0938,-5.9452,-6.6632,-8.1999,-5.4303,-4.1753,2.9548,-21.5678,-6.9185,-6.6046,-5.3142,-5.1558,-3.8021,-3.9491,-1.6417,-7.2556,-2.7625,-3.5631,-7.3554,-4.5524
375.0000,-6.5810,-5.1379,-3.3893,0.1594,2.1247,-0.9998,-17.2708,-2.2942,-4.5281,-0.5290,-3.2940,1.2645,2.6881,4.0380,-6.4211,-2.2055,0.5989,-2.6144,2.4469
378.9062,-5.4104,-3.5027,1.3511,5.8099,8.1327,-4.2594,-16.0885,2.4645,-1.4063,3.6985,-2.0747,5.0600,8.8344,9.5795,-5.6130,-2.0433,4.9918,2.1886,8.7724
382.8125,-2.3889,-1.7829,4.8116,10.1498,11.9937,-5.3702,-17.6590,6.3000,1.9592,5.8961,-1.4811,6.4809,12.6969,13.4975,-4.9174,-2.4389,7.9804,5.7839,12.7399
386.7188,1.5902,-0.2174,6.3713,12.2057,12.7530,-3.9203,-18.7567,8.5581,4.5900,5.7763,-1.2341,5.6039,13.4203,14.9398,-4.3216,-3.0552,8.6413,7.3223,13.5865
390.6250,5.1159,0.7650,6.0780,11.5871,10.6082,-0.6529,-15.3866,8.9210,5.7273,4.1668,-1.0627,3.4915,11.3297,13.8918,-3.8265,-3.3001,7.1312,6.6130,11.6199
394.5312,6.9465,0.8223,4.4992,8.5221,6.6414,2.9527,-5.6799,7.3255,5.1766,2.3333,-0.8321,1.5562,7.6522,11.0486,-3.4582,-2.7132,4.5287,4.1394,7.9243
398.4375,6.5906,0.0101,2.4730,3.8025,2.2458,5.4063,8.3029,4.0154,3.4339,1.2310,-0.4653,0.8498,3.9065,7.4626,-3.1597,-1.2247,2.2595,0.8755,3.8392
402.3438,4.4887,-1.1545,0.8476,-1.3680,-1.4452,5.8685,21.1714,-0.3456,1.5041,1.1532,0.2093,1.6324,1.2761,4.1352,-2.6875,0.8538,1.4056,-2.0364,0.4764
406.2500,1.7363,-1.9681,0.2365,-5.6628,-3.8821,4.4362,27.0182,-4.7065,0.4680,1.8628,1.4820,3.3899,0.2358,1.7017,-1.6631,3.0394,2.2328,-3.6602,-1.5493
410.1562,-0.4697,-1.9791,0.8097,-8.0446,-5.1052,1.9542,22.7790,-7.9371,0.9762,2.9263,3.5584,5.2122,0.5317,0.2932,0.1797,4.8915,4.1384,-3.5842,-2.1561
414.0625,-1.3620,-1.2661,2.1962,-8.1587,-5.5130,-0.4892,10.0536,-9.2971,2.9152,3.9202,6.2441,6.2912,1.4507,-0.4002,2.6954,6.0881,6.0083,-2.0604,-1.6743
417.9688,-0.8652,-0.3488,3.5958,-6.4821,-5.5427,-2.0809,-5.7549,-8.7712,5.4242,4.4206,8.7827,6.2775,2.2129,-0.8995,5.2146,6.3881,6.7888,0.1183,-0.6559
421.8750,0.4816,0.1935,4.1259,-4.0859,-5.4157,-2.5609,-18.4235,-7.0130,7.2781,3.9648,10.0561,5.3538,2.3151,-1.6275,6.7644,5.6210,5.9907,1.9776,0.3299
425.7812,1.8450,0.1008,3.2697,-2.0892,-5.0433,-2.1777,-24.1369,-4.9106,7.4639,2.2077,9.1248,4.0425,1.6997,-2.6516,6.5433,3.7969,3.8935,2.8023,0.8844
429.6875,2.4700,-0.4727,1.1747,-1.1025,-4.1285,-1.4354,-23.0374,-3.0664,5.6621,-0.7418,5.8131,2.8785,0.6987,-3.6184,4.3715,1.2605,1.3631,2.4316,0.8942
433.5938,1.9440,-1.1854,-1.4069,-1.0007,-2.4115,-0.8177,-18.3695,-1.5561,2.3893,-4.0925,0.9595,2.1215,-0.2125,-3.9419,0.8330,-1.2998,-0.6152,1.2435,0.5189
437.5000,0.2815,-1.8347,-3.5339,-1.1619,0.0600,-0.6252,-14.0620,-0.1167,-1.2693,-6.5698,-3.8818,1.6392,-0.7280,-3.1729,-2.9859,-3.1135,-1.4487,-0.1551,0.0385
441.4062,-2.1439,-2.4857,-4.5968,-0.9937,2.8000,-0.9384,-12.4444,1.4210,-4.1864,-7.0604,-7.1629,1.0144,-0.9160,-1.3435,-5.9939,-3.7543,-1.2238,-1.3280,-0.3561
445.3125,-4.7495,-3.2914,-4.6033,-0.3638,5.0084,-1.6433,-13.4336,2.8347,-5.6881,-5.3239,-8.0807,-0.1745,-1.1738,0.9434,-7.5256,-3.4300,-0.6091,-2.2298,-0.6798
449.2188,-6.9071,-4.1723,-4.0417,0.3780,5.9335,-2.4644,-15.3364,3.6149,-5.7637,-2.2459,-6.8953,-2.0293,-1.9210,2.7789,-7.4863,-2.8645,-0.4192,-3.0985,-1.0750
453.1250,-8.0844,-4.6666,-3.4363,0.7884,5.2942,-3.0119,-16.3441,3.4064,-4.9067,0.6264,-4.6503,-4.1412,-3.2064,3.4462,-6.2095,-2.7829,-1.0866,-4.1059,-1.5785
457.0312,-7.9526,-4.1402,-2.9350,0.8135,3.5051,-2.8879,-15.5684,2.4241,-3.7249,2.0076,-2.4908,-5.6694,-4.5035,2.8489,-4.2110,-3.3463,-2.3555,-5.0402,-1.9264
460.9375,-6.4591,-2.2548,-2.2473,0.9581,1.5209,-1.8606,-13.1047,1.4697,-2.5803,1.6320,-1.0244,-5.7113,-4.9043,1.5798,-2.0288,-3.9846,-3.4095,-5.2931,-1.6036
464.8438,-3.8525,0.6463,-0.9729,1.9587,0.3394,-0.0371,-9.4719,1.4650,-1.4722,0.3146,-0.1216,-3.8177,-3.6704,0.5498,-0.1964,-3.8219,-3.3834,-4.2127,-0.1837
468.7500,-0.6472,3.5462,0.9409,4.1617,0.4326,2.0883,-5.1542,2.7971,-0.2047,-0.7178,0.7543,-0.3850,-0.8323,0.3918,0.7631,-2.4345,-1.9682,-1.6158,2.2391
472.6562,2.4814,5.2080,2.9923,7.0604,1.4539,3.7876,-0.6446,4.9477,1.3132,-0.7177,1.9566,3.3395,2.5830,1.0268,0.4539,-0.3712,0.2761,1.8981,4.8572
476.5625,4.8614,4.8094,4.3603,9.3788,2.4299,4.4187,3.2394,6.7052,2.8665,0.1308,3.2422,5.7277,4.9341,1.6970,-1.1669,1.0306,2.1296,5.0935,6.4242
480.4688,6.0086,2.3693,4.4323,9.7239,2.3429,3.7540,5.3133,6.8560,3.9842,1.0096,3.8409,5.5411,4.8177,1.4687,-3.6155,0.5045,2.3657,6.6759,5.9133
484.3750,5.7721,-1.2742,3.2383,7.4232,0.7564,2.1290,4.5352,4.9122,4.2107,1.2335,2.9751,2.6196,1.9099,-0.1136,-5.9597,-2.1679,0.4772,5.9832,3.1763
488.2812,4.3781,-4.8823,1.4596,3.0134,-1.9101,0.3056,0.7654,1.4069,3.4142,0.8491,0.4834,-1.9087,-2.7347,-2.6607,-7.1945,-5.7806,-2.9648,3.3740,-0.8421
492.1875,2.3387,-7.3518,-0.0100,-1.9543,-4.6298,-0.9004,-4.8626,-2.4212,1.9147,0.5785,-2.8849,-6.0626,-7.1593,-5.1200,-6.7371,-8.2828,-6.5548,0.0677,-4.5260
496.0938,0.2455,-8.0848,-0.6423,-5.6871,-6.3816,-1.0408,-10.3660,-5.3237,0.3356,1.1585,-5.7319,-7.9083,-9.5086,-6.3977,-4.7386,-8.0018,-8.7766,-2.4789,-6.4280
500.0000,-1.4665,-7.0797,-0.5813,-7.0425,-6.7323,-0.2825,-13.9253,-6.6658,-0.7337,2.6274,-6.7077,-6.4705,-8.9701,-6.0178,-2.0016,-4.7187,-8.7859,-3.2994,-6.0156
503.9062,-2.6703,-4.8217,-0.4715,-6.0179,-6.0224,0.6617,-14.8096,-6.6148,-1.0509,4.1599,-5.2419,-2.1796,-6.1038,-4.3860,0.4509,0.1340,-6.8018,-2.3389,-3.8692
507.8125,-3.5259,-2.1092,-0.9478,-3.5959,-5.0598,0.8996,-13.6098,-5.8516,-0.8107,4.6222,-1.8805,3.3705,-2.3964,-2.4952,1.8841,4.3052,-3.9020,-0.3591,-1.2336
511.7188,-4.2937,0.1250,-2.1648,-1.1042,-4.5513,-0.1521,-11.7118,-5.0656,-0.4623,3.4332,1.9667,8.2003,0.6303,-1.2907,2.1233,6.0405,-1.3839,1.5696,0.7487
515.6250,-5.0923,1.0352,-3.6921,0.4832,-4.6606,-2.4151,-10.4738,-4.5805,-0.3859,1.0589,4.7229,10.8248,2.1782,-1.1340,1.4586,5.0198,-0.1004,2.6576,1.6116
519.5312,-5.7623,0.1564,-4.8212,0.9083,-4.9749,-5.1365,-10.6728,-4.3001,-0.6475,-1.2663,5.3916,10.7851,2.3631,-1.7120,0.3096,2.3442,-0.1504,2.7305,1.6087
523.4375,-5.9469,-2.3232,-5.0396,0.5233,-4.8689,-7.2520,-12.4262,-3.9150,-0.9992,-2.4051,3.9533,8.6186,1.8170,-2.4132,-1.0777,-0.3367,-1.0427,2.1590,1.2842
527.3438,-5.3602,-5.5051,-4.3348,-0.1111,-3.9904,-7.9511,-15.3594,-3.1620,-1.1199,-2.1283,1.2280,5.3868,1.0750,-2.8557,-2.6940,-1.8977,-2.1444,1.4934,0.9504
531.2500,-4.0778,-8.0895,-3.1514,-0.6124,-2.5243,-7.1337,-18.6912,-1.9589,-0.9277,-1.2610,-1.6690,2.0954,0.2120,-3.1616,-4.5901,-2.2816,-3.0732,1.0664,0.4732
535.1562,-2.6356,-8.9827,-2.0841,-0.9195,-1.0727,-5.4757,-21.2062,-0.3912,-0.7369,-1.0586,-3.9373,-0.6706,-1.0501,-3.7773,-6.6499,-2.2334,-3.7986,0.8064,-0.5103
539.0625,-1.8265,-7.8934,-1.5550,-1.1787,-0.2578,-4.0355,-21.4194,1.3530,-1.1293,-2.2775,-5.4178,-2.7734,-2.9192,-4.9951,-8.5192,-2.5405,-4.4559,0.3425,-2.1622
542.9688,-2.2795,-5.5409,-1.6781,-1.5297,-0.3442,-3.6186,-18.2059,3.0018,-2.5972,-4.6277,-6.4865,-4.3171,-5.1761,-6.5632,-9.7599,-3.4090,-5.0850,-0.7043,-4.1739
546.8750,-4.0661,-3.2961,-2.3338,-1.9796,-1.1380,-4.2908,-11.7059,4.1717,-5.1724,-6.9885,-7.6293,-5.4212,-7.1822,-7.7180,-10.1104,-4.4185,-5.5258,-2.4409,-5.8847
550.7812,-6.5943,-2.4293,-3.3203,-2.4395,-2.2115,-5.3686,-3.8400,4.3859,-8.2831,-8.1991,-9.0009,-6.1259,-8.2527,-7.6578,-9.6542,-5.0047,-5.5445,-4.5969,-6.6982
554.6875,-8.8862,-3.4072,-4.4344,-2.8554,-3.2667,-5.9088,2.2170,3.2178,-10.9551,-7.8240,-10.2589,-6.4357,-8.1109,-6.1408,-8.7697,-5.0090,-5.0684,-6.6357,-6.4811
558.5938,-10.0921,-5.6685,-5.4576,-3.2991,-4.3630,-5.3827,3.5916,0.5342,-12.2668,-6.3541,-10.7764,-6.4003,-7.0880,-3.7717,-7.9021,-4.8251,-4.3211,-8.0014,-5.6477
562.5000,-9.9335,-8.0067,-6.1355,-3.9330,-5.8406,-4.0672,-0.5596,-3.3053,-11.8119,-4.7510,-10.0908,-6.1375,-5.9290,-1.7383,-7.3195,-5.0391,-3.7385,-8.3607,-4.8822
566.4062,-8.8024,-9.3029,-6.2462,-4.8703,-7.9927,-2.8647,-8.3376,-7.4513,-9.9058,-3.7329,-8.2844,-5.7818,-5.3511,-1.1327,-7.0101,-5.8834,-3.7168,-7.7258,-4.7111
570.3125,-7.4626,-9.1425,-5.7446,-6.0438,-10.7207,-2.6609,-16.0380,-10.8273,-7.4159,-3.3509,-6.0345,-5.4281,-5.6565,-2.2854,-6.7696,-6.9791,-4.3736,-6.4223,-5.2281
574.2188,-6.5510,-7.9479,-4.8500,-7.1861,-13.4165,-3.6675,-20.2437,-12.5464,-5.3073,-3.1322,-4.2712,-5.1307,-6.6310,-4.5462,-6.3911,-7.5927,-5.4815,-4.9369,-6.1220
578.1250,-6.2048,-6.5944,-3.9582,-7.9491,-15.1753,-5.2286,-19.7240,-12.2730,-4.1571,-2.6096,-3.6430,-4.9539,-7.7449,-6.6601,-5.8212,-7.2164,-6.6053,-3.7286,-6.9335
582.0312,-6.0445,-5.7988,-3.3877,-8.0859,-15.2256,-6.2403,-15.8823,-10.3410,-3.9056,-1.7733,-4.1227,-5.0045,-8.4786,-7.5019,-5.1913,-6.0160,-7.3345,-3.0792,-7.3196
585.9375,-5.4970,-5.6889,-3.1319,-7.5756,-13.3313,-5.8866,-11.5119,-7.5694,-3.9675,-1.0792,-5.0130,-5.3824,-8.5608,-6.7102,-4.7242,-4.7852,-7.4580,-3.0273,-7.1588
589.8438,-4.2206,-5.8071,-2.8264,-6.6106,-9.9388,-4.1600,-8.8166,-4.8812,-3.6259,-1.0328,-5.3687,-6.0668,-8.0193,-4.8421,-4.5937,-4.4310,-7.0018,-3.3953,-6.4956
593.7500,-2.3399,-5.4991,-1.9989,-5.4588,-5.9925,-1.7949,-8.1171,-2.9207,-2.4696,-1.7039,-4.5806,-6.8311,-7.0880,-2.9832,-4.8180,-5.3597,-6.1538,-3.8791,-5.4467
597.6562,-0.3523,-4.4077,-0.4525,-4.2993,-2.5258,0.3113,-8.0760,-1.8543,-0.6261,-2.5782,-2.7557,-7.2844,-6.0754,-2.0893,-5.2314,-7.1984,-5.1610,-4.1642,-4.1771
601.5625,1.1991,-2.7453,1.5018,-3.1465,-0.2450,1.7281,-7.1001,-1.4284,1.3294,-2.8703,-0.6476,-7.0482,-5.2630,-2.4707,-5.5330,-9.0228,-4.2585,-4.0243,-2.9301
605.4688,2.0348,-1.1830,3.1623,-1.9135,0.6925,2.6835,-4.7526,-1.2227,2.7176,-2.0575,0.8236,-5.9646,-4.8269,-3.7069,-5.3885,-9.8954,-3.6273,-3.3764,-2.0092
609.3750,2.2213,-0.4328,3.8630,-0.5629,0.6241,3.6858,-2.1247,-0.9429,3.1399,-0.2338,1.1544,-4.1950,-4.7677,-4.9838,-4.5573,-9.3293,-3.3515,-2.2827,-1.6432
613.2812,2.0051,-0.7783,3.4313,0.7774,0.1196,4.9088,-1.0153,-0.5808,2.6855,1.9717,0.5676,-2.1357,-4.8711,-5.5947,-3.0108,-7.4074,-3.3691,-0.9089,-1.8037
617.1875,1.5641,-1.8374,2.3505,1.8378,-0.3264,5.8741,-2.6819,-0.3544,1.8568,3.8223,-0.1558,-0.2130,-4.7686,-5.2887,-0.9988,-4.5811,-3.4667,0.5369,-2.1439
621.0938,0.8928,-2.7107,1.4884,2.3752,-0.4839,5.7270,-7.1277,-0.4707,1.2743,4.9100,-0.2119,1.2958,-4.1262,-4.2911,0.9845,-1.3918,-3.3640,1.8586,-2.1741
625.0000,-0.0953,-2.4646,1.5464,2.3704,-0.3872,3.9185,-13.3085,-0.8733,1.3384,5.2832,0.6737,2.2984,-2.8837,-3.0547,2.3517,1.6539,-2.8749,2.8996,-1.6025
628.9062,-1.3510,-0.7080,2.5808,2.0953,-0.1867,0.7537,-19.8413,-1.1688,2.0297,5.2125,2.0393,2.7868,-1.3767,-1.9503,2.6489,4.0417,-2.0457,3.5399,-0.6003
632.8125,-2.5743,2.0559,3.9123,1.9571,0.0192,-2.6584,-25.4940,-0.8285,2.9373,4.8339,2.9596,2.7211,-0.2125,-1.1035,1.7556,5.2151,-1.1607,3.6771,0.2380
636.7188,-3.3369,4.5349,4.4902,2.1911,0.2464,-5.0650,-29.1381,0.4177,3.4763,3.9900,2.6183,2.0267,0.0732,-0.4437,-0.0476,4.7240,-0.5792,3.2159,0.2645
640.6250,-3.3843,5.2200,3.4958,2.6029,0.5421,-5.8669,-29.5245,2.2418,3.1669,2.4154,0.8109,0.7231,-0.6316,0.1224,-2.1962,2.5260,-0.5040,2.0905,-0.7625
644.5312,-2.8879,3.1693,0.8287,2.5764,0.8279,-5.4596,-25.5075,3.7017,1.8439,0.1140,-1.9334,-0.9342,-1.9067,0.5701,-4.0911,-0.7978,-0.8450,0.3231,-2.4647
648.4375,-2.4224,-1.4094,-2.7971,1.4084,0.8101,-4.8616,-16.8996,3.6508,-0.2834,-2.4025,-4.6667,-2.4574,-3.0426,0.7546,-5.3498,-4.1652,-1.2883,-1.9088,-4.0575
652.3438,-2.6265,-7.1272,-6.1828,-1.1984,0.0644,-4.9156,-5.3734,1.3994,-2.7171,-4.2587,-6.5509,-3.3359,-3.4905,0.5353,-5.9288,-6.4763,-1.5247,-4.2450,-4.8567
656.2500,-3.7489,-12.0035,-8.2027,-4.7932,-1.7102,-5.6685,5.5346,-2.7546,-4.8499,-4.6993,-7.2605,-3.3383,-3.2115,-0.0785,-6.0553,-7.1819,-1.4679,-6.1993,-4.7167
660.1562,-5.3962,-14.3909,-8.2994,-8.2521,-4.4165,-6.3900,11.7725,-7.4973,-6.1659,-3.5942,-7.0336,-2.6886,-2.6726,-0.8796,-6.0285,-6.5438,-1.2917,-7.3066,-4.0810
664.0625,-6.6909,-13.7389,-6.6868,-10.2863,-7.4550,-6.1865,10.8907,-11.0663,-6.3961,-1.5905,-6.3921,-1.9574,-2.4841,-1.5542,-6.0156,-5.3824,-1.2587,-7.3066,-3.6095
667.9688,-6.7748,-10.7719,-4.2009,-10.1148,-9.9085,-4.7186,3.5814,-12.1397,-5.5844,0.2398,-5.7557,-1.6989,-2.9362,-1.8557,-5.9649,-4.4716,-1.4800,-6.2675,-3.6637
671.8750,-5.3504,-7.0021,-1.8964,-7.9021,-10.9557,-2.4731,-6.5136,-10.5367,-4.0430,1.0551,-5.2105,-2.0593,-3.7659,-1.7495,-5.6750,-4.0151,-1.8078,-4.5665,-4.0352
675.7812,-2.9018,-3.8893,-0.5806,-4.6759,-10.2927,-0.4111,-14.7606,-7.3009,-2.2114,0.7749,-4.5468,-2.6261,-4.3201,-1.4339,-4.9559,-3.5879,-1.9556,-2.7149,-4.1092
679.6875,-0.4391,-2.1531,-0.4762,-1.7640,-8.3072,0.6981,-18.0584,-4.0969,-0.4794,0.1156,-3.4925,-2.6420,-3.9919,-1.2207,-3.7649,-2.5782,-1.7525,-1.1129,-3.3244
683.5938,1.0742,-1.6210,-1.1559,-0.0936,-5.8883,0.7227,-16.3155,-2.2825,0.9361,0.0734,-1.9586,-1.4756,-2.6240,-1.3536,-2.2387,-0.7921,-1.3256,0.1156,-1.5838
687.5000,1.2395,-1.6260,-1.7836,0.2166,-3.9728,0.0794,-11.9968,-2.2148,1.9879,1.1778,-0.1480,0.9308,-0.6171,-1.8781,-0.6228,1.2509,-1.0536,1.0941,0.6705
691.4062,0.3542,-1.6238,-1.5747,-0.2660,-3.0954,-0.7565,-8.2049,-3.1978,2.6677,3.0093,1.4980,3.9032,1.2917,-2.6450,0.8223,2.5652,-1.3222,1.9719,2.7229
695.3125,-0.9094,-1.5917,-0.2709,-0.8220,-3.2036,-1.6868,-6.7141,-4.0599,2.8453,4.3330,2.4459,6.2636,2.3887,-3.4415,1.8557,2.3159,-2.2696,2.6546,3.9508
699.2188,-2.0283,-1.9685,1.6208,-1.1401,-3.8218,-2.9933,-7.2570,-3.9563,2.2164,3.8078,2.2244,6.8252,2.2413,-4.1573,2.2183,0.3554,-3.7188,2.6972,4.0179
703.1250,-2.9683,-3.2269,3.0008,-1.5112,-4.4176,-4.9156,-8.3289,-2.8729,0.4557,0.8560,0.5652,4.9155,0.7540,-4.8598,1.6019,-2.6972,-5.3293,1.4923,2.8270
707.0312,-4.0917,-5.4122,2.7348,-2.5324,-4.7088,-7.1876,-8.6592,-1.5394,-2.4787,-3.8553,-2.4632,0.6985,-1.8919,-5.7093,-0.2737,-5.8591,-6.8177,-1.3050,0.3975
710.9375,-5.7072,-7.9693,0.3364,-4.5431,-4.7168,-8.9649,-8.1414,-0.8676,-6.0818,-8.6482,-6.3461,-4.8183,-5.2672,-6.7555,-3.4520,-8.3423,-8.0432,-5.3644,-3.1136
714.8438,-7.6168,-9.9608,-3.6134,-7.2091,-4.5764,-9.2644,-7.6108,-1.3297,-9.3129,-11.6796,-10.1327,-10.0889,-8.6584,-7.7576,-7.5112,-9.8657,-8.8939,-9.5851,-7.2151
718.7500,-9.0387,-10.5237,-7.6045,-9.5721,-4.2965,-7.6198,-7.8529,-2.6922,-10.9801,-11.9158,-12.6705,-13.5467,-11.0943,-8.1856,-11.5166,-10.5563,-9.1141,-12.4717,-10.9286
722.6562,-9.0341,-9.2915,-9.8955,-10.5648,-3.6919,-4.4732,-8.7976,-4.2400,-10.3566,-9.6690,-13.0665,-14.1832,-11.6034,-7.4628,-14.2916,-10.6224,-8.3057,-12.8513,-12.9704
726.5625,-7.1872,-6.5747,-9.4259,-9.6686,-2.5573,-1.0094,-9.5876,-5.2830,-7.6796,-6.3875,-11.1843,-11.9839,-9.6974,-5.3478,-14.9478,-10.1392,-6.2040,-10.5512,-12.3373
730.4688,-4.0628,-3.2522,-6.4288,-7.2822,-0.9436,1.4586,-9.3968,-5.5683,-4.1831,-3.8343,-7.8666,-8.0149,-5.8230,-2.2267,-13.3888,-9.1343,-3.0671,-6.6110,-8.9953
734.3750,-1.0619,-0.4576,-2.3561,-4.5525,0.6997,2.1440,-8.2295,-5.3349,-1.5463,-3.1407,-4.6434,-4.0352,-1.4115,0.9030,-10.4435,-7.8401,0.1571,-2.8359,-4.1690
738.2812,0.3230,0.8158,0.8814,-2.7531,1.6731,1.0910,-6.9737,-5.0255,-1.0016,-4.2673,-2.9764,-1.7194,1.6682,2.8205,-7.4604,-6.7882,2.1375,-0.8767,0.1067
742.1875,-0.5696,0.0845,1.9481,-2.5847,1.4019,-0.9799,-6.6461,-4.9122,-2.5997,-6.1336,-3.4168,-1.8189,2.0499,2.6723,-5.5445,-6.5427,1.8596,-1.3322,2.0267
746.0938,-3.0639,-2.3797,0.7954,-3.8077,-0.2053,-3.0889,-7.4668,-4.9189,-5.0966,-7.2804,-5.2011,-3.7174,-0.3270,0.4445,-4.8970,-7.2107,-0.6926,-3.3994,1.0508
750.0000,-5.4340,-5.5415,-1.3679,-5.4117,-2.6642,-4.3875,-8.5613,-4.7470,-6.5896,-6.6463,-6.6076,-5.7037,-4.0906,-2.9740,-4.7167,-8.1476,-4.3601,-5.3059,-1.7510
753.9062,-5.8720,-7.9153,-2.8245,-6.1996,-5.1626,-4.3694,-8.5786,-4.1711,-5.5809,-4.0400,-5.9478,-5.8993,-7.1344,-6.2047,-3.7846,-8.1996,-7.3380,-5.3013,-4.3152
757.8125,-3.5735,-8.1665,-2.3637,-5.4342,-6.9836,-2.9392,-6.7756,-3.2557,-1.8592,-0.1225,-2.6309,-3.3543,-7.7623,-8.0545,-1.3851,-6.4344,-8.1406,-2.6479,-4.8132
761.7188,0.7293,-5.7730,0.0406,-3.1889,-7.8300,-0.4464,-3.7386,-2.3278,3.3244,3.9861,2.3635,1.3444,-5.5910,-8.0766,2.0551,-2.8799,-6.4164,1.9605,-2.7176
765.6250,5.1359,-1.3955,3.2726,-0.2414,-7.8551,2.3191,-1.1734,-1.7359,7.9066,7.1962,6.9457,6.3646,-1.6623,-6.7002,5.0910,1.3032,-3.0965,6.7896,0.9666
769.5312,7.6393,3.3240,5.7709,2.3773,-7.4268,4.2916,-0.8824,-1.5934,10.1095,8.7948,9.0757,9.6849,2.2685,-4.8808,6.1234,4.4314,0.2070,10.0191,4.4218
773.4375,7.2400,6.5213,6.4237,3.8936,-6.8324,4.5398,-3.6175,-1.7038,9.3441,8.5660,7.9299,10.2667,4.7717,-3.5082,4.4553,5.3297,2.1437,10.6901,6.1703
777.3438,4.4404,7.0585,5.1216,4.0859,-6.1489,2.8009,-8.5610,-1.7201,6.4085,6.7522,4.3563,8.5931,5.4291,-2.9461,0.8192,4.0716,2.2926,9.1018,5.8859
781.2500,0.8524,5.1243,2.6839,3.2546,-5.3410,-0.1970,-13.7314,-1.4082,2.9154,3.9502,0.3418,6.2254,4.7819,-2.9633,-3.0147,1.8795,1.1669,6.4738,4.3702
785.1562,-1.7937,2.1058,0.2824,1.9519,-4.4563,-2.9436,-17.0230,-0.8163,0.3476,0.9721,-2.1662,4.6836,3.6845,-3.0452,-5.3157,0.2347,-0.3519,4.1432,2.8052
789.0625,-2.5929,-0.2144,-1.2212,0.6754,-3.7104,-3.8951,-17.2473,-0.2233,-0.6642,-1.3536,-2.3371,4.4289,2.6122,-2.8250,-5.4396,-0.1676,-1.6744,2.8279,1.8823
792.9688,-1.7932,-0.6667,-1.6151,-0.3001,-3.3589,-2.3730,-14.6367,0.0833,-0.4444,-2.4427,-0.7778,4.6531,1.4393,-2.3221,-4.1381,0.1528,-2.7677,2.3968,1.4402
796.8750,-0.3848,0.6982,-1.2157,-0.9049,-3.4519,0.9657,-10.6344,0.0285,0.2100,-2.1883,1.0482,4.0154,-0.1985,-1.8433,-2.9368,-0.0300,-3.8891,2.2180,0.8160
800.7812,0.6853,2.7518,-0.4724,-1.1517,-3.6911,4.4474,-7.1616,-0.2007,0.6889,-1.0189,1.8604,1.7888,-2.3152,-1.6589,-3.0337,-1.5796,-5.0801,1.7764,-0.4273
804.6875,1.1015,4.0536,0.3630,-1.0380,-3.5521,6.3424,-5.7415,-0.3114,0.9339,0.3084,1.3502,-1.4280,-4.2849,-1.7328,-4.4941,-4.1816,-5.8954,1.0938,-2.0021
808.5938,1.2009,3.7316,1.2760,-0.5522,-2.6246,5.8749,-6.8418,-0.1456,1.2991,1.1109,0.2268,-3.9747,-5.1341,-1.7210,-6.2794,-6.4169,-5.6254,0.6702,-3.0230
812.5000,1.5025,1.9369,2.2737,0.2426,-0.9376,3.6347,-9.6862,0.1802,2.0857,1.1524,-0.4382,-4.2195,-4.2272,-1.2446,-7.0426,-6.7058,-3.8607,1.0212,-2.6694
816.4062,2.1691,-0.3605,3.1601,1.1437,0.9918,1.1382,-12.6118,0.3539,3.1589,0.7477,-0.0508,-1.7236,-1.8257,-0.2149,-6.0824,-4.4493,-0.9393,2.1803,-0.8731
820.3125,2.8351,-2.0306,3.5366,1.8489,2.4562,-0.1527,-13.8567,0.1137,3.9621,0.5167,1.0829,2.3431,0.9346,1.0525,-3.7803,-0.5362,2.1148,3.5529,1.5004
824.2188,2.9178,-2.4385,3.0599,2.1007,3.0170,0.3010,-12.4509,-0.5108,3.9208,0.9420,2.0226,5.8466,2.6870,2.0401,-1.2633,3.1634,4.1726,4.2468,3.1421
828.1250,2.1325,-1.7028,1.7538,1.8420,2.8015,1.8959,-8.7717,-1.1512,2.9144,2.0204,1.9148,6.9747,2.6809,2.4068,0.3851,4.9652,4.7060,3.6541,3.1345
832.0312,0.7775,-0.4735,0.1007,1.2649,2.4086,3.3901,-4.4220,-1.3006,1.4339,3.2443,0.6251,5.3080,1.2486,2.2532,0.7540,4.3842,4.1012,1.8756,1.5566
835.9375,-0.4610,0.5346,-1.2078,0.6995,2.4677,3.7258,-1.4306,-0.6504,0.2743,3.9185,-1.1711,1.9808,-0.4359,2.0561,0.1506,2.3118,3.3385,-0.3198,-0.5631
839.8438,-1.0418,0.9079,-1.7189,0.4017,3.1510,2.6125,-1.1811,0.6575,-0.0318,3.5896,-2.4831,-1.1315,-1.1468,2.2961,-0.8670,0.2891,3.2569,-1.9847,-1.9147
843.7500,-1.0177,0.5900,-1.5479,0.3781,3.9870,0.5479,-3.6838,2.0380,0.3720,2.2948,-2.7106,-2.6109,-0.4109,3.0404,-2.0048,-0.5581,3.9355,-2.6032,-1.7529
847.6562,-1.0280,-0.3212,-1.3336,0.3710,4.1262,-1.6305,-7.6246,2.7496,0.7250,0.4778,-2.0516,-2.2787,1.2074,3.7954,-3.3529,-0.1660,4.6454,-2.4127,-0.3635
851.5625,-1.8092,-1.8044,-1.8178,0.0245,2.8978,-3.2803,-11.1496,2.3003,0.1601,-1.3374,-1.3376,-1.0958,2.5107,3.7701,-5.0511,0.6372,4.4113,-2.2178,1.1395
855.4688,-3.5798,-3.9556,-3.3224,-0.8712,0.2909,-4.2169,-12.8797,0.7325,-1.6783,-2.8587,-1.4365,-0.3470,2.4675,2.4002,-6.8600,0.9015,2.7779,-2.8257,1.5387
859.3750,-5.7683,-6.7925,-5.4771,-2.2100,-2.9575,-4.6060,-12.5310,-1.3774,-4.3401,-4.0977,-2.6545,-0.7321,0.8718,-0.2100,-8.0823,0.3067,0.2219,-4.4737,0.2912
863.2812,-7.3183,-9.9804,-7.3917,-3.5820,-5.7299,-4.6699,-10.8261,-3.2070,-6.8056,-5.1767,-4.5453,-1.9843,-1.5514,-3.2377,-7.9797,-0.6504,-2.0996,-6.6234,-2.1222
867.1875,-7.3734,-12.7209,-8.1598,-4.4552,-7.1109,-4.4752,-8.8686,-4.0891,-8.0850,-6.0488,-6.2215,-3.1965,-3.6122,-5.5379,-6.3727,-1.1109,-3.0937,-8.2435,-4.4643
871.0938,-5.8576,-13.9570,-7.3658,-4.4159,-6.8251,-3.9447,-7.4794,-3.8033,-7.7716,-6.3794,-6.9156,-3.5322,-4.3560,-6.2557,-3.9139,-0.5558,-2.4530,-8.3922,-5.4398
875.0000,-3.5342,-12.8525,-5.2752,-3.3348,-5.2839,-3.0262,-6.9113,-2.6147,-6.1890,-5.7067,-6.3909,-2.7716,-3.5489,-5.2790,-1.7500,0.7855,-0.8502,-6.7348,-4.3971
878.9062,-1.4979,-9.3033,-2.6137,-1.3918,-3.2601,-1.8333,-7.0020,-1.0727,-4.0710,-3.7793,-4.9544,-1.3363,-1.6905,-3.2649,-0.7711,2.0971,0.5216,-3.6988,-1.6437
882.8125,-0.4619,-4.1763,-0.1200,1.0180,-1.4353,-0.6235,-7.4830,0.2862,-2.0441,-0.8268,-3.1285,0.1424,0.3737,-1.2407,-0.9993,2.5553,0.7434,-0.2148,1.7669
886.7188,-0.3411,0.9219,1.8159,3.4192,-0.1073,0.3700,-8.1302,1.1592,-0.2963,2.4441,-1.2751,1.3188,1.9394,-0.0380,-1.5967,1.8845,-0.2465,2.7595,4.6112
890.6250,-0.4104,4.3040,3.2101,5.3671,0.8059,1.1123,-8.6799,1.5252,1.3525,5.1459,0.5434,2.3029,2.7309,0.1059,-1.5089,0.5133,-1.6562,4.6372,6.0917
894.5312,0.1019,4.9894,4.2561,6.5207,1.5373,1.8001,-8.7197,1.5445,3.0822,6.6154,2.3966,3.4097,2.8779,-0.4277,-0.2752,-0.7396,-2.4018,5.3253,6.1405
898.4375,1.4223,3.2032,5.0244,6.6967,2.2201,2.7083,-7.8063,1.4054,4.7307,6.6771,4.1949,4.7287,2.6837,-0.9547,1.5977,-1.2027,-1.8257,5.0758,5.3042
902.3438,3.0548,0.2766,5.3283,5.9103,2.7794,3.9361,-5.8253,1.2133,5.7689,5.6174,5.5446,5.8839,2.3859,-0.9237,2.9760,-0.7534,-0.0980,4.2265,4.3250
906.2500,4.1166,-2.0525,4.8486,4.3795,3.0016,5.2124,-3.3139,0.9611,5.6303,3.9272,5.8956,6.1919,2.0481,-0.2160,2.8934,0.1424,1.9293,3.0206,3.6782
910.1562,3.9257,-2.5835,3.4070,2.4596,2.6873,5.9035,-1.3979,0.5626,4.1506,2.0140,4.8918,5.1169,1.5983,0.8300,1.2106,0.7345,3.2705,1.5915,3.3297
914.0625,2.4292,-1.3021,1.1838,0.5198,1.7725,5.2708,-1.2469,-0.0858,1.7882,0.0819,2.6710,2.7003,0.9373,1.6439,-1.3212,0.4366,3.3745,0.0659,2.8348
917.9688,0.2121,0.6656,-1.2786,-1.1777,0.3624,2.8862,-3.3522,-1.0366,-0.5551,-1.7721,-0.1087,-0.3387,0.0358,1.7478,-3.5977,-0.8261,2.3691,-1.3387,1.7036
921.8750,-1.8705,1.7954,-3.2832,-2.5150,-1.2974,-0.9907,-7.1257,-2.2231,-2.0031,-3.3638,-2.5510,-2.9066,-1.0078,1.0138,-4.8587,-2.5294,0.8933,-2.3197,-0.1936
925.7812,-3.1570,1.1562,-4.2713,-3.4506,-2.8657,-5.3139,-11.1489,-3.4160,-2.1623,-4.3293,-3.9411,-4.0592,-1.9510,-0.2591,-5.0364,-3.7627,-0.3041,-2.6077,-2.4324
929.6875,-3.4540,-0.9805,-4.0400,-3.9166,-3.9647,-8.5681,-13.9510,-4.2513,-1.2833,-4.2482,-4.0535,-3.4409,-2.4425,-1.4716,-4.5613,-3.6605,-0.7213,-2.1223,-4.1899
933.5938,-3.0168,-3.3227,-2.8021,-3.7966,-4.2847,-9.4391,-14.8178,-4.3663,-0.0550,-2.9278,-3.1860,-1.4126,-2.1385,-2.0022,-3.8737,-1.8799,-0.2441,-1.0657,-4.6846
937.5000,-2.3369,-4.4282,-1.0948,-3.0448,-3.7457,-7.5314,-14.1043,-3.6184,0.8037,-0.6501,-1.9407,1.1577,-0.9029,-1.5256,-3.0857,1.1022,0.9133,0.1116,-3.6620
941.4062,-1.9090,-3.6905,0.3970,-1.8741,-2.6430,-3.7201,-12.8708,-2.2699,0.8896,1.8202,-0.9057,3.2950,0.9922,-0.2312,-2.0590,4.0713,2.3383,0.8699,-1.6339
945.3125,-2.0844,-1.7746,1.0473,-0.8377,-1.6405,0.1528,-12.1268,-0.9879,0.2213,3.5293,-0.4171,4.2989,2.8156,1.1843,-0.7726,5.5844,3.5197,0.8006,0.3027
949.2188,-2.9955,-0.1925,0.4874,-0.6579,-1.5214,2.1708,-12.2032,-0.5812,-0.8892,3.7906,-0.4910,3.9545,3.6002,1.7967,0.4070,4.7158,3.9290,-0.1872,1.0061
953.1250,-4.5029,-0.2984,-1.2437,-1.8269,-2.7577,1.3777,-12.6440,-1.5609,-2.0579,2.5443,-0.9076,2.5318,2.6054,0.9151,0.8512,1.6519,3.1569,-1.7988,-0.0868
957.0312,-6.1736,-2.3843,-3.6627,-4.2062,-5.1358,-1.6532,-12.6262,-3.7679,-2.9974,0.3963,-1.3684,0.6147,-0.2082,-1.4973,0.1346,-2.2537,1.1218,-3.4514,-2.6097
960.9375,-7.3680,-5.4907,-5.9801,-6.9273,-7.7148,-5.1049,-11.5755,-6.3293,-3.5750,-1.7033,-1.6484,-1.1525,-4.0010,-4.6987,-1.5414,-5.0917,-1.7610,-4.5149,-5.4120
964.8438,-7.4887,-8.0525,-7.4071,-8.7455,-9.2344,-6.9441,-9.5688,-8.0430,-3.7987,-2.9667,-1.6985,-2.3084,-7.3619,-7.4679,-3.3532,-5.4054,-4.6208,-4.6042,-7.1485
968.7500,-6.3164,-8.9241,-7.5154,-8.7073,-8.8036,-6.1009,-7.3076,-8.0252,-3.7855,-3.1697,-1.6726,-2.7302,-8.9979,-8.7186,-4.3526,-3.0367,-6.4684,-3.7842,-7.0026
972.6562,-4.2297,-8.0787,-6.4616,-6.7424,-6.4714,-3.0883,-5.7393,-6.2539,-3.7256,-2.7174,-1.8619,-2.6419,-8.4303,-8.0980,-4.1186,0.7106,-6.6995,-2.5701,-5.1354
976.5625,-2.1112,-6.5252,-4.9221,-3.7851,-3.2944,0.3201,-5.5815,-3.6552,-3.8104,-2.3447,-2.5373,-2.4714,-6.2673,-6.2019,-3.0733,3.7340,-5.4659,-1.6923,-2.5969
980.4688,-0.9231,-5.5449,-3.7401,-1.2970,-0.7965,2.1444,-7.0009,-1.6343,-4.1188,-2.6374,-3.7547,-2.6138,-3.8516,-4.2376,-2.1992,4.2670,-3.6372,-1.7239,-0.7420
984.3750,-1.1718,-5.8098,-3.4650,-0.4433,-0.1078,1.3257,-9.5606,-1.2883,-4.5153,-3.6622,-5.2267,-3.2111,-2.4676,-3.3025,-2.3370,1.8406,-2.3116,-2.7567,-0.4792
988.2812,-2.5942,-6.9868,-4.0463,-1.4161,-1.2989,-1.7498,-12.4074,-2.7572,-4.6534,-4.9159,-6.3663,-4.0587,-2.5870,-3.7102,-3.5617,-2.4740,-2.1460,-4.3084,-1.7830
992.1875,-4.2853,-8.0515,-4.8681,-3.3272,-3.3426,-5.5855,-14.5957,-5.1093,-4.1307,-5.6084,-6.5277,-4.6881,-3.6238,-4.7958,-5.0879,-6.6546,-2.9301,-5.5245,-3.7410
996.0938,-5.2018,-8.0286,-5.1071,-4.7435,-4.7479,-8.4759,-15.4291,-6.8500,-2.7309,-5.1034,-5.3395,-4.5851,-4.3525,-5.3482,-5.7775,-8.7838,-3.7072,-5.5846,-5.0971
1000.0000,-4.7317,-6.6135,-4.2015,-4.5365,-4.4803,-9.3710,-14.7067,-6.7703,-0.5980,-3.2586,-2.9388,-3.4356,-3.7208,-4.4109,-4.8977,-7.9686,-3.3933,-4.1014,-4.9607
1003.9062,-2.9826,-4.2797,-2.1640,-2.5311,-2.5921,-8.2258,-12.7853,-4.6466,1.7879,-0.4957,0.0511,-1.2863,-1.5372,-1.9457,-2.6142,-4.6667,-1.5129,-1.3116,-3.2718
1007.8125,-0.6435,-1.8825,0.4288,0.4245,-0.1656,-5.7610,-10.4200,-1.3905,3.8348,2.4054,2.8044,1.4412,1.3951,1.0775,0.0971,-0.3309,1.4303,2.0251,-0.7736
1011.7188,1.4383,-0.1174,2.7347,2.9752,1.3833,-2.9442,-8.4426,1.4312,5.1198,4.6439,4.6727,4.0758,3.7653,3.2344,2.0291,3.3444,4.1958,4.9469,1.4531
1015.6250,2.6671,0.7784,4.0448,4.0182,1.1847,-0.5782,-7.4272,2.4284,5.5383,5.6852,5.4257,5.9025,4.5321,3.4987,2.4126,5.1505,5.5184,6.6611,2.5878
1019.5312,2.8575,0.9419,4.0645,3.2505,-0.5849,0.8191,-7.5078,1.1068,5.2304,5.3786,5.2113,6.3803,3.4935,1.8519,1.2572,4.7452,4.8359,6.7956,2.4448
1023.4375,2.1315,0.5949,2.9622,1.2181,-2.8818,0.9555,-8.4279,-1.9032,4.3657,3.9101,4.2940,5.3079,1.3168,-0.7310,-0.7947,2.6058,2.5787,5.4563,1.4383
1027.3438,0.7197,-0.1583,1.2106,-1.0930,-4.5015,-0.2594,-9.7542,-5.2027,2.9744,1.6636,2.7840,2.8907,-0.9445,-2.8937,-2.9335,-0.3225,-0.1412,3.1146,0.2141
1031.2500,-1.1436,-1.3005,-0.6614,-2.8335,-4.8270,-2.6122,-11.1021,-7.3441,0.9699,-0.9188,0.5762,-0.3203,-2.5006,-3.7059,-4.6325,-3.0733,-2.2161,0.4081,-0.7839
1035.1562,-3.1938,-2.7369,-2.2806,-3.6937,-4.1407,-5.4892,-12.2437,-7.5293,-1.6536,-3.4363,-2.4513,-3.6120,-3.2285,-3.1581,-5.8261,-5.0187,-3.1587,-2.0660,-1.5448
1039.0625,-5.0828,-4.2190,-3.5321,-3.9470,-3.3308,-7.9857,-13.0861,-5.9417,-4.6160,-5.5812,-6.1305,-6.3499,-3.6109,-2.0610,-6.7729,-6.0265,-3.2767,-3.9104,-2.4060
1042.9688,-6.4329,-5.4729,-4.5378,-4.1746,-3.2372,-9.2769,-13.6063,-3.5799,-7.3276,-7.1547,-9.8392,-8.1723,-4.3079,-1.4615,-7.7610,-6.3893,-3.3486,-5.0080,-3.7492
1046.8750,-7.0078,-6.4229,-5.5322,-4.8694,-4.0923,-9.0493,-13.8283,-1.7137,-9.0975,-8.0494,-12.6407,-9.0371,-5.6697,-1.9813,-8.8620,-6.5720,-4.0536,-5.4984,-5.6869
1050.7812,-6.8597,-7.2720,-6.6765,-6.1336,-5.4134,-7.6752,-13.8390,-1.2482,-9.4500,-8.2034,-13.6740,-9.0976,-7.4912,-3.4876,-9.8553,-6.9026,-5.5328,-5.6431,-7.9220
1054.6875,-6.2963,-8.2981,-7.8800,-7.5969,-6.3694,-5.9661,-13.7652,-2.3011,-8.3363,-7.5557,-12.5621,-8.4910,-9.1213,-5.2540,-10.3247,-7.3640,-7.3297,-5.6212,-9.8331
1058.5938,-5.6450,-9.4799,-8.7197,-8.5647,-6.3326,-4.6473,-13.6633,-4.1762,-6.1066,-6.0476,-9.5831,-7.1908,-9.8124,-6.4415,-9.8471,-7.6012,-8.6856,-5.3588,-10.7126
1062.5000,-4.9835,-10.2638,-8.5453,-8.3177,-5.2339,-3.9306,-13.3842,-5.7246,-3.2857,-3.6981,-5.5098,-5.0412,-9.0836,-6.5568,-8.1882,-7.1406,-8.9652,-4.5123,-10.0326
1066.4062,-4.0695,-9.7330,-6.7769,-6.4462,-3.5181,-3.4948,-12.5633,-5.9091,-0.3294,-0.7208,-1.2358,-1.9669,-6.9127,-5.6197,-5.4419,-5.6850,-7.9491,-2.6620,-7.6427
1070.3125,-2.5677,-7.1575,-3.2831,-3.0893,-1.7880,-2.8709,-10.8305,-4.3024,2.4723,2.4120,2.5730,1.7875,-3.7084,-4.0022,-2.0686,-3.3000,-5.8677,0.3583,-3.8576
1074.2188,-0.4302,-2.5948,1.3657,1.0251,-0.4235,-1.9105,-8.1578,-1.2916,4.9139,5.0487,5.6060,5.5760,-0.1349,-2.1254,1.1985,-0.3883,-3.2328,4.1872,0.5737
1078.1250,1.8726,2.8871,5.9641,4.7922,0.5630,-0.9450,-5.0953,2.0997,6.7423,6.5911,7.7997,8.5294,3.1015,-0.2442,3.5766,2.5010,-0.6124,7.9222,4.6289
1082.0312,3.4978,7.5813,9.1032,7.1424,1.3819,-0.5032,-2.6618,4.6780,7.6375,6.7750,9.1375,9.9239,5.4323,1.5646,4.5215,4.8731,1.5298,10.4414,7.3009
1085.9375,3.7111,9.9396,9.7990,7.4937,2.1915,-0.8233,-1.8754,5.6084,7.3651,5.8215,9.5416,9.5327,6.5494,3.2708,3.9558,6.3675,2.9016,10.9280,7.9584
1089.8438,2.3946,9.3466,7.9982,6.0278,2.9242,-1.5760,-3.1803,4.7568,5.9992,4.3427,8.9372,7.7494,6.4690,4.7692,2.3108,6.7214,3.3985,9.3181,6.6415
1093.7500,0.2160,6.4139,4.6676,3.6258,3.3340,-2.0602,-6.1488,2.6952,4.0250,3.0294,7.4145,5.4045,5.5160,5.8718,0.3372,5.7401,3.1043,6.3974,4.1193
1097.6562,-1.6935,2.6349,1.3717,1.4593,3.1940,-1.7372,-9.6750,0.3850,2.1977,2.3025,5.3311,3.3778,4.2047,6.3997,-1.2375,3.3871,2.2674,3.4578,1.6046
1101.5625,-2.3746,-0.3885,-0.4717,0.4217,2.4612,-0.6817,-12.5539,-1.2965,1.1976,2.1393,3.2367,2.2207,3.0286,6.2750,-2.0308,-0.0311,1.2206,1.6758,0.2013
1105.4688,-1.5877,-1.7062,-0.2842,0.6876,1.2739,0.4402,-14.0781,-1.9536,1.2764,2.1775,1.6419,1.9791,2.2375,5.5305,-2.1420,-3.7583,0.2500,1.5403,0.3409
1109.3750,0.0681,-1.3765,1.4008,1.6414,-0.1973,0.8840,-14.2907,-1.8114,2.1109,2.0121,0.7730,2.2750,1.7261,4.2503,-2.0358,-6.7387,-0.5199,2.6356,1.5328
1113.2812,1.5254,-0.2834,3.2343,2.2236,-1.8911,0.4479,-13.7841,-1.5428,2.9600,1.4746,0.4750,2.5637,1.1223,2.5253,-2.2477,-8.0296,-1.1377,3.8917,2.6112
1117.1875,1.8607,0.4252,3.7708,1.5228,-3.8355,-0.3025,-13.2375,-1.8731,3.0443,0.7107,0.3336,2.4136,0.0579,0.4920,-3.0666,-7.2637,-1.7058,4.1586,2.3933
1121.0938,0.7705,-0.0483,2.2370,-0.6960,-5.9587,-0.4284,-13.0169,-3.1536,1.9434,0.0256,-0.0578,1.6793,-1.5276,-1.5741,-4.3601,-4.8543,-2.2092,2.8006,0.3941
1125.0000,-1.3412,-1.7857,-1.0468,-3.8094,-7.8868,0.6213,-13.0458,-5.1146,-0.1948,-0.3657,-0.8517,0.5185,-3.2496,-3.2267,-5.6265,-1.7857,-2.4373,0.0061,-2.8226
1128.9062,-3.6548,-4.1798,-4.8077,-6.5991,-8.9387,2.4478,-12.9325,-6.9284,-2.7264,-0.4882,-1.8729,-0.7234,-4.4289,-3.9747,-6.2502,0.8910,-2.0941,-3.3219,-5.8935
1132.8125,-5.3841,-6.2963,-7.4533,-7.8347,-8.4086,3.8011,-12.1965,-7.5792,-4.8155,-0.5540,-2.7568,-1.6936,-4.4813,-3.5480,-5.8435,2.5295,-1.0500,-6.0177,-7.3918
1136.7188,-6.1176,-7.3667,-7.8678,-6.8816,-6.0089,3.3405,-10.4614,-6.3831,-5.8140,-0.7612,-3.2039,-2.2005,-3.3228,-2.1365,-4.5055,3.0423,0.4508,-7.2064,-6.6370
1140.6250,-5.9087,-7.1633,-5.9657,-4.0274,-2.1895,0.5731,-7.6044,-3.4062,-5.5397,-1.1109,-3.1830,-2.2975,-1.5235,-0.4062,-2.8466,2.6994,1.8200,-6.6848,-4.1010
1144.5312,-5.1397,-6.0712,-2.7208,-0.3604,1.9186,-3.6716,-3.8991,0.4533,-4.3302,-1.3816,-2.9472,-2.2329,-0.0656,0.7892,-1.7212,1.7997,2.4338,-4.9606,-1.1584
1148.4375,-4.2856,-4.8219,0.3432,2.7436,4.9715,-7.5832,-0.1118,3.8094,-2.8516,-1.2766,-2.8497,-2.2754,0.1951,0.8741,-1.7624,0.4993,2.0451,-2.9482,0.6859
1152.3438,-3.7065,-4.0413,1.9227,4.2649,6.0562,-9.3455,2.5926,5.4232,-1.7610,-0.6363,-3.0805,-2.5038,-0.9424,-0.0895,-2.9621,-1.1102,1.0008,-1.4957,0.6419
1156.2500,-3.5366,-3.8774,1.5600,3.9854,5.1365,-8.1461,3.0557,4.8143,-1.3898,0.4319,-3.5086,-2.7022,-2.8480,-1.3984,-4.5757,-2.8278,0.0605,-0.9887,-0.9420
1160.1562,-3.6826,-3.9458,-0.2103,2.5082,3.0254,-4.6132,0.7401,2.5077,-1.6182,1.5804,-3.7543,-2.4685,-4.3880,-2.1051,-5.4894,-4.3228,-0.1200,-1.2348,-2.8279
1164.0625,-3.9141,-3.6469,-2.2551,0.8457,0.8882,-0.4433,-3.7965,-0.2499,-2.0116,2.3726,-3.4672,-1.5122,-4.6002,-1.5989,-4.9076,-5.3476,0.4889,-1.6776,-3.6571
1167.9688,-4.0045,-2.6561,-3.5338,-0.1816,-0.4287,2.5192,-8.9589,-2.1720,-2.1358,2.4664,-2.6301,0.0419,-3.3133,-0.0119,-2.9509,-5.9857,1.1559,-1.8004,-2.7756
1171.8750,-3.8593,-1.2523,-3.6758,-0.3927,-0.8391,3.1931,-12.8169,-2.6363,-1.8516,1.7443,-1.6619,1.5827,-1.3086,1.8123,-0.7284,-6.6340,0.8040,-1.4687,-0.6254
1175.7812,-3.5564,-0.2223,-3.1080,-0.2781,-0.9696,1.6754,-14.1121,-1.9984,-1.3873,0.3594,-1.2021,2.2987,0.1190,2.7864,0.2736,-7.6070,-1.2398,-0.9921,1.5292
1179.6875,-3.2583,-0.3621,-2.6754,-0.6059,-1.6707,-0.9839,-12.9454,-1.3213,-1.1305,-1.2958,-1.6745,1.6964,-0.0376,2.2093,-0.8196,-8.6264,-4.6439,-0.8627,2.3702
1183.5938,-3.0438,-1.8892,-3.0126,-1.8543,-3.4048,-3.4224,-10.6669,-1.6805,-1.2809,-2.6878,-2.9068,0.0185,-1.8245,0.1792,-3.5451,-8.6795,-8.0636,-1.3414,1.3261
1187.5000,-2.7819,-4.1797,-4.0768,-3.8330,-5.8982,-4.6216,-9.0077,-3.4652,-1.6228,-3.3027,-4.0964,-1.7666,-4.2215,-2.4527,-6.2002,-6.5470,-9.7985,-2.1791,-1.0720
1191.4062,-2.1706,-6.0491,-5.1407,-5.7410,-8.2653,-4.2586,-9.0180,-6.1042,-1.6081,-2.8379,-4.2115,-2.4778,-5.7017,-4.5514,-6.8191,-1.7875,-8.7439,-2.6891,-3.4791
1195.3125,-0.9513,-6.4244,-5.2428,-6.6265,-9.5153,-2.6658,-10.5151,-8.3777,-0.7220,-1.3477,-2.6231,-1.4549,-5.1304,-5.3035,-4.4532,4.5066,-5.0443,-2.1554,-4.4878
1199.2188,0.8378,-4.9766,-3.8019,-5.9593,-9.1226,-0.5219,-12.3740,-9.1190,1.1169,0.7515,0.4281,0.9645,-2.4535,-4.6142,0.1115,9.8678,-0.0387,-0.3279,-3.3960
1203.1250,2.7728,-2.2922,-0.9994,-3.9497,-7.3211,1.5118,-13.3833,-7.8708,3.4210,2.8611,3.8618,3.5827,1.2485,-3.0954,4.7644,11.6632,4.4555,2.3295,-0.5550
1207.0312,4.2307,0.5182,2.2951,-1.4242,-4.9730,3.0386,-13.0128,-5.1140,5.3827,4.4830,6.3118,5.0463,4.3620,-1.6946,7.4028,8.7038,7.0389,4.8247,2.8645
1210.9375,4.7598,2.4883,4.9873,0.6472,-3.1162,3.9865,-11.5643,-1.9656,6.3509,5.4353,6.8749,4.6769,5.6106,-1.2047,7.2969,2.1864,7.2499,6.1623,5.5088
1214.8438,4.3782,3.2746,6.3045,1.6589,-2.4681,4.5044,-9.6973,0.4338,6.1997,5.8489,5.5810,2.8704,4.6637,-1.9204,5.4972,-4.7883,5.4571,5.8870,6.4880
1218.7500,3.5654,3.1430,6.1013,1.6041,-3.1440,4.7756,-7.8063,1.4657,5.3297,5.9429,3.2794,0.7899,2.1572,-3.5787,3.9331,-8.9633,2.3455,4.3040,5.6902
1222.6562,2.9237,2.5417,4.7946,0.9333,-4.6882,4.8474,-5.7905,1.2237,4.3136,5.7509,1.0359,-0.4378,-0.7989,-5.5495,3.8121,-8.8800,-1.5176,2.2514,3.6607
1226.5625,2.7408,1.6477,3.0417,0.1911,-6.3356,4.5701,-3.3693,0.3141,3.4656,5.0292,-0.5321,-0.4641,-3.2437,-7.1279,4.5118,-5.7452,-5.6940,0.5862,1.2136
1230.4688,2.7811,0.2652,1.4075,-0.2970,-7.3313,3.6891,-0.6054,-0.5422,2.6667,3.4503,-1.5226,0.1169,-4.7216,-7.7827,3.8843,-2.5773,-9.5508,-0.2776,-0.9484
1234.3750,2.4810,-1.8493,0.2069,-0.4946,-7.1689,2.0544,1.8863,-0.8436,1.5665,0.9533,-2.4598,0.2778,-5.2351,-7.2939,-0.1094,-2.1428,-12.0431,-0.5036,-2.4093
1238.2812,1.4157,-4.5277,-0.4653,-0.5038,-5.7070,-0.1697,3.2740,-0.4307,-0.0234,-2.0323,-3.7120,-0.6443,-4.9717,-5.7844,-7.5553,-5.0445,-12.0082,-0.6047,-3.0147
1242.1875,-0.3140,-7.0173,-0.6365,-0.3712,-3.1884,-2.4405,3.1247,0.5840,-1.8834,-4.7085,-5.0935,-2.4487,-4.1046,-3.6759,-15.9333,-9.2659,-8.9346,-1.0494,-2.7829
1246.0938,-2.0868,-8.3056,-0.4158,-0.0333,-0.1871,-4.0035,1.7577,1.9487,-3.5041,-6.3401,-5.9782,-4.2273,-2.8265,-1.5796,-21.3151,-11.5214,-3.6676,-1.9802,-1.8798
1250.0000,-3.1810,-7.7515,-0.0167,0.5700,2.5267,-4.2357,-0.0010,3.3637,-4.4748,-6.6965,-5.8371,-5.0399,-1.5044,-0.1123,-20.7634,-9.5349,1.6173,-3.1939,-0.6546
1253.9062,-3.3062,-5.5702,0.2476,1.3441,4.2233,-2.9925,-1.4910,4.5172,-4.8130,-6.1630,-4.7584,-4.5912,-0.7002,0.3368,-14.3524,-3.7173,4.4149,-4.3286,0.3814
1257.8125,-2.8389,-2.7872,0.0854,2.0207,4.5098,-0.7501,-2.7468,5.1253,-4.9346,-5.4097,-3.4976,-3.3977,-0.9067,-0.1886,-5.3707,2.9166,3.3834,-5.0738,0.7369
1261.7188,-2.5608,-0.6567,-0.5685,2.3248,3.5591,1.5611,-4.3983,5.0224,-5.2623,-4.8510,-2.9649,-2.3292,-2.1311,-1.1538,1.5399,6.5904,-0.6439,-5.2563,0.2383
1265.6250,-3.0673,0.0763,-1.4133,2.2096,2.1178,2.9625,-6.9722,4.2709,-5.7803,-4.3183,-3.5099,-1.8882,-3.6672,-1.6976,3.1431,5.1909,-4.9265,-4.7958,-0.7527
1269.5312,-4.2747,-0.4340,-1.8638,1.9604,1.2182,2.8668,-10.1570,3.1992,-5.9255,-3.2295,-4.5662,-1.7947,-4.3341,-0.9942,-0.5430,-0.3033,-6.3655,-3.6449,-1.4168
1273.4375,-5.3985,-1.3434,-1.3625,2.0503,1.6898,1.3263,-12.6917,2.2955,-4.9580,-1.1548,-4.9781,-1.2143,-3.1378,1.3404,-6.4930,-6.3343,-3.4378,-1.8215,-0.8943
1277.3438,-5.4391,-1.7532,0.2496,2.8207,3.7109,-1.0195,-13.0869,1.9817,-2.5674,1.6594,-3.8227,0.5231,0.0376,4.9972,-10.7635,-8.9125,2.7412,0.4795,1.1654
1281.2500,-3.8488,-1.3084,2.5598,4.2039,6.6558,-3.2436,-10.7189,2.3830,0.7485,4.2579,-1.1398,3.2571,4.1983,9.0236,-10.9288,-6.0520,8.9783,2.8176,4.2730
1285.1562,-0.9191,-0.3495,4.7538,5.6947,9.3499,-4.5146,-6.4826,3.2370,3.8609,5.5338,1.9903,5.9139,7.6933,12.1727,-7.2251,1.0243,11.8970,4.6038,7.2490
1289.0625,2.3678,0.4447,6.0505,6.6132,10.6179,-4.3901,-2.4501,4.0094,5.6687,5.0103,4.1230,7.1296,9.1201,13.4044,-1.7851,8.6329,9.9780,5.3632,8.8245
1292.9688,4.9043,0.6124,6.1291,6.4956,9.8394,-2.9321,-0.6823,4.1613,5.7861,3.2588,4.4238,6.1844,8.1255,12.3128,3.2329,12.8223,4.4470,5.0066,8.3553
1296.8750,6.0450,0.2308,5.2738,5.3627,7.2231,-0.6490,-1.9679,3.4231,4.7655,1.5923,3.2418,3.5964,5.5891,9.2923,7.0815,11.6336,-1.5298,3.9154,6.2123
1300.7812,5.8387,-0.2218,4.1474,3.6947,3.6715,1.6810,-5.3465,1.9248,3.6829,1.1938,1.8563,0.9273,3.0705,5.3736,10.3536,6.0696,-4.7843,2.7501,3.5865
1304.6875,4.8080,-0.3242,3.3548,2.1383,0.3294,3.2490,-8.7402,0.1169,3.3771,2.2801,1.5583,-0.1315,1.8751,1.8038,13.6236,-0.7333,-3.9607,2.0807,1.8110
1308.5938,3.5020,-0.1054,3.0960,1.1407,-1.9297,3.4727,-10.2657,-1.4649,3.8886,3.9189,2.7194,1.1738,2.3242,-0.4496,16.1067,-5.5021,-0.1116,2.0735,1.6040
1312.5000,2.1745,-0.0444,3.1319,0.7396,-2.8238,2.2215,-9.3565,-2.4585,4.4960,4.6680,4.5149,4.1222,3.6553,-1.0681,15.6573,-6.6987,4.1586,2.4347,2.6894
1316.4062,0.7963,-0.6609,3.0597,0.6242,-2.6635,-0.0755,-6.9885,-2.8177,4.3111,3.6142,5.5018,6.8798,4.5618,-0.4725,10.3295,-5.1393,6.3121,2.6427,4.0139
1320.3125,-0.6692,-2.0024,2.6818,0.4059,-2.0811,-2.5194,-4.9289,-2.7646,2.9883,1.0797,4.6445,7.5637,3.9961,0.4085,0.3705,-3.1001,5.2021,2.3148,4.4200
1324.2188,-2.0053,-3.4366,2.1952,-0.0861,-1.6588,-4.0546,-4.5532,-2.5871,1.0328,-1.5178,2.0625,5.3760,1.7527,0.6029,-11.0219,-2.6184,1.4076,1.4689,3.3583
1328.1250,-2.7424,-3.9507,2.0643,-0.6720,-1.6477,-3.9126,-6.0017,-2.4079,-0.5166,-2.5758,-1.0200,1.1259,-1.4582,-0.4103,-19.0698,-4.1519,-3.3734,0.5245,1.2205
1332.0312,-2.4490,-2.7996,2.6647,-0.9294,-1.8978,-1.9921,-8.1574,-2.0761,-0.7970,-1.3707,-3.0773,-3.1720,-4.4061,-2.4099,-20.2349,-6.4343,-7.2833,0.0527,-0.8928
1335.9375,-1.1007,-0.0816,3.9434,-0.4766,-2.0092,1.0306,-9.3839,-1.2718,0.2752,1.4524,-3.2722,-5.3920,-5.9294,-4.5081,-14.6105,-7.5167,-9.0061,0.4346,-1.8185
1339.8438,0.7610,3.1631,5.3315,0.7346,-1.6141,3.9546,-8.5241,0.2134,1.9224,4.2865,-1.9588,-4.4581,-5.4171,-5.5882,-6.1194,-6.2024,-8.0053,1.6252,-1.0143
1343.7500,2.2328,5.4378,5.9848,2.2921,-0.6417,5.5790,-5.5805,2.1868,2.9928,5.5766,-0.3839,-0.9166,-3.0141,-4.9030,-0.1852,-2.8728,-4.4860,3.1423,1.1061
1347.6562,2.5222,5.5936,5.2265,3.4546,0.5746,5.2523,-1.7419,3.9670,2.6826,4.7551,0.1728,3.3826,0.4616,-2.5238,-0.3132,0.8119,0.6600,4.2763,3.3645
1351.5625,1.4043,3.4755,2.9441,3.4985,1.4174,3.1704,1.2020,4.6213,1.0276,2.5031,-0.7793,6.2971,3.8123,0.6217,-5.8505,3.0516,5.9172,4.4148,4.4320
1355.4688,-0.6211,0.0191,-0.2809,2.1116,1.2897,0.2705,1.7300,3.4507,-1.1325,0.2242,-2.6901,6.5179,5.8704,3.1710,-12.4686,3.0389,9.4384,3.3346,3.5324
1359.3750,-2.5795,-3.2627,-3.3885,-0.3790,-0.0494,-2.2255,-0.6730,0.4628,-2.6646,-0.8688,-4.4042,4.1910,5.9145,4.0009,-15.0840,1.3047,9.7124,1.3309,0.8653
1363.2812,-3.5428,-5.1003,-5.3018,-3.0983,-2.3088,-3.3828,-5.2390,-3.4789,-2.8002,-0.4449,-4.9445,0.7194,3.9540,2.7871,-11.2802,-0.8856,6.3840,-0.8825,-2.4782
1367.1875,-3.1261,-5.1111,-5.4116,-5.0229,-4.7690,-2.9539,-10.2224,-6.9792,-1.5559,0.8686,-4.1169,-2.1044,0.7383,0.1401,-2.9478,-2.5483,0.6772,-2.4816,-5.0686
1371.0938,-1.6805,-3.9008,-3.8513,-5.4958,-6.6301,-1.4202,-13.6628,-8.7770,0.2988,1.9838,-2.5743,-3.1151,-2.5657,-2.7556,4.9320,-3.6026,-5.0392,-2.9275,-5.8758
1375.0000,-0.0743,-2.5890,-1.4267,-4.5710,-7.4110,0.3240,-14.2697,-8.3793,1.6805,2.0401,-1.3548,-2.3575,-4.9113,-4.7774,7.5259,-4.6403,-8.4673,-2.2585,-4.7980
1378.9062,0.8101,-2.0722,0.7688,-2.9744,-7.1646,1.4576,-12.0068,-6.2819,1.7805,0.8570,-1.2276,-0.9246,-5.8484,-5.4061,3.2566,-6.0815,-8.6830,-1.1033,-2.6923
1382.8125,0.5772,-2.4864,1.8680,-1.6826,-6.3765,1.6299,-8.0703,-3.6331,0.4967,-1.0517,-2.2539,-0.1843,-5.6555,-4.8730,-5.2253,-7.4561,-6.6446,-0.3632,-0.8798
1386.7188,-0.4739,-3.1916,1.6207,-1.3587,-5.6187,1.0694,-4.2516,-1.5496,-1.5087,-2.8145,-3.7884,-0.8806,-5.0368,-3.8706,-12.7608,-7.4721,-4.4875,-0.6955,-0.3955
1390.6250,-1.5537,-3.2653,0.4658,-1.9845,-5.1894,0.3702,-2.0246,-0.5198,-3.1494,-3.6435,-4.8724,-2.6553,-4.5799,-3.0488,-14.9048,-4.9149,-4.0283,-2.0844,-1.4043
1394.5312,-1.8831,-2.1715,-0.7478,-2.9174,-4.9801,0.0982,-1.8671,-0.2675,-3.4880,-3.1649,-4.7631,-4.2670,-4.3458,-2.6339,-10.5783,0.2542,-5.4986,-3.7721,-3.1252
1398.4375,-1.1829,-0.1637,-1.2334,-3.3279,-4.6429,0.4531,-3.1911,-0.1274,-2.2480,-1.5430,-3.3123,-4.3554,-3.8836,-2.3911,-2.5551,6.4634,-7.4102,-4.6359,-4.3068
1402.3438,0.1485,1.8369,-0.6728,-2.7311,-3.9207,1.1793,-4.8787,0.3663,0.0072,0.5929,-1.0263,-2.2811,-2.6669,-1.9136,4.3703,11.1841,-7.6694,-3.8265,-3.9780
1406.2500,1.2890,2.8054,0.6607,-1.2686,-2.8845,1.7642,-6.0325,1.1148,2.1486,2.3799,1.1899,1.4524,-0.6320,-1.0045,6.2744,12.3209,-5.1564,-1.2997,-2.0267
1410.1562,1.5174,2.2458,2.1049,0.4234,-1.9025,1.7876,-6.4386,1.5670,3.0807,3.0584,2.4574,5.4175,1.5875,0.1184,2.2847,9.4210,-0.6408,2.0806,0.7288
1414.0625,0.6680,0.4844,2.9920,1.6398,-1.3693,1.1895,-6.4751,1.2028,2.3394,2.3188,2.3168,7.9619,2.9358,0.9249,-5.1379,3.8858,3.6253,4.9458,3.0033
1417.9688,-0.7870,-1.5577,2.9702,2.0143,-1.4140,0.2815,-6.6184,0.0004,0.3396,0.4964,0.9135,7.9727,2.5601,0.8993,-11.7845,-1.9504,5.3489,6.1003,3.7513
1421.8750,-2.0824,-2.9471,2.0945,1.6419,-1.8141,-0.5008,-6.9839,-1.4822,-1.8875,-1.5393,-1.1023,5.3135,0.3725,-0.1372,-14.0875,-6.2191,3.6611,5.0847,2.6947
1425.7812,-2.6879,-3.2873,0.6800,0.8755,-2.1842,-0.9230,-7.2722,-2.4829,-3.3158,-2.8188,-2.9093,0.7763,-2.8334,-1.9101,-10.9438,-8.4308,-0.3914,2.3241,0.3895
1429.6875,-2.6491,-2.8875,-0.9328,-0.0008,-2.2862,-1.1146,-7.1397,-2.5871,-3.5223,-2.8320,-3.9204,-4.3275,-5.7953,-3.8397,-4.0855,-9.3308,-4.6079,-1.1762,-2.1584
1433.5938,-2.4980,-2.4784,-2.5287,-0.9528,-2.2145,-1.4369,-6.6504,-2.0347,-2.8893,-1.8711,-4.0562,-8.6731,-7.4569,-5.3412,3.0187,-9.9160,-7.0501,-4.3615,-4.0575
1437.5000,-2.8100,-2.7012,-4.0112,-2.1120,-2.3066,-2.1436,-6.3907,-1.5446,-2.2957,-0.8913,-3.7457,-11.3086,-7.4891,-6.0906,7.0122,-10.4324,-7.1265,-6.5699,-4.9432
1441.4062,-3.7456,-3.7252,-5.3068,-3.5370,-2.8571,-3.0943,-7.1039,-1.7878,-2.5191,-0.9204,-3.6581,-11.8517,-6.3651,-6.1242,6.2616,-10.1404,-5.6814,-7.6835,-5.0466
1445.3125,-4.9305,-5.2193,-6.3080,-5.0633,-3.8714,-3.7674,-9.1016,-2.9090,-3.7538,-2.3695,-4.3138,-10.5281,-5.0030,-5.7523,1.4867,-8.0113,-4.1831,-7.9943,-4.9529
1449.2188,-5.7669,-6.6387,-6.9235,-6.3927,-5.0660,-3.6145,-11.9192,-4.4605,-5.5502,-4.7142,-5.7908,-8.0887,-4.2389,-5.3766,-4.7931,-3.7831,-3.6915,-7.9439,-5.2361
1453.1250,-5.9337,-7.5773,-7.1822,-7.3507,-6.1196,-2.5283,-14.5168,-5.7913,-7.1757,-6.7946,-7.6784,-5.5884,-4.4439,-5.3161,-9.6280,1.4796,-4.3189,-7.9014,-6.1698
1457.0312,-5.6721,-7.9369,-7.2659,-8.0698,-6.9562,-1.0693,-15.9108,-6.5762,-8.1055,-7.5678,-9.2889,-4.0123,-5.4445,-5.7038,-11.0999,5.8063,-5.4161,-8.0512,-7.6137
1460.9375,-5.6082,-7.8459,-7.3956,-8.8924,-7.8011,-0.2260,-15.7816,-7.0518,-8.2925,-6.8088,-9.9933,-3.8406,-6.7017,-6.4562,-9.1499,7.4647,-6.1661,-8.3656,-9.0747
1464.8438,-6.2299,-7.4616,-7.6331,-10.0187,-8.9195,-0.8027,-14.6065,-7.7498,-8.0613,-5.2693,-9.5002,-4.7664,-7.5902,-7.2929,-5.3843,6.0230,-6.0694,-8.6214,-9.8915
1468.7500,-7.4202,-6.8599,-7.7589,-11.1675,-10.2265,-2.8288,-13.2245,-8.9189,-7.7646,-4.1648,-7.9559,-5.7974,-7.6438,-7.8031,-2.0115,2.5757,-5.0435,-8.4663,-9.4924
1472.6562,-8.4362,-6.0907,-7.3618,-11.5638,-11.0991,-5.4187,-12.1703,-10.0986,-7.5012,-4.3315,-5.8518,-5.7870,-6.7123,-7.5677,-0.5264,-1.0104,-3.2587,-7.5636,-7.6660
1476.5625,-8.3958,-5.3097,-6.1212,-10.3587,-10.6196,-7.2401,-11.2955,-10.2392,-7.1086,-5.6368,-3.8172,-4.1539,-5.0344,-6.3363,-0.9077,-3.2751,-1.0187,-5.8008,-4.7499
1480.4688,-6.9375,-4.8033,-4.1010,-7.2544,-8.1655,-7.3272,-9.9726,-8.3707,-6.3975,-7.0568,-2.3960,-1.3497,-3.2024,-4.1973,-1.7860,-3.9355,1.1743,-3.4578,-1.6137
1484.3750,-4.5578,-4.8234,-1.8303,-2.9077,-3.9708,-5.7035,-7.7266,-4.4006,-5.3945,-7.3689,-1.8752,1.2838,-1.9779,-1.6398,-1.4537,-3.7499,2.5440,-1.1887,0.6361
1488.2812,-2.3485,-5.3418,-0.0786,1.2173,0.7601,-3.3746,-4.8047,0.5341,-4.3720,-5.9861,-2.2027,2.2683,-1.9588,0.5753,0.9345,-3.6655,2.2456,0.2412,1.1535
1492.1875,-1.2935,-5.9433,0.5522,3.5324,4.3482,-1.6626,-2.2190,4.4831,-3.6402,-3.3663,-3.0120,0.9349,-3.2195,1.7250,4.7430,-3.9498,-0.0865,0.3553,-0.1832
1496.0938,-1.6216,-6.0140,-0.0398,3.1627,5.5019,-1.3184,-1.1846,5.6891,-3.2936,-0.7356,-3.7643,-2.0467,-5.1403,1.4789,8.2050,-3.9846,-3.7925,-0.7413,-2.6297
1500.0000,-2.6856,-5.1480,-1.4206,0.4332,4.0347,-2.0241,-2.3186,3.5948,-3.1437,0.6655,-3.9840,-4.9497,-6.6084,0.1051,9.4910,-2.8605,-7.1634,-2.3915,-4.9001
1503.9062,-3.4614,-3.4980,-2.8987,-3.2993,0.9828,-2.6443,-5.1604,-0.7758,-2.9104,0.3018,-3.4993,-5.9762,-6.5681,-1.6202,7.7855,-0.2896,-8.1993,-3.7603,-5.8296
1507.8125,-3.3016,-1.7821,-3.9216,-6.3632,-1.9684,-2.0677,-8.3581,-5.3195,-2.5070,-1.4173,-2.5572,-4.3578,-4.6485,-2.7832,3.6950,2.9075,-5.8135,-4.3279,-5.0097
1511.7188,-2.3959,-0.8829,-4.3271,-7.6132,-3.4130,-0.0578,-10.4254,-7.9589,-2.1637,-3.4738,-1.7141,-0.8733,-1.4835,-2.7998,-1.2141,5.1709,-0.7061,-4.1793,-3.0117
1515.6250,-1.6040,-1.2706,-4.3026,-6.9154,-2.9536,2.4900,-10.5820,-7.7061,-2.2542,-4.8688,-1.5220,2.5752,1.5313,-1.7170,-5.3546,5.2203,4.7954,-3.8845,-1.0452
1519.5312,-1.7916,-2.6432,-4.1279,-5.0525,-1.3145,4.0781,-9.1568,-5.0852,-2.9469,-5.1244,-2.1766,4.0841,2.9606,-0.1715,-7.8859,3.0083,7.9831,-4.0489,-0.2475
1523.4375,-3.1627,-4.0614,-3.9232,-3.1794,0.1875,3.5697,-7.3215,-1.7169,-3.9710,-4.3994,-3.3537,2.8758,2.1338,0.9781,-8.8639,-0.1051,7.3919,-4.8455,-1.0364
1527.3438,-5.0832,-4.5345,-3.6032,-2.2023,0.4521,0.9246,-6.3609,0.6326,-4.7232,-3.2556,-4.3723,-0.2730,-0.4568,1.1312,-8.8313,-2.1556,3.7428,-5.8671,-2.9152
1531.2500,-6.5208,-3.6999,-3.0591,-2.4269,-0.8136,-2.7879,-6.9536,0.9559,-4.6788,-2.3114,-4.6128,-3.5587,-3.4215,0.2551,-8.2791,-1.8773,-0.4622,-6.4110,-4.8301
1535.1562,-6.7805,-2.1464,-2.4026,-3.5963,-3.0393,-6.0867,-8.8839,-0.6273,-3.8157,-2.0009,-3.9335,-5.2781,-5.2570,-1.1508,-7.4031,0.3553,-2.4848,-6.0006,-5.8289
1539.0625,-5.9955,-1.1426,-2.0425,-5.1835,-5.2293,-7.9830,-11.2934,-3.1544,-2.7102,-2.4912,-2.7972,-4.8311,-5.1796,-2.3955,-6.2336,2.6105,-1.0563,-4.7724,-5.5971
1542.9688,-5.0216,-1.8980,-2.4888,-6.6915,-6.5611,-8.4678,-13.2431,-5.4784,-2.1887,-3.6769,-1.9924,-2.9815,-3.5130,-3.0162,-4.8722,2.5314,2.8532,-3.4449,-4.5550
1546.8750,-4.8106,-4.7876,-3.9855,-7.7898,-6.7712,-8.2845,-14.1976,-6.8555,-2.7463,-5.1749,-2.1074,-1.2588,-1.4192,-3.0161,-3.5157,-1.1451,6.6815,-2.8752,-3.5036
1550.7812,-5.7092,-9.0043,-6.2224,-8.2849,-6.1447,-8.2144,-14.1593,-7.1469,-4.1386,-6.3579,-3.1027,-0.9362,-0.1716,-2.7911,-2.2309,-7.6281,7.8824,-3.4977,-3.0930
1554.6875,-7.1778,-12.8658,-8.3559,-8.0517,-5.2114,-8.4397,-13.4490,-6.6259,-5.4602,-6.5335,-4.2890,-2.2628,-0.4381,-2.8251,-0.7666,-14.3050,5.4371,-5.0243,-3.4696
1558.5938,-8.1233,-14.6287,-9.3793,-7.0448,-4.4052,-8.4556,-12.3616,-5.6363,-5.6929,-5.2931,-4.7616,-4.4171,-1.9974,-3.3713,1.2656,-18.0878,0.3370,-6.6060,-4.2994
1562.5000,-7.6159,-13.3711,-8.6545,-5.3928,-3.9047,-7.5690,-10.9677,-4.3829,-4.3756,-2.8641,-4.0240,-6.1419,-4.0062,-4.3205,3.8420,-17.1046,-5.1673,-7.3458,-5.0891
1566.4062,-5.5083,-9.4717,-6.2969,-3.4695,-3.6866,-5.5678,-9.1883,-2.9674,-1.9459,-0.1801,-2.3850,-6.5804,-5.5765,-5.3044,6.0420,-11.7459,-8.9457,-6.8187,-5.5385
1570.3125,-2.5495,-4.4248,-3.1662,-1.8168,-3.6536,-3.0237,-7.0452,-1.5502,0.4918,1.5103,-0.8284,-5.7394,-6.2546,-5.9200,6.1881,-4.4414,-10.0626,-5.2619,-5.6656
1574.2188,0.0671,-0.0923,-0.4432,-0.9040,-3.6886,-0.9791,-4.8635,-0.4257,1.8412,1.3628,-0.3968,-4.3101,-6.1124,-5.9067,2.7898,1.6959,-8.9387,-3.3359,-5.6412
1578.1250,1.4148,2.2107,0.9862,-0.8474,-3.6001,-0.2409,-3.2391,0.1100,1.7032,-0.4468,-1.4633,-3.0423,-5.4681,-5.1861,-4.1965,4.5478,-6.6880,-1.6455,-5.4962
1582.0312,1.3498,2.3067,0.9898,-1.2879,-3.0754,-0.8115,-2.7583,0.0091,0.6340,-2.6783,-3.3737,-2.1698,-4.5180,-3.8120,-12.7050,3.9973,-4.2610,-0.3657,-4.9644
1585.9375,0.5194,1.1099,0.2206,-1.5525,-1.7839,-1.8897,-3.6393,-0.3911,-0.2039,-3.6961,-4.7392,-1.3170,-3.1979,-1.9457,-19.1888,1.6950,-2.0371,0.7721,-3.6227
1589.8438,-0.1143,-0.0214,-0.3108,-1.0496,0.3568,-2.4565,-5.5323,-0.5197,0.2112,-2.5028,-4.2505,0.0622,-1.3809,0.0909,-20.4086,-0.2078,-0.0479,2.1414,-1.2658
1593.7500,0.0840,-0.1563,0.1178,0.3288,2.9225,-2.0264,-7.6294,0.0315,2.0765,0.5257,-1.5366,2.0669,0.7735,1.7599,-15.3739,-0.5134,1.5310,3.7886,1.7451
1597.6562,1.0216,0.6310,1.4593,2.0594,4.9786,-1.0173,-9.0533,1.1315,4.5778,3.7448,2.4783,4.0534,2.6522,2.3925,-6.1610,0.3202,2.1742,5.2408,4.4474
1601.5625,1.9553,1.3352,2.8851,3.2299,5.4535,-0.4624,-9.3282,2.0628,6.3269,5.1982,5.9876,4.9347,3.4165,1.4798,3.0575,0.6635,1.3437,5.7209,5.6638
1605.4688,1.9813,0.7197,3.2730,3.0569,3.7384,-1.2593,-8.6847,1.9038,6.1753,3.8540,7.2832,3.9086,2.5264,-0.9608,8.2871,-0.9726,-0.8991,4.6559,4.6372
1609.3750,0.6255,-1.7835,1.9211,1.3792,0.1503,-3.4794,-8.0209,0.1393,3.9175,0.3166,5.7390,1.1147,0.1979,-4.2110,7.9145,-4.7076,-3.5892,2.1451,1.5441
1613.2812,-1.8310,-5.5497,-0.9502,-1.1905,-4.0917,-6.2244,-8.5065,-2.9083,0.4614,-3.4820,2.2004,-2.2689,-2.5814,-7.0823,3.4599,-9.0011,-5.2604,-0.9433,-2.4615
1617.1875,-4.4834,-8.9853,-4.2325,-3.5751,-7.4442,-8.1390,-10.9800,-6.1512,-2.6480,-5.4395,-1.4743,-4.6170,-4.5668,-8.5080,-1.5684,-11.5303,-4.8927,-3.3544,-5.7632
1621.0938,-6.3024,-10.4060,-6.5113,-4.8301,-8.8631,-8.2410,-15.3967,-8.3108,-4.0726,-4.5474,-3.4599,-4.7875,-4.9988,-8.1596,-3.9214,-10.6662,-2.7360,-4.1034,-7.1003
1625.0000,-6.6890,-9.0446,-6.8557,-4.6639,-8.3619,-6.5235,-20.5986,-8.6459,-3.3977,-1.4430,-2.9731,-2.7930,-4.0668,-6.6590,-2.4749,-6.5593,-0.3131,-3.0138,-6.2191
1628.9062,-5.7526,-5.5536,-5.3381,-3.5520,-6.9326,-3.9448,-24.5828,-7.3615,-1.3030,2.0883,-0.6434,0.2277,-2.7434,-5.1844,1.4430,-1.0914,0.5514,-0.8029,-3.9612
1632.8125,-4.1596,-1.6660,-2.9600,-2.3760,-5.8591,-1.8257,-25.2537,-5.4256,0.8986,4.2962,1.9629,2.7305,-2.0704,-4.6777,5.3146,3.2974,-0.9139,1.3440,-1.7248
1636.7188,-2.6798,0.7839,-1.0382,-1.8353,-5.8722,-1.0559,-21.4055,-3.9253,2.0493,4.5228,3.3368,3.7031,-2.3873,-5.1835,7.2590,5.1291,-3.6706,2.4482,-0.6286
1640.6250,-1.7392,0.8736,-0.4411,-2.0263,-6.7089,-1.6088,-13.4995,-3.4009,1.7741,3.4423,2.9030,3.2119,-3.0684,-5.8048,7.0957,4.7362,-5.3793,2.2483,-0.9017
1644.5312,-1.2676,-0.9815,-1.1544,-2.4666,-7.3721,-2.6461,-3.7826,-3.6029,0.5772,2.3871,1.2412,2.2189,-2.9905,-5.3569,5.9856,3.8648,-3.9787,1.2449,-1.8737
1648.4375,-0.9063,-3.4140,-2.4179,-2.5233,-6.8988,-3.1084,4.4583,-3.8070,-0.6025,2.2951,-0.4371,1.8279,-1.4195,-3.2919,5.0884,4.3077,0.6902,0.2918,-2.5370
1652.3438,-0.3844,-4.9958,-3.2951,-1.9163,-5.0881,-2.3997,8.2866,-3.4236,-1.0391,3.0515,-1.1531,2.4961,1.3299,-0.2324,4.3935,6.5171,6.4016,0.0305,-2.2729
1656.2500,0.2376,-5.0336,-3.2608,-0.9195,-2.6735,-0.7397,6.5151,-2.4455,-0.6270,3.6745,-0.7658,3.7499,3.9814,2.3134,2.6909,9.1746,9.7052,0.5497,-1.2306
1660.1562,0.6494,-3.7846,-2.4214,-0.1109,-0.8202,1.0097,0.3606,-1.4137,0.1995,3.1678,0.0715,4.5793,5.1214,2.9122,-1.2777,10.0562,8.1020,1.4678,-0.1113
1664.0625,0.6204,-2.0527,-1.2755,0.1301,-0.3183,1.9080,-7.0900,-0.9588,0.9143,1.3823,0.5144,4.2097,4.1980,1.1971,-7.4005,7.6362,1.8267,2.3267,0.4511
1667.9688,0.2966,-0.5395,-0.2531,-0.0204,-1.0586,1.5298,-12.4031,-1.2850,1.3410,-0.7588,0.2164,2.7010,1.9676,-1.8135,-13.6787,2.3398,-6.0253,2.9697,0.4241
1671.8750,0.1912,0.5618,0.5909,0.0823,-2.1641,0.2314,-13.5194,-1.9959,1.7477,-1.8407,-0.4085,0.9559,0.0260,-4.3313,-17.1362,-3.4545,-11.2393,3.6148,0.4089
1675.7812,0.8297,1.4932,1.5152,1.0562,-2.6664,-1.0538,-10.7039,-2.3892,2.5382,-0.9272,-0.5264,0.1402,-0.2800,-4.9495,-15.6298,-6.7507,-11.0408,4.5766,1.1347
1679.6875,2.2967,2.5343,2.7557,2.9479,-2.2172,-1.3557,-6.1825,-1.9877,3.8113,1.7702,0.4458,0.9105,1.1972,-3.5465,-9.3305,-5.8013,-5.8164,5.8766,2.8033
1683.5938,4.0427,3.6604,4.2214,5.0638,-1.3054,-0.2226,-2.7033,-0.8974,5.1637,4.9896,2.3453,2.9678,3.2824,-1.3161,-0.8317,-1.3070,1.1472,7.0702,4.8019
1687.5000,5.1497,4.5366,5.4899,6.3433,-0.8272,2.0226,-1.9233,0.2749,5.9194,7.2020,4.3121,5.2156,4.2899,0.0955,6.2349,3.8618,5.7501,7.4615,6.0407
1691.4062,4.9187,4.8190,6.1094,6.0485,-1.3396,4.4561,-3.6079,0.8771,5.6293,7.5345,5.3421,6.4086,3.2148,-0.2589,9.1973,6.3129,5.6152,6.5808,5.7040
1695.3125,3.3825,4.4743,5.9609,4.2987,-2.5672,6.0434,-6.0770,0.6932,4.4593,6.2255,4.9488,5.8776,0.4697,-1.9850,7.6937,4.1681,1.4173,4.5888,3.8805
1699.2188,1.3708,3.8352,5.3833,2.0733,-3.5378,6.1681,-7.4989,0.0993,3.1585,4.3620,3.4818,3.9083,-2.3462,-3.6419,3.6119,-1.7524,-3.8049,2.3105,1.6073
1703.1250,0.0498,3.3527,4.9524,0.6612,-3.2587,4.9172,-7.0982,-0.2108,2.6094,3.1473,1.9099,1.5910,-3.4762,-3.7434,-0.1919,-8.3276,-6.7854,0.8473,0.2735
1707.0312,0.2293,3.2695,5.0866,0.9206,-1.4446,2.9925,-5.4680,0.2896,3.2786,3.2282,1.2556,0.2701,-2.1137,-1.7546,-1.4602,-11.8844,-6.1035,1.0081,0.7831
1710.9375,1.8967,3.5001,5.7793,2.8213,1.2252,1.3266,-3.8637,1.6159,4.9544,4.4924,2.0680,0.9094,1.1526,1.5868,0.5682,-10.2555,-2.8176,2.9094,3.0387
1714.8438,4.2774,3.8017,6.6481,5.5345,3.5032,0.6232,-3.1033,3.2941,6.9370,6.3568,4.2281,3.6638,4.8015,4.7963,5.2607,-3.9496,0.6265,5.9609,6.0588
1718.7500,6.3544,4.0637,7.2373,7.9600,4.3470,1.0631,-2.9504,4.6958,8.5136,8.2295,7.1116,7.8071,7.3623,6.6019,11.2925,4.2051,2.2837,9.1980,8.5994
1722.6562,7.4695,4.4226,7.3147,9.3115,3.5428,2.2908,-2.4498,5.4157,9.3520,9.7677,9.8995,11.9936,8.2115,6.6637,17.2472,10.6612,1.9739,11.7135,9.8237
1726.5625,7.6068,5.0814,6.9403,9.4065,1.7921,3.6526,-0.9192,5.4358,9.5570,10.8074,11.8255,14.7447,7.6973,5.6163,21.7490,13.0177,1.0823,12.9499,9.6011
1730.4688,7.2183,5.9852,6.2982,8.5619,0.2484,4.5318,1.2262,5.0117,9.4139,11.1471,12.3023,15.0084,6.6344,4.5025,23.3399,11.0981,1.1945,12.7641,8.3404
1734.3750,6.7884,6.6769,5.4879,7.2740,-0.1496,4.6155,2.5278,4.4285,9.0888,10.4903,11.0266,12.6168,5.6511,4.0680,20.6317,6.7312,2.7192,11.3535,6.6031
1738.2812,6.5002,6.5379,4.5010,5.9598,0.8728,3.9945,1.4651,3.8417,8.5570,8.6780,8.1468,8.4593,4.8942,4.4116,13.0040,2.5200,4.5841,9.1777,4.8419
1742.1875,6.2320,5.2890,3.4072,4.9013,2.9069,3.0814,-2.3281,3.2965,7.7917,6.0344,4.4138,4.2271,4.2257,5.1468,1.4947,0.4056,5.1913,6.9114,3.4076
1746.0938,5.8257,3.3734,2.5612,4.3229,5.1848,2.4100,-7.5252,2.8509,7.0018,3.4817,1.1054,1.7505,3.6312,5.8421,-10.8983,0.8327,3.8235,5.3507,2.6840
1750.0000,5.3457,1.8599,2.5696,4.4251,6.9796,2.3971,-11.7178,2.6409,6.6433,2.2017,-0.4163,2.1665,3.4100,6.3450,-20.0911,2.8421,1.3502,5.1785,3.0902
1753.9062,5.0801,1.8427,3.9461,5.2825,7.8612,3.1509,-12.8246,2.8060,7.1326,2.9729,0.6165,5.3218,3.9575,6.7635,-22.7713,4.8416,-0.3462,6.6296,4.8410
1757.8125,5.2718,3.7036,6.6620,6.6848,7.7543,4.3964,-10.3692,3.3385,8.4633,5.6032,3.8533,9.7690,5.3374,7.1957,-18.2320,5.4937,0.2092,9.2456,7.6314
1761.7188,5.8203,6.7557,9.9483,8.1072,6.8782,5.5616,-5.7629,4.0087,10.0569,8.8900,7.8622,13.4313,7.0475,7.5038,-8.9713,4.2526,2.9148,11.9464,10.5631
1765.6250,6.2370,9.5623,12.5747,8.9112,5.6510,6.0184,-1.4070,4.4593,11.0257,11.2102,10.8201,14.6311,8.2361,7.3565,0.4972,1.4228,6.0888,13.4770,12.4867
1769.5312,5.9435,10.7625,13.4920,8.6863,4.5681,5.3965,0.7764,4.4173,10.7101,11.4163,11.5019,12.9365,8.2500,6.5101,6.0434,-2.0887,7.6522,13.0360,12.6160
1773.4375,4.7181,9.8820,12.4392,7.4987,4.0236,3.8281,0.4136,3.8617,9.1224,9.4800,9.9615,9.3533,7.1055,5.0805,6.1140,-5.0938,6.6253,10.7264,11.0128
1777.3438,2.9555,7.6025,10.1044,5.8584,4.1114,1.9782,-1.3104,3.0220,6.9750,6.4775,7.4553,5.7600,5.5126,3.5593,2.3659,-6.4315,3.8338,7.5390,8.5875
1781.2500,1.5145,5.3183,7.7158,4.4097,4.5267,0.7997,-2.6321,2.2107,5.2573,3.9248,5.6353,3.9062,4.4111,2.5340,-1.6399,-5.3217,1.3160,4.8498,6.5755
1785.1562,1.2241,4.2777,6.3251,3.5624,4.6978,1.0991,-2.4565,1.6333,4.6497,2.8938,5.5271,4.5331,4.3447,2.3140,-2.8178,-1.7845,0.8800,3.7100,5.8203
1789.0625,2.3642,4.8498,6.2439,3.3112,4.1367,3.1148,-1.0348,1.3171,5.1599,3.4532,6.9404,7.0641,5.1103,2.7346,-0.4705,3.0458,2.8528,4.3286,6.3202
1792.9688,4.4613,6.3472,6.9701,3.3446,2.8043,6.3286,0.3320,1.1908,6.1948,4.7442,8.6628,9.9606,5.9079,3.2751,3.4636,7.0369,5.8880,6.0155,7.3083
1796.8750,6.5299,7.4620,7.5941,3.3191,1.2152,9.6256,0.2920,1.2093,6.9647,5.5815,9.2607,11.4838,5.8577,3.3900,5.8974,7.8118,7.9043,7.5767,7.7652
1800.7812,7.5958,7.0089,7.3692,3.0713,0.1514,11.7415,-1.5658,1.3903,6.9160,5.1636,7.9443,10.4514,4.5182,2.8197,4.7565,3.9543,7.4487,7.9084,7.0035
1804.6875,7.1760,4.5425,6.0742,2.6263,0.1411,11.7912,-4.3861,1.7285,5.9277,3.4673,4.9627,6.6740,2.0926,1.6895,0.3638,-3.9419,4.5475,6.4810,4.9786
1808.5938,5.4497,0.5546,4.0045,2.0564,1.0690,9.6390,-6.5733,2.0895,4.2286,1.1589,1.3651,0.9849,-0.7326,0.3852,-4.8200,-13.0986,0.5553,3.5212,2.2189
1812.5000,3.0748,-3.7737,1.7052,1.3705,2.2266,5.9496,-6.8086,2.2267,2.1938,-0.8337,-1.6310,-5.0561,-3.1356,-0.6608,-7.8463,-19.5853,-2.7642,-0.1183,-0.4734
1816.4062,0.8163,-7.0822,-0.3036,0.5661,2.8034,1.9116,-4.9043,1.9597,0.2062,-1.7845,-3.2340,-9.6564,-4.4622,-1.1273,-7.1804,-20.1809,-4.2312,-3.2930,-2.3297
1820.3125,-0.7800,-8.3638,-1.6468,-0.2105,2.4743,-1.2402,-1.9713,1.3867,-1.3692,-1.4307,-3.3341,-11.3764,-4.3836,-0.8607,-3.6251,-14.1026,-3.7076,-4.9737,-2.8128
1824.2188,-1.5252,-7.3321,-2.0916,-0.5899,1.6395,-2.7029,0.1950,0.9266,-2.1980,0.0186,-2.4016,-9.6899,-2.9522,0.1120,0.2569,-3.5892,-1.8937,-4.6238,-1.7443
1828.1250,-1.5380,-4.5257,-1.5626,-0.1464,1.1110,-2.3912,0.1478,1.0891,-2.0844,2.0286,-1.2042,-5.3256,-0.6296,1.5567,1.7652,7.0804,0.2084,-2.4460,0.5816
1832.0312,-1.1084,-1.1110,-0.2486,1.2496,1.4627,-0.9095,-2.3531,2.0919,-1.1469,3.9278,-0.5188,-0.1533,1.7451,3.0181,-0.3302,13.6571,1.7367,0.6100,3.3444
1835.9375,-0.5637,1.5767,1.2979,3.1584,2.5380,0.7846,-6.1480,3.6042,0.1091,5.0976,-0.8903,3.4999,3.1577,3.9171,-5.1446,13.9625,2.1377,3.1612,5.3551
1839.8438,-0.1687,2.6093,2.2530,4.6523,3.5152,1.8832,-9.2643,4.8528,0.9784,5.1693,-2.4174,3.9162,2.8363,3.8061,-10.2800,8.7940,1.1846,3.9754,5.5119
1843.7500,-0.0510,1.9080,1.8856,4.7987,3.5194,2.1498,-9.9698,5.0788,0.9669,4.1991,-4.6030,0.9347,0.7320,2.6831,-13.2057,1.2635,-0.9513,2.5957,3.4084
1847.6562,-0.1539,0.2875,0.0338,3.2757,2.3370,2.0140,-7.7184,4.0607,0.1675,2.7136,-6.4102,-3.8039,-2.2581,1.1410,-12.5824,-4.9660,-3.5658,-0.3368,-0.2717
1851.5625,-0.2500,-0.9917,-2.6365,0.6923,0.6851,2.2432,-3.4629,2.3293,-0.7059,1.5176,-6.6493,-7.5912,-4.5810,0.1666,-8.8479,-7.5016,-5.4454,-3.3125,-3.9215
1855.4688,-0.0517,-0.9706,-4.8499,-1.6640,-0.2119,3.3430,0.8433,0.8862,-0.7334,1.2762,-4.6222,-8.0761,-4.7923,0.6200,-3.8679,-6.1306,-5.2701,-4.6963,-5.7773
1859.3750,0.6090,0.3898,-5.3783,-2.5547,0.5307,5.0521,3.2838,0.5794,0.5721,2.0772,-0.6841,-4.6084,-2.4004,2.6758,0.0580,-2.4657,-2.3314,-3.6196,-4.8970
1863.2812,1.6249,2.1303,-3.7716,-1.5514,2.7817,6.3091,2.9699,1.5428,2.8327,3.2705,3.6962,1.3116,1.7377,5.6017,1.3002,1.2787,2.8444,-0.5112,-1.7471
1867.1875,2.5947,2.8623,-0.6958,0.6658,5.3832,5.8156,0.4275,3.0812,4.9101,3.7631,6.5617,6.8101,5.7694,8.0741,-0.3817,3.5657,8.4654,3.0689,2.0095
1871.0938,2.9860,1.6604,2.3688,2.6849,6.8357,2.9208,-2.8184,4.0912,5.5291,2.6624,6.5102,9.2286,7.7925,8.8899,-3.7806,4.1549,12.2182,5.2339,4.4375
1875.0000,2.4046,-1.2945,3.9143,3.1889,6.2158,-1.7369,-5.1818,3.7434,4.0370,-0.1137,3.5388,7.5904,6.8474,7.6447,-6.8472,3.8381,12.4469,4.7634,4.4001
1878.9062,0.8140,-4.7769,3.2072,1.7136,3.7026,-6.3351,-5.8927,1.9795,0.8056,-3.6762,-0.8867,3.0592,3.3692,4.9438,-7.7120,3.5995,9.0650,1.7239,2.1123
1882.8125,-1.4316,-7.2756,0.6322,-1.1234,0.3797,-8.7909,-5.2992,-0.4869,-2.9805,-6.6126,-4.6493,-1.8657,-1.1453,2.0012,-5.6888,3.7893,3.6091,-2.6216,-1.1381
1886.7188,-3.7655,-7.9677,-2.5980,-4.0375,-2.5127,-8.0158,-4.4722,-2.6436,-6.0055,-7.8016,-6.2131,-4.8876,-5.0098,-0.1165,-1.7733,3.8173,-1.6327,-6.5255,-3.8633
1890.6250,-5.6874,-7.2450,-5.1477,-5.8415,-4.3314,-4.7049,-4.4361,-3.7916,-7.5238,-7.0819,-5.4936,-5.2070,-7.2055,-1.1071,1.6984,2.5288,-4.8837,-8.6514,-5.2363
1894.5312,-6.9686,-6.4101,-6.2339,-6.0762,-5.2802,-1.0697,-5.5508,-3.8973,-7.6509,-5.3333,-3.8075,-3.7903,-7.7335,-1.5093,2.1943,-0.9595,-5.7494,-8.6529,-5.4026
1898.4375,-7.6627,-6.7242,-5.9032,-5.1528,-6.0412,0.4398,-7.4057,-3.4904,-7.1078,-3.8976,-2.9435,-2.5210,-7.3388,-2.2108,-1.5638,-6.4469,-5.1814,-7.1717,-5.1329
1902.3438,-7.9322,-8.4426,-4.8272,-3.9901,-7.1162,-1.3043,-9.1993,-3.2264,-6.6477,-3.7104,-3.9749,-2.8599,-6.8817,-3.7371,-8.6205,-12.3511,-4.6260,-5.3470,-5.1614
1906.2500,-7.8269,-10.5130,-3.8266,-3.4301,-8.3840,-5.2525,-10.2624,-3.4386,-6.5686,-4.7071,-6.5848,-4.9149,-6.8002,-5.8179,-15.9257,-16.1906,-4.9654,-4.1792,-5.7127
1910.1562,-7.1834,-11.1850,-3.4385,-3.8008,-9.1829,-8.6411,-10.3573,-3.9716,-6.6104,-5.8931,-9.3137,-7.4872,-6.9648,-7.5220,-19.6891,-15.7207,-5.9556,-4.1015,-6.4991
1914.0625,-5.7392,-9.1674,-3.7395,-4.8421,-8.8178,-8.5829,-9.6301,-4.3677,-6.2473,-6.0271,-10.5199,-8.9788,-6.9249,-7.8635,-17.3408,-10.2025,-6.4883,-4.9249,-7.0770
1917.9688,-3.4076,-4.5920,-4.4365,-5.9550,-7.0934,-3.8681,-8.3863,-4.2321,-5.1361,-4.4695,-9.4024,-8.4902,-6.3016,-6.4621,-9.0540,-1.1082,-5.4445,-6.0890,-7.2070
1921.8750,-0.5375,0.8599,-5.0922,-6.5643,-4.4810,4.1148,-6.9494,-3.5083,-3.4145,-1.6513,-6.4486,-6.3680,-5.0484,-3.8118,2.0691,8.2540,-2.5364,-7.0155,-6.9302
1925.7812,2.0391,4.7855,-5.3386,-6.3764,-1.8229,11.9250,-5.7015,-2.4922,-1.6789,1.1249,-3.0931,-3.8910,-3.4562,-0.9934,11.3474,14.1722,1.4087,-7.3741,-6.3687
1929.6875,3.2684,5.3647,-5.0028,-5.4403,0.1866,15.8016,-5.1536,-1.6064,-0.6848,2.4127,-0.8793,-2.3879,-1.9686,0.9628,14.7482,14.3641,4.8755,-7.1722,-5.5015
1933.5938,2.3575,2.3592,-4.1533,-4.0593,1.3574,13.6083,-5.8167,-1.1216,-0.9651,1.4192,-0.6779,-2.4303,-0.9769,1.6269,10.8153,9.2037,6.4843,-6.6905,-4.1795
1937.5000,-0.7622,-2.7796,-3.0859,-2.6573,1.9637,5.9209,-7.8241,-1.0170,-2.5737,-1.5909,-2.3860,-3.6297,-0.7130,1.2794,1.2877,1.5639,5.6893,-6.3333,-2.3945
1941.4062,-5.2719,-7.7421,-2.2513,-1.6711,2.3754,-4.2929,-10.5606,-1.0578,-5.0704,-5.4830,-5.1723,-5.0981,-1.2529,0.5455,-9.8706,-4.7432,2.9590,-6.4660,-0.5633
1945.3125,-9.7485,-10.6244,-2.1175,-1.4696,2.6630,-13.1529,-12.6855,-1.0119,-7.7349,-8.8687,-8.0073,-6.1664,-2.5596,-0.1507,-18.4316,-7.0765,-0.5884,-7.2857,0.4759
1949.2188,-12.7974,-10.8869,-2.9889,-2.2683,2.4835,-17.6681,-12.7347,-0.8375,-9.8911,-10.7687,-10.1263,-6.8109,-4.4932,-0.8976,-21.7680,-5.3672,-3.7948,-8.7547,-0.1451
1953.1250,-13.7126,-9.4791,-4.8540,-4.0316,1.3350,-16.9469,-10.0463,-0.7128,-11.1875,-10.9713,-11.2163,-7.5004,-6.7781,-2.1433,-19.6935,-1.9357,-5.9286,-10.6058,-2.7575
1957.0312,-12.7884,-8.1118,-7.3423,-6.4089,-0.9981,-12.3080,-5.4104,-0.8925,-11.6947,-9.9564,-11.3390,-8.6282,-8.9751,-4.1912,-14.0140,0.1617,-6.7865,-12.4105,-6.7911
1960.9375,-11.0775,-8.1403,-9.8237,-8.7659,-4.1289,-6.3882,-0.9080,-1.4958,-11.7653,-8.5049,-10.7400,-10.0012,-10.5216,-6.7328,-7.2682,-0.8234,-6.4957,-13.6796,-10.8918
1964.8438,-9.7139,-9.7251,-11.6023,-10.3492,-7.1149,-1.8014,1.1158,-2.3766,-11.7269,-7.2535,-9.6880,-10.8103,-10.8685,-8.8021,-1.4899,-4.2514,-5.2678,-13.9649,-13.4936
1968.7500,-9.2033,-11.7451,-12.1215,-10.5460,-8.8774,-0.0208,-0.6090,-3.1724,-11.5881,-6.4291,-8.4001,-10.1432,-9.6873,-9.2629,2.3569,-7.6856,-3.3279,-12.9516,-13.5368
1972.6562,-9.1319,-12.4901,-11.1090,-9.1430,-8.7636,-0.9464,-5.4567,-3.5164,-10.9669,-5.8602,-7.0355,-7.6915,-7.0690,-7.5545,4.1735,-8.7086,-1.0431,-10.5524,-10.9397
1976.5625,-8.4994,-10.7178,-8.6498,-6.4650,-6.9330,-3.2490,-11.1658,-3.2844,-9.3339,-5.2030,-5.7141,-4.1325,-3.6131,-4.2061,4.1707,-6.6579,0.9388,-7.0011,-6.6031
1980.4688,-6.4842,-6.4672,-5.2034,-3.3143,-4.3401,-5.2315,-15.0700,-2.7184,-6.4603,-4.2269,-4.5403,-0.8729,-0.3217,-0.7326,2.5134,-3.0383,1.7738,-2.9090,-1.9934
1984.3750,-3.1432,-1.1622,-1.5591,-0.7085,-2.3024,-5.7491,-15.5629,-2.3269,-2.7774,-2.9952,-3.6151,0.7353,1.7186,1.1051,-0.5640,-0.3241,0.8038,0.8028,1.4502
1988.2812,0.4349,3.0511,1.3101,0.4964,-1.8644,-4.7471,-12.9138,-2.5980,0.6375,-1.8526,-3.0294,0.2177,1.7737,0.2712,-4.3788,-0.0556,-1.9610,3.1466,2.8123
1992.1875,2.6707,4.3744,2.5273,-0.0481,-3.2729,-3.1730,-8.9688,-3.6796,2.5290,-1.2373,-2.8250,-1.7001,-0.1718,-2.9177,-7.6384,-1.6653,-5.6111,3.4481,1.9438
1996.0938,2.4168,2.2544,1.6678,-2.0204,-5.8337,-2.3406,-5.9849,-5.2253,2.1479,-1.4310,-2.9525,-3.5112,-3.3291,-6.9074,-8.8476,-2.9483,-8.6258,1.6911,-0.5741
2000.0000,-0.3161,-2.3634,-0.9715,-4.5401,-8.2276,-3.1061,-5.3502,-6.5217,-0.2724,-2.3925,-3.2690,-3.8522,-6.3995,-9.7205,-7.1678,-1.8516,-9.6185,-1.3852,-3.6775
2003.9062,-4.2969,-7.5325,-4.3802,-6.5210,-9.1364,-5.3285,-6.9468,-6.8483,-3.5817,-3.7699,-3.6130,-2.3593,-8.1452,-9.9979,-3.1645,1.7650,-8.1359,-4.5557,-6.1907
2007.8125,-7.7214,-11.2535,-7.1938,-7.1184,-7.8695,-7.9276,-9.4362,-5.8710,-6.3164,-5.0742,-3.9135,0.0958,-7.9451,-7.6631,1.1983,5.7928,-4.9784,-6.6445,-7.2153
2011.7188,-9.1586,-12.3478,-8.2648,-6.0555,-4.6744,-9.5036,-11.1611,-3.8283,-7.4675,-5.8956,-4.2345,1.9688,-6.0210,-3.8371,3.5287,7.3280,-1.7604,-7.0396,-6.4142
2015.6250,-8.2132,-10.8222,-7.1496,-3.6721,-0.5814,-9.1399,-11.0440,-1.3891,-6.9231,-6.0210,-4.6686,2.0696,-3.1968,-0.0984,2.4803,4.9155,0.0912,-5.8827,-4.0759
2019.5312,-5.5323,-7.6100,-4.2339,-0.6781,3.1255,-6.8888,-8.9886,0.7396,-5.3157,-5.3955,-5.1181,0.4156,-0.3440,2.4284,-1.1993,-0.0926,0.2834,-3.8196,-0.9128
2023.4375,-2.2362,-3.9375,-0.4375,2.2373,5.5197,-3.6558,-5.6952,2.2078,-3.4241,-3.9990,-5.1358,-1.6509,2.1234,3.5994,-4.8421,-4.1921,-0.1024,-1.4890,2.3129
2027.3438,0.7842,-0.7335,3.2953,4.7075,6.3961,-0.5896,-2.1739,3.1610,-1.5962,-1.7878,-4.0323,-2.1947,4.3706,4.1130,-5.3354,-4.0777,0.6889,0.8901,5.1324
2031.2500,3.2276,1.6025,6.3821,6.7294,6.2155,1.5858,0.6707,4.0281,0.3769,1.2059,-1.2892,0.1422,6.8081,4.8643,-1.1001,0.9192,3.8366,3.5373,7.4758
2035.1562,5.2285,3.0489,8.6482,8.4488,5.7033,2.8546,2.2014,5.1043,2.8650,4.6766,2.9360,5.2349,9.5634,6.2583,6.6792,8.0908,8.9580,6.7273,9.4895
2039.0625,6.9091,3.6618,10.0792,9.8649,5.3741,3.6632,2.0329,6.2219,5.8252,7.9444,7.5896,11.3957,12.1611,7.9334,14.4594,12.9668,14.0827,10.3017,11.2125
2042.9688,8.0526,3.4155,10.5518,10.6841,5.2702,4.3919,0.0339,6.7600,8.5442,10.1191,11.0512,16.1837,13.6768,9.0404,18.2702,12.2644,16.6860,13.4696,12.3694
2046.8750,8.1787,2.3041,9.8118,10.4500,5.0465,4.9822,-3.5565,6.0228,9.9550,10.5213,11.9309,17.6429,13.2856,8.8485,16.0496,6.1589,15.1707,15.1030,12.4633
2050.7812,6.9464,0.5686,7.7369,8.8688,4.2992,5.0026,-8.0028,3.7525,9.3286,9.1108,9.8737,15.2491,10.8273,7.2457,8.9077,-1.7443,9.8526,14.3694,11.1161
2054.6875,4.5434,-1.2088,4.6592,6.1077,2.8984,4.0753,-12.1322,0.4421,6.8323,6.6039,5.8356,10.0542,6.9907,4.8137,0.4780,-6.7689,2.8118,11.2878,8.4163
2058.5938,1.7195,-2.3113,1.4273,2.8404,1.1050,2.2924,-14.6811,-2.7878,3.5152,4.1244,1.5833,4.0112,2.9790,2.4573,-5.2776,-6.2663,-3.2931,6.8181,4.9971
2062.5000,-0.5928,-2.3015,-0.9264,-0.0167,-0.5754,0.2688,-14.8066,-4.7059,0.6987,2.5632,-1.3057,-1.0472,-0.1111,0.8720,-6.4153,-1.3211,-6.6623,2.4042,1.7660
2066.4062,-1.7991,-1.3443,-1.7347,-1.7255,-1.6736,-1.2222,-12.4733,-4.5909,-0.7976,2.0709,-2.2962,-4.1525,-1.7758,0.2084,-3.9961,4.1009,-7.1207,-0.7376,-0.5397
2070.3125,-1.9239,-0.1550,-1.0791,-2.0509,-1.9806,-1.7452,-8.4707,-2.6012,-1.0404,2.0575,-2.0326,-5.2981,-2.1558,0.1232,-1.0989,5.9399,-5.7836,-2.1327,-1.6697
2074.2188,-1.4510,0.4615,0.2859,-1.3003,-1.5990,-1.4421,-4.0342,0.3085,-0.7122,1.7320,-1.6765,-4.9890,-1.6916,0.1253,-0.5673,2.8073,-3.9777,-2.0646,-1.8444
2078.1250,-0.8664,0.2011,1.4430,-0.0818,-0.8440,-0.8365,-0.3011,2.8543,-0.4212,0.8059,-1.9343,-3.6838,-0.7078,-0.0663,-3.0409,-3.1765,-2.2668,-1.1544,-1.4604
2082.0312,-0.2714,-0.4384,1.9056,1.0349,-0.1075,-0.3769,2.0748,3.9949,-0.1474,-0.1757,-2.4914,-1.5616,0.7289,-0.4062,-6.6005,-7.9805,-0.3002,0.1428,-0.7749
2085.9375,0.6294,-0.4075,1.8771,1.7396,0.2253,-0.0962,2.9581,3.3101,0.7290,-0.1707,-2.2742,1.2797,2.5927,-0.6938,-8.2229,-8.4930,2.4752,1.7504,0.1771
2089.8438,2.1656,1.1993,1.9990,1.9798,-0.1847,0.3419,2.4847,1.0420,2.8283,1.5505,-0.3471,4.4666,4.5631,-0.8530,-5.9800,-4.5557,5.8821,3.7756,1.3918
2093.7500,4.2624,4.4367,2.7875,1.8070,-1.5652,1.2658,0.7916,-2.1340,6.0693,4.7038,3.2296,7.2361,5.9320,-1.0696,-0.4297,1.1786,8.6914,6.1200,2.6395
2097.6562,6.2950,8.2740,4.1828,1.2401,-3.8993,2.6166,-2.0319,-5.4167,9.4352,7.9526,7.2341,8.7522,5.9264,-1.6596,5.7465,5.3431,9.2747,8.2547,3.4154
2101.5625,7.3771,11.0339,5.5417,0.2652,-6.7933,3.8906,-5.7423,-8.1030,11.4369,9.6324,9.9543,8.6512,4.2600,-2.7629,9.5423,6.3028,6.8119,9.3812,3.2040
2105.4688,6.8913,11.2754,6.0608,-1.0465,-9.4837,4.4593,-9.6975,-9.6846,10.9819,8.7795,10.2244,7.3719,1.4889,-4.1115,9.5421,5.1657,2.1415,8.8818,1.8784
2109.3750,4.8821,8.5931,5.3063,-2.4371,-11.0763,4.0133,-12.8543,-9.8772,8.0464,5.7589,8.0889,5.9420,-1.1626,-5.0812,6.6182,4.6921,-2.4695,6.7342,-0.0936
2113.2812,2.0321,3.8517,3.4645,-3.5041,-10.9503,2.7773,-14.1329,-8.6570,3.6867,2.0395,4.6503,5.2952,-2.4706,-5.0372,3.0154,6.9906,-4.6051,3.5771,-1.8591
2117.1875,-0.7420,-1.2707,1.1695,-3.8901,-9.1022,1.3433,-12.9807,-6.3044,-0.5964,-0.7314,1.2667,5.5870,-1.9559,-3.7599,0.6314,11.7458,-3.2112,0.3766,-2.7064
2121.0938,-2.7704,-5.1299,-0.9089,-3.4922,-6.1893,0.2743,-9.7645,-3.3835,-3.6718,-1.7083,-1.2629,6.0372,-0.1882,-1.6599,-0.1604,16.2793,0.7035,-2.0707,-2.5438
2125.0000,-3.8576,-6.8392,-2.3774,-2.5284,-3.2030,-0.1967,-5.6765,-0.5965,-5.2184,-1.2123,-2.9334,5.4743,1.5788,0.3840,-0.2919,17.3709,4.6868,-3.4563,-1.9598
2128.9062,-4.1510,-6.4784,-3.1214,-1.4014,-0.9505,-0.1576,-2.1379,1.4623,-5.5592,-0.2709,-4.0947,3.2414,2.2072,1.4838,-0.6858,13.4995,6.3855,-3.9203,-1.7864
2132.8125,-3.8362,-4.7643,-3.0837,-0.4541,0.3228,0.2331,-0.0371,2.5299,-5.1338,0.2676,-4.8022,-0.1866,1.3587,1.2139,-1.0409,5.9042,4.9667,-3.7530,-2.4670
2136.7188,-2.9569,-2.4910,-2.1042,0.2047,0.9210,0.9690,0.7157,2.7387,-4.0947,0.3545,-4.5832,-3.3606,-0.3949,-0.1951,0.1461,-2.2273,1.4711,-3.1189,-3.6976
2140.6250,-1.5108,-0.1460,-0.0359,0.6804,1.3121,2.1626,1.0125,2.4728,-2.3535,0.6423,-2.8772,-4.7425,-2.0847,-2.0520,4.1897,-7.7905,-2.0850,-2.0272,-4.6331
2144.5312,0.3015,2.0929,2.9289,1.1103,1.6652,3.7874,1.8526,2.1063,0.0201,1.7855,0.1973,-3.7347,-3.0700,-3.6409,10.5061,-9.5533,-4.1593,-0.5314,-4.5294
2148.4375,1.9589,4.0864,6.0331,1.4820,1.6709,5.4573,3.5872,1.7938,2.4653,3.7275,3.4437,-1.1349,-3.4328,-4.6044,16.0629,-8.5249,-4.6273,1.0672,-3.3496
2152.3438,2.8201,5.4923,8.1274,1.6105,0.8016,6.4984,5.6145,1.4432,4.0423,5.5602,5.0351,1.3304,-3.7587,-5.0339,16.7416,-6.8215,-4.5812,2.2493,-1.8624
2156.2500,2.5459,5.8026,8.2422,1.3030,-1.1672,6.3288,6.7380,0.8685,3.9897,6.0885,3.6401,2.1056,-4.5056,-5.2459,9.9608,-6.0008,-5.2133,2.5706,-1.1229
2160.1562,1.4110,4.6583,6.2116,0.5737,-3.7802,4.8720,5.9423,-0.0047,2.3211,4.6805,-0.5252,0.8056,-5.4829,-5.4449,-3.1665,-6.1075,-6.6951,2.0022,-1.6911
2164.0625,0.2107,2.2028,2.8935,-0.2739,-6.0004,2.6711,3.0519,-1.0343,-0.0298,1.7650,-5.5267,-1.5502,-5.8827,-5.5364,-17.7579,-6.0080,-7.9377,1.0286,-3.1562
2167.9688,-0.2426,-0.8222,-0.2334,-0.7900,-6.7815,0.5780,-1.1787,-1.9264,-1.7020,-1.3897,-8.6740,-3.2197,-4.8779,-5.2278,-27.4978,-4.5883,-7.4350,0.3796,-4.3464
2171.8750,0.3068,-3.3534,-1.8792,-0.6553,-5.7498,-0.7675,-5.5873,-2.4066,-1.7310,-3.4414,-8.0691,-2.8623,-2.3453,-4.3208,-28.0825,-1.7904,-4.5424,0.5631,-4.1034
2175.7812,1.3503,-4.5118,-1.6374,0.1078,-3.5152,-1.2835,-9.3419,-2.3664,-0.1306,-3.7206,-3.7507,-0.3620,0.8573,-2.9538,-19.6433,1.3058,-0.1942,1.5371,-2.0926
2179.6875,1.9699,-4.0285,-0.1154,1.1486,-1.3594,-1.3671,-12.3470,-1.8935,2.1816,-2.4567,2.3215,3.1611,3.3257,-1.5863,-6.6021,3.3410,3.5391,2.7679,0.9257
2183.5938,1.5306,-2.3352,1.5616,2.0153,-0.4701,-1.4787,-15.0179,-1.1894,4.0503,-0.4087,7.4374,6.0968,3.9969,-0.7158,4.9549,3.7386,4.7931,3.6349,3.5668
2187.5000,0.2011,-0.2875,2.4956,2.4275,-1.2172,-1.7407,-17.6108,-0.4653,4.8396,1.7246,9.6887,7.3113,2.8734,-0.5312,10.7101,3.1203,3.2016,3.8682,4.7099
2191.4062,-1.1068,1.2866,2.4891,2.3940,-2.9486,-1.8729,-19.6465,0.1090,4.7348,3.6321,8.9128,6.7102,1.0514,-0.7658,10.2120,2.7726,0.1932,3.6836,4.1929
2195.3125,-1.3757,1.9394,1.9627,2.1113,-4.4367,-1.4935,-19.9344,0.3987,4.4039,5.2579,6.4861,5.1067,-0.0019,-0.8747,6.4445,3.5968,-1.9582,3.5181,2.8437
2199.2188,-0.2470,1.6900,1.4631,1.7476,-4.6662,-0.5051,-17.2796,0.3043,4.3384,6.4398,4.2211,3.5832,0.5539,-0.4258,3.3716,5.3344,-1.6936,3.5919,1.8539
2203.1250,1.6581,0.8683,1.1990,1.3076,-3.4357,0.7796,-11.4421,-0.1781,4.4240,6.7402,3.1819,2.8214,2.3457,0.5723,3.2395,6.6255,0.7402,3.6713,1.9544
2207.0312,3.1237,-0.1249,0.9655,0.6871,-1.3963,1.8789,-3.6818,-0.8743,4.0844,5.6959,3.1969,2.8086,4.0198,1.6424,5.4262,5.8331,3.4270,3.2464,2.9674
2210.9375,3.1789,-0.9812,0.4731,-0.1415,0.4509,2.5302,3.5592,-1.4259,2.8672,3.3031,3.2871,3.0136,4.1472,2.1415,7.4330,2.0688,4.0573,2.0006,4.0183
2214.8438,1.7879,-1.5196,-0.2540,-0.9948,1.4126,2.8633,7.7356,-1.4451,0.9647,0.2885,2.5720,2.8149,2.1921,1.6875,7.0913,-4.2107,1.4797,0.1896,4.2108
2218.7500,-0.1208,-1.6558,-0.7954,-1.5416,1.4619,3.1839,7.4421,-0.7827,-0.7900,-2.1599,0.9447,1.8745,-1.1012,0.4217,4.2814,-11.3111,-3.5042,-1.4083,3.2612
2222.6562,-1.3233,-1.3938,-0.6763,-1.5423,1.0922,3.5426,3.0936,0.2638,-1.4974,-3.0939,-0.9351,0.2720,-4.1515,-1.0674,0.9387,-16.9487,-8.6052,-1.9895,1.6481
2226.5625,-1.1956,-0.8662,0.1321,-1.0818,0.8409,3.4912,-3.3415,0.9956,-0.9054,-2.4466,-2.2262,-1.5831,-5.5099,-2.0970,-0.5548,-19.0521,-11.4273,-1.3263,0.2136
2230.4688,-0.1871,-0.3683,0.9877,-0.5949,0.8658,2.3022,-9.3727,0.6586,0.3041,-1.1056,-2.5581,-3.1383,-4.7199,-2.2783,0.6878,-16.4190,-10.8507,-0.0168,-0.4617
2234.3750,0.4764,-0.3039,0.8773,-0.6281,0.8812,-0.4443,-13.1672,-1.0825,0.9225,-0.3125,-2.2476,-3.8880,-2.5376,-1.6950,3.2717,-9.1218,-7.5630,0.8425,-0.4455
2238.2812,-0.3403,-1.0235,-0.9151,-1.4887,0.4568,-4.3481,-14.2299,-3.8480,0.0541,-0.7949,-1.9680,-3.5433,-0.4120,-0.7882,4.4816,1.3407,-3.4884,0.3678,-0.3446
2242.1875,-2.8504,-2.6239,-4.2296,-3.0228,-0.5858,-8.1904,-13.2910,-6.6528,-2.2137,-2.2621,-2.1825,-2.1771,0.4048,-0.0609,2.2832,12.2122,-0.5706,-1.4980,-0.8088
2246.0938,-6.1280,-4.8334,-7.9682,-4.6829,-1.9954,-10.5365,-11.5979,-8.4004,-4.8044,-3.6438,-2.8047,-0.2887,-0.4442,0.1873,-3.1040,20.0923,0.2882,-3.8989,-2.0222
2250.0000,-8.6494,-7.0682,-10.6305,-5.8355,-3.2517,-10.5681,-10.1174,-8.4708,-6.3308,-3.8980,-3.3254,1.3104,-2.3057,-0.0544,-9.2092,22.0017,-0.4700,-5.5764,-3.5399
2253.9062,-9.2178,-8.6522,-11.1144,-6.0972,-3.9195,-8.5744,-9.1157,-7.0345,-5.9838,-2.7927,-3.2638,1.8217,-3.9872,-0.6024,-12.8888,16.6044,-1.5800,-5.6372,-4.5673
2257.8125,-7.6572,-9.0994,-9.2823,-5.4860,-3.9160,-5.7548,-8.2786,-4.8976,-4.0228,-1.0815,-2.5621,0.8733,-4.4793,-1.2385,-12.3617,5.0174,-1.8626,-4.0778,-4.4766
2261.7188,-4.8489,-8.3191,-5.9650,-4.3257,-3.5048,-3.4651,-7.1750,-2.9919,-1.5513,0.0511,-1.6197,-1.2245,-3.4952,-1.8100,-8.2871,-9.3272,-0.9281,-1.7482,-3.2155
2265.6250,-2.1451,-6.6526,-2.4580,-3.0175,-3.0539,-2.4276,-5.7032,-1.8573,0.2238,-0.1432,-0.9691,-3.5895,-1.5587,-2.2339,-3.1920,-21.8918,0.6964,0.1779,-1.3597
2269.5312,-0.5831,-4.7195,0.1364,-1.8581,-2.7663,-2.4223,-4.2314,-1.4434,0.7197,-1.4340,-0.8707,-5.2281,0.3491,-2.4507,0.2655,-28.8417,1.9946,0.8583,0.2039
2273.4375,-0.3983,-3.1439,1.3349,-0.9974,-2.5848,-2.6137,-3.3890,-1.3164,0.2215,-2.7777,-1.1442,-5.5821,1.3453,-2.4037,0.9288,-28.5920,2.1177,0.1701,0.7608
2277.3438,-1.0667,-2.2690,1.3044,-0.4875,-2.3083,-2.2174,-3.6806,-1.0670,-0.4461,-3.0474,-1.3401,-4.8001,1.1056,-2.0632,-0.4255,-22.3224,0.8805,-1.3341,0.1498
2281.2500,-1.7460,-1.9872,0.6064,-0.3077,-1.7876,-1.0110,-5.1746,-0.5954,-0.5079,-1.7811,-1.0820,-3.5440,0.0153,-1.4587,-2.0148,-13.2264,-1.1355,-2.7764,-1.1423
2285.1562,-1.7655,-1.7721,-0.1092,-0.3145,-1.0282,0.6268,-7.4310,-0.0796,0.3470,0.5756,-0.2953,-2.4598,-1.0352,-0.6719,-2.4989,-4.9291,-2.8763,-3.3502,-2.2029
2289.0625,-0.8791,-0.9305,-0.3011,-0.1919,-0.1346,2.0901,-9.6735,0.3008,1.9550,3.0580,0.8437,-1.6905,-1.1006,0.2120,-1.8111,0.0965,-3.3287,-2.5695,-2.1196
2292.9688,0.7762,1.0180,0.3784,0.4749,0.8193,2.9892,-11.0903,0.6217,3.9648,4.8670,2.1570,-0.7825,0.3337,1.1451,-0.8103,1.3642,-2.0074,-0.3499,-0.4210
2296.8750,2.8648,4.0088,2.0253,1.9636,1.8491,3.3343,-11.1128,1.2184,6.1150,5.8337,3.6669,0.9380,3.0547,2.1033,-0.1750,0.1688,0.7956,2.9990,2.6562
2300.7812,4.9984,7.3417,4.4136,4.1478,2.9821,3.3878,-9.5814,2.4207,8.2694,6.3605,5.5498,3.7836,6.1629,3.0252,0.4289,-1.4055,4.1023,6.8129,6.2060
2304.6875,6.7765,9.9305,6.9802,6.4200,4.1206,3.3794,-6.7734,4.2322,10.2367,6.9490,7.8550,7.3324,8.4533,3.7702,2.1139,-1.6677,6.6493,10.1811,9.0094
2308.5938,7.7964,10.8077,8.9670,7.9380,4.9948,3.3427,-3.3194,6.2220,11.6045,7.7216,10.2154,10.5350,8.9721,4.1618,5.5886,-0.0999,7.4315,12.1891,10.0767
2312.5000,7.7353,9.6361,9.7267,8.0975,5.2910,3.1758,-0.0390,7.7335,11.8106,8.3029,11.8202,12.2451,7.4778,4.1097,9.9997,2.5854,6.1497,12.2700,9.1271
2316.4062,6.5157,6.9335,9.0464,6.9334,4.8899,2.8139,2.2788,8.2732,10.4654,8.1248,11.7544,11.8449,4.5734,3.7247,12.8890,5.0484,3.3559,10.5005,6.7489
2320.3125,4.4472,3.8542,7.2833,5.1558,4.0330,2.3228,3.1115,7.7998,7.7093,6.8920,9.5510,9.5889,1.4342,3.3205,11.5798,6.2090,0.2255,7.6359,4.1267
2324.2188,2.2043,1.6202,5.1962,3.7537,3.2655,1.8269,2.3860,6.7116,4.3226,4.8458,5.6228,6.4848,-0.7270,3.2682,5.1798,5.9140,-1.9394,4.7977,2.4526
2328.1250,0.5886,0.9054,3.5595,3.4040,3.1521,1.3663,0.5150,5.5549,1.4575,2.6449,1.2682,3.8052,-1.1853,3.7822,-4.2371,4.9979,-2.2466,2.9513,2.3356
2332.0312,0.1716,1.5167,2.7950,4.0696,3.9327,0.8478,-1.7668,4.6726,0.1099,0.9741,-1.8303,2.5038,0.0302,4.7766,-12.3175,4.6754,-0.5654,2.4679,3.5378
2335.9375,1.0080,2.5477,2.8393,5.0544,5.3391,0.1636,-3.7289,4.0385,0.6247,0.1711,-2.4063,2.8115,2.2204,5.8906,-14.8085,5.6095,2.4314,3.0216,5.1804
2339.8438,2.5837,2.9083,3.2944,5.4679,6.6989,-0.6230,-4.9822,3.3675,2.5122,0.1168,-0.3047,4.1640,4.3563,6.6643,-10.2371,7.2535,5.5170,3.8611,6.2776
2343.7500,4.0415,1.9328,3.7194,4.7804,7.2728,-1.2052,-5.6286,2.3873,4.6767,0.4172,3.3228,5.4639,5.4900,6.7523,-1.1328,7.9820,7.3445,4.2603,6.2657
2347.6562,4.5804,-0.2603,3.8513,3.1066,6.6322,-1.1727,-6.1041,1.0602,5.9400,0.7094,6.4849,5.5720,5.0743,6.0498,7.1443,6.0719,6.9311,3.8648,5.2195
2351.5625,3.8422,-2.8170,3.6441,1.0684,4.8757,-0.2757,-6.7778,-0.3831,5.6010,0.8723,7.3115,3.8569,3.1244,4.6910,9.4133,1.0036,4.0590,2.7690,3.6791
2355.4688,2.1029,-4.5469,3.1690,-0.6167,2.5815,1.3859,-7.5550,-1.5832,3.7725,1.0340,5.0483,0.5857,0.2181,2.9685,3.7494,-5.7834,-0.5392,1.3577,2.2597
2359.3750,0.1725,-4.4565,2.5206,-1.5112,0.5457,3.3965,-7.7757,-2.2295,1.3435,1.4230,0.5571,-3.0539,-2.6545,1.2546,-7.2482,-11.3243,-5.3265,0.0861,1.3338
2363.2812,-0.9679,-2.1795,1.8135,-1.5703,-0.5592,5.2432,-6.5522,-2.1585,-0.4233,2.1928,-4.0024,-5.4016,-4.3962,-0.0531,-17.8090,-12.6762,-8.4768,-0.6612,0.9666
2367.1875,-0.6374,1.8541,1.2451,-0.9891,-0.4490,6.5473,-3.3910,-1.3523,-0.4854,3.3291,-6.2116,-5.1131,-4.2148,-0.5969,-22.1787,-8.7088,-8.6177,-0.6139,1.0719
2371.0938,1.1883,6.5499,1.1069,0.0225,0.6789,7.1467,1.2847,0.0903,1.4624,4.6587,-4.6446,-1.9180,-2.0054,-0.1802,-17.7677,-0.9797,-5.4860,0.3514,1.5965
2375.0000,3.8336,10.5341,1.6761,1.3384,2.2466,7.0291,6.1086,1.9491,4.8068,5.9247,0.3464,3.1055,1.5087,1.0854,-6.4477,6.9892,-0.1284,2.1366,2.5588
2378.9062,6.2498,12.6691,3.0354,2.8432,3.5425,6.2548,9.3561,3.8584,8.2911,6.8776,6.7746,7.9852,5.0246,2.7193,6.6575,11.6978,5.5281,4.3534,3.9270
2382.8125,7.5610,12.5192,4.9564,4.3103,4.0112,4.9928,9.8565,5.3427,10.6271,7.3578,12.0397,10.8579,7.2423,4.0050,16.0488,11.7056,9.5613,6.3808,5.4762
2386.7188,7.5256,10.5596,6.9539,5.3934,3.4677,3.6377,7.6837,5.9646,11.1272,7.3530,14.2578,10.9629,7.4916,4.3099,18.6504,8.4028,10.9163,7.6009,6.7872
2390.6250,6.6189,7.9776,8.4881,5.7752,2.1359,2.8196,4.1555,5.5319,9.9900,7.0033,13.1344,9.0092,6.0321,3.4314,14.9766,4.9814,9.7520,7.7091,7.4230
2394.5312,5.6620,6.0911,9.1804,5.3636,0.4941,3.1531,1.0865,4.2250,8.0702,6.5286,9.8933,6.6642,3.8275,1.7423,8.2081,4.2687,7.0948,6.8847,7.1622
2398.4375,5.2230,5.6410,8.9128,4.3700,-0.9864,4.7942,-0.2738,2.5343,6.2834,6.0948,6.3686,5.4786,1.9309,0.0113,1.9894,6.8580,4.0857,5.6724,6.1145
2402.3438,5.2005,6.3527,7.7834,3.1985,-2.0533,7.1176,0.0487,1.0201,5.0464,5.6959,3.8864,5.9434,0.8811,-1.0187,-1.5926,10.7836,1.3622,4.6253,4.6336
2406.2500,4.9088,7.0777,6.0138,2.2287,-2.7093,8.8512,0.8608,0.0492,4.1360,5.1504,2.6657,7.2948,0.5093,-1.0354,-2.6887,12.9385,-1.0123,3.9616,3.1041
2410.1562,3.6430,6.5042,3.9125,1.6546,-3.0633,8.7318,0.6658,-0.3193,3.0510,4.2475,2.0628,8.1603,0.2532,-0.2914,-2.8546,11.2497,-3.1146,3.4897,1.7637
2414.0625,1.3414,4.0513,1.9051,1.4820,-3.1208,6.3409,-1.2757,-0.2325,1.5906,2.9674,1.3774,7.5705,-0.2853,0.6143,-3.5041,6.1284,-4.6662,2.8663,0.6814
2417.9688,-1.1602,0.3781,0.5248,1.6437,-2.6913,2.5497,-4.3955,0.1666,0.1817,1.6111,0.5494,5.6121,-0.9797,1.1471,-4.8025,0.2228,-4.9725,1.9769,-0.1343
2421.8750,-2.5304,-2.8707,0.2575,2.1000,-1.5029,-0.8168,-7.1410,0.8756,-0.3312,0.7138,0.2037,3.2954,-1.2812,1.1673,-5.7000,-3.3223,-3.4115,1.1271,-0.6201
2425.7812,-1.7850,-3.9947,1.2646,2.8308,0.5522,-1.9895,-7.9612,1.9807,0.6923,0.7625,1.0372,1.7879,-0.6791,0.9802,-4.9261,-2.8963,-0.0879,0.8698,-0.6442
2429.6875,0.9949,-2.2930,3.1698,3.7486,3.2316,-0.3424,-6.3001,3.4711,3.1229,1.8926,3.0783,1.6168,0.8674,1.1105,-2.0887,0.6168,3.9379,1.5888,-0.0966
2433.5938,4.5974,1.4245,5.1266,4.6547,5.9786,3.1521,-2.9542,5.0974,6.0104,3.7791,5.4649,2.4249,2.8800,1.9777,1.9882,4.5455,7.1510,3.1647,1.0159
2437.5000,7.3592,5.2259,6.2205,5.3227,8.1804,6.4331,0.4176,6.4210,8.1352,5.8104,6.9807,3.4044,4.7228,3.6765,5.9173,6.2761,8.5290,4.9971,2.5605
2441.4062,8.1558,7.1259,5.9973,5.6603,9.4735,7.5305,2.2749,7.0470,8.7851,7.4266,6.9636,4.0067,6.0561,5.9459,8.8251,4.9787,8.2377,6.3764,4.3474
2445.3125,7.0333,6.1788,4.7611,5.7938,9.8769,5.6804,2.0161,6.8668,8.1815,8.3792,5.8624,4.3328,6.9863,8.2751,10.9369,2.0971,7.4916,6.9197,6.1833
2449.2188,5.0529,2.9312,3.3959,5.9614,9.6641,1.6909,0.1403,6.1202,7.2278,8.7310,4.9412,4.8999,7.7788,10.0415,13.1317,0.3401,7.6052,6.7340,7.8310
2453.1250,3.4761,-1.0050,2.7790,6.2624,9.0869,-2.6275,-2.2672,5.2197,6.7602,8.6228,5.2846,6.0014,8.3921,10.6370,15.7731,1.8712,8.9044,6.1928,8.9144
2457.0312,2.8868,-3.9301,3.1714,6.4689,8.1821,-5.5419,-4.2871,4.4717,6.8726,8.0301,6.8390,7.2289,8.2806,9.6153,17.8014,6.8556,10.3409,5.5390,8.9120
2460.9375,2.8772,-4.9410,4.0136,6.0959,6.8168,-6.2854,-5.6105,3.9081,6.8470,6.7446,8.2646,7.5967,6.7142,6.8903,17.0044,13.2272,10.1688,4.6666,7.3559
2464.8438,2.5012,-4.2080,4.3017,4.7419,4.9289,-5.2432,-6.4127,3.3553,5.7589,4.6297,7.8075,6.2333,3.4315,2.9168,11.5522,17.7546,7.2487,3.2863,4.1852
2468.7500,1.1231,-2.5873,3.3019,2.4720,2.7452,-3.4416,-6.8556,2.6685,3.3022,1.9447,4.6222,3.1210,-0.8919,-1.3044,1.8220,17.7340,2.0337,1.3401,0.0131
2472.6562,-0.9921,-0.9477,1.1125,-0.0645,0.7668,-1.7901,-6.6905,1.9253,0.1839,-0.5669,-0.4220,-0.7037,-4.8000,-4.5208,-8.9201,12.3517,-3.5202,-0.7070,-3.9518
2476.5625,-2.7972,0.2895,-1.3287,-1.9286,-0.4976,-0.6083,-5.3396,1.4082,-2.2473,-1.9850,-5.1015,-3.7026,-6.8340,-5.7608,-15.8225,3.0432,-7.1084,-2.0050,-6.4013
2480.4688,-3.2012,1.1480,-2.8094,-2.4391,-0.8582,0.3183,-2.4338,1.3837,-2.9013,-1.7689,-7.1969,-4.7827,-6.4270,-4.8307,-15.2285,-7.2181,-7.5011,-1.8525,-6.6005
2484.3750,-1.8724,1.7692,-2.5977,-1.6008,-0.5643,1.3248,1.6076,1.8615,-1.7204,-0.1802,-5.9357,-3.9707,-4.2686,-2.4462,-7.2210,-15.2200,-5.2283,-0.2489,-4.8148
2488.2812,0.4929,2.1248,-0.8739,-0.0921,-0.1083,2.4849,5.4619,2.5430,0.2528,1.7717,-2.5027,-2.3207,-1.8338,0.1482,3.9068,-18.7088,-2.0562,1.9819,-2.1714
2492.1875,2.6335,2.0330,1.4380,1.2000,0.1490,3.5516,7.4598,3.0162,1.5804,2.8984,0.7672,-1.1086,-0.3736,1.8841,11.8926,-16.9832,0.3337,3.6506,0.0076
2496.0938,3.5755,1.4396,3.2948,1.7801,0.2380,4.2139,6.5381,3.0507,1.4111,2.5777,1.9680,-0.8807,-0.0731,2.4678,12.2746,-10.7838,1.4803,3.9675,0.9956
2500.0000,3.2528,0.6670,4.1639,1.8471,0.5086,4.4054,2.9802,2.7560,0.0371,1.1774,0.8761,-1.0432,0.0074,2.4723,5.3048,-1.7512,2.2693,3.0766,1.0520
2503.9062,2.4612,0.3540,4.2333,2.0735,1.2703,4.3923,-1.5902,2.4706,-1.3590,-0.1601,-0.9971,-0.3046,1.1475,2.8504,-4.0294,8.1459,3.9936,1.9597,1.1406
2507.8125,2.2013,1.0573,4.1007,3.0154,2.4237,4.5653,-5.0455,2.4614,-1.5751,-0.2661,-1.5833,2.3071,3.8846,4.1848,-9.1109,16.9477,7.0843,1.7476,2.1508
2511.7188,2.9022,2.7916,4.2154,4.5831,3.3913,5.1079,-5.9580,2.6739,-0.2514,1.2485,0.1727,6.5422,7.4100,6.1870,-6.0452,22.8278,10.4872,2.8994,4.1542
2515.6250,4.0828,4.8630,4.5026,5.9703,3.4417,5.8045,-4.4299,2.7406,1.8697,3.6641,3.4582,10.7769,9.9036,7.7984,3.5882,24.2404,12.1815,4.8170,6.2180
2519.5312,4.6799,6.1692,4.4388,6.1199,2.2030,6.1427,-2.0099,2.2613,3.4349,5.5338,6.0568,12.7735,9.6230,7.8429,13.5060,20.3008,10.5062,6.1700,6.9380
2523.4375,3.7963,5.8067,3.5020,4.4332,0.0064,5.6461,-0.7112,1.1529,3.3572,5.5495,5.8149,10.9384,6.0536,5.8096,16.6467,11.3462,5.3893,5.7259,5.3685
2527.3438,1.3501,3.6079,1.6494,1.2499,-2.1977,4.2150,-1.7295,-0.1956,1.4814,3.3529,2.1141,5.3378,0.3811,2.2596,9.7526,-0.6829,-1.3570,3.1498,1.7492
2531.2500,-1.8014,0.2750,-0.5341,-2.2172,-3.3163,2.2556,-4.6648,-1.0938,-1.3626,-0.2091,-3.6341,-2.1409,-5.0144,-1.3991,-4.3941,-12.4917,-6.8760,-0.7321,-2.4537
2535.1562,-4.3212,-2.9577,-2.1253,-4.4633,-2.6868,0.5222,-7.7557,-0.9430,-3.8827,-3.5289,-8.7771,-8.6061,-7.7375,-3.6181,-18.5694,-20.4815,-8.7164,-4.3485,-5.2499
2539.0625,-5.1234,-4.9097,-2.3953,-4.4431,-0.3992,-0.2373,-8.9923,0.4046,-5.0365,-5.0993,-10.9534,-11.5355,-6.5489,-3.4632,-25.5036,-22.2510,-6.0319,-6.2075,-5.1688
2542.9688,-3.9291,-4.9498,-1.2313,-2.0704,2.7983,0.3606,-7.4112,2.5507,-4.4957,-4.2801,-9.3781,-9.9755,-1.9056,-0.9975,-22.2044,-17.7725,0.0967,-5.6322,-2.0410
2546.8750,-1.3567,-3.1716,0.8116,1.7737,5.9011,2.1429,-3.7468,4.7602,-2.6650,-1.5567,-5.1204,-4.9422,4.3449,2.8560,-11.4443,-9.4912,7.2752,-3.0224,2.9151
2550.7812,1.4412,-0.2462,2.8325,5.6728,8.0835,4.4353,-0.0166,6.3230,-0.3587,1.7963,-0.3024,1.1650,9.8645,6.8037,0.4006,-1.1481,12.8966,0.4377,7.7180
2554.6875,3.3453,2.8854,4.0542,8.2795,8.9349,6.3340,1.6983,6.8406,1.6016,4.3921,3.1744,5.7957,12.8136,9.7007,7.5475,4.0941,15.1334,3.3935,10.5816
2558.5938,3.7322,5.2994,4.1507,8.7985,8.4388,7.0766,0.5059,6.2983,2.6589,5.3539,4.5568,7.4554,12.4760,10.8505,8.1847,5.1601,13.4312,4.9009,10.6768
2562.5000,2.6500,6.2888,3.2798,7.1800,6.8201,6.3617,-2.7919,4.9473,2.6136,4.5900,4.3263,6.2602,9.3310,10.0492,4.9161,3.3219,8.4636,4.7126,8.3397
2566.4062,0.6920,5.5024,1.8707,4.0244,4.4177,4.4755,-6.2358,3.1298,1.6033,2.6646,3.5472,3.5983,4.6631,7.4989,2.2737,1.0958,1.7424,3.2077,4.7068
2570.3125,-1.3111,3.0636,0.3574,0.3082,1.6531,2.1611,-7.9028,1.1742,0.0346,0.4269,3.0230,1.1685,-0.0291,3.7288,3.2699,0.5375,-4.8855,1.0902,1.0699
2574.2188,-2.6286,-0.3741,-0.9677,-2.9427,-0.9649,0.2773,-6.9890,-0.6174,-1.5277,-1.3710,2.8355,0.0023,-3.5578,-0.4494,7.4327,2.0536,-9.7146,-0.9519,-1.6638
2578.1250,-2.8728,-3.7375,-1.9331,-4.9390,-2.9002,-0.5910,-4.1276,-1.9534,-2.5360,-2.3030,2.4968,0.0416,-5.3340,-4.0380,11.5221,4.4543,-11.5807,-2.4682,-3.1603
2582.0312,-2.0842,-5.8701,-2.3905,-5.3161,-3.7526,-0.3728,-0.8356,-2.5862,-2.6696,-2.3068,1.4982,0.4610,-5.3793,-6.0896,12.1511,6.0825,-10.1462,-3.2930,-3.5062
2585.9375,-0.6519,-6.0114,-2.1736,-4.1935,-3.4454,0.5260,1.4597,-2.4036,-1.9787,-1.5913,-0.1949,0.4396,-4.1343,-6.0524,8.2762,6.1230,-5.9997,-3.4556,-2.9291
2589.8438,0.8838,-4.1877,-1.1748,-2.0917,-2.3048,1.4996,2.1497,-1.5089,-0.8568,-0.5003,-2.0522,-0.1846,-2.1959,-4.0550,1.8030,5.1287,-0.4950,-3.0521,-1.6272
2593.7500,2.0594,-1.2704,0.5144,0.2686,-0.9414,2.0841,1.5240,-0.2098,0.1717,0.6067,-3.3233,-0.8294,-0.1046,-0.9289,-3.9437,4.4382,4.6775,-2.1676,0.1978
2597.6562,2.6497,1.3942,2.5280,2.2168,0.0271,2.1508,0.2956,1.1035,0.7314,1.4328,-3.5400,-0.6759,1.7570,2.1190,-6.5939,5.0065,8.0765,-0.8904,2.2050
2601.5625,2.7035,2.6280,4.3114,3.3432,0.2694,1.8539,-0.9713,2.1234,0.7721,1.7859,-2.8135,0.6353,3.1730,4.0577,-6.1772,6.5898,9.0471,0.6178,3.8715
2605.4688,2.4547,2.0030,5.3485,3.5947,-0.1140,1.4121,-2.0997,2.7289,0.5335,1.5973,-1.7307,2.6516,4.0750,4.5208,-4.7053,7.9203,7.9758,2.0806,4.6626
2609.3750,2.1723,0.0335,5.4041,3.2311,-0.6746,0.9131,-3.1198,2.9703,0.3423,0.9311,-0.9403,4.3720,4.5367,3.9507,-4.3947,7.7276,6.1187,3.1630,4.3449
2613.2812,2.0302,-2.1348,4.6264,2.6762,-0.8786,0.2959,-3.9501,2.9630,0.3932,-0.0068,-0.7254,4.9356,4.7702,3.2989,-5.9623,5.8078,5.0216,3.6242,3.2167
2617.1875,2.0476,-3.3667,3.4411,2.3310,-0.4013,-0.4950,-4.3076,2.7837,0.6590,-0.8733,-0.8550,4.2284,5.0667,3.4434,-8.2298,3.3084,5.7531,3.4716,2.0389
2621.0938,2.1072,-3.1440,2.3054,2.4220,0.7066,-1.3360,-3.9608,2.4502,0.9688,-1.2380,-0.8054,2.9614,5.6575,4.6598,-9.1892,1.9891,8.3098,2.9955,1.6398
2625.0000,2.0280,-1.7928,1.4843,2.9362,2.0696,-1.9045,-3.0861,1.9900,1.1657,-0.7061,-0.1855,2.1660,6.5520,6.4603,-7.5973,2.9824,11.5333,2.6291,2.4126
2628.9062,1.6616,-0.2180,0.9896,3.6573,3.2167,-1.8588,-2.3434,1.5242,1.2191,0.8969,0.9383,2.4761,7.4735,7.8965,-3.8716,5.9361,13.6595,2.7012,4.0384
2632.8125,0.9876,0.6789,0.7030,4.2814,3.8531,-1.0876,-2.4928,1.2704,1.2242,3.3592,2.0509,3.7135,7.9747,8.1384,0.2970,9.1430,13.2713,3.2380,5.6467
2636.7188,0.1744,0.5387,0.5658,4.5576,4.0108,0.1734,-3.7777,1.4349,1.3185,6.0547,2.5353,5.0513,7.6944,6.9711,3.1985,10.5646,10.1435,3.9546,6.3374
2640.6250,-0.4427,-0.2824,0.6712,4.3828,3.9804,1.4664,-5.5619,2.0511,1.5951,8.1332,2.1216,5.6037,6.5864,4.9007,4.2130,9.0670,5.4572,4.4431,5.7253
2644.5312,-0.4933,-0.9942,1.1752,3.8089,4.0676,2.4007,-6.5871,2.8876,2.0684,8.8877,1.1250,4.9990,4.9519,2.8142,3.9867,5.0913,1.1960,4.4293,4.1443
2648.4375,0.2183,-0.9195,2.0928,2.9675,4.3336,2.8887,-5.7791,3.5191,2.6825,8.1165,0.2866,3.5457,3.2369,1.4245,3.6623,0.3967,-0.9614,3.9175,2.3730
2652.3438,1.5352,0.0422,3.1526,1.9786,4.5104,3.1476,-3.0756,3.5493,3.3245,6.2554,0.3042,1.9359,1.7489,0.8740,3.8582,-2.9030,-0.5774,3.1379,1.0918
2656.2500,2.9386,1.3227,3.8594,0.9190,4.1789,3.4653,0.3348,2.8656,3.8269,4.1597,1.3548,0.7679,0.5205,0.7533,4.2009,-3.4174,1.3787,2.3589,0.4672
2660.1562,3.7698,2.0197,3.7629,-0.1212,3.1149,3.9158,2.6167,1.7590,3.9883,2.6348,2.9364,0.2576,-0.5616,0.5042,3.7201,-1.1157,3.2416,1.7285,0.1636
2664.0625,3.5940,1.4514,2.7683,-0.9475,1.5674,4.2585,2.4031,0.8092,3.6513,1.9961,4.1552,0.2982,-1.4741,-0.0936,1.7493,2.7197,3.7548,1.2632,-0.2490
2667.9688,2.4912,-0.4043,1.2674,-1.2426,0.2388,4.1154,-0.2955,0.5746,2.8242,1.9523,4.2925,0.7255,-1.8905,-0.7177,-1.3667,6.1168,2.8099,0.9643,-0.8294
2671.8750,1.0650,-2.8385,-0.0238,-0.6910,-0.0824,3.3017,-4.0139,1.2589,1.7651,1.9033,3.2896,1.5038,-1.3347,-0.7404,-4.2544,7.2985,1.3334,0.9229,-1.1321
2675.7812,0.1232,-4.7384,-0.4414,0.7914,0.9574,2.0594,-6.6785,2.5546,0.9369,1.4562,1.8336,2.6651,0.4005,0.2528,-5.1740,5.4760,0.4528,1.2880,-0.5428
2679.6875,0.2037,-5.1221,0.2618,2.8668,2.9338,0.9972,-6.8661,3.7672,0.8054,0.7846,0.9704,4.0915,2.8797,2.0389,-2.9264,1.2467,0.5945,2.0999,1.1521
2683.5938,1.2445,-3.5973,1.7797,4.7871,4.7382,0.7505,-4.6822,4.1566,1.5744,0.5455,1.4728,5.3898,5.0386,3.7510,2.5033,-3.5889,1.1914,3.1330,3.4000
2687.5000,2.6168,-0.5386,3.4124,5.6613,5.1036,1.5786,-1.6988,3.3027,3.0153,1.3741,3.3424,6.0236,5.6779,4.3301,9.8365,-6.7873,1.1949,3.9124,5.0391
2691.4062,3.5036,3.0543,4.4027,4.8669,3.2789,3.1610,0.0111,1.2878,4.5122,3.3002,5.7399,5.6305,4.1664,3.1506,16.8887,-6.7239,-0.0425,3.9385,4.9245
2695.3125,3.3785,5.9190,4.2538,2.3859,-0.5316,4.7327,-0.8452,-1.3796,5.3249,5.5301,7.3828,4.2703,0.8909,0.4193,21.2555,-3.2564,-2.2094,2.9847,2.6356
2699.2188,2.2799,6.9631,2.8866,-1.1258,-5.2118,5.4771,-3.9584,-4.0190,4.9341,6.8156,7.1888,2.3917,-2.8710,-2.8995,21.0930,2.1109,-4.2201,1.2563,-1.1926
2703.1250,0.7282,5.6492,0.6284,-4.5713,-9.2155,4.9533,-7.5411,-6.0297,3.2952,6.2237,4.8262,0.5441,-5.5958,-5.5639,15.8180,6.9353,-4.9579,-0.7027,-5.1210
2707.0312,-0.6128,2.2479,-1.8916,-6.8216,-11.2059,3.3272,-9.3159,-7.0077,0.8810,3.8138,0.9120,-0.9252,-6.2685,-6.6240,6.5287,9.0838,-3.9722,-2.2832,-7.5747
2710.9375,-1.2774,-2.1217,-3.8732,-7.0992,-10.5280,1.3116,-7.7940,-6.7277,-1.4847,0.7469,-3.2019,-1.9317,-4.7844,-5.7576,-4.0914,7.8167,-1.6123,-3.0628,-7.5260
2714.8438,-1.1278,-5.7450,-4.5130,-5.1947,-7.3471,-0.1339,-3.1248,-5.1092,-2.9134,-1.2935,-5.9349,-2.4428,-1.8065,-3.2569,-12.5316,4.0693,1.4141,-2.8781,-4.8420
2718.7500,-0.2542,-6.8762,-3.2428,-1.4867,-2.4911,-0.1944,2.9496,-2.2709,-2.7418,-1.0347,-6.0571,-2.2184,1.7305,0.2123,-15.7275,-0.2078,4.5894,-1.7271,-0.2033
2722.6562,1.1975,-4.4749,-0.0094,3.1784,2.8500,1.4657,7.9901,1.3432,-0.7471,1.6703,-3.1430,-0.7984,5.0801,3.8600,-12.3611,-3.1866,7.7288,0.3390,5.2461
2726.5625,3.0882,1.1911,4.5451,7.6930,7.4395,4.5338,10.1032,4.9196,2.7529,5.7739,2.2338,2.1636,7.8271,6.9128,-3.5493,-4.0413,10.6275,3.1859,10.2805
2730.4688,5.1939,8.4317,9.1769,10.9627,10.2882,8.0985,8.8486,7.4680,6.9340,9.6181,8.6188,6.4298,9.7379,8.6955,7.4967,-3.0851,12.6313,6.4357,13.8680
2734.3750,7.0896,14.6851,12.4632,12.2269,10.9212,10.9256,5.3302,8.2496,10.6489,11.7701,14.0906,10.9528,10.5722,8.7710,16.7417,-1.2467,12.6770,9.3586,15.3469
2738.2812,8.1800,17.5653,13.3875,11.3352,9.5530,11.8921,1.4522,7.2126,12.7447,11.5973,16.8657,14.1453,10.0860,7.1497,20.9314,0.5897,9.9508,11.0081,14.5510
2742.1875,7.9379,15.9239,11.7759,8.8335,7.0468,10.4387,-1.2008,5.1191,12.4433,9.3145,15.9180,14.5705,8.2353,4.4258,18.7781,1.8927,4.7195,10.6212,11.8681
2746.0938,6.2158,10.3696,8.3154,5.7415,4.5733,6.8359,-2.1881,3.1884,9.6487,5.6220,11.3803,11.6685,5.3674,1.6396,11.2412,2.3718,-1.3857,8.0659,8.1425
2750.0000,3.4077,2.9608,4.1461,3.0749,3.0644,2.1102,-2.2558,2.4049,5.0417,1.2982,4.5516,6.1019,2.1838,-0.1741,0.9235,1.7980,-6.0184,4.0259,4.3763
2753.9062,0.3187,-3.7660,0.2968,1.3581,2.7438,-2.3751,-2.6054,2.9123,-0.1092,-2.9575,-2.5312,-0.4693,-0.5451,-0.5365,-8.9996,0.1248,-7.3749,-0.2467,1.3324
2757.8125,-2.1938,-7.8990,-2.6710,0.4352,3.0457,-5.4956,-3.9010,3.9177,-4.3627,-6.4359,-7.8075,-6.0360,-2.3098,0.1888,-15.8182,-2.1227,-5.2183,-3.4909,-0.7326
2761.7188,-3.5839,-8.8159,-4.6234,-0.2745,3.0204,-6.7986,-5.7152,4.2204,-6.5858,-8.3412,-9.9131,-8.9743,-2.9965,1.0155,-17.9863,-3.6581,-0.9461,-4.9726,-2.0185
2765.6250,-3.7679,-7.1430,-5.5453,-1.2346,1.9985,-6.5643,-6.8294,3.0468,-6.3126,-7.9815,-8.6164,-8.5561,-2.7627,0.9668,-15.4160,-2.9096,3.3366,-4.6838,-2.8420
2769.5312,-3.0067,-4.1688,-5.2970,-2.3518,0.0736,-5.4836,-6.2113,0.6307,-3.8560,-5.2098,-4.8096,-5.1105,-1.8135,-0.2806,-9.4050,0.8977,6.0508,-3.1385,-3.2654
2773.4375,-1.6584,-1.1500,-3.6963,-2.9863,-1.9408,-4.1814,-3.9774,-1.8807,-0.1550,-0.7959,-0.0873,0.1295,-0.3118,-2.1865,-2.2098,6.7687,6.8124,-0.9745,-3.0017
2777.3438,-0.0062,1.1024,-0.8793,-2.4455,-3.0708,-2.8987,-1.5941,-3.1643,3.5635,3.6589,3.8947,5.4064,1.5060,-3.7264,3.7214,11.9736,6.1597,1.3302,-1.7018
2781.2500,1.7307,2.2518,2.3956,-0.6195,-2.8721,-1.5200,-1.0585,-2.6139,6.1836,6.3825,6.0166,8.9748,3.1704,-4.1005,6.6941,13.4027,4.7289,3.4692,0.5857
2785.1562,3.2680,2.2590,4.8527,1.7287,-1.7651,0.1166,-3.5309,-0.7773,7.0361,6.3556,6.0270,9.6930,4.0181,-3.2807,6.4971,9.5484,2.6600,5.1383,3.1632
2789.0625,4.1831,1.2558,5.2780,3.2895,-0.7711,1.8951,-8.3473,0.9704,6.0716,3.9250,4.5047,7.4865,3.5116,-2.0183,4.4632,1.7717,-0.2671,5.9299,4.9042
2792.9688,4.0213,-0.4266,3.2448,2.9809,-0.8392,3.3503,-13.1694,1.3035,3.8240,0.6635,2.4942,3.4309,1.6374,-1.3221,2.6808,-6.1893,-3.9674,5.4569,4.8602
2796.8750,2.5533,-2.1926,-0.5202,0.6563,-2.2377,3.9239,-15.2987,-0.2220,1.1758,-1.5035,0.9815,-0.6939,-0.9568,-1.7899,2.6963,-10.3608,-7.5698,3.6435,2.8582
2800.7812,0.0160,-3.2714,-4.4325,-2.7481,-4.4215,3.3711,-13.3612,-2.9263,-0.9830,-1.3880,0.4517,-3.2449,-3.2686,-3.2527,4.4773,-8.9921,-9.6859,0.9431,-0.3303
2804.6875,-2.8480,-3.0256,-6.8711,-5.7432,-6.4300,2.0169,-8.2547,-5.4849,-2.0633,0.8277,0.7336,-3.5302,-4.5240,-4.9417,6.3508,-3.6634,-9.3281,-1.7341,-3.3840
2808.5938,-5.0209,-1.3178,-7.0123,-7.1381,-7.4942,0.6574,-2.6833,-6.7626,-1.9231,3.8030,1.2024,-2.1028,-4.6202,-6.0119,6.0633,1.7752,-6.7415,-3.3947,-5.1336
2812.5000,-5.6181,1.3336,-5.1591,-6.6486,-7.4231,0.1358,0.4698,-6.4322,-0.8089,5.9312,1.2231,-0.3242,-4.0830,-6.0342,2.3429,3.7500,-3.4021,-3.4235,-5.1169
2816.4062,-4.2868,3.9644,-2.4034,-4.8937,-6.5516,0.8501,-0.1068,-5.0045,0.8340,6.3110,0.5664,0.5442,-3.5735,-5.1470,-4.0642,1.2559,-1.0767,-1.8544,-3.6669
2820.3125,-1.4070,5.6406,0.0880,-2.8583,-5.3835,2.4944,-3.4179,-3.3432,2.5451,5.1792,-0.4626,0.1253,-3.3436,-3.8464,-10.6219,-3.6642,-0.6265,0.6857,-1.5623
2824.2188,1.9972,5.9030,1.6563,-1.2601,-4.2639,4.1939,-6.9152,-2.0804,3.9269,3.5754,-1.2723,-0.9403,-3.0971,-2.6425,-14.4176,-7.5151,-1.4920,3.2827,0.4451
2828.1250,4.6157,4.9050,2.2656,-0.2655,-3.3212,4.9569,-8.2185,-1.3511,4.6313,2.5368,-1.4378,-1.5807,-2.3762,-1.8428,-13.8680,-7.8090,-2.2840,5.0888,1.8979
2832.0312,5.3620,3.1957,2.2059,0.3244,-2.6419,4.1856,-6.6536,-0.9631,4.3623,2.4060,-1.0347,-1.1477,-1.1416,-1.5512,-9.6106,-4.6167,-2.0101,5.5605,2.6028
2835.9375,3.8517,1.3520,1.7384,0.6741,-2.4260,1.9772,-3.5987,-0.7596,2.9922,2.7097,-0.5863,0.1051,-0.0126,-1.7691,-4.0153,-0.1814,-0.9338,4.5597,2.4785
2839.8438,0.6476,-0.2648,1.0061,0.6973,-2.9069,-0.9268,-1.4491,-0.8162,0.7591,2.6349,-0.6329,1.2765,0.1143,-2.4328,0.3229,2.9706,-0.3421,2.3802,1.5207
2843.7500,-2.8823,-1.4946,0.2281,0.2133,-4.0642,-3.4898,-1.9270,-1.2944,-1.6217,1.7143,-1.2249,1.5941,-1.1720,-3.3391,2.0935,3.9124,-1.3858,-0.2719,-0.0485
2847.6562,-5.1017,-2.2111,-0.1044,-0.6859,-5.3886,-4.8391,-4.8711,-2.1016,-3.1158,0.2187,-1.7374,1.0966,-3.2521,-4.0717,1.8216,3.7848,-3.9370,-2.3980,-1.6208
2851.5625,-4.8434,-2.2254,0.6643,-1.4257,-5.9688,-4.6122,-8.2838,-2.6945,-2.8226,-1.0058,-1.2102,0.6734,-4.6526,-4.0770,1.2032,4.5917,-6.4248,-3.0079,-2.2839
2855.4688,-1.9969,-1.3909,2.9137,-1.1532,-4.9285,-3.0464,-9.5712,-2.2643,-0.5101,-1.1143,0.9694,1.4119,-3.9137,-2.9125,1.7937,7.3596,-6.8494,-1.5549,-1.2217
2859.3750,2.3927,0.1766,6.2899,0.7306,-1.9607,-0.7955,-7.1540,-0.2361,3.1190,0.1642,4.5024,3.7393,-0.5765,-0.5215,3.9835,11.1390,-4.2238,1.7091,1.7735
2863.2812,6.6222,1.9964,9.6550,4.0834,2.4047,1.4147,-1.4382,3.2543,6.6749,2.3498,8.1739,7.0205,4.4175,2.6736,6.8951,13.6275,0.6641,5.7271,6.0382
2867.1875,9.1894,3.4031,11.6055,7.9528,6.9898,3.1109,5.4041,7.2579,8.7777,4.5242,10.4837,9.9284,9.2203,5.9396,9.1385,12.9158,5.7511,9.0873,10.2514
2871.0938,9.5365,3.9384,11.2886,11.0132,10.4964,4.2118,10.6351,10.3976,8.8197,5.9040,10.5472,11.3209,12.1326,8.5479,9.8018,9.0110,9.0656,10.7299,13.0372
2875.0000,8.2409,3.6739,8.9669,12.2367,12.0403,4.9186,12.3611,11.5242,7.3140,6.2815,8.6751,10.9776,12.4948,10.0187,8.9926,3.9786,9.9106,10.4919,13.5894
2878.9062,6.5453,3.1950,5.9114,11.3784,11.4070,5.4391,10.3429,10.2600,5.5831,6.0678,6.2280,9.6647,10.8480,10.1623,7.6636,0.6072,9.0118,9.1309,11.9573
2882.8125,5.5358,3.2076,3.6523,9.0023,8.9710,5.7347,5.8395,7.1333,4.9541,5.9413,4.8100,8.5108,8.3549,8.9752,6.9649,0.5776,7.6395,7.7953,8.8759
2886.7188,5.5032,4.0273,3.0729,6.0972,5.4451,5.4807,0.7236,3.2733,5.9560,6.3635,5.3078,8.1864,6.0000,6.5779,7.6080,3.4383,6.5236,7.2879,5.3362
2890.6250,5.8881,5.3243,3.9461,3.5741,1.6679,4.2953,-3.5200,-0.1181,8.0252,7.2794,7.3831,8.5058,4.1733,3.3046,9.5808,7.0458,5.4792,7.6197,2.2113
2894.5312,5.8111,6.3311,5.2042,1.9484,-1.5043,2.1053,-6.3330,-2.2239,9.8983,8.1821,9.7255,8.7146,2.8545,-0.1393,12.2298,9.0643,3.9936,8.1399,0.1217
2898.4375,4.7837,6.3846,5.7237,1.3109,-3.2953,-0.6091,-7.9580,-2.8105,10.4241,8.4718,10.8719,8.1930,2.0872,-2.6885,14.5132,8.4288,2.1534,8.1153,-0.5318
2902.3438,3.0974,5.4230,5.0743,1.4811,-3.2049,-2.9006,-8.8737,-2.1559,9.2687,7.8646,10.0538,6.9981,2.2137,-3.2629,15.2743,5.8145,0.9832,7.3144,0.4319
2906.2500,1.6282,4.0761,3.7378,2.1650,-1.2739,-3.7791,-9.2570,-0.8206,7.0703,6.5837,7.5580,5.8214,3.5932,-1.3457,13.5352,2.9391,1.7654,6.1672,2.8291
2910.1562,1.2194,3.2717,2.7028,3.0267,1.7746,-2.7416,-8.8468,0.6050,4.9805,5.2187,4.4376,5.4076,6.0313,2.5606,8.8784,1.3205,4.8258,5.4002,5.9374
2914.0625,2.0981,3.6213,2.7607,3.7152,4.7121,-0.0785,-7.2692,1.6878,3.9233,4.3502,1.8370,5.9062,8.4692,6.9706,1.8414,1.3766,8.8185,5.4478,8.5430
2917.9688,3.7280,5.0033,3.9888,3.9298,6.3024,3.2525,-4.5509,2.2384,4.0650,4.1877,0.3926,6.6732,9.3362,10.0375,-5.9416,2.3786,11.2495,6.0928,9.3535
2921.8750,5.1758,6.6189,5.7238,3.5291,5.8721,6.1184,-1.4089,2.2898,4.8126,4.4573,0.0542,6.6909,7.4512,10.4540,-12.1313,3.1273,10.0303,6.6058,7.6341
2925.7812,5.7049,7.4772,6.9761,2.6043,3.6158,7.7657,0.9531,1.9876,5.2931,4.6205,0.3458,5.3080,2.8881,8.1083,-14.6051,2.7999,5.0029,6.2734,3.6924
2929.6875,5.1761,6.9885,6.9768,1.4276,0.4433,8.0996,1.4732,1.4536,4.9586,4.2847,0.8054,2.7664,-2.8356,4.1009,-12.4965,1.4390,-1.7030,4.9209,-1.1430
2933.5938,4.0164,5.2987,5.5393,0.2958,-2.5181,7.5509,-0.0897,0.7145,3.9143,3.5290,1.2838,0.1427,-7.4536,0.1265,-6.7290,-0.1027,-6.8289,3.0586,-5.1009
2937.5000,2.8409,3.1854,3.1009,-0.6065,-4.4426,6.6742,-2.8886,-0.2363,2.7815,2.9056,1.9391,-1.2529,-9.1326,-2.3815,0.3644,-0.6134,-7.9341,1.5671,-6.7964
2941.4062,2.0432,1.6154,0.5094,-1.2052,-5.0438,5.7886,-5.3644,-1.2754,2.2276,3.0794,2.9948,-0.6212,-7.4142,-2.8418,6.1902,0.9022,-4.8396,1.1630,-5.8391
2945.3125,1.6454,1.2436,-1.2926,-1.4053,-4.4687,4.9024,-6.0935,-2.0233,2.5026,4.3229,4.4709,1.8969,-3.3573,-1.5702,9.1515,4.7312,0.3673,2.0105,-2.8967
2949.2188,1.4596,2.1246,-1.5800,-0.9843,-3.0312,3.9202,-4.6081,-1.9166,3.2894,6.2110,6.0697,5.3224,1.1436,0.6195,9.2559,10.1679,4.7062,3.7032,0.7518
2953.1250,1.3733,3.7483,-0.1017,0.3271,-1.0342,2.9131,-1.6665,-0.5173,3.9485,7.7678,7.2719,8.3394,4.3821,2.9143,7.7423,15.5462,6.0933,5.5623,3.8536
2957.0312,1.4984,5.3271,2.7646,2.5706,1.2157,2.1940,1.2216,2.1011,3.9760,8.0256,7.5706,9.8693,5.5789,4.7842,6.0425,18.6966,4.3955,7.0023,5.6396
2960.9375,2.0697,6.1627,6.0550,5.2992,3.3184,2.1241,2.7338,5.1806,3.3632,6.6686,6.7144,9.4318,4.9880,5.9783,4.8271,17.8025,1.1937,7.7314,5.9359
2964.8438,3.1935,5.9235,8.5330,7.5996,4.8054,2.8027,2.5417,7.5293,2.6233,4.3263,4.8540,7.2059,3.4629,6.3907,3.7680,12.3625,-1.4105,7.7251,5.0126
2968.7500,4.6681,4.7407,9.2244,8.5014,5.3512,3.9090,1.4663,8.1361,2.4658,2.2774,2.5318,3.8740,1.8766,5.9997,2.1084,3.7423,-2.0633,7.0857,3.3745
2972.6562,6.0321,3.1131,7.9336,7.5720,5.0298,4.8465,0.8851,6.8046,3.3274,1.6996,0.5111,0.3802,0.7599,4.9386,-0.4568,-5.1408,-0.7299,5.9398,1.6216
2976.5625,6.8141,1.6796,5.4243,5.2954,4.3751,5.1122,1.7923,4.3786,5.0527,2.9241,-0.5128,-2.3260,0.2738,3.5811,-3.2840,-11.0256,1.6160,4.4419,0.3567
2980.4688,6.8093,0.9568,3.0880,2.9208,4.1286,4.6308,4.1415,2.3535,6.9317,5.1865,-0.2097,-3.5445,0.3795,2.4899,-5.0474,-11.8595,3.7892,2.8267,0.0531
2984.3750,6.1980,1.1498,2.2258,1.8078,4.8059,3.8145,6.8986,2.0612,8.0868,7.0697,1.2216,-3.0428,0.9967,2.1953,-4.5753,-7.8322,5.0876,1.4185,0.8690
2988.2812,5.4388,2.1156,3.3490,2.6585,6.3859,3.3055,8.7443,3.9190,7.9856,7.3844,3.1408,-1.1450,2.0468,2.9433,-1.6525,-1.2401,5.5208,0.5577,2.5281
2992.1875,5.0242,3.4853,5.9271,5.1324,8.3586,3.5813,8.9288,7.2150,6.7794,5.9359,4.8010,1.4060,3.4252,4.5985,2.7738,4.7965,5.5984,0.4941,4.4146
2996.0938,5.2464,4.8636,8.7448,8.0951,10.1010,4.6804,7.6944,10.5596,5.2535,3.6750,5.7660,3.8031,4.9959,6.7736,7.1128,8.0272,5.9392,1.3167,5.9017
3000.0000,6.0836,5.9836,10.6313,10.3244,11.2928,6.2030,6.0079,12.6973,4.3991,2.1256,6.1543,5.5775,6.6364,9.0727,10.0023,8.1730,6.9481,2.9465,6.7295
3003.9062,7.2252,6.7293,11.0850,11.1934,12.0521,7.5435,4.8285,13.1520,4.8405,2.4414,6.5215,6.7983,8.2747,11.2508,10.9567,6.7988,8.6513,5.1535,7.1602
3007.8125,8.1906,7.0489,10.4065,10.8976,12.6969,8.1814,4.4508,12.3232,6.4461,4.6859,7.4198,7.9113,9.8496,13.1750,10.4104,6.0980,10.6723,7.5583,7.7580
3011.7188,8.4890,6.8644,9.3086,10.1321,13.3415,7.8673,4.3780,11.0430,8.3544,7.7801,8.9042,9.2966,11.2052,14.6608,9.2133,7.3956,12.3233,9.6328,8.9155
3015.6250,7.7904,6.0936,8.3405,9.5169,13.6845,6.6633,3.7926,9.9704,9.4193,10.1361,10.3410,10.8452,12.0269,15.3748,7.9877,10.3141,12.8306,10.7740,10.4584
3019.5312,6.0792,4.7896,7.5633,9.2090,13.1927,4.8947,2.2655,9.2612,8.8348,10.5711,10.7050,11.8814,11.9236,14.9481,6.7952,13.0761,11.6746,10.5025,11.6444
3023.4375,3.7334,3.2805,6.6900,8.9467,11.5648,3.0795,0.1901,8.6973,6.5924,8.9415,9.2307,11.5437,10.6543,13.2487,5.2977,13.6819,8.9176,8.7285,11.6016
3027.3438,1.4560,2.1465,5.5259,8.4173,9.1102,1.8305,-1.3687,8.0886,3.5180,6.1437,6.0138,9.4132,8.3626,10.6017,3.2350,11.1730,5.3085,5.9214,9.9291
3031.2500,0.0341,1.9734,4.3150,7.6034,6.7117,1.6882,-1.3177,7.5674,0.8695,3.5357,2.1466,5.9695,5.6417,7.7466,0.8380,6.2011,2.0300,3.0262,7.0443
3035.1562,-0.0002,3.0001,3.6773,6.8123,5.3384,2.8854,0.7447,7.5107,-0.2821,2.1676,-0.7593,2.5204,3.3386,5.5079,-1.1384,0.6069,0.1612,1.0967,4.0175
