Time,Fp1,F3,C3,P3,O1,F7,T3,T5,Fz,Fp2,F4,C4,P4,O2,F8,T4,T6,Cz,Pz
0.0000,-3.9952,-2.7413,-4.5556,-3.2892,-2.4081,-5.3509,4.6495,-2.3861,-5.0537,-5.9090,-3.9601,-4.4756,-3.0433,-2.7619,-2.5147,-3.9687,-3.6246,-4.7263,-3.7760
3.9062,-3.6033,-3.6030,-3.4024,-1.1530,-0.4087,-6.1493,2.8910,0.1739,-4.3812,-6.3182,-3.4189,-1.7226,-0.7063,-0.6499,-2.1641,-3.1727,-1.8998,-3.8555,-1.4871
7.8125,-3.2783,-5.4799,-2.5773,1.1901,1.8524,-6.1781,-0.3160,3.0208,-4.0967,-6.7950,-3.6997,1.0283,1.3514,1.4477,-2.2927,-2.5691,-0.1845,-3.4086,0.7247
11.7188,-3.3737,-7.8274,-2.5882,2.8680,3.3360,-4.8954,-4.1190,5.0530,-4.5129,-6.7550,-5.0819,2.6250,1.9811,2.6320,-3.4207,-2.5780,0.6296,-3.7051,1.7645
15.6250,-4.0378,-9.6774,-3.3970,3.2636,3.2050,-2.2857,-7.2617,5.4411,-5.4997,-5.5773,-7.1988,2.3765,0.6095,2.3690,-5.6611,-3.3414,0.0420,-4.6113,0.9936
19.5312,-5.0111,-10.1567,-4.3068,2.3801,1.3525,1.0621,-8.7813,4.1124,-6.4886,-3.0723,-9.1241,0.4739,-2.3461,0.8253,-8.4677,-4.5358,-1.6680,-5.5622,-1.3214
23.4375,-5.6882,-9.0028,-4.3510,0.8258,-1.4857,4.1875,-8.4779,1.7821,-6.7908,0.2114,-9.8427,-2.1014,-5.6365,-1.2078,-10.7740,-5.4551,-3.5392,-5.8958,-4.0949
27.3438,-5.4574,-6.7353,-2.9795,-0.5873,-4.1304,6.1651,-6.8727,-0.5033,-6.0224,3.1215,-8.8220,-4.1255,-7.8337,-2.7653,-11.5071,-5.3686,-4.4816,-5.2846,-6.0143
31.2500,-4.1189,-4.3511,-0.5584,-1.3528,-5.6193,6.4711,-4.8030,-2.0062,-4.3368,4.4877,-6.3083,-4.7745,-8.0616,-3.2483,-10.1866,-3.9625,-3.9232,-3.9580,-6.2575
35.1562,-2.0841,-2.7310,1.7385,-1.5222,-5.6905,5.1547,-3.0607,-2.6758,-2.2942,3.8337,-3.1465,-3.9526,-6.3448,-2.6995,-7.2207,-1.5768,-2.1087,-2.5309,-4.8633
39.0625,-0.1823,-2.1417,2.6590,-1.5210,-4.7808,2.7762,-2.3478,-3.0074,-0.4674,1.7414,-0.2540,-2.1370,-3.3945,-1.6491,-3.6905,0.9449,0.1485,-1.5432,-2.5385
42.9688,0.8323,-2.1576,1.7583,-1.6796,-3.5832,0.1783,-3.4132,-3.5060,0.9155,-0.4311,1.8805,0.0791,-0.0484,-0.6648,-0.7533,2.7319,2.0651,-1.0379,-0.0936
46.8750,0.7567,-2.0373,-0.1962,-1.8636,-2.5153,-1.8133,-6.9642,-4.1767,2.0222,-1.3564,3.3286,2.3681,3.1992,0.0570,0.9480,3.3925,3.3928,-0.5063,2.0466
50.7812,0.0643,-1.2787,-1.6483,-1.5209,-1.4974,-2.6658,-13.1153,-4.4449,3.1339,-0.5667,4.4318,4.7003,6.2513,0.7652,1.4949,3.2115,4.4632,0.7264,3.9091
54.6875,-0.4220,0.0380,-1.2627,-0.1434,-0.1779,-2.3141,-20.6628,-3.5875,4.2741,1.2573,5.3573,7.0604,9.0784,1.8534,1.4311,2.8941,5.7606,2.9331,5.6294
58.5938,-0.0958,1.3506,1.1706,2.2045,1.6086,-1.1607,-26.8897,-1.3582,5.0767,2.7642,5.8856,9.1502,11.3499,3.4295,1.2733,3.0286,7.3731,5.6532,7.0592
62.5000,1.0190,2.0644,4.5846,4.7308,3.5456,0.1239,-28.4594,1.6753,5.0365,2.8796,5.6205,10.3864,12.3962,5.0988,1.1771,3.6452,8.7637,7.8707,7.7191
66.4062,2.2991,2.0061,7.3623,6.3216,4.9626,0.9402,-23.2090,4.3664,3.9705,1.5790,4.4534,10.2528,11.5989,6.1489,0.9828,4.1933,9.0630,8.6226,7.1879
70.3125,2.9731,1.5403,8.4206,6.2697,5.3051,1.0668,-11.8329,5.6622,2.3155,-0.0689,2.8783,8.7446,8.9293,6.0287,0.5389,3.9600,7.6882,7.6319,5.6165
74.2188,2.6705,1.2613,7.8685,4.8118,4.5863,0.7474,1.7839,5.2488,0.9814,-0.6505,1.8354,6.5291,5.2043,4.7848,-0.0182,2.6311,4.8441,5.5213,3.8927
78.1250,1.6735,1.4929,6.7718,3.0553,3.4597,0.4778,12.1305,3.7183,0.7953,0.5529,2.1179,4.6334,1.7969,3.1316,-0.3000,0.5799,1.5334,3.4421,3.2153
82.0312,0.6943,1.9731,6.2312,2.2911,2.8236,0.6140,14.8507,2.1407,1.9036,2.9593,3.7402,3.8255,-0.0694,2.0707,-0.0051,-1.3423,-0.9553,2.3554,4.2973
85.9375,0.3455,1.9776,6.4957,3.1356,3.2202,1.0776,9.1383,1.3508,3.5661,4.9702,5.7538,4.1089,0.0011,2.2795,0.7260,-2.3761,-1.7589,2.4470,6.7588
89.8438,0.6937,0.8150,6.7942,5.0859,4.4431,1.3950,-1.7579,1.4443,4.5346,4.9835,6.7123,4.7018,1.3664,3.6499,1.2684,-2.3798,-0.9064,3.0629,9.1915
93.7500,1.2186,-1.6424,5.9958,6.7970,5.6204,1.0753,-12.3055,1.8066,3.7992,2.4626,5.5311,4.5364,2.7408,5.2719,0.8646,-1.9308,0.7256,3.1872,9.9245
97.6562,1.2011,-4.7664,3.5617,6.8987,5.7139,0.0613,-17.6996,1.6057,1.2264,-1.6690,2.1875,2.9526,2.9317,5.8892,-0.8608,-1.9274,1.9095,2.1197,8.0185
101.5625,0.2507,-7.4626,0.0288,4.8122,4.1074,-1.1111,-16.3191,0.3660,-2.3286,-5.5801,-2.2122,0.1262,1.4619,4.5779,-3.6081,-2.9666,1.7001,-0.1041,3.8342
105.4688,-1.4095,-8.7581,-3.3489,1.0553,0.9349,-1.6258,-10.2401,-1.7673,-5.4984,-7.6550,-6.0463,-3.0341,-1.2621,1.2803,-6.5492,-4.9265,-0.1286,-2.7888,-1.1793
109.3750,-3.0946,-8.3074,-5.4916,-3.0989,-2.9974,-0.9998,-3.6812,-4.1932,-7.1495,-7.4210,-8.0706,-5.4160,-4.2527,-3.0810,-8.8052,-7.0236,-3.0176,-5.0346,-5.3003
113.2812,-4.1126,-6.5034,-6.1790,-6.3062,-6.5769,0.4464,-0.4958,-6.2427,-6.9178,-5.6659,-8.0116,-6.2793,-6.4528,-6.9599,-9.8993,-8.2733,-5.8883,-6.2027,-7.3819
117.1875,-4.1779,-4.1590,-5.9709,-7.7040,-8.7972,1.6535,-2.2482,-7.4616,-5.2317,-3.7087,-6.5151,-5.5154,-7.1384,-8.8384,-9.8720,-8.0273,-7.5745,-6.0823,-7.2070
121.0938,-3.4933,-2.0062,-5.4554,-7.0461,-9.0372,1.4606,-7.8358,-7.6179,-2.8820,-2.3819,-4.5581,-3.4973,-6.0633,-7.8778,-9.0306,-6.2524,-7.2594,-4.7239,-5.2416
125.0000,-2.4751,-0.3579,-4.5053,-4.4957,-7.1758,-0.5744,-14.5511,-6.5440,-0.4855,-1.4688,-2.7774,-0.7265,-3.4079,-4.2931,-7.5949,-3.4416,-4.7922,-2.1839,-2.1183
128.9062,-1.3757,0.8728,-2.2600,-0.3990,-3.6034,-3.7409,-19.6827,-4.0749,1.7854,0.0084,-1.1767,2.4094,0.3154,0.6996,-5.5620,-0.3123,-0.7996,1.5238,1.6764
132.8125,-0.1210,1.8729,2.0391,4.7140,0.8336,-6.4747,-21.6709,-0.2389,4.0689,2.8780,0.6433,5.6103,4.3281,5.3464,-2.8952,2.4633,3.4758,6.1872,5.7113
136.7188,1.5022,2.6219,7.9836,9.9498,4.9995,-7.2449,-20.3671,4.4215,6.4426,6.9701,2.9726,8.4759,7.6841,8.0500,0.1573,4.3662,6.6129,11.0778,9.3211
140.6250,3.4705,2.8322,13.6272,13.9906,7.7905,-5.4793,-16.5909,8.7178,8.6318,10.9670,5.6106,10.4134,9.4971,8.0128,2.9395,5.0356,7.5951,14.9039,11.5322
144.5312,5.2884,2.1902,16.2988,15.4208,8.5509,-1.9272,-11.4941,11.1279,10.0312,13.0961,7.8932,10.8152,9.2780,5.5487,4.6294,4.3170,6.2792,16.2289,11.4351
148.4375,6.1334,0.7079,14.1999,13.3932,7.3764,1.7667,-6.1400,10.4935,10.0306,12.2122,9.0771,9.4285,7.2060,1.9022,4.7019,2.3927,3.4707,14.2017,8.8063
152.3438,5.3372,-1.1018,7.7182,8.2446,5.0836,3.9982,-1.3895,6.7148,8.4202,8.5488,8.7843,6.6402,4.1152,-1.3588,3.2653,-0.1261,0.5100,9.1691,4.4912
156.2500,2.8880,-2.3978,-0.5224,1.5874,2.7875,4.0557,2.0390,0.9735,5.6056,3.6437,7.1979,3.4159,1.1277,-3.0922,1.0013,-2.3304,-1.4425,2.7350,0.1502
160.1562,-0.4129,-2.4633,-7.0304,-4.3142,1.2925,2.3885,3.5063,-4.7351,2.4883,-0.5015,4.9117,0.8646,-0.8938,-3.0940,-1.2627,-3.4110,-2.0101,-2.8615,-2.5829
164.0625,-3.2897,-1.1596,-9.4001,-7.6010,0.6657,0.1994,2.4885,-8.5424,0.0760,-2.4844,2.5823,-0.3219,-1.7398,-2.0969,-3.0336,-3.1207,-1.7194,-5.7594,-3.0163
167.9688,-4.6499,0.9156,-7.5936,-7.7064,0.2792,-1.3065,-1.2578,-9.5917,-0.9718,-2.1436,0.6315,-0.2017,-1.8447,-1.2649,-4.3429,-1.9725,-1.5526,-5.3374,-1.7681
171.8750,-4.1665,2.6923,-3.7397,-5.5478,-0.6981,-1.5331,-7.4218,-8.3600,-0.6373,-0.4518,-0.8449,0.5238,-1.8898,-1.4794,-5.5380,-0.9701,-2.2298,-2.4558,-0.3166
175.7812,-2.4358,3.1755,-0.6499,-2.9172,-2.6861,-0.6498,-14.8738,-6.2581,0.4529,1.1784,-1.9807,0.9748,-2.3044,-2.8417,-6.8806,-0.9894,-3.7035,1.0411,-0.0234
179.6875,-0.6262,1.9668,-0.0824,-1.4582,-5.3719,0.6782,-21.6504,-4.7788,1.3186,1.6997,-2.9816,0.6136,-3.0100,-4.6792,-8.2817,-2.2044,-5.2063,3.2713,-1.2860
183.5938,0.1540,-0.5437,-1.8836,-1.8458,-7.8979,1.7105,-25.4498,-4.7122,1.0826,0.8846,-4.0115,-0.4992,-3.5683,-6.0292,-9.3631,-3.9613,-5.8133,3.1978,-3.3736
187.5000,-0.6028,-3.4150,-4.4486,-3.6072,-9.4134,1.9269,-24.6511,-5.8500,-0.5938,-0.7376,-5.1309,-1.8274,-3.5880,-6.2735,-9.7468,-5.2033,-5.1169,1.0164,-5.0090
191.4062,-2.6340,-5.6722,-6.0159,-5.5943,-9.5998,1.0981,-19.4255,-7.2751,-3.2951,-2.3071,-6.2444,-2.7307,-3.0648,-5.5137,-9.3013,-5.1600,-3.5424,-2.0897,-5.2508
195.3125,-5.1399,-6.7926,-5.8135,-6.7328,-8.8162,-0.7663,-12.1768,-7.9881,-5.9812,-3.1153,-7.0578,-2.8229,-2.3981,-4.4607,-8.1467,-3.8272,-2.0852,-4.6299,-4.0625
199.2188,-7.2214,-6.8873,-4.3121,-6.5773,-7.7991,-3.4473,-6.7132,-7.4752,-7.4472,-2.9029,-7.1169,-2.1184,-2.0863,-3.9381,-6.4677,-1.9166,-1.6614,-5.5382,-2.2284
203.1250,-8.2541,-6.4959,-2.5792,-5.4089,-7.1683,-6.4783,-6.2872,-5.9299,-6.9228,-1.8993,-6.0064,-0.9454,-2.3518,-4.3440,-4.3677,-0.3482,-2.5217,-4.6030,-0.7598
207.0312,-8.0323,-6.1574,-1.3700,-3.9361,-7.1012,-9.1324,-11.5328,-4.0829,-4.5100,-0.6657,-3.6698,0.2526,-2.9889,-5.4262,-1.9458,0.3228,-4.1197,-2.4379,-0.2649
210.9375,-6.6929,-6.0424,-0.6809,-2.8691,-7.3745,-10.5651,-19.6842,-2.8027,-1.1914,0.1656,-0.6516,1.0838,-3.5395,-6.4933,0.4637,0.1357,-5.4946,-0.0706,-0.7036
214.8438,-4.5528,-5.8819,-0.0260,-2.6261,-7.6762,-10.1347,-25.8593,-2.7033,1.6463,0.1738,1.9746,1.2907,-3.6468,-6.8956,2.1677,-0.5026,-5.8833,1.6060,-1.6071
218.7500,-1.9890,-5.2237,0.9164,-3.2618,-7.8989,-7.7640,-25.8782,-3.9184,2.9506,-0.6282,3.0738,0.7862,-3.3037,-6.4421,2.3464,-1.2563,-5.1455,2.2446,-2.4955
222.6562,0.5978,-3.8259,1.9005,-4.5445,-8.1732,-4.1178,-18.9263,-6.0868,2.5869,-1.7333,2.1136,-0.3020,-2.8107,-5.4937,0.5956,-2.1180,-3.7540,2.1323,-3.1344
226.5625,2.7899,-1.9091,2.3049,-6.0673,-8.6426,-0.4386,-8.2704,-8.5007,1.4083,-2.3289,-0.3885,-1.5923,-2.4993,-4.7047,-2.5850,-3.2785,-2.4179,1.9424,-3.4852
230.4688,4.2013,-0.0860,1.7385,-7.3485,-9.2066,1.9350,0.5995,-10.3490,0.7360,-1.7076,-2.9902,-2.4991,-2.4601,-4.6168,-5.7898,-4.7465,-1.6392,2.2981,-3.4950
234.3750,4.5870,0.9915,0.5166,-7.9467,-9.4893,2.1577,3.3102,-10.9879,1.5411,0.2854,-4.0502,-2.4341,-2.5029,-5.3729,-7.3344,-6.0858,-1.4982,3.3845,-3.0029
238.2812,3.9561,1.0277,-0.4372,-7.6185,-9.1010,0.2853,-0.7355,-10.1732,3.8190,3.0461,-2.6791,-1.1152,-2.3800,-6.7068,-6.2009,-6.5522,-1.7623,4.8173,-1.9011
242.1875,2.5978,0.2499,-0.2414,-6.4708,-8.0075,-2.7189,-8.1573,-8.1774,6.5450,5.4274,0.6591,1.1814,-2.0848,-8.1640,-2.7131,-5.5893,-2.1726,5.8345,-0.4210
246.0938,0.9778,-0.7705,1.2215,-4.9933,-6.7036,-5.4094,-13.9772,-5.7210,8.2474,6.3076,4.3021,3.6149,-1.9693,-9.3693,1.5289,-3.3282,-2.6682,5.7054,0.7507
250.0000,-0.4610,-1.5183,3.0730,-3.8865,-6.0091,-6.5420,-14.9475,-3.7027,7.8499,5.1897,6.2534,5.0894,-2.5598,-10.1647,4.4526,-0.6943,-3.3944,4.1278,0.7217
253.9062,-1.4909,-1.8758,3.9136,-3.7268,-6.5735,-5.7006,-11.5580,-2.8111,5.2714,2.4587,5.2624,4.7558,-4.1841,-10.5657,4.5771,1.0082,-4.5233,1.3972,-1.0831
257.8125,-2.1817,-2.1691,2.7063,-4.6349,-8.4011,-3.5484,-7.4143,-3.1872,1.4362,-0.8667,1.4847,2.4415,-6.6704,-10.6149,1.6999,0.7982,-6.0430,-1.7340,-4.4617
261.7188,-2.8256,-2.8927,-0.5249,-6.1568,-10.7198,-1.5385,-6.5305,-4.3216,-2.2780,-3.7136,-3.6557,-1.2396,-9.3347,-10.2706,-3.1555,-1.4430,-7.6711,-4.4123,-8.3828
265.6250,-3.7463,-4.3189,-4.6502,-7.4570,-12.3137,-1.1769,-10.4987,-5.2826,-4.7895,-5.4759,-8.2837,-5.1667,-11.2796,-9.4153,-8.4044,-4.9251,-8.9395,-6.0498,-11.4306
269.5312,-5.0894,-6.2728,-8.0633,-7.7455,-12.1482,-3.1795,-17.4874,-5.2035,-5.8011,-6.1521,-11.0491,-8.2277,-11.8160,-7.9676,-12.6873,-8.3935,-9.3853,-6.5105,-12.5026
273.4375,-6.7041,-8.2274,-9.5709,-6.7099,-9.9373,-6.9781,-23.6431,-3.7997,-5.7760,-6.0803,-11.6805,-9.7830,-10.7615,-6.0103,-15.3034,-10.7557,-8.7377,-6.0581,-11.3454
277.3438,-8.1805,-9.6302,-8.9867,-4.7123,-6.3364,-10.8909,-25.7672,-1.6272,-5.4866,-5.5455,-10.8431,-9.8334,-8.4660,-3.8411,-16.1429,-11.5042,-7.0236,-5.1435,-8.6215
281.2500,-9.0279,-10.2070,-7.1010,-2.6322,-2.6556,-12.9369,-23.3262,0.1084,-5.4724,-4.6002,-9.4822,-8.8381,-5.6004,-1.9090,-15.3441,-10.7444,-4.5765,-4.1794,-5.5007
285.1562,-8.9143,-10.0249,-5.1109,-1.4292,-0.2509,-11.8935,-18.4731,0.1536,-5.7492,-3.2164,-8.1384,-7.3367,-2.8679,-0.6686,-13.0441,-8.9163,-1.9635,-3.4140,-3.0515
289.0625,-7.8453,-9.2944,-3.9044,-1.6489,0.0974,-8.0056,-14.2493,-2.0613,-5.9055,-1.5746,-6.6830,-5.6324,-0.7962,-0.4179,-9.4231,-6.4719,0.1534,-2.9205,-1.7884
292.9688,-6.1867,-8.1137,-3.6317,-3.1284,-1.4857,-2.9148,-12.4060,-5.9686,-5.4601,-0.1683,-4.6080,-3.7300,0.3311,-1.1906,-4.9426,-3.7314,1.2008,-2.6485,-1.5890
296.8750,-4.5020,-6.3911,-3.7698,-5.0551,-4.0701,1.1976,-12.4189,-9.9909,-4.2138,0.4445,-1.6183,-1.5402,0.4485,-2.7410,-0.4889,-0.9491,0.8844,-2.4764,-1.9421
300.7812,-3.2769,-4.0312,-3.5734,-6.3558,-6.3863,2.7824,-12.2831,-12.2552,-2.3790,0.0720,1.9141,0.8208,-0.3347,-4.6233,2.7993,1.5450,-0.6888,-2.2486,-2.3169
304.6875,-2.6747,-1.2253,-2.5987,-6.2252,-7.4206,1.7315,-10.3452,-11.5527,-0.4510,-0.8688,4.9657,2.8736,-1.7610,-6.3352,3.9839,3.3007,-3.0313,-1.8196,-2.4237
308.5938,-2.4677,1.4287,-0.9833,-4.5248,-6.8533,-0.6519,-6.7351,-8.0111,1.0547,-1.5618,6.3633,3.9079,-3.4505,-7.4675,2.7973,3.8721,-5.4494,-1.1169,-2.2585
312.5000,-2.2022,3.1416,0.6585,-1.8433,-5.1318,-2.4998,-3.3450,-3.0703,1.8218,-1.3564,5.4666,3.3674,-4.9592,-7.7979,-0.1703,3.0431,-7.2954,-0.1958,-1.9712
316.4062,-1.5178,3.3805,1.6351,0.8169,-3.1538,-2.5263,-2.4149,1.2674,1.8062,-0.2693,2.6106,1.2673,-5.8711,-7.2917,-3.6943,1.0075,-8.1638,0.7663,-1.6803
320.3125,-0.4342,2.2354,1.6167,2.5598,-1.7349,-0.7852,-4.7850,3.5011,1.1749,0.9923,-0.9785,-1.6308,-5.8904,-6.0280,-6.4325,-1.6129,-7.9344,1.5575,-1.3559
324.2188,0.5868,0.4132,0.8475,3.0321,-1.1606,1.4034,-9.0919,3.3882,0.1938,1.5479,-3.7656,-4.0496,-4.9022,-4.1155,-7.4647,-3.9451,-6.6736,2.0521,-0.8319
328.1250,0.8760,-1.1793,-0.0046,2.5255,-1.0844,2.2907,-12.5045,1.9405,-0.8615,1.0252,-4.6747,-4.7770,-3.0041,-1.6785,-6.6096,-5.1712,-4.5120,2.2705,0.0599
332.0312,-0.0265,-1.9936,-0.2820,1.6901,-0.8414,0.7834,-12.5410,0.6705,-1.7564,-0.1354,-3.6242,-3.3176,-0.5281,1.0634,-4.4132,-4.8485,-1.6225,2.3137,1.3006
335.9375,-2.0208,-2.1542,0.1993,1.0445,0.0094,-2.8627,-8.7814,0.5734,-2.3371,-1.0281,-1.5379,-0.2561,1.9467,3.6850,-1.8661,-3.1106,1.6714,2.2034,2.5436
339.8438,-4.4026,-2.3076,0.9513,0.6024,1.2637,-7.1220,-3.3478,1.4950,-2.5778,-1.0413,0.1661,2.9121,3.6464,5.5363,0.0042,-0.6521,4.7696,1.7534,3.1312
343.7500,-6.1920,-3.1195,1.0342,-0.1279,2.0779,-9.9799,0.2079,2.2852,-2.6162,-0.4343,0.3283,4.4559,3.7882,5.9114,0.5076,1.5324,6.8267,0.6046,2.3286
347.6562,-6.6702,-4.7817,-0.3936,-1.7569,1.4513,-9.9660,-1.0188,1.6184,-2.7280,-0.2351,-1.3644,3.2806,1.9075,4.3826,-0.4903,2.5705,7.0333,-1.5483,-0.2820
351.5625,-5.8088,-6.8710,-3.5040,-4.4845,-1.0748,-6.8918,-7.4798,-1.0656,-3.2116,-1.4693,-4.2596,-0.4535,-1.7948,1.1400,-2.5679,2.1119,5.0559,-4.6533,-4.4242
355.4688,-4.3138,-8.6349,-7.5518,-7.7793,-4.9353,-1.9408,-16.7527,-5.1105,-4.2137,-4.2678,-7.1267,-5.3136,-6.2996,-2.8845,-4.9616,0.4915,1.3779,-8.1263,-9.0051
359.3750,-3.2264,-9.4664,-11.1272,-10.4931,-8.6180,2.8967,-24.8170,-8.9491,-5.5836,-7.5371,-8.8117,-9.2229,-9.9899,-6.2476,-6.8988,-1.4565,-2.7138,-10.9555,-12.3983
363.2812,-3.2978,-9.2202,-12.7931,-11.3696,-10.3173,5.7346,-28.3276,-10.9431,-6.8542,-9.5041,-8.7897,-10.4368,-11.2416,-7.5305,-7.9061,-2.8540,-5.5868,-12.0802,-13.0769
367.1875,-4.5050,-8.1735,-11.7624,-9.6552,-8.8334,5.6176,-26.5315,-10.2093,-7.3900,-8.8029,-7.3268,-8.3707,-9.1469,-5.9421,-7.9430,-3.2494,-5.9793,-10.8624,-10.3167
371.0938,-6.0102,-6.7274,-8.2549,-5.4784,-4.2246,2.8950,-21.6242,-6.9636,-6.6606,-5.3737,-5.2154,-3.8589,-4.0044,-1.6916,-7.3118,-2.8203,-3.6158,-7.4114,-4.6068
375.0000,-6.6075,-5.1291,-3.3660,0.1862,2.1510,-0.9932,-17.2462,-2.2675,-4.5183,-0.5526,-3.2871,1.2816,2.7109,4.0630,-6.4222,-2.1861,0.6212,-2.5934,2.4716
378.9062,-5.4096,-3.4334,1.4413,5.9014,8.2240,-4.1980,-15.9946,2.5535,-1.3417,3.7006,-2.0130,5.1395,8.9238,9.6689,-5.5697,-1.9586,5.0783,2.2750,8.8650
382.8125,-2.3823,-1.6933,4.9259,10.2649,12.1088,-5.2905,-17.5402,6.4118,2.0423,5.9037,-1.4011,6.5823,12.8102,13.6103,-4.8600,-2.3311,8.0898,5.8936,12.8569
386.7188,1.5791,-0.1527,6.4608,12.2979,12.8449,-3.8634,-18.6633,8.6480,4.6510,5.7676,-1.1769,5.6813,13.5090,15.0293,-4.2841,-2.9722,8.7271,7.4074,13.6788
390.6250,5.0751,0.7807,6.1168,11.6312,10.6515,-0.6407,-15.3457,8.9649,5.7444,4.1306,-1.0502,3.5204,11.3677,13.9331,-3.8269,-3.2676,7.1683,6.6479,11.6610
394.5312,6.8841,0.7990,4.4965,8.5267,6.6449,2.9293,-5.6819,7.3315,5.1586,2.2770,-0.8552,1.5459,7.6487,11.0502,-3.4883,-2.7217,4.5261,4.1335,7.9234
398.4375,6.5342,-0.0144,2.4661,3.8021,2.2444,5.3821,8.2964,4.0164,3.4143,1.1800,-0.4893,0.8364,3.8989,7.4597,-3.1890,-1.2366,2.2528,0.8659,3.8338
402.3438,4.4724,-1.1356,0.8797,-1.3336,-1.4112,5.8846,21.2050,-0.3117,1.5227,1.1390,0.2255,1.6585,1.3077,4.1681,-2.6798,0.8823,1.4362,-2.0066,0.5098
406.2500,1.7816,-1.8785,0.3335,-5.5696,-3.7882,4.5177,27.1187,-4.6171,0.5489,1.9052,1.5635,3.4811,0.3325,1.7947,-1.5960,3.1348,2.3258,-3.5649,-1.4511
410.1562,-0.3679,-1.8226,0.9691,-7.8948,-4.9538,2.0974,22.9436,-7.7940,1.1162,3.0207,3.7017,5.3655,0.6909,0.4440,0.3026,5.0508,4.2911,-3.4264,-1.9957
414.0625,-1.2345,-1.0748,2.3897,-7.9772,-5.3296,-0.3139,10.2534,-9.1240,3.0861,4.0382,6.4195,6.4779,1.6440,-0.2173,2.8463,6.2818,6.1937,-1.8686,-1.4796
417.9688,-0.7531,-0.1675,3.7830,-6.3052,-5.3641,-1.9153,-5.5615,-8.6021,5.5866,4.5246,8.9485,6.4566,2.3999,-0.7218,5.3554,6.5745,6.9682,0.3034,-0.4673
421.8750,0.5490,0.3266,4.2699,-3.9476,-5.2764,-2.4399,-18.2745,-6.8803,7.3982,4.0279,10.1772,5.4892,2.4587,-1.4894,6.8641,5.7626,6.1287,2.1190,0.4757
425.7812,1.8643,0.1674,3.3482,-2.0117,-4.9657,-2.1178,-24.0553,-4.8358,7.5249,2.2263,9.1849,4.1141,1.7778,-2.5751,6.5896,3.8725,3.9687,2.8785,0.9644
429.6875,2.4618,-0.4674,1.1852,-1.0909,-4.1170,-1.4311,-23.0263,-3.0549,5.6674,-0.7491,5.8174,2.8867,0.7090,-3.6074,4.3727,1.2696,1.3731,2.4413,0.9052
433.5938,1.9363,-1.2196,-1.4481,-1.0416,-2.4525,-0.8483,-18.4124,-1.5958,2.3580,-4.1000,0.9288,2.0842,-0.2535,-3.9823,0.8098,-1.3392,-0.6548,1.2036,0.4768
437.5000,0.2900,-1.8800,-3.5969,-1.2268,-0.0047,-0.6650,-14.1277,-0.1801,-1.3121,-6.5631,-3.9218,1.5849,-0.7903,-3.2360,-3.0119,-3.1718,-1.5090,-0.2150,-0.0265
441.4062,-2.1267,-2.5186,-4.6476,-1.0473,2.7468,-0.9669,-12.4975,1.3685,-4.2181,-7.0457,-7.1916,0.9719,-0.9662,-1.3950,-6.0101,-3.8003,-1.2724,-1.3756,-0.4088
445.3125,-4.7489,-3.3008,-4.6158,-0.3766,4.9957,-1.6516,-13.4467,2.8222,-5.6969,-5.3237,-8.0890,-0.1854,-1.1862,0.9309,-7.5313,-3.4417,-0.6210,-2.2417,-0.6927
449.2188,-6.9497,-4.1615,-4.0086,0.4167,5.9713,-2.4567,-15.3013,3.6536,-5.7511,-2.2839,-6.8873,-2.0056,-1.8887,2.8148,-7.4902,-2.8375,-0.3875,-3.0690,-1.0397
453.1250,-8.1808,-4.6505,-3.3723,0.8646,5.3685,-3.0019,-16.2763,3.4829,-4.8860,0.5403,-4.6398,-4.0973,-3.1442,3.5163,-6.2236,-2.7321,-1.0254,-4.0498,-1.5099
457.0312,-8.0899,-4.1375,-2.8702,0.8954,3.5843,-2.8915,-15.4993,2.5071,-3.7142,1.8846,-2.4937,-5.6301,-4.4410,2.9227,-4.2436,-3.2987,-2.2936,-4.9855,-1.8556
460.9375,-6.6060,-2.2774,-2.2113,1.0118,1.5718,-1.8871,-13.0655,1.5256,-2.5927,1.4998,-1.0502,-5.6986,-4.8705,1.6256,-2.0796,-3.9650,-3.3753,-5.2665,-1.5622
464.8438,-3.9736,0.5998,-0.9796,1.9661,0.3446,-0.0837,-9.4774,1.4752,-1.5083,0.2051,-0.1676,-3.8393,-3.6787,0.5515,-0.2556,-3.8399,-3.3901,-4.2256,-0.1869
468.7500,-0.7176,3.4906,0.8997,4.1281,0.3978,2.0360,-5.1962,2.7663,-0.2523,-0.7820,0.7022,-0.4303,-0.8741,0.3558,0.7110,-2.4799,-2.0077,-1.6590,2.1989
472.6562,2.4676,5.1639,2.9407,7.0096,1.4030,3.7479,-0.6981,4.8987,1.2728,-0.7309,1.9168,3.2924,2.5317,0.9766,0.4230,-0.4209,0.2266,1.8480,4.8046
476.5625,4.8903,4.7907,4.3230,9.3376,2.3892,4.4034,3.2002,6.6644,2.8474,0.1564,3.2268,5.6986,4.8976,1.6580,-1.1712,0.9984,2.0939,5.0593,6.3851
480.4688,6.0520,2.3756,4.4213,9.7076,2.3275,3.7615,5.3013,6.8391,3.9875,1.0486,3.8482,5.5370,4.8073,1.4547,-3.6007,0.4983,2.3552,6.6676,5.9007
484.3750,5.7969,-1.2573,3.2493,7.4316,0.7652,2.1452,4.5464,4.9197,4.2250,1.2561,2.9911,2.6326,1.9212,-0.1043,-5.9430,-2.1551,0.4878,5.9951,3.1869
488.2812,4.3574,-4.8734,1.4804,3.0369,-1.8869,0.3126,0.7873,1.4303,3.4237,0.8308,0.4905,-1.8930,-2.7143,-2.6386,-7.1941,-5.7631,-2.9448,3.3928,-0.8200
492.1875,2.2616,-7.3616,0.0115,-1.9234,-4.6004,-0.9125,-4.8393,-2.3892,1.9101,0.5092,-2.8967,-6.0536,-7.1390,-5.0933,-6.7625,-8.2701,-6.5343,0.0842,-4.5015
496.0938,0.1231,-8.1093,-0.6197,-5.6498,-6.3466,-1.0680,-10.3410,-5.2844,0.3201,1.0482,-5.7585,-7.9042,-9.4877,-6.3667,-4.7844,-7.9923,-8.7551,-2.4638,-6.4010
500.0000,-1.6043,-7.1042,-0.5519,-6.9965,-6.6889,-0.3103,-13.8930,-6.6176,-0.7484,2.5033,-6.7349,-6.4624,-8.9427,-5.9791,-2.0513,-4.7043,-8.7579,-3.2785,-5.9812
503.9062,-2.7858,-4.8324,-0.4340,-5.9663,-5.9729,0.6471,-14.7691,-6.5617,-1.0540,4.0561,-5.2559,-2.1615,-6.0680,-4.3408,0.4153,0.1581,-6.7660,-2.3091,-3.8271
507.8125,-3.5913,-2.1043,-0.9123,-3.5521,-5.0173,0.9011,-13.5720,-5.8074,-0.8022,4.5638,-1.8787,3.3933,-2.3619,-2.4554,1.8708,4.3324,-3.8680,-0.3285,-1.1951
511.7188,-4.3055,0.1323,-2.1499,-1.0878,-4.5351,-0.1461,-11.6962,-5.0493,-0.4548,3.4227,1.9728,8.2118,0.6449,-1.2752,2.1249,6.0533,-1.3697,1.5832,0.7643
515.6250,-5.0742,1.0252,-3.7133,0.4595,-4.6839,-2.4232,-10.4961,-4.6039,-0.3963,1.0749,4.7147,10.8085,2.1574,-1.1563,1.4569,5.0016,-0.1207,2.6383,1.5893
519.5312,-5.7525,0.1163,-4.8779,0.8495,-5.0333,-5.1716,-10.7319,-4.3574,-0.6854,-1.2583,5.3563,10.7364,2.3070,-1.7690,0.2872,2.2920,-0.2047,2.6768,1.5502
523.4375,-5.9769,-2.3892,-5.1125,0.4528,-4.9399,-7.3118,-12.5017,-3.9828,-1.0589,-2.4333,3.8933,8.5506,1.7443,-2.4834,-1.1263,-0.4080,-1.1126,2.0877,1.2103
527.3438,-5.4364,-5.5764,-4.3941,-0.1623,-4.0429,-8.0176,-15.4202,-3.2099,-1.1819,-2.1980,1.1616,5.3248,1.0153,-2.9092,-2.7574,-1.9606,-2.2013,1.4327,0.8920
531.2500,-4.1768,-8.1387,-3.1716,-0.6213,-2.5350,-7.1817,-18.7110,-1.9651,-0.9678,-1.3508,-1.7167,2.0648,0.1907,-3.1747,-4.6455,-2.3101,-3.0926,1.0418,0.4556
535.1562,-2.7160,-8.9878,-2.0550,-0.8805,-1.0352,-5.4838,-21.1748,-0.3513,-0.7370,-1.1309,-3.9450,-0.6553,-1.0222,-3.7429,-6.6732,-2.2138,-3.7708,0.8300,-0.4780
539.0625,-1.8506,-7.8456,-1.4818,-1.1015,-0.1813,-3.9943,-21.3429,1.4286,-1.0833,-2.2982,-5.3763,-2.7121,-2.8469,-4.9209,-8.4956,-2.4742,-4.3858,0.4113,-2.0863
542.9688,-2.2313,-5.4441,-1.5731,-1.4287,-0.2425,-3.5307,-18.0971,3.0987,-2.5098,-4.5826,-6.3985,-4.2185,-5.0714,-6.4624,-9.6876,-3.3058,-4.9844,-0.6012,-4.0676
546.8750,-3.9568,-3.1618,-2.2069,-1.8636,-1.0202,-4.1669,-11.5751,4.2817,-5.0536,-6.8880,-7.5054,-5.2954,-7.0550,-7.5997,-9.9995,-4.2889,-5.4041,-2.3136,-5.7578
550.7812,-6.4547,-2.2722,-3.1770,-2.3104,-2.0801,-5.2231,-3.6926,4.5078,-8.1449,-8.0709,-8.8556,-5.9819,-8.1089,-7.5255,-9.5216,-4.8569,-5.4071,-4.4523,-6.5554
554.6875,-8.7517,-3.2448,-4.2820,-2.7164,-3.1256,-5.7589,2.3740,3.3494,-10.8116,-7.7002,-10.1091,-6.2842,-7.9582,-5.9990,-8.6350,-4.8531,-4.9223,-6.4827,-6.3288
558.5938,-9.9905,-5.5233,-5.3131,-3.1643,-4.2266,-5.2495,3.7408,0.6626,-12.1374,-6.2601,-10.6432,-6.2600,-6.9434,-3.6354,-7.7864,-4.6798,-4.1825,-7.8577,-5.5025
562.5000,-9.8801,-7.9044,-6.0254,-3.8276,-5.7344,-3.9741,-0.4457,-3.2042,-11.7197,-4.7011,-9.9976,-6.0338,-5.8192,-1.6330,-7.2424,-4.9307,-3.6331,-8.2526,-4.7709
566.4062,-8.8024,-9.2656,-6.1973,-4.8207,-7.9432,-2.8316,-8.2867,-7.4030,-9.8710,-3.7322,-8.2511,-5.7387,-5.3026,-1.0842,-6.9868,-5.8375,-3.6700,-7.6791,-4.6609
570.3125,-7.5132,-9.1766,-5.7667,-6.0603,-10.7381,-2.6934,-16.0604,-10.8421,-7.4448,-3.3969,-6.0669,-5.4541,-5.6790,-2.3038,-6.8035,-7.0047,-4.3949,-6.4461,-5.2492
574.2188,-6.6420,-8.0371,-4.9261,-7.2528,-13.4847,-3.7506,-20.3218,-12.6089,-5.3851,-3.2155,-4.3541,-5.2094,-6.7076,-4.6154,-6.4694,-7.6728,-5.5545,-5.0145,-6.1974
578.1250,-6.3170,-6.7012,-4.0478,-8.0270,-15.2550,-5.3282,-19.8159,-12.3459,-4.2501,-2.7123,-3.7424,-5.0472,-7.8351,-6.7411,-5.9157,-7.3113,-6.6913,-3.8203,-7.0221
582.0312,-6.1507,-5.8776,-3.4434,-8.1300,-15.2716,-6.3149,-15.9390,-10.3812,-3.9728,-1.8701,-4.1970,-5.0672,-8.5352,-7.5497,-5.2669,-6.0785,-7.3880,-3.1381,-7.3736
585.9375,-5.5690,-5.7052,-3.1211,-7.5562,-13.3132,-5.9043,-11.4998,-7.5487,-3.9784,-1.1442,-5.0303,-5.3822,-8.5510,-6.6945,-4.7523,-4.7820,-7.4477,-3.0208,-7.1455
589.8438,-4.2397,-5.7510,-2.7444,-6.5252,-9.8538,-4.1111,-8.7311,-4.7977,-3.5724,-1.0489,-5.3195,-5.9972,-7.9383,-4.7595,-4.5636,-4.3560,-6.9234,-3.3179,-6.4109
593.7500,-2.3059,-5.3872,-1.8677,-5.3297,-5.8629,-1.6942,-7.9810,-2.7960,-2.3672,-1.6712,-4.4797,-6.7112,-6.9575,-2.8556,-4.7399,-5.2333,-6.0282,-3.7517,-5.3131
597.6562,-0.2842,-4.2729,-0.3066,-4.1592,-2.3847,0.4338,-7.9249,-1.7199,-0.5044,-2.5146,-2.6331,-7.1472,-5.9299,-1.9494,-5.1305,-7.0549,-5.0212,-4.0209,-4.0294
601.5625,1.2715,-2.6205,1.6328,-3.0221,-0.1195,1.8419,-6.9647,-1.3093,1.4415,-2.8030,-0.5337,-6.9236,-5.1323,-2.3459,-5.4372,-8.8930,-4.1330,-3.8951,-2.7979
605.4688,2.0839,-1.0892,3.2632,-1.8169,0.7899,2.7689,-4.6483,-1.1301,2.8022,-2.0117,0.9091,-5.8696,-4.7263,-3.6103,-5.3178,-9.7961,-3.5307,-3.2773,-1.9072
609.3750,2.2335,-0.3746,3.9337,-0.4926,0.6945,3.7379,-2.0513,-0.8749,3.1934,-0.2217,1.2066,-4.1313,-4.6975,-4.9146,-4.5181,-9.2618,-3.2838,-2.2145,-1.5711
613.2812,1.9836,-0.7485,3.4798,0.8291,0.1708,4.9342,-0.9646,-0.5300,2.7145,1.9531,0.5932,-2.0958,-4.8234,-5.5452,-2.9976,-7.3641,-3.3227,-0.8637,-1.7533
617.1875,1.5245,-1.8235,2.3863,1.8788,-0.2861,5.8847,-2.6441,-0.3136,1.8721,3.7870,-0.1450,-0.1866,-4.7336,-5.2504,-1.0001,-4.5513,-3.4324,0.5690,-2.1059
621.0938,0.8536,-2.6993,1.5208,2.4126,-0.4472,5.7354,-7.0935,-0.4333,1.2873,4.8752,-0.2033,1.3192,-4.0947,-4.2563,0.9818,-1.3652,-3.3331,1.8875,-2.1397
625.0000,-0.1187,-2.4421,1.5863,2.4137,-0.3444,3.9374,-13.2666,-0.8307,1.3609,5.2626,0.6928,2.3305,-2.8444,-3.0135,2.3599,1.6891,-2.8367,2.9365,-1.5608
628.9062,-1.3490,-0.6596,2.6432,2.1583,-0.1237,0.7967,-19.7764,-1.1076,2.0747,5.2153,2.0824,2.8420,-1.3149,-1.8886,2.6795,4.1004,-1.9860,3.5997,-0.5364
632.8125,-2.5416,2.1440,4.0131,2.0555,0.1180,-2.5788,-25.3896,-0.7337,3.0176,4.8650,3.0394,2.8139,-0.1123,-1.0059,1.8186,5.3128,-1.0643,3.7752,0.3404
636.7188,-3.2716,4.6713,4.6395,2.3350,0.3911,-4.9412,-28.9836,0.5558,3.5996,4.0513,2.7423,2.1664,0.2219,-0.3004,0.0536,4.8703,-0.4363,3.3621,0.4156
640.6250,-3.2892,5.4012,3.6904,2.7893,0.7298,-5.7021,-29.3232,2.4205,3.3303,2.5042,0.9759,0.9065,-0.4376,0.3086,-2.0598,2.7176,-0.3175,2.2817,-0.5657
644.5312,-2.7740,3.3771,1.0498,2.7875,1.0407,-5.2703,-25.2788,3.9039,2.0310,0.2201,-1.7439,-0.7250,-1.6862,0.7813,-3.9333,-0.5795,-0.6332,0.5407,-2.2413
648.4375,-2.3102,-1.2049,-2.5797,1.6160,1.0193,-4.6754,-16.6746,3.8496,-0.0993,-2.2980,-4.4802,-2.2516,-2.8256,0.9624,-5.1945,-3.9504,-1.0799,-1.6947,-3.8378
652.3438,-2.5429,-6.9591,-6.0001,-1.0227,0.2412,-4.7628,-5.1843,1.5680,-2.5652,-4.1804,-6.3979,-3.1644,-3.3084,0.7106,-5.8032,-6.2969,-1.3497,-4.0658,-4.6718
656.2500,-3.7187,-11.8967,-8.0766,-4.6687,-1.5854,-5.5726,5.6656,-2.6344,-4.7522,-4.6701,-7.1643,-3.2234,-3.0861,0.0445,-5.9814,-7.0606,-1.3471,-6.0770,-4.5882
660.1562,-5.4311,-14.3536,-8.2351,-8.1828,-4.3479,-6.3585,11.8399,-7.4290,-6.1291,-3.6248,-7.0018,-2.6364,-2.6093,-0.8134,-6.0141,-6.4868,-1.2302,-7.2469,-4.0139
664.0625,-6.7828,-13.7599,-6.6733,-10.2617,-7.4322,-6.2091,10.9060,-11.0401,-6.4102,-1.6733,-6.4143,-1.9573,-2.4718,-1.5344,-6.0516,-5.3784,-1.2458,-7.2984,-3.5927
667.9688,-6.8974,-10.8254,-4.2162,-10.1160,-9.9119,-4.7714,3.5670,-12.1377,-5.6270,0.1289,-5.8081,-1.7282,-2.9530,-1.8623,-6.0288,-4.4977,-1.4948,-6.2886,-3.6756
671.8750,-5.4701,-7.0588,-1.9172,-7.9092,-10.9650,-2.5287,-6.5338,-10.5406,-4.0888,0.9467,-5.2656,-2.0931,-3.7881,-1.7619,-5.7402,-4.0462,-1.8278,-4.5928,-4.0529
675.7812,-2.9919,-3.9268,-0.5894,-4.6743,-10.2928,-0.4483,-14.7687,-7.2971,-2.2410,0.6935,-4.5836,-2.6455,-4.3300,-1.4365,-5.0018,-3.6049,-1.9641,-2.7281,-4.1155
679.6875,-0.4915,-2.1634,-0.4663,-1.7479,-8.2919,0.6866,-18.0474,-4.0798,-0.4859,0.0684,-3.5037,-2.6401,-3.9827,-1.2072,-3.7844,-2.5740,-1.7431,-1.1062,-3.3127
683.5938,1.0481,-1.6103,-1.1302,-0.0645,-5.8597,0.7311,-16.2885,-2.2535,0.9477,0.0502,-1.9501,-1.4564,-2.5989,-1.3264,-2.2386,-0.7706,-1.3011,0.1387,-1.5566
687.5000,1.2192,-1.6070,-1.7496,0.2535,-3.9363,0.0954,-11.9611,-2.1784,2.0069,1.1600,-0.1318,0.9581,-0.5837,-1.8430,-0.6160,1.2808,-1.0211,1.1256,0.7060
691.4062,0.3262,-1.6043,-1.5367,-0.2241,-3.0541,-0.7405,-8.1650,-3.1565,2.6875,2.9845,1.5143,3.9330,1.3290,-2.6054,0.8275,2.5981,-1.2859,2.0068,2.7627
695.3125,-0.9408,-1.5678,-0.2255,-0.7723,-3.1545,-1.6669,-6.6665,-4.0108,2.8695,4.3052,2.4660,6.2995,2.4333,-3.3943,1.8628,2.3555,-2.2262,2.6964,3.9983
699.2188,-2.0417,-1.9244,1.6844,-1.0739,-3.7560,-2.9548,-7.1906,-3.8917,2.2583,3.7966,2.2632,6.8795,2.3043,-4.0933,2.2423,0.4138,-3.6578,2.7574,4.0836
703.1250,-2.9400,-3.1457,3.0944,-1.4195,-4.3256,-4.8424,-8.2318,-2.7845,0.5297,0.8830,0.6386,5.0014,0.8471,-4.7690,1.6595,-2.6067,-5.2397,1.5834,2.9222
707.0312,-4.0148,-5.2893,2.8613,-2.4130,-4.5883,-7.0753,-8.5285,-1.4254,-2.3686,-3.7840,-2.3508,0.8197,-1.7656,-5.5893,-0.1781,-5.7331,-6.6966,-1.1799,0.5249
710.9375,-5.6030,-7.8216,0.4832,-4.4063,-4.5784,-8.8294,-7.9899,-0.7373,-5.9502,-8.5519,-6.2105,-4.6758,-5.1204,-6.6172,-3.3340,-8.1946,-7.9026,-5.2184,-2.9662
714.8438,-7.5284,-9.8237,-3.4735,-7.0774,-4.4434,-9.1390,-7.4662,-1.2040,-9.1902,-11.5977,-10.0072,-9.9544,-8.5186,-7.6251,-7.4038,-9.7260,-8.7598,-9.4466,-7.0743
718.7500,-9.0093,-10.4376,-7.5050,-9.4745,-4.1985,-7.5422,-7.7497,-2.5981,-10.9016,-11.8877,-12.5927,-13.4554,-10.9954,-8.0890,-11.4557,-10.4602,-9.0189,-12.3749,-10.8273
722.6562,-9.0821,-9.2837,-9.8639,-10.5272,-3.6552,-4.4685,-8.7642,-4.2022,-10.3465,-9.7120,-13.0614,-14.1616,-11.5727,-7.4282,-14.2988,-10.5974,-8.2756,-12.8237,-12.9366
726.5625,-7.2954,-6.6488,-9.4746,-9.7054,-2.5959,-1.0799,-9.6370,-5.3160,-7.7423,-6.4860,-11.2545,-12.0407,-9.7470,-5.3885,-15.0210,-10.1953,-6.2507,-10.6035,-12.3840
730.4688,-4.1883,-3.3894,-6.5523,-7.3930,-1.0564,1.3314,-9.5238,-5.6728,-4.3037,-3.9495,-7.9937,-8.1398,-5.9471,-2.3405,-13.5056,-9.2623,-3.1856,-6.7359,-9.1183
734.3750,-1.1631,-0.6292,-2.5354,-4.7227,0.5279,1.9874,-8.4149,-5.4977,-1.7004,-3.2347,-4.8002,-4.2061,-1.5906,0.7322,-10.5756,-8.0181,-0.0148,-3.0130,-4.3499
738.2812,0.2617,0.6357,0.6730,-2.9574,1.4681,0.9286,-7.1899,-5.2225,-1.1660,-4.3257,-3.1392,-1.9107,1.4608,2.6182,-7.5878,-6.9896,1.9379,-1.0794,-0.1053
742.1875,-0.6076,-0.0864,1.7414,-2.7901,1.1962,-1.1332,-6.8608,-5.1108,-2.7569,-6.1710,-3.5705,-2.0057,1.8446,2.4700,-5.6603,-6.7403,1.6616,-1.5320,1.8157
746.0938,-3.1106,-2.5276,0.6228,-3.9775,-0.3756,-3.2221,-7.6459,-5.0827,-5.2318,-7.3252,-5.3346,-3.8753,-0.4987,0.2766,-5.0007,-7.3772,-0.8580,-3.5671,0.8750
750.0000,-5.5091,-5.6493,-1.4755,-5.5121,-2.7657,-4.4865,-8.6724,-4.8427,-6.6858,-6.7158,-6.7065,-5.8080,-4.1982,-3.0754,-4.8026,-8.2557,-4.4632,-5.4128,-1.8591
753.9062,-5.9642,-7.9620,-2.8446,-6.2091,-5.1737,-4.4149,-8.5983,-4.1780,-5.6190,-4.1236,-5.9931,-5.9289,-7.1554,-6.2181,-3.8367,-8.2273,-7.3573,-5.3253,-4.3329
757.8125,-3.6462,-8.1378,-2.2938,-5.3547,-6.9055,-2.9170,-6.7019,-3.1766,-1.8282,-0.1871,-2.6082,-3.3021,-7.6938,-7.9802,-1.3854,-6.3758,-8.0737,-2.5849,-4.7392
761.7188,0.7110,-5.6766,0.1748,-3.0505,-7.6921,-0.3618,-3.5986,-2.1928,3.4153,3.9714,2.4485,1.4601,-5.4581,-7.9422,2.1104,-2.7557,-6.2879,2.0880,-2.5793
765.6250,5.1756,-1.2694,3.4199,-0.0966,-7.7098,2.4327,-1.0206,-1.5961,8.0219,7.2342,7.0595,6.4994,-1.5158,-6.5570,5.1794,1.4452,-2.9554,6.9327,1.1166
769.5312,7.7006,3.4216,5.8713,2.4720,-7.3311,4.3808,-0.7787,-1.5029,10.1969,8.8516,9.1651,9.7812,2.3688,-4.7856,6.1995,4.5314,0.3032,10.1185,4.5229
773.4375,7.2654,6.5373,6.4334,3.9004,-6.8251,4.5551,-3.6078,-1.6978,9.3576,8.5891,7.9452,10.2785,4.7816,-3.5004,4.4717,5.3412,2.1530,10.7008,6.1794
777.3438,4.3882,6.9734,5.0335,4.0026,-6.2330,2.7231,-8.6521,-1.7997,6.3322,6.7037,4.2784,8.5089,5.3411,-3.0299,0.7531,3.9839,2.2082,9.0147,5.7971
781.2500,0.7258,4.9646,2.5315,3.1148,-5.4829,-0.3441,-13.8885,-1.5409,2.7740,3.8335,0.1947,6.0750,4.6293,-3.1056,-3.1457,1.7244,1.0209,6.3213,4.2178
785.1562,-1.9456,1.9324,0.1234,1.8082,-4.6024,-3.1040,-17.1867,-0.9520,0.1949,0.8326,-2.3264,4.5241,3.5250,-3.1923,-5.4615,0.0709,-0.5044,3.9829,2.6466
789.0625,-2.7031,-0.3377,-1.3334,0.5744,-3.8132,-4.0093,-17.3627,-0.3186,-0.7727,-1.4548,-2.4512,4.3160,2.4996,-2.9285,-5.5439,-0.2834,-1.7819,2.7147,1.7706
792.9688,-1.8173,-0.7055,-1.6552,-0.3379,-3.3971,-2.4085,-14.6781,0.0472,-0.4792,-2.4651,-0.8133,4.6147,1.3993,-2.3601,-4.1683,0.1129,-2.8061,2.3572,1.3998
796.8750,-0.3256,0.7352,-1.1937,-0.8895,-3.4354,1.0012,-10.6121,0.0420,0.2410,-2.1344,1.0835,4.0424,-0.1759,-1.8255,-2.8989,-0.0036,-3.8679,2.2423,0.8368
800.7812,0.7838,2.8244,-0.4215,-1.1115,-3.6492,4.5160,-7.1098,-0.1642,0.7507,-0.9292,1.9288,1.8463,-2.2634,-1.6153,-2.9640,-1.5223,-5.0312,1.8304,-0.3781
804.6875,1.1849,4.1175,0.4095,-1.0006,-3.5132,6.4028,-5.6941,-0.2772,0.9886,0.3844,1.4104,-1.3764,-4.2378,-1.6925,-4.4334,-4.1300,-5.8508,1.1427,-1.9570
808.5938,1.2391,3.7651,1.3028,-0.5294,-2.6012,5.9063,-6.8144,-0.1245,1.3281,1.1458,0.2581,-3.9462,-5.1070,-1.6971,-6.2490,-6.3880,-5.5997,0.6979,-2.9966
812.5000,1.5050,1.9490,2.2884,0.2573,-0.9230,3.6455,-9.6709,0.1944,2.0968,1.1549,-0.4273,-4.2063,-4.2126,-1.2302,-7.0345,-6.6917,-3.8466,1.0354,-2.6543
816.4062,2.1726,-0.3417,3.1831,1.1666,1.0148,1.1550,-12.5879,0.3760,3.1762,0.7512,-0.0339,-1.7029,-1.8028,-0.1923,-6.0699,-4.4274,-0.9172,2.2024,-0.8496
820.3125,2.8751,-1.9794,3.5857,1.8941,2.5021,-0.1055,-13.8060,0.1566,4.0075,0.5536,1.1300,2.3915,0.9838,1.0985,-3.7384,-0.4863,2.1619,3.6020,1.5496
824.2188,3.0040,-2.3473,3.1408,2.1727,3.0904,0.3857,-12.3678,-0.4431,4.0008,1.0212,2.1072,5.9288,2.7683,2.1143,-1.1849,3.2476,4.2502,4.3287,3.2224
828.1250,2.2458,-1.5829,1.8601,1.9366,2.8980,2.0072,-8.6624,-1.0621,3.0195,2.1243,2.0260,7.0828,2.7877,2.5043,0.4880,5.0758,4.8079,3.7619,3.2401
832.0312,0.8854,-0.3438,0.2222,1.3756,2.5211,3.5099,-4.2968,-1.1957,1.5485,3.3435,0.7449,5.4289,1.3705,2.3662,0.8617,4.5087,4.2177,1.9977,1.6780
835.9375,-0.3815,0.6612,-1.0777,0.8223,2.5917,3.8415,-1.2961,-0.5331,0.3877,3.9922,-1.0553,2.1055,-0.3059,2.1796,0.2492,2.4415,3.4632,-0.1911,-0.4319
839.8438,-0.9928,1.0291,-1.5822,0.5348,3.2847,2.7222,-1.0394,0.7855,0.0783,3.6359,-2.3733,-1.0049,-1.0107,2.4282,-0.7793,0.4220,3.3879,-1.8512,-1.7759
843.7500,-0.9855,0.7088,-1.4068,0.5175,4.1268,0.6547,-3.5373,2.1727,0.4810,2.3260,-2.6035,-2.4826,-0.2706,3.1780,-1.9228,-0.4226,4.0707,-2.4665,-1.6091
847.6562,-0.9991,-0.2055,-1.1950,0.5082,4.2637,-1.5266,-7.4807,2.8823,0.8312,0.5059,-1.9474,-2.1530,1.3451,3.9307,-3.2736,-0.0332,4.7780,-2.2786,-0.2223
851.5625,-1.7827,-1.7001,-1.6931,0.1479,3.0214,-3.1867,-11.0202,2.4195,0.2557,-1.3117,-1.2437,-0.9828,2.6345,3.8918,-4.9796,0.7567,4.5306,-2.0972,1.2665
855.4688,-3.5658,-3.8724,-3.2196,-0.7686,0.3936,-4.1425,-12.7729,0.8319,-1.6014,-2.8446,-1.3618,-0.2548,2.5696,2.5011,-6.8047,0.9992,2.8763,-2.7267,1.6437
859.3750,-5.7750,-6.7300,-5.3923,-2.1232,-2.8709,-4.5509,-12.4427,-1.2928,-4.2814,-4.1026,-2.5991,-0.6584,0.9557,-0.1255,-8.0451,0.3856,0.3031,-4.3930,0.3784
863.2812,-7.3381,-9.9216,-7.3059,-3.4927,-5.6410,-4.6186,-10.7365,-3.1197,-6.7496,-5.1933,-4.4937,-1.9114,-1.4667,-3.1513,-7.9481,-0.5718,-2.0175,-6.5424,-2.0336
867.1875,-7.3805,-12.6370,-8.0469,-4.3398,-6.9958,-4.4012,-8.7510,-3.9768,-8.0063,-6.0535,-6.1471,-3.0981,-3.5004,-5.4255,-6.3222,-1.0057,-2.9856,-8.1359,-4.3483
871.0938,-5.8220,-13.8245,-7.2083,-4.2601,-6.6690,-3.8256,-7.3158,-3.6528,-7.6501,-6.3449,-6.7962,-3.3890,-4.1994,-6.1020,-3.8225,-0.4046,-2.3021,-8.2396,-5.2792
875.0000,-3.4425,-12.6708,-5.0784,-3.1458,-5.0936,-2.8611,-6.7076,-2.4334,-6.0250,-5.6209,-6.2255,-2.5866,-3.3527,-5.0903,-1.6141,0.9789,-0.6617,-6.5416,-4.1980
878.9062,-1.3670,-9.1024,-2.4094,-1.1998,-3.0660,-1.6495,-6.7909,-0.8894,-3.8915,-3.6580,-4.7705,-1.1397,-1.4863,-3.0714,-0.6134,2.3014,0.7174,-3.4964,-1.4381
882.8125,-0.3373,-4.0086,0.0438,1.1696,-1.2817,-0.4693,-7.3140,0.4305,-1.8950,-0.7119,-2.9744,0.3026,0.5377,-1.0870,-0.8637,2.7209,0.9004,-0.0514,1.9312
886.7188,-0.2769,1.0054,1.8965,3.4935,-0.0320,0.4468,-8.0472,1.2297,-0.2222,2.5033,-1.1983,1.3980,2.0201,0.0374,-1.5287,1.9662,-0.1693,2.8400,4.6919
890.6250,-0.4428,4.2782,3.1907,5.3512,0.7894,1.0880,-8.6997,1.5105,1.3303,5.1164,0.5191,2.2817,2.7113,0.0889,-1.5330,0.4920,-1.6748,4.6169,6.0728
894.5312,-0.0267,4.8685,4.1553,6.4333,1.4478,1.6872,-8.8231,1.4629,2.9770,6.4978,2.2839,3.3044,2.7763,-0.5187,-0.3826,-0.8466,-2.4985,5.2220,6.0409
898.4375,1.2357,3.0356,4.8883,6.5804,2.1006,2.5514,-7.9457,1.2972,4.5853,6.5065,4.0384,4.5849,2.5465,-1.0766,1.4467,-1.3484,-1.9562,4.9357,5.1703
902.3438,2.8681,0.1220,5.2092,5.8113,2.6772,3.7907,-5.9469,1.1218,5.6357,5.4470,5.3996,5.7550,2.2655,-1.0288,2.8331,-0.8831,-0.2122,4.1026,4.2085
906.2500,3.9818,-2.1501,4.7811,4.3268,2.9465,5.1199,-3.3825,0.9133,5.5473,3.8044,5.8035,6.1152,1.9795,-0.2735,2.7990,0.0661,1.8646,2.9489,3.6131
910.1562,3.8662,-2.6137,3.3940,2.4533,2.6799,5.8741,-1.4107,0.5580,4.1259,1.9602,4.8626,5.0977,1.5846,0.8212,1.1769,0.7166,3.2579,1.5758,3.3181
914.0625,2.4335,-1.2888,1.1992,0.5350,1.7878,5.2827,-1.2308,-0.0712,1.8003,0.0860,2.6830,2.7144,0.9527,1.6589,-1.3118,0.4515,3.3893,0.0810,2.8505
917.9688,0.2445,0.6829,-1.2704,-1.1732,0.3675,2.9031,-3.3440,-1.0330,-0.5409,-1.7427,-0.0920,-0.3273,0.0443,1.7537,-3.5788,-0.8152,2.3770,-1.3290,1.7110
921.8750,-1.8474,1.7870,-3.3044,-2.5392,-1.3211,-0.9971,-7.1480,-2.2472,-2.0122,-3.3433,-2.5575,-2.9222,-1.0285,0.9912,-4.8581,-2.5470,0.8731,-2.3388,-0.2160
925.7812,-3.1614,1.1212,-4.3151,-3.4946,-2.9097,-5.3451,-11.1945,-3.4587,-2.1947,-4.3339,-3.9725,-4.0984,-1.9946,-0.3022,-5.0593,-3.8043,-0.3461,-2.6499,-2.4773
929.6875,-3.4757,-1.0130,-4.0729,-3.9474,-3.9959,-8.5979,-13.9849,-4.2807,-1.3124,-4.2683,-4.0833,-3.4726,-2.4754,-1.5027,-4.5870,-3.6935,-0.7528,-2.1549,-4.2230
933.5938,-3.0259,-3.3104,-2.7819,-3.7750,-4.2633,-9.4285,-14.7967,-4.3451,-0.0430,-2.9357,-3.1754,-1.3960,-2.1186,-1.9816,-3.8683,-1.8618,-0.2248,-1.0468,-4.6636
937.5000,-2.3036,-4.3406,-0.9951,-2.9476,-3.6480,-7.4524,-14.0009,-3.5247,0.8834,-0.6186,-1.8615,1.2497,-0.8037,-1.4292,-3.0229,1.1989,1.0087,0.2087,-3.5608
941.4062,-1.8248,-3.5296,0.5700,-1.7084,-2.4760,-3.5737,-12.6918,-2.1110,1.0347,1.8988,-0.7591,3.4581,1.1647,-0.0656,-1.9378,4.2417,2.5040,1.0399,-1.4590
945.3125,-1.9704,-1.5764,1.2558,-0.6394,-1.4406,0.3336,-11.9113,-0.7982,0.3994,3.6353,-0.2362,4.4970,3.0236,1.3830,-0.6207,5.7910,3.7194,1.0061,0.5131
949.2188,-2.8936,-0.0110,0.6794,-0.4750,-1.3370,2.3361,-12.0047,-0.4060,-0.7260,3.8855,-0.3254,4.1366,3.7918,1.9799,0.5454,4.9057,4.1129,0.0019,1.1999
953.1250,-4.4541,-0.1796,-1.1100,-1.6970,-2.6271,1.4852,-12.5055,-1.4358,-1.9500,2.5903,-0.7999,2.6557,2.7384,1.0442,0.9373,1.7819,3.2850,-1.6683,0.0489
957.0312,-6.1960,-2.3450,-3.6013,-4.1413,-5.0715,-1.6194,-12.5621,-3.7043,-2.9594,0.3770,-1.3343,0.6657,-0.1477,-1.4350,0.1534,-2.1984,1.1805,-3.3939,-2.5461
960.9375,-7.4469,-5.5140,-5.9754,-6.9133,-7.7023,-5.1291,-11.5697,-6.3137,-3.5921,-1.7745,-1.6722,-1.1585,-3.9974,-4.6886,-1.5756,-5.0949,-1.7566,-4.5146,-5.4048
964.8438,-7.5861,-8.1013,-7.4275,-8.7548,-9.2455,-6.9917,-9.5889,-8.0496,-3.8385,-3.0550,-1.7458,-2.3390,-7.3835,-7.4814,-3.4080,-5.4339,-4.6405,-4.6290,-7.1666
968.7500,-6.3925,-8.9637,-7.5332,-8.7165,-8.8140,-6.1393,-7.3252,-8.0322,-3.8179,-3.2387,-1.7108,-2.7556,-9.0165,-8.7309,-4.3962,-3.0607,-6.4855,-3.8053,-7.0186
972.6562,-4.2647,-8.0944,-6.4666,-6.7433,-6.4730,-3.1038,-5.7440,-6.2539,-3.7382,-2.7492,-1.8773,-2.6507,-8.4356,-8.1004,-4.1371,0.7026,-6.7042,-2.5767,-5.1394
976.5625,-2.1146,-6.5272,-4.9232,-3.7858,-3.2951,0.3182,-5.5825,-3.6558,-3.8120,-2.3478,-2.5392,-2.4728,-6.2684,-6.2027,-3.0754,3.7327,-5.4669,-1.6936,-2.5979
980.4688,-0.9251,-5.5567,-3.7548,-1.3116,-0.8112,2.1338,-7.0161,-1.6484,-4.1298,-2.6394,-3.7653,-2.6269,-3.8661,-4.2520,-2.2071,4.2530,-3.6511,-1.7380,-0.7569
984.3750,-1.2028,-5.8500,-3.5038,-0.4791,-0.1441,1.2886,-9.6006,-1.3223,-4.5511,-3.6908,-5.2637,-3.2493,-2.5065,-3.3389,-2.3698,1.8011,-2.3488,-2.7956,-0.5181
988.2812,-2.6655,-7.0547,-4.1033,-1.4657,-1.3497,-1.8131,-12.4659,-2.8036,-4.7125,-4.9811,-6.4295,-4.1181,-2.6445,-3.7618,-3.6217,-2.5343,-2.2008,-4.3668,-1.8394
992.1875,-4.3812,-8.1245,-4.9210,-3.3696,-3.3866,-5.6545,-14.6495,-5.1481,-4.1931,-5.6958,-6.5965,-4.7470,-3.6774,-4.8415,-5.1573,-6.7134,-2.9808,-5.5801,-3.7923
996.0938,-5.2880,-8.0727,-5.1263,-4.7529,-4.7588,-8.5188,-15.4480,-6.8570,-2.7669,-5.1816,-5.3821,-4.6131,-4.3727,-5.3612,-5.8264,-8.8101,-3.7257,-5.6076,-5.1142
1000.0000,-4.7742,-6.6001,-4.1650,-4.4945,-4.4392,-9.3610,-14.6682,-6.7284,-0.5829,-3.2964,-2.9285,-3.4089,-3.6851,-4.3718,-4.9000,-7.9385,-3.3585,-4.0688,-4.9219
1003.9062,-2.9659,-4.2010,-2.0685,-2.4362,-2.4970,-8.1553,-12.6861,-4.5547,1.8603,-0.4792,0.1218,-1.2002,-1.4424,-1.8522,-2.5611,-4.5756,-1.4215,-1.2193,-3.1744
1007.8125,-0.5791,-1.7573,0.5638,0.5541,-0.0351,-5.6472,-10.2802,-1.2663,3.9478,2.4655,2.9184,1.5684,1.5298,1.2069,0.1911,-0.1980,1.5597,2.1577,-0.6370
1011.7188,1.5179,0.0153,2.8729,3.1061,1.5153,-2.8230,-8.2998,1.5563,5.2389,4.7179,4.7940,4.2076,3.9032,3.3657,2.1316,3.4816,4.3281,5.0833,1.5924
1015.6250,2.7240,0.8744,4.1450,4.1132,1.2805,-0.4906,-7.3236,2.5192,5.6244,5.7380,5.5133,5.9980,4.6320,3.5940,2.4865,5.2500,5.6143,6.7600,2.6888
1019.5312,2.8657,0.9692,4.0965,3.2821,-0.5532,0.8437,-7.4746,1.1373,5.2554,5.3864,5.2359,6.4096,3.5253,1.8831,1.2763,4.7761,4.8666,6.8267,2.4775
1023.4375,2.0872,0.5468,2.9190,1.1794,-2.9213,0.9109,-8.4723,-1.9397,4.3235,3.8694,4.2494,5.2642,1.2734,-0.7708,-0.8357,2.5610,2.5372,5.4125,1.3952
1027.3438,0.6414,-0.2612,1.1110,-1.1850,-4.5947,-0.3540,-9.8569,-5.2901,2.8831,1.5914,2.6893,2.7930,-1.0443,-2.9870,-3.0171,-0.4235,-0.2367,3.0151,0.1143
1031.2500,-1.2264,-1.4200,-0.7809,-2.9451,-4.9399,-2.7219,-11.2254,-7.4504,0.8632,-0.9953,0.4665,-0.4361,-2.6201,-3.8186,-4.7276,-3.1934,-2.3307,0.2894,-0.9040
1035.1562,-3.2548,-2.8352,-2.3820,-3.7895,-4.2374,-5.5790,-12.3485,-7.6208,-1.7416,-3.4929,-2.5412,-3.7091,-3.3298,-3.2544,-5.9026,-5.1196,-3.2558,-2.1663,-1.6470
1039.0625,-5.1115,-4.2754,-3.5931,-4.0055,-3.3898,-8.0369,-13.1492,-5.9979,-4.6669,-5.6080,-6.1819,-6.4073,-3.6717,-2.1194,-6.8151,-6.0865,-3.3351,-3.9702,-2.4677
1042.9688,-6.4387,-5.4923,-4.5606,-4.1970,-3.2597,-9.2944,-13.6299,-3.6016,-7.3453,-7.1603,-9.8567,-8.1931,-4.3306,-1.4836,-7.7745,-6.4113,-3.3705,-5.0301,-3.7724
1046.8750,-7.0150,-6.4309,-5.5394,-4.8760,-4.0990,-9.0567,-13.8358,-1.7199,-9.1045,-8.0560,-12.6481,-9.0444,-5.6770,-1.9880,-8.8687,-6.5795,-4.0605,-5.5058,-5.6942
1050.7812,-6.8959,-7.2994,-6.6963,-6.1494,-5.4298,-7.7011,-13.8591,-1.2627,-9.4735,-8.2364,-13.6999,-9.1196,-7.5112,-3.5046,-9.8814,-6.9246,-5.5518,-5.6639,-7.9412
1054.6875,-6.3801,-8.3640,-7.9288,-7.6367,-6.4106,-6.0282,-13.8150,-2.3376,-8.3928,-7.6322,-12.6241,-8.5448,-9.1708,-5.2966,-10.3867,-7.4179,-7.3766,-5.6724,-9.8807
1058.5938,-5.7785,-9.5826,-8.7944,-8.6248,-6.3951,-4.7442,-13.7394,-4.2313,-6.1944,-6.1693,-9.6797,-7.2738,-9.8882,-6.5062,-9.9444,-7.6841,-8.7573,-5.4374,-10.7852
1062.5000,-5.1519,-10.3836,-8.6269,-8.3808,-5.2999,-4.0443,-13.4671,-5.7817,-3.3875,-3.8514,-5.6231,-5.1347,-9.1667,-6.6260,-8.3048,-7.2334,-9.0436,-4.5994,-10.1112
1066.4062,-4.2468,-9.8449,-6.8442,-6.4938,-3.5688,-3.6018,-12.6312,-5.9509,-0.4233,-0.8820,-1.3424,-2.0490,-6.9817,-5.6741,-5.5559,-5.7652,-8.0138,-2.7358,-7.7063
1070.3125,-2.7262,-7.2448,-3.3265,-3.1149,-1.8163,-2.9553,-10.8738,-4.3232,2.4003,2.2682,2.4891,1.7289,-3.7535,-4.0343,-2.1626,-3.3560,-5.9095,0.3083,-3.8973
1074.2188,-0.5485,-2.6550,1.3399,1.0127,-0.4380,-1.9691,-8.1833,-1.3007,4.8649,4.9414,5.5479,5.5380,-0.1620,-2.1428,1.1315,-0.4240,-3.2577,4.1561,0.5508
1078.1250,1.8047,2.8459,5.9404,4.7761,0.5456,-0.9846,-5.1191,2.0857,6.7078,6.5294,7.7603,8.4997,3.0772,-0.2630,3.5339,2.4722,-0.6352,7.8959,4.6067
1082.0312,3.4788,7.5491,9.0697,7.1106,1.3498,-0.5326,-2.6965,4.6476,7.6087,6.7573,9.1081,9.8919,5.3988,1.5326,4.4968,4.8398,1.4977,10.4083,7.2671
1085.9375,3.7293,9.9126,9.7555,7.4474,2.1456,-0.8464,-1.9209,5.5630,7.3388,5.8373,9.5182,9.4968,6.5065,3.2264,3.9435,6.3284,2.8600,10.8873,7.9132
1089.8438,2.4326,9.3277,7.9566,5.9811,2.8782,-1.5911,-3.2241,4.7104,5.9793,4.3764,8.9218,7.7177,6.4282,4.7253,2.3086,6.6860,3.3586,9.2802,6.5976
1093.7500,0.2568,6.4088,4.6427,3.5958,3.3048,-2.0629,-6.1752,2.6650,4.0179,3.0659,7.4116,5.3879,5.4918,5.8443,0.3442,5.7207,3.0806,6.3758,4.0925
1097.6562,-1.6607,2.6465,1.3722,1.4560,3.1913,-1.7255,-9.6749,0.3809,2.2066,2.3322,5.3427,3.3825,4.2056,6.3979,-1.2221,3.3907,2.2680,3.4600,1.6042
1101.5625,-2.3498,-0.3614,-0.4472,0.4436,2.4835,-0.6566,-12.5287,-1.2759,1.2215,2.1621,3.2618,2.2454,3.0531,6.2975,-2.0078,-0.0057,1.2441,1.7005,0.2256
1105.4688,-1.5611,-1.6662,-0.2436,0.7257,1.3123,0.4768,-14.0363,-1.9173,1.3122,2.2021,1.6786,2.0182,2.2780,5.5688,-2.1104,-3.7178,0.2888,1.5805,0.3817
1109.3750,0.1091,-1.3254,1.4495,1.6860,-0.1521,0.9312,-14.2406,-1.7691,2.1563,2.0499,0.8202,2.3231,1.7748,4.2957,-1.9937,-6.6890,-0.4732,2.6843,1.5815
1113.2812,1.5867,-0.2222,3.2870,2.2699,-1.8437,0.5049,-13.7300,-1.4994,3.0135,1.5308,0.5319,2.6180,1.1753,2.5733,-2.1942,-7.9743,-1.0871,3.9453,2.6634
1117.1875,1.9337,0.4919,3.8256,1.5698,-3.7872,-0.2402,-13.1815,-1.8292,3.1022,0.7775,0.3959,2.4711,0.1131,0.5412,-3.0068,-7.2054,-1.6533,4.2149,2.4472
1121.0938,0.8331,0.0135,2.2899,-0.6497,-5.9113,-0.3709,-12.9626,-3.1101,1.9973,0.0829,-0.0003,1.7340,-1.4743,-1.5260,-4.3061,-4.7987,-2.1585,2.8546,0.4465
1125.0000,-1.3138,-1.7422,-1.0021,-3.7673,-7.8442,0.6610,-12.9996,-5.0743,-0.1558,-0.3403,-0.8119,0.5613,-3.2049,-3.1843,-5.5926,-1.7411,-2.3944,0.0503,-2.7776
1128.9062,-3.6746,-4.1618,-4.7753,-6.5639,-8.9039,2.4629,-12.8985,-6.8937,-2.7084,-0.5057,-1.8576,-0.6974,-4.3970,-3.9412,-6.2439,0.9195,-2.0630,-3.2919,-5.8597
1132.8125,-5.4401,-6.2956,-7.4274,-7.8018,-8.3768,3.7993,-12.1688,-7.5459,-4.8115,-0.6042,-2.7583,-1.6779,-4.4563,-3.5184,-5.8571,2.5485,-1.0253,-5.9959,-7.3635
1136.7188,-6.1789,-7.3589,-7.8303,-6.8364,-5.9649,3.3446,-10.4217,-6.3376,-5.8031,-0.8160,-3.1994,-2.1754,-3.2865,-2.0951,-4.5160,3.0716,0.4865,-7.1738,-6.5967
1140.6250,-5.9408,-7.1194,-5.8940,-3.9508,-2.1136,0.6106,-7.5293,-3.3310,-5.4969,-1.1388,-3.1451,-2.2385,-1.4528,-0.3329,-2.8273,2.7636,1.8887,-6.6179,-4.0263
1144.5312,-5.1257,-5.9756,-2.6019,-0.2414,2.0376,-3.5862,-3.7755,0.5685,-4.2418,-1.3671,-2.8615,-2.1265,0.0524,0.9061,-1.6581,1.9126,2.5477,-4.8461,-1.0368
1148.4375,-4.2387,-4.6872,0.4984,2.8957,5.1242,-7.4618,0.0492,3.9560,-2.7288,-1.2320,-2.7279,-2.1328,0.3496,1.0247,-1.6669,0.6494,2.1938,-2.7972,0.8437
1152.3438,-3.6654,-3.9075,2.0795,4.4191,6.2109,-9.2250,2.7552,5.5721,-1.6386,-0.5969,-2.9597,-2.3606,-0.7865,0.0630,-2.8686,-0.9592,1.1509,-1.3436,0.8015
1156.2500,-3.5433,-3.7923,1.6743,4.1022,5.2529,-8.0710,3.1747,4.9280,-1.3101,0.4275,-3.4332,-2.6025,-2.7348,-1.2846,-4.5245,-2.7213,0.1699,-0.8798,-0.8245
1160.1562,-3.7567,-3.9387,-0.1678,2.5599,3.0758,-4.6101,0.7852,2.5599,-1.6071,1.5141,-3.7508,-2.4407,-4.3469,-2.0579,-5.5035,-4.2902,-0.0795,-1.1981,-2.7821
1164.0625,-4.0378,-3.7083,-2.2803,0.8345,0.8749,-0.5033,-3.8213,-0.2576,-2.0616,2.2605,-3.5268,-1.5503,-4.6268,-1.6153,-4.9768,-5.3831,0.4645,-1.7084,-3.6792
1167.9688,-4.1292,-2.7402,-3.5883,-0.2223,-0.4715,2.4391,-9.0141,-2.2084,-2.2068,2.3530,-2.7099,-0.0221,-3.3689,-0.0572,-3.0344,-6.0487,1.1036,-1.8592,-2.8276
1171.8750,-3.9312,-1.2996,-3.7057,-0.4146,-0.8622,3.1479,-12.8471,-2.6558,-1.8915,1.6789,-1.7068,1.5472,-1.3391,1.7877,-0.7758,-6.6689,0.7753,-1.5011,-0.6538
1175.7812,-3.5463,-0.1921,-3.0730,-0.2437,-0.9351,1.7026,-14.0758,-1.9652,-1.3597,0.3690,-1.1748,2.3309,0.1539,2.8204,0.2949,-7.5732,-1.2063,-0.9580,1.5648
1179.6875,-3.1790,-0.2553,-2.5710,-0.5092,-1.5728,-0.8857,-12.8377,-1.2293,-1.0356,-1.2227,-1.5763,1.7985,0.0669,2.3073,-0.7333,-8.5208,-4.5438,-0.7586,2.4749
1183.5938,-2.9440,-1.7485,-2.8730,-1.7243,-3.2732,-3.2933,-10.5229,-1.5567,-1.1556,-2.5956,-2.7777,0.1542,-1.6849,0.3107,-3.4326,-8.5389,-7.9298,-1.2025,1.4662
1187.5000,-2.7197,-4.0664,-3.9564,-3.7181,-5.7823,-4.5184,-8.8831,-3.3551,-1.5208,-3.2448,-3.9932,-1.6527,-4.1013,-2.3376,-6.1142,-6.4281,-9.6831,-2.0605,-0.9503
1191.4062,-2.1814,-6.0095,-5.0840,-5.6822,-8.2069,-4.2240,-8.9589,-6.0468,-1.5705,-2.8467,-4.1767,-2.4293,-5.6457,-4.4946,-6.7971,-1.7354,-8.6896,-2.6355,-3.4206
1195.3125,-1.0288,-6.4652,-5.2616,-6.6365,-9.5267,-2.7053,-10.5337,-8.3854,-0.7555,-1.4180,-2.6624,-1.4814,-5.1500,-5.3167,-4.4980,4.4815,-5.0624,-2.1775,-4.5047
1199.2188,0.7374,-5.0617,-3.8685,-6.0151,-9.1801,-0.6017,-12.4421,-9.1708,1.0434,0.6599,0.3484,0.8930,-2.5208,-4.6733,0.0334,9.7957,-0.1025,-0.3970,-3.4612
1203.1250,2.7055,-2.3634,-1.0625,-4.0059,-7.3784,1.4458,-13.4482,-7.9237,3.3586,2.7994,3.7959,3.5185,1.1851,-3.1533,4.7033,11.5975,4.3950,2.2655,-0.6177
1207.0312,4.2323,0.5098,2.2834,-1.4362,-4.9850,3.0313,-13.0250,-5.1258,5.3748,4.4843,6.3043,5.0362,4.3505,-1.7063,7.3980,8.6930,7.0277,4.8136,2.8525
1210.9375,4.8249,2.5565,5.0475,0.7007,-3.0617,4.0498,-11.5024,-1.9153,6.4107,5.4950,6.9382,4.7382,5.6711,-1.1496,7.3556,2.2492,7.3076,6.2234,5.5686
1214.8438,4.4632,3.3924,6.4206,1.7669,-2.3588,4.6126,-9.5774,0.5366,6.3045,5.9273,5.6892,2.9835,4.7799,-1.8111,5.5917,-4.6711,5.5685,6.0026,6.6046
1218.7500,3.6125,3.2586,6.2316,1.7308,-3.0166,4.8802,-7.6713,1.5876,5.4348,5.9874,3.3842,0.9106,2.2869,-3.4528,4.0169,-8.8365,2.4703,4.4312,5.8224
1222.6562,2.8937,2.6077,4.8943,1.0381,-4.5841,4.9045,-5.6863,1.3263,4.3769,5.7252,1.0935,-0.3540,-0.7005,-5.4486,3.8457,-8.7894,-1.4222,2.3452,3.7640
1226.5625,2.6348,1.6461,3.0869,0.2494,-6.2794,4.5640,-3.3210,0.3734,3.4704,4.9341,-0.5377,-0.4380,-3.2003,-7.0757,4.4843,-5.7130,-5.6509,0.6237,1.2632
1230.4688,2.6409,0.2168,1.4067,-0.2814,-7.3183,3.6400,-0.6046,-0.5235,2.6299,3.3237,-1.5711,0.0981,-4.7242,-7.7738,3.8191,-2.5915,-9.5518,-0.2858,-0.9449
1234.3750,2.3669,-1.8973,0.1950,-0.4933,-7.1696,2.0068,1.8754,-0.8394,1.5285,0.8500,-2.5069,0.2527,-5.2483,-7.2977,-0.1678,-2.1649,-12.0545,-0.5210,-2.4179
1238.2812,1.3753,-4.5268,-0.4461,-0.4797,-5.6836,-0.1706,3.2945,-0.4062,-0.0202,-2.0684,-3.7128,-0.6326,-4.9532,-5.7626,-7.5648,-5.0304,-11.9899,-0.5885,-2.9938
1242.1875,-0.2676,-6.9427,-0.5596,-0.2987,-3.1151,-2.3724,3.2041,0.6534,-1.8166,-4.6655,-5.0253,-2.3751,-4.0278,-3.6030,-15.8753,-9.1894,-8.8610,-0.9734,-2.7054
1246.0938,-1.9784,-8.1675,-0.2834,0.0883,-0.0637,-3.8762,1.8941,2.0642,-3.3817,-6.2403,-5.8510,-4.0968,-2.6939,-1.4559,-21.2020,-11.3868,-3.5408,-1.8478,-1.7473
1250.0000,-3.0566,-7.5883,0.1414,0.7160,2.6746,-4.0854,0.1621,3.5024,-4.3299,-6.5817,-5.6869,-4.8847,-1.3461,0.0358,-20.6307,-9.3746,1.7688,-3.0360,-0.4961
1253.9062,-3.2079,-5.4275,0.3904,1.4775,4.3582,-2.8617,-1.3436,4.6443,-4.6858,-6.0721,-4.6275,-4.4530,-0.5575,0.4715,-14.2391,-3.5740,4.5517,-4.1868,0.5249
1257.8125,-2.7871,-2.6968,0.1806,2.1113,4.6011,-0.6676,-2.6483,5.2120,-4.8533,-5.3615,-3.4150,-3.3073,-0.8117,-0.0978,-5.3015,3.0109,3.4747,-4.9799,0.8330
1261.7188,-2.5513,-0.6234,-0.5292,2.3635,3.5979,1.5910,-4.3575,5.0597,-5.2319,-4.8418,-2.9349,-2.2934,-2.0921,-1.1155,1.5630,6.6281,-0.6063,-5.2182,0.2783
1265.6250,-3.0817,0.0716,-1.4131,2.2116,2.1195,2.9577,-6.9718,4.2732,-5.7838,-4.3313,-3.5147,-1.8898,-3.6671,-1.6963,3.1366,5.1898,-4.9262,-4.7963,-0.7520
1269.5312,-4.2949,-0.4464,-1.8710,1.9554,1.2129,2.8549,-10.1643,3.1949,-5.9359,-3.2478,-4.5780,-1.8036,-4.3414,-0.9999,-0.5557,-0.3120,-6.3724,-3.6529,-1.4236
1273.4375,-5.4150,-1.3380,-1.3480,2.0669,1.7062,1.3304,-12.6764,2.3121,-4.9520,-1.1695,-4.9740,-1.2037,-3.1236,1.3559,-6.4938,-6.3223,-3.4239,-1.8085,-0.8789
1277.3438,-5.4508,-1.7195,0.2991,2.8722,3.7621,-0.9900,-13.0354,2.0321,-2.5352,1.6496,-3.7931,0.5651,0.0864,5.0470,-10.7454,-8.8672,2.7885,0.5262,1.2165
1281.2500,-3.8569,-1.2524,2.6368,4.2830,6.7346,-3.1942,-10.6386,2.4601,0.8013,4.2517,-1.0901,3.3238,4.2745,9.1005,-10.8960,-5.9806,9.0520,2.8908,4.3523
1285.1562,-0.9237,-0.2884,4.8359,5.7785,9.4335,-4.4606,-6.3971,3.3186,3.9182,5.5308,2.0446,5.9855,7.7746,12.2544,-7.1882,1.1009,11.9756,4.6821,7.3334
1289.0625,2.3658,0.4904,6.1112,6.6750,10.6796,-4.3496,-2.3869,4.0695,5.7114,5.0094,4.1637,7.1827,9.1803,13.4647,-1.7571,8.6897,10.0361,5.4212,8.8868
1292.9688,4.8988,0.6259,6.1492,6.5167,9.8603,-2.9204,-0.6613,4.1819,5.7990,3.2541,4.4356,6.2014,8.1454,12.3331,3.2399,12.8406,4.4663,5.0255,8.3761
1296.8750,6.0235,0.2040,5.2483,5.3393,7.1994,-0.6738,-1.9942,3.4010,4.7418,1.5725,3.2171,3.5712,5.5635,9.2685,7.0595,11.6077,-1.5542,3.8899,6.1868
1300.7812,5.7887,-0.2857,4.0862,3.6384,3.6144,1.6222,-5.4096,1.8713,3.6263,1.1477,1.7975,0.8669,3.0091,5.3163,10.3014,6.0073,-4.8430,2.6888,3.5252
1304.6875,4.7274,-0.4100,3.2784,2.0702,0.2600,3.1693,-8.8186,0.0528,3.3018,2.2062,1.4787,-0.2090,1.7984,1.7337,13.5500,-0.8127,-4.0339,2.0033,1.7351
1308.5938,3.4061,-0.1896,3.0286,1.0835,-1.9885,3.3939,-10.3347,-1.5179,3.8157,3.8312,2.6407,1.1022,2.2562,-0.5097,16.0303,-5.5745,-0.1762,2.0040,1.5379
1312.5000,2.0910,-0.1027,3.0929,0.7098,-2.8551,2.1662,-9.3960,-2.4853,4.4466,4.5920,4.4597,4.0771,3.6156,-1.1010,15.6002,-6.7433,4.1211,2.3929,2.6519
1316.4062,0.7511,-0.6782,3.0572,0.6270,-2.6616,-0.0928,-6.9905,-2.8139,4.2976,3.5733,5.4846,6.8718,4.5587,-0.4719,10.3074,-5.1459,6.3097,2.6380,4.0127
1320.3125,-0.6684,-1.9800,2.7108,0.4353,-2.0518,-2.4994,-4.8987,-2.7361,3.0092,1.0808,4.6645,7.5893,4.0248,0.4372,0.3847,-3.0728,5.2298,2.3426,4.4497
1324.2188,-1.9758,-3.3926,2.2397,-0.0444,-1.6166,-4.0142,-4.5073,-2.5473,1.0721,-1.4905,2.1029,5.4190,1.7972,0.6450,-10.9871,-2.5738,1.4503,1.5130,3.4030
1328.1250,-2.7179,-3.9115,2.1046,-0.6340,-1.6093,-3.8768,-5.9600,-2.3715,-0.4815,-2.5530,-0.9841,1.1645,-1.4179,-0.3721,-19.0393,-4.1117,-3.3348,0.5644,1.2611
1332.0312,-2.4599,-2.7871,2.6860,-0.9066,-1.8752,-1.9815,-8.1351,-2.0536,-0.7846,-1.3801,-3.0665,-3.1547,-4.3851,-2.3881,-20.2298,-6.4154,-7.2629,0.0725,-0.8707
1335.9375,-1.1560,-0.1018,3.9417,-0.4719,-2.0055,1.0103,-9.3850,-1.2658,0.2597,1.4025,-3.2923,-5.4007,-5.9319,-4.5060,-14.6369,-7.5237,-9.0079,0.4300,-1.8186
1339.8438,0.6789,3.1219,5.3142,0.7267,-1.6235,3.9145,-8.5411,0.2078,1.8889,4.2121,-1.9987,-4.4839,-5.4354,-5.5996,-6.1655,-6.2266,-8.0219,1.6043,-1.0295
1343.7500,2.1574,5.3980,5.9663,2.2821,-0.6530,5.5404,-5.5989,2.1789,2.9601,5.5083,-0.4224,-0.9427,-3.0334,-4.9161,-0.2288,-2.8975,-4.5038,3.1206,1.0893
1347.6562,2.4840,5.5764,5.2210,3.4535,0.5728,5.2353,-1.7471,3.9669,2.6688,4.7205,0.1560,3.3728,0.4556,-2.5266,-0.3334,0.8030,0.6546,4.2690,3.3600
1351.5625,1.4143,3.4909,2.9597,3.5132,1.4322,3.1845,1.2181,4.6353,1.0414,2.5125,-0.7652,6.3122,3.8279,0.6365,-5.8384,3.0672,5.9321,4.4303,4.4477
1355.4688,-0.5751,0.0629,-0.2443,2.1434,1.3224,0.3113,1.7676,3.4805,-1.0944,0.2663,-2.6494,6.5561,5.9074,3.2042,-12.4298,3.0777,9.4736,3.3722,3.5687
1359.3750,-2.5246,-3.2051,-3.3376,-0.3338,-0.0032,-2.1720,-0.6207,0.5054,-2.6141,-0.8186,-4.3508,4.2429,5.9657,4.0475,-15.0344,1.3577,9.7612,1.3826,0.9159
1363.2812,-3.5066,-5.0463,-5.2473,-3.0473,-2.2571,-3.3333,-5.1828,-3.4302,-2.7520,-0.4115,-4.8950,0.7720,4.0085,2.8386,-11.2375,-0.8310,6.4363,-0.8284,-2.4234
1367.1875,-3.1246,-5.0747,-5.3646,-4.9754,-4.7216,-2.9216,-10.1735,-6.9331,-1.5220,0.8707,-4.0844,-2.0629,0.7849,0.1866,-2.9248,-2.5041,0.7222,-2.4366,-5.0204
1371.0938,-1.7136,-3.8883,-3.8201,-5.4602,-6.5952,-1.4105,-13.6299,-8.7416,0.3125,1.9544,-2.5644,-3.0919,-2.5352,-2.7224,4.9316,-3.5765,-5.0093,-2.8994,-5.8427
1375.0000,-0.1285,-2.5975,-1.4136,-4.5514,-7.3924,0.3141,-14.2554,-8.3589,1.6758,1.9914,-1.3645,-2.3530,-4.8991,-4.7608,7.5071,-4.6333,-8.4548,-2.2488,-4.7829
1378.9062,0.7564,-2.0891,0.7707,-2.9662,-7.1574,1.4402,-12.0043,-6.2726,1.7679,0.8085,-1.2448,-0.9299,-5.8473,-5.4005,3.2326,-6.0849,-8.6813,-1.1044,-2.6887
1382.8125,0.5464,-2.4908,1.8760,-1.6709,-6.3655,1.6247,-8.0617,-3.6210,0.4944,-1.0794,-2.2590,-0.1813,-5.6480,-4.8631,-5.2358,-7.4517,-6.6371,-0.3573,-0.8708
1386.7188,-0.4646,-3.1597,1.6583,-1.3216,-5.5815,1.0981,-4.2126,-1.5138,-1.4795,-2.8056,-3.7596,-0.8463,-4.9995,-3.8340,-12.7386,-7.4360,-4.4515,-0.6591,-0.3572
1390.6250,-1.5004,-3.1805,0.5529,-1.9023,-5.1064,0.4477,-1.9346,-0.4413,-3.0735,-3.5940,-4.7948,-2.5717,-4.4929,-2.9661,-14.8387,-4.8280,-3.9448,-1.9981,-1.3165
1394.5312,-1.7982,-2.0345,-0.6065,-2.7839,-4.8452,0.2234,-1.7210,-0.1399,-3.3652,-3.0861,-4.6378,-4.1317,-4.2046,-2.4996,-10.4719,0.3950,-5.3631,-3.6323,-2.9827
1398.4375,-1.0942,0.0018,-1.0565,-3.1587,-4.4724,0.6038,-3.0080,0.0347,-2.0989,-1.4602,-3.1615,-4.1882,-3.7071,-2.2219,-2.4299,6.6379,-7.2406,-4.4619,-4.1279
1402.3438,0.2092,1.9904,-0.4991,-2.5619,-3.7507,1.3180,-4.6986,0.5291,0.1467,0.6503,-0.8873,-2.1204,-2.4940,-1.7457,4.4809,11.3529,-7.5031,-3.6571,-3.8016
1406.2500,1.3011,2.9052,0.7859,-1.1430,-2.7589,1.8532,-5.9023,1.2366,2.2410,2.3926,1.2792,1.5641,-0.5078,-0.8812,6.3395,12.4395,-5.0366,-1.1793,-1.8985
1410.1562,1.4832,2.2684,2.1498,0.4730,-1.8536,1.8061,-6.3915,1.6159,3.1038,3.0281,2.4762,5.4526,1.6315,0.1652,2.2902,9.4598,-0.5980,2.1217,0.7759
1414.0625,0.6129,0.4359,2.9531,1.6068,-1.4032,1.1441,-6.5148,1.1721,2.2974,2.2684,2.2715,7.9206,2.8966,0.8902,-5.1819,3.8441,3.5880,4.9057,2.9651
1417.9688,-0.8295,-1.6452,2.8746,1.9222,-1.5067,0.2020,-6.7174,-0.0880,0.2605,0.4566,0.8339,7.8831,2.4648,0.8075,-11.8496,-2.0442,5.2573,6.0065,3.6544
1421.8750,-2.0909,-3.0324,1.9868,1.5335,-1.9225,-0.5768,-7.0959,-1.5873,-1.9665,-1.5486,-1.1785,5.2177,0.2656,-0.2433,-14.1427,-6.3210,3.5579,4.9811,2.5844
1425.7812,-2.6680,-3.3402,0.6019,0.7938,-2.2653,-0.9691,-7.3538,-2.5627,-3.3664,-2.8019,-2.9556,0.7102,-2.9107,-1.9889,-10.9718,-8.5022,-0.4663,2.2504,0.3087
1429.6875,-2.6305,-2.9023,-0.9605,-0.0311,-2.3162,-1.1270,-7.1689,-2.6170,-3.5372,-2.8156,-3.9329,-4.3495,-5.8226,-3.8686,-4.0901,-9.3550,-4.6344,-1.2018,-2.1875
1433.5938,-2.5157,-2.4713,-2.5115,-0.9334,-2.1954,-1.4314,-6.6323,-2.0153,-2.8816,-1.8868,-4.0506,-8.6602,-7.4401,-5.3229,3.0188,-9.9016,-7.0337,-4.3460,-4.0394
1437.5000,-2.8808,-2.6960,-3.9727,-2.0646,-2.2606,-2.1421,-6.3498,-1.4969,-2.2866,-0.9548,-3.7438,-11.2840,-7.4519,-6.0476,6.9977,-10.4031,-7.0897,-6.5369,-4.9015
1441.4062,-3.8566,-3.7367,-5.2723,-3.4890,-2.8112,-3.1094,-7.0666,-1.7384,-2.5233,-1.0201,-3.6726,-11.8357,-6.3324,-6.0823,6.2267,-10.1188,-5.6486,-7.6564,-5.0079
1445.3125,-5.0457,-5.2452,-6.2905,-5.0321,-3.8422,-3.7955,-9.0819,-2.8757,-3.7711,-2.4733,-4.3414,-10.5275,-4.9871,-5.7269,1.4418,-8.0060,-4.1665,-7.9837,-4.9314
1449.2188,-5.8502,-6.6638,-6.9190,-6.3785,-5.0533,-3.6404,-11.9136,-4.4445,-5.5686,-4.7894,-5.8163,-8.0955,-4.2356,-5.3665,-4.8295,-3.7869,-3.6873,-7.9441,-5.2290
1453.1250,-5.9715,-7.5862,-7.1770,-7.3410,-6.1105,-2.5378,-14.5109,-5.7809,-7.1817,-6.8286,-7.6877,-5.5886,-4.4392,-5.3083,-9.6429,1.4810,-4.3139,-7.8983,-6.1633
1457.0312,-5.6799,-7.9264,-7.2486,-8.0513,-6.9379,-1.0603,-15.8927,-6.5580,-8.0951,-7.5746,-9.2798,-3.9981,-5.4274,-5.6861,-11.0953,5.8218,-5.3995,-8.0350,-7.5957
1460.9375,-5.6189,-7.8279,-7.3675,-8.8625,-7.7715,-0.2107,-15.7521,-7.0225,-8.2752,-6.8180,-9.9778,-3.8172,-6.6739,-6.4275,-9.1414,7.4901,-6.1391,-8.3392,-9.0455
1464.8438,-6.2695,-7.4567,-7.6090,-9.9897,-8.8912,-0.8001,-14.5810,-7.7206,-8.0544,-5.3046,-9.4974,-4.7503,-7.5669,-7.2663,-5.3912,6.0418,-6.0464,-8.6004,-9.8656
1468.7500,-7.4879,-6.8821,-7.7578,-11.1584,-10.2187,-2.8514,-13.2225,-8.9084,-7.7813,-4.2259,-7.9783,-5.8051,-7.6435,-7.7973,-2.0422,2.5702,-5.0425,-8.4689,-9.4892
1472.6562,-8.5023,-6.1366,-7.3923,-11.5871,-11.1235,-5.4623,-12.2012,-10.1196,-7.5401,-4.3917,-5.8952,-5.8224,-6.7434,-7.5934,-0.5715,-1.0454,-3.2880,-7.5964,-7.6953
1476.5625,-8.4180,-5.3557,-6.1714,-10.4071,-10.6683,-7.2818,-11.3475,-10.2856,-7.1501,-5.6576,-3.8590,-4.2010,-5.0844,-6.3846,-0.9419,-3.3244,-1.0668,-5.8501,-4.8008
1480.4688,-6.8840,-4.8134,-4.1382,-7.2985,-8.2085,-7.3339,-10.0120,-8.4148,-6.4102,-7.0091,-2.4030,-1.3756,-3.2386,-4.2379,-1.7789,-3.9653,1.1387,-3.4906,-1.6535
1484.3750,-4.4251,-4.7657,-1.8140,-2.9067,-3.9675,-5.6465,-7.7113,-4.4030,-5.3486,-7.2488,-1.8187,1.3153,-1.9600,-1.6329,-1.3846,-3.7219,2.5598,-1.1661,0.6487
1488.2812,-2.1625,-5.2033,0.0195,1.2951,0.8412,-3.2437,-4.7048,0.6050,-4.2539,-5.8167,-2.0722,2.3787,-1.8592,0.6597,1.0671,-3.5555,2.3399,0.3450,1.2486
1492.1875,-1.0960,-5.7388,0.7315,3.6912,4.5103,-1.4727,-2.0348,4.6325,-3.4612,-3.1852,-2.8223,1.1181,-3.0393,1.8890,4.9196,-3.7626,0.0854,0.5373,-0.0052
1496.0938,-1.4507,-5.7832,0.1858,3.3718,5.7136,-1.1064,-0.9518,5.8878,-3.0885,-0.5780,-3.5523,-1.8261,-4.9146,1.6907,8.3913,-3.7566,-3.5762,-0.5163,-2.4034
1500.0000,-2.5623,-4.9415,-1.2055,0.6371,4.2405,-1.8356,-2.0963,3.7898,-2.9584,0.7800,-3.7954,-4.7445,-6.3936,0.3098,9.6502,-2.6468,-6.9572,-2.1791,-4.6831
1503.9062,-3.3856,-3.3572,-2.7483,-3.1555,1.1277,-2.5161,-5.0047,-0.6380,-2.7835,0.3725,-3.3709,-5.8341,-6.4180,-1.4763,7.8921,-0.1412,-8.0551,-3.6124,-5.6776
1507.8125,-3.2595,-1.7231,-3.8632,-6.3089,-1.9134,-2.0135,-8.2979,-5.2678,-2.4545,-1.3784,-2.5030,-4.3011,-4.5901,-2.7283,3.7421,2.9663,-5.7576,-4.2698,-4.9511
1511.7188,-2.3707,-0.8906,-4.3483,-7.6377,-3.4370,-0.0634,-10.4478,-7.9834,-2.1724,-3.4514,-1.7200,-0.8887,-1.5042,-2.8226,-1.2126,5.1534,-0.7264,-4.1982,-3.0343
1515.6250,-1.5845,-1.3064,-4.3581,-6.9741,-3.0118,2.4591,-10.6400,-7.7636,-2.2887,-4.8520,-1.5532,2.5288,1.4764,-1.7734,-5.3720,5.1701,4.7422,-3.9367,-1.1028
1519.5312,-1.7750,-2.6642,-4.1627,-5.0897,-1.3514,4.0603,-9.1932,-5.1218,-2.9674,-5.1099,-2.1945,4.0556,2.9263,-0.2071,-7.8948,2.9772,7.9498,-4.0813,-0.2837
1523.4375,-3.1532,-4.0401,-3.8998,-3.1567,0.2104,3.5890,-7.2972,-1.6951,-3.9518,-4.3904,-3.3344,2.8977,2.1572,1.0007,-8.8483,-0.0821,7.4144,-4.8225,-1.0126
1527.3438,-5.0873,-4.4718,-3.5192,-2.1166,0.5376,0.9801,-6.2734,0.7159,-4.6644,-3.2581,-4.3166,-0.1996,-0.3737,1.2147,-8.7933,-2.0773,3.8231,-5.7870,-2.8290
1531.2500,-6.5436,-3.6216,-2.9466,-2.3100,-0.6973,-2.7195,-6.8362,1.0701,-4.6045,-2.3304,-4.5440,-3.4626,-3.3103,0.3683,-8.2361,-1.7739,-0.3545,-6.3046,-4.7139
1535.1562,-6.8220,-2.0887,-2.3087,-3.4961,-2.9401,-6.0374,-8.7856,-0.5289,-3.7595,-2.0370,-3.8838,-5.2008,-5.1644,-1.0548,-7.3775,0.4395,-2.3949,-5.9130,-5.7312
1539.0625,-6.0504,-1.1321,-2.0043,-5.1383,-5.1852,-7.9762,-11.2530,-3.1091,-2.6972,-2.5403,-2.7900,-4.8046,-5.1424,-2.3538,-6.2409,2.6410,-1.0198,-4.7388,-5.5562
1542.9688,-5.0816,-1.9382,-2.5146,-6.7106,-6.5813,-8.5060,-13.2692,-5.4955,-2.2226,-3.7315,-2.0304,-3.0119,-3.5393,-3.0375,-4.9121,2.5015,2.8285,-3.4727,-4.5796
1546.8750,-4.8677,-4.8573,-4.0511,-7.8498,-6.8320,-8.3487,-14.2653,-6.9123,-2.8078,-5.2274,-2.1716,-1.3240,-1.4850,-3.0772,-3.5733,-1.2122,6.6186,-2.9410,-3.5692
1550.7812,-5.7603,-9.0694,-6.2847,-8.3422,-6.2029,-8.2744,-14.2236,-7.2013,-4.1963,-6.4050,-3.1626,-0.9977,-0.2340,-2.8494,-2.2841,-7.6915,7.8226,-3.5602,-3.1554
1554.6875,-7.2263,-12.8962,-8.3740,-8.0644,-5.2250,-8.4687,-13.4672,-6.6370,-5.4857,-6.5776,-4.3180,-2.2849,-0.4566,-2.8396,-0.7976,-14.3267,5.4197,-5.0442,-3.4867
1558.5938,-8.1769,-14.6116,-9.3329,-6.9915,-4.3529,-8.4428,-12.3126,-5.5831,-5.6738,-5.3409,-4.7484,-4.3832,-1.9522,-3.3216,1.2628,-18.0494,0.3813,-6.5645,-4.2502
1562.5000,-7.6819,-13.3155,-8.5523,-5.2814,-3.7947,-7.5227,-10.8605,-4.2729,-4.3198,-2.9222,-3.9771,-6.0606,-3.9058,-4.2146,3.8601,-17.0151,-5.0695,-7.2516,-4.9821
1566.4062,-5.5884,-9.4031,-6.1714,-3.3328,-3.5515,-5.5105,-9.0568,-2.8325,-1.8772,-0.2505,-2.3271,-6.4804,-5.4532,-5.1745,6.0647,-11.6359,-8.8257,-6.7029,-5.4073
1570.3125,-2.6376,-4.3731,-3.0591,-1.6978,-3.5364,-2.9817,-6.9327,-1.4323,0.5453,1.4322,-0.7857,-5.6565,-6.1496,-5.8078,6.1983,-4.3494,-9.9602,-5.1641,-5.5530
1574.2188,-0.0186,-0.0795,-0.3881,-0.8381,-3.6244,-0.9714,-4.8052,-0.3595,1.8583,1.2861,-0.3887,-4.2727,-6.0589,-5.8462,2.7763,1.7393,-8.8860,-3.2878,-5.5821
1578.1250,1.3413,2.1783,0.9766,-0.8486,-3.6026,-0.2729,-3.2482,0.1108,1.6774,-0.5134,-1.4950,-3.0602,-5.4785,-5.1905,-4.2351,4.5317,-6.6972,-1.6586,-5.5038
1582.0312,1.2931,2.2401,0.9280,-1.3440,-3.1324,-0.8730,-2.8219,-0.0440,0.5753,-2.7304,-3.4352,-2.2315,-4.5800,-3.8693,-12.7605,3.9339,-4.3202,-0.4279,-5.0261
1585.9375,0.4792,1.0335,0.1386,-1.6311,-1.8630,-1.9592,-3.7241,-0.4664,-0.2727,-3.7336,-4.8088,-1.3943,-3.2797,-2.0242,-19.2464,1.6142,-2.1157,0.6915,-3.7056
1589.8438,-0.1402,-0.0792,-0.3748,-1.1115,0.2946,-2.5089,-5.5986,-0.5792,0.1588,-2.5271,-4.3029,0.0026,-1.4447,0.0293,-20.4510,-0.2703,-0.1092,2.0788,-1.3307
1593.7500,0.0722,-0.1738,0.1002,0.3122,2.9058,-2.0425,-7.6476,0.0157,2.0609,0.5148,-1.5526,2.0499,0.7559,1.7432,-15.3878,-0.5311,1.5141,3.7711,1.7273
1597.6562,1.0255,0.6593,1.4947,2.0948,5.0141,-0.9920,-9.0165,1.1659,4.6040,3.7489,2.5037,4.0850,2.6873,2.4273,-6.1424,0.3537,2.2081,5.2749,4.4835
1601.5625,1.9735,1.3950,2.9552,3.2989,5.5227,-0.4086,-9.2555,2.1294,6.3816,5.2157,6.0416,4.9987,3.4862,1.5480,3.0993,0.7310,1.4109,5.7889,5.7352
1605.4688,2.0043,0.7812,3.3433,3.1255,3.8073,-1.2037,-8.6119,1.9698,6.2313,3.8758,7.3389,3.9733,2.5963,-0.8928,8.3311,-0.9045,-0.8318,4.7243,4.7086
1609.3750,0.6346,-1.7533,1.9565,1.4142,0.1854,-3.4522,-7.9840,0.1730,3.9452,0.3253,5.7663,1.1471,0.2332,-4.1765,7.9356,-4.6734,-3.5553,2.1795,1.5803
1613.2812,-1.8565,-5.5718,-0.9677,-1.2054,-4.1069,-6.2451,-8.5244,-2.9221,0.4423,-3.5053,2.1797,-2.2876,-2.5991,-7.0979,3.4398,-9.0200,-5.2772,-0.9614,-2.4787
1617.1875,-4.5541,-9.0577,-4.2957,-3.6309,-7.5012,-8.2063,-11.0448,-6.2037,-2.7113,-5.5043,-1.5415,-4.6817,-4.6303,-8.5657,-1.6311,-11.5964,-4.9533,-3.4186,-5.8258
1621.0938,-6.4093,-10.5025,-6.5900,-4.8974,-8.9322,-8.3313,-15.4773,-8.3735,-4.1563,-4.6451,-3.5500,-4.8704,-5.0781,-8.2302,-4.0082,-10.7503,-2.8115,-4.1844,-7.1777
1625.0000,-6.8038,-9.1266,-6.9117,-4.7073,-8.4073,-6.6012,-20.6555,-8.6852,-3.4673,-1.5475,-3.0506,-2.8571,-4.1238,-6.7066,-2.5546,-6.6229,-0.3669,-3.0735,-6.2730
1628.9062,-5.8396,-5.5868,-5.3427,-3.5465,-6.9287,-3.9782,-24.5866,-7.3540,-1.3288,2.0096,-0.6764,0.2124,-2.7492,-5.1830,1.4005,-1.1041,0.5468,-0.8120,-3.9633
1632.8125,-4.1946,-1.6375,-2.9071,-2.3183,-5.8021,-1.8020,-25.1982,-5.3686,0.9272,4.2654,1.9869,2.7725,-2.0185,-4.6228,5.3236,3.3436,-0.8634,1.3927,-1.6694
1636.7188,-2.6631,0.8606,-0.9453,-1.7430,-5.7797,-0.9871,-21.3090,-3.8361,2.1199,4.5392,3.4057,3.7870,-2.2950,-5.0926,7.3109,5.2178,-3.5816,2.5380,-0.5337
1640.6250,-1.6965,0.9658,-0.3396,-1.9282,-6.6102,-1.5252,-13.3943,-3.3067,1.8575,3.4824,2.9868,3.3067,-2.9673,-5.7071,7.1638,4.8356,-5.2820,2.3477,-0.7989
1644.5312,-1.2353,-0.9086,-1.0735,-2.3883,-7.2934,-2.5801,-3.6988,-3.5277,0.6432,2.4175,1.3073,2.2942,-2.9099,-5.2789,6.0391,3.9437,-3.9012,1.3240,-1.7917
1648.4375,-0.9098,-3.3799,-2.3718,-2.4760,-6.8517,-3.0784,4.5064,-3.7609,-0.5705,2.2926,-0.4069,1.8681,-1.3738,-3.2459,5.1087,4.3506,0.7343,0.3358,-2.4895
1652.3438,-0.4237,-4.9964,-3.2784,-1.8947,-5.0672,-2.4020,8.3045,-3.4016,-1.0373,3.0163,-1.1552,2.5059,1.3460,-0.2130,4.3834,6.5291,6.4176,0.0445,-2.2544
1656.2500,0.1890,-5.0452,-3.2543,-0.9073,-2.6622,-0.7522,6.5225,-2.4324,-0.6350,3.6307,-0.7780,3.7494,3.9872,2.3232,2.6715,9.1760,9.7113,0.5533,-1.2225
1660.1562,0.6287,-3.7788,-2.4047,-0.0915,-0.8012,1.0138,0.3782,-1.3943,0.2061,3.1494,0.0758,4.5913,5.1377,2.9302,-1.2793,10.0699,8.1180,1.4828,-0.0935
1664.0625,0.6543,-2.0124,-1.2379,0.1643,-0.2835,1.9452,-7.0513,-0.9264,0.9498,1.4134,0.5516,4.2472,4.2357,1.2321,-7.3670,7.6747,1.8627,2.3644,0.4886
1667.9688,0.3859,-0.4677,-0.1989,0.0241,-1.0126,1.5974,-12.3479,-1.2441,1.4027,-0.6773,0.2839,2.7601,2.0224,-1.7661,-13.6116,2.3992,-5.9733,3.0263,0.4769
1671.8750,0.3109,0.6445,0.6457,0.1240,-2.1204,0.3100,-13.4638,-1.9585,1.8178,-1.7317,-0.3302,1.0196,0.0818,-4.2853,-17.0548,-3.3916,-11.1867,3.6736,0.4615
1675.7812,0.9426,1.5605,1.5529,1.0812,-2.6394,-0.9892,-10.6661,-2.3678,2.5942,-0.8247,-0.4621,0.1879,-0.2412,-4.9200,-15.5598,-6.7045,-11.0046,4.6186,1.1699
1679.6875,2.3720,2.5682,2.7663,2.9499,-2.2138,-1.3223,-6.1723,-1.9876,3.8384,1.8384,0.4788,0.9296,1.2088,-3.5411,-9.2906,-5.7840,-5.8061,5.8908,2.8119
1683.5938,4.0692,3.6593,4.2082,5.0473,-1.3215,-0.2224,-2.7174,-0.9141,5.1611,5.0134,2.3453,2.9596,3.2697,-1.3310,-0.8258,-1.3169,1.1345,7.0589,4.7875
1687.5000,5.1365,4.5144,5.4669,6.3215,-0.8492,2.0024,-1.9471,0.2541,5.8995,7.1897,4.2919,5.1936,4.2669,0.0736,6.2178,3.8389,5.7280,7.4388,6.0175
1691.4062,4.8852,4.7957,6.0938,6.0365,-1.3520,4.4339,-3.6237,0.8664,5.6095,7.5040,5.3200,6.3906,3.1990,-0.2720,9.1743,6.2951,5.6003,6.5640,5.6890
1695.3125,3.3463,4.4650,5.9649,4.3070,-2.5596,6.0335,-6.0725,0.7022,4.4528,6.1929,4.9391,5.8764,0.4732,-1.9785,7.6788,4.1683,1.4211,4.5907,3.8857
1699.2188,1.3402,3.8443,5.4088,2.1028,-3.5089,6.1748,-7.4719,0.1287,3.1688,4.3347,3.4887,3.9268,-2.3213,-3.6145,3.6099,-1.7314,-3.7805,2.3333,1.6345
1703.1250,0.0236,3.3741,4.9920,0.7045,-3.2159,4.9350,-7.0566,-0.1680,2.6310,3.1242,1.9279,1.6225,-3.4373,-3.7022,-0.1852,-8.2929,-6.7475,0.8838,0.3150
1707.0312,0.2034,3.2933,5.1292,0.9668,-1.3989,3.0124,-5.4234,0.3352,3.3023,3.2055,1.2757,0.3042,-2.0719,-1.7106,-1.4519,-11.8470,-6.0628,1.0474,0.8276
1710.9375,1.8687,3.5176,5.8148,2.8605,1.2639,1.3409,-3.8265,1.6547,4.9724,4.4677,2.0825,0.9370,1.1874,1.6239,0.5721,-10.2250,-2.7837,2.9418,3.0760
1714.8438,4.2478,3.8087,6.6704,5.5606,3.5288,0.6281,-3.0798,3.3202,6.9453,6.3304,4.2332,3.6796,4.8233,4.8205,5.2576,-3.9316,0.6478,5.9807,6.0826
1718.7500,6.3232,4.0575,7.2433,7.9697,4.3560,1.0563,-2.9439,4.7060,8.5097,8.2013,7.1049,7.8083,7.3678,6.6100,11.2809,4.2077,2.2893,9.2020,8.6064
1722.6562,7.4337,4.4009,7.3021,9.3030,3.5337,2.2699,-2.4624,5.4083,9.3338,9.7352,9.8787,11.9780,8.1987,6.6538,17.2247,10.6460,1.9618,11.6996,9.8120
1726.5625,7.5612,5.0410,6.9079,9.3789,1.7637,3.6148,-0.9523,5.4102,9.5221,10.7656,11.7877,14.7103,7.6646,5.5873,21.7125,12.9829,1.0512,12.9164,9.5693
1730.4688,7.1592,5.9259,6.2470,8.5169,0.2024,4.4766,1.1736,4.9695,9.3621,11.0930,12.2472,14.9557,6.5829,4.4558,23.2882,11.0443,1.1454,12.7120,8.2897
1734.3750,6.7198,6.6060,5.4257,7.2189,-0.2058,4.5496,2.4639,4.3767,9.0267,10.4274,10.9607,12.5532,5.5886,4.0111,20.5704,6.6663,2.6596,11.2903,6.5414
1738.2812,6.4328,6.4695,4.4415,5.9073,0.8192,3.9308,1.4040,3.7923,8.4971,8.6163,8.0833,8.3982,4.8344,4.3573,12.9446,2.4577,4.5271,9.1171,4.7829
1742.1875,6.1801,5.2405,3.3669,4.8665,2.8712,3.0361,-2.3694,3.2639,7.7496,5.9870,4.3686,4.1849,4.1851,5.1104,1.4515,0.3628,5.1526,6.8700,3.3678
1746.0938,5.7984,3.3562,2.5510,4.3156,5.1771,2.3936,-7.5355,2.8445,6.9874,3.4569,1.0890,1.7380,3.6207,5.8338,-10.9158,0.8205,3.8137,5.3394,2.6743
1750.0000,5.3426,1.8733,2.5886,4.4448,6.9991,2.4089,-11.6979,2.6601,6.6561,2.1992,-0.4045,2.1829,3.4288,6.3641,-20.0835,2.8597,1.3683,5.1965,3.1098
1753.9062,5.0912,1.8731,3.9809,5.3164,7.8953,3.1783,-12.7886,2.8387,7.1603,2.9835,0.6440,5.3538,3.9921,6.7972,-22.7496,4.8753,-0.3129,6.6634,4.8763
1757.8125,5.2841,3.7311,6.6925,6.7143,7.7841,4.4214,-10.3376,3.3669,8.4883,5.6148,3.8783,9.7974,5.3679,7.2251,-18.2118,5.5235,0.2384,9.2755,7.6624
1761.7188,5.8248,6.7651,9.9585,8.1171,6.8881,5.5702,-5.7523,4.0181,10.0654,8.8942,7.8707,13.4409,7.0577,7.5137,-8.9643,4.2627,2.9246,11.9565,10.5735
1765.6250,6.2326,9.5498,12.5603,8.8972,5.6369,6.0071,-1.4219,4.4458,11.0143,11.2061,10.8088,14.6179,8.2218,7.3425,0.4883,1.4089,6.0750,13.4630,12.4721
1769.5312,5.9348,10.7362,13.4615,8.6563,4.5381,5.3728,0.7447,4.3884,10.6861,11.4080,11.4781,12.9085,8.2196,6.4804,6.0249,-2.1182,7.6230,13.0064,12.5850
1773.4375,4.7110,9.8555,12.4077,7.4675,3.9924,3.8043,0.3809,3.8316,9.0981,9.4731,9.9376,9.3247,7.0741,5.0497,6.0957,-5.1240,6.5951,10.6958,10.9807
1777.3438,2.9536,7.5870,10.0850,5.8389,4.0920,1.9644,-1.3306,3.0031,6.9607,6.4755,7.4414,5.7427,5.4933,3.5402,2.3558,-6.4499,3.8152,7.5203,8.5676
1781.2500,1.5194,5.3177,7.7129,4.4062,4.5232,0.7994,-2.6352,2.2071,5.2565,3.9292,5.6350,3.9042,4.4082,2.5307,-1.6390,-5.3240,1.3132,4.8472,6.5723
1785.1562,1.2386,4.2895,6.3341,3.5699,4.7054,1.1103,-2.4473,1.6402,4.6599,2.9071,5.5382,4.5429,4.3538,2.3218,-2.8068,-1.7747,0.8886,3.7194,5.8290
1789.0625,2.3943,4.8698,6.2566,3.3206,4.1466,3.1339,-1.0219,1.3255,5.1768,3.4805,6.9594,7.0792,5.1233,2.7452,-0.4505,3.0606,2.8650,4.3424,6.3323
1792.9688,4.5135,6.3735,6.9812,3.3498,2.8104,6.3542,0.3429,1.1945,6.2162,4.7915,8.6882,9.9770,5.9195,3.2825,3.4930,7.0523,5.8987,6.0289,7.3181
1796.8750,6.6050,7.4950,7.6038,3.3201,1.2176,9.6582,0.3011,1.2084,6.9911,5.6495,9.2930,11.5020,5.8682,3.3944,5.9367,7.8281,7.9136,7.5900,7.7728
1800.7812,7.6825,7.0476,7.3811,3.0732,0.1549,11.7795,-1.5546,1.3900,6.9470,5.2421,7.9820,10.4731,4.5311,2.8255,4.8023,3.9738,7.4603,7.9244,7.0131
1804.6875,7.2508,4.5810,6.0911,2.6348,0.1509,11.8286,-4.3693,1.7348,5.9592,3.5352,4.9998,6.6986,2.1104,1.7011,0.4065,-3.9188,4.5639,6.5012,4.9937
1808.5938,5.4854,0.5828,4.0255,2.0735,1.0867,9.6657,-6.5518,2.1053,4.2528,1.1915,1.3917,1.0080,-0.7113,0.4036,-4.7935,-13.0755,0.5755,3.5432,2.2394
1812.5000,3.0541,-3.7643,1.7268,1.3948,2.2505,5.9571,-6.7859,2.2508,2.2038,-0.8520,-1.6234,-5.0398,-3.1144,-0.6379,-7.8456,-19.5670,-2.7435,-0.0988,-0.4507
1816.4062,0.7432,-7.0912,-0.2826,0.5959,2.8318,1.9005,-4.8816,1.9905,0.2022,-1.8503,-3.2448,-9.6474,-4.4424,-1.1014,-7.2043,-20.1683,-4.2112,-3.2769,-2.3059
1820.3125,-0.8792,-8.3777,-1.6208,-0.1725,2.5105,-1.2569,-1.9430,1.4262,-1.3763,-1.5198,-3.3504,-11.3663,-4.3590,-0.8281,-3.6585,-14.0877,-3.6828,-4.9541,-2.7830
1824.2188,-1.6114,-7.3279,-2.0475,-0.5350,1.6927,-2.7029,0.2419,0.9820,-2.1889,-0.0586,-2.4011,-9.6623,-2.9096,0.1617,0.2381,-3.5561,-1.8515,-4.5862,-1.6964
1828.1250,-1.5778,-4.4804,-1.4855,-0.0635,1.1930,-2.3528,0.2285,1.1707,-2.0398,1.9938,-1.1654,-5.2630,-0.5537,1.6358,1.7834,7.1488,0.2821,-2.3744,0.6619
1832.0312,-1.0896,-1.0139,-0.1300,1.3677,1.5809,-0.8226,-2.2299,2.2062,-1.0575,3.9466,-0.4317,-0.0465,1.8629,3.1343,-0.2651,13.7701,1.8503,0.7245,3.4655
1835.9375,-0.5007,1.7168,1.4532,3.3086,2.6891,0.9116,-5.9871,3.7486,0.2361,5.1568,-0.7630,3.6446,3.3124,4.0666,-5.0416,14.1142,2.2865,3.3131,5.5125
1839.8438,-0.0952,2.7666,2.4260,4.8192,3.6833,2.0259,-9.0851,5.0132,1.1207,5.2383,-2.2745,4.0779,3.0087,3.9725,-10.1638,8.9634,1.3503,4.1448,5.6872
1843.7500,-0.0029,2.0499,2.0498,4.9597,3.6810,2.2777,-9.7995,5.2341,1.0964,4.2449,-4.4748,1.0854,0.8953,2.8426,-13.1054,1.4221,-0.7940,2.7554,3.5754
1847.6562,-0.1518,0.3895,0.1662,3.4099,2.4711,2.1045,-7.5805,4.1911,0.2625,2.7174,-6.3193,-3.6871,-2.1268,1.2721,-12.5185,-4.8415,-3.4389,-0.2099,-0.1358
1851.5625,-0.2903,-0.9358,-2.5453,0.7896,0.7815,2.2910,-3.3675,2.4248,-0.6513,1.4825,-6.6011,-7.5162,-4.4912,0.2598,-8.8232,-7.4200,-5.3582,-3.2274,-3.8266
1855.4688,-0.1097,-0.9469,-4.7930,-1.5995,-0.1486,3.3615,0.9032,0.9503,-0.7079,1.2246,-4.6034,-8.0335,-4.7367,0.6804,-3.8676,-6.0828,-5.2157,-4.6450,-5.7172
1859.3750,0.5660,0.4065,-5.3372,-2.5079,0.5767,5.0651,3.3272,0.6260,0.5903,2.0390,-0.6708,-4.5777,-2.3602,2.7196,0.0577,-2.4313,-2.2921,-3.5826,-4.8534
1863.2812,1.6205,2.1627,-3.7273,-1.5059,2.8270,6.3375,3.0161,1.5871,2.8631,3.2671,3.7249,1.3500,1.7816,5.6459,1.3192,1.3199,2.8869,-0.4691,-1.7015
1867.1875,2.6328,2.9183,-0.6394,0.7185,5.4365,5.8670,0.4856,3.1315,4.9601,3.7983,6.6131,6.8645,5.8257,8.1273,-0.3373,3.6222,8.5194,3.1249,2.0661
1871.0938,3.0494,1.7299,2.4314,2.7410,6.8929,2.9852,-2.7541,4.1441,5.5901,2.7206,6.5745,9.2918,7.8553,8.9475,-3.7216,4.2197,12.2782,5.2971,4.4997
1875.0000,2.4646,-1.2334,3.9675,3.2359,6.2638,-1.6800,-5.1272,3.7874,4.0904,-0.0587,3.5956,7.6449,6.9009,7.6932,-6.7942,3.8938,12.4979,4.8175,4.4529
1878.9062,0.8453,-4.7435,3.2369,1.7401,3.7296,-6.3041,-5.8621,2.0045,0.8349,-3.6474,-0.8557,3.0894,3.3990,4.9710,-7.6834,3.6304,9.0935,1.7541,2.1418
1882.8125,-1.4387,-7.2746,0.6366,-1.1181,0.3849,-8.7904,-5.2946,-0.4815,-2.9792,-6.6190,-4.6487,-1.8627,-1.1411,2.0061,-5.6900,3.7928,3.6133,-2.6177,-1.1334
1886.7188,-3.8014,-7.9852,-2.6048,-4.0402,-2.5161,-8.0328,-4.4788,-2.6453,-6.0196,-7.8341,-6.2300,-4.8982,-5.0170,-0.1208,-1.7931,3.8074,-1.6393,-6.5339,-3.8692
1890.6250,-5.7292,-7.2546,-5.1416,-5.8304,-4.3211,-4.7153,-4.4293,-3.7798,-7.5303,-7.1196,-5.5038,-5.2070,-7.2000,-1.0982,1.6820,2.5305,-4.8780,-8.6478,-5.2287
1894.5312,-6.9931,-6.3879,-6.1939,-6.0327,-5.2372,-1.0511,-5.5089,-3.8544,-7.6287,-5.3549,-3.7886,-3.7583,-7.6942,-1.4680,2.2020,-0.9243,-5.7111,-8.6159,-5.3608
1898.4375,-7.6585,-6.6613,-5.8227,-5.0716,-5.9601,0.4958,-7.3220,-3.4116,-7.0494,-3.8926,-2.8873,-2.4496,-7.2589,-2.1313,-1.5236,-6.3711,-5.1044,-7.0945,-5.0505
1902.3438,-7.9039,-8.3492,-4.7177,-3.8823,-7.0080,-1.2202,-9.0857,-3.1223,-6.5623,-3.6832,-3.8907,-2.7598,-6.7728,-3.6305,-8.5554,-12.2456,-4.5211,-5.2407,-5.0499
1906.2500,-7.7903,-10.4117,-3.7104,-3.3164,-8.2699,-5.1611,-10.1419,-3.3291,-6.4763,-4.6722,-6.4932,-4.8080,-6.6846,-5.7053,-15.8536,-16.0781,-4.8541,-4.0661,-5.5946
1910.1562,-7.1532,-11.0954,-3.3349,-3.6992,-9.0809,-8.5604,-10.2498,-3.8736,-6.5287,-5.8643,-9.2328,-7.3922,-6.8617,-7.4213,-19.6259,-15.6206,-5.8563,-4.0007,-6.3937
1914.0625,-5.7182,-9.0940,-3.6528,-4.7565,-8.7319,-8.5168,-9.5401,-4.2851,-6.1800,-6.0068,-10.4536,-8.8998,-6.8386,-7.7790,-17.2898,-10.1191,-6.4053,-4.8408,-6.9886
1917.9688,-3.3838,-4.5208,-4.3540,-5.8740,-7.0121,-3.8039,-8.3007,-4.1540,-5.0711,-4.4468,-9.3380,-8.4146,-6.2194,-6.3819,-9.0037,-1.0285,-5.3654,-6.0087,-7.1230
1921.8750,-0.4913,0.9518,-4.9926,-6.4686,-4.3846,4.1983,-6.8463,-3.4165,-3.3316,-1.6081,-6.3650,-6.2744,-4.9491,-3.7162,2.1378,8.3519,-2.4409,-6.9176,-6.8294
1925.7812,2.1214,4.9147,-5.2064,-6.2518,-1.6971,12.0431,-5.5649,-2.3732,-1.5633,1.2012,-2.9749,-3.7640,-3.3241,-0.8680,11.4484,14.3041,1.5354,-7.2431,-6.2356
1929.6875,3.3827,5.5283,-4.8397,-5.2883,0.3404,15.9516,-4.9853,-1.4616,-0.5390,2.5184,-0.7292,-2.2297,-1.8056,1.1164,14.8786,14.5280,5.0317,-7.0101,-5.3378
1933.5938,2.4804,2.5339,-3.9796,-3.8973,1.5213,13.7686,-5.6373,-0.9674,-0.8095,1.5327,-0.5176,-2.2616,-0.8032,1.7906,10.9548,9.3785,6.6508,-6.5177,-4.0050
1937.5000,-0.6651,-2.6279,-2.9307,-2.5112,2.1113,6.0597,-7.6638,-0.8774,-2.4379,-1.5009,-2.2472,-3.4806,-0.5580,1.4265,1.4064,1.7188,5.8380,-6.1797,-2.2382
1941.4062,-5.2300,-7.6418,-2.1387,-1.5617,2.4853,-4.2021,-10.4439,-0.9526,-4.9794,-5.4435,-5.0814,-4.9937,-1.1408,0.6541,-9.7977,-4.6336,3.0668,-6.3560,-0.4491
1945.3125,-9.7729,-10.5846,-2.0544,-1.4028,2.7293,-13.1186,-12.6196,-0.9464,-7.6963,-8.8898,-7.9728,-6.1141,-2.4974,-0.0865,-18.4128,-7.0197,-0.5281,-7.2266,0.5414
1949.2188,-12.8766,-10.8940,-2.9629,-2.2326,2.5177,-17.6778,-12.7067,-0.8008,-9.8930,-10.8398,-10.1358,-6.7982,-4.4684,-0.8664,-21.7923,-5.3504,-3.7700,-8.7340,-0.1159
1953.1250,-13.8199,-9.5054,-4.8403,-4.0052,1.3595,-16.9748,-10.0308,-0.6844,-11.2056,-11.0681,-11.2438,-7.5022,-6.7659,-2.1224,-19.7366,-1.9333,-5.9157,-10.5985,-2.7402
1957.0312,-12.8956,-8.1289,-7.3167,-6.3704,-0.9617,-12.3278,-5.3825,-0.8523,-11.7042,-10.0528,-11.3583,-8.6195,-8.9511,-4.1585,-14.0514,0.1754,-6.7621,-12.3917,-6.7616
1960.9375,-11.1657,-8.1313,-9.7726,-8.7038,-4.0685,-6.3841,-0.8538,-1.4332,-11.7518,-8.5838,-10.7355,-9.9677,-10.4722,-6.6761,-7.2846,-0.7840,-6.4470,-13.6355,-10.8367
1964.8438,-9.7774,-9.6896,-11.5274,-10.2658,-7.0328,-1.7727,1.1945,-2.2939,-11.6900,-7.3098,-9.6588,-10.7526,-10.7951,-8.7235,-1.4836,-4.1873,-5.1963,-13.8966,-13.4149
1968.7500,-9.2442,-11.6936,-12.0358,-10.4542,-8.7865,0.0231,-0.5193,-3.0821,-11.5376,-6.4648,-8.3558,-10.0731,-9.6028,-9.1751,2.3787,-7.6092,-3.2459,-12.8718,-13.4475
1972.6562,-9.1515,-12.4356,-11.0290,-9.0596,-8.6807,-0.8990,-5.3733,-3.4348,-10.9149,-5.8767,-6.9878,-7.6237,-6.9900,-7.4739,4.2025,-8.6354,-0.9665,-10.4769,-10.8570
1976.5625,-8.4931,-10.6685,-8.5881,-6.4031,-6.8711,-3.2050,-11.1017,-3.2244,-9.2883,-5.1964,-5.6700,-4.0774,-3.5518,-4.1454,4.2029,-6.5994,0.9979,-6.9418,-6.5399
1980.4688,-6.4444,-6.4238,-5.1643,-3.2793,-4.3044,-5.1912,-15.0298,-2.6854,-6.4221,-4.1905,-4.5000,-0.8334,-0.2824,-0.6966,2.5503,-2.9978,1.8113,-2.8695,-1.9545
1984.3750,-3.0681,-1.1216,-1.5396,-0.6974,-2.2900,-5.7099,-15.5435,-2.3181,-2.7440,-2.9271,-3.5761,0.7622,1.7390,1.1193,-0.5200,-0.2985,0.8226,0.8255,1.4679
1988.2812,0.5334,3.0900,1.3171,0.4919,-1.8670,-4.7083,-12.9077,-2.6048,0.6680,-1.7635,-2.9909,0.2365,1.7819,0.2713,-4.3299,-0.0395,-1.9541,3.1586,2.8165
1992.1875,2.7654,4.4076,2.5284,-0.0580,-3.2811,-3.1395,-8.9687,-3.6916,2.5543,-1.1517,-2.7918,-1.6869,-0.1695,-2.9231,-7.5940,-1.6552,-5.6099,3.4542,1.9421
1996.0938,2.4737,2.2732,1.6670,-2.0279,-5.8402,-2.3214,-5.9864,-5.2340,2.1620,-1.3797,-2.9335,-3.5046,-3.3292,-6.9122,-8.8217,-2.9436,-8.6264,1.6934,-0.5767
2000.0000,-0.3240,-2.3683,-0.9743,-4.5420,-8.2297,-3.1108,-5.3530,-6.5233,-0.2764,-2.3998,-3.2737,-3.8557,-6.4024,-9.7227,-7.1729,-1.8550,-9.6212,-1.3883,-3.6801
2003.9062,-4.3769,-7.5658,-4.3881,-6.5197,-9.1366,-5.3616,-6.9540,-6.8450,-3.6080,-3.8423,-3.6458,-2.3766,-8.1541,-10.0002,-3.2052,1.7499,-8.1435,-4.5676,-6.1964
2007.8125,-7.8574,-11.3139,-7.2121,-7.1210,-7.8746,-7.9871,-9.4536,-5.8701,-6.3647,-5.1974,-3.9726,0.0622,-7.9650,-7.6718,1.1267,5.7626,-4.9961,-6.6693,-7.2299
2011.7188,-9.3197,-12.4299,-8.3004,-6.0727,-4.6945,-9.5836,-11.1961,-3.8410,-7.5345,-6.0417,-4.3138,1.9167,-6.0583,-3.8612,3.4374,7.2791,-1.7947,-7.0822,-6.4458
2015.6250,-8.3682,-10.9211,-7.2099,-3.7152,-0.6272,-9.2344,-11.1049,-1.4270,-7.0062,-6.1619,-4.7627,1.9966,-3.2585,-0.1474,2.3800,4.8441,0.0332,-5.9486,-4.1330
2019.5312,-5.6634,-7.7243,-4.3250,-0.7552,3.0463,-6.9960,-9.0818,0.6681,-5.4146,-5.5153,-5.2249,0.3186,-0.4359,2.3473,-1.3032,-0.1906,0.1961,-3.9137,-1.0022
2023.4375,-2.3440,-4.0685,-0.5606,2.1249,5.4055,-3.7766,-5.8220,2.1013,-3.5398,-4.0982,-5.2566,-1.7732,1.9999,3.4848,-4.9505,-4.3180,-0.2204,-1.6126,2.1898
2027.3438,0.6866,-0.8810,3.1458,4.5672,6.2543,-0.7247,-2.3282,3.0271,-1.7279,-1.8781,-4.1674,-2.3388,4.2212,3.9716,-5.4516,-4.2272,0.5456,0.7419,4.9820
2031.2500,3.1276,1.4450,6.2206,6.5772,6.0617,1.4417,0.5038,3.8827,0.2359,1.1131,-1.4333,-0.0129,6.6468,4.7111,-1.2232,0.7581,3.6818,3.3774,7.3131
2035.1562,5.1241,2.8952,8.4937,8.3043,5.5571,2.7137,2.0419,4.9665,2.7278,4.5800,2.7951,5.0855,9.4090,6.1124,6.5575,7.9359,8.8100,6.5739,9.3342
2039.0625,6.8113,3.5290,9.9491,9.7443,5.2520,3.5412,1.8986,6.1072,5.7071,7.8541,7.4675,11.2686,12.0309,7.8112,14.3523,12.8353,13.9580,10.1720,11.0820
2042.9688,7.9782,3.3159,10.4547,10.5942,5.1791,4.3003,-0.0663,6.6746,8.4557,10.0504,10.9596,16.0886,13.5795,8.9493,18.1897,12.1662,16.5929,13.3727,12.2721
2046.8750,8.1382,2.2388,9.7445,10.3864,4.9823,4.9225,-3.6260,5.9620,9.8966,10.4837,11.8712,17.5784,13.2183,8.7846,15.9989,6.0918,15.1061,15.0365,12.3954
2050.7812,6.9354,0.5269,7.6872,8.8196,4.2499,4.9651,-8.0544,3.7050,9.2903,9.1002,9.8361,15.2040,10.7779,7.1972,8.8790,-1.7920,9.8050,14.3213,11.0654
2054.6875,4.5430,-1.2440,4.6133,6.0612,2.8519,4.0440,-12.1800,0.3969,6.7995,6.6029,5.8042,10.0137,6.9452,4.7682,0.4560,-6.8120,2.7679,11.2438,8.3692
2058.5938,1.7052,-2.3539,1.3780,2.7919,1.0564,2.2540,-14.7324,-2.8345,3.4763,4.1108,1.5448,3.9659,2.9299,2.4093,-5.3076,-6.3140,-3.3404,6.7701,4.9468
2062.5000,-0.6372,-2.3543,-0.9757,-0.0615,-0.6210,0.2200,-14.8574,-4.7483,0.6521,2.5224,-1.3544,-1.0963,-0.1606,0.8262,-6.4592,-1.3716,-6.7096,2.3547,1.7168
2066.4062,-1.8733,-1.3987,-1.7727,-1.7554,-1.7048,-1.2737,-12.5120,-4.6181,-0.8439,2.0033,-2.3475,-4.1955,-1.8145,0.1758,-4.0485,4.0581,-7.1572,-0.7780,-0.5765
2070.3125,-2.0123,-0.1975,-1.0952,-2.0570,-1.9882,-1.7867,-8.4865,-2.6048,-1.0748,1.9774,-2.0739,-5.3237,-2.1729,0.1133,-1.1474,5.9163,-5.7992,-2.1528,-1.6835
2074.2188,-1.5321,0.4399,0.2938,-1.2828,-1.5831,-1.4649,-4.0251,0.3275,-0.7276,1.6589,-1.6990,-4.9926,-1.6849,0.1387,-0.6011,2.8068,-3.9703,-2.0614,-1.8338
2078.1250,-0.9247,0.1982,1.4652,-0.0524,-0.8157,-0.8417,-0.2772,2.8843,-0.4204,0.7534,-1.9392,-3.6717,-0.6866,-0.0402,-3.0573,-3.1612,-2.2456,-1.1363,-1.4358
2082.0312,-0.3050,-0.4352,1.9247,1.0583,-0.0847,-0.3755,2.0952,4.0185,-0.1424,-0.2058,-2.4899,-1.5490,0.7474,-0.3849,-6.6069,-7.9657,-0.2819,0.1593,-0.7542
2085.9375,0.6112,-0.4146,1.8758,1.7405,0.2259,-0.1033,2.9571,3.3115,0.7234,-0.1872,-2.2813,1.2763,2.5913,-0.6938,-8.2319,-8.4959,2.4740,1.7482,0.1764
2089.8438,2.1502,1.1697,1.9672,1.9493,-0.2155,0.3150,2.4517,1.0127,2.8016,1.5361,-0.3741,4.4366,4.5314,-0.8834,-6.0022,-4.5871,5.8516,3.7444,1.3596
2093.7500,4.2437,4.3827,2.7252,1.7460,-1.6265,1.2171,0.7270,-2.1928,6.0200,4.6859,3.1808,7.1789,5.8700,-1.1300,-0.4680,1.1184,8.6317,6.0594,2.5761
2097.6562,6.2771,8.2038,4.0990,1.1571,-3.9825,2.5536,-2.1190,-5.4969,9.3708,7.9352,7.1709,8.6761,5.8431,-1.7415,5.6983,5.2627,9.1944,8.1736,3.3299
2101.5625,7.3716,10.9626,5.4508,0.1737,-6.8847,3.8271,-5.8368,-8.1919,11.3708,9.6261,9.8906,8.5706,4.1699,-2.8526,9.4966,6.2170,6.7249,9.2940,3.1109
2105.4688,6.9099,11.2209,5.9811,-1.1295,-9.5663,4.4118,-9.7807,-9.7658,10.9299,8.7952,10.1765,7.3042,1.4101,-4.1918,9.5129,5.0927,2.0652,8.8065,1.7961
2109.3750,4.9297,8.5727,5.2583,-2.4914,-11.1296,3.9973,-12.9048,-9.9311,8.0246,5.8013,8.0726,5.9060,-1.2095,-5.1321,6.6174,4.6517,-2.5153,6.6908,-0.1443
2113.2812,2.1048,3.8798,3.4687,-3.5083,-10.9533,2.8053,-14.1294,-8.6630,3.7085,2.1053,4.6780,5.3082,-2.4655,-5.0381,3.0510,7.0015,-4.6010,3.5850,-1.8570
2117.1875,-0.6536,-1.1861,1.2407,-3.8282,-9.0388,1.4222,-12.9077,-6.2466,-0.5228,-0.6505,1.3454,5.6610,-1.8843,-3.6955,0.7061,11.8211,-3.1430,0.4494,-2.6361
2121.0938,-2.6767,-4.9917,-0.7698,-3.3620,-6.0576,0.4010,-9.6209,-3.2594,-3.5484,-1.6216,-1.1361,6.1716,-0.0492,-1.5286,-0.0510,16.4187,0.8368,-1.9326,-2.4040
2125.0000,-3.7673,-6.6647,-2.1894,-2.3482,-3.0215,-0.0380,-5.4820,-0.4237,-5.0610,-1.1280,-2.7745,5.6513,1.7663,0.5641,-0.1608,17.5559,4.8669,-3.2717,-1.7696
2128.9062,-4.0711,-6.2988,-2.9220,-1.2084,-0.7564,0.0051,-1.9313,1.6479,-5.3963,-0.1958,-3.9316,3.4271,2.4058,1.6759,-0.5540,13.6943,6.5766,-3.7253,-1.5842
2132.8125,-3.7740,-4.6161,-2.9175,-0.2928,0.4851,0.3672,0.1351,2.6851,-4.9992,0.3261,-4.6679,-0.0324,1.5242,1.3743,-0.9331,6.0661,5.1259,-3.5907,-2.2984
2136.7188,-2.9202,-2.4035,-2.0061,0.3000,1.0168,1.0482,0.8174,2.8304,-4.0153,0.3891,-4.5039,-3.2696,-0.2972,-0.1004,0.2097,-2.1318,1.5651,-3.0231,-3.5980
2140.6250,-1.5049,-0.1288,-0.0160,0.6998,1.3316,2.1781,1.0330,2.4915,-2.3379,0.6479,-2.8617,-4.7243,-2.0649,-2.0328,4.2018,-7.7714,-2.0660,-2.0079,-4.6129
2144.5312,0.2782,2.0547,2.8893,1.0729,1.6274,3.7525,1.8117,2.0704,-0.0142,1.7639,0.1623,-3.7726,-3.1096,-3.6785,10.4765,-9.5927,-4.1972,-0.5706,-4.5694
2148.4375,1.9174,4.0264,5.9731,1.4259,1.6142,5.4022,3.5252,1.7404,2.4118,3.6892,3.3887,-1.1930,-3.4928,-4.6610,16.0152,-8.5852,-4.6848,1.0076,-3.4099
2152.3438,2.7786,5.4481,8.0880,1.5754,0.7658,6.4574,5.5740,1.4101,4.0035,5.5222,4.9941,1.2904,-3.7983,-5.0701,16.7037,-6.8624,-4.6190,2.2094,-1.9014
2156.2500,2.5220,5.7986,8.2476,1.3113,-1.1594,6.3241,6.7439,0.8772,3.9874,6.0670,3.6355,2.1072,-4.5005,-5.2389,9.9523,-5.9980,-5.2082,2.5745,-1.1166
2160.1562,1.4139,4.6962,6.2598,0.6223,-3.7316,4.9056,5.9924,0.0425,2.3563,4.6838,-0.4914,0.8484,-5.4351,-5.3973,-3.1422,-6.0620,-6.6489,2.0485,-1.6416
2164.0625,0.2364,2.2616,2.9590,-0.2104,-5.9366,2.7244,3.1198,-0.9733,0.0236,1.7892,-5.4733,-1.4893,-5.8175,-5.4733,-17.7148,-5.9441,-7.8750,1.0927,-3.0898
2167.9688,-0.2098,-0.7747,-0.1860,-0.7457,-6.7367,0.6215,-1.1297,-1.8843,-1.6597,-1.3594,-8.6305,-3.1737,-4.8305,-5.1831,-27.4600,-4.5407,-7.3896,0.4267,-4.2987
2171.8750,0.3257,-3.3464,-1.8785,-0.6569,-5.7510,-0.7606,-5.5869,-2.4086,-1.7256,-3.4243,-8.0622,-2.8593,-2.3445,-4.3215,-28.0735,-1.7880,-4.5418,0.5647,-4.1033
2175.7812,1.3370,-4.5589,-1.6932,0.0528,-3.5704,-1.3259,-9.3998,-2.4195,-0.1738,-3.7334,-3.7932,-0.4127,0.8019,-3.0082,-19.6760,1.2522,-0.2476,1.4830,-2.1495
2179.6875,1.9150,-4.1230,-0.2145,1.0545,-1.4544,-1.4532,-12.4494,-1.9835,2.0968,-2.5078,2.2353,3.0669,3.2268,-1.6807,-6.6746,3.2428,3.4442,2.6702,0.8257
2183.5938,1.4348,-2.4543,1.4485,1.9117,-0.5753,-1.5884,-15.1344,-1.2877,3.9448,-0.4969,7.3276,5.9850,3.8836,-0.8213,4.8569,3.6233,4.6847,3.5216,3.4537
2187.5000,0.0743,-0.4027,2.4013,2.3466,-1.3001,-1.8485,-17.7073,-0.5407,4.7396,1.6087,9.5812,7.2121,2.7784,-0.6159,10.6067,3.0196,3.1111,3.7712,4.6171
2191.4062,-1.2488,1.1983,2.4370,2.3577,-2.9874,-1.9574,-19.6990,0.0774,4.6609,3.5030,8.8286,6.6460,0.9979,-0.8077,10.1216,2.7101,0.1431,3.6262,4.1437
2195.3125,-1.5145,1.8880,1.9574,2.1222,-4.4284,-1.5451,-19.9382,0.4127,4.3642,5.1324,6.4349,5.0842,-0.0089,-0.8703,6.3778,3.5784,-1.9634,3.5057,2.8425
2199.2188,-0.3642,1.6716,1.4914,1.7900,-4.6260,-0.5265,-17.2487,0.3485,4.3283,6.3343,4.2002,3.5930,0.5805,-0.3897,3.3308,5.3496,-1.6667,3.6128,1.8865
2203.1250,1.5761,0.8695,1.2370,1.3558,-3.3890,0.7770,-11.4015,-0.1292,4.4299,6.6667,3.1797,2.8443,2.3824,0.6157,3.2197,6.6534,0.7766,3.7034,1.9960
2207.0312,3.0821,-0.1192,0.9915,0.7184,-1.3658,1.8821,-3.6542,-0.8428,4.0922,5.6587,3.2004,2.8262,4.0450,1.6711,5.4193,5.8536,3.4519,3.2691,2.9954
2210.9375,3.1714,-0.9810,0.4767,-0.1370,0.4552,2.5300,3.5629,-1.4213,2.8678,3.2964,3.2869,3.0157,4.1506,2.1456,7.4313,2.0714,4.0606,2.0036,4.0221
2214.8438,1.7977,-1.5285,-0.2701,-1.0123,1.3954,2.8559,7.7187,-1.4623,0.9558,0.2972,2.5644,2.8020,2.1763,1.6708,7.0882,-4.2248,1.4643,0.1747,4.1940
2218.7500,-0.1152,-1.6743,-0.8220,-1.5693,1.4343,3.1678,7.4143,-0.8097,-0.8075,-2.1552,0.9284,1.8518,-1.1275,0.3949,4.2713,-11.3355,-3.5297,-1.4335,3.2337
2222.6562,-1.3400,-1.4240,-0.7083,-1.5728,1.0614,3.5151,3.0605,0.2345,-1.5245,-3.1095,-0.9626,0.2417,-4.1835,-1.0980,0.9157,-16.9803,-8.6359,-2.0211,1.6158
2226.5625,-1.2418,-0.9145,0.0895,-1.1196,0.8023,3.4463,-3.3852,0.9601,-0.9476,-2.4889,-2.2710,-1.6264,-5.5526,-2.1359,-0.5964,-19.0965,-11.4681,-1.3695,0.1714
2230.4688,-0.2566,-0.4414,0.9231,-0.6523,0.8072,2.2343,-9.4391,0.6046,0.2400,-1.1694,-2.6259,-3.2041,-4.7849,-2.3375,0.6250,-16.4863,-10.9127,-0.0823,-0.5259
2234.3750,0.3993,-0.4009,0.7848,-0.7130,0.7951,-0.5337,-13.2625,-1.1630,0.8366,-0.3835,-2.3370,-3.9793,-2.6303,-1.7814,3.1921,-9.2159,-7.6517,0.7499,-0.5381
2238.2812,-0.4070,-1.1289,-1.0233,-1.5907,0.3538,-4.4445,-14.3417,-3.9454,-0.0403,-0.8567,-2.0645,-3.6471,-0.5201,-0.8908,4.3993,1.2328,-3.5920,0.2607,-0.4536
2242.1875,-2.8940,-2.7085,-4.3208,-3.1103,-0.6739,-8.2673,-13.3854,-6.7367,-2.2900,-2.3029,-2.2595,-2.2630,0.3138,-0.1483,2.2197,12.1225,-0.6580,-1.5876,-0.9010
2246.0938,-6.1444,-4.8646,-8.0016,-4.7150,-2.0276,-10.5649,-11.6325,-8.4311,-4.8325,-3.6592,-2.8331,-0.3202,-0.4776,0.1553,-3.1275,20.0593,0.2561,-3.9318,-2.0560
2250.0000,-8.6421,-7.0263,-10.5789,-5.7841,-3.2002,-10.5306,-10.0638,-8.4210,-6.2922,-3.8907,-3.2878,1.3567,-2.2545,-0.0038,-9.1813,22.0508,-0.4207,-5.5267,-3.4873
2253.9062,-9.1937,-8.5435,-10.9828,-5.9664,-3.7886,-8.4769,-8.9791,-6.9081,-5.8838,-2.7690,-3.1660,1.9406,-3.8565,-0.4737,-12.8151,16.7302,-1.4541,-5.5101,-4.4331
2257.8125,-7.6223,-8.9556,-9.1097,-5.3149,-3.7446,-5.6258,-8.0994,-4.7322,-3.8908,-1.0474,-2.4327,1.0297,-4.3078,-1.0698,-12.2635,5.1827,-1.6974,-3.9108,-4.3005
2261.7188,-4.8066,-8.1837,-5.8067,-4.1699,-3.3486,-3.3432,-7.0108,-2.8416,-1.4274,0.0917,-1.4974,-1.0798,-3.3377,-1.6560,-8.1922,-9.1746,-0.7764,-1.5944,-3.0543
2265.6250,-2.0971,-6.5590,-2.3570,-2.9206,-2.9562,-2.3426,-5.5986,-1.7644,0.3082,-0.0985,-0.8839,-3.4944,-1.4579,-2.1371,-3.1218,-21.7925,0.7931,0.2771,-1.2575
2269.5312,-0.5314,-4.6741,0.1727,-1.8273,-2.7346,-2.3797,-4.1943,-1.4148,0.7590,-1.3867,-0.8282,-5.1895,0.3857,-2.4183,0.3067,-28.8026,2.0295,0.8958,0.2396
2273.4375,-0.3458,-3.1235,1.3381,-1.0003,-2.5867,-2.5934,-3.3864,-1.3205,0.2374,-2.7302,-1.1241,-5.5725,1.3491,-2.4041,0.9546,-28.5839,2.1209,0.1759,0.7625
2277.3438,-1.0171,-2.2353,1.3263,-0.4710,-2.2909,-2.1854,-3.6584,-1.0522,-0.4176,-3.0023,-1.3082,-4.7744,1.1280,-2.0448,-0.3922,-22.2970,0.9016,-1.3105,0.1708
2281.2500,-1.7022,-1.9093,0.6887,-0.2293,-1.7086,-0.9401,-5.0896,-0.5204,-0.4379,-1.7403,-1.0111,-3.4659,0.0974,-1.3802,-1.9554,-13.1450,-1.0567,-2.6954,-1.0592
2285.1562,-1.7286,-1.6454,0.0402,-0.1672,-0.8806,0.7408,-7.2760,0.0625,0.4630,0.6112,-0.1810,-2.3236,-0.8867,-0.5264,-2.4108,-4.7855,-2.7333,-3.2053,-2.0508
2289.0625,-0.8489,-0.7794,-0.1169,-0.0084,0.0490,2.2254,-9.4821,0.4783,2.0942,3.0880,0.9795,-1.5245,-0.9176,0.3925,-1.7095,0.2722,-3.1523,-2.3916,-1.9315
2292.9688,0.8000,1.1528,0.5441,0.6403,0.9848,3.1098,-10.9181,0.7818,4.0891,4.8909,2.2779,-0.6336,0.4983,1.3077,-0.7205,1.5219,-1.8487,-0.1901,-0.2517
2296.8750,2.8817,4.0921,2.1268,2.0646,1.9502,3.4089,-11.0074,1.3161,6.1917,5.8504,3.7417,1.0295,3.1555,2.2027,-0.1189,0.2656,0.8928,3.0970,2.7598
2300.7812,5.0075,7.3623,4.4366,4.1701,3.0044,3.4065,-9.5576,2.4420,8.2881,6.3689,5.5685,3.8049,6.1857,3.0473,0.4440,-1.3831,4.1242,6.8354,6.2293
2304.6875,6.7786,9.9067,6.9482,6.3873,4.0880,3.3585,-6.8067,4.2004,10.2144,6.9504,7.8339,7.3046,8.4217,3.7384,2.0996,-1.6975,6.6187,10.1507,8.9765
2308.5938,7.7964,10.7781,8.9284,7.8988,4.9556,3.3165,-3.3596,6.1839,11.5769,7.7211,10.1891,10.5010,8.9338,4.1235,5.5702,-0.1362,7.3945,12.1522,10.0370
2312.5000,7.7431,9.6418,9.7306,8.1006,5.2943,3.1812,-0.0350,7.7363,11.8154,8.3100,11.8255,12.2496,7.4818,4.1130,10.0051,2.5898,6.1535,12.2742,9.1309
2316.4062,6.5436,7.0004,9.1216,7.0064,4.9633,2.8745,2.3566,8.3434,10.5262,8.1511,11.8151,11.9147,4.6482,3.7972,12.9376,5.1215,3.4279,10.5739,6.8252
2320.3125,4.5050,3.9842,7.4277,5.2955,4.1735,2.4406,3.2611,7.9341,7.8272,6.9463,9.6690,9.7234,1.5780,3.4596,11.6751,6.3499,0.3637,7.7771,4.2731
2324.2188,2.2937,1.7925,5.3818,3.9317,3.4447,1.9836,2.5781,6.8822,4.4780,4.9293,5.7797,6.6596,-0.5419,3.4460,5.3094,6.0967,-1.7615,4.9800,2.6403
2328.1250,0.7003,1.0861,3.7461,3.5803,3.3301,1.5314,0.7079,5.7234,1.6194,2.7486,1.4334,3.9838,-0.9989,3.9594,-4.0967,5.1837,-2.0678,3.1358,2.5237
2332.0312,0.2877,1.6721,2.9465,4.2098,4.0747,0.9908,-1.6105,4.8059,0.2480,1.0812,-1.6874,2.6521,0.1819,4.9188,-12.1918,4.8287,-0.4202,2.6190,3.6897
2335.9375,1.1088,2.6559,2.9359,5.1406,5.4270,0.2640,-3.6296,4.1197,0.7197,0.2636,-2.3060,2.9095,2.3175,5.9793,-14.7159,5.7099,2.5240,3.1194,5.2764
2339.8438,2.6564,2.9659,3.3373,5.5029,6.7352,-0.5688,-4.9385,3.3997,2.5616,0.1831,-0.2506,4.2111,4.3997,6.7017,-10.1831,7.3007,5.5581,3.9060,6.3194
2343.7500,4.0854,1.9541,3.7275,4.7836,7.2767,-1.1845,-5.6206,2.3893,4.6939,0.4570,3.3434,5.4767,5.4987,6.7574,-1.1086,7.9939,7.3524,4.2704,6.2727
2347.6562,4.6060,-0.2501,3.8533,3.1057,6.6317,-1.1625,-6.1024,1.0586,5.9480,0.7326,6.4950,5.5770,5.0766,6.0500,7.1572,6.0762,6.9331,3.8681,5.2207
2351.5625,3.8643,-2.7925,3.6663,1.0883,4.8960,-0.2530,-6.7550,-0.3642,5.6225,0.8926,7.3341,3.8793,3.1467,4.7114,9.4340,1.0266,4.0803,2.7914,3.7012
2355.4688,2.1321,-4.4930,3.2265,-0.5618,2.6369,1.4350,-7.4955,-1.5306,3.8211,1.0612,5.0974,0.6400,0.2755,3.0234,3.7902,-5.7267,-0.4841,1.4143,2.3178
2359.3750,0.2101,-4.3738,2.6121,-1.4228,0.6347,3.4715,-7.6809,-2.1445,1.4185,1.4583,0.6322,-2.9685,-2.5633,1.3427,-7.1874,-11.2349,-5.2388,0.1756,1.4266
2363.2812,-0.9276,-2.0810,1.9244,-1.4625,-0.4509,5.3322,-6.4373,-2.0548,-0.3339,2.2309,-3.9132,-5.2989,-4.2858,0.0539,-17.7376,-12.5683,-8.3706,-0.5530,1.0791
2367.1875,-0.6002,1.9514,1.3558,-0.8811,-0.3405,6.6352,-3.2763,-1.2483,-0.3968,3.3643,-6.1235,-5.0109,-4.1046,-0.4898,-22.1088,-8.6014,-8.5117,-0.5061,1.1844
2371.0938,1.2228,6.6356,1.2036,0.1166,0.7734,7.2241,1.3849,0.1808,1.5402,4.6913,-4.5670,-1.8285,-1.9092,-0.0868,-17.7058,-0.8858,-5.3934,0.4457,1.6946
2375.0000,3.8729,10.6090,1.7566,1.4155,2.3243,7.0973,6.1919,2.0231,4.8744,5.9614,0.4147,3.1814,1.5889,1.1624,-6.3913,7.0685,-0.0513,2.2157,2.6402
2378.9062,6.3018,12.7422,3.1078,2.9106,3.6107,6.3219,9.4308,3.9226,8.3561,6.9257,6.8417,8.0556,5.0970,2.7875,6.7160,11.7707,5.5975,4.4254,3.9997
2382.8125,7.6257,12.5982,5.0308,4.3783,4.0802,5.0657,9.9332,5.4071,10.6969,7.4172,12.1125,10.9317,7.3170,4.0743,16.1141,11.7817,9.6326,6.4555,5.5507
2386.7188,7.5903,10.6422,7.0332,5.4662,3.5415,3.7138,7.7653,6.0338,11.2004,7.4126,14.3338,11.0409,7.5710,4.3840,18.7180,8.4833,10.9923,7.6802,6.8666
2390.6250,6.6639,8.0504,8.5634,5.8463,2.2078,2.8862,4.2333,5.5998,10.0553,7.0451,13.2010,9.0812,6.1072,3.5029,15.0332,5.0564,9.8241,7.7835,7.4989
2394.5312,5.6728,6.1378,9.2368,5.4195,0.5501,3.1950,1.1450,4.2790,8.1131,6.5392,9.9354,6.7152,3.8835,1.7974,8.2399,4.3226,7.1488,6.9392,7.2197
2398.4375,5.2014,5.6541,8.9395,4.3996,-0.9572,4.8048,-0.2457,2.5636,6.2968,6.0757,6.3794,5.4993,1.9571,0.0392,1.9921,6.8810,4.1112,5.6968,6.1425
2402.3438,5.1667,6.3417,7.7840,3.2031,-2.0493,7.1063,0.0498,1.0254,5.0381,5.6654,3.8752,5.9396,0.8813,-1.0157,-1.6079,10.7810,1.3628,4.6242,4.6353
2406.2500,4.8900,7.0658,6.0066,2.2236,-2.7148,8.8398,0.8535,0.0446,4.1260,5.1333,2.6543,7.2860,0.5019,-1.0413,-2.7008,12.9299,-1.0193,3.9537,3.0972
2410.1562,3.6566,6.5154,3.9212,1.6618,-3.0559,8.7424,0.6747,-0.3126,3.0607,4.2598,2.0733,8.1697,0.2620,-0.2838,-2.8442,11.2592,-3.1063,3.4987,1.7722
2414.0625,1.3811,4.0941,1.9435,1.5163,-3.0858,6.3806,-1.2363,-0.2002,1.6282,3.0038,1.4171,7.6094,-0.2467,0.6496,-3.4675,6.1683,-4.6295,2.9051,0.7196
2417.9688,-1.1231,0.4377,0.5862,1.7017,-2.6327,2.6042,-4.3320,0.2220,0.2351,1.6455,0.6039,5.6710,-0.9183,1.2054,-4.7561,0.2840,-4.9137,2.0376,-0.0724
2421.8750,-2.5312,-2.8261,0.3163,2.1598,-1.4433,-0.7772,-7.0798,0.9338,-0.2895,0.7139,0.2435,3.3471,-1.2229,1.2257,-5.6725,-3.2672,-3.3552,1.1833,-0.5597
2425.7812,-1.8448,-3.9956,1.2900,2.8636,0.5839,-1.9929,-7.9340,2.0141,0.6950,0.7089,1.0341,1.8025,-0.6547,1.0096,-4.9417,-2.8782,-0.0637,0.8910,-0.6162
2429.6875,0.8838,-2.3500,3.1448,3.7363,3.2173,-0.3978,-6.3248,3.4619,3.0764,1.7919,3.0232,1.5805,0.8412,1.0934,-2.1519,0.5827,3.9138,1.5590,-0.1188
2433.5938,4.4681,1.3297,5.0603,4.6025,5.9242,3.0624,-3.0217,5.0499,5.9296,3.6613,5.3755,2.3499,2.8126,1.9209,1.8969,4.4708,7.0873,3.0943,0.9518
2437.5000,7.2521,5.1321,6.1455,5.2592,8.1151,6.3452,0.3409,6.3620,8.0540,5.7126,6.8930,3.3247,4.6471,3.6096,5.8321,6.1955,8.4571,4.9196,2.4869
2441.4062,8.0958,7.0719,5.9534,5.6229,9.4351,7.4800,2.2300,7.0122,8.7383,7.3718,6.9132,3.9604,6.0119,5.9066,8.7765,4.9318,8.1957,6.3312,4.3043
2445.3125,7.0162,6.1828,4.7741,5.8089,9.8917,5.6833,2.0297,6.8819,8.1863,8.3640,5.8653,4.3420,6.9989,8.2891,10.9352,2.1076,7.5040,6.9312,6.1971
2449.2188,5.0485,2.9810,3.4630,6.0300,9.7325,1.7348,0.2102,6.1870,7.2745,8.7280,4.9854,4.9584,7.8453,10.1083,13.1616,0.4027,7.6695,6.7979,7.9000
2453.1250,3.4456,-0.9447,2.8716,6.3600,9.1837,-2.5754,-2.1705,5.3153,6.8182,8.5966,5.3372,6.0789,8.4835,10.7308,15.8030,1.9551,8.9930,6.2797,9.0103
2457.0312,2.8039,-3.8980,3.2504,6.5589,8.2704,-5.5170,-4.2038,4.5612,6.9075,7.9564,6.8644,7.2877,8.3579,9.6994,17.8007,6.9218,10.4165,5.6103,8.9956
2460.9375,2.7421,-4.9584,4.0512,6.1499,6.8683,-6.3067,-5.5697,3.9640,6.8388,6.6231,8.2439,7.6124,6.7498,6.9370,16.9598,13.2495,10.2046,4.6955,7.3986
2464.8438,2.3395,-4.2684,4.2948,4.7538,4.9379,-5.3039,-6.4179,3.3710,5.7122,4.4835,7.7475,6.2063,3.4226,2.9212,11.4742,17.7325,7.2419,3.2711,4.1830
2468.7500,0.9733,-2.6615,3.2716,2.4588,2.7293,-3.5140,-6.8853,2.6595,3.2418,1.8089,4.5503,3.0750,-0.9238,-1.3240,1.7383,17.6912,2.0045,1.3031,-0.0134
2472.6562,-1.0956,-1.0001,1.0901,-0.0750,0.7544,-1.8410,-6.7125,1.9177,0.1412,-0.6607,-0.4726,-0.7367,-4.8235,-4.5357,-8.9786,12.3209,-3.5417,-0.7339,-3.9715
2476.5625,-2.8371,0.2823,-1.3203,-1.9154,-0.4852,-0.6165,-5.3304,1.4221,-2.2516,-2.0209,-5.1095,-3.7004,-6.8262,-5.7497,-15.8370,3.0473,-7.1004,-1.9991,-6.3915
2480.4688,-3.1816,1.1858,-2.7686,-2.4000,-0.8187,0.3527,-2.3916,1.4213,-2.8671,-1.7507,-7.1624,-4.7442,-6.3863,-4.7916,-15.2001,-7.1780,-7.4620,-1.8124,-6.5592
2484.3750,-1.8146,1.8302,-2.5436,-1.5526,-0.5152,1.3815,1.6632,1.9068,-1.6668,-0.1272,-5.8791,-3.9156,-4.2142,-2.3966,-7.1686,-15.1637,-5.1764,-0.1940,-4.7610
2488.2812,0.5603,2.1776,-0.8348,-0.0603,-0.0754,2.5347,5.5018,2.5721,0.2982,1.8333,-2.4530,-2.2776,-1.7942,0.1822,3.9566,-18.6657,-2.0187,2.0229,-2.1333
2492.1875,2.6853,2.0523,1.4401,1.1961,0.1460,3.5709,7.4614,3.0111,1.5953,2.9451,0.7863,-1.1001,-0.3709,1.8826,11.9176,-16.9762,0.3357,3.6553,0.0082
2496.0938,3.5976,1.4167,3.2551,1.7372,0.1955,4.1946,6.4964,3.0084,1.3884,2.5971,1.9484,-0.9129,-0.1122,2.4268,12.2659,-10.8190,1.4422,3.9306,0.9541
2500.0000,3.2468,0.6128,4.0956,1.7785,0.4400,4.3571,2.9092,2.6895,-0.0131,1.1711,0.8276,-1.1041,-0.0604,2.4050,5.2696,-1.8159,2.2039,3.0109,0.9822
2503.9062,2.4422,0.2912,4.1596,2.0009,1.1975,4.3358,-1.6666,2.4005,-1.4164,-0.1782,-1.0538,-0.3719,1.0743,2.7787,-4.0732,8.0749,3.9230,1.8882,1.0655
2507.8125,2.1909,1.0095,4.0427,2.9577,2.3660,4.5224,-5.1057,2.4057,-1.6191,-0.2763,-1.6263,2.2548,3.8270,4.1281,-9.1433,16.8924,7.0288,1.6916,2.0917
2511.7188,2.9178,2.7726,4.1835,4.5489,3.3574,5.0917,-5.9914,2.6402,-0.2700,1.2622,0.1563,6.5162,7.3786,6.1543,-6.0531,22.7994,10.4567,2.8697,4.1210
2515.6250,4.1293,4.8728,4.4946,5.9567,3.4290,5.8152,-4.4388,2.7262,1.8760,3.7060,3.4687,10.7759,9.8963,7.7873,3.6059,24.2374,12.1740,4.8118,6.2083
2519.5312,4.7466,6.1972,4.4456,6.1190,2.2033,6.1704,-2.0036,2.2587,3.4570,5.5941,6.0843,12.7881,9.6306,7.8450,13.5401,20.3136,10.5128,6.1800,6.9430
2523.4375,3.8621,5.8392,3.5153,4.4389,0.0133,5.6779,-0.6982,1.1568,3.3837,5.6091,5.8465,10.9586,6.0676,5.8182,16.6835,11.3650,5.4021,5.7421,5.3801
2527.3438,1.3942,3.6368,1.6675,1.2631,-2.1837,4.2425,-1.7112,-0.1839,1.5058,3.3931,2.1416,5.3594,0.3996,2.2745,9.7816,-0.6617,-1.3396,3.1694,1.7665
2531.2500,-1.7885,0.3011,-0.5057,-2.1899,-3.2888,2.2793,-4.6355,-1.0676,-1.3390,-0.1970,-3.6103,-2.1143,-4.9861,-1.3719,-4.3747,-12.4639,-6.8489,-0.7042,-2.4250
2535.1562,-4.3335,-2.9266,-2.0791,-4.4149,-2.6388,0.5492,-7.7075,-0.8958,-3.8530,-3.5393,-8.7499,-8.5670,-7.6919,-3.5715,-18.5531,-20.4393,-8.6722,-4.3050,-5.2021
2539.0625,-5.1428,-4.8649,-2.3280,-4.3725,-0.3291,-0.1984,-8.9220,0.4737,-4.9935,-5.1158,-10.9143,-11.4788,-6.4825,-3.3952,-25.4806,-22.1897,-5.9675,-6.1441,-5.0991
2542.9688,-3.9360,-4.8889,-1.1486,-1.9856,2.8828,0.4143,-7.3251,2.6332,-4.4385,-4.2852,-9.3242,-9.9036,-1.8237,-0.9150,-22.1683,-17.6956,0.1759,-5.5534,-1.9559
2546.8750,-1.3396,-3.1012,0.8960,1.8575,5.9850,2.2061,-3.6590,4.8411,-2.6003,-1.5400,-5.0570,-4.8657,4.4289,2.9385,-11.3962,-9.4103,7.3561,-2.9407,3.0012
2550.7812,1.4813,-0.1789,2.9026,5.7393,8.1507,4.4967,0.0560,6.3866,-0.2983,1.8335,-0.2410,1.2318,9.9345,6.8704,0.4525,-1.0785,12.9638,0.5069,7.7888
2554.6875,3.3970,2.9364,4.0979,8.3177,8.9740,6.3815,1.7431,6.8764,1.6462,4.4395,3.2219,5.8408,12.8575,9.7404,7.5922,4.1400,15.1752,3.4380,10.6247
2558.5938,3.7821,5.3271,4.1647,8.8069,8.4480,7.1033,0.5199,6.3052,2.6817,5.3992,4.5834,7.4741,12.4905,10.8609,8.2144,5.1780,13.4446,4.9169,10.6895
2562.5000,2.6881,6.2940,3.2696,7.1652,6.8060,6.3680,-2.8030,4.9319,2.6162,4.6242,4.3324,6.2562,9.3214,10.0365,4.9288,3.3160,8.4539,4.7048,8.3280
2566.4062,0.7145,5.4920,1.8472,3.9979,4.3916,4.4673,-6.2605,3.1035,1.5923,2.6845,3.5389,3.5805,4.6400,7.4740,2.2729,1.0758,1.7199,3.1864,4.6819
2570.3125,-1.3049,3.0454,0.3308,0.2805,1.6255,2.1453,-7.9306,1.1471,0.0173,0.4322,3.0070,1.1459,-0.0553,3.7020,3.2602,0.5131,-4.9109,1.0651,1.0424
2574.2188,-2.6397,-0.3958,-0.9911,-2.9652,-0.9876,0.2576,-7.0132,-0.6390,-1.5473,-1.3814,2.8157,-0.0198,-3.5811,-0.4718,7.4165,2.0306,-9.7370,-0.9749,-1.6875
2578.1250,-2.9050,-3.7630,-1.9521,-4.9546,-2.9164,-0.6151,-4.1470,-1.9677,-2.5580,-2.3324,2.4728,0.0207,-5.3533,-4.0547,11.4982,4.4333,-11.5989,-2.4882,-3.1789
2582.0312,-2.1418,-5.9029,-2.4077,-5.3268,-3.7643,-0.4043,-0.8527,-2.5951,-2.6967,-2.3590,1.4668,0.4384,-5.3970,-6.1026,12.1164,6.0609,-10.1627,-3.3124,-3.5221
2585.9375,-0.7359,-6.0550,-2.1932,-4.2036,-3.4570,0.4836,1.4403,-2.4113,-2.0144,-1.6675,-0.2370,0.4115,-4.1548,-6.0660,8.2280,6.0966,-6.0186,-3.4788,-2.9467
2589.8438,0.7779,-4.2446,-1.2019,-2.1068,-2.3218,1.4445,2.1227,-1.5209,-0.9036,-0.5964,-2.1069,-0.2221,-2.2242,-4.0745,1.7412,5.0931,-0.5211,-3.0837,-1.6518
2593.7500,1.9401,-1.3415,0.4746,0.2422,-0.9699,2.0159,1.4841,-0.2324,0.1124,0.4984,-3.3912,-0.8797,-0.1455,-0.9601,-4.0177,4.3894,4.6392,-2.2120,0.1607
2597.6562,2.5262,1.3089,2.4716,2.1740,-0.0179,2.0697,0.2384,1.0651,0.6593,1.3204,-3.6207,-0.7414,1.6994,2.0716,-6.6778,4.9417,8.0224,-0.9510,2.1509
2601.5625,2.5815,2.5295,4.2370,3.2819,0.2060,1.7612,-1.0472,2.0669,0.6875,1.6747,-2.9060,0.5541,3.0977,3.9924,-6.2690,6.5082,8.9757,0.5401,3.7989
2605.4688,2.3363,1.8944,5.2592,3.5179,-0.1928,1.3106,-2.1912,2.6573,0.4392,1.4890,-1.8320,2.5577,3.9850,4.4405,-4.8025,7.8251,7.8902,1.9888,4.5746
2609.3750,2.0594,-0.0785,5.3080,3.1468,-0.7608,0.8089,-3.2184,2.8912,0.2446,0.8276,-1.0444,4.2729,4.4400,3.8633,-4.4926,7.6266,6.0266,3.0651,4.2498
2613.2812,1.9283,-2.2401,4.5341,2.5945,-0.9619,0.1981,-4.0448,2.8862,0.3010,-0.1002,-0.8231,4.8413,4.6774,3.2145,-6.0533,5.7115,4.9331,3.5305,3.1252
2617.1875,1.9666,-3.4546,3.3621,2.2604,-0.4732,-0.5766,-4.3887,2.7171,0.5818,-0.9476,-0.9364,4.1485,4.9875,3.3708,-8.3048,3.2265,5.6775,3.3918,1.9604
2621.0938,2.0573,-3.2066,2.2457,2.3672,0.6510,-1.3937,-4.0224,2.3982,0.9133,-1.2840,-0.8631,2.9025,5.5976,4.6040,-9.2407,1.9283,8.2525,2.9357,1.5801
2625.0000,2.0122,-1.8276,1.4458,2.8990,2.0322,-1.9360,-3.1260,1.9543,1.1342,-0.7210,-0.2171,2.1301,6.5137,6.4233,-7.6229,2.9448,11.4964,2.5915,2.3736
2628.9062,1.6703,-0.2280,0.9727,3.6392,3.1987,-1.8672,-2.3610,1.5064,1.2094,0.9045,0.9298,2.4624,7.4569,7.8792,-3.8756,5.9211,13.6434,2.6855,4.0208
2632.8125,1.0002,0.6871,0.7081,4.2852,3.8571,-1.0798,-2.4876,1.2737,1.2311,3.3707,2.0587,3.7196,7.9800,8.1426,0.3052,9.1490,13.2762,3.2435,5.6516
2636.7188,0.1673,0.5563,0.5921,4.5851,4.0381,0.1887,-3.7503,1.4618,1.3354,6.0486,2.5507,5.0735,7.7204,6.9977,3.2077,10.5886,10.1686,3.9793,6.3646
2640.6250,-0.4845,-0.2643,0.7135,4.4307,4.0274,1.4807,-5.5173,2.0986,1.6145,8.0961,2.1361,5.6355,6.6279,4.9456,4.2138,9.1027,5.4977,4.4814,5.7701
2644.5312,-0.5690,-0.9848,1.2214,3.8646,4.1219,2.4058,-6.5382,2.9437,2.0817,8.8200,1.1305,5.0298,4.9967,2.8652,3.9737,5.1274,1.2401,4.4694,4.1940
2648.4375,0.1240,-0.9265,2.1257,3.0120,4.3763,2.8783,-5.7437,3.5647,2.6815,8.0318,0.2767,3.5625,3.2683,1.4637,3.6344,0.4185,-0.9300,3.9440,2.4097
2652.3438,1.4426,0.0147,3.1579,1.9948,4.5250,3.1191,-3.0690,3.5674,3.3043,6.1718,0.2761,1.9286,1.7530,0.8857,3.8180,-2.9070,-0.5724,3.1380,1.1001
2656.2500,2.8622,1.2780,3.8351,0.9032,4.1618,3.4223,0.3104,2.8522,3.7898,4.0903,1.3121,0.7366,0.4954,0.7344,4.1540,-3.4476,1.3553,2.3315,0.4446
2660.1562,3.7127,1.9704,3.7239,-0.1542,3.0810,3.8695,2.5767,1.7284,3.9456,2.5826,2.8902,0.2159,-0.6010,0.4694,3.6751,-1.1579,3.2042,1.6880,0.1253
2664.0625,3.5503,1.4156,2.7410,-0.9702,1.5440,4.2249,2.3752,0.7882,3.6205,1.9563,4.1216,0.2685,-1.5017,-0.1177,1.7161,2.6899,3.7286,1.2348,-0.2757
2667.9688,2.4558,-0.4094,1.2766,-1.2292,0.2516,4.1093,-0.2856,0.5885,2.8215,1.9204,4.2866,0.7290,-1.8819,-0.7061,-1.3787,6.1220,2.8186,0.9712,-0.8189
2671.8750,1.0410,-2.8045,0.0313,-0.6322,-0.0241,3.3307,-3.9562,1.3166,1.7982,1.8825,3.3189,1.5492,-1.2803,-0.6841,-4.2392,7.3479,1.3861,0.9744,-1.0748
2675.7812,0.1221,-4.6702,-0.3516,0.8826,1.0484,2.1199,-6.5851,2.6433,1.0006,1.4566,1.8943,2.7439,0.4894,0.3418,-5.1318,5.5600,0.5387,1.3738,-0.4507
2679.6875,0.2378,-5.0346,0.3610,2.9636,3.0310,1.0763,-6.7632,3.8603,0.8850,0.8169,1.0497,4.1833,2.9785,2.1349,-2.8634,1.3431,0.6895,2.1967,1.2529
2683.5938,1.3161,-3.5076,1.8651,4.8654,4.8177,0.8332,-4.5941,4.2310,1.6539,0.6114,1.5555,5.4742,5.1242,3.8307,2.5771,-3.5019,1.2733,3.2186,3.4855
2687.5000,2.7126,-0.4581,3.4751,5.7137,5.1577,1.6542,-1.6347,3.3512,3.0847,1.4615,3.4179,6.0911,5.7413,4.3856,9.9106,-6.7193,1.2550,3.9775,5.1005
2691.4062,3.5988,3.1233,4.4506,4.9043,3.3180,3.2264,0.0597,1.3217,4.5709,3.3869,5.8050,5.6849,4.2150,3.1914,16.9554,-6.6699,0.0034,3.9893,4.9707
2695.3125,3.4484,5.9794,4.3016,2.4263,-0.4900,4.7893,-0.7962,-1.3421,5.3771,5.5939,7.4393,4.3214,0.9392,0.4619,21.3105,-3.2048,-2.1635,3.0342,2.6825
2699.2188,2.3105,7.0164,2.9427,-1.0725,-5.1580,5.5257,-3.9004,-3.9679,4.9820,6.8440,7.2375,2.4450,-2.8151,-2.8460,21.1338,2.1664,-4.1664,1.3116,-1.1360
2703.1250,0.7206,5.6915,0.6871,-4.5108,-9.1553,4.9905,-7.4799,-5.9708,3.3350,6.2177,4.8635,0.5948,-5.5377,-5.5052,15.8424,6.9896,-4.9017,-0.6470,-5.0605
2707.0312,-0.6465,2.2724,-1.8445,-6.7698,-11.1548,3.3474,-9.2664,-6.9566,0.9058,3.7841,0.9325,-0.8881,-6.2223,-6.5750,6.5355,9.1247,-3.9272,-2.2400,-7.5253
2710.9375,-1.3223,-2.1174,-3.8475,-7.0679,-10.4975,1.3134,-7.7668,-6.6962,-1.4781,0.7067,-3.1998,-1.9149,-4.7595,-5.7291,-4.0999,7.8364,-1.5878,-3.0407,-7.4983
2714.8438,-1.1715,-5.7526,-4.5034,-5.1798,-7.3331,-0.1425,-3.1143,-5.0937,-2.9178,-1.3329,-5.9433,-2.4400,-1.7975,-3.2444,-12.5473,4.0741,1.4233,-2.8713,-4.8308
2718.7500,-0.2870,-6.8771,-3.2294,-1.4693,-2.4743,-0.1967,2.9639,-2.2532,-2.7407,-1.0641,-6.0592,-2.2109,1.7433,0.2278,-15.7363,-0.1985,4.6021,-1.7161,-0.1886
2722.6562,1.1858,-4.4497,0.0288,3.2185,2.8899,1.4876,8.0300,1.3826,-0.7229,1.6603,-3.1210,-0.7663,5.1178,3.8987,-12.3484,-3.1518,7.7654,0.3749,5.2857
2726.5625,3.1080,1.2512,4.6149,7.7614,7.5083,4.5879,10.1756,4.9856,2.8078,5.7928,2.2880,2.2275,7.8965,6.9806,-3.5069,-3.9739,10.6943,3.2537,10.3515
2730.4688,5.2511,8.5175,9.2636,11.0440,10.3704,8.1771,8.9380,7.5455,7.0106,9.6711,8.6974,6.5135,9.8246,8.7775,7.5643,-2.9983,12.7143,6.5216,13.9552
2734.3750,7.1774,14.7725,12.5384,12.2930,10.9888,11.0069,5.4075,8.3116,10.7253,11.8505,14.1718,11.0303,10.6479,8.8395,16.8180,-1.1677,12.7492,9.4352,15.4214
2738.2812,8.2772,17.6293,13.4278,11.3648,9.5842,11.9532,1.4931,7.2389,12.7987,11.6857,16.9265,14.1934,10.1272,7.1830,20.9955,0.6369,9.9896,11.0519,14.5894
2742.1875,8.0170,15.9533,11.7791,8.8275,7.0421,10.4683,-1.1985,5.1113,12.4660,9.3860,15.9472,14.5834,8.2394,4.4234,18.8162,1.9033,4.7226,10.6285,11.8689
2746.0938,6.2578,10.3741,8.3025,5.7235,4.5561,6.8417,-2.2021,3.1698,9.6504,5.6597,11.3859,11.6626,5.3552,1.6239,11.2545,2.3638,-1.3979,8.0559,8.1280
2750.0000,3.4151,2.9658,4.1494,3.0774,3.0670,2.1150,-2.2525,2.4071,5.0460,1.3049,4.5563,6.1057,2.1872,-0.1713,0.9285,1.8018,-6.0152,4.0295,4.3795
2753.9062,0.3154,-3.7341,0.3400,1.4024,2.7880,-2.3470,-2.5603,2.9554,-0.0793,-2.9599,-2.5029,-0.4317,-0.5023,-0.4934,-8.9806,0.1650,-7.3335,-0.2055,1.3769
2757.8125,-2.1773,-7.8287,-2.5863,0.5192,3.1299,-5.4325,-3.8131,3.9989,-4.2981,-6.4198,-7.7442,-5.9594,-2.2256,0.2716,-15.7703,-2.0417,-5.1372,-3.4090,-0.6462
2761.7188,-3.5320,-8.7170,-4.5171,-0.1727,3.1230,-6.7086,-5.6051,4.3181,-6.4965,-8.2928,-9.8230,-8.8740,-2.8905,1.1173,-17.9117,-3.5534,-0.8442,-4.8681,-1.9110
2765.6250,-3.6924,-7.0405,-5.4448,-1.1415,2.0928,-6.4701,-6.7257,3.1354,-6.2215,-7.9119,-8.5222,-8.4580,-2.6621,1.0611,-15.3334,-2.8080,3.4329,-4.5836,-2.7412
2769.5312,-2.9415,-4.0889,-5.2216,-2.2829,0.1436,-5.4099,-6.1336,0.6960,-3.7854,-5.1498,-4.7360,-5.0357,-1.7379,-0.2103,-9.3390,0.9747,6.1231,-3.0628,-3.1900
2773.4375,-1.6377,-1.1065,-3.6487,-2.9404,-1.8946,-4.1420,-3.9281,-1.8366,-0.1157,-0.7766,-0.0478,0.1740,-0.2644,-2.1408,-2.1777,6.8153,6.8580,-0.9279,-2.9535
2777.3438,-0.0410,1.1135,-0.8493,-2.4110,-3.0369,-2.8904,-1.5624,-3.1299,3.5759,3.6279,3.9032,5.4283,1.5353,-3.6943,3.7196,11.9984,6.1883,1.3571,-1.6699
2781.2500,1.6617,2.2467,2.4196,-0.5870,-2.8410,-1.5276,-1.0326,-2.5806,6.1829,6.3206,6.0094,8.9870,3.1933,-4.0719,6.6737,13.4186,4.7518,3.4886,0.6126
2785.1562,3.2057,2.2542,4.8742,1.7578,-1.7372,0.1096,-3.5078,-0.7474,7.0353,6.2997,6.0202,9.7039,4.0386,-3.2551,6.4785,9.5625,2.6805,5.1555,3.1872
2789.0625,4.1619,1.2587,5.2912,3.3053,-0.7556,1.8967,-8.3333,0.9864,6.0755,3.9061,4.5065,7.4954,3.5244,-2.0038,4.4598,1.7821,-0.2545,5.9414,4.9184
2792.9688,4.0468,-0.4202,3.2418,2.9749,-0.8447,3.3571,-13.1728,1.2971,3.8285,0.6865,2.5009,3.4316,1.6348,-1.3267,2.6911,-6.1896,-3.9702,5.4555,4.8564
2796.8750,2.5990,-2.1918,-0.5395,0.6313,-2.2618,3.9267,-15.3194,-0.2474,1.1739,-1.4625,0.9840,-0.7050,-0.9754,-1.8122,2.7082,-10.3745,-7.5882,3.6274,2.8370
2800.7812,0.0414,-3.2814,-4.4569,-2.7759,-4.4488,3.3633,-13.3870,-2.9540,-0.9938,-1.3655,0.4438,-3.2631,-3.2924,-3.2787,4.4774,-9.0126,-9.7092,0.9211,-0.3561
2804.6875,-2.8709,-3.0419,-6.8822,-5.7517,-6.4389,2.0015,-8.2659,-5.4926,-2.0771,0.8068,0.7183,-3.5429,-4.5353,-4.9510,6.3349,-3.6760,-9.3387,-1.7459,-3.3946
2808.5938,-5.0891,-1.3273,-6.9943,-7.1118,-7.4692,0.6460,-2.6637,-6.7354,-1.9280,3.7416,1.1914,-2.0958,-4.6032,-5.9893,6.0404,1.7856,-6.7244,-3.3811,-5.1130
2812.5000,-5.7003,1.3445,-5.1082,-6.5873,-7.3634,0.1418,0.5238,-6.3706,-0.7939,5.8576,1.2296,-0.2900,-4.0336,-5.9781,2.3291,3.7898,-3.3534,-3.3792,-5.0621
2816.4062,-4.3430,4.0013,-2.3300,-4.8127,-6.4717,0.8804,-0.0297,-4.9244,0.8718,6.2614,0.5972,0.6015,-3.5015,-5.0704,-4.0553,1.3193,-1.0066,-1.7872,-3.5899
2820.3125,-1.4120,5.6974,0.1645,-2.7801,-5.3055,2.5445,-3.3382,-3.2671,2.5984,5.1759,-0.4122,0.1920,-3.2679,-3.7702,-10.5878,-3.5929,-0.5533,0.7586,-1.4836
2824.2188,2.0403,5.9644,1.7173,-1.2032,-4.2064,4.2502,-6.8522,-2.0262,3.9816,3.6152,-1.2160,-0.8810,-3.0361,-2.5850,-14.3686,-7.4537,-1.4335,3.3434,0.5064
2828.1250,4.6800,4.9543,2.3015,-0.2366,-3.2912,5.0035,-8.1820,-1.3247,4.6735,2.5953,-1.3914,-1.5408,-2.3398,-1.8117,-13.8212,-7.7692,-2.2495,5.1266,1.9327
2832.0312,5.4129,3.2228,2.2186,0.3313,-2.6340,4.2119,-6.6410,-0.9576,4.3846,2.4521,-1.0086,-1.1299,-1.1284,-1.5421,-9.5810,-4.5999,-1.9978,5.5754,2.6143
2835.9375,3.8652,1.3569,1.7388,0.6729,-2.4270,1.9821,-3.5985,-0.7611,2.9960,2.7219,-0.5814,0.1072,-0.0120,-1.7697,-4.0089,-0.1798,-0.9334,4.5608,2.4785
2839.8438,0.6189,-0.2739,1.0071,0.7017,-2.9031,-0.9361,-1.4477,-0.8112,0.7524,2.6090,-0.6421,1.2737,0.1149,-2.4298,0.3101,2.9687,-0.3411,2.3796,1.5226
2843.7500,-2.9404,-1.5061,0.2389,0.2311,-4.0474,-3.5026,-1.9150,-1.2756,-1.6290,1.6619,-1.2374,1.5962,-1.1620,-3.3243,2.0718,3.9170,-1.3755,-0.2646,-0.0356
2847.6562,-5.1673,-2.2153,-0.0807,-0.6541,-5.3581,-4.8457,-4.8456,-2.0690,-3.1158,0.1597,-1.7437,1.1090,-3.2294,-4.0437,1.8025,3.8007,-3.9143,-2.3788,-1.5944
2851.5625,-4.8952,-2.2167,0.6988,-1.3847,-5.9287,-4.6068,-8.2473,-2.6533,-2.8114,-1.0521,-1.2044,0.6971,-4.6191,-4.0392,1.1956,4.6191,-6.3918,-2.9777,-2.2469
2855.4688,-2.0200,-1.3674,2.9547,-1.1089,-4.8847,-3.0267,-9.5283,-2.2207,-0.4869,-1.1346,0.9893,1.4449,-3.8734,-2.8704,1.8025,7.3958,-6.8103,-1.5169,-1.1790
2859.3750,2.4039,0.2138,6.3336,0.7737,-1.9175,-0.7620,-7.1087,-0.1945,3.1530,0.1751,4.5360,3.7791,-0.5331,-0.4790,4.0095,11.1811,-4.1820,1.7514,1.8180
2863.2812,6.6639,2.0441,9.6989,4.1231,2.4450,1.4589,-1.3930,3.2918,6.7169,2.3880,8.2181,7.0645,4.4615,2.7142,6.9352,13.6726,0.7061,5.7713,6.0819
2867.1875,9.2489,3.4545,11.6462,7.9872,7.0252,3.1591,5.4457,7.2898,8.8221,4.5785,10.5318,9.9719,9.2614,5.9758,9.1853,12.9598,5.7901,9.1294,10.2914
2871.0938,9.5960,3.9826,11.3199,11.0380,10.5223,4.2536,10.6669,10.4202,8.8575,5.9582,10.5889,11.3561,12.1644,8.5748,9.8441,9.0461,9.0957,10.7630,13.0675
2875.0000,8.2837,3.6987,8.9802,12.2452,12.0496,4.9425,12.3744,11.5314,7.3346,6.3204,8.6988,10.9948,12.5086,10.0290,9.0187,3.9952,9.9234,10.5069,13.6017
2878.9062,6.5619,3.1913,5.8991,11.3640,11.3930,5.4365,10.3299,10.2456,5.5786,6.0826,6.2253,9.6561,10.8360,10.1490,7.6654,0.5973,9.0000,9.1201,11.9442
2882.8125,5.5271,3.1747,3.6132,8.9637,8.9322,5.7052,5.7989,7.0960,4.9239,5.9329,4.7804,8.4752,8.3160,8.9371,6.9422,0.5400,7.6021,7.7574,8.8361
2886.7188,5.4778,3.9744,3.0150,6.0414,5.3889,5.4327,0.6636,3.2197,5.9081,6.3398,5.2597,8.1321,5.9423,6.5223,7.5687,3.3815,6.4681,7.2312,5.2776
2890.6250,5.8567,5.2671,3.8853,3.5160,1.6094,4.2431,-3.5829,-0.1737,7.9737,7.2501,7.3309,8.4482,4.1126,3.2464,9.5373,6.9857,5.4209,7.5599,2.1498
2894.5312,5.7786,6.2836,5.1565,1.9039,-1.5494,2.0617,-6.3823,-2.2664,9.8559,8.1520,9.6819,8.6685,2.8069,-0.1843,12.1920,9.0165,3.9479,8.0926,0.0737
2898.4375,4.7480,6.3515,5.6964,1.2873,-3.3195,-0.6399,-7.9860,-2.8325,10.3953,8.4392,10.8411,8.1643,2.0596,-2.7131,14.4837,8.3997,2.1272,8.0872,-0.5588
2902.3438,3.0527,5.3970,5.0603,1.4722,-3.2146,-2.9255,-8.8877,-2.1635,9.2471,7.8241,10.0290,6.9800,2.1992,-3.2737,15.2470,5.7971,0.9698,7.2987,0.4189
2906.2500,1.5712,4.0427,3.7194,2.1531,-1.2869,-3.8113,-9.2754,-0.8308,7.0425,6.5320,7.5260,5.7979,3.5743,-1.3600,13.5002,2.9164,1.7478,6.1466,2.8120
2910.1562,1.1543,3.2188,2.6626,2.9935,1.7403,-2.7914,-8.8878,0.5744,4.9350,5.1592,4.3880,5.3638,5.9906,2.5252,8.8292,1.2765,4.7872,5.3583,5.8982
2914.0625,2.0367,3.5494,2.6941,3.6548,4.6507,-0.1449,-7.3377,1.6307,3.8599,4.2937,1.7706,5.8397,8.4024,6.9088,1.7813,1.3082,8.7547,5.3809,8.4765
2917.9688,3.6853,4.9287,3.9102,3.8551,6.2270,3.1845,-4.6321,2.1669,3.9979,4.1480,0.3245,6.5986,9.2578,9.9626,-5.9987,2.3008,11.1742,6.0154,9.2742
2921.8750,5.1643,6.5673,5.6614,3.4672,5.8100,6.0721,-1.4737,2.2299,4.7652,4.4460,0.0078,6.6345,7.3892,10.3929,-12.1663,3.0677,9.9705,6.5455,7.5705
2925.7812,5.7299,7.4713,6.9573,2.5823,3.5943,7.7616,0.9332,1.9656,5.2862,4.6428,0.3415,5.2947,2.8697,8.0879,-14.6025,2.7846,4.9849,6.2568,3.6723
2929.6875,5.2333,7.0354,7.0126,1.4572,0.4740,8.1437,1.5098,1.4809,4.9990,4.3369,0.8493,2.8053,-2.7994,4.1324,-12.4530,1.4781,-1.6686,4.9583,-1.1080
2933.5938,4.0925,5.3847,5.6179,0.3666,-2.4461,7.6305,-0.0089,0.7813,3.9901,3.5990,1.3633,0.2216,-7.3748,0.1991,-6.6565,-0.0218,-6.7536,3.1378,-5.0226
2937.5000,2.9159,3.2815,3.1931,-0.5216,-4.3565,6.7627,-2.7935,-0.1557,2.8667,2.9747,2.0275,-1.1620,-9.0402,-2.2953,0.4429,-0.5196,-7.8457,1.6594,-6.7040
2941.4062,2.0956,1.6906,0.5844,-1.1352,-4.9730,5.8576,-5.2870,-1.2087,2.2946,3.1279,3.0637,-0.5485,-7.3392,-2.7711,6.2501,0.9775,-4.7677,1.2375,-5.7637
2945.3125,1.6609,1.2799,-1.2521,-1.3659,-4.4291,4.9352,-6.0514,-1.9855,2.5355,4.3375,4.5039,1.9346,-3.3169,-1.5310,9.1779,4.7708,0.4062,2.0501,-2.8556
2949.2188,1.4393,2.1245,-1.5710,-0.9728,-3.0200,3.9193,-4.5985,-1.9049,3.2905,6.1928,6.0688,5.3277,1.1523,0.6299,9.2508,10.1744,4.7149,3.7107,0.7616
2953.1250,1.3355,3.7305,-0.1082,0.3250,-1.0370,2.8956,-1.6728,-0.5184,3.9342,7.7336,7.2546,8.3289,4.3753,2.9105,7.7218,15.5366,6.0872,5.5542,3.8481
2957.0312,1.4708,5.3125,2.7579,2.5670,1.2116,2.1799,1.2149,2.0983,3.9640,8.0005,7.5565,9.8597,5.5719,4.7794,6.0265,18.6876,4.3890,6.9944,5.6335
2960.9375,2.0725,6.1593,6.0493,5.2931,3.3124,2.1212,2.7279,5.1747,3.3599,6.6711,6.7116,9.4272,4.9824,5.9725,4.8257,17.7974,1.1883,7.7261,5.9301
2964.8438,3.2231,5.9192,8.5141,7.5769,4.7833,2.8002,2.5217,7.5066,2.6175,4.3528,4.8513,7.1931,3.4445,6.3699,3.7727,12.3476,-1.4286,7.7086,4.9923
2968.7500,4.6930,4.7096,9.1726,8.4458,5.2962,3.8825,1.4120,8.0815,2.4353,2.2991,2.5051,3.8315,1.8255,5.9466,2.0952,3.6960,-2.1129,7.0373,3.3205
2972.6562,6.0077,3.0338,7.8408,7.4807,4.9381,4.7751,0.7887,6.7164,3.2550,1.6762,0.4395,0.2954,0.6676,4.8482,-0.5122,-5.2303,-0.8188,5.8497,1.5270
2976.5625,6.7099,1.5538,5.3062,5.1877,4.2657,4.9961,1.6706,4.2765,4.9415,2.8283,-0.6289,-2.4433,0.1554,3.4712,-3.3883,-11.1465,1.5027,4.3233,0.2387
2980.4688,6.6343,0.8173,2.9836,2.8354,4.0401,4.4995,4.0351,2.2749,6.8121,5.0269,-0.3407,-3.6589,0.2738,2.3986,-5.1779,-11.9742,3.6890,2.7176,-0.0486
2984.3750,6.0038,1.0497,2.1815,1.7856,4.7802,3.7172,6.8548,2.0445,8.0049,6.8935,1.1249,-3.1069,0.9503,2.1649,-4.6862,-7.8924,5.0449,1.3658,0.8295
2988.2812,5.2976,2.1030,3.3955,2.7222,6.4470,3.2881,8.7944,3.9845,7.9821,7.2575,3.1241,-1.1223,2.0911,2.9992,-1.6957,-1.2100,5.5651,0.5947,2.5801
2992.1875,4.9913,3.5771,6.0619,5.2731,8.4985,3.6613,9.0695,7.3525,6.8670,5.9081,4.8815,1.5204,3.5585,4.7344,2.8228,4.9198,5.7274,0.6214,4.5540
2996.0938,5.3296,5.0337,8.9302,8.2736,10.2807,4.8349,7.8864,10.7309,5.4072,3.7528,5.9207,3.9769,5.1807,6.9516,7.2394,8.2091,6.1168,1.4986,6.0894
3000.0000,6.2379,6.1727,10.8099,10.4875,11.4585,6.3774,6.1918,12.8519,4.5663,2.2676,6.3286,5.7545,6.8153,9.2390,10.1585,8.3553,7.1192,3.1256,6.9081
3003.9062,7.3783,6.8743,11.2064,11.2987,12.1600,7.6787,4.9530,13.2504,4.9667,2.5815,6.6565,6.9249,8.3970,11.3604,11.0851,6.9273,8.7677,5.2778,7.2800
3007.8125,8.2810,7.1127,10.4497,10.9309,12.7317,8.2419,4.4946,12.3532,6.5003,4.7683,7.4802,7.9610,9.8936,13.2116,10.4727,6.1472,10.7138,7.6045,7.7996
3011.7188,8.4950,6.8513,9.2887,10.1112,13.3208,7.8559,4.3572,11.0225,8.3418,7.7852,8.8927,9.2799,11.1855,14.6407,9.2066,7.3776,12.3043,9.6141,8.8949
3015.6250,7.7329,6.0402,8.2962,9.4787,13.6453,6.6134,3.7472,9.9347,9.3729,10.0835,10.2912,10.7989,11.9823,15.3349,7.9401,10.2671,12.7882,10.7285,10.4147
3019.5312,5.9991,4.7386,7.5323,9.1870,13.1692,4.8460,2.2342,9.2418,8.7920,10.4983,10.6565,11.8439,11.8920,14.9229,6.7435,13.0393,11.6449,10.4687,11.6151
3023.4375,3.6611,3.2539,6.6874,8.9526,11.5693,3.0528,0.1883,8.7049,6.5719,8.8762,9.2042,11.5322,10.6509,13.2512,5.2631,13.6726,8.9151,8.7222,11.6013
3027.3438,1.3958,2.1364,5.5396,8.4382,9.1300,1.8189,-1.3537,8.1104,3.5121,6.0896,6.0025,9.4175,8.3754,10.6194,3.2136,11.1800,5.3215,5.9312,9.9449
3031.2500,-0.0311,1.9525,4.3168,7.6128,6.7200,1.6668,-1.3150,7.5783,0.8539,3.4768,2.1254,5.9626,5.6426,7.7529,0.8087,6.1965,2.0316,3.0244,7.0482
3035.1562,-0.0867,2.9465,3.6458,6.7904,5.3149,2.8340,0.7130,7.4916,-0.3270,2.0890,-0.8104,2.4815,3.3062,5.4826,-1.1934,0.5689,0.1308,1.0619,3.9878
