Time,Fp1,F3,C3,P3,O1,F7,T3,T5,Fz,Fp2,F4,C4,P4,O2,F8,T4,T6,Cz,Pz
0.0000,-5.7774,-5.9099,-13.8541,-1.6458,-5.4772,-3.8947,-7.6563,-1.0965,-6.4327,-0.7852,-8.6423,-6.0398,-9.4086,-0.1312,-15.0906,-8.5753,-10.8517,0.0680,-10.9095
3.9062,-6.8338,-4.8112,-12.6790,-7.6087,-8.9336,-2.5447,-8.5995,-7.6107,-7.8941,-4.7665,-7.8587,-7.1071,-11.8765,-5.2642,-15.8415,-6.5598,-12.4701,-4.6643,-10.4376
7.8125,-3.5131,-2.8001,-7.2243,-11.0450,-8.8560,0.2899,-7.9789,-12.7686,-5.7006,-5.9077,-4.1470,-8.4066,-9.7182,-7.8334,-11.8602,-3.7732,-9.6898,-6.5604,-6.1919
11.7188,2.7455,-1.1600,-0.1946,-11.3160,-6.7083,3.2260,-6.7583,-15.3105,-0.9829,-3.2608,1.2423,-10.5784,-4.6643,-7.0130,-4.7634,-2.3594,-4.2547,-4.9740,-0.4447
15.6250,9.1931,-0.5900,5.1062,-9.5091,-4.9647,5.0915,-6.0293,-15.4497,4.1642,2.0833,6.3832,-13.0834,0.3354,-3.8462,2.2994,-3.5668,0.8414,-0.9398,3.9122
19.5312,13.5462,-0.6124,6.9356,-7.4840,-5.2003,5.6143,-6.2469,-14.5127,8.2021,7.5876,9.7828,-14.1449,3.3463,-0.5506,6.5508,-6.7460,3.4317,3.6286,5.3017
23.4375,15.2023,0.0481,6.0835,-6.5126,-7.0325,5.4013,-6.8914,-13.8628,11.0042,10.7939,11.1328,-11.8829,4.6666,0.8661,7.1137,-9.7144,3.4637,7.1620,4.4012
27.3438,15.1279,2.3978,5.0344,-6.5250,-8.6865,5.3070,-6.7579,-13.9043,13.4662,10.7581,11.2637,-5.8705,6.1375,-0.2758,5.1898,-10.2565,2.6328,9.2049,3.4477
31.2500,14.7064,6.2654,6.0246,-6.4609,-8.6427,5.7385,-4.6887,-13.8938,16.3246,8.4265,11.4094,2.1468,9.2221,-3.1901,2.9042,-7.6657,2.8082,10.2568,4.4709
35.1562,14.5720,10.2799,9.4519,-5.3627,-6.9746,6.4346,-0.3062,-12.6737,19.2487,5.7320,12.3245,9.0876,13.5163,-6.4447,1.7458,-3.1965,4.5840,10.9331,7.7731
39.0625,14.3279,12.7601,13.7449,-3.3020,-5.2766,6.8301,5.6763,-9.7505,20.9802,4.0930,13.8374,12.4455,16.9533,-9.0440,1.7245,0.8767,7.0634,11.1800,11.7500
42.9688,13.2168,12.8265,16.6694,-1.4074,-5.2558,6.6312,11.7425,-5.8765,20.3682,3.4006,15.0787,11.8849,17.5180,-10.9623,1.7419,2.8549,8.8958,10.1786,14.1226
46.8750,11.0241,10.8938,17.0060,-1.0017,-7.1644,6.0901,16.2974,-2.6671,17.3870,2.2039,15.1541,9.2878,15.0080,-12.8091,0.7465,2.6695,9.5563,6.9933,13.6236
50.7812,8.3781,8.2199,15.3504,-2.5538,-9.3730,5.7628,18.4390,-1.5098,13.2585,-1.0837,13.7672,7.1904,11.3311,-14.9977,-1.2850,1.6743,9.7409,1.4279,10.8931
54.6875,6.2229,5.9425,13.5279,-5.2724,-9.4647,5.9957,18.3611,-2.5553,9.5752,-6.8551,11.3853,6.8178,9.0506,-17.1424,-3.2715,1.4436,10.5873,-5.5965,7.9773
58.5938,4.9993,4.3963,13.1748,-7.6405,-5.9986,6.6167,17.1738,-4.5366,7.1705,-13.8199,8.8916,7.2640,9.3678,-18.1791,-3.8369,2.5826,12.4812,-12.4426,6.8661
62.5000,4.3103,3.2100,14.5997,-8.4553,0.4261,7.1069,16.2394,-5.5598,5.6767,-19.6797,7.0174,6.4658,11.2113,-17.1017,-2.3135,4.4552,14.5637,-17.6384,8.1686
66.4062,3.3783,1.9897,16.7301,-7.5740,7.5999,7.0963,16.3946,-4.3201,4.1040,-22.4667,5.9623,3.1644,12.1924,-13.7292,0.8393,5.9420,15.4129,-20.5955,10.8506
70.3125,1.8607,0.9119,18.0745,-5.8445,13.2280,6.7261,17.5038,-0.9067,1.8942,-21.6131,5.4366,-1.7713,10.6262,-8.9175,4.4692,6.5052,14.3171,-21.6839,13.1228
74.2188,0.2489,0.6690,17.8769,-4.3645,16.3206,6.5337,18.6111,3.3194,-0.4949,-18.0784,5.0410,-5.7957,6.9214,-4.0873,7.6099,6.6457,11.9952,-21.6982,13.7353
78.1250,-0.5532,1.8151,16.5757,-3.7151,17.4064,6.9395,18.6020,6.6217,-1.9934,-13.5676,4.6612,-6.6128,3.1575,-0.4530,10.0928,7.3985,10.0632,-21.2000,12.7060
82.0312,-0.1212,4.1182,15.2790,-3.7706,17.5322,7.7900,16.9677,7.8932,-1.9572,-9.4767,4.5641,-4.0507,1.1901,1.4805,12.4493,9.3391,9.6243,-20.2607,11.0148
85.9375,0.9439,6.5471,14.7477,-4.1553,16.9998,8.3987,14.1795,7.1015,-0.9128,-6.2902,5.1214,-0.3465,0.8766,1.8642,15.2528,11.9669,10.1560,-18.7471,9.6029
89.8438,1.3757,7.9872,14.7234,-4.8617,14.9516,8.1209,11.4197,4.9796,-0.3124,-3.7139,6.3808,1.4540,-0.0406,1.0676,18.4798,13.9963,9.6899,-16.8201,8.5131
93.7500,0.2863,8.1349,14.1357,-6.4236,10.1515,7.0261,9.8359,2.3246,-1.4346,-1.2599,7.8429,-0.2204,-4.1965,-0.6971,21.4093,14.3170,6.2467,-15.1365,6.8515
97.6562,-1.9654,7.8246,12.0203,-9.4487,2.2812,6.0918,9.8163,-0.5165,-4.3125,1.2584,8.6763,-4.2627,-12.3486,-3.3776,23.1122,12.8386,-0.5559,-14.5016,3.5889
101.5625,-3.8650,8.4670,8.4358,-13.8950,-7.3682,6.6769,10.7767,-3.6378,-7.5818,3.6612,8.2788,-7.6871,-22.4109,-6.7864,23.1047,10.5506,-8.9910,-15.2089,-1.4185
105.4688,-3.8158,10.9873,4.6605,-18.7453,-16.4336,9.5863,11.6004,-7.1825,-9.4111,5.6743,6.8072,-7.7907,-30.5926,-10.3694,21.6342,8.7819,-16.2390,-16.6093,-6.9795
109.3750,-1.3907,15.0660,2.4762,-22.4405,-22.8695,14.3859,11.4034,-10.9956,-8.8035,7.1773,5.2556,-4.0066,-33.8183,-13.3412,19.3931,8.2794,-20.1783,-17.3290,-11.0624
113.2812,2.2350,19.2690,3.0069,-23.8167,-26.1316,19.4788,10.0675,-14.6481,-6.2620,8.1692,4.9327,1.9182,-31.6188,-15.1388,16.9353,8.8263,-20.6143,-16.0736,-11.9382
117.1875,5.0479,21.9748,5.9032,-22.8437,-27.2749,22.9321,8.1608,-17.7690,-3.3296,8.5352,6.6098,7.4258,-26.1349,-15.8184,14.2999,9.6320,-19.0888,-12.4842,-9.2241
121.0938,5.5936,22.4167,9.4412,-20.5738,-27.9513,23.5220,6.3380,-20.3223,-1.4099,7.9389,9.8934,11.0350,-20.3617,-16.0205,11.1538,10.0878,-17.5335,-7.4275,-4.1497
125.0000,3.9450,21.0976,11.4976,-18.3058,-29.1302,21.3429,4.7239,-22.5114,-0.8121,6.0607,13.2908,13.1154,-16.0781,-16.4688,7.3144,10.2270,-16.8882,-2.4793,1.1136
128.9062,1.5258,19.3367,10.7877,-16.5886,-30.5103,17.6466,2.8010,-24.3561,-0.7295,3.0476,15.0066,15.0595,-13.0189,-17.3747,3.1802,10.5399,-16.7250,1.0552,4.6210
132.8125,-0.0200,18.3436,7.5891,-14.8415,-30.9864,14.0920,-0.0798,-25.3392,-0.0775,-0.2469,14.0031,17.7025,-9.7477,-18.2374,-0.3386,11.3750,-16.0227,2.9029,5.5954
136.7188,-0.0062,18.5034,3.5098,-11.9062,-29.6920,11.9091,-3.9673,-24.5299,1.5485,-2.5704,10.6343,20.4016,-5.3136,-18.2362,-2.3916,12.4984,-14.3031,3.8349,4.6095
140.6250,0.9502,19.3091,0.4736,-7.1165,-26.7509,11.4313,-7.9831,-21.2099,3.5580,-3.0323,6.4107,21.5445,-0.2536,-16.9282,-2.8362,13.2094,-12.1239,4.9429,2.9868
144.5312,1.5749,19.8532,-0.4273,-1.0520,-23.1864,12.1333,-10.7437,-15.5674,4.8647,-1.7910,3.0269,19.9946,3.8194,-14.6852,-2.4360,12.9026,-10.5559,6.7266,1.8822
148.4375,0.9480,19.4198,0.4968,4.6452,-20.1481,13.0127,-11.2903,-8.8708,4.7032,-0.0905,1.2950,16.1874,5.5637,-12.4770,-2.4049,11.5759,-10.1721,8.6691,1.6473
152.3438,-0.9554,17.7644,1.8469,8.2980,-18.1175,13.0507,-9.8364,-2.8763,3.0759,0.4969,0.7061,11.9129,4.9743,-11.1187,-3.5871,9.8443,-10.4688,9.6052,1.8286
156.2500,-3.5330,15.0121,2.0788,9.3147,-16.6796,11.5811,-7.7195,1.1903,0.5483,-0.8490,-0.0862,8.9591,3.2868,-10.5551,-5.8594,8.4564,-10.2232,8.5952,1.6970
160.1562,-6.2430,11.4200,0.4451,8.5589,-14.9359,8.5117,-6.5165,3.3549,-2.2960,-3.5691,-2.2125,7.7561,1.8943,-9.7756,-8.1979,7.7296,-8.4639,5.6477,0.8649
164.0625,-9.0005,7.2721,-2.6342,7.6762,-12.1435,4.3730,-6.9293,4.7664,-5.1814,-6.0535,-5.7148,7.1452,1.2798,-7.4967,-9.3742,7.3666,-5.2156,1.7607,-0.4510
167.9688,-11.9197,2.9441,-5.9271,7.8773,-8.0954,0.1419,-8.2707,6.7791,-7.9819,-6.7365,-9.4702,5.4327,0.8757,-3.1560,-8.7890,6.7654,-1.4081,-1.7337,-1.6612
171.8750,-14.7121,-1.0436,-8.1533,9.0875,-3.0756,-3.1650,-8.9648,9.9129,-10.3366,-5.1886,-11.9522,1.8181,-0.1147,2.5167,-6.8555,5.5223,1.9218,-4.0206,-2.2934
175.7812,-16.4160,-4.1595,-8.6354,10.0928,2.3974,-4.9810,-7.7242,13.4641,-11.5511,-2.4097,-12.2723,-2.9933,-1.7594,7.8051,-4.6791,3.6980,4.4097,-5.2259,-2.3399
179.6875,-15.8544,-6.1346,-7.4863,9.5478,7.7372,-5.4651,-4.5373,16.0533,-11.0149,-0.1064,-10.7599,-7.4508,-3.2129,11.0083,-3.2924,1.6785,6.4600,-6.1348,-2.2104
183.5938,-12.5298,-7.1353,-5.3574,7.0496,12.2805,-5.3207,-0.7203,16.6721,-8.8226,0.5128,-8.6869,-10.4621,-3.4789,11.4385,-3.0037,-0.1669,8.6303,-7.4701,-2.3670
187.5000,-7.1925,-7.6308,-3.0422,3.4466,15.2827,-5.2079,2.0153,15.4085,-5.9853,-0.4552,-7.3623,-12.1920,-2.4070,9.7137,-3.3018,-1.6759,10.9118,-9.3073,-2.9699
191.4062,-1.5134,-8.0115,-1.2134,0.1567,16.1139,-5.1532,2.7791,13.2904,-3.8884,-1.7694,-7.2510,-13.6910,-0.9751,7.1647,-3.3208,-2.7806,12.5866,-11.0539,-3.8213
195.3125,2.9765,-8.2628,-0.3344,-1.9430,14.6085,-4.4488,2.0794,11.3958,-3.3017,-2.0058,-7.7193,-15.7232,-0.5313,4.8350,-2.4657,-3.2773,12.8078,-11.9514,-4.6200
199.2188,5.8680,-7.9858,-0.5950,-3.1581,11.2759,-2.2236,1.3258,9.9677,-3.7095,-0.5726,-7.5335,-17.8547,-1.6046,2.8356,-0.7250,-2.8058,11.3863,-11.6510,-5.2585
203.1250,7.9776,-6.7788,-1.7590,-4.6293,7.1087,1.6808,1.6595,8.2646,-3.5766,1.9604,-5.7225,-18.6274,-3.3098,0.5236,1.5011,-1.1564,9.0712,-10.3970,-5.8546
207.0312,10.4681,-4.6686,-3.0396,-7.2735,3.0562,6.2259,3.0394,5.2738,-1.4548,4.3854,-2.2107,-16.6948,-3.9033,-2.6798,3.8162,1.3404,7.0562,-8.7176,-6.4618
210.9375,13.7011,-2.2127,-3.2701,-10.8766,-0.4459,9.5869,4.3258,0.6995,2.8611,5.7400,2.1486,-11.9724,-2.0791,-6.5217,6.0705,3.7501,6.1247,-6.9538,-6.7287
214.8438,16.7822,-0.1494,-1.4813,-14.0959,-3.4865,10.3014,4.3121,-4.6043,8.0270,5.8313,6.0763,-5.8443,2.0357,-9.8478,8.2100,4.9765,6.1667,-5.0794,-5.8764
218.7500,18.2058,1.1434,2.3874,-15.4076,-6.2075,8.3699,2.8886,-9.1428,11.9756,5.0488,8.5311,-0.2665,6.9847,-11.3297,9.9131,4.4500,6.4667,-2.9748,-3.1300
222.6562,17.0934,1.9417,7.2074,-14.2635,-8.2710,5.4357,1.3760,-11.8418,13.2973,3.7436,9.1506,3.4862,11.0751,-10.4509,10.4464,2.5304,6.4779,-0.8696,1.6735
226.5625,14.0046,2.9631,11.2144,-11.5291,-8.8022,3.7882,1.6804,-12.8032,12.1628,1.8053,8.3141,5.4394,13.5525,-7.9832,9.0258,0.2699,6.3669,0.5289,7.7951
230.4688,10.6247,4.7927,13.1955,-8.8276,-6.9691,4.8143,4.8446,-13.1234,10.1192,-1.1485,6.9089,6.5081,14.9239,-5.5552,5.5197,-1.3153,6.8238,0.4576,13.9318
234.3750,8.5406,7.3886,13.5031,-7.2920,-2.7916,7.9982,10.0838,-13.9019,8.9427,-5.1440,5.9692,7.5368,16.2458,-4.5945,0.9402,-1.9029,8.3042,-1.2064,18.9993
238.2812,8.0699,10.0473,14.0177,-6.7195,2.5129,11.2349,15.0941,-15.2468,9.4183,-9.4028,6.3033,8.6740,18.0580,-5.4074,-2.7991,-1.9341,10.4019,-3.5792,22.7756
242.1875,8.0791,11.8537,16.8574,-5.8239,7.0456,12.2700,17.4978,-16.1063,10.9235,-12.5857,8.1743,9.5544,19.8879,-7.0600,-3.8831,-2.0635,11.9671,-5.1596,25.8725
246.0938,6.9415,12.2743,22.6246,-3.4006,9.3277,10.2427,16.4397,-15.0984,12.0377,-13.6489,11.1239,9.9707,20.7005,-8.1320,-1.7618,-2.4808,11.9326,-4.8133,29.0146
250.0000,3.8744,11.4680,29.5124,0.5300,9.1986,6.2231,13.1991,-11.6866,11.6303,-12.6530,14.0795,10.2602,19.8211,-7.7672,2.3563,-2.7043,10.1666,-2.6504,32.1900
253.9062,-0.3960,10.1302,34.1356,4.5524,7.8100,2.3912,10.3678,-6.7434,9.5916,-10.8107,15.8137,10.9508,17.4758,-6.2474,6.1446,-2.0333,7.5939,-0.0766,34.4011
257.8125,-4.1479,9.0413,33.7128,6.8440,6.6824,0.5239,10.1601,-2.0163,6.7334,-9.6233,15.6035,11.9831,14.4758,-4.7011,7.6115,-0.2584,5.4327,1.1179,34.3017
261.7188,-5.9280,8.6647,28.1104,6.5614,6.5157,0.9384,13.0159,1.1003,4.0676,-9.7143,13.7063,12.3332,11.3752,-4.2194,6.4110,2.0223,4.1591,0.0132,31.2789
265.6250,-5.5743,9.0261,20.1790,4.5058,6.6528,2.6240,17.4254,2.5076,2.0955,-10.2836,11.2711,10.5825,7.9115,-5.0817,4.0835,3.8073,3.0868,-2.7863,26.1101
269.5312,-4.2463,9.8468,13.9641,2.4930,5.6047,4.3252,21.0136,3.2965,0.6264,-9.6869,9.6314,6.1246,3.2800,-6.6656,3.0018,4.5113,0.9660,-5.6328,20.5887
273.4375,-3.5173,10.7334,11.9624,1.8838,2.2284,5.6031,22.0633,4.6747,-0.8611,-6.7742,9.3899,0.0194,-2.9760,-8.0565,4.7177,4.4984,-2.8495,-7.1242,16.3143
277.3438,-4.2875,11.2814,13.4095,2.4333,-3.3428,6.9981,20.4221,6.8090,-2.7213,-1.9830,9.9475,-5.3516,-10.2681,-8.8267,8.8539,4.8316,-7.6291,-7.2205,13.5458
281.2500,-6.3302,11.1243,14.9139,2.4019,-9.7117,9.2305,17.2752,8.5466,-4.9304,2.6959,9.8881,-7.7410,-17.1316,-9.3549,13.3251,6.3962,-11.5712,-7.3072,11.0357
285.1562,-8.6914,10.0474,13.0291,-0.1115,-15.1303,12.2221,14.1098,8.2747,-7.2452,4.9394,8.0216,-6.5631,-22.1853,-10.4515,15.7361,9.1181,-13.0081,-9.1215,7.0361
289.0625,-10.4841,8.1908,6.8602,-5.6375,-18.5961,14.8750,11.7185,5.2452,-9.4655,3.6504,4.3514,-3.2918,-25.0963,-12.6268,14.9707,11.9583,-11.5911,-13.3540,0.7301
292.9688,-11.3886,6.1774,-1.2720,-12.8088,-20.3196,15.8677,9.9278,0.2904,-11.4995,-0.2786,0.2078,-0.3685,-26.7183,-15.6019,11.8610,13.7417,-8.5280,-19.0106,-7.0297
296.8750,-11.5527,4.9478,-7.6251,-19.2616,-21.2816,14.8045,8.0840,-4.6667,-13.1952,-4.5525,-2.6289,0.5653,-28.2612,-18.4435,8.5053,14.1579,-5.6846,-24.0416,-14.2829
300.7812,-11.1615,5.2674,-9.9049,-23.2583,-22.3039,12.6794,5.7422,-7.9358,-14.1889,-6.9745,-3.2250,-0.2598,-30.1793,-20.1796,6.7735,14.0835,-4.2550,-26.7569,-19.3988
304.6875,-10.2003,7.1737,-8.9735,-24.7497,-23.3834,11.1510,2.9324,-9.1718,-14.0258,-6.7653,-2.2405,-1.1859,-31.7234,-20.3793,7.0882,14.8984,-4.0247,-26.9296,-22.2495
308.5938,-8.6523,9.7826,-8.0530,-25.0524,-23.7617,11.1453,-0.1571,-9.4033,-12.5295,-4.7910,-1.5179,-0.6857,-31.5505,-19.2517,8.3120,17.2971,-3.7553,-25.7436,-24.1635
312.5000,-6.8696,11.6846,-10.0544,-25.4519,-22.5943,11.9526,-3.6660,-9.9916,-10.1001,-2.6456,-2.7549,1.2708,-28.8920,-17.2545,8.7214,20.5497,-2.3263,-24.6685,-26.6781
316.4062,-5.6239,11.7481,-15.1566,-25.9274,-19.6502,11.6694,-8.1296,-11.4037,-7.6132,-1.3898,-6.2158,3.1720,-24.3014,-14.6294,7.2699,22.8506,0.3021,-24.1994,-30.0964
320.3125,-5.6339,9.8063,-20.5833,-25.1030,-15.5286,8.7578,-13.9148,-12.8231,-5.9119,-0.9303,-10.4449,3.2771,-19.3550,-11.3161,4.2068,22.5433,3.0377,-23.4957,-33.0444
324.2188,-6.9163,6.7465,-22.7861,-21.5162,-11.3187,3.5165,-20.4370,-12.9147,-5.2579,-0.4377,-13.2204,1.1824,-15.5546,-7.3254,0.6865,19.3025,4.4881,-21.2045,-33.4394
328.1250,-8.5825,3.9293,-20.3084,-15.1702,-8.0437,-1.7874,-25.8922,-11.0865,-5.1903,0.6666,-13.0631,-1.6820,-13.3408,-3.1937,-2.2055,14.3726,3.9595,-16.7742,-30.1381
332.0312,-9.3982,2.3494,-15.0366,-8.0312,-6.2966,-4.3874,-27.9574,-8.1621,-4.9301,2.0498,-10.2076,-3.0768,-12.0022,-0.0141,-4.1855,9.6891,1.8465,-11.1477,-23.9534
335.9375,-8.7582,2.1272,-10.8007,-2.9298,-6.2011,-3.0706,-25.1731,-5.8540,-4.0112,2.7082,-6.3501,-1.7038,-10.4860,1.1246,-5.7190,6.5693,-0.8010,-6.2243,-17.2039
339.8438,-7.2748,2.6469,-10.3930,-1.6070,-7.5258,0.7512,-18.1058,-5.4249,-2.6174,1.8875,-3.4074,1.7196,-8.3538,-0.0723,-7.3230,4.9640,-3.0673,-3.4841,-12.1095
343.7500,-6.3988,3.1555,-13.3489,-3.3867,-9.7287,3.8431,-9.3850,-6.6210,-1.3457,-0.1217,-2.2329,4.9287,-6.0387,-2.7208,-8.8801,3.7806,-4.6297,-2.8690,-9.2675
347.6562,-7.2612,3.3047,-16.2476,-5.5420,-11.9247,3.3165,-2.4078,-7.7698,-0.6088,-2.0184,-2.2084,5.7619,-4.2197,-5.1622,-9.5691,1.9306,-5.5799,-2.8310,-7.3780
351.5625,-9.6227,3.2206,-15.3150,-5.1482,-12.9921,-1.4018,0.5633,-7.0108,-0.2111,-2.3734,-1.9250,3.7061,-2.9380,-5.9428,-8.4700,-0.7803,-5.9090,-1.5328,-4.4020
355.4688,-11.8382,3.1161,-9.3108,-1.0807,-11.9851,-8.2427,-0.3077,-3.7087,0.5039,-0.6750,-0.3450,0.1615,-1.3289,-4.6814,-5.3366,-3.6049,-5.2418,1.7309,0.7801
359.3750,-11.9848,2.8586,-0.4841,5.2929,-8.7117,-14.0260,-2.6361,1.0540,2.0330,2.2833,2.4517,-2.7122,1.6982,-2.1970,-0.9114,-5.5978,-3.1302,5.9939,7.4911
363.2812,-9.3533,1.9337,7.0777,11.1805,-4.0533,-16.6804,-3.4347,5.2776,4.1478,4.9655,5.4247,-3.6119,6.3733,0.1776,3.4489,-6.4544,0.3547,9.3584,13.7732
367.1875,-5.1311,-0.1193,10.3529,14.3224,0.3450,-16.5006,-1.1019,7.4881,5.9080,6.1501,7.3797,-2.9138,11.5356,1.5505,6.5132,-6.7188,4.3216,10.4054,17.7943
371.0938,-1.6660,-3.1581,9.2884,14.3603,2.9505,-15.5680,3.5358,7.6849,6.3077,5.6687,7.7278,-2.1516,15.2162,1.9575,7.7198,-7.2181,7.4279,9.1659,18.9915
375.0000,-0.7892,-6.2750,6.3512,12.6822,3.2459,-15.8859,7.8226,7.0892,5.0765,4.3181,6.6570,-2.6770,15.9685,2.0509,7.2003,-8.2500,8.7128,6.9411,18.1234
378.9062,-2.4403,-8.2334,4.2945,11.0339,2.0069,-17.7230,9.1111,6.9697,2.9880,3.1219,4.7497,-4.6156,13.9162,2.3140,5.4411,-9.2477,8.2491,5.1937,16.3610
382.8125,-4.6571,-8.2311,4.0630,10.0985,0.7071,-19.4315,6.5931,7.5423,1.3979,2.6000,2.5247,-6.8850,10.6716,2.5026,3.0057,-9.2125,7.0725,4.4437,14.3214
386.7188,-4.9743,-6.4378,4.4907,9.1511,0.4511,-18.8104,1.8816,7.8244,1.3374,2.6043,0.3354,-8.1341,8.1627,1.7980,0.5737,-7.5354,6.4146,4.0222,11.8810
390.6250,-2.2060,-3.9062,3.8447,6.9305,1.2094,-14.8974,-2.0549,6.5035,2.8327,2.7257,-1.3979,-7.7587,7.2785,-0.4648,-0.8788,-4.5009,6.8362,2.7810,8.8124
394.5312,2.6962,-1.9252,1.7118,2.8722,1.9156,-8.8042,-2.8875,3.0467,4.9428,2.7747,-2.0354,-6.1978,7.3824,-4.1304,-0.1738,-1.0553,7.9306,0.0771,5.5093
398.4375,7.3123,-1.2885,-0.4858,-2.3705,1.3380,-3.0158,-0.4971,-1.8718,6.4395,2.8362,-1.0009,-4.4040,7.0310,-8.2089,3.4849,1.9367,8.7981,-3.8017,2.9912
402.3438,9.4010,-1.9859,-0.7943,-7.4966,-0.9481,0.2247,2.9529,-6.9280,6.5804,2.8669,1.6176,-3.0627,5.2730,-11.5479,9.7494,4.2862,8.8606,-8.0476,2.0972
406.2500,8.2887,-3.4617,1.3322,-11.6287,-4.2158,0.1986,4.5046,-11.1445,5.4081,2.3084,4.7121,-2.2485,2.4666,-13.6313,16.8475,6.4117,8.3299,-12.1070,2.6025
410.1562,5.0423,-5.1511,4.2365,-14.8892,-7.0847,-2.2086,2.4641,-14.4435,3.4467,0.2374,6.5474,-1.7080,-0.0039,-14.8262,22.2467,8.6906,7.9643,-16.0558,3.1751
414.0625,1.4471,-6.8312,5.2302,-17.9705,-8.4258,-5.4799,-2.3513,-17.3064,1.1605,-3.9032,5.8279,-1.3606,-0.8233,-15.8683,24.0352,10.8364,8.3592,-20.2331,2.3908
417.9688,-1.2998,-8.5441,2.8549,-21.1195,-7.9595,-8.5594,-7.0206,-19.9072,-1.3171,-9.5497,2.7164,-1.4491,0.2727,-17.0392,22.1461,11.9049,9.3980,-24.5112,0.0474
421.8750,-3.1692,-10.2426,-1.6449,-23.5075,-6.1483,-11.1846,-8.3218,-21.5649,-3.9888,-14.9560,-1.0421,-2.1782,2.3867,-17.7770,18.5030,10.9873,10.3265,-27.9585,-2.3760
425.7812,-4.8393,-11.5486,-4.9518,-23.6416,-3.5987,-13.3603,-4.7466,-21.0830,-6.6070,-18.0702,-3.1467,-3.2418,4.2186,-17.1038,15.8535,8.0365,10.3615,-29.3207,-2.6551
429.6875,-6.7576,-11.8881,-4.0316,-20.5559,-0.5708,-14.6619,2.5789,-17.7483,-8.5590,-17.8250,-2.2854,-3.8036,4.9871,-14.5450,16.0074,4.1142,9.2895,-28.0013,0.4658
433.5938,-8.6265,-10.9135,1.5887,-14.7988,2.9579,-14.1708,10.6288,-12.1456,-9.2382,-14.9026,0.9125,-3.0945,4.7547,-10.7465,18.6809,0.7952,7.5444,-24.7045,6.1367
437.5000,-9.7492,-8.8419,9.4042,-8.3395,6.7795,-11.2112,16.3242,-6.0491,-8.6290,-11.3425,4.2637,-1.1646,3.9936,-7.2039,21.7645,-0.8452,5.7297,-21.1177,11.8292
441.4062,-9.8671,-6.3866,15.7059,-3.3819,10.0397,-6.2475,18.2425,-1.4026,-7.5652,-9.2124,5.5270,0.9214,2.9132,-5.2415,22.8197,-0.8735,4.0453,-18.7850,15.0916
445.3125,-9.6604,-4.2923,18.1525,-0.9830,11.4173,-1.0537,17.1062,0.8339,-7.3271,-9.2803,3.9405,1.7682,1.2400,-5.0404,20.7354,-0.2637,2.1593,-18.0311,15.2905
449.2188,-10.3742,-2.8282,17.1616,-0.5529,9.8761,2.1875,14.8525,1.0704,-8.7773,-10.6422,0.6908,0.7853,-1.3417,-5.5300,16.3891,0.0209,-0.3493,-17.8032,13.9471
453.1250,-12.8110,-1.6520,15.1338,-0.6053,5.4272,2.2854,13.0649,0.4376,-11.6607,-11.5377,-1.9918,-1.1203,-4.5482,-5.2858,11.9209,-0.1109,-3.3803,-16.5801,13.3789
457.0312,-16.5225,-0.1675,14.2652,-0.1154,-0.7422,-0.1180,11.9272,-0.3105,-14.6349,-10.6922,-2.3860,-1.9440,-7.3538,-3.7479,9.2487,0.2266,-6.1249,-13.6305,14.7284
460.9375,-19.9245,1.9012,14.7790,0.6328,-6.9472,-2.9674,10.3918,-1.4002,-16.0720,-8.1626,-0.3178,0.0947,-8.6185,-1.7761,8.9417,2.1517,-7.5472,-9.6108,16.9820
464.8438,-21.3264,4.1882,14.9658,0.3808,-12.0154,-4.2150,7.3161,-3.6516,-15.0837,-5.1057,3.0128,5.2277,-8.0331,-1.0617,10.1898,6.0072,-7.1962,-6.0324,17.7945
468.7500,-20.1115,5.9025,12.8883,-1.9086,-15.8702,-3.1943,2.6085,-7.4741,-12.0447,-2.7612,6.1308,11.7990,-6.5615,-2.8281,11.7049,10.8875,-5.6823,-4.0542,15.4557
472.6562,-17.1555,6.4481,8.2479,-6.0174,-19.2558,-0.9193,-2.5339,-12.1572,-8.2569,-1.5278,8.3342,17.2073,-5.9031,-6.8408,12.7046,15.0901,-4.3782,-3.6004,10.3865
476.5625,-14.1569,5.9817,2.8409,-10.4616,-22.8580,0.8878,-6.4764,-16.1265,-5.0373,-0.8581,9.8635,19.4908,-7.3010,-11.5101,13.1927,17.1692,-4.5167,-3.5122,4.9096
480.4688,-12.3998,5.4607,-0.7590,-13.4976,-26.5569,1.2540,-8.3970,-18.0021,-2.9127,0.0410,11.1815,18.4533,-10.5990,-15.0042,13.4499,16.8271,-6.3499,-2.5688,1.4466
484.3750,-11.9008,6.0963,-1.1843,-14.3045,-29.4313,0.7450,-8.9315,-17.5933,-1.4810,1.3953,12.1356,15.5885,-14.3062,-16.4864,13.3506,15.0131,-9.0100,-0.4942,0.5926
488.2812,-11.5647,8.5590,0.6892,-13.3977,-30.5085,0.9736,-9.6771,-15.9924,0.0419,2.6809,11.8490,12.9410,-16.6512,-16.5121,12.2337,13.1970,-11.1699,1.8908,0.6415
492.1875,-10.1754,12.4715,2.4497,-12.0129,-29.6352,3.2214,-11.9163,-14.6781,2.0766,3.2153,9.5021,11.7719,-16.8283,-16.3312,9.4952,12.3686,-11.9948,3.4566,-1.0332
496.0938,-7.4137,16.5333,1.9666,-11.0668,-27.7378,7.2546,-15.5533,-14.3692,4.3193,2.9494,5.3168,11.9466,-15.4917,-16.7378,5.3550,12.4588,-11.6706,3.7600,-5.8428
500.0000,-4.1239,19.1940,-1.1579,-10.6022,-26.2297,11.2572,-19.1063,-14.5758,5.9901,2.6838,0.8011,12.3475,-14.1646,-17.4545,1.0301,12.5280,-11.1511,3.3504,-12.8111
503.9062,-1.6766,19.4449,-5.5845,-10.1240,-26.0124,12.9471,-20.7906,-14.1942,6.4207,3.4417,-2.1145,11.8550,-14.0782,-17.5418,-1.9694,11.5108,-11.3782,3.1136,-19.2947
507.8125,-0.9801,17.2532,-9.5150,-9.3930,-26.8368,11.0596,-19.8703,-12.5925,5.4899,5.4966,-2.4607,10.1091,-15.3569,-16.4179,-2.9201,8.9684,-12.5945,3.2618,-22.9893
511.7188,-1.9115,13.4335,-12.0717,-8.8333,-27.4986,6.1451,-17.2269,-10.2131,3.6031,7.9270,-1.0285,7.5549,-17.1173,-14.5298,-2.4433,5.3700,-14.2351,2.9343,-23.5777
515.6250,-3.5408,9.1207,-13.6243,-9.0845,-26.6836,0.1701,-14.6810,-8.1419,1.3213,9.1770,0.1361,4.8935,-18.2688,-13.0219,-2.0145,1.7967,-15.3860,0.8732,-22.6994
519.5312,-4.8726,5.2162,-14.9174,-10.0813,-23.7949,-4.7211,-13.5684,-7.0118,-0.9862,8.2601,-0.7512,2.4819,-18.2704,-12.6417,-2.7510,-0.6755,-15.3717,-3.3163,-22.3135
523.4375,-5.4707,2.1185,-15.9172,-10.5802,-19.1696,-7.3930,-13.6604,-6.2303,-3.1776,5.6487,-3.8153,0.1688,-17.2337,-12.8472,-4.4414,-1.5189,-14.0185,-8.4012,-22.8543
527.3438,-5.5150,-0.2051,-15.5142,-8.7639,-13.6292,-8.1156,-13.2784,-4.2956,-5.1041,3.0738,-7.3327,-2.3854,-15.4097,-11.9908,-5.6261,-0.9511,-11.4888,-12.0207,-22.7397
531.2500,-5.3717,-1.9775,-12.4282,-3.6352,-7.8471,-8.0739,-10.5533,-0.0523,-6.4102,2.3068,-8.9372,-5.2557,-12.6632,-8.5791,-4.7107,0.2596,-7.9683,-12.2171,-19.6695
535.1562,-5.1467,-3.4274,-6.5543,3.8696,-2.0983,-8.4891,-4.9140,6.1062,-6.6364,3.8343,-7.3330,-8.0791,-8.5170,-2.6578,-1.2415,1.2386,-3.5617,-8.8804,-12.6729
539.0625,-4.6384,-4.7580,0.4523,11.0488,3.4512,-9.9806,2.2890,12.1252,-5.5875,6.4672,-3.2390,-10.2806,-2.7781,3.8373,3.6794,1.4833,1.5167,-3.9677,-3.2401
542.9688,-3.6815,-6.1904,5.9644,14.9507,8.2870,-12.4602,8.4807,15.4799,-3.6445,8.2183,1.1233,-11.4614,3.8461,8.1762,8.1759,1.1565,6.7149,-0.2589,5.3993
546.8750,-2.4946,-7.9371,8.0186,14.2230,11.4688,-15.4027,11.3771,14.8342,-1.6869,7.7869,3.5783,-11.6044,9.8046,8.6453,10.9473,1.0408,11.2092,0.4680,10.3140
550.7812,-1.6436,-10.0528,6.5518,9.9426,12.1300,-18.1529,10.2613,10.9218,-0.5943,5.5057,3.4162,-10.9432,13.5443,5.7263,12.1004,2.1209,14.3248,-1.4946,10.6706
554.6875,-1.6041,-12.2654,3.2896,4.7855,10.1992,-20.0829,6.2063,5.9732,-0.6592,3.0206,1.6800,-9.6553,14.5417,1.7294,12.8223,4.9606,15.9991,-4.2266,7.9800
558.5938,-2.3057,-13.9692,0.4063,1.1357,6.7020,-20.6749,1.2267,2.1234,-1.3576,1.9708,0.2287,-7.6845,13.6871,-0.8701,14.2198,9.2129,16.8570,-5.7366,4.7339
562.5000,-3.0951,-14.4747,-0.9709,-0.4785,3.2806,-19.6844,-2.9299,0.0017,-1.6857,2.7095,0.3846,-4.8664,12.6519,-1.1520,16.3342,13.6188,17.7446,-5.4197,2.6075
566.4062,-3.2070,-13.4111,-1.2688,-1.5016,1.1943,-17.3686,-5.5199,-1.4719,-0.8480,4.0507,2.1850,-1.2526,12.6768,-0.2631,18.1616,16.6041,19.0303,-4.3474,1.6218
570.3125,-2.3770,-11.0211,-1.6827,-4.0203,0.5273,-14.5501,-6.7301,-4.0198,1.1873,4.2030,4.6688,2.6566,13.7073,-0.3970,18.6280,17.1877,20.2266,-4.2756,0.7647
574.2188,-1.0780,-8.1120,-2.8444,-9.0592,0.2280,-12.3036,-7.1021,-8.5639,3.6595,2.1270,6.7857,6.0007,14.5426,-3.0834,17.6315,15.6263,20.2835,-6.2316,-0.6628
578.1250,-0.1511,-5.6373,-4.0855,-15.7886,-1.0204,-11.3401,-7.0356,-14.5195,5.5243,-1.7366,8.1093,7.9508,13.8605,-8.1031,16.2010,13.3052,18.3790,-9.7857,-2.2219
582.0312,-0.1103,-4.1467,-3.8926,-22.1519,-3.7453,-11.4910,-6.6959,-20.2750,6.1294,-5.8730,8.8487,8.1560,11.2946,-13.7801,15.6006,11.8597,14.6191,-13.4781,-2.7240
585.9375,-0.6861,-3.4628,-1.1518,-26.3136,-7.2539,-11.7326,-6.1817,-24.3605,5.5879,-8.8288,9.3370,6.9502,7.7137,-18.2949,16.1621,12.0730,10.0947,-15.9352,-1.4050
589.8438,-1.0000,-2.8197,3.8464,-27.7759,-10.1537,-10.8393,-5.5876,-26.3358,4.6228,-10.1425,9.6085,5.1929,4.5259,-20.9129,16.9223,13.3263,6.2250,-16.7356,1.2209
593.7500,-0.2515,-1.3969,9.4444,-27.3914,-11.4150,-8.2550,-4.8045,-26.7713,4.0351,-10.3852,9.4970,3.8482,2.6118,-22.1972,16.4826,14.0458,3.8685,-16.4092,3.6277
597.6562,1.6182,1.0908,13.6405,-26.4365,-11.1456,-4.5422,-3.3059,-26.5004,4.1879,-10.4070,9.1070,3.5490,1.7645,-23.1784,14.4270,12.8930,2.8589,-15.7364,4.4595
601.5625,3.8115,4.1416,15.2898,-25.6085,-10.4840,-1.0303,-0.3099,-25.8816,4.8327,-10.5166,9.0876,4.3652,1.0500,-24.3019,12.0561,9.8657,2.2856,-15.0593,3.6158
605.4688,5.1951,6.7271,14.6117,-24.7294,-10.7128,1.1172,4.5973,-24.6847,5.3297,-10.3046,10.2894,5.8537,-0.2824,-25.0709,11.6666,6.4873,1.2572,-14.1956,2.3074
609.3750,5.0434,7.9001,12.7516,-23.2395,-12.2934,1.7312,10.8018,-22.5773,5.0470,-9.2001,12.9802,7.3172,-2.1505,-24.6249,14.7944,4.8817,-0.4650,-12.9204,2.0407
613.2812,3.4352,7.3510,10.8882,-20.8902,-14.5594,1.7245,16.6058,-19.6443,3.6568,-7.1993,16.2955,8.1309,-3.8014,-22.6506,20.7736,6.3393,-2.4355,-11.4519,3.4001
617.1875,1.0312,5.5589,9.6270,-17.9679,-16.2635,2.3562,20.0462,-16.4007,1.1859,-5.0757,18.5180,8.0009,-4.6014,-19.7570,26.8392,10.3820,-4.0437,-10.4111,5.6589
621.0938,-1.5360,3.4594,9.0392,-14.9121,-16.4957,4.2262,20.1391,-13.2964,-2.1194,-3.8705,18.1291,7.0739,-4.7146,-16.9581,29.8391,15.0057,-5.0871,-10.2723,7.5195
625.0000,-4.1402,1.8718,9.0814,-11.7994,-15.2367,6.7736,17.6275,-10.2434,-5.9534,-4.1185,14.8959,5.8745,-5.0165,-14.7359,28.3397,17.9515,-5.8820,-10.8493,8.3066
628.9062,-7.1384,1.0641,9.8432,-8.2790,-13.1471,8.6675,14.5603,-6.6985,-10.0259,-5.4993,10.1338,5.0965,-6.2673,-12.5529,23.5394,18.1302,-6.8235,-11.3695,8.5610
632.8125,-10.9114,0.7070,11.3383,-4.0778,-10.8446,8.7896,12.8860,-2.3036,-14.0606,-7.2223,5.8743,5.3219,-8.2446,-9.3071,18.2887,16.2296,-7.8015,-11.1541,9.5131
636.7188,-15.3919,0.1860,13.0924,0.4113,-8.3321,7.0476,13.0603,2.4938,-17.7948,-8.7840,3.5186,6.7697,-9.6338,-4.3839,14.9796,14.1365,-8.0327,-10.3209,11.8978
640.6250,-19.9797,-0.9800,14.0607,4.0984,-5.0811,4.4004,13.7502,6.4899,-21.0238,-10.3989,2.9729,9.1759,-8.8826,1.5937,13.9335,13.6428,-6.5334,-9.8313,15.1509
644.5312,-23.8973,-2.8862,13.1408,5.8848,-0.6991,2.0928,12.9157,8.5334,-23.6517,-12.6852,2.8954,11.8598,-5.4201,7.0020,13.4987,15.3657,-2.9107,-10.7386,17.7007
648.4375,-26.6615,-5.2552,9.9733,5.5456,4.4098,0.7190,9.4728,8.4751,-25.6764,-15.8728,1.8231,13.9580,-0.2881,10.3018,11.6852,18.5767,2.1510,-13.2165,18.1256
652.3438,-28.2768,-7.6219,5.3563,4.0109,8.9931,-0.1470,4.2313,7.4134,-27.0912,-19.2607,-0.7254,14.7399,4.3595,11.1038,7.9470,21.9181,7.1357,-16.2138,16.1995
656.2500,-29.0175,-9.5149,0.8306,2.7019,11.6170,-1.4748,-0.6725,6.9159,-27.7742,-21.4804,-4.0068,13.8887,6.5737,10.3384,3.6478,24.3580,10.5419,-18.1106,12.9420
660.1562,-29.0339,-10.5426,-2.3456,2.3918,11.5632,-3.8480,-3.4442,7.7655,-27.4751,-21.4290,-6.7797,11.6400,5.7962,9.3898,0.8667,25.6539,11.7265,-17.9121,9.6450
664.0625,-28.1551,-10.4246,-4.0610,2.5461,9.2636,-6.8318,-4.0879,9.2509,-25.9438,-19.1166,-8.3289,8.7163,3.0603,8.9224,0.5876,26.0775,11.1396,-16.0105,6.7323
667.9688,-26.0664,-9.0577,-5.3439,1.7693,5.9379,-9.1469,-4.4536,9.6563,-23.1317,-15.6842,-8.9246,6.0589,0.1018,8.3849,1.8186,25.7821,9.8058,-13.8490,3.4600
671.8750,-22.6935,-6.6312,-7.4415,-0.9279,2.7278,-9.5249,-6.7714,7.6352,-19.3265,-12.5186,-9.3817,4.4413,-1.9166,6.6103,2.3926,24.4510,8.4835,-12.7132,-1.2642
675.7812,-18.4355,-3.6904,-10.6994,-5.0727,0.0066,-7.5963,-11.7794,3.3915,-15.1176,-10.1652,-10.1764,4.1169,-3.1130,2.9975,0.7808,21.5683,7.1599,-12.6349,-7.6414
679.6875,-14.0267,-1.0177,-14.1629,-8.8374,-2.6197,-4.1428,-17.9217,-1.3236,-11.2044,-7.9618,-10.9417,4.6753,-4.5539,-1.7410,-2.6157,17.0711,5.2488,-12.3534,-14.4225
683.5938,-10.1329,0.6833,-16.2693,-10.3490,-5.6799,-0.5449,-22.2880,-4.4625,-8.1625,-4.7462,-10.8052,5.2145,-7.2240,-5.9273,-5.7972,11.7677,2.2906,-10.4300,-19.5866
687.5000,-7.0180,1.1473,-16.1135,-9.2126,-9.1410,2.1415,-22.6164,-5.2127,-6.2851,-0.0838,-9.2711,4.7777,-11.1360,-8.1041,-6.8614,7.0586,-1.4432,-6.6357,-21.7733
691.4062,-4.5422,0.7131,-14.2528,-6.9878,-12.2451,3.7966,-18.8502,-4.5686,-5.5450,5.0300,-6.8398,2.8428,-15.2472,-8.0881,-5.6401,4.0705,-4.9460,-2.4304,-21.3151
695.3125,-2.4478,0.1610,-12.3332,-6.1138,-14.0137,5.1230,-13.0870,-4.4437,-5.6342,8.6625,-4.7624,-0.4082,-18.1773,-7.0143,-3.8810,2.8317,-7.0853,-0.0377,-19.9986
699.2188,-0.6324,0.2968,-11.7470,-8.0194,-13.9906,6.9577,-8.0092,-6.0104,-6.0219,9.3370,-4.0680,-4.1986,-19.1056,-6.3287,-3.7828,2.1660,-7.3431,-0.7530,-19.6901
703.1250,0.8540,1.5292,-12.3589,-11.8747,-12.5960,9.5591,-5.0401,-8.6217,-6.0301,7.2471,-4.6547,-7.5738,-18.1491,-6.5605,-6.0843,0.4811,-6.0989,-3.8035,-20.8892
707.0312,2.0649,3.6849,-12.3669,-15.0275,-10.7960,12.3758,-3.6213,-10.2407,-4.9794,4.2804,-5.2340,-9.8582,-15.9933,-6.8963,-9.3123,-3.0449,-4.2406,-6.7188,-22.3438
710.9375,3.3599,6.1351,-9.5451,-14.8876,-9.3639,14.3990,-2.0662,-9.0996,-2.4330,2.7439,-4.2373,-10.8659,-13.1653,-5.9164,-10.8600,-7.7238,-2.4265,-7.0158,-22.0236
714.8438,5.2576,8.1146,-3.0228,-10.8726,-8.3495,14.7720,0.8144,-5.2813,1.5353,3.7181,-1.0034,-10.7759,-9.5963,-2.8891,-9.0538,-11.6338,-0.6026,-3.9611,-18.6805
718.7500,7.9574,9.0311,5.7389,-4.9179,-7.1894,13.2105,4.6709,-0.9139,6.2222,6.3011,3.6898,-9.8272,-4.8361,1.4435,-4.5314,-12.7900,1.8228,0.9254,-12.7829
722.6562,10.9104,8.6335,13.6045,-0.1188,-5.3425,10.0190,7.9557,1.2721,10.4757,8.3327,8.1652,-8.1167,1.2852,5.2484,0.1975,-10.4497,5.2812,5.0158,-6.1411
726.5625,12.8811,7.0378,17.7018,1.5021,-2.8877,5.8280,9.2747,-0.0233,13.1656,8.0435,11.0253,-5.6642,8.1320,6.8571,2.6519,-5.6842,9.3863,6.4934,-0.5862
730.4688,12.6069,4.6747,17.3097,0.4257,-0.5470,1.3376,8.5707,-3.6019,13.7209,5.3482,12.0343,-2.6592,14.3509,5.9038,2.1869,-0.8330,12.8848,5.5847,3.2249
734.3750,9.6662,2.1923,14.3355,-0.8165,0.9114,-2.7723,7.1640,-6.5246,12.4180,1.7881,12.0406,0.3781,18.5591,3.4655,0.2493,1.8037,14.3300,4.1861,5.9807
738.2812,4.9158,0.2880,12.0013,0.3715,1.3962,-5.8463,6.6670,-6.1744,10.2194,-0.8014,12.0744,2.7358,20.1454,1.1446,-1.0789,1.2026,13.0416,4.2213,8.8449
742.1875,0.1094,-0.5382,12.6392,4.6338,1.7076,-7.3604,7.7204,-2.1210,8.2345,-1.8174,12.4221,3.9059,19.6105,-0.1262,-0.9725,-1.9576,9.6717,6.0353,12.3591
746.0938,-3.1125,-0.2215,16.1470,10.1291,3.0108,-7.1802,9.5904,3.5662,7.1258,-2.3893,12.4552,3.9482,18.2138,-0.6059,-0.5683,-5.8594,5.9509,8.0788,16.0449
750.0000,-4.1816,0.8077,20.1846,13.8462,5.9438,-5.7782,10.8895,7.7419,6.8267,-4.4570,11.3269,3.5152,17.1982,-1.2457,-1.8733,-8.6454,3.7532,8.1080,18.9698
753.9062,-3.8371,1.8467,21.9425,13.7477,10.0591,-4.1316,10.7363,8.2687,6.7319,-9.1629,8.9000,3.4665,17.1303,-2.6788,-5.8159,-9.3370,4.0791,4.9519,20.6997
757.8125,-3.4736,2.3367,20.1905,10.1326,14.0546,-3.2220,9.3542,5.2662,6.2082,-15.8256,6.0784,4.3221,17.7583,-4.5958,-11.1308,-8.0828,6.5919,-0.5189,21.7487
761.7188,-4.0823,2.1986,16.1379,5.2572,16.6287,-3.4075,7.6745,0.7372,5.0642,-22.2841,4.2320,5.9349,18.3840,-6.0274,-15.0988,-5.7554,9.9443,-5.9421,23.1064
765.6250,-5.5493,1.8268,12.5238,1.5921,17.3017,-4.1283,6.4131,-2.9914,3.6670,-26.3259,4.1812,7.6073,18.3983,-6.2548,-15.5979,-3.3208,12.6053,-9.0772,25.2505
769.5312,-6.7940,1.7250,11.6425,0.0878,16.5742,-4.2378,5.5262,-4.7772,2.6574,-27.0860,5.5897,8.5480,17.5813,-5.5353,-12.7909,-1.4382,13.6141,-9.2491,27.5225
773.4375,-6.6025,2.0700,13.7598,-0.2688,15.3351,-2.7967,4.5420,-5.0732,2.4967,-25.3870,7.2718,8.3295,16.0191,-5.0120,-9.0288,-0.4569,12.8202,-7.5783,28.4608
777.3438,-4.5183,2.5854,17.0458,-1.3737,14.0346,0.2183,3.4028,-5.1358,3.1773,-22.8641,8.1544,7.0478,13.8057,-5.8762,-7.0124,-0.6221,10.5808,-5.9270,26.8817
781.2500,-1.1594,2.8728,19.0127,-4.3354,12.3119,3.8356,2.9259,-5.8267,4.2839,-20.6647,8.0906,5.1436,10.8345,-8.4865,-7.7008,-2.1712,7.2599,-5.4529,22.8546
785.1562,2.2074,2.9436,18.3441,-8.5336,9.3767,6.7468,4.3122,-6.9897,5.3170,-18.7712,7.8559,3.0967,6.8611,-12.1557,-9.6847,-5.1722,2.9440,-5.8850,17.7722
789.0625,4.4588,3.4549,15.7580,-12.0965,4.8042,8.2475,8.0246,-7.7928,6.0065,-16.4077,8.3581,1.2398,1.7666,-15.7389,-10.5292,-9.2457,-2.4460,-5.9977,13.4237
792.9688,5.1855,5.3318,13.2995,-13.3648,-0.9462,8.7647,13.0233,-7.6095,6.3781,-13.0721,9.7524,-0.2355,-4.2144,-18.4837,-8.9503,-13.4725,-8.8003,-4.8083,10.7681
796.8750,4.7001,8.9524,12.6516,-12.1914,-6.7487,9.5462,17.1535,-6.6499,6.5514,-9.2568,11.2252,-1.2120,-10.4935,-20.4247,-5.9786,-16.6636,-15.5534,-2.5114,9.3380
800.7812,3.6040,13.5141,13.7674,-10.1144,-11.6090,11.7084,18.5310,-5.8586,6.4685,-6.2421,11.6329,-1.6706,-16.3564,-22.0456,-4.1044,-17.8816,-21.7362,-0.4472,7.7021
804.6875,2.3264,17.1771,14.8628,-9.3327,-15.3875,15.3283,16.8677,-6.2534,5.8021,-5.1614,10.4536,-1.7974,-21.2402,-23.5860,-5.0982,-16.8742,-26.3212,-0.1894,4.6017
808.5938,0.9794,18.0546,13.7694,-11.2822,-18.8350,19.2590,13.6354,-8.2916,4.1376,-6.1453,8.2433,-1.9964,-24.8642,-24.6613,-8.3423,-14.1240,-28.6251,-2.4901,-0.1090
812.5000,-0.4657,15.4487,9.6240,-15.8180,-22.8822,21.8311,10.8758,-11.7246,1.2957,-8.2528,6.2129,-2.6588,-27.1560,-24.5443,-11.1321,-10.4935,-28.5212,-6.8436,-5.3862
816.4062,-1.9455,10.4476,3.6309,-21.4616,-27.7365,21.9595,9.5975,-15.9082,-2.4586,-10.2099,5.2802,-3.7852,-28.0837,-22.8349,-10.7884,-6.7412,-26.3766,-11.8842,-9.7530
820.3125,-3.2732,5.3844,-1.6740,-26.3726,-32.5064,19.8799,9.0885,-20.1631,-6.4869,-11.3087,5.3864,-4.7801,-27.5676,-19.8743,-6.9041,-3.2586,-22.8213,-16.2082,-12.2539
824.2188,-4.3181,2.4537,-4.1205,-29.2705,-35.6604,17.0107,7.7397,-23.8423,-10.0823,-11.7292,5.6260,-4.7097,-25.5568,-16.4935,-1.8861,-0.1742,-18.5283,-18.9899,-12.9011
828.1250,-5.1743,2.4095,-3.3362,-29.7392,-35.9664,15.0553,4.6924,-26.1595,-12.7883,-12.0906,5.0417,-2.9631,-22.1980,-13.3021,0.6971,2.3411,-14.1043,-20.0620,-12.3845
832.0312,-6.1040,4.2319,-0.9063,-27.9324,-33.1932,14.9719,0.8741,-26.1471,-14.5185,-12.7161,3.3814,0.1354,-17.9350,-10.1774,-1.3152,3.8951,-10.0657,-19.6198,-11.4022
835.9375,-7.2771,5.9562,0.8083,-24.1439,-28.0813,16.4833,-1.5614,-23.0217,-15.4376,-13.3201,1.1782,3.2984,-13.4238,-6.4653,-7.1987,4.0269,-6.8131,-17.9536,-10.1971
839.8438,-8.5568,6.0281,0.3090,-18.6760,-21.6963,18.3755,-1.0400,-16.8020,-15.7500,-13.3967,-0.8757,4.9903,-9.2964,-1.7712,-14.0798,2.5871,-4.5621,-15.4426,-8.6146
843.7500,-9.5749,4.2131,-2.1059,-12.0338,-14.7626,19.2943,1.8514,-8.6644,-15.5950,-12.9152,-2.6590,4.4543,-5.9302,3.3575,-19.2166,0.0167,-3.2792,-12.6820,-6.5170
847.6562,-10.0808,1.4848,-4.7118,-5.1089,-7.5274,18.4773,4.4188,-0.5967,-15.1148,-12.6063,-4.7620,2.2915,-3.3805,7.5389,-21.9549,-2.7521,-2.7026,-10.4333,-4.1144
851.5625,-10.2620,-0.8810,-5.6850,0.9837,-0.1884,16.0136,3.7041,5.5696,-14.5809,-13.4631,-7.8751,0.0867,-1.5090,9.4961,-23.8205,-4.7529,-2.4660,-9.2711,-1.9169
855.4688,-10.7034,-2.2198,-4.4027,5.3961,6.6143,12.6217,-1.2065,9.1286,-14.3921,-15.8025,-11.9559,-0.7216,-0.1926,9.1247,-26.7893,-5.4804,-2.2502,-9.1624,-0.3917
859.3750,-11.9318,-2.7101,-1.8344,7.9872,11.8071,9.2339,-8.2164,10.7629,-14.8674,-18.6996,-15.9473,0.0828,0.5583,7.7804,-31.2704,-5.0630,-1.8565,-9.3923,0.3255
863.2812,-13.8679,-2.8762,0.1574,9.3129,14.4980,6.6846,-13.4534,11.8752,-15.9655,-20.3810,-18.3852,1.3018,0.6585,7.4358,-35.5177,-4.0079,-1.1677,-9.0283,0.3995
867.1875,-15.6540,-2.9255,0.0386,10.1205,14.7074,5.5736,-13.8871,13.4678,-17.1801,-19.4006,-18.4647,1.2033,0.1132,9.2598,-36.9446,-2.7650,-0.0776,-7.6516,0.0051
871.0938,-16.0786,-2.5687,-2.4939,10.7348,13.5325,6.1818,-9.4227,15.4070,-17.7583,-15.7328,-16.6977,-1.1719,-0.8757,12.6854,-34.2084,-1.4928,1.4927,-5.7837,-0.9082
875.0000,-14.3514,-1.4703,-6.4401,10.8394,12.4860,8.3331,-2.9266,16.6231,-17.1416,-10.9065,-14.5717,-5.2808,-1.9843,15.7142,-28.3115,-0.2150,3.4568,-4.6009,-2.5391
878.9062,-10.6673,0.1419,-10.1569,9.8535,12.4505,11.2829,1.8182,16.0734,-15.3188,-7.0108,-13.4234,-9.5045,-2.9837,16.2809,-21.8258,0.8181,5.4171,-5.0693,-4.8987
882.8125,-6.1105,1.3609,-12.2179,7.6022,13.0809,13.8495,2.7018,13.7047,-12.8075,-5.2808,-13.3984,-12.4079,-3.9204,13.6867,-16.9336,0.9671,6.6923,-7.1299,-7.5433
886.7188,-1.9318,1.2018,-11.9571,4.7139,13.1890,14.8973,0.5579,10.6539,-10.2485,-5.3136,-13.3407,-13.8393,-5.0793,9.0519,-13.9429,-0.5000,6.6031,-9.5874,-9.6799
890.6250,1.2850,-0.5238,-9.5141,2.3710,11.8551,13.9856,-1.6979,8.5228,-7.9082,-5.4875,-11.7304,-14.9868,-6.7106,4.4875,-11.4773,-3.8091,4.8862,-10.8478,-10.6283
894.5312,3.9485,-2.8240,-5.5520,1.5571,9.3703,11.7599,-1.2749,8.2742,-5.4857,-4.2339,-7.9534,-17.3220,-8.7091,1.6433,-8.0820,-8.2661,1.9493,-9.9963,-10.2952
898.4375,7.0335,-4.0529,-0.9268,2.3591,7.1800,9.7300,2.6174,9.5745,-2.4080,-1.1742,-2.9064,-21.2539,-10.5113,0.7137,-3.7784,-12.4529,-1.2653,-7.4164,-9.2640
902.3438,11.2269,-3.0248,3.5421,3.8680,6.7720,9.4686,8.4893,11.0484,1.5903,2.7152,1.5437,-25.5599,-11.3446,0.5716,-0.1782,-15.0051,-3.7769,-4.4847,-8.3964
906.2500,16.2945,0.1269,7.2184,4.7703,8.3488,11.6925,13.8476,11.2229,6.0623,5.9555,3.8391,-28.0691,-10.6982,-0.1896,0.9545,-15.4423,-5.1067,-2.5737,-8.2376
910.1562,21.1428,4.0342,9.7734,4.1996,10.3893,15.8265,16.8899,9.4505,9.9830,7.6888,3.7833,-27.0998,-8.6856,-2.1789,-0.5760,-14.4133,-5.4686,-2.1223,-8.6764
914.0625,24.5164,7.0742,11.2604,2.2272,10.5819,20.3470,17.3791,6.1827,12.3827,8.1703,2.5963,-22.5791,-6.0129,-4.8918,-2.9433,-13.1260,-5.4511,-2.4732,-9.1036
917.9688,25.7920,8.4828,12.0431,-0.3375,7.5350,23.6741,16.3007,2.4936,13.0268,8.2925,1.9886,-16.0368,-3.5369,-7.2806,-3.6072,-12.3742,-5.4159,-2.5690,-8.9110
921.8750,25.2774,8.7362,12.5490,-2.6325,1.9875,25.0052,14.8874,-0.6993,12.6044,8.6100,2.9856,-9.5481,-1.7149,-8.6393,-1.3612,-11.9312,-5.0901,-1.9327,-7.9117
925.7812,23.8247,8.9392,12.9837,-4.3603,-3.4701,24.5573,13.9063,-3.1274,12.2232,8.7144,5.3544,-4.4799,-0.3536,-9.0723,2.5758,-10.8256,-3.7185,-1.1464,-6.3621
929.6875,22.1042,9.7714,13.2328,-5.8683,-6.0672,23.1370,13.6196,-5.0903,12.5433,7.4831,7.9471,-0.9662,1.1416,-9.2538,5.3799,-8.3105,-0.7271,-1.4452,-4.6175
933.5938,20.1318,10.8937,13.0694,-7.6722,-4.7432,21.4415,14.1010,-6.9888,13.2030,3.9885,9.5703,1.6210,3.1985,-9.7988,4.7524,-4.7402,3.5853,-3.7354,-2.7592
937.5000,17.4187,11.3092,12.5339,-9.8392,-0.8681,19.6393,15.3393,-8.8993,13.0289,-1.6683,9.6814,3.7582,5.6386,-10.8268,0.6845,-1.5735,7.9007,-7.7847,-0.5258
941.4062,13.6044,10.3507,12.1663,-11.7366,2.7591,17.4972,16.9644,-10.4920,10.9539,-8.2450,8.4886,5.2652,7.7383,-12.0300,-4.5244,-0.3918,10.5074,-12.1909,2.4131
945.3125,9.0391,8.4222,12.8330,-12.3572,3.9069,14.8584,18.0162,-11.2687,7.0080,-14.0183,6.5816,5.6157,8.7781,-13.0633,-7.9660,-1.6339,10.3519,-15.1475,6.1080
949.2188,4.8150,6.8187,15.1889,-10.9856,2.4242,12.0127,17.3021,-10.8692,2.6152,-17.6879,4.5511,4.7042,8.6586,-13.8128,-8.1564,-4.0641,7.8008,-15.4589,10.2227
953.1250,2.1714,6.7303,19.1175,-7.7330,0.1564,9.6340,14.3372,-9.2336,-0.1275,-18.8878,2.9011,3.2802,8.0619,-14.2972,-5.8273,-5.4943,4.5264,-13.1345,14.2407
957.0312,1.6798,8.2405,23.5590,-3.5827,-0.6461,8.3557,10.1491,-6.6024,0.2099,-18.0646,2.1504,2.5557,7.9538,-14.3788,-2.9779,-4.3201,2.5073,-9.2501,17.7563
960.9375,2.8034,10.1694,26.8981,0.0626,0.8000,8.3606,7.0683,-3.4691,3.3208,-15.9919,2.7796,3.2446,8.7470,-13.6847,-1.1136,-0.7498,2.7658,-5.2923,20.5529
964.8438,4.1632,10.9342,27.7073,2.0307,3.0900,9.3348,7.3256,-0.5407,7.1363,-13.3802,4.8699,4.8475,9.7648,-11.9239,-0.1782,3.2424,4.6878,-2.4773,22.4076
968.7500,4.3513,9.7638,25.4170,1.8659,3.6177,10.7993,11.3260,1.3807,8.9460,-10.7985,7.7065,5.8643,9.4896,-9.3440,1.0167,5.2818,6.4064,-1.4120,22.8762
972.6562,2.7587,7.3039,20.5508,-0.0511,0.5397,12.5070,16.9674,1.7009,6.9955,-8.7462,9.8378,4.8691,6.5256,-6.8337,3.3812,4.3116,6.0153,-2.1135,21.3906
976.5625,-0.1100,5.1352,14.4540,-2.7287,-5.7402,14.5448,20.7567,0.4486,1.5467,-7.5879,9.8026,1.6490,0.6461,-5.4301,6.4820,1.3932,2.8094,-4.1736,17.7258
980.4688,-3.0047,4.5969,8.7220,-4.9919,-12.6575,17.0629,20.1332,-1.5020,-5.2757,-7.3001,7.1455,-2.5049,-6.8337,-5.5389,8.7684,-1.0341,-2.2692,-6.8917,12.4875
984.3750,-4.7062,5.8550,4.6275,-5.9559,-17.0812,19.8992,15.3604,-2.7191,-10.7452,-7.3121,2.9475,-5.6308,-13.6886,-6.5310,8.8634,-0.9101,-7.2582,-9.4097,7.1193
988.2812,-4.7068,7.9252,2.7514,-5.4076,-17.2715,22.4740,9.5097,-2.0047,-13.0901,-6.7693,-0.6723,-6.4491,-18.0481,-7.1577,6.7529,1.9570,-10.4271,-10.9780,3.2282
992.1875,-3.4053,9.5671,2.8770,-3.9479,-13.8510,24.0962,6.4093,0.7577,-12.3816,-5.1912,-1.8816,-5.2153,-19.4623,-6.5558,3.8260,5.7623,-11.3058,-11.3419,1.5942
996.0938,-1.7598,10.2681,4.1336,-2.7583,-9.1979,24.4503,7.9723,4.3422,-10.2618,-3.0385,-0.3855,-3.4365,-19.0518,-5.0440,1.7433,8.0167,-10.8293,-10.9924,1.5907
1000.0000,-0.6733,10.5061,5.3575,-2.9932,-5.8026,23.8502,12.8480,6.8301,-8.7776,-1.6155,2.3389,-2.6944,-18.6551,-3.9838,1.1333,7.3220,-10.5657,-10.9706,1.5438
1003.9062,-0.4978,11.1250,5.5939,-5.0473,-4.7900,23.0261,17.3991,6.8402,-9.1203,-2.1904,4.0559,-3.4915,-19.5730,-4.7017,1.2364,4.3137,-11.6084,-12.1900,-0.1199
1007.8125,-0.9181,12.4166,4.5499,-8.1503,-5.5697,22.5986,18.2824,4.4937,-11.0441,-4.9012,3.3203,-4.9806,-21.7632,-7.2869,0.7547,1.1293,-13.8933,-14.6680,-3.7291
1011.7188,-1.2283,13.7374,2.7304,-10.6629,-6.6885,22.6629,14.7219,1.3588,-13.2283,-8.3390,0.4191,-5.7194,-23.9923,-10.2891,-0.9009,-0.1429,-16.3578,-17.2677,-8.1000
1015.6250,-0.7987,14.0083,1.0924,-11.0391,-7.1207,22.8092,8.8271,-0.6830,-14.2323,-10.2947,-2.9770,-4.8006,-24.7696,-11.6854,-3.0937,1.1334,-17.7549,-18.2727,-11.3974
1019.5312,0.5320,12.6697,0.3583,-8.9054,-7.0274,22.5303,3.8098,-0.8700,-13.3774,-9.2634,-5.1383,-2.4666,-23.3672,-10.4522,-4.6088,3.8705,-17.5100,-16.5082,-12.5066
1023.4375,2.3319,10.2555,0.4366,-5.4936,-7.5169,21.6331,1.5250,-0.2138,-11.0381,-5.6186,-5.5156,0.2131,-20.2356,-7.4960,-4.8340,6.2081,-16.0342,-12.2331,-11.8636
1027.3438,3.7606,8.0617,0.4189,-2.9983,-9.6991,20.2835,1.2064,-0.8020,-8.2748,-1.5032,-4.9382,2.2568,-16.5984,-5.1086,-4.3633,6.8860,-14.3285,-7.1023,-11.0691
1031.2500,3.9584,7.1480,-0.7460,-3.1657,-13.7727,18.6637,0.2777,-4.1832,-6.1519,0.5914,-4.6895,3.4958,-13.5930,-5.2458,-4.4548,6.0120,-13.2088,-3.1444,-11.5517
1035.1562,2.4533,7.4835,-3.3487,-6.0387,-18.7610,16.6006,-3.4868,-10.0009,-5.2035,-0.4417,-5.3015,4.5439,-11.5861,-7.9137,-5.8447,4.7472,-12.7113,-1.4512,-13.3215
1039.0625,-0.6016,7.9489,-6.5025,-9.7839,-22.9907,13.5805,-10.1498,-15.9371,-5.3215,-3.5790,-6.1177,6.1007,-10.0904,-10.9532,-8.0344,4.2777,-12.0707,-1.5387,-14.8296
1042.9688,-4.4726,7.2096,-8.6431,-11.8175,-24.9240,9.2212,-17.4785,-19.0899,-6.0167,-6.4933,-5.9945,8.2146,-8.2438,-11.4843,-9.7518,4.9214,-10.2529,-1.8628,-14.1067
1046.8750,-8.1527,4.7636,-8.6734,-10.5035,-23.8209,3.8151,-22.4810,-17.8469,-6.7982,-7.3291,-4.5124,10.1229,-5.4416,-7.9773,-10.1961,6.0089,-6.6614,-1.0943,-10.3315
1050.7812,-10.7903,1.3281,-6.8951,-6.2262,-19.9230,-1.5935,-23.3657,-12.9151,-7.4178,-6.0565,-2.5998,10.7776,-1.6894,-1.3849,-9.8953,6.5135,-1.5557,0.8358,-4.5984
1054.6875,-12.0299,-1.7291,-4.9284,-1.0438,-14.1897,-5.7948,-20.4893,-6.7655,-7.8835,-4.3606,-1.9423,9.6005,2.4845,5.5462,-10.2915,5.8424,4.0634,2.7356,0.7644
1058.5938,-12.0977,-3.4376,-4.5499,2.8384,-7.8175,-8.2838,-15.7556,-1.9051,-8.3153,-4.1805,-3.5908,6.8567,6.3971,10.2689,-12.3111,4.1699,8.9957,3.1866,3.8451
1062.5000,-11.5922,-3.9059,-6.2714,4.6464,-1.7820,-9.7024,-11.1313,0.7588,-8.7800,-6.0900,-6.9192,3.3828,9.5570,12.2052,-15.1852,2.1365,12.4582,1.7709,4.5078
1066.4062,-11.1018,-4.1149,-8.7807,5.4735,3.4505,-11.3924,-7.4896,2.2937,-9.2031,-8.8263,-9.8720,-0.0567,11.7963,12.9331,-16.7017,0.2594,14.4120,-0.5121,4.3910
1070.3125,-10.8608,-5.0336,-9.7870,7.2456,7.9754,-14.2835,-4.5432,4.6480,-9.3775,-10.3389,-10.4214,-3.2419,13.1916,14.6734,-14.8890,-1.4257,15.4339,-1.9960,5.5276
1074.2188,-10.6337,-6.7975,-7.7188,11.0166,12.2422,-17.9384,-1.6525,8.9722,-9.0440,-9.4825,-8.1331,-6.4456,13.9068,18.2968,-9.8141,-3.2409,16.2497,-1.6724,8.6484
1078.1250,-9.8831,-8.6020,-2.9960,15.9351,16.6446,-20.5586,1.3537,14.6325,-8.0071,-6.9575,-4.5816,-9.9673,14.0758,22.4446,-3.9176,-5.4393,17.2276,-0.0143,12.5052
1082.0312,-8.1140,-9.3501,2.1565,19.7160,21.0891,-20.0815,4.0540,19.6189,-6.2484,-4.7163,-2.2175,-13.6849,13.7527,24.4699,-0.4109,-7.8798,18.1388,1.3831,14.7625
1085.9375,-5.1944,-8.4882,5.2816,20.2812,24.8218,-15.6503,5.9831,21.9682,-3.9872,-4.3282,-2.5175,-16.9977,12.9079,22.4619,-0.8832,-10.0661,18.3211,1.0756,13.7816
1089.8438,-1.4676,-6.3531,5.4763,17.3034,26.7031,-8.3848,7.2078,21.0808,-1.6328,-5.6659,-4.8445,-19.1706,11.4601,16.7513,-4.0382,-11.4782,17.1378,-1.0662,9.9109
1093.7500,2.3963,-3.8006,4.0021,12.4373,25.8517,-0.8370,8.3190,17.9540,0.3860,-7.0294,-6.9241,-19.7614,9.3597,9.7047,-6.6654,-11.8947,14.4442,-3.7542,5.2715
1097.6562,5.7149,-1.4926,3.2308,8.0383,22.2642,4.5288,9.8284,14.2378,1.8421,-6.6376,-6.5884,-18.7959,6.7035,3.9574,-6.1639,-11.4634,10.7565,-5.3414,2.1972
1101.5625,8.0892,0.5356,4.7527,5.3528,16.9492,6.7690,11.5575,10.9264,2.8443,-4.2728,-3.4377,-16.6205,3.7955,0.4588,-2.6118,-10.5242,6.9891,-5.1975,1.5399
1105.4688,9.5161,2.6993,8.1569,3.5993,11.3932,6.8025,12.6515,7.7235,3.7682,-1.6904,0.8689,-13.6504,1.0484,-2.1583,1.3297,-9.3885,3.8995,-4.2805,2.1470
1109.3750,10.2738,5.3013,11.4659,0.6765,6.6634,6.4797,12.2956,3.5346,4.9965,-1.3815,3.9165,-10.2720,-1.2674,-6.4078,2.6589,-8.2559,1.5872,-4.4106,1.8982
1113.2812,10.6755,8.1328,12.8651,-5.0267,2.7785,7.1388,10.5555,-2.3744,6.6361,-4.6091,4.4090,-6.9358,-3.2558,-13.8922,0.6214,-7.2697,-0.6004,-6.7893,-0.5292
1117.1875,10.8643,10.6070,12.2994,-13.1142,-1.1510,8.7493,8.5899,-9.5126,8.4275,-10.2634,3.1575,-4.2239,-5.3691,-23.9228,-2.5055,-6.5741,-3.6367,-10.9208,-4.5475
1121.0938,10.7827,12.2916,11.5949,-21.1408,-6.0545,10.2294,7.9655,-16.2818,9.9463,-15.4683,2.4268,-2.6679,-8.0336,-33.8267,-3.1578,-6.2638,-8.0886,-14.7917,-8.0440
1125.0000,10.3164,13.3280,12.9586,-26.1125,-11.9259,10.5737,9.5459,-20.9684,10.9646,-17.5214,4.1674,-2.3484,-11.1333,-40.6517,0.5884,-6.2807,-13.5582,-16.1940,-8.9289
1128.9062,9.4809,14.3134,17.0539,-26.4335,-17.5119,9.8068,12.8063,-22.8320,11.6862,-15.7173,8.5033,-2.6093,-13.7711,-42.9678,7.2743,-6.4045,-18.7019,-14.2055,-6.6231
1132.8125,8.4741,15.7056,22.2343,-22.8945,-20.9994,8.9664,16.1193,-22.4827,12.6164,-11.7129,13.6185,-2.2460,-14.6240,-41.4925,12.9766,-6.4056,-21.8903,-9.7474,-2.3603
1136.7188,7.5165,17.2619,25.6090,-18.0435,-21.2937,9.1504,17.8158,-21.3292,14.0961,-8.2304,17.0776,-0.1998,-12.7984,-38.2379,14.2336,-6.2391,-22.1472,-4.8730,1.8508
1140.6250,6.5751,18.0398,25.1395,-14.4751,-18.9821,10.4493,17.2332,-20.5824,15.8170,-7.1471,17.5289,3.6550,-8.6486,-34.9888,10.6901,-6.0694,-19.7784,-1.3966,4.7118
1144.5312,5.1972,17.0397,21.1212,-13.3044,-16.2293,11.6873,15.0019,-20.5729,16.7259,-8.4075,15.5018,8.2242,-3.9158,-32.2980,5.3568,-6.0434,-16.2649,0.1027,6.3816
1148.4375,2.6476,14.0180,15.8874,-13.8358,-15.5704,11.2375,12.4259,-20.8030,15.5010,-10.4590,12.7740,11.7153,-0.9331,-29.6236,2.2657,-5.9896,-13.4474,0.2591,7.9669
1152.3438,-1.6500,9.8148,12.0022,-14.4678,-18.3552,8.2902,10.4937,-20.5464,11.3768,-11.6940,10.9051,12.6940,-1.2971,-26.2618,3.3769,-5.3639,-12.4941,0.0772,10.2851
1156.2500,-7.6141,5.8998,10.4029,-13.9959,-23.8726,3.5752,9.2793,-19.4348,4.7923,-11.6665,10.1278,10.9735,-4.8582,-22.1634,7.1777,-3.6028,-13.2911,0.0549,12.9928
1160.1562,-14.2953,3.4492,9.9583,-12.3296,-29.7406,-1.0430,8.1222,-17.5978,-2.6160,-11.1676,9.4193,7.7039,-9.7464,-17.9748,10.0519,-0.6778,-14.6270,-0.0483,14.8172
1164.0625,-20.1743,2.6452,8.7208,-10.2497,-33.2983,-3.7914,6.3385,-15.3806,-8.7563,-11.2609,7.5946,4.5917,-13.4838,-14.4049,9.2798,2.6187,-15.0256,-0.7509,14.6647
1167.9688,-23.8649,2.7190,5.7602,-8.6215,-33.0924,-4.1016,3.8398,-13.0203,-12.1438,-12.2182,4.4641,2.8080,-14.4779,-11.6074,5.2456,5.0058,-13.6727,-2.2317,12.6382
1171.8750,-24.8303,2.6740,2.0235,-7.8007,-29.5416,-2.7929,1.1782,-10.6125,-12.6330,-13.2881,1.1051,2.3705,-12.9108,-9.1753,1.0906,5.5475,-10.8487,-4.1405,10.0685
1175.7812,-23.6640,2.0990,-0.4850,-7.6337,-24.4655,-1.2667,-0.9565,-8.3398,-11.3653,-13.4389,-0.9513,2.4107,-10.4514,-6.7206,0.1116,4.4021,-7.6404,-5.9487,8.4957
1179.6875,-21.7311,1.4322,-0.4889,-7.8567,-19.9117,-0.4152,-2.3283,-6.6265,-9.9884,-12.3571,-0.9452,2.0573,-9.0353,-4.4347,2.9940,2.8560,-5.1835,-7.4327,8.4163
1183.5938,-20.3700,1.4951,1.3276,-8.3856,-17.0863,-0.1152,-3.3465,-5.9388,-9.6716,-10.7936,0.4445,1.1994,-9.5894,-3.0375,7.0806,2.4926,-3.9720,-8.7885,8.8161
1187.5000,-20.1428,2.7090,2.6923,-9.2145,-15.9854,0.3665,-4.7243,-6.3231,-10.5451,-9.9509,1.4960,0.5145,-11.5650,-3.0979,8.2562,4.0262,-3.6670,-10.2789,7.8830
1191.4062,-20.6002,4.6469,1.4352,-10.1189,-15.7703,1.5023,-6.8993,-7.1137,-11.8673,-10.4526,0.5837,0.7550,-13.5171,-4.3321,3.9916,6.6656,-3.4631,-11.7978,4.3514
1195.3125,-20.6964,6.2897,-2.8682,-10.5929,-15.4630,2.9671,-9.6713,-7.1915,-12.7139,-11.7970,-2.7827,1.9111,-14.2162,-5.5745,-4.7659,8.5542,-2.6996,-12.8395,-1.5507
1199.2188,-19.5695,6.7737,-8.6032,-10.2070,-14.4722,3.8978,-12.3101,-5.7332,-12.6572,-12.7632,-7.7222,2.9952,-13.4522,-5.5616,-14.2228,8.0407,-1.2926,-12.9602,-8.2402
1203.1250,-17.1730,6.0198,-13.3513,-9.0826,-12.7320,3.6872,-14.0223,-2.9134,-11.9756,-12.4175,-12.6151,2.7129,-12.0071,-3.9445,-20.3264,4.8837,0.2525,-12.2981,-13.8254
1207.0312,-14.3546,4.7425,-15.6045,-7.9618,-10.5699,2.5810,-14.4272,0.0453,-11.3176,-10.8582,-16.0661,0.5516,-10.9388,-1.6802,-21.3483,0.4855,1.1773,-11.5848,-17.2187
1210.9375,-12.3354,3.8445,-15.5967,-7.6566,-8.5297,1.5212,-13.7276,1.6305,-11.1415,-9.0816,-17.5344,-2.5810,-10.8054,-0.4112,-18.6557,-3.0475,0.8841,-11.5139,-18.5168
1214.8438,-11.9241,3.7030,-14.7016,-8.2699,-7.2457,1.3577,-12.5091,1.1120,-11.3667,-8.1057,-17.3246,-4.7659,-11.4132,-1.2687,-15.3311,-4.3428,-0.8210,-11.9656,-18.5175
1218.7500,-12.9513,3.9333,-14.0618,-8.9047,-7.2929,2.1195,-11.3437,-0.8768,-11.4596,-8.1103,-16.1355,-4.3555,-12.1815,-4.0363,-13.8580,-3.6381,-3.7231,-11.8395,-17.9292
1222.6562,-14.2623,3.8160,-13.6825,-8.2670,-8.9337,3.0127,-10.4589,-2.7371,-10.8260,-8.3085,-14.5942,-1.2553,-12.7186,-7.3487,-14.5891,-2.4548,-7.3328,-9.8069,-16.9705
1226.5625,-14.2757,3.0234,-12.7085,-5.8012,-11.8512,3.1813,-9.6494,-3.0385,-9.1777,-7.6193,-13.0611,2.7561,-13.0905,-9.7741,-15.9025,-2.3468,-11.0327,-5.4929,-15.5944
1230.4688,-11.8007,2.0213,-10.5027,-2.4329,-15.1114,2.5792,-8.4509,-1.5638,-6.6228,-5.5392,-11.6723,4.9972,-13.5948,-10.9066,-15.6335,-3.6990,-14.1895,-0.1134,-13.9516
1234.3750,-6.6766,1.7773,-7.4499,-0.1784,-17.5254,2.1506,-6.4666,0.5220,-3.4857,-2.4793,-10.4152,3.5644,-14.3075,-11.5833,-12.5727,-5.4950,-16.2670,4.0930,-12.5168
1238.2812,0.0917,2.9664,-4.7173,-0.7504,-18.2869,3.0730,-3.6773,1.5137,-0.0740,0.6649,-9.1170,-1.3947,-14.8476,-13.0515,-7.0545,-6.2100,-16.9624,5.3599,-11.6875
1242.1875,6.7759,5.2959,-3.2103,-4.1677,-17.4757,5.6334,-0.5737,0.3900,3.4033,3.2732,-7.4318,-7.6915,-14.5844,-15.7731,-0.5199,-5.1031,-16.3053,3.7229,-11.2477
1246.0938,11.7267,7.5210,-2.7325,-8.5033,-16.0202,8.6904,1.9901,-2.4861,6.7455,5.4007,-4.9811,-12.4042,-13.0993,-18.8535,5.3509,-2.8889,-14.6164,1.1107,-10.3029
1250.0000,14.1402,8.2122,-2.1829,-11.0894,-15.0618,10.2728,3.1938,-5.6797,9.6582,7.4991,-1.6599,-13.6249,-10.4913,-20.5795,9.2892,-1.2633,-12.2992,0.0274,-7.9056
1253.9062,14.3941,6.7574,-0.6578,-10.3521,-15.1256,8.9573,2.7160,-7.7179,11.7989,9.7730,2.1066,-11.5088,-7.2751,-19.6511,10.6745,-1.6623,-9.5861,1.7630,-3.9274
1257.8125,13.7577,3.8705,1.5638,-6.8937,-15.6983,4.9933,0.9852,-8.0311,12.9601,11.8067,5.4177,-7.9926,-3.9948,-16.1408,9.5606,-4.2152,-6.4497,5.4806,0.5918
1261.7188,13.6053,1.2079,3.1344,-2.9741,-15.5580,0.2671,-0.9904,-7.1209,13.2154,12.8244,7.3190,-5.4581,-0.9272,-11.4402,6.6916,-7.6845,-2.7915,8.8747,4.0280
1265.6250,14.5636,0.3259,2.8697,-0.7839,-13.6431,-2.9346,-2.1717,-5.9262,12.8510,12.3383,7.3338,-5.2877,1.8588,-7.2711,3.4136,-10.3963,1.2096,9.8755,5.3244
1269.5312,16.1029,1.6818,1.0431,-0.8596,-9.8269,-3.4629,-2.0868,-4.9888,12.0994,10.5642,5.7192,-7.2423,4.1920,-4.5627,1.2489,-11.4094,4.8959,8.0576,4.8015
1273.4375,16.8680,4.3539,-0.4874,-1.8830,-5.0067,-1.9940,-1.0541,-4.1200,10.8938,8.1952,3.2474,-9.9410,5.6163,-3.0488,1.1524,-11.0189,7.3402,4.6773,3.9261
1277.3438,15.5917,6.6466,0.3835,-1.9897,-0.4297,-0.3563,0.1706,-2.7891,8.8940,5.7338,0.6898,-11.9542,5.6281,-1.8063,2.8993,-10.2548,7.9351,1.3890,4.1689
1281.2500,12.0326,7.1453,4.2142,-0.4860,3.2276,-0.0474,1.0973,-0.8213,5.8233,3.0284,-1.5835,-12.6704,4.2222,-0.1866,5.1743,-9.8399,6.9877,-1.2263,5.8611
1285.1562,7.3002,5.5069,9.2969,1.4617,6.3055,-1.1111,2.0104,1.2547,1.8769,-0.4926,-3.5797,-12.3820,2.2700,1.6743,6.4896,-9.4815,5.8372,-4.0581,8.0030
1289.0625,3.2897,2.5072,12.7634,1.7562,9.7625,-2.2452,3.8194,2.5387,-2.1447,-5.0406,-5.3069,-11.6849,1.2837,3.1496,6.3544,-8.0711,6.2704,-8.4480,9.2109
1292.9688,1.5428,-0.5871,12.7654,-0.8348,14.2227,-2.0145,7.2604,2.4849,-5.1501,-9.8565,-6.4346,-10.7810,2.5732,3.8677,5.7705,-4.6257,9.5009,-14.6370,9.0158
1296.8750,2.2785,-2.8075,10.0032,-5.5039,19.2142,-0.1584,12.0112,1.3784,-6.3407,-13.4267,-6.3604,-9.2679,6.3350,4.1710,6.5460,0.7919,15.3446,-21.0508,8.3842
1300.7812,4.2708,-3.8814,7.2948,-9.8552,23.2260,2.0947,16.4597,0.1298,-5.6606,-14.4949,-4.6849,-6.5447,11.3616,4.8305,9.8453,6.9101,22.1671,-25.1326,8.9440
1304.6875,5.6853,-4.0517,7.4195,-11.6644,24.6036,2.9828,18.4754,-0.4561,-3.7827,-13.0879,-1.7020,-2.4525,15.6619,6.2541,15.0910,11.9813,27.7010,-25.1466,11.4966
1308.5938,5.3130,-3.5903,10.9000,-10.5526,22.6513,1.6798,16.7953,-0.3133,-1.6512,-10.6479,1.5687,2.4001,17.6103,7.9151,20.1556,14.8563,30.2408,-21.5288,15.0667
1312.5000,3.3372,-2.4719,15.5016,-8.2318,18.1318,-0.9158,12.0909,-0.1044,0.0680,-9.0261,3.9349,6.8895,16.8213,8.5729,22.8069,15.6056,29.4498,-16.6682,17.3814
1316.4062,1.0924,-0.4791,17.8984,-7.1246,12.7783,-2.7426,6.8765,-0.5700,1.2227,-9.0516,4.8064,10.0064,14.1373,7.1783,22.3388,15.2634,26.2760,-13.2371,16.5249
1320.3125,0.0015,2.4004,16.2242,-8.4660,8.1622,-2.0869,4.1499,-1.8101,1.9636,-9.8253,4.5908,11.3826,10.7852,3.7397,20.1057,14.9475,22.0883,-12.3473,12.5060
1324.2188,0.4821,5.6896,11.5071,-11.3970,4.7324,1.1197,5.5511,-3.1408,2.3355,-9.3825,4.3682,11.3576,7.3916,-0.5872,18.4943,15.0524,17.6873,-12.9519,7.4512
1328.1250,1.6349,8.5686,6.8689,-13.7366,1.7103,5.2276,10.2360,-3.6859,2.0741,-6.2844,5.0541,10.6140,3.6356,-4.2965,19.0992,15.1024,12.9017,-12.9109,4.1802
1332.0312,1.9402,10.3961,5.1525,-13.7598,-2.1088,8.0824,15.2589,-3.2098,0.8233,-0.9018,6.6851,9.7236,-1.2063,-6.5890,21.5188,14.3063,7.0258,-10.8166,4.2078
1335.9375,0.4335,11.2023,6.8676,-11.5215,-7.2671,8.5862,17.2948,-2.4545,-1.4033,4.6681,8.3907,8.9485,-7.3017,-7.8328,23.7141,12.3195,-0.2837,-7.0984,6.7126
1339.8438,-2.5229,11.7280,10.0377,-8.6899,-13.0795,7.4138,14.6381,-2.6320,-3.9445,8.0564,9.0895,8.3598,-13.7114,-9.0641,23.6451,9.6015,-8.3731,-3.5578,9.2835
1343.7500,-5.4409,12.9200,11.9616,-7.0993,-18.0068,6.3648,8.2204,-4.4408,-5.7084,8.3491,8.3749,8.0529,-18.7523,-10.9720,20.8921,7.1182,-15.7334,-1.7868,9.8537
1347.6562,-6.7136,15.2266,11.3762,-7.2684,-20.6869,6.9004,1.0152,-7.4190,-5.7989,6.7363,6.8932,8.1903,-21.0419,-13.2447,16.9998,5.6571,-20.8380,-1.8199,8.2892
1351.5625,-5.6737,18.2209,9.2589,-8.1052,-20.8761,9.0256,-3.7725,-10.2162,-4.1046,5.5623,5.9009,8.8235,-20.4362,-14.8464,14.3035,5.3025,-23.0683,-2.1390,6.3730
1355.4688,-2.9488,20.8529,7.7099,-7.9834,-19.6325,11.3666,-4.5820,-11.6209,-1.3921,6.5149,6.3256,9.7064,-18.1336,-14.9830,14.1853,5.4483,-23.0481,-1.0013,6.2106
1359.3750,0.0773,22.1579,7.9610,-6.2219,-18.6303,12.3248,-2.2948,-11.5312,1.1915,9.3745,8.0406,10.3506,-15.8536,-13.9029,16.1073,5.2911,-22.1495,2.0411,8.3570
1363.2812,2.2205,21.8961,9.2404,-3.6915,-19.0930,11.3429,0.4725,-11.0488,2.8470,12.2894,9.8999,10.3513,-14.7053,-12.7874,18.0997,4.3926,-21.5399,5.7011,11.1886
1367.1875,3.1372,20.6508,9.4352,-2.0454,-21.0648,9.2696,1.0618,-11.5607,3.5412,13.3189,10.5013,9.7235,-14.5812,-12.7539,18.2283,2.9014,-21.4588,7.9550,12.0446
1371.0938,3.2425,19.3249,6.9426,-2.2588,-23.4623,7.5650,-1.6294,-13.5083,3.8220,11.9807,9.1030,8.9198,-14.4820,-13.7845,15.8641,1.3337,-21.2182,7.6412,9.2487
1375.0000,3.1015,18.4391,2.1102,-3.7369,-24.7995,7.0322,-6.5992,-15.8428,4.2112,9.5611,6.0358,8.4498,-13.4540,-14.5180,11.8571,0.1662,-19.8679,5.3377,3.4168
1378.9062,2.8681,17.7703,-2.9511,-4.7609,-24.0644,7.1285,-11.4998,-16.6651,4.6842,7.9731,2.3665,8.3831,-11.3748,-13.1753,7.6667,-0.4038,-16.9886,2.8196,-2.9588
1382.8125,2.2233,16.5918,-6.0011,-3.8909,-21.1994,6.4192,-14.1586,-14.6119,4.6554,8.1321,-0.8612,8.1820,-8.9928,-8.9478,4.2974,-0.3754,-13.0185,1.5810,-7.2937
1386.7188,0.7841,14.2950,-6.3580,-1.1437,-16.9720,3.7933,-13.8995,-9.9363,3.4677,9.1970,-3.2103,7.0782,-7.2493,-2.7494,1.8968,0.3083,-8.9098,1.6696,-8.6495
1390.6250,-1.4469,10.8900,-5.2487,2.0360,-12.4347,-0.5567,-11.8708,-4.4302,0.9776,9.2983,-4.8658,4.7594,-6.4783,3.3072,0.1750,1.8747,-5.4230,1.7848,-8.1071
1394.5312,-4.0068,6.9993,-4.6014,3.9582,-8.3761,-5.2005,-10.2229,-0.2203,-2.2389,7.1455,-6.1826,1.8174,-6.1353,7.3476,-0.9349,4.5310,-2.6208,0.5176,-7.5923
1398.4375,-6.3114,3.3879,-5.3782,4.0039,-5.0738,-8.5439,-10.6789,1.6564,-5.2148,3.1880,-7.2217,-0.4696,-5.2487,8.9881,-1.0828,8.1001,0.0686,-2.3452,-8.1994
1402.3438,-8.0625,0.4358,-6.8854,2.9703,-2.3933,-10.0610,-13.3990,1.8266,-7.1800,-0.6297,-7.6779,-0.9505,-3.1979,9.4345,0.0634,11.8147,3.3054,-5.5590,-9.3917
1406.2500,-9.3378,-2.0226,-7.5925,2.1969,-0.0615,-10.7095,-16.8479,1.8978,-7.9459,-2.3252,-7.2217,0.5484,-0.1853,10.3707,2.2539,14.5278,7.2551,-7.4160,-9.6590
1410.1562,-10.3081,-4.4031,-6.6611,2.2809,2.1025,-12.2006,-18.7579,3.0948,-7.8259,-1.3805,-5.9045,2.9799,2.9434,12.5387,4.6158,15.2840,11.4097,-7.1473,-7.9858
1414.0625,-10.9017,-6.9226,-4.7864,2.5339,4.1050,-15.6964,-17.5897,5.2994,-7.2250,0.9039,-4.2424,4.6660,5.3406,15.1432,6.2756,13.8895,14.9196,-5.5538,-4.8471
1417.9688,-10.7982,-9.4094,-3.6011,1.6703,5.8242,-20.9410,-13.5695,7.2263,-6.2936,2.4565,-2.8914,4.3365,6.7182,16.5378,7.1027,11.0742,17.1522,-4.3435,-1.9005
1421.8750,-9.8066,-11.5267,-4.1948,-0.8779,7.1063,-26.4665,-8.6272,7.5444,-4.9381,2.0185,-2.1981,1.9008,7.4086,15.6097,7.8369,8.0936,18.0503,-4.7374,-0.6744
1425.7812,-8.2714,-13.1739,-6.1048,-4.1994,7.8561,-30.6613,-5.2527,6.0045,-3.1343,0.0058,-2.0170,-1.5610,7.9491,12.7263,9.3783,6.0109,18.0600,-6.5080,-1.3836
1429.6875,-7.0440,-14.6491,-7.7197,-6.4346,8.1004,-32.8319,-4.9929,3.6559,-1.2028,-1.9807,-1.9367,-4.5270,8.5986,9.4752,11.8128,5.1289,17.7410,-8.2313,-2.8573
1433.5938,-6.9074,-16.3704,-7.7650,-6.2329,8.0054,-33.4482,-7.5585,1.9885,0.2627,-2.5205,-1.6947,-5.9256,9.2018,7.4222,14.0815,4.9445,17.3899,-8.5149,-3.5967
1437.5000,-7.8599,-18.3661,-6.5360,-3.9469,7.8172,-33.4580,-11.1121,1.7104,0.8026,-1.4694,-1.3869,-5.5911,9.4630,6.8989,14.7203,4.6319,16.9460,-7.1609,-3.0232
1441.4062,-8.8870,-20.0043,-5.7119,-1.5426,7.7129,-33.3102,-13.5131,2.1521,0.4955,0.0708,-1.2786,-4.0841,9.3142,6.7927,13.1567,3.6983,16.1827,-5.3091,-1.8548
1445.3125,-8.5338,-20.2762,-6.8222,-1.2339,7.6289,-32.5349,-13.6481,1.7693,-0.0128,0.7914,-1.4000,-2.1690,8.9965,5.4790,10.4668,2.3440,14.9648,-4.4789,-1.3316
1449.2188,-5.9461,-18.4924,-9.6701,-3.8967,7.1921,-30.2315,-11.9367,-0.6669,0.0669,0.2827,-1.3361,-0.4203,8.7640,2.1142,8.8245,1.2867,13.3407,-5.3468,-2.0131
1453.1250,-1.6062,-14.8673,-12.1537,-8.4997,5.8659,-26.0408,-9.7221,-5.1377,1.1007,-0.7358,-0.4714,0.8090,8.5044,-2.7581,9.9257,1.1997,11.4289,-7.2841,-3.2229
1457.0312,2.8483,-10.4992,-11.7843,-12.9617,3.2820,-20.7650,-8.0810,-10.4084,2.7710,-1.2077,1.4637,1.2209,7.6855,-7.7329,13.5817,2.1861,9.2577,-8.9988,-3.6284
1460.9375,5.6599,-6.7055,-7.7211,-15.6942,-0.4246,-16.0765,-7.0048,-14.9387,4.3391,-0.8112,4.0182,0.5484,5.7650,-11.7061,17.6640,3.6736,6.7524,-9.6780,-2.4276
1464.8438,6.1022,-4.1941,-1.6042,-16.5773,-4.5242,-13.4943,-5.5855,-17.9034,5.2258,-0.3334,6.2101,-1.1846,2.7694,-14.6703,19.5758,4.7988,3.9037,-9.6194,-0.0743
1468.7500,4.8953,-2.6994,3.6189,-16.6449,-7.9633,-13.4027,-3.0217,-19.5235,5.4441,-0.9918,7.2253,-3.3554,-0.4659,-17.4926,18.1987,4.9929,0.9543,-9.8160,2.1296
1472.6562,3.5827,-1.3588,6.0118,-16.8688,-9.8836,-14.8599,0.4252,-20.5336,5.5335,-3.2808,7.1034,-4.7912,-2.6859,-20.9118,14.8106,4.3398,-1.6094,-10.8922,3.2344
1476.5625,3.3634,0.4804,6.2278,-17.1744,-10.0817,-16.3239,3.3834,-21.3375,6.0511,-6.3590,6.8186,-4.3422,-3.0285,-24.6679,12.2107,3.4578,-3.3192,-12.3720,3.5660
1480.4688,4.2701,2.6787,6.9836,-16.5667,-9.1177,-16.7146,4.3686,-21.6302,7.0326,-8.5638,7.5904,-1.6718,-1.6791,-27.5517,12.6640,3.0070,-4.0668,-12.9806,4.4981
1484.3750,5.2869,4.4160,10.7501,-14.2379,-7.9972,-16.0036,3.0794,-20.8071,7.8647,-8.6871,9.8838,2.3320,0.1481,-28.3654,16.2185,3.2034,-4.2467,-11.7729,7.1844
1488.2812,5.2380,4.8959,17.4883,-10.6299,-7.6245,-14.9332,0.9138,-18.7540,7.6819,-6.9719,12.8746,5.9389,0.9406,-26.9689,20.6882,3.7013,-4.5444,-9.1250,11.3114
1492.1875,3.6974,4.0591,24.3078,-7.4286,-8.3641,-14.1814,0.1683,-16.2470,5.9944,-4.9788,14.8724,7.5971,-0.1582,-24.4790,23.3197,3.9304,-5.4793,-6.6754,15.0014
1496.0938,1.2074,2.7157,27.4412,-6.3751,-9.9491,-13.7098,2.4027,-14.5180,3.0782,-4.3741,14.4880,6.9291,-2.8293,-22.3840,22.8636,3.6272,-7.0139,-6.1587,16.0872
1500.0000,-1.2915,1.9820,25.0615,-7.8332,-11.7323,-12.8392,7.1724,-14.2823,-0.1465,-5.5872,11.7245,5.0042,-5.8278,-21.2675,20.4663,3.1575,-8.5086,-8.0161,13.8211
1503.9062,-3.2691,2.4721,18.7466,-10.3325,-13.0652,-10.9621,12.1402,-15.0501,-2.6448,-7.4211,8.1579,3.6880,-7.7893,-20.2206,18.7246,3.3799,-9.0670,-10.9190,9.6372
1507.8125,-4.9450,3.8853,12.4082,-11.5598,-13.5642,-8.2533,14.5842,-15.3749,-3.8244,-7.9580,5.9968,4.5201,-8.0100,-17.5058,19.6651,5.1340,-8.0476,-12.6552,6.2715
1511.7188,-6.9047,5.2947,9.4729,-10.0907,-13.1649,-5.7322,13.2519,-13.9424,-3.7731,-6.0644,6.6367,7.8746,-6.7039,-12.0219,23.2187,8.7082,-5.4187,-11.7473,5.8363
1515.6250,-9.3807,5.8758,10.4689,-6.5126,-12.0422,-4.5647,9.2034,-10.6814,-3.0904,-2.3124,9.7203,12.9003,-4.6726,-4.4321,27.3395,13.6446,-1.7635,-8.5687,8.2960
1519.5312,-11.8640,5.4807,12.8407,-3.0437,-10.5326,-5.1336,5.0109,-6.9933,-2.5028,1.4171,13.3815,18.1416,-2.7382,2.9742,29.6209,18.9914,2.0156,-5.0949,11.5174
1523.4375,-13.4056,4.6300,13.0705,-1.9319,-9.1075,-6.6285,2.8997,-4.8537,-2.5233,3.3425,15.5011,22.3001,-1.3847,7.6455,29.1146,23.7985,5.0765,-3.4839,12.8481
1527.3438,-13.3511,3.9946,9.4068,-3.8752,-8.3256,-7.5315,3.2044,-5.4289,-3.3040,3.0956,15.0772,24.6273,-0.7848,8.3691,26.9472,27.5069,6.8954,-4.5769,10.9990
1531.2500,-11.8769,3.8428,3.0893,-7.6636,-8.6639,-6.6857,4.2635,-8.2527,-4.6579,1.9156,12.7385,24.8517,-1.0305,5.9306,25.2991,30.0043,7.3349,-7.4471,6.8001
1535.1562,-9.8784,3.9015,-2.7979,-11.2450,-10.2455,-4.1793,3.7756,-11.5887,-6.1683,1.5822,10.0699,22.9477,-2.2503,2.3932,25.5851,31.3868,6.5901,-10.2779,2.3136
1539.0625,-8.3275,3.6790,-5.8367,-13.2902,-12.6307,-1.3951,0.5409,-13.6794,-7.3442,2.9419,8.2905,19.0933,-4.4644,-0.3887,27.2652,31.6804,5.1005,-11.8139,-0.9065
1542.9688,-7.6590,2.8950,-6.1225,-13.9856,-14.8736,-0.1767,-4.7358,-13.9020,-7.8285,5.1962,7.2874,13.8482,-7.3399,-1.8598,28.1883,30.7618,3.4451,-12.2197,-2.9876
1546.8750,-7.6840,1.6184,-6.0262,-14.4792,-15.8983,-1.6824,-10.1318,-12.9490,-7.6157,6.5138,5.7233,8.2577,-10.1423,-2.6881,26.1819,28.5257,2.1859,-12.7085,-5.4291
1550.7812,-8.0246,0.0428,-8.1359,-15.5420,-15.0125,-5.6866,-14.0481,-11.9539,-7.1434,5.4899,2.1322,3.5826,-12.0307,-3.7276,20.6800,25.1266,1.6569,-14.3115,-9.6201
1554.6875,-8.5962,-1.7944,-13.0605,-16.6427,-12.2433,-10.7418,-16.3301,-11.3385,-7.1098,2.3176,-3.8090,0.7056,-12.5229,-4.9853,13.1985,21.0682,1.7957,-16.8321,-15.4268
1558.5938,-9.6425,-3.9877,-18.8174,-16.2504,-8.2744,-15.0192,-18.0788,-10.3679,-8.0376,-1.2400,-10.7656,-0.3631,-11.7749,-5.4956,6.3724,17.0500,2.1565,-18.8469,-21.0014
1562.5000,-11.2924,-6.4068,-22.2372,-13.1195,-4.0322,-17.2487,-20.3628,-7.7993,-9.8398,-3.0619,-16.3717,-0.4326,-10.4334,-4.1923,2.3162,13.6805,2.1582,-18.7468,-23.9644
1566.4062,-13.1075,-8.3850,-21.2580,-7.4730,-0.2115,-17.2181,-22.9596,-3.0901,-11.7420,-2.1571,-18.5820,-0.4937,-9.1608,-1.0077,1.4825,11.2625,1.4440,-15.9789,-23.0270
1570.3125,-14.1549,-8.9011,-16.3653,-1.0697,2.9399,-15.6690,-24.2430,2.8533,-12.7174,0.6681,-16.8539,-0.9633,-8.2009,2.7792,2.7231,9.7700,0.1096,-11.5076,-18.8196
1574.2188,-13.6766,-7.3045,-10.1786,3.9361,5.4734,-13.8086,-22.4018,8.0570,-12.2011,3.4239,-12.4209,-1.4305,-7.3241,5.2953,4.3239,8.9661,-1.3796,-7.1535,-13.3664
1578.1250,-11.8268,-4.0820,-5.6169,6.4436,7.4076,-12.7877,-17.0570,10.7477,-10.5641,4.3336,-7.5447,-1.1437,-6.1750,5.3600,5.1369,8.5062,-2.5398,-4.3503,-8.7079
1582.0312,-9.7800,-0.9693,-4.0638,7.0124,8.5224,-13.3596,-9.9579,10.5401,-8.9261,2.9819,-4.2744,0.1463,-4.7067,3.2830,5.0147,7.9398,-3.2255,-3.2821,-5.7558
1585.9375,-8.9737,-0.1087,-4.7980,7.1720,8.4623,-15.7288,-4.0988,8.6162,-8.3562,0.4262,-3.4645,1.7125,-3.3130,0.5398,4.4193,6.6890,-3.7042,-3.0112,-4.1504
1589.8438,-9.9963,-2.7075,-5.8947,8.0318,7.0533,-19.5202,-1.8206,6.7562,-9.0159,-1.7038,-4.5467,2.2118,-2.5255,-1.4003,3.7401,4.1744,-4.3681,-2.4072,-3.0179
1593.7500,-12.0162,-8.1381,-5.7413,9.3379,4.5495,-23.8726,-3.2830,5.9804,-9.9169,-2.3750,-6.0397,0.6622,-2.5214,-2.1414,2.9932,0.1648,-5.2991,-1.0837,-1.8449
1597.6562,-13.2971,-14.2058,-4.0295,9.7246,1.5731,-27.7211,-6.4603,5.8515,-9.5597,-1.7255,-6.4063,-2.7202,-2.8627,-2.4759,2.1250,-4.8142,-6.0412,0.3857,-0.7433
1601.5625,-12.4878,-18.4922,-1.6770,7.9184,-1.2293,-30.2603,-8.6902,4.9515,-7.0473,-0.7189,-4.7877,-6.5218,-2.7169,-3.4935,1.5338,-9.3508,-5.8002,1.0678,-0.0342
1605.4688,-9.7061,-19.8587,0.0037,3.8770,-3.5476,-31.3894,-8.6376,2.1109,-2.8572,-0.2628,-1.3322,-9.0207,-1.4159,-5.4577,2.1867,-11.5633,-3.9601,0.5221,0.2924
1609.3750,-6.5342,-19.0431,0.1346,-1.0728,-5.4955,-31.8230,-7.2181,-2.6039,1.3449,-0.5287,2.9361,-9.3089,1.0700,-7.4058,5.0548,-9.9892,-0.5446,-0.8232,0.6367
1613.2812,-4.8702,-17.9325,-1.4256,-5.2020,-7.3550,-32.6858,-6.8037,-7.9138,3.7688,-0.9616,6.5985,-7.7988,4.1117,-7.8294,10.2242,-4.4956,3.7291,-2.0599,1.3006
1617.1875,-5.4957,-18.0831,-4.2720,-7.6532,-9.1985,-34.7551,-9.3202,-12.2999,3.6910,-0.8796,8.4943,-5.7577,6.8613,-5.9012,16.4265,3.3793,7.8594,-2.5964,1.9767
1621.0938,-7.4765,-19.6097,-7.7600,-9.0029,-10.7183,-37.8296,-14.6625,-15.1188,1.8971,-0.1145,8.3022,-4.2837,8.8016,-2.2702,21.5108,10.9751,11.1371,-2.6855,1.8085
1625.0000,-8.8793,-21.2515,-11.1587,-10.6906,-11.4244,-40.7050,-20.6087,-16.9744,0.0506,0.8183,6.7734,-3.5600,9.9738,1.2162,23.6849,15.7422,13.4672,-3.2547,0.0899
1628.9062,-8.2583,-21.4992,-13.7162,-13.8140,-11.0592,-41.8623,-24.2911,-19.0915,-0.5391,1.1073,5.4103,-2.9501,10.7309,2.6573,22.7059,16.4907,15.2108,-5.1928,-2.9803
1632.8125,-5.7613,-19.8554,-14.8516,-18.2611,-9.8777,-40.4661,-24.1415,-22.2376,0.1780,0.2215,5.6437,-1.7762,11.2555,1.2521,20.1331,13.9251,16.6961,-8.6736,-6.2167
1636.7188,-3.0098,-17.2391,-14.4886,-22.8272,-8.5269,-37.0072,-20.9051,-26.0674,1.0739,-1.7937,7.9107,-0.0628,11.2786,-2.3586,18.3628,10.1419,17.8049,-13.0344,-8.2337
1640.6250,-1.8776,-15.2587,-13.2327,-26.1399,-7.5850,-33.1219,-17.0309,-29.3741,0.8170,-4.4848,11.2293,1.4102,10.2629,-6.7136,19.0400,7.3890,17.9767,-17.2497,-8.5054
1644.5312,-3.1397,-14.9735,-12.0635,-27.5926,-7.1076,-30.6767,-14.9382,-30.9843,-1.0301,-7.4024,13.6686,1.7773,7.9236,-10.5359,21.9373,6.8348,16.6411,-20.5735,-7.7825
1648.4375,-6.0267,-16.1357,-11.5942,-27.5559,-6.5584,-30.7094,-15.4371,-30.5469,-3.6296,-10.3635,13.5529,0.8861,4.6631,-13.3356,25.1135,8.0684,13.7477,-22.8338,-7.4200
1652.3438,-8.9621,-17.4756,-11.4314,-26.7953,-5.2178,-32.9199,-17.4001,-28.6219,-5.4687,-13.3556,10.6691,-0.4824,1.5347,-15.2617,26.2791,9.5828,9.9784,-24.2129,-8.0990
1656.2500,-10.8251,-17.7372,-10.2617,-25.6928,-2.7871,-36.0084,-18.8125,-26.0963,-5.4613,-16.2323,6.6106,-1.1720,-0.2966,-16.5160,24.4277,9.8760,6.4583,-24.7997,-9.0194
1660.1562,-11.7172,-16.6057,-6.7989,-23.9771,0.2643,-38.5785,-18.3265,-23.4979,-3.7172,-18.5475,3.8895,-0.5234,-0.2459,-16.9626,20.5794,8.4473,4.1494,-24.3735,-8.3473
1664.0625,-12.6808,-14.8113,-0.9793,-21.1628,2.8913,-39.9601,-16.1391,-20.7871,-1.4413,-19.7446,4.3031,1.1648,1.3223,-16.2955,17.0951,6.0723,3.3360,-22.6324,-4.6945
1667.9688,-14.7017,-13.4061,5.5631,-17.2424,4.0873,-40.4176,-13.6060,-17.7250,-0.1036,-19.5731,7.6502,2.9502,3.2944,-14.5460,16.0411,4.2276,3.5271,-19.6467,1.5123
1671.8750,-17.8770,-12.8732,10.2843,-12.9531,3.4898,-40.6858,-11.9936,-14.3874,-0.5323,-18.3662,11.7451,4.0340,4.4275,-12.3675,17.7673,4.0810,3.8022,-16.0844,7.9470
1675.7812,-21.4183,-12.8097,11.3635,-9.3353,1.5505,-41.2496,-11.4113,-11.2939,-2.5640,-16.9004,13.8164,4.3391,3.9733,-10.7314,20.7065,5.7159,3.3359,-12.9406,11.8097
1679.6875,-24.4041,-12.3918,9.0117,-6.9595,-0.8340,-41.9197,-10.7790,-9.0258,-5.3927,-15.9036,12.3743,4.4146,1.9337,-10.2345,22.5201,8.0821,1.7662,-10.9369,11.7734
1683.5938,-26.5653,-11.1632,5.4039,-5.5265,-2.9424,-41.9888,-8.8400,-7.7154,-8.2312,-15.5921,8.2368,4.8093,-1.1312,-10.6228,21.7408,9.6859,-0.7650,-10.0753,8.9632
1687.5000,-28.3962,-9.4446,3.1683,-4.2371,-4.6436,-40.8053,-5.3912,-6.9399,-10.7388,-15.6113,3.9616,5.5222,-4.5228,-11.0025,18.7267,9.5615,-3.8223,-9.7298,6.1531
1691.4062,-30.5143,-8.0255,3.4911,-2.6431,-6.3292,-38.3165,-1.7158,-6.1744,-12.9593,-15.4197,2.0715,6.0364,-7.7358,-10.6163,15.2720,7.8980,-6.9323,-9.2198,5.7230
1695.3125,-32.8648,-7.4318,5.2666,-1.2242,-8.4574,-35.1876,0.1926,-5.4082,-14.9525,-14.7763,3.3446,5.8940,-10.5315,-9.5345,13.2311,5.9287,-9.7247,-8.3912,7.9019
1699.2188,-34.5089,-7.4221,5.9808,-1.1229,-11.0876,-32.4285,-0.9212,-5.3115,-16.5217,-13.8972,6.4053,5.2569,-12.8101,-8.6287,13.2171,5.1606,-11.9468,-7.7064,10.6416
1703.1250,-34.2280,-7.1523,3.7008,-3.1790,-13.7643,-30.7946,-4.5433,-6.7007,-17.2792,-13.1348,8.8834,4.8955,-14.4721,-8.7878,14.3344,6.4370,-13.4371,-7.7520,11.2180
1707.0312,-31.4678,-5.8709,-1.3479,-7.0532,-15.8268,-30.3547,-8.6115,-9.7007,-16.9468,-12.4733,9.2374,5.5624,-15.4009,-10.0164,15.0673,9.4253,-14.1274,-8.5874,8.3212
1710.9375,-26.8434,-3.5640,-6.8584,-11.2300,-16.8926,-30.4729,-10.9101,-13.3557,-15.5857,-11.3373,7.8432,7.2810,-15.5543,-11.2296,14.5590,12.8437,-14.0576,-9.5299,3.0148
1714.8438,-21.7838,-1.0225,-10.1658,-14.0133,-17.1486,-30.1838,-10.6698,-16.1409,-13.5488,-8.9695,6.5298,9.1935,-15.0488,-11.0255,13.2459,15.2654,-13.3446,-9.6356,-2.1665
1718.7500,-17.5980,0.7049,-10.3239,-14.7845,-17.2442,-28.7239,-9.1974,-17.0718,-11.2357,-5.1363,6.9528,10.1507,-14.1447,-8.8862,12.3767,15.9750,-12.1018,-8.5352,-5.2496
1722.6562,-14.7045,1.0205,-8.9275,-14.5043,-17.8819,-25.9330,-9.0206,-16.5268,-8.9064,-0.5687,9.1085,9.5840,-13.1435,-5.8266,12.8584,15.3296,-10.3816,-6.9189,-6.3668
1726.5625,-12.6014,0.0993,-8.9979,-14.9765,-19.4078,-22.3439,-12.1020,-16.0365,-6.7262,3.3139,11.1903,7.9395,-12.2829,-3.8700,14.4131,14.4115,-8.2304,-6.1758,-7.5831
1730.4688,-10.5276,-1.3621,-12.7099,-17.3697,-21.6678,-18.9442,-18.3738,-17.0919,-4.9444,5.2931,10.9449,6.3136,-11.6956,-4.6433,15.7514,14.2332,-5.8430,-7.3512,-11.1350
1734.3750,-8.2161,-2.6855,-19.6372,-21.1304,-24.1814,-16.7358,-25.6571,-19.8685,-3.9496,5.2153,7.4975,5.6058,-11.4208,-8.1322,15.6163,15.0403,-3.6821,-10.1856,-17.4659
1738.2812,-6.1173,-3.5733,-26.8231,-24.1835,-26.4534,-16.2912,-31.0526,-22.9141,-4.0511,4.1283,2.2194,5.8995,-11.4118,-12.5774,13.8234,16.1783,-2.4004,-13.0348,-24.6105
1742.1875,-4.9672,-4.0617,-30.6492,-24.3482,-28.1866,-17.5088,-32.8309,-24.1383,-5.1362,3.5160,-2.0831,6.5658,-11.5161,-15.6475,11.4228,16.5874,-2.5360,-13.8560,-29.4347
1746.0938,-5.1348,-4.2375,-29.1727,-20.9390,-29.2717,-19.6878,-31.4747,-22.3879,-6.5461,4.1691,-3.0992,6.9348,-11.4719,-16.0313,9.8348,15.5599,-4.1507,-11.6233,-29.8019
1750.0000,-6.3334,-4.0898,-23.3032,-15.3345,-29.6237,-21.9035,-29.1277,-18.3667,-7.3956,5.5680,-0.6414,6.8866,-10.9860,-14.2424,9.6738,13.2221,-6.6751,-7.1427,-26.0334
1753.9062,-7.9159,-3.6771,-16.0770,-10.0502,-29.0322,-23.5057,-27.8671,-14.1264,-7.1818,6.2954,3.2395,6.8083,-9.8800,-12.0303,10.2470,10.4207,-9.1127,-2.6159,-20.5876
1757.8125,-9.4363,-3.4216,-10.6536,-6.9828,-27.1569,-24.4739,-28.0857,-11.4810,-6.2204,5.1973,5.7281,6.9760,-8.2028,-10.8753,10.1680,8.1229,-10.5007,-0.2033,-16.2483
1761.7188,-10.9408,-4.1430,-8.4854,-6.1288,-23.6697,-25.4168,-28.2033,-10.5920,-5.4998,2.3883,5.2087,6.9814,-6.1852,-10.7656,8.5994,6.7771,-10.3265,-0.5964,-14.2146
1765.6250,-12.7235,-6.6412,-8.8374,-5.7297,-18.4469,-27.1966,-25.9493,-9.8789,-5.9717,-0.7241,2.2852,5.8270,-4.0331,-10.2293,6.0941,6.0866,-8.6325,-2.6299,-13.4962
1769.5312,-14.7969,-11.0596,-9.7643,-3.7193,-11.7066,-30.3825,-20.2769,-7.3683,-7.7676,-2.4664,-0.8324,2.7178,-1.7178,-7.6024,4.3085,5.3278,-5.7860,-4.2144,-11.9720
1773.4375,-16.6054,-16.5399,-9.6360,0.6255,-4.0444,-34.8459,-12.4637,-2.4292,-9.9579,-2.1956,-2.0377,-2.0930,1.0238,-2.5290,4.7688,3.9440,-2.1534,-3.8971,-8.2100
1777.3438,-17.3014,-21.5268,-8.0827,6.0597,3.6254,-39.7300,-5.5209,3.5094,-11.0959,-0.8253,-0.8202,-7.1845,4.4014,3.5017,7.6507,1.9684,2.0219,-1.8944,-2.6441
1781.2500,-16.3911,-24.5986,-5.8521,10.2106,10.2180,-43.7963,-2.2685,7.8777,-10.1994,-0.1186,1.5282,-10.7900,8.1749,8.0308,11.5449,-0.0135,6.4534,0.1516,2.7209
1785.1562,-14.1941,-25.2626,-3.9574,11.2204,14.7212,-45.9404,-3.4393,8.8383,-7.4579,-1.2620,3.0430,-11.9701,11.4922,9.2709,14.4083,-1.2911,10.5636,0.4766,5.7438
1789.0625,-11.6865,-24.1452,-2.9231,8.9672,16.5180,-45.6051,-7.1855,6.6458,-4.1329,-3.8463,2.6120,-11.1987,13.2009,7.2794,14.9734,-1.4979,13.4870,-1.4496,5.5799
1792.9688,-9.8105,-22.4479,-2.6638,5.0069,15.6851,-42.9255,-10.3600,3.4160,-1.7115,-6.1018,0.7396,-9.8689,12.5350,3.8076,13.5489,-0.7811,14.4663,-4.5440,3.0863
1796.8750,-8.8013,-21.0856,-2.8809,1.3638,13.0872,-38.6129,-10.6565,1.4749,-0.9308,-6.2636,-0.9407,-9.1134,9.7402,0.9820,11.6544,0.4100,13.4215,-6.9761,0.0413
1800.7812,-8.0883,-20.1469,-3.4507,-0.8782,10.1154,-33.6981,-8.0754,1.5813,-1.3804,-4.0300,-0.9268,-8.9219,6.1479,-0.1584,10.8535,1.7014,11.2357,-7.5986,-2.0926
1804.6875,-6.8604,-19.0393,-4.4109,-2.1691,8.0950,-29.2420,-4.6944,2.4052,-1.9436,-0.9588,1.1177,-8.2975,3.5354,-0.2033,11.7356,3.0277,9.4300,-6.8489,-2.9130
1808.5938,-4.8296,-17.1418,-5.6464,-3.9458,7.6216,-26.0660,-2.9765,1.6320,-1.7057,0.5598,4.2744,-6.3089,3.1127,-0.6798,13.7866,4.5667,9.3313,-6.4494,-2.9067
1812.5000,-2.5523,-14.4181,-6.7126,-7.4717,8.2099,-24.5254,-3.9146,-2.2167,-0.6278,-0.9896,7.1552,-3.1123,4.7952,-2.7619,16.1100,6.4807,11.2577,-8.1437,-2.7175
1816.4062,-1.0279,-11.5219,-7.0967,-12.9612,8.5212,-24.3942,-6.3831,-8.6845,0.4997,-5.1423,8.8605,-0.0121,7.2794,-6.3985,18.2782,8.7090,14.2994,-12.4125,-2.5693
1820.3125,-0.8935,-9.3603,-6.7280,-19.5354,7.1123,-24.9586,-8.1251,-15.8048,0.7429,-9.7828,9.3945,1.5545,8.9100,-10.4564,20.5709,10.9787,16.8942,-18.0851,-2.2835
1824.2188,-1.8687,-8.4986,-6.2052,-25.8591,3.3044,-25.3513,-7.5595,-21.5988,-0.2166,-12.6416,9.3609,1.2723,8.7676,-13.6425,23.4639,12.9888,17.8230,-23.0692,-1.7163
1828.1250,-2.9148,-8.8637,-6.3711,-30.8400,-2.3460,-24.9934,-5.0001,-25.3698,-1.8328,-12.8188,9.3454,0.3409,7.2288,-15.4036,26.9106,14.5805,16.9360,-25.6165,-1.0739
1832.0312,-2.9981,-9.9087,-7.4543,-33.8850,-8.2841,-23.8788,-2.3713,-27.7718,-3.1219,-11.2114,9.5465,0.5835,5.6094,-16.1297,30.1113,15.7419,15.0986,-25.2319,-0.7428
1835.9375,-1.8751,-11.0216,-8.4950,-34.7106,-12.7839,-22.4826,-1.6743,-29.7234,-3.4085,-9.6091,9.8780,2.9362,5.1445,-16.6211,31.9945,16.4754,13.4135,-22.6918,-0.7969
1839.8438,-0.3081,-11.8158,-7.6922,-33.1189,-14.8788,-21.3224,-3.4054,-31.2227,-2.8172,-9.2557,10.2939,6.5566,6.0340,-17.3687,31.9746,16.6880,12.3031,-19.3308,-0.7090
1843.7500,0.4308,-12.1214,-3.6238,-29.1006,-14.8387,-20.4884,-6.1337,-31.1713,-2.1627,-10.0280,10.9213,9.3467,7.2324,-18.2579,30.3082,16.2383,11.1375,-16.2203,0.3542
1847.6562,-0.6217,-11.8028,3.4784,-23.1991,-13.9244,-19.5304,-7.5345,-28.3947,-2.3570,-10.8144,11.8447,9.5411,7.1332,-18.8539,27.7519,15.1076,8.6823,-13.7926,2.8120
1851.5625,-3.5685,-10.6748,11.4213,-16.6981,-13.5951,-17.8486,-6.0723,-22.9675,-3.7920,-10.6707,12.7945,7.1190,4.6636,-18.8982,24.8735,13.5187,4.0404,-11.9949,6.1256
1855.4688,-7.6967,-8.6508,17.1184,-11.2548,-14.6709,-15.3199,-2.0737,-16.6296,-6.1273,-9.7249,13.1360,3.8928,0.0281,-18.5119,21.6766,11.8534,-2.5908,-10.6447,8.9646
1859.3750,-11.9825,-5.9809,18.4265,-8.0763,-16.9426,-12.6413,2.5569,-11.8190,-8.5804,-9.0715,12.2875,2.1689,-5.3913,-17.9397,17.8939,10.4005,-9.8734,-9.6163,10.0548
1863.2812,-15.6283,-3.3035,15.4955,-7.2108,-19.4054,-11.0142,5.6832,-10.0174,-10.4590,-9.7843,10.2561,3.0271,-9.8726,-17.1453,13.6453,9.1419,-16.0020,-8.7816,9.0970
1867.1875,-18.2795,-1.3720,10.6477,-7.5409,-20.9013,-11.2933,6.3026,-10.7201,-11.5441,-11.9214,7.7931,5.5752,-12.3291,-15.7180,9.7732,7.7859,-19.6193,-7.9285,7.0274
1871.0938,-19.8989,-0.6129,6.8270,-7.5647,-20.7351,-13.1942,4.9685,-11.8714,-12.1024,-14.3804,5.9393,7.7568,-12.7826,-13.2447,7.4239,6.0572,-20.3848,-6.8769,5.3822
1875.0000,-20.5419,-0.8553,5.6910,-6.4180,-18.9146,-15.2148,3.1007,-11.4274,-12.5889,-15.7206,5.2574,8.0378,-12.0999,-9.8244,7.1438,4.0268,-18.9176,-5.7384,5.2233
1878.9062,-20.2718,-1.4576,6.6804,-4.3686,-15.9589,-15.4601,1.8437,-8.8053,-13.2952,-15.2500,5.3637,6.6001,-11.2847,-6.2102,8.2681,2.1988,-16.2797,-5.0159,6.4280
1882.8125,-19.2408,-1.7465,7.6684,-2.4201,-12.4963,-12.8867,1.3692,-5.1027,-14.1746,-13.4661,5.1760,5.0904,-10.8709,-3.3601,9.2138,1.2528,-13.4196,-5.3106,7.8531
1886.7188,-17.7635,-1.4288,6.6388,-1.3789,-8.9628,-8.1017,1.0376,-2.0019,-14.9113,-11.5164,3.7270,5.1578,-10.7970,-1.7199,8.5436,1.6154,-10.8922,-6.7696,8.1942
1890.6250,-16.2311,-0.6721,3.1198,-1.1762,-5.5653,-3.1031,0.1067,-0.3522,-15.1335,-10.1855,0.9082,7.0010,-10.7236,-0.8523,5.9828,3.1834,-8.8804,-8.7338,6.8442
1894.5312,-14.9026,0.1643,-1.6452,-1.0165,-2.4502,-0.0725,-1.6930,0.3666,-14.6233,-9.3031,-2.4519,9.1305,-10.4313,0.2195,2.5597,5.4077,-7.3196,-9.9878,4.1169
1898.4375,-13.7708,0.8723,-5.8082,-0.2086,0.1262,-0.0197,-4.1425,1.3062,-13.4238,-8.0675,-5.2354,9.5539,-9.9473,2.1835,-0.2506,7.6594,-5.9561,-9.5493,0.7687
1902.3438,-12.6547,1.4976,-8.3611,1.0627,1.7935,-2.2029,-6.9249,2.9673,-11.8271,-5.9595,-6.8671,7.4376,-9.3500,4.8067,-1.6617,9.5848,-4.3610,-7.4337,-2.6704
1906.2500,-11.4551,2.1292,-9.7795,1.7422,2.2316,-4.7040,-9.9124,4.5683,-10.2727,-3.3901,-7.6420,3.9042,-8.5054,7.0532,-2.0419,11.1850,-2.0519,-4.7507,-6.1481
1910.1562,-10.3286,2.6088,-11.4222,0.7489,1.3666,-5.7266,-13.0171,4.6723,-9.1920,-1.4666,-8.2929,1.3141,-7.0528,7.8954,-2.3519,12.6049,1.2067,-2.9641,-9.7502
1914.0625,-9.5889,2.4834,-14.2410,-2.0229,-0.5589,-4.7018,-15.7922,2.5410,-8.8437,-1.0560,-9.2055,1.5657,-4.7154,7.1579,-3.1112,13.8604,5.0819,-2.8286,-13.1731
1917.9688,-9.3902,1.3071,-17.8656,-5.4129,-3.0888,-2.4827,-17.3118,-0.9957,-9.2016,-1.9749,-10.0010,4.7047,-1.6920,5.6754,-3.8692,14.7628,8.6219,-3.8321,-15.5988
1921.8750,-9.4842,-0.9341,-20.7749,-7.7272,-5.7424,-0.6069,-16.6638,-3.9936,-9.9595,-3.0661,-9.8861,8.8701,1.2402,4.6078,-3.6987,15.0914,10.6482,-4.6167,-16.1885
1925.7812,-9.3195,-3.6553,-21.3730,-7.9474,-8.1500,-0.2597,-13.7954,-4.8682,-10.6726,-3.1532,-8.4820,11.5758,3.0880,4.4810,-2.2662,14.8221,10.4285,-4.0713,-14.8081
1929.6875,-8.4716,-5.9613,-19.0871,-6.4389,-10.0591,-1.6896,-9.9838,-3.6700,-10.9665,-2.0770,-6.3740,11.3477,3.2786,4.7866,-0.4409,14.1612,8.1990,-2.2185,-12.3071
1933.5938,-7.0690,-7.2142,-14.6459,-4.5529,-11.2549,-4.3789,-7.3465,-2.0405,-10.6878,-0.8843,-4.8098,8.5536,2.1298,4.5189,0.2554,13.3260,5.1355,-0.1553,-9.9943
1937.5000,-5.8204,-7.4480,-9.4102,-3.4336,-11.5035,-7.6443,-7.5192,-1.8172,-9.8986,-0.9371,-4.6961,4.9372,0.7814,3.2178,-0.9896,12.2822,2.7342,0.9224,-8.6449
1941.4062,-5.5295,-7.2951,-4.3917,-3.0220,-10.5956,-11.0675,-10.3719,-3.4156,-8.7295,-2.6449,-5.7002,2.3306,0.5796,1.5990,-3.2843,10.7206,1.9828,0.8001,-7.8433
1945.3125,-6.4114,-7.4714,0.2023,-2.1246,-8.4714,-14.4172,-13.7721,-5.3596,-7.2195,-4.9078,-6.2782,1.5240,2.2855,1.1422,-4.4226,8.3567,2.8695,0.4888,-6.2773
1949.2188,-7.7474,-8.2244,4.5847,0.4647,-5.3269,-17.2628,-14.7388,-5.4193,-5.2894,-5.8213,-4.7500,2.0084,5.6119,2.8684,-2.5594,5.3131,4.5318,1.3663,-2.8519
1953.1250,-8.2159,-9.1838,8.6115,4.7117,-1.6110,-18.7974,-11.3260,-2.4698,-2.8815,-4.1555,-0.6704,2.5865,9.3760,6.2775,2.0960,2.2104,5.8937,3.8906,2.2216
1957.0312,-6.7490,-9.7215,11.4216,9.0567,2.1002,-18.2032,-3.9799,2.4539,-0.1530,-0.4352,4.5863,2.2625,12.1553,9.3815,7.0270,-0.2002,6.3105,6.9851,7.2733
1960.9375,-3.3362,-9.5098,11.9344,11.4447,5.2838,-15.3527,4.5812,6.8212,2.4656,3.2883,8.5783,0.7821,13.0283,9.9470,9.0064,-1.6225,5.7916,8.7057,10.1893
1964.8438,0.8215,-8.7950,9.8669,10.9236,7.6096,-11.2373,10.9234,8.5049,4.4469,4.8605,9.4224,-1.4064,11.9705,7.0758,6.4534,-2.5204,4.7437,7.7529,9.8989
1968.7500,3.9778,-8.1405,6.3962,8.5222,8.9908,-7.6221,12.8710,7.4046,5.4968,3.5648,7.1231,-3.5475,9.7331,1.9144,0.7418,-3.8035,3.5439,4.6392,7.2145
1972.6562,4.9280,-7.8441,3.7789,6.6152,9.5529,-6.0092,10.6416,5.4673,5.8097,0.5943,3.6109,-4.9746,7.3567,-3.0999,-4.6291,-6.0487,2.3347,1.5065,4.3428
1976.5625,3.8011,-7.5321,4.0345,7.1566,9.5588,-6.5928,6.5019,5.0658,6.0342,-1.8983,1.4364,-5.3209,5.6505,-5.9347,-6.4539,-8.8482,1.1669,0.6161,3.3822
1980.4688,2.0218,-6.3219,7.5756,10.0978,9.3141,-8.0011,3.3063,7.0197,6.9166,-2.4127,2.0642,-4.5876,4.9081,-6.3401,-4.0144,-10.8680,0.2713,2.6045,4.9015
1984.3750,1.4442,-3.5000,12.8011,13.2303,9.0574,-8.1116,2.9262,9.8458,8.8127,-1.1306,4.9907,-3.1574,4.9364,-5.8782,0.6096,-10.6887,0.1149,5.8490,7.6458
1988.2812,3.1979,0.7730,17.0145,13.6418,8.8643,-5.4485,5.4808,10.8475,11.3749,0.3786,8.2723,-1.7195,5.2948,-6.6030,4.3008,-7.8640,1.1148,7.4855,9.5684
1992.1875,6.9662,5.2945,18.0784,9.7475,8.6232,-0.2210,9.6202,8.1903,13.6351,0.4487,9.9948,-1.0009,5.5812,-9.4147,5.3030,-3.3858,3.2384,5.3751,9.3919
1996.0938,11.1308,8.3894,15.6838,2.4201,8.1429,5.7190,13.4478,2.3484,14.4773,-1.4676,9.5653,-1.3271,5.6441,-13.3338,4.3688,0.8664,5.8823,-0.4060,7.5276
2000.0000,13.6814,8.8848,11.3986,-5.5788,7.3692,9.9721,15.4425,-4.1753,13.2525,-4.5750,7.9295,-2.2759,5.6652,-16.2056,3.8258,3.3481,8.2222,-7.6129,5.7037
2003.9062,13.3328,6.8402,7.5361,-11.3999,6.5693,10.9947,14.9839,-8.5838,10.1919,-7.5495,6.6890,-2.7663,6.0865,-16.2493,5.4327,3.8574,9.8060,-13.3268,5.6409
2007.8125,10.1942,3.5281,5.6922,-13.8041,6.2931,8.8868,12.4437,-9.6199,6.3651,-9.5987,6.9027,-1.6816,7.3775,-13.2726,8.8377,3.5584,10.8964,-15.7697,7.8012
2011.7188,5.6262,0.6619,5.9448,-13.6015,7.0278,5.1139,8.9775,-8.1612,3.1730,-10.8726,8.4841,1.3092,9.6949,-8.7082,11.8840,3.9864,12.2071,-15.1686,11.1113
2015.6250,1.3994,-0.6304,7.1505,-12.6877,8.6970,1.4607,6.0895,-6.2900,1.6171,-11.9837,10.5235,5.3264,12.5846,-4.5755,12.4347,5.7902,14.1623,-13.2077,13.7702
2019.5312,-1.3302,-0.4273,7.9571,-12.5671,10.3578,-1.0094,4.9893,-5.7223,1.7293,-13.1944,12.0990,8.6513,14.9394,-2.2470,10.1369,8.1855,16.2470,-11.6687,14.4487
2023.4375,-2.6303,0.1469,7.7155,-13.4960,10.4240,-2.3192,5.9031,-6.8340,2.4917,-14.0819,12.8337,9.7304,15.3480,-1.9128,6.6506,9.5579,17.0356,-11.3507,12.9867
2027.3438,-3.6391,-0.2723,6.6857,-14.7332,7.4456,-3.1559,7.7416,-8.8634,2.3361,-13.9874,12.8076,8.1461,12.7521,-2.9549,4.2019,8.7577,15.0092,-11.9547,10.1958
2031.2500,-5.7579,-2.3715,5.5548,-15.4496,1.0601,-4.1046,8.5371,-10.8412,0.0010,-12.7983,12.0785,4.8584,7.0866,-4.6972,3.7369,6.0736,9.6534,-12.7539,7.1078
2035.1562,-9.6878,-5.6952,4.7944,-15.4095,-7.4980,-5.1495,6.6413,-12.3028,-4.7031,-11.2781,10.4083,1.5418,-0.4991,-6.8054,4.2474,3.1100,2.0397,-13.2945,4.3686
2039.0625,-14.9073,-8.8823,4.4015,-14.8998,-15.7678,-5.7601,2.0311,-13.2320,-10.6692,-10.5713,7.5423,-0.4910,-8.0510,-9.0856,3.7948,1.6367,-5.5964,-13.5332,2.2040
2042.9688,-19.9224,-10.4144,4.1453,-14.1492,-21.2235,-5.4018,-3.2547,-13.5241,-15.9837,-11.2750,3.7879,-0.9955,-13.6881,-11.0727,1.2917,2.2825,-11.0674,-13.4648,0.7917
2046.8750,-23.1354,-9.4099,3.9830,-12.9382,-22.5941,-4.0221,-6.1177,-12.7187,-18.9024,-12.8984,0.2654,-0.6623,-16.4718,-12.0110,-2.5218,4.0769,-13.4459,-12.8059,0.5019
2050.7812,-23.7775,-6.0259,4.1927,-10.8520,-20.5269,-2.1371,-4.4063,-10.4203,-18.7694,-14.2210,-1.5821,-0.3523,-16.7657,-11.4068,-5.7320,5.1929,-13.4675,-11.1874,1.6509
2054.6875,-22.2987,-1.3066,5.0742,-7.9369,-17.1491,-0.4831,1.3878,-7.0275,-16.3357,-14.2685,-0.9808,-0.3802,-15.8862,-9.6802,-6.9217,4.3245,-12.8835,-8.7216,3.9552
2058.5938,-19.9666,3.3617,6.4903,-5.0544,-14.7679,0.4862,8.0637,-3.9342,-13.2732,-13.0664,1.4404,-0.4304,-15.2830,-8.2086,-6.3665,1.6486,-13.2494,-6.3271,6.2596
2062.5000,-17.9643,6.8505,7.6915,-3.4416,-14.5191,0.8981,11.5547,-2.7412,-11.1728,-11.5116,3.8414,-0.1064,-15.7625,-8.4947,-5.7082,-1.3437,-14.9943,-5.3152,6.9626
2066.4062,-16.6265,8.6519,7.6464,-3.7221,-15.8101,1.3684,9.5515,-3.9509,-10.6397,-10.4850,4.2741,0.4450,-17.1944,-10.9861,-6.4253,-2.9942,-17.3552,-6.4067,4.9773
2070.3125,-15.3511,8.9006,5.6805,-5.2025,-16.8771,2.6022,3.0763,-6.2526,-11.0397,-10.0144,1.9456,0.4598,-18.7914,-14.5023,-8.4917,-2.7090,-19.1057,-8.9580,0.5417
2074.2188,-13.2299,8.1575,1.9636,-6.1633,-16.0482,4.9452,-4.1911,-7.1998,-11.0258,-9.2701,-2.2818,-0.8300,-19.6841,-16.8601,-10.4530,-1.3414,-19.4634,-11.1411,-4.7870
2078.1250,-9.9061,7.1328,-2.5109,-5.0645,-12.8639,8.1369,-8.4383,-4.9729,-9.4759,-7.4200,-6.5278,-3.3845,-19.3815,-16.3563,-10.8668,-0.4637,-18.5160,-11.0997,-9.0327
2082.0312,-5.9963,6.4802,-6.4428,-1.7688,-8.3521,11.3860,-8.3126,0.0777,-6.2270,-4.5652,-9.1857,-6.0641,-17.8813,-13.0214,-9.7995,-1.1116,-16.9483,-8.2675,-10.9800
2085.9375,-2.7463,6.6703,-8.8825,2.2240,-4.3588,13.7167,-5.6975,5.4085,-2.1646,-1.8475,-9.9064,-7.2032,-15.4910,-8.6501,-8.9598,-2.9609,-15.4028,-3.8174,-10.7938
2089.8438,-1.1764,7.8849,-9.6258,4.8026,-2.4496,14.4190,-4.1174,7.9656,1.3280,-0.5313,-9.5869,-5.7042,-12.6046,-5.5310,-10.2316,-4.5434,-14.0282,0.1519,-9.6690
2093.7500,-1.3711,9.9031,-9.1669,4.7816,-3.1131,13.3924,-5.9891,6.3863,3.1516,-0.8197,-9.4720,-1.8627,-9.6183,-4.8224,-13.8278,-4.3169,-12.5385,2.0905,-8.8483
2097.6562,-2.4560,12.0462,-8.3377,2.7528,-5.6974,11.2142,-10.7994,2.0328,3.0054,-1.4980,-10.1434,2.7050,-6.9616,-5.8232,-17.7357,-1.7905,-10.6421,1.9868,-8.7985
2101.5625,-3.2696,13.3048,-7.8983,0.5683,-8.9717,8.8747,-15.5587,-1.9875,1.3893,-0.8553,-11.1873,6.0074,-5.0739,-6.6911,-19.0960,2.0899,-8.4122,1.1208,-9.1367
2105.4688,-3.1988,12.7090,-8.2656,-0.1371,-11.8265,7.2899,-17.1125,-3.0969,-0.7879,1.7874,-11.7140,6.8418,-4.2201,-6.0079,-16.4970,5.5253,-6.2689,0.8396,-9.2343
2109.3750,-2.5266,9.8284,-9.4005,0.8050,-13.6515,6.8395,-14.4751,-1.0643,-2.6634,5.2489,-11.1958,5.3812,-4.2472,-3.9170,-11.2774,6.9584,-4.6155,1.4081,-8.8788
2113.2812,-2.0414,5.1326,-10.7988,2.0834,-14.2694,7.2003,-9.3817,2.0402,-3.6762,7.2020,-9.8756,2.8360,-4.5213,-1.9133,-6.6493,5.9303,-3.4778,1.9030,-8.3840
2117.1875,-2.2504,-0.0618,-11.5847,2.1320,-13.6542,7.5934,-4.7146,3.6808,-3.5914,6.0091,-8.4375,0.5138,-4.2072,-1.4775,-5.2314,3.1934,-2.4736,1.2098,-8.0967
2121.0938,-2.8521,-4.1248,-10.7731,0.5771,-11.7509,7.3073,-2.1533,2.9816,-2.4345,2.2445,-7.3050,-1.0145,-2.7711,-2.7008,-6.9530,0.1280,-1.1357,-0.7688,-7.8253
2125.0000,-2.9041,-5.8904,-7.7121,-1.2948,-8.5297,6.1632,-0.9815,1.4265,-0.4632,-1.4229,-6.2546,-2.0837,-0.3574,-4.0632,-9.0685,-2.0661,0.7061,-2.7832,-6.8082
2128.9062,-1.5486,-5.2407,-2.5387,-1.4574,-4.1574,4.6037,1.0095,1.5822,1.8382,-2.0600,-4.7199,-3.4131,2.2805,-3.5844,-8.3414,-2.8971,2.8202,-3.1248,-4.3429
2132.8125,1.2895,-3.1308,3.6576,1.2676,0.9283,3.3406,5.3276,4.9030,3.8582,1.3162,-2.5029,-5.3628,4.2988,-0.4294,-3.6744,-2.6162,4.8200,-1.0223,-0.5551
2136.7188,4.7903,-1.0156,9.1844,6.2186,6.1278,2.8143,11.1694,10.4119,5.1055,6.8757,-0.2013,-7.5392,5.3675,4.3332,2.9376,-1.8950,6.5177,2.6322,3.4166
2140.6250,7.7929,-0.0169,12.5197,11.2789,10.8669,2.8722,15.7835,15.3283,5.4896,11.2128,1.1217,-9.0144,5.8861,8.4484,7.9067,-1.4291,8.0384,5.8718,6.0992
2144.5312,9.5646,-0.3418,13.0840,14.3159,14.6945,2.9223,16.5602,17.1249,5.4195,11.7958,0.8246,-8.9678,6.6092,10.0975,8.7879,-1.6703,9.5768,7.1089,6.7505
2148.4375,10.1915,-1.2970,11.5153,14.5331,17.2404,2.4624,13.1592,15.3489,5.5879,8.7585,-0.6177,-7.2918,7.9453,9.1297,6.0362,-2.7216,11.0207,6.2676,5.9425
2152.3438,10.3310,-1.8515,9.2394,12.7177,18.1583,1.5823,7.9264,11.7619,6.5431,4.6527,-1.7720,-4.7624,9.4868,6.9364,2.3966,-4.3430,11.8213,4.6661,5.1231
2156.2500,10.5933,-1.3447,7.6047,10.2966,17.2161,1.0279,4.2265,8.7429,8.3293,2.3688,-1.2429,-2.6831,10.1902,5.1214,0.5068,-6.0389,11.3031,3.7571,5.4471
2160.1562,11.0910,0.1271,7.1573,8.0723,14.5389,1.7274,4.0075,7.3093,10.4501,2.8711,1.2369,-2.2209,9.1325,4.1025,0.7601,-7.2404,9.2191,3.7967,6.8128
2164.0625,11.4991,1.8664,7.5250,5.7086,10.8031,4.0864,6.5248,6.3891,12.1763,4.5213,4.5105,-3.8018,6.2956,2.8152,1.2259,-7.5620,6.1020,3.5769,7.9327
2167.9688,11.5012,3.1087,7.9338,2.3388,7.1253,7.5613,9.1960,3.9133,12.9710,4.4929,6.7945,-6.8692,2.7595,-0.2419,-0.3414,-7.0170,3.0778,1.4686,7.4481
2171.8750,11.1669,3.5397,7.9167,-2.3045,4.5966,10.8530,9.8245,-1.2076,12.7427,1.1135,7.0009,-10.1110,0.1068,-5.5072,-4.1625,-6.0354,1.2175,-3.0787,5.2187
2175.7812,10.9033,3.4548,7.6680,-7.2740,3.7117,12.6361,8.3438,-7.8837,11.7965,-4.7327,5.5725,-12.0401,-0.5647,-11.6791,-7.8345,-5.2194,0.8878,-8.8330,2.7080
2179.6875,11.0329,3.5005,7.8000,-10.8830,4.0935,12.3613,6.6811,-13.4284,10.5952,-10.2266,4.1774,-11.6562,0.6927,-16.4703,-8.0960,-4.9639,1.5882,-13.4790,2.0620
2183.5938,11.4101,4.2158,8.7436,-11.9067,4.7445,10.6018,6.9325,-15.4762,9.5449,-12.7192,4.4922,-8.8798,2.8146,-18.2217,-3.5701,-5.1948,2.3984,-15.1874,4.5241
2187.5000,11.4598,5.6840,10.3051,-10.5202,4.6758,8.7110,9.4389,-13.7109,8.9202,-11.6318,7.0001,-4.5547,4.5404,-17.0932,3.7933,-5.4203,2.6827,-13.8239,9.4016
2191.4062,10.6344,7.4782,11.7427,-8.1932,3.4752,8.0093,12.4052,-10.0545,8.8596,-8.6925,10.6941,-0.0261,5.2661,-14.8789,9.8653,-5.0691,2.4944,-10.8838,14.4198
2195.3125,8.8867,8.8784,12.2972,-6.6198,1.4186,9.0120,13.3793,-7.2050,9.2893,-6.4310,13.8396,3.4723,5.2820,-13.5963,11.2820,-3.8727,2.3652,-8.2824,17.2381
2199.2188,6.7139,9.2021,11.7469,-6.5317,-0.9088,11.1698,11.3334,-6.7000,9.7667,-6.2250,15.1397,5.2960,5.2480,-13.9739,7.9106,-2.0202,2.6692,-7.0237,17.0029
2203.1250,4.6979,8.0957,10.5524,-7.3082,-3.1325,13.2540,7.5844,-7.9828,9.4252,-7.4635,14.3973,5.5033,5.3813,-15.0163,2.8995,0.0040,3.1056,-6.7824,14.7813
2207.0312,2.9304,5.7047,9.4967,-7.6234,-5.3070,14.1265,4.7786,-9.0864,7.2414,-8.3926,12.2717,4.6252,5.0667,-14.9435,0.2593,1.7404,2.7646,-6.6010,12.5970
2210.9375,0.8567,2.6943,9.1263,-6.5444,-7.6736,13.4224,4.7993,-8.2676,2.6245,-7.8123,9.5026,3.3178,3.2574,-12.7078,1.8469,2.9703,0.7745,-5.9638,11.8596
2214.8438,-2.2567,0.0918,9.4296,-4.1995,-10.2154,11.7566,7.3491,-5.2682,-4.0032,-6.1535,6.3753,2.1425,-0.6274,-8.8737,6.0537,3.6848,-2.9575,-5.2642,12.4141
2218.7500,-6.5680,-1.0574,9.9714,-1.5665,-12.4582,10.3634,10.3690,-1.3143,-11.1045,-5.0692,2.8809,1.5360,-6.0388,-5.2125,9.1333,3.9010,-7.5041,-5.3035,12.8876
2222.6562,-11.2451,-0.1443,10.3230,0.3176,-13.7518,10.4024,11.8740,1.9543,-16.6306,-5.9595,-0.6837,1.8241,-11.4539,-3.4074,8.0586,3.5511,-11.4095,-6.3685,11.9595
2226.5625,-14.7916,2.6435,10.4108,1.0135,-13.8222,12.3301,11.5856,3.6341,-19.0634,-8.7205,-3.3959,3.0997,-15.3012,-3.9312,2.6986,2.5872,-13.5869,-7.8083,9.4747
2230.4688,-15.9348,6.3043,10.5105,0.7195,-13.0954,15.6753,10.9392,3.8993,-18.2462,-11.7651,-4.1547,4.9824,-16.9844,-5.9266,-4.2481,1.2105,-13.9731,-8.5507,6.5115
2234.3750,-14.4343,9.4499,10.9297,-0.1709,-12.4391,19.3153,11.4836,3.4576,-15.4212,-13.2509,-2.6501,6.5168,-17.2198,-8.0411,-9.3322,-0.0288,-13.4610,-8.1004,4.4152
2238.2812,-11.2062,11.0050,11.6691,-1.4495,-12.4525,22.0724,13.1348,2.7985,-12.4128,-12.4494,-0.0134,6.4880,-17.4125,-9.4147,-10.7435,-0.4406,-13.1696,-7.0690,3.6573
2242.1875,-7.6792,10.7756,12.3362,-3.0220,-12.8688,23.2820,13.9238,1.9666,-10.4971,-10.1277,1.5699,4.1379,-18.5359,-10.0049,-9.2545,0.3675,-13.6005,-6.6705,3.4742
2246.0938,-4.8792,9.5177,12.3497,-4.5336,-12.6248,23.0251,11.6073,0.9622,-9.7272,-7.6986,0.2095,-0.1438,-20.3738,-10.1181,-7.2401,2.1445,-14.3108,-7.5520,2.5484
2250.0000,-2.9201,8.4441,11.2391,-5.2217,-10.6655,21.9329,5.8372,0.2014,-9.1463,-5.9462,-4.2969,-4.7334,-21.7152,-9.7579,-6.7755,4.0490,-14.3367,-8.9941,0.1090
2253.9062,-1.2238,8.4930,8.8143,-4.3511,-6.9421,20.7399,-1.0305,0.3999,-7.6667,-4.4455,-10.1136,-7.5441,-21.3589,-8.5223,-8.3310,5.1298,-13.0405,-9.2791,-3.4896
2257.8125,0.7901,9.8487,5.1560,-1.9827,-2.8281,19.9087,-5.3802,1.8466,-4.9253,-2.1367,-14.4344,-7.2759,-19.1538,-6.2014,-10.8702,4.9247,-10.7414,-7.0435,-7.1650
2261.7188,3.1441,12.0100,0.5521,0.6355,-0.5381,19.5596,-5.0519,3.7354,-1.4988,1.5115,-15.2765,-4.3029,-16.2590,-3.4710,-12.9472,3.7443,-8.6501,-2.5321,-10.0696
2265.6250,5.2978,14.2835,-4.4840,1.6048,-1.8458,19.6878,-1.1810,4.3285,1.6012,5.8131,-12.7258,-0.4990,-14.3905,-1.8726,-13.7435,2.4231,-8.1318,2.3471,-12.2334
2269.5312,6.6322,16.2656,-9.1529,-0.3494,-6.9315,20.4016,2.4164,2.0685,3.6793,9.2713,-8.7474,1.9809,-14.5862,-2.8473,-13.3092,1.7106,-9.7907,5.3295,-14.3084
2273.4375,6.9585,17.9231,-12.4560,-4.7670,-14.1366,21.8986,1.9852,-3.1188,4.7421,10.7222,-5.7366,2.1462,-16.3856,-6.4755,-12.1271,1.7548,-12.9839,5.4837,-16.6597
2277.3438,6.6167,19.2555,-13.5607,-9.4484,-20.7924,24.1297,-3.3563,-9.4080,5.2751,10.2182,-4.9118,0.7874,-18.0211,-10.9907,-10.6576,2.0571,-16.0709,3.9263,-18.6586
2281.2500,6.1283,19.9104,-12.3032,-11.7304,-24.5783,26.4334,-10.9038,-14.0232,5.6993,8.8916,-5.7065,-0.2227,-17.4909,-13.6456,-9.3053,1.9184,-17.2304,2.9424,-18.8868
2285.1562,5.7632,19.1839,-9.4499,-10.2157,-24.5561,27.5562,-16.3094,-14.9622,6.0371,7.9491,-6.4993,0.5546,-13.7742,-12.4564,-8.6142,1.0148,-15.3481,4.1785,-16.1754
2289.0625,5.4274,16.5123,-6.3932,-5.6909,-21.3210,26.2461,-16.6605,-12.2334,6.0729,7.7023,-5.9876,2.9429,-7.3916,-7.5783,-9.1695,-0.3514,-10.4951,7.3456,-10.6431
2292.9688,4.9549,12.0902,-4.3451,-0.5185,-16.3377,22.1415,-12.3208,-7.6631,5.8032,7.4908,-4.0988,5.2342,-0.0091,-1.2439,-11.0308,-1.5200,-3.8048,10.4815,-3.8376
2296.8750,4.4907,7.0652,-3.5370,3.0766,-11.0206,16.3226,-6.2015,-3.4246,5.6807,6.5346,-1.8110,5.5040,6.5607,3.7553,-13.1965,-2.0394,3.1038,11.5611,2.2032
2300.7812,4.5555,3.0288,-3.0441,4.5497,-6.1418,10.9917,-1.2103,-0.4430,6.3395,4.8996,-0.2002,3.1519,11.2664,5.9561,-13.8523,-2.0692,8.8194,10.1450,6.2600
2304.6875,5.6698,1.0790,-1.4597,5.2585,-1.7870,8.3046,1.9556,2.0869,7.9826,3.6366,0.3813,-0.5424,14.1128,6.0954,-11.5855,-2.2790,12.6383,7.7231,8.5785
2308.5938,7.8348,1.1195,2.0016,7.2298,2.3385,9.0399,4.8977,5.7321,9.9868,3.8820,0.3139,-3.3165,15.8080,6.3536,-6.7776,-3.2994,14.7106,6.4803,10.3659
2312.5000,10.3361,1.9512,6.7946,11.4580,6.5910,12.0318,9.5445,11.2354,11.1601,5.6768,0.0257,-3.6111,17.1399,8.5935,-1.9184,-5.1421,15.8334,7.5022,12.6015
2316.4062,12.1011,2.1448,11.3287,17.0554,11.2311,14.8664,15.9239,17.6295,10.5636,7.5925,-0.6225,-1.7526,18.5208,12.9507,-0.2230,-7.0547,17.0011,9.8971,15.1870
2320.3125,12.3790,1.0863,14.1070,21.8761,16.3574,15.4714,21.6777,22.7793,8.2915,7.6304,-2.2083,0.2849,19.8968,17.8013,-3.3041,-7.9640,18.8840,11.5404,17.1456
2324.2188,11.2373,-0.5684,14.8739,24.0616,21.7972,13.5510,23.8145,24.9079,5.5639,4.7751,-4.9384,0.3565,20.9184,21.0230,-9.6435,-7.2283,21.4478,10.8085,17.6498
2328.1250,9.4946,-1.3767,14.8307,23.2647,26.9752,10.8403,21.2668,23.8679,3.9818,-0.0508,-7.9461,-2.2698,21.1532,21.4891,-15.2594,-5.1693,23.9062,7.8521,16.9177
2332.0312,8.1574,-0.1829,15.6499,20.6215,30.9476,9.9467,16.0798,21.1414,4.4526,-4.4816,-9.5006,-6.4213,20.2251,19.6392,-16.3718,-2.9899,25.0832,4.3537,16.1160
2335.9375,7.8016,3.0003,17.9808,17.5926,32.7542,12.5481,12.1434,18.6016,6.5751,-6.3668,-8.1806,-9.9559,17.9137,16.8017,-12.2126,-2.0941,24.0517,1.9899,16.2908
2339.8438,8.3532,6.9408,20.6398,14.7066,31.9730,18.2023,12.3910,17.0655,8.9441,-5.3378,-4.1475,-11.3600,14.2787,13.9675,-5.7932,-3.2337,20.7186,0.9148,17.2532
2343.7500,9.3672,9.9859,21.2563,11.2730,29.1031,24.6089,16.6659,15.8092,10.1416,-3.0498,0.5996,-10.7726,9.7668,11.0965,-1.8505,-6.0255,15.9902,-0.4189,17.4814
2347.6562,10.4977,11.1245,18.0576,6.2803,25.4126,29.1282,21.9351,13.3967,9.6770,-1.8829,3.4035,-9.6982,5.1603,7.4921,-3.3515,-9.1430,11.3582,-3.8897,15.2838
2351.5625,11.7370,10.5638,11.5141,-0.3251,22.2419,30.4644,24.6533,9.0868,8.2098,-3.0969,2.8262,-9.7175,1.2829,2.8061,-9.1593,-11.0590,8.0976,-9.8859,10.3537
2355.4688,13.2485,9.4687,4.5228,-7.1271,20.1824,29.3258,23.3761,3.6251,6.9620,-5.8709,-0.1806,-11.2517,-1.4232,-2.3104,-14.7124,-10.8847,6.5462,-16.5579,4.3947
2359.3750,14.9988,9.1193,0.7905,-12.0183,18.7109,27.6529,19.5932,-1.2376,6.8298,-7.9612,-2.7973,-13.3162,-3.1639,-6.5600,-15.3181,-8.8163,5.9257,-20.8521,0.1450
2363.2812,16.5670,10.1184,2.4187,-13.7130,16.5695,27.0639,16.2506,-4.0951,7.8686,-7.4433,-2.2844,-14.3616,-4.6638,-9.0818,-9.6322,-5.9627,4.8447,-20.6131,-0.5833
2367.1875,17.3369,12.1608,8.3792,-12.7918,12.6498,27.7150,15.3097,-4.9821,9.4534,-4.1730,2.0294,-13.4519,-6.6691,-10.2927,-0.6887,-3.6992,2.1839,-16.1640,1.6531
2371.0938,16.9218,14.4191,15.0410,-11.3911,6.7611,28.4045,16.3816,-5.3138,10.8567,0.1457,8.2054,-10.8356,-9.4050,-11.6595,6.3282,-2.9379,-2.1939,-10.1411,4.2159
2375.0000,15.4609,16.1696,18.4845,-11.6951,-0.2443,27.7709,17.4638,-6.7211,11.7078,3.2817,13.0322,-7.5421,-12.3787,-14.4726,7.8907,-3.7045,-7.3569,-5.6912,4.3112
2378.9062,13.5289,17.1980,17.0426,-14.3356,-7.0348,25.6018,16.9882,-9.7313,11.9970,4.1136,14.2685,-4.4482,-14.6895,-18.5860,4.6257,-5.1966,-11.8788,-4.3753,1.1498
2382.8125,11.7341,17.7769,12.3091,-17.8984,-12.5947,23.2066,15.3095,-13.3515,11.7481,3.3155,12.1329,-1.6428,-15.6253,-22.2136,0.6267,-6.2285,-14.6807,-5.3124,-3.3233
2386.7188,10.3299,18.3510,7.9176,-19.9169,-16.6685,22.5456,14.3254,-15.8653,10.7761,2.6290,8.9620,1.4132,-15.1133,-23.0715,0.1571,-5.7955,-15.5897,-6.1163,-5.7540
2390.6250,9.1338,19.2204,6.9766,-18.6222,-19.5999,24.7596,15.5940,-16.1733,8.8167,3.3760,7.3477,5.1452,-13.7021,-20.0673,4.3128,-3.4931,-15.2819,-4.8202,-3.8093
2394.5312,7.7731,20.4070,9.9833,-14.1801,-21.8017,29.1972,18.6574,-14.5967,5.9101,5.4143,8.1980,9.2397,-12.1195,-14.2425,10.1975,0.3539,-14.7097,-1.3093,2.0978
2398.4375,6.0107,21.6895,14.6567,-8.5560,-23.3441,33.6600,21.1235,-12.5356,2.6293,7.3115,10.1730,12.6899,-10.7680,-8.1985,13.1896,4.8455,-14.4440,2.7413,9.0808
2402.3438,3.8805,22.6827,17.7196,-4.1716,-23.9750,35.7048,20.5363,-11.3112,-0.1556,7.5142,10.8555,14.4770,-9.5452,-4.3950,10.4993,8.8441,-14.3770,5.2280,13.8200
2406.2500,1.5747,22.9092,17.2651,-2.3596,-23.4709,34.1119,16.4813,-11.1555,-1.8592,5.5348,8.6844,14.3129,-8.0929,-3.5743,3.2753,11.3676,-13.9379,5.1392,14.8171
2410.1562,-0.7399,21.9159,13.9843,-2.6839,-21.9341,29.5605,11.0942,-11.1390,-2.6365,2.2463,4.1462,12.8455,-6.2280,-4.4652,-4.2926,11.9247,-12.6026,3.0949,13.1887
2414.0625,-2.9651,19.4940,10.4378,-3.4897,-19.7439,24.1438,7.4404,-10.0314,-3.2864,-0.8545,-0.6501,11.1835,-4.1823,-4.9240,-8.0956,10.6929,-10.3031,0.6399,11.4915
2417.9688,-4.9477,15.9202,9.0092,-3.1556,-17.2311,20.1265,7.0302,-7.3369,-4.6169,-2.7438,-3.6160,10.1398,-2.4609,-3.5867,-7.0287,8.4613,-7.4613,-1.0006,11.5832
2421.8750,-6.3727,12.0126,10.1083,-1.1130,-14.4242,18.7667,8.5203,-3.6577,-6.7574,-3.4525,-4.2415,9.7650,-1.4665,-0.7641,-3.5574,6.3169,-4.6800,-1.6740,13.2041
2425.7812,-6.8701,8.8410,11.9229,1.9997,-11.1566,19.8571,8.7380,-0.1421,-8.9884,-3.7579,-3.8949,9.4585,-1.2225,2.0258,-1.6638,5.1617,-2.3649,-2.0637,14.3146
2429.6875,-6.3186,7.1772,11.8153,4.9764,-7.4644,22.1086,5.2746,2.4537,-10.2625,-4.3620,-4.6988,8.4834,-1.4244,3.4048,-3.8799,5.2671,-0.5639,-2.8225,12.8124
2433.5938,-5.0881,7.0262,8.2600,6.8779,-3.8857,24.0032,-1.4163,4.2754,-10.0289,-5.2912,-7.8932,6.4635,-1.7475,3.2307,-9.6608,6.1103,0.8962,-3.9063,8.2139
2437.5000,-3.9458,7.5994,1.8996,7.4603,-1.3019,24.5828,-8.1311,6.0475,-8.7059,-5.9755,-12.9099,3.5615,-2.1147,2.5936,-16.1460,6.6355,2.1391,-4.6624,2.0056
2441.4062,-3.6073,7.8100,-4.9694,7.0360,-0.3546,23.8045,-11.2104,8.2495,-7.4151,-5.8444,-17.7769,0.3469,-2.6806,2.8111,-20.4649,5.8482,3.0848,-4.5200,-3.5034
2445.3125,-4.2397,6.9801,-9.9838,6.0548,-0.8833,22.3926,-9.2590,10.5481,-7.1712,-4.8562,-20.4560,-2.4492,-3.5584,4.3201,-21.6674,3.4262,3.5354,-3.6076,-6.8259
2449.2188,-5.3167,5.2540,-12.1640,4.8132,-1.8954,21.3394,-4.2027,12.0028,-8.1558,-3.4988,-20.1002,-4.1486,-4.5681,6.3883,-20.8820,-0.0313,3.4070,-2.7285,-8.1412
2453.1250,-5.9766,3.4091,-12.2428,3.4559,-2.1866,21.3067,0.0994,11.8751,-9.6236,-2.3099,-17.3967,-4.3308,-5.2725,7.8258,-19.8533,-3.3085,2.8852,-2.7188,-8.7934
2457.0312,-5.6235,2.2064,-11.8050,2.1167,-1.1917,22.1896,0.5893,10.3301,-10.4834,-1.3886,-13.9122,-3.0794,-5.3067,8.0292,-19.2791,-5.2762,2.3526,-3.7573,-10.0146
2460.9375,-4.3000,1.7835,-12.0242,0.9506,0.5946,23.0671,-2.9696,8.3942,-10.0687,-0.3500,-11.0436,-1.1675,-4.7157,7.4403,-18.3589,-5.5603,2.1340,-5.2266,-11.9848
2464.8438,-2.5370,1.5704,-12.9473,-0.0042,1.9909,22.6311,-8.0846,7.1611,-8.4988,1.2507,-9.3198,0.0735,-3.9679,7.0475,-15.8019,-4.7347,2.2693,-6.2258,-13.9269
2468.7500,-0.8243,0.7974,-13.7282,-0.9489,2.0425,19.9458,-11.4740,6.8908,-6.4014,3.4303,-8.3915,-0.6419,-3.5743,7.4023,-11.2746,-3.8981,2.5085,-6.2726,-14.9773
2472.6562,0.8259,-0.8064,-13.4447,-2.2054,0.7821,15.1336,-11.2710,6.7685,-4.2977,5.6796,-7.5056,-3.6973,-3.5966,8.0475,-5.9690,-3.9188,2.5450,-5.5827,-14.9452
2476.5625,2.8273,-2.6905,-11.7771,-3.8563,-0.7581,9.5149,-7.9207,5.5693,-2.1988,7.3490,-6.0196,-8.0449,-3.4683,7.8917,-1.8117,-4.8695,2.3006,-4.7106,-14.2763
2480.4688,5.5139,-3.8165,-9.0833,-5.4301,-1.2953,4.9957,-3.3892,2.7265,0.2629,8.1648,-3.6676,-11.5330,-2.3319,6.2309,-0.0410,-6.0508,2.0305,-3.9103,-13.3501
2484.3750,8.6328,-3.4089,-5.9728,-5.9760,-0.2234,2.9893,0.4032,-1.0527,3.3248,8.4017,-0.5887,-12.0858,0.3208,3.5320,-0.3936,-6.5768,2.1521,-2.8247,-11.8872
2488.2812,11.3292,-1.5494,-2.8512,-4.6015,1.9992,3.5557,2.6401,-4.1416,6.6911,8.5470,2.7268,-9.0487,4.1956,1.2578,-1.5567,-6.0782,2.9323,-0.8191,-9.1340
2492.1875,12.7077,0.8522,0.1975,-1.1451,4.2782,5.3906,3.5819,-5.0795,9.6100,8.7609,5.5227,-3.7493,8.3051,0.8045,-2.4098,-4.9857,4.2816,2.3146,-4.7248
2496.0938,12.5492,2.7036,3.2205,3.5262,5.7529,6.7502,3.8945,-3.5704,11.3790,8.6400,6.9836,1.2279,11.5854,2.3797,-2.9040,-4.1674,5.8228,5.9155,0.5962
2500.0000,11.5752,3.5147,6.2168,7.8915,6.3976,6.7109,4.1709,-0.6470,11.8507,7.5394,6.6201,3.6468,13.5595,4.7364,-3.7987,-4.1956,7.1730,8.7209,5.1861
2503.9062,10.9797,3.7336,9.1940,10.6233,6.8911,5.8535,5.0064,2.0907,11.5079,5.2080,4.6663,3.0182,14.5376,6.0047,-5.5416,-4.8250,8.1965,9.6948,7.6470
2507.8125,11.5427,4.3803,12.3477,11.3337,7.9077,5.8211,7.2137,3.5486,11.0444,2.1754,2.1514,0.7965,15.2076,4.9887,-7.3903,-5.1251,9.0081,8.7704,8.0073
2511.7188,13.0002,6.2407,16.0389,10.6799,9.4533,8.0131,11.5389,3.7024,10.7997,-0.5049,0.4364,-0.7635,15.9569,1.9278,-7.6996,-4.2120,9.7198,6.8795,7.8749
2515.6250,14.1827,9.1982,20.4092,9.7545,10.8114,12.3551,17.8193,3.2894,10.5167,-2.0222,0.4094,-0.2467,16.4901,-1.8316,-5.2590,-2.0409,10.1655,5.2038,9.2662
2519.5312,13.8441,12.1744,24.8953,9.2198,11.1392,17.0868,24.3371,2.9775,9.6135,-2.4909,1.8864,1.9813,16.0684,-4.9292,-0.5681,0.3746,9.8904,4.2206,12.9443
2523.4375,11.5658,13.7261,28.1594,8.8410,10.2067,19.7965,28.2869,2.7614,7.7397,-2.9644,3.7178,4.1786,14.1932,-6.9268,4.1311,1.5519,8.4945,3.3170,17.6136
2527.3438,8.0678,12.9098,28.7318,7.7723,8.6554,19.0124,27.4640,2.0933,5.1597,-4.6903,4.6105,4.5971,11.1803,-8.3476,6.2765,0.5736,6.1074,1.3208,20.7348
2531.2500,4.7160,9.8780,26.0681,5.3665,7.5562,15.2303,22.1000,0.5982,2.6618,-8.1261,4.0904,2.7400,8.1334,-9.8642,4.8420,-2.1664,3.5991,-2.4326,20.4357
2535.1562,2.6290,5.8673,21.2427,1.8690,7.6241,10.6420,15.3076,-1.2982,1.0710,-12.4578,2.8591,-0.4107,6.2916,-11.4029,1.1643,-5.0671,2.2639,-7.3295,17.0489
2539.0625,2.0496,2.6118,16.6073,-1.5647,8.7169,7.7600,11.4269,-2.4436,0.7392,-16.0157,2.2238,-3.2543,6.2117,-11.9901,-1.9740,-6.2537,3.0861,-11.6446,13.0098
2542.9688,2.3911,1.5206,14.4486,-3.5804,9.9950,7.9005,13.1741,-1.7568,1.3685,-17.3163,3.0154,-4.7405,7.3927,-10.5089,-2.3420,-4.7283,6.0470,-13.5858,11.1009
2546.8750,2.8138,3.0320,15.4838,-3.5600,10.5769,10.5423,19.6112,0.8601,2.2378,-15.9910,4.8559,-4.9050,8.6170,-6.7336,0.1916,-0.9705,9.9764,-12.4865,12.3520
2550.7812,2.8116,6.4296,18.2776,-2.0997,10.1376,13.9054,26.5553,4.2526,2.6118,-12.9501,6.3998,-4.4446,8.7539,-1.7382,3.7467,3.3999,13.1228,-9.2905,15.2338
2554.6875,2.3675,10.1744,20.0847,-0.6798,8.9890,16.2232,29.3107,6.6625,2.0357,-9.7081,6.4037,-3.8313,7.4389,2.7191,6.0297,6.6425,14.1260,-5.9829,16.8042
2558.5938,1.6611,12.5964,18.6070,-0.7597,7.6409,16.7712,25.8258,6.8446,0.3888,-7.4029,4.7818,-2.8137,5.1656,5.3740,6.1208,7.9023,12.7732,-4.3813,14.9457
2562.5000,0.6962,12.6521,13.4658,-2.9275,6.2750,16.0088,17.9759,4.8192,-2.2085,-6.2265,2.7687,-0.7485,2.7862,6.2509,5.0139,7.5654,10.0376,-5.1291,9.9658
2566.4062,-0.7670,10.4127,6.3745,-6.6550,4.6052,14.9154,10.0408,1.7048,-5.4692,-5.6167,2.0010,2.5691,0.8506,6.4290,4.5382,6.8116,7.3784,-7.5343,4.3292
2570.3125,-2.9250,7.0394,-0.0600,-10.7463,2.2289,14.1512,5.5655,-1.1994,-8.9392,-4.9560,3.2068,6.3766,-0.7093,6.9857,5.6380,6.7492,5.7830,-10.2484,0.7621
2574.2188,-5.5942,4.2128,-3.9948,-14.0780,-0.8637,13.6843,4.9988,-3.3301,-12.0185,-4.1605,5.5512,9.2631,-2.3541,8.0140,7.5042,7.7343,5.2044,-12.2005,0.2396
2578.1250,-8.1841,3.2725,-5.2745,-16.0886,-4.0970,13.0513,5.8561,-5.0469,-14.1183,-3.6905,7.1977,10.1458,-4.4072,8.5512,8.2993,9.2642,4.7527,-13.1039,1.4312
2582.0312,-10.0492,4.5175,-5.0587,-16.7527,-6.6225,11.9112,5.1371,-6.9841,-14.9233,-4.0317,6.6905,9.1174,-6.6734,7.4890,6.8340,10.4051,3.4632,-13.2767,1.9887
2585.9375,-10.9247,7.0854,-4.6013,-16.2118,-7.8879,10.4017,1.9710,-9.1626,-14.5683,-5.1362,4.0883,7.4500,-8.5050,4.6890,3.7141,10.3846,1.0592,-13.0739,0.5822
2589.8438,-11.0573,9.5082,-4.2342,-14.4746,-7.9919,9.0650,-1.6658,-10.6733,-13.5446,-6.3325,0.9499,6.7116,-9.2456,1.3244,0.9069,8.9729,-1.8421,-12.4798,-1.9877
2593.7500,-10.9062,10.6252,-3.3383,-11.4664,-7.5455,8.4924,-2.7057,-10.2699,-12.3450,-6.7935,-0.8358,7.6683,-8.6963,-0.9093,0.0363,6.5063,-4.2065,-11.1830,-3.4995
2597.6562,-10.6808,10.2785,-1.2142,-7.3387,-7.1824,9.0088,0.2517,-7.4385,-11.0989,-6.1676,-0.4765,9.8016,-7.2619,-1.1154,0.8600,3.6649,-5.3635,-8.9885,-2.2485
2601.5625,-10.1371,9.3381,1.9813,-2.6919,-7.1482,10.5793,5.4678,-3.0620,-9.4958,-4.8266,1.1482,11.7660,-5.6997,0.0314,1.3063,1.2011,-5.5018,-6.1281,1.3742
2605.4688,-8.8352,9.0408,5.0751,1.5697,-7.3016,12.8766,9.1273,0.9337,-7.0956,-3.5062,2.1986,12.3699,-4.6847,0.7426,-0.8301,-0.2712,-5.5188,-3.1533,4.9583
2609.3750,-6.6403,10.0990,6.6414,4.6908,-7.4785,15.3533,8.1385,2.7770,-3.8109,-2.6390,1.3069,11.3050,-4.4993,-0.5077,-5.8800,-0.4341,-6.3525,-0.5053,5.7745
2613.2812,-4.0153,12.1925,6.0386,6.4697,-7.8367,17.2851,2.4815,2.0279,-0.1814,-1.9630,-1.3911,9.1349,-5.0107,-3.7628,-11.7047,0.6048,-8.2988,1.8204,2.7773
2617.1875,-1.8094,14.1839,3.8496,7.2649,-8.8227,17.9096,-4.7310,-0.1565,2.8061,-0.7806,-4.4031,6.6962,-5.8703,-7.5069,-15.1579,2.2662,-10.8114,4.1664,-2.6305
2621.0938,-0.6809,14.8876,1.3829,7.5886,-10.7520,16.7563,-9.5125,-1.8812,4.2605,1.3130,-6.0517,4.5018,-6.7449,-9.8181,-14.5485,3.6451,-12.9067,6.7217,-7.6220
2625.0000,-0.6167,13.8408,-0.3102,7.6345,-13.3721,14.0368,-9.8188,-1.8548,3.9239,3.8489,-5.7265,2.6173,-7.4361,-9.8460,-11.1178,3.8776,-13.8558,9.0964,-9.9183
2628.9062,-0.9502,11.5519,-1.0600,7.1651,-15.8321,10.7582,-6.7845,-0.2073,2.3321,5.6145,-4.2538,0.9729,-7.8862,-8.4394,-8.2261,2.5730,-13.6490,10.4160,-9.1982
2632.8125,-0.8689,9.0964,-1.3624,5.8754,-17.1640,8.3092,-3.5384,1.7996,0.5041,5.5065,-3.1509,-0.3343,-8.1457,-7.4207,-8.7491,0.0385,-12.9167,9.9699,-6.9647
2636.7188,0.0063,7.3931,-1.6094,3.9078,-16.9361,7.6549,-2.6499,2.8820,-0.6096,3.4940,-3.4060,-1.1246,-8.3477,-8.0917,-12.6926,-2.8967,-12.3962,7.9255,-5.1447
2640.6250,1.4377,6.6765,-1.5491,2.0088,-15.5632,8.6648,-4.2452,2.7452,-0.5532,0.8981,-4.7510,-1.5233,-8.6497,-10.1731,-16.9759,-5.3823,-12.3527,5.4689,-4.6407
2644.5312,2.9079,6.4841,-0.5376,1.0797,-14.0028,10.1181,-6.1855,2.1953,0.5576,-0.3519,-5.9439,-2.1794,-9.0927,-12.0240,-17.6828,-7.0443,-12.3627,4.1209,-4.9524
2648.4375,4.1539,6.0776,1.6168,1.4098,-13.0475,10.4808,-6.0153,2.3030,2.2618,0.9594,-5.7570,-3.9265,-9.4234,-11.9504,-13.1059,-8.1174,-11.5773,4.6490,-5.0061
2652.3438,5.4149,4.9385,4.0236,2.2315,-12.7521,8.9485,-3.0355,3.3558,4.0548,4.3869,-3.8526,-7.0151,-9.0327,-9.5327,-5.2004,-9.1082,-9.2471,6.4009,-4.3239
2656.2500,7.1764,3.0086,5.0061,2.0732,-12.4330,5.9882,1.1247,4.5008,5.5707,8.0137,-0.8951,-10.5418,-7.1570,-5.9003,1.7548,-10.2378,-5.1431,7.6573,-3.4739
2660.1562,9.6449,0.6044,3.2528,-0.2187,-11.2329,2.9606,3.7822,4.4007,6.6130,9.7300,2.0749,-12.6864,-3.3183,-2.7561,4.3132,-11.1027,0.3576,6.8502,-3.4607
2664.0625,12.4366,-1.8157,-1.0477,-4.5083,-8.8089,1.1124,3.2129,2.3738,7.1327,8.7189,4.4054,-11.7836,2.2359,-0.9861,2.3924,-10.8483,6.4882,3.7807,-4.6848
2667.9688,14.7748,-3.8201,-6.0763,-9.2387,-5.6181,0.7360,-0.1831,-0.9329,7.2301,6.0503,6.1039,-7.5462,8.4174,-0.0276,-0.8114,-8.7678,12.3927,-0.1166,-6.4647
2671.8750,16.0426,-5.0526,-9.5031,-12.3590,-2.5991,1.1597,-4.3540,-3.9235,7.1511,3.8889,7.4849,-1.5273,13.6621,1.4699,-1.4788,-4.9128,17.3143,-2.7609,-7.5847
2675.7812,16.2118,-5.2700,-10.0811,-12.7189,-0.5122,1.5353,-7.1695,-5.2160,7.1861,3.8396,8.6197,3.6095,16.6235,4.2453,1.6936,-0.2673,20.6482,-3.0051,-7.3865
2679.6875,15.7699,-4.4653,-8.4785,-10.9141,0.5614,1.7124,-7.7791,-4.6643,7.4624,5.6289,9.1481,5.5868,16.7969,7.4881,6.3614,3.6643,21.9696,-1.6400,-6.4040
2683.5938,15.2042,-3.0136,-6.6479,-8.9034,1.2179,2.3975,-6.7791,-3.4143,7.7646,7.1243,8.6256,3.7887,14.7001,9.2110,8.3334,5.6011,21.1418,-1.0033,-5.9197
2687.5000,14.5096,-1.6441,-6.1775,-8.6083,2.2780,4.4120,-5.2761,-2.9383,7.5752,5.7480,7.0565,-0.5176,11.5154,7.7178,4.9107,5.0940,18.4659,-3.3775,-6.7637
2691.4062,13.1811,-1.1108,-6.9096,-10.4871,4.2494,7.6796,-3.7906,-3.8227,6.3908,0.3160,5.0710,-5.0849,8.4432,3.0249,-2.8554,2.6477,14.7088,-9.2834,-8.3837
2695.3125,10.7400,-1.6979,-6.9497,-13.1396,7.0762,10.8800,-1.9341,-5.2856,4.1414,-7.9973,3.5257,-8.0274,6.1729,-2.9216,-10.7673,-0.6533,10.8820,-16.9060,-9.0436
2699.2188,7.3550,-2.9154,-4.1162,-14.2664,10.2747,12.2101,0.9884,-5.8157,1.3963,-16.2622,2.8471,-8.7099,4.7492,-7.4676,-14.4781,-3.7195,7.8198,-23.1098,-7.0901
2703.1250,3.9929,-3.6944,2.2664,-12.3086,13.2661,10.7548,5.1100,-4.4150,-0.8467,-21.5500,2.7007,-7.7410,3.8161,-9.0188,-12.5555,-5.8754,5.7968,-25.3666,-2.3129
2707.0312,1.8962,-3.0471,10.6282,-7.5868,15.6244,7.3776,9.6884,-1.4476,-1.7026,-22.6283,2.3127,-6.3053,2.9808,-8.0262,-7.2719,-6.9535,4.4466,-23.2678,3.7100
2710.9375,1.7457,-0.7673,18.0698,-2.1261,17.1076,4.3301,13.6031,1.5855,-0.9202,-20.4742,1.2022,-5.4334,2.0313,-6.4693,-2.6150,-7.1407,3.0672,-18.6062,8.6095
2714.8438,3.1600,2.3621,22.2564,1.6849,17.5578,3.7626,16.1829,3.1530,0.9740,-17.3601,-0.3045,-5.6462,0.9257,-6.2813,-1.1975,-6.7781,1.1238,-14.0477,10.8279
2718.7500,4.9467,5.0687,22.8715,2.6184,16.8380,6.2265,17.6259,2.7914,3.0009,-15.2670,-1.2471,-6.9638,-0.3324,-7.9529,-2.5344,-6.2440,-1.3897,-11.3906,10.6086
2722.6562,5.9302,6.4857,21.5739,1.2494,14.8826,10.3251,18.6770,1.3353,4.2843,-14.7649,-0.7900,-9.0017,-1.7594,-10.3540,-3.9490,-5.8982,-3.9826,-10.6277,9.6404
2726.5625,5.7195,6.7886,20.5750,-0.6554,11.7826,13.8009,19.8996,0.1401,4.4537,-15.0357,1.0556,-10.9837,-3.3477,-11.8182,-3.1854,-5.9913,-6.0704,-10.3541,9.6845
2730.4688,4.8313,7.0734,20.9908,-1.4602,7.7780,15.2207,21.1953,-0.0317,3.6658,-14.8165,3.3633,-11.8123,-5.0024,-11.5455,-0.4416,-6.5151,-7.4539,-9.0593,11.2769
2734.3750,4.1009,8.5272,22.2192,-0.7067,3.1297,14.9379,21.9517,0.4394,2.3231,-13.4189,4.9665,-10.4456,-6.5822,-10.1955,1.8965,-7.0944,-8.5204,-6.2716,13.4746
2738.2812,3.8924,11.4931,22.7105,0.7820,-2.0117,14.5897,21.6048,0.4380,0.7750,-11.0715,5.3383,-6.5623,-8.0470,-9.2620,1.5493,-7.0691,-10.0036,-2.7629,14.7335
2742.1875,3.7697,15.1336,21.3823,1.6438,-7.5990,15.5695,20.0604,-0.9339,-0.7686,-8.4895,4.9544,-1.0805,-9.5708,-9.8280,-1.3569,-5.8073,-12.4507,0.1757,14.1160
2746.0938,2.8997,17.9649,18.4804,0.8874,-13.5251,17.7425,17.6059,-3.6861,-2.1273,-6.2052,4.8359,4.0254,-11.4624,-11.7631,-4.0468,-3.0969,-15.7626,1.6868,11.8450
2750.0000,0.8472,18.8678,15.2299,-1.6883,-19.4525,19.4763,14.4767,-7.0777,-3.0504,-4.2891,5.6569,6.7467,-13.8898,-13.9842,-3.2500,0.6380,-19.1298,1.7747,8.8549
2753.9062,-1.9141,17.8202,12.6665,-5.6996,-24.8215,18.9746,10.5814,-10.3506,-3.3070,-2.6297,7.1723,6.3496,-16.5996,-15.4719,1.9598,4.4767,-21.4248,0.9928,5.8601
2757.8125,-4.2218,15.8052,10.7011,-10.6207,-29.0791,15.8240,5.7251,-13.3366,-2.9184,-1.3783,8.4514,4.0303,-18.8878,-16.1078,9.0268,7.4488,-21.8074,-0.1855,2.8206
2761.7188,-5.0362,13.9895,8.2250,-15.9891,-31.9563,11.4704,0.1413,-16.3694,-2.2911,-1.0156,8.7157,2.2968,-19.9145,-16.6006,13.5449,9.0259,-20.1599,-1.6990,-0.7450
2765.6250,-4.2140,12.8309,4.1466,-21.2646,-33.5519,8.1975,-5.2322,-19.6076,-2.0472,-1.8956,8.0447,3.3550,-19.1914,-17.6046,12.4820,9.3571,-17.0907,-3.6881,-4.9590
2769.5312,-2.6357,11.8161,-1.5440,-25.6514,-34.1259,7.3995,-9.1391,-22.4556,-2.6058,-3.6876,7.3026,7.5666,-16.9100,-18.8667,6.4664,9.1063,-13.5383,-6.0493,-9.1215
2773.4375,-1.5813,10.0182,-7.5976,-28.2517,-33.7673,8.5266,-10.8649,-23.7228,-3.8336,-5.3265,7.2959,13.0959,-13.8698,-19.2294,-0.7111,9.0035,-10.2637,-8.2771,-12.1027
2777.3438,-1.8329,7.0062,-12.3658,-28.5554,-32.2426,9.5487,-10.8770,-22.4949,-5.0880,-5.6834,7.8576,17.0506,-11.0516,-17.5680,-5.0299,9.3888,-7.5750,-9.8120,-13.3140
2781.2500,-3.1824,3.3508,-14.9768,-26.8500,-29.2062,8.5668,-10.6263,-18.9983,-5.6900,-4.5018,7.6802,17.3407,-9.1396,-13.8886,-5.3078,10.0131,-5.4354,-10.5805,-13.3885
2785.1562,-4.6967,0.3007,-15.8534,-24.0921,-24.6409,5.2880,-11.5350,-14.6409,-5.4937,-2.7987,5.1510,13.9438,-8.3118,-9.6063,-3.9813,10.1871,-3.8177,-11.1619,-13.8757
2789.0625,-5.5001,-1.1299,-16.1759,-21.2170,-19.1586,1.1977,-13.9012,-11.0635,-5.0882,-2.2712,-0.3802,8.7126,-8.3906,-6.6649,-4.9959,9.1711,-2.9820,-12.3130,-16.0664
2792.9688,-5.4519,-0.9327,-16.7827,-18.4044,-13.8461,-1.6725,-16.5974,-8.8984,-5.4126,-4.0445,-7.8792,3.9441,-9.1526,-6.1297,-10.5039,6.5827,-3.4123,-14.1864,-19.8504
2796.8750,-5.2092,-0.1091,-17.4580,-14.9600,-9.6857,-2.3617,-17.8607,-7.2688,-7.0221,-7.7026,-15.0648,0.8226,-10.4901,-7.3728,-19.0062,2.6205,-5.4150,-15.9376,-23.5674
2800.7812,-5.6587,0.1116,-17.1969,-10.0142,-6.9435,-1.6757,-16.6056,-4.5221,-9.5529,-11.4171,-19.7450,-1.1309,-12.2896,-8.5355,-26.4002,-1.9871,-8.6711,-16.1745,-25.0666
2804.6875,-7.1861,-0.7747,-15.1849,-3.5235,-5.0030,-1.4327,-13.2492,0.3161,-11.8280,-13.1690,-21.0967,-3.3070,-14.1795,-7.9419,-29.0729,-6.2738,-12.1233,-14.0049,-23.2116
2808.5938,-9.3504,-2.1916,-11.6212,3.2875,-2.8234,-2.9169,-9.4027,6.5279,-12.5829,-12.1838,-19.9678,-6.6662,-15.4580,-5.3565,-26.5711,-9.4363,-14.3845,-9.8724,-18.6779
2812.5000,-11.1886,-3.0230,-7.6610,8.5293,0.2698,-5.8280,-6.6758,12.0028,-11.3154,-9.4777,-18.0281,-10.9136,-15.3756,-2.0961,-21.7664,-11.1753,-14.4828,-5.4407,-13.4222
2816.4062,-11.8907,-2.6283,-4.5258,10.9327,4.0322,-8.5825,-5.5451,14.6880,-8.6439,-7.0701,-16.4663,-14.7951,-13.6234,0.0763,-18.4691,-11.8220,-12.4746,-2.5111,-9.2427
2820.3125,-11.3177,-1.5105,-2.5556,10.8139,7.4086,-9.6932,-5.1750,14.0754,-5.9006,-6.4514,-15.2422,-17.1752,-10.6416,0.3682,-18.4569,-12.1721,-9.4794,-1.7524,-6.5673
2824.2188,-9.9919,-1.0581,-1.0327,9.8825,9.2460,-9.0716,-4.2939,11.5368,-4.2392,-7.4860,-13.4203,-17.9500,-7.4384,-0.4622,-20.2806,-13.0757,-7.0395,-2.2372,-4.4046
2828.1250,-8.6092,-2.5055,1.0608,9.9434,9.1013,-8.1591,-2.3775,9.2210,-3.8862,-8.5943,-10.2300,-18.0425,-4.9709,-0.8129,-20.6992,-14.9645,-6.1676,-2.1863,-1.4456
2832.0312,-7.4777,-5.8854,4.0023,11.4680,7.5528,-8.7627,-0.1503,8.3817,-4.0526,-8.0509,-5.9330,-18.5263,-3.5085,0.3789,-17.4693,-17.5620,-6.6994,-0.3716,2.6266
2835.9375,-6.3160,-9.7968,6.9251,13.1940,5.7880,-11.5294,0.9992,8.4776,-3.5409,-5.3563,-1.7684,-19.6407,-2.4647,2.7327,-11.1833,-19.9527,-7.4003,2.9159,6.7142
2839.8438,-4.5451,-12.2230,8.4397,13.1387,4.7680,-15.2974,0.1927,7.7628,-1.5949,-1.6031,0.9754,-20.5180,-0.8615,4.7438,-4.7220,-21.0040,-6.7871,6.0985,9.1181
2843.7500,-1.8295,-11.8482,7.7865,10.2662,4.5780,-17.8670,-2.1560,4.8694,1.6035,1.4202,1.9854,-19.8284,1.8886,5.0437,-0.8793,-19.9241,-4.1288,7.5611,8.9108
2847.6562,1.5516,-8.9357,5.5419,5.4651,4.4235,-17.6068,-4.6017,0.0646,5.0963,2.6266,2.1909,-16.7956,5.4671,3.5322,-0.1732,-16.6533,0.0532,6.9105,6.7261
2851.5625,4.7818,-5.1450,3.2357,0.9808,3.2537,-14.6590,-5.7531,-4.8681,7.7998,2.3834,3.0344,-11.7712,8.8053,1.4246,-0.6190,-11.8699,4.3327,5.2243,4.2996
2855.4688,6.9724,-2.4304,2.1412,-1.3275,0.5450,-10.8309,-5.2941,-8.0428,9.1508,2.0266,5.3239,-5.9601,10.8191,0.1681,0.4432,-6.6281,7.3321,4.0857,3.1196
2859.3750,7.6849,-1.8215,2.2208,-1.5474,-3.3098,-8.2828,-4.1165,-9.0144,9.3152,2.5707,8.5837,-0.5942,11.1806,0.1396,4.0610,-1.8539,8.6155,4.1839,3.2826
2863.2812,7.1525,-2.9308,2.1336,-1.8020,-7.2485,-8.0308,-3.4877,-9.1638,8.8798,3.7070,11.4181,3.7367,10.5416,0.2367,8.8286,2.0032,8.8916,4.6282,3.4877
2867.1875,6.0702,-4.4685,0.3746,-4.6900,-10.1941,-9.3719,-3.9720,-10.5729,8.3149,3.9354,12.5847,7.0977,10.0293,-1.2512,12.1267,4.9908,9.4003,3.5523,2.1849
2871.0938,5.1234,-5.3008,-3.3219,-11.2074,-11.6267,-10.5880,-5.0021,-14.2754,7.6233,1.7406,11.9116,9.6659,10.3880,-5.1712,12.3293,7.3936,10.9423,-0.4457,-1.0482
2875.0000,4.5906,-5.2303,-7.4505,-19.7364,-11.6905,-10.3097,-5.4321,-19.2936,6.4101,-3.1297,10.3328,11.2064,11.4160,-10.6294,10.1111,9.4046,13.2691,-7.1509,-5.0105
2878.9062,4.2776,-4.9546,-9.5718,-26.9120,-10.8340,-8.4819,-4.5644,-23.2411,4.2869,-9.3070,9.0494,11.0850,12.1277,-15.4455,7.8079,10.9445,15.2740,-14.7575,-7.6713
2882.8125,3.7955,-5.3195,-7.9598,-29.7629,-9.3257,-6.2609,-2.7510,-24.0166,1.2975,-14.6397,8.5348,8.8314,11.5232,-17.6182,7.4471,11.7162,15.8274,-21.0237,-7.6303
2886.7188,2.9471,-6.5114,-2.8497,-27.5665,-7.0448,-5.0318,-1.0456,-21.2542,-1.9436,-17.5645,8.2209,4.7596,9.3839,-16.6701,9.1471,11.4167,14.6192,-24.6386,-5.1022
2890.6250,1.9215,-7.8360,3.6467,-22.1030,-3.6987,-5.3622,-0.2074,-16.4243,-4.4985,-17.9663,7.1264,0.0771,6.4895,-13.8511,11.2015,9.9465,12.3752,-25.7734,-1.6731
2894.5312,1.1429,-8.2294,8.9079,-16.2255,0.7271,-6.6653,0.0695,-11.5911,-5.5904,-16.9481,4.8902,-3.6784,4.0805,-11.0887,11.6868,7.4945,10.2871,-25.4985,0.9395
2898.4375,0.8855,-7.0693,11.4603,-11.9044,5.6601,-7.7238,0.9987,-7.8980,-5.0413,-15.8149,2.3155,-5.4921,2.9535,-9.5577,10.1528,4.4811,9.0903,-24.6740,2.1247
2902.3438,0.9498,-4.6401,11.7519,-9.2013,10.0365,-7.5768,3.6898,-5.0001,-3.4179,-15.1440,0.9112,-5.4064,2.8485,-8.9865,7.9384,1.4212,8.4844,-23.2879,2.6524
2906.2500,0.6759,-1.9096,11.5578,-6.7964,12.7695,-6.0813,8.0988,-1.8088,-1.8063,-14.6302,1.7404,-4.3771,2.5769,-8.1721,6.8913,-1.2131,7.3331,-20.7544,3.8288
2910.1562,-0.6690,0.1763,12.5382,-3.4571,13.2908,-3.8223,12.8297,2.2012,-1.3251,-13.6775,4.4841,-3.5931,0.8101,-6.1788,7.6614,-3.0892,4.5035,-16.8153,6.2711
2914.0625,-3.3681,1.3181,15.0379,0.8181,11.8230,-1.5841,16.0114,6.3025,-2.6114,-12.0974,7.5058,-3.7508,-3.0070,-3.1853,9.0829,-4.0655,-0.2598,-12.1623,9.3160
2917.9688,-6.9714,1.9426,17.9467,4.8438,9.2254,0.1202,16.5911,9.0317,-5.5191,-10.2798,8.9361,-4.7308,-8.2223,-0.3089,9.1872,-4.1987,-6.0377,-8.1648,11.5262
2921.8750,-10.4848,2.7305,19.6050,7.2868,6.5288,1.1355,15.0321,9.4213,-9.1750,-8.7648,7.9893,-5.7816,-13.2830,1.3673,6.9536,-3.6975,-11.2084,-5.8943,11.8550
2925.7812,-12.9451,4.0095,18.9912,7.7172,4.4453,1.4389,12.8550,7.8297,-12.3655,-7.7136,5.5118,-5.9843,-16.5572,1.6744,3.2595,-2.8156,-14.3422,-5.2847,10.5067
2929.6875,-14.0010,5.4966,16.3219,6.7850,3.1161,0.9353,11.3825,5.6134,-14.0720,-6.8347,3.3341,-4.6887,-17.1512,1.3838,0.1952,-1.7196,-14.9256,-5.1832,8.7945
2933.5938,-14.0902,6.5582,12.7220,5.4725,2.1874,-0.4806,10.6843,3.9191,-13.8943,-5.8309,2.9081,-1.7542,-15.2696,1.3942,-0.6665,-0.4010,-13.4929,-4.2960,8.1164
2937.5000,-14.0663,6.7337,9.3342,4.1848,1.1058,-2.6622,9.5575,2.6626,-12.1610,-4.8797,4.2584,2.3942,-11.9939,1.8374,0.4606,1.2958,-11.1815,-2.2588,8.8659
