Time,Fp1,F3,C3,P3,O1,F7,T3,T5,Fz,Fp2,F4,C4,P4,O2,F8,T4,T6,Cz,Pz
0.0000,-7.4705,-2.3246,-9.4840,0.5917,-4.7913,-2.2630,-11.8277,1.8778,-7.5375,0.9738,-11.6164,0.6160,-6.1822,2.1727,-10.7898,-0.8750,-4.1852,1.4802,-7.4840
3.9062,-10.5393,-2.4324,-10.2059,-2.3669,-3.3776,-3.3060,-9.7760,0.0614,-8.9568,-1.0638,-12.4490,-0.6042,-7.6740,-1.1010,-11.9837,1.4797,-3.4972,-2.8817,-9.4552
7.8125,-10.7800,-2.5852,-11.2567,-4.6494,-2.0374,-2.2792,-7.1152,-0.2292,-9.9498,-1.8422,-13.2074,-2.6751,-9.6868,-4.1452,-13.3897,4.0227,-3.4025,-6.4415,-12.6560
11.7188,-8.8464,-3.0803,-12.0145,-5.1689,-1.6773,0.0985,-4.7273,1.6358,-9.9882,-0.8726,-13.5995,-5.2956,-11.9723,-5.9606,-14.0855,5.9127,-4.0341,-7.6379,-15.9679
15.6250,-6.3709,-3.6949,-11.8371,-3.9349,-2.4182,2.1169,-3.1656,4.8945,-8.3690,1.2139,-13.0843,-7.7069,-13.6204,-6.3754,-12.9271,6.7618,-4.4344,-6.2311,-18.1127
19.5312,-4.5798,-3.7919,-10.4249,-2.0864,-3.4719,2.2408,-2.2199,7.7258,-4.6148,3.1227,-11.0569,-9.0983,-13.4536,-6.0877,-9.3129,6.7842,-3.1166,-3.3960,-18.3701
23.4375,-3.3647,-2.9267,-7.9180,-1.0504,-3.7191,0.1883,-1.0396,8.4301,0.9655,3.9238,-7.2412,-9.1410,-10.8139,-6.0049,-3.7329,6.4975,0.7896,-0.8208,-16.8395
27.3438,-1.4833,-1.4505,-4.7016,-1.4284,-2.5253,-2.8729,1.2225,6.6570,7.0459,3.8355,-2.0470,-8.2448,-6.1458,-6.3958,2.3539,6.2431,6.6944,0.4907,-14.1266
31.2500,2.3484,-0.5062,-1.1312,-2.4733,-0.1380,-5.1564,4.7146,3.7650,11.7643,4.0834,3.4112,-7.3052,-0.8481,-6.5674,7.2983,5.9284,12.7292,0.7919,-10.7995
35.1562,8.3596,-1.2591,2.5786,-2.6047,2.6375,-5.4958,8.6974,1.9930,13.7806,5.8768,7.7653,-7.0875,3.5943,-5.3811,10.1796,5.1838,16.8953,1.1392,-7.0966
39.0625,15.4227,-3.8724,6.2496,-0.6043,5.1813,-4.0829,12.0617,2.9888,13.2398,9.2913,10.1127,-7.7034,6.5839,-2.2416,11.2276,3.7644,18.3458,2.3432,-3.0788
42.9688,21.6761,-7.0638,9.5953,3.4116,7.5567,-2.1970,14.1854,6.7272,11.8695,12.9774,10.5618,-8.5911,8.7165,2.2242,11.4695,1.8130,17.8220,4.2280,1.0158
46.8750,25.5231,-8.7354,12.2550,7.9921,10.3038,-1.1904,15.4450,11.5620,11.9700,14.9952,10.2013,-9.0288,11.1271,6.3631,11.9006,-0.2574,16.9057,5.8061,4.6382
50.7812,26.3043,-7.3555,14.0337,11.3220,13.6848,-1.5335,16.9173,15.3196,14.8685,14.1726,10.4428,-8.7717,14.3477,8.4509,12.8194,-2.1427,16.6826,6.1749,7.2065
54.6875,24.3332,-3.1258,15.1374,12.4057,17.0480,-2.6228,19.4431,16.5955,19.9055,10.9353,12.1237,-8.2778,17.6041,7.6898,13.8037,-3.8996,16.8863,5.3164,8.5623
58.5938,20.5102,1.9783,16.1369,11.5605,18.9449,-3.4221,22.7875,15.3398,24.7407,6.9474,14.9658,-8.2991,19.1980,4.5153,14.2760,-5.7825,16.2171,4.0741,9.1606
62.5000,15.9314,5.4196,17.6107,9.8919,18.0496,-3.3642,25.6338,12.4325,26.8606,3.8351,17.7867,-9.1437,17.7889,0.0578,14.1360,-7.7738,13.5839,3.3155,9.7620
66.4062,11.6976,5.7518,19.7145,8.2508,14.2455,-2.7774,26.5338,8.7486,25.2784,1.9960,19.3490,-10.2268,13.6303,-4.7106,13.9064,-9.2647,9.2586,3.0329,10.8515
70.3125,8.7982,3.5295,22.0408,6.5623,9.0261,-2.5353,25.1407,4.5428,21.2178,0.4287,19.2684,-10.3503,8.7566,-9.4075,14.2660,-9.2994,4.9741,2.2268,12.2917
74.2188,7.8650,0.8156,23.9145,4.0691,4.8097,-3.2672,22.7226,-0.3915,17.2744,-2.3009,18.3207,-8.5814,5.8536,-13.9486,15.3712,-7.3305,2.8274,-0.2525,13.5355
78.1250,8.8290,-0.3502,24.8992,0.2282,3.5640,-4.8012,21.4128,-6.0544,15.6384,-6.7435,17.8894,-5.0860,6.5446,-17.9267,16.5662,-3.9200,3.7996,-4.5902,14.2261
82.0312,10.7856,0.6055,25.0831,-4.5588,5.6683,-6.2864,22.6243,-11.7700,16.6459,-11.9520,18.9119,-1.2361,10.3067,-20.3767,16.7787,-0.7243,7.0326,-9.6098,14.6276
85.9375,12.3477,2.4806,24.8837,-9.0509,9.7844,-6.8672,25.7916,-16.4128,18.6774,-16.0445,21.0820,1.1768,14.8148,-20.2935,15.3412,0.4243,10.4256,-13.5200,15.4427
89.8438,12.3913,3.3054,24.5366,-12.0494,13.7828,-6.3430,28.4941,-19.1664,19.4270,-17.4902,22.9313,1.1118,17.4753,-17.5388,12.6147,-1.2084,12.0997,-15.2537,17.1134
93.7500,10.7065,1.8805,23.7575,-13.3083,16.0312,-5.2808,28.0536,-20.1389,17.5762,-16.1228,22.8122,-1.0050,17.0540,-13.3195,9.9187,-4.5653,11.6169,-15.2859,19.2132
97.6562,8.0480,-1.2941,21.9572,-13.6795,16.1461,-4.5129,23.5566,-20.2524,13.6565,-13.1607,20.1431,-3.5470,14.2563,-9.6821,8.7841,-7.3022,10.0544,-15.1918,20.5406
101.5625,5.5148,-4.3362,18.9145,-14.3470,14.7784,-4.4418,16.8158,-20.4562,9.5358,-10.3157,16.0356,-4.7489,10.9268,-8.2761,10.0455,-7.2429,8.9389,-16.2463,19.9661
105.4688,3.7286,-5.2427,15.3430,-15.7844,12.7459,-4.7102,11.4435,-20.9265,6.9987,-8.7417,12.8005,-3.7993,8.5569,-9.3045,13.3887,-3.7946,8.9202,-18.2131,17.4029
109.3750,2.4600,-3.1549,12.7652,-17.3321,10.2726,-4.4774,10.5478,-20.9621,6.5119,-8.5798,12.5827,-1.2001,7.2511,-11.5125,17.6158,1.7019,9.2286,-19.3820,14.0778
113.2812,0.9763,1.2181,12.6167,-17.7716,6.9223,-3.0599,14.6130,-19.6964,7.0409,-9.2658,15.9941,1.7917,5.8808,-13.2544,21.3719,6.9510,8.3089,-17.9169,11.7796
117.1875,-1.2219,6.1742,15.1648,-16.4260,2.2029,-0.4363,21.0802,-17.0221,6.9442,-10.1421,21.6471,4.1375,3.2020,-13.7886,23.8049,10.2792,5.0968,-13.4638,11.5931
121.0938,-3.9292,10.0476,19.0915,-13.8462,-3.7191,2.7469,25.9852,-13.9010,5.1853,-10.7868,26.9166,5.6365,-1.0043,-13.7371,24.7717,11.6314,-0.0713,-7.6919,13.1006
125.0000,-6.4219,11.9620,22.1804,-11.4694,-9.8106,5.6209,26.5578,-11.7265,1.9673,-10.8921,29.4478,6.7735,-5.6602,-14.3261,24.5982,12.2695,-5.5984,-3.2513,14.7141
128.9062,-8.0950,11.9463,22.7237,-10.4970,-14.6453,7.6247,22.9877,-11.2220,-1.5730,-10.0383,28.4487,8.0321,-9.1493,-16.0585,23.7104,13.4818,-9.6702,-1.9083,14.9175
132.8125,-8.9376,10.5904,20.6650,-10.9098,-17.1955,8.7411,18.1491,-11.7934,-4.2374,-7.8105,24.9696,9.3283,-10.4611,-17.9858,22.4402,15.3892,-11.3913,-3.3103,13.4459
136.7188,-9.4113,8.6645,17.6178,-11.4449,-17.3586,9.3334,15.5162,-11.9182,-5.4912,-4.2830,21.0609,10.0670,-9.8289,-18.2772,21.0488,16.8366,-11.2019,-5.3539,11.4516
140.6250,-9.8831,6.9438,15.7000,-10.5743,-15.8870,9.7840,16.7666,-10.2996,-5.5746,-0.3928,18.4223,9.7483,-8.4273,-15.6943,19.7795,16.4590,-10.3713,-5.8512,10.5040
144.5312,-10.2145,6.1347,16.0096,-7.6974,-13.8570,10.2365,20.7301,-6.8677,-5.0906,2.3442,17.4384,8.5546,-7.4519,-10.7751,18.7600,14.0257,-10.0569,-4.1582,11.2204
148.4375,-9.9720,6.6826,17.8513,-3.5905,-12.1137,10.5921,24.3340,-2.8164,-4.5285,2.7922,17.1680,7.3593,-7.3336,-5.7024,17.8103,10.9116,-10.6550,-1.4845,12.6385
152.3438,-9.0939,8.4480,19.2672,0.2198,-11.0408,10.6835,24.7613,0.3396,-4.0982,1.1647,16.1894,7.0978,-7.6482,-2.8805,16.4004,9.2328,-11.8239,0.2958,12.8668
156.2500,-8.3173,10.5432,18.4572,2.6077,-10.6728,10.4304,21.2467,1.8915,-3.8676,-0.8596,13.6583,8.0125,-7.6660,-3.2987,13.9450,10.2729,-12.9767,0.2833,10.5220
160.1562,-8.7867,11.6480,15.0228,3.5678,-10.8911,9.8514,15.3077,2.3134,-3.9164,-1.1752,9.8719,9.4203,-7.0013,-5.9487,10.3115,13.4352,-13.7303,-0.7408,5.8324
164.0625,-11.0056,10.7675,10.1449,3.9595,-11.4715,8.9677,9.4140,2.6150,-4.2853,1.1906,6.0248,10.2314,-5.8261,-8.7128,6.1403,16.5757,-13.9620,-1.1052,0.5474
167.9688,-14.0235,7.9474,5.6347,4.5865,-11.9941,7.7252,5.2045,3.2888,-4.8063,5.1648,3.3932,9.8100,-4.5659,-9.9496,2.6124,17.4938,-13.5683,0.1867,-3.2668
171.8750,-15.7496,4.3522,2.6414,5.4726,-11.8346,6.0200,2.5698,3.8230,-5.0983,8.1547,2.5105,8.4638,-3.4499,-9.4778,0.6894,15.4487,-12.3074,2.4920,-4.6051
175.7812,-14.4186,1.5332,0.9937,5.9709,-10.4043,3.8036,0.1494,3.2401,-4.8682,7.7512,2.8345,7.1345,-2.3639,-8.2280,0.3166,11.5528,-9.9749,4.0164,-4.0477
179.6875,-10.1725,0.3558,-0.4018,5.5577,-7.5458,1.1699,-3.3087,1.1867,-4.3000,3.4215,3.0541,6.5315,-1.1096,-7.0036,0.2269,7.7875,-6.7757,3.3498,-3.1153
183.5938,-5.3969,0.4036,-2.5231,4.5208,-3.7643,-1.6372,-7.8571,-1.4428,-4.1086,-3.0436,1.8113,6.4322,0.2380,-5.5549,-1.3675,5.4647,-3.4803,0.7337,-3.0539
187.5000,-3.2824,0.3603,-5.4175,3.8362,-0.0409,-4.2885,-12.3288,-3.0143,-5.0451,-8.6536,-1.5672,5.7650,1.2818,-2.8573,-5.5439,4.3606,-1.0886,-2.0471,-4.0236
191.4062,-5.4961,-0.8853,-8.2118,4.2782,2.7110,-6.4528,-15.2874,-2.4677,-7.1418,-11.0877,-6.6810,3.4603,1.6581,1.6363,-11.7116,3.1583,-0.1622,-3.0905,-5.2403
195.3125,-10.7113,-3.2775,-9.8404,5.5584,4.1632,-7.8732,-16.1021,-0.3450,-9.3364,-9.9714,-12.1632,-0.5912,1.4728,6.9386,-17.6461,0.7611,-0.3447,-1.9295,-5.8037
199.2188,-15.2548,-5.5693,-9.8337,6.3437,4.6604,-8.4504,-15.2892,1.4291,-9.9334,-6.7411,-16.2240,-5.2531,1.3663,10.7566,-20.6085,-2.6543,-0.5174,0.1122,-5.4389
203.1250,-15.5628,-6.2966,-8.5393,5.2782,4.8006,-8.3346,-13.9225,0.9747,-7.7192,-3.3702,-17.4087,-8.8036,2.0602,11.0103,-18.9070,-5.7185,0.4425,1.0876,-4.5604
207.0312,-10.6877,-4.9920,-6.6790,2.2223,4.8522,-7.9669,-12.6726,-1.9868,-2.9362,-1.0273,-15.2495,-10.0701,3.7287,7.4759,-12.9214,-6.9997,2.8391,0.1537,-3.7276
210.9375,-2.9625,-2.6500,-4.7025,-1.3629,4.5098,-7.9773,-11.2931,-5.7290,2.6971,0.3729,-10.4983,-9.1890,5.7556,2.1612,-4.9354,-6.2240,5.9114,-1.6013,-3.0756
214.8438,3.7122,-1.0324,-2.5101,-3.3213,3.2288,-8.9109,-8.9492,-7.6883,7.0701,1.5941,-4.7724,-7.4362,7.1663,-2.0114,2.1166,-4.5688,8.3821,-1.9608,-2.2504
218.7500,6.6652,-1.3414,0.2641,-2.3697,0.8938,-10.9003,-5.0724,-6.3611,9.1343,3.1669,0.2648,-6.2904,7.4523,-3.2429,6.2038,-3.7813,9.4045,0.6096,-0.8462
222.6562,6.1937,-3.3117,3.7198,0.9022,-1.7428,-13.5011,-0.0126,-2.4639,9.6232,4.9617,3.7642,-6.4603,7.1164,-2.0084,7.1116,-4.8462,9.1860,5.6133,1.1415
226.5625,4.9473,-5.4539,7.4175,4.4287,-3.2832,-15.8502,5.0465,1.5644,10.4229,6.4899,6.0607,-7.5858,7.4297,-0.3978,6.2342,-7.2718,8.8135,10.7418,3.3158
230.4688,5.5284,-6.2538,10.5999,6.1836,-2.4971,-17.1031,8.8262,3.3384,13.0129,7.4656,8.2624,-8.7450,9.5019,-0.2049,5.4934,-9.5410,9.4247,13.4910,5.3241
234.3750,8.2951,-5.3550,12.6960,5.6259,0.8331,-16.8919,10.7529,2.1942,17.1623,7.9820,11.2735,-9.2661,13.3544,-1.3687,6.1444,-10.3123,11.3762,12.8821,7.2715
238.2812,11.1498,-3.7732,13.6625,3.9354,5.6644,-15.5152,11.2174,-0.5276,20.9368,8.1339,14.9139,-9.1560,17.7455,-2.0900,8.2082,-9.3752,14.0410,9.9452,9.6290
242.1875,11.4500,-2.9837,13.9022,2.8838,10.2652,-13.7440,11.1590,-2.7352,22.0856,7.5521,17.8247,-8.8550,20.9437,-0.5439,10.7847,-7.6144,16.3572,6.6669,12.6630
246.0938,8.4215,-3.6542,13.8933,3.2961,13.2330,-12.3936,11.3712,-3.2951,19.7881,5.4761,18.3511,-8.6274,21.9065,3.2561,12.9083,-6.0912,17.6531,4.3496,15.9266
250.0000,4.0338,-5.0805,13.9023,4.3789,14.2605,-11.9457,12.0949,-2.8024,15.4125,1.4713,15.8628,-8.1983,20.9736,7.0611,14.3011,-5.0789,18.0791,2.7472,18.3847
253.9062,1.5626,-5.7908,14.0154,4.4520,14.1427,-12.4224,13.1548,-2.8419,11.6579,-3.8125,11.5541,-6.9938,19.5400,7.8956,15.5215,-3.8817,18.3301,0.6136,19.1978
257.8125,2.9783,-4.8102,14.3755,2.4444,14.0774,-13.4937,14.4067,-4.4440,10.6851,-8.6560,8.0246,-4.7695,18.9570,4.3288,17.4616,-1.5740,18.9363,-2.9216,18.5387
261.7188,7.2913,-2.5223,15.2886,-1.1170,14.8076,-14.6498,16.0154,-7.0872,12.6347,-11.2892,7.7783,-2.0405,19.5142,-2.2997,20.5854,2.0035,19.7511,-7.3960,17.6772
265.6250,11.2351,-0.3968,17.0040,-4.4587,16.2205,-15.3112,18.2767,-9.1045,15.6422,-11.2319,11.6038,0.1296,20.2931,-8.6997,24.4499,5.8619,20.0803,-11.3005,18.1223
269.5312,11.7746,0.2011,19.3393,-5.9590,17.6327,-14.9074,21.1393,-9.1342,17.3203,-9.8315,17.9822,0.8693,19.9969,-11.8726,27.8398,8.4455,19.3458,-13.3141,20.4356
273.4375,8.4440,-0.8592,21.5521,-5.4255,18.4544,-13.0497,23.8928,-7.3711,16.5539,-9.3979,24.0034,0.1803,18.0872,-11.0483,29.4353,8.7155,17.7066,-13.3769,23.6931
277.3438,3.6480,-2.3406,22.7017,-4.2020,18.6701,-9.8136,25.3813,-5.5401,14.2344,-11.4589,27.2005,-1.0171,15.3123,-7.8825,28.5931,6.8730,16.0772,-12.6632,26.1111
281.2500,0.7008,-2.6132,22.3034,-4.0411,18.7563,-5.9413,24.6779,-5.5959,12.4061,-15.4680,27.0307,-1.5395,13.1850,-4.9178,25.7564,4.1777,15.4637,-12.5050,26.4024
285.1562,1.1860,-0.9401,20.7493,-5.6970,19.1298,-2.6826,21.7538,-8.2132,12.5322,-19.0521,24.9715,-0.7874,12.7992,-3.6599,22.2472,2.0683,16.1114,-13.2333,24.7798
289.0625,3.7403,1.9747,19.0898,-8.3916,19.5908,-1.1952,17.6390,-12.2919,14.2609,-19.7114,23.2168,0.8940,13.9023,-3.8068,19.5712,1.3180,17.1392,-13.9556,22.7649
292.9688,5.1932,4.6055,18.2802,-10.5391,19.2281,-1.7970,13.9259,-15.8391,15.6515,-16.6975,22.9971,2.6137,14.9562,-4.0819,18.6488,1.8482,16.9921,-13.4352,21.9272
296.8750,3.1046,5.8544,18.4723,-11.0599,16.8968,-3.6059,11.9370,-17.4582,14.6637,-11.6006,23.7990,3.7435,14.1716,-3.7451,19.4097,3.1952,14.4222,-11.2607,22.5798
300.7812,-2.3348,5.8887,18.9474,-10.1625,11.9501,-4.9352,12.0995,-17.2225,10.7422,-7.1679,24.0392,4.4490,10.7556,-3.3664,20.9461,5.0735,9.3044,-8.2485,23.5245
304.6875,-8.5028,5.8874,18.7781,-8.9899,4.7243,-4.2920,13.8932,-16.2975,5.2748,-5.2862,22.5932,5.4999,5.4598,-4.2096,22.0831,7.4701,2.7111,-5.7284,23.0814
308.5938,-12.3925,6.9417,17.6894,-8.5277,-3.5434,-1.3323,16.3216,-15.7598,0.6051,-5.7288,19.9126,7.5318,0.0443,-6.8815,22.0012,10.2305,-3.7823,-4.3748,20.5584
312.5000,-12.8186,9.0640,16.3873,-8.7769,-11.2969,2.9236,18.5289,-15.7051,-1.6139,-6.6306,17.8081,10.3958,-3.9208,-10.5632,20.5693,12.6536,-9.0444,-3.6607,16.9273
316.4062,-11.0641,11.1549,16.0405,-8.8982,-17.3649,6.8034,20.1610,-15.3948,-1.4701,-6.2280,18.0538,13.1655,-6.0276,-13.5879,18.2706,13.6550,-12.9189,-2.4455,14.1154
320.3125,-9.5871,11.9592,17.3022,-8.1297,-21.3724,9.1142,21.3205,-14.2145,-0.5103,-4.3648,20.9268,14.8103,-7.1002,-14.8699,15.8597,12.5348,-16.0210,-0.1665,13.4763
324.2188,-9.9683,11.1955,19.6626,-6.5859,-23.6784,9.8421,22.2549,-12.4833,-0.4400,-2.4956,24.8488,14.9790,-8.3793,-14.8709,13.9968,9.7424,-19.0309,2.4716,14.6902
328.1250,-11.7948,9.8744,21.6701,-5.1888,-24.9611,9.8939,23.0386,-11.3115,-1.8673,-2.2217,27.4209,14.2301,-10.4867,-15.1663,13.0280,6.8822,-22.0526,3.9886,15.9937
332.0312,-13.2967,9.4906,21.8574,-4.8061,-25.7495,10.1202,23.4238,-11.6128,-4.0379,-3.6793,27.0292,13.5049,-12.9464,-16.9330,12.9177,5.7496,-24.4987,3.4091,15.5276
335.9375,-13.0667,10.7151,19.6397,-5.4274,-26.1665,10.4524,22.8801,-13.1874,-5.6699,-5.2539,23.7739,13.2775,-14.5806,-19.7010,13.2515,7.0121,-25.5307,1.1846,12.6763
339.8438,-11.3552,12.6649,15.5037,-6.1837,-25.9732,9.9081,20.7623,-14.7685,-6.1291,-4.9662,19.0567,13.1033,-14.4284,-21.5488,13.2791,9.5585,-24.6745,-1.1303,8.3186
343.7500,-9.8803,13.3956,10.4238,-6.2247,-24.8192,7.5026,16.5609,-15.0576,-5.9714,-2.3881,14.2711,11.9722,-12.4818,-20.6732,12.0739,11.1329,-22.1517,-2.2315,3.8666
347.6562,-10.3872,11.3002,5.0876,-5.6249,-22.5224,3.3205,10.2077,-13.8391,-6.4437,0.6106,9.7459,9.2106,-9.7103,-17.0052,8.8885,9.9052,-18.7254,-2.2646,0.0157
351.5625,-13.2087,6.3647,-0.3731,-5.3969,-19.2264,-1.1915,2.3410,-12.1303,-8.3914,1.1039,4.8148,5.2046,-7.4010,-12.4138,3.6298,5.8642,-15.2330,-2.7340,-3.6651
355.4688,-17.0039,0.3196,-5.9642,-6.4812,-15.3728,-4.0591,-5.6555,-11.1549,-11.4759,-2.5016,-1.1293,1.3294,-6.3272,-9.2117,-2.8350,0.9756,-12.1691,-5.0795,-7.9594
359.3750,-19.8128,-4.4462,-11.2153,-8.5804,-11.5253,-4.1681,-12.0171,-11.0242,-14.3292,-8.8293,-7.6106,-0.9160,-6.3349,-8.1848,-8.8642,-2.0747,-9.5784,-9.1091,-12.8103
363.2812,-20.4848,-6.4161,-15.0708,-9.9853,-8.1432,-2.1353,-15.3237,-10.3753,-15.5097,-14.0880,-13.0737,-0.9428,-6.5934,-7.8754,-12.7867,-1.6891,-7.2486,-12.7327,-16.8910
367.1875,-19.3155,-5.8266,-16.5278,-8.7701,-5.4228,0.0545,-15.2447,-7.4543,-14.5101,-14.5908,-15.9932,0.4926,-6.2681,-5.8567,-13.8482,1.5559,-4.9881,-13.4235,-18.4699
371.0938,-17.4865,-4.3147,-15.5238,-4.5017,-3.2868,0.4106,-12.8101,-1.8420,-12.0589,-9.4266,-16.1529,1.7719,-5.1162,-1.0194,-12.7331,5.2919,-2.7758,-10.3358,-16.9163
375.0000,-15.9271,-3.6651,-13.2402,0.9946,-1.5194,-1.7201,-9.9211,4.6813,-9.5255,-1.2635,-14.9280,1.4543,-3.6109,5.0804,-11.1998,6.8946,-0.7299,-5.3089,-13.5208
378.9062,-14.6304,-4.5981,-11.4017,4.6564,0.0480,-5.3328,-8.2941,9.0617,-7.9196,5.3750,-14.2089,-0.8759,-2.5605,9.0993,-10.9402,5.0741,1.0026,-1.7591,-10.7806
382.8125,-12.9437,-6.4270,-11.0127,4.3942,1.4388,-8.6597,-8.4668,9.1609,-7.2277,7.1319,-14.7953,-4.5105,-2.5203,8.4720,-12.3721,0.4690,2.3179,-2.1546,-10.5721
386.7188,-10.4308,-7.7265,-11.5352,0.8131,2.5992,-10.5228,-9.5253,5.5289,-6.5247,3.9531,-15.6267,-8.2430,-3.3879,3.6381,-14.2295,-5.0185,3.1674,-6.0088,-12.6367
390.6250,-7.4171,-7.4393,-11.2517,-3.0024,3.5787,-11.0720,-9.7602,1.2511,-4.6994,-1.1419,-14.6060,-11.1827,-4.4100,-1.9618,-14.3367,-9.5264,3.5738,-10.0472,-14.6585
394.5312,-4.6795,-5.6244,-8.6224,-3.6416,4.6513,-11.3820,-7.8207,-0.1901,-1.2258,-4.3501,-10.4458,-13.1680,-4.5680,-4.2849,-11.1211,-12.2171,3.6916,-10.5457,-13.9723
398.4375,-2.5953,-3.3917,-3.5976,0.0993,6.2122,-12.3410,-3.5793,2.5099,3.5363,-3.6583,-4.0410,-14.5708,-3.1107,-1.6942,-4.8376,-13.3773,3.8497,-6.1054,-9.6189
402.3438,-0.6056,-2.1642,2.1876,6.2443,8.4443,-13.8108,1.8652,7.4512,8.6229,0.1389,1.8575,-15.7685,0.0347,3.7713,2.3948,-13.7893,4.4575,1.2765,-3.1398
406.2500,2.4107,-2.7989,6.5484,11.0229,10.9629,-14.7550,6.9921,10.8994,13.0380,4.5081,4.5620,-16.7550,4.1626,7.8888,7.8393,-13.9991,5.7450,7.6885,2.5154
410.1562,7.1054,-5.0901,8.3587,11.5939,12.7421,-14.1704,10.8338,10.0394,16.2118,7.2760,3.5294,-17.1632,8.0460,7.3631,9.8547,-14.0214,7.4829,10.2049,5.1115
414.0625,12.8760,-7.8610,8.3651,8.0463,12.4976,-11.9689,13.4073,5.0045,18.1364,8.0676,0.9484,-16.5944,10.4596,2.1406,8.9039,-13.5533,8.9335,8.9666,4.6337
417.9688,18.0964,-9.5161,8.5649,3.1728,9.3923,-9.0368,15.3535,-1.3741,19.2372,8.1055,0.2907,-14.9264,10.7566,-4.8270,7.1762,-12.3679,9.1758,6.8647,3.0702
421.8750,21.2676,-8.7545,10.6473,0.2430,3.6557,-6.4407,17.1681,-5.8654,20.1553,8.7810,3.8720,-12.3622,9.2309,-10.0745,7.1181,-10.5237,7.6705,7.1299,2.7636
425.7812,22.1651,-5.1539,14.7416,0.5339,-3.3099,-4.5186,18.7011,-7.3563,21.5406,10.3110,11.2573,-9.2500,7.0434,-12.3039,9.9149,-8.2995,4.6949,10.7428,4.7181
429.6875,21.9874,0.5869,19.4371,2.5065,-9.4769,-2.6881,19.3339,-7.6112,23.8290,11.5664,19.6871,-5.8967,5.6867,-13.1116,14.9394,-6.0242,1.2990,15.6579,8.1697
433.5938,22.3139,6.8548,22.9864,3.1817,-13.1063,-0.1617,18.6491,-9.7093,26.9870,11.0812,26.1186,-2.5409,6.2249,-15.2692,20.4259,-3.9919,-1.2502,18.3605,11.5910
437.5000,23.6989,11.7491,24.6490,0.5558,-13.4811,3.0766,16.9907,-15.4175,30.3383,8.2916,29.2473,0.5533,8.7309,-20.0574,24.7477,-2.4588,-2.1757,16.4666,14.1181
441.4062,25.0873,13.8917,25.0740,-4.8403,-11.0138,5.9442,15.4124,-23.5605,32.6803,3.9601,29.9780,3.0596,12.2817,-25.8763,27.3206,-1.5763,-1.5383,10.3573,16.1360
445.3125,24.6111,13.0254,25.4744,-10.3687,-6.7066,6.9512,15.0309,-30.6262,32.7885,-0.4864,30.1451,4.7128,15.5563,-29.2540,28.5705,-1.2068,0.0431,2.7042,18.6064
449.2188,21.1816,10.0349,26.3814,-13.2449,-1.3869,5.3799,16.2980,-33.0986,30.1114,-4.0636,30.7082,5.4939,17.6738,-27.4162,29.1878,-0.7896,2.0817,-3.5703,21.8726
453.1250,15.5911,6.3323,27.0967,-12.4538,4.7134,1.9512,18.7618,-29.7422,25.2148,-6.8454,31.0041,5.6597,18.7110,-20.3605,29.4121,0.4804,4.7521,-7.2339,25.1058
457.0312,10.1679,2.9787,26.3142,-9.2315,11.7405,-1.6230,21.4671,-22.2170,19.5877,-9.6495,29.6362,5.5193,19.5164,-10.8584,28.9468,3.1146,8.7694,-9.1822,26.9227
460.9375,7.1589,0.1455,23.3474,-5.9454,19.5625,-3.8685,23.6236,-13.7627,14.8193,-13.1609,26.1155,5.1179,20.9190,-2.5101,27.4806,6.7735,14.6305,-11.2769,26.5964
464.8438,7.0503,-2.6811,18.8649,-4.4166,27.2325,-4.5405,24.9915,-7.1090,11.6281,-17.2604,21.6968,4.1368,22.8890,2.5390,25.2465,10.2055,21.7759,-14.7165,24.7219
468.7500,8.1348,-5.8958,14.4759,-4.9737,33.0666,-4.5463,25.7338,-3.1578,9.4118,-21.0535,18.5616,2.1838,24.2928,4.5119,23.0492,11.9236,28.3904,-19.2401,22.6881
472.6562,7.7043,-9.0198,11.5220,-6.7370,35.3886,-4.8794,25.9895,-1.1532,6.6895,-23.4595,17.9839,-0.7011,23.4987,5.0965,21.7058,11.2671,32.1525,-23.5946,21.4139
476.5625,4.0100,-10.6753,10.1298,-8.5935,33.4867,-5.5143,25.6527,0.1683,2.1925,-23.8101,19.0860,-3.7564,19.4780,5.7495,21.4029,9.0647,31.5393,-26.6154,20.5129
480.4688,-2.4537,-9.4433,9.3455,-9.9106,28.1265,-5.2771,24.6094,1.5637,-4.1265,-22.0402,19.3796,-5.7638,12.6460,6.6932,21.5674,7.2732,26.8162,-27.9177,18.7052
484.3750,-9.2690,-5.0405,8.2090,-10.5181,21.2385,-2.8737,23.1845,3.1121,-10.8861,-18.5138,16.7942,-5.7810,4.8205,7.2658,21.3983,7.6961,19.9800,-27.7503,15.1683
488.2812,-13.7519,1.0974,6.7816,-10.2841,14.9454,1.7730,22.2777,4.6808,-16.0534,-13.8381,11.5717,-3.8266,-1.7348,7.0040,20.6118,10.6522,13.6224,-26.4196,10.6212
492.1875,-14.7178,6.3870,6.1722,-8.9515,10.5360,7.0720,22.8868,6.2956,-18.1936,-8.8793,6.4050,-0.9521,-5.5655,6.2714,19.7360,14.6246,9.4415,-24.0078,7.0917
496.0938,-13.1132,8.5563,7.5016,-6.4972,8.0087,10.7162,25.2885,7.9616,-17.3377,-4.8087,4.5737,1.4453,-6.7441,5.8283,19.6691,17.2660,7.3923,-20.6614,6.4364
500.0000,-11.1533,7.0342,10.7183,-3.5887,6.4009,11.3814,28.5492,9.2110,-14.8714,-2.8195,7.4786,2.6154,-6.5851,5.8571,20.8562,17.1058,6.0217,-17.0036,8.8123
503.9062,-10.6820,3.3030,14.3651,-1.4759,4.5933,9.8309,30.8845,9.0549,-12.5376,-3.4389,13.5240,3.0049,-6.6008,5.5277,22.7902,14.6976,3.6978,-14.0116,12.4203
507.8125,-11.9459,-0.0430,16.5908,-1.1573,1.9996,8.4778,30.7367,6.6508,-11.2615,-5.8764,19.2573,3.9017,-7.4643,3.6624,24.2867,12.2919,-0.1722,-12.2351,14.8078
511.7188,-13.5636,-0.8800,16.5977,-2.4515,-1.2874,9.6523,27.8161,2.2100,-10.6135,-8.0788,21.8752,6.3904,-8.7058,-0.0513,24.3290,12.2048,-4.7891,-11.0239,14.6831
515.6250,-13.5704,1.2942,15.2727,-3.8877,-4.8758,13.8599,23.2991,-2.7571,-9.2556,-7.7613,21.1148,10.3956,-9.2973,-4.4919,22.7908,15.0726,-8.6602,-8.6530,12.7295
519.5312,-10.7248,5.3493,14.4018,-3.7321,-8.5810,19.3524,18.9881,-6.3122,-6.0206,-3.8830,19.0711,14.5700,-8.6173,-7.8706,20.4442,19.3148,-10.7630,-3.5565,10.7391
523.4375,-5.2308,9.5037,15.0793,-1.4443,-12.6029,23.3306,16.0477,-7.5407,-0.8491,2.4915,18.1775,17.1651,-7.0256,-9.2921,18.2671,22.2473,-11.2848,4.1687,9.8359
527.3438,1.4381,12.4784,16.6576,1.6804,-17.2264,23.8534,14.2734,-7.3779,5.0510,8.7253,19.0702,17.2622,-5.6075,-9.7089,16.6589,22.0296,-11.4151,12.2948,9.3729
531.2500,7.3167,14.0020,17.1761,3.3912,-22.2932,21.0358,12.4363,-7.9592,9.8901,12.3247,20.0961,15.4412,-5.3037,-11.2477,15.2301,18.9829,-12.4038,17.6706,7.5251
535.1562,10.7716,14.4624,14.9680,2.3388,-26.8881,16.7257,9.3822,-10.8274,12.3189,12.6554,18.8155,13.3614,-6.1159,-15.2647,13.3120,15.2797,-14.6175,18.3877,3.1230
539.0625,10.9960,14.1916,10.1163,-0.5693,-29.5295,13.0426,4.9803,-15.3771,12.0989,11.3460,14.1816,12.5460,-7.0115,-20.7092,10.6822,13.2444,-17.2789,15.2636,-2.8795
542.9688,8.1334,13.0793,4.5117,-2.5449,-28.7907,10.9651,0.1675,-18.8896,10.0368,10.9720,7.5326,13.2676,-6.6108,-24.3122,7.8101,13.5564,-19.0155,11.3647,-7.6825
546.8750,3.1657,10.8116,0.4186,-0.9157,-23.9833,9.9748,-3.8785,-18.3177,7.3292,12.9277,1.5683,14.3552,-4.1471,-22.7146,5.3639,14.7134,-18.7501,9.7758,-8.6028
550.7812,-2.3508,7.4188,-1.2783,4.7423,-15.5042,8.8273,-6.6787,-12.5441,4.8287,16.0895,-1.8137,14.0490,0.0020,-15.0080,3.4165,14.1362,-16.2811,11.2660,-5.1843
554.6875,-6.7325,3.5354,-1.6772,12.0567,-4.6842,6.6491,-8.6758,-3.3543,2.7118,17.3705,-2.9867,11.2454,4.5700,-3.6784,1.1143,10.0593,-12.2145,13.6894,0.3001
558.5938,-8.7795,0.0586,-2.7976,17.4420,6.7221,3.4440,-10.5718,5.7035,0.6718,13.8763,-4.1464,6.2035,8.2157,6.9039,-2.7840,2.7926,-7.4323,13.6615,4.4497
562.5000,-8.3256,-2.5264,-5.7490,18.6622,17.1124,-0.2559,-12.4172,11.7493,-1.6125,5.1440,-7.3454,0.2310,10.2884,13.3851,-8.8485,-5.5311,-2.5756,9.2536,5.2070
566.4062,-6.3567,-4.5460,-9.6945,16.3890,25.4325,-4.0863,-13.3330,14.4297,-4.1197,-6.1822,-12.6862,-5.3419,11.0327,15.5312,-16.2553,-12.4381,2.1052,1.6021,3.2266
570.3125,-4.4797,-6.8608,-12.5154,13.5182,31.3169,-8.1597,-12.1948,15.7810,-6.4660,-15.7884,-18.1867,-10.0646,11.1882,15.9505,-23.0545,-16.6528,6.5574,-5.8475,1.0633
574.2188,-3.9456,-10.0988,-12.6283,12.7810,35.0181,-12.7291,-8.7288,18.2587,-8.1563,-20.2743,-21.3968,-14.4493,11.3774,17.7289,-27.2987,-18.5833,10.6904,-9.8732,0.8976
578.1250,-4.8282,-14.0333,-10.3996,14.5593,37.1920,-17.6171,-4.0340,22.5548,-8.8652,-19.1127,-21.3605,-19.2180,11.7598,21.8983,-28.1996,-19.5361,14.3456,-9.7863,2.7200
582.0312,-5.9687,-17.6518,-7.9067,16.6556,38.5792,-22.0498,0.0255,26.9699,-8.5402,-14.6959,-19.2568,-24.3611,12.1355,26.7321,-26.4408,-20.4340,17.4416,-7.7045,4.4855
585.9375,-5.8169,-19.8842,-7.1860,16.1964,39.6441,-25.1153,2.1541,28.8174,-7.3079,-10.5549,-17.2107,-28.7977,12.2902,29.3273,-23.4555,-21.1063,20.0542,-6.6185,4.0679
589.8438,-3.6413,-20.3922,-8.4167,12.1155,40.3114,-26.4269,2.6064,26.6755,-5.3163,-9.0765,-16.3483,-30.9405,12.2212,28.0792,-20.3079,-20.6559,22.2662,-7.8523,1.3108
593.7500,-0.2317,-19.7530,-9.6003,6.1903,39.9820,-26.3378,2.9591,21.6194,-2.6602,-10.2666,-15.8074,-29.7607,12.0640,23.9809,-17.0933,-18.4828,23.9005,-9.9858,-1.6152
597.6562,2.5023,-18.8741,-8.0783,1.7658,37.8968,-25.4692,4.7944,16.4118,0.5713,-12.2349,-13.5736,-25.5599,11.8611,19.7143,-13.2773,-15.0362,24.4491,-10.0987,-1.8978
601.5625,2.8648,-18.1406,-2.7003,1.1599,33.6812,-24.0025,8.3481,13.2992,4.2039,-12.8344,-8.4095,-19.8835,11.4604,17.3486,-8.5601,-11.6535,23.3822,-6.3119,1.5867
605.4688,0.7454,-17.0422,5.1165,3.7948,27.7046,-21.4772,12.2507,12.1867,7.9396,-11.1926,-1.1833,-14.6455,10.6831,16.5793,-3.4150,-9.6367,20.6651,0.4359,7.2639
609.3750,-1.9939,-14.6392,12.3105,6.5148,20.9429,-17.3985,14.6126,10.6446,11.4072,-8.1428,5.5994,-11.0879,9.6005,14.9460,1.2142,-9.3400,17.0295,6.8098,12.0399
613.2812,-2.5289,-10.5090,16.3480,5.8267,14.3629,-12.1594,14.5762,5.7332,14.2592,-5.4763,9.7114,-9.2602,8.6145,9.8126,4.7660,-9.9909,13.6642,9.3703,13.6955
617.1875,1.0764,-5.3754,16.9135,0.3357,8.2543,-7.3494,13.0374,-3.7760,16.2607,-4.7272,10.9623,-8.2773,8.1963,0.4824,7.6315,-10.3325,11.4544,6.9556,12.5112
621.0938,8.3859,-0.8411,15.8223,-8.4067,2.0700,-4.9412,11.9100,-16.4382,17.3521,-6.3514,11.3027,-7.0577,8.4784,-11.2087,10.8355,-9.5135,10.3392,1.3644,10.8016
625.0000,16.5312,1.6315,15.3419,-17.1160,-4.9694,-5.8183,12.5265,-29.0258,17.6919,-9.6798,13.1767,-4.9769,9.0824,-22.1670,15.0400,-7.5193,9.3635,-4.0679,10.8234
628.9062,21.7383,1.7181,16.3867,-22.9501,-12.8469,-8.8188,14.5215,-38.4417,17.6577,-13.4263,17.5031,-2.0582,9.4075,-30.0380,19.7555,-4.8947,7.4821,-6.8004,12.8830
632.8125,21.5444,0.4157,18.0632,-24.9794,-20.0751,-11.2211,16.1621,-43.1869,17.7377,-16.2802,22.9677,1.2642,9.1902,-34.3277,23.5418,-2.1372,4.5312,-6.5602,15.2623
636.7188,16.3035,-0.7506,18.8136,-24.0632,-24.0480,-10.5142,15.8784,-43.4906,18.2704,-17.2982,27.1709,4.4783,8.8443,-35.9478,25.1299,0.6316,1.5500,-5.0379,15.9714
640.6250,8.9891,-0.8839,18.0237,-21.6131,-22.4184,-6.2063,13.7056,-40.3977,19.1111,-16.1272,28.5822,7.1363,9.2023,-35.8583,24.5283,3.4365,0.0840,-4.3301,14.7321
644.5312,3.3852,-0.3321,16.6098,-18.4948,-14.7013,-0.2854,11.3867,-34.8491,19.4480,-13.1801,27.5903,8.7976,10.7672,-34.1419,23.0887,5.9653,0.9246,-5.5090,13.3799
648.4375,1.7949,-0.2887,16.0703,-14.9279,-2.9877,4.0827,10.9938,-27.5231,18.0039,-9.7113,25.7740,8.9942,13.0549,-30.2742,22.3478,7.4087,3.2836,-8.3349,14.2628
652.3438,3.7150,-1.7130,16.9030,-11.1591,8.8728,4.6800,13.1987,-19.2903,13.6597,-7.5483,24.1267,7.4039,14.6456,-24.1519,22.5647,6.9206,5.1629,-12.0051,18.0038
656.2500,6.2902,-4.4417,17.8969,-7.9562,17.2530,1.6102,16.6589,-11.4895,6.2184,-8.3472,21.9289,4.1692,14.0527,-16.7331,22.2613,4.3908,4.7825,-15.9921,22.6351
660.1562,6.2073,-7.2022,17.0548,-6.2474,20.6729,-3.0439,19.0837,-5.4635,-3.1787,-12.6378,17.4097,0.0752,10.8386,-9.5671,19.3341,0.8478,2.0338,-20.1547,24.9940
664.0625,1.7711,-8.5188,13.4278,-6.1952,20.4042,-6.8798,19.1221,-1.6500,-12.3587,-19.2709,9.7213,-3.6567,6.1091,-3.6136,12.9771,-1.9700,-1.2123,-24.1842,23.3165
667.9688,-6.1627,-7.7948,8.2569,-6.6985,19.3385,-8.7550,17.4839,0.8606,-19.0950,-25.7896,0.4735,-5.9173,1.9016,1.4861,4.8490,-2.6671,-2.3252,-27.1747,18.8509
671.8750,-14.9117,-5.7278,4.3161,-6.0307,19.8830,-9.0679,16.3119,3.6664,-22.2287,-29.6672,-6.6994,-6.2610,-0.1882,6.8796,-1.6247,-1.1006,0.1305,-27.9843,15.0301
675.7812,-21.7379,-3.7467,3.8672,-3.2657,22.3262,-8.7065,17.2928,7.6573,-22.2303,-29.6895,-8.4599,-5.0697,-0.1564,13.0844,-3.4761,1.5798,5.1442,-26.2005,14.7600
679.6875,-25.3964,-2.9222,6.8743,0.7210,24.7863,-7.7828,20.0986,12.0432,-20.8024,-26.5520,-4.2379,-3.2096,0.3853,18.9837,-0.3186,3.8319,9.7238,-22.7848,18.0060
683.5938,-26.4452,-3.1909,10.9961,3.7006,24.7315,-5.4040,22.5274,14.7834,-19.7380,-22.2341,3.1660,-1.4302,-0.5894,22.3068,5.3033,4.8816,10.8518,-19.6051,21.7101
687.5000,-26.2550,-3.4646,13.4299,3.8221,20.9466,-0.7356,22.3068,14.2489,-19.7676,-18.5848,9.4469,0.0554,-3.9379,21.3964,9.6896,5.2343,7.5720,-18.0300,22.1985
691.4062,-25.6186,-2.5060,13.1208,1.2711,14.5117,5.6385,19.0798,10.8023,-20.1629,-16.1450,11.7500,1.5268,-8.5729,16.8220,10.5743,6.1313,1.6881,-17.7098,18.1665
695.3125,-24.1071,0.1103,11.4945,-1.6205,8.0806,11.4356,14.8584,6.8680,-19.3664,-14.0602,10.4292,3.3350,-12.1401,11.3397,8.5431,8.3881,-3.4704,-16.6933,11.7882
699.2188,-20.6858,3.6595,11.0674,-2.1074,3.9795,13.9817,12.4432,5.2083,-16.2117,-11.0927,8.2721,5.4743,-12.7151,7.9791,6.2032,11.5615,-5.3592,-12.9845,6.9754
703.1250,-15.0534,6.7513,13.0665,0.6598,2.4983,12.2089,13.0191,6.6462,-10.8834,-6.8820,7.9044,7.5034,-10.2994,7.6521,5.8180,14.1431,-3.9600,-6.3746,6.1347
707.0312,-8.5314,8.2425,16.0680,4.6396,1.6119,7.7094,14.9157,9.0955,-4.9402,-2.3977,9.5525,8.8670,-6.9847,8.2464,7.3513,14.6598,-1.7116,1.0068,8.0433
710.9375,-3.6179,7.9165,16.8729,6.1872,-1.6414,3.8470,14.6765,8.8606,-0.3740,0.8177,11.0012,9.3437,-5.6034,6.1079,8.5316,12.8289,-1.7038,6.0436,8.6201
714.8438,-2.3577,6.5112,13.0082,2.7889,-9.0585,3.4563,9.7401,3.3886,1.6533,2.0202,9.7239,9.2442,-7.7825,-1.0749,6.8815,9.8526,-5.4395,6.9599,4.0713
718.7500,-4.6965,5.1683,4.8695,-4.8320,-19.8686,6.8474,0.6736,-6.5866,1.5284,2.0921,5.3295,9.1955,-12.7679,-12.1849,2.0265,7.6004,-11.7492,4.7879,-6.0195
722.6562,-8.1576,4.7397,-4.2528,-12.9350,-30.9621,11.6534,-8.8548,-17.2182,0.8734,3.0384,0.1971,9.6733,-17.8504,-23.0715,-3.6808,7.2857,-17.5771,2.7118,-18.0731
726.5625,-9.3066,5.3870,-10.3593,-17.2496,-38.5734,14.6358,-14.4718,-24.0161,1.4184,6.4049,-2.3035,10.6399,-20.0947,-29.2266,-6.8338,8.6274,-20.0258,3.6730,-26.8595
730.4688,-6.1307,6.6246,-11.4813,-15.9015,-40.3135,14.0218,-14.1389,-24.8133,3.8259,11.7922,-0.5650,11.5507,-18.1793,-28.7655,-5.6712,10.0955,-18.2051,8.0511,-29.0158
734.3750,0.3427,7.6551,-8.8859,-10.5850,-36.2874,10.5599,-9.5865,-21.0296,7.2483,16.6914,3.8277,11.7060,-13.1133,-23.4866,-1.6346,10.0103,-13.6558,13.2602,-25.0976
738.2812,6.4629,7.7393,-5.8847,-5.1272,-28.7077,6.5513,-5.0941,-16.3340,9.8963,17.9473,7.2290,10.6786,-7.4178,-17.2763,1.5313,7.6464,-9.1668,15.6470,-18.7461
742.1875,8.2950,6.4414,-5.2574,-2.5874,-20.4011,3.7608,-4.5422,-13.8038,10.2278,13.9317,6.7572,8.5185,-3.4139,-13.1621,0.5209,3.5544,-6.8993,13.2742,-13.7949
746.0938,4.3479,3.7323,-7.3079,-3.1158,-13.2363,1.9779,-8.8810,-13.7786,7.9755,5.8927,2.5393,5.6339,-1.8119,-11.2971,-5.0405,-1.0339,-7.1034,7.4578,-11.6305
750.0000,-3.2274,-0.0125,-9.9627,-4.1354,-7.4231,-0.6108,-15.7346,-13.9799,4.3626,-2.5503,-2.4353,2.4831,-1.4962,-9.3343,-12.2759,-5.1523,-8.1952,1.8732,-10.7300
753.9062,-9.9026,-4.1185,-10.6407,-2.5703,-1.9591,-5.6231,-21.2066,-11.6449,1.3858,-7.5180,-4.7230,-0.6805,-0.5299,-4.7266,-17.1522,-8.6414,-7.9921,-0.0826,-8.4655
757.8125,-11.7195,-7.8372,-8.2871,2.6968,4.2419,-12.8253,-22.3983,-5.8757,0.6297,-7.1962,-3.1423,-3.8553,2.4037,2.9775,-17.3745,-11.9366,-5.1865,2.3298,-3.5223
761.7188,-7.9215,-10.6357,-3.9865,10.0217,11.3725,-20.0295,-18.8614,1.6560,2.3447,-2.8182,0.3737,-7.1508,7.1106,11.6477,-13.8900,-15.4000,-0.1056,6.8283,3.0250
765.6250,-1.4344,-12.3974,0.1424,16.3355,18.5245,-24.6267,-12.2463,8.0992,5.3343,2.3154,2.4160,-10.5950,12.0733,18.1726,-9.9432,-18.8259,5.6233,9.9294,8.6735
769.5312,3.1611,-13.3795,2.6794,19.4361,24.3106,-25.4752,-4.8221,11.6757,7.7019,5.0375,0.8457,-14.0204,15.4902,20.7688,-8.5254,-21.5313,10.1612,9.4860,11.5122
773.4375,2.7763,-13.9310,3.7979,19.4120,27.8301,-23.6141,1.8102,12.9421,7.9943,4.1889,-3.5685,-17.0694,16.4287,20.1577,-10.2316,-22.9081,12.5569,6.0333,11.5954
777.3438,-2.0929,-14.1782,4.7259,18.2060,29.3087,-21.3004,6.9929,14.1027,6.0617,0.9385,-7.8601,-19.2899,15.3578,18.7833,-13.0906,-22.9244,13.2093,2.0693,10.6719
781.2500,-7.7602,-13.9462,6.4446,17.8496,29.9761,-20.2653,10.5051,17.0206,3.1285,-2.5141,-9.2249,-20.2806,13.7837,18.8230,-14.3181,-22.1436,13.4892,0.0098,10.6913
785.1562,-9.9238,-13.0056,8.8587,18.8678,31.2415,-20.6579,12.1159,21.5660,1.0422,-4.7600,-7.0609,-19.8556,13.2718,20.6032,-12.4773,-21.2697,14.8006,0.4650,12.4148
789.0625,-6.6182,-11.4408,11.1057,20.0499,33.6732,-21.4342,11.7436,25.5839,1.1561,-6.1390,-3.1058,-18.1845,14.4723,22.5498,-8.3624,-20.6275,17.6421,2.0594,15.1693
792.9688,0.4844,-9.7805,12.5699,19.5804,36.4348,-21.6370,9.9670,26.4104,3.5296,-8.1763,0.2601,-15.8177,16.7155,22.5008,-4.0774,-20.0122,21.1940,2.7148,17.6950
796.8750,7.2564,-8.6919,13.5466,16.4697,37.5858,-21.2680,8.1653,22.6922,6.9439,-12.0249,1.9952,-13.5112,18.3942,19.2041,-1.2467,-18.9897,23.6748,1.2337,19.1578
800.7812,9.9016,-8.4222,14.9037,11.1490,35.1438,-20.9349,7.8927,15.1540,9.7321,-17.1836,3.0047,-11.8697,17.9065,12.8805,0.1222,-17.3411,23.3079,-2.0208,19.4571
804.6875,7.4165,-8.4513,17.0956,4.9325,28.3220,-20.6964,9.8894,5.9157,10.8948,-21.5266,5.0060,-10.9892,14.6318,4.6723,1.3063,-15.2505,19.3885,-5.6732,18.7812
808.5938,2.1157,-7.7327,19.5391,-0.9942,18.1903,-19.3768,13.5959,-2.9076,10.7633,-22.6753,8.7903,-10.3596,9.3824,-4.2880,3.5343,-13.1024,12.8393,-8.4446,17.1012
812.5000,-2.0066,-5.4442,21.0422,-6.1488,7.3076,-15.2595,17.6649,-10.1927,10.7435,-19.7210,13.4646,-9.1676,4.0509,-13.3158,6.9035,-11.1137,5.8739,-9.8746,14.2638
816.4062,-1.8690,-1.7083,20.9626,-10.5396,-1.5247,-7.7670,21.0639,-15.8128,12.2808,-14.0333,17.3029,-6.8589,0.6167,-21.9081,10.4465,-9.1507,0.8884,-10.2351,10.6085
820.3125,2.8833,2.3332,20.0134,-14.0916,-6.6701,1.3470,23.7730,-20.0006,15.7409,-8.5321,19.3722,-3.5774,0.0673,-29.3031,13.1657,-6.8760,-0.8062,-9.9782,7.3672
824.2188,9.9008,5.2531,19.8603,-16.4055,-8.3799,8.5828,26.4063,-22.8467,20.0018,-5.8944,20.4163,-0.1231,1.8782,-34.5208,15.0102,-4.0446,0.3622,-9.3584,6.1894
828.1250,15.7579,6.3945,21.7163,-17.1000,-8.3920,10.9361,29.1041,-24.3614,23.0887,-6.9092,22.1677,2.6012,4.3922,-36.9594,16.8849,-0.6512,2.6139,-8.5138,7.9615
832.0312,17.9708,6.4216,25.1139,-16.3275,-8.6851,8.1710,30.8124,-24.8392,23.4514,-10.0789,25.6749,4.2735,5.8821,-36.9526,19.7015,3.1798,4.0060,-7.7277,11.8836
835.9375,16.1250,6.8506,28.0013,-14.8360,-10.2142,3.2417,29.8333,-24.9313,20.9933,-12.7063,30.1390,5.4212,5.6243,-35.6162,23.3621,7.3689,3.6380,-7.4089,15.7425
839.8438,11.6041,8.8188,28.2355,-13.4056,-12.4438,0.3038,25.3818,-25.1819,17.0963,-12.7143,33.3315,6.9998,4.2737,-33.9552,26.6234,11.8331,2.0631,-7.7014,17.3923
843.7500,6.3707,12.0053,25.3149,-12.1621,-13.9300,1.6830,18.8186,-25.4349,13.5919,-9.9994,33.3027,9.5394,3.2833,-31.9620,27.9970,16.1788,0.6592,-8.1466,16.3701
847.6562,1.7473,14.6010,20.8914,-10.4813,-13.4716,6.1205,13.2635,-24.7812,11.4060,-6.4740,29.9580,12.5165,3.7722,-28.5791,26.9113,19.4546,0.4609,-7.9056,14.3168
851.5625,-2.0756,14.4900,17.5527,-7.6928,-10.9806,9.7363,11.5616,-22.2778,9.8821,-4.8220,25.1681,14.5137,5.6441,-22.7025,24.1249,20.3864,1.3428,-6.5410,13.7463
855.4688,-5.7029,10.8632,16.8104,-3.9918,-7.4727,9.0638,14.0717,-17.8961,7.3199,-6.7845,21.3136,14.1618,7.5931,-14.4475,21.0450,18.1600,2.1632,-4.7111,16.0471
859.3750,-9.8062,5.0701,17.9438,-0.6502,-4.2537,3.8485,18.1527,-12.7994,2.3728,-12.0247,19.4780,11.2199,7.9988,-5.5466,18.5694,13.2708,1.7314,-4.0142,20.2912
863.2812,-14.5482,-0.0104,18.6877,0.8503,-1.9641,-2.5770,20.0278,-8.5374,-4.7153,-18.2109,18.7802,6.9565,6.0645,1.6091,16.4857,7.6946,-0.1768,-5.8579,23.8423
867.1875,-19.4400,-1.7418,17.2218,0.1527,-0.2091,-5.6790,17.7646,-5.7159,-11.9782,-22.2239,17.3473,3.4497,2.3774,5.6245,13.9493,3.9977,-2.5643,-10.1416,24.3253
871.0938,-23.5710,0.5571,13.7990,-1.3485,1.9854,-3.0663,13.0142,-3.3032,-16.8603,-21.7876,14.0415,2.2255,-1.5051,7.1172,10.5721,3.7994,-3.9276,-14.9009,21.4051
875.0000,-25.9925,5.1672,10.6013,-1.3204,5.2865,3.7525,9.9346,0.6572,-17.8466,-16.6499,9.4509,3.1986,-4.1184,8.1871,7.0749,6.6242,-3.3909,-17.4320,16.9536
878.9062,-26.0842,9.1177,9.8704,1.7000,9.4326,10.5037,11.8985,7.3129,-15.4428,-8.7292,5.3374,4.7202,-5.0193,10.6720,4.8105,10.0650,-1.3907,-16.2184,13.4755
882.8125,-23.8285,10.1248,11.8319,6.8952,13.3197,13.2505,18.4728,15.6083,-11.8145,-1.1847,3.0856,4.7533,-4.9341,14.5587,4.4849,11.3045,0.5965,-12.1886,12.0706
886.7188,-19.9316,7.9726,14.1758,11.4026,15.6700,11.0794,25.1516,22.4924,-9.3497,3.1146,2.5355,2.3515,-5.0839,17.8652,5.1942,9.0183,1.0493,-8.1985,11.5796
890.6250,-15.6747,4.4267,13.6360,12.2209,15.7428,6.4139,26.3132,24.7996,-9.1587,2.9734,2.2085,-1.6297,-6.2504,18.1536,4.7485,4.3118,-0.6447,-6.9673,9.5937
894.5312,-12.4268,1.8517,8.5010,8.4378,13.5899,2.9079,19.3400,21.4885,-10.5262,-0.5694,0.6883,-5.1108,-8.2809,14.4990,1.2258,-0.0223,-3.9451,-8.9715,4.4982
898.4375,-10.9500,1.6057,0.0897,2.0599,9.7818,2.7081,6.7998,14.5138,-11.6116,-4.7955,-2.0863,-6.2314,-10.3321,8.3338,-5.3719,-1.4283,-7.6997,-11.9569,-3.0984
902.3438,-10.8819,3.3554,-7.9975,-3.2895,4.9445,5.2086,-5.0624,7.5708,-10.8073,-6.7242,-4.7605,-4.5997,-11.5721,2.4642,-12.7031,0.6867,-10.9468,-12.5477,-10.6782
906.2500,-10.8172,5.6759,-12.3090,-4.9015,-0.4859,8.0682,-10.5196,3.5832,-7.7656,-4.6779,-5.7678,-1.4588,-11.7540,-0.9832,-17.3774,4.6660,-13.3443,-8.8022,-15.5935
910.1562,-9.1039,7.3170,-11.8157,-2.8602,-6.1763,9.4131,-8.1972,2.8084,-3.4431,0.8412,-4.7125,1.2935,-11.2636,-2.0661,-17.1188,7.9166,-14.9978,-1.7728,-16.8936
914.0625,-4.9548,8.0769,-8.3551,0.1417,-11.7113,9.2992,-1.7602,2.9741,0.7262,7.4672,-2.6904,2.4414,-10.7097,-2.8108,-12.2618,8.7875,-16.0017,5.1490,-15.8175
917.9688,0.8630,8.6464,-5.0369,0.8878,-16.6062,9.2926,2.9642,1.2903,3.8268,12.3293,-1.2639,2.1382,-10.4645,-5.4815,-5.5018,7.5918,-16.1956,8.6321,-14.6817
921.8750,6.3261,9.6739,-3.9506,-1.9811,-20.5524,10.6910,2.2048,-3.2642,5.9108,13.6823,-1.0171,1.4891,-10.5104,-10.7336,-0.0918,6.0592,-15.3520,7.7360,-15.1415
925.7812,9.3714,10.9313,-4.9303,-7.0692,-23.6132,13.0339,-3.3069,-9.1437,7.6888,11.8448,-1.0075,1.4560,-10.6061,-17.0888,2.2080,5.7492,-13.5356,4.4255,-17.1779
929.6875,9.2679,11.3331,-6.1568,-11.3882,-26.0573,14.2315,-9.2910,-13.4589,9.8232,8.8830,0.3515,2.0063,-10.5009,-22.0613,2.0056,6.7384,-11.1899,1.9488,-19.4372
933.5938,7.1792,9.8079,-5.8782,-12.5612,-27.8497,12.2113,-11.2945,-14.1512,12.3934,7.2524,3.7226,2.1765,-9.9550,-23.9460,1.4704,7.6180,-8.7821,2.3944,-20.4230
937.5000,5.4495,6.2796,-3.7516,-10.3277,-28.2253,6.6816,-7.8078,-11.3622,14.8616,8.2679,7.9817,0.9467,-8.6081,-22.8188,2.5562,6.7420,-6.3129,5.3089,-19.4602
941.4062,6.0423,1.9044,-0.8172,-6.2938,-25.8411,-0.4682,-0.9041,-6.9969,16.4436,11.3675,10.8808,-1.8366,-5.9654,-20.0423,5.5793,3.6540,-3.2115,8.3434,-16.7484
945.3125,9.2048,-1.6895,1.6353,-2.3408,-19.5955,-6.4551,5.7275,-3.0010,16.5477,14.6004,10.7470,-5.2613,-1.6892,-16.8436,9.0889,-0.4898,1.1659,9.2665,-12.7332
949.2188,13.3112,-3.5804,3.1583,0.8704,-9.6099,-9.5163,9.5220,0.1223,15.0211,15.9494,7.8147,-8.0304,3.9578,-13.2570,10.9725,-3.8342,6.7867,7.6741,-7.5983
953.1250,16.0075,-4.2031,4.2497,4.0762,2.4008,-9.9248,10.3969,3.3381,12.1829,14.5737,4.0700,-9.4472,9.9352,-8.3277,9.9140,-5.2974,12.6206,5.0885,-1.4191
957.0312,15.8288,-4.9257,5.5400,8.2648,13.7952,-9.4002,9.9817,7.7502,8.7609,11.1695,1.7399,-9.8921,14.8193,-1.3326,6.2165,-5.3765,17.1504,3.5202,5.2610
960.9375,13.1128,-6.8596,6.9911,13.3374,22.3727,-9.5438,9.7875,13.1870,5.7832,7.2972,1.6958,-10.4069,17.6182,7.1127,1.5782,-5.6307,19.4300,3.7891,11.1945
964.8438,9.5687,-9.8397,7.9641,17.8181,27.5249,-10.6639,10.0684,18.0000,4.3418,4.2442,3.0899,-11.7459,18.4298,15.0778,-1.8684,-7.2852,19.8638,4.9862,15.0145
968.7500,6.8899,-12.3987,8.0930,19.8844,30.3417,-11.8984,10.2314,20.2737,5.1647,2.2556,4.4464,-13.6831,18.3811,20.5007,-2.5874,-10.1233,20.0052,5.4093,16.2861
972.6562,5.5248,-12.7945,8.0394,18.8105,32.5887,-12.3534,10.0975,19.3787,8.1368,0.6264,5.1616,-15.1448,18.7984,22.5550,-0.2181,-12.5861,21.4145,4.0567,16.0698
976.5625,4.5781,-10.3308,9.2204,15.5505,35.3119,-12.1129,10.5520,16.4868,12.1201,-1.5127,6.0305,-15.0578,20.1892,22.0717,4.4302,-13.0024,24.4045,1.3676,16.3065
980.4688,2.8939,-5.9683,12.5508,11.9370,38.0993,-12.1611,12.7979,13.5610,15.3576,-4.3720,8.3191,-13.2240,21.8253,20.6872,9.8095,-10.9452,27.6679,-1.3589,18.3275
984.3750,0.3988,-1.7625,17.2648,9.1761,39.5128,-13.3030,16.8810,11.6727,16.3736,-7.2659,12.2506,-10.5238,22.2937,19.4516,14.2674,-7.6203,29.1363,-3.2510,21.6534
988.2812,-1.4660,0.4612,21.0122,6.9277,38.2906,-15.1056,21.0024,10.0997,14.8532,-9.1042,16.3649,-8.2991,20.6172,18.0537,16.6986,-4.9833,27.4561,-4.6518,24.1734
992.1875,-0.6874,0.2344,21.4357,3.7555,34.3447,-15.9009,22.5461,7.0106,11.8820,-9.2069,18.4824,-7.4176,17.0681,15.2577,17.0227,-4.3046,22.9574,-6.6958,23.7330
996.0938,3.6659,-1.3979,18.1130,-1.4494,28.7821,-13.9568,20.1939,1.1715,9.3098,-7.8282,17.5653,-7.7414,13.0113,10.1140,16.2530,-5.3099,17.3717,-10.0795,19.9493
1000.0000,10.3890,-2.7170,13.2535,-8.3069,22.9883,-8.8785,15.3659,-6.7850,8.6238,-6.0212,14.8686,-8.3663,9.8815,2.8859,16.0062,-6.5222,12.5351,-14.1649,14.7559
1003.9062,16.6237,-2.4799,10.3861,-15.0556,17.5666,-2.0513,11.5809,-14.6438,10.1011,-4.9642,13.2601,-8.3704,8.1037,-5.0691,17.5978,-6.4559,9.1106,-17.2714,11.1104
1007.8125,19.6545,-0.5473,11.8704,-19.8463,12.0062,4.2764,11.9940,-20.2428,12.8155,-5.2234,15.1005,-7.4464,6.8263,-12.2912,21.2129,-4.6734,6.3261,-17.9511,10.7771
1011.7188,18.7426,2.3509,17.0968,-22.1190,5.3263,8.5313,16.9541,-23.0960,15.4343,-6.4302,20.3503,-5.9471,4.6887,-18.1790,25.7265,-1.9129,2.8867,-16.1580,12.9217
1015.6250,15.6092,5.3667,22.8273,-22.8911,-2.8701,10.7218,23.5647,-24.6263,17.1482,-7.5411,26.4871,-4.4036,1.0057,-23.0954,29.3802,0.6908,-1.7373,-13.2793,14.6988
1019.5312,13.1435,8.1240,25.5073,-23.7198,-11.8160,12.0125,27.7176,-26.7955,18.0113,-7.4787,30.3809,-2.9980,-3.5937,-27.6012,30.9187,2.5468,-6.7336,-10.9802,13.4582
1023.4375,13.2402,10.7160,23.8328,-25.2440,-19.9406,13.4157,27.0888,-30.2848,18.4937,-5.7546,30.6559,-1.4539,-7.5882,-31.5847,30.3902,3.9214,-10.5621,-9.8464,8.8823
1027.3438,15.3529,13.2462,19.6246,-26.5702,-25.8478,14.7978,22.7748,-33.7792,18.7175,-2.7383,28.6323,0.6042,-9.7042,-34.1349,29.0116,5.4566,-12.2446,-9.0056,3.3706
1031.2500,16.8480,15.4374,16.3581,-26.0423,-29.1073,15.0953,18.3009,-34.9894,18.1095,0.5398,27.0856,3.1959,-9.8504,-34.3048,28.1877,7.4379,-12.2476,-7.0676,0.3336
1035.1562,14.9159,16.7177,16.5156,-22.7350,-30.2473,13.5449,16.8185,-32.5743,15.8272,2.9245,27.8648,5.8741,-9.1028,-32.0685,28.4437,9.5210,-12.2087,-3.5676,1.7020
1039.0625,8.6467,16.7162,19.8084,-17.3789,-30.0388,10.7861,18.7358,-27.3423,11.6122,3.7372,30.3565,8.0590,-8.7820,-28.5476,29.1145,11.1463,-13.6916,0.3730,6.5717
1042.9688,-0.2340,15.6903,23.5868,-11.8954,-28.7415,8.7450,21.6312,-21.6925,6.3106,3.1391,32.0732,9.5004,-9.3939,-25.2060,29.0293,12.1875,-16.9428,2.8038,11.9958
1046.8750,-8.4699,14.4390,25.0075,-7.9119,-25.9672,9.2303,22.4151,-17.7248,1.5293,2.0482,30.8495,10.4258,-10.2914,-22.6419,27.5981,13.1441,-20.6116,2.5307,15.2445
1050.7812,-13.3776,13.7095,23.1779,-5.5142,-21.2394,12.3249,19.8908,-15.5815,-1.3883,1.6035,26.7624,11.2204,-10.2968,-20.0316,25.3503,14.6120,-22.6341,0.1839,15.7181
1054.6875,-14.4256,13.5764,19.6045,-3.3132,-14.7058,15.9465,15.5959,-13.4108,-2.2883,2.4270,22.1098,11.9267,-8.7332,-15.7904,23.4176,16.4770,-21.5914,-2.1927,15.0397
1058.5938,-13.2364,13.3459,16.7046,0.2099,-7.3351,17.0898,12.2918,-9.0085,-2.2839,4.1146,19.4298,12.0420,-6.0069,-8.9879,22.3613,17.6220,-17.5490,-2.7549,15.3517
1062.5000,-12.1596,12.1222,15.7000,5.2183,-0.3988,13.9262,11.4450,-1.7898,-2.8905,5.3468,19.2319,10.8556,-3.2942,-0.3717,21.3665,16.5646,-11.8592,-1.3548,17.2813
1066.4062,-12.5735,9.6127,15.6477,10.1870,5.3258,7.2033,11.8739,6.5440,-4.8763,4.6744,19.4115,8.0905,-1.6416,7.8976,18.6007,12.6414,-6.2221,0.3532,19.2649
1070.3125,-14.1441,6.5078,14.3514,13.0633,9.9448,-0.1220,10.7436,13.2158,-7.7149,1.5739,16.9340,4.3141,-1.2518,13.6705,12.6000,6.8039,-1.7885,0.3413,18.7721
1074.2188,-15.4336,4.0849,10.3284,12.9896,14.0996,-4.7603,6.1022,16.4791,-10.0456,-2.9237,10.4513,0.7310,-1.5128,16.2971,3.6485,1.2970,1.1042,-1.9817,14.4144
1078.1250,-15.2125,3.3043,4.1666,11.1363,18.1921,-5.0980,-1.1606,16.8979,-10.7429,-6.5614,1.6656,-1.5367,-1.6699,16.9908,-5.9871,-1.6665,2.5903,-5.0962,7.2200
1082.0312,-13.3923,4.0961,-1.8403,9.8807,21.8576,-1.9203,-7.6256,16.7496,-9.7342,-7.0875,-5.7705,-2.1486,-1.5031,17.7541,-13.2773,-1.3135,2.8278,-6.4549,0.0501
1085.9375,-10.9345,5.4088,-5.4461,10.9232,24.1351,2.5248,-9.7812,18.0405,-7.9442,-3.6740,-9.0051,-1.6876,-1.4249,19.7021,-16.2836,1.2318,1.8977,-4.5029,-4.3738
1089.8438,-8.9634,6.0046,-6.1349,13.8338,24.1725,6.2418,-6.7161,20.7593,-6.4720,2.4242,-8.1760,-1.1420,-1.9646,22.1124,-15.3026,3.7774,0.0445,-0.0107,-5.2846
1093.7500,-7.8891,5.3901,-5.3786,16.2340,21.8562,8.6166,-0.9588,22.8013,-5.7117,8.4968,-6.2278,-1.1464,-3.1595,22.9602,-12.4690,4.5555,-2.1295,4.3920,-4.1676
1097.6562,-7.2160,4.1635,-5.3125,15.5341,17.8453,10.2156,3.2091,21.6369,-5.1205,11.9652,-6.4590,-1.5788,-4.4302,20.5218,-10.1489,3.2841,-3.8502,6.1580,-3.4240
1101.5625,-6.0644,3.5066,-6.9573,10.9152,13.0348,11.6630,2.7065,16.3929,-3.7633,11.9174,-9.7635,-1.8128,-5.0549,14.7917,-9.3514,1.0841,-4.6526,4.7276,-4.5429
1105.4688,-3.8624,4.2201,-9.4241,4.0394,7.9667,12.7187,-2.2955,8.6962,-1.1219,9.5664,-13.8127,-1.3886,-4.7960,7.6150,-9.3090,-0.5670,-4.7124,1.8984,-7.2019
1109.3750,-0.6406,6.0472,-10.6846,-2.0426,2.7167,12.3957,-8.6271,1.6330,2.5075,7.3297,-14.8738,-0.5371,-4.0995,1.4498,-8.4205,-0.9693,-4.6694,0.3780,-9.8589
1113.2812,3.1894,7.7983,-9.2022,-4.9334,-2.6920,9.9766,-12.3231,-2.3325,6.2995,7.1808,-10.8327,-0.1259,-3.6826,-2.2733,-5.6959,-0.5781,-5.0429,1.6722,-11.1737
1117.1875,7.2139,8.1694,-5.0874,-4.3448,-7.8121,5.9668,-11.0795,-2.8684,9.5398,9.4173,-3.0094,-1.0686,-3.8887,-3.9595,-1.5304,-0.4547,-5.7547,4.9640,-11.0172
1121.0938,11.1376,6.6322,0.0817,-1.9528,-11.7615,2.0592,-5.3156,-1.6322,12.0387,12.6611,4.6871,-3.6602,-4.4040,-5.2785,2.7216,-1.3509,-6.2156,7.8271,-10.3102
1125.0000,14.5941,3.7528,4.4951,0.0946,-13.7562,0.0283,2.5742,-0.7347,14.0127,15.0053,8.5948,-7.3385,-4.5790,-7.7304,5.8795,-3.1940,-5.9215,8.1593,-9.9877
1128.9062,16.9905,0.7564,7.3106,0.7747,-13.7088,0.4005,9.8667,-1.1250,15.6489,15.4094,7.8995,-11.0239,-4.0287,-11.4670,7.7530,-5.3104,-4.9941,5.7921,-10.0902
1132.8125,17.7315,-1.2884,8.8802,0.6901,-12.2848,1.9720,14.7602,-2.1387,16.8424,14.3292,5.0026,-13.7509,-2.9083,-15.1965,8.9802,-7.0804,-4.0948,2.5458,-9.7673
1136.7188,16.7541,-2.0682,9.9840,1.2346,-10.2691,2.5928,16.6043,-2.4127,17.3710,13.1899,3.4621,-15.1320,-1.5725,-17.1233,10.1423,-8.4104,-3.6932,0.7586,-8.1022
1140.6250,14.8776,-2.0500,10.8940,3.2479,-7.7533,0.6385,15.4808,-1.2469,17.2888,13.1854,5.2076,-15.3806,0.0569,-16.1257,11.0472,-9.6513,-3.3238,1.4977,-4.9362
1144.5312,13.4838,-2.0395,11.1516,6.2899,-3.9096,-3.9235,11.8905,0.7754,17.0551,14.3355,9.2075,-14.9831,2.7384,-12.3203,10.8957,-11.1199,-1.6008,3.8271,-0.9290
1148.4375,13.5815,-2.6736,10.2031,9.0485,2.3209,-9.6178,6.8624,2.3701,17.1529,15.4634,12.5156,-14.3346,7.3800,-6.7471,9.2019,-12.7078,2.8209,5.6068,3.1559
1152.3438,14.9193,-4.1792,8.2186,10.4178,11.0983,-14.5294,2.0895,2.7440,17.4912,15.0183,12.7154,-13.5908,14.0569,-0.6020,6.6026,-13.9235,9.9993,5.0952,7.2007
1156.2500,15.9356,-6.4200,6.2493,10.2893,21.0586,-17.4751,-0.4912,2.3190,17.2056,12.0696,9.7658,-12.7445,21.4216,5.3179,4.7196,-14.2804,18.2172,2.0867,11.7407
1160.1562,14.7632,-9.0199,5.5094,9.4303,29.8278,-18.4266,0.2971,2.3711,15.2208,6.7695,5.8823,-11.7586,27.1631,10.6190,5.0459,-13.6391,24.8076,-2.1892,17.1580
1164.0625,10.6450,-11.3946,6.4125,8.6547,35.4098,-18.0191,4.0175,3.9202,11.2638,0.0806,3.7426,-10.6096,29.3511,14.9687,7.7232,-12.2016,27.8125,-6.1502,22.8139
1167.9688,4.6910,-12.7514,8.2709,8.0715,37.4233,-16.7201,8.7918,6.8306,6.5033,-6.8611,4.5862,-9.2606,27.7208,17.8638,11.2707,-10.2222,27.2577,-8.9545,27.0377
1171.8750,-0.6771,-12.2672,9.9960,7.0689,37.2073,-14.4261,12.6317,9.8596,3.1452,-13.1932,7.6773,-7.6798,23.8817,18.7727,13.6061,-7.7836,25.0287,-10.7840,28.1953
1175.7812,-3.2568,-9.5206,11.2131,5.0043,36.6750,-10.7888,15.0047,11.5713,3.0907,-18.3243,11.3252,-5.9521,20.2171,17.4964,13.6262,-4.8932,23.3894,-12.2715,26.0686
1179.6875,-2.4456,-4.9493,12.7551,1.9495,36.7973,-5.8948,17.3051,11.3295,6.5729,-21.6863,14.3648,-4.3699,18.2599,14.3695,12.0948,-1.7956,23.2644,-13.7290,22.3674
1183.5938,0.5609,0.0858,15.9719,-1.1864,36.9066,-0.6236,21.6474,9.5813,11.8241,-22.6536,16.7757,-3.3374,17.7690,10.0859,11.0824,0.8775,23.6203,-14.8810,19.7795
1187.5000,3.8666,3.8672,21.3292,-3.2785,35.3583,3.6922,28.7835,7.2924,16.1243,-20.8297,19.0630,-3.0678,17.1863,5.3000,12.3457,2.3921,22.4260,-15.2446,20.1280
1191.4062,6.3412,5.2907,27.4899,-3.8338,30.9768,6.0641,36.8311,5.0990,17.5353,-16.4924,21.2146,-3.2940,15.0579,0.3632,15.9088,2.4825,18.4036,-14.6870,23.0013
1195.3125,8.2434,4.6154,31.8010,-3.3754,24.0787,6.4802,42.0501,2.9044,16.0761,-10.7722,22.3961,-3.2946,11.2389,-4.5939,19.9807,1.7185,12.1445,-13.5813,25.9536
1199.2188,10.5054,3.4116,32.0136,-3.0750,16.2272,5.8948,41.3500,0.1796,13.4906,-5.3067,21.7680,-2.3323,6.9103,-9.3731,22.3014,1.2627,5.6771,-12.4310,26.2091
1203.1250,13.3367,3.6331,27.9964,-3.9605,8.9452,5.6230,34.7441,-3.4053,11.8156,-1.5330,19.6418,-0.2404,3.4434,-13.5606,21.8704,2.0998,0.8453,-11.3752,22.6364
1207.0312,15.4288,6.3748,22.0834,-6.3155,2.5057,6.6181,25.8105,-7.6278,11.8483,-0.0693,17.7467,2.3122,1.1230,-16.7198,19.7025,4.3047,-2.1576,-10.1080,16.5331
1210.9375,14.5905,11.1411,17.6627,-9.6567,-4.1349,9.1079,19.6000,-11.9091,12.6425,-0.5728,18.1064,4.1774,-1.1428,-18.7585,18.0222,6.9570,-4.8705,-8.3260,10.6599
1214.8438,9.4484,16.1232,16.9548,-13.1661,-12.1608,12.6916,19.3496,-15.7850,12.3338,-2.0942,21.3163,4.5292,-4.8362,-20.0778,18.5374,8.8200,-9.1657,-6.2712,7.2964
1218.7500,0.8799,19.2893,19.5794,-16.1441,-21.4585,16.6280,24.3298,-19.1448,9.5765,-3.6209,25.7074,3.5327,-10.3807,-21.2744,21.1519,9.2770,-15.5035,-4.7933,6.7955
1222.6562,-8.0693,19.5376,22.9432,-18.1618,-30.1748,20.0107,30.3847,-22.0192,4.4789,-4.4495,28.2889,2.3294,-16.4707,-22.5895,24.1051,8.7803,-22.2919,-4.7757,7.6671
1226.5625,-13.9104,17.1664,24.1263,-18.9673,-35.7522,21.8075,32.7730,-24.1994,-1.5916,-4.2652,26.9113,2.2711,-20.8104,-23.6004,25.3886,8.4446,-26.9249,-6.3789,7.9908
1230.4688,-14.9131,13.4444,21.8519,-18.4327,-36.7046,21.0053,29.2549,-25.1746,-7.0355,-3.0691,21.9822,3.9297,-21.7317,-23.5056,24.2896,9.1176,-27.7227,-8.7883,6.9513
1234.3750,-12.1905,9.7046,17.1255,-16.7014,-33.7475,17.0452,21.2556,-24.5588,-10.9961,-1.1430,16.2974,6.6255,-19.4162,-21.8461,21.8429,10.6874,-25.2462,-10.7514,5.2821
1238.2812,-8.8703,6.6480,12.1994,-14.3599,-29.3587,10.3656,12.4224,-22.6348,-13.5759,0.9297,12.9919,8.8633,-15.7414,-19.0607,19.8663,12.1898,-21.9365,-11.4971,4.3619
1242.1875,-7.9711,4.2719,8.7814,-12.2995,-26.0667,2.5693,5.8183,-20.4117,-15.3123,2.3472,13.1382,9.3752,-12.8682,-16.3223,19.3760,12.6053,-20.3345,-11.2551,4.8179
1246.0938,-10.5323,2.2945,6.8985,-11.1763,-24.7566,-4.1503,1.8981,-18.9644,-16.5312,2.3957,14.8602,7.9946,-11.6881,-14.6670,19.6473,11.6631,-21.2374,-10.9124,5.8455
1250.0000,-15.2858,0.5979,5.1979,-10.8257,-24.2602,-8.1436,-1.3275,-18.5007,-17.1782,0.8613,14.6824,5.7042,-11.3374,-14.0674,18.6539,9.9797,-23.1734,-11.1014,5.8065
1253.9062,-19.9366,-0.7003,2.2947,-10.1970,-22.4771,-9.2752,-6.2649,-17.9814,-17.1753,-1.7709,10.1005,3.8319,-10.1096,-13.2566,14.5391,8.4421,-23.5422,-11.5481,3.5818
1257.8125,-22.9257,-1.5205,-2.0040,-8.0592,-18.1023,-8.9635,-13.5349,-15.7665,-16.8141,-4.5662,1.4248,3.0305,-6.9792,-10.5803,7.0030,7.4014,-20.5102,-11.3180,-0.4665
1261.7188,-24.2983,-2.0788,-6.5648,-4.0703,-11.6252,-9.1315,-21.2734,-10.9135,-16.6829,-6.7233,-8.4463,2.8327,-2.5096,-5.3239,-2.3953,6.4038,-14.2564,-9.7959,-4.7217
1265.6250,-25.1348,-2.8013,-9.8920,0.6334,-4.9177,-10.7475,-26.3639,-4.1165,-17.1313,-8.0544,-16.0425,2.1150,1.5315,1.5000,-11.1684,4.7079,-6.7515,-7.5248,-7.5366
1269.5312,-26.1909,-3.9229,-11.3203,3.9418,0.1413,-13.0329,-26.5645,2.5591,-17.7931,-8.9464,-19.5116,0.0853,3.4645,7.5871,-17.3171,2.1397,-0.3973,-6.0510,-8.4555
1273.4375,-26.9746,-5.1421,-11.4455,4.1725,2.8634,-13.9950,-21.9407,7.0599,-17.7084,-9.7995,-19.3821,-2.9890,2.8350,10.7731,-20.2278,-0.4848,3.3774,-6.7343,-8.4581
1277.3438,-26.0251,-5.7019,-11.4961,1.3919,3.8994,-11.9632,-14.6759,8.8174,-16.0501,-10.4084,-17.5471,-5.8764,0.5573,10.4386,-20.5484,-1.7945,4.6166,-9.4278,-9.0622
1281.2500,-22.1127,-4.9127,-12.2266,-2.3920,4.3930,-7.0038,-7.5855,9.1166,-12.8508,-9.8726,-15.5372,-7.2132,-1.9037,7.8393,-19.3420,-0.8588,4.3103,-12.1799,-11.0305
1285.1562,-15.3265,-2.7244,-13.2563,-4.4349,4.9750,-1.1228,-2.5063,10.0040,-9.0418,-7.2195,-13.5608,-6.4269,-3.5267,5.1082,-17.2754,2.0436,3.4929,-12.3775,-13.7073
1289.0625,-7.1623,0.1335,-13.3505,-3.0695,5.4352,2.9588,0.3867,12.5552,-5.6803,-2.3143,-10.9429,-4.0709,-4.1061,3.6857,-14.4114,5.5062,2.7217,-8.5889,-15.4654
1292.9688,0.4087,2.5998,-11.3615,1.1815,5.2115,3.5936,2.1180,15.8940,-2.9911,3.6933,-7.3050,-1.3803,-3.8668,3.3681,-10.5945,7.8768,2.1664,-1.7093,-14.8659
1296.8750,6.0956,3.9902,-7.0620,6.0123,4.1008,1.2543,3.8898,17.7909,-0.0974,8.8431,-3.2406,0.5513,-2.8838,2.6745,-5.9534,8.2654,1.9412,5.5275,-11.6316
1300.7812,9.7699,4.4092,-1.2866,8.9489,2.4706,-1.9179,6.2922,16.4057,4.2186,11.5143,0.1678,1.3389,-0.9695,0.2018,-1.0554,6.9385,2.1847,10.3737,-6.7720
1304.6875,12.0306,4.5361,4.5952,8.9617,0.8088,-3.6988,9.1314,11.7944,10.2902,11.4422,2.4664,1.2633,1.8622,-4.1234,3.3627,4.8887,2.8027,11.8753,-1.9030
1308.5938,13.4000,4.9618,9.3686,6.9096,-0.8630,-3.3018,11.7319,5.9686,16.9346,9.8427,4.4017,0.7814,4.9080,-8.8676,6.7829,3.0201,3.2609,11.3067,1.6317
1312.5000,13.9362,5.6269,12.3392,4.6060,-3.0274,-1.7279,13.3530,1.4611,22.0670,8.5463,7.2520,0.0759,6.9265,-12.0933,9.0645,1.6254,2.8480,10.9522,3.2402
1316.4062,13.5664,5.8324,13.3124,3.3712,-6.0013,-0.7723,13.5181,-0.4305,24.1881,8.7831,11.4247,-0.9885,7.0134,-12.7128,10.2994,0.4914,1.3608,12.2387,3.0336
1320.3125,12.7067,4.8271,12.4823,3.2676,-9.1380,-1.5316,12.2692,-0.3020,23.5745,10.5026,15.6364,-2.5405,5.5313,-11.1308,10.5927,-0.6114,-0.3705,14.7056,1.5643
1324.2188,12.4314,2.4990,10.4797,3.5504,-10.7328,-3.5874,10.3574,0.2849,22.1360,12.6556,17.6094,-4.3748,4.2013,-8.7290,10.0246,-1.5928,-0.7304,16.5656,-0.3065
1328.1250,13.8702,-0.3985,8.4615,3.7844,-8.9431,-5.4387,9.1890,0.4586,21.9424,14.1045,15.8984,-5.9588,5.0648,-6.6932,8.8087,-2.1742,1.6275,16.3008,-1.4218
1332.0312,17.2625,-2.6892,7.8695,4.5093,-3.1453,-5.7550,10.2965,0.9347,23.5307,14.3795,11.3517,-6.7837,8.9788,-5.1850,7.4108,-2.3039,6.6328,13.9121,-0.5312
1335.9375,21.4991,-3.5600,9.6879,6.7639,5.3332,-4.4113,14.3974,3.3096,25.3679,13.7174,6.8375,-6.7491,14.8094,-3.5132,6.4046,-2.3791,12.5043,10.7847,3.1253
1339.8438,24.6440,-3.0934,13.5779,10.8383,13.7866,-2.5183,20.5783,8.2967,24.9822,12.4810,5.2443,-6.2408,20.0467,-1.0867,6.1153,-2.9858,16.7019,8.3366,9.1212
1343.7500,25.1170,-2.1536,17.6366,15.3913,19.6988,-1.5147,26.3272,14.4309,20.9556,10.5850,7.2762,-5.8283,22.4794,1.7346,6.3762,-4.3495,17.5546,6.6648,15.6611
1347.6562,22.6370,-1.7303,19.2679,17.8600,22.1913,-2.1222,28.7078,18.4779,14.2368,7.4976,10.8845,-5.8321,21.7024,3.6739,6.6990,-6.0090,15.4072,4.4068,20.3318
1351.5625,18.2063,-2.2495,16.8343,16.0364,22.2914,-3.9949,26.1267,17.4268,7.7168,2.8258,12.9429,-6.1005,19.3130,3.4689,6.8068,-7.0566,12.4132,-0.0111,21.5085
1355.4688,13.2156,-3.3513,10.9955,9.6602,21.8618,-6.2408,19.5285,10.6126,4.3388,-3.0607,11.9077,-6.1455,17.6455,0.9287,7.0964,-6.7819,11.0935,-6.7797,19.4772
1359.3750,8.4861,-4.2563,4.6415,0.7570,22.0573,-8.2454,12.0584,0.3192,5.1439,-8.9664,9.2819,-5.4887,18.0238,-2.7860,8.5558,-5.1742,12.6970,-14.1545,16.3520
1363.2812,4.0843,-4.3931,1.2304,-7.6145,22.5142,-10.0267,7.2409,-9.6525,8.6932,-13.4773,8.5534,-3.9389,19.8624,-5.9334,12.0580,-2.8427,16.5280,-19.5045,14.6731
1367.1875,0.0066,-3.7972,2.5484,-13.2995,21.8516,-11.8380,6.8345,-16.3949,12.2331,-15.7661,12.3142,-1.6340,21.2575,-7.4135,17.5023,-0.4359,20.6440,-21.1864,15.6006
1371.0938,-3.0231,-3.0087,7.4671,-16.2147,19.0031,-13.4624,9.8535,-19.4849,13.6433,-15.9600,19.8393,1.0896,20.5266,-7.4699,23.5076,1.8996,23.2882,-19.7505,18.0441
1375.0000,-3.5839,-2.5899,12.6716,-17.9113,14.2500,-13.9502,13.4685,-20.6420,12.6811,-14.8310,27.1780,3.8279,17.4478,-7.3262,28.0282,4.5104,23.9280,-17.4862,19.4584
1378.9062,-0.6528,-2.6500,14.9304,-19.9749,9.1152,-12.1658,15.1326,-21.8774,10.6816,-13.1520,29.8729,6.1540,13.2554,-8.0912,29.5722,7.6837,23.1776,-16.6420,17.7921
1382.8125,5.0413,-2.7189,13.3157,-22.6070,5.2248,-7.7531,14.3719,-23.7165,9.1263,-11.2998,26.2881,7.6529,9.4930,-9.8621,28.1831,11.0890,21.8269,-17.7291,13.1452
1386.7188,10.6688,-2.0315,9.7725,-24.5237,3.0819,-1.6869,12.9379,-24.9149,8.3372,-9.3783,18.9379,8.0645,6.7320,-11.7607,25.4420,13.8021,19.8927,-19.2417,7.8506
1390.6250,12.5968,-0.0082,7.6310,-24.1820,1.7380,4.1518,13.2801,-23.7945,7.3336,-7.5944,12.7016,7.5110,4.2149,-12.8364,23.4194,14.9783,16.5141,-18.9813,4.8623
1394.5312,8.6824,3.3789,9.1707,-21.2395,-0.3954,8.1404,16.5696,-19.9763,4.8669,-6.3725,11.2472,6.5985,0.6683,-13.0180,23.2844,14.6096,10.7586,-15.8877,5.6422
1398.4375,-0.0438,7.5438,14.0336,-16.9924,-4.2675,9.9374,21.8072,-15.0047,0.6782,-5.9979,14.4207,6.1917,-4.4371,-13.2543,24.5478,13.6427,2.6346,-10.9034,9.1453
1402.3438,-9.6746,11.5247,19.6117,-13.4252,-9.4430,10.5444,26.6453,-11.3285,-4.0955,-6.1448,18.6231,6.9010,-10.2392,-14.6750,25.4754,13.2550,-6.5442,-6.2249,12.6733
1406.2500,-15.7233,14.3772,23.0297,-11.6884,-14.4287,11.3485,29.1847,-10.4993,-7.6843,-5.8873,19.8409,8.6251,-14.9682,-17.4639,24.3650,13.8464,-14.7526,-3.6121,13.9299
1410.1562,-15.9431,15.5430,23.1695,-11.2871,-17.7448,12.9232,29.2632,-12.0771,-8.9657,-4.4118,16.8945,10.5450,-17.1470,-20.4251,20.7657,14.6378,-20.3536,-3.1562,12.6871
1414.0625,-11.7067,15.0508,21.2320,-10.6405,-18.8784,14.5715,28.2311,-14.1096,-8.2361,-1.9285,12.3063,11.6656,-16.5501,-21.6873,15.7839,14.3039,-22.8954,-3.4565,10.7921
1417.9688,-6.9465,13.4659,19.5204,-8.4932,-18.4293,14.9898,27.4819,-14.7148,-6.9156,0.0994,10.1039,11.5468,-14.2131,-20.0503,11.2966,12.1743,-23.0972,-2.9552,10.5557
1421.8750,-5.3894,11.5950,19.5103,-4.9508,-17.4485,13.4873,27.0359,-13.4109,-6.4995,-0.1356,12.3363,10.6495,-11.5761,-15.9210,8.6664,8.9687,-22.1640,-1.2358,12.8221
1425.7812,-8.0483,10.0674,20.7488,-1.2641,-16.5785,10.7159,25.4098,-11.1231,-7.6022,-3.2605,17.1203,9.9738,-9.4942,-11.0718,7.8679,6.3535,-21.0163,0.8054,16.2421
1429.6875,-12.7264,9.0207,21.3776,1.3978,-15.6677,8.2523,20.9163,-8.9916,-9.7485,-7.8106,19.8277,10.2322,-7.8553,-7.3850,7.5862,5.5893,-19.9539,1.9833,18.2966
1433.5938,-15.8104,8.1068,19.7460,3.0552,-14.0649,7.3368,13.3238,-7.1466,-11.8979,-10.8930,16.5288,11.2201,-5.9745,-5.5510,6.1447,6.3830,-18.8215,2.0673,17.2332
1437.5000,-14.9751,6.8547,15.7439,4.8743,-11.2500,7.8053,4.4705,-4.6074,-13.1522,-10.1950,7.0312,11.9356,-3.3131,-4.7251,2.5798,6.9845,-17.3605,2.0948,13.3878
1441.4062,-10.8204,5.1600,10.7978,7.9723,-7.2644,8.1358,-2.7513,-0.4172,-13.1090,-5.9091,-4.8294,11.4107,0.0878,-3.3746,-2.8367,5.5766,-15.4082,3.4500,8.8911
1445.3125,-6.3237,3.5122,6.6127,12.1302,-2.6739,6.6332,-6.3219,5.0388,-11.7774,-0.9752,-13.8367,9.5974,3.7137,-0.5941,-8.8758,1.8863,-12.8857,6.5148,6.0462
1449.2188,-4.6202,2.7083,3.7713,15.6277,1.7898,2.8256,-6.4696,9.8253,-9.3728,0.8067,-16.9294,7.5507,6.9846,3.1845,-14.1336,-2.3414,-9.7606,10.1147,5.6821
1453.1250,-6.8008,3.1836,1.3698,16.4900,5.5675,-2.0670,-5.4477,11.7276,-6.2949,-2.4293,-14.9788,6.6870,9.5512,6.6432,-17.7640,-4.5062,-6.1333,12.3269,6.7384
1457.0312,-11.2886,4.4579,-2.0244,14.1883,8.3938,-6.0053,-5.8892,10.0521,-3.2301,-8.9982,-11.6232,7.6658,11.3004,8.7750,-19.7478,-3.1070,-2.3469,12.0407,7.3144
1460.9375,-15.1102,5.2099,-6.9134,10.3496,10.2701,-7.6731,-8.9690,6.4363,-1.0487,-14.5813,-10.2633,9.8029,12.2408,9.7968,-20.6505,1.0644,1.1170,9.9709,6.2674
1464.8438,-15.9956,4.0809,-12.1327,7.7591,11.4515,-7.4568,-13.6848,3.8630,-0.3169,-15.1632,-11.6206,11.5402,12.5223,10.9893,-21.1192,5.4862,4.0175,8.2259,4.0826
1468.7500,-13.7526,0.7180,-15.4637,8.3264,12.4539,-7.0656,-17.6648,4.5214,-0.7052,-9.8909,-13.6205,11.6432,12.5900,13.5615,-21.4463,7.8101,6.7164,8.7117,2.3911
1472.6562,-10.0466,-3.7246,-15.1391,11.5887,13.9070,-8.0904,-18.7834,8.1500,-0.8745,-1.7201,-13.4207,10.1707,13.1773,17.4564,-21.4037,7.5708,10.0720,11.6335,2.6014
1476.5625,-6.9542,-7.1150,-11.0937,14.9625,16.1322,-10.6631,-16.3934,12.1792,0.8244,4.6757,-9.7674,8.3994,14.8869,21.0820,-20.3839,6.3057,14.7201,15.3066,4.7577
1480.4688,-5.4869,-7.6654,-5.0551,15.5942,18.6346,-13.3067,-11.4344,13.5982,5.1784,6.2024,-3.8080,7.7209,17.5206,22.2302,-17.7526,5.9958,20.1785,17.4466,7.4624
1484.3750,-5.1207,-5.1664,0.5274,12.3904,19.9751,-14.1072,-5.6024,11.1166,11.3450,3.4212,2.0854,8.3968,19.7361,19.5167,-13.2532,7.1603,24.5688,16.9172,8.8193
1488.2812,-4.4732,-1.2313,3.8783,6.6729,18.3759,-12.2666,-0.3685,5.9764,17.2133,-0.0824,6.2869,9.2207,19.5537,13.2886,-7.2673,8.2625,25.4525,14.5575,7.6107
1492.1875,-2.4062,1.6935,4.6609,1.0175,12.8879,-8.7838,3.4929,0.8648,20.7909,-0.4590,8.9756,8.4370,15.6279,5.3824,-0.7595,7.0104,21.4466,12.4642,3.8797
1496.0938,1.3305,1.9035,3.7546,-2.7212,4.3832,-5.7101,5.8133,-2.1253,21.6391,3.6481,11.5213,5.2293,8.4658,-1.9983,5.1380,2.5189,13.5293,12.3424,-1.3179
1500.0000,6.2445,-0.5034,2.4420,-4.5887,-4.4486,-4.5742,6.7963,-2.8458,21.2111,10.3626,14.9197,0.5751,0.5934,-7.4040,9.7167,-3.5011,4.9517,14.2477,-6.5833
1503.9062,11.6503,-3.8185,1.7020,-6.0285,-10.3304,-5.2336,6.9882,-2.7672,21.7262,16.2154,18.7467,-3.2834,-4.6969,-10.5062,13.0884,-7.6457,-0.4342,16.6621,-10.6863
1507.8125,16.9915,-5.9953,1.9980,-8.2380,-11.1916,-6.0587,7.3539,-3.4018,24.3668,18.7146,21.5224,-4.4161,-5.3157,-11.6505,16.0506,-7.2373,-0.4391,17.7425,-12.7019
1511.7188,21.6857,-6.0450,3.4222,-10.8585,-7.3450,-5.2804,9.0659,-4.8904,28.2032,17.8322,22.0766,-2.6293,-1.7035,-11.1911,19.4142,-2.3922,4.1566,16.6644,-12.0072
1515.6250,24.8386,-4.5467,5.8166,-12.1493,-1.1987,-2.4113,12.8418,-5.9398,30.7575,15.4400,20.6416,0.3817,3.5021,-9.2668,23.2127,3.9306,10.2203,14.0076,-8.4544
1519.5312,25.3803,-2.9652,8.7134,-10.5049,4.3379,1.3844,18.2213,-5.0896,29.8652,13.4327,18.7046,2.2954,7.3034,-6.1570,26.4148,8.0061,14.4226,11.0008,-2.6907
1523.4375,22.7790,-2.3830,11.3152,-6.0137,7.6492,4.2261,23.4858,-2.1549,25.4367,12.2239,17.7998,1.8788,8.3861,-2.7449,27.4942,7.9687,15.4099,8.3960,3.7753
1527.3438,17.8197,-2.6592,12.8130,-0.7046,9.1484,4.9676,26.5710,1.4214,19.7338,10.7794,18.3492,-0.1640,7.8734,-0.4768,25.5823,4.9745,14.4463,5.9728,9.1121
1531.2500,12.6541,-2.6378,12.9928,2.7770,10.4831,3.9945,26.5009,3.5997,15.8871,7.9228,19.5656,-1.8399,8.2378,-0.6653,21.4021,2.0563,14.1106,3.0330,12.1461
1535.1562,9.7646,-1.1788,12.6440,3.0120,12.8862,2.7709,24.2743,3.2600,15.7334,3.5879,20.4254,-1.4657,11.2113,-3.6239,17.1916,1.6514,16.0878,-0.6629,13.1045
1539.0625,10.3782,1.8448,13.2464,0.6865,15.9789,2.5683,22.3738,0.9194,18.5864,-1.1185,20.7371,1.0497,16.3048,-8.3573,15.4781,3.7880,19.7554,-4.4358,13.4470
1542.9688,13.4712,5.3587,15.9364,-2.1661,17.9528,3.4498,23.0743,-1.9094,21.8389,-4.9863,21.2683,4.2155,21.0729,-13.1302,17.4337,6.3143,22.6328,-7.1536,14.7585
1546.8750,16.2553,7.8081,20.4392,-3.8855,16.9731,4.3233,26.7356,-4.0927,22.8955,-7.7829,22.8020,6.1788,22.9129,-16.5229,21.9628,6.8597,22.3134,-8.2042,17.4722
1550.7812,16.0042,8.1819,24.8733,-4.4313,12.6942,3.9699,31.4068,-5.7550,20.9447,-10.2495,25.0350,6.1261,20.9989,-18.1729,26.2664,4.8482,18.3690,-8.0803,20.4383
1554.6875,12.0102,6.5662,26.7774,-5.1704,6.6989,2.1583,34.1372,-7.9182,17.2640,-13.0045,26.4449,4.7528,16.8635,-18.6574,27.6070,1.9224,12.7553,-8.0169,21.7622
1558.5938,6.2225,3.9010,24.7528,-7.4751,1.5109,-0.0792,33.0653,-11.2858,13.9387,-15.4642,25.4048,3.5058,13.1974,-18.6907,25.1022,0.5193,8.4171,-8.9713,20.3213
1562.5000,1.9730,1.2651,19.5224,-11.3857,-1.0792,-1.2110,28.7043,-15.3249,12.0940,-15.9793,21.6578,3.3178,11.8160,-18.3759,20.2929,1.8678,7.1650,-10.8288,16.7664
1566.4062,1.5924,-0.6814,13.5483,-15.4801,-1.1396,-0.3554,23.4441,-18.5238,11.0515,-13.2910,16.8308,3.9252,12.3570,-17.1806,16.0676,5.0922,8.4196,-12.5334,13.1622
1570.3125,4.6066,-1.7327,9.4161,-18.0194,-0.3887,2.1206,19.6878,-19.6345,9.0158,-8.0977,13.4082,4.3051,12.6714,-14.6446,14.7013,8.1007,9.7221,-13.0239,11.4938
1574.2188,7.8858,-1.8119,8.1713,-18.3374,-0.8870,4.9922,18.1237,-18.7905,4.6624,-3.1978,12.9003,3.7784,10.5468,-11.1598,16.3947,9.4034,8.5604,-12.1451,12.1986
1578.1250,7.7482,-0.7553,8.8563,-17.2699,-3.6437,7.1660,17.5017,-17.4668,-1.6730,-1.7581,14.6970,2.7560,5.4068,-8.0611,19.3150,9.2583,4.1163,-10.7249,13.8985
1582.0312,2.5899,1.5116,9.5650,-16.2910,-8.1239,8.4169,16.0219,-17.2530,-8.1184,-4.8927,16.5915,2.4337,-1.2858,-6.8477,21.0275,9.1867,-2.3159,-9.7617,14.5499
1585.9375,-5.8295,4.5969,9.1207,-16.1691,-12.8831,9.3011,13.1018,-18.4886,-12.5456,-10.5115,16.5845,3.6783,-7.1469,-8.1210,20.2096,10.3591,-8.4227,-9.4727,13.0802
1589.8438,-13.4030,7.5350,7.9976,-16.3589,-16.7090,10.4126,9.9806,-19.9775,-13.9737,-14.5547,14.4866,6.0873,-10.5739,-11.1157,17.4055,12.3399,-12.5394,-9.0966,10.1802
1593.7500,-16.3323,9.2257,7.7426,-15.6625,-19.3563,11.7024,8.6229,-20.0792,-13.0540,-13.8500,11.9774,8.0949,-11.7274,-14.2419,14.3749,13.3558,-14.6281,-7.6671,7.6232
1597.6562,-13.6002,9.1672,9.4134,-13.5344,-21.3993,12.4854,9.8612,-18.2504,-11.3910,-8.4466,11.0620,8.1245,-12.1327,-16.2229,12.6596,11.8937,-15.9430,-5.0724,6.6983
1601.5625,-7.5731,7.8742,12.3781,-10.8039,-23.4689,12.1140,12.4122,-15.6516,-10.3525,-1.5860,12.2259,5.8722,-13.3406,-16.9106,12.5087,8.2265,-17.8027,-2.4065,7.0799
1605.4688,-2.3755,6.5436,14.5287,-9.0940,-25.5845,10.6908,13.6926,-14.2004,-10.3129,2.7113,13.8596,2.6384,-15.7539,-17.1275,12.9031,4.4668,-20.5025,-1.2057,7.0711
1609.3750,-1.2148,6.1385,13.7785,-9.3945,-27.1090,9.1420,11.8287,-14.8135,-10.7956,2.5709,13.4686,0.3707,-18.4827,-17.7102,12.4911,2.9848,-23.1625,-2.1697,5.0005
1613.2812,-4.4917,6.5960,9.6300,-11.0563,-27.2837,8.5344,7.1858,-16.3640,-11.2008,-0.5759,9.6776,0.1382,-20.2084,-18.6067,10.5716,4.4566,-24.4962,-4.4869,0.5880
1617.1875,-9.8720,6.8340,3.5280,-12.1699,-25.8243,9.1893,2.0888,-16.3624,-11.3960,-3.4407,3.3636,1.2632,-20.2584,-18.8301,7.3606,7.2005,-23.7909,-6.4328,-4.8590
1621.0938,-14.0737,5.6136,-2.2812,-11.1002,-23.0837,10.3547,-1.0952,-12.9316,-11.6994,-3.6622,-3.0173,1.8439,-19.0220,-17.3216,3.4941,8.4456,-21.3295,-6.8095,-9.5395
1625.0000,-14.9876,2.6004,-6.4252,-7.8997,-19.7112,10.7458,-1.9293,-6.4850,-12.3943,-1.6003,-7.3248,0.2969,-17.4624,-13.9660,-0.6128,6.5739,-18.0346,-6.0072,-12.5668
1628.9062,-12.6968,-1.2354,-9.2333,-4.3510,-16.1842,9.5445,-2.2483,0.3338,-13.3257,0.2983,-9.2571,-3.2848,-16.2357,-9.8477,-4.8995,2.5222,-14.7491,-5.7053,-14.4753
1632.8125,-8.9110,-4.2342,-12.0774,-2.5313,-12.6526,7.0537,-4.5262,4.5074,-13.9848,-0.0741,-10.2558,-7.0518,-15.1957,-6.4773,-9.2261,-0.8487,-11.7841,-7.3655,-16.4354
1636.7188,-5.5097,-5.2129,-15.8659,-3.0839,-9.2045,4.4734,-9.6122,4.8430,-13.9790,-2.4374,-11.9584,-8.7004,-13.6687,-4.6307,-12.9462,-0.9812,-9.0312,-10.7543,-18.9509
1640.6250,-3.3971,-4.2633,-20.0395,-4.6971,-6.2439,2.9702,-15.7725,2.7226,-13.3995,-4.2893,-14.6062,-7.1871,-11.2085,-3.8144,-15.1031,2.2949,-6.4135,-13.8199,-21.2766
1644.5312,-2.4181,-2.5672,-22.9582,-5.3063,-4.5528,2.7742,-19.9253,0.7690,-12.6926,-3.2033,-16.8231,-3.5549,-8.1524,-2.8610,-15.2477,6.4835,-4.1885,-14.1762,-22.1337
1648.4375,-2.1249,-1.4184,-23.3258,-4.0339,-4.8830,3.0001,-20.1033,0.5293,-12.1286,0.7287,-16.9418,-0.2488,-5.5003,-1.1663,-14.1547,8.1989,-2.8187,-11.0756,-21.0873
1652.3438,-2.5280,-1.2842,-21.3691,-2.1708,-7.3542,2.3099,-17.0848,1.1377,-11.3694,4.5322,-14.6645,0.5623,-4.2158,0.5346,-13.6009,5.6363,-2.5551,-6.2279,-19.2655
1656.2500,-4.0944,-1.6685,-18.6841,-2.2243,-11.1378,-0.1105,-13.7622,0.1459,-9.5869,4.6032,-11.5130,-1.5814,-4.5097,0.6263,-15.0904,-0.1542,-3.1421,-2.6653,-18.6042
1660.1562,-7.0080,-1.8250,-16.8371,-5.6912,-14.7169,-3.9844,-12.7049,-4.1037,-6.1032,-0.1339,-9.5825,-5.2531,-5.6550,-1.9626,-18.4062,-6.1281,-3.9265,-2.4263,-20.1185
1664.0625,-10.4018,-1.6248,-15.9451,-11.3874,-16.5814,-8.1477,-13.9467,-10.5500,-1.0336,-6.7985,-9.6375,-8.2624,-6.4441,-6.5375,-21.2498,-9.5193,-4.2757,-4.8689,-22.6805
1667.9688,-12.3494,-1.7558,-14.5417,-15.8563,-15.9077,-11.2886,-14.9245,-15.6630,4.6326,-10.2412,-10.2533,-9.1923,-5.9219,-10.7371,-20.5464,-9.7639,-3.9444,-7.0239,-23.5240
1671.8750,-10.8008,-3.0426,-10.9528,-15.7492,-12.8138,-12.6546,-12.7322,-15.8749,9.6281,-6.7575,-8.8759,-8.2437,-3.8817,-12.0561,-14.6736,-8.6682,-3.1000,-5.8255,-20.3023
1675.7812,-4.8839,-5.4929,-5.0530,-10.4267,-8.1183,-12.2936,-6.8573,-10.3771,13.2180,2.9772,-4.0234,-6.8871,-0.8619,-9.6970,-4.9763,-8.8208,-2.0443,-0.5408,-13.1411
1679.6875,4.3364,-7.9746,1.1537,-2.7220,-2.8703,-10.8184,-0.0417,-2.0570,15.5704,14.0766,3.2098,-6.7129,2.2360,-5.2864,4.7290,-11.5640,-0.9382,6.4997,-4.9547
1683.5938,14.1946,-8.9241,4.7772,2.8434,2.0118,-9.0057,3.6361,4.2754,17.3970,20.7036,9.7070,-8.3768,4.5783,-1.7988,10.5151,-16.0576,0.2067,11.4875,0.4251
1687.5000,21.6694,-7.5803,4.2230,3.1346,5.8553,-7.5253,2.0454,5.1209,19.1912,20.0271,12.6246,-11.3231,5.6498,-1.4237,10.9556,-20.0079,1.3075,11.8534,0.9896
1691.4062,24.7847,-4.7185,0.5576,-1.5060,8.2269,-6.8478,-3.0041,0.5815,20.7371,13.9462,11.6244,-14.3114,5.3255,-3.9769,8.0602,-21.3436,2.0666,8.0541,-1.9446
1695.3125,23.3905,-2.2044,-3.1153,-7.6839,8.9988,-7.1891,-6.8182,-5.9693,21.3267,7.3754,9.2047,-16.2184,3.8912,-7.0798,5.7815,-19.5144,2.1627,3.0903,-4.6950
1699.2188,19.0059,-1.6438,-3.8614,-11.4984,8.5104,-8.4055,-5.2636,-10.4992,20.4990,4.5034,8.7917,-16.5363,2.0571,-7.9806,7.1547,-15.5572,1.6966,0.1808,-3.9472
1703.1250,13.9609,-3.1867,-0.9945,-11.2379,7.6306,-9.9500,2.0301,-11.1606,18.6381,5.8900,12.0678,-15.3712,0.8496,-5.6261,12.1823,-11.1262,1.4792,0.4084,0.8344
1707.0312,10.3511,-5.4661,3.6009,-8.2449,7.5002,-11.0722,11.2594,-9.2461,16.8470,8.4813,17.6468,-13.1647,1.2554,-1.4133,18.0122,-7.4083,2.7650,2.1019,7.1712
1710.9375,9.2553,-6.7471,7.1144,-5.4822,8.9648,-11.2588,17.2220,-7.7023,16.1209,8.2894,22.1293,-10.4732,3.6885,1.9065,21.2011,-4.7324,6.4476,2.3071,11.6363
1714.8438,10.4314,-6.3574,8.0456,-5.1127,12.0184,-10.6202,17.1622,-8.5628,16.4620,3.4872,22.6656,-7.9167,7.5985,2.2763,20.2683,-2.9423,12.2322,-0.9073,12.5291
1718.7500,12.5177,-5.2152,7.2149,-7.0317,15.6812,-9.8461,12.7224,-11.3884,16.7000,-4.4539,18.9883,-6.1444,11.5779,-0.2506,16.5804,-1.9544,18.4565,-7.1065,11.0254
1722.6562,13.6709,-4.9951,6.7956,-9.3553,18.4933,-9.6438,8.5364,-13.8405,15.2661,-12.2392,13.3809,-5.6343,14.0455,-3.7417,12.9853,-1.9006,22.8504,-14.0118,9.9576
1726.5625,12.4676,-6.6045,8.2889,-10.2164,19.3675,-10.0393,8.6516,-13.7302,11.4065,-17.4024,8.7735,-6.3753,14.1537,-5.9567,11.4197,-2.7880,23.8419,-19.2776,11.3245
1730.4688,8.7252,-9.2382,11.2234,-9.2476,18.2459,-10.1430,13.6237,-10.7661,5.9264,-19.9174,6.6345,-7.7089,12.3268,-5.9580,11.4868,-4.1374,21.5497,-22.0054,14.6356
1734.3750,3.7826,-10.8342,13.6893,-7.5758,16.0889,-8.6952,20.4796,-6.6252,0.8505,-21.6005,6.3582,-8.5782,10.0177,-4.5493,11.1363,-5.0823,17.7352,-22.8767,17.4411
1738.2812,-0.0699,-9.6112,14.1977,-6.5397,14.1710,-5.0758,25.3663,-3.4689,-1.8318,-24.0387,6.4613,-8.1157,8.7788,-3.3656,8.7982,-4.9282,14.6746,-23.0397,17.5425
1742.1875,-0.8563,-5.4678,13.1779,-6.4226,13.1524,-0.0005,26.5656,-2.2910,-1.4812,-26.9263,6.3345,-6.1774,9.2360,-3.5145,5.0976,-3.6714,13.6731,-22.8978,14.9711
1746.0938,1.8089,-0.1097,12.7273,-6.3639,12.5715,4.7329,25.4086,-2.4941,0.7431,-28.2162,6.8953,-3.4040,10.6546,-4.9052,2.6287,-1.9608,14.2229,-21.8837,12.0401
1750.0000,6.2852,4.2091,14.7553,-5.4440,11.1343,7.3799,24.5185,-2.8967,2.6268,-25.8750,9.5591,-0.7290,11.4026,-6.6849,3.9002,-0.4831,14.3838,-19.3062,11.4210
1753.9062,9.7269,6.3292,19.1148,-3.8295,7.6298,7.4701,25.1173,-3.0962,2.3381,-19.7027,14.5207,1.3049,10.0168,-8.2068,9.1277,0.6905,12.1315,-15.3497,13.8740
1757.8125,9.7448,6.9074,23.4115,-2.8084,1.8665,6.1769,25.8741,-3.8595,-0.4098,-11.7017,20.0102,2.8907,6.1704,-9.5600,15.7407,2.1722,6.7603,-11.2035,17.5642
1761.7188,5.8564,7.6684,24.7946,-3.5985,-5.0099,5.5075,24.3448,-6.1840,-4.2264,-4.7535,23.3514,4.6907,0.9170,-11.2050,20.1067,4.6206,-0.5959,-8.1440,19.5616
1765.6250,-0.2585,9.8340,22.3123,-6.0115,-11.0553,6.8933,19.6885,-9.9564,-6.9942,-0.7445,23.0336,7.1852,-3.9264,-13.1602,20.1660,7.9369,-7.6434,-6.4178,18.2810
1769.5312,-5.8807,13.0258,17.8384,-8.2901,-14.6097,10.2330,14.1100,-13.5721,-7.2498,0.3746,20.0303,10.1713,-6.8372,-14.6384,16.8984,11.0480,-12.3233,-5.0157,14.8134
1773.4375,-8.9673,15.5237,14.6833,-8.4505,-15.2557,14.0829,11.4848,-15.0387,-5.1088,0.0173,17.1436,12.8254,-7.4161,-14.6052,13.4546,12.5699,-13.9874,-2.6518,12.0147
1777.3438,-9.2667,15.6410,14.9217,-6.0767,-14.0571,16.7869,14.0787,-13.7049,-2.1876,-0.4162,16.7979,14.2780,-6.5032,-12.8218,12.6467,11.8740,-13.6214,0.8618,12.0907
1781.2500,-8.1159,13.0749,17.5990,-2.9772,-12.9218,17.6149,20.0912,-11.0686,-0.6243,-0.4645,19.0512,14.2269,-5.5769,-10.3746,14.7891,9.6722,-13.0496,4.1073,14.6806
1785.1562,-7.2008,9.1491,19.3413,-1.9608,-13.4590,17.0342,24.3228,-9.7872,-1.8276,-0.4128,21.4740,13.0952,-5.8574,-9.0565,17.5744,7.5711,-13.7109,5.0097,17.0379
1789.0625,-7.3062,5.7959,16.9708,-4.5716,-16.0039,16.0047,21.8086,-11.5317,-5.6876,-0.4313,21.0294,11.6260,-7.6633,-9.9657,18.0073,6.8829,-15.8161,2.5675,16.1815
1792.9688,-8.0010,4.1472,10.0759,-9.6059,-19.3814,15.0034,11.7499,-15.4042,-10.6676,-0.0809,16.4417,10.2727,-10.3573,-12.4648,14.7850,7.6254,-18.3706,-2.0776,11.2651
1796.8750,-8.3793,3.8690,1.4729,-13.7240,-21.5520,13.6618,-1.4000,-18.3133,-14.6746,1.2296,9.1414,8.8976,-12.8338,-14.4640,9.2086,8.5322,-19.9505,-6.2340,4.2436
1800.7812,-8.1147,3.6987,-4.8446,-13.8220,-20.7740,11.2979,-10.7753,-17.1671,-16.2011,3.2877,2.0603,7.0114,-14.2042,-13.9338,3.9678,8.0956,-19.6572,-7.5825,-1.6797
1804.6875,-7.8729,2.6273,-6.6726,-9.3593,-16.6162,7.7905,-11.9040,-11.2360,-15.1141,4.6917,-2.6739,4.3187,-14.2667,-10.4895,0.8854,5.8138,-17.6317,-5.9435,-4.5340
1808.5938,-8.7320,0.6789,-5.1670,-2.8001,-10.2422,3.9258,-5.9191,-2.8213,-12.6827,3.6688,-5.2293,1.0811,-13.5215,-5.7407,-0.4852,2.6292,-14.8577,-3.4425,-4.9779
1812.5000,-11.1464,-1.3345,-3.8309,2.2157,-3.8034,0.8369,1.2543,4.3386,-10.8452,-0.3995,-7.5756,-2.0171,-12.7685,-2.0609,-2.2906,0.1901,-12.4566,-2.8677,-5.5378
1816.4062,-14.3926,-2.7669,-5.7766,3.5506,0.7027,-0.9862,3.1403,7.7099,-11.1130,-6.0494,-11.5289,-4.3709,-12.5572,-0.7333,-6.3854,-0.4738,-10.9724,-5.4715,-8.3923
1820.3125,-17.0256,-3.8622,-11.4283,1.9961,2.4450,-2.1871,-2.7750,7.6084,-13.7115,-10.3897,-17.0598,-5.8782,-12.8219,-0.9885,-12.6293,0.2144,-10.0969,-9.9530,-13.5557
1824.2188,-17.9962,-5.5459,-18.3858,0.3609,2.0584,-4.0122,-13.5457,6.6112,-17.4348,-11.0565,-22.2893,-6.9124,-12.9147,-0.7494,-18.8942,0.7211,-8.9703,-13.4420,-18.9022
1828.1250,-17.5006,-8.4564,-23.3923,1.0182,1.0860,-7.1620,-23.2089,7.2817,-20.3099,-8.0142,-25.0958,-7.8878,-12.0176,1.5115,-22.7412,-0.3531,-6.8247,-13.7157,-21.9109
1832.0312,-16.8384,-12.1138,-24.7253,3.9368,0.9448,-11.0564,-27.1352,10.0767,-20.7024,-3.7202,-24.8738,-8.8279,-9.6853,5.3542,-23.3368,-3.1359,-3.5457,-10.8954,-21.6175
1835.9375,-17.3779,-15.0587,-23.1380,6.7885,2.0783,-14.2586,-24.9731,13.0963,-18.2274,-1.3940,-22.9041,-9.3585,-6.1841,8.6186,-22.0173,-6.3818,0.2007,-7.2926,-19.1801
1839.8438,-19.4557,-15.9505,-20.7947,6.9962,3.8142,-15.7894,-20.1771,13.7988,-13.9277,-2.6555,-21.0677,-9.1592,-2.4024,9.1918,-21.0743,-8.4945,3.3450,-5.5558,-16.7068
1843.7500,-22.0720,-14.7401,-19.2934,3.9937,4.9625,-16.1912,-16.8369,11.2022,-9.6159,-6.3588,-20.1102,-8.4712,0.6345,6.8476,-21.8206,-8.8437,5.0540,-6.6120,-15.4510
1847.6562,-23.5697,-12.8792,-18.4940,-0.1959,4.6966,-17.2838,-16.4963,6.7428,-6.7902,-9.5436,-19.0520,-8.1574,2.3530,3.5807,-23.5508,-8.3018,5.2318,-9.0235,-14.9322
1851.5625,-22.6979,-12.2848,-17.0267,-2.5563,3.0939,-20.6239,-17.3889,3.1028,-5.7951,-9.7506,-16.2878,-9.1572,2.9480,2.0606,-24.2056,-8.5444,4.5651,-10.2115,-13.6560
1855.4688,-19.2327,-13.8216,-13.8537,-1.5443,0.9863,-25.8692,-16.4121,2.0075,-5.7271,-6.8685,-11.3683,-11.7064,3.2072,3.3945,-22.0991,-10.6518,4.0773,-8.5062,-10.6924
1859.3750,-13.8023,-16.5215,-9.4038,1.6001,-0.7101,-30.5174,-11.9842,2.8250,-5.0962,-3.0648,-5.7865,-14.9470,3.9453,6.0350,-17.2193,-14.1101,4.4691,-4.3694,-6.6631
1863.2812,-7.2819,-18.2148,-5.2807,3.7912,-1.6382,-31.4864,-5.4162,3.1216,-2.7722,-0.9083,-1.9268,-17.3028,5.4223,6.8216,-11.0514,-17.0120,5.6706,0.1319,-3.2642
1867.1875,-0.4126,-17.1265,-2.8666,2.5512,-2.1117,-27.4757,0.1734,0.7172,1.4008,-1.2410,-0.9790,-17.4167,7.1482,3.4451,-5.1866,-17.3328,6.9092,3.0766,-1.7668
1871.0938,6.0697,-13.2096,-2.1162,-1.9768,-2.6195,-20.2540,2.3295,-4.4287,6.6584,-2.5240,-1.6333,-14.9984,8.2281,-3.5571,-0.0103,-14.3434,7.2661,4.1796,-1.8385
1875.0000,11.1499,-8.1875,-1.6276,-7.0549,-3.1473,-13.7029,1.0461,-10.0189,11.8927,-2.1580,-0.8315,-10.9773,8.0239,-10.8779,5.3663,-9.1367,6.3602,4.8099,-1.7379
1878.9062,13.6878,-4.3086,0.0871,-9.3911,-2.9089,-11.1648,-1.4595,-13.0615,16.2684,1.3267,3.8506,-6.8743,6.6740,-14.6204,11.9105,-3.9288,4.6872,6.5734,0.2640
1882.8125,13.1669,-2.8226,3.2749,-7.5935,-0.7845,-13.0445,-2.5814,-12.0603,19.4479,6.9789,12.0500,-3.8801,5.0891,-12.9968,19.3284,-0.6858,3.3481,9.6743,4.4422
1886.7188,10.4544,-3.3606,6.7312,-3.1564,3.7987,-16.5399,-1.1514,-8.0708,21.3570,12.0235,20.4886,-2.3080,4.3973,-7.5581,25.8365,-0.0605,3.3162,12.4211,9.3656
1890.6250,7.7091,-4.6076,8.8751,0.7155,10.1977,-17.7841,2.1446,-3.8760,21.8137,13.7927,25.1010,-1.7475,5.2010,-2.0820,29.3174,-1.2947,4.7321,12.2995,13.0183
1894.5312,7.1352,-5.5825,9.1453,1.4669,16.6609,-14.8069,5.8286,-1.9912,20.4311,11.4198,23.8480,-1.6727,7.1575,0.0136,28.9062,-2.9946,6.7388,7.7847,14.3276
1898.4375,9.3236,-6.3794,8.4911,-1.0737,21.2416,-9.0411,9.0319,-3.0220,16.9491,6.0406,18.0858,-1.9337,9.1907,-2.1629,25.6539,-4.0932,8.0238,-0.4840,13.8366
1902.3438,12.5134,-7.7548,8.5509,-4.7975,22.9471,-4.1999,11.9934,-5.5088,11.7423,-0.4444,11.5012,-2.7298,10.2089,-6.6949,21.7036,-4.3200,7.7441,-10.0011,13.0517
1906.2500,13.6149,-9.9955,10.2686,-7.0119,22.3382,-3.3916,15.3868,-7.1860,6.0382,-6.8288,7.5164,-4.1607,9.8467,-10.4578,18.6960,-3.9974,6.2050,-17.8706,13.1293
1910.1562,10.4864,-12.1638,13.1617,-6.3462,21.1337,-6.7125,19.2902,-6.5849,1.5402,-13.0248,7.1775,-5.8441,8.7191,-11.2738,16.7716,-3.5229,4.7820,-22.3585,14.0679
1914.0625,3.8129,-12.5116,15.8360,-3.4998,21.0531,-11.1719,22.8525,-3.8342,-0.4190,-19.2451,9.0146,-7.0208,7.9935,-9.0811,14.9810,-3.0500,5.0693,-23.5185,15.0212
1917.9688,-2.9901,-9.8349,17.2113,-0.4968,22.6556,-12.9697,24.9543,-0.2887,0.3191,-24.9095,10.6944,-7.1188,8.5557,-5.5113,12.6467,-2.5781,7.7758,-22.6923,15.2987
1921.8750,-6.0261,-4.6629,17.3159,0.7737,24.9474,-10.3217,25.1861,2.4851,2.5327,-28.4788,10.9199,-6.2951,10.3266,-2.4958,10.3529,-2.2344,12.1069,-21.4803,15.0256
1925.7812,-3.7912,0.7864,16.9571,-0.3996,26.0097,-4.6532,24.1822,3.5355,4.2115,-28.5245,10.0380,-5.4392,12.2045,-1.0736,9.5722,-2.3667,16.0859,-20.9617,14.8325
1929.6875,1.5023,3.9968,16.6620,-3.4881,24.2178,0.6726,22.9907,2.7296,3.6372,-25.1200,9.1005,-5.5478,12.6988,-1.1401,11.1938,-3.2857,17.6624,-21.4976,14.9349
1933.5938,5.2895,3.8954,15.9933,-7.3521,19.2490,2.9798,22.1000,0.5093,0.3168,-20.2182,8.4901,-6.9236,10.8603,-1.9857,14.2948,-4.8731,15.9231,-22.8985,14.6081
1937.5000,3.8330,1.6051,14.0073,-10.8694,12.2475,2.1504,21.0772,-2.3799,-4.7825,-16.4778,7.4953,-8.8463,6.9116,-2.9290,16.4075,-6.4479,11.6291,-24.5773,12.7285
1941.4062,-3.0924,-0.4028,10.5063,-13.1648,5.0913,0.3537,19.1885,-5.0179,-9.8126,-15.3657,5.2178,-10.0182,2.1629,-3.5354,15.2889,-7.0859,6.7263,-25.5957,9.0172
1945.3125,-12.0256,-0.1302,6.8784,-13.6065,-0.7194,0.0289,16.4047,-6.4932,-13.0642,-16.0931,1.8825,-9.4724,-1.7440,-3.5108,10.8353,-6.1937,3.1337,-24.8459,4.8265
1949.2188,-18.3146,2.5363,5.5356,-11.9530,-4.8383,1.8829,13.7717,-6.3518,-13.8130,-16.3415,-0.8039,-7.2416,-3.7906,-2.7009,5.5010,-3.8971,1.5765,-21.5664,2.5583
1953.1250,-19.4231,5.8862,8.1599,-8.7149,-8.0741,4.5269,12.6679,-5.1399,-12.5305,-14.2618,-0.7461,-4.2605,-4.1386,-1.3951,2.7018,-0.9293,1.1950,-15.9829,3.9487
1957.0312,-16.5874,7.8264,14.1193,-5.3191,-11.6898,5.9182,13.5193,-4.4928,-10.4170,-10.1093,2.8435,-1.5893,-3.9448,-0.6025,4.3302,1.8925,0.1570,-9.5157,8.5391
1960.9375,-13.6359,7.5512,20.4685,-3.6048,-16.4872,5.2576,15.1396,-6.3674,-8.6158,-6.1100,8.6195,0.4033,-4.5640,-1.7644,9.3071,4.1821,-3.1301,-4.1556,13.6800
1964.8438,-13.9500,6.1436,23.7571,-4.7117,-22.2249,3.6765,15.4128,-11.6769,-7.6104,-4.6023,13.9330,2.2177,-6.6505,-5.7920,14.3436,6.0856,-8.9687,-1.2579,16.2558
1968.7500,-17.9161,5.6761,22.3677,-8.1001,-27.6592,3.1505,12.8808,-19.2618,-7.1323,-5.9795,16.6808,4.6094,-9.7249,-12.0492,16.3379,7.9156,-16.1094,-0.6054,14.8897
1972.6562,-22.7602,7.5468,17.5765,-11.5824,-31.1236,4.6261,7.9468,-26.1256,-6.5519,-8.2000,16.6432,7.6986,-12.4656,-18.2085,14.5249,9.6603,-22.3994,-0.5486,10.9040
1976.5625,-24.7800,11.3430,12.4693,-12.5896,-31.3024,7.0172,2.6315,-29.0385,-5.4378,-8.3824,15.2095,10.5790,-13.5252,-21.3886,10.6982,10.8130,-25.9144,0.7384,7.2317
1980.4688,-22.1823,15.0677,9.5385,-9.8898,-27.8192,7.9697,-0.9974,-26.5289,-3.9035,-5.2446,13.7915,11.8223,-12.3443,-19.9497,7.3928,10.6927,-25.9019,3.7793,6.1083
1984.3750,-16.3807,16.4983,8.8530,-4.4807,-21.4004,5.7745,-2.4604,-19.8366,-2.5433,-0.3647,12.3718,10.5478,-9.4607,-14.6370,5.5800,9.0059,-23.0262,7.2813,7.3673
1988.2812,-10.8975,14.6317,8.2328,1.1070,-13.5804,0.8275,-3.1967,-12.0569,-2.0347,2.8796,9.5084,7.2258,-6.1420,-8.1069,3.8068,6.1820,-18.8538,9.0876,8.6940
1992.1875,-8.8526,10.2010,5.2363,4.6481,-6.0944,-4.5854,-5.2746,-6.0317,-2.6873,1.9488,3.8170,3.5397,-3.6068,-3.0649,-0.4942,3.1837,-14.9465,7.9299,7.6062
1996.0938,-10.9767,5.0320,-0.6886,5.8155,-0.2160,-8.0006,-9.5301,-2.5271,-4.2271,-2.7300,-4.3930,1.3332,-2.3446,-0.3849,-8.5992,0.9165,-12.1027,4.5927,3.5312
2000.0000,-15.4927,0.8609,-7.6380,6.2636,3.6766,-8.5726,-14.6904,-0.0507,-5.9412,-7.9094,-12.8442,1.3824,-1.9529,1.3211,-18.9872,-0.3161,-10.1399,1.4834,-1.7113
2003.9062,-19.6816,-1.4965,-12.6918,8.1084,6.0970,-7.5072,-18.2462,3.5895,-7.0805,-9.9161,-18.7371,2.8938,-1.5550,4.3086,-28.0122,-0.9015,-8.2654,0.8430,-5.3845
2007.8125,-21.7425,-2.1804,-14.1424,12.0041,8.0017,-6.8553,-18.3936,9.2437,-7.2755,-7.4507,-20.7574,4.1018,-0.4814,9.5765,-32.2828,-1.5093,-5.7455,2.9641,-6.0253
2011.7188,-21.5720,-1.7852,-12.6910,16.3858,10.1246,-7.7543,-15.4701,15.5329,-6.7197,-2.5792,-19.9473,3.5205,1.2582,15.7473,-30.9184,-2.5388,-2.4495,5.8552,-4.5426
2015.6250,-20.1465,-0.9143,-10.7012,18.5534,12.4900,-9.6154,-11.7154,19.8343,-6.0182,0.8859,-18.6753,0.9291,3.0212,19.9339,-25.9792,-3.8804,1.0546,6.7013,-3.3508
2019.5312,-18.3216,-0.1413,-10.2145,16.7941,14.4297,-10.8936,-9.5553,20.3575,-5.7870,0.3442,-18.5712,-2.6084,4.0445,19.9827,-20.8358,-5.1672,3.8913,4.0418,-4.3045
2023.4375,-16.1550,-0.1884,-11.4019,11.8774,15.1308,-10.6988,-9.7910,17.6529,-6.2275,-3.6267,-19.2033,-5.6457,4.0538,16.3273,-17.8310,-6.2749,5.5008,-1.0169,-7.1642
2027.3438,-13.1966,-1.8664,-12.6663,6.7024,14.3625,-9.8001,-11.1157,14.3363,-6.9206,-7.8297,-18.6497,-7.4490,3.5397,11.9247,-17.0237,-7.5982,6.0924,-5.5220,-9.8366
2031.2500,-9.2733,-5.5729,-12.1741,4.3148,12.8500,-10.1181,-11.2648,13.2217,-6.9747,-9.0378,-15.4691,-8.4487,3.4981,10.2288,-16.8047,-9.8093,6.6108,-6.7925,-10.1285
2035.1562,-4.9351,-10.6835,-9.4236,5.7865,11.9533,-13.1142,-8.8035,15.3013,-5.4783,-6.5110,-10.3189,-9.7387,4.7927,12.7097,-15.6283,-13.2313,8.1882,-4.3089,-7.5158
2039.0625,-1.1642,-15.4618,-5.5347,9.5578,12.7796,-18.4381,-4.1268,19.1083,-2.0323,-2.4380,-5.7235,-12.0590,7.5516,17.8108,-13.3038,-17.3138,11.3845,0.0596,-3.4784
2042.9688,1.3196,-17.8145,-2.1352,12.7029,15.3101,-23.9792,1.0052,21.8934,2.9357,0.0008,-4.0715,-15.0712,11.0002,22.1256,-10.8383,-20.6738,15.6968,3.6148,-0.2060
2046.8750,2.4883,-16.5333,0.0630,13.1031,18.1957,-27.2896,4.8526,21.6488,8.2892,-0.6737,-5.4952,-17.4824,13.8548,22.8612,-9.1560,-21.7734,19.6976,4.9057,1.1614
2050.7812,2.8358,-12.1580,1.7104,10.8625,19.4668,-27.2153,6.8096,18.4234,12.7225,-2.9904,-7.4770,-17.9072,15.0509,19.6894,-7.9738,-19.8249,21.7885,4.6955,1.2709
2054.6875,2.8869,-6.7503,3.9681,7.9626,17.7661,-24.4409,7.4636,14.0172,15.4596,-3.7275,-6.6316,-15.8114,14.3643,14.6305,-5.8923,-15.3186,21.1422,5.1237,1.7419
2058.5938,2.9390,-2.6281,7.2472,6.5490,13.2921,-20.6058,7.8237,10.4467,16.7086,-0.5769,-1.2852,-11.8508,12.5443,10.1913,-1.6194,-9.7988,18.2338,7.8127,3.6227
2062.5000,3.2642,-0.9086,10.7821,7.2544,7.7788,-16.8509,8.5919,8.4682,17.5572,5.8663,7.2345,-7.4079,10.8715,7.3220,4.7792,-5.0214,14.5774,12.4645,6.5235
2066.4062,4.4339,-0.9016,13.4560,8.8262,3.4736,-13.0755,10.1055,7.2649,19.3037,12.3566,15.6441,-3.7142,10.4051,4.8099,11.7289,-2.0310,11.7941,17.0252,9.1507
2070.3125,7.2151,-0.7947,15.0666,9.2206,1.7792,-8.4893,12.7384,5.3784,22.5800,15.2561,21.2016,-1.2069,11.3718,0.5049,17.2456,-0.7322,10.5997,19.2035,10.6703
2074.2188,11.9014,0.8809,16.7291,7.1915,2.4865,-2.8734,17.0131,1.9906,26.8074,13.0162,23.5824,0.4800,13.0651,-6.6900,20.3476,-0.1774,10.4029,18.0754,11.5790
2078.1250,17.5994,4.0949,19.8699,3.1282,4.1275,2.6700,22.9931,-2.4876,30.3824,7.0198,24.6206,1.9918,14.3168,-15.6739,21.5936,0.6833,9.8184,14.5361,13.2279
2082.0312,22.2487,7.3208,24.6171,-1.3825,5.1864,6.2333,29.4307,-6.8595,31.5534,0.3017,26.2474,3.6647,14.2511,-23.6942,22.3448,2.3108,7.7776,10.3716,16.4105
2085.9375,23.6496,8.6685,29.1111,-4.7500,5.2904,6.5067,33.7059,-10.0718,29.4922,-4.6795,28.5046,5.3084,12.8572,-28.0702,23.4631,4.3704,4.4752,6.8408,20.3374
2089.8438,20.8982,7.2831,30.6043,-6.3133,5.5079,3.8726,33.1329,-11.7879,24.8825,-7.4499,29.4281,6.4425,11.0224,-27.7325,24.6073,6.0683,1.4577,3.9565,23.0395
2093.7500,15.1302,3.9801,27.6664,-6.3860,7.5199,0.2241,26.9921,-12.2283,19.6074,-9.1983,26.9469,6.7171,9.9948,-23.5204,24.7065,6.7381,0.7279,0.9455,22.9750
2097.6562,8.8879,0.6900,21.6963,-5.6238,12.2475,-2.3885,17.7098,-11.6408,15.6812,-11.3026,21.1270,6.1583,10.5975,-17.2649,23.1099,6.2675,3.4192,-2.6822,20.4734
2101.5625,4.4714,-0.8225,16.3068,-4.4467,18.9194,-3.1741,9.9380,-10.0542,14.0722,-14.1255,14.7004,5.0867,12.6725,-10.5961,20.3133,5.1191,8.9209,-6.4988,17.6729
2105.4688,2.4824,-0.0156,14.8185,-3.0322,25.2635,-2.9115,7.8028,-7.5812,14.1647,-17.0382,11.2320,3.8489,15.1005,-4.4153,17.5759,3.9997,15.0634,-9.5216,16.8519
2109.3750,1.6663,2.3099,17.7296,-1.7218,28.7253,-2.9220,12.1526,-4.8728,14.2124,-19.3889,12.3219,2.6286,16.3915,0.8100,15.7907,3.4448,19.2750,-11.1739,18.4763
2113.2812,0.1521,4.7892,22.2195,-1.2247,27.9160,-3.6118,19.9000,-3.0681,12.4915,-21.2637,16.1796,1.4845,15.4969,4.5620,14.6922,3.5933,19.9873,-11.8816,20.6410
2117.1875,-2.9200,6.4948,24.2264,-2.2160,23.3559,-3.8578,26.1299,-3.0354,8.4076,-23.1796,18.8747,0.5313,12.3668,6.3004,13.2076,4.2580,17.4143,-12.6847,20.5065
2121.0938,-6.6878,7.4108,21.5821,-4.5974,17.0845,-1.8028,27.5514,-4.4598,2.8510,-24.9990,17.3896,0.0536,7.9398,6.0425,10.7011,5.1904,13.2599,-14.1791,16.6605
2125.0000,-9.3099,8.1315,15.7616,-7.1669,11.4571,3.5706,24.7521,-5.6758,-2.3970,-25.2673,12.0563,0.4128,3.5995,4.8221,7.9696,6.3259,9.6064,-15.7786,10.4858
2128.9062,-9.5073,9.1602,10.8255,-8.2137,7.9279,11.3793,21.5437,-4.6528,-5.7771,-21.9405,6.3845,1.8042,0.4411,4.3277,6.9556,7.8348,7.7190,-16.0641,5.3359
2132.8125,-7.6217,10.4442,10.3292,-6.7577,6.5206,19.1717,21.8877,-0.5580,-6.8392,-14.2129,4.3624,4.0564,-1.2294,5.7501,9.2268,9.9479,7.4781,-14.0290,4.0765
2136.7188,-5.3529,11.5020,14.5912,-3.4778,6.1594,24.4050,26.7562,5.3120,-6.3561,-3.9637,7.3575,6.6369,-1.9127,8.7133,14.4164,12.6754,7.6813,-10.1665,6.9044
2140.6250,-4.4427,11.9666,20.4457,-0.4737,5.4836,25.9283,33.3310,10.1032,-5.6592,4.6504,13.0827,8.8676,-2.5045,11.2846,20.0113,15.6187,6.9047,-6.3725,11.1790
2144.5312,-5.4067,12.0229,23.6466,0.1194,3.5674,24.3977,37.1109,11.2216,-5.7018,7.5791,17.4259,10.2114,-3.7377,11.2602,22.8637,18.0281,4.3398,-4.5934,13.4093
2148.4375,-7.2959,12.3384,22.0108,-2.3248,0.1858,21.4730,35.2396,8.0998,-6.4833,3.6950,17.6411,10.4695,-5.8009,7.8236,21.3842,19.1234,0.1496,-5.2516,11.8211
2152.3438,-8.5560,13.5293,16.8566,-6.4248,-4.3489,18.6048,28.4720,2.5660,-7.1658,-4.0829,14.3364,9.8203,-8.3022,2.2437,16.7297,18.5240,-4.7444,-6.7693,7.4899
2156.2500,-8.1680,15.6012,11.7043,-9.7771,-9.5020,16.4171,20.3536,-2.4966,-6.7247,-10.3864,10.7212,8.7330,-10.5396,-3.0332,12.0080,16.5370,-9.2051,-6.6832,3.2097
2160.1562,-6.1421,17.8276,9.4007,-10.6878,-14.7324,15.0145,14.4270,-5.1756,-4.6503,-10.7422,9.8325,7.8191,-11.8915,-6.2427,10.0535,14.0948,-12.4173,-3.5402,1.1069
2164.0625,-3.1217,19.1859,10.0199,-9.2919,-19.5557,14.6502,11.7771,-5.6678,-1.2463,-4.3364,12.0714,7.6516,-12.1217,-7.6239,11.4544,12.3212,-14.1864,1.9351,0.9807
2167.9688,0.3339,19.0367,11.1593,-7.1749,-23.5494,15.9037,10.8005,-5.6740,2.6052,5.7348,15.0525,8.5580,-11.4709,-9.0872,14.3088,11.9447,-14.9335,7.3762,0.6884
2171.8750,4.0288,17.5546,10.2370,-5.8328,-26.3840,19.0730,9.1596,-6.6115,5.9877,14.7984,15.7987,10.4355,-10.5169,-12.4471,15.8200,12.9070,-15.4377,10.6221,-1.8302
2175.7812,7.7715,15.6106,6.7865,-5.2707,-27.8580,23.3588,6.0832,-8.1722,8.4159,19.7023,13.3626,12.6947,-9.8742,-17.6494,14.4140,14.4247,-16.4250,11.3878,-6.6400
2179.6875,10.9005,14.2008,2.8285,-3.9502,-27.8630,26.7615,2.9949,-8.4697,9.9468,20.4112,9.6326,14.4365,-9.8665,-22.4859,10.7212,15.4854,-18.1472,11.3712,-11.6205
2183.5938,12.3734,13.8128,1.0607,-0.1858,-26.2791,27.0719,1.9863,-5.6846,10.9222,19.1360,7.6379,14.8368,-10.3244,-24.1067,6.7561,15.4592,-20.1377,12.6679,-14.1408
2187.5000,11.5185,14.1306,2.4370,6.1417,-22.9179,23.3393,3.5612,0.1594,11.5605,17.9964,8.7811,13.5514,-10.6246,-21.1598,4.1035,14.4149,-21.3142,15.7716,-13.1824
2191.4062,8.7847,14.2267,5.1901,13.0167,-17.6382,16.6529,5.7301,6.8256,11.6847,17.2643,11.3532,10.8866,-9.9816,-14.8332,2.6678,12.9303,-20.4512,18.8416,-10.1434
2195.3125,5.6671,13.0826,6.1351,17.4569,-10.6094,9.4987,5.3816,11.3213,10.7769,15.5657,11.6519,7.6012,-7.8581,-7.9334,0.9833,11.5523,-16.8092,18.9441,-7.6782
2199.2188,3.6664,10.1230,3.2022,17.6076,-2.5128,4.0734,0.8778,12.1017,8.3448,11.6721,6.8941,4.4546,-4.2633,-2.7263,-2.2672,10.3359,-10.5515,14.3846,-7.5574
2203.1250,3.0877,5.4920,-2.8490,14.1573,5.5594,0.8172,-6.2918,10.2770,4.3965,6.1608,-2.3770,1.8009,0.2540,0.7158,-6.8770,8.8353,-2.6593,6.3086,-9.3127
2207.0312,2.7897,-0.0244,-8.8941,9.9347,12.5450,-1.6935,-12.2656,8.8212,-0.2782,1.3930,-12.3266,-0.5020,4.9242,4.3188,-11.0662,6.5670,5.6202,-1.7515,-10.7423
2210.9375,1.2702,-5.3504,-11.6949,7.9372,17.9280,-5.4118,-13.4903,10.3445,-4.2583,-0.2406,-18.3395,-2.8322,9.1784,10.1325,-12.7902,3.5703,13.4128,-6.1464,-9.7968
2214.8438,-1.7345,-9.5706,-10.1576,9.2527,21.9422,-11.1101,-9.2607,15.1314,-6.0960,1.6802,-18.1262,-5.4204,12.8718,18.3249,-11.3066,0.5779,20.4793,-5.5466,-6.2632
2218.7500,-4.5663,-12.2821,-5.9012,12.4229,25.2586,-17.6469,-2.1503,20.9447,-5.1049,5.1063,-13.1226,-8.1454,16.1451,26.7142,-7.7182,-1.4068,26.9150,-1.7484,-1.8911
2222.6562,-4.6747,-13.6981,-1.8406,14.6800,28.3559,-22.7530,3.9585,24.7165,-1.8688,7.0328,-7.2336,-10.6441,19.0440,32.2497,-4.0966,-1.8482,32.5665,1.7205,1.0573
2226.5625,-0.7043,-14.4478,-0.0249,14.0661,31.0536,-24.6542,6.6476,24.7896,1.9241,5.8416,-3.9846,-12.6089,21.2284,33.2611,-1.9559,-1.1572,36.7081,2.1179,1.5749
2230.4688,6.0618,-15.1594,-0.4125,10.8109,32.6050,-23.2137,6.3923,21.9910,4.3526,2.5621,-4.2380,-13.9996,22.0641,30.6608,-1.3163,-0.4891,38.3438,-0.7386,0.5489
2234.3750,12.2634,-16.0449,-1.3594,6.9787,32.3114,-19.7543,5.6783,18.7831,4.3941,0.0031,-6.0417,-14.9987,21.0863,27.1369,-1.0182,-0.9451,36.9782,-4.6684,-0.1575
2238.2812,14.8144,-16.7437,-1.1798,4.7574,30.1831,-15.8554,6.7196,17.2469,2.6071,0.4435,-6.4697,-15.7755,18.4923,24.9974,0.1265,-2.7501,33.2457,-6.9942,0.6965
2242.1875,13.2697,-16.5534,0.5999,4.7680,27.0860,-12.2459,9.7268,17.5073,0.8482,3.7495,-3.8837,-16.2956,15.2310,24.4060,2.3960,-5.0419,28.7994,-6.5660,2.8233
2246.0938,10.2550,-14.9328,3.2112,5.6728,24.1961,-8.7258,13.0509,17.7705,1.1068,7.4352,1.0680,-16.3526,12.5226,23.4045,5.1781,-6.4696,25.3930,-4.4400,4.8757
2250.0000,9.4640,-11.9496,5.6115,5.2856,22.1464,-5.0478,14.8714,15.8244,4.1771,8.6021,6.2446,-15.7791,11.0910,19.6513,7.7770,-6.1789,23.7484,-2.8444,5.7565
2253.9062,12.7113,-8.3435,7.4239,2.2390,20.5371,-1.7893,14.8333,10.7459,9.0731,6.1880,9.7426,-14.6176,10.6668,12.4317,10.1505,-4.4499,23.0556,-3.3832,5.5541
2257.8125,18.3951,-5.1194,9.0204,-3.0716,18.2387,-0.2428,14.2210,3.5098,13.6450,1.7413,11.1531,-13.0719,10.1777,3.3198,12.8649,-2.4926,21.5496,-5.9051,5.3086
2261.7188,22.6797,-2.9291,10.8334,-8.8795,14.3073,-1.2866,14.6340,-3.8248,16.0210,-1.8373,11.5273,-11.2813,8.5477,-4.9906,16.3485,-1.5461,17.8140,-8.8097,5.9110
2265.6250,22.5326,-1.6832,12.7166,-13.3114,8.8347,-4.2167,16.4721,-9.5488,15.8751,-2.5171,12.3326,-9.1569,5.5508,-10.6828,20.2197,-1.9519,11.8828,-10.3883,7.2200
2269.5312,18.2007,-0.6949,14.0717,-15.4785,3.0714,-6.7157,18.6462,-13.1780,14.5941,-0.5536,14.3613,-6.4849,2.0800,-14.0121,23.4032,-2.8967,5.3180,-10.0598,8.2496
2273.4375,13.0908,0.7225,14.6346,-15.6422,-1.2943,-6.2501,19.7618,-15.2133,14.1896,1.9257,17.3699,-3.2546,-0.4002,-16.7860,24.9904,-3.0059,0.1891,-8.5926,8.2630
2277.3438,11.0800,2.6425,15.0814,-14.5534,-3.1779,-1.9490,19.6311,-16.2265,15.7211,2.6697,20.4868,0.0873,-0.8417,-20.6370,25.0497,-1.3370,-2.2999,-7.3120,7.7259
2281.2500,13.3658,4.3692,16.6899,-12.7096,-2.6977,4.5158,19.6178,-16.2246,18.3909,0.8836,22.8422,2.7455,0.6762,-25.5417,24.5645,1.9525,-2.5236,-7.0740,8.1387
2285.1562,17.3764,4.8936,20.1570,-10.1994,-0.9220,9.8419,21.3556,-14.8592,19.9990,-2.5725,23.8951,4.0522,3.0332,-29.7606,24.4526,5.7055,-1.9834,-7.8385,10.7583
2289.0625,18.6343,3.6476,24.5516,-7.1503,0.9852,11.2133,24.8988,-12.1822,18.4478,-6.3148,23.3922,3.9683,4.8748,-31.1619,24.5125,8.4946,-2.0715,-9.0439,15.2660
2292.9688,14.1188,0.9995,27.4526,-4.1917,2.5309,8.0635,28.0224,-9.1005,13.2053,-9.7320,21.2777,3.1807,5.5300,-28.7810,23.3316,9.4224,-3.0098,-10.2779,19.6112
2296.8750,4.4990,-1.9011,26.4276,-2.3399,4.0076,2.1978,27.5330,-6.9528,5.6660,-13.2643,17.8066,2.6578,5.3628,-23.3656,19.4236,8.4824,-3.7510,-11.5759,21.3398
2300.7812,-6.4522,-3.8485,20.8582,-2.2882,5.9525,-3.7170,21.7550,-6.4723,-1.8244,-17.5075,13.7352,2.9738,5.3334,-16.5851,12.7585,6.3756,-2.8667,-13.1246,19.4573
2304.6875,-14.6923,-4.3652,12.6947,-3.7088,8.4744,-8.0209,12.2357,-7.0374,-7.5201,-22.1052,10.2165,3.9354,6.1492,-9.7083,5.3603,4.0747,0.2983,-14.7632,15.3365
2308.5938,-18.6923,-3.9802,5.4441,-5.2586,11.0345,-10.8071,3.1722,-6.9663,-11.2499,-25.5930,8.2320,4.8293,7.6713,-2.9239,0.2769,2.4802,5.0772,-15.8642,11.8658
2312.5000,-20.0433,-3.7966,2.0217,-5.4269,12.8350,-13.0814,-1.2082,-4.7540,-14.1542,-26.4688,7.8811,5.0933,9.0020,4.1811,-0.4709,2.2668,9.8819,-15.7927,11.4065
2316.4062,-21.6227,-4.6610,2.9862,-3.6337,13.4348,-15.2344,0.5484,-0.3267,-17.4983,-24.5757,8.1401,4.8358,9.1282,11.5355,2.5581,3.7631,13.1639,-14.5542,14.0971
2320.3125,-25.0141,-6.5291,6.4004,-0.7162,13.0307,-16.2849,6.1993,4.7054,-21.5581,-21.4963,7.4471,4.7297,7.5872,17.9793,6.4341,6.7313,14.1813,-12.9977,17.7888
2324.2188,-29.3326,-8.4789,9.3369,1.6121,12.1624,-14.6410,11.4203,8.0543,-25.4425,-19.4441,4.8071,5.3342,4.6678,21.7771,7.7858,10.1856,13.0927,-12.2968,19.6371
2328.1250,-32.2691,-9.3477,9.8436,1.9425,11.1308,-9.7509,12.7126,8.2833,-27.9065,-19.4659,0.6090,6.4276,1.0834,21.8685,5.0808,12.5839,10.5030,-13.0641,18.1025
2332.0312,-32.2522,-8.5348,7.9396,0.1016,9.6800,-3.1605,9.4599,5.7108,-28.4033,-20.4675,-3.5279,6.9872,-2.5237,18.7865,-0.4125,12.5527,6.9910,-14.8196,13.8549
2335.9375,-29.7684,-6.4092,5.0632,-2.8501,7.2598,2.0887,3.7674,2.0412,-27.4733,-19.9930,-5.8448,5.9424,-5.8197,14.4176,-5.6650,9.8266,3.0243,-16.2725,8.9901
2339.8438,-26.7542,-4.0594,2.6194,-5.4861,3.6501,3.4234,-1.5195,-0.9237,-26.1657,-16.2468,-5.6829,3.1496,-8.6393,10.7474,-8.1019,5.7070,-0.8154,-16.2180,5.3024
2343.7500,-24.7323,-2.5785,0.8840,-7.0171,-0.6253,0.5912,-4.8984,-2.4634,-25.0305,-9.7484,-3.9335,-0.2334,-10.7284,8.5819,-7.3195,2.5065,-3.7292,-14.3385,3.0256
2347.6562,-23.4498,-2.3768,-0.9150,-7.6475,-4.5188,-4.0696,-6.8126,-3.1465,-23.5770,-3.2060,-2.3495,-2.3824,-11.7243,7.2534,-5.0875,2.1469,-5.0324,-11.2845,0.9713
2351.5625,-21.2576,-2.9592,-3.5676,-8.0843,-7.1912,-7.2016,-8.5591,-4.0424,-20.6931,0.4139,-2.2560,-2.0536,-11.4597,5.4806,-3.7787,4.8198,-4.7442,-8.0223,-2.1865
2355.4688,-16.8539,-3.2760,-6.8963,-8.6955,-8.6601,-6.6639,-10.6866,-5.6900,-15.7003,0.1608,-3.6542,0.4966,-10.3023,2.6001,-4.5487,8.7424,-3.8777,-5.0418,-6.6245
2359.3750,-10.7643,-2.3933,-9.6836,-9.0628,-9.7915,-2.7631,-12.3580,-7.6762,-9.1683,-2.0903,-5.3858,3.6626,-9.1350,-0.8842,-6.6663,11.3323,-4.0039,-2.1107,-11.1282
2363.2812,-5.1588,-0.0674,-10.5482,-8.2854,-11.5845,2.3509,-12.1733,-9.0684,-2.7967,-3.0009,-6.1762,5.6380,-8.8632,-3.8539,-8.3911,11.0404,-6.2521,1.2432,-14.0154
2367.1875,-2.1056,3.0896,-9.0025,-5.7371,-14.2985,6.4831,-9.6196,-9.2060,1.5761,-0.3061,-5.6988,5.6825,-9.7783,-5.6769,-8.5522,8.4749,-10.4603,4.9923,-14.3959
2371.0938,-1.7940,5.9002,-5.8218,-1.6166,-17.1331,8.8637,-5.7903,-8.1191,3.0840,5.4081,-4.8235,4.5148,-11.2932,-6.8338,-7.5073,5.8923,-15.1794,8.3196,-12.7436
2375.0000,-2.3364,7.1744,-2.4796,3.1477,-18.7391,10.1640,-2.7032,-6.2743,2.2408,11.0556,-4.8926,3.5260,-12.3086,-8.4774,-6.7626,5.3567,-18.6021,10.0948,-10.4071
2378.9062,-1.3948,6.2297,-0.1764,7.5066,-18.1646,11.2324,-1.7939,-4.0026,0.4105,13.2604,-6.6266,3.4734,-11.9476,-11.2808,-7.6636,6.9643,-19.7336,9.7514,-8.5676
2382.8125,1.7405,3.1418,0.7538,10.8701,-15.4780,11.8157,-2.8721,-1.2340,-1.1567,10.7475,-9.5150,3.7514,-10.0735,-14.5731,-10.2731,8.5745,-18.8742,7.8210,-7.5231
2386.7188,5.4373,-1.3558,0.6950,13.2101,-11.5762,10.4845,-4.3991,2.1910,-1.9478,5.1483,-12.1168,2.8783,-7.1736,-16.5464,-13.3136,7.3756,-17.0279,5.6384,-6.7795
2390.6250,7.0400,-6.2392,0.1673,14.7150,-7.3690,5.8824,-4.7953,5.9839,-2.0792,-0.2944,-12.9893,-0.1736,-3.7446,-15.4273,-15.1338,2.1531,-14.7433,4.4162,-5.6917
2394.5312,5.1316,-10.6232,-0.5745,15.4267,-3.0509,-1.7888,-3.6326,9.2736,-1.7382,-3.0404,-11.5435,-4.9075,0.2327,-10.7054,-14.8643,-5.5093,-11.4186,4.4191,-3.9903
2398.4375,0.8128,-14.0307,-1.4372,15.2527,1.9032,-10.3929,-1.7376,11.1525,-0.8083,-2.8210,-8.2761,-9.4289,5.1948,-3.4690,-12.8749,-12.1230,-5.7560,4.8963,-1.7752
2402.3438,-3.1027,-16.3746,-2.1308,14.3120,8.0088,-17.0273,-0.2362,11.4927,0.9422,-1.3880,-4.3565,-11.7516,11.3008,4.3609,-10.3000,-14.7047,2.9120,4.8069,0.8450
2406.2500,-4.2928,-17.7026,-2.0745,13.1849,14.9419,-19.8654,0.5117,11.2582,3.3390,-0.8179,-0.9745,-11.2837,17.7560,11.2297,-8.1463,-12.9046,13.5083,3.7275,3.9429
2410.1562,-2.6438,-17.9233,-0.8030,12.6724,21.3673,-19.2145,1.1098,11.8780,5.5618,-1.7990,1.1221,-9.2999,22.8641,16.6272,-6.7170,-9.2112,23.3395,2.1952,7.5002
2414.0625,-0.0270,-16.7601,1.4627,13.1408,25.6523,-16.9663,2.3391,14.0562,6.5808,-3.2059,1.7669,-7.9834,24.9583,20.8122,-5.6814,-7.0385,29.5627,1.2247,10.9551
2417.9688,1.6182,-14.0213,3.6983,13.9951,26.9510,-14.9411,4.2054,16.9731,6.0214,-3.1654,1.3357,-8.7592,23.5920,23.9941,-4.5270,-8.1458,30.9888,1.4229,13.1636
2421.8750,2.1574,-10.0048,4.6959,13.8339,25.7954,-13.5223,5.7924,18.6180,4.7114,-0.6680,0.6683,-11.2198,20.0315,25.8002,-2.8962,-11.3653,28.8631,2.4402,13.0561
2425.7812,3.3840,-5.6808,4.0177,11.3141,23.6911,-11.6943,6.1102,17.1113,4.3143,3.5388,0.8969,-13.4878,16.5378,25.5210,-0.5887,-13.6082,25.9709,3.1947,10.5763
2429.6875,7.2288,-2.3834,2.4639,6.1214,21.9957,-8.3715,5.1465,12.0258,6.1706,7.3822,3.0237,-13.7244,14.8550,22.8588,2.5536,-12.3491,24.6766,2.6555,7.0567
2433.5938,13.6206,-1.0897,1.5407,-0.7333,20.9409,-3.8017,4.0617,4.6601,10.1885,8.7913,7.2918,-11.5890,15.0033,18.4193,6.5381,-7.6511,25.3354,0.5367,4.5065
2437.5000,19.9518,-1.7376,2.2426,-7.5814,19.5577,0.2408,4.2240,-2.9651,14.6993,6.9137,12.7338,-8.5099,15.3218,13.4191,10.8810,-2.1719,26.2409,-2.6204,4.1823
2441.4062,22.7794,-3.1201,4.1358,-13.2312,16.5591,1.7071,5.8914,-9.5644,17.5086,2.4446,17.3945,-6.5802,13.7845,8.8146,14.4431,0.8205,25.1050,-5.9565,5.5371
2445.3125,20.4614,-3.5656,5.5973,-17.6600,11.4877,-0.0497,7.7980,-15.2909,17.4316,-2.9708,19.3628,-6.9801,9.6200,4.6233,15.8784,-0.1411,20.9041,-8.8963,6.5083
2449.2188,14.5550,-2.0410,5.1625,-21.6855,5.2420,-3.5950,8.1948,-21.1046,15.1675,-7.6931,18.0885,-9.1631,3.9948,0.0702,14.6170,-3.7288,14.6792,-11.3436,5.1042
2453.1250,8.7609,1.0693,2.9565,-25.8886,-0.4102,-6.3449,6.5813,-27.3736,12.8161,-10.7691,15.0461,-11.3944,-0.7866,-5.5386,11.6726,-6.9336,8.7194,-13.4015,1.1453
2457.0312,6.2194,4.1277,0.9809,-29.7163,-3.9358,-6.3873,4.6023,-32.9664,12.3608,-12.0770,13.0737,-12.1366,-2.9683,-11.9849,9.4498,-7.3400,4.8184,-14.9981,-3.2554
2460.9375,7.3337,5.3415,1.8483,-31.5839,-4.9180,-3.7315,5.1251,-35.7141,14.2320,-12.0873,14.6015,-11.1445,-2.6276,-18.1212,10.3678,-4.7851,2.9731,-15.8467,-5.0034
2464.8438,9.8529,4.0816,6.8033,-29.9768,-4.0993,-0.0106,10.0115,-33.9645,17.0133,-11.5113,19.8815,-9.4407,-1.5666,-22.7188,15.1092,-1.2171,1.5013,-15.7855,-2.2547
2468.7500,11.0506,1.4638,14.5414,-24.6905,-2.6516,3.0378,18.3249,-27.9714,18.4863,-10.9751,26.5021,-8.2997,-1.8956,-25.4376,21.8039,0.9690,-1.5735,-15.1138,4.1157
2472.6562,10.0863,-0.3083,21.8249,-17.1824,-1.3153,4.9773,26.5481,-19.9285,17.2063,-10.7365,30.6930,-8.1627,-4.3953,-27.0057,26.9487,0.7040,-6.9677,-14.4941,10.9992
2476.5625,8.5229,0.5347,25.5512,-9.7070,-0.0813,6.7599,30.8662,-12.5494,13.4290,-10.5108,29.6709,-8.3847,-7.9091,-28.3753,27.6150,-1.2257,-13.5737,-14.4038,15.2144
2480.4688,8.5814,3.9840,24.7783,-3.9029,1.4162,9.4590,29.8589,-7.3128,8.7442,-9.5855,23.4686,-7.9502,-10.2074,-29.5630,23.4382,-3.1225,-19.2244,-14.6170,15.7392
2484.3750,10.6870,8.0775,21.1995,0.0370,3.2212,12.8178,25.4917,-3.7980,4.7650,-7.3356,14.9654,-6.4560,-9.6498,-29.2673,16.9095,-3.8405,-22.1234,-14.2788,14.3116
2488.2812,12.5082,10.0947,17.7234,2.9760,4.7199,14.9856,21.5567,-0.6301,1.9167,-3.9268,8.0588,-4.4708,-6.3849,-25.7706,11.6698,-3.5109,-21.8670,-12.6562,13.9324
2492.1875,10.4567,8.3515,16.2744,5.6299,4.9557,13.8192,20.7298,2.8272,-0.7612,-0.6733,5.2200,-2.9697,-2.2272,-18.5191,10.0044,-3.0354,-19.4192,-9.9937,16.4321
2496.0938,2.5360,3.3678,16.5177,7.6625,3.3481,8.7558,22.5614,5.5675,-4.6953,0.4298,6.1131,-2.3777,0.6339,-9.0751,11.3749,-2.9523,-16.2438,-7.6669,21.0064
2500.0000,-9.7562,-2.4052,16.4637,7.9400,0.2411,1.6810,24.0089,5.7158,-10.4755,-2.0658,8.1863,-2.1056,1.0914,-0.5026,13.0794,-2.7603,-13.3614,-7.3110,24.8630
2503.9062,-22.0471,-6.1200,14.3985,5.7662,-3.1561,-4.0537,22.0791,2.3969,-17.1582,-7.8205,8.7292,-1.0218,-0.2981,4.5363,12.5207,-1.3004,-10.9854,-9.4694,25.4584
2507.8125,-29.7983,-6.2801,10.5248,1.9813,-5.4073,-5.8311,16.4168,-2.9432,-22.6798,-14.4277,6.8620,1.5276,-1.9255,5.5916,9.3221,2.1809,-8.8085,-12.8423,22.5391
2511.7188,-31.0399,-3.5357,6.9305,-1.1904,-5.6354,-3.5350,9.6869,-7.0858,-25.0726,-18.5373,4.0246,5.0363,-2.3603,4.7149,5.6386,7.2477,-6.5085,-14.8837,18.3503
2515.6250,-27.1330,-0.0547,5.8628,-1.6492,-3.9628,0.4783,5.3873,-7.2740,-23.6426,-17.8183,2.6701,8.1083,-1.2662,4.9111,4.4038,12.4382,-4.0079,-13.4869,15.8223
2519.5312,-21.2239,2.0099,7.6792,0.8266,-1.3935,3.1801,4.8568,-3.4532,-19.3588,-12.4700,4.1923,9.4800,0.5763,7.8721,6.8615,16.1948,-1.3925,-8.5695,16.1554
2523.4375,-15.8657,1.8628,10.1652,4.0669,0.7170,3.0477,5.9638,1.3577,-14.2739,-5.1763,7.6526,8.9527,1.9846,12.7123,11.3131,17.7433,1.2479,-2.3195,17.7167
2527.3438,-11.7583,0.3469,9.8704,4.8555,1.2716,0.9668,4.6427,3.0740,-10.4097,0.5579,10.2538,7.4588,2.1870,16.6836,14.0994,17.2392,3.7906,2.1945,17.1562
2531.2500,-8.3740,-0.9050,4.5420,1.2795,-0.1524,-0.7475,-1.8594,-0.4538,-8.7924,2.5878,9.2220,6.2258,1.1622,17.3098,12.1381,15.2301,5.8964,3.1000,11.9279
2535.1562,-5.5152,-0.7352,-5.1487,-5.6702,-3.1842,-0.3275,-12.5932,-7.7255,-9.1277,1.3328,3.7509,5.7635,-0.5848,14.2759,5.1537,12.1030,6.9664,0.9611,2.3144
2539.0625,-4.1015,0.7720,-15.8755,-12.5433,-6.8225,2.0920,-23.3025,-14.5479,-10.1760,-0.7896,-4.3511,5.5368,-2.4714,9.6049,-4.0363,8.1100,6.4438,-1.7405,-8.5644
2542.9688,-5.3424,2.4896,-23.7199,-15.6864,-9.8175,4.7660,-29.3324,-17.0095,-10.5242,-1.2109,-11.7253,4.5875,-4.1198,6.0176,-11.3633,3.8878,4.2914,-2.4845,-16.7450
2546.8750,-9.0840,3.1565,-26.5066,-13.6720,-11.1787,5.9226,-28.7875,-14.2302,-9.3162,1.0371,-15.4675,2.5362,-5.3623,4.8062,-14.1189,0.7635,1.2006,-0.5129,-19.9235
2550.7812,-13.0368,2.2890,-24.7680,-8.0995,-10.6217,5.2446,-23.5155,-8.7914,-6.6048,4.8830,-14.7190,0.0654,-6.1423,4.9162,-12.4800,0.2352,-1.7748,2.7993,-18.6682
2554.6875,-13.9136,0.4727,-20.8057,-2.2070,-8.7061,4.0122,-17.2791,-4.5515,-3.2035,8.2552,-10.8749,-1.5774,-6.5098,3.9463,-8.9839,2.7910,-3.9729,5.2165,-15.5922
2558.5938,-9.8012,-1.0851,-16.7647,1.5751,-6.5043,3.8388,-12.7353,-3.5943,-0.1587,9.6753,-6.4454,-1.6634,-6.6984,0.2324,-6.5145,7.0188,-5.6607,5.4856,-13.2791
2562.5000,-1.8546,-1.3688,-13.2823,3.2174,-4.9238,5.1203,-9.7263,-4.7254,1.8593,9.1769,-3.4721,-0.7369,-7.0968,-5.6706,-6.3662,9.9634,-7.8310,4.2604,-12.5865
2566.4062,6.2246,-0.1821,-9.6568,4.6424,-4.1034,6.5440,-6.1905,-4.6763,2.8953,7.9786,-2.5635,-0.3637,-7.9960,-11.2924,-7.7247,8.7967,-11.3142,3.4038,-12.4991
2570.3125,10.7040,1.7573,-5.1750,7.7118,-3.3496,6.0932,-0.7482,-1.0100,3.5686,7.3571,-3.0225,-2.0187,-9.2567,-14.0757,-8.7222,2.7418,-15.8741,4.2989,-11.4092
2574.2188,10.4331,3.2374,-0.3120,12.3713,-1.7379,2.7281,5.3960,5.6359,4.5355,7.7134,-3.7286,-5.9613,-10.2114,-13.2619,-8.0592,-6.1852,-20.0535,6.6034,-8.6319
2578.1250,7.4879,3.1970,3.2897,16.5114,1.0136,-2.6434,8.9914,11.7975,5.9329,8.5177,-3.9922,-10.9670,-9.9820,-10.3445,-5.9077,-14.2889,-21.9769,8.4961,-4.9291
2582.0312,5.3386,1.2549,4.0591,17.6662,4.0921,-7.7065,7.3614,13.7559,7.2429,9.0013,-3.7907,-15.1044,-8.0334,-7.7670,-3.5283,-18.4623,-20.5367,8.2225,-1.7451
2585.9375,6.0391,-2.1035,1.8853,15.1436,6.0201,-10.3682,0.9102,10.4112,7.7402,8.8695,-3.3839,-16.9428,-4.5245,-6.9416,-2.0971,-18.0109,-16.0405,5.6602,0.0690
2589.8438,8.7375,-5.7435,-1.5535,10.8029,5.7596,-10.1928,-6.6763,4.1945,7.2223,8.4126,-2.7902,-16.3006,-0.1445,-7.1713,-1.7773,-14.7570,-9.8218,2.5891,0.9222
2593.7500,10.7040,-8.4049,-3.8606,7.7801,3.6881,-8.5605,-10.8668,-0.6981,6.4245,8.0279,-1.6310,-14.0758,4.4453,-6.3092,-1.7348,-11.4536,-3.1675,1.3953,2.0280
2597.6562,9.9689,-9.3142,-3.5708,8.1184,1.6126,-7.5128,-9.4920,-1.3783,6.6772,7.7122,0.5430,-11.4445,9.0598,-2.6002,-0.9517,-9.7951,3.5037,3.2076,4.2876
2601.5625,7.3001,-8.5852,-1.0870,11.1593,1.6503,-8.2655,-4.1790,1.7065,8.9330,7.0572,3.7655,-9.1366,13.8833,3.7608,0.9318,-9.5244,10.5048,6.9387,7.4953
2605.4688,5.7701,-7.1548,1.8057,13.9587,4.6885,-10.5370,1.1217,5.2732,12.8569,5.7335,7.4627,-7.2928,18.8542,10.5535,3.4336,-9.1723,17.9309,9.9915,10.5084
2609.3750,8.1673,-6.2217,3.4054,13.4055,9.5609,-13.0848,3.2958,5.7373,16.7550,3.9392,10.7381,-5.8253,23.1143,14.9609,5.7589,-7.6382,24.8092,10.0849,12.1725
2613.2812,14.3457,-6.4703,3.3313,8.4100,13.6444,-14.8408,2.3374,1.7756,18.5584,2.3046,12.9142,-4.7830,25.1552,15.3843,7.4933,-5.2258,29.2462,6.7975,12.1769
2617.1875,20.7616,-7.5785,2.5708,0.5253,14.5582,-15.6318,0.9387,-4.9786,17.2589,1.2888,13.9089,-4.3336,23.7611,12.3117,8.8429,-3.3172,29.6373,1.6877,11.1399
2621.0938,22.7591,-8.3946,2.3918,-7.3628,11.7906,-15.9490,1.8486,-11.4522,13.7476,0.6517,14.1854,-4.4361,19.1149,7.7107,10.2755,-3.0804,26.0309,-3.0056,9.9405
2625.0000,17.9764,-7.7366,3.1195,-13.1525,7.0734,-16.1194,5.3017,-15.5028,10.3539,-0.4098,14.3715,-4.6409,13.1367,3.5505,11.9701,-4.3954,20.4704,-5.9942,8.9660
2628.9062,8.3051,-5.2841,3.8536,-16.7826,3.2020,-15.7429,8.7298,-17.2688,9.3263,-2.4660,14.8929,-4.3321,8.5892,0.6212,13.6281,-5.9283,15.8638,-7.6379,7.9666
2632.8125,-1.1120,-1.8878,3.3696,-19.7606,2.1393,-13.9566,9.0087,-18.6002,11.3223,-5.0771,15.8898,-3.2574,7.4177,-1.5651,14.8240,-6.2397,14.1118,-9.2677,6.6082
2636.7188,-5.1487,1.0050,1.4171,-23.5075,3.7622,-10.2937,5.3286,-21.2517,15.0253,-6.8231,17.3883,-1.8289,9.4664,-3.9346,15.5485,-4.9228,14.8822,-11.8071,5.1416
2640.6250,-1.8886,2.4370,-0.7352,-27.9488,6.1198,-5.3317,0.2141,-25.4060,18.1739,-6.2993,19.4504,-0.8253,12.5445,-6.9123,16.3926,-2.7993,15.9827,-14.8675,4.4770
2644.5312,6.4441,2.7113,-1.0443,-31.4649,6.9436,-0.4890,-2.2461,-29.6434,19.2133,-3.3597,22.0694,-0.6742,13.8675,-10.1465,18.1328,-1.0743,15.0590,-17.0211,5.4937
2648.4375,15.2548,3.1766,1.8147,-32.1337,5.2472,2.9115,0.4418,-32.1821,18.2906,0.4491,24.8718,-0.9602,11.8745,-12.9938,21.0188,-0.2790,11.3010,-16.9549,8.1465
2652.3438,20.5577,5.0985,7.3872,-29.1798,1.8514,4.5379,7.2228,-32.2122,16.8375,2.7686,26.9566,-0.6941,7.1268,-15.1962,24.3641,0.0318,5.8463,-14.5272,11.2008
2656.2500,21.0073,8.4527,13.6600,-23.4767,-1.4506,5.1460,14.3580,-30.2281,16.1163,2.0669,27.1742,0.7712,1.6786,-17.0894,26.8226,0.5987,0.6254,-10.8987,12.9538
2660.1562,17.8038,11.6461,18.3936,-16.8239,-3.3336,5.8074,18.3910,-27.2527,15.9463,-1.2140,24.7990,2.9400,-2.5404,-19.1725,27.1846,1.5034,-3.3437,-7.7197,12.4680
2664.0625,13.0022,12.5325,20.5218,-10.7222,-3.8317,6.9544,18.7598,-23.8162,14.6935,-4.9542,20.1516,4.2851,-5.0651,-21.4640,25.1049,1.9152,-6.7670,-6.0860,10.3474
2667.9688,7.8166,10.0722,20.5642,-5.6743,-4.0489,8.0738,17.9119,-19.6662,10.5833,-6.9386,14.6535,3.3639,-6.9623,-23.2584,21.2401,0.8497,-11.3072,-6.0651,8.3874
2671.8750,2.2037,5.3807,19.8402,-1.4524,-5.0401,8.2980,18.8913,-14.4118,3.3069,-6.5256,10.1489,0.1389,-9.6603,-23.5252,16.7497,-1.7266,-17.8784,-7.0156,8.3023
2675.7812,-4.2469,1.2561,19.2440,2.1171,-6.8516,7.3351,22.4959,-8.3968,-5.3875,-5.0884,7.8837,-3.6158,-13.5442,-21.6354,12.6018,-4.5202,-25.4481,-8.2479,10.4843
2679.6875,-11.1701,0.3732,18.6414,4.6944,-8.5152,5.8694,26.4548,-2.8849,-12.6437,-4.8606,7.8387,-5.3207,-17.4685,-17.8306,9.2154,-5.7349,-31.4072,-9.3898,13.7472
2683.5938,-17.1488,3.3895,17.3378,5.7315,-8.9544,5.0384,27.3458,0.7037,-16.3061,-7.0819,8.8995,-3.3869,-19.5627,-13.0888,6.6170,-4.4875,-33.2973,-10.2265,16.2403
2687.5000,-20.5407,8.3762,15.1009,5.1926,-7.9939,5.4315,23.6170,1.8593,-16.2267,-10.9063,9.7363,1.5388,-18.6605,-8.5407,4.8234,-1.5904,-30.5651,-10.3568,16.8053
2691.4062,-20.6615,12.0791,12.7265,3.9210,-6.5975,6.5236,17.0933,1.3849,-14.1172,-13.9371,9.7289,6.9038,-15.2008,-4.9114,4.0013,1.0591,-24.9707,-9.1823,15.7160
2695.3125,-18.3197,12.1710,11.5489,3.2053,-6.1148,7.1020,11.5964,0.7419,-12.1322,-13.9700,9.2344,10.0022,-10.9036,-2.3570,4.2200,2.0503,-19.3312,-6.3704,14.2636
2699.2188,-15.3017,8.8819,12.2536,3.8608,-7.1526,6.3612,9.7589,0.8854,-11.3335,-10.5913,9.0162,9.8684,-7.5145,-0.6781,5.0552,1.6727,-15.5853,-2.3743,13.5818
2703.1250,-13.2781,4.8120,14.0241,5.6245,-9.0045,4.7015,10.7035,1.6038,-11.2021,-5.4247,9.3295,7.8756,-5.6319,0.4027,5.5015,1.6731,-13.6636,1.5768,13.6950
2707.0312,-12.9888,3.0463,14.8437,7.4122,-10.1237,3.4570,10.6185,1.9304,-10.4598,-0.9119,9.4476,6.5719,-4.5095,1.1586,4.4135,3.6721,-11.9605,4.1850,13.5405
2710.9375,-14.1985,4.9373,12.8340,8.2204,-9.2905,3.6968,5.8801,1.2234,-8.4023,1.3607,8.0760,7.6537,-2.9149,1.9327,1.2244,7.5513,-8.9136,4.9920,11.8951
2714.8438,-16.2064,9.1578,7.6211,7.8698,-6.5733,5.1022,-3.7822,-0.1081,-5.5945,1.5098,4.3791,10.6478,-0.2849,3.1164,-3.6009,11.2417,-4.3654,4.7121,8.3985
2718.7500,-18.3062,12.6809,0.6495,6.9342,-3.3510,5.9720,-14.7005,-0.9400,-3.3898,0.8525,-1.1794,13.3152,2.7586,4.8846,-8.7554,12.2297,0.3502,4.6224,3.8349
2722.6562,-19.8155,12.9346,-5.8196,5.9596,-1.3894,4.5190,-21.8291,-0.5593,-2.7515,0.6406,-6.8810,13.4371,4.8970,6.8663,-12.8081,9.6323,3.5543,5.4489,-0.5097
2726.5625,-19.8656,9.5573,-10.2348,4.7661,-1.6624,0.5064,-22.4597,0.4790,-3.4170,1.1510,-10.7201,10.5662,5.1497,8.1291,-14.9289,5.1251,4.5667,6.6848,-3.8184
2730.4688,-17.4541,4.5390,-12.6060,2.5904,-3.7573,-4.1367,-18.1501,0.6629,-4.1033,1.8155,-11.6221,6.3791,3.6027,7.6769,-15.1194,1.8612,4.1278,6.9891,-6.2077
2734.3750,-12.0126,0.7500,-14.0562,-0.9506,-6.2187,-6.3817,-13.3583,-1.1159,-3.5343,2.1086,-10.0371,3.3853,1.2920,5.2032,-13.8803,2.1395,3.6240,5.4209,-8.3313
2738.2812,-4.1488,0.0030,-15.5219,-4.9332,-7.4964,-4.2023,-11.9286,-4.2787,-1.3838,2.2701,-7.5016,3.0333,-0.5854,1.5114,-11.6980,5.6370,3.8575,2.4996,-10.5408
2742.1875,4.1403,2.0265,-16.7422,-7.2140,-6.7990,1.8163,-14.2569,-6.5639,1.6472,3.1645,-5.5259,4.6866,-1.4556,-1.8397,-8.8225,9.6170,4.4334,0.1286,-12.3937
2746.0938,10.2154,4.9500,-16.3979,-5.7199,-4.3386,8.6110,-17.3278,-5.5335,4.6104,5.4262,-4.6344,6.2097,-1.5604,-3.5268,-5.4699,10.9676,4.2390,0.3057,-12.9724
2750.0000,12.2059,6.7684,-13.2737,-0.0537,-0.9608,12.5063,-17.4168,-0.4979,7.1849,8.7245,-4.2142,5.6363,-1.5190,-3.3928,-2.1353,8.4672,2.5260,3.5711,-11.7294
2753.9062,10.1840,6.6393,-7.4423,7.8940,2.4418,11.5220,-13.1153,6.6993,9.8390,11.8896,-3.1838,2.5896,-1.7176,-2.5676,0.4236,3.5171,-0.3862,8.4467,-9.0831
2757.8125,6.2539,5.1516,-0.4529,14.9748,5.3229,6.5095,-6.1998,12.7950,13.1521,13.8518,-0.8981,-1.5842,-2.0396,-2.6053,1.6425,-1.1591,-3.3737,12.4021,-6.1854
2761.7188,3.4193,3.5761,5.6499,18.8170,7.5524,0.3860,0.2035,15.3795,16.9640,14.5763,2.3852,-4.9485,-2.0627,-4.2349,1.6784,-3.7131,-5.4382,13.6679,-4.0137
2765.6250,3.9343,2.8299,9.6694,19.3686,9.3097,-3.8842,4.4014,14.6074,20.2037,15.1235,5.7358,-6.3872,-1.4270,-6.6766,1.4620,-4.4599,-6.4146,12.5060,-2.5609
2769.5312,8.1755,2.9469,11.8659,18.7475,10.9741,-5.0816,7.3772,12.9963,21.6426,16.7021,8.1832,-6.2056,0.0021,-8.0927,2.0789,-5.2729,-6.8057,10.9207,-0.8608
2773.4375,14.6608,3.3005,13.3738,19.4826,13.0229,-4.1209,11.4433,13.4318,20.9597,19.4794,9.2307,-5.5851,2.2596,-6.8794,3.8912,-7.7026,-6.9295,11.0115,2.1174
2777.3438,21.0383,3.2087,14.9895,22.4835,15.8239,-2.9903,17.5811,16.9031,19.1529,22.1752,8.9494,-5.4939,5.4351,-2.8527,6.1405,-11.4671,-6.2442,13.2453,6.4340
2781.2500,25.2804,2.3621,16.4067,26.2984,19.3087,-3.2177,23.9372,21.7092,17.8461,22.8471,7.7545,-5.9941,9.5663,2.5568,7.4699,-14.5890,-3.5925,16.0098,10.9047
2785.1562,26.3613,0.8237,16.5596,28.2140,22.7375,-5.0113,26.9562,24.7215,17.9962,20.2857,6.1764,-6.4267,14.2995,7.2351,7.0592,-15.0205,1.7214,16.8072,13.8851
2789.0625,24.2282,-1.2092,14.7478,26.3140,24.8631,-7.5177,24.3045,23.6824,19.0791,14.9152,4.8008,-6.1538,18.6910,9.7255,5.4777,-12.3464,8.9350,14.1624,14.5188
2792.9688,19.4250,-3.5290,11.5193,20.8942,24.5753,-9.7254,17.0915,18.7580,19.4959,8.4962,4.2673,-5.1183,21.5158,9.9894,4.4802,-8.1259,15.8819,8.7693,13.4383
2796.8750,12.8400,-5.8169,8.4886,14.1793,21.6959,-11.1658,9.3802,12.2076,17.9372,2.9010,5.1090,-3.7551,22.0272,9.0893,5.7647,-4.6198,20.2471,3.0065,12.3174
2800.7812,5.7226,-7.5328,7.1918,8.6450,17.3413,-11.9392,5.2351,6.5550,14.6020,-1.0395,7.4201,-2.4504,20.6219,8.1469,9.5897,-3.0239,21.1428,-0.7705,12.6116
2804.6875,-0.3023,-8.0853,7.9358,5.3034,13.4603,-12.2816,5.6844,2.7822,11.2276,-3.7425,10.6313,-1.1586,18.7888,7.4574,14.3656,-2.7086,19.7544,-1.8363,14.4931
2808.5938,-3.5765,-7.2723,9.6219,3.2523,11.7291,-12.2400,8.1318,-0.0529,9.8293,-6.1058,13.7123,0.4137,18.2026,6.4313,17.6534,-2.0572,18.4689,-1.4192,16.8293
2812.5000,-3.1309,-5.6215,10.7051,0.7160,12.5102,-11.7760,8.7578,-3.6026,11.1232,-8.5499,15.7946,2.2531,19.5270,4.3130,17.9098,-0.1033,19.0891,-1.5993,18.1959
2816.4062,0.6393,-4.2146,10.4711,-3.3706,14.6270,-11.0737,5.9428,-8.5338,13.9053,-10.7365,16.7713,3.7261,21.8277,0.9891,15.6733,2.5058,21.4896,-3.7189,18.0593
2820.3125,5.9147,-3.9670,9.5437,-8.5127,16.1620,-10.5728,1.8363,-13.7793,15.9234,-12.1280,17.3298,3.9346,23.1149,-2.8215,13.2422,4.0727,23.7511,-7.5222,17.1383
2824.2188,10.2308,-4.8561,9.2050,-13.1157,15.7356,-10.5373,0.7004,-17.2976,15.5801,-12.7414,18.2850,2.5285,21.6993,-6.1371,13.0253,3.4348,23.6556,-11.5548,16.6633
2828.1250,11.7235,-5.7532,10.1542,-15.7355,13.3477,-10.5270,5.3359,-17.6471,13.1230,-13.2617,19.7166,0.2592,17.3775,-8.5253,15.7728,1.1535,20.3542,-14.3389,17.1960
2832.0312,10.0758,-5.1168,11.8289,-16.0399,10.1724,-9.3866,14.5330,-15.0673,10.3796,-14.3163,20.7001,-1.3222,11.5508,-10.4454,20.0128,-0.7857,14.9018,-15.3172,18.0507
2835.9375,6.5474,-2.1188,12.9212,-14.7851,7.4852,-5.9896,23.6896,-11.2545,9.2538,-15.5829,20.0127,-0.9168,6.1704,-12.8341,23.1073,-0.5671,9.2808,-14.9021,17.8423
2839.8438,3.0604,2.6418,12.6487,-13.0138,5.5675,-0.2622,28.1497,-8.1284,10.1866,-15.6896,17.3523,1.5109,2.3140,-16.2893,23.1115,1.9028,4.7554,-13.7961,15.7113
2843.7500,0.9501,7.4318,11.6279,-11.2910,3.4528,6.3848,26.5828,-6.6505,11.7951,-13.2315,14.0305,4.6135,-0.5033,-20.5358,20.0341,4.8235,0.9180,-12.3193,12.1738
2847.6562,0.2025,10.5230,11.4968,-9.6161,-0.2720,11.7370,21.6997,-6.5780,11.9536,-8.1859,12.3676,6.6127,-3.7460,-24.5901,15.6066,5.9065,-3.7939,-10.3388,8.8386
2851.5625,-0.3482,11.3381,13.5137,-7.9199,-6.2198,14.1971,17.8103,-7.1444,9.4365,-2.4849,14.0318,6.6307,-8.4558,-27.4439,11.8573,4.2256,-10.5415,-7.7443,7.1938
2855.4688,-2.0498,10.7336,17.3091,-6.4963,-13.4750,13.8756,17.3135,-7.8923,4.8305,0.9585,18.5402,5.3616,-14.1335,-28.6693,9.6917,0.9965,-18.7637,-4.8860,7.4690
2859.3750,-5.3901,10.2075,20.9219,-5.8404,-19.9641,12.4320,19.0264,-8.8807,0.0467,0.2290,23.2150,4.5371,-18.7992,-28.4722,8.5905,-1.3524,-26.1828,-2.4687,8.5399
2863.2812,-9.5987,10.6634,22.2094,-6.0322,-23.6755,11.7012,19.6403,-10.1943,-3.1190,-4.0786,24.8672,5.5899,-20.2283,-27.2319,7.5484,-1.0466,-30.1729,-0.9722,8.9671
2867.1875,-13.1502,11.7109,20.5238,-6.3438,-23.8543,12.1582,16.9240,-11.3889,-4.2157,-9.0695,22.0866,8.5549,-17.4707,-25.0175,6.3240,1.7476,-29.4694,-0.1855,8.2844
2871.0938,-14.8058,12.0446,17.2459,-5.6172,-21.3371,12.4898,11.8399,-11.5593,-4.2447,-11.4643,16.3872,12.0494,-11.5587,-21.5512,5.8286,5.2126,-24.9575,0.6235,7.4094
2875.0000,-14.4740,10.5817,14.6561,-3.2337,-17.8546,10.7083,7.7145,-10.0701,-4.6732,-9.8543,11.1963,14.3120,-4.9250,-16.6430,7.2428,7.4206,-19.0163,1.9776,7.7760
2878.9062,-13.3066,7.4306,14.0085,0.1505,-14.8767,5.9829,7.1760,-7.2780,-6.2314,-5.6114,9.3097,14.4548,0.0191,-10.6603,10.5840,7.7881,-13.9796,3.5597,9.8906
2882.8125,-12.9563,3.9169,14.3935,2.8568,-12.8477,-0.2960,9.5406,-4.4888,-8.4508,-1.7756,10.7048,12.9619,2.1516,-4.5480,13.9977,7.2624,-10.8606,4.3377,12.5556
2886.7188,-14.4812,1.6517,13.3866,3.3752,-11.2813,-5.1788,11.0025,-3.0471,-10.2094,-0.7922,12.4467,11.1248,1.9702,0.6754,14.5459,7.1876,-9.1650,3.4577,13.5103
2890.6250,-17.6172,1.3893,9.0315,1.5829,-9.4970,-6.1627,7.6198,-3.2796,-10.7163,-2.8373,10.8695,9.9626,0.9335,4.5226,10.0830,7.9354,-7.7198,1.1803,11.0763
2894.5312,-20.9018,2.5611,1.5751,-1.0518,-7.3323,-3.0508,-1.3237,-4.2252,-10.0822,-5.9528,4.4376,9.5375,0.4148,7.2031,0.8987,8.5402,-5.7329,-1.0184,5.5243
2898.4375,-22.5796,3.8060,-6.4775,-2.5365,-5.2758,1.7878,-12.4080,-4.4481,-9.0698,-7.7462,-4.9067,9.1640,0.9898,9.1941,-10.1124,7.6524,-3.2799,-1.4193,-0.9604
2902.3438,-21.7068,4.0226,-12.0875,-1.8759,-4.0010,5.0192,-20.4697,-3.2695,-8.3535,-7.2009,-12.9913,8.2207,2.3822,10.6131,-18.9610,4.9392,-1.0147,0.5851,-5.7521
2906.2500,-18.7271,3.0980,-13.8418,0.2101,-3.7626,4.6446,-22.4208,-1.3319,-7.9942,-5.1588,-16.3544,6.7894,3.8712,11.0063,-22.7714,1.6451,0.4626,3.8668,-7.5856
2910.1562,-15.1341,1.7919,-12.8417,1.9977,-4.1779,1.2940,-19.4168,0.0474,-7.5567,-3.2243,-14.6553,5.5582,4.7432,9.8137,-21.2474,-0.2541,0.9888,6.2791,-7.3040
2914.0625,-12.4429,0.9735,-11.6397,2.3215,-4.5431,-2.4155,-15.6399,0.2024,-6.6639,-2.1759,-10.7458,5.1194,4.5397,7.1373,-16.5259,0.3618,0.7483,6.2502,-7.0016
2917.9688,-11.1667,0.9087,-12.1203,1.6426,-4.3765,-3.9117,-14.7411,-0.0813,-5.3942,-1.3258,-8.4006,5.3362,3.1334,4.0846,-11.6780,2.7641,-0.0319,4.0256,-8.2776
2921.8750,-10.5132,1.1740,-14.0525,1.6490,-3.7289,-2.5170,-16.8962,0.8778,-4.1199,0.6334,-9.4992,5.3737,0.7772,2.2370,-8.9405,4.8494,-1.2093,1.5357,-10.9945
2925.7812,-9.0278,1.1889,-15.4563,3.6536,-3.0449,0.2457,-18.8838,4.0820,-2.9648,4.1169,-12.8078,4.3809,-1.8736,2.5299,-8.7506,4.7351,-2.5705,0.9316,-13.4922
