Time,Fp1,F3,C3,P3,O1,F7,T3,T5,Fz,Fp2,F4,C4,P4,O2,F8,T4,T6,Cz,Pz
0.0000,-2.0944,-3.0368,-6.1211,-7.4525,-3.0758,-2.2061,-4.6960,-4.4870,-4.3339,-3.2581,-4.4021,-2.9025,-2.0216,-2.5652,-1.2583,-5.5494,0.1146,-5.0417,-5.8724
3.9062,-3.8805,-3.6427,-5.1684,-7.5203,-1.6670,-2.5156,-3.5067,-3.9051,-5.9165,-5.2119,-6.4480,-4.0462,-1.9993,-0.3944,-4.0237,-4.0823,0.3225,-5.7489,-5.3555
7.8125,-5.8390,-4.2541,-3.6803,-6.6541,0.4371,-2.8377,-1.2653,-2.0948,-7.5448,-7.3229,-8.7626,-5.7790,-2.0450,2.8976,-7.7694,-0.7713,0.5669,-6.4492,-4.5577
11.7188,-7.2834,-4.6991,-1.8881,-4.5662,3.0754,-3.1047,1.8984,0.9121,-8.6284,-8.7952,-10.5224,-7.5852,-2.0093,6.9100,-11.3269,3.5202,0.8387,-6.8901,-3.4510
15.6250,-7.6800,-4.8157,-0.0504,-1.3564,5.9826,-3.1502,5.4112,4.5719,-8.7438,-8.9564,-10.9890,-8.6799,-1.6919,10.9702,-13.3472,6.8211,1.1141,-6.8267,-1.9910
19.5312,-6.9214,-4.5196,1.6582,2.5123,8.8470,-2.7746,8.4067,8.0577,-7.8320,-7.5828,-9.8602,-8.3984,-1.0128,14.3281,-12.9774,7.0756,1.3205,-6.0960,-0.1789
23.4375,-5.3847,-3.8713,3.1541,6.3843,11.3490,-1.9234,10.0313,10.6201,-6.2128,-5.0330,-7.4313,-6.6101,-0.1476,16.3552,-10.3325,3.4967,1.3265,-4.6867,1.8530
27.3438,-3.7398,-3.0906,4.3741,9.6299,13.1893,-0.8455,9.7643,11.8725,-4.4139,-2.1148,-4.4813,-3.8849,0.5000,16.6878,-6.4735,-2.6508,0.9840,-2.7752,3.8137
31.2500,-2.6098,-2.4721,5.2216,11.8189,14.1370,-0.0638,7.6105,11.8654,-2.9071,0.2625,-1.9365,-1.2625,0.5119,15.2973,-2.8871,-8.4702,0.2123,-0.6890,5.3443
35.1562,-2.2684,-2.2208,5.6025,12.8064,14.1012,-0.1029,4.1036,10.9605,-1.8919,1.4899,-0.4740,0.2764,-0.2680,12.4909,-0.7626,-10.9215,-0.9301,1.2092,6.1948
39.0625,-2.5344,-2.2995,5.5323,12.7349,13.1871,-1.1183,0.1442,9.6234,-1.2344,1.5192,-0.2488,0.3361,-1.5872,8.8445,-0.4735,-8.5125,-2.2492,2.6751,6.3764
42.9688,-2.9155,-2.4057,5.2151,11.9750,11.6849,-2.6967,-3.2477,8.2574,-0.5830,0.8464,-0.8671,-0.6921,-2.8896,5.0668,-1.5376,-2.1382,-3.5069,3.6916,6.1738
46.8750,-2.9127,-2.1224,5.0071,11.0145,9.9685,-4.0185,-5.1938,7.1317,0.4093,0.2184,-1.6050,-1.8748,-3.6188,1.8161,-3.0300,5.4572,-4.5439,4.4635,5.9951
50.7812,-2.3102,-1.1689,5.2680,10.3132,8.3517,-4.3231,-5.1771,6.3770,1.8865,0.2152,-1.7599,-2.2728,-3.5174,-0.4728,-4.1537,11.2382,-5.3348,5.2927,6.1527
54.6875,-1.2817,0.4149,6.1993,10.1586,6.9859,-3.3769,-3.1781,6.0062,3.7210,0.9404,-0.9625,-1.4350,-2.7168,-1.6754,-4.6115,13.4677,-5.9225,6.4072,6.7255
58.5938,-0.2512,2.2871,7.7771,10.5813,5.8655,-1.6032,0.3182,5.9418,5.6115,2.0055,0.6935,0.4385,-1.5655,-1.9347,-4.5852,12.3782,-6.2762,7.8487,7.5879
62.5000,0.4113,4.0254,9.8055,11.3756,4.9252,0.2377,4.4712,6.0614,7.2755,2.8318,2.7536,2.7188,-0.3421,-1.5244,-4.3999,9.6363,-6.1973,9.4775,8.5623
66.4062,0.6707,5.3959,12.0139,12.2198,4.1441,1.5958,8.3646,6.2603,8.6113,3.0907,4.6684,4.7631,0.9144,-0.7091,-4.1527,7.0985,-5.3872,11.0737,9.5557
70.3125,0.8978,6.4650,14.1016,12.8260,3.5689,2.4977,11.3077,6.4967,9.7197,2.9998,6.0762,6.2330,2.3229,0.3094,-3.5757,5.7373,-3.6721,12.4445,10.5632
74.2188,1.6612,7.4628,15.7084,13.0337,3.2390,3.4406,13.0143,6.7728,10.7701,3.2571,6.9538,7.1366,3.9065,1.3552,-2.2268,5.3631,-1.2406,13.4599,11.5452
78.1250,3.3430,8.4946,16.3993,12.8050,3.0941,4.8847,13.5635,7.0529,11.8034,4.6131,7.5656,7.6331,5.3990,2.2304,0.1364,5.1425,1.3048,14.0116,12.3098
82.0312,5.8084,9.3350,15.7751,12.1571,2.9716,6.7397,13.1794,7.1863,12.6171,7.3243,8.2515,7.8017,6.3135,2.7556,3.2614,4.3856,3.1792,13.9663,12.5449
85.9375,8.3522,9.4944,13.7164,11.1150,2.7335,8.2744,11.9977,6.9294,12.8329,10.8366,9.1854,7.5683,6.2643,2.9186,6.3938,3.0101,3.8312,13.1933,12.0238
89.8438,10.0000,8.5553,10.6170,9.7391,2.4444,8.5769,10.0093,6.0989,12.1247,13.9380,10.2481,6.8305,5.3161,3.0234,8.5819,1.4504,3.2887,11.6808,10.8444
93.7500,10.0269,6.5578,7.3943,8.2040,2.4473,7.2618,7.2514,4.7734,10.4731,15.3379,11.0910,5.6580,4.0753,3.6766,9.1265,0.2373,2.1899,9.6590,9.4967
97.6562,8.4077,4.1475,5.1714,6.8356,3.2302,4.9016,4.1133,3.3823,8.2750,14.3647,11.3569,4.3845,3.4049,5.5233,7.9314,-0.3352,1.4447,7.6146,8.6533
101.5625,5.9238,2.3395,4.7542,6.0279,5.1239,2.8218,1.4923,2.5660,6.2235,11.3769,10.9297,3.4984,3.9200,8.8247,5.5718,-0.2157,1.7170,6.1347,8.7795
105.4688,3.8341,2.0070,6.2061,6.0494,8.0094,2.3467,0.5805,2.8418,5.0086,7.6398,10.0629,3.3950,5.5918,13.1274,3.0551,0.6250,3.0456,5.6411,9.8187
109.3750,3.2640,3.4009,8.8026,6.8564,11.2407,3.9840,2.2967,4.2680,5.0026,4.7225,9.2964,4.1520,7.7329,17.2771,1.3955,2.3364,4.8384,6.1659,11.1809
113.2812,4.6358,5.9963,11.4189,8.0570,13.8695,7.0993,6.6476,6.3390,6.1032,3.7459,9.1912,5.4737,9.3780,19.8479,1.2035,5.0517,6.2320,7.3144,12.0697
117.1875,7.4500,8.7609,13.1193,9.0887,15.0670,10.2962,12.4307,8.2123,7.8070,4.8829,10.0144,6.8321,9.8134,19.7991,2.4626,8.5545,6.5757,8.4507,11.9457
121.0938,10.5339,10.6780,13.5867,9.5270,14.5093,12.2404,17.5553,9.1571,9.4593,7.3557,11.5504,7.7144,8.9253,17.0064,4.5789,12.0578,5.7456,9.0092,10.8322
125.0000,12.6205,11.2171,13.1488,9.3420,12.5204,12.3770,19.9190,8.9562,10.5367,9.8911,13.1597,7.8428,7.1820,12.3617,6.6666,14.3619,4.1296,8.7559,9.2757
128.9062,12.9458,10.5069,12.4418,8.9341,9.9106,11.1035,18.4307,8.0162,10.8284,11.3587,14.0769,7.2678,5.3203,7.3781,7.9394,14.3940,2.3541,7.8673,8.0112
132.8125,11.5610,9.1650,11.9822,8.9132,7.6253,9.3616,13.6358,7.1233,10.4568,11.2569,13.8051,6.3190,3.9746,3.5154,8.0369,11.8422,0.9666,6.8039,7.5717
136.7188,9.2251,7.9364,11.9428,9.7459,6.3934,8.0007,7.5760,6.9997,9.7662,9.8339,12.3961,5.4587,3.4658,1.5833,7.1416,7.4983,0.2609,6.0715,8.0843
140.6250,6.9732,7.3634,12.2278,11.4797,6.5213,7.3669,2.9108,7.9276,9.1554,7.8471,10.4507,5.1060,3.8047,1.5116,5.8381,3.0772,0.2807,6.0052,9.3368
144.5312,5.6097,7.6324,12.7087,13.7005,7.8635,7.3332,1.7177,9.6386,8.9256,6.1366,8.8236,5.4917,4.8047,2.5464,4.7921,0.5612,0.9044,6.6711,10.9996
148.4375,5.3853,8.6089,13.3799,15.7390,9.9191,7.6311,4.5568,11.4941,9.1871,5.2438,8.1829,6.5904,6.1743,3.7096,4.4168,1.3584,1.8973,7.9020,12.8063
152.3438,5.9866,9.9712,14.3031,16.9968,11.9896,8.1398,10.2425,12.8120,9.8453,5.2382,8.6684,8.1559,7.5557,4.2606,4.7061,5.6373,2.9189,9.4157,14.5771
156.2500,6.7939,11.3501,15.4190,17.2086,13.3696,8.8904,16.4034,13.1528,10.6639,5.7875,9.8445,9.8484,8.5756,3.9546,5.3120,12.1266,3.5675,10.9459,16.1290
160.1562,7.2334,12.4286,16.4266,16.5108,13.5543,9.8275,20.5342,12.4412,11.3858,6.3891,10.9732,11.3956,8.9793,3.0386,5.8042,18.4974,3.5387,12.3284,17.2129
164.0625,7.0333,13.0037,16.8751,15.3073,12.4189,10.5980,21.0397,10.9193,11.8591,6.6286,11.4435,12.6915,8.8043,2.0510,5.9388,22.2430,2.8515,13.5164,17.5757
167.9688,6.2729,13.0181,16.4230,14.0313,10.2820,10.6175,17.8207,9.0031,12.0984,6.3432,11.0996,13.7681,8.4520,1.5454,5.7657,21.7643,1.9775,14.5278,17.1182
171.8750,5.2390,12.5503,15.0712,12.9415,7.7820,9.4219,12.1962,7.1233,12.2347,5.6319,10.2742,14.6528,8.5315,1.8531,5.5242,17.2111,1.7107,15.3521,16.0106
175.7812,4.2026,11.7531,13.1867,12.0538,5.5915,7.0492,6.2598,5.6008,12.3753,4.7352,9.5239,15.2226,9.5092,2.9599,5.4186,10.6213,2.7775,15.8725,14.6530
179.6875,3.2548,10.7585,11.2992,11.2248,4.1181,4.1377,1.9891,4.5766,12.4662,3.8675,9.2477,15.1893,11.3748,4.5409,5.4438,5.1403,5.3916,15.8627,13.4874
183.5938,2.2919,9.6094,9.8228,10.3254,3.3794,1.6215,0.4948,4.0109,12.2714,3.1023,9.4369,14.2672,13.5732,6.1458,5.3856,3.5489,9.0439,15.0877,12.7905
187.5000,1.1473,8.2750,8.9010,9.3956,3.1421,0.2069,1.6979,3.7544,11.5121,2.3747,9.7076,12.4297,15.2939,7.4652,4.9813,6.7877,12.7007,13.4749,12.5914
191.4062,-0.2204,6.7507,8.4532,8.6869,3.2309,-0.0162,4.5303,3.6696,10.0947,1.5902,9.5776,10.0630,15.9538,8.5423,4.1145,13.3096,15.3156,11.2545,12.7573
195.3125,-1.6038,5.1733,8.3380,8.5568,3.7708,0.4402,7.5286,3.7371,8.2677,0.7624,8.7939,7.8641,15.5543,9.7938,2.9014,19.7481,16.3494,8.9584,13.1551
199.2188,-2.5763,3.8498,8.4723,9.2641,5.1528,0.8602,9.5280,4.0739,6.5734,0.0786,7.5021,6.5032,14.6652,11.7848,1.6229,22.6599,15.9780,7.2374,13.7499
203.1250,-2.6761,3.1503,8.8169,10.7737,7.7062,0.8214,10.1254,4.8308,5.5900,-0.1622,6.1643,6.2525,14.0449,14.8516,0.5753,20.4162,14.8772,6.5699,14.5674
207.0312,-1.6560,3.3093,9.2804,12.6901,11.2915,0.4435,9.6964,6.0259,5.6098,0.2866,5.3005,6.8387,14.1642,18.7858,-0.0380,14.1317,13.7546,7.0260,15.5741
210.9375,0.3355,4.2575,9.6704,14.3754,15.1191,0.2326,8.9820,7.4290,6.4587,1.4504,5.2205,7.6392,14.9544,22.7865,-0.1155,7.0292,12.9471,8.2320,16.5976
214.8438,2.7504,5.5981,9.7664,15.2065,17.9748,0.6492,8.5009,8.5966,7.5831,3.0654,5.8939,8.1003,15.9280,25.7472,0.3895,2.5713,12.3272,9.5653,17.3693
218.7500,4.8355,6.7560,9.4573,14.8430,18.7643,1.7141,8.1536,9.0613,8.3535,4.6623,6.9948,8.0867,16.5422,26.7383,1.4709,2.4658,11.5287,10.4653,17.6560
222.6562,5.9422,7.2197,8.8125,13.3667,17.0685,2.9256,7.2892,8.5713,8.3965,5.7612,8.0591,7.9108,16.5199,25.4232,2.9872,5.7560,10.2847,10.6749,17.3726
226.5625,5.8078,6.7470,8.0077,11.2268,13.3782,3.5363,5.2211,7.2315,7.7556,6.0796,8.6591,8.0187,15.9119,22.1825,4.5697,9.5409,8.6323,10.2834,16.5839
230.4688,4.6693,5.4348,7.1696,9.0359,8.8761,3.0030,1.8759,5.4631,6.8040,5.6468,8.5370,8.5669,14.9114,17.8995,5.6609,10.8572,6.8696,9.5803,15.4139
234.3750,3.1533,3.6409,6.2913,7.3363,4.9052,1.3223,-1.8738,3.8090,5.9974,4.7765,7.6839,9.2133,13.6251,13.5583,5.7536,8.5417,5.3449,8.8482,13.9636
238.2812,1.9880,1.8211,5.3189,6.4510,2.4262,-0.9435,-4.4868,2.7087,5.6346,3.9160,6.3618,9.2961,12.0128,9.8862,4.7269,3.9339,4.2575,8.2352,12.3215
242.1875,1.6697,0.3665,4.3409,6.4536,1.7284,-2.9458,-4.5618,2.3577,5.7549,3.4437,5.0443,8.2862,10.0310,7.2042,3.0409,0.0239,3.5993,7.7606,10.6521
246.0938,2.2376,-0.5032,3.6859,7.2120,2.4713,-3.9570,-1.7275,2.6986,6.1814,3.5009,4.2530,6.1936,7.8223,5.4899,1.5847,-0.3879,3.2317,7.3900,9.2432
250.0000,3.2626,-0.7776,3.7766,8.4371,3.9454,-3.6840,2.9527,3.4989,6.6276,3.9232,4.3175,3.6282,5.7447,4.5373,1.1915,3.6071,2.9951,7.0814,8.4105
253.9062,4.0586,-0.6303,4.7890,9.7149,5.3778,-2.3474,7.3814,4.4468,6.7870,4.3047,5.1707,1.4665,4.1773,4.0877,2.0936,10.4436,2.7587,6.7603,8.2781
257.8125,4.0197,-0.3424,6.3741,10.5643,6.1644,-0.5241,9.4787,5.2273,6.3932,4.1800,6.3232,0.3501,3.2510,3.8917,3.6954,16.8880,2.4109,6.2825,8.5980
261.7188,2.9277,-0.1861,7.7110,10.5690,6.0157,1.1365,8.3056,5.5917,5.2910,3.2575,7.0896,0.3590,2.7412,3.7477,4.8743,19.7089,1.8581,5.4738,8.7934
265.6250,1.0759,-0.3052,7.9447,9.5700,5.0356,2.1807,4.6022,5.4340,3.5396,1.6016,6.9733,1.0636,2.2460,3.5691,4.6712,17.2700,1.0869,4.2709,8.2679
269.5312,-0.8591,-0.6500,6.7515,7.8123,3.7184,2.4930,0.4044,4.8535,1.4872,-0.3427,5.9802,1.8808,1.5378,3.4670,2.9403,10.2569,0.2581,2.8670,6.8107
273.4375,-2.1481,-1.0201,4.6254,5.9089,2.8065,2.2730,-2.0559,4.1396,-0.2896,-1.9286,4.6293,2.4518,0.8108,3.7621,0.5100,1.2763,-0.2685,1.7094,4.8094
277.3438,-2.3846,-1.2127,2.6288,4.5739,2.9828,1.8717,-1.5462,3.6379,-1.2340,-2.6289,3.6095,2.7675,0.5956,4.8519,-1.2933,-6.3543,-0.0572,1.2727,3.0734
281.2500,-1.7136,-1.2013,1.7168,4.2265,4.4910,1.5665,1.5423,3.5368,-1.1544,-2.3421,3.2739,2.9826,1.3580,6.9534,-1.4813,-9.9971,1.1620,1.7060,2.3286
285.1562,-0.7865,-1.2275,2.0736,4.6939,6.8846,1.3796,5.4501,3.6980,-0.4545,-1.5015,3.3110,3.1014,3.0469,9.8577,-0.0636,-8.6645,3.2685,2.5892,2.6936
289.0625,-0.4523,-1.7240,2.9226,5.2190,9.1016,1.0341,7.9873,3.6633,-0.0475,-0.8944,2.8485,2.8159,4.9304,12.8675,1.9062,-3.2420,5.6948,3.0151,3.4971
292.9688,-1.3333,-3.0872,2.9740,4.8184,9.9007,0.0913,7.6034,2.8729,-0.9299,-1.2624,0.9729,1.6476,5.8766,15.0011,2.9452,4.0183,7.5966,2.0211,3.5927
296.8750,-3.5014,-5.4195,1.2355,2.8180,8.4713,-1.7781,4.0416,0.9905,-3.6187,-2.8911,-2.6404,-0.6961,4.9384,15.3857,2.0292,10.4489,8.1700,-0.8472,2.0077
300.7812,-6.4208,-8.3941,-2.3345,-0.7308,4.8936,-4.5203,-1.6695,-1.8516,-7.7839,-5.4237,-7.3908,-4.0128,1.8850,13.6387,-0.8016,13.9515,6.9505,-5.1839,-1.4647
304.6875,-9.1849,-11.3323,-6.7495,-4.9980,0.1776,-7.5860,-7.7558,-5.0437,-12.3179,-8.0126,-11.9486,-7.5850,-2.6491,10.0325,-4.4847,13.6413,3.9563,-9.8223,-6.0942
308.5938,-10.9276,-13.4635,-10.5262,-8.7261,-4.1618,-10.0850,-12.4243,-7.7397,-15.8336,-9.7361,-14.8917,-10.4923,-7.4859,5.3605,-7.5689,9.9472,-0.3614,-13.3613,-10.5629
312.5000,-11.2022,-14.2394,-12.4703,-10.8008,-6.7798,-11.1743,-14.4555,-9.2189,-17.3196,-10.0523,-15.4148,-12.0724,-11.4917,0.5823,-9.0227,4.2157,-5.2954,-14.8333,-13.6204
316.4062,-10.1552,-13.5523,-12.2364,-10.7456,-7.0863,-10.5018,-13.5144,-9.1812,-16.5923,-9.0520,-13.7073,-12.2507,-14.0857,-3.5601,-8.7301,-1.9204,-10.0894,-14.1406,-14.6610
320.3125,-8.4282,-11.7686,-10.3720,-8.9000,-5.4629,-8.4567,-10.1808,-7.8449,-14.3124,-7.3900,-10.8071,-11.5468,-15.3948,-6.7744,-7.4264,-7.0770,-14.1075,-12.0337,-13.9185
324.2188,-6.8552,-9.5823,-7.9083,-6.2231,-3.0434,-6.0521,-5.7526,-5.8310,-11.5957,-5.9537,-8.0537,-10.7694,-16.0192,-9.2114,-6.1894,-10.3506,-16.9492,-9.6759,-12.2260
328.1250,-6.1037,-7.7618,-5.8120,-3.8482,-1.1993,-4.4541,-1.8498,-3.9177,-9.4696,-5.4496,-6.4700,-10.5863,-16.5912,-11.2601,-5.8423,-11.2788,-18.5088,-8.0624,-10.5332
332.0312,-6.4113,-6.8881,-4.6198,-2.6140,-0.9788,-4.3816,0.1354,-2.7719,-8.4685,-6.1087,-6.3943,-11.2038,-17.4043,-13.2691,-6.6089,-9.7454,-18.9668,-7.6099,-9.4712
335.9375,-7.5170,-7.1652,-4.3793,-2.7701,-2.7253,-5.7034,-0.4012,-2.7405,-8.5378,-7.6225,-7.4864,-12.3005,-18.3030,-15.3339,-8.1456,-6.0323,-18.6983,-8.0933,-9.1688
339.8438,-8.7997,-8.3579,-4.8046,-3.9538,-5.9893,-7.4805,-2.9540,-3.7460,-9.2184,-9.3118,-9.0152,-13.2136,-18.8554,-17.2446,-9.8330,-1.0102,-18.1122,-8.8967,-9.3449
343.7500,-9.5659,-9.8822,-5.4694,-5.4101,-9.7332,-8.4615,-6.0529,-5.3144,-9.9510,-10.4375,-10.2216,-13.2668,-18.6711,-18.6069,-11.1037,3.7813,-17.4892,-9.3914,-9.5538
347.6562,-9.3689,-11.0334,-5.9330,-6.3399,-12.7338,-7.7760,-7.9020,-6.7395,-10.3306,-10.5274,-10.5906,-12.0905,-17.6702,-19.0700,-11.6403,6.4556,-16.9050,-9.2325,-9.4225
351.5625,-8.2299,-11.2789,-5.8172,-6.2259,-14.0352,-5.4386,-7.2418,-7.3518,-10.2204,-9.5931,-9.9731,-9.8142,-16.1548,-18.5402,-11.4144,5.5540,-16.2838,-8.4556,-8.7776
355.4688,-6.6503,-10.4921,-4.8941,-5.0039,-13.2850,-2.3659,-3.9816,-6.7877,-9.7286,-8.1460,-8.5830,-7.0606,-14.6509,-17.2546,-10.6300,0.9340,-15.5323,-7.3758,-7.6459
359.3750,-5.3889,-9.0052,-3.1919,-3.0178,-10.8222,0.1161,0.7587,-5.1269,-9.1000,-6.9810,-6.9039,-4.7279,-13.6089,-15.6601,-9.6350,-5.8093,-14.6463,-6.3776,-6.1754
363.2812,-5.0848,-7.4292,-1.0403,-0.7901,-7.4719,0.9972,5.2274,-2.8086,-8.5751,-6.7952,-5.5201,-3.6160,-13.1261,-14.1486,-8.8146,-11.8200,-13.6964,-5.7100,-4.5346
367.1875,-5.9082,-6.3236,1.0272,1.2635,-4.1421,0.1240,7.8985,-0.3646,-8.2662,-7.8025,-4.8881,-4.0319,-12.8438,-12.7980,-8.4563,-14.2776,-12.7041,-5.3736,-2.8339
371.0938,-7.4313,-5.8953,2.5046,3.0177,-1.4220,-1.7526,8.1196,1.8659,-8.0933,-9.5534,-5.1188,-5.5594,-12.0908,-11.2862,-8.6109,-11.8677,-11.5173,-5.1414,-1.0949
375.0000,-8.8164,-5.9092,3.1517,4.6149,0.6093,-3.4360,6.2324,3.8494,-7.8194,-11.0961,-5.8886,-7.1534,-10.2116,-9.0544,-9.0279,-5.5597,-9.8108,-4.6938,0.7245
378.9062,-9.2438,-5.8715,3.0853,6.2597,2.2728,-3.9643,3.2059,5.7248,-7.1837,-11.4426,-6.5682,-7.5788,-6.9114,-5.6441,-9.2387,1.8378,-7.2535,-3.8015,2.6650
382.8125,-8.3478,-5.3740,2.6635,7.9786,3.9679,-3.1066,0.1121,7.5300,-6.0702,-10.1092,-6.5432,-6.0220,-2.4325,-1.0155,-8.7878,7.1601,-3.7456,-2.4546,4.6975
386.7188,-6.4073,-4.3746,2.2546,9.5193,5.8541,-1.4030,-2.2155,9.0152,-4.6037,-7.4198,-5.5580,-2.5592,2.5333,4.3441,-7.4935,8.5637,0.4309,-0.8631,6.6976
390.6250,-4.1726,-3.2270,2.0614,10.4759,7.7344,0.2311,-3.2320,9.7130,-3.0918,-4.3686,-3.8688,1.8028,7.1398,9.5812,-5.5813,6.4123,4.6569,0.6790,8.4844
394.5312,-2.4289,-2.4354,2.1117,10.5600,9.1899,1.0575,-2.6014,9.2448,-1.8320,-2.0934,-2.0887,5.5838,10.7077,13.7969,-3.5913,2.8605,8.1900,1.9778,9.8961
398.4375,-1.5659,-2.2964,2.3798,9.8249,9.8414,0.8816,-0.2229,7.6448,-0.9077,-1.2582,-0.8116,7.5609,12.8900,16.3303,-2.1123,0.4339,10.4078,3.0422,10.8430
402.3438,-1.4161,-2.6715,2.8926,8.6701,9.5415,0.0449,3.5724,5.4472,-0.1291,-1.7147,-0.2576,7.3662,13.6140,16.8594,-1.5068,0.5158,10.9442,4.0200,11.2886
406.2500,-1.4494,-3.0455,3.7032,7.6078,8.3824,-0.8845,7.8454,3.4399,0.8150,-2.6449,-0.1813,5.5990,12.8961,15.3296,-1.7941,2.6673,9.6827,5.0022,11.1721
410.1562,-1.1741,-2.8354,4.7488,6.9495,6.5601,-1.4734,11.1769,2.2341,2.0873,-3.0869,-0.1038,3.3948,10.7151,11.8469,-2.7353,5.1333,6.6916,5.8465,10.3492
414.0625,-0.4638,-1.7456,5.7482,6.6390,4.2480,-1.5941,12.2034,1.9435,3.5148,-2.5018,0.3040,1.7279,7.0721,6.6775,-4.0198,6.1158,2.2156,6.1826,8.6397
417.9688,0.4090,0.0638,6.2855,6.3576,1.6010,-1.3376,10.3291,2.1925,4.6518,-1.0281,0.9740,0.8991,2.2108,0.3642,-5.3912,4.9383,-3.2446,5.6487,5.9988
421.8750,1.0393,2.1004,6.0836,5.8269,-1.1262,-0.7932,6.1690,2.4370,5.0888,0.7128,1.5241,0.5285,-3.1835,-6.1742,-6.6254,2.3712,-8.8596,4.2294,2.7217
425.7812,1.2502,3.8637,5.2856,5.0802,-3.4913,0.0968,1.3757,2.3526,4.8143,2.0971,1.6244,0.0297,-8.0066,-11.7387,-7.4210,-0.0033,-13.5477,2.4545,-0.4776
429.6875,1.2800,5.1537,4.5070,4.4912,-4.9516,1.4852,-2.1199,2.0069,4.3613,2.9271,1.3737,-0.7947,-11.0525,-15.1953,-7.3538,-0.8724,-16.2645,1.2735,-2.6315
433.5938,1.6557,6.1681,4.5554,4.5219,-5.1324,3.4198,-3.0330,1.7100,4.5956,3.5283,1.3876,-1.4796,-11.4997,-15.9321,-6.0127,0.0321,-16.4068,1.6173,-2.9023
437.5000,2.8388,7.3365,5.9547,5.3693,-4.1095,5.6688,-1.2728,1.6884,6.2381,4.4852,2.4844,-1.1647,-9.3057,-14.1596,-3.2761,1.9244,-14.1119,3.8847,-1.0038
441.4062,4.8916,9.0166,8.5816,6.7737,-2.4797,7.7318,2.1811,1.8634,9.4092,6.2242,5.1488,0.7752,-5.2752,-10.8451,0.4566,3.6183,-10.2521,7.6696,2.5830
445.3125,7.3916,11.2482,11.6769,8.1494,-1.1047,9.0621,5.9388,1.9225,13.4932,8.7358,9.1258,4.1887,-0.7404,-7.2788,4.2872,4.3129,-6.0876,11.9238,6.7575
449.2188,9.6521,13.7137,14.2567,8.9634,-0.6392,9.3700,8.9424,1.6323,17.4269,11.5972,13.4438,8.1068,3.0016,-4.4985,7.1597,3.9774,-2.7391,15.4787,10.2694
453.1250,11.0971,15.9091,15.6714,9.1022,-1.1213,8.8119,10.8527,1.1372,20.2468,14.2354,16.8900,11.2719,5.2157,-2.8842,8.3661,3.1731,-0.7476,17.6234,12.2804
457.0312,11.5462,17.4016,15.9532,8.9649,-1.8988,7.9397,11.9352,0.9834,21.5613,16.2171,18.6613,12.8955,5.9725,-2.1233,7.9278,2.5759,0.0628,18.3940,12.7223
460.9375,11.2421,18.0157,15.7273,9.2012,-1.9660,7.4303,12.6475,1.8089,21.6649,17.3765,18.7858,13.1236,6.0065,-1.5194,6.6007,2.6223,0.3745,18.4127,12.2614
464.8438,10.6340,17.8530,15.7517,10.2653,-0.5318,7.7465,13.2691,3.8959,21.2425,17.7436,18.0443,12.8750,6.2795,-0.4260,5.4742,3.4967,0.9572,18.4053,11.8962
468.7500,10.0831,17.1677,16.3965,12.0840,2.5090,8.9083,13.7955,6.8975,20.8743,17.3941,17.4399,13.1499,7.4719,1.4471,5.3784,5.3228,2.2622,18.7178,12.4110
472.6562,9.6850,16.1988,17.4035,14.0666,6.4741,10.4831,14.0687,9.9441,20.6668,16.3791,17.5479,14.2860,9.6444,3.9821,6.4404,8.2305,4.2222,19.1427,13.9809
476.5625,9.2960,15.0684,18.0722,15.4531,10.2173,11.7845,13.9626,12.0778,20.2388,14.7902,18.1595,15.6875,12.2245,6.8116,8.0466,12.1161,6.3248,19.1421,16.1249
480.4688,8.7047,13.7911,17.7335,15.7693,12.6845,12.1749,13.4708,12.7438,19.0479,12.8756,18.4369,16.2258,14.3125,9.5295,9.2257,16.2702,7.8927,18.2884,18.0069
484.3750,7.8081,12.3611,16.1978,15.0911,13.3904,11.3353,12.6933,12.0354,16.8245,11.0593,17.4779,15.0431,15.1442,11.8176,9.2209,19.2936,8.4227,16.6079,18.8936
488.2812,6.6764,10.8397,13.8946,13.9501,12.5620,9.3992,11.8126,10.5536,13.8186,9.7885,14.9271,12.1954,14.4669,13.4510,7.9140,19.5992,7.8177,14.5884,18.5097
492.1875,5.4900,9.3803,11.6360,12.9537,10.8983,6.9057,11.1089,8.9968,10.7011,9.2842,11.2508,8.6818,12.6233,14.2420,5.8673,16.3513,6.4033,12.8544,17.1061
496.0938,4.4231,8.1752,10.1667,12.3779,9.1062,4.5912,10.9417,7.7494,8.1929,9.3715,7.5082,5.8328,10.3002,14.0114,3.9773,10.2508,4.7238,11.7395,15.2318
500.0000,3.5638,7.3619,9.7749,12.0024,7.4904,3.0952,11.5901,6.7222,6.6698,9.5356,4.7669,4.4739,8.0924,12.6324,2.9622,3.5230,3.2255,11.0589,13.3709
503.9062,2.9111,6.9456,10.1755,11.2897,5.8302,2.6907,12.9587,5.5182,5.9960,9.1995,3.5218,4.4370,6.1584,10.1222,2.9798,-1.0867,2.0063,10.2445,11.6733
507.8125,2.4216,6.7817,10.6992,9.7839,3.6063,3.1585,14.3541,3.7934,5.6811,8.0611,3.4652,4.7403,4.1961,6.7192,3.5832,-1.8127,0.7861,8.7586,9.9383
511.7188,2.0548,6.6275,10.6549,7.4637,0.4407,3.8826,14.6089,1.5719,5.2382,6.2736,3.7258,4.2921,1.7636,2.8845,4.0098,1.0621,-0.8645,6.5102,7.8471
515.6250,1.7855,6.2420,9.6657,4.8179,-3.5187,4.1514,12.6512,-0.6843,4.4984,4.3551,3.4135,2.6243,-1.2727,-0.7912,3.6178,5.3137,-3.1677,3.9863,5.2828
519.5312,1.5970,5.4927,7.8257,2.5938,-7.5148,3.5364,8.2693,-2.2934,3.6771,2.8930,2.1378,0.1618,-4.4857,-3.7551,2.2227,8.0762,-5.8853,1.9985,2.5207
523.4375,1.4870,4.4288,5.6335,1.3792,-10.4828,2.1535,2.5662,-2.7320,3.1667,2.2390,0.2050,-2.1167,-7.0436,-5.6737,0.1679,7.5470,-8.3554,1.1949,0.1521
527.3438,1.4920,3.2832,3.7577,1.2791,-11.5878,0.6421,-2.3254,-1.9508,3.2149,2.3876,-1.5894,-3.3523,-8.1980,-6.5514,-1.8704,4.0092,-9.8242,1.6464,-1.2230
531.2500,1.7032,2.3938,2.7484,1.8841,-10.6925,-0.1647,-4.2573,-0.4393,3.7237,3.0862,-2.4228,-3.3335,-7.7811,-6.7179,-3.2036,-0.4867,-9.8725,2.7761,-1.3488
535.1562,2.2337,2.0586,2.8081,2.5391,-8.4621,0.2755,-2.2841,1.0090,4.3050,4.0621,-1.8826,-2.5418,-6.3514,-6.6667,-3.4023,-3.5416,-8.6533,3.6808,-0.4869
539.0625,3.1298,2.3818,3.7093,2.7335,-6.0160,1.8460,2.6678,1.7089,4.5454,5.1785,-0.1528,-1.7451,-4.8577,-6.8008,-2.4067,-3.9449,-6.7751,3.6445,0.7060
542.9688,4.2755,3.1843,4.8923,2.3670,-4.3123,3.7551,8.1661,1.4429,4.2812,6.4028,2.1154,-1.4714,-4.0349,-7.2146,-0.4799,-2.2884,-4.9090,2.5259,1.5294
546.8750,5.3658,4.0462,5.7108,1.7412,-3.6331,4.9258,11.5231,0.5599,3.6840,7.6341,4.1337,-1.7325,-3.9458,-7.6421,1.9175,-0.2794,-3.3958,0.7881,1.6121
550.7812,5.9988,4.4886,5.7267,1.3104,-3.4880,4.6035,11.2164,-0.2470,3.1027,8.5642,5.3178,-2.1399,-3.9924,-7.6189,4.2506,0.6942,-2.1271,-0.8225,1.0878
554.6875,5.8642,4.2270,4.9243,1.3817,-2.9949,2.8398,7.6364,-0.3507,2.7932,8.7359,5.4851,-2.2525,-3.3852,-6.7663,6.0094,0.6725,-0.7670,-1.7175,0.4850
558.5938,4.9343,3.3661,3.7356,1.9719,-1.4850,0.5535,2.7457,0.4631,2.7551,7.8167,4.8620,-1.8588,-1.7271,-5.0131,6.8073,1.0843,0.8828,-1.7363,0.4181
562.5000,3.5447,2.4150,2.8543,2.8993,1.0696,-0.9048,-1.0846,1.9253,2.8056,5.9224,3.9472,-1.0030,0.7141,-2.6005,6.5052,3.5840,2.6763,-1.0903,1.2753
566.4062,2.3009,2.0797,2.9263,4.0082,4.0819,-0.4666,-2.3119,3.5194,2.8333,3.7416,3.3175,0.1965,3.2313,0.1301,5.3233,8.6156,4.2452,-0.0717,3.0752
570.3125,1.8390,2.9138,4.2634,5.3242,6.7862,2.0546,-0.8148,4.8466,3.0120,2.3067,3.4389,1.7212,5.2106,2.9956,3.8532,14.7704,5.3401,1.2235,5.5280
574.2188,2.5457,5.0030,6.7169,6.9968,8.7499,5.8218,2.3915,5.8531,3.7692,2.4817,4.5224,3.6369,6.5464,6.0478,2.8918,19.4459,6.0827,2.9302,8.2074
578.1250,4.3720,7.8594,9.7527,9.0575,10.0784,9.3765,5.9683,6.7542,5.4825,4.4478,6.4476,5.9039,7.6161,9.3718,3.1144,20.3989,6.8782,5.1818,10.6946
582.0312,6.8286,10.6019,12.6667,11.1893,11.1630,11.3605,8.9762,7.7193,8.1033,7.5130,8.7821,8.2012,8.8416,12.7418,4.7265,17.1520,8.0124,7.8115,12.6262
585.9375,9.1713,12.3463,14.8237,12.7243,12.1745,11.1536,11.0769,8.5725,11.0026,10.4054,10.9183,9.9668,10.2054,15.4316,7.2962,11.3179,9.2527,10.2551,13.6855
589.8438,10.6967,12.6076,15.8234,12.9393,12.7142,9.0881,12.2463,8.7698,13.2067,11.9194,12.2994,10.6809,11.1362,16.4150,9.9018,5.6509,9.8197,11.7913,13.6343
593.7500,11.0212,11.5092,15.5618,11.4920,11.9321,6.1621,12.3894,7.7144,13.9204,11.5542,12.6528,10.2092,10.8975,14.9238,11.5557,2.4810,8.8498,11.9871,12.4260
597.6562,10.2212,9.6924,14.2165,8.7107,9.0845,3.4660,11.2574,5.2121,13.0090,9.7674,12.1085,8.9489,9.2069,11.0322,11.6907,2.5490,6.0735,11.0382,10.3347
601.5625,8.7720,7.9867,12.1879,5.5145,4.1602,1.6772,8.7458,1.7381,11.1074,7.6881,11.1264,7.6462,6.6042,5.8454,10.4359,4.9118,2.2158,9.7304,7.9670
605.4688,7.3134,7.0208,10.0083,2.9738,-1.8740,0.8886,5.2851,-1.7047,9.2579,6.4614,10.2534,6.9904,4.2475,1.0810,8.5216,7.8214,-1.2408,9.0012,6.0706
609.3750,6.3506,6.9775,8.2093,1.7708,-7.4170,0.7972,1.9232,-4.0749,8.3005,6.6190,9.8421,7.2545,3.2320,-1.7678,6.8688,9.8597,-2.8579,9.3718,5.2005
613.2812,6.0380,7.6033,7.1643,1.8958,-10.9801,1.0535,-0.0778,-4.8225,8.4118,7.8488,9.8978,8.2166,3.8948,-2.1916,6.1107,10.5571,-2.1107,10.6328,5.4335
617.1875,6.1525,8.4321,6.9624,2.7649,-11.8774,1.5035,0.0817,-4.1193,9.0907,9.2758,10.1432,9.3909,5.5979,-0.8644,6.3240,10.2113,0.2661,12.0054,6.3284
621.0938,6.2635,9.0696,7.3874,3.6608,-10.4499,2.1807,2.2371,-2.6565,9.5728,10.0439,10.2503,10.3775,7.1517,0.8500,7.0999,9.2550,2.7211,12.6715,7.1830
625.0000,5.9944,9.3615,8.0296,4.1827,-7.7315,3.1029,5.2959,-1.1791,9.3602,9.8052,10.0696,11.0639,7.5810,1.7625,7.8666,7.7999,3.8517,12.2976,7.4371
628.9062,5.2136,9.3548,8.4707,4.4002,-4.8251,4.0667,7.8118,-0.0843,8.4803,8.8101,9.6831,11.5427,6.7016,1.5346,8.2211,5.7467,3.2598,11.1772,6.9597
632.8125,4.0386,9.0997,8.4277,4.6339,-2.3986,4.6146,8.7356,0.6617,7.3046,7.5758,9.2363,11.8362,5.1195,0.7473,8.0577,3.3076,1.7325,9.8930,6.0295
636.7188,2.6643,8.4499,7.7712,5.0639,-0.5648,4.2126,7.8725,1.2982,6.0968,6.4023,8.6777,11.6745,3.6991,0.3725,7.4520,1.3949,0.6452,8.7623,5.0414
640.6250,1.1529,7.0301,6.4426,5.4960,0.8977,2.5270,5.7959,1.9672,4.6752,5.1049,7.6285,10.5436,2.9220,1.0586,6.4438,1.4021,1.0126,7.5069,4.1740
644.5312,-0.6398,4.4419,4.3889,5.4871,2.2436,-0.3675,3.3382,2.5967,2.4925,3.1659,5.5428,8.0199,2.6202,2.7417,4.9284,4.3832,2.8409,5.4377,3.2862
648.4375,-2.9206,0.6113,1.6276,4.7483,3.6282,-3.9595,1.0461,3.0443,-0.8852,0.2021,2.1116,4.1823,2.2611,4.8222,2.7603,10.1543,5.2047,2.0641,2.1388
652.3438,-5.6867,-3.9425,-1.5733,3.5058,5.1827,-7.4588,-1.0371,3.3410,-5.2447,-3.5929,-2.3365,-0.1953,1.5329,6.7213,-0.0146,16.9947,6.9537,-2.3099,0.7706
656.2500,-8.5356,-8.1444,-4.5676,2.5066,7.1298,-10.0589,-3.1654,3.7830,-9.5718,-7.3719,-6.7515,-3.8616,0.7491,8.3609,-2.9997,22.2724,7.5237,-6.4843,-0.2939
660.1562,-10.7434,-10.7762,-6.4563,2.5977,9.7396,-11.2082,-5.4729,4.7453,-12.4695,-10.0176,-9.7419,-5.6527,0.7249,10.1942,-5.5285,23.7152,7.2777,-8.9247,-0.2363
664.0625,-11.6224,-11.1017,-6.5132,4.1317,13.0938,-10.8105,-7.6845,6.3368,-12.9448,-10.7650,-10.2765,-5.1146,2.1813,12.7690,-6.9697,20.5941,7.1590,-8.6862,1.5195
667.9688,-10.9543,-9.3554,-4.7044,6.6116,16.8339,-9.2944,-9.1733,8.1749,-11.0654,-9.6636,-8.3181,-2.8257,5.0977,16.1670,-7.0686,14.1210,7.9311,-6.1046,4.7670
671.8750,-9.2020,-6.7605,-1.9308,8.8590,20.1419,-7.5027,-9.3224,9.4960,-8.0353,-7.5732,-4.9782,-0.2001,8.4953,19.7536,-6.0897,6.8302,9.5583,-2.7550,8.3789
675.7812,-7.3151,-4.9737,0.2817,9.6480,22.0538,-6.3904,-7.9363,9.5785,-5.5884,-5.6857,-2.0332,1.1634,10.8520,22.4431,-4.6578,1.3204,11.1606,-0.6316,10.7511
679.6875,-6.2080,-5.2026,0.5804,8.4292,21.9537,-6.6066,-5.4301,8.2101,-5.0400,-4.8662,-1.0211,0.2722,10.9150,23.3031,-3.4020,-0.9315,11.5610,-1.0153,10.6282
683.5938,-6.2237,-7.4816,-1.3673,5.6866,19.9342,-8.1385,-2.6787,5.8833,-6.5637,-5.2182,-2.4147,-2.7423,8.4097,22.0817,-2.6402,-0.0799,10.0362,-3.7187,7.8308
687.5000,-6.9344,-10.5639,-4.5334,2.6968,16.7757,-10.2351,-0.6236,3.5749,-9.1260,-6.1209,-5.3512,-6.6596,4.2087,19.3088,-2.2997,2.4184,6.7684,-7.1848,3.4295
691.4062,-7.4249,-12.5505,-6.9979,0.8368,13.5473,-11.7180,0.1464,2.2501,-11.1005,-6.6804,-8.0889,-9.7521,-0.1258,15.9317,-2.0925,4.6715,2.7293,-9.3821,-0.7610
695.3125,-6.8835,-11.9378,-7.0136,0.8658,11.0870,-11.5713,-0.3597,2.4030,-11.1765,-6.2871,-8.9327,-10.6158,-3.1250,12.7650,-1.7817,5.2497,-0.8763,-8.9460,-3.0792
699.2188,-5.1162,-8.4784,-4.0383,2.6036,9.6835,-9.4955,-1.5499,3.9000,-9.0162,-4.9324,-7.1032,-8.8180,-4.0530,10.1326,-1.3305,3.7125,-3.2101,-5.8797,-2.7859
703.1250,-2.6467,-3.3386,0.9197,5.1589,9.1209,-6.0868,-2.4882,6.1700,-5.3119,-3.1237,-3.0708,-5.0331,-3.0706,7.9034,-0.8409,0.6463,-4.0693,-1.4255,-0.2840
707.0312,-0.3478,1.5543,5.8818,7.5099,8.9861,-2.5051,-2.2587,8.5579,-1.2788,-1.5075,1.7872,-0.6223,-0.9201,5.8201,-0.3710,-2.6655,-3.7310,2.7521,3.2695
710.9375,1.1339,4.5816,9.0465,9.0480,8.9780,0.1806,-0.3354,10.5915,2.0465,-0.4759,5.9491,3.0804,1.5893,3.8289,0.1842,-4.7389,-2.5817,5.5179,6.6551
714.8438,1.7618,5.2724,9.7799,9.7665,9.0040,1.5593,3.1635,12.0268,4.2653,-0.0019,8.4620,5.3677,3.9484,2.1562,1.0236,-4.3964,-0.8535,6.7665,9.1422
718.7500,2.0527,4.4214,8.8384,10.0481,9.0543,1.9992,7.4439,12.7319,5.6088,0.2377,9.2250,6.3294,5.9880,1.1049,2.2290,-1.1918,1.3510,7.2248,10.6196
722.6562,2.6450,3.4559,7.7287,10.2676,9.0277,2.2616,11.2847,12.5816,6.5591,0.5864,8.7729,6.5551,7.6660,0.7657,3.5913,4.3453,3.8267,7.7736,11.3380
726.5625,3.8173,3.4907,7.6705,10.5134,8.7015,2.8975,13.5143,11.4871,7.4139,1.1910,7.7981,6.6125,8.8364,0.8903,4.6449,10.7628,6.0822,8.7872,11.5418
730.4688,5.2954,4.6767,8.8552,10.5950,7.8916,3.8557,13.5174,9.5372,8.0887,1.9677,6.7512,6.6556,9.2068,1.0305,4.9221,16.1101,7.4202,9.9155,11.2767
734.3750,6.4643,6.2171,10.4415,10.2778,6.6640,4.5653,11.5114,7.1082,8.2463,2.7277,5.7356,6.3984,8.5145,0.8361,4.2639,18.6493,7.2760,10.3946,10.4673
738.2812,6.8022,6.9736,11.2144,9.5317,5.3977,4.4042,8.4127,4.8104,7.6075,3.3291,4.6663,5.4275,6.7778,0.2865,2.9612,17.5692,5.5922,9.6178,9.1344
742.1875,6.2141,6.2255,10.4112,8.6046,4.6175,3.1938,5.3481,3.2675,6.1971,3.7382,3.4940,3.6078,4.4193,-0.2990,1.6140,13.3461,2.9520,7.5610,7.5354
746.0938,5.0421,4.0970,8.1764,7.8928,4.7042,1.3634,3.1045,2.8636,4.3618,3.9823,2.3094,1.2893,2.1536,-0.4574,0.7934,7.5260,0.3487,4.8081,6.1074
750.0000,3.7875,1.4386,5.4201,7.7339,5.7053,-0.3079,1.8733,3.6230,2.5770,4.0690,1.2786,-0.8190,0.6967,0.1789,0.7275,2.0200,-1.2837,2.2152,5.2711
753.9062,2.7867,-0.6860,3.2685,8.2859,7.3877,-1.1518,1.4563,5.2923,1.2024,3.9615,0.5134,-2.0171,0.4680,1.7622,1.2072,-1.7124,-1.4957,0.4778,5.2547
757.8125,2.0872,-1.5461,2.5076,9.5491,9.4817,-0.9357,1.7506,7.5392,0.3524,3.6302,0.0037,-1.9828,1.4499,4.2656,1.7462,-3.1565,-0.4583,-0.1285,6.0544
761.7188,1.5834,-1.0167,3.3277,11.4520,11.8961,0.1385,3.0862,10.1064,-0.0603,3.1218,-0.3405,-0.9232,3.2555,7.5727,1.8637,-2.6918,1.2358,0.2684,7.5119
765.6250,1.2513,0.4992,5.4046,13.8706,14.7016,1.6790,6.0572,12.8056,-0.1775,2.5704,-0.5975,0.5585,5.3267,11.4882,1.3035,-1.1340,2.9364,1.3287,9.3934
769.5312,1.2518,2.3544,8.1360,16.5354,17.8695,3.3422,10.8641,15.3827,-0.0727,2.1309,-0.7843,1.7748,7.1297,15.6359,0.0915,0.7582,4.2167,2.6878,11.3877
773.4375,1.8003,3.9466,10.8469,18.9190,20.9718,4.8813,16.6276,17.4020,0.2718,1.8932,-0.8757,2.2640,8.2553,19.3519,-1.5335,2.4845,4.9225,4.0341,13.0551
777.3438,2.9134,4.8956,12.9102,20.2716,23.1223,6.0467,21.2869,18.2981,0.9045,1.8571,-0.8432,1.9572,8.4299,21.7346,-3.2149,3.6752,5.0278,5.1073,13.8550
781.2500,4.2667,5.1113,13.8586,19.8864,23.2861,6.5373,22.3864,17.6152,1.8390,1.9936,-0.6428,1.1612,7.5082,21.9225,-4.5395,3.8895,4.4677,5.7198,13.3311
785.1562,5.3208,4.7970,13.5401,17.4957,20.8159,6.1515,18.4464,15.2976,3.0423,2.3313,-0.1565,0.4028,5.5091,19.4903,-5.1001,2.6584,3.1104,5.8440,11.3930
789.0625,5.6550,4.3941,12.2488,13.5459,15.8808,5.0620,10.1065,11.8271,4.4696,2.9719,0.8298,0.2110,2.6851,14.7310,-4.6204,-0.1417,0.8906,5.7010,8.4937
792.9688,5.2725,4.4330,10.6777,9.1240,9.4931,3.9467,0.2314,8.0801,6.0896,3.9962,2.5304,0.9078,-0.4519,8.6200,-3.1330,-3.8460,-2.0129,5.7258,5.5245
796.8750,4.6375,5.2928,9.6203,5.5088,3.0865,3.7519,-7.2600,4.9557,7.8548,5.3247,4.9622,2.4680,-3.2243,2.4438,-1.0847,-6.9237,-5.1185,6.3554,3.4234
800.7812,4.3977,6.9672,9.5405,3.5744,-2.1082,5.1418,-9.2842,2.9830,9.6358,6.6632,7.7890,4.5021,-5.0040,-2.7126,0.7785,-7.5188,-7.7777,7.7370,2.7088
804.6875,4.9752,8.9965,10.2885,3.3963,-5.5251,7.9833,-5.1377,2.1357,11.1869,7.6190,10.3656,6.3934,-5.4573,-6.3382,1.7718,-4.4327,-9.4379,9.5561,3.2347
808.5938,6.3059,10.6597,11.1863,4.3011,-7.3165,11.2749,3.2022,1.9607,12.2041,7.9369,12.0207,7.5557,-4.6816,-8.5344,1.6962,2.0171,-9.8761,11.1411,4.3313
812.5000,7.9012,11.3549,11.4677,5.3266,-8.0275,13.6599,12.1820,1.9263,12.4631,7.6946,12.4244,7.7031,-3.1481,-9.7429,1.0325,9.8550,-9.2653,11.8225,5.2383
816.4062,9.1709,10.9395,10.7893,5.7977,-8.1544,14.2412,18.4997,1.7682,11.9584,7.2914,11.7896,6.9859,-1.4724,-10.3707,0.7045,16.2275,-8.0521,11.3362,5.5416
820.3125,9.7730,9.8039,9.4614,5.6588,-7.8793,13.1587,20.5849,1.6181,10.9429,7.2073,10.7444,5.9035,-0.1373,-10.5540,1.4986,18.7412,-6.7304,10.0013,5.3319
824.2188,9.7545,8.6163,8.2316,5.3805,-7.1064,11.5126,18.9551,1.8512,9.8307,7.6770,9.9431,5.0333,0.6855,-10.1775,3.4931,16.6236,-5.6410,8.5412,5.0153
828.1250,9.4178,7.9057,7.7708,5.5412,-5.6987,10.6507,15.4287,2.7689,9.0100,8.5089,9.6775,4.7339,1.1348,-9.0778,5.8967,11.0621,-4.8793,7.6479,4.9535
832.0312,9.0421,7.7590,8.2206,6.3920,-3.6940,11.2811,11.8591,4.3335,8.6715,9.1865,9.7601,5.0006,1.5101,-7.2442,7.4513,4.5640,-4.3157,7.5653,5.2129
835.9375,8.6782,7.8213,9.1040,7.6942,-1.3376,12.9989,9.2299,6.1305,8.7368,9.1950,9.7426,5.5521,2.0824,-4.8633,7.1710,-0.2561,-3.6824,7.9550,5.5894
839.8438,8.1495,7.5682,9.6383,8.9114,1.0644,14.5372,7.5599,7.5797,8.9101,8.3497,9.2877,6.0667,2.9748,-2.1890,4.9467,-1.7832,-2.6800,8.1252,5.8499
843.7500,7.2315,6.6374,9.2155,9.5926,3.3281,14.5629,6.4449,8.2578,8.8072,6.9022,8.4019,6.3965,4.1601,0.6414,1.6254,0.1145,-1.0810,7.4672,5.9704
847.6562,5.8601,5.0010,7.7319,9.6664,5.4649,12.4934,5.6765,8.1324,8.1028,5.3615,7.3682,6.6188,5.5404,3.6923,-1.4764,4.3099,1.1768,5.8241,6.1753
851.5625,4.2199,2.9103,5.5923,9.4570,7.6009,8.8246,5.4489,7.5660,6.6512,4.1701,6.4672,6.9135,7.0303,7.1409,-3.2882,9.0473,3.9332,3.5760,6.7579
855.4688,2.6687,0.7183,3.4475,9.4315,9.8220,4.8162,6.0811,7.0948,4.5595,3.4696,5.7433,7.3790,8.5787,11.0678,-3.4732,12.5831,6.8204,1.4124,7.8333
859.3750,1.5640,-1.2550,1.8682,9.8660,12.0614,1.7860,7.5749,7.1178,2.1938,3.1020,5.0142,7.9218,10.1200,15.2629,-2.4292,13.6235,9.3663,-0.0527,9.2157
863.2812,1.1017,-2.7460,1.1322,10.6482,14.0873,0.4675,9.4113,7.6709,0.0879,2.8080,4.0944,8.2742,11.4923,19.1676,-0.9043,11.5835,11.1464,-0.5976,10.4938
867.1875,1.2433,-3.5257,1.1770,11.3221,15.5631,0.7695,10.7506,8.4026,-1.2515,2.4362,3.0046,8.0940,12.3851,21.9880,0.4327,6.7650,11.9008,-0.4820,11.2263
871.0938,1.7401,-3.4408,1.6703,11.3253,16.1156,1.9799,10.8676,8.7470,-1.5867,2.0004,1.9497,7.0632,12.3654,22.9229,1.1789,0.4286,11.5445,-0.2911,11.1078
875.0000,2.2272,-2.5357,2.1453,10.2669,15.3891,3.2042,9.5100,8.1927,-1.1103,1.5646,1.0695,4.9543,10.9943,21.4097,1.1207,-5.4195,10.0746,-0.6327,10.0221
878.9062,2.3525,-1.1447,2.1884,8.1068,13.1141,3.7685,6.9784,6.5113,-0.3972,1.0937,0.2009,1.6980,8.0040,17.3075,0.1086,-8.6619,7.4708,-1.8401,8.0163
882.8125,1.9107,0.1877,1.6574,5.1728,9.2273,3.4267,3.9621,3.8518,-0.1194,0.4287,-1.0801,-2.5070,3.4697,10.9788,-1.8974,-7.9884,3.7021,-3.8042,5.2846
886.7188,0.9388,0.9775,0.8365,2.0411,4.0110,2.3657,1.3001,0.6801,-0.6587,-0.5732,-3.0924,-7.0855,-2.1015,3.2581,-4.6171,-3.6437,-1.1232,-5.9991,2.1932
890.6250,-0.2796,1.0983,0.3769,-0.6551,-1.8511,1.0776,-0.2148,-2.3898,-1.8543,-1.8530,-5.6259,-11.0985,-7.8303,-4.6912,-7.3175,2.5168,-6.5593,-7.6881,-0.7175
894.5312,-1.3355,0.8709,0.9492,-2.4190,-7.4004,0.1620,-0.0097,-4.7941,-3.0734,-3.0951,-7.8407,-13.4847,-12.6792,-11.6207,-9.0080,7.8548,-11.7478,-8.2311,-2.8472
898.4375,-1.8976,0.8365,2.7444,-3.0286,-11.7078,0.0980,2.0462,-6.1739,-3.5905,-3.8772,-8.6689,-13.4887,-15.7575,-16.4937,-8.9618,10.2970,-15.5930,-7.3628,-3.7718
902.3438,-1.8863,1.3481,5.1553,-2.5807,-14.2121,1.0351,5.4119,-6.4410,-3.0429,-3.9254,-7.5022,-11.0627,-16.5947,-18.7497,-7.2334,9.4280,-17.1549,-5.3087,-3.4675
906.2500,-1.4950,2.2811,6.9495,-1.4207,-14.8985,2.6952,8.8359,-5.7499,-1.6548,-3.2767,-4.6787,-6.9717,-15.2636,-18.4340,-4.7488,6.6302,-16.0624,-2.6716,-2.3422
910.1562,-1.0285,3.0953,6.9515,0.0122,-14.2037,4.4644,10.7121,-4.4042,-0.0710,-2.2165,-1.3729,-2.4817,-12.3015,-16.1361,-2.7993,4.1347,-12.7110,-0.1390,-1.0035
914.0625,-0.6666,3.2199,4.8537,1.3495,-12.7185,5.6670,9.8018,-2.7497,1.0846,-1.0479,1.0885,1.2217,-8.4840,-12.7602,-2.2193,3.5584,-8.1184,1.8253,0.1031
917.9688,-0.3389,2.4742,1.5840,2.3809,-10.8897,5.8876,5.9725,-1.1015,1.6024,0.1095,2.0235,3.5376,-4.5735,-9.2323,-2.8197,4.8676,-3.5172,3.1238,0.9251
921.8750,0.1698,1.1994,-1.1214,3.0261,-8.9093,5.1533,0.4583,0.2774,1.7464,1.3128,1.7405,4.5662,-1.1602,-6.2632,-3.5263,6.4564,0.0899,3.9210,1.7165
925.7812,0.9439,-0.0017,-1.7588,3.2398,-6.8223,3.8624,-4.6345,1.1706,1.9402,2.5842,1.1852,4.7904,1.3703,-4.2359,-3.1797,6.2997,2.1901,4.3841,2.6906
929.6875,1.7110,-0.7085,-0.0544,2.9590,-4.7071,2.5128,-7.3791,1.4237,2.3415,3.6920,1.1683,4.5867,2.8005,-3.2048,-1.4494,3.4203,2.7571,4.4766,3.6957
933.5938,1.8866,-0.9545,2.7903,2.1689,-2.7336,1.4211,-7.0233,1.0116,2.6577,4.1538,1.7658,3.9443,3.0668,-2.9479,0.8160,-1.3167,2.0747,3.9859,4.2119
937.5000,0.9238,-1.1133,4.8403,1.0559,-1.0303,0.6134,-4.3034,0.1279,2.3807,3.5251,2.3474,2.6048,2.3075,-3.0263,2.1081,-5.6311,0.5533,2.7853,3.7320
941.4062,-1.2450,-1.5021,4.7050,0.1089,0.5193,-0.0655,-0.8726,-0.7813,1.2780,1.7893,2.1980,0.4978,0.9226,-2.8583,1.3225,-7.2244,-1.3542,1.1354,2.2720
945.3125,-4.0072,-2.0425,2.4996,0.0213,2.3297,-0.7465,1.7652,-1.1216,-0.2472,-0.4586,1.2283,-1.8973,-0.4541,-1.8468,-1.3750,-5.2481,-3.1557,-0.2397,0.6048
949.2188,-6.3093,-2.2730,-0.1821,1.3729,4.8891,-1.4092,3.0970,-0.4000,-1.2518,-2.2302,0.1970,-3.5949,-1.1298,0.4282,-4.5167,-0.8953,-4.3429,-0.4310,-0.0280
953.1250,-7.2365,-1.7154,-1.2829,4.2482,8.3590,-1.9225,3.6727,1.4831,-0.7985,-2.6748,0.2426,-3.5880,-0.6207,4.0107,-6.1981,3.2709,-4.5028,1.1486,1.3929
957.0312,-6.5680,-0.2998,0.3934,8.0425,12.2756,-2.1891,4.4200,4.0690,1.4011,-1.5894,2.0639,-1.4669,1.1282,8.4730,-5.2692,4.8384,-3.4853,4.3467,5.0031
960.9375,-4.9237,1.5084,4.4299,11.6308,15.6116,-2.2470,5.7529,6.4424,4.7079,0.4407,5.3637,2.2560,3.7135,13.0057,-2.0466,2.9817,-1.5071,8.2407,9.8696
964.8438,-3.3791,2.9993,9.0911,13.8516,17.2251,-2.2335,7.1498,7.5977,7.8636,2.3827,8.9801,6.3557,6.4636,16.6815,1.9260,-1.0459,0.9063,11.5546,14.4258
968.7500,-2.7864,3.7085,12.4112,14.0474,16.4480,-2.2476,7.5109,6.9073,9.7062,3.3675,11.6151,9.5219,8.7422,18.7707,4.8847,-4.6244,3.1337,13.2938,17.2618
972.6562,-3.2457,3.7209,13.3212,12.3516,13.4471,-2.2430,6.0209,4.4440,9.8238,3.1809,12.6304,11.0088,10.1897,18.9538,5.9255,-5.2241,4.7084,13.2198,17.7838
976.5625,-4.0775,3.5515,12.0987,9.5639,9.1285,-2.0564,2.8753,0.9737,8.7234,2.3336,12.3504,10.9183,10.7777,17.3350,5.4454,-1.7496,5.4600,11.8911,16.3702
980.4688,-4.3040,3.7021,9.9528,6.7114,4.6504,-1.5543,-0.6722,-2.3896,7.4304,1.6944,11.6943,9.9833,10.6832,14.2881,4.7056,4.9555,5.4785,10.2742,13.9984
984.3750,-3.3094,4.2494,8.1467,4.5692,0.8590,-0.7775,-2.9925,-4.6878,6.8173,1.9465,11.4521,9.0412,10.1002,10.2534,4.8798,12.6302,4.9586,9.1889,11.6435
988.2812,-1.2447,4.7911,7.2978,3.4043,-2.0147,0.0377,-3.0407,-5.5185,7.1175,3.2098,11.7523,8.5529,9.1229,5.6102,6.2624,18.7559,4.0481,8.9259,9.8353
992.1875,1.0725,4.7817,7.2557,3.0270,-4.2565,0.5806,-0.9560,-5.1372,7.9151,5.0277,12.0803,8.4372,7.7593,0.6711,8.1445,21.6731,2.8019,9.2265,8.5789
996.0938,2.6682,3.9828,7.4856,3.0359,-6.2992,0.6364,2.0702,-4.2374,8.5509,6.6718,11.7753,8.2608,6.0279,-4.2552,9.3721,21.1088,1.2488,9.5700,7.5752
1000.0000,2.9865,2.6725,7.5569,3.0610,-8.3591,0.1877,4.5372,-3.5538,8.6146,7.5419,10.5931,7.6073,4.0463,-8.8175,9.1522,17.9760,-0.5027,9.5449,6.5154
1003.9062,2.1732,1.4607,7.3678,2.8806,-10.2979,-0.6005,5.4887,-3.5020,8.1815,7.4311,8.9166,6.3849,2.0499,-12.6429,7.5539,13.7148,-2.2098,9.0762,5.2637
1007.8125,0.9299,0.8705,7.0386,2.4234,-11.7411,-1.4682,4.9451,-4.0220,7.6739,6.5524,7.4962,4.9174,0.3458,-15.4038,5.4159,9.6219,-3.5285,8.4155,3.8887
1011.7188,0.0710,1.0135,6.6830,1.7415,-12.3122,-2.1451,3.6985,-4.6698,7.5000,5.3676,6.9463,3.8035,-0.7539,-16.8720,3.7844,6.4952,-4.1091,7.9533,2.6163
1015.6250,0.0694,1.5814,6.3066,1.0076,-11.8159,-2.4052,2.6689,-4.8811,7.7477,4.3399,7.3646,3.6361,-0.9919,-16.9264,3.2814,4.6469,-3.7023,7.9878,1.7650
1019.5312,0.8350,2.1113,5.8875,0.5004,-10.2902,-2.1254,2.2745,-4.2692,8.1274,3.7249,8.3004,4.7102,-0.2263,-15.5357,3.7912,4.0994,-2.2381,8.5655,1.6560
1023.4375,1.8087,2.2810,5.4907,0.5103,-7.9638,-1.3713,2.2158,-2.8184,8.1607,3.4725,9.0339,6.8383,1.4930,-12.7681,4.6048,4.7277,0.1315,9.4393,2.4593
1027.3438,2.2801,2.0075,5.2390,1.1617,-5.1897,-0.4668,1.7743,-0.8965,7.4598,3.2677,8.9427,9.3581,3.8551,-8.8499,4.8757,6.2431,3.0275,10.1461,4.0126
1031.2500,1.7527,1.3320,5.1341,2.2594,-2.3855,0.0566,0.3950,0.9173,5.9223,2.7026,7.7446,11.3566,6.2934,-4.2318,4.0920,8.0989,5.8930,10.1750,5.7449
1035.1562,0.1883,0.2594,4.9054,3.3033,0.0428,-0.3112,-1.8510,2.1073,3.7591,1.5153,5.5441,12.0417,8.1180,0.4220,2.3140,9.4965,8.1118,9.1794,6.8408
1039.0625,-1.9697,-1.2641,4.0803,3.7246,1.8116,-1.7427,-4.2418,2.4664,1.3791,-0.2223,2.7367,11.0869,8.7532,4.3746,0.0874,9.6020,9.1804,7.1492,6.6280
1042.9688,-4.0024,-3.2182,2.2846,3.2224,2.8628,-3.8802,-5.8466,2.1794,-0.7939,-2.0961,-0.1524,8.7519,7.9610,7.0565,-1.8844,7.9076,8.8699,4.4464,4.9810
1046.8750,-5.2699,-5.3769,-0.4349,1.9782,3.3756,-5.9560,-6.1553,1.6878,-2.4986,-3.5688,-2.6542,5.6795,5.9158,8.2860,-3.1250,4.5271,7.2928,1.6474,2.4501
1050.7812,-5.5495,-7.3481,-3.5268,0.5787,3.6424,-7.2098,-5.4679,1.4032,-3.7492,-4.3204,-4.5427,2.4732,3.0769,8.3447,-3.6349,0.2164,4.8338,-0.7477,-0.0203
1054.6875,-5.1735,-8.7917,-6.1793,-0.3232,3.8709,-7.3469,-4.7404,1.4385,-4.8313,-4.4892,-5.9534,-0.6691,-0.0539,7.8456,-3.8813,-3.9281,1.9799,-2.5735,-1.6365
1058.5938,-4.8527,-9.6329,-7.7256,-0.3869,4.0523,-6.7014,-4.9292,1.5366,-6.1490,-4.6177,-7.3257,-3.9919,-3.1235,7.4475,-4.5248,-6.9315,-0.8482,-4.0423,-2.2015
1062.5000,-5.2448,-10.0626,-7.9266,0.2484,4.0045,-5.9530,-6.2372,1.2572,-7.9597,-5.2908,-9.1219,-7.8322,-5.9506,7.5504,-6.0089,-8.2886,-3.3780,-5.5172,-2.1471
1066.4062,-6.5006,-10.2919,-6.9629,1.1049,3.5626,-5.5786,-7.7969,0.3131,-10.1269,-6.6880,-11.4354,-12.1180,-8.4050,8.1119,-8.2305,-8.0085,-5.4669,-7.1549,-2.1331
1070.3125,-8.0825,-10.2649,-5.2122,1.6891,2.7597,-5.4490,-8.1011,-1.1739,-12.0645,-8.3687,-13.7481,-16.1027,-10.2935,8.6667,-10.4922,-6.3811,-7.0471,-8.6782,-2.5175
1074.2188,-9.0159,-9.6022,-3.0411,1.7542,1.8349,-4.9040,-6.0015,-2.6876,-12.9696,-9.4748,-15.0696,-18.5923,-11.3867,8.5355,-11.7996,-3.6873,-8.1084,-9.4677,-3.1008
1078.1250,-8.4562,-7.8805,-0.7730,1.3398,1.0465,-3.2891,-1.6554,-3.6127,-12.2528,-9.2430,-14.4611,-18.5778,-11.5868,7.1393,-11.3656,-0.1020,-8.7294,-8.9400,-3.3356
1082.0312,-6.2249,-5.0549,1.2218,0.6258,0.4472,-0.5631,3.2716,-3.6156,-9.9072,-7.4809,-11.6482,-15.8701,-11.0813,4.2914,-9.0424,4.1336,-9.0945,-6.9554,-2.8244
1085.9375,-2.9526,-1.6744,2.5144,-0.2215,-0.1659,2.5023,6.4142,-2.8414,-6.5555,-4.6691,-7.3043,-11.2954,-10.3059,0.3442,-5.4260,8.4410,-9.4258,-3.9551,-1.6991
1089.8438,0.2882,1.3337,2.8141,-1.0597,-1.0447,4.7309,6.1210,-1.7804,-3.1066,-1.6179,-2.7659,-6.2958,-9.6888,-3.8898,-1.5656,11.8245,-9.8383,-0.7180,-0.5705
1093.7500,2.6241,3.2001,2.2614,-1.6601,-2.1763,5.2972,2.5848,-0.9003,-0.2391,1.0585,0.6735,-2.1942,-9.3456,-7.4381,1.5436,13.1666,-10.2235,2.0906,-0.0787
1097.6562,3.8604,3.7837,1.5270,-1.6523,-3.1380,4.2833,-2.1096,-0.3169,1.9288,3.2485,2.4316,0.3890,-8.9810,-9.5769,3.3798,11.7938,-10.2854,4.2450,-0.4025
1101.5625,4.4643,3.6111,1.5108,-0.6721,-3.2996,2.6151,-5.1533,0.2412,3.7382,5.2013,2.8199,1.6074,-8.1183,-10.1479,3.9966,7.9631,-9.7497,5.9258,-1.1181
1105.4688,5.0730,3.4404,2.7486,1.3274,-2.2783,1.4021,-4.7106,1.1439,5.5343,7.0714,2.6407,1.9782,-6.5159,-9.5964,3.8036,2.9042,-8.6120,7.3763,-1.5214
1109.3750,5.8984,3.6771,4.9396,3.8452,-0.3094,1.1576,-1.0516,2.4700,7.2174,8.5482,2.5239,1.8723,-4.4472,-8.6675,3.2322,-1.6849,-7.2173,8.5541,-1.1555
1113.2812,6.4846,4.0946,7.0057,5.9389,1.7898,1.4685,3.6419,3.8332,8.1811,8.9240,2.5137,1.3236,-2.5830,-7.9063,2.5345,-4.4252,-6.0571,9.0879,-0.1199
1117.1875,6.0222,4.0750,7.7418,6.7056,3.1105,1.3581,6.6879,4.5904,7.7328,7.6092,2.2052,0.2797,-1.5112,-7.2554,1.8198,-4.8527,-5.3841,8.5975,1.0788
1121.0938,4.0066,3.1764,6.6507,5.8631,3.2838,0.0725,6.5958,4.3038,5.7045,4.7220,1.2861,-0.9777,-1.2303,-6.0331,1.2261,-3.4681,-4.9241,7.1234,1.9978
1125.0000,0.7562,1.5652,4.3529,4.0152,2.7862,-2.2913,3.9130,3.1175,2.7798,1.2713,0.0137,-1.6795,-1.0308,-3.3594,1.0176,-1.2496,-3.9430,5.2859,2.6471
1128.9062,-2.6126,-0.0427,2.2190,2.3479,2.6493,-4.7784,0.6901,1.7439,0.2313,-1.2893,-0.8022,-0.9133,0.0787,1.1952,1.4790,0.9957,-1.6963,3.9844,3.4557
1132.8125,-4.7831,-0.8980,1.4335,1.8922,3.7232,-6.1952,-1.0138,1.0279,-0.8080,-1.9012,-0.3444,1.7204,2.6463,7.1395,2.6699,2.9824,2.0003,3.8068,4.8256
1136.7188,-5.0249,-0.7877,2.1450,2.8210,5.9912,-5.9131,-0.5156,1.3699,-0.0590,-0.5842,1.5341,5.6263,6.2560,13.1024,4.2436,4.7962,6.4729,4.5751,6.6345
1140.6250,-3.6460,-0.2033,3.3389,4.2729,8.4330,-4.2918,1.1630,2.4114,1.7083,1.5185,4.0297,9.3223,9.6157,17.4113,5.5123,6.4448,10.4096,5.3907,8.1214
1144.5312,-1.8019,0.0388,3.5611,4.8638,9.5732,-2.4444,2.1901,3.2215,3.1517,2.7981,5.7667,11.1545,11.2493,18.8916,5.7660,7.5530,12.5054,5.1943,8.3032
1148.4375,-0.7818,-0.5588,1.9993,3.5826,8.3768,-1.5222,1.3355,2.8816,3.1965,2.1383,5.6135,10.1919,10.3578,17.4188,4.6594,7.5215,12.1429,3.4743,6.6576
1152.3438,-1.2297,-1.7570,-0.8536,0.4917,4.9077,-2.0060,-1.1271,1.0901,1.6804,-0.4247,3.3966,6.7310,7.2837,13.9011,2.4214,6.0697,9.6814,0.6372,3.5755
1156.2500,-2.7812,-2.7100,-3.4417,-3.2290,0.3183,-3.4466,-3.6386,-1.6090,-0.6051,-3.7370,0.0322,2.0883,3.2712,9.7211,-0.2443,3.7123,6.1817,-2.2181,0.2310
1160.1562,-4.3153,-2.5500,-4.1423,-5.9330,-3.8133,-4.7723,-4.4724,-4.1224,-2.4622,-6.2021,-3.0007,-2.1648,-0.3037,5.9955,-2.5045,1.6996,2.7612,-3.9618,-2.0778
1164.0625,-4.6349,-0.9965,-2.3314,-6.4427,-6.3636,-4.9260,-2.9154,-5.4358,-3.0207,-6.6578,-4.4898,-5.0212,-2.7152,3.0919,-3.7795,1.3203,0.0055,-4.0810,-2.6833
1167.9688,-3.1515,1.4429,1.2045,-4.6952,-7.2099,-3.4391,0.3040,-5.1818,-2.1765,-4.9422,-4.0941,-6.4146,-4.1776,0.6486,-3.9576,2.9834,-2.2077,-2.8950,-1.9044
1171.8750,-0.1923,3.7983,4.7602,-1.7297,-7.1435,-0.6508,3.5616,-3.8119,-0.5047,-1.8758,-2.3890,-6.9866,-5.4982,-1.9856,-3.3590,5.7453,-4.4069,-1.2473,-0.7846
1175.7812,3.1980,5.2286,6.7363,0.9297,-7.2643,2.4773,5.3893,-2.3015,1.2035,1.2462,-0.4011,-7.4803,-7.3769,-5.2126,-2.5093,7.7147,-6.9988,0.0616,-0.4088
1179.6875,5.8014,5.4568,6.5044,2.0946,-8.2707,4.8007,5.2815,-1.5912,2.4150,3.3122,1.0169,-8.1952,-9.8423,-8.8748,-1.8625,7.1699,-9.8800,0.6950,-1.2505
1183.5938,6.8020,4.7850,4.5946,1.4638,-10.0627,5.4653,3.7808,-2.0970,3.0390,3.8534,1.5878,-8.8279,-12.1786,-12.3104,-1.6021,3.6877,-12.4234,0.8120,-2.9376
1187.5000,6.1124,3.7586,2.1937,-0.3452,-11.8343,4.2368,1.9390,-3.5364,3.2847,3.1308,1.6110,-8.7291,-13.3440,-14.6827,-1.5908,-1.4884,-13.8128,0.7768,-4.5280
1191.4062,4.3336,2.7791,0.3888,-2.2164,-12.5316,1.5857,0.6440,-5.1165,3.3852,1.8891,1.6509,-7.3550,-12.5778,-15.3633,-1.4765,-6.1286,-13.4905,0.8227,-5.0677
1195.3125,2.4096,1.9466,-0.3291,-3.1118,-11.3879,-1.4946,0.2791,-5.9378,3.4218,0.9478,2.1491,-4.6220,-9.8199,-14.1861,-0.9137,-8.3198,-11.4538,0.9265,-4.0846
1199.2188,1.1673,1.1847,-0.0685,-2.4977,-8.2710,-3.8835,0.8130,-5.3904,3.3445,0.8211,3.1786,-0.9971,-5.7358,-11.4936,0.1904,-7.5270,-8.2610,0.9344,-1.7677
1203.1250,0.9579,0.4742,0.7987,-0.4614,-3.7218,-4.7971,2.0692,-3.3702,3.1050,1.5150,4.4286,2.6769,-1.3920,-8.0009,1.5328,-4.7208,-4.7819,0.7798,1.1969
1207.0312,1.5600,-0.0297,1.9695,2.4551,1.2863,-4.1074,3.8617,-0.2532,2.7575,2.5722,5.3874,5.5032,2.2049,-4.5373,2.4912,-1.5407,-1.8362,0.5880,3.9907
1210.9375,2.3794,-0.0849,3.3066,5.5617,5.7445,-2.3393,5.9141,3.3180,2.4477,3.3481,5.6175,6.8610,4.4807,-1.7422,2.4377,0.8549,0.1177,0.5904,6.0285
1214.8438,2.8301,0.4443,4.7225,8.3068,8.9999,-0.3266,7.7503,6.7137,2.3277,3.3893,4.9977,6.6299,5.4460,0.1851,1.1487,2.4080,1.1265,0.9433,7.1741
1218.7500,2.6785,1.4614,6.0532,10.4324,10.9817,1.2739,8.7925,9.5319,2.4803,2.7146,3.8145,5.2274,5.6035,1.5573,-0.9485,3.8350,1.6650,1.6101,7.7383
1222.6562,2.1416,2.6752,7.0786,11.9596,12.1462,2.3004,8.6884,11.6569,2.8962,1.8099,2.6325,3.4227,5.6634,3.0030,-2.9104,5.6809,2.3604,2.3891,8.2663
1226.5625,1.6735,3.7484,7.6658,13.0360,13.1377,3.0241,7.6255,13.1541,3.4774,1.3041,1.9771,1.9767,6.1730,5.0472,-3.7910,7.5608,3.6218,3.0403,9.1975
1230.4688,1.5777,4.4349,7.8764,13.7402,14.3215,3.7633,6.3264,14.0805,4.0344,1.5061,1.9908,1.2668,7.2127,7.6865,-3.2523,8.2507,5.3568,3.3950,10.5517
1234.3750,1.7243,4.6259,7.9143,13.9609,15.4611,4.4878,5.6430,14.3441,4.2947,2.1185,2.2919,1.1163,8.3247,10.2513,-1.8589,6.6217,6.9535,3.3840,11.8237
1238.2812,1.6026,4.3334,7.9492,13.4398,15.7762,4.7525,6.0030,13.7196,3.9843,2.3724,2.1857,0.9660,8.7595,11.7258,-0.7963,2.7231,7.5962,3.0116,12.1982
1242.1875,0.7142,3.6836,7.9789,11.9667,14.4077,4.0618,7.1138,12.0224,3.0024,1.5516,1.1535,0.3184,7.9539,11.3948,-1.1239,-1.8564,6.7753,2.3516,11.0202
1246.0938,-0.9495,2.9455,7.8622,9.6051,11.0351,2.4111,8.1683,9.3286,1.6000,-0.4226,-0.6843,-0.8298,5.9706,9.4170,-3.0255,-4.7259,4.6884,1.5836,8.2651
1250.0000,-2.7060,2.5244,7.4930,6.7819,6.2407,0.5632,8.4215,6.0728,0.3960,-2.7692,-2.4837,-1.8893,3.5888,6.8924,-5.5778,-4.1069,2.2393,1.0067,4.6927
1253.9062,-3.4671,2.8365,6.9484,4.1435,1.3381,-0.2349,7.7254,2.9264,0.1268,-4.2078,-3.1112,-2.0369,1.9148,5.2863,-7.2486,0.0156,0.5647,0.9446,1.5261
1257.8125,-2.3836,4.0743,6.4632,2.2464,-2.2816,1.0046,6.6328,0.5082,1.2158,-3.7181,-1.8720,-0.8192,1.7001,5.5162,-6.8420,5.7919,0.3412,1.5504,-0.1972
1261.7188,0.5524,6.0074,6.2443,1.2792,-3.8898,4.2835,6.0049,-0.8891,3.4336,-1.2145,0.9502,1.4283,2.8038,7.2949,-4.2797,10.5241,1.3125,2.6403,-0.2041
1265.6250,4.3717,8.0090,6.3015,1.0159,-3.7647,8.4310,6.4164,-1.3759,5.9242,2.3342,4.1544,3.6900,4.1967,9.2142,-0.6864,12.1215,2.3825,3.7271,0.8985
1269.5312,7.5954,9.3690,6.4730,1.0451,-2.9108,11.6567,7.7866,-1.2966,7.6546,5.4500,6.3103,4.8914,4.5741,9.5815,2.2929,10.0701,2.2641,4.3016,2.0726
1273.4375,9.0431,9.7330,6.6457,1.1126,-2.3502,12.5438,9.4760,-0.9462,8.0372,7.0153,6.6500,4.6247,3.2160,7.5002,3.4956,5.4072,0.2984,4.2079,2.5704
1277.3438,8.4779,9.3668,6.9705,1.3167,-2.4763,10.8655,10.7349,-0.3906,7.3106,6.8958,5.5580,3.4550,0.5216,3.4810,2.8957,-0.0925,-3.0853,3.8358,2.4281
1281.2500,6.6768,9.0153,7.8281,1.9940,-2.9080,7.7025,11.1532,0.4754,6.3898,5.9117,4.3005,2.5506,-2.1704,-0.8405,1.4880,-4.8325,-6.5774,3.9351,2.3755
1285.1562,4.8903,9.3959,9.4933,3.3691,-2.9107,4.7845,10.8022,1.6917,6.2519,5.1989,4.1508,2.8626,-3.3928,-3.7097,0.5161,-7.8242,-8.7419,5.1119,3.2205
1289.0625,4.0538,10.6459,11.7249,5.2419,-2.0360,3.4733,10.0199,3.0336,7.2580,5.4097,5.4987,4.4213,-2.4708,-4.3172,0.6019,-8.5657,-8.8360,7.3272,5.1554
1292.9688,4.2576,12.1163,13.6489,6.9840,-0.4811,4.0186,9.0676,4.0497,8.8721,6.2963,7.5538,6.2597,0.0587,-3.2133,1.3766,-6.7867,-7.1798,9.7593,7.5061
1296.8750,4.7930,12.7010,14.1379,7.9027,1.1056,5.5188,7.9515,4.3592,9.9779,6.9289,8.8504,7.0405,2.8061,-1.8086,1.8368,-2.5007,-4.8697,11.1810,9.1321
1300.7812,4.6978,11.5241,12.5247,7.7418,2.2146,6.5586,6.5423,4.0034,9.5820,6.3640,8.2090,5.9607,4.4161,-1.3181,1.1309,3.6081,-3.0554,10.6488,9.2129
1304.6875,3.4057,8.5447,9.1780,6.9551,2.9918,6.0861,4.8719,3.5682,7.4320,4.2853,5.5076,3.3071,4.3850,-1.8788,-0.8023,9.9069,-2.2640,8.0744,7.8600
1308.5938,1.0765,4.6698,5.4810,6.5093,4.2493,3.9901,3.3381,3.9246,4.1488,1.2005,1.7606,0.2801,3.2812,-2.4357,-3.1800,14.1507,-2.1812,4.3037,6.1032
1312.5000,-1.5717,1.2741,3.1167,7.2949,6.9128,1.0728,2.6118,5.6986,0.8154,-1.8908,-1.5112,-1.7802,2.2671,-1.4608,-4.9122,14.4907,-1.9733,0.6450,5.2375
1316.4062,-3.7599,-0.5834,3.0561,9.5082,11.2642,-1.4955,3.2598,8.7995,-1.6718,-4.0896,-3.1739,-2.2222,2.2900,1.9852,-5.3198,10.5962,-0.8872,-1.8543,5.9673
1320.3125,-5.1132,-0.7574,4.8973,12.4213,16.5170,-2.8634,5.3042,12.3294,-3.0566,-5.0487,-3.0550,-1.4086,3.4991,7.5449,-4.5345,4.0831,1.2693,-2.9299,7.9307
1324.2188,-5.7956,-0.0585,7.0287,14.7209,21.0507,-2.9238,8.0135,14.9740,-3.7212,-5.0316,-1.8854,-0.3592,5.2414,13.6498,-3.3391,-2.1806,4.0364,-3.1161,9.9221
1328.1250,-6.2696,0.2723,7.5651,15.2348,23.2024,-2.2754,10.1016,15.6708,-4.2956,-4.6173,-0.7341,-0.0082,6.5734,18.3155,-2.6080,-5.5513,6.5966,-3.2884,10.6537
1332.0312,-6.8879,-0.6776,5.4967,13.6090,22.1446,-1.8071,10.2921,14.1700,-5.1890,-4.3068,-0.3599,-0.6099,6.8922,20.1423,-2.7583,-4.9502,8.2308,-4.0588,9.5476
1335.9375,-7.6085,-2.9644,1.3314,10.5255,18.3274,-2.1740,7.9907,11.1639,-6.3481,-4.2878,-0.8805,-1.6706,6.2681,18.9404,-3.5618,-1.2211,8.6651,-5.4102,7.0536
1339.8438,-8.0113,-5.7814,-3.1754,7.3361,13.2362,-3.4528,3.7208,7.9188,-7.3482,-4.4500,-1.8771,-2.3765,5.3138,15.6852,-4.3775,3.6438,8.1513,-6.7640,4.3312
1343.7500,-7.5771,-7.9350,-6.0264,5.3395,8.6285,-5.1224,-0.9493,5.6294,-7.6916,-4.5558,-2.7546,-2.1539,4.7474,11.9216,-4.5829,7.7809,7.2894,-7.3829,2.5507
1347.6562,-6.0317,-8.4858,-6.0932,5.1291,5.6964,-6.3410,-4.0304,4.8556,-7.0861,-4.4007,-3.0671,-0.9574,4.9733,9.0111,-3.8963,10.3234,6.7193,-6.8194,2.2785
1351.5625,-3.5366,-7.1790,-3.6570,6.3716,4.6038,-6.3525,-4.0418,5.3336,-5.5484,-3.8625,-2.6309,0.8573,5.9255,7.6213,-2.4227,11.3759,6.8322,-5.1330,3.3004
1355.4688,-0.6216,-4.4538,-0.0921,8.1058,4.6006,-4.8224,-0.7944,6.2261,-3.3263,-2.8582,-1.4508,2.8973,7.2053,7.6437,-0.4817,11.3661,7.6191,-2.7798,4.9138
1359.3750,2.0854,-1.0949,3.0542,9.3503,4.5877,-1.9603,4.4242,6.6408,-0.7366,-1.2973,0.3980,5.0094,8.3638,8.4696,1.6007,10.5025,8.7076,-0.2890,6.4292
1363.2812,4.1714,2.2216,4.9779,9.6607,3.7879,1.6044,9.4463,6.1309,1.9782,0.9059,2.8190,7.2731,9.1370,9.4021,3.5965,8.8573,9.5665,2.0566,7.5446
1367.1875,5.6257,5.2146,5.9810,9.3356,2.1614,5.1129,12.3527,4.9215,4.7225,3.7683,5.6748,9.7706,9.5276,9.9777,5.3699,6.9147,9.7841,4.3490,8.4012
1371.0938,6.8091,7.9850,7.1119,9.1887,0.3705,7.9881,12.5313,3.7694,7.5450,7.1804,8.7705,12.3695,9.7340,10.0730,6.8541,5.8927,9.2750,6.9383,9.3598
1375.0000,8.2281,10.7646,9.3677,10.0357,-0.6548,10.0195,11.0251,3.5402,10.5640,10.8994,11.8842,14.7089,9.9914,9.7932,8.0739,7.2586,8.2874,10.1477,10.6880
1378.9062,10.2278,13.6148,12.9756,12.1820,-0.3002,11.3491,9.8996,4.7238,13.8226,14.5882,14.8093,16.3828,10.3928,9.2356,9.1803,11.5804,7.1850,13.9718,12.3457
1382.8125,12.7595,16.2638,17.1705,15.1750,1.3256,12.2869,10.9466,7.1304,17.1171,17.8655,17.3439,17.1432,10.7554,8.2753,10.4049,17.5816,6.1338,17.9107,13.9549
1386.7188,15.3415,18.1680,20.5636,17.9486,3.3894,13.0678,14.4964,9.9265,19.8992,20.3447,19.2214,16.9503,10.6037,6.5129,11.8965,22.3423,4.9133,21.0378,14.9313
1390.6250,17.2429,18.7549,21.8547,19.2955,4.7569,13.6858,19.0966,12.0071,21.3724,21.6757,20.0685,15.8590,9.3288,3.4585,13.5304,22.8409,3.0268,22.3068,14.7076
1394.5312,17.8095,17.7116,20.4895,18.4493,4.6255,13.8902,22.3088,12.5327,20.8191,21.6206,19.5036,13.8996,6.5185,-1.1026,14.8634,17.9690,0.0855,21.0013,12.9787
1398.4375,16.7717,15.1790,16.9367,15.5024,3.0185,13.3415,22.1621,11.3644,18.0364,20.1601,17.3895,11.1222,2.3235,-6.7501,15.3392,9.6196,-3.7647,17.1412,9.9014
1402.3438,14.3818,11.7614,12.4841,11.4483,0.8502,11.8390,18.3641,9.1661,13.6235,17.5780,14.0967,7.8088,-2.3610,-12.3149,14.6590,1.9274,-7.6888,11.6408,6.1656
1406.2500,11.3096,8.3472,8.6880,7.8038,-0.4999,9.4979,12.5016,7.1055,8.8877,14.4437,10.5497,4.6547,-6.0902,-16.1614,13.0698,-1.0297,-10.4428,6.0841,2.8571
1410.1562,8.3560,5.8081,6.7390,5.9610,0.1202,6.7789,7.1106,6.2947,5.3348,11.4568,7.9221,2.6710,-7.4362,-16.8044,11.3182,2.3462,-10.9689,2.1574,1.0977
1414.0625,6.1346,4.6862,7.0147,6.5632,3.0544,4.3431,4.2175,7.2560,3.9729,9.1982,7.0735,2.7345,-5.6803,-13.5819,10.2302,10.1963,-8.9593,0.9605,1.5734
1417.9688,4.8784,4.9887,8.9840,9.2042,7.6880,2.7896,4.2796,9.6866,4.8124,7.9060,8.0367,5.0067,-1.2503,-7.0282,10.1516,18.3086,-5.0327,2.5208,4.1709
1421.8750,4.4400,6.1721,11.4824,12.6092,12.7836,2.3898,6.1532,12.6319,6.8599,7.3964,9.8938,8.6159,4.3780,1.2779,10.6316,22.5592,-0.4117,5.7697,7.9405
1425.7812,4.4450,7.3408,13.2267,15.2189,17.0763,2.9472,8.0187,14.9589,8.6225,7.1799,11.1787,11.9033,9.3055,9.3345,10.6111,21.1129,3.6963,9.0190,11.4601
1429.6875,4.4826,7.5956,13.3444,15.8982,19.7753,3.8586,8.5762,15.8684,8.8425,6.7139,10.6224,13.1837,12.0390,15.4970,9.0515,15.0752,6.6312,10.7206,13.4440
1433.5938,4.2341,6.3984,11.6869,14.4187,20.7198,4.3664,7.7104,15.1887,7.0600,5.6635,7.8291,11.6151,12.0878,19.0281,5.6267,7.4125,8.4258,10.1362,13.2923
1437.5000,3.5148,3.7970,8.7999,11.4869,20.1913,3.8938,6.2633,13.3363,3.7274,4.0410,3.4953,7.6499,10.0323,20.1742,1.0267,1.0874,9.5380,7.5922,11.2907
1441.4062,2.2726,0.4056,5.5919,8.3246,18.5944,2.3084,5.1999,11.0159,-0.1172,2.1686,-0.9522,2.7753,7.0877,19.7982,-3.3463,-2.3048,10.4090,4.2182,8.3769
1445.3125,0.6000,-2.8528,2.8965,6.0428,16.2500,-0.0115,4.8480,8.8536,-3.3737,0.5038,-4.0813,-1.3085,4.4621,18.8231,-6.1127,-2.7021,11.1602,1.3422,5.6388
1449.2188,-1.2338,-5.1170,1.1696,5.1472,13.4022,-2.3391,4.7590,7.1530,-5.2974,-0.5691,-5.1252,-3.5620,2.8747,17.7981,-6.6248,-0.8263,11.5946,-0.1176,3.8476
1453.1250,-2.7869,-5.8959,0.4561,5.4195,10.3440,-3.9057,4.2212,5.8679,-5.6422,-0.8772,-4.2400,-3.9995,2.4418,16.7750,-5.2175,2.6253,11.4352,0.0421,3.2680
1457.0312,-3.5457,-5.1809,0.5837,6.2005,7.4873,-4.2048,2.9527,4.7591,-4.5616,-0.4757,-2.2592,-3.3936,2.8871,15.4824,-2.8826,7.1838,10.5834,1.4191,3.7818
1460.9375,-3.1278,-3.3455,1.3949,6.8712,5.2782,-3.1640,1.3967,3.6211,-2.4226,0.4352,-0.1544,-2.5468,3.8583,13.6387,-0.6293,12.2488,9.2153,3.3935,5.1539
1464.8438,-1.4965,-0.9289,2.8300,7.2339,4.0142,-1.1320,0.3844,2.4567,0.3332,1.6260,1.4539,-1.6651,5.1339,11.2135,1.0277,16.7527,7.6887,5.5246,7.2163
1468.7500,0.9514,1.5641,4.8190,7.5772,3.7158,1.2809,0.4493,1.5169,3.2505,2.9174,2.4763,-0.2694,6.6405,8.5170,2.1488,19.3795,6.3720,7.7181,9.8503
1472.6562,3.5166,3.7646,7.1156,8.4103,4.1605,3.4292,1.3618,1.1949,5.9039,4.1980,3.2009,2.3131,8.3458,6.1046,3.0554,19.2923,5.5277,10.1025,12.8382
1476.5625,5.5154,5.4573,9.2672,10.0601,5.0498,4.8478,2.2825,1.8239,7.9812,5.4036,3.9894,6.2591,10.1552,4.5570,3.9373,16.7790,5.2927,12.7477,15.7637
1480.4688,6.6258,6.5800,10.8088,12.3943,6.1743,5.4048,2.4470,3.4776,9.3872,6.4992,5.0571,10.8833,11.8929,4.2332,4.7127,13.2048,5.7004,15.4514,18.0974
1484.3750,7.0543,7.2432,11.5678,14.8514,7.4552,5.3504,1.8593,5.8771,10.2901,7.4877,6.4532,14.8935,13.3622,5.0976,5.2217,10.2088,6.6730,17.7548,19.4447
1488.2812,7.4045,7.7367,11.8339,16.7513,8.8595,5.2286,1.4318,8.4674,11.0370,8.4220,8.1736,17.1168,14.4253,6.6982,5.5323,8.7143,7.9800,19.1831,19.7881
1492.1875,8.2954,8.4452,12.2155,17.6874,10.2958,5.6459,2.4006,10.6448,11.9553,9.3762,10.2407,17.2071,15.0485,8.3309,6.0317,8.5079,9.2313,19.5405,19.5319
1496.0938,9.9385,9.6490,13.2266,17.7474,11.6051,6.9604,5.3908,12.0207,13.1435,10.3578,12.6313,15.8430,15.2967,9.3417,7.1521,8.6881,9.9767,19.0504,19.2867
1500.0000,11.9278,11.2926,14.8763,17.4233,12.6547,9.0371,9.7940,12.5730,14.3788,11.2021,15.0972,14.2700,15.2928,9.4399,8.9107,8.5744,9.8937,18.2287,19.5107
1503.9062,13.3882,12.8890,16.5662,17.2696,13.4360,11.2264,13.9391,12.5878,15.2038,11.5415,17.0509,13.4887,15.1586,8.8567,10.6465,8.2856,8.9584,17.5569,20.2250
1507.8125,13.4212,13.6785,17.4054,17.5229,14.0471,12.6283,15.9946,12.4202,15.1419,10.9235,17.6832,13.6272,14.9501,8.2381,11.2397,8.4822,7.4734,17.1617,20.9796
1511.7188,11.6022,13.0023,16.7482,17.9203,14.5509,12.5301,15.0316,12.2260,13.9169,9.0528,16.3214,13.9073,14.6042,8.2971,9.7516,9.4920,5.9185,16.7079,21.0832
1515.6250,8.2375,10.6785,14.5839,17.8222,14.8243,10.7691,11.5509,11.8448,11.5562,6.0271,12.8393,13.2024,13.9251,9.3943,6.0798,10.6026,4.7091,15.5780,19.9522
1519.5312,4.2213,7.1282,11.5024,16.5605,14.5523,7.7924,7.1355,10.9217,8.3374,2.3943,7.8448,10.7933,12.6409,11.2768,1.1622,10.2294,4.0077,13.2306,17.3758
1523.4375,0.5687,3.1493,8.2663,13.8021,13.4111,4.3765,3.4743,9.1887,4.6361,-1.0531,2.4776,6.8158,10.5211,13.1326,-3.4593,6.9804,3.6874,9.5181,13.5702
1527.3438,-2.0980,-0.5222,5.3127,9.7286,11.3204,1.2014,1.4094,6.7129,0.7790,-3.6579,-2.1060,2.1299,7.5036,13.9444,-6.4643,0.8793,3.4318,4.7803,9.0355
1531.2500,-3.8008,-3.5630,2.5607,4.9574,8.5618,-1.4184,0.6110,3.9299,-3.0073,-5.2269,-5.2687,-2.2486,3.7530,12.9591,-7.4452,-6.2182,2.8791,-0.3145,4.3355
1535.1562,-5.0481,-6.0803,-0.3337,0.2838,5.6472,-3.4735,0.0305,1.4324,-6.5395,-6.0850,-7.1210,-5.7293,-0.3860,10.0307,-7.0296,-11.4564,1.7227,-5.0543,-0.0667
1539.0625,-6.3807,-8.3012,-3.4819,-3.5942,3.0153,-4.9620,-1.2480,-0.3503,-9.5709,-6.8040,-8.3019,-8.3428,-4.5060,5.6728,-6.3859,-12.6095,-0.2376,-8.9024,-3.8551
1542.9688,-7.9279,-10.1879,-6.4283,-6.2367,0.7844,-5.6514,-3.3663,-1.3637,-11.7306,-7.7762,-9.4549,-10.4558,-8.2383,0.8251,-6.4709,-9.4503,-3.0435,-11.5401,-6.8168
1546.8750,-9.2699,-11.3030,-8.2632,-7.4781,-1.2377,-5.1552,-5.6676,-1.8957,-12.5769,-8.9216,-10.7389,-12.2649,-11.2670,-3.5190,-7.5107,-3.9404,-6.4893,-12.7697,-8.7773
1550.7812,-9.7008,-11.0560,-8.1367,-7.3626,-3.2831,-3.3090,-7.2225,-2.3338,-11.7619,-9.7327,-11.6869,-13.4704,-13.2722,-6.6345,-8.9987,0.8989,-10.0461,-12.4182,-9.5726
1554.6875,-8.7147,-9.1619,-5.8143,-6.0829,-5.3014,-0.5398,-7.4598,-2.8950,-9.2314,-9.6256,-11.4924,-13.3839,-13.8946,-8.2130,-10.1139,2.7042,-12.9063,-10.3683,-9.0718
1558.5938,-6.3875,-5.9618,-1.8823,-3.9579,-6.8570,2.1336,-6.4390,-3.5136,-5.3445,-8.3471,-9.5323,-11.3966,-12.8209,-8.3355,-10.2097,1.0004,-14.2199,-6.7171,-7.2346
1562.5000,-3.3983,-2.3394,2.5380,-1.4216,-7.3598,3.5830,-4.6261,-3.9498,-0.8241,-6.1545,-5.7947,-7.4763,-9.9904,-7.3483,-9.0556,-2.7569,-13.4608,-1.9367,-4.1832
1566.4062,-0.6763,0.7314,6.3578,1.0307,-6.4890,3.2555,-2.4354,-4.0172,3.4648,-3.6517,-0.9631,-2.3464,-5.8004,-5.7357,-6.7741,-6.2293,-10.7369,3.1271,-0.2649
1570.3125,1.0891,2.6936,8.9757,2.9536,-4.5023,1.5700,0.0361,-3.7459,6.8188,-1.4234,3.8703,2.7764,-1.1335,-4.0283,-3.6532,-7.5778,-6.8364,7.4851,3.9234
1574.2188,1.7603,3.6124,10.3496,4.0814,-2.1882,-0.3132,2.8565,-3.3597,8.9330,0.2568,7.6701,6.7183,2.8861,-2.7309,-0.0544,-6.3253,-2.9414,10.3705,7.5972
1578.1250,1.7039,3.9551,10.7213,4.4015,-0.4636,-1.2397,5.8458,-3.0909,9.9532,1.4464,9.8456,8.8323,5.3290,-2.2288,3.5402,-3.2880,-0.1353,11.5396,9.9662
1582.0312,1.4572,4.1454,10.2822,4.1250,0.1286,-0.8202,8.3122,-2.9789,10.3160,2.3098,10.3913,9.1701,5.8579,-2.6697,6.4920,0.1926,1.0343,11.3292,10.5081
1585.9375,1.3618,4.2507,9.0674,3.5687,-0.3026,0.3460,9.2593,-2.8086,10.4707,2.8714,9.7712,8.3015,4.8486,-3.8651,8.1538,3.1038,0.7049,10.4321,9.2245
1589.8438,1.4091,4.0341,7.1289,3.0120,-1.1120,1.1498,8.0076,-2.2426,10.6351,2.9658,8.6538,6.9436,3.1530,-5.2864,8.1931,5.1528,-0.4916,9.5216,6.7219
1593.7500,1.3623,3.2910,4.7777,2.5999,-1.5307,0.8023,4.8036,-1.0634,10.7126,2.4175,7.6291,5.6333,1.6389,-6.2058,6.8614,6.5527,-1.8163,8.9341,4.0199
1597.6562,1.0101,2.1528,2.6174,2.3234,-1.0990,-0.5989,0.9253,0.6271,10.3983,1.2772,6.9993,4.5880,0.7792,-5.9586,4.9430,7.4946,-2.7672,8.5731,2.1290
1601.5625,0.3343,1.0767,1.2720,2.0618,0.1377,-2.1843,-1.8949,2.3739,9.3942,-0.1189,6.6918,3.7582,0.5235,-4.2294,3.3272,7.7684,-3.2049,8.0555,1.5990
1605.4688,-0.5281,0.5113,0.9867,1.6484,1.7381,-3.0036,-2.4307,3.5211,7.6021,-1.3454,6.3221,2.9759,0.4937,-1.2232,2.4622,6.8444,-3.2467,6.9877,2.2835
1609.3750,-1.4592,0.5186,1.4167,0.9307,3.1459,-2.7529,-0.7129,3.4682,5.1974,-2.1860,5.4072,2.0973,0.3350,2.3757,2.0887,4.3643,-3.0610,5.2072,3.4604
1613.2812,-2.4890,0.6889,1.7986,-0.1830,3.9308,-1.9802,1.9175,1.9118,2.5636,-2.7712,3.6664,1.0894,-0.0286,5.6544,1.4855,0.6838,-2.7249,2.8722,4.2393
1617.1875,-3.7404,0.4529,1.4113,-1.6869,3.8630,-1.6241,3.5143,-1.0248,0.1467,-3.4101,1.2654,0.0509,-0.4041,7.8136,0.0782,-2.9716,-2.2317,0.3830,4.0094
1621.0938,-5.2192,-0.4345,0.0119,-3.4592,2.8451,-2.2567,2.5791,-4.8093,-1.6907,-4.2277,-1.1665,-0.8275,-0.5747,8.4285,-2.0377,-4.9549,-1.6132,-1.7982,2.6641
1625.0000,-6.6283,-1.6313,-2.0517,-5.2789,0.8250,-3.6215,-1.1323,-8.6520,-2.7597,-4.9100,-2.8208,-1.3620,-0.5867,7.4964,-4.0712,-4.0818,-1.0613,-3.3299,0.4991
1628.9062,-7.3881,-2.4029,-4.1063,-6.8879,-2.2055,-4.8097,-6.4659,-11.7423,-3.0679,-4.8063,-3.1765,-1.5076,-0.8557,5.2680,-5.0600,-0.4484,-0.9440,-4.1013,-2.0959
1632.8125,-6.9017,-2.1532,-5.5774,-8.0791,-6.1259,-4.9212,-11.4019,-13.4990,-2.7877,-3.3681,-2.3683,-1.4527,-1.9916,1.9978,-4.5695,4.3690,-1.6826,-4.2394,-4.8973
1636.7188,-4.9178,-0.8917,-6.2577,-8.7642,-10.5984,-3.6896,-13.9378,-13.7496,-2.1862,-0.6224,-1.1781,-1.5884,-4.4314,-2.1972,-3.0429,7.9756,-3.5469,-4.0235,-7.8647
1640.6250,-1.7526,0.7332,-6.2559,-8.9758,-15.0696,-1.6134,-12.8918,-12.7643,-1.5291,2.6892,-0.5863,-2.3122,-8.0959,-7.2571,-1.5213,8.4053,-6.4748,-3.7439,-10.9191
1644.5312,1.7834,1.8820,-5.7240,-8.7999,-18.8859,0.4618,-8.3293,-11.1136,-0.9815,5.4525,-1.1279,-3.7416,-12.2846,-12.9340,-0.9260,5.2517,-10.0153,-3.5598,-13.6894
1648.4375,4.7247,2.1264,-4.6306,-8.2842,-21.4714,1.9413,-1.5236,-9.4020,-0.5477,6.8044,-2.4750,-5.5133,-15.8908,-18.5798,-1.4250,-0.0336,-13.4384,-3.4187,-15.4717
1652.3438,6.3626,1.7507,-2.7868,-7.3923,-22.4860,2.7918,5.4776,-8.0026,-0.0928,6.6196,-3.5642,-6.8396,-17.8451,-23.1816,-2.3458,-4.9326,-15.9813,-3.0836,-15.5001
1656.2500,6.5052,1.5153,-0.1129,-6.0483,-21.9080,3.3708,10.5404,-6.9322,0.5443,5.5289,-3.2463,-6.8618,-17.5742,-25.7048,-2.6912,-7.3116,-17.1274,-2.2727,-13.3942
1660.1562,5.4708,2.0497,3.0746,-4.2503,-20.0291,3.9855,12.1942,-5.9360,1.3957,4.4615,-1.0691,-5.1429,-15.2536,-25.5860,-1.8707,-6.6401,-16.7949,-0.8568,-9.4970
1664.0625,3.8582,3.3182,6.0042,-2.1794,-17.3779,4.5803,10.1966,-4.7303,2.2620,4.0339,2.3169,-2.0177,-11.7385,-23.0762,-0.1199,-4.1949,-15.3391,0.9877,-4.8652
1667.9688,2.2447,4.5553,7.7088,-0.2164,-14.5828,4.7993,5.6480,-3.2493,2.7430,4.1948,5.4206,1.4357,-8.2083,-19.1890,1.6728,-2.1180,-13.3601,2.7643,-0.8763
1671.8750,0.9642,4.7236,7.4684,1.1680,-12.1922,4.3226,0.5204,-1.7384,2.4095,4.3397,6.7039,3.8379,-5.6912,-15.2358,2.5688,-1.9665,-11.4099,3.8177,1.3458
1675.7812,0.0419,3.1779,5.1840,1.6099,-10.4934,3.1470,-3.2553,-0.6293,1.0322,3.7734,5.4270,4.1508,-4.6794,-12.1941,2.1594,-3.7385,-9.7507,3.6099,1.3897
1679.6875,-0.7277,0.0887,1.4733,1.0353,-9.4036,1.5662,-4.7059,-0.2750,-1.2629,2.1843,2.0340,2.1841,-4.9929,-10.2679,0.7328,-6.0153,-8.2897,1.9845,-0.3233
1683.5938,-1.6237,-3.6425,-2.5536,-0.2711,-8.5093,-0.1014,-4.2158,-0.7155,-4.0114,-0.1740,-2.1322,-1.3073,-5.9302,-8.8892,-1.0201,-7.0669,-6.7157,-0.7198,-2.7801
1687.5000,-2.8376,-6.8880,-5.7211,-1.7588,-7.2657,-1.7525,-3.1487,-1.6258,-6.6010,-2.6604,-5.5763,-4.9827,-6.6150,-7.1375,-2.4818,-6.0864,-4.7433,-3.7740,-4.8252
1691.4062,-4.3695,-8.8798,-7.2294,-2.8303,-5.2738,-3.4671,-2.9071,-2.4830,-8.5371,-4.6140,-7.3921,-7.5381,-6.3701,-4.3050,-3.4073,-3.6662,-2.3112,-6.3444,-5.5962
1695.3125,-6.0197,-9.5279,-6.9421,-3.0856,-2.4872,-5.2420,-4.0272,-2.8489,-9.6428,-5.6607,-7.5852,-8.2719,-4.9588,-0.2696,-3.8919,-1.2231,0.3771,-7.8302,-4.7836
1699.2188,-7.4812,-9.3395,-5.4222,-2.4780,0.7736,-6.7762,-5.9051,-2.5951,-10.0905,-5.8086,-6.8630,-7.3271,-2.6114,4.5084,-4.1359,0.1231,2.9722,-8.0958,-2.6608
1703.1250,-8.4901,-9.0591,-3.6942,-1.3104,4.0065,-7.5782,-7.3202,-1.9384,-10.2559,-5.3523,-6.0998,-5.5224,0.1342,9.2973,-4.2583,0.3327,5.1584,-7.4902,0.0774
1707.0312,-8.9511,-9.2686,-2.8028,-0.0783,6.7925,-7.3652,-7.3683,-1.2775,-10.4766,-4.7003,-5.8306,-3.8927,2.6733,13.4653,-4.2978,0.3134,6.7718,-6.6480,2.5876
1710.9375,-8.9562,-10.1409,-3.3273,0.7594,8.9629,-6.4202,-6.1252,-0.9418,-10.8456,-4.2215,-6.0350,-3.1861,4.5358,16.6737,-4.3235,1.0446,7.7938,-6.1735,4.1727
1714.8438,-8.6788,-11.4063,-5.0807,0.9644,10.5643,-5.5378,-4.5728,-1.0142,-11.1451,-4.1316,-6.2613,-3.5590,5.4740,18.8182,-4.4717,2.7085,8.2560,-6.3633,4.5083
1718.7500,-8.2166,-12.4872,-7.1818,0.5713,11.6572,-5.5001,-3.8628,-1.3281,-10.9597,-4.4087,-5.9511,-4.5987,5.4356,19.8344,-4.8226,4.5394,8.1421,-7.1049,3.7225
1722.6562,-7.5062,-12.7359,-8.5188,-0.2038,12.1072,-6.4402,-4.4796,-1.6289,-9.9164,-4.7631,-4.7710,-5.6339,4.4802,19.5588,-5.2321,5.4866,7.3574,-7.9897,2.2877
1726.5625,-6.3896,-11.7079,-8.3808,-1.1257,11.5408,-7.6112,-5.9118,-1.7782,-7.9320,-4.7218,-2.8068,-6.1506,2.7076,17.7621,-5.3266,5.1110,5.7740,-8.5670,0.7674
1730.4688,-4.7936,-9.3953,-6.8834,-2.0585,9.5257,-7.8184,-7.0342,-1.8598,-5.3307,-3.8536,-0.5599,-6.0789,0.2447,14.3228,-4.7509,3.9513,3.3115,-8.5842,-0.4518
1734.3750,-2.8776,-6.3090,-4.8908,-2.9612,5.8863,-6.2598,-6.8682,-2.1074,-2.7465,-2.0466,1.2456,-5.7857,-2.7111,9.4073,-3.5109,3.0516,0.0108,-8.0717,-1.2937
1738.2812,-1.0075,-3.3179,-3.4398,-3.7705,0.9615,-3.1687,-5.1398,-2.6946,-0.8302,0.3449,1.9856,-5.7750,-5.8346,3.5266,-2.1112,3.0506,-3.9129,-7.2336,-1.9133
1742.1875,0.4595,-1.2633,-3.0189,-4.2758,-4.3639,0.2468,-2.2755,-3.5235,0.0968,2.6314,1.4718,-6.2781,-8.6591,-2.5615,-1.2972,3.6059,-8.0370,-6.2332,-2.4677
1746.0938,1.4325,-0.5270,-3.1919,-4.1096,-8.9052,2.5604,1.0395,-4.1641,0.2442,4.1670,0.1373,-7.0064,-10.6500,-8.0460,-1.5211,3.6520,-11.7389,-5.0418,-2.9120
1750.0000,2.1715,-0.8175,-2.8622,-2.9124,-11.6006,3.0480,4.2860,-4.0163,0.2618,4.7454,-1.0738,-7.2570,-11.3683,-12.2591,-2.5182,2.2953,-14.2933,-3.4794,-2.9840
1753.9062,3.0961,-1.3469,-1.0404,-0.5968,-11.9234,2.1033,7.1519,-2.6327,0.8655,4.7239,-1.1312,-6.3486,-10.6693,-14.8212,-3.3566,-0.3921,-15.0920,-1.4375,-2.4079
1757.8125,4.4216,-1.3292,2.3855,2.4558,-10.0991,0.8598,9.2465,-0.0288,2.3725,4.7529,0.5194,-4.1294,-8.8414,-15.7202,-3.0029,-3.3412,-13.9367,0.8704,-1.1752
1761.7188,5.8908,-0.4912,6.4164,5.4261,-7.0311,0.3262,9.9003,3.2079,4.4266,5.2705,3.5667,-1.2119,-6.5840,-15.3223,-1.0508,-5.2555,-11.2508,2.8406,0.3188
1765.6250,6.8365,0.7535,9.4403,7.3543,-3.9632,0.7024,8.4269,6.1054,6.1145,6.1248,6.8887,1.2660,-4.7837,-14.2858,1.9023,-5.5531,-8.0364,3.7020,1.4173
1769.5312,6.5839,1.6067,10.1611,7.5742,-2.0063,1.3782,4.7835,7.7224,6.4499,6.6167,9.0795,2.2580,-4.1502,-13.3490,4.5286,-4.7069,-5.5035,2.9416,1.5668
1773.4375,4.9417,1.4672,8.3639,6.0533,-1.7140,1.5677,0.0958,7.5901,4.9645,5.9717,9.1795,1.4390,-4.8688,-13.0199,5.5411,-3.7085,-4.5060,0.6842,0.6732
1777.3438,2.4319,0.3846,5.0251,3.4446,-2.8746,1.0367,-3.5455,5.9461,2.0541,3.9236,7.1862,-0.5617,-6.4565,-13.2887,4.4575,-3.1184,-5.0801,-2.2372,-0.7934
1781.2500,0.0647,-0.9490,1.7163,0.8100,-4.6097,0.3170,-4.1384,3.6295,-1.1507,0.9961,4.0382,-2.4965,-7.9296,-13.5366,1.8572,-2.5221,-6.3775,-4.6129,-2.0325
1785.1562,-1.2267,-1.6738,-0.2913,-0.8414,-5.7448,0.2331,-1.0990,1.6859,-3.3356,-1.7362,1.0895,-3.2134,-8.2316,-12.7501,-1.0120,-0.8901,-7.0773,-5.4311,-2.3455
1789.0625,-1.1247,-1.3702,-0.6482,-0.9595,-5.2987,1.1279,4.0674,0.8863,-3.6641,-3.2562,-0.5908,-2.2979,-6.7179,-9.9850,-2.9784,2.4222,-6.0729,-4.3726,-1.4940
1792.9688,-0.0806,-0.3538,0.0774,0.3917,-2.8723,2.4332,8.3753,1.4097,-2.1654,-3.1744,-0.6695,-0.2372,-3.4436,-4.8586,-3.5346,6.8647,-3.0458,-1.9328,0.2384
1796.8750,1.0212,0.5641,0.9501,2.6787,1.2375,2.9758,9.0360,2.8416,0.3676,-1.8836,0.4841,1.9844,0.9004,2.2037,-2.9254,10.8032,1.4054,0.9004,2.3023
1800.7812,1.4572,0.6917,1.3483,5.2262,6.2385,1.8387,5.2090,4.4658,2.8875,-0.2226,2.2121,3.5667,5.3608,10.1121,-1.7714,12.5678,6.1372,3.2135,4.2690
1804.6875,1.1156,0.0088,1.3322,7.5345,11.2267,-0.8481,-1.3148,5.6687,4.6843,1.0876,4.0281,4.3820,9.1810,17.5607,-0.5754,11.6910,10.0814,4.6379,6.0809
1808.5938,0.5118,-0.7423,1.5165,9.4253,15.5284,-3.7931,-7.0088,6.2277,5.7067,1.8354,5.8057,4.9480,12.0765,23.5125,0.5245,9.3767,12.7217,5.4512,8.0019
1812.5000,0.3809,-0.5072,2.5958,10.9693,18.8098,-5.2406,-8.5911,6.3364,6.4455,2.2952,7.6261,5.9323,14.1782,27.4463,1.6359,7.7801,14.1504,6.2779,10.3115
1816.4062,1.1438,1.3863,4.8584,12.2727,20.9276,-4.0425,-4.8950,6.3808,7.4939,2.8674,9.4746,7.5622,15.7098,29.2652,2.8099,8.5601,14.7306,7.6032,12.9538
1820.3125,2.6095,4.7488,7.9679,13.2680,21.6749,-0.4059,2.4910,6.6213,9.0862,3.6911,11.0706,9.3710,16.6409,29.0075,3.8471,11.7190,14.6490,9.4136,15.3837
1824.2188,4.0973,8.5726,11.0890,13.6408,20.6590,4.1634,10.1488,6.9816,10.9094,4.5291,11.9801,10.4620,16.5704,26.6279,4.3797,15.5500,13.7009,11.1793,16.7283
1828.1250,4.8741,11.5561,13.2435,12.9491,17.4611,7.6712,14.7068,7.0745,12.2885,4.9865,11.9154,10.1062,14.9432,22.0447,4.1454,17.7244,11.4662,12.1671,16.1911
1832.0312,4.6076,12.7708,13.7081,10.8863,12.0200,8.6914,14.5396,6.4486,12.6154,4.8675,10.9793,8.2567,11.4781,15.4273,3.2221,16.7501,7.7458,11.8776,13.4854
1835.9375,3.5550,12.0763,12.3004,7.5517,4.9872,7.0503,10.3837,4.9083,11.7463,4.3773,9.6560,5.6330,6.5309,7.4896,2.0349,12.8163,2.9392,10.3424,9.0664
1839.8438,2.3944,10.0846,9.4767,3.5689,-2.2391,3.8035,4.6845,2.7095,10.1294,4.0105,8.5469,3.3297,1.1379,-0.4857,1.1347,7.5208,-1.9257,8.1249,4.0338
1843.7500,1.8293,7.7682,6.2175,-0.0528,-7.9269,0.6006,0.2149,0.5057,8.5869,4.2078,8.0374,2.2159,-3.3300,-7.0021,0.9094,2.7778,-5.5738,6.0487,-0.2567
1847.6562,2.2069,5.9849,3.7168,-2.2888,-10.7174,-1.1533,-1.2076,-0.9427,7.8793,5.0322,8.1159,2.5103,-5.7404,-10.9290,1.4120,-0.2729,-7.0709,4.8219,-2.7005
1851.5625,3.3494,5.1779,2.9507,-2.5398,-10.2533,-0.9032,0.6936,-1.1382,8.2947,6.0943,8.4418,3.7675,-5.6930,-11.9754,2.3785,-1.6383,-6.2776,4.7550,-2.8422
1855.4688,4.6576,5.3388,4.2733,-0.9085,-7.3493,0.9242,4.8616,-0.0861,9.4871,6.7740,8.5853,5.2277,-3.6597,-10.7638,3.3765,-1.9967,-3.9043,5.6895,-0.9932
1859.3750,5.4077,6.1517,7.2271,1.8595,-3.5675,3.2369,9.5913,1.7362,10.6522,6.5891,8.2621,6.2697,-0.6953,-8.4420,3.9797,-1.8641,-1.1301,7.1372,1.9741
1863.2812,5.0891,7.1750,10.6949,4.7657,-0.4030,4.8301,13.2613,3.6653,10.9495,5.4758,7.4330,6.6897,2.1238,-6.0550,3.9038,-1.0797,1.0011,8.5307,5.0482
1867.1875,3.6337,7.9695,13.3592,7.0713,1.4652,4.9137,14.8250,5.2220,9.9493,3.8229,6.2553,6.6919,4.2245,-4.0423,3.1008,1.0206,2.0814,9.4642,7.5143
1871.0938,1.4472,8.1772,14.2648,8.6364,2.4282,3.4056,13.9952,6.3410,7.8676,2.2596,4.9727,6.6734,5.7464,-2.1455,1.8150,4.9208,2.4720,9.8309,9.1988
1875.0000,-0.7724,7.5937,13.2080,9.8765,3.5642,0.8910,11.1938,7.3192,5.4619,1.3339,3.8302,6.9816,7.3368,0.2512,0.5608,10.2705,3.0165,9.8194,10.4211
1878.9062,-2.3528,6.2441,10.7657,11.3681,5.8611,-1.7140,7.3546,8.5226,3.6389,1.2570,3.0352,7.7735,9.6643,3.5918,-0.0393,15.7527,4.5040,9.7857,11.7024
1882.8125,-2.9587,4.4135,7.9747,13.3596,9.5321,-3.6316,3.6379,10.0492,2.9836,1.8308,2.7248,8.9934,12.9362,7.7749,0.4539,19.5895,7.1824,10.0571,13.4039
1886.7188,-2.7367,2.5686,5.8480,15.5168,13.8455,-4.5855,1.1069,11.5811,3.4673,2.5732,2.9082,10.4043,16.6941,12.1636,2.0023,20.3814,10.5833,10.7442,15.4907
1890.6250,-2.2043,1.1697,4.9708,17.0767,17.5622,-4.8586,0.4366,12.5346,4.4937,2.9667,3.4086,11.6263,19.9938,15.9434,3.9982,17.7932,13.7416,11.6458,17.5346
1894.5312,-1.9302,0.4587,5.3385,17.3134,19.6807,-5.0096,1.7387,12.4165,5.2519,2.7102,3.8752,12.1940,21.8573,18.5678,5.5009,12.7228,15.6779,12.2976,18.9281
1898.4375,-2.1893,0.3567,6.4549,16.0054,19.9970,-5.4205,4.5556,11.1500,5.1698,1.8562,3.9095,11.6763,21.7347,19.9887,5.7224,6.9031,15.8684,12.1659,19.1733
1902.3438,-2.8093,0.5492,7.6036,13.5937,19.1163,-5.9714,8.0117,9.1463,4.2079,0.7678,3.2674,9.8615,19.7230,20.5286,4.4860,2.1748,14.4471,10.9134,18.0912
1906.2500,-3.3171,0.7211,8.1651,10.9317,17.9283,-6.0773,11.0669,7.0697,2.8367,-0.0889,2.0192,6.9246,16.4429,20.5048,2.3547,-0.2122,12.0462,8.6144,15.8642
1910.1562,-3.2929,0.7946,7.8740,8.8013,16.9217,-5.0873,12.8051,5.4492,1.7323,-0.4110,0.5567,3.4539,12.6768,19.8914,0.3150,0.0178,9.3953,5.8012,12.9314
1914.0625,-2.6896,1.0063,6.9304,7.5168,15.8206,-2.7920,12.7001,4.3962,1.3926,-0.2323,-0.5788,0.2741,9.0034,18.2739,-0.7980,2.1989,6.9366,3.2955,9.8211
1917.9688,-1.8803,1.7593,5.9147,6.8581,13.8046,0.3093,10.8014,3.6106,1.9023,0.1102,-0.9529,-1.8755,5.6358,15.1460,-0.7647,5.0843,4.6824,1.8822,7.0047
1921.8750,-1.3845,3.3318,5.5105,6.3397,10.1643,3.1928,7.7642,2.6585,2.9655,0.2140,-0.4319,-2.6382,2.5241,10.3554,-0.0319,7.3388,2.3759,1.9733,4.8129
1925.7812,-1.4553,5.6324,6.1409,5.5977,4.9420,4.8586,4.6631,1.3178,4.1460,-0.0864,0.7958,-2.1456,-0.3958,4.3871,0.6711,7.9627,-0.1863,3.4315,3.4068
1929.6875,-1.8295,8.1721,7.7062,4.6257,-0.8949,4.9111,2.6045,-0.2458,5.1390,-0.5558,2.3617,-0.8812,-3.0043,-1.7227,0.8678,6.5330,-2.9040,5.6441,2.7822
1933.5938,-1.8453,10.2942,9.6046,3.7286,-5.8805,3.8067,2.2750,-1.5825,5.9026,-0.6615,3.9179,0.6005,-4.9966,-6.8093,0.6412,3.2578,-5.3697,7.8167,2.7983
1937.5000,-0.8730,11.5304,11.0682,3.2721,-8.8098,2.6119,3.6427,-2.2504,6.5960,0.0969,5.2664,1.9153,-6.0657,-10.0824,0.5042,-1.0965,-7.0974,9.3310,3.2317
1941.4062,1.2216,11.8603,11.6319,3.4339,-9.3402,2.4162,5.9885,-2.0799,7.3977,1.8346,6.3550,2.9180,-6.1274,-11.4029,0.9485,-5.3541,-7.8134,9.9817,3.8485
1945.3125,3.9108,11.7010,11.4238,4.1237,-8.0626,3.7468,8.2705,-1.2361,8.3408,4.1435,7.1728,3.5973,-5.4160,-11.1886,2.0155,-8.1624,-7.6007,9.9715,4.4693
1949.2188,6.2660,11.6180,11.0519,5.0875,-6.0335,6.3089,9.6271,-0.0607,9.2643,6.2744,7.6463,3.9201,-4.3741,-10.0476,3.2129,-8.3452,-6.8061,9.6880,4.9977
1953.1250,7.4890,11.9321,11.1308,6.0800,-4.1090,9.1615,9.7376,1.1652,9.8872,7.5344,7.6208,3.7720,-3.4090,-8.4094,3.8390,-5.3464,-5.7907,9.4097,5.4068
1957.0312,7.3657,12.4708,11.7723,6.9663,-2.5231,11.1918,8.8521,2.3592,9.9375,7.6420,6.9443,3.0487,-2.6751,-6.3900,3.4785,0.3953,-4.7106,9.1292,5.7084
1960.9375,6.3409,12.6311,12.4271,7.7065,-0.9492,11.6126,7.5214,3.5934,9.2576,6.8137,5.5923,1.8222,-2.0246,-3.9377,2.3073,7.3845,-3.4787,8.5973,5.9386
1964.8438,5.1706,11.7215,12.2292,8.2825,1.0665,10.2461,6.2386,4.9372,7.8420,5.5338,3.7374,0.4325,-1.1493,-1.0950,0.9783,13.4865,-1.9148,7.5456,6.1645
1968.7500,4.3899,9.3758,10.6254,8.6601,3.6478,7.5100,5.2262,6.3311,5.8135,4.1787,1.7012,-0.6062,0.1827,1.8558,0.1581,16.7337,0.0407,5.9224,6.4762
1972.6562,3.9568,5.7823,7.8278,8.8180,6.4302,4.1780,4.4627,7.5931,3.3655,2.7634,-0.2034,-0.8666,1.9437,4.4859,0.0281,16.1553,2.2109,3.9671,6.9259
1976.5625,3.3050,1.5985,4.7288,8.7913,8.7732,1.0658,3.8588,8.5356,0.6966,0.9828,-1.8532,-0.2913,3.8188,6.4715,0.0977,12.1734,4.2376,2.0613,7.4227
1980.4688,1.7676,-2.3810,2.3105,8.6563,10.1485,-1.2222,3.4093,9.0793,-2.0444,-1.4866,-3.4057,0.6841,5.3363,7.7944,-0.5300,6.3231,5.7556,0.4548,7.6630
1984.3750,-0.9135,-5.5801,0.9692,8.4454,10.4158,-2.4193,3.2126,9.2612,-4.7824,-4.6421,-5.2214,1.2779,6.0757,8.7230,-2.5896,0.4569,6.5599,-0.9346,7.1981
1988.2812,-4.3236,-7.8066,0.2704,8.0699,9.8221,-2.5921,3.3817,9.1398,-7.4924,-8.0114,-7.6308,0.7313,5.8491,9.5843,-6.1286,-4.0800,6.6639,-2.4846,5.6691
1992.1875,-7.5246,-9.1646,-0.6597,7.3488,8.7896,-2.0470,3.9526,8.6990,-10.1268,-10.8165,-10.6621,-1.2781,4.7805,10.5034,-10.3504,-6.8266,6.2403,-4.5934,3.1080
1996.0938,-9.5219,-9.8290,-2.3821,6.1668,7.6902,-1.1942,4.8627,7.8613,-12.5343,-12.3442,-13.8938,-4.4017,3.2608,11.3145,-13.9325,-7.9978,5.5079,-7.3347,0.0996
2000.0000,-9.7662,-9.8792,-4.6057,4.6579,6.7648,-0.4165,5.9745,6.6224,-14.4346,-12.2987,-16.5537,-7.7093,1.7973,11.7057,-15.6566,-7.9817,4.6383,-10.2823,-2.3667
2003.9062,-8.4018,-9.3144,-6.3014,3.2547,6.1789,0.0239,7.0737,5.2005,-15.4991,-10.9301,-17.8548,-10.0879,0.8065,11.4715,-15.0126,-7.0088,3.7094,-12.6510,-3.3517
2007.8125,-6.1403,-8.2081,-6.4262,2.5122,6.0800,0.0284,7.8246,4.0471,-15.5155,-8.8845,-17.4064,-10.7688,0.4205,10.6565,-12.4554,-5.2473,2.6907,-13.6975,-2.5040
2011.7188,-3.8635,-6.8354,-4.7433,2.7766,6.5387,-0.3431,7.7709,3.6572,-14.5415,-6.8797,-15.4625,-9.7208,0.3952,9.4663,-9.1811,-3.1574,1.4438,-13.1486,-0.3524
2015.6250,-2.1996,-5.6250,-2.1203,3.9079,7.4015,-0.9091,6.4919,4.2649,-12.9327,-5.3971,-12.8355,-7.6929,0.1885,8.0217,-6.5365,-1.6550,-0.2435,-11.3895,1.8735
2019.5312,-1.3012,-4.9320,-0.0469,5.2608,8.2062,-1.4246,3.9143,5.6229,-11.1958,-4.5342,-10.4908,-5.8549,-0.7862,6.1730,-5.3653,-1.7683,-2.5566,-9.2846,2.8441
2023.4375,-0.9092,-4.7858,0.3198,5.9725,8.3026,-1.6556,0.5937,7.0328,-9.7386,-4.0566,-9.0400,-5.1992,-2.8315,3.5646,-5.6241,-3.9143,-5.4972,-7.7268,1.8260
2027.3438,-0.6162,-4.8150,-1.0802,5.4012,7.1624,-1.4581,-2.3032,7.6430,-8.6734,-3.5816,-8.4359,-6.0068,-5.7379,-0.0592,-6.4627,-7.3309,-8.7522,-7.1786,-0.9369
2031.2500,-0.1417,-4.4413,-3.1804,3.4520,4.6877,-0.8374,-3.4531,6.8539,-7.8089,-2.7834,-8.0663,-7.6752,-8.8135,-4.5199,-6.7260,-10.1988,-11.7070,-7.4723,-4.3930
2035.1562,0.5379,-3.2453,-4.5201,0.5910,1.2907,0.0510,-2.1034,4.6004,-6.8429,-1.5334,-7.1990,-9.0266,-11.1971,-9.1132,-5.6097,-10.5372,-13.6612,-7.9711,-7.3058
2039.0625,1.2517,-1.2708,-4.2348,-2.4427,-2.3324,0.9769,1.3507,1.3590,-5.6235,0.0601,-5.5003,-8.9503,-12.3004,-12.8724,-3.1180,-7.3688,-14.1703,-7.9770,-8.9450
2042.9688,1.8044,0.9353,-2.6221,-5.0304,-5.5841,1.7610,5.3656,-2.1018,-4.2931,1.7033,-3.2908,-7.0304,-12.1184,-15.0426,-0.0715,-1.3953,-13.3144,-7.1324,-9.4218
2046.8750,2.1208,2.5914,-0.9072,-6.9162,-8.2252,2.3779,7.9349,-5.0600,-3.2033,3.0291,-1.3609,-3.7981,-11.1975,-15.4538,2.3451,5.2918,-11.7009,-5.5820,-9.4709
2050.7812,2.2699,3.1008,-0.3815,-8.1666,-10.3243,2.9593,7.6315,-7.0736,-2.6592,3.7340,-0.4596,-0.4513,-10.2559,-14.5325,3.2418,10.2964,-10.1486,-3.8242,-9.8324
2054.6875,2.3746,2.3767,-1.5082,-8.9164,-11.9484,3.6800,4.4054,-8.0149,-2.6727,3.6950,-0.7860,1.8056,-9.6832,-12.9429,2.5157,12.1111,-9.2163,-2.3707,-10.6419
2058.5938,2.4959,0.8905,-3.5810,-9.1117,-12.8632,4.5934,-0.3527,-7.9522,-2.9097,3.0280,-1.8245,2.4189,-9.2406,-11.1042,0.8927,10.7064,-8.8579,-1.4353,-11.2279
2062.5000,2.5912,-0.5695,-5.1337,-8.4516,-12.5194,5.5363,-4.5382,-7.0126,-2.8778,2.0558,-2.6359,1.7523,-8.1756,-8.9260,-0.5058,7.2665,-8.4352,-0.8364,-10.4595
2066.4062,2.5797,-1.2793,-4.8112,-6.5759,-10.3883,6.1869,-6.4240,-5.3315,-2.2303,1.1921,-2.4241,0.8160,-5.6997,-5.9447,-0.8129,3.3978,-7.1011,-0.1538,-7.4429
2070.3125,2.4556,-0.8959,-2.1471,-3.3715,-6.4285,6.2553,-5.4824,-3.0991,-0.9794,0.7861,-1.0098,0.6380,-1.5401,-1.7636,0.1028,0.3954,-4.3307,0.9744,-2.1508
2074.2188,2.3483,0.4320,2.1941,0.8161,-1.3323,5.6840,-2.4976,-0.6199,0.5231,0.9940,1.0876,1.6716,3.7822,3.5146,1.6082,-1.0518,-0.2813,2.6017,4.3918
2078.1250,2.4637,2.1797,6.7891,5.2189,3.6696,4.7127,1.0202,1.7039,1.8172,1.7362,3.0009,3.5914,9.1228,9.1680,2.7314,-0.7672,4.2318,4.4154,10.4865
2082.0312,2.9362,3.7003,10.1622,8.9207,7.3679,3.7531,3.6973,3.4903,2.6131,2.7540,4.0552,5.5654,13.2293,14.1344,2.7700,1.0736,8.1184,5.8933,14.5003
2085.9375,3.6973,4.4898,11.4142,11.2188,9.1567,3.1502,4.9142,4.5291,2.9268,3.7319,4.1407,6.7867,15.2885,17.5082,1.7028,3.9402,10.5191,6.5721,15.5705
2089.8438,4.4683,4.3608,10.4857,11.8757,9.2714,2.9904,4.8800,4.8656,2.9965,4.4246,3.6896,6.9031,15.1993,18.9396,0.1624,6.8716,11.1454,6.2709,13.9140
2093.7500,4.8987,3.4742,8.0163,11.1398,8.5446,3.0826,4.2432,4.7528,3.0589,4.7319,3.3021,6.0925,13.4564,18.7030,-0.9930,8.6110,10.2942,5.1531,10.6139
2097.6562,4.7699,2.2333,4.9659,9.5574,7.8563,3.1148,3.5763,4.5019,3.1589,4.6985,3.2992,4.7948,10.7817,17.4274,-1.2198,8.0995,8.5844,3.6114,7.0390
2101.5625,4.1256,1.0925,2.2234,7.7051,7.6413,2.8649,3.0739,4.3257,3.1273,4.4552,3.5104,3.3466,7.7655,15.6929,-0.5974,5.1107,6.6107,2.0641,4.2284
2105.4688,3.2380,0.3602,0.3521,5.9926,7.7474,2.3178,2.5909,4.2693,2.7349,4.1367,3.4322,1.7977,4.7210,13.7513,0.2753,0.5613,4.7119,0.7858,2.5536
2109.3750,2.4308,0.0846,-0.4822,4.6156,7.6754,1.6243,1.9016,4.2544,1.8996,3.8168,2.6265,0.0179,1.7694,11.5107,0.7033,-3.8276,2.9397,-0.1373,1.7791
2113.2812,1.8789,0.0777,-0.4409,3.6328,6.9865,0.9589,0.9504,4.1837,0.7953,3.4853,1.0740,-2.0305,-0.9861,8.7401,0.3469,-6.3887,1.1743,-0.7321,1.4092
2117.1875,1.5208,0.0668,0.1398,3.0720,5.5836,0.4046,-0.0716,4.0209,-0.2155,3.0715,-0.7584,-4.0988,-3.3681,5.3222,-0.5865,-6.3486,-0.7281,-1.0173,1.0696
2121.0938,1.1418,-0.1114,0.9207,2.9752,3.7140,-0.0490,-0.8325,3.7934,-0.7699,2.5027,-2.1714,-5.7001,-5.1786,1.3904,-1.5102,-4.0942,-2.8399,-0.9334,0.6978
2125.0000,0.5682,-0.3855,1.6962,3.3600,1.7602,-0.4112,-1.0369,3.5368,-0.6797,1.7749,-2.6175,-6.3600,-6.3181,-2.7022,-1.8451,-0.7341,-5.1270,-0.3656,0.4752
2128.9062,-0.1604,-0.4715,2.4540,4.1465,0.0205,-0.6007,-0.5530,3.2488,0.0296,1.0050,-1.9524,-5.8717,-6.8385,-6.5181,-1.3518,2.6623,-7.4354,0.7697,0.6119
2132.8125,-0.7553,-0.0250,3.3365,5.1307,-1.3594,-0.4533,0.5602,2.9071,1.2302,0.4386,-0.3987,-4.3609,-6.8628,-9.6638,-0.1958,5.5698,-9.4729,2.4534,1.1683
2136.7188,-0.8014,1.1686,4.5319,6.0486,-2.2995,0.1671,2.0953,2.5464,2.8602,0.3998,1.7147,-2.1288,-6.4321,-11.8438,1.2622,7.9519,-10.8127,4.5683,2.0404
2140.6250,0.0338,3.0835,6.1493,6.7074,-2.6733,1.2433,3.7588,2.3228,5.0090,1.1884,4.2177,0.5793,-5.4173,-12.8473,2.7690,9.8480,-10.9706,6.9742,3.0880
2144.5312,1.8210,5.4763,8.1444,7.0967,-2.3082,2.5694,5.2331,2.4905,7.8404,2.9559,7.1562,3.6861,-3.5930,-12.5263,4.3355,11.0841,-9.5758,9.5873,4.2743
2148.4375,4.3056,8.0072,10.3222,7.4007,-1.1171,3.8446,6.2538,3.2723,11.3907,5.6035,10.5996,7.1916,-0.8387,-10.8160,6.1351,11.4146,-6.5773,12.3907,5.6877
2152.3438,6.9761,10.3663,12.4038,7.8878,0.7535,4.8309,6.7091,4.6889,15.3801,8.7484,14.3588,10.9800,2.6740,-7.7955,8.2344,10.9363,-2.3716,15.3560,7.4235
2156.2500,9.2215,12.3292,14.1113,8.7363,2.9014,5.4609,6.7273,6.4631,19.1829,11.7843,17.8572,14.7128,6.4622,-3.7481,10.3816,10.2941,2.2546,18.3319,9.4286
2160.1562,10.5142,13.7352,15.2333,9.9024,4.8217,5.8226,6.6739,8.0790,22.0157,14.0352,20.3015,17.9268,9.9158,0.8316,12.0507,10.3473,6.3783,20.9927,11.4502
2164.0625,10.5642,14.4496,15.6585,11.1085,6.1369,6.0410,7.0053,8.9839,23.2638,14.9669,21.0848,20.2736,12.5778,5.3075,12.7515,11.4755,9.2875,22.9048,13.1484
2167.9688,9.4102,14.3764,15.3846,11.9627,6.7379,6.1541,8.0074,8.8257,22.7713,14.3898,20.1747,21.7091,14.3379,9.0346,12.4152,13.1227,10.7511,23.6875,14.2945
2171.8750,7.4227,13.5324,14.5141,12.1374,6.7366,6.0808,9.5471,7.5918,20.9312,12.5762,18.2257,22.4703,15.4135,11.5125,11.5800,14.0902,11.0647,23.1779,14.9002
2175.7812,5.2122,12.1264,13.2357,11.5086,6.2795,5.7036,11.0048,5.5812,18.5169,10.2254,16.3152,22.8464,16.1372,12.5066,11.2064,13.4960,10.8468,21.5017,15.1653
2179.6875,3.4545,10.5587,11.7842,10.1893,5.3845,5.0014,11.4868,3.2455,16.3447,8.2587,15.4339,22.9220,16.6947,12.0956,12.1838,11.6879,10.6887,19.0174,15.2747
2183.5938,2.6816,9.3040,10.3823,8.4606,3.9495,4.1307,10.2625,1.0111,14.9443,7.4916,16.0089,22.4988,16.9843,10.6198,14.7930,10.2929,10.8425,16.1742,15.2003
2187.5000,3.1115,8.7153,9.1830,6.6555,1.9374,3.3863,7.2156,-0.8139,14.3973,8.2984,17.7137,21.2555,16.6755,8.5414,18.4408,11.1735,11.1060,13.3678,14.6696
2191.4062,4.5806,8.8517,8.2393,5.0604,-0.4110,3.0568,3.0454,-2.0291,14.3942,10.4139,19.6388,19.0128,15.4100,6.2655,21.8365,14.9331,10.9545,10.8552,13.3426
2195.3125,6.6019,9.4266,7.5139,3.8664,-2.5316,3.2561,-0.9404,-2.4908,14.4378,12.9813,20.7071,15.8847,13.0099,4.0005,23.5366,20.0837,9.8408,8.7333,11.0776
2199.2188,8.5201,9.9131,6.9226,3.1594,-3.7481,3.8311,-3.3841,-2.1121,14.0607,14.8601,20.1078,12.2000,9.5766,1.7302,22.5837,23.6258,7.5017,6.9555,8.0932
2203.1250,9.7053,9.7633,6.3879,2.9249,-3.6408,4.4036,-3.5139,-0.9387,12.9603,15.0843,17.5710,8.2815,5.4570,-0.6829,18.9213,22.8045,4.1217,5.3630,4.9070
2207.0312,9.7262,8.6463,5.8805,3.0546,-2.3428,4.5358,-1.5125,0.7593,11.0403,13.2783,13.4198,4.3008,1.1355,-3.3199,13.4028,16.9166,0.2838,3.7438,2.0946
2210.9375,8.4663,6.6054,5.4350,3.3659,-0.5533,3.9451,1.6019,2.4888,8.4107,9.8357,8.4463,0.3594,-2.8691,-6.0662,7.4196,7.9344,-3.2532,1.9367,0.0355
2214.8438,6.1640,4.0732,5.1378,3.6505,0.7668,2.6665,4.5275,3.6841,5.3910,5.7666,3.6879,-3.2687,-6.0727,-8.6084,2.3534,-0.5150,-5.8377,-0.0370,-1.1857
2218.7500,3.3604,1.7341,5.0885,3.7468,0.8589,1.0796,6.3553,3.9550,2.4985,2.2735,0.1555,-5.9816,-8.0868,-10.5781,-0.8974,-5.1614,-7.1459,-1.8876,-1.6882
2222.6562,0.7502,0.2812,5.3423,3.6088,-0.4705,-0.2275,6.9819,3.2904,0.3581,0.2497,-1.4553,-7.0064,-8.7047,-11.7523,-2.1373,-4.8046,-7.2599,-3.1058,-1.6157
2226.5625,-1.0411,0.1520,5.8580,3.3346,-2.7764,-0.7046,7.0263,2.0829,-0.5010,-0.0643,-1.0099,-5.8542,-7.9948,-12.1628,-1.8025,-0.7050,-6.5878,-3.1690,-1.0243
2230.4688,-1.6774,1.3488,6.4854,3.1364,-5.2029,-0.0848,7.3230,0.9472,0.0982,0.8898,0.9669,-2.7787,-6.3276,-12.0237,-0.6807,4.4294,-5.6673,-1.8211,0.0892
2234.3750,-1.2252,3.4244,7.0196,3.2660,-6.8562,1.4952,8.3240,0.4337,1.8214,2.2712,3.4410,1.1386,-4.2658,-11.5101,0.4316,8.0485,-4.9317,0.7370,1.6745
2238.2812,-0.0878,5.6525,7.3087,3.9249,-7.1202,3.5642,9.7887,0.8024,3.8984,3.2781,5.2686,4.4356,-2.3284,-10.5446,1.0012,8.9101,-4.5211,3.8792,3.5536
2242.1875,1.2197,7.3134,7.3553,5.1833,-5.7901,5.5374,10.9481,1.9718,5.4466,3.5090,5.6939,6.0305,-0.7475,-8.7665,0.8772,7.2356,-4.2188,6.8111,5.4635
2246.0938,2.3261,7.9590,7.3290,6.9244,-3.0375,6.9636,11.0169,3.6316,5.8866,3.0704,4.6887,5.8079,0.6210,-5.7516,0.2458,4.0963,-3.5553,8.9047,7.1783
2250.0000,3.1318,7.5295,7.4537,8.8244,0.7004,7.6576,9.7112,5.4103,5.2050,2.3985,2.9298,4.6186,2.1435,-1.3730,-0.5311,0.6888,-2.0586,9.9145,8.5962
2253.9062,3.7275,6.2732,7.8207,10.3953,4.8244,7.6571,7.4385,6.9826,3.8987,1.9219,1.4011,3.6649,4.0862,3.9293,-1.1073,-2.0118,0.4470,9.9590,9.7114
2257.8125,4.1721,4.5424,8.2551,11.1141,8.6621,7.0618,5.0564,8.0867,2.6326,1.7728,0.8409,3.6813,6.3294,9.1803,-1.2906,-3.2341,3.6445,9.3226,10.5037
2261.7188,4.3138,2.6052,8.3579,10.6312,11.5876,5.8965,3.3777,8.5132,1.8361,1.7164,1.3561,4.4774,8.3354,13.2414,-1.0777,-2.3894,6.7651,8.2497,10.8686
2265.6250,3.8209,0.5925,7.7392,8.9833,13.1919,4.1151,2.7447,8.1475,1.5015,1.3317,2.4297,5.1668,9.4307,15.3430,-0.6001,0.6866,8.8944,6.8868,10.6833
2269.5312,2.4336,-1.4110,6.3141,6.6844,13.4434,1.7459,2.9217,7.0728,1.3023,0.3219,3.2933,4.9110,9.2457,15.4732,-0.0377,5.3624,9.4163,5.3834,9.9794
2273.4375,0.2654,-3.2387,4.4547,4.5894,12.7230,-0.9432,3.3226,5.6435,0.9172,-1.2451,3.4098,3.6299,8.0219,14.3827,0.4353,10.1305,8.3602,4.0181,9.0657
2277.3438,-2.0907,-4.6153,2.8543,3.5314,11.6521,-3.4215,3.3839,4.4098,0.3026,-2.9245,2.7536,2.1424,6.5509,13.1764,0.6528,13.1119,6.4310,3.1794,8.4449
2281.2500,-3.7887,-5.2881,2.1384,3.8831,10.7617,-5.0854,2.8319,3.8645,-0.2956,-4.1295,1.7305,1.6059,5.7374,12.7131,0.4409,12.9771,4.6655,3.1572,8.5140
2285.1562,-4.1905,-5.2390,2.4458,5.2870,10.1844,-5.5734,1.7138,4.1310,-0.5899,-4.4749,0.8320,2.6384,6.0364,13.1484,-0.3557,9.7234,3.8820,3.8780,9.2295
2289.0625,-3.2755,-4.8050,3.2576,6.7481,9.5751,-5.0085,0.2475,4.8052,-0.5482,-4.0181,0.2890,4.7553,7.1236,13.8829,-1.7795,4.7607,4.2360,4.8095,9.9963
2292.9688,-1.7083,-4.5736,3.6271,7.0996,8.3521,-3.9857,-1.3455,5.1045,-0.4860,-3.2399,-0.0348,6.5512,8.0360,13.9391,-3.6468,0.2072,5.1541,5.1727,9.9280
2296.8750,-0.4846,-5.0650,2.7217,5.6283,6.1371,-3.2778,-2.8907,4.2961,-0.8512,-2.7629,-0.4588,6.5486,7.7291,12.5511,-5.5116,-2.1764,5.7000,4.3835,8.3739
2300.7812,-0.3525,-6.3790,0.3734,2.5218,3.1245,-3.4134,-4.1949,2.1696,-1.8457,-2.9720,-1.1731,4.1656,5.7257,9.6302,-6.7839,-1.7813,5.1558,2.4560,5.3991
2304.6875,-1.3711,-8.0400,-2.6964,-1.1304,0.1183,-4.3762,-4.9792,-0.7421,-3.1715,-3.7679,-2.0371,0.1632,2.4576,5.8524,-6.9839,0.7213,3.4604,0.0863,1.8906
2308.5938,-2.8890,-9.1791,-5.1489,-3.8191,-1.8325,-5.6114,-4.9311,-3.3635,-4.1214,-4.6157,-2.6366,-3.7349,-0.9203,2.3289,-6.0056,3.8458,1.2294,-1.6774,-0.8249
2312.5000,-3.9573,-8.9857,-5.6849,-4.3496,-2.0133,-6.3426,-3.8929,-4.6165,-3.9911,-4.8695,-2.5521,-5.8176,-3.1461,0.0488,-4.2247,5.9701,-0.6491,-2.0057,-1.6625
2316.4062,-3.9095,-7.1830,-3.7507,-2.4517,-0.4993,-6.0183,-2.0695,-4.0007,-2.5549,-4.1818,-1.6473,-5.3530,-3.5331,-0.6030,-2.3609,5.8760,-1.5805,-0.7620,-0.3755
2320.3125,-2.7394,-4.2443,0.0892,1.0505,1.7983,-4.6298,-0.0854,-1.8809,-0.2783,-2.7407,-0.1818,-2.9646,-2.3238,-0.0091,-1.1466,3.0579,-1.6222,1.4055,2.2804
2324.2188,-1.0508,-1.2030,4.3331,4.5998,3.5482,-2.7194,1.2065,0.6865,1.8907,-1.1801,1.3144,-0.2232,-0.5181,0.9021,-0.9821,-2.1153,-1.4106,3.4068,4.9120
2328.1250,0.3643,0.8544,7.2096,6.6158,3.6562,-1.0768,1.1118,2.4844,3.0359,-0.2049,2.3174,1.2645,0.7015,1.1332,-1.7738,-8.3514,-1.7183,4.2810,6.1808
2332.0312,1.0265,1.3405,7.5152,6.2092,1.8042,-0.2988,-0.5163,2.7280,2.7786,-0.1594,2.5632,0.7138,0.6033,0.1034,-3.0376,-13.6404,-2.9380,3.6672,5.4481
2335.9375,1.0251,0.4548,5.2040,3.5646,-1.4100,-0.4594,-3.1053,1.4031,1.4669,-0.8110,2.1475,-1.5040,-0.7564,-2.0840,-4.1918,-15.8764,-4.8288,1.9313,3.0491
2339.8438,0.8858,-0.9499,1.4288,-0.1704,-4.7827,-1.0734,-5.5348,-0.7985,-0.0496,-1.4926,1.4441,-4.1788,-2.6493,-4.6988,-4.8486,-13.8015,-6.6682,-0.0812,0.0842
2343.7500,1.1649,-1.8463,-2.0052,-3.4184,-7.0640,-1.3746,-6.5957,-2.8677,-0.9048,-1.5231,0.9123,-5.9820,-4.1289,-6.7164,-4.9371,-7.8061,-7.6896,-1.4932,-2.1315
2347.6562,2.0544,-1.5845,-3.5126,-4.8692,-7.4606,-0.7545,-5.5316,-3.9541,-0.6652,-0.6444,0.8992,-6.1555,-4.5354,-7.2584,-4.6154,-0.0017,-7.5092,-1.7949,-2.6699
2351.5625,3.2509,-0.2123,-2.4922,-4.0210,-5.8517,0.8814,-2.4010,-3.6877,0.5009,0.8027,1.5082,-4.8153,-3.7746,-5.9434,-4.0770,6.6718,-6.2862,-1.0133,-1.3647
2355.4688,4.1578,1.5996,0.4055,-1.3346,-2.6810,3.0386,1.9142,-2.2296,1.9869,2.0789,2.5633,-2.7731,-2.2634,-3.0102,-3.4120,9.9004,-4.5532,0.3794,1.1831
2359.3750,4.2692,2.9635,3.6434,2.0440,1.3286,4.8861,6.0607,-0.0967,3.1038,2.4996,3.6639,-1.0399,-0.6335,0.8157,-2.6246,9.1460,-2.8741,1.7237,3.9267
2363.2812,3.4832,3.2587,5.5982,4.8370,5.4386,5.6936,8.7526,2.0979,3.4069,1.8516,4.3111,-0.3147,0.5981,4.6267,-1.7717,5.7477,-1.5666,2.4516,5.8423
2367.1875,2.1509,2.4154,5.3589,6.1834,9.0174,5.2049,9.2457,3.8473,2.8358,0.5129,4.0820,-0.7129,1.2112,7.6619,-1.0857,1.9127,-0.6449,2.2733,6.3228
2371.0938,0.8474,0.8591,3.0993,5.9264,11.5435,3.7364,7.5433,4.8385,1.6417,-0.7961,2.8019,-1.8291,1.2603,9.5225,-0.9490,-0.6952,0.0352,1.2259,5.3398
2375.0000,0.0233,-0.8057,-0.1430,4.5327,12.6043,1.9552,4.2835,4.9544,0.2002,-1.4600,0.6475,-3.0398,0.9244,10.2085,-1.6954,-1.7984,0.5805,-0.3945,3.3426
2378.9062,-0.2418,-2.1389,-3.1007,2.7387,11.9832,0.4906,0.4208,4.2543,-1.1642,-1.3239,-1.8783,-3.8476,0.3597,10.0019,-3.3542,-2.2580,0.9680,-2.1638,0.9915
2382.8125,-0.2414,-3.0119,-4.9128,1.1574,9.8218,-0.3724,-3.1081,2.9708,-2.2587,-0.7380,-4.1114,-4.0775,-0.3516,9.2892,-5.5133,-3.0456,1.1018,-3.6623,-1.1147
2386.7188,-0.4147,-3.4963,-5.3973,0.0631,6.7263,-0.7378,-5.5915,1.5006,-3.0084,-0.2811,-5.4739,-3.8503,-1.1576,8.4133,-7.4268,-4.3139,0.9435,-4.5701,-2.5943
2390.6250,-1.0497,-3.6336,-4.8740,-0.5662,3.6736,-0.8894,-6.6062,0.3340,-3.4018,-0.3677,-5.6960,-3.4020,-1.9692,7.6022,-8.3441,-5.3021,0.5890,-4.7178,-3.2947
2394.5312,-2.1053,-3.3060,-3.7609,-0.8564,1.6707,-1.0145,-6.0230,-0.1065,-3.4567,-1.0010,-4.9117,-2.9002,-2.6516,6.9560,-7.8926,-5.0945,0.2239,-4.1073,-3.2343
2398.4375,-3.2572,-2.3440,-2.2934,-0.8786,1.2945,-1.0778,-4.0393,0.3269,-3.2280,-1.8200,-3.5826,-2.3876,-3.0940,6.4537,-6.2971,-3.5376,-0.0062,-2.9221,-2.5662
2402.3438,-4.1178,-0.7928,-0.5626,-0.6501,2.3583,-0.9293,-1.2300,1.3704,-2.8334,-2.3790,-2.2908,-1.8700,-3.3041,5.9593,-4.2964,-1.5001,-0.1056,-1.5171,-1.5921
2406.2500,-4.4723,0.8995,1.2301,-0.2557,3.9345,-0.5277,1.4938,2.4011,-2.4519,-2.4464,-1.4927,-1.4422,-3.4388,5.2540,-2.7852,-0.2251,-0.2253,-0.3569,-0.7582
2410.1562,-4.3711,1.9880,2.6061,0.0662,4.7853,-0.0639,3.1314,2.7075,-2.2628,-2.1161,-1.3436,-1.3139,-3.7161,4.1318,-2.3627,-0.2996,-0.5412,0.1278,-0.5400
2414.0625,-4.0279,1.8409,2.9729,0.0097,4.0109,0.1536,3.0195,1.8707,-2.3440,-1.6765,-1.6604,-1.6738,-4.2440,2.5533,-3.0283,-1.1161,-1.0960,-0.2586,-1.2004
2417.9688,-3.6136,0.4111,2.0639,-0.5609,1.5659,-0.0216,1.2421,0.0431,-2.5874,-1.3579,-2.0317,-2.4809,-4.8761,0.7786,-4.1895,-1.3083,-1.7156,-1.3151,-2.5436
2421.8750,-3.1129,-1.5768,0.3175,-1.4023,-1.6699,-0.3640,-1.2588,-2.0656,-2.7051,-1.1561,-2.0218,-3.3611,-5.2119,-0.6417,-4.9757,0.1548,-2.0659,-2.4478,-3.8642
2425.7812,-2.3587,-2.9189,-1.1706,-1.9195,-4.3397,-0.3453,-3.0310,-3.5307,-2.3504,-0.8536,-1.3766,-3.7348,-4.7780,-1.0827,-4.6911,3.0968,-1.8260,-2.8997,-4.2141
2429.6875,-1.2192,-2.5815,-1.2096,-1.4778,-5.3446,0.5202,-2.8086,-3.7109,-1.3053,-0.2064,-0.1343,-3.1342,-3.3025,-0.1990,-3.1602,6.2071,-0.8768,-2.1275,-2.8982
2433.5938,0.2126,-0.3180,0.7299,0.1780,-4.4382,2.2907,-0.1986,-2.6057,0.3749,0.8575,1.4137,-1.5011,-0.9129,1.7834,-0.7872,8.0266,0.6076,-0.1183,0.0846
2437.5000,1.5932,3.1493,4.0890,2.6989,-2.3209,4.4736,4.0492,-0.8348,2.3655,2.1760,2.8953,0.7620,1.8870,4.0597,1.6908,8.0679,2.2271,2.5678,3.9627
2441.4062,2.5149,6.5185,7.4709,5.2952,-0.1690,6.2867,8.3721,0.7674,4.2394,3.4612,4.0678,3.0522,4.4705,5.6003,3.6038,7.1692,3.5534,5.0918,7.5760
2445.3125,2.7834,8.6286,9.4538,7.2120,1.1098,7.1334,11.1560,1.6927,5.7013,4.4814,4.9385,4.9588,6.4209,5.7122,4.6686,6.7901,4.3530,6.8035,10.0070
2449.2188,2.5768,9.0503,9.4346,8.1929,1.4203,6.9425,11.4955,2.0776,6.7255,5.1740,5.7099,6.4868,7.7233,4.4767,5.0503,7.8131,4.7073,7.5765,11.0493
2453.1250,2.3426,8.1804,7.9168,8.5903,1.4703,6.1170,9.5322,2.5678,7.4877,5.6110,6.5706,7.9144,8.6678,2.7608,5.1465,9.8092,4.9486,7.7713,11.1890
2457.0312,2.4744,6.8161,6.0393,9.0211,2.2148,5.1367,6.2204,3.8061,8.1207,5.8615,7.4644,9.3686,9.5188,1.7413,5.2456,11.3526,5.4330,7.8372,11.1068
2460.9375,2.9844,5.5377,4.6845,9.8071,4.1284,4.1406,2.7290,5.8836,8.4725,5.8687,8.0045,10.4572,10.1789,2.1962,5.2847,11.1169,6.2688,7.8377,11.0592
2464.8438,3.4139,4.3369,3.8230,10.6172,6.8020,2.8401,-0.1220,8.1468,8.0693,5.4433,7.6248,10.2987,10.1109,3.9966,4.8659,8.8540,7.1652,7.2687,10.6038
2468.7500,3.0743,2.7322,2.5881,10.6069,9.1468,0.8477,-2.0702,9.5235,6.3663,4.3788,5.9041,8.0250,8.6203,6.1371,3.5267,5.4679,7.5149,5.3538,8.9011
2472.6562,1.4827,0.2527,0.0398,8.9943,10.0747,-1.8399,-3.2244,9.1786,3.1554,2.6048,2.8740,3.4584,5.3473,7.3098,1.0931,2.1570,6.6943,1.6558,5.4021
2476.5625,-1.2870,-3.0816,-3.9391,5.6807,9.1925,-4.6201,-3.7165,7.0722,-1.1408,0.2766,-0.8937,-2.5196,0.6422,6.6741,-2.1097,-0.6178,4.4334,-3.4146,0.4311
2480.4688,-4.5708,-6.6338,-8.2982,1.4682,7.0351,-6.5545,-3.4969,4.0404,-5.5232,-2.2472,-4.4949,-8.2318,-4.4571,4.3377,-5.3314,-3.4195,1.0389,-8.5875,-4.7856
2484.3750,-7.4243,-9.4589,-11.3240,-2.3098,4.6785,-6.9710,-2.4230,1.3331,-8.8386,-4.5122,-7.0884,-12.0047,-8.6789,1.2503,-7.7226,-7.0810,-2.6748,-12.2974,-8.7163
2488.2812,-9.0827,-10.8259,-11.6891,-4.5185,3.0106,-5.9535,-0.5406,-0.0965,-10.3404,-6.0951,-8.2483,-13.0208,-11.1419,-1.4069,-8.7265,-11.5151,-5.7316,-13.5019,-10.3739
2492.1875,-9.2914,-10.5980,-9.3294,-4.8340,2.1713,-4.3263,1.7023,-0.0944,-10.0434,-6.7062,-8.0745,-11.6800,-11.7588,-2.9236,-8.3123,-15.1442,-7.4355,-12.2418,-9.8572
2496.0938,-8.3363,-9.2468,-5.5390,-3.8391,1.5529,-3.1146,3.5179,0.7096,-8.6502,-6.2591,-7.0222,-9.2439,-11.1651,-3.3985,-6.9258,-15.5933,-7.6623,-9.5797,-8.2216
2500.0000,-6.8026,-7.5322,-2.1957,-2.5608,0.3458,-2.8651,4.1225,1.3920,-7.0968,-4.9126,-5.5887,-7.0194,-10.2300,-3.5200,-5.2057,-11.3117,-6.8465,-6.9543,-6.7751
2503.9062,-5.2487,-6.0862,-0.6243,-1.7809,-1.7719,-3.3303,3.1581,1.3498,-6.0095,-3.0653,-4.0698,-5.6379,-9.4892,-3.9847,-3.6465,-2.9861,-5.6899,-5.3635,-6.2741
2507.8125,-3.9902,-5.1509,-0.8408,-1.5827,-4.3056,-3.7427,0.9271,0.6361,-5.4109,-1.2621,-2.5209,-4.8848,-8.8804,-4.9794,-2.4042,6.3648,-4.7827,-4.8814,-6.5427
2511.7188,-3.0698,-4.5705,-1.6482,-1.4067,-6.2129,-3.4524,-1.7056,-0.1687,-4.8293,0.0044,-0.8965,-4.1191,-7.9375,-6.0833,-1.3347,12.8511,-4.3611,-4.7738,-6.7245
2515.6250,-2.3508,-3.9656,-1.4791,-0.5254,-6.5773,-2.4171,-3.6836,-0.4055,-3.6948,0.5334,0.7824,-2.9030,-6.2686,-6.6264,-0.2019,13.8670,-4.3167,-4.0741,-5.9413
2519.5312,-1.6248,-2.9404,0.5961,1.4210,-5.2092,-1.1596,-4.1879,0.2297,-1.7299,0.5625,2.3810,-1.3468,-3.9475,-6.2158,1.1054,9.5610,-4.3974,-2.2101,-3.8841
2523.4375,-0.6723,-1.2280,4.3421,4.1843,-2.7595,-0.2404,-2.9081,1.5515,0.9158,0.6927,3.7551,0.0623,-1.5231,-5.0386,2.4951,2.6820,-4.4269,0.7087,-0.9572
2527.3438,0.6980,1.2332,8.5948,7.0803,-0.2910,0.3044,-0.0620,3.0859,3.8262,1.5767,4.8997,0.9550,0.3492,-3.7378,3.7641,-3.0566,-4.3885,4.0604,2.0561
2531.2500,2.5782,4.2572,12.0260,9.3999,1.3630,1.0702,3.7732,4.4051,6.6031,3.5163,5.9946,1.4572,1.3663,-2.9753,4.7687,-5.0162,-4.3469,7.1396,4.5089
2535.1562,4.8576,7.4058,13.8966,10.7584,1.9985,2.8038,7.8734,5.3366,9.0409,6.2068,7.2765,2.1194,1.7699,-3.0143,5.5298,-2.8270,-4.3085,9.5191,6.2083
2539.0625,7.1633,10.0709,14.3275,11.1771,1.9511,5.6908,11.5140,5.9251,11.0801,8.8085,8.8113,3.4450,2.1234,-3.6128,6.1796,1.8389,-4.1611,11.1293,7.3487
2542.9688,8.9300,11.6731,13.9965,10.9125,1.6550,8.9797,14.0414,6.2374,12.6224,10.3359,10.3352,5.4004,2.8420,-4.2700,6.7850,6.5282,-3.7502,12.0807,8.1809
2546.8750,9.6103,11.9116,13.5486,10.2154,1.2368,11.2859,14.9375,6.2149,13.3990,10.1503,11.2975,7.3158,3.8390,-4.6016,7.1824,9.3414,-3.0257,12.4297,8.7161
2550.7812,8.9194,10.9178,13.1521,9.2063,0.4788,11.4056,13.9411,5.7096,13.0318,8.2679,11.1109,8.2842,4.5648,-4.5489,6.9670,9.5530,-2.1264,12.0853,8.6989
2554.6875,6.9666,9.1820,12.4751,7.9214,-0.8335,9.0742,11.2031,4.6682,11.2602,5.3049,9.4632,7.7735,4.4262,-4.2777,5.6837,7.3953,-1.3159,10.9038,7.8532
2558.5938,4.1846,7.2668,11.0351,6.4384,-2.4873,5.1294,7.3661,3.2906,8.1668,2.1119,6.5038,5.9932,3.2791,-3.8841,3.1239,3.4959,-0.8025,8.8620,6.1885
2562.5000,1.1139,5.4827,8.6401,4.9486,-3.7268,0.9751,3.4486,2.0047,4.2315,-0.6622,2.7906,3.7395,1.6296,-3.1732,-0.4514,-1.4434,-0.5747,6.1576,4.1193
2566.4062,-1.8081,3.7612,5.6128,3.7075,-3.6039,-2.2493,0.5095,1.2455,0.1682,-2.8048,-0.9611,1.8387,0.3794,-1.7183,-4.3181,-6.5403,-0.3834,3.1675,2.2984
2570.3125,-4.3173,1.8308,2.6720,2.9132,-1.5903,-4.2002,-0.7787,1.1877,-3.3458,-4.4607,-4.1719,0.6073,0.2791,0.8215,-7.5474,-10.5179,0.1035,0.3142,1.2781
2574.2188,-6.2435,-0.4197,0.5744,2.6073,1.9742,-5.2262,-0.4220,1.6258,-5.8786,-5.8398,-6.5655,-0.2739,1.4557,4.3517,-9.3932,-11.8565,1.0720,-2.0553,1.2255
2578.1250,-7.3960,-2.6719,-0.2499,2.6674,5.9336,-5.8030,0.9242,2.0950,-7.2882,-6.9498,-8.1423,-1.4007,3.3242,8.2267,-9.6013,-9.4626,2.4092,-3.7175,1.8675
2582.0312,-7.5570,-4.2371,0.1335,2.8764,8.8675,-6.0168,2.3168,2.1527,-7.6351,-7.5478,-9.0210,-3.0948,4.9257,11.4693,-8.4846,-3.4842,3.7267,-4.5690,2.6769
2585.9375,-6.6169,-4.4509,1.2480,3.0112,9.8104,-5.5319,3.0229,1.6355,-7.0749,-7.3309,-9.2847,-5.0898,5.4567,13.1990,-6.7352,4.3625,4.5392,-4.6276,3.1624
2589.8438,-4.7514,-3.1484,2.4655,2.9026,8.6963,-4.0436,2.8606,0.7288,-5.8225,-6.2094,-8.9399,-6.6791,4.6546,13.0099,-5.0893,11.3536,4.4855,-4.0566,3.0905
2593.7500,-2.4708,-0.8779,3.2906,2.4684,6.2895,-1.7998,2.1800,-0.1759,-4.1745,-4.4502,-7.9935,-7.1946,2.8439,11.0906,-4.0184,15.0103,3.4739,-3.1616,2.5423
2597.6562,-0.4540,1.3371,3.5477,1.7428,3.6948,0.3063,1.5202,-0.7235,-2.5018,-2.5792,-6.5586,-6.4375,0.6887,8.0628,-3.5843,14.3347,1.6965,-2.2965,1.8227
2601.5625,0.7630,2.5668,3.4125,0.9038,1.7881,1.2252,1.1933,-0.7806,-1.1440,-1.1035,-4.8783,-4.7442,-1.1346,4.6813,-3.4893,10.2694,-0.4526,-1.6818,1.3117
2605.4688,1.0517,2.5210,3.3011,0.2590,0.8987,0.4923,1.0952,-0.4691,-0.2364,-0.2401,-3.2246,-2.6676,-2.1401,1.5819,-3.2623,5.0949,-2.4927,-1.2396,1.3354
2609.3750,0.7332,1.7137,3.6658,0.1465,0.8527,-1.3498,0.8674,-0.0682,0.4015,0.1707,-1.7403,-0.5524,-2.0664,-0.8250,-2.4812,1.1439,-3.9632,-0.5849,2.0850
2613.2812,0.3658,1.1327,4.7733,0.7614,1.2360,-3.0160,0.2690,0.1232,1.1939,0.5200,-0.3473,1.6481,-0.8387,-2.3484,-0.9512,-0.3758,-4.5259,0.7655,3.5652
2617.1875,0.4171,1.6173,6.5436,1.9952,1.6338,-3.2968,-0.5476,-0.1204,2.5478,1.1560,1.1815,4.1797,1.4183,-2.9895,1.2054,0.2297,-4.0713,3.0566,5.5596
2621.0938,1.0218,3.3315,8.5227,3.4057,1.7024,-1.8706,-1.0924,-0.9231,4.5466,2.1634,3.0114,7.0894,4.3029,-2.9452,3.5657,1.6791,-2.8048,6.0405,7.6292
2625.0000,1.9618,5.6535,10.0202,4.3727,1.1171,0.4665,-0.8967,-2.3058,6.8047,3.3331,5.0301,9.9592,7.1029,-2.6074,5.5362,2.7321,-1.2443,8.9900,9.1838
2628.9062,2.8490,7.5334,10.3766,4.3828,-0.4451,2.3295,0.1041,-4.1722,8.6110,4.3259,6.7985,12.0093,8.9373,-2.4831,6.5764,2.9768,-0.0689,11.0112,9.6446
2632.8125,3.3700,8.0908,9.2561,3.2856,-3.1754,2.6711,1.4780,-6.2827,9.3040,4.9120,7.7423,12.5218,9.0854,-3.0086,6.4485,2.9043,0.1595,11.4923,8.6632
2636.7188,3.4411,7.0968,6.8293,1.3729,-6.9073,1.4745,2.5906,-8.2607,8.6606,5.1217,7.4968,11.2927,7.3539,-4.3276,5.3747,3.3004,-0.7154,10.4251,6.3104
2640.6250,3.2018,5.0753,3.7449,-0.7702,-10.9747,-0.2536,3.0652,-9.6733,7.0537,5.2051,6.1887,8.7967,4.2516,-6.1663,3.9860,4.4443,-2.3157,8.4029,3.1341
2644.5312,2.8830,2.9889,0.8833,-2.5499,-14.3272,-1.1656,3.0370,-10.1779,5.2613,5.4221,4.4428,5.9467,0.8271,-7.9027,3.0364,5.7090,-3.8639,6.2943,0.0234
2648.4375,2.6423,1.7023,-1.0077,-3.6218,-15.9139,-0.4654,2.9714,-9.6702,4.0251,5.7968,3.0607,3.6091,-1.7815,-8.8191,2.9966,5.8670,-4.5460,4.7801,-2.0946
2652.3438,2.4519,1.5140,-1.6343,-3.9854,-15.1567,1.5690,3.1699,-8.3459,3.6116,5.9997,2.5343,2.1801,-2.8543,-8.4134,3.7491,3.9202,-3.9235,4.0181,-2.6183
2656.2500,2.0828,1.9952,-1.2791,-3.8913,-12.2458,3.7369,3.3643,-6.6300,3.6374,5.4572,2.6972,1.4659,-2.3832,-6.6102,4.5933,-0.0819,-2.1680,3.6137,-1.5371
2660.1562,1.1904,2.2127,-0.6594,-3.6415,-8.0720,4.6022,2.7774,-4.9940,3.2733,3.6583,2.7645,0.9013,-1.0049,-3.7751,4.6048,-4.7883,0.0169,2.8976,0.5390
2664.0625,-0.5151,1.2309,-0.5700,-3.4072,-3.8179,3.2788,0.6911,-3.7474,1.7330,0.5048,1.7895,-0.0578,0.3748,-0.5435,3.1786,-8.0734,1.7532,1.3483,2.6307
2667.9688,-3.0607,-1.3425,-1.4634,-3.1486,-0.4224,-0.1232,-2.8477,-2.9075,-1.2143,-3.4921,-0.7025,-1.5957,1.0515,2.4373,0.4479,-8.0855,2.4355,-1.0657,3.8339
2671.8750,-6.0550,-5.0315,-3.1636,-2.6536,1.7954,-4.5679,-6.7140,-2.2110,-4.9860,-7.3057,-4.2834,-3.4137,0.8480,4.7302,-2.6836,-4.2390,2.0289,-3.7970,3.7556
2675.7812,-8.6955,-8.5736,-4.8688,-1.6560,3.1623,-8.5639,-9.0893,-1.2684,-8.3417,-9.7666,-7.6818,-4.8493,0.1484,6.2130,-4.9422,2.4149,1.0622,-5.9279,2.7144
2679.6875,-10.0117,-10.4212,-5.4850,0.0150,4.3337,-10.7560,-8.3796,0.2075,-9.9078,-10.0535,-9.3517,-5.1685,-0.3515,7.0412,-5.3106,9.6501,0.3259,-6.5854,1.5738
2683.5938,-9.2914,-9.4689,-4.1790,2.3019,5.8210,-10.3909,-4.1286,2.2045,-8.8379,-8.0642,-8.2643,-3.9160,-0.0439,7.4985,-3.5403,15.1040,0.4375,-5.3839,1.2603
2687.5000,-6.4989,-5.6684,-0.9045,4.8432,7.6299,-7.5324,2.6298,4.3437,-5.2947,-4.4785,-4.4987,-1.2003,1.2328,7.8021,-0.2802,17.3180,1.4992,-2.6933,2.2072
2691.4062,-2.4313,-0.1982,3.3816,7.0095,9.2073,-3.0134,9.7802,5.9941,-0.4986,-0.4791,0.6934,2.2115,3.0482,7.9473,3.2240,16.2341,3.0262,0.4132,4.0351
2695.3125,1.5361,4.9580,6.9970,8.0847,9.7306,1.8424,15.0424,6.5383,3.7194,2.7341,5.3977,5.0832,4.5321,7.6777,5.6776,12.9448,4.1826,2.5547,5.6833
2699.2188,4.0446,7.8740,8.2599,7.5671,8.5884,5.6649,16.8831,5.6853,5.6949,4.4012,7.8685,6.1848,4.7854,6.6248,6.2480,8.9344,4.2130,2.6520,5.9679
2703.1250,4.3902,7.5781,6.3612,5.4781,5.7984,7.5294,14.9996,3.6783,4.6918,4.4278,7.2831,4.8978,3.3814,4.5743,4.8231,5.3146,2.8575,0.4919,4.2891
2707.0312,2.8544,4.5248,1.9346,2.5049,2.1288,7.3118,10.2608,1.2762,1.2817,3.3087,4.0748,1.6556,0.7109,1.7268,1.9662,2.4927,0.5412,-3.0401,1.0983
2710.9375,0.5311,0.3766,-3.0429,-0.1561,-1.1652,5.7181,4.2729,-0.5170,-2.8685,1.8322,-0.2774,-2.0757,-2.0436,-1.2194,-1.3424,0.3722,-1.7672,-6.2280,-2.1688
2714.8438,-1.2547,-2.8061,-6.0766,-1.2499,-2.8791,3.9240,-1.1748,-0.8743,-5.7330,0.7361,-3.8817,-4.3733,-3.3619,-3.2682,-4.0379,-1.1785,-2.9734,-7.2365,-3.7058
2718.7500,-1.6057,-3.5532,-5.3578,-0.0260,-2.4112,2.9726,-4.6157,0.4770,-5.8520,0.4677,-5.1993,-3.7692,-2.0961,-3.5539,-5.2748,-1.9979,-2.3562,-4.9614,-2.2125
2722.6562,-0.4281,-1.6402,-0.7364,3.3664,-0.0460,3.2466,-5.2958,3.1102,-3.0013,1.1110,-3.6305,-0.0330,1.9081,-1.7897,-4.6534,-1.6960,0.0928,0.3900,2.4117
2726.5625,1.6482,1.9101,6.0906,7.8775,3.1794,4.3193,-3.3866,6.0740,1.7272,2.4475,0.2946,5.6292,7.6248,1.5222,-2.3380,-0.0304,3.6549,7.3029,8.9231
2730.4688,3.6977,5.4389,12.3429,11.9831,5.9610,5.2783,0.0848,8.3060,6.4698,4.0773,5.1739,11.1152,13.2323,5.2643,0.9749,2.7368,7.1958,13.5727,15.2244
2734.3750,4.9882,7.5125,15.5114,14.3367,7.3115,5.3207,3.6608,9.0843,9.4785,5.5409,9.3195,14.4327,16.8970,8.1893,4.2669,5.8161,9.6404,17.2500,19.2553
2738.2812,5.2586,7.5697,14.5878,14.3247,6.9482,4.2462,6.1200,8.2951,9.8972,6.4301,11.4300,14.6212,17.5530,9.4619,6.5525,8.2516,10.3734,17.4467,19.8437
2742.1875,4.6927,6.0465,10.4927,12.2490,5.3061,2.5449,7.0508,6.4005,8.0454,6.4899,11.0682,12.0850,15.2703,8.9656,7.2492,9.4139,9.3886,14.6128,17.1125
2746.0938,3.6931,3.9844,5.4667,9.0685,3.2142,1.0454,6.9543,4.1502,5.1065,5.7030,8.7470,8.1942,11.0488,7.2315,6.3886,9.2688,7.1575,10.1754,12.2757
2750.0000,2.6416,2.3971,1.7839,5.8652,1.4472,0.3741,6.7521,2.2143,2.4343,4.3150,5.5967,4.4439,6.2012,5.0667,4.5495,8.2419,4.3356,5.7703,6.9686
2753.9062,1.7762,1.7626,0.5347,3.3351,0.4061,0.5834,7.0006,0.9328,0.8796,2.7612,2.7887,1.6987,1.7129,3.1260,2.5430,6.8158,1.4852,2.4935,2.4820
2757.8125,1.1873,1.8861,1.1730,1.5642,0.0687,1.1693,7.3794,0.2907,0.4874,1.4991,1.0124,-0.0608,-2.0667,1.6646,1.0227,5.2030,-1.0596,0.5521,-0.7110
2761.7188,0.8557,2.1477,2.0501,0.1719,0.1718,1.4300,6.8845,0.0846,0.6750,0.8135,0.2706,-1.4218,-5.2900,0.5648,0.2389,3.3636,-3.1752,-0.5615,-2.9327
2765.6250,0.6722,1.9441,1.5645,-1.3023,0.4581,0.9036,4.6461,0.1398,0.7259,0.6978,0.0778,-2.9483,-8.2106,-0.4498,0.0576,1.3367,-4.8563,-1.5511,-4.8589
2769.5312,0.4483,1.0601,-0.7954,-3.0189,0.8150,-0.3899,0.7852,0.4275,0.2742,0.8877,-0.0916,-4.7312,-10.8359,-1.5906,0.1939,-0.4349,-6.1407,-2.8022,-6.9550
2773.4375,-0.0241,-0.2170,-4.1417,-4.6887,1.2392,-2.0142,-3.3772,1.0181,-0.4958,1.0369,-0.3964,-6.3441,-12.8667,-2.9079,0.4783,-1.1448,-7.0887,-4.1731,-9.1340
2777.3438,-0.8457,-1.2722,-6.7593,-5.7296,1.6918,-3.3902,-6.0021,1.9257,-1.0136,0.9382,-0.5204,-7.1655,-13.9263,-4.3385,0.9723,-0.1125,-7.7897,-5.1695,-10.8239
2781.2500,-1.8756,-1.5060,-7.1681,-5.6260,1.9834,-4.0766,-5.8745,2.9758,-0.7080,0.6587,0.0798,-6.7999,-13.8768,-5.8101,1.8710,2.5749,-8.3494,-5.3362,-11.3786
2785.1562,-2.7050,-0.6566,-5.0114,-4.2692,1.7939,-3.9038,-3.1855,3.8146,0.6360,0.5030,1.7462,-5.3131,-12.9737,-7.2987,3.2839,5.7663,-8.8458,-4.5827,-10.5516
2789.0625,-2.8117,1.0595,-1.2517,-2.0747,0.8352,-2.9457,0.6362,4.0819,2.7514,0.8220,4.2968,-3.1668,-11.7436,-8.7949,5.0621,7.6314,-9.2845,-3.2347,-8.7194
2792.9688,-1.8455,3.0504,2.4007,0.2030,-0.9353,-1.4189,3.9324,3.6495,5.0349,1.7785,7.0238,-0.9500,-10.6749,-10.2167,6.7976,6.6158,-9.5967,-1.8021,-6.6975
2796.8750,0.1143,4.6329,4.4436,1.8542,-3.1842,0.3986,5.9062,2.7688,6.8495,3.2121,9.0202,0.8906,-9.9344,-11.3453,7.9951,2.4301,-9.6844,-0.6466,-5.2538
2800.7812,2.5066,5.3501,4.3545,2.5775,-5.2492,2.2027,6.9721,2.0038,7.7999,4.6875,9.6355,2.1675,-9.2977,-11.8400,8.3069,-3.5587,-9.4780,0.2158,-4.6278
2804.6875,4.5032,5.1631,2.7636,2.6052,-6.3720,3.6918,8.1170,1.9512,7.8446,5.7034,8.7946,2.8993,-8.3329,-11.3417,7.6909,-8.8463,-8.9551,1.0468,-4.3726
2808.5938,5.3961,4.4213,0.9893,2.5104,-6.0292,4.6250,9.8136,2.8865,7.2244,5.9444,7.0054,3.1797,-6.7130,-9.6297,6.4158,-10.9841,-8.1171,2.1168,-3.6438
2812.5000,4.9433,3.6340,0.2515,2.8074,-4.2119,4.8960,11.3938,4.5433,6.2882,5.4329,5.0730,3.0785,-4.4607,-6.7700,4.9281,-8.7960,-6.9602,3.4359,-1.7743
2816.4062,3.4798,3.1751,1.0151,3.5921,-1.5057,4.5692,11.4392,6.1809,5.3300,4.4965,3.6964,2.6259,-1.9802,-3.1878,3.6645,-2.9472,-5.4913,4.6873,1.2223
2820.3125,1.7361,3.0913,2.7978,4.4572,1.1059,3.8452,8.9291,6.9407,4.5151,3.5758,3.1692,1.8629,0.1401,0.3959,2.8982,4.4226,-3.7895,5.4194,4.5524
2824.2188,0.4698,3.1254,4.5030,4.7582,2.6688,2.9765,4.2581,6.3191,3.8999,2.9878,3.3197,0.9059,1.4437,3.1875,2.6694,10.7520,-2.0482,5.3705,7.0424
2828.1250,0.1168,2.9384,5.0677,4.0807,2.7344,2.1997,-0.7086,4.4940,3.4966,2.7801,3.6855,-0.0129,1.8705,4.6493,2.8083,14.1983,-0.5245,4.7045,7.8215
2832.0312,0.6405,2.3879,4.0780,2.6218,1.6424,1.7202,-3.6544,2.3065,3.3223,2.7552,3.8043,-0.5512,1.8279,4.7948,3.0282,14.2870,0.6139,3.9845,6.8787
2835.9375,1.6342,1.6799,2.0403,1.2216,0.4219,1.7241,-3.1988,0.8776,3.3996,2.6346,3.4633,-0.3182,2.0230,4.2663,3.0541,11.8412,1.4509,3.8859,5.1469
2839.8438,2.5923,1.2837,0.1737,0.9879,0.3078,2.3504,0.3360,1.0537,3.7194,2.2540,2.7915,1.0000,3.1227,4.0846,2.7450,8.3732,2.3480,4.8155,4.0369
2843.7500,3.1843,1.6495,-0.1858,2.7046,2.0910,3.5916,5.2905,2.9775,4.2025,1.6678,2.1691,3.4774,5.3968,5.1327,2.1608,5.3525,3.7567,6.6681,4.6738
2847.6562,3.3870,2.8962,1.7151,6.3584,5.6497,5.1834,9.8228,6.0195,4.6953,1.1064,2.0096,6.8137,8.5219,7.6278,1.5362,3.7102,5.8927,8.8635,7.2713
2851.5625,3.4247,4.6678,5.5916,11.0621,9.9449,6.6006,12.9519,9.1023,5.0151,0.8241,2.5285,10.3273,11.6603,10.8992,1.1603,3.6973,8.4768,10.6331,10.9970
2855.4688,3.5763,6.2558,10.1610,15.4269,13.5148,7.2337,14.7473,11.2254,5.0248,0.9439,3.6130,13.1353,13.8008,13.6543,1.2125,4.9924,10.7492,11.3818,14.3986
2859.3750,3.9768,6.9274,13.6914,18.1729,15.2038,6.6884,15.6578,11.8944,4.6984,1.3961,4.8604,14.4766,14.2088,14.6277,1.6419,6.8850,11.8000,10.9273,16.1408
2863.2812,4.5306,6.2812,14.8073,18.6462,14.7109,5.0280,15.6691,11.2302,4.1384,1.9804,5.7679,14.0289,12.7610,13.2529,2.1711,8.4576,11.0491,9.5103,15.6394
2867.1875,4.9820,4.4380,13.1455,16.9854,12.6396,2.7810,14.0845,9.7399,3.5293,2.5016,5.9803,12.0391,9.9863,9.9533,2.4405,8.8079,8.5848,7.6198,13.2627
2871.0938,5.0957,1.9833,9.5149,13.9031,10.0396,0.6831,10.1635,7.9376,3.0504,2.8871,5.4657,9.1823,6.7917,5.8696,2.2298,7.3700,5.1459,5.7669,10.0358
2875.0000,4.8330,-0.2870,5.4735,10.2713,7.7474,-0.6882,4.0900,6.0726,2.7953,3.2171,4.5287,6.2283,4.0266,2.2005,1.6346,4.2697,1.7562,4.3332,7.0647
2878.9062,4.4118,-1.6750,2.5559,6.7743,5.9557,-1.1463,-2.5862,4.1274,2.7477,3.6590,3.6561,3.7175,2.1332,-0.4192,1.0830,0.5010,-0.7609,3.5307,5.0217
2882.8125,4.2064,-1.8097,1.5728,3.7996,4.2758,-0.8534,-7.5220,2.0459,2.8249,4.3549,3.2807,1.8342,1.0704,-2.1082,1.1535,-2.3079,-2.0918,3.4246,3.9560
2886.7188,4.5362,-0.7323,2.3465,1.5479,2.2215,-0.0774,-8.8690,-0.0093,2.9549,5.3223,3.5854,0.5213,0.5245,-3.4077,2.2588,-2.5787,-2.4078,3.9463,3.4724
2890.6250,5.4610,1.1460,3.9787,0.2004,-0.2430,1.0261,-6.3948,-1.5802,3.1250,6.4108,4.4335,-0.2971,0.2376,-4.6961,4.3477,0.3538,-2.0806,4.8773,3.1081
2894.5312,6.7035,3.1727,5.4395,-0.0221,-2.4837,2.4141,-1.6374,-2.0935,3.3567,7.3218,5.4349,-0.5804,0.2237,-5.7861,6.7924,5.6896,-1.3715,5.8510,2.6604
2898.4375,7.7493,4.6395,6.1148,1.0419,-3.4687,3.9520,3.0276,-1.1808,3.6227,7.6828,6.0964,-0.2341,0.7354,-5.9927,8.5601,11.3425,-0.3109,6.4376,2.2911
2902.3438,8.0755,5.0058,6.0236,3.3312,-2.3588,5.2245,5.7698,1.0777,3.7757,7.1655,5.9877,0.7012,2.0262,-4.6169,8.6359,14.8892,1.1863,6.3218,2.3982
2906.2500,7.3915,4.1155,5.6551,6.4792,0.9681,5.6039,6.2162,4.1540,3.5703,5.6261,4.8821,1.9230,4.0952,-1.4890,6.5237,14.8383,3.1066,5.4922,3.3764
2910.1562,5.7689,2.3163,5.5985,9.8977,5.7862,4.6155,5.3561,7.3153,2.8003,3.2242,2.8518,2.9525,6.6056,2.8185,2.5769,11.4904,5.2188,4.3127,5.4147
2914.0625,3.6052,0.3807,6.2111,12.9840,10.8498,2.3660,4.6244,9.9473,1.4792,0.4489,0.2996,3.4080,9.0340,7.2551,-2.0436,6.8247,7.1495,3.3942,8.4197
2917.9688,1.4501,-0.7988,7.4828,15.3199,14.9541,-0.3226,4.8729,11.7522,-0.0662,-2.0058,-2.1144,3.2686,10.9427,10.8454,-5.8191,3.3966,8.5845,3.2984,12.0499
2921.8750,-0.2134,-0.6333,9.0985,16.7401,17.3890,-2.2616,5.9162,12.7207,-1.2912,-3.5083,-3.6793,2.9065,12.1835,13.1493,-7.5507,2.8566,9.4336,4.2290,15.8010
2925.7812,-1.1378,0.8356,10.5985,17.2510,18.0542,-2.5681,6.8473,12.9439,-1.7035,-3.7930,-3.9373,2.8228,12.8975,14.3384,-6.9356,4.9844,9.8328,5.8884,19.0876
2929.6875,-1.3709,2.9127,11.5364,16.8866,17.2520,-1.2278,6.7726,12.4392,-1.1676,-3.1323,-2.9583,3.2519,13.3216,14.8799,-4.7322,7.8554,9.9895,7.5951,21.3196
2933.5938,-1.2054,4.5781,11.5953,15.6235,15.3649,0.8598,5.4043,11.1356,-0.0498,-2.2488,-1.4151,3.9198,13.5462,15.0908,-2.4021,9.0572,9.9975,8.6034,21.9933
2937.5000,-1.0508,5.0061,10.6650,13.4235,12.6521,2.4212,3.1588,9.0255,0.9130,-1.9725,-0.3559,4.1576,13.3909,14.8890,-1.3994,7.2013,9.7564,8.4451,20.8095
2941.4062,-1.2746,3.9754,8.8754,10.3633,9.2673,2.5916,0.8174,6.3474,0.9736,-2.8122,-0.7315,3.3226,12.4816,13.9010,-2.4772,2.7641,9.0465,7.1074,17.7823
2945.3125,-2.0611,1.9300,6.5565,6.7463,5.4231,1.4164,-0.9246,3.6315,-0.2336,-4.6809,-2.9059,1.2550,10.4787,11.8228,-5.3723,-2.2738,7.6915,4.9649,13.2850
2949.2188,-3.3308,-0.3369,4.1114,3.0971,1.5341,-0.2606,-1.7178,1.5320,-2.4935,-6.9446,-6.4213,-1.5459,7.3211,8.7597,-9.0118,-5.7376,5.6946,2.5350,7.9905
2953.1250,-4.7587,-2.1638,1.8523,0.0206,-1.7912,-1.4254,-1.5537,0.5285,-5.1209,-8.7740,-10.1745,-4.1598,3.3495,5.3071,-12.0955,-6.6372,3.2727,0.2239,2.7216
2957.0312,-5.9007,-3.3579,-0.0963,-2.0037,-3.9237,-1.5832,-0.6241,0.6824,-7.3089,-9.5966,-12.9273,-5.7533,-0.7503,2.3194,-13.7113,-5.7053,0.7887,-1.7905,-1.7350
2960.9375,-6.3945,-4.1915,-1.7467,-2.7855,-4.4570,-1.0377,0.7913,1.6051,-8.5122,-9.3863,-13.8840,-6.0317,-4.1564,0.5216,-13.6720,-4.7641,-1.3607,-3.4982,-4.7844
2964.8438,-6.1473,-5.0976,-3.0804,-2.4619,-3.3884,-0.6001,2.3572,2.6651,-8.6529,-8.6308,-13.0266,-5.3557,-6.1799,0.1996,-12.4568,-5.3906,-2.8467,-4.9037,-6.1164
2968.7500,-5.4098,-6.3054,-3.9105,-1.4014,-1.1435,-0.9777,3.6944,3.3126,-8.0628,-8.0163,-11.0495,-4.4659,-6.4883,1.1353,-10.8766,-7.8052,-3.4782,-5.9127,-5.7360
2972.6562,-4.6738,-7.6690,-3.9275,-0.0264,1.5753,-2.2939,4.4410,3.3378,-7.2337,-8.0286,-8.9582,-4.0141,-5.1981,2.7979,-9.6926,-10.7235,-3.2382,-6.3453,-3.9432
2976.5625,-4.4252,-8.7846,-2.9433,1.3578,4.0592,-4.0470,4.3558,2.9313,-6.5405,-8.6991,-7.5678,-4.1994,-2.8021,4.6578,-9.3634,-12.2259,-2.2798,-6.0563,-1.2651
2980.4688,-4.8714,-9.2738,-1.1638,2.6539,5.8752,-5.4768,3.3948,2.5391,-6.0849,-9.6122,-7.1551,-4.7119,0.0427,6.4404,-9.9580,-11.0113,-0.8674,-5.0618,1.6675
2984.3750,-5.7961,-9.0108,0.7604,3.9427,7.0233,-6.0261,1.7132,2.6048,-5.7069,-10.1341,-7.4005,-4.9783,2.7686,8.1848,-11.1721,-7.1856,0.7259,-3.5722,4.2853
2988.2812,-6.6379,-8.1399,2.0264,5.3450,7.8660,-5.5789,-0.3824,3.3300,-5.1165,-9.7155,-7.5954,-4.5222,5.0627,10.0771,-12.3968,-2.1148,2.3105,-1.9049,6.2291
2992.1875,-6.7662,-6.9114,2.1731,6.8390,8.8215,-4.3805,-2.4743,4.5458,-4.0545,-8.1204,-6.9877,-3.2265,6.8501,12.1505,-12.8554,2.4619,3.7858,-0.3401,7.4027
2996.0938,-5.8125,-5.4979,1.4336,8.1326,9.9585,-2.7982,-4.0550,5.7342,-2.4169,-5.5057,-5.1165,-1.3792,8.1061,14.0277,-11.8555,5.3945,5.0324,0.9795,7.8883
3000.0000,-3.8750,-3.9433,0.6427,8.6914,10.7414,-1.1543,-4.5936,6.1935,-0.3133,-2.3557,-2.0243,0.4713,8.6366,14.8868,-9.1245,6.5393,5.7668,2.0448,7.7703
3003.9062,-1.4793,-2.2606,0.6979,7.9557,10.1559,0.2794,-3.7176,5.3094,1.9451,0.6828,1.7163,1.7498,8.0193,13.7443,-5.0720,6.4719,5.5086,2.8963,6.9965
3007.8125,0.6876,-0.5565,1.9135,5.6795,7.2517,1.2306,-1.4717,2.8623,3.9330,3.0146,5.1853,2.0703,5.8157,9.9736,-0.7694,5.8420,3.7673,3.5434,5.4030
3011.7188,2.1252,0.9637,3.7413,2.2130,1.8548,1.4843,1.5188,-0.7518,5.2712,4.3092,7.4699,1.3846,1.9706,3.8038,2.4523,4.9011,0.4012,3.9608,2.9246
3015.6250,2.7592,2.1388,5.1090,-1.4634,-4.9898,1.0802,4.1721,-4.5209,5.8146,4.6419,8.0794,0.0371,-2.8615,-3.5178,3.6417,3.4973,-4.0748,4.1640,-0.1411
3019.5312,2.9461,3.0276,5.1904,-4.0477,-11.2162,0.4807,5.4052,-7.1184,5.7771,4.4907,7.2325,-1.2935,-7.3470,-10.0875,2.7635,1.4326,-8.4940,4.2915,-3.0304
3023.4375,3.2472,3.9450,4.0793,-4.4727,-14.6021,0.4842,4.7140,-7.4394,5.6935,4.5491,5.8420,-1.7897,-9.9549,-14.1299,0.7849,-1.1769,-11.4550,4.6033,-4.7186
3027.3438,4.1011,5.2843,2.8570,-2.4402,-13.8940,1.8196,2.5253,-5.1447,6.1874,5.4063,5.1373,-0.8061,-9.6904,-14.8199,-0.7920,-3.8215,-11.9784,5.3588,-4.3900
3031.2500,5.5744,7.2205,2.9404,1.3604,-9.5494,4.6334,0.0564,-0.9209,7.6314,7.2377,6.0666,1.8036,-6.6669,-12.6700,-0.7214,-5.8116,-10.0240,6.6306,-1.9281
3035.1562,7.3169,9.5015,5.1019,5.4981,-3.6126,8.2299,-1.2900,3.7308,9.8820,9.6738,8.7679,5.5041,-2.1487,-9.2245,1.3156,-6.5742,-6.5335,8.1688,1.8766
3039.0625,8.7354,11.4886,8.8135,8.4013,1.2674,11.3048,-0.6705,7.1132,12.2553,11.9363,12.4094,9.1731,2.0100,-6.2076,4.5437,-5.8294,-2.9441,9.4139,5.5655
3042.9688,9.2835,12.4384,12.3741,8.9997,3.1429,12.5840,1.7371,8.0564,13.7912,13.1836,15.5125,11.4804,4.2348,-4.6204,7.5155,-3.6168,-0.4580,9.6783,7.6051
3046.8750,8.7142,11.8555,13.7779,7.0791,1.6511,11.4880,4.8049,6.3663,13.6813,12.8888,16.6172,11.4034,3.9172,-4.3288,8.8641,-0.2825,0.4881,8.4142,7.0280
3050.7812,7.1786,9.7071,11.7974,3.2010,-2.0117,8.4126,6.9989,2.7752,11.6363,11.0622,14.9547,8.6426,1.5460,-4.3699,7.9661,3.4950,0.2529,5.4475,3.7940
3054.6875,5.1394,6.4009,6.6324,-1.6913,-5.9432,4.4776,7.0860,-1.5290,8.0068,8.2260,10.7941,3.7463,-1.7401,-3.7403,5.1818,6.7216,-0.4393,1.0731,-1.2852
3058.5938,3.1646,2.5894,-0.2300,-6.6973,-8.6354,0.9444,4.6626,-5.4802,3.6153,5.1919,5.3138,-2.0985,-4.8419,-2.1162,1.6127,8.3117,-1.0428,-4.0154,-6.9572
3062.5000,1.7075,-1.0470,-6.7920,-11.1661,-9.6370,-1.3092,0.3021,-8.4795,-0.5826,2.7722,0.0938,-7.4845,-7.1858,-0.0238,-1.4321,7.5590,-1.4668,-8.9192,-12.0179
3066.4062,0.9721,-3.9273,-11.4551,-14.6425,-9.4457,-1.9806,-4.6804,-10.3723,-3.8175,1.5475,-3.5037,-11.2198,-8.7476,1.6219,-2.9666,4.6358,-1.9352,-12.7751,-15.6337
3070.3125,0.9009,-5.6130,-13.5568,-16.7163,-8.8392,-1.2090,-8.7215,-11.1930,-5.6724,1.7394,-4.7881,-12.6216,-9.7052,2.2425,-2.6361,0.7447,-2.6049,-14.9696,-17.4157
