Time,Fp1,F3,C3,P3,O1,F7,T3,T5,Fz,Fp2,F4,C4,P4,O2,F8,T4,T6,Cz,Pz
0.0000,6.6993,0.3356,-8.4318,-10.9072,-16.7717,6.1034,-5.1390,-12.1904,1.0532,4.5895,0.8330,-4.4929,-11.2666,-16.6139,3.0949,2.4892,-4.5803,-4.2202,-10.7187
3.9062,8.7450,3.5187,-5.9476,-8.1321,-13.9944,7.1450,-2.2222,-10.8863,5.8865,8.1704,4.7506,1.0101,-8.4262,-15.3733,4.9512,2.3961,-3.7944,0.2201,-7.3789
7.8125,10.2123,7.4547,-2.3176,-3.7548,-9.3417,8.0992,0.9428,-7.8410,11.5275,12.5126,10.2050,7.9818,-4.5303,-14.5330,7.8898,3.2525,-3.4797,6.4263,-2.8445
11.7188,10.9159,10.9667,2.0196,1.6945,-3.2847,8.8904,3.4396,-3.2545,16.1376,16.4417,15.3986,14.6111,-0.5809,-14.2794,11.3446,5.1007,-3.8680,12.7136,2.0069
15.6250,11.0607,13.1884,6.6914,7.5404,3.5532,9.5822,5.0559,2.3011,18.3210,18.7333,18.3570,19.5797,2.9654,-13.6732,14.2095,7.2931,-4.4869,17.2925,6.6636
19.5312,10.9260,13.9796,11.4931,13.2418,10.7613,10.2526,6.4246,8.2432,17.7573,18.6431,17.9664,22.6464,6.5278,-11.0571,15.2982,8.7872,-4.3014,19.1588,11.2215
23.4375,10.5195,13.7780,16.2467,18.4791,18.2074,10.8313,8.4736,14.2057,15.1326,16.2127,14.5246,24.3908,10.9336,-5.1515,13.9757,8.7517,-2.3346,18.4677,16.0526
27.3438,9.4874,13.0549,20.6064,23.0676,25.7806,11.0287,11.5932,19.9900,11.5214,12.1653,9.4882,25.4262,16.5301,3.9525,10.5748,7.0866,1.6376,16.2269,21.2191
31.2500,7.3645,11.8650,24.0642,26.8471,33.0781,10.4407,15.1932,25.3628,7.7432,7.4730,4.6377,25.7959,22.6335,14.6760,6.2985,4.4992,6.8313,13.6185,26.1722
35.1562,3.9843,9.8898,26.2229,29.6750,39.3526,8.7964,18.0407,29.9386,4.1497,2.8925,1.2207,25.0567,27.8130,24.8278,2.6261,2.0720,11.8532,11.4444,30.0216
39.0625,-0.2557,6.9285,27.1168,31.4986,43.8035,6.2021,19.1572,33.2809,0.8716,-1.2288,-0.4439,22.9124,30.8116,32.8317,0.5586,0.6047,15.4841,9.9815,32.1487
42.9688,-4.4814,3.3726,27.2496,32.3697,45.9793,3.2084,18.5765,35.1242,-1.8493,-4.7985,-0.8124,19.7482,31.3484,38.3934,0.1514,0.1572,17.2862,9.1509,32.6009
46.8750,-7.7447,0.1750,27.2139,32.3127,45.9432,0.6170,17.3436,35.4936,-3.6527,-7.6781,-0.6894,16.4939,30.1305,42.1573,0.5919,0.0724,17.6105,8.6902,31.8835
50.7812,-9.4884,-1.7573,27.1301,31.1310,44.0510,-0.8968,16.7150,34.5979,-4.4250,-9.5530,-0.8716,13.8568,28.0653,44.7128,0.7330,-0.5690,17.0569,8.1505,30.3001
54.6875,-9.7902,-2.2898,26.3685,28.3652,40.5438,-1.1332,17.1669,32.5991,-4.6623,-10.1254,-1.9845,11.5960,25.3663,45.8224,-0.2669,-2.3729,15.8740,6.8418,27.4517
58.5938,-9.2523,-2.2785,23.8756,23.5496,35.3436,-0.4799,17.9903,29.4959,-5.3709,-9.4720,-4.3877,8.5737,21.3701,44.5343,-2.5544,-5.2846,13.8215,4.0076,22.4339
62.5000,-8.6290,-3.0041,18.9645,16.6636,28.2832,0.2936,17.8087,25.2568,-7.4106,-8.2082,-7.9980,3.7099,15.2874,40.0880,-5.5851,-8.6300,10.6108,-0.6845,14.6989
66.4062,-8.4267,-5.1876,12.0196,8.4463,19.6049,0.4377,15.6217,20.0773,-10.7143,-7.2124,-12.0927,-2.8467,7.2833,32.8399,-8.4074,-11.4561,6.5223,-6.6267,4.9212
70.3125,-8.6949,-8.3390,4.5428,0.2606,10.2743,-0.4168,11.5591,14.4754,-14.0368,-7.0200,-15.3537,-9.3317,-1.0839,24.3982,-10.0152,-12.9433,2.5986,-12.2215,-4.9147
74.2188,-9.0847,-10.9896,-1.5819,-6.5021,1.7466,-2.1383,6.7647,9.0518,-15.5642,-7.3320,-16.3484,-13.2471,-7.5715,16.7853,-9.6294,-12.6921,0.1305,-15.5502,-12.4406
78.1250,-9.0907,-11.6820,-5.1304,-11.1113,-4.7416,-4.2441,2.5386,4.0654,-14.0490,-7.0817,-14.2994,-12.9966,-10.6718,11.2421,-6.9072,-10.8163,-0.2527,-15.4502,-16.2655
82.0312,-8.3127,-9.9783,-6.1419,-13.7707,-8.8470,-6.1681,-0.5290,-0.7731,-9.6668,-5.1309,-9.6539,-9.0769,-10.6538,7.5870,-2.1173,-7.8772,0.8191,-12.2667,-16.7603
85.9375,-6.6015,-6.6935,-5.6259,-15.2293,-11.2006,-7.4477,-2.7033,-5.9895,-3.9240,-1.1642,-3.9687,-3.8496,-9.3482,4.6129,3.7732,-4.7093,1.7186,-7.6580,-15.6228
89.8438,-4.0525,-3.1610,-4.5933,-15.9804,-12.7663,-7.7401,-4.4310,-11.6312,1.3679,3.8770,0.9403,0.0503,-8.7578,1.1828,9.2501,-2.1678,0.8621,-3.4844,-14.4917
93.7500,-0.9044,-0.1125,-3.1614,-15.6617,-13.9301,-6.7532,-5.4766,-16.6915,5.3147,8.2180,4.0732,1.5436,-9.5268,-2.8479,12.7443,-0.8328,-2.1767,-0.5331,-13.6505
97.6562,2.5640,2.9049,-0.4588,-13.1800,-14.0497,-4.2661,-4.7151,-19.2478,8.4342,10.3315,5.7917,1.8030,-10.4702,-6.5875,13.3424,-0.7638,-6.3039,1.9638,-11.8447
101.5625,6.0738,7.0536,4.5548,-7.5609,-11.8853,-0.3232,-0.9104,-17.4270,12.0385,9.9654,7.4185,3.2506,-9.5631,-8.9172,11.3513,-1.4425,-9.6025,5.6028,-7.4036
105.4688,9.3297,13.0079,11.9668,1.0556,-6.6507,4.5100,6.0505,-10.6552,16.9696,8.3867,10.1588,7.5781,-5.6399,-9.4378,8.3103,-1.9899,-10.6172,11.3699,0.1700
109.3750,12.0034,19.9896,20.3851,11.0466,1.1142,9.0858,14.4834,-0.3205,22.6824,7.6259,14.1387,14.2815,0.5362,-8.7520,6.3212,-1.5892,-9.2995,18.5782,9.3981
113.2812,13.7819,25.8815,27.4969,19.9419,9.5770,11.9955,21.4894,10.7180,27.4174,9.1951,18.2812,20.8467,6.7039,-7.8466,6.9945,0.1065,-6.9203,25.0450,17.5122
117.1875,14.4884,28.4550,31.3937,25.7264,16.6285,12.1990,24.5573,19.5625,29.3805,13.1314,21.1047,24.4807,10.7346,-7.0995,10.6129,2.8251,-5.0216,28.4577,22.2025
121.0938,14.2099,26.8680,31.7420,27.9500,21.1866,9.6133,23.1124,24.7520,28.0545,17.9914,21.8139,24.1078,12.2020,-5.7692,16.0188,5.8766,-4.1970,27.9614,23.1598
125.0000,13.3208,22.3204,29.9466,27.8674,23.8196,5.2460,18.8835,26.8117,24.6438,21.7669,20.8318,21.1304,12.6539,-2.4520,21.2958,8.5618,-3.6265,24.7897,22.2489
128.9062,12.3322,17.3364,28.1663,27.4825,26.1850,0.7035,14.7645,27.5429,21.2929,23.0788,19.3737,18.3795,14.3483,3.7732,24.8076,10.5067,-1.7256,21.4433,22.1376
132.8125,11.6069,14.1403,27.8580,28.1396,29.6525,-2.6864,12.9378,28.5997,19.6350,21.8624,18.4274,18.0391,18.4096,12.3636,25.9467,11.7142,2.5638,19.9931,24.3474
136.7188,11.1015,13.2660,28.8574,29.6259,34.1161,-4.6042,13.5674,30.3734,19.7283,19.1648,17.9741,20.0855,23.8242,21.2654,25.1765,12.3475,8.8007,20.7281,28.1237
140.6250,10.3268,13.3672,29.5998,30.3879,37.8889,-5.8407,14.9487,31.9263,20.1331,16.3067,17.0739,22.3826,28.0495,27.9123,23.4481,12.4669,15.1258,22.1018,30.9281
144.5312,8.6095,12.3214,28.2682,28.6838,38.7956,-7.6876,14.9295,31.9045,19.0368,14.0493,14.7272,22.3230,28.7894,30.6333,21.4759,11.9568,19.3646,21.9573,30.1875
148.4375,5.5396,8.7943,24.0244,23.8431,35.6889,-11.0086,12.5013,29.6502,15.5718,12.3110,10.7965,18.7707,25.6114,29.5496,19.3876,10.6971,20.3905,19.0889,25.0554
152.3438,1.3288,3.1451,17.4913,16.7664,29.2981,-15.6106,8.3979,25.6493,10.3859,10.5120,6.2324,12.8850,20.2312,26.3962,16.9220,8.8089,18.8052,14.0061,16.9824
156.2500,-3.1803,-2.9119,10.2456,9.3597,21.7988,-20.3362,4.3391,21.0406,5.1179,8.1824,2.4279,7.2776,15.3058,23.4233,13.9242,6.7274,16.4879,8.4322,8.7774
160.1562,-6.9131,-7.5483,3.7970,3.3543,15.4209,-23.8068,1.6017,16.6673,1.2517,5.3526,0.2354,4.1974,12.6694,22.1046,10.6955,4.9999,15.3496,4.0270,2.8916
164.0625,-9.1452,-10.0112,-1.1730,-0.6379,11.0968,-25.3026,0.0725,12.4924,-0.7792,2.5012,-0.5585,4.0963,12.2895,22.4368,7.9212,3.9522,16.1466,1.3551,0.1179
167.9688,-9.8945,-10.9214,-4.8297,-3.2076,8.0967,-25.1752,-1.4947,7.8521,-1.6282,0.2024,-0.9034,5.5676,12.6082,23.1851,6.2612,3.4980,18.1188,-0.1743,-0.5035
171.8750,-9.8450,-11.5636,-7.5893,-5.3918,4.8635,-24.5208,-4.2717,2.3104,-2.3003,-1.1982,-1.6107,6.5867,11.8878,22.8288,5.9457,3.2648,19.6188,-1.4805,-0.6798
175.7812,-9.8363,-12.7863,-9.4782,-7.6907,0.3950,-24.3573,-8.1921,-3.6294,-3.2819,-1.6546,-2.6742,6.0512,9.5031,20.5814,6.6882,2.9507,19.2452,-2.8618,-1.5801
179.6875,-10.2535,-14.3518,-9.9743,-9.5843,-4.8377,-24.8854,-11.7742,-8.5812,-4.1975,-1.2774,-3.3294,4.4888,6.2844,16.8834,7.9514,2.6184,16.7160,-3.7056,-3.1454
183.5938,-10.7452,-15.1688,-8.4206,-9.8738,-9.0796,-25.3452,-13.0814,-11.1088,-4.1826,-0.1793,-2.7561,3.5037,3.7962,13.1199,9.3276,2.6703,12.9571,-3.0441,-4.3334
187.5000,-10.4778,-14.1588,-4.6377,-7.5664,-10.4236,-24.5638,-11.0917,-10.7054,-2.6077,1.5322,-0.7974,4.4779,3.2023,10.7623,10.7334,3.5001,9.4318,-0.4402,-3.9624
191.4062,-8.7663,-11.0808,0.7656,-2.6607,-8.0801,-21.8169,-6.4448,-8.1710,0.4211,3.6430,1.9084,7.5299,4.5504,10.4382,12.2986,5.0890,7.1959,3.5394,-1.5037
195.3125,-5.6512,-6.7435,6.6153,3.7029,-2.9294,-17.4236,-1.0289,-5.0915,4.1122,5.7639,4.4568,11.4433,6.8764,11.4616,14.0861,6.8792,6.2757,7.6310,2.6505
199.2188,-2.0187,-2.5226,11.7441,9.8005,2.9626,-12.6827,3.2507,-2.8070,7.4669,7.4208,6.3656,14.5202,8.8896,12.1143,15.8973,8.0526,5.7073,10.6832,7.4705
203.1250,0.8331,0.4209,15.4975,14.1953,7.4906,-9.1890,5.6025,-1.6191,9.7863,8.2593,7.8088,15.6732,9.6697,10.5664,17.3184,8.0223,4.1623,12.3227,11.8118
207.0312,1.9107,1.6958,17.8675,16.3689,9.5642,-7.9586,6.5966,-0.7740,10.8829,8.2001,9.2203,14.9957,8.9589,5.9559,17.9561,6.7784,0.7694,13.0045,14.8364
210.9375,1.0755,1.7306,19.2607,16.7759,9.4722,-8.8856,7.4546,0.8391,10.9764,7.4260,10.6755,13.5159,7.0447,-0.9903,17.6669,4.8405,-4.3244,13.5054,16.1918
214.8438,-0.8934,1.4100,20.1517,16.3859,8.4605,-10.8291,9.0085,3.8410,10.4862,6.2370,11.6727,12.4301,4.5017,-8.1985,16.6173,2.8772,-9.9369,14.3377,16.0031
218.7500,-2.7318,1.5993,20.8749,16.0703,7.9062,-12.2481,11.1296,7.9733,9.9150,4.9271,11.5657,12.3983,2.0224,-13.2704,15.1651,1.3033,-14.3734,15.5409,14.7775
222.6562,-3.3362,2.8092,21.6047,16.2063,8.6174,-12.0084,12.9790,12.3678,9.8114,3.7821,10.2764,13.3200,0.3293,-14.7135,13.6807,0.1534,-16.2197,16.9100,13.2434
226.5625,-2.2673,5.0610,22.3907,16.6586,10.5953,-9.9319,13.7696,16.1679,10.6512,3.1419,8.5967,14.5999,0.0222,-12.6385,12.4324,-0.7173,-15.0076,18.3216,12.0964
230.4688,0.1008,7.8827,23.1069,17.0327,13.2506,-6.8406,13.3718,18.9917,12.5496,3.3575,7.6930,15.5944,1.3101,-8.4934,11.5632,-1.3346,-11.4141,19.7757,11.6928
234.3750,2.7804,10.3839,23.3382,16.9690,15.8324,-4.1261,12.2994,20.9361,14.9537,4.5580,8.1248,15.9122,3.7991,-4.0271,11.0982,-1.5054,-6.8848,21.0952,11.8454
238.2812,4.5709,11.4443,22.3833,16.3007,17.8038,-3.0943,11.1637,22.2361,16.6199,6.3617,9.1873,15.4473,6.5840,-0.1893,10.9261,-1.0160,-2.8743,21.6150,11.9010
242.1875,4.4956,10.0664,19.5262,15.0530,19.0221,-4.4048,10.1173,22.9479,16.0742,7.8204,9.2216,14.2547,8.7093,3.2944,10.7822,0.0602,-0.1126,20.2762,11.1312
246.0938,2.1617,5.8316,14.5152,13.3782,19.7207,-7.8338,8.7765,22.9428,12.4060,7.7919,6.7847,12.4508,9.7461,7.4317,10.3069,1.2542,1.6896,16.2251,9.2373
250.0000,-2.0427,-0.7542,7.9585,11.5204,20.3538,-12.4261,6.6785,22.1759,5.9337,5.6127,1.8369,10.2222,10.0703,12.9829,9.2103,1.9472,3.5325,9.5568,6.6458
253.9062,-7.0024,-8.2702,1.3059,9.8203,21.3664,-16.9257,3.8601,20.9324,-1.7304,1.6377,-4.0009,7.8883,10.5977,19.7584,7.4566,1.8090,6.4078,1.6312,4.3674
257.8125,-11.2344,-14.8362,-3.6888,8.6855,22.9527,-20.2761,1.0301,19.7718,-8.3463,-2.7943,-8.4078,5.9022,12.1235,26.7020,5.3201,1.0697,10.6134,-5.3737,3.4700
261.7188,-13.4803,-18.8422,-5.7838,8.4563,24.8847,-21.9710,-0.8553,19.1570,-12.0957,-6.0540,-9.8889,4.7265,14.7204,32.6224,3.2347,0.3633,15.5169,-9.4840,4.4693
265.6250,-13.2795,-19.5922,-4.8807,9.1902,26.5068,-22.1283,-1.3122,19.0489,-12.4072,-7.1657,-8.7496,4.6250,17.6170,36.9180,1.5307,0.2205,19.8894,-9.9197,7.0018
269.5312,-11.1937,-17.5309,-2.0773,10.4960,26.9487,-21.2962,-0.7729,18.8050,-10.0854,-6.3566,-6.7866,5.4846,19.6290,39.6781,0.2658,0.5936,22.5646,-7.4427,9.9658
273.4375,-8.4856,-13.9476,0.9169,11.5824,25.5038,-20.1243,-0.3692,17.5154,-6.7210,-4.8001,-5.9220,6.7810,19.8300,41.1156,-0.6930,0.8114,22.9969,-3.8651,12.0420
277.3438,-6.3830,-10.3355,2.6827,11.5866,22.0105,-19.0762,-1.1592,14.5895,-3.7921,-3.7120,-6.8042,7.7464,18.0164,40.9072,-1.3919,0.0551,21.4077,-1.0412,12.3087
281.2500,-5.3592,-7.7471,2.8031,10.0642,17.0383,-18.3058,-3.3313,10.2154,-2.0028,-3.4468,-8.4057,7.7053,14.7269,38.1482,-1.5672,-1.9645,18.5162,0.0530,10.6534
285.1562,-4.9021,-6.4457,1.9960,7.3677,11.7558,-17.7086,-5.9577,5.3917,-1.1842,-3.2643,-8.8794,6.4489,10.9093,32.1229,-0.7197,-4.6321,15.1182,-0.3336,7.8143
289.0625,-3.9455,-5.9709,1.6120,4.6333,7.5117,-17.0602,-7.4983,1.4971,-0.6884,-1.9464,-6.9904,4.4545,7.5213,23.3311,1.4978,-6.6707,11.8023,-1.0530,5.0631
292.9688,-1.6831,-5.5205,2.7996,3.2880,5.3030,-16.1417,-6.7406,-0.3603,0.0714,1.1946,-3.0400,2.7750,5.2795,13.8568,4.8556,-6.8847,8.9066,-0.7871,3.6680
296.8750,1.8005,-4.4263,5.8011,4.2816,5.3736,-14.8027,-3.5699,0.1433,1.2867,5.6814,1.3634,2.5651,4.5611,6.5556,8.4554,-4.9226,6.5903,1.2423,4.3467
300.7812,5.5284,-2.4950,9.7609,7.4731,7.1332,-12.9941,0.9164,2.4311,2.7625,10.0980,4.4436,4.4341,5.3380,3.4382,11.1353,-1.5591,4.8414,4.9080,6.9301
304.6875,8.2614,-0.0772,13.1393,11.5812,9.4515,-10.8155,5.0010,5.3489,4.1546,13.0117,5.4115,7.9904,7.1030,4.3431,12.1497,1.6846,3.3814,9.2647,10.4060
308.5938,9.2972,2.1369,14.5098,14.8127,11.2094,-8.5754,7.2594,7.7524,5.2193,13.8975,4.8083,11.9135,8.9086,6.9163,11.6467,3.3310,1.6272,12.9989,13.3771
312.5000,8.8623,3.4738,13.3170,15.8617,11.8576,-6.7902,7.2409,9.0677,5.9170,13.3755,3.8886,14.6064,9.6763,8.0509,10.5579,2.6662,-1.1014,15.0317,14.7556
316.4062,7.8316,3.5970,10.1928,14.6977,11.6989,-6.0419,5.5576,9.5504,6.3588,12.6063,3.6115,15.0961,8.7470,5.8868,9.9273,0.0019,-5.1266,15.0144,14.3418
320.3125,7.0209,2.6286,6.6547,12.6276,11.7212,-6.7028,3.4090,10.1106,6.6805,12.3455,4.0256,13.6190,6.3699,1.0318,10.1384,-3.5889,-9.9780,13.4923,12.9354
324.2188,6.6118,1.0227,4.3371,11.5410,13.0289,-8.6648,1.8883,11.7753,6.9373,12.4021,4.4307,11.4735,3.7420,-3.8224,10.6103,-6.8309,-14.3468,11.6246,11.8613
328.1250,6.1371,-0.7135,4.1678,12.7637,16.1579,-11.2683,1.4861,15.0570,7.0616,11.9177,4.0643,10.1870,2.4409,-5.6078,10.2143,-8.7767,-16.5938,10.5648,12.1593
332.0312,4.9972,-2.2612,5.9453,16.2280,20.6670,-13.5428,2.0239,19.5718,6.8820,10.2117,2.7087,10.5231,3.5284,-2.7414,8.1359,-9.0950,-15.5906,10.8186,13.9376
335.9375,3.0558,-3.5440,8.5529,20.4928,25.2821,-14.6682,2.9620,24.1489,6.1913,7.4916,0.7777,12.0039,6.8912,4.0720,4.5603,-8.0868,-11.3867,11.9617,16.3180
339.8438,0.8159,-4.5847,10.6777,23.6167,28.5525,-14.3956,3.8232,27.4052,4.8501,4.8301,-1.0762,13.2807,11.2787,12.5048,0.6654,-6.5051,-5.2509,12.9258,18.0231
343.7500,-0.9613,-5.3151,11.5903,24.3272,29.6485,-13.1519,4.4609,28.4730,2.8985,3.4080,-2.4326,13.0950,15.0354,20.1285,-2.0973,-5.2620,0.9734,12.7052,18.2064
347.6562,-1.8647,-5.5253,11.4997,22.7371,28.8035,-11.7418,5.0447,27.4476,0.6162,3.6155,-3.2732,11.1447,17.0432,25.6844,-2.9362,-5.0866,5.8068,11.0308,16.9540
351.5625,-2.1501,-5.0218,11.2679,20.1569,27.1024,-10.8344,5.8286,25.2728,-1.5271,4.7332,-3.8071,8.2430,17.2508,29.3239,-2.2117,-6.2184,8.7852,8.5493,15.1154
355.4688,-2.4949,-3.8713,11.6910,18.1595,25.7408,-10.5814,6.8833,23.1353,-3.0393,5.4610,-4.2060,5.6819,16.4820,31.8735,-1.1491,-8.2698,10.4536,6.3646,13.6162
359.3750,-3.3953,-2.5086,12.8499,17.5457,25.2441,-10.6327,7.9677,21.7581,-3.6208,4.8913,-4.5232,4.2988,15.7372,33.8565,-0.9936,-10.3759,11.7872,5.2572,12.7806
363.2812,-4.7188,-1.5652,13.9915,17.9032,25.1801,-10.5332,8.6090,21.0564,-3.3028,3.1683,-4.8158,3.9514,15.5358,35.0506,-2.2089,-11.6132,13.4848,5.1431,12.1759
367.1875,-5.7953,-1.4973,14.0352,18.0254,24.5697,-10.1907,8.3371,20.3643,-2.4195,1.3256,-5.2536,3.7742,15.7470,34.8308,-4.2594,-11.4796,15.6079,5.1769,11.0823
371.0938,-5.9767,-2.2748,12.3594,16.8609,22.7051,-10.0317,6.9413,19.0412,-1.4179,0.4499,-6.0093,2.9823,15.9456,32.9086,-6.0691,-10.1365,17.7306,4.4326,9.2079
375.0000,-5.1770,-3.3730,9.3132,14.3173,19.7867,-10.6731,4.6178,17.0077,-0.6127,0.8611,-6.9722,1.5817,15.9307,29.8230,-6.7710,-8.2349,19.3904,2.6666,7.0839
378.9062,-3.9078,-4.0939,6.0824,11.3771,16.9008,-12.3046,1.9385,14.8228,-0.0211,1.9789,-7.5689,0.4363,15.9764,26.7949,-6.1948,-6.4287,20.4532,0.5957,5.8275
382.8125,-2.7400,-3.9862,3.9906,9.4782,15.3235,-14.2362,-0.3429,13.2592,0.6416,2.9821,-6.9450,0.6641,16.6511,25.0680,-4.7926,-4.9165,21.1376,-0.5217,6.4446
386.7188,-1.6360,-3.0509,3.7097,9.6100,15.6238,-15.0128,-1.5628,12.7030,1.8199,3.6932,-4.4715,2.8448,18.3948,25.1992,-3.1461,-3.3549,21.7392,0.3000,9.1874
390.6250,0.2382,-1.5916,4.9165,11.7335,17.1910,-13.1345,-1.3884,12.8235,3.9098,4.9060,-0.2244,6.6460,21.1979,26.7400,-1.4948,-1.2143,22.3143,3.1436,13.4148
394.5312,3.9591,0.1441,6.6079,14.8672,18.5299,-7.9915,0.0717,12.7534,7.0702,7.7987,4.9498,11.1084,24.5850,28.4387,0.3437,1.6957,22.5706,7.1713,18.0064
398.4375,9.8904,2.2032,7.8239,17.7110,18.1406,-0.4172,2.3264,11.6494,11.1091,12.8310,9.8702,15.3105,27.8373,28.7928,2.6422,4.9507,22.0232,11.1858,21.9742
402.3438,17.0563,4.8219,8.2511,19.3500,15.4064,7.5453,4.7036,9.2444,15.4705,19.0047,13.6509,18.8603,30.2382,26.6584,5.3363,7.7243,20.2737,14.3258,24.8145
406.2500,23.4002,8.0448,8.2967,19.5977,10.9307,13.5908,6.6052,6.0306,19.3401,24.1674,16.0565,21.8502,31.1989,21.6910,7.8836,9.3429,17.2236,16.4025,26.4118
410.1562,26.8609,11.4005,8.6255,18.8443,6.1490,16.2809,7.7019,2.9856,21.8708,26.2702,17.3431,24.3881,30.3041,14.5028,9.5418,9.7521,13.1253,17.7002,26.6948
414.0625,26.5764,13.9568,9.5432,17.6213,2.5168,15.6884,7.9844,1.0532,22.4840,24.7311,17.7728,26.1662,27.4072,6.4946,9.8530,9.5165,8.5073,18.4824,25.4258
417.9688,23.3888,14.7911,10.7037,16.2317,0.8067,13.1870,7.6650,0.7089,21.1311,20.9003,17.2564,26.4821,22.8023,-0.6218,8.9493,9.3340,4.0578,18.6425,22.3489
421.8750,19.2933,13.5658,11.3467,14.6655,0.9021,10.5445,7.0031,1.8237,18.3604,17.2237,15.4503,24.7237,17.3235,-5.4757,7.4325,9.4389,0.4996,17.7642,17.5660
425.7812,16.2040,10.7808,10.8685,12.7684,2.1056,8.9034,6.1682,3.8192,15.1026,15.6381,12.2171,20.9240,12.1698,-7.5830,5.9128,9.3712,-1.5645,15.5025,11.7769
429.6875,14.8743,7.4868,9.2798,10.4631,3.6572,8.2704,5.2219,5.9519,12.2367,16.3119,8.0099,15.9121,8.4301,-7.4637,4.5495,8.3165,-1.8416,11.9391,6.1063
433.5938,14.6621,4.6452,7.2077,7.8471,5.1054,7.7795,4.2083,7.5651,10.1584,17.6169,3.7771,10.9049,6.5515,-6.2041,2.9440,5.7727,-0.5001,7.6141,1.5769
437.5000,14.2148,2.5924,5.4516,5.1400,6.3598,6.4841,3.2630,8.2474,8.6094,17.3477,0.3868,6.8236,6.1222,-4.6935,0.4675,2.0318,1.8442,3.2225,-1.4080
441.4062,12.5159,0.9879,4.4368,2.5847,7.5142,4.1117,2.6299,7.9151,6.8971,14.3164,-1.9872,3.8358,6.1661,-3.0455,-3.2056,-1.9025,4.3676,-0.7636,-3.1914
445.3125,9.5504,-0.7366,3.9734,0.4049,8.6466,1.2871,2.5484,6.8358,4.3905,9.1999,-3.9866,1.4415,5.7831,-0.6394,-7.7372,-4.9140,6.4055,-4.2464,-4.5050
449.2188,6.1983,-2.7941,3.4820,-1.1773,9.7420,-0.8861,3.0781,5.5555,0.9935,4.0742,-6.5274,-1.0004,4.6996,3.2169,-12.1905,-6.4481,7.7298,-7.3391,-5.8964
453.1250,3.5494,-4.7874,2.4912,-1.9533,10.7308,-1.5617,3.9944,4.6934,-2.7112,1.0146,-9.9717,-3.7260,3.3429,8.4927,-15.4825,-6.7720,8.5451,-10.0660,-7.3630
457.0312,2.2013,-5.9828,1.0127,-1.8325,11.5448,-0.7009,4.8548,4.6451,-5.7491,0.7769,-13.6663,-6.4033,2.4096,14.1543,-16.9356,-6.6573,9.2092,-12.2085,-8.4410
460.9375,2.0178,-5.9047,-0.4888,-0.9937,12.1195,0.9070,5.2172,5.3446,-7.3049,2.4512,-16.2633,-8.4318,2.2791,18.6819,-16.5966,-6.7664,9.8831,-13.4342,-8.6456
464.8438,2.4044,-4.7884,-1.4946,0.0629,12.3698,2.1243,4.8759,6.2559,-7.1932,4.2362,-16.6478,-9.4260,2.7288,21.0383,-15.1533,-7.2250,10.3778,-13.5947,-7.9002
468.7500,2.7837,-3.5323,-1.8729,0.6831,12.2095,2.1024,3.9593,6.6486,-5.9598,4.6859,-14.8011,-9.4927,3.1562,21.3500,-13.5326,-7.6769,10.3148,-12.9242,-6.6210
472.6562,2.8799,-3.1604,-2.0052,0.4156,11.6461,0.6823,2.8270,6.0276,-4.5522,3.5213,-11.9333,-9.1026,3.1118,20.7440,-12.4258,-7.7104,9.4713,-11.9459,-5.3942
476.5625,2.6785,-4.1575,-2.4811,-0.6404,10.8845,-1.6330,1.8456,4.4597,-3.7669,1.5236,-9.7321,-8.6806,2.7147,20.4441,-11.9881,-7.2475,8.0408,-11.1266,-4.4916
480.4688,2.2259,-6.1270,-3.5781,-1.7397,10.3345,-4.0345,1.2062,2.5892,-3.8050,-0.2543,-9.2314,-8.2395,2.6359,20.8423,-11.8338,-6.5507,6.6046,-10.5248,-3.5777
484.3750,1.5288,-7.9907,-4.9192,-1.7674,10.4699,-5.8206,0.9048,1.3230,-4.1955,-1.2570,-10.0991,-7.3212,3.6846,21.3093,-11.2833,-5.8554,5.8409,-9.6901,-1.8241
488.2812,0.6434,-8.5843,-5.5849,0.2209,11.6001,-6.6383,0.8727,1.3686,-4.1145,-1.6113,-10.8605,-5.2734,6.3188,20.9144,-9.7218,-4.9823,6.1846,-7.9000,1.6304
492.1875,-0.1962,-7.2722,-4.6388,4.4746,13.6877,-6.4930,1.1213,2.8856,-2.9039,-1.7130,-9.9140,-1.6693,10.4131,19.4547,-6.9129,-3.3255,7.6670,-4.5917,7.1396
496.0938,-0.6283,-4.2354,-1.7330,10.3249,16.3203,-5.6277,1.7628,5.4197,-0.4900,-1.6964,-6.6454,3.3842,15.3684,17.8782,-3.1488,-0.3057,9.9889,0.2687,14.2277
500.0000,-0.4366,-0.3299,2.6020,16.3854,18.8458,-4.3978,2.8759,8.1131,2.5253,-1.3028,-1.8916,9.1925,20.3857,17.6404,0.8092,4.0250,12.6960,6.0782,21.6430
503.9062,0.1624,3.3349,7.1705,21.0698,20.5880,-3.1935,4.3301,10.0495,5.1380,-0.2518,2.5308,14.6636,24.6628,19.4181,3.9812,8.7101,15.2798,11.7788,27.7531
507.8125,0.5083,5.8377,10.6857,23.1741,21.0418,-2.3743,5.7290,10.5694,6.4220,1.2662,4.8794,18.6322,27.4407,22.2124,5.5203,12.2194,17.1592,16.2145,31.1054
511.7188,-0.1414,6.7132,12.3483,22.2633,19.9944,-2.1772,6.5523,9.4617,5.9541,2.4757,4.4195,20.1980,28.0293,23.6785,5.0265,13.2099,17.6708,18.4914,30.9231
515.6250,-2.0969,5.9982,12.0992,18.7293,17.5717,-2.6273,6.4182,7.0121,3.9704,2.4551,1.6750,18.9866,25.9726,21.6067,2.6858,11.2263,16.2260,18.2231,27.3478
519.5312,-4.9599,4.1164,10.4578,13.5491,14.2206,-3.5302,5.2919,3.9183,1.1911,0.7993,-2.0631,15.2584,21.3348,15.5524,-0.8330,6.8861,12.6407,15.6103,21.3323
523.4375,-7.8289,1.6859,8.1204,7.8896,10.6172,-4.5939,3.4998,1.0830,-1.5661,-2.0435,-5.5521,9.8146,14.8819,7.4026,-4.6676,1.4618,7.4240,11.3587,14.2304
527.3438,-9.8624,-0.6864,5.6116,2.7331,7.4859,-5.6209,1.5533,-0.6854,-3.7556,-5.0619,-8.1828,3.7080,7.9159,0.3833,-8.0871,-3.8156,1.7514,6.4612,7.2663
531.2500,-10.7892,-2.5760,3.1840,-1.3456,5.3700,-6.6273,-0.0840,-0.9776,-5.2555,-7.3830,-10.0287,-2.1300,1.7565,-2.8631,-10.6843,-8.2604,-2.9793,1.8983,1.1423
535.1562,-10.9829,-3.8303,0.9492,-4.2036,4.4546,-7.7772,-1.1288,0.0499,-6.2452,-8.8221,-11.4611,-7.1600,-2.8355,-1.8130,-12.3665,-11.7725,-5.7925,-1.6515,-4.0192
539.0625,-11.0593,-4.5321,-0.9366,-5.9920,4.5547,-9.1632,-1.4641,1.7608,-6.9245,-9.8406,-12.7006,-11.2507,-5.8941,1.8260,-13.2080,-14.5063,-6.5731,-3.9751,-8.3881
542.9688,-11.3332,-4.8509,-2.2163,-6.9487,5.2949,-10.6048,-1.0580,3.3690,-7.2879,-10.9716,-13.6315,-14.4444,-7.9640,5.4368,-13.3067,-16.5002,-5.9891,-5.2798,-12.0044
546.8750,-11.5807,-4.8679,-2.6496,-7.2335,6.3678,-11.6515,0.0584,4.3463,-7.1120,-12.2217,-13.9452,-16.6526,-9.5055,7.2548,-12.7498,-17.5506,-4.9447,-5.9555,-14.5241
550.7812,-11.2949,-4.4941,-2.1972,-6.8788,7.6903,-11.8383,1.7109,4.6677,-6.1545,-12.9777,-13.4203,-17.5248,-10.4398,7.3385,-11.6760,-17.3655,-3.9482,-6.2709,-15.3270
554.6875,-10.2142,-3.5510,-1.1111,-5.8601,9.3426,-11.0367,3.4838,4.7418,-4.4040,-12.5125,-12.0817,-16.6051,-10.1822,7.1770,-10.3191,-15.8059,-2.8474,-6.1783,-13.9147
558.5938,-8.6672,-1.9696,0.1529,-4.2133,11.3466,-9.6438,4.7480,5.0703,-2.1812,-10.6606,-10.1324,-13.6713,-8.1282,8.3757,-8.9362,-13.0005,-1.1078,-5.3429,-10.3088
562.5000,-7.4213,0.0381,1.1442,-2.1006,13.4828,-8.4432,4.8831,5.8682,0.0007,-8.0686,-7.7603,-8.9944,-4.2001,11.4611,-7.6386,-9.2867,1.6057,-3.3771,-5.1411
566.4062,-7.1300,1.9817,1.6176,0.2381,15.3281,-8.1962,3.6057,6.9005,1.7261,-5.7716,-5.0257,-3.3114,0.9780,15.6217,-6.2716,-5.0910,5.0095,-0.1337,0.6484
570.3125,-7.8044,3.3072,1.6180,2.6238,16.5232,-9.2101,1.2068,7.6495,2.9195,-4.4222,-1.9436,2.4864,6.4099,19.4186,-4.4941,-0.8816,8.2834,4.1294,6.2997
574.2188,-8.7321,3.7192,1.4435,5.0723,17.0727,-11.1506,-1.4700,7.7034,3.8761,-3.8094,1.3188,7.7300,11.2983,21.7987,-2.0634,2.8109,10.5970,8.8203,11.5651
578.1250,-8.9183,3.4225,1.5554,7.8217,17.4263,-13.1934,-3.3247,7.1089,5.0759,-3.0828,4.3375,12.1648,15.4220,22.6440,0.8606,5.4416,11.6763,13.2897,16.6646
582.0312,-7.7139,3.1277,2.4940,11.2173,18.2393,-14.3944,-3.4202,6.4534,6.9285,-1.5061,6.5846,15.8661,19.0665,22.5841,3.6564,6.6644,11.9770,17.1576,21.9358
585.9375,-5.1623,3.7957,4.7952,15.5139,19.9581,-14.0463,-1.3154,6.6136,9.6195,0.8952,7.7940,19.0097,22.6261,22.4023,5.5530,6.6256,12.3354,20.5019,27.4681
589.8438,-1.8309,6.2326,8.8568,20.7071,22.5281,-11.8575,2.8228,8.3072,13.1226,3.3573,8.2951,21.7129,26.2369,22.5917,6.1610,6.0788,13.3710,23.7907,32.9944
593.7500,1.6886,10.7185,14.7389,26.4782,25.4314,-7.9493,8.3244,11.6893,17.2947,5.0779,9.0202,24.0550,29.7254,23.3356,5.8531,6.1121,15.0945,27.5813,38.0778
597.6562,5.1753,16.8327,21.9822,32.2625,28.0158,-2.7766,14.2394,16.2046,21.9153,6.0003,11.0778,26.1829,32.8471,24.7278,5.6650,7.5443,16.9971,32.1321,42.3812
601.5625,8.7464,23.5439,29.5886,37.3790,29.8500,2.9401,19.5769,20.7635,26.6167,6.9746,15.0758,28.3113,35.5269,26.8520,6.6894,10.3536,18.5138,37.1372,45.7573
605.4688,12.4497,29.5284,36.2553,41.1496,30.8368,8.2886,23.5146,24.1590,30.7904,9.0772,20.5970,30.5246,37.8284,29.5611,9.3149,13.5670,19.4629,41.7346,48.0807
609.3750,15.8647,33.5875,40.7995,42.9863,31.0355,12.3224,25.5687,25.5361,33.6243,12.5803,26.1911,32.5087,39.6573,32.1967,12.8270,15.7610,20.1051,44.8060,49.0034
613.2812,18.0983,35.0041,42.5637,42.4724,30.4004,14.3269,25.7002,24.7131,34.3393,16.4174,29.9616,33.4716,40.4918,33.6554,15.6944,15.8909,20.7896,45.4235,47.9124
617.1875,18.2405,33.7000,41.5716,39.4710,28.7230,14.0841,24.3031,22.2231,32.5240,18.6579,30.4582,32.4226,39.4659,32.9528,16.4150,13.8917,21.5046,43.2162,44.2159
621.0938,15.9582,30.1462,38.3577,34.2389,25.8785,11.9563,22.0347,19.0610,28.3532,17.7311,27.3761,28.7134,35.8622,29.9593,14.3978,10.6294,21.7355,38.4708,37.7952
625.0000,11.7718,25.0917,33.6029,27.4659,22.1870,8.6899,19.5315,16.2540,22.5223,13.5196,21.6626,22.5101,29.7129,25.7277,10.3081,7.2454,20.7917,31.9347,29.2868
628.9062,6.7862,19.2631,27.8307,20.1577,18.5405,5.0287,17.1480,14.4516,15.9271,7.4960,14.9806,14.8656,22.0544,22.0508,5.6482,4.3837,18.3771,24.4653,19.9487
632.8125,2.0561,13.1918,21.3504,13.3574,16.0888,1.3834,14.8655,13.7267,9.2943,1.7694,8.8639,7.3082,14.5871,20.4537,1.8585,1.8777,14.9578,16.7459,11.1624
636.7188,-1.9610,7.2234,14.4232,7.8151,15.6134,-2.2263,12.4239,13.6655,3.0003,-2.2690,4.0641,1.1874,8.8978,21.2800,-0.4635,-0.8826,11.6077,9.2218,3.8914
640.6250,-5.4942,1.6390,7.4565,3.7740,17.0092,-5.9423,9.5785,13.6743,-2.8370,-4.7188,0.4365,-2.8364,5.7222,23.5060,-1.7294,-4.2178,9.3972,2.2340,-1.5563
644.5312,-9.0687,-3.2612,1.0228,1.0038,19.2708,-9.7567,6.3094,13.3155,-8.1198,-6.8241,-2.6443,-4.8839,4.7071,25.4139,-2.8585,-7.6619,8.7384,-3.8156,-5.3473
648.4375,-12.9635,-7.2062,-4.3275,-0.9289,21.0581,-13.3846,2.8544,12.4906,-12.6027,-9.8198,-5.6711,-5.5548,4.7978,25.6540,-4.5085,-10.1242,9.1604,-8.4447,-7.7117
652.3438,-16.9248,-10.0974,-8.2950,-2.3055,21.5001,-16.4230,-0.4167,11.4051,-15.9347,-13.8720,-8.6071,-5.4840,4.9757,23.9936,-6.5893,-10.6124,9.6820,-11.2558,-8.6309
656.2500,-20.3164,-12.0982,-10.8898,-3.0272,20.7087,-18.6505,-3.1644,10.3854,-17.8557,-17.8989,-10.9245,-5.0424,4.8669,21.3222,-8.3616,-8.9701,9.5254,-12.1578,-7.8383
660.1562,-22.5471,-13.5412,-12.2537,-2.6559,19.6570,-20.1936,-5.1610,9.6933,-18.3678,-20.3598,-11.9885,-4.2990,4.8686,19.0239,-8.9867,-6.0555,8.6587,-11.4505,-5.0851
664.0625,-23.4316,-14.6733,-12.4069,-0.7069,19.4999,-21.3960,-6.2813,9.4325,-17.7361,-20.3671,-11.4881,-3.1656,5.7662,18.2065,-8.0952,-3.2097,7.7706,-9.6748,-0.4405
667.9688,-23.2338,-15.4169,-11.1695,2.9744,20.7869,-22.4833,-6.4858,9.5479,-16.3283,-18.2712,-9.6300,-1.5650,8.1205,19.2441,-5.9843,-1.4027,7.6905,-7.3236,5.5928
671.8750,-22.4043,-15.3541,-8.3746,7.9771,23.0728,-23.3069,-5.8665,9.8547,-14.4334,-15.3226,-7.0037,0.4792,11.8042,21.7580,-3.3661,-0.6850,8.6693,-4.6199,12.1922
675.7812,-21.2475,-13.9870,-4.2192,13.3782,25.1556,-23.3988,-4.7098,10.0643,-12.1900,-12.7305,-4.2463,2.8293,15.9468,24.8487,-0.9103,-0.3238,10.0547,-1.5211,18.4439
679.6875,-19.7594,-11.1081,0.5726,18.0762,25.7613,-22.3164,-3.4528,9.8436,-9.6341,-10.8608,-1.7248,5.2559,19.3036,27.3554,1.0796,0.5249,10.6331,2.0769,23.5453
683.5938,-17.7134,-7.0041,4.9984,21.2394,24.2390,-20.0050,-2.4571,8.9613,-6.7594,-9.1450,0.5974,7.4883,20.8476,28.0971,2.6872,2.1528,9.4406,6.1232,26.9344
687.5000,-14.8828,-2.3277,8.3377,22.6348,20.8653,-16.8785,-1.7052,7.4907,-3.5070,-6.6896,3.0756,9.3164,20.2812,26.1960,4.1851,4.1478,6.5064,10.3668,28.3808
691.4062,-11.2272,2.2689,10.6202,22.6602,16.6333,-13.5475,-0.6723,5.9208,0.2759,-3.0631,6.1468,10.7214,18.2014,21.5054,5.8249,5.8261,3.0013,14.5012,28.0562
695.3125,-6.9532,6.4480,12.5935,22.0537,12.7055,-10.4195,1.4201,5.0054,4.7681,1.3255,10.0410,11.9376,15.8091,14.9259,7.7465,6.8535,0.6452,18.3324,26.5158
699.2188,-2.4804,10.1889,15.1129,21.4313,9.8623,-7.5100,5.0282,5.3355,9.9209,5.4721,14.5424,13.3243,14.2820,8.2790,9.9706,7.5304,0.7158,21.7702,24.4916
703.1250,1.6220,13.4794,18.3338,20.9025,8.2273,-4.6305,9.7378,6.8559,15.1410,8.3816,18.8987,15.0538,14.1278,3.6044,12.3676,8.5084,3.2777,24.6083,22.5157
707.0312,4.7135,15.9713,21.3007,19.9875,7.3621,-1.7941,14.1789,8.6890,19.2045,9.5701,21.9687,16.8041,14.8935,2.1816,14.5800,10.1766,7.1233,26.2878,20.5747
710.9375,6.2206,16.9385,22.3108,17.9021,6.6358,0.5231,16.5779,9.4973,20.6266,9.1704,22.6273,17.7358,15.4451,3.8794,16.0161,12.2232,10.4684,25.9230,18.0791
714.8438,5.8526,15.6444,19.8955,14.0694,5.6588,1.5250,15.6812,8.2559,18.4133,7.6958,20.3050,16.8846,14.6982,7.3074,16.0500,13.7312,11.9603,22.7036,14.2706
718.7500,3.8037,11.8867,13.8014,8.5734,4.5592,0.5778,11.4823,4.9700,12.7680,5.7214,15.3935,13.7909,12.3624,10.7120,14.3990,13.7460,11.3686,16.4799,8.8714
722.6562,0.7746,6.3020,5.3075,2.2839,3.9552,-2.3273,5.2636,0.8228,5.2394,3.6935,9.2323,8.9451,9.1987,13.0127,11.4321,11.8915,9.5474,8.1264,2.5332
726.5625,-2.2894,0.1594,-3.3566,-3.4421,4.6185,-6.4931,-1.0878,-2.4210,-1.9124,1.8786,3.5759,3.6725,6.5721,14.2583,8.1090,8.5937,7.7442,-0.6352,-3.2901
730.4688,-4.6568,-5.2554,-10.1246,-7.3343,6.9879,-10.8955,-6.0441,-3.4190,-6.8335,0.3466,-0.2332,-0.5478,5.5596,15.2269,5.4746,4.7880,6.7540,-7.9303,-7.0442
734.3750,-6.1928,-9.2524,-14.0279,-8.7426,10.8066,-14.7383,-9.0580,-2.0116,-9.0085,-1.0630,-1.9255,-2.9135,6.2176,16.5618,3.9903,1.3670,6.4888,-12.5542,-7.9202
738.2812,-7.3931,-11.9341,-15.3976,-7.8404,15.1293,-17.7768,-10.4953,0.7710,-9.4075,-2.7111,-2.3740,-3.7063,7.5457,18.1846,3.1883,-1.2256,6.2172,-14.4234,-6.2669
742.1875,-9.0050,-13.8754,-15.3048,-5.4078,18.7587,-20.1930,-11.0375,3.4504,-9.7478,-4.9645,-2.9899,-3.9739,8.2062,19.4661,1.9752,-3.0214,5.2513,-14.3978,-3.2783
746.0938,-11.4620,-15.5695,-14.7149,-2.3615,20.8886,-22.1751,-11.0732,5.0577,-11.3562,-7.8826,-4.8015,-4.7119,7.5005,19.9676,-0.5514,-4.2581,3.5499,-13.6294,-0.1850
750.0000,-14.5071,-17.0630,-13.9557,0.6613,21.5569,-23.5769,-10.5307,5.6347,-14.3730,-11.0108,-7.8012,-6.1424,5.8854,20.0432,-4.3253,-5.0981,1.7898,-12.8906,2.4571
753.9062,-17.2641,-18.0119,-12.7844,3.4245,21.5762,-23.9463,-9.1994,5.9568,-17.7796,-13.5076,-10.9832,-7.6219,4.6185,20.6837,-8.1648,-5.5519,0.8571,-12.2943,4.8721
757.8125,-18.7085,-18.0303,-10.8668,5.9026,21.9334,-22.8841,-7.1787,6.7415,-20.1487,-14.6022,-13.0302,-8.2338,4.7655,22.6262,-10.4328,-5.5982,1.1371,-11.5058,7.5256
761.7188,-18.2178,-16.9857,-8.2124,7.9834,23.0254,-20.4140,-5.0090,7.9739,-20.5424,-14.0814,-13.1706,-7.5963,6.2889,25.4320,-10.0917,-5.3250,2.1264,-10.1949,10.4093
765.6250,-15.8446,-14.9914,-5.2235,9.3308,24.2533,-17.0382,-3.3430,8.8673,-18.9477,-12.4200,-11.6243,-6.2571,7.9091,27.3618,-7.4275,-4.9420,2.6554,-8.3575,12.7507
769.5312,-12.1729,-12.1524,-2.3796,9.5330,24.2992,-13.4252,-2.4288,8.4745,-16.0351,-10.4093,-9.3554,-5.3643,7.8706,26.3082,-3.9267,-4.6818,1.5710,-6.2975,13.4067
773.4375,-7.9168,-8.3639,0.1276,8.4331,21.9533,-9.9887,-1.8554,6.4698,-12.5303,-8.5448,-7.3474,-5.8603,5.0911,21.2011,-1.3736,-4.7199,-1.5795,-4.3497,11.6577
777.3438,-3.5723,-3.4097,2.4929,6.3807,16.9678,-6.7039,-0.8031,3.5101,-8.7217,-6.6568,-5.9288,-7.7952,-0.1044,12.8763,-0.7803,-5.1934,-6.2966,-2.6043,7.7988
781.2500,0.6625,2.6858,5.0744,4.1926,10.3710,-3.3021,1.3751,0.9191,-4.4408,-4.1055,-4.6104,-10.2461,-6.1417,3.7447,-1.8507,-6.2382,-11.4089,-0.8439,3.0806
785.1562,4.7164,9.3678,8.0701,2.8119,4.0274,0.3367,4.6892,-0.0561,0.5518,-0.4056,-2.5060,-11.8591,-11.0761,-3.5186,-3.2801,-7.8943,-15.6258,1.2943,-0.9498
789.0625,8.4315,15.6340,11.3688,2.8726,-0.2678,3.9354,8.5127,1.1119,6.1483,4.2198,0.9967,-11.5880,-13.5359,-7.3341,-3.6124,-9.8538,-17.9730,4.0855,-3.2191
792.9688,11.4983,20.4954,14.6591,4.4393,-1.5836,6.9220,12.0156,4.0820,11.7795,8.8235,5.7831,-9.1300,-13.1210,-7.6978,-2.0528,-11.2606,-17.9072,7.5694,-3.4812
796.8750,13.5739,23.4816,17.6387,7.0635,-0.0802,8.7877,14.6552,7.9812,16.6557,12.2920,11.0418,-4.8598,-10.1406,-5.5814,1.2326,-10.8729,-15.2146,11.5295,-2.0949
800.7812,14.4502,24.7814,20.0946,10.0794,3.3630,9.3902,16.3339,11.8896,20.1304,14.0323,15.6887,0.5281,-5.0939,-1.8872,5.3715,-7.6946,-9.9583,15.5294,0.4722
804.6875,14.1244,24.8983,21.7899,12.9167,7.7534,8.9554,17.1465,15.1264,21.9057,14.2373,18.8630,6.3046,1.5810,3.1240,9.2796,-1.7746,-2.6203,18.9483,3.9520
808.5938,12.7421,24.1121,22.3266,15.2428,12.3823,7.8035,17.0093,17.2505,21.9941,13.5326,20.2055,11.7428,9.3154,9.5121,12.0428,5.4088,5.7025,21.0541,8.1718
812.5000,10.5135,22.2307,21.2267,16.9147,16.8325,6.0719,15.5660,17.9680,20.5784,12.3475,19.8532,16.0509,17.0887,16.8602,13.0795,11.4198,13.3642,21.2008,12.7365
816.4062,7.7111,18.8869,18.2875,17.8779,20.7752,3.7009,12.5108,17.1711,17.9648,10.5941,18.2797,18.4814,23.4711,23.8734,12.2043,14.0820,18.6812,19.1563,16.9146
820.3125,4.7392,14.1605,13.9834,18.1647,23.8814,0.7008,8.0791,15.1258,14.6659,7.9642,16.1454,18.7024,27.2189,28.9187,9.7234,12.7334,20.7136,15.3998,19.9601
824.2188,2.1457,8.9736,9.5444,18.0073,25.9928,-2.5578,3.2593,12.5914,11.4527,4.5783,14.1955,17.1829,28.0735,31.1915,6.4921,8.6668,19.8264,11.1350,21.6759
828.1250,0.4566,4.8250,6.5188,17.9211,27.3795,-5.3400,-0.5349,10.6347,9.1809,1.3441,13.1263,15.1839,27.1123,31.5440,3.7244,4.3797,17.5793,7.8788,22.7226
832.0312,-0.1233,2.9373,6.0007,18.5762,28.7505,-6.9115,-2.1749,10.1421,8.3878,-0.4296,13.3528,14.1786,26.2364,32.1398,2.4638,2.0708,15.8928,6.7612,24.3007
835.9375,0.0697,3.4036,7.9968,20.4231,30.8494,-7.0272,-1.4340,11.3191,8.9080,0.0144,14.7502,14.9714,27.0068,34.9812,2.9523,2.3777,15.9521,7.9199,27.3046
839.8438,0.2468,5.0008,11.3689,23.2683,33.8420,-6.1577,0.9211,13.5447,9.8309,2.1046,16.5594,17.1044,29.5772,40.2982,4.3656,4.2023,17.5314,10.3780,31.5109
843.7500,-0.4038,5.8981,14.4263,26.1139,36.9546,-5.2355,3.6232,15.7141,9.9315,4.0623,17.6171,19.0209,32.4782,46.0256,5.2423,5.6930,19.1786,12.5263,35.4201
847.6562,-2.1855,4.8287,15.8099,27.4679,38.7165,-5.0639,5.6316,16.8464,8.3620,3.9991,16.8710,18.9531,33.4453,48.8729,4.4427,5.6189,19.1297,12.9503,36.9548
851.5625,-4.6239,1.9271,15.1273,26.0366,37.7308,-5.7952,6.6074,16.5341,5.1756,1.2706,13.9299,15.9825,30.7548,46.3301,2.0024,4.1084,16.3395,11.1229,34.6056
855.4688,-6.6789,-1.3550,12.9877,21.4196,33.4843,-6.8412,6.8786,14.9522,1.3378,-2.9261,9.3296,10.5800,24.1875,38.2271,-0.7822,2.2507,10.9661,7.5782,28.2844
859.3750,-7.3284,-3.1944,10.4969,14.3742,26.6307,-7.2685,7.0170,12.4930,-1.7830,-6.2326,4.3474,4.2907,15.0186,26.7532,-2.1876,0.9641,4.0644,3.5157,19.3302
863.2812,-6.1440,-2.5450,8.5984,6.4500,18.5448,-6.3895,7.3929,9.3793,-3.1194,-6.6652,0.4589,-1.1820,5.1358,14.9468,-1.2601,0.1094,-3.1932,0.1258,9.6916
867.1875,-3.4795,0.2823,7.6702,-0.8070,10.4769,-4.1518,8.0062,5.5830,-2.3764,-3.9189,-1.2700,-4.8597,-4.0347,4.7714,1.5117,-1.3875,-10.1524,-1.9497,0.8634
871.0938,-0.1722,3.9401,7.5353,-6.5935,2.9319,-1.1078,8.6250,1.0898,-0.0439,0.5092,-0.5578,-6.7905,-12.0475,-3.8317,4.5858,-4.4788,-16.7264,-2.7615,-6.7207
875.0000,2.9953,6.9522,7.7442,-11.0683,-4.2770,1.9388,9.0266,-3.7595,2.9590,4.4522,2.0903,-7.6742,-19.1317,-12.2728,6.5525,-8.8765,-22.9086,-2.8191,-13.4934
878.9062,5.6747,8.5321,7.8625,-14.9197,-11.3715,4.3233,9.1212,-8.1827,5.7189,6.6027,5.6778,-8.1829,-25.4058,-21.5905,7.2070,-12.8424,-28.2131,-2.7012,-19.9778
882.8125,7.9263,8.7875,7.6041,-18.5820,-17.8866,5.7050,8.9085,-11.2302,7.5907,7.2927,9.1210,-8.4829,-30.2684,-31.0028,7.6528,-14.1682,-31.5403,-2.7554,-26.0214
886.7188,9.8718,8.2980,6.8401,-21.6377,-22.4814,6.0148,8.3897,-12.2173,8.2406,7.9708,11.5798,-8.2302,-32.4319,-37.8382,9.3228,-11.6724,-31.6133,-3.0037,-30.5643
890.6250,11.3516,7.5038,5.6075,-22.8291,-23.4846,5.3126,7.5738,-10.9858,7.5882,9.8305,12.6261,-6.9318,-30.5619,-38.9361,12.6740,-6.0949,-27.6841,-3.2263,-32.0715
894.5312,11.8875,6.4057,4.1656,-20.7054,-19.8294,3.7101,6.5784,-7.8281,5.7762,12.6850,12.2502,-4.3450,-24.0722,-32.5593,16.6035,0.3095,-20.0128,-3.1287,-29.3219
898.4375,10.9851,4.7492,3.0141,-14.5194,-11.7437,1.3925,5.6940,-3.1976,3.1759,14.9726,10.7534,-0.6489,-13.5683,-19.5356,19.1005,5.1989,-9.8153,-2.5073,-22.0732
902.3438,8.5293,2.4505,2.7515,-4.8225,-0.7404,-1.3497,5.2861,2.5109,0.3348,14.8823,8.5886,3.6483,-0.7130,-2.9178,18.6771,7.5467,1.2374,-1.3630,-11.2580
906.2500,4.9536,-0.1458,3.7719,6.6076,11.0589,-4.1661,5.5652,8.9287,-2.2001,11.7252,6.2076,7.9218,12.3418,13.5329,15.4878,8.0089,11.5987,0.0746,1.3225
910.1562,1.0442,-2.4032,5.9756,17.4652,21.7992,-6.7567,6.4028,15.5192,-4.1180,6.4942,3.9669,11.6107,23.6216,27.0222,11.2583,8.0675,20.1693,1.4352,13.5943
914.0625,-2.4753,-3.8019,8.7262,25.8365,30.4319,-8.9488,7.3647,21.4851,-5.4743,1.1951,2.1083,14.3230,31.8114,36.5692,8.0588,8.6947,26.2989,2.3871,23.8081
917.9688,-5.2721,-4.2767,11.1430,30.8459,36.6927,-10.6643,7.9681,25.9613,-6.5928,-2.5287,0.7853,15.8981,36.4522,42.7082,6.8550,9.6164,29.6687,2.8140,30.9371
921.8750,-7.4283,-4.2230,12.5691,32.7348,40.7074,-11.8219,7.9797,28.4022,-7.7862,-4.4340,0.0715,16.4384,37.8911,46.4990,6.9420,9.7168,30.2836,2.8645,34.8014
925.7812,-9.1851,-4.1894,12.9050,32.4334,42.6223,-12.2923,7.5316,28.8589,-9.0945,-5.6189,-0.0830,16.2543,37.0485,48.6308,6.6738,8.1826,28.6019,2.8107,35.9350
929.6875,-10.6438,-4.5154,12.5703,30.9459,42.5282,-11.9896,6.9778,27.8915,-10.2442,-7.4603,0.0876,15.6814,35.0555,49.1638,4.8851,5.3896,25.5982,2.7950,35.2607
933.5938,-11.6647,-5.1865,12.1228,28.9023,40.6311,-11.0368,6.6213,26.1503,-10.8639,-10.3932,0.1768,14.8378,32.8329,47.8890,1.8736,2.7621,22.5323,2.6547,33.6817
937.5000,-12.0289,-5.9737,11.8088,26.4530,37.4023,-9.8358,6.5242,23.9411,-10.7966,-13.4701,-0.2502,13.5005,30.7551,44.8617,-0.8294,1.6935,20.4171,1.9841,31.7321
941.4062,-11.7085,-6.6976,11.3632,23.4414,33.4849,-8.9223,6.5204,21.1198,-10.2683,-15.0274,-1.4301,11.2466,28.5660,40.6287,-1.7033,2.3975,19.4693,0.4212,29.4286
945.3125,-11.0095,-7.3826,10.1883,19.6598,29.3817,-8.6582,6.3646,17.3939,-9.7846,-13.9510,-3.2449,7.8103,25.6172,35.9829,-0.5047,3.6342,18.9319,-2.0445,26.3853
949.2188,-10.4578,-8.1867,7.7686,15.0174,25.1714,-8.9777,5.8594,12.7681,-9.8286,-10.5944,-5.2727,3.4038,21.3070,31.4570,1.4493,3.5702,17.4549,-4.9875,22.1186
953.1250,-10.4923,-9.1900,4.0318,9.5791,20.5071,-9.3970,4.8731,7.7471,-10.5689,-6.6740,-7.0343,-1.2726,15.4561,26.9420,2.2114,1.1314,13.8513,-7.7708,16.3676
957.0312,-11.1732,-10.2302,-0.5622,3.5349,14.9324,-9.3080,3.3087,3.1086,-11.7596,-4.2055,-8.2546,-5.3799,8.3915,21.7103,0.6385,-3.1835,7.7750,-9.9158,9.2548
960.9375,-12.0992,-10.9209,-5.2182,-2.8226,8.2969,-8.3577,1.1492,-0.5750,-12.8679,-4.2217,-8.9214,-8.4016,0.7181,14.8467,-2.7505,-7.6382,-0.0880,-11.3293,1.2271
964.8438,-12.5936,-10.8460,-9.1250,-9.1023,0.9700,-6.6450,-1.3953,-3.2711,-13.3222,-6.1399,-9.0901,-10.3555,-7.0131,5.8452,-6.1193,-10.4730,-8.4038,-12.2129,-7.1384
968.7500,-12.0591,-9.8006,-11.7128,-14.8433,-6.2901,-4.6120,-3.7858,-5.3991,-12.7407,-8.1877,-8.6244,-11.5866,-14.4701,-4.9580,-7.5821,-11.0719,-15.8632,-12.7481,-15.3123
972.6562,-10.3158,-7.9380,-12.7648,-19.6027,-12.6925,-2.7466,-5.2854,-7.3919,-11.0632,-8.5777,-7.1734,-12.3336,-21.4203,-16.3464,-6.4625,-10.2399,-21.7023,-12.8540,-22.8688
976.5625,-7.7590,-5.7527,-12.4103,-23.0717,-17.7154,-1.3435,-5.3506,-9.2701,-8.5904,-6.6610,-4.5122,-12.4704,-27.4624,-26.6015,-3.6842,-9.4579,-25.7855,-12.2591,-29.4264
980.4688,-5.2560,-3.9157,-11.0548,-25.1330,-21.1390,-0.4836,-4.0427,-10.5771,-5.9444,-3.3393,-1.0371,-11.6842,-31.8794,-34.1002,-1.1092,-9.7480,-28.2930,-10.8507,-34.5626
984.3750,-3.8130,-3.0283,-9.2548,-25.8001,-22.8278,-0.1776,-2.1036,-10.7188,-3.9340,-0.5210,2.0378,-9.9457,-33.7908,-37.8246,-0.3783,-11.0132,-29.3111,-8.9898,-37.7881
988.2812,-4.1383,-3.3807,-7.5214,-25.0704,-22.4906,-0.4715,-0.5335,-9.4159,-3.3021,0.0046,3.1084,-7.8191,-32.5370,-37.5275,-2.0526,-12.2730,-28.6372,-7.4630,-38.6046
992.1875,-6.2870,-4.8027,-6.0908,-22.8133,-19.6646,-1.3743,0.1041,-6.8916,-4.4050,-2.4185,1.1079,-6.2345,-28.0354,-33.5059,-5.5220,-12.5029,-25.9150,-7.0188,-36.6116
996.0938,-9.5753,-6.6928,-4.7853,-18.8144,-13.9934,-2.6770,0.1419,-3.6586,-6.9816,-6.9845,-3.6527,-5.8005,-20.8613,-26.1923,-9.5520,-11.3769,-20.9640,-7.8012,-31.6278
1000.0000,-12.8521,-8.2557,-3.1045,-12.9842,-5.6241,-3.8899,0.6230,-0.1106,-10.1951,-11.9194,-9.3988,-6.1886,-12.0177,-15.9077,-12.9779,-9.3853,-14.0593,-9.1296,-23.8123
1003.9062,-15.0471,-8.8793,-0.5595,-5.6029,4.5651,-4.4594,2.5219,3.7144,-13.0028,-15.4609,-13.7750,-6.1756,-2.5760,-3.0087,-15.1261,-7.3625,-5.9824,-9.8559,-13.7679
1007.8125,-15.7302,-8.4661,2.9295,2.5912,15.1087,-4.1754,5.9046,7.9949,-14.6875,-16.7500,-15.2199,-4.4584,6.5699,11.6580,-15.8809,-5.9026,2.1727,-9.0905,-2.5656
1011.7188,-15.3615,-7.5106,6.8544,10.5786,24.4329,-3.4519,9.6814,12.7443,-15.2290,-16.1594,-13.9225,-0.7127,14.7399,26.3961,-15.5721,-5.1361,9.3181,-6.7907,8.4052
1015.6250,-15.0410,-6.8307,10.3300,17.4347,31.4242,-3.1899,12.2044,17.5394,-15.2544,-14.9392,-11.6653,3.9257,21.3972,38.8427,-14.8507,-4.9421,14.6727,-3.7819,17.8025
1019.5312,-15.8549,-7.0777,12.5953,22.6863,35.7859,-4.2224,12.3413,21.6257,-15.5686,-14.4429,-10.6008,7.4316,26.1534,46.8128,-14.5381,-5.2733,17.9465,-1.1922,24.8058
1023.4375,-18.1777,-8.3146,13.4733,26.4275,38.0125,-6.6895,10.2681,24.3441,-16.5570,-15.3975,-11.7752,8.2079,28.9165,49.4115,-15.3410,-6.2238,19.3737,0.2895,29.4531
1027.3438,-21.3559,-9.9369,13.4565,29.1226,39.0296,-9.8004,7.3971,25.5475,-17.8601,-17.6022,-14.4163,6.2374,30.0554,47.6862,-17.4524,-7.7792,19.5908,0.8106,32.5889
1031.2500,-23.9875,-11.0010,13.3461,31.2309,39.7165,-12.2012,5.4796,25.6766,-18.5464,-20.1508,-16.4784,3.2065,30.3701,44.2611,-20.2775,-9.5425,19.3828,1.1603,35.3729
1035.1562,-24.6550,-10.7539,13.6991,32.9040,40.5556,-12.7368,5.5183,25.4379,-17.6764,-21.9708,-16.0466,1.4565,30.7700,42.0116,-22.5804,-10.7865,19.3675,2.1767,38.5850
1039.0625,-22.6858,-9.0280,14.4878,33.9476,41.5436,-11.1066,7.2468,25.3398,-14.8913,-22.3321,-12.6109,2.4739,31.8013,42.5158,-23.1007,-10.8816,19.7434,4.2078,42.1395
1042.9688,-18.5024,-6.2623,15.2112,34.0498,42.3437,-7.9842,9.4903,25.4410,-10.6519,-21.0704,-7.3417,5.9689,33.3248,45.2470,-21.3100,-9.7754,20.2400,6.9725,45.1258
1046.8750,-13.3824,-3.1729,15.3546,33.0913,42.5371,-4.5558,11.0663,25.4613,-5.9949,-18.4936,-2.2414,10.1652,34.5772,48.0420,-17.7862,-8.0957,20.3213,9.8292,46.3618
1050.7812,-8.7992,-0.3192,14.8307,31.3028,41.8232,-1.8215,11.5310,25.1079,-1.9808,-15.1336,1.1653,13.0385,34.6021,48.5409,-13.8947,-6.7443,19.5393,12.1721,45.1063
1054.6875,-5.7401,2.1462,14.0674,29.1510,40.0838,-0.1285,11.2667,24.3078,0.8253,-11.5337,2.6757,13.5914,32.7762,45.6377,-10.9534,-6.2762,17.8193,13.6652,41.4689
1058.5938,-4.3556,4.4250,13.6930,27.0338,37.3350,0.8237,10.9649,23.1627,2.5565,-8.1505,3.2799,12.2916,29.1021,39.9912,-9.4542,-6.5629,15.4772,14.2407,36.2753
1062.5000,-4.0635,6.8105,14.0864,25.0030,33.6492,1.6226,11.0131,21.7109,3.8659,-5.3208,4.2804,10.4746,24.1091,33.3217,-8.8880,-7.0069,12.9470,14.0041,30.5281
1066.4062,-3.9705,9.4287,15.1418,22.7189,29.1302,2.7558,11.2906,19.7632,5.5045,-3.2163,6.3663,9.2654,18.4819,27.0852,-8.2758,-7.1138,10.4125,13.2038,24.8647
1070.3125,-3.3477,12.1388,16.4019,19.6842,23.9599,4.4492,11.4654,17.0108,7.8867,-1.7934,9.2568,8.8451,12.7019,21.5265,-6.9859,-6.9233,7.6239,12.2531,19.3786
1074.2188,-1.9365,14.6058,17.4089,15.6215,18.4687,6.7321,11.4405,13.3489,10.8373,-0.8275,12.0182,8.5222,6.9407,15.7835,-5.2223,-6.9300,4.0714,11.6537,13.8631
1078.1250,0.0082,16.4539,17.9669,10.7643,13.1532,9.5451,11.4958,9.1533,13.6178,-0.0886,13.6743,7.4163,1.2317,8.8974,-3.8505,-7.5761,-0.5794,11.7241,8.2294
1082.0312,1.9052,17.4028,18.1270,5.8808,8.6001,12.7369,11.9971,5.2610,15.2240,0.4263,13.6452,5.1540,-4.2509,0.9071,-3.7414,-8.7861,-6.0879,12.2762,2.7556
1085.9375,3.1601,17.3541,17.9741,2.0087,5.3432,15.9778,12.9638,2.6365,14.8560,0.4057,11.8334,2.0875,-9.0309,-6.8265,-5.1528,-9.9878,-11.5803,12.5503,-1.9871
1089.8438,3.4728,16.4364,17.4713,0.0380,3.7307,18.7506,13.9414,1.9427,12.3681,-0.5693,8.5242,-0.9929,-12.3979,-12.3093,-7.5908,-10.6305,-15.9103,11.6071,-5.4094
1093.7500,3.0009,14.9995,16.5473,0.3566,3.8733,20.5244,14.3509,3.2995,8.4706,-2.6081,4.3372,-3.2992,-13.6513,-14.0842,-10.1806,-10.7498,-18.2206,9.0221,-7.1165
1097.6562,2.2798,13.5233,15.3556,2.7299,5.6830,21.0249,14.0423,6.3447,4.5218,-5.1973,0.2557,-4.2805,-12.3645,-12.0134,-12.2014,-11.0354,-18.3353,5.3962,-6.9034
1101.5625,1.9070,12.4325,14.4331,6.4558,8.9511,20.3859,13.5519,10.4869,1.9455,-7.3135,-2.4801,-3.5967,-8.5326,-7.1330,-13.3810,-12.2559,-16.7208,2.2279,-4.6170
1105.4688,2.1463,11.8946,14.5275,10.6965,13.3916,19.0320,13.7794,15.1318,1.5510,-7.9949,-2.7993,-1.0550,-2.5628,-0.7722,-13.8101,-14.4589,-14.0542,1.1098,-0.1119
1109.3750,2.7071,11.7450,16.1318,14.8029,18.6214,17.3733,15.2870,19.7543,3.1424,-7.0179,-0.4193,3.2783,4.8453,6.3296,-13.6672,-16.6213,-10.7161,2.7372,6.5577
1113.2812,2.8878,11.6228,19.0369,18.4627,24.1126,15.5673,17.7697,23.8625,5.6657,-5.1600,3.7695,8.8443,12.8445,14.2102,-13.0519,-17.1303,-6.5850,6.4115,14.8142
1117.1875,2.0431,11.2435,22.2512,21.6052,29.1889,13.5520,20.1449,26.9914,7.8073,-3.7713,7.9461,14.5163,20.5510,23.0583,-12.0514,-14.8384,-1.3005,10.4028,23.3849
1121.0938,0.0755,10.5863,24.3927,24.1419,33.1090,11.3077,21.2281,28.7928,8.6499,-3.8959,10.2048,18.9019,27.1015,32.3087,-10.9095,-9.9560,5.1733,12.9196,30.5176
1125.0000,-2.4207,9.8066,24.3241,25.7329,35.2157,9.0794,20.4950,29.1514,7.9541,-5.5684,9.4987,20.9158,31.6823,40.2315,-10.0672,-4.1144,12.0903,12.9995,34.5538
1128.9062,-4.5255,8.9028,21.6355,25.7736,35.0847,7.3074,18.3579,28.1981,5.9271,-7.8392,6.0465,20.2418,33.5839,44.4441,-9.9879,0.4884,17.9400,10.7349,34.5649
1132.8125,-5.6524,7.4227,16.7172,23.6720,32.6166,6.2791,15.7746,26.1835,2.7467,-9.5414,0.9448,17.3400,32.3331,43.1116,-10.9078,2.2895,21.0263,6.7970,30.6933
1136.7188,-6.0149,4.5437,10.4691,19.2880,28.0644,5.8073,13.5339,23.3243,-1.6886,-10.2220,-4.6675,13.0156,27.9061,36.1024,-12.7330,1.1168,20.3211,1.7725,24.0267
1140.6250,-6.5033,-0.3886,3.9202,13.2563,22.0213,5.2729,11.7943,19.7818,-7.5086,-10.4873,-10.2159,7.9227,20.9315,25.3532,-15.1675,-1.9516,16.0990,-4.0861,16.1265
1144.5312,-7.9965,-7.1742,-1.9992,6.9222,15.3720,4.0894,10.2065,15.8052,-14.3067,-11.4515,-15.6213,2.4092,12.7140,14.1658,-17.9343,-5.4289,9.9401,-10.5302,8.4893
1148.4375,-10.5893,-14.4581,-6.5131,1.8231,9.1631,2.2575,8.4464,11.8822,-20.7988,-13.7007,-20.7192,-3.2345,4.9294,5.7730,-20.8715,-8.3246,4.0314,-16.8209,2.1774
1152.3438,-13.3463,-20.1734,-9.0532,-1.0583,4.3452,0.5343,6.6497,8.6721,-25.1603,-16.6196,-24.8021,-8.4677,-0.9915,1.9120,-23.8258,-10.5286,0.1073,-21.6865,-2.3341
1156.2500,-14.8429,-22.5741,-9.4474,-1.8465,1.4185,-0.0044,5.3492,6.6627,-25.9916,-18.6907,-26.8248,-12.5600,-4.5285,2.1248,-26.4961,-12.5449,-1.3967,-23.9666,-5.1678
1160.1562,-14.1647,-21.2350,-8.1593,-1.7609,0.1468,1.2568,4.9733,5.7633,-23.3033,-18.6093,-26.2081,-15.0927,-6.3807,4.1163,-28.4542,-14.9090,-1.4950,-23.5202,-6.9734
1164.0625,-11.6413,-17.3317,-6.3077,-2.4772,-0.4429,3.9359,5.3641,5.1944,-18.7628,-16.3709,-23.5727,-16.4836,-8.1306,4.9753,-29.4044,-17.7579,-1.9983,-21.6176,-8.7364
1167.9688,-8.7320,-12.9636,-5.2606,-5.1897,-1.6606,6.8102,5.7751,3.8726,-14.8817,-13.4353,-20.6707,-17.9579,-11.3411,2.6438,-29.4732,-20.7861,-4.4125,-20.3291,-11.4073
1171.8750,-7.0826,-9.9374,-5.9162,-9.9156,-4.4869,8.6045,5.4095,1.1187,-13.5685,-11.7580,-19.3794,-20.7691,-16.5712,-3.0957,-29.2179,-23.4789,-9.0158,-21.1922,-15.4203
1175.7812,-7.3974,-8.8108,-8.1009,-15.4615,-8.9982,8.8484,4.0815,-2.7923,-14.9766,-12.3658,-20.4071,-25.1313,-22.9318,-10.6174,-29.2437,-25.3543,-14.6533,-24.0736,-20.3490
1179.6875,-8.9437,-8.8039,-10.5477,-20.0793,-14.2531,8.1600,2.4531,-6.6780,-17.4343,-14.5565,-22.6949,-29.6958,-28.5127,-17.4301,-29.6762,-26.0581,-19.3728,-27.0991,-24.9794
1183.5938,-10.0636,-8.5635,-11.5738,-22.4063,-18.7600,7.7391,1.6120,-9.1323,-18.5282,-16.3591,-24.0422,-32.1140,-31.4490,-21.5887,-29.9301,-25.3666,-21.5204,-27.7918,-27.8618
1187.5000,-9.3378,-7.1737,-10.0831,-22.1189,-21.2653,8.4520,2.2788,-9.4126,-16.6200,-15.9387,-22.5753,-30.4390,-30.9426,-22.7156,-29.0396,-23.2382,-20.6357,-24.6668,-28.0606
1191.4062,-6.5689,-4.6858,-6.2483,-19.9285,-21.3715,10.1986,4.2332,-7.9151,-11.7951,-12.9037,-18.0142,-24.4237,-27.5621,-21.9979,-26.3669,-19.9356,-17.6098,-18.1821,-25.6226
1195.3125,-2.8946,-1.8712,-1.4159,-16.9887,-19.5949,12.0200,6.3891,-5.8994,-5.6679,-8.5475,-11.8258,-15.7717,-22.6508,-21.1543,-22.1626,-16.0757,-14.0371,-10.4057,-21.4326
1199.2188,0.0119,0.4874,2.6995,-14.1537,-16.8626,12.8220,7.4587,-4.6580,-0.2731,-4.8819,-6.1847,-7.1269,-17.3131,-21.0623,-17.5138,-12.4502,-11.2028,-3.6927,-16.5567
1203.1250,1.0359,2.1351,4.9787,-11.5906,-13.8428,12.1253,6.7196,-4.7220,3.1269,-3.2359,-2.5573,-0.5150,-11.7604,-21.0255,-13.6773,-9.6490,-9.3700,0.6524,-11.5642
1207.0312,0.2177,3.2972,5.3814,-8.9547,-10.6115,10.2717,4.3548,-5.6418,4.5262,-3.4873,-0.9604,3.6536,-5.5098,-19.2705,-11.2904,-7.7417,-7.8093,2.8217,-6.3517
1210.9375,-1.5171,4.1738,4.6897,-5.9221,-6.8792,7.9833,1.1921,-6.4415,4.7515,-4.4496,-0.3675,6.3623,1.7521,-14.3940,-10.0633,-6.2942,-5.5068,3.8869,-0.6003
1214.8438,-3.1928,4.5002,3.7876,-2.6323,-2.5496,5.6991,-1.8787,-6.3510,4.6007,-5.0044,0.1906,8.8371,9.3716,-6.7256,-9.1801,-4.7540,-2.0255,4.7426,5.5242
1218.7500,-4.4899,3.6300,3.0585,0.3094,1.8885,3.2669,-4.3466,-5.2599,4.2604,-5.0111,0.7977,11.4419,15.7165,1.4715,-8.0591,-2.9240,2.0861,5.4813,11.0508
1222.6562,-5.8015,1.1159,2.3214,2.2629,5.5060,0.2371,-6.0999,-3.6105,3.3923,-5.2703,0.7620,13.4848,19.0631,7.2564,-6.8391,-1.1347,5.6090,5.6141,14.6138
1226.5625,-7.6776,-2.6975,1.2702,3.0705,7.5374,-3.5169,-7.1294,-1.9075,1.6994,-6.6371,-0.5031,14.0042,18.7724,8.9268,-6.1948,0.0426,7.4475,4.8160,15.3529
1230.4688,-10.1833,-6.6185,-0.0175,3.2408,7.9663,-7.4114,-7.2644,-0.3032,-0.5863,-9.0880,-2.6623,12.7887,15.8560,7.2160,-6.6645,0.3062,7.3314,3.4661,13.6237
1234.3750,-12.7224,-9.2215,-0.9586,3.6299,7.5877,-10.3607,-6.2170,1.4014,-2.7284,-11.5596,-4.4779,10.7202,12.4453,4.8229,-8.0882,-0.0917,5.9477,2.4891,10.9153
1238.2812,-14.4578,-9.7205,-0.8456,4.8272,7.4397,-11.4529,-3.9040,3.3847,-3.9909,-12.7145,-4.7141,9.1319,10.4781,4.5214,-9.6620,-0.5633,4.4450,2.6340,8.9491
1242.1875,-14.9557,-8.4619,0.5756,6.6839,8.0072,-10.5823,-0.7561,5.4270,-4.1900,-12.0071,-3.1941,8.7238,10.5168,7.1875,-10.5771,-0.7431,3.6978,3.8186,8.5697
1246.0938,-14.5146,-6.6722,2.7984,8.3326,8.8205,-8.5573,2.2878,6.8880,-3.8345,-10.1724,-1.1098,8.9641,11.5319,11.2116,-10.6934,-0.8863,3.8508,5.1066,9.2392
1250.0000,-13.9199,-5.6545,4.7770,8.7049,8.7981,-6.6142,4.1561,7.0864,-3.7505,-8.7346,-0.2646,8.4989,11.7859,13.7735,-10.6473,-1.7010,4.4231,5.3531,9.5207
1253.9062,-13.8434,-6.0201,5.5323,7.2086,7.1093,-5.7074,4.1626,5.7836,-4.4967,-8.9206,-1.7937,6.2546,10.1539,13.0518,-11.2680,-3.6764,4.8243,4.0122,8.2062
1257.8125,-14.3798,-7.4737,4.7188,4.1183,3.9057,-6.0723,2.3389,3.3867,-6.0163,-10.8206,-5.3377,2.3380,6.9271,9.6978,-12.7816,-6.4491,4.8547,1.4882,5.2526
1261.7188,-15.0648,-9.2143,2.7779,0.4312,0.3412,-7.2983,-0.6128,0.7103,-7.7515,-13.4072,-9.2986,-1.9926,3.5572,6.4200,-14.4923,-8.7973,4.8189,-1.1990,1.8342
1265.6250,-15.3078,-10.5594,0.6134,-2.6996,-2.1728,-8.7494,-3.6863,-1.5153,-9.0739,-15.3252,-11.9652,-5.2480,1.5932,5.9506,-15.2530,-9.3968,5.2071,-3.1209,-0.5147
1269.5312,-14.8512,-11.2992,-0.9520,-4.5809,-2.9339,-9.9599,-6.0232,-3.0201,-9.6761,-15.7900,-12.6368,-6.7665,1.6244,8.9182,-14.3705,-7.8287,6.2259,-3.9608,-1.0081
1273.4375,-13.8895,-11.5874,-1.5733,-5.2583,-2.4053,-10.7512,-7.2187,-4.0063,-9.6575,-14.9272,-11.9201,-7.0672,2.9768,13.2582,-12.2017,-5.0487,7.5499,-4.0072,-0.1321
1277.3438,-12.8119,-11.5824,-1.4240,-5.3210,-1.8001,-11.1118,-7.3788,-4.8399,-9.3225,-13.4052,-11.0505,-7.2533,4.3076,15.6512,-9.9191,-2.8642,8.4756,-3.7312,0.7981
1281.2500,-11.8495,-11.2277,-0.9374,-5.4010,-2.0900,-11.0705,-6.9648,-5.6961,-8.9172,-11.7880,-10.8472,-7.9959,4.5902,13.9464,-8.5953,-2.7098,8.3558,-3.3655,0.6957
1285.1562,-10.9561,-10.3639,-0.4739,-5.7099,-3.1805,-10.7257,-6.5237,-6.4192,-8.5201,-10.1858,-11.1404,-8.9375,3.7677,8.7870,-8.3302,-4.5918,7.0137,-2.8146,-0.4279
1289.0625,-9.9995,-9.0242,-0.1288,-5.9007,-3.8836,-10.3605,-6.4135,-6.6565,-8.1146,-8.4355,-11.0694,-8.9768,2.6797,3.2502,-8.1382,-7.0055,4.8852,-1.8862,-1.4206
1292.9688,-9.0379,-7.5822,0.2499,-5.3157,-2.7337,-10.4346,-6.6224,-6.1133,-7.7080,-6.5397,-9.9350,-7.1645,2.4292,0.7941,-6.7245,-7.9478,2.8337,-0.5633,-0.7891
1296.8750,-8.3818,-6.5668,0.8980,-3.4410,0.9301,-11.3398,-6.7712,-4.7299,-7.3617,-4.8949,-7.8802,-3.4789,3.7006,3.0141,-3.5734,-6.3332,1.7727,0.9408,2.2517
1300.7812,-8.3563,-6.2881,1.9436,-0.2825,6.3839,-13.0576,-6.3403,-2.6929,-7.1330,-4.0823,-5.8707,1.1010,6.4578,8.7666,0.4885,-2.8065,2.2821,2.3426,7.2144
1304.6875,-8.9771,-6.6076,3.2847,3.5577,11.8511,-15.0141,-5.0353,-0.3348,-7.0326,-4.4269,-5.0333,5.2087,10.0824,15.1292,3.6982,0.6309,4.3576,3.4563,12.6059
1308.5938,-9.8563,-7.0672,4.5880,7.1461,15.5136,-16.3197,-3.0742,1.9803,-7.0708,-5.7388,-5.8948,7.8641,13.7094,19.3321,4.4531,1.9198,7.3546,4.1937,16.7813
1312.5000,-10.4575,-7.2634,5.4325,9.6788,16.5269,-16.2772,-1.1585,3.9528,-7.3281,-7.4602,-8.0691,8.8485,16.5040,20.2318,2.3203,0.2577,10.1576,4.4550,18.7854
1316.4062,-10.5007,-7.1167,5.5665,10.8943,15.4078,-14.7980,-0.0564,5.4519,-7.9136,-9.0489,-10.5385,8.5453,17.8196,18.4526,-1.7199,-3.4525,11.5724,4.1294,18.6874
1320.3125,-10.1604,-6.7827,5.1654,11.2213,13.6208,-12.4117,-0.0183,6.6322,-8.7693,-10.2272,-12.2272,7.5475,17.3433,15.4404,-5.9047,-7.2643,10.8507,3.3195,17.3196
1324.2188,-9.8655,-6.2909,4.9111,11.5697,12.7086,-9.8650,-0.4392,7.9694,-9.4696,-10.8930,-12.4440,6.4201,15.2775,12.4112,-8.7072,-9.4363,8.1236,2.6142,15.7146
1328.1250,-9.8587,-5.2824,5.7479,12.8532,13.5252,-7.6280,-0.0947,10.0964,-9.2617,-10.8659,-11.0020,5.7048,12.4232,9.9999,-9.5729,-9.4111,4.4601,3.0525,14.6222
1332.0312,-9.8978,-3.1721,8.3516,15.4738,15.9629,-5.6898,2.0960,13.4297,-7.4550,-9.8297,-8.1291,5.9291,9.9511,8.5975,-8.9961,-7.9481,1.4027,5.5851,14.3065
1335.9375,-9.3818,0.3164,12.5882,19.0427,19.1922,-3.7745,6.2427,17.7817,-3.9630,-7.6339,-4.3821,7.3740,8.8346,8.7117,-8.0347,-6.4647,0.1528,10.2838,14.5874
1339.8438,-7.8269,4.6722,17.3472,22.5077,22.1589,-1.7515,11.1855,22.2578,0.4087,-4.7044,-0.6118,9.6913,9.2482,10.7717,-7.6592,-6.1344,0.8726,15.8955,14.9946
1343.7500,-5.3133,8.6424,20.9705,24.6535,24.0379,0.1334,15.0226,25.6090,4.2381,-2.0910,2.1702,11.7784,10.3981,14.4949,-8.3011,-7.3247,2.5914,20.2345,14.9619
1347.6562,-2.5284,10.8919,22.1220,24.7221,24.4856,1.4098,16.1979,26.8933,6.2465,-0.9264,3.1511,12.2458,11.0165,18.5283,-9.7359,-9.6079,3.8478,21.3392,14.0651
1351.5625,-0.3585,10.8579,20.5895,22.8099,23.6777,1.7753,14.4579,26.0299,6.0671,-1.6124,2.1790,10.3241,10.2559,20.9643,-11.2474,-12.1608,3.6775,18.6973,12.2716
1355.4688,0.6573,9.1635,17.4768,19.8052,22.1767,1.3775,11.0269,23.8458,4.4757,-3.3972,-0.0265,6.5674,8.3357,20.5422,-11.9702,-14.2047,2.2568,13.6750,10.0623
1359.3750,0.5938,7.2442,14.5967,16.8923,20.6673,0.7366,7.8605,21.5474,2.8888,-4.8032,-2.1951,2.7048,6.4061,17.6133,-11.3173,-15.2522,0.7059,8.7716,8.2596
1363.2812,-0.0381,6.4249,13.4121,14.9158,19.6265,0.3768,6.4645,19.9697,2.4624,-4.6883,-3.2508,0.5845,5.6667,13.9751,-9.3533,-15.1559,0.1656,6.1476,7.5609
1367.1875,-0.7151,7.1087,14.2042,13.9943,19.0747,0.4880,7.0654,19.1340,3.4247,-3.1408,-2.9778,0.9148,6.3977,11.5610,-6.8945,-14.0621,0.8396,6.4124,8.0408
1371.0938,-1.1910,8.6549,16.0116,13.6174,18.5887,0.8963,8.6574,18.4269,5.1015,-1.4401,-2.0747,2.7793,7.6986,10.9839,-5.1509,-12.3300,1.7806,8.4865,9.0136
1375.0000,-1.4466,9.9878,17.3621,13.1477,17.6476,1.3336,9.8332,17.2453,6.5606,-1.0244,-1.5007,4.3861,8.2196,11.1767,-4.9869,-10.3863,1.6633,10.5703,9.4663
1378.9062,-1.4323,10.4241,17.2686,12.3762,16.1389,1.7262,9.7706,15.6026,7.3396,-2.2396,-1.5953,4.5430,7.3701,10.5383,-6.2225,-8.5098,0.0038,11.4572,8.8458
1382.8125,-0.9345,10.0693,15.7985,11.7450,14.6639,2.2146,8.6876,14.2224,7.6829,-3.9016,-1.6962,3.7128,6.0343,8.6979,-7.5311,-6.6487,-2.1443,11.2214,7.6438
1386.7188,0.2428,9.5202,13.8603,12.0759,14.3319,2.8876,7.5120,14.0504,8.1376,-4.1120,-0.6263,3.7474,6.1294,7.3592,-7.1801,-4.4472,-2.6732,10.8429,7.2712
1390.6250,1.9339,9.1934,12.4379,13.9851,16.0729,3.5080,7.0950,15.5618,8.8976,-1.7567,2.2756,6.4125,9.2164,9.3008,-4.2398,-1.5494,0.1297,11.1730,9.1838
1394.5312,3.4836,8.8982,11.8848,17.3820,19.8887,3.5471,7.5965,18.3880,9.4909,2.4911,6.4012,11.8049,15.1619,16.1007,0.5788,1.9808,6.1707,12.1272,13.8020
1398.4375,4.0788,8.0347,11.7999,21.3949,24.5988,2.5762,8.4787,21.5222,9.1148,6.5108,10.0618,17.9273,21.8977,26.3289,5.1695,5.4532,13.2582,12.7545,19.9943
1402.3438,3.3718,6.2454,11.5183,24.7784,28.3539,0.7134,9.0409,23.9168,7.3714,8.2226,11.5716,21.8431,26.5592,35.7944,7.3360,7.7925,18.2638,12.0871,25.5590
1406.2500,1.8997,3.9376,10.7704,26.5342,29.6494,-1.2843,9.0191,25.0074,4.7904,7.0941,10.4496,21.6134,27.2539,39.9481,6.2994,8.1426,19.0093,10.0357,28.4430
1410.1562,0.8826,2.1831,9.9563,26.3539,28.1762,-2.4350,8.7612,24.8101,2.6688,4.4877,7.8136,17.5869,24.2061,36.8417,3.2916,6.4356,15.5880,7.5761,27.8928
1414.0625,1.4471,2.0228,9.8238,24.6339,24.9189,-2.1751,8.8647,23.6178,2.2852,2.5725,5.6270,12.0857,19.4646,28.4791,0.7242,3.4975,10.1913,6.0630,24.7626
1417.9688,3.8206,3.7151,10.8376,22.1174,21.4327,-0.7309,9.6064,21.6366,4.0526,2.6665,5.3347,7.7469,15.4122,19.4918,0.4860,0.5744,5.5751,6.2237,20.8009
1421.8750,7.1269,6.5413,12.7694,19.4504,18.8258,1.0946,10.6542,18.9074,7.2381,4.3260,6.9006,5.7960,13.1899,14.0367,2.6290,-1.4061,3.2715,7.6340,17.4678
1425.7812,9.9824,9.3405,14.8459,16.9506,17.1793,2.5606,11.3090,15.5499,10.4514,5.8850,8.9570,5.5293,12.1797,13.1520,5.4530,-2.3120,2.8068,9.0800,15.1359
1429.6875,11.4592,11.3456,16.3190,14.6805,15.7921,3.5280,11.0822,12.0429,12.5271,5.9625,9.9203,5.2989,10.8469,14.4673,6.9304,-2.6923,2.4159,9.4952,13.1946
1433.5938,11.6644,12.6389,16.9770,12.6709,13.9904,4.4371,10.1323,9.1960,13.1479,4.6693,9.1916,4.1045,8.2080,14.3871,6.3538,-3.1877,0.6276,8.7202,10.8656
1437.5000,11.4755,13.8470,17.1704,11.0438,11.8133,5.7216,9.1797,7.7304,12.7901,3.5096,7.5266,2.4635,4.7385,11.0126,4.8926,-3.9397,-2.5155,7.4979,8.0072
1441.4062,11.6493,15.3323,17.3378,9.9048,10.0040,7.1519,8.9267,7.7533,12.1201,4.0626,6.3309,1.8780,2.0195,5.5641,4.6061,-4.4515,-5.5056,6.7470,5.2501
1445.3125,12.0576,16.5772,17.4437,9.1048,9.3185,7.7012,9.4113,8.5529,11.3771,6.5575,6.4864,3.3919,1.4339,1.2811,6.7103,-3.9754,-6.5855,6.7275,3.3876
1449.2188,11.7204,16.3380,16.8260,8.1178,9.7424,6.1383,9.8075,8.9349,10.2446,9.5528,7.6534,6.4834,2.9672,0.7427,10.5218,-2.0931,-5.1471,6.7742,2.5704
1453.1250,9.6623,13.5397,14.6238,6.2221,10.3056,1.9600,8.8818,7.9203,8.2749,11.0219,8.5849,9.2497,5.0730,3.7449,13.9716,0.9722,-2.2281,5.8052,2.0209
1457.0312,5.9112,8.2580,10.4812,2.9388,9.7184,-4.0421,5.8361,5.3429,5.4669,9.9761,8.1685,9.7760,5.7238,7.3817,15.2961,4.5160,0.2442,3.1966,0.5612
1460.9375,1.7802,2.0049,4.9763,-1.5413,7.3840,-10.0564,0.9655,1.9488,2.4837,7.2924,6.3464,7.6093,3.8573,8.2416,14.5196,7.7972,0.8426,-0.6499,-2.4229
1464.8438,-0.8943,-2.9912,-0.5801,-6.2550,4.0035,-14.2341,-4.3488,-1.0452,0.3038,5.0484,4.1889,4.1625,0.1387,5.0024,13.4648,10.3741,-0.4034,-4.4635,-6.3342
1468.7500,-1.0489,-5.0755,-4.8584,-9.8111,1.2672,-15.7241,-8.3506,-2.6148,-0.4261,4.8823,3.0866,1.7257,-3.4934,-0.5461,14.2164,12.0932,-2.1691,-6.8405,-9.5639
1472.6562,0.7651,-4.1501,-7.2276,-11.0145,0.8083,-15.0633,-9.8896,-2.3836,0.1723,6.6939,3.7129,1.8550,-5.1159,-4.7742,17.2483,12.8409,-2.9071,-7.0128,-10.4282
1476.5625,2.6863,-1.6657,-7.9668,-9.4076,3.1599,-13.6940,-9.0415,-0.6411,1.3258,8.7311,5.5559,4.3687,-3.9803,-4.7566,20.7664,12.3887,-1.9565,-5.1358,-8.1719
1480.4688,2.8339,0.3741,-7.8451,-5.4132,7.4610,-12.9890,-6.9645,1.9856,2.1806,8.9886,7.3421,7.6691,-0.7473,-0.1737,21.8940,10.5526,0.1431,-1.9861,-3.3255
1484.3750,0.6525,0.7085,-7.4098,-0.0135,12.0992,-13.4612,-5.0902,4.9192,2.3878,6.7935,7.9775,10.0562,3.2510,6.7535,18.8523,7.5486,2.2811,1.6157,2.7967
1488.2812,-2.6876,-0.4564,-6.5265,5.8064,15.7976,-14.6302,-4.1820,7.8397,2.2698,3.3181,7.2727,10.9616,7.0549,13.0815,12.4520,4.1742,3.7529,5.2124,9.0273
1492.1875,-5.1389,-1.7385,-4.4998,11.4929,18.3512,-15.5139,-3.8788,10.6660,2.4773,0.6344,5.9438,11.1702,10.6134,17.2337,5.6981,1.5322,4.7706,8.7229,14.9838
1496.0938,-5.2484,-1.6214,-0.6685,16.9811,20.5215,-15.3093,-3.0213,13.4281,3.4317,0.0923,4.9736,11.9485,14.4768,19.8186,1.7521,0.3943,6.1347,12.1737,20.9645
1500.0000,-3.1729,0.4994,4.9756,22.3875,23.2391,-13.8001,-0.5362,16.1510,4.9820,1.3103,4.8765,13.8577,18.9915,22.7142,1.7645,0.6579,8.4022,15.4439,27.2510
1503.9062,-0.5181,3.9529,11.5881,27.5916,26.7525,-11.3290,3.7187,18.7841,6.5049,2.5379,5.4129,16.2148,23.6962,27.2838,4.1821,1.3540,11.2729,18.2285,33.4250
1507.8125,0.8324,7.2797,17.8174,32.0216,30.3450,-8.5057,8.7202,21.1433,7.3298,2.0408,5.8826,17.5851,27.3979,33.1339,5.9953,1.2747,13.6972,20.1936,38.2723
1511.7188,0.0052,9.1653,22.4466,34.8073,32.7731,-5.9325,12.8242,22.8717,7.1475,-0.6214,5.6790,16.8538,28.8469,38.2746,4.9238,-0.1980,14.5981,21.1438,40.3764
1515.6250,-2.3835,9.1713,24.9104,35.2148,33.0556,-4.0791,14.7345,23.4941,6.1261,-4.3955,4.6509,14.0185,27.4930,40.4274,0.8981,-2.6718,13.6117,21.0605,38.9768
1519.5312,-4.8295,7.8343,25.4030,33.0862,31.0408,-3.2423,14.2608,22.6307,4.7081,-7.6697,3.0629,10.1386,23.7934,38.4406,-4.1732,-5.0556,11.2761,20.0310,34.4764
1523.4375,-6.0894,6.1715,24.5892,29.0065,27.4200,-3.4720,12.3678,20.3018,3.3003,-9.5039,1.2992,6.5853,18.9264,32.8542,-7.9950,-6.3726,8.5709,18.1933,28.2623
1527.3438,-5.9942,5.0030,23.1703,24.0883,23.2848,-4.4736,10.4988,17.1082,2.0969,-10.1575,-0.3736,4.2388,14.1844,25.4119,-9.5047,-6.4591,6.2262,15.7809,21.9961
1531.2500,-5.3816,4.5479,21.5840,19.4960,19.6032,-5.6333,9.6407,14.0735,1.1247,-10.5762,-1.8069,3.2175,10.4697,18.0670,-9.3088,-6.0199,4.3549,13.2139,16.8707
1535.1562,-5.3052,4.4893,19.9621,15.9781,16.9371,-6.2761,9.7639,12.1450,0.4059,-11.3838,-2.8251,3.2024,8.1355,12.2221,-8.7860,-6.0069,2.6420,11.0930,13.2788
1539.0625,-6.1961,4.3623,18.2734,13.6510,15.4498,-6.0630,9.9943,11.6376,0.0630,-12.2852,-3.1594,3.9285,7.1117,8.5427,-8.7682,-6.8113,0.8462,10.0122,10.9831
1542.9688,-7.6048,3.9376,16.4890,12.1196,15.0318,-5.2418,9.3602,12.0184,0.2763,-12.3732,-2.5806,5.3646,7.0954,7.1494,-8.9369,-7.8991,-0.8564,10.2663,9.5305
1546.8750,-8.6415,3.3389,14.6485,10.8182,15.3746,-4.5100,7.5581,12.2437,1.1369,-11.0235,-1.1212,7.4717,7.6565,7.7937,-8.3467,-8.1722,-1.9703,11.6441,8.5536
1550.7812,-8.6974,2.8604,12.8158,9.3507,15.9876,-4.5279,5.1857,11.4606,2.5217,-8.5716,0.8380,9.8641,8.2854,9.8509,-6.4926,-6.7855,-2.0957,13.4670,7.8023
1554.6875,-7.8809,2.6597,10.9953,7.6419,16.2871,-5.4283,3.2888,9.5916,4.0739,-6.1848,2.7323,11.7876,8.4962,12.3195,-3.9217,-3.8160,-1.2699,14.8733,7.0208
1558.5938,-6.8952,2.5587,9.0870,5.8591,15.8303,-6.7205,2.5712,7.3659,5.2923,-5.0457,4.1123,12.5158,8.0142,14.0937,-1.8607,-0.3042,0.0619,15.1898,5.9042
1562.5000,-6.5392,2.0898,6.9195,4.2142,14.5859,-7.7002,2.8560,5.7627,5.6765,-5.5394,4.8342,11.8525,6.9359,14.5056,-1.2306,2.3382,1.4011,14.1944,4.2510
1566.4062,-7.2469,0.7548,4.3509,2.8196,13.0164,-8.0616,3.2023,5.2812,4.8815,-7.0983,4.9967,10.2966,5.7074,13.7727,-1.9426,3.1251,2.5494,12.1660,2.2012
1570.3125,-8.9562,-1.6581,1.3985,1.7041,11.8428,-8.2043,2.5927,5.5995,2.8610,-8.7742,4.7152,8.6972,4.8943,12.9316,-3.0851,1.9684,3.6607,9.7513,0.3289
1574.2188,-11.2766,-4.8770,-1.6569,0.9593,11.6162,-8.9367,0.7017,5.8957,-0.0297,-9.9955,3.9782,7.6678,4.8916,13.1883,-3.8015,-0.4149,4.9831,7.7455,-0.5484
1578.1250,-13.7128,-8.1689,-4.2538,0.8716,12.4082,-10.7567,-1.8048,5.5853,-3.0378,-10.8612,2.7393,7.2377,5.7856,15.1005,-4.0495,-2.9977,6.5564,6.8616,0.2425
1582.0312,-15.7566,-10.5768,-5.6666,1.8977,13.8668,-13.2621,-3.6415,4.8867,-5.1986,-11.7715,1.1579,7.0162,7.4526,18.2000,-4.5618,-4.9560,8.1541,7.5204,2.8979
1585.9375,-16.8778,-11.2672,-5.2503,4.4471,15.5959,-15.1984,-3.6793,4.7447,-5.6960,-12.8016,-0.2844,6.7052,9.7693,21.3617,-6.0545,-5.9072,9.5071,9.6898,7.0760
1589.8438,-16.5946,-9.8510,-2.7294,8.5896,17.5321,-15.1876,-1.5950,6.1309,-4.2547,-13.4429,-0.9812,6.4940,12.7138,23.6442,-8.4139,-5.8524,10.5714,12.8404,12.1226
1593.7500,-14.7145,-6.5537,1.6155,13.8777,19.9731,-12.6590,2.0093,9.2389,-1.3401,-12.9853,-0.6261,6.9744,16.2439,24.9393,-10.6187,-5.0058,11.5517,16.0926,17.3912
1597.6562,-11.6135,-2.1732,6.9829,19.4248,23.1919,-8.3179,6.0309,13.1918,1.9979,-11.2214,0.4737,8.6295,20.0620,25.9056,-11.5076,-3.6869,12.6292,18.5487,22.4224
1601.5625,-8.2751,2.1616,12.3216,24.2173,26.9394,-3.8010,9.4876,16.5118,4.5948,-8.8318,1.4994,11.3200,23.5156,27.2292,-10.7459,-2.2960,13.6360,19.6640,26.8854
1605.4688,-5.9285,5.3487,16.7082,27.4911,30.2748,-0.7420,11.9173,18.0279,5.7023,-7.0552,1.6330,14.2097,25.7920,28.8137,-9.1484,-1.2709,14.0119,19.4391,30.3958
1609.3750,-5.4260,6.6657,19.6346,28.9571,31.9449,0.1208,13.3646,17.5729,5.2722,-6.8440,0.6256,16.2125,26.3180,29.5904,-8.0493,-0.9447,13.1504,18.2922,32.4234
1613.2812,-6.7469,5.9951,21.0650,28.7652,31.1041,-0.7766,14.0878,15.9812,3.8371,-8.1565,-1.0188,16.6265,25.0788,28.1781,-8.2274,-1.3693,10.8987,16.6876,32.4274
1617.1875,-8.9852,3.8390,21.2727,27.2703,27.8760,-2.2752,14.2802,14.4197,2.0993,-9.9539,-2.4121,15.4776,22.6030,23.9533,-9.2831,-2.2538,7.7993,14.7809,30.1637
1621.0938,-10.8636,1.1118,20.5982,24.7882,23.3415,-3.2864,14.0085,13.5662,0.5167,-10.9244,-2.9399,13.3456,19.6151,17.7331,-9.9982,-3.1139,4.8380,12.3515,25.9491
1625.0000,-11.4562,-1.2188,19.2904,21.5120,18.9460,-3.3676,13.3343,13.2306,-0.8507,-10.3975,-2.7091,10.8641,16.6131,11.5128,-9.3854,-3.5516,2.8417,9.0797,20.6713
1628.9062,-10.6560,-2.5048,17.4986,17.6177,15.7308,-2.7569,12.4269,12.6517,-2.1873,-8.7737,-2.4412,8.3209,13.6835,7.3611,-7.5587,-3.4694,1.9596,4.9556,15.4844
1632.8125,-9.1145,-2.6503,15.3464,13.4248,13.9003,-1.9768,11.5146,11.1921,-3.6378,-7.1861,-2.9019,5.6516,10.6561,6.1844,-5.7043,-3.0616,1.6028,0.4840,11.3297
1636.7188,-7.7422,-2.0997,12.9679,9.4285,12.9543,-1.3907,10.7006,8.8784,-5.1372,-6.6828,-4.3212,2.7575,7.4140,7.1799,-5.1758,-2.6172,0.8729,-3.5119,8.5318
1640.6250,-7.1368,-1.5814,10.4507,6.1196,12.1946,-1.0403,9.8210,6.3904,-6.4738,-7.5405,-6.2618,-0.2054,4.0606,8.3447,-6.4565,-2.3230,-0.8508,-6.3771,6.6811
1644.5312,-7.3031,-1.7360,7.7427,3.6922,11.1799,-0.7993,8.4990,4.5395,-7.4985,-9.1583,-8.0249,-2.8684,0.7961,7.7112,-8.8251,-2.2446,-3.5784,-8.0575,4.8616
1648.4375,-7.7856,-2.8144,4.6468,1.8648,9.8298,-0.6206,6.3880,3.6587,-8.2803,-10.5241,-9.2503,-5.0048,-2.3506,4.5271,-10.9679,-2.4800,-6.8041,-9.1537,2.1132
1652.3438,-8.0518,-4.6039,0.9661,-0.0036,8.2236,-0.6291,3.4336,3.3666,-9.0712,-10.8564,-10.2139,-6.8610,-5.6253,-0.3280,-12.0104,-3.2925,-9.8609,-10.5394,-2.0839
1656.2500,-7.8381,-6.6031,-3.2675,-2.5138,6.3947,-1.0019,-0.0312,2.8667,-10.1106,-9.9921,-11.5769,-9.1045,-9.3055,-4.8758,-12.1233,-5.0198,-12.2115,-12.7988,-7.5124
1660.1562,-7.2580,-8.3233,-7.6425,-5.7689,4.3714,-1.7783,-3.4096,1.5499,-11.4319,-8.3474,-13.7836,-12.3255,-13.2469,-7.1241,-12.2416,-7.7506,-13.4919,-15.8565,-13.2308
1664.0625,-6.6580,-9.5183,-11.4276,-9.1670,2.4191,-2.7865,-6.0751,-0.5370,-12.8159,-6.5960,-16.5874,-16.4172,-16.6063,-6.0239,-13.1736,-11.0115,-13.4055,-19.0223,-17.8940
1667.9688,-6.3534,-10.2041,-13.8332,-11.6157,1.1832,-3.7376,-7.5575,-2.6715,-13.9097,-5.3228,-19.0792,-20.3189,-18.0608,-1.7955,-14.8556,-13.7775,-11.7063,-21.3755,-20.2520
1671.8750,-6.4009,-10.4810,-14.3241,-12.0820,1.4694,-4.3757,-7.6046,-3.8736,-14.3962,-4.8144,-20.1986,-22.3929,-16.4926,4.4254,-16.3481,-14.9205,-8.3913,-22.2084,-19.6259
1675.7812,-6.5088,-10.3114,-12.7963,-10.1578,3.7127,-4.5397,-6.1760,-3.4663,-14.0886,-4.9943,-19.3484,-21.2746,-11.7250,11.2593,-16.5440,-13.8691,-3.9488,-21.2631,-16.1590
1679.6875,-6.1156,-9.4363,-9.5355,-6.2980,7.5176,-4.1082,-3.4551,-1.4263,-12.9133,-5.4499,-16.6777,-16.6875,-4.7988,17.6064,-14.9920,-11.0329,0.6283,-18.6953,-10.7355
1683.5938,-4.6199,-7.5092,-5.0278,-1.5819,11.6869,-2.9383,0.1109,1.6585,-10.8548,-5.5480,-12.8828,-9.7128,2.4408,22.7746,-12.1924,-7.6493,4.2147,-14.8942,-4.6082
1687.5000,-1.6938,-4.3603,0.2166,2.8538,14.8225,-0.9203,3.8388,4.9417,-7.9542,-4.6680,-8.7387,-2.3332,8.2105,26.3064,-9.1844,-5.0883,6.1222,-10.3345,1.0766
1691.4062,2.4517,-0.2055,5.7098,6.3533,16.1288,1.8545,6.9997,7.7333,-4.3756,-2.5080,-4.7331,3.4854,11.5670,27.8043,-6.8089,-4.0464,6.4580,-5.5277,5.6236
1695.3125,7.0150,4.3490,10.9171,8.9230,15.8439,4.9680,9.1268,9.7349,-0.4575,0.7011,-1.0285,6.6553,12.6321,26.9835,-5.2315,-4.1657,5.9658,-1.0066,8.8468
1699.2188,10.8715,8.5174,15.1943,10.9659,14.9615,7.7569,10.2406,11.0015,3.3410,4.2602,2.3252,7.3160,12.1994,23.9199,-4.0341,-4.3499,5.4320,2.7514,10.8611
1703.1250,13.0841,11.6262,17.8575,12.7806,14.4334,9.6085,10.7840,11.7137,6.6012,7.3643,5.1903,6.5420,11.0673,19.2348,-2.7068,-3.5734,5.0953,5.4619,11.7870
1707.0312,13.3877,13.3198,18.4028,14.1928,14.4513,10.2805,11.2528,11.9436,9.1046,9.5358,7.3488,5.6406,9.5801,13.9608,-1.0993,-1.6401,4.5209,7.1304,11.5915
1710.9375,12.3267,13.5935,16.7693,14.5979,14.3631,10.0013,11.7701,11.5834,10.8616,10.8030,8.6794,5.4602,7.6436,9.0863,0.4872,0.6224,3.0451,8.0037,10.1770
1714.8438,10.9095,12.6957,13.4834,13.4113,13.3047,9.2618,11.9538,10.4869,11.9841,11.4717,9.2948,6.0736,5.1074,5.0679,1.5438,1.8715,0.4374,8.3922,7.6455
1718.7500,9.9748,11.0099,9.5754,10.6309,11.0625,8.4616,11.2446,8.7308,12.5148,11.6864,9.4771,6.9508,2.1645,1.6989,1.6695,1.1331,-2.7542,8.5014,4.5214
1722.6562,9.6951,8.9939,6.2779,7.1131,8.4815,7.6961,9.4889,6.8020,12.3805,11.1948,9.4628,7.4606,-0.5441,-1.5051,0.7395,-1.5083,-5.4632,8.4149,1.7289
1726.5625,9.5850,7.1586,4.6196,4.3200,7.0538,6.8549,7.3160,5.5322,11.5402,9.5978,9.2946,7.3740,-2.1727,-4.6486,-1.0751,-4.8421,-6.7728,8.2358,0.2764
1730.4688,9.0197,6.0119,5.0744,3.6283,7.9368,5.9263,5.9290,5.7419,10.2185,6.9400,8.9169,7.0667,-2.0694,-7.0400,-3.3004,-7.1171,-6.4681,8.2325,0.8042
1734.3750,7.8713,5.9198,7.3961,5.5782,11.0961,5.2035,6.3507,7.7497,9.0075,4.1275,8.4540,7.3038,-0.0700,-7.4250,-5.1229,-6.9204,-5.0522,8.8062,3.2580
1738.2812,6.7403,6.9288,10.7030,9.5138,15.2030,5.1477,8.6167,11.0449,8.6785,2.6894,8.4010,8.7399,3.4483,-4.8158,-5.4672,-3.8508,-3.2473,10.2413,6.8856
1742.1875,6.5405,8.6608,13.7908,13.8475,18.3823,5.9557,11.5322,14.3777,9.7572,3.8725,9.4652,11.4355,7.7133,0.6290,-3.3734,1.3381,-1.4244,12.4080,10.5650
1746.0938,7.7013,10.3776,15.5693,16.8195,19.3039,7.1749,13.2646,16.2988,12.1117,7.6377,12.0617,14.6855,11.7791,7.3479,1.3729,7.1217,0.5569,14.6709,13.2718
1750.0000,9.5961,11.2129,15.4526,17.3270,17.8801,7.7414,12.4471,15.8853,14.8414,12.3273,15.7796,17.2696,14.7390,13.0417,7.7362,11.8433,2.9805,16.1263,14.4287
1753.9062,10.7022,10.4712,13.5330,15.3604,15.1308,6.5369,9.0641,13.2301,16.5869,15.3839,19.2456,17.9845,15.9213,15.8994,13.5304,14.2767,5.7307,16.0433,13.9763
1757.8125,9.4908,7.8628,10.4491,11.8307,12.3782,3.1535,4.4894,9.3767,16.1206,14.7631,20.5944,16.1595,15.0778,15.5848,16.2920,13.9167,8.0975,14.2123,12.1940
1761.7188,5.4826,3.5927,7.0134,7.9397,10.3795,-1.6604,0.6242,5.7169,12.9079,10.1442,18.3577,11.8931,12.5125,13.3046,14.5389,10.9920,9.1684,10.9674,9.4484
1765.6250,-0.2688,-1.6956,3.8104,4.5103,8.9904,-6.2367,-1.2890,3.2115,7.3475,3.1306,12.2771,5.9432,9.0441,10.9189,8.6536,6.3081,8.5441,6.9016,6.0540
1769.5312,-5.6523,-7.0789,0.9999,1.6790,7.5141,-8.8281,-1.3667,1.9233,0.5949,-3.6940,3.5622,-0.5877,5.7370,9.7366,0.7727,1.0163,6.7959,2.5236,2.3048
1773.4375,-8.6640,-11.5720,-1.5635,-0.9114,5.3831,-8.5524,-0.8376,1.1385,-5.9041,-8.2132,-5.5669,-6.5603,3.4757,9.8488,-6.3165,-3.6597,5.2400,-1.8711,-1.4202
1777.3438,-8.5115,-14.3773,-4.0035,-3.6203,2.6251,-5.8516,-1.0636,-0.0347,-10.9206,-9.7813,-12.8025,-10.9880,2.5901,10.4129,-10.6043,-6.7365,5.1171,-6.0522,-4.6380
1781.2500,-5.9448,-15.1213,-6.1500,-6.3989,-0.2059,-2.1788,-2.5463,-2.0174,-13.7764,-9.2026,-16.6521,-13.1552,2.7475,10.5560,-11.7234,-7.7662,6.7402,-9.6296,-6.9083
1785.1562,-2.6271,-13.9839,-7.5489,-8.7495,-2.4998,0.8790,-4.6131,-4.4914,-14.4136,-7.8462,-16.8976,-12.7660,3.1840,10.1078,-10.7639,-6.9881,9.2324,-12.0256,-8.0660
1789.0625,-0.0061,-11.6223,-7.7693,-10.0587,-4.0296,2.4939,-5.9565,-6.6516,-13.2406,-6.6171,-14.4611,-10.1259,3.1422,9.5649,-9.2695,-5.2090,11.0618,-12.7437,-8.3501
1792.9688,1.5552,-8.8678,-6.7779,-10.0361,-4.9953,2.9739,-5.5827,-7.7520,-10.8664,-5.4920,-10.8291,-6.1934,2.2627,9.3814,-8.1698,-3.4129,11.0106,-11.7431,-8.2827
1796.8750,2.8477,-6.3201,-5.0759,-8.9271,-5.6728,3.4433,-3.4704,-7.5420,-7.8411,-3.8224,-7.3514,-2.3150,0.7228,9.2800,-7.3576,-2.2753,8.9154,-9.5838,-8.3278
1800.7812,5.1124,-4.0736,-3.4477,-7.3484,-6.0110,5.0762,-0.5077,-6.3169,-4.4986,-1.0360,-4.7208,0.3637,-0.9166,8.2766,-6.0877,-1.8660,5.6950,-7.1557,-8.5459
1804.6875,9.0912,-1.7669,-2.4701,-5.8747,-5.5643,8.3661,2.1677,-4.6166,-0.9534,2.8435,-2.8188,1.5200,-2.0278,5.4860,-3.7775,-1.7369,2.7023,-5.1351,-8.5005
1808.5938,14.4613,1.0489,-2.1260,-4.6814,-3.8546,12.8439,3.8926,-2.8492,2.7640,7.1880,-0.9525,1.8782,-2.2102,1.0528,-0.5692,-1.3485,0.8828,-3.5633,-7.5231
1812.5000,19.9733,4.4623,-1.8137,-3.4909,-0.8790,17.3528,4.7544,-1.1169,6.5199,11.1606,1.6403,2.7820,-1.4300,-3.6399,2.7240,-0.5419,0.3084,-1.8829,-5.1861
1816.4062,24.1368,8.0011,-0.7631,-1.8336,2.6801,20.6733,5.3117,0.6858,9.9747,14.1447,5.2547,5.2987,0.0167,-6.7791,5.1675,0.2952,0.3326,0.5668,-1.6622
1820.3125,25.9909,10.8548,1.4325,0.5873,5.7720,22.1322,6.0769,2.6539,12.6644,15.9227,9.4321,9.4199,1.6659,-7.3808,6.2931,0.5154,0.1709,3.9589,2.2947
1824.2188,25.5215,12.3932,4.5440,3.6923,7.6311,21.8870,7.2005,4.7430,14.2465,16.5973,13.1121,13.9290,3.0913,-5.9866,6.3124,-0.2415,-0.5420,7.7413,5.7577
1828.1250,23.5613,12.6206,7.8718,7.0913,8.2839,20.7775,8.5540,6.8063,14.7547,16.4453,15.1905,17.0835,4.0765,-4.1801,5.8682,-1.6634,-1.5765,10.9431,8.1478
1832.0312,21.3173,12.2204,10.7012,10.3129,8.4964,19.8597,10.0299,8.6984,14.6585,15.8518,15.1908,17.6784,4.6830,-3.2614,5.5711,-2.8842,-2.3607,12.7955,9.4989
1835.9375,19.8219,12.1303,12.6997,12.9858,9.1643,19.8779,11.7125,10.2992,14.6338,15.2925,13.6282,15.7620,5.1642,-3.1529,5.6601,-3.0860,-2.4246,13.2003,10.2783
1839.8438,19.5652,12.9315,13.9789,14.8472,10.5837,20.9364,13.7313,11.4302,15.1594,15.2325,11.7877,12.5074,5.7494,-2.4790,5.9724,-2.1714,-1.7226,12.7059,10.9084
1843.7500,20.4191,14.4845,14.8329,15.6475,12.1646,22.5213,15.9428,11.7952,16.2048,15.9066,10.9962,9.3558,6.4166,0.1855,6.1689,-0.9759,-0.6582,12.0420,11.3721
1847.6562,21.8184,16.0720,15.4139,15.1343,12.8444,23.8408,17.7880,11.0987,17.2502,17.1319,11.8249,7.0779,6.8299,4.9082,6.0175,-0.7848,0.1569,11.6036,11.2323
1851.5625,23.0763,16.9401,15.6338,13.2268,11.9319,24.2811,18.5398,9.3364,17.6491,18.3596,13.7454,5.4470,6.5459,10.0555,5.5520,-2.4286,0.2385,11.2923,10.0757
1855.4688,23.6872,16.8323,15.3531,10.2808,9.7575,23.7139,17.8100,7.0404,17.0887,19.0032,15.4851,3.7239,5.4022,13.4097,5.0379,-5.5961,-0.5191,10.8032,8.0340
1859.3750,23.4811,16.1191,14.6516,7.1835,7.6072,22.4750,15.9141,5.2039,15.8016,18.8145,15.8472,1.5128,3.8149,13.9168,4.7829,-8.9075,-1.7888,10.0619,5.9343
1863.2812,22.5637,15.4323,13.8917,5.0703,6.9157,21.0394,13.7535,4.8074,14.3496,17.9808,14.4311,-0.7418,2.7010,12.6207,4.8939,-10.7721,-2.9671,9.3867,4.8718
1867.1875,21.0880,15.0900,13.4606,4.7237,8.2484,19.6171,12.2408,6.1887,13.1200,16.8221,11.7550,-2.0510,2.9653,11.9034,5.1067,-10.4655,-3.4758,9.1893,5.4451
1871.0938,19.0157,14.7590,13.3775,6.0037,10.7946,17.9579,11.6720,8.6938,11.9180,15.3266,8.7215,-1.7475,4.8344,13.5093,4.8068,-8.6549,-3.0719,9.4450,7.1905
1875.0000,16.0586,13.6223,13.1034,7.7340,12.7698,15.5195,11.5251,10.9143,9.9981,12.9654,5.8577,-0.2110,7.5108,16.9015,3.2930,-6.9597,-2.0021,9.4087,8.6787
1878.9062,11.8843,10.9414,11.7672,8.2263,12.5079,11.8913,10.8566,11.4362,6.5708,9.0435,2.9296,1.1816,9.4847,19.3627,0.1976,-6.8253,-0.8854,7.9096,8.2980
1882.8125,6.4743,6.6067,8.7025,6.2071,9.5345,7.1707,9.0075,9.6477,1.4537,3.3909,-0.7580,0.9259,9.4065,17.9421,-4.1686,-8.5076,-0.3464,4.1138,5.2604
1886.7188,0.3691,1.2771,3.9291,1.6059,4.9149,1.9990,6.0879,6.0875,-4.6077,-3.1621,-5.6078,-1.5252,6.9933,11.8541,-8.8123,-10.9052,-0.5952,-1.7584,0.1756
1890.6250,-5.4333,-3.9892,-1.7718,-4.2975,0.6555,-2.7995,2.8787,2.1110,-10.2247,-9.0028,-11.1236,-5.2688,3.3422,3.4552,-12.4886,-12.3688,-1.2299,-8.3108,-5.1976
1894.5312,-9.9361,-8.3485,-7.2536,-9.4869,-1.4383,-6.7339,0.2435,-0.8855,-14.1148,-12.6195,-15.9701,-8.4393,0.3748,-3.0796,-14.3643,-11.8957,-1.4314,-13.6127,-8.8793
1898.4375,-12.6918,-11.6026,-11.5963,-12.2302,-0.7078,-9.9397,-1.4769,-2.1648,-15.8387,-13.5678,-18.7219,-9.3558,-0.2817,-4.5326,-14.4893,-9.8292,-0.4690,-16.2351,-9.6921
1902.3438,-14.0667,-14.1683,-14.4904,-11.9061,2.1664,-13.0092,-2.6169,-1.8494,-16.0335,-12.7950,-18.7947,-7.5392,1.7351,-0.8669,-13.7231,-7.5537,1.8006,-16.0186,-7.7651
1906.2500,-15.0010,-16.6430,-16.1809,-9.1755,5.7464,-16.4568,-3.7916,-0.5853,-15.9778,-12.0230,-16.8874,-3.9272,5.3303,4.7450,-13.1178,-6.4294,4.7843,-14.0764,-4.2735
1910.1562,-16.3953,-19.2956,-17.0741,-5.4649,8.7170,-20.1992,-5.3006,0.9969,-16.7686,-12.5923,-14.5948,-0.2093,8.6488,8.1212,-13.1735,-6.7808,7.4713,-12.0476,-0.6738
1914.0625,-18.5217,-21.8344,-17.3415,-2.1400,10.4708,-23.4508,-6.8289,2.6062,-18.6392,-14.5886,-13.4383,2.1915,10.1766,6.8877,-13.5101,-7.6993,9.0087,-11.1079,2.0327
1917.9688,-20.8665,-23.5871,-16.8135,0.1159,11.1115,-25.1530,-7.6830,4.2263,-20.8408,-16.8822,-13.9619,2.7912,9.5223,1.8911,-13.2185,-7.7921,9.1378,-11.3745,3.5906
1921.8750,-22.5081,-23.9331,-15.1966,1.4121,11.0481,-24.6678,-7.3486,5.8283,-22.1350,-18.0277,-15.4820,2.0169,7.4221,-3.7068,-11.6390,-6.2882,8.2052,-12.0348,4.2924
1925.7812,-22.7629,-22.6804,-12.3885,2.3074,10.6020,-22.2582,-5.8940,7.1928,-21.5499,-17.3285,-16.6029,0.6696,5.0797,-6.8137,-8.9670,-3.6524,6.7852,-12.0204,4.5806
1929.6875,-21.6394,-20.1458,-8.6168,3.3370,9.9359,-19.0009,-3.8798,8.0302,-18.9191,-15.2677,-16.0957,-0.6122,3.3859,-6.4008,-6.1963,-1.2487,5.2423,-10.7083,4.7889
1933.5938,-19.7916,-16.9196,-4.3003,4.7345,9.2608,-16.1653,-1.8631,8.2878,-14.8930,-13.0201,-13.5449,-1.5092,2.5627,-3.6886,-4.4187,-0.3314,3.5817,-8.1798,5.1470
1937.5000,-18.0265,-13.5041,0.2196,6.4553,9.0140,-14.4626,0.0634,8.3353,-10.4764,-11.4774,-9.4023,-1.8219,2.3783,-0.6179,-4.0109,-1.1425,1.6791,-4.9422,5.9079
1941.4062,-16.7396,-10.0695,4.8328,8.3722,9.7400,-13.6647,2.2813,8.8074,-6.4308,-10.5790,-4.5473,-1.2544,2.6315,1.9684,-4.3452,-2.7897,-0.3471,-1.4187,7.3685
1945.3125,-15.6871,-6.4752,9.5670,10.4221,11.7049,-12.8417,5.1764,10.1728,-2.9302,-9.4632,0.2382,0.5121,3.4426,4.8937,-4.2611,-3.9632,-1.9803,2.3510,9.7008
1949.2188,-14.2433,-2.5209,14.3374,12.5850,14.5608,-11.0491,8.5904,12.3480,0.3419,-7.2860,4.5016,3.4751,5.1191,9.5657,-2.9440,-3.9150,-2.5424,6.5652,12.7321
1953.1250,-11.9398,1.7456,18.7660,14.7524,17.3951,-8.0044,11.6936,14.6705,3.7631,-4.0260,7.9923,7.0225,7.7577,16.2615,-0.5415,-2.9568,-1.6595,11.2123,15.9021
1957.0312,-8.8932,5.8645,22.2409,16.6392,19.2085,-4.3130,13.4532,16.2780,7.3219,-0.6269,10.4150,10.0364,10.9677,23.3249,1.9375,-2.1382,0.4132,15.7168,18.4914
1960.9375,-5.8269,9.0574,24.1843,17.8457,19.5120,-1.1248,13.3693,16.6256,10.4532,1.6287,11.3648,11.4247,13.9798,28.0463,3.3319,-2.4041,2.8822,19.0156,19.9817
1964.8438,-3.6829,10.5520,24.3386,18.0417,18.6024,0.5318,11.8964,15.7735,12.2728,2.0129,10.5428,10.7533,16.0650,28.5845,3.0840,-3.8976,4.8734,20.0788,20.2851
1968.7500,-3.0924,9.9793,22.8723,17.1405,17.3004,0.3038,10.1815,14.2577,12.0780,0.8240,8.0705,8.5293,16.9270,25.3959,1.4896,-5.9094,5.9209,18.5413,19.6719
1972.6562,-4.0393,7.6286,20.2559,15.3418,16.3414,-1.3679,9.2779,12.6805,9.8123,-0.9011,4.6167,5.9160,16.7674,20.9958,-0.6645,-7.4447,6.1414,15.0019,18.4724
1976.5625,-5.8999,4.3971,17.0237,13.0231,15.8779,-3.5845,9.4197,11.3528,6.2073,-2.1698,1.1828,4.0594,16.0097,18.1837,-2.6965,-7.9193,6.0073,10.7521,16.8087
1980.4688,-7.8019,1.4136,13.5847,10.5672,15.4621,-5.5296,9.9054,10.2458,2.4943,-2.6947,-1.3429,3.4711,14.9481,18.0722,-4.3519,-7.4557,5.9471,7.0830,14.5762
1984.3750,-9.0787,-0.5026,10.1664,8.2387,14.5015,-6.8806,9.6679,9.2272,-0.1803,-2.9566,-2.5794,3.8505,13.6260,19.4079,-5.6552,-6.6209,6.1038,4.6108,11.6772
1988.2812,-9.5785,-1.2660,6.8491,6.1652,12.8092,-7.8933,8.0748,8.3251,-1.3193,-3.6888,-2.7593,4.4124,12.0219,19.6662,-6.5415,-5.8955,6.4070,3.0543,8.2908
1992.1875,-9.6974,-1.5818,3.6070,4.3974,10.8085,-9.1755,5.3310,7.7578,-1.3021,-5.2374,-2.5150,4.4493,10.3320,17.0529,-6.7008,-5.3307,6.8208,1.5958,4.9345
1996.0938,-10.1443,-2.5641,0.3272,2.9746,9.2398,-11.3248,2.1984,7.6983,-1.1367,-7.2946,-2.5158,3.7507,9.0481,11.8958,-5.8281,-4.6322,7.4862,-0.4358,2.2529
2000.0000,-11.5568,-5.0989,-3.1437,1.9506,8.6152,-14.6192,-0.6873,7.9986,-1.8706,-9.1587,-3.1762,2.6524,8.7123,6.4349,-4.0476,-3.5310,8.5936,-3.0368,0.6967
2003.9062,-14.1386,-9.3006,-6.8729,1.3748,8.8624,-18.8703,-3.2971,8.1589,-3.9943,-10.2526,-4.5562,1.7582,9.5228,3.2511,-2.0660,-2.0843,10.1030,-5.5152,0.3357
2007.8125,-17.4875,-14.3785,-10.6747,1.2610,9.4273,-23.4548,-6.0621,7.6291,-7.1805,-10.4720,-6.4226,1.5576,11.1163,3.5464,-0.8183,-0.6566,11.5957,-6.9875,0.9225
2011.7188,-20.7180,-18.9969,-14.0369,1.5645,9.7237,-27.4920,-9.2287,6.2364,-10.4962,-10.1290,-8.3748,2.1680,12.7280,6.4914,-0.8270,0.3631,12.4518,-7.0232,2.1023
2015.6250,-22.8538,-21.9244,-16.2586,2.1711,9.5421,-30.1226,-12.2919,4.3903,-12.9388,-9.6094,-9.9630,3.3017,13.6283,9.9687,-1.7852,0.8378,12.2599,-5.9687,3.5600
2019.5312,-23.3135,-22.6034,-16.7722,2.8954,9.0829,-30.8188,-14.0623,2.8599,-13.9548,-9.0676,-10.7934,4.4235,13.5157,12.0131,-2.7312,0.9209,11.1381,-4.7120,4.9921
2023.4375,-22.2237,-21.3333,-15.4598,3.4987,8.6168,-29.6204,-13.4121,2.2446,-13.6358,-8.3963,-10.6353,4.9968,12.5876,11.8573,-2.7061,0.8699,9.6804,-4.0525,5.9986
2027.3438,-20.3536,-19.0129,-12.7388,3.7467,8.1013,-27.1697,-10.1690,2.5164,-12.5172,-7.4432,-9.5067,4.7187,11.2677,9.9555,-1.3866,0.8444,8.5380,-4.1334,6.1000
2031.2500,-18.6813,-16.6448,-9.3392,3.5034,7.1275,-24.4790,-5.4514,2.9912,-11.1711,-6.2420,-7.6846,3.6587,9.8410,7.2131,0.7867,0.8809,7.9448,-4.3576,4.9792
2035.1562,-17.8435,-14.9092,-5.9228,2.8199,5.2811,-22.5002,-1.1256,2.7856,-9.8994,-5.0505,-5.6086,2.2354,8.2920,4.1983,3.0371,1.0296,7.5615,-3.8673,2.8051
2039.0625,-17.8203,-14.0157,-2.8191,1.9511,2.6321,-21.7030,1.2735,1.4572,-8.7214,-4.1865,-3.7278,1.0119,6.4531,0.9642,4.8239,1.4571,6.7693,-2.2523,0.3414
2042.9688,-18.0648,-13.8275,-0.0553,1.2663,-0.0807,-21.9008,1.4042,-0.6189,-7.6040,-3.8316,-2.3908,0.3836,4.3033,-2.5079,6.0638,2.3474,5.1918,0.0313,-1.3558
2046.8750,-17.9787,-14.0876,2.3870,1.0904,-1.7869,-22.4341,0.1716,-2.4149,-6.6991,-3.9730,-1.8397,0.3299,2.1446,-5.7755,6.8628,3.6471,3.0419,1.8633,-1.5306
2050.7812,-17.3800,-14.5637,4.3470,1.5661,-1.7422,-22.6025,-1.0174,-2.8560,-6.3568,-4.5018,-2.2618,0.4089,0.5037,-7.8670,7.0956,4.9052,1.0314,2.1768,-0.2149
2054.6875,-16.6121,-15.0488,5.5218,2.6220,-0.0307,-22.0729,-1.2099,-1.4724,-6.8836,-5.3340,-3.7810,0.0470,-0.1569,-7.7882,6.3188,5.4307,-0.0807,0.7070,1.7735
2058.5938,-16.2129,-15.2930,5.7536,4.0521,2.4700,-21.0062,-0.3865,1.3224,-8.2315,-6.4182,-6.3184,-1.0394,0.3155,-5.2044,4.1830,4.7397,0.0423,-1.7567,3.3706
2062.5000,-16.4101,-14.9915,5.3066,5.6296,4.6469,-19.8413,0.7967,4.4808,-9.8789,-7.6301,-9.4088,-2.5816,1.7320,-0.7566,0.9944,2.9797,1.1596,-3.8137,3.9785
2066.4062,-16.8562,-13.8888,4.8335,7.1565,5.8228,-18.9149,1.6834,6.9066,-11.0337,-8.6884,-12.1748,-3.8778,3.7222,4.2285,-2.1486,0.9697,2.6822,-4.3115,3.8215
2070.3125,-16.8394,-11.9442,4.9667,8.4209,6.0576,-18.2098,2.1090,7.9938,-11.0490,-9.2263,-13.6137,-4.2549,5.9149,8.4089,-3.9099,-0.2471,4.0713,-3.0566,3.6645
2074.2188,-15.8310,-9.4421,5.7982,9.1316,5.8938,-17.4160,2.3435,7.8140,-9.7860,-9.0074,-13.1235,-3.5617,7.9963,11.0137,-3.6251,-0.0660,5.1072,-0.9142,4.1006
2078.1250,-13.9485,-6.9544,6.6627,8.9464,5.7977,-16.2509,2.6267,6.9106,-7.6896,-8.1199,-10.9500,-2.3248,9.6616,12.0097,-1.8453,1.2731,5.8815,0.7490,4.9689
2082.0312,-11.9565,-5.1544,6.4609,7.6423,5.7719,-14.7784,2.7809,5.9055,-5.5398,-6.9720,-8.1973,-1.4161,10.6052,11.8692,-0.0117,2.8480,6.6091,0.8913,5.3939
2085.9375,-10.7765,-4.5633,4.3654,5.3429,5.4497,-13.4689,2.2819,5.1904,-4.0510,-6.0623,-6.2851,-1.4421,10.6559,11.2147,0.5690,3.6945,7.4626,-0.6462,4.4632
2089.8438,-10.8588,-5.3424,0.4335,2.6258,4.5753,-12.9332,0.7273,4.8504,-3.5651,-5.6848,-6.1336,-2.2890,9.9855,10.6038,-0.3137,3.4818,8.5454,-3.1655,2.0528
2093.7500,-11.8856,-7.2135,-4.3198,0.3669,3.4365,-13.5173,-1.7331,4.7760,-3.9889,-5.7842,-7.5988,-3.1699,9.1803,10.4986,-1.6378,2.7528,9.9462,-5.6292,-0.8529
2097.6562,-13.0228,-9.5415,-8.4763,-0.6531,2.8464,-15.0506,-4.4189,4.8064,-4.9531,-6.0583,-9.5713,-3.1612,9.0125,11.2744,-1.9657,2.5686,11.7343,-7.2699,-2.6511
2101.5625,-13.5178,-11.5550,-11.0307,-0.1736,3.6244,-16.9324,-6.6045,4.7889,-6.0457,-6.2014,-10.7153,-1.8566,9.9844,13.1285,-0.5829,3.8082,13.8496,-7.9010,-2.1311
2105.4688,-13.1817,-12.6355,-11.9133,1.3640,5.9468,-18.4911,-8.0562,4.5593,-6.9737,-6.0849,-10.3640,0.3271,11.9472,15.9137,1.9397,6.5880,15.9908,-7.8030,0.6968
2109.3750,-12.3989,-12.5610,-11.8728,3.0283,9.0731,-19.3558,-9.1426,3.9371,-7.6019,-5.7458,-8.9534,2.4076,14.1098,19.0620,4.1997,10.1564,17.6651,-7.3724,4.5527
2113.2812,-11.6941,-11.5882,-11.8273,3.9176,11.7030,-19.5833,-10.3952,2.8108,-7.9071,-5.2404,-7.6801,3.4703,15.4984,21.7392,5.0563,13.2820,18.4318,-6.8351,7.6767
2117.1875,-11.2358,-10.3041,-12.1652,3.6907,12.7564,-19.4789,-11.8892,1.2800,-7.9164,-4.5329,-7.6181,3.2257,15.5802,23.1886,4.4797,14.8647,18.1753,-6.2022,8.9241
2121.0938,-10.6904,-9.2960,-12.4843,2.7861,12.0462,-19.2760,-12.9935,-0.2706,-7.6657,-3.5394,-8.9187,2.1158,14.6059,23.0528,3.4957,14.4172,17.1674,-5.4149,8.4241
2125.0000,-9.5374,-8.8110,-11.9257,2.1763,10.3701,-18.9339,-12.7589,-1.2774,-7.1762,-2.2749,-10.6641,0.9332,13.4006,21.4605,3.3168,12.2096,15.8216,-4.4884,7.3781
2128.9062,-7.5672,-8.6111,-9.8265,2.7872,8.9543,-18.1982,-10.6711,-1.2765,-6.4422,-0.9298,-11.4729,0.2610,12.7352,18.8362,4.4126,9.0868,14.3137,-3.5168,7.1783
2132.8125,-5.1303,-8.1353,-6.2160,4.9144,8.6316,-16.8562,-7.1670,-0.2056,-5.4400,0.2458,-10.4208,0.1411,12.7372,15.5989,6.2828,6.1024,12.3958,-2.5698,8.4811
2136.7188,-2.9134,-6.8839,-1.8264,7.9841,9.3217,-14.9690,-3.4670,1.4722,-4.1688,1.1870,-7.6257,0.1766,12.7962,11.9875,8.0745,4.1337,9.6136,-1.6195,10.8537
2140.6250,-1.4159,-4.7781,2.3434,10.8102,10.1620,-12.8951,-0.8141,2.9381,-2.7025,2.1678,-4.1095,-0.0558,12.0585,8.1342,9.4510,3.5963,5.8091,-0.5952,13.1790
2144.5312,-0.5546,-2.2483,5.5704,12.2116,10.1830,-11.0930,0.3134,3.4135,-1.2024,3.6767,-1.0803,-0.6191,10.1642,4.2926,10.9215,4.3335,1.5177,0.4829,14.4696
2148.4375,0.2672,0.0208,7.6877,11.6466,9.0448,-9.8619,0.4196,2.5678,0.1509,6.0474,0.8189,-1.1356,7.6734,0.9944,13.3207,5.7266,-2.1076,1.4407,14.4984
2152.3438,1.6670,1.5131,8.9667,9.4997,7.3151,-9.2153,0.4913,0.6977,1.2720,9.1057,1.7686,-1.0482,5.8327,-1.0480,16.8916,7.0048,-3.8754,2.0564,13.8351
2156.2500,3.7494,2.1766,9.7534,6.8559,6.0903,-8.9618,1.1904,-1.4278,2.2422,12.1327,2.4133,-0.0133,5.8041,-1.2814,20.7948,7.6286,-3.2720,2.2664,13.3267
2160.1562,5.9545,2.3838,10.1576,4.8834,6.2127,-8.9047,2.3673,-2.9662,3.2492,14.2292,3.2307,1.8532,7.8718,0.3135,23.5298,7.5425,-0.7983,2.2789,13.4308
2164.0625,7.4149,2.6014,10.0002,4.1807,7.6239,-8.9910,3.2406,-3.4068,4.4132,14.8615,4.1471,4.0272,11.1765,3.0801,23.9850,7.1330,2.3381,2.4497,13.8753
2167.9688,7.5477,3.0266,9.0096,4.4710,9.3111,-9.3085,3.0491,-2.7543,5.6274,14.2030,4.6875,5.8636,14.1748,5.9201,22.2814,6.9070,4.9794,2.9761,13.8479
2171.8750,6.4378,3.4669,7.0890,4.8301,9.9186,-9.9664,1.6289,-1.4043,6.5691,13.0152,4.4997,6.9244,15.5305,7.8135,19.7184,7.1109,6.6960,3.6523,12.5552
2175.7812,4.7381,3.5397,4.4615,4.3144,8.6504,-10.9811,-0.5182,0.1773,6.9171,12.1395,3.7982,7.1605,14.8608,8.3380,17.8488,7.5771,7.9178,3.9253,9.7649
2179.6875,3.1952,3.0178,1.6155,2.6080,5.8821,-12.2604,-2.6504,1.7526,6.6352,11.9598,3.3405,6.8801,12.8719,7.8758,17.4136,7.9249,9.4510,3.2767,5.9978
2183.5938,2.1822,2.0360,-0.8873,0.2788,3.0612,-13.6683,-4.2971,3.3970,6.0892,12.2125,3.9285,6.5596,10.8345,7.3619,17.9674,7.9667,11.7613,1.6769,2.2853
2187.5000,1.5818,1.0029,-2.6185,-1.5272,1.9250,-15.0766,-5.4298,5.3412,5.8642,12.2637,5.8065,6.6134,9.7769,7.7076,18.4455,7.9803,14.5512,-0.2382,-0.3284
2191.4062,1.0626,0.3064,-3.4059,-1.7679,3.5024,-16.3370,-6.2154,7.7007,6.3802,11.6338,8.4212,7.2268,9.9257,9.2500,18.1546,8.5880,16.9217,-1.4474,-1.2412
2195.3125,0.4773,0.0713,-3.3379,-0.1300,7.5248,-17.2093,-6.6552,10.2956,7.5889,10.3776,10.7415,8.3048,10.7243,11.5875,17.3475,10.2810,17.9700,-1.1232,-0.4736
2199.2188,0.0448,0.1695,-2.6685,2.8091,12.6169,-17.3591,-6.4879,12.6852,9.0087,9.0569,11.9201,9.5390,11.3566,13.9211,16.9225,12.9253,17.3754,0.8797,1.4737
2203.1250,0.1830,0.4552,-1.6636,5.9828,17.1437,-16.4942,-5.4538,14.3912,10.1024,8.3476,11.8290,10.5569,11.3820,15.6750,17.5415,15.6411,15.5702,3.9708,3.9611
2207.0312,1.1582,0.9966,-0.4442,8.5240,20.1569,-14.5785,-3.6458,15.1513,10.7188,8.5846,11.0960,11.0875,11.0498,16.9472,18.9423,17.1945,13.4202,7.2326,6.5464
2210.9375,2.8539,2.0783,1.1022,10.2705,21.8250,-11.9507,-1.5660,15.0340,11.2401,9.5666,10.6355,11.0707,11.1078,18.4302,20.0477,16.6759,11.6833,9.9924,9.1478
2214.8438,4.8444,3.9540,3.2807,11.7556,23.0834,-9.2058,0.2279,14.3534,12.2866,10.7378,11.0234,10.6614,12.2712,20.8163,19.7912,14.0256,10.6319,12.1526,11.9784
2218.7500,6.6892,6.5652,6.4096,13.7198,24.7831,-6.8635,1.6050,13.4618,14.1868,11.5875,12.1606,10.1386,14.7284,24.1133,17.9838,10.0771,10.0538,14.0808,15.3201
2222.6562,8.1954,9.4931,10.5822,16.5141,26.9631,-5.0351,3.0222,12.5738,16.6368,11.9780,13.4410,9.7836,18.0107,27.4194,15.5152,6.1218,9.5551,16.1992,19.2779
2226.5625,9.4425,12.2168,15.5093,19.8261,28.7729,-3.3433,5.1583,11.7292,18.8497,12.1864,14.2688,9.8034,21.2819,29.4003,13.7342,3.2982,8.8951,18.6174,23.6462
2230.4688,10.5846,14.4757,20.5543,22.8963,29.0895,-1.1934,8.2726,10.8801,20.1128,12.6630,14.5260,10.3209,23.8140,29.1686,13.5125,2.1676,8.1160,21.0724,27.9390
2234.3750,11.6307,16.4133,24.9520,25.0162,27.3499,1.7595,11.8186,9.9947,20.3224,13.6869,14.6456,11.3889,25.3041,26.8962,14.7197,2.6442,7.4177,23.1585,31.5387
2238.2812,12.4009,18.3399,28.0799,25.9007,23.9569,5.2678,14.6736,9.0706,20.0480,15.1452,15.2413,12.9596,25.8260,23.6326,16.4634,4.1962,6.9177,24.5971,33.8596
2242.1875,12.6796,20.2794,29.6123,25.6593,19.9423,8.5286,15.8529,8.0508,20.0330,16.5538,16.5716,14.7978,25.4955,20.4085,17.8230,6.1184,6.4942,25.2974,34.4505
2246.0938,12.4049,21.6851,29.4855,24.4435,16.1529,10.5981,15.1612,6.7399,20.4990,17.2874,18.2333,16.4200,24.1534,17.3195,18.4430,7.7436,5.8243,25.1911,33.0318
2250.0000,11.7070,21.6224,27.7500,22.1281,12.6184,10.9205,13.2624,4.8409,20.8184,16.8806,19.3153,17.1701,21.3632,13.4016,18.5467,8.5947,4.5851,24.0511,29.5276
2253.9062,10.7626,19.3595,24.4759,18.3590,8.6377,9.6234,11.1122,2.1407,19.8675,15.2486,18.9233,16.4692,16.7773,7.5385,18.4614,8.5141,2.6851,21.5364,24.1395
2257.8125,9.6128,14.9559,19.8127,12.9761,3.5605,7.3995,9.2219,-1.2600,16.8496,12.7323,16.7260,14.1269,10.6156,-0.2176,18.1552,7.7326,0.3812,17.4884,17.4274
2261.7188,8.1375,9.3908,14.1468,6.4605,-2.3441,5.0785,7.3614,-4.8474,11.9832,9.9588,13.1599,10.5036,3.8643,-8.0013,17.2246,6.7643,-1.7938,12.2405,10.2893
2265.6250,6.2354,4.0829,8.1790,-0.0218,-7.6659,3.1850,4.9434,-7.8340,6.5135,7.5782,9.1607,6.3718,-2.0432,-12.8764,15.3270,6.0803,-3.2710,6.6340,3.7509
2269.5312,4.0533,0.1092,2.7742,-5.1291,-10.5633,1.7589,1.7503,-9.4880,1.9947,5.9942,5.6092,2.5211,-5.9343,-12.6451,12.6368,5.7152,-3.7382,1.6431,-1.4006
2273.4375,2.0364,-2.3331,-1.3825,-8.1051,-9.9682,0.5022,-1.6369,-9.4672,-0.6575,5.2143,2.8632,-0.6509,-7.5532,-7.4841,9.8764,5.1060,-3.3264,-2.1568,-4.9528
2277.3438,0.7010,-3.8455,-4.1129,-9.2459,-6.4191,-0.9102,-4.1160,-7.9561,-1.6609,4.9013,0.6798,-3.2785,-7.7030,-0.1289,7.8566,3.3835,-2.5677,-4.8784,-7.3453
2281.2500,0.2758,-5.2152,-5.8102,-9.6929,-1.8676,-2.5929,-4.8663,-5.5354,-2.0583,4.6086,-1.4432,-5.7956,-7.7363,5.7001,6.8989,0.0113,-2.1145,-7.1222,-9.3904
2285.1562,0.4976,-6.7486,-7.1645,-10.6507,1.4752,-4.4203,-4.0355,-2.8800,-2.8556,4.0687,-3.7691,-8.4986,-8.7017,7.6223,6.6269,-4.6561,-2.3666,-9.4185,-11.7701
2289.0625,0.7599,-8.0566,-8.7096,-12.5598,2.4765,-6.1574,-2.7266,-0.4831,-4.2593,3.3579,-6.0318,-11.2338,-10.7123,6.0236,6.3055,-9.3607,-3.2370,-11.7389,-14.6147
2292.9688,0.5417,-8.4266,-10.4837,-14.8003,1.6859,-7.5973,-2.2416,1.4517,-5.5716,2.8237,-7.5682,-13.4508,-12.9564,3.5309,5.4441,-12.5907,-4.2290,-13.4638,-17.4299
2296.8750,-0.1879,-7.4540,-12.0135,-16.1202,0.8124,-8.5930,-3.1293,2.9440,-5.7815,2.8163,-7.7806,-14.5854,-14.3175,2.9181,4.1668,-13.5028,-4.7946,-13.8425,-19.4096
2300.7812,-0.9013,-5.4128,-12.6003,-15.4580,1.4943,-9.0007,-4.7555,4.1136,-4.3715,3.4019,-6.5977,-14.4757,-14.1377,5.0284,3.0588,-12.4623,-4.7249,-12.5829,-19.9018
2304.6875,-0.8591,-3.0699,-11.6937,-12.5660,4.2585,-8.6480,-5.7217,5.1192,-1.7229,4.2664,-4.5972,-13.4831,-12.5682,8.2990,2.6395,-10.7694,-4.2729,-10.1011,-18.7034
2308.5938,0.3604,-1.1133,-9.1203,-8.0326,8.3635,-7.4117,-4.8254,6.1792,1.1503,4.8858,-2.6930,-12.2151,-10.2815,10.2332,2.9132,-9.7263,-3.8865,-7.2299,-16.0112
2312.5000,2.5143,0.3224,-5.0934,-2.7782,12.5180,-5.3743,-1.8643,7.5867,3.2784,4.8518,-1.6019,-11.0613,-7.8227,9.6129,3.3627,-9.7068,-3.7437,-4.6324,-12.1389
2316.4062,4.7738,1.6299,-0.1031,2.5127,15.8179,-2.9245,2.2604,9.6195,4.2766,4.1247,-1.4643,-9.9056,-5.1555,7.6313,3.3682,-9.9165,-3.4778,-2.4065,-7.2928
2320.3125,6.1724,3.2226,5.1706,7.5777,18.1619,-0.6799,6.1482,12.3459,4.3660,3.0347,-1.8766,-8.2488,-1.7985,6.9601,2.6922,-9.0295,-2.3772,-0.2118,-1.6246
2324.2188,6.1252,4.9801,9.8950,12.3037,19.9056,0.7710,8.7211,15.4578,3.9497,2.0395,-2.2860,-5.6559,2.5492,9.4430,1.6424,-6.2293,0.0198,2.1955,4.4902
2328.1250,4.7063,6.1465,13.1822,16.3351,21.1758,1.1656,9.6941,18.2921,3.1765,1.4245,-2.4290,-2.1875,7.4198,14.2772,0.8168,-1.8770,3.3707,4.5002,10.2429
2332.0312,2.5583,5.8283,14.3593,18.9978,21.5255,0.7188,9.4691,20.0950,1.8949,1.1737,-2.4661,1.5230,11.5656,18.2572,0.6767,2.6835,6.4966,5.8838,14.5394
2335.9375,0.5534,3.7531,13.3497,19.6790,20.2755,0.0240,8.6763,20.3994,0.0219,1.0939,-2.7112,4.6192,13.6308,18.0509,1.2983,6.0163,8.0030,5.6286,16.5168
2339.8438,-0.5631,0.6978,10.9111,18.3684,17.2461,-0.2418,7.7854,19.2758,-2.0422,1.0780,-3.1845,6.5512,13.0531,12.8268,2.4570,7.5036,7.1743,3.8179,16.1019
2343.7500,-0.3814,-1.7910,8.4556,15.8691,13.2014,0.3602,7.0323,17.2754,-3.3895,1.2731,-3.3811,7.4055,10.5148,5.1548,3.9011,7.6150,4.4972,1.5377,14.1751
2347.6562,1.1287,-2.2528,7.4142,13.4162,9.5329,1.8571,6.5742,15.0872,-3.0860,1.9953,-2.4981,7.8036,7.5547,-0.6373,5.5299,7.3947,1.3828,0.3299,12.1356
2351.5625,3.6554,-0.1834,8.4593,11.9177,7.3521,3.9134,6.6014,13.1311,-0.8358,3.4339,-0.0097,8.4499,5.5749,-1.5144,7.3217,7.6170,-0.7628,1.2144,11.0955
2355.4688,6.6072,3.6688,11.0790,11.3747,6.6965,6.0438,7.2417,11.3605,2.6880,5.3691,3.8143,9.6513,4.9461,2.0885,9.1143,8.2632,-1.4602,3.9707,11.2321
2359.3750,9.2192,7.7668,13.8350,10.9411,6.5183,7.8541,8.3532,9.3982,6.1398,7.1403,7.8595,11.1266,4.8627,6.6411,10.4859,8.6645,-1.3875,7.2168,11.7517
2363.2812,10.7520,10.6738,15.1947,9.6092,5.5249,9.1763,9.4531,6.8969,8.2509,7.9369,10.6859,12.2057,4.0544,8.2031,10.8948,8.1123,-1.7365,9.2648,11.4994
2367.1875,10.7593,11.7689,14.4228,7.0189,3.2449,10.0456,9.9217,3.8618,8.5172,7.2511,11.3137,12.2523,1.8201,5.4106,9.9973,6.4125,-3.1828,9.1665,9.7876
2371.0938,9.2934,11.3648,11.9520,3.7791,0.4779,10.5552,9.3597,0.7128,7.3632,5.2041,9.7694,11.0233,-1.3843,0.5064,7.8992,3.9783,-5.2681,7.2306,6.8582
2375.0000,6.8934,10.2485,9.0045,1.0526,-1.2540,10.6916,7.8172,-1.9373,5.7132,2.5220,7.0364,8.7628,-4.2379,-2.3640,5.1403,1.4797,-6.6878,4.6835,3.6667
2378.9062,4.3114,9.0559,6.7490,-0.2797,-0.8514,10.2603,5.7094,-3.6064,4.3259,0.1581,4.4525,6.0286,-5.4936,-0.2985,2.4183,-0.5936,-6.2824,2.7695,1.1758
2382.8125,2.1181,7.9320,5.5949,-0.2370,1.5058,8.9668,3.5050,-4.1359,3.3775,-1.2220,2.9496,3.4060,-4.8546,6.1445,0.2470,-2.1059,-3.9688,1.9654,-0.2986
2386.7188,0.4369,6.6530,5.0950,0.3354,4.4692,6.6261,1.4710,-3.6357,2.5381,-1.5874,2.6089,1.2850,-3.1434,13.3054,-1.2384,-3.1358,-0.8824,1.8495,-1.2036
2390.6250,-1.0131,5.0133,4.4658,0.4725,6.5287,3.3892,-0.3042,-2.2682,1.3931,-1.5232,2.7586,-0.2126,-1.6624,17.0514,-2.2519,-3.7593,1.4018,1.6422,-2.2601
2394.5312,-2.5973,3.1173,3.2884,-0.1110,7.1480,-0.1683,-1.6592,-0.0717,-0.1707,-1.8625,2.4809,-1.1837,-1.2508,15.6895,-3.1806,-4.0095,1.9887,0.9324,-3.7664
2398.4375,-4.4014,1.3477,1.8522,-0.7422,7.1499,-3.1950,-2.1654,3.0290,-1.9044,-3.1875,1.1664,-1.8414,-1.7459,11.0316,-4.3892,-4.0180,1.2767,0.0060,-5.2433
2402.3438,-6.0955,0.0742,0.9083,-0.2524,8.0544,-4.9215,-1.2510,7.0379,-3.4468,-5.4834,-1.2018,-2.4148,-2.2243,6.9177,-6.0787,-4.1120,0.6013,-0.4557,-5.7113
2406.2500,-7.1326,-0.6292,1.0653,2.1486,10.8667,-5.0476,1.3776,11.6913,-4.6256,-8.1359,-4.1232,-3.0664,-1.8000,6.3895,-8.1984,-4.6590,1.1836,-0.0263,-4.4068
2410.1562,-7.1444,-1.0228,2.3150,6.2155,15.2285,-3.9268,5.3357,16.4192,-5.5495,-10.2652,-6.8763,-3.8300,-0.3522,9.6148,-10.4211,-5.7250,3.1784,1.0133,-1.4139
2414.0625,-6.2479,-1.4742,4.0450,10.6936,19.5545,-2.4061,9.5482,20.5128,-6.4429,-11.2076,-8.8312,-4.5842,1.3578,13.9826,-12.2250,-6.8628,5.5259,1.7991,2.2602
2417.9688,-5.0373,-2.1572,5.5024,14.0120,22.0361,-1.3811,12.7247,23.3905,-7.3988,-10.8709,-9.6476,-5.0820,2.2433,16.1237,-13.1223,-7.3115,6.6962,1.5069,5.2409
2421.8750,-4.2487,-2.9072,6.3297,15.1787,21.7715,-1.3176,14.0463,24.7961,-8.2667,-9.7619,-9.3435,-5.0322,1.6868,14.2620,-12.9553,-6.5441,5.7631,0.0097,6.6054
2425.7812,-4.3118,-3.3206,6.7670,14.3068,19.2381,-2.0283,13.6017,24.8251,-8.7404,-8.6620,-8.2556,-4.1983,-0.0100,9.2339,-12.0604,-4.7459,3.0328,-1.9167,6.4224
2429.6875,-5.0718,-3.0040,7.3981,12.4770,15.8547,-2.8419,12.2742,23.8069,-8.5334,-8.1339,-6.8979,-2.4729,-1.8148,3.6448,-11.1115,-2.7807,-0.1727,-3.0019,5.6665
2433.5938,-5.8536,-1.7872,8.6668,11.0727,13.0387,-3.0513,11.1628,22.1507,-7.4790,-8.1460,-5.7193,0.0869,-2.6201,0.0150,-10.6632,-1.5840,-2.3561,-2.2300,5.5837
2437.5000,-5.8256,0.2169,10.5343,11.0171,11.4621,-2.3483,10.9301,20.2455,-5.5124,-8.0553,-4.8379,3.2475,-1.8879,-0.6541,-10.6899,-1.4176,-2.6826,0.5529,6.9268
2441.4062,-4.4508,2.6924,12.5015,12.3379,10.9579,-0.9727,11.4811,18.4195,-2.6359,-6.9866,-3.9200,6.5958,0.1269,1.0009,-10.5104,-1.5974,-1.2842,4.5387,9.5275
2445.3125,-1.7778,5.2481,13.9222,14.2434,10.9874,0.4946,12.1182,16.9064,1.0205,-4.4067,-2.3573,9.5729,2.6486,3.6847,-9.2541,-0.9774,1.0541,8.3871,12.4324
2449.2188,1.5702,7.5195,14.3477,15.6019,11.1955,1.5303,12.0007,15.7849,5.0659,-0.5515,0.2862,11.5947,4.8918,6.5489,-6.6019,1.1349,3.4750,10.8972,14.4697
2453.1250,4.6921,9.2427,13.6774,15.5434,11.6165,1.9816,10.5999,14.9310,8.8141,3.5733,3.8270,12.2723,6.4503,9.5587,-3.2390,4.3406,5.4612,11.5459,14.8865
2457.0312,6.8334,10.3320,12.0975,13.8931,12.4630,2.1119,7.9303,14.0620,11.5036,6.6612,7.3745,11.6457,7.3659,13.0159,-0.5879,7.3192,6.8804,10.6451,13.7001
2460.9375,7.7357,10.9481,9.9466,11.2563,13.7808,2.3925,4.5297,12.9025,12.7225,7.7983,9.7722,10.2699,7.9246,16.8438,0.0949,8.7143,7.7920,9.1039,11.6123
2464.8438,7.7450,11.4842,7.6451,8.7283,15.3109,3.2194,1.2739,11.3933,12.7510,6.9851,10.3438,9.0245,8.3875,20.3382,-1.3501,8.0655,8.2671,7.9593,9.5877
2468.7500,7.6209,12.4053,5.6830,7.3604,16.6549,4.7356,-0.8882,9.7958,12.5053,5.1703,9.4227,8.6879,8.8331,22.5927,-3.7459,6.0720,8.3548,7.9041,8.3589
2472.6562,8.1326,13.9796,4.5573,7.6332,17.5593,6.8242,-1.2438,8.5900,13.0145,3.7590,8.2136,9.5054,9.1666,23.1931,-5.2904,4.0040,8.1290,9.0107,8.1213
2476.5625,9.6374,16.0600,4.5952,9.2184,18.0499,9.2006,0.3912,8.2095,14.7341,3.8649,7.9901,11.0433,9.2385,22.5817,-4.7705,2.7592,7.6841,10.7625,8.5566
2480.4688,11.8693,18.0966,5.7537,11.1954,18.3246,11.5062,3.5298,8.7902,17.1907,5.7264,9.1573,12.4728,8.9915,21.8080,-2.4069,2.3302,7.0647,12.3848,9.1439
2484.3750,14.0714,19.4310,7.5937,12.6400,18.5488,13.3674,7.1748,10.1152,19.2678,8.6125,10.8981,13.1371,8.5754,21.8942,0.3139,2.0850,6.2456,13.3247,9.5668
2488.2812,15.4196,19.7167,9.5344,13.2507,18.7668,14.4707,10.2908,11.7924,19.9904,11.2570,11.7537,13.0371,8.3880,23.3003,1.7287,1.5651,5.2648,13.6274,9.9798
2492.1875,15.5024,19.1872,11.2667,13.5906,18.9964,14.6970,12.3559,13.5239,19.2661,12.5630,10.8003,12.8887,8.9940,25.8088,1.2158,1.0707,4.4325,13.9598,10.9621
2496.0938,14.5669,18.5655,13.0152,14.7308,19.3610,14.2645,13.6269,15.2469,18.0278,12.1783,8.5687,13.6815,10.8964,28.7692,-0.3636,1.4914,4.3763,15.2147,13.1607
2500.0000,13.3665,18.6448,15.3948,17.4709,20.0578,13.7442,14.8851,17.0350,17.6303,10.6299,6.9502,16.0135,14.2147,31.4100,-1.3365,3.4992,5.7441,17.8938,16.8126
2503.9062,12.6958,19.8023,18.8972,21.6450,21.1268,13.8442,16.7985,18.8537,18.9018,8.9690,8.0186,19.6409,18.4411,32.9990,-0.4969,6.7920,8.6720,21.6619,21.4311
2507.8125,12.9061,21.7625,23.3592,26.0177,22.2152,15.0148,19.3509,20.4001,21.5172,8.1439,12.5124,23.5453,22.4717,32.8825,1.9618,10.0651,12.4113,25.4059,25.8769
2511.7188,13.7120,23.7573,27.8329,28.9064,22.6020,17.1025,21.7880,21.2000,24.1480,8.4586,19.0487,26.4673,24.9990,30.5754,4.5541,11.7975,15.5057,27.8170,28.8183
2515.6250,14.4087,24.9582,31.0148,29.1496,21.5585,19.3144,23.1504,20.9167,25.2881,9.4133,24.6953,27.5495,25.1105,25.9710,5.5527,11.2561,16.5478,28.1408,29.3403
2519.5312,14.3413,24.8834,31.9748,26.7711,18.8209,20.5819,22.9870,19.6247,24.1751,10.0022,26.6096,26.6826,22.7602,19.5212,4.1942,8.9296,15.0670,26.5835,27.3542
2523.4375,13.3022,23.5328,30.6759,22.8711,14.8065,20.1433,21.6679,17.7924,21.1768,9.2972,23.6970,24.3842,18.7954,12.1589,1.1654,6.0606,11.9046,24.0787,23.5637
2527.3438,11.5999,21.2261,27.9101,18.8202,10.3680,17.9876,20.0127,15.9364,17.4217,6.9954,17.2129,21.3656,14.4824,4.9166,-1.9324,3.6835,8.7268,21.5745,19.0171
2531.2500,9.7902,18.3336,24.7063,15.3360,6.2417,14.8689,18.5218,14.1927,13.9982,3.6293,9.9470,18.1270,10.8016,-1.5190,-3.6866,1.9665,6.9426,19.3661,14.5361
2535.1562,8.2974,15.1328,21.6631,12.1135,2.6108,11.8783,16.8680,12.1641,11.3285,0.3292,4.5788,14.8375,7.9579,-6.9674,-3.7133,0.3758,6.7667,16.9860,10.3803
2539.0625,7.2112,11.8724,18.7070,8.2691,-0.8594,9.8544,14.1482,9.2278,9.1373,-1.7344,2.2979,11.5006,5.4156,-11.4900,-2.6806,-1.5379,7.1120,13.7433,6.3355
2542.9688,6.3812,8.9199,15.4335,3.2506,-4.5290,9.0152,9.7818,5.1358,6.9537,-1.9217,2.5142,8.1956,2.4207,-14.9348,-1.6167,-3.4741,6.4137,9.4960,2.1178
2546.8750,5.6867,6.7851,11.7149,-2.4909,-8.2254,9.0204,4.3603,0.4674,4.6867,-0.4033,3.6726,5.1645,-1.3638,-16.7320,-1.1220,-4.4853,3.8004,5.0284,-2.2271
2550.7812,5.2277,5.9196,8.0421,-7.5959,-11.0976,9.3642,-0.3053,-3.4555,2.7977,1.9855,4.4539,2.6887,-5.5463,-16.2012,-1.0929,-3.8230,-0.2409,1.6839,-6.2291
2554.6875,5.2659,6.4073,5.2844,-10.6095,-12.0567,9.7775,-2.1322,-5.2276,1.9491,4.2064,4.4986,0.8909,-9.2214,-13.1856,-1.0864,-1.8245,-4.1912,0.4759,-9.2643
2558.5938,5.9645,7.7923,4.0339,-10.9274,-10.5165,10.3424,-0.1223,-4.2036,2.4330,5.5141,4.2690,-0.3424,-11.5375,-8.4867,-0.9225,-0.0281,-6.5651,1.3303,-10.9767
2562.5000,7.1499,9.2245,4.0644,-9.1864,-6.8965,11.2643,4.8388,-0.9635,3.8533,5.7129,4.3510,-1.2412,-12.2089,-3.6537,-0.9663,-0.2840,-6.9197,3.0556,-11.5240
2566.4062,8.3102,9.8773,4.3731,-6.8300,-2.4987,12.5152,10.3646,2.9384,5.3189,5.0696,4.8539,-1.9372,-11.6258,-0.1607,-1.8426,-3.4469,-6.0666,4.1118,-11.4520
2570.3125,8.8539,9.3755,3.8261,-5.1818,1.1771,13.6527,13.9150,5.8020,5.9997,4.0067,5.3647,-2.3384,-10.5174,1.4825,-3.8301,-8.6194,-5.3599,3.6449,-11.2846
2574.2188,8.4464,7.9454,1.9435,-4.7021,3.2151,13.9788,14.2012,6.6570,5.6215,2.8127,5.3886,-2.2041,-9.4331,2.0267,-6.4569,-13.5550,-5.6233,2.0338,-11.1311
2578.1250,7.1793,6.1853,-0.7747,-4.9248,3.6469,12.9432,11.7086,5.6343,4.5390,1.5574,4.8106,-1.3648,-8.4140,2.9241,-8.6562,-15.9825,-6.5300,0.5438,-10.6120
2582.0312,5.4622,4.6203,-3.2387,-5.0419,3.2051,10.5127,8.0650,3.6444,3.3596,0.2173,3.9539,0.0873,-7.0606,5.2851,-9.4001,-14.9439,-6.8833,0.3362,-9.1734
2585.9375,3.7368,3.3584,-4.5840,-4.6266,2.7174,7.2554,4.8175,1.6573,2.4334,-1.1438,3.2110,1.7781,-4.9152,9.0892,-8.3637,-11.2537,-5.5561,1.5644,-6.5781
2589.8438,2.2365,2.0797,-4.7833,-3.9288,2.6048,4.0811,2.5480,0.1209,1.6005,-2.3202,2.6120,3.2141,-1.8703,13.2074,-6.1517,-6.8459,-2.3741,3.2191,-3.2179
2593.7500,0.9509,0.3455,-4.5865,-3.5540,2.8028,1.8018,0.9030,-1.0989,0.3675,-3.0920,1.7395,4.0034,1.6735,16.1936,-3.9434,-3.5587,1.6982,3.8271,-0.0069
2597.6562,-0.2281,-2.0191,-4.8436,-3.8409,3.0554,0.7717,-0.6520,-2.3026,-1.6549,-3.4267,0.0802,3.9871,4.9768,17.2438,-2.8156,-2.2192,5.1652,2.4802,2.1011
2601.5625,-1.3445,-4.7557,-5.7564,-4.4759,3.2551,0.7879,-2.0920,-3.4741,-4.4111,-3.5736,-2.4907,3.2233,7.3155,16.6231,-3.1897,-2.5452,6.9202,-0.5571,2.6629
2605.4688,-2.3530,-7.3345,-6.6676,-4.6740,3.5167,1.2638,-2.7633,-4.1603,-7.4200,-3.9488,-5.5211,1.8750,8.2788,15.2873,-4.7207,-3.7204,6.8191,-4.0831,1.9974
2609.3750,-3.2367,-9.3128,-6.5752,-3.7908,3.9533,1.5448,-2.0198,-3.8236,-10.1247,-4.8767,-8.2673,0.1093,7.8519,14.0349,-6.6264,-5.0524,5.5583,-6.8294,0.9666
2613.2812,-4.1247,-10.6187,-4.9831,-1.8809,4.4009,1.1951,0.0161,-2.3715,-12.2897,-6.3705,-10.2278,-1.9303,6.2955,12.8592,-8.1883,-6.2158,4.0494,-8.3109,0.4215
2617.1875,-5.2599,-11.5510,-2.4184,0.2398,4.3917,0.1418,2.2628,-0.4077,-14.1330,-8.1137,-11.4864,-4.0934,3.9606,10.9938,-9.1052,-7.0511,2.8130,-9.0508,0.6743
2621.0938,-6.8059,-12.5106,-0.1832,1.4884,3.4554,-1.3481,3.2812,1.0450,-16.0955,-9.6554,-12.5818,-6.1982,1.1864,7.6112,-9.5339,-7.3001,1.8244,-10.0681,1.3352
2625.0000,-8.6461,-13.6762,0.5057,1.2093,1.5319,-2.8170,2.2345,1.1846,-18.4283,-10.6811,-14.0139,-8.0539,-1.6835,2.6496,-9.8717,-6.6513,0.8352,-12.0565,1.6106
2628.9062,-10.3702,-14.8719,-0.6411,-0.4321,-0.8490,-3.8239,-0.5249,-0.0289,-20.9168,-11.1766,-15.7970,-9.5183,-4.2431,-2.8454,-10.4692,-5.1043,-0.1803,-14.8724,0.8488
2632.8125,-11.5030,-15.7179,-2.7916,-2.6148,-2.8055,-4.1318,-3.6848,-1.8369,-22.9543,-11.3896,-17.4211,-10.5424,-6.0465,-7.1377,-11.4499,-3.2852,-0.8641,-17.6733,-1.0361
2636.7188,-11.8256,-15.9371,-4.5974,-4.4355,-3.6276,-3.8025,-5.8276,-3.1828,-23.9173,-11.6396,-18.2454,-11.1647,-6.7564,-8.7274,-12.7048,-2.3177,-0.7328,-19.5432,-3.5370
2640.6250,-11.5365,-15.5685,-5.1426,-5.4541,-3.2199,-3.1484,-6.2614,-3.3877,-23.5697,-12.1148,-17.9872,-11.4583,-6.3429,-7.2089,-14.0070,-3.2054,0.3766,-20.0970,-5.9114
2644.5312,-11.0987,-14.9115,-4.5266,-5.8370,-2.1401,-2.5490,-5.2434,-2.5155,-22.1987,-12.7753,-16.9010,-11.4591,-5.1744,-3.5282,-15.1342,-6.1201,2.0660,-19.6173,-7.6438
2648.4375,-10.8643,-14.2370,-3.6483,-6.0407,-1.1908,-2.2241,-3.5208,-1.1860,-20.3806,-13.3881,-15.5044,-11.1077,-3.8783,0.5203,-15.9150,-10.1290,3.5677,-18.6630,-8.6672
2652.3438,-10.7599,-13.4864,-3.3701,-6.3162,-0.8460,-2.0968,-1.6386,-0.0152,-18.5402,-13.6410,-14.0913,-10.2271,-2.9975,3.2657,-16.1920,-13.6132,4.2497,-17.4944,-9.1891
2656.2500,-10.3000,-12.2097,-3.7119,-6.4223,-0.9085,-1.8494,0.4111,0.8682,-16.6231,-13.2689,-12.4473,-8.5561,-2.6284,4.0516,-15.7746,-15.1380,4.0604,-15.7766,-9.2823
2660.1562,-8.9583,-9.8300,-3.7141,-5.7508,-0.6364,-1.1600,2.9591,1.8642,-14.1330,-12.1583,-10.0241,-5.8575,-2.2922,3.5451,-14.4732,-14.2156,3.5701,-12.7972,-8.5967
2664.0625,-6.6482,-6.0831,-2.1042,-3.7581,0.7545,0.0264,6.1102,3.4948,-10.5348,-10.4192,-6.4518,-2.0903,-1.1795,3.2964,-12.2438,-11.4854,3.5602,-8.0429,-6.4766
2667.9688,-3.9480,-1.3379,1.7008,-0.3844,3.5554,1.3801,9.3842,5.8961,-5.7620,-8.4019,-1.9895,2.4224,1.3262,4.7948,-9.3598,-8.2419,4.4400,-1.7267,-2.4609
2671.8750,-1.8638,3.4419,6.9951,3.8284,7.3549,2.3292,11.8721,8.6290,-0.4759,-6.6158,2.4514,6.9545,5.1569,8.5585,-6.4533,-5.6596,5.9095,5.1078,3.1837
2675.7812,-1.2516,7.1081,12.0509,7.9913,11.2816,2.3939,12.7974,10.9620,4.1372,-5.5374,5.7598,10.5658,9.4469,13.7908,-4.3101,-4.2030,7.1195,10.9890,9.3299
2679.6875,-2.2750,8.8801,15.1078,11.3178,14.5244,1.5015,12.0501,12.4029,6.9430,-5.3771,7.2524,12.4986,12.9386,18.8236,-3.4673,-3.5292,7.2410,14.6914,14.4534
2683.5938,-4.2745,8.7097,15.4326,13.4883,16.7810,0.0587,10.2931,13.0536,7.4727,-5.9468,7.0541,12.5934,14.7108,22.0954,-3.8470,-2.8521,6.0667,15.7977,17.4624
2687.5000,-6.1541,7.2485,13.7503,14.7318,18.3512,-1.2827,8.5778,13.5062,6.1886,-6.7477,5.9937,11.4595,14.7769,23.0657,-4.7081,-1.4903,4.2343,14.8522,18.3639
2691.4062,-7.0314,5.4546,11.7828,15.6164,19.8421,-2.0268,7.7559,14.3605,4.2270,-7.2594,5.1132,10.2305,14.1346,22.4744,-5.0282,0.7175,2.9006,13.0515,18.2919
2695.3125,-6.7209,4.1000,11.2210,16.7049,21.7038,-2.1298,8.0836,15.7439,2.7703,-7.2484,5.1223,9.9893,14.1777,21.7630,-4.1254,3.3148,3.0578,11.6594,18.8223
2699.2188,-5.7329,3.4769,12.8018,18.2769,23.9121,-1.9799,9.2257,17.2129,2.4330,-6.8684,6.1109,11.1771,15.8061,22.0382,-2.1160,5.4579,4.9218,11.4431,20.9850
2703.1250,-4.8171,3.4410,16.0330,20.2435,25.9951,-2.0650,10.5754,18.1125,3.0269,-6.4633,7.6202,13.3558,18.8062,23.2968,0.1346,6.3465,7.7822,12.3896,24.6047
2707.0312,-4.3932,3.6956,19.6428,22.2520,27.3590,-2.5569,11.6282,18.1057,3.8165,-6.2206,8.9421,15.4809,21.9217,24.4721,1.5659,5.6504,10.4100,13.8026,28.3953
2710.9375,-4.2845,4.0638,22.3662,23.8853,27.6692,-3.1177,12.1906,17.4536,4.0522,-5.9655,9.4334,16.5166,23.5927,24.2792,1.6028,3.7179,11.7544,14.7026,30.7370
2714.8438,-3.9406,4.5424,23.5388,24.8319,27.0254,-3.0933,12.3673,16.8181,3.4093,-5.3002,8.7108,16.0008,22.8888,22.2411,0.4700,1.4243,11.4839,14.3178,30.6182
2718.7500,-2.9689,5.1285,23.1917,24.9591,25.8297,-1.9909,12.4124,16.7435,2.0659,-4.0113,6.7268,14.2152,20.0344,19.1117,-1.0838,-0.3039,10.0413,12.4303,28.1463
2722.6562,-1.5604,5.6074,21.7371,24.2889,24.4755,0.0826,12.5535,17.2268,0.4360,-2.4113,3.7857,11.9018,16.2055,16.3525,-2.4109,-1.0350,8.2277,9.4262,24.3542
2726.5625,-0.4597,5.5349,19.5900,22.9368,23.1061,2.3492,12.8573,17.7225,-1.1750,-1.2797,0.5211,9.7741,12.7810,15.0431,-3.4132,-1.0889,6.6509,6.0641,20.5183
2730.4688,-0.4616,4.4959,17.0275,21.0726,21.6263,3.7521,13.1654,17.5883,-2.6976,-1.3572,-2.2120,8.1802,10.5840,15.0748,-4.4312,-1.2757,5.4473,3.1241,17.4945
2734.3750,-1.7770,2.4814,14.3214,18.9247,19.9403,3.5917,13.1367,16.6250,-4.1269,-2.7285,-3.5785,7.1098,9.6118,15.2875,-5.6823,-2.2345,4.4508,1.1473,15.4880
2738.2812,-3.7402,0.0915,11.9273,16.7947,18.2012,1.9962,12.4231,15.2838,-5.2410,-4.5870,-3.0887,6.4541,9.3591,14.4827,-6.7765,-3.8260,3.6207,0.3866,14.2986
2742.1875,-5.1187,-1.6508,10.4710,15.0289,16.8378,-0.1040,10.9332,14.3649,-5.5124,-5.6414,-0.8560,6.2442,9.4045,12.5282,-6.8231,-5.0720,3.3231,0.9242,13.7330
2746.0938,-4.8665,-1.8246,10.4694,13.9207,16.3007,-1.5093,9.0301,14.4279,-4.3650,-4.9522,2.3903,6.6616,9.7713,10.6488,-5.1493,-4.7812,4.1772,2.7937,13.8128
2750.0000,-2.8285,-0.1649,11.9730,13.5859,16.7041,-1.4623,7.4809,15.3666,-1.6271,-2.6137,5.5949,7.8398,10.8044,10.5986,-2.0688,-2.4691,6.5371,5.9599,14.6419
2753.9062,0.0991,2.7292,14.4227,13.8962,17.6554,-0.0766,7.0950,16.4813,2.1704,0.2460,7.8478,9.6691,12.7131,13.2983,1.0182,1.1171,10.0163,10.1620,16.1202
2757.8125,2.5012,5.7016,16.8802,14.5424,18.4451,1.7987,8.2250,17.0073,5.9364,2.2047,8.7858,11.7983,15.1957,17.9850,2.4429,4.3374,13.4813,14.7825,17.8144
2761.7188,3.3367,7.6968,18.5190,15.2149,18.4963,3.1820,10.4621,16.7006,8.5708,2.5247,8.6969,13.8333,17.4731,22.5726,1.4873,5.7013,15.6041,18.9265,19.1394
2765.6250,2.5979,8.3520,19.0606,15.7903,17.7560,3.6129,12.7903,16.0328,9.5731,1.6559,8.2654,15.5411,18.7113,25.0038,-0.9494,4.8764,15.6232,21.7511,19.7091
2769.5312,1.2737,8.1412,18.8680,16.3868,16.7231,3.4120,14.1627,15.8315,9.2766,0.8684,8.1065,16.8618,18.4979,24.5929,-2.8820,2.8845,13.7581,22.8657,19.5522
2773.4375,0.6299,7.9806,18.6372,17.2281,16.0715,3.3803,14.1429,16.6271,8.5290,1.2520,8.3628,17.7201,17.0143,22.3522,-2.7100,1.2853,10.9581,22.5218,19.0015
2777.3438,1.2937,8.5647,18.9078,18.3969,16.1383,4.1688,13.1603,18.1913,8.0421,2.8094,8.6026,17.8474,14.8118,20.0785,-0.5648,0.9417,8.1719,21.4229,18.3531
2781.2500,2.7806,9.8829,19.7257,19.6651,16.6719,5.7724,12.1798,19.6260,7.8817,4.3260,8.0906,16.8517,12.4268,18.9424,1.5640,1.3321,5.7107,20.2596,17.6080
2785.1562,3.8055,11.2331,20.6767,20.5601,17.0511,7.5026,12.0002,19.9598,7.4750,4.1530,6.2845,14.5646,10.1712,18.7046,1.1702,0.9978,3.2184,19.2894,16.5474
2789.0625,3.1735,11.7052,21.2376,20.6631,16.8232,8.4362,12.6816,18.8391,6.1262,1.3734,3.2711,11.4087,8.2364,18.1627,-2.8467,-1.1744,0.2786,18.2708,15.0978
2792.9688,0.6313,10.7854,21.1762,19.9525,16.1458,8.0023,13.5192,16.8269,3.6459,-3.4648,-0.1365,8.4228,6.9352,16.4209,-9.1058,-4.8349,-2.8593,16.7956,13.6581
2796.8750,-2.9202,8.6640,20.7063,18.9314,15.7652,6.2913,13.5809,15.0942,0.6028,-8.5709,-2.7457,6.7874,6.7583,13.8950,-14.4164,-8.1655,-5.0996,14.7488,13.0450
2800.7812,-6.0061,6.0486,20.2895,18.3952,16.5019,3.9001,12.4112,14.7077,-2.0169,-11.9473,-3.6291,7.0815,8.0898,12.1668,-15.8369,-9.0994,-5.1344,12.5059,13.9981
2804.6875,-7.5516,3.6400,20.2314,18.9429,18.6018,1.4810,10.3801,15.9818,-3.5144,-12.5464,-2.7177,8.7749,10.7631,12.7457,-12.6990,-6.9081,-2.4887,10.6726,16.5619
2808.5938,-7.5693,1.6560,20.3652,20.5307,21.4320,-0.6429,8.4236,18.2988,-4.0334,-10.8013,-0.9698,10.3766,13.8561,15.7163,-7.1362,-2.9353,1.8332,9.5425,19.8228
2812.5000,-7.0863,-0.2546,20.0605,22.3804,23.7698,-2.5291,7.3740,20.4757,-4.5354,-8.2337,0.0558,10.2437,16.0064,19.3986,-2.6933,0.1571,5.7031,8.7166,22.2660
2816.4062,-7.3736,-2.6541,18.5754,23.3439,24.5066,-4.3596,7.3715,21.4073,-6.1694,-6.4583,-0.9468,7.5861,16.1390,21.3793,-1.9728,0.1587,7.1118,7.2506,22.5863
2820.3125,-9.0253,-5.7744,15.5461,22.5303,23.2883,-6.1485,7.7805,20.5827,-9.4363,-6.2531,-4.2112,3.0299,14.1448,20.1883,-4.9552,-3.1612,5.4879,4.3172,20.4430
2824.2188,-11.5258,-9.1827,11.3121,19.8236,20.6674,-7.6794,7.6536,18.2091,-13.7101,-7.2486,-8.6182,-1.6425,11.0225,16.3562,-9.1354,-7.8819,2.1448,-0.0539,16.6687
2828.1250,-13.5904,-11.9006,6.8721,15.9744,17.6966,-8.7066,6.4046,14.9601,-17.4516,-8.3360,-12.1893,-4.4313,8.3401,12.0378,-11.3087,-11.2384,-0.5198,-4.7209,12.7977
2832.0312,-14.0233,-12.9189,3.4752,12.2091,15.2785,-9.2072,4.2255,11.5783,-19.0116,-8.4497,-13.1326,-4.1751,7.3480,9.4814,-9.7066,-11.4535,-0.5707,-7.9302,10.2307
2835.9375,-12.5022,-11.7864,2.0582,9.5947,13.7166,-9.4248,1.9878,8.5830,-17.5480,-7.2193,-10.8603,-1.1074,8.3130,9.4980,-5.0231,-8.7850,2.2183,-8.3210,9.5568
2839.8438,-9.7792,-8.9074,2.8135,8.5297,12.7199,-9.6422,0.7277,6.1926,-13.5201,-5.1479,-6.3659,3.3583,10.4781,11.0632,0.2510,-5.1041,6.2625,-5.7929,10.4022
2843.7500,-7.2108,-5.3675,5.1008,8.6351,11.7582,-9.8827,1.0613,4.4077,-8.4841,-3.2959,-1.7098,7.4129,12.6107,12.2821,3.5594,-2.4286,9.2480,-1.6447,11.7986
2847.6562,-5.9651,-2.3976,7.7402,9.0635,10.4504,-9.8266,2.8751,3.1336,-4.3200,-2.7003,1.1031,9.7071,13.7165,11.8943,3.8033,-1.5656,9.6186,2.1426,12.7526
2851.5625,-6.4210,-0.7883,9.5387,9.0038,8.7179,-9.0561,5.4172,2.2620,-2.3250,-3.8375,1.1912,9.8269,13.4472,10.1169,1.6984,-1.8429,7.4472,4.0373,12.6533
2855.4688,-8.0824,-0.5792,9.8017,8.0789,6.6837,-7.4469,7.6800,1.7083,-2.6517,-6.3690,-0.8171,8.2329,12.0188,8.2107,-1.0561,-1.9996,4.1587,3.7781,11.3604
2859.3750,-9.9713,-1.1650,8.5917,6.4375,4.5059,-5.3727,8.8387,1.4340,-4.3573,-9.2705,-3.2822,5.8281,9.8287,7.2081,-3.0116,-1.4105,1.4046,2.3737,9.0674
2863.2812,-11.1905,-1.7256,6.6195,4.5468,2.3310,-3.5250,8.5486,1.4503,-5.9988,-11.3004,-4.5922,3.4636,7.1375,6.9193,-3.7098,-0.6304,-0.0481,1.3165,6.1371
2867.1875,-11.3286,-1.7155,4.8269,2.8574,0.3771,-2.4718,7.0096,1.7749,-6.4366,-11.6186,-4.0850,1.6245,4.0438,6.0770,-3.5770,-0.8596,-0.6533,1.5609,3.0192
2871.0938,-10.5532,-1.1435,3.8738,1.5538,-1.0152,-2.3100,4.8160,2.3330,-5.4179,-10.2641,-2.3129,0.3738,0.6872,3.5185,-3.3013,-2.8298,-1.5117,2.9396,0.2058
2875.0000,-9.4402,-0.5094,3.7951,0.5150,-1.5088,-2.6991,2.6657,2.8681,-3.6398,-8.2010,-0.5515,-0.5122,-2.5784,-0.5869,-3.2989,-6.0605,-3.4164,4.3677,-1.8731
2878.9062,-8.6845,-0.4604,4.0168,-0.5269,-1.0338,-3.2421,1.0468,2.9647,-2.2757,-6.8320,0.0683,-1.3302,-5.2445,-4.5432,-3.6171,-9.0968,-6.2524,4.6380,-3.0237
2882.8125,-8.8116,-1.3811,3.7297,-1.7492,0.0381,-3.8712,0.0420,2.2359,-2.2407,-7.1848,-0.7643,-2.2574,-6.9071,-6.2360,-4.1590,-10.5346,-9.1358,3.2385,-3.4092
2886.7188,-9.9593,-3.1547,2.4157,-3.0663,1.0209,-4.8829,-0.6390,0.5991,-3.6270,-9.2452,-2.4491,-3.2523,-7.4993,-4.7490,-4.8720,-10.0115,-11.0863,0.6501,-3.4680
2890.6250,-11.7918,-5.2302,0.2174,-4.1119,1.3366,-6.5721,-1.3925,-1.5478,-5.6537,-11.8951,-3.9486,-4.0890,-7.2827,-1.2157,-5.6960,-8.4003,-11.6694,-2.0233,-3.6156
2894.5312,-13.6099,-6.9488,-2.0904,-4.3808,0.9520,-8.7857,-2.3709,-3.4151,-7.1745,-13.5745,-4.4668,-4.5167,-6.5945,1.8390,-6.4030,-7.0897,-11.1437,-3.7858,-3.9041
2898.4375,-14.6746,-7.9287,-3.5385,-3.4576,0.4858,-10.8261,-3.2940,-4.1838,-7.4331,-13.2964,-3.8950,-4.4649,-5.5600,2.2789,-6.6087,-6.9475,-10.0952,-4.3214,-3.9031
2902.3438,-14.6256,-8.2710,-3.5700,-1.2312,0.8438,-11.8609,-3.6041,-3.4529,-6.5775,-11.3472,-2.7936,-4.1590,-4.0221,-0.0288,-6.0632,-7.7647,-8.9314,-4.0463,-2.9389
2906.2500,-13.7490,-8.4532,-2.4475,1.9968,2.5944,-11.5555,-2.9142,-1.4942,-5.5723,-9.1634,-1.9890,-4.0418,-1.7631,-2.9937,-4.9940,-8.5541,-7.6605,-3.6731,-0.5788
2910.1562,-12.8700,-8.9742,-1.1839,5.5558,5.5117,-10.4113,-1.4549,0.8571,-5.5362,-8.4153,-2.0757,-4.5098,1.1540,-3.7192,-4.1397,-8.3976,-6.0887,-3.6448,2.9549
2914.0625,-12.8594,-9.9782,-0.9988,8.5933,8.6241,-9.4887,-0.1564,2.6214,-6.9255,-9.8929,-3.1100,-5.6170,4.2125,-0.5944,-4.3209,-7.1459,-4.1973,-3.8446,6.7460
2917.9688,-14.0343,-11.1051,-2.5920,10.3484,10.7600,-9.6822,-0.2098,3.1531,-9.1214,-12.9539,-4.6169,-6.9447,6.6209,5.4352,-5.8085,-5.4547,-2.3284,-3.7469,9.5942
2921.8750,-15.8673,-11.6771,-5.6579,10.4274,11.2403,-11.0954,-2.3137,2.4039,-10.7264,-15.9221,-5.8407,-7.7468,7.7638,11.3585,-7.9783,-4.2000,-0.9854,-2.8391,10.6542
2925.7812,-17.2571,-11.1062,-8.9405,8.9801,10.2635,-13.0029,-6.0868,0.8527,-10.4024,-17.1571,-6.0716,-7.2977,7.6369,14.0564,-9.5819,-3.7811,-0.4038,-0.9742,9.9218
2929.6875,-17.2225,-9.2593,-10.8221,6.6973,8.7503,-14.4245,-10.0835,-0.8009,-7.7039,-16.0511,-4.9008,-5.2340,6.9559,12.3825,-9.5023,-3.8475,-0.2508,1.5944,8.2664
2933.5938,-15.5536,-6.5422,-10.1300,4.5933,7.7698,-14.8378,-12.4832,-1.9635,-3.3557,-13.2809,-2.3385,-1.6948,6.8300,7.9278,-7.4784,-3.5999,0.2629,4.4696,6.9763
2937.5000,-12.9452,-3.6525,-6.7206,3.6221,7.9248,-14.4515,-12.0760,-2.3239,1.1990,-10.1978,1.2025,2.7863,8.1610,3.9424,-4.2874,-2.3681,1.8889,7.4111,7.0680
2941.4062,-10.4983,-1.1786,-1.5301,4.2664,9.0583,-13.8426,-8.9437,-1.8511,4.6563,-7.8574,5.0283,7.5221,11.1141,3.1659,-1.2618,-0.0160,4.7906,10.4163,8.7459
2945.3125,-8.9440,0.6848,3.9114,6.2932,10.4137,-13.3077,-4.4086,-0.7043,6.5363,-6.4059,8.3615,11.8809,14.9726,6.0556,0.5065,3.0614,8.3276,13.5318,11.3080
2949.2188,-8.1637,2.1256,8.2165,8.8298,11.1013,-12.5332,-0.2852,0.8444,7.2669,-5.2194,10.5736,15.3796,18.4792,10.5957,0.7350,6.2315,11.3507,16.5802,13.5447
2953.1250,-7.3634,3.4499,10.7211,10.7676,10.5838,-10.9019,2.0912,2.4490,7.6897,-3.5973,11.3860,17.7016,20.4824,13.7579,-0.0359,8.9079,12.8409,19.0736,14.4038
2957.0312,-5.7618,4.7830,11.6208,11.3098,8.9265,-8.1844,2.4646,3.7347,8.3990,-1.4155,10.9547,18.7223,20.5260,13.5488,-0.9012,10.6360,12.4898,20.4301,13.5460
2960.9375,-3.2571,5.9592,11.6426,10.3600,6.7178,-4.9862,1.5622,4.3842,9.3952,0.7623,9.7871,18.5606,19.0395,10.2250,-1.1437,11.0471,10.8479,20.3493,11.4739
2964.8438,-0.5546,6.6667,11.4924,8.5114,4.7311,-2.4952,0.4425,4.2377,10.2406,2.1473,8.5131,17.5773,17.0084,5.9013,-0.5329,9.8849,8.9412,19.0502,9.1633
2968.7500,1.3347,6.7102,11.4246,6.6279,3.5148,-1.6690,-0.2284,3.3388,10.5137,2.3397,7.6167,16.2421,15.3222,2.9367,0.7205,7.2025,7.6050,17.1616,7.4248
2972.6562,1.8207,6.1738,11.1811,5.2862,3.1245,-2.5141,-0.4947,1.8959,10.1620,1.5934,7.2643,14.9017,14.2132,2.3306,2.1977,3.5903,6.9734,15.3265,6.4077
