Time,Fp1,F3,C3,P3,O1,F7,T3,T5,Fz,Fp2,F4,C4,P4,O2,F8,T4,T6,Cz,Pz
0.0000,-5.5350,6.5051,-4.8455,-0.9606,-13.1907,2.3833,-8.6107,-5.8817,-4.3568,-4.2348,-9.7735,5.8610,-4.2394,-6.8483,-14.8005,2.8424,-10.4167,-0.2175,-5.9708
3.9062,0.1830,11.2429,7.9422,6.2433,-6.7688,6.8718,-2.0657,-0.3172,4.0237,0.6806,-0.4997,8.1103,0.2895,-5.3713,-8.0220,-0.5121,-11.1405,7.1463,4.5697
7.8125,4.1166,13.5370,18.5332,13.7652,-1.8766,8.1526,1.8751,6.3223,11.1661,6.3273,7.1288,8.0545,2.8652,-3.6250,-0.6927,-4.6899,-11.8861,15.2323,12.9139
11.7188,4.9679,12.3315,22.6369,19.0730,1.8520,6.3823,3.1632,12.5695,14.7658,10.5755,10.7698,5.6721,3.2493,-2.0729,5.5979,-8.2379,-10.9540,20.7162,16.4581
15.6250,3.5046,8.5051,19.2600,21.1512,6.7916,3.6735,3.7141,17.8512,14.6951,12.2808,10.4039,1.9563,2.9026,-0.4020,9.7342,-10.2782,-7.1191,21.7021,15.3560
19.5312,1.8487,4.1536,11.2281,20.8532,14.9973,2.3620,5.8456,22.5266,12.7694,11.9864,8.1898,-1.8179,3.7187,2.2883,11.6403,-10.9647,-0.7759,18.8676,12.1847
23.4375,1.8954,1.1002,3.3411,19.8969,25.8442,3.2398,10.4838,27.0314,11.3100,11.4038,6.9483,-4.8418,6.5068,6.6107,12.2525,-11.1887,6.0650,14.8746,10.1041
27.3438,4.0711,-0.2493,-0.5792,19.3766,35.7680,5.1218,16.4682,30.9248,11.6199,12.0527,8.3230,-7.0292,10.4356,12.0216,12.8458,-11.8147,11.0645,12.4696,10.8223
31.2500,7.2867,-0.8874,0.2515,19.0128,40.6142,5.9927,21.4334,32.7931,13.4154,14.0887,11.8535,-8.7178,13.8177,16.7724,14.1555,-13.0556,13.1922,12.6489,13.7428
35.1562,9.9694,-2.1265,3.7316,17.7207,38.9067,4.7142,23.5603,31.2797,15.4375,16.2224,15.5239,-10.1767,15.5050,18.9096,15.9472,-14.4330,13.4200,14.1923,16.7555
39.0625,11.2568,-4.3811,6.9384,14.9588,33.4046,1.8976,22.8659,26.5030,16.5857,16.7933,17.2990,-11.3605,15.7019,17.6768,17.3907,-15.2725,13.8827,14.8289,17.9418
42.9688,11.4380,-6.7960,8.4534,11.6383,29.4944,-0.6805,21.1058,20.6386,16.6451,15.1545,16.5103,-12.0592,15.5602,14.2295,17.9474,-15.2684,16.1488,13.0772,16.8866
46.8750,11.4356,-7.9889,9.2103,9.7133,31.4257,-1.5106,20.4321,16.9419,16.1593,12.2670,14.1429,-12.2108,15.9919,10.9828,18.0162,-14.6474,19.9931,9.3393,14.7047
50.7812,11.9193,-7.2527,11.3414,10.6653,39.1813,-0.3923,21.8692,17.6803,15.7512,10.0015,11.9427,-12.0181,16.8016,9.9378,18.7241,-13.8457,23.6747,5.4534,12.9350
54.6875,12.8497,-5.1949,16.0737,14.0731,48.4074,1.7019,24.7401,22.3970,15.5883,9.6666,11.1255,-11.7327,16.9205,11.1809,20.9524,-13.0408,25.4816,3.1298,12.2973
58.5938,13.7704,-3.2637,22.4380,17.4936,53.5278,3.6525,27.3970,27.8637,15.4387,10.9052,11.6944,-11.3196,15.5277,12.7236,24.3965,-11.9903,25.2328,2.5521,12.3161
62.5000,14.4538,-2.5397,27.8600,17.9118,51.7150,5.0872,28.6026,29.9409,15.1665,11.8530,12.8102,-10.3634,13.0251,11.8909,27.5391,-10.3290,24.4322,2.2628,12.0332
66.4062,15.2195,-2.7945,30.1650,13.7838,44.7366,6.3638,28.4602,26.1764,15.1089,10.4885,13.7931,-8.3754,10.9377,7.2880,28.7189,-8.0487,24.8916,0.4139,11.1226
70.3125,16.5979,-2.6210,29.3679,6.1811,37.3610,7.7975,28.2038,17.3744,15.9207,6.1849,14.8441,-5.2813,10.7430,-0.1095,27.5241,-5.6955,26.9615,-3.6184,10.4110
74.2188,18.6660,-0.5814,27.7660,-1.8301,33.6705,9.0311,29.0858,7.0493,17.9921,0.3023,16.8540,-1.6641,12.6083,-7.5645,25.3469,-4.0561,28.9168,-8.5424,11.3301
78.1250,20.7202,3.5175,28.1966,-7.1427,34.1850,9.2812,31.2899,-0.8391,20.9680,-4.6273,20.4664,1.5026,15.1534,-12.4271,24.5080,-3.5567,28.1492,-11.9476,14.7350
82.0312,21.6691,8.2458,31.8016,-8.4910,35.9372,8.2845,33.7404,-4.2852,23.8293,-6.5260,25.2213,3.4686,16.5213,-13.8252,26.5219,-3.8797,23.3205,-11.9997,20.0656
85.9375,20.8630,11.4118,37.0692,-6.9577,35.2272,6.9756,34.9389,-4.1576,25.5163,-5.0317,29.5782,4.1931,15.9073,-12.9442,30.8590,-4.1575,15.7559,-8.7628,25.5647
89.8438,18.6513,11.5507,40.9428,-4.8684,30.6891,7.0474,34.1453,-3.1520,25.5980,-1.5414,31.9061,4.2983,14.2478,-11.7704,35.2702,-3.6285,8.8568,-4.1764,29.4134
93.7500,16.1455,8.9418,41.1575,-4.0246,24.1855,9.5558,31.9561,-3.6931,24.4471,1.8865,31.7040,4.5098,13.4132,-11.3803,37.5107,-2.2409,5.8358,-0.7369,30.9022
97.6562,14.3412,5.4177,37.9787,-4.6254,18.9334,13.7298,29.8232,-6.3531,22.8011,3.8784,30.0614,5.0376,14.4919,-11.1873,37.1053,-0.6984,7.4150,0.1224,30.7251
101.5625,13.3199,3.1344,33.9617,-5.5735,16.5631,17.1789,28.8931,-9.8102,21.1083,4.3686,28.9236,5.4206,16.5675,-9.7296,35.6755,0.1145,11.2140,-1.2005,30.1968
105.4688,12.2118,3.2183,31.9019,-5.7304,15.6364,17.5874,29.0836,-12.1497,19.2263,4.1850,29.6707,4.9896,17.0748,-6.2900,35.4768,-0.1191,13.3055,-3.0115,30.0652
109.3750,9.9742,5.2326,32.5739,-4.9956,12.8718,14.6378,29.1341,-12.3612,16.7175,4.1155,32.1048,3.5896,13.5983,-1.9208,37.3172,-0.8365,10.8171,-3.6382,29.9165
113.2812,6.3473,7.7380,34.0423,-4.3440,6.0494,10.5140,27.6098,-10.9123,13.4619,4.2990,34.6605,1.9631,5.8125,1.0827,39.6479,-0.9956,3.7366,-2.5086,28.6698
117.1875,2.1891,9.4100,33.1114,-4.8953,-3.8257,8.3634,24.0996,-9.1367,10.0248,4.3907,35.7083,1.4401,-3.9133,0.9272,39.7430,0.1129,-5.2429,-0.2793,25.7423
121.0938,-1.0989,9.8451,27.8148,-6.8918,-12.9061,9.7914,19.6750,-8.1222,7.4261,4.2175,34.9262,3.1212,-11.7518,-2.1030,36.1332,2.2843,-12.5300,1.9064,21.8771
125.0000,-2.5937,9.5385,19.0358,-9.4739,-17.1675,13.4025,16.2224,-8.0508,6.4602,4.2030,33.6154,7.1339,-14.6555,-5.5747,30.2718,4.5222,-15.6855,3.3147,18.8646
128.9062,-2.4942,9.2101,10.0222,-11.4060,-15.2757,15.7067,15.1046,-8.4088,7.0941,5.0810,33.6328,12.4914,-12.0573,-6.5209,25.8580,5.7803,-14.3699,3.9682,18.2762
132.8125,-1.8921,9.1186,4.1767,-12.0702,-9.4566,13.8391,16.1259,-8.6823,8.4120,7.0986,35.7210,17.6230,-5.9535,-3.5754,26.0816,5.7424,-9.8678,4.2938,20.1661
136.7188,-1.8986,8.9091,2.8030,-11.8400,-3.7884,7.9859,17.5778,-8.7932,9.1437,9.4358,38.5544,21.1637,0.5168,2.0000,30.8470,5.0221,-3.9384,4.5207,22.7952
140.6250,-2.8621,8.0271,4.4636,-11.5221,-1.3210,1.5145,17.3696,-8.8848,8.3836,10.4643,39.3422,22.4681,4.8892,7.2047,36.2757,4.6286,2.0033,4.4218,23.6836
144.5312,-4.2837,6.2699,6.3227,-11.3959,-2.2084,-1.4319,14.4629,-8.7622,6.0098,8.7939,35.6609,21.6046,6.3953,9.4558,37.1448,5.1264,6.9787,3.6101,21.2767
148.4375,-5.4097,3.9968,6.3373,-10.7593,-4.0845,0.9417,9.6020,-7.6623,2.6017,4.3665,27.2269,19.0258,5.7633,8.3946,30.6106,6.1619,10.2106,2.0693,16.0135
152.3438,-5.9143,1.8694,4.5927,-8.4508,-4.1195,6.7092,4.8278,-4.7321,-0.9641,-1.2649,16.3038,15.2996,4.2818,6.0168,18.4359,6.7346,11.1753,0.3870,10.0108
156.2500,-6.0671,0.4018,2.8564,-3.9562,-1.0265,11.7301,2.1189,0.1130,-3.8959,-5.7558,6.4144,11.1001,2.9664,5.0902,5.9507,5.9937,10.0526,-0.5652,5.6036
160.1562,-6.2944,-0.2908,2.8634,1.8543,4.3953,12.8681,2.1087,5.7274,-5.6520,-7.3515,0.2507,7.2961,2.3048,7.1119,-1.5668,3.9268,8.0378,-0.2568,3.8220
164.0625,-6.6197,-0.3946,4.7914,7.0576,10.2488,10.3502,3.7540,10.2104,-5.9598,-5.8659,-1.7657,4.8193,2.4306,11.3358,-2.4219,1.3990,6.8998,1.0973,3.8913
167.9688,-6.5700,-0.1385,7.1234,9.9118,14.9507,7.3578,5.1416,12.0849,-4.8656,-2.6077,-1.3414,4.2077,3.2842,15.5077,0.6650,-0.4814,7.8226,2.6978,4.0416
171.8750,-5.6848,0.3256,7.9058,10.0558,17.9042,7.1692,4.8224,11.3008,-2.8494,0.6060,-0.8337,5.1208,4.5467,17.6225,2.9553,-1.1682,10.3689,3.7538,2.9307
175.7812,-4.1621,0.7958,6.3024,8.7244,19.1851,10.1752,2.7236,9.2445,-0.8317,2.5669,-1.6087,6.3120,5.5605,17.3051,1.3781,-1.0321,12.5403,4.0199,0.5889
179.6875,-2.9839,0.8391,3.1888,7.7974,18.9419,13.2296,0.0378,7.7011,0.1281,3.1431,-3.4025,6.2793,5.5779,15.8345,-3.3483,-1.0155,12.1346,3.8588,-1.7522
183.5938,-3.2855,-0.1587,0.3980,8.4322,17.3077,11.9487,-1.7569,7.5662,-0.6027,2.9087,-4.9743,4.2583,4.3450,14.9570,-7.6776,-1.8896,8.4848,3.8298,-2.6791
187.5000,-5.4056,-2.6311,-0.6613,10.3536,14.8780,4.2019,-1.9760,8.3280,-2.7404,2.4236,-5.3306,0.8359,2.5719,15.5420,-8.3127,-3.7092,3.1963,4.2048,-1.5828
191.4062,-8.3996,-6.4051,0.1467,12.3217,13.0320,-7.9373,-1.1163,8.7156,-5.0748,1.8468,-4.4534,-2.3691,1.7495,17.1266,-4.8219,-5.8701,-0.8297,4.8434,1.1345
195.3125,-10.4805,-10.5957,1.9770,13.3250,13.3965,-19.3304,-0.3163,7.9450,-6.0503,1.1666,-3.0043,-3.8457,3.2411,18.5569,0.2702,-7.6792,-1.4486,5.5091,4.6541
199.2188,-10.1206,-13.9937,4.0256,13.4566,16.6039,-25.1561,-0.3615,6.4858,-4.6063,0.7099,-1.4081,-3.3634,7.2366,19.0306,3.8226,-8.9471,1.1763,6.2871,8.4876
203.1250,-7.0063,-15.7284,6.2768,13.7217,21.3713,-24.0027,-1.0306,5.6662,-0.7238,1.3138,0.7590,-2.2735,12.4038,18.6129,4.7634,-10.1233,4.7776,7.6603,12.6650
207.0312,-2.1484,-15.7357,9.2885,14.9450,24.9180,-18.4476,-1.2934,6.4223,4.6746,3.8557,4.4546,-2.6244,16.6241,17.8750,4.8465,-11.8799,6.8297,10.1055,17.2270
210.9375,2.8825,-14.6893,13.2450,16.7457,24.7150,-12.8948,-0.1948,8.2602,10.3445,8.4582,10.1601,-5.6674,18.3537,17.1231,6.9107,-14.4931,6.5741,13.5264,21.5688
214.8438,6.9550,-13.4579,17.2123,17.5264,20.3542,-10.4787,2.2802,9.3804,15.3632,14.0654,17.0637,-10.8345,17.6126,16.0199,12.2060,-17.5138,5.5796,17.0422,24.3663
218.7500,9.8531,-12.5135,19.3927,15.6033,14.0283,-11.3461,5.0629,7.9797,19.3483,18.8580,23.2199,-15.9710,15.8493,13.9799,19.1118,-19.9724,6.3584,19.3946,24.3237
222.6562,11.9731,-11.7367,18.3155,10.6272,9.1055,-13.3243,6.7356,3.7464,22.2111,21.3083,26.6805,-18.6947,14.8053,10.9552,24.3485,-20.9474,10.1592,19.7281,21.2278
226.5625,13.6558,-10.7271,14.0478,4.1364,7.8111,-14.0589,6.6210,-1.6704,23.8096,21.1124,26.7750,-17.9184,15.2880,7.8213,25.6422,-20.0765,15.7693,18.1535,16.4326
230.4688,14.8191,-9.3194,8.4117,-1.2907,9.8093,-12.7333,5.4064,-5.6782,23.9083,19.2758,24.5540,-14.4467,16.8147,5.9022,23.5686,-17.6746,20.3672,15.6335,12.2656
234.3750,15.2000,-7.8542,3.9444,-3.7301,12.8038,-10.1392,4.7922,-6.5389,22.5039,17.2652,22.0464,-10.2572,18.3399,5.9520,21.0156,-14.4518,21.7916,13.2429,10.6814
238.2812,14.8932,-6.9728,2.3388,-3.2132,14.6367,-7.4256,6.3589,-4.5994,20.1621,15.8748,20.8995,-7.0511,19.3640,7.4445,20.7330,-11.0988,20.3899,11.3593,12.1036
242.1875,14.5730,-7.1062,3.5182,-1.6603,15.1264,-4.9138,10.4285,-2.0113,17.9346,14.6874,21.4272,-5.1748,20.4116,8.8279,23.0614,-8.0425,18.8937,9.4092,15.2920
246.0938,15.0769,-8.0712,5.9963,-1.4898,16.0984,-2.0780,15.7301,-1.1437,16.7837,12.5464,22.7278,-3.6815,22.4361,8.6158,25.7584,-5.4656,20.3265,6.3764,18.3071
250.0000,16.6578,-9.0983,8.1698,-3.9249,19.5936,1.4594,20.1421,-2.8847,16.9258,8.6485,23.6654,-1.3998,25.6776,6.4726,26.0483,-3.4631,25.5471,1.6903,19.8299
253.9062,18.5931,-9.2774,9.4923,-8.2141,25.8084,5.0632,22.0402,-6.0857,17.6675,3.3761,23.8497,1.8889,29.0263,3.4249,23.1236,-2.1384,32.3676,-4.1836,19.8695
257.8125,19.5894,-8.1024,10.6447,-12.2662,32.5863,7.3403,21.3584,-8.5031,17.9507,-1.7985,23.8267,5.1000,30.5608,1.0244,18.9571,-1.5620,36.9781,-9.8996,19.4195
261.7188,18.7476,-5.7528,12.6771,-14.1452,36.9819,7.3673,19.6546,-8.4523,17.2213,-5.2607,24.4080,6.5810,28.9301,0.1369,16.7319,-1.6790,36.6146,-14.0189,19.4565
265.6250,16.3193,-2.9646,15.9222,-13.2989,37.6262,5.7334,19.1275,-5.9044,15.9088,-6.3034,25.7951,5.3382,24.4725,0.3233,18.2297,-2.2874,31.4491,-15.8480,20.1421
269.5312,13.6013,-0.6173,19.6143,-10.6850,35.8636,4.3169,21.2237,-2.2659,15.0702,-5.4658,27.2994,1.8118,19.1004,0.2841,22.3953,-3.1164,24.3056,-15.7397,20.8344
273.4375,12.0045,0.6978,22.5036,-7.8506,34.6038,4.8469,25.7308,0.8601,15.4376,-3.9399,27.9049,-2.3620,14.9487,-1.0282,26.2798,-3.9138,18.4974,-14.6933,20.7968
277.3438,12.0247,0.9244,23.9107,-5.7680,35.7577,7.4645,30.9348,2.8823,16.6451,-2.5688,27.1794,-5.3755,12.8065,-3.5431,27.5333,-4.4511,15.4909,-13.6042,19.9277
281.2500,12.9413,0.5443,24.3091,-4.3065,38.3969,10.6017,34.7310,4.4732,17.3259,-1.2665,25.7273,-6.2802,11.5811,-6.1251,26.3080,-4.4712,14.1483,-12.7280,18.8742
285.1562,13.4696,0.3810,24.9474,-2.6252,39.2757,12.3814,35.9711,6.7758,16.0861,0.6926,24.7746,-5.3210,9.2468,-7.4471,24.9580,-3.7094,11.9949,-11.7019,18.4758
289.0625,12.7997,1.2746,26.8253,-0.0446,35.4301,12.3627,35.1826,10.3050,12.6253,3.7996,25.2139,-3.4654,4.5496,-6.9490,25.8317,-2.0695,7.3862,-10.0173,19.0675
292.9688,11.1457,3.7091,29.8678,3.3359,26.7921,12.0606,34.1857,14.4481,8.1042,7.6211,26.9041,-1.6160,-1.8823,-5.1454,29.0916,0.1405,0.8344,-7.5274,20.2571
296.8750,9.3779,7.5242,32.9565,6.6926,16.6280,13.6671,34.8287,17.8934,4.4249,10.9040,28.8067,-0.1315,-7.9160,-3.1454,32.4718,2.1589,-5.4747,-4.6052,21.3361
300.7812,8.1177,11.8843,34.7695,9.0425,9.2976,17.9898,37.6274,19.5377,2.9514,12.4223,29.8413,1.0858,-11.4969,-1.8869,33.2063,3.0853,-9.4692,-1.8880,21.9017
304.6875,7.1495,15.6062,34.7415,9.8048,7.0152,23.4003,41.1989,19.0963,3.6522,11.8985,29.7528,2.1903,-12.1930,-1.7263,30.4781,2.4530,-10.7945,0.1462,22.1028
308.5938,5.7074,17.7339,33.3910,8.9689,8.1733,26.8319,42.9229,16.9979,5.3096,10.2616,29.2812,3.1417,-11.4866,-2.5934,26.2645,0.6731,-10.9771,1.4434,22.3002
312.5000,3.3875,18.0280,31.7991,6.8892,8.6190,26.1420,40.5138,13.8146,6.5770,9.0214,29.5115,3.8270,-11.5834,-4.3598,23.8035,-1.0480,-12.0926,2.3248,22.5067
316.4062,0.8274,17.0192,30.6920,4.0197,4.9484,21.9241,33.5756,9.8455,6.9913,9.2277,30.9451,4.3608,-13.6689,-6.9232,24.9346,-1.3765,-15.0439,3.2187,22.1967
320.3125,-0.5552,15.5475,29.8522,0.8386,-2.7463,17.2066,24.1307,5.2353,7.1200,10.7825,33.0357,5.1764,-16.9562,-9.8912,28.5435,0.2931,-18.7978,4.3900,20.7361
324.2188,0.3362,14.1099,28.2804,-2.0875,-10.8470,15.1750,15.6766,0.4185,7.7808,12.5823,34.5272,6.7271,-19.2389,-12.2809,31.4237,3.4073,-21.1204,5.8235,18.0680
328.1250,3.2242,12.5360,24.9364,-4.1489,-14.9464,16.7098,11.2245,-3.6866,9.0758,13.3299,34.2873,9.0299,-18.4990,-12.7664,30.8449,6.6031,-20.1987,7.2746,14.9850
332.0312,6.3999,10.2949,19.4898,-4.9748,-13.2386,19.7390,11.4735,-6.0946,10.1427,12.3943,31.9817,11.4996,-14.3418,-10.5322,26.6874,8.6239,-15.9230,8.4124,12.6283
335.9375,7.8329,7.2159,12.5775,-4.7610,-7.9392,20.9419,14.2929,-6.5203,9.8944,10.1408,28.1460,13.3113,-8.2241,-6.1254,21.3935,9.1370,-9.9444,8.9849,11.5496
339.8438,6.6446,4.0015,5.4738,-4.2793,-3.6595,18.4145,15.9318,-5.7968,8.1308,7.6065,23.7324,14.0574,-2.3967,-1.4882,17.8372,8.8298,-4.5682,8.9704,11.1386
343.7500,3.7794,1.9935,-0.5264,-4.4008,-4.0132,13.1148,13.2907,-5.4278,6.0111,5.8694,19.5870,14.1422,1.5657,1.1134,16.9569,8.7092,-1.3432,8.6689,9.9941
347.6562,1.3022,2.2351,-4.6167,-5.4100,-9.0505,7.9305,5.8545,-6.4704,5.3586,5.5737,16.2338,14.5074,3.5507,0.6261,17.1504,9.1665,-0.3093,8.6384,7.0425
351.5625,0.8431,4.5063,-6.6710,-6.6686,-15.3973,5.2034,-3.9533,-8.5894,7.2405,6.8251,13.9525,15.8184,4.5414,-1.9453,15.8894,9.5833,-0.2926,9.4132,2.5176
355.4688,2.4032,7.1636,-7.1520,-7.0017,-18.8530,4.8332,-12.2471,-10.1031,10.9333,9.3291,12.8520,17.7329,5.5361,-4.1478,12.1008,8.8448,0.1117,11.0820,-2.0596
359.3750,4.4541,8.0662,-6.8706,-5.6077,-17.3671,4.5749,-16.0315,-9.1081,14.1693,12.5278,12.7285,18.8899,6.6850,-3.8120,7.2314,6.3837,1.6138,12.9953,-4.9830
363.2812,5.2252,6.0161,-6.6795,-2.7994,-12.1761,2.2607,-14.8898,-4.8872,14.5890,15.6562,12.8631,17.7347,7.2916,-0.6391,4.0699,2.9010,3.9359,13.9082,-5.7070
367.1875,4.1267,1.6445,-7.1360,0.0737,-6.4374,-1.9988,-10.9243,1.4896,11.3732,17.8509,12.1348,13.6291,6.5773,3.6009,4.3542,0.1000,6.2168,12.6328,-5.3182
371.0938,2.1741,-2.9904,-8.2177,1.5629,-2.6503,-5.6112,-7.0707,7.8680,5.8494,18.4525,9.6284,7.4172,4.5102,6.4632,7.2376,-0.4771,7.7311,8.8801,-5.6692
375.0000,1.1165,-5.8728,-9.2650,1.2391,-0.9501,-5.6064,-5.0243,12.4945,0.6281,17.4037,5.4135,0.9799,2.0074,6.7538,9.9506,1.3193,8.4101,3.7101,-7.8010
378.9062,2.0261,-6.4844,-9.2861,0.0963,0.5278,-1.3614,-4.2418,15.1269,-2.0823,15.4152,0.8456,-3.9420,0.3733,5.4614,10.1019,3.9122,8.8545,-0.8453,-10.9170
382.8125,4.5097,-6.1202,-7.5382,-0.1452,3.7658,4.3750,-2.6582,16.9169,-1.7456,13.6311,-2.0398,-6.8163,0.4367,4.9283,7.6586,4.9043,9.8725,-2.8859,-12.7976
386.7188,7.1443,-6.7893,-4.0379,1.6585,9.1633,7.1859,1.5064,19.2093,0.5064,12.9063,-1.7738,-8.5083,2.0493,6.9045,4.9316,2.6493,11.8574,-1.8057,-11.4116
390.6250,8.7082,-9.5339,0.3894,5.1919,15.3975,4.2357,8.2479,22.2999,3.0154,13.2036,1.5243,-10.4702,4.2732,11.0519,4.6071,-2.6150,14.4025,1.3060,-6.5026
394.5312,9.1505,-13.4827,4.6229,8.9541,20.8040,-3.4365,15.6966,25.2153,4.9051,13.6377,6.1801,-13.5558,6.0482,15.1338,7.5321,-8.8907,16.4221,4.3849,0.0993
398.4375,9.5192,-16.4051,7.9937,11.5103,24.9484,-11.4255,21.4508,26.7040,6.5598,13.2348,10.1237,-17.3479,6.8128,16.7697,12.1334,-13.7195,16.7540,5.7983,5.7102
402.3438,10.9760,-16.3533,10.7036,12.7160,28.9696,-14.9745,24.2507,26.5619,9.0155,11.8614,12.3477,-20.4826,6.6717,15.3394,15.9047,-15.7390,14.9094,5.4592,8.6332
406.2500,13.7853,-13.1221,13.5678,13.8696,34.3923,-12.2672,24.7053,26.0747,12.8739,10.5305,13.5281,-21.6917,6.0997,12.4656,17.5893,-15.4154,11.4899,4.8142,9.2027
410.1562,17.1257,-8.3963,17.2527,16.5798,41.4478,-5.5680,24.5673,27.0604,17.6589,10.7056,15.2853,-20.7548,5.5131,10.6334,18.1059,-14.4970,7.9384,5.6673,9.2825
414.0625,19.8188,-4.5026,21.6013,21.1921,48.3796,0.5608,25.2078,30.1935,22.0865,13.0230,18.6487,-18.6454,5.0591,11.0392,19.4111,-14.6535,5.7128,8.6720,10.6925
417.9688,21.2741,-2.7797,25.5943,26.0504,52.3965,2.5476,26.5448,33.9990,24.9470,16.4264,22.9805,-16.7783,4.7282,12.4332,22.3655,-16.3023,5.3996,12.6202,13.8488
421.8750,21.8087,-2.8450,27.9937,28.2879,51.5763,0.1518,27.2692,35.4743,25.8468,18.5176,26.3030,-15.9384,4.6030,11.9630,25.6129,-18.4027,6.4031,15.1036,17.6487
425.7812,22.1138,-3.2648,28.1600,25.6659,46.2353,-3.7373,26.1368,32.0403,25.2681,17.0510,26.8529,-15.6959,4.9727,7.4246,26.6275,-19.2491,7.4882,14.1236,20.5612
429.6875,22.4324,-2.9707,26.3976,18.1317,38.7053,-5.4619,23.2240,23.4140,24.0200,11.5721,24.6486,-14.7315,6.1922,-0.8358,24.1477,-17.6042,7.8245,9.5035,21.9084
433.5938,22.2691,-2.1835,23.5860,7.9356,31.7188,-3.2130,20.0840,11.9644,22.6355,3.9693,21.7591,-11.8286,8.4013,-9.8915,19.8625,-13.3812,7.7400,3.0788,22.2514
437.5000,20.9388,-2.0771,20.4658,-1.7803,26.6767,1.9744,18.6455,1.2319,21.2117,-2.5691,20.9411,-6.8195,11.3423,-16.1392,17.6900,-7.5285,8.5388,-2.4734,22.6432
441.4062,18.4461,-3.5259,17.2342,-8.8671,23.1019,7.3138,19.7285,-6.3083,19.7164,-5.5379,23.6205,-0.8286,14.4348,-17.6833,20.9608,-1.3872,11.4318,-5.3206,23.5230
445.3125,15.8267,-6.0812,13.8049,-13.1487,19.5900,10.3512,22.3761,-10.5707,18.3471,-4.6486,28.7705,4.3415,17.0699,-15.3837,29.6585,3.9225,16.3653,-5.4773,24.3184
449.2188,14.5197,-8.1241,10.4512,-15.8708,15.3752,10.4086,24.5521,-13.3288,17.5270,-1.8205,33.5979,7.2568,18.9274,-11.8396,40.0006,7.7219,21.7137,-4.4661,24.1386
453.1250,15.2203,-8.1153,8.1495,-18.2046,11.1828,8.5224,24.6652,-16.3448,17.5188,0.3385,35.5568,7.6574,20.1032,-9.2168,46.8665,9.6720,25.2015,-3.9848,22.9070
457.0312,17.1918,-5.8860,8.1547,-20.0959,8.6709,6.2830,22.7268,-19.7159,18.0460,0.4159,34.1654,6.5434,20.9639,-7.7051,47.3137,9.6715,25.4575,-4.6329,21.8168
460.9375,18.6942,-2.8420,11.0277,-20.3946,8.9296,4.6989,20.2509,-21.7846,18.3294,-0.9511,31.2423,5.5390,21.8186,-5.7961,42.5111,7.9588,23.0274,-5.6328,22.5487
464.8438,18.2500,-0.8625,15.9074,-18.0955,11.2743,3.8985,19.0070,-20.6647,17.5654,-1.8356,29.4037,5.9536,22.6126,-2.0322,36.6325,5.2844,20.0025,-5.6677,25.8012
468.7500,15.7217,-0.7968,20.7425,-13.5797,13.3578,3.5975,19.6324,-16.1036,15.4478,-0.7397,30.0055,8.0868,22.8391,3.3376,33.6249,2.8337,18.4558,-4.0983,30.3897
472.6562,12.2896,-1.8331,23.4735,-8.7388,12.6130,3.6345,21.1849,-10.0977,12.2759,2.0928,32.1238,11.1299,21.7507,8.2510,34.3874,1.7463,18.8402,-1.5755,33.8048
476.5625,9.3390,-2.2828,23.3497,-5.7905,8.0263,4.0181,21.9475,-5.6695,8.5708,4.7850,33.3271,13.6601,18.7798,10.3984,36.4860,2.4673,19.5992,0.4056,33.9382
480.4688,7.2208,-1.1093,21.3745,-5.6884,0.9776,4.5718,20.8105,-4.6913,4.5877,5.2485,31.5926,14.4204,13.9374,9.1554,36.4611,4.4134,18.3494,0.6215,30.6615
484.3750,4.9971,1.1331,19.4963,-7.3962,-5.4575,4.7314,18.1487,-6.4379,0.2265,2.8027,26.8637,12.9619,7.9405,6.2322,32.7567,6.2816,13.7718,-0.9839,25.9664
488.2812,1.4570,2.7988,19.1423,-8.6320,-8.2833,3.8920,15.5652,-8.0200,-4.5345,-1.2475,21.0891,9.8254,1.9406,4.4335,26.9275,6.8599,6.7662,-3.2955,22.4826
492.1875,-3.4446,2.6885,20.2225,-7.5329,-6.2774,2.0913,14.7749,-6.4123,-9.0962,-4.4851,16.8021,6.1885,-3.0351,5.4807,22.2868,5.7928,-0.0488,-4.8686,21.5018
496.0938,-8.0233,1.2800,21.3644,-3.9737,-0.5554,0.3754,16.5165,-0.5829,-12.1966,-5.0207,15.4000,3.1864,-6.6176,8.6447,21.2349,3.7573,-4.1415,-4.9369,22.0599
500.0000,-9.8232,0.5032,21.1436,0.4330,6.2437,0.3634,20.2446,7.8203,-12.5996,-2.6830,16.4112,1.2973,-9.2557,11.2942,23.4744,1.9422,-4.8231,-3.8427,21.8055
503.9062,-7.4687,2.1338,19.2702,3.5889,11.5261,3.1966,24.6519,15.6472,-10.0746,1.0393,18.1612,0.1608,-11.8578,10.9310,26.4466,1.2414,-3.6333,-2.6428,18.9428
507.8125,-1.9515,6.1120,16.7407,4.4003,14.0524,8.6252,28.4397,20.3272,-5.8570,4.1370,19.1326,-1.0428,-15.1032,7.0908,27.4483,1.7594,-3.0887,-2.2782,13.6800
511.7188,3.7648,10.2648,14.8440,3.3847,14.2663,14.9441,30.6982,21.3129,-2.0748,5.3837,18.8748,-2.8785,-18.8588,1.6315,25.5961,2.9383,-4.7675,-2.9547,8.0282
515.6250,6.6531,11.8156,13.8957,2.0458,13.6183,19.8599,30.7713,19.9680,-0.4252,4.8995,17.8459,-5.0797,-22.1044,-2.7441,22.0971,4.1028,-8.1749,-4.1215,4.1524
519.5312,5.6565,9.5630,12.8275,1.6510,13.4672,21.6848,28.0267,18.2267,-1.0362,3.7422,16.5471,-6.5430,-23.4591,-4.4708,18.8220,4.9166,-11.1872,-4.9290,2.6582
523.4375,2.3138,4.9709,10.0521,2.4365,14.2980,20.0672,22.0288,17.2152,-2.3980,3.0262,14.8744,-5.9758,-21.9990,-4.0056,16.5763,5.3919,-11.6601,-4.7281,2.2273
527.3438,-0.4890,1.2012,4.9308,3.7916,15.6703,15.8998,13.1335,16.8586,-2.4774,3.2884,12.3100,-2.8192,-17.8495,-2.9977,14.5839,5.5453,-8.9549,-3.2714,0.8803
531.2500,-0.6685,0.7630,-1.3962,5.0914,16.7809,10.6719,2.9613,16.5461,-0.2246,4.4454,8.7241,2.1757,-12.1801,-2.5855,11.5219,5.1303,-4.3006,-0.6244,-2.2141
535.1562,1.6442,3.6000,-6.5884,6.3262,17.1436,5.8218,-5.8889,16.0442,3.6408,6.1266,4.9409,7.1683,-6.6177,-2.3648,7.0608,3.7945,0.1366,2.9566,-5.9147
539.0625,4.4414,7.1424,-8.7261,7.9510,16.8854,2.4222,-10.9836,15.7639,7.1378,7.9379,2.4046,10.1782,-2.4654,-0.9365,2.4749,1.5697,2.6585,6.9967,-7.9732
542.9688,5.5469,8.3025,-7.7172,10.1532,16.4890,1.0983,-11.3984,16.1966,8.4262,9.4484,2.1072,10.1813,-0.1960,2.4752,-0.2329,-0.7847,2.8785,10.7209,-6.8830
546.8750,4.2861,5.8399,-5.3475,12.3155,16.2385,1.8985,-8.2858,17.1620,7.0474,10.1012,3.6744,7.6365,0.5409,6.8250,0.0827,-2.0343,1.5525,13.1848,-3.1798
550.7812,1.8441,1.2276,-3.8854,13.2928,15.8544,4.0745,-4.1462,17.6944,4.1312,9.3780,5.4758,4.0929,0.5183,9.6492,2.7901,-1.2903,-0.2244,13.7269,0.8927
554.6875,0.1697,-2.6408,-4.3071,12.3645,14.6684,6.0800,-1.2085,16.7870,1.5231,7.2527,5.8161,1.1555,0.4756,8.8925,6.0007,1.1711,-1.6983,12.4933,3.0986
558.5938,0.4423,-3.8163,-5.5313,10.0459,12.2771,6.1214,-0.0208,14.3734,0.5885,4.5510,4.3295,-0.4741,0.8834,4.7078,8.0515,3.7847,-2.5559,10.5727,2.9277
562.5000,2.3663,-2.8013,-5.2749,7.9616,9.1962,3.1574,0.7539,11.6258,1.5912,2.7423,2.4415,-1.2398,1.9653,-0.3105,8.6886,4.5112,-2.5994,9.4712,1.9384
566.4062,4.7495,-1.9930,-1.8708,7.7417,6.9369,-2.2897,3.1922,10.1927,3.9627,3.0985,2.4335,-2.1538,3.8129,-2.7918,9.0168,2.1220,-1.5062,10.1689,2.4695
570.3125,6.7009,-3.5666,4.3528,9.7577,7.2664,-8.2317,8.4394,10.9277,7.0204,5.7558,5.7353,-3.8902,6.4206,-0.9428,10.3741,-2.9307,1.0149,12.4068,5.7673
574.2188,8.3235,-7.5735,11.1763,12.7389,11.0087,-12.3592,15.6977,13.1598,10.4091,9.4444,11.7101,-6.2576,9.6202,4.2220,13.1750,-8.7074,4.8433,14.7899,11.0045
578.1250,10.3253,-11.8329,15.9619,14.6522,17.1809,-13.5257,22.5623,15.1616,13.9293,12.2363,17.8696,-8.4259,13.0370,9.7364,16.6856,-12.9462,9.2944,15.7201,15.9105
582.0312,13.0090,-13.6921,17.3590,14.2097,23.1809,-12.4683,26.4372,15.4759,17.0883,12.8613,21.4076,-9.6797,16.1802,12.9428,19.7952,-14.4112,13.4434,14.5295,18.4381
585.9375,15.6772,-12.1838,16.0001,11.8225,26.1082,-11.1374,26.0519,14.0172,19.0149,11.6134,20.9839,-10.0624,18.6394,13.3741,21.9717,-13.5115,16.6912,11.9735,18.1286
589.8438,17.1000,-8.7837,13.7954,9.2246,24.5006,-11.0700,22.1138,12.0115,19.0214,10.1022,17.5310,-10.3713,20.2276,12.7955,23.5177,-11.8168,19.0609,9.6832,16.1803
593.7500,16.6795,-6.1460,12.5074,8.0426,19.3647,-12.0451,16.7885,10.8069,17.3967,9.9750,13.5959,-11.4991,20.9485,13.4378,24.9812,-10.8800,20.9316,8.9514,14.3289
597.6562,15.2401,-5.8803,12.7288,8.4415,13.7351,-12.1276,12.4675,10.5530,15.6355,11.5698,11.7502,-13.6387,20.8273,15.9064,26.4086,-11.2278,22.4474,9.7433,13.5620
601.5625,14.6175,-7.2301,13.9061,8.9311,10.9266,-9.1609,10.6264,9.9115,15.6594,13.5652,13.1622,-15.9944,19.7998,18.4883,27.2490,-12.1777,23.1842,10.6688,13.6906
605.4688,16.2495,-7.7705,15.1349,7.5008,12.5546,-2.6151,11.3645,7.1219,18.4386,13.9402,17.1711,-17.2492,17.8183,18.4336,27.0422,-12.4946,22.4686,9.9404,13.9630
609.3750,19.8947,-5.5579,15.8968,3.1983,17.6122,5.6452,13.6925,1.6056,23.0501,11.5179,21.9306,-16.4564,15.1267,14.1786,26.1923,-11.3136,20.1412,6.6104,14.0067
613.2812,23.5972,-0.9488,16.1391,-3.0766,23.2193,12.3313,16.2301,-5.2220,27.0248,6.8898,25.5219,-13.6998,12.4444,6.7269,25.9565,-8.6604,17.0864,1.1993,14.1943
617.1875,25.0385,3.4530,15.8393,-9.1586,26.5346,14.7865,17.8915,-10.6773,27.8949,1.9912,26.8151,-10.0465,10.7977,-0.9150,27.4803,-5.2980,14.9521,-4.6870,15.1526
621.0938,23.2595,4.7459,14.7098,-13.0916,26.5292,12.6559,18.2920,-12.5953,24.8832,-1.3264,25.7314,-6.8509,10.9888,-5.7996,30.6546,-2.1575,15.1277,-9.3989,16.9664
625.0000,19.3901,2.0531,12.5208,-14.3365,24.4419,7.9949,17.8100,-10.8213,19.4749,-2.5840,23.0222,-4.9336,13.0160,-6.9849,33.8748,0.1587,17.7108,-12.1488,18.9051
628.9062,15.7945,-2.6304,9.8013,-13.8306,22.6856,3.8149,17.3387,-7.2463,14.4047,-2.8059,19.8684,-4.2078,15.8878,-5.8920,35.0988,1.4952,21.2906,-13.1826,19.9895
632.8125,14.3125,-5.7633,8.1365,-12.9680,23.0629,2.1827,17.8192,-4.3512,11.7855,-3.4274,17.4904,-3.9446,18.0535,-4.8981,33.4620,1.9607,23.7898,-13.2351,19.8967
636.7188,14.9963,-4.7549,9.4699,-12.4087,25.5828,3.2066,19.7298,-3.3843,11.7638,-4.9164,16.7808,-3.3868,18.2478,-5.3657,30.1325,1.7396,23.7863,-12.8206,19.3452
640.6250,16.3068,0.2500,14.6716,-11.6850,28.6512,5.4665,22.7911,-3.5665,12.6772,-6.2779,17.9720,-2.2099,16.2152,-6.6821,27.6136,1.0907,21.3535,-11.9397,19.5389
644.5312,16.5176,6.5901,22.4352,-9.8442,30.3495,7.3378,26.1064,-2.8947,12.5213,-5.8695,20.4934,-0.5337,12.8192,-6.9965,27.9568,0.4509,17.8201,-10.3486,21.1036
648.4375,15.0976,11.0417,29.5524,-6.5029,29.7423,8.1122,28.7103,0.1329,10.5328,-2.8617,23.2185,1.4059,9.4382,-4.9578,31.2757,0.4057,14.6807,-8.0385,23.4483
652.3438,12.9272,11.9775,32.6754,-2.3875,27.2330,8.1773,30.1821,5.2238,7.6559,1.8781,25.0978,3.5522,7.0408,-1.0032,35.7438,1.4198,12.5050,-5.4385,25.1545
656.2500,11.2516,10.1823,30.4882,1.0767,23.8208,8.3761,30.8621,10.3858,5.5949,6.2472,25.8252,6.0104,5.5588,2.8145,39.0601,3.5001,10.6428,-3.1581,25.1114
660.1562,10.3858,7.9253,24.7316,2.7482,20.0118,9.2792,31.4629,13.2627,5.3001,8.3922,26.0345,8.7715,3.9781,4.2633,40.1678,6.1106,7.8608,-1.5311,23.4370
664.0625,9.3874,7.2120,19.2242,2.4977,15.3738,10.9853,32.3588,12.6480,6.1605,8.0490,26.7859,11.4920,1.0853,2.4563,39.8220,8.4914,3.3522,-0.3967,21.3795
667.9688,7.0329,8.5997,17.4454,1.1261,9.1272,13.4397,33.1600,9.0932,6.5523,6.6682,28.6463,13.5986,-3.6295,-1.6895,39.5966,10.1790,-2.6428,0.6765,20.2566
671.8750,3.2287,11.2916,20.3186,-0.3717,1.2408,16.7430,33.0111,4.3213,5.2537,6.2196,31.0563,14.6738,-9.5025,-6.2908,40.2440,11.3004,-8.9699,1.9330,20.3373
675.7812,-0.4757,14.1185,25.7270,-1.5193,-6.9758,20.9970,31.4449,0.0686,2.5208,7.6161,32.5378,14.7872,-14.9586,-9.8446,40.8610,12.3591,-14.2099,3.1646,20.6383
679.6875,-1.8894,16.4044,30.0554,-2.4726,-13.4071,25.7907,29.0667,-2.7273,-0.0786,9.9962,31.6758,14.4469,-18.3378,-12.0016,39.6082,13.6486,-17.3067,3.8804,19.8230
683.5938,0.0136,18.0536,30.6059,-3.5483,-16.4798,29.9107,27.3497,-3.9475,-0.9281,11.4192,28.1759,14.1569,-18.7850,-13.2863,35.3815,14.7909,-17.8154,3.7590,17.4209
687.5000,3.9950,19.0488,27.1686,-4.7024,-16.2808,31.7771,27.5024,-3.8130,0.3422,10.4207,23.1837,13.9377,-16.6888,-14.2006,28.9943,14.8461,-15.8294,2.9745,14.2743
691.4062,7.2144,19.0967,21.7384,-5.4851,-14.5129,30.4775,29.2145,-2.5269,2.6226,7.2237,18.5889,13.2399,-13.4458,-14.5948,22.8172,12.9970,-11.8700,2.1086,11.7799
695.3125,7.3045,17.9098,16.7863,-5.4924,-13.2418,26.6516,30.3870,-0.3606,4.3460,3.6951,15.8125,11.3878,-10.7126,-13.8374,19.1052,9.3061,-6.8899,1.7434,10.5586
699.2188,4.2897,15.8533,13.5050,-4.8257,-13.3637,22.4357,28.3236,2.0774,4.8973,2.1080,14.9780,8.2358,-9.5717,-11.5410,18.3407,4.9157,-2.2375,2.1112,9.7479
703.1250,0.7754,14.1816,11.3227,-4.0475,-13.9853,20.3182,21.7108,3.8898,5.1873,3.6443,15.0466,4.4967,-10.0522,-8.1047,18.9162,1.4515,0.6730,3.1020,7.6298
707.0312,0.1189,14.3665,8.8747,-3.6174,-13.2259,21.5925,11.9330,4.4269,6.8429,7.6884,14.7307,1.4196,-11.2270,-4.5372,18.3894,0.0136,0.9936,4.5613,3.1631
710.9375,3.8791,16.8754,5.4589,-3.3405,-9.8350,25.4610,2.5760,3.8904,10.6215,12.3075,13.4035,0.0023,-11.7962,-1.6999,15.2911,0.4965,-0.9906,6.5110,-2.8565
714.8438,10.4655,20.4086,1.7068,-2.4317,-4.3577,29.4247,-2.7511,3.3563,15.3497,15.4525,11.3004,0.3181,-10.8142,0.3577,10.0844,1.7593,-3.8440,8.9946,-8.0711
718.7500,16.0546,22.4081,-1.0494,-0.2626,1.0914,30.7140,-2.8156,3.9942,18.3408,16.0031,8.9609,1.4871,-8.1600,2.3805,4.6284,2.5233,-5.6661,11.6522,-10.1867
722.6562,17.1446,20.6747,-2.0883,2.8121,4.3011,27.8218,0.3846,6.0071,17.1097,14.0641,6.5281,2.3371,-4.5019,5.2244,0.7217,2.3037,-5.0992,13.4921,-8.7084
726.5625,12.9029,14.9605,-2.0850,5.3536,4.5583,21.2042,3.0353,8.2101,11.1758,10.5540,3.6146,2.2566,-0.8063,9.0957,-1.0512,1.6507,-1.9840,13.2659,-5.3679
730.4688,5.6407,7.2876,-2.6210,5.7320,3.1326,12.8336,2.2384,8.7556,2.6245,6.5748,-0.1096,1.5776,2.2919,13.3490,-1.3405,1.5259,2.7685,10.3575,-2.8213
734.3750,-0.8321,0.6533,-4.7650,3.4250,2.2841,5.0354,-1.9228,6.5793,-5.0082,3.0128,-4.1667,1.1890,4.8492,16.9727,-1.1216,2.3308,7.9269,5.5510,-2.5898
738.2812,-3.6824,-2.9725,-7.9014,-0.3205,3.5803,-0.6200,-6.5196,2.4419,-8.7607,0.4608,-7.1334,1.6904,7.4703,19.3024,-0.7859,3.3957,12.6872,0.9624,-3.8734
742.1875,-2.5715,-3.8693,-9.8537,-3.1102,6.8370,-3.8107,-8.0167,-1.3566,-7.7949,-0.7454,-7.4029,2.7779,10.7516,20.3482,-0.0092,3.3757,16.8541,-1.0353,-4.2122
746.0938,0.7124,-4.0949,-8.3459,-2.9659,10.4789,-5.2672,-4.9220,-2.5016,-3.4985,-0.5491,-4.3271,3.3789,14.6918,20.5146,1.6429,1.2766,20.4231,0.7262,-1.5168
750.0000,3.9769,-5.7075,-2.7622,0.2978,12.9675,-6.1783,1.1515,-0.3129,1.7593,0.7952,1.1852,2.4604,18.4847,20.0520,4.0983,-2.6878,23.0543,5.3867,4.1192
753.9062,6.2503,-9.0696,5.1361,4.9386,14.0896,-7.5484,6.7864,3.7731,6.2146,2.8548,7.1674,-0.1153,20.8664,18.7946,6.8028,-7.0940,24.0023,10.5297,10.2623
757.8125,8.1324,-12.5346,12.1406,8.5143,15.0297,-9.7223,9.3790,7.2984,9.5374,5.3327,11.8692,-3.3808,20.8152,16.4250,9.3345,-10.1979,22.6216,13.6899,13.7877
761.7188,10.8249,-13.7227,15.5648,9.5451,17.1602,-12.1868,9.0300,8.6141,12.4993,8.3113,14.8272,-5.8966,18.1609,12.9757,11.9210,-11.0584,19.0102,13.8557,13.0785
765.6250,14.8228,-11.3647,14.8761,8.3566,20.5682,-13.7418,8.2624,7.9979,15.9558,12.1109,16.8994,-6.7656,13.7213,9.0382,15.2391,-10.0670,14.1950,11.9115,9.1092
769.5312,19.3775,-6.2921,11.8676,6.5154,23.6021,-13.0826,9.8363,7.1812,20.0167,16.7502,19.2691,-6.2505,8.8990,5.4253,19.5975,-8.5149,9.6362,9.7467,4.6423
773.4375,23.0760,-0.8609,9.3095,5.3981,23.9360,-9.6306,14.4164,7.7038,23.9699,21.4278,22.2734,-5.5128,5.0168,2.5710,24.2809,-7.5729,6.4149,8.7522,2.2329
777.3438,24.9328,2.6879,9.0908,5.0943,20.4167,-4.1669,19.9349,9.4782,26.8584,24.5795,25.0534,-5.6695,2.7987,0.2289,27.7919,-7.4872,4.7391,8.8545,2.5982
781.2500,25.0493,3.6637,11.1529,4.5113,14.2619,1.2477,23.1405,10.7717,28.1480,24.6910,26.3188,-6.8986,2.2491,-2.2249,28.9347,-7.5868,4.1202,8.7716,4.5282
785.1562,24.3645,3.1384,13.8649,2.5144,8.5902,4.2470,22.1053,9.6324,27.9799,21.3865,25.5638,-8.2933,2.8901,-5.1508,27.8515,-7.0302,3.9908,7.2017,6.2286
789.0625,23.8283,2.9107,15.4237,-0.9303,6.4987,3.5837,17.7386,5.5736,26.9345,15.9463,23.6659,-8.5840,4.1067,-8.2806,26.0419,-5.6364,4.1844,3.9388,6.8882
792.9688,23.7537,4.1195,15.1879,-4.6141,9.0126,0.1011,13.1607,0.1004,25.6153,10.7062,22.3112,-7.1718,5.3732,-11.0090,25.2221,-4.0996,4.8783,0.0279,7.1876
796.8750,23.8394,6.5473,14.0143,-7.0694,14.3726,-3.5180,11.4677,-4.3825,24.4009,7.6194,22.6881,-4.6728,6.3111,-13.0924,25.9254,-3.4115,6.1423,-3.1103,8.4386
800.7812,23.6993,9.0040,13.4835,-7.8176,19.1777,-4.2374,13.6291,-6.3917,23.4494,6.9768,24.5354,-2.5429,6.6885,-15.0489,27.0665,-3.9739,7.6209,-4.8128,11.1979
804.6875,23.3055,10.3240,14.6996,-7.7806,20.5846,-0.5256,18.0802,-6.4113,22.7856,7.2608,26.3639,-2.0626,6.4685,-17.7507,26.9273,-5.1498,8.7380,-5.6170,14.5964
808.5938,22.9154,10.1315,17.5702,-8.4625,18.0563,6.6236,22.1964,-6.2953,22.2883,6.3029,26.6882,-3.4450,5.8862,-21.4283,24.7831,-5.6602,9.2722,-6.6720,16.9633
812.5000,22.6088,8.8627,21.0078,-10.5663,13.5415,14.2176,24.3855,-7.5311,21.6063,2.9157,25.2489,-5.7299,5.4248,-24.9472,21.7524,-4.5587,9.7264,-8.6526,17.2091
816.4062,21.9660,7.2064,23.7748,-13.2209,10.1051,19.0155,25.1430,-9.8222,20.1941,-2.2203,23.1928,-7.5246,5.6042,-26.1447,20.0331,-2.0405,11.0272,-11.1110,15.7955
820.3125,20.2924,5.5439,25.2741,-14.5074,10.0471,19.3622,26.3308,-11.1944,17.5881,-7.0759,22.0543,-8.0124,6.6674,-23.1931,21.0620,0.5594,13.6945,-12.8115,14.4790
824.2188,17.2502,3.8416,25.7408,-12.9045,13.7359,15.9444,29.3784,-9.5673,13.7805,-9.7721,22.4023,-7.4677,8.3793,-16.0361,24.1337,1.6225,17.1681,-12.7546,15.0324
828.1250,13.3193,1.9651,25.8177,-8.4966,19.7075,11.0924,33.9096,-4.5179,9.3673,-9.8809,23.3238,-6.9121,10.1122,-6.7307,26.7403,0.3612,19.9481,-11.0172,17.9673
832.0312,9.5983,0.0222,25.9565,-2.9764,25.6672,7.2369,37.8753,2.2040,5.2651,-8.5434,23.2211,-7.2041,11.1843,1.7099,26.4947,-2.6000,20.5579,-8.7027,22.2413
835.9375,7.0246,-1.6081,26.1342,1.5496,29.5712,5.6044,39.0275,7.8290,2.1474,-7.3883,21.2730,-8.2722,11.2104,7.1904,23.1289,-5.5864,18.6062,-7.0538,26.0996
839.8438,5.6397,-2.5402,26.0427,3.9774,30.2062,5.9123,36.5334,10.4607,0.0319,-7.1936,18.3064,-9.0708,10.2133,9.7140,18.8857,-6.9132,15.0638,-6.4845,28.3039
843.7500,4.5503,-2.6353,25.5015,4.7259,27.2664,7.0316,31.5004,10.2123,-1.6204,-7.3915,16.2763,-8.2868,8.4347,10.9528,16.8757,-5.8818,11.4779,-6.3445,28.7698
847.6562,2.6773,-1.9899,24.7031,5.0218,21.2835,7.9476,26.1083,8.7556,-3.3454,-6.7677,16.7116,-5.2733,6.0388,12.5618,18.6398,-3.0840,8.7372,-5.6003,28.2093
851.5625,-0.2891,-0.7190,24.0852,5.6375,13.6190,8.3145,22.1292,7.7644,-5.1170,-4.6947,19.3876,-0.5465,2.9820,14.6295,22.8690,0.1200,6.4110,-3.8358,27.2381
855.4688,-3.5246,1.1754,23.9546,6.1911,6.3387,8.3632,19.9851,7.5958,-6.2916,-1.8062,22.3635,4.4813,-0.8303,15.5695,26.3542,2.5170,3.2423,-1.7103,25.8033
859.3750,-5.6281,3.6507,24.1772,5.5881,1.6461,8.4470,18.9350,7.2624,-6.1498,0.4699,23.4322,8.3157,-5.2458,13.5815,26.4502,3.7079,-1.6010,-0.4732,23.4181
863.2812,-5.6757,6.3215,24.1688,3.1760,0.8827,8.6810,18.0212,5.6037,-4.6012,1.1098,21.8560,10.1824,-9.7076,8.4826,23.1097,4.1375,-7.5705,-0.9328,19.9177
867.1875,-3.9219,8.3776,23.1794,-0.4288,3.6478,8.9026,16.8672,2.5566,-2.4235,0.3876,18.9761,10.3289,-13.4121,2.3324,18.8737,4.5799,-12.9179,-2.7379,15.9595
871.0938,-1.5779,8.9552,20.6696,-3.5898,7.7821,8.8561,15.6977,-0.6013,-0.7553,-0.3042,17.1521,9.7178,-15.6882,-1.7908,16.8413,5.5214,-15.9065,-4.5655,12.7261
875.0000,0.1463,7.7705,16.5670,-4.7863,10.4956,8.3750,14.7276,-2.2168,-0.1930,0.4473,17.8306,9.3949,-16.3147,-1.9935,18.2412,6.8702,-16.0721,-5.0600,11.0144
878.9062,0.9433,5.4989,11.3194,-3.6808,10.0569,7.4645,13.6370,-1.5570,-0.2348,2.9845,20.2692,9.9457,-15.5484,0.9741,21.5022,8.1162,-14.4962,-3.7599,10.4876
882.8125,1.5142,3.4898,5.7856,-1.2296,6.9110,6.3475,11.7187,0.7026,0.4014,6.3924,21.9568,11.3047,-13.8836,4.2085,23.4737,8.7335,-12.8826,-1.2909,9.7866
886.7188,2.8062,2.9189,1.0276,1.2262,3.3640,5.5241,8.6027,3.1912,2.7440,9.3127,20.4451,12.9130,-11.7772,4.7810,21.7393,8.4977,-12.2331,1.2629,7.4984
890.6250,5.0371,3.9765,-1.9795,3.0758,1.9810,5.7398,4.8645,5.0763,6.5932,11.0041,15.1915,14.0408,-9.5673,1.8946,16.1891,7.5294,-12.2389,3.2210,3.2567
894.5312,7.3378,5.7353,-2.7019,4.7900,3.8149,7.6869,1.8531,6.6909,10.4108,11.7229,8.0026,14.0892,-7.5870,-2.5676,8.7505,6.1173,-11.8597,4.6660,-1.8977
898.4375,8.3320,6.8368,-1.3572,7.2250,7.7572,11.4568,0.7361,8.9949,12.2479,12.1516,1.7578,12.7818,-6.2568,-5.4866,1.7272,4.5113,-10.5070,6.0520,-6.1941
902.3438,7.1959,6.4824,1.0276,10.5322,11.4648,16.0938,1.4844,12.3817,11.0803,12.4831,-1.5855,10.2338,-5.9459,-4.7834,-3.7507,2.8365,-8.7159,7.4984,-8.3274
906.2500,4.3453,4.9484,2.9754,13.6885,13.1154,19.7303,2.6793,15.9598,7.5657,12.0810,-2.1906,6.9007,-6.6308,-0.7870,-7.9542,1.1308,-7.6508,8.4776,-8.2509
910.1562,1.2027,3.2148,3.2708,15.1352,12.6154,20.4625,2.4328,18.0345,3.6492,10.0958,-1.9021,3.4046,-7.6484,4.2564,-11.5233,-0.5910,-7.8631,8.2380,-6.9907
914.0625,-0.7633,2.0231,1.6703,14.0333,11.3540,17.5229,-0.1722,17.4489,1.2961,6.4960,-2.6140,0.2762,-7.8524,7.9844,-14.3351,-2.3299,-8.4473,6.6152,-5.6937
917.9688,-0.9688,1.1540,-0.8521,11.0738,10.7949,11.9054,-4.1922,14.6347,1.2835,2.5216,-4.7684,-2.2694,-6.1954,9.5233,-15.4053,-4.1363,-7.4653,4.4855,-4.7120
921.8750,0.0805,-0.4443,-2.5660,8.1114,11.1415,5.8477,-7.2134,11.4215,2.9076,0.0144,-7.1144,-4.3748,-2.3840,9.6940,-13.8936,-6.1102,-3.4176,3.3689,-3.4492
925.7812,1.3958,-3.7467,-1.9491,6.8665,11.2309,1.3907,-6.8355,9.6990,4.7490,0.0777,-7.8006,-6.3463,2.8766,9.8677,-10.1924,-8.3281,3.4257,4.3986,-1.0404
929.6875,2.3691,-8.6803,1.4146,7.7247,9.7481,-0.9814,-2.2533,10.0224,5.8356,2.1821,-5.8516,-8.3395,8.2716,10.6162,-5.9698,-10.7428,11.0002,7.4356,2.7417
933.5938,3.1898,-13.8940,6.5701,9.5952,6.6985,-2.5452,5.1520,11.3304,6.2919,4.5454,-1.8675,-10.1666,12.6493,11.3494,-3.0012,-13.1506,16.8512,11.0425,7.1153
937.5000,4.5364,-17.5009,11.7288,10.9114,3.8078,-5.1279,12.6069,12.0045,7.0245,5.5586,2.5019,-11.3977,15.6287,11.1543,-1.7812,-15.2653,19.8839,13.3729,10.7454
941.4062,6.8784,-18.2714,15.2498,10.9175,3.3962,-9.3558,17.5648,11.3473,8.7798,5.0986,5.7669,-11.7117,17.6173,9.9520,-1.1735,-16.8372,21.0373,13.3239,12.6445
945.3125,10.0082,-16.4105,16.4286,10.1673,6.5835,-13.7714,19.0591,10.1926,11.3844,4.5935,7.4921,-11.2220,19.2833,8.8354,0.5266,-17.7087,22.3249,11.1084,12.8010
949.2188,13.1674,-13.3858,15.6319,9.8522,12.3251,-15.6648,17.9475,10.1045,13.7830,5.7109,8.2559,-10.4871,20.9516,9.2373,4.0168,-17.7653,25.0397,7.8888,12.0816
953.1250,15.5998,-10.9852,13.7986,10.5752,18.1580,-13.1410,16.0095,11.8574,14.8146,8.7289,8.8860,-10.1375,22.4230,11.6705,8.2962,-16.8620,28.6386,4.8471,11.5513
957.0312,17.0198,-10.3102,11.7475,11.6437,22.1252,-6.8848,14.6298,14.5296,14.0808,11.9805,9.7246,-10.3720,23.3231,15.1876,11.5073,-14.8611,31.2556,2.4579,11.7817
960.9375,17.6207,-11.3576,9.7935,11.4933,24.3012,-0.1688,13.9966,16.0381,12.2251,12.9323,10.5302,-10.7225,23.6107,18.0686,12.5866,-11.8235,31.4091,0.4749,12.6510
964.8438,17.6951,-13.3222,7.8582,8.8782,26.5772,3.1046,13.2973,14.6996,10.4420,10.1051,10.9732,-10.3229,23.7306,19.1311,12.2430,-8.2158,29.4232,-1.5084,13.6765
968.7500,17.2858,-15.2253,5.8587,3.8222,30.7647,1.0284,11.6578,10.5101,9.6511,4.3039,11.1537,-8.5426,24.2171,18.4868,12.3356,-4.8997,27.2824,-3.5254,14.4926
972.6562,16.2231,-16.3594,3.9882,-2.4438,36.5296,-4.9018,9.0838,5.0585,9.9786,-1.8660,11.6132,-5.5397,25.0766,17.0779,14.1578,-2.7754,26.9600,-5.2367,15.0485
976.5625,14.5012,-16.3503,2.6755,-8.4373,40.9615,-10.6701,6.7163,0.1715,10.8815,-5.8472,12.8393,-2.3076,25.5327,15.4627,17.1677,-2.2278,28.5956,-6.4210,15.4331
980.4688,12.5906,-15.0351,2.3305,-13.3955,40.3851,-12.3364,6.2282,-3.5122,11.6979,-6.8864,14.7669,-0.1327,24.4638,13.0638,19.3966,-2.7580,30.1169,-7.4266,15.6103
984.3750,11.3116,-12.4539,3.1544,-17.4182,33.2153,-8.5411,8.7759,-6.7767,12.1075,-6.3245,16.7791,0.1872,21.2824,8.7129,19.2931,-3.1442,28.7633,-9.0701,15.4035
988.2812,11.2913,-9.0099,5.1722,-20.7317,21.6898,-1.2135,14.1956,-10.6649,12.1495,-6.2540,18.2290,-1.1677,16.5756,2.1215,17.4108,-2.1465,23.3893,-11.9776,14.7748
992.1875,12.4383,-5.5479,8.3780,-22.8616,10.9952,5.8850,20.9534,-14.9823,11.8897,-7.7083,18.9895,-3.1754,11.9438,-5.0721,16.3309,0.6530,15.6983,-15.9088,14.0939
996.0938,13.9077,-3.0896,12.7400,-22.6125,6.2020,9.6116,26.8775,-17.8946,11.1444,-9.8977,19.4940,-4.6277,9.0669,-9.8403,18.6542,4.4573,9.3262,-19.6845,14.0414
1000.0000,14.6440,-2.2799,17.9674,-19.0241,9.0908,9.1354,30.2327,-17.1443,9.5719,-11.0853,20.2037,-4.8488,8.6401,-9.7483,24.6148,7.6452,7.3699,-21.8659,15.1179
1003.9062,14.0906,-2.9546,23.2414,-12.5161,17.1031,5.8542,30.5256,-11.9781,7.0532,-10.2918,21.0045,-4.0017,9.9608,-4.9020,31.3679,8.7490,10.2053,-21.6937,17.1421
1007.8125,12.4896,-4.2461,27.2712,-5.1367,25.1321,1.9242,28.6140,-4.1564,3.9646,-8.3237,21.1486,-2.8279,11.4719,1.8052,34.7572,7.3817,15.2482,-19.5560,19.2277
1011.7188,10.5223,-5.2349,28.8374,0.5081,28.8309,-1.2633,26.1124,2.9355,1.0091,-7.2144,19.8804,-2.0595,11.8509,6.5722,32.3285,4.4761,18.8295,-16.6235,20.3724
1015.6250,8.5972,-5.6553,27.5526,2.9439,27.0933,-3.5150,24.4722,6.5187,-1.3267,-8.5463,17.2262,-1.9377,10.8356,7.3850,25.2262,1.6670,18.7488,-13.9714,20.2523
1019.5312,6.4084,-6.0448,24.2760,2.8195,22.0906,-5.1014,24.2639,6.2913,-3.2461,-12.0974,14.1886,-2.1411,9.2022,5.4427,17.3903,0.2579,15.5974,-11.9224,19.5559
1023.4375,3.1788,-7.1513,20.7597,2.3448,17.1354,-5.7792,25.0265,4.4602,-5.5954,-15.9922,12.0472,-2.1107,7.9824,4.1292,12.6078,0.5057,11.9541,-10.1303,19.4977
1027.3438,-1.5708,-9.0645,18.6495,3.5361,14.1922,-4.6088,25.6986,3.9057,-9.2479,-18.2479,11.2686,-1.4966,7.5761,6.2701,11.7337,1.6981,10.2099,-8.2658,20.8082
1031.2500,-7.3561,-10.8483,18.4893,6.6167,12.9275,-0.8030,25.3106,5.9456,-14.3520,-18.4026,10.9690,-0.4187,7.4577,11.8293,12.3095,2.8894,10.7742,-6.6359,22.9875
1035.1562,-12.7503,-11.0985,19.4470,9.8406,11.8023,5.1513,23.5092,9.4664,-20.0317,-17.8162,9.5174,0.5968,6.6668,17.9014,10.8905,3.6666,12.0083,-6.1259,24.4847
1039.0625,-16.1521,-9.0744,19.9793,10.8919,10.0300,11.1783,20.6342,12.0440,-24.8030,-18.3641,5.9304,0.9208,4.6536,21.0353,6.1780,4.3323,11.8042,-7.4607,23.7667
1042.9688,-16.7614,-5.4960,18.9409,8.7438,8.5977,14.5674,17.3781,12.0397,-27.4255,-20.6288,0.9597,0.1694,1.7916,20.0323,0.3630,5.4029,9.4527,-10.4200,20.5047
1046.8750,-15.0469,-2.2713,16.2970,4.4850,9.4225,13.6154,14.3034,9.8864,-27.5765,-23.1587,-3.1168,-1.5737,-0.8278,16.9329,-2.4851,6.9074,6.3002,-13.7346,15.9360
1050.7812,-12.3693,-1.2435,12.9065,0.4584,13.3494,8.7728,11.5372,7.5197,-25.8883,-23.4915,-4.0250,-3.7339,-2.1299,15.3538,0.2541,8.1507,4.7253,-15.8470,12.0393
1054.6875,-10.0631,-2.8731,9.5955,-1.5794,18.7276,2.4311,8.7936,6.5116,-23.3869,-20.1448,-1.2757,-5.4189,-1.7415,17.4814,7.3823,8.2153,6.3019,-15.9736,10.0829
1058.5938,-8.6629,-5.8985,6.3281,-1.7766,21.9166,-2.5236,5.6430,6.5771,-20.8084,-13.9260,3.1948,-5.7373,-0.1333,22.1629,14.4280,6.8202,10.5943,-14.6056,9.6394
1062.5000,-7.8013,-8.2847,2.2123,-1.9238,19.5589,-4.3825,1.8178,5.7927,-18.2999,-7.4366,6.1467,-4.1755,1.8148,25.6854,16.7710,4.7942,15.4590,-13.0109,8.8657
1066.4062,-6.7561,-8.7405,-3.6130,-3.8533,11.0253,-3.3951,-2.6136,2.3777,-15.6425,-3.1288,5.2199,-0.8843,3.4214,24.6819,12.9647,3.6711,18.5244,-12.1155,5.9012
1070.3125,-5.1382,-7.5977,-10.9235,-7.8323,-0.7925,-1.2366,-7.2337,-3.4866,-12.6993,-1.4765,0.6162,3.2911,4.5054,18.8709,5.7290,4.6172,18.6691,-11.6787,0.3687
1074.2188,-3.1694,-6.3412,-18.1024,-12.2641,-11.0124,0.3267,-11.3592,-9.4119,-9.6552,-0.7474,-4.9739,7.1183,5.2050,11.4354,-0.0947,7.4846,16.4323,-10.4659,-6.1626
1078.1250,-1.3953,-6.1819,-22.9370,-14.9201,-15.6196,0.5838,-14.1716,-12.4390,-6.8686,1.4435,-8.1909,9.5144,5.5543,6.7145,-1.0032,10.7633,13.2095,-7.3175,-11.1363
1082.0312,-0.1613,-6.8880,-23.9964,-14.6599,-13.7236,0.1109,-14.9189,-11.2654,-4.5379,6.0705,-7.2798,10.0227,5.2381,7.0125,2.9064,12.5441,10.0222,-2.2666,-12.7091
1085.9375,0.6613,-6.9217,-21.5635,-12.2138,-7.7364,0.0908,-13.2165,-7.2278,-2.5511,11.7992,-3.2003,8.9287,3.7746,11.0283,8.4278,11.8104,6.8907,3.2121,-10.9454
1089.8438,1.4782,-4.8632,-17.4025,-9.4023,-1.4679,1.3283,-9.3658,-3.1945,-0.6878,15.9612,1.1706,6.9303,1.0052,15.1058,11.8703,9.0889,3.2448,7.0686,-7.6328
1093.7500,2.5252,-0.9828,-13.5170,-7.4722,2.4729,3.6646,-4.4649,-1.2349,1.0265,16.5846,3.0915,4.5876,-2.4923,16.2664,11.6650,5.9588,-1.0749,8.0251,-4.8799
1097.6562,3.6091,2.4163,-10.8202,-5.9593,4.2164,6.0985,-0.0930,-0.9537,2.1933,13.8422,1.7562,1.9617,-5.4250,14.5926,9.0447,3.8011,-5.1492,6.3966,-3.5623
1101.5625,4.2959,2.3667,-8.6840,-3.0385,6.1954,7.4090,2.4207,0.1526,2.3379,9.8121,-1.3864,-1.2767,-6.3105,13.0800,6.5764,2.7651,-7.2876,3.8025,-2.7789
1105.4688,4.3865,-2.5687,-5.6401,2.9107,11.1908,6.8127,2.7941,4.5986,1.4265,6.8446,-3.8652,-5.3442,-4.2435,15.0987,5.9849,1.7590,-6.1654,2.0498,-0.6946
1109.3750,4.2412,-10.9187,-0.6306,11.7993,20.2505,4.2783,2.1187,12.7592,0.1478,5.9208,-3.9356,-9.8548,0.5290,21.4777,7.0480,-0.5489,-1.9709,2.0752,3.8992
1113.2812,4.6196,-18.8901,6.1504,21.6028,31.8186,0.4164,2.3645,22.3719,-0.3548,6.2830,-1.5649,-13.7754,6.5699,29.4878,8.2278,-4.5403,3.3231,3.6984,10.4987
1117.1875,6.1086,-22.6485,13.3914,29.5900,42.5129,-3.8929,5.2202,30.0472,0.8275,6.4737,1.9064,-15.9380,11.8262,34.4957,8.2114,-9.2389,6.8785,6.2194,17.0789
1121.0938,8.5783,-20.7475,19.5446,34.0290,48.9405,-7.8883,10.9258,33.5429,3.7578,5.7445,4.9482,-15.7760,14.5698,33.0252,6.9331,-13.0156,6.6070,9.2047,21.3945
1125.0000,11.1222,-15.0054,23.7028,35.0591,49.3983,-11.1511,17.8790,33.0261,7.5947,4.5859,6.8551,-13.7472,14.2536,24.9747,5.3235,-14.8244,2.4937,12.7246,22.4152
1128.9062,12.5827,-9.2271,25.8496,34.1519,44.5263,-13.6002,23.3720,30.4565,11.1375,4.0068,7.8887,-11.1022,11.8246,13.4893,4.2662,-14.9514,-3.2196,16.8664,20.8750
1132.8125,12.3110,-6.6998,26.4681,32.7282,36.7018,-15.3062,25.0954,27.7800,13.5577,4.3402,8.6548,-9.1333,9.2758,2.7896,3.8725,-14.6595,-7.1629,21.0460,18.6166
1136.7188,10.6278,-8.2169,26.0091,31.1147,28.6907,-16.2590,22.5008,25.5108,14.7634,4.7536,9.4124,-8.4226,8.6095,-4.3337,3.7253,-15.0286,-6.6564,23.8591,17.3002
1140.6250,8.6598,-11.9253,24.7149,28.6238,22.3937,-16.2616,17.1534,22.8018,15.1696,3.9531,9.9303,-8.6052,10.7533,-7.6485,3.7004,-15.9707,-1.1601,23.7536,17.4367
1144.5312,7.6714,-14.9294,22.8365,24.5359,18.3397,-15.0618,11.8269,18.7474,15.1397,1.4408,9.9110,-8.7795,15.0634,-8.7574,4.3810,-16.2668,7.5044,20.0708,18.3619
1148.4375,8.3424,-15.3713,20.8511,19.0179,16.0525,-12.6615,8.9047,13.6119,14.6222,-1.8686,9.4643,-8.2238,19.7558,-9.4407,6.5126,-14.6283,16.2936,13.6240,19.0121
1152.3438,10.4410,-13.4997,19.3035,13.1475,14.8928,-9.5617,9.0937,8.8281,13.2954,-4.3206,9.1101,-6.8891,23.0356,-10.4468,9.9682,-10.9182,22.7408,6.3022,18.8026
1156.2500,13.0378,-11.1206,18.3493,8.0641,14.7324,-6.6710,11.2397,5.7782,11.0608,-4.9634,9.2824,-5.3491,24.2040,-11.4551,13.3223,-6.4970,26.2894,-0.0423,17.9509
1160.1562,15.0546,-10.0414,17.4908,4.0577,15.9908,-4.8149,13.3026,4.5012,8.3925,-4.4880,9.8274,-4.3227,23.9836,-11.8535,14.6846,-3.3494,28.3165,-4.5946,17.1156
1164.0625,15.7844,-10.7611,15.9248,0.4473,19.0408,-4.1294,13.8048,3.5612,6.1718,-4.7585,10.0293,-4.1803,23.8117,-11.4275,13.2828,-2.6438,30.8510,-7.7356,16.7716
1167.9688,15.1257,-12.3153,13.3606,-3.6276,23.4752,-3.8180,12.7993,1.2807,5.0906,-7.2294,9.2278,-4.7965,24.5953,-10.3860,10.4369,-3.8614,34.8723,-10.3191,16.8688
1171.8750,13.5016,-13.2147,10.6129,-8.2223,27.8836,-2.5798,11.7651,-2.6964,5.1185,-11.5570,7.5200,-5.7854,25.8556,-8.9194,8.8965,-5.2017,39.3891,-12.7367,16.9930
1175.7812,11.6020,-12.6249,9.3078,-12.3222,30.4603,0.4661,12.5565,-6.9004,5.5073,-15.6334,5.9013,-6.8512,25.9521,-6.9195,10.8349,-4.9554,41.9770,-14.5694,16.7893
1179.6875,10.1033,-10.8764,10.7309,-14.5889,30.1350,4.9871,16.1278,-9.1103,5.3668,-17.1175,5.6413,-7.9437,23.2768,-4.2257,16.0253,-2.7709,40.4266,-15.0851,16.2279
1183.5938,9.4464,-9.0246,14.6592,-14.4999,27.4193,9.4181,21.8510,-8.1678,4.3534,-15.2618,7.3481,-9.1317,17.5451,-1.1251,21.7527,0.1710,34.3355,-14.0918,15.5118
1187.5000,9.6901,-7.9275,19.2102,-12.8834,24.2280,11.8569,27.8225,-5.0150,2.8993,-11.5322,10.4794,-10.3681,10.1776,1.5089,24.7094,2.1708,25.4870,-12.3372,14.7965
1191.4062,10.4664,-7.5992,22.0266,-11.3384,22.6037,11.3222,31.9262,-2.0443,1.7823,-8.4728,13.7227,-11.3954,3.4302,2.7432,23.5001,2.3687,16.7288,-11.0405,14.0592
1195.3125,11.0868,-7.2816,22.0095,-10.9853,23.1301,8.4841,32.9768,-1.2524,1.3990,-7.7111,15.9601,-11.8672,-1.1055,2.4040,19.7854,1.3584,10.1682,-10.9035,13.2669
1199.2188,10.8088,-6.0793,20.2246,-11.5932,24.2050,5.3037,31.2690,-2.7030,1.3601,-8.7251,17.0355,-11.5473,-3.4853,1.4369,17.0883,0.6107,6.0128,-11.4414,12.6512
1203.1250,9.1733,-3.6254,19.1335,-11.8398,22.8780,3.7989,28.2586,-4.5726,0.7656,-9.3851,17.6950,-10.3835,-5.1087,1.3727,18.1153,1.2427,2.8803,-11.2549,12.7423
1207.0312,6.2345,-0.3184,20.6076,-10.5128,16.8714,4.8001,25.6262,-4.7474,-1.0607,-7.8261,18.7575,-8.4081,-7.3619,3.2393,22.6469,3.1696,-0.7331,-9.1070,14.0221
1210.9375,2.5367,2.9468,24.2474,-7.6510,6.4566,7.5589,24.3136,-2.6486,-3.9923,-4.1135,20.2235,-5.6226,-10.3018,6.7874,27.6416,5.3040,-5.0328,-4.9845,16.4439
1214.8438,-1.1598,5.2802,27.4242,-4.6481,-5.2046,10.4122,24.0935,0.2334,-7.1652,-0.3317,21.1063,-2.0539,-12.4708,10.6875,29.4776,6.5549,-8.6940,-0.2958,19.2650
1218.7500,-4.2352,6.1921,27.1666,-3.1986,-13.6725,11.9176,23.8773,1.5512,-9.6309,0.9835,20.1775,2.0118,-12.0479,13.5406,26.6043,6.7204,-9.9828,2.9866,21.4244
1222.6562,-6.4295,5.7163,22.5102,-3.9379,-15.8498,11.5838,22.5155,0.0716,-11.0386,-1.1978,17.0510,5.8535,-8.4528,14.8406,20.5928,6.5085,-8.2853,3.6117,22.2220
1226.5625,-7.8173,4.3000,15.4436,-5.9032,-11.8890,9.7459,19.5572,-3.2141,-11.7677,-5.6100,12.7090,8.4697,-3.1062,15.0694,14.8629,6.7260,-4.7664,1.8071,21.7391
1230.4688,-8.6100,2.5760,9.5883,-7.2716,-5.0864,6.8903,15.4899,-5.7596,-12.4148,-9.6560,8.9829,9.0900,1.3266,14.8797,12.1647,7.4256,-1.5970,-1.0211,20.6006
1234.3750,-8.9681,1.1002,7.5175,-6.7792,0.1829,3.1656,11.3270,-5.3875,-13.1111,-11.2929,7.3222,7.7280,2.7011,14.1631,12.7673,7.8313,-0.3688,-3.3473,19.2357
1238.2812,-8.9580,0.1081,8.7581,-4.6603,1.1064,-1.4429,7.8465,-1.9386,-13.3042,-10.3259,7.7609,5.3314,0.8578,11.9466,14.6222,7.1435,-0.9870,-4.4933,17.2793
1242.1875,-8.6371,-0.6092,10.0774,-2.3446,-2.0775,-6.5000,5.0156,2.6415,-12.2369,-8.1660,8.8666,3.3259,-2.3160,7.3378,15.1575,5.4847,-1.9254,-4.7874,13.7278
1246.0938,-8.1415,-1.5827,7.9190,-1.1829,-6.6108,-10.7839,2.0205,5.8041,-9.7252,-6.4146,8.7218,2.8087,-4.2478,0.7563,13.1580,4.0531,-1.5888,-4.9025,7.8668
1250.0000,-7.6647,-3.2689,1.1656,-1.2689,-9.2263,-12.7545,-2.0940,6.2715,-6.5369,-5.5547,6.2247,3.9459,-3.4196,-5.6929,9.3135,4.2112,0.3890,-5.0198,0.2813
1253.9062,-7.3406,-5.5827,-7.8904,-1.3426,-8.1751,-11.6145,-7.5988,4.8413,-3.9755,-4.8239,1.7882,6.0012,-0.2062,-9.2333,5.2575,6.2076,2.9992,-4.5655,-6.9504
1257.8125,-7.1471,-7.7218,-15.1345,0.1442,-3.9839,-8.1113,-13.6476,3.5902,-2.9491,-3.2410,-3.0069,7.9469,3.7043,-8.2060,2.1520,8.6634,4.9376,-2.7397,-11.2464
1261.7188,-6.9318,-8.5431,-17.5712,3.6755,1.3067,-4.3044,-18.5708,4.2124,-3.2778,-0.7518,-6.4708,9.1550,6.6994,-3.3028,0.0820,9.4096,5.9074,0.6288,-11.1422
1265.6250,-6.5435,-7.3576,-15.3865,8.1404,5.6201,-2.3119,-20.7479,6.8238,-3.8387,1.5899,-7.7810,9.6260,8.2801,2.7557,-1.3719,7.1418,6.9402,4.6492,-7.3994
1269.5312,-5.9491,-4.6187,-11.6014,11.5541,7.9365,-2.9304,-19.5162,10.0710,-3.4708,2.5783,-7.2359,9.6181,8.9956,6.9319,-2.1463,2.5926,9.3946,7.7564,-2.7164
1273.4375,-5.2245,-1.9198,-9.6608,12.4528,8.4304,-5.2092,-15.5433,12.2840,-1.9168,2.0614,-5.7501,9.0696,9.5158,7.7401,-1.3968,-1.8063,13.4878,8.6523,-0.1222
1277.3438,-4.4315,-1.1487,-10.8644,10.8655,7.9037,-7.3473,-10.4493,12.6516,-0.0161,1.2656,-4.0959,7.3926,9.7903,5.9333,1.7320,-3.6400,17.7010,7.1013,-1.1111
1281.2500,-3.5095,-3.2788,-13.5862,8.1523,7.1676,-8.2040,-5.9452,11.5326,1.0337,1.8770,-2.4785,3.8965,9.0840,3.6048,6.9817,-2.3339,19.7136,4.0188,-4.8032
1285.1562,-2.3041,-7.6381,-14.7618,5.9242,6.7936,-8.1827,-3.0290,9.8504,0.7564,4.6299,-0.6633,-1.4736,6.8351,2.5137,12.6541,0.3534,18.2109,0.8561,-8.6952
1289.0625,-0.7239,-12.2351,-12.3573,4.9585,7.1397,-8.7382,-1.6830,8.2653,-0.0820,8.6266,1.5910,-7.7306,3.5036,2.9630,16.5880,1.6145,14.0897,-1.2047,-10.4276
1292.9688,1.1210,-14.9840,-6.8558,4.9339,8.3164,-10.9104,-1.1430,6.8705,0.0276,12.0087,4.2198,-13.2045,0.5647,3.9992,17.7539,-0.2900,9.9910,-1.6810,-9.2858
1296.8750,2.9499,-14.9948,-0.6968,5.0638,9.9925,-14.1461,-0.4675,5.5467,2.1873,13.4447,6.8841,-16.4896,-0.4454,4.5774,17.1228,-4.7137,8.4274,-0.6754,-6.4110
1300.7812,4.5145,-13.0193,3.7207,4.9595,11.3425,-16.4924,0.9688,4.4641,6.2078,13.1760,9.2291,-17.2984,0.9349,4.5948,16.9615,-9.1412,9.9550,1.4872,-3.6920
1304.6875,5.8045,-10.7605,5.7773,4.9410,11.4845,-16.1175,3.2691,4.1243,10.7003,12.7236,11.0817,-16.5699,3.7478,4.9252,19.0017,-11.1459,12.8498,4.4447,-2.2715
1308.5938,7.0522,-9.6031,6.7571,5.5748,10.3089,-12.9601,6.0787,4.8534,14.0729,13.4919,12.4266,-15.7437,6.3879,6.5224,22.9301,-10.2628,14.5610,7.6684,-1.8064
1312.5000,8.4961,-9.7387,8.4006,6.9370,9.0394,-9.0916,8.7835,6.2635,15.6305,15.4601,13.2573,-15.7572,7.8705,9.4697,26.4742,-8.3108,13.7730,10.2803,-0.9538
1316.4062,10.0915,-10.3144,11.2074,8.3333,9.8199,-7.3449,10.7521,7.2987,15.9111,17.0874,13.5177,-16.5205,8.5434,12.8396,27.1047,-7.9164,11.4158,11.1935,1.4171
1320.3125,11.4387,-10.3938,13.9271,8.7647,14.3047,-9.1658,11.6001,6.9581,16.0385,16.5377,13.2265,-17.2177,9.6541,15.4512,24.0460,-10.3987,9.8280,9.6583,5.2989
1324.2188,12.0440,-9.8723,14.6137,7.7347,22.1641,-13.3463,11.4343,5.1254,16.6829,13.1990,12.6399,-17.1068,12.1574,16.7991,18.9944,-14.6668,10.7872,5.8555,9.6051
1328.1250,11.7362,-9.5565,12.3102,5.6681,30.7701,-16.6990,10.9343,2.7535,17.5218,8.2168,12.2287,-16.1164,15.7946,17.2972,14.9507,-17.9739,14.0369,1.0096,13.0792
1332.0312,10.8882,-10.3438,7.9553,3.5527,36.6189,-16.2561,11.0984,1.1628,17.6371,3.5838,12.4048,-14.7608,19.2410,17.6480,14.0774,-17.9304,17.5023,-3.2001,15.2647
1335.9375,10.2089,-12.2204,3.8052,2.1145,37.6939,-11.3884,12.6617,0.9874,16.4657,0.5521,13.2036,-13.5194,21.1983,17.9778,16.2608,-14.2248,18.9843,-5.5993,16.7680
1339.8438,10.2140,-13.9825,1.8934,1.2627,35.0390,-4.2763,15.4868,1.6522,14.4383,-1.2913,14.2266,-12.2953,21.4874,17.6040,19.4772,-8.7801,17.9119,-6.1758,18.6712
1343.7500,10.7809,-13.9977,2.7741,0.3042,32.1781,1.5971,18.3989,1.8530,12.7210,-3.5040,14.9596,-10.4836,21.1930,15.7110,21.5931,-4.3068,15.7250,-5.9438,21.6341
1347.6562,11.1784,-11.4535,5.4645,-1.2635,32.5663,3.7828,19.7430,0.6628,12.2595,-7.2639,15.2365,-7.6101,21.7190,12.3224,22.0918,-2.4241,14.6185,-6.1138,25.4108
1351.5625,10.6103,-7.0959,8.4620,-3.1138,36.8638,2.3192,18.4436,-1.6610,12.9555,-12.1371,15.4454,-3.9535,23.5610,8.6106,22.3203,-2.7579,15.7304,-7.1994,29.0980
1355.4688,8.8850,-2.8339,10.8903,-4.2256,42.1621,-0.6669,14.8915,-3.8595,13.7176,-16.1969,16.2512,-0.5346,25.8558,6.1288,24.1054,-3.5805,18.2719,-8.7252,31.8230
1359.3750,6.6756,-0.4745,12.8616,-3.7289,43.9485,-2.7492,10.9718,-4.6948,13.3822,-17.4271,18.0200,1.6105,27.1131,5.5430,27.9400,-3.3390,20.2627,-9.7126,33.2816
1363.2812,5.1121,-0.5433,14.9288,-1.7405,39.4951,-2.9322,9.0749,-3.9411,11.7337,-15.2735,20.4220,2.3048,26.5147,5.9861,32.2908,-1.8127,20.1873,-9.5003,33.7569
1367.1875,4.9586,-2.0690,17.2860,0.5773,30.1232,-2.0619,10.6669,-2.4937,9.7251,-11.0871,22.5842,2.4903,24.6560,5.7141,34.6406,-0.0605,18.1607,-8.2158,33.7331
1371.0938,5.9805,-3.4340,19.4978,1.8588,20.4899,-1.7833,15.3654,-1.5132,8.6558,-7.1216,23.7184,3.5747,23.0535,3.6273,33.4406,0.6475,15.6647,-6.5414,33.5192
1375.0000,7.0004,-3.5636,20.9465,1.6098,15.2493,-3.0317,21.1627,-1.3714,8.9635,-4.9261,23.7238,6.3196,22.7826,0.3886,29.3852,-0.0596,14.1576,-5.0276,33.1800
1378.9062,6.6425,-2.5071,21.4822,0.6011,15.5212,-5.2868,25.6347,-1.3519,9.6673,-4.4236,23.2449,10.1457,23.3746,-1.9068,24.9632,-1.4034,13.7832,-3.5869,32.7055
1382.8125,4.2478,-1.0332,21.6020,0.2024,17.8930,-7.0691,27.2815,-0.4028,9.0088,-4.3463,23.1016,13.4403,22.9361,-1.3860,22.6253,-2.1773,13.2723,-1.6306,32.1180
1386.7188,0.3091,0.2945,21.9717,1.1747,16.8700,-7.1218,26.1039,1.7095,5.8558,-3.5431,23.5506,14.6723,19.4796,1.9175,23.0144,-1.7444,11.0765,1.2587,31.3416
1390.6250,-3.8635,1.6876,22.7720,2.9332,9.0786,-5.2387,23.1570,3.9040,0.7585,-1.9881,24.0229,13.4754,12.4655,5.7955,24.6466,-0.4560,6.7385,4.7095,30.0004
1394.5312,-6.9647,3.8399,23.5313,3.9359,-3.8899,-2.1231,19.6181,4.4894,-4.2295,-0.6457,23.6136,10.8803,3.3636,7.3761,25.2556,0.8074,1.3422,7.5694,27.4820
1398.4375,-8.3837,7.0727,23.6368,2.9311,-16.2007,1.4551,16.2049,2.5770,-6.8975,-0.3861,21.9573,8.5480,-5.2034,5.3118,23.6954,1.5048,-3.2953,8.5999,23.3972
1402.3438,-8.2930,10.7553,23.0332,0.0553,-21.6539,5.3681,13.3482,-0.9621,-6.3852,-0.9810,19.7424,7.6245,-11.0815,0.9047,20.8729,1.9329,-5.9709,7.3447,18.1265
1406.2500,-7.1749,13.6167,22.3810,-3.1385,-17.9543,10.0646,11.7388,-3.8725,-3.6965,-1.1193,18.3510,8.0938,-13.7695,-2.7979,18.9840,2.9306,-6.8586,4.4951,12.9157
1410.1562,-5.2634,14.7640,22.4159,-4.7863,-8.2785,15.8332,12.4619,-4.0460,-0.8340,0.5315,18.8093,9.0518,-14.3574,-3.2893,19.6834,5.0662,-7.1183,1.4699,9.2424
1414.0625,-2.4063,14.5357,23.0289,-4.0878,0.9797,22.1017,16.2857,-1.0674,0.7517,4.1343,20.8487,9.5693,-14.4052,-0.4793,22.6514,8.0092,-7.7700,-0.4607,7.7872
1417.9688,1.5512,14.3748,22.9475,-1.8590,4.6143,27.4484,22.5370,3.4286,1.1794,8.4180,22.8720,9.3859,-14.7179,3.3390,25.6873,10.6175,-8.8263,-0.8391,7.7903
1421.8750,6.2352,15.6989,20.4675,0.1649,1.9679,30.3797,28.6053,6.8840,1.8484,11.6091,22.9598,8.9019,-14.9405,5.4038,26.2534,11.6741,-9.3801,-0.0210,7.4099
1425.7812,10.5941,18.6311,14.7794,0.6874,-3.0978,30.2773,30.8531,7.5684,4.1178,12.7933,20.2277,8.5923,-14.1628,4.7197,23.2813,10.6999,-8.4987,1.3784,4.9721
1429.6875,13.3473,21.6686,6.8390,-0.2290,-5.4201,27.7806,26.6704,5.6260,8.0312,12.5531,15.5159,8.4584,-11.9170,2.7748,17.8836,8.2482,-6.1196,3.0498,0.2534
1433.5938,13.7398,22.6650,-1.0034,-1.3877,-2.4463,24.3333,16.3777,2.6964,12.0967,12.3346,10.8544,8.0415,-8.7250,2.1468,12.4897,5.5211,-3.2183,5.0772,-5.1919
1437.5000,12.0208,20.4380,-6.4356,-1.5595,4.0352,21.2671,3.5349,0.5333,14.2703,13.0864,8.0620,6.9638,-5.8081,4.1569,9.1176,3.6447,-1.1782,7.5305,-8.9924
1441.4062,9.2541,15.7405,-8.6213,-0.4860,9.4653,19.0948,-6.8090,-0.1977,13.3547,14.3498,7.5059,5.4409,-4.2749,7.5520,8.0888,3.1153,-0.9276,10.0114,-9.5638
1445.3125,6.5870,10.7812,-8.5486,1.0598,10.0344,17.4417,-10.9420,-0.0161,9.7484,14.6155,7.9399,4.2187,-4.4519,9.3752,8.0804,3.7026,-2.4888,11.6488,-7.1927
1449.2188,4.5351,7.6070,-8.0445,2.1426,5.4640,15.5174,-8.5740,0.3044,5.0568,12.6788,7.5293,3.9177,-5.8042,7.3811,7.3548,4.7234,-5.1377,11.6326,-3.7927
1453.1250,2.8245,6.5907,-8.2651,2.6331,-0.9240,12.6860,-2.8012,0.7316,0.9800,8.8514,5.2785,4.3503,-7.3651,2.0299,5.1608,5.4062,-7.8578,9.8724,-1.5268
1457.0312,0.8798,6.2158,-8.8633,3.3687,-4.7110,8.7554,1.9932,2.0716,-1.6125,4.9609,1.7946,4.4707,-8.2489,-3.6182,2.2571,5.1417,-9.6771,7.2172,-1.3317
1460.9375,-1.4757,4.3481,-8.4455,5.3360,-3.4645,3.9408,2.8609,5.0629,-2.7857,3.0577,-1.1551,3.1087,-7.9003,-6.1136,0.2543,3.6136,-9.7855,5.0129,-2.4216
1464.8438,-3.7090,0.0016,-5.8668,8.6097,1.8448,-1.2889,-0.1473,9.3261,-2.9420,3.8376,-1.9122,-0.0513,-6.0821,-4.2100,0.3613,0.8845,-7.6591,4.3130,-3.0584
1468.7500,-4.9262,-5.7920,-1.2615,12.0418,7.9268,-6.3106,-4.4495,13.2240,-2.2035,6.0613,-0.0548,-4.0587,-2.8326,0.2252,2.5009,-2.5728,-3.3696,5.3395,-1.9050
1472.6562,-4.5927,-10.6980,4.0079,14.0671,11.6995,-10.4246,-6.8737,14.9196,-0.3574,7.4778,3.4213,-7.2533,1.4603,3.7166,5.3948,-6.0093,2.1065,7.5602,1.0997
1476.5625,-3.0134,-12.8114,8.3609,13.9899,12.2774,-13.0523,-5.6241,13.8329,2.6577,6.5508,6.9098,-8.4130,5.9955,3.8950,7.4600,-8.7468,7.0293,10.2255,4.9299
1480.4688,-1.1433,-12.0419,11.0662,12.6331,11.0706,-14.0485,-1.0387,11.2439,6.2965,3.6354,9.3004,-7.6168,9.7451,1.2475,7.8097,-10.5731,9.7018,12.8446,8.4087
1484.3750,0.1505,-10.0776,12.4995,11.7135,10.2142,-13.8915,5.0613,9.4157,9.5326,0.6891,10.5419,-6.1498,11.9370,-1.4651,6.6786,-11.8717,9.5488,15.2001,11.0186
1488.2812,0.7845,-8.9950,13.4894,12.3891,10.7769,-13.4758,10.6646,9.8375,11.5550,-0.2406,11.3329,-5.5277,12.5331,-1.5839,5.0928,-13.2953,7.6409,16.9884,12.9404
1492.1875,1.5244,-9.6507,14.4492,14.1876,12.1874,-13.5194,14.5143,11.9848,12.4399,1.4442,12.3200,-6.4059,12.2882,1.2750,4.1459,-15.1538,6.0884,17.5678,14.4326
1496.0938,3.3225,-11.1264,15.1080,15.2791,13.1830,-13.9891,16.2648,13.6636,13.1482,4.5051,13.5229,-8.1997,12.2453,5.0390,4.4281,-16.9966,6.5828,16.2214,15.2646
1500.0000,6.4256,-11.6248,15.0251,13.9521,13.3199,-14.0638,16.1265,12.7475,14.7510,6.8672,14.4329,-9.6463,13.0047,7.0920,5.9120,-17.8009,9.1490,12.8275,14.8251
1503.9062,9.9726,-10.0362,14.2935,10.1062,13.6772,-12.7996,14.5501,8.9533,17.4810,7.1547,14.6187,-9.7898,14.3444,6.6213,8.2065,-16.7286,12.1460,8.3347,12.8447
1507.8125,12.4488,-6.8909,13.6448,5.4752,16.1203,-10.0634,12.1989,4.2012,20.4170,5.5458,14.2502,-8.5854,15.5202,5.3647,10.8648,-13.9053,13.6222,4.4600,10.0312
1511.7188,12.7107,-3.9477,13.7581,2.3043,21.7019,-6.9666,9.9940,1.1996,22.1200,3.3521,14.0602,-6.7093,16.0004,6.0762,13.5144,-10.5626,13.0008,2.6157,7.9149
1515.6250,10.8323,-2.7982,14.3976,1.5046,29.5047,-5.3100,8.8994,1.3317,21.7424,1.7802,14.7771,-4.8566,15.9861,9.9717,15.8270,-8.3196,11.6922,2.7866,7.8805
1519.5312,8.1365,-3.6448,14.2896,1.8198,36.9044,-6.2985,9.4396,3.5249,19.7038,0.9558,16.5235,-3.2099,16.2234,15.3363,17.5072,-8.0600,12.0234,3.2851,10.1226
1523.4375,6.3659,-5.2251,12.0623,0.7833,41.1384,-9.4372,11.3463,5.0444,17.3590,-0.0051,18.7020,-1.5340,17.2213,18.5641,18.4182,-9.2404,15.2441,1.7539,13.4176
1527.3438,6.5843,-5.8868,7.5906,-3.2157,41.0607,-12.5142,13.7433,3.6231,15.9208,-2.0119,20.4624,0.2648,18.5559,16.8872,18.7639,-10.1949,20.2078,-3.1668,15.9783
1531.2500,8.5846,-4.8873,2.5874,-9.4062,37.8178,-12.8458,15.8213,-0.7419,15.5323,-5.0015,21.3536,1.7230,18.9340,10.5980,19.1213,-9.2656,23.8795,-10.6914,16.7491
1535.1562,11.1840,-2.8599,-0.2304,-14.9519,33.9669,-9.0205,17.4459,-5.7576,15.2742,-7.8084,21.6179,2.0204,17.0828,2.9071,20.1927,-5.9457,23.3990,-18.1670,16.1011
1539.0625,13.1224,-1.1331,1.0725,-16.9691,31.6874,-1.9504,19.1142,-8.6035,14.0992,-9.0326,21.9002,0.6842,12.8067,-2.5157,22.3751,-1.2069,18.1582,-22.6731,15.3651
1542.9688,13.8618,-0.5515,6.2384,-14.7094,31.3587,5.5319,21.2343,-8.0960,11.8794,-8.1898,22.6424,-1.8249,7.3349,-4.3555,25.4296,3.1976,10.2909,-22.8529,15.6126
1546.8750,13.7161,-0.8256,12.9165,-10.1717,31.4717,10.3051,23.3855,-5.5211,9.6258,-6.1882,23.6874,-4.2226,2.6047,-4.5120,28.5068,5.8921,3.2021,-19.6807,16.7403
1550.7812,13.3024,-0.9278,18.2604,-6.6058,29.8617,10.7643,24.3622,-3.4717,8.6239,-4.7190,24.4196,-5.2056,-0.0301,-6.2584,30.5556,6.6343,-0.7171,-15.6433,17.6525
1554.6875,12.8374,-0.1232,20.8209,-6.0372,25.3244,7.6641,23.1706,-3.6307,9.1767,-5.0180,24.3065,-4.3333,-0.6850,-11.1770,30.8821,6.1877,-1.4498,-12.9763,17.3787
1558.5938,11.8925,1.3169,21.2790,-7.7516,18.4620,3.5496,20.2257,-5.3030,10.0453,-6.9452,23.3707,-2.2628,-0.7468,-17.4198,29.5184,5.5605,-0.8598,-12.2627,16.1205
1562.5000,9.8053,2.3674,21.4913,-8.9454,11.2172,1.2410,17.6096,-5.9172,9.1708,-9.0685,22.1961,-0.1331,-1.7578,-20.8371,27.1918,5.3148,-0.9235,-12.3700,15.2406
1566.4062,6.3880,2.2410,22.6799,-7.0545,5.5130,2.3419,17.8626,-3.1491,5.2180,-9.6674,21.4765,1.3914,-4.2646,-18.2115,24.9366,5.4753,-2.2147,-11.6441,16.1073
1570.3125,2.3071,1.2184,24.2847,-1.9393,2.0230,6.5742,22.0015,2.9950,-1.2380,-7.9066,21.4985,2.6132,-7.5063,-10.0693,23.5970,5.9551,-3.8123,-9.3395,18.7418
1574.2188,-1.2243,0.5385,24.4374,3.7961,-0.0603,12.1260,28.2842,9.8000,-7.8560,-4.3595,21.9850,4.4113,-10.1214,-0.7722,23.4893,6.9387,-4.5002,-6.1617,21.4758
1578.1250,-3.2440,1.3871,21.6603,6.6168,-2.1685,16.6422,32.8947,13.5338,-11.9724,-0.5926,22.4030,7.3008,-11.2423,4.3218,24.3538,8.7503,-4.0466,-3.5777,22.0391
1582.0312,-3.7079,3.8372,16.3658,4.6120,-5.1269,18.2945,32.3257,11.9790,-12.3065,1.8165,22.4353,10.7516,-11.0950,2.5392,25.5483,11.2961,-3.3914,-2.5511,19.2916
1585.9375,-3.4869,6.6792,10.8656,-1.1547,-8.5066,16.5165,25.8504,5.9369,-9.6724,2.1408,22.1939,13.3718,-10.6923,-4.3591,26.3368,13.6756,-3.6505,-2.7752,14.1944
1589.8438,-3.6605,8.3488,7.7986,-7.4828,-11.0385,12.2226,16.2291,-1.3701,-6.2059,0.7651,21.9987,13.8458,-10.9704,-11.6443,26.1415,14.4998,-4.9507,-3.0012,9.1567
1593.7500,-4.6315,8.2065,8.1695,-11.3476,-11.7310,7.4732,8.0017,-6.4889,-3.7457,-1.1585,21.9460,11.8887,-12.1190,-15.1065,24.7018,12.8470,-6.2385,-2.1233,6.1999
1597.6562,-5.7433,7.0853,10.5225,-11.8889,-10.7845,4.6359,4.5038,-7.8739,-2.6172,-2.3180,21.6837,8.4733,-13.5910,-13.8547,22.1322,9.1390,-6.2665,-0.0767,5.3814
1601.5625,-5.7166,6.5971,11.8975,-10.6275,-9.5393,5.2747,5.7386,-6.4787,-1.6938,-1.7575,20.6353,5.1818,-14.6390,-10.3622,18.8801,5.1423,-4.8212,2.1930,4.7758
1605.4688,-3.6058,7.7348,9.8525,-9.9044,-9.4465,9.2431,8.6231,-4.5616,0.4201,0.8454,18.5083,3.2337,-14.8074,-7.9295,15.5776,2.9270,-2.9866,3.6121,2.0890
1609.3750,0.4171,9.9353,4.0657,-10.8964,-10.8316,14.5528,9.3602,-3.7940,4.0974,5.1029,15.6538,2.9375,-13.9662,-7.7624,12.8103,3.4710,-2.1185,3.9210,-3.3508
1613.2812,5.0285,11.4367,-3.5728,-12.7737,-12.4433,18.2909,6.1251,-4.1540,8.3116,9.9994,12.9341,3.8893,-12.0091,-8.0655,10.8846,5.9587,-2.4427,3.8636,-9.8217
1617.1875,8.4990,10.7037,-10.2903,-13.5349,-12.2256,18.2163,0.0990,-4.3099,11.4111,14.1663,11.1561,5.5765,-8.7022,-5.8129,9.7087,8.3445,-2.6424,4.4882,-14.3156
1621.0938,9.7002,7.7816,-14.0911,-11.6876,-8.8298,14.1050,-5.7611,-2.9726,12.3533,16.3687,10.4909,7.7531,-3.9972,0.3700,8.8584,8.7841,-0.9793,6.1989,-14.6932
1625.0000,8.6916,4.4359,-14.5861,-7.3521,-2.7675,7.9139,-9.0802,-0.0088,11.3961,16.0557,10.3384,10.2594,1.4415,8.6703,7.7966,6.8535,2.9208,8.3992,-11.2141
1628.9062,6.5345,2.8803,-12.6355,-1.9700,3.7048,2.5507,-9.6380,3.5423,9.7536,13.6602,9.7561,12.5680,6.1189,15.2168,6.1207,3.6470,7.2308,10.0422,-6.2621
1632.8125,4.5382,4.0435,-9.3823,2.9801,7.9820,0.0095,-9.0190,6.4127,8.5844,10.3843,8.1377,13.6589,8.3917,16.9788,3.7102,0.7464,8.9737,10.5925,-2.5066
1636.7188,3.5002,6.7417,-5.5609,7.0748,8.8474,0.1521,-8.8310,8.0981,8.1842,7.5281,5.6424,12.5354,7.6170,14.0774,0.7387,-1.0556,6.3073,10.5387,-0.9592
1640.6250,3.4327,8.4494,-1.4981,10.9369,7.3104,1.0054,-9.1108,9.0672,8.0029,5.7766,3.0760,9.0473,4.8696,9.6349,-2.3843,-2.2341,0.2194,10.9777,-0.4281
1644.5312,3.8604,7.1219,2.4978,15.2486,5.9162,0.3559,-8.2846,10.1215,7.3746,4.9503,1.3523,4.2800,2.4882,7.2941,-5.0558,-3.8746,-5.8628,12.6080,1.2733
1648.4375,4.3609,2.6973,5.9592,19.7720,6.9894,-2.5483,-4.6699,11.5947,6.2635,4.4057,0.9553,0.0265,2.5863,8.4211,-6.5115,-6.5060,-8.3996,15.0121,5.3929
1652.3438,4.9103,-2.8527,8.5450,23.3112,11.0479,-6.4605,1.8012,13.1492,5.3817,3.7642,1.7786,-2.3803,5.5614,11.2261,-5.9534,-9.4698,-6.2354,16.8874,11.1411
1656.2500,5.8259,-6.9367,10.4547,24.6672,16.5035,-9.1362,9.1326,14.3052,5.6165,3.3647,3.3847,-2.9869,9.7818,12.4478,-2.8627,-11.3935,-1.2791,17.0869,16.2560
1660.1562,7.4391,-8.1271,12.4178,23.7239,20.8303,-9.0529,14.5076,15.1181,7.3096,4.0355,5.4003,-3.1091,12.7906,10.1624,2.5760,-11.3709,3.1836,15.6145,18.7142
1664.0625,9.8165,-6.9838,15.0963,21.6641,22.3286,-6.4783,16.2513,16.2730,10.0157,6.3391,7.7028,-4.2108,13.1747,5.4055,9.2205,-9.8244,5.1706,13.7221,18.1913
1667.9688,12.7379,-5.3729,18.3631,20.0800,21.2166,-3.0657,14.9739,18.4295,12.9183,9.9157,10.2821,-6.6469,11.6530,1.3240,15.2027,-8.2754,5.4789,12.9787,16.1548
1671.8750,15.8892,-4.9010,21.1637,19.7182,19.3183,-0.3607,13.0460,21.4014,15.4906,13.5133,12.9676,-9.3158,10.4890,0.6078,18.7169,-8.1657,6.7536,14.0517,14.6147
1675.7812,19.0460,-5.7106,22.2282,19.9369,18.6615,1.5037,12.8839,23.9846,17.8093,15.7616,15.3257,-10.5556,11.6417,3.3307,19.0215,-9.6879,10.9498,16.1960,14.6062
1679.6875,22.0788,-6.5146,21.1353,19.3333,20.0565,3.8028,15.3868,24.7102,20.2729,16.1126,16.8713,-9.5816,15.0936,6.9242,17.0264,-11.6009,17.3333,17.8827,15.6021
1683.5938,24.8090,-5.7383,18.8173,16.9755,22.6555,7.8772,19.6157,22.9450,23.0332,15.1919,17.4408,-7.2609,18.7029,8.2186,14.9620,-12.2007,22.7275,18.0492,16.2143
1687.5000,26.9027,-2.8089,16.9780,13.1397,24.6949,13.5637,23.7429,19.3689,25.7006,14.2338,17.4116,-5.5125,19.7456,5.8160,15.1614,-10.6634,23.8545,16.9262,15.4861
1691.4062,27.9557,1.3959,16.7966,8.8963,24.7519,18.7682,26.3483,15.3346,27.6091,14.0156,17.5531,-5.7478,16.9840,0.8746,18.6242,-7.6743,19.8862,15.7386,13.6778
1695.3125,27.7326,5.1947,17.9619,4.9367,22.5640,20.6733,27.0614,11.5949,28.3956,14.1392,18.5779,-7.6016,11.6677,-4.2004,24.2839,-4.8484,13.1520,15.5159,11.9684
1699.2188,26.3599,7.2530,18.8957,0.7573,18.9171,17.7636,26.2791,7.5261,28.3379,13.2758,20.6987,-9.0389,6.7074,-7.8949,29.5395,-3.4483,7.4660,16.0185,11.4446
1703.1250,24.2945,7.3487,18.0863,-4.9415,14.8801,11.1347,24.5050,1.6532,28.1131,10.2349,23.4936,-7.8472,4.6739,-10.6525,31.8008,-3.4646,5.4517,15.7296,12.2974
1707.0312,22.0753,6.2787,15.4997,-12.8534,11.1099,4.0330,22.0456,-6.8062,28.1806,5.0439,26.1629,-3.3868,6.1548,-13.9865,30.0837,-3.7947,6.9776,13.0090,13.8701
1710.9375,20.0601,5.1499,12.8924,-21.8387,7.7480,-0.1211,19.2653,-16.6337,28.3642,-0.8250,27.9869,2.7852,9.6524,-18.5139,25.6056,-3.3175,9.7940,7.5395,15.4120
1714.8438,18.3583,4.7003,12.6769,-29.0502,4.8265,0.1617,16.9417,-24.7716,28.0559,-5.3085,28.6862,7.9501,12.9578,-22.7767,20.9765,-1.9183,11.6182,0.9042,16.7864
1718.7500,16.9868,5.1137,16.1511,-31.5530,2.6491,3.6814,16.1331,-28.0902,26.8889,-7.0761,28.4876,10.1519,14.7999,-24.0517,18.5357,-0.5817,11.8114,-4.2314,18.4891
1722.6562,16.0630,6.2758,22.4487,-28.3193,1.7003,7.6115,17.4902,-25.5569,25.2550,-6.3445,27.9148,9.5349,15.4644,-20.6074,18.9749,-0.4784,11.3186,-5.7927,21.0005
1726.5625,15.7972,8.0577,29.0446,-21.0609,2.1467,9.5434,20.6015,-19.1239,24.1118,-4.5865,27.4783,8.0815,16.0122,-13.5152,21.1638,-1.8352,11.1697,-3.6256,24.1099
1730.4688,16.2360,10.3121,33.4426,-13.1769,3.4423,9.0321,24.0714,-12.5142,24.1318,-3.3810,27.4503,7.9948,16.9109,-6.3612,23.2211,-3.5660,11.0935,0.4619,26.8648
1734.3750,16.9693,12.6655,34.7688,-7.5339,4.5062,7.6303,26.4380,-8.6811,24.8802,-3.2938,27.8035,10.0236,17.3258,-2.8775,23.9739,-4.0093,9.6027,3.9333,28.2251
1738.2812,17.1147,14.4591,34.0917,-4.7122,4.4363,7.5443,27.2504,-7.7984,24.8012,-3.6173,28.2860,13.0277,15.6931,-4.2561,23.7015,-2.1984,5.4803,5.1126,27.8610
1742.1875,15.7142,15.0618,33.3174,-2.9953,3.2019,9.9880,27.3844,-7.3115,22.1938,-3.1095,28.5627,15.0540,11.0771,-8.2687,23.6400,1.3454,-0.7513,4.0338,26.4100
1746.0938,12.3380,14.3642,33.6141,-0.0291,1.7062,14.3923,28.2578,-4.0438,16.5290,-1.1059,28.3658,14.9896,4.1528,-10.9481,24.6984,4.9212,-6.8407,2.0805,24.9827
1750.0000,7.4684,12.9936,34.6259,5.1938,1.1005,18.8880,30.5494,3.2230,9.0877,1.8718,27.6157,13.4366,-3.0204,-9.5791,26.4553,6.8022,-10.4375,0.8460,24.3616
1753.9062,2.3395,11.9548,35.0231,11.5571,1.8679,21.5607,33.4915,12.6476,2.3328,4.4449,26.4592,12.1396,-8.2553,-4.7090,27.2843,6.3451,-10.9804,1.1073,24.5696
1757.8125,-1.7153,11.8983,33.8198,16.7595,3.4204,21.5494,35.3620,20.5323,-1.6183,5.3401,25.1783,12.4983,-10.5298,0.3420,25.5722,4.2644,-10.1478,2.5637,25.1181
1761.7188,-3.9847,12.5982,31.2953,19.1075,4.5586,19.3434,34.7852,23.8932,-2.3398,4.2284,23.9798,14.4153,-10.3447,2.0407,21.1101,1.9820,-10.3679,4.3129,25.6102
1765.6250,-4.6784,13.1183,28.7373,18.6874,4.4376,16.2873,31.7513,22.4505,-1.2765,1.8496,22.7763,16.4084,-8.9891,-0.7290,15.5528,0.6596,-12.5883,5.5273,26.0766
1769.5312,-4.6110,12.5836,27.2513,17.0409,3.2597,13.7886,27.4954,18.5923,-0.6291,-0.5695,21.1298,16.8460,-7.4333,-5.9355,11.5050,0.6532,-15.2318,5.8084,26.7078
1773.4375,-4.5293,10.9445,26.6690,15.7426,2.1300,12.7445,23.3692,15.4609,-1.7843,-2.0751,18.4591,15.2500,-5.7818,-9.9912,10.8165,1.6577,-15.3319,5.1203,27.2709
1777.3438,-4.5881,9.0758,25.5058,15.1452,2.1927,13.3873,19.7243,14.7188,-4.4346,-2.3623,14.4329,12.5979,-3.6428,-10.3137,13.2821,3.2073,-11.0079,3.5929,26.8533
1781.2500,-4.3433,8.0941,22.0510,14.3235,3.7481,15.4207,15.8196,15.6812,-6.9757,-1.6142,9.3060,10.4232,-0.9454,-6.8943,16.6895,4.9908,-3.2567,1.4966,24.3261
1785.1562,-3.2180,8.4472,15.7445,12.1701,6.0496,18.2444,10.8506,16.3206,-7.7822,-0.1114,3.9444,9.5128,1.6110,-1.8598,18.2116,6.7585,4.4641,-0.6221,19.2487
1789.0625,-1.0423,9.5566,7.7659,8.6052,7.9034,21.1672,5.1611,15.1502,-6.3446,1.9704,-0.5238,9.3023,2.9009,2.3539,16.2077,8.0812,8.5913,-1.9310,12.4551
1792.9688,1.7586,10.3479,0.3821,4.8129,8.5429,23.6175,0.4765,12.4009,-3.4555,4.4495,-3.2344,8.4430,2.1879,4.6366,11.2322,8.3798,7.8944,-1.6502,5.7290
1796.8750,4.4463,10.2356,-4.4400,2.3072,8.0614,25.3221,-1.1920,9.6267,-0.4394,6.9612,-3.9651,6.0165,-0.3301,5.4665,5.6174,7.3338,4.0870,0.4027,0.6995
1800.7812,6.4567,9.6949,-6.1340,1.6682,7.1089,26.3415,0.8559,8.2433,1.8356,9.0375,-3.1444,2.3446,-3.7232,5.9115,1.9751,5.3032,0.2245,3.5014,-2.2262
1804.6875,7.6905,9.8585,-5.6107,2.0774,6.2035,26.8723,5.2499,8.3525,3.3520,10.4705,-1.5435,-1.2832,-7.0658,6.4859,1.6328,3.2730,-1.6996,6.2868,-4.0399
1808.5938,8.4014,11.4035,-4.3932,2.0696,5.3115,26.9122,9.3311,8.8467,4.5255,11.6106,0.0923,-3.7014,-10.0210,6.8984,3.9825,2.2078,-1.9677,7.5389,-6.2409
1812.5000,8.8283,13.6567,-3.5533,0.8456,4.0602,26.0679,10.9226,8.5982,5.4810,13.1995,1.2273,-4.8218,-12.7482,6.7395,7.0465,2.2797,-2.2780,6.9175,-9.5542
1816.4062,8.9302,14.7608,-3.2186,-1.0092,2.3339,23.7501,9.7058,7.5740,5.7590,15.7215,1.5089,-5.6182,-15.2607,6.2490,8.7783,2.6574,-3.7323,5.1229,-13.2669
1820.3125,8.4680,12.9229,-2.8602,-2.0427,0.6349,19.7048,7.1492,6.8174,4.7533,18.7634,0.7166,-7.1520,-16.8982,6.2959,8.2336,2.1415,-5.5414,3.3650,-15.7047
1824.2188,7.3594,7.8525,-1.9504,-1.2506,-0.1995,14.4878,5.1423,7.2942,2.4830,21.0131,-1.1260,-9.4809,-16.5050,7.5519,5.9504,0.2018,-5.6248,2.5724,-15.4649
1828.1250,5.9750,1.2464,-0.3876,0.9620,0.2833,9.4273,4.5373,8.6786,-0.0412,21.0904,-3.5138,-11.4095,-13.2709,9.7023,3.4377,-2.4491,-2.5652,2.9491,-12.4345
1832.0312,5.0815,-4.1567,1.5846,3.0365,1.6550,5.9500,4.8038,9.2713,-1.2750,18.6853,-5.3760,-11.3523,-7.5483,11.5622,2.1983,-4.3100,2.8469,4.1569,-7.8202
1835.9375,5.4250,-6.3486,3.7409,3.5532,2.8632,4.6610,4.9594,7.2871,-0.1434,15.0879,-5.4218,-8.6479,-0.9036,12.1082,2.8966,-4.2949,7.9149,5.8404,-3.2329
1839.8438,7.2516,-5.3803,6.0862,2.4676,3.1199,4.8409,4.7918,2.5122,3.1844,12.5351,-2.8759,-4.2693,4.7431,11.4937,5.1043,-2.7256,10.0279,7.9391,0.3910
1843.7500,10.1252,-3.2777,8.6971,1.2162,2.7000,4.8012,5.1569,-3.0937,7.3649,12.6969,1.8381,-0.3355,8.2727,11.0177,7.6927,-1.2351,8.7025,10.4814,3.1801
1847.6562,13.1750,-2.6109,11.3758,1.5615,2.9144,2.9373,7.0266,-6.4889,10.7550,15.3859,7.0369,1.2338,9.9284,11.9266,9.5952,-1.5457,5.9535,13.1025,5.8082
1851.5625,15.5890,-4.7587,13.5022,4.1195,5.1710,-1.2028,10.1908,-5.5959,12.4257,18.5421,10.5800,-0.0734,10.8683,14.0627,10.5001,-4.0370,4.6623,14.8628,8.6136
1855.4688,17.0080,-9.0909,14.2925,7.8021,9.8245,-6.5604,12.9421,-0.7393,12.5776,19.6458,11.1529,-3.1506,12.1138,15.6684,11.0748,-7.2674,6.2968,14.7136,11.1686
1859.3750,17.5918,-13.5562,13.3021,10.6523,15.7623,-11.1567,13.2652,5.6464,12.1343,17.5915,9.2008,-6.1283,13.7834,14.7381,12.5652,-8.9183,9.8730,12.3415,12.6668
1863.2812,17.7942,-16.1232,10.7834,11.3873,21.1395,-13.2209,10.6707,10.8012,11.9436,13.6015,6.7941,-7.5860,15.2296,10.9101,15.9562,-7.5082,12.9897,8.6659,12.7586
1867.1875,18.0672,-15.9805,7.6270,10.3716,24.7433,-12.1161,7.0742,13.5084,12.2604,10.3897,6.3827,-7.2361,15.9067,6.2409,21.1713,-3.5780,14.0183,5.4290,12.0728
1871.0938,18.6864,-13.7182,4.9517,9.2253,26.9156,-8.5308,5.7596,14.6089,12.8468,10.0927,9.1872,-5.7165,16.1560,3.9796,26.8414,0.5818,13.5645,4.0341,11.9412
1875.0000,19.7138,-10.5769,3.6566,9.4185,29.2599,-3.9483,9.0196,15.8606,13.4459,12.4759,14.3013,-3.8599,17.1527,6.1124,30.8841,2.4803,13.9596,4.4793,13.5301
1878.9062,20.9889,-7.5228,4.2063,11.0429,33.3063,0.1469,16.2576,18.1792,14.0770,14.8097,19.1526,-2.1394,19.9781,11.6015,31.6268,1.0925,17.2114,5.2794,17.0754
1882.8125,22.0856,-4.8861,6.6596,12.7837,39.1573,2.8192,24.1133,20.7534,14.8452,13.6188,21.0637,-0.6905,24.5605,16.8529,28.7973,-2.5813,23.1454,4.5524,21.8019
1886.7188,22.3235,-2.6887,10.7513,13.0836,45.1921,3.7924,28.6493,21.7361,15.4943,7.1149,18.8981,0.2906,29.3999,18.2235,23.7191,-6.4077,29.3092,1.5057,26.5213
1890.6250,20.9869,-1.1551,15.8801,11.4870,49.0973,3.2728,28.0081,19.8742,15.2521,-3.4186,13.7198,0.3276,32.4072,14.6949,18.5474,-8.6912,32.7506,-2.8301,30.3632
1894.5312,17.7645,-0.7999,21.0797,9.0152,49.4633,1.7481,23.5589,15.6716,13.2925,-14.2836,8.0803,-1.0357,32.2970,8.6126,15.0505,-9.1933,32.2482,-6.2478,33.0682
1898.4375,13.1679,-1.9577,25.1887,7.2679,46.7290,-0.1239,18.7218,11.1034,9.5415,-21.5957,4.4795,-3.6257,29.5064,3.8720,13.7766,-8.8986,29.2255,-6.9503,34.7316
1902.3438,8.5578,-4.2117,27.3080,7.0348,42.7612,-1.6158,16.4535,8.1330,5.1234,-23.5116,4.0535,-6.3195,25.9332,2.9675,14.1569,-8.8655,26.6584,-4.8738,35.3942
1906.2500,5.5893,-6.3337,27.3183,7.6078,39.3989,-2.1232,17.3440,7.2605,1.9127,-20.9634,6.2868,-7.4501,23.6603,5.2360,15.3631,-9.2003,26.8683,-1.7223,34.9471
1910.1562,5.3020,-6.9325,26.0437,7.3699,37.0778,-1.3990,19.6763,7.2656,1.3503,-16.5604,9.7594,-5.7791,23.5653,7.6512,17.1308,-8.9932,29.8859,0.3193,33.4292
1914.0625,7.4197,-5.3713,24.8081,5.1444,34.5623,0.3579,21.1697,6.2836,3.3492,-12.6369,13.2297,-1.3542,24.7717,7.4474,19.8068,-7.1908,33.5191,0.1875,31.3281
1917.9688,10.3836,-2.2331,24.5935,1.1527,29.9552,2.6779,20.8474,3.2741,6.1682,-9.9196,16.2359,4.4193,25.2658,4.3737,23.5757,-3.5954,34.8970,-1.3834,29.4356
1921.8750,12.1922,1.0644,25.3757,-3.2078,22.2028,5.1536,19.5413,-1.2987,7.4650,-7.6402,18.9016,9.5955,23.1909,0.7368,27.6182,0.8755,32.2420,-2.6060,28.2420
1925.7812,11.5539,3.2353,26.1655,-6.5251,11.9945,7.6537,18.8227,-6.0014,5.8428,-4.7275,21.3094,12.8229,17.9340,-0.7304,30.1436,4.8621,25.6760,-2.1673,27.3776
1929.6875,8.6132,3.9483,25.7729,-8.4434,1.4622,10.2287,19.4774,-9.5731,1.7820,-0.9373,23.1049,13.9875,10.3692,0.6954,29.5614,7.5620,16.7941,-0.3029,25.7044
1933.5938,4.7809,3.9100,23.7372,-9.7285,-7.0226,12.8138,20.9001,-11.6434,-2.7262,3.0028,23.7113,13.9515,2.2518,3.0890,26.0108,9.2139,7.6472,1.4174,22.1558
1937.5000,1.8104,4.2123,20.6925,-11.3381,-12.0728,15.0613,21.8305,-12.5122,-5.5756,6.2089,22.9354,13.6778,-4.7276,3.5812,21.9291,10.7090,-0.0421,1.3636,16.7260
1941.4062,0.7651,5.5025,17.8532,-13.3948,-13.7619,16.5428,21.6028,-12.4045,-5.9401,8.5561,21.3659,13.4778,-9.6393,0.9297,20.8764,12.7347,-5.1389,-0.8846,10.7517
1945.3125,1.5452,7.6095,16.0015,-15.0343,-13.2182,17.1973,20.6760,-11.0762,-4.6661,10.8055,20.1177,12.9600,-12.4771,-3.2874,25.1545,15.2117,-7.1205,-4.2849,6.1128
1949.2188,3.1958,9.8202,14.7883,-15.2865,-11.8043,17.5802,19.9648,-8.2294,-3.4459,13.8114,20.0409,11.6428,-13.8754,-5.9393,33.8620,17.4666,-6.2191,-7.2287,3.8693
1953.1250,4.6539,11.4589,12.9400,-14.1701,-10.4882,18.5466,19.6870,-4.3072,-3.4714,17.5377,21.0037,9.6453,-14.6554,-5.0346,42.9529,18.8979,-3.5940,-8.7804,3.3970
1957.0312,5.3445,12.2391,9.2588,-12.9232,-9.6803,20.4752,18.9293,-0.7458,-4.6148,20.8149,21.8570,7.8264,-15.4225,-1.5368,47.5303,19.4731,-1.0896,-9.2195,2.7871
1960.9375,5.2601,12.1572,3.6522,-13.0272,-9.3758,22.6435,16.4606,0.8242,-5.7076,22.1317,21.1749,7.2260,-16.3173,1.3117,44.9311,19.6044,-0.3465,-9.4981,0.2921
1964.8438,4.6233,11.1643,-2.6264,-14.7797,-9.2931,23.4011,12.0862,-0.0698,-5.6110,20.8418,18.2480,8.2521,-16.9682,0.6823,36.4389,19.5712,-1.7091,-10.1720,-4.2726
1968.7500,3.5434,9.0540,-7.7482,-16.6737,-8.8841,21.2360,7.2153,-1.9978,-4.1851,17.7623,13.5819,10.2759,-16.6872,-3.3496,26.3475,19.1018,-3.8230,-10.7966,-9.2899
1972.6562,1.9920,5.7446,-10.5174,-16.2543,-7.3684,16.0539,3.9318,-2.3178,-2.4107,14.6163,8.5172,11.9622,-14.8880,-7.6361,18.9923,17.5739,-4.4844,-10.3341,-12.4982
1976.5625,0.0584,1.6860,-11.0998,-11.8978,-3.9912,9.6541,3.2335,1.0287,-1.6325,12.7396,4.2576,12.0829,-11.5537,-8.3341,15.8751,14.6831,-2.3095,-8.1974,-12.6621
1980.4688,-1.8477,-2.0824,-10.7235,-4.1294,1.5221,4.8451,3.9895,7.9487,-2.5729,12.1071,1.0427,10.2008,-7.4445,-3.9333,14.9498,10.9261,2.0265,-4.9761,-10.4450
1984.3750,-3.1353,-4.4340,-10.6170,4.6077,8.6097,3.6465,3.6982,16.1396,-4.8792,11.4942,-1.9110,6.7565,-3.8160,3.5324,12.5214,7.3520,6.0823,-2.1416,-7.8042
1988.2812,-3.4609,-4.9045,-11.0418,11.5946,15.9351,5.8087,0.6008,22.6698,-7.4776,9.6480,-5.6688,2.5922,-1.7253,10.0782,6.2592,4.6891,7.4266,-0.9238,-6.4146
1992.1875,-3.0818,-4.0743,-11.1886,15.6068,21.9026,8.7929,-4.5789,25.9915,-9.3586,6.4918,-10.6121,-1.6284,-1.3541,12.8531,-2.9763,2.5915,5.5864,-1.2921,-6.4116
1996.0938,-2.7783,-3.1992,-9.9984,17.4257,25.3170,9.3620,-8.8695,26.7899,-10.1407,3.3384,-15.9757,-5.6368,-1.8536,12.1901,-11.8212,-0.2427,2.5761,-1.9278,-6.4606
2000.0000,-3.3308,-3.3096,-7.2225,18.7486,25.7792,5.7533,-9.3020,27.0093,-10.0431,1.8999,-20.2286,-9.3251,-1.8943,10.9933,-16.9779,-5.0201,1.4559,-1.2596,-5.0563
2003.9062,-4.9327,-4.4789,-3.8360,20.4842,23.6460,-1.0872,-5.4727,27.9122,-9.4342,2.8873,-22.0044,-12.3936,-0.5752,12.0698,-17.6056,-11.6426,3.9645,1.2690,-1.9265
2007.8125,-6.9980,-5.8706,-1.4393,21.9169,19.7385,-8.1031,-0.2829,28.8495,-8.4431,5.3567,-20.9104,-14.2989,1.9723,15.7210,-15.6880,-18.3691,9.1029,4.7445,1.6639
2011.7188,-8.5241,-6.5538,-1.0959,21.4604,15.1206,-12.1625,1.9463,27.8366,-6.9711,7.3673,-17.6760,-14.6146,4.7705,19.6389,-14.1859,-22.7642,13.8693,7.5185,3.9797
2015.6250,-8.7208,-6.4236,-2.5185,18.3323,11.0668,-12.1149,-1.3114,23.4804,-5.0053,7.4513,-13.6050,-13.4942,6.8577,21.1542,-14.5345,-23.3226,15.6327,8.5240,4.3512
2019.5312,-7.4167,-6.4311,-4.2574,13.6492,9.0008,-9.4666,-8.6919,16.5987,-2.8392,5.7318,-9.7807,-11.7813,8.1643,19.8418,-15.5099,-20.5600,14.2733,8.0763,3.8524
2023.4375,-4.9654,-7.8713,-4.7729,9.8876,10.0956,-7.2729,-15.6480,10.0461,-0.9186,3.8020,-6.5752,-10.5775,9.6742,18.1573,-14.3409,-16.7038,12.3393,7.5052,4.4881
2027.3438,-1.8166,-11.2577,-3.5882,9.0336,14.5311,-8.0887,-17.5148,6.7228,0.5695,3.4791,-3.7193,-10.5438,12.6706,19.4369,-9.1217,-14.1769,13.0336,7.9457,7.5001
2031.2500,1.8024,-15.6994,-1.6531,10.9080,20.8888,-12.3910,-12.6880,7.3007,1.9526,5.4329,-0.7592,-11.4713,17.5931,24.8723,-0.5715,-14.0010,17.6006,9.3298,12.1706
2035.1562,5.7935,-19.3325,-0.6455,13.0952,26.3452,-18.4372,-3.6068,9.5347,3.8654,8.7585,2.5000,-12.4721,23.3913,32.0246,8.2495,-15.3011,24.1931,10.4461,16.1382
2039.0625,9.8081,-20.5299,-1.7219,12.6475,27.9204,-23.4674,5.0572,9.8208,6.6971,11.7692,5.8636,-12.6577,27.9415,36.2532,14.0114,-16.2211,29.1411,10.0239,17.0437
2042.9688,13.0420,-18.9749,-4.6192,8.2875,24.2412,-25.3022,9.5228,5.8657,10.1730,13.2980,8.9332,-11.7693,29.3192,34.0488,15.3393,-15.4613,29.6357,7.9204,14.2510
2046.8750,14.5565,-15.7759,-7.7232,1.3838,16.6904,-23.3069,9.0217,-1.5915,13.4828,13.4343,11.3924,-10.2661,27.0557,25.6644,13.5243,-13.2025,25.7311,5.3783,9.3269
2050.7812,13.9995,-12.5475,-9.0193,-5.0751,8.9872,-18.3096,5.5994,-9.3355,15.9058,13.1526,13.1718,-8.8129,22.4863,14.9457,11.3192,-10.7344,20.1424,4.0855,4.9436
2054.6875,12.1461,-10.1962,-7.2463,-8.7066,5.1958,-11.8166,2.1596,-14.0530,17.4138,13.2419,14.4365,-7.6158,17.9253,6.4876,10.9123,-9.1836,16.0854,4.7745,3.0872
2058.5938,10.6932,-8.3663,-2.5190,-9.4169,7.2767,-5.1899,0.5336,-14.6575,18.6928,13.5187,15.4832,-6.1880,15.2300,2.3544,12.6834,-8.4531,14.9270,6.5046,3.9294
2062.5000,11.2800,-5.9478,3.8770,-9.2548,13.7619,0.7633,0.9935,-12.7856,20.4967,13.0148,16.6428,-3.7895,14.7283,0.9016,15.5438,-7.2720,15.4644,7.2448,6.1078
2066.4062,14.3648,-2.1841,10.2472,-10.6157,20.5192,5.7872,3.1685,-11.1896,22.8471,10.9607,18.1958,-0.2196,15.1946,-1.4935,18.2974,-4.3086,15.2612,5.3378,8.0072
2070.3125,18.8142,2.5526,15.2599,-14.2628,23.2319,10.0045,7.1147,-11.4146,24.7984,7.6753,20.2521,3.6810,14.8075,-7.3075,20.6937,0.5808,12.8035,0.7273,8.9054
2074.2188,22.6022,6.9550,18.3371,-18.7150,20.0507,13.7463,13.3527,-12.6377,25.0695,4.5404,22.6062,6.2814,12.3694,-15.8895,23.2745,5.9976,8.6724,-4.9761,9.1113
2078.1250,24.1774,9.7601,19.6280,-21.4112,12.7187,17.3580,21.8647,-12.5092,23.1088,3.0176,24.6876,6.0710,7.9704,-24.1127,26.2961,9.8370,4.8612,-9.6030,9.1835
2082.0312,23.5020,10.6869,19.7756,-20.6473,5.4496,20.9226,31.1744,-9.1867,19.7182,3.4903,25.7359,2.6265,2.7434,-28.9553,28.8705,10.6641,2.9528,-11.8372,9.1100
2085.9375,21.9521,10.5488,19.6633,-16.7424,2.3119,24.0171,38.6492,-2.8482,16.6283,4.8959,25.1862,-3.0326,-1.9860,-29.7951,29.2698,8.5882,2.7816,-11.8901,8.2821
2089.8438,21.1161,10.4577,20.1544,-11.5992,4.8177,25.7682,42.0482,4.4937,15.2301,5.4804,23.0446,-8.9431,-5.4972,-28.5668,26.2673,5.0397,2.7032,-11.0410,6.2812
2093.7500,21.3943,10.8022,21.7673,-7.1467,11.2251,25.3450,41.1071,10.5944,15.3969,4.0988,19.9645,-13.2080,-7.9058,-27.7878,20.3993,1.7273,1.1781,-10.5268,3.6841
2097.6562,21.5006,10.8756,24.3431,-3.9873,17.8838,22.6481,37.7690,14.5894,15.3595,1.0497,16.9088,-14.8515,-9.7876,-28.2135,14.0030,-0.3738,-1.7380,-10.6939,2.0185
2101.5625,19.3181,9.4915,26.9452,-1.2817,21.6251,18.6543,34.7418,17.3145,12.8489,-2.1890,14.5935,-14.0276,-11.5718,-28.1118,9.8505,-1.2987,-4.2891,-10.9922,2.7527
2105.4688,13.5265,6.0974,28.2164,2.1849,21.6019,15.0118,33.4963,20.2030,6.7429,-4.0777,13.1060,-11.5817,-13.1690,-24.7264,9.3614,-1.6103,-4.3927,-10.6619,6.1146
2109.3750,4.7979,1.4644,27.1324,6.7565,19.4643,13.0279,33.3318,23.8188,-1.9853,-4.0979,11.9851,-8.3939,-14.0507,-16.6784,11.7438,-1.7226,-1.3450,-9.4496,10.7770
2113.2812,-4.3625,-2.6529,23.7168,11.5189,17.9210,12.7538,32.2633,27.2917,-10.7495,-2.9989,10.7008,-4.9881,-13.6546,-5.3408,14.6954,-1.6291,3.5362,-7.7841,14.7673
2117.1875,-11.0727,-4.6738,19.1715,14.9930,18.7693,12.9186,28.9410,29.0504,-16.9498,-2.1146,9.1453,-1.5868,-11.7988,5.8728,16.0769,-1.1537,7.8193,-6.3748,16.9161
2121.0938,-13.8152,-4.2952,15.2057,16.2199,21.7182,11.8756,23.9453,28.1132,-19.5450,-2.3732,7.7308,1.6003,-8.8390,13.6659,15.2652,-0.3392,9.6451,-5.6687,17.6569
2125.0000,-13.2498,-2.6985,12.9322,15.3117,24.7032,8.9108,19.3434,24.7929,-19.4821,-3.7686,7.0112,4.2127,-5.5045,16.7663,13.2364,0.4811,8.8625,-5.6195,18.4884
2128.9062,-11.5668,-1.6982,12.0980,13.1179,25.3663,4.8999,16.9061,20.2886,-18.7299,-5.5852,7.1509,5.8833,-2.5418,16.2597,11.4896,1.0010,6.8293,-5.8558,20.5290
2132.8125,-10.9016,-2.4683,11.2593,10.4577,22.6591,1.7372,16.5401,15.6642,-18.7026,-7.0274,7.7068,6.5502,-0.3687,14.3869,10.8023,1.2816,5.2171,-5.9706,23.3731
2136.7188,-11.9590,-4.7736,8.8427,7.6680,17.5185,0.9186,16.3075,11.1938,-19.2756,-7.6535,7.9388,6.6220,1.0923,12.9825,10.8038,1.7090,4.8794,-5.6424,25.2374
2140.6250,-13.7681,-7.2196,4.3518,4.7907,12.2214,2.3705,14.0296,6.6073,-19.0915,-7.3258,7.4065,6.7959,2.3225,12.7506,10.5578,2.5583,5.6138,-4.5881,24.3066
2144.5312,-14.6151,-8.2628,-1.1947,2.0345,8.8726,4.4727,9.1078,1.8472,-16.8404,-5.9137,6.3441,7.6249,3.8900,13.6072,9.4875,3.5986,6.7666,-2.5986,20.1710
2148.4375,-13.3716,-7.2040,-5.9582,-0.1227,8.0040,5.3028,3.0157,-2.5416,-12.4706,-3.2067,5.4653,9.1532,6.0480,15.3544,7.7899,4.2025,7.9215,0.1895,14.1483
2152.3438,-10.2442,-4.4918,-8.6123,-1.4044,8.1679,4.1316,-1.9366,-5.8645,-7.3848,0.7783,5.3304,10.8922,8.4635,17.8485,6.0611,3.9671,8.9949,2.9918,8.2187
2156.2500,-6.5056,-1.2446,-9.2865,-2.3039,6.7961,1.9664,-4.4852,-8.1365,-3.5007,5.4051,5.7984,12.1475,10.2730,20.5766,4.6128,3.3007,9.7702,4.4841,3.4819
2160.1562,-3.5491,1.5273,-9.3667,-4.0252,1.8365,0.6763,-5.3412,-10.3949,-1.9301,9.4484,6.0529,12.4455,10.5113,22.3430,3.2040,3.3362,9.5311,3.5331,-0.5356
2164.0625,-2.0428,3.3975,-10.2782,-7.5740,-6.7962,1.3815,-6.4200,-13.9344,-2.2827,11.7236,5.2293,11.7510,8.7112,21.7541,1.4413,5.0558,7.3747,0.1784,-5.1173
2167.9688,-1.7532,4.4506,-12.2093,-12.6416,-16.8472,3.4151,-9.1036,-18.9797,-3.0761,11.9106,3.1545,10.3578,5.3026,18.3491,-0.5985,8.2544,3.0705,-3.9323,-10.8068
2171.8750,-2.0072,4.9037,-13.8321,-17.3226,-24.7277,4.7384,-13.0590,-24.0008,-2.8644,10.8750,0.5859,8.5886,1.4849,13.3835,-2.2193,11.2616,-2.3288,-6.2453,-16.4698
2175.7812,-2.2841,4.8513,-13.3213,-19.1783,-27.4144,3.5343,-16.5842,-26.5006,-1.1938,10.1217,-1.2731,6.5593,-1.4377,9.3145,-2.6696,11.8487,-6.8598,-4.9047,-19.9051
2179.6875,-2.4296,4.3466,-9.9301,-17.0316,-24.1933,-0.2639,-18.0737,-24.8657,1.3021,10.7322,-1.6097,4.1687,-2.8782,8.0860,-1.9249,8.7946,-8.9222,-0.1961,-19.6199
2183.5938,-2.4065,3.6374,-4.8688,-12.1026,-17.2071,-4.7384,-17.2345,-19.8189,3.6301,12.6260,-0.5122,1.2691,-3.3759,9.4843,-0.8821,2.9436,-8.5031,5.3335,-16.3111
2187.5000,-1.9355,3.1999,-0.7027,-7.4182,-10.3848,-7.2833,-14.9893,-14.1419,5.3274,14.7769,1.2597,-2.1560,-4.2257,11.0363,-0.6338,-3.1481,-7.2752,8.3956,-12.7017
2191.4062,-0.4562,3.4108,0.3903,-5.7132,-7.2596,-6.4710,-12.2668,-10.6591,6.7926,16.2276,3.0383,-5.9365,-6.4790,9.8080,-1.3562,-6.8526,-7.3239,7.1988,-11.6582
2195.3125,2.4851,4.0942,-1.7617,-7.3156,-8.8887,-3.0846,-8.9364,-9.9713,8.8521,17.0355,4.8687,-9.7739,-9.9560,4.8573,-1.8218,-7.2439,-9.3998,2.8169,-13.9526
2199.2188,6.7392,4.3876,-5.0781,-9.6845,-13.1281,0.4402,-4.0039,-9.7976,11.9825,18.2781,7.4193,-13.3050,-13.0006,-1.6359,-0.1398,-5.6825,-12.0958,-1.3972,-17.4446
2203.1250,11.4091,3.1775,-6.6075,-9.1111,-15.7904,1.7027,3.0337,-6.6230,15.8467,21.0231,11.2179,-16.1095,-13.2751,-5.6676,4.7009,-4.7405,-12.7163,-2.0549,-18.4529
2207.0312,15.2509,-0.1098,-4.5742,-3.4367,-13.1081,-0.1289,10.9727,1.4944,19.4885,25.0917,15.8622,-17.7204,-9.1944,-4.3466,11.6921,-6.2578,-9.2892,1.9153,-14.4037
2210.9375,17.3676,-4.9340,0.3964,6.2158,-4.0863,-4.0209,17.1439,13.1244,21.9694,28.7250,19.9337,-17.7447,-1.0964,1.7320,18.0921,-9.9911,-2.2154,8.4902,-5.8116
2214.8438,17.6883,-9.7685,5.7630,16.0309,8.6916,-8.0872,19.1848,24.1537,22.9067,29.5985,21.8011,-16.1079,8.6620,8.6012,21.0835,-13.8607,5.7482,13.9163,3.9054
2218.7500,16.8824,-12.9331,8.8904,22.0225,20.3694,-10.9926,16.9645,30.5290,22.5196,26.5071,20.7498,-13.2659,16.8466,11.6027,19.6252,-15.5753,11.2382,15.2283,10.6748
2222.6562,15.7909,-13.5973,8.8547,22.6432,26.5269,-12.6335,12.9525,30.9899,21.2505,20.4018,17.5550,-10.1550,21.0708,8.6997,15.0967,-14.3599,12.5002,12.1139,12.4508
2226.5625,14.8249,-12.2617,6.9378,19.5799,25.6941,-13.6901,10.5093,27.7076,19.3811,13.8621,14.0114,-7.7939,21.0432,1.9266,10.2384,-11.4673,10.4376,6.8511,10.4088
2230.4688,13.7804,-10.3780,5.5295,16.2234,20.1463,-14.6103,11.3339,24.3771,17.0042,9.2949,11.7495,-6.7241,18.5550,-4.1494,7.2238,-9.1264,7.7488,2.4966,7.8842
2234.3750,12.1736,-9.3753,6.3461,15.0495,14.4902,-15.0171,14.1328,23.2989,14.3291,7.1934,11.2397,-6.6608,16.2373,-5.8081,6.3713,-8.7993,6.8574,0.7593,7.9525
2238.2812,9.7859,-9.7730,9.3128,15.9123,12.9101,-14.0881,15.6753,23.7428,11.9440,5.8277,11.7393,-6.6445,15.9160,-2.8501,6.4514,-10.1197,8.2292,1.1099,11.4609
2242.1875,6.9674,-10.9765,12.8631,16.4626,16.7731,-11.5650,13.4721,22.8175,10.6742,2.6665,12.1686,-5.6476,17.6323,1.4209,6.2156,-11.3061,10.3168,1.6240,16.8368
2246.0938,4.4630,-11.8445,15.2806,14.2319,24.0452,-8.4589,7.9337,18.0565,11.0465,-3.5167,12.1502,-3.2554,19.9235,2.8224,5.7626,-10.6713,11.0777,0.7191,21.5799
2250.0000,2.9220,-11.5724,15.9593,8.6856,30.8022,-6.7302,2.2383,9.6002,12.7799,-11.4664,12.3272,0.0407,21.0832,-0.5267,6.5166,-8.0124,9.7983,-1.6488,24.1312
2253.9062,2.4919,-10.2500,15.6368,1.6776,33.7812,-8.0461,-0.0178,0.2520,14.7782,-18.1358,13.6947,3.1290,20.4621,-6.8637,9.7960,-4.8099,7.7597,-4.1891,24.7092
2257.8125,2.8067,-8.7298,15.5545,-3.9393,32.2935,-12.4902,2.5023,-6.5627,15.7397,-20.7597,16.5323,4.9295,18.8783,-12.1936,15.2052,-3.1192,7.2221,-5.5531,24.6672
2261.7188,3.3425,-7.9606,16.3567,-6.3692,28.3102,-18.1916,8.0100,-9.2423,14.9834,-18.7808,19.8847,4.9574,17.8737,-13.2634,20.3175,-4.0353,9.5329,-5.5270,25.1185
2265.6250,3.8191,-8.2954,17.6617,-5.9979,24.7917,-22.2102,13.1718,-8.9335,12.8796,-14.2117,22.0966,3.4534,18.4022,-9.8084,22.1101,-6.8901,13.8497,-5.1502,26.0335
2269.5312,4.3096,-9.2583,18.5866,-4.8232,23.5094,-22.1425,15.7532,-8.3120,10.5395,-10.2081,22.0278,1.0948,19.9521,-4.4726,19.1612,-9.7293,17.4974,-5.7238,26.4685
2273.4375,4.9821,-9.8871,18.6717,-4.7830,23.8890,-17.4534,16.1184,-9.3348,8.9875,-8.9435,19.9755,-1.4015,20.7873,-0.6458,12.9095,-10.6539,17.7388,-7.5904,25.5802
2277.3438,5.7199,-9.3689,18.3417,-6.3468,23.6289,-9.7618,16.4134,-11.8165,8.4419,-10.3272,17.5377,-3.4735,19.1637,0.0147,6.9193,-9.0319,13.6742,-9.7058,23.4745
2281.2500,5.9782,-7.5283,18.4944,-8.3980,20.5662,-1.9969,18.2606,-13.8885,8.2434,-12.3954,16.4912,-4.6636,14.6364,-1.4671,4.5984,-5.7745,6.8941,-10.3357,21.1807
2285.1562,5.0511,-4.8850,19.5938,-9.3338,14.3955,3.0322,21.0440,-13.8008,7.4546,-12.9294,17.5520,-4.5505,8.4861,-2.5012,7.0024,-2.6077,0.4262,-8.3041,19.8437
2289.0625,2.5853,-2.3121,21.0820,-8.3904,6.9953,3.8991,22.3080,-11.4769,5.6256,-11.0212,19.9676,-2.8982,2.9220,-1.0611,12.2979,-0.9399,-3.2417,-3.8360,19.8643
2292.9688,-1.0349,-0.5620,21.6423,-6.1554,1.1605,1.1200,19.9301,-8.5477,3.1081,-7.4934,22.2106,0.0243,-0.3729,2.8601,17.2023,-1.0871,-3.6479,1.5628,20.6867
2296.8750,-4.7448,0.0603,20.1156,-3.9868,-1.2939,-3.1347,14.1680,-6.9352,0.6900,-4.0515,23.1548,3.2845,-1.2853,7.4660,19.2686,-2.2448,-2.3285,5.9799,21.3222
2300.7812,-7.3002,-0.2450,16.3295,-2.9410,-0.6649,-6.0040,7.7679,-7.2554,-1.1082,-1.9798,22.7733,5.6116,-1.1369,10.6863,18.3390,-3.0712,-1.3762,8.0191,21.0909
2304.6875,-7.9189,-0.9285,11.2021,-3.0944,1.0667,-5.2155,3.9791,-8.3821,-2.4595,-1.3955,21.8548,6.1519,-1.4872,11.7301,16.2290,-2.4453,-1.7043,7.2047,19.9608
2308.5938,-6.6641,-1.3311,6.1087,-3.7027,1.8357,-0.2031,4.1122,-8.4698,-4.0083,-1.4875,21.0903,5.1526,-2.8137,11.5163,15.0733,-0.0101,-2.3204,3.8372,18.3026
2312.5000,-4.3544,-0.9142,2.0842,-3.9141,1.0233,7.4514,6.6723,-6.5109,-6.1916,-1.3540,20.3899,3.9711,-4.1149,11.8037,15.6914,3.6721,-1.1546,-1.3174,16.4063
2316.4062,-2.0932,0.5567,-0.5202,-3.3813,-0.2297,14.6086,8.7574,-3.1161,-8.7011,-0.6847,19.0272,4.2252,-3.7776,13.8130,17.1503,7.3434,3.1646,-7.1764,14.2541
2320.3125,-0.7294,2.8984,-1.8023,-2.3297,-0.1013,18.0982,8.4956,0.0680,-10.5852,0.1831,16.4253,6.5810,-1.0437,17.3815,17.6646,9.5679,9.9141,-12.3769,11.7154
2324.2188,-0.5487,5.5212,-1.9126,-1.1701,2.3465,16.4909,6.4476,1.7376,-10.9557,0.7087,12.8021,10.0691,3.1025,21.1629,15.9609,9.3927,16.3492,-15.4993,8.8888
2328.1250,-1.2978,7.6150,-0.9874,-0.0883,6.3776,11.0844,4.8391,1.9399,-9.7375,0.6031,9.0279,12.5466,6.4051,23.5816,12.0301,6.8870,19.3004,-15.6111,6.1795
2332.0312,-2.4262,8.4857,0.5415,1.0497,10.1886,5.3575,5.3768,1.9456,-7.8160,-0.0608,5.7966,12.1056,6.8939,23.8030,6.8396,3.2270,17.2392,-12.8372,4.0001
2335.9375,-3.3480,7.8969,1.7200,2.5029,12.4015,3.0313,7.6082,3.2030,-6.4042,-1.0262,2.9044,8.4677,4.3648,22.1189,1.4617,0.1427,11.3613,-8.4304,2.3917
2339.8438,-3.5951,6.2186,1.4205,4.4409,13.2052,5.8390,9.2695,6.2904,-6.0889,-2.0080,-0.5948,3.3142,0.6018,19.6392,-3.5520,-1.0711,4.8660,-4.1043,0.9761
2343.7500,-2.8764,4.2683,-0.7893,6.9009,14.1763,12.4366,8.2976,10.6504,-6.3150,-2.6356,-5.3568,-0.7750,-1.9189,17.6056,-8.0902,-0.3853,0.8625,-1.0048,-0.6677
2347.6562,-1.1217,2.9153,-3.9504,9.8382,16.8648,19.2372,4.7140,15.1396,-5.7612,-2.3328,-10.6996,-2.0668,-1.9173,16.7514,-11.9422,0.9133,0.3250,0.9020,-2.5501
2351.5625,1.4542,2.6765,-5.9701,13.0712,21.2547,22.6807,0.6966,18.7733,-3.3688,-0.4374,-14.5698,-0.8440,-0.3503,16.9899,-14.4418,1.1096,1.5441,2.4957,-4.2138
2355.4688,4.3310,3.5389,-4.9324,16.0919,25.3687,21.4428,-1.2473,21.0405,0.7485,3.3488,-14.7892,0.8769,0.2507,17.5023,-14.7083,-0.6610,1.4920,4.4587,-5.1955
2359.3750,6.8060,5.0804,-0.6196,17.9885,26.4403,17.0966,-0.4142,21.7176,5.2357,8.4956,-10.7379,0.8834,-2.2851,17.1606,-12.3052,-3.6756,-1.8440,6.4211,-5.5995
2363.2812,8.2840,6.7547,4.9835,17.7716,22.8640,12.8123,1.5376,20.6288,8.3694,13.6448,-4.1201,-1.5902,-7.9962,15.1252,-7.7292,-6.0602,-7.8430,7.1212,-6.1838
2367.1875,8.6060,8.1116,8.8028,15.0657,15.4955,11.0627,2.1252,17.7762,9.2570,17.2663,1.9499,-5.3557,-14.5430,11.3648,-2.2773,-6.1807,-13.5579,5.5795,-7.7362
2371.0938,8.2066,8.8265,8.7677,10.6898,7.3214,11.9784,0.3525,13.7537,8.4849,18.6012,5.0057,-8.2794,-18.7240,6.8036,2.6316,-3.9945,-15.7771,2.3472,-10.1818
2375.0000,7.9500,8.6036,5.3718,6.5416,1.7069,13.4747,-2.2356,9.9088,7.7314,18.1883,4.9223,-9.0203,-18.6499,2.9294,6.1628,-1.3070,-13.3588,-0.3373,-12.2259
2378.9062,8.6864,7.1501,1.4494,4.6348,0.4625,12.9463,-2.7312,7.8282,8.6192,17.5021,3.9189,-8.1453,-14.9602,1.0036,8.3018,-0.6445,-8.1038,0.1269,-12.0016
2382.8125,10.7668,4.3398,0.2173,5.8374,3.0555,9.2060,0.6767,8.3557,11.6232,17.8952,4.8075,-7.7384,-10.1875,1.3383,9.5419,-3.5026,-3.4731,4.7330,-8.3810
2386.7188,13.8061,0.4776,2.9776,9.2329,7.3997,3.2515,7.0371,10.9043,15.7861,19.6071,8.7886,-9.7845,-6.7816,3.1444,10.3805,-9.2420,-2.0553,11.7609,-1.9768
2390.6250,16.8474,-3.5972,8.1978,12.6785,11.4921,-2.5937,13.2046,13.7376,19.3863,21.5892,14.4795,-14.5486,-5.3140,5.1062,11.0437,-15.4525,-3.6547,17.5521,5.0160
2394.5312,18.8407,-6.7755,12.6683,14.2560,14.6281,-6.3842,16.1891,15.1458,21.0341,22.2752,18.9236,-20.1830,-4.2143,6.3027,11.5582,-19.5175,-5.4458,18.7977,10.1385
2398.4375,19.1606,-8.2474,13.8567,13.5734,17.3790,-7.7623,15.3375,14.6452,20.4268,20.6977,19.7933,-23.8613,-1.1801,6.7897,11.9408,-20.2246,-4.1044,14.7722,12.2225
2402.3438,17.8763,-8.0225,11.6744,11.9165,20.5486,-7.8421,12.5597,13.2174,18.3210,17.0963,17.0885,-23.6013,4.8896,7.3789,12.2255,-18.2779,1.6809,7.8788,12.0309
2406.2500,15.6514,-6.9910,8.3610,11.0997,24.0965,-8.0314,10.4928,12.3446,15.8811,12.5990,13.0506,-19.4553,12.9557,8.7738,12.3093,-15.4501,10.2194,2.0600,11.5111
2410.1562,13.3718,-6.3942,6.6749,11.8900,26.9408,-8.8499,10.2516,12.6099,13.9608,8.3071,10.4292,-13.2752,20.5868,10.7660,11.8776,-13.1525,18.1065,0.1902,12.2595
2414.0625,11.7325,-7.0078,7.8634,13.2511,27.7596,-9.6862,10.7138,13.0465,12.8046,4.5644,10.5029,-7.3462,25.7437,12.1923,10.6412,-11.5689,22.7929,2.2956,14.3938
2417.9688,10.9965,-8.6079,10.9560,13.0446,26.0840,-9.5726,9.9010,11.8488,12.2327,0.9711,12.3740,-2.9779,28.1606,11.7656,8.7800,-9.9371,24.4406,5.8003,16.6678
2421.8750,11.0004,-10.1386,13.7782,9.6789,22.7791,-8.2067,7.1468,7.9218,11.9912,-2.9585,13.9762,-0.0592,29.2617,9.1639,7.1634,-7.5729,25.6146,7.4787,17.6446
2425.7812,11.3407,-10.5080,14.7053,3.4373,19.5561,-6.3029,4.0412,2.0047,11.9063,-7.1339,13.8618,2.2557,30.7592,5.4995,6.9887,-4.6556,29.0507,5.5923,16.9101
2429.6875,11.6125,-9.4455,13.6974,-3.5576,17.9350,-4.9972,3.2201,-3.6061,11.7741,-10.8145,12.2894,4.4532,33.1283,2.7291,8.9496,-2.0910,35.2540,0.7027,15.3338
2433.5938,11.5910,-7.7583,11.9107,-8.7317,18.4538,-4.8710,6.0052,-6.5957,11.2279,-13.1587,10.8102,6.1183,35.2083,2.3838,12.5518,-0.6415,41.8391,-5.2042,14.2328
2437.5000,11.3092,-6.7364,10.4581,-10.7483,20.6134,-5.4697,10.9860,-6.2575,9.8633,-13.8766,10.8398,6.3578,35.2182,4.5404,16.2226,-0.1772,45.1724,-10.3420,14.2273
2441.4062,11.0239,-7.1072,9.5512,-10.2427,23.4055,-5.7329,14.9029,-3.9487,7.6220,-13.3987,12.5006,4.7573,32.3084,7.7787,18.3044,0.2266,43.0686,-14.1227,14.7980
2445.3125,11.0806,-8.3286,8.7689,-9.1194,25.8597,-4.9352,15.2243,-2.0397,5.1064,-12.4403,14.6911,2.0050,27.3523,10.1256,18.2717,1.4118,36.4534,-16.8725,14.9031
2449.2188,11.7113,-8.8190,8.0439,-9.0438,27.2013,-3.2842,12.2996,-2.2095,3.4484,-11.4004,16.2199,-0.3814,22.3272,10.2609,17.2101,3.2911,28.6953,-18.7865,14.0593
2453.1250,12.8465,-7.0439,8.2334,-10.3179,26.7129,-1.6346,9.2365,-4.4053,3.6721,-10.1627,16.9149,-1.0314,18.8061,8.1366,17.0693,4.8507,23.1167,-19.2611,12.8810
2457.0312,14.0542,-2.7081,10.5306,-11.9292,23.7314,-0.5723,9.5115,-7.1837,5.9371,-8.4622,17.6946,0.3621,16.7961,4.6919,19.1532,5.0687,20.6067,-17.3043,12.5650
2460.9375,14.6920,2.8402,15.1319,-12.5726,18.0471,0.2849,14.2160,-9.0113,9.2350,-6.4129,19.5537,2.8869,14.8556,1.0613,22.9799,3.9519,19.1603,-12.6579,13.7677
2464.8438,14.2327,7.3575,20.4384,-11.7134,10.4522,2.0699,21.1704,-9.3831,11.8481,-4.6135,22.4222,5.1015,11.3633,-2.0244,26.4571,2.7190,15.6582,-6.5435,15.8958
2468.7500,12.5895,9.1356,23.7633,-9.8448,2.8443,5.6244,26.6060,-8.8948,12.3276,-3.6489,24.9896,6.0088,5.8845,-4.2625,27.3426,2.8598,8.4649,-1.2099,17.4963
2472.6562,10.2147,8.1175,23.2276,-7.8683,-2.4970,10.4853,28.0094,-8.3739,10.3401,-3.4234,25.7287,5.5962,-0.4635,-5.4434,24.9372,4.8131,-1.1748,1.5024,17.4614
2476.5625,7.8642,5.9040,19.3575,-6.2749,-4.1722,14.8317,25.8134,-7.9716,6.7975,-3.0149,24.2563,4.6242,-5.9000,-5.2839,20.7124,7.4251,-9.9867,1.4559,16.0057
2480.4688,6.1463,4.6466,14.9428,-4.8923,-2.6196,16.6000,22.6485,-7.0694,3.1898,-1.3363,21.8058,3.9474,-9.3504,-3.7075,17.3410,8.7660,-15.0503,0.2825,14.5235
2484.3750,5.1494,5.6186,13.0628,-3.3595,0.0113,15.0074,20.9352,-5.0370,0.6136,1.8536,20.3071,3.9484,-11.1660,-1.2988,16.8166,7.7304,-15.8485,0.1016,14.3872
2488.2812,4.4169,8.4708,14.7502,-1.7745,1.1173,11.3126,20.9418,-2.0654,-0.8182,5.4679,20.7793,4.4634,-12.6420,0.6447,19.0618,5.1046,-14.4460,1.8842,15.7028
2492.1875,3.3043,11.6426,18.1924,-0.7965,-0.7539,8.1396,20.9191,0.7753,-1.8195,7.6732,22.3817,5.1158,-14.7881,0.7614,22.0627,3.1287,-13.7533,4.7576,17.1331
2496.0938,1.4644,13.5398,20.1943,-1.0200,-5.0296,7.7588,19.0496,2.3818,-3.2322,7.1980,22.9730,5.6669,-17.4037,-1.3849,23.3970,3.7883,-15.2944,6.7846,17.0101
2500.0000,-0.8986,13.5619,18.7623,-2.1806,-9.5294,10.5275,15.3530,2.6264,-5.3684,4.3473,20.7749,6.0799,-19.2153,-4.7718,21.9635,7.1649,-18.1881,6.5450,14.8229
2503.9062,-3.1980,12.2550,14.6766,-3.0007,-11.8284,14.6145,11.7696,2.5820,-7.8711,0.8543,15.7906,6.3419,-18.9304,-7.4108,18.5992,11.2151,-20.0274,4.2207,11.7727
2507.8125,-4.9143,10.6021,10.7013,-1.9818,-10.6122,17.2146,10.3108,3.6745,-10.1047,-1.3882,9.8082,6.3346,-16.3052,-7.6522,15.1830,13.2442,-18.8484,1.3350,9.8291
2511.7188,-5.9520,9.1372,9.0607,1.4052,-6.2005,16.3946,10.9563,6.4350,-11.6603,-1.7197,4.9913,5.9611,-12.3451,-5.3790,13.0242,11.9629,-14.6137,-0.5499,10.0061
2515.6250,-6.6013,7.6469,9.3359,6.1177,-0.1194,12.2896,11.2878,9.9292,-12.5200,-1.0719,2.2441,5.4191,-8.4974,-2.1491,11.8739,8.4958,-9.1297,-1.0190,11.3244
2519.5312,-7.1364,5.6592,8.6744,10.1167,5.7528,6.8822,8.3692,12.4048,-12.7880,-0.9693,0.7168,5.2878,-5.5351,-0.0995,10.3360,5.5099,-4.5949,-0.8690,11.4321
2523.4375,-7.4169,3.2089,4.2882,11.7605,9.8350,2.6237,1.3754,12.6624,-12.3247,-2.0042,-1.1670,6.2162,-3.0626,-0.3848,7.2843,5.1339,-2.0040,-1.0688,8.4955
2527.3438,-6.8990,1.1119,-3.7990,10.9483,11.0781,0.9266,-7.3145,11.0099,-10.7265,-3.1301,-4.0974,8.3728,-0.0353,-2.3170,3.0481,7.3187,-0.6299,-1.6210,2.8451
2531.2500,-5.1388,0.4051,-12.1680,9.0920,9.0405,1.5260,-13.6578,8.9802,-7.7750,-2.4825,-7.1325,11.1113,4.1608,-3.8659,-0.6759,9.9479,1.1280,-1.4193,-3.0362
2535.1562,-2.4207,1.3680,-16.3206,7.9172,4.0914,2.9872,-15.0127,8.0304,-3.9935,0.8671,-8.5159,13.2079,8.9694,-3.1521,-2.1656,10.5914,4.3071,0.6987,-6.2952
2539.0625,0.0577,2.9810,-14.2087,8.0482,-2.3598,3.8098,-12.2532,8.3069,-0.7441,5.7126,-7.3675,13.5938,12.8717,0.1832,-1.1753,8.4713,8.5038,4.6187,-5.9046
2542.9688,0.7504,3.4012,-8.1307,8.5179,-8.0607,3.2727,-9.1337,8.5236,0.4151,9.2358,-4.7260,12.0676,14.3831,4.7295,0.6879,5.0423,12.1674,8.5939,-3.5021
2546.8750,-1.1845,1.2291,-3.3011,7.6017,-10.8377,1.5243,-9.3119,7.0631,-1.2038,9.0513,-2.9086,9.4347,13.0735,8.3124,1.1316,2.7361,13.7447,10.3482,-2.1383
2550.7812,-5.0634,-3.3547,-4.0195,4.2964,-9.8894,-0.9124,-13.3802,3.3804,-4.6801,5.2484,-3.5825,6.9349,9.8689,9.4562,-0.9405,2.9215,12.7676,8.8617,-3.8710
2554.6875,-8.7559,-8.4976,-10.3556,-0.7591,-6.5293,-3.6444,-18.3010,-1.4689,-7.7081,0.7384,-6.1272,5.3732,6.4742,8.2373,-4.3029,4.7711,10.1274,5.3786,-8.1029
2558.5938,-9.7614,-11.7994,-17.9724,-5.6614,-3.5845,-6.4844,-19.7295,-5.6147,-7.7915,-0.5681,-7.7550,4.6103,4.3967,6.0024,-6.0001,5.9668,7.4483,2.7043,-11.9951
2562.5000,-6.6654,-11.8987,-21.3012,-8.5994,-3.5751,-9.1491,-15.3956,-7.8067,-3.7065,3.4731,-5.4862,3.7880,4.2563,4.3134,-3.3376,4.6539,6.0932,3.2146,-12.6444
2566.4062,-0.0330,-9.3774,-17.6503,-9.0882,-6.8413,-11.0151,-6.8812,-8.2927,3.7153,11.5829,1.4708,2.0842,5.7439,3.9849,4.1242,1.0171,6.4750,7.0796,-9.3008
2570.3125,7.8719,-6.3205,-9.0919,-8.1057,-11.0592,-11.3103,1.5526,-8.4274,12.0235,19.8125,10.8158,-0.6149,8.0678,4.8704,14.0156,-2.8377,8.0198,12.1080,-3.8824
2574.2188,14.3777,-4.8483,-0.7253,-7.0890,-12.7101,-9.6898,6.0748,-9.3793,18.5341,24.2101,18.5197,-3.6493,10.4509,6.3635,22.4623,-4.6220,9.6616,15.3702,0.5775
2578.1250,17.8655,-5.6863,3.2426,-6.6798,-9.5987,-6.7282,5.8431,-11.0616,21.7711,23.4468,21.4905,-6.1466,12.3655,8.0332,26.3491,-3.8069,10.4952,15.3547,2.2617
2582.0312,18.4674,-7.7854,2.5030,-6.2860,-2.5913,-3.8439,3.1002,-12.2028,22.0600,19.4720,19.5488,-7.7235,13.5224,9.8237,25.0033,-2.1697,10.2396,12.9801,1.8047
2585.9375,17.6255,-9.2035,0.4604,-4.8025,4.8222,-2.5739,0.9733,-11.4844,20.9745,15.7775,15.2669,-8.7495,13.8261,11.7453,20.2456,-2.4590,9.3463,10.6887,1.5063
2589.8438,16.9170,-8.5447,1.1804,-1.8382,8.9625,-3.6416,0.9653,-8.7601,20.1065,14.6565,11.8903,-9.9686,13.4214,13.4731,14.9522,-6.2012,8.7438,10.3687,3.2630
2593.7500,17.0094,-5.8966,6.0321,1.6409,8.6672,-6.4622,2.2055,-5.3023,20.0341,15.5609,11.0188,-11.7998,12.7426,14.3296,11.2647,-12.3632,9.3255,11.7706,6.9809
2597.6562,17.4234,-2.6568,12.7033,3.8503,6.2385,-9.4544,2.8904,-2.8504,20.1414,15.7413,11.8108,-13.8803,12.3978,13.7329,9.6726,-17.9121,11.3971,12.6717,10.7659
2601.5625,17.1468,-0.4890,17.2356,3.5167,5.8546,-10.9695,2.4365,-2.2474,19.3000,12.5583,12.1628,-15.2067,12.8752,11.7268,9.3907,-19.8477,14.3977,10.6442,12.6674
2605.4688,15.5375,-0.2417,17.2818,0.9315,10.5523,-10.2310,2.3193,-2.7913,16.8349,5.5994,10.7247,-14.7595,14.2809,9.1002,9.4559,-17.1860,17.1511,5.0190,12.4461
2609.3750,12.8204,-1.5810,13.9051,-2.1338,19.9741,-7.6969,4.8082,-2.8263,13.0693,-3.0213,8.0209,-12.1543,16.3453,6.9369,9.5411,-11.4824,18.6134,-2.4830,11.8447
2613.2812,9.8703,-3.4617,10.5718,-3.6118,30.5080,-4.6804,10.7184,-1.0719,9.1102,-10.3111,5.8176,-7.8981,18.7006,5.9134,9.8963,-5.6500,18.6695,-8.9096,13.1249
2617.1875,7.5410,-4.9395,10.3260,-2.5293,37.6701,-2.5540,18.2204,2.3853,6.1027,-14.5982,5.4093,-3.1528,21.1463,5.8623,10.6635,-2.0742,18.3422,-12.0887,17.1032
2621.0938,6.1049,-5.6711,13.5306,0.4214,38.9499,-2.0719,23.8750,6.1964,4.5246,-16.5332,6.3979,0.7684,23.5951,5.8985,11.3471,-1.3980,19.0815,-11.9559,22.3439
2625.0000,5.2169,-5.8232,17.9208,3.4833,35.0975,-3.1672,25.1488,8.7862,4.0029,-18.1771,7.0633,2.8687,25.7075,4.9666,11.0382,-2.6612,21.4980,-10.2804,26.1913
2628.9062,4.3603,-5.6355,20.6984,5.0659,29.1068,-5.1976,22.3525,9.4363,3.7208,-21.0117,6.0051,2.7517,26.6084,2.4049,9.2610,-4.3736,24.4942,-9.1514,26.7947
2632.8125,3.3655,-5.1122,20.7498,4.6668,23.8915,-7.3427,18.3590,8.5862,3.0634,-24.5295,3.6057,0.7403,25.1415,-1.7975,6.6942,-5.5165,25.6548,-9.4875,24.4669
2636.7188,2.5713,-4.1042,19.1546,2.8958,20.4985,-8.8754,16.2832,7.2467,2.0203,-26.5314,1.9849,-2.1360,20.6968,-7.0639,5.0331,-5.7794,22.8969,-10.6692,21.2978
2640.6250,2.5134,-2.6352,17.7648,0.7764,18.0630,-9.2559,16.9994,6.1514,1.0778,-24.8696,3.3828,-4.3620,14.0459,-12.4237,5.9300,-5.1510,16.3121,-11.3968,19.4049
2644.5312,3.4004,-1.1011,17.3169,-1.0024,15.2058,-8.1922,18.5304,5.3857,0.7146,-19.2467,8.2583,-4.4633,7.3903,-16.6943,9.7324,-3.5308,8.7264,-10.9061,19.3056
2648.4375,4.7856,-0.1138,16.8236,-2.3243,11.4705,-5.7953,17.8151,4.6884,0.8915,-11.6805,14.6713,-1.7501,3.2787,-18.7105,14.9958,-0.8453,4.2415,-9.5154,19.7299
2652.3438,5.6867,-0.1062,14.7151,-3.3701,7.5640,-2.7535,13.4121,3.9691,0.9177,-5.3093,19.4989,3.1073,2.9354,-17.7219,19.2403,2.4990,5.4999,-8.1685,18.9324
2656.2500,5.0888,-1.0347,10.5667,-4.2645,4.3588,-0.2838,6.9296,3.4318,-0.1871,-2.4499,20.5648,8.1481,5.1711,-13.8852,20.5120,5.4444,11.5479,-7.5242,16.2967
2660.1562,2.5252,-2.4107,5.7354,-5.0377,1.7546,0.3243,2.0052,3.1629,-3.0509,-3.2916,18.0404,11.0102,6.8307,-8.5028,18.6871,6.8008,17.9916,-7.4581,12.8319
2664.0625,-1.5923,-3.5965,2.2806,-5.8620,-1.4061,-1.5408,1.6292,2.6643,-7.4358,-6.0306,14.0957,10.2433,4.7033,-3.6338,15.5919,6.1692,19.6237,-7.3672,10.1755
2667.9688,-6.0606,-4.0860,1.1670,-7.1693,-6.1791,-5.1951,5.9152,0.9570,-12.1931,-8.1683,11.1812,6.2382,-2.2980,-1.0779,13.8243,4.4724,13.8678,-6.8929,9.0428
2671.8750,-9.3450,-3.5728,1.4569,-9.3562,-12.1333,-8.6594,12.0271,-2.6298,-15.7527,-7.9686,10.3599,1.0934,-12.2134,-1.2792,15.0568,3.4956,2.6462,-6.3133,8.5472
2675.7812,-10.2141,-1.8660,1.3086,-12.2442,-17.0797,-9.4623,16.2447,-7.5887,-16.8949,-5.1684,10.9372,-2.5921,-21.1054,-2.9344,18.9434,4.6366,-8.7405,-6.2172,7.0347
2679.6875,-8.2916,1.1125,-0.0946,-14.8358,-18.3842,-5.9196,16.5088,-12.1335,-15.3766,-0.7359,11.4814,-3.2497,-25.4605,-3.7294,23.3224,7.7980,-15.0340,-6.7907,3.7174
2683.5938,-4.2884,5.1267,-1.5196,-15.7602,-14.9692,1.8038,13.5204,-14.1815,-12.0596,3.8730,11.1827,-1.1849,-24.2925,-1.8384,25.5241,11.3398,-14.3832,-7.4466,-0.3626
2687.5000,0.2266,9.3894,-0.6804,-14.2154,-8.4163,11.5073,9.7186,-12.8076,-8.4655,7.3693,10.3333,1.8178,-19.5176,2.8075,23.8997,13.2102,-9.3056,-7.2230,-2.9763
2691.4062,3.4792,12.6319,3.4471,-10.6758,-2.1744,19.8405,7.1414,-9.0434,-6.0080,8.9379,9.6045,3.8036,-14.4069,8.4142,18.6259,12.4133,-4.6260,-5.6422,-2.5137
2695.3125,4.3039,13.6423,9.0365,-6.6894,0.6794,23.8442,5.9382,-5.2821,-5.3313,8.3244,8.9265,3.9091,-11.2963,12.5236,11.3942,9.6672,-3.9441,-3.2346,0.5429
2699.2188,2.7015,12.0223,12.1765,-3.7758,-0.4769,22.3424,4.6134,-3.6096,-6.1114,5.8904,7.1396,2.7059,-10.2060,13.7041,4.3286,6.7388,-7.2034,-1.1714,3.7778
2703.1250,-0.2060,8.6068,9.6861,-2.2242,-3.4131,16.4555,1.6063,-4.2698,-7.3917,2.6089,2.8734,1.4914,-9.2743,12.5199,-1.1106,5.0079,-11.0424,-0.2412,4.6046
2707.0312,-2.8560,5.1283,1.8242,-0.7935,-4.6319,8.9883,-3.2056,-5.4451,-8.2113,-0.2057,-4.0491,1.1786,-6.5370,11.0700,-4.6105,4.4406,-11.5291,-0.0573,2.2567
2710.9375,-4.1814,3.2364,-7.4090,2.3194,-1.7839,3.0514,-8.2860,-4.5698,-8.1329,-1.4905,-11.9470,1.6828,-1.6298,11.4306,-6.7401,3.8031,-7.1629,0.7251,-1.6164
2714.8438,-4.2062,3.5057,-12.8748,7.8967,4.7962,0.6409,-11.5581,-0.2221,-7.3776,-1.0474,-18.0792,2.2155,3.8490,14.1386,-8.2740,1.9126,0.0516,3.2308,-4.2622
2718.7500,-3.8858,5.1392,-11.9485,14.7367,12.4215,1.8651,-11.8465,6.7981,-6.5458,0.3179,-20.4011,2.1290,7.4969,17.8119,-9.5981,-1.1497,6.1248,7.1542,-4.0110
2722.6562,-4.2812,6.5854,-6.4175,20.1594,17.8709,5.1168,-9.5008,13.9775,-6.1546,1.3749,-18.9246,1.5271,7.8292,20.1456,-10.5141,-3.9130,7.9376,10.5988,-1.5733
2726.5625,-5.6447,6.6110,-1.1097,21.7273,19.3315,8.0050,-5.8659,18.7527,-6.2973,1.4298,-15.5763,1.1204,5.2739,19.5175,-10.4473,-4.6266,5.2907,11.2767,0.6017
2730.4688,-7.0974,5.0330,-0.2770,18.9512,17.1984,8.5320,-2.2408,20.0691,-6.5948,0.9388,-12.6349,1.4951,1.7943,16.0352,-8.8478,-2.7182,0.7652,8.2718,0.3847
2734.3750,-7.1732,2.6085,-4.5132,13.6996,13.4231,5.9601,0.7396,18.7504,-6.4010,1.2128,-10.9806,2.4865,-0.4492,11.3309,-5.5484,0.5916,-2.2948,3.0196,-2.2282
2738.2812,-4.8705,0.2610,-10.5329,8.9738,10.1235,1.0245,2.9201,16.5675,-5.0921,3.3535,-9.5478,3.2453,-0.3569,7.3622,-0.9344,3.0467,-2.0506,-1.3399,-5.0282
2742.1875,-0.4550,-1.6643,-13.8615,6.9387,8.4933,-4.5279,4.0752,14.8778,-2.2917,7.2239,-6.4084,2.9569,1.7580,5.1608,4.1160,2.9091,0.9294,-1.8793,-5.2995
2746.0938,4.5906,-3.4984,-12.2266,7.6484,8.5824,-8.8094,3.7424,13.9099,2.0064,11.3173,-0.6010,1.5732,4.7596,4.4099,8.4987,0.1090,4.5628,2.2484,-1.9645
2750.0000,8.4604,-5.6772,-7.0072,9.3486,9.7737,-10.6602,1.7196,13.1130,7.3867,13.7209,6.7734,-0.1270,7.5832,4.0227,11.2821,-3.8699,7.0161,9.2986,3.5161
2753.9062,10.1375,-8.0662,-1.7750,10.0209,11.3728,-10.1249,-1.2575,12.0700,13.0306,13.4899,13.0769,-1.2557,9.7254,3.1466,12.0916,-7.2120,7.9139,16.0899,8.1604
2757.8125,9.9497,-9.8357,0.6934,8.9165,12.8833,-8.3252,-3.4613,11.0639,17.8731,11.3704,15.8930,-1.7173,11.1186,1.7837,11.2886,-9.0902,8.2053,19.9527,9.5658
2761.7188,9.2101,-10.0375,0.4439,6.9153,13.9735,-6.7938,-3.0725,10.7904,20.9532,9.2784,14.6852,-2.4730,11.7346,0.6182,9.8099,-10.0586,9.0276,20.1083,7.4716
2765.6250,9.2560,-8.3981,-0.1045,5.5371,14.3967,-6.6005,0.5130,11.5230,21.8757,8.9093,11.1432,-4.8367,11.4059,0.2997,8.7089,-11.2901,10.6174,17.6581,3.6734
2769.5312,10.6049,-5.6239,1.5239,5.5050,14.0299,-7.7343,6.0113,12.5416,21.1258,10.5409,8.0374,-9.2759,10.0325,0.8058,8.6453,-13.3632,12.1207,14.4394,0.5183
2773.4375,12.7933,-2.9220,5.7605,6.0644,12.9400,-9.1022,10.8765,12.4045,19.9559,12.9300,7.4922,-14.6704,7.9065,1.3685,9.6341,-15.6180,12.3366,11.7553,-0.7390
2777.3438,14.9073,-1.1290,10.8325,5.5845,11.3068,-9.1805,12.8988,9.9083,19.7785,14.3289,9.8982,-18.6937,5.7634,0.9626,11.2069,-16.5819,10.7106,9.8795,-0.4781
2781.2500,16.3003,-0.1918,14.4941,2.9040,9.2174,-6.9740,11.6477,4.9740,21.3511,13.7631,14.0662,-19.1533,4.4430,-1.0462,12.8470,-15.0829,7.8067,8.4650,0.0834
2785.1562,16.9282,0.5509,15.9945,-1.7011,6.5758,-2.7174,8.6976,-1.2526,24.2575,11.5557,18.2543,-15.3781,4.4291,-4.5342,14.3536,-11.1537,4.9922,7.2457,0.1770
2789.0625,17.1141,1.5525,16.5480,-6.6917,3.3298,2.1315,6.4802,-7.1539,27.0753,8.7571,21.1765,-8.6868,5.6572,-8.6977,15.8555,-6.0578,3.6679,6.3183,0.1375
2792.9688,17.0512,2.4719,18.0009,-10.3957,-0.1069,5.6449,6.6404,-11.6390,28.1859,6.0716,22.3550,-1.6273,7.7232,-12.4273,17.4869,-1.4971,4.6012,5.8176,0.9654
2796.8750,16.5382,2.4021,21.0032,-12.1476,-2.6765,6.4943,9.1107,-14.6176,26.7327,3.2712,21.8633,3.4500,10.2476,-14.7241,19.0416,1.3421,7.6909,5.4306,3.3133
2800.7812,15.1890,0.7757,24.3769,-12.5475,-3.1051,4.6880,12.5062,-16.6613,23.1014,-0.3869,19.9769,5.5154,13.0240,-15.0060,19.9543,2.2327,12.1221,4.3414,6.8364
2804.6875,12.9087,-1.8482,26.2252,-12.7190,-0.8000,1.5204,15.4016,-18.2369,18.6119,-5.1404,17.1302,5.0275,15.8275,-13.2871,19.6891,1.6785,16.6865,1.7659,10.4386
2808.5938,10.1836,-3.8963,25.7268,-13.2652,3.4437,-1.2199,17.4082,-19.2092,14.6643,-10.0706,14.0861,3.2390,18.1429,-10.2314,18.2354,0.3811,20.1264,-2.3567,13.1151
2812.5000,7.8862,-3.8433,23.9459,-13.8113,7.6222,-2.2639,19.2243,-19.0078,11.9552,-13.5052,11.9013,1.3014,19.2039,-7.0096,16.2692,-1.1067,21.4990,-7.1407,14.6152
2816.4062,6.7179,-1.4318,22.9056,-13.4559,9.6734,-1.4502,21.7212,-17.2489,10.2913,-14.2382,11.4515,-0.1896,18.4505,-4.8922,14.7672,-2.3743,20.5323,-11.2340,15.3940
2820.3125,6.7203,1.9796,23.7651,-11.6637,8.8691,0.4457,24.9096,-14.2096,9.0501,-12.5738,12.7930,-1.0615,16.0572,-4.6743,14.3205,-3.0249,17.7883,-13.6263,16.0183
2824.2188,7.2363,4.3288,25.7704,-8.7812,6.3772,2.4448,27.6805,-10.7183,7.8395,-10.2610,14.9485,-1.2063,12.9966,-6.2404,14.6891,-2.7318,14.3958,-14.1293,16.6608
2828.1250,7.3402,4.3898,26.9501,-5.7450,4.4463,4.0862,28.5427,-7.5572,6.7909,-9.2585,16.4629,-0.4471,10.4201,-8.6114,15.0078,-1.5002,11.3497,-13.1839,17.1487
2832.0312,6.3988,2.7386,25.9237,-3.2893,4.7071,5.6194,26.7574,-4.9089,6.2704,-10.2468,16.4263,1.2566,8.7403,-10.5475,14.5475,0.1736,8.7715,-11.2649,17.4225
2835.9375,4.3677,1.3385,23.1464,-1.4013,6.8494,7.5747,22.9764,-2.3332,6.3105,-12.0621,15.1867,3.5491,7.1602,-11.3617,13.4605,1.5487,5.7190,-8.5039,17.8228
2839.8438,1.6776,2.0182,20.3995,0.4736,8.7413,10.1063,18.9120,0.7162,6.3196,-12.5356,14.1317,5.7295,4.1482,-11.3717,12.8762,2.2197,0.8485,-4.9141,18.7944
2843.7500,-1.1035,5.0180,18.9562,2.6782,7.9969,12.6703,16.3203,4.2977,5.3952,-10.1244,14.6361,7.1644,-1.3746,-11.6224,14.1805,2.5595,-6.4155,-0.9724,20.2269
2847.6562,-3.5350,8.7586,18.1559,4.7694,3.8570,14.3324,16.0526,7.8352,3.0407,-5.0972,16.9727,7.7266,-9.0052,-13.0430,17.9424,3.5440,-15.0528,2.1095,21.1246
2851.5625,-5.3504,11.0321,15.8671,5.7202,-2.0523,14.4891,17.7806,10.5455,-0.2996,0.6056,20.0496,7.8434,-16.8421,-15.6702,23.2756,5.9577,-22.7093,2.8938,20.1126
2855.4688,-6.3932,10.6851,10.6434,4.8097,-6.7077,13.4396,20.4281,12.0609,-3.3708,4.6817,22.1948,8.0670,-22.6094,-18.5569,28.1419,9.5517,-27.0414,0.7722,16.5405
2859.3750,-6.6283,8.4714,3.7206,2.4544,-7.7262,12.3187,22.8514,12.6994,-4.8760,5.9198,22.3546,8.5208,-25.1505,-20.4679,30.4289,12.8851,-27.2803,-3.2648,11.2928
2863.2812,-6.2646,6.4190,-1.1209,0.2083,-4.9525,12.3670,24.2616,13.1439,-4.3288,4.7331,20.7430,8.7297,-25.1668,-20.8251,29.0702,14.1169,-24.8626,-6.9032,6.4947
2867.1875,-5.8146,6.2403,-0.1285,-0.1943,-0.4489,14.0202,24.2412,13.8105,-2.3484,2.5101,18.4393,8.0251,-24.6023,-20.1235,24.4667,12.2497,-22.5657,-7.8289,4.1433
2871.0938,-5.8943,8.0586,7.2564,1.9246,3.0392,16.4710,22.5801,14.4587,-0.1753,0.4527,16.3200,6.2053,-25.0966,-19.4404,18.0059,7.9058,-22.6613,-5.2354,4.6264
2875.0000,-6.7965,10.4323,17.2413,5.6286,3.9325,18.0550,19.2291,14.3927,1.2064,-1.1169,14.2644,3.8660,-26.6704,-19.4018,11.1401,3.0109,-25.3605,-0.4143,6.3098
2878.9062,-8.1534,11.5873,23.7557,8.9420,2.6074,17.2500,14.4222,13.0861,1.6577,-2.5173,11.3297,2.0640,-27.6597,-19.4667,4.7421,-0.4146,-28.6593,4.0553,6.6117
2882.8125,-9.0425,10.8062,22.4473,10.1342,0.6521,13.6543,8.7554,10.6923,1.7536,-3.9277,6.7499,1.5473,-25.9819,-18.1919,-0.8674,-1.4600,-29.7051,5.9647,3.8188
2886.7188,-8.5863,8.8490,13.6663,8.7493,-0.6712,8.3167,3.0124,7.9848,2.0929,-4.8981,0.8842,2.1837,-20.7967,-14.3698,-5.4351,-0.6395,-26.7089,4.8016,-1.7282
2890.6250,-6.6604,7.1293,2.1551,5.6486,-1.4518,3.2170,-2.2063,5.7563,2.6582,-4.6472,-4.7430,3.0914,-13.3147,-8.1783,-8.4295,0.8466,-20.0622,1.8391,-7.9825
2894.5312,-4.1491,6.4083,-6.3495,2.1516,-2.8437,0.2271,-6.7411,4.1775,2.7707,-2.8726,-8.4186,3.3910,-6.1373,-1.3763,-9.2534,2.2186,-11.9319,-0.9641,-12.7690
2898.4375,-2.4625,6.1368,-9.0268,-0.9375,-5.7854,0.1683,-10.7495,2.6767,1.6745,-0.2833,-9.4754,2.9569,-1.6001,3.7390,-7.8717,3.6326,-4.7263,-2.3321,-15.3111
2902.3438,-2.5969,4.9835,-7.4735,-3.6124,-9.8532,2.4619,-14.2719,0.4855,-0.7473,1.7200,-8.7786,2.5128,-0.3097,5.9243,-5.2554,5.6861,0.4011,-2.2791,-16.4924
2906.2500,-4.4143,2.0574,-5.8129,-6.1139,-13.2410,5.4757,-16.8822,-2.5641,-3.7336,2.0408,-8.0449,2.9520,-0.8859,5.9385,-3.1063,8.3925,3.9721,-1.6329,-17.6989
2910.1562,-6.6997,-2.2447,-7.0935,-8.1640,-13.9272,7.2950,-17.8056,-5.6494,-6.0920,0.7518,-8.5120,4.4351,-1.0227,6.0564,-2.8891,10.6099,7.3602,-1.0471,-19.2787
2914.0625,-7.9769,-6.4968,-10.9068,-8.7986,-11.1351,6.5135,-16.4882,-7.3464,-6.9769,-0.9114,-10.0005,6.0418,0.9465,8.4088,-4.8075,10.5646,11.4758,-0.4228,-19.9805
2917.9688,-7.4730,-9.3710,-14.0238,-7.0632,-5.9736,2.7487,-13.1634,-6.5698,-6.3803,-1.4596,-11.0934,6.3298,5.0641,13.3235,-7.5027,7.1826,15.9921,0.7925,-17.9172
2921.8750,-5.5084,-10.6567,-13.3386,-3.0182,-0.7860,-3.2152,-8.8794,-3.3846,-4.9715,-0.2333,-10.2672,4.4004,9.9171,18.9063,-8.7859,1.1902,19.6319,2.7927,-12.3058
2925.7812,-3.0485,-11.2968,-8.5729,1.8677,2.2971,-9.6390,-4.8623,0.9302,-3.4645,2.2114,-7.0773,0.6228,13.6800,22.2294,-6.9762,-4.9902,21.1966,4.9162,-4.5349
2929.6875,-0.8338,-12.4254,-2.5202,5.4302,2.5761,-14.3562,-1.6760,4.6509,-2.0671,4.6924,-2.5021,-3.5924,15.2186,21.3141,-1.9745,-8.6377,20.4957,6.0041,2.4009
2933.5938,1.1718,-14.2611,1.2765,6.2120,1.0027,-15.5505,1.1154,6.6861,-0.4570,6.4177,1.7495,-6.8199,14.5506,16.4917,4.6200,-8.5011,18.4932,5.3609,5.7751
2937.5000,3.5629,-15.8366,1.3941,4.5122,-0.6012,-12.5916,4.4322,7.2069,1.7472,7.5330,4.3638,-8.6418,12.5319,10.1590,10.3842,-5.6628,16.6163,3.4863,4.9304
2941.4062,6.7269,-15.8226,-0.4433,2.2314,-0.6717,-6.5558,8.6741,7.3969,4.4821,8.7474,5.1187,-9.8484,10.1739,5.1113,13.3375,-2.8424,15.7709,1.8841,1.6593
2945.3125,10.2402,-13.7504,-0.9575,1.5647,1.3649,-0.0323,13.0653,8.5264,7.1745,10.4151,4.7263,-11.6604,8.1159,2.6677,12.8334,-2.6033,15.7538,2.0140,-1.1008
2949.2188,13.0061,-10.5696,1.8840,3.4913,5.0816,3.9230,15.9891,11.0284,9.1800,11.9568,4.1137,-14.6093,6.5057,1.9414,9.6623,-5.7046,15.4159,4.1850,-1.2543
2953.1250,14.0823,-8.0245,7.2143,7.1822,9.5567,3.3174,16.1695,14.2385,10.3254,12.2130,3.8114,-17.9960,5.1772,0.7531,5.4942,-10.7069,13.4288,7.2654,1.2369
2957.0312,13.5239,-7.3323,12.0664,10.7361,13.9603,-1.5612,13.8106,16.9554,11.0532,10.4828,3.8882,-20.3799,3.8788,-2.5258,2.1098,-15.0204,9.1761,9.4407,4.6899
2960.9375,12.5029,-8.2499,13.8541,12.6272,17.9082,-8.0407,10.7305,18.3768,12.0149,7.3367,4.3055,-20.7121,2.4161,-7.5861,0.8070,-16.5863,3.2848,9.4148,7.1594
2964.8438,12.5282,-9.3120,12.4196,12.7214,21.5188,-12.3256,9.2563,18.6896,13.4572,4.4068,5.1990,-19.1989,0.7467,-12.2824,2.0951,-15.0336,-2.4731,7.1292,7.8127
2968.7500,14.3300,-9.0497,9.9987,12.1003,25.2497,-11.5491,10.6304,18.8535,14.9461,3.1949,6.7455,-17.1969,-0.9245,-14.1500,5.6055,-11.6381,-5.8897,3.5161,7.2449
