Time,Fp1,F3,C3,P3,O1,F7,T3,T5,Fz,Fp2,F4,C4,P4,O2,F8,T4,T6,Cz,Pz
0.0000,1.2447,-1.2577,-1.9188,-3.7541,-2.5385,2.8443,-2.2072,-2.5637,-0.8162,-0.1086,-0.5255,-3.8180,-4.1019,-3.8706,-1.5600,-3.6318,-4.4626,-2.4179,-2.9795
3.9062,0.0697,-2.9888,-4.2362,-5.0398,-2.7809,1.3633,-3.4932,-3.6246,-1.7996,-0.4275,-2.1292,-4.0376,-4.2423,-4.0363,-2.1318,-3.0134,-4.0361,-4.2457,-4.5493
7.8125,-1.0969,-4.3161,-6.0981,-5.6921,-2.5033,-0.0464,-4.1740,-4.3090,-2.6380,-1.0304,-3.9705,-3.8955,-3.6765,-3.6207,-2.9487,-2.1680,-2.9319,-6.0121,-5.7888
11.7188,-1.8709,-4.4613,-6.2525,-4.9321,-1.4474,-0.8089,-3.6110,-3.9255,-3.0638,-1.9621,-5.5226,-3.2003,-2.0976,-2.2986,-3.8906,-1.3303,-1.1177,-6.8834,-5.8234
15.6250,-2.0252,-3.0985,-3.9705,-2.4351,0.3730,-0.5782,-1.6338,-2.0843,-2.9983,-3.0979,-6.3983,-1.9440,0.4509,-0.0326,-4.8113,-0.6964,1.2040,-6.3024,-4.1285
19.5312,-1.6450,-0.6083,0.4469,1.4163,2.6154,0.5261,1.2917,1.0067,-2.5946,-4.1664,-6.5572,-0.3449,3.4969,2.8167,-5.6137,-0.3542,3.6176,-4.3259,-0.8921
23.4375,-1.1146,2.0550,5.6946,5.6324,4.7174,1.9231,4.2332,4.5314,-2.1484,-4.8788,-6.2885,1.2271,6.2789,5.5768,-6.2668,-0.2886,5.6039,-1.6308,2.9846
27.3438,-0.9157,3.8355,10.0504,9.0366,6.1298,2.8436,6.2248,7.3827,-1.9244,-5.0868,-5.9778,2.4191,8.0618,7.5293,-6.7454,-0.4236,6.7139,0.8325,6.2900
31.2500,-1.3461,4.1228,12.2076,10.7881,6.5569,2.7314,6.7213,8.6582,-2.0008,-4.8657,-5.8213,3.0691,8.4729,8.2333,-6.9539,-0.6451,6.7431,2.3392,8.0955
35.1562,-2.3314,3.0505,11.8724,10.7335,6.0786,1.5433,5.8216,8.0736,-2.2266,-4.4623,-5.6939,3.2834,7.6767,7.7330,-6.7154,-0.7979,5.8323,2.7387,8.2041
39.0625,-3.4557,1.3731,9.7934,9.4133,5.0921,-0.2372,4.1453,6.0746,-2.3166,-4.1354,-5.2648,3.3702,6.2860,6.5311,-5.8666,-0.6946,4.4346,2.4566,7.1957
42.9688,-4.2006,0.0076,7.2445,7.7444,4.1078,-1.8868,2.4563,3.5936,-2.0246,-3.9851,-4.2666,3.6661,5.0587,5.3339,-4.3953,-0.1773,3.1475,2.1709,6.0567
46.8750,-4.2423,-0.4683,5.3081,6.5636,3.5087,-2.8563,1.2663,1.5942,-1.2816,-3.8767,-2.7071,4.3661,4.5496,4.7043,-2.5018,0.7876,2.4768,2.3933,5.6235
50.7812,-3.6149,-0.0588,4.3935,6.2711,3.3964,-3.0609,0.6420,0.6496,-0.2132,-3.5016,-0.8579,5.4592,4.9073,4.8078,-0.5051,2.0573,2.6428,3.2220,6.1693
54.6875,-2.6391,0.7859,4.2300,6.7296,3.5911,-2.8743,0.2932,0.7624,0.9673,-2.5393,0.9688,6.8006,5.9072,5.3838,1.3630,3.3710,3.5204,4.3932,7.3508
58.5938,-1.6786,1.5495,4.2483,7.4289,3.7669,-2.8443,-0.1534,1.4822,2.1045,-0.8319,2.6647,8.2491,7.1616,5.9423,3.1204,4.5049,4.7373,5.5487,8.4955
62.5000,-0.9061,1.9915,4.0309,7.7923,3.6370,-3.3289,-0.8909,2.2128,3.1699,1.5105,4.3713,9.7521,8.3469,6.0606,4.9987,5.4129,5.8669,6.4939,9.0158
66.4062,-0.2465,2.2216,3.5257,7.4580,3.0878,-4.2904,-1.8358,2.5208,4.1945,4.1129,6.2583,11.3003,9.3015,5.6069,7.1895,6.2285,6.6058,7.2588,8.6909
70.3125,0.4672,2.4837,2.9337,6.4068,2.2064,-5.3762,-2.7270,2.2893,5.1130,6.4343,8.1916,12.7836,9.9617,4.7727,9.5365,7.0992,6.8511,7.9378,7.6801
74.2188,1.2548,2.8414,2.4274,4.9092,1.2095,-6.2111,-3.3252,1.6779,5.6488,7.9229,9.5698,13.8734,10.2285,3.9199,11.4185,7.9669,6.6633,8.4624,6.3235
78.1250,1.8618,3.0222,1.9555,3.3515,0.3324,-6.6900,-3.5649,0.9649,5.3615,8.1810,9.5211,14.0628,9.9085,3.3524,11.9723,8.4826,6.1730,8.5105,4.9024
82.0312,1.8632,2.5568,1.2844,2.0488,-0.2576,-7.0585,-3.5709,0.3917,3.8738,7.0962,7.4006,12.8935,8.8039,3.1576,10.5737,8.1635,5.5065,7.6556,3.5235
85.9375,0.9463,1.1268,0.2214,1.1353,-0.4903,-7.7259,-3.5490,0.0904,1.1619,4.8980,3.2864,10.2581,6.8949,3.2017,7.2866,6.7211,4.7697,5.6709,2.1670
89.8438,-0.8188,-1.1257,-1.1763,0.5688,-0.3772,-8.9389,-3.6418,0.0961,-2.2842,2.1091,-1.8679,6.5802,4.4710,3.2567,2.9736,4.3346,4.0656,2.7772,0.8188
93.7500,-2.9163,-3.5583,-2.5813,0.2213,0.0147,-10.5466,-3.8508,0.3888,-5.5657,-0.6078,-6.5739,2.7252,2.0807,3.1621,-1.0458,1.6527,3.4957,-0.3516,-0.4368
97.6562,-4.5940,-5.3125,-3.5816,-0.0117,0.5776,-12.0271,-4.0645,0.9083,-7.7282,-2.6618,-9.4735,-0.3444,0.2991,2.9130,-3.6104,-0.5129,3.1192,-2.8579,-1.4289
101.5625,-5.2291,-5.7563,-3.9278,-0.1440,1.1726,-12.7707,-4.1578,1.5393,-8.1848,-3.7175,-9.9470,-1.9883,-0.5524,2.6340,-4.2467,-1.6169,2.9015,-4.0865,-1.9871
105.4688,-4.6314,-4.8128,-3.6576,-0.1015,1.6600,-12.4430,-4.0817,2.1097,-6.9704,-3.7689,-8.3158,-2.1370,-0.5494,2.4790,-3.3044,-1.6430,2.7127,-3.8562,-2.0188
109.3750,-3.1119,-2.9750,-3.0141,0.2257,1.9595,-11.1916,-3.8792,2.4452,-4.6815,-3.0728,-5.5510,-1.2243,-0.0670,2.5386,-1.6473,-1.0274,2.4087,-2.4554,-1.5137
113.2812,-1.2902,-1.0095,-2.2300,0.9245,2.1141,-9.5615,-3.6190,2.4730,-2.1426,-1.9877,-2.7056,0.1433,0.4970,2.8161,-0.1256,-0.3074,1.9561,-0.3903,-0.4906
117.1875,0.2239,0.4556,-1.3495,2.0236,2.3006,-8.1674,-3.3025,2.3041,-0.0016,-0.8163,-0.4342,1.5611,0.9910,3.2691,0.8319,0.2401,1.5095,1.9282,1.0445
121.0938,1.0867,1.2042,-0.2197,3.4843,2.7504,-7.3290,-2.8211,2.2100,1.5075,0.2656,1.1370,3.0011,1.5836,3.8607,1.2851,0.7147,1.3601,4.3422,3.0676
125.0000,1.2889,1.4198,1.3434,5.1944,3.5986,-6.8986,-2.0127,2.4706,2.5177,1.1760,2.1896,4.6841,2.5898,4.5664,1.5419,1.4016,1.7651,6.8513,5.4385
128.9062,1.0381,1.4322,3.3344,6.9546,4.7494,-6.3885,-0.7957,3.1671,3.2664,1.8456,2.8698,6.7548,4.1687,5.3277,1.8373,2.4475,2.7576,9.3559,7.8166
132.8125,0.5665,1.4133,5.4396,8.4716,5.8570,-5.3222,0.6988,4.0607,3.8185,2.1692,3.0958,8.9982,6.1071,6.0018,2.1708,3.6701,4.0727,11.4515,9.6825
136.7188,-0.0132,1.2263,7.1010,9.3964,6.4664,-3.5903,2.0943,4.6652,3.9670,2.0347,2.6342,10.8086,7.8458,6.3681,2.3788,4.6462,5.2542,12.4610,10.4976
140.6250,-0.7350,0.5153,7.7308,9.4283,6.2493,-1.5889,2.8850,4.5020,3.3665,1.4012,1.3444,11.4470,8.7426,6.2123,2.3295,4.9969,5.8878,11.7281,9.9371
144.5312,-1.7075,-1.0384,6.9572,8.4530,5.1941,-0.0473,2.6608,3.3932,1.7942,0.3563,-0.6279,10.4308,8.4055,5.4428,2.0499,4.6357,5.8118,9.0063,8.0654
148.4375,-3.0042,-3.4635,4.7820,6.6366,3.6198,0.3675,1.3254,1.6007,-0.6461,-0.9010,-2.8681,7.8092,6.8881,4.1588,1.6845,3.7872,5.1729,4.6977,5.3439
152.3438,-4.5793,-6.4002,1.5903,4.3986,1.9912,-0.5548,-0.8210,-0.2944,-3.5078,-2.1437,-4.9012,4.1605,4.6360,2.6143,1.3443,2.7822,4.2960,-0.2281,2.4523
156.2500,-6.2377,-9.2022,-1.9690,2.2496,0.6487,-2.3978,-3.1931,-1.7097,-6.1679,-3.2033,-6.4244,0.3234,2.2395,1.0937,1.0033,1.8193,3.4727,-4.6091,0.0132
160.1562,-7.6621,-11.1677,-5.1670,0.5731,-0.3643,-4.2759,-5.1737,-2.3745,-8.0557,-3.9931,-7.3843,-2.9572,0.1643,-0.2191,0.5527,0.9003,2.8159,-7.5508,-1.6341
164.0625,-8.4904,-11.7788,-7.3778,-0.5207,-1.2569,-5.2397,-6.3653,-2.4328,-8.8080,-4.4605,-7.8550,-5.2639,-1.3784,-1.2903,-0.0236,-0.0153,2.2743,-8.7175,-2.4994
167.9688,-8.4297,-10.8473,-8.2173,-1.1759,-2.2561,-4.7192,-6.7011,-2.2740,-8.2934,-4.5231,-7.8350,-6.5133,-2.3770,-2.1767,-0.5088,-0.7921,1.7718,-8.3162,-2.8296
171.8750,-7.3794,-8.5424,-7.6170,-1.6213,-3.3551,-2.7787,-6.3640,-2.2168,-6.5568,-4.0632,-7.1517,-6.7934,-2.8711,-2.9072,-0.5000,-1.0671,1.3440,-6.8316,-2.9066
175.7812,-5.5148,-5.3233,-5.8287,-1.9701,-4.2357,-0.0619,-5.5916,-2.2766,-3.7807,-3.0085,-5.5758,-6.1914,-2.8483,-3.4028,0.3496,-0.4605,1.1536,-4.7202,-2.8793
179.6875,-3.2763,-1.8253,-3.3563,-2.1327,-4.4420,2.5274,-4.5136,-2.1823,-0.3105,-1.4498,-3.0816,-4.7474,-2.2678,-3.5008,2.0401,1.0818,1.3686,-2.2675,-2.7215
183.5938,-1.2404,1.2793,-0.8266,-1.9059,-3.6992,4.2351,-3.1355,-1.6237,3.2970,0.3000,-0.0582,-2.5521,-1.1732,-3.0698,4.1001,3.0879,2.0024,0.3335,-2.3195
187.5000,0.0861,3.4290,1.1749,-1.1722,-2.1582,4.7535,-1.4646,-0.5374,6.3062,1.7727,2.7114,0.1172,0.2186,-2.1333,5.7432,4.7057,2.8485,2.7996,-1.6127
191.4062,0.4556,4.3120,2.2603,-0.0566,-0.3824,4.2761,0.3406,0.7900,7.9791,2.5233,4.3410,2.7616,1.5487,-0.9079,6.2413,5.1546,3.5742,4.6682,-0.6892
195.3125,-0.0459,3.9503,2.3402,1.0842,0.9328,3.3208,1.9410,1.8854,7.8546,2.3215,4.2569,4.7944,2.4677,0.2771,5.3017,4.2064,3.9160,5.4228,0.2256
199.2188,-1.0803,2.6816,1.6340,1.8463,1.3398,2.4386,2.9581,2.4050,5.9862,1.2454,2.4996,5.7866,2.8101,1.1297,3.2266,2.3706,3.8406,4.7804,0.8777
203.1250,-2.2451,1.0239,0.5787,2.0146,0.8761,1.9633,3.2036,2.3690,2.9815,-0.3747,-0.2693,5.6770,2.6755,1.5236,0.7646,0.6432,3.5601,2.9394,1.1192
207.0312,-3.2588,-0.5290,-0.3381,1.6877,0.0145,1.9097,2.8274,2.1408,-0.2130,-2.1214,-3.0668,4.8146,2.3626,1.5304,-1.2547,-0.0399,3.3926,0.5899,0.9903
210.9375,-4.0412,-1.6822,-0.7658,1.2079,-0.6316,2.0370,2.2595,2.1661,-2.6923,-3.6593,-5.0285,3.7984,2.2049,1.3527,-2.2966,0.6912,3.5689,-1.3684,0.7045
214.8438,-4.6588,-2.3944,-0.6231,0.9464,-0.6533,2.0155,1.9652,2.6584,-3.9424,-4.8167,-5.7525,3.1999,2.4150,1.2118,-2.3121,2.4718,4.1101,-2.2501,0.5496
218.7500,-5.1935,-2.7865,-0.1102,1.0950,-0.0327,1.6063,2.1721,3.4584,-3.9768,-5.5552,-5.3744,3.3190,3.0212,1.2610,-1.6695,4.4454,4.8436,-1.8944,0.7625
222.6562,-5.6298,-2.9689,0.4185,1.5968,0.9181,0.7770,2.7593,4.1587,-3.1992,-5.8781,-4.3630,4.0956,3.9069,1.5555,-0.8949,5.7421,5.5204,-0.6690,1.4391
226.5625,-5.8347,-2.9039,0.6700,2.2464,1.7897,-0.2763,3.3893,4.3936,-2.0921,-5.7537,-3.1790,5.2044,4.8928,2.0656,-0.3761,5.9025,5.9395,0.8291,2.5164
230.4688,-5.6292,-2.3969,0.6094,2.8659,2.3136,-1.1992,3.7896,4.0827,-0.9197,-5.1047,-2.0013,6.2607,5.7957,2.6993,-0.1833,5.0317,6.0037,2.1750,3.8200
234.3750,-4.8932,-1.2235,0.5162,3.4226,2.4641,-1.6108,3.9781,3.4617,0.3826,-3.8605,-0.6740,7.0114,6.4424,3.3158,-0.0799,3.6571,5.6998,3.3551,5.1407
238.2812,-3.6358,0.6873,0.8466,4.0082,2.3967,-1.2578,4.2613,2.8982,2.0821,-2.0342,1.1118,7.4152,6.6699,3.7441,0.2996,2.4237,5.0559,4.6924,6.2971
242.1875,-2.0008,3.1334,1.9520,4.7102,2.2991,-0.1402,4.9951,2.6411,4.3741,0.2159,3.5143,7.5845,6.3543,3.8276,1.2042,1.8072,4.1282,6.5172,7.1579
246.0938,-0.2293,5.6586,3.8061,5.4831,2.2621,1.4429,6.2711,2.6815,7.1276,2.5650,6.3016,7.6452,5.4705,3.4914,2.5794,1.9616,3.0206,8.8100,7.6258
250.0000,1.3804,7.7021,5.9052,6.1158,2.2370,2.9595,7.7555,2.8023,9.8055,4.5472,8.8221,7.6111,4.1391,2.7966,4.0342,2.7201,1.8980,11.0606,7.6088
253.9062,2.4981,8.7942,7.4260,6.3192,2.0750,3.8174,8.8082,2.7500,11.6154,5.6381,10.2244,7.3558,2.6076,1.9339,4.9897,3.7046,0.9508,12.4449,7.0101
257.8125,2.7951,8.7018,7.5811,5.8679,1.6056,3.5824,8.8242,2.3915,11.8245,5.3985,9.8306,6.7025,1.1547,1.1422,4.9478,4.4890,0.3193,12.2222,5.7577
261.7188,2.0204,7.4688,5.9908,4.7056,0.7155,2.1529,7.5862,1.7527,10.0924,3.6576,7.4845,5.5798,-0.0251,0.5930,3.7562,4.7680,0.0336,10.1219,3.8632
265.6250,0.1219,5.3641,2.8739,2.9582,-0.5922,-0.1929,5.4070,0.9473,6.6627,0.6680,3.6953,4.1437,-0.8811,0.3090,1.7297,4.4852,0.0222,6.5034,1.4793
269.5312,-2.6402,2.7859,-1.0438,0.8672,-2.1671,-2.9031,2.9761,0.0813,2.3203,-2.8677,-0.5104,2.7734,-1.4672,0.1721,-0.4464,3.8642,0.1909,2.2100,-1.0901
273.4375,-5.6777,0.1652,-4.8495,-1.2990,-3.7263,-5.3650,1.0071,-0.7875,-1.8760,-5.9695,-3.9756,1.9177,-1.8397,0.0152,-1.9998,3.3109,0.5097,-1.7881,-3.4495
277.3438,-8.2134,-2.1147,-7.8139,-3.3031,-4.9316,-7.1275,-0.0981,-1.6223,-4.9729,-7.7273,-5.8681,1.8587,-1.9785,-0.2628,-2.4075,3.2104,1.0293,-4.7680,-5.2298
281.2500,-9.5497,-3.7849,-9.6227,-4.9520,-5.5147,-8.0358,-0.3804,-2.3659,-6.4482,-7.6804,-5.9907,2.5259,-1.7998,-0.6333,-1.6157,3.7170,1.8055,-6.4635,-6.2116
285.1562,-9.3521,-4.7405,-10.3712,-6.0880,-5.3937,-8.2292,-0.1978,-2.9387,-6.3417,-6.0287,-4.7997,3.4843,-1.2525,-0.9597,-0.0326,4.6613,2.7875,-7.0389,-6.3912
289.0625,-7.7968,-5.0458,-10.3677,-6.5880,-4.7076,-8.0221,0.0487,-3.2787,-5.1384,-3.5382,-3.1272,4.1337,-0.4166,-1.0800,1.6983,5.6440,3.7698,-6.8802,-5.9481
292.9688,-5.4933,-4.8758,-9.8880,-6.3834,-3.7312,-7.7372,0.1566,-3.3767,-3.4740,-1.1599,-1.7473,4.0287,0.4873,-0.8915,3.0170,6.2693,4.4682,-6.3407,-5.1342
296.8750,-3.2069,-4.4034,-9.0319,-5.4901,-2.7155,-7.5722,0.1877,-3.2654,-1.8194,0.4428,-1.0088,3.1441,1.2044,-0.3880,3.6925,6.3776,4.6850,-5.5730,-4.1476
300.7812,-1.5224,-3.6948,-7.7479,-4.0307,-1.7588,-7.5523,0.3431,-2.9733,-0.3118,1.1973,-0.7174,1.9213,1.5980,0.3553,3.8753,6.1287,4.4477,-4.5192,-3.0684
304.6875,-0.6196,-2.6868,-5.9830,-2.2364,-0.8054,-7.5747,0.7484,-2.5006,1.1886,1.5819,-0.3177,1.0507,1.7345,1.2192,3.9524,5.8817,4.0134,-3.0375,-1.8940
308.5938,-0.2734,-1.2787,-3.8411,-0.4226,0.2252,-7.5095,1.3036,-1.8599,2.8672,2.2691,0.7324,1.1000,1.8302,2.0672,4.3016,5.9517,3.7197,-1.0809,-0.6414
312.5000,-0.0576,0.5106,-1.6405,1.0615,1.2767,-7.3016,1.6969,-1.1574,4.7056,3.6690,2.6034,2.1966,2.0911,2.7561,5.0821,6.4048,3.7751,1.1783,0.5613
316.4062,0.3745,2.4317,0.1734,1.9116,2.0993,-7.0204,1.5789,-0.6293,6.3820,5.6463,4.9495,3.9485,2.5578,3.1519,6.1614,7.0213,4.1339,3.3498,1.4708
320.3125,1.0929,4.0402,1.2112,1.9648,2.3677,-6.8348,0.7881,-0.5597,7.3921,7.5741,7.0494,5.6505,3.0714,3.1704,7.1956,7.4429,4.5440,4.9580,1.8295
324.2188,1.8714,4.8867,1.3181,1.2809,1.9086,-6.9281,-0.5138,-1.0986,7.3205,8.6780,8.1537,6.6520,3.3886,2.8338,7.8028,7.4036,4.7376,5.6396,1.5167
328.1250,2.3309,4.7571,0.6482,0.1622,0.8809,-7.4004,-1.8857,-2.0980,6.0902,8.4516,7.8454,6.6731,3.3650,2.3047,7.7352,6.8939,4.6328,5.3053,0.6541
332.0312,2.1417,3.8064,-0.4075,-0.9243,-0.2329,-8.2169,-2.8172,-3.1027,4.0299,6.8942,6.2254,5.8935,3.0759,1.8568,6.9710,6.1657,4.4077,4.1795,-0.4054
335.9375,1.1661,2.4830,-1.4024,-1.5116,-0.8433,-9.2361,-2.9858,-3.5445,1.7108,4.4509,3.8326,4.7855,2.7871,1.7809,5.6983,5.5865,4.3971,2.6937,-1.2093
339.8438,-0.5163,1.2792,-2.0307,-1.3189,-0.5511,-10.2998,-2.4144,-3.0387,-0.3462,1.7232,1.3614,3.8137,2.7962,2.2646,4.2109,5.4395,4.8824,1.2901,-1.3884
343.7500,-2.6776,0.4603,-2.2381,-0.3662,0.6574,-11.3258,-1.4347,-1.5979,-1.9087,-0.8465,-0.6605,3.1919,3.2527,3.3136,2.7770,5.7821,5.9126,0.2407,-0.7974
347.6562,-5.0312,-0.0482,-2.1909,1.0503,2.4347,-12.3347,-0.4804,0.3804,-3.0715,-3.1217,-2.0611,2.8323,4.0762,4.7556,1.5441,6.4281,7.2672,-0.4229,0.4506
351.5625,-7.2833,-0.5410,-2.1255,2.5172,4.2858,-13.3855,0.1629,2.3463,-4.0803,-5.1863,-2.9952,2.4909,5.0218,6.3230,0.5241,7.0456,8.5753,-0.8354,2.0588
355.4688,-9.1404,-1.2621,-2.1653,3.7157,5.8281,-14.4617,0.5003,3.8951,-5.0679,-7.1185,-3.7409,1.9917,5.8381,7.7673,-0.3410,7.3107,9.5060,-1.1351,3.6802
359.3750,-10.3167,-2.1733,-2.2133,4.5726,6.9387,-15.3956,0.7787,4.9389,-5.8861,-8.8015,-4.4608,1.3787,6.4097,8.9427,-1.0785,7.0422,9.9164,-1.3172,5.0449
363.2812,-10.5842,-2.9261,-1.9852,5.2672,7.7233,-15.9041,1.2927,5.6587,-6.1530,-9.9071,-5.0736,0.9055,6.7949,9.8233,-1.6183,6.2655,9.8802,-1.2002,6.0337
367.1875,-9.8650,-3.0685,-1.1716,6.0907,8.3574,-15.7316,2.1798,6.3022,-5.4956,-10.0615,-5.3087,0.8803,7.1451,10.4556,-1.8130,5.1877,9.6028,-0.5369,6.6814
371.0938,-8.3111,-2.3523,0.3598,7.2352,8.9200,-14.8170,3.3393,6.9860,-3.8377,-9.0845,-4.9051,1.4655,7.5669,10.8785,-1.5452,4.1026,9.2871,0.7902,7.1173
375.0000,-6.3004,-0.9391,2.4339,8.6282,9.3153,-13.3688,4.5140,7.6326,-1.5531,-7.1460,-3.8312,2.5503,8.0147,11.0560,-0.8593,3.2700,9.0281,2.6028,7.4660
378.9062,-4.3224,0.6374,4.5871,9.9061,9.3115,-11.7873,5.4560,8.0530,0.6217,-4.7438,-2.3884,3.7607,8.2767,10.8562,-0.0224,2.8236,8.7831,4.3975,7.7460
382.8125,-2.7966,1.7348,6.2322,10.5496,8.6581,-10.4744,6.0449,8.0795,1.8798,-2.5145,-1.1303,4.5980,8.0578,10.0954,0.5498,2.7456,8.4155,5.4961,7.8131
386.7188,-1.9176,1.9326,6.8905,10.1225,7.2212,-9.6515,6.2772,7.6389,1.6947,-0.9832,-0.6254,4.6377,7.1195,8.6380,0.4879,2.9097,7.7816,5.3214,7.3964
390.6250,-1.6130,1.2306,6.3788,8.4990,5.0866,-9.3013,6.1607,6.7358,0.0544,-0.3751,-1.1831,3.6999,5.4117,6.5144,-0.3150,3.1579,6.8147,3.6718,6.2339
394.5312,-1.6302,0.0085,4.8675,5.9657,2.5968,-9.2609,5.6277,5.4027,-2.5302,-0.5684,-2.6834,1.9218,3.1403,3.9963,-1.5983,3.3554,5.5688,0.8606,4.2563
398.4375,-1.6928,-1.2106,2.7943,3.1364,0.2940,-9.3835,4.5657,3.6982,-5.2360,-1.1832,-4.6035,-0.2938,0.7357,1.5703,-2.8185,3.3965,4.2039,-2.3627,1.7164
402.3438,-1.6263,-2.0364,0.6854,0.7117,-1.2417,-9.6407,2.9599,1.7676,-7.2502,-1.7433,-6.2328,-2.4299,-1.2774,-0.2086,-3.3968,3.1782,2.9176,-5.0828,-0.8345
406.2500,-1.3864,-2.3632,-1.0252,-0.8038,-1.6208,-10.0883,1.0301,-0.1010,-8.0587,-1.8337,-6.9752,-4.0384,-2.4662,-0.9362,-2.9986,2.5969,1.8575,-6.5625,-2.7435
410.1562,-0.9921,-2.3277,-2.0994,-1.2830,-0.8453,-10.7303,-0.7747,-1.5167,-7.5843,-1.2050,-6.5848,-4.8733,-2.6536,-0.5423,-1.6872,1.6069,1.0649,-6.4984,-3.5373
414.0625,-0.4349,-2.1296,-2.4939,-0.9647,0.6441,-11.4016,-1.9628,-2.1414,-6.1340,0.1883,-5.2229,-4.9137,-1.9747,0.6701,0.1359,0.3239,0.4891,-5.0708,-3.1273
417.9688,0.3567,-1.8479,-2.2793,-0.2604,2.1435,-11.7806,-2.2660,-1.8798,-4.1994,2.1994,-3.3126,-4.2742,-0.7836,2.1727,1.9675,-0.9060,0.0708,-2.7773,-1.8119
421.8750,1.4666,-1.3765,-1.5475,0.4991,3.0273,-11.5444,-1.8028,-0.9671,-2.2123,4.5353,-1.2867,-3.0672,0.5525,3.4754,3.4713,-1.5609,-0.1579,-0.1543,-0.0720
425.7812,2.8925,-0.5098,-0.3667,1.2231,3.0732,-10.5659,-1.0148,0.1234,-0.3746,6.8259,0.6239,-1.3148,1.8568,4.3591,4.6205,-1.1409,-0.0353,2.4527,1.7057
429.6875,4.4778,0.8851,1.1885,2.0335,2.5689,-9.0148,-0.4059,0.9136,1.3622,8.7111,2.4354,1.0212,3.2156,4.9380,5.6325,0.5737,0.6585,4.9448,3.3929
433.5938,5.9330,2.7255,2.9633,3.0829,2.1130,-7.2861,-0.2566,1.1511,3.1607,9.9271,4.2726,3.9063,4.8604,5.5155,6.7473,3.3528,2.0455,7.3437,5.0661
437.5000,6.9428,4.6912,4.6733,4.3607,2.2218,-5.8068,-0.5036,0.9003,5.0884,10.3684,6.1470,7.0910,6.9258,6.3285,7.9962,6.5563,4.0043,9.5894,6.7913
441.4062,7.2956,6.3385,5.9425,5.6334,2.9911,-4.8485,-0.8532,0.4524,6.9600,10.0972,7.8120,10.0814,9.2424,7.3512,9.1146,9.3840,6.1437,11.4199,8.4244
445.3125,6.9572,7.2845,6.4381,6.5688,4.0401,-4.4662,-1.0313,0.1334,8.3420,9.2932,8.8106,12.2791,11.3210,8.2862,9.6595,11.2088,7.9385,12.4286,9.5966
449.2188,6.0499,7.3612,6.0418,6.9554,4.7768,-4.5756,-0.9784,0.1418,8.7409,8.1674,8.7095,13.2348,12.5669,8.7490,9.2692,11.8127,8.9678,12.2765,9.9165
453.1250,4.7634,6.6603,4.9506,6.8503,4.8062,-5.0836,-0.8539,0.4999,7.8840,6.8823,7.3800,12.8695,12.6079,8.5198,7.9075,11.4059,9.1167,10.9211,9.2474
457.0312,3.2630,5.4576,3.6243,6.5394,4.1996,-5.9520,-0.8655,1.1070,5.9286,5.5192,5.1457,11.5207,11.5275,7.6948,5.9437,10.4463,8.6179,8.7071,7.8503
460.9375,1.6551,4.0697,2.5780,6.3310,3.4414,-7.1472,-1.0710,1.8212,3.4591,4.1049,2.6833,9.7704,9.8430,6.6419,4.0077,9.3869,7.9013,6.2467,6.2688
464.8438,0.0199,2.7290,2.1249,6.3312,3.0945,-8.5299,-1.3126,2.5026,1.2440,2.6719,0.7139,8.1490,8.2242,5.7922,2.6917,8.5006,7.3436,4.1528,5.0189
468.7500,-1.5325,1.5369,2.2163,6.3689,3.4213,-9.8010,-1.3309,3.0152,-0.1295,1.3039,-0.3457,6.8874,7.1231,5.4066,2.2558,7.8494,7.0710,2.7786,4.2922
472.6562,-2.8405,0.5020,2.4841,6.1272,4.2185,-10.5784,-0.9666,3.2298,-0.5402,0.1304,-0.5720,5.8629,6.5441,5.4593,2.4997,7.3632,6.9316,2.1095,3.8791
476.5625,-3.7356,-0.3868,2.4681,5.3856,4.9693,-10.5798,-0.2935,3.0636,-0.3674,-0.7319,-0.4561,4.7593,6.1019,5.6938,2.8722,6.9310,6.6411,1.8538,3.3613
480.4688,-4.1265,-1.1147,1.8924,4.1933,5.1887,-9.7942,0.4108,2.5372,-0.2504,-1.2486,-0.6069,3.3315,5.3227,5.7988,2.7654,6.4421,5.9983,1.6559,2.4336
484.3750,-4.0643,-1.6533,0.8192,2.8465,4.7170,-8.5212,0.8275,1.7928,-0.7090,-1.4976,-1.4085,1.6081,3.9932,5.5816,1.8397,5.7830,5.0287,1.2935,1.1251
488.2812,-3.7330,-2.0099,-0.4138,1.6903,3.7715,-7.2379,0.7692,1.0365,-1.8479,-1.6290,-2.8201,-0.0867,2.3297,5.0412,0.2096,4.8483,3.9696,0.7530,-0.2293
492.1875,-3.3617,-2.2552,-1.4228,0.8959,2.7501,-6.3669,0.2533,0.4296,-3.3143,-1.7733,-4.4142,-1.2940,0.8619,4.3173,-1.6072,3.5984,3.1201,0.1663,-1.2304
496.0938,-3.1073,-2.4904,-2.0171,0.3762,1.9523,-6.0780,-0.5460,0.0087,-4.5225,-1.9592,-5.6115,-1.6607,0.1093,3.5707,-2.9520,2.1362,2.6596,-0.3203,-1.6865
500.0000,-2.9830,-2.7637,-2.2896,-0.1070,1.4199,-6.2321,-1.3993,-0.3008,-5.0005,-2.0976,-5.9727,-1.1279,0.2564,2.8800,-3.3630,0.7228,2.5476,-0.6509,-1.7194
503.9062,-2.8796,-3.0038,-2.5108,-0.7378,0.9900,-6.4854,-2.1001,-0.5842,-4.6477,-2.0515,-5.4011,0.0216,1.0268,2.2131,-2.8135,-0.3166,2.5610,-0.8823,-1.6491
507.8125,-2.6668,-3.0390,-2.9157,-1.5028,0.4862,-6.4831,-2.4915,-0.8347,-3.7629,-1.7488,-4.1729,1.2644,1.8269,1.4771,-1.7277,-0.7672,2.4319,-1.1366,-1.7617
511.7188,-2.3080,-2.7169,-3.5439,-2.2133,-0.1124,-6.0350,-2.4795,-0.9391,-2.8494,-1.2627,-2.8083,2.0274,2.0634,0.6086,-0.7669,-0.6655,1.9992,-1.5327,-2.1449
515.6250,-1.9104,-2.0553,-4.2423,-2.6616,-0.6497,-5.1952,-2.0733,-0.7737,-2.3364,-0.7990,-1.8566,1.8887,1.4459,-0.3563,-0.4972,-0.2979,1.2860,-2.1430,-2.6984
519.5312,-1.6730,-1.3146,-4.8102,-2.7822,-0.9185,-4.2230,-1.4356,-0.3375,-2.3872,-0.5909,-1.6859,0.7236,0.1089,-1.2703,-1.1119,-0.0350,0.4683,-2.9855,-3.2855
523.4375,-1.7652,-0.9085,-5.1640,-2.6932,-0.8240,-3.4578,-0.8754,0.1942,-2.8879,-0.7641,-2.3502,-1.2498,-1.4980,-1.9328,-2.3514,-0.1010,-0.2363,-4.0344,-3.8803
527.3438,-2.2139,-1.1812,-5.3892,-2.5991,-0.4606,-3.1662,-0.7265,0.5551,-3.5868,-1.2605,-3.5768,-3.5411,-2.8672,-2.1913,-3.6577,-0.4341,-0.6927,-5.2264,-4.5852
531.2500,-2.8776,-2.1761,-5.6437,-2.6421,-0.0550,-3.4199,-1.1478,0.5667,-4.2687,-1.8733,-4.8783,-5.5610,-3.6860,-2.0332,-4.4786,-0.7423,-0.9155,-6.4615,-5.5070
535.1562,-3.5275,-3.5528,-5.9970,-2.8183,0.1736,-4.0544,-1.9701,0.2804,-4.8506,-2.3709,-5.7591,-6.8442,-3.9553,-1.6147,-4.5547,-0.7242,-1.0463,-7.6102,-6.6061
539.0625,-3.9859,-4.7307,-6.3418,-3.0126,0.1337,-4.7320,-2.7262,-0.0287,-5.3598,-2.6324,-5.9343,-7.2313,-3.9310,-1.1979,-4.0383,-0.3088,-1.2573,-8.5397,-7.6511
542.9688,-4.2302,-5.1965,-6.4536,-3.1048,-0.1068,-5.0941,-2.8900,-0.0252,-5.8426,-2.7074,-5.4632,-6.9210,-3.9434,-1.0183,-3.3849,0.2554,-1.6347,-9.1507,-8.3317
546.8750,-4.3923,-4.7964,-6.1587,-3.0538,-0.3810,-4.9376,-2.1987,0.4699,-6.2860,-2.7668,-4.7162,-6.3552,-4.2071,-1.1540,-3.0818,0.5263,-2.1116,-9.4105,-8.4509
550.7812,-4.6522,-3.8347,-5.4796,-2.9036,-0.5207,-4.3233,-0.8458,1.3540,-6.6123,-2.9847,-4.1778,-5.9887,-4.7202,-1.4803,-3.3718,0.1344,-2.4946,-9.3626,-8.0563
554.6875,-5.0967,-2.9097,-4.6470,-2.7281,-0.4349,-3.5439,0.5979,2.2905,-6.7400,-3.4322,-4.1823,-6.0664,-5.2961,-1.7477,-4.1236,-0.9846,-2.5750,-9.1125,-7.4145
558.5938,-5.6409,-2.5790,-3.9630,-2.5839,-0.1427,-2.9520,1.5026,2.8912,-6.6580,-4.0491,-4.7334,-6.5307,-5.6952,-1.7447,-4.9186,-2.5359,-2.2644,-8.8008,-6.8503
562.5000,-6.0686,-3.0522,-3.6178,-2.5121,0.2341,-2.7424,1.5354,2.9123,-6.4571,-4.6986,-5.5198,-7.1051,-5.7731,-1.4407,-5.2965,-4.0195,-1.6708,-8.5691,-6.5665
566.4062,-6.1671,-4.0874,-3.5891,-2.5663,0.5063,-2.8227,0.8238,2.3504,-6.2927,-5.2502,-6.1202,-7.4861,-5.5615,-1.0105,-5.0116,-4.9843,-1.0599,-8.5203,-6.5628
570.3125,-5.8664,-5.1395,-3.6891,-2.8099,0.4749,-2.8642,-0.1708,1.4000,-6.2985,-5.6261,-6.2646,-7.5084,-5.2362,-0.7157,-4.1514,-5.2265,-0.7141,-8.6711,-6.6876
574.2188,-5.2841,-5.6590,-3.7125,-3.2527,0.0090,-2.5103,-0.9660,0.3306,-6.4957,-5.7818,-5.9755,-7.1784,-4.9946,-0.7221,-3.0514,-4.8242,-0.7704,-8.9063,-6.7602
578.1250,-4.6438,-5.3602,-3.5664,-3.7718,-0.8784,-1.6115,-1.3346,-0.6285,-6.7407,-5.6530,-5.4918,-6.5684,-4.9161,-0.9824,-2.0688,-4.0175,-1.1385,-8.9683,-6.6618
582.0312,-4.1212,-4.3160,-3.2896,-4.1056,-1.9958,-0.3328,-1.3639,-1.3379,-6.7414,-5.1303,-5.0272,-5.6744,-4.8900,-1.2725,-1.3576,-3.0362,-1.5548,-8.5128,-6.3437
585.9375,-3.7259,-2.8568,-2.9633,-3.9677,-3.0196,0.9413,-1.2905,-1.7378,-6.1469,-4.1005,-4.5448,-4.3620,-4.6571,-1.3560,-0.7886,-1.9916,-1.7389,-7.2343,-5.7782
589.8438,-3.3039,-1.3631,-2.6017,-3.2288,-3.6184,1.8390,-1.2665,-1.8203,-4.6900,-2.5378,-3.7224,-2.4586,-3.9471,-1.1561,-0.0602,-0.8814,-1.5523,-5.0189,-4.9240
593.7500,-2.6644,-0.0885,-2.1220,-2.0359,-3.6030,2.2147,-1.2466,-1.6178,-2.3341,-0.5774,-2.1615,0.0684,-2.6335,-0.8024,1.0710,0.3278,-1.0546,-2.0462,-3.7507
597.6562,-1.7420,0.9016,-1.4211,-0.7576,-3.0173,2.2050,-1.0715,-1.2047,0.6444,1.4908,0.2904,2.9842,-0.8190,-0.5134,2.5915,1.6226,-0.4261,1.2276,-2.3014
601.5625,-0.6784,1.6737,-0.4942,0.2326,-2.1142,2.1006,-0.6587,-0.6872,3.6985,3.3198,3.3215,5.8180,1.1979,-0.4028,4.1907,2.9309,0.1836,4.2159,-0.7222
605.4688,0.2411,2.3220,0.5087,0.7946,-1.2230,2.1380,-0.1263,-0.1674,6.1892,4.6426,6.2123,8.0540,3.0550,-0.3604,5.4106,4.1700,0.7654,6.4133,0.7852
609.3750,0.7598,2.8880,1.3439,1.1051,-0.5839,2.3609,0.2650,0.2990,7.6324,5.3642,8.1555,9.3674,4.4815,-0.1102,5.8918,5.2990,1.4395,7.5708,2.0684
613.2812,0.8128,3.3397,1.8165,1.5093,-0.2426,2.6370,0.3119,0.7188,7.8948,5.5566,8.6571,9.7551,5.3886,0.5876,5.5642,6.3182,2.3301,7.7461,3.1037
617.1875,0.5644,3.5953,1.8970,2.2381,-0.0610,2.7960,0.0501,1.1321,7.2197,5.3678,7.7760,9.4825,5.8559,1.7327,4.6661,7.2083,3.4220,7.2146,3.9775
621.0938,0.2866,3.5569,1.7261,3.1958,0.1714,2.7673,-0.2372,1.5614,6.0615,4.9133,6.0598,8.8893,6.0331,3.0322,3.5843,7.8603,4.5110,6.3007,4.7711
625.0000,0.1583,3.1368,1.5020,3.9860,0.5979,2.6110,-0.2078,1.9798,4.8184,4.2234,4.2257,8.1896,6.0313,4.0469,2.6217,8.0664,5.2935,5.2331,5.4340
628.9062,0.1243,2.2801,1.3377,4.1728,1.2112,2.4291,0.2855,2.3281,3.6335,3.2744,2.7885,7.3959,5.8704,4.4432,1.8416,7.6058,5.5445,4.0978,5.7570
632.8125,-0.0785,0.9950,1.1965,3.6031,1.8671,2.2446,1.0619,2.5699,2.3934,2.0682,1.8551,6.4030,5.5122,4.1853,1.0832,6.3920,5.2661,2.9026,5.4902
636.7188,-0.7375,-0.6157,0.9542,2.5580,2.3769,1.9567,1.7065,2.7340,0.9209,0.6943,1.1841,5.1571,4.9444,3.5463,0.1319,4.5907,4.7070,1.6900,4.5422
640.6250,-1.9424,-2.3488,0.5368,1.6193,2.6183,1.4158,1.8323,2.9050,-0.7816,-0.6751,0.4363,3.7796,4.2504,2.9444,-1.0780,2.6228,4.2371,0.6094,3.1234
644.5312,-3.4814,-3.9444,0.0220,1.3305,2.5953,0.5569,1.3335,3.1593,-2.4303,-1.8520,-0.5663,2.5563,3.6086,2.7189,-2.3667,1.0252,4.1541,-0.1097,1.7120
648.4375,-4.9370,-5.1734,-0.3829,1.8725,2.4177,-0.5141,0.4545,3.4905,-3.5948,-2.7118,-1.7366,1.7996,3.2171,2.9835,-3.3889,0.2268,4.5349,-0.2784,0.8374
652.3438,-5.9285,-5.9254,-0.4788,2.9631,2.2154,-1.5575,-0.3693,3.7850,-3.9887,-3.2288,-2.8126,1.6760,3.1879,3.6221,-3.8398,0.3541,5.2145,0.1150,0.7960
656.2500,-6.3408,-6.2401,-0.2299,4.0339,2.0459,-2.3337,-0.7875,3.8737,-3.7045,-3.4480,-3.5513,2.1121,3.4825,4.3907,-3.6533,1.1719,5.8897,0.8467,1.4788
660.1562,-6.3810,-6.2578,0.1840,4.5594,1.8601,-2.7354,-0.7417,3.6351,-3.1992,-3.4249,-3.8786,2.8360,3.9314,5.0382,-3.0579,2.1941,6.2806,1.5349,2.4230
664.0625,-6.4157,-6.1160,0.4683,4.3317,1.5562,-2.8236,-0.4691,3.0883,-3.0102,-3.1872,-3.9002,3.5205,4.3320,5.3820,-2.4502,2.9098,6.2586,1.8281,3.0710
667.9688,-6.6922,-5.8622,0.4071,3.5253,1.0989,-2.7447,-0.3116,2.4154,-3.3822,-2.7532,-3.7874,3.9378,4.5619,5.3383,-2.1640,3.0068,5.8877,1.5989,3.0813
671.8750,-7.1383,-5.4456,0.0142,2.5465,0.6264,-2.6019,-0.4674,1.8973,-4.0751,-2.1950,-3.6384,4.0371,4.6392,4.9395,-2.2840,2.4838,5.3745,1.0216,2.5067
675.7812,-7.3875,-4.7959,-0.4701,1.7856,0.4608,-2.3800,-0.8527,1.7911,-4.5128,-1.6886,-3.4242,3.9146,4.6893,4.3583,-2.6241,1.6062,4.9700,0.4686,1.7339
679.6875,-7.0318,-3.9347,-0.7437,1.4246,0.9799,-1.9797,-1.1640,2.2086,-4.1948,-1.4938,-3.0515,3.7137,4.8434,3.9076,-2.8800,0.7491,4.8732,0.2717,1.2266
683.5938,-5.9395,-3.0326,-0.6639,1.3921,2.3959,-1.3275,-1.0955,3.0480,-3.0914,-1.8445,-2.4850,3.5299,5.1375,3.9659,-2.8454,0.2229,5.1723,0.4928,1.2375
687.5000,-4.4177,-2.3595,-0.3683,1.4542,4.5588,-0.4719,-0.5675,4.0083,-1.7340,-2.7947,-1.8252,3.3775,5.4830,4.8171,-2.5382,0.1733,5.8350,0.8600,1.6662
691.4062,-3.0890,-2.1491,-0.2063,1.3625,6.9130,0.4099,0.1812,4.6782,-0.9090,-4.1087,-1.2706,3.2278,5.7297,6.4675,-2.1433,0.5864,6.7381,0.9296,2.1450
695.3125,-2.5343,-2.4590,-0.5155,0.9749,8.6660,1.1026,0.6969,4.6717,-1.1395,-5.2791,-0.9813,3.0746,5.7752,8.5495,-1.8123,1.3613,7.7150,0.3914,2.2867
699.2188,-2.9197,-3.1198,-1.3891,0.3011,9.1064,1.4762,0.5497,3.7642,-2.3015,-5.6989,-0.9402,2.9707,5.6403,10.3967,-1.4702,2.3811,8.5985,-0.6802,1.9281
703.1250,-3.8497,-3.8076,-2.5899,-0.5270,7.9136,1.5606,-0.4289,1.9832,-3.6410,-4.9270,-0.9208,3.0027,5.4479,11.2814,-0.7928,3.5325,9.2417,-1.8068,1.2150
707.0312,-4.5564,-4.1923,-3.6710,-1.3293,5.2959,1.5293,-2.0397,-0.3843,-4.1991,-2.9267,-0.6007,3.2195,5.3160,10.7056,0.5961,4.6768,9.5156,-2.3598,0.4827
710.9375,-4.3271,-4.0684,-4.2236,-1.9569,1.8875,1.6139,-3.7876,-2.8734,-3.3775,-0.1437,0.2341,3.5668,5.2401,8.6051,2.8134,5.6262,9.3029,-1.9426,0.0266
714.8438,-2.9163,-3.3941,-4.0866,-2.3397,-1.5303,2.0092,-5.0821,-4.9856,-1.2897,2.6365,1.5242,3.8814,5.0610,5.3710,5.5031,6.1729,8.5103,-0.6601,-0.0753
718.7500,-0.6927,-2.2365,-3.3817,-2.4792,-4.3239,2.8133,-5.4556,-6.3389,1.3139,4.6092,2.9233,3.9615,4.5581,1.6978,7.8950,6.1785,7.1147,0.9106,0.0327
722.6562,1.5618,-0.6936,-2.3642,-2.3923,-6.1720,4.0134,-4.7009,-6.7606,3.4744,5.3005,3.9585,3.6780,3.6227,-1.6555,9.1485,5.6707,5.2257,2.0410,0.1450
726.5625,3.0775,1.1286,-1.2113,-2.0422,-7.0469,5.4924,-2.8918,-6.2941,4.5226,4.7733,4.2779,3.0633,2.3932,-4.0830,8.8023,4.8710,3.1203,2.2697,0.1970
730.4688,3.4871,3.0630,0.0895,-1.3152,-7.0811,7.0401,-0.3165,-5.1295,4.3489,3.5753,3.8400,2.3202,1.2510,-5.2642,7.0627,4.1123,1.2050,1.6525,0.3516
734.3750,2.9619,4.8145,1.6658,-0.0792,-6.4386,8.3750,2.6172,-3.5093,3.3290,2.4503,2.9324,1.7432,0.6541,-5.1981,4.7399,3.6787,-0.1065,0.6956,0.8957
738.2812,2.0382,5.9787,3.5628,1.6907,-5.2735,9.2014,5.4659,-1.6613,2.0237,1.9647,2.0145,1.5930,0.8959,-4.1624,2.8488,3.6583,-0.5562,0.0274,2.0147
742.1875,1.2741,6.1922,5.5832,3.7989,-3.7686,9.3090,7.8199,0.2190,0.8862,2.2492,1.4830,1.9932,1.9322,-2.6197,2.0976,3.9052,-0.1621,0.0360,3.6021
746.0938,0.9569,5.3559,7.3087,5.8220,-2.1773,8.6797,9.3780,1.9508,0.1507,2.9937,1.5019,2.8980,3.3860,-1.0822,2.5592,4.1424,0.7747,0.7025,5.2509
750.0000,1.0265,3.7809,8.3115,7.2476,-0.7962,7.5330,10.0246,3.3537,-0.0978,3.6846,1.9844,4.1347,4.7327,0.0424,3.7085,4.1451,1.7976,1.7105,6.4494
753.9062,1.2181,2.1235,8.4157,7.7061,0.1375,6.2595,9.8746,4.2668,0.1931,3.9338,2.7109,5.4833,5.5614,0.5814,4.7843,3.8882,2.4979,2.7212,6.8629
757.8125,1.2934,1.0940,7.8190,7.1629,0.5573,5.2503,9.2356,4.5980,1.0657,3.6955,3.4822,6.7425,5.7616,0.6449,5.2398,3.5615,2.6936,3.5993,6.5206
761.7188,1.1909,1.0830,6.9742,5.9487,0.6018,4.7043,8.4760,4.3739,2.4608,3.2489,4.1988,7.7570,5.5360,0.5552,5.0098,3.4384,2.4908,4.4375,5.7850
765.6250,1.0123,1.9312,6.3017,4.5953,0.5349,4.5251,7.8524,3.7512,4.1131,2.9710,4.8304,8.4145,5.2436,0.6768,4.4554,3.6854,2.1968,5.3892,5.1227
769.5312,0.8863,3.0046,5.9308,3.5690,0.5946,4.3802,7.3972,2.9708,5.5685,3.0637,5.3248,8.6416,5.1739,1.2248,4.0577,4.2361,2.1332,6.4578,4.8246
773.4375,0.8339,3.5527,5.6526,3.0591,0.8645,3.9015,6.9467,2.2705,6.3584,3.4167,5.5547,8.4163,5.3832,2.1504,4.0839,4.8165,2.4486,7.4147,4.8508
777.3438,0.7407,3.1454,5.1172,2.9440,1.2430,2.9164,6.3010,1.7973,6.2380,3.6937,5.3618,7.7916,5.6763,3.1636,4.4398,5.1073,3.0306,7.9053,4.8897
781.2500,0.4466,1.9188,4.1314,2.9420,1.5263,1.5710,5.4098,1.5635,5.3259,3.5746,4.6746,6.9036,5.7336,3.8826,4.7805,4.9402,3.5648,7.6676,4.5836
785.1562,-0.1218,0.4769,2.8416,2.8361,1.5477,0.2599,4.4469,1.4729,4.0449,2.9829,3.6092,5.9465,5.3032,4.0345,4.7774,4.4032,3.7122,6.7071,3.7728
789.0625,-0.8851,-0.4882,1.6684,2.6263,1.2909,-0.6051,3.7076,1.4026,2.8964,2.1422,2.4660,5.1194,4.3584,3.6035,4.3476,3.7910,3.3153,5.3175,2.6132
792.9688,-1.6579,-0.6149,1.0430,2.5207,0.9176,-0.8582,3.3931,1.2981,2.2136,1.4236,1.6038,4.5721,3.1409,2.8572,3.6995,3.4355,2.5194,3.9459,1.5097
796.8750,-2.2744,-0.0675,1.1368,2.7892,0.7016,-0.7137,3.4392,1.2272,2.0402,1.0898,1.2615,4.3741,2.0738,2.2352,3.1826,3.5258,1.7339,2.9933,0.9185
800.7812,-2.6989,0.6035,1.7740,3.5877,0.9102,-0.6788,3.5334,1.3546,2.1827,1.1068,1.4348,4.5131,1.5854,2.1524,3.0544,4.0224,1.4383,2.6610,1.1372
804.6875,-3.0421,0.8292,2.5796,4.8638,1.6897,-1.2805,3.3301,1.8458,2.3695,1.1477,1.8812,4.9108,1.9259,2.8072,3.3146,4.7065,1.9254,2.9021,2.1862
808.5938,-3.4744,0.3726,3.2411,6.3883,3.0020,-2.7558,2.7243,2.7530,2.3950,0.7828,2.2457,5.4416,3.0610,4.0849,3.6966,5.3153,3.1241,3.4717,3.8249
812.5000,-4.0974,-0.5549,3.6898,7.8731,4.6366,-4.8860,1.9805,3.9538,2.1722,-0.2648,2.2290,5.9525,4.6928,5.6075,3.8031,5.6719,4.6129,4.0332,5.6704
816.4062,-4.8637,-1.4633,4.0774,9.0908,6.2878,-7.0798,1.6013,5.1882,1.7041,-1.9538,1.7083,6.2961,6.3990,6.9135,3.3006,5.7359,5.8362,4.2837,7.3509
820.3125,-5.5975,-1.9034,4.5872,9.9313,7.6654,-8.6714,1.9975,6.1817,1.0371,-3.9394,0.7616,6.3812,7.8186,7.6811,2.0750,5.5683,6.4097,4.0697,8.6255
824.2188,-6.1029,-1.7225,5.2362,10.3841,8.5914,-9.2711,3.1745,6.7777,0.2498,-5.7424,-0.3908,6.2192,8.7874,7.8763,0.2916,5.2584,6.3341,3.4589,9.4283
828.1250,-6.2881,-1.1107,5.8244,10.4833,9.0374,-8.9734,4.6506,6.9945,-0.5346,-6.9654,-1.4815,5.9318,9.3509,7.7397,-1.6463,4.8767,5.9768,2.7252,9.8303
832.0312,-6.2270,-0.4433,6.0584,10.2605,9.0881,-8.3058,5.6804,6.9638,-1.1583,-7.4378,-2.2831,5.6962,9.6564,7.6128,-3.2202,4.4774,5.8233,2.2253,9.9460
835.9375,-6.1196,-0.0526,5.7454,9.7327,8.8576,-7.9501,5.6536,6.7929,-1.4936,-7.2348,-2.6685,5.6466,9.8060,7.7114,-3.9659,4.1304,6.1498,2.2040,9.8370
839.8438,-6.1754,-0.0796,4.9045,8.9180,8.4135,-8.3973,4.4206,6.4506,-1.5297,-6.5928,-2.6412,5.7909,9.7746,7.9920,-3.6449,3.9333,6.8345,2.6339,9.4671
843.7500,-6.4869,-0.4719,3.7178,7.8567,7.7623,-9.7257,2.3515,5.7703,-1.4102,-5.7903,-2.3339,6.0009,9.4536,8.2065,-2.3586,3.9783,7.4410,3.2034,8.7419
847.6562,-6.9699,-1.0855,2.3766,6.6175,6.9007,-11.6137,0.1037,4.5787,-1.3694,-5.0577,-1.9635,6.0889,8.7835,8.1088,-0.5450,4.2893,7.5270,3.4881,7.6096
851.5625,-7.4016,-1.7906,0.9569,5.2862,5.8894,-13.5505,-1.7376,2.8680,-1.5915,-4.5401,-1.7452,5.9222,7.8663,7.6651,1.1705,4.7783,6.9687,3.2160,6.1563
855.4688,-7.5392,-2.5076,-0.5761,3.9440,4.8779,-15.1018,-2.9234,0.8825,-2.0832,-4.2996,-1.7925,5.4946,6.9522,7.1001,2.2244,5.2611,6.0704,2.4508,4.6141
859.3750,-7.2495,-3.1743,-2.2445,2.6489,4.0433,-16.0719,-3.5671,-0.9533,-2.6537,-4.3286,-2.0573,4.9076,6.2901,6.7274,2.3556,5.5331,5.3688,1.5577,3.2560
863.2812,-6.5784,-3.6984,-3.9273,1.4324,3.4752,-16.4889,-3.9607,-2.2333,-3.0242,-4.5596,-2.3537,4.2817,5.9399,6.6733,1.7113,5.4631,5.2544,0.9596,2.2297
867.1875,-5.7218,-3.9489,-5.3437,0.3124,3.0911,-16.4642,-4.3298,-2.7687,-2.9945,-4.8703,-2.4614,3.6767,5.6914,6.7078,0.7560,5.0511,5.6727,0.8488,1.4476
871.0938,-4.9162,-3.7969,-6.1768,-0.6794,2.6593,-16.0482,-4.6935,-2.6579,-2.5551,-5.0960,-2.2509,3.0880,5.1732,6.3370,0.0319,4.4185,6.1211,1.0623,0.6289
875.0000,-4.3114,-3.1725,-6.2582,-1.4738,1.9394,-15.1867,-4.8944,-2.1878,-1.8724,-5.0553,-1.7509,2.5207,4.1007,5.1357,-0.0923,3.7454,5.9634,1.2157,-0.5050
878.9062,-3.8966,-2.0977,-5.6774,-1.9613,0.8611,-13.7931,-4.7461,-1.6423,-1.1688,-4.5906,-1.1117,2.0698,2.5013,3.1058,0.4537,3.1962,4.8613,1.0050,-1.9969
882.8125,-3.5179,-0.6791,-4.7359,-2.0213,-0.3763,-11.8636,-4.1795,-1.1518,-0.5878,-3.6161,-0.4939,1.9190,0.7589,0.8030,1.4963,2.8750,3.0376,0.4525,-3.5410
886.7188,-2.9679,0.9233,-3.7743,-1.5765,-1.3587,-9.5362,-3.2915,-0.6765,-0.1352,-2.1619,0.0388,2.2362,-0.5665,-0.8942,2.7842,2.8219,1.1924,-0.0859,-4.5892
890.6250,-2.0928,2.5289,-2.9822,-0.6426,-1.6472,-7.0476,-2.2837,-0.1116,0.2819,-0.3964,0.5452,3.0319,-1.0338,-1.2565,4.1351,3.0321,0.1222,-0.1594,-4.6321
894.5312,-0.8577,3.9632,-2.3115,0.6564,-0.9987,-4.6250,-1.3439,0.5860,0.7676,1.3964,1.1342,4.0970,-0.5447,-0.1316,5.4636,3.4688,0.2817,0.4675,-3.4878
898.4375,0.6537,5.0863,-1.5367,2.1214,0.5052,-2.3978,-0.5520,1.3516,1.3772,2.8941,1.8527,5.0865,0.6361,1.9452,6.6948,4.0587,1.5514,1.6607,-1.4221
902.3438,2.2841,5.8267,-0.4145,3.5409,2.4828,-0.3952,0.1411,2.0698,2.1162,3.8515,2.6209,5.7100,2.0571,4.0280,7.6661,4.6808,3.3332,3.0207,0.9732
906.2500,3.8544,6.2053,1.1514,4.7442,4.4036,1.3789,0.8596,2.6709,2.9750,4.2066,3.2634,5.8989,3.3185,5.2521,8.1276,5.1722,4.8859,4.1526,3.0598
910.1562,5.1932,6.3236,3.0290,5.6164,5.7788,2.8646,1.7099,3.1695,3.9429,4.1125,3.6149,5.8271,4.2167,5.2405,7.8729,5.3692,5.6842,4.8890,4.4193
914.0625,6.1492,6.3063,4.8875,6.0768,6.3076,3.9349,2.6980,3.6088,4.9762,3.8592,3.6222,5.7659,4.7351,4.2047,6.9162,5.1709,5.6097,5.3058,4.9593
917.9688,6.6074,6.2254,6.3162,6.0550,5.9391,4.4744,3.6986,3.9620,5.9499,3.7116,3.3716,5.8758,4.9364,2.7259,5.5731,4.5988,4.9141,5.5432,4.8404
921.8750,6.5206,6.0579,6.9783,5.5000,4.8588,4.4899,4.4937,4.0876,6.6499,3.7504,3.0268,6.0883,4.8741,1.4000,4.3563,3.8157,4.0346,5.6029,4.3146
925.7812,5.9412,5.7131,6.7385,4.4274,3.4227,4.1632,4.8669,3.7967,6.8382,3.8212,2.7240,6.1633,4.5909,0.5772,3.7213,3.0854,3.3932,5.3013,3.6016
929.6875,5.0189,5.1155,5.7145,2.9665,2.0548,3.7879,4.7093,2.9940,6.3635,3.6396,2.4972,5.8748,4.1726,0.3150,3.8134,2.6819,3.2655,4.4217,2.8585
933.5938,3.9496,4.2843,4.2238,1.3578,1.1173,3.6180,4.0755,1.7866,5.2441,3.0025,2.2722,5.1802,3.7675,0.4983,4.3808,2.7776,3.7281,2.9340,2.2043
937.5000,2.8963,3.3419,2.6359,-0.1231,0.7794,3.7198,3.1493,0.4650,3.6647,1.9739,1.9210,4.2436,3.5118,0.9802,4.9219,3.3568,4.6525,1.0893,1.7198
941.4062,1.9333,2.4385,1.1929,-1.2803,0.9364,3.9266,2.1310,-0.6457,1.8900,0.9133,1.3328,3.3005,3.4022,1.6323,4.9800,4.1942,5.7272,-0.7074,1.3913
945.3125,1.0544,1.6448,-0.1065,-2.0836,1.2379,3.9333,1.1149,-1.3676,0.1548,0.3039,0.4615,2.4757,3.2292,2.3030,4.4034,4.9174,6.5301,-2.1560,1.0511
949.2188,0.2388,0.8989,-1.4769,-2.6637,1.2386,3.4783,0.0452,-1.7600,-1.3939,0.4701,-0.6562,1.7039,2.6632,2.7760,3.4078,5.1417,6.6653,-3.2484,0.4043
953.1250,-0.4797,0.0575,-3.1667,-3.2140,0.6176,2.5047,-1.2082,-2.0537,-2.6771,1.3576,-1.9000,0.8198,1.4733,2.8139,2.4110,4.6282,5.9356,-4.2268,-0.8174
957.0312,-1.0028,-0.9739,-5.2227,-3.8562,-0.6452,1.2066,-2.6963,-2.4771,-3.6238,2.5240,-3.0731,-0.2501,-0.2603,2.2873,1.7562,3.3979,4.4625,-5.3324,-2.6469
960.9375,-1.2313,-2.1252,-7.3527,-4.5541,-2.2348,-0.0639,-4.2718,-3.0936,-4.1367,3.3642,-3.9273,-1.3483,-2.0999,1.2958,1.5101,1.7438,2.6646,-6.5355,-4.7594
964.8438,-1.1560,-3.1487,-8.9967,-5.1266,-3.6384,-0.9697,-5.6029,-3.7551,-4.1256,3.4447,-4.2242,-2.1190,-3.4352,0.1789,1.4642,0.1255,1.0815,-7.4620,-6.5549
968.7500,-0.8945,-3.7310,-9.5933,-5.3493,-4.3843,-1.3405,-6.3356,-4.1957,-3.5829,2.7462,-3.8287,-2.2056,-3.8017,-0.6190,1.3275,-1.0118,0.1251,-7.5924,-7.4313
972.6562,-0.6308,-3.6625,-8.8935,-5.0791,-4.2566,-1.2202,-6.3029,-4.1931,-2.6369,1.6693,-2.7929,-1.4848,-3.1415,-0.7569,0.9652,-1.4103,-0.0978,-6.6079,-7.1017
976.5625,-0.4892,-2.9548,-7.1243,-4.3324,-3.3767,-0.7976,-5.6369,-3.6945,-1.5284,0.8016,-1.3743,-0.1764,-1.8380,-0.1598,0.5136,-1.0824,0.2088,-4.6434,-5.7611
980.4688,-0.4360,-1.8309,-4.8907,-3.2792,-2.1190,-0.2733,-4.6926,-2.8385,-0.5118,0.5920,0.0456,1.2459,-0.5025,0.9560,0.2871,-0.2709,0.6885,-2.2704,-3.9934
984.3750,-0.2889,-0.6001,-2.8660,-2.1690,-0.9192,0.2507,-3.8260,-1.8759,0.2582,1.1265,1.1147,2.2873,0.3549,2.1964,0.5406,0.6813,1.0456,-0.2148,-2.4687
988.2812,0.1604,0.4955,-1.4602,-1.2313,-0.0774,0.7936,-3.1730,-1.0481,0.7810,2.1261,1.6581,2.6636,0.5726,3.1669,1.2542,1.4722,1.1782,1.0058,-1.6107
992.1875,0.9934,1.3680,-0.6676,-0.5985,0.3492,1.4285,-2.5840,-0.4896,1.1722,3.1447,1.7370,2.4013,0.3664,3.6190,2.0934,1.9233,1.1663,1.3029,-1.4255
996.0938,2.0932,2.0600,-0.1753,-0.2745,0.5266,2.1775,-1.7625,-0.1927,1.5635,3.8256,1.5871,1.7705,0.1478,3.5098,2.5860,1.9809,1.1541,0.9785,-1.5755
1000.0000,3.2071,2.6478,0.3603,-0.1511,0.7187,2.9464,-0.5109,-0.0373,2.0092,4.0608,1.4757,1.1141,0.2593,2.9722,2.4084,1.6718,1.2311,0.4894,-1.6326
1003.9062,4.0980,3.1528,1.0647,-0.0611,1.1267,3.5437,1.0866,0.1383,2.4598,3.9810,1.5637,0.6839,0.7879,2.2358,1.5994,1.0720,1.3979,0.1867,-1.3433
1007.8125,4.6711,3.5234,1.7885,0.1532,1.7718,3.7751,2.6715,0.4545,2.8124,3.8195,1.8465,0.5625,1.5526,1.5381,0.5606,0.3157,1.6251,0.1886,-0.7488
1011.7188,4.9854,3.6903,2.2635,0.5810,2.4793,3.5493,3.8028,0.9295,2.9991,3.7593,2.1925,0.6862,2.2511,1.0584,-0.1630,-0.3789,1.9390,0.4281,-0.1067
1015.6250,5.1506,3.6449,2.3444,1.2169,2.9789,2.9251,4.2037,1.4694,3.0493,3.8579,2.4383,0.9266,2.6656,0.8857,-0.1924,-0.7223,2.4552,0.7962,0.3211
1019.5312,5.1982,3.4741,2.1552,1.9783,3.0703,2.0676,3.9047,1.9202,3.0834,4.0621,2.4756,1.1781,2.8064,1.0254,0.4712,-0.4419,3.3219,1.2535,0.4729
1023.4375,5.0363,3.3245,2.0340,2.7529,2.7595,1.1467,3.2031,2.1581,3.2379,4.2652,2.2839,1.4107,2.9133,1.4339,1.4531,0.5778,4.6077,1.8343,0.5560
1027.3438,4.5247,3.3192,2.3131,3.4398,2.2751,0.2513,2.4808,2.1642,3.5647,4.3477,1.9092,1.6746,3.3122,2.0534,2.2209,2.1843,6.2055,2.5613,0.9330
1031.2500,3.6113,3.4822,3.0823,3.9559,1.9321,-0.6173,2.0031,2.0269,3.9643,4.1904,1.4193,2.0604,4.1981,2.8209,2.3779,3.9597,7.8145,3.3528,1.8858
1035.1562,2.4194,3.7189,4.0918,4.2100,1.9152,-1.4717,1.8127,1.8612,4.2007,3.6940,0.8694,2.6294,5.4636,3.6407,1.8624,5.3654,9.0197,4.0043,3.3883
1039.0625,1.2124,3.8627,4.8583,4.0869,2.1253,-2.2495,1.7559,1.6994,4.0044,2.8355,0.2929,3.3464,6.6788,4.3504,0.9503,5.9672,9.4369,4.2650,5.0302
1042.9688,0.2582,3.7574,4.9127,3.4864,2.2136,-2.7968,1.5996,1.4459,3.2201,1.7425,-0.2912,4.0511,7.2662,4.7342,0.0753,5.6244,8.8668,3.9669,6.1614
1046.8750,-0.3138,3.3287,4.0468,2.4213,1.8167,-2.9609,1.1619,0.9536,1.9211,0.7146,-0.8702,4.5004,6.8021,4.6129,-0.4163,4.5385,7.3965,3.1282,6.2068
1050.7812,-0.5655,2.6082,2.4282,1.1118,0.8564,-2.7423,0.3966,0.1863,0.4145,0.1262,-1.4350,4.4728,5.2889,3.9792,-0.4374,3.1381,5.4020,1.9709,4.9971
1054.6875,-0.6914,1.7077,0.5303,-0.0173,-0.3068,-2.3894,-0.5857,-0.6518,-0.8848,0.2271,-1.9784,3.8847,3.2262,3.0826,-0.1736,1.8720,3.4369,0.8392,2.9216
1058.5938,-0.9009,0.7671,-1.0749,-0.4897,-1.0059,-2.3358,-1.5539,-1.1445,-1.6566,0.9500,-2.4873,2.8497,1.4010,2.3714,0.0496,1.0267,2.0339,0.0578,0.7917
1062.5000,-1.3279,-0.0907,-1.9544,-0.0270,-0.6446,-2.9824,-2.2370,-0.8749,-1.8419,1.8705,-2.9289,1.6377,0.4866,2.2779,-0.0394,0.6610,1.4933,-0.2025,-0.5431
1066.4062,-2.0125,-0.7784,-1.9749,1.2514,0.9062,-4.4437,-2.4297,0.2928,-1.6651,2.3865,-3.2432,0.5538,0.6706,2.9535,-0.5126,0.6678,1.7557,0.0127,-0.6252
1070.3125,-2.9355,-1.2403,-1.3261,2.8273,3.1545,-6.4293,-2.0911,2.0518,-1.4886,2.0410,-3.3544,-0.1922,1.5451,4.1243,-1.2164,0.8943,2.4354,0.4787,0.3785
1074.2188,-4.0530,-1.4484,-0.4136,4.0228,5.2044,-8.3648,-1.3896,3.7474,-1.5855,0.7945,-3.2073,-0.5497,2.3456,5.1893,-1.8693,1.2320,3.0120,0.9061,1.7867
1078.1250,-5.2990,-1.4164,0.3200,4.3601,6.2306,-9.7033,-0.6513,4.7015,-1.9803,-0.9383,-2.8169,-0.5993,2.4073,5.5338,-2.2280,1.6232,3.0902,1.0736,2.7988
1082.0312,-6.5676,-1.2264,0.5676,3.8273,5.9222,-10.2390,-0.2176,4.5815,-2.4690,-2.5280,-2.3049,-0.4702,1.5629,4.8829,-2.2308,2.0069,2.5901,0.9103,2.9436
1085.9375,-7.7142,-1.0350,0.2590,2.8789,4.6242,-10.2158,-0.2732,3.5889,-2.8038,-3.5040,-1.8916,-0.2674,0.2326,3.4732,-2.0416,2.2692,1.7619,0.4940,2.3168
1089.8438,-8.5938,-1.0271,-0.4359,2.1640,3.0980,-10.1455,-0.7378,2.3472,-2.9038,-3.8182,-1.8261,-0.0473,-0.8434,1.9307,-1.9634,2.2622,1.0240,-0.0154,1.4776
1093.7500,-9.1113,-1.3120,-1.1898,2.1541,2.0728,-10.4437,-1.2883,1.5618,-2.9209,-3.8257,-2.2659,0.1714,-1.0499,0.9265,-2.2585,1.8950,0.7255,-0.4536,1.0916
1097.6562,-9.2411,-1.8142,-1.6423,2.9027,1.8736,-11.1242,-1.5064,1.6594,-3.0974,-3.9981,-3.1566,0.4037,-0.2328,0.8248,-2.9697,1.2384,0.9785,-0.6882,1.5532
1101.5625,-8.9993,-2.2395,-1.5208,4.0756,2.3428,-11.7673,-1.0741,2.6100,-3.5126,-4.5725,-4.1828,0.7207,1.2743,1.5321,-3.8480,0.5632,1.6439,-0.6066,2.8140
1105.4688,-8.4016,-2.1782,-0.7260,5.2020,3.0508,-11.8031,0.0800,4.0037,-3.9244,-5.3797,-4.8467,1.2666,2.9105,2.6174,-4.4486,0.2607,2.4569,-0.0989,4.4835
1109.3750,-7.4609,-1.3243,0.6333,5.9568,3.6095,-10.9318,1.7454,5.2967,-3.8603,-5.9666,-4.6740,2.2167,4.2313,3.5968,-4.3599,0.6700,3.1859,0.9157,6.0888
1113.2812,-6.2410,0.3012,2.2563,6.2840,3.8631,-9.4026,3.5029,6.0593,-2.9351,-5.9170,-3.4639,3.6584,5.0964,4.1849,-3.4474,1.8967,3.7249,2.4068,7.2996
1117.1875,-4.9219,2.2693,3.7169,6.3087,3.8603,-7.9462,4.8633,6.1036,-1.1830,-5.1364,-1.4509,5.4542,5.6103,4.3715,-1.9642,3.7233,4.0794,4.1507,7.9905
1121.0938,-3.7913,3.8909,4.5784,6.1415,3.6873,-7.3806,5.4185,5.4727,0.8463,-3.9006,0.7359,7.1941,5.9121,4.3175,-0.4503,5.6674,4.2914,5.7287,8.1556
1125.0000,-3.1260,4.5388,4.5309,5.7501,3.3320,-8.1209,4.9746,4.3561,2.3364,-2.6469,2.3274,8.3140,6.0075,4.1831,0.5363,7.1643,4.3763,6.6521,7.7976
1128.9062,-3.0152,3.9686,3.5108,4.9945,2.6886,-9.9023,3.6360,3.0043,2.6641,-1.6755,2.7700,8.3466,5.7720,4.0176,0.7034,7.7874,4.3137,6.5716,6.8976
1132.8125,-3.2567,2.4406,1.7411,3.7833,1.6793,-11.8937,1.8035,1.6653,1.7706,-0.9858,1.9894,7.1678,5.0970,3.7616,0.1522,7.3994,4.0738,5.4554,5.4787
1136.7188,-3.4290,0.5578,-0.3411,2.2080,0.3646,-13.1480,0.0508,0.5275,0.1930,-0.3621,0.4114,5.0780,4.0299,3.3193,-0.7243,6.1714,3.6354,3.6235,3.6760
1140.6250,-3.1309,-1.0824,-2.2545,0.5380,-1.0636,-13.1215,-1.1104,-0.3392,-1.2740,0.3716,-1.2762,2.6565,2.7763,2.6203,-1.4992,4.4727,2.9764,1.6045,1.7260
1144.5312,-2.2446,-2.2013,-3.6633,-0.9233,-2.3990,-11.9625,-1.4846,-1.0135,-2.0578,1.1396,-2.4789,0.4707,1.5590,1.6365,-1.9525,2.7017,2.0608,-0.1045,-0.1334
1148.4375,-1.0425,-2.9169,-4.4897,-2.0059,-3.5411,-10.4065,-1.3173,-1.6718,-2.1101,1.6171,-2.9588,-1.1757,0.4587,0.3779,-2.1390,1.1444,0.8622,-1.2384,-1.7704
1152.3438,-0.0477,-3.5478,-4.8883,-2.7306,-4.5058,-9.3532,-1.1743,-2.4522,-1.8405,1.4571,-2.8619,-2.3070,-0.6219,-1.0851,-2.2548,-0.0794,-0.5693,-1.8181,-3.1788
1156.2500,0.2736,-4.2964,-5.1011,-3.2162,-5.3160,-9.3778,-1.5982,-3.3013,-1.7555,0.5732,-2.5247,-3.1322,-1.8302,-2.5715,-2.4193,-0.9771,-2.0472,-2.0495,-4.3900
1160.1562,-0.2146,-5.0470,-5.2844,-3.5166,-5.8743,-10.4516,-2.7261,-3.9218,-2.0773,-0.7354,-2.2171,-3.8179,-3.1734,-3.7674,-2.5456,-1.5945,-3.2656,-2.1565,-5.3584
1164.0625,-1.2576,-5.4270,-5.4128,-3.5269,-5.9480,-12.0082,-4.1224,-3.8908,-2.6123,-1.9213,-2.0011,-4.3450,-4.4242,-4.3000,-2.4024,-1.9394,-3.9137,-2.2558,-5.9316
1167.9688,-2.3960,-5.0839,-5.3136,-3.0402,-5.3091,-13.2882,-4.9752,-2.9082,-2.9450,-2.5010,-1.7852,-4.5379,-5.2078,-3.9087,-1.8201,-1.9585,-3.8326,-2.3341,-5.9473
1171.8750,-3.2612,-3.9748,-4.7997,-1.9180,-3.9393,-13.7492,-4.5763,-1.0247,-2.7901,-2.3371,-1.4983,-4.2227,-5.2165,-2.6255,-0.8811,-1.5783,-3.1046,-2.3067,-5.3844
1175.7812,-3.7716,-2.4518,-3.8109,-0.2469,-2.1384,-13.3128,-2.7966,1.3064,-2.2335,-1.7046,-1.2284,-3.3799,-4.3974,-0.8333,0.0575,-0.7776,-2.0054,-2.0943,-4.4355
1179.6875,-4.1083,-1.0812,-2.4750,1.6389,-0.4327,-12.3367,-0.2400,3.4106,-1.6880,-1.1083,-1.2065,-2.1822,-2.9818,0.8696,0.5410,0.3476,-0.8409,-1.6677,-3.4219
1183.5938,-4.5086,-0.3227,-1.0595,3.2964,0.6808,-11.3603,2.0527,4.7098,-1.6061,-0.9799,-1.6493,-0.9047,-1.3465,1.9465,0.2780,1.5695,0.2173,-1.0554,-2.5968
1187.5000,-5.0433,-0.2909,0.1489,4.3873,0.9960,-10.7895,3.1841,4.9902,-2.1628,-1.4468,-2.5837,0.2093,0.1849,2.1846,-0.6890,2.5778,1.1833,-0.3349,-1.9798
1191.4062,-5.5396,-0.7490,0.9660,4.8370,0.6958,-10.6978,2.9056,4.4674,-3.1267,-2.2986,-3.7873,1.0318,1.4663,1.7858,-2.0115,3.0872,2.1656,0.3791,-1.3523
1195.3125,-5.6937,-1.3127,1.3735,4.8485,0.2289,-10.8340,1.7282,3.6290,-3.9919,-3.1417,-4.8852,1.5485,2.5177,1.2339,-3.2285,2.9634,3.2168,0.9645,-0.4221
1199.2188,-5.2822,-1.6976,1.5085,4.7758,0.0511,-10.8083,0.5767,2.9664,-4.2625,-3.6253,-5.5281,1.8171,3.4270,1.0261,-3.9857,2.3143,4.2524,1.3535,0.9599
1203.1250,-4.3237,-1.8398,1.5929,4.9377,0.3979,-10.3348,0.2216,2.7608,-3.7026,-3.6061,-5.5270,1.9438,4.2617,1.4336,-4.1459,1.4937,5.1065,1.6019,2.6872
1207.0312,-3.0977,-1.8365,1.8335,5.4673,1.2134,-9.3953,0.8537,3.0227,-2.4195,-3.1855,-4.8756,2.0927,5.0512,2.4184,-3.7532,0.9908,5.6758,1.9056,4.4604
1210.9375,-2.0308,-1.8003,2.3254,6.2619,2.2484,-8.2484,2.0499,3.5762,-0.7771,-2.6318,-3.6886,2.4784,5.8181,3.7227,-2.9263,1.2329,6.0266,2.5097,5.9632
1214.8438,-1.5320,-1.7679,2.9913,7.0387,3.2333,-7.2942,3.1099,4.1982,0.7666,-2.2521,-2.1402,3.2903,6.5950,5.0422,-1.7889,2.3808,6.3666,3.5308,7.0157
1218.7500,-1.8576,-1.7311,3.5936,7.4642,4.0086,-6.8782,3.5075,4.7194,1.8061,-2.2685,-0.4571,4.5616,7.3931,6.1652,-0.4829,4.2205,6.8959,4.8012,7.6076
1222.6562,-3.0367,-1.7295,3.8351,7.3039,4.5494,-7.1345,3.1615,5.0503,2.0828,-2.7371,1.0649,6.0748,8.1549,7.0141,0.7848,6.2234,7.6557,5.8680,7.8210
1226.5625,-4.8458,-1.8856,3.5223,6.5365,4.9069,-7.9340,2.3909,5.1561,1.5442,-3.5229,2.0969,7.4084,8.7563,7.6049,1.7549,7.7663,8.5003,6.2021,7.7392
1230.4688,-6.8289,-2.3160,2.7071,5.3779,5.1306,-8.9455,1.6430,5.0232,0.3791,-4.3437,2.4046,8.1400,9.0848,7.9856,2.2234,8.4133,9.2154,5.5192,7.4239
1234.3750,-8.3871,-2.9807,1.7084,4.1908,5.2264,-9.7664,1.2127,4.6393,-1.0017,-4.8776,2.0066,8.0965,9.1376,8.1984,2.1845,8.1144,9.6850,4.0091,6.9559
1238.2812,-8.9544,-3.6113,0.9672,3.3042,5.1597,-10.0616,1.1286,3.9891,-2.0831,-4.9004,1.2335,7.4745,9.0426,8.2677,1.8865,7.2109,9.9611,2.2932,6.4590
1242.1875,-8.2256,-3.8168,0.7943,2.8268,4.8790,-9.6621,1.2296,3.0592,-2.4527,-4.3857,0.5975,6.7223,8.9533,8.1896,1.7219,6.2399,10.1707,1.1007,6.0399
1246.0938,-6.3297,-3.3249,1.1618,2.5646,4.3355,-8.5999,1.3245,1.8556,-2.0035,-3.5058,0.5139,6.2365,8.8762,7.9111,1.9967,5.6433,10.3306,0.8459,5.6682
1250.0000,-3.8278,-2.1939,1.6877,2.1121,3.4955,-7.0823,1.3030,0.4393,-1.0031,-2.5227,1.0438,6.0759,8.5687,7.3198,2.7256,5.5412,10.2316,1.3782,5.1089
1253.9062,-1.4928,-0.8259,1.8534,1.0885,2.3557,-5.4174,1.1479,-1.0373,0.0431,-1.6331,1.8438,5.9010,7.6242,6.2772,3.6025,5.6947,9.5120,2.0792,4.0118
1257.8125,0.0368,0.2512,1.3328,-0.6080,0.9652,-3.9134,0.8904,-2.3329,0.6722,-0.8694,2.3767,5.2053,5.7265,4.7023,4.1836,5.6704,7.8959,2.2533,2.1460
1261.7188,0.5388,0.6918,0.2194,-2.6828,-0.5557,-2.7802,0.5802,-3.1879,0.7168,-0.1266,2.2559,3.6986,2.9220,2.6653,4.1697,5.1072,5.4361,1.5654,-0.3624
1265.6250,0.2606,0.5186,-1.0122,-4.5487,-2.0193,-2.0683,0.2943,-3.4476,0.3655,0.7072,1.4903,1.5787,-0.2864,0.4290,3.5983,3.9299,2.5802,0.2433,-2.9763
1269.5312,-0.2862,0.0567,-1.7988,-5.5986,-3.2027,-1.6723,0.1436,-3.1623,-0.0079,1.6162,0.4596,-0.5059,-3.1145,-1.6061,2.8145,2.3974,-0.0056,-1.0754,-4.9535
1273.4375,-0.6537,-0.3283,-1.8488,-5.4954,-3.8979,-1.4038,0.2325,-2.5818,-0.1275,2.4240,-0.3605,-1.8017,-4.8576,-3.0357,2.2397,0.9685,-1.7526,-1.7421,-5.7127
1277.3438,-0.6999,-0.4916,-1.3261,-4.3161,-3.9621,-1.1003,0.5747,-2.0216,-0.0100,2.8912,-0.7271,-1.8921,-5.2234,-3.6005,2.0944,0.0705,-2.4475,-1.4797,-5.1386
1281.2500,-0.6060,-0.5800,-0.7332,-2.4855,-3.3583,-0.7143,1.0342,-1.6744,0.0585,2.8717,-0.7798,-0.9541,-4.4419,-3.2742,2.2592,-0.1014,-2.2774,-0.5173,-3.6341
1285.1562,-0.6865,-0.8740,-0.5757,-0.5646,-2.1835,-0.3307,1.3601,-1.4959,-0.2614,2.4076,-0.9109,0.3346,-3.0996,-2.2559,2.3628,0.3444,-1.6570,0.5765,-1.8943
1289.0625,-1.1473,-1.5377,-1.0423,0.9718,-0.6778,-0.1054,1.3192,-1.2592,-1.1155,1.6973,-1.4584,1.1780,-1.8172,-0.8839,2.0333,1.0744,-0.9709,1.2251,-0.5546
1292.9688,-1.9591,-2.4795,-1.9167,1.8566,0.8056,-0.1648,0.8447,-0.7493,-2.3527,0.9646,-2.4455,1.0989,-0.9702,0.4795,1.1498,1.7039,-0.4002,1.1251,0.0713
1296.8750,-2.9147,-3.4284,-2.7672,2.0325,1.8869,-0.5333,0.0915,0.0379,-3.6264,0.3361,-3.5499,0.1692,-0.5979,1.5447,-0.0602,1.9746,0.0790,0.3324,0.0332
1300.7812,-3.7982,-4.1593,-3.2618,1.5923,2.2962,-1.1312,-0.6470,0.8465,-4.6175,-0.1856,-4.3156,-1.0848,-0.5074,2.1499,-1.1298,1.8509,0.5673,-0.8475,-0.4042
1304.6875,-4.5267,-4.6799,-3.3768,0.7277,1.9996,-1.8349,-1.1092,1.3099,-5.2180,-0.6537,-4.4527,-2.0202,-0.4677,2.2747,-1.5958,1.4981,1.1003,-2.0520,-0.9603
1308.5938,-5.1646,-5.2217,-3.3599,-0.2977,1.2354,-2.5445,-1.2001,1.2014,-5.5599,-1.0931,-4.0223,-2.2419,-0.3592,2.0183,-1.2380,1.1635,1.5928,-3.0149,-1.4573
1312.5000,-5.8204,-6.0369,-3.4994,-1.1855,0.4107,-3.2041,-1.0070,0.6016,-5.8938,-1.4874,-3.3957,-1.7871,-0.2103,1.5489,-0.1915,1.0247,1.8880,-3.6271,-1.8261
1316.4062,-6.5208,-7.1569,-3.8905,-1.6888,-0.1081,-3.7655,-0.7002,-0.1457,-6.4174,-1.8466,-3.0334,-1.0492,-0.1370,1.0369,1.1126,1.0882,1.8552,-3.9230,-2.0599
1320.3125,-7.1640,-8.3063,-4.3805,-1.7257,-0.1931,-4.1406,-0.4124,-0.6641,-7.1694,-2.2754,-3.2370,-0.5200,-0.2493,0.5951,2.1397,1.1919,1.4662,-4.0413,-2.1881
1324.2188,-7.5793,-9.0534,-4.7215,-1.4461,-0.0121,-4.2044,-0.1914,-0.7986,-8.0371,-2.9486,-4.0186,-0.5190,-0.5789,0.2553,2.4837,1.1139,0.8132,-4.1801,-2.2858
1328.1250,-7.6393,-9.0983,-4.7984,-1.1751,0.1037,-3.8683,-0.0472,-0.7082,-8.8409,-3.9754,-5.1369,-1.0581,-1.0519,-0.0049,2.0347,0.7247,0.0796,-4.5356,-2.4729
1332.0312,-7.3357,-8.4924,-4.7433,-1.2343,-0.0964,-3.1744,-0.0257,-0.7310,-9.4235,-5.2438,-6.2455,-1.8925,-1.5037,-0.2022,1.0123,0.0884,-0.5138,-5.2183,-2.8581
1335.9375,-6.7688,-7.6235,-4.8385,-1.7349,-0.5917,-2.3250,-0.2215,-1.1209,-9.6920,-6.3802,-7.0511,-2.6957,-1.7315,-0.2985,-0.1492,-0.5583,-0.7716,-6.1770,-3.4471
1339.8438,-6.0630,-6.9628,-5.2815,-2.4773,-1.0866,-1.5916,-0.7002,-1.8462,-9.6103,-6.8873,-7.4040,-3.2391,-1.5797,-0.2006,-1.0100,-0.9453,-0.5920,-7.1811,-4.0912
1343.7500,-5.2717,-6.7383,-5.9873,-3.0378,-1.2033,-1.1402,-1.3919,-2.5904,-9.1691,-6.3914,-7.2999,-3.4739,-1.0301,0.1870,-1.3241,-0.9436,-0.0236,-7.8964,-4.5382
1347.6562,-4.3339,-6.7547,-6.5841,-3.0014,-0.7405,-0.8879,-2.0562,-2.9491,-8.3599,-4.8360,-6.8198,-3.4864,-0.2470,0.8929,-1.1237,-0.6553,0.7259,-8.0274,-4.5731
1351.5625,-3.1080,-6.4869,-6.6155,-2.2059,0.1805,-0.5113,-2.3776,-2.6813,-7.1639,-2.4953,-6.0503,-3.3801,0.4689,1.8380,-0.6430,-0.3529,1.3597,-7.4503,-4.1508
1355.4688,-1.4684,-5.3981,-5.8205,-0.8499,1.1788,0.3638,-2.1440,-1.8490,-5.5607,0.1867,-5.0288,-3.1754,0.8202,2.8505,-0.1336,-0.2973,1.6275,-6.2639,-3.4231
1359.3750,0.5776,-3.2955,-4.3130,0.5953,1.8368,1.8886,-1.3955,-0.7693,-3.5652,2.7968,-3.7452,-2.7980,0.6742,3.7170,0.3037,-0.5588,1.4552,-4.7384,-2.6411
1363.2812,2.8040,-0.5115,-2.5508,1.6134,1.9262,3.8079,-0.4373,0.1667,-1.2950,5.0389,-2.2108,-2.1609,0.1446,4.2377,0.7453,-0.9671,0.9824,-3.2088,-2.0099
1367.1875,4.7595,2.1950,-1.1205,1.8789,1.4937,5.5038,0.2990,0.6836,0.9629,6.6704,-0.5645,-1.2766,-0.4702,4.2644,1.3059,-1.2324,0.4702,-1.9783,-1.6085
1371.0938,5.8729,3.9656,-0.4618,1.3857,0.7798,6.2683,0.4668,0.7174,2.7501,7.3978,0.8628,-0.3100,-0.8592,3.7316,1.9384,-1.1548,0.1360,-1.2660,-1.4170
1375.0000,5.6635,4.2294,-0.6767,0.4227,0.0625,5.6619,-0.0315,0.3980,3.5602,6.8943,1.6079,0.4795,-0.8656,2.6982,2.3431,-0.7722,0.0294,-1.1834,-1.3955
1378.9062,3.9872,2.9581,-1.5020,-0.5662,-0.4504,3.7553,-1.0079,-0.0340,3.0732,4.9965,1.2839,0.8825,-0.5349,1.3884,2.0987,-0.3348,0.0418,-1.7053,-1.5163
1382.8125,1.1986,0.6752,-2.4437,-1.1639,-0.6298,1.1187,-2.0833,-0.3207,1.3905,1.9626,-0.1492,0.8776,-0.0237,0.1811,0.9613,-0.1233,0.0366,-2.6367,-1.7123
1386.7188,-1.8891,-1.7743,-3.0032,-1.1380,-0.3897,-1.4331,-2.8529,-0.2699,-0.8955,-1.4356,-2.2302,0.6611,0.5450,-0.5028,-0.8679,-0.2450,-0.0096,-3.6242,-1.8095
1390.6250,-4.2821,-3.5822,-2.9025,-0.5282,0.2989,-3.1966,-3.0480,0.1708,-2.9009,-4.1377,-4.1146,0.5350,1.1508,-0.4008,-2.7283,-0.5606,0.0221,-4.2591,-1.5610
1394.5312,-5.2232,-4.3027,-2.2195,0.3621,1.3231,-3.8532,-2.6376,0.8635,-3.8582,-5.2720,-4.9672,0.7140,1.8148,0.4048,-3.8073,-0.7974,0.2748,-4.2626,-0.8183
1398.4375,-4.5452,-4.0067,-1.3634,1.0826,2.3583,-3.5416,-1.8381,1.4996,-3.5158,-4.6132,-4.4310,1.1778,2.4787,1.4617,-3.6122,-0.7596,0.7504,-3.6524,0.2692
1402.3438,-2.7580,-3.2035,-0.8803,1.2406,2.9417,-2.7233,-1.0205,1.7308,-2.2730,-2.7184,-2.8723,1.6793,2.9603,2.1597,-2.3004,-0.4700,1.2494,-2.7632,1.2213
1406.2500,-0.7978,-2.5666,-1.1494,0.7208,2.7305,-1.9334,-0.5329,1.3857,-0.9386,-0.6296,-1.2008,1.9158,3.0693,2.1025,-0.6273,-0.1265,1.5000,-2.0650,1.4727
1410.1562,0.4392,-2.5896,-2.1171,-0.1944,1.8136,-1.5379,-0.4995,0.6561,-0.2406,0.6896,-0.3277,1.7629,2.8167,1.4188,0.4941,0.0954,1.4035,-1.8602,0.7918
1414.0625,0.5269,-3.3313,-3.2315,-0.9035,0.8383,-1.5935,-0.7052,0.1025,-0.3889,0.8358,-0.5854,1.4135,2.5381,0.7804,0.5555,0.2369,1.2049,-2.0539,-0.4198
1417.9688,-0.3396,-4.3773,-3.6685,-0.7695,0.7746,-1.8544,-0.6633,0.4083,-0.9763,0.0784,-1.4951,1.3152,2.7749,1.0559,-0.2273,0.5821,1.4236,-2.1707,-1.2252
1421.8750,-1.5437,-5.0441,-2.7728,0.5149,2.3682,-1.9158,0.1146,1.9724,-1.2828,-0.9327,-2.0643,1.9259,3.9320,2.7683,-1.0558,1.4731,2.5403,-1.6415,-0.6778
1425.7812,-2.4619,-4.7348,-0.4851,2.6829,5.5828,-1.4383,1.7697,4.5717,-0.7796,-1.6351,-1.4421,3.4247,5.9260,5.6866,-1.0690,3.0386,4.6309,-0.1965,1.5223
1429.6875,-2.8272,-3.2680,2.5118,4.9410,9.4045,-0.3579,3.8810,7.3241,0.5083,-1.8751,0.4956,5.5536,8.0947,8.8326,0.1008,5.0369,7.2064,1.8952,4.6916
1433.5938,-2.8214,-1.0054,5.0640,6.3181,12.2100,1.0283,5.5676,9.0316,2.0241,-1.8888,3.0301,7.6933,9.4934,10.9386,2.1005,6.9422,9.4012,3.9159,7.4344
1437.5000,-2.8561,1.3008,6.1217,6.1489,12.5506,2.1761,5.9112,8.7506,3.0615,-2.0088,5.0453,9.1414,9.4298,11.1006,4.1017,8.2299,10.4210,5.0865,8.4134
1441.4062,-3.2097,2.8741,5.3048,4.4235,9.9255,2.5831,4.4861,6.2803,3.2357,-2.3419,5.7382,9.4441,7.8977,9.2394,5.3429,8.6693,9.9749,5.0150,7.1471
1445.3125,-3.7747,3.3056,3.1199,1.7996,5.0865,2.1122,1.6722,2.2931,2.7183,-2.6588,5.1180,8.6054,5.6062,6.0937,5.5995,8.4264,8.4169,3.9232,4.3085
1449.2188,-4.0975,2.7588,0.6854,-0.7323,-0.3181,1.1467,-1.4725,-1.9708,2.0818,-2.5610,3.9577,7.0682,3.5592,2.7701,5.2715,7.9132,6.5046,2.5040,1.3106
1453.1250,-3.6900,1.8719,-0.8841,-2.3433,-4.5588,0.4367,-3.7406,-5.2726,1.8792,-1.7829,3.2445,5.4856,2.4494,0.1470,5.0548,7.5017,4.9395,1.5018,-0.5617
1457.0312,-2.4111,1.4011,-1.0714,-2.7429,-6.6299,0.6769,-4.4057,-6.8970,2.2614,-0.4059,3.5169,4.4095,2.2669,-1.4997,5.4391,7.3075,3.9845,1.2822,-0.9029
1460.9375,-0.6528,1.8027,-0.1810,-2.2418,-6.6024,2.0499,-3.5742,-6.8649,2.9015,1.1615,4.5456,4.0543,2.3814,-2.4527,6.3855,7.1891,3.3972,1.6587,-0.3371
1464.8438,0.8143,2.9865,0.9250,-1.4979,-5.3763,4.0338,-2.0512,-5.7723,3.2682,2.4083,5.5627,4.2481,2.0306,-3.1872,7.3906,6.9375,2.6936,2.0711,0.0086
1468.7500,1.2755,4.3860,1.3931,-1.1169,-4.0517,5.6468,-0.8196,-4.3983,3.0487,2.9976,5.8568,4.5803,0.8726,-3.9733,7.8685,6.4950,1.5456,1.9860,-0.6794
1472.6562,0.5335,5.3072,0.8910,-1.3466,-3.3316,6.0245,-0.4708,-3.3282,2.4192,2.9273,5.3038,4.6585,-0.7770,-4.7214,7.5712,6.0296,0.0403,1.2558,-2.3541
1476.5625,-0.8926,5.3525,-0.2361,-2.0151,-3.2907,4.9894,-0.9353,-2.7779,1.9723,2.5043,4.4618,4.3343,-2.1713,-5.1359,6.7567,5.8113,-1.3590,0.2151,-4.1839
1480.4688,-1.9812,4.6672,-1.2308,-2.7086,-3.5653,3.2362,-1.6434,-2.6536,2.3458,2.1793,4.1748,3.7787,-2.6459,-5.0157,6.0056,5.9913,-2.1019,-0.5323,-5.1582
1484.3750,-1.7488,3.8543,-1.4143,-3.0478,-3.7485,1.9762,-1.9592,-2.7434,3.7914,2.3413,4.9694,3.3631,-2.0553,-4.4500,5.8297,6.4563,-1.8920,-0.4904,-4.7824
1488.2812,0.1733,3.6022,-0.5897,-2.8915,-3.6851,2.2275,-1.5779,-2.8859,5.9567,3.1590,6.6559,3.4110,-0.8435,-3.7653,6.3383,6.8689,-0.8643,0.4215,-3.3889
1492.1875,3.2585,4.2458,0.8701,-2.3659,-3.4896,4.1783,-0.6430,-3.0238,8.0129,4.5059,8.3934,3.9566,0.2724,-3.2822,7.1725,6.8611,0.4890,1.8076,-1.8875
1496.0938,6.2802,5.5287,2.2665,-1.7365,-3.3389,7.0258,0.4364,-3.1483,9.0525,5.9754,9.1614,4.6583,0.7581,-3.0828,7.7207,6.2391,1.5760,3.0018,-1.1663
1500.0000,7.8975,6.7192,2.9752,-1.2250,-3.2490,9.4007,1.2849,-3.2153,8.5298,6.9889,8.3272,4.9366,0.5431,-2.9679,7.4580,5.0619,1.9815,3.4131,-1.5604
1503.9062,7.3232,7.0209,2.7576,-0.8859,-3.0249,10.1225,1.7520,-3.1170,6.5164,6.9913,5.9713,4.2826,-0.0353,-2.6296,6.2003,3.5600,1.6195,2.8161,-2.7143
1507.8125,4.7134,6.0384,1.8298,-0.6057,-2.4162,8.8314,1.8945,-2.7350,3.6557,5.6920,2.8121,2.5753,-0.5320,-1.8985,4.1552,1.9832,0.7126,1.4449,-3.8680
1511.7188,1.0740,4.0231,0.6913,-0.2069,-1.3457,6.1315,1.8245,-2.0358,0.8670,3.2547,-0.1730,0.2232,-0.6906,-0.8786,1.7902,0.5045,-0.3494,-0.1395,-4.3241
1515.6250,-2.2500,1.7554,-0.1554,0.4165,-0.0232,3.1960,1.5843,-1.1332,-1.0415,0.3167,-2.1848,-1.9737,-0.5293,0.1242,-0.3680,-0.7618,-1.1788,-1.3195,-3.7857
1519.5312,-4.2133,0.1308,-0.4353,1.2147,1.1473,1.1087,1.1484,-0.2645,-1.6731,-2.2228,-2.8776,-3.1890,-0.1981,0.8184,-1.8990,-1.6774,-1.5123,-1.6876,-2.3990
1523.4375,-4.4947,-0.3085,-0.1800,1.9966,1.8064,0.3429,0.5229,0.3193,-1.1404,-3.5837,-2.3911,-2.9795,0.2326,1.1231,-2.5812,-2.0482,-1.2606,-1.1872,-0.5602
1527.3438,-3.5155,0.3655,0.3462,2.5328,1.8589,0.6456,-0.1771,0.4931,0.0552,-3.4740,-1.2017,-1.5155,0.8572,1.2135,-2.4277,-1.7114,-0.4959,-0.0804,1.3286
1531.2500,-2.0970,1.5439,0.8110,2.6916,1.5289,1.3231,-0.7588,0.3465,1.2841,-2.2388,0.0925,0.4985,1.8286,1.3963,-1.6833,-0.6969,0.5974,1.2186,2.9957
1535.1562,-0.9932,2.4345,0.9801,2.5307,1.2244,1.6914,-1.0701,0.1653,2.0677,-0.6860,0.9680,2.1794,3.1623,1.9188,-0.7657,0.6715,1.7923,2.3492,4.3037
1539.0625,-0.5592,2.4811,0.8201,2.2923,1.3090,1.4127,-1.0951,0.3040,2.2527,0.3353,1.1235,2.9084,4.6342,2.8408,-0.1260,1.8541,2.8889,3.1480,5.1998
1542.9688,-0.6934,1.6230,0.5034,2.2935,1.9237,0.5699,-0.9332,1.0067,2.0142,0.3752,0.5664,2.6276,5.8751,4.0319,-0.0484,2.3517,3.7659,3.6679,5.6936
1546.8750,-1.0142,0.2809,0.3212,2.7651,2.9499,-0.4833,-0.6752,2.2677,1.6987,-0.4029,-0.3887,1.8346,6.6030,5.2609,-0.4836,1.9967,4.3947,4.0797,5.8734
1550.7812,-1.1189,-0.8929,0.5382,3.7197,4.1030,-1.3471,-0.2897,3.8082,1.5995,-1.3552,-1.2414,1.2857,6.8139,6.2898,-1.0399,1.0836,4.8074,4.5220,5.9026
1554.6875,-0.7765,-1.3459,1.2504,4.9260,5.0768,-1.7428,0.3680,5.1883,1.7856,-1.7560,-1.5324,1.5735,6.7762,6.9156,-1.1879,0.2259,5.0405,4.9904,5.9525
1558.5938,0.0072,-0.8688,2.3190,6.0092,5.6544,-1.5774,1.4132,6.0055,2.0795,-1.2280,-1.0823,2.8070,6.8245,6.9703,-0.5930,0.0027,5.0880,5.3333,6.0945
1562.5000,1.0275,0.3514,3.4243,6.6371,5.7548,-0.9405,2.7710,6.0834,2.1913,0.0423,-0.1052,4.5640,7.1006,6.3353,0.6221,0.6083,4.9001,5.3586,6.2419
1566.4062,1.9652,1.8634,4.2304,6.6961,5.4354,-0.0730,4.1451,5.5576,1.9251,1.4226,0.8972,6.1375,7.4404,5.0066,1.8811,1.7293,4.4310,4.9893,6.2095
1570.3125,2.4869,3.1813,4.5800,6.3639,4.8766,0.6831,5.1701,4.8155,1.3299,2.2091,1.4263,6.9381,7.4994,3.1826,2.4666,2.7388,3.7111,4.3692,5.8738
1574.2188,2.3534,3.9924,4.6063,6.0354,4.3551,0.9705,5.6482,4.3196,0.6990,2.0339,1.2981,6.8307,7.0350,1.2961,1.9750,3.0944,2.8953,3.8429,5.3222
1578.1250,1.5268,4.2513,4.6776,6.1302,4.1792,0.5326,5.6881,4.3991,0.4162,1.0701,0.7732,6.2152,6.1460,-0.0737,0.6266,2.6880,2.2529,3.8015,4.8686
1582.0312,0.2292,4.1301,5.1855,6.8769,4.5777,-0.6870,5.6226,5.1077,0.7402,-0.0802,0.4067,5.8016,5.2918,-0.4020,-0.7941,1.9250,2.0912,4.4689,4.8995
1585.9375,-1.1045,3.8714,6.2844,8.1816,5.5756,-2.5249,5.7505,6.2118,1.6585,-0.7451,0.6962,6.1957,5.0633,0.5617,-1.3703,1.4795,2.6447,5.7481,5.6369
1589.8438,-1.9951,3.6328,7.7428,9.6502,6.9320,-4.6743,6.0928,7.3101,2.8938,-0.5751,1.7476,7.5305,5.8450,2.6728,-0.6085,1.8797,3.9761,7.2281,6.9759
1593.7500,-2.1419,3.4174,9.0150,10.7595,8.2056,-6.8105,6.3582,8.0256,4.0555,0.2623,3.1791,9.3583,7.5782,5.4444,1.2281,3.1881,5.9330,8.3653,8.5129
1597.6562,-1.5760,3.1292,9.5161,11.0997,8.9459,-8.6779,6.1634,8.1805,4.8383,1.1997,4.3356,10.8799,9.7702,8.2471,3.2325,4.9737,8.1794,8.7566,9.7564
1601.5625,-0.6404,2.7121,8.9579,10.5727,8.9204,-10.0919,5.3572,7.8716,5.1542,1.6278,4.6855,11.3915,11.7363,10.5527,4.3642,6.5861,10.2918,8.3550,10.3926
1605.4688,0.2038,2.2712,7.5484,9.4512,8.2484,-10.8854,4.2079,7.4105,5.1306,1.2767,4.1501,10.6907,12.9268,12.0997,4.0528,7.5460,11.8864,7.5052,10.4417
1609.3750,0.6310,2.0766,5.9264,8.2663,7.3525,-10.8858,3.2969,7.1578,4.9953,0.3901,3.1588,9.2025,13.1545,12.9140,2.5325,7.7994,12.7309,6.7684,10.2164
1613.2812,0.6073,2.4244,4.8530,7.5740,6.7415,-9.9848,3.1727,7.3328,4.9312,-0.4173,2.3952,7.7416,12.6186,13.2045,0.7069,7.6802,12.8036,6.6270,10.1164
1617.1875,0.3568,3.4311,4.8235,7.7075,6.7423,-8.2710,3.9939,7.9002,4.9855,-0.5308,2.3920,7.0513,11.7429,13.2142,-0.3669,7.6272,12.2795,7.2309,10.3900
1621.0938,0.1707,4.8986,5.8170,8.6315,7.3326,-6.1144,5.4061,8.5977,5.0725,0.2894,3.2217,7.3937,10.9445,13.1106,-0.0637,7.8572,11.4506,8.3255,10.9975
1625.0000,0.1969,6.3553,7.3189,9.9635,8.1640,-4.0947,6.7386,9.0939,5.0429,1.7593,4.4583,8.4314,10.4554,12.9594,1.4935,8.2190,10.6140,9.3932,11.6420
1628.9062,0.3485,7.2696,8.5956,11.1490,8.7550,-2.7655,7.3905,9.1859,4.7623,3.2325,5.4170,9.4575,10.2648,12.7600,3.5429,8.3199,9.9692,9.9205,11.9305
1632.8125,0.3813,7.3148,9.0591,11.7021,8.7359,-2.3758,7.1529,8.9162,4.1561,4.0668,5.5169,9.8130,10.1710,12.4945,5.1225,7.8280,9.5639,9.6331,11.5662
1636.7188,0.0787,6.5264,8.5204,11.3973,8.0103,-2.7238,6.2715,8.5304,3.2163,3.9700,4.5615,9.2277,9.8905,12.1449,5.5689,6.7355,9.3038,8.5754,10.4743
1640.6250,-0.5819,5.2582,7.2115,10.3281,6.7592,-3.2518,5.2378,8.2959,2.0002,3.1271,2.8041,7.8918,9.1713,11.6727,4.8062,5.4012,9.0165,7.0194,8.8137
1644.5312,-1.3814,3.9770,5.5981,8.8191,5.3126,-3.3384,4.4720,8.2961,0.6403,2.0593,0.8002,6.2599,7.8813,10.9944,3.3101,4.3465,8.5397,5.2903,6.8876
1648.4375,-1.9485,3.0311,4.1169,7.2502,3.9785,-2.6186,4.1101,8.3424,-0.6443,1.3284,-0.8450,4.7560,6.0634,9.9917,1.8181,3.9426,7.7984,3.6346,5.0103
1652.3438,-1.9340,2.5294,2.9919,5.8828,2.9255,-1.1491,4.0029,8.0718,-1.5749,1.2710,-1.7035,3.5867,3.9452,8.5756,0.9683,4.1947,6.8390,2.1960,3.3922
1656.2500,-1.1849,2.3742,2.2034,4.7678,2.1594,0.6611,3.8787,7.1774,-1.9067,1.8938,-1.6486,2.7529,1.8907,6.7733,1.0431,4.7550,5.8079,1.0708,2.0859
1660.1562,0.1543,2.3824,1.5831,3.7624,1.5735,2.2844,3.5218,5.6199,-1.5654,2.9356,-0.8660,2.1883,0.2870,4.7793,1.9008,5.1419,4.8819,0.3526,1.0086
1664.0625,1.6570,2.3878,0.9459,2.6352,1.0212,3.3217,2.8460,3.6754,-0.7478,4.0107,0.2238,1.8708,-0.6022,2.9201,3.0834,5.0149,4.1802,0.1017,0.0252
1667.9688,2.7555,2.2687,0.1786,1.2059,0.3734,3.6344,1.8541,1.7810,0.1067,4.7416,1.1036,1.8078,-0.7544,1.5287,4.0272,4.3373,3.7009,0.2600,-0.9492
1671.8750,2.9783,1.9309,-0.7326,-0.5366,-0.4459,3.3341,0.5678,0.2831,0.5054,4.8505,1.3405,1.9346,-0.4048,0.7900,4.2951,3.3492,3.3209,0.6069,-1.8739
1675.7812,2.1990,1.3165,-1.7092,-2.3818,-1.4308,2.6859,-0.9797,-0.7393,0.1781,4.2333,0.7694,2.0590,0.0684,0.6483,3.7540,2.3997,2.8689,0.8383,-2.5741
1679.6875,0.7683,0.4673,-2.5908,-3.9336,-2.4687,2.0057,-2.6783,-1.4532,-0.7170,3.0269,-0.3968,1.9518,0.3450,0.8471,2.6335,1.7595,2.2426,0.7569,-2.8109
1683.5938,-0.5846,-0.4126,-3.1553,-4.7343,-3.3356,1.5817,-4.2781,-2.0741,-1.6107,1.6257,-1.6148,1.5438,0.3466,1.0899,1.4285,1.5210,1.5040,0.4488,-2.3995
1687.5000,-1.0922,-0.9916,-3.1779,-4.4443,-3.7425,1.6070,-5.4214,-2.6441,-1.7978,0.5738,-2.2449,1.0680,0.2920,1.2318,0.6621,1.6103,0.8873,0.2960,-1.3176
1691.4062,-0.3871,-0.9798,-2.5369,-3.0111,-3.4385,2.1079,-5.7865,-2.9574,-0.8465,0.3142,-1.8869,0.9893,0.5765,1.3751,0.6078,1.8683,0.6974,0.7689,0.2562
1695.3125,1.2100,-0.3496,-1.3208,-0.7437,-2.3330,2.8939,-5.2616,-2.6984,1.0976,0.9032,-0.6366,1.7170,1.5311,1.7980,1.1189,2.1350,1.1419,2.1033,2.0043
1699.2188,2.7691,0.5589,0.1503,1.7681,-0.5733,3.5910,-4.0231,-1.6972,3.3135,1.8825,0.9108,3.2763,3.1967,2.7472,1.6873,2.3029,2.1938,4.0787,3.6056
1703.1250,3.2137,1.1644,1.4411,3.8805,1.4804,3.7887,-2.4528,-0.1142,4.8512,2.4593,1.9587,5.1861,5.2509,4.2262,1.7330,2.3419,3.5723,6.0733,4.8783
1707.0312,1.9322,0.9674,2.2197,5.1720,3.3833,3.2514,-0.9415,1.5883,5.0403,1.9528,1.9613,6.6721,7.1422,5.9227,0.9755,2.3069,4.8669,7.3972,5.8461
1710.9375,-0.8257,-0.1337,2.4467,5.6242,4.7774,2.0695,0.2854,2.8811,3.8640,0.2577,0.9591,7.1085,8.3632,7.3350,-0.3456,2.3229,5.7395,7.6999,6.6846
1714.8438,-4.0430,-1.7646,2.3929,5.5904,5.5128,0.6302,1.2019,3.4488,1.9587,-1.9983,-0.4332,6.4026,8.7044,8.0275,-1.5659,2.5294,6.0830,7.1785,7.5675
1718.7500,-6.4989,-3.3189,2.4397,5.5516,5.6545,-0.6060,1.8620,3.3271,0.2261,-3.7650,-1.4077,5.0517,8.3361,7.8510,-1.9852,2.9862,6.0387,6.4251,8.4968
1722.6562,-7.4767,-4.3799,2.7719,5.7889,5.3771,-1.4005,2.2361,2.8059,-0.7167,-4.2092,-1.4927,3.8160,7.6662,6.9875,-1.3276,3.5892,5.8646,5.9978,9.2229
1726.5625,-7.1806,-5.0243,3.1703,6.1710,4.8237,-1.9108,2.1443,2.1824,-0.9070,-3.2870,-0.8899,3.2182,7.0609,5.7939,0.0272,4.0654,5.7428,6.0004,9.3189
1730.4688,-6.5895,-5.7720,3.0766,6.2006,4.0228,-2.6057,1.3609,1.5507,-0.9921,-1.8528,-0.3811,3.2084,6.6051,4.5618,1.2148,4.0858,5.6579,5.9689,8.3907
1734.3750,-6.8280,-7.1856,1.9265,5.3146,2.9211,-3.9475,-0.1757,0.7824,-1.7889,-1.1808,-0.8359,3.2276,6.0598,3.3640,1.3872,3.4566,5.4284,5.1646,6.3200
1738.2812,-8.4374,-9.3760,-0.4375,3.2675,1.5064,-6.0250,-2.2003,-0.2930,-3.7184,-2.1623,-2.6200,2.6298,5.0492,2.0955,0.2458,2.2749,4.8669,3.1015,3.3996
1742.1875,-10.9904,-11.7635,-3.5472,0.3640,-0.0688,-8.3740,-4.1434,-1.6537,-6.4673,-4.6797,-5.2803,1.1768,3.3623,0.6679,-1.7312,0.9370,3.9547,-0.0382,0.2722
1746.0938,-13.2811,-13.2891,-6.4497,-2.6129,-1.4611,-10.1195,-5.3545,-2.9863,-9.0875,-7.5728,-7.7210,-0.7314,1.1721,-0.8005,-3.5235,-0.0315,2.9061,-3.3845,-2.3148
1750.0000,-13.9703,-12.9753,-8.1519,-4.7528,-2.2495,-10.3876,-5.4046,-3.8125,-10.4759,-9.2530,-8.7781,-2.2501,-0.9788,-1.9589,-4.1377,-0.2375,2.0702,-5.7889,-3.8171
1753.9062,-12.3089,-10.5012,-8.1125,-5.4545,-2.1412,-8.7709,-4.2907,-3.7703,-9.9494,-8.6046,-7.8482,-2.5835,-2.4340,-2.4049,-3.1669,0.3825,1.7337,-6.4228,-4.1013
1757.8125,-8.5405,-6.4360,-6.4906,-4.7032,-1.1553,-5.5910,-2.4215,-2.8642,-7.5842,-5.6348,-5.2016,-1.4651,-2.7716,-1.9574,-1.0039,1.5495,1.9531,-5.2067,-3.4479
1761.7188,-3.7879,-1.9886,-4.0115,-3.0460,0.3259,-1.8095,-0.4027,-1.5135,-4.1488,-1.4845,-1.8106,0.6725,-2.0359,-0.8300,1.4119,2.8151,2.5253,-2.8263,-2.3615
1765.6250,0.4828,1.5744,-1.5552,-1.2984,1.6853,1.3784,1.2448,-0.3657,-0.7020,2.1894,1.1759,2.9275,-0.7121,0.4291,3.1402,3.8074,3.1132,-0.3504,-1.3142
1769.5312,3.1257,3.5076,0.2683,-0.1619,2.3246,3.0696,2.2746,0.0128,1.8912,4.0815,2.9837,4.4011,0.5381,1.2084,3.7364,4.3939,3.4385,1.3024,-0.5730
1773.4375,3.7867,3.8531,1.3102,0.0416,1.9222,3.0415,2.7324,-0.6112,3.2667,3.8537,3.4869,4.6281,1.2149,1.1508,3.4041,4.6770,3.4181,1.7425,-0.1930
1777.3438,2.9885,3.2959,1.7736,-0.5850,0.5699,1.8219,2.8306,-2.0678,3.5745,2.1900,3.1001,3.7373,1.1938,0.3239,2.7476,4.8503,3.1638,1.1591,-0.1356
1781.2500,1.8284,2.7409,1.9422,-1.6558,-1.2761,0.4094,2.7914,-3.8959,3.2654,0.3267,2.4296,2.2970,0.7051,-0.8542,2.3249,5.0326,2.8619,0.0835,-0.3903
1785.1562,1.4446,2.8664,1.9701,-2.7053,-2.9955,-0.2176,2.7561,-5.5381,2.8217,-0.6162,1.9327,0.9810,0.1223,-1.8691,2.3080,5.1910,2.6257,-0.9405,-0.9879
1789.0625,2.4897,3.8701,1.8739,-3.3381,-4.0570,0.4338,2.7900,-6.5079,2.5817,-0.1263,1.7792,0.2594,-0.2794,-2.3770,2.4649,5.1896,2.4253,-1.5781,-1.8969
1792.9688,4.8361,5.4797,1.6858,-3.2891,-4.2034,2.1503,2.9346,-6.4813,2.7018,1.6001,1.9317,0.2601,-0.4407,-2.3297,2.4381,4.9121,2.1377,-1.7366,-2.8990
1796.8750,7.6442,7.1614,1.5965,-2.4365,-3.5014,4.1419,3.2377,-5.3401,3.2018,3.9049,2.3186,0.8230,-0.4570,-1.9142,2.0993,4.3697,1.6767,-1.4670,-3.5769
1800.7812,9.7709,8.3913,1.9279,-0.8206,-2.2559,5.4473,3.7239,-3.2098,4.0168,6.0522,2.9425,1.6661,-0.4185,-1.3840,1.7154,3.7333,1.1077,-0.8528,-3.4729
1804.6875,10.3311,8.8679,2.9201,1.3222,-0.8575,5.4059,4.3325,-0.4928,5.0171,7.5272,3.8536,2.5491,-0.2918,-0.9101,1.8050,3.2811,0.6628,0.0287,-2.3479
1808.5938,9.1386,8.5971,4.4820,3.5594,0.3574,3.9503,4.8807,2.1595,6.0195,8.1450,5.0395,3.3588,0.0599,-0.5353,2.7812,3.2960,0.6362,1.0777,-0.3805
1812.5000,6.7906,7.8391,6.1054,5.3498,1.1755,1.5759,5.1014,3.9946,6.8244,7.9998,6.3405,4.0980,0.7364,-0.2263,4.6236,3.9515,1.2130,2.1355,1.8394
1816.4062,4.3454,6.9511,7.0466,6.2170,1.5007,-0.9741,4.7482,4.4162,7.2847,7.3499,7.4680,4.8110,1.6521,0.0444,6.8034,5.2188,2.3277,2.9980,3.5432
1820.3125,2.7692,6.1977,6.6936,5.9342,1.3106,-3.1117,3.7170,3.2447,7.3629,6.5139,8.1168,5.4956,2.5039,0.2552,8.5201,6.8239,3.6390,3.4791,4.1232
1824.2188,2.4636,5.6184,4.9024,4.6167,0.6262,-4.6581,2.1164,0.8328,7.1293,5.7968,8.0940,6.0484,2.8975,0.3473,9.1080,8.2897,4.6480,3.4800,3.3921
1828.1250,3.1384,5.0257,2.0947,2.6586,-0.4798,-5.8187,0.2479,-2.0555,6.6912,5.4233,7.3861,6.2733,2.5592,0.2634,8.3727,9.0843,4.9160,3.0126,1.6254
1832.0312,4.0706,4.1424,-0.9455,0.5482,-1.8482,-6.9341,-1.4955,-4.5624,6.0984,5.4687,6.1355,5.9562,1.5018,-0.0221,6.6640,8.8442,4.2818,2.1667,-0.6134
1835.9375,4.5567,2.7989,-3.4570,-1.3331,-3.2126,-8.2011,-2.7690,-6.0913,5.2960,5.8076,4.5586,4.9748,0.0362,-0.4952,4.6600,7.5764,2.9672,1.0492,-2.7485
1839.8438,4.2584,1.0677,-5.0427,-2.8200,-4.2377,-9.5577,-3.3959,-6.5113,4.1621,6.1252,2.8615,3.3902,-1.3803,-1.1000,3.0024,5.7102,1.5049,-0.2618,-4.4110
1843.7500,3.2514,-0.7610,-5.7893,-3.9373,-4.6251,-10.7927,-3.4232,-6.1149,2.6080,6.0163,1.1908,1.4641,-2.3678,-1.7332,1.9953,3.9279,0.5025,-1.7222,-5.5084
1847.6562,1.8145,-2.3486,-6.1232,-4.7841,-4.2483,-11.7659,-3.0935,-5.3806,0.6727,5.1509,-0.3735,-0.4187,-2.7930,-2.2488,1.5220,2.8291,0.3489,-3.2933,-6.1531
1851.5625,0.1746,-3.5022,-6.5143,-5.4203,-3.2432,-12.5476,-2.7410,-4.6974,-1.4488,3.4403,-1.7976,-1.8905,-2.7975,-2.4986,1.1968,2.6099,1.0070,-4.9022,-6.5298
1855.4688,-1.5776,-4.2478,-7.1996,-5.8240,-1.9892,-13.3544,-2.6444,-4.2104,-3.4560,1.1239,-3.0609,-2.7306,-2.6840,-2.4120,0.6378,2.9569,2.0150,-6.4116,-6.7844
1859.3750,-3.3631,-4.7266,-8.0651,-5.9267,-0.9631,-14.3253,-2.8946,-3.8480,-5.0339,-1.2800,-4.1184,-2.9194,-2.7374,-2.0708,-0.2986,3.2417,2.7092,-7.6133,-6.9730
1863.2812,-4.9363,-4.9988,-8.7181,-5.6778,-0.5255,-15.3207,-3.3388,-3.4681,-5.9376,-3.1532,-4.8776,-2.5992,-3.0799,-1.7124,-1.4437,2.9089,2.5651,-8.2562,-7.0625
1867.1875,-5.8659,-4.9261,-8.6945,-5.0880,-0.7462,-15.9253,-3.6427,-2.9979,-6.0466,-4.0261,-5.2098,-1.9844,-3.6297,-1.6282,-2.4204,1.8181,1.4714,-8.1178,-6.9619
1871.0938,-5.7554,-4.2593,-7.6981,-4.2343,-1.3741,-15.6908,-3.4608,-2.4764,-5.4039,-3.7900,-5.0183,-1.2899,-4.1698,-1.9959,-2.8570,0.3153,-0.2180,-7.1150,-6.5748
1875.0000,-4.5691,-2.8968,-5.7774,-3.2460,-1.9786,-14.4717,-2.6430,-1.9940,-4.2491,-2.7743,-4.3463,-0.7194,-4.4822,-2.7527,-2.5965,-1.0095,-1.8877,-5.4169,-5.8716
1878.9062,-2.8076,-1.1272,-3.3735,-2.2945,-2.1962,-12.6200,-1.3667,-1.6063,-3.0280,-1.6399,-3.4648,-0.4914,-4.4751,-3.6088,-1.8033,-1.7178,-3.0052,-3.4906,-4.9619
1882.8125,-1.3560,0.3539,-1.2148,-1.5850,-1.9415,-10.8825,-0.1056,-1.2987,-2.3287,-1.1195,-2.8626,-0.8434,-4.2418,-4.2111,-0.9237,-1.8053,-3.4003,-2.0136,-4.1194
1886.7188,-1.0574,0.7261,-0.0759,-1.3239,-1.4579,-10.0401,0.5733,-1.0279,-2.7112,-1.7124,-3.0951,-1.9668,-4.0207,-4.3635,-0.5169,-1.6893,-3.3176,-1.6481,-3.7158
1890.6250,-2.2673,-0.5160,-0.4756,-1.6453,-1.1710,-10.4999,0.2924,-0.7917,-4.4706,-3.4739,-4.5345,-3.8884,-4.0766,-4.1543,-1.0271,-1.9235,-3.2198,-2.7578,-4.0626
1894.5312,-4.6709,-3.2393,-2.4351,-2.5266,-1.4326,-12.0864,-0.9283,-0.6607,-7.4474,-5.9987,-7.1432,-6.3814,-4.5598,-3.8983,-2.5852,-2.8415,-3.4748,-5.2135,-5.2354
1898.4375,-7.4705,-6.6873,-5.4213,-3.7532,-2.3082,-14.1496,-2.6608,-0.7372,-11.0160,-8.6046,-10.4059,-8.9889,-5.4161,-3.9270,-4.9252,-4.3616,-4.1313,-8.4092,-6.9870
1902.3438,-9.8066,-9.8425,-8.5348,-4.9852,-3.5395,-15.9111,-4.2769,-1.0748,-14.2992,-10.6230,-13.4880,-11.1806,-6.4005,-4.3680,-7.4552,-6.0596,-4.9165,-11.5055,-8.8239
1906.2500,-11.1396,-11.9219,-10.8785,-5.9091,-4.6972,-16.8350,-5.2629,-1.6234,-16.5227,-11.6512,-15.5594,-12.5675,-7.1890,-5.0618,-9.4609,-7.4259,-5.4409,-13.7795,-10.2209
1910.1562,-11.3823,-12.7039,-11.9333,-6.3906,-5.4201,-16.8179,-5.4617,-2.2455,-17.3207,-11.6528,-16.1274,-13.0470,-7.5296,-5.6671,-10.3631,-8.1213,-5.4569,-14.8965,-10.8511
1914.0625,-10.7708,-12.5078,-11.7421,-6.5228,-5.5831,-16.1287,-5.1053,-2.7926,-16.8224,-10.8846,-15.2100,-12.7864,-7.3453,-5.8718,-9.9219,-8.0806,-4.9939,-14.9585,-10.6964
1917.9688,-9.6336,-11.8784,-10.8039,-6.5290,-5.2963,-15.1823,-4.6260,-3.1825,-15.4819,-9.7222,-13.2734,-12.0624,-6.7330,-5.5591,-8.3080,-7.4516,-4.2948,-14.3310,-9.9779
1921.8750,-8.2471,-11.2162,-9.7454,-6.5823,-4.7576,-14.3094,-4.3710,-3.4233,-13.7822,-8.4975,-10.9869,-11.0730,-5.8742,-4.8276,-6.0200,-6.4688,-3.6218,-13.3829,-8.9718
1925.7812,-6.8462,-10.5997,-8.9775,-6.6736,-4.0895,-13.6480,-4.4049,-3.5747,-12.0164,-7.4265,-8.9432,-9.8622,-4.9319,-3.8808,-3.6987,-5.3755,-3.0909,-12.3174,-7.8524
1929.6875,-5.7052,-9.8883,-8.5437,-6.6322,-3.2892,-13.1763,-4.5201,-3.6872,-10.2838,-6.6263,-7.4858,-8.4110,-4.0161,-2.8983,-1.9225,-4.4197,-2.6570,-11.1888,-6.6742
1933.5938,-5.1505,-8.9819,-8.2375,-6.2931,-2.3311,-12.8137,-4.4343,-3.7722,-8.6614,-6.1618,-6.6999,-6.8208,-3.2359,-1.9952,-1.0589,-3.8589,-2.2470,-10.0531,-5.4890
1937.5000,-5.4428,-8.0111,-7.8749,-5.6844,-1.3258,-12.4995,-4.0297,-3.8214,-7.3733,-6.0560,-6.5123,-5.4267,-2.7758,-1.2824,-1.2005,-3.8982,-1.9143,-9.0981,-4.4781
1941.4062,-6.6012,-7.3020,-7.5045,-5.0786,-0.5847,-12.2028,-3.4580,-3.8435,-6.7753,-6.2490,-6.7932,-4.7156,-2.8924,-0.9320,-2.1756,-4.5655,-1.8706,-8.6175,-3.9585
1945.3125,-8.3155,-7.1388,-7.3854,-4.8386,-0.4944,-11.8851,-3.0360,-3.8694,-7.1211,-6.5516,-7.3835,-5.0576,-3.7815,-1.1395,-3.6084,-5.6196,-2.3441,-8.8199,-4.2147
1949.2188,-10.0397,-7.5072,-7.7430,-5.1425,-1.2525,-11.4686,-2.9997,-3.9050,-8.2712,-6.6598,-8.0540,-6.4072,-5.3732,-1.9629,-5.0163,-6.6019,-3.3587,-9.6047,-5.2528
1953.1250,-11.2309,-8.0183,-8.4884,-5.7782,-2.6376,-10.8485,-3.2956,-3.8682,-9.5892,-6.2605,-8.4761,-8.1864,-7.2048,-3.1496,-5.9409,-7.0467,-4.6049,-10.4829,-6.6586
1957.0312,-11.5886,-8.0892,-9.1346,-6.1763,-4.0002,-9.9464,-3.5670,-3.5745,-10.1709,-5.1913,-8.2831,-9.4708,-8.5096,-4.1179,-6.0951,-6.7362,-5.5268,-10.7429,-7.6977
1960.9375,-11.1566,-7.2772,-9.0137,-5.7003,-4.5341,-8.7713,-3.3632,-2.8166,-9.3199,-3.5650,-7.2309,-9.4164,-8.5357,-4.1812,-5.4774,-5.8246,-5.6001,-9.7964,-7.6453
1964.8438,-10.2469,-5.5607,-7.6869,-4.0387,-3.7023,-7.4507,-2.4468,-1.5097,-6.9886,-1.7788,-5.3738,-7.7014,-6.9463,-2.9296,-4.3860,-4.7303,-4.6380,-7.5127,-6.1723
1968.7500,-9.2575,-3.3923,-5.2859,-1.4571,-1.5751,-6.2118,-0.9968,0.1842,-3.8847,-0.3813,-3.1283,-4.7283,-4.0632,-0.5379,-3.2944,-3.8555,-2.9247,-4.3429,-3.5621
1972.6562,-8.5034,-1.4910,-2.5449,1.2595,1.1364,-5.3169,0.4365,1.8512,-1.1395,0.1516,-1.1422,-1.4522,-0.7795,2.2234,-2.6243,-3.3217,-1.0817,-1.1495,-0.6170
1976.5625,-8.1292,-0.4922,-0.4717,3.1649,3.3962,-4.9720,1.2110,2.9741,0.2895,-0.3692,-0.0052,1.0816,1.8451,4.3339,-2.5261,-2.9073,0.2613,1.1763,1.7060
1980.4688,-8.0981,-0.6430,0.1663,3.6191,4.3487,-5.2346,0.9421,3.1750,0.1283,-1.7394,0.0567,2.2460,3.0962,5.0572,-2.7953,-2.2297,0.7946,2.1114,2.7379
1984.3750,-8.2142,-1.6909,-0.7543,2.6131,3.7423,-5.9549,-0.2846,2.4264,-1.0939,-3.4130,-0.6780,2.1148,2.9404,4.3522,-2.9878,-1.0406,0.6649,1.7170,2.3890
1988.2812,-8.1587,-3.0052,-2.6494,0.7797,2.0425,-6.7862,-1.9617,1.1075,-2.3774,-4.6985,-1.5488,1.3790,1.9983,2.9131,-2.6763,0.5804,0.3538,0.5830,1.1506
1992.1875,-7.5701,-3.8577,-4.5281,-0.9044,0.1822,-7.2849,-3.4287,-0.1369,-2.8222,-5.0256,-1.8540,0.9595,1.1829,1.7992,-1.7023,2.2696,0.3892,-0.4571,-0.1681
1996.0938,-6.1943,-3.7337,-5.4750,-1.5635,-0.9052,-7.0839,-4.1968,-0.6776,-2.0948,-4.1820,-1.2283,1.5327,1.2197,1.8684,-0.2698,3.6236,1.0691,-0.6957,-0.8167
2000.0000,-4.0704,-2.5470,-5.0519,-0.7969,-0.7220,-6.0735,-4.1458,-0.1888,-0.5390,-2.4250,0.1507,3.2152,2.3146,3.3364,1.1707,4.4625,2.3447,0.1549,-0.4086
2003.9062,-1.6372,-0.6820,-3.4294,1.1811,0.6028,-4.4981,-3.5083,1.1964,1.0825,-0.4096,1.6471,5.5420,4.1256,5.7042,2.1705,4.9217,3.8980,1.8592,0.9671
2007.8125,0.3597,1.1526,-1.2329,3.6686,2.4367,-2.8943,-2.6862,2.9376,2.0197,1.0548,2.4934,7.7155,6.0056,8.0660,2.5032,5.3118,5.3306,3.7746,2.8385
2011.7188,1.1848,2.2087,0.7725,5.7912,3.9859,-1.8690,-2.0320,4.3271,1.8780,1.3373,2.1759,8.9704,7.3411,9.5944,2.2269,5.8532,6.3364,5.1325,4.5739
2015.6250,0.5206,2.0172,1.9855,6.8536,4.6694,-1.8073,-1.7165,4.8082,0.7164,0.2690,0.6684,8.8743,7.7964,9.9169,1.5701,6.4796,6.7761,5.3693,5.6253
2019.5312,-1.2692,0.6113,2.1453,6.5896,4.3452,-2.6548,-1.7201,4.2287,-1.0761,-1.7581,-1.5990,7.4474,7.3695,9.1962,0.7417,6.8477,6.6518,4.3705,5.7048
2023.4375,-3.2150,-1.4552,1.3584,5.2250,3.3090,-3.8999,-1.9047,2.9088,-2.9933,-3.9391,-3.9866,5.0919,6.2937,7.9225,-0.1924,6.5457,6.0425,2.5216,4.8524
2027.3438,-4.1676,-3.3227,0.0161,3.3477,2.0973,-4.7868,-2.0937,1.4882,-4.5768,-5.4009,-5.9416,2.4056,4.8950,6.5919,-1.2837,5.3612,5.0638,0.5413,3.3981
2031.2500,-3.3704,-4.1946,-1.3435,1.6552,1.2174,-4.6696,-2.1196,0.6221,-5.4891,-5.5834,-7.1721,-0.0165,3.4968,5.4811,-2.5594,3.4386,3.8705,-0.8271,1.8486
2035.1562,-0.8638,-3.6889,-2.1947,0.6916,0.9350,-3.3323,-1.8496,0.6734,-5.5302,-4.4701,-7.6276,-1.7190,2.3931,4.6306,-3.8816,1.2409,2.6710,-1.1154,0.7408
2039.0625,2.5144,-1.9986,-2.1748,0.6845,1.2090,-1.1074,-1.2170,1.5588,-4.6501,-2.5501,-7.3539,-2.4410,1.8484,3.9905,-4.9245,-0.6502,1.7122,-0.2730,0.5013
2042.9688,5.5451,0.2245,-1.1935,1.5374,1.7787,1.2743,-0.2641,2.8277,-2.9661,-0.5368,-6.3644,-2.1103,2.0712,3.5829,-5.3053,-1.7745,1.2144,1.4048,1.3407
2046.8750,7.2349,2.2020,0.5449,2.9503,2.3362,3.0343,0.8397,3.9295,-0.7500,0.9944,-4.6382,-0.8172,3.1435,3.5425,-4.7980,-1.9599,1.2826,3.4956,3.2013
2050.7812,7.2835,3.3981,2.6233,4.5813,2.6849,3.7164,1.8444,4.5151,1.6442,1.8484,-2.2420,1.2077,4.9435,4.0035,-3.5032,-1.3590,1.8433,5.6644,5.7601
2054.6875,6.1677,3.7296,4.5717,6.1519,2.8051,3.3868,2.5322,4.5979,3.8914,2.2054,0.5327,3.6111,7.1173,4.9240,-1.8667,-0.3678,2.6492,7.7404,8.4914
2058.5938,4.8223,3.5197,6.0302,7.4577,2.8080,2.5598,2.8361,4.4868,5.7815,2.3986,3.1536,5.9525,9.1422,5.9947,-0.5200,0.5245,3.3624,9.6340,10.7819
2062.5000,4.1169,3.2481,6.8412,8.3256,2.8267,1.8957,2.8821,4.5426,7.2314,2.6381,5.0105,7.7795,10.4783,6.7281,-0.0078,0.9105,3.6855,11.1957,12.0904
2066.4062,4.4287,3.2640,7.0420,8.6021,2.9228,1.8410,2.9120,4.9266,8.2331,2.8704,5.6919,8.7453,10.7627,6.7016,-0.5255,0.6177,3.4906,12.1628,12.1193
2070.3125,5.5273,3.6311,6.7954,8.2220,3.0732,2.4113,3.1293,5.5070,8.8021,2.8630,5.2191,8.7338,9.9697,5.8206,-1.7907,-0.2053,2.8885,12.2698,10.9459
2074.2188,6.7964,4.1752,6.3205,7.3270,3.2365,3.2350,3.5734,5.9838,8.9849,2.4443,4.0887,7.9333,8.4639,4.4350,-3.1223,-1.1207,2.2048,11.4593,9.0466
2078.1250,7.6269,4.6698,5.8654,6.3239,3.4431,3.8224,4.1160,6.1382,8.9140,1.7125,3.0750,6.8020,6.9010,3.2193,-3.7154,-1.5699,1.8601,10.0287,7.1734
2082.0312,7.7391,5.0155,5.7015,5.7903,3.8291,3.8901,4.5871,6.0296,8.8315,1.0471,2.8762,5.9093,5.9900,2.8619,-3.0129,-1.1322,2.1950,8.5736,6.0993
2085.9375,7.2597,5.2904,6.0856,6.2233,4.5746,3.5388,4.9386,5.9963,9.0048,0.8896,3.7782,5.7064,6.1973,3.7243,-1.0080,0.2425,3.3093,7.7176,6.3185
2089.8438,6.5460,5.6498,7.1598,7.7571,5.7734,3.1721,5.3117,6.4530,9.5447,1.4330,5.5039,6.3263,7.5239,5.6502,1.6815,2.1623,4.9937,7.7811,7.8320
2093.7500,5.9007,6.1606,8.8257,10.0247,7.3187,3.2081,5.9418,7.6177,10.2454,2.4378,7.3308,7.5205,9.4731,8.0262,4.0448,3.9525,6.7980,8.5966,10.1243
2097.6562,5.3764,6.6990,10.6884,12.2762,8.8880,3.7718,6.9507,9.3452,10.5982,3.3245,8.4269,8.7762,11.2535,10.0578,5.1401,4.9872,8.2162,9.5981,12.3606
2101.5625,4.7898,6.9888,12.1506,13.7144,10.0543,4.5744,8.1770,11.1725,10.0357,3.5115,8.2523,9.5655,12.1348,11.1106,4.5777,5.0217,8.9072,10.1342,13.7230
2105.4688,3.9238,6.7640,12.6540,13.8688,10.4710,5.0738,9.1828,12.5420,8.2977,2.7928,6.8365,9.6005,11.7857,10.9474,2.7646,4.3360,8.8382,9.8168,13.7387
2109.3750,2.7618,5.9531,11.9567,12.7966,10.0312,4.8282,9.4668,13.0628,5.6893,1.5061,4.7942,8.9596,10.4116,9.7608,0.7516,3.5925,8.2764,8.6963,12.4504
2113.2812,1.5841,4.7692,10.2888,11.0082,8.9151,3.8259,8.7665,12.6638,3.0301,0.3642,3.0546,8.0210,8.6179,8.0206,-0.2700,3.4787,7.6306,7.1832,10.3625
2117.1875,0.8463,3.6486,8.2833,9.1782,7.5054,2.5739,7.2617,11.5805,1.2798,0.0372,2.4210,7.2448,7.0770,6.2454,0.4279,4.3297,7.2335,5.7959,8.1987
2121.0938,0.9056,3.0661,6.7030,7.8258,6.2269,1.8692,5.5383,10.2197,1.0387,0.7402,3.1682,6.9318,6.1939,4.8227,2.7287,5.9436,7.1845,4.9114,6.5999
2125.0000,1.7683,3.3219,6.1054,7.1452,5.4018,2.3693,4.3210,9.0020,2.2219,2.0871,4.8864,7.0947,5.9624,3.9491,5.7228,7.6912,7.3402,4.6610,5.9004
2128.9062,3.0243,4.4039,6.6196,7.0488,5.1889,4.2075,4.1244,8.2563,4.1107,3.3070,6.6707,7.5050,6.0787,3.6758,8.1629,8.8536,7.4485,4.9875,6.0726
2132.8125,4.0197,5.9830,7.9387,7.3433,5.6151,6.8739,5.0212,8.1756,5.7494,3.6899,7.5759,7.8725,6.2195,3.9953,9.0718,8.9961,7.3387,5.7670,6.8340
2136.7188,4.1758,7.5357,9.5021,7.8906,6.6456,9.4357,6.6433,8.7979,6.4424,2.9881,7.1029,8.0388,6.2867,4.8969,8.1775,8.1754,7.0508,6.8768,7.8328
2140.6250,3.2728,8.5352,10.7466,8.6410,8.2201,10.9710,8.3903,9.9848,6.0527,1.5320,5.4506,8.0629,6.4580,6.3597,5.9698,6.8800,6.8258,8.1648,8.8010
2144.5312,1.5425,8.6313,11.2901,9.5369,10.2176,10.9812,9.6975,11.4069,4.9469,0.0043,3.3848,8.1521,7.0148,8.2945,3.3963,5.7554,6.9663,9.3753,9.5967
2148.4375,-0.4688,7.7539,10.9839,10.3849,12.3696,9.5680,10.2106,12.5766,3.6656,-0.9685,1.7940,8.4852,8.0731,10.4762,1.4044,5.2765,7.6450,10.1348,10.1375
2152.3438,-2.1800,6.1094,9.8607,10.8118,14.1974,7.3093,9.8000,12.9523,2.5625,-1.1497,1.1936,9.0451,9.4045,12.5100,0.5791,5.5428,8.7712,10.0530,10.2974
2156.2500,-3.2342,4.0829,8.0609,10.3636,15.0535,4.9345,8.4718,12.0945,1.6494,-0.7558,1.4726,9.5709,10.4765,13.8653,1.0225,6.2922,9.9853,8.9031,9.8650
2160.1562,-3.6101,2.0925,5.7970,8.7110,14.3037,2.9958,6.2902,9.8162,0.7185,-0.2428,2.0342,9.6709,10.7001,13.9924,2.4571,7.1031,10.7901,6.7760,8.6228
2164.0625,-3.5489,0.4599,3.3614,5.8577,11.6000,1.7017,3.3928,6.2689,-0.3802,0.0258,2.2317,9.0437,9.7453,12.5089,4.4274,7.6582,10.7587,4.1081,6.5177
2167.9688,-3.3667,-0.6548,1.1224,2.2372,7.1261,0.9623,0.0765,1.9360,-1.5234,0.0098,1.8158,7.6838,7.7416,9.4004,6.4727,7.9171,9.7250,1.5537,3.8153
2171.8750,-3.2680,-1.2391,-0.5414,-1.3680,1.6703,0.5666,-3.1489,-2.4634,-2.3197,-0.0086,1.1002,5.9483,5.2497,5.1424,8.2189,8.1067,7.8711,-0.2410,1.1055
2175.7812,-3.2626,-1.3655,-1.3748,-4.0776,-3.5594,0.3540,-5.6444,-6.1382,-2.3342,0.3649,0.7378,4.4244,3.0151,0.6456,9.4136,8.5360,5.6664,-0.8683,-0.8974
2179.6875,-3.2161,-1.1342,-1.3858,-5.2488,-7.3472,0.2759,-6.8730,-8.4347,-1.3865,1.3644,1.2531,3.6441,1.6264,-3.0138,9.9421,9.3425,3.6753,-0.3081,-1.6957
2183.5938,-2.9914,-0.6607,-0.9028,-4.7654,-8.9486,0.3384,-6.6710,-9.0533,0.2670,2.8906,2.6340,3.7838,1.2464,-5.0046,9.8350,10.3171,2.3120,1.0444,-1.3090
2187.5000,-2.5934,-0.1046,-0.4873,-3.1405,-8.4098,0.5018,-5.3898,-8.2007,1.9769,4.5266,4.2486,4.5137,1.5443,-5.1110,9.2414,10.9205,1.6546,2.4776,-0.3425
2191.4062,-2.2256,0.3046,-0.7125,-1.3545,-6.5531,0.6335,-3.7894,-6.5818,2.9542,5.7155,5.1449,5.1016,1.8603,-3.8531,8.3537,10.5056,1.4152,3.1702,0.2624
2195.3125,-2.2171,0.3010,-1.9012,-0.4585,-4.6043,0.5593,-2.7052,-5.1682,2.6044,6.0018,4.5579,4.7492,1.5270,-2.2543,7.3153,8.6501,1.0970,2.4656,-0.3021
2199.2188,-2.8440,-0.3126,-3.9482,-1.1013,-3.6265,0.1796,-2.6487,-4.7876,0.7878,5.2237,2.3306,3.0087,0.1990,-1.3378,6.1748,5.4342,0.2732,0.1396,-2.2674
2203.1250,-4.1377,-1.5336,-6.3285,-3.2075,-4.0403,-0.4396,-3.5626,-5.7079,-2.1031,3.5842,-0.9774,0.0614,-1.9666,-1.6100,4.9304,1.5057,-1.1557,-3.4449,-5.1297
2207.0312,-5.7942,-3.0926,-8.3014,-5.9908,-5.4761,-1.0754,-4.8673,-7.4531,-5.2744,1.5830,-4.3297,-3.3031,-4.3725,-2.8216,3.6388,-2.1246,-2.8718,-7.3963,-7.8875
2210.9375,-7.2611,-4.5166,-9.2261,-8.3274,-7.0335,-1.4639,-5.7790,-9.0019,-7.8124,-0.1644,-6.6572,-6.0226,-6.2637,-4.1553,2.4961,-4.4832,-4.2836,-10.5895,-9.5602
2214.8438,-7.9824,-5.3177,-8.8405,-9.3126,-7.7989,-1.4533,-5.7190,-9.3129,-9.0059,-1.1563,-7.2791,-7.2555,-7.0948,-4.7391,1.8018,-5.0456,-4.8382,-12.1015,-9.6987
2218.7500,-7.6859,-5.2171,-7.3676,-8.7057,-7.3339,-1.0958,-4.5902,-7.9037,-8.5907,-1.2033,-6.1290,-6.7775,-6.7929,-4.1830,1.7965,-3.9579,-4.3322,-11.5942,-8.6000
2222.6562,-6.5517,-4.2820,-5.3987,-7.0169,-5.8681,-0.6148,-2.7771,-5.1479,-6.8227,-0.5099,-3.7312,-5.0702,-5.7739,-2.8132,2.4637,-1.9549,-3.0413,-9.4474,-7.1033
2226.5625,-5.1515,-2.8945,-3.6161,-5.1876,-4.1114,-0.2691,-0.8967,-2.0933,-4.3566,0.4107,-0.9785,-3.0570,-4.6998,-1.4614,3.4424,-0.0109,-1.5858,-6.5630,-6.0973
2230.4688,-4.1779,-1.5703,-2.4996,-4.0553,-2.8198,-0.2021,0.5331,0.1046,-1.9810,0.9650,1.1873,-1.6296,-4.1121,-0.9432,4.1369,1.1023,-0.6061,-3.9379,-6.0295
2234.3750,-4.1056,-0.7297,-2.1634,-3.9199,-2.3838,-0.3762,1.3094,0.7982,-0.3260,0.7539,2.0886,-1.2268,-4.1510,-1.5528,3.9933,1.1291,-0.4332,-2.2338,-6.7036
2238.2812,-4.9772,-0.5468,-2.3940,-4.4560,-2.6725,-0.6301,1.5379,0.1440,0.3288,-0.2474,1.5290,-1.6862,-4.5216,-2.8917,2.7890,0.3635,-0.9464,-1.5676,-7.4621
2242.1875,-6.4267,-0.9444,-2.8419,-4.9980,-3.1948,-0.8147,1.4519,-1.0881,0.0742,-1.7014,-0.1565,-2.4301,-4.7199,-4.1315,0.7633,-0.5972,-1.6928,-1.6111,-7.6230
2246.0938,-7.9144,-1.7098,-3.2403,-4.9943,-3.4471,-0.9090,1.2077,-2.0460,-0.7670,-3.1079,-2.2502,-2.8532,-4.3741,-4.5407,-1.4947,-1.2292,-2.1868,-1.9038,-6.8945
2250.0000,-9.0145,-2.6375,-3.5232,-4.3385,-3.2136,-1.0338,0.8034,-2.3112,-1.8374,-4.0763,-3.9595,-2.6790,-3.4875,-3.9396,-3.3396,-1.3741,-2.2027,-2.1645,-5.5257
2253.9062,-9.5856,-3.6080,-3.7866,-3.3859,-2.6457,-1.3563,0.1615,-2.0759,-2.8894,-4.5113,-4.7598,-2.0821,-2.4360,-2.8038,-4.3728,-1.2858,-1.8831,-2.4128,-4.1233
2257.8125,-9.7425,-4.5682,-4.1421,-2.6749,-2.0978,-1.9557,-0.7115,-1.9015,-3.8073,-4.6100,-4.6037,-1.5267,-1.7289,-1.9585,-4.5878,-1.4185,-1.6082,-2.8513,-3.2708
2261.7188,-9.6893,-5.4555,-4.5736,-2.5576,-1.8534,-2.7450,-1.6287,-2.2592,-4.5315,-4.6879,-3.8804,-1.4383,-1.6872,-2.0628,-4.2876,-2.0904,-1.7154,-3.6150,-3.1862
2265.6250,-9.5518,-6.1377,-4.8937,-2.9781,-1.9266,-3.5015,-2.2778,-3.1818,-4.9640,-4.9555,-3.1406,-1.9127,-2.2372,-3.1981,-3.8471,-3.2303,-2.2502,-4.5746,-3.6137
2269.5312,-9.3240,-6.4217,-4.8253,-3.5172,-2.0585,-3.9831,-2.3954,-4.2479,-4.9409,-5.3894,-2.7495,-2.6339,-2.9370,-4.8010,-3.4773,-4.3632,-2.8996,-5.3275,-3.9900
2273.4375,-8.9360,-6.1268,-4.1534,-3.6491,-1.8916,-4.0491,-1.9371,-4.8760,-4.2972,-5.7643,-2.6790,-3.0391,-3.2091,-5.9657,-3.1343,-4.8495,-3.1489,-5.3817,-3.7654
2277.3438,-8.3567,-5.1740,-2.8516,-3.0312,-1.1988,-3.7133,-1.1154,-4.6970,-2.9776,-5.8055,-2.5654,-2.6298,-2.6376,-5.9263,-2.6135,-4.2421,-2.5691,-4.4149,-2.6902
2281.2500,-7.6329,-3.6378,-1.1134,-1.6622,-0.0234,-3.1092,-0.2739,-3.7484,-1.1119,-5.3474,-1.9880,-1.2492,-1.1670,-4.4441,-1.7526,-2.5564,-1.0716,-2.4542,-0.9169
2285.1562,-6.8349,-1.7344,0.7203,0.1564,1.3450,-2.4104,0.3204,-2.3861,1.0043,-4.4026,-0.7728,0.8238,0.8859,-1.9013,-0.6017,-0.2976,1.0127,0.1200,1.1085
2289.0625,-5.9700,0.2406,2.2938,1.9929,2.5284,-1.7673,0.6245,-1.0188,3.0171,-3.1199,0.8805,3.0088,2.9875,0.9197,0.5555,1.7729,3.0692,2.7351,2.8777
2292.9688,-4.9576,1.9911,3.3606,3.4773,3.2515,-1.2896,0.8146,0.1257,4.6464,-1.6891,2.5263,4.7066,4.6122,3.2221,1.3466,3.0011,4.4775,4.8543,4.0361
2296.8750,-3.7037,3.2883,3.8514,4.4175,3.4584,-1.0564,1.1418,1.0477,5.7678,-0.2699,3.7507,5.5790,5.4316,4.5322,1.5332,3.1371,4.8893,6.1574,4.4820
2300.7812,-2.2235,4.0147,3.8704,4.8133,3.3073,-1.1153,1.7556,1.8463,6.4030,1.0210,4.4018,5.6815,5.4011,4.8324,1.1713,2.4174,4.3703,6.6066,4.3302
2304.6875,-0.7063,4.1837,3.6337,4.8009,3.0631,-1.4524,2.6152,2.5535,6.6430,2.0889,4.6198,5.3934,4.7379,4.4613,0.6062,1.4072,3.3472,6.3971,3.7976
2308.5938,0.5469,3.9347,3.3797,4.5754,2.9592,-1.9624,3.5335,3.0786,6.5658,2.8567,4.6777,5.1945,3.8216,3.8759,0.2977,0.7136,2.3974,5.8472,3.0966
2312.5000,1.2852,3.4959,3.2832,4.3249,3.1007,-2.4649,4.3041,3.3015,6.2087,3.3003,4.7721,5.4174,3.0591,3.4217,0.5770,0.7285,1.9933,5.2842,2.3954
2316.4062,1.4632,3.1161,3.4042,4.1874,3.4482,-2.7850,4.8123,3.2212,5.6091,3.4935,4.9304,6.1045,2.7576,3.2205,1.4773,1.5201,2.3237,4.9638,1.8396
2320.3125,1.2770,2.9802,3.6903,4.2333,3.8717,-2.8582,5.0587,3.0196,4.8721,3.6098,5.0824,7.0328,3.0388,3.2054,2.7352,2.8910,3.2654,5.0263,1.5874
2324.2188,1.0555,3.1428,4.0307,4.4698,4.2346,-2.7816,5.1030,2.9748,4.2007,3.8529,5.2079,7.8715,3.8185,3.2464,3.9549,4.5259,4.4982,5.4796,1.8020
2328.1250,1.0776,3.5124,4.3334,4.8652,4.4568,-2.7557,4.9933,3.2783,3.8428,4.3470,5.4091,8.3683,4.8585,3.2737,4.8250,6.1299,5.6834,6.2040,2.5839
2332.0312,1.4383,3.9033,4.5794,5.3755,4.5290,-2.9363,4.7452,3.8932,3.9706,5.0601,5.8299,8.4572,5.8702,3.3280,5.2553,7.4973,6.6087,6.9845,3.8810
2335.9375,2.0430,4.1320,4.8191,5.9545,4.4833,-3.2890,4.3801,4.5619,4.5609,5.8185,6.4852,8.2432,6.6273,3.5203,5.3598,8.5136,7.2322,7.5751,5.4454
2339.8438,2.7160,4.1149,5.1115,6.5413,4.3483,-3.5516,3.9730,4.9635,5.3603,6.4110,7.1534,7.8982,7.0427,3.9449,5.3197,9.1380,7.6290,7.7867,6.8887
2343.7500,3.3327,3.9135,5.4490,7.0405,4.1285,-3.3499,3.6518,4.9107,5.9768,6.7150,7.4498,7.5526,7.1793,4.6088,5.2373,9.3967,7.8959,7.5657,7.8279
2347.6562,3.8795,3.6996,5.7226,7.3256,3.8216,-2.4082,3.5303,4.4532,6.0612,6.7594,7.0566,7.2500,7.2003,5.4239,5.0859,9.3855,8.0841,7.0204,8.0542
2351.5625,4.4098,3.6533,5.7610,7.2838,3.4587,-0.7326,3.6195,3.8220,5.4822,6.6839,5.9520,6.9771,7.2847,6.2586,4.7817,9.2514,8.1971,6.3719,7.6284
2355.4688,4.9426,3.8435,5.4229,6.8870,3.1297,1.3455,3.7887,3.2638,4.3923,6.6272,4.4660,6.7227,7.5472,7.0069,4.3086,9.1382,8.2355,5.8456,6.8462
2359.3750,5.3921,4.1592,4.6876,6.2399,2.9595,3.2938,3.8124,2.8866,3.1496,6.6272,3.1108,6.5130,7.9916,7.6255,3.7889,9.1203,8.2399,5.5615,6.0894
2363.2812,5.5875,4.3397,3.6873,5.5629,3.0388,4.6048,3.4847,2.6196,2.1437,6.6054,2.2969,6.4001,8.5147,8.1160,3.4424,9.1717,8.2897,5.4890,5.6474
2367.1875,5.3780,4.1072,2.6621,5.1032,3.3484,5.0084,2.7299,2.3074,1.6365,6.4462,2.1328,6.4283,8.9572,8.4749,3.4603,9.2036,8.4549,5.5006,5.6084
2371.0938,4.7561,3.3425,1.8691,5.0207,3.7368,4.5763,1.6469,1.8599,1.7040,6.1120,2.4373,6.6168,9.1842,8.6576,3.8891,9.1472,8.7395,5.4886,5.8691
2375.0000,3.9220,2.2068,1.4938,5.3152,3.9803,3.6888,0.4683,1.3479,2.2896,5.7093,2.9358,6.9704,9.1576,8.5896,4.6058,9.0201,9.0616,5.4645,6.2355
2378.9062,3.2368,1.1249,1.5965,5.8358,3.9030,2.8957,-0.5332,0.9737,3.2936,5.4516,3.4711,7.4892,8.9578,8.2218,5.3944,8.9159,9.2887,5.5576,6.5352
2382.8125,3.0807,0.6076,2.1005,6.3606,3.4859,2.7272,-1.1381,0.9342,4.6083,5.5357,4.0653,8.1422,8.7293,7.5856,6.0609,8.9153,9.3050,5.8974,6.6683
2386.7188,3.6752,0.9893,2.8066,6.6871,2.8889,3.5109,-1.2394,1.2670,6.0679,6.0052,4.7939,8.8062,8.5670,6.8011,6.5058,8.9875,9.0649,6.4532,6.5823
2390.6250,4.9564,2.2206,3.4312,6.6809,2.3608,5.2423,-0.8629,1.7828,7.3765,6.6894,5.5963,9.2271,8.4091,6.0213,6.7201,8.9700,8.5995,6.9519,6.2179
2394.5312,6.5653,3.8450,3.6769,6.2700,2.0836,7.5509,-0.1587,2.1317,8.1217,7.2607,6.2026,9.0750,8.0191,5.3448,6.7402,8.6647,7.9792,6.9621,5.4915
2398.4375,7.9706,5.1967,3.3372,5.4175,2.0475,9.7950,0.6299,1.9731,7.9285,7.3867,6.2648,8.1097,7.0986,4.7538,6.6168,7.9982,7.2675,6.1255,4.3411
2402.3438,8.6777,5.7215,2.4027,4.1216,2.0416,11.2804,1.2264,1.1541,6.6888,6.8945,5.6116,6.3755,5.4879,4.1255,6.4253,7.1279,6.4992,4.4016,2.8041
2406.2500,8.4273,5.2455,1.1036,2.4523,1.7738,11.5318,1.4085,-0.2021,4.7090,5.8584,4.4297,4.2872,3.3373,3.3127,6.2838,6.3989,5.6961,2.1642,1.0589
2410.1562,7.2884,4.0355,-0.1646,0.5953,1.0545,10.4999,1.0945,-1.7448,2.6369,4.5638,3.2147,2.5044,1.1217,2.2483,6.3282,6.1556,4.8975,0.0611,-0.6122
2414.0625,5.5991,2.6195,-1.0205,-1.1522,-0.0691,8.5881,0.3807,-3.0552,1.1660,3.3698,2.4990,1.6239,-0.5393,1.0087,6.6317,6.5202,4.1743,-1.2969,-1.9255
2417.9688,3.7935,1.4831,-1.2908,-2.4572,-1.3100,6.4678,-0.5019,-3.8294,0.6789,2.5487,2.5348,1.8559,-1.1731,-0.2015,7.1248,7.2884,3.6128,-1.6378,-2.6974
2421.8750,2.2186,0.8309,-1.0932,-3.0706,-2.2764,4.7690,-1.3029,-3.9918,1.0588,2.1908,3.1545,2.8936,-0.6860,-1.1340,7.5981,8.0260,3.2797,-1.1344,-2.8812
2425.7812,1.0425,0.5501,-0.7429,-2.9247,-2.6662,3.8089,-1.8727,-3.6891,1.8020,2.2184,3.9067,4.0790,0.6088,-1.6023,7.8186,8.3141,3.1959,-0.2525,-2.5277
2429.6875,0.2904,0.3741,-0.5346,-2.1531,-2.4115,3.5048,-2.2158,-3.1792,2.3620,2.4826,4.3664,4.7802,2.1838,-1.5560,7.6934,7.9884,3.3376,0.5523,-1.7152
2433.5938,-0.0496,0.1139,-0.5453,-1.0257,-1.6954,3.5059,-2.4416,-2.6875,2.4918,2.8648,4.3956,4.7493,3.5843,-1.0901,7.3521,7.2164,3.6580,1.0866,-0.5165
2437.5000,0.0438,-0.2084,-0.6030,0.1581,-0.8400,3.4443,-2.6503,-2.3086,2.3484,3.3092,4.1668,4.2306,4.6222,-0.3959,7.0606,6.3657,4.1065,1.4594,0.9703
2441.4062,0.5940,-0.4052,-0.4448,1.1580,-0.1372,3.1449,-2.8389,-2.0009,2.2928,3.7690,3.9478,3.7521,5.3621,0.3180,7.0003,5.7538,4.6262,1.9021,2.5627
2445.3125,1.5206,-0.2925,0.0481,1.8311,0.2828,2.6719,-2.8945,-1.6607,2.5443,4.1253,3.8252,3.7433,5.9373,0.9005,7.0705,5.4476,5.1352,2.5165,3.9787
2449.2188,2.5667,0.1527,0.7202,2.1279,0.4772,2.2124,-2.6810,-1.2222,2.9556,4.1680,3.5925,4.2353,6.3518,1.2985,6.8769,5.2398,5.5144,3.1403,4.9088
2453.1250,3.3556,0.7593,1.2221,2.0732,0.6092,1.9006,-2.1522,-0.7219,3.0849,3.6893,2.8986,4.8392,6.4276,1.5525,5.9544,4.8064,5.6248,3.4305,5.1508
2457.0312,3.5769,1.2606,1.2480,1.7501,0.8141,1.7105,-1.4082,-0.2924,2.5187,2.6457,1.5511,5.0057,5.9339,1.7484,4.0914,3.9285,5.3551,3.0961,4.7172
2460.9375,3.1837,1.4340,0.7528,1.2782,1.0946,1.4787,-0.6548,-0.0964,1.2024,1.2721,-0.2620,4.3795,4.7948,1.9452,1.5335,2.6323,4.6755,2.1065,3.8328
2464.8438,2.4482,1.1784,-0.0218,0.7718,1.3045,1.0211,-0.0985,-0.2393,-0.4735,0.0308,-2.0161,3.0129,3.2050,2.1174,-1.0918,1.1658,3.6626,0.7221,2.8079
2468.7500,1.8085,0.4945,-0.7343,0.2874,1.2333,0.2486,0.1480,-0.7054,-1.9044,-0.6159,-3.1497,1.3124,1.5594,2.1477,-3.0989,-0.1505,2.4800,-0.6730,1.8636
2472.6562,1.5892,-0.5728,-1.1997,-0.2043,0.7486,-0.7909,0.0920,-1.3456,-2.6579,-0.4926,-3.4144,-0.2179,0.2435,1.8913,-4.1083,-1.0860,1.3241,-1.8064,1.0290
2476.5625,1.7873,-1.9487,-1.5082,-0.7817,-0.0824,-1.9524,-0.1803,-1.9199,-2.7334,0.1345,-3.0206,-1.2431,-0.5612,1.2877,-4.2099,-1.5702,0.3680,-2.6457,0.1840
2480.4688,2.0779,-3.4709,-1.9045,-1.4747,-0.9642,-3.0638,-0.5628,-2.1788,-2.5122,0.6658,-2.4658,-1.7005,-0.9196,0.4536,-3.8259,-1.6478,-0.2716,-3.3307,-0.7775
2484.3750,2.0438,-4.8261,-2.5181,-2.1645,-1.4738,-3.9743,-0.9549,-1.9566,-2.4413,0.5080,-2.1623,-1.7027,-1.0169,-0.3133,-3.3827,-1.3782,-0.5370,-3.9701,-1.7835
2488.2812,1.4680,-5.5821,-3.1642,-2.5693,-1.2574,-4.5669,-1.2446,-1.2433,-2.6930,-0.5531,-2.1355,-1.3569,-0.9799,-0.6546,-3.0341,-0.7714,-0.4205,-4.4690,-2.5468
2492.1875,0.4773,-5.3588,-3.3964,-2.3610,-0.2339,-4.7621,-1.2944,-0.2037,-3.0514,-2.1912,-2.0241,-0.6644,-0.7971,-0.3471,-2.6300,0.1856,0.0350,-4.5349,-2.7042
2496.0938,-0.5656,-4.0614,-2.8050,-1.3713,1.3066,-4.5435,-0.9729,0.8751,-3.1060,-3.7129,-1.3991,0.4138,-0.4001,0.5317,-1.9401,1.4351,0.7186,-3.8753,-2.0577
2500.0000,-1.3349,-2.0224,-1.3564,0.2373,2.7824,-3.9977,-0.2372,1.6972,-2.5989,-4.4799,-0.1832,1.7822,0.1703,1.5830,-0.9564,2.7605,1.4351,-2.4575,-0.7648
2503.9062,-1.7712,0.0752,0.4824,1.9629,3.5633,-3.3276,0.7908,2.0902,-1.6663,-4.3154,1.1383,3.0805,0.6664,2.2484,-0.0444,3.7774,1.9175,-0.6445,0.6596
2507.8125,-2.0932,1.4833,1.9503,3.1591,3.2696,-2.8011,1.8258,2.0900,-0.7983,-3.6330,1.6965,3.7311,0.7111,2.0849,0.1799,4.0286,1.8887,0.9054,1.5575
2511.7188,-2.5895,1.7328,2.4141,3.3476,1.9734,-2.6421,2.5285,1.9265,-0.5478,-3.1937,0.7281,3.1785,0.0218,1.0044,-0.8228,3.1502,1.1637,1.5352,1.4508
2515.6250,-3.3587,0.8348,1.7293,2.4722,0.1861,-2.9254,2.6733,1.9051,-1.1985,-3.6379,-1.9271,1.1971,-1.3747,-0.6640,-3.1841,1.0359,-0.2487,0.9160,0.2952
2519.5312,-4.2075,-0.7752,0.3022,0.9406,-1.3772,-3.5460,2.2754,2.2397,-2.6137,-5.0867,-5.6466,-1.9167,-3.0947,-2.3316,-6.4929,-2.0707,-2.1005,-0.7838,-1.4844
2523.4375,-4.7919,-2.5043,-1.1816,-0.5813,-2.1399,-4.2939,1.5918,2.9260,-4.3505,-7.0618,-9.2962,-5.3956,-4.5731,-3.4427,-9.9271,-5.6035,-3.9544,-2.9809,-3.2021
2527.3438,-4.8947,-3.9066,-2.1725,-1.5128,-1.9327,-4.9924,0.9869,3.7282,-5.9360,-8.7690,-11.8040,-8.2920,-5.3578,-3.7396,-12.5754,-8.8229,-5.3313,-4.9601,-4.2542
2531.2500,-4.6212,-4.8467,-2.5431,-1.6448,-1.0462,-5.6124,0.7395,4.2896,-7.1084,-9.5629,-12.6951,-9.8737,-5.3438,-3.3547,-13.7859,-11.0469,-5.9037,-6.2026,-4.4114
2535.1562,-4.3555,-5.4540,-2.5769,-1.2133,-0.0439,-6.2898,0.9006,4.3074,-7.8807,-9.3026,-12.2762,-9.9306,-4.8048,-2.6920,-13.3914,-11.8843,-5.6488,-6.5917,-3.9066
2539.0625,-4.4990,-5.9378,-2.7078,-0.7298,0.5542,-7.2338,1.2777,3.6778,-8.4237,-8.3934,-11.3750,-8.8451,-4.2169,-2.1817,-11.7405,-11.3742,-4.8772,-6.4081,-3.2794
2542.9688,-5.1827,-6.4107,-3.2132,-0.6790,0.5365,-8.5843,1.5405,2.5389,-8.8880,-7.5129,-10.8174,-7.3942,-3.9942,-2.0549,-9.5439,-9.9582,-4.1032,-6.1394,-3.0711
2546.8750,-6.1668,-6.8320,-4.0697,-1.2591,0.0714,-10.3068,1.3777,1.1981,-9.2985,-7.2081,-10.9658,-6.3812,-4.2913,-2.2586,-7.6038,-8.2810,-3.8018,-6.2158,-3.5409
2550.7812,-7.0054,-7.0824,-5.0369,-2.3034,-0.4363,-12.1866,0.6238,-0.0074,-9.5749,-7.6120,-11.5875,-6.2752,-4.9691,-2.5335,-6.5188,-6.8994,-4.1656,-6.8054,-4.5517
2554.6875,-7.3570,-7.0918,-5.8690,-3.4052,-0.6051,-13.9227,-0.6950,-0.8421,-9.6337,-8.4273,-12.0966,-7.0285,-5.7092,-2.5847,-6.4717,-6.0464,-4.9938,-7.7607,-5.6748
2558.5938,-7.2206,-6.9199,-6.4817,-4.1573,-0.2940,-15.2677,-2.3879,-1.2433,-9.4796,-9.1535,-11.9869,-8.1546,-6.1861,-2.2370,-7.1870,-5.5770,-5.7832,-8.7282,-6.4420
2562.5000,-6.9290,-6.7401,-6.9644,-4.3634,0.3386,-16.1361,-4.1670,-1.3134,-9.2242,-9.3951,-11.1713,-9.0166,-6.2036,-1.4965,-8.0937,-5.1335,-5.9893,-9.3540,-6.5962
2566.4062,-6.9088,-6.7445,-7.4589,-4.1120,0.9477,-16.6257,-5.7221,-1.2538,-9.0324,-9.0652,-10.0276,-9.1710,-5.7467,-0.5127,-8.6271,-4.4348,-5.3204,-9.4757,-6.2072
2570.3125,-7.3768,-7.0360,-8.0183,-3.6916,1.2022,-16.9399,-6.7864,-1.2716,-9.0405,-8.3875,-9.1477,-8.5828,-4.9568,0.5117,-8.5225,-3.5122,-3.9020,-9.1994,-5.6010
2574.2188,-8.1782,-7.5610,-8.5536,-3.4090,0.9511,-17.2525,-7.1930,-1.4896,-9.2928,-7.7248,-8.9684,-7.6036,-4.0610,1.4037,-7.9340,-2.7386,-2.2142,-8.8202,-5.1577
2578.1250,-8.8673,-8.1123,-8.8884,-3.4163,0.2759,-17.5836,-6.9111,-1.8857,-9.7157,-7.3577,-9.5167,-6.7364,-3.2857,2.0620,-7.3025,-2.6175,-0.8346,-8.6291,-5.0981
2582.0312,-8.9713,-8.3946,-8.8610,-3.6347,-0.5779,-17.7641,-6.0484,-2.2867,-10.1325,-7.3404,-10.4124,-6.3331,-2.7754,2.4614,-7.0528,-3.4533,-0.1354,-8.7137,-5.3738
2585.9375,-8.2661,-8.1300,-8.3908,-3.8055,-1.3309,-17.5205,-4.8093,-2.4320,-10.3165,-7.5034,-11.1031,-6.4018,-2.5400,2.6387,-7.3140,-5.1034,-0.1078,-8.8745,-5.7079
2589.8438,-6.9068,-7.1718,-7.4778,-3.6343,-1.7870,-16.6530,-3.4224,-2.0948,-10.0758,-7.5829,-11.1725,-6.6308,-2.4562,2.6724,-7.8457,-6.9754,-0.4121,-8.7152,-5.7483
2593.7500,-5.3549,-5.5832,-6.1675,-2.9515,-1.8898,-15.2108,-2.0702,-1.2124,-9.3473,-7.3932,-10.5379,-6.5961,-2.3352,2.6559,-8.2141,-8.2853,-0.6110,-7.8678,-5.2451
2597.6562,-4.1614,-3.6414,-4.5337,-1.8093,-1.7102,-13.5515,-0.8602,0.0461,-8.2489,-6.9431,-9.4365,-6.0135,-2.0313,2.6609,-8.0854,-8.4385,-0.4379,-6.2246,-4.1621
2601.5625,-3.7249,-1.7476,-2.6993,-0.4691,-1.3889,-12.2173,0.1556,1.3270,-7.0414,-6.4320,-8.2370,-4.8792,-1.5289,2.7021,-7.4227,-7.3213,0.0622,-4.0394,-2.6816
2605.4688,-4.1286,-0.2722,-0.8608,0.7151,-1.0630,-11.6704,0.9348,2.2459,-5.9975,-6.1292,-7.2079,-3.4309,-0.9494,2.7241,-6.4516,-5.3425,0.5933,-1.8297,-1.1147
2609.3750,-5.1089,0.5937,0.7314,1.4604,-0.8056,-12.0288,1.4171,2.5702,-5.2418,-6.2026,-6.3845,-1.9816,-0.4624,2.6310,-5.4384,-3.2093,0.8183,-0.1285,0.2295
2613.2812,-6.1533,0.8976,1.8542,1.6852,-0.5962,-12.9683,1.5412,2.3262,-4.6704,-6.5925,-5.6021,-0.7529,-0.1558,2.3493,-4.4716,-1.5658,0.5775,0.7734,1.1607
2617.1875,-6.6905,0.8639,2.4146,1.5413,-0.3368,-13.8724,1.2989,1.7646,-4.0209,-7.0091,-4.6553,0.1893,0.0430,1.8916,-3.4247,-0.6931,-0.0126,0.9490,1.6686
2621.0938,-6.3129,0.7509,2.5033,1.3324,0.0872,-14.1595,0.7873,1.2103,-3.0652,-7.0624,-3.4691,0.8831,0.3339,1.3764,-2.1330,-0.4209,-0.6284,0.7570,1.9120
2625.0000,-4.9510,0.7220,2.3571,1.3601,0.7279,-13.5935,0.2138,0.8932,-1.7996,-6.4585,-2.1726,1.3741,0.9140,0.9848,-0.6274,-0.2836,-0.9179,0.6194,2.1426
2628.9062,-2.9208,0.8056,2.2432,1.7789,1.5199,-12.3876,-0.1587,0.8702,-0.4907,-5.1520,-1.0298,1.6659,1.8365,0.8744,0.7845,0.1795,-0.6764,0.7918,2.5878
2632.8125,-0.8022,0.9532,2.3305,2.5329,2.2918,-11.0363,-0.1092,1.0767,0.4697,-3.3671,-0.2788,1.7493,2.9579,1.0994,1.6883,1.1460,0.0709,1.2535,3.3368
2636.7188,0.8154,1.1248,2.6151,3.4012,2.8483,-9.9953,0.4476,1.4488,0.8103,-1.4791,0.0145,1.6634,4.0072,1.5840,1.8722,2.4003,1.1057,1.7643,4.2761
2640.6250,1.5982,1.3204,2.9302,4.1173,3.0773,-9.4244,1.4130,2.0060,0.5533,0.1676,-0.0110,1.5106,4.7255,2.1646,1.5326,3.4454,2.1273,2.0291,5.1133
2644.5312,1.5966,1.5307,3.0205,4.4885,3.0105,-9.1656,2.5206,2.8172,-0.0166,1.3892,-0.1161,1.3878,4.9764,2.6683,1.1863,3.7712,2.8673,1.8581,5.4867
2648.4375,1.1517,1.6586,2.6386,4.4501,2.7869,-8.9502,3.4156,3.8698,-0.5692,2.1678,-0.1409,1.2776,4.7571,2.9812,1.3124,3.1342,3.1585,1.2309,5.1194
2652.3438,0.6286,1.5027,1.6295,4.0357,2.5360,-8.6686,3.7718,4.9526,-0.9784,2.5476,-0.1393,0.9954,4.1229,3.0679,1.9672,1.6977,2.9503,0.2504,3.9434
2656.2500,0.1429,0.8462,-0.0131,3.3035,2.2626,-8.4894,3.4116,5.6687,-1.4143,2.5178,-0.3724,0.2625,3.1069,2.9441,2.6647,-0.0443,2.2916,-0.9563,2.1351
2660.1562,-0.5313,-0.3955,-2.1226,2.2849,1.8264,-8.7347,2.3863,5.6092,-2.2037,1.9824,-1.1498,-1.1106,1.7154,2.6352,2.6489,-1.5158,1.3112,-2.3060,0.0458
2664.0625,-1.7885,-2.0757,-4.3758,0.9987,1.0526,-9.6024,0.9779,4.5970,-3.5503,0.8529,-2.6039,-3.0388,0.0094,2.1586,1.4106,-2.3406,0.2039,-3.7509,-1.9320
2667.9688,-3.8484,-3.8505,-6.3598,-0.4820,-0.0925,-10.9469,-0.3938,2.8419,-5.3146,-0.8018,-4.5336,-5.1025,-1.7973,1.5426,-0.8911,-2.4963,-0.7859,-5.2103,-3.4891
2671.8750,-6.4629,-5.3328,-7.6841,-1.9692,-1.3866,-12.2884,-1.3343,0.8891,-7.0160,-2.6633,-6.4225,-6.6778,-3.3266,0.8621,-3.4015,-2.2558,-1.4005,-6.5080,-4.4609
2675.7812,-8.8898,-6.2647,-8.1038,-3.1713,-2.4031,-13.0570,-1.6411,-0.6298,-8.0642,-4.2202,-7.6398,-7.2057,-4.1580,0.2535,-4.9924,-1.9621,-1.4320,-7.3770,-4.8137
2679.6875,-10.1955,-6.5899,-7.5987,-3.7955,-2.7269,-12.9058,-1.3889,-1.3040,-8.0732,-4.9655,-7.7220,-6.4629,-4.0333,-0.1169,-4.8927,-1.7876,-0.8010,-7.5477,-4.5945
2683.5938,-9.7426,-6.3910,-6.3695,-3.6898,-2.2108,-11.8832,-0.8821,-1.1289,-7.0576,-4.6324,-6.5894,-4.6835,-3.0201,-0.1210,-3.1453,-1.6340,0.3822,-6.8764,-3.8905
2687.5000,-7.5833,-5.7627,-4.7501,-2.9358,-1.0998,-10.3592,-0.4887,-0.4640,-5.3977,-3.3336,-4.5809,-2.4634,-1.5194,0.2661,-0.6057,-1.2366,1.8135,-5.4397,-2.8217
2691.4062,-4.5117,-4.7365,-3.0843,-1.8193,0.0802,-8.7788,-0.4435,0.2002,-3.6136,-1.5194,-2.2953,-0.4895,-0.0915,0.9483,1.5192,-0.3925,3.0737,-3.5335,-1.5494
2695.3125,-1.7155,-3.3233,-1.6261,-0.6824,0.8243,-7.4243,-0.7300,0.5178,-2.1001,0.2251,-0.3276,0.7704,0.8165,1.7563,2.3227,0.8543,3.7818,-1.5667,-0.2631
2699.2188,-0.1985,-1.6266,-0.4995,0.2615,0.9608,-6.3419,-1.1087,0.4424,-0.9770,1.4374,0.9625,1.2656,1.0937,2.5371,1.6637,2.2061,3.7656,0.1032,0.8714
2703.1250,-0.2878,0.0911,0.2894,1.0374,0.7723,-5.4463,-1.2717,0.1890,-0.1143,1.9569,1.5433,1.3542,1.0170,3.2333,0.1923,3.2908,3.1660,1.3117,1.7861
2707.0312,-1.4987,1.4764,0.8213,1.8683,0.8323,-4.6860,-1.0300,0.0555,0.7185,1.9461,1.6443,1.5959,1.1023,3.8989,-1.0520,3.9015,2.4020,2.1343,2.5529
2710.9375,-2.8321,2.2650,1.2354,3.0058,1.6410,-4.1186,-0.4195,0.2335,1.6879,1.7573,1.5899,2.4517,1.8318,4.6383,-1.2223,4.1227,1.9851,2.8175,3.3540
2714.8438,-3.3315,2.4483,1.6997,4.5345,3.2779,-3.8390,0.3317,0.7223,2.8048,1.7280,1.6343,4.0385,3.3919,5.4976,-0.0954,4.2543,2.2613,3.6297,4.3766
2718.7500,-2.5843,2.2958,2.3608,6.2746,5.2873,-3.8309,0.9464,1.3767,3.9299,2.0129,1.8775,6.0631,5.5508,6.3776,1.8681,4.5913,3.2161,4.7099,5.6838
2722.6562,-0.8870,2.2016,3.2721,7.8448,6.8782,-3.8797,1.2604,2.0274,4.8493,2.5318,2.2827,7.9666,7.7319,7.0286,3.8312,5.2193,4.4618,5.9936,7.1328
2726.5625,0.9995,2.4553,4.3366,8.8508,7.3342,-3.6355,1.3076,2.5810,5.3766,3.0462,2.7593,9.2065,9.2515,7.1487,5.0528,5.9720,5.4338,7.2499,8.3958
2730.4688,2.3357,3.0918,5.3167,9.0842,6.4034,-2.7966,1.2883,3.0424,5.4419,3.3120,3.2469,9.5242,9.6133,6.5441,5.2489,6.5688,5.6927,8.2050,9.0815
2734.3750,2.8254,3.9154,5.9312,8.6137,4.4504,-1.2929,1.4486,3.4677,5.1370,3.2158,3.7465,9.0536,8.7290,5.2662,4.6553,6.8162,5.1614,8.6771,8.9061
2738.2812,2.7189,4.6595,6.0003,7.7206,2.2874,0.6546,1.9462,3.9000,4.6909,2.8182,4.2823,8.2115,6.9589,3.6414,3.7891,6.7181,4.1508,8.6476,7.8272
2742.1875,2.5565,5.1506,5.5481,6.7269,0.7813,2.6304,2.7696,4.3389,4.3666,2.2848,4.8252,7.4370,4.9515,2.1579,3.0820,6.4162,3.1606,8.2320,6.0788
2746.0938,2.7435,5.3577,4.7894,5.8267,0.4472,4.2124,3.7423,4.7486,4.3110,1.7572,5.2342,6.9394,3.3504,1.2540,2.6249,6.0279,2.5805,7.5796,4.0847
2750.0000,3.2535,5.3163,3.9984,5.0195,1.2370,5.1355,4.5974,5.0792,4.4384,1.2591,5.2709,6.6063,2.5145,1.1117,2.1801,5.5280,2.4828,6.7742,2.2931
2753.9062,3.6637,5.0226,3.3438,4.1713,2.6136,5.3566,5.0851,5.2686,4.4356,0.7117,4.7046,6.1256,2.3897,1.5691,1.4450,4.7856,2.6340,5.8041,1.0062
2757.8125,3.4934,4.4126,2.8047,3.1517,3.8512,5.0185,5.0681,5.2277,3.9216,0.0551,3.4656,5.2371,2.6006,2.2038,0.3786,3.7289,2.7013,4.6220,0.2849
2761.7188,2.6014,3.4538,2.2270,1.9492,4.3875,4.3643,4.5732,4.8376,2.6948,-0.6171,1.7586,3.9420,2.6996,2.5502,-0.6446,2.4979,2.5020,3.2465,-0.0312
2765.6250,1.3527,2.2655,1.4793,0.6957,4.0497,3.6541,3.7785,3.9898,0.9188,-1.0273,0.0484,2.5297,2.4259,2.3319,-0.9869,1.4378,2.1147,1.8264,-0.2073
2769.5312,0.4195,1.1435,0.5888,-0.4085,3.0559,3.1029,2.9378,2.6636,-0.8903,-0.8496,-1.1131,1.4028,1.8164,1.5850,-0.1409,0.9043,1.7825,0.6096,-0.4678
2773.4375,0.3403,0.4312,-0.2496,-1.2115,1.8254,2.8336,2.2678,0.9913,-2.0965,0.0571,-1.3464,0.8183,1.1123,0.6077,1.8786,1.0100,1.6878,-0.1750,-0.9020
2777.3438,1.1422,0.3127,-0.8033,-1.6931,0.7275,2.8467,1.8482,-0.7454,-2.2755,1.4782,-0.6503,0.7239,0.5421,-0.2233,4.4125,1.5057,1.7794,-0.4490,-1.4664
2781.2500,2.2994,0.6789,-0.9770,-1.9640,-0.0837,3.0258,1.5885,-2.2121,-1.4392,2.8900,0.5872,0.8038,0.1442,-0.6570,6.4251,1.9079,1.7920,-0.3369,-2.0645
2785.1562,3.0755,1.1821,-0.8954,-2.1871,-0.6689,3.2029,1.2902,-3.1677,-0.0087,3.7415,1.8056,0.7079,-0.2339,-0.6717,7.0461,1.8103,1.4557,-0.0935,-2.6348
2789.0625,3.0261,1.4603,-0.8216,-2.4728,-1.1680,3.2658,0.7802,-3.5788,1.4532,3.8156,2.6079,0.3117,-0.7614,-0.4349,6.0783,1.1718,0.7430,0.0573,-3.1781
2792.9688,2.3183,1.3827,-0.9599,-2.8139,-1.6428,3.2488,0.0420,-3.6279,2.5756,3.4249,3.0100,-0.1714,-1.4117,-0.1687,4.1662,0.3774,-0.0386,0.0691,-3.7053
2796.8750,1.6363,1.1459,-1.2841,-3.0993,-2.0183,3.3344,-0.7382,-3.6059,3.3636,3.2749,3.4285,-0.3076,-1.8940,-0.0256,2.5018,0.0134,-0.4007,0.1044,-4.1584
2800.7812,1.7286,1.1493,-1.5239,-3.1989,-2.1637,3.7443,-1.2527,-3.7510,4.1182,4.0407,4.3925,0.2771,-1.8135,-0.0599,2.2176,0.4965,0.0065,0.4179,-4.3879
2804.6875,2.8986,1.7307,-1.3347,-3.0692,-2.0486,4.5758,-1.2450,-4.1311,5.1584,5.9123,6.1477,1.6274,-0.9744,-0.2909,3.7984,1.7979,1.1210,1.1594,-4.2318
2808.5938,4.7863,2.9355,-0.5452,-2.8100,-1.8455,5.6928,-0.6772,-4.6345,6.5444,8.4093,8.4136,3.3734,0.3916,-0.7796,6.8339,3.4438,2.4373,2.2220,-3.6552
2812.5000,6.5885,4.4643,0.6855,-2.6293,-1.8759,6.7569,0.2120,-5.0623,7.9894,10.6099,10.4707,4.8898,1.6606,-1.6247,10.2331,4.7899,3.2642,3.2448,-2.8400
2816.4062,7.5635,5.8224,1.9147,-2.7210,-2.4097,7.3920,1.0026,-5.2529,9.0147,11.6651,11.5460,5.6155,2.1430,-2.8507,12.7609,5.3923,3.1262,3.7857,-2.1268
2820.3125,7.4708,6.5657,2.6488,-3.1190,-3.4392,7.3852,1.2990,-5.1536,9.2345,11.2753,11.2601,5.3514,1.5151,-4.2626,13.5949,5.2420,2.0645,3.5699,-1.8097
2824.2188,6.6502,6.4967,2.6211,-3.6181,-4.5938,6.7973,0.9340,-4.8039,8.5763,9.8238,9.8486,4.3694,0.0793,-5.3979,12.6196,4.7268,0.6440,2.6679,-1.9059
2828.1250,5.7023,5.7136,1.9419,-3.8298,-5.2838,5.9163,0.0604,-4.2612,7.3021,8.0920,8.0098,3.2701,-1.3416,-5.6662,10.3542,4.3653,-0.3457,1.4874,-2.0718
2832.0312,5.0168,4.5176,1.0304,-3.3687,-5.0146,5.0914,-0.9214,-3.5431,5.8347,6.7602,6.4796,2.6678,-1.8403,-4.6429,7.6156,4.4911,-0.3214,0.5736,-1.7642
2835.9375,4.4975,3.2575,0.3730,-2.0811,-3.6904,4.5564,-1.5618,-2.6385,4.5229,6.0349,5.6135,2.8767,-0.9394,-2.3620,5.1397,5.0798,0.7825,0.3276,-0.5787
2839.8438,3.6852,2.1965,0.2547,-0.1814,-1.7099,4.3474,-1.5817,-1.5798,3.5014,5.6367,5.2502,3.7661,1.1281,0.5869,3.3506,5.8043,2.4999,0.8036,1.4419
2843.7500,2.1861,1.4510,0.6227,1.8037,0.2216,4.3409,-1.0012,-0.5092,2.7181,5.1232,4.9304,4.8638,3.5473,3.2599,2.3426,6.2596,4.1121,1.7036,3.7468
2847.6562,0.0864,0.9998,1.1508,3.2799,1.4658,4.3619,-0.1165,0.3342,2.0805,4.2863,4.3028,5.6447,5.3805,4.7881,2.0050,6.2060,5.0458,2.5713,5.5390
2851.5625,-1.9671,0.7415,1.4563,3.8961,1.7936,4.2774,0.6592,0.7275,1.5969,3.3303,3.4243,5.8441,6.0797,4.8154,2.1640,5.6900,5.1593,3.0726,6.2220
2855.4688,-3.1056,0.5724,1.3353,3.7438,1.4904,4.0321,1.0077,0.6153,1.4109,2.7150,2.7435,5.6136,5.7521,3.6944,2.6550,4.9938,4.7639,3.1980,5.7598
2859.3750,-2.7850,0.4614,0.8838,3.3132,1.1645,3.6368,0.8609,0.1943,1.7121,2.7985,2.7879,5.4294,5.0383,2.3153,3.3183,4.4659,4.3923,3.2674,4.7182
2863.2812,-1.1703,0.4876,0.4421,3.2179,1.3764,3.1541,0.4233,-0.1471,2.5957,3.5570,3.7801,5.7989,4.7006,1.6436,3.9759,4.3422,4.4655,3.7357,3.9492
2867.1875,0.9101,0.8109,0.4037,3.8374,2.3099,2.6999,0.0496,-0.0267,3.9702,4.5854,5.4541,6.9363,5.1791,2.2142,4.4448,4.6538,5.0565,4.9092,4.1078
2871.0938,2.4272,1.5713,0.9965,5.0902,3.6724,2.4419,0.0430,0.7059,5.5715,5.3683,7.1932,8.5996,6.3684,3.8560,4.5960,5.2525,5.8721,6.7351,5.2889
2875.0000,2.7379,2.7604,2.1536,6.4743,4.8692,2.5544,0.4841,1.8563,7.0666,5.6114,8.3864,10.1933,7.7143,5.7957,4.4183,5.9170,6.4427,8.7868,6.9935
2878.9062,1.9216,4.1468,3.5374,7.3552,5.3381,3.1241,1.1860,2.9731,8.1793,5.3941,8.7570,11.0842,8.5414,7.0739,4.0335,6.4652,6.3951,10.4527,8.4239
2882.8125,0.6625,5.3219,4.6973,7.3293,4.8508,4.0560,1.8045,3.6017,8.7669,5.0462,8.4519,10.9469,8.4078,7.0419,3.6381,6.8120,5.6511,11.2291,8.9161
2886.7188,-0.2274,5.8693,5.2810,6.4480,3.6201,5.0576,2.0432,3.5611,8.8232,4.8610,7.8602,9.9351,7.3012,5.6695,3.4024,6.9503,4.4555,10.9585,8.2568
2890.6250,-0.3252,5.5702,5.1901,5.1773,2.1760,5.7417,1.8324,3.0716,8.4291,4.8653,7.3132,8.5772,5.6077,3.5141,3.3839,6.8880,3.2390,9.8884,6.7337
2894.5312,0.1791,4.5254,4.6082,4.1289,1.0939,5.8090,1.3729,2.6447,7.6984,4.8112,6.8836,7.4665,3.9070,1.3988,3.5070,6.5972,2.4064,8.5285,4.9373
2898.4375,0.6694,3.1096,3.8933,3.7347,0.7310,5.2008,1.0143,2.7908,6.7520,4.3784,6.4075,6.9360,2.7210,-0.0007,3.6166,6.0203,2.1674,7.3880,3.4636
2902.3438,0.5484,1.7800,3.3922,4.0533,1.1026,4.1217,1.0415,3.7178,5.7194,3.4247,5.6811,6.9135,2.3304,-0.4254,3.5668,5.1363,2.4841,6.7386,2.6827
2906.2500,-0.3746,0.8478,3.2750,4.8056,1.9501,2.9068,1.5028,5.2111,4.7415,2.0998,4.6660,7.0270,2.7158,-0.0342,3.2909,4.0413,3.1421,6.5218,2.6592
2910.1562,-1.8031,0.3465,3.4675,5.5870,2.9460,1.8176,2.1865,6.7731,3.9460,0.7478,3.5445,6.8743,3.6165,0.8217,2.8133,2.9757,3.8879,6.4348,3.2095
2914.0625,-3.2056,0.0618,3.7107,6.1064,3.9113,0.8990,2.7549,7.9366,3.3953,-0.3186,2.5931,6.2735,4.6613,1.8769,2.2093,2.2572,4.5562,6.1304,4.0239
2917.9688,-4.1979,-0.3092,3.7062,6.3069,4.9141,-0.0054,2.9414,8.5470,3.0393,-1.0086,1.9774,5.3425,5.5144,3.0953,1.5509,2.1367,5.1275,5.4120,4.7878
2921.8750,-4.7762,-0.9732,3.2703,6.3131,6.1799,-1.0916,2.6779,8.8177,2.7161,-1.4810,1.6270,4.3818,5.9842,4.5937,0.8790,2.6537,5.6989,4.3219,5.2699
2925.7812,-5.2447,-1.9331,2.4188,6.2655,7.8533,-2.3960,2.0756,9.1106,2.2254,-2.0055,1.2828,3.6659,6.0606,6.4145,0.2193,3.5832,6.3905,3.0941,5.3695
2929.6875,-5.9084,-2.9966,1.3496,6.1645,9.7504,-3.6981,1.2910,9.5787,1.4518,-2.7600,0.6874,3.2924,5.8699,8.3187,-0.3813,4.5208,7.2380,2.0195,5.1179
2933.5938,-6.7720,-3.8752,0.3455,5.8283,11.2744,-4.5957,0.3932,9.9204,0.4706,-3.7013,-0.2163,3.1777,5.5758,9.7592,-0.8359,5.0711,8.1250,1.3134,4.6303
2937.5000,-7.4773,-4.3127,-0.3493,4.9885,11.5967,-4.7164,-0.6596,9.4449,-0.4415,-4.5809,-1.2120,3.1708,5.2787,10.0827,-1.0414,5.0387,8.7930,1.0517,4.0256
2941.4062,-7.5401,-4.1922,-0.6175,3.4639,10.0529,-3.9430,-1.9162,7.4538,-0.9241,-5.0877,-1.9192,3.1786,4.9714,8.8555,-0.9354,4.5128,8.9315,1.1870,3.3560
2945.3125,-6.7256,-3.5923,-0.4950,1.3112,6.5560,-2.5200,-3.2891,3.7299,-0.7373,-5.0265,-2.0196,3.2028,4.5726,6.1256,-0.5454,3.7992,8.3137,1.6034,2.5984
2949.2188,-5.2956,-2.7790,-0.1355,-1.1337,1.7758,-0.9784,-4.5008,-1.1743,0.0603,-4.4325,-1.4663,3.2738,4.0109,2.4613,0.0109,3.2426,6.9135,2.1595,1.7216
2953.1250,-3.9355,-2.1255,0.2583,-3.3507,-3.0637,0.0881,-5.1880,-6.0635,1.0772,-3.5665,-0.5474,3.3538,3.2954,-1.2657,0.5803,3.0460,4.9428,2.7003,0.7828
2957.0312,-3.3807,-1.9670,0.5076,-4.8287,-6.7037,0.2857,-5.1102,-9.6109,1.7507,-2.7944,0.2406,3.3047,2.5203,-4.2369,1.0504,3.1863,2.7804,3.0579,-0.0301
2960.9375,-3.9695,-2.4360,0.5101,-5.2723,-8.4214,-0.4025,-4.3241,-10.9859,1.6364,-2.4123,0.4466,2.9627,1.8028,-5.9942,1.3960,3.4611,0.8266,3.0758,-0.4664
2964.8438,-5.4059,-3.3626,0.2606,-4.7299,-8.3333,-1.6062,-3.1935,-10.2437,0.6687,-2.5017,-0.0899,2.2714,1.2056,-6.5433,1.6623,3.6211,-0.6421,2.6670,-0.3666
2968.7500,-6.8939,-4.3198,-0.1651,-3.5811,-7.2541,-2.7307,-2.2123,-8.2507,-0.7723,-2.8910,-1.1425,1.3717,0.7103,-6.2280,1.8990,3.5009,-1.5386,1.8725,0.2016
2972.6562,-7.5748,-4.8254,-0.6562,-2.3821,-6.1936,-3.2220,-1.7455,-6.1925,-2.0489,-3.2511,-2.2142,0.5695,0.2659,-5.4769,2.0956,3.0777,-1.9216,0.8660,0.9346
2976.5625,-7.0121,-4.6115,-1.1253,-1.6306,-5.7931,-2.8191,-1.8503,-4.9520,-2.6203,-3.2861,-2.8171,0.1828,-0.1266,-4.5821,2.1662,2.4454,-1.8862,-0.1218,1.4386
2980.4688,-5.4433,-3.8046,-1.5509,-1.5572,-6.0335,-1.6778,-2.2846,-4.7124,-2.3624,-2.9144,-2.7660,0.3577,-0.3723,-3.6256,1.9957,1.7433,-1.4735,-0.9293,1.4474
2984.3750,-3.6565,-2.8875,-1.9791,-2.0437,-6.3688,-0.3033,-2.6843,-4.9875,-1.6601,-2.3329,-2.3158,0.9626,-0.3339,-2.5607,1.5100,1.0907,-0.6720,-1.5612,0.9662
2988.2812,-2.5723,-2.4426,-2.4791,-2.7101,-6.1683,0.6854,-2.7852,-5.0200,-1.2078,-1.9147,-2.0470,1.6294,0.0470,-1.3591,0.7165,0.5593,0.4919,-2.1858,0.2416
2992.1875,-2.7728,-2.8194,-3.0773,-3.1264,-5.1622,0.8518,-2.5463,-4.2763,-1.6284,-1.9941,-2.5451,1.9203,0.6480,-0.1080,-0.3132,0.1747,1.8511,-3.0202,-0.4199
2996.0938,-4.2320,-3.9301,-3.7120,-3.0360,-3.6042,0.1522,-2.1156,-2.7406,-3.1318,-2.6751,-4.0513,1.5296,1.1767,1.0057,-1.4995,-0.0756,3.0821,-4.1737,-0.8534
3000.0000,-6.3738,-5.3059,-4.2468,-2.4728,-2.0706,-1.0517,-1.6879,-0.8633,-5.4106,-3.7896,-6.2914,0.4154,1.3108,1.8018,-2.7991,-0.2431,3.8206,-5.5535,-1.1172
3003.9062,-8.3947,-6.3781,-4.5424,-1.7126,-1.0603,-2.1864,-1.3707,0.7533,-7.8251,-5.0329,-8.6001,-1.1980,0.8900,2.2180,-4.1983,-0.4214,3.8520,-6.9009,-1.4031
3007.8125,-9.6557,-6.8009,-4.5467,-1.1002,-0.6814,-2.7629,-1.1472,1.7031,-9.7547,-6.1742,-10.2771,-2.9350,0.0277,2.3478,-5.6622,-0.7314,3.2500,-7.9392,-1.8599
3011.7188,-9.9353,-6.6126,-4.3443,-0.8612,-0.6320,-2.6098,-0.9419,1.9447,-10.8982,-7.1826,-10.9648,-4.4326,-0.9430,2.3773,-7.0893,-1.2813,2.3528,-8.5350,-2.4709
3015.6250,-9.4372,-6.1410,-4.1253,-1.0088,-0.4684,-1.9138,-0.7144,1.7248,-11.3543,-8.1673,-10.8169,-5.4707,-1.6669,2.4665,-8.3207,-2.1140,1.5686,-8.7640,-3.0804
3019.5312,-8.5872,-5.7390,-4.0837,-1.3894,0.0428,-1.0547,-0.5011,1.3551,-11.4567,-9.1810,-10.3524,-6.0155,-1.9808,2.6492,-9.2076,-3.1696,1.1262,-8.8344,-3.5385
3023.4375,-7.7593,-5.5390,-4.3016,-1.8159,0.7388,-0.3459,-0.3738,1.0158,-11.4933,-10.0497,-10.0923,-6.1724,-1.9976,2.8127,-9.6888,-4.2867,0.9334,-8.9244,-3.8371
3027.3438,-7.0848,-5.3879,-4.6872,-2.1883,1.1644,0.1518,-0.3607,0.7042,-11.4972,-10.3897,-10.2141,-6.0851,-2.0027,2.7671,-9.8117,-5.2445,0.6508,-9.0428,-4.1171
3031.2500,-6.4329,-4.9872,-5.0060,-2.5219,0.8895,0.6292,-0.4029,0.3261,-11.2357,-9.8330,-10.4446,-5.8415,-2.2300,2.3630,-9.6706,-5.8286,-0.0598,-9.0095,-4.5339
3035.1562,-5.5474,-4.1201,-4.9873,-2.8762,-0.1764,1.3489,-0.3874,-0.1722,-10.3846,-8.3167,-10.2525,-5.4316,-2.6746,1.5928,-9.3047,-5.8942,-1.2711,-8.5648,-5.0847
3039.0625,-4.2449,-2.8006,-4.4485,-3.2499,-1.6790,2.4119,-0.2326,-0.7378,-8.7636,-6.2158,-9.2071,-4.7744,-3.0743,0.6257,-8.6429,-5.4081,-2.6928,-7.5330,-5.5415
3042.9688,-2.5594,-1.2552,-3.3726,-3.5268,-2.9848,3.6282,0.0433,-1.2464,-6.4797,-4.1993,-7.2655,-3.7943,-3.0761,-0.2438,-7.5527,-4.4615,-3.8132,-5.9330,-5.5573
3046.8750,-0.7563,0.2266,-1.9063,-3.5142,-3.5079,4.5795,0.3322,-1.5889,-3.9015,-2.8799,-4.8140,-2.5016,-2.4753,-0.7096,-5.9763,-3.2496,-4.1947,-3.9728,-4.8809
3050.7812,0.7824,1.4522,-0.2925,-3.0449,-2.9983,4.8346,0.5208,-1.7260,-1.4945,-2.4834,-2.4573,-1.0333,-1.3622,-0.5795,-4.0574,-2.0218,-3.7302,-1.9451,-3.5289
3054.6875,1.7347,2.3874,1.2223,-2.0672,-1.6298,4.1867,0.5925,-1.6671,0.3738,-2.7564,-0.7071,0.3728,-0.0754,0.1453,-2.1502,-1.0089,-2.6913,-0.0998,-1.7916
3058.5938,1.9810,3.1014,2.4616,-0.6657,0.1419,2.7706,0.6673,-1.4004,1.5527,-3.1672,0.2319,1.4598,1.0093,1.2763,-0.6797,-0.3472,-1.5387,1.4294,-0.0650
3062.5000,1.6417,3.6622,3.3508,0.9926,1.8437,0.9953,0.9419,-0.8458,2.1064,-3.2525,0.4716,2.0516,1.7125,2.5285,0.0753,-0.0331,-0.6239,2.6171,1.3727
3066.4062,0.9975,4.0697,3.9077,2.7346,3.2092,-0.6601,1.5619,0.1141,2.2205,-2.8743,0.2828,2.1228,2.1491,3.6536,0.1320,0.0645,0.0181,3.4868,2.4879
3070.3125,0.3410,4.2636,4.2033,4.4196,4.2401,-1.8700,2.5041,1.5314,2.0849,-2.2356,-0.0966,1.8031,2.6276,4.5427,-0.2208,0.1280,0.6471,4.0548,3.4416
3074.2188,-0.1585,4.1742,4.3082,5.9214,5.0934,-2.5895,3.5458,3.2872,1.8108,-1.6849,-0.5650,1.3147,3.4153,5.2406,-0.6165,0.2842,1.5864,4.3102,4.4081
3078.1250,-0.5120,3.7571,4.2419,7.0846,5.8885,-3.0330,4.3464,5.0641,1.4050,-1.4817,-1.1398,0.8691,4.5250,5.8624,-0.8497,0.5240,2.9408,4.2291,5.3963
3082.0312,-0.8660,2.9842,3.9453,7.7165,6.5669,-3.5335,4.6000,6.4347,0.7908,-1.6878,-1.8745,0.5718,5.6588,6.4633,-0.9967,0.6978,4.4526,3.7965,6.1958
3085.9375,-1.3894,1.8189,3.2970,7.6435,6.8971,-4.3640,4.1786,7.0331,-0.1406,-2.2210,-2.7915,0.3774,6.3463,6.9500,-1.3324,0.5959,5.5982,3.0152,6.4784
3089.8438,-2.1562,0.2254,2.1790,6.8087,6.6234,-5.6051,3.1914,6.7225,-1.4627,-2.9720,-3.8681,0.1168,6.1913,7.1028,-2.0964,0.0708,5.8663,1.9046,5.9790
