Time,Fp1,F3,C3,P3,O1,F7,T3,T5,Fz,Fp2,F4,C4,P4,O2,F8,T4,T6,Cz,Pz
0.0000,-2.6469,3.4489,2.8299,5.9286,2.0950,1.0425,-6.5681,2.5782,-1.4767,5.1603,4.1753,6.8612,1.3262,4.7333,2.7650,8.0183,1.5830,6.8770,6.4032
3.9062,1.0945,9.9876,2.0358,12.9138,7.8730,5.9785,-13.9434,-1.3448,-0.0500,11.1888,5.1857,13.5628,5.2519,12.5416,0.7922,15.4476,5.8018,13.4044,5.8036
7.8125,2.4837,14.6609,0.1596,17.3410,11.3556,9.9909,-16.2944,-3.8183,0.3704,13.5782,4.2103,17.8590,6.5163,17.9406,-2.1140,20.5014,7.4725,17.1282,4.3726
11.7188,3.2142,16.9557,-1.2574,19.8826,13.3246,13.4671,-11.4035,-2.8041,0.6479,13.4517,1.9385,19.0880,6.7160,21.5344,-4.0072,21.9410,7.9365,18.7764,3.4732
15.6250,5.0181,17.2603,-1.7747,21.7088,14.9187,16.6568,-2.6976,1.3956,1.2497,12.8343,-1.0989,18.0040,7.7673,24.4599,-4.3307,20.2569,8.9885,19.7120,3.1241
19.5312,8.2713,16.3306,-2.3374,23.3193,16.6578,19.1515,3.3624,6.2581,1.8930,12.9775,-4.8305,16.0272,10.4489,27.1288,-4.2318,17.1503,11.5148,20.6081,1.9652
23.4375,11.7727,14.7594,-4.2698,24.2584,18.1428,20.0659,2.4422,8.8152,1.9155,13.6584,-9.2964,14.2080,13.9113,28.8485,-5.4419,14.2986,14.9001,21.0132,-1.4597
27.3438,13.8049,12.7977,-7.8412,23.8429,18.5505,18.7698,-4.1538,7.7607,1.0287,13.8665,-14.0636,12.6435,16.4418,28.5719,-8.7060,12.2837,17.5608,20.0965,-7.1782
31.2500,13.5850,10.5338,-11.6591,22.1382,17.4325,15.5605,-10.5454,4.3050,-0.2117,13.0891,-18.0444,10.7087,16.8335,26.0522,-13.0832,10.4333,18.1428,17.8174,-13.3404
35.1562,11.9484,8.1567,-13.4834,20.2309,15.1721,11.7145,-11.0891,1.1680,-0.6588,11.9678,-20.0035,7.8443,15.3002,22.3598,-16.6697,7.6484,16.4911,15.4000,-17.2943
39.0625,10.7526,6.0154,-11.8834,19.5032,12.7865,8.8391,-4.9964,0.5391,0.6053,11.7459,-19.4000,4.2372,13.2789,19.2849,-18.0917,3.5399,13.7275,14.6030,-17.3953
42.9688,11.5015,4.4144,-7.4311,20.5221,11.2909,7.9570,3.0604,2.5984,3.5147,13.0557,-16.8607,0.8318,12.3278,18.0949,-17.4877,-1.0459,11.4519,16.3319,-14.1538
46.8750,14.2754,3.3439,-2.4516,22.5138,11.1212,8.9241,6.8584,5.6766,6.9474,15.2015,-13.8316,-1.3558,12.9893,18.6478,-16.1726,-4.5644,10.6863,19.7518,-9.8493
50.7812,17.7708,2.4123,0.5315,23.9123,12.0006,10.5274,3.8024,7.8024,9.4435,16.6509,-11.6141,-2.0861,14.4671,19.5606,-15.3217,-5.9850,11.3078,22.6995,-6.9445
54.6875,20.3688,1.0948,0.5056,23.5607,13.2608,11.1678,-2.9181,8.3035,10.2222,16.3592,-10.4976,-2.2023,15.3239,19.2784,-14.8499,-5.7127,12.3176,23.1627,-6.5193
58.5938,21.3780,-0.8492,-1.4155,21.5954,14.3302,9.7191,-6.9478,8.1770,9.7680,14.7788,-9.6397,-3.0673,14.6497,17.2067,-13.4776,-5.4217,12.6964,20.7286,-7.8343
62.5000,21.5103,-3.0864,-2.8626,19.3122,15.0606,6.1231,-3.9212,9.0211,9.5646,13.6369,-7.7562,-5.4652,12.8304,14.0817,-9.9321,-6.8217,12.2166,16.9112,-9.1707
66.4062,22.2764,-4.7837,-1.8475,18.1511,15.7390,1.4639,5.1509,11.5122,11.1505,14.6014,-4.0701,-8.7715,11.3694,11.3959,-4.2441,-10.2481,11.6502,14.1202,-9.1269
70.3125,24.8041,-5.0471,2.0332,18.6313,16.8504,-2.4970,14.9994,14.7280,15.1340,17.9152,1.1778,-11.0916,11.8961,10.4029,2.0025,-14.1896,12.2421,14.0455,-7.3544
74.2188,28.9711,-3.4861,7.5628,20.0459,18.7526,-4.1391,20.5864,16.8457,20.7948,22.1225,6.9469,-10.4233,15.0530,11.4369,6.7211,-16.2302,14.8096,16.6087,-4.3613
78.1250,33.4482,-0.5623,12.8237,21.0601,21.4180,-2.8212,21.0118,16.5615,26.4807,25.1114,12.0498,-6.1284,20.0063,13.9107,8.8235,-14.8073,19.0640,20.1351,-0.8486
82.0312,36.5635,2.5180,16.2385,20.6369,24.3450,0.6625,19.4972,14.0132,30.4948,25.6128,15.6864,0.3298,24.8884,16.7964,8.9402,-10.4998,23.6173,22.4827,2.6842
85.9375,37.3480,4.3603,17.0493,18.5565,26.7090,4.3304,19.6416,10.4773,31.9210,23.9566,17.5511,6.0231,27.8811,19.1352,8.7925,-5.8134,26.7121,22.2623,5.7996
89.8438,36.0745,4.1224,15.2210,15.2612,27.7474,5.9795,21.4826,7.2093,30.9635,21.5485,17.6670,8.3005,28.2687,20.2936,9.7830,-3.5006,27.2635,19.3929,7.8617
93.7500,34.0183,2.0392,11.2534,11.3720,27.2393,4.4399,21.1256,4.5142,28.7219,19.6093,16.3169,6.5455,26.8370,20.0295,12.0006,-4.5712,25.5800,14.8557,8.2442
97.6562,32.6785,-0.5959,6.2596,7.4183,25.7912,0.3894,14.5310,1.8631,26.6211,18.2812,14.2106,2.7359,25.4024,18.5526,14.4336,-7.4585,23.2834,10.0545,7.0541
101.5625,32.9663,-2.0512,2.1042,3.9509,24.6499,-3.8756,2.2051,-1.1336,25.8045,16.7943,12.6047,0.3151,25.7513,16.5809,16.1043,-9.0314,22.4040,6.2645,5.6899
105.4688,34.7798,-1.0946,1.0414,1.7026,25.0131,-5.7116,-9.5811,-3.9066,26.7098,14.4100,12.9542,2.0135,28.5893,15.1711,17.0419,-6.8090,24.1436,4.3304,6.4171
109.3750,37.1050,2.2672,4.6204,1.3518,27.1960,-3.7259,-12.6858,-5.1549,28.9284,11.1951,16.0449,8.0212,33.0826,15.1679,18.1879,-0.8195,28.0581,4.4812,10.8854
113.2812,38.5274,6.7165,12.4179,2.8958,30.2381,1.3408,-3.3472,-4.0347,31.3728,7.9174,21.1587,15.7514,37.2500,16.5094,20.3282,6.2525,32.2093,6.1657,18.5636
117.1875,37.9107,10.3395,21.6768,5.2039,32.3447,7.0862,14.2950,-1.2528,32.7302,5.2320,26.0673,21.4062,38.9982,17.9574,23.0761,10.7881,34.2598,8.0774,26.4645
121.0938,34.9771,11.7675,28.5343,6.3937,31.9994,11.0087,30.6080,1.0535,32.0823,3.0280,28.1846,22.3450,37.2354,17.6896,24.9489,10.6429,32.8625,8.6415,30.7435
125.0000,30.5372,11.0631,30.3465,5.0501,29.0283,12.1151,37.2997,0.7886,29.4295,0.6543,26.2933,18.7006,32.4364,14.5536,24.6235,6.5644,28.4617,6.9369,29.2801
128.9062,26.2033,9.7548,27.5634,1.4711,24.8188,11.4623,33.4485,-2.3628,25.7998,-2.1315,21.6269,13.1982,26.3321,9.1236,22.3412,1.6489,22.9650,3.5216,23.3727
132.8125,23.6184,9.9172,23.6395,-2.1499,21.4223,11.2705,25.9258,-6.4047,22.7673,-4.4312,17.3525,9.3553,20.9016,3.6533,20.1573,-0.7385,18.4886,0.4355,17.1108
136.7188,23.5238,12.8109,22.7539,-3.0187,20.0968,13.2634,23.7547,-8.3266,21.5525,-4.5600,16.5943,9.3238,17.2750,0.7462,20.6034,0.9053,16.0220,0.1004,14.6574
140.6250,25.1917,17.9358,26.7885,0.2515,20.3281,17.4378,30.7942,-6.3673,22.2061,-1.4034,20.2828,12.8094,15.2173,1.5898,24.6781,5.4903,14.9272,3.6836,17.3269
144.5312,26.6586,23.1546,33.7498,6.4092,20.1007,22.1165,42.5285,-1.5134,23.4354,4.3093,26.3831,17.6735,13.5021,5.0697,30.7699,10.3900,13.6128,10.0720,22.6427
148.4375,25.7609,25.8881,38.9314,12.1722,17.2988,25.1833,49.5317,3.0127,23.2849,10.0313,31.1517,21.6169,10.8972,8.5163,35.5059,13.3927,10.8748,16.3306,26.1516
152.3438,21.4340,24.6926,38.1422,14.3795,11.2551,25.5576,44.8985,3.9807,20.3358,12.9637,31.6097,23.6450,7.0795,9.6052,36.0372,14.0977,6.9059,19.4860,24.6913
156.2500,14.4739,20.2470,30.7386,12.1488,3.3049,23.8606,29.8160,0.4417,14.6876,12.0805,27.4970,24.3192,2.8463,7.9845,32.0898,13.8354,3.2141,18.4357,18.6648
160.1562,7.2233,15.1153,20.2393,7.4056,-4.0883,21.8883,12.9494,-5.6582,8.0669,9.0025,21.3290,24.8048,-0.5013,5.3551,26.2088,14.3492,1.5046,14.5997,11.6107
164.0625,2.3184,12.3963,12.0236,3.3613,-8.9984,21.3825,4.1813,-10.9806,2.9387,6.9018,16.5615,25.6439,-2.1341,3.9336,21.9672,16.3577,2.3677,10.8195,7.4310
167.9688,1.2609,14.0495,9.7430,2.1182,-11.2444,23.0088,7.5752,-13.2053,1.1493,8.1681,15.2444,26.2983,-2.2950,4.5421,21.4581,19.0943,4.7754,9.3308,7.4444
171.8750,3.7085,19.8670,13.0158,3.2787,-12.2259,26.1586,18.8465,-12.4693,2.9426,12.6136,16.8530,25.7805,-2.0758,5.9132,23.9303,21.0684,6.7874,10.3439,9.5370
175.7812,7.8921,27.6426,18.0016,4.6333,-13.5270,29.5091,28.9597,-10.7830,6.9463,17.6405,19.0285,23.7502,-2.5354,5.8363,26.5248,21.3352,6.9545,12.2683,10.0175
179.6875,11.8049,34.3737,20.3064,4.3185,-15.3908,31.7835,30.7617,-10.0309,11.0815,20.2698,19.4945,21.0704,-3.8297,3.2451,26.4616,20.2268,5.3688,13.3015,6.6519
183.5938,14.3199,37.7586,17.9952,2.6194,-16.2982,32.1911,23.5261,-10.2842,13.7605,19.4448,17.6042,19.2969,-5.0176,-0.4985,22.9668,19.0053,3.5779,13.0190,0.4591
187.5000,15.5221,37.1633,12.5335,1.8750,-14.0467,30.4552,12.3181,-9.8377,14.6039,16.7947,14.4057,19.4994,-4.7118,-2.2959,17.5296,18.7877,3.4297,12.6457,-5.1284
191.4062,16.1654,33.6171,7.1518,4.5022,-7.5709,26.6950,3.3063,-6.9057,14.2947,15.2737,11.3768,21.3942,-2.1079,0.4274,12.4498,19.6410,5.7135,13.8201,-7.0280
195.3125,16.7949,28.9816,4.0936,10.7441,1.8650,21.4156,-0.9137,-1.5082,13.8010,16.7913,9.0307,23.5272,2.3488,7.6137,8.9531,20.5437,9.5878,16.9459,-4.9762
199.2188,17.2532,24.8582,2.9523,18.0399,11.0469,15.5619,-2.4297,4.0984,13.5927,20.7342,6.5849,24.3674,7.1343,16.3102,6.3895,20.1825,13.1718,20.5810,-1.7655
203.1250,16.9060,21.8544,1.3093,22.6424,16.5776,10.3750,-5.2232,6.8929,13.3959,24.5246,2.8957,23.4110,10.5199,22.5450,3.0586,17.9001,14.8045,22.4410,-1.1073
207.0312,15.3205,19.5416,-2.9868,22.2934,16.8449,6.9243,-11.2484,5.3378,12.5776,25.6965,-2.2445,21.3864,11.5338,23.9687,-2.1285,14.0613,14.0288,21.2161,-4.8335
210.9375,12.7968,17.0201,-9.8100,17.8761,12.8726,5.5542,-18.6853,0.6186,10.7833,23.7755,-7.6322,19.4130,10.3803,21.2932,-8.5589,9.6366,11.6479,17.6819,-11.5980
214.8438,10.3094,13.6878,-16.6177,12.7470,7.5440,5.6992,-23.5045,-4.1199,8.3138,20.4821,-11.4387,17.8611,8.1222,17.5057,-14.2544,5.4453,8.9562,14.1469,-17.9855
218.7500,8.9234,9.7392,-20.2337,10.2772,3.8091,6.3070,-22.6823,-5.9456,5.9755,18.2091,-12.5816,15.9242,5.9550,15.5647,-17.2915,1.7145,6.8535,12.6621,-21.0367
222.6562,9.1564,6.1080,-19.1021,11.5260,3.1079,6.6065,-16.3176,-4.0423,4.5671,18.1316,-11.4975,12.3116,4.6188,16.4070,-17.1136,-1.7421,5.5298,13.4612,-20.1837
226.5625,10.7662,3.8962,-14.2742,14.8117,4.9609,6.6026,-7.1953,0.0604,4.4157,19.5250,-9.6555,6.4953,4.2838,18.7253,-14.7245,-5.0047,4.8409,14.9203,-17.2042
230.4688,13.0734,3.6380,-8.4767,17.3835,7.7767,6.8567,1.3826,3.9570,5.3004,20.7551,-8.2476,-0.5688,4.8264,20.4764,-11.7211,-7.7515,4.8848,15.0542,-14.4635
234.3750,15.5008,4.8630,-4.1255,17.7213,10.1140,7.7117,7.4597,6.2374,6.7670,20.9477,-7.2085,-6.9244,6.1376,20.7050,-9.0615,-9.5083,6.1525,13.2743,-13.0235
238.2812,17.8872,6.2637,-1.8722,16.5699,11.4761,8.6519,10.6670,7.2525,8.5402,20.8012,-5.4238,-10.9725,8.1794,20.1337,-6.5835,-10.2161,9.0717,10.9092,-12.1397
242.1875,20.3712,6.4149,-0.6956,15.9506,12.2330,8.4412,11.2602,8.2890,10.6962,21.8157,-1.9395,-12.6040,10.8112,20.1422,-3.5692,-10.5411,13.3629,10.0378,-10.3804
246.0938,23.0270,4.6277,0.7664,17.1136,12.9807,6.0467,9.3863,10.0297,13.4829,24.6575,2.9172,-13.1417,13.6511,21.1830,0.2595,-11.5265,17.8622,11.6267,-7.2269
250.0000,25.6246,1.3989,2.8991,19.2600,13.9943,1.6406,5.4391,11.7270,16.9687,28.1853,7.5506,-14.0921,16.1954,22.1470,4.2489,-13.7590,21.0997,14.5739,-3.6943
253.9062,27.7472,-1.8611,4.8992,20.1612,15.2002,-3.1900,0.9230,11.8290,20.8285,30.1122,10.3155,-15.7240,18.1510,21.3024,7.2542,-16.7031,22.2611,16.5146,-1.4505
257.8125,29.1506,-3.6789,5.7228,18.1537,16.5556,-6.3114,-1.5252,9.4956,24.4427,28.8431,10.9329,-16.6935,19.6844,17.9892,8.5976,-18.8149,21.7763,15.7483,-1.2545
261.7188,30.0238,-3.4102,5.2453,13.7878,18.3624,-6.4000,0.4356,5.6425,27.2245,24.9372,10.8468,-15.1192,21.3177,13.5124,8.6784,-18.4791,21.0118,12.6672,-2.1254
265.6250,30.8744,-1.5874,4.5604,9.6669,21.1354,-3.7619,6.9309,2.5291,28.9073,20.8722,12.1081,-10.3087,23.4822,10.3166,8.6930,-15.1473,21.2449,9.4501,-2.0122
269.5312,32.0887,0.5024,5.1509,8.5192,25.0899,0.0132,15.2435,2.1392,29.5812,19.1798,15.6254,-3.7303,26.0614,10.0139,9.7054,-9.8396,22.6927,8.2256,0.5643
273.4375,33.5112,1.7112,7.6577,11.0295,29.6957,3.2683,21.3974,4.6387,29.4874,20.4128,20.2307,1.6581,28.3141,11.8996,11.8642,-4.5941,24.3655,9.2174,5.2635
277.3438,34.4156,1.7815,11.3191,15.1968,33.7441,5.3877,22.9596,8.1698,28.7904,22.6223,23.4266,3.3440,29.3063,13.2910,14.4176,-1.2058,24.8869,10.4501,10.1195
281.2500,33.9649,1.4596,14.5636,17.7646,35.9847,6.9460,20.8157,10.1728,27.5535,22.8402,23.3342,1.0584,28.5834,11.5574,16.4781,-0.1190,23.6622,9.3307,13.0346
285.1562,31.8807,1.9446,16.2610,16.6136,35.9174,8.8816,18.3395,9.2085,25.9485,19.4416,20.3409,-2.9209,26.5984,6.2789,17.8481,-0.2296,21.4783,4.8645,13.3688
289.0625,28.8530,4.1064,16.5950,12.2497,34.1635,11.4930,18.5201,5.8742,24.4874,13.5273,17.1073,-5.2261,24.5562,-0.2146,19.1888,0.2918,20.0420,-1.2968,12.3691
292.9688,26.3562,8.0180,16.8605,7.2816,32.1082,14.1578,21.4209,2.1612,23.9924,8.2320,16.8292,-3.5815,23.7395,-4.4284,21.3959,2.7476,20.7695,-5.8737,12.1430
296.8750,25.9100,13.0483,18.3918,4.3878,31.0197,15.9865,24.1813,-0.1502,25.1999,6.4950,21.0114,1.8338,24.7485,-4.2234,24.7338,7.0781,23.7201,-6.2885,14.0454
300.7812,28.1892,18.3201,21.5196,4.4284,31.2289,16.7548,23.6616,-0.7504,28.1983,9.0183,28.3923,8.7312,27.1498,-0.3219,28.4756,11.9495,27.4674,-2.5029,17.7620
304.6875,32.5050,23.1096,25.3768,6.1337,31.9237,17.2030,19.5183,-0.7686,32.1004,13.9304,35.7884,14.3843,29.7499,4.3592,31.3540,15.6248,30.0060,3.0401,21.7354
308.5938,36.9865,26.9180,28.6246,7.4601,31.7023,18.3720,15.0076,-1.5963,35.2603,18.2916,40.1749,17.3325,31.2962,6.9952,32.4410,16.9971,30.0373,7.2666,24.4751
312.5000,39.4081,29.3128,30.4218,7.3752,29.5193,20.5592,14.6415,-3.6199,36.0032,20.1639,40.4495,17.9454,31.1539,6.9539,31.7338,16.1474,27.7301,8.6235,25.6307
316.4062,38.2469,29.8636,30.8281,6.5966,25.3988,22.8824,20.4905,-5.9014,33.4734,19.6550,37.6768,17.6437,29.5530,6.0975,30.0085,14.1752,24.4637,7.8815,26.0067
320.3125,33.4271,28.3765,30.3977,6.7860,20.4462,23.9419,30.1695,-6.9929,28.0834,18.3045,33.8525,17.5783,27.3061,7.1280,28.1330,12.5091,21.8029,7.0976,26.6326
324.2188,26.3610,25.2758,29.4475,9.0124,16.1582,23.0792,38.2558,-6.1255,21.2797,17.5542,30.3352,17.8452,25.2186,11.3458,26.4647,12.1519,20.4670,7.7242,27.7717
328.1250,19.2644,21.7312,27.7388,12.8356,13.4922,21.1273,40.1068,-3.7588,14.7723,17.6803,27.2003,17.7274,23.5744,17.5849,24.8232,13.2463,19.9828,9.4606,28.7178
332.0312,14.1044,19.2585,24.8867,16.7335,12.3161,19.9088,35.0875,-1.0919,9.7184,18.0001,23.8690,16.5793,21.9945,23.0839,22.9752,15.1116,19.1747,10.7188,28.4888
335.9375,11.7357,18.9496,21.0978,19.3961,11.6027,20.8092,26.7112,0.9648,6.3579,17.9657,20.2585,14.5246,19.7325,25.5156,21.1058,16.6679,17.0605,10.1903,26.7439
339.8438,11.6722,20.8584,17.4870,20.6966,10.2314,23.6040,19.7353,2.4300,4.2685,17.9965,17.3122,12.4290,16.2190,24.5587,19.7865,17.0364,13.5145,8.1145,24.0959
343.7500,12.5810,24.0233,15.5495,21.5109,7.8376,26.5806,16.6785,3.9746,2.9750,19.2144,16.3907,11.2891,11.5403,21.8735,19.4462,16.0537,9.3114,6.1766,21.5597
347.6562,13.1671,27.1394,16.1024,22.6214,5.1058,27.9233,16.5385,6.0286,2.4186,22.3081,18.0507,11.6303,6.5657,19.6601,19.8477,14.4493,5.6302,6.1612,19.6468
351.5625,12.8990,29.3728,18.5162,23.7672,3.2723,27.2160,16.4878,8.1108,2.9370,26.6009,21.3099,13.3730,2.6194,19.0394,20.1097,13.5365,3.4155,8.5245,17.9141
355.4688,12.1513,30.6815,20.8988,23.7521,3.1721,25.7490,14.7822,9.0141,4.7986,30.2633,24.0959,16.1192,0.8377,19.4900,19.3358,14.4898,2.9885,12.0690,15.3644
359.3750,11.7323,31.4192,21.1717,21.5612,4.5182,25.2938,12.2082,7.7225,7.6915,31.6146,24.5775,19.4367,1.5492,19.6119,17.3435,17.5630,4.0417,14.9338,11.3535
363.2812,12.1765,31.6173,18.2916,17.5107,5.9881,26.3500,10.8600,4.2983,10.6124,30.4703,22.3258,22.8252,4.0468,18.4316,14.8304,21.7456,5.9000,16.0257,6.2305
367.1875,13.3124,30.6442,12.7644,13.3776,6.1331,27.4101,11.5139,-0.0078,12.3063,28.3794,18.3923,25.4881,6.9336,16.1622,12.7591,25.1839,7.8381,15.7109,1.1718
371.0938,14.3939,27.6347,6.1523,11.3086,4.5072,26.0103,12.1725,-3.5249,11.9876,27.4865,14.2904,26.3397,8.8895,13.9336,11.4198,26.2187,9.3220,15.2817,-2.6433
375.0000,14.6550,22.3939,0.0235,12.3415,2.1807,20.8329,9.3177,-5.1993,9.8446,28.8906,10.7714,24.5020,9.4165,12.8998,9.9737,24.4172,10.1428,15.7637,-4.8339
378.9062,13.8481,15.9941,-4.8521,15.7133,1.1793,13.1456,0.9630,-5.1037,6.9657,31.8063,7.4223,20.0318,9.0848,13.5420,6.9537,20.8728,10.4508,17.1214,-5.9627
382.8125,12.3676,10.4423,-8.5521,19.4884,3.1446,6.2829,-11.1120,-4.0905,4.7257,34.1959,3.3919,14.2502,9.0910,15.6448,1.4421,17.4882,10.6697,18.4801,-6.9580
386.7188,10.9085,7.5258,-11.4377,21.9694,8.1211,3.4132,-22.0090,-2.9664,4.0396,34.3604,-1.4241,9.2343,10.3945,18.7388,-5.9427,15.6821,11.2776,19.0487,-8.3325
390.6250,9.9721,7.6514,-13.5703,22.7577,14.3584,5.2568,-26.9214,-1.9009,4.9654,32.2262,-5.8068,6.6783,13.0114,22.4393,-13.0522,15.4375,12.5242,18.8419,-9.8382
394.5312,9.6265,9.5806,-14.6191,22.6913,19.3422,9.5384,-24.4203,-0.5082,6.8671,29.3489,-7.8186,6.9056,15.9723,26.3589,-17.2990,15.4232,14.2476,18.5584,-10.7785
398.4375,9.6790,11.3006,-14.2658,22.8577,21.3924,12.6310,-17.2312,1.5779,8.9484,27.6956,-6.1760,8.7792,18.0050,29.8315,-17.1296,14.1413,15.9480,18.7999,-10.6433
402.3438,10.0510,11.3793,-12.6631,23.6197,20.7234,12.1295,-9.9696,4.2191,10.7359,28.2113,-1.3251,10.5932,18.4772,31.9458,-12.8907,11.2437,17.1228,19.4281,-9.4982
406.2500,10.9725,9.7605,-10.4835,24.4840,19.2224,8.3722,-5.7642,6.8251,12.1889,30.2580,4.6362,11.2498,17.9248,32.0824,-6.5426,7.9637,17.6601,19.7083,-7.8353
410.1562,12.7919,7.4136,-8.4875,24.8264,19.1079,3.7995,-4.4766,8.8660,13.4427,32.2486,9.1659,10.8000,17.7588,30.5556,-0.4872,6.2447,18.0004,19.1134,-6.0885
414.0625,15.5629,5.2067,-6.9842,24.7096,21.4391,0.7838,-3.7311,10.3453,14.4853,32.8490,10.7480,9.9699,19.3299,28.6927,3.6581,7.1628,18.9066,17.9988,-4.2912
417.9688,18.8038,3.0302,-5.6482,24.9733,25.5358,-0.2437,-1.5431,11.7803,15.0925,31.7777,9.6112,9.1591,22.9956,28.0655,5.5894,9.8611,20.9578,17.4322,-2.1815
421.8750,21.7043,-0.0140,-3.8436,26.4730,29.6709,-0.8653,1.8978,13.7015,15.0941,29.6972,7.2986,7.8576,27.8453,29.3428,5.9888,11.8992,24.1050,18.2388,0.3763
425.7812,23.6644,-4.4735,-1.1708,29.1604,32.4404,-2.9868,4.7755,16.1237,14.7292,27.4945,5.5437,5.0653,32.2690,31.6812,5.7861,10.8725,27.6051,20.0992,3.0864
429.6875,24.7360,-9.4627,2.2161,31.8847,33.7318,-6.8959,5.7801,18.4699,14.7362,25.6734,5.3094,0.3977,34.9574,33.2453,5.6200,6.1538,30.4006,21.5923,5.3496
433.5938,25.5752,-12.7051,5.7516,33.1817,34.5710,-10.7515,5.6303,20.0221,16.0095,24.3240,6.5655,-5.1018,35.6353,32.5603,5.7767,-0.5455,31.7005,21.2904,6.7398
437.5000,26.9121,-11.8994,8.8878,32.4272,36.0400,-11.9541,6.4249,20.4908,19.0064,23.4981,8.7201,-9.2614,35.0586,29.6662,6.4147,-6.2501,31.3874,19.0472,7.4070
441.4062,28.9589,-6.4738,11.4211,30.3665,38.1935,-9.2450,9.3878,20.1933,23.3166,23.4411,11.1696,-10.1182,34.3555,26.1278,7.6920,-8.6625,30.0096,16.3366,8.0301
445.3125,31.2556,1.6554,13.4624,28.5134,39.8810,-3.7674,13.2246,19.6771,27.7355,24.3411,13.5175,-7.3155,34.2474,23.8346,9.6241,-7.5524,28.4084,15.2091,9.3216
449.2188,33.0982,9.0514,15.1407,27.8652,39.6259,1.8054,14.8988,19.1284,30.8452,25.8310,15.4557,-2.4517,34.7024,23.5111,11.8647,-4.6053,27.2614,16.5891,11.4701
453.1250,34.1909,12.8729,16.3566,27.9789,36.8374,5.3530,12.4372,18.1075,31.7535,26.8283,16.6481,1.9564,35.1873,24.1155,13.7463,-1.9364,26.8267,19.2759,13.9628
457.0312,34.9459,12.6378,16.8220,27.1878,32.3519,6.8766,7.3203,15.8715,30.5328,26.0590,16.8811,4.1486,35.2185,23.6130,14.6876,-0.4814,26.9843,20.5495,15.9159
460.9375,36.1342,10.3396,16.3279,23.8219,27.8489,8.2632,4.0513,12.0276,28.1059,22.9708,16.3751,4.1815,34.7333,20.5127,14.6895,0.4821,27.4520,18.0412,16.6377
464.8438,38.1454,8.8434,14.9759,17.4866,24.6081,11.4662,6.7877,6.9650,25.6958,18.2934,15.8791,3.6053,34.0217,14.9622,14.4734,2.3842,27.9709,11.5036,16.0012
468.7500,40.4912,9.7819,13.1678,9.4252,22.6250,16.6324,15.6033,1.6944,24.2103,13.6958,16.3108,4.0792,33.3597,8.5798,15.0565,5.8494,28.3507,3.1410,14.4061
472.6562,42.0243,12.5269,11.4063,1.7443,20.8158,21.7474,25.6447,-2.7694,23.9163,10.7140,18.1333,6.0541,32.7166,3.2417,17.0291,9.9290,28.4153,-3.7613,12.4678
476.5625,41.7647,14.9517,10.1359,-3.8324,18.1454,24.1152,30.3446,-5.9641,24.5066,9.7574,20.9770,8.5362,31.7961,-0.1401,20.0895,12.7454,27.9713,-6.8916,10.7476
480.4688,39.6863,15.3011,9.7671,-6.7184,14.7419,22.4908,26.5088,-8.0328,25.3956,9.9837,23.8697,10.0266,30.3426,-1.8912,23.2256,13.0231,26.8644,-6.1660,9.7011
484.3750,36.7929,13.6528,10.7607,-7.2749,12.0409,18.1544,17.2702,-9.2841,25.9848,10.1342,25.9299,9.7855,28.3992,-2.8025,25.4192,11.2224,25.0727,-3.3772,9.7404
488.2812,34.3589,11.8262,13.5082,-6.0467,11.7824,14.0726,10.2637,-9.7072,25.7662,9.6230,26.9432,8.3647,26.2622,-3.1184,26.3109,9.2925,22.7368,-0.6811,11.1666
492.1875,32.8989,11.8572,17.9137,-3.2225,14.6139,12.8009,12.0374,-8.9130,24.3242,8.9565,27.3114,7.0318,24.1718,-2.2474,26.2889,9.1831,20.0769,0.8341,13.8985
496.0938,31.6903,14.2899,22.9636,1.2044,19.4055,14.7300,22.8163,-6.5702,21.3878,9.1326,27.4140,6.6563,22.0343,0.5426,25.9459,11.2902,17.2590,1.4833,17.2223
500.0000,29.2722,17.6553,26.7812,6.8206,23.8430,17.9449,35.7356,-2.9340,16.9884,10.5539,26.9873,7.0437,19.4539,5.0986,25.3973,14.0956,14.3237,2.2023,19.9049
503.9062,24.5719,19.5373,27.4160,12.4321,25.8684,19.6927,41.3927,1.0384,11.6087,12.4258,25.1712,7.2535,16.0704,10.0136,24.0913,15.3211,11.2308,3.5007,20.7714
507.8125,17.7964,18.3760,24.0195,16.4377,24.8835,18.2757,34.5084,4.1425,6.1271,13.2182,21.3036,6.5470,11.9060,13.3387,21.3323,13.7020,7.9646,5.0603,19.4159
511.7188,10.3918,14.6057,17.5855,17.7185,21.8311,14.0156,17.7794,5.5967,1.4754,11.8570,15.8166,5.0678,7.3957,13.8477,17.0967,9.9816,4.5874,6.1746,16.4854
515.6250,4.0979,10.2901,10.5646,16.3071,18.1669,8.7748,0.0464,5.3778,-1.8368,8.6619,10.3662,3.6356,3.0527,11.8158,12.4108,6.3475,1.1889,6.4384,13.2158
519.5312,-0.1651,7.6016,5.4210,13.2459,14.6098,4.6233,-9.8590,3.9652,-4.0167,5.2211,6.8851,2.8744,-0.9361,8.6736,8.8580,4.7750,-2.1976,5.9593,10.4870
523.4375,-2.7225,7.3555,3.0584,9.7533,10.7033,2.7222,-9.0208,1.7735,-5.8437,3.2601,6.1724,2.5409,-4.7786,5.8570,7.4966,5.6135,-5.5778,4.9444,8.1248
527.3438,-4.5916,8.6864,2.2919,6.4386,5.5420,3.0890,-1.8085,-1.1566,-8.1055,3.4072,7.1610,1.7734,-8.6704,3.8642,8.0147,7.5351,-8.8175,3.2279,5.0887
531.2500,-6.4408,10.0101,0.8746,3.2742,-0.9497,5.0922,4.0884,-4.8738,-10.9392,4.8520,7.5949,0.1454,-12.1977,2.3283,8.8455,8.8515,-11.4113,0.4243,0.5234
535.1562,-7.9281,10.4223,-2.5763,0.3327,-7.2705,8.0326,3.7527,-8.8864,-13.5164,6.1595,5.7573,-1.4002,-14.0836,0.9826,8.2569,9.0904,-12.4243,-3.2424,-5.0875
539.0625,-7.9499,10.4211,-7.1864,-1.4599,-10.8284,11.3328,-1.4107,-11.8405,-14.3349,6.5413,1.9595,-0.7040,-12.6274,0.5535,5.6392,9.5058,-10.7727,-6.1924,-9.6507
542.9688,-5.5823,11.4421,-10.1300,-0.4180,-9.4210,14.4027,-5.2460,-11.9951,-12.0180,6.5039,-1.4609,4.2267,-6.6919,2.6184,1.9973,12.0602,-5.7888,-5.7800,-10.5026
546.8750,-0.9446,14.6362,-8.5906,4.7936,-2.7045,16.5839,-2.1554,-8.3326,-6.1923,7.3238,-1.8151,13.5075,3.3583,8.3609,-0.7872,17.6530,2.2224,0.1673,-6.2080
550.7812,4.6964,19.8434,-2.0529,13.8058,7.3639,17.4099,8.0160,-1.5232,2.0538,9.7902,1.7335,24.6511,15.4109,17.1917,-1.4226,24.9996,11.7951,11.4706,2.0994
554.6875,9.6330,25.4818,6.7645,24.0944,17.4118,16.9676,19.2467,6.0691,10.4171,13.2874,7.1078,33.5174,26.2915,26.4719,-0.3075,31.0881,20.6662,24.8450,10.8644
558.5938,12.6566,29.3484,13.1409,32.0064,24.2722,15.9196,23.2920,11.5122,16.2421,16.0281,10.3257,36.4364,33.0352,32.7843,0.5997,32.9379,26.5667,35.1363,15.8138
562.5000,13.5308,29.7175,13.0360,34.7080,26.3314,15.0140,15.3910,12.8869,17.5929,16.3066,7.9991,32.1390,34.0515,33.9585,-0.8979,29.4113,28.0684,38.0114,14.2071
566.4062,12.7542,26.0636,5.4660,31.7364,23.8925,14.4284,-2.3801,10.2663,14.0411,13.7955,-0.3928,22.2684,29.5986,30.3813,-5.6581,21.8144,25.0861,32.4205,6.2331
570.3125,10.9720,19.1337,-6.9776,25.0661,18.5621,13.5520,-22.3798,5.4372,6.8299,9.8610,-12.0552,10.2556,21.4319,24.6055,-12.5068,12.9565,18.8328,21.1801,-5.2837
574.2188,8.6242,10.5532,-19.7174,17.6816,12.2378,11.4964,-36.2192,0.6107,-1.6301,6.6417,-22.5573,-0.5604,11.9486,19.5460,-18.9253,5.4376,11.2977,9.2760,-16.5786
578.1250,6.0941,2.2928,-28.7246,11.7353,6.3462,7.9773,-39.6839,-2.9255,-8.6911,5.6050,-28.4411,-8.3185,3.3264,16.6166,-22.6130,0.3923,4.5136,1.0445,-24.8819
582.0312,4.0678,-3.8416,-32.3295,7.6088,1.6114,3.8057,-34.5304,-5.2833,-12.4330,6.6709,-28.9755,-12.8299,-3.0064,15.1562,-22.8169,-2.5825,-0.0948,-1.9117,-29.4120
585.9375,3.5633,-6.7152,-31.3341,4.4161,-1.7900,0.4730,-26.3507,-7.3656,-12.2864,8.4968,-26.0024,-14.8416,-6.5096,13.4442,-20.5459,-4.5445,-2.0795,-0.8609,-31.0121
589.8438,5.3892,-6.3427,-27.7461,1.3408,-3.9863,-0.9377,-20.4210,-9.7806,-9.0946,9.5952,-22.2540,-15.2030,-7.4059,10.3708,-17.6452,-6.2438,-1.9743,1.6262,-30.9744
593.7500,9.3884,-4.0916,-23.3180,-1.3810,-5.2352,-0.6681,-18.5549,-12.1844,-4.6278,9.3513,-19.5394,-14.5722,-6.4166,6.3955,-15.5080,-7.8211,-0.9539,3.5890,-30.0267
597.6562,14.1634,-2.2877,-18.9271,-2.6150,-5.7684,-0.2427,-18.8817,-13.5204,-0.7745,8.1958,-18.0666,-13.6286,-4.4046,3.1099,-14.3657,-9.2028,-0.2452,4.5734,-28.1279
601.5625,17.7049,-3.1733,-14.9254,-1.3826,-5.5819,-1.4158,-18.1946,-12.8691,1.2364,6.9474,-17.1087,-13.2510,-1.9737,1.9071,-13.5417,-10.6101,-0.4897,5.1600,-24.9812
605.4688,18.6248,-7.6800,-11.7523,2.1655,-4.2597,-4.8759,-14.7878,-10.1582,1.2524,6.0075,-16.1465,-14.2346,0.8315,2.9439,-12.2840,-12.5755,-1.3365,5.8746,-20.6427
609.3750,17.1231,-14.7860,-10.0365,6.7084,-1.0504,-9.6976,-9.6667,-6.1781,0.0870,5.1183,-15.4007,-16.6921,4.5071,5.2341,-10.4122,-15.4082,-1.5262,6.5536,-15.6731
613.2812,14.9061,-21.9897,-10.0708,10.6446,4.6816,-13.9597,-5.4809,-1.9766,-1.0355,3.8154,-15.3837,-19.7402,9.6462,7.6713,-8.2992,-18.6298,0.4692,6.6155,-10.7929
617.1875,14.0191,-26.7183,-11.2764,13.1042,12.8196,-16.0511,-4.2752,1.7804,-1.1839,2.0549,-16.0663,-21.9424,16.2545,9.9723,-6.3451,-20.9963,5.5050,5.7729,-6.4717
621.0938,15.3951,-27.7968,-12.3592,14.2078,22.1178,-15.6762,-5.8981,4.9366,-0.2083,0.3569,-16.6023,-22.3345,23.2735,12.6551,-4.5339,-21.2311,13.0341,4.3495,-2.8844
625.0000,18.1850,-26.0074,-12.2235,14.4161,30.4694,-13.8612,-8.2295,7.4341,1.2315,-0.7164,-15.9863,-21.2591,28.7505,16.0869,-2.5301,-18.9579,21.0884,2.8373,-0.2394
628.9062,20.3758,-23.3761,-10.9118,13.6601,35.8024,-12.0670,-8.9144,8.8559,2.0953,-1.2780,-14.0868,-20.2523,30.7277,19.5351,-0.2189,-15.0894,27.1136,1.1604,0.9479
632.8125,20.2479,-21.7275,-9.6673,11.1543,37.1172,-11.1720,-7.1729,8.4623,1.6008,-2.3225,-12.0422,-20.9151,28.4116,21.2199,1.8642,-11.3172,29.2776,-1.5118,0.0769
636.7188,17.5975,-21.5499,-9.8803,6.1726,35.0140,-11.0816,-4.2807,5.7880,-0.2867,-5.1194,-11.4922,-23.5388,22.8850,19.5103,2.7138,-9.0405,27.5097,-6.0250,-2.8499
640.6250,13.8441,-21.9365,-11.6795,-0.8548,31.3492,-11.1249,-2.4019,1.3045,-2.7814,-10.1986,-13.1446,-26.5573,16.8160,14.3586,1.6116,-8.5040,23.6069,-12.1076,-6.6350
644.5312,10.9940,-21.5315,-13.3750,-7.9612,28.2244,-10.7572,-2.7346,-3.4988,-4.6615,-16.7285,-15.8682,-27.3561,13.2065,7.7391,-1.1249,-8.7491,20.2682,-17.9048,-9.0493
648.4375,10.2720,-19.6666,-12.3973,-12.5019,26.9342,-9.9406,-4.4505,-6.8252,-4.9010,-22.8298,-17.1960,-23.9766,13.8534,2.5807,-4.0640,-8.3663,19.5796,-20.8246,-7.9073
652.3438,11.4211,-16.8041,-7.1853,-12.7392,27.4934,-8.9766,-5.2815,-7.6199,-3.2093,-26.6424,-15.0223,-16.5545,18.4190,0.8913,-5.4150,-6.4676,21.8450,-19.2674,-2.4501
656.2500,13.0980,-14.0128,1.3916,-8.9718,28.9421,-8.0905,-3.3166,-6.1765,-0.1901,-27.3762,-9.2516,-7.4663,24.6624,2.4702,-4.1130,-3.2094,25.4711,-13.9581,5.9477
660.1562,13.9471,-11.9932,10.2684,-3.3014,30.1152,-7.2386,1.3959,-3.8224,2.9622,-25.6018,-2.0876,-0.0457,29.6813,5.1992,-0.4399,0.4037,27.9727,-7.7443,14.3730
664.0625,13.4823,-10.4883,16.0600,1.8218,30.3248,-6.2912,6.7488,-1.9204,5.0628,-22.6395,3.3557,3.2875,31.4137,6.6883,4.2608,3.1704,27.4622,-3.8358,19.9925
667.9688,12.1651,-8.5528,17.2717,5.1686,29.5608,-5.3127,10.1461,-0.9604,5.5048,-19.5954,5.1368,2.2744,29.5327,6.0074,8.5131,4.3004,23.7022,-3.6927,21.6435
671.8750,10.7613,-5.4254,15.2107,7.2197,28.2100,-4.5468,10.5783,-0.4341,4.4849,-16.7983,3.7141,-1.2990,25.2876,4.1923,11.5393,3.6511,18.0987,-6.1216,20.3099
675.7812,9.6080,-1.2753,12.8918,9.2589,26.6051,-4.0534,9.5410,0.4589,2.7639,-13.9932,1.4068,-4.8802,20.5054,3.2075,13.3857,1.6279,12.7071,-8.2788,18.1675
679.6875,8.3957,2.7695,12.7333,11.8856,24.7546,-3.3826,9.9333,1.9011,1.1074,-10.9930,0.5309,-6.6731,16.4400,4.2610,14.3672,-1.0162,8.9447,-7.8509,16.9127
683.5938,6.5633,5.3117,14.7580,14.2195,22.3918,-1.7444,13.6327,3.1239,-0.2513,-8.1411,1.6617,-6.4502,13.1637,6.8353,14.4350,-3.3329,6.8444,-4.7925,16.5919
687.5000,3.8741,5.5461,16.6275,14.4790,19.2299,1.3023,19.5860,2.9422,-1.7806,-6.1623,3.3381,-5.2781,9.7885,9.1602,13.1052,-4.3460,5.2774,-1.3425,15.7565
691.4062,0.6475,3.6810,15.4571,11.4590,15.2042,5.1870,24.0494,0.7129,-4.3154,-5.5520,3.3746,-4.5171,5.2741,9.6681,10.0419,-3.3585,2.9123,-0.3494,12.7610
695.3125,-2.5133,0.7158,10.0271,5.6751,10.5486,8.3817,23.0719,-3.0816,-8.3961,-6.0675,0.6994,-4.8320,-0.7401,8.2001,5.7465,-0.3499,-0.7913,-3.1863,7.1835
699.2188,-5.1920,-2.1389,1.7588,-0.7963,5.6998,9.3534,15.5516,-7.1209,-13.6935,-6.7948,-3.7317,-5.8066,-7.5880,5.9979,1.6352,3.8222,-5.2193,-8.7795,0.2893
703.1250,-7.3729,-3.9404,-6.2072,-5.6897,1.1178,7.7981,4.5582,-10.1833,-18.9235,-6.7666,-7.6174,-6.2814,-13.8817,4.5480,-0.7281,7.7027,-9.0643,-14.3681,-5.7758
707.0312,-9.2321,-4.1691,-11.0723,-8.0487,-2.8831,5.1534,-4.2905,-11.9761,-22.3815,-5.6372,-9.0061,-5.1011,-18.2392,4.2910,-0.7351,9.9718,-11.2331,-17.3117,-9.4151
710.9375,-10.7637,-2.6873,-12.0556,-8.6679,-6.2292,3.8171,-6.4888,-13.1972,-22.8401,-3.8820,-7.6725,-1.8036,-19.9849,4.2825,0.7043,10.1989,-11.5471,-16.5818,-10.5489
714.8438,-11.6584,0.2495,-10.5635,-9.1585,-9.0724,5.4940,-1.8269,-14.7977,-20.2876,-2.3889,-5.1770,3.0870,-19.4305,3.0748,1.6611,9.0653,-10.7719,-12.9754,-10.4526
718.7500,-11.5926,3.8856,-8.9289,-10.4345,-11.6476,9.8620,5.2357,-17.0686,-16.0377,-1.7994,-3.6775,8.2536,-17.6069,0.0679,0.4512,7.8402,-10.0002,-8.1582,-10.6872
722.6562,-10.6537,6.9962,-8.7983,-11.8680,-14.0379,14.6189,8.4252,-19.3066,-12.0881,-2.1139,-4.4958,12.1368,-15.6315,-3.7959,-3.2536,7.4605,-9.8551,-3.4787,-12.0046
726.5625,-9.4375,8.2978,-10.3361,-11.7883,-15.9713,16.9773,3.8455,-20.3260,-10.0660,-2.8030,-7.4969,13.5955,-14.0864,-6.5730,-8.2820,7.9036,-10.0717,0.5333,-14.0395
730.4688,-8.6160,7.1566,-12.6206,-8.8909,-16.8190,15.5635,-7.3826,-19.3847,-10.3647,-3.2262,-11.5772,12.3919,-12.7619,-6.6631,-12.8524,8.3406,-9.7237,3.8245,-15.9017
734.3750,-8.2760,4.1260,-14.6578,-3.3876,-15.8900,11.3323,-19.8543,-16.7638,-11.9806,-2.9510,-15.6513,9.2774,-10.9031,-3.9028,-15.7640,7.9379,-7.9075,6.2352,-17.0612
738.2812,-7.6239,0.8053,-16.0971,3.0341,-12.9114,6.8329,-27.4354,-13.5405,-13.1462,-1.7514,-19.2446,5.6082,-7.8046,0.4127,-16.9730,6.6347,-4.4023,7.3822,-17.7514
742.1875,-5.4330,-1.0581,-17.1730,8.3900,-8.3925,4.4009,-27.1502,-10.7638,-12.3840,0.5646,-22.3049,2.6618,-3.3935,4.5271,-17.2043,5.2225,0.1316,7.1354,-18.6041
746.0938,-1.0165,-0.6905,-18.1512,11.7441,-3.5624,4.6346,-20.7922,-8.7217,-9.3620,4.1660,-24.6228,1.0155,1.5658,7.4114,-17.0715,4.6205,4.5161,6.1337,-19.9190
750.0000,4.9877,1.1640,-18.9289,13.6553,0.1864,6.2418,-13.3559,-6.8849,-5.0719,8.9053,-25.5946,0.3490,5.7891,9.2471,-16.5604,4.9351,7.7141,5.6637,-21.2677
753.9062,10.6857,2.7280,-19.1722,15.4349,2.0585,7.2448,-9.6059,-4.5301,-1.2634,13.9699,-24.6672,-0.2070,8.1483,10.9477,-15.3388,5.1242,9.3525,6.7972,-21.7982
757.8125,13.9275,2.4049,-18.7691,17.9051,2.3311,6.5071,-11.2137,-1.4783,0.5018,17.9230,-22.0745,-1.4137,8.3141,13.2462,-13.5436,3.6350,9.8109,9.4377,-20.9524
761.7188,13.6124,-0.1483,-18.0536,20.7235,2.1968,4.3840,-16.2219,1.6933,-0.3645,19.3401,-19.0955,-3.4121,6.9856,16.1450,-12.1974,-0.4059,9.8872,12.1537,-18.9321
765.6250,10.4091,-3.8783,-17.5006,22.8104,3.0418,2.0950,-20.8075,4.1396,-3.2503,17.7233,-17.4133,-5.7048,5.5719,19.1222,-12.6826,-6.3707,10.3104,13.1099,-16.4684
769.5312,6.3950,-7.2067,-17.1600,23.4558,5.6320,0.4737,-21.8226,5.5056,-6.7178,14.0198,-17.9547,-7.6087,5.5189,21.7872,-15.5649,-12.3652,11.4248,11.4843,-14.0948
773.4375,3.8666,-9.2195,-16.4233,23.1067,9.7540,-0.7927,-18.3989,6.2925,-9.2001,10.2370,-20.1270,-8.7935,7.6724,24.3199,-19.7483,-16.4123,13.1978,8.2636,-11.5937
777.3438,4.1234,-10.2421,-14.4561,23.1187,14.5269,-2.8079,-11.8989,7.5000,-9.6302,8.2836,-22.1307,-9.4578,12.0173,27.2762,-22.8269,-17.7288,15.4656,5.7119,-8.1700
781.2500,6.9811,-11.3685,-10.9922,24.6500,19.1087,-6.3415,-4.7289,9.8274,-7.7291,8.7883,-22.1805,-9.9989,17.8690,30.9544,-22.5812,-17.1466,18.1803,5.8274,-3.2606
785.1562,11.1990,-13.3570,-6.7713,27.6152,23.2325,-10.9289,0.9538,13.0844,-3.9146,10.7468,-19.7095,-10.4663,24.3135,34.9275,-18.5777,-16.3724,21.4564,8.9266,2.7109
789.0625,15.3886,-15.8078,-3.1239,30.5890,27.1626,-14.9812,3.9736,16.2886,1.0185,12.2863,-15.6182,-10.3025,30.5771,38.1956,-12.6082,-16.6613,25.3927,13.4393,8.3478
792.9688,18.7341,-17.3079,-0.9408,31.7656,31.1300,-16.8388,4.3080,18.3503,6.2382,12.0174,-11.4092,-8.6628,36.1288,39.8492,-7.5154,-17.9079,29.8167,17.0669,12.1503
796.8750,21.1333,-16.4533,0.1298,30.2156,34.7382,-15.9358,2.9845,18.7708,11.0900,9.9922,-7.9671,-5.1358,40.5544,39.6672,-5.1944,-18.8137,34.1644,18.3959,13.5769
800.7812,22.8571,-12.9637,1.4949,26.4372,36.8685,-13.1770,1.7748,17.7895,15.1463,7.5694,-5.0275,-0.3131,43.4139,38.1250,-5.2570,-17.9489,37.6141,17.7124,13.4001
804.6875,24.1232,-8.0391,4.4542,21.7878,36.2352,-10.2839,2.5007,15.9079,18.1342,6.3025,-1.7737,4.2895,44.2711,35.8128,-5.3967,-14.8685,39.4249,16.4180,13.0041
808.5938,24.9080,-3.7011,8.9281,17.2951,32.2280,-8.6693,5.9604,13.2549,19.8252,6.6932,1.9978,6.9995,42.9017,32.8001,-3.2093,-10.4513,39.2880,15.5762,13.1531
812.5000,25.0266,-1.6252,13.1313,12.8409,25.4370,-8.6955,11.0398,9.3908,19.9733,7.7418,5.2308,6.9585,39.5081,28.5437,1.8988,-6.2761,37.4795,14.8134,13.2608
816.4062,24.2943,-2.2930,14.5759,7.3820,17.4680,-9.7685,14.8731,3.7556,18.3704,7.6142,6.1686,4.6319,34.7377,22.4610,8.1650,-3.5793,34.7166,12.5026,11.8314
820.3125,22.6199,-4.9732,11.7465,0.0099,10.1633,-11.0150,14.4127,-3.6095,15.0286,4.9186,3.7732,1.5017,29.4493,14.6866,12.6922,-2.5922,31.7874,7.1201,7.7953
824.2188,20.0511,-8.3683,5.2308,-9.0257,4.7542,-11.8814,8.6417,-11.7025,10.4154,-0.3293,-1.1285,-0.8359,24.3757,6.3264,13.5062,-2.6730,29.1636,-1.2816,1.6849
828.1250,16.8770,-11.3242,-2.5167,-18.1528,1.4882,-12.1973,-0.1630,-18.9217,5.5808,-6.6946,-5.9783,-1.5352,19.9195,-1.0738,10.9066,-2.9891,26.8180,-10.6398,-4.3386
832.0312,13.7718,-13.0980,-8.5707,-25.2815,-0.0984,-11.8065,-7.3511,-23.9089,2.0146,-12.1852,-7.9279,-0.7557,16.2195,-6.4576,7.1625,-3.1268,24.3528,-17.8455,-7.7086
835.9375,11.7816,-13.1784,-11.0316,-28.9209,-0.5587,-10.2703,-8.7155,-26.2292,1.1793,-15.3189,-5.5767,0.7923,13.4046,-9.8303,4.8779,-3.1690,21.3632,-20.4152,-7.0213
839.8438,11.9531,-11.0702,-9.5900,-28.7615,-0.0637,-7.0323,-3.3285,-26.3665,3.8689,-15.6980,0.2571,2.5917,11.7943,-11.9883,5.3112,-3.3079,17.8077,-17.7059,-2.7553
843.7500,14.6812,-6.4228,-4.9593,-25.3860,1.5938,-1.9484,5.7718,-25.0770,9.7066,-13.8639,7.2464,4.7510,11.8283,-13.6277,7.8391,-3.4528,14.1431,-10.9420,3.3674
847.6562,19.1929,0.5343,2.0891,-19.5194,4.5939,4.3196,13.7598,-22.6735,17.1043,-10.7458,13.1300,7.8074,13.7216,-14.5937,10.7756,-3.2375,11.1129,-2.2449,9.7855
851.5625,23.6600,8.6852,11.1277,-11.5613,8.6573,10.4768,17.5745,-18.8610,23.7967,-7.1994,16.9382,12.0895,17.0795,-13.9470,12.7175,-2.4062,9.3009,6.4808,16.0717
855.4688,26.0648,16.2777,21.5936,-1.8059,12.9451,15.2941,18.1400,-13.2636,27.7506,-3.8721,19.0518,17.1746,20.7902,-10.8385,13.3255,-1.1685,8.7273,14.0511,22.6873
859.3750,25.3586,21.7150,32.0382,8.9461,16.3772,18.3179,19.4295,-6.1759,28.0091,-1.2443,20.2973,21.9063,23.3671,-5.4744,13.0856,-0.1254,8.7685,19.8134,29.8207
863.2812,22.1182,24.3887,40.0776,19.0981,18.1437,20.0395,24.9734,1.1522,25.0347,0.4319,21.0372,25.0113,23.6173,0.6906,12.5180,0.2399,8.4991,23.2965,36.4511
867.1875,18.1603,24.9409,43.4468,26.7575,18.0701,21.3931,34.5147,7.0258,20.3789,1.3519,21.0779,25.9029,21.2712,5.8027,11.6847,0.0811,7.2768,24.2487,40.6238
871.0938,15.3020,24.7456,41.5263,30.7814,16.6319,22.9895,43.5535,10.2793,15.8787,2.2711,20.3568,25.1018,17.1899,8.9108,10.4280,0.2324,5.2124,23.0736,40.8693
875.0000,14.1281,24.9831,36.1087,31.5569,14.6630,24.6857,46.3510,10.9769,12.8289,4.1971,19.5792,23.9636,12.9925,10.6957,8.9743,1.6624,3.2003,21.1215,37.6204
878.9062,13.6798,25.9858,30.5999,30.8142,12.9639,25.7944,40.2210,10.2805,11.5626,7.6942,19.9900,23.8680,10.2851,12.9873,8.1490,4.7282,2.4463,20.2851,33.3266
882.8125,12.3291,27.2953,28.0269,30.4933,12.0193,25.7158,27.8118,9.5751,11.6006,12.2763,22.3067,25.3984,9.9119,17.3524,8.8242,8.8210,3.7540,21.9460,30.9443
886.7188,9.1999,28.3021,29.2173,31.4633,11.9061,24.4608,15.5322,9.5199,12.1907,16.4683,25.7403,28.0411,11.6336,23.7898,11.0221,12.7118,7.0062,25.9916,31.8326
890.6250,5.0464,28.8927,32.4757,33.0544,12.3624,22.6744,9.2148,9.7452,12.8588,18.6856,28.1470,30.5931,14.3851,30.5358,13.5570,15.3587,11.1786,30.7430,34.6837
894.5312,1.8817,29.5703,34.9903,33.7638,12.9458,21.2005,10.2430,9.3892,13.6377,18.4002,27.4682,31.9958,16.9277,35.1687,14.7241,16.5715,14.8898,34.0105,36.4145
898.4375,1.5856,30.9758,34.8873,32.5780,13.2296,20.5784,14.9995,7.9969,14.8812,16.6950,23.4444,32.0311,18.4903,36.2187,13.6179,17.0394,17.1487,34.5852,34.4278
902.3438,4.5124,33.2311,32.3722,29.8683,12.9941,20.8407,17.9183,6.0254,16.8322,15.6465,18.1409,31.4063,19.0358,34.1073,10.9864,17.7211,17.8269,33.0499,28.5395
906.2500,9.1319,35.6504,29.1434,27.1511,12.3430,21.6665,15.6828,4.5393,19.2497,16.8401,14.6180,31.1601,19.0409,30.7475,8.7656,19.0748,17.5680,31.2465,21.0709
910.1562,12.9682,37.0495,26.6508,25.9082,11.6650,22.6423,9.3533,4.3544,21.3394,20.0696,14.5602,31.7890,18.9949,28.1432,8.4917,20.6996,17.2216,30.7743,15.0240
914.0625,14.1427,36.4083,24.6832,26.4116,11.4169,23.3644,2.9737,5.3433,22.0451,23.2626,16.6673,32.7087,18.9848,27.0581,9.8027,21.6164,17.2077,31.6805,11.7676
917.9688,12.4152,33.4059,21.4728,27.4947,11.8279,23.3679,0.0171,6.4861,20.5574,23.8312,17.2217,32.4822,18.6562,26.7210,10.3330,20.9325,17.2556,32.3992,10.0646
921.8750,9.0512,28.5031,15.2484,27.4585,12.7156,22.1067,0.6256,6.6452,16.7800,20.5586,12.6567,29.7400,17.5601,25.7083,7.2980,18.3951,16.6905,31.0264,7.2112
925.7812,5.7514,22.6206,5.9677,25.4003,13.5704,19.1846,1.7696,5.4535,11.5112,14.6441,2.3558,24.2225,15.6161,23.2442,-0.2986,14.4875,15.0490,26.9515,1.3772
929.6875,3.5313,16.7157,-4.2094,21.9237,13.8838,14.7480,-0.0185,3.6117,6.2178,9.0638,-10.4212,17.2217,13.3297,19.8863,-10.5122,10.1020,12.5655,21.5450,-6.7262
933.5938,2.3568,11.5169,-12.1529,18.6805,13.5049,9.6868,-5.7227,2.3572,2.4625,6.6239,-20.3171,11.0298,11.5663,17.0971,-19.3557,6.0942,10.1578,17.3137,-14.1958
937.5000,1.6442,7.4375,-15.7901,17.1140,12.7539,5.3316,-13.1112,2.5167,1.2172,8.0712,-23.2225,7.6489,11.0090,16.0988,-23.2329,3.0092,8.8930,16.1244,-18.0403
941.4062,1.0335,4.5278,-15.3944,17.3838,12.1816,2.7122,-18.6303,3.8687,2.3856,11.6249,-18.8684,7.5463,11.6715,16.9427,-21.2121,1.0346,9.2933,17.8404,-17.3919
945.3125,0.7204,2.3933,-13.1862,18.2864,12.1314,1.8580,-20.1860,5.2877,4.8063,14.2697,-10.8599,9.2876,12.8356,18.5119,-15.5212,0.0460,10.9669,20.4079,-14.1033
949.2188,1.1248,0.2078,-11.6095,18.1911,12.4311,1.6944,-18.4700,5.5334,6.8002,13.8669,-4.1880,10.3484,13.5010,19.4018,-9.9397,-0.3811,12.8368,21.3273,-11.3003
953.1250,2.3190,-2.9810,-11.6357,16.2422,12.4692,0.7110,-15.8655,4.0792,7.0417,10.5608,-2.0299,8.6376,13.0700,18.9382,-7.2803,-0.9462,13.8235,19.3990,-11.0620
957.0312,3.8507,-7.6565,-12.3463,12.9122,11.6272,-1.9992,-14.0696,1.3917,5.3140,6.5178,-4.0541,3.7651,11.7942,17.5253,-7.7542,-2.4366,13.5191,15.4654,-13.0379
960.9375,5.1915,-13.2801,-11.9849,9.5490,9.7627,-6.0496,-12.5964,-1.4711,2.7153,4.2932,-7.2318,-2.7656,10.6478,16.1004,-9.2695,-5.3310,12.3900,11.6797,-15.0015
964.8438,6.4074,-18.2521,-9.5289,7.3471,7.3796,-9.9249,-9.4480,-3.5679,1.1492,5.1042,-8.3026,-8.5431,10.6808,15.2010,-9.2559,-9.3885,11.3733,9.9551,-14.7817
968.7500,8.3681,-20.5972,-5.5072,6.5723,5.3469,-11.9047,-3.2853,-4.5511,2.3370,8.2626,-5.9648,-11.7256,12.2864,14.4451,-6.5593,-13.5597,11.1631,10.8040,-11.9657
972.6562,12.1735,-19.0613,-1.4839,6.5896,4.3642,-11.1044,4.8838,-4.6392,6.8900,12.0421,-1.2986,-12.0088,14.9042,12.8543,-2.0648,-16.4095,11.7072,13.3531,-8.0524
976.5625,18.1780,-13.9251,1.2627,6.5598,4.5650,-7.9268,12.0520,-4.2461,13.9703,15.1307,3.5770,-10.4809,17.3941,9.7406,2.2136,-16.8799,12.2838,16.3260,-5.0586
980.4688,25.4215,-6.9465,2.7383,6.1498,5.5392,-3.6671,15.3722,-3.6566,21.7241,17.4351,7.2979,-8.5792,18.8375,5.4125,4.6928,-14.9146,12.1124,19.0367,-3.8248
984.3750,32.0151,-0.4227,4.1106,5.6618,6.7334,0.3673,14.3298,-3.0083,28.2047,19.6371,10.0342,-6.9898,19.1995,1.1083,5.2174,-11.5016,11.0490,21.5446,-3.4324
988.2812,36.2599,4.0077,6.6226,5.5304,7.8936,3.5520,11.1074,-2.5006,32.2151,21.9977,12.8043,-5.3162,19.3596,-1.8073,4.8880,-8.0674,9.8416,23.9346,-2.1441
992.1875,37.6469,6.0175,10.4583,5.6890,9.1960,5.9970,8.8375,-2.5375,33.5909,23.5550,16.1333,-2.7026,20.4632,-2.7601,5.0849,-5.6163,9.7177,25.5006,1.0047
996.0938,36.9392,6.3114,14.4637,5.4053,10.9686,8.0362,9.2032,-3.5886,32.8514,22.5255,19.3207,1.1588,23.0433,-2.2882,6.5547,-4.1963,11.5651,24.7199,5.3333
1000.0000,35.2888,5.7358,16.9061,3.7694,13.2498,9.6660,11.3567,-5.8494,30.5803,17.6864,20.9438,5.4944,26.5574,-1.5465,9.1760,-3.0316,15.2755,20.2195,9.0731
1003.9062,33.1590,4.5448,16.6561,0.4517,15.5740,10.4373,12.9841,-8.9989,27.0495,9.6367,20.1041,8.8490,29.7005,-1.4072,12.3370,-1.1853,19.7339,12.0365,10.8380
1007.8125,30.0161,2.4100,13.9202,-3.8934,17.2012,9.8918,12.5464,-12.2939,22.3549,0.8486,17.2970,10.1187,31.2980,-1.8633,15.4091,1.7434,23.4876,2.1233,10.7500
1011.7188,25.1166,-0.8807,10.0788,-7.9204,17.6470,8.1624,10.7763,-14.9578,16.8957,-5.6623,14.1517,9.3973,31.1380,-2.1674,17.9091,5.3625,25.6390,-6.4372,10.2986
1015.6250,18.7401,-4.6846,6.8766,-10.3769,17.1055,6.2042,10.1799,-16.5677,11.7168,-8.1339,12.2802,7.9550,30.1183,-1.5441,19.4134,8.7869,26.3310,-11.0620,11.0982
1019.5312,12.7368,-7.4239,5.5979,-10.7977,16.4038,5.4030,12.9691,-17.1474,8.3140,-7.0129,12.2173,7.3472,29.5618,0.1210,19.5771,11.2149,26.4756,-11.0376,13.6121
1023.4375,9.7193,-7.3351,6.7036,-9.6237,16.4689,6.7836,19.1273,-16.9330,7.9118,-4.3890,13.3033,8.3282,30.1669,2.1490,18.4404,12.3589,26.9213,-7.7012,16.8781
1027.3438,11.3196,-3.5446,9.9477,-7.7248,17.6607,10.3571,26.1666,-16.0532,10.6655,-2.3773,14.5178,10.3875,31.3530,3.5565,16.7616,12.4914,27.6733,-3.3813,19.3869
1031.2500,16.7842,3.3145,14.6605,-5.7415,19.4525,15.0533,30.7464,-14.4198,15.3655,-1.6852,15.4607,12.2308,31.5083,3.7431,15.8997,12.1757,27.7617,0.0776,20.3027
1035.1562,23.0684,11.3891,19.9416,-3.7363,20.7119,19.2832,30.8842,-11.9051,19.9197,-1.3996,16.6017,12.7908,29.0198,2.8454,17.0751,11.9384,25.8909,2.1714,19.9980
1039.0625,26.5343,18.5695,24.7747,-1.3428,20.4084,21.7552,27.1270,-8.6082,22.3665,-0.0425,18.6122,11.9764,23.3957,1.5377,20.4341,12.0857,21.4284,3.5104,19.5337
1042.9688,25.1395,23.4380,28.2374,1.8049,18.2705,22.0322,21.9630,-4.9242,21.7960,3.0317,21.4320,10.6166,15.7084,0.5137,24.6773,12.6801,15.0242,4.8965,19.6412
1046.8750,19.5814,25.6023,29.8392,5.7384,14.9446,20.5342,18.0952,-1.3311,18.6189,7.0209,23.9624,9.7220,8.0440,0.0950,27.6957,13.5783,8.3936,6.5382,20.1409
1050.7812,12.5923,25.3514,29.7544,10.1266,11.5616,18.0811,16.8888,1.9061,14.0638,10.2760,24.7214,9.7108,2.3243,0.2317,27.8805,14.4642,3.3804,7.9795,20.2656
1054.6875,6.9297,23.0917,28.6502,14.4604,9.0233,15.3487,17.9220,4.8006,9.3001,11.5617,22.9399,10.2171,-0.7115,0.7881,25.1688,14.9221,0.9253,8.6378,19.5006
1058.5938,3.5525,19.1000,27.1027,18.2093,7.5018,12.6062,19.6097,7.3667,4.8038,10.9343,19.1702,10.5699,-1.7205,1.7692,21.0130,14.6166,0.6224,8.3557,18.0946
1062.5000,1.2977,13.7520,25.0122,20.8289,6.4689,9.8510,20.1963,9.2312,0.3630,9.5698,14.8806,10.4621,-2.0948,3.2494,17.2740,13.5290,1.1282,7.4587,16.7373
1066.4062,-1.7852,7.9000,21.5709,21.7354,5.1896,7.1612,18.4757,9.5413,-4.3589,8.7635,11.3734,10.1959,-2.9536,5.0937,14.8907,12.0668,1.0908,6.3445,15.7158
1070.3125,-6.5335,2.9193,15.9687,20.4494,3.2996,4.9460,14.1098,7.3880,-9.1780,8.9689,8.9300,10.2952,-4.5036,6.7921,13.3619,10.8758,-0.0602,5.0896,14.3948
1074.2188,-11.6880,0.2373,8.3855,16.9406,1.0608,3.8797,7.7509,2.5291,-13.1694,9.6422,6.8773,10.8519,-6.1526,7.6530,11.4056,10.4036,-1.9670,3.5182,11.6046
1078.1250,-14.5852,0.6298,0.4453,11.9297,-0.8520,4.5404,1.0242,-4.1239,-15.0536,9.9299,4.4584,11.2278,-7.1860,7.2672,8.1895,10.5077,-3.8402,1.6927,6.6811
1082.0312,-13.0106,3.7988,-5.4129,6.8070,-1.8396,6.9967,-3.8903,-10.7074,-13.9369,9.5279,1.6876,10.4359,-7.4300,5.8707,4.0632,10.4478,-5.1453,0.3038,0.2453
1085.9375,-6.8524,8.5409,-7.3904,3.0645,-1.7756,10.6217,-5.2826,-15.2728,-9.9215,8.9439,-0.6055,7.9327,-7.3941,4.2678,0.1738,9.3473,-5.9451,0.4491,-6.0529
1089.8438,1.6211,13.3592,-5.6267,1.5405,-1.0442,14.2773,-3.1750,-16.7809,-4.1967,8.9601,-1.6078,4.1669,-7.8295,3.3190,-2.6696,6.8296,-6.6940,2.8169,-10.7250
1093.7500,9.0211,17.0700,-2.3280,2.0114,-0.2248,16.7810,0.1284,-15.5495,1.4414,9.8215,-1.4847,0.3940,-9.0881,3.3742,-4.8390,3.3447,-7.7231,6.8985,-13.6072
1097.6562,12.7348,19.0431,-0.4791,3.4805,0.3313,17.4045,1.0216,-12.8469,5.3633,10.9170,-1.5518,-2.1479,-10.7912,4.1038,-7.6230,-0.0951,-8.8710,10.9732,-15.9630
1101.5625,12.2144,19.0874,-1.9300,5.0029,0.7424,16.1401,-3.1053,-9.9384,6.7696,11.2810,-3.3774,-3.0713,-12.0400,4.8775,-12.0023,-2.5972,-9.5457,13.0745,-19.3282
1105.4688,8.9465,17.2868,-6.1619,6.4427,1.5222,13.6196,-11.6886,-7.2846,5.9428,10.5018,-7.4680,-3.0258,-11.9734,5.3906,-17.4920,-3.9607,-9.1332,12.3418,-23.9818
1109.3750,5.3281,14.0344,-10.6182,8.5569,3.2709,10.7619,-20.6904,-4.4561,4.0189,9.2296,-12.6173,-3.0954,-10.2453,6.0179,-22.1080,-4.6839,-7.4004,9.7505,-28.3313
1113.2812,3.3042,10.1833,-12.4014,12.2880,6.3371,8.3622,-24.8306,-0.7765,2.4211,8.7832,-16.5388,-3.9026,-7.1066,7.5821,-23.6277,-5.4096,-4.5941,7.5766,-29.8359
1117.1875,3.5776,6.9713,-10.1866,17.7702,10.6294,6.8221,-21.1175,3.8445,2.2119,10.1127,-17.3952,-5.1580,-3.1244,10.6927,-21.2322,-6.2945,-1.2205,7.8700,-26.8650
1121.0938,5.6521,5.4948,-5.0710,23.8268,15.6344,6.1038,-11.2207,8.5533,3.6264,12.9490,-15.1004,-6.0323,1.1650,15.1740,-16.2360,-6.8722,2.2507,10.9798,-20.0849
1125.0000,8.4155,5.9402,0.1545,28.4165,20.5946,5.8532,-0.7843,11.9540,5.9873,15.8637,-11.4037,-6.0468,5.3862,20.0451,-11.2850,-6.5718,5.5067,15.2000,-12.2680
1128.9062,10.7817,7.1583,2.7440,29.7946,24.7570,5.5704,4.1136,12.9774,8.0576,17.2520,-8.6812,-5.7318,9.2153,24.0882,-8.5926,-5.4632,8.3079,17.8227,-6.6051
1132.8125,12.1025,7.0798,1.5583,27.6066,27.6173,4.7484,0.9917,11.5822,8.7021,16.5022,-8.3278,-6.4542,12.2468,26.5784,-8.5350,-4.5487,10.3875,16.8886,-4.7405
1136.7188,12.3286,3.9070,-2.4997,23.1456,29.0888,2.9826,-7.3875,8.8003,7.5469,14.4573,-9.9163,-9.4625,14.0677,27.6284,-9.6312,-5.2369,11.5246,12.4392,-5.9426
1140.6250,12.0034,-2.6317,-7.2819,18.5825,29.5229,0.0997,-14.9927,6.1185,5.2688,12.8162,-11.6678,-14.8330,14.5344,27.9075,-9.8399,-8.3140,11.7645,6.4590,-7.9268
1144.5312,12.0927,-10.8516,-10.7354,15.6904,29.5291,-3.6898,-16.7275,4.6425,3.3076,12.9460,-11.7850,-21.1222,14.0043,27.9930,-8.1090,-13.1959,11.5424,1.6299,-8.6037
1148.4375,13.6024,-17.8972,-11.8828,14.9110,29.6383,-7.6995,-11.8259,4.5870,3.1151,15.0066,-9.6154,-26.0386,13.2491,27.8803,-4.9943,-18.1005,11.4963,-0.1945,-7.4060
1152.3438,17.0516,-21.2882,-10.9517,15.3341,29.9784,-10.8617,-4.0136,5.3518,5.3685,17.9993,-5.8485,-27.7144,13.0336,27.0302,-1.9838,-21.0923,12.0272,1.1931,-5.2985
1156.2500,22.0772,-20.2118,-8.8046,15.5038,30.1904,-12.0638,1.5698,6.0332,9.6337,20.6099,-1.7625,-25.7328,13.6466,24.8795,-0.1999,-21.2592,12.9582,4.6193,-3.6701
1160.1562,27.4936,-15.7242,-6.2062,14.4272,29.7014,-10.6249,2.3005,5.9838,14.6945,22.1188,1.7639,-21.2520,14.7640,21.3744,0.4274,-19.1542,13.6427,8.4718,-3.1283
1164.0625,31.8884,-9.8137,-3.4067,12.1036,28.2235,-6.6696,-0.0849,5.0940,19.3179,22.6784,4.6987,-16.2121,15.7748,17.0861,0.9229,-16.1991,13.5259,11.5513,-3.1503
1167.9688,34.4233,-4.0807,-0.1746,9.3155,26.1323,-1.1601,-1.0140,3.7194,22.9217,22.8369,7.5366,-12.2113,16.3170,12.8255,2.2982,-13.5588,12.7363,13.3231,-2.7243
1171.8750,35.2865,1.0068,3.8837,6.9567,24.3895,4.4833,3.3025,2.3984,25.6861,22.8201,10.6295,-9.7902,16.5697,9.0857,4.7401,-11.3947,12.1589,13.6453,-1.2912
1175.7812,35.4447,5.8504,8.9649,5.4373,23.9665,9.0039,12.9195,1.5585,28.0806,22.2339,13.7946,-8.4895,17.0338,5.7643,7.5979,-9.0680,12.8074,12.4408,0.8529
1179.6875,35.8608,10.8404,14.8252,4.5457,25.1153,11.8412,24.0116,1.3324,30.2314,20.4380,16.4833,-7.4819,17.9748,2.3756,10.0448,-6.0557,14.9064,9.6918,2.9550
1183.5938,36.7746,15.6846,20.7167,3.7528,27.0296,13.2817,31.4922,1.5099,31.6813,17.2329,18.2649,-6.2414,19.0233,-1.4429,11.7207,-2.7461,17.4392,5.7193,4.5316
1187.5000,37.6141,19.5138,25.5417,2.6426,28.2295,14.1573,32.3710,1.6172,31.7705,13.2311,19.1424,-4.8059,19.3408,-5.5459,12.7765,-0.3843,18.6506,1.3694,5.7126
1191.4062,37.5972,21.6167,28.2420,1.1462,27.4979,15.2840,27.4652,1.1149,30.3277,9.5622,19.4444,-3.5711,18.2940,-9.3101,13.3865,-0.1713,17.2662,-2.2111,6.9328
1195.3125,36.5088,22.1067,28.3226,-0.5122,24.7508,16.9825,20.4770,-0.3272,28.0630,7.1404,19.4720,-2.8926,16.1055,-12.0153,13.3350,-2.2575,13.5536,-4.1464,8.3521
1199.2188,34.9729,21.8972,26.2392,-2.0141,21.1915,18.9558,15.4018,-2.5977,26.2410,6.0924,19.2932,-2.8297,13.8979,-13.2424,12.1973,-5.4880,9.3532,-4.3285,9.6438
1203.1250,33.9538,21.9787,23.3328,-3.0861,18.5730,20.5713,14.2331,-5.1089,25.7958,5.8011,18.8880,-3.1587,12.9868,-12.9746,10.0055,-8.1447,6.9333,-3.4219,10.4031
1207.0312,33.8786,22.6086,21.2033,-3.5104,18.0403,21.3379,16.3913,-7.0400,26.5477,5.5019,18.4495,-3.5413,13.9027,-11.3770,7.7158,-9.0958,7.4329,-2.3358,10.7765
1210.9375,34.1279,23.1152,20.8107,-3.0892,19.3667,21.2565,19.8343,-7.7521,27.1863,4.9168,18.4593,-3.6587,15.9011,-8.5184,6.8641,-8.4228,10.0444,-1.5576,11.6225
1214.8438,33.3697,22.4989,21.8764,-1.6889,21.1432,20.8077,22.6682,-7.1246,26.1319,4.4107,19.3612,-3.2434,17.3896,-4.3430,8.5011,-7.0429,12.5764,-0.8684,13.8955
1218.7500,30.5231,20.3374,23.0509,0.6214,21.7814,20.5860,24.0387,-5.5849,22.6916,4.5801,21.0843,-2.0928,16.9933,1.0381,12.2283,-5.7119,12.9974,0.3403,17.6788
1222.6562,25.5984,17.2442,22.8168,3.4502,20.5755,20.8340,23.9763,-3.8152,17.6392,5.6642,22.8873,-0.1705,14.4466,6.9811,16.2202,-4.3277,10.7903,2.4090,21.7161
1226.5625,19.7391,14.5105,20.5503,6.1251,18.0242,21.2240,22.7692,-2.3575,12.7350,7.2923,23.7690,2.2383,10.6114,12.2289,18.3772,-2.1817,7.0849,4.9476,23.9776
1230.4688,14.4319,13.2448,16.9957,7.9286,15.1943,21.0904,20.6331,-1.4024,9.5010,8.7653,23.1860,4.4899,6.6162,15.2969,17.7944,1.0643,3.5079,6.9546,22.9616
1234.3750,10.5324,13.7282,13.7970,8.4186,12.6815,20.0126,17.8972,-0.8801,8.1646,9.6029,21.4881,5.8170,2.8488,15.1580,15.3866,4.6098,0.7295,7.4570,18.7736
1238.2812,7.8935,15.4812,12.4107,7.6490,10.0591,18.3600,15.2905,-0.7072,7.5955,9.8811,19.6591,5.7828,-1.3084,11.8177,13.1279,6.7912,-2.0510,6.2112,13.1272
1242.1875,5.8624,17.8944,13.1727,6.1671,6.3212,17.3571,13.8000,-0.9234,6.3117,10.0944,18.5338,4.6660,-6.7070,6.4106,12.4847,6.3552,-6.2106,3.9641,8.2291
1246.0938,4.1595,20.7831,15.1678,4.7870,0.9882,18.4859,14.0528,-1.5842,3.7968,10.7088,18.1381,3.4568,-13.2294,0.7393,13.3026,3.7354,-12.1228,2.0892,5.3824
1250.0000,3.3225,24.3278,16.9282,4.2453,-5.0642,22.4930,15.7222,-2.5472,1.0908,11.8216,17.7494,3.3681,-19.2182,-3.4941,14.0591,1.1653,-18.2697,1.8442,4.3478
1253.9062,4.2770,28.4676,17.3824,4.8825,-9.8516,28.6268,17.5355,-3.4300,0.1455,13.2146,16.6647,5.1288,-22.1904,-5.3597,13.2642,1.3031,-21.9349,3.7193,3.8734
1257.8125,7.3776,32.3816,16.3444,6.4792,-11.5663,34.7027,17.9696,-3.8753,2.3784,14.7002,15.0179,8.5197,-20.4752,-4.9595,10.8145,5.2650,-21.0968,7.2421,2.8605
1261.7188,11.7751,34.6913,14.2769,8.3367,-9.9735,38.1319,16.1398,-3.9280,7.4996,16.3834,13.8683,12.4886,-14.5815,-3.1983,8.1240,11.5791,-16.0825,11.2895,1.1719
1265.6250,15.7460,34.3954,11.6762,9.6201,-6.7781,37.3969,12.2371,-4.1323,13.5169,18.5518,14.3516,15.7853,-7.1684,-1.2241,6.8751,16.9895,-9.5993,14.6751,-0.5319
1269.5312,17.8229,31.8279,8.7001,9.8618,-4.5278,33.0588,7.2796,-5.1144,17.9550,21.2759,16.5136,17.6867,-1.4715,0.1806,7.4276,18.6505,-4.9588,16.6850,-1.6620
1273.4375,17.8507,28.7581,5.3571,9.3811,-4.7473,27.5677,2.5046,-6.8719,19.4188,24.1117,18.8223,18.3094,0.7681,0.9799,8.2631,16.1225,-3.7442,17.3333,-2.4132
1277.3438,17.0818,27.3473,1.9944,9.3108,-6.6824,23.8707,-1.0809,-8.3554,18.3714,26.2425,18.9108,18.3034,0.3631,1.8586,7.0221,11.6403,-4.7001,17.2686,-3.6429
1281.2500,17.1604,28.6046,-0.5142,11.0629,-7.6896,23.6246,-2.7940,-7.8494,16.5831,27.0059,15.1357,18.1716,-0.1023,3.7774,2.3554,8.3947,-4.7678,17.3972,-6.0387
1285.1562,18.7528,31.4871,-1.2458,15.4020,-5.1282,26.1505,-2.2698,-4.0913,15.6911,26.3735,7.8151,17.7352,1.6284,7.2980,-4.9132,8.0864,-1.5606,18.3722,-9.3774
1289.0625,20.9064,33.4028,-0.0975,21.6438,1.5439,28.8425,0.3000,2.5794,15.9488,24.9336,-0.8441,16.1527,5.6122,12.0316,-12.3074,9.6065,4.5751,20.1551,-12.6242
1292.9688,21.6795,31.8535,1.6952,27.5799,10.0129,28.7974,3.7509,9.9410,16.0699,23.3339,-8.1620,12.4961,9.4842,16.5787,-17.5309,9.8621,10.5238,21.8822,-14.8558
1296.8750,19.5910,26.0770,1.9975,30.3818,16.3354,24.6112,5.8900,14.8712,14.2417,21.6326,-12.7338,6.4768,10.1108,19.1115,-20.1473,6.1340,12.5057,22.1877,-16.1928
1300.7812,14.7930,17.5249,-0.9264,28.1147,17.3867,17.1760,4.3136,15.0917,9.5407,19.1576,-15.1974,-1.1938,5.9451,18.3667,-21.7280,-1.8107,8.8208,19.9205,-17.8262
1304.6875,9.0866,8.8695,-7.0915,20.9928,12.8735,9.0004,-2.0758,10.5538,2.7410,15.1009,-17.4298,-9.0604,-1.6303,14.4870,-24.3198,-11.4345,1.2214,14.9220,-20.9608
1308.5938,4.8026,2.3222,-14.4276,11.5345,5.5423,2.5903,-11.8334,3.5083,-4.0012,9.4570,-20.7804,-15.6190,-8.9670,9.1377,-28.4635,-19.1457,-6.1031,8.3913,-25.4808
1312.5000,3.4254,-1.4930,-19.7491,3.3967,-0.5334,-0.9673,-21.1434,-2.8214,-8.2906,3.5487,-24.7067,-19.9851,-12.3643,4.7125,-32.3944,-22.6812,-9.2008,2.5237,-29.5102
1316.4062,4.9711,-3.3810,-20.4944,-0.4898,-2.3923,-2.2956,-25.6771,-6.0751,-8.6586,-0.3914,-26.8916,-22.1308,-10.2842,3.0312,-33.1359,-22.3742,-6.7848,-0.4835,-30.4109
1320.3125,8.4587,-4.4416,-16.1132,0.6263,0.2682,-2.8379,-23.1146,-5.8806,-5.0588,-0.4318,-24.8025,-22.6163,-4.0720,4.3180,-28.6885,-20.4629,-0.7594,0.4657,-26.6107
1324.2188,12.9233,-5.0082,-8.2225,5.1443,5.3421,-3.5828,-14.6005,-3.6029,1.4273,3.8332,-17.5640,-22.0905,3.1896,7.1296,-19.6381,-19.1354,5.3718,4.7996,-18.8996
1328.1250,18.0437,-4.5432,0.4788,10.2612,9.9801,-4.3964,-3.9936,-1.0665,9.2668,10.9018,-6.7837,-20.9416,8.7494,9.3012,-8.9530,-18.9264,8.9234,10.6025,-10.1446
1332.0312,23.8901,-2.4906,7.7164,13.6356,12.3937,-4.3989,4.6518,0.7062,17.0150,18.1245,4.2478,-19.2994,11.6900,9.3007,-0.1429,-18.6810,9.5205,15.6261,-3.5446
1335.9375,30.1280,0.7596,12.5598,14.4817,12.6063,-2.9642,9.5660,1.8312,23.5038,23.1154,12.3805,-17.2828,12.9402,7.0987,4.8178,-16.9635,8.7673,18.3676,-0.6657
1339.8438,35.5307,3.7410,15.2898,13.4908,11.8677,-0.4552,11.8752,2.8891,27.8465,24.8873,16.1774,-15.2124,14.0440,4.0029,6.3061,-13.6182,8.6138,18.5816,-0.6778
1343.7500,38.3916,4.8283,16.5693,11.8392,11.4214,1.9255,13.9474,3.9733,29.5289,24.0149,16.2512,-13.5714,15.7857,1.6328,6.1740,-10.1297,9.8247,17.0104,-1.2943
1347.6562,37.6272,3.4839,16.7049,10.1346,11.6417,3.0344,16.8934,4.3536,28.6365,21.8379,14.3583,-12.7430,17.7062,0.7931,6.0661,-8.4866,11.6704,14.6347,-0.6305
1351.5625,33.7003,0.7775,15.5680,8.0783,12.0821,2.6812,19.3523,3.0521,25.9853,19.3701,12.0971,-12.7461,18.7189,1.0306,6.3339,-9.5222,12.8706,12.0125,1.4590
1355.4688,28.5538,-1.3232,13.0933,4.9736,12.1811,1.7751,18.6573,-0.2010,22.8809,16.7090,10.1816,-13.1937,18.1604,1.1220,6.3016,-12.1399,12.8364,9.1097,3.5216
1359.3750,24.4955,-1.3917,9.7803,0.5438,11.9040,1.5965,13.4680,-4.5092,20.5133,13.2917,8.6292,-13.5107,16.3680,0.0567,5.4385,-14.0857,12.1502,5.6153,3.8896
1363.2812,22.8067,0.4035,6.6638,-4.6584,11.7884,2.7721,5.6075,-8.3100,19.3397,8.6911,7.4191,-13.2451,14.3795,-2.2335,4.2660,-13.6440,11.9805,1.3907,2.1255
1367.1875,23.0827,2.4570,4.7293,-9.5534,12.4487,4.7604,-0.6566,-10.4627,18.9042,3.2740,6.8813,-12.2567,13.1137,-4.8884,4.1460,-10.8800,13.0478,-3.3137,-0.6177
1371.0938,23.7497,2.9646,4.2565,-13.2431,14.0481,6.2373,-1.6002,-11.0354,18.2490,-1.7929,7.4530,-10.6901,12.7589,-6.7736,6.1409,-7.4363,15.0655,-7.9873,-2.5316
1375.0000,23.3088,1.2559,4.6486,-15.5119,16.1975,6.0652,2.9647,-11.1351,16.6293,-5.1862,9.1026,-8.8248,12.8272,-7.2241,9.9709,-5.0898,17.0798,-12.1526,-2.5573
1378.9062,21.3424,-1.8109,4.9003,-16.7487,18.2919,4.1001,9.1984,-11.9253,14.0014,-6.2410,11.0548,-6.9613,12.7097,-6.3510,14.0247,-4.2831,18.3142,-15.5612,-1.1224
1382.8125,18.5723,-4.6440,4.3202,-17.4514,19.8977,1.2594,11.9137,-13.6656,10.9401,-5.3655,12.1821,-5.4160,12.1631,-4.8002,16.4735,-3.8333,18.7134,-18.1791,0.3121
1386.7188,16.0490,-6.1938,2.9327,-17.8193,20.8025,-1.1360,8.5540,-15.5889,8.0977,-3.7907,11.8076,-4.5360,11.2958,-3.2820,16.6021,-2.0281,18.7151,-20.0570,0.4307
1390.6250,14.2138,-6.6494,1.2687,-17.8021,20.7321,-2.2050,1.3859,-16.7102,5.6786,-2.8451,10.2528,-4.5994,10.1408,-2.2802,15.2826,1.8340,18.5182,-21.2497,-1.0248
1394.5312,12.5969,-7.0266,-0.2186,-17.4882,19.1145,-1.9336,-3.9728,-16.8464,3.3638,-3.2227,8.6359,-5.5793,8.3101,-2.0718,14.2380,6.7538,17.5974,-21.8353,-3.2788
1398.4375,10.3240,-8.0695,-1.5696,-17.3525,15.2811,-0.9803,-2.7739,-16.9100,0.7173,-4.6704,8.0387,-6.9429,5.1519,-2.8471,14.7216,10.7596,14.9979,-21.9371,-5.3163
1402.3438,6.9306,-9.4502,-3.1925,-17.9886,9.0776,-0.1340,5.0448,-18.1440,-2.3053,-6.2259,8.6900,-7.7229,0.3482,-4.6492,16.6704,12.4398,10.2250,-21.6353,-6.6644
1406.2500,2.7732,-9.9722,-5.3133,-19.4594,1.4053,0.1189,14.4544,-20.8898,-5.2137,-6.8216,9.8125,-6.9491,-5.5596,-7.1145,18.9312,12.0009,3.9547,-20.8099,-7.4958
1410.1562,-1.2731,-8.6029,-7.5129,-20.8547,-5.8708,-0.3252,18.8270,-23.9535,-7.3448,-5.8956,10.2418,-4.2330,-11.2367,-9.3180,20.2438,10.9786,-2.1290,-19.1017,-8.0754
1414.0625,-4.5178,-5.4386,-8.8181,-20.5990,-10.7741,-1.3475,14.8024,-25.2161,-8.4264,-3.6880,9.3060,-0.1114,-15.2651,-10.0614,20.0926,10.8541,-6.3641,-16.1449,-8.1933
1417.9688,-6.9326,-1.7531,-8.3599,-17.4744,-12.3402,-2.7303,4.8574,-23.1379,-8.8468,-1.0844,7.2654,4.1511,-16.9984,-8.5869,18.7649,11.7424,-8.2446,-11.9821,-7.2167
1421.8750,-9.0126,0.9467,-6.1148,-11.6639,-11.2214,-4.1163,-4.4259,-18.0282,-9.3714,0.8987,4.9989,7.2449,-16.9027,-5.2410,16.7339,12.2646,-8.7445,-7.3295,-4.7758
1425.7812,-11.1829,2.0864,-3.1226,-4.9603,-9.2846,-4.9356,-7.1502,-12.0535,-10.5131,1.7110,3.2534,8.5676,-16.1040,-1.4929,14.0862,10.7490,-9.5103,-3.3684,-1.4381
1429.6875,-13.2880,2.4392,-0.9431,0.1751,-8.4223,-4.5351,-2.3771,-7.8924,-12.0638,1.6065,2.1071,8.5414,-15.4858,0.8895,10.6053,6.8088,-11.4966,-1.0700,1.3501
1433.5938,-14.6035,3.4338,-0.6904,2.1412,-9.3807,-2.5540,5.3018,-6.9947,-13.1816,1.5000,1.0734,8.2782,-15.0397,1.0300,6.4143,2.0105,-14.0931,-0.4804,2.1710
1437.5000,-14.3501,5.9169,-2.3286,1.2273,-11.4114,0.7001,9.2542,-8.7277,-12.9878,2.3776,-0.3055,8.8275,-13.9742,-0.3640,2.4551,-0.9590,-15.4523,-0.5414,0.7158
1441.4062,-12.2806,9.3889,-4.7485,-0.6449,-12.9636,4.2247,5.6512,-11.0255,-11.2187,4.5980,-1.9520,10.5303,-11.4911,-1.4115,0.1396,-0.0633,-13.8287,0.2944,-1.8965
1445.3125,-8.8856,12.3434,-6.5870,-1.3316,-12.8900,6.7769,-3.9858,-12.0125,-8.4376,7.5476,-3.3168,12.9029,-7.6159,-0.3771,0.2585,4.6548,-8.9656,2.9868,-3.9507
1449.2188,-5.1068,13.4335,-7.2099,-0.0117,-11.2905,7.5601,-14.3098,-11.3476,-5.6575,9.9501,-3.9687,15.0700,-3.4263,3.0227,2.0165,11.0006,-2.5073,7.1273,-4.5574
1453.1250,-1.8267,12.5173,-7.1580,2.2786,-9.4089,6.6839,-20.3435,-10.2871,-3.6767,10.7091,-4.1692,16.3718,-0.4810,7.3232,3.1491,15.9246,2.8929,11.0853,-4.5342
1457.0312,0.4913,10.7451,-7.7297,3.5272,-8.6989,5.0757,-20.9710,-10.4849,-2.6216,9.7532,-4.8610,16.6875,0.1560,10.3150,1.2955,17.2602,5.1724,13.0757,-5.9418
1460.9375,1.8475,9.6444,-9.9807,2.3835,-9.7560,3.9187,-19.0868,-12.5222,-1.9976,8.2606,-6.9808,16.2936,-1.3854,10.6576,-4.2549,14.7662,4.0907,12.4396,-10.4899
1464.8438,2.5548,9.9635,-13.8295,-0.6872,-11.8725,4.0063,-18.5509,-15.3311,-1.1448,8.0029,-10.6066,15.4690,-3.8245,8.9105,-11.7705,9.9448,1.2970,10.2125,-17.9576
1468.7500,3.0952,11.1990,-17.8866,-3.6060,-13.4974,5.4115,-20.6426,-16.9377,0.2825,10.1619,-14.6512,14.2354,-5.4619,7.1763,-17.9680,4.9738,-0.7588,8.5225,-25.8655
1472.6562,4.0400,12.1339,-20.1477,-4.0912,-13.2445,7.5813,-22.9947,-15.9118,2.1509,14.4095,-17.4262,12.4521,-5.1085,7.5795,-20.0722,1.5656,-0.3208,9.2033,-30.7683
1476.5625,5.9157,11.8768,-19.1278,-1.2283,-10.7487,9.6679,-21.8322,-12.3873,4.0432,18.9470,-17.7231,10.1342,-2.6486,10.6905,-17.6105,0.3825,2.7162,12.5889,-30.3484
1480.4688,8.9292,10.5132,-14.7350,3.9484,-6.8162,10.8312,-15.5617,-7.9005,5.5943,21.5731,-15.6214,7.6462,1.0421,15.0732,-12.6465,1.0904,6.9163,17.3425,-24.8715
1484.3750,12.6873,8.8578,-8.3567,9.2477,-2.8238,10.4143,-6.6288,-4.2323,6.7041,21.1170,-12.4091,5.5433,4.6978,18.3122,-8.2903,2.7279,10.3102,21.4242,-16.9921
1488.2812,16.2168,7.5867,-2.1176,12.8474,0.1960,8.0805,0.0026,-2.1879,7.5358,18.2559,-9.6566,4.1721,7.3996,18.7745,-6.5775,4.0760,11.6283,23.4834,-10.0496
1492.1875,18.4577,6.5497,2.2414,14.4152,2.1843,3.9993,0.5979,-1.2198,8.3991,15.1176,-8.1182,3.4024,9.0557,16.8148,-7.2444,3.9784,11.0299,23.6820,-6.0351
1496.0938,19.0052,4.8838,4.2168,15.0570,4.0261,-1.0141,-4.3821,-0.0859,9.6496,13.9018,-7.2626,2.7744,10.4107,14.5450,-8.2097,1.7202,9.9608,23.4059,-4.5829
1500.0000,18.5481,1.8390,4.6681,16.2480,6.9151,-5.6390,-10.5024,2.0737,11.6248,15.4497,-5.7575,1.9825,12.6019,14.3491,-7.2902,-2.5625,10.2740,24.1551,-3.5718
1503.9062,18.5501,-2.4004,5.1880,18.6369,11.5270,-8.5770,-12.6172,5.1155,14.5309,18.7430,-2.5342,1.2732,16.4775,17.2250,-3.8155,-7.7236,13.1274,26.4665,-0.7985
1507.8125,20.2579,-6.6274,7.1109,21.6232,17.5001,-9.2451,-8.6102,8.1452,18.2434,21.6537,2.3425,1.3531,22.0054,22.1236,1.0093,-11.9988,18.2613,29.6277,4.4738
1511.7188,23.7109,-9.3757,10.7213,23.9300,23.5291,-8.1549,-0.7229,10.3279,22.1461,22.3853,7.5972,2.7920,28.1031,26.6902,5.1219,-13.9011,24.0489,32.2854,11.0841
1515.6250,27.5381,-9.9504,15.0788,24.6125,28.0222,-6.6238,6.4279,11.5185,25.2238,20.5741,11.4700,5.3720,33.0545,28.8057,7.1032,-13.1007,28.3173,33.3852,16.8008
1519.5312,29.7995,-8.9193,18.5133,23.6648,29.9478,-5.9342,9.4043,12.2028,26.4948,17.3060,12.7153,7.9591,35.3763,27.8119,7.0140,-10.6293,29.5236,32.7076,19.7192
1523.4375,29.3181,-7.6990,19.4917,21.7936,29.3851,-6.5200,8.2037,12.8639,25.5820,14.1231,11.2271,9.1157,34.6783,24.6357,6.0602,-8.1630,27.6397,30.6780,19.2834
1527.3438,26.5084,-7.5830,17.3915,19.6442,27.4452,-7.7980,5.5865,13.3778,23.0197,11.8269,7.9757,8.0786,31.9732,20.8801,5.5320,-6.8385,24.2135,27.7530,16.3865
1531.2500,23.0466,-8.9549,12.8042,17.1878,25.5903,-8.7747,4.3390,12.9898,20.0052,9.9893,4.4273,5.3820,29.1483,17.6633,5.9427,-6.4814,21.5114,23.9943,12.6750
1535.1562,20.6184,-11.2158,7.2651,13.7962,24.7475,-8.9274,4.9673,10.9046,17.6942,7.4991,1.8810,2.6115,27.8476,15.0511,6.9846,-5.8635,21.2072,19.2084,9.6307
1539.0625,19.7240,-13.3486,2.5871,8.9161,24.7672,-8.6101,5.7554,6.9956,16.5161,3.6617,1.0778,1.4102,28.4517,12.3695,8.1521,-3.8091,23.4056,13.4812,7.9857
1542.9688,19.4883,-14.5763,0.1363,2.7538,24.5868,-8.6190,4.9253,2.0387,16.0229,-1.0455,2.1458,2.4339,29.8623,9.0015,9.3488,-0.2687,26.6299,7.5558,7.6694
1546.8750,18.6102,-14.6191,0.3629,-3.6175,23.0170,-9.2867,2.7561,-2.7238,15.3936,-5.1732,4.7281,5.0058,30.2860,4.9825,10.9047,3.5339,28.8021,2.6254,8.1295
1550.7812,16.6378,-13.5003,2.7485,-8.8252,19.6397,-9.9257,1.6043,-6.3358,14.1992,-7.3172,8.1326,7.6964,28.5120,0.9861,13.0439,6.0351,28.5824,-0.3793,8.7397
1554.6875,14.4680,-11.2678,6.1346,-11.9872,15.2037,-9.1943,3.7237,-8.6061,12.7958,-7.1758,11.4761,9.3580,24.7911,-2.1711,15.3729,6.6017,26.1721,-1.4563,9.0964
1558.5938,13.6042,-7.9970,9.2555,-13.1174,11.2197,-6.1735,8.8768,-9.9763,11.9984,-5.8419,13.8888,9.8191,20.6711,-4.0303,16.9438,6.0681,23.0462,-1.5847,9.1540
1562.5000,14.7631,-4.0643,11.2425,-12.8860,9.0017,-1.2779,14.0621,-10.9540,12.2738,-5.0960,14.7802,9.7433,17.8953,-4.6182,16.9111,6.0462,20.8273,-2.0614,9.2043
1566.4062,17.0171,-0.3213,11.8929,-12.0063,8.8001,3.8272,15.8727,-11.6284,13.1226,-6.2131,14.0438,9.8436,17.1565,-4.2169,15.2349,7.5234,20.1185,-3.5938,9.6993
1570.3125,18.2688,2.1735,11.6073,-10.7942,9.6180,7.3453,13.5872,-11.6748,13.2105,-9.1388,12.0373,10.1431,17.6123,-3.0934,12.7972,9.9006,20.1219,-5.8321,10.9360
1574.2188,16.7629,2.7862,11.0415,-9.2382,9.8315,8.6581,10.2145,-10.8111,11.2237,-12.5964,9.3192,9.9095,17.4963,-1.4768,10.7802,11.3172,19.2758,-7.6974,12.7291
1578.1250,12.4477,1.8052,10.6634,-7.4342,8.1785,8.7478,10.2742,-9.2708,6.8235,-14.9964,6.3247,8.3107,15.3421,0.2458,9.7927,10.0853,16.3946,-8.2471,14.2972
1582.0312,7.0613,0.3171,10.4687,-5.9033,4.4472,9.3324,15.8952,-7.8408,0.9575,-15.4608,3.2447,5.2398,10.9068,1.4116,9.4712,6.1290,11.4571,-7.4073,14.5379
1585.9375,2.8216,-0.5422,10.0298,-5.4184,-0.5480,11.3750,24.4698,-7.3853,-4.7385,-14.2480,0.2051,1.6107,5.1567,1.3057,8.9015,1.2639,5.5124,-6.0175,12.6334
1589.8438,0.7439,-0.4025,8.8524,-6.4220,-5.5820,14.1970,30.0811,-8.2180,-9.0026,-12.3586,-2.4368,-1.1390,-0.5644,-0.3405,7.5202,-1.9594,-0.1237,-5.1784,8.6396
1593.7500,-0.0600,0.1384,6.7971,-8.5267,-9.7129,15.9812,27.9024,-9.8361,-11.6699,-10.7140,-4.0191,-1.9697,-5.4539,-2.9614,5.7284,-1.9943,-4.6873,-5.4328,3.6306
1597.6562,-1.5260,0.1318,4.2510,-10.5907,-12.5758,15.3214,18.1882,-11.2527,-13.5319,-9.5682,-3.9180,-0.8877,-9.5327,-5.2730,4.6602,0.7008,-8.1756,-6.4172,-0.7963
1601.5625,-4.9182,-0.7874,1.8856,-11.4183,-14.1947,12.5711,6.5540,-11.6998,-15.5089,-8.5676,-2.1331,1.1443,-13.1655,-5.9362,5.2326,4.1401,-10.8871,-7.2362,-3.4122
1605.4688,-9.6616,-1.9637,0.1458,-10.6115,-14.6354,9.8370,0.0689,-11.1762,-17.8498,-7.3290,0.3449,2.9103,-16.3514,-4.3633,7.2199,6.3481,-12.8148,-7.2330,-4.0834
1609.3750,-13.7045,-2.2171,-1.1515,-8.9161,-13.8883,9.5221,2.0508,-10.4317,-20.0158,-6.0076,1.7843,3.6861,-18.4891,-1.1023,9.1206,6.7312,-13.5030,-6.5367,-3.8316
1613.2812,-15.1374,-0.9078,-2.7566,-7.7440,-12.0751,12.5038,9.6087,-10.3974,-21.2984,-5.3565,0.5625,3.4877,-18.8534,2.5042,9.0075,6.2461,-12.5248,-5.9630,-4.1600
1617.1875,-13.7544,1.3438,-5.4379,-8.1615,-9.6991,17.3759,15.8899,-11.4838,-21.5830,-6.2008,-3.8809,2.7385,-17.3549,5.1676,5.7873,6.3316,-10.1376,-6.3620,-6.0909
1621.0938,-11.2638,2.9775,-9.3098,-10.0574,-7.5735,21.3811,15.2802,-13.2471,-21.5462,-8.7178,-10.6337,1.7431,-14.8589,6.4236,-0.0308,7.5590,-7.4586,-7.9293,-9.5655
1625.0000,-9.9500,2.7039,-13.5633,-12.0958,-6.3576,22.3489,7.4645,-14.6507,-22.0684,-12.0708,-17.7642,0.4526,-12.6980,6.7987,-6.6162,9.1285,-5.8849,-9.9998,-13.5976
1628.9062,-10.8496,0.6581,-16.8824,-12.5126,-6.0444,20.1781,-2.7925,-14.7165,-23.3501,-14.6959,-23.3658,-1.3142,-11.7218,7.2938,-11.9482,9.5822,-6.1401,-11.4490,-17.0276
1632.8125,-12.9120,-1.5006,-18.3202,-10.2153,-5.8853,16.7737,-9.7961,-13.1163,-24.5193,-15.0775,-26.5070,-3.4633,-11.6640,8.5963,-14.9999,8.0769,-7.7055,-11.3728,-19.3011
1636.7188,-13.8231,-1.7487,-18.0175,-5.4476,-4.9258,14.5622,-11.4791,-10.3260,-24.1502,-12.5255,-27.4798,-5.4611,-11.3853,10.5961,-16.1768,5.1205,-9.1437,-9.5476,-20.7099
1640.6250,-11.8318,0.7115,-17.1922,0.3937,-2.8035,14.7703,-10.5982,-7.2912,-21.3524,-7.4923,-27.2617,-6.6027,-9.8316,12.5213,-16.7801,2.1674,-9.1221,-6.3993,-21.9629
1644.5312,-7.1227,4.6788,-17.3269,5.6106,-0.1614,16.7452,-11.6876,-4.8704,-16.5814,-1.2968,-26.6705,-6.5023,-6.9332,13.5314,-17.9547,0.4518,-7.3711,-2.6135,-23.4698
1648.4375,-1.6688,7.6709,-19.0933,9.1195,1.7245,18.6918,-16.4973,-3.4206,-11.4921,4.5107,-25.8691,-5.3870,-3.6983,13.2976,-19.8953,0.0666,-4.8405,1.2420,-24.9249
1652.3438,2.2636,7.6582,-21.7950,10.8547,1.8929,19.0868,-21.9551,-2.7422,-7.8948,8.7499,-24.5410,-3.9525,-1.4138,12.1571,-21.8217,0.0502,-2.9395,4.8040,-25.5218
1656.2500,3.7184,4.5190,-23.7771,11.4997,0.5020,17.6067,-22.5676,-2.3438,-6.5850,10.8994,-22.4939,-2.9154,-0.6153,10.7942,-22.6477,-0.6456,-2.4681,7.7494,-24.6194
1660.1562,3.4968,0.1090,-23.5488,11.8523,-1.1717,14.9509,-15.3692,-1.8016,-6.9205,11.0514,-20.1066,-2.6399,-0.6866,9.7517,-21.7968,-2.1873,-3.0739,9.6597,-22.3213
1664.0625,3.1857,-3.1102,-20.8276,12.3160,-1.5978,11.9240,-3.2243,-0.9866,-7.4279,9.6970,-18.1880,-3.1107,-0.4183,9.1617,-19.5841,-3.7469,-3.6242,10.1490,-19.4952
1667.9688,3.6838,-3.8337,-16.7421,12.8183,-0.0821,8.6993,6.5218,-0.0585,-6.9204,7.5151,-17.3366,-4.1820,0.9587,8.8569,-16.9595,-4.3321,-3.1376,9.2088,-17.1947
1671.8750,4.5076,-2.7409,-13.0427,13.0957,2.7646,4.8927,7.2737,0.7139,-5.2392,5.2231,-17.3312,-5.7860,3.1622,8.7036,-14.8606,-3.8011,-1.4855,7.4650,-15.9129
1675.7812,4.4384,-1.8169,-10.9005,13.0326,5.5540,0.2621,-1.7430,1.1655,-3.0894,3.4481,-17.0988,-7.8610,5.2074,8.8379,-13.6545,-3.1320,0.6952,6.0453,-15.2304
1679.6875,2.8866,-2.7663,-10.1725,12.7770,7.2283,-4.7272,-14.6469,1.3519,-1.2068,2.5800,-15.3608,-10.0851,6.4223,9.6061,-13.0067,-3.6561,2.7495,6.0423,-14.1253
1683.5938,0.7280,-5.7742,-9.6538,12.5911,7.8645,-9.0560,-23.0769,1.5193,0.3730,2.6540,-11.5163,-11.7538,7.2353,11.2745,-12.1907,-5.8809,4.7232,7.8926,-11.7208
1687.5000,-0.1796,-9.5151,-8.0893,12.6188,8.5280,-11.8895,-22.1758,1.9553,2.3074,3.3582,-6.1132,-12.0540,8.9977,13.7628,-10.5740,-8.9101,7.3967,11.1024,-7.9272
1691.4062,1.5583,-12.2766,-5.1589,12.7849,10.3046,-13.1907,-13.7497,2.8079,5.2347,4.2100,-0.5549,-10.6158,12.9085,16.6169,-7.9626,-10.9909,11.5805,14.5227,-3.5275
1695.3125,5.6764,-13.2125,-1.7008,12.8905,13.3112,-13.6081,-4.2622,3.9724,9.0171,4.8173,3.7484,-7.8954,18.8977,19.2259,-4.6401,-10.7675,17.2624,16.9950,0.3279
1699.2188,10.3376,-12.7372,0.9599,12.7903,16.5076,-13.7355,0.5460,5.1156,12.6474,5.0594,6.1772,-4.9947,25.4157,21.0981,-1.1430,-8.2199,23.3526,17.9330,2.8365
1703.1250,13.4835,-11.8653,2.0275,12.4809,18.4777,-13.4666,0.0065,5.8365,14.9560,5.0697,7.1182,-2.9548,30.3779,21.9872,2.0577,-4.5241,28.2868,17.4811,3.9683
1707.0312,14.3621,-11.1886,1.8182,12.0323,18.5446,-12.1168,-1.5687,5.8807,15.5560,5.0491,7.5265,-2.0244,32.5716,21.8151,4.7929,-0.9818,31.0389,16.2162,4.3527
1710.9375,13.9876,-10.4107,1.4967,11.4422,17.3039,-9.2663,0.8915,5.2767,15.2310,5.0727,8.2366,-1.4883,32.4374,20.5183,7.2431,2.0423,31.7463,14.6797,4.7751
1714.8438,14.1680,-8.7928,2.2175,10.5578,16.1314,-5.5439,8.5304,4.2972,15.4064,5.0410,9.5449,-0.2307,31.6144,17.9934,9.7858,5.2518,31.4586,13.0968,5.6796
1718.7500,15.9222,-6.0242,4.3451,9.1420,16.0632,-2.5119,17.3447,3.2561,17.0938,4.7940,11.2914,2.3824,31.6164,14.2084,12.7104,9.4986,31.2290,11.4331,7.0046
1722.6562,18.6131,-2.6701,7.3090,7.0305,16.9697,-1.5643,21.3918,2.2743,20.1287,4.2552,13.2364,5.9883,32.6878,9.3804,15.9388,14.6155,31.2922,9.6408,8.3837
1726.5625,20.5123,0.2327,10.1208,4.2559,17.7085,-2.6792,17.7083,1.1914,23.2835,3.4475,15.3187,9.4782,33.7181,4.0495,18.9169,19.0544,30.9784,7.8152,9.4815
1730.4688,20.3024,2.0500,12.0860,1.0547,17.1390,-4.1400,8.8666,-0.2872,25.1284,2.3586,17.5511,11.7822,33.2255,-1.0396,20.7868,20.7290,29.3984,6.1031,10.1828
1734.3750,18.2260,3.0587,13.1561,-2.2279,15.1703,-3.6463,1.1216,-2.2887,24.9318,0.7976,19.6862,12.5215,30.5655,-5.1841,20.8062,18.4555,26.2965,4.4589,10.5336
1738.2812,15.8837,4.0594,13.7212,-5.2527,12.9695,-0.0833,-0.2728,-4.5369,22.9057,-1.5631,21.0253,11.9932,26.3775,-7.9433,18.8053,12.8609,22.3508,2.5003,10.5505
1742.1875,14.8246,5.3990,14.1055,-7.7586,12.1298,5.4172,5.2259,-6.3927,19.6936,-4.9121,20.6368,10.5543,21.9514,-9.2208,15.3954,6.0340,18.6734,-0.3516,10.1015
1746.0938,15.1197,6.3039,14.2226,-9.5953,13.4246,10.0425,13.5494,-7.2033,15.6390,-8.9706,17.8933,8.0314,18.0995,-9.2176,11.7507,0.1998,15.9365,-4.5049,8.9615
1750.0000,15.1665,5.2516,13.6546,-10.7549,16.1106,11.1769,19.5552,-6.7631,10.5338,-12.8980,12.9456,3.7858,14.5170,-8.3468,9.0447,-3.5397,13.8545,-9.8484,6.9800
1753.9062,12.9781,1.2391,12.0361,-11.4004,18.3092,8.2372,20.9039,-5.5715,4.0825,-15.5937,6.7690,-2.5109,10.1715,-7.1669,7.8709,-5.4597,11.4514,-15.6683,4.2141
1757.8125,7.9646,-5.0191,9.3958,-11.8345,18.1734,3.1167,19.1678,-4.6655,-3.3467,-16.2549,0.7420,-10.0223,4.3810,-6.2953,8.0172,-6.3918,7.8913,-20.8818,0.9437
1761.7188,1.7464,-11.0047,6.1954,-12.3514,14.9789,-1.0622,17.6127,-5.0763,-10.4163,-14.8205,-3.9388,-16.6406,-2.3483,-6.2249,8.7412,-6.6504,3.1913,-24.4245,-2.3974
1765.6250,-2.7456,-13.6658,3.0886,-13.0133,9.4017,-1.9178,17.9246,-7.2191,-15.3470,-11.9692,-6.6202,-19.9287,-8.4558,-7.0559,9.3484,-5.6931,-1.7557,-25.5702,-5.2899
1769.5312,-3.2837,-11.2287,0.6359,-13.5069,2.9072,0.9367,18.8516,-10.6044,-16.9719,-8.6499,-7.1746,-18.5657,-12.3596,-8.3022,9.6545,-2.8104,-5.8515,-24.0686,-7.1779
1773.4375,0.0323,-4.2769,-0.8256,-13.2465,-3.1773,6.1347,17.8204,-14.0739,-15.5299,-5.4793,-5.7748,-13.2600,-13.5756,-8.9928,9.9995,1.8071,-8.6021,-20.1504,-7.5673
1777.3438,4.7773,4.6588,-1.1609,-11.7425,-8.2131,11.8694,13.8447,-16.4404,-12.5733,-2.4570,-2.7600,-6.4036,-13.0391,-8.1450,10.8256,6.6559,-10.4214,-14.5040,-6.2387
1781.2500,7.8482,12.6598,-0.4121,-9.0299,-12.1571,17.0959,8.9125,-17.1480,-10.0280,0.7926,1.2823,-0.6446,-12.3910,-5.4070,12.1723,9.6702,-12.2052,-8.2310,-3.5038
1785.1562,7.5370,17.9757,1.1355,-5.8351,-15.1231,21.7124,6.4747,-16.5491,-9.0826,4.4570,5.3945,2.6445,-12.8000,-1.4590,13.5161,9.6529,-14.5430,-2.6783,-0.2898
1789.0625,4.5285,20.5291,2.8887,-3.2777,-17.1020,25.8025,8.3323,-15.6326,-9.6837,8.1296,8.3833,3.9448,-14.2205,2.1746,14.1120,7.2669,-17.1927,0.9462,2.1402
1792.9688,1.1720,21.2112,4.0649,-2.2174,-18.0665,28.8444,12.7343,-15.3772,-10.9104,10.9259,9.3007,4.8800,-15.5889,3.8993,13.5783,4.7436,-19.2101,2.0868,2.7949
1796.8750,-0.3269,20.7453,4.0451,-2.6459,-18.2300,29.7437,15.5001,-16.1299,-11.8263,12.0749,7.9981,6.8264,-15.7096,2.9905,12.2323,4.4406,-19.5918,1.1906,1.5496
1800.7812,0.5972,19.1251,2.7488,-3.5609,-18.0536,27.7208,13.3321,-17.3807,-12.1030,11.5327,5.2919,9.8983,-14.0952,0.1027,10.8510,7.2709,-17.9224,-0.4124,-0.7181
1804.6875,2.7311,16.0189,0.6930,-3.4771,-17.8671,23.2320,6.5212,-18.0517,-11.9910,10.1187,2.4908,12.9885,-11.1689,-3.0173,9.9771,12.1271,-14.5722,-1.1596,-2.6605
1808.5938,4.2551,11.6303,-1.4170,-1.3061,-17.4235,18.0103,-1.2939,-17.1103,-11.8098,9.0257,0.5258,14.6876,-7.8228,-4.4811,9.2978,16.6559,-10.3867,-0.1246,-3.4024
1812.5000,4.2123,7.1098,-3.3258,2.9363,-15.8876,14.0470,-6.1523,-14.1453,-11.5077,9.0466,-0.7004,14.2704,-4.8263,-3.2946,7.6432,18.7487,-6.1949,2.4239,-3.2735
1816.4062,3.1510,4.0277,-5.5860,8.0450,-12.4447,12.2743,-7.0307,-9.5978,-10.7110,10.0990,-2.2130,11.9996,-2.5797,0.1524,3.7299,17.6623,-2.5206,5.1602,-3.7665
1820.3125,2.5525,3.2824,-9.2541,12.2240,-7.1465,12.0110,-6.5854,-4.5630,-9.1871,11.4095,-5.1172,8.6493,-1.2847,4.4147,-2.7996,14.0897,0.3733,6.4873,-6.6417
1824.2188,3.6144,4.3617,-15.0372,13.9977,-1.2923,11.6327,-8.7791,-0.3145,-7.2424,12.2059,-9.6022,4.8008,-1.1757,7.8776,-10.7869,9.3653,2.2955,5.4915,-12.7070
1828.1250,6.3702,5.6323,-22.4842,12.8986,3.0911,9.9267,-15.4384,2.1840,-5.6346,12.3659,-14.5694,0.5765,-2.4393,9.6100,-17.9244,4.5826,3.0659,2.4694,-21.0808
1832.0312,9.7528,5.4896,-29.8778,9.5793,4.4224,7.0376,-24.6529,2.5631,-5.0252,12.5029,-18.2285,-4.0028,-4.8301,9.6902,-21.9465,0.2917,2.6696,-1.2760,-29.4622
1835.9375,12.4217,3.4842,-35.0203,5.3819,2.5795,4.2631,-32.2851,1.0611,-5.4384,13.4176,-19.2776,-8.4689,-7.3948,8.9107,-21.9145,-3.2004,1.4487,-4.1874,-35.2715
1839.8438,13.6431,0.5402,-36.4407,1.6990,-1.0050,2.9202,-35.1823,-1.6620,-6.2103,15.3566,-17.8054,-11.7863,-8.7145,8.1826,-18.7464,-5.4544,0.0826,-5.2423,-36.9423
1843.7500,13.5933,-1.8848,-34.2005,-0.5083,-4.2668,3.2478,-33.2984,-4.7825,-6.4954,17.6811,-15.2281,-12.8947,-7.6483,8.0742,-14.6212,-5.9652,-0.7058,-4.3106,-34.5648
1847.6562,13.0107,-2.9980,-29.7365,-0.8725,-5.7856,4.2383,-29.0215,-7.5378,-5.9039,19.2376,-13.2764,-11.5182,-4.0645,8.7141,-11.6313,-4.6641,-0.5156,-1.9693,-29.5509
1851.5625,12.6157,-3.2568,-24.8715,0.4633,-5.4884,4.4859,-24.5501,-9.3697,-4.7183,19.1679,-12.7631,-8.5537,1.0370,9.9627,-10.5665,-2.3369,0.5856,0.9687,-23.6567
1855.4688,12.7808,-3.8965,-20.7195,3.0088,-4.3203,3.3050,-19.8816,-9.9792,-3.5033,17.5518,-13.0352,-5.6551,6.1664,11.5921,-10.6097,-0.4304,2.2436,3.8438,-18.0733
1859.3750,13.5858,-5.8245,-17.2501,6.0808,-3.2322,1.1933,-13.3300,-9.3108,-2.4646,15.3970,-12.5075,-4.2779,10.2848,13.3076,-10.0972,-0.2447,4.1512,6.2639,-13.1399
1863.2812,15.0217,-8.8080,-13.7423,8.9729,-2.3489,-0.6822,-4.0673,-7.4899,-1.1489,13.9857,-9.8751,-4.8933,13.3152,14.6801,-7.7793,-2.0929,6.2275,8.0297,-8.7077
1867.1875,17.0450,-11.6055,-9.6724,11.1716,-0.9787,-1.4754,5.8246,-4.7561,1.2050,14.0574,-5.1157,-6.9353,15.8395,15.1794,-3.7120,-5.1167,8.4944,9.0757,-4.7157
1871.0938,19.4470,-12.9030,-5.2959,12.5441,1.5968,-1.2685,12.0213,-1.4328,4.9357,15.4045,0.4277,-9.4432,18.2771,14.4049,0.7864,-7.9453,10.7999,9.5153,-1.4747
1875.0000,21.7808,-12.2680,-1.4913,13.3459,5.2729,-0.8310,11.1694,2.0549,9.4854,17.1146,4.8957,-11.8154,20.2850,12.3766,4.0128,-9.6935,12.7050,9.6772,0.5134
1878.9062,23.5698,-10.3613,0.9355,13.9635,8.9719,-0.8160,4.0251,5.1616,13.6366,18.2133,7.0477,-14.0583,20.9305,9.6274,4.9377,-10.5062,13.7132,9.9609,0.9597
1882.8125,24.7134,-8.2945,1.8660,14.5202,11.3678,-1.1398,-4.3506,7.2845,16.3234,18.2125,6.8914,-16.3995,19.5230,6.9522,3.7398,-11.2295,13.6915,10.5013,0.0312
1886.7188,25.7091,-6.7254,1.9011,14.6496,11.9286,-1.0812,-7.9043,7.9579,17.3704,17.2134,5.4572,-18.7055,16.4020,4.9595,1.5407,-12.5172,13.1099,10.8841,-1.7442
1890.6250,27.3611,-5.4594,1.8382,13.6871,11.4498,0.0173,-3.9833,7.1222,17.5433,15.6048,4.0093,-20.2905,12.9836,3.7671,-0.3598,-14.1404,12.8366,10.2234,-3.7537
1894.5312,30.0708,-3.8484,2.0910,11.2296,11.6467,2.0775,4.7144,5.3032,17.8555,13.6854,3.3324,-20.3204,10.9727,3.1071,-1.1600,-15.0787,13.5966,7.6941,-5.4569
1898.4375,33.2424,-1.5777,2.5686,7.6831,14.0988,4.2193,12.3120,3.5253,18.7051,11.5218,3.5523,-18.4524,11.3467,2.7708,-0.7252,-14.2937,15.5148,3.2291,-6.3001
1902.3438,35.3813,0.8858,3.0831,4.3309,19.3037,5.3358,14.3956,2.9112,19.5795,9.0914,4.4572,-15.1170,13.9051,3.0138,0.7199,-11.5166,18.1292,-2.1290,-5.5745
1906.2500,34.9812,2.5978,3.8608,2.7451,26.4568,4.8210,11.4075,4.1325,19.5985,6.5001,5.9143,-11.1675,17.6979,4.5230,2.9967,-7.3956,20.8681,-6.5755,-2.5291
1910.1562,31.6432,2.9400,5.6147,3.8476,33.9834,2.8842,8.0531,7.0155,18.4457,4.0445,7.9985,-7.1983,21.8913,7.8772,6.0992,-2.9282,23.5669,-8.4720,3.1638
1914.0625,26.5796,2.2329,9.0191,7.2423,40.3213,0.2928,9.2346,10.5604,16.8769,2.0786,10.7977,-3.1522,26.2760,12.8646,9.9860,1.2792,26.5285,-7.2918,10.8816
1917.9688,22.0321,1.6296,13.9825,11.3211,44.3998,-2.1389,15.8696,13.3988,16.3155,0.8483,14.1790,1.4124,30.9691,18.2078,14.3121,5.2621,30.0065,-3.9482,18.9565
1921.8750,19.9281,2.3671,19.3635,14.1346,45.6552,-3.8580,24.0344,14.4423,17.8008,0.4718,17.8071,6.6286,35.6326,22.0065,18.4342,9.2793,33.5326,-0.2584,25.2846
1925.7812,20.7123,4.9804,23.4738,14.4915,43.8676,-4.5089,28.1157,13.3585,21.1305,1.0635,21.4178,11.8614,39.0299,22.6978,21.7626,13.1766,35.7315,2.1337,28.3928
1929.6875,23.2042,9.0914,25.0980,12.5823,39.1810,-3.7257,25.3633,10.6337,24.9258,2.8204,25.0551,15.9766,39.5121,19.9348,24.1819,16.1992,34.9531,2.6914,28.2880
1933.5938,25.5770,13.8742,24.3152,9.7593,32.3470,-1.1324,18.1245,7.2531,27.6143,5.8974,28.9753,18.1887,36.2020,14.8101,26.1424,17.4957,30.3819,2.2114,26.4689
1937.5000,26.6986,18.7287,22.5046,7.6814,24.8480,3.3538,11.9930,4.2549,28.5621,10.1125,33.2219,18.7687,29.9351,9.2766,28.2557,16.8879,22.8155,2.2523,25.0148
1941.4062,26.7912,23.5484,21.4935,7.4286,18.5207,9.1833,11.4539,2.4222,28.4242,14.7395,37.2181,18.9217,23.0606,5.1516,30.6414,15.1679,14.4371,4.1713,25.3158
1945.3125,26.9069,28.3716,22.4221,9.1220,14.7101,15.1756,16.5684,2.1988,28.3922,18.6431,39.7791,19.8110,18.0414,3.3213,32.5295,13.5585,7.6100,8.3469,27.2800
1949.2188,27.6693,32.7866,25.0856,12.1571,13.4792,19.9721,23.2580,3.7111,28.9237,20.7602,39.6466,21.4696,15.7929,3.5646,32.5021,12.7260,3.4778,13.9649,29.5243
1953.1250,28.3486,35.7219,28.1497,15.7184,13.5221,22.6586,26.7385,6.7385,29.0121,20.6275,36.2202,22.5477,15.0219,4.9629,29.3093,12.2065,1.3626,19.3718,30.3736
1957.0312,27.1143,35.9422,30.0238,19.1432,12.9881,23.1191,25.1703,10.6225,26.6833,18.5809,29.9727,21.2440,13.1595,6.5116,22.7608,10.8284,-0.5847,22.7376,28.9500
1960.9375,22.3814,32.9519,29.7642,21.9598,10.7327,21.9095,20.6411,14.2871,20.4579,15.4855,22.2570,16.8077,8.2876,7.5361,14.0902,7.8688,-3.9336,22.7381,25.6323
1964.8438,14.2614,27.6037,27.4547,23.7791,7.1251,19.8286,16.9820,16.5519,10.7246,12.2191,14.6602,10.4483,0.6664,7.7824,5.5117,3.9791,-8.7675,19.0659,21.6660
1968.7500,4.9512,21.8701,23.9430,24.3248,3.8172,17.5595,16.5150,16.6994,-0.0401,9.3116,8.3696,4.8466,-7.2775,7.3288,-0.7946,0.9957,-13.5874,12.6609,18.3052
1972.6562,-2.3713,17.8459,20.2408,23.6773,2.6317,15.5914,18.4751,14.9738,-8.4622,6.9759,3.9334,2.4991,-12.5158,6.5245,-3.6772,0.6306,-16.3707,5.5465,16.1286
1976.5625,-5.4653,16.6331,17.0220,22.4850,4.3794,14.2993,20.1487,12.6015,-12.1161,5.3973,1.4253,4.0550,-13.3932,5.9942,-3.4452,3.0147,-15.9787,0.1946,14.9319
1980.4688,-4.4337,17.8413,14.4494,21.8152,8.4488,13.9095,19.3716,11.1820,-10.8096,4.9086,0.6841,7.8760,-10.5876,6.5650,-1.5738,6.3167,-12.8802,-1.4749,14.1166
1984.3750,-1.6065,19.9818,12.2726,22.5811,13.3904,14.2689,16.0438,11.7483,-6.5078,5.7967,1.3142,11.1713,-6.4156,8.9824,0.0519,7.8965,-8.7037,0.9450,13.1590
1988.2812,0.0419,21.3993,10.0035,24.8887,17.9542,14.6690,11.4959,14.1017,-2.0544,7.8712,2.4642,11.8882,-3.0892,13.4907,-0.1009,6.2276,-5.0228,5.9890,11.7993
1992.1875,-1.1511,21.0746,7.0627,27.8231,21.7318,14.0682,6.6721,16.9084,0.3788,10.2297,2.7368,9.9800,-1.2670,19.5569,-2.7743,2.1305,-2.3242,10.9277,9.9174
1996.0938,-4.5444,18.8466,2.9381,29.9304,24.9501,11.7476,1.1459,18.5402,0.1398,11.5748,0.5776,7.1560,0.0681,25.9995,-7.8572,-1.7075,0.0930,13.1551,7.3529
2000.0000,-7.8021,15.1061,-2.5755,30.1197,27.7111,7.9632,-5.9657,18.1022,-2.1022,10.9907,-4.8997,5.3769,2.4447,31.5103,-14.5493,-2.6601,3.2930,11.6077,3.9275
2003.9062,-8.6038,10.3865,-9.1224,28.3461,29.4442,3.9946,-14.1477,15.9378,-5.1821,8.6427,-13.1562,5.2915,6.4663,35.2495,-21.5984,-0.1263,7.6707,7.3344,-0.3234
2007.8125,-6.2253,5.2142,-15.7157,25.5591,29.1350,1.3762,-20.7711,13.2735,-8.1564,5.8130,-22.1608,5.8095,11.2418,37.1151,-27.5809,3.9615,12.5320,2.8088,-4.9443
2011.7188,-1.9306,0.2198,-21.0219,22.9564,26.1959,0.7846,-22.6667,11.2982,-10.4854,4.1382,-29.2368,5.0815,15.0566,37.5302,-31.2644,6.4988,16.5730,0.3956,-9.1274
2015.6250,1.9901,-3.8028,-23.9375,21.1311,21.2412,1.4509,-18.9329,10.3826,-11.8183,4.5294,-32.4035,2.0593,16.6605,36.9664,-32.0278,5.4210,18.8162,0.9598,-12.0696
2019.5312,3.7580,-6.1521,-24.1405,19.7851,16.0406,1.6556,-12.4652,10.0081,-11.8358,6.5452,-31.3862,-2.6191,16.1137,35.6097,-30.1627,1.0957,19.2305,3.5187,-13.3738
2023.4375,3.1285,-6.7005,-22.2459,18.2249,12.5673,0.0227,-8.4523,9.3996,-10.4215,8.6937,-27.6416,-7.1029,14.5763,33.4226,-26.8286,-4.1369,18.5741,6.1083,-13.2014
2027.3438,1.2913,-6.1829,-19.4210,16.2051,11.8025,-3.3712,-10.5917,8.2991,-7.9783,9.4602,-23.3922,-9.7560,13.3231,30.4870,-23.5656,-7.8676,17.6652,7.1975,-12.0750
2031.2500,-0.1114,-5.9172,-16.6803,14.3871,13.1946,-6.9860,-17.9049,7.2301,-5.4418,8.3279,-20.3133,-10.3802,12.8683,27.2547,-21.5467,-9.4409,16.7475,6.6486,-10.5004
2035.1562,-0.0295,-6.9970,-14.3086,13.9841,15.1882,-8.9729,-24.8753,7.0442,-3.7539,6.0839,-18.7017,-10.2518,12.9086,24.4182,-20.9565,-10.2550,15.4982,5.6192,-8.6901
2039.0625,1.6094,-9.4732,-11.7887,15.8381,16.4120,-8.5991,-25.1279,8.1552,-3.0837,4.2519,-17.5665,-10.9429,13.0361,22.4692,-20.8665,-12.3199,13.6476,5.6032,-6.5494
2042.9688,4.2917,-12.1561,-8.2786,19.6546,16.6134,-6.7847,-16.0234,10.1264,-2.4404,4.1279,-15.4429,-12.8697,13.4885,21.3273,-19.7087,-16.2474,11.6220,7.3901,-3.8706
2046.8750,7.5962,-13.2830,-3.3311,24.0251,16.6436,-5.2955,-0.7034,11.9761,-0.1463,6.1124,-11.3168,-14.7486,15.1849,20.3969,-16.1111,-20.3226,10.5787,10.6640,-0.5556
2050.7812,11.5257,-11.6761,2.5958,27.2468,17.5673,-5.2511,13.9557,12.9480,4.9970,9.7100,-5.1131,-14.4539,18.9330,19.0563,-9.6552,-21.4913,11.6979,14.3781,3.2639
2054.6875,16.2433,-7.6147,8.1577,28.3286,19.6575,-6.1985,21.8856,13.0868,12.6287,14.0134,2.3816,-10.6920,24.4591,17.1943,-1.1750,-17.6060,15.2443,17.4437,7.2057
2058.5938,21.5160,-2.8026,11.6838,27.4443,22.1082,-6.5500,21.4551,13.1194,20.6780,18.1762,9.9193,-4.2518,30.1356,15.3366,7.5328,-9.2730,20.1634,19.1467,10.6672
2062.5000,26.4283,0.5880,12.0081,25.5587,23.6902,-5.0308,15.6986,13.7353,26.3908,21.5410,16.1921,2.1435,33.7730,14.2359,14.4227,0.1232,24.6127,19.0993,12.9225
2066.4062,29.7010,1.1913,9.1659,23.6072,23.8025,-1.9002,9.4379,14.8944,27.9345,23.5090,20.1180,5.3745,33.9908,14.2508,18.0107,6.3334,27.1131,17.0270,13.3684
2070.3125,30.4405,-0.7723,4.5943,21.9105,23.0425,1.1358,5.8911,15.7796,25.5182,23.5015,21.0847,3.8589,31.1819,15.0329,17.9459,6.8213,27.5054,12.8192,11.9211
2074.2188,28.7669,-3.6758,0.6728,20.2236,22.8045,2.3035,5.3443,15.4664,21.2516,21.2153,19.2072,-1.4046,27.3352,15.7821,15.1260,2.2679,27.0001,6.9086,9.3489
2078.1250,25.8277,-5.4638,-0.2869,18.2274,24.1925,1.2916,6.3680,13.7374,17.8224,16.9797,15.4576,-7.3661,24.8012,15.8424,11.3153,-3.9615,27.2634,0.5681,7.1933
2082.0312,23.1463,-4.7912,2.8038,15.9073,27.0829,-0.4005,7.8612,11.3103,16.8739,11.7921,11.4229,-10.6757,24.8460,15.1139,8.3989,-7.9530,29.1838,-4.3867,7.0913
2085.9375,21.7333,-1.6600,9.0850,13.4443,30.0700,-0.6666,9.8210,9.2281,18.1500,6.8238,8.6287,-9.5394,26.9702,13.9281,7.5697,-7.5261,32.1987,-6.5398,9.7594
2089.8438,21.5515,2.7281,15.9428,10.7912,31.3555,1.3927,12.3465,7.9031,19.9156,2.6875,7.7463,-4.5616,29.3995,12.5302,8.8144,-3.2401,34.6486,-5.8651,14.3090
2093.7500,21.6675,6.7042,20.2041,7.4804,29.9453,4.5659,14.3358,6.6706,20.2825,-0.9200,8.2357,1.8406,30.3245,10.7011,10.9850,2.3292,34.8888,-3.9214,18.5229
2097.6562,20.9508,8.9709,19.8276,3.0431,26.3082,6.3641,13.7071,4.3338,18.4960,-4.7986,8.7811,6.9656,29.0056,7.9519,12.4709,6.3551,32.3707,-2.9001,20.1390
2101.5625,18.8368,9.1219,15.1691,-2.1989,22.0734,5.0015,9.3797,0.3467,15.3442,-9.2949,8.3125,9.3017,26.0487,4.1989,12.1454,7.3417,27.9653,-4.0710,18.3973
2105.4688,15.6710,7.6715,8.9873,-6.7100,19.0338,0.9536,3.2153,-4.3401,12.5093,-13.6036,6.8951,9.0978,22.7991,0.3142,10.0439,5.6264,23.3632,-6.7711,14.7444
2109.3750,12.4641,5.6895,5.0225,-8.2997,18.1597,-3.1894,-0.3184,-7.5877,11.3874,-16.0218,5.7661,7.8261,20.3909,-2.0661,7.3386,2.7498,20.0175,-8.8033,12.0371
2113.2812,10.2564,4.2645,5.8713,-5.5268,19.2200,-4.5219,2.8151,-7.4684,12.1845,-15.1276,6.3879,7.0103,19.1102,-1.5303,5.5884,0.3325,18.3484,-8.0863,12.6271
2117.1875,9.4969,4.0284,11.4181,0.9894,21.1117,-1.9049,12.6371,-3.7770,13.8137,-11.0386,9.1649,7.2140,18.3902,1.9774,5.7264,-0.7593,17.6669,-4.3826,16.6092
2121.0938,9.7764,4.9133,18.8370,8.4371,22.5268,3.2601,24.1552,1.5352,14.5527,-5.6975,12.8168,7.7923,17.2781,6.7902,7.4563,-0.5717,16.7491,0.2424,21.5324
2125.0000,10.0254,6.2346,24.2272,13.2053,22.4828,8.1173,30.3241,5.4556,12.9765,-1.7961,14.9936,7.4936,14.9673,10.3401,9.4802,0.3291,14.5982,2.6998,23.9118
2128.9062,9.0453,7.0811,24.8914,13.0191,20.5007,10.4115,27.0974,5.8425,8.6231,-1.0114,13.8025,5.4772,11.0970,10.7098,10.4125,1.3847,10.9171,1.0530,21.5703
2132.8125,6.1067,6.8481,20.8264,8.3834,16.5502,9.9231,16.6870,2.8281,2.1208,-2.8460,9.1902,2.0916,5.7981,7.8492,9.7438,2.3639,6.1181,-3.9856,15.1734
2136.7188,1.3427,5.6272,14.5107,2.2840,10.9962,8.2795,6.2358,-1.3360,-5.1534,-4.9987,3.1496,-1.0859,-0.3653,3.5773,8.1695,3.3776,1.0252,-9.3765,7.8417
2140.6250,-4.2403,4.1938,9.1978,-1.7070,4.6176,7.4577,2.6337,-3.8877,-11.6280,-5.0551,-1.4625,-2.0048,-6.4603,0.3559,7.0507,4.6941,-3.4541,-11.7209,3.0924
2144.5312,-9.1614,3.5380,6.8955,-1.6446,-1.4500,8.2677,7.3640,-3.4606,-16.0668,-2.2680,-2.7172,0.7169,-11.3175,-0.2860,7.4031,6.5074,-6.5360,-9.4945,2.5721
2148.4375,-12.1208,4.1924,7.3438,1.7508,-6.0234,9.9707,15.4092,-0.9360,-17.9390,1.9049,-0.7887,6.9151,-13.8399,1.4325,9.1519,8.7622,-7.6829,-3.9809,5.1768
2152.3438,-12.6176,5.7961,8.5447,5.8611,-8.3872,11.1553,19.1283,1.3041,-17.5605,4.9027,2.2616,14.7953,-13.4557,3.9947,11.1823,11.0954,-6.7336,1.6968,8.1080
2156.2500,-11.2042,7.2313,8.3111,8.0857,-8.7044,10.9761,14.0911,1.0975,-15.9588,4.9547,3.8752,21.7377,-10.4721,5.8533,12.1164,12.9350,-4.0350,4.6777,8.9810
2160.1562,-9.2040,7.2997,5.6758,7.4957,-7.9715,9.6942,2.3146,-2.0778,-14.4519,2.3291,2.5478,25.5778,-6.0378,6.5086,11.2160,13.7572,-0.4317,4.0833,7.3739
2164.0625,-8.0075,5.5137,1.2417,5.1357,-7.4469,8.1880,-9.5511,-6.9332,-14.0625,-0.9653,-1.4896,25.6476,-1.6334,6.6379,8.7473,13.4018,3.0078,1.2392,4.7250
2167.9688,-8.3306,2.4504,-3.5840,2.9536,-7.8807,7.0333,-15.4970,-11.4109,-15.0295,-2.7181,-6.7823,22.9815,1.6467,7.3224,5.5914,12.2436,5.4686,-1.5541,2.8091
2171.8750,-9.8749,-0.6084,-7.7337,2.3154,-9.0683,6.0456,-14.6123,-14.0470,-16.7045,-2.0670,-11.8096,19.5751,3.5680,9.1021,2.4683,11.0463,6.7974,-2.6447,2.1078
2175.7812,-11.6038,-2.5320,-11.1080,3.2221,-10.0532,4.6467,-11.2724,-14.6696,-17.9432,0.0970,-15.8778,17.1606,4.6646,11.6260,-0.5785,10.5148,7.5411,-1.8719,1.3899
2179.6875,-12.4565,-3.1016,-14.3189,4.6496,-9.8471,2.6050,-11.1701,-14.0865,-17.7983,2.0532,-19.1810,16.2644,5.6575,14.0750,-4.0434,10.8168,8.5362,-0.2168,-1.2124
2183.5938,-12.0298,-3.1314,-17.9099,5.5300,-8.1541,0.3632,-16.6233,-13.2222,-16.0960,2.6480,-22.1806,16.1225,6.8109,15.8755,-8.3197,11.4360,10.2922,1.2085,-6.5595
2187.5000,-10.7827,-3.8517,-21.7605,5.4975,-5.5874,-1.3885,-24.9609,-12.4716,-13.5265,2.0316,-24.9349,15.4581,7.6997,17.0431,-13.1139,11.5334,12.5901,1.9219,-13.6422
2191.4062,-9.6471,-5.9828,-25.1285,4.8899,-3.2395,-2.4676,-31.0346,-11.6953,-11.1823,1.2596,-26.9308,13.5395,7.5485,17.9166,-17.4069,10.6069,14.5869,2.0790,-20.1755
2195.3125,-9.3374,-9.1631,-27.2042,4.2113,-1.9413,-3.4975,-31.4607,-10.6525,-9.8499,1.2670,-27.4626,10.7500,5.8719,18.6327,-19.9986,8.9587,15.3642,1.9647,-24.1424
2199.2188,-9.8450,-12.1439,-27.6545,3.6791,-1.7488,-5.3751,-26.9652,-9.3418,-9.5235,2.1821,-26.1519,8.2475,2.9272,18.9071,-20.2111,7.5451,14.5325,1.6067,-25.0541
2203.1250,-10.4407,-13.6157,-26.7234,3.2677,-2.0003,-8.3371,-21.1052,-7.9249,-9.4513,3.5272,-23.1649,6.9656,-0.3566,18.3491,-18.2310,7.2203,12.4674,0.8988,-23.9901
2207.0312,-10.1361,-13.0849,-24.8965,3.0872,-1.8491,-11.5047,-16.8751,-6.4041,-8.6561,4.9786,-19.0319,6.7080,-2.9078,16.9760,-14.8904,7.8803,10.0269,0.0321,-22.5063
2210.9375,-8.2497,-11.1931,-22.5048,3.5758,-0.8462,-13.4238,-14.4192,-4.4905,-6.5577,6.8367,-14.3371,6.0659,-4.0965,15.3690,-11.1376,8.1898,7.9850,-0.3215,-21.3817
2214.8438,-4.7105,-9.2780,-19.6310,5.1826,0.8486,-13.2345,-11.8177,-1.9000,-3.2874,9.6608,-9.5975,3.3137,-3.9526,14.2468,-7.6367,6.2316,6.6201,0.6049,-20.2129
2218.7500,0.0196,-8.5095,-16.3330,7.7807,2.7307,-11.4857,-7.9328,1.1710,0.4726,13.3795,-5.3673,-2.2851,-2.8994,13.8304,-4.7368,0.7721,5.7602,2.9888,-18.0754
2222.6562,5.2372,-9.2043,-12.8769,10.4234,4.4346,-9.8402,-4.3376,3.9029,3.9614,16.7871,-2.3068,-9.6829,-1.2554,13.6470,-2.6713,-7.6734,5.2175,6.0763,-14.5632
2226.5625,10.2460,-10.7579,-9.6816,11.8328,6.0458,-9.8368,-4.2138,5.3179,6.7754,18.0985,-0.9605,-16.3892,1.0775,13.0644,-1.6510,-16.7535,5.2304,8.5954,-10.2635
2230.4688,14.4506,-12.1676,-7.0043,11.3510,8.0103,-11.7018,-9.0372,5.0581,8.9993,16.3036,-1.3104,-19.8158,4.4855,12.1339,-1.6743,-23.3501,6.5071,9.6744,-6.2903
2234.3750,17.3918,-12.7230,-4.7114,9.5669,10.7266,-14.2018,-16.1791,3.8029,11.0065,12.2419,-2.5037,-18.7869,9.1712,11.9009,-2.2426,-25.2212,9.7638,9.5017,-3.3678
2238.2812,18.8682,-12.3729,-2.4507,7.9821,14.1245,-15.6679,-20.0422,2.8604,13.1231,8.3732,-3.1351,-14.2398,14.7044,13.6826,-2.3614,-22.2182,15.0458,9.1103,-1.3358
2242.1875,19.1345,-11.5747,-0.1557,7.8390,17.5226,-15.3310,-16.2917,3.1391,15.3957,7.2035,-2.0428,-8.6619,19.9517,17.7102,-1.0191,-16.3300,21.3271,9.3883,0.4677
2246.0938,18.9669,-10.8198,1.5812,8.9973,19.8615,-13.8440,-5.7760,4.2982,17.5819,9.4565,0.9046,-4.6504,23.4818,22.2451,2.1096,-10.5380,26.7377,10.1242,2.3298
2250.0000,19.3816,-10.2394,1.7366,9.8253,20.1799,-12.5626,5.4264,4.8353,19.3125,13.4171,4.6537,-3.5342,24.2199,24.1156,6.2854,-7.2047,29.3717,9.9473,3.6601
2253.9062,21.0441,-9.5701,-0.3190,8.3315,18.0938,-12.2358,10.3690,3.1724,20.2852,16.0478,7.6393,-4.9078,21.9716,20.5922,10.0449,-6.9649,28.2365,7.3268,3.4199
2257.8125,23.7302,-8.4503,-3.9798,3.7497,14.0564,-12.2663,6.7506,-1.0314,20.3775,15.1143,8.8254,-7.2656,17.5273,11.3809,12.1121,-8.7086,23.7927,1.8898,1.1822
2261.7188,26.2887,-6.7733,-7.3101,-2.6606,9.2894,-11.2102,-0.9582,-6.3758,19.6513,10.7340,8.3260,-9.1860,12.3095,-0.7788,12.2383,-10.5308,17.7587,-5.0215,-2.1190
2265.6250,27.2664,-4.8120,-7.9910,-8.3067,5.3867,-8.1013,-4.8077,-10.5034,18.2874,5.1717,7.1218,-10.2095,7.7687,-11.5308,11.3167,-10.9544,12.2800,-11.0882,-4.5218
2269.5312,25.8588,-3.0423,-4.7969,-11.0191,3.7084,-3.4479,0.2945,-11.6668,16.4983,1.0604,6.1164,-10.8681,4.8295,-17.4871,10.6547,-9.6635,8.9222,-14.5538,-4.3406
2273.4375,22.5352,-1.8280,1.4289,-10.5827,4.7852,0.9896,12.2493,-9.9437,14.4537,-0.5503,5.3396,-11.9788,3.6264,-18.2050,10.9585,-7.4014,8.0264,-15.3961,-1.4606
2277.3438,18.8478,-1.2072,8.0939,-8.8792,8.0109,3.4986,23.0903,-7.1930,12.2479,-0.7962,4.0089,-13.8159,3.6062,-16.1636,11.8478,-5.2548,8.7427,-15.2076,2.4512
2281.2500,16.4950,-0.9085,12.3736,-8.5065,11.8405,3.7190,25.1417,-5.7779,9.9335,-1.8158,1.4508,-15.7857,3.9119,-14.7875,12.3111,-3.8863,9.6665,-15.8619,5.0780
2285.1562,16.2694,-0.5384,12.9381,-10.8939,14.4861,2.8644,17.2042,-6.9912,7.6240,-4.7738,-1.8801,-16.7831,3.8472,-15.9852,11.7420,-3.2004,9.6828,-18.0039,5.1106
2289.0625,17.6333,0.2217,10.6876,-15.2991,14.8026,2.6834,5.7774,-10.3057,5.6021,-8.6972,-4.2170,-15.8990,3.1981,-18.9851,10.6874,-2.5610,8.5341,-20.5440,3.1545
2292.9688,19.2121,1.5228,7.9830,-19.3863,12.8712,4.0455,0.1911,-13.9141,4.3208,-11.0658,-3.4479,-12.9443,2.2492,-21.2202,10.6287,-1.3100,6.8191,-21.5437,1.1751
2296.8750,19.8160,3.3600,6.9377,-20.8891,9.8933,6.3368,5.3776,-16.0576,4.2188,-9.6909,1.3804,-8.4789,1.4864,-20.4581,12.8857,0.8013,5.4667,-19.7798,0.9211
2300.7812,19.2074,5.6105,8.0141,-19.0951,7.4086,8.1400,17.9573,-16.1191,5.4029,-4.4034,9.1454,-3.4381,1.1559,-16.4935,17.4794,3.5124,5.0369,-15.7467,2.5776
2304.6875,18.0538,8.0543,9.9203,-15.1111,6.3036,8.5698,28.7346,-14.7533,7.3975,2.7477,17.0842,1.2957,0.9663,-11.1673,22.8808,6.2722,5.2895,-11.3192,4.7103
2308.5938,17.1541,10.4083,10.8132,-10.8582,6.2590,8.0838,29.6620,-13.1288,9.1953,8.8971,22.3609,5.1050,0.1702,-6.8432,26.9132,8.5707,5.2946,-8.3596,5.5201
2312.5000,16.6099,12.4233,9.8422,-7.6839,6.0239,8.0667,19.8443,-12.0086,9.6815,12.2412,23.6927,7.6341,-1.9627,-4.6471,28.1648,10.1700,4.0191,-7.3676,4.3772
2316.4062,15.6461,14.0263,7.8440,-5.6548,4.3431,9.5607,5.9876,-11.3923,8.2377,12.9706,21.9067,8.7649,-5.5524,-3.8521,26.8463,11.1393,1.0248,-7.2028,2.3920
2320.3125,13.2513,15.3913,6.6794,-3.9358,0.8900,12.2648,-2.8844,-10.8677,5.1445,12.6580,19.0908,8.7017,-9.8068,-2.7810,24.4439,11.7376,-3.1714,-6.0463,1.5677
2324.2188,9.1310,16.8288,7.7560,-1.7704,-3.4625,14.6986,-2.1816,-10.2113,1.4794,12.7381,17.0325,8.0646,-13.2920,-0.3695,22.4645,12.2489,-7.3208,-2.8152,3.2190
2328.1250,4.1890,18.5123,10.8870,0.8196,-7.2391,15.4237,5.2581,-9.6430,-1.4782,13.3625,16.1121,7.7588,-14.6880,2.9173,21.2805,12.8564,-10.1295,2.0489,6.9108
2332.0312,0.1048,20.2339,14.3524,3.1415,-9.3953,14.3021,12.0045,-9.5449,-2.9697,13.4958,15.3905,8.5287,-13.5854,5.4960,19.9925,13.5893,-10.9847,6.9472,10.7346
2335.9375,-1.7215,21.4225,16.0979,4.5337,-10.0267,12.7222,12.1438,-9.9834,-3.1261,12.0449,13.6744,10.4311,-10.7843,5.9596,17.3899,14.3396,-10.2608,10.2765,12.6668
2339.8438,-1.0823,21.4975,15.1540,4.9818,-10.2271,12.5804,5.7227,-10.5393,-2.7309,8.9955,10.6197,12.6561,-7.8462,4.1466,13.1910,14.9367,-9.0100,11.4576,11.9310
2343.7500,0.9393,20.3549,12.2326,5.1307,-11.1982,14.8337,-1.7958,-10.6276,-2.5582,5.5987,6.9946,13.9685,-6.1403,1.1693,8.5047,15.2522,-8.2393,11.1404,9.3426
2347.6562,2.7511,18.6170,9.1134,5.7542,-13.2795,18.7773,-4.2592,-9.9969,-2.7745,3.5014,3.9735,13.5702,-5.9928,-1.4875,5.0868,15.2876,-8.2446,10.5800,6.4697
2351.5625,3.3281,17.3825,7.3398,7.1956,-15.6333,22.5862,0.2847,-8.9192,-2.8522,3.5764,2.1274,11.7844,-6.5109,-2.9506,3.9516,15.1863,-8.4302,10.7732,4.3613
2355.4688,2.8101,17.5619,7.2027,9.2380,-16.8392,24.6347,8.3729,-7.8750,-2.0538,5.3961,0.9764,9.9833,-6.2169,-3.2402,4.4506,15.1401,-7.7221,11.9794,2.8572
2359.3750,2.2386,19.2173,7.6896,11.4019,-15.9722,24.5235,14.2077,-7.0410,-0.1159,7.6946,-0.5487,9.6930,-4.0772,-2.7854,4.5911,15.2335,-5.2987,13.8151,0.9294
2363.2812,2.6950,21.3877,7.3122,13.2815,-13.3747,23.0681,14.1925,-6.1014,2.3969,9.3438,-3.1681,11.4514,-0.2428,-1.7977,2.4053,15.3300,-1.1673,15.6342,-2.3494
2367.1875,4.5053,22.5764,5.1098,14.5736,-10.5424,21.3963,9.1812,-4.6159,4.3551,10.0212,-6.6416,14.2608,3.9943,-0.1650,-2.6400,15.0992,3.7614,16.8132,-7.0523
2371.0938,7.0596,21.6183,1.1144,14.8685,-9.1784,19.9979,2.9020,-2.6227,4.7713,10.1163,-9.9744,16.1127,6.9928,2.0865,-9.2365,14.1957,8.1266,16.8336,-12.4031
2375.0000,9.2969,18.3647,-3.9087,13.6064,-10.0502,18.5045,-1.6911,-0.8619,3.4534,10.1240,-12.2190,15.2887,7.7754,4.3520,-15.0987,12.4843,10.8032,15.3595,-17.3821
2378.9062,10.4362,13.7362,-9.0447,10.4906,-12.4133,16.2731,-4.8046,-0.2793,1.1495,10.1686,-13.1642,11.5494,6.6125,5.6525,-18.4185,10.1555,11.4274,12.4924,-21.2981
2382.8125,10.4284,9.1338,-13.5807,6.1365,-14.3661,13.1506,-8.9251,-1.1253,-0.9020,10.0785,-13.3375,6.3607,4.8395,5.4756,-18.8398,7.6395,10.5069,9.0716,-23.8452
2386.7188,9.8789,5.6314,-16.9149,2.3223,-13.8869,9.7077,-15.6474,-2.4219,-1.6917,9.8419,-13.3728,1.9891,4.0761,4.5236,-17.3276,5.3705,9.1217,6.6231,-24.7400
2390.6250,9.5876,3.4850,-18.3090,1.3454,-9.9016,6.7646,-23.2070,-2.3852,-0.9518,9.8865,-13.3465,0.1058,5.3696,4.5523,-15.1899,3.5722,8.4192,6.7053,-23.4685
2394.5312,10.0646,2.2251,-16.9488,4.6804,-2.7793,4.6817,-27.0937,0.3645,0.8300,10.8158,-12.6921,0.8759,8.7648,7.1963,-13.1068,2.2202,9.1593,9.9090,-19.5556
2398.4375,11.3047,1.1585,-12.4651,11.8270,5.9460,3.0702,-23.4416,5.6837,2.8313,12.7951,-10.7667,3.1145,13.4717,12.6163,-10.8928,1.2029,11.4817,15.2243,-13.1972
2402.3438,12.8753,-0.1387,-5.5441,20.3003,14.3751,1.1681,-12.4521,11.8040,4.4357,15.1905,-7.5398,5.2908,18.4262,19.1157,-8.0325,0.5394,14.9483,20.4047,-5.6286
2406.2500,14.1954,-1.6620,1.9849,26.9733,21.0950,-1.4664,1.0566,16.4465,5.5719,16.8967,-3.7468,6.5684,22.8527,24.2065,-4.3947,0.4542,18.8098,23.2881,1.2879
2410.1562,14.8489,-3.1465,7.8917,29.9500,25.6813,-4.5406,10.6297,18.3852,6.7204,17.1732,-0.3230,7.1281,26.5332,26.4181,-0.4694,1.2174,22.3818,23.2465,6.1274
2414.0625,14.8268,-4.3037,10.7765,29.6562,28.6943,-7.2012,12.5392,18.2756,8.6526,16.2950,2.4030,7.6447,29.7196,26.4417,3.0239,2.8469,25.3677,21.6927,8.8464
2417.9688,14.6181,-4.8876,10.9651,28.3312,31.2495,-8.5850,8.2795,18.0805,12.0531,15.3990,5.0111,8.4624,32.8311,26.6260,5.7184,4.9101,27.9586,21.1567,10.8024
2421.8750,15.0741,-4.6049,10.3716,28.2744,34.3839,-8.2688,3.3713,19.4988,17.1537,15.5661,8.4388,9.1987,36.1354,29.1190,7.7944,6.6149,30.6232,23.4858,13.7153
2425.7812,17.0198,-3.0918,11.3187,30.1515,38.4937,-6.3272,3.4245,22.6022,23.4894,16.8624,12.9797,9.0936,39.5617,34.0814,9.6155,7.1878,33.6730,28.4289,18.3027
2429.6875,20.7461,-0.1306,15.0634,32.6244,43.1028,-3.1132,10.3596,25.7481,29.8975,18.1674,17.6992,7.7714,42.7030,39.4096,11.1980,6.3169,36.8696,33.6573,23.6527
2433.5938,25.6812,3.9978,21.0212,33.5518,47.1095,0.9174,21.3896,26.8492,34.8662,18.0023,20.8756,5.7470,45.0003,42.2433,12.0887,4.3694,39.3799,36.2600,27.8755
2437.5000,30.5381,8.3702,27.2062,31.7823,49.4326,5.1868,31.2119,25.0106,37.1963,15.7243,21.2564,4.2323,46.0392,41.1004,11.8429,2.2228,40.1978,34.6684,29.5710
2441.4062,33.9601,11.7569,31.5508,28.1087,49.7155,8.9556,35.5896,21.2407,36.6885,12.0988,19.1878,4.3789,45.8241,36.9427,10.6862,0.8010,38.8143,29.6520,28.9746
2445.3125,35.2970,13.3319,33.1633,24.6284,48.6244,11.5240,33.7757,17.6653,34.4064,8.7278,16.6601,6.5343,44.8531,32.3121,9.6853,0.5995,35.6774,23.7103,27.8549
2449.2188,34.9505,13.2690,32.6760,23.0321,47.4595,12.6573,28.3749,15.8530,32.2016,6.7514,16.0813,10.0526,43.8833,29.2330,10.1131,1.4871,32.0527,19.3643,28.2038
2453.1250,33.9679,12.7073,31.5395,23.2045,47.2454,12.8534,23.1811,15.5726,31.6397,5.8803,18.5897,13.7440,43.4585,27.5932,12.4194,2.8888,29.2886,17.6117,30.7188
2457.0312,33.1264,12.9961,30.8856,23.2766,47.8979,13.0548,20.7624,14.9736,32.9576,4.5950,23.1443,16.5744,43.4825,25.3515,15.6620,4.2115,27.9527,17.6159,34.2598
2460.9375,32.2134,14.7154,30.8421,21.1178,48.1206,13.8626,21.3574,12.0725,34.8118,1.4230,27.1319,18.1138,43.1739,20.4369,17.9905,5.2285,27.4660,17.7154,36.7141
2464.8438,30.1480,17.2208,30.7566,16.1092,46.2301,14.8691,23.4304,6.4079,35.1333,-3.6922,28.1351,18.5129,41.5317,12.7977,17.9599,6.1851,26.5541,16.8688,36.6005
2468.7500,25.9686,19.1356,30.0474,9.8094,41.4162,14.8094,25.0867,-0.4085,32.6256,-9.0420,25.6338,18.1878,38.0673,4.8842,15.7167,7.5707,24.2312,15.4123,34.1775
2472.6562,19.9645,19.4885,28.9208,4.9828,34.5225,12.6318,25.2507,-5.6721,27.8865,-12.1578,21.4368,17.5549,33.2929,0.0729,13.0993,9.7156,20.5973,14.6357,31.2147
2476.5625,13.9847,18.6460,28.3489,3.7248,27.6836,8.7284,24.0244,-7.3597,23.2722,-11.4444,18.5365,16.9914,28.5460,0.2013,12.4701,12.4712,16.8138,15.6409,29.6416
2480.4688,10.4875,18.2690,29.3281,6.0905,22.9626,5.2190,22.3528,-5.3862,21.4618,-7.2161,19.1977,16.9134,25.1760,4.1388,15.0760,15.1860,14.2282,18.4508,30.1462
2484.3750,10.8718,20.2273,32.0330,10.2142,20.9318,4.7861,21.4431,-1.4608,23.6391,-1.3743,23.5995,17.7498,23.6227,8.5557,20.1370,17.0231,13.2949,22.0472,31.7981
2488.2812,14.2951,25.2215,35.5602,13.7505,20.2819,8.7315,22.2510,2.2605,28.5711,3.9747,29.8969,19.7479,23.0779,10.3501,25.3476,17.4642,13.1533,25.2128,32.9292
2492.1875,17.9586,32.1325,38.4775,15.4917,18.8388,15.7247,25.0993,4.6529,33.2947,7.8653,35.5326,22.7839,22.0524,8.8976,28.4174,16.7183,12.2586,27.4162,32.5172
2496.0938,18.8102,38.6196,39.7529,15.9681,15.2974,22.3680,29.4354,6.1369,34.9871,10.7733,38.7872,26.4054,19.5036,6.4165,28.5132,15.7640,9.6412,29.0180,30.9540
2500.0000,15.5363,42.5634,39.3456,16.6895,10.3608,25.3681,33.8628,7.9375,32.7316,13.7440,39.5112,30.1184,15.7105,6.1893,26.5718,15.9207,5.8239,30.6958,29.6233
2503.9062,9.4237,43.3227,38.0327,18.7417,6.3453,23.7845,36.6056,10.7714,27.9539,17.1673,38.6947,33.6652,12.2031,10.0104,24.3473,18.1083,2.6257,32.6549,29.6787
2507.8125,3.4544,41.9270,36.6599,21.8755,5.4582,19.6423,36.3316,14.0394,23.2782,20.2616,37.4076,37.0040,10.7329,16.7817,23.0147,22.1865,1.9089,34.3442,31.0433
2511.7188,0.2878,40.1430,35.4549,24.7495,8.0159,16.3911,32.9097,16.1483,20.7048,21.6934,36.0174,39.9855,12.0068,23.2612,22.4279,26.8048,4.1704,34.9326,32.4335
2515.6250,0.5964,39.1897,33.9583,26.0390,12.0041,16.3615,27.5723,15.6875,20.4601,20.7949,34.2261,42.0665,15.1313,26.3313,21.5331,29.9703,8.0622,34.1346,32.3649
2519.5312,2.9334,39.0793,31.5963,25.4861,14.4120,19.1889,22.2778,12.5451,21.2878,18.3360,31.7309,42.4579,18.2116,25.0700,19.4871,30.1176,11.2613,32.6584,30.3113
2523.4375,5.1246,38.9931,28.3745,24.0893,13.4068,22.4115,18.6203,8.1303,21.7970,16.1804,28.8146,40.7429,19.6802,21.1581,16.4931,27.0965,12.0848,31.8500,27.0826
2527.3438,6.0294,38.2492,25.0717,23.3594,9.7122,23.7011,16.9841,4.5636,21.6855,16.0652,26.2964,37.4947,19.3600,17.4768,13.6606,22.4337,10.6483,32.7605,24.1342
2531.2500,6.2919,36.9757,22.7241,24.2771,6.0959,22.8614,16.4798,3.4358,21.8354,18.4521,24.8738,34.2613,18.4538,16.0629,12.0438,18.5955,8.6839,35.3356,22.3709
2535.1562,7.5606,35.9277,21.7948,26.7272,5.2965,21.9245,15.6550,4.9854,23.2689,22.3208,24.4371,32.7000,18.4804,16.9301,11.6960,17.5952,8.1504,38.3492,21.4004
2539.0625,10.8946,35.6679,21.7129,29.7322,7.9302,23.2714,13.4611,8.1678,25.9265,26.0049,23.9816,33.3694,19.9975,18.4596,11.5428,19.7640,9.6977,40.1440,19.8201
2542.9688,15.6960,35.8981,21.2014,32.1742,11.9758,27.3676,9.8611,11.4326,28.3824,28.3524,22.2575,35.1195,22.1233,18.8444,10.1854,23.4812,12.1701,39.6517,16.3128
2546.8750,20.0378,35.5901,19.1926,33.4076,14.2531,32.0611,5.7940,13.5988,28.8123,29.2958,18.6869,35.7045,23.2397,17.3934,6.9794,26.0959,13.5264,36.9949,10.7129
2550.7812,22.0975,33.8448,15.6471,33.3899,12.7915,34.1087,2.6416,14.2784,26.4487,29.4715,13.8469,33.3300,22.3144,14.8046,2.5337,25.5003,12.4558,33.3082,4.2513
2554.6875,21.5135,30.7309,11.6314,32.4154,8.2998,31.7285,1.5568,13.7287,22.3018,29.3478,9.1427,28.0376,19.7835,12.4284,-1.7300,21.3639,9.4287,29.9844,-1.1792
2558.5938,19.5783,27.3226,8.5670,30.8198,3.6408,26.0819,2.9325,12.4244,18.4949,28.7015,5.9144,21.8173,17.2745,11.2753,-4.5547,15.2459,6.3687,27.8990,-4.1843
2562.5000,18.1532,24.8244,7.1953,28.9117,1.7376,20.4311,6.1295,10.7403,16.7001,26.9260,4.6359,17.2404,16.3750,11.5413,-5.5760,9.5399,5.2160,27.0864,-4.6359
2566.4062,18.2293,23.4800,7.0395,27.0628,3.5201,17.6148,9.5355,8.9134,16.9217,23.8746,4.7645,15.5614,17.4148,12.8294,-5.2865,5.9898,6.5094,26.9533,-3.5771
2570.3125,19.3052,22.2164,6.7807,25.6948,7.4350,17.8764,11.0637,7.1653,17.6188,20.4259,5.2813,15.7251,19.2182,14.6473,-4.3943,4.7630,9.0763,26.7526,-2.4329
2574.2188,20.0370,19.4102,5.2797,25.0294,10.7959,18.7915,9.1032,5.7515,17.0695,18.1559,5.4500,15.0940,20.0129,16.6398,-3.2099,4.6375,11.0273,25.9611,-2.1435
2578.1250,19.5468,14.2335,2.4884,24.7803,11.8287,17.3247,3.5889,4.8424,14.8562,18.2623,5.2101,11.3994,18.7668,18.4242,-1.5891,4.0485,11.2223,24.3996,-2.7891
2582.0312,18.2563,7.5000,-0.4370,24.1329,10.8051,12.3141,-3.4852,4.3567,12.2409,20.5656,4.9662,4.4598,15.9037,19.3575,0.5967,2.1723,10.0390,22.1706,-3.8415
2585.9375,17.5477,1.2727,-1.9249,22.1776,9.4676,5.3684,-8.7354,3.9519,11.1122,23.4333,5.0374,-3.6421,12.8784,18.6517,2.9850,-0.7095,8.8796,19.5762,-4.7248
2589.8438,18.5622,-2.5373,-1.1250,18.5657,9.3568,-0.4913,-9.1984,3.2507,12.3691,24.7800,5.2757,-10.0414,11.0153,15.8760,4.7583,-3.7021,8.8899,17.0673,-5.2238
2593.7500,21.1664,-3.5257,1.4188,13.8952,10.4994,-3.2512,-4.3214,2.1623,15.0906,23.4448,5.1783,-13.0712,10.5865,11.4391,5.2125,-6.1207,9.9922,15.1474,-5.4915
2597.6562,23.9566,-3.0490,4.0452,9.4723,11.5388,-3.3648,3.2744,1.0454,17.2027,19.9208,4.3757,-13.2188,10.8544,6.5597,4.3581,-7.9322,11.0369,14.1551,-5.7546
2601.5625,25.2961,-3.1656,5.0279,6.5541,11.1393,-3.1048,9.0903,0.5554,17.1190,15.8932,3.0575,-12.3926,10.9634,2.6306,2.9805,-9.5081,10.9204,14.0050,-6.0167
2605.4688,24.5301,-5.0722,3.7050,5.6022,9.4172,-4.4544,9.5554,1.2516,15.0238,12.9545,1.9573,-12.1943,10.8477,0.4078,2.0461,-11.0075,9.6974,14.1017,-5.9932
2609.3750,22.4119,-8.2253,0.9513,6.0896,8.1376,-7.3782,4.5528,3.2256,12.7490,11.4922,1.8898,-12.6574,11.3317,-0.3523,1.9370,-12.0249,8.7078,13.6008,-5.2842
2613.2812,20.4615,-10.7802,-1.2899,6.9890,9.4585,-9.9146,-2.1945,5.9987,12.3501,10.5854,3.2073,-12.4548,13.3247,-0.5266,2.1964,-11.8672,9.5594,11.9412,-3.6169
2617.1875,19.8485,-10.9492,-1.0927,7.5449,14.2234,-9.9249,-5.3980,8.7450,14.5490,8.9391,5.6032,-10.3112,16.8253,-0.8405,2.0535,-10.2314,12.7712,9.3155,-0.9748
2621.0938,20.7195,-8.2059,2.4172,7.7213,21.1926,-6.9270,-1.7531,10.6810,18.2973,6.0713,8.4002,-6.3419,20.6489,-1.3178,1.3164,-7.6515,17.1926,6.7021,2.4361
2625.0000,22.4199,-3.4634,8.6579,8.0013,27.8416,-2.4239,7.6735,11.3687,21.7617,2.7879,11.0617,-2.1334,23.1941,-1.4066,0.8389,-5.2471,20.7108,5.3372,6.3070
2628.9062,24.2541,1.7686,15.9607,8.7511,32.0866,1.4983,17.9871,10.7830,23.8371,0.5664,13.4950,0.5086,23.6601,-0.6412,2.0576,-3.9118,21.7251,5.9099,10.3219
2632.8125,26.0022,6.4420,22.4131,9.7173,33.5692,3.9978,23.6796,9.1735,24.8752,0.3489,15.9062,1.0500,22.6967,0.7659,5.8454,-3.6034,20.2435,8.0061,14.1851
2636.7188,27.7355,10.3676,26.6728,10.1083,33.5357,6.0698,22.3224,6.8835,26.0225,1.7120,18.3602,0.6429,21.8970,1.9483,11.5531,-3.3693,17.7559,10.2191,17.6183
2640.6250,29.2087,13.7448,28.3718,9.2152,33.5153,9.3628,16.1464,4.2664,27.7994,3.0845,20.4667,1.0752,22.4975,2.0448,17.0615,-2.1466,16.0130,10.9225,20.3787
2644.5312,29.5723,16.4171,28.0233,7.0653,33.9632,14.2884,10.4002,1.7088,29.2526,2.8654,21.5240,3.1526,24.3356,0.9524,19.9558,0.3004,15.6972,9.2511,22.3094
2648.4375,27.8705,17.6671,26.6032,4.5495,33.9908,19.1778,9.6710,-0.3523,28.5491,0.6025,21.0705,5.9361,25.9403,-0.4771,19.0815,3.1072,16.0309,5.6733,23.3864
2652.3438,24.0089,16.8278,25.0698,2.8686,32.3252,21.3638,14.7852,-1.5323,24.6191,-2.6428,19.4274,7.5525,25.7111,-1.0065,15.4026,4.9859,15.5814,1.7785,23.7177
2656.2500,19.2997,14.1712,24.0176,2.6838,28.5811,19.3840,22.4245,-1.7197,18.4608,-4.9907,17.7573,6.9313,23.2328,0.0646,11.5360,5.3317,13.5528,-0.6046,23.4881
2660.1562,15.9024,11.1882,23.5374,3.6041,23.6847,14.4504,27.6017,-1.2625,12.8657,-4.9624,17.4894,4.9656,19.6284,2.3395,10.2372,4.8299,10.4824,-0.4274,22.8782
2664.0625,15.3723,9.8321,23.2638,4.4039,19.0654,9.8571,27.1237,-0.9310,10.5703,-2.3446,19.4328,4.0154,16.6261,4.5654,12.8140,4.9926,7.7780,2.0253,21.9889
2667.9688,17.3742,11.1949,22.5674,3.8333,15.3443,8.6822,21.5854,-1.5819,12.1726,1.8477,23.1606,6.0440,15.0816,5.4968,18.4453,6.9284,6.5007,5.3528,20.7957
2671.8750,19.6549,14.6533,20.8409,1.4571,11.7279,11.5752,14.6381,-3.6623,15.4745,6.1564,27.1092,10.8813,14.1772,4.7287,24.7375,10.3256,6.4172,7.8585,19.1450
2675.7812,19.4688,18.2306,17.8072,-2.0440,6.7332,16.3844,10.2685,-6.8498,16.8879,9.5478,29.3697,16.0834,12.0012,2.8996,29.0602,13.5250,6.1150,8.4677,16.8139
2679.6875,15.4967,19.9847,13.7380,-5.2863,-0.2975,19.8937,10.1368,-10.1001,13.9472,11.7427,28.7012,18.6086,7.0992,1.1613,29.8053,14.7114,4.1024,7.2193,13.6469
2683.5938,8.8301,19.3872,9.4589,-7.0004,-8.1836,20.2365,12.7675,-12.1485,7.0780,12.9099,25.1533,17.0410,-0.2191,0.3643,26.9274,13.3354,0.0147,5.0999,9.7304
2687.5000,2.2406,17.6346,6.0779,-6.7107,-14.3545,18.0626,14.9105,-12.2139,-0.6990,13.1453,19.9528,12.6207,-7.8664,0.5691,21.6665,10.6331,-5.0265,3.3855,5.5052
2691.4062,-1.7458,16.6592,4.5050,-4.8867,-16.5419,15.6259,13.8717,-10.4829,-5.8867,12.2754,14.7778,8.2734,-13.2973,1.1869,15.8163,8.7855,-9.1638,2.9163,1.6967
2695.3125,-2.5247,17.6278,4.9708,-2.5528,-14.4394,14.7080,9.1358,-8.0445,-6.8413,10.1659,10.8964,6.4368,-15.1521,1.5530,10.9915,9.3210,-11.0502,3.7242,-0.9725
2699.2188,-1.5846,20.1110,6.8054,-0.6639,-10.0045,15.1969,2.3499,-6.2696,-4.5956,7.2141,8.6714,7.4164,-13.9803,1.4489,8.1474,11.9828,-10.6242,5.1813,-2.1640
2703.1250,-1.0962,22.5389,8.6503,0.3682,-6.1137,15.4828,-4.0075,-5.9961,-1.6799,4.5059,7.6436,9.5280,-11.5481,1.2053,7.3736,14.9322,-8.8810,6.5233,-2.1658
2707.0312,-2.0723,23.5190,9.0553,0.7785,-4.5785,14.2057,-8.1497,-7.0333,0.0077,3.3768,7.0303,10.7842,-9.3653,1.3936,7.9140,16.1249,-6.9364,7.3914,-1.7967
2710.9375,-3.5645,22.9157,7.1836,1.2055,-5.0407,11.7200,-9.7161,-8.3216,0.5600,4.6227,6.2599,10.6318,-7.6421,2.4119,8.4256,14.7904,-5.2126,8.0593,-1.9852
2714.8438,-3.5094,21.8288,3.2422,2.2854,-5.5655,9.9233,-9.5009,-8.6601,1.6460,7.9380,5.2183,10.2657,-5.4773,4.2761,7.4962,11.8928,-3.3948,9.2187,-3.2642
2718.7500,-0.5151,21.5451,-1.6257,4.2940,-4.4084,10.5715,-8.6702,-7.5283,4.7903,12.0287,4.1277,11.3106,-2.0284,6.6882,4.3005,9.2768,-1.0935,11.4754,-5.5147
2722.6562,4.8575,22.3762,-5.9530,6.9859,-1.5252,13.5627,-8.1140,-5.4463,9.8312,15.3628,3.2246,14.0726,2.3901,9.2258,-0.9187,8.2355,1.4603,14.8738,-8.1302
2726.5625,10.3373,23.3601,-8.7215,9.6867,1.3627,16.7394,-8.2337,-3.6164,14.8223,17.0479,2.4946,16.9342,6.2461,11.4634,-6.8757,8.6406,3.3609,18.7453,-10.4800
2730.4688,13.5046,23.0484,-9.8350,11.6014,2.1515,17.4606,-9.0436,-3.0851,17.4111,17.2378,1.6325,17.4742,7.8375,12.9939,-11.8557,9.2550,3.6941,21.9748,-12.3278
2734.3750,13.4366,20.6849,-10.0098,12.2068,0.0443,14.6545,-10.3280,-4.0026,16.5349,16.8183,0.2202,14.3982,6.5873,13.4639,-14.6070,8.8638,2.3438,23.5289,-13.9014
2738.2812,11.1814,16.7737,-10.1745,11.5292,-3.7950,9.6229,-11.7481,-5.5014,13.0748,16.6459,-2.0184,8.6436,3.5150,12.7161,-14.9733,7.2299,0.2106,22.9425,-15.5814
2742.1875,8.7712,12.5782,-10.8019,10.1335,-7.0938,4.9117,-12.9682,-6.2884,9.0255,16.9121,-5.0461,2.6947,0.5014,10.9620,-13.8683,5.1061,-1.3991,20.4992,-17.4773
2746.0938,7.6363,9.0140,-11.6353,8.7972,-8.0925,2.2064,-13.8425,-5.5344,5.9572,17.0783,-8.4971,-1.3457,-1.0533,8.7946,-12.6256,3.3874,-1.7363,17.0365,-19.2477
2750.0000,7.6955,5.9075,-11.9907,8.0492,-6.6442,1.0432,-14.5376,-3.4371,4.0615,16.3905,-11.7911,-3.3219,-1.0991,6.9222,-12.1678,2.2146,-1.1336,13.5256,-20.3140
2753.9062,7.7715,2.2643,-11.3842,7.8757,-4.0041,-0.5742,-15.3958,-1.0636,2.4902,14.5711,-14.2892,-4.9201,-0.6818,5.7535,-12.5267,0.8381,-0.6437,10.6800,-20.2939
2757.8125,6.8786,-2.6873,-9.9960,7.8100,-1.6177,-4.2060,-16.5323,0.4031,0.5586,12.1774,-15.4268,-7.9925,-0.8491,5.1454,-12.9589,-1.6566,-1.0831,8.7832,-19.2941
2761.7188,5.2542,-8.5897,-8.6020,7.3539,0.0200,-9.3770,-17.4642,0.4634,-1.3326,10.3729,-14.8130,-12.7534,-1.6711,4.5554,-12.4840,-5.4329,-2.2682,7.7542,-17.8166
2765.6250,4.2800,-13.9948,-8.0211,6.4172,1.5261,-13.7658,-17.1688,-0.4197,-1.9003,10.2614,-12.3271,-17.4113,-2.1810,3.5347,-10.4429,-9.6294,-3.0809,7.3227,-16.3582
2769.5312,5.4025,-17.3583,-8.5094,5.4220,3.8104,-15.0662,-14.6939,-1.2338,-0.1319,12.2095,-8.2233,-19.5952,-1.2275,2.1943,-6.7648,-12.9816,-2.3156,7.1641,-15.0372
2773.4375,8.9756,-18.1846,-9.5766,4.9680,7.1008,-12.9514,-9.9623,-1.1828,3.6459,15.5687,-3.1989,-18.3964,1.5401,1.2534,-1.9173,-14.7883,0.3860,6.9436,-13.5636
2777.3438,13.9729,-17.3753,-10.3649,5.3113,10.7063,-9.4452,-4.1373,-0.2208,7.7653,18.9515,1.6696,-15.2841,5.4075,1.5817,3.2836,-15.3651,4.2677,6.3369,-11.5693
2781.2500,18.7547,-16.4826,-10.2722,6.0881,13.6875,-7.3339,0.8475,1.0225,10.3614,20.8918,5.1918,-13.0575,9.2486,3.5557,7.8525,-15.5910,8.0585,5.1193,-9.0056
2785.1562,22.2067,-16.4769,-9.3066,6.5435,15.7667,-7.9129,3.3781,1.8236,10.7534,20.5281,6.4933,-13.6241,12.4756,6.7142,10.8146,-15.9771,10.9195,3.3196,-6.2539
2789.0625,24.3054,-17.0382,-7.8961,6.1096,17.5924,-9.9547,3.1343,1.9563,9.9212,17.9568,5.4354,-16.4093,15.4114,9.9816,11.4802,-16.1349,12.9447,1.3096,-3.8427
2792.9688,25.7122,-16.9466,-6.3588,4.8606,20.0668,-10.7799,1.2393,1.8128,9.6634,14.0930,2.7794,-18.7322,18.7306,12.2848,9.7974,-15.1726,14.8166,-0.3256,-2.0256
2796.8750,26.8454,-15.2393,-4.5540,3.4261,23.3166,-8.5596,-0.5287,1.9623,11.0997,10.1271,-0.0684,-17.9120,22.4635,13.0836,6.5663,-12.6979,16.9471,-1.1562,-0.6108
2800.7812,27.3092,-12.1707,-2.0876,2.3807,26.2613,-3.9357,-0.8718,2.5239,13.7193,6.8750,-1.6740,-13.4614,25.4939,12.4340,3.2497,-9.5004,18.8787,-1.3164,0.7735
2804.6875,26.2092,-9.1731,1.0683,1.5917,27.2595,0.3988,0.3817,2.8950,15.7338,4.3784,-1.2617,-7.6277,26.1046,10.6058,1.3446,-7.1979,19.5083,-1.6374,2.1956
2808.5938,23.0770,-7.8314,4.1239,0.1179,25.3861,1.8264,2.5280,2.1043,15.4451,1.9871,0.9179,-3.8364,23.2410,7.6632,1.6361,-7.0146,17.9934,-3.2976,3.1776
2812.5000,18.5624,-8.6821,5.7280,-3.1425,21.2991,-0.1117,4.8014,-0.4415,12.5408,-1.1137,3.7747,-4.2229,17.5014,3.4327,3.8306,-8.6743,14.5995,-7.0994,2.9965
2816.4062,14.2190,-10.7826,4.9069,-8.4732,16.9325,-3.3868,6.9747,-4.3857,8.3176,-5.2478,6.0307,-8.1207,11.0058,-2.0854,6.8560,-10.3958,10.7462,-12.7933,1.3660
2820.3125,11.4772,-12.3779,2.0128,-14.7977,14.1797,-5.1613,9.2173,-8.4928,4.7099,-9.8897,6.9424,-12.5919,6.1435,-8.2448,9.6322,-10.1208,8.1346,-18.9335,-1.0495
2824.2188,10.6094,-12.1359,-1.1541,-20.0928,13.5655,-4.0700,11.4081,-11.3615,2.9300,-13.8699,6.6457,-14.5093,4.0823,-13.7248,11.7440,-7.0679,7.5755,-23.4684,-2.8055
2828.1250,10.5480,-10.0094,-2.3413,-22.5772,13.9403,-1.2189,12.6633,-12.2882,2.7733,-16.0442,5.9222,-12.5867,4.1292,-17.1151,13.5087,-2.3732,8.4065,-24.7934,-2.5486
2832.0312,9.7501,-7.1169,-0.3594,-21.8566,13.4270,0.8970,11.7267,-11.6593,3.0471,-15.9894,5.5834,-7.9289,4.3847,-17.7530,15.4207,1.7335,8.9474,-22.6410,-0.0127
2835.9375,7.4512,-4.8117,4.0007,-19.1632,10.8714,0.6269,8.1045,-10.5864,2.6690,-14.2315,5.9363,-2.8972,3.1644,-16.1694,17.4754,3.5906,7.6668,-18.2272,3.6380
2839.8438,4.3143,-3.6962,8.4390,-16.4501,6.6699,-1.3274,3.0480,-10.0536,1.5048,-11.8244,6.7172,0.6672,0.1188,-13.7367,18.9936,3.2880,4.2032,-13.5210,6.4913
2843.7500,1.9448,-3.2980,10.7796,-14.9606,2.3734,-2.3800,-0.6120,-10.2037,0.3126,-9.5691,7.5099,2.5102,-3.7172,-11.7139,19.1469,2.4339,-0.4707,-10.0765,7.2063
2847.6562,1.6321,-2.5524,10.5973,-14.3261,-0.5523,-0.1150,-0.0031,-10.2878,-0.0591,-7.4589,8.2690,3.7147,-6.8547,-10.3770,17.7629,2.7293,-4.7893,-8.1722,6.0428
2851.5625,3.2976,-0.6258,9.5708,-12.8925,-1.7918,5.7624,5.7726,-9.3054,0.5164,-4.7953,9.4709,5.6051,-8.4513,-8.9009,15.6893,4.5476,-7.6289,-6.8081,4.7959
2855.4688,5.4708,2.5593,10.1989,-9.0752,-2.2594,13.1573,14.6020,-6.8559,1.2996,-0.9157,11.7043,8.7935,-8.7426,-6.1046,14.3117,6.7050,-8.8744,-4.5448,5.5854
2859.3750,6.3209,6.4036,13.7753,-2.7580,-3.2125,19.1740,22.2575,-3.5694,1.2809,4.0228,14.9897,13.0015,-8.5877,-1.5094,14.5233,7.5935,-9.1875,-0.6028,9.2972
2863.2812,4.9592,10.1139,19.1597,4.3086,-5.1851,22.2343,24.8609,-0.8003,-0.0183,8.8496,18.4017,17.5095,-8.6333,4.1009,15.9568,6.6958,-9.2832,4.5188,14.7832
2867.1875,2.0383,13.1433,23.3521,9.4412,-7.6068,23.0169,21.3607,0.1935,-2.1956,12.0038,20.3995,21.6222,-8.8370,9.0598,17.1600,5.1667,-9.3422,9.2968,19.4342
2871.0938,-0.7720,15.3024,23.5329,10.6501,-9.3459,23.5415,14.3083,-0.9958,-4.3008,12.5670,19.7474,24.7451,-8.6902,11.8767,16.6699,4.9517,-8.9896,12.1026,20.7776
2875.0000,-1.9905,16.6050,19.0853,7.8332,-9.6453,25.2669,8.2932,-3.7479,-5.5192,10.9444,16.4079,26.2290,-7.8473,12.1979,14.1899,7.1522,-7.7580,12.1427,18.0193
2878.9062,-1.2892,17.1197,12.0806,2.7464,-8.6491,27.8412,6.9826,-6.8815,-5.6378,8.6614,11.7251,25.4409,-6.5462,10.9779,10.9241,11.0088,-5.5797,9.8236,12.4796
2882.8125,0.4694,16.9914,5.8364,-2.1434,-7.1316,29.5197,10.7064,-9.3806,-4.9858,7.3904,7.6734,22.2446,-5.4494,9.7664,8.7263,14.3776,-2.8970,6.3895,6.6523
2886.7188,2.0590,16.5395,2.6147,-5.0555,-5.7521,28.8223,16.1930,-10.8495,-4.0089,7.9075,5.6236,17.5118,-5.0818,9.6619,8.6524,15.3405,-0.3630,3.1857,2.5721
2890.6250,2.8633,16.2101,2.1712,-5.5966,-4.5384,25.9531,18.6305,-11.4318,-2.9091,9.7225,5.4650,13.0398,-5.3987,10.6869,10.0097,13.6390,1.5504,1.0860,0.6254
2894.5312,3.2171,16.3027,2.2056,-4.4443,-3.0457,22.7361,14.6745,-11.3647,-1.6423,11.5992,5.7088,10.6562,-5.8730,11.9729,10.6700,10.7639,2.6894,0.3863,-0.4319
2898.4375,3.8882,16.6593,0.2975,-2.4701,-1.0020,21.1030,4.4399,-10.6070,-0.1995,12.5035,4.5186,11.0341,-6.0015,12.5198,8.4758,8.6496,3.0476,1.0434,-2.3688
2902.3438,5.1734,16.6218,-4.2069,-0.0967,1.1959,21.4127,-8.7321,-8.8722,1.1542,12.2247,0.9560,13.1478,-5.7504,11.9146,2.7393,8.0821,2.5430,2.8922,-6.1460
2906.2500,6.3946,15.3864,-9.7987,2.6565,2.6363,22.0469,-20.4138,-6.0191,1.9301,11.2456,-4.4174,14.9106,-5.5274,10.5136,-5.2400,8.1478,1.0352,5.5967,-11.2945
2910.1562,6.2498,12.5451,-14.1278,5.6545,2.6116,20.6701,-27.5977,-2.4309,1.7057,10.0942,-9.9643,14.6148,-5.7154,9.0722,-12.9843,7.1631,-1.3927,8.4489,-16.3474
2914.0625,3.7974,8.4153,-15.9127,8.2835,1.2944,16.1654,-29.9433,0.9998,0.3863,8.8300,-14.0682,12.0903,-6.2159,8.2215,-18.3511,4.2590,-4.1717,10.3660,-19.8903
2917.9688,-0.6613,3.8933,-15.8833,9.6876,-0.2250,9.6816,-29.1569,3.3326,-1.7735,7.1485,-16.0969,8.6662,-6.4479,8.2176,-20.6630,0.2483,-6.3371,10.3190,-21.4106
2921.8750,-5.4903,-0.0640,-16.0333,9.4493,-0.6196,3.9339,-27.2370,4.1621,-4.3503,4.9766,-16.5807,5.9688,-5.8293,9.0623,-20.7315,-2.9844,-7.0175,8.0146,-21.3818
2925.7812,-8.5448,-2.9459,-17.8420,8.0914,0.7973,1.2900,-25.0015,3.8593,-6.9168,2.9326,-16.5766,4.5484,-4.3113,10.7376,-19.9194,-4.0605,-5.9895,4.3163,-20.6540
2929.6875,-8.3901,-4.8334,-20.9511,6.8657,3.6740,2.1175,-21.9111,3.2624,-9.0413,2.1025,-16.7837,3.4860,-2.4592,13.2378,-19.0666,-3.3072,-3.8422,0.9567,-19.7258
2933.5938,-5.1163,-6.1560,-23.3799,6.8915,6.9778,4.6304,-17.1085,3.0387,-10.2080,3.1977,-17.0962,1.3054,-0.9682,16.3510,-18.0881,-2.5406,-1.5665,-0.4182,-18.4730
2937.5000,-0.2372,-7.3347,-23.0936,8.2945,9.7700,6.2700,-10.6645,3.2100,-9.8814,5.7896,-16.8736,-2.5974,-0.0207,19.4640,-16.4218,-3.5896,0.1522,0.7183,-16.4716
2941.4062,4.2227,-8.6183,-19.6387,10.0675,11.7574,5.4967,-3.9571,3.2182,-7.8166,8.3640,-15.6213,-7.2635,0.9262,21.7027,-13.8149,-6.7924,1.3910,3.4067,-13.5584
2945.3125,6.8400,-10.1677,-14.5252,10.8222,13.2194,2.6414,1.1161,2.4754,-4.4124,9.3065,-13.4866,-10.8621,2.6779,22.4221,-10.7377,-10.7325,2.8281,5.8236,-10.1267
2949.2188,7.4197,-12.1737,-10.0734,9.8685,14.4740,-0.6927,3.4224,0.9488,-0.7465,8.1072,-11.1874,-12.2209,5.5120,21.6806,-8.1155,-13.4393,5.0822,6.4982,-6.9303
