Time,Fp1,F3,C3,P3,O1,F7,T3,T5,Fz,Fp2,F4,C4,P4,O2,F8,T4,T6,Cz,Pz
0.0000,8.3982,0.8810,12.8181,1.6943,8.3356,5.5139,11.5730,0.6377,12.5796,2.7551,16.0112,6.4674,9.5866,3.7048,8.6594,16.1675,10.2660,3.8832,13.2502
3.9062,7.5297,-0.7712,7.5341,-3.1238,7.2120,5.7896,7.0580,-2.4077,8.5760,-1.7281,11.1678,4.2374,7.8846,1.5140,9.8011,19.4395,8.0145,-1.9978,9.2711
7.8125,5.3132,1.0114,0.7719,-8.6419,5.5692,4.8004,1.4917,-6.5988,4.0322,-7.2953,4.0741,0.3445,5.1814,-2.1906,10.5502,15.4472,5.3041,-8.7956,3.8209
11.7188,2.1303,4.8451,-3.0288,-11.8891,4.2614,2.3043,-1.2158,-9.7241,0.8906,-11.5131,-1.8656,-4.3252,2.8029,-5.4173,10.3429,4.2700,3.6016,-13.3308,0.3832
15.6250,-1.1741,7.4929,-0.5998,-10.9498,3.8521,-0.9122,1.5541,-9.9275,0.4143,-12.4988,-3.5712,-7.7588,1.9633,-6.2677,9.0210,-9.6181,3.8063,-13.3293,1.6716
19.5312,-3.6072,6.4929,7.5327,-6.4738,4.1555,-3.1805,8.9031,-7.1122,2.2826,-10.2518,-0.4716,-7.8327,2.8666,-4.4174,6.9932,-19.7114,5.4531,-9.1029,7.4383
23.4375,-4.3976,2.2597,16.9271,-1.4411,4.3102,-2.8097,16.5960,-3.1482,4.6365,-6.6986,4.9711,-3.7841,4.4404,-1.4938,5.0998,-21.2952,6.7851,-3.5757,14.2429
27.3438,-3.3243,-2.1624,21.9361,0.8132,3.3598,0.8031,19.7567,-0.5968,5.1171,-4.3375,8.8890,2.8945,4.9419,0.0572,4.2149,-14.1720,5.7557,-0.4629,17.5738
31.2500,-0.9096,-3.5774,19.4340,-1.0514,0.9375,6.5662,16.2292,-0.8309,2.2635,-4.4587,8.6531,8.9482,3.0588,-1.1762,4.7744,-2.4722,1.3595,-1.7984,14.9198
35.1562,1.6412,-1.3117,10.8809,-5.4130,-2.4373,12.1027,8.1166,-2.9879,-3.6375,-6.2899,4.5939,11.1420,-1.2371,-4.4256,6.4906,8.2238,-5.5951,-6.5885,7.5619
39.0625,2.8291,2.2042,1.1960,-8.8881,-5.6678,15.0186,0.2814,-4.6237,-10.7986,-7.7256,-0.4720,8.2634,-6.6608,-7.2441,8.4498,14.3489,-12.8253,-11.6103,-0.2937
42.9688,1.4835,3.5242,-4.7258,-8.8503,-7.7778,14.2502,-3.1246,-3.6293,-17.0818,-7.0680,-3.4962,1.9887,-11.4069,-7.3221,9.5842,15.9964,-17.8425,-13.7896,-4.4587
46.8750,-2.6798,1.2521,-5.2630,-5.3646,-8.5053,10.6047,-1.5100,0.0636,-21.2355,-4.4025,-3.4599,-4.0567,-14.1947,-4.2231,9.2775,15.7931,-19.3310,-12.3768,-3.6247
50.7812,-8.9096,-2.5294,-2.7101,-1.0457,-8.3851,6.1429,2.0615,4.3595,-23.3807,-1.5206,-1.8965,-6.4753,-14.8517,0.3265,7.7377,16.1264,-17.7413,-9.2739,-0.0307
54.6875,-15.7978,-3.7924,-0.9818,1.0587,-8.2861,2.8599,3.5417,6.6181,-24.4790,-0.4652,-1.3414,-4.0679,-14.1028,3.8243,5.8713,16.9872,-14.7552,-7.2926,2.5059
58.5938,-21.9453,0.0840,-2.3130,-0.0959,-8.7602,1.5988,1.1920,5.7701,-25.2803,-1.8795,-3.0438,1.7059,-12.8261,4.9455,4.6967,16.0767,-12.0598,-7.7491,1.6192
62.5000,-26.4576,7.8914,-5.6017,-2.7260,-9.6727,1.9128,-3.1106,3.2358,-25.6208,-4.4876,-5.8568,7.9875,-11.4019,4.4877,4.6526,10.9854,-10.3284,-9.3413,-1.8841
66.4062,-28.9669,15.1957,-7.6466,-3.6742,-10.3613,2.8467,-5.5757,1.8553,-24.6371,-6.1051,-7.2456,12.4854,-9.6436,4.5470,5.2731,1.6409,-9.1041,-9.2375,-4.9138
70.3125,-29.2968,17.6184,-6.1688,-0.9976,-10.1751,3.9077,-3.8230,3.6193,-21.7165,-5.3319,-5.5973,14.6904,-7.2978,6.6131,5.4950,-8.9524,-7.5839,-5.5208,-4.8273
74.2188,-27.2193,14.2149,-2.0729,4.3813,-8.9821,5.4024,0.8637,7.9894,-17.3869,-2.5439,-1.9175,15.5595,-4.6275,10.1738,4.4311,-16.3134,-5.6191,0.9998,-1.7767
78.1250,-22.6627,8.2107,0.9554,9.3061,-7.2796,7.8879,4.2048,12.1781,-13.3524,0.5915,0.5578,16.1218,-2.5333,13.0145,2.0896,-17.2629,-4.0993,7.1394,1.2262
82.0312,-16.2487,4.4556,-0.7644,10.8232,-5.8509,11.2669,2.0562,13.2276,-11.5292,2.6085,-1.3532,16.2865,-2.0525,13.0078,-0.4968,-11.8504,-4.3785,9.6600,0.5966
85.9375,-9.5830,5.6116,-7.9596,8.4874,-5.2382,14.3902,-6.4120,10.2793,-12.7326,3.4476,-8.3183,14.8820,-3.5975,9.9349,-1.8922,-3.0750,-7.1607,7.7570,-4.9898
89.8438,-4.7675,10.1332,-17.6591,4.6826,-5.4162,15.6308,-17.9399,5.2502,-16.0002,4.3537,-17.7651,10.8691,-6.5331,5.8162,-1.2491,5.2981,-11.7131,3.7153,-13.4501
93.7500,-3.2133,13.6442,-25.2477,2.6940,-5.8790,14.0737,-27.3774,1.3781,-19.1109,6.5910,-25.4773,4.6400,-9.4549,3.4258,1.0111,11.1577,-16.0597,1.1603,-20.7236
97.6562,-4.5507,12.5580,-27.6975,4.0815,-6.0362,10.3870,-31.1356,0.7955,-19.9886,10.1308,-28.3330,-1.7849,-10.9983,4.1582,3.3502,14.9542,-18.0887,2.2575,-23.6443
101.5625,-6.5962,6.9867,-25.4614,7.4878,-5.6072,6.6053,-29.2843,3.0649,-18.0030,13.5012,-26.1713,-5.9382,-10.6014,6.9796,4.0580,18.5579,-16.8136,6.0877,-22.0330
105.4688,-6.6659,0.5956,-21.6520,9.8654,-4.7265,4.8660,-24.8575,5.8201,-14.2363,14.9869,-21.5006,-6.5657,-8.6757,9.3381,2.3852,23.0862,-12.8967,9.5105,-18.4648
109.3750,-3.4606,-2.4187,-19.3175,9.1435,-3.7180,5.9618,-21.1556,6.9478,-10.5408,14.1700,-17.4359,-4.4244,-6.0960,9.3166,-0.9088,27.4579,-8.0747,9.8432,-16.0340
113.2812,1.8630,-0.7158,-19.0876,6.1562,-2.7455,8.7616,-19.3105,6.4849,-8.1074,12.4570,-15.5282,-1.5612,-3.4377,7.2786,-3.9931,28.8501,-3.9281,7.1955,-15.9676
117.1875,6.3650,3.1993,-19.0267,4.2112,-1.6272,10.9341,-17.9713,6.6352,-6.6237,12.0538,-15.0711,0.3309,-0.5729,5.6408,-5.1210,24.7710,-0.9038,4.5440,-16.9389
121.0938,7.4027,5.1416,-16.6437,6.5550,0.0393,10.4591,-15.1043,9.8599,-4.6410,14.1697,-14.1921,1.1069,3.0630,6.9135,-3.7430,15.2207,1.7170,5.4202,-16.4727
125.0000,4.6360,2.7397,-11.2442,13.6995,2.5442,6.8636,-10.1743,16.5908,-0.8466,17.9322,-11.6385,1.9292,7.7676,11.5674,-0.8459,3.2705,4.9510,11.0125,-13.1446
128.9062,0.4248,-2.6081,-4.6350,22.7315,5.7842,1.3725,-4.7911,24.4753,4.7473,20.9641,-7.7699,3.8454,13.0272,17.4548,1.6845,-6.5325,9.0742,18.9911,-7.7410
132.8125,-1.7555,-6.8709,0.3335,29.2055,9.2503,-4.0049,-1.3331,29.8542,10.6163,21.2194,-4.0811,6.4902,17.6176,21.2934,2.2261,-10.9805,13.2517,25.0370,-2.5169
136.7188,0.2659,-6.6327,2.0546,30.2084,12.2986,-7.6944,-0.8364,30.3793,14.6845,18.6157,-1.8512,8.1479,20.3358,21.0803,0.3391,-10.3433,16.1332,25.9313,0.6877
140.6250,5.9125,-1.8007,1.3041,26.2854,14.5072,-9.2234,-2.0392,26.7366,15.7154,15.1366,-1.1569,7.2274,20.8327,17.5686,-3.1142,-8.2686,16.9363,21.8311,1.8236
144.5312,12.4549,4.3495,0.3131,20.8172,15.8692,-9.0358,-2.4277,22.1159,14.1028,13.3042,-1.0434,3.8872,19.9055,13.6751,-6.6269,-9.3247,16.1431,15.9957,2.3831
148.4375,17.1005,7.7155,0.6717,17.4069,16.6977,-7.8439,-0.3706,19.8301,11.5061,14.2447,-0.5677,0.2645,18.9856,12.3078,-8.9579,-15.6833,15.2310,12.2163,3.8518
152.3438,18.8844,6.3855,1.9559,17.3120,17.3345,-6.1668,3.5123,20.9137,9.6499,16.8858,0.2982,-1.1430,19.1578,14.2957,-9.6773,-25.1552,15.6089,11.9664,6.2870
156.2500,18.8995,1.7844,2.2948,18.8175,17.8830,-4.3614,6.9325,23.5154,9.2045,18.8869,0.7131,0.2333,20.4082,17.9569,-9.0707,-32.0585,17.5624,13.4477,8.2718
160.1562,18.8432,-2.7528,0.3550,18.8621,18.1527,-2.8915,7.9548,24.4635,9.5479,18.4893,-0.1394,2.0364,21.6488,20.5106,-7.6190,-30.6123,20.0175,13.1766,8.2505
164.0625,19.2765,-4.6092,-3.0719,15.5021,17.8305,-2.3433,6.6982,21.7111,9.4947,15.7647,-2.1692,0.4063,21.5075,20.1260,-5.5374,-18.8276,21.3119,8.7837,6.0253
167.9688,19.1902,-3.5439,-5.3859,9.2847,16.7292,-2.9971,5.2301,15.7633,8.3506,12.3073,-4.3264,-6.9718,19.3188,17.0224,-2.7358,-0.3660,20.3960,0.8398,3.0685
171.8750,17.2612,-1.2391,-4.2496,2.6089,14.9271,-4.3174,5.7369,9.0924,6.4642,9.7517,-5.4078,-18.4699,15.6142,12.9154,0.8216,17.0197,17.5596,-7.6065,1.3554
175.7812,13.6037,0.5549,0.3224,-2.2056,12.7142,-4.9598,8.5605,4.1613,4.9073,8.4610,-4.9674,-28.8176,11.7826,9.4620,4.7125,25.7162,14.1581,-13.2591,1.7379
179.6875,10.2778,1.4932,5.7172,-4.5009,10.4196,-3.5359,11.8299,1.6940,4.6238,7.5063,-3.5005,-32.2183,9.1689,7.0672,7.9925,22.6366,11.5772,-14.7493,3.2960
183.5938,9.8477,2.5044,8.6788,-5.3386,8.2671,0.3142,13.0554,0.4887,5.7619,5.8711,-1.7614,-26.2092,8.2577,4.9570,9.5918,11.0420,10.2418,-13.1479,4.2538
187.5000,13.0581,4.3915,7.9345,-6.2203,6.3519,5.4035,11.3378,-1.2711,7.6823,3.7030,0.0990,-13.4630,8.4853,2.2630,8.9318,-1.3722,9.4078,-10.6589,3.6635
191.4062,17.6776,6.6568,5.2964,-7.7255,4.7032,9.5923,8.2673,-4.4326,9.5314,2.3923,2.7004,-0.1272,8.7359,-0.9695,6.3484,-6.9621,7.8431,-8.7781,2.3524
195.3125,19.7771,7.7593,4.2184,-9.2334,3.3239,11.2064,6.6617,-8.3223,10.8197,3.3173,6.6677,8.1655,8.0986,-3.7701,3.0220,-2.4549,4.8244,-7.4644,2.2330
199.2188,16.7133,6.6203,6.8876,-9.8279,2.1403,10.2671,8.1447,-11.5371,11.5069,6.3475,11.6017,9.7538,6.3368,-5.1772,0.4283,9.4430,0.6715,-5.8390,4.5018
203.1250,9.4932,3.9648,12.2051,-9.4077,0.9214,8.5536,11.6170,-13.2233,11.5927,9.5146,15.7978,7.4225,3.8110,-5.1940,-0.3870,21.8966,-3.5424,-3.5629,8.2804
207.0312,2.4415,2.1477,16.3844,-8.9009,-0.6949,8.3610,13.9962,-13.6614,10.6921,10.3214,17.1575,5.7200,1.0441,-4.8326,0.6905,27.8771,-6.8027,-1.5152,10.9663
210.9375,0.1208,3.4259,15.8114,-9.3579,-2.9957,10.8308,12.7290,-13.6954,8.1000,7.7277,14.7003,7.3026,-1.6547,-5.1648,2.8205,23.7490,-8.8079,-1.1192,10.1570
214.8438,3.7182,8.0461,9.9565,-10.7759,-5.9035,15.1046,8.0490,-13.6400,3.3981,3.1662,9.4706,11.1228,-4.2252,-6.2354,4.6567,10.6663,-9.9834,-2.9424,5.6494
218.7500,9.7440,13.7819,2.0138,-11.8072,-8.8413,18.9564,3.0723,-12.7702,-2.8943,-0.3696,4.0187,13.7165,-6.6256,-6.8713,5.0231,-6.4727,-10.9485,-5.8974,-0.1496
222.6562,12.2654,17.4107,-3.3006,-10.7394,-10.9421,20.4260,1.5382,-9.9455,-9.2640,-0.5570,0.7381,12.3685,-8.6523,-5.6564,3.4807,-21.3965,-11.9730,-7.8664,-3.8412
226.5625,7.2035,17.0233,-3.1361,-6.9888,-11.5562,19.2096,4.9205,-4.8506,-13.9596,2.4450,0.2786,7.5096,-10.0430,-2.2886,0.5220,-28.7626,-12.9073,-7.3175,-3.4889
230.4688,-4.4450,13.3588,1.4995,-1.8190,-10.7428,16.7627,11.1935,1.2867,-16.1016,6.0852,1.2334,2.4311,-10.7775,1.8756,-2.6885,-25.6640,-13.5835,-4.5685,-0.0088
234.3750,-16.8994,9.1390,6.6199,2.4105,-9.3598,15.0948,16.2452,6.2469,-16.3208,7.3953,1.3187,0.6380,-11.2418,4.6616,-4.8943,-12.3824,-14.2193,-1.5939,3.5876
238.2812,-23.2671,6.9799,8.2551,3.9397,-8.5968,15.2467,16.8430,8.3011,-16.3703,5.3053,-0.8918,3.0620,-11.9978,4.7134,-5.3626,7.4436,-15.3395,-0.4753,4.4927
242.1875,-19.9939,7.5575,5.2217,2.9003,-9.1949,16.6533,12.8420,7.4492,-17.9093,1.4597,-5.0108,7.4000,-13.2648,2.6159,-4.2310,27.4765,-17.1981,-1.7430,2.1327
246.0938,-8.9948,9.4129,-0.3824,1.1486,-10.8826,17.8296,6.9692,5.3895,-21.3012,-1.1144,-9.3306,10.0447,-14.5515,0.5453,-2.4056,40.6057,-19.2187,-3.9706,-1.6334
250.0000,3.8441,10.4004,-5.1533,0.7714,-12.4701,17.7362,2.4678,4.2237,-25.3102,-0.4100,-12.2720,8.9541,-14.8494,0.6577,-1.0651,41.9566,-20.0692,-4.9573,-4.2181
253.9062,12.4740,9.4801,-7.1137,2.4789,-12.6138,16.6530,0.5543,4.9381,-27.9361,3.0150,-13.5782,5.1067,-13.3719,3.4647,-1.0344,31.6378,-18.5059,-3.5179,-4.4808
257.8125,14.0327,7.3969,-7.0337,5.1795,-10.7653,15.8448,-0.2972,6.8726,-27.7926,6.5608,-14.3346,1.4454,-10.3168,7.4777,-2.3709,15.2833,-14.4188,-0.4052,-3.6168
261.7188,9.6549,5.8172,-7.4412,7.0399,-7.6361,16.3390,-2.7783,8.5413,-25.0272,7.6991,-15.8998,0.3260,-6.9958,10.4018,-4.3869,1.3415,-9.2123,2.3777,-4.0934
265.6250,2.7519,5.7978,-10.3059,7.0974,-4.8061,17.8866,-8.2708,9.0359,-21.1289,5.9311,-18.6979,1.6782,-5.0835,10.9187,-6.0736,-3.7897,-5.0673,3.2721,-7.5562
269.5312,-3.4952,6.9273,-15.3529,6.0596,-3.7028,19.0196,-15.5250,8.7815,-17.8032,3.0228,-21.8612,3.3809,-5.4403,9.6355,-6.6654,0.2128,-3.5056,2.4358,-13.4186
273.4375,-7.5615,7.7973,-20.3067,5.6313,-4.6454,18.1885,-21.5246,9.0176,-15.7823,1.4075,-23.9422,3.3988,-7.3858,8.4646,-6.0125,7.3637,-4.3074,1.5321,-19.2419
277.3438,-9.3652,7.2712,-22.7283,6.9694,-6.6336,15.0495,-23.7614,10.5075,-14.4603,2.1536,-24.0355,1.7061,-9.0699,8.9727,-4.5740,9.5099,-5.6711,2.2335,-22.5450
281.2500,-9.2907,5.3807,-21.8627,9.5995,-8.0416,10.8258,-22.0497,12.6652,-12.5891,4.2079,-22.3852,0.2476,-8.7863,11.0598,-3.0851,2.2429,-5.5947,4.7150,-22.5734
285.1562,-7.6510,3.1029,-19.0365,11.7363,-7.7265,7.4220,-18.4756,13.9323,-9.4518,5.5043,-20.0687,0.9496,-6.3095,13.0384,-2.1341,-11.6063,-3.4793,7.4226,-20.6645
289.0625,-4.9407,1.3163,-16.4274,11.7556,-5.7583,5.9830,-15.6483,13.1324,-5.5668,4.9335,-18.1387,3.5659,-3.2102,13.0357,-1.8943,-23.6164,-0.7006,8.3370,-19.0281
292.9688,-2.1938,-0.0292,-15.3369,9.5931,-3.2554,6.0453,-14.7607,10.6450,-2.3513,3.4486,-16.9764,5.3819,-1.8003,10.5701,-2.1135,-25.6189,0.3817,6.7037,-19.0075
296.8750,-0.6204,-1.7270,-15.3788,6.8918,-1.4741,5.9430,-15.0012,8.3330,-0.9851,3.3285,-16.2958,3.2416,-3.3932,7.0247,-2.2955,-15.5886,-1.6994,3.8050,-20.1966
300.7812,-0.5715,-4.2687,-15.1054,5.7576,-0.8522,4.1282,-14.6359,8.1815,-1.3489,6.2008,-15.5999,-3.6741,-7.1515,4.6416,-1.9301,0.7640,-6.1702,2.1182,-20.9897
304.6875,-0.8341,-6.9262,-13.3736,7.1281,-0.7313,0.3614,-12.6940,10.7066,-1.8834,11.4979,-14.5374,-12.6710,-10.4453,4.8403,-0.6725,13.9274,-10.2901,3.5052,-19.9657
308.5938,0.7669,-7.9048,-10.2381,10.0779,0.0473,-4.1259,-9.7851,14.4370,-0.5449,16.6878,-12.8505,-19.1076,-10.5563,7.1856,1.5399,17.1359,-11.1410,7.8430,-16.9207
312.5000,5.6174,-5.6134,-6.7057,12.6070,2.1545,-7.5429,-7.4343,16.9409,3.7802,19.1499,-10.1415,-19.6182,-6.5443,9.7879,4.4133,10.6509,-7.6571,13.1355,-12.8029
316.4062,12.8072,-0.1050,-3.7312,13.2590,5.1813,-8.7500,-6.6309,16.6329,10.3972,18.1946,-5.9517,-14.4950,0.0831,10.7853,7.2825,0.6916,-1.3898,16.9705,-8.7845
320.3125,19.3496,6.5086,-1.4365,12.2612,7.9252,-7.8409,-6.9141,13.9700,17.0960,15.5810,-0.3177,-7.3539,6.4059,9.7359,9.2308,-5.8872,4.5815,18.1622,-5.3810
324.2188,22.2688,11.1297,0.7821,11.2969,9.3487,-5.7725,-6.7713,11.1210,21.4400,14.1055,5.6449,-2.3758,10.0898,7.8682,9.3903,-6.8003,7.7962,17.3470,-2.3457
328.1250,20.9917,11.5680,3.4681,12.1288,9.4626,-3.5144,-4.9385,10.3867,22.1954,15.3868,9.8531,-1.3472,10.8858,7.0599,7.3502,-5.3069,8.0288,16.1836,0.7137
332.0312,17.9619,7.9362,6.4553,15.1762,9.4134,-1.4997,-1.4303,12.5804,19.9626,18.6071,10.3436,-2.8255,10.5469,8.3752,3.4694,-6.4108,7.1923,15.8950,3.6965
335.9375,16.7071,2.5670,8.9783,19.1239,10.6487,0.2310,2.5707,16.5327,16.6382,21.1671,6.7328,-3.9378,11.2734,11.2645,-1.1251,-11.7219,7.6594,16.3201,5.9944
339.8438,18.7697,-1.4857,10.4012,21.7807,13.7459,1.5021,5.7824,19.9677,14.1234,20.6717,0.9102,-3.1243,13.9078,13.9550,-4.9289,-17.5113,10.3250,16.1426,7.0908
343.7500,22.0895,-2.3325,10.8231,21.4623,17.7842,1.7542,7.8305,20.9749,13.1719,16.6400,-3.7995,-1.4055,17.2731,14.6560,-6.6818,-17.7800,13.9098,14.0055,7.1513
347.6562,22.4458,-0.2823,10.9509,17.8865,20.7794,0.4333,9.2939,18.9929,13.1157,10.6488,-4.6451,-1.1063,19.1489,12.6694,-5.9062,-9.8353,16.0193,9.5879,6.9895
351.5625,17.0519,2.5740,11.3581,12.0869,20.9399,-2.2998,10.8266,14.7705,12.5743,4.9432,-1.2665,-3.2494,18.1072,8.6864,-3.0809,2.4470,15.1087,3.8658,7.3983
355.4688,7.4087,3.8547,11.8687,5.6539,17.8981,-5.2581,12.2783,9.6244,10.5808,0.7673,4.0545,-6.0677,14.7585,4.2215,0.6190,10.7939,11.8097,-1.5239,8.4689
359.3750,-1.1607,2.4436,11.7249,-0.0017,13.0577,-6.7755,12.7432,4.7344,7.3176,-2.2200,7.9830,-6.1756,11.4149,0.7100,3.8478,8.8043,8.5754,-5.2475,9.5622
363.2812,-3.3017,-0.8427,10.4475,-3.9241,8.7932,-5.8223,11.5724,0.9333,3.9710,-5.0998,8.4337,-1.6014,10.3989,-1.1158,5.5915,-2.5918,7.9026,-6.8945,9.9923
367.1875,2.0677,-3.8049,8.5802,-5.5597,7.0142,-2.8297,9.4028,-1.1702,1.8471,-8.3106,5.8764,5.8970,12.2754,-1.3209,5.4295,-15.0704,10.4691,-6.9732,9.7817
371.0938,10.4564,-4.2267,7.5133,-4.7799,8.0247,0.5132,8.1132,-1.2016,1.3987,-11.0238,2.6846,11.4503,15.3494,-0.4960,3.5184,-18.7126,14.5773,-6.4815,9.7183
375.0000,14.8461,-1.2309,8.3756,-2.1326,10.3939,2.4409,9.5060,0.6491,1.8488,-11.8298,1.0963,10.5171,16.8114,0.5752,0.4105,-9.4303,17.2942,-6.4221,10.5601
378.9062,10.9837,4.1373,10.8832,1.0008,11.8794,2.4160,13.6951,3.3272,1.6714,-10.0855,1.4455,2.6049,14.6796,1.1621,-3.1517,7.6988,16.4219,-7.4594,12.0623
382.8125,0.8637,9.4141,13.2154,2.8026,10.7805,1.5415,18.6038,5.1826,-0.4097,-6.6767,2.0832,-7.7531,9.1108,0.7971,-6.3953,21.8929,11.8683,-9.6979,12.7843
386.7188,-8.4432,12.0349,13.2039,1.9961,6.8763,1.7286,21.1800,4.9067,-4.5841,-3.4653,1.0078,-13.8157,2.1644,-0.5046,-8.6493,24.4200,5.5041,-12.5511,11.0393
390.6250,-9.9170,10.7502,9.9899,-1.2191,1.4267,4.2346,19.5310,2.5266,-9.8407,-1.8618,-2.1932,-11.3417,-3.7261,-2.1384,-9.4840,14.8254,-0.2591,-14.8326,6.3387
394.5312,-1.8557,6.3389,4.8064,-5.1113,-3.6724,8.6852,14.3368,-0.4371,-14.6317,-1.7526,-5.7647,-1.7006,-7.3904,-3.1337,-8.8395,0.9949,-4.0465,-15.2442,0.1287
398.4375,10.7220,1.1777,0.1619,-7.5214,-7.0008,13.3146,8.3745,-2.0043,-17.8442,-1.7291,-7.1150,9.0070,-9.4817,-2.7376,-7.0714,-6.8557,-6.1458,-13.1776,-4.9340
402.3438,19.6055,-2.1201,-2.0070,-7.4501,-8.3220,16.2108,4.4644,-1.3167,-19.4126,-0.4400,-4.9984,14.2364,-11.6500,-1.0401,-4.8504,-3.6094,-7.8854,-9.3433,-6.7604
406.2500,19.1524,-2.1911,-1.7552,-5.8945,-8.5320,16.5883,3.4252,0.4949,-20.1712,2.1002,-0.7281,11.5478,-15.0635,0.8761,-2.9299,7.4415,-10.4095,-5.6245,-5.3300
410.1562,9.9446,0.3994,-0.9503,-5.1344,-8.9656,15.1391,3.6508,1.0172,-21.0847,4.4032,2.6585,4.1042,-19.4286,1.5331,-1.8765,17.5959,-13.8266,-3.9894,-2.6934
414.0625,-2.2460,3.7273,-1.6084,-6.8547,-10.5226,13.2789,2.6252,-1.5242,-22.4306,4.7372,2.6940,-1.8623,-23.1892,0.1128,-1.8857,19.4210,-17.2776,-5.0567,-1.4013
417.9688,-11.0786,5.9201,-4.1060,-10.5210,-13.1209,11.9801,-0.8764,-6.5723,-23.5333,2.6689,-0.5902,-1.6014,-24.6546,-2.7846,-2.7558,11.9348,-19.6879,-7.3783,-2.5482
421.8750,-14.0836,6.3963,-6.7767,-13.3848,-15.7596,11.1481,-5.7146,-11.2162,-23.2510,-0.4174,-4.6876,4.9715,-23.1504,-5.3397,-4.0118,0.6561,-20.5069,-8.1742,-4.9825
425.7812,-13.5730,6.0304,-7.2957,-12.3183,-17.1230,9.9828,-9.3317,-12.0759,-20.8735,-2.3197,-6.6324,13.6278,-19.3805,-5.6761,-5.1130,-6.9808,-19.8930,-5.2216,-6.3407
429.6875,-13.7091,6.1586,-4.7655,-6.2084,-16.3709,7.9225,-9.9456,-7.8008,-16.7837,-1.7514,-5.4252,19.1402,-14.8651,-3.2207,-5.6605,-6.9897,-18.3691,1.3809,-5.1023
433.5938,-16.5115,7.2572,-0.7737,2.9277,-13.6726,5.3025,-8.1793,-0.2729,-12.3899,0.6273,-2.9135,18.8929,-11.0012,0.7591,-5.5378,-1.0182,-16.3995,8.9555,-2.0146
437.5000,-20.2298,8.4198,1.5333,11.0797,-10.1776,3.1483,-6.7536,6.5211,-9.3461,2.7565,-2.3852,14.1890,-8.4573,3.9329,-4.9374,5.7253,-14.2928,13.8776,0.3000
441.4062,-21.2945,8.1283,-0.2674,14.9134,-7.4239,2.2910,-8.4310,9.2305,-8.5776,2.8700,-5.9579,8.6507,-7.2090,4.5234,-4.2558,8.5918,-12.4092,14.0539,-0.6964
445.3125,-17.9367,5.7241,-5.9904,14.0293,-6.5017,2.5841,-13.8220,7.4907,-9.7699,0.9331,-12.8348,5.3125,-6.9659,2.6088,-3.8882,6.3461,-11.3002,10.4493,-5.4462
449.2188,-12.1865,2.3160,-12.8488,11.1060,-7.4497,2.9259,-20.7865,4.1067,-11.6555,-1.3746,-19.8217,4.7276,-7.4998,0.1215,-4.0183,1.0439,-11.4693,6.4502,-11.8214
453.1250,-8.4235,0.2202,-17.3845,9.7987,-9.2534,2.1150,-25.9000,2.9115,-12.8809,-2.1242,-23.7096,5.2720,-8.6148,-0.5107,-4.5310,-4.1765,-12.8668,5.4268,-16.5856
457.0312,-9.6725,1.2074,-17.8612,11.9713,-10.4648,-0.1372,-26.8379,5.9066,-12.8477,-0.8156,-23.6448,4.9629,-9.9261,1.8801,-5.1230,-7.1744,-14.5944,8.2432,-17.6833
460.9375,-14.8255,4.8903,-15.3167,16.3556,-10.0743,-2.8650,-23.8508,11.8417,-11.9693,1.1600,-21.6271,3.0730,-10.8072,6.3359,-5.5536,-7.3476,-15.2280,12.5811,-15.6162
464.8438,-19.2427,8.6274,-12.5422,19.6394,-8.0847,-4.4894,-19.2857,17.2758,-11.2166,1.7008,-20.7753,0.3301,-10.6722,10.4467,-5.8521,-5.0170,-13.6668,14.6305,-12.8950
468.7500,-18.3648,9.2081,-11.8689,19.1222,-5.4091,-3.9832,-15.6671,19.2616,-11.3262,-0.1461,-22.7724,-2.1158,-9.3707,12.0832,-6.2902,-0.9756,-9.9105,11.9313,-12.0508
472.6562,-11.4225,5.1544,-13.5104,14.8851,-3.1600,-1.6923,-13.9214,17.5698,-12.2511,-3.2149,-26.5341,-3.7807,-7.2998,10.9257,-7.0929,3.1899,-5.1191,5.2650,-13.7666
476.5625,-2.1935,-2.1170,-15.6753,9.8208,-1.8184,0.7942,-13.0832,14.7769,-13.2148,-5.0118,-29.1376,-5.0181,-5.0618,8.6767,-8.0895,4.8002,-0.8259,-1.8038,-16.5172
480.4688,3.8608,-9.2383,-16.2115,7.5267,-0.8787,1.6310,-11.5339,14.2123,-13.2803,-3.6899,-28.2343,-6.3467,-2.9284,7.8179,-8.6176,1.0363,2.1406,-5.3878,-17.8800
484.3750,3.8072,-13.2943,-14.3678,9.6818,0.7524,-0.1337,-8.5979,17.3876,-11.9910,0.3797,-23.9993,-7.8228,-0.6142,9.8245,-7.8570,-8.8254,4.1839,-3.9153,-16.4046
488.2812,-0.5496,-13.8714,-11.2724,14.8762,3.8568,-4.0118,-5.1440,22.8628,-9.6383,4.7529,-19.0707,-9.1832,2.3611,14.1161,-5.4383,-21.6035,6.4651,0.9583,-12.5959
492.1875,-4.1743,-13.1610,-8.8624,19.6980,8.1427,-8.4308,-2.7826,27.3264,-7.0224,6.7221,-16.5487,-10.5602,5.9657,18.4512,-1.8964,-30.9431,9.7667,5.7292,-8.3749
496.0938,-2.7586,-14.0258,-8.2579,21.1683,12.1931,-11.6813,-2.4591,27.9734,-4.9372,5.3899,-17.6526,-12.8604,9.2303,20.4269,1.4452,-30.9681,13.5974,7.5736,-5.5985
500.0000,4.0330,-17.5375,-8.9440,18.6710,14.2276,-12.8180,-3.6875,24.3542,-3.7561,2.3619,-20.8580,-17.1403,10.5974,18.9922,3.2042,-20.6011,16.2999,6.1195,-4.8686
503.9062,12.5134,-21.9357,-9.3524,14.0300,13.2085,-12.0072,-5.0236,18.4095,-3.3523,0.4941,-23.1229,-23.3360,8.9422,14.9654,2.8533,-5.1120,16.1649,3.2622,-5.4650
507.8125,17.9848,-23.8628,-8.2333,9.8631,9.5633,-10.2208,-5.2681,12.8610,-3.3004,1.6646,-22.1605,-29.5264,4.5630,10.3155,1.1656,6.8673,12.7502,1.3766,-6.2344
511.7188,18.2884,-20.9522,-5.6046,7.6077,5.0295,-8.5605,-4.2916,9.3209,-3.1334,5.3087,-17.9655,-32.6702,-0.6601,6.8340,-0.2030,9.1242,7.4022,1.4438,-6.5265
515.6250,15.1024,-13.7774,-2.5243,6.7081,1.6996,-7.6225,-2.7932,7.5188,-2.4774,8.8436,-12.4910,-30.5471,-4.1931,5.1491,0.2017,2.1830,2.5406,2.5164,-6.3902
519.5312,12.1610,-5.6509,-0.0072,5.4138,0.8608,-7.2163,-1.3273,6.0132,-1.0768,9.6168,-7.9090,-23.4769,-4.3258,4.6572,2.5993,-7.3348,0.1784,2.7682,-6.0274
523.4375,12.0625,-0.4067,1.8662,2.3688,2.3341,-6.5404,0.3872,3.5757,1.1578,6.8374,-4.9745,-14.3646,-1.2170,4.2235,5.7427,-12.0544,0.7083,1.1146,-5.2095
527.3438,14.3269,0.1763,3.8307,-2.3295,4.6774,-4.7194,3.1359,0.0571,4.0083,2.0137,-2.8128,-6.8703,3.2120,3.0176,7.7093,-9.8011,2.7769,-1.9522,-3.3453
531.2500,16.1565,-2.5793,6.4554,-7.3329,6.0710,-1.4510,7.1146,-3.8284,6.8292,-2.3595,-0.1680,-3.0370,6.4655,0.8968,7.2096,-5.3422,4.2756,-4.8994,-0.2006
535.1562,15.0560,-5.4274,9.2639,-11.1544,5.3196,2.5840,11.1345,-7.3697,8.6610,-4.7398,3.0950,-2.2103,6.9392,-1.7768,4.4981,-6.3081,3.7026,-6.4764,3.4462
539.0625,11.0161,-5.6243,10.8627,-13.1704,2.4075,5.8560,13.0491,-10.4562,8.6621,-5.5477,5.6217,-2.0642,4.7158,-4.5566,1.2219,-16.4071,0.9728,-6.6532,5.9773
542.9688,6.4825,-2.7758,10.0800,-13.7450,-1.6240,6.7381,11.2876,-13.3717,6.6612,-6.5104,5.6974,-0.8138,1.2583,-7.1518,-0.7137,-31.4524,-2.7654,-6.4335,6.0039
546.8750,4.2705,1.1773,7.1631,-13.5615,-5.3041,4.5507,6.3294,-16.0887,3.4271,-8.9763,2.9072,1.2939,-1.6601,-9.3523,-0.4709,-41.7036,-6.0140,-6.8163,3.5379
550.7812,5.2668,3.6585,3.9285,-12.9087,-7.4653,0.2610,0.8194,-17.8621,0.3492,-12.6346,-1.1539,2.4785,-3.0050,-10.8471,1.1497,-39.0390,-7.8078,-7.8884,0.2461
554.6875,7.8154,3.4547,2.5818,-11.6006,-7.7178,-3.7418,-1.9883,-17.6337,-1.3899,-15.6879,-3.8470,1.4352,-2.8689,-11.2327,2.3073,-23.4712,-8.0507,-8.8430,-1.5821
558.5938,9.1792,1.5328,4.0559,-9.5193,-6.5131,-4.8680,-0.4211,-14.9611,-1.6502,-16.2963,-3.4504,-1.0060,-2.1183,-10.2871,1.4623,-3.7892,-7.2720,-8.8541,-0.6703
562.5000,7.7353,0.1768,7.1964,-7.1440,-4.8556,-1.9062,4.4166,-10.6315,-1.5756,-14.0785,-0.5568,-2.2000,-1.7172,-8.2779,-1.4983,8.4295,-6.1755,-7.9703,2.2490
566.4062,4.0466,1.1980,9.5110,-5.4383,-3.8365,4.0573,9.3905,-6.3226,-2.9737,-10.4493,2.2637,0.0847,-2.2392,-5.9805,-5.1575,7.0215,-5.3608,-7.1879,4.9016
570.3125,0.0183,4.5546,8.9630,-5.1032,-4.1836,10.0998,11.5039,-3.4933,-7.1573,-7.5583,2.3346,5.3580,-3.7868,-4.3023,-7.5600,-4.5348,-5.2919,-7.6175,5.1049
574.2188,-2.9957,8.3089,5.4382,-5.8647,-5.9856,13.1402,9.8747,-2.3880,-13.9936,-6.7366,-1.1590,10.1249,-6.1712,-3.7463,-7.5902,-16.0099,-6.3122,-9.4787,2.3490
578.1250,-5.4279,9.8651,0.7516,-6.5244,-8.6935,11.7943,6.0781,-2.0007,-21.8286,-7.7153,-6.6399,10.1769,-9.0758,-4.1163,-5.7660,-18.1018,-8.5239,-11.8316,-1.8721
582.0312,-9.0064,7.6163,-2.7896,-5.8615,-11.4074,7.1681,2.6911,-1.0528,-28.3922,-9.1785,-11.4392,3.8558,-12.0892,-4.6932,-3.8958,-9.0079,-11.5980,-13.3140,-5.2111
585.9375,-14.9945,1.9756,-4.1101,-3.6865,-13.3259,2.0318,1.2603,0.8308,-32.1173,-10.0824,-13.8647,-6.2841,-14.7121,-4.7507,-3.8489,4.9334,-14.7726,-13.2603,-6.1865
589.8438,-22.7072,-4.7537,-4.0210,-1.1187,-14.1307,-1.0548,1.2894,2.7616,-32.9991,-10.5572,-14.3757,-14.8804,-16.4878,-4.0150,-6.2849,14.6066,-17.1941,-12.2216,-5.1452
593.7500,-29.6264,-9.5328,-4.3372,0.2446,-14.0831,-1.3525,0.9476,3.3828,-32.4190,-11.6211,-14.9499,-17.3325,-17.2338,-2.7377,-10.1950,14.9925,-18.4214,-11.4072,-3.7828
597.6562,-33.1013,-10.1385,-6.2400,-0.3418,-13.7703,-0.1818,-1.2132,2.1627,-32.0678,-14.0013,-17.2109,-12.9021,-17.1679,-1.3772,-13.5322,8.2217,-18.6872,-11.5121,-3.6957
601.5625,-32.3143,-6.3577,-9.2665,-2.0447,-13.6714,0.2915,-5.0218,0.0623,-32.7312,-17.1552,-20.9059,-5.0232,-16.7508,-0.2009,-14.4850,0.8482,-18.6417,-11.9696,-5.1771
605.4688,-28.9607,-0.2510,-11.7629,-3.0082,-13.8478,-1.2571,-8.9461,-1.0650,-33.7963,-19.4321,-24.0351,1.3464,-16.3117,0.8440,-12.5655,-1.9533,-18.7401,-11.3467,-7.2111
609.3750,-26.0869,4.7126,-12.4175,-1.8275,-13.9854,-4.4321,-11.5685,0.0768,-33.8299,-19.3280,-24.5753,3.2327,-15.7761,1.9058,-8.8538,-0.3676,-18.8028,-8.6320,-8.5896
613.2812,-25.9425,5.3533,-11.5865,1.2260,-13.7468,-7.6396,-12.9706,3.0979,-31.8079,-16.8067,-22.3934,1.3287,-14.7853,2.8985,-5.3202,0.9257,-18.1964,-4.3531,-9.1491
617.1875,-28.4159,0.5431,-11.2744,4.2741,-13.1415,-9.4811,-14.8013,6.0911,-28.0976,-13.5259,-19.7282,-1.2759,-13.1741,3.4178,-3.7059,-2.6743,-16.5681,-0.5168,-10.0437
621.0938,-31.1527,-7.9344,-13.7121,5.2323,-12.5880,-9.8387,-18.9153,7.0434,-24.4461,-11.6754,-19.7174,-2.0637,-11.4065,3.0330,-4.6516,-11.4831,-14.5183,0.7136,-12.7957
625.0000,-31.2161,-16.0827,-19.6090,3.4841,-12.5813,-9.7834,-25.6781,5.4105,-22.9181,-12.2960,-24.0144,-1.2210,-10.5135,1.7301,-7.5257,-21.1606,-13.5254,-1.3607,-17.9000
628.9062,-27.1004,-19.7757,-27.4379,0.4807,-13.2169,-10.4518,-33.3435,2.5907,-24.4794,-14.4340,-31.3288,-1.2284,-11.4416,0.0969,-10.9378,-26.2465,-14.9854,-5.3371,-24.1513
632.8125,-19.7564,-17.1359,-34.3174,-1.2781,-13.9834,-11.9030,-39.0640,0.8752,-28.2052,-15.8670,-38.0814,-4.4017,-14.2431,-0.9786,-13.5416,-24.4368,-19.0025,-8.6184,-29.2922
636.7188,-12.0500,-9.7526,-37.8404,-0.1535,-14.0593,-12.9766,-40.8005,1.6574,-31.7014,-14.8738,-40.7786,-10.5868,-17.7750,-0.9263,-14.6409,-18.0531,-23.9171,-9.2263,-31.5210
640.6250,-7.1086,-1.8590,-37.5017,3.3049,-12.9528,-12.3151,-38.6812,4.2914,-32.5127,-11.6465,-38.3930,-17.0207,-20.2617,0.0411,-14.3215,-11.7435,-27.1135,-7.1549,-30.7021
644.5312,-6.6220,2.1459,-34.7334,6.6774,-10.9979,-9.7068,-34.8065,6.5071,-29.6140,-8.1816,-33.0072,-20.4908,-20.4128,1.0143,-13.1559,-8.6709,-26.6797,-4.2354,-28.3563
648.4375,-10.0432,0.3059,-31.6409,7.4441,-9.2685,-6.5900,-31.6982,6.0885,-24.0012,-6.6823,-28.2661,-19.9509,-18.2889,1.0153,-11.7579,-8.5311,-22.7462,-2.6306,-26.4606
652.3438,-15.0006,-5.8379,-29.4756,4.8809,-8.8728,-5.2074,-30.5986,2.5478,-17.9858,-7.7168,-26.7864,-17.3604,-15.2215,-0.2764,-10.4842,-8.9110,-17.4475,-3.1358,-25.9986
656.2500,-18.5553,-12.4258,-27.9748,0.6422,-10.0868,-7.0029,-30.8534,-2.4586,-13.6625,-9.6172,-28.4080,-16.0149,-12.7814,-2.2460,-9.4180,-8.4537,-13.4304,-4.5957,-26.3523
660.1562,-18.5901,-15.8606,-25.9353,-2.4101,-11.9751,-11.4967,-30.7024,-6.2564,-11.5759,-9.6627,-30.4896,-17.7630,-11.5541,-3.7392,-8.5519,-8.7416,-11.9586,-4.8626,-25.9387
664.0625,-14.6709,-15.0167,-22.4239,-2.2428,-12.8542,-16.5388,-28.7299,-6.9491,-10.4813,-6.1871,-29.9337,-21.4551,-10.6912,-3.8507,-7.9660,-13.0329,-12.0448,-2.5241,-23.5294
667.9688,-8.0621,-11.6282,-17.6211,0.9674,-11.3683,-19.7734,-24.8292,-4.5596,-8.3580,0.0058,-25.4082,-23.9498,-8.6555,-2.5300,-7.8355,-22.8659,-11.3252,1.9426,-19.2249
671.8750,-0.9908,-8.7358,-12.7026,5.0871,-7.4721,-20.2085,-20.0624,-0.7648,-3.9796,6.0323,-18.2023,-22.8585,-4.6413,-0.5743,-8.2613,-35.5510,-8.0651,6.4478,-14.3991
675.7812,4.4205,-8.4343,-8.9815,7.6333,-2.6251,-18.7239,-15.7252,2.4388,2.0406,8.8682,-11.2430,-18.7371,0.4369,0.9506,-9.0772,-44.9633,-2.7675,8.7361,-10.7599
679.6875,7.0118,-10.5523,-7.0704,7.4612,0.9917,-17.2020,-12.4860,4.0463,7.4669,7.4001,-7.1297,-14.8583,4.2463,1.3997,-9.8292,-45.3551,1.9147,7.8686,-9.3012
683.5938,6.8406,-13.0840,-6.6883,5.2903,1.7615,-17.0321,-10.2381,4.3846,9.8069,3.0789,-6.6275,-14.6847,4.5435,0.8414,-9.9992,-35.3937,3.0103,4.6505,-9.8842
687.5000,4.7983,-13.8654,-7.1211,2.7975,-0.4026,-18.1741,-8.5950,4.3838,7.9253,-1.2570,-8.5589,-19.0590,0.8526,-0.2068,-9.3496,-19.3727,-0.4963,0.7901,-11.6007
691.4062,1.9331,-12.1529,-7.8194,1.1166,-4.0348,-19.4419,-7.4146,4.5202,2.8214,-3.4493,-10.9312,-25.3917,-4.9346,-1.3136,-8.1369,-4.7026,-6.6561,-2.4532,-13.4611
695.3125,-1.0276,-8.9981,-8.6081,-0.0317,-7.0318,-19.6514,-6.8320,4.3374,-2.9625,-3.4211,-12.3181,-29.5241,-9.5657,-2.4718,-7.0002,2.4460,-11.6388,-5.0618,-14.8233
699.2188,-3.6743,-6.3277,-9.4350,-1.9520,-7.8992,-18.6133,-6.8472,2.8828,-6.9214,-2.9450,-12.5311,-28.8150,-10.4254,-3.9855,-6.5548,0.2924,-12.2092,-7.9621,-15.3550
703.1250,-5.5783,-5.5822,-10.0502,-5.7440,-6.5408,-17.1573,-6.9944,-0.3883,-8.1105,-4.0930,-12.3134,-24.0381,-7.1748,-6.0597,-6.9593,-8.4749,-7.8610,-12.0088,-14.8085
707.0312,-6.0776,-6.9384,-10.0399,-11.2752,-4.1412,-16.2522,-6.5456,-5.0356,-7.6075,-7.6400,-12.5379,-18.6640,-1.9105,-8.4935,-7.7798,-19.1532,-1.1065,-17.1428,-13.0123
710.9375,-4.5430,-9.5234,-9.2402,-17.1642,-2.3029,-16.0590,-5.1497,-9.8439,-7.6279,-12.6175,-13.6041,-16.1772,2.2467,-10.7606,-8.2877,-27.8526,4.2511,-22.3754,-10.1700
714.8438,-1.0197,-12.2197,-8.1102,-21.7208,-2.0490,-15.7840,-3.3061,-13.6001,-9.9146,-17.2217,-15.3689,-17.5745,3.1423,-12.3985,-8.0078,-32.8078,5.6021,-26.5161,-7.1241
718.7500,3.3028,-14.3230,-7.6014,-24.0467,-3.3232,-14.4695,-2.1286,-15.7845,-14.4970,-20.2241,-17.4240,-20.9340,0.8025,-13.3494,-7.1223,-33.9166,3.0260,-28.9730,-5.1533
722.6562,6.3508,-15.6330,-8.4883,-24.4538,-5.2277,-12.0137,-2.4638,-16.6681,-19.6502,-21.7298,-19.3252,-23.2183,-2.8830,-13.9414,-6.4136,-31.6628,-1.1587,-29.9844,-5.2503
726.5625,6.2006,-16.1447,-10.6592,-23.9834,-6.7499,-9.4775,-4.0647,-16.8585,-23.0566,-22.7688,-20.6041,-22.7211,-5.6766,-14.5382,-6.7573,-26.6514,-4.3188,-30.1907,-7.3584
730.4688,2.2694,-15.8080,-13.0024,-23.5357,-7.4518,-8.3274,-5.5855,-16.7778,-23.3681,-24.1936,-20.7403,-20.1853,-6.5733,-15.1910,-8.5245,-19.9314,-5.4232,-30.0222,-10.2229
734.3750,-4.2085,-14.6276,-14.0961,-23.3450,-7.6949,-9.1889,-5.5391,-16.5271,-21.1151,-25.8722,-19.3530,-17.8331,-6.3606,-15.6313,-11.3329,-13.2879,-5.5978,-29.4613,-12.1152
738.2812,-10.8619,-12.9257,-13.2382,-23.1272,-8.3221,-11.1559,-3.5313,-16.1566,-18.3751,-26.8258,-16.5990,-17.2858,-6.8646,-15.6200,-14.3355,-8.7351,-7.0507,-28.3172,-11.9928
742.1875,-15.6225,-11.3775,-11.0161,-22.6036,-10.0666,-12.3034,-0.7719,-15.9539,-17.4530,-26.1137,-13.4208,-18.1810,-9.5218,-15.3139,-16.8179,-7.3792,-11.2877,-26.6454,-10.2427
746.0938,-17.9379,-10.6372,-8.9249,-21.8286,-13.0825,-11.0936,0.6280,-16.3690,-19.4645,-23.6567,-11.2668,-18.5985,-14.3231,-15.2593,-18.6322,-8.6299,-17.9622,-24.8306,-8.4094
750.0000,-18.9046,-10.8082,-8.2895,-21.0316,-16.8609,-7.6131,-0.8942,-17.5919,-23.7324,-20.3117,-11.2977,-16.8396,-19.8218,-15.9461,-20.1244,-10.5616,-25.1162,-23.2260,-8.0686
753.9062,-20.2703,-11.2306,-9.3183,-20.2179,-20.5254,-3.6633,-5.2453,-19.2072,-28.3298,-17.2042,-13.5883,-12.9948,-24.1014,-17.2843,-21.6291,-11.2082,-30.5037,-21.7336,-9.6871
757.8125,-23.0867,-10.8459,-11.0374,-19.0328,-23.2825,-1.5857,-10.7587,-20.3443,-31.3428,-14.9583,-16.9606,-8.9714,-25.9613,-18.5016,-22.9816,-9.7303,-32.9608,-19.8236,-12.3337
761.7188,-27.0134,-8.9265,-12.1530,-17.1192,-24.7560,-2.6685,-15.3865,-20.3075,-32.0050,-13.4879,-19.6766,-6.9708,-25.5178,-18.6469,-23.5080,-6.5560,-32.8861,-17.0934,-14.4491
765.6250,-30.7155,-5.6483,-12.1376,-14.6565,-25.0485,-6.2946,-18.0501,-19.1731,-31.0086,-12.4400,-20.5495,-7.6836,-23.9084,-17.3440,-22.5779,-2.6203,-31.6476,-13.8942,-15.0444
769.5312,-32.9325,-2.0957,-11.6512,-12.4951,-24.5545,-10.4178,-19.1163,-17.7788,-29.8840,-11.7644,-19.6725,-9.6685,-22.4233,-15.1611,-20.3115,1.3230,-30.5024,-11.3680,-14.3779
773.4375,-33.3295,0.2824,-11.9520,-11.5964,-23.6809,-12.9655,-19.7197,-17.0048,-29.9339,-11.7909,-18.2248,-10.3965,-21.7166,-13.2132,-17.8361,4.5499,-29.8511,-10.6776,-13.6029
777.3438,-32.5219,0.3829,-13.7947,-12.1494,-22.6526,-13.1236,-20.6187,-16.8985,-31.4284,-12.7107,-17.5282,-8.1204,-21.5874,-12.2476,-16.7770,5.7004,-29.2547,-11.9544,-13.7361
781.2500,-31.4100,-2.0908,-16.7456,-13.1422,-21.4974,-11.6332,-21.6182,-16.4270,-33.5244,-14.0009,-18.1101,-3.1420,-21.3667,-11.9545,-18.2438,2.7646,-28.0265,-13.8719,-14.8431
785.1562,-30.5028,-6.5648,-19.5072,-12.9074,-20.1794,-10.0244,-22.0411,-14.2013,-34.8754,-14.4701,-19.5010,2.4028,-20.5354,-11.1425,-22.0090,-5.5343,-25.8523,-14.3768,-16.1277
789.0625,-29.8118,-11.8099,-20.9956,-10.3641,-18.7626,-9.4763,-21.7513,-9.6961,-34.4920,-13.0787,-20.8702,5.9543,-19.1190,-8.7424,-26.5043,-17.7118,-23.0112,-12.1840,-16.8167
792.9688,-29.2779,-16.2701,-21.2695,-6.0053,-17.4743,-10.1573,-21.6940,-3.9799,-32.3280,-9.9223,-21.9097,6.0220,-17.6342,-4.8777,-29.7083,-28.7829,-20.1615,-7.9169,-17.0291
796.8750,-29.1679,-18.4745,-21.5073,-1.7501,-16.6142,-11.4048,-23.3181,0.7561,-29.2912,-6.4802,-23.1850,2.7625,-16.7019,-1.0822,-30.3599,-32.2695,-17.9641,-3.9061,-17.8128
800.7812,-29.9247,-17.5588,-23.0148,0.3684,-16.3634,-12.4212,-27.2620,2.6572,-26.7353,-4.7426,-25.6454,-2.5278,-16.6361,0.6443,-28.6780,-24.2942,-16.8214,-2.6294,-20.2493
804.6875,-31.5423,-13.7723,-26.0716,-0.2681,-16.6231,-12.8511,-32.4464,1.5953,-25.7468,-5.7667,-29.7172,-8.3658,-17.2757,-0.6824,-26.1081,-6.9899,-16.8028,-4.8819,-24.3584
808.5938,-33.1014,-8.6241,-29.5954,-2.3444,-17.0078,-12.8475,-36.5078,-0.6336,-26.6031,-8.7917,-34.7592,-13.6960,-18.1239,-4.1467,-24.2970,11.6796,-17.6538,-9.0785,-28.7793
812.5000,-33.0857,-4.3558,-31.9490,-3.6106,-17.0218,-12.7523,-37.4356,-1.5715,-28.6490,-11.7001,-39.3526,-17.8860,-18.6580,-7.4116,-24.0264,22.2449,-18.8098,-12.3131,-31.6029
816.4062,-30.4478,-2.8402,-32.2658,-2.6939,-16.3299,-12.8192,-35.1953,0.0540,-30.6301,-12.5698,-42.1881,-20.4462,-18.5998,-8.2974,-24.8312,19.5529,-19.4756,-12.4562,-31.7686
820.3125,-25.6579,-4.5340,-31.2009,-0.2971,-14.9622,-13.2528,-31.9815,3.3013,-31.3134,-11.1421,-42.8273,-20.9867,-18.0065,-6.3182,-25.5061,5.9653,-18.8880,-9.7254,-29.9154
824.2188,-20.8102,-8.2665,-30.4502,1.2435,-13.3209,-14.4331,-30.7319,5.6536,-30.1008,-9.0168,-41.7600,-19.5565,-17.1671,-3.0056,-25.0644,-10.4988,-16.7391,-6.5088,-27.9518
828.1250,-18.5011,-12.1430,-31.3744,-0.2008,-11.9724,-16.9437,-32.9267,4.9142,-27.3269,-8.3626,-39.8083,-17.0059,-16.3959,-0.7453,-23.4218,-21.7762,-13.5087,-5.5346,-27.6185
832.0312,-20.1470,-14.9819,-33.8228,-4.7053,-11.3367,-21.1960,-37.3545,0.9530,-24.0661,-10.1244,-37.4769,-14.8768,-15.8414,-0.9896,-21.3381,-24.9560,-10.3847,-7.7653,-29.1455
835.9375,-24.9131,-17.1719,-36.1250,-9.9264,-11.4432,-26.8760,-40.8693,-4.0448,-21.5154,-13.1621,-34.8267,-14.6969,-15.3981,-3.1995,-19.7244,-23.2375,-8.6708,-11.6268,-31.0635
839.8438,-30.0437,-20.1746,-36.2997,-12.6072,-11.8885,-32.7249,-40.6460,-7.0629,-20.2722,-15.0484,-31.8911,-17.0934,-14.7465,-5.3085,-18.8905,-22.2221,-8.9738,-14.1678,-31.3281
843.7500,-32.3969,-24.9526,-33.5429,-10.8875,-12.0206,-36.9933,-36.2557,-6.3916,-19.9359,-13.9349,-29.0995,-21.3608,-13.4973,-5.3221,-18.3111,-24.8277,-10.7110,-13.2555,-28.8786
847.6562,-30.1574,-30.5750,-28.8239,-5.6849,-11.2585,-38.3800,-29.9744,-2.8287,-19.3203,-10.0231,-27.1492,-25.8238,-11.3815,-2.7998,-17.0704,-29.0958,-12.3415,-9.1283,-24.4107
851.5625,-23.6527,-34.2832,-24.1276,-0.0927,-9.3998,-36.8226,-25.0875,0.9382,-17.2070,-5.4657,-26.3367,-28.7591,-8.4153,0.9020,-14.6190,-30.5813,-12.2576,-4.1451,-19.7892
855.4688,-14.9107,-33.2391,-20.9724,2.7566,-6.7729,-33.5412,-23.4957,2.2719,-13.2039,-2.7693,-25.9820,-29.2635,-4.9731,3.7448,-11.2608,-27.0184,-9.7908,-0.9901,-16.6252
859.3750,-6.4654,-26.7882,-19.4073,1.7511,-4.1588,-30.2642,-24.4604,0.3701,-8.1477,-2.9595,-24.6483,-27.5478,-1.7262,4.5262,-7.9977,-20.9623,-5.6707,-0.7689,-15.1917
863.2812,-0.2721,-17.4765,-18.2746,-1.7331,-2.4943,-28.1814,-25.4121,-3.4182,-3.7301,-4.9505,-21.2073,-24.5858,0.5558,3.5811,-5.8515,-17.8611,-1.6188,-2.4568,-14.5233
867.1875,2.7355,-9.8331,-16.4590,-5.2070,-2.4629,-27.3640,-24.1151,-6.8880,-1.5231,-6.5763,-15.9672,-21.4703,1.2840,2.1682,-5.1591,-21.0904,0.6626,-4.0331,-13.5265
871.0938,2.5342,-7.5783,-14.0145,-7.1136,-4.1483,-27.0203,-20.4360,-8.7926,-2.0016,-6.4046,-10.8301,-18.9230,0.3060,1.1524,-5.3529,-28.3560,0.4509,-4.2925,-12.0721
875.0000,-0.2327,-11.1764,-12.1724,-7.9155,-6.9323,-26.2963,-16.3223,-9.7361,-4.2134,-4.8479,-8.1180,-17.1734,-1.9854,0.1550,-5.3838,-32.9493,-1.6867,-3.8382,-11.0828
878.9062,-4.3822,-17.5097,-12.1933,-9.4357,-9.7346,-24.9398,-14.0707,-11.4926,-6.3545,-3.7024,-8.8214,-16.1245,-4.7715,-2.0842,-4.4869,-29.2192,-4.3726,-4.4945,-11.5327
882.8125,-8.3376,-21.9569,-14.0491,-13.0961,-11.5200,-23.3192,-14.3428,-15.3673,-6.9077,-4.5560,-11.6549,-15.5880,-7.1356,-6.4456,-2.7560,-17.7686,-6.3152,-7.6909,-13.2621
886.7188,-10.5589,-21.4167,-16.1176,-18.5455,-11.8259,-21.8692,-15.5651,-20.9460,-5.6072,-7.4243,-13.8125,-15.4419,-8.4600,-12.3643,-1.1254,-5.7111,-7.0204,-13.1793,-14.7330
890.6250,-10.2265,-16.1612,-16.2613,-23.7885,-11.0017,-20.5236,-15.2009,-26.2240,-3.5800,-10.7523,-13.0078,-15.6777,-8.6831,-17.9150,-0.7678,-1.2613,-6.9037,-19.1154,-14.0769
894.5312,-7.7296,-9.3108,-13.4823,-26.6573,-9.9837,-18.6866,-11.8403,-28.9835,-2.5555,-12.7490,-9.2724,-16.3484,-8.2590,-21.0514,-2.3074,-6.8353,-6.8234,-23.3742,-10.6505
898.4375,-4.4708,-4.4767,-8.7959,-26.3913,-9.7100,-15.7905,-6.3906,-28.3208,-3.6655,-12.9044,-5.0441,-17.4121,-7.8269,-21.0395,-5.3715,-16.5168,-7.4158,-24.9808,-5.7944
902.3438,-1.9801,-3.3687,-4.5390,-24.0605,-10.5330,-11.9488,-1.3914,-25.1694,-6.6454,-12.3965,-3.3531,-18.5134,-7.7965,-18.9531,-8.7768,-20.4962,-8.6909,-24.5180,-2.0558
906.2500,-0.9672,-5.0141,-2.5914,-21.5764,-12.0269,-8.0918,0.9836,-21.5079,-9.9890,-13.0427,-5.4440,-18.8699,-8.1364,-16.8500,-11.2286,-13.3283,-10.1226,-23.3051,-1.3791
910.1562,-1.1049,-6.9027,-2.9191,-20.1933,-13.3421,-5.3945,0.6067,-18.9643,-11.9675,-15.6863,-9.7109,-17.4960,-8.5354,-16.2980,-12.0779,0.6956,-11.1310,-22.1811,-3.6598
914.0625,-1.7814,-6.9638,-3.6466,-19.7503,-13.8738,-4.4194,-0.6080,-17.9099,-11.8326,-19.3856,-12.8603,-13.8246,-8.8375,-17.3990,-11.6455,9.9260,-11.6112,-20.9939,-6.8329
917.9688,-3.1791,-4.8645,-2.6626,-19.1896,-13.7605,-4.6725,-0.3782,-17.6200,-10.3913,-22.1026,-12.4683,-8.4144,-9.4056,-18.9974,-10.9184,4.2761,-12.1504,-19.1786,-8.4714
921.8750,-6.6101,-1.8684,0.4991,-17.7674,-13.8173,-4.9645,1.9819,-17.1709,-9.5539,-22.3364,-8.9486,-3.1527,-11.0627,-19.7759,-10.8429,-16.0575,-13.7598,-16.7807,-7.6517
925.7812,-13.5489,0.3157,4.0397,-15.8205,-14.9086,-4.3187,4.9166,-16.2134,-11.1438,-20.3544,-5.3575,-0.5314,-14.5405,-19.2671,-11.7093,-39.2091,-17.2384,-14.8598,-5.6045
929.6875,-23.9320,0.6395,5.1086,-14.4266,-17.2071,-2.7073,5.8396,-15.0220,-15.7444,-18.0142,-5.1428,-2.2087,-19.7657,-17.9920,-13.0513,-49.3287,-22.5258,-14.7899,-4.6441
933.5938,-35.1279,-0.9619,1.9655,-14.3362,-19.9142,-1.0190,3.2263,-13.9576,-22.3316,-17.3292,-9.5711,-7.7502,-25.5376,-16.7620,-14.1109,-37.9619,-28.4594,-17.0240,-6.2530
937.5000,-42.7207,-3.9407,-4.5803,-15.2210,-21.7237,-0.2769,-2.0897,-13.0064,-28.9107,-18.9498,-16.8221,-14.5609,-29.9656,-15.8975,-14.5058,-10.5539,-33.1801,-20.4691,-9.8898
941.4062,-42.9624,-7.5817,-11.5964,-15.9784,-21.7532,-0.7398,-7.4482,-11.9009,-33.7157,-21.7654,-23.4088,-19.3086,-31.5236,-15.1073,-14.5759,17.0449,-35.0674,-23.1527,-13.4838
945.3125,-35.3550,-11.0833,-16.0197,-15.8303,-20.2825,-1.6249,-10.2867,-10.6750,-36.1719,-23.8822,-26.7399,-20.0230,-30.0694,-14.0755,-15.1159,29.6363,-33.7128,-23.7265,-15.1892
949.2188,-23.4767,-13.4235,-16.7102,-15.1662,-18.7131,-1.6992,-9.9415,-9.9934,-37.0101,-24.1083,-26.7784,-17.3842,-27.0846,-13.0865,-16.6713,23.0399,-30.3107,-22.5353,-14.9279
953.1250,-13.2371,-13.4952,-15.0373,-15.2562,-18.6989,-0.2837,-7.9609,-10.7520,-37.5076,-22.7256,-25.5663,-14.1443,-24.8472,-12.9597,-18.9354,6.0437,-27.1072,-21.2562,-14.4261
957.0312,-9.5326,-10.7069,-13.6383,-16.9763,-21.0063,2.1293,-6.7940,-13.1629,-38.4241,-20.9931,-25.1729,-12.9671,-24.9883,-14.2417,-20.7631,-7.2737,-26.1164,-21.3111,-15.7097
960.9375,-13.4563,-5.6424,-14.4022,-19.6627,-24.9052,4.1502,-7.9885,-16.1473,-39.3911,-19.9239,-25.9047,-14.2560,-27.3829,-16.3911,-20.8813,-8.6493,-27.8518,-22.3818,-19.3203
964.8438,-21.8845,-0.0899,-17.2569,-21.2347,-28.5476,4.4683,-11.3202,-17.7591,-39.1862,-19.4403,-26.3056,-15.7021,-30.1815,-17.8353,-18.8384,-1.4747,-30.9296,-22.3909,-23.7648
968.7500,-29.6416,3.8292,-20.6050,-19.6917,-30.1088,2.7926,-15.4062,-16.5214,-36.6969,-18.6090,-24.8771,-14.0664,-31.0360,-17.0695,-15.5017,2.9940,-32.9091,-19.1446,-26.6934
972.6562,-32.7163,4.9106,-22.8812,-14.8452,-28.9195,0.0484,-19.0907,-12.6872,-31.8942,-16.6592,-21.9087,-7.9532,-28.7249,-13.9881,-12.6798,-4.2817,-31.9123,-12.3789,-26.8477
976.5625,-30.4018,3.5344,-23.8509,-8.7896,-25.8204,-2.3014,-22.3218,-8.3138,-26.1091,-13.8071,-19.6862,0.5844,-24.0498,-10.2691,-12.0554,-22.0151,-27.9585,-4.4642,-25.1523
980.4688,-25.1350,1.1839,-24.5897,-4.5431,-22.5242,-3.2848,-25.7914,-5.8991,-21.3792,-11.1195,-20.7417,7.0231,-19.3451,-8.2987,-14.1251,-39.0351,-23.0520,1.0001,-24.0043
984.3750,-20.4579,-0.8113,-26.2686,-3.8077,-20.4695,-3.0328,-29.7787,-6.5186,-19.2602,-9.5548,-25.5740,7.4074,-16.9120,-9.3372,-17.8668,-42.9341,-19.8767,1.7591,-25.3096
988.2812,-18.6994,-2.2468,-28.8969,-5.6269,-19.9815,-2.5654,-33.3724,-8.9320,-19.8824,-9.0875,-31.8409,1.2518,-17.4651,-12.3798,-21.3636,-30.0031,-19.9507,-1.3562,-28.8727
992.1875,-19.9008,-3.9029,-31.1696,-7.1151,-20.2953,-2.9755,-34.9114,-10.4745,-21.8792,-8.7565,-35.8868,-7.9344,-19.6942,-14.7469,-22.9534,-8.5119,-22.5425,-4.9768,-32.4873
996.0938,-22.4013,-6.4459,-31.5654,-5.7871,-20.3383,-4.6581,-33.3647,-9.1487,-23.2450,-7.6280,-35.4994,-15.0253,-21.2532,-14.0926,-22.1328,7.3178,-25.1692,-5.7210,-33.6860
1000.0000,-24.3049,-9.4241,-29.7222,-1.6644,-19.6242,-7.1353,-29.4563,-5.3063,-22.5643,-5.7967,-31.6652,-16.8705,-20.4604,-10.3201,-19.6558,7.9342,-25.3724,-2.7679,-31.7330
1003.9062,-24.6277,-11.3771,-26.8482,2.5815,-18.5713,-9.5222,-25.4529,-1.5290,-19.8116,-4.4561,-27.8062,-14.4238,-17.4770,-5.8458,-16.8634,-4.6172,-22.5058,1.5553,-28.2236
1007.8125,-23.4427,-11.0947,-24.7543,3.6690,-18.0329,-11.1989,-23.6163,-0.6929,-16.2192,-4.8690,-27.0119,-11.7953,-14.1130,-3.8879,-14.7953,-18.7836,-18.2106,3.6790,-25.7862
1011.7188,-21.2360,-8.9503,-24.2982,0.3735,-18.4449,-12.1543,-24.4822,-3.6654,-13.3392,-7.0875,-29.4751,-12.9538,-12.4163,-6.0234,-13.7018,-22.8333,-15.1849,1.7044,-25.9389
1015.6250,-18.2200,-7.0225,-24.5872,-5.3058,-19.2812,-12.7960,-26.3680,-8.4508,-11.9612,-9.5823,-32.2549,-18.6184,-13.0906,-10.8973,-13.1874,-14.0461,-15.1227,-2.9935,-27.8516
1019.5312,-14.1900,-7.6691,-23.6775,-9.4721,-19.2608,-13.4714,-26.5798,-11.5242,-11.6185,-10.2328,-31.6429,-25.7311,-14.9127,-15.1237,-12.7209,-0.6425,-17.3501,-6.7737,-29.0265
1023.4375,-8.9396,-11.5877,-20.2480,-9.1783,-17.1814,-14.1493,-23.4385,-10.3889,-10.9930,-7.9647,-26.2650,-29.8862,-15.5806,-15.7285,-12.0371,4.8872,-19.2122,-6.5684,-27.3361
1027.3438,-2.7920,-16.9791,-14.8673,-4.5962,-12.7839,-14.5286,-17.5674,-5.4131,-8.9069,-3.7005,-18.3899,-28.7826,-13.3820,-12.2757,-11.1593,-4.2911,-17.9782,-2.3039,-22.7543
1031.2500,3.2117,-20.6589,-9.7650,1.1700,-7.0381,-14.4542,-11.4558,0.4607,-5.1997,0.2165,-12.3150,-23.9781,-8.4781,-7.0728,-10.1622,-23.8968,-12.8918,3.0174,-17.3799
1035.1562,7.6002,-20.3822,-7.2359,4.4503,-1.6569,-14.2516,-7.6719,3.8858,-0.8975,1.7242,-11.0636,-19.5888,-2.8901,-3.3573,-9.0066,-41.6258,-5.8555,5.6243,-13.7683
1039.0625,9.0442,-16.5860,-7.9428,3.6711,1.8265,-14.6569,-7.1351,3.4652,2.4115,0.5189,-14.0282,-19.0087,0.7911,-2.9285,-7.6398,-46.2179,-0.2229,3.8173,-12.9636
1042.9688,6.9181,-12.1234,-10.4770,0.2458,2.8213,-16.3446,-8.7425,0.4910,3.5422,-1.8898,-17.4740,-22.2823,1.0545,-5.0576,-6.2283,-35.4837,1.4428,-0.9100,-13.8332
1046.8750,1.6469,-10.1454,-12.5106,-2.9099,1.8439,-19.3707,-10.4982,-2.4057,2.3629,-3.5802,-17.5307,-26.2194,-1.6494,-7.4287,-5.2130,-17.3665,-0.9606,-5.3064,-14.1923
1050.7812,-5.2709,-11.7842,-12.5708,-3.9255,0.0738,-22.9298,-11.0934,-3.5097,-0.2602,-3.9026,-13.2902,-27.1211,-5.3349,-8.2227,-5.0308,-3.6467,-5.1402,-7.1212,-12.7049
1054.6875,-11.6398,-15.4656,-10.9847,-3.4735,-1.3463,-25.6212,-10.6135,-3.3294,-3.1084,-4.0266,-7.5304,-23.8818,-7.8317,-7.5962,-5.7051,-1.4316,-8.0938,-6.9097,-9.9359
1058.5938,-15.3483,-18.3519,-9.2765,-4.0322,-1.8319,-26.0990,-9.9073,-3.9485,-5.3460,-5.8870,-4.4844,-18.9317,-8.0833,-7.3922,-6.7040,-8.8817,-8.1403,-7.4329,-7.6941
1062.5000,-15.3353,-18.6814,-8.6201,-7.6017,-1.4692,-23.7648,-9.3581,-7.0459,-6.8482,-10.4077,-6.4423,-16.2306,-6.5579,-9.4156,-7.2884,-17.9540,-5.8396,-11.1885,-7.2891
1066.4062,-12.2470,-17.0617,-8.7434,-13.8202,-0.7790,-19.1465,-8.3005,-12.2834,-7.9746,-16.5063,-11.8936,-17.9242,-4.6314,-13.7708,-7.1274,-21.4144,-3.2474,-18.1279,-8.2649
1070.3125,-8.2493,-15.6905,-8.2585,-20.0554,-0.3563,-13.7696,-5.6958,-17.4112,-9.0630,-21.7390,-16.6728,-22.3894,-3.5214,-18.6474,-6.6544,-18.3384,-2.2024,-25.4422,-8.7538
1074.2188,-5.8710,-16.2404,-6.1279,-23.3870,-0.5920,-9.5550,-1.4691,-19.9872,-10.0847,-24.0788,-17.1671,-25.3219,-3.5689,-21.6929,-6.7826,-13.9573,-3.0075,-29.5953,-7.1821
1078.1250,-6.4503,-18.2690,-2.9466,-22.8380,-1.5583,-7.9753,2.7944,-19.2740,-10.7269,-23.3739,-13.0380,-23.0926,-4.2987,-21.8001,-8.1284,-14.4421,-4.4622,-28.9638,-3.8528
1082.0312,-9.2227,-19.5497,-0.8225,-20.0391,-3.0407,-9.3267,4.6351,-16.7563,-10.7943,-21.3084,-7.3513,-15.7511,-5.0598,-19.8444,-10.3644,-21.1720,-5.0986,-24.9864,-0.9716
1085.9375,-11.8357,-18.0581,-1.8169,-17.8322,-4.6715,-12.4806,2.5493,-14.8913,-10.5659,-19.9386,-4.1096,-7.2578,-5.6563,-17.8286,-12.3013,-29.1880,-4.5526,-20.9613,-0.9723
1089.8438,-12.1283,-13.9021,-6.1711,-18.0068,-6.1297,-15.3250,-2.5860,-15.1600,-10.7808,-20.0607,-5.2111,-2.6567,-6.4791,-17.2241,-12.7297,-30.9739,-3.9523,-19.5218,-4.4573
1093.7500,-9.9937,-9.4893,-11.8177,-20.0223,-7.3445,-15.7897,-7.7791,-17.0234,-12.2282,-20.7649,-9.2099,-4.2952,-8.0978,-17.9052,-11.3893,-22.4349,-5.0326,-20.8120,-9.4730
1097.6562,-7.8853,-7.6982,-15.6873,-21.6901,-8.5962,-12.9886,-9.8803,-18.5798,-15.2303,-20.4877,-12.7172,-9.9855,-10.7034,-18.4973,-9.2432,-6.3048,-8.7040,-22.7243,-12.8096
1101.5625,-9.3539,-9.5158,-15.8663,-21.1449,-10.4089,-7.8302,-7.8332,-18.2870,-19.3954,-18.5776,-13.1663,-14.5599,-13.8651,-17.7292,-7.7517,9.6356,-14.2159,-22.8477,-12.3759
1105.4688,-16.4325,-13.1105,-12.9397,-18.4149,-13.2352,-2.6450,-3.4899,-16.2597,-23.8195,-15.9681,-10.6863,-13.7036,-16.7795,-15.5741,-7.6721,18.0723,-19.5730,-20.4439,-8.7999
1109.3750,-27.6748,-15.1653,-9.4659,-15.3195,-17.0906,0.0781,-0.2982,-14.0820,-27.5866,-14.3508,-7.6975,-7.2111,-18.7928,-13.2244,-8.3745,17.1589,-22.8855,-16.8769,-4.9832
1113.2812,-38.3874,-13.4570,-8.0041,-13.8775,-21.3902,-0.8472,-0.8058,-13.3718,-30.2156,-14.5849,-6.7581,0.7685,-19.7888,-12.0095,-8.3156,11.3225,-23.6351,-14.2896,-3.9470
1117.1875,-43.1648,-8.6335,-9.2431,-14.6359,-25.1485,-4.5580,-4.8551,-14.3819,-31.7589,-15.7841,-8.5334,4.6999,-20.1756,-12.2696,-6.3780,7.4861,-22.9334,-13.7622,-6.6400
1121.0938,-39.2080,-3.7684,-11.6637,-16.3165,-27.4667,-8.6448,-9.8141,-15.8333,-32.5334,-15.9607,-11.4936,1.6755,-20.5284,-13.1716,-3.0058,9.7239,-22.6315,-14.5071,-11.3765
1125.0000,-28.2529,-2.0344,-12.9241,-16.9905,-28.0105,-10.6373,-12.6222,-16.0666,-32.7321,-13.7508,-13.3995,-6.4346,-21.1902,-13.5615,-0.1342,16.3334,-23.9820,-14.6760,-15.2599
1128.9062,-15.7714,-4.3022,-11.8015,-15.6891,-27.1551,-9.5243,-12.0554,-14.4517,-32.2345,-9.7442,-13.1795,-14.2211,-22.1192,-13.0170,0.1713,21.3095,-26.8325,-12.9711,-16.4005
1132.8125,-7.8723,-8.4845,-9.1554,-13.0553,-25.6903,-6.2918,-9.5099,-11.8091,-30.7601,-6.2067,-11.6211,-16.4426,-23.0408,-12.1198,-2.6221,18.9073,-29.8692,-9.6559,-15.1935
1136.7188,-7.8226,-11.0518,-7.2286,-10.5563,-24.2890,-3.1238,-7.8020,-9.5101,-28.2297,-5.3092,-10.4565,-11.5651,-23.7241,-11.7283,-6.8811,7.8831,-31.6327,-6.1875,-13.7635
1140.6250,-14.3296,-9.5085,-7.9430,-9.0589,-23.1134,-1.8425,-9.0132,-8.1176,-25.0333,-7.2830,-10.8145,-2.7047,-24.1286,-11.9780,-9.8089,-7.5098,-31.5036,-3.9301,-14.1676
1144.5312,-22.5650,-4.0067,-11.5669,-8.0911,-21.8274,-2.7047,-13.0533,-6.8379,-21.9630,-10.0609,-12.4495,4.5734,-24.3190,-12.0050,-9.4247,-20.2200,-29.9645,-3.1417,-16.8554
1148.4375,-27.1948,2.9186,-16.7047,-6.4357,-19.9814,-4.4009,-17.9356,-4.3138,-19.8171,-10.7936,-14.3175,5.9836,-24.2540,-10.7181,-6.0498,-24.7182,-28.0498,-3.0598,-20.5385
1152.3438,-25.5171,8.0627,-21.4272,-3.4550,-17.4593,-5.2007,-21.3707,-0.0586,-18.9298,-8.0778,-15.7932,1.2286,-23.6758,-7.9359,-2.1466,-20.0323,-26.4938,-2.8475,-23.3913
1156.2500,-18.8695,9.3578,-24.5133,0.1274,-14.6487,-4.3380,-22.3388,4.7997,-18.9539,-3.1051,-17.2747,-6.0279,-22.2368,-4.7987,-0.5959,-9.7891,-25.2477,-2.3965,-24.4662
1160.1562,-11.6004,6.6462,-25.8625,2.7653,-12.2186,-2.5637,-21.4897,8.2252,-19.0625,1.2293,-19.5864,-10.7331,-19.8026,-2.9618,-2.6886,0.3357,-23.6828,-2.2079,-24.1800
1164.0625,-8.3329,1.2767,-25.9979,3.4898,-10.6921,-1.4578,-20.2872,8.9121,-18.4556,2.5735,-22.8008,-9.7447,-16.7052,-3.1888,-7.3250,5.8569,-21.2491,-2.5357,-23.6451
1167.9688,-11.1515,-4.7990,-25.3621,2.8731,-10.1433,-2.0674,-19.8011,7.4445,-16.8466,0.9339,-25.7246,-3.7265,-13.7245,-4.5885,-11.9674,5.4765,-18.0407,-2.7537,-23.6104
1171.8750,-18.2967,-9.7150,-24.1369,2.5907,-10.2257,-3.9718,-20.1591,5.9043,-14.6133,-1.3884,-26.7048,3.4332,-11.7554,-5.2694,-14.5438,1.0362,-14.8383,-1.7306,-23.9946
1175.7812,-25.0692,-12.0128,-22.6352,3.8705,-10.4721,-5.5415,-20.9246,6.1557,-12.5174,-1.6713,-25.1332,7.1288,-11.3348,-3.9700,-14.8124,-4.0670,-12.6195,0.9935,-24.3174
1179.6875,-26.4386,-10.9170,-21.6372,6.1865,-10.6093,-5.2145,-21.7989,8.2177,-11.1867,1.0677,-22.2450,4.7965,-12.3157,-1.2947,-14.1954,-6.8461,-11.9125,4.3242,-24.4492
1183.5938,-19.9284,-6.7631,-22.0605,7.4514,-10.6499,-2.7986,-22.8542,10.1437,-10.7082,5.3527,-20.3072,-2.7416,-13.9007,0.5924,-14.3496,-6.0858,-12.4437,6.0282,-24.8344
1187.5000,-7.1588,-1.2732,-24.0752,5.7103,-10.7335,0.2349,-24.0971,9.6089,-10.6033,8.5084,-20.7154,-12.0211,-15.0296,-0.2947,-15.7218,-2.6946,-13.2895,4.3593,-25.9221
1191.4062,6.8936,2.8818,-26.4999,0.9835,-10.8876,1.7307,-24.9279,5.9504,-10.1865,8.8318,-22.6147,-19.1436,-14.8991,-3.9614,-17.2684,0.8693,-13.3912,-0.3526,-27.3890
1195.3125,16.5979,3.3679,-27.2715,-4.3479,-10.9204,0.3805,-24.2311,0.9601,-9.0443,6.9059,-23.3834,-22.0196,-13.3149,-8.1091,-17.4907,1.7875,-12.0878,-5.5626,-28.0286
1199.2188,18.8247,-0.3593,-24.8947,-7.0888,-10.5209,-3.3480,-21.2211,-2.2952,-7.2872,5.0319,-20.7829,-21.3000,-10.6855,-9.6925,-15.8320,-1.7213,-9.3689,-8.1429,-26.5940
1203.1250,14.6572,-6.5335,-19.7886,-5.5664,-9.4598,-7.5757,-16.3427,-1.7378,-5.3979,5.3061,-15.0530,-19.5238,-7.6923,-7.2116,-13.2162,-9.3174,-5.7695,-6.6184,-22.9415
1207.0312,8.5351,-12.0833,-14.2938,-0.8864,-7.7213,-10.3744,-11.2977,2.1773,-3.7961,7.9394,-9.0828,-19.1203,-4.8680,-1.9191,-11.2762,-18.3410,-2.0425,-2.2289,-18.4059
1210.9375,5.3009,-14.5983,-11.0760,3.9415,-5.4863,-11.0771,-7.9429,6.8707,-2.4609,11.1537,-6.2788,-20.6028,-2.3579,3.0647,-10.9463,-24.8240,1.1737,2.0946,-14.9102
1214.8438,7.0424,-13.8282,-11.0267,6.3288,-3.0240,-10.5636,-6.8364,9.6452,-0.9161,12.6584,-7.7213,-22.1689,0.0021,5.0689,-11.6301,-25.4380,3.5391,4.0579,-13.4303
1218.7500,11.8631,-11.5415,-12.3601,5.9968,-0.6121,-10.3558,-6.6687,9.6390,1.3848,11.4332,-10.9784,-21.0188,2.3795,3.7897,-11.6513,-19.4296,5.0145,3.7398,-13.1069
1222.6562,15.4644,-9.8349,-11.8064,4.8899,1.4689,-11.2803,-5.2054,8.1582,4.5513,8.3710,-11.7650,-15.5557,4.6624,1.2879,-9.6039,-9.3661,5.7473,3.2788,-11.8768
1226.5625,14.4564,-9.2750,-7.1455,5.2141,2.9299,-12.7547,-1.1175,7.2017,8.0189,5.3520,-7.3326,-6.9620,6.4239,0.1025,-5.4690,-0.0446,5.9286,4.7483,-8.2324
1230.4688,9.0187,-8.4528,0.8552,7.2768,3.5472,-13.2350,4.7608,7.5067,10.7983,3.6323,1.0671,1.0540,7.1779,1.0543,-0.5874,4.0032,5.6973,8.0110,-2.6900
1234.3750,2.9260,-5.3911,8.7126,8.9889,3.3096,-11.4424,9.8647,7.8189,12.0649,2.9380,8.7544,4.3835,6.7440,2.5570,3.4345,1.0261,5.1222,10.4388,2.3402
1238.2812,0.8454,0.3373,12.6417,7.5051,2.5131,-7.4001,11.7996,6.0152,11.6743,1.9701,11.0030,1.2352,5.4477,2.0062,5.9124,-6.9239,4.2622,8.8737,4.3259
1242.1875,4.8576,6.6291,11.3189,1.6770,1.6629,-2.4940,10.2417,1.1080,10.2253,-0.2211,6.7065,-6.3919,3.9892,-1.9101,7.3528,-15.1161,3.2572,2.3105,2.6692
1246.0938,12.7855,10.0157,6.8418,-6.7226,1.1910,1.4520,7.2726,-5.6074,8.6162,-3.2584,-0.5698,-13.6386,3.0519,-7.8994,8.6260,-18.7440,2.3808,-6.9117,-0.6536
1250.0000,19.6088,8.2284,3.1010,-14.0629,1.1788,3.3523,5.7988,-11.2798,7.4250,-5.7290,-5.1102,-15.7121,2.9130,-12.8603,9.8484,-15.4360,1.9894,-14.4975,-2.5001
1253.9062,20.9292,2.1706,2.8153,-17.3902,1.3230,3.4087,7.2749,-13.5325,6.5776,-6.4711,-3.3090,-10.9768,3.3238,-14.1658,10.0412,-6.2352,2.3604,-17.1784,-0.9804
1257.8125,15.9110,-4.3682,5.5624,-16.4181,1.2095,2.6971,10.5719,-12.1294,5.5470,-5.6940,3.5918,-2.1221,3.7321,-11.6048,7.9425,5.3446,3.4906,-14.9823,3.0350
1261.7188,7.5449,-7.2061,8.3479,-13.4180,0.6967,2.2070,12.9514,-8.9236,3.9056,-4.9066,10.4362,5.4884,3.6704,-7.4445,3.2985,15.3578,4.9820,-11.0129,6.5800
1265.6250,0.1609,-4.6693,8.2238,-11.1907,0.0726,2.1309,12.3882,-6.1970,1.7615,-5.6623,12.0760,7.2867,3.0208,-4.6120,-2.5278,21.1973,6.1131,-8.9345,6.9565
1269.5312,-3.7817,1.2812,4.8117,-10.8501,-0.1952,1.9256,9.3437,-4.8429,-0.3025,-8.1695,7.2708,2.5025,1.9710,-4.4993,-7.2765,22.1719,6.0965,-10.1772,3.9263
1273.4375,-5.1294,6.5514,0.6704,-11.2292,0.0446,1.0128,6.4892,-3.9290,-1.7654,-10.9664,-0.4347,-5.3365,0.7281,-6.1377,-9.3633,18.9735,4.4045,-13.0613,-0.0482
1277.3438,-6.7059,7.9004,-0.7951,-10.2914,0.3032,-0.5194,6.5330,-1.9406,-2.7418,-11.9867,-5.4977,-10.7637,-0.7512,-7.3061,-9.0610,12.8594,0.9961,-14.4476,-1.7454
1281.2500,-10.4835,5.1636,1.8258,-7.2236,-0.3533,-1.8117,9.8881,1.4729,-4.0781,-10.1850,-4.6273,-9.9928,-2.7693,-6.5440,-8.2931,5.3091,-3.6723,-12.4726,0.2284
1285.1562,-15.6827,1.1063,6.6864,-3.3479,-2.6397,-1.8096,14.1082,4.8619,-6.8029,-6.4161,0.8049,-3.3460,-5.6016,-4.3571,-9.1342,-1.8142,-8.8426,-8.0976,4.2844
1289.0625,-19.3821,-0.8513,10.0498,-1.0612,-6.3867,-0.0540,15.6348,6.0760,-11.2826,-2.8659,6.0010,5.1183,-9.1370,-2.6651,-12.1677,-6.2538,-13.7383,-4.2484,7.0716
1292.9688,-19.0837,0.7892,9.1996,-1.7427,-10.4291,2.9362,12.5296,4.1675,-16.7231,-1.4923,6.5572,10.4367,-12.7464,-3.0560,-15.9838,-6.1169,-17.7879,-3.3402,6.1088
1296.8750,-15.0394,4.6739,4.5550,-4.4769,-13.2381,5.9674,6.0379,0.4117,-21.4555,-2.7043,1.8281,10.0236,-15.5295,-5.3859,-18.2090,-1.2238,-20.7068,-5.2935,1.7290
1300.7812,-10.3496,7.8856,-0.7014,-6.7330,-13.9166,7.9103,-0.2757,-2.5279,-23.8900,-5.2607,-4.7520,5.1792,-16.8071,-7.9067,-17.2552,6.0002,-22.4554,-7.6745,-3.2040
1304.6875,-8.7129,8.3068,-3.1658,-6.4422,-12.8408,8.3222,-3.1655,-2.6615,-23.5021,-7.3565,-8.5218,-0.0791,-16.5305,-8.7529,-13.4400,11.2188,-23.1518,-7.7835,-5.5582
1308.5938,-11.6582,6.1797,-1.8716,-3.6870,-11.4282,7.5410,-2.0639,-0.2341,-21.1598,-7.9503,-7.2680,-1.8809,-15.3167,-7.4622,-8.6754,10.5847,-23.0029,-4.8919,-4.3559
1312.5000,-17.5097,3.7365,1.0464,-0.5355,-11.1417,6.2714,0.6492,2.5671,-18.5411,-7.2900,-2.8292,1.0018,-14.0725,-5.2226,-5.0685,3.5198,-22.2608,-0.7545,-1.4431
1316.4062,-22.8751,3.3251,2.1520,0.8457,-12.4234,5.0441,1.6088,3.5466,-17.0429,-6.3576,0.5252,6.6665,-13.4515,-3.6842,-3.5821,-6.1766,-21.1711,1.9773,0.0629
1320.3125,-25.3533,5.5602,-0.5356,0.1603,-14.3518,3.9585,-0.9410,2.4364,-16.9376,-5.8558,-0.4839,11.7113,-13.5013,-3.4312,-3.7349,-12.1374,-19.9007,2.0387,-1.7551
1324.2188,-25.1881,8.8933,-6.0544,-0.7130,-15.3056,2.8338,-5.9568,1.1505,-17.3523,-5.6583,-5.6898,13.6267,-13.7188,-3.4919,-4.3867,-9.4224,-18.4839,0.5719,-6.2124
1328.1250,-24.5482,10.8252,-11.4097,0.5963,-14.1744,1.5641,-10.6508,2.0833,-17.0449,-5.1255,-11.8542,12.2244,-13.4574,-2.3275,-4.7789,1.8355,-16.8527,0.0381,-10.7433
1332.0312,-25.1671,9.7614,-14.0444,4.6977,-11.2318,0.3498,-12.8228,5.8774,-15.3904,-3.8703,-15.4075,9.2644,-12.3990,0.5888,-4.9207,15.8218,-14.9718,1.9959,-13.0590
1335.9375,-26.4783,6.1305,-13.8086,9.6013,-8.0132,-0.3711,-12.5438,10.6052,-12.8648,-2.1864,-15.2481,6.8304,-10.7760,4.0428,-5.1235,24.2978,-12.9972,5.6846,-12.9330
1339.8438,-25.9443,2.0350,-12.8593,12.1399,-6.2675,-0.2110,-11.8859,13.1744,-10.7010,-0.7325,-13.3814,5.8200,-9.2078,5.9280,-5.3170,21.8337,-11.3152,8.6489,-12.1921
1343.7500,-21.3719,-0.2123,-13.6642,10.5784,-6.7287,0.8883,-13.0333,11.8822,-9.9927,0.1823,-13.0289,5.6287,-8.2707,5.0204,-4.9526,9.5077,-10.3618,8.8841,-13.0090
1347.6562,-13.2479,0.3937,-16.8229,6.2605,-8.5904,2.5671,-16.3960,8.0092,-10.8952,0.9598,-15.8789,5.0487,-8.0857,2.1738,-3.6709,-5.6210,-10.2828,6.6618,-15.9721
1351.5625,-5.0182,2.9486,-20.5059,2.8365,-10.0496,4.1648,-20.2583,5.0457,-12.4708,2.2971,-20.7417,3.4561,-8.1945,-0.1487,-2.0739,-15.0951,-10.6627,4.4445,-19.5289
1355.4688,-0.8831,5.2362,-21.9328,3.5670,-9.5220,4.9441,-22.1757,6.0629,-13.2595,4.3379,-24.6078,1.2545,-7.8147,0.2831,-1.6995,-14.6137,-10.5796,4.9045,-21.2176
1359.3750,-2.7319,5.0653,-19.6366,8.7937,-6.6689,4.3193,-20.9073,11.2884,-12.1711,6.2279,-25.1112,-0.7197,-6.3338,3.7072,-3.9512,-6.6735,-9.0677,8.6642,-19.6318
1363.2812,-8.5999,1.5315,-14.6689,15.5929,-2.5452,2.0530,-17.3101,17.8396,-9.1222,6.6322,-22.3299,-2.1955,-3.7466,8.1303,-8.7390,1.5646,-5.7681,13.6435,-15.5110
1367.1875,-13.8767,-4.4681,-9.8179,19.9174,1.1728,-1.5958,-13.5536,21.8612,-5.0544,4.9136,-18.5195,-3.8938,-0.7519,10.8285,-14.0456,3.5929,-1.3356,16.5845,-11.1239
1371.0938,-14.3704,-10.6986,-7.5274,19.5646,3.2931,-5.8327,-11.4028,21.3934,-1.3781,1.9849,-16.1481,-6.9148,1.5947,10.4041,-17.0323,-1.8589,2.7593,15.5456,-8.5183
1375.0000,-8.9570,-14.7653,-8.1896,15.6820,3.7878,-9.5052,-11.0009,17.7302,0.7910,-0.0170,-15.9576,-11.5552,2.5101,7.7731,-16.0476,-10.3175,5.0322,11.3726,-8.0780
1378.9062,0.0308,-15.3929,-10.0783,11.7151,3.6514,-11.5300,-11.0551,14.2558,1.1778,0.8366,-16.6319,-16.5939,2.0292,5.3419,-12.0245,-15.3810,4.9400,7.0044,-8.4838
1382.8125,8.7168,-13.1081,-10.8159,10.7306,4.1356,-11.4236,-10.1055,13.7701,0.4241,4.7689,-16.2058,-19.7999,1.0941,5.0924,-8.0455,-13.8141,3.3438,5.2214,-7.9756
1386.7188,14.2553,-9.8910,-9.1004,13.2544,5.9348,-9.6321,-7.7136,16.4560,-0.2890,9.9552,-13.8816,-19.4594,1.0553,7.1318,-7.1989,-7.9461,2.0767,6.6570,-5.7880
1390.6250,16.1651,-7.9236,-5.3700,17.2242,8.8343,-7.3889,-4.6109,20.0305,0.1416,13.7113,-10.6580,-15.8243,2.8259,9.8104,-10.2331,-3.5558,2.8006,9.5894,-2.6021
1394.5312,15.7446,-8.1608,-1.0912,19.8811,11.9459,-6.0909,-1.8446,21.7873,2.1817,14.3742,-8.2929,-11.2910,6.2086,11.1858,-14.8049,-5.0129,5.8679,11.5295,0.2291
1398.4375,14.4594,-9.6835,2.5096,19.9069,14.2658,-6.5231,0.1761,20.7405,5.4137,12.4285,-7.6021,-8.9635,9.8781,10.5398,-17.0115,-11.6339,9.9874,11.1911,1.8890
1402.3438,12.8180,-10.3691,5.1400,18.0732,15.1657,-8.4145,1.8389,18.1171,8.7252,9.9742,-7.6567,-10.4701,12.1157,8.7051,-14.1827,-18.2270,12.9981,9.2370,2.6723
1406.2500,10.5349,-8.5126,7.1120,16.0492,14.5843,-10.6363,3.6229,15.9310,10.8615,8.9352,-6.6202,-14.5882,11.8778,7.0428,-6.9072,-19.4010,13.2863,7.3245,3.4990
1410.1562,7.5061,-4.2517,8.5236,14.5893,12.9346,-11.9324,5.3078,14.9991,11.0721,9.4303,-3.4924,-17.8028,9.4954,6.0699,1.2240,-14.1090,10.8869,6.4173,4.9064
1414.0625,4.4563,0.3369,8.8796,12.7700,10.8790,-11.7043,5.9646,14.1742,9.5007,9.6335,0.8000,-16.6137,6.4903,4.9906,6.0130,-6.6266,7.4773,5.8761,6.4755
1417.9688,2.5742,2.6770,7.5650,8.9340,9.1020,-10.3218,4.8424,11.4492,7.0747,7.2793,3.9941,-10.1013,4.5858,2.5424,5.4680,-3.0266,5.2400,4.0751,7.2137
1421.8750,2.5121,1.6478,4.6998,2.4643,8.1145,-8.7590,2.3668,5.9415,4.9430,1.6438,4.3374,-0.9208,4.5779,-1.6106,1.0283,-5.9445,5.3884,-0.0559,6.5269
1425.7812,3.7615,-1.4978,1.4800,-5.2231,8.0938,-7.8248,0.2555,-0.9985,3.8103,-5.5867,2.1464,6.1417,5.8728,-6.2041,-3.6168,-11.9754,7.4215,-5.9377,4.8924
1429.6875,5.0489,-4.1019,-0.4534,-11.4007,8.8027,-7.5419,0.4683,-6.5576,3.6046,-11.3031,-0.2892,7.2452,7.0431,-9.0830,-5.1743,-14.0506,9.6418,-11.6289,3.6100
1433.5938,5.4120,-4.3057,-0.1720,-13.9193,9.6683,-7.1156,3.7412,-8.5059,3.6905,-13.1079,-0.4638,2.1645,6.9894,-8.7714,-2.9159,-7.1111,10.5240,-15.2212,3.8236
1437.5000,4.9620,-2.7137,1.8282,-12.7254,10.0348,-5.5140,8.8951,-6.8425,3.4399,-10.9822,2.3168,-5.3495,5.8100,-5.6378,1.1076,7.4270,9.8590,-16.1482,5.6325
1441.4062,4.6174,-2.0083,4.0065,-9.7875,9.4749,-2.2440,13.5445,-3.7081,2.6932,-7.2191,6.3033,-9.9217,4.6687,-1.7031,3.7836,22.1524,8.7647,-15.3585,8.0222
1445.3125,5.0502,-4.6054,4.9650,-7.5439,7.9622,2.2194,15.7024,-1.6867,1.7341,-4.6976,8.6192,-8.1252,4.7183,0.7587,3.1857,28.9487,8.5446,-14.3189,9.6378
1449.2188,5.8223,-10.1523,4.4653,-7.1806,5.7809,6.6513,15.0412,-1.9266,0.8111,-4.8329,7.5042,-0.8361,5.9190,0.7220,-0.2827,25.0267,9.3244,-13.7952,9.7330
1453.1250,5.5185,-15.0508,3.4371,-8.1004,3.2444,9.7929,12.8497,-3.5819,-0.3457,-6.7523,3.7014,7.3274,6.7492,-1.1187,-4.5133,14.8793,9.6323,-13.4530,8.5301
1457.0312,2.7864,-14.7492,3.0131,-8.8677,0.4563,11.0824,10.7972,-4.8996,-2.5122,-8.2452,-0.1081,11.1843,5.1662,-3.1582,-7.3889,6.4921,7.3820,-12.5103,6.7866
1460.9375,-2.6147,-7.3023,3.4572,-8.6642,-2.6825,10.9205,9.5714,-4.8853,-6.3556,-7.6549,-1.3584,8.6026,0.1847,-4.1964,-8.1716,4.7864,1.5892,-10.7215,5.0451
1464.8438,-9.6216,4.5553,3.9252,-7.9473,-6.2239,10.3131,8.5083,-4.0741,-11.6652,-5.1874,0.4894,1.9741,-7.1252,-4.1742,-7.6288,7.6292,-6.5271,-8.7318,3.2583
1468.7500,-16.5911,14.6896,3.2483,-7.8102,-9.9054,10.1447,6.4437,-3.8075,-17.1155,-2.6445,3.6441,-3.5634,-14.0791,-3.8476,-7.0360,7.8105,-14.0297,-7.4971,1.0729
1472.6562,-22.1992,17.5715,1.0196,-8.7397,-13.1334,10.5707,2.9722,-4.7707,-20.9140,-1.8755,5.4422,-3.9272,-18.0618,-3.8638,-7.0415,-0.4323,-18.1307,-7.3726,-1.5770
1476.5625,-25.7345,12.1529,-1.9934,-9.9911,-15.2828,10.9248,-1.0168,-6.1862,-21.9932,-3.2514,4.3338,0.8407,-18.2813,-4.1576,-7.3345,-15.6257,-18.1218,-7.7874,-4.1894
1480.4688,-26.7429,2.6546,-4.4836,-10.1913,-16.1055,10.1980,-3.9962,-6.4312,-20.8792,-5.3969,0.8324,6.5446,-16.2958,-4.1858,-7.2688,-28.9726,-15.9116,-7.8500,-6.0290
1484.3750,-24.7255,-4.4767,-5.7226,-8.6253,-15.9215,7.7782,-5.0676,-4.5380,-19.4967,-6.3687,-3.2074,7.9683,-14.8799,-3.6823,-6.7568,-30.5142,-14.6898,-7.3081,-6.7792
1488.2812,-19.5446,-5.2576,-6.1694,-5.9999,-15.4168,3.9756,-4.7382,-1.2111,-19.9090,-5.2932,-6.2453,2.9222,-16.0320,-3.1142,-6.5609,-16.9823,-16.6465,-6.8918,-6.8982
1492.1875,-12.3375,-0.9764,-7.0330,-3.9305,-15.1839,-0.0082,-4.5488,1.6022,-22.8275,-3.1219,-8.2202,-5.8241,-19.5780,-3.3209,-7.6786,4.8829,-21.4075,-7.6093,-7.3220
1496.0938,-5.8928,3.0360,-9.1870,-3.5496,-15.3505,-2.6692,-5.8937,2.2762,-26.9813,-1.8860,-10.3267,-12.2901,-23.3894,-4.6221,-10.3286,22.5029,-26.3435,-9.5708,-8.7525
1500.0000,-3.5827,1.7546,-12.4114,-4.4717,-15.5752,-3.0045,-9.0470,0.8624,-29.8774,-3.0391,-13.7216,-11.5709,-25.0151,-6.2513,-13.4181,26.2815,-28.5111,-11.4667,-11.1486
1503.9062,-7.1458,-5.4185,-15.6349,-5.0801,-15.3920,-1.0583,-13.1770,-0.9634,-29.4744,-6.2034,-18.3525,-3.5659,-23.4735,-6.7467,-15.0130,16.4604,-26.7699,-11.3486,-13.8558
1507.8125,-14.9136,-13.9551,-17.9397,-3.9504,-14.6112,2.1115,-17.2281,-1.3545,-25.6002,-9.3173,-22.9072,6.6561,-19.8643,-5.0869,-13.5469,2.6999,-22.5123,-8.2209,-16.2254
1511.7188,-22.1924,-17.4945,-19.3903,-1.1855,-13.4519,5.0135,-20.7920,0.0951,-20.1052,-10.0915,-25.8695,12.2487,-16.4028,-1.6390,-8.9234,-3.4169,-18.5243,-3.1215,-18.1351
1515.6250,-24.0618,-12.6249,-20.8977,1.5491,-12.3240,6.4901,-24.1606,1.9952,-15.6544,-7.6805,-26.7221,9.3560,-14.7045,1.9476,-2.7315,2.7176,-16.9169,1.3440,-19.9292
1519.5312,-18.8417,-1.5275,-23.2233,2.4019,-11.4707,6.2100,-27.5706,2.4117,-14.0408,-3.3266,-26.2706,-0.1939,-14.6814,3.9186,2.5816,15.2589,-17.7208,2.8168,-21.8636
1523.4375,-9.5968,9.4753,-26.0504,0.9861,-10.7882,4.6211,-30.4586,0.6722,-15.2079,0.4771,-25.8737,-10.2413,-14.8663,3.7589,5.0317,22.5461,-19.1452,0.9712,-23.6341
1527.3438,-2.2440,14.2900,-28.0509,-1.1390,-9.9601,2.4601,-31.5806,-1.8517,-17.5903,1.6648,-26.3145,-14.7033,-13.8019,2.6010,4.0857,16.2824,-19.1589,-2.1934,-24.5094
1531.2500,-1.3688,11.0284,-27.9975,-1.6546,-8.7592,0.2003,-30.0398,-2.7319,-19.3849,-0.0887,-27.2963,-11.8078,-11.2963,2.3327,0.7856,-1.8232,-17.0535,-3.8748,-24.0086
1535.1562,-6.7848,2.7454,-25.9775,0.5921,-7.2311,-2.1692,-26.3403,-0.4800,-19.7300,-3.2868,-27.9257,-5.0843,-8.5088,4.1055,-2.9460,-21.0834,-13.7561,-2.6419,-22.4909
1539.0625,-13.5355,-5.3088,-23.5627,4.5368,-5.5980,-4.9071,-22.4073,4.1079,-18.9571,-5.7025,-27.6417,-0.4867,-6.8374,7.4481,-5.3210,-29.7519,-10.7563,0.4793,-21.0135
1542.9688,-15.5167,-9.5527,-22.6286,7.6621,-4.0002,-8.0597,-20.3286,8.4323,-17.8894,-5.7873,-26.6842,-1.8956,-6.5866,10.6997,-5.4653,-23.7717,-8.6556,2.9038,-20.4439
1546.8750,-10.0866,-10.0819,-23.7174,8.0172,-2.3452,-11.1804,-20.7208,10.0702,-16.9100,-3.4481,-25.6876,-8.3825,-6.5690,12.3859,-3.6571,-9.7053,-6.6081,2.6585,-20.5488
1550.7812,-0.1511,-9.5873,-25.3512,5.8551,-0.4311,-13.4931,-22.0911,8.6724,-15.6158,0.1908,-24.8468,-15.1895,-4.9999,12.3899,-1.0441,0.3079,-3.1160,0.0585,-19.9319
1554.6875,7.9339,-10.4931,-25.0131,3.5222,1.7732,-14.4041,-21.8657,6.2354,-13.2895,3.6761,-23.5355,-17.5188,-0.9543,11.9622,0.9531,-2.3382,2.5343,-2.4881,-17.0489
1558.5938,9.1045,-12.8827,-21.1319,3.6473,3.9848,-13.9690,-18.3943,5.5196,-9.6924,6.0562,-20.8336,-14.1466,4.8166,12.5998,1.3094,-16.4058,9.4480,-2.3968,-11.5796
1562.5000,3.3807,-14.8380,-14.4852,7.0729,5.7917,-12.9250,-12.3560,7.8866,-5.4249,7.1628,-16.5285,-8.1400,10.3855,14.7618,-0.0933,-31.8757,15.6304,1.0128,-5.0062
1566.4062,-4.1681,-14.6091,-7.8064,12.1850,7.0348,-12.2161,-6.3729,12.2781,-1.5249,7.3636,-11.6231,-4.2864,14.0457,17.4980,-2.3264,-37.3193,19.4038,5.9656,0.2154
1570.3125,-7.2141,-12.4814,-3.7980,16.1497,8.0219,-12.3387,-3.0471,16.0966,1.3358,7.1533,-7.7516,-5.3761,15.4544,19.2556,-3.7906,-27.9266,20.5356,9.6318,2.3726
1574.2188,-2.7949,-10.5972,-3.0923,17.0157,9.2987,-12.9974,-2.9486,17.1973,3.3357,6.9128,-5.8900,-10.2473,15.6076,19.1213,-3.0451,-8.3911,20.1437,10.3070,1.7784
1578.1250,6.7039,-10.8979,-3.8097,14.9794,11.0916,-13.3535,-4.1849,15.3543,5.2399,6.8733,-5.4694,-14.9800,15.7327,17.4148,0.2777,10.9844,19.5065,8.5820,0.5404
1582.0312,15.5488,-13.0791,-3.1189,11.8651,12.8919,-12.6998,-3.9465,12.0877,7.6333,7.1115,-4.7621,-16.0988,16.1036,15.1623,5.0318,21.5389,18.8635,6.5939,0.9117
1585.9375,18.9161,-14.4977,0.4295,9.3880,13.6253,-11.0613,-0.8184,9.1559,10.3472,7.4574,-2.3344,-13.1428,15.8337,12.9935,8.9989,21.3382,17.3014,6.0646,3.4941
1589.8438,16.0966,-12.2831,5.6839,7.7511,12.4092,-9.2512,4.0069,7.1001,12.6069,7.4217,1.6325,-8.6271,13.8405,10.5259,10.1107,14.7825,13.8567,6.8298,6.7572
1593.7500,10.3889,-5.9429,9.8014,5.7602,9.3630,-8.3084,7.6233,5.0789,13.7731,6.3552,5.3601,-5.6329,10.1298,6.8495,7.7724,7.8884,8.8543,7.0979,8.3222
1597.6562,6.1275,1.7887,10.5696,2.2674,5.7826,-8.7130,7.7221,2.0263,13.9976,3.8835,6.9490,-5.1679,6.2148,1.6946,3.3993,3.4944,4.2060,5.1738,7.0198
1601.5625,5.4267,6.7413,8.2544,-2.4258,3.4085,-9.9569,4.4688,-2.0171,14.1577,0.3460,6.1362,-5.5160,4.1839,-3.8266,-0.3220,0.1115,2.2212,1.1164,4.0390
1605.4688,7.1460,6.4378,5.4450,-6.5359,3.2318,-10.8076,0.4276,-5.6797,15.0675,-3.1731,4.7807,-4.0319,5.0846,-7.7214,-1.1034,-5.2463,3.7739,-3.1450,2.1487
1609.3750,8.5463,2.0909,4.9922,-8.2354,4.7212,-10.1039,-1.4198,-7.3975,16.6319,-5.3974,5.4896,0.2431,7.9421,-8.5991,1.3899,-13.2195,7.3311,-5.3709,3.5185
1613.2812,7.9040,-2.1822,7.6971,-7.3210,6.1236,-7.5410,0.0221,-6.9048,17.7279,-5.7000,9.3717,5.4436,10.2966,-6.9357,5.1866,-20.7767,9.7770,-4.9190,7.8475
1617.1875,5.7901,-2.3944,11.6305,-5.5916,5.7011,-3.9045,3.1708,-5.6914,17.0120,-4.6145,14.7732,8.2402,9.9423,-4.9609,7.2078,-23.5187,8.5589,-3.3289,12.3524
1621.0938,4.1077,2.3454,13.6532,-5.4820,3.0190,-0.6018,5.0945,-5.9045,14.0438,-3.5515,18.1916,6.5891,6.5542,-5.0795,5.3070,-19.5216,3.5728,-3.0211,13.7410
1625.0000,3.9988,9.2134,11.9222,-8.0212,-0.7074,1.1887,3.8670,-8.5499,9.7791,-3.8304,16.8374,1.5610,1.9214,-7.9862,-0.2041,-11.3249,-2.6915,-5.1721,10.7073
1628.9062,4.6164,13.8447,7.3654,-11.8435,-3.5203,1.1880,0.0552,-12.5270,5.9381,-5.7039,10.8844,-3.3188,-1.4255,-11.9943,-6.6254,-4.2679,-6.9276,-8.5848,5.0128
1632.8125,3.8446,13.5931,2.9440,-14.1779,-4.2370,0.1040,-3.8124,-15.3968,3.6717,-8.1321,3.5619,-4.7336,-2.1457,-14.2146,-10.5638,-2.4425,-7.4134,-10.5936,0.2678
1636.7188,0.2407,9.3835,1.3040,-13.0993,-3.4224,-0.8675,-5.3040,-15.3309,2.5718,-9.5409,-1.1218,-2.0889,-1.0853,-12.7529,-10.1582,-5.5120,-5.2372,-9.3349,-0.7017
1640.6250,-5.5999,4.8181,2.7126,-9.2122,-3.0362,-0.7666,-3.9687,-12.6483,0.8659,-9.0386,-1.3310,2.1601,-0.5762,-8.2246,-6.3322,-8.9584,-3.4328,-5.5174,2.0928
1644.5312,-11.4800,3.3387,4.9214,-5.3264,-4.9690,0.6327,-1.5516,-9.6249,-3.2710,-7.1679,1.2705,4.6101,-2.5978,-3.3609,-2.2065,-7.5924,-4.6956,-2.1517,5.8863
1648.4375,-15.4193,5.6711,5.0335,-4.2926,-9.5398,2.7974,-0.4469,-8.6658,-10.2522,-5.5815,2.8844,3.6884,-7.2317,-0.9613,-1.0565,0.3788,-9.3998,-2.3392,7.2996
1652.3438,-17.2138,9.4483,1.8445,-6.6955,-15.0922,4.8204,-1.7247,-10.3053,-18.5864,-5.8406,0.5824,0.8202,-12.5818,-1.7644,-4.1992,11.8077,-15.3603,-6.8276,4.8830
1656.2500,-18.3641,11.1484,-3.2201,-10.2781,-19.0213,5.9340,-4.3570,-12.6894,-25.7603,-8.2266,-5.4171,-0.9486,-16.1688,-3.9030,-10.2296,20.6819,-19.4261,-13.2968,0.1328
1660.1562,-20.4894,8.7520,-7.2848,-11.6209,-19.5077,5.8660,-6.2228,-13.0112,-29.8532,-11.4787,-11.9893,0.3189,-16.6889,-4.3819,-16.0767,22.2031,-19.6415,-17.9932,-3.7445
1664.0625,-23.7018,3.1109,-8.3327,-8.7900,-16.7205,4.8955,-5.9919,-9.7745,-30.6963,-13.6711,-15.6326,3.6856,-14.8086,-1.4317,-19.0809,15.8932,-16.3901,-18.4651,-4.3238
1667.9688,-26.4267,-2.8486,-6.7858,-2.8775,-12.6533,3.6470,-4.2987,-4.0630,-29.7581,-13.5699,-15.2303,6.0546,-12.4818,4.0912,-18.6264,5.6572,-11.8235,-15.2692,-1.7968
1671.8750,-26.8321,-6.2831,-5.1376,2.7800,-9.7643,2.7668,-3.2548,1.2198,-28.9212,-11.4336,-12.8326,4.8020,-11.4337,9.3306,-16.2391,-2.9655,-8.2050,-11.3416,1.1900
1675.7812,-24.5560,-6.2428,-5.9978,5.0861,-9.4188,2.6428,-4.7440,3.5452,-29.1266,-8.6585,-11.8815,0.1392,-12.0223,11.5678,-14.2105,-6.2255,-6.5097,-9.5852,1.4818
1679.6875,-21.1297,-3.8968,-10.1358,3.4295,-11.2003,3.2768,-8.9199,2.6418,-29.8894,-6.5807,-14.3885,-4.8091,-13.2780,10.1940,-13.8532,-3.9496,-6.2404,-10.6235,-2.3712
1683.5938,-18.6574,-1.2803,-16.0200,-0.0235,-13.4531,4.3411,-14.1003,0.5914,-29.9504,-5.4131,-19.3877,-6.3755,-13.9262,7.0202,-14.6914,1.1808,-6.3429,-12.4842,-9.2394
1687.5000,-17.8998,0.2508,-21.0909,-2.1270,-14.5293,5.3710,-18.0705,0.1083,-28.4419,-4.1813,-23.8867,-3.3118,-13.4567,4.7620,-15.1146,5.9044,-6.2708,-12.3890,-16.3691
1691.4062,-17.5114,0.6537,-23.6390,-1.1496,-13.8047,5.9783,-19.6711,2.4143,-25.6138,-1.7175,-25.4428,2.0522,-12.3869,4.9542,-13.8816,8.4026,-6.2938,-9.1317,-21.2851
1695.3125,-15.2239,0.6372,-23.7934,2.1134,-11.8347,5.9685,-19.4044,6.3930,-22.5974,2.0998,-24.1616,5.4507,-11.6235,6.9304,-11.2356,8.8049,-6.9283,-4.0978,-23.1797
1699.2188,-10.0513,0.6355,-22.9745,5.2782,-9.7306,5.3076,-18.6901,9.6198,-20.4893,5.9052,-22.4459,3.8970,-11.5817,8.5845,-8.7411,8.2243,-8.1604,-0.1297,-22.9128
1703.1250,-3.6097,0.3182,-22.4616,6.4550,-8.3596,3.9999,-18.5452,10.3446,-19.5357,7.6449,-22.7542,-2.0185,-11.8470,8.1985,-7.9897,7.3873,-9.2536,0.7935,-21.9075
1707.0312,0.7148,-0.9685,-22.3707,5.7212,-7.9478,2.0093,-18.8650,8.7887,-19.0457,6.0811,-25.3292,-8.5373,-11.6145,5.8232,-9.2331,5.9850,-9.3337,-0.8520,-21.0021
1710.9375,0.2481,-3.3245,-21.8519,4.8332,-8.2141,-0.6793,-18.8566,6.7641,-18.0192,1.8776,-27.8767,-11.5402,-10.4410,3.1455,-11.0662,3.1264,-8.1983,-2.5524,-20.1412
1714.8438,-4.7753,-5.8686,-20.1841,5.5378,-8.7303,-3.9002,-18.1026,6.0405,-15.9237,-2.5902,-27.5105,-9.6008,-8.6072,2.0447,-11.4536,-1.6140,-6.5831,-1.8165,-18.9348
1718.7500,-11.1009,-7.2319,-17.6742,7.9819,-9.1287,-7.2159,-17.1815,6.8875,-13.0063,-4.6344,-23.3219,-4.9823,-6.7903,3.0779,-9.3190,-7.4552,-5.5998,1.8072,-17.3618
1722.6562,-14.6134,-6.6143,-15.5033,10.5669,-9.0670,-10.0476,-17.2073,7.9972,-9.9780,-2.9136,-17.3587,-1.8895,-5.3904,5.1245,-5.4453,-12.5926,-5.8095,6.3741,-15.8896
1726.5625,-13.1529,-4.5242,-14.6575,11.3312,-8.1609,-12.0024,-18.6773,7.7802,-7.4184,1.7805,-13.1095,-3.3656,-4.1585,6.4111,-1.9501,-15.2381,-6.7246,9.0959,-14.9338
1730.4688,-7.8572,-2.5485,-14.9363,9.6528,-6.1205,-13.1639,-20.7068,5.8683,-5.4137,7.1082,-12.6990,-9.1694,-2.4782,6.0084,-0.7073,-14.8380,-7.1785,8.5239,-14.2662
1734.3750,-2.0701,-2.2703,-14.9896,6.8249,-3.0509,-14.0700,-21.4541,3.5219,-3.6559,10.6754,-15.1233,-16.1110,-0.0352,4.5510,-1.9225,-12.6162,-6.2537,5.6236,-13.0475
1738.2812,1.2528,-4.1474,-13.4296,5.0263,0.3840,-15.3108,-19.5109,2.5973,-1.8168,11.3991,-17.0352,-20.4269,2.7568,3.6246,-3.9687,-10.9609,-3.9942,2.9363,-10.5619
1742.1875,1.6085,-7.1991,-10.0907,5.5591,3.2066,-17.0047,-15.1408,3.9637,0.1781,9.8953,-15.4737,-20.3277,4.9969,4.3835,-4.6217,-11.8905,-1.3199,2.5669,-7.0197
1746.0938,0.9719,-9.7338,-6.3241,7.8139,4.7049,-18.5853,-10.2840,6.7064,2.1704,7.7824,-10.3011,-16.9002,6.0252,6.5645,-2.7507,-15.5233,0.7552,4.6191,-3.6374
1750.0000,1.9320,-10.5522,-3.9988,9.7937,4.9250,-19.1532,-7.2198,8.7832,3.9626,6.5093,-4.3263,-12.9266,6.0077,8.6958,0.8329,-19.6596,1.9204,7.2625,-1.7882
1753.9062,5.5170,-9.7268,-3.9860,9.7244,4.6440,-18.2092,-6.8990,8.5758,5.4232,6.5153,-1.0122,-10.7284,5.8460,9.2828,4.0082,-21.0301,2.7208,8.2640,-1.8547
1757.8125,10.3930,-8.4068,-5.3831,7.4089,4.7818,-16.2122,-8.2689,6.0577,6.3968,7.1535,-1.6740,-10.6975,6.4584,7.9698,4.9497,-17.6583,3.9762,6.6768,-2.7677
1761.7188,13.9277,-7.8543,-6.1644,4.2413,5.6873,-14.4442,-9.1458,2.6557,6.5811,7.2404,-4.5063,-11.4444,8.0263,5.7339,3.4514,-10.8156,5.9998,3.3553,-2.7248
1765.6250,14.1541,-8.4752,-4.7800,1.9380,6.8800,-14.1513,-7.9388,-0.0097,5.6156,5.7630,-6.2404,-11.1910,9.8368,4.0042,0.9661,-4.9809,8.2925,-0.0005,-0.6168
1769.5312,11.0983,-9.5750,-1.4241,1.0950,7.4817,-15.5344,-4.8417,-1.4034,3.4133,2.3406,-5.0160,-9.2055,10.8503,3.4759,-0.6179,-5.3589,9.9457,-2.3593,2.9649
1773.4375,6.5880,-9.9833,2.0701,0.7720,6.9993,-17.3827,-1.5446,-2.3145,0.4636,-2.6651,-2.0094,-6.2585,10.5071,3.6032,-0.4521,-14.2554,10.3700,-4.1401,6.0169
1777.3438,2.8905,-9.0302,3.6535,-0.5997,5.8013,-17.7523,0.2706,-3.9266,-2.2450,-8.2920,-0.3900,-3.9606,9.0993,3.1462,0.7201,-28.7400,9.7107,-6.6621,6.5885
1781.2500,1.3147,-7.1118,2.6844,-3.8049,4.8584,-15.3131,0.3874,-6.5941,-3.7562,-13.2614,-2.4368,-3.6437,7.4234,1.2614,1.3332,-41.5285,8.6199,-10.8111,4.3358
1785.1562,1.7264,-5.4186,0.4626,-8.1335,4.9280,-10.4102,0.2502,-9.4268,-3.7845,-16.3819,-7.2516,-5.5953,6.0573,-1.7925,0.4121,-44.9770,7.6290,-16.0926,0.9333
1789.0625,3.0726,-5.0403,-0.7522,-11.9421,5.8525,-5.0004,1.7253,-11.0481,-2.9402,-17.0323,-11.0873,-9.0089,4.9145,-4.8969,-1.5623,-35.8063,6.7026,-20.8604,-1.0503
1792.9688,4.2731,-6.1227,0.5343,-13.9622,6.5787,-1.4070,5.4463,-10.8538,-2.2965,-15.5275,-10.1779,-12.4574,3.4575,-7.0051,-3.0554,-17.3780,5.3567,-23.4927,-0.0185
1796.8750,4.7574,-7.6954,3.9258,-14.2228,5.9347,-0.7320,10.1150,-9.6417,-2.5924,-13.0741,-3.8520,-14.4925,1.3451,-7.9398,-2.8159,2.1952,3.2006,-23.5135,3.4435
1800.7812,4.4221,-8.2877,7.4574,-13.8249,3.5607,-2.0845,13.3606,-9.0177,-3.7089,-11.1757,4.6181,-14.1288,-1.1137,-8.3871,-1.0326,14.9837,0.3815,-21.7604,6.9498
1804.6875,3.3027,-6.8830,9.0626,-13.8203,0.2377,-3.2345,13.4939,-10.0409,-4.8809,-10.7434,10.2199,-11.1863,-3.1555,-9.1340,0.6717,17.9049,-2.4862,-19.5492,8.0209
1808.5938,1.3690,-3.5455,8.0189,-14.2220,-2.6779,-2.2602,10.7623,-12.2578,-5.5049,-11.4928,9.8177,-6.4692,-4.2715,-10.2546,0.4515,13.9494,-4.8473,-17.6255,5.8469
1812.5000,-1.4312,0.6736,5.2820,-14.0389,-4.2820,1.0045,7.1112,-13.9785,-5.8694,-12.1333,4.3908,-1.6185,-4.7987,-10.9836,-2.2854,9.2721,-6.7087,-15.8155,1.8037
1816.4062,-5.0534,4.4134,2.5554,-12.3142,-4.7948,4.7975,4.6571,-13.6222,-7.1316,-11.3230,-1.8183,1.5259,-5.8104,-10.4097,-6.3120,8.4459,-8.6530,-13.6064,-1.6254
1820.3125,-9.3427,6.7413,0.9361,-9.2336,-5.3332,6.6821,4.1008,-11.0404,-10.4456,-8.7469,-4.5399,1.9109,-8.3068,-8.3913,-9.3916,11.4231,-11.3291,-11.0326,-2.6670
1824.2188,-14.0811,7.4662,0.2469,-6.2663,-6.9582,5.3259,4.3413,-7.7097,-15.8637,-5.4823,-2.5576,0.0539,-12.3195,-5.8770,-9.8500,14.3060,-14.8459,-8.9604,-1.4306
1828.1250,-18.9119,6.9287,-0.4748,-5.1009,-9.7555,1.5166,3.5689,-5.5901,-21.8937,-3.2846,1.6980,-2.0145,-16.6700,-4.2917,-7.7120,13.0199,-18.5777,-8.4143,0.4034
1832.0312,-23.1218,5.5798,-1.8492,-6.1945,-12.6801,-2.3045,0.9249,-5.5457,-26.1568,-3.2597,4.3499,-1.8297,-19.6240,-4.4358,-4.5691,6.7869,-21.5331,-9.4899,1.0564
1835.9375,-25.5520,3.7607,-3.4192,-8.1559,-14.2864,-3.6288,-2.6325,-6.6066,-26.7699,-4.9272,3.1893,1.9698,-19.9781,-5.7874,-2.3516,-1.3620,-22.9725,-10.8562,0.0825
1839.8438,-24.9754,1.8245,-3.9719,-8.5754,-13.7708,-1.4407,-4.9729,-6.6931,-23.5148,-6.4592,-0.7804,8.6634,-17.7776,-6.8100,-2.0036,-7.2677,-22.7827,-10.4445,-1.3616
1843.7500,-20.9194,0.3565,-2.6691,-5.7632,-11.5276,3.3019,-4.4614,-4.2592,-17.9919,-5.9946,-4.4789,15.7482,-14.1743,-6.0788,-3.0663,-9.1032,-21.3788,-6.9434,-1.5894
1847.6562,-14.3910,0.1128,-0.0377,-0.0928,-8.8318,8.4756,-1.3528,0.4333,-12.6914,-3.0628,-5.4853,20.3641,-10.6180,-3.3800,-4.3783,-8.6274,-19.3262,-0.9798,0.0769
1851.5625,-7.7951,1.5500,2.0444,6.0988,-6.9516,12.1683,2.1631,5.4082,-9.6597,0.9986,-4.0922,20.8732,-8.0558,0.0701,-5.1939,-9.1914,-17.0708,4.9915,2.5271
1855.4688,-3.8086,4.2630,1.4360,10.0154,-6.3995,13.6046,3.3082,8.3613,-9.6417,4.0062,-3.0656,17.5330,-6.7109,2.4687,-5.7339,-12.2711,-14.9727,8.1337,3.4654
1859.3750,-3.8061,6.8744,-2.8798,10.2123,-6.8465,13.0892,0.4581,8.2651,-12.1211,4.5642,-5.4120,11.9211,-6.4473,2.7070,-6.7376,-15.6156,-13.4639,7.0249,0.9575
1863.2812,-6.9462,7.6713,-10.1143,7.4040,-7.6406,11.2682,-5.9472,5.9799,-15.9867,3.1052,-12.0027,5.7201,-7.2203,1.1377,-8.4842,-14.7869,-12.9978,2.5345,-5.2121
1867.1875,-10.6969,5.6942,-18.1563,3.7581,-8.3993,8.4913,-13.8632,3.4741,-20.1799,1.5017,-20.8954,-0.1231,-9.1126,-0.7223,-10.2281,-6.9900,-13.6930,-2.8234,-13.3335
1871.0938,-12.5537,1.5186,-24.8090,1.3076,-9.1690,4.8271,-20.9829,2.3411,-23.8932,1.5330,-28.7317,-5.3018,-11.9333,-1.3004,-10.6394,5.9411,-14.9759,-6.5464,-20.8037
1875.0000,-11.7569,-2.9411,-28.8769,0.7176,-10.0956,0.6036,-25.9196,2.7926,-26.4155,3.4090,-32.9707,-9.4590,-14.8574,-0.0553,-8.9567,18.0060,-15.6827,-7.5980,-25.6143
1878.9062,-9.7222,-5.6109,-30.4179,1.2568,-11.0125,-3.1827,-28.4834,3.8474,-27.0570,5.5361,-33.2310,-11.7786,-16.6171,2.2325,-5.8860,22.8386,-14.7501,-6.6830,-27.2757
1882.8125,-8.8197,-5.6567,-30.1842,1.8143,-11.4051,-5.1486,-29.1173,4.4305,-25.4344,5.7414,-30.9358,-11.4304,-16.2591,4.1146,-3.4005,18.0428,-12.0642,-5.3088,-26.6732
1886.7188,-10.3911,-4.0811,-28.8624,2.0058,-10.8200,-4.4295,-28.1870,4.3911,-21.9227,3.0215,-27.8840,-8.5546,-13.8975,4.5381,-3.4423,6.7740,-8.7417,-4.4890,-25.1589
1890.6250,-13.5082,-3.0147,-26.7403,2.4394,-9.3334,-1.5181,-25.7763,4.5854,-17.7663,-1.5487,-25.0842,-4.8160,-10.7658,3.5420,-6.4356,-4.5917,-6.4538,-4.1068,-23.6464
1894.5312,-15.4471,-4.1567,-23.9335,3.9976,-7.5912,1.7198,-22.0416,6.0083,-14.5305,-5.4617,-22.6816,-2.7711,-8.3876,2.1453,-10.7481,-10.8573,-6.1620,-3.3188,-22.3023
1898.4375,-13.5699,-7.4963,-20.7694,6.8384,-6.3078,3.0273,-17.6098,8.7675,-13.1403,-6.4930,-20.6752,-4.2681,-7.4382,1.5995,-13.5925,-11.1536,-7.2226,-1.5151,-20.8530
1902.3438,-7.2528,-11.2801,-17.8352,10.0276,-5.6217,1.1392,-13.4769,11.8079,-13.2019,-4.1860,-19.4386,-9.0325,-7.2129,2.5876,-12.8068,-8.6736,-7.6610,1.0440,-19.0615
1906.2500,1.5258,-13.2724,-15.5850,12.1467,-4.8962,-3.3905,-10.3886,13.6471,-13.2046,-0.0242,-19.4108,-14.6265,-6.2010,4.8965,-8.2965,-7.5898,-5.5656,3.4301,-16.9289
1910.1562,9.3360,-12.3695,-13.9033,12.3710,-3.2112,-8.5102,-8.2566,13.5172,-11.5592,3.7562,-20.2993,-17.9958,-3.3789,7.6798,-2.1434,-9.8238,-0.6217,4.8478,-14.5573
1914.0625,13.3507,-9.3548,-12.1272,11.1121,-0.1871,-11.9316,-6.2288,11.9701,-7.7571,5.7350,-20.7588,-17.5558,0.8010,10.0186,2.6826,-14.1285,5.4187,5.2916,-11.9645
1917.9688,12.9091,-6.2469,-9.6372,9.6893,3.5537,-12.4703,-3.4857,10.4456,-2.7803,6.0735,-19.1412,-14.2664,4.5788,11.3701,4.1252,-17.8123,9.8033,5.4832,-9.1380
1921.8750,9.6511,-4.7927,-6.5491,9.3058,6.7395,-10.5922,-0.1366,10.1578,1.5702,6.0162,-14.8668,-10.8545,6.1712,11.6832,2.1737,-19.2650,10.6834,6.1670,-6.2905
1925.7812,6.3202,-5.3057,-3.8444,10.1706,8.4018,-7.8906,2.6181,11.2027,3.9406,6.6857,-9.2178,-9.7545,5.2060,11.2409,-1.3407,-19.0355,8.4549,7.4051,-3.9775
1929.6875,5.1559,-6.7300,-2.6740,11.4571,8.6733,-5.9533,3.3576,12.5808,4.3428,8.2065,-4.6746,-11.3293,3.1551,10.4278,-4.0360,-18.7382,5.5000,8.5003,-2.8057
1933.5938,6.8694,-7.7786,-3.2990,12.0696,8.7391,-5.4307,1.7466,13.0601,4.0565,9.7952,-3.1083,-13.7141,2.3448,9.5546,-4.4433,-19.0604,4.4735,8.6124,-2.8640
1937.5000,10.6238,-8.1033,-4.5554,11.5187,9.9032,-5.8653,-0.8156,12.1229,4.6281,10.5771,-4.2113,-14.3502,4.2362,8.7463,-2.7304,-18.8435,6.3881,7.5157,-3.3804
1941.4062,14.7555,-8.4524,-4.4359,10.1509,12.4627,-6.2498,-1.9058,10.2084,6.7534,10.3120,-5.5132,-11.9744,8.2707,7.8613,-0.3426,-16.0875,9.9152,5.8162,-3.0519
1945.3125,17.6612,-9.6724,-1.5211,8.5785,15.2972,-5.8133,0.2015,8.1027,9.8704,9.3962,-4.1287,-7.5185,12.1866,6.4835,1.0746,-9.8978,12.4012,4.4207,-0.9662
1949.2188,18.4121,-11.4656,3.7686,6.8772,16.5623,-4.4833,5.0561,6.0725,12.6910,8.2411,1.0376,-3.2934,13.6052,4.0869,0.7280,-1.5339,11.8176,3.7146,2.5434
1953.1250,16.9673,-12.1121,9.1439,4.3416,15.0234,-2.8084,10.0335,3.5584,14.1773,6.7184,8.3535,-1.1983,11.7217,0.3945,-0.9180,6.4169,8.1905,3.1819,5.8723
1957.0312,14.0556,-9.6027,11.8402,0.0999,11.0385,-1.5200,12.0167,-0.2551,14.1857,4.2779,14.5688,-1.4069,7.8565,-4.2481,-2.5512,11.9789,3.5080,1.8399,7.1532
1960.9375,10.8149,-3.4067,10.5405,-5.8917,6.4347,-1.0910,9.6504,-5.4678,13.3536,0.6710,17.1458,-2.4979,4.4920,-8.7863,-2.9160,15.0662,0.2789,-0.8498,5.6651
1964.8438,8.2835,4.5723,6.4251,-12.3616,3.3433,-1.5379,4.4956,-10.9724,12.4471,-3.4191,16.0136,-2.7677,3.5441,-11.8505,-1.6511,16.9691,-0.1105,-4.3696,2.5686
1968.7500,6.9327,10.7996,2.4945,-17.2760,2.8329,-2.4890,0.1083,-14.9702,11.7768,-6.5300,13.4098,-1.5375,5.1474,-12.4892,0.4312,18.6051,1.9408,-7.3987,0.2859
1972.6562,6.5089,12.2813,1.5507,-19.1202,4.3146,-3.3920,-0.4216,-16.1872,11.1308,-7.3736,11.9961,0.6110,7.7779,-10.7873,1.7943,19.2653,4.8878,-8.7753,0.8387
1976.5625,6.3466,8.5861,4.2512,-17.9535,6.0934,-3.7386,3.2681,-14.8501,10.1593,-5.8530,12.7821,2.7171,9.4959,-7.9047,1.1185,17.1510,7.2881,-8.4002,4.3188
1980.4688,5.9724,2.2067,8.6510,-15.3872,6.5883,-3.2515,8.4414,-12.6052,8.7557,-3.2553,14.4824,4.4986,9.2862,-5.4292,-1.8059,11.3233,8.6040,-7.3185,8.6659
1984.3750,5.5203,-3.0635,11.5919,-13.4511,5.2973,-2.0026,11.1384,-11.3709,7.0470,-1.3738,14.7303,6.5359,7.5055,-4.4318,-5.7995,3.3026,9.0306,-6.8813,11.0133
1988.2812,5.5345,-4.5909,10.9387,-13.1854,2.8570,-0.4052,8.9908,-11.9692,5.0401,-1.2120,12.0744,9.3920,5.2298,-4.8677,-8.8876,-3.2693,8.7158,-7.6543,9.6761
1992.1875,6.2265,-2.4416,7.0349,-14.0265,0.2863,0.9738,2.9400,-13.5887,2.3426,-2.3190,7.1223,12.5320,3.1689,-5.7455,-9.4972,-4.8676,7.2351,-8.9775,5.3329
1996.0938,6.8088,1.0401,2.3342,-14.4363,-1.8918,1.7398,-3.4113,-14.4984,-1.6662,-3.3143,1.9740,14.1919,1.0880,-5.9366,-7.5394,-0.5284,3.8723,-9.5604,0.5164
2000.0000,5.6264,3.1723,-0.4668,-13.2439,-3.9440,1.9506,-6.3466,-13.4476,-7.2674,-3.1729,-1.4826,12.5708,-1.8210,-5.0194,-4.6263,7.4157,-1.5335,-8.6336,-2.2055
2003.9062,1.2438,2.8690,-0.3616,-10.6119,-6.4741,2.1318,-4.6161,-10.6505,-13.9132,-2.1841,-2.9554,7.5134,-5.9995,-3.5315,-3.1611,14.8298,-7.9888,-6.6878,-1.9934
2007.8125,-6.2127,1.1586,1.4120,-7.8600,-9.6797,2.9532,-0.1721,-7.5810,-20.3014,-1.7472,-3.7140,1.2446,-10.8614,-2.4628,-4.7965,18.2465,-13.6426,-5.1471,-0.1367
2011.7188,-14.5693,0.0617,2.5466,-6.3150,-12.9816,4.7491,3.4308,-5.7599,-25.0596,-3.1367,-5.2774,-2.6837,-15.0017,-2.4157,-9.2700,16.4550,-16.8754,-5.1997,1.1469
2015.6250,-20.6063,0.8581,1.5794,-6.1565,-15.3381,7.2235,3.7108,-5.5160,-27.5576,-6.2628,-8.0196,-1.6959,-17.1408,-3.1137,-14.4666,10.3527,-17.3684,-6.7406,0.5113
2019.5312,-22.0513,3.1388,-0.9911,-6.2256,-15.9752,9.5826,0.9802,-5.7196,-28.2186,-9.4973,-10.8825,3.8796,-17.0602,-3.6522,-17.7591,1.7899,-16.2984,-8.3385,-1.5575
2023.4375,-19.1761,5.2824,-3.2595,-4.9761,-14.9406,11.0250,-2.1503,-4.6972,-28.0788,-10.7779,-12.3860,10.7560,-15.7887,-3.2760,-17.7553,-7.2153,-15.4704,-8.3196,-3.3507
2027.3438,-14.7265,5.8223,-3.6619,-1.7971,-13.0546,11.2415,-3.0278,-1.5884,-27.9454,-9.1465,-12.0107,14.7034,-14.8857,-2.0355,-15.2266,-14.3505,-16.0271,-6.1325,-3.5654
2031.2500,-12.0843,4.5281,-2.4824,2.3832,-11.3326,10.5513,-1.1800,2.9443,-27.8286,-5.4914,-10.7478,13.3014,-15.3565,-0.7626,-12.5189,-16.8068,-17.7042,-2.8708,-2.5794
2035.1562,-12.9137,2.4000,-1.8561,5.7296,-10.3481,9.5900,1.2322,7.2063,-27.0860,-1.8950,-10.3605,7.5085,-16.9978,-0.3711,-11.8316,-12.2091,-19.1588,-0.4745,-2.2946
2039.0625,-16.0267,0.7434,-4.1935,6.8838,-10.0053,8.8174,1.0811,9.7443,-25.1241,-0.1051,-12.0065,0.9471,-18.6219,-1.0517,-13.6011,-0.6849,-19.0659,-0.1969,-4.6430
2042.9688,-18.3466,0.2111,-10.2092,5.9943,-9.8184,8.2517,-3.2361,10.3689,-22.0428,-0.3420,-15.3815,-2.5834,-18.9510,-2.0452,-16.1886,13.6313,-17.1207,-1.5564,-9.9440
2046.8750,-17.2870,0.5840,-18.0841,4.5665,-9.3972,7.6267,-10.4042,10.1209,-18.6732,-1.3480,-19.0522,-1.6121,-17.5113,-2.2237,-17.1242,23.7187,-14.2167,-2.6488,-16.4445
2050.7812,-12.7771,1.3039,-24.4527,4.2555,-8.7284,6.7911,-16.9725,10.2606,-15.9819,-1.5551,-21.6210,2.1972,-14.9146,-1.0400,-14.9986,23.6868,-11.7519,-1.6243,-21.4367
2054.6875,-7.4209,2.0908,-26.5372,5.5776,-8.0793,5.9452,-19.7402,11.1576,-14.3452,-0.3551,-22.6913,5.4152,-12.3983,0.9232,-10.5865,13.2333,-10.6686,1.8218,-23.1067
2058.5938,-4.6773,2.9971,-23.9019,7.5747,-7.6883,5.4552,-17.9821,12.0160,-13.2934,1.5609,-22.8509,5.3427,-11.0145,2.2885,-6.3482,-1.1094,-10.9548,6.1447,-21.7057
2062.5000,-6.4137,3.8981,-18.6124,8.6812,-7.5576,5.3793,-13.9073,11.6493,-11.9120,2.9925,-22.7954,1.8607,-11.0405,1.8923,-4.6635,-9.7570,-11.8883,9.1095,-19.1903
2066.4062,-11.5920,4.0624,-13.7741,8.0616,-7.5121,5.1466,-11.0808,9.6264,-9.5401,3.3776,-22.4687,-2.6102,-11.9513,-0.3013,-6.1067,-6.8367,-12.6976,9.5182,-17.6916
2070.3125,-16.9374,2.4391,-11.5737,6.3057,-7.4154,3.7639,-12.0029,6.7903,-6.1896,3.2692,-21.0483,-4.9348,-12.8667,-3.1043,-9.0322,4.9729,-13.0544,8.1322,-18.0418
2074.2188,-18.9835,-1.3905,-12.1907,4.9098,-7.2895,0.5021,-16.5661,4.6814,-2.3961,3.7455,-17.8052,-3.5645,-13.1006,-4.9296,-10.7591,15.6296,-13.0558,7.0324,-19.4538
2078.1250,-16.0081,-6.4014,-14.1754,4.9798,-7.2086,-4.4266,-22.3495,4.3245,1.2729,5.3244,-13.0545,0.2588,-12.4551,-4.9197,-9.4540,14.7362,-12.8424,7.9049,-20.4561
2082.0312,-8.6737,-10.3337,-15.7740,6.2435,-7.0809,-9.7638,-26.3535,5.3931,4.5544,7.3964,-8.2900,3.1925,-11.1512,-3.5153,-5.3371,-0.5119,-12.2865,10.6112,-20.1891
2085.9375,0.7237,-11.0439,-16.0921,7.2110,-6.5725,-13.8473,-26.8430,6.4682,7.3754,8.7217,-5.2846,1.9210,-9.5476,-2.0330,-0.3901,-22.5205,-11.0530,13.2049,-18.9714
2089.8438,9.5644,-8.1075,-15.3209,6.3762,-5.3083,-15.6046,-24.0977,6.2020,9.4794,8.5773,-4.8428,-4.6422,-7.8894,-1.5933,3.1145,-38.1523,-8.9468,13.4160,-17.7642
2093.7500,15.8489,-3.3967,-14.1174,3.4894,-3.2140,-15.2016,-19.8152,4.4338,10.2797,7.5284,-6.2160,-14.4683,-6.2315,-2.2422,4.1181,-37.9383,-6.1849,10.4555,-17.1363
2097.6562,18.4911,-0.0134,-12.8768,-0.1457,-0.6971,-13.8713,-15.8624,2.3291,9.2362,7.0922,-7.6665,-23.4133,-4.5229,-2.9522,3.2469,-22.8153,-3.3116,5.7187,-16.7180
2101.5625,17.3142,-0.2052,-11.5526,-2.6091,1.5392,-13.0422,-13.3241,1.4128,6.5223,8.5075,-7.7257,-27.5277,-2.7329,-2.4879,2.0478,-3.2654,-0.8179,1.8173,-15.6270
2105.4688,13.1488,-3.7534,-10.0367,-2.8001,2.9486,-13.3911,-12.3073,2.2857,3.3638,11.6210,-6.1397,-25.3051,-0.9160,-0.4438,1.7176,8.4766,1.1938,0.6760,-13.4280
2109.3750,7.9300,-8.0664,-8.5483,-1.2344,3.5149,-14.4794,-12.2751,4.0834,1.5830,14.8359,-3.7883,-18.5173,0.8105,2.3597,2.3370,7.1261,2.9951,2.1548,-10.6866
2113.2812,4.2958,-9.9852,-7.5146,0.4072,3.7331,-15.1774,-12.4049,5.1291,2.5071,16.1992,-1.7405,-11.1122,2.3319,4.4200,3.1000,-2.6923,4.8781,4.2363,-8.5451
2117.1875,4.4286,-8.0288,-7.0009,0.5849,4.1890,-14.4972,-11.7367,4.2467,5.9923,14.7547,-0.3203,-6.8254,3.5791,4.5974,3.1953,-11.2417,6.7783,4.5904,-7.6613
2121.0938,8.6530,-3.4675,-6.2963,-1.0016,5.0651,-12.2028,-9.2994,1.6599,10.3468,11.0823,0.9990,-6.9845,4.5182,2.8541,2.5315,-12.0289,8.2109,2.2779,-7.4857
2125.0000,14.8617,0.5344,-4.2236,-3.3699,5.9749,-8.8099,-4.4935,-1.2458,13.3133,6.6503,2.8126,-9.9079,5.0960,0.1601,1.7379,-6.7890,8.5855,-1.7037,-6.6101
2128.9062,19.5205,1.0647,-0.1006,-5.2194,6.2774,-5.0976,2.3470,-3.0719,13.4609,2.6090,4.8604,-12.3081,5.1937,-2.2849,1.5426,-3.1293,7.6434,-5.3726,-3.9893
2132.8125,19.8724,-2.6279,5.4036,-6.0390,5.6325,-1.6054,9.7020,-3.4895,10.9921,-0.9099,5.8636,-11.7677,4.6437,-3.8535,2.1378,-7.0655,5.6675,-7.3748,-0.0053
2136.7188,15.8834,-8.7324,10.3445,-6.4233,4.3489,1.4893,15.3865,-3.3611,7.3923,-4.4372,4.3916,-8.5598,3.3379,-4.7022,3.0810,-16.9931,3.3201,-7.9511,3.6118
2140.6250,10.4258,-14.1163,12.6544,-7.3806,3.2279,4.1204,17.7432,-3.8407,4.2320,-8.1867,0.1310,-5.4571,1.3869,-5.3234,3.7577,-24.4303,1.2726,-8.5451,5.0672
2144.5312,7.3716,-16.2193,11.5929,-9.2929,2.9955,6.0634,16.7465,-5.2692,2.0696,-11.4658,-5.4807,-5.5649,-0.7786,-5.9261,3.9339,-21.1270,-0.0763,-10.4624,3.9924
2148.4375,8.8556,-14.3134,8.3651,-11.4683,3.7484,6.9890,14.1320,-6.8456,0.2853,-13.1232,-9.8666,-9.7004,-2.4846,-6.2325,3.8877,-6.6259,-0.6288,-13.7274,1.8811
2152.3438,13.6875,-9.4747,5.3408,-12.6890,4.8368,6.8316,12.2984,-7.3640,-2.0967,-12.6812,-10.8340,-15.3248,-3.1067,-5.8559,4.0280,10.2579,-0.4520,-17.0535,1.0156
2156.2500,18.1241,-3.5881,4.4008,-12.2624,5.2852,6.1026,12.6869,-6.3547,-5.3483,-11.0728,-7.9663,-18.0237,-2.4576,-4.8658,4.3924,17.6809,0.3024,-18.8793,2.6757
2160.1562,18.4661,1.7427,5.6604,-10.6317,4.4464,5.7561,14.8325,-4.5868,-8.6567,-10.1476,-2.9031,-14.6581,-1.0236,-3.9509,4.5233,9.9533,1.3231,-18.5560,6.0717
2164.0625,13.5744,5.6963,7.5603,-8.9822,2.4195,6.5813,16.8334,-3.4331,-10.7534,-11.1807,1.6843,-5.9236,0.1638,-3.9430,3.8679,-7.7414,2.0344,-16.7045,8.9109
2167.9688,5.4827,8.0994,8.2380,-8.1763,-0.0564,8.5467,16.8983,-3.6081,-11.0192,-13.6098,3.7124,3.7130,0.0296,-5.0664,2.3570,-23.0384,1.6870,-14.5201,9.1925
2171.8750,-2.2495,9.0815,7.0610,-7.9750,-2.1336,10.6584,14.7597,-4.4040,-10.1201,-15.2061,2.8292,8.9000,-1.9363,-6.5856,0.6263,-25.6821,-0.2865,-12.7081,6.7971
2175.7812,-7.0970,8.9186,5.0715,-7.2861,-3.4190,11.5483,11.8229,-4.1811,-9.6077,-13.7742,0.3994,7.1651,-5.3578,-7.2491,-0.3677,-15.0482,-3.8633,-11.0159,3.5711
2179.6875,-9.0913,8.0811,3.9918,-5.2808,-4.1837,10.4343,9.9355,-1.8070,-10.7749,-9.1326,-1.5368,0.7913,-9.1894,-6.2610,-0.0732,0.0361,-8.3117,-8.7531,1.8146
2183.5938,-10.2739,7.2058,4.6377,-2.4055,-5.1112,7.7454,9.7913,2.1424,-13.6736,-3.7074,-1.5720,-4.7147,-12.3618,-4.0148,1.1595,8.8430,-12.5334,-5.7815,2.3960
2187.5000,-12.7103,6.8051,6.0948,-0.3180,-6.7984,4.9041,10.3012,5.5156,-17.0793,-1.0394,0.3109,-4.5802,-14.4250,-1.9422,2.2130,7.3668,-15.6689,-3.0064,4.0407
2191.4062,-16.7485,6.8834,6.3911,-0.6532,-9.3634,3.3666,9.4771,6.0935,-19.4136,-3.1599,2.8926,1.7226,-15.7302,-1.5065,1.8863,0.9508,-17.5242,-1.8217,4.3925
2195.3125,-20.8657,6.8557,4.1417,-3.5623,-12.3954,3.6037,6.1103,3.3468,-19.8704,-8.8203,4.5469,10.0695,-17.0068,-3.0780,-0.3625,-1.0981,-18.4895,-2.8959,1.9857
2199.2188,-23.0716,5.9789,-0.1977,-7.2752,-15.2218,4.7754,0.8438,-0.9856,-18.8516,-14.0540,4.1767,14.7675,-18.6501,-5.5729,-4.1131,5.7733,-19.0293,-5.3346,-2.4983
2203.1250,-22.5931,4.0445,-4.5567,-9.1917,-17.2775,5.3603,-4.2926,-4.0533,-17.4200,-14.8220,1.7394,12.8537,-20.2794,-7.1809,-8.2545,16.7828,-19.1922,-7.0315,-6.7470
2207.0312,-20.4469,1.7583,-6.8390,-7.7638,-18.3427,4.2871,-7.5400,-3.9566,-16.2961,-9.8573,-1.8400,6.3480,-20.9480,-6.6581,-11.5620,21.4104,-18.5907,-6.0737,-8.7102
2210.9375,-18.5225,0.4004,-6.6212,-3.7149,-18.5515,1.7449,-8.8983,-1.1196,-15.2846,-1.5885,-5.2398,0.6898,-19.8942,-4.2111,-13.1798,12.3835,-16.9036,-2.1672,-8.3285
2214.8438,-18.0386,0.9188,-5.5698,0.4214,-18.2346,-0.9180,-10.1775,2.1188,-13.6158,5.5704,-7.4627,0.5057,-17.2742,-1.3069,-12.8062,-7.3534,-14.4707,3.0429,-7.6658
2218.7500,-18.6767,3.1231,-6.1947,2.1652,-17.7253,-2.1206,-13.5005,3.3848,-10.8746,8.2994,-8.3464,5.9423,-14.2796,0.4265,-10.6633,-25.6471,-12.4041,7.0604,-9.2949
2222.6562,-19.0314,5.6469,-9.8837,0.9459,-17.2332,-1.1170,-19.4290,2.1275,-7.6658,6.5302,-8.6067,12.4252,-12.4677,0.3477,-7.4326,-29.7240,-11.9891,8.2462,-14.2012
2226.5625,-17.8900,6.7939,-15.7528,-1.4959,-16.8092,1.5525,-26.2343,-0.0249,-5.3737,3.1240,-9.3747,14.1015,-12.7250,-0.8698,-4.1919,-15.8179,-13.7394,6.8697,-20.8662
2230.4688,-15.2231,5.6944,-21.2011,-2.4921,-16.3766,4.5050,-30.9473,-0.6808,-5.1465,1.4277,-11.4548,8.3733,-14.5998,-1.9151,-2.2124,7.6604,-16.8241,4.7444,-26.2533
2234.3750,-12.1140,2.9278,-23.7193,-0.5344,-15.7935,6.4706,-31.4118,1.2976,-6.9215,2.6666,-14.7307,-1.9499,-16.5120,-1.9138,-2.5007,25.9249,-19.3856,3.7894,-27.9183
2238.2812,-9.8014,0.1388,-22.5459,3.5739,-14.9205,7.0404,-27.7706,4.8339,-9.3194,5.1836,-18.1267,-10.5620,-16.7361,-1.0059,-5.2291,28.1748,-19.6217,4.6652,-25.6155
2242.1875,-8.7173,-1.0819,-18.9472,7.4060,-13.6710,6.7027,-22.2744,7.5283,-10.5496,6.0271,-20.2251,-12.2255,-14.4933,-0.0021,-9.4453,14.7144,-16.9140,6.5102,-21.2277
2246.0938,-8.2933,-0.2531,-15.0367,8.8740,-12.0216,6.2331,-17.6277,7.6710,-9.6496,3.5399,-20.1998,-6.5675,-10.4056,0.5165,-13.3978,-4.2490,-12.2076,7.8785,-17.2087
2250.0000,-7.5785,1.7336,-12.1898,7.8902,-9.9820,5.9791,-15.1983,5.7145,-7.0996,-1.1414,-18.4390,1.7064,-6.0192,0.8235,-15.4135,-16.7245,-7.3679,8.0216,-14.8549
2253.9062,-6.0302,3.2672,-10.3278,6.3974,-7.5599,5.5989,-14.4306,3.9723,-4.3492,-4.8501,-16.3687,6.2624,-2.7655,1.8250,-14.8101,-17.4872,-3.9766,7.4401,-13.7350
2257.8125,-3.7958,3.0717,-8.5193,6.7527,-4.7736,4.4116,-13.7601,4.7546,-2.6624,-4.7849,-15.5101,3.6082,-1.1056,4.1670,-12.2103,-10.7509,-2.4210,7.2980,-12.5583
2261.7188,-1.3623,0.9224,-6.2112,9.7716,-1.7304,2.0235,-12.1248,8.4432,-2.2078,-0.6441,-16.3803,-4.7042,-0.4280,7.4570,-9.0092,-5.6103,-1.8816,8.2707,-10.5709
2265.6250,0.9629,-2.3781,-3.9187,14.0061,1.2866,-1.2919,-9.7815,13.0806,-2.0945,5.1404,-18.0294,-13.5796,0.3079,10.3260,-6.3678,-8.4637,-1.1415,9.8575,-8.2279
2269.5312,3.1944,-5.6117,-2.7613,16.8413,3.8332,-4.7458,-7.8389,15.8400,-1.2582,9.1934,-18.6099,-18.1994,1.7273,11.3673,-4.4705,-18.4553,0.4546,10.7699,-6.6284
2273.4375,5.3420,-7.8357,-3.2962,16.5425,5.4863,-7.5629,-7.0510,15.2292,0.5756,9.5890,-16.6504,-17.1872,3.6407,10.2353,-2.5919,-28.9766,2.6152,10.0697,-6.3213
2277.3438,7.0453,-8.7234,-4.7496,13.6317,6.1257,-9.4480,-7.0046,12.2823,2.6540,7.0313,-12.1671,-12.9231,5.3423,8.0111,0.1178,-33.2556,4.5189,8.0752,-6.6275
2281.2500,7.6519,-8.4843,-5.4078,10.5131,6.1250,-10.6423,-6.4187,9.7895,3.8447,4.0275,-6.8198,-9.1793,6.3034,6.4875,3.7768,-29.1786,5.6188,6.2233,-6.1211
2285.1562,6.7682,-7.5955,-3.9144,9.6407,6.2551,-11.5795,-4.2570,10.1638,3.5862,2.8176,-2.9685,-8.2396,6.6641,6.8820,7.5355,-19.7907,6.1445,5.9384,-3.8568
2289.0625,4.7797,-6.5956,-0.4034,11.6438,7.2775,-12.4732,-0.6516,13.5926,2.3224,3.7011,-2.2502,-9.7543,7.1192,8.9437,10.1366,-9.8815,6.8930,7.3928,-0.2541
2292.9688,2.7738,-5.9939,3.4990,14.8238,9.4356,-13.1838,3.1625,17.8697,1.0739,4.9750,-4.6197,-11.8719,8.2994,11.1231,10.8000,-2.1606,8.5013,9.1716,3.1598
2296.8750,1.7995,-6.1749,5.8436,16.3534,12.1856,-13.4421,5.8140,19.9739,0.5462,4.3863,-8.4535,-13.2529,10.1616,11.6607,9.7247,3.7089,10.8147,9.1634,4.9465
2300.7812,2.0296,-7.2174,5.7647,14.2307,14.4006,-13.1821,6.7977,18.1451,0.5672,0.8809,-11.5786,-14.0277,11.9011,9.7669,7.8425,8.9497,12.8853,6.0456,4.8726
2304.6875,2.5641,-8.7298,4.0069,8.5531,14.9822,-12.6518,6.6742,12.9211,0.3450,-4.6676,-12.4991,-14.9731,12.4874,6.0502,6.0951,13.0052,13.6280,0.2711,4.0006
2308.5938,2.1204,-9.9185,2.1976,1.2911,13.5206,-12.1866,6.3856,6.5033,-0.6909,-10.1688,-11.0525,-15.9569,11.4320,1.9675,4.8732,13.2293,12.6364,-6.1566,3.7039
2312.5000,0.1058,-9.9780,1.5283,-5.1001,10.5739,-11.8503,6.3978,1.1184,-2.2262,-13.7773,-8.2063,-15.4137,9.2022,-1.1875,4.0562,7.3455,10.5297,-10.9297,4.4883
2316.4062,-2.8016,-8.6124,1.9536,-9.1198,7.3638,-11.2996,6.4794,-2.3042,-3.1974,-14.9641,-5.2916,-11.6217,6.9519,-2.9760,3.5122,-3.6963,8.5586,-12.8022,5.6524
2320.3125,-5.0676,-6.3042,2.5148,-10.7513,5.0654,-10.0466,6.2584,-4.2583,-2.6610,-14.5212,-3.2491,-4.7478,5.7505,-3.7671,3.4880,-15.3697,7.7565,-12.1565,6.0588
2324.2188,-5.4172,-4.0685,2.4017,-10.9552,4.1378,-7.9469,5.9113,-5.7743,-0.6727,-13.7108,-2.3028,2.3263,5.8620,-4.1703,4.4314,-22.4426,8.2479,-10.5015,5.2931
2328.1250,-3.7836,-2.8024,1.7499,-10.7690,4.1161,-5.5030,6.1798,-7.4545,1.5925,-13.3507,-2.0859,5.5370,6.5878,-4.5286,6.3582,-22.8150,9.1925,-9.3871,4.1344
2332.0312,-1.3656,-2.6798,1.4548,-10.7660,3.9752,-3.6774,7.5688,-9.2333,2.6396,-13.4901,-1.9769,2.6487,6.7700,-4.8710,8.3873,-19.0281,9.3646,-9.5279,3.8760
2335.9375,0.2062,-3.0578,2.2015,-11.1155,2.7999,-3.2840,9.4533,-10.8669,1.7508,-13.7194,-1.4053,-4.6209,5.5760,-5.2183,9.0223,-15.9958,7.9234,-10.6342,5.0763
2339.8438,-0.0926,-2.9943,3.6365,-11.8900,0.3198,-4.3813,10.0723,-12.4702,-0.5104,-13.6585,-0.0567,-11.2920,3.0032,-5.8080,7.1464,-16.7264,4.8383,-11.8650,6.8755
2343.7500,-2.2131,-2.0050,4.4966,-13.1433,-3.0138,-6.1340,7.6922,-14.4625,-2.8187,-13.1678,1.9833,-12.4305,-0.2276,-6.9333,3.0066,-19.6008,0.7317,-12.4400,7.5584
2347.6562,-5.3658,-0.4759,3.6538,-14.6673,-6.4019,-7.2783,2.1418,-16.9539,-4.2137,-12.2305,4.1602,-6.7087,-3.2576,-8.5453,-1.6730,-19.5837,-3.6592,-11.9977,5.9625
2351.5625,-8.7179,0.6113,1.1833,-15.7926,-9.2284,-6.8808,-4.5905,-19.2429,-4.9081,-10.8063,5.5752,2.5295,-5.6914,-10.0756,-4.7071,-12.5097,-7.9593,-10.6146,2.5443
2355.4688,-11.8055,0.4641,-1.5163,-15.6332,-11.3843,-4.8567,-9.3919,-20.0605,-6.0931,-8.9205,5.3841,9.6330,-7.7702,-10.7768,-4.9433,1.0080,-12.2354,-8.6652,-0.8540
2359.3750,-14.4048,-0.8083,-2.7360,-13.7325,-13.2019,-1.8981,-10.0823,-18.5023,-8.8817,-6.9011,3.3357,10.7201,-10.0303,-10.3727,-3.1141,15.2860,-16.6852,-6.6926,-2.4182
2363.2812,-16.1774,-2.1148,-1.8048,-10.5738,-15.0901,1.0890,-6.9535,-14.8725,-13.2478,-5.4084,0.0871,6.3804,-12.7504,-9.4264,-1.3294,23.2775,-21.2320,-5.2839,-1.8122
2367.1875,-16.6182,-2.0399,0.3557,-7.3987,-17.1473,3.5828,-2.5441,-10.6205,-17.8459,-5.0360,-3.0326,0.9386,-15.6335,-8.9840,-1.5142,21.4910,-25.3594,-4.8543,-0.4367
2371.0938,-15.4807,0.1980,1.9607,-5.3232,-19.0082,5.6303,0.2435,-7.2878,-20.8911,-5.7091,-4.7909,-1.1059,-17.9626,-9.6669,-3.9484,12.3950,-28.3066,-5.3612,-0.2411
2375.0000,-13.2911,4.1574,1.7860,-4.4114,-20.0125,7.5336,0.2363,-5.2827,-21.4210,-6.4354,-4.8887,1.3511,-19.0909,-10.9467,-7.0447,2.5663,-29.4620,-6.1740,-2.0583
2378.9062,-11.3492,8.3688,0.1011,-3.5276,-19.5800,9.3669,-1.3586,-3.5486,-19.9496,-5.8028,-4.2451,5.2518,-18.8762,-11.3140,-8.5797,-1.9067,-28.6717,-6.3338,-4.8692
2382.8125,-11.0058,11.1828,-1.6790,-1.2243,-17.5681,10.7727,-2.2488,-0.5026,-18.0128,-3.0166,-4.4313,6.0014,-17.7328,-9.3725,-7.4660,0.6802,-26.2750,-5.1684,-6.6630
2386.7188,-12.6741,11.6926,-2.3306,2.9563,-14.4159,11.2287,-1.2110,4.4622,-16.9958,1.2792,-6.5714,1.3891,-16.2842,-5.0693,-4.6986,7.1148,-22.8908,-2.8642,-6.2196
2390.6250,-15.3775,10.1306,-2.0094,7.8315,-10.9978,10.5458,0.7002,10.1771,-17.1924,5.1328,-10.4826,-6.3138,-14.9121,-0.0329,-2.7155,12.0704,-19.1365,-0.5012,-4.3305
2394.5312,-17.2940,7.5339,-2.2566,11.2177,-8.2525,9.1387,0.9255,14.3663,-17.8224,6.4455,-14.7186,-11.7713,-13.5591,3.4078,-3.6223,11.8356,-15.4499,0.6079,-3.3801
2398.4375,-16.9775,4.9847,-4.7748,11.4858,-6.7592,7.7872,-2.4500,15.3511,-17.9188,4.4129,-17.5573,-10.4673,-11.9159,3.8993,-7.6112,6.2707,-12.0654,-0.1249,-5.5370
2402.3438,-14.3643,2.9944,-9.9617,8.8680,-6.4657,7.0457,-8.9433,13.4469,-17.2805,0.1874,-18.2559,-2.1050,-9.8110,2.1684,-12.7706,-1.9579,-9.0684,-2.0324,-10.9643
2406.2500,-10.8045,1.4273,-16.4086,5.4543,-6.7176,6.7861,-15.7959,10.8729,-16.6526,-3.7966,-17.6548,9.0307,-7.4562,0.6223,-16.4262,-9.6562,-6.4455,-3.5695,-17.4912
2410.1562,-8.1105,-0.0767,-21.7847,3.7958,-6.6034,6.2885,-19.9276,10.1530,-16.9779,-5.4069,-17.6372,16.9676,-5.3392,1.6276,-16.9991,-14.8543,-4.1098,-3.4003,-22.0553
2414.0625,-7.3557,-1.5965,-24.4017,5.1206,-5.4607,4.8534,-20.1747,12.2134,-18.3749,-4.1797,-19.7718,17.9967,-3.8541,5.7118,-14.9981,-16.9399,-1.9519,-1.4022,-22.8230
2417.9688,-8.3034,-2.7825,-24.2192,8.5042,-3.2708,2.4577,-18.0228,15.6728,-19.7558,-1.4728,-24.0734,12.8101,-2.9832,11.0680,-12.4568,-15.7204,0.0596,1.2170,-20.3693
2421.8750,-9.7826,-3.1821,-22.5466,11.6174,-0.6950,-0.1027,-16.2720,17.9027,-19.4756,0.6841,-28.7629,5.4654,-2.3019,14.7997,-11.3190,-10.7987,1.7879,2.8437,-17.0538
2425.7812,-10.5749,-2.7419,-20.7844,12.4755,1.3074,-1.7567,-16.7423,17.0405,-16.5350,1.1599,-31.2337,0.2226,-1.3040,15.0177,-12.0445,-2.0536,2.9602,2.7612,-15.1438
2429.6875,-10.0587,-2.0238,-19.3079,10.8529,2.0772,-1.9970,-18.8795,13.3867,-11.3685,0.5298,-29.6053,-1.2658,0.2238,12.2203,-13.4641,9.2978,3.3699,1.8192,-15.1792
2433.5938,-8.2014,-1.8885,-17.3951,8.3268,1.6998,-1.3486,-20.3400,9.1179,-5.5588,0.5419,-23.8638,-0.4690,2.0903,8.9065,-13.8959,20.3152,3.1395,1.9051,-15.8002
2437.5000,-5.1356,-2.8421,-14.1615,6.9919,0.9885,-1.0465,-18.9946,6.5895,-0.6855,2.6960,-15.8800,-0.1812,3.9295,7.7093,-12.5534,27.3695,2.8236,4.5602,-15.0495
2441.4062,-0.8918,-4.5544,-9.5966,7.8987,0.9812,-2.1163,-14.6655,6.5986,2.7725,7.0413,-8.3484,-2.1072,5.5509,9.4589,-10.1071,28.0513,3.1823,9.7659,-12.0162
2445.3125,4.3946,-5.9745,-4.7552,10.4088,2.2600,-4.5382,-9.2040,7.9554,5.6005,12.0900,-3.3546,-5.7381,7.0760,12.6299,-7.9998,22.5422,4.6902,15.8208,-7.5110
2449.2188,10.0628,-6.0301,-0.9454,12.8736,4.5487,-7.1511,-4.9457,8.6197,8.9595,15.8591,-1.4419,-9.1488,8.7211,14.5586,-7.1432,13.3715,7.0908,20.4197,-3.3389
2453.1250,14.8642,-4.4163,1.3369,13.9855,6.8816,-8.4048,-2.9082,7.4095,13.1952,17.2062,-1.6491,-10.7572,10.4222,13.4704,-7.1129,3.7334,9.3660,22.1416,-0.8802
2457.0312,17.5503,-1.8632,2.7545,13.6896,8.2532,-7.4205,-2.2271,4.8958,17.3549,16.4544,-2.3498,-10.4730,11.6854,9.7747,-6.5231,-4.3599,10.2608,21.2603,-0.1668
2460.9375,17.7556,0.3726,4.4403,12.9858,8.3133,-4.5788,-1.1882,2.8287,19.8408,14.9154,-2.2790,-9.4031,11.8904,5.6886,-4.2795,-10.7769,9.1049,19.3280,-0.1148
2464.8438,16.4197,1.4367,6.9011,12.8996,7.6224,-1.2053,1.1648,2.6535,19.6925,13.7711,-1.1240,-8.6037,10.8733,3.5458,-0.6731,-16.5017,6.3946,17.9092,0.4392
2468.7500,15.2568,1.5022,9.5232,13.5343,7.2672,1.3854,4.2984,4.3662,17.4503,13.2176,0.5722,-8.1180,9.3014,4.1121,2.6177,-22.2425,3.6747,17.4481,1.8599
2472.6562,15.5421,1.5494,11.1548,13.9728,8.0849,2.7554,6.9228,6.5844,14.8621,12.4794,1.9899,-7.1362,8.4219,6.1463,3.6871,-27.6022,2.6852,17.0784,3.6904
2476.5625,17.1156,2.4092,11.2536,13.0344,10.0253,3.4797,8.4173,7.6676,13.6165,10.5753,2.6356,-5.0284,9.2281,7.4365,1.8635,-31.3586,4.2603,15.4216,5.3430
2480.4688,18.4236,3.8164,10.5279,10.2043,12.1042,4.5006,9.5402,6.8924,14.0723,7.1592,2.5787,-2.2238,11.5997,6.4310,-1.6518,-32.3998,7.6986,11.6792,6.7321
2484.3750,17.6466,4.3069,10.4033,5.9866,13.0031,6.2491,11.6798,4.7593,14.9765,2.7885,2.2318,-0.0980,14.1163,3.2269,-4.4883,-30.3959,11.0775,6.1870,8.2141
2488.2812,14.1072,2.2029,11.6949,1.4836,11.9342,8.2361,15.2855,2.3296,14.3993,-1.4973,1.9008,0.0418,14.8312,-0.7138,-4.6627,-25.6897,12.3820,0.0998,9.9342
2492.1875,8.9045,-2.9439,13.6473,-2.3445,9.2061,9.4145,18.9680,0.3138,11.1759,-4.8561,1.4681,-2.0154,12.5884,-3.7337,-1.8681,-18.7100,10.7607,-5.4236,11.3111
2496.0938,4.2969,-9.5599,14.2928,-5.1079,6.1176,8.9937,20.2748,-1.2608,5.7664,-7.0289,0.4609,-5.2224,7.9845,-5.0474,2.4063,-9.6533,7.1002,-9.8483,11.3058
2500.0000,2.2846,-14.6605,11.9918,-6.8597,4.2413,7.0503,17.6833,-2.6211,-0.0864,-8.2264,-1.5311,-8.0679,3.2219,-4.9522,5.9560,1.1513,3.5256,-13.2857,9.3700
2503.9062,3.3951,-15.6203,6.9486,-7.7124,4.5334,4.4706,12.1746,-3.6320,-4.5953,-8.7686,-4.3880,-9.6077,0.8339,-4.2195,7.3123,12.5457,2.1269,-16.0514,6.2421
2507.8125,6.4490,-11.9361,1.3852,-7.6892,6.7946,2.3083,6.9235,-3.7283,-7.1086,-8.8837,-7.3175,-9.8718,2.0661,-3.3398,6.5324,22.3263,3.7087,-18.2543,3.7467
2511.7188,9.3259,-5.6999,-1.9263,-6.9650,9.7723,1.0860,5.1218,-2.5437,-8.3870,-8.8130,-9.2165,-9.4185,6.0038,-2.2882,4.8611,28.0036,7.3392,-19.7781,3.5509
2515.6250,10.0935,-0.3477,-1.7181,-6.1598,11.8090,0.5746,7.5470,-0.6197,-9.8684,-8.9888,-9.3598,-8.5837,10.0649,-0.8942,3.6502,28.1776,10.9434,-20.5744,5.7852
2519.5312,7.7888,1.5199,0.7562,-6.1999,11.6554,0.1663,11.8360,0.6240,-12.5650,-9.9405,-7.9630,-7.1921,11.5645,0.6724,3.4186,23.5215,12.5259,-20.8714,8.6972
2523.4375,2.5786,-0.2581,2.6251,-7.6601,9.0219,-0.5136,14.1627,-0.1416,-16.4276,-11.8676,-6.1793,-4.9716,9.3243,1.8569,3.7188,16.5259,11.2424,-21.0103,9.7766
2527.3438,-4.4942,-3.4857,1.6016,-10.0797,4.6258,-1.2657,12.1100,-2.9577,-20.5487,-14.2347,-5.4366,-2.1719,4.2808,2.1929,3.7809,10.0531,7.7006,-21.0410,7.6056
2531.2500,-11.8613,-5.2857,-2.2102,-11.9529,-0.2322,-1.4940,6.5220,-6.2339,-23.9019,-15.8605,-6.4900,0.3495,-1.2577,1.8268,3.3014,5.6936,3.4007,-20.5169,3.0220
2535.1562,-17.7991,-4.1217,-6.3393,-11.6356,-4.3154,-0.7137,0.8711,-7.7462,-25.9658,-15.6208,-8.8228,1.7919,-5.1432,1.5275,2.6958,3.1204,-0.2390,-18.8019,-1.3725
2539.0625,-20.9404,-0.7138,-7.8312,-8.6156,-7.0021,1.0355,-1.3884,-6.3411,-26.8131,-13.3188,-10.8607,2.2460,-6.6557,2.0731,2.6385,0.9134,-2.6371,-15.7280,-3.0668
2542.9688,-20.9152,2.7357,-5.5495,-4.1502,-8.4914,3.1796,0.5757,-3.0009,-26.7600,-10.0001,-10.9346,2.8198,-6.7133,3.5079,3.3307,-1.8044,-4.1741,-12.0314,-1.4815
2546.8750,-18.7466,4.3071,-1.1078,-0.6295,-9.5788,4.9705,4.4259,-0.3065,-26.0131,-7.3275,-8.3983,4.7337,-6.9963,4.9512,4.1572,-4.2392,-5.7207,-9.0766,1.6108
2550.7812,-16.4939,3.7266,2.2969,0.0132,-11.1201,5.9184,6.5427,-0.5718,-24.6419,-6.3657,-4.1540,8.0384,-8.6857,5.2119,4.0670,-4.2925,-7.9530,-7.9342,3.4138
2554.6875,-16.0495,2.3402,2.2499,-2.2898,-13.4640,6.0061,4.8120,-4.0472,-22.7984,-6.6852,-0.2092,11.1237,-11.6931,3.7602,2.3991,-0.2889,-10.9011,-8.4773,2.1663
2558.5938,-17.7391,1.8575,-1.1387,-5.6120,-16.1745,5.6114,0.1115,-8.6326,-20.8385,-6.5622,1.4690,11.6725,-14.8317,1.2511,-0.4987,7.1685,-13.9689,-9.2621,-1.6399
2562.5000,-19.8059,2.9796,-5.4299,-7.3606,-18.2401,5.2725,-4.6164,-11.4014,-19.1156,-4.2531,0.0643,8.5115,-16.6997,-0.8913,-3.3707,14.7015,-16.3529,-8.4174,-5.7833
2566.4062,-19.4322,5.0283,-7.7866,-6.1118,-18.6916,5.4569,-6.8741,-10.7967,-17.6098,0.5523,-3.7091,2.9078,-16.6092,-1.5477,-4.8366,17.6827,-17.5776,-4.9671,-8.1139
2570.3125,-14.8377,6.7843,-7.1200,-2.5773,-17.2733,6.3859,-6.6454,-7.7784,-15.8103,6.2363,-8.1468,-1.8974,-14.9584,-0.7833,-4.2982,13.0439,-17.8257,0.3951,-8.1985
2574.2188,-7.0001,7.7025,-4.8196,1.0324,-14.7188,7.8853,-6.3454,-4.9909,-13.1034,10.2021,-11.5952,-2.8087,-12.8888,0.2088,-2.3218,1.6021,-17.8708,5.7100,-7.5490
2578.1250,0.4312,8.3864,-3.5877,2.7494,-12.3853,9.2961,-8.7811,-4.5866,-9.4396,10.6612,-13.2995,0.8403,-11.5435,0.0975,-0.2414,-11.7638,-18.6255,9.0856,-8.3195
2582.0312,3.2634,9.8845,-5.3614,2.3387,-11.4116,9.5919,-14.7938,-6.4275,-5.6970,7.9627,-13.5838,6.6215,-11.4275,-1.4362,0.7121,-20.5033,-20.5272,9.9759,-11.5528
2585.9375,-0.3927,12.4473,-9.9363,1.3815,-11.9312,7.8262,-22.4509,-8.1169,-3.3054,4.4370,-13.3888,10.6072,-12.2208,-3.3266,0.1383,-20.0987,-23.1017,9.4394,-16.3583
2589.8438,-8.5870,14.8981,-15.2639,1.9110,-12.9071,3.7931,-28.3734,-6.8711,-3.2814,2.8099,-13.5870,10.1285,-13.0700,-3.8683,-1.4141,-10.8345,-25.0117,9.1796,-20.6154
2593.7500,-16.5394,15.2795,-19.0526,4.6944,-12.7794,-1.5141,-30.0983,-1.7751,-5.3874,4.3121,-14.5325,5.6380,-13.1240,-2.0276,-2.9397,2.2100,-24.6717,10.1125,-22.5796
2597.6562,-19.6238,12.3341,-20.3482,8.5306,-10.5502,-6.1081,-27.6423,5.3588,-8.1367,7.8604,-16.0261,0.2380,-12.0068,1.6960,-3.6763,12.1120,-21.1684,11.5817,-22.1040
2601.5625,-16.2846,6.6045,-19.9104,11.1211,-6.5677,-7.9750,-23.1624,11.2245,-9.7585,10.8979,-17.5628,-2.7826,-9.9997,5.5377,-3.5298,14.2500,-14.9581,11.8475,-20.5627
2605.4688,-8.8431,0.1813,-19.2536,10.8345,-2.4100,-6.3236,-19.1517,13.4106,-9.4489,11.2520,-18.6208,-2.5072,-7.8653,7.6710,-3.0077,9.0088,-7.8351,9.4865,-19.6285
2609.3750,-1.6687,-4.7748,-19.2713,7.9911,0.1317,-2.2824,-16.6866,12.1145,-7.9382,8.6358,-18.8559,-1.0605,-6.3978,7.4393,-2.8031,1.2528,-2.0491,4.6287,-19.9381
2613.2812,1.8993,-7.5687,-19.5944,4.6843,0.3118,1.5469,-15.0527,9.8914,-6.8823,4.7294,-18.2119,-1.8718,-5.9205,5.7123,-3.3512,-3.1050,0.9828,-0.9240,-20.6906
2617.1875,1.6355,-9.2990,-19.1226,3.2914,-0.9650,2.5349,-12.8565,9.6733,-7.5101,1.8737,-16.9792,-6.8920,-6.0105,4.1572,-4.6080,-1.1256,1.5631,-4.8060,-20.4186
2621.0938,0.0992,-11.6829,-17.1705,4.8140,-1.6857,-0.4213,-9.5410,12.5976,-9.5809,1.4324,-15.7450,-14.9356,-5.6668,4.0375,-6.0907,5.2998,1.5463,-5.6081,-18.2397
2625.0000,0.3194,-15.3475,-14.2045,8.2669,-0.1148,-6.2695,-6.0057,17.2653,-11.5018,3.0436,-15.1419,-22.4138,-3.9052,5.4529,-7.0770,11.0148,3.1157,-3.7068,-14.5714
2628.9062,3.3613,-19.0538,-11.5604,11.4932,3.9162,-12.5287,-3.8755,20.8956,-11.5487,5.2132,-15.4310,-25.8516,-0.4672,7.5157,-6.8642,11.3935,7.2598,-0.8448,-10.8003
2632.8125,7.6141,-20.5949,-10.4109,12.7086,8.7457,-16.8473,-4.1083,21.3968,-9.2356,6.6320,-16.1769,-24.2168,3.8382,9.1995,-5.0523,5.5619,12.9968,1.1579,-8.2452
2636.7188,10.2188,-18.7264,-10.8528,11.6045,11.8979,-18.2972,-6.1261,18.7573,-5.7285,7.0934,-16.3387,-19.3176,7.4854,10.1134,-1.8209,-3.3053,17.9578,1.5777,-7.2698
2640.6250,9.4128,-14.5506,-11.8363,9.2803,11.7262,-17.5497,-8.1496,14.7957,-2.9480,7.3119,-14.8729,-14.1132,9.1581,10.6068,1.9272,-10.7183,20.0012,1.0221,-7.1860
2644.5312,5.9395,-11.1135,-11.9395,7.2079,8.5631,-15.9553,-8.4133,11.6161,-2.0623,7.9101,-11.5243,-10.4354,8.6725,11.2193,4.7393,-14.3861,18.7520,0.6596,-6.9066
2648.4375,2.4890,-11.3379,-10.3316,6.1125,4.5604,-14.3676,-6.2792,10.0447,-2.5853,8.5385,-7.2249,-7.9911,7.2096,12.0197,5.1820,-15.6528,15.9355,1.1254,-5.7400
2652.3438,1.6754,-15.7721,-7.1956,5.5904,2.3025,-12.6627,-2.4501,9.2035,-2.8276,7.9508,-3.6976,-5.3527,6.5778,12.4126,2.6068,-17.6756,14.1885,1.9589,-3.7135
2656.2500,4.1208,-21.8770,-3.3937,4.6165,3.1256,-10.2494,1.7272,7.3952,-1.3531,5.0241,-2.4198,-1.9255,7.9202,11.5470,-2.3306,-21.8771,15.1367,1.9575,-1.2984
2660.1562,8.0461,-25.4873,0.2266,2.4206,6.2850,-6.9984,5.1942,3.4780,1.7428,-0.1136,-3.6237,0.9448,10.7644,8.9516,-7.8102,-25.7663,18.1109,0.1181,1.0815
2664.0625,10.5815,-23.4827,3.2822,-0.9658,9.5217,-3.6770,7.6211,-2.3351,4.8084,-5.8151,-6.0626,0.8188,13.1731,4.8758,-11.6906,-24.2799,20.4771,-3.5611,3.2789
2667.9688,9.7798,-15.8057,5.7879,-4.8006,10.6114,-1.4437,9.1766,-8.7279,5.9464,-9.7984,-7.7453,-3.6396,13.0141,0.1151,-12.6091,-13.9592,19.4158,-7.9705,5.2566
2671.8750,5.9073,-5.4481,7.8059,-8.1352,8.8196,-0.8254,10.0386,-14.1975,4.6481,-10.5669,-7.1315,-10.9553,9.5247,-4.4616,-10.6538,3.2386,13.9276,-11.4826,6.8189
2675.7812,1.2110,3.5071,9.2565,-10.2719,5.2869,-1.1176,10.1828,-17.8458,2.4245,-8.3283,-3.9424,-17.1926,4.0478,-8.2715,-7.1611,19.7885,5.6404,-12.7958,7.6207
2679.6875,-1.5584,8.3601,10.0873,-10.9139,2.1400,-0.8352,9.5990,-19.5443,1.8493,-4.7809,0.9353,-18.3363,-0.6771,-11.0487,-3.7781,26.8003,-2.1747,-11.5049,7.5175
2683.5938,-0.8394,9.1156,10.5596,-10.1011,1.0000,1.0572,8.6011,-19.5972,4.6558,-1.9986,6.2420,-13.0260,-2.2705,-12.6808,-1.4475,19.8876,-6.7099,-8.1642,6.9059
2687.5000,2.8501,7.9336,11.2368,-8.1724,1.9278,4.1354,7.7900,-18.3945,10.2877,-1.2734,11.1001,-3.6042,-0.3400,-13.1432,-0.0164,2.4850,-7.3919,-3.9641,6.6217
2691.4062,7.2301,7.3363,12.5289,-5.8215,3.4852,6.6333,7.6019,-16.3808,16.0015,-2.6865,15.1215,5.3369,3.1656,-12.6430,1.3061,-15.9647,-6.1207,-0.2841,7.3284
2695.3125,9.4777,8.5417,14.1311,-4.0504,3.7852,6.7171,7.8398,-14.1988,18.4849,-5.5093,17.9136,9.8610,5.1547,-11.7665,3.0639,-25.8672,-5.8704,1.7067,8.8369
2699.2188,7.6462,10.9769,14.9195,-3.8061,1.7569,3.9686,7.6956,-12.6219,15.8635,-8.8942,18.6423,8.9536,3.3510,-11.3196,4.9735,-23.3501,-8.6719,1.3717,9.9771
2703.1250,1.6061,13.0339,13.5692,-5.3887,-2.2217,-0.1079,6.3722,-12.1105,8.7315,-12.2233,16.2883,4.6258,-2.3020,-11.8115,6.1114,-12.1517,-14.3507,-1.1610,9.2768
2707.0312,-6.8784,13.2937,9.5492,-8.0635,-6.6672,-3.0250,3.8506,-12.3105,-0.4034,-14.9579,10.5679,0.0204,-9.6949,-12.9356,5.6913,-0.4656,-20.7810,-4.9725,6.0414
2710.9375,-14.9486,11.3277,3.7380,-10.3210,-9.9766,-3.0307,1.1373,-12.0386,-8.7347,-16.3854,2.7463,-2.8606,-15.9449,-13.5596,3.7682,4.7181,-25.3357,-8.6775,1.0264
2714.8438,-19.9780,7.7166,-1.9061,-10.7853,-11.3552,-0.3105,-0.3126,-9.9890,-14.6555,-15.7639,-4.5482,-4.0830,-19.1252,-12.4131,1.2633,1.7019,-26.4638,-11.0733,-3.8817
2718.7500,-20.8219,3.5597,-5.4972,-9.1982,-11.1250,3.2358,0.3718,-5.7558,-18.2122,-12.9111,-8.6824,-4.8771,-19.1919,-9.0738,-0.7279,-5.9358,-24.3946,-11.7920,-6.8343
2722.6562,-18.3448,-0.0342,-6.4062,-6.7059,-10.3372,5.4446,2.7696,-0.3645,-20.4553,-8.7246,-8.7113,-5.9407,-17.6283,-4.4956,-1.7762,-12.7707,-20.6964,-11.5000,-7.2233
2726.5625,-14.8842,-2.2203,-5.6067,-5.1041,-10.0485,5.4276,5.3616,4.2295,-22.3913,-5.0060,-6.1192,-6.5387,-16.2349,-0.5544,-2.4003,-15.3599,-17.1975,-11.4056,-6.0298
2730.4688,-12.8918,-2.5424,-4.9107,-5.4954,-10.7455,4.0386,6.5162,6.4348,-24.3496,-3.4780,-3.9065,-5.1830,-15.9920,1.1815,-3.5355,-13.7090,-15.0604,-12.3292,-5.0526
2734.3750,-13.5336,-1.0773,-5.6593,-7.3421,-12.1921,2.9938,5.5393,6.1823,-26.0679,-4.6170,-4.5593,-1.2430,-16.7036,0.5957,-5.6201,-9.9261,-14.4831,-13.9881,-5.5920
2738.2812,-16.1302,1.4467,-7.8496,-8.6981,-13.6631,3.4351,3.0086,5.0249,-27.1757,-7.2173,-8.3641,3.9959,-17.4649,-0.8162,-8.0708,-5.8796,-14.9586,-15.0853,-7.5767
2742.1875,-18.7990,3.7938,-10.3362,-7.5504,-14.3454,5.1054,0.1733,5.0235,-27.5434,-9.1330,-13.3451,7.8555,-17.4278,-0.9807,-9.6220,-2.0482,-15.7093,-14.2324,-9.7761
2746.0938,-19.8356,4.7555,-11.9060,-3.3333,-13.7031,6.7271,-2.0823,7.2071,-27.2533,-8.7331,-16.8892,8.0536,-16.2780,1.2289,-9.2958,1.8050,-16.0000,-11.0810,-10.8959
2750.0000,-18.8347,3.8367,-12.3539,2.5165,-11.7134,7.1528,-3.9008,10.7636,-26.3883,-5.9997,-17.8068,4.3535,-14.2175,5.1022,-7.2297,5.3683,-15.3205,-6.7922,-10.6804
2753.9062,-16.7497,1.5841,-12.7015,7.4183,-8.9451,6.2636,-6.2536,13.5880,-24.9860,-2.4309,-17.2193,-1.2531,-11.6798,8.5303,-4.6740,7.5724,-13.5658,-3.4040,-10.1590
2757.8125,-14.9198,-0.7894,-14.3925,9.3253,-6.4382,4.8847,-10.0827,13.7807,-23.2473,0.1619,-17.5801,-5.9824,-9.1200,9.4757,-3.1284,7.7646,-11.2127,-2.4745,-10.8539
2761.7188,-13.9080,-2.2950,-18.1049,8.0131,-5.3442,3.8844,-15.4713,10.9666,-21.7265,0.9966,-20.6208,-8.1707,-6.9987,7.3981,-3.2811,6.9326,-9.2837,-3.9654,-13.5765
2765.6250,-13.1313,-2.9053,-23.1111,5.0663,-6.3870,3.3292,-21.4613,6.4659,-21.1496,0.7399,-25.8738,-8.1722,-5.7854,3.5888,-4.5832,7.3605,-8.9000,-6.2126,-17.7430
2769.5312,-11.5789,-3.5200,-27.6722,2.6427,-9.3844,2.4719,-26.6011,2.2566,-21.8498,0.7186,-30.9526,-7.6284,-5.7777,0.2035,-5.7792,10.5795,-10.5419,-7.0486,-21.7159
2773.4375,-8.9653,-5.1326,-30.1473,1.9952,-13.1537,0.5710,-29.7614,-0.4020,-23.2503,1.6536,-33.3525,-7.8357,-6.7795,-1.2385,-5.9443,15.3567,-13.5040,-5.2792,-23.8819
2777.3438,-6.2507,-7.8629,-29.9702,2.8532,-15.9834,-2.2365,-30.6206,-1.6114,-23.9367,3.0412,-32.3066,-8.6379,-7.9526,-0.7551,-5.1782,17.8497,-16.0624,-1.4428,-23.6407
2781.2500,-4.9788,-10.6975,-27.8013,4.0295,-16.5062,-4.8577,-29.5625,-2.3242,-22.4504,3.7256,-29.2093,-8.7522,-8.1316,0.4091,-4.4103,14.3397,-16.4304,2.6852,-21.6029
2785.1562,-5.9180,-12.2389,-24.8424,4.6289,-14.4828,-6.1131,-27.2178,-3.2268,-18.3100,3.1436,-26.3056,-7.1682,-6.5305,0.9463,-4.5167,4.5130,-13.9469,5.4335,-18.9505
2789.0625,-8.1797,-11.9064,-21.9389,4.8024,-10.9741,-5.8366,-24.1007,-4.0288,-12.4702,2.0829,-24.7724,-4.3341,-3.3679,0.5041,-5.5273,-7.6394,-9.6373,6.3869,-16.5506
2792.9688,-9.6845,-10.5701,-19.1864,5.4327,-7.7256,-5.2305,-20.6070,-3.7729,-6.7688,2.1718,-23.8006,-2.0354,0.1209,-0.2365,-6.6091,-16.5234,-5.6401,6.4984,-14.5305
2796.8750,-8.7485,-9.9796,-16.2661,7.0806,-6.1072,-6.0791,-17.2369,-1.8691,-2.6846,4.4226,-21.4410,-2.0245,2.4108,-0.3941,-6.8498,-19.3572,-3.8034,7.1406,-12.5710
2800.7812,-5.5561,-11.3156,-13.1002,9.1719,-6.2857,-9.3877,-14.6801,1.0973,-0.3209,8.0618,-16.4918,-4.5734,2.6951,0.1708,-6.1644,-18.5970,-4.4196,8.9033,-10.5463
2804.6875,-2.2432,-13.9861,-10.1749,10.2077,-7.1848,-14.5254,-13.5436,3.5631,1.5793,10.7667,-9.8301,-8.2287,1.4324,0.6631,-5.5268,-19.9576,-6.0408,11.1046,-8.8789
2808.5938,-1.3542,-15.7287,-8.2228,8.9120,-7.2650,-19.5755,-13.8801,4.1176,4.5433,10.3177,-4.0332,-11.0386,-0.0146,0.0893,-6.2747,-27.2268,-6.5502,12.3741,-8.2698
2812.5000,-3.7556,-14.1342,-7.5591,5.3941,-5.5956,-22.6331,-14.9410,2.6655,9.0116,6.4446,-1.5396,-12.2337,-0.4121,-1.7304,-9.0151,-38.0851,-4.7263,11.7863,-9.0463
2816.4062,-7.6316,-8.5768,-7.7058,1.3154,-2.4856,-23.0387,-15.4676,0.6285,13.7740,1.3427,-2.8066,-12.8943,0.4137,-3.8029,-13.0089,-44.8022,-1.1386,9.5922,-10.7265
2820.3125,-9.4510,-1.1053,-7.7020,-1.1883,0.7478,-21.6156,-14.4218,-0.0727,16.6822,-1.7172,-5.9338,-14.9482,1.4780,-4.6503,-16.5470,-39.9370,2.2985,6.9521,-12.2269
2824.2188,-6.3258,4.4983,-6.8909,-1.0780,2.6902,-19.8162,-11.6682,1.4771,16.1524,-0.7543,-8.0504,-19.2727,1.4666,-3.5426,-18.0459,-22.8629,3.7758,4.9115,-12.5897
2828.1250,1.8985,4.9918,-5.5199,0.7247,2.7702,-18.5532,-8.0936,4.3627,12.3495,3.3571,-7.3699,-24.5202,-0.1430,-1.2633,-17.0345,-1.7272,2.9380,3.4916,-11.6471
2832.0312,12.3217,-0.2163,-4.5941,1.8832,1.5814,-17.6841,-5.0318,6.3686,7.1697,7.3734,-4.3282,-27.7886,-2.5556,0.2823,-14.3252,11.3619,1.1065,1.6630,-10.0754
2835.9375,20.6631,-8.5633,-5.0327,0.2436,0.3965,-16.4840,-3.3748,5.5081,3.0312,7.9272,-1.0067,-26.7613,-4.1697,-0.6098,-11.3346,8.8106,0.2202,-1.7610,-8.7910
2839.8438,23.7450,-15.8110,-6.7861,-4.6683,0.2563,-14.5666,-2.9954,1.4241,1.3596,3.8817,0.5834,-21.6561,-3.7599,-4.1808,-9.1744,-6.6584,1.3266,-7.0405,-8.1911
2843.7500,21.1112,-18.5532,-8.6642,-11.3252,1.2902,-12.3549,-2.8906,-4.3597,1.8458,-2.9487,-0.0542,-15.3464,-1.4273,-8.9841,-8.2231,-23.5538,3.7893,-13.1204,-7.8710
2847.6562,14.8356,-16.1361,-9.0880,-17.2341,2.7198,-10.6633,-1.9309,-9.4796,2.9367,-9.2069,-1.7984,-11.4034,1.4240,-12.8782,-8.3837,-29.6982,5.8084,-18.2601,-7.0470
2851.5625,7.9101,-10.8103,-7.2344,-20.5190,3.4914,-9.8066,0.3316,-12.2510,3.0946,-12.4069,-3.0528,-11.4896,3.0802,-14.4768,-9.6012,-20.9273,5.8261,-21.1815,-5.3177
2855.4688,2.4864,-6.1199,-3.6934,-20.9079,3.0382,-9.1276,3.3678,-12.5604,1.8384,-12.5189,-3.0624,-14.1409,2.7303,-13.9641,-12.0284,-3.8518,3.7086,-21.8390,-3.1019
2859.3750,-0.8978,-4.6473,-0.1100,-19.5234,1.6239,-7.4832,6.0664,-11.5863,-0.1670,-11.6127,-2.3204,-15.9581,0.9732,-12.7176,-15.6406,9.3948,0.7899,-21.2547,-1.3680
2863.2812,-2.8955,-6.5498,1.9298,-17.8233,0.0505,-4.3538,7.4843,-10.7314,-1.9232,-11.9964,-1.8739,-14.3381,-0.7609,-12.1322,-19.7184,10.3454,-1.2415,-20.6326,-0.8696
2867.1875,-4.4040,-9.7194,1.9199,-16.6210,-1.0171,-0.5997,7.3873,-10.6866,-3.0855,-14.4021,-2.2902,-9.6131,-1.4189,-12.6330,-22.8439,0.2535,-1.7326,-20.5197,-1.5370
2871.0938,-5.9413,-11.3270,0.5927,-15.8996,-1.6002,1.9072,6.2151,-11.3010,-4.3229,-17.6085,-3.2479,-4.8600,-1.2240,-13.6326,-23.6453,-11.5308,-1.6484,-20.6671,-2.5518
2875.0000,-7.6658,-9.6926,-0.8510,-15.3714,-2.4344,1.6318,4.5757,-12.1719,-6.7963,-19.6340,-4.0435,-3.4507,-1.5618,-14.3512,-21.8083,-15.3481,-2.8930,-20.5847,-3.0552
2878.9062,-9.6994,-5.3099,-1.7644,-15.0982,-4.4644,-1.3160,2.7337,-13.2646,-11.1924,-19.3798,-4.4175,-6.2243,-3.9218,-14.6935,-18.4999,-8.8891,-6.8793,-20.1766,-2.8892
2882.8125,-12.2272,-0.4515,-2.4685,-15.5132,-8.1576,-5.0060,0.5311,-14.9283,-17.0613,-17.3470,-4.8320,-10.5398,-8.6809,-15.3712,-15.7187,1.3054,-13.4133,-19.8178,-2.7232
