Time,Fp1,F3,C3,P3,O1,F7,T3,T5,Fz,Fp2,F4,C4,P4,O2,F8,T4,T6,Cz,Pz
0.0000,-1.2825,-7.0535,-9.8298,3.6751,4.1509,-3.3961,-3.2355,6.2119,-4.0606,-0.2654,-8.7938,-2.1052,1.6262,12.6576,-6.2989,-3.5576,5.7357,-0.9280,-4.9328
3.9062,-2.0379,-11.6787,-9.7534,5.9322,6.9780,-7.8880,-3.8585,9.4030,-5.5670,0.9043,-6.6086,-6.5502,1.8706,16.5444,-5.1134,-6.4720,6.4146,-0.6521,-4.0254
7.8125,-0.4614,-16.1998,-8.4000,8.7804,12.7114,-12.4048,-3.2524,13.7467,-5.0679,2.7237,-3.6701,-13.2742,3.4725,20.4163,-2.9521,-9.4041,8.2450,0.2110,-2.3608
11.7188,3.9349,-18.2967,-4.9959,11.6720,20.1275,-14.4801,-0.4455,18.2065,-1.7791,5.1124,-0.4651,-20.2947,6.3298,23.0348,-0.0550,-11.3128,10.6653,1.5625,0.6194
15.6250,9.8227,-16.8785,0.1012,14.0031,26.6740,-12.9146,4.1377,21.4727,3.4490,7.5113,2.1915,-25.5363,9.4295,23.6432,2.5189,-11.8925,12.2972,3.0367,4.6865
19.5312,14.8301,-12.7425,5.4495,15.4008,29.9792,-8.5999,8.7148,22.6266,8.7579,9.1486,3.6888,-27.8253,11.5946,22.3413,3.5506,-11.6358,11.9208,4.4272,8.7629
23.4375,17.1730,-7.9701,9.4351,15.8533,29.3494,-3.9385,11.2558,21.5911,12.6638,9.5789,4.2295,-27.1881,12.4272,19.9084,2.7114,-11.3226,9.5064,5.9986,11.5806
27.3438,16.9333,-4.5080,11.4221,15.5913,26.1316,-1.2498,10.9106,19.0526,15.1023,9.0787,4.9800,-24.3883,12.6480,17.1602,1.1445,-11.3659,6.4331,8.3296,12.6063
31.2500,15.9829,-2.9531,12.2619,14.8319,22.6491,-1.2787,8.6915,15.9227,17.3007,8.5335,7.4691,-20.2028,13.4842,14.2912,0.9511,-11.5205,4.6021,11.7438,12.4953
35.1562,16.5695,-2.3741,13.7150,13.6037,20.5115,-2.8354,6.8592,12.7552,20.5916,8.8304,12.5190,-15.0589,15.5532,10.7084,3.7818,-11.1482,5.0420,15.7875,12.6515
39.0625,19.6182,-1.2179,17.1546,11.7984,19.5825,-3.7640,7.4202,9.5445,25.1476,10.1780,19.4563,-9.2523,18.1633,5.5278,9.5179,-9.7935,7.0782,19.2524,14.1641
42.9688,24.0369,1.4315,22.4898,9.3753,18.3590,-2.4989,10.8050,6.0028,29.6855,11.8760,26.2795,-3.4096,19.6758,-1.6050,16.1025,-7.6041,8.7646,20.8267,16.9278
46.8750,27.5446,5.1676,28.1157,6.4972,15.3877,0.8990,15.6536,2.0114,32.3972,12.7384,30.8163,1.3782,18.7332,-10.0049,20.7921,-5.2846,8.3146,19.9211,19.6602
50.7812,28.3649,8.5927,31.9468,3.4300,10.5327,4.8922,19.8060,-2.1882,32.3509,11.8763,32.1358,4.0252,15.4187,-18.1958,22.0102,-3.6465,5.4570,17.0212,20.8585
54.6875,26.4789,10.3357,32.7893,0.2811,5.0731,7.5879,21.7223,-6.2300,30.2191,9.2678,31.1963,4.2246,11.4000,-24.7957,20.4467,-3.1035,1.6660,13.2696,19.9912
58.5938,23.5069,9.9746,31.0678,-3.1444,0.6200,7.9687,21.3110,-10.0248,27.7437,5.7102,30.1931,2.8736,8.8783,-29.3864,18.5399,-3.4606,-0.9247,9.6083,18.0050
62.5000,21.3847,8.2333,28.4226,-7.1351,-2.1531,6.3971,19.6736,-13.8669,26.3892,2.2351,31.0104,1.6893,9.1129,-32.6596,18.6701,-4.0903,-1.0785,6.1952,16.7339
66.4062,20.9238,6.4100,26.5329,-11.5835,-3.8238,4.1643,18.1201,-18.0284,26.2950,-0.5323,33.8797,2.1731,11.6503,-35.6497,21.3911,-4.3150,0.7405,2.5906,17.6384
70.3125,21.3750,5.5323,26.0601,-15.6154,-5.2881,2.5432,17.2947,-22.1276,26.3684,-2.5865,37.2395,4.6281,14.8410,-38.5953,25.0303,-3.7247,2.9317,-1.4578,20.8224
74.2188,21.2530,5.8381,26.4440,-17.7736,-6.4294,2.0649,17.0341,-24.8829,25.3858,-4.2351,38.9207,7.9513,17.1991,-40.3436,26.9730,-2.2796,4.1978,-5.3579,25.0483
78.1250,19.6582,6.8421,26.5846,-16.8266,-5.6840,2.4484,16.8998,-24.6633,23.1229,-5.6190,37.7870,10.3784,18.4809,-38.8857,25.6681,-0.2313,4.6488,-7.8256,28.6866
82.0312,16.9782,7.7953,25.7802,-12.7426,-1.1017,3.0717,16.7815,-20.6139,20.5197,-6.5215,34.6072,10.6496,19.5988,-32.7782,21.8401,2.0160,5.6341,-7.8552,30.8193
85.9375,14.4362,8.1338,24.1709,-7.0982,7.7913,3.5194,17.0015,-13.5639,18.7398,-6.6303,31.5034,8.7583,21.4659,-22.4709,17.9976,4.0277,8.4172,-5.7679,31.6400
89.8438,12.9452,7.6497,22.4120,-2.4687,18.8527,3.7984,17.8737,-5.9264,17.9621,-5.9785,30.3972,5.7718,23.7835,-10.5205,16.6186,5.4512,12.7954,-3.4073,31.9082
93.7500,12.2976,6.4144,20.9580,-1.0425,28.0329,4.1641,19.2005,-0.4680,17.0127,-5.1091,31.6250,2.9284,24.8752,-0.3985,18.3856,6.1374,16.8575,-3.1411,32.0112
97.6562,11.3854,4.6570,19.6275,-3.3203,31.6677,4.8029,20.2428,1.3059,14.2525,-4.7476,33.7581,0.7544,22.8250,5.3876,21.7759,6.2215,18.1819,-6.2738,31.4959
101.5625,9.2296,2.7343,17.8324,-7.8045,28.7791,5.6637,20.2536,0.0187,9.0382,-5.2221,34.7344,-1.1075,17.0698,6.6115,24.2637,6.0672,15.5937,-12.0192,29.5111
105.4688,5.8849,1.1377,15.2563,-11.9526,21.6589,6.5262,19.1164,-2.1262,2.5165,-6.1363,33.4251,-3.2586,9.1429,5.1920,24.1808,6.0483,10.0992,-17.8458,25.7891
109.3750,2.3947,0.3968,12.3682,-13.7850,14.2151,7.1767,17.4995,-2.9667,-3.0086,-6.6195,30.4505,-5.6573,1.8667,3.7229,21.8395,6.2865,4.2167,-21.0191,21.2853
113.2812,-0.1839,0.8404,10.2851,-13.0546,9.2387,7.5147,16.3354,-1.9180,-5.7349,-5.9959,27.6665,-7.2607,-2.4913,3.7119,19.1409,6.5543,0.1704,-20.2669,17.8243
117.1875,-1.8230,2.3664,10.0382,-11.1894,6.5837,7.5397,16.0357,-0.3082,-5.7522,-4.3382,26.7545,-6.5641,-3.7355,4.7338,18.0586,6.4639,-1.6793,-16.4063,16.9017
121.0938,-3.6638,4.4403,11.8024,-10.1072,3.5847,7.3058,16.1168,-0.2841,-5.0115,-2.4393,28.0027,-2.7012,-3.7666,4.9939,19.1901,5.8373,-2.9619,-11.5514,18.5209
125.0000,-7.0322,6.3945,14.6967,-10.8169,-2.6593,6.9482,15.5964,-3.1436,-5.8176,-1.2063,30.1664,3.7017,-5.0825,2.7702,21.4273,4.9680,-5.8896,-7.5801,20.9951
128.9062,-12.0975,7.8497,17.3295,-12.8411,-12.9101,6.7616,13.8689,-8.3703,-8.9877,-0.9622,31.4466,10.5944,-8.8975,-2.3765,22.8869,4.5263,-11.4218,-5.0316,21.9450
132.8125,-17.3285,8.9463,18.6889,-14.8308,-25.1270,7.2051,11.3389,-14.0863,-13.1248,-1.2221,30.7958,15.5376,-14.3091,-9.4567,22.3039,5.1274,-18.4270,-3.1837,19.8131
136.7188,-20.3218,10.1979,18.7228,-15.8046,-35.9577,8.7338,9.2494,-18.5135,-15.6159,-1.1140,28.5764,17.0669,-19.1111,-16.9299,19.8373,6.8664,-24.4801,-1.0818,14.8126
140.6250,-19.4731,12.0637,18.2065,-15.9713,-43.1438,11.5147,8.7853,-21.2468,-14.6115,-0.0750,26.1512,15.5064,-21.5660,-23.7954,16.7826,9.1887,-27.6531,1.4340,8.6473
144.5312,-15.2300,14.5567,18.0358,-16.4564,-46.9300,15.2173,10.1349,-23.3112,-10.4682,1.7607,24.8023,12.7111,-21.7147,-30.0166,14.5448,11.2211,-27.9037,3.5681,3.2645
148.4375,-9.9264,17.1794,18.5001,-18.1567,-49.4071,19.0582,12.2531,-25.9772,-5.5441,3.7810,24.8252,10.9085,-21.2095,-36.0217,13.7087,12.3285,-27.0046,4.3466,-0.3972
152.3438,-6.2664,19.2175,19.0601,-20.6795,-52.3940,22.1041,13.5329,-29.3333,-2.5190,5.4769,25.4242,11.3765,-21.8484,-41.8156,13.8405,12.4724,-27.1148,3.5933,-2.7522
156.2500,-5.5751,20.1585,18.7483,-22.2866,-55.6268,23.6514,12.8811,-31.8345,-2.5406,6.8269,25.3775,13.7643,-24.0254,-46.5307,14.0086,12.1041,-29.1258,2.2182,-4.8395
160.1562,-7.1092,19.9311,16.8498,-20.9765,-56.7595,23.4576,10.3843,-31.2710,-4.5961,8.1240,23.8874,16.4275,-26.3511,-48.8373,13.4833,11.7025,-32.0485,1.5440,-7.1965
164.0625,-8.8970,18.8324,13.3561,-15.9285,-53.2086,21.7236,7.0808,-26.4448,-6.5176,9.4210,20.9877,17.5135,-26.7443,-47.8802,12.0606,11.3572,-33.8505,2.2370,-9.2839
167.9688,-9.3899,17.2609,8.9091,-8.2093,-44.3803,18.9088,4.0588,-18.2328,-6.7574,10.1653,17.3028,16.0955,-24.1114,-43.9511,9.8780,10.7463,-33.0273,3.7543,-9.9283
171.8750,-8.6152,15.4945,4.3482,-0.1831,-32.4866,15.5418,1.6131,-9.1650,-5.5184,9.4686,13.4695,12.6683,-19.2731,-38.3213,7.0423,9.5148,-29.6749,4.7874,-8.4047
175.7812,-7.9616,13.6599,0.2409,5.9562,-21.2550,12.1209,-0.8795,-1.7923,-4.4081,6.8894,9.7233,8.7426,-14.4154,-32.3530,3.4840,7.7031,-25.2910,4.3393,-5.2625
179.6875,-8.8488,11.8453,-3.2793,9.4620,-13.4843,9.0738,-4.2976,2.9293,-4.9893,3.0784,5.9284,5.8387,-11.5169,-26.6065,-0.8372,5.8339,-21.5603,2.5411,-2.1903
183.5938,-11.4119,10.1880,-6.3257,11.2203,-9.3009,6.6943,-8.8741,6.0255,-7.4517,-0.3543,1.9265,4.5340,-10.9924,-20.6550,-5.6256,4.5581,-19.1401,0.5379,-0.9727
187.5000,-14.2877,8.8293,-8.9508,12.7936,-6.4230,5.0433,-13.7878,9.4105,-10.4663,-1.8023,-2.1513,4.1713,-11.5822,-13.7314,-10.1995,4.1597,-17.3791,-0.4447,-2.2962
191.4062,-15.6655,7.7856,-11.0010,15.1206,-2.1902,3.9068,-17.5807,14.2049,-12.2822,-0.7954,-5.8729,3.4059,-11.4961,-5.6492,-13.8097,4.3481,-15.0984,-0.0606,-5.2850
195.3125,-14.7348,6.8809,-12.2418,17.8651,4.2217,2.9065,-19.1035,19.7793,-12.1232,1.5908,-8.7640,1.2282,-9.8413,2.7735,-16.0846,4.5272,-11.7200,0.9648,-8.1040
199.2188,-12.3414,5.8364,-12.6207,19.8289,11.0835,1.7372,-18.3013,24.2207,-10.7382,3.4435,-10.5834,-2.2226,-7.1934,10.1319,-17.2166,4.3067,-7.8038,1.5453,-9.1844
203.1250,-10.3111,4.4593,-12.4218,19.9879,15.3837,0.3639,-16.2799,25.7794,-9.6880,3.3737,-11.3862,-5.6242,-4.9185,15.3377,-17.7117,3.8022,-4.5974,1.2203,-8.1991
207.0312,-9.9729,2.7814,-12.1527,18.2690,15.0662,-0.9932,-14.6155,24.1142,-9.9791,1.5241,-11.3554,-7.2800,-3.8841,18.2648,-17.8969,3.4535,-3.0177,0.5723,-6.1369
210.9375,-11.0577,1.0437,-12.2127,15.4820,10.5251,-2.0903,-14.3823,20.3863,-11.1598,-0.5462,-10.5778,-6.2523,-3.6655,19.6270,-17.5941,3.5272,-2.9125,0.7392,-4.4982
214.8438,-11.8452,-0.4358,-12.5617,12.5702,4.2912,-2.9054,-15.5243,16.2358,-11.5843,-1.0178,-8.9624,-3.0425,-2.9048,20.2296,-16.2434,3.7761,-3.1758,2.4617,-4.2421
218.7500,-10.4485,-1.3842,-12.6245,9.9002,-0.7470,-3.6547,-16.9252,12.5724,-9.6036,0.8741,-6.3527,0.6883,-0.5042,20.2529,-13.3877,3.6094,-2.5822,5.4956,-5.2314
222.6562,-6.2384,-1.6054,-11.5266,7.2185,-3.1804,-4.5241,-17.0746,9.1971,-4.7396,4.3612,-2.7208,3.2063,3.3519,19.1689,-9.1385,2.6645,-0.6543,8.8832,-6.5004
226.5625,-0.3177,-0.9686,-8.5596,4.2649,-3.6375,-5.3464,-14.8966,5.4977,2.0308,7.8242,1.7126,3.8525,7.2011,16.3339,-4.2456,1.2709,2.0900,11.8153,-7.0625
230.4688,5.2861,0.5337,-3.6277,1.4221,-3.8023,-5.5584,-10.2884,1.5055,9.0029,10.0544,6.5036,3.4128,9.3393,11.7133,0.2924,0.3229,4.6229,14.2948,-6.6277
234.3750,9.0561,2.6373,2.5767,-0.2687,-4.8172,-4.5777,-4.1390,-1.7122,14.8295,11.0853,11.1103,3.4055,9.0619,6.0905,3.7928,0.5682,6.1667,16.9852,-5.7278
238.2812,10.9439,4.7047,8.7907,0.1712,-6.3681,-2.3602,2.1060,-2.7555,19.1190,11.9761,15.0275,4.7792,7.1364,0.5752,6.2157,1.8654,6.6188,20.3613,-5.2097
242.1875,12.1658,5.8720,13.7107,2.7905,-7.0818,0.3298,7.0739,-1.1258,22.2000,13.7888,17.8783,6.9977,5.1722,-4.1466,8.0363,3.0842,6.3928,23.9347,-5.5039
246.0938,14.0772,5.4832,16.5766,6.4865,-5.7621,2.2512,9.9946,2.1114,24.4263,16.6336,19.4725,8.2565,4.4474,-8.1360,9.7818,2.8554,5.9344,26.3211,-6.1928
250.0000,17.0561,3.5775,17.5011,9.7321,-2.3630,2.4696,10.9185,4.9194,25.7261,19.5509,19.8432,6.7549,5.1445,-11.7841,11.5881,0.6693,5.4025,26.2217,-6.1646
253.9062,20.2579,1.0382,17.3542,11.7397,2.0890,1.0272,10.5620,5.7774,25.7905,21.2738,19.2439,2.1267,6.5602,-15.0176,13.0897,-2.5497,4.7784,23.5736,-4.2324
257.8125,22.3662,-0.8249,17.2532,13.1119,6.4674,-1.0506,9.8790,4.8855,24.6597,21.1894,18.0712,-4.0544,8.0097,-16.8880,13.7003,-4.9379,4.2200,19.8861,0.1855
261.7188,22.6704,-1.0782,17.9413,15.3618,10.5026,-2.4895,9.5764,4.0451,23.0737,19.6928,16.7235,-9.1471,9.5715,-16.0461,13.0657,-4.9892,4.2273,17.3594,6.7279
265.6250,21.5778,0.1805,19.4186,19.5771,14.8604,-2.7197,9.8224,5.1993,22.1491,17.6837,15.4736,-11.1293,11.9881,-11.8573,11.3701,-2.7162,5.3579,17.3541,14.2610
269.5312,20.1750,1.8296,21.0419,25.2441,20.2709,-2.3052,10.2879,8.7273,22.5600,15.6958,14.4449,-9.9031,15.7962,-5.2905,9.2951,0.2345,7.6726,19.3479,21.4185
273.4375,19.2490,2.4658,22.0201,30.2165,26.4847,-2.4757,10.4676,12.8685,23.8956,13.4513,13.6984,-7.2605,20.4702,1.2390,7.6702,1.6686,10.4100,21.2143,27.1879
277.3438,18.6172,1.4008,21.9766,31.9829,32.0203,-4.0914,10.0572,14.8250,24.7995,10.2326,13.3339,-5.5279,24.4126,5.1521,7.0414,0.3748,12.2765,20.6753,31.2401
281.2500,17.3493,-0.8072,21.2082,29.3733,35.0256,-6.8517,9.1369,12.7804,23.8993,5.7302,13.4779,-5.8766,25.9458,5.2962,7.4212,-3.0229,12.2597,16.8879,33.8773
285.1562,14.7075,-2.7017,20.4786,23.4391,34.6316,-9.4053,8.0686,7.3057,20.8756,0.5899,14.1420,-7.5325,24.6030,2.6990,8.3546,-6.5206,10.4078,11.0087,35.6912
289.0625,11.0146,-2.9300,20.5021,16.8057,31.7072,-10.3177,7.2263,1.0393,16.8496,-3.8764,15.0796,-8.4352,21.6824,-0.1278,9.2422,-8.1487,7.9584,5.3483,37.1584
292.9688,7.6781,-1.1763,21.4778,11.9113,28.3375,-9.1561,6.7934,-3.1724,13.7414,-6.6256,15.8272,-6.8155,19.5254,-0.9118,9.7099,-7.2894,6.6295,1.7771,38.3962
296.8750,6.2642,1.6555,22.9841,9.3927,26.3328,-6.8218,6.7707,-4.3008,13.0156,-7.6948,15.9832,-2.4985,19.9465,0.8194,9.7961,-4.9395,7.5035,0.5704,39.1764
300.7812,7.2964,4.1326,24.2826,7.7844,25.8674,-4.8389,7.1402,-3.8122,14.7100,-8.1770,15.5587,3.0061,22.9287,3.4368,9.8507,-2.7923,10.2669,0.4998,39.1355
304.6875,9.7379,5.3254,24.8022,4.7344,25.2968,-4.1438,7.9844,-4.5005,17.4472,-9.3194,15.1102,7.6161,26.5592,4.3659,10.2345,-1.9011,13.3530,0.0014,38.0174
308.5938,11.6411,5.4110,24.4746,-1.1750,22.3457,-4.3348,9.4167,-8.3799,19.4240,-11.4395,15.4842,10.0918,28.2902,1.8583,11.0480,-1.9593,14.9218,-1.5492,35.7982
312.5000,11.5580,5.4326,23.7293,-9.3428,15.8231,-3.9994,11.3751,-15.2291,19.6617,-13.5359,17.2916,10.6983,26.6428,-3.8779,12.1067,-1.6880,14.0227,-3.4410,32.6479
316.4062,9.6776,6.4515,23.1976,-17.5677,6.6145,-1.8740,13.4949,-22.8463,18.6229,-13.9473,20.4708,10.7194,22.1424,-10.9393,13.1932,0.0643,11.1645,-4.3597,28.8049
320.3125,7.7883,8.7692,23.3486,-23.6020,-2.7757,2.0846,15.2311,-28.7369,17.7696,-11.5887,24.2676,11.3393,16.8458,-17.0986,14.3819,3.4284,7.9258,-3.5966,24.4817
324.2188,7.9985,11.7847,24.2699,-26.6464,-9.7944,6.5804,16.1796,-31.8801,18.3955,-6.8344,27.6605,12.8273,12.8430,-21.2313,16.1273,7.5096,5.8969,-1.7388,19.8715
328.1250,11.0832,14.5122,25.6640,-27.6816,-13.3848,9.9219,16.3389,-33.2171,20.5742,-1.3866,29.9185,14.6049,10.8449,-23.7813,18.9488,11.1824,5.6760,-0.2883,15.2224
332.0312,15.6608,16.2742,27.0005,-28.4449,-14.4192,11.2790,16.0697,-34.5573,22.9609,2.7641,30.8826,15.9789,9.8588,-26.0312,22.8731,13.9560,6.5707,-0.5210,10.8875
335.9375,18.8660,17.0114,27.7203,-29.8951,-14.7837,11.2471,15.7608,-36.8510,23.5760,4.5115,30.7977,16.7888,8.1199,-28.8500,27.0607,16.1715,7.1435,-2.4899,7.2878
339.8438,18.1309,17.0443,27.4359,-31.3645,-15.8693,11.2675,15.4846,-39.2447,21.0283,4.1196,29.8994,17.3796,4.5228,-31.9258,30.0085,18.4118,6.1734,-4.9528,4.8118
343.7500,12.8767,16.6115,26.1046,-31.0424,-17.6167,12.3802,14.9664,-39.6730,15.3616,2.7661,28.1548,17.9922,-0.5289,-34.0413,30.3434,20.6915,3.3643,-6.2775,3.7317
347.6562,4.9413,15.6659,24.1228,-27.3989,-18.7844,14.3308,13.9280,-36.4951,8.0016,1.5980,25.4010,18.2357,-5.4522,-34.1009,27.7415,22.1859,-0.6333,-5.6309,4.1896
351.5625,-2.5662,14.1196,22.2497,-20.4524,-18.1529,15.7715,12.5146,-29.8593,0.8973,1.0445,21.7423,17.2517,-8.6871,-32.0424,23.3034,21.7876,-4.8092,-3.5598,6.2171
355.4688,-7.2035,12.2550,21.3022,-11.9240,-15.6717,15.4078,11.3879,-21.7129,-4.5392,0.8275,17.8009,14.5370,-9.8266,-28.8998,19.0115,19.0560,-8.4958,-1.5485,9.7063
359.3750,-8.5995,10.8249,21.7169,-4.1798,-12.6421,13.1657,11.3199,-14.4602,-8.0181,0.5032,14.5147,10.7183,-9.8287,-25.9925,16.5301,14.7672,-11.6652,-0.9138,14.2967
363.2812,-8.4019,10.6277,23.2319,1.2311,-10.7981,10.4206,12.5692,-9.3375,-10.1867,-0.0211,12.5714,7.5040,-10.1903,-23.9165,16.1427,10.5703,-14.6479,-1.8700,19.2717
367.1875,-8.8796,11.8503,24.9488,4.3651,-11.0182,9.0725,14.5690,-5.7715,-11.9124,-0.4352,11.9248,6.6668,-11.7536,-22.1632,16.6032,7.9790,-17.5619,-3.4381,23.6256
371.0938,-11.2325,13.7605,25.8192,6.4695,-12.6852,10.1740,16.2560,-2.1820,-13.5973,-0.4152,11.8232,8.7509,-14.0733,-19.6745,16.0676,7.4611,-19.9604,-4.2235,26.3820
375.0000,-14.8123,15.1110,25.2765,8.7587,-14.2066,13.1752,16.8406,2.4612,-14.9907,-0.0275,11.3766,12.5212,-15.8194,-15.8874,13.4772,8.3080,-21.0294,-3.4532,27.0370
378.9062,-17.7482,15.0326,23.5688,11.3611,-14.3103,16.3631,16.4026,7.6039,-15.5641,0.2584,10.2238,15.6680,-15.8852,-11.4192,9.3888,9.3371,-20.2216,-1.5100,25.8284
382.8125,-18.4336,13.7340,21.5094,13.2425,-13.1152,18.1304,15.7687,11.4314,-15.0942,-0.0223,8.7431,16.3218,-14.3334,-7.8130,5.6104,9.8219,-17.8393,0.3945,23.5813
386.7188,-16.7341,12.4030,19.7830,13.1247,-12.1325,18.0708,15.7034,12.2917,-13.9720,-0.8721,7.6114,14.2763,-12.4355,-6.4911,3.8773,9.9055,-15.0692,1.1221,21.1554
390.6250,-14.0453,12.3104,18.3189,10.6516,-13.1538,17.0729,16.0495,10.0798,-12.9908,-1.7516,7.0744,11.0203,-11.7546,-7.6902,4.5359,10.2169,-13.3490,0.4079,18.8496
394.5312,-12.2229,13.7712,16.2519,6.8793,-16.8279,16.4074,15.5891,6.4783,-12.7763,-1.9780,6.5706,8.5861,-12.9498,-10.1889,6.2281,11.0944,-13.4551,-1.0014,16.2159
398.4375,-12.2408,15.7936,12.5761,3.7018,-21.9904,16.6058,12.8624,3.8431,-13.3000,-1.2771,5.0924,8.1166,-15.2062,-12.0628,6.8361,12.1354,-14.9541,-1.9172,12.4852
402.3438,-13.5788,16.7486,7.0502,2.6438,-26.2720,17.0633,7.3888,3.5831,-13.8589,-0.0148,2.0491,9.2263,-16.7377,-11.9454,4.9995,12.4929,-16.4516,-1.5241,7.3418
406.2500,-14.7326,15.6016,0.6565,3.9223,-27.5861,16.6706,0.3194,5.2588,-13.5524,1.1114,-2.0702,10.5567,-16.0245,-9.9038,1.0823,11.6732,-16.5250,0.1571,1.4673
410.1562,-14.3711,12.7752,-4.8060,6.4506,-25.4492,14.9143,-6.0931,7.0591,-11.9072,1.6862,-5.8307,10.9711,-12.8969,-7.3195,-3.1185,10.1280,-14.7170,2.4455,-3.6225
414.0625,-12.2247,9.9574,-7.7820,8.7368,-21.2074,12.4948,-9.9205,7.2455,-9.1904,1.9899,-7.7674,10.3768,-8.6829,-5.8876,-5.6758,9.0732,-11.8887,4.6098,-6.4305
417.9688,-9.0848,8.9564,-7.9411,9.9612,-17.0331,10.9083,-10.8490,5.4409,-6.1857,2.8442,-7.4150,9.5588,-5.3095,-6.4607,-5.8522,9.5998,-9.6589,6.4007,-6.4585
421.8750,-6.0432,10.4312,-6.3643,10.4226,-14.4336,11.2919,-10.3395,2.8004,-3.6239,4.9681,-5.6493,9.2840,-3.9987,-8.5393,-4.4652,11.7540,-9.3004,8.0993,-4.6012
425.7812,-3.6889,13.4288,-4.7844,11.0646,-13.3389,13.4483,-10.4971,1.0010,-1.7240,8.3174,-4.0509,9.5435,-4.4858,-10.7066,-3.0985,14.3425,-10.8680,10.0871,-2.6147
429.6875,-1.9228,16.0553,-4.4266,12.5183,-12.3858,15.8393,-12.4946,0.8909,-0.2023,11.9232,-3.7720,9.6268,-5.2962,-11.6273,-2.8511,15.6793,-13.1781,12.3289,-1.9927
433.5938,-0.4465,16.7643,-5.2916,14.4571,-10.1253,16.5832,-15.7573,1.8653,1.2826,14.3906,-4.7826,8.9325,-4.8518,-10.8633,-3.6310,14.7519,-14.6498,14.2286,-3.0279
437.5000,0.6355,15.3131,-6.3748,15.7895,-6.2178,14.7084,-18.5340,2.4208,2.6552,14.7460,-6.0713,7.7255,-2.5893,-8.9676,-4.4961,11.9357,-14.3929,15.0122,-4.7223
441.4062,0.7554,12.7272,-6.5939,15.5364,-1.7258,10.7296,-19.3782,1.4140,3.3740,13.0664,-6.5988,7.0642,0.7095,-6.8851,-4.6649,8.7093,-12.7504,14.3569,-5.5891
445.3125,-0.5002,10.3840,-5.6616,13.6905,1.6916,6.1594,-18.3354,-0.9820,2.9169,10.4712,-6.1913,7.8560,3.5804,-5.1923,-4.2805,6.5741,-10.9114,12.7620,-4.7390
449.2188,-2.6392,8.9697,-4.2166,11.3601,3.0503,2.3897,-16.8607,-3.3495,1.4373,8.4847,-5.6180,9.8259,5.0061,-3.7614,-4.2507,5.9850,-9.9048,11.3286,-2.4507
453.1250,-4.1457,8.0956,-3.1499,10.0537,2.8143,-0.1744,-16.5227,-4.0393,0.0130,8.1790,-5.7872,11.3633,5.1641,-2.0454,-5.3015,6.0801,-9.7453,11.0610,0.1553
457.0312,-3.3015,6.7919,-2.7309,10.6288,2.5892,-2.1094,-17.5558,-2.3182,0.1634,9.6233,-6.7551,10.5406,5.2535,0.3228,-7.0815,5.3908,-9.3788,12.1796,2.0261
460.9375,0.5555,4.4085,-2.3047,12.6925,3.9681,-4.2103,-18.4834,1.2063,2.8706,11.9416,-7.4339,6.6038,6.5597,3.1426,-8.1546,2.9759,-7.4631,13.9572,2.9245
464.8438,6.3091,1.1734,-0.8584,14.8964,7.3810,-6.6766,-17.1965,5.1393,7.7808,13.8952,-6.3325,0.7480,9.4747,5.7766,-6.9949,-0.8701,-3.3902,15.2106,3.4415
468.7500,11.5526,-2.0076,1.9856,15.8947,11.7791,-8.9356,-12.6865,8.3227,13.2141,14.6021,-2.8023,-4.5297,13.2014,7.6574,-3.2469,-4.8361,2.2177,15.0995,4.3181
472.6562,14.0673,-4.2914,5.3899,15.2430,15.3580,-10.2116,-6.0574,10.5117,17.0707,13.9688,2.2137,-7.1085,16.3365,8.7197,1.7748,-7.5306,7.8936,13.6475,5.6861
476.5625,13.2774,-5.5391,7.6919,13.5905,16.7723,-10.2995,0.0488,12.2339,18.0677,12.6198,6.5963,-6.7103,17.8667,9.3922,5.8264,-8.4057,12.2786,11.6212,6.8887
480.4688,10.6161,-6.3318,7.5589,12.0790,15.9678,-9.8351,3.2552,14.0563,16.4719,11.4247,8.4147,-5.0214,17.8241,10.1740,7.2382,-7.9896,14.9230,9.8886,7.0486
484.3750,8.5137,-7.3736,5.0613,11.4647,14.0899,-9.7919,3.1486,15.9477,13.8345,10.9497,7.2625,-4.3528,17.1391,11.1778,6.0818,-7.3095,16.3734,8.7804,5.9140
488.2812,8.7409,-8.7968,1.8167,11.6531,12.6178,-10.6126,1.5833,17.2858,11.9350,11.1711,4.5698,-5.8646,16.8551,12.0485,4.1171,-7.0034,17.5617,7.9512,4.2595
492.1875,11.3093,-9.9575,0.0267,11.9567,12.4127,-11.7222,1.3396,17.4692,11.6925,11.6001,2.6426,-8.7272,17.3441,12.3268,3.5400,-6.8272,19.0382,6.8240,3.4648
496.0938,14.6905,-9.9053,1.0566,11.7826,13.3512,-11.8874,4.1247,16.5522,12.7855,11.6913,3.1196,-10.8679,18.1214,11.9200,5.4448,-5.9225,20.6525,5.2107,4.5540
500.0000,17.0964,-8.1642,4.5726,11.1195,14.7038,-10.1939,9.3841,15.2896,14.1632,11.2309,5.9549,-10.7024,18.3545,11.2191,9.1223,-3.6082,21.8655,3.5524,7.4291
503.9062,17.7773,-5.2064,8.8476,10.3963,15.8397,-6.8817,14.7608,14.4853,14.9673,10.4218,9.6168,-8.4692,17.6084,10.6902,12.6755,-0.0619,22.3340,2.5404,10.8996
507.8125,17.3500,-2.2364,11.9981,9.8603,16.6439,-3.3455,17.8012,14.1574,15.1295,9.6112,12.2802,-6.0959,16.2046,10.2491,14.4530,3.6373,22.2106,2.4171,13.5028
511.7188,16.9953,-0.4267,13.2435,9.0670,17.3490,-1.2358,17.6154,13.2500,15.2293,8.8807,13.0860,-5.6758,14.9156,8.9873,14.2169,6.1402,21.8942,2.5721,14.5022
515.6250,17.2817,-0.1613,13.2990,7.0200,18.0163,-1.3067,15.3086,10.2281,15.8215,7.8441,12.5646,-7.7380,14.2835,5.6075,13.2008,6.6632,21.4923,1.8544,14.3293
519.5312,17.6390,-0.8280,13.6802,2.9503,18.2065,-2.8771,12.9843,4.1957,16.8546,5.8656,12.0116,-10.6695,14.1579,-0.6263,13.0788,5.4310,20.5410,-0.5539,14.1742
523.4375,16.9182,-1.2948,15.4996,-2.8583,17.2013,-4.3299,12.1759,-4.2794,17.6813,2.5896,12.3993,-11.7756,13.8627,-9.0974,14.6666,3.4464,18.3225,-4.3605,15.0799
527.3438,14.5365,-0.7067,18.6645,-8.9220,14.6350,-4.2944,12.9036,-13.2823,17.6323,-1.6051,13.6986,-9.2059,12.8551,-17.8601,17.3412,1.8058,14.5756,-8.1410,17.2415
531.2500,11.1966,0.9633,22.0299,-13.3329,10.9955,-2.6431,13.9642,-20.5815,16.6385,-5.6176,15.0845,-3.3184,11.3090,-24.5950,19.5789,1.0785,9.9905,-10.1887,20.0000
535.1562,8.5164,2.9764,24.3133,-14.9721,7.5107,-0.5662,14.0786,-24.8701,15.3458,-8.1890,15.7664,3.5238,10.0909,-27.9172,20.1634,1.1600,5.9824,-9.6662,22.4504
539.0625,7.8190,4.4142,25.0322,-14.2711,5.4114,0.3200,12.9163,-26.3596,14.6073,-8.6836,15.7101,8.5539,10.0939,-28.1487,19.1293,1.6096,3.8027,-7.2069,24.1177
542.9688,9.0524,4.8418,24.7666,-12.9141,5.0867,-0.8310,11.2312,-26.3542,14.7711,-7.5397,15.6558,10.4153,11.4464,-26.9965,17.7398,2.1210,3.6262,-4.4897,25.1650
546.8750,10.7424,4.5785,24.6074,-12.6538,5.7851,-3.4695,10.1234,-26.1819,15.3654,-6.0323,16.4369,9.8925,13.2561,-26.3449,17.5337,2.7253,4.3492,-3.0745,26.0254
550.7812,11.0558,4.4126,25.2740,-14.1022,6.1266,-6.0254,10.1286,-26.3058,15.4585,-5.4675,18.1743,9.1054,14.1500,-27.0058,19.1604,3.6034,4.3316,-3.3596,26.8394
554.6875,9.1566,4.9967,26.5875,-16.3986,5.0763,-6.9786,10.8901,-26.2439,14.4007,-6.3534,20.0177,9.8421,13.2305,-28.2925,21.8571,4.7391,2.5784,-4.4360,27.2132
558.5938,5.7835,6.3688,27.6637,-17.9977,2.6629,-5.8325,11.6108,-25.2671,12.3338,-8.1290,20.6639,12.2831,10.7084,-28.6768,23.9393,5.7803,-0.5225,-4.9275,26.5150
562.5000,2.5962,7.9351,27.6153,-17.9536,-0.0937,-3.3140,11.8150,-23.2355,10.0390,-9.6348,19.2811,15.0014,7.7053,-26.9945,23.9486,6.2814,-3.4912,-4.1413,24.4515
566.4062,0.8202,8.9128,26.1987,-16.6865,-1.9805,-0.7229,11.7342,-20.8558,8.2445,-9.9613,16.1558,16.1477,5.3643,-23.2893,21.6557,6.1450,-4.8845,-2.6219,21.4297
570.3125,0.2819,8.9147,23.9364,-15.6180,-2.5016,1.0324,12.0104,-19.1371,6.9739,-9.0388,12.5881,14.8839,3.9688,-18.6989,18.2419,5.8642,-4.4195,-1.6808,18.3859
574.2188,-0.3929,8.2673,21.6908,-15.9614,-2.2084,1.9952,13.0270,-18.4955,5.4901,-7.5503,10.1107,12.0166,2.7735,-14.5442,15.5616,6.2909,-3.2319,-2.2975,16.2020
578.1250,-2.5814,7.8409,20.0724,-17.6385,-2.2243,2.9574,14.4928,-18.2681,2.9041,-6.2873,9.5746,9.4189,0.6838,-11.3836,15.0006,8.0293,-3.0604,-4.2932,15.1557
582.0312,-6.4392,8.5013,19.1355,-19.2178,-3.3643,4.7262,15.6625,-17.0951,-1.0393,-5.4996,10.7081,8.7096,-2.7666,-8.7865,16.6748,10.8936,-4.9668,-6.4548,14.8099
585.9375,-10.6456,10.5427,18.5307,-18.9751,-5.5559,7.4555,16.0030,-13.9448,-5.6445,-4.7725,12.3997,10.1442,-6.9466,-5.9712,19.4487,13.8749,-8.5531,-7.5184,14.3907
589.8438,-13.3445,13.4690,17.9084,-16.2694,-8.0038,10.5313,15.7041,-9.0235,-9.6939,-3.5090,13.4561,12.4650,-10.5680,-2.7458,21.6957,15.7155,-12.2527,-7.2113,13.3345
593.7500,-13.5555,16.2652,17.2103,-12.1443,-9.9299,13.0331,15.5512,-3.8545,-12.2937,-1.5812,13.3088,13.7708,-12.6941,0.0618,22.2664,15.7225,-14.4500,-6.4901,11.6006
597.6562,-11.9513,17.9787,16.6380,-8.6370,-11.2520,14.3634,16.2181,-0.4026,-13.4677,0.4302,12.2350,12.7919,-13.4885,1.0865,21.0540,14.2414,-14.5687,-6.7486,9.5778
601.5625,-10.3879,18.2399,16.3918,-7.2804,-12.6229,14.5587,17.5594,0.1694,-14.0293,1.6393,11.0241,9.7396,-14.0636,-0.5221,18.8594,12.4255,-13.3294,-8.6071,7.7516
605.4688,-10.5459,17.4003,16.4537,-7.9377,-14.7880,14.0989,18.5259,-1.7570,-14.8473,1.5778,10.3763,6.2174,-15.5166,-4.3038,16.7277,11.4431,-12.0493,-11.2619,6.4379
609.3750,-12.7171,16.2286,16.6077,-8.8793,-17.7951,13.4448,17.8501,-4.5369,-16.1091,0.6187,10.4405,4.2807,-17.9204,-8.6045,15.2359,11.6890,-11.5974,-12.9518,5.7589
613.2812,-15.6463,15.3907,16.6434,-8.0771,-20.7441,12.7154,15.0170,-6.3583,-17.1842,-0.2865,10.7453,5.2253,-20.1207,-11.5738,14.1822,12.5733,-11.8462,-12.2302,5.7654
617.1875,-17.5182,15.0712,16.5129,-4.7464,-22.3408,11.7468,10.7622,-6.3760,-17.1975,-0.3742,10.4970,8.8082,-20.5650,-12.3287,12.8222,13.0389,-12.0092,-9.0767,6.4792
621.0938,-17.3098,14.9698,16.2657,0.0336,-21.8650,10.4196,6.6585,-5.1064,-15.8379,0.2899,9.0114,13.3307,-18.5537,-11.4362,10.4296,12.4105,-11.5161,-4.9833,7.7484
625.0000,-15.4851,14.6326,15.8151,4.0958,-19.7952,8.9151,4.0401,-3.8601,-13.7285,0.8517,6.0257,16.5266,-14.9186,-10.3773,6.7857,10.9229,-10.6450,-1.9208,9.0550
628.9062,-13.5428,13.8467,14.7857,5.7710,-17.5642,7.6474,3.0342,-3.6823,-12.0327,0.3999,1.7703,16.7678,-11.5464,-10.4159,2.2999,9.5199,-10.3595,-0.9484,9.5434
632.8125,-12.8126,12.8031,12.6530,5.0860,-16.5815,6.9285,2.4311,-4.5876,-11.5883,-1.1875,-3.1562,13.9285,-10.0605,-11.7178,-2.2587,9.0739,-11.4788,-1.5011,8.3949
636.7188,-13.4451,11.9244,9.1408,3.6818,-17.2417,6.6809,0.5280,-5.6162,-12.2516,-2.9901,-7.9908,9.4328,-10.6612,-13.3367,-6.1851,9.6353,-13.8863,-1.8751,5.3596
640.6250,-14.3505,11.5166,4.5781,3.5408,-18.6641,6.4847,-3.6299,-5.6093,-12.9795,-3.6450,-11.9960,5.4477,-12.0343,-14.0033,-9.1298,10.3114,-16.4652,-0.5314,1.0505
644.5312,-14.0942,11.5246,-0.1120,5.5026,-19.3634,5.9493,-9.4871,-4.0870,-12.6070,-2.3718,-14.6192,3.6640,-12.4226,-13.0588,-11.1099,9.9001,-17.8595,2.7593,-3.2948
648.4375,-12.0384,11.5787,-3.8715,8.6779,-18.3398,5.0970,-15.2423,-1.5789,-10.7297,0.3748,-15.6353,4.3604,-11.0403,-10.8231,-12.3135,7.8177,-17.4696,6.7584,-6.4989
652.3438,-8.8600,11.2736,-6.1414,11.1509,-15.7646,4.3995,-18.9663,0.7982,-8.0203,3.1597,-15.2502,6.3002,-8.7231,-8.1791,-12.8951,4.6180,-15.8709,9.6568,-8.1362
656.2500,-6.0748,10.4472,-7.2233,11.3815,-12.7661,4.3885,-19.8044,2.1489,-5.7418,4.5668,-14.0849,7.5320,-7.2848,-5.7926,-12.9173,1.6870,-14.2959,10.3252,-8.7400
660.1562,-4.9477,9.2377,-8.0814,9.2266,-10.5296,5.1362,-18.4491,2.3688,-4.8334,4.1936,-12.9641,6.6119,-8.0663,-3.6412,-12.4410,0.3146,-13.5766,9.0017,-9.3658
664.0625,-5.6027,7.9018,-9.6916,5.8581,-9.4455,6.0577,-16.5935,2.0697,-5.2593,2.8891,-12.5394,3.4975,-10.8049,-1.2264,-11.6413,0.8150,-13.4084,6.9768,-10.8198
667.9688,-6.9675,6.5812,-12.3744,2.7475,-8.9721,6.2622,-15.7796,1.9725,-6.0879,2.0630,-12.9197,-0.4389,-13.7242,1.7522,-10.8210,2.3322,-12.5660,5.6011,-13.1068
671.8750,-7.5524,5.2406,-15.5692,0.5904,-8.2747,5.2357,-16.4427,2.2862,-6.2013,2.6182,-13.5521,-3.2753,-14.8004,4.8775,-10.2946,3.4606,-9.9482,5.4005,-15.4857
675.7812,-6.4635,3.8314,-18.1887,-0.9779,-7.0575,3.3273,-17.7686,2.5757,-5.0640,4.3331,-13.4911,-3.7235,-13.2417,7.1351,-10.2234,3.2121,-5.6326,5.9254,-17.0591
679.6875,-3.9174,2.5077,-19.2796,-2.7225,-5.8551,1.6077,-18.3803,2.2170,-2.9704,6.1534,-11.9543,-1.8898,-10.0400,7.6242,-10.5110,1.6278,-1.0589,6.3452,-17.4291
683.5938,-0.9236,1.6444,-18.5188,-4.8389,-5.5071,1.1308,-17.3066,1.0562,-0.6284,7.1308,-8.8393,0.8313,-7.1660,6.3028,-10.8077,-0.3722,1.8975,6.2357,-16.9218
687.5000,1.5709,1.5656,-16.2323,-6.5435,-6.2529,2.1080,-14.5489,-0.2848,1.5297,7.2401,-4.8490,2.6062,-6.0272,4.1526,-10.6029,-1.7239,2.3281,5.9175,-16.2372
691.4062,3.4035,2.1629,-13.0045,-6.6086,-7.2404,3.6226,-10.9211,-0.7487,3.7159,7.4158,-1.1023,2.1881,-6.3783,2.5882,-9.3654,-1.9532,1.1084,6.1130,-15.8352
695.3125,5.2356,2.7433,-9.2479,-4.4208,-6.9523,4.1491,-7.3887,0.3857,6.5203,8.7784,1.5356,-0.4923,-6.5220,2.5244,-6.7196,-1.3761,0.4476,7.2546,-15.5648
699.2188,7.8923,2.3229,-5.0841,-0.6818,-4.3062,2.5529,-4.4629,2.8796,10.2280,11.6590,2.9525,-4.4355,-4.6401,3.7905,-2.6521,-0.6954,2.4108,9.0334,-14.8292
703.1250,11.5181,0.2464,-0.5846,2.8717,0.4102,-1.1232,-2.0818,5.5644,14.3042,15.1952,3.7611,-8.2001,-0.2283,5.3227,2.3209,-0.3894,7.4371,10.5607,-13.1352
707.0312,15.2226,-3.2795,3.9118,4.5866,5.5547,-5.6428,0.0338,7.0713,17.5280,17.8249,4.7630,-10.6158,5.4633,5.9803,7.1695,-0.4076,13.9255,11.0150,-10.5556
710.9375,17.5396,-7.1545,7.7648,4.0360,9.1854,-9.3406,1.9489,6.7814,18.7573,18.3238,6.3097,-11.2153,10.3078,5.3700,10.6732,-0.3761,19.2173,10.2638,-7.6971
714.8438,17.4245,-9.9489,10.3903,2.3330,10.4205,-11.1245,3.4315,5.3193,17.7931,16.6187,8.0564,-10.2688,12.8140,4.0750,11.9937,-0.0693,21.3037,8.9830,-5.1746
718.7500,15.0864,-10.7293,11.7468,1.3764,10.0816,-11.0271,4.2882,4.2074,15.6748,13.7956,9.3048,-8.5274,13.1268,3.1502,11.1980,0.3061,20.0707,8.1823,-3.0116
722.6562,12.0178,-9.6015,12.5120,2.5759,10.0882,-9.9741,4.7783,4.8738,14.1161,11.3199,9.6587,-6.8470,12.7885,3.2945,9.3386,0.2755,17.2311,8.4973,-0.4877
726.5625,10.1274,-7.6020,13.7105,5.9682,12.0096,-9.0177,5.6473,7.6741,14.4106,10.0557,9.4388,-5.8232,13.4924,4.3317,7.9077,-0.4494,15.0401,9.7623,3.3710
730.4688,10.5213,-6.0167,15.9902,10.3027,15.8394,-8.6371,7.6337,11.5927,16.5501,9.7809,9.4777,-5.5349,15.8083,5.3687,7.9179,-1.6478,14.7492,11.1561,8.9706
734.3750,12.7705,-5.5921,19.0745,13.9488,19.9273,-8.5909,10.7889,14.8321,19.1918,9.4940,10.4219,-5.5051,18.8350,5.4776,9.2138,-2.7067,15.8983,11.7801,15.6135
738.2812,15.2023,-6.1600,21.8515,15.9001,22.1564,-8.3347,14.2005,15.8962,20.5365,8.2259,12.1109,-4.9684,20.9841,4.3667,10.5659,-3.0930,16.8944,11.2306,21.7135
742.1875,16.0477,-6.8815,23.1105,16.1676,21.5144,-7.5841,16.4670,14.4417,19.5372,5.7340,13.5959,-3.3927,21.2345,2.5449,10.5870,-2.7692,16.3726,9.7559,25.6975
746.0938,14.6596,-6.8798,22.4270,15.3860,18.8926,-6.5413,16.6836,11.3505,16.6098,2.5953,13.8647,-0.9820,19.8751,0.8862,8.8691,-2.1803,14.2867,7.9241,27.0120
750.0000,11.9354,-5.7966,20.5302,14.0691,16.5018,-5.6370,15.2198,8.0268,13.3471,-0.3119,12.7330,1.2251,18.2011,-0.0523,6.4733,-1.8162,11.9255,6.0896,26.5177
753.9062,9.6314,-3.9229,18.8351,12.1622,16.3125,-5.0719,13.6279,5.4479,11.4291,-2.5022,11.1507,1.8671,17.4556,-0.4461,5.2968,-1.7460,10.8804,4.0880,25.9477
757.8125,9.0567,-1.9046,18.4362,9.2212,18.6474,-4.6054,13.6267,3.6322,11.4907,-4.2268,10.5810,0.1650,17.8681,-1.0701,6.6714,-1.5709,11.7750,1.3998,26.7468
761.7188,10.1031,-0.3184,19.2993,4.9989,21.9399,-3.8040,15.8342,1.8484,12.7377,-6.2257,11.8581,-3.3791,18.5153,-2.7460,10.2102,-0.8824,13.7221,-2.3403,29.0683
765.6250,11.3340,0.5620,20.2806,-0.1057,23.8174,-2.5404,19.1977,-0.6614,13.5794,-9.0921,14.4188,-7.0727,18.0583,-5.7852,13.8536,0.1635,14.9073,-6.8819,31.6269
769.5312,11.0768,0.7151,20.0102,-5.1367,22.7060,-1.2837,21.6233,-4.0259,12.8152,-12.7217,16.5922,-9.0002,15.7487,-9.8034,15.2284,0.7176,13.8538,-11.3222,32.5399
773.4375,8.7009,0.1982,18.0137,-9.1444,18.8091,-0.8654,21.4269,-7.6401,10.5197,-16.2465,16.8286,-8.2837,11.9377,-13.9832,13.4137,-0.2083,10.4349,-14.5646,30.6031
777.3438,5.1129,-0.9165,15.2268,-11.7645,13.8085,-1.8407,18.5784,-10.6470,7.9842,-18.5038,14.9615,-5.7309,7.7626,-17.5452,9.7897,-2.8495,5.9184,-15.9819,26.1374
781.2500,2.0872,-2.4300,13.4679,-13.3563,9.5905,-3.9282,14.8019,-12.5895,6.7576,-18.7266,12.4804,-3.3111,4.3291,-20.0870,7.2296,-6.1778,2.0624,-15.8186,20.8239
785.1562,0.9430,-3.8839,14.1927,-14.6138,6.9770,-6.0028,12.4127,-13.7047,7.4850,-16.9990,11.5037,-2.7354,2.0465,-21.6094,8.1028,-8.2898,-0.0394,-15.0342,16.6379
789.0625,1.5875,-4.6301,17.4058,-15.9907,5.3689,-6.7208,12.7111,-14.6459,9.3953,-14.1914,13.1615,-4.1365,0.5741,-22.3097,12.5070,-7.5554,-0.5315,-14.6714,14.6135
792.9688,2.6566,-4.1560,21.5288,-17.4079,3.4623,-5.3741,15.1031,-15.8826,10.8109,-11.4328,16.6312,-5.8568,-0.6955,-22.3713,18.0636,-3.7556,-0.4528,-15.1767,14.2823
796.8750,2.6187,-2.4594,24.3529,-18.4526,0.3923,-2.3725,17.5878,-17.2849,10.3025,-9.4770,19.6319,-5.5870,-2.0976,-21.9184,21.5055,1.6434,-0.8427,-16.1439,14.1509
800.7812,0.9422,-0.1528,24.4297,-18.8572,-3.6115,0.9977,18.2354,-18.2386,7.6384,-8.3690,20.0808,-2.0805,-3.5555,-21.1122,20.9516,6.3578,-2.0394,-16.6600,12.8462
804.6875,-1.6197,1.8621,21.9377,-18.8179,-7.5233,3.3791,16.5405,-18.1918,3.8341,-7.6017,17.6770,3.8152,-4.8926,-20.2226,17.2115,8.7323,-3.6842,-16.0016,10.0965
808.5938,-3.8418,2.9733,18.4422,-18.8633,-10.4584,4.1595,13.6561,-17.1738,0.2935,-6.6228,14.1732,9.6135,-6.2381,-19.5397,13.1512,8.7490,-5.3311,-14.1779,6.8558
812.5000,-5.2335,3.2780,15.7570,-19.3810,-12.4441,3.7542,11.3828,-15.8438,-2.2881,-5.3169,12.0754,12.8425,-8.1010,-19.1643,11.5833,7.8688,-7.0618,-11.9326,4.5129
816.4062,-6.5859,3.4994,14.7400,-20.2200,-14.3916,3.2003,10.7432,-15.0153,-4.4102,-4.1240,12.7287,12.7009,-10.9982,-18.8694,13.2445,7.8252,-9.5262,-10.2207,3.8018
820.3125,-9.3311,4.4150,14.8584,-20.7428,-17.3026,3.3865,11.2557,-15.0437,-7.2720,-3.7153,15.2633,10.5040,-14.9370,-18.2149,16.3496,9.2685,-13.3355,-9.5664,4.2370
824.2188,-14.1897,6.1936,14.7623,-20.3322,-21.3681,4.4655,11.4362,-15.5880,-11.6870,-4.4688,17.2398,8.6102,-19.2101,-16.8968,18.0163,11.2759,-18.3089,-9.7845,4.4944
828.1250,-20.2331,8.1514,13.3705,-18.9578,-25.6952,5.8297,10.0731,-15.9545,-17.2563,-6.1290,16.5269,8.6609,-22.7213,-15.0907,16.4536,12.0995,-23.2474,-10.2473,3.4418
832.0312,-25.2213,9.1597,10.6473,-17.3132,-28.8856,6.6158,7.2264,-15.7299,-22.4536,-7.9013,12.9719,10.4646,-24.6288,-13.4805,12.2612,10.5945,-26.5121,-10.4334,1.0332
835.9375,-27.0654,8.4657,7.5416,-16.3419,-30.0046,6.3591,4.1625,-15.1435,-25.5686,-8.9165,8.5669,12.3312,-24.8261,-12.8552,7.9093,7.2505,-27.0437,-10.2727,-1.6174
839.8438,-25.3168,6.3551,5.2242,-16.4591,-29.1764,5.3491,2.3181,-14.8062,-25.7975,-8.7342,5.9632,12.5313,-23.9014,-13.4853,5.8620,4.0334,-25.0747,-9.9904,-3.0426
843.7500,-21.4965,4.1524,4.2590,-17.0653,-27.3532,4.4754,2.1639,-15.0070,-23.6686,-7.5352,6.4699,10.7032,-22.6292,-14.7228,6.8044,3.1141,-21.9782,-9.6108,-2.5067
847.6562,-17.9598,3.4924,4.3196,-16.7922,-25.4824,4.6894,2.8888,-15.1828,-20.5271,-5.9023,9.0678,8.1201,-21.4147,-15.1968,9.2746,5.3776,-19.3409,-8.6236,-0.5573
851.5625,-16.1707,5.3024,4.5755,-14.4087,-23.7830,6.4234,3.1161,-14.1107,-17.5411,-4.3989,11.1807,6.6581,-20.1345,-13.6023,10.8692,9.7691,-17.9370,-6.2299,1.3526
855.4688,-15.7566,9.1519,4.3404,-9.7944,-21.7443,9.3014,2.0096,-10.8143,-15.0414,-3.2870,10.5867,7.3283,-18.4771,-9.6371,9.9922,13.9288,-17.3553,-2.0913,1.8635
859.3750,-15.1070,13.4071,3.4235,-4.2722,-18.8504,12.2787,-0.1702,-5.5435,-12.6881,-2.5731,6.9877,9.5344,-16.4668,-4.4499,6.7932,15.6661,-16.5343,3.0004,0.5636
863.2812,-13.0142,16.1117,1.9571,0.0273,-15.4021,14.1180,-2.4948,0.0000,-10.2386,-2.2652,2.0626,11.5949,-14.6874,-0.1976,2.6849,14.2620,-14.7580,7.1914,-1.9187
867.1875,-9.9682,16.0558,-0.0318,1.4414,-12.6735,13.9592,-4.3504,3.5352,-8.1681,-2.5318,-1.9625,12.0499,-13.9608,1.1299,-1.0033,10.7618,-12.3204,8.5427,-4.5798
871.0938,-7.9597,13.3939,-2.8062,-0.1140,-12.1456,11.7193,-6.0587,3.6911,-7.5161,-3.5554,-4.0399,10.6853,-14.6897,-1.0614,-4.0464,7.1548,-10.3380,6.3530,-6.8619
875.0000,-8.8624,9.4755,-6.6027,-2.9490,-14.3172,8.1482,-8.5349,1.0752,-9.0091,-5.1871,-4.9557,8.5095,-16.3799,-5.4805,-7.2006,5.0816,-9.8710,1.8792,-8.9326
878.9062,-12.6833,6.0459,-11.0591,-4.5099,-18.0130,4.5154,-12.2455,-1.9205,-12.1842,-6.7548,-6.4465,6.8025,-17.7734,-9.5804,-11.1458,4.9474,-11.0623,-2.1870,-11.2131
882.8125,-17.1769,4.3310,-14.9521,-2.8632,-20.8269,2.0573,-16.3927,-2.5636,-15.3312,-7.3135,-9.5595,6.0949,-17.5770,-10.9776,-15.4989,5.9376,-12.9892,-3.2705,-13.6063
886.7188,-19.2833,4.5256,-16.6386,2.1664,-20.5213,1.4329,-19.1409,0.4543,-16.4555,-6.2635,-13.6257,5.9106,-15.3136,-8.7999,-18.8244,6.7664,-14.3513,-0.4971,-15.1646
890.6250,-17.3746,5.9037,-15.0364,8.9224,-16.4653,2.4404,-18.8584,6.1514,-14.6263,-3.8870,-16.6897,5.3994,-11.6860,-4.1176,-19.6950,6.5385,-14.4472,4.7883,-14.5942
894.5312,-12.5672,7.3731,-10.4726,14.9446,-10.0925,4.1392,-15.4574,11.9114,-10.6810,-1.3207,-17.0477,4.2173,-8.1619,0.8094,-17.9372,5.1495,-13.6546,9.9528,-11.2795
898.4375,-8.0070,8.0778,-4.7184,18.4312,-4.0152,5.3150,-10.7332,15.2172,-6.6883,0.1308,-14.6472,2.8383,-6.0335,3.9616,-14.9982,3.0843,-13.0233,12.8153,-6.0136
902.3438,-6.5919,7.7063,-0.0671,19.2026,-0.3766,5.0448,-7.3200,15.2535,-4.5069,-0.1026,-11.2232,2.0337,-5.5901,4.7289,-13.0589,0.9173,-13.3042,12.9734,-0.7643
906.2500,-8.8425,6.4157,1.9772,18.5808,0.4299,3.0685,-6.9577,13.2743,-4.5006,-1.4222,-9.0536,2.0278,-5.9779,4.0754,-13.5269,-1.0515,-14.2057,11.8043,2.4764
910.1562,-12.5515,4.5349,1.5084,18.3285,-0.1908,-0.2013,-9.3386,11.5359,-5.3823,-2.4819,-9.3109,2.1385,-5.8439,3.6659,-16.0521,-2.8054,-14.5009,11.2173,2.9736
914.0625,-14.4811,2.3016,-0.0364,19.4079,-0.1964,-3.9837,-12.4008,11.6305,-5.3023,-2.1966,-11.2768,1.2878,-4.3060,4.6232,-18.8063,-4.3849,-12.9382,12.1481,1.7149
917.9688,-12.7909,-0.2089,-0.9950,21.4022,1.6077,-7.5294,-13.8429,13.4486,-3.3263,-0.5752,-12.9789,-1.0323,-1.5564,6.8064,-19.7994,-5.7095,-9.2514,13.9426,0.6852
921.8750,-8.3178,-2.9809,-0.6321,22.9559,4.8379,-10.3866,-12.7145,15.4804,-0.1373,1.3030,-12.6906,-4.1944,1.3343,9.0747,-18.2206,-6.6202,-4.4617,15.0580,1.4636
925.7812,-3.7561,-5.9209,0.5070,22.8636,8.0349,-12.4387,-9.9064,16.1369,2.5920,2.1936,-10.1017,-6.8298,3.2657,10.2632,-14.8286,-7.0688,-0.2038,14.4765,4.1696
929.6875,-1.4412,-8.8137,1.2549,20.9972,9.9336,-13.7832,-7.2386,15.0240,3.6523,1.7786,-6.3037,-7.9134,3.9811,10.0857,-11.1811,-7.2352,2.4229,12.6800,7.5195
933.5938,-1.5310,-11.3932,0.9286,18.4001,10.4692,-14.5941,-5.9399,13.1892,3.3933,1.0454,-2.7247,-7.6392,4.3006,9.2738,-8.3867,-7.4293,3.5872,11.3960,9.8994
937.5000,-2.0177,-13.4486,-0.0119,16.4970,10.7293,-15.0478,-5.7435,12.1957,3.5511,1.5764,0.0299,-7.3031,5.5094,8.8792,-6.3711,-7.8538,4.4644,12.2961,10.5900
941.4062,-0.5134,-14.8704,-0.2829,16.0156,11.9105,-15.2949,-5.2837,12.7890,5.8963,4.2441,2.4706,-8.2180,8.3205,9.3207,-4.1759,-8.4479,6.1833,15.6530,10.1868
945.3125,3.6736,-15.6130,1.1767,16.4237,14.1442,-15.4152,-3.4058,14.2229,10.7543,8.3351,5.4776,-10.5217,12.1816,9.9565,-0.9663,-8.9691,8.8185,19.9976,9.9246
949.2188,8.8705,-15.6321,4.2684,16.3021,16.1748,-15.3506,-0.2705,14.7694,16.5831,11.8533,9.2358,-12.8859,15.4842,9.5396,3.1055,-9.2513,11.2512,23.0491,10.5027
953.1250,12.3186,-14.8837,7.6728,14.3822,16.2151,-14.8913,2.6742,13.0107,20.9876,12.8621,12.8285,-13.4398,16.5974,7.2177,6.8710,-9.3972,12.0417,23.2244,11.4073
957.0312,12.3618,-13.4060,9.7537,10.4946,13.3680,-13.7915,3.8453,8.9161,22.4237,10.8858,14.8875,-11.2280,15.0286,3.2931,8.9497,-9.6973,10.6534,20.6157,11.3187
960.9375,9.7785,-11.4185,9.7615,5.7393,8.5142,-11.9855,2.8646,3.8935,21.2876,7.2941,14.7737,-7.0499,11.8709,-0.8676,8.7465,-10.3013,8.0546,16.7583,9.2981
964.8438,7.1920,-9.3332,8.4182,1.7674,3.9358,-9.7463,0.9920,-0.1879,19.5469,4.3370,13.2710,-2.9841,9.1667,-3.7339,6.8911,-10.9101,6.1826,13.4309,5.7864
968.7500,7.0400,-7.6264,7.4279,-0.2935,1.8875,-7.6228,0.2745,-2.2378,19.1968,3.5261,12.1412,-0.9326,8.5870,-4.6522,4.8281,-10.7923,6.6255,11.4252,2.5643
972.6562,9.7265,-6.6294,8.2663,-0.4975,3.1428,-6.1382,2.0577,-2.5249,20.7330,4.5696,12.8147,-1.3016,10.3405,-4.2442,3.9061,-9.2034,9.4947,10.1681,1.6284
976.5625,13.3989,-6.3732,11.1475,0.1122,6.5812,-5.4453,6.0065,-2.2343,22.8152,5.6525,15.2326,-2.8302,13.0959,-3.8721,4.6289,-5.9565,13.3391,8.3770,3.8059
980.4688,15.4734,-6.6015,14.9230,0.3387,10.1099,-5.2121,10.3785,-2.4408,23.3618,4.8267,17.7919,-3.6644,14.9886,-4.5909,6.5428,-1.7230,16.1718,5.1477,8.1665
984.3750,14.6423,-6.9503,17.9521,-0.3548,12.2104,-4.8713,13.3159,-3.3420,21.2092,1.4448,18.5088,-2.8000,14.9910,-6.3927,8.7267,2.2124,16.8416,0.6211,12.6916
988.2812,11.7644,-7.1714,19.2586,-1.6458,12.9368,-4.0765,14.1449,-4.3175,17.0428,-3.4319,16.5553,-0.7558,13.6474,-8.3022,10.4544,4.6445,15.7341,-4.2108,15.7006
992.1875,8.9959,-7.2427,19.1026,-2.8420,13.6340,-3.0139,13.7067,-4.6703,12.8994,-7.8950,12.9964,1.0021,12.6266,-9.2110,11.5607,5.1513,14.3136,-8.2907,16.9559
996.0938,7.9590,-7.2901,18.5846,-3.5872,15.6417,-2.2903,13.5267,-4.3625,10.6560,-10.5893,10.1360,1.3453,13.4201,-8.7691,12.3465,4.3310,13.9088,-11.1881,17.6298
1000.0000,8.4893,-7.3923,18.6626,-4.1766,19.0377,-2.4387,14.5347,-4.1083,10.6953,-11.5517,9.9240,0.3885,16.1605,-7.6340,13.2041,3.3943,14.7041,-13.1796,19.2048
1003.9062,8.9602,-7.4290,19.3969,-5.2375,22.4290,-3.4060,16.3635,-4.7583,11.7628,-11.9010,12.5900,-0.7099,19.4512,-6.9084,14.2882,3.3723,15.6998,-14.7584,22.1966
1007.8125,7.8452,-7.1035,20.0153,-7.0865,23.9626,-4.4448,17.7513,-6.5220,12.0723,-12.7303,16.5073,-0.8318,21.3464,-7.2467,15.4393,4.4710,15.6195,-16.0750,25.6996
1011.7188,5.1487,-6.1301,19.7027,-9.3498,22.7542,-4.5452,17.6803,-8.7041,10.7450,-14.1620,19.3755,0.0960,20.7388,-8.3650,16.3390,6.0011,13.9946,-16.8032,28.0826
1015.6250,2.4758,-4.4449,18.4269,-11.2055,19.5915,-3.1198,16.3109,-10.1981,8.4441,-15.3219,19.8432,1.0513,18.1040,-9.3394,16.7300,6.9180,11.5379,-16.5051,28.2547
1019.5312,1.6724,-2.2708,17.0933,-12.0611,16.3375,-0.4305,14.9535,-10.3392,6.7434,-15.1831,18.3891,0.8714,15.0362,-9.4284,16.5539,6.5858,9.5151,-15.1153,26.4909
1023.4375,3.1896,0.0225,16.8777,-12.0877,14.4827,2.5885,15.0930,-9.4218,6.7889,-13.5104,16.8596,-0.6057,12.9516,-8.7303,15.9636,5.2384,8.6421,-13.0790,24.1797
1027.3438,5.5704,2.1634,18.2725,-12.1236,13.9747,4.9992,17.2226,-8.4636,8.3481,-11.0884,17.0559,-2.2125,11.9775,-8.1332,15.2593,3.8276,8.4216,-11.0118,22.7206
1031.2500,6.5413,4.1383,20.6309,-12.9906,13.2392,6.5235,20.3858,-8.4237,9.9947,-9.0600,19.4380,-2.2637,10.9067,-8.6045,14.7943,3.3795,7.4776,-9.1893,22.4625
1035.1562,4.8452,6.1392,22.6020,-14.7781,10.3730,7.6925,22.7723,-9.5261,10.2389,-7.9731,22.8711,0.1203,8.2467,-10.4184,14.8659,4.3098,4.6327,-7.3389,22.5157
1039.0625,1.3091,8.3373,23.1362,-16.7177,4.5756,9.3609,22.9184,-11.2371,8.6644,-7.3708,25.5284,4.2639,3.5230,-12.9697,15.5952,6.1627,-0.1331,-4.9435,21.5583
1042.9688,-1.7670,10.6637,22.2711,-17.7958,-3.2856,11.9593,20.6322,-12.8782,6.1567,-6.2812,26.2193,8.4036,-2.2194,-15.3323,16.8344,7.9327,-5.6189,-1.8128,18.9719
1046.8750,-2.4576,12.7852,21.0750,-17.6218,-11.3703,15.0679,17.0063,-14.3111,4.0792,-4.1778,25.1513,11.0320,-7.1374,-17.0852,18.1747,8.7340,-10.2941,1.5799,15.3995
1050.7812,-0.8208,14.3200,20.7960,-16.8051,-18.2076,17.6531,13.5816,-16.0607,3.1164,-1.5652,23.6254,12.0489,-9.9731,-18.6898,19.0982,8.3588,-13.4352,4.3228,12.3004
1054.6875,1.0541,15.1440,21.8928,-16.4610,-23.5762,18.8030,11.3326,-18.7273,2.7615,0.3443,22.9916,12.7791,-10.9867,-21.0546,19.2287,7.3695,-15.5946,5.7138,10.8761
1058.5938,0.6588,15.5520,23.7166,-17.1869,-28.2283,18.4132,10.2124,-22.1709,1.8718,0.6253,23.7104,14.8138,-11.6762,-24.6056,18.5494,6.6903,-18.0251,5.8224,11.2183
1062.5000,-2.8948,16.1216,25.0766,-18.3484,-32.7497,17.3107,9.5092,-25.2052,-0.1937,-0.5237,25.2045,18.5789,-13.4876,-28.6290,17.4475,6.9956,-21.5244,5.4889,12.3222
1066.4062,-8.0193,17.3408,25.2015,-18.3468,-36.5884,16.7266,8.6278,-26.1726,-2.8430,-1.8228,26.5130,22.7781,-16.5551,-31.4821,16.5275,8.2978,-25.6449,5.7132,12.9031
1070.3125,-11.6984,19.2368,24.2895,-15.7837,-38.1615,17.5019,7.6191,-24.0554,-4.6006,-1.8467,27.1240,25.1951,-19.5098,-31.6017,16.2699,9.9776,-28.9248,6.8732,12.3283
1074.2188,-11.6809,21.2683,23.1837,-10.6832,-36.0470,19.5797,7.0352,-19.2970,-4.3160,-0.1263,27.2712,24.2830,-20.5513,-28.5841,16.7094,11.2028,-29.9812,8.3681,10.9272
1078.1250,-8.1690,22.5804,22.4522,-4.7840,-30.3160,22.1035,7.2685,-13.6493,-2.2655,2.4678,27.4754,20.3495,-18.9476,-23.5112,17.3119,11.4441,-28.5996,8.9860,9.4849
1082.0312,-3.7097,22.4839,21.6720,-0.5582,-22.8649,23.9901,7.9672,-9.0772,-0.1990,4.3825,27.7815,15.4344,-15.7492,-18.2424,17.1541,10.7709,-25.9404,7.7554,8.3955
1085.9375,-1.3571,20.8743,19.5860,0.4226,-16.3514,24.5519,8.0708,-6.4713,-0.1812,4.5797,27.4205,11.9501,-13.1014,-14.1775,15.3597,9.7732,-23.6788,4.6832,7.2164
1089.8438,-2.4698,18.3369,15.0904,-1.3978,-12.4617,23.7793,6.5138,-5.1071,-3.0414,3.3491,25.2814,11.0700,-12.6536,-11.4042,11.6104,9.1940,-22.7498,0.8527,5.0097
1093.7500,-5.7678,15.8766,8.3006,-3.8136,-10.8248,22.1989,3.0887,-3.2587,-7.6080,2.1152,20.8798,12.0189,-14.3076,-8.8542,6.4602,9.5037,-22.6970,-2.1861,1.1893
1097.6562,-8.3153,14.4324,0.8029,-4.3447,-9.4479,20.5144,-1.2147,0.4631,-11.3622,2.4032,15.0326,12.7407,-16.3085,-5.3250,1.2212,10.6471,-22.1550,-3.3146,-3.8334
1101.5625,-7.6649,14.4434,-5.2062,-1.9120,-6.3819,19.3034,-4.7336,6.0168,-12.0964,4.7550,9.6012,11.4214,-16.6302,-0.5670,-2.6165,12.0717,-20.0910,-2.4304,-8.7606
1105.4688,-3.5797,15.6852,-8.3240,2.4935,-1.3563,18.8890,-6.2168,11.8608,-9.3973,8.3855,6.3669,7.7636,-14.5783,4.3973,-4.1909,12.9915,-16.8113,-0.3652,-12.2230
1109.3750,1.8803,17.4258,-8.8554,6.5974,3.8835,19.3142,-5.7245,15.9393,-4.8861,11.7719,5.8188,3.1422,-11.3478,7.9503,-3.8384,12.7436,-13.9055,1.7484,-13.6779
1113.2812,5.8796,18.7870,-8.5311,8.4672,6.8160,20.3142,-4.6695,16.9929,-1.0589,13.6716,6.7838,-0.3968,-9.0916,9.0130,-3.0069,11.0790,-13.1296,3.1923,-13.7016
1117.1875,6.7600,19.1178,-9.2133,7.7658,6.0128,21.2981,-4.9143,15.2637,0.4178,13.8139,7.2504,-1.5300,-9.2356,7.7628,-3.4331,8.2714,-15.0733,3.9870,-13.4631
1121.0938,5.0178,18.2230,-11.5419,5.7555,2.1995,21.4697,-7.5068,12.1444,-0.2702,12.8501,5.8474,-0.4617,-11.3701,5.4057,-6.0059,5.0069,-18.6456,4.6724,-13.8099
1125.0000,2.7097,16.3829,-14.5231,4.1452,-2.3099,20.1640,-11.9273,9.1054,-1.4251,11.7481,2.9071,1.3622,-13.5862,3.2183,-10.0432,2.0972,-21.7918,5.7787,-14.6861
1128.9062,1.8629,14.1948,-16.3416,3.7362,-5.3570,17.2688,-16.3875,6.7220,-1.2004,11.1839,0.2995,2.3517,-13.9729,1.6229,-13.5547,0.1329,-22.9067,7.4095,-15.3225
1132.8125,3.1216,12.3185,-15.7501,3.9141,-6.5005,13.4261,-18.9963,4.4874,1.0761,11.3527,0.1171,1.8718,-12.0753,0.0030,-14.4493,-0.7703,-21.8759,9.2236,-15.0082
1136.7188,5.5611,11.2156,-12.9645,3.3232,-7.1828,9.7727,-18.9911,1.4655,4.5759,12.1789,3.1429,0.5925,-9.1609,-2.6388,-11.9597,-1.0046,-19.9718,10.7816,-13.7905
1140.6250,7.6490,10.9672,-9.4026,1.1193,-9.3832,7.2899,-17.1756,-2.7808,7.7892,13.5684,8.2216,-0.1053,-7.1080,-6.7291,-7.2982,-1.2527,-18.7222,11.9531,-12.5139
1144.5312,8.4920,11.2301,-6.5227,-2.2235,-13.8174,6.1616,-15.2617,-7.6982,9.7602,15.3997,12.9952,0.7864,-6.8346,-11.6301,-2.9975,-2.1239,-18.6507,13.0505,-12.1492
1148.4375,8.3981,11.3622,-4.7125,-5.1804,-19.0946,5.6131,-14.5966,-12.0150,10.7503,17.3037,15.4713,3.0900,-7.5368,-15.9610,-1.2828,-3.8381,-18.8631,14.5783,-12.9450
1152.3438,8.4161,10.6847,-3.1202,-6.2752,-22.5024,4.4012,-15.1948,-14.5127,11.8516,18.5693,15.2864,5.4617,-7.3365,-18.4485,-2.5562,-6.1354,-17.7698,16.7869,-14.0983
1156.2500,9.3401,8.7855,-0.5488,-5.1261,-21.8394,1.6596,-15.7760,-14.7000,13.9321,18.4453,13.7798,6.2396,-4.7959,-18.6347,-5.0768,-8.4568,-14.3447,19.3732,-14.2485
1160.1562,11.0358,5.7258,3.3236,-2.6396,-16.9305,-2.4833,-14.7706,-12.9380,16.8093,16.7183,12.8890,4.5764,-0.0718,-16.9380,-6.1201,-10.2719,-8.9293,21.5723,-12.4594
1164.0625,12.6107,2.0380,7.4085,-0.2601,-9.7199,-6.9583,-11.5448,-10.0281,19.3268,14.1041,13.7407,1.1054,5.2036,-14.1102,-3.8500,-11.3374,-2.9767,22.5981,-8.9560
1167.9688,13.2259,-1.5001,9.8340,1.0792,-2.9201,-10.4488,-6.9360,-6.6580,20.2602,12.0198,15.9797,-2.3303,9.1900,-10.5977,1.4130,-11.7262,2.0214,22.1310,-5.0516
1171.8750,12.8336,-4.2129,9.2946,1.4803,1.7541,-12.2278,-2.7040,-3.1308,19.3051,11.7520,18.2593,-3.7806,11.2083,-6.3398,7.4311,-11.6326,5.5556,20.5087,-2.2913
1175.7812,12.2223,-5.8153,6.1006,1.7410,4.4973,-12.5503,-0.3113,0.5112,17.3473,13.5534,19.4114,-2.4629,12.1186,-1.1114,11.6227,-11.1272,8.2818,18.4815,-1.4212
1179.6875,12.3430,-6.4902,2.1129,2.5389,6.9167,-12.3504,0.0598,4.2009,15.8041,16.3469,19.3351,0.6060,13.4406,4.9553,12.8217,-10.0682,11.2736,16.7130,-1.9227
1183.5938,13.4917,-6.7137,-0.4194,3.8745,10.6323,-12.5092,-0.4611,7.7260,15.5751,18.3405,18.9415,3.0896,15.9818,11.1782,11.9517,-8.2586,14.9954,15.3893,-2.4281
1187.5000,15.0366,-6.9373,-0.2793,5.2205,16.0793,-13.2500,-0.3376,10.8843,16.4457,18.1905,19.2888,2.6986,19.1119,16.6520,11.1632,-5.7402,18.8352,14.2139,-1.6973
1191.4062,15.9340,-7.3134,2.0560,6.1677,22.3384,-14.0786,1.2515,13.7197,17.4030,15.9202,20.6837,-1.3749,21.2678,20.8086,12.1300,-2.9912,21.5505,12.7669,0.5604
1195.3125,15.6285,-7.6262,4.9463,6.9169,27.9578,-14.2451,3.9288,16.5365,17.5746,12.9263,22.4913,-7.8828,21.2440,23.7005,14.8081,-0.8431,22.2297,10.9152,3.5898
1199.2188,14.6055,-7.4561,6.8644,8.1079,31.9991,-13.3226,6.6000,19.5856,16.9960,11.0375,23.7582,-14.2232,19.1898,25.7264,17.5668,-0.1183,20.9686,8.9262,6.2379
1203.1250,14.1243,-6.4656,7.4559,10.0946,34.4784,-11.4591,8.4513,22.6414,16.5611,11.2562,24.0596,-18.0094,16.4883,27.0122,18.5336,-1.1955,18.7231,7.1792,7.8228
1207.0312,15.2979,-4.6221,7.6407,12.3053,35.9615,-9.1687,9.6175,24.8468,17.1994,13.0472,23.8172,-18.4893,14.6272,26.9946,17.0791,-3.7716,16.4923,5.7251,8.5690
1210.9375,18.2107,-2.2208,8.7684,13.3236,36.7745,-6.9047,10.9700,25.0356,18.9808,14.6617,23.8344,-16.8636,13.9985,24.6227,14.3080,-6.9776,14.5299,4.1091,9.3118
1214.8438,21.7612,0.2951,11.5336,11.7437,36.5418,-4.7960,13.2191,22.3603,20.9395,14.2770,24.5016,-15.2824,13.6121,19.0915,12.2336,-9.7803,12.2379,1.6862,10.7347
1218.7500,24.3809,2.5937,15.4758,7.1855,34.4107,-2.7325,16.1140,16.7813,21.8331,11.1963,25.4330,-15.2110,11.9519,10.5510,12.3368,-11.4321,8.8111,-1.7455,12.7477
1222.6562,25.1221,4.6273,19.3875,0.6611,29.7196,-0.6536,18.4601,9.0426,21.2703,6.3375,25.9147,-16.3172,8.2663,0.2006,14.6404,-11.7186,4.0665,-5.4940,14.4817
1226.5625,24.3204,6.6189,22.2497,-6.0425,22.5297,1.2794,19.0012,0.1502,20.2792,1.7332,25.7948,-16.6783,3.2451,-10.3613,17.9549,-10.9029,-1.2600,-8.1404,14.9014
1230.4688,23.3449,8.8860,23.9474,-11.5263,13.6261,2.8153,17.4757,-9.2313,20.7681,-0.6012,25.9857,-14.1765,-1.4527,-20.0687,20.9882,-9.4599,-6.0187,-8.3275,13.5715
1234.3750,23.6173,11.6198,25.2440,-15.5924,4.0867,3.9276,14.9626,-18.9655,24.1824,0.2785,27.9961,-8.0969,-4.4121,-28.8829,23.3500,-7.8039,-9.5390,-5.6713,11.0141
1238.2812,25.6073,14.7475,27.0886,-19.0727,-5.1381,4.9876,13.1764,-29.0415,30.3166,3.8566,32.7198,0.2045,-5.4201,-37.4467,25.6364,-6.1703,-12.1517,-1.1300,8.4135
1242.1875,28.5103,17.9351,29.8274,-22.8122,-13.2787,6.5637,13.2197,-38.9015,37.1886,8.5564,39.4021,8.0372,-5.4062,-46.1473,28.5937,-4.6695,-14.8662,3.4921,6.9109
1246.0938,30.7976,20.7042,32.9217,-26.6345,-19.5015,8.9436,14.7745,-47.0932,42.1227,12.5862,45.6931,12.9958,-5.4601,-54.3200,32.1432,-3.4016,-18.4215,6.6066,7.0059
1250.0000,31.1992,22.5874,35.3484,-29.1576,-22.7743,11.7517,16.4010,-51.6458,43.3021,14.7079,48.9170,14.3436,-5.7818,-60.2514,35.1571,-2.4939,-22.4662,7.7334,8.4555
1253.9062,29.3966,23.2654,36.3416,-28.6736,-22.1836,14.0188,16.7341,-51.0405,40.7040,14.5686,47.7351,13.2550,-5.4702,-62.0485,36.2321,-2.0083,-25.5595,7.5848,10.6536
1257.8125,25.9786,22.6634,35.8986,-24.4657,-17.6102,14.7358,15.6349,-45.1606,35.7971,12.5651,43.0088,11.8543,-3.3548,-58.7831,34.8522,-1.7946,-26.0609,7.3000,13.1093
1261.7188,21.7920,20.9997,34.6912,-17.5662,-10.2410,13.5397,14.3521,-35.5505,30.2989,9.4750,37.2100,11.8076,0.8005,-51.1006,31.9764,-1.4245,-23.2733,7.4239,15.6156
1265.6250,17.2670,18.7662,33.4767,-10.3543,-2.3831,11.0381,14.5227,-24.7508,24.9684,6.1266,32.7836,13.4409,5.7271,-40.8717,29.5163,-0.3056,-17.9825,7.4228,18.0107
1269.5312,12.2624,16.6049,32.4685,-5.2491,3.4950,8.5148,16.7759,-15.1008,19.3271,3.2322,30.6375,15.8618,9.2402,-30.1605,29.0432,2.0467,-11.9818,6.1071,19.8188
1273.4375,6.5084,15.0814,31.1295,-3.4109,5.9658,7.1880,20.0588,-7.7571,12.4473,1.3326,29.8179,17.8024,9.6071,-20.2577,30.6742,5.7162,-6.9334,2.6290,20.1953
1277.3438,0.2199,14.4341,28.5359,-4.3229,5.3072,7.5108,22.2646,-2.5146,4.1130,0.7279,28.5242,18.4592,6.6927,-11.4214,32.9649,10.2434,-3.4137,-2.7321,18.3540
1281.2500,-5.6983,14.4435,24.0602,-6.4476,3.1633,8.9644,21.7288,1.5556,-4.6125,1.3565,25.6228,17.7798,2.0366,-3.3899,33.8783,14.7329,-0.8301,-8.6102,14.2263
1285.1562,-10.0936,14.5401,17.9183,-8.3703,1.4176,10.4448,18.4605,5.1853,-11.8836,2.7129,21.4994,16.1861,-2.1871,3.8576,32.1191,18.1818,1.7848,-13.3854,8.8278
1289.0625,-12.3489,14.1376,11.2258,-9.5609,1.0387,10.9466,14.1574,8.3751,-16.2562,3.9534,17.6616,14.1544,-4.5566,9.7610,27.9010,19.8784,4.7666,-16.1584,3.9479
1292.9688,-12.8837,13.0155,5.5297,-10.2790,1.6545,10.0922,10.9836,10.5697,-17.6366,4.2444,15.4918,12.0476,-5.1453,13.5311,22.6913,19.6800,7.4082,-17.1283,1.2547
1296.8750,-12.9281,11.5066,2.0912,-10.8729,2.0732,8.2180,10.0432,11.3008,-17.2630,3.2174,15.1730,10.2240,-5.1583,14.8628,18.2332,18.0381,8.4663,-17.1347,1.3667
1300.7812,-13.6697,10.3458,1.3242,-11.1770,1.2990,6.0696,10.7060,10.7269,-16.7411,1.2618,15.6129,9.1239,-5.8320,14.3670,15.5988,15.7683,7.1752,-16.8014,3.5280
1304.6875,-15.3736,10.2545,2.6827,-10.5578,-0.7286,4.3923,11.2706,9.6220,-16.8807,-0.5767,15.3621,9.0850,-7.4736,13.2964,14.8675,13.6845,3.9574,-16.0139,6.1329
1308.5938,-17.1295,11.5264,5.0208,-8.5532,-3.1799,3.6888,10.3972,8.8326,-17.2102,-1.1007,13.7519,9.9904,-9.3355,12.7172,15.4637,12.2838,0.2483,-14.1439,7.7498
1312.5000,-17.4427,13.8856,7.1914,-5.5142,-5.0713,4.2057,8.1607,8.6502,-16.4993,0.3939,11.3525,11.1446,-10.3372,12.7436,16.7019,11.6205,-2.4608,-10.7772,7.9300
1316.4062,-15.2715,16.6987,8.5369,-2.6338,-6.0952,6.0015,5.8889,8.6040,-13.8354,3.7192,9.4354,11.6578,-10.0058,12.4335,18.0580,11.4017,-3.6589,-6.2649,7.2451
1320.3125,-10.7875,19.3668,9.0136,-1.2561,-6.9163,8.9279,4.9314,7.8311,-9.3974,7.8995,8.9177,11.1629,-8.8933,10.4505,19.0579,11.2116,-4.1593,-1.5789,6.5638
1324.2188,-5.3360,21.6001,8.9296,-1.9625,-8.7271,12.5087,5.3505,5.7231,-4.3483,11.7179,9.6316,10.2853,-8.1788,6.0171,19.0744,10.7186,-5.4991,2.4287,6.1510
1328.1250,-0.6457,23.3880,8.5177,-4.1450,-12.4038,15.8769,5.5972,2.3396,0.0190,14.3546,10.4613,10.3595,-8.8055,-0.5307,17.4004,9.7601,-8.8399,5.7132,5.3049
1332.0312,2.1462,24.7353,7.6620,-6.4080,-17.8647,17.9559,3.4718,-1.7112,3.1665,15.7143,10.1877,12.4536,-10.8295,-7.9664,13.6617,8.3038,-14.1667,9.0295,2.8397
1335.9375,2.9962,25.4332,5.9831,-7.5000,-24.0535,17.8981,-2.3174,-5.7845,5.5261,16.2696,8.3609,16.3906,-13.4547,-14.9608,8.2537,6.3719,-20.3406,13.1646,-1.9279
1339.8438,2.7142,25.1057,3.2231,-7.0663,-29.5027,15.5603,-11.1365,-9.6433,7.9127,16.5954,5.5613,20.5762,-15.6805,-20.8182,2.3777,4.0220,-25.9132,18.0263,-8.4375
1343.7500,2.2510,23.5266,-0.3625,-5.6710,-33.0522,11.6952,-20.6771,-13.4485,10.6584,16.9736,2.9187,22.8960,-17.0314,-25.6218,-2.4641,1.4039,-30.0667,22.3914,-14.9761
1347.6562,2.0820,20.9500,-3.9311,-4.1222,-34.2464,7.6719,-28.2727,-17.3099,13.2055,17.3474,1.3148,22.0973,-17.8136,-29.7458,-5.2280,-1.1812,-32.9933,24.6254,-19.5855
1351.5625,2.1025,18.1404,-6.4110,-2.6850,-33.2336,4.8343,-32.3394,-20.8087,14.5072,17.5921,0.8593,18.6302,-18.7314,-33.1900,-5.8260,-3.3210,-35.4906,23.8853,-21.1651
1355.4688,2.0050,16.0097,-7.0868,-0.8382,-30.3695,3.8556,-32.9932,-22.9615,13.9114,17.7922,0.9525,14.2717,-20.1925,-35.3164,-5.0287,-4.6610,-38.1585,20.8676,-20.0049
1359.3750,1.7363,15.0874,-6.0199,2.2237,-25.9092,4.4689,-31.5613,-22.7483,11.7995,18.2197,0.7837,10.7845,-21.8534,-35.2170,-3.8755,-5.1112,-40.8558,17.4602,-17.4057
1363.2812,1.6148,15.2103,-4.0029,6.7581,-20.0297,5.7243,-29.4973,-19.8461,9.4342,18.9973,-0.1487,8.6368,-22.7576,-32.4162,-3.0449,-4.9384,-42.8330,15.4914,-14.7111
1367.1875,2.0215,15.6718,-2.0706,12.0089,-13.1055,6.5922,-27.5305,-14.9836,8.0971,19.7562,-1.8289,6.7904,-21.9631,-27.3312,-2.6223,-4.6475,-43.3873,15.4926,-12.4813
1371.0938,2.9599,15.7224,-0.9057,16.5281,-5.9163,6.5262,-25.5570,-9.5803,8.1679,19.6713,-3.8640,3.7300,-19.1931,-21.0986,-2.3596,-4.7050,-42.4583,16.4095,-10.3879
1375.0000,3.9064,15.0358,-0.5458,19.0855,0.4945,5.6456,-23.1411,-4.8700,8.8577,17.9743,-5.7747,-1.0904,-15.0275,-14.8799,-2.1291,-5.2910,-40.6317,16.4777,-7.8241
1378.9062,4.1307,13.7852,-0.5592,19.4924,5.3041,4.4703,-20.0720,-1.1350,8.8158,14.6133,-7.2193,-6.5731,-10.4965,-9.1758,-2.1487,-6.2544,-38.5071,14.5888,-4.6741
1382.8125,3.2698,12.3008,-0.4998,18.7102,8.4147,3.4356,-16.5092,2.3666,7.1640,10.5208,-8.0699,-10.6691,-6.3758,-3.6778,-2.7840,-7.2984,-35.9381,11.1018,-1.5892
1386.7188,1.6993,10.6316,-0.2521,18.1426,10.5682,2.5472,-12.7060,6.6986,4.1902,7.1781,-8.3872,-11.9348,-2.7008,2.2316,-4.1027,-8.2351,-31.8187,7.5085,0.4573
1390.6250,0.3822,8.4243,-0.0033,18.6238,12.8943,1.4145,-8.6814,12.2756,1.1965,5.7004,-8.3523,-10.7287,1.1400,8.7318,-5.5786,-9.0841,-24.7145,5.2645,0.9625
1394.5312,0.2659,5.2649,0.0859,19.8353,16.1192,-0.3828,-4.2175,18.3519,-0.3636,6.0886,-8.1578,-9.0582,5.7987,15.1627,-6.2366,-9.9135,-13.9814,4.7323,0.3686
1398.4375,1.6627,1.2148,0.1784,20.5627,19.9461,-2.8779,0.7929,23.3663,0.1908,7.2436,-7.8537,-9.1291,11.2961,20.2970,-5.1875,-10.5567,-0.5786,5.0535,-0.2010
1402.3438,4.0746,-2.9333,0.7225,19.5754,23.0608,-5.5689,5.9833,25.8977,2.4479,7.7915,-7.2199,-11.6673,16.7972,23.0817,-2.1968,-10.4854,13.0840,4.9941,0.2257
1406.2500,6.6032,-5.9721,2.0824,16.4717,23.8225,-7.6661,10.5130,25.5256,5.3656,7.1394,-5.8021,-15.2883,21.0357,23.2813,2.1076,-9.0360,24.2781,4.0249,1.7024
1410.1562,8.6383,-7.0020,4.1535,11.8893,21.2309,-8.5727,13.5015,22.9704,8.1039,5.9534,-3.1833,-17.4051,23.1151,21.5254,6.5402,-5.9131,31.3729,2.7406,3.2693
1414.0625,10.3012,-6.0386,6.3222,6.9828,15.5518,-8.2675,14.5820,19.4508,10.5632,5.6580,0.6300,-16.0096,23.1162,18.7368,9.9826,-1.6180,34.6007,2.2912,3.6232
1417.9688,12.2885,-4.0256,7.8497,2.6178,8.1935,-7.3200,14.1349,15.8010,13.2359,7.2970,4.9971,-11.0298,22.0540,15.4005,11.9321,2.5777,35.6557,3.3259,2.0634
1421.8750,15.2130,-2.2123,8.3916,-1.0907,0.9277,-6.5263,13.0081,12.0542,16.5373,10.6158,8.8442,-4.3231,21.1833,11.2701,12.6509,5.2162,36.4166,5.3407,-0.9920
1425.7812,18.9278,-1.3493,8.2255,-4.5812,-5.0053,-6.4217,11.9402,7.7969,20.1882,14.0821,11.2311,1.5920,21.1362,5.7650,12.8615,5.4884,37.6967,6.9754,-4.2907
1429.6875,22.3619,-1.3045,7.9859,-8.2142,-9.3048,-7.0095,11.1366,2.9434,23.1710,15.8580,11.9186,5.0646,21.5235,-1.2378,13.2152,3.7700,38.8865,7.0109,-6.5926
1433.5938,24.0480,-1.3819,8.1200,-11.7705,-12.2951,-7.8818,10.3102,-1.7879,24.3218,14.9985,11.5035,6.0157,21.3152,-8.8465,13.8753,1.4530,38.6994,5.2400,-7.4241
1437.5000,23.0238,-1.0667,8.5257,-14.5178,-14.1935,-8.6157,9.1148,-5.1776,23.1182,11.9744,10.9708,5.4677,19.7414,-15.3160,14.4582,0.1239,36.4146,2.4959,-7.1821
1441.4062,19.5044,-0.5788,8.6833,-15.8013,-14.5706,-9.1271,7.5855,-6.4082,20.0668,8.1437,10.9645,4.4645,17.0436,-18.8830,14.3413,0.6062,32.6562,-0.1717,-6.5555
1445.3125,14.8516,-0.7683,8.1730,-15.6645,-12.4569,-9.7013,6.2109,-5.8295,16.3938,4.6292,11.3246,3.3231,14.4858,-18.7204,13.1340,2.5043,29.1042,-2.4686,-5.7665
1449.2188,10.8331,-2.4183,7.1163,-14.9521,-7.0447,-10.6837,5.5808,-4.8830,13.2629,1.5192,11.2690,1.7448,13.5661,-15.3514,11.0236,4.5550,27.3484,-5.1352,-4.2637
1453.1250,8.6410,-5.5087,6.1315,-14.7467,1.5417,-12.0881,5.9056,-5.1167,11.0922,-1.9626,10.0959,-0.4763,14.9712,-10.2514,8.7895,5.5307,27.7466,-9.2587,-1.1259
1457.0312,8.2962,-9.0460,5.8092,-15.5366,12.0015,-13.4586,6.8119,-6.9830,9.4506,-6.4816,7.8606,-2.8948,18.0386,-4.9510,7.4635,5.0502,29.1503,-15.1472,4.1309
1460.9375,8.7942,-11.6254,6.1610,-16.7659,22.3520,-14.1290,7.5912,-9.3730,7.5770,-11.6582,5.4709,-4.5538,21.1343,-0.2972,7.8088,3.7278,29.7042,-21.6937,10.9770
1464.8438,8.8517,-12.3146,6.5623,-17.1685,30.8239,-13.7001,7.7187,-10.3456,5.1006,-16.0138,4.0955,-4.7096,22.6844,3.6313,9.8914,2.5884,28.1183,-26.8045,17.9836
1468.7500,7.7290,-11.1904,6.3179,-15.6995,36.5375,-12.3565,7.2480,-8.5939,2.4163,-17.9333,4.3298,-3.4855,22.1135,6.9887,12.9796,2.2183,24.4697,-28.6517,23.5670
1472.6562,5.5999,-9.1285,5.4241,-12.3929,39.5390,-10.7405,6.7868,-4.5659,0.4449,-16.9192,5.7737,-1.8558,20.0238,9.5319,15.8502,2.3154,19.9712,-26.8530,26.8335
1476.5625,3.2995,-7.0324,4.8630,-8.4899,40.2863,-9.4323,7.0865,-0.3391,-0.0141,-14.1123,7.3643,-0.9361,17.5330,10.4763,17.3692,1.9896,15.9517,-22.7145,27.9345
1480.4688,1.7172,-5.1149,6.0798,-5.6944,39.0801,-8.4083,8.5558,1.7425,1.1623,-11.5761,8.2119,-1.1559,15.3316,9.0015,17.0677,0.5824,12.8822,-18.3604,27.7226
1484.3750,1.3084,-2.7909,9.9437,-5.0708,35.9122,-6.9031,11.0471,0.7018,3.3653,-10.8074,8.2853,-1.9910,13.2054,4.9997,15.4159,-1.6379,10.2013,-15.3951,27.0069
1488.2812,2.0309,0.7586,15.9532,-6.3879,30.7796,-3.8284,14.0305,-2.3993,5.7032,-11.5832,8.4096,-2.4629,10.3607,-0.5877,13.6351,-3.4684,7.0131,-14.0587,25.9712
1492.1875,3.6279,5.8171,22.3323,-8.4014,24.0708,1.5037,16.9845,-5.2958,7.5695,-12.0606,9.5786,-1.9695,6.2226,-6.2213,13.1131,-3.5021,3.0074,-13.4316,24.1477
1496.0938,5.9087,11.7709,27.0161,-9.8680,16.5612,8.8436,19.6883,-6.2714,8.8739,-10.1238,12.1228,-0.7468,0.9971,-10.7503,14.6941,-1.0855,-1.2161,-12.4368,20.9072
1500.0000,8.7264,17.4284,28.8535,-10.5191,8.9331,17.0255,22.2189,-5.4994,9.7822,-5.0201,15.3787,0.4204,-4.4834,-14.2094,18.1982,3.1982,-4.7127,-10.8054,16.0611
1503.9062,11.6859,21.7520,28.1798,-11.2276,1.2364,24.5299,24.6989,-4.9190,10.2362,1.9264,18.1096,0.9808,-9.4738,-17.7655,22.4370,7.8829,-7.1531,-9.2517,10.1416
1507.8125,13.9299,24.4313,26.3874,-13.2083,-7.1367,30.2002,27.0293,-6.6887,9.7274,8.0789,19.3471,1.2218,-13.9222,-22.7647,25.7573,11.5610,-9.2969,-8.7580,4.2036
1511.7188,14.3510,25.8844,24.8677,-16.8472,-16.7693,33.6464,28.8302,-11.3731,7.5964,11.1998,19.0172,2.1691,-18.3766,-29.5274,26.8720,13.7396,-12.4633,-9.5814,-0.6569
1515.6250,12.2303,26.7440,24.1325,-21.0847,-27.2747,35.1274,29.6315,-17.2707,3.6712,10.8841,17.9048,4.8269,-23.2149,-36.7992,25.5551,15.0058,-17.3283,-10.8216,-3.7263
1519.5312,7.8681,27.2786,23.7164,-23.9035,-36.8929,35.0982,29.1593,-21.4614,-1.2965,8.6910,17.0191,9.3401,-27.8683,-42.3321,22.7986,16.4176,-23.0156,-10.9533,-4.8190
1523.4375,2.6435,27.2055,22.8038,-23.6461,-43.1366,33.8161,27.5021,-21.8400,-5.8594,6.9019,16.8484,14.7215,-30.8023,-44.2502,20.2849,18.6023,-27.3147,-8.9773,-4.1697
1527.3438,-1.7105,25.9991,20.9711,-20.2197,-44.2078,31.2975,25.0447,-18.6140,-8.7486,6.8251,17.0277,19.3521,-30.4407,-42.2324,19.4081,21.2451,-28.0101,-5.3384,-2.2509
1531.2500,-4.2184,23.3935,18.4200,-15.2681,-40.2213,27.5882,22.2399,-14.1042,-9.8207,7.8732,16.5997,21.8882,-26.3946,-37.6312,20.3892,23.3397,-24.3946,-1.8856,0.3478
1535.1562,-5.3660,19.6571,15.5885,-11.1096,-33.2815,23.0450,19.3952,-10.9541,-10.3367,8.0596,14.6343,21.9422,-20.0008,-32.4030,22.0465,23.9913,-17.8115,-0.8119,2.9931
1539.0625,-6.7901,15.4465,12.5931,-9.1532,-26.2333,18.3372,16.6176,-10.0817,-12.2299,5.5339,10.7803,20.1239,-13.6214,-27.6142,22.4509,23.1560,-10.7600,-3.2394,5.1309
1542.9688,-10.0559,11.4131,9.0888,-8.9231,-20.8995,14.1360,13.9179,-9.9442,-16.7490,0.0480,5.4485,17.5189,-9.1178,-22.6465,20.1402,21.7527,-5.2002,-8.3895,6.4887
1546.8750,-15.3537,7.9149,4.7196,-8.4141,-17.0653,10.7437,11.3434,-7.7263,-23.3898,-6.6753,-0.3944,15.0426,-6.6252,-15.7441,15.1483,21.0576,-1.3446,-13.9044,7.2367
1550.7812,-21.1102,5.0447,-0.2498,-5.5441,-12.9681,7.9782,8.9975,-1.6089,-29.9310,-11.9170,-5.6413,13.0946,-4.6023,-5.5590,9.1236,21.8139,2.1293,-17.1302,7.9295
1554.6875,-24.9138,2.8730,-4.7552,0.3323,-6.9449,5.4174,6.9080,7.5726,-33.6677,-13.6033,-9.4639,11.6292,-1.1806,7.4249,4.3450,23.6882,6.6178,-16.5491,9.1752
1558.5938,-25.1770,1.6132,-7.4862,7.9348,0.9959,2.8080,4.8626,16.5617,-33.0793,-11.5236,-11.6094,10.4420,4.1961,20.6773,2.1901,25.4450,12.0608,-12.4748,11.2070
1562.5000,-22.3422,1.5108,-7.8029,14.9260,8.8788,0.3033,2.3855,21.6984,-28.8048,-7.3693,-12.5033,9.3949,10.1327,30.8610,2.0736,25.7033,16.6199,-6.6307,13.6627
1566.4062,-18.6847,2.5480,-6.2711,19.4767,13.9843,-1.6611,-1.0463,21.2918,-23.2251,-3.6406,-13.0957,8.4659,14.2016,35.7140,1.6657,23.7568,17.9053,-0.9603,15.7709
1570.3125,-16.7652,4.2635,-4.3194,21.3660,14.6765,-2.7415,-5.6366,16.6427,-18.9067,-2.1749,-14.4281,7.7053,14.7584,35.2732,-1.6157,19.9330,14.8484,3.5161,16.8454
1574.2188,-17.6115,5.9139,-3.2185,21.8298,11.4492,-2.9885,-10.9899,10.9956,-16.9712,-3.2177,-17.0479,7.2268,12.2547,31.5877,-8.7534,15.3176,8.7353,7.0802,16.7314
1578.1250,-19.9716,6.9110,-3.1661,22.3271,6.4065,-2.8196,-16.1536,7.2118,-16.5136,-5.5254,-20.5779,7.2386,8.9900,27.1483,-18.1895,11.0923,2.5078,10.7711,15.8512
1582.0312,-21.2317,7.2026,-3.2189,23.2113,1.5962,-2.6819,-20.0281,5.8619,-15.4498,-7.3079,-23.7804,8.0067,7.4334,23.1736,-26.5382,7.9414,-1.2361,15.3873,14.7871
1585.9375,-19.3588,7.2802,-2.1495,23.3496,-2.4986,-2.6881,-21.9356,5.0856,-12.1491,-7.3406,-25.2081,9.6759,8.3729,18.9788,-30.5906,5.8631,-2.0664,20.7747,13.7064
1589.8438,-14.4343,7.7860,0.4452,20.9950,-7.1401,-2.5302,-21.9876,2.2396,-6.6580,-5.5650,-24.1127,12.0429,10.3143,12.8390,-29.3186,4.4060,-1.9606,25.8817,12.0892
1593.7500,-8.6218,9.0192,3.6899,15.2481,-14.0627,-1.7450,-20.9824,-3.9472,-0.6468,-2.9047,-21.0118,14.4997,10.6145,3.6589,-24.5126,3.0885,-3.7212,29.4878,9.0163
1597.6562,-4.5811,10.7241,6.0267,6.9876,-23.7643,-0.1134,-19.8632,-12.3044,3.8288,-0.5342,-17.4508,16.2798,7.4996,-7.8254,-19.5825,1.7034,-8.7203,31.0305,3.8473
1601.5625,-3.5176,12.3074,6.4061,-1.4532,-34.7178,2.1290,-19.0804,-19.9689,5.7854,0.8706,-15.0384,16.8870,1.4343,-19.2189,-17.3199,0.3610,-15.6605,30.9116,-3.2019
1605.4688,-4.3453,13.2742,5.1173,-7.6478,-44.1389,4.4263,-18.3050,-24.3181,5.8977,1.4438,-14.3889,16.3744,-5.1933,-27.8904,-18.1526,-0.6799,-21.3073,30.0770,-11.0355
1609.3750,-4.5886,13.5029,3.5694,-10.4910,-49.7224,6.2520,-16.7194,-24.6279,5.8147,1.8875,-14.7450,15.2035,-9.8099,-32.5955,-20.0826,-1.2323,-22.6813,29.2190,-18.2630
1613.2812,-2.3212,13.1415,3.1704,-10.6633,-51.0057,7.3751,-13.7076,-22.2785,6.7924,2.9168,-14.5963,13.7405,-11.4683,-34.1094,-20.3040,-1.3178,-19.1111,28.2365,-23.9856
1617.1875,2.3579,12.2580,4.1937,-9.8675,-49.3159,7.8412,-9.4439,-19.4657,8.7330,4.7888,-12.8665,11.7866,-11.3471,-34.4200,-17.3059,-1.1740,-12.6579,26.3860,-28.2018
1621.0938,7.4353,10.6141,5.5521,-9.4610,-46.3766,7.7319,-4.9165,-17.4730,10.3692,7.1906,-9.7828,8.5884,-11.5883,-35.0896,-11.9483,-1.1575,-6.6358,23.0173,-31.5157
1625.0000,10.5622,7.8247,5.6903,-9.5136,-42.7094,6.9624,-1.3078,-15.8060,10.4091,9.4899,-6.7466,3.4345,-13.4157,-35.9898,-6.7755,-1.5941,-3.3444,18.3188,-34.3538
1628.9062,10.8426,3.8114,3.9038,-8.9390,-37.1285,5.3347,0.8526,-12.7642,8.6943,11.1153,-5.2807,-3.5539,-16.0161,-35.3226,-4.1352,-2.6229,-2.6620,13.4568,-36.2941
1632.8125,9.4265,-0.8499,1.0230,-6.5135,-27.7785,2.8078,2.1260,-6.9237,6.4248,11.7986,-5.8540,-11.0731,-17.0573,-30.9018,-4.5176,-4.0997,-2.4498,9.9382,-36.0663
1636.7188,8.4745,-5.0583,-1.1210,-1.9519,-13.9464,-0.2767,3.8018,1.6282,5.2595,11.5635,-7.5059,-17.1224,-14.4375,-21.7774,-6.3236,-5.6284,-0.3548,8.6193,-32.3127
1640.6250,9.3561,-7.7954,-1.0753,3.7722,2.7541,-3.2688,6.9213,11.1946,6.0097,10.5564,-8.5845,-20.1120,-7.9227,-9.0801,-7.1665,-6.7512,4.3903,9.0854,-24.6277
1644.5312,11.5482,-8.7938,1.0726,9.0529,18.7923,-5.5870,11.3672,19.4916,7.9810,8.9157,-8.0370,-19.8698,0.5659,4.4498,-5.6799,-7.2283,10.4749,9.8886,-14.1394
1648.4375,13.1151,-8.7386,3.6876,12.6946,30.5285,-7.1121,15.7263,24.9691,9.5079,6.7916,-6.2395,-17.8045,8.2080,15.8687,-2.4663,-7.2364,15.5813,9.5147,-3.1616
1652.3438,12.3669,-8.7906,4.8021,14.5797,36.1950,-8.2536,18.1229,27.4811,9.2765,4.4522,-4.6932,-16.0381,13.1167,23.4087,0.4774,-7.3158,18.1089,7.4108,5.9401
1656.2500,9.3301,-9.7373,3.6762,15.5155,36.7090,-9.5886,17.5107,27.9407,7.3942,2.3011,-4.8013,-16.0497,15.3952,26.9944,1.3584,-8.0357,18.2305,4.3427,11.9766
1660.1562,5.8168,-11.3906,1.5235,16.4630,34.8154,-11.3320,14.5274,27.3768,5.3519,0.6982,-6.6716,-17.7571,16.7060,27.7360,-0.0323,-9.5602,17.5594,1.8311,15.4740
1664.0625,4.0169,-12.6944,0.8076,17.7744,33.2209,-13.0673,11.2591,26.1783,4.8935,-0.3237,-8.8913,-19.6796,18.7817,26.9190,-2.1804,-11.4186,17.7933,1.0723,18.1745
1667.9688,4.7477,-12.4837,3.5545,18.9789,33.0160,-13.9872,10.0016,24.0365,6.6706,-1.1992,-9.4781,-20.0675,22.0591,25.2343,-2.9933,-12.6895,19.4261,2.1139,21.8211
1671.8750,6.7954,-10.3418,9.8644,19.1782,33.3681,-13.4846,11.8260,20.4722,9.7341,-2.6312,-7.3014,-18.1880,25.4390,22.6650,-1.3205,-12.5331,21.4775,3.8495,27.0122
1675.7812,7.9151,-6.9194,17.6842,17.6631,32.5110,-11.6291,15.9189,15.3957,12.2655,-5.1086,-2.9019,-14.8358,27.2604,18.9019,2.2870,-10.7390,22.3467,4.8000,32.8513
1679.6875,6.7145,-3.4769,24.0281,14.2861,29.1807,-9.1282,20.1513,9.2196,12.9796,-8.4591,1.9004,-11.6955,26.6541,13.8213,6.0736,-7.9057,21.0536,4.0941,37.5827
1683.5938,3.9067,-0.9938,26.8276,9.4161,23.4659,-6.7771,22.4761,2.5107,12.1094,-11.8023,5.3015,-10.0200,24.2194,7.6486,8.3738,-5.1010,17.9074,1.9670,39.7626
1687.5000,1.8902,0.4899,26.1662,3.6690,16.6002,-4.8327,22.1859,-4.4125,11.2165,-14.0112,6.7347,-9.6051,21.5466,0.7787,8.6985,-3.2207,14.1594,-0.5107,39.1838
1691.4062,2.9283,1.8097,24.0972,-2.2776,10.0317,-2.8428,20.1892,-11.5170,11.9826,-14.4080,7.1313,-8.8473,20.0134,-6.4831,7.8638,-2.4860,10.9936,-2.1954,36.9647
1695.3125,7.3249,3.9439,23.2114,-7.6739,4.5583,-0.1202,18.1773,-18.6860,14.9208,-13.2069,8.0898,-5.8963,19.7957,-13.9923,7.1952,-2.4284,8.6683,-2.5404,34.7889
1699.2188,13.0211,7.1607,24.9471,-11.6631,0.1305,3.4781,17.3443,-25.3195,18.9828,-11.3683,10.6349,-0.1082,19.8139,-21.6164,7.5152,-2.3534,6.4322,-1.7449,33.8344
1703.1250,16.9497,10.6809,28.7549,-13.4602,-3.6692,7.1031,17.6027,-30.3515,22.3271,-9.9573,14.5041,7.2563,18.5987,-29.0548,8.6882,-1.9189,3.2108,-0.3965,34.1146
1707.0312,17.1309,13.1113,32.6076,-12.7596,-6.9630,9.2316,17.8234,-32.7798,23.6155,-9.4813,18.4349,13.6474,15.3984,-35.8176,9.9602,-1.3820,-1.5006,1.0108,34.6391
1710.9375,13.9336,13.3461,34.4299,-10.0744,-9.2852,8.6169,16.8501,-32.3280,22.8321,-9.6989,21.1416,16.8045,10.7371,-41.3682,10.6877,-1.3284,-7.1880,2.2911,34.2436
1714.8438,9.5926,11.3083,33.4457,-6.6381,-9.8412,5.2250,14.4795,-29.6861,21.0387,-10.0210,22.1858,16.2427,6.0949,-45.2467,10.8075,-2.1022,-12.5730,3.4209,32.4906
1718.7500,6.4207,8.0272,30.5580,-3.7821,-8.0539,0.4560,11.6662,-26.0663,19.3346,-10.1428,22.1059,13.6089,3.0166,-47.0209,10.7156,-3.3895,-16.3130,4.2706,30.0272
1722.6562,5.1235,5.0178,27.5789,-2.1462,-3.9557,-3.5709,9.8301,-22.3639,17.8941,-10.3562,21.7970,11.6123,2.2904,-46.1224,10.7693,-4.2960,-17.6346,4.5215,28.1736
1726.5625,4.4796,3.3957,25.9061,-1.3016,1.8243,-5.2243,9.8201,-18.5658,15.8468,-11.2593,21.7085,12.2056,3.6783,-41.8255,10.9288,-3.8760,-16.5396,3.8621,28.0424
1730.4688,2.5343,3.3073,25.5799,-0.1332,8.3754,-4.2549,11.3238,-13.8982,12.0578,-13.1022,21.5018,15.2358,6.2231,-33.5814,10.8711,-1.7303,-13.5920,2.2656,29.7914
1734.3750,-1.7222,4.0020,25.3474,2.2288,14.8160,-1.7858,13.1396,-7.6432,6.1412,-15.3479,20.3895,18.4964,8.7877,-21.6215,10.4326,1.7623,-9.5676,0.0637,32.4903
1738.2812,-7.5312,4.4326,23.6406,5.5910,20.3809,0.5556,14.0626,-0.0135,-1.1188,-16.8857,17.8206,19.1852,10.4482,-7.4166,9.9161,5.7261,-5.2405,-2.2824,34.6550
1742.1875,-12.9912,3.9461,19.7482,8.6309,24.3262,1.7278,13.6965,7.6137,-8.2601,-16.7974,13.9495,15.8189,10.6059,6.4649,9.9096,9.3436,-1.3549,-4.5215,35.0592
1746.0938,-16.5429,2.6272,14.3533,9.6919,25.8896,1.8357,12.6020,13.3413,-14.1222,-15.0849,9.5563,9.3282,8.9547,17.2215,10.7255,12.2617,1.3720,-6.7507,33.2926
1750.0000,-18.0764,1.1370,9.0812,7.9008,24.4794,1.8347,11.7356,15.8525,-18.5155,-12.7413,5.5532,2.5949,5.4949,23.0040,11.9538,14.5761,2.3781,-9.2107,29.7582
1753.9062,-18.7924,0.2327,5.4109,3.7962,20.0247,2.6836,11.6685,15.1795,-22.0607,-11.0453,2.5100,-1.2717,0.6240,23.7110,12.5901,16.4761,1.5008,-11.9094,25.2122
1757.8125,-20.0005,0.3279,3.7483,-1.0056,13.1956,4.6201,12.2037,12.5807,-25.3801,-10.5992,0.5390,-0.7848,-4.8507,20.8566,11.7379,17.8994,-0.8548,-14.4212,20.2393
1761.7188,-21.9022,1.3599,3.3189,-4.8803,5.2315,7.0772,12.6471,9.6155,-28.3447,-10.8702,-0.4700,3.1397,-9.9450,16.5505,9.3746,18.5092,-3.8303,-16.0798,15.0301
1765.6250,-23.3783,2.9795,2.9197,-7.2278,-2.6195,9.2317,12.4502,7.0951,-30.0289,-10.6291,-0.5725,7.9269,-13.9430,12.2286,6.5456,18.0136,-6.5202,-16.4402,9.5408
1769.5312,-22.9461,4.8583,1.9240,-8.7230,-9.7263,10.6955,11.6627,4.6688,-29.4256,-8.9566,0.2602,11.0381,-16.7842,7.9560,4.7507,16.5393,-8.4457,-15.6318,3.8081
1773.4375,-20.0711,6.8640,0.7451,-10.6257,-16.3316,11.7861,10.8179,1.3250,-26.3426,-6.0124,1.9146,11.4551,-19.0801,2.7394,4.9181,14.7144,-9.7742,-14.2828,-1.8937
1777.3438,-15.7332,8.9973,0.3852,-13.6872,-23.2145,13.1757,10.3598,-3.5992,-21.7384,-2.9276,3.9209,10.0158,-21.6612,-4.4029,6.7172,13.3470,-11.1106,-13.0458,-7.1835
1781.2500,-11.7618,11.1862,1.4182,-17.4773,-30.9364,15.2272,10.1096,-9.6750,-17.1989,-0.8843,5.5318,8.5229,-24.9082,-13.3780,8.7520,12.9247,-12.9755,-12.1006,-11.8376
1785.1562,-9.4733,13.1415,3.2302,-20.6218,-39.1597,17.5604,9.2371,-15.4712,-13.9427,-0.1281,6.1083,8.3792,-28.3259,-22.7085,9.5204,13.3166,-15.3208,-11.0523,-15.9078
1789.0625,-8.7198,14.4189,4.1804,-21.7473,-46.5267,19.2042,6.7972,-19.4110,-12.1214,0.2558,5.5172,9.7375,-30.7052,-30.1878,8.4378,13.9084,-17.4334,-9.3334,-19.5465
1792.9688,-8.1337,14.6545,2.6510,-20.4122,-51.2318,19.2220,2.4271,-20.7632,-10.9506,1.5764,4.1820,11.6514,-30.8348,-34.0489,6.1527,14.0620,-18.3322,-6.7947,-22.6787
1796.8750,-6.3835,13.7946,-1.7590,-17.3358,-51.9643,17.3347,-3.3349,-20.0427,-9.5453,4.3715,2.6866,12.9262,-28.3247,-33.8680,3.9099,13.5369,-17.4295,-3.9886,-24.8376
1800.7812,-3.4315,12.1308,-7.8072,-13.7857,-48.6315,14.0793,-9.3589,-18.5420,-7.7782,7.8006,1.2166,12.8994,-23.9866,-30.6395,2.4522,12.5507,-15.0245,-1.8764,-25.3804
1804.6875,-0.7584,10.1001,-13.3202,-10.6174,-42.3977,10.4048,-14.6185,-17.3557,-6.4587,10.1438,-0.6945,11.5802,-19.4730,-26.0411,1.3264,11.4535,-12.2747,-1.1562,-23.9765
1808.5938,-0.3248,7.9955,-16.5657,-7.7006,-35.0117,7.0355,-18.7371,-16.6178,-6.6743,10.0663,-3.8392,9.2121,-16.3663,-21.4307,-0.8223,10.3073,-10.6108,-1.7283,-20.9873
1812.5000,-3.0392,5.8157,-17.2896,-4.1491,-27.8635,4.0845,-21.9864,-15.4962,-8.8097,7.6720,-8.6084,5.8307,-15.2837,-17.2318,-5.1371,8.7425,-10.9289,-2.7329,-17.3769
1816.4062,-7.9111,3.3791,-16.6705,0.8460,-21.3779,1.1801,-24.7878,-12.9183,-12.0345,4.4890,-14.4018,1.3335,-15.5778,-13.0284,-11.4426,6.2350,-13.0609,-3.1507,-14.1368
1820.3125,-12.5684,0.6158,-16.2690,7.2293,-15.1164,-2.0428,-27.1719,-8.4711,-14.7109,2.3635,-19.6860,-3.9812,-15.8272,-8.1803,-18.0254,2.6027,-15.8725,-2.5144,-11.6161
1824.2188,-14.7944,-2.2146,-16.8164,13.9336,-8.4648,-5.5107,-28.6720,-2.8129,-15.4665,2.1043,-22.7760,-9.0005,-14.7917,-2.4549,-22.5673,-1.6778,-17.9425,-1.1876,-9.2858
1828.1250,-13.9767,-4.5939,-17.7862,19.4806,-1.3833,-8.6907,-28.7557,2.6908,-14.1507,2.9419,-22.8706,-12.1101,-12.1947,3.7529,-23.6352,-5.6162,-18.3982,-0.0076,-6.1793
1832.0312,-11.4240,-6.1010,-18.0372,22.8803,5.3339,-10.9894,-27.4222,6.8182,-11.9494,3.2315,-20.6240,-12.2366,-8.8209,9.6797,-21.6776,-8.2564,-17.3663,0.4123,-1.7331
1835.9375,-9.3513,-6.7937,-16.9326,24.1844,10.4781,-12.2398,-25.4186,9.2081,-10.5381,1.8509,-17.7974,-9.8828,-5.8919,14.6509,-18.7681,-9.2641,-15.7535,0.1652,3.5994
1839.8438,-9.2892,-7.2913,-14.9544,24.3175,13.2088,-12.8725,-23.8122,10.4414,-10.8615,-0.8196,-16.1539,-7.2243,-4.1841,18.3628,-17.2160,-9.1474,-14.5257,-0.0520,8.4689
1843.7500,-11.0584,-8.4209,-13.2678,24.3413,13.6125,-13.6235,-23.1891,11.4725,-12.4120,-3.1204,-16.3069,-6.9270,-3.5260,20.8192,-17.9846,-8.9610,-14.0066,0.4774,11.4576
1847.6562,-12.9870,-10.6301,-12.6021,24.6976,12.6115,-14.9950,-23.1096,12.8588,-13.5294,-3.3755,-17.3130,-10.3576,-3.0304,22.0524,-20.0415,-9.6919,-13.6983,1.9097,12.0263
1851.5625,-13.1275,-13.5859,-12.4376,24.9515,11.2804,-16.8785,-22.3141,14.3579,-12.5138,-1.2036,-17.3225,-16.4668,-1.8724,21.9164,-21.1255,-11.7274,-12.7507,3.7321,10.8584
1855.4688,-10.5477,-16.2924,-11.2794,24.1747,10.0773,-18.6238,-19.6221,15.1576,-8.7676,2.1610,-14.8756,-22.2861,-0.0206,20.1456,-19.4123,-14.7166,-10.7170,5.1987,9.3072
1859.3750,-5.7988,-17.6958,-7.8902,21.6561,8.5791,-19.4926,-14.8944,14.5356,-3.1709,4.7974,-9.9625,-24.8423,1.6499,16.6266,-14.8918,-17.8522,-8.0116,5.9432,8.3371
1863.2812,-0.3385,-17.3693,-2.4962,17.4349,5.9386,-19.1475,-9.3109,12.4451,2.5508,5.5558,-4.0983,-23.1945,1.9737,11.6418,-9.4506,-20.3333,-5.6947,6.2622,7.7701
1867.1875,4.5422,-15.7771,3.0955,12.3205,1.7366,-17.8179,-4.6736,9.6071,6.9888,4.9095,0.6656,-19.1025,0.4010,5.8647,-5.5658,-21.7014,-4.7150,6.8404,6.4463
1871.0938,8.4468,-13.9096,6.6965,7.4415,-3.4207,-16.0486,-2.1780,7.0695,9.9087,4.5424,3.1196,-15.7787,-2.4870,0.0862,-4.5279,-21.8967,-5.1717,8.1452,3.2169
1875.0000,11.7757,-12.5566,7.3845,3.6667,-8.0469,-14.2639,-1.5423,5.5626,12.2100,5.9972,3.6872,-15.5825,-5.2638,-5.1318,-5.4840,-21.0983,-6.1681,9.9826,-1.9766
1878.9062,15.0127,-11.7743,6.2729,1.2651,-10.6146,-12.5133,-1.1877,5.0909,15.0556,9.4297,4.0444,-18.3381,-6.5663,-9.6236,-6.0285,-19.5447,-6.3992,11.5699,-7.7939
1882.8125,18.0674,-10.9681,5.6996,-0.0525,-10.5171,-10.5952,0.5867,4.9906,18.8343,13.4148,5.8131,-21.5316,-5.9761,-13.4983,-3.9622,-17.4703,-5.0596,12.0615,-12.2456
1886.7188,20.2382,-9.5307,7.3766,-0.8395,-8.4621,-8.4372,4.2478,4.3450,22.7264,15.9263,9.2647,-22.2483,-4.2253,-16.8385,1.0339,-15.1467,-2.3996,11.1094,-13.9781
1890.6250,20.8070,-7.5146,10.9324,-1.6175,-5.9954,-6.3848,8.5033,2.4459,25.1926,15.7259,13.0043,-19.3995,-2.5693,-19.4615,7.0376,-12.9071,0.4938,9.0285,-13.1226
1894.5312,19.7366,-5.7586,14.0567,-2.7397,-4.4621,-5.1171,11.0637,-0.9617,25.0369,13.1202,14.9228,-14.5553,-1.7906,-20.9185,11.1491,-11.0551,2.5301,6.4686,-11.0459
1898.4375,17.8569,-5.3006,14.2371,-4.3947,-4.1131,-5.2037,10.2264,-5.6886,22.2840,9.5723,13.7794,-10.7485,-1.5800,-20.7282,11.5147,-9.6948,3.4344,3.8914,-9.1778
1902.3438,16.3454,-6.4948,10.8043,-6.6220,-3.9597,-6.6211,6.1790,-11.2264,18.2470,6.5408,10.2664,-10.1584,-0.7660,-18.6696,8.6702,-8.6309,3.9305,1.2843,-7.8214
1906.2500,15.8960,-8.5428,5.6818,-9.2628,-2.4571,-8.6108,1.0714,-16.8446,14.7392,4.4687,6.7277,-12.4369,1.7668,-14.9442,5.2169,-7.4734,5.1469,-1.6804,-5.9022
1910.1562,16.2391,-9.8843,2.1858,-11.9077,1.4590,-10.0338,-2.2508,-21.6623,12.9742,2.6594,5.6489,-14.9611,6.1430,-10.1341,4.0270,-5.9351,7.6973,-5.2154,-1.9024
1914.0625,16.4048,-9.2451,2.7124,-13.9720,7.6605,-10.0123,-2.0067,-24.8081,12.8979,0.0478,7.9452,-14.8326,11.2386,-5.0320,6.2354,-4.1346,11.1307,-9.1125,4.7102
1917.9688,15.5328,-6.5953,7.0355,-14.9551,14.8526,-8.4374,1.4685,-25.7283,13.3676,-3.8116,12.2697,-11.1191,15.2920,-0.4679,10.4467,-2.6610,14.1612,-12.8307,12.6818
1921.8750,13.5819,-3.2745,12.5040,-14.7587,21.2384,-6.0008,6.0873,-24.5195,13.0046,-8.3257,15.8736,-5.6507,16.9557,2.8092,13.7286,-2.2854,15.4987,-15.8876,19.5022
1925.7812,11.3645,-1.1195,15.9926,-13.8237,25.3477,-3.7410,9.4967,-22.0199,11.1099,-12.2981,16.4561,-1.7699,16.0597,4.2356,13.6933,-3.4448,14.6666,-18.1909,22.9738
1929.6875,9.8720,-1.1767,16.1344,-12.9209,26.5475,-2.4156,10.6203,-19.4794,8.0520,-14.8195,13.7184,-1.9586,13.5991,3.5826,10.1951,-5.8260,12.2323,-19.9864,22.7115
1933.5938,9.4401,-2.9209,14.1712,-12.6731,25.0556,-2.1087,10.1896,-17.9127,4.9507,-15.8871,9.5445,-6.0745,11.0274,1.1152,5.4530,-8.3629,9.3411,-21.4472,20.4631
1937.5000,9.4592,-4.5659,12.8422,-13.1162,21.6223,-2.2893,9.9696,-17.5271,2.9649,-16.2881,6.7017,-11.4470,9.3946,-2.3845,2.5328,-9.7343,6.9509,-22.2724,18.9645
1941.4062,8.9056,-4.2670,14.2275,-13.6328,17.1717,-2.2150,11.3299,-17.6379,2.6996,-16.8828,7.0048,-14.6956,8.8963,-5.8678,3.2796,-9.1106,5.3288,-21.7106,20.1126
1945.3125,7.2933,-1.3657,18.2214,-13.3501,12.5751,-1.3638,14.2422,-17.1826,4.0568,-17.8747,10.2331,-13.9125,9.0215,-8.5120,7.1453,-6.6927,4.0975,-19.0970,23.7352
1949.2188,5.2538,3.2015,22.7526,-11.7536,8.5264,0.3836,17.4059,-15.5032,6.4796,-18.6270,14.5057,-9.6783,9.0339,-10.1975,11.6890,-3.6612,2.6686,-14.5371,27.8078
1953.1250,4.1951,7.5984,25.4774,-9.0794,5.4104,2.8623,19.3198,-12.8404,9.2805,-18.1338,17.7425,-4.3236,8.3580,-11.6304,14.3286,-1.5046,0.6458,-9.1699,29.9217
1957.0312,5.2102,10.3562,25.5602,-6.1845,3.1524,5.8600,19.4239,-10.1654,11.7942,-15.7637,19.0878,-0.1434,6.6431,-13.9446,14.0759,-1.1075,-2.0969,-4.6898,28.9257
1960.9375,8.0465,11.2924,24.1628,-3.9733,1.1748,9.2425,18.4341,-8.4712,13.3597,-11.7289,19.2822,2.0625,3.6282,-17.9690,12.0602,-2.1830,-5.6077,-2.3600,25.5875
1964.8438,10.9839,11.4504,23.3472,-2.8074,-1.3967,12.8743,17.6608,-8.0684,13.3402,-6.9875,19.8138,3.1401,-0.8980,-23.6279,10.5550,-3.4515,-10.0158,-2.1873,21.8799
1968.7500,11.8246,12.1701,24.3478,-2.3555,-5.3041,16.4470,17.8929,-8.4511,11.3427,-2.7146,21.5983,4.5179,-6.8978,-29.9037,11.2685,-3.4939,-15.4266,-2.8901,19.5037
1972.6562,9.3410,14.0164,26.6017,-2.0095,-10.7311,19.4147,18.7391,-8.8511,7.5412,0.2556,24.2271,6.9067,-13.8048,-35.4290,14.1167,-1.7341,-21.6208,-2.7656,18.7641
1976.5625,4.1265,16.3523,28.2485,-1.5347,-17.1586,21.1468,18.9227,-9.0347,2.7992,1.6782,26.3058,9.7936,-20.4912,-39.3080,17.2839,1.1231,-27.8680,-0.8964,18.5779
1980.4688,-1.8055,17.8247,27.6150,-1.4020,-23.6061,21.2248,17.2678,-9.6558,-1.6443,1.7869,26.5353,12.0227,-25.6497,-41.5723,18.4455,3.5422,-33.1058,2.1520,17.5025
1984.3750,-6.4054,17.3509,24.4622,-2.4680,-29.0927,19.6802,13.5954,-11.7956,-4.8271,1.0206,24.6486,12.8642,-28.4070,-42.9122,16.2711,4.2293,-36.4226,4.6776,14.9338
1988.2812,-8.9330,14.8706,20.0507,-5.1903,-33.0023,17.0066,8.8554,-15.9737,-6.6262,-0.1812,21.5104,12.6424,-28.7438,-43.8752,11.2230,3.1003,-37.4969,5.0298,11.5647
1992.1875,-10.2644,11.3545,16.0823,-8.9902,-35.1447,13.9353,4.4435,-21.4012,-7.7835,-1.4462,18.3935,12.4243,-27.4030,-44.1608,5.2221,1.4376,-36.6512,2.8121,8.8149
1996.0938,-11.9617,8.1397,13.4584,-12.3419,-35.5680,11.1241,1.2771,-26.1455,-9.3123,-2.4895,16.0853,13.0749,-25.3503,-42.6236,0.5097,1.0661,-34.4940,-0.7736,7.7335
2000.0000,-14.8660,6.1240,11.8463,-13.6523,-34.3736,8.9439,-0.6618,-28.2186,-11.6900,-3.1855,14.5272,14.4894,-23.2065,-38.0840,-1.5287,3.0741,-31.4690,-3.7186,8.2282
2003.9062,-18.3506,5.3792,10.2949,-12.3617,-31.7364,7.4552,-2.0341,-26.8686,-14.4513,-3.6638,13.1803,15.6414,-21.0811,-30.3997,-0.9162,6.9672,-27.7043,-4.5945,9.1615
2007.8125,-20.8344,5.3667,8.2480,-9.4425,-28.0891,6.5334,-3.4335,-23.1196,-16.5250,-4.2858,11.6886,15.4040,-18.8932,-20.9673,1.1666,10.8872,-23.2690,-3.5423,9.1664
2011.7188,-21.1353,5.4809,6.0231,-6.8408,-24.2158,6.0247,-4.8936,-19.1049,-17.0809,-5.4088,10.2109,13.4773,-16.8367,-12.1663,3.1373,12.7981,-18.5567,-2.1402,7.5235
2015.6250,-19.5404,5.4651,4.3602,-6.1701,-21.0343,5.8428,-6.0005,-16.6166,-16.2275,-7.0360,9.1492,10.6769,-15.5160,-6.0170,3.7776,11.8456,-14.3684,-2.2259,4.4706
2019.5312,-17.6812,5.4300,3.4950,-7.5644,-19.1235,5.9890,-6.4536,-15.9079,-14.9836,-8.6213,8.5720,8.3498,-15.5640,-2.9507,2.6428,8.9417,-11.5222,-4.5204,0.8159
2023.4375,-17.2628,5.5635,2.6458,-9.5452,-18.3381,6.5266,-6.5271,-15.6286,-14.5097,-9.2606,7.9108,7.3713,-17.0318,-1.5930,0.0228,6.1443,-10.2679,-8.0512,-2.7439
2027.3438,-18.6561,5.8499,0.4523,-10.0536,-17.8720,7.5304,-6.9829,-13.9456,-15.1896,-8.2392,6.2669,7.5009,-19.1001,0.2155,-3.4060,5.2449,-10.0297,-10.8009,-6.0392
2031.2500,-20.5213,6.0482,-3.9237,-7.9300,-16.8185,9.0086,-8.4755,-10.0066,-16.3019,-5.5973,3.1128,7.5981,-20.4559,3.8249,-7.0036,6.5424,-9.7871,-11.1067,-9.3098
2035.1562,-20.8284,5.9221,-9.9223,-3.7596,-14.8596,10.8085,-10.9440,-4.6340,-16.5679,-2.2826,-1.1844,6.5434,-20.1440,8.7219,-10.4469,8.6566,-8.8840,-8.7868,-12.7504
2039.0625,-18.5036,5.4910,-15.6849,0.5607,-12.5493,12.5651,-13.5221,0.2832,-15.1568,0.3141,-5.4654,4.1726,-18.2742,12.7828,-13.7412,9.5056,-7.6374,-5.1705,-16.1568
2042.9688,-14.3768,5.0717,-19.1213,3.2306,-10.9203,13.7791,-15.0837,3.2315,-12.3331,1.2066,-8.4398,1.5125,-16.0026,13.6788,-16.9688,7.7548,-7.2090,-2.0312,-18.9693
2046.8750,-10.6216,5.0759,-19.1797,3.8749,-10.6696,14.0481,-15.0198,4.2197,-9.2050,0.4948,-9.4013,0.1157,-14.7359,10.4461,-19.9372,3.7318,-8.7553,-0.2413,-20.6442
2050.7812,-9.0763,5.7338,-16.4090,3.7716,-11.5577,13.3427,-13.6509,4.7126,-6.7661,-0.6237,-8.4788,0.9471,-15.1129,4.1075,-21.9977,-0.8071,-12.4756,0.8241,-21.0197
2054.6875,-9.7699,6.9565,-12.4632,4.7747,-12.5464,12.1209,-11.9706,6.3628,-5.0306,-0.5933,-6.3215,3.6171,-16.5264,-3.0830,-22.2544,-3.8535,-17.3203,2.6816,-20.3873
2058.5938,-10.8596,8.4140,-8.9964,7.7351,-12.6443,11.1209,-10.9481,9.5064,-3.0222,1.4574,-3.5762,6.5288,-17.5653,-9.1979,-20.1416,-4.4332,-21.6436,6.4033,-19.2559
2062.5000,-10.0893,9.7243,-6.7906,11.6392,-11.8289,10.8832,-10.9444,12.6172,0.3159,5.0664,-0.6178,7.8762,-17.0565,-13.8390,-16.0324,-3.1395,-24.3400,11.5927,-18.0405
2066.4062,-6.6411,10.5801,-5.6708,14.1829,-11.2667,11.2847,-11.6662,13.2245,5.0153,8.6552,2.3219,6.8341,-14.9137,-18.0991,-11.3910,-1.6263,-25.5809,16.4940,-16.9134
2070.3125,-1.8988,10.7376,-5.0828,13.4231,-12.5207,11.4357,-12.6120,9.6947,9.7457,10.5117,4.9005,4.1223,-12.1320,-23.3258,-8.1837,-1.4902,-26.5393,19.1952,-15.8587
2074.2188,1.5345,9.9445,-4.7125,9.3121,-16.2125,10.0954,-13.5624,2.5933,12.6390,9.9027,6.6815,1.5315,-9.9218,-29.6284,-7.7582,-3.3269,-28.2711,19.0352,-14.7706
2078.1250,1.8340,7.9509,-4.6091,3.9645,-21.1091,6.4134,-14.6681,-5.3942,12.7206,7.5692,7.5107,0.6979,-8.6558,-35.2712,-9.8631,-6.5316,-30.6129,17.1428,-13.4434
2082.0312,-0.5957,4.6651,-4.8035,0.4112,-24.4136,0.5405,-16.0788,-10.9737,10.8244,5.2575,7.9027,1.9358,-7.4656,-37.4593,-12.5355,-9.8387,-31.9975,15.6661,-11.4867
2085.9375,-3.3733,0.3571,-4.9056,0.6979,-23.2334,-6.3095,-17.4897,-12.1522,9.1853,4.5955,8.9539,3.9335,-4.8474,-34.0163,-13.0973,-12.1218,-30.4086,16.2349,-8.3650
2089.8438,-3.9178,-4.2738,-4.1746,4.6522,-16.3414,-12.4186,-18.0771,-9.2454,9.9042,6.0749,11.6509,4.5590,0.1468,-24.8109,-9.7522,-12.9067,-24.8165,18.7850,-3.7017
2093.7500,-1.3566,-8.2838,-2.0992,10.1412,-5.0668,-16.4087,-16.9653,-4.3603,13.3984,8.8222,16.0150,2.2782,7.0261,-11.9715,-2.7843,-12.3715,-16.0278,21.6110,2.2733
2097.6562,2.9371,-10.8594,0.9934,14.5502,7.3127,-17.8396,-13.8905,0.1664,18.0360,11.2873,20.8004,-2.7516,13.9800,1.2226,5.4681,-11.0069,-6.2901,22.6059,8.4917
2101.5625,6.5791,-11.6722,3.8841,16.3656,17.3159,-17.2192,-9.5166,3.1952,21.2932,12.3401,24.1378,-8.6680,18.9564,11.9980,11.9189,-9.2812,2.0894,20.7613,13.3388
2105.4688,8.1598,-11.0019,5.1290,15.7600,23.0161,-15.4925,-5.1069,5.1003,21.6015,11.9895,24.7798,-13.0216,20.9353,19.2163,14.5153,-7.5233,8.1098,16.8255,15.4201
2109.3750,8.3529,-9.5599,4.0118,13.9040,24.7110,-13.4277,-1.7683,6.9074,19.4918,11.2377,23.0517,-14.3127,20.4796,23.3611,13.3453,-5.9791,12.4440,12.6619,14.3365
2113.2812,9.2376,-8.1329,1.0685,11.7117,24.1769,-11.3273,0.1652,9.0784,17.1485,11.2225,20.7304,-12.9301,19.1735,25.5988,10.3783,-4.8583,16.5757,9.8328,10.9053
2117.1875,12.3868,-7.2545,-2.2306,9.0917,23.1559,-9.1957,1.1530,10.9678,16.7029,12.3121,19.8463,-10.8602,18.3829,26.7163,8.0713,-4.2689,21.4005,8.4906,6.6089
2121.0938,17.3032,-7.0653,-4.4180,5.2805,22.2018,-7.1157,1.8992,11.3678,18.5730,13.8283,21.2455,-10.3543,18.2723,26.6875,7.8311,-4.1096,26.3731,7.3970,2.6299
2125.0000,21.5347,-7.3778,-4.8867,-0.0957,20.6651,-5.4437,2.7216,9.6440,21.1370,14.5769,23.9910,-12.4441,17.8142,25.0384,9.3614,-4.0692,29.8485,5.0088,-0.8110
2128.9062,22.4546,-7.8445,-4.0419,-6.1986,17.7084,-4.6220,3.3799,6.4808,22.0036,13.7462,26.0846,-16.2849,15.7793,21.5618,11.2450,-3.7884,30.3479,0.7672,-4.2871
2132.8125,19.3293,-8.1076,-2.6851,-11.1671,13.4709,-4.7659,3.4917,3.5698,19.9050,11.4704,25.9974,-19.7273,11.9493,16.7335,12.2218,-3.0696,27.7813,-4.3938,-8.2683
2136.7188,14.0258,-7.8718,-1.1721,-13.2590,9.4114,-5.4068,3.1435,2.4246,15.7505,8.6399,23.8596,-20.6776,7.6162,11.5034,12.1745,-1.9555,23.6917,-8.6785,-12.2050
2140.6250,9.7518,-6.9248,0.9528,-12.0919,7.5060,-5.6705,3.1045,3.2190,12.0253,6.1468,21.4067,-18.3089,4.9435,6.6797,12.1274,-0.6138,20.3236,-10.6803,-14.3935
2144.5312,8.7708,-5.1641,4.5395,-9.0089,8.8645,-4.8225,4.3638,4.5527,10.9911,4.2011,20.7206,-13.3557,5.6011,2.4345,13.3422,0.8507,19.1812,-10.2917,-12.8731
2148.4375,10.8377,-2.6540,9.9659,-6.2431,12.7988,-2.8004,7.2956,4.3648,13.0632,2.2804,22.7160,-7.4214,9.6295,-1.6693,16.2553,2.4572,20.1047,-8.6207,-6.8047
2152.3438,13.5377,0.3229,16.5293,-5.4669,17.0836,-0.3305,11.1294,1.3492,16.5836,-0.2562,26.5103,-1.9051,15.3447,-6.1715,20.0653,4.2079,21.4924,-7.0465,2.6732
2156.2500,14.2206,3.2814,22.6214,-6.7677,19.2986,1.4768,14.2319,-4.1398,19.1259,-3.4208,30.1220,2.6669,20.3631,-11.1461,23.2422,5.8856,21.4654,-6.1906,12.8228
2160.1562,12.0013,5.6580,26.6179,-8.7584,18.3578,1.7855,15.1072,-10.3186,19.2970,-6.3729,31.9315,6.5376,23.0444,-16.0089,24.5334,7.0294,19.1225,-5.5867,20.7775
2164.0625,8.2961,7.0159,27.8691,-9.6730,15.1815,0.5028,13.4380,-15.1314,17.6594,-7.9540,31.7835,10.1053,23.3690,-19.8295,23.7146,7.1936,15.0233,-4.2430,25.1588
2167.9688,5.5635,7.2466,27.0926,-8.5969,12.0512,-1.7252,10.4004,-17.4814,16.1200,-7.5787,30.9301,13.4035,22.6819,-21.8892,21.5928,6.3255,10.6387,-1.5868,26.7379
2171.8750,5.3318,6.6644,25.8967,-5.9491,11.0948,-3.9254,7.9780,-17.6901,16.3330,-5.7535,30.9289,16.0878,22.5436,-22.0777,19.3595,4.9359,7.2472,1.9768,27.6905
2175.7812,7.1021,5.9246,25.7746,-2.9670,12.9271,-5.2904,7.7190,-16.9636,18.3971,-3.7611,32.3981,17.8334,23.5346,-20.8850,17.8508,3.8536,5.0967,5.3054,29.9689
2179.6875,8.9379,5.7796,27.2534,-0.7100,16.3333,-5.4333,9.7901,-16.3760,20.8377,-2.7210,34.5832,18.6835,24.8540,-19.0665,17.2452,3.6924,3.3891,7.3241,33.9350
2183.5938,9.1591,6.7644,29.7274,0.5981,19.1372,-4.3327,12.9706,-16.1668,21.8193,-2.7606,36.0142,18.9852,24.9491,-17.2600,17.3127,4.4266,1.0096,7.7377,38.1869
2187.5000,7.6879,8.9589,31.9964,1.4285,19.5953,-2.1411,15.5561,-15.8203,20.5708,-2.9794,35.6745,18.9844,22.6695,-15.7988,17.8680,5.4346,-2.5971,7.1230,40.6429
2191.4062,5.9445,11.9481,33.0554,2.2365,17.3506,0.9189,16.5092,-14.7414,17.8872,-2.2617,33.7504,18.5231,18.0904,-14.7472,18.9676,6.0139,-7.0453,6.3984,40.0549
2195.3125,5.4283,15.0119,32.5747,2.8619,13.3688,4.5079,16.0520,-12.8961,15.3477,-0.2925,31.4105,17.2083,12.4335,-14.0170,20.6825,5.9775,-11.3387,6.1450,36.8508
2199.2188,6.2294,17.4534,30.8139,2.5750,9.0335,8.1108,15.3407,-10.8792,13.9294,2.0656,29.8560,14.9636,7.1898,-13.4194,22.7033,5.8423,-14.5941,6.3052,32.7341
2203.1250,6.7670,18.8928,28.1635,0.7248,5.1497,11.1440,15.5262,-9.3858,13.1585,3.3921,29.4263,12.4429,3.1235,-12.6547,24.2250,6.4283,-16.5817,6.4114,29.3884
2207.0312,5.0285,19.3692,24.7575,-2.5818,1.5923,13.2421,16.9192,-8.5720,11.4829,2.8689,29.4478,10.8052,-0.1201,-11.3568,24.3363,8.1667,-17.6964,6.0461,27.2624
2210.9375,0.3231,19.2109,20.4873,-6.3732,-2.2208,14.5236,18.8355,-7.8708,7.5608,1.0495,28.8822,10.8819,-3.5606,-9.2780,22.6922,10.6796,-18.4416,5.0896,25.3061
2214.8438,-5.8951,18.7756,15.3768,-9.4081,-6.5031,15.5816,20.1665,-6.4462,1.4334,-0.4329,27.1993,12.3632,-7.9755,-6.5369,19.9397,13.0023,-18.8769,3.5755,21.8032
2218.7500,-10.8607,18.2394,9.9606,-11.0171,-10.6442,17.1256,20.1928,-3.9308,-5.3464,-0.0622,24.7599,13.7590,-13.2406,-3.7195,17.4759,14.3088,-18.4883,1.3803,15.6539
2222.6562,-12.4020,17.5628,5.2853,-11.5252,-13.5278,19.4821,19.0332,-0.8457,-10.7278,2.3588,22.4300,13.3486,-18.3869,-1.6739,16.5966,14.5782,-16.5911,-1.8522,7.1873
2226.5625,-10.4736,16.6237,2.4444,-11.9163,-14.3887,22.3085,17.4443,1.6575,-13.5339,5.4548,20.7814,10.5118,-22.2717,-1.0536,17.5804,14.6596,-12.9480,-6.3711,-2.0204
2230.4688,-7.1521,15.3841,1.9315,-13.0018,-13.5227,24.7441,16.1886,2.5681,-14.1549,7.2237,19.5610,6.4120,-24.3070,-1.8914,19.3792,15.6521,-8.1125,-11.8061,-10.1032
2234.3750,-5.1156,13.9484,3.2710,-14.7404,-12.2557,25.9109,15.4780,1.7308,-14.0820,6.4989,17.8784,3.3923,-24.6906,-3.5141,20.2074,18.0639,-3.2057,-16.9657,-15.9046
2238.2812,-5.7735,12.4734,5.2196,-16.2319,-12.1313,25.4194,14.8952,-0.0315,-14.6977,3.8235,14.9792,3.4143,-24.0187,-4.9022,18.7005,21.3961,0.7270,-20.2517,-19.3467
2242.1875,-8.4379,11.0317,6.4389,-16.3755,-13.8867,23.5396,13.7926,-1.4781,-16.2769,1.0596,10.9961,6.6639,-22.6709,-5.2840,14.8666,24.4667,3.3079,-20.5111,-21.0400
2246.0938,-11.0766,9.5696,6.2058,-14.6786,-16.9637,20.9567,11.8105,-1.7822,-17.9305,0.0196,7.0643,11.4011,-20.5206,-4.5791,10.1462,26.2103,4.9211,-17.7566,-21.5797
2250.0000,-11.9731,8.0189,4.6972,-11.6041,-19.9198,18.3286,9.0957,-1.0362,-18.4562,1.1530,4.6523,15.2133,-17.2261,-3.3985,6.4753,26.3247,6.2308,-13.2130,-21.1369
2253.9062,-10.9765,6.4683,2.6861,-8.2255,-21.4380,15.9765,6.0763,-0.0913,-17.3657,3.2788,4.5371,16.7361,-12.8391,-2.6154,4.9441,25.2812,7.4951,-8.6120,-19.6257
2257.8125,-9.4312,5.2248,0.9010,-5.4810,-21.1929,13.8830,3.0131,0.1135,-15.2734,4.5403,6.1311,16.5045,-8.1706,-2.8096,4.9681,23.7502,8.2209,-5.1982,-17.1978
2261.7188,-8.9498,4.6671,-0.4712,-3.5982,-19.9463,11.9117,-0.2715,-0.7731,-13.3767,3.8284,7.6494,16.2618,-4.5207,-3.9507,4.5886,21.9666,7.4696,-3.1195,-14.5367
2265.6250,-10.0745,4.9679,-1.7849,-2.0816,-18.8340,10.0096,-4.2327,-2.3019,-12.4888,1.5793,7.0620,17.2820,-2.9019,-5.4913,1.7673,19.5877,4.6270,-1.5840,-12.6027
2269.5312,-11.8830,5.8993,-3.4767,-0.2030,-18.4170,8.2284,-9.1078,-3.5717,-12.4078,-0.6336,3.2650,19.0885,-3.3233,-6.7405,-4.1601,16.1541,0.0644,0.4006,-11.9682
2273.4375,-12.7883,6.9045,-5.5408,2.4283,-18.2384,6.6112,-14.4738,-3.8318,-12.1064,-1.3523,-3.2336,19.6812,-4.7135,-7.2187,-11.8683,11.7307,-4.8524,3.2883,-12.2753
2277.3438,-11.8267,7.4308,-7.3877,5.6394,-17.2237,5.1245,-19.2384,-2.8960,-10.5541,-0.3294,-10.5166,17.1870,-5.5919,-6.7630,-18.7303,7.1307,-8.4990,6.7907,-12.3059
2281.2500,-9.3885,7.3081,-8.2319,8.9167,-14.6037,3.7527,-22.1500,-1.1206,-7.5010,1.3722,-16.2215,11.6570,-5.0289,-5.3855,-22.4023,3.4638,-10.0071,10.2840,-10.7138
2285.1562,-6.8383,6.8997,-7.7225,11.8193,-10.6230,2.6750,-22.5261,0.9486,-3.6073,2.3134,-18.6978,5.5155,-3.1998,-3.0874,-22.2571,1.3330,-9.8383,13.4306,-6.9450
2289.0625,-5.3731,6.8994,-6.3090,14.2201,-6.4583,2.3131,-20.7087,2.9372,0.1512,1.8811,-17.7133,2.1404,-1.1385,0.1608,-19.6912,0.3366,-9.4721,16.4773,-1.6964
2292.9688,-5.0479,7.8972,-5.0068,16.2084,-3.3832,3.1141,-17.9096,4.7494,3.2932,0.8093,-14.3597,3.5031,0.0988,4.2436,-17.0855,-0.6729,-10.3752,19.9844,3.4377
2296.8750,-4.7301,9.9995,-4.6833,17.8117,-1.8086,5.1744,-15.5054,6.4157,6.1867,0.6305,-10.2967,8.5905,0.2081,8.6998,-16.1394,-2.7133,-12.9537,24.2145,6.8995
2300.7812,-2.9947,12.7399,-5.3795,18.8372,-0.9492,7.9969,-14.2257,7.8962,9.6494,2.5005,-6.8448,13.8351,-0.2281,12.7250,-16.7520,-5.8361,-16.2221,28.6870,8.0417
2304.6875,0.7479,15.3062,-6.1959,19.0091,0.5952,10.6246,-13.7616,9.0554,14.1034,6.3004,-4.4717,15.3314,-0.3095,15.4577,-17.2515,-8.9940,-18.4309,32.2792,7.3483
2308.5938,5.7448,16.9001,-5.8746,18.2849,3.7456,12.1155,-13.0535,9.8303,18.9644,10.6696,-2.9129,11.3165,0.4039,16.3942,-15.8039,-10.7586,-18.2132,33.8369,5.9003
2312.5000,10.3671,17.0005,-3.6794,17.0512,8.1451,12.0417,-11.0603,10.4067,22.7878,13.8989,-1.7210,3.2081,1.5447,15.6502,-11.9569,-10.3823,-15.4454,32.8767,4.5274
2316.4062,13.1705,15.4342,0.0716,15.9775,12.2662,10.6490,-7.4874,11.1873,24.1362,14.9954,-0.7664,-5.4480,2.2948,13.8694,-7.1429,-8.4202,-11.2358,29.8991,3.2988
2320.3125,13.7661,12.3276,4.2259,15.5961,14.3816,8.5657,-2.9849,12.5192,22.5814,14.1674,-0.2920,-11.2848,2.1389,11.8239,-3.7120,-6.4356,-7.0990,26.1158,1.7098
2324.2188,12.9207,8.0755,7.6184,15.9179,13.7253,6.3054,1.3026,14.3779,19.1261,12.4781,-0.5095,-13.0289,1.3810,9.9750,-3.1631,-5.9820,-3.9523,22.7963,-0.6317
2328.1250,11.8989,3.3643,9.8802,16.4026,11.0318,3.9706,4.4966,16.2861,15.7165,11.0356,-1.1194,-11.8026,0.9864,8.2927,-4.8920,-7.5756,-1.6660,20.6664,-3.4121
2332.0312,11.5967,-0.8601,11.6191,16.3348,8.0850,1.3888,6.5080,17.5819,14.1409,10.3545,-1.2330,-9.8436,1.8632,6.4478,-6.4541,-10.3668,0.5615,19.7035,-5.6314
2335.9375,12.0916,-3.6145,13.8330,15.3459,6.6069,-1.4610,7.9597,17.8685,15.0318,10.2860,0.1238,-8.7701,4.1555,4.2163,-5.2436,-12.7129,3.3723,19.3704,-6.2657
2339.8438,12.8600,-4.2866,17.0054,13.6902,7.2549,-4.1405,9.5919,17.3027,17.6085,10.4130,3.2409,-8.6717,7.1175,1.7821,-0.4174,-13.2261,6.6569,19.0512,-5.0739
2343.7500,13.3904,-3.0113,20.5887,12.0580,9.3764,-5.8873,11.6165,16.4709,20.2895,10.4799,7.2917,-8.5072,9.6692,-0.2990,6.3574,-11.5829,9.6640,18.3765,-2.9023
2347.6562,13.6610,-0.7236,23.2895,11.0509,11.6076,-6.1435,13.5197,15.9108,21.7223,10.4980,10.6670,-7.2557,11.1900,-1.4600,11.9409,-8.5971,11.6868,17.2769,-1.1915
2351.5625,14.1079,1.2421,23.9572,10.6991,12.8254,-5.0686,14.4678,15.6260,21.5322,10.5214,11.9492,-4.8069,11.9169,-1.5430,13.8537,-5.5924,12.7303,15.8218,-1.0020
2355.4688,15.1417,1.8259,22.4140,10.3796,12.7845,-3.5852,14.0040,14.9830,20.3314,10.3875,10.8773,-1.9620,12.6417,-0.9572,11.9869,-3.5537,13.5916,14.0361,-2.2615
2359.3750,16.6300,0.7807,19.6024,9.2040,12.0750,-2.8498,12.4965,13.1193,19.0760,9.7172,8.5814,0.2778,13.9692,-0.4335,8.6473,-2.6146,15.2743,11.8500,-3.8052
2363.2812,17.7926,-1.2754,16.9452,6.6086,11.5616,-3.4959,10.9773,9.6055,18.3052,8.1950,6.8628,1.4329,15.7562,-0.5227,6.9013,-2.1401,18.2081,9.1974,-4.2036
2367.1875,17.6473,-3.3231,15.4026,2.7328,11.7952,-5.2031,10.4756,4.8899,17.8381,5.8776,7.0032,1.7164,17.1997,-1.1875,8.4286,-1.2529,21.9016,6.1549,-2.7798
2371.0938,15.7187,-4.5918,14.9158,-1.6754,12.8116,-6.9243,11.3355,0.1709,17.1155,3.2401,8.9646,1.6690,17.5126,-1.7916,12.4503,0.5906,25.3017,2.9911,-0.0643
2375.0000,12.5045,-4.9452,14.6134,-5.7487,14.3587,-7.6124,13.0256,-3.2586,15.8619,0.8979,11.5684,1.7203,16.6375,-1.5267,16.4865,3.3172,27.5541,0.0743,2.6481
2378.9062,9.3286,-4.7626,13.5648,-9.0344,16.2475,-6.9181,14.5711,-4.7723,14.4922,-0.7792,13.4947,2.0807,15.4032,-0.0074,18.3240,6.3505,28.5426,-2.3029,4.3014
2382.8125,7.6152,-4.4658,11.4852,-11.6913,18.4785,-5.3588,15.2741,-4.7547,13.8895,-1.8581,14.2994,2.9232,14.9582,2.3691,17.6760,8.9708,28.7826,-4.0621,4.8712
2386.7188,8.0282,-4.1007,8.8883,-14.2177,21.0551,-3.8671,15.1780,-4.2828,14.6902,-2.7045,14.6331,4.4704,15.8917,4.5612,16.2765,10.6743,28.7934,-5.3477,5.3401
2390.6250,10.0370,-3.3151,6.6590,-16.9140,23.7039,-3.0918,14.9521,-4.3588,16.6378,-3.6570,15.4907,6.7201,17.7073,5.4518,16.3681,11.3421,28.5147,-6.3956,6.8745
2394.5312,12.2181,-1.7329,5.4663,-19.4817,25.8168,-2.9789,15.3266,-5.2265,18.5642,-4.7879,17.1326,9.0128,19.0654,4.4843,18.7862,11.1732,27.2886,-7.3480,9.8425
2398.4375,13.1202,0.6057,5.5010,-21.0719,26.7273,-2.9123,16.5440,-6.2517,19.1036,-5.9280,18.6252,9.9839,18.6367,1.9464,22.1581,10.4706,24.4463,-8.1386,13.4460
2402.3438,12.1400,3.1319,6.6774,-20.7877,26.1213,-2.2498,18.2394,-6.4552,17.6687,-6.8872,18.4699,8.2440,15.9626,-1.2828,23.8792,9.4327,20.0062,-8.5344,16.2654
2406.2500,9.8364,5.0837,9.0059,-18.3178,24.2374,-0.8152,19.7901,-5.3254,14.9554,-7.6409,15.8871,3.4841,11.7296,-4.3421,22.1529,8.0824,14.8694,-8.3148,17.3078
2410.1562,7.4805,6.0391,12.6961,-14.2641,21.6654,1.0140,20.7868,-3.3314,12.5388,-8.3009,11.7150,-2.8388,7.3032,-6.9253,17.5405,6.3766,10.2976,-7.4720,16.7475
2414.0625,6.1617,6.2161,17.8263,-9.9131,18.8832,2.6270,21.2182,-1.7563,11.7762,-8.9024,8.1063,-7.9659,3.8937,-9.3734,12.8069,4.4150,7.0514,-6.2796,15.7824
2417.9688,6.0717,6.2811,23.8581,-6.5666,15.8984,3.6075,21.2438,-1.9378,12.7748,-9.2183,7.1247,-9.3788,1.9414,-12.2685,11.1156,2.5806,4.8706,-5.1559,15.7153
2421.8750,6.4552,6.8004,29.4966,-4.8541,12.2897,3.9313,20.8253,-4.4189,14.1889,-8.8078,9.2450,-6.4432,1.0840,-15.8419,13.8566,1.4571,2.7216,-4.3942,16.9785
2425.7812,6.2261,7.7625,33.1689,-4.4760,7.6188,3.8396,19.6183,-8.5805,14.0356,-7.3149,12.9183,-0.9368,0.6081,-19.6494,19.6691,1.5122,-0.3737,-3.9492,18.8594
2429.6875,4.7601,8.5607,33.8898,-4.5488,1.8766,3.5698,17.2864,-13.0082,10.9861,-4.8136,15.5925,4.0496,-0.0377,-22.7783,25.3435,2.7298,-4.5831,-3.4615,20.1272
2433.5938,2.2585,8.4707,31.9065,-4.3115,-4.4089,3.2076,13.9804,-16.3466,5.2227,-1.9331,15.4734,6.1540,-1.0512,-24.4513,27.9287,4.4737,-9.1743,-2.5438,20.0378
2437.5000,-0.5738,7.2597,28.6011,-3.7004,-10.4965,2.7557,10.5128,-18.0694,-1.7361,0.3675,12.7181,5.2861,-2.4572,-24.5859,26.5421,5.7655,-13.1389,-1.1513,18.8906
2441.4062,-3.2358,5.4463,25.6428,-3.3828,-15.9198,2.2879,7.9643,-18.6596,-8.0937,1.2618,9.1750,3.5335,-4.3866,-23.8736,22.6652,5.8750,-15.9877,0.2414,17.6813
2445.3125,-5.9039,3.9802,23.9385,-4.2215,-20.7182,1.9785,6.9444,-19.1044,-12.9214,0.4805,6.8908,3.4884,-7.1211,-23.2864,18.8523,4.8571,-18.0419,0.8249,17.1387
2449.2188,-9.2336,3.5604,23.1025,-6.5547,-25.1980,1.9506,7.0849,-20.0786,-16.5638,-1.5577,6.5577,6.2457,-10.8233,-23.3452,16.9000,3.6305,-19.9727,-0.0824,16.9661
2453.1250,-13.6170,4.0990,21.8034,-9.8235,-29.4101,2.0966,7.2354,-21.3937,-20.0574,-3.9767,7.0959,10.5801,-15.1847,-23.6841,16.8068,3.4668,-21.9931,-2.5987,15.9653
2457.0312,-18.5164,4.7482,18.7286,-12.8407,-32.7990,2.0953,6.3027,-22.0884,-24.0794,-5.8901,6.6656,13.9170,-19.3478,-23.2523,17.1557,5.1750,-23.4279,-6.1796,13.0100
2460.9375,-22.4988,4.5009,13.4868,-14.5286,-34.3798,1.6788,4.1250,-21.0822,-28.2779,-6.8022,4.2704,14.3380,-22.2617,-21.0417,16.4552,8.5238,-23.1024,-9.9300,8.1084
2464.8438,-24.0662,2.9421,6.8467,-14.6015,-33.3857,0.9473,1.6767,-17.9243,-31.5010,-6.7518,0.6616,12.0684,-23.2777,-16.8373,14.3288,12.3187,-20.3111,-13.0969,2.6595
2468.7500,-22.7134,0.6091,0.2126,-13.6992,-29.9244,0.4265,0.3685,-13.1239,-32.7025,-6.1445,-2.1792,9.2983,-22.5678,-11.4561,11.6800,15.1100,-15.6020,-15.3782,-1.4010
2472.6562,-19.3868,-1.3128,-5.2386,-12.8742,-25.1179,0.7435,0.9193,-7.8581,-31.7633,-5.4017,-2.5668,8.4827,-21.0417,-6.2990,9.8265,16.0578,-10.6918,-16.8389,-2.9878
2476.5625,-15.9230,-1.7567,-9.1568,-12.8222,-20.5539,2.1217,2.6539,-3.2946,-29.5562,-4.6535,-0.4474,10.4362,-19.7846,-2.5307,9.3868,15.3657,-7.4715,-17.5588,-2.7378
2480.4688,-13.8223,-0.4741,-12.0156,-13.4326,-17.3932,4.0998,3.8098,-0.0151,-27.2227,-3.6667,2.4931,13.6885,-19.3916,-0.4618,9.8135,14.0131,-6.7848,-17.3663,-2.6548
2484.3750,-13.2620,1.8091,-14.6259,-13.9856,-15.7593,5.7455,2.6859,2.0920,-25.2905,-2.0585,4.0052,15.5835,-19.6541,0.4557,9.8829,13.0259,-7.8792,-15.9437,-4.7294
2488.2812,-13.1119,3.8716,-17.5781,-13.8143,-14.8445,6.2596,-1.1886,3.4736,-23.3846,0.3416,2.8039,14.2682,-19.8065,1.0668,8.6742,12.8392,-8.9631,-13.2465,-9.5220
2492.1875,-11.9517,4.7638,-20.9690,-12.8754,-13.6443,5.5285,-6.7289,4.4354,-20.7768,3.2323,-0.7065,10.0568,-19.1406,1.8386,6.2250,13.1868,-8.4830,-9.8551,-15.7532
2496.0938,-9.2990,4.3368,-24.4727,-11.7476,-11.7637,4.1901,-12.0526,4.9411,-17.2854,5.8917,-4.9814,5.1659,-17.5386,2.5758,3.3692,13.5090,-6.2046,-6.8590,-21.1925
2500.0000,-6.0684,3.2027,-27.5590,-11.0430,-9.6938,3.1384,-15.7458,4.8143,-13.7105,7.5549,-8.6102,2.0779,-15.5462,2.6942,0.9549,13.4706,-3.3286,-5.2274,-24.1710
2503.9062,-3.8818,2.2145,-29.6416,-10.7203,-8.3714,2.8360,-17.6848,4.1154,-11.3572,7.8944,-11.2525,1.8069,-13.9504,1.7760,-0.8763,13.1435,-1.5999,-5.0773,-24.5856
2507.8125,-3.7674,1.8788,-30.1197,-9.9050,-8.3880,2.9757,-18.8250,3.3094,-10.9793,7.2700,-13.5364,3.3541,-13.1886,-0.0702,-2.7478,12.7508,-2.0971,-5.4291,-23.6822
2511.7188,-5.3000,2.1270,-28.4483,-7.4402,-9.4772,2.7686,-20.1777,3.0294,-12.0130,6.5357,-16.1313,4.6733,-13.0334,-2.3265,-5.4123,12.2749,-4.5907,-4.7382,-22.8563
2515.6250,-6.8961,2.5656,-24.3529,-2.7896,-10.6796,1.6419,-21.8243,3.5989,-12.8042,6.4911,-18.8804,4.3128,-12.7795,-4.5210,-8.9572,11.3489,-7.8809,-1.9115,-22.4556
2519.5312,-7.0512,2.9511,-18.1163,3.4117,-11.0445,-0.2076,-22.7707,4.7205,-11.7505,7.3425,-20.7822,2.4410,-11.7826,-6.5847,-12.5184,9.5745,-10.7675,2.9072,-21.5309
2523.4375,-5.5242,3.4674,-10.6970,9.6399,-10.3042,-1.8647,-21.7597,5.6362,-8.5099,8.5682,-20.8354,0.5267,-9.9331,-8.7624,-14.7647,6.9844,-12.8595,8.3870,-18.7047
2527.3438,-3.4871,4.5489,-3.4833,14.4364,-8.9902,-2.3462,-18.3875,5.6845,-4.3120,9.3148,-19.0012,0.0242,-7.6978,-11.1240,-14.8127,4.1906,-14.6072,12.9014,-13.4402
2531.2500,-2.4871,6.3733,2.2630,17.3291,-7.9127,-1.3701,-13.6187,4.8327,-1.0719,9.0543,-16.4177,1.1601,-5.6942,-13.1078,-12.8950,2.0042,-16.5963,15.6203,-6.6826
2535.1562,-3.0463,8.4397,5.9497,19.0022,-7.4350,0.3453,-9.2600,3.7387,0.0516,8.0154,-14.6299,2.7653,-4.1243,-13.5558,-10.2781,0.7934,-18.7223,16.9823,-0.3570
2539.0625,-4.0634,9.6297,7.8228,20.5740,-7.1333,1.4996,-6.7662,3.2585,-0.4525,7.0477,-14.4305,3.2204,-2.5217,-11.3304,-8.4730,0.1331,-19.9453,18.1831,3.8873
2542.9688,-3.5643,8.8105,8.6357,22.5509,-6.1104,1.0548,-6.2733,3.7729,-0.8087,7.0013,-15.2495,1.7107,-0.0407,-6.1129,-8.2757,-0.8848,-18.8472,20.0814,5.7168
2546.8750,-0.2628,5.6101,9.0550,24.3120,-3.6994,-1.0972,-6.5789,4.8924,0.6940,8.0904,-15.5910,-1.2007,3.8909,1.2206,-9.2769,-2.8586,-14.5814,22.3931,6.1570
2550.7812,5.3023,0.8146,9.2288,24.5724,0.0207,-4.1060,-6.0691,5.8221,4.4006,9.7364,-14.1713,-4.0796,9.0302,8.9816,-10.1372,-5.4326,-7.5061,23.8345,6.6535
2554.6875,10.9963,-3.9549,8.8173,22.4913,4.3122,-6.7602,-3.8798,6.1314,9.0347,11.0197,-10.8529,-5.7362,14.3111,15.5854,-9.4144,-7.3881,0.9533,23.1309,7.9213
2558.5938,14.5663,-7.1379,7.4310,18.5355,8.3853,-8.2495,-0.4354,6.2995,12.6661,11.3858,-6.6612,-6.0429,18.4193,20.3643,-6.3999,-7.4944,9.0900,20.1044,9.4799
2562.5000,15.2493,-8.1308,5.1160,14.3671,12.0099,-8.5508,2.9915,7.5309,14.1286,11.0418,-2.9267,-5.8539,20.5717,23.7088,-1.4834,-5.5041,15.7707,15.9677,10.1938
2566.4062,14.2662,-7.5754,2.4995,11.7755,15.6204,-8.2150,5.3111,10.8952,13.7873,10.7235,-0.2980,-6.1796,20.9563,26.4715,4.0956,-2.4859,20.7900,12.5588,9.3314
2570.3125,13.8178,-6.8246,0.4804,11.4502,19.8233,-7.7921,6.4302,16.4139,13.1037,11.0333,1.5670,-7.3453,20.5249,29.1265,8.8786,-0.1608,24.5797,11.0853,7.2674
2574.2188,15.3734,-6.9478,-0.3002,12.5451,24.7199,-7.3723,7.2553,22.8181,13.4110,11.9034,3.4330,-8.8106,20.2939,31.3413,11.8145,0.3128,27.6075,11.3404,5.2684
2578.1250,18.5921,-7.9761,0.1834,13.3814,29.6097,-6.5862,8.9315,28.2268,14.9096,12.6419,5.5905,-9.7280,20.6616,32.2625,12.5966,-0.8193,29.9690,11.9831,4.5486
2582.0312,21.6993,-8.9271,1.4070,12.7324,33.3312,-5.0196,11.9278,31.2764,16.6624,12.5277,7.4534,-9.7017,21.2232,31.2306,11.6486,-2.1195,31.4383,11.6327,5.3508
2585.9375,22.9785,-8.5929,2.7100,10.6647,34.9700,-2.6789,15.6512,31.8530,17.5164,11.4429,8.0294,-9.0710,21.1844,28.2962,9.8729,-2.0975,31.8267,9.8932,6.7680
2589.8438,22.1563,-6.5066,3.7395,8.2716,34.3721,-0.1159,18.8379,30.8660,17.1282,9.9865,6.8833,-8.4868,20.0245,24.1025,8.3126,-0.4059,31.2668,7.5068,7.4259
2593.7500,20.5741,-3.3589,4.6147,6.5447,32.0786,1.8943,20.3931,29.2522,16.2280,8.9490,4.7576,-8.1779,17.8968,19.2552,7.8265,1.8561,30.1536,5.5696,6.4894
2597.6562,20.0435,-0.5345,5.7413,5.3594,28.7963,2.8829,20.0659,27.0380,15.9411,8.5888,3.2656,-7.5903,15.4875,13.7632,8.8263,2.9995,28.8176,4.5166,4.2458
2601.5625,21.3502,0.9004,7.4652,3.4806,24.9048,3.0247,18.5295,23.2668,16.7963,8.3549,3.8185,-5.7800,13.4969,7.0980,11.1304,2.1088,27.2531,3.7618,1.8852
2605.4688,23.6420,0.9911,9.8459,-0.3477,20.4439,3.0233,16.8934,16.9109,18.2981,7.3397,6.5873,-2.2997,12.1934,-1.1108,14.0104,-0.1679,25.1738,2.3012,0.7144
2609.3750,25.1837,0.8454,12.6858,-6.0987,15.5601,3.6120,16.0444,8.0563,19.4283,5.1130,10.3058,2.1350,11.3965,-10.3084,16.4664,-2.0592,22.3604,-0.2532,1.4193
2613.2812,24.8280,1.7434,15.7329,-12.0727,10.9385,5.0077,16.2467,-1.6490,19.6126,2.2118,13.0916,5.8075,10.8513,-18.8860,17.6541,-2.0348,18.9843,-3.1414,3.8618
2617.1875,22.9567,4.0651,18.8404,-15.8648,7.7080,6.6968,17.1696,-9.7662,19.2668,-0.1947,13.6925,6.9870,10.6100,-24.9326,17.2658,-0.0404,15.5884,-4.9524,7.4283
2621.0938,21.0991,6.8690,21.9436,-16.0377,6.7558,7.7112,18.2068,-14.5821,19.3968,-1.2565,12.2567,5.0954,11.0303,-27.3909,15.6462,2.3818,12.7008,-4.7954,11.5354
2625.0000,20.5492,8.4917,24.8971,-13.2184,7.9578,7.2394,18.8186,-16.2444,20.5671,-1.2344,10.1070,1.2202,12.3571,-26.7497,13.5592,3.2216,10.3956,-3.1672,15.8677
2628.9062,21.1576,7.7666,27.3556,-9.7159,10.0132,5.1965,18.7244,-16.6123,22.1525,-1.4099,8.7470,-2.4331,14.2637,-24.6876,11.7382,1.5337,8.2083,-1.7263,20.2404
2632.8125,21.3570,4.9636,28.8504,-7.8895,11.1625,2.3916,17.9388,-17.8620,22.6058,-3.0850,8.8615,-3.8285,15.8260,-22.8729,10.5030,-1.7989,5.5459,-2.0640,24.3308
2636.7188,19.4571,1.7210,29.0429,-8.4915,10.3556,0.1632,16.7333,-20.8568,20.6290,-6.4246,10.0068,-2.2880,16.0650,-21.7977,9.6906,-4.6701,2.3118,-4.4283,27.6118
2640.6250,15.1707,-0.0227,27.9696,-10.2556,8.0010,-0.3293,15.5640,-24.4980,16.3286,-10.1082,11.1145,1.1848,14.6882,-20.5383,8.9321,-5.2682,-0.7699,-7.4596,29.5883
2644.5312,10.0780,0.6603,26.0791,-11.0432,5.6698,1.2485,14.9388,-26.5450,11.3584,-12.1707,11.3365,4.6269,12.4113,-17.6450,8.0589,-3.3507,-2.4700,-9.2237,30.1246
2648.4375,6.5607,3.0900,24.0047,-9.6284,4.9049,4.2108,15.2082,-25.2731,7.8204,-11.4604,10.5771,6.3769,10.5094,-12.4859,7.3236,-0.3112,-1.8777,-8.7602,29.5485
2652.3438,5.9743,5.5291,22.2184,-6.6973,6.0063,7.2462,16.3587,-20.7030,6.7094,-8.5902,9.3891,6.0430,9.8499,-5.9928,7.2539,1.9887,0.8317,-6.8995,28.4098
2656.2500,7.4907,6.4624,20.8047,-4.2652,7.7354,9.1815,17.9587,-14.4936,7.1125,-5.5878,8.4300,4.5893,10.1301,-0.2039,8.2329,2.6958,4.2742,-5.6385,27.0822
2660.1562,8.5688,5.6502,19.5060,-3.9955,8.2037,9.6540,19.3546,-8.6475,6.8377,-4.4465,7.9671,3.5620,9.9594,3.0791,10.1201,2.5981,6.5495,-6.5221,25.5451
2664.0625,6.7567,4.1865,17.9953,-5.7989,6.2930,9.2626,20.0354,-4.1035,4.0400,-5.6677,7.7942,4.0241,7.8148,3.4985,12.2146,3.4303,6.3374,-9.3157,23.5314
2667.9688,1.4792,3.5626,16.1715,-7.8753,2.5147,9.0936,19.9336,-0.3366,-1.3809,-7.9310,7.5340,5.9139,3.2061,2.2871,13.6240,6.4071,3.6703,-12.0719,20.9077
2671.8750,-5.5442,4.4896,14.2646,-8.1877,-1.3767,9.9269,19.4401,3.7718,-7.6810,-9.1712,7.0062,8.2042,-2.8292,1.2433,13.7990,11.1392,-0.1478,-12.6005,17.9485
2675.7812,-11.5552,6.3974,12.6857,-6.1762,-3.7396,11.6671,19.1035,8.5906,-12.5363,-8.2305,6.3500,9.6944,-8.3168,1.3260,12.8561,15.7836,-3.4241,-10.2056,15.2457
2679.6875,-14.7081,7.9719,11.7422,-3.2992,-4.3320,13.4063,19.2219,13.1021,-14.6856,-5.7841,5.8535,9.8658,-11.6285,1.9489,11.4499,18.3244,-5.1574,-6.2927,13.3010
2683.5938,-15.2264,8.2726,11.4292,-1.9259,-4.5289,14.0939,19.6236,15.5479,-14.6885,-3.7949,5.6951,9.2278,-12.5291,1.4937,10.2810,18.0087,-5.5884,-3.3195,12.1197
2687.5000,-14.9298,7.5209,11.4400,-3.4526,-6.2964,13.3426,19.7898,14.8353,-14.2638,-3.9224,5.8340,8.9540,-12.2259,-1.3888,9.5950,15.8514,-5.8794,-2.8932,11.1363
2691.4062,-15.5893,6.9278,11.3746,-7.1731,-10.7085,11.7754,19.2153,11.5058,-14.7965,-6.1521,6.1076,10.0811,-12.4097,-6.7120,9.0441,13.8408,-7.2002,-4.5275,9.5508
2695.3125,-17.4695,7.7051,10.9878,-10.8418,-17.1411,10.6322,17.7250,7.3990,-16.2416,-8.7562,6.3868,12.8192,-14.0252,-13.1156,8.0164,13.4653,-9.8866,-6.0777,6.8451
2699.2188,-19.2236,10.0572,10.2993,-12.4872,-23.7283,10.8933,15.5128,4.2269,-17.2879,-9.6403,6.6144,16.4211,-16.6796,-18.8046,6.1871,14.6770,-13.2460,-5.5250,3.1249
2703.1250,-19.1858,12.9658,9.4984,-11.9842,-28.6745,12.5533,12.9026,2.2217,-16.5992,-8.0172,6.6956,19.6704,-19.0689,-22.6465,3.8673,16.0509,-16.0810,-2.6713,-0.9217
2707.0312,-16.9634,14.9426,8.7261,-11.0543,-31.3602,14.5918,10.0511,0.0257,-14.0731,-5.0663,6.3855,21.6294,-20.0002,-24.5430,1.8632,15.9752,-17.4913,0.6596,-4.3806
2710.9375,-13.9850,15.1523,7.8973,-11.6383,-32.3954,15.6805,6.8450,-3.9973,-11.0574,-3.0258,5.3361,22.1331,-19.1690,-24.8663,0.9182,13.9370,-17.3576,2.1341,-6.5247
2714.8438,-12.5007,14.0122,6.6945,-13.9589,-32.6654,15.1130,3.0704,-10.0451,-9.3356,-3.4074,3.3107,21.7059,-17.1223,-23.5810,1.1256,10.9244,-16.2089,0.9410,-7.0533
2718.7500,-13.7924,12.7939,4.7367,-15.9267,-32.2533,13.2693,-1.3015,-16.1904,-9.7094,-5.7381,0.3945,21.0036,-14.5559,-19.9571,1.7452,8.6595,-14.6692,-1.3322,-6.0989
2722.6562,-17.0216,12.5507,1.8166,-14.5227,-30.2184,11.2750,-5.9621,-19.4150,-11.3479,-7.8436,-3.0008,20.2180,-11.6479,-13.2503,1.5800,8.2678,-12.9835,-1.7885,-4.1046
2726.5625,-19.6862,13.2322,-1.9417,-8.1889,-25.4792,10.1284,-10.3809,-17.6924,-12.4537,-7.4899,-6.3782,18.9072,-8.0537,-3.8267,-0.3197,9.3978,-11.0069,1.4825,-1.6916
2730.4688,-19.4136,13.7040,-6.0891,1.6394,-18.0805,9.9745,-14.0932,-11.5546,-11.7269,-4.1362,-9.4655,16.3893,-3.5622,6.3019,-4.0857,10.4469,-8.6223,7.6838,0.4558
2734.3750,-15.7589,12.6701,-10.0017,11.1610,-9.7323,10.0825,-16.9218,-3.8901,-9.4504,0.5538,-12.3415,12.4009,1.2189,14.2052,-8.9569,9.7174,-6.1704,13.5888,1.7343
2738.2812,-10.6322,9.7809,-13.0801,16.6656,-3.0274,9.5253,-18.9493,1.9612,-7.3095,3.8535,-15.2644,7.4967,4.8616,17.6988,-13.7199,6.6504,-4.4547,15.7273,1.8162
2742.1875,-6.9884,6.0536,-14.9025,17.0471,0.2011,8.0063,-20.2711,4.4402,-7.0613,3.9242,-18.3321,2.8439,5.9476,16.7861,-17.3469,2.2561,-4.2381,12.8972,0.8067
2746.0938,-6.7186,3.2631,-15.2933,14.4906,0.1712,6.1633,-20.7535,4.6767,-9.0904,1.1283,-21.2481,-0.4826,4.1366,13.7368,-19.4171,-1.5342,-5.5998,7.1106,-0.7736
2750.0000,-9.2880,2.7488,-14.3319,12.7969,-0.9361,5.1027,-20.0303,5.4120,-11.9863,-2.2447,-23.3856,-2.1909,0.5895,11.6055,-20.1083,-3.1035,-7.6913,2.2308,-2.2410
2753.9062,-12.1164,4.5192,-12.3378,14.5848,-0.4799,5.5293,-17.7913,8.7779,-13.4894,-3.5988,-24.1138,-2.9159,-2.6876,12.1645,-19.8621,-2.1107,-9.1736,1.2923,-3.1221
2757.8125,-12.4163,7.2938,-9.8375,19.4497,2.7615,7.1593,-14.1711,14.6184,-12.0952,-1.7822,-23.1479,-3.6765,-4.1640,14.7168,-19.0268,0.4262,-9.0954,4.4774,-3.4161
2761.7188,-9.1469,9.4034,-7.4715,24.4147,7.6909,8.8746,-9.9336,20.5972,-8.1038,2.2781,-20.6873,-5.0444,-3.7878,16.6550,-17.7322,2.8769,-7.5965,9.2111,-3.5615
2765.6250,-3.6846,9.8506,-5.8122,26.2565,11.6312,9.4880,-6.2554,23.9466,-3.3409,6.4233,-17.2760,-6.6708,-2.8896,15.3705,-16.0140,3.9853,-5.8878,12.2218,-4.1267
2769.5312,1.2247,8.7702,-5.1280,23.8959,12.1762,8.5210,-4.1728,23.4812,0.2083,8.8598,-13.5224,-7.5678,-3.0392,10.1272,-13.9988,3.4419,-5.4488,11.9607,-5.4373
2773.4375,3.4240,7.0457,-5.2124,19.0525,8.8294,6.4096,-3.9998,20.3519,1.8107,9.3015,-9.8755,-6.9530,-4.7249,2.5652,-11.9360,1.7764,-6.9525,9.5730,-7.3915
2777.3438,2.7923,5.4870,-5.4227,14.7554,3.2893,4.0362,-5.0835,17.0403,2.4030,8.8940,-6.5595,-4.9934,-6.8805,-4.4638,-10.0292,-0.1811,-9.6562,7.7884,-9.5646
2781.2500,1.1897,4.2578,-4.9799,12.9512,-1.7532,2.0161,-6.0904,15.4512,3.7617,9.1222,-3.6190,-2.8228,-7.6289,-8.7926,-8.2258,-1.7944,-11.7009,8.6985,-11.4873
2785.1562,1.0305,2.9567,-3.4232,13.0921,-4.3763,0.3280,-5.7124,15.5951,7.0980,10.6261,-0.9732,-1.7576,-5.6675,-10.1332,-6.1777,-2.7603,-11.1542,12.1736,-12.8775
2789.0625,3.5712,1.1855,-0.9659,12.7500,-4.4784,-1.4550,-3.4170,15.8137,12.1291,12.8128,1.5543,-2.2924,-1.2253,-9.7450,-3.4602,-2.9537,-7.1249,16.0728,-13.6779
2792.9688,8.1307,-0.9508,1.4945,9.6915,-3.4449,-3.6013,0.1902,14.2593,17.2584,14.4579,4.1732,-3.6832,4.1336,-8.9613,0.0817,-2.2794,-0.2428,17.9526,-13.9266
2796.8750,12.7086,-2.8557,2.7907,3.7379,-2.8030,-5.8562,3.6383,10.3982,20.6532,14.7269,6.9736,-4.5115,8.6838,-7.8288,4.1114,-0.7484,7.7631,16.8478,-13.6139
2800.7812,15.4480,-3.9441,2.1374,-3.0228,-2.9396,-7.6077,5.3912,5.3886,21.3876,13.7899,9.7394,-3.8455,11.7565,-4.9725,7.8802,1.2965,15.0559,13.7496,-12.6518
2804.6875,15.8439,-4.1770,-0.3483,-7.7651,-2.8256,-8.4237,4.7464,1.1474,19.8630,12.6057,11.8953,-2.0948,14.0646,1.2089,10.5785,3.1020,20.5808,10.5316,-10.9560
2808.5938,14.8815,-4.1508,-3.5973,-8.9309,-0.8687,-8.4662,2.3044,-1.0374,17.3220,12.1233,12.7225,-0.8263,16.9179,10.9872,11.7376,3.7942,24.3277,8.3295,-8.5369
2812.5000,14.1268,-4.6431,-6.0882,-7.1447,3.8224,-8.3929,-0.3099,-1.2112,14.9315,12.5623,11.7853,-1.5957,20.9855,22.6463,11.4392,2.9298,26.9186,6.7405,-5.5092
2816.4062,14.5347,-5.9833,-6.6352,-4.4161,10.7321,-8.8138,-1.3556,-0.2940,13.1398,13.2977,9.3037,-4.6543,25.5949,33.2717,10.2242,0.9072,28.9233,4.4446,-2.0291
2820.3125,15.8546,-7.7686,-5.0023,-2.3955,18.2684,-9.7768,0.0053,1.0147,11.6905,13.3550,6.1679,-8.5660,29.1072,40.4036,8.7935,-1.1562,30.4211,0.6186,1.7510
2824.2188,16.9837,-9.1643,-1.9663,-1.1584,24.8018,-10.7458,3.2136,2.9357,10.1314,12.0680,3.5154,-11.1278,30.0519,43.3096,7.6956,-2.1079,31.0515,-4.1338,5.6492
2828.1250,16.8891,-9.5489,1.2132,0.5169,29.5888,-11.1101,6.6849,6.2694,8.3171,9.4012,2.1103,-10.9804,28.1293,42.9530,7.1658,-1.5786,30.3998,-8.1729,9.3869
2832.0312,15.3530,-8.9885,3.5831,3.6913,32.9236,-10.7829,8.8397,11.3178,6.5121,5.7835,1.9487,-8.7006,24.3323,40.7747,7.1505,-0.3248,28.3436,-10.2141,12.6012
2835.9375,13.0206,-8.1621,5.0397,7.9289,35.5092,-10.3416,9.1362,17.0493,5.0950,1.7071,2.3827,-6.4852,20.1598,37.3331,7.4459,0.2340,25.1017,-10.5184,14.9958
2839.8438,10.8206,-7.8053,6.2859,11.2785,37.6432,-10.5378,8.4109,21.3434,4.2035,-2.5113,2.6872,-6.5682,16.5972,31.9274,7.8503,-0.9610,21.0259,-10.8068,16.5498
2843.7500,9.2974,-8.1129,8.2543,11.6726,38.9067,-11.5620,8.2794,22.2699,3.6611,-6.6272,2.6631,-9.4970,13.6664,23.5061,8.2740,-3.7226,16.4005,-12.8730,17.6074
2847.6562,8.3869,-8.5666,11.4038,8.6485,38.5809,-12.7056,9.9895,19.4741,3.2415,-10.2021,2.8337,-13.5609,10.8316,12.0904,8.7915,-6.5475,11.4574,-16.9716,18.7242
2851.5625,7.7406,-8.3102,15.3771,3.9748,36.3977,-12.7793,13.5133,14.5652,3.0070,-12.5234,4.0858,-15.8542,7.8237,-0.5209,9.6280,-7.5000,6.5609,-21.3159,20.3345
2855.4688,7.2281,-6.7738,19.2408,0.5874,32.9456,-11.0271,17.5100,10.1178,3.3828,-12.9068,7.0107,-14.2519,5.1183,-11.4703,11.0606,-5.5067,2.2976,-23.1840,22.4630
2859.3750,7.1208,-4.0792,22.1148,0.5552,29.3363,-7.8316,20.1863,7.9443,4.8536,-11.2180,11.4144,-8.8849,3.6270,-18.5684,13.2356,-1.1774,-0.7383,-20.8672,24.6965
2863.2812,7.7728,-0.9508,23.7224,3.5748,26.3556,-4.6120,20.4423,7.8746,7.4961,-8.1996,16.3311,-2.0516,3.8556,-21.7616,15.9720,3.4568,-2.3884,-14.9999,26.4430
2867.1875,9.0900,1.7608,24.4574,7.1236,23.7850,-2.9199,18.4994,7.9315,10.7216,-5.2674,20.5098,3.3593,5.2712,-23.1801,18.6869,6.1690,-3.2302,-8.2442,27.2880
2871.0938,10.3039,3.5689,24.9349,8.1748,20.4976,-3.3703,15.5981,5.7808,13.4681,-3.8027,23.0345,5.7831,6.4877,-25.6113,20.5581,5.9314,-4.3719,-3.5401,27.1893
2875.0000,10.3408,4.5200,25.3801,5.2278,15.3509,-5.1998,13.0442,0.4140,14.7486,-4.3596,23.6941,5.8681,6.2212,-30.4231,20.9062,3.5400,-6.7281,-2.2069,26.3943
2878.9062,8.5702,4.9864,25.3461,-0.7905,8.2456,-6.7937,11.3426,-7.1288,14.1874,-6.3211,22.9358,5.7680,4.3063,-36.4170,19.6043,1.0438,-10.2250,-3.2746,25.1954
2882.8125,5.3423,5.3022,24.0079,-7.3284,0.5138,-6.8052,10.0468,-14.4683,12.1656,-8.2752,21.5226,7.4431,1.9459,-40.4764,17.2445,0.3638,-13.5647,-4.4758,23.7519
2886.7188,1.8222,5.5322,20.8418,-12.0326,-5.7627,-5.0610,8.3655,-19.4713,9.4630,-8.9095,20.1422,11.2510,0.9047,-39.6055,14.8946,2.0426,-14.8735,-4.0833,22.1161
2890.6250,-0.8513,5.5043,16.1882,-14.2145,-9.1090,-2.6220,5.9772,-21.5565,6.6364,-7.8630,19.1556,15.8062,2.1715,-32.9607,13.5342,4.9637,-12.9252,-2.1914,20.3880
2894.5312,-2.4868,5.0174,11.2524,-14.9387,-9.7272,-0.9963,3.3765,-21.8184,3.5757,-5.9762,18.5189,19.0839,5.0649,-22.4706,13.4937,7.2040,-8.1361,-0.5234,18.7967
2898.4375,-4.1073,4.0322,7.4938,-15.8017,-9.4359,-1.0961,1.4975,-21.9536,-0.4239,-4.7601,17.8357,19.8434,7.4976,-11.6307,14.2642,7.3986,-2.5696,-0.9999,17.5845
2902.3438,-7.2616,2.7196,5.8042,-17.4392,-10.4100,-2.6603,0.9716,-22.8260,-6.0785,-5.4106,16.5217,18.3071,7.2903,-3.3362,14.8302,5.6689,1.1765,-4.2135,16.7827
2906.2500,-12.7983,1.3869,6.0369,-18.9361,-13.5527,-4.4743,1.6698,-23.7341,-13.3915,-8.0017,14.0903,15.7042,3.6496,1.7341,14.3319,3.4885,1.5249,-8.9603,16.1102
2910.1562,-19.9890,0.3740,7.2050,-18.5610,-17.6879,-5.1535,2.9065,-22.9039,-21.2982,-11.3912,10.5044,13.1899,-2.2423,5.0964,12.6263,2.6178,-1.1380,-13.1222,15.1380
2914.0625,-26.7140,-0.0218,8.1818,-15.2142,-20.2586,-3.9257,4.0921,-18.8411,-27.9919,-13.9147,6.3974,11.0647,-7.9766,8.9003,10.3564,3.8702,-4.8194,-15.1665,13.6177
2917.9688,-30.6887,0.3864,8.3883,-9.4532,-19.1494,-0.9603,5.2223,-11.5755,-31.8151,-14.4320,2.9230,8.8615,-11.5178,14.0099,8.4616,6.5563,-7.3646,-15.1228,11.6855
2921.8750,-30.9319,1.5809,7.9897,-3.3065,-14.3791,2.8334,6.7396,-2.9113,-32.1979,-13.0479,1.1707,6.0995,-12.5419,19.1332,7.4574,8.9573,-7.9794,-14.3568,9.7250
