Time,Fp1,F3,C3,P3,O1,F7,T3,T5,Fz,Fp2,F4,C4,P4,O2,F8,T4,T6,Cz,Pz
0.0000,-1.6265,-6.4661,-2.8643,-1.5302,2.6005,-0.5258,-3.4268,-0.5354,-13.5032,-0.5487,-5.0768,-0.4042,1.6295,5.8177,-0.2391,0.6903,6.8211,-1.6413,-1.8433
3.9062,2.3694,-3.1731,-0.9722,1.5714,5.4270,2.7840,-6.0929,1.8987,-35.5595,3.2613,-2.6412,3.3597,3.9645,8.3684,1.7025,2.9753,9.3137,0.9577,-0.3390
7.8125,5.8585,-0.5591,0.4944,3.8417,7.1832,4.7532,-8.6552,4.4179,-44.9450,5.8935,-0.4635,5.8922,5.0246,10.2926,2.0674,4.4362,10.7615,2.6220,0.9609
11.7188,8.3878,0.9972,1.1683,4.8387,7.5448,4.7625,-8.4421,6.1095,-42.0815,6.6108,0.7450,6.0939,4.5661,10.8766,0.7374,4.4721,10.8477,2.8304,1.6531
15.6250,9.9603,1.7343,1.0312,4.7924,6.7911,3.3714,-4.4931,6.2854,-33.8855,5.7682,0.6044,4.2920,3.0853,9.8852,-1.6756,3.2021,9.7845,1.8875,1.4300
19.5312,10.8287,2.2987,0.5015,4.5600,5.6635,1.9450,1.6114,5.0070,-28.4238,4.6746,-0.5814,2.0339,1.5534,7.8372,-4.0634,1.4647,8.1318,0.9126,0.4281
23.4375,11.2246,3.3632,0.2993,5.2568,5.0561,1.7277,6.8312,3.1999,-29.4401,4.8249,-1.8514,1.0417,0.9336,5.9039,-5.2782,0.3984,6.5256,1.3263,-0.5824
27.3438,11.2413,5.2773,1.1100,7.6986,5.6476,3.0235,8.8388,2.1817,-34.6579,6.9554,-2.0829,2.0762,1.7283,5.3602,-4.6448,0.8343,5.4569,4.0628,-0.4394
31.2500,10.9342,7.8954,3.2161,11.9254,7.5860,5.0754,7.5988,2.8531,-38.6961,10.5379,-0.6797,4.5225,3.7689,6.8361,-2.3017,2.8474,5.1532,8.9572,1.7579
35.1562,10.5057,10.6387,6.3197,17.0860,10.3593,6.7112,5.1590,5.0989,-37.9149,14.0700,2.0256,6.9582,6.3288,9.8447,0.8374,5.7229,5.5557,14.7137,5.9672
39.0625,10.3603,12.7522,9.6753,21.7923,12.9607,7.2416,3.9102,7.8459,-33.2712,15.9826,4.9801,8.2331,8.5011,12.9733,3.5575,8.3389,6.3839,19.5302,11.0088
42.9688,10.9158,13.6428,12.4470,24.7801,14.3443,6.9058,4.7741,9.7612,-29.1433,15.5598,7.1153,8.2331,9.6644,14.7102,5.0388,9.7400,7.2899,22.0281,15.0986
46.8750,12.2640,13.1284,14.0552,25.4998,13.9802,6.5220,6.7542,10.1014,-29.4293,13.2632,8.0439,7.7848,9.8137,14.4114,5.3597,9.5815,8.0724,21.9185,16.8469
50.7812,13.9390,11.4585,14.3061,24.2824,12.1890,6.6420,8.0780,9.1074,-34.3174,10.2909,8.2301,7.8487,9.5774,12.7445,5.4294,8.2305,8.8454,19.9968,16.0820
54.6875,15.0289,9.0951,13.2911,21.9994,10.0020,6.9252,7.8206,7.6875,-40.3453,7.7542,8.5162,8.6881,9.8843,11.2579,6.3249,6.5169,10.0258,17.5089,13.9259
58.5938,14.6541,6.4205,11.2328,19.4765,8.5723,6.2979,6.5651,6.6821,-43.5064,6.0998,9.3967,9.6859,11.4379,11.3338,8.4473,5.3046,12.0875,15.3609,12.0541
62.5000,12.5593,3.6169,8.4719,17.0835,8.4819,3.8463,5.5971,6.3124,-42.6409,5.1542,10.6332,9.9243,14.2868,13.2405,11.1153,5.1124,15.1963,13.7270,11.6385
66.4062,9.4304,0.8380,5.5991,14.7685,9.4018,-0.2202,5.4909,6.2272,-40.2344,4.6341,11.5170,9.0206,17.7561,15.9560,12.9590,5.9437,18.9722,12.2780,12.6979
70.3125,6.6616,-1.4839,3.5176,12.4435,10.3562,-4.3206,5.5027,6.0461,-40.0341,4.5895,11.5415,7.5115,20.8010,17.8832,12.8964,7.3579,22.5798,10.7658,14.2656
74.2188,5.6353,-2.5445,3.1992,10.3429,10.4142,-6.2693,4.4289,5.8673,-43.6055,5.3449,10.8913,6.4582,22.5722,17.9285,10.9938,8.7066,25.1357,9.4257,15.1871
78.1250,6.9174,-1.5435,5.1329,9.0043,9.3210,-4.6106,2.1684,6.2469,-48.8120,6.9942,10.3098,6.5850,22.8368,16.1521,8.5330,9.4151,26.1740,8.8354,14.9184
82.0312,9.8816,1.6078,8.8066,8.8504,7.6087,0.3721,0.4433,7.6270,-51.5292,8.9569,10.4442,7.6494,21.9839,13.5368,7.1753,9.2004,25.8429,9.3428,13.7511
85.9375,13.0437,5.7840,12.6796,9.7110,6.1126,6.6790,1.7439,9.7013,-49.1492,10.1132,11.2432,8.5633,20.6295,11.0978,7.8093,8.1558,24.6828,10.5679,12.3739
89.8438,14.9398,8.9090,14.8496,10.7216,5.2703,11.6658,7.1458,11.3215,-42.9130,9.5527,11.9658,8.1899,19.1194,9.0537,9.9505,6.6818,23.1480,11.4615,11.2022
93.7500,15.0032,9.0679,14.1090,10.7589,4.7499,13.4828,14.8140,11.1314,-37.0815,7.3860,11.8462,6.2120,17.2993,6.7115,12.1632,5.2943,21.2378,10.9637,10.0529
97.6562,13.8601,5.8541,10.7218,9.1463,3.7050,11.9877,20.6837,8.5149,-35.5853,4.9036,10.8662,3.4137,14.7213,3.1388,13.1781,4.3911,18.5309,8.7978,8.4179
101.5625,12.8294,0.9773,6.3515,6.1199,1.4713,8.6273,21.1150,4.1387,-38.8799,3.8090,9.9367,1.1754,11.1275,-1.9232,12.8187,4.0816,14.6090,5.7761,6.0761
105.4688,12.9543,-2.4863,3.1174,2.7031,-1.8250,5.4691,15.6114,-0.3589,-43.5589,4.9968,10.2454,0.5753,6.8374,-7.6437,11.9954,4.1617,9.5480,3.3377,3.4988
109.3750,14.2359,-1.8997,2.3759,0.0773,-5.2149,4.0597,7.4367,-3.3437,-45.0191,7.7848,12.2428,1.7589,2.7281,-12.5248,11.7860,4.2490,4.0807,2.6186,1.6808
113.2812,15.6291,3.2126,4.0374,-1.0967,-7.4452,4.7858,1.4894,-4.1308,-41.0100,10.2540,15.1019,3.9870,-0.2112,-15.3594,12.3924,4.0006,-0.7294,3.7225,1.4995
117.1875,15.8413,10.7471,6.8475,-0.9355,-7.7515,6.9934,0.9394,-3.2425,-33.2423,10.5389,17.1708,6.2312,-1.4626,-16.0167,12.8938,3.2923,-4.1061,5.7170,3.0889
121.0938,14.3978,17.2984,9.3687,-0.0487,-6.3100,9.6246,5.1676,-1.8579,-25.8663,8.1709,17.1541,7.8020,-1.3156,-15.4995,12.0702,2.2608,-6.0475,7.3312,5.7018
125.0000,12.2066,20.3255,10.9122,0.9938,-4.0833,11.8879,10.5687,-0.9379,-22.1587,4.4925,15.1370,8.5476,-0.7365,-15.2698,9.6481,1.1944,-7.3434,7.8175,8.1560
128.9062,11.1626,19.7271,11.7678,2.0023,-2.2134,13.5914,13.5337,-0.6961,-22.1112,1.8233,12.6343,8.5850,-0.8539,-16.3518,6.8915,0.3504,-9.0967,7.3523,9.5236
132.8125,12.9816,17.7298,12.6670,3.0965,-1.3987,15.0609,13.2032,-0.7389,-22.7489,1.9736,11.5766,7.9313,-2.3640,-18.8143,5.9217,-0.1867,-12.0469,6.7443,9.5815
136.7188,17.9981,17.1940,14.0157,4.3818,-1.6380,16.8053,11.8058,-0.6241,-20.7380,5.1546,12.9705,6.4444,-5.1763,-21.8814,8.1624,-0.5272,-16.1002,6.7550,8.7626
140.6250,24.7234,19.5671,15.5559,5.7282,-2.4121,19.1589,12.3883,-0.2855,-15.0573,9.9912,16.2244,4.1474,-8.4519,-24.4480,13.0698,-0.8819,-20.3212,7.5832,7.7401
144.5312,30.4811,23.9341,16.6900,6.8658,-3.0801,22.0496,15.9041,0.0395,-7.6356,14.4986,19.6084,1.5950,-10.9802,-25.5657,18.1819,-1.4185,-23.3563,8.8577,7.0017
148.4375,32.7477,27.7663,17.1038,7.6796,-3.1923,24.9549,20.1575,0.2418,-1.6490,17.2093,21.4418,-0.1645,-11.7036,-24.6297,20.5559,-2.1553,-24.0411,10.0236,6.6930
152.3438,30.3925,28.7182,17.0690,8.3796,-2.5774,27.0513,21.5640,0.6579,0.9270,17.6595,21.0788,-0.1617,-10.1752,-21.3366,18.6122,-2.9428,-21.8959,10.7138,6.7326
156.2500,24.1128,26.1201,17.1189,9.3361,-1.2695,27.5251,18.3187,1.9063,0.4785,16.0770,18.9994,1.7474,-6.7764,-15.6620,13.0815,-3.5282,-17.3116,10.8002,6.9933
160.1562,15.9029,21.1589,17.3915,10.7017,0.5826,25.9423,12.3194,4.3412,-1.1352,12.7893,16.0883,4.5663,-2.5960,-7.9898,6.4192,-3.6634,-11.3843,10.1847,7.3664
164.0625,7.9827,15.8061,17.2790,12.1746,2.7545,22.4988,8.1129,7.6063,-2.4987,8.0104,12.8328,6.6285,1.0198,0.7467,1.1836,-3.2052,-5.4853,8.6627,7.7100
167.9688,1.8586,11.4584,15.7979,13.1618,4.9755,17.9828,9.5180,10.7278,-3.8010,2.1745,9.1558,6.6293,3.0871,9.1742,-1.4135,-2.1678,-0.7363,6.1028,7.8311
171.8750,-2.0235,8.3285,12.4588,13.2410,7.0042,13.4225,16.4949,12.7359,-6.2914,-3.6454,4.9634,4.5238,3.4797,15.9369,-1.8142,-0.7078,2.3974,2.8205,7.6013
175.7812,-4.0285,5.8805,7.9203,12.5211,8.7212,9.6053,24.7429,13.3302,-10.6865,-7.8691,0.8024,1.6281,2.9991,20.2761,-1.2572,0.9522,4.2052,-0.2596,7.1288
179.6875,-4.8350,3.7224,3.8040,11.5582,10.1368,6.7672,28.4519,13.0397,-16.1063,-9.2419,-2.0983,-0.1973,2.9081,22.3282,-0.6055,2.6267,5.4484,-1.9573,6.7895
183.5938,-5.0677,2.0903,1.6985,10.8653,11.2610,4.6519,24.2384,12.7329,-20.5766,-7.7915,-2.5716,0.2601,4.1471,22.9009,0.1742,4.2413,6.8227,-1.5663,7.0076
187.5000,-5.1898,1.5458,2.0598,10.4471,11.9299,2.8701,13.4211,12.8806,-22.6590,-5.0426,-0.4665,2.8201,6.7037,22.8698,1.5838,5.8250,8.4672,0.5839,7.9088
191.4062,-5.5276,2.2840,3.8613,9.8099,11.7774,1.2702,1.0789,13.1920,-22.7144,-3.1040,3.0323,6.1169,9.5685,22.6360,3.7551,7.4137,9.8366,3.2467,9.1323
195.3125,-6.2335,3.7881,5.3000,8.5021,10.4622,0.0312,-7.2806,12.9285,-22.6103,-3.1691,6.0890,8.5724,11.3480,22.0235,6.0357,8.9205,10.0429,5.0739,10.0026
199.2188,-7.1476,5.2073,5.0580,6.7393,8.0332,-0.5637,-8.9897,11.6290,-24.0697,-4.5616,7.4434,9.4143,11.1505,20.6336,7.3840,10.0689,8.4548,5.5598,9.9800
203.1250,-7.7125,6.1188,3.1891,5.5224,5.1434,-0.4350,-5.2660,9.6232,-27.0937,-5.1591,7.2285,9.0260,9.1405,18.3073,7.1970,10.4628,5.1461,5.3795,9.0553
207.0312,-7.1269,6.9460,1.0050,6.0346,2.8698,0.2047,0.3045,7.8890,-29.8634,-2.9954,6.7327,8.4506,6.3814,15.2985,5.8148,9.7819,0.8734,5.8266,7.7750
210.9375,-4.7535,8.6032,0.1098,8.7247,2.1874,1.0760,4.3682,7.3629,-30.2483,2.1349,7.3094,8.5120,4.0992,12.0550,4.2578,7.9997,-3.3914,7.7714,6.8695
214.8438,-0.5610,11.6515,1.3582,12.8232,3.4330,2.1541,5.5538,8.2748,-27.6431,8.3417,9.3350,9.2572,2.9260,8.8727,3.4553,5.4863,-7.0099,10.9699,6.7820
218.7500,4.7088,15.7282,4.4846,16.7605,6.1463,3.7522,4.4860,10.0482,-23.5441,12.9218,12.0577,10.1144,2.6832,5.7963,3.6657,2.9219,-9.8867,14.2903,7.4715
222.6562,9.8079,19.7874,8.5437,19.2395,9.4031,6.2277,2.6555,11.8115,-20.3550,14.3463,14.4125,10.5532,2.8134,2.8717,4.5783,1.0536,-12.2058,16.6729,8.6161
226.5625,13.5597,22.9599,12.6459,20.1434,12.3731,9.5327,1.3957,13.0456,-19.4418,13.4343,16.0496,10.6355,3.0383,0.4760,5.9245,0.4235,-13.9730,18.0149,9.9851
230.4688,15.4140,25.2529,16.3214,20.5199,14.6598,13.0229,1.6561,13.7892,-20.1096,12.7676,17.6465,10.9705,3.6382,-0.6910,7.9337,1.1928,-14.8249,19.2116,11.5979
234.3750,15.6607,27.4215,19.2990,21.5963,16.1792,15.7662,4.2211,14.2485,-20.3770,14.7390,20.2121,12.1166,5.0845,-0.0928,11.1167,3.1204,-14.3415,21.2826,13.5001
238.2812,15.2096,30.0915,21.0921,23.5831,16.7508,17.1648,9.5765,14.2203,-18.8638,19.6936,23.9970,13.9689,7.3480,2.0136,15.5253,5.6658,-12.6261,24.3098,15.3751
242.1875,15.0976,32.9350,20.9832,25.2624,15.8574,17.3962,17.1830,12.9459,-16.1296,25.5834,28.0103,15.7017,9.5471,4.3805,20.2146,8.1526,-10.6044,27.1274,16.4276
246.0938,16.0128,34.7236,18.5938,24.7906,12.9042,17.2747,24.8696,9.6543,-14.2696,29.4118,30.6530,16.3756,10.3730,5.3337,23.5544,9.9514,-9.6373,28.1254,15.7899
250.0000,18.0543,34.3359,14.5803,21.1817,7.8567,17.5983,29.3537,4.4149,-15.0896,29.3863,31.0002,15.7378,9.0811,3.8272,24.3156,10.6675,-10.5861,26.5902,13.2395
253.9062,20.7743,31.8973,10.7293,15.3443,1.7289,18.5007,28.0831,-1.4366,-18.4426,26.1649,29.6472,14.5370,6.2922,0.2527,22.7004,10.3026,-12.9930,23.4928,9.6585
257.8125,23.4059,28.9964,9.1222,9.8110,-3.5975,19.3594,21.2892,-5.7839,-22.2139,22.2869,28.3278,14.0271,3.8814,-3.6526,20.3919,9.3084,-15.0801,20.9952,6.7647
261.7188,25.1426,27.6238,10.8251,7.2510,-6.2700,19.3642,12.5580,-6.9081,-24.0499,20.2591,28.5208,14.9965,3.8819,-5.8370,19.4247,8.4381,-14.7334,20.9383,6.1620
265.6250,25.3850,28.5753,15.0597,8.7819,-5.5392,18.2711,7.0553,-4.5510,-23.4103,20.7583,30.1501,17.0780,7.1093,-5.2311,20.6603,8.3875,-10.8835,23.4205,8.3170
269.5312,23.9154,30.6207,19.5550,13.2649,-2.2491,16.6684,8.2972,-0.0836,-22.1907,22.2704,31.4875,18.9248,12.5037,-2.4035,23.0663,9.3788,-4.3220,26.5767,12.1995
273.4375,20.9755,31.2249,21.9240,18.0634,1.6612,15.4649,15.6598,4.3690,-23.3100,22.3616,30.4329,19.1713,17.7148,0.8868,24.4341,10.9519,2.6811,27.7907,15.8847
277.3438,17.2100,28.3849,21.1112,20.6960,4.3484,14.9895,24.5214,7.2233,-28.3520,19.5608,26.2156,17.4630,20.5609,2.9060,23.0450,12.1644,7.7499,25.4866,17.7255
281.2500,13.4596,22.1951,17.8837,20.2178,5.1446,14.4886,29.1269,8.2419,-36.1667,14.4411,20.1625,14.7454,20.3435,3.0452,19.0094,12.1540,9.8311,20.1926,17.2816
285.1562,10.4587,14.8955,14.0567,17.4460,4.7897,12.5454,26.2645,8.3336,-43.5850,9.1666,14.8681,12.5540,18.1048,2.0384,14.2211,10.7342,9.6863,14.1158,15.3815
289.0625,8.5613,9.3159,11.1028,14.0338,4.6960,8.1925,17.2118,8.5979,-47.6997,5.9372,12.3577,11.8263,15.7009,1.2185,10.9473,8.5988,9.1300,9.5820,13.3422
292.9688,7.6278,6.8947,9.2189,11.2023,5.8094,1.8587,6.6474,9.3945,-47.9116,5.5184,12.6414,12.1522,14.4216,1.4327,10.1512,6.9288,9.6057,7.5158,11.9782
296.8750,7.1272,6.7911,7.5004,9.0617,7.8876,-4.6623,-0.5855,10.1113,-46.1546,6.8658,13.7717,12.0615,14.1746,2.4336,10.8550,6.6024,11.1515,7.0456,11.1300
300.7812,6.3946,6.7422,4.9572,6.8821,9.6609,-9.2994,-2.4933,9.7067,-45.2054,7.9737,13.3495,10.1496,13.7652,3.1344,11.0117,7.5328,12.4773,6.4143,9.9896
304.6875,4.9097,4.9321,1.4632,3.9191,9.6838,-11.0644,-0.6766,7.5077,-46.4986,7.2164,10.3086,6.1862,11.9541,2.4334,9.1581,8.6274,12.0247,4.3989,7.8670
308.5938,2.4777,1.3733,-2.1357,0.0564,7.2241,-10.6424,1.4533,3.6233,-49.1899,4.2283,5.6240,1.3554,8.4267,-0.0702,5.5247,8.4597,9.1619,1.1327,4.7517
312.5000,-0.7348,-2.2552,-4.7713,-4.1870,2.5984,-9.7418,1.3974,-1.2646,-51.1121,-0.1482,1.4621,-2.5579,3.9626,-3.9664,1.7577,6.2358,4.6210,-2.2122,1.2642
316.4062,-4.2828,-4.0833,-6.0462,-8.1469,-3.1597,-9.7164,-0.8541,-6.4370,-50.7039,-4.5997,-0.4938,-4.4039,-0.2228,-8.4898,-0.4516,2.3918,-0.0900,-4.4932,-1.8681
320.3125,-7.5941,-3.5649,-6.4764,-11.4805,-8.9308,-10.5560,-3.3717,-11.4866,-48.2592,-8.1312,-0.2139,-4.3823,-3.3560,-13.0622,-0.6740,-1.6179,-3.7773,-5.4833,-4.3008
324.2188,-10.1462,-1.7938,-6.8923,-14.2020,-13.9456,-11.0371,-4.2156,-16.2159,-45.5043,-10.4162,0.8679,-3.7150,-5.4959,-17.4662,0.0636,-4.2267,-6.2983,-5.8802,-6.1144
328.1250,-11.6291,-0.4287,-7.5538,-16.3344,-17.8075,-9.8728,-3.0301,-20.2809,-43.9501,-11.6608,1.1515,-3.5813,-7.2069,-21.5923,0.2907,-4.7457,-8.4265,-6.5226,-7.4386
332.0312,-12.0356,-0.1991,-7.7826,-17.5769,-20.2680,-6.8734,-1.0684,-23.0102,-43.4723,-12.2604,0.1794,-4.1886,-8.8895,-25.1085,-0.5832,-3.7593,-11.0430,-7.5397,-8.0716
335.9375,-11.6149,-0.2716,-6.4523,-17.3449,-21.0851,-3.1263,0.1888,-23.6499,-42.3220,-12.5286,-1.0675,-4.7060,-10.3843,-27.4465,-1.7492,-2.6599,-14.3548,-8.1646,-7.4990
339.8438,-10.6800,1.0190,-2.9272,-15.1672,-20.1312,-0.0389,0.5241,-21.8584,-38.5333,-12.5726,-1.0365,-4.0718,-11.1663,-28.1717,-1.6908,-2.6646,-17.7583,-7.3441,-5.3311
343.7500,-9.3628,4.7341,2.3512,-11.0870,-17.6182,1.9336,1.3098,-18.0110,-31.5399,-12.2476,1.1360,-1.9718,-10.9095,-27.4139,0.5169,-4.0056,-20.4036,-4.6127,-1.7742
347.6562,-7.4919,10.4179,8.1225,-5.7099,-14.1699,3.7569,4.4333,-13.0116,-22.6894,-11.1677,4.9788,0.8306,-9.8942,-25.9388,4.3768,-5.8455,-21.9494,-0.5055,2.3069
351.5625,-4.7255,16.4393,13.1797,0.1314,-10.6088,7.0162,10.7333,-7.7338,-14.3012,-8.8641,9.0837,3.0767,-8.8972,-24.7347,8.2619,-6.9362,-22.8730,3.7923,5.8321
355.4688,-0.9092,21.2314,17.1029,5.7862,-7.5991,12.4535,19.1842,-2.5501,-8.1108,-5.1449,12.1149,3.9996,-8.6684,-24.4023,10.5490,-6.5193,-24.0874,7.2311,8.1130
359.3750,3.5687,24.3297,20.2460,10.9126,-5.4231,19.0440,27.3907,2.6532,-4.3645,-0.4968,13.5779,3.8776,-9.4383,-24.8155,10.6686,-4.8242,-26.1727,9.4619,9.1322
363.2812,7.7084,26.3441,23.0273,15.2532,-4.0480,24.4224,32.9284,7.9910,-2.1924,3.8272,13.8118,3.6861,-10.8376,-25.2969,9.2888,-2.8424,-28.8142,10.7680,9.2904
367.1875,10.2437,27.9793,25.1906,18.3364,-3.3654,26.3873,34.5171,13.0529,-0.7726,6.2923,13.3811,4.1572,-12.2235,-25.1271,7.6143,-1.5811,-30.8528,11.5110,8.8822
371.0938,10.2482,29.0644,25.7313,19.4698,-3.3366,24.3395,32.3152,16.8278,-0.1860,5.9875,12.5143,5.0725,-13.0731,-23.9507,6.4801,-1.3474,-30.8898,11.6358,7.8021
375.0000,7.6357,28.5314,23.6086,18.1319,-3.8844,19.5605,27.3997,18.2093,-1.2274,3.3659,11.0895,5.4317,-13.1057,-21.7719,5.9797,-1.5546,-28.0173,10.6861,5.7668
378.9062,3.2301,25.4144,18.6797,14.4807,-4.6533,14.1716,21.0497,16.7341,-4.4163,0.1916,9.0847,4.3919,-12.1183,-18.6270,5.8015,-1.1534,-22.2318,8.3080,2.8593
382.8125,-1.6467,19.9919,12.0791,9.5393,-4.9416,9.6575,14.3850,12.9916,-9.1684,-1.4461,6.9593,2.1817,-9.8316,-14.3282,5.7953,0.6341,-14.3739,4.7819,-0.1366
386.7188,-5.8009,14.0067,5.6966,4.8247,-4.0000,6.1288,8.3918,8.3765,-13.9376,-0.4856,5.5085,0.1583,-6.0360,-8.6056,6.1475,3.7622,-5.7597,1.0886,-2.0091
390.6250,-8.6138,9.6500,1.1204,1.6103,-1.5653,2.8179,3.9637,4.3428,-17.2713,2.3361,5.2591,-0.1494,-0.9975,-1.5892,6.9958,7.3218,2.2275,-1.5960,-1.8943
394.5312,-10.0794,8.0503,-1.1938,0.3001,1.7699,-0.7612,1.6435,1.6671,-18.9115,4.9166,5.9458,1.6933,4.2615,5.7952,7.9207,10.0026,8.4318,-2.6153,0.0132
398.4375,-10.5185,8.4725,-1.9777,0.3185,4.7052,-4.0827,1.1879,0.1933,-20.0094,5.2108,6.5873,4.4840,8.2007,11.9577,7.9235,10.7664,12.1218,-2.2220,2.4074
402.3438,-10.2683,8.8923,-2.4942,0.5566,5.8956,-5.9740,1.4115,-0.8428,-22.2432,2.6715,6.1725,6.0854,9.5274,15.3577,6.0717,9.3656,13.1485,-1.3635,3.5951
406.2500,-9.5981,7.5173,-3.7235,0.0491,4.7335,-5.7311,0.6507,-2.2058,-26.5172,-1.3284,4.4222,4.9291,8.0162,15.3738,2.3344,6.4599,12.0208,-1.0351,2.5254
410.1562,-8.8428,4.0812,-5.9403,-1.5408,1.7310,-3.9505,-2.3002,-4.1930,-32.2393,-4.4219,1.9945,1.2084,4.7655,12.7195,-2.1349,3.2966,9.7704,-1.6674,-0.5926
414.0625,-8.5186,-0.0528,-8.8166,-3.8544,-1.7517,-2.2710,-7.3735,-6.5454,-37.6923,-4.8750,-0.0402,-3.1664,1.6235,9.0804,-5.6162,1.1105,7.5515,-2.9421,-4.4983
417.9688,-9.1855,-2.9787,-11.7630,-6.1119,-4.2414,-2.1746,-13.1141,-8.6754,-41.1614,-2.7553,-1.0206,-5.8553,0.1229,6.1904,-6.9441,0.5191,6.1222,-4.0894,-7.7150
421.8750,-11.0700,-3.6073,-14.1608,-7.4933,-4.8661,-3.8381,-17.3881,-9.9791,-41.9592,0.1741,-1.1296,-5.6824,0.6453,4.9562,-6.2736,1.2047,5.5165,-4.3975,-9.3820
425.7812,-13.7283,-2.2539,-15.4051,-7.4290,-3.6333,-6.0197,-18.4755,-10.0506,-40.6696,1.7245,-1.1000,-3.3614,2.3758,5.1773,-4.8784,2.0805,5.1457,-3.5825,-9.5172
429.6875,-16.0830,-0.1194,-14.9593,-5.7479,-1.1946,-7.0909,-15.8922,-8.7684,-38.5936,0.7793,-1.4735,-0.8434,4.0260,5.9614,-4.1337,1.9122,4.2842,-1.8387,-8.6388
433.5938,-16.9178,1.7603,-12.5940,-2.7087,1.6355,-6.3438,-10.5222,-6.3143,-36.9374,-2.0272,-2.0705,0.1754,4.7508,6.4498,-4.4912,0.1009,2.6004,0.3674,-7.1670
437.5000,-15.5604,3.1717,-8.6949,1.0762,4.2554,-4.4631,-4.1031,-3.1492,-36.3274,-4.8544,-2.1332,-0.5651,4.5842,6.3055,-5.2474,-2.8342,0.3457,2.5638,-5.1397
441.4062,-12.2985,4.5175,-4.2992,4.8481,6.3698,-2.7863,1.5659,0.1000,-36.8290,-5.9487,-1.0186,-1.8910,4.1420,5.6729,-5.2478,-5.4395,-1.9319,4.4389,-2.4399
445.3125,-8.2320,6.0688,-0.6461,8.0063,7.8838,-2.0410,5.3056,2.8693,-38.2163,-4.7450,1.1589,-2.3118,3.9170,4.7591,-3.9056,-6.1670,-3.9080,5.8632,0.7389
449.2188,-4.6543,7.4435,1.5395,10.3613,8.7900,-1.7186,6.9166,4.9147,-40.1589,-2.0798,3.4863,-1.3283,3.7795,3.4652,-1.6866,-4.4083,-5.7967,6.8107,3.6663
453.1250,-2.3823,7.7995,2.4816,12.1489,9.1609,-0.6806,7.1710,6.4173,-42.2458,0.4898,4.8541,0.1064,3.0785,1.4080,0.3111,-1.0420,-8.1697,7.2500,5.3516
457.0312,-1.4713,6.5442,3.0846,13.7460,9.1921,1.5312,7.4394,7.8144,-44.0268,1.6787,4.7062,0.3169,1.2309,-1.6703,1.2830,1.9537,-11.3778,7.0639,5.1453
460.9375,-1.4458,3.8958,4.1017,15.2717,9.1795,3.9028,9.0090,9.4382,-45.2305,1.1075,3.3452,-1.7642,-1.6965,-5.4425,1.3470,2.6739,-15.0038,6.0560,3.2037
464.8438,-1.7994,0.7875,5.4015,16.3888,9.3890,4.5190,12.3046,11.2170,-46.0463,-0.7104,1.5954,-5.7021,-4.8698,-8.8757,1.3554,0.5282,-17.7880,4.0708,0.4507
468.7500,-2.3520,-1.7807,5.9946,16.4957,9.9088,2.1576,16.4165,12.6754,-47.1508,-2.8395,0.1638,-9.7773,-7.1128,-10.6115,2.0826,-3.2943,-18.1511,1.1895,-1.9480
472.6562,-3.2153,-3.3577,4.8723,15.1808,10.6109,-2.4095,19.3489,13.2373,-49.2936,-4.4485,-0.7543,-12.1271,-7.5476,-9.6547,3.5037,-6.5111,-15.0246,-2.1356,-3.2258
476.5625,-4.4584,-4.1104,1.9870,12.5607,11.2530,-6.6186,19.0406,12.5901,-52.6564,-5.1176,-1.3579,-11.9503,-6.0160,-5.9653,4.7739,-7.1868,-8.4838,-5.1681,-3.3490
480.4688,-5.7986,-4.3706,-1.4987,9.1980,11.6306,-7.8520,14.6543,10.8204,-56.4945,-4.9002,-1.8212,-9.9152,-3.0614,-0.5928,4.9013,-4.9842,0.1938,-7.2318,-2.8800
484.3750,-6.6054,-4.1717,-4.0051,5.6524,11.6508,-5.4335,7.2837,8.2464,-59.4398,-4.2428,-2.0366,-7.5534,0.4215,4.7515,3.5200,-1.3799,9.0628,-8.1285,-2.5392
488.2812,-6.2342,-3.2629,-4.7831,2.0737,11.2982,-1.2809,-0.5140,5.1497,-60.3342,-3.8146,-1.7703,-6.1630,3.5940,8.4739,1.1142,1.3143,16.3204,-8.3076,-2.7904
492.1875,-4.4479,-1.5828,-4.5584,-1.7550,10.5768,1.4011,-6.1808,1.6968,-58.9870,-4.2263,-1.0428,-6.0374,5.9279,9.8288,-1.4495,1.4657,20.9611,-8.5755,-3.6722
496.0938,-1.6223,0.3230,-4.9420,-5.9095,9.5232,0.4574,-8.6605,-1.8677,-56.2576,-5.6749,-0.2895,-6.5007,7.2768,9.2159,-3.6221,-0.8470,22.9931,-9.4744,-4.8774
500.0000,1.3956,1.4607,-6.9991,-9.8133,8.2791,-3.6350,-8.8665,-4.9933,-53.3794,-7.7119,-0.0539,-6.5924,7.8378,7.8754,-5.4683,-3.9511,23.1928,-10.7780,-5.9378
503.9062,3.6664,1.1174,-10.1458,-12.2882,7.1024,-8.1559,-8.7470,-6.9047,-51.0639,-9.3912,-0.4403,-5.8056,8.0474,7.1281,-7.3189,-5.7179,22.5956,-11.5560,-6.3978
507.8125,4.5401,-0.4272,-12.3730,-12.3056,6.2185,-10.1821,-9.6314,-7.0920,-49.1058,-9.8488,-0.8506,-4.3473,8.3962,7.5758,-9.1479,-4.9119,21.9912,-10.8629,-5.9462
511.7188,3.8604,-1.8814,-11.7431,-9.9263,5.5869,-8.6687,-11.1331,-5.8803,-46.7847,-8.9952,-0.3477,-2.8289,9.1752,8.7338,-10.3038,-1.8619,21.6370,-8.5833,-4.5267
515.6250,1.9604,-1.7511,-8.0097,-6.6145,4.8064,-4.9758,-11.4839,-4.5379,-43.6715,-7.7782,1.5648,-1.7294,10.2759,9.3487,-9.9174,1.9083,21.2725,-5.7411,-2.3915
519.5312,-0.4768,0.5982,-3.0089,-4.4867,3.3345,-1.5316,-9.0641,-4.6415,-40.0956,-7.6706,4.3892,-1.0718,11.2220,8.2429,-7.6805,4.7241,20.3828,-3.9123,-0.0232
523.4375,-2.6199,4.4641,0.6014,-4.9024,0.9417,0.1783,-3.9163,-7.0107,-36.8408,-9.5968,6.8559,-0.5065,11.4835,5.1583,-4.3093,5.7116,18.5503,-4.0740,2.0988
527.3438,-3.7210,8.3093,1.3283,-7.4274,-1.9489,0.6200,2.0007,-10.9750,-34.3402,-13.0249,7.8560,0.3469,10.8839,1.0141,-1.2165,5.0658,15.6961,-5.7464,3.7622
531.2500,-3.3548,10.8393,-0.0195,-10.0481,-4.3867,1.4542,6.0945,-14.6224,-32.1313,-15.9714,7.3912,1.6038,9.7639,-2.6593,0.4392,3.6035,12.0761,-7.1673,5.1059
535.1562,-1.5825,11.7962,-1.0023,-10.6014,-5.5048,3.7654,7.0065,-15.9914,-29.1363,-16.0814,6.7419,3.0618,8.7005,-4.7764,0.6135,2.0631,8.0476,-6.4969,6.4114
539.0625,1.0692,11.8756,0.4621,-8.3978,-5.2066,6.8802,5.6158,-14.4145,-24.6028,-12.1460,7.6236,4.3616,7.9477,-5.5144,0.4567,0.6991,3.7855,-3.2177,7.7335
542.9688,3.8525,11.9420,4.3836,-4.7696,-4.3553,8.8429,4.3728,-11.0087,-18.8998,-5.0141,10.9045,5.1954,7.0620,-6.2557,1.5107,-0.6117,-0.8205,1.3506,8.6944
546.8750,6.1483,12.3006,8.6719,-2.0415,-4.2069,8.1654,5.4547,-7.8797,-13.4019,2.7913,15.8590,5.4320,5.1124,-8.6130,4.6023,-1.9656,-5.9801,4.9038,8.6907
550.7812,7.6932,12.6747,10.8636,-1.6579,-5.4224,5.3290,9.1507,-6.5659,-9.4420,8.5477,20.5615,5.1469,1.4281,-13.1733,9.2409,-3.1398,-11.6542,5.8191,7.4313
554.6875,8.5236,12.8323,10.2187,-2.9253,-7.4052,2.6682,13.6952,-6.8720,-7.1543,10.9046,23.1591,4.6042,-3.6575,-18.8757,13.9384,-3.6643,-17.3312,4.4027,5.3880
558.5938,8.6979,13.1628,8.4460,-3.4239,-8.5563,2.6081,16.6277,-6.9940,-5.2320,10.4869,23.0788,4.2036,-8.7181,-23.5407,17.1670,-3.1735,-22.1599,2.7349,3.7112
562.5000,8.0666,14.5171,8.3842,-0.8637,-7.3715,5.6391,16.5844,-4.8897,-1.9480,9.1667,21.2717,4.3444,-12.0139,-25.2518,18.2326,-1.7264,-25.4010,3.1571,3.5314
566.4062,6.3448,17.3220,11.6181,4.9989,-3.6257,9.7158,14.1444,0.1107,3.2630,8.6035,19.3392,5.1920,-12.6617,-23.6390,17.4724,0.1663,-26.8806,6.4858,5.0819
570.3125,3.4814,20.7440,16.9222,11.8861,1.2620,11.6707,11.1628,6.6585,8.9198,9.1384,18.2463,6.4542,-11.3279,-20.1378,15.7481,1.8179,-27.0771,11.2789,7.3138
574.2188,0.0054,22.7820,20.8325,16.3960,5.0268,9.6119,9.2320,12.1983,12.1272,9.7904,17.6175,7.3599,-9.8489,-17.0108,13.7280,2.7265,-26.7293,14.7119,8.3915
578.1250,-3.0428,21.4530,20.0023,16.2729,5.9973,4.4452,8.5475,14.6344,10.4028,9.2275,16.1235,6.9647,-9.9692,-15.8161,11.5280,2.7687,-26.2374,14.4326,6.8191
582.0312,-4.6999,16.2668,13.6006,11.8773,4.1516,-0.6931,8.0344,13.6264,3.4125,6.8674,12.6099,4.6807,-12.0860,-16.4110,8.9068,2.1339,-25.3264,10.0498,2.4424
585.9375,-4.8328,8.8071,3.9636,5.7919,1.0323,-2.6900,6.5064,10.6036,-6.6720,3.2473,7.0678,0.7164,-14.9353,-17.1791,5.7363,1.1076,-23.2680,3.2345,-3.3960
589.8438,-4.4465,1.8460,-4.9565,0.9305,-1.3834,-0.6896,3.8038,7.5841,-16.4840,-0.5396,0.7195,-3.8974,-16.4757,-16.2656,2.2836,-0.1050,-19.5205,-3.5258,-8.6734
593.7500,-5.1600,-2.4321,-10.1532,-1.3773,-1.9870,3.3713,0.9456,5.7668,-23.5050,-3.7703,-4.7845,-7.7724,-15.3247,-12.8850,-0.9323,-1.4009,-14.2874,-8.5005,-11.8959
597.6562,-8.0685,-3.7686,-11.2565,-1.9151,-1.0616,6.2807,-0.7845,4.9573,-27.3803,-6.5556,-8.3983,-9.8635,-11.6859,-7.7642,-3.5408,-2.6747,-8.5295,-11.4621,-12.8461
601.5625,-12.7511,-3.7032,-10.2419,-2.4684,0.2771,5.9244,-0.9906,4.1529,-29.6347,-9.4602,-10.1731,-9.9755,-7.1086,-2.4931,-5.5911,-3.7121,-3.3897,-13.2074,-12.3955
605.4688,-17.2113,-4.0998,-9.5977,-4.1065,1.1534,2.7273,-0.5556,2.6731,-32.1326,-12.6517,-10.9354,-8.7685,-3.3254,1.6155,-7.4377,-4.1908,0.5271,-14.4444,-11.6320
609.3750,-18.9511,-5.5259,-10.4803,-6.2943,1.5868,-0.8377,-0.9411,0.8388,-35.5290,-15.3727,-11.5159,-7.2929,-1.0984,4.2406,-9.3424,-3.8104,3.4340,-15.0645,-11.0508
613.2812,-16.5555,-6.8018,-12.2094,-7.4910,2.2108,-2.1815,-2.9904,-0.3490,-38.8627,-16.2701,-12.1751,-6.3752,0.0571,5.8582,-11.1426,-2.4872,5.9638,-14.3682,-10.4297
617.1875,-10.7210,-6.0790,-13.2598,-6.6241,3.3758,-0.4596,-6.2211,-0.1951,-40.4881,-14.3921,-12.6012,-6.2290,1.1578,6.9429,-12.2892,-0.5016,8.4189,-11.9319,-9.3857
621.0938,-3.9680,-2.5478,-12.7198,-4.1235,4.5034,2.9739,-9.1589,0.9378,-39.4951,-10.0690,-12.3399,-6.4630,2.7309,7.3542,-12.2440,1.5031,10.3196,-8.2472,-8.0215
625.0000,0.8436,2.6525,-10.9629,-1.6206,4.3520,5.7069,-10.3972,1.7963,-36.4615,-4.9339,-11.1991,-6.3868,4.3742,6.4863,-10.9313,2.7249,10.6842,-4.5044,-7.0111
628.9062,2.2361,7.1101,-9.0918,-0.5849,2.0546,6.0295,-9.5150,1.2176,-32.9892,-0.9782,-9.2947,-5.3796,5.2410,4.0432,-8.8818,2.5751,8.8716,-1.6826,-6.9997
632.8125,0.9330,8.9058,-7.8047,-1.0752,-1.9201,4.0083,-7.1729,-0.8900,-30.4748,0.7142,-6.8004,-3.1416,4.9706,0.7078,-6.9365,1.0637,5.3104,0.2472,-7.8384
636.7188,-0.7478,8.0764,-6.7603,-1.6852,-5.7519,1.2330,-4.4312,-3.4015,-29.1330,0.6496,-3.7387,0.2065,4.1983,-1.9934,-5.7016,-1.0358,1.4629,2.2757,-8.3880
640.6250,-0.4674,6.6209,-4.9832,-0.7450,-7.3422,-0.3888,-1.9440,-4.8237,-28.0230,0.5445,-0.0606,4.1291,4.1413,-2.6617,-5.1220,-2.4361,-1.0526,5.4610,-7.1887
644.5312,2.6826,7.0394,-1.8789,2.2220,-5.7399,0.1798,0.3134,-4.4791,-25.9851,2.1669,4.0748,7.7770,5.5676,-1.1316,-4.4667,-1.9843,-1.5751,9.9308,-3.5577
648.4375,7.7879,10.5321,2.1048,6.0114,-1.8517,2.6954,2.6774,-3.0753,-22.6838,6.2183,8.1613,10.2242,8.0201,1.1911,-2.7469,0.5972,-0.9056,14.6433,1.7431
652.3438,12.9245,16.2095,5.7819,8.6416,2.1169,6.0786,5.2559,-2.1873,-18.9295,11.9811,11.5783,10.8412,9.9978,2.1212,0.6727,4.3536,-0.7789,18.1444,6.8579
656.2500,16.4836,21.8270,8.2296,8.9209,4.0946,9.2018,7.7670,-3.0344,-16.0730,17.8617,14.0639,9.6646,10.0219,0.1154,5.6254,7.4610,-2.6542,19.7143,10.0223
660.1562,18.0481,25.3837,9.5887,7.4095,3.4160,11.4451,9.8734,-5.4865,-15.0064,22.3425,16.0094,7.5132,7.7775,-4.6796,11.1198,8.2200,-6.6950,19.9509,10.7313
664.0625,18.2930,26.3378,10.9477,6.0049,1.0566,12.7855,11.6160,-8.0545,-15.5662,24.6652,18.2435,5.6807,4.4294,-10.4993,15.7756,6.1172,-11.6709,20.2915,10.0245
667.9688,18.1541,25.6144,13.3978,6.5015,-1.2280,13.5664,13.4470,-8.8627,-16.7603,24.8976,21.3896,5.2976,1.8512,-15.0785,18.5018,2.2445,-15.8143,21.8502,9.6799
671.8750,18.0097,24.5971,17.0697,9.2836,-2.1189,14.2057,15.7751,-6.8748,-17.5750,23.5458,25.2770,6.7249,1.3580,-16.9915,19.0555,-1.2906,-17.9581,24.5154,10.9293
675.7812,17.5082,24.0331,20.9662,13.1610,-1.3904,14.9707,18.4490,-2.4951,-17.7044,21.1534,28.9027,9.3767,2.9030,-16.2873,18.1519,-2.6575,-18.1157,27.0367,13.6503
679.6875,16.0941,23.7015,23.7179,16.4026,0.3588,15.8159,20.7225,2.8223,-17.6731,18.1896,31.0270,12.1064,5.3080,-14.0753,17.0273,-1.4647,-17.1441,28.0153,16.5905
683.5938,13.7174,22.9403,24.6031,18.0681,2.4935,16.3041,21.8181,7.5818,-18.3386,15.1579,30.9727,13.8941,7.2682,-11.5135,16.6777,1.0227,-15.8601,26.9777,18.3765
687.5000,11.0958,21.4120,23.9828,18.5569,4.8838,15.7258,21.6164,11.1010,-20.2169,12.6274,29.0191,14.3592,8.2948,-9.0328,17.2289,2.8025,-14.3720,24.6679,18.4879
691.4062,9.2935,19.3877,22.8319,18.9967,7.7529,13.4935,20.8092,13.6455,-23.1418,10.9933,26.0942,13.7685,8.8739,-6.3434,17.8678,2.5788,-12.1437,22.3548,17.4664
695.3125,8.9378,17.3749,21.8280,20.0672,11.0568,9.6551,20.2932,15.8731,-26.4468,10.1119,23.0305,12.6052,9.8033,-3.0925,17.4289,0.7130,-8.6716,20.7608,16.2854
699.2188,9.6799,15.5354,20.8062,21.2799,14.0587,5.1362,20.2878,18.1086,-29.4493,9.1792,19.9985,11.1037,11.3361,0.4683,15.2811,-1.0155,-4.1467,19.5040,15.4655
703.1250,10.3196,13.4968,19.0173,21.3022,15.5759,1.3849,19.9961,20.0090,-31.8488,7.1039,16.5691,9.1483,12.8684,3.3934,11.8971,-0.6886,0.4811,17.4804,14.6730
707.0312,9.5207,10.7308,15.9010,19.0141,14.7684,-0.4912,18.2299,20.7982,-33.7873,3.2233,12.3260,6.5976,13.4072,4.6025,8.6520,2.3396,4.0976,13.8267,13.0901
710.9375,6.6295,7.1127,11.6529,14.4000,11.8202,-0.5310,14.5704,19.8065,-35.6131,-2.1309,7.4851,3.7045,12.3884,3.6225,6.9212,6.9152,6.1785,8.6448,10.1974
714.8438,2.0700,3.1093,7.0890,8.5595,7.9122,-0.0000,10.0692,16.8793,-37.5720,-7.6831,2.9705,1.2025,10.1461,0.9263,7.0867,10.8202,7.0844,2.9194,6.2950
718.7500,-2.8984,-0.5790,2.9778,2.8926,4.4540,-0.5441,6.7567,12.4165,-39.6256,-11.9235,-0.1466,-0.0933,7.6619,-2.3625,8.1920,12.2361,7.6726,-2.2302,2.3469
722.6562,-6.8486,-3.5524,-0.5040,-1.8132,2.1586,-2.9386,6.1847,7.1275,-41.4483,-14.0167,-1.4039,0.1089,5.8383,-5.1297,8.5653,10.8888,8.5703,-6.2777,-0.6893
726.5625,-8.8477,-5.8747,-3.6714,-5.6437,0.6873,-6.3605,8.1125,1.7662,-42.5401,-14.2608,-1.2812,1.2636,4.9132,-6.7871,7.0227,8.0855,9.7107,-9.3835,-2.4725
730.4688,-8.7629,-7.6936,-6.6893,-9.0287,-0.8615,-8.8070,10.4725,-2.9836,-42.3849,-13.7551,-0.8311,2.2667,4.4658,-7.3304,3.7931,5.6851,10.4875,-11.8521,-3.3437
734.3750,-7.1401,-8.7199,-9.0385,-11.9788,-3.0268,-8.4395,10.8043,-6.5184,-40.6316,-13.5169,-0.8947,2.1636,3.9322,-7.0313,0.4543,4.8024,10.3452,-13.5354,-3.8472
738.2812,-4.8322,-8.1805,-9.6852,-13.8237,-5.3814,-4.9013,8.1390,-8.3844,-37.2783,-13.7036,-1.5203,0.7744,3.1248,-6.1234,-1.1316,5.1874,9.2688,-13.8069,-4.1615
742.1875,-2.6258,-5.4597,-7.9251,-13.7134,-6.7500,0.3647,3.8423,-8.4769,-32.7761,-13.5280,-2.0363,-1.2303,2.2909,-4.7593,-0.1513,5.6529,7.7478,-12.1891,-3.9487
746.0938,-1.0251,-0.9469,-4.2070,-11.4457,-6.0923,5.0323,0.6472,-7.2344,-27.9348,-11.9317,-1.6970,-2.8489,1.6965,-3.1989,2.5199,5.1239,6.2629,-9.0684,-2.7424
750.0000,-0.2039,3.7284,-0.1588,-7.8710,-3.3672,7.3537,0.5235,-5.5964,-23.5892,-8.5070,-0.3665,-3.4604,1.1588,-1.9462,4.8474,3.4562,4.7629,-5.7746,-0.5234
753.9062,-0.0593,6.5051,2.3636,-4.4636,0.2905,7.0979,3.0217,-4.6183,-20.1647,-3.9613,1.3091,-3.1943,0.0055,-1.6042,4.9735,1.4269,2.6124,-3.8004,2.0364
757.8125,-0.3019,6.3052,2.5559,-2.3466,3.2243,5.3705,5.4693,-4.9059,-17.4227,0.2413,2.3706,-2.7149,-2.4472,-2.5069,2.4191,-0.0084,-0.9127,-3.6928,3.9083
761.7188,-0.5575,3.9868,1.2831,-1.5281,4.2666,3.6194,4.9976,-6.2204,-14.6131,2.8073,2.2690,-2.6382,-6.2760,-4.4328,-1.6721,-0.5299,-5.9690,-4.5157,4.3825
765.6250,-0.4803,1.9770,0.4965,-0.9531,3.3966,2.7161,0.9145,-7.5481,-11.0124,3.4279,1.2714,-3.0578,-10.7180,-6.6803,-5.3614,-0.6714,-11.8616,-4.4125,3.5653
769.5312,0.1374,2.6763,1.8210,0.6635,1.6262,2.7935,-4.4406,-7.6434,-6.5354,2.8814,0.2420,-3.5290,-14.5481,-8.4946,-7.1713,-1.2976,-17.3665,-1.9499,2.3100
773.4375,1.2867,6.7204,5.3411,3.8589,0.2662,3.7533,-7.1451,-5.7417,-2.0033,2.3633,-0.0069,-3.4673,-16.7896,-9.5310,-6.8823,-2.8085,-21.4105,2.7296,1.6359
777.3438,2.7238,12.3892,9.4869,8.0279,0.1259,5.7347,-4.4927,-2.0142,1.1602,2.5629,0.7182,-2.6038,-17.2186,-9.9916,-5.3942,-4.7396,-23.5921,7.8366,2.0680
781.2500,4.0262,16.6705,12.1044,11.8673,1.1703,8.9397,2.8988,2.5033,1.6695,3.1886,1.9311,-1.1421,-16.2992,-10.3256,-3.8895,-6.0835,-24.1827,11.0548,3.3736
785.1562,4.7145,17.2678,11.9305,14.2796,2.7720,12.9413,11.2770,6.4624,-0.8809,3.2947,2.9155,0.4522,-14.6570,-10.7359,-2.9952,-6.0628,-23.6787,11.0776,4.8446
789.0625,4.4203,14.1338,9.4259,15.0559,4.2758,16.2688,16.1959,8.9069,-5.7249,2.1424,3.2991,1.7993,-12.5561,-10.8953,-2.5365,-4.7297,-22.3218,8.4681,5.8710
792.9688,3.0578,9.4556,6.4230,14.8874,5.4410,16.9820,15.4998,9.7338,-11.2660,-0.0890,3.2987,2.7907,-9.8034,-10.1061,-1.9460,-2.9232,-19.9842,5.2491,6.3630
796.8750,0.9293,6.1494,4.9025,14.7879,6.4955,14.0933,10.7346,9.6731,-15.8521,-2.3146,3.4672,3.5081,-6.1192,-7.7888,-0.8984,-1.6373,-16.4734,3.5459,6.7358
800.7812,-1.3164,5.9816,5.7742,15.4083,7.8494,8.7713,5.9990,9.8249,-18.5460,-3.3010,4.1730,4.0277,-1.6163,-3.9252,0.3520,-1.3146,-11.9460,4.2598,7.5167
804.6875,-2.9081,8.6223,8.4365,16.7173,9.7287,4.1435,5.0789,11.0269,-19.4769,-2.6088,5.2341,4.3341,3.0449,0.8693,1.1432,-1.6068,-7.0414,6.6657,8.8966
808.5938,-3.2934,12.1716,11.2830,18.1752,11.9786,3.4623,8.8915,13.3977,-19.6202,-0.9906,5.9907,4.4177,6.9695,5.6835,0.8761,-1.7487,-2.5961,9.1171,10.5445
812.5000,-2.4268,14.6099,12.7064,19.1637,14.1247,7.7505,14.9719,16.2905,-20.1654,0.0930,5.7535,4.4123,9.5546,9.7894,-0.6029,-1.2015,0.8363,10.2540,11.7866
816.4062,-0.8175,15.0443,11.9363,19.3193,15.6036,14.6857,19.2402,18.6629,-21.8341,-0.4759,4.2927,4.5700,10.8061,12.9196,-2.9451,-0.0366,3.2739,9.8286,11.9892
820.3125,0.7314,13.9358,9.2890,18.5910,16.0071,19.7780,18.7228,19.6429,-24.5115,-2.6151,2.0188,5.0342,11.2057,15.1801,-5.5175,1.2182,5.1784,8.6315,10.8813
824.2188,1.5652,12.3604,5.8348,17.0901,15.2175,19.2519,13.3711,18.9662,-27.3718,-5.0180,-0.2553,5.5991,11.2572,16.7280,-7.6799,2.0847,7.0211,7.6967,8.6335
828.1250,1.5353,11.0512,2.7740,14.9276,13.3952,12.6798,5.9011,17.0414,-29.4150,-6.0098,-1.7905,5.7159,11.0808,17.4979,-8.9624,2.5258,8.8836,7.4475,5.6900
832.0312,1.0415,9.9900,0.8561,12.1666,10.8556,3.4408,-0.0134,14.6286,-30.1099,-4.6876,-2.3121,4.8170,10.3616,17.1916,-9.1410,2.8766,10.3878,7.4054,2.4959
835.9375,0.7291,8.7337,0.0600,8.8836,7.9164,-3.4328,-1.8631,12.3559,-29.7649,-1.5345,-2.0800,2.7515,8.6590,15.5188,-8.2784,3.3907,10.9776,6.6101,-0.7065
839.8438,1.0488,7.0343,-0.3612,5.2526,4.8052,-4.5662,0.5491,10.3979,-29.3808,1.9277,-1.6287,-0.0139,5.8167,12.4910,-6.7289,3.8283,10.3186,4.3865,-3.9054
843.7500,1.9816,5.1504,-1.4621,1.5939,1.6857,-0.3877,5.3630,8.5209,-30.0412,4.1898,-1.3736,-2.6152,2.1660,8.5476,-5.0235,3.5051,8.5269,0.8988,-7.1676
847.6562,3.1060,3.6227,-3.9360,-1.6213,-1.2160,5.3843,9.8238,6.4364,-32.1926,4.7509,-1.3396,-4.2926,-1.5911,4.4320,-3.5981,1.8387,6.1021,-2.8570,-10.4020
851.5625,3.9371,2.8041,-7.4973,-3.8132,-3.4953,8.4730,11.5171,4.1773,-35.2850,4.3533,-1.1675,-4.8081,-4.7003,0.8997,-2.5050,-1.0168,3.6598,-5.5651,-13.1844
855.4688,4.2781,2.6265,-10.7207,-4.4131,-4.5973,6.9703,9.1578,2.1966,-38.0489,4.3143,-0.3745,-4.4821,-6.6529,-1.5692,-1.3595,-3.9976,1.6612,-6.2474,-14.7795
859.3750,4.3336,2.8076,-11.5925,-3.0799,-4.0433,2.3680,2.9166,1.1051,-39.2755,5.4727,1.3036,-3.8635,-7.3205,-2.9200,0.3395,-5.6633,0.2720,-4.6819,-14.4072
863.2812,4.5305,3.2525,-8.6087,0.0627,-1.7424,-1.9207,-5.5374,1.2449,-38.6015,7.5328,3.7047,-3.3295,-6.9282,-3.4951,2.6969,-5.1398,-0.6432,-1.4018,-11.6567
867.1875,5.2055,4.2050,-1.8180,4.3344,1.8372,-3.2974,-13.2970,2.4311,-36.7527,9.2827,6.3001,-2.9314,-5.9435,-3.8648,5.1411,-2.8119,-1.4543,2.6391,-6.8228
871.0938,6.3935,5.9503,6.9013,8.6949,5.8161,-1.8638,-17.0122,4.0614,-35.0513,9.5141,8.4943,-2.5524,-4.9337,-4.5898,6.7130,-0.2113,-2.6558,6.5040,-0.9286
875.0000,7.8423,8.3232,14.6341,12.1880,9.3329,-0.1023,-14.2797,5.5026,-34.5126,7.9645,9.9848,-2.1524,-4.3840,-5.9913,6.8242,0.9163,-4.6876,9.5882,4.6484
878.9062,9.1914,10.5177,18.9013,14.3755,11.9840,-0.7303,-5.1276,6.4440,-35.1727,5.5968,10.9506,-1.8158,-4.4883,-8.0044,5.9301,-0.2138,-7.6818,11.7100,8.7813
882.8125,10.1501,11.4795,18.9230,15.4510,13.9496,-4.4629,7.3633,6.9504,-36.1391,4.0182,11.9273,-1.5354,-4.9943,-10.1799,5.5033,-2.8064,-11.2295,13.0064,11.0855
886.7188,10.5554,10.6566,15.8763,15.9305,15.6892,-9.4093,18.0623,7.2063,-36.3272,4.4439,13.4265,-0.9654,-5.2363,-11.8541,7.1557,-4.8911,-14.3432,13.7462,11.9910
890.6250,10.3229,8.5175,12.0107,16.1442,17.4210,-12.5153,22.2378,7.2123,-35.3288,6.9076,15.5373,0.5375,-4.4147,-12.4256,11.4413,-4.5344,-15.7396,14.1707,12.3444
894.5312,9.3947,6.3554,9.2412,15.9338,18.7926,-11.9056,18.1778,6.7259,-33.7538,10.2170,17.7845,3.4920,-2.0149,-11.6097,17.2206,-1.0842,-14.3734,14.4207,12.8037
898.4375,7.7580,5.4232,8.1461,14.8142,19.0347,-8.3469,8.3124,5.5125,-32.7887,12.6304,19.3633,7.7612,1.8744,-9.5362,22.1514,4.3767,-9.9563,14.5286,13.4309
902.3438,5.5085,5.9883,7.9458,12.4736,17.5185,-4.7659,-2.0658,3.6726,-33.3237,12.7807,19.6154,12.3545,6.5573,-6.6474,24.0687,9.6831,-3.1517,14.4152,13.7437
906.2500,2.8704,7.0150,7.3189,9.1794,14.3057,-4.2143,-7.8619,1.7160,-35.3272,10.2857,18.4275,15.8096,11.0560,-3.4738,22.3281,12.9214,4.6920,13.8606,13.1607
910.1562,0.1270,6.7671,5.3777,5.7086,10.2542,-7.7672,-7.1390,0.2556,-37.9360,5.7677,16.2759,16.9643,14.5624,-0.4358,18.1637,13.5689,12.1215,12.4873,11.4945
914.0625,-2.4832,3.9693,2.1437,2.8135,6.5601,-13.8162,-2.0698,-0.4656,-40.1475,0.4069,13.8818,15.6043,16.7329,2.2160,13.8047,12.6925,18.1358,9.8507,9.1336
917.9688,-4.8061,-1.2482,-1.6556,0.6542,4.0496,-19.1662,2.7382,-0.8155,-41.5182,-4.6186,11.7285,12.5324,17.6739,4.3218,10.9934,12.0967,22.4149,5.6878,6.7982
921.8750,-6.7113,-7.2672,-5.1346,-1.3008,2.7237,-21.0988,3.3983,-1.5429,-42.2959,-8.5064,9.7943,9.0228,17.6880,5.7020,9.9625,13.0173,25.1513,0.2364,5.0749
925.7812,-8.0142,-11.8325,-7.6672,-3.7702,1.8709,-18.9903,-0.7522,-3.2156,-42.9096,-10.9329,7.7031,6.0700,17.0027,6.1335,9.5543,15.2513,26.6669,-5.5968,4.0804
929.6875,-8.5026,-13.2921,-8.9616,-6.9367,0.6334,-14.4926,-6.9329,-5.7592,-43.3056,-11.9790,5.1779,3.9671,15.6721,5.4519,8.2974,17.3037,27.1038,-10.4348,3.4839
933.5938,-8.0955,-11.4447,-8.9377,-10.1165,-1.4093,-10.2968,-11.0001,-8.4692,-42.7528,-11.9896,2.4500,2.4565,13.6732,3.7132,5.5796,17.4283,26.3762,-13.0034,2.8355
937.5000,-6.9970,-7.4953,-7.6679,-12.1467,-4.0426,-8.3835,-10.2647,-10.4966,-40.3357,-11.4064,0.2953,1.2363,11.0725,1.2949,2.0626,14.8381,24.3584,-12.7960,1.9356
941.4062,-5.6516,-3.2068,-5.4532,-12.2272,-6.6772,-8.8695,-5.0833,-11.4173,-35.7387,-10.5696,-0.3647,0.3520,8.1101,-1.1496,-0.8739,10.2620,21.1287,-10.3950,0.9799
945.3125,-4.4497,0.1628,-2.8563,-10.5507,-8.7883,-10.0794,1.7380,-11.4329,-29.6376,-9.5454,0.9546,0.1436,5.1496,-2.8870,-2.1415,5.4918,17.0752,-7.1716,0.4093
949.2188,-3.3753,2.4541,-0.5011,-8.1938,-10.1768,-9.6917,7.0759,-11.0644,-23.3179,-8.1074,3.9201,0.8315,2.5496,-3.3754,-1.6310,2.2547,12.7858,-4.4917,0.6015
953.1250,-1.9284,4.3864,1.2939,-6.3354,-10.9174,-6.2237,9.4869,-10.6386,-17.7986,-5.9652,7.4538,2.1347,0.5448,-2.5034,-0.1582,1.1859,8.7954,-2.9339,1.6208
957.0312,0.4999,6.7335,2.7261,-5.4256,-11.1535,-0.0063,9.6873,-10.0393,-13.1919,-3.1544,10.2111,3.2896,-0.8236,-0.6994,1.1464,1.5688,5.3392,-2.0677,3.1584
960.9375,3.9818,9.4983,4.2821,-4.9770,-10.9968,6.8722,9.4046,-8.9500,-8.8715,-0.3112,11.1775,3.4898,-1.7359,1.1599,1.4674,1.9578,2.2507,-0.9667,4.6533
964.8438,7.6228,11.6901,6.1712,-4.1345,-10.6132,11.6151,9.7248,-7.3543,-4.3473,1.4573,10.0561,2.4099,-2.5820,2.0505,0.5541,1.2062,-0.9360,0.9119,5.5010
968.7500,9.7775,11.9047,7.8942,-2.5197,-10.3273,12.2077,10.3003,-5.7871,-0.1127,1.1436,7.2842,0.4022,-3.8710,1.2329,-1.3982,-0.8135,-4.7222,3.1498,5.2661
972.6562,8.9105,9.3486,8.4158,-0.6097,-10.5142,8.5484,9.9411,-5.0213,2.3184,-1.4665,3.7385,-1.7816,-6.0308,-1.3611,-3.9504,-3.2378,-9.3374,4.5593,3.8496
976.5625,4.5859,4.6048,6.9407,0.6942,-11.2623,2.5726,7.9237,-5.3717,1.3416,-5.4794,0.3211,-3.5153,-9.1524,-5.0088,-6.5009,-4.8907,-14.5446,4.0333,1.5691
980.4688,-2.1145,-0.4512,3.7244,0.9404,-12.0833,-2.7642,4.8080,-6.2015,-3.4868,-9.2686,-2.3753,-4.6659,-12.8383,-8.4728,-8.3200,-5.0939,-19.6768,1.4266,-0.9123
984.3750,-9.1000,-3.6393,0.1974,0.6677,-12.0157,-5.1183,2.0548,-6.1299,-10.8587,-11.3809,-4.2147,-5.5455,-16.3105,-10.5940,-8.7493,-4.0598,-23.9132,-2.2119,-2.8437
988.2812,-14.4099,-3.7845,-1.8407,1.0848,-10.1905,-4.0512,0.8193,-3.9092,-18.3085,-11.3951,-5.4512,-6.5319,-18.7790,-10.8933,-7.5928,-2.6650,-26.6589,-5.2552,-3.7523
992.1875,-17.2123,-1.4767,-1.4404,3.0936,-6.5085,-1.1609,1.0129,0.6345,-23.6283,-10.1249,-6.4923,-7.6849,-19.8595,-9.8129,-5.4133,-1.8307,-27.8039,-6.5227,-3.7143
996.0938,-17.9878,1.2917,0.8007,6.4488,-1.8903,1.0806,1.4792,6.3246,-26.0983,-8.9908,-7.5903,-8.6549,-19.7458,-8.4095,-3.3636,-1.9580,-27.6880,-5.9659,-3.3140
1000.0000,-17.8335,2.4402,3.1595,9.7860,2.1870,1.0496,1.1381,11.2875,-26.6665,-8.9796,-8.6174,-8.9278,-18.9927,-7.6629,-2.5036,-2.7631,-26.7853,-4.5418,-3.2566
1003.9062,-17.4903,1.2037,4.0485,11.5592,4.6011,-0.9252,0.0798,14.0962,-27.0147,-9.9352,-9.0825,-8.1939,-18.0622,-7.8403,-3.0444,-3.5478,-25.3334,-3.4283,-3.8655
1007.8125,-16.8809,-1.3691,3.1353,11.1708,5.2891,-2.8880,-0.4050,14.5816,-28.2833,-10.7032,-8.4430,-6.5705,-16.9908,-8.3477,-4.1513,-3.6721,-23.1954,-3.2175,-4.8407
1011.7188,-15.4976,-3.2214,1.4149,9.3892,5.1894,-2.8229,1.0398,13.7372,-30.4312,-10.0382,-6.5704,-4.5568,-15.4576,-8.1768,-4.5777,-2.9251,-20.0868,-3.6831,-5.5067
1015.6250,-13.2439,-2.8684,0.1774,7.7116,5.4390,-0.3316,4.4716,12.8435,-32.6301,-7.6081,-4.0585,-2.8006,-13.2072,-6.6363,-3.7135,-1.6112,-16.0070,-4.2097,-5.4113
1019.5312,-10.9278,-0.6052,-0.2493,7.1826,6.4356,2.8768,8.2702,12.5234,-34.2372,-4.3425,-2.0883,-1.8520,-10.4646,-3.8510,-2.2021,-0.3540,-11.5184,-4.4309,-4.8187
1023.4375,-9.8710,1.5919,-0.8718,7.6251,7.5009,4.1608,10.1836,12.4520,-35.4473,-1.8403,-1.8256,-2.0163,-7.9542,-0.6797,-1.5369,0.2474,-7.5883,-4.5044,-4.6587
1027.3438,-10.8516,1.4805,-3.1268,7.8962,7.4217,2.0043,9.0376,11.8737,-37.0555,-1.2390,-3.6751,-3.3048,-6.4509,1.8646,-2.8579,-0.0596,-5.0354,-4.8226,-5.8861
1031.2500,-13.2206,-1.7026,-7.4111,6.9292,5.4428,-2.5861,5.7180,10.4191,-39.5634,-2.3552,-6.8970,-5.4349,-6.1964,3.2473,-5.8864,-1.0257,-3.9624,-5.4874,-8.6881
1035.1562,-14.9931,-6.4675,-12.3195,4.6694,1.9155,-6.5015,2.5596,8.4897,-42.4538,-3.7219,-9.9135,-7.8700,-6.6751,3.6330,-8.9208,-1.9940,-3.6282,-6.0888,-12.1672
1039.0625,-13.9982,-9.9117,-15.3695,2.1066,-1.9276,-6.6185,1.5585,6.8840,-44.3334,-3.5214,-11.1806,-9.9421,-6.9795,3.5650,-10.0071,-2.2333,-2.9254,-6.0344,-14.8197
1042.9688,-9.3233,-9.6473,-14.7840,0.3734,-4.8998,-2.0979,2.8304,6.0040,-43.9121,-0.7823,-10.0794,-11.0736,-6.5156,3.4045,-8.4178,-1.3725,-1.1698,-5.1474,-15.5262
1046.8750,-1.9970,-5.4557,-10.9652,-0.3218,-6.7507,4.8293,4.5943,5.3556,-41.0579,3.9594,-7.2259,-11.0150,-5.4863,3.0004,-5.2455,0.3114,1.3627,-3.9629,-14.3406
1050.7812,5.6271,0.5297,-6.4269,-0.9930,-8.3069,10.2809,4.7376,3.8157,-37.0573,8.9632,-3.9790,-9.9476,-4.7380,1.8556,-2.5707,1.9772,3.5718,-3.3803,-12.4584
1054.6875,11.3633,5.2609,-4.1057,-3.0966,-10.7467,11.4119,2.6896,0.4933,-33.8214,12.3248,-1.4938,-8.3552,-5.0553,-0.3628,-1.8142,2.7029,4.2752,-3.8958,-11.3445
1058.5938,14.4911,6.8071,-5.2596,-7.2549,-14.5777,8.4391,0.0120,-4.4937,-32.6109,13.0726,0.0084,-6.7264,-6.4567,-3.4063,-2.5882,2.1075,3.0345,-5.0506,-11.6428
1062.5000,15.9463,5.5345,-8.5340,-12.5010,-19.1096,4.4846,-0.8679,-9.9446,-33.2383,11.6545,1.2460,-5.2867,-8.0638,-6.4751,-3.0071,0.6792,0.4648,-5.6072,-12.6786
1066.4062,17.3426,3.6443,-10.9117,-16.6744,-22.8050,3.3022,1.2051,-14.2586,-34.3266,9.5804,3.1918,-3.9419,-8.6750,-8.6847,-1.2551,-0.4914,-2.1948,-4.3837,-12.9315
1070.3125,19.6347,3.4904,-9.8332,-17.7015,-24.2063,6.5307,4.9214,-16.3275,-34.3842,8.5113,6.2374,-2.4543,-7.6041,-9.6049,2.8409,-0.4715,-3.9204,-1.1166,-11.1230
1074.2188,22.4482,5.9617,-4.8908,-14.8253,-22.7284,12.4965,7.4046,-15.9662,-32.8536,9.3612,9.8370,-0.6900,-5.1307,-9.4639,7.5247,0.7683,-4.5319,3.3352,-7.1059
1078.1250,24.5205,10.0766,2.1202,-8.9177,-18.7845,17.4590,6.6530,-13.6380,-30.3687,11.8832,12.8730,1.2577,-2.2274,-8.8929,10.3824,2.2045,-4.6730,7.6172,-1.9096
1082.0312,24.8057,13.9579,8.7105,-1.7487,-13.2883,18.3703,3.5880,-9.8352,-28.1224,14.8782,14.4342,3.1394,0.1788,-8.4574,10.1757,2.4107,-5.2189,10.8339,3.0350
1085.9375,23.3120,16.3126,13.4941,5.1373,-7.0450,15.0880,1.8915,-4.7289,-26.9277,16.8382,14.4092,4.7083,1.7853,-8.3608,7.7656,0.6107,-6.6173,13.0677,6.8497
1089.8438,21.0280,17.2416,16.8701,11.0831,-0.5313,10.3962,5.4471,1.6047,-26.7226,16.6757,13.4854,5.8060,2.8721,-8.5176,5.3872,-2.6305,-8.6725,15.0636,9.6031
1093.7500,19.0812,17.8339,20.1749,16.1503,5.8769,7.8435,15.1555,8.6544,-26.8257,14.2225,12.6234,6.3215,3.7419,-8.8537,4.8777,-5.6504,-10.8819,17.3826,11.9062
1097.6562,17.8856,19.0045,24.1471,20.4741,11.6057,9.0568,27.5903,15.2385,-26.6116,10.3074,12.4556,6.1304,4.2089,-9.4956,6.3064,-6.7726,-12.9611,19.7654,14.1366
1101.5625,16.9869,20.6040,28.0555,23.8269,15.9354,12.5746,36.7609,19.9277,-25.9889,6.3878,13.0456,5.1607,3.6706,-10.6409,8.1107,-5.4781,-15.0502,21.2564,16.0017
1105.4688,15.6630,21.5265,30.2117,25.7767,18.4361,15.0695,37.9556,21.8861,-25.3203,3.8692,14.0896,3.5871,1.7684,-12.2171,8.5783,-2.7808,-17.3916,20.9831,16.8269
1109.3750,13.6803,20.6717,29.3859,26.2070,19.3878,14.0070,30.9782,21.4507,-24.9629,3.3974,15.2741,1.9738,-0.9233,-13.6657,7.4016,-0.4756,-19.7555,18.9178,16.3093
1113.2812,11.4956,17.9158,25.9016,25.6078,19.7161,9.6900,20.3852,19.9092,-24.9208,4.4822,16.4399,1.1476,-2.8500,-14.1064,5.9832,0.2270,-21.1483,15.9634,15.0520
1117.1875,9.7246,14.2768,21.4825,24.7719,20.3728,5.1152,12.4359,18.5693,-24.9375,5.7135,17.4595,1.7824,-2.2626,-12.8143,6.2404,-0.3353,-20.1510,13.2850,14.3559
1121.0938,8.3942,11.1689,18.0029,24.1234,21.6052,3.7364,10.8728,17.8250,-24.8872,5.5385,18.0580,3.9528,1.6620,-9.6605,8.9338,-0.4710,-15.7344,11.4564,15.3634
1125.0000,6.7320,9.3927,16.1961,23.3079,22.7265,6.8230,14.5414,16.9733,-25.0142,3.2129,17.8704,7.0183,8.1902,-5.1750,12.9508,1.6053,-8.0002,10.1512,18.2016
1128.9062,3.7940,8.6980,15.3754,21.4911,22.6311,12.4068,18.5487,14.9492,-25.7043,-0.6516,16.7744,9.9860,15.3875,-0.1937,16.1673,6.3539,1.6850,8.6286,21.8059
1132.8125,-0.5306,8.2268,14.3251,18.1829,20.6793,16.6141,18.0835,11.3847,-26.9483,-4.3464,15.2026,12.1163,21.2214,4.6059,17.1657,12.3811,11.2698,6.5707,24.5823
1136.7188,-5.0104,7.3962,12.5258,13.8793,17.2341,16.3959,12.0825,7.0975,-28.0062,-6.0464,14.0591,13.3001,24.6137,8.9024,16.3495,17.2104,18.9204,4.5050,25.4127
1140.6250,-7.6039,6.4379,10.6319,9.8902,13.3844,11.6560,4.0548,3.5558,-27.6787,-4.9208,14.1675,13.8961,25.7181,12.5350,15.4996,18.8153,23.6728,3.4078,24.2572
1144.5312,-6.7391,6.1515,9.8075,7.3887,10.0499,5.2610,-0.5244,1.7069,-25.0667,-1.6307,15.6179,14.1704,25.3374,15.1623,16.1440,16.8358,25.5041,3.8099,21.9512
1148.4375,-2.3928,7.1412,10.5490,6.4194,7.1960,1.0044,1.6744,1.1209,-20.2338,2.1656,17.5660,13.8627,24.0666,16.1753,18.1449,12.6687,24.9456,5.2060,19.4425
1152.3438,3.8838,9.2473,12.0793,5.7314,3.8321,1.0704,9.2361,0.1973,-14.1923,5.0061,18.7571,12.3491,21.9086,15.0439,19.7484,8.4634,22.6443,6.3513,17.1290
1156.2500,10.0436,11.6907,12.8963,3.6857,-1.1560,4.8110,16.8202,-2.6421,-8.1673,6.6969,18.4742,9.3696,18.6365,11.8666,19.1110,5.8167,19.1974,6.2841,14.8126
1160.1562,14.8975,13.7913,12.0406,-0.4003,-7.9735,9.5845,18.8317,-7.6617,-2.7187,8.4769,17.2042,5.7295,14.4912,7.6332,16.0351,5.0779,15.2455,5.2450,12.2245
1164.0625,18.6865,15.5892,9.9796,-5.5338,-15.5095,12.8521,13.3425,-13.4337,2.5329,12.0896,16.4459,3.2637,10.4897,3.8692,12.4056,5.6087,11.5432,4.6717,9.5814
1167.9688,22.4439,17.7675,8.2971,-9.5904,-21.9061,13.8911,3.5161,-17.7129,8.2965,18.3646,17.6938,3.8527,7.9553,1.7987,10.8542,6.5928,8.7647,6.1591,7.6225
1171.8750,26.7139,20.8937,8.3805,-10.7847,-25.6907,13.9151,-4.4332,-18.9438,14.5952,26.3033,21.2776,8.0631,7.5742,1.5842,12.6567,7.6532,7.1027,10.1341,7.0504
1175.7812,30.7352,24.6338,10.1810,-8.9690,-26.6248,14.6991,-5.3071,-17.2887,20.2226,33.3724,25.9072,14.4197,8.7500,2.2112,16.5572,8.8287,5.9960,15.2928,7.8469
1179.6875,32.8300,27.6810,12.1224,-5.7491,-25.6534,16.9286,1.7520,-14.4229,23.2363,36.8899,29.3068,19.9930,9.8477,2.1519,19.5298,10.0913,4.3084,19.3163,9.0862
1183.5938,31.7440,28.5762,12.3187,-3.2940,-24.0544,19.5978,12.8394,-12.2773,22.2326,35.6235,29.5549,22.0686,9.2281,0.3721,18.9581,10.9788,0.9561,20.4021,9.4832
1187.5000,27.8531,26.8398,10.1792,-2.7294,-22.4898,20.8661,21.9130,-11.6869,17.4665,30.5416,26.2424,19.8224,6.3305,-3.0157,14.5711,10.7665,-4.3938,18.5026,8.3092
1191.4062,23.1982,23.5127,7.1079,-3.3386,-20.6917,19.6122,24.6067,-11.9342,10.9251,24.2148,20.6948,14.8281,1.9950,-6.9012,8.6480,9.0644,-11.0416,15.3526,5.9751
1195.3125,20.2073,20.6206,5.6771,-3.1819,-17.9596,16.4300,20.7413,-11.4592,5.2118,19.2665,15.1603,10.0012,-2.2052,-9.9905,4.3577,6.2974,-17.6126,13.2621,3.8042
1199.2188,20.0237,19.8972,7.8313,-0.6502,-13.9858,13.3040,14.0589,-9.1183,2.0016,16.9013,11.5521,7.6916,-5.0950,-11.6801,3.5299,3.5877,-22.8234,13.5592,3.1289
1203.1250,21.7180,21.6844,13.4391,4.2473,-9.2877,12.2505,9.5832,-5.0044,1.1575,16.4504,10.5550,8.2488,-6.6241,-12.3658,5.5478,2.0551,-26.1380,15.7951,4.3564
1207.0312,23.0160,24.7950,20.2537,9.8486,-4.8926,13.9616,10.4471,-0.2440,1.0992,16.1559,11.5642,10.0315,-7.6690,-13.0007,8.1062,2.0599,-27.8864,18.2277,6.6780
1210.9375,22.0123,27.3857,25.2914,14.0706,-1.5553,17.4042,16.1626,3.9793,0.0727,14.5676,13.3119,10.7773,-9.1246,-14.2704,9.1020,2.9842,-28.8130,19.1455,8.6147
1214.8438,18.5709,28.1446,26.6141,15.9484,0.8253,20.5522,23.2110,7.3422,-2.6697,11.5552,14.6432,9.2754,-11.0392,-16.0057,8.1051,3.7284,-29.4242,18.0280,8.9911
1218.7500,14.3560,26.9225,24.2870,16.2975,3.1015,21.6203,27.3372,10.5035,-6.6230,8.2635,14.9488,6.1298,-12.4688,-17.2415,6.3153,3.5312,-29.6087,15.7413,7.6526
1222.6562,11.4929,24.4442,19.9737,17.0057,6.1644,19.9282,26.0060,14.3680,-10.7679,6.1223,14.1420,3.1424,-12.1340,-16.8405,5.2072,2.4829,-28.7630,13.7402,5.4733
1226.5625,10.9149,21.4860,15.6486,19.5105,10.1933,15.9529,19.6000,19.1224,-14.5632,5.6782,12.4078,1.8939,-9.3326,-14.2066,5.1123,1.3705,-26.2689,12.9672,3.7325
1230.4688,11.6743,18.2718,12.4477,23.6304,14.4563,10.7808,10.8694,23.8380,-18.3244,6.1072,10.0159,2.6519,-4.4039,-9.5948,4.9493,1.0359,-21.9386,13.2749,3.3476
1234.3750,11.7281,14.5662,10.3974,27.6260,17.8039,5.5079,3.2058,26.9752,-22.7039,5.7495,7.2906,4.3913,1.5657,-3.8591,3.2763,1.7878,-16.1206,13.7212,4.4737
1238.2812,9.5563,10.2827,8.9749,29.4299,19.4611,0.9631,-1.1361,27.4102,-27.7929,3.2749,4.6199,5.7948,7.4978,2.1093,-0.2859,3.3083,-9.4468,13.4041,6.6382
1242.1875,5.3467,5.9694,7.8364,28.1150,19.5141,-2.3011,-1.9179,25.2108,-32.7037,-1.3418,2.3734,6.3502,12.9196,7.8170,-4.4958,5.0498,-2.4732,12.1561,9.1883
1246.0938,0.8467,2.6562,7.0673,24.5217,18.7539,-4.0353,-0.6137,21.5916,-36.0801,-6.7025,0.7558,6.6580,17.9753,13.1892,-7.2735,6.7203,4.4950,10.6143,11.6721
1250.0000,-1.9576,1.1387,6.8546,20.6184,18.0352,-4.4673,0.6847,18.1008,-37.1704,-10.7872,-0.2359,7.7609,22.9307,18.2345,-7.1734,8.4321,11.2902,9.6998,13.9247
1253.9062,-2.2767,1.3012,7.0308,18.1079,17.6531,-4.4182,0.4358,15.6459,-36.5644,-12.1244,-0.6486,10.1199,27.6532,22.6756,-4.3488,10.4264,17.6287,9.9622,15.9121
1257.8125,-0.9547,2.1004,7.0162,17.3126,17.1832,-5.0377,-1.6955,14.0425,-35.9096,-10.5680,-0.3190,13.1233,31.5250,25.8803,-0.2747,12.6712,22.9817,11.2669,17.5598
1261.7188,0.3821,2.2973,6.2677,17.1169,15.8612,-7.1152,-4.8803,12.3489,-36.7307,-7.2187,1.1995,15.5443,33.8631,27.1808,3.4606,14.7252,26.7316,12.9850,18.7391
1265.6250,0.7462,1.3981,4.8364,15.9453,13.1934,-10.3845,-7.6702,9.6782,-39.2303,-3.6141,4.3512,16.5590,34.4895,26.3730,6.2532,16.0055,28.5405,14.4704,19.3979
1269.5312,0.6313,0.0556,3.4946,13.0114,9.3639,-13.4194,-8.6866,5.8717,-42.0291,-0.7657,9.0733,16.4641,33.9821,24.0284,8.5978,16.2319,28.6687,15.4528,19.6772
1273.4375,1.6195,-0.4116,3.2494,8.9257,5.1839,-14.3831,-7.1646,1.5803,-43.1180,1.3357,14.4728,16.4728,33.3828,21.3503,11.2331,15.6642,27.9750,16.1074,19.8727
1277.3438,5.0741,0.9659,4.5863,5.2590,1.6480,-12.2356,-3.2343,-2.2351,-41.3590,3.4843,19.0417,17.7079,33.5563,19.5920,14.1606,14.9253,27.5227,16.8167,20.2415
1281.2500,10.9499,4.0294,7.0385,3.4209,-0.6059,-7.5628,2.0586,-4.9705,-37.4228,6.5254,21.3902,20.1753,34.6322,19.3457,16.4383,14.5477,27.9740,17.8267,20.7908
1285.1562,17.6396,7.5446,9.4344,3.6775,-1.6152,-2.3684,6.9865,-6.7225,-33.4384,10.6549,21.0537,22.5401,35.8968,20.1381,16.9416,14.5883,29.1281,19.0178,21.2106
1289.0625,22.9708,10.0391,10.6507,4.9884,-2.0251,1.1101,9.6403,-8.1000,-31.5773,15.2101,18.8006,22.9353,36.1833,20.6184,15.4097,14.5824,29.9160,19.9062,21.0104
1292.9688,25.6054,10.7953,10.3173,5.7396,-2.6853,1.7706,8.6570,-9.6854,-32.5767,19.0561,16.1838,20.2459,34.5048,19.2935,12.8401,13.8311,28.9191,19.8625,19.7854
1296.8750,25.8244,10.2794,8.9800,4.8260,-4.1326,0.2603,3.9609,-11.5585,-35.2510,21.2742,14.6081,14.9493,30.5596,15.4083,10.8395,11.7917,25.1580,18.4416,17.4597
1300.7812,25.1814,9.7396,7.6546,2.3340,-6.2413,-1.5622,-2.8671,-13.2219,-37.3163,21.6897,14.5375,8.8983,24.8526,9.4375,10.4284,8.3256,18.6981,15.6688,14.3637
1304.6875,25.3506,10.3301,7.1439,-0.6141,-8.2596,-1.8791,-8.9571,-13.9696,-36.9124,20.9056,15.3613,4.1930,18.4086,2.8454,11.2681,3.7198,10.6770,12.1224,11.0969
1308.5938,27.0356,12.4162,7.6103,-2.6964,-9.2600,0.0262,-11.3022,-13.4346,-33.7486,19.8500,15.9576,1.9186,12.2604,-2.7862,11.9371,-1.4413,2.6889,8.7262,8.2326
1312.5000,29.6738,15.5025,8.6420,-3.3052,-8.7780,3.5753,-8.2448,-11.9329,-29.1184,19.1606,15.5115,1.6028,6.9879,-6.7321,11.0416,-6.4426,-4.1244,6.3118,6.0159
1316.4062,32.0310,18.7153,9.6643,-2.9124,-7.2435,7.5347,-0.4965,-10.3571,-24.8672,18.8224,14.0191,1.7244,2.5425,-9.5517,8.2867,-10.6053,-9.6888,5.1810,4.2296
1320.3125,33.1467,21.3826,10.3431,-2.6630,-5.8575,10.8678,9.0090,-9.6611,-22.1119,18.2972,12.1950,0.8798,-1.5476,-12.6377,4.7038,-13.4593,-14.8697,4.9558,2.3431
1324.2188,32.9252,23.2797,10.7124,-3.5042,-5.8869,13.1533,16.5272,-10.2464,-20.6185,17.0494,10.9543,-1.2067,-5.7009,-17.1387,1.9262,-14.8824,-20.6250,4.8562,-0.0918
1328.1250,32.0259,24.4635,11.0203,-5.4611,-7.7697,14.4145,19.4818,-11.6429,-19.1963,15.0962,10.8874,-3.5044,-9.8135,-22.9705,1.1313,-15.1038,-26.9830,4.2543,-3.0130
1332.0312,31.2539,24.9676,11.4776,-7.5636,-10.6487,14.7291,17.8635,-12.7209,-16.7321,13.1780,12.0451,-4.4191,-13.1188,-28.6287,2.4423,-14.5027,-32.5900,3.1177,-5.6893
1335.9375,30.9623,24.6848,12.0956,-8.4778,-12.7574,14.0926,14.1427,-12.3504,-13.0717,12.3827,14.0415,-2.9391,-14.5345,-31.9995,5.1176,-13.3056,-35.2543,1.9905,-7.0222
1339.8438,30.8708,23.5177,12.6636,-7.4281,-12.5158,12.6354,11.6671,-10.1332,-9.1449,13.4294,16.2583,0.5803,-13.3489,-31.6683,8.1923,-11.4288,-33.2469,1.4913,-6.2179
1343.7500,30.3352,21.5877,12.8067,-4.7911,-9.6480,10.8537,12.4877,-6.7448,-6.3062,16.0746,17.9713,4.4992,-9.8266,-27.8443,10.9586,-8.6634,-26.5445,1.6952,-3.4373
1347.6562,28.7937,19.2373,12.0720,-1.9586,-5.5094,9.4552,15.9817,-3.6286,-5.4067,19.0738,18.4241,6.7876,-5.2878,-22.2512,12.9689,-5.1117,-17.1457,1.9116,0.0460
1351.5625,26.0781,16.7835,10.0570,-0.5383,-2.3028,8.8186,19.1854,-2.1764,-6.2447,20.7951,17.0005,6.1720,-1.5184,-17.0461,13.7817,-1.4986,-8.1549,1.0996,2.3980
1355.4688,22.4618,14.2559,6.6093,-1.3914,-1.6403,8.5401,18.6732,-2.8768,-7.7238,20.1487,13.5462,2.8374,0.1803,-13.5118,12.9285,1.0227,-2.1499,-1.3342,2.2382
1359.3750,18.5161,11.4097,2.0362,-4.1113,-3.4359,7.5914,12.8130,-4.9735,-8.5553,17.2554,8.6517,-1.7172,-0.2978,-11.4246,10.2990,1.5782,0.1398,-4.9576,-0.4997
1363.2812,14.9088,8.0585,-2.8387,-7.2625,-5.9398,5.1239,2.9599,-6.8836,-8.0160,13.4022,3.5908,-5.5491,-1.8801,-9.5011,6.6052,0.3076,-0.0036,-8.4445,-4.4490
1367.1875,12.2029,4.4489,-6.9148,-9.2155,-6.9413,1.3202,-7.1832,-7.1436,-6.3017,10.2807,-0.2154,-7.3249,-3.0689,-6.5446,3.3331,-1.5233,-0.3558,-10.3879,-7.5750
1371.0938,10.6541,1.2933,-9.3053,-9.0506,-5.3194,-2.4857,-13.6387,-5.2926,-4.3279,8.9784,-1.9622,-6.9380,-2.9328,-2.4220,1.9318,-2.2928,0.6956,-10.2326,-8.3747
1375.0000,10.0486,-0.6642,-9.8139,-6.9889,-1.8452,-4.6686,-14.3609,-2.1266,-3.1724,9.3744,-1.9530,-5.3778,-1.6666,1.8245,2.6951,-1.2247,3.1606,-8.6402,-6.7490
1378.9062,9.7097,-1.2496,-9.0617,-4.1420,1.3330,-4.5604,-10.2239,0.8342,-3.5238,10.3360,-1.4228,-4.0107,-0.3618,4.7480,4.2358,0.8890,5.6253,-7.0065,-3.9884
1382.8125,8.7968,-1.1109,-8.1244,-1.8035,2.1406,-3.0537,-4.2536,2.3024,-5.4220,10.5732,-1.7530,-3.7664,-0.1929,5.5044,4.1719,2.1168,6.3720,-6.4843,-1.9069
1386.7188,6.8369,-1.3149,-7.8726,-0.7646,-0.0809,-1.9537,0.3089,1.9622,-8.3569,9.5607,-3.5858,-4.7213,-1.6227,4.3236,0.7592,0.7901,4.5814,-7.2334,-1.7214
1390.6250,4.1876,-2.5077,-8.4458,-1.0476,-4.2694,-2.4883,1.8296,0.5172,-11.5947,7.8906,-6.4515,-6.2566,-4.1720,2.1420,-5.6312,-3.1211,0.7851,-8.4322,-3.4163
1394.5312,2.0475,-4.2776,-9.2239,-2.1297,-8.5131,-4.1681,0.8781,-0.9329,-14.5188,6.8185,-9.1553,-7.5841,-6.8470,-0.2219,-12.3500,-7.7557,-3.6504,-8.9959,-5.9523
1398.4375,1.8572,-5.2950,-9.3217,-3.4056,-11.3734,-5.0218,-0.6352,-1.7030,-16.8303,7.3377,-10.6251,-8.2421,-8.8457,-2.6373,-15.9330,-10.5434,-7.5167,-8.4207,-8.0875
1402.3438,4.3620,-4.2467,-8.2637,-4.5347,-12.6701,-3.1651,-1.0455,-1.9306,-18.5652,9.4436,-10.6008,-8.2693,-10.0150,-5.5299,-14.3080,-10.0180,-10.4667,-7.1175,-9.1951
1406.2500,8.9336,-0.9309,-6.3644,-5.4785,-13.2272,1.4857,-0.0882,-2.3178,-19.9799,12.1083,-9.7004,-8.0535,-10.7986,-9.2295,-8.2335,-6.9076,-12.9871,-6.0372,-9.5466
1410.1562,13.6805,3.3405,-4.5500,-6.2970,-13.9114,6.7948,1.1424,-3.4458,-21.3892,13.9703,-8.8882,-8.0699,-11.8342,-13.4226,-0.9160,-3.6444,-15.8074,-5.9455,-9.9700
1414.0625,16.4050,6.4476,-3.7511,-6.9368,-14.8077,9.7801,1.2983,-5.2078,-23.0207,14.2362,-8.8015,-8.7206,-13.5757,-17.2353,3.9897,-2.6381,-19.3109,-6.9290,-11.2272
1417.9688,15.8748,6.8746,-4.2912,-7.1978,-15.1819,8.8385,0.0482,-6.7926,-24.9189,13.1565,-9.4329,-10.2994,-16.1851,-19.9023,4.6313,-4.6225,-23.3951,-8.4632,-13.5713
1421.8750,12.6077,4.8408,-5.6829,-6.8809,-14.1857,5.0964,-1.4901,-7.2197,-26.9109,11.7684,-10.3209,-12.9424,-19.6267,-21.4397,1.9138,-8.3231,-27.7607,-9.8838,-16.7062
1425.7812,8.6311,2.2765,-6.9547,-5.9602,-11.6518,1.7342,-1.5305,-6.0090,-28.6468,11.1323,-10.9858,-16.4583,-23.7097,-22.6838,-1.4586,-11.6349,-32.2142,-10.8106,-20.0358
1429.6875,6.3271,1.5650,-7.2728,-4.6167,-8.2895,1.6752,0.9314,-3.4832,-29.7277,11.6346,-11.2037,-20.1332,-27.9463,-24.5658,-3.0898,-13.2896,-36.6006,-11.1950,-22.9252
1433.5938,7.0721,3.8710,-6.4466,-3.1064,-5.1315,5.3493,5.0880,-0.4969,-29.9021,12.8381,-10.9394,-22.7658,-31.3816,-27.1457,-2.5783,-13.6320,-40.3944,-11.0562,-24.8095
1437.5000,10.5079,8.2299,-5.0141,-1.5820,-2.7212,10.2578,8.5625,2.1687,-29.2599,13.9248,-10.1163,-23.1072,-32.7016,-29.1942,-1.5724,-13.9092,-42.3913,-10.2620,-25.2092
1441.4062,14.8551,12.0729,-3.8899,-0.0302,-0.7403,12.7217,8.8783,4.2671,-28.3109,14.3423,-8.5541,-20.5592,-30.7587,-28.7431,-2.2204,-14.7639,-40.9593,-8.6285,-23.8114
1445.3125,18.0050,12.8603,-3.8267,1.6205,1.6123,10.5164,5.1850,6.0584,-27.8528,14.1536,-6.2136,-15.6849,-25.2646,-24.3028,-5.2462,-15.3196,-34.8821,-6.2623,-20.6630
1449.2188,18.6570,9.7086,-5.0227,3.3096,4.8094,4.4099,-1.0142,7.8451,-28.6349,13.8650,-3.5355,-10.0931,-17.1554,-15.9181,-9.1429,-13.7477,-24.2870,-3.7776,-16.3232
1453.1250,16.8200,3.8998,-7.0810,4.7373,8.4358,-2.5237,-6.7530,9.4761,-30.9626,13.9248,-1.4827,-5.6483,-8.2730,-5.3242,-11.1235,-8.9136,-10.9586,-2.0836,-11.7639
1457.0312,13.4841,-2.0345,-9.2967,5.4447,11.3497,-7.2182,-9.5772,10.2510,-34.4705,14.3189,-1.0911,-3.4645,-0.4867,4.9069,-9.1452,-1.6992,2.3029,-1.8223,-7.9752
1460.9375,9.8273,-5.9624,-11.0618,5.0465,12.4475,-8.7287,-9.2243,9.3451,-38.2413,14.5707,-2.7575,-3.3651,5.1869,12.6452,-3.5076,5.2187,12.9606,-2.8841,-5.4947
1464.8438,6.5625,-7.3623,-12.1362,3.4682,11.4330,-8.5497,-7.7395,6.4658,-41.2501,14.1096,-5.7870,-4.1969,8.8738,17.0832,3.1750,9.1090,19.8680,-4.4299,-4.1950
1468.7500,3.8226,-7.3082,-12.6412,1.0332,9.0067,-9.0197,-7.8480,2.2491,-42.9033,12.6928,-8.6158,-4.7700,11.3801,18.7453,7.6460,9.1188,23.5428,-5.4564,-3.4979
1472.6562,1.5233,-7.3730,-12.8169,-1.6570,6.3593,-11.2144,-10.7135,-1.9328,-43.3419,10.5610,-9.6549,-4.7178,13.3752,18.7925,8.1454,6.8330,25.4687,-5.4873,-2.8587
1476.5625,-0.2086,-8.3664,-12.7328,-3.9799,4.3943,-14.0748,-14.7793,-4.6695,-43.3099,8.2554,-8.2322,-4.6300,14.8645,18.2228,5.5000,4.9574,26.9631,-4.8518,-2.1478
1480.4688,-0.9487,-9.8615,-12.1728,-5.5397,3.2714,-15.4354,-16.6956,-5.2750,-43.6618,6.2917,-5.0041,-5.3873,15.3293,17.4985,2.4053,5.1550,28.3916,-4.3368,-1.6422
1484.3750,-0.3134,-10.7833,-10.7983,-6.2757,2.5643,-14.0299,-13.8129,-4.1153,-44.8274,4.9553,-1.5574,-7.2658,14.3552,16.7012,1.4303,6.7794,29.1985,-4.5086,-1.6639
1488.2812,1.5695,-10.4818,-8.4938,-6.3814,1.8282,-10.7536,-6.4536,-2.2890,-46.5796,4.3217,0.5280,-9.5660,12.1831,15.8926,3.1796,7.5492,28.6039,-5.2632,-2.1938
1492.1875,3.8863,-9.3582,-5.6434,-6.0917,1.0809,-8.0946,1.8295,-0.8779,-48.2325,4.3882,0.5485,-11.0878,9.7034,15.2810,5.9177,5.6129,26.3746,-5.9567,-2.7957
1496.0938,5.4806,-8.5173,-3.0865,-5.4679,0.8260,-8.1668,6.4213,-0.2624,-49.0893,5.1271,-1.0343,-11.0633,7.8975,15.0629,6.9077,1.2939,23.0879,-5.9677,-2.9113
1500.0000,5.5479,-8.7423,-1.6947,-4.3207,1.6454,-10.9278,4.8429,0.0546,-48.7956,6.3973,-2.9761,-9.7625,7.1857,15.1386,4.5043,-2.9633,19.7420,-5.1911,-2.2611
1503.9062,4.2222,-9.6548,-1.7881,-2.3452,3.7138,-14.0272,-1.3173,1.0134,-47.3616,7.8397,-3.9750,-8.2474,7.1987,15.0165,-0.4908,-4.4630,17.0470,-4.0476,-1.0048
1507.8125,2.6270,-9.7941,-2.7786,0.5850,6.6074,-14.4292,-7.2611,3.2543,-44.9108,8.9386,-3.2830,-7.4655,7.1207,14.0290,-5.1809,-2.4546,14.9301,-3.0387,0.4576
1511.7188,2.2960,-7.6201,-3.3445,4.1411,9.5137,-10.5621,-8.1712,6.5633,-41.4457,9.2898,-0.9285,-7.4446,6.2815,11.7068,-6.4161,1.1393,12.5864,-2.2833,1.8383
1515.6250,4.2856,-2.6987,-2.1201,7.4962,11.6527,-3.3765,-2.5280,9.8804,-36.8952,8.8975,2.4337,-7.2913,4.5116,8.0298,-2.8847,3.0988,9.0104,-1.4695,3.1252
1519.5312,8.5200,3.8419,1.4762,9.6291,12.6200,4.4121,6.8409,11.8825,-31.4314,8.2421,5.8570,-6.0231,2.0385,3.4048,3.9576,1.3360,3.6443,-0.2612,4.4071
1523.4375,13.7790,9.9531,6.7980,9.8683,12.4919,10.2116,14.7776,11.7805,-25.7501,8.0122,8.4572,-3.5408,-0.8716,-1.5439,10.7392,-3.5201,-3.2435,1.2435,5.5531
1527.3438,18.3410,13.9476,12.2298,8.3639,11.7243,13.1070,17.4306,9.8315,-20.9655,8.6605,9.7160,-0.8850,-4.1106,-6.1668,14.2381,-8.6050,-10.6197,2.4699,6.1115
1531.2500,20.8885,15.4917,16.0313,6.1477,10.9641,14.0107,14.8552,7.2351,-18.0536,10.1010,9.6899,0.5089,-7.5528,-9.8469,13.3070,-10.9512,-17.0973,2.8373,5.6179
1535.1562,21.1261,15.6139,17.2661,4.6516,10.8431,14.5184,10.6779,5.4654,-17.1773,11.7648,9.0349,-0.0064,-10.7053,-12.0032,9.4296,-9.5846,-21.4598,2.3433,4.1103
1539.0625,19.7604,15.7902,16.2482,4.9087,11.7516,15.5388,9.1295,5.4382,-17.4138,12.9534,8.7383,-1.6475,-12.6196,-12.1994,5.6077,-5.9999,-23.0701,1.7057,2.3839
1542.9688,17.9030,16.8333,14.2512,6.9169,13.6124,16.7721,11.7345,7.0179,-17.1866,13.2100,9.5890,-2.6895,-12.3068,-10.3980,4.3662,-2.7748,-22.0353,1.8538,1.6576
1546.8750,16.3190,18.3994,12.6921,9.5973,15.7714,17.2748,16.1957,9.1571,-15.2028,12.4469,11.6379,-1.7682,-9.4408,-7.1897,6.1956,-1.5467,-19.0994,3.1364,2.7827
1550.7812,15.0126,19.3961,12.3152,11.4191,17.1630,16.4337,18.3173,10.5666,-11.2873,10.8079,14.0235,1.0141,-4.8011,-3.7391,9.4088,-1.9775,-15.3202,4.9136,5.5452
1554.6875,13.3853,18.8734,12.8574,11.3129,16.7742,14.4468,15.4615,10.4866,-6.5275,8.4720,15.3788,4.0769,-0.0305,-1.3527,11.4210,-2.4138,-11.6576,5.9346,8.6234
1558.5938,10.8006,16.6668,13.3317,9.2790,14.1940,11.9782,8.8332,9.0753,-2.5986,5.6209,14.6506,5.4980,3.2076,-0.8706,10.5383,-1.5261,-8.6501,5.2591,10.3115
1562.5000,7.1270,13.3469,12.6765,6.2912,9.8865,9.4413,2.7803,7.1951,-0.7242,2.5766,11.8150,4.4360,4.1007,-2.2737,7.0507,0.5200,-6.3406,3.0011,9.5413
1566.4062,2.8826,9.6398,10.3465,3.5803,4.9490,6.6586,1.5904,5.7728,-0.9841,-0.1031,7.9756,1.7374,2.9682,-4.7889,2.9401,2.2964,-4.4922,0.2730,6.4889
1570.3125,-1.0840,5.8980,6.5368,1.8166,0.4603,3.2303,6.2008,5.1857,-2.4234,-1.7890,4.7214,-0.7366,0.7811,-7.4283,0.4619,2.4320,-2.9559,-1.6566,2.3502
1574.2188,-4.1009,2.0910,2.0095,0.7734,-3.1492,-0.7654,13.3239,5.0862,-3.8274,-2.1687,3.1509,-1.5230,-1.6560,-9.5834,0.5972,0.8046,-1.9288,-2.3258,-1.5095
1578.1250,-5.9815,-1.7270,-2.2830,-0.3138,-6.2508,-4.4528,17.6662,4.7616,-4.5583,-1.5490,3.2311,-0.5981,-4.1933,-11.2575,2.4245,-1.4175,-1.8912,-2.3740,-4.3765
1582.0312,-6.9420,-4.9708,-5.5464,-1.9952,-9.5696,-6.5912,15.5999,3.7418,-4.8497,-0.7422,3.9310,0.7419,-7.1291,-12.8033,3.8121,-2.8474,-3.2315,-2.9107,-6.3875
1585.9375,-7.2594,-6.6006,-7.3369,-4.0583,-13.4632,-6.4477,7.6106,2.2024,-5.4056,-0.5177,4.0133,1.0151,-10.5459,-14.4153,2.9286,-3.0641,-5.8158,-4.4624,-8.0382
1589.8438,-7.0035,-5.7670,-7.6016,-5.6121,-17.4763,-4.3780,-2.1745,0.8646,-6.6904,-1.0029,2.8975,-0.2401,-13.8225,-15.8032,-0.4698,-2.8539,-8.8453,-6.3713,-9.4868
1593.7500,-6.0838,-2.5450,-6.6215,-5.7451,-20.5221,-1.6156,-8.8672,0.4640,-8.5006,-1.5417,0.9845,-2.1460,-15.8159,-16.3185,-4.8471,-3.3388,-11.1718,-7.1761,-10.2750
1597.6562,-4.5426,1.8643,-4.8917,-4.2555,-21.5677,0.5670,-9.9044,1.1822,-10.1403,-1.2006,-0.7333,-3.2681,-15.6346,-15.4365,-7.9008,-4.8235,-11.9224,-5.7191,-9.7068
1601.5625,-2.7787,5.7101,-2.9543,-1.8914,-20.3132,1.6521,-6.1882,2.4620,-11.0173,0.4259,-1.4189,-2.8225,-13.4040,-13.2196,-8.0758,-6.4317,-11.0366,-2.1261,-7.5575
1605.4688,-1.4153,7.6889,-1.2233,0.0925,-17.3626,2.0258,-0.7719,3.3545,-11.1475,2.7696,-0.9144,-1.3190,-10.3790,-10.4010,-5.5498,-6.8835,-9.3461,2.1163,-4.4894
1609.3750,-0.8362,7.6686,0.1233,0.7489,-13.7762,2.4513,3.5656,3.1612,-11.1631,4.6292,0.2964,-0.1462,-8.2462,-8.0156,-2.0513,-5.7240,-8.1141,5.0741,-1.7817
1613.2812,-0.7545,6.6370,1.1214,0.0447,-10.3667,3.3851,5.8922,1.9182,-11.8382,5.0934,1.5484,-0.4671,-8.0834,-6.8303,0.3198,-3.8819,-8.3107,5.6019,-0.5366
1617.1875,-0.2364,5.9467,1.8911,-1.1515,-7.2715,4.7107,6.8612,0.3836,-13.5285,4.3192,2.4386,-2.3240,-9.7126,-6.9524,0.4250,-2.9994,-10.0736,4.0106,-0.9540
1621.0938,1.7098,6.4284,2.5098,-1.6589,-4.0950,6.0226,7.2757,-0.4604,-15.9578,3.4864,2.9140,-4.6361,-11.8930,-7.8445,-1.3224,-4.0444,-12.6783,1.7350,-2.2241
1625.0000,5.3392,7.9862,2.9945,-0.7148,-0.4557,7.0869,7.0302,-0.0382,-18.4644,3.8957,3.0506,-6.0302,-13.1836,-8.6932,-3.4412,-6.3729,-15.0077,0.3226,-3.1152
1628.9062,9.7661,9.8744,3.3932,1.6404,3.5292,7.9987,5.4370,1.4887,-20.4492,5.9050,2.8578,-5.8024,-12.8435,-8.8689,-4.4953,-8.0770,-16.2078,0.5182,-2.8130
1632.8125,13.3347,11.3302,3.8607,4.7145,7.2096,8.9091,2.5164,3.4004,-21.6521,8.5937,2.3751,-4.2747,-11.1723,-8.2113,-3.9918,-7.4015,-16.1344,2.0424,-1.4049
1636.7188,14.5906,12.0284,4.5821,7.6522,9.8271,9.6565,-0.1651,4.9494,-22.0992,10.4855,1.9661,-2.3621,-9.1496,-7.0319,-2.4555,-4.1268,-15.3669,4.0630,0.2913
1640.6250,13.1995,12.0558,5.5496,9.8728,11.0410,9.7333,-0.1953,5.8510,-21.8951,10.7721,2.4154,-0.8094,-7.7362,-5.8997,-0.7510,0.1758,-14.8399,5.8501,1.3545
1644.5312,10.1525,11.5521,6.3787,11.1932,11.1388,8.6776,3.7592,6.3927,-21.1557,10.0019,4.5252,0.2369,-7.3654,-5.3609,0.7010,3.2118,-15.3462,7.0815,1.3352
1648.4375,7.0914,10.4301,6.3945,11.6647,10.7808,6.5273,10.3658,7.1153,-20.1857,9.5875,8.3565,1.0272,-7.9093,-5.7159,2.1438,3.5209,-17.1705,7.6809,0.3881
1652.3438,5.2375,8.4658,5.0439,11.3629,10.5019,3.8719,15.9055,8.3280,-19.6828,10.4716,12.7016,1.6603,-8.9938,-6.9082,3.9971,1.3516,-19.9867,7.5130,-1.0348
1656.2500,4.7058,5.6707,2.4030,10.3470,10.3644,1.4077,16.5607,9.8312,-20.6274,12.0745,15.3800,1.7622,-10.3032,-8.5303,6.1568,-1.7239,-22.9863,6.3458,-2.5858
1660.1562,4.6827,2.5691,-0.6108,8.7978,10.0186,-0.6038,11.1847,11.0496,-23.7466,12.5210,14.4102,0.7279,-11.6155,-9.9317,7.7822,-4.0350,-25.1258,4.1615,-4.1561
1664.0625,4.2762,0.0679,-2.5729,7.1602,9.0990,-2.4422,2.4629,11.4753,-28.8647,10.1275,9.4001,-1.6640,-12.6073,-10.3956,7.8563,-4.8770,-25.3874,1.4948,-5.6684
1667.9688,3.3235,-1.0469,-2.3082,6.0977,7.6353,-4.4649,-4.5641,11.0848,-34.6762,5.0200,2.1757,-4.8066,-12.6891,-9.3285,6.1053,-4.6627,-23.0047,-0.6126,-6.7742
1671.8750,2.4953,-0.6151,0.3912,6.2241,6.1624,-6.5210,-5.7115,10.4157,-39.2706,-0.5129,-3.9458,-7.4167,-11.1017,-6.3992,3.4685,-4.2191,-17.6424,-1.1394,-6.7925
1675.7812,2.6256,0.7904,4.5715,7.7648,5.4451,-7.8777,-0.3683,10.2209,-41.1864,-3.4254,-5.9388,-8.2300,-7.2717,-1.5972,1.6048,-3.9401,-9.5197,0.2552,-5.0156
1679.6875,3.8536,2.2461,8.6002,10.3631,6.0051,-7.8577,8.1889,10.9223,-40.3150,-2.1559,-2.8354,-6.7522,-1.2034,4.7624,1.7029,-3.5109,0.5552,2.9614,-1.1952
1683.5938,5.3444,3.0644,11.0195,13.1617,7.7525,-6.6685,15.0671,12.2322,-37.9894,2.0227,3.6729,-3.5302,6.3565,12.0389,3.5060,-2.3436,11.2789,5.7917,4.1469
1687.5000,5.8943,3.1609,11.2314,15.1227,9.9411,-5.5834,16.9625,13.2150,-36.1298,5.7285,10.2287,0.2265,14.0976,19.2693,5.4021,-0.2563,21.0938,7.7509,9.8293
1691.4062,4.9822,2.9804,9.6357,15.4393,11.4667,-6.0899,14.0602,12.7869,-35.9939,5.9032,13.7906,3.3873,20.5799,25.2530,5.6336,2.2172,28.5475,8.6435,14.5045
1695.3125,3.4037,3.1200,7.2542,13.8725,11.3523,-8.5491,9.4444,10.3693,-37.3825,2.1967,13.3594,5.5003,24.7206,28.8101,3.7600,4.1252,32.6821,9.0904,17.2550
1699.2188,2.8919,3.9891,5.2048,10.8951,9.1968,-11.5024,6.6637,6.3093,-38.8351,-2.5475,10.3971,6.9026,26.1433,29.2015,1.2101,4.7297,33.3237,9.9895,17.9699
1703.1250,4.9035,5.7382,4.3796,7.5856,5.3997,-12.4131,7.3266,1.8072,-38.6477,-4.2024,7.7600,8.3552,25.2765,26.5213,0.3920,3.9834,31.1347,11.8623,17.3352
1707.0312,9.4367,8.3946,5.3880,5.2712,1.0664,-9.5065,10.3769,-1.6296,-35.9786,-0.3463,7.9061,10.4944,23.1722,21.7866,2.9479,2.5553,27.3654,14.5637,16.4824
1710.9375,14.7837,11.9427,8.5411,5.0022,-2.3847,-3.3584,13.3145,-2.9155,-31.2986,7.8588,11.5235,13.4361,21.0896,16.5665,8.4604,1.4687,23.3656,17.4923,16.4843
1714.8438,18.4691,16.1796,13.6584,7.0486,-3.7730,3.1121,14.2051,-1.9118,-25.9658,16.3144,17.3420,16.7101,19.9724,12.2827,14.6349,1.6165,20.0571,20.0342,17.9096
1718.7500,18.7519,20.4618,19.7706,10.6774,-2.6369,6.4508,12.9133,0.5236,-21.3401,20.7091,23.0738,19.5007,20.0362,9.5750,18.8650,3.3732,17.6255,21.8442,20.5935
1722.6562,15.6629,23.6707,25.0831,14.3972,0.5824,5.0501,10.7963,2.9729,-18.1157,19.3393,26.7483,21.0470,20.6903,8.1279,20.0039,6.3860,15.5964,22.7877,23.7058
1726.5625,10.8923,24.6221,27.5230,16.6251,4.7610,0.3142,9.3525,4.1382,-16.2672,14.0060,27.5942,21.0168,20.8794,7.0604,18.9893,9.5877,13.2510,22.7083,26.1005
1730.4688,6.6774,22.7740,25.7696,16.4545,8.6099,-4.3387,9.0452,3.4117,-15.4702,8.4482,26.0596,19.6776,19.6884,5.5875,17.8690,11.5179,10.1274,21.3363,26.8256
1734.3750,4.5138,18.7564,20.1776,14.0789,11.2143,-5.9372,9.2036,1.0663,-15.5015,5.6011,23.1811,17.7580,16.8574,3.4739,18.0521,10.9769,6.2963,18.4837,25.5678
1738.2812,4.5426,14.2517,12.8856,10.6027,12.3056,-4.0221,8.9169,-1.9837,-16.2462,5.7563,19.8718,16.0303,12.8864,0.9856,19.2264,7.7808,2.2581,14.3659,22.7973
1742.1875,5.8771,11.1646,6.8473,7.3483,12.1571,-0.7466,8.0261,-4.6793,-17.3696,6.8830,16.6036,14.8394,8.6742,-1.5340,19.8155,3.1142,-1.4250,9.7275,19.5081
1746.0938,7.4336,10.5477,4.2676,5.1110,11.2429,1.0231,7.3137,-6.2911,-18.0659,6.6465,13.5683,13.9065,4.9730,-4.0277,18.5564,-0.9589,-4.4577,5.5990,16.6797
1750.0000,8.5638,11.9889,5.4081,3.8465,9.9325,0.0653,7.7378,-6.6488,-17.2504,4.4113,11.0251,12.6165,2.0637,-6.6590,15.8154,-2.7322,-6.8444,2.8212,14.7732
1753.9062,9.1071,13.9084,8.5558,2.9611,8.4140,-2.2639,9.3925,-6.0630,-14.1548,1.6736,9.4597,10.6546,-0.1315,-9.3618,13.4536,-2.0655,-8.6239,1.6786,13.5702
1757.8125,9.0493,14.6069,11.1814,1.9297,6.8145,-3.2350,11.1296,-5.0513,-8.8879,0.7240,9.3946,8.5197,-1.6594,-11.4539,13.2755,-0.5738,-9.5686,1.8910,12.4398
1761.7188,8.2772,13.3881,11.5082,0.7393,5.3138,-1.0651,11.2477,-4.0532,-2.4894,2.7486,11.0055,7.4235,-2.2734,-11.7910,15.3321,-0.4194,-9.1665,2.9174,10.8284
1765.6250,6.7234,11.0096,9.4512,-0.1801,4.0752,3.5593,8.7876,-3.2803,3.6168,6.9211,13.8705,8.4959,-1.5931,-9.5143,17.5650,-2.4455,-6.9864,4.2930,8.6217
1769.5312,4.7178,9.1677,6.3687,-0.4402,3.0278,7.9900,4.4487,-2.7356,8.3802,11.1147,17.0836,11.8009,0.4091,-4.8901,17.2237,-5.1255,-3.1852,5.7461,6.1464
1773.4375,3.0791,9.3636,3.9208,-0.1480,1.7342,9.7142,0.3660,-2.3327,11.5299,13.5158,19.6879,15.9551,3.0379,0.4670,13.0156,-5.4157,1.2611,7.0894,3.8660
1777.3438,2.6803,11.8981,2.9247,0.0978,-0.4350,8.3011,-1.2019,-2.0092,13.3492,13.7653,21.1356,18.8029,5.0445,4.3275,6.2738,-1.1763,4.8742,8.0984,2.0521
1781.2500,3.7323,15.6322,2.9961,-0.2981,-3.8398,5.6097,0.5810,-1.7630,14.0661,12.7841,21.4470,18.8125,5.3491,5.1615,0.1481,6.5882,6.4228,8.5720,0.7015
1785.1562,5.3904,18.6336,3.1080,-1.3428,-8.1251,4.1207,4.4208,-1.6102,13.4162,11.6181,20.9527,16.2031,3.8370,3.1495,-2.6029,13.6145,5.6413,8.5394,-0.2672
1789.0625,6.1213,19.2684,2.5100,-2.2994,-12.1690,4.8065,7.5738,-1.5180,10.7874,10.4343,19.8169,12.8813,1.5960,0.1286,-1.5096,14.9272,3.4229,8.3660,-0.7605
1792.9688,4.6728,17.0562,1.2648,-2.1572,-14.5679,6.3142,7.5431,-1.3728,5.8484,8.5500,17.7324,11.1018,0.3208,-1.5619,1.4878,8.4947,1.3238,8.5538,-0.4678
1796.8750,0.9502,12.8149,0.0574,-0.4066,-14.4051,6.1378,3.7314,-1.0152,-0.8742,5.3727,14.0863,11.7813,1.2260,-0.5742,3.7199,-2.6986,0.6774,9.3147,0.8924
1800.7812,-3.8919,8.0943,-0.4439,2.4897,-11.8016,2.8024,-2.0273,-0.3240,-8.0040,1.2760,8.5616,13.7666,4.2227,2.6422,3.8455,-11.9922,1.8791,10.2670,3.2409
1804.6875,-8.2464,4.3165,-0.0832,5.3473,-7.8580,-2.7334,-6.4421,0.7053,-13.9902,-2.4786,1.7687,14.7090,7.9584,6.2693,2.6068,-13.2173,4.2770,10.5891,6.0252
1808.5938,-11.1297,2.1551,0.8136,7.0996,-4.0003,-7.5998,-6.6862,1.9470,-17.9904,-4.7561,-4.6137,12.9579,10.7115,8.4441,1.7563,-4.9036,6.6883,9.6205,8.4695
1812.5000,-12.6883,1.4538,1.8706,7.6158,-1.1568,-9.0319,-2.0953,3.2218,-20.3007,-5.5612,-8.4506,9.0217,11.5080,8.5145,2.2005,8.5153,8.1567,7.4875,10.0277
1816.4062,-13.7487,1.6142,3.0243,7.8593,0.6950,-6.2814,5.3975,4.4265,-22.0022,-6.0495,-8.2645,5.3879,10.6704,7.3519,3.0611,19.5011,8.4496,5.2291,10.6967
1820.3125,-14.8242,2.1001,4.4527,9.2174,2.3339,-0.9863,12.3455,5.6235,-24.0820,-7.4079,-4.1858,4.7257,9.4406,6.5645,2.5127,22.3265,8.0183,4.2205,10.9409
1824.2188,-15.4665,2.6960,6.1464,12.4497,4.6232,4.1312,15.6967,6.9951,-26.6929,-9.5433,1.9259,7.7868,8.9919,7.2446,-0.3442,16.6578,7.5199,5.2378,11.2804
1828.1250,-14.5745,3.3846,7.5604,17.0011,7.8324,7.0561,14.3360,8.6402,-29.1055,-10.8006,7.3699,12.6286,9.5638,9.1665,-4.2943,7.3256,7.2641,7.8284,11.8632
1832.0312,-11.4520,4.0129,7.7398,21.1797,11.3867,7.3330,9.3567,10.3205,-30.3754,-9.1257,10.0160,15.8256,10.3176,10.9583,-6.6810,0.6140,6.9425,10.4817,12.3434
1835.9375,-6.7120,4.0860,5.9052,23.0947,14.1604,5.5260,3.0299,11.3527,-30.2008,-3.8284,9.3649,14.8144,9.9559,11.0394,-5.4993,-0.0983,5.7820,11.5270,12.1450
1839.8438,-2.1665,2.9387,2.0620,21.7330,15.0861,2.0951,-2.7001,10.8126,-29.3006,3.5246,6.5890,9.6382,7.6202,8.6173,-1.1605,3.8066,3.0010,10.1581,10.8886
1843.7500,0.3643,0.2444,-2.8537,17.4903,13.7009,-3.0614,-7.1203,8.0310,-29.0057,9.9575,3.5705,2.8137,3.4514,4.0931,3.6382,7.9329,-1.6928,6.8947,8.6561
1847.6562,0.4653,-3.4835,-7.4248,11.8709,10.3529,-9.9098,-10.5208,3.1266,-30.3442,13.1451,1.6486,-2.5130,-1.4928,-1.2790,5.9287,8.5542,-7.8150,3.2032,5.9251
1851.5625,-0.3793,-6.8289,-10.4691,6.6244,6.0176,-17.1832,-13.2160,-2.8020,-33.2755,13.1039,0.9669,-4.6669,-5.8093,-6.1249,4.7263,5.2524,-14.1686,0.5952,3.2708
1855.4688,0.2815,-8.0460,-11.5160,2.8881,1.8616,-22.1930,-14.7810,-8.0650,-36.6247,12.1333,0.8272,-4.2310,-8.3939,-9.5659,1.6213,0.6103,-19.2530,-0.1609,1.0868
1859.3750,4.1021,-6.0344,-10.7791,0.8024,-1.2479,-22.1660,-14.2521,-11.2346,-38.7761,12.9805,0.6639,-3.0648,-8.8169,-11.4300,-0.7835,-2.4426,-21.8728,0.7590,-0.4986
1863.2812,10.6339,-1.1315,-8.7876,-0.3049,-3.1009,-16.3083,-11.1793,-11.9839,-38.6672,16.6351,0.7689,-2.5150,-7.3495,-12.1114,-1.1881,-3.1915,-21.6864,2.6141,-1.5361
1867.1875,17.4867,4.8515,-6.0687,-1.4065,-4.2280,-6.9248,-6.5968,-11.3357,-36.4363,21.5000,2.1154,-2.3497,-4.7614,-12.2935,-0.5583,-3.4289,-19.4007,4.6633,-2.1535
1871.0938,21.8860,9.4978,-3.1178,-3.2591,-5.6273,1.5771,-2.9001,-11.0546,-33.3286,24.6164,5.3999,-1.2349,-2.0320,-12.6789,-0.8051,-5.3630,-16.4359,6.4924,-2.5415
1875.0000,22.5041,11.1118,-0.5291,-6.0812,-8.1850,5.3667,-2.4329,-12.4711,-30.9471,23.9858,10.1270,1.7818,-0.0294,-13.7233,-2.3552,-9.1037,-14.1566,7.9810,-2.9725
1878.9062,20.2318,9.6956,1.0471,-9.4497,-12.0238,3.6923,-5.6872,-15.4659,-30.3308,20.1447,14.6088,6.1542,0.8117,-15.3679,-2.9624,-12.0376,-13.0644,9.1086,-3.7136
1882.8125,17.3611,6.9274,1.2775,-12.3807,-16.1558,-0.6919,-10.5217,-18.3266,-31.4077,15.7377,17.0426,10.1003,0.7132,-16.8896,0.8023,-10.7679,-12.4570,9.8685,-4.7944
1886.7188,15.8441,5.1166,0.6013,-13.5893,-18.7444,-3.5896,-13.2040,-18.6654,-33.1101,13.4359,16.9083,12.0265,0.5080,-17.0773,10.3111,-4.0670,-10.8364,10.3573,-5.7856
1890.6250,15.9522,5.7893,0.2883,-11.9295,-17.9594,-2.4366,-10.7603,-14.8758,-34.0399,13.8686,15.5507,11.8685,1.2512,-14.8006,22.6331,5.6458,-6.8807,10.8676,-5.8318
1894.5312,16.3006,8.8165,1.8307,-6.9137,-12.9971,1.9041,-3.0414,-7.2000,-33.2762,15.2122,15.3390,11.1604,3.6448,-9.7221,31.5888,13.6519,-0.3740,11.7796,-4.0380
1898.4375,15.1168,12.6326,5.9522,0.9316,-4.6421,5.9658,7.0164,2.3118,-30.8725,14.7367,17.8945,11.7390,7.6317,-2.6772,31.8380,16.1721,7.5386,13.2589,-0.0176
1902.3438,11.7005,15.3452,11.9400,10.1268,5.0395,6.4588,15.2203,10.9442,-27.7927,11.0379,22.6836,14.1674,12.4524,4.6253,23.0525,13.0227,14.9785,15.0045,5.7762
1906.2500,6.9408,15.9400,17.8904,18.7749,13.7372,2.8481,18.8008,16.8154,-25.3487,5.1599,27.1164,17.2199,17.1378,10.4790,10.7433,7.6533,20.4291,16.3145,12.2071
1910.1562,2.5678,14.7611,21.8186,25.3200,20.0251,-2.2473,18.0495,19.7473,-24.4739,-0.2613,28.2159,18.8717,21.0619,14.0698,2.6791,4.5826,23.5349,16.4878,18.0217
1914.0625,-0.1764,13.0127,22.8873,29.0980,23.8573,-5.1037,15.7729,20.9717,-25.2465,-3.0874,24.7093,17.9562,24.1167,15.7555,3.3222,6.2325,25.0411,15.2797,22.4267
1917.9688,-1.3480,11.7459,21.8503,30.3638,26.1501,-3.7598,15.0351,21.9579,-26.9269,-3.2835,18.0026,15.0862,26.3870,16.5383,10.5114,11.5144,25.9543,13.0456,25.2760
1921.8750,-1.9893,11.1307,20.3522,29.8392,27.8225,0.5294,16.9101,23.2507,-28.4688,-2.7593,11.2660,12.0684,27.6543,17.1517,17.1059,17.0299,26.5995,10.4481,26.7845
1925.7812,-3.0350,10.5281,19.6070,28.1565,29.0466,4.3454,19.9039,24.1522,-29.1720,-3.6393,7.2569,10.3350,27.2561,17.4873,16.5110,19.7040,26.3355,7.9667,27.0875
1929.6875,-4.4072,9.2200,19.4851,25.6093,29.2641,4.7941,21.3770,23.4244,-29.0462,-6.4357,6.4675,9.7591,24.5475,16.8187,7.8715,18.7113,24.1698,5.6249,26.0806
1933.5938,-5.0659,7.1473,18.7448,22.3393,27.8934,1.7122,19.7607,20.4169,-28.6389,-9.6413,6.9671,8.8837,19.6616,14.6188,-3.1590,15.3773,19.7843,3.1658,23.7110
1937.5000,-3.9559,5.0484,16.2464,18.7001,25.0920,-2.2962,15.7978,15.7276,-28.4456,-11.0505,6.0441,6.3683,13.9008,11.2599,-8.7665,11.5154,14.1203,0.5198,20.4397
1941.4062,-1.0296,3.9152,12.1781,15.3903,21.8875,-3.9583,11.8871,10.8867,-28.3313,-9.6682,2.4050,2.3854,9.2744,7.9570,-5.0749,7.8749,8.9777,-1.8648,17.3769
1945.3125,2.5360,4.2563,8.2693,13.1573,19.5129,-1.8800,10.1449,7.3195,-27.4121,-6.5803,-2.7224,-1.2752,7.3483,5.9334,4.8232,4.0461,5.8549,-3.1519,15.8132
1949.2188,5.1413,5.7972,6.7310,12.2759,18.4559,2.4409,10.8022,5.4023,-24.5398,-4.0382,-6.3918,-2.5402,8.1822,5.4556,13.3392,-0.2963,4.8755,-2.6446,16.3906
1953.1250,5.9499,7.8517,8.6759,12.2585,18.0072,5.8778,12.2228,4.3370,-19.0845,-3.5104,-6.0156,-0.7216,10.1831,5.5418,14.4148,-4.1980,4.6330,-0.2902,18.5393
1957.0312,5.5054,10.0126,13.2152,12.1114,16.7328,6.1707,12.4662,2.9304,-11.4585,-4.3459,-1.1515,2.8988,11.0876,4.6430,8.2800,-5.6146,3.1165,3.2610,20.6967
1960.9375,5.2817,12.5265,17.9556,11.0222,13.5642,3.6891,11.0419,0.6542,-2.9777,-4.2168,6.2916,6.0957,9.4435,1.8152,1.1079,-3.0222,-0.9248,7.1049,21.2650
1964.8438,6.5239,15.9893,20.5635,8.9812,8.6854,1.1103,9.3594,-1.8496,4.8767,-1.0490,13.4821,7.4945,5.5503,-2.5136,-0.1695,2.8987,-7.1454,10.6799,19.6669
1968.7500,9.2956,20.5978,20.2577,6.8413,3.5167,1.3015,9.4708,-3.2190,11.2781,5.1006,18.5632,7.6305,1.1871,-6.7843,6.3142,9.0929,-13.8549,14.0196,16.7289
1972.6562,12.4588,25.6117,18.1522,5.7336,-0.2238,5.0593,12.1367,-2.4304,16.3569,11.7773,21.5852,8.3729,-1.6559,-9.3735,15.6516,11.8971,-19.1065,17.4619,14.0828
1976.5625,14.5592,29.5524,16.2518,6.2509,-1.6895,10.4301,15.8439,0.3512,20.7591,15.7773,23.8831,11.1925,-2.0959,-9.6655,20.0355,9.5516,-21.7851,21.0747,13.0079
1980.4688,14.8764,31.0734,15.9101,8.0138,-1.4288,14.0869,17.6743,3.7859,24.8013,15.4843,26.5524,15.7435,-0.7767,-8.3174,15.1512,3.5627,-21.9446,24.3126,13.5565
1984.3750,13.8066,29.8618,16.9174,9.9431,-0.8820,13.6807,15.4431,6.2296,27.8870,12.0856,29.3257,19.9771,0.8403,-6.5659,3.9304,-2.1810,-20.2916,26.2272,14.5943
1988.2812,12.3233,26.8507,17.8376,11.0247,-1.2522,9.3971,9.4777,6.8098,28.6734,8.6952,30.7327,21.7205,1.6815,-5.1851,-5.4369,-3.9464,-17.3853,26.0882,14.6857
1992.1875,11.0200,23.5345,17.2285,10.9777,-2.6153,3.6192,2.6312,5.9176,25.9138,8.0203,29.3232,20.4067,1.7911,-3.9527,-5.7549,-0.5253,-13.2764,23.9096,13.1241
1996.0938,9.5629,20.8811,14.7309,10.3277,-3.9246,-0.9403,-1.5549,4.7980,19.3747,10.3260,24.8803,17.4945,2.0623,-2.0307,3.5635,6.2028,-7.8557,20.4358,10.3337
2000.0000,7.0204,18.6729,11.2034,9.8715,-3.8600,-3.1531,-1.2256,4.5996,10.1525,13.2289,18.6184,15.2015,3.2732,1.1082,15.9467,12.7555,-1.5190,16.5820,7.3934
2003.9062,2.7939,15.7974,7.9000,9.9978,-1.8394,-4.0017,2.5874,5.6246,0.1441,13.4615,12.2480,14.5965,5.2815,5.0198,22.6013,16.3372,4.5393,12.7786,5.1300
2007.8125,-2.6277,11.2778,5.4548,10.4229,1.5764,-5.4101,6.7780,7.3064,-8.9466,9.2797,6.7430,14.6561,7.0542,8.4711,19.0471,16.2646,8.7816,8.7642,3.5354
2011.7188,-7.7371,5.2579,3.5306,10.5338,5.1400,-8.3845,8.3596,8.8417,-16.3600,1.7515,1.8555,13.1125,7.4844,10.3240,8.1645,13.7143,10.2531,4.0129,1.9459
2015.6250,-10.8964,-0.8275,1.3742,10.0165,7.8172,-11.9640,6.4568,9.9013,-22.2952,-5.9595,-3.2479,8.4347,6.2925,10.3893,-2.4898,10.3370,9.2543,-1.5441,-0.2267
2019.5312,-11.3851,-5.0549,-1.2723,9.2104,9.4066,-13.8140,2.7319,10.8286,-27.2728,-10.7072,-8.8271,1.3231,4.2484,9.5396,-6.7964,7.0269,7.1829,-7.1039,-2.8761
2023.4375,-9.8281,-6.2240,-3.7464,8.8638,10.4378,-12.0119,0.0520,12.1974,-31.4235,-11.3117,-13.9384,-5.5424,2.5327,8.9852,-4.6997,3.7616,5.6017,-11.2672,-5.2308
2027.3438,-7.6986,-4.6147,-4.9313,9.4816,11.5156,-6.6520,0.4227,14.1430,-34.2941,-9.0193,-16.9315,-9.3608,1.7731,9.3035,-1.7671,0.3677,5.1966,-12.8548,-6.4990
2031.2500,-6.2895,-1.7699,-4.2324,10.8204,12.7073,-0.0293,3.6288,16.0674,-35.3035,-6.3260,-16.7112,-9.2366,1.5549,10.0138,-4.2269,-2.7198,5.3887,-11.6860,-6.5562
2035.1562,-5.9182,0.5185,-2.2168,11.9882,13.4866,4.7764,7.4361,16.9952,-34.4276,-5.1780,-13.7298,-6.7877,0.8093,10.0342,-13.5961,-4.5142,4.8717,-8.7433,-6.0644
2039.0625,-5.9047,1.3043,-0.3233,12.1180,13.2458,5.9084,9.1117,16.3111,-32.4904,-5.8704,-9.8624,-4.8620,-1.2391,8.6362,-25.1962,-4.3187,2.6487,-5.5883,-5.8926
2042.9688,-5.2503,0.9558,0.1865,11.0938,11.9055,3.8976,7.2078,14.2788,-30.7493,-7.2709,-7.2029,-5.3684,-4.3322,6.1096,-31.6499,-2.5409,-1.2085,-3.4219,-6.3160
2046.8750,-3.4334,0.7745,-0.7822,9.7324,10.0759,1.1789,2.4932,11.9052,-30.0448,-7.9484,-6.6807,-7.8862,-7.2364,3.5960,-28.4961,-0.6480,-5.6136,-2.4157,-6.6790
2050.7812,-0.7100,2.1214,-2.0247,9.2280,8.6177,0.3523,-2.4612,10.2328,-30.1547,-7.1969,-7.5271,-10.0680,-8.5442,2.2228,-17.5052,-0.1708,-9.2352,-1.7258,-5.8424
2054.6875,2.2446,5.6553,-1.8881,10.2506,7.9616,2.4620,-4.7154,9.6040,-29.8747,-5.2197,-7.9406,-9.4479,-7.5889,2.2303,-5.2382,-1.5159,-11.3623,-0.1172,-3.0834
2058.5938,4.9908,11.0960,0.5465,12.3861,7.7578,6.4890,-2.5643,9.4670,-27.8099,-2.5387,-6.3719,-5.2311,-4.7814,2.7773,1.8395,-3.5781,-12.2297,3.2541,1.2735
2062.5000,7.7000,17.5026,4.8605,14.3654,7.1581,10.3181,3.5476,8.8683,-23.3396,0.6772,-2.4332,1.2498,-1.1651,2.5647,1.8419,-4.5359,-12.6207,8.3926,6.0251
2066.4062,10.9450,23.7511,9.7033,14.9396,5.5145,12.3560,11.2399,7.2381,-17.0970,4.7017,3.1655,7.6223,2.4046,0.7835,-1.7374,-3.2707,-13.1242,14.5493,9.9468
2070.3125,15.0846,28.8941,13.8233,13.7601,2.9312,12.5630,17.3979,4.8461,-10.6654,9.7010,9.4106,12.1500,5.7917,-2.3303,-3.1568,-0.3188,-13.6432,20.6770,12.6645
2074.2188,19.7512,32.2977,16.8604,11.6139,0.2190,12.1857,19.7387,2.5767,-5.7469,15.1052,15.7136,14.7073,9.4423,-5.7094,1.2006,2.4171,-13.5056,25.9050,14.8349
2078.1250,23.8638,33.6567,19.2783,9.8475,-1.7202,12.5181,17.9346,1.2121,-3.3801,19.5634,21.9497,16.4397,13.7545,-8.2130,10.5275,3.0521,-12.0386,29.7681,17.4732
2082.0312,26.1809,33.0097,21.5671,9.4196,-2.5831,13.7518,13.6901,0.8117,-3.6650,21.6526,27.8936,18.5666,18.5112,-9.3226,20.7288,1.2269,-9.1232,32.1534,20.9566
2085.9375,26.0103,30.7596,23.4831,10.2885,-2.8596,14.8543,9.7122,0.7001,-6.0271,20.8516,32.7283,21.3681,22.8475,-9.2879,27.6365,-1.3602,-5.3014,33.1198,24.5129
2089.8438,23.5940,27.6005,24.0635,11.5725,-3.3426,14.5444,8.1465,0.0966,-9.6855,18.0132,35.2422,24.1043,25.7780,-8.7035,29.6379,-1.8417,-1.3781,32.7674,26.6498
2093.7500,19.9398,24.2964,22.4768,12.3237,-4.3125,12.5248,9.4054,-1.1022,-13.9430,14.9125,34.6662,25.7720,26.8726,-7.9293,27.9760,2.0272,2.1557,31.2296,26.2447
2097.6562,16.2581,21.3908,19.0058,12.2990,-5.0436,9.9045,12.1185,-2.0250,-18.1836,13.1379,31.4390,25.9487,26.5701,-6.8219,25.0675,10.3053,5.4347,28.7347,23.4798
2101.5625,13.3933,19.0260,15.2520,12.1311,-4.0807,8.3972,14.2222,-1.3118,-21.7728,13.0920,27.1374,25.0108,25.9068,-4.9357,22.5980,20.5369,9.0390,25.6322,19.8877
2105.4688,11.5752,16.9907,13.2277,12.7754,-0.1778,8.8967,14.4332,1.9077,-24.1267,13.7947,23.4727,23.6274,25.8628,-1.9655,20.8659,28.9072,13.4583,22.3230,17.4167
2109.3750,10.5441,14.9447,13.9132,14.6710,6.7155,10.5917,13.0602,7.2274,-25.0079,13.6062,21.0766,22.0554,26.7721,1.9481,19.4211,32.2309,18.5838,19.1129,17.1601
2113.2812,9.8592,12.6458,16.3782,17.2700,15.1238,11.4171,11.5737,12.9604,-24.8141,11.3401,19.0733,19.8850,28.1615,6.2587,17.9160,29.6197,23.5844,16.0720,18.6508
2117.1875,9.1398,10.0293,18.2363,19.3102,22.6654,9.5995,11.2805,16.9840,-24.5384,7.0048,15.8582,16.4490,29.0755,10.3080,16.2192,22.8637,27.2661,12.9963,20.2267
2121.0938,8.1260,7.1450,17.2251,19.6419,27.2855,5.1435,12.1496,17.9170,-25.2901,1.7154,10.5211,11.5272,28.6477,13.6085,13.9023,15.3070,28.7037,9.5233,20.2013
2125.0000,6.6251,4.0862,12.8187,18.0047,28.3438,0.0694,12.7405,15.8775,-27.6217,-3.0811,3.7738,5.7487,26.5681,15.9298,10.0178,9.8875,27.7650,5.3761,18.0071
2128.9062,4.4868,1.0142,6.6834,15.1819,26.8708,-2.8894,11.3320,12.3419,-31.1090,-6.4889,-2.4186,0.3556,23.2060,17.2086,3.7828,7.5145,25.2030,0.6180,14.5148
2132.8125,1.6758,-1.7634,1.5902,12.4199,24.8280,-2.2373,7.3755,9.2081,-34.5061,-8.5747,-6.2686,-3.4930,19.3617,17.4417,-4.3004,6.7673,22.2444,-4.2439,11.3383
2136.7188,-1.6139,-3.8246,-0.4757,10.5311,23.8420,1.1173,2.1005,7.6711,-36.4135,-10.1166,-7.5368,-5.3717,15.8106,16.6746,-12.0851,5.0903,19.8920,-8.4227,9.6542
2140.6250,-4.9313,-4.8727,0.3369,9.3293,24.2101,4.3864,-2.2608,7.6068,-36.0462,-11.9537,-7.7127,-5.7712,12.8939,15.0543,-16.8991,0.7051,18.3428,-11.2498,9.3878
2144.5312,-7.6979,-5.0675,1.9049,7.7990,24.7903,4.7869,-4.0537,7.8075,-33.6223,-14.4104,-8.8111,-5.7583,10.3732,12.8263,-17.4968,-6.0310,16.8786,-12.5928,9.3241
2148.4375,-9.4477,-5.1493,1.6778,4.8795,23.8227,1.4486,-3.3462,6.8599,-30.1530,-17.1308,-11.7175,-6.3957,7.6318,10.2226,-15.2101,-12.7484,14.3234,-13.0015,8.0294
2152.3438,-10.0365,-6.1220,-1.5067,0.3112,20.1336,-4.0149,-1.7264,4.0781,-26.8079,-19.3409,-15.4238,-8.2768,4.1167,7.3269,-13.0968,-16.6081,9.8116,-13.4161,4.9029
2156.2500,-9.6955,-8.5743,-6.6256,-5.0459,13.9486,-8.6518,-0.9297,-0.0834,-24.2725,-20.2953,-17.8066,-11.3577,-0.2356,4.0603,-13.5266,-16.2000,3.3940,-14.5531,0.6196
2160.1562,-8.9002,-12.0649,-11.2122,-9.6370,6.8056,-10.1692,-1.4359,-4.3435,-22.4654,-19.6260,-17.3508,-15.0460,-4.8679,0.3377,-16.1207,-12.4592,-3.9194,-16.3499,-3.3161
2164.0625,-8.1378,-15.0726,-13.0414,-12.0934,0.6488,-8.3396,-2.2057,-7.3801,-20.7127,-17.4491,-14.4166,-18.4147,-8.8791,-3.7288,-17.8850,-7.9533,-10.7287,-17.8735,-5.5530
2167.9688,-7.7030,-15.6970,-11.5217,-11.9874,-3.2959,-4.8699,-1.7731,-8.5705,-18.1992,-14.2609,-10.9762,-20.4498,-11.5573,-7.7778,-15.6562,-5.0868,-16.0562,-17.8263,-5.7061
2171.8750,-7.6173,-12.7661,-7.8491,-9.9911,-5.1447,-1.9474,0.2522,-8.2447,-14.4128,-10.7357,-8.9768,-20.3137,-12.8134,-11.3850,-8.9720,-4.5703,-19.8465,-15.3660,-4.4614
2175.7812,-7.6859,-6.6576,-3.9370,-7.3813,-6.1136,-0.6094,2.6078,-7.3490,-9.3830,-7.5225,-8.6466,-17.6018,-13.2009,-14.3591,-0.9350,-5.2848,-22.8048,-10.7038,-2.9645
2179.6875,-7.6397,0.7473,-1.0260,-5.2587,-7.6175,-0.1198,3.3174,-6.7857,-3.6798,-5.0809,-8.1839,-12.5154,-13.4860,-16.8891,3.8600,-5.5566,-25.6955,-5.0581,-1.9942
2183.5938,-7.2833,7.0122,0.9624,-3.9985,-10.3375,1.2851,1.4451,-6.8626,1.7542,-3.5826,-5.2130,-5.8594,-14.0725,-19.3774,2.8471,-4.7231,-28.6308,0.0195,-1.5345
2187.5000,-6.5899,10.4210,2.9189,-3.2463,-13.8551,4.9368,-1.8032,-7.1775,5.8595,-2.9115,1.0514,1.1583,-14.7120,-22.0466,-2.3508,-3.6405,-30.8940,3.4886,-1.0236
2191.4062,-5.7187,10.7734,5.4002,-2.3878,-17.0375,10.6543,-3.6689,-6.9703,7.7527,-2.7869,8.6526,7.2387,-14.7304,-24.6187,-6.9830,-3.6886,-31.4381,5.2527,-0.0287
2195.3125,-4.9645,9.2145,7.8349,-1.1158,-18.8422,16.7515,-1.8249,-5.6840,7.0044,-2.9694,13.7917,11.2897,-13.6003,-26.3435,-6.7736,-5.1552,-29.6729,5.9086,1.2161
2199.2188,-4.6618,7.2703,8.7562,0.3003,-18.9610,21.0021,3.7139,-3.3774,3.8024,-3.4323,13.2748,12.6358,-11.4126,-26.4025,-1.2940,-6.5082,-25.9218,6.0518,1.8510
2203.1250,-5.0767,5.7925,6.8929,1.1927,-17.8960,21.8178,10.2669,-0.7489,-1.1100,-4.3729,6.7679,11.1499,-8.8744,-24.4251,5.5656,-5.3932,-21.1919,5.7000,0.9887
2207.0312,-6.3167,4.5399,2.2583,0.9524,-16.4978,18.9024,14.1045,1.2191,-6.7489,-6.0304,-2.8127,7.3256,-6.8433,-20.7602,8.4401,-0.7105,-16.4600,4.2884,-1.5921
2210.9375,-8.2837,2.6362,-3.6393,-0.5713,-15.3645,13.1569,12.8847,1.7675,-12.3243,-8.4275,-11.1159,2.2371,-5.7868,-16.3168,4.4469,5.9537,-12.0770,1.2262,-5.2070
2214.8438,-10.6869,-0.4967,-8.6699,-2.9879,-14.5417,6.1299,7.1563,0.7289,-17.5482,-11.2319,-15.1057,-2.7205,-5.6071,-12.0911,-4.8059,10.9384,-7.7893,-3.4445,-8.6895
2218.7500,-13.1171,-4.4631,-11.4281,-5.6123,-13.6746,-0.5473,-0.1245,-1.4199,-22.6089,-13.8705,-14.8078,-6.3342,-5.9456,-8.6996,-14.6385,10.9759,-3.3405,-8.8306,-11.1799
2222.6562,-15.1667,-8.0027,-12.0832,-7.8368,-12.4027,-5.5349,-5.6365,-3.8090,-27.8131,-15.8431,-12.8865,-8.1351,-6.6530,-6.1959,-20.8986,5.7144,0.9108,-13.6144,-12.6923
2226.5625,-16.5621,-9.8226,-12.1393,-9.3732,-10.6421,-8.0386,-7.7684,-5.5647,-33.1399,-17.0185,-12.4959,-8.6794,-7.9600,-4.2254,-22.8354,-1.7681,3.9764,-16.8251,-14.0321
2230.4688,-17.2549,-9.5536,-13.3044,-10.2465,-8.5572,-8.0430,-7.2912,-6.1361,-38.0403,-17.6854,-15.0596,-9.2817,-10.1587,-2.3546,-23.0553,-7.0771,4.9376,-18.3937,-16.1225
2234.3750,-17.4201,-8.1257,-16.2857,-10.6125,-6.3313,-6.4168,-6.3379,-5.4349,-41.6637,-18.2998,-19.5659,-11.2641,-13.0824,-0.3512,-24.8036,-7.7661,3.8112,-19.0908,-19.2465
2238.2812,-17.3404,-7.2543,-20.3331,-10.5795,-4.0141,-4.6423,-6.6559,-3.7805,-43.3882,-19.1028,-23.7194,-15.1439,-15.9142,1.7043,-28.9439,-5.2136,1.7922,-19.9117,-22.7765
2242.1875,-17.2154,-8.3459,-23.7742,-10.1645,-1.6241,-4.0940,-8.4897,-1.7217,-43.2880,-19.8902,-25.8774,-20.2861,-17.6200,3.4596,-33.1268,-3.5131,0.5165,-21.3590,-25.5899
2246.0938,-17.0005,-11.5399,-25.0897,-9.3769,0.6007,-5.2036,-10.7757,0.1704,-42.1778,-20.1159,-26.1971,-25.2606,-17.7444,4.4086,-33.7292,-6.0885,0.7983,-23.1148,-26.8462
2250.0000,-16.3896,-15.5227,-23.7652,-8.3141,2.0957,-7.1093,-12.2275,1.4742,-41.1459,-19.2597,-26.1648,-28.6550,-16.9072,4.0518,-28.8682,-12.6366,1.8246,-24.2789,-26.5277
2253.9062,-14.9888,-18.2469,-20.4054,-7.1555,2.2160,-8.1841,-12.2794,2.0173,-40.8506,-17.1889,-27.0088,-29.7773,-16.4778,2.1000,-20.0033,-18.9048,1.5537,-23.9396,-25.3320
2257.8125,-12.5984,-18.0991,-16.1642,-6.0457,0.7289,-7.2079,-11.1728,1.8935,-41.0429,-14.2407,-28.3603,-28.7858,-17.5355,-1.3127,-10.9197,-19.6888,-1.8207,-21.6597,-24.0090
2261.7188,-9.4135,-14.7801,-11.9833,-4.9600,-1.8180,-4.3764,-9.3294,1.3993,-40.6612,-10.9666,-28.2624,-26.2398,-19.8545,-5.5253,-5.0546,-12.8906,-8.3494,-17.5929,-22.6654
2265.6250,-5.9713,-9.3694,-8.1558,-3.6672,-4.2071,-1.3259,-6.7714,0.9141,-38.4817,-7.7397,-24.5207,-22.5106,-21.7491,-9.4929,-3.3731,-1.5179,-15.9150,-12.2567,-20.5861
2269.5312,-2.8227,-3.5846,-4.4057,-1.8335,-5.1623,-0.0172,-3.1985,0.7697,-33.9369,-4.5329,-16.3487,-17.5677,-21.0315,-12.1932,-4.3461,8.0392,-21.3449,-6.2127,-16.7321
2273.4375,-0.1233,1.2393,-0.2974,0.7867,-4.0953,-1.2020,1.3799,1.1588,-27.5950,-1.0388,-5.0850,-11.3082,-16.4947,-13.1140,-5.7219,10.3137,-22.3622,0.1033,-10.5682
2277.3438,2.5558,4.7785,4.3605,4.1782,-1.4803,-3.6087,6.1524,2.1025,-20.9918,2.9672,6.4762,-4.1176,-8.8810,-12.5207,-6.3471,4.5187,-19.0408,6.3459,-2.6349
2281.2500,5.9970,7.5930,9.3306,7.9888,1.4097,-4.5526,9.7677,3.4600,-15.9002,7.3205,15.5666,2.8665,-0.6191,-11.3056,-6.4810,-5.0024,-13.7583,12.1409,5.5295
2285.1562,10.7676,10.4172,13.9922,11.5747,3.2337,-1.6623,11.2778,4.9501,-13.4611,11.4746,20.6811,8.0962,5.5254,-10.4850,-6.5692,-11.9225,-9.6944,17.0389,12.0586
2289.0625,16.6678,13.4363,17.5230,14.1519,3.2993,5.4367,11.0126,6.1781,-13.6636,14.8324,21.8747,10.3928,7.9757,-10.6624,-5.8957,-12.3046,-8.9231,20.5924,15.5876
2292.9688,22.6075,16.0983,19.1622,15.0294,1.8258,14.6782,10.5887,6.7057,-15.4412,17.1460,20.2273,9.6463,7.0491,-11.7919,-2.6108,-7.0132,-11.3586,22.4937,15.7751
2296.8750,27.0706,17.5893,18.5430,13.8865,-0.3307,22.7038,11.9058,6.2019,-17.2847,18.6608,17.1225,6.9611,4.4741,-13.3530,4.6926,-0.5561,-15.1278,22.6808,13.3119
2300.7812,28.9277,17.5850,16.0141,11.0067,-2.2212,26.8474,15.8074,4.6440,-18.0020,19.8685,13.8620,4.1449,2.1869,-14.7439,15.2091,2.5383,-17.9193,21.3692,9.5330
2304.6875,28.0784,16.6582,12.7367,7.3202,-3.2310,26.6219,21.3860,2.4479,-17.2169,21.0391,11.5982,2.8453,1.2916,-15.5806,25.6486,0.9851,-18.2763,19.0164,5.8956
2308.5938,25.4836,15.9645,10.3268,4.1288,-3.1957,23.7489,26.4530,0.3767,-15.3975,21.8930,11.1930,3.8059,1.7918,-15.7221,31.9790,-2.6790,-16.0358,16.2275,3.5204
2312.5000,22.5431,16.3784,10.0508,2.5312,-2.2903,20.8000,28.8375,-0.8167,-13.4815,21.6903,12.7831,6.5758,3.0396,-15.1157,31.9956,-4.3422,-11.8859,13.5826,2.8636
2316.4062,20.2350,17.7118,11.9680,2.7951,-0.8970,19.4563,27.6028,-0.8602,-12.3614,19.7110,15.3575,9.7445,4.3570,-13.7068,26.7582,-1.4438,-6.6487,11.3997,3.5539
2320.3125,18.5987,18.6547,14.6290,4.0600,0.4458,19.5755,23.4037,-0.2387,-12.5080,15.8044,16.9388,11.5629,5.3193,-11.5507,19.7718,5.3741,-0.9323,9.5355,4.4879
2324.2188,16.8981,17.5837,15.7133,4.6577,1.1064,19.6135,17.8816,-0.0173,-13.8782,10.6086,15.6193,10.7196,5.6358,-9.0096,14.5272,13.0436,4.7111,7.3930,4.2750
2328.1250,14.3018,13.7261,13.3802,2.9887,0.5744,17.9770,12.6520,-1.2189,-16.0733,5.2580,10.9186,6.9947,4.9604,-6.7598,12.2501,18.3093,9.5084,4.2359,1.9501
2332.0312,10.5436,7.8425,7.5124,-1.5006,-1.1966,14.2863,8.5952,-4.0964,-18.5997,0.7471,4.4194,1.4935,2.9639,-5.4594,11.4510,19.5709,12.5370,-0.3059,-2.3926
2335.9375,6.0678,1.8710,-0.0340,-7.8506,-3.5599,9.6795,5.7848,-7.7940,-21.0750,-2.6380,-1.0455,-3.7738,-0.3472,-5.2521,9.4082,17.1664,13.2085,-5.8573,-7.4985
2339.8438,1.5925,-2.2957,-6.4657,-13.9889,-5.3391,6.0133,3.8666,-10.6996,-23.2926,-5.4418,-3.3166,-6.9151,-4.4099,-5.5103,4.2892,12.4007,11.7562,-11.3575,-11.5863
2343.7500,-2.5011,-4.0661,-9.7530,-17.8220,-5.4137,4.5771,2.4607,-11.3509,-25.1557,-8.6251,-2.6084,-7.3141,-8.2842,-5.1246,-3.6626,6.5331,9.2311,-15.6006,-13.4097
2347.6562,-6.3978,-4.5235,-9.8394,-18.3633,-3.4030,5.2164,1.3216,-9.3448,-26.5515,-12.8670,-1.5942,-6.1742,-11.1678,-3.2363,-12.5037,0.5843,6.9107,-17.9313,-13.0447
2351.5625,-10.4711,-5.5981,-8.4838,-16.1890,0.0349,6.4357,0.3003,-5.6416,-27.2579,-18.0154,-3.5744,-5.9025,-12.8282,0.0879,-19.8961,-4.2738,5.5392,-18.6010,-11.7891
2355.4688,-14.6091,-8.5914,-7.8356,-12.9402,3.5499,6.3813,-0.6912,-2.0201,-26.9461,-23.0250,-9.9095,-8.5053,-13.5718,3.7720,-24.2068,-6.6744,4.9905,-18.5012,-11.1622
2359.3750,-17.8717,-13.1135,-8.7921,-10.2296,5.8924,4.0488,-1.6261,-0.0108,-25.2931,-26.4298,-18.6268,-13.9651,-13.7772,6.3713,-24.7917,-5.8753,4.5896,-18.4523,-11.7002
2363.2812,-18.9007,-17.2370,-10.3862,-8.7072,6.6005,-0.0488,-2.3203,-0.0038,-22.1609,-27.0897,-25.3983,-19.8115,-13.4442,7.0109,-21.7463,-2.8589,3.7717,-18.5860,-12.4764
2367.1875,-16.9070,-18.7991,-10.6846,-7.8997,6.0962,-4.1605,-2.5349,-1.1258,-17.7500,-24.8039,-26.3779,-22.4399,-12.2231,5.9321,-15.7715,-0.4651,2.4817,-18.3106,-11.7923
2371.0938,-12.5267,-16.9349,-8.5063,-6.8608,5.1527,-6.3403,-2.1923,-1.9572,-12.6326,-20.4630,-20.9373,-19.4977,-9.9533,4.2251,-8.3536,-1.8771,0.9803,-16.8936,-8.5832
2375.0000,-7.8130,-12.7242,-4.5923,-5.0812,4.1797,-5.6118,-1.5050,-1.5785,-7.6155,-15.6609,-12.2874,-11.7362,-7.2150,2.9408,-1.7708,-8.2160,-0.7070,-14.1847,-3.4616
2378.9062,-5.1971,-8.4626,-1.2360,-2.9437,2.9073,-2.5383,-0.8580,-0.2172,-3.4700,-11.9636,-5.4378,-2.8970,-5.2913,2.2685,1.6498,-17.0772,-3.1049,-10.8626,1.4827
2382.8125,-6.0146,-6.0672,-0.5672,-1.3896,0.7145,1.1600,-0.5238,0.9440,-0.6495,-10.1997,-3.8720,2.5150,-5.3975,1.4262,0.8854,-23.4602,-6.9622,-7.9582,4.0842
2386.7188,-9.5793,-5.7667,-2.7779,-1.0885,-2.6861,3.7115,-0.4835,0.6390,0.8654,-10.1233,-7.2636,2.1743,-7.6990,-0.6325,-2.8317,-22.8377,-12.4737,-6.0067,3.7000
2390.6250,-13.4755,-6.0200,-5.7078,-1.7929,-6.7843,4.4236,-0.5546,-1.5494,1.5108,-10.6091,-11.8136,-2.4397,-10.9346,-4.2350,-6.5286,-14.3397,-18.7123,-4.5290,1.7638
2394.5312,-14.9265,-4.7060,-6.2249,-2.4094,-10.4299,4.0927,-0.7034,-4.8369,1.9039,-10.2700,-12.9076,-6.9428,-13.0650,-8.4994,-7.4903,-1.6991,-23.8521,-2.3182,0.7990
2398.4375,-12.3633,-0.7023,-2.4720,-1.7590,-12.5008,4.3942,-1.1804,-7.6747,2.5516,-8.1717,-8.1766,-6.9278,-12.5716,-11.7369,-5.3793,8.9127,-26.1496,1.6207,2.5639
2402.3438,-6.2044,5.2884,4.6601,0.5439,-12.5645,6.6303,-2.2251,-8.6513,3.6409,-4.2710,1.1209,-0.8701,-9.4647,-12.4754,-2.6712,12.7696,-25.0107,7.1756,6.7051
2406.2500,1.5695,11.2246,11.9459,3.7571,-11.0369,10.6885,-3.5332,-7.2598,4.9860,0.6330,11.1610,8.9095,-5.2415,-10.3666,-2.7142,9.5029,-21.3470,12.9773,10.9467
2410.1562,8.6269,15.1060,15.8635,6.4749,-8.7622,14.9681,-4.0408,-4.0809,6.1151,5.3671,18.0679,17.7922,-1.8206,-6.3421,-6.6718,3.0284,-16.9436,17.1461,12.6881
2414.0625,13.4014,16.2049,14.8052,7.5481,-6.3977,17.3851,-2.4621,-0.3569,6.4287,8.9652,20.0204,21.7341,-0.2721,-1.9531,-11.8175,-1.3677,-13.3141,18.4045,10.8154
2417.9688,15.4447,15.2805,9.9050,6.7970,-4.1020,16.7928,1.6119,2.7044,5.3734,11.0148,17.6563,19.4679,-0.2902,1.5879,-12.9237,-0.6403,-10.8863,16.7586,6.3808
2421.8750,15.0237,13.7298,3.9845,5.0340,-1.7197,13.8144,6.8840,4.4684,2.6120,11.6054,12.8959,12.7120,-0.7339,3.9853,-6.1603,4.2250,-9.0660,13.3048,1.6920
2425.7812,12.5390,12.4222,-0.4923,3.4381,0.7868,10.4655,10.6604,5.0184,-1.8243,11.0020,7.3971,4.6019,-0.7026,5.7260,7.2723,9.3110,-7.0129,9.3901,-1.4219
2429.6875,8.3539,11.1499,-2.9005,2.7686,3.0981,8.8047,10.4075,4.9404,-7.4556,9.3489,1.8394,-2.2691,-0.2354,7.4487,20.7753,10.7256,-4.4363,5.8094,-2.8132
2433.5938,3.1133,9.0667,-4.3602,2.9604,4.7094,9.5688,5.6193,4.9362,-13.4303,6.6504,-3.7091,-6.8381,-0.1156,9.3490,26.0745,7.2150,-1.7919,2.6049,-3.8160
2437.5000,-1.9259,5.6797,-6.3302,3.3020,5.3212,11.7711,-1.4230,5.4502,-18.8004,3.0294,-9.0421,-9.2672,-1.0628,11.0277,18.7793,0.7353,0.1745,-0.5175,-5.9240
2441.4062,-5.1142,1.5358,-9.1428,2.9666,5.0456,13.5261,-6.8003,6.4214,-22.9054,-0.9936,-13.5426,-10.0803,-3.0915,11.7952,1.8650,-5.1089,1.0400,-3.6310,-9.4864
2445.3125,-5.2577,-1.9688,-11.6748,1.4847,4.2043,13.4539,-7.4447,7.2383,-25.6448,-4.4928,-16.5849,-9.6871,-5.5940,11.1183,-15.6515,-7.4218,0.9212,-6.4033,-13.4672
2449.2188,-2.5157,-3.4916,-12.3469,-1.1008,2.9118,11.6039,-3.2844,6.9597,-27.4269,-6.4861,-18.0421,-8.5538,-7.9887,8.8835,-24.2642,-5.5733,0.1786,-8.3807,-16.3687
2453.1250,1.4514,-2.6248,-10.5378,-4.3508,0.8889,9.2475,2.5671,4.7944,-28.7681,-6.4244,-18.2222,-7.4696,-10.2296,5.3899,-20.0921,-1.2000,-1.0026,-9.3759,-17.4491
2457.0312,4.4152,-0.0642,-7.1895,-7.6033,-2.2247,7.7903,5.8682,0.6667,-29.7901,-4.4591,-17.2067,-7.2601,-12.6220,1.2143,-7.3399,2.9800,-2.6720,-9.5242,-17.1665
2460.9375,5.0662,3.0247,-4.0900,-10.0666,-6.2611,7.7239,4.1883,-4.4669,-29.9998,-1.2741,-14.3125,-7.9883,-15.0891,-2.8851,4.6507,4.6170,-4.7309,-8.9356,-16.5066
2464.8438,3.9883,5.8804,-2.4306,-10.8928,-10.1705,8.4425,-1.3525,-8.8512,-28.5925,2.3929,-8.4573,-8.4514,-16.6452,-6.0251,7.7610,2.7206,-6.5263,-7.3237,-15.8420
2468.7500,3.3085,8.5409,-1.8315,-9.3722,-12.3470,8.9907,-6.8174,-10.7204,-25.1400,6.1617,0.6008,-6.7620,-15.7426,-7.3413,0.5031,-2.0271,-6.9482,-4.0678,-14.3784
2472.6562,5.1587,11.4809,-0.6298,-5.2478,-11.5144,9.0233,-8.1563,-9.2314,-20.1766,10.0217,11.1559,-1.8741,-11.3877,-6.2844,-11.1837,-7.5567,-5.1207,1.2271,-10.7191
2476.5625,10.0232,14.8736,2.8139,1.0575,-7.5347,9.1142,-3.9421,-4.9309,-15.1784,13.9496,19.7915,5.1276,-4.1389,-2.9285,-18.1747,-11.2092,-1.1788,8.1338,-4.0851
2480.4688,16.2235,18.1719,8.8472,8.5543,-1.4814,10.1514,3.7969,0.6230,-11.8190,17.4928,23.2355,11.2714,3.9612,1.9678,-14.4176,-10.9390,3.5816,15.3720,4.8637
2484.3750,21.0044,20.4150,16.2797,16.1559,5.1248,12.3803,11.1672,5.8828,-10.9406,19.7574,20.6955,13.6432,10.6447,7.2768,-0.9210,-6.5258,7.4391,21.5095,14.3307
2488.2812,22.4941,21.0139,23.2711,23.1904,11.3251,14.9845,15.1726,10.2641,-11.9788,19.9312,14.8458,11.6801,14.9528,12.0154,15.1019,-0.0663,9.3759,25.8880,22.5583
2492.1875,21.0977,20.3230,28.5470,29.5251,17.1395,16.6286,15.6146,14.2956,-13.3368,18.0076,10.4076,7.8857,17.7677,15.6730,25.1362,4.8770,9.6930,28.9618,28.8610
2496.0938,19.2466,19.4488,31.9301,35.1427,23.0145,16.5286,14.8300,18.8049,-13.5421,15.1197,11.0424,6.0911,20.7975,18.0933,24.8521,5.3033,9.5591,31.6503,33.6202
2500.0000,19.6168,19.3783,33.8351,39.4967,28.7574,15.1137,15.6133,23.7433,-12.3950,13.0931,16.7123,8.3741,24.7536,19.0431,16.5214,0.8072,9.8164,34.1569,37.2730
2503.9062,23.0852,20.1099,34.3101,41.2612,32.9289,13.6621,18.9616,27.6272,-11.2358,13.3755,23.5318,13.0532,28.2435,17.9296,6.9609,-5.8980,10.0449,35.2797,39.2619
2507.8125,27.9294,20.5221,32.6085,38.8819,33.3849,13.1741,23.2880,28.1866,-12.0382,16.0073,26.3881,15.5743,28.4518,14.0641,2.6384,-10.6395,8.7565,32.9826,38.0166
2511.7188,30.8932,19.1532,27.7857,31.6986,28.7475,13.4475,25.5657,23.9034,-15.9082,19.3685,22.5291,11.9030,23.2693,7.3971,5.3431,-10.6880,4.6828,25.9948,32.1755
2515.6250,29.3875,15.3306,19.8586,20.8497,19.7440,13.1939,23.4550,15.3534,-22.0670,20.9692,13.5042,1.9169,13.2743,-0.8574,11.2451,-6.8292,-1.8395,15.2596,22.1146
2519.5312,23.2655,9.7724,10.4697,9.1504,9.2954,11.1680,16.8659,5.2788,-28.1255,18.8623,4.0176,-9.9532,1.9195,-8.3692,13.7874,-2.9127,-8.5799,3.9613,10.4387
2523.4375,14.9294,4.1685,2.3077,-0.1989,1.0810,7.3791,7.9682,-2.8326,-31.5507,12.8122,-1.4542,-17.5905,-6.4225,-12.7635,8.3316,-3.0157,-12.6246,-4.1702,0.7959
2527.3438,7.7356,0.0328,-2.4628,-5.3482,-2.5554,3.3152,-0.1711,-6.7817,-31.3325,4.4862,-1.7541,-17.5649,-9.2424,-13.0119,-4.5573,-8.2802,-12.2902,-7.2313,-4.2869
2531.2500,3.8665,-2.3054,-3.6373,-6.8136,-1.9282,0.8882,-5.2780,-6.9099,-28.6659,-3.4457,0.4311,-11.6888,-7.4778,-10.1527,-19.2835,-15.9202,-8.3103,-6.4854,-4.9922
2535.1562,3.1575,-3.8055,-3.1388,-7.0246,0.3735,0.8881,-6.8317,-5.6732,-26.1315,-8.7326,0.9011,-5.7041,-4.7144,-6.7019,-28.6431,-21.3178,-3.3437,-5.5856,-3.9995
2539.0625,3.5975,-5.8477,-3.6995,-8.6546,1.3093,2.2081,-5.9147,-5.8307,-25.9359,-10.6198,-2.7504,-5.0166,-4.5955,-5.0398,-28.2258,-21.6642,-0.1168,-8.1020,-4.5746
2542.9688,2.9911,-9.0777,-6.9697,-12.8617,-0.6391,2.5429,-4.3312,-8.5423,-28.4494,-9.9861,-9.3974,-10.7207,-8.3631,-5.8568,-18.9838,-18.2287,0.4272,-15.0599,-8.3439
2546.8750,0.4924,-12.8612,-12.4264,-18.6474,-4.7082,0.0905,-3.6627,-12.7234,-32.0570,-8.5653,-15.4453,-18.9707,-14.2958,-7.7811,-6.4271,-15.2817,-0.4116,-24.2435,-14.3629
2550.7812,-3.0579,-15.7606,-17.8599,-23.7341,-8.7467,-5.0354,-4.7129,-16.0669,-34.3745,-7.8230,-17.7037,-24.1368,-19.3133,-8.4974,2.9018,-16.3612,-0.3342,-31.7561,-20.0763
2554.6875,-6.0818,-16.6502,-21.0340,-26.2643,-10.9897,-10.7860,-7.4019,-16.8992,-33.8995,-8.1924,-15.7286,-23.2031,-21.3677,-6.5657,5.3184,-20.8571,2.0081,-34.6841,-23.3207
2558.5938,-7.6301,-15.6051,-21.2583,-26.0519,-11.3516,-14.5743,-10.9534,-15.4509,-30.9033,-9.0588,-11.8448,-17.9111,-20.7372,-2.6030,1.7780,-23.8681,5.8879,-32.9353,-23.7877
2562.5000,-8.0822,-13.8976,-19.7306,-24.4993,-11.3202,-15.0253,-14.2460,-13.6032,-26.9953,-9.3809,-9.0077,-13.0021,-19.3316,1.0638,-3.4297,-19.8036,9.0560,-28.9860,-22.8865
2566.4062,-8.7091,-13.1279,-18.4832,-23.3293,-12.6359,-12.7783,-16.2681,-13.3625,-23.8078,-8.4774,-8.3955,-12.0854,-18.7585,2.0425,-5.9599,-7.1262,9.5096,-25.8610,-22.2751
2570.3125,-10.5529,-14.1589,-18.8138,-23.1726,-15.8337,-9.8215,-16.5643,-15.2712,-21.8720,-6.4832,-8.7359,-14.5769,-18.8505,-0.3835,-4.2970,9.5554,7.0733,-24.9520,-22.3632
2574.2188,-13.5621,-16.6243,-20.4031,-23.1160,-19.7556,-7.9816,-15.4448,-17.9802,-20.5144,-4.2484,-7.8411,-16.2470,-17.8726,-4.6928,-0.2908,22.0226,3.5769,-25.2902,-22.0249
2578.1250,-16.6480,-19.2942,-21.7095,-21.5318,-22.3458,-7.7681,-13.7591,-19.2823,-18.7428,-2.8080,-4.9357,-12.9283,-14.1712,-8.1468,2.8258,24.0624,1.5286,-24.6830,-19.6906
2582.0312,-18.5575,-20.9293,-21.2228,-17.4923,-22.0663,-8.3710,-12.3097,-17.7810,-16.2999,-2.7740,-1.7029,-4.2991,-7.8144,-8.6344,3.2607,16.0736,2.3385,-21.6658,-14.8318
2585.9375,-18.8305,-20.9548,-18.5549,-11.6348,-18.8734,-8.6196,-11.3020,-13.9137,-13.9748,-4.0036,-1.0656,5.4509,-0.8057,-6.0092,2.0862,5.1051,5.4320,-16.6727,-8.5648
2589.8438,-18.0901,-19.5228,-14.5748,-5.7941,-14.1082,-7.9866,-10.2770,-9.5840,-12.9169,-5.7130,-4.6482,10.7356,4.3364,-2.0093,2.1650,0.0741,8.8372,-11.5546,-2.8718
2593.7500,-17.4819,-17.0728,-10.6119,-1.7017,-9.5072,-6.8224,-8.6176,-6.7413,-13.5471,-6.9460,-11.0263,9.0184,6.4684,1.0825,5.4743,5.5301,10.6783,-7.9513,0.8907
2597.6562,-17.7357,-13.8704,-7.4596,0.2240,-6.1382,-5.7746,-6.2128,-6.0209,-15.0002,-7.1213,-16.2995,2.9850,6.6296,1.9876,11.0346,18.4825,10.3787,-5.9216,2.9487
2601.5625,-18.5786,-9.9250,-4.9740,1.0639,-4.0013,-5.0538,-3.6669,-6.4475,-15.6095,-6.3348,-16.6762,-1.3859,7.1067,1.0804,15.2330,30.5808,8.7270,-3.9670,4.7538
2605.4688,-18.9126,-5.2790,-2.4916,2.4362,-2.4359,-4.2622,-1.7996,-6.3449,-14.0966,-5.2347,-11.1386,0.5954,9.5194,-0.2112,14.4547,34.0062,6.9294,-0.4028,7.6353
2609.3750,-17.5843,-0.3083,0.3903,5.1557,-0.8634,-2.8913,-0.8398,-4.6774,-10.5565,-4.5345,-2.1675,8.6888,13.4726,-0.6519,8.0517,26.7730,5.5493,5.0730,11.5893
2613.2812,-14.1729,4.3089,3.3577,8.5545,0.7588,-0.9424,-0.0907,-1.7896,-6.4780,-4.4640,5.9988,17.8880,16.8425,-0.0772,-0.7246,13.7181,4.2132,10.9059,15.1898
2617.1875,-9.2727,7.9544,5.5889,10.9726,2.0468,0.9852,1.4733,0.9518,-3.7824,-4.5222,10.2118,22.2441,17.4437,0.7096,-6.7159,2.7372,2.2276,14.7046,16.6680
2621.0938,-4.1497,10.4277,6.3797,11.0253,2.6444,2.2524,4.0458,2.2399,-3.5997,-3.7288,10.2419,19.3306,14.7387,0.8108,-6.4090,-0.7333,-0.5304,14.9551,15.2636
2625.0000,-0.0643,11.9542,5.6337,8.6796,2.5661,2.8452,6.2737,1.7574,-5.6593,-1.2472,8.3575,11.8857,10.2643,0.0796,-0.4006,3.0381,-3.2776,12.1062,11.7763
2628.9062,2.3101,12.8286,3.8501,5.3502,2.1613,3.4619,5.8174,0.2866,-8.6586,3.0199,7.2130,5.4595,6.4996,-0.7546,7.1088,9.1403,-4.8424,8.2287,7.9371
2632.8125,3.0976,13.0420,1.7158,2.9751,1.7969,4.8563,1.0346,-0.9716,-11.2321,8.2731,7.8335,4.0519,5.1059,-0.7334,11.4311,12.1171,-4.5870,5.5719,5.1741
2636.7188,3.0534,12.2854,-0.2871,2.7676,1.5803,6.9959,-7.4008,-1.2563,-12.7553,13.2296,9.2225,7.2174,5.8858,0.4965,10.7488,9.7772,-2.9499,5.1456,3.7661
2640.6250,3.1790,10.3780,-1.9439,4.5167,1.3456,8.8389,-16.3143,-0.6298,-13.4604,16.8415,9.6788,10.8056,7.1516,2.3583,7.1698,4.0261,-1.1643,6.3414,2.9726
2644.5312,4.2903,7.7353,-3.1016,6.8498,0.8509,9.0414,-21.6949,0.2958,-13.9466,18.8250,8.5180,10.5389,7.0747,3.7703,4.7428,-1.4015,-0.3996,7.7191,1.8781
2648.4375,6.6597,5.3745,-3.5253,8.1704,-0.0445,7.0794,-21.1926,0.9349,-14.6224,19.6370,6.6820,5.4229,4.9017,3.9414,6.0714,-4.0898,-1.0259,8.1918,0.1503
2652.3438,9.8364,4.3110,-3.0514,7.5752,-1.3828,3.8383,-15.6665,1.0889,-15.5601,19.9384,5.7797,-1.7201,1.1822,2.8842,10.2257,-4.4170,-2.5509,7.6367,-1.9051
2656.2500,12.7599,4.7547,-1.9128,5.1895,-3.2233,1.1079,-8.5811,0.8696,-16.7824,19.9722,6.4853,-6.8455,-2.9665,1.2685,13.5628,-4.5067,-4.1904,6.5607,-3.9117
2660.1562,14.2091,5.7896,-0.8561,1.8543,-5.6662,0.3160,-3.6251,0.3952,-18.5775,19.3493,7.7574,-8.1068,-6.7872,-0.2079,12.7212,-5.9589,-5.5282,5.2846,-5.9658
2664.0625,13.4451,5.9236,-0.7850,-1.4651,-8.6810,1.4965,-2.2769,-0.3585,-21.4243,17.4223,7.6112,-7.2233,-10.2170,-1.3763,7.3361,-8.4834,-6.7071,3.4840,-8.5743
2667.9688,10.7081,4.2059,-2.0970,-4.1028,-11.8712,3.3236,-3.1001,-1.3865,-25.5154,13.9606,4.8295,-7.7207,-13.4712,-2.6341,0.3099,-10.5096,-8.0503,0.5411,-12.0137
2671.8750,7.2139,1.0851,-4.2357,-5.7691,-14.4428,4.1859,-3.2155,-2.3736,-30.2951,9.5945,0.1840,-11.6045,-16.4018,-4.4736,-4.5063,-10.9908,-9.5169,-3.6116,-15.7252
2675.7812,4.5572,-1.7230,-5.9083,-6.4139,-15.5225,3.4276,-0.7212,-2.6722,-34.4982,5.6512,-3.8812,-17.3151,-18.2991,-6.9349,-5.2641,-10.6030,-10.5212,-7.9529,-18.3892
2679.6875,3.8369,-2.3743,-5.9262,-6.1139,-14.6668,1.7703,3.8632,-1.6849,-36.7905,3.4658,-4.9025,-20.7264,-18.3409,-9.4557,-3.2923,-11.1717,-10.2996,-10.7272,-18.7458
2683.5938,5.0637,-0.2593,-4.0893,-5.0826,-12.1939,0.6236,8.2042,0.6035,-36.5953,3.6424,-2.1102,-18.4258,-16.2789,-11.2377,-1.6003,-13.8097,-8.5202,-10.5303,-16.5510
2687.5000,7.2640,3.4407,-1.4239,-3.6987,-9.0523,0.9059,10.1975,3.4064,-34.4861,5.7760,3.1079,-10.6253,-12.7328,-11.8212,-2.0459,-17.4412,-5.6198,-7.3315,-12.8742
2691.4062,9.2205,6.4832,0.4739,-2.4079,-6.2816,2.3553,9.6791,5.4923,-31.8240,8.7961,8.3005,-1.3281,-8.8184,-11.4016,-3.5866,-19.1044,-2.5813,-2.6240,-9.4371
2695.3125,10.3121,7.1001,0.5501,-1.5000,-4.4438,3.8364,8.3704,5.9177,-29.8879,11.6432,11.7053,4.4419,-5.4184,-10.6561,-3.1024,-15.9445,-0.3297,1.4630,-7.4616
2699.2188,10.8261,5.2203,-0.9530,-0.9347,-3.4363,4.2899,8.1514,4.6003,-29.1296,13.7813,13.3083,4.2230,-2.7002,-10.2471,1.8757,-7.3991,0.7836,3.4758,-6.9012
2703.1250,11.5087,2.4609,-2.6743,-0.4038,-2.7986,3.4751,9.2007,2.2908,-29.0760,15.2350,14.4782,-0.2259,-0.2507,-10.4089,10.7901,4.0965,1.0379,3.4383,-6.6353
2707.0312,12.7153,0.8785,-3.1217,0.3675,-2.2353,1.9262,9.6766,-0.0384,-28.8924,16.2336,16.5825,-4.4011,2.3387,-10.9221,20.0121,14.4000,0.9572,2.6054,-5.4442
2710.9375,13.8616,1.4137,-1.7350,1.3041,-1.9136,0.2909,7.3164,-1.9081,-28.1198,16.8307,19.7370,-4.4566,4.9676,-11.4394,25.2209,19.9761,0.8276,2.4093,-2.9856
2714.8438,13.6764,3.2066,0.7654,1.9295,-2.2942,-1.2493,1.6604,-3.5929,-27.0014,16.8282,22.6422,0.0735,7.0271,-11.8497,24.3584,19.6213,0.4888,3.4057,-0.0201
2718.7500,11.1448,4.3135,2.9886,1.6713,-3.6449,-2.9287,-5.0105,-5.7370,-26.1699,16.0296,23.5577,6.2012,7.8757,-12.3639,18.9038,14.6132,-0.4927,4.9814,2.2455
2722.6562,6.4714,3.2952,3.9673,0.3322,-5.6521,-4.8297,-8.9671,-8.6525,-25.9852,14.5589,21.6099,9.9381,7.3712,-13.2634,12.6016,7.5445,-2.4644,5.9752,3.1401
2726.5625,1.3179,0.4848,3.9139,-1.6219,-7.4653,-6.4370,-7.6839,-11.8731,-26.0688,12.9384,17.4650,9.2943,6.0311,-14.5392,8.7779,0.9151,-5.4219,5.6942,3.0688
2730.4688,-1.9456,-2.0317,4.0915,-3.1935,-8.1594,-6.8376,-1.8135,-14.3272,-25.4120,11.8379,12.9621,5.5914,4.7412,-15.7313,8.3609,-3.6213,-8.9766,4.5494,3.2368
2734.3750,-1.5436,-1.7429,5.9216,-3.3483,-7.2703,-5.4479,5.1022,-14.9991,-22.9878,11.6821,10.0740,2.2884,4.2927,-16.1088,9.9518,-5.2782,-12.4852,3.8589,4.8299
2738.2812,2.6696,2.5829,9.9879,-1.5641,-5.0169,-2.5838,9.0399,-13.5831,-18.4346,12.3994,9.9450,2.4093,5.1073,-15.0584,11.5377,-3.9591,-15.1964,4.9809,8.2944
2742.1875,9.0854,10.0013,15.6284,1.9031,-2.0830,0.7157,8.2350,-10.6609,-12.3501,13.4621,12.5346,6.5623,7.2635,-12.4055,12.1993,-0.3107,-16.3624,8.3956,13.1919
2746.0938,15.1675,17.8946,21.3400,6.1684,0.8305,3.5179,4.2267,-7.3176,-6.0277,14.1472,16.8826,12.8739,10.6508,-8.4617,12.4288,4.1649,-15.3753,13.3526,18.6089
2750.0000,18.6867,23.4838,25.6465,10.1530,3.3317,5.7277,0.5159,-4.5141,-0.8204,13.8301,21.6397,18.6075,15.0160,-3.8089,13.0701,7.4640,-11.9799,18.2802,23.6978
2753.9062,18.6514,25.3150,27.8167,13.0310,5.3440,7.9898,-0.0325,-2.6564,2.4945,12.1834,25.5330,22.0536,19.8630,0.9935,14.1254,8.0984,-6.4815,21.6538,27.9381
2757.8125,15.5106,23.8036,28.0162,14.4701,6.8849,10.7797,2.9561,-1.5809,4.0405,9.2776,27.6760,23.3127,24.4046,5.5839,14.6560,6.2176,0.2370,22.7634,31.0426
2761.7188,10.6940,20.6420,26.9240,14.6150,7.8781,13.5109,7.5292,-0.8423,4.7464,5.6224,27.7960,23.6428,27.7654,9.7856,13.8419,3.8634,6.9972,21.9473,32.7589
2765.6250,5.8771,17.6285,25.1866,13.8975,8.1812,14.5976,11.2020,-0.0189,5.9035,2.1125,26.3754,24.1673,29.3886,13.4868,12.0735,3.8500,12.7925,20.2212,32.8469
2769.5312,2.3567,15.7358,23.0933,12.7952,7.7770,12.6178,12.7763,1.1515,8.5497,-0.2262,24.5470,25.0630,29.3414,16.5388,10.8730,7.8382,17.1437,18.5925,31.2575
2773.4375,0.7114,14.9029,20.6008,11.6231,6.9077,7.6836,12.7534,2.7767,12.9043,-0.7041,23.6014,25.7426,28.2158,18.7455,11.5534,14.9682,20.0981,17.4825,28.2874
2777.3438,0.7291,14.4538,17.5575,10.4098,5.9837,1.7756,12.2370,4.8080,18.0910,0.5575,24.2385,25.6324,26.6392,19.9230,13.8026,22.1725,21.9000,16.5636,24.4785
2781.2500,1.5432,13.6762,13.8913,8.9039,5.3136,-2.4517,11.5275,6.9756,22.3437,2.5081,26.0036,24.7244,24.7651,19.9679,15.6023,26.0866,22.6324,15.0530,20.2872
2785.1562,1.9635,12.1527,9.6466,6.7391,4.8785,-3.5826,9.7833,8.7651,23.7102,3.6484,27.3709,23.4168,22.1798,18.8948,14.7697,25.2266,22.1505,12.2507,15.8005
2789.0625,0.9763,9.7743,4.9295,3.7160,4.3523,-2.5318,6.0755,9.5859,20.9910,2.9428,26.5557,21.8885,18.3404,16.8405,10.9010,20.8448,20.3583,8.0033,10.7775
2792.9688,-1.7442,6.6381,-0.1079,0.0559,3.3607,-1.8072,0.8273,9.1249,14.4308,0.5951,22.6018,19.6938,13.1976,14.0462,5.9757,15.8589,17.5408,2.8416,5.0205
2796.8750,-5.5897,3.0318,-5.1943,-3.5587,1.7742,-3.4067,-3.7985,7.6572,5.7224,-1.9207,16.0340,16.0476,7.4684,10.8070,2.9173,12.7215,14.3784,-2.2608,-1.2249
2800.7812,-9.2544,-0.5009,-9.8474,-6.2366,-0.1970,-7.0074,-5.1350,6.0290,-2.7552,-2.7267,8.6230,10.6252,2.2889,7.3830,3.1755,11.8702,11.5351,-6.3477,-7.1896
2804.6875,-11.3961,-3.1845,-13.3835,-7.3055,-2.1571,-9.9923,-2.0091,5.2355,-9.0605,-0.7947,2.4221,4.1968,-1.5002,3.8994,5.3796,11.8688,9.1228,-8.8805,-11.9117
2808.5938,-11.3455,-4.2489,-15.0783,-6.6375,-3.7676,-9.4238,4.1266,5.8440,-12.5049,3.2910,-1.2630,-1.4995,-3.8481,0.3126,6.3491,10.9566,6.5337,-9.8507,-14.7175
2812.5000,-9.4002,-3.2851,-14.4142,-4.6336,-4.8578,-4.4546,9.9728,7.6803,-13.6711,7.6615,-2.3085,-4.6494,-5.3428,-3.4882,3.7939,8.6222,2.8884,-9.5640,-15.4688
2816.4062,-6.4970,-0.4660,-11.2887,-1.8617,-5.3247,2.7882,12.6190,10.0288,-13.6837,10.4125,-1.4271,-4.4016,-6.5277,-7.4649,-1.4969,5.9010,-2.1654,-8.2705,-14.4042
2820.3125,-3.5024,3.5598,-6.0814,1.3885,-4.9592,8.6548,11.5774,12.2011,-13.2937,10.8968,0.5660,-1.3054,-7.2669,-11.2368,-5.9188,4.2488,-7.9236,-5.9136,-11.7660
2824.2188,-0.6462,8.0474,0.4391,5.2866,-3.4181,10.6970,9.0545,14.0259,-12.4399,10.1110,3.2655,3.1547,-6.7283,-14.0858,-5.7627,4.0686,-12.8562,-2.1803,-7.5884
2828.1250,2.4871,12.5349,7.3255,10.2167,-0.4369,9.5238,8.2284,15.8552,-10.5598,9.8773,6.6412,7.5554,-4.0459,-15.2317,-0.2921,4.2392,-15.5211,3.1800,-1.8611
2832.0312,6.4310,16.9590,13.7071,16.2775,3.8566,8.2940,10.8285,18.0779,-7.3300,11.4340,10.6282,11.3213,0.8606,-14.2553,7.3540,3.0916,-15.5196,10.0022,5.0898
2835.9375,11.2211,21.4627,19.0172,22.9150,8.7933,10.2151,15.8334,20.5458,-3.1927,14.5025,14.8174,14.7654,6.9986,-11.4017,12.3304,0.0049,-13.7599,17.5821,12.4012
2839.8438,16.2004,26.1024,23.1160,28.9966,13.3507,16.0202,20.2198,22.4212,0.7872,17.5421,18.5735,18.4454,12.8271,-7.5319,11.7512,-3.7709,-11.7862,24.8931,18.9263
2843.7500,20.4071,30.7149,26.2423,33.3150,16.5909,23.4077,21.1374,22.6368,3.6290,18.9844,21.4858,22.4131,17.2121,-3.7087,6.9828,-5.8293,-10.6497,31.0134,23.8164
2847.6562,23.2203,35.0282,28.7861,35.1836,18.0623,28.8495,17.8630,20.6606,5.1370,18.4828,23.7282,25.9840,20.0678,-0.6625,2.6831,-4.3407,-10.1723,35.4939,26.9776
2851.5625,24.7323,38.8620,30.9762,34.7160,17.8960,30.2778,12.1571,16.9801,6.0115,17.2062,25.9687,28.2055,22.1757,1.5168,3.2485,0.5659,-9.1754,38.4378,28.9934
2855.4688,25.5439,42.1772,32.6592,32.6174,16.5602,28.4930,6.9230,12.9014,7.2488,16.9592,28.8453,28.6282,24.3368,3.2551,9.4030,6.8611,-6.5084,40.2639,30.5169
2859.3750,26.1720,44.8933,33.3298,29.6697,14.4845,26.2282,4.3091,9.7624,9.2710,18.8171,32.3948,27.7298,26.5459,5.0278,17.5957,12.0370,-2.0899,41.3236,31.5894
2863.2812,26.5845,46.6372,32.4190,26.2903,11.8459,25.7326,4.6558,8.1042,11.4421,22.3231,35.8739,26.6033,27.8646,6.8884,22.6887,14.7491,2.8440,41.6184,31.4479
2867.1875,26.2715,46.7032,29.6709,22.4500,8.6477,26.9152,6.8719,7.3872,12.3424,25.8252,38.1116,26.1010,27.1040,8.3369,21.8579,15.4247,6.4913,40.7736,29.0318
2871.0938,24.7997,44.3622,25.3512,17.9369,4.9779,27.5650,9.6646,6.4399,10.6154,27.6422,38.1412,26.0845,23.7834,8.6328,16.7030,15.4880,7.6822,38.2606,23.8513
2875.0000,22.3774,39.3637,20.1457,12.7077,1.1931,25.4053,12.4904,4.3073,5.8034,27.1407,35.6923,25.3967,18.6128,7.3380,11.9938,15.9678,6.6417,33.7289,16.5698
2878.9062,19.9234,32.2824,14.8299,7.0535,-2.1448,20.2209,15.5095,0.9028,-1.3653,24.9538,31.2697,22.6554,13.1300,4.7046,12.0898,16.6631,4.7764,27.2801,8.8360
2882.8125,18.5377,24.4308,9.9627,1.5011,-4.5386,14.2657,18.7753,-2.9543,-9.3593,22.2987,25.8644,17.3392,8.7733,1.6201,17.7945,16.4651,3.6760,19.5657,2.4402
2886.7188,18.7688,17.3542,5.8233,-3.4086,-5.8192,10.6110,21.5442,-6.0781,-16.5803,20.0473,20.5453,10.3650,6.0800,-0.8747,25.9477,14.4220,4.0787,11.6680,-1.6355
2890.6250,20.2492,12.2116,2.5931,-7.2703,-6.2035,10.7963,22.4263,-7.6132,-21.9823,18.3039,16.1591,3.6817,4.5625,-2.1849,31.8655,10.5733,5.5205,4.7926,-3.6383
2894.5312,21.9827,9.4045,0.5636,-9.8195,-6.1131,13.6923,20.3214,-7.4259,-25.2887,16.7253,13.1914,-0.8944,3.2701,-2.4866,32.6152,5.8962,6.8439,-0.1331,-4.6841
2898.4375,23.0452,8.6173,0.1180,-10.8880,-5.9004,16.4574,15.3812,-6.0089,-26.8411,15.1555,11.7209,-2.7994,1.5519,-2.5667,28.6789,1.5514,7.1071,-2.8020,-5.9102
2902.3438,23.1441,9.1462,1.4394,-10.4342,-5.6792,16.7548,9.1921,-4.0731,-27.2908,13.9244,11.4171,-2.9898,-0.5385,-3.2902,23.0213,-1.8056,6.2084,-3.6365,-7.7353
2906.2500,22.6266,10.2479,4.1673,-8.6630,-5.3528,14.4203,3.9855,-2.1676,-27.3161,13.5305,11.6293,-3.1526,-2.4095,-5.0475,18.6286,-4.0608,4.8266,-3.5650,-9.6864
2910.1562,22.0013,11.3206,7.3308,-6.0979,-4.7815,11.3061,1.4273,-0.5602,-27.4073,14.0383,11.6333,-4.4325,-3.4310,-7.5426,16.5701,-5.1560,3.8237,-3.5381,-10.8300
2914.0625,21.4332,11.9287,9.7171,-3.4656,-3.9434,9.5682,1.8121,0.6420,-27.7077,14.7998,10.9776,-6.6225,-3.3387,-10.0448,15.9057,-4.7472,3.6163,-4.0357,-10.4425
2917.9688,20.6581,11.8114,10.4972,-1.3977,-2.9799,9.9051,4.1324,1.3230,-27.9485,14.8148,9.7313,-8.4221,-2.2863,-11.9167,15.0968,-2.5069,3.9633,-4.8666,-8.4613
2921.8750,19.3562,10.9639,9.7074,-0.1354,-2.1141,11.1907,6.8407,1.3251,-27.5725,13.4473,8.4270,-8.5482,-0.6196,-13.0410,13.4491,1.1515,4.2463,-5.4008,-5.4628
2925.7812,17.5985,9.7275,8.2491,0.5463,-1.5039,11.6928,8.7107,0.5795,-26.0687,10.8657,7.6909,-6.8103,1.3667,-13.8366,11.3786,4.7243,3.9555,-5.0821,-2.2479
2929.6875,15.9068,8.7381,7.3900,1.1422,-1.1108,10.7319,9.2902,-0.7134,-23.3514,7.8099,7.8004,-4.2749,3.5037,-14.8389,9.5462,6.2536,3.0123,-3.8522,0.6652
2933.5938,14.8222,8.6594,8.0865,2.1133,-0.6336,9.3209,8.8518,-2.0096,-19.9034,4.8971,8.4999,-2.3646,5.6857,-16.1312,7.9435,4.6974,1.7567,-2.1604,3.3330
2937.5000,14.3493,9.8187,10.5376,3.7167,0.4508,9.2600,8.0845,-2.5335,-16.5093,2.1230,9.2220,-1.6161,7.8239,-17.0485,5.9206,0.9856,0.7005,-0.5418,6.3148
2941.4062,13.8042,11.9808,14.1886,6.0599,2.7163,11.4974,7.7894,-1.5507,-13.7180,-0.9463,9.5447,-1.1458,9.8965,-16.4202,3.0994,-2.2579,0.2702,0.8994,10.2881
2945.3125,12.2799,14.4340,18.0845,9.2361,6.4973,15.1686,8.6366,1.3021,-11.4339,-4.4364,9.5230,0.6547,12.0098,-13.2624,0.1715,-2.3822,0.6878,2.6515,15.5516
2949.2188,9.4045,16.3494,21.2900,13.3010,11.5826,18.1288,10.9014,5.7598,-8.9978,-7.5906,9.6300,4.6740,14.3304,-7.4975,-1.3633,1.3412,1.9798,5.3967,21.6726
2953.1250,5.7656,17.1838,23.1502,18.0144,17.0765,18.5385,14.1927,10.8703,-5.7502,-9.0151,10.3673,10.0497,16.8692,-0.2101,-0.4290,6.9743,4.0186,9.3028,27.4903
2957.0312,2.6028,16.8840,23.3661,22.5623,21.5932,16.2148,17.3961,15.2163,-1.6523,-7.7085,11.8648,14.4759,19.2920,6.7865,2.5259,11.0745,6.5387,13.5619,31.5346
