Time,Fp1,F3,C3,P3,O1,F7,T3,T5,Fz,Fp2,F4,C4,P4,O2,F8,T4,T6,Cz,Pz
0.0000,2.9706,3.1880,-0.8332,2.8676,-4.4231,4.5763,-1.0976,4.9464,1.9456,8.1976,-4.0272,2.3005,-0.9996,0.8231,-3.6268,0.2068,-2.4673,4.2956,-2.8724
3.9062,1.1136,0.9198,-1.9887,2.7268,-4.0109,2.4334,-2.8021,5.2774,0.3599,5.5183,-2.9378,-0.3741,-1.4831,0.2718,-3.4126,-1.3344,-3.0947,1.8375,-4.5907
7.8125,0.8250,0.3792,-2.5997,1.8429,-2.7811,1.4870,-4.2458,4.9231,0.2868,3.8359,-1.9952,-2.4142,-1.1525,-0.6384,-3.0018,-2.2385,-2.5806,-0.9280,-6.9022
11.7188,1.9769,1.4105,-2.5966,0.5308,-0.6155,2.4886,-5.8929,4.5568,1.7256,3.9057,-1.7239,-3.4725,0.1482,-0.7509,-2.5821,-2.1230,-0.5583,-2.8834,-9.0276
15.6250,2.9136,2.1918,-2.6263,-0.7874,2.0898,4.4760,-8.1783,4.8189,3.2309,4.8381,-2.3917,-4.2720,1.8225,0.8341,-2.5130,-1.3242,2.5866,-3.6856,-10.4621
19.5312,1.5945,0.4492,-3.5272,-1.9295,4.6076,5.1078,-11.0230,5.6250,2.9007,4.6078,-3.8797,-5.9670,2.9171,4.0172,-2.9879,-0.6783,5.9982,-3.9676,-11.1871
23.4375,-2.8140,-4.7965,-5.5230,-3.0731,6.3053,2.1694,-13.7187,6.0219,-0.0950,1.5077,-5.7075,-9.0639,2.8443,7.5994,-3.7547,-0.9558,8.9021,-4.7204,-11.4584
27.3438,-9.1294,-12.2729,-7.7988,-4.5140,7.0127,-4.7377,-15.2379,4.8170,-4.6399,-4.5217,-7.1691,-12.7912,1.8700,9.9711,-4.1757,-2.3574,10.9980,-6.3474,-11.3857
31.2500,-14.7947,-19.0804,-8.8740,-6.2349,7.0672,-13.5609,-14.7408,1.5790,-8.2298,-11.6838,-7.5392,-15.4789,0.9634,10.1557,-3.6404,-4.4148,12.4280,-8.1706,-10.6895
35.1562,-17.5128,-22.5071,-7.5776,-7.6603,7.0198,-20.7720,-11.9794,-2.7724,-8.6463,-17.3811,-6.3260,-15.7146,1.1029,8.4725,-2.0272,-6.3226,13.4250,-8.8307,-8.8678
39.0625,-16.6398,-21.7311,-3.9377,-7.8848,7.2348,-23.3859,-7.4377,-6.3456,-5.5205,-19.7401,-3.5154,-13.4043,2.5625,6.3187,0.1729,-7.4267,13.9971,-7.3105,-5.6626
42.9688,-13.3082,-18.1803,0.6791,-6.3133,7.6851,-20.6948,-2.2094,-7.4811,-0.5787,-18.5171,0.3189,-9.9146,4.7193,5.1853,2.2096,-7.5255,13.9308,-3.8041,-1.4544
46.8750,-9.2756,-14.3398,4.3079,-3.2918,8.0652,-14.5786,2.3188,-5.9677,3.6401,-14.8552,4.1778,-7.1721,6.5149,5.5877,3.6509,-6.8359,13.0758,0.2503,2.7556
50.7812,-5.5052,-11.9609,5.5052,-0.2166,8.0874,-8.2366,4.9202,-3.3567,5.6195,-10.2683,7.0857,-6.3902,7.1890,6.6717,4.7169,-5.7446,11.5997,3.0171,5.8130
54.6875,-1.6542,-11.0267,4.1007,1.0857,7.6902,-4.2461,5.0250,-2.0528,5.8320,-5.7499,8.6191,-7.3564,6.7182,6.7872,6.0766,-4.5865,9.9272,3.3757,7.0350
58.5938,3.1586,-10.1698,1.1435,-0.5917,7.0020,-3.2341,3.0527,-3.7403,6.1089,-1.6370,9.1715,-8.7527,5.6604,4.6297,8.2466,-3.5919,8.3822,1.5082,6.5788
62.5000,9.0407,-8.0738,-1.8024,-5.0137,6.1328,-3.9185,0.3216,-8.2288,7.9679,1.8882,9.7131,-9.1853,4.6062,0.1498,11.0759,-2.9455,6.8656,-1.3939,5.3163
66.4062,14.6753,-4.6537,-3.4608,-10.4954,5.0341,-4.2912,-1.5740,-13.5453,11.2850,4.3318,11.1326,-8.1038,3.7400,-5.3935,13.7625,-2.7971,4.9193,-3.9903,4.3097
70.3125,17.9765,-1.0867,-3.2542,-14.7969,3.5926,-3.0060,-1.6575,-17.2363,14.4030,5.0059,13.5859,-5.9630,2.8768,-10.2376,15.4209,-3.1524,2.2077,-5.5395,4.2312
74.2188,17.5693,1.2265,-1.2482,-16.4026,1.8932,-0.0683,-0.1740,-17.9791,15.5627,3.6302,16.3348,-3.6390,1.8933,-13.1761,15.7577,-3.7428,-0.9521,-6.0460,5.0753
78.1250,13.8671,1.8001,2.0900,-15.3786,0.3918,3.4394,1.5910,-16.3759,14.4312,0.7668,18.2426,-1.6828,1.1054,-14.1310,15.2892,-4.0586,-3.5036,-5.8723,6.2971
82.0312,8.8072,1.3036,6.0251,-13.2431,-0.2257,6.1749,2.2649,-14.3933,12.3975,-2.4722,18.6017,-0.0415,1.1864,-13.8986,14.8874,-3.6115,-4.1995,-5.2922,7.2394
85.9375,4.4021,0.7325,9.5663,-11.9221,0.5315,7.2439,1.4834,-13.8755,11.3357,-5.3258,17.6776,1.6032,2.6310,-13.3561,14.9981,-2.2796,-2.4660,-4.4102,7.5590
89.8438,1.2660,0.3044,11.5991,-12.4714,2.5411,6.4287,0.2845,-15.2123,11.8464,-8.1138,16.5254,3.2820,5.1957,-12.7884,15.1764,-0.4655,1.0435,-3.4411,7.4003
93.7500,-1.6624,-0.8668,11.3016,-14.4052,4.9943,4.0358,0.4022,-17.1060,12.4914,-12.0198,16.1800,4.5258,7.8171,-11.8404,14.3731,1.0970,4.6641,-2.9488,7.2384
97.6562,-5.9427,-3.9392,8.6754,-16.0685,6.7714,0.6816,2.8984,-17.5695,10.7808,-17.9082,16.8229,4.7001,9.1423,-10.0669,11.8124,1.7833,6.6154,-3.6685,7.5112
101.5625,-11.9467,-9.0134,4.7529,-15.7906,7.0354,-2.8079,7.1558,-15.4015,5.2302,-25.0537,17.5924,3.5748,8.3119,-7.5734,7.7995,1.4523,5.9828,-5.9444,8.2711
105.4688,-18.0645,-14.4763,1.1659,-13.0370,5.6446,-5.4778,11.0624,-11.0722,-3.1307,-30.9164,17.2290,1.6003,5.4218,-5.1881,3.7920,0.4792,3.1205,-9.2513,9.0704
109.3750,-21.5231,-17.7084,-0.7545,-8.7882,3.1182,-6.4902,12.3415,-6.4086,-11.0748,-32.3888,15.0945,-0.3738,1.3455,-3.9978,1.6024,-0.5669,-0.7566,-12.2923,9.1693
113.2812,-20.2562,-16.7429,-0.7348,-4.9125,0.2238,-5.5178,10.0760,-3.3533,-15.1980,-27.7877,11.7735,-1.7035,-2.8980,-4.6040,2.2578,-1.3290,-4.4293,-13.7333,7.9715
117.1875,-14.4190,-11.6493,0.4135,-2.9838,-2.4846,-3.0063,5.2912,-2.7180,-14.1809,-18.1699,8.7551,-2.3553,-6.7056,-6.6783,5.3250,-1.8204,-7.3263,-13.0849,5.4427
121.0938,-6.4121,-4.5708,1.5374,-3.3579,-4.8535,-0.0031,0.1776,-3.8115,-9.6179,-6.9479,7.3902,-2.7695,-9.9689,-9.1547,9.1820,-2.2235,-9.5398,-11.0571,2.2424
125.0000,0.5695,1.6251,2.0522,-5.1186,-6.9770,2.4449,-3.4049,-5.1500,-4.8317,2.0011,7.9012,-3.3230,-12.7055,-10.8991,12.0273,-2.5334,-11.3150,-9.0793,-0.5636
128.9062,4.3445,5.0638,2.2321,-6.8770,-8.9105,3.9294,-4.9630,-5.6639,-2.6156,6.4263,9.2048,-3.8869,-14.6701,-11.3380,12.8994,-2.3970,-12.5337,-8.3258,-2.0898
132.8125,4.6193,5.6826,2.6025,-7.8150,-10.5242,4.8536,-5.2109,-5.4842,-3.6012,6.5621,9.7049,-3.8918,-15.3647,-10.5941,12.0140,-1.3362,-12.6660,-8.9748,-2.1752
136.7188,2.4729,4.6558,2.9673,-8.2057,-11.5902,5.9559,-5.0254,-5.7386,-6.3584,4.2856,8.4620,-2.8616,-14.4745,-9.0984,10.2754,0.7968,-11.2266,-10.2476,-1.5171
140.6250,-0.8811,3.0587,2.0305,-9.0422,-11.9582,7.5203,-4.5718,-7.5365,-8.9303,1.3930,5.8540,-0.9523,-12.3251,-7.0670,8.4404,3.5163,-8.3213,-11.1471,-1.2564
144.5312,-4.9265,0.9661,-1.8304,-11.0621,-11.6041,8.9039,-3.4394,-10.9178,-10.4329,-1.5995,3.2266,0.9855,-9.8863,-4.3135,6.6151,5.8496,-4.7862,-11.2680,-2.2370
148.4375,-9.6615,-2.2797,-9.0618,-13.9075,-10.4960,8.8031,-1.6196,-14.5582,-11.4536,-5.2769,1.8126,1.9095,-8.2183,-0.5499,4.4294,6.8855,-1.7703,-11.0210,-4.4155
152.3438,-14.7881,-6.9633,-17.8946,-16.0794,-8.4476,6.1238,-0.2691,-16.4695,-13.0958,-10.1159,1.7568,1.2653,-7.7533,4.1085,1.6450,6.3405,-0.0748,-11.1273,-6.8349
156.2500,-19.2257,-12.1340,-24.8128,-15.7822,-5.1929,0.8456,-1.2734,-15.2240,-15.6673,-15.4334,1.9990,-0.6883,-7.9991,8.9141,-1.3910,4.7192,0.2419,-11.8532,-8.2161
160.1562,-21.5471,-15.8640,-26.5005,-12.1100,-0.7139,-5.7363,-5.6935,-10.8658,-18.2210,-19.4754,1.0987,-3.1359,-7.9412,12.7887,-3.8649,2.9444,-0.2754,-12.6601,-7.7835
164.0625,-20.9997,-16.5116,-22.0250,-5.7577,4.4351,-11.5557,-12.3443,-4.8994,-19.3156,-20.5806,-1.6273,-5.2925,-6.8536,14.9634,-5.0869,1.7331,-0.9756,-12.5749,-5.7648
167.9688,-18.1345,-13.9573,-13.6408,1.2624,9.1600,-14.7231,-17.9211,0.6175,-18.2399,-18.3897,-5.5101,-6.8204,-4.8731,15.4548,-5.0266,1.1858,-1.5131,-10.9596,-3.2145
171.8750,-14.3463,-9.7338,-5.4796,6.7407,12.3357,-14.2799,-18.9744,4.2592,-15.5469,-14.0204,-8.8995,-7.7762,-2.8666,14.9838,-4.3025,0.8706,-1.8673,-8.0193,-1.2916
175.7812,-10.6196,-5.8751,-0.9258,9.5027,13.4978,-10.4077,-14.4421,5.9222,-12.4071,-9.0452,-10.2022,-8.2246,-1.6979,14.3753,-3.6013,0.2899,-2.0561,-4.6153,-0.5066
179.6875,-6.6019,-3.4025,-0.5177,9.9470,13.1831,-4.1763,-6.7446,6.6161,-9.4082,-4.1899,-8.8247,-7.9556,-1.5002,13.9002,-3.0114,-0.6776,-1.9164,-1.5550,-0.4753
183.5938,-0.9834,-1.7157,-1.8990,9.5585,12.5736,2.8353,-0.3635,7.5616,-5.9792,1.0377,-5.3925,-6.6206,-1.5696,13.0820,-1.8689,-1.7149,-1.2305,1.0148,-0.3325
187.5000,6.9295,0.5714,-1.8569,9.7584,12.6205,8.8295,1.2461,9.2366,-1.0719,7.3819,-1.1947,-4.1872,-0.9800,11.1288,0.6870,-2.4067,-0.0921,3.5737,0.5273
191.4062,15.7203,4.0391,1.0862,10.8918,13.2817,12.0560,-1.8711,11.0064,5.4437,14.3564,2.6504,-1.2763,0.5920,7.6588,4.8484,-2.6577,0.9025,6.5772,1.9477
195.3125,21.9037,7.5015,5.4942,12.0345,13.5040,11.2386,-6.2718,11.5499,11.9815,19.6617,5.6950,0.9999,2.5375,3.1550,9.6724,-2.8127,0.9663,9.7713,3.1210
199.2188,21.8708,8.6069,8.1498,11.7282,12.0537,6.1367,-7.8132,9.7736,15.9575,20.2904,8.0731,1.6581,3.7885,-1.2085,13.4678,-3.3651,-0.1880,12.1189,3.2138
203.1250,14.5285,5.6494,6.6273,9.1132,8.6284,-2.0999,-4.8994,5.6095,15.6533,14.7045,10.0497,0.4666,3.7295,-4.2372,14.8372,-4.5035,-1.8372,12.4830,2.0279
207.0312,2.6349,-0.8307,1.3182,4.6695,4.3946,-11.2008,0.2864,0.1971,11.7523,4.4299,11.6563,-1.9304,2.7922,-5.3774,13.6360,-5.8910,-2.4586,10.5536,0.2000
210.9375,-8.4155,-8.0282,-4.6716,0.0608,1.4587,-18.7292,3.5817,-4.6476,7.1586,-6.3490,12.6814,-4.5073,2.2063,-4.8976,11.1132,-6.8794,-0.6903,7.2465,-1.2012
214.8438,-13.7743,-12.6208,-7.7024,-2.8175,1.5602,-23.2358,2.2676,-7.3497,5.0142,-13.1757,12.9180,-6.5853,3.0601,-3.5128,9.0702,-6.9907,3.5873,4.1813,-1.3770
218.7500,-12.1617,-13.0595,-6.2167,-2.9565,4.8901,-24.8634,-2.6449,-7.3472,6.3371,-14.1213,12.3633,-8.2215,5.4032,-1.8110,8.6073,-6.2721,8.8977,2.5756,-0.2960
222.6562,-6.5822,-10.6789,-1.8178,-0.8057,9.8927,-24.9619,-7.1591,-5.3068,9.1463,-10.9974,11.1699,-9.9643,8.1253,0.0433,9.3565,-5.2313,12.9448,2.3808,1.3502
226.5625,-2.1800,-8.7449,1.9834,2.0407,14.2267,-24.9843,-7.5130,-2.7019,9.8742,-8.0588,9.4421,-12.2046,9.7460,2.1331,9.7756,-4.4143,14.0816,2.3309,2.6656
230.4688,-2.7357,-10.1071,2.3751,3.8017,16.2234,-25.4786,-3.2686,-1.0195,6.0799,-9.0851,7.1379,-14.6819,9.5278,4.3687,8.3127,-3.9842,12.4488,0.8919,3.1590
234.3750,-8.2739,-15.1790,-0.7652,3.4940,15.8306,-25.9189,2.2912,-1.0319,-1.5977,-14.8992,4.2308,-16.5685,8.0522,6.2592,4.6143,-3.6543,9.9244,-2.5894,3.0286
238.2812,-15.3959,-21.7057,-4.9424,1.3548,14.4237,-25.4373,4.8578,-2.5000,-9.7762,-23.0266,0.9930,-17.0675,6.7997,7.1268,-0.0970,-3.0192,8.8580,-7.3799,2.9629
242.1875,-19.9315,-26.4169,-7.0211,-1.4861,13.6933,-23.7853,2.7259,-4.4300,-14.7206,-29.6035,-1.9127,-16.0376,7.0418,6.6031,-3.7583,-1.9851,10.4659,-11.8440,3.6271
246.0938,-19.8546,-27.2663,-5.5357,-3.8032,14.4581,-21.6754,-1.6359,-5.7121,-14.9563,-32.0263,-3.7214,-14.1431,8.8775,4.9736,-4.8087,-0.9120,14.0316,-14.5258,5.1839
250.0000,-16.3536,-24.6027,-1.6007,-5.0116,16.2323,-20.1948,-3.4561,-5.7846,-12.1111,-30.4196,-4.0785,-12.4179,11.1321,3.0351,-3.1973,-0.3333,17.4703,-15.0273,7.1368
253.9062,-12.4681,-20.5347,2.1444,-5.4164,17.7566,-19.8027,0.4442,-4.9643,-9.4060,-27.0238,-3.3651,-11.6006,12.1745,1.5451,-0.3644,-0.4902,18.8139,-14.0960,8.5652
257.8125,-10.5715,-17.1675,3.5959,-5.8931,17.9815,-19.8089,8.8579,-4.2652,-9.0692,-24.2219,-2.5080,-11.7479,11.0315,0.6986,1.7736,-1.0890,17.5055,-12.9627,8.6027
261.7188,-10.7388,-15.1766,2.6046,-7.2626,16.7288,-18.8461,16.8119,-4.8059,-10.7463,-22.8559,-2.3359,-12.3650,7.9913,0.0728,2.1074,-1.5130,14.5778,-12.4996,6.9048
265.6250,-11.1836,-13.7665,0.7395,-9.7623,14.6032,-15.9958,19.2015,-7.1320,-12.1145,-22.0752,-2.9371,-12.8616,4.3104,-0.9014,0.9982,-1.3265,11.6591,-12.8100,3.8809
269.5312,-10.2145,-11.8471,-0.2359,-12.8966,12.3625,-11.6327,14.6054,-10.8309,-11.0923,-20.6229,-3.5273,-12.9095,1.3190,-2.3308,-0.1075,-0.6502,9.6434,-13.4348,0.5785
273.4375,-7.9801,-9.2804,0.1817,-15.6902,10.3446,-7.2492,6.2817,-14.6613,-7.7666,-18.3190,-2.9788,-12.4376,-0.3831,-3.6381,0.2015,-0.0780,8.0704,-13.8611,-1.7383
277.3438,-6.5403,-7.0887,1.0385,-17.1447,8.4116,-4.3680,-0.4044,-17.1252,-4.4443,-16.4488,-0.6608,-11.3695,-1.0929,-3.9456,2.2552,-0.1888,5.6671,-13.8554,-2.1356
281.2500,-8.2381,-6.4889,1.0457,-16.6335,6.3702,-3.4282,-2.0319,-17.1666,-3.8193,-16.7618,3.0180,-9.4541,-1.5243,-2.7764,5.0510,-1.0568,1.5750,-13.4024,-0.4228
285.1562,-13.7418,-7.6649,-0.0411,-14.0736,4.4041,-3.5784,0.5675,-14.6220,-6.7945,-19.9758,6.7688,-6.4293,-2.1478,-0.5015,6.9352,-2.1759,-3.7380,-12.4427,2.7914
289.0625,-21.3620,-9.4158,-1.0327,-9.8740,3.0758,-3.5464,3.4780,-10.2206,-11.7517,-25.0603,9.1800,-2.4088,-2.8766,1.8491,6.7078,-2.8731,-8.6085,-10.7771,6.4442
292.9688,-28.1697,-10.0486,-0.2840,-4.7720,2.8661,-2.8324,3.2309,-5.2034,-15.8383,-29.8914,9.5385,1.8825,-3.2799,3.2804,4.3832,-2.8609,-11.2575,-8.3042,9.5753
296.8750,-31.9800,-8.7804,2.7727,0.3350,3.6587,-2.1730,-0.2951,-0.8279,-17.1727,-32.7150,8.1598,5.3243,-3.0618,3.4801,1.1194,-2.4535,-10.9933,-5.3769,11.7525
300.7812,-32.6184,-6.4364,6.8632,4.5409,4.6530,-2.8361,-3.9625,1.9889,-16.1467,-33.2164,6.0504,6.9982,-2.3709,2.9096,-1.5755,-2.2433,-8.6456,-2.8723,13.0994
304.6875,-31.5388,-4.7906,9.6021,7.1132,4.8442,-5.3197,-4.2526,2.8113,-14.8018,-32.3654,4.2070,6.7491,-1.6985,2.2936,-2.7756,-2.5071,-5.9421,-1.7665,13.9356
308.5938,-30.2476,-5.0433,9.2251,7.7342,3.7347,-8.5832,-0.3956,1.7101,-14.8804,-31.2550,3.0657,5.2791,-1.4830,1.9769,-2.5909,-2.8671,-4.3293,-2.4428,14.3366
312.5000,-28.9321,-6.6981,5.9840,6.7275,1.7374,-10.5327,4.9340,-0.7135,-16.2414,-29.9813,2.4339,3.6867,-1.7627,1.7259,-1.9069,-2.5443,-4.1029,-4.2591,13.9942
316.4062,-26.4484,-7.8251,2.0751,5.0917,-0.0420,-9.4465,7.9250,-3.3330,-16.9905,-27.5456,1.8415,2.7898,-2.1449,1.1526,-1.6833,-1.0454,-4.4181,-5.7854,12.5229
320.3125,-21.6290,-6.5837,0.0913,4.1890,-0.4912,-5.2198,6.9123,-4.7035,-15.2043,-22.8697,0.9629,2.7240,-2.0929,0.3595,-2.3402,1.2755,-4.0644,-5.6431,9.9646
324.2188,-14.7412,-2.8187,1.1299,5.1124,0.8344,0.5662,3.7671,-3.5972,-10.7758,-16.0562,-0.2060,3.0653,-1.3039,0.1559,-3.6232,3.2883,-2.3715,-3.4041,7.0277
328.1250,-7.7983,1.5768,3.9646,8.0097,3.4821,5.7823,2.1432,0.2753,-5.7983,-8.7971,-1.4714,3.3003,0.0751,1.5223,-4.9438,3.8154,0.3903,0.0800,4.7528
332.0312,-3.3838,3.9021,5.8922,11.7826,6.3977,9.1454,4.0491,5.7948,-3.1158,-3.5074,-2.6635,3.2156,1.4922,4.6733,-5.8603,2.4939,3.2949,3.1672,3.7645
335.9375,-2.8837,2.5997,4.6222,14.4604,8.4864,10.7455,7.7195,10.6797,-4.1844,-1.7876,-3.7311,2.9014,2.2248,8.5140,-6.3250,0.0995,5.4081,4.4096,3.6676
339.8438,-5.5135,-1.5605,-0.1623,14.1744,9.0798,11.3742,8.7397,12.5486,-7.9541,-3.3608,-4.6579,2.4386,1.6705,11.0878,-6.5678,-1.9577,6.2961,3.3708,3.1347
343.7500,-8.8868,-5.9693,-6.6457,10.2472,8.1315,11.3844,3.6506,10.3112,-11.6477,-6.2702,-5.3471,1.6283,-0.3977,10.8612,-6.7913,-2.6164,6.1170,0.7586,0.7573
347.6562,-10.6523,-7.9737,-12.1324,3.7416,6.1764,10.2095,-6.8847,5.0255,-12.7824,-8.1648,-5.6399,0.0663,-3.6626,7.9560,-6.9736,-1.8953,5.3765,-2.1447,-3.8764
351.5625,-9.9245,-6.6318,-14.7245,-2.9381,4.1726,7.0443,-18.0226,-0.4565,-10.8245,-7.7181,-5.4750,-2.4692,-7.2402,4.3490,-6.9368,-0.8244,4.6235,-4.2883,-9.6618
355.4688,-7.4798,-3.1509,-14.2426,-7.2436,3.2513,2.0751,-23.9722,-3.0125,-7.2391,-5.2023,-5.0213,-5.6657,-9.8911,2.7405,-6.5788,-0.6436,4.2801,-5.3214,-14.4639
359.3750,-4.7387,0.2276,-11.8815,-7.8056,4.3295,-2.9575,-22.0285,-1.0881,-4.0442,-1.9482,-4.6090,-8.7115,-10.4803,4.7911,-6.0251,-1.8941,4.5925,-5.4628,-16.3387
363.2812,-2.5068,1.9540,-9.0614,-5.0836,7.6331,-5.5953,-14.2598,4.3151,-2.1631,0.7435,-4.4661,-10.7478,-8.5307,9.9589,-5.5370,-4.0910,5.5913,-4.9797,-14.6685
367.1875,-0.5373,2.1633,-6.4408,-0.9414,12.3728,-4.4227,-5.6194,10.1985,-0.9224,2.3639,-4.4732,-11.3943,-4.5511,15.8006,-5.2526,-6.1845,7.0360,-3.7593,-10.4298
371.0938,1.8201,2.2451,-3.7821,2.5747,16.9064,-0.3654,-0.1361,13.3739,1.0074,3.1511,-4.1804,-10.9218,0.1404,19.5676,-5.0028,-7.3920,8.4529,-1.3370,-5.4390
375.0000,4.5915,3.4466,-0.5922,4.4627,19.4943,3.6350,1.6953,12.3826,4.1764,3.4700,-3.1263,-9.9273,4.0942,19.9822,-4.3975,-7.7120,9.3721,2.6416,-1.1526
378.9062,6.7837,5.6920,3.1343,5.2210,19.3209,4.4944,2.3467,8.2934,7.7298,3.2748,-1.2328,-8.7889,6.5395,17.9544,-3.1441,-7.7357,9.6825,7.8981,2.1153
382.8125,7.0421,7.5600,6.7292,6.2857,17.1272,1.0675,4.2779,3.8976,10.1270,2.1337,1.0544,-7.3747,7.7931,15.7799,-1.3385,-7.9759,9.8285,13.3699,5.0629
386.7188,4.8164,7.3944,9.3294,8.8905,14.9250,-5.1313,7.3171,1.8838,10.5246,-0.2671,3.0287,-5.2664,8.9537,15.4652,0.5343,-8.3396,10.6045,17.5889,8.5731
390.6250,1.0051,4.6291,10.5434,13.1441,14.8390,-11.1031,8.7495,3.2255,9.5552,-3.6608,4.2112,-2.3137,11.0572,17.4167,1.9276,-8.2230,12.5863,19.3693,12.8935
394.5312,-2.5411,0.2791,10.7001,17.9214,17.7677,-14.4996,6.0085,6.7918,8.7742,-7.2429,4.6789,0.9716,14.2733,20.3843,2.6408,-7.1503,15.5840,18.3691,17.4305
398.4375,-4.3105,-3.7478,10.4757,21.5661,22.7701,-15.0678,-0.4927,10.3059,9.2331,-10.2093,4.9525,3.5654,17.7268,22.5584,2.9676,-5.3762,18.5709,15.1801,21.2140
402.3438,-4.1813,-5.9423,10.2521,22.8640,27.6343,-14.3754,-7.0405,11.8726,10.4340,-12.3235,5.5122,4.5640,20.0830,22.8762,3.4370,-3.8723,20.2362,10.9245,23.5606
406.2500,-3.3696,-6.0889,9.7985,21.6322,30.2657,-14.2064,-9.3027,11.0147,10.6310,-14.0072,6.3311,3.8201,20.4726,21.5323,4.3335,-3.6316,19.8245,6.6494,24.3870
410.1562,-3.3140,-5.1516,8.5767,18.6159,29.9372,-15.0480,-5.8276,8.6353,8.3022,-15.8531,6.8319,2.0628,19.0716,19.4115,5.3940,-4.8324,17.6481,2.9082,24.0186
414.0625,-4.4166,-4.3566,6.4111,14.8973,27.5427,-15.8943,0.6741,6.1296,3.5871,-17.9626,6.3457,0.3754,16.9121,17.0557,5.9652,-6.5744,14.8643,-0.2562,22.8003
417.9688,-5.6835,-4.2660,3.9178,11.2966,24.7316,-15.3866,5.5124,4.4018,-1.5426,-19.6774,4.7378,-0.5853,15.0856,14.1130,5.5436,-7.4725,12.6549,-3.0097,20.9391
421.8750,-5.5673,-4.5465,2.2471,8.1311,22.6270,-13.1663,5.9478,3.4452,-4.6012,-19.9704,2.6847,-1.0268,13.9616,9.7470,4.2867,-6.6902,11.4227,-5.3966,18.6901
425.7812,-3.3289,-4.5030,2.2628,5.3482,21.1098,-10.2119,3.5380,2.6119,-4.3942,-18.2354,1.3259,-1.7688,13.0202,3.6317,3.0549,-4.6030,10.6224,-7.2500,16.5872
429.6875,0.1952,-3.8265,3.7849,2.7843,19.1725,-7.9265,2.7693,1.1929,-1.8887,-14.8856,1.4920,-3.4940,11.4082,-3.3613,2.8823,-2.5369,9.3511,-8.3788,15.3273
433.5938,3.0566,-2.8890,5.5509,0.3175,15.9954,-6.9004,6.9554,-1.1572,0.5476,-11.2956,3.0773,-6.0754,8.7589,-9.4349,4.2245,-1.7566,7.2135,-8.8255,15.2686
437.5000,3.5460,-2.3666,6.0356,-2.1112,11.8352,-6.5436,14.8206,-4.3359,0.9470,-9.0882,5.0661,-8.5020,5.6169,-12.9504,6.5519,-2.4887,4.7453,-8.9118,15.9701
441.4062,1.3958,-2.5596,4.5974,-4.4719,7.9898,-5.9188,20.8297,-7.8991,-0.8153,-9.2179,6.2577,-9.4626,3.1250,-13.4928,8.6400,-3.7576,3.0243,-8.9698,16.3053
445.3125,-2.0562,-3.0247,2.0967,-6.5402,5.8535,-4.9051,19.3342,-11.1555,-3.0257,-11.4191,6.1950,-8.1647,2.2099,-12.0826,9.4011,-4.1736,2.7604,-8.9440,15.2518
449.2188,-4.8144,-2.8515,0.4479,-7.8303,5.8136,-4.4389,9.3763,-13.2410,-3.5288,-14.3314,5.5988,-4.8135,2.8884,-10.3724,8.6727,-3.0468,3.5958,-8.2339,12.8113
453.1250,-5.5273,-1.3699,1.3133,-7.7678,6.8694,-5.4289,-3.7899,-13.3518,-1.4096,-16.1936,5.9221,-0.4607,4.2115,-9.4650,7.3679,-0.9317,4.2073,-6.0263,10.2525
457.0312,-4.2055,1.2673,4.8066,-6.1250,7.2921,-7.3061,-11.9608,-11.2021,2.2970,-15.7093,8.2687,3.5980,4.8725,-9.2593,6.8349,0.8404,3.1858,-2.0055,9.3056
460.9375,-1.9553,4.0712,9.1498,-3.4253,5.8413,-7.7563,-9.7585,-7.4570,5.3131,-12.6585,12.4163,6.4193,4.0239,-8.7748,7.8547,1.2635,0.0528,3.0381,10.7994
464.8438,-0.0965,5.7701,11.6256,-0.8877,2.6392,-4.3138,1.4395,-3.6825,5.6157,-8.0078,16.6730,7.6406,1.7346,-7.1046,9.9988,0.4982,-4.3385,7.2359,13.8088
468.7500,0.5993,5.5238,10.2897,0.2544,-0.9172,3.2159,14.4507,-1.5877,2.6107,-3.5058,18.7598,7.3324,-1.1646,-4.1805,11.8375,-0.2425,-8.3092,8.4846,16.1178
472.6562,0.0735,3.3361,5.3410,-0.3036,-3.0933,11.6000,21.4136,-1.9028,-2.7383,-0.9361,17.2017,5.7535,-3.6426,-0.7509,11.8905,0.3190,-10.3815,5.7009,15.8094
476.5625,-1.3454,-0.0187,-0.7923,-1.4560,-2.8963,15.7014,19.1931,-3.6968,-8.6851,-1.3187,12.3295,3.2810,-4.9929,2.3253,9.6704,2.4521,-10.0872,-0.3033,12.8271
480.4688,-3.2934,-3.3987,-4.7881,-1.2039,-0.5590,12.0113,11.0405,-4.7989,-13.6525,-4.3991,6.2107,0.5240,-5.0092,4.7946,6.0852,5.1341,-8.0402,-6.9920,9.2311
484.3750,-5.4211,-5.7356,-4.4015,1.9979,2.7990,1.6577,3.4853,-3.2305,-16.7198,-8.7017,1.5136,-1.6223,-3.8370,7.0940,2.8977,6.7951,-5.3398,-11.3567,7.7922
488.2812,-7.2390,-6.3347,0.1508,7.9501,5.9504,-9.6316,1.1326,1.2878,-17.5714,-12.2025,0.0036,-2.2199,-1.7623,9.7557,1.5971,6.5092,-2.8432,-11.5498,9.8692
492.1875,-8.1190,-5.0441,6.2595,14.4832,8.1696,-15.0269,3.4919,6.9105,-16.2899,-13.3440,1.6017,-0.7905,0.8515,12.7034,2.4372,4.6930,-0.8408,-7.8914,14.1693
496.0938,-7.6377,-2.3473,10.3996,18.6301,9.3247,-11.2752,6.1057,10.7837,-13.3438,-11.8557,4.5600,2.2631,3.5061,15.1197,4.2803,2.7651,0.7515,-2.6013,17.4261
500.0000,-6.0251,0.6633,10.0968,18.4981,9.5834,-1.1403,4.6914,11.0077,-9.7123,-8.8770,6.5846,5.6992,5.5918,16.0578,5.3298,2.0547,2.0130,1.5611,16.6071
503.9062,-4.2514,2.5697,5.1880,14.5338,9.1263,8.3484,-1.3052,8.0209,-6.7830,-6.2678,6.1568,8.0392,6.6162,15.2965,4.2483,2.8299,2.8698,2.8507,11.0746
507.8125,-3.5218,2.2032,-2.3177,9.2283,8.1287,10.7231,-8.6077,4.3189,-5.8057,-5.5095,3.2439,8.3962,6.5186,13.6785,0.9311,4.1968,3.2910,1.2987,3.1035
511.7188,-4.4725,-0.7118,-9.5652,5.4218,6.9217,4.5077,-13.2662,2.6453,-7.1562,-6.8975,-0.9482,6.9813,5.7801,12.5745,-3.5211,4.9037,3.5540,-1.7100,-3.6371
515.6250,-6.6957,-5.2602,-14.4386,4.4205,6.0291,-5.9760,-14.1432,3.9831,-9.9966,-9.5275,-4.8802,4.9164,5.1455,12.8552,-7.5364,4.3572,4.2068,-4.5906,-6.5221
519.5312,-9.0075,-9.6888,-16.4196,5.3038,5.9135,-13.9528,-13.6508,6.8794,-12.7172,-12.0218,-7.5710,3.4567,5.0923,14.1953,-9.9765,3.0217,5.6484,-6.5301,-5.5449
523.4375,-10.2600,-12.3016,-16.3214,5.9091,6.5961,-15.1016,-15.1554,8.6411,-13.9345,-13.4049,-8.9209,3.1410,5.4450,15.2998,-10.6348,1.9075,7.6588,-7.6153,-2.9476
527.3438,-10.0206,-12.3697,-15.2876,4.7014,7.5244,-10.3320,-19.4208,7.4872,-13.3134,-13.4772,-9.3832,3.4495,5.4816,14.9001,-10.0870,1.6190,9.3432,-8.1890,-1.3127
531.2500,-8.5531,-10.4473,-13.8787,2.0559,7.9072,-4.4793,-23.3333,3.9793,-11.5676,-12.4821,-9.3662,3.1899,4.5082,12.7345,-9.1085,1.7853,9.6558,-8.1306,-1.6479
535.1562,-6.1760,-7.8673,-11.8713,-0.0428,7.3331,-2.1632,-22.2053,0.6060,-9.6483,-10.4796,-8.8633,1.3311,2.4871,9.7327,-8.1175,1.3602,8.1673,-6.7684,-2.8942
539.0625,-2.6857,-5.7719,-8.7817,0.3744,6.1869,-4.1866,-13.8367,-0.1534,-7.8214,-7.0947,-7.5500,-2.2945,0.2080,7.2674,-7.0072,-0.4612,5.4730,-3.5375,-3.0962
542.9688,2.4794,-4.3840,-4.5714,3.6239,5.4756,-7.2712,-0.9014,2.2489,-5.4501,-1.9607,-5.1879,-6.8762,-1.1769,6.0974,-5.4077,-3.4775,2.8707,1.1947,-1.1733
546.8750,9.3425,-3.0436,0.0798,8.0371,6.1235,-7.1637,10.4944,6.0398,-1.7035,4.4876,-1.9554,-11.1281,-0.9361,5.8683,-3.1141,-6.5130,1.5073,5.9243,2.1579
550.7812,16.5597,-0.9472,4.1362,11.1970,8.2515,-2.4509,15.0904,8.5613,3.4120,10.6417,1.5601,-14.0201,0.7368,5.5625,-0.3474,-8.2345,1.6384,8.7411,4.9790
554.6875,21.6048,2.0117,6.8656,11.7554,11.0154,4.0594,12.2123,8.3644,8.6379,14.2981,4.6735,-15.2344,2.9044,4.5018,2.3158,-8.0980,2.5814,8.5352,5.7054
558.5938,22.1698,4.9748,8.2379,10.3827,13.1742,7.4868,5.9869,6.2820,12.1332,13.9534,6.9430,-15.0915,4.6368,3.0488,4.2606,-6.6743,3.4014,5.7840,4.2846
562.5000,17.8964,6.6464,8.7586,9.1179,13.9909,4.7738,1.8935,4.6432,12.7809,9.9033,8.2941,-14.0871,5.7633,2.4125,5.1631,-5.1147,3.7718,2.2959,2.1552
566.4062,11.0506,6.2118,8.9335,9.6742,13.7858,-2.8232,2.4819,5.3048,11.0884,4.2382,8.9049,-12.4372,7.0343,3.7144,5.1338,-4.2105,4.3022,0.0680,1.1283
570.3125,5.3747,3.9422,8.8639,12.0775,13.7060,-10.6121,5.7167,8.1102,8.9035,-0.4069,9.0303,-9.9710,9.5458,7.0784,4.6306,-3.8085,6.0484,0.0807,2.1848
574.2188,3.7164,1.0297,8.3276,14.7042,14.8647,-13.9608,7.1897,11.0100,8.0967,-2.5288,8.9423,-6.4141,13.8418,11.4777,4.2351,-3.0280,9.5818,1.8745,5.1113
578.1250,6.0895,-1.2065,7.2392,15.6188,17.4798,-11.6251,4.2320,11.6958,9.2113,-2.6503,8.9750,-1.8073,19.3585,15.4352,4.4214,-1.0677,14.3617,4.1182,9.0746
582.0312,9.6502,-2.1409,6.0155,14.0668,20.6422,-6.3740,-1.5804,9.3796,11.1356,-2.7668,9.4996,3.2707,24.6249,17.9755,5.3930,2.0591,18.9224,5.6217,13.4191
585.9375,10.7134,-2.1035,5.4371,10.9041,22.8743,-2.6066,-5.6403,5.2772,12.0482,-4.7601,10.7066,7.8441,28.0718,19.0576,7.0064,5.4252,21.7447,5.9720,17.8853
589.8438,7.3860,-1.9575,6.0498,7.6862,23.0650,-3.0002,-4.2057,1.4748,10.8726,-8.9811,12.3044,10.9369,28.8783,19.1956,8.7853,7.7543,22.1533,5.3854,22.1247
593.7500,0.8862,-2.3840,7.6119,5.2781,21.1219,-6.8199,2.3165,-0.7979,8.0837,-14.0561,13.4446,11.9610,27.2894,18.6908,10.0525,8.1732,20.5863,4.0821,25.1550
597.6562,-5.4127,-3.4318,9.1218,3.2197,17.9238,-11.0001,9.4961,-2.0095,5.2535,-18.0017,13.1004,10.8773,24.2632,17.2162,10.1884,6.6033,18.1008,1.8811,25.5304
601.5625,-8.4549,-4.6138,9.5113,0.3836,14.6816,-12.8316,12.3694,-3.6211,3.7520,-19.7124,10.7684,8.1066,20.7840,14.1563,8.9436,3.6150,15.5779,-1.5511,22.3315
605.4688,-7.5986,-5.3752,8.4953,-3.6978,12.2008,-11.9455,9.4375,-6.5222,3.6843,-19.6321,7.0075,4.3301,17.3637,9.3989,6.6419,0.0174,13.2725,-6.0335,16.2108
609.3750,-4.7926,-5.5014,6.8674,-8.0692,10.5381,-10.1079,3.8736,-10.0379,3.9128,-19.1330,3.3229,0.3378,14.0263,3.8279,4.1039,-3.4144,11.0011,-10.4792,9.4776
613.2812,-2.8226,-5.1628,5.9229,-10.9125,9.1953,-9.2952,0.9206,-12.4172,3.0939,-19.2013,1.3285,-3.0433,10.6620,-1.0192,2.2683,-5.9348,8.6833,-13.2988,4.8867
617.1875,-3.1073,-4.6469,6.4068,-11.0253,7.6045,-9.9005,3.5857,-12.3963,0.8349,-19.5769,1.7074,-5.0378,7.3711,-3.9536,1.6989,-6.7718,6.6641,-13.4141,3.8861
621.0938,-4.7814,-4.0833,7.8285,-8.9610,5.5147,-10.6092,10.1256,-10.4479,-1.9807,-19.0630,3.7398,-5.1286,4.4966,-5.0114,2.2947,-5.3288,5.4737,-11.1026,5.6471
625.0000,-5.6729,-3.4131,8.7567,-6.7887,3.0542,-9.8665,15.3533,-8.5567,-3.9241,-16.6918,5.8253,-3.3473,2.3556,-5.4535,3.4247,-1.6568,5.2320,-7.9257,7.7048
628.9062,-4.2287,-2.5763,7.9347,-6.5680,0.5304,-7.4393,14.7022,-8.6178,-4.1563,-12.6878,6.6818,-0.4522,0.9413,-6.8094,4.4188,3.1864,5.2752,-5.7007,7.7988
632.8125,-0.7470,-1.6757,5.3592,-8.7364,-1.8066,-4.5750,7.8011,-10.7802,-3.0206,-8.3589,6.3277,2.2265,-0.1237,-9.6678,5.0663,7.3522,4.4364,-5.2707,5.5317
636.7188,3.0256,-0.9183,2.4240,-11.7415,-3.8552,-2.6428,-1.2243,-13.1804,-1.6582,-5.0097,6.0490,3.3220,-1.3376,-13.1540,5.7287,9.0721,1.8628,-6.0297,2.5630
640.6250,5.4336,-0.3859,0.9366,-13.2579,-5.6094,-1.6052,-6.8377,-13.3859,-1.0508,-2.8604,7.3045,2.1205,-2.9820,-15.5218,6.9409,7.6887,-2.2546,-6.5735,1.1948
644.5312,6.1573,0.1101,1.7316,-12.0261,-7.0789,0.1215,-6.0357,-10.4235,-1.3389,-0.9882,10.3840,-0.9925,-4.9609,-15.4255,8.7873,4.1024,-6.6605,-5.9293,2.4872
648.4375,6.0907,0.8909,3.9765,-8.8246,-8.2775,4.1198,-0.1149,-5.7216,-1.9541,1.5934,13.9078,-4.6465,-6.9154,-12.9102,10.5675,0.2299,-9.8234,-4.3361,5.4098
652.3438,6.0753,2.0704,5.7654,-5.7882,-9.2603,10.0491,6.8452,-2.1387,-2.3490,4.6640,15.6589,-7.1619,-8.4837,-9.3873,11.1052,-2.2027,-10.9819,-2.9368,7.6920
656.2500,5.7765,3.3229,5.5780,-4.6490,-10.1216,15.1712,11.2208,-1.8124,-2.5928,6.5516,14.2013,-7.4269,-9.4811,-6.6472,9.5703,-2.6787,-10.6588,-2.6675,7.6551
660.1562,3.8543,4.0201,3.4611,-5.3618,-10.9100,16.0173,12.0616,-4.5433,-3.2732,5.3137,10.0561,-5.4656,-9.8879,-5.6737,6.2302,-1.9790,-10.2362,-3.3362,5.5192
664.0625,-0.6344,3.6787,0.9729,-6.2426,-11.5279,11.0445,10.7046,-8.0097,-4.8229,0.4772,5.4706,-2.3572,-9.7220,-6.1162,2.5027,-1.3197,-10.8946,-3.7289,3.1313
667.9688,-6.8850,2.3588,-0.0988,-5.4788,-11.7322,2.1420,8.5841,-9.6204,-6.9453,-6.1476,2.8660,0.4362,-8.9685,-6.7164,0.1412,-1.2625,-12.7107,-2.6946,2.3660
671.8750,-12.4176,0.6530,0.7676,-2.7170,-11.2831,-6.3679,5.5269,-8.4898,-8.7302,-11.4287,3.0940,1.9058,-7.6519,-6.2570,0.0430,-1.3028,-14.5868,-0.2764,3.5413
675.7812,-14.7489,-0.7542,2.3375,0.6126,-10.1501,-10.6166,0.1879,-5.9537,-9.3954,-13.0549,4.8291,1.9806,-5.9714,-4.2866,1.5388,-0.4691,-15.0526,2.1422,5.1593
679.6875,-13.3710,-1.5842,2.5744,2.4960,-8.6123,-9.7852,-7.8436,-4.2774,-8.9735,-11.2001,5.5899,1.3887,-4.3260,-1.1733,2.7589,1.5903,-13.3274,2.9000,5.1650
683.5938,-10.3100,-2.0702,0.3120,2.0188,-7.1493,-6.4008,-16.4033,-4.7038,-8.2644,-8.3121,3.6327,1.0385,-3.1487,2.3671,1.9169,3.9949,-9.8583,1.4916,2.6577
687.5000,-8.6238,-2.5597,-3.6969,0.0829,-6.1776,-4.1227,-21.4261,-6.4915,-8.0308,-7.0974,-0.7188,1.3640,-2.6473,5.7539,-1.3600,5.0961,-5.9750,-0.8611,-1.3773
691.4062,-9.9499,-2.9877,-7.2366,-1.4547,-5.8064,-4.7986,-19.7515,-7.7006,-8.1576,-8.2944,-5.3144,2.0689,-2.6623,8.6538,-5.6437,3.7255,-2.9659,-2.0831,-4.9082
695.3125,-13.1433,-2.7755,-8.2827,-1.4639,-5.7764,-7.1361,-11.8680,-6.9731,-7.6150,-10.1025,-7.7795,2.4062,-2.7763,10.7866,-8.6242,0.2416,-1.2829,-0.9471,-6.5413
699.2188,-15.2597,-1.3766,-6.5752,-0.5570,-5.6116,-8.0208,-2.2092,-4.7183,-5.4066,-9.8493,-7.2243,1.7574,-2.6102,11.7953,-8.7451,-3.5157,-0.4207,1.7802,-6.6184
703.1250,-14.1964,0.9227,-3.8573,-0.5041,-4.8735,-5.3775,3.5214,-2.6638,-1.7563,-6.6029,-4.7578,0.0847,-2.0769,11.4366,-6.3899,-5.4229,0.5287,3.7659,-6.8030
707.0312,-10.8049,2.6993,-2.5622,-2.5059,-3.3596,-0.2425,2.1168,-2.1863,1.5657,-2.5171,-2.4761,-2.0481,-1.3931,9.9445,-3.7142,-4.5522,2.1417,2.8938,-8.5130
710.9375,-8.5575,2.0635,-3.9507,-5.8193,-1.1597,3.6491,-5.0991,-2.9307,2.2794,-1.5717,-1.8005,-3.8737,-0.8437,8.1456,-3.1687,-1.8079,4.3122,-0.9571,-11.5376
714.8438,-10.7943,-1.9937,-7.1420,-8.0113,1.4177,2.4820,-13.4586,-3.0066,-0.6399,-6.4512,-2.5081,-4.9305,-0.4965,7.0640,-5.7241,0.7782,6.4860,-5.5757,-14.0309
718.7500,-17.6594,-8.5417,-9.7851,-6.7774,3.9780,-4.8044,-18.3339,-0.6760,-5.8368,-15.9441,-3.1734,-5.3195,-0.1033,7.2303,-10.0695,1.5574,8.2036,-7.8795,-13.9245
722.6562,-25.3031,-14.8720,-9.8349,-1.9027,6.1753,-15.5856,-18.0618,3.9004,-10.1248,-25.0674,-2.5591,-5.5463,0.7309,8.2602,-13.3885,0.4233,9.4744,-6.1166,-10.6062
726.5625,-28.2754,-17.9993,-7.0531,4.2753,7.8293,-25.1582,-14.3022,8.4337,-10.5048,-28.1337,-0.7339,-6.0905,2.2499,9.1314,-13.1977,-1.2434,10.6975,-1.1423,-5.4834
730.4688,-23.4894,-16.5794,-3.0966,8.3957,9.0011,-29.6304,-9.9250,10.1424,-6.2583,-22.6727,1.0213,-7.0292,4.3538,9.0152,-8.9717,-1.7518,12.2434,4.1998,-0.9574
734.3750,-12.7427,-11.8876,-0.1875,8.4860,9.9763,-28.0299,-6.4853,7.9979,0.4532,-11.3147,1.3995,-7.9810,6.6540,8.0012,-2.4357,-0.4379,14.0768,7.1041,1.3555
738.2812,-1.7371,-7.0659,0.5467,5.3919,11.1175,-22.3357,-3.4554,3.7217,6.0041,-0.1454,0.2907,-8.3914,8.7091,7.0602,3.6352,1.8846,15.7317,6.6825,1.7205
742.1875,3.8231,-5.0708,-0.2276,2.0998,12.6219,-15.7584,0.3649,0.6139,7.7604,5.3580,-1.0316,-7.9327,10.2498,7.1948,7.2192,3.6638,16.6421,4.3114,1.8466
746.0938,2.1921,-6.7295,-0.7803,1.4716,14.3288,-10.7452,4.8461,1.0494,5.8009,3.8764,-0.9355,-6.7207,11.2348,8.4344,8.1864,3.8892,16.5457,2.2984,3.3389
750.0000,-3.3604,-10.2762,0.2029,4.1486,15.7436,-8.0608,8.0109,4.6100,2.6740,-1.2642,1.2103,-5.2006,11.7469,9.5444,8.0520,2.8581,15.6438,2.0248,6.3630
753.9062,-7.1612,-12.6909,2.6209,8.2144,16.3204,-7.2033,7.6426,8.3661,1.4264,-4.9164,4.5163,-3.8024,11.8659,8.7979,8.6488,1.8401,14.4161,3.0467,9.6153
757.8125,-5.3857,-11.8466,5.2024,10.7964,15.8409,-7.3648,3.6002,9.1278,3.4169,-4.0212,7.3496,-2.6331,11.6463,5.2870,10.7654,1.9646,13.2644,3.7764,11.5652
761.7188,1.2890,-7.9013,6.7094,10.2715,14.6090,-7.9779,-1.3934,5.9075,7.5303,0.3550,8.7481,-1.4397,11.1951,-0.2485,13.7208,3.2803,12.2669,3.0469,11.8534
765.6250,8.5593,-2.9646,7.0434,7.3415,13.2723,-8.5699,-3.4944,0.6570,11.2879,4.2908,9.2449,0.1303,10.7311,-5.7794,16.0742,4.7563,11.2108,1.1960,11.6241
769.5312,12.0608,0.6234,7.3354,4.2289,12.3601,-8.4249,-0.7664,-3.2817,12.8950,4.4388,10.3643,2.1684,10.5182,-9.3213,16.8206,5.1922,9.8413,-0.2186,12.5009
773.4375,10.7460,2.0343,8.9727,2.7711,11.8725,-6.6933,5.0538,-3.7702,12.6008,0.8404,13.1889,4.3219,10.6988,-10.2441,16.1327,4.2502,8.1175,0.2279,15.0964
777.3438,7.4617,2.3898,12.3909,3.0061,11.2583,-3.0248,9.7187,-1.4741,12.3502,-3.0814,17.2198,5.9447,11.1663,-9.5491,15.1440,2.7390,6.2891,2.5879,18.3536
781.2500,6.4057,3.6179,16.6122,3.3339,9.8381,1.8605,9.8092,0.7352,14.0628,-3.3022,20.5512,6.4966,11.6045,-8.9216,15.0330,1.9171,4.7603,5.4492,20.3123
785.1562,9.5952,6.6836,19.8663,1.9869,7.3658,6.3203,5.5660,0.0239,17.9182,1.4690,21.2865,5.9178,11.6716,-9.3369,16.1581,2.4075,3.8516,7.0205,19.6736
789.0625,15.1708,10.6141,20.7574,-1.4951,4.2761,8.7129,0.7866,-4.3150,21.9722,8.5177,19.0652,4.7029,11.1723,-10.3505,17.8685,3.6353,3.6118,6.4445,16.8381
792.9688,18.8049,13.0922,19.0602,-5.9866,1.3850,8.4230,-0.2798,-10.5006,23.3798,12.9130,15.4303,3.5901,10.0595,-10.6284,19.0444,4.2625,3.7737,4.2504,13.5266
796.8750,17.0165,12.1647,15.6182,-9.8056,-0.7531,6.1679,3.4332,-15.7524,20.2966,11.0138,12.6937,3.0487,8.2726,-9.2462,18.8833,3.2657,3.8501,1.6490,11.2918
800.7812,9.7753,7.7548,11.5832,-12.0640,-2.3195,3.3523,8.6987,-18.3059,13.0920,3.0938,12.1918,2.9034,5.5922,-6.6503,17.3505,0.7797,3.3154,-0.6202,10.1842
804.6875,0.4737,1.8407,7.7089,-13.1683,-4.1182,1.0497,10.4887,-18.3520,4.0892,-6.7810,13.3341,2.3707,1.7132,-4.4594,15.0600,-1.9767,1.8031,-2.8404,8.7310
808.5938,-6.5280,-2.8134,4.2303,-14.1274,-6.9100,-0.5135,6.1675,-17.3251,-3.8609,-13.4226,14.2054,0.5318,-3.4419,-4.2532,12.8013,-3.6178,-0.7398,-5.8034,5.2878
812.5000,-8.7651,-4.4140,1.2452,-15.4044,-10.6924,-1.5977,-2.0450,-16.3750,-8.9105,-13.7475,13.2076,-3.0208,-9.3905,-6.3432,11.1223,-3.5997,-3.9992,-9.7473,-0.3471
816.4062,-6.8312,-3.1172,-0.9369,-16.4093,-14.5149,-2.1793,-8.5058,-15.4397,-10.8782,-8.3553,10.3848,-7.7620,-15.0454,-9.5326,10.2075,-2.5121,-7.3761,-13.7617,-6.4271
820.3125,-3.2654,-0.6177,-1.9045,-16.0948,-17.0350,-1.6383,-8.5262,-13.6730,-10.8196,-0.6310,7.3511,-12.3233,-19.0910,-12.0525,9.9865,-1.4525,-10.1915,-16.2529,-10.3429
824.2188,-0.3992,1.2110,-1.6069,-14.0703,-17.4345,0.6654,-2.2639,-10.6936,-10.0468,5.6579,5.9121,-15.0828,-20.5965,-12.8789,10.2499,-1.0367,-11.9279,-16.1048,-10.4776
828.1250,1.0000,1.5411,-0.6410,-11.1544,-16.0031,4.3997,5.0613,-7.3864,-9.3686,8.4369,6.5452,-14.9409,-19.4716,-12.3356,10.6554,-0.8853,-12.3863,-13.5301,-7.3614
832.0312,1.4117,0.8273,0.0448,-8.7840,-13.9164,7.8578,6.9836,-5.4132,-8.9547,7.8197,8.0010,-11.8526,-16.4512,-11.5158,10.7162,-0.0140,-11.6800,-9.8623,-3.2140
835.9375,1.2555,0.0453,-0.1295,-7.7566,-12.3473,8.7677,0.7747,-5.7957,-8.6670,5.1359,8.3312,-6.8254,-12.6276,-11.0761,9.9292,2.2063,-10.0931,-6.4673,-0.2650
839.8438,0.0550,-0.3144,-0.8692,-7.4433,-11.5841,5.8924,-10.2872,-7.8337,-8.4185,1.6197,6.4602,-1.4050,-8.8698,-10.5094,8.0529,5.3318,-7.9249,-3.7418,0.7833
843.7500,-3.0808,-0.6495,-1.2529,-6.2605,-10.8479,0.1829,-19.1906,-9.4045,-8.2655,-2.1767,2.9864,3.0400,-5.5343,-8.5874,5.3309,7.9915,-5.4363,-1.0902,0.9406
847.6562,-8.1700,-1.7763,-0.6232,-3.0950,-8.9801,-5.5651,-20.3163,-8.5240,-8.2803,-6.0498,-0.4160,5.8304,-2.6217,-4.6349,2.4221,8.8111,-2.9134,2.1075,1.6901
851.5625,-13.6149,-4.0579,0.6272,1.5105,-5.4918,-8.4844,-13.5018,-4.9337,-8.4446,-9.5390,-2.4346,7.0404,-0.1728,0.4816,0.0178,7.3971,-0.7459,5.4527,3.4351
855.4688,-16.9002,-6.8954,1.1459,5.4907,-1.1663,-7.5912,-3.9724,-0.3859,-8.6960,-11.7906,-3.1398,7.1545,1.4800,4.6033,-1.5842,4.6059,0.6079,7.4475,4.9739
859.3750,-16.3051,-9.0076,-0.3389,6.7231,2.2829,-4.4331,1.7094,2.6592,-9.0276,-12.0384,-3.7281,6.5989,1.8423,5.7127,-2.5925,1.8936,0.8013,6.5983,4.4543
863.2812,-12.2094,-9.2632,-3.8097,4.6939,3.2904,-1.8989,0.4674,2.8987,-9.4522,-10.1855,-5.2460,5.4653,0.6681,3.4709,-3.4042,0.2691,-0.1842,2.8332,0.9998
867.1875,-6.8197,-7.4084,-7.6313,0.9998,1.4907,-2.0817,-5.4005,1.1051,-9.7975,-6.8829,-7.4432,3.5832,-1.7053,-0.3970,-4.1139,-0.3255,-1.9567,-2.0232,-4.3756
871.0938,-2.4638,-4.1606,-9.5216,-1.7748,-2.0090,-4.8308,-10.5744,-0.6391,-9.5406,-3.0106,-8.7896,0.8456,-4.3988,-3.2555,-4.2922,-0.7419,-3.8509,-5.2779,-9.3597
875.0000,0.1480,-0.6722,-8.1815,-1.9525,-5.3212,-8.0802,-11.2587,-0.7393,-7.9454,0.9318,-7.6863,-2.4695,-6.4130,-3.4119,-3.2765,-1.7203,-5.2094,-5.2105,-11.9808
878.9062,2.2207,2.1619,-4.3258,0.0698,-6.9288,-9.6225,-8.2255,0.5857,-4.5323,4.9283,-3.8583,-5.6287,-7.1240,-1.2382,-0.7774,-3.1195,-5.6217,-2.2916,-11.9623
882.8125,5.4611,4.0324,-0.2484,2.2941,-6.4885,-8.8651,-5.9659,1.5588,0.4228,8.9519,1.2612,-7.6942,-6.5003,1.3136,2.7041,-3.9334,-4.9783,1.2353,-10.7041
886.7188,10.1670,5.0329,1.8122,2.8272,-4.7749,-7.1612,-8.7194,0.4711,5.7910,12.3999,5.5075,-7.9660,-4.9205,2.4055,6.0418,-3.1075,-3.3571,3.1259,-9.9397
890.6250,14.5229,5.2581,1.2681,1.4209,-2.8962,-6.5040,-16.6182,-2.6793,10.0843,14.1238,7.5342,-6.3620,-2.7879,1.8466,8.1619,-0.5152,-0.8910,2.8651,-10.2103
894.5312,15.8341,4.6065,-0.5046,-0.3848,-1.4166,-7.7166,-25.0562,-5.9251,12.2798,13.1993,7.6687,-3.5257,-0.2722,1.2261,8.7273,2.6981,2.2446,1.9662,-10.4256
898.4375,12.7915,2.9576,-1.3665,-0.5814,-0.0229,-9.6703,-27.8193,-6.7150,12.4131,9.8531,7.3996,-0.5949,2.6383,2.5358,8.2893,4.7261,5.7297,2.5987,-8.8550
902.3438,6.9005,0.5067,-0.1559,1.6510,2.0825,-10.1988,-21.5935,-3.8689,11.4968,5.6906,7.9718,1.2555,5.8820,6.4080,7.7877,4.2645,9.0369,5.6725,-4.6917
906.2500,1.7782,-2.1246,2.4305,5.3107,5.4279,-7.9733,-8.4509,1.4455,10.7919,2.8551,9.2983,1.2840,9.1426,11.4206,7.8102,1.3967,11.5573,9.9576,1.1353
910.1562,0.6987,-4.1840,4.4970,8.4367,9.7519,-3.8033,5.4706,6.4925,10.9347,2.6231,10.1028,-0.5435,11.9296,15.0753,8.2130,-2.4328,12.9047,12.9744,6.5815
914.0625,4.2056,-5.2909,4.5570,9.6853,14.0868,-0.2758,13.9983,8.8894,11.5389,4.4804,9.1389,-3.5847,13.8542,15.7017,8.3916,-5.3352,13.1930,12.9316,10.0074
917.9688,9.6391,-5.7277,2.7319,9.2804,17.3422,0.0376,14.6639,8.1777,11.5467,6.4344,6.4168,-6.8294,14.8444,13.7730,7.9347,-6.1345,13.0423,10.1213,11.3189
921.8750,12.9976,-6.2402,0.5538,8.5726,18.9398,-3.5477,9.5956,5.8711,10.0664,6.3981,3.3734,-9.3366,15.1008,11.5585,7.0747,-4.9767,13.2384,6.6247,11.7833
925.7812,11.7716,-7.4640,-0.4192,8.6447,19.0571,-9.2847,3.2938,4.0348,7.0872,3.6459,1.8295,-10.6044,14.8356,11.3409,6.5326,-3.0316,14.2363,4.5710,12.7088
929.6875,6.6590,-9.4087,0.0439,9.2064,18.3621,-14.1569,-0.7204,3.5880,3.5666,-0.7297,2.6052,-10.7167,14.0449,13.5656,6.8990,-1.5784,15.8427,4.3820,14.1484
933.5938,0.9325,-11.4095,0.7085,8.7472,17.4844,-15.8609,-1.8564,3.6710,0.8349,-4.6745,4.9348,-10.2139,12.5398,16.3586,8.1027,-1.1681,17.3088,4.4436,14.7709
937.5000,-1.9945,-12.5990,0.0758,5.8304,16.6190,-14.1875,-1.8788,2.5074,-0.2674,-6.6682,7.1288,-9.7722,10.2226,16.8080,9.4503,-1.4254,17.7799,2.4737,13.0487
941.4062,-0.9596,-12.5494,-2.1261,0.4298,15.5144,-10.9217,-2.7306,-1.0024,0.0606,-6.7337,7.8801,-9.8583,7.3525,13.0628,10.2123,-1.5401,16.7992,-2.5315,8.7740
945.3125,2.3217,-11.5994,-4.4948,-5.8255,13.8013,-8.4953,-4.7369,-6.2590,0.6964,-6.2517,7.1178,-10.5292,4.5323,5.7008,10.2405,-0.9955,14.5411,-9.3478,3.5961
949.2188,4.7190,-10.6216,-5.0152,-10.7161,11.3936,-8.4445,-6.5350,-11.2921,0.2906,-6.8035,5.7619,-11.4570,2.3839,-2.6001,10.0610,0.0398,11.6586,-15.3191,0.0526
953.1250,4.0327,-10.4036,-2.7874,-12.9389,8.6734,-10.6773,-6.4740,-14.1310,-1.8978,-8.9670,4.7211,-12.1368,1.1657,-8.7866,10.3487,0.9144,8.9021,-18.2334,-0.1920
957.0312,0.4703,-11.0974,1.0477,-12.8461,6.3380,-13.8324,-4.0644,-14.1221,-5.5287,-11.9506,4.1041,-12.1444,0.6552,-11.2652,11.2504,1.0743,6.7829,-17.7789,2.4823
960.9375,-3.7141,-12.1239,4.0402,-11.8792,5.0081,-16.2488,-0.2380,-12.2250,-9.3406,-14.2515,3.3567,-11.3111,0.4011,-10.5998,12.1833,0.5285,5.4535,-15.4862,5.9975
964.8438,-5.9765,-12.5776,4.3072,-11.2582,4.8330,-16.8153,3.6179,-10.1663,-11.8397,-14.7533,2.1355,-9.7469,0.1172,-8.7541,12.3329,-0.1623,4.7697,-13.3296,8.1476
968.7500,-5.2485,-11.8200,2.0521,-11.0685,5.3236,-15.2909,6.7917,-9.2013,-12.1230,-13.4220,1.0113,-7.7407,-0.1446,-7.6282,11.4430,-0.3419,4.3850,-12.2191,8.1300
972.6562,-2.4761,-9.8496,-0.5378,-10.4826,5.5180,-12.1604,9.4462,-9.4313,-10.3708,-11.1555,1.2336,-5.6149,-0.2154,-8.0168,10.1908,0.2274,3.7892,-11.6002,6.8422
976.5625,0.2862,-7.2281,-0.9832,-8.8332,4.4167,-8.3148,11.7720,-10.0834,-7.7278,-9.0176,3.6576,-3.6108,-0.2200,-9.6051,9.7599,1.2063,2.3603,-10.3600,5.7925
980.4688,1.4066,-4.6703,1.5372,-6.5109,1.4826,-4.7308,13.0404,-10.3645,-5.6330,-7.4973,7.7754,-1.8367,-0.7525,-11.7200,10.9075,1.9931,-0.4412,-8.1151,5.6201
984.3750,0.6953,-2.6153,5.5350,-4.8295,-3.0399,-2.1445,11.6623,-10.1208,-4.9812,-6.3183,11.8021,-0.2790,-2.5445,-14.0245,13.2909,2.2477,-4.7216,-5.6894,5.5187
988.2812,-0.7059,-1.0597,8.3783,-4.9307,-8.1610,-0.7242,6.4580,-9.8027,-5.6209,-4.8409,13.9002,1.1452,-5.7981,-16.5580,15.6421,2.1920,-9.8485,-4.3697,4.0654
992.1875,-1.3173,0.2886,8.3280,-6.6746,-12.5376,0.0744,-1.8383,-9.8752,-6.5184,-2.6751,13.5933,2.5104,-9.7137,-19.2195,16.6843,2.4373,-14.4829,-4.6472,0.7387
996.0938,-0.4079,1.7014,5.8123,-8.5235,-15.0346,1.2185,-10.2163,-10.2563,-6.5110,-0.0474,12.1585,3.8091,-12.6926,-21.3150,16.0504,3.4651,-17.0823,-5.6257,-3.2102
1000.0000,1.5396,3.1989,2.9517,-8.6057,-15.1701,3.3730,-14.7706,-10.2787,-5.1775,2.2727,11.5693,4.9205,-13.2165,-21.7142,14.4421,5.1689,-16.6742,-5.6907,-5.3692
1003.9062,3.1770,4.5270,1.7748,-6.1410,-13.2242,6.1730,-13.0485,-9.1887,-3.2329,3.3618,12.7817,5.6551,-10.8495,-19.5697,12.9015,6.8280,-13.4420,-3.9109,-3.8758
1007.8125,3.1179,5.3079,2.6061,-2.0712,-9.9857,8.1294,-5.7366,-6.7467,-2.1363,2.5713,14.7762,5.8647,-6.6340,-15.0077,11.8247,7.5524,-8.7152,-0.9588,1.0893
1011.7188,0.7090,5.2340,3.9152,1.6310,-6.3246,7.4673,3.5679,-3.4485,-3.1309,-0.2013,15.2170,5.5497,-2.5333,-9.1797,10.5821,6.8773,-4.3137,1.2909,7.2249
1015.6250,-3.6431,4.1948,3.6832,3.4322,-2.8585,3.4712,10.4057,-0.2295,-6.3510,-4.4544,12.2848,4.8733,-0.2520,-3.5872,8.0990,5.0646,-1.6236,1.2151,11.5552
1019.5312,-8.6792,2.3150,1.1108,3.3107,0.1157,-2.6350,11.9401,2.0803,-10.6290,-9.2071,6.2372,4.0454,-0.2372,0.7987,3.9180,2.8967,-0.9648,-1.2341,12.3255
1023.4375,-12.8715,-0.0617,-2.7372,2.5902,2.4649,-8.0868,8.2372,3.1358,-14.1648,-13.2839,-0.5845,3.1450,-1.5465,3.9317,-1.1771,1.1313,-1.6117,-4.4401,9.9460
1027.3438,-15.1052,-2.4189,-5.8228,2.7097,4.0260,-10.1975,1.6380,3.0786,-15.6184,-15.7156,-5.3634,2.0286,-2.6448,6.3280,-5.5567,0.0419,-2.3922,-6.3578,6.3495
1031.2500,-15.1653,-4.1710,-6.7614,3.9570,4.5645,-8.1697,-5.1079,2.2669,-14.8775,-16.1358,-6.7906,0.4368,-2.5246,8.3167,-7.8864,-0.6185,-2.4317,-6.0752,3.3667
1035.1562,-13.8041,-4.8544,-5.8328,5.1958,3.9150,-3.7884,-10.5017,1.0084,-12.9906,-14.9627,-5.8748,-1.7370,-1.3366,9.5922,-8.0865,-1.2370,-1.5694,-4.4360,1.4302
1039.0625,-12.3311,-4.3725,-4.6145,4.7850,2.1747,-0.3858,-14.6515,-0.5199,-11.3599,-13.2023,-4.9692,-4.2085,-0.1174,9.4768,-7.3098,-1.8901,-0.2566,-3.2536,-0.4346
1042.9688,-11.9001,-3.1629,-4.6542,1.9188,-0.2253,-0.7008,-18.3358,-2.1958,-10.8128,-11.9159,-5.8321,-6.3195,0.1118,7.6671,-6.9406,-2.2218,0.8887,-3.8093,-3.4605
1046.8750,-12.8673,-2.1241,-6.3507,-2.6893,-2.6403,-5.0944,-21.7437,-3.8717,-11.2082,-11.6450,-8.2823,-7.3770,-0.8465,4.7876,-7.4412,-1.7693,1.5112,-5.8912,-7.8732
1050.7812,-14.5998,-2.2444,-8.9228,-7.2917,-4.4446,-11.3625,-23.9724,-5.3853,-11.7792,-12.1528,-10.4823,-7.1298,-2.2521,2.2052,-8.0039,-0.4740,1.6651,-8.1277,-12.5681
1054.6875,-15.8679,-4.0687,-11.3292,-10.3209,-5.2262,-16.2566,-23.6331,-6.6157,-11.8353,-12.6511,-10.5342,-6.0422,-3.0449,1.1656,-7.2986,1.0659,1.6620,-9.2542,-15.9464
1058.5938,-15.5839,-7.2983,-13.1810,-11.3516,-4.8595,-17.6106,-20.0058,-7.4822,-11.2162,-12.3412,-8.0288,-5.1151,-2.6708,1.9019,-4.6777,1.8638,1.8046,-9.1724,-17.1545
1062.5000,-13.4157,-10.8097,-14.7840,-11.1017,-3.4807,-15.5849,-13.8038,-7.8700,-10.1698,-10.8845,-4.2915,-5.3032,-1.4712,3.4335,-0.8182,1.1827,2.2080,-8.8868,-16.6711
1066.4062,-9.8901,-13.1594,-16.3345,-10.5888,-1.4434,-12.2485,-6.9920,-7.5830,-8.8643,-8.4994,-1.2002,-6.8925,-0.3628,4.2548,2.7469,-0.9160,2.7864,-9.4037,-15.7793
1070.3125,-5.9632,-13.3374,-17.1468,-10.2179,0.7243,-9.9427,-1.8455,-6.4359,-7.0619,-5.6875,0.3641,-9.2707,-0.0912,3.4160,4.8149,-3.5369,3.3495,-10.6020,-15.4103
1074.2188,-2.4005,-11.3353,-15.8111,-9.5511,2.4262,-9.6890,0.0771,-4.4563,-4.3069,-2.8689,1.1161,-11.2844,-0.6484,1.1818,5.4175,-5.4777,3.7198,-11.1192,-15.3518
1078.1250,0.5877,-8.1680,-11.3242,-7.8702,3.2236,-10.7332,-1.5337,-2.0168,-0.4841,-0.2216,2.5564,-11.9698,-1.2776,-1.2233,5.6905,-5.9519,3.8184,-9.4214,-14.4789
1082.0312,3.2451,-5.3096,-4.2652,-4.9659,3.1168,-11.3822,-5.8003,0.2786,3.7824,2.2047,5.5102,-11.1681,-1.0310,-2.5682,6.8383,-5.0000,3.7165,-5.1912,-11.7881
1085.9375,5.8488,-3.8810,3.0967,-1.4470,2.6764,-10.3499,-11.0257,1.9340,7.3172,4.2862,9.2973,-9.6053,0.5557,-2.5264,9.0879,-3.3309,3.6376,0.1413,-7.3586
1089.8438,8.3271,-4.0980,8.0519,1.6670,2.8356,-7.5891,-15.0917,2.8779,9.0915,5.7620,12.2369,-8.3875,3.1496,-1.8560,11.5213,-1.7688,3.8730,4.2106,-2.4481
1093.7500,10.1838,-5.3242,9.1855,3.6695,4.3662,-4.1318,-15.9022,3.4707,8.8828,6.3575,13.0176,-8.2693,5.8448,-1.7478,12.9018,-0.7529,4.6041,5.2639,1.3340
1097.6562,10.7346,-6.6566,7.2398,4.5597,7.3388,-1.2640,-12.0490,4.1481,7.3387,5.9301,11.7268,-9.1992,7.7172,-2.8820,12.7512,-0.2458,5.7140,3.2422,3.0880
1101.5625,9.4535,-7.6058,4.3960,4.8012,10.9666,0.2301,-3.6593,4.9669,5.3835,4.4606,9.6615,-10.4301,8.3192,-4.9328,11.7251,-0.0374,6.7463,-0.3987,3.0914
1105.4688,6.2278,-8.3680,2.5545,4.7280,14.0214,0.2564,7.0462,5.4536,3.4813,1.9151,8.1276,-11.0703,7.8303,-6.8802,10.9704,-0.1062,7.1155,-3.8852,2.3819
1109.3750,1.4554,-9.4967,2.0224,4.1843,15.5912,-0.8866,16.1441,4.9439,1.4168,-1.8010,7.3282,-10.6600,6.8507,-7.8474,11.0580,-0.6817,6.4914,-6.3126,1.9004
1113.2812,-3.9723,-11.2464,1.6711,2.7341,15.6547,-2.8435,19.5850,3.1845,-1.1941,-6.6177,6.3536,-9.3816,6.0330,-7.7909,11.4781,-1.9539,5.1028,-7.8962,1.9324
1117.1875,-8.7945,-13.1297,0.3658,0.2203,15.0237,-5.2396,15.3470,0.6934,-4.1242,-11.9239,4.2904,-7.8206,5.7767,-7.5220,11.1872,-3.7146,3.6974,-9.2428,2.2338
1121.0938,-11.6776,-14.0874,-1.6448,-2.8999,14.6571,-7.5120,4.8942,-1.4982,-6.2596,-16.4356,1.4321,-6.5193,6.1010,-8.0768,9.7410,-5.3015,3.1124,-10.4456,2.5715
1125.0000,-11.7185,-13.2061,-2.6837,-5.8209,14.8411,-8.8971,-7.1791,-2.6163,-6.2263,-18.6466,-0.5789,-5.6738,6.6879,-9.9496,7.9635,-5.9616,3.7166,-10.9053,3.0616
1128.9062,-8.9893,-10.4754,-1.0960,-8.0717,14.8776,-8.7953,-15.4074,-2.8609,-3.5365,-17.7517,0.0488,-5.1547,7.0374,-12.7668,7.4465,-5.3710,5.1231,-10.0497,3.9430
1132.8125,-4.7718,-6.9982,3.0056,-9.9912,13.5665,-7.3054,-16.4218,-3.4481,0.6689,-14.4362,3.6368,-4.7572,6.6786,-15.5963,9.1810,-3.8824,6.4124,-8.2389,5.0319
1136.7188,-1.1801,-4.4429,7.2699,-12.4867,10.1637,-5.4411,-10.8195,-5.8129,4.0007,-10.8388,8.3874,-4.4259,5.3814,-17.5879,12.4480,-2.2734,6.7334,-6.9086,5.4880
1140.6250,-0.2290,-4.0813,8.5158,-16.1693,5.0982,-4.7012,-2.7098,-10.4595,4.2011,-9.4972,11.3839,-4.2789,3.2859,-18.4233,14.9921,-1.1799,5.8575,-7.6534,4.2936
1144.5312,-2.8424,-6.0694,5.0601,-20.5459,-0.1223,-6.1735,2.8237,-16.2942,0.5778,-11.8577,10.5858,-4.4564,0.8616,-18.2729,14.5078,-0.6716,4.2818,-10.9233,1.1797
1148.4375,-8.4336,-9.4558,-1.8481,-24.0028,-3.7957,-9.7766,2.7433,-21.0153,-5.5722,-17.3595,6.3051,-4.9700,-1.3179,-17.3910,10.3652,-0.3178,2.8163,-15.4522,-2.7807
1152.3438,-15.3502,-12.8663,-8.6991,-24.7347,-5.0782,-14.2062,-2.3456,-22.4139,-11.8837,-23.7832,0.9914,-5.6952,-2.8776,-15.7704,4.2202,0.3171,1.9820,-19.0090,-5.5539
1156.2500,-21.8729,-15.3335,-12.0958,-22.0072,-4.4505,-17.6626,-8.9473,-19.7663,-16.5089,-28.6666,-2.5412,-6.4873,-3.8281,-13.1805,-1.0278,1.1836,1.6801,-19.9790,-5.3981
1160.1562,-27.0535,-16.6746,-11.0687,-16.8073,-3.2766,-18.8719,-13.1287,-14.3770,-19.1854,-30.7948,-3.0948,-7.2815,-4.4983,-9.5441,-3.1960,1.7051,1.3602,-18.5506,-2.1235
1164.0625,-30.8343,-17.2304,-7.5890,-11.3367,-2.8086,-17.7218,-12.9591,-8.8656,-21.0296,-30.7178,-1.7741,-8.0627,-5.2528,-5.2836,-2.2355,1.2506,0.5156,-16.5342,2.6278
1167.9688,-33.4943,-17.2999,-4.9208,-7.6463,-3.3782,-15.1526,-9.3803,-5.6285,-23.3136,-29.9996,-0.9077,-8.7367,-6.1944,-1.2747,-0.0697,-0.2611,-0.9088,-15.9196,6.3906
1171.8750,-35.0276,-16.8231,-5.1169,-6.3591,-4.3309,-12.4888,-5.1529,-5.4530,-26.2652,-29.8745,-2.1205,-9.0517,-7.0740,1.6258,0.9573,-2.1517,-2.5017,-17.2978,7.5026
1175.7812,-35.0760,-15.5919,-7.5818,-6.3751,-4.6656,-10.7397,-2.8454,-7.1554,-28.8595,-30.4041,-5.0910,-8.6803,-7.4697,3.1331,-0.2140,-3.3881,-3.7193,-19.3976,6.1709
1179.6875,-33.4847,-13.7497,-9.7382,-5.7407,-3.8187,-10.2969,-3.3380,-8.4262,-29.7169,-30.7445,-7.9195,-7.4217,-7.0851,3.7221,-2.7832,-3.3111,-4.2448,-20.0981,4.1923
1183.5938,-30.8996,-12.0292,-9.1758,-3.0369,-1.9878,-11.0651,-5.7219,-7.2977,-28.3044,-30.1698,-8.7187,-5.3555,-5.9348,4.2689,-4.9703,-2.1091,-4.0777,-18.0976,3.5476
1187.5000,-28.6860,-11.3783,-5.5549,1.6870,0.1796,-12.7342,-8.3520,-3.2924,-25.4099,-28.8615,-7.0899,-2.8053,-4.2914,5.3902,-5.5251,-0.6410,-3.3470,-13.9083,4.9326
1191.4062,-28.0086,-12.1790,-0.8326,7.0225,2.1790,-14.9000,-10.0494,2.4095,-22.5000,-27.7120,-4.3227,-0.1432,-2.4788,6.9740,-4.6182,0.2601,-2.1102,-9.4123,7.3125
1195.3125,-28.7332,-13.7131,2.2405,11.1741,3.9778,-16.9987,-10.5749,7.7784,-20.5265,-27.3085,-2.2450,2.3831,-0.7169,8.2597,-3.4729,0.4398,-0.3932,-6.3893,8.7810
1199.2188,-29.1469,-14.4369,2.0771,13.0429,5.8270,-18.2676,-10.2729,11.1227,-19.2095,-27.0554,-1.7475,4.6368,0.8535,8.4096,-3.1775,0.4899,1.5554,-5.2343,8.0084
1203.1250,-26.9731,-13.0187,-0.8394,12.6941,7.7846,-17.9326,-9.4937,11.9092,-17.4127,-25.3506,-2.2082,6.4084,2.0322,7.1473,-3.7579,1.1648,3.1027,-4.8814,5.1568
1207.0312,-21.1079,-9.4243,-4.6396,11.0109,9.4382,-15.5882,-8.4331,10.8022,-14.2934,-20.8483,-2.2363,7.2728,2.5060,4.9947,-4.2866,2.6260,3.4542,-3.9269,1.6108
1210.9375,-12.7852,-5.1841,-7.6025,8.9273,10.1228,-11.5093,-7.4531,9.0396,-10.2425,-13.8384,-1.0420,6.6970,2.0061,2.9547,-3.8634,4.1561,2.2139,-1.9618,-1.1765
1214.8438,-5.1493,-2.5174,-9.2360,6.8511,9.4682,-6.6413,-7.3451,7.6348,-6.7976,-6.5376,0.7549,4.4014,0.5860,1.9006,-2.5555,4.6186,-0.1398,0.0191,-2.7577
1218.7500,-1.3613,-2.8590,-10.1576,4.6308,7.7947,-2.2471,-8.9944,6.8970,-5.5629,-1.8773,1.5559,0.7149,-1.2329,2.1296,-1.4483,3.3352,-2.3275,0.4575,-3.8531
1222.6562,-2.5287,-5.8460,-11.1160,1.9588,5.9857,0.5632,-12.5262,6.4728,-6.9953,-1.5822,0.0841,-3.4019,-2.6392,3.3720,-1.7542,0.6919,-2.9732,-1.4001,-5.5423
1226.5625,-6.9725,-9.5435,-12.1652,-1.1867,4.9101,1.1561,-16.6822,5.7635,-10.0273,-4.9778,-3.5223,-6.7734,-2.9630,5.1740,-3.7443,-2.0272,-1.4858,-4.7593,-8.2045
1230.4688,-11.4001,-11.7881,-12.7152,-4.3997,4.8557,-0.5476,-19.2153,4.3920,-12.8111,-9.4646,-7.7025,-8.6264,-2.0593,7.2898,-6.4145,-3.4875,1.5507,-7.7800,-11.0845
1234.3750,-13.1314,-11.6847,-12.2873,-7.0432,5.4349,-4.1384,-18.3143,2.4481,-13.9716,-12.3296,-10.5254,-8.9796,-0.3432,9.7541,-8.1658,-3.2142,4.8178,-8.9072,-12.8127
1238.2812,-11.7382,-10.1566,-11.1386,-8.5715,6.0166,-8.7963,-14.1029,0.4309,-13.3805,-12.5260,-10.9414,-8.5152,1.5504,12.6064,-7.9339,-1.8977,7.2212,-7.9480,-12.4270
1242.1875,-8.9376,-9.1568,-10.0839,-8.7390,6.2964,-13.3878,-8.9411,-1.0129,-11.9114,-11.0972,-9.2771,-8.0360,3.2009,15.5490,-5.8612,-0.8842,8.6136,-6.0476,-10.0740
1246.0938,-6.9437,-10.1448,-9.6541,-7.6146,6.5093,-16.7057,-6.0195,-1.3886,-10.4858,-10.0040,-6.6899,-7.9273,4.5698,17.8839,-3.0270,-1.2487,9.6915,-4.6369,-6.8685
1250.0000,-6.6460,-12.9775,-9.4125,-5.4884,7.1198,-17.9056,-7.0783,-0.5598,-9.2673,-10.3700,-4.1491,-8.0346,5.7840,18.8363,-0.5492,-3.1247,11.1531,-4.2512,-4.0832
1253.9062,-7.0361,-16.0149,-8.1620,-2.7804,8.2988,-16.9505,-10.9295,1.1982,-7.6527,-11.5690,-1.8192,-8.0156,6.7726,18.0425,1.1566,-5.7289,12.8501,-4.1819,-2.3390
1257.8125,-6.2244,-17.3082,-4.9722,0.0284,9.6923,-14.7160,-14.0449,3.3007,-4.9774,-11.8325,0.7159,-7.8284,7.1522,15.8264,2.3983,-7.9790,13.7175,-3.1926,-1.3916
1261.7188,-3.1038,-15.9352,-0.1615,2.4990,10.7195,-12.5417,-12.9727,5.0752,-1.2416,-9.7934,3.7157,-7.8978,6.5415,13.0389,3.6241,-9.1926,12.6362,-0.6508,-0.5689
1265.6250,1.7439,-12.4999,4.6810,4.3845,11.1451,-11.4169,-6.8913,6.0263,2.8026,-5.6524,6.7764,-8.7794,5.0681,10.5711,4.8655,-9.3759,9.5642,2.8830,0.6061
1269.5312,6.5859,-8.5149,7.7610,5.7304,11.3838,-11.3415,1.6314,6.0327,6.2473,-1.0308,9.0367,-10.5827,3.5810,8.8926,5.7354,-8.9921,5.9543,6.0683,2.1458
1273.4375,9.9595,-5.2575,8.4031,6.7896,12.1985,-11.3663,8.3346,5.3604,8.7257,2.2873,9.8939,-12.6568,3.2596,7.9292,5.9337,-8.4977,3.9753,7.8039,3.8288
1277.3438,11.7068,-3.0361,7.5225,7.7354,13.9894,-10.3520,10.2165,4.4550,10.5495,3.6070,9.5533,-13.8601,4.8060,7.3158,5.7015,-8.0483,5.0147,7.9754,5.6029
1281.2500,12.7538,-1.3781,6.8049,8.3586,16.2756,-7.9237,7.5371,3.6116,12.1588,3.5232,8.8759,-13.2700,7.8273,6.7737,5.7158,-7.5443,8.5902,7.3273,7.7012
1285.1562,13.9066,0.1457,7.2454,8.0269,17.8761,-4.8999,3.3507,2.7322,13.4177,2.9867,8.6284,-10.8179,10.9592,6.2990,6.4623,-6.8671,12.5711,6.6309,10.3246
1289.0625,14.8096,1.2574,8.2708,6.0446,17.7359,-2.8452,0.9456,1.3668,13.4619,2.1560,8.7913,-7.3648,12.7433,6.0451,7.6754,-6.0256,14.6330,5.9155,13.2017
1292.9688,14.0593,1.0704,8.2157,2.2307,15.7763,-3.0596,1.2169,-0.9353,11.3313,0.1284,8.5663,-4.1558,12.6510,6.0518,8.4337,-5.0877,13.8952,4.4519,15.5051
1296.8750,10.4351,-1.1367,5.7998,-2.7019,13.0643,-5.7481,2.0742,-4.1742,6.8978,-4.1597,7.1292,-2.0647,11.4582,6.0945,7.9329,-4.0183,11.5000,1.5004,16.3136
1300.7812,4.1929,-5.1532,1.3900,-7.3268,11.1022,-9.9541,0.3965,-7.6795,1.2787,-10.6459,4.5117,-1.1846,10.6263,5.7932,6.3015,-2.6574,9.6754,-2.8402,15.3038
1304.6875,-2.7356,-9.7524,-3.0248,-10.2335,10.7447,-14.2192,-4.9976,-10.3506,-3.6931,-17.6490,1.8376,-1.0265,11.1133,4.8778,4.7014,-0.9211,9.9828,-7.4506,13.0909
1308.5938,-7.8905,-13.3811,-5.1797,-10.8689,11.5770,-17.3803,-11.7709,-11.2770,-6.5876,-22.7098,0.6381,-1.0991,12.5207,3.3629,4.5115,0.9419,12.0860,-10.8793,10.8668
1312.5000,-9.8847,-15.0686,-4.1445,-9.9034,12.2502,-18.8916,-15.2764,-10.3525,-7.2228,-24.1684,1.7302,-1.3631,13.2710,1.4819,6.1970,2.3114,13.9734,-12.3587,9.5554
1316.4062,-9.1706,-14.8383,-0.9191,-8.8132,11.5149,-18.5717,-11.8097,-8.4381,-6.5786,-22.2198,4.5322,-2.1938,11.7340,-0.5405,8.8065,2.4989,13.4481,-12.3115,9.1288
1320.3125,-7.3845,-13.3523,2.4390,-8.9148,9.1376,-16.2368,-1.5355,-6.8925,-5.8831,-18.5882,7.3807,-3.9218,7.4723,-2.6440,10.5883,1.2196,9.7328,-11.9155,8.6503
1324.2188,-5.8791,-11.1859,4.4113,-10.4969,5.9798,-11.7650,11.1186,-6.7311,-5.6525,-15.1052,8.6453,-6.3710,1.6570,-4.8560,10.3063,-1.1196,3.9868,-12.0742,7.0484
1328.1250,-4.7236,-8.4187,5.0273,-12.6644,3.1999,-5.6363,19.9846,-7.9796,-5.4781,-12.3892,7.8166,-8.7990,-3.6767,-7.0629,8.2198,-3.5625,-1.5953,-12.6412,4.0351
1332.0312,-3.0178,-4.9083,5.4947,-14.0156,1.2600,0.6292,20.8736,-9.6930,-4.6980,-9.7261,5.7652,-10.2971,-6.9812,-8.8818,5.9123,-5.1087,-5.3371,-12.5510,0.4457
1335.9375,-0.1916,-0.9551,6.8332,-13.6769,-0.4225,4.8310,13.9676,-10.6576,-3.3180,-6.2117,4.0137,-10.3234,-8.1421,-9.8171,5.0598,-5.2444,-7.0736,-10.7742,-2.2873
1339.8438,2.9316,2.3382,8.7265,-11.9433,-2.8705,5.3386,3.3932,-10.2833,-2.3264,-2.1059,3.6031,-8.9639,-8.3301,-9.6182,6.0998,-4.1526,-7.8907,-7.3350,-3.1295
1343.7500,4.3622,3.4882,9.6183,-10.0470,-6.4825,2.4433,-5.5063,-9.0213,-3.0647,0.8726,4.4132,-6.7641,-8.9273,-8.5241,7.8693,-2.5031,-8.9523,-3.5529,-2.1471
1347.6562,2.4140,1.6368,8.0091,-9.2099,-10.4106,-1.3458,-9.2136,-7.9713,-6.1338,0.7054,5.3982,-4.3403,-10.3974,-7.1282,8.5185,-1.0208,-10.4495,-1.2700,-0.3839
1351.5625,-2.7530,-2.6299,3.8783,-9.6789,-12.9560,-2.6231,-7.4866,-7.9588,-10.7421,-3.1820,5.4796,-2.1177,-11.9802,-5.9131,6.9847,-0.1424,-11.5281,-1.6163,0.9584
1355.4688,-8.8486,-7.3717,-0.9962,-10.4810,-12.7457,0.6354,-2.6707,-8.7990,-15.0677,-9.0515,4.3620,-0.3659,-12.4102,-4.8355,3.8549,0.0634,-11.1825,-4.2317,1.3674
1359.3750,-12.8061,-10.3602,-4.1715,-10.1232,-9.8055,7.3987,2.1754,-9.3622,-17.3966,-13.7040,2.6525,0.6175,-11.0467,-3.3660,0.9267,-0.2318,-9.2942,-7.5178,1.2237
1363.2812,-12.8383,-10.4228,-4.2966,-7.7616,-5.6878,13.8618,4.8800,-8.4542,-17.1807,-14.5490,1.2600,0.4727,-8.4948,-1.0311,-0.1851,-0.7696,-6.9010,-9.7192,1.2353
1367.1875,-9.6651,-8.1151,-2.1325,-3.9765,-2.5173,15.7131,4.6613,-5.8621,-15.2434,-11.3894,0.6084,-0.9723,-6.2289,1.9574,0.7010,-1.2740,-5.4599,-10.0279,1.6193
1371.0938,-5.9904,-5.2431,-0.0312,-0.5352,-1.6374,10.9408,1.7549,-2.7230,-13.0490,-6.5762,0.3124,-3.3633,-5.5255,4.5715,2.2010,-1.4723,-5.7201,-8.9260,1.7542
1375.0000,-4.6344,-3.5961,-0.2536,0.7601,-2.8318,1.2244,-3.0865,-0.8449,-11.6688,-3.3977,-0.4530,-5.7583,-6.5438,5.5795,2.4316,-1.1722,-7.1442,-7.5883,0.6347
1378.9062,-6.7052,-3.8062,-3.3903,-0.6436,-4.6483,-9.1113,-8.7754,-1.4147,-11.2388,-3.8793,-2.2201,-7.0366,-8.2479,4.5274,0.4274,-0.4055,-8.3485,-6.8755,-2.2220
1382.8125,-11.0848,-5.1140,-8.0321,-3.5690,-5.5187,-15.8666,-13.9403,-4.0531,-11.2164,-7.5690,-4.7447,-6.5714,-9.1932,2.3174,-3.1789,0.4922,-8.1939,-6.7140,-6.1734
1386.7188,-15.4394,-6.1164,-11.8664,-5.8313,-4.8163,-17.5082,-17.2724,-6.9765,-11.0718,-12.0874,-7.1516,-4.6762,-8.5486,0.8117,-6.6857,1.0137,-6.6343,-6.3115,-9.7016
1390.6250,-17.8435,-5.8655,-13.3127,-5.7141,-3.1040,-15.7172,-18.2019,-8.2108,-10.7506,-14.8930,-8.5783,-2.4418,-6.5943,1.6175,-8.5801,0.8127,-4.6620,-4.9783,-11.3882
1394.5312,-17.7902,-4.5016,-12.4791,-3.1731,-1.4954,-13.6794,-17.3686,-6.9802,-10.5513,-14.8909,-8.7922,-1.0241,-4.3885,4.9010,-8.5264,0.0078,-3.4367,-2.8586,-10.8910
1398.4375,-16.0152,-3.0319,-10.8238,0.1133,-0.7118,-13.5155,-16.2818,-4.2168,-10.6369,-12.7856,-8.2954,-0.8845,-2.9369,9.1627,-7.3684,-0.8177,-3.3405,-0.9560,-9.1567
1402.3438,-13.5532,-2.5308,-9.9043,1.9320,-0.5804,-14.8203,-16.2017,-1.7828,-10.7196,-10.1362,-7.8480,-1.5504,-2.5196,12.2379,-6.2540,-0.9998,-3.7230,-0.4043,-7.6779
1406.2500,-10.9446,-3.4096,-10.2226,1.1501,-0.2971,-15.3455,-17.0612,-0.9901,-10.2478,-8.0426,-7.8022,-2.0799,-2.6312,12.8362,-5.6599,-0.3184,-3.5018,-1.5275,-7.3472
1410.1562,-8.1777,-5.2498,-10.9854,-1.3987,0.8491,-13.1668,-17.4108,-1.5712,-8.9076,-6.5190,-7.7771,-1.8754,-2.4728,11.4580,-5.0973,0.7413,-2.0873,-3.4208,-7.7914
1414.0625,-5.1899,-7.2001,-10.8395,-3.4352,2.9083,-8.5515,-15.6099,-1.9308,-6.9289,-4.9034,-6.9324,-1.2184,-1.5515,9.9466,-3.6736,1.2419,0.1322,-4.4207,-7.7098
1417.9688,-2.2690,-8.5374,-8.9309,-2.8410,5.2803,-4.0228,-11.3832,-0.5044,-4.8671,-2.7578,-4.6345,-1.1107,0.0487,9.9767,-0.9804,0.4250,2.1089,-3.1856,-5.9685
1421.8750,0.0981,-8.9709,-5.4994,0.7758,7.2197,-2.5623,-6.3991,2.8454,-3.0423,-0.3882,-1.0088,-2.5416,1.8257,11.6455,2.4374,-1.7301,2.9555,0.3434,-2.6039
1425.7812,1.7546,-8.5756,-1.6689,5.6947,8.3755,-5.3393,-3.2171,6.5381,-1.1782,1.4456,3.0377,-5.7263,3.2184,13.3102,5.3891,-4.4459,2.5871,4.7805,1.0605
1429.6875,3.1820,-7.5589,1.3008,9.2004,8.9436,-10.7094,-3.3141,8.3897,1.3647,2.2878,6.3424,-9.8702,3.8651,12.8661,6.8381,-6.6502,1.6987,8.0752,3.3080
1433.5938,5.1759,-6.1292,2.7252,9.4392,9.3811,-15.2366,-5.7810,7.3074,4.9129,2.4620,8.1816,-13.6036,3.6539,9.5074,6.5508,-7.6837,1.1596,8.7465,3.2768
1437.5000,8.0991,-4.5382,2.7527,6.6939,9.9921,-15.9736,-7.8599,4.2321,8.9588,2.7986,8.6431,-15.7508,2.6697,4.5695,5.1307,-7.7016,1.3571,6.7723,1.6209
1441.4062,11.3780,-3.1460,2.1385,3.1430,10.7447,-12.3463,-7.0167,1.5274,12.3156,3.8363,8.4381,-15.9066,1.1846,0.7112,3.4989,-7.4925,2.0030,3.5645,0.0685
1445.3125,13.7628,-2.3315,1.7947,1.2600,11.4206,-6.3613,-2.9194,1.2141,13.8989,5.2075,8.3253,-14.4986,-0.3163,-0.0151,2.2958,-7.8779,2.4913,1.0520,0.1874
1449.2188,14.2113,-2.2602,2.3951,2.0012,11.8937,-1.1305,2.3176,3.3772,13.5131,5.7753,8.5845,-12.4119,-1.2141,2.2492,1.6604,-9.1417,2.4480,0.4733,2.2631
1453.1250,12.6889,-2.7172,4.1544,4.1050,12.2477,1.1203,5.8778,5.9973,11.9640,4.4603,8.9112,-10.5158,-1.0303,5.1741,1.4608,-10.8746,2.0107,1.6429,5.1082
1457.0312,10.2046,-3.2098,6.7711,5.0255,12.6420,0.1745,6.5601,6.3964,10.3689,1.1104,8.7652,-9.3856,0.2270,5.8948,1.6583,-12.2791,1.6615,3.1320,6.9276
1460.9375,8.0344,-3.3202,9.5156,2.8259,13.0911,-2.5189,5.7235,3.2482,9.2282,-3.2785,7.8659,-9.2674,1.9311,3.0997,2.4133,-12.6566,1.8232,3.2045,6.5876
1464.8438,6.7754,-3.0440,11.4795,-2.3515,13.4075,-5.1453,6.0301,-2.3581,8.0623,-7.1731,6.4359,-10.1366,3.1201,-2.0106,3.8315,-11.7402,2.5816,0.8863,4.3625
1468.7500,6.0158,-2.8194,11.9627,-8.3207,13.3760,-6.7042,9.0226,-7.6184,5.9588,-9.4781,5.0181,-11.7134,3.0807,-6.6048,5.6135,-9.7297,3.7200,-3.4924,1.6530
1472.6562,4.8795,-3.1810,10.8434,-12.3694,12.9805,-7.3004,13.6061,-9.9761,2.5930,-10.1498,4.0466,-13.4558,1.8386,-8.2617,6.9969,-7.1331,4.9508,-8.5547,-0.0528
1476.5625,2.9515,-4.2833,8.6955,-13.1456,12.4252,-7.5878,16.7896,-8.8954,-1.1563,-10.0305,3.5518,-14.6577,0.1654,-6.6301,7.1463,-4.5883,6.0800,-12.6818,-0.1667
1480.4688,0.7761,-5.6638,6.5210,-11.5347,11.8814,-8.0261,16.1281,-6.1434,-3.5831,-10.0841,3.2676,-14.7040,-0.9458,-3.5114,5.7581,-2.7259,6.9682,-14.8059,0.7777
1484.3750,-0.5031,-6.4459,5.2185,-9.9020,11.1763,-8.5838,11.8209,-4.4056,-3.2959,-10.6364,3.0555,-13.3587,-0.9768,-1.4015,3.4239,-2.0019,7.3927,-14.7286,1.7511
1488.2812,-0.0473,-5.8521,5.1221,-10.2836,9.7539,-8.9917,6.6564,-5.2934,-0.2552,-11.1614,3.2611,-10.8653,-0.2389,-1.6847,1.4252,-2.4589,7.0225,-12.8974,2.1354
1492.1875,1.9940,-3.6756,5.9187,-12.8659,7.0433,-9.1396,3.8075,-8.2163,4.1099,-10.7118,4.6207,-7.7633,0.3729,-3.8406,1.0271,-3.5436,5.5910,-9.9459,2.1703
1496.0938,4.5776,-0.4081,6.9728,-15.8562,3.0123,-9.1576,4.3393,-10.9040,7.7936,-8.6362,7.6806,-4.5605,0.0298,-6.1406,2.7041,-4.2237,3.1258,-6.3921,2.6216
1500.0000,6.5164,3.0176,7.7846,-16.7956,-1.5346,-9.1096,6.5765,-11.1161,9.4142,-5.0805,12.1223,-1.5385,-1.4766,-7.1196,5.7994,-3.5092,0.0061,-2.6661,4.0057
1503.9062,7.2263,5.6604,8.2260,-14.3200,-5.2198,-8.6666,7.8801,-8.2443,8.8212,-0.9859,16.5608,1.1543,-3.6734,-6.5853,8.8528,-1.1425,-3.2343,0.6924,6.0527
1507.8125,6.8733,6.9101,8.4176,-9.0908,-6.8190,-7.1856,7.2518,-3.6708,6.7459,2.3442,19.1105,3.2500,-5.8330,-5.4404,10.4044,2.0382,-6.1967,2.9732,7.8672
1511.7188,5.8957,6.6042,8.4229,-3.2898,-5.9883,-4.2560,6.3766,0.2694,3.9318,3.8110,18.4643,4.2625,-7.5058,-4.6503,9.7918,4.4515,-8.7428,3.5330,8.6388
1515.6250,4.4358,4.9692,8.0812,0.8542,-3.4975,-0.3045,8.0166,1.8586,0.5616,2.9298,14.7871,3.7449,-8.7361,-4.3762,7.4733,4.7424,-10.8560,2.1912,8.2817
1519.5312,2.2490,2.4990,7.1358,2.3823,-0.8095,3.2977,13.0441,0.9474,-3.5446,-0.0383,9.7684,1.7530,-9.8438,-4.0412,4.7052,2.7484,-12.4101,-0.5436,7.4411
1523.4375,-0.8301,-0.1732,5.5151,1.8655,0.7095,4.8577,18.7868,-1.2833,-8.2286,-4.2018,5.7060,-0.9049,-11.0227,-3.1783,2.7936,-0.2667,-13.1282,-3.6432,6.8454
1527.3438,-4.3475,-2.4266,3.4697,0.5873,0.4460,3.3894,20.4568,-3.3804,-12.5296,-8.3070,4.1781,-2.9683,-12.1291,-2.1621,2.3749,-2.3805,-12.8330,-6.0465,6.5652
1531.2500,-7.1914,-3.8275,1.4125,-0.5602,-1.2944,-0.6236,14.8566,-4.5863,-14.9814,-11.0828,5.1745,-3.4796,-12.8216,-2.0256,3.1416,-2.3075,-11.7707,-7.1267,5.8577
1535.1562,-8.1850,-4.2451,-0.3869,-1.5576,-3.5984,-5.2794,3.4383,-5.0253,-14.5043,-11.5972,7.2675,-2.4651,-12.8788,-3.4332,4.1420,-0.3044,-10.6416,-6.8229,3.8108
1539.0625,-6.8520,-3.8074,-1.9382,-2.8220,-5.4430,-8.1534,-7.9907,-5.1453,-11.1695,-9.5395,8.6771,-0.9681,-12.3778,-5.7380,4.4306,2.0020,-10.1828,-5.4036,0.3088
1542.9688,-3.7210,-2.7026,-3.3397,-4.3693,-6.0788,-7.5353,-13.0712,-5.0543,-6.2024,-5.3384,8.4581,-0.3123,-11.5750,-7.1028,3.6388,2.7710,-10.5699,-3.1353,-3.4994
1546.8750,0.0660,-0.9982,-4.4512,-5.4176,-5.2026,-3.3052,-9.4714,-4.3938,-1.2364,-0.0605,6.9697,-1.0963,-10.6412,-5.7976,2.1067,1.2563,-11.1588,-0.1817,-5.7297
1550.7812,3.4696,1.3119,-4.8214,-4.8605,-3.0059,3.0132,-0.6851,-2.8426,2.5476,4.8834,5.3424,-2.6989,-9.5449,-1.7121,0.5233,-1.6910,-10.8895,3.1826,-5.0194
1554.6875,5.9651,4.0041,-4.0657,-2.2513,-0.1758,9.0010,6.4689,-0.7425,4.7187,8.1337,4.4123,-3.7363,-8.2223,3.2144,-0.6406,-4.2711,-9.1369,6.3032,-1.6164
1558.5938,7.3663,6.3231,-2.4438,1.5591,2.2172,12.4615,6.8100,0.8039,5.2232,8.7717,3.9829,-3.1715,-6.8595,6.1775,-1.4798,-5.0154,-6.3402,8.1862,2.5596
1562.5000,7.3807,7.0603,-1.0725,4.7650,3.0861,12.3412,0.4103,0.5805,3.8864,6.6148,2.9967,-1.2214,-5.9450,5.5372,-2.5219,-3.7247,-3.8234,7.9741,5.0304
1566.4062,5.5078,5.1686,-1.3923,5.7831,1.9244,9.0630,-7.9003,-1.7741,0.4372,2.3381,0.4744,0.6945,-5.9344,2.1483,-4.2168,-1.4097,-2.8267,5.5731,4.3268
1570.3125,1.5522,0.6051,-4.1072,4.4087,-0.6757,4.1946,-12.6267,-5.2294,-4.8530,-2.6621,-3.5275,0.9905,-6.7482,-1.1144,-6.4511,0.6144,-3.4527,1.9241,0.9222
1574.2188,-3.6604,-5.2304,-8.3712,2.0407,-3.0428,-0.3244,-11.9216,-7.7512,-10.5495,-6.7020,-7.7084,-0.8308,-7.5632,-1.3738,-8.4853,1.6849,-4.4045,-1.3928,-3.1263
1578.1250,-8.1448,-9.9538,-11.9741,0.7341,-3.1992,-3.0175,-8.6348,-7.4525,-14.2596,-8.4479,-10.2570,-3.7017,-7.1996,2.1699,-9.3954,2.0432,-3.8427,-3.0353,-5.5681
1582.0312,-9.6172,-11.4440,-12.6118,1.7241,-0.0743,-3.4007,-7.3502,-3.7868,-13.8543,-7.4881,-9.9945,-5.7168,-4.9185,7.6714,-8.6995,2.2752,-0.7974,-2.6648,-5.3989
1585.9375,-6.9184,-9.1328,-9.4598,4.4883,5.6022,-2.0119,-10.0091,2.0006,-8.9509,-4.5000,-7.0961,-5.5571,-1.0505,12.0096,-6.6862,2.5372,3.9450,-1.0487,-3.3678
1589.8438,-0.9437,-4.4363,-3.9164,7.0426,11.4363,0.0132,-13.9041,7.4744,-1.4732,-0.8425,-2.9023,-3.5310,3.0878,13.0331,-4.1799,2.3124,8.2402,0.5760,-1.2807
1593.7500,5.7486,0.0495,1.1180,7.2734,14.6315,1.5503,-13.8484,10.3101,5.3360,2.2339,0.9772,-1.4096,6.0113,10.9665,-1.9279,0.9291,10.0629,1.3839,-0.6876
1597.6562,10.4983,2.0959,3.0183,4.3749,13.6719,1.9440,-6.8063,9.5211,8.9004,4.2620,3.5630,-1.1470,7.0519,7.9613,-0.1039,-1.6421,8.9882,1.4171,-1.9196
1601.5625,12.1619,1.0883,1.0652,-0.5971,9.3310,1.1074,4.8898,5.9205,8.8769,5.6355,4.7886,-3.4366,6.7583,6.2519,1.6577,-4.4821,6.5327,1.2951,-4.0858
1605.4688,11.5700,-1.8665,-3.2005,-5.3881,4.2754,-0.6919,14.5787,1.6046,7.1190,7.0158,5.0967,-7.1843,6.3803,6.4457,3.7279,-6.2651,5.0506,1.4820,-5.8796
1609.3750,10.4993,-4.9610,-7.1048,-7.9124,1.4557,-3.1064,15.9853,-1.1956,6.0538,8.5218,4.8339,-10.2830,6.8205,7.2895,5.9161,-6.2501,5.9923,1.7756,-6.4825
1613.2812,10.0403,-6.9940,-8.5901,-7.3845,2.3233,-5.7926,7.9922,-1.2359,6.7505,9.3929,4.0200,-11.0868,7.8784,6.9997,7.4041,-4.8833,8.8466,1.4916,-5.9001
1617.1875,9.7485,-7.9556,-7.3290,-4.5310,6.0522,-8.2685,-4.3141,1.2248,8.2221,8.4954,2.6594,-9.4782,8.4091,4.9566,7.3160,-3.4564,11.5775,0.1981,-4.6121
1621.0938,8.3076,-8.5191,-4.5064,-0.9043,10.2578,-9.7641,-13.2226,4.7199,8.5208,5.3702,1.2189,-6.7780,7.2975,2.3049,5.5122,-3.0559,12.2164,-1.6565,-2.9857
1625.0000,5.1299,-8.9958,-1.6258,2.0942,12.6639,-9.3542,-13.8757,7.4452,6.7084,0.9946,0.7134,-4.6548,4.4851,0.9524,2.9480,-3.6704,10.3701,-2.8512,-1.0167
1628.9062,1.4532,-8.7510,0.6093,3.7932,12.5308,-6.4532,-7.4594,8.1883,4.0210,-2.4714,2.1741,-3.9304,1.2111,1.8236,1.2274,-4.2313,7.4792,-2.2691,1.4158
1632.8125,-0.1659,-6.6748,2.4727,4.1707,10.8830,-1.4013,0.2296,6.8187,3.1547,-2.9650,5.8519,-4.1785,-0.7737,3.8647,1.6087,-3.5937,5.6446,0.0991,4.1043
1636.7188,2.2632,-2.3597,4.4585,3.3872,9.4805,4.3250,3.5332,4.1207,6.1284,-0.0017,10.8113,-4.3234,-0.4536,4.6848,4.1774,-1.6475,5.9649,2.8660,6.3801
1640.6250,8.3546,3.0413,6.3920,1.4378,9.3879,8.5846,1.1788,1.1429,12.4030,4.7469,15.3255,-3.6452,1.6904,2.3699,7.8114,0.4128,7.6986,4.0176,7.4948
1644.5312,15.1468,7.1293,7.2805,-1.7817,10.2286,9.5830,-3.2233,-1.4844,18.8319,8.3229,17.8636,-2.3402,3.9955,-2.9704,10.9687,0.9660,8.8978,2.2665,7.2162
1648.4375,18.8580,7.6812,6.0764,-6.1234,10.6307,6.8560,-4.5699,-3.8228,21.6313,8.3075,17.9719,-1.2323,4.7768,-9.1756,12.6986,-0.6726,7.9857,-1.9972,6.0947
1652.3438,17.3906,4.1736,2.6882,-10.9420,9.4316,1.5939,-0.6148,-6.3432,18.9621,4.3680,16.4077,-0.9770,3.4601,-13.5698,13.1128,-3.5267,5.0100,-6.8943,5.1031
1656.2500,11.7267,-1.7614,-1.6771,-15.2471,6.6476,-3.9401,6.2514,-9.3395,12.1941,-1.5675,14.4555,-1.5004,0.8511,-14.8744,13.0013,-5.5405,1.5762,-10.2904,4.8866
1660.1562,5.1612,-7.3442,-5.2035,-18.1897,3.4404,-7.5667,11.0792,-12.5124,4.9004,-6.6329,12.9776,-2.1561,-1.6205,-14.0340,12.9651,-5.0899,-0.4744,-11.1869,5.2309
1664.0625,0.9616,-10.4008,-6.6686,-19.5159,1.1358,-8.2175,10.4227,-15.0725,0.3553,-8.8966,11.9364,-2.4120,-3.0558,-13.3695,12.8131,-2.2625,-0.5770,-10.2526,5.2144
1667.9688,0.2291,-10.5680,-6.1900,-19.6292,0.1027,-6.2367,5.0204,-16.3018,-0.5793,-8.4529,10.7117,-2.3987,-3.7378,-14.7798,11.7307,1.1246,0.0632,-9.1265,3.9657
1671.8750,1.5260,-9.1060,-4.9206,-19.2017,-0.5889,-2.8657,-0.9876,-16.1317,0.3458,-7.0074,8.8831,-2.7770,-4.7983,-18.3967,9.0704,2.8321,-0.6031,-9.0530,1.4384
1675.7812,2.4086,-7.5792,-3.9813,-18.6294,-2.4339,0.6481,-3.4901,-15.2403,0.4861,-6.3630,6.7801,-4.0100,-7.2023,-22.6585,5.0971,1.8445,-3.8423,-9.9122,-1.4292
1679.6875,1.5240,-6.5397,-3.5578,-17.7464,-6.2344,3.6848,-1.5796,-14.5304,-1.5182,-7.0076,5.3203,-5.6989,-10.8675,-25.6045,1.0534,-0.9130,-9.0712,-10.3916,-3.3252
1683.5938,-0.4362,-5.2890,-2.9340,-16.0149,-11.2931,6.2552,2.0615,-14.3623,-4.8257,-7.8679,5.2696,-6.6439,-14.6063,-26.2778,-1.5380,-3.3356,-14.1651,-9.1573,-3.4876
1687.5000,-1.6206,-2.8539,-1.4089,-13.0474,-15.6979,8.4951,3.6960,-14.1706,-7.3649,-7.3660,6.5433,-5.6944,-16.9195,-25.1502,-1.8085,-3.7657,-16.8961,-6.1096,-2.2253
1691.4062,-0.9059,0.7224,0.7455,-9.0656,-17.5155,10.1339,1.7410,-12.8471,-7.7826,-4.9106,8.1420,-2.7447,-17.0204,-23.3748,-0.0289,-2.2069,-16.4098,-2.7351,-0.6411
1695.3125,0.8507,3.9503,2.1933,-4.9468,-16.0335,10.3999,-2.0188,-9.6748,-6.7218,-1.6461,8.7923,0.9691,-15.3209,-21.6258,2.6548,-0.1906,-13.6633,-1.2411,0.2145
1699.2188,1.2773,4.7862,1.4891,-1.7996,-12.1651,8.4731,-4.1115,-5.1046,-6.3931,0.1318,7.7906,3.6074,-13.0539,-19.5483,4.9498,0.5541,-10.5743,-3.0683,0.0891
1703.1250,-1.6730,2.1886,-1.6707,-0.3449,-7.7654,4.1785,-2.4381,-0.7049,-8.8188,-1.5164,5.3964,3.9952,-11.3671,-16.2287,6.0234,-0.4695,-8.5986,-7.8371,-0.3935
1707.0312,-7.9757,-2.9154,-5.9732,-0.5082,-4.4027,-1.5747,1.8626,1.7957,-14.1849,-6.8113,2.4967,2.4432,-10.5920,-11.2024,5.6206,-2.1504,-7.8234,-13.4725,-0.3497
1710.9375,-15.2742,-8.0833,-9.2874,-1.4886,-2.4874,-6.9614,5.2313,1.7249,-20.6015,-13.9636,-0.1432,0.4441,-10.1983,-5.0875,3.8045,-2.7365,-7.1874,-17.4184,0.5708
1714.8438,-20.3217,-10.9398,-10.1940,-2.2562,-1.3321,-9.9905,4.4439,0.0209,-25.4102,-20.1024,-2.4167,-0.5520,-9.3897,0.6963,0.7324,-1.3448,-5.5450,-18.1166,1.8441
1718.7500,-21.0342,-10.7056,-9.0642,-2.1617,0.0073,-9.4603,-0.9495,-1.3644,-26.9620,-22.7683,-4.7786,-0.3261,-7.8179,4.8623,-3.2590,1.2178,-2.6771,-15.7878,2.4311
1722.6562,-17.6525,-8.5230,-7.8012,-1.2828,1.8291,-5.5958,-8.3727,-0.8473,-25.4928,-21.0406,-7.6332,-0.0643,-5.8552,7.0554,-7.4044,2.9985,0.5222,-12.0787,1.5344
1726.5625,-12.2723,-6.3845,-8.3849,-0.3082,3.5226,0.0063,-14.1928,1.6214,-22.5283,-15.7348,-10.7451,-1.3214,-4.2582,7.8931,-10.5070,2.3945,2.7544,-8.9086,-0.8308
1730.4688,-7.2593,-5.5506,-11.3119,-0.0449,4.1019,5.1436,-16.2256,4.4981,-19.4549,-8.7473,-13.1752,-4.5536,-3.5425,8.3068,-11.4194,-0.5677,3.2987,-7.3257,-3.8479
1734.3750,-3.8190,-5.7030,-15.1247,-0.8621,3.0658,8.1187,-14.8511,5.7864,-16.4939,-2.0805,-13.8104,-8.4072,-3.5853,8.8106,-9.7652,-4.1667,2.4918,-7.0818,-6.4244
1738.2812,-1.6935,-5.4346,-17.4034,-2.4102,0.8879,8.6008,-12.1222,4.5571,-12.8775,2.9102,-12.0861,-10.4230,-3.7543,9.3083,-6.3283,-6.1880,1.3841,-7.0849,-7.8091
1742.1875,0.0373,-3.5902,-16.4742,-3.7833,-1.2350,7.7327,-9.8854,1.7139,-7.9558,5.7962,-8.3724,-8.7458,-3.4280,9.5032,-2.6923,-5.4838,0.9127,-6.3090,-7.8826
1746.0938,1.9152,-0.3129,-12.5574,-4.0251,-2.1624,7.3660,-8.5600,-0.5927,-2.1854,6.9467,-3.7832,-3.6078,-2.4723,9.4163,-0.2902,-2.7398,1.2642,-4.5024,-7.0175
1750.0000,3.7171,3.0436,-7.5299,-2.6739,-1.5166,8.8259,-7.4220,-0.4960,2.9128,7.1769,0.4042,2.5477,-1.3029,9.4552,0.4625,0.0663,1.8836,-2.2530,-5.7213
1753.9062,4.9140,5.0099,-3.5388,-0.0246,0.1877,11.9558,-5.8390,2.2274,5.8291,7.3345,3.2986,6.4852,-0.5080,9.9477,0.2914,1.0487,2.0390,-0.4382,-4.3584
1757.8125,5.3962,5.1465,-1.5453,3.0438,2.0217,15.0984,-4.1396,5.9627,6.2857,7.9340,4.6171,6.2016,-0.3519,10.6097,0.3541,-0.3981,1.4347,0.5088,-3.0806
1761.7188,5.7134,4.2851,-0.8619,5.5627,3.3121,16.1258,-3.2817,8.3631,5.5738,8.9591,4.5910,2.1687,-0.5546,10.5323,1.2826,-3.3976,0.3950,0.9968,-1.8873
1765.6250,6.5947,3.7011,0.0667,6.9901,3.9944,13.9236,-3.6823,7.9486,5.6920,9.9496,3.7715,-3.0461,-0.5085,8.8256,2.7603,-6.3727,-0.4614,2.0617,-0.6780
1769.5312,8.2174,3.9674,2.3383,7.4475,4.4556,9.3500,-4.3897,5.0643,7.9404,10.3750,2.9030,-6.4743,0.2566,5.4373,3.9632,-8.1061,-0.7211,4.6708,0.7275
1773.4375,9.9404,4.4967,5.7738,7.5631,5.0950,4.9369,-3.4984,1.5769,12.0528,10.0939,2.8278,-6.5619,1.7345,1.4327,4.4482,-8.2956,-0.4199,8.9966,2.5174
1777.3438,10.8050,4.1738,9.1768,8.0551,6.0196,3.4099,0.4020,-0.3844,16.5062,9.5723,4.2800,-3.9001,3.4894,-1.5791,4.6834,-7.3468,0.1307,14.1396,4.7189
1781.2500,10.4041,2.5251,11.3686,9.3288,7.1120,5.9331,6.9028,0.2968,19.7151,9.6415,7.5363,-0.5064,5.0346,-2.4873,5.7143,-5.7802,0.7193,18.5121,7.0404
1785.1562,9.3631,0.3839,12.1166,11.3160,8.3411,11.2559,13.7116,3.2727,21.1447,10.9011,12.1166,1.6780,6.2245,-1.3922,8.2186,-3.8578,1.4447,20.6702,8.9213
1789.0625,8.9662,-0.6029,12.2226,13.5895,9.9662,16.3901,17.9995,7.2494,21.4927,13.1718,16.8192,1.9436,7.3352,0.5633,11.7565,-1.7106,2.5658,20.0829,9.8613
1792.9688,10.1666,0.6926,12.7506,15.6115,12.3888,18.4139,18.1999,10.9193,21.8652,15.4233,20.1943,0.8861,8.7610,2.0911,14.8946,0.2872,4.1451,17.3450,9.8328
1796.8750,12.7447,3.7678,14.0585,16.9291,15.7481,16.2118,14.9542,13.5758,22.6714,16.2784,21.2307,-0.4456,10.5747,2.6519,16.1593,1.3993,5.8340,13.6998,9.4202
1800.7812,15.2881,6.5579,15.4293,17.2423,19.6195,10.9878,10.5647,15.0874,23.1610,14.7733,19.8274,-1.5001,12.3281,2.6517,15.0680,0.9211,7.0406,10.2121,9.4785
1804.6875,16.0397,6.7463,15.6044,16.4113,23.1262,5.2479,7.4307,15.5022,21.9849,10.8531,16.7504,-2.4888,13.3021,2.8576,12.4093,-1.1786,7.3862,7.1847,10.5009
1808.5938,14.0072,3.3931,13.8097,14.5056,25.4434,1.0247,6.6224,14.8009,18.3377,5.2871,13.1400,-3.8427,13.0645,3.6061,9.5629,-3.9472,7.0872,4.2379,12.1899
1812.5000,9.5489,-2.3356,10.4834,11.8939,26.3260,-1.3709,7.5280,13.0567,12.7750,-0.8746,9.9453,-5.4507,11.9197,4.5212,7.4522,-5.8578,6.9269,0.9640,13.6459
1816.4062,4.0686,-7.9068,7.1376,9.2407,26.2388,-3.2136,8.6481,10.7574,7.0479,-6.8596,7.6552,-6.4372,10.8665,4.9670,6.0060,-5.7579,7.7824,-2.4041,14.1032
1820.3125,-0.8907,-11.1054,5.4179,7.2688,25.9586,-6.0293,8.8113,8.8126,3.0387,-12.3523,6.3926,-5.7550,11.0117,4.7825,4.5439,-3.6954,10.0227,-4.9207,13.6424
1824.2188,-4.4786,-11.4419,6.0042,6.3235,25.9333,-10.1274,7.9175,8.0274,1.5568,-17.2515,6.1222,-3.1378,12.7989,4.5765,2.6783,-0.9739,13.2092,-5.6090,13.2340
1828.1250,-6.7546,-10.2808,8.1102,6.0121,25.8923,-14.1284,6.7906,8.3715,1.8571,-21.3132,6.6855,0.4035,15.5955,5.2464,0.8814,0.6755,16.3154,-4.4030,13.9590
1832.0312,-8.2605,-9.6507,9.9363,5.2582,25.0183,-15.8446,6.4029,8.6986,2.2194,-24.0350,7.6470,3.0403,17.9681,7.0972,0.1771,0.2565,18.3086,-2.5479,15.9579
1835.9375,-9.3741,-10.6603,9.7963,2.8906,22.5602,-13.8509,7.1077,7.3326,1.1802,-24.8787,8.2330,3.2897,18.5116,9.3462,1.2213,-1.8159,18.6808,-1.9788,17.9891
1839.8438,-9.9630,-12.6921,7.1977,-1.5217,18.4254,-8.5880,8.3962,3.2584,-1.4406,-23.6150,7.6480,1.0520,16.6876,10.5193,3.6100,-4.0111,17.5766,-3.9843,18.0962
1843.7500,-9.5602,-13.9253,3.1871,-7.1544,13.3030,-2.2063,9.2730,-2.9182,-4.4154,-20.4905,5.6993,-2.2551,13.1014,9.5041,6.0844,-4.7415,15.4827,-8.1037,15.0177
1847.6562,-7.8728,-12.7388,-0.2660,-12.1920,8.2335,2.7200,8.9431,-9.0456,-5.9615,-16.1155,3.2499,-4.5816,9.0343,6.4356,7.5107,-3.4261,12.7749,-12.1692,9.3102
1851.5625,-5.2139,-8.9336,-1.4696,-14.8223,3.9627,4.6943,7.3520,-12.6429,-4.9866,-11.2342,1.9790,-4.5110,5.5839,2.6786,7.7968,-0.8119,9.5025,-13.6196,3.2609
1855.4688,-2.5310,-3.9010,-0.0435,-14.3584,0.5673,4.0176,5.2442,-12.4955,-1.8944,-6.6017,3.3869,-2.0098,3.0483,-0.1128,7.9196,1.6434,5.5731,-11.2384,-0.4640
1859.3750,-0.9980,0.3248,2.8735,-11.6958,-2.3863,2.3322,3.6859,-9.4996,1.5864,-2.9995,7.6412,1.8146,0.9971,-1.1249,8.9893,2.8492,1.1565,-6.0611,-0.5096
1863.2812,-1.4152,2.3928,5.3941,-8.7129,-5.3127,1.4115,3.3182,-6.0916,3.4432,-1.1948,13.1483,5.6543,-1.0672,-0.8121,11.1429,2.8304,-3.0761,-0.7329,2.3758
1867.1875,-3.7658,2.3917,6.1508,-6.9683,-8.1513,2.0545,3.8091,-4.6024,2.6266,-1.6561,17.3324,8.8515,-3.0293,-0.3118,13.2553,2.6228,-6.1503,2.2785,6.0356
1871.0938,-7.1773,1.5707,5.2310,-6.6067,-10.3440,3.7553,3.9423,-5.6832,-0.2912,-4.1198,18.2219,11.5235,-4.0624,-0.3810,13.7896,3.4290,-7.3525,2.3338,8.5407
1875.0000,-10.3204,1.3307,4.1193,-6.3024,-11.2586,5.2303,2.4369,-7.9399,-3.4653,-7.3965,15.7611,13.9752,-3.2524,-0.7753,12.1057,5.6700,-6.7749,0.9291,9.5005
1878.9062,-12.0438,2.2738,4.6327,-4.3459,-10.7123,5.3459,-0.9400,-9.0632,-4.9075,-9.7698,11.8544,16.0232,-0.4793,-0.6045,9.1035,8.6212,-5.4119,0.4534,10.0497
1882.8125,-11.9175,3.9684,7.5356,-0.1125,-9.1880,3.8381,-4.7705,-7.6424,-3.6762,-9.9108,9.0359,16.9048,3.1753,0.6619,6.5899,10.8768,-4.6677,2.3613,11.5798
1886.7188,-10.3837,5.5040,11.8118,5.2004,-7.5804,1.4479,-6.5460,-4.3284,-0.3713,-7.7301,8.6941,15.9135,5.9133,2.4501,5.8402,11.2918,-5.5515,6.1601,14.2951
1890.6250,-8.4175,6.3243,15.1803,9.2035,-6.6686,-0.5138,-4.2973,-1.4535,3.3601,-4.4807,10.1597,13.2246,6.3354,3.3220,6.5527,9.7275,-8.0756,9.9501,16.8118
1894.5312,-6.8853,6.6743,15.5869,9.9506,-6.6946,-0.8816,1.6902,-1.3377,5.9465,-1.9083,11.3456,10.1368,4.3976,2.0920,7.1121,7.0967,-11.2631,12.0209,17.1611
1898.4375,-6.0037,7.3416,12.6652,7.4157,-7.3128,0.7359,8.4008,-4.4889,6.8671,-0.9966,10.4458,8.3834,1.4740,-1.0747,5.9896,4.7144,-13.7635,12.1788,14.3948
1902.3438,-5.2692,8.9259,8.0903,3.6793,-7.8854,3.7000,11.5323,-9.0256,6.8172,-1.2609,7.3765,8.9351,-0.5746,-4.5355,3.1169,3.4407,-14.6681,11.7242,9.4762
1906.2500,-3.9371,11.2169,4.4810,1.5882,-7.8669,6.5859,8.1911,-11.8050,6.9805,-1.2004,3.8258,11.1963,-0.6814,-6.2279,0.0403,3.2121,-13.9898,12.1274,4.6900
1910.1562,-1.7320,13.1613,3.5577,2.7747,-7.0176,7.8547,-0.9223,-10.5161,7.9660,0.3783,1.8676,13.2775,0.7198,-5.1526,-1.3426,3.2455,-12.5176,13.5437,2.0021
1914.0625,0.7402,13.4592,4.8667,6.4530,-5.3749,6.6641,-11.5150,-5.2851,9.2149,3.1964,2.2322,13.2364,2.0801,-2.1300,-0.4461,2.7120,-11.1931,14.4674,1.6532
1917.9688,2.2406,11.3737,6.0526,9.9073,-3.1050,3.3870,-18.1698,1.3502,9.3429,5.4895,3.6225,10.4211,1.9194,0.7982,1.3550,1.3638,-10.4709,12.8980,2.0960
1921.8750,1.7015,7.1980,4.5606,10.3853,-0.3957,-0.5242,-17.7650,6.1083,7.1859,5.2619,3.6571,5.9314,-0.0670,1.9017,1.7151,-0.3285,-10.0949,8.1218,1.3173
1925.7812,-0.9588,2.0767,-0.4161,7.0808,2.5559,-3.3537,-11.4897,7.1386,2.7793,1.8880,0.7401,1.8408,-2.7842,1.0637,-0.7880,-1.5847,-9.3972,1.6360,-1.5191
1929.6875,-4.6242,-2.6703,-7.1737,1.7873,5.5390,-4.1930,-3.9699,5.2062,-2.4742,-3.2150,-4.5914,-0.2603,-4.5258,-0.1514,-5.3822,-1.9312,-7.8435,-3.6341,-5.4118
1933.5938,-7.5870,-6.2419,-12.5194,-2.2644,8.3872,-3.5887,-0.0681,3.0837,-6.6046,-7.4545,-9.9075,-0.3407,-4.1556,0.2835,-9.5329,-1.5562,-5.4054,-5.3290,-8.3396
1937.5000,-8.5946,-8.6136,-13.8845,-2.5794,11.0711,-3.2774,-1.6378,3.5865,-8.2807,-8.8748,-12.5568,0.1475,-1.8113,3.2918,-10.7929,-1.1543,-2.5117,-3.3620,-8.8664
1941.4062,-7.6183,-10.2376,-11.0169,0.9346,13.6948,-5.0971,-6.5667,7.6159,-7.5565,-7.5415,-11.5104,-0.5930,1.3297,7.9783,-8.6278,-1.4024,0.3245,-0.0048,-7.2331
1945.3125,-5.8057,-11.4746,-6.0513,5.9504,16.3167,-9.7502,-10.7217,13.5322,-5.6415,-5.4172,-7.9950,-3.3660,3.9584,12.2952,-4.7718,-2.4671,2.8743,1.7606,-5.0894
1949.2188,-4.6613,-12.2262,-1.9566,9.3143,18.6911,-16.2431,-11.2115,18.2366,-3.9137,-4.8122,-4.4840,-7.4092,5.4830,14.5470,-1.8444,-3.9016,5.2709,0.4011,-4.1349
1953.1250,-5.0511,-12.0636,-0.5432,9.0915,20.1729,-22.3886,-8.4172,19.1643,-2.9532,-6.6195,-2.8724,-10.9481,6.2214,14.5727,-1.3535,-4.9836,7.7724,-3.1104,-4.8043
1957.0312,-6.7237,-10.7490,-1.4851,5.6579,19.9695,-26.0297,-5.2709,15.8220,-2.3224,-9.7083,-3.2443,-12.4016,6.9117,13.7251,-2.6809,-5.2197,10.4459,-6.1056,-6.0365
1960.9375,-8.6303,-8.7105,-2.9695,1.1852,17.6666,-26.1612,-4.4887,9.8961,-1.2030,-11.9253,-4.1154,-11.3402,8.0388,13.7168,-3.8145,-4.6400,13.0447,-6.2358,-6.2444
1964.8438,-9.7257,-7.0284,-3.3135,-1.9659,13.6746,-23.2480,-6.0972,3.9982,0.6908,-11.8700,-3.8377,-8.5655,9.5367,15.2576,-3.1547,-3.6891,15.1670,-3.1495,-4.6165
1968.7500,-9.6206,-6.8324,-2.1994,-2.7288,9.2138,-18.6604,-7.3247,0.0203,2.7172,-10.0029,-1.9646,-5.3853,11.0217,17.5181,-0.8624,-2.8354,16.5297,1.3869,-1.6691
1972.6562,-8.6417,-8.4738,-0.5879,-1.7033,5.7396,-13.7597,-4.9712,-1.7717,3.7877,-8.2103,0.5180,-2.7209,12.2331,18.7734,1.3595,-2.2221,17.1113,4.9053,1.3440
1976.5625,-7.3635,-11.0696,0.4783,-0.3443,4.1298,-9.3103,1.6941,-2.4266,3.3503,-8.2102,2.2123,-0.7057,13.2242,17.6722,1.8228,-1.6273,17.0522,6.0120,3.5662
1980.4688,-6.0786,-12.8280,1.0431,0.2444,4.1890,-5.5060,9.9357,-3.2102,2.0597,-10.1188,2.6588,1.0450,14.1416,14.1531,0.4041,-0.7397,16.4373,5.1699,5.1909
1984.3750,-4.6593,-12.0490,2.3009,-0.0407,4.8448,-2.3555,15.3709,-4.6420,1.5292,-12.3490,2.8447,2.8556,14.8649,9.3763,-1.2416,0.4908,15.1961,4.0055,7.0753
1988.2812,-2.8798,-8.2004,5.4694,-0.5829,4.9309,0.0470,15.2345,-6.3343,3.2697,-12.9132,4.4175,4.6360,14.9334,4.8353,-0.9994,1.7184,13.2419,3.8446,9.7145
1992.1875,-0.8624,-2.3590,10.4553,-0.8329,4.0122,1.5877,10.5106,-7.5824,7.5669,-11.0640,8.2371,5.9994,13.9114,1.4023,1.9476,2.3929,10.7288,4.7167,12.5603
1996.0938,0.7832,3.3133,15.5367,-0.8326,2.6565,2.3310,5.2143,-8.0736,13.1296,-7.9479,13.4594,6.6592,11.8982,-0.9842,6.3810,2.1359,8.1624,5.5685,14.3708
2000.0000,1.2801,6.7624,18.4614,-1.0432,1.9581,2.4965,3.3578,-8.0857,17.7892,-5.7592,17.9324,6.6973,9.6853,-2.8706,9.9444,1.0233,6.1964,5.3759,14.3447
2003.9062,0.2208,7.1562,18.1435,-1.7231,2.6707,2.1435,5.9648,-8.0804,19.7669,-6.0870,19.6392,6.4754,8.3186,-4.5721,10.9409,-0.4192,5.2172,4.1183,13.0338
2007.8125,-2.0988,5.2233,15.5617,-2.5178,4.5994,0.9167,10.4472,-8.1538,18.6376,-8.7588,18.0901,6.3174,8.3460,-5.8245,9.5710,-1.4870,5.0385,2.7715,12.1368
2011.7188,-4.8024,2.6374,13.0430,-2.7091,6.7018,-1.7082,12.7815,-7.9193,15.3730,-12.0453,14.6118,6.2904,9.3505,-6.0515,7.6352,-1.6399,4.9842,2.3650,13.1987
2015.6250,-6.9169,0.8981,12.4201,-1.9363,7.8110,-5.6742,10.7299,-6.9604,11.5273,-13.9869,11.3422,6.2832,10.1949,-4.9363,6.9958,-0.7124,4.3462,2.9697,16.2236
2019.5312,-7.8780,0.4652,13.5233,-0.7134,7.4323,-9.6961,5.5777,-5.4251,8.2114,-13.7646,9.7275,6.2639,9.8394,-2.7562,8.0861,1.0835,2.8962,3.5326,19.3935
2023.4375,-7.7585,0.6825,14.2721,-0.1865,6.0265,-11.4900,1.0810,-4.1453,5.5637,-12.0966,9.6524,6.4166,8.1088,-0.1895,9.6665,3.2878,1.0543,2.7372,20.2705
2027.3438,-7.1554,0.4515,12.3809,-1.2210,4.5999,-9.0825,0.5184,-4.0605,2.9852,-10.4990,9.7842,6.9820,5.7938,2.1990,9.9576,5.3399,-0.4291,0.1733,17.6515
2031.2500,-6.8851,-0.8887,7.3677,-3.5453,3.9451,-2.4401,4.1679,-5.3663,-0.1712,-10.1371,8.7526,7.9443,3.9957,4.3046,8.1503,6.6931,-1.0499,-3.1840,12.6463
2035.1562,-7.6804,-3.1078,1.2373,-5.7231,4.1110,5.8663,9.1159,-7.1407,-4.0323,-11.2006,6.1903,8.8966,3.2339,6.3431,5.0299,6.9272,-0.9425,-5.6290,8.0678
2039.0625,-9.9724,-5.3282,-2.8000,-6.1018,4.4717,11.7647,11.4484,-7.8747,-8.1353,-13.1639,2.8589,9.2823,3.0413,8.3775,2.2426,5.8918,-0.7837,-6.0169,6.5052
2042.9688,-13.7499,-6.7128,-2.6684,-4.0627,4.2866,12.0800,9.0888,-6.5865,-11.8040,-15.4952,-0.1183,8.8550,2.3807,9.9970,0.8845,3.8341,-1.2759,-4.6552,8.4913
2046.8750,-18.4969,-7.0501,0.9597,-0.5764,3.2916,6.6422,3.1761,-3.6481,-14.5909,-18.0695,-2.1906,7.9506,0.5531,10.5274,0.6271,1.3960,-2.6031,-3.0641,12.1415
2050.7812,-23.2773,-6.8197,5.0545,2.4492,1.8863,-1.4735,-2.8910,-0.5954,-16.4398,-20.9314,-3.6909,7.2810,-2.1293,9.6702,0.0984,-0.5942,-4.2630,-2.7788,14.5432
2054.6875,-27.0232,-6.7429,6.3828,3.5941,0.8269,-7.8890,-5.8642,1.0199,-17.5101,-23.7428,-5.3205,7.3714,-4.4479,8.0254,-1.8462,-1.4701,-5.3892,-4.1349,13.8502
2058.5938,-28.9453,-7.2037,3.8211,3.0302,0.7057,-9.7391,-4.6911,0.8678,-17.8894,-25.5752,-7.3221,8.1039,-5.0920,6.9542,-5.0664,-1.0221,-5.3115,-5.9997,10.5150
2062.5000,-28.8358,-7.9847,-0.9088,2.3985,1.6006,-7.3397,-0.8662,0.1478,-17.4751,-25.3760,-9.1054,8.7860,-3.5709,7.7278,-8.1859,0.4480,-3.9573,-6.6662,6.7691
2066.4062,-27.0464,-8.4860,-4.6214,3.4856,3.0783,-3.5174,2.8748,0.6352,-16.1196,-22.7675,-9.6789,8.7219,-0.5698,10.5156,-9.6913,2.3398,-1.8551,-5.2235,4.8028
2070.3125,-24.1432,-8.2191,-5.0972,6.6873,4.4437,-1.1850,4.3725,3.1540,-13.9000,-18.4604,-8.5411,7.8072,2.4580,13.9967,-9.1513,4.0747,0.1870,-2.3480,5.0621
2074.2188,-20.5124,-7.1785,-2.7170,10.4719,4.9963,-1.0952,3.1188,6.6875,-11.2738,-13.8497,-6.2795,6.6043,4.1085,15.9950,-7.5531,5.2984,1.4551,0.0917,5.9413
2078.1250,-16.2546,-5.8210,-0.0927,12.3255,4.1668,-1.5289,0.1269,8.9065,-8.9782,-10.0740,-4.3441,5.7861,3.6806,14.8079,-6.5138,5.8621,1.5376,0.3275,5.0552
2082.0312,-11.4673,-4.7006,-0.0270,10.5316,1.6022,-0.0928,-2.9700,7.8041,-7.7171,-7.3124,-4.1220,5.4143,1.3266,10.3506,-7.0469,5.6797,0.3539,-2.0613,1.0814
2085.9375,-6.6480,-4.0621,-3.3752,5.4666,-2.6770,3.9199,-4.8220,3.2230,-7.8107,-4.9220,-5.9937,4.7252,-2.2107,4.3188,-8.8861,4.6581,-1.8588,-5.8293,-5.2144
2089.8438,-2.7811,-3.7021,-8.4071,-0.5688,-8.0666,8.6126,-4.8144,-2.9079,-8.9937,-2.2889,-9.0703,2.7135,-5.9434,-0.7706,-10.8513,2.8074,-4.5132,-8.8656,-11.4785
2093.7500,-0.9002,-3.1865,-12.0847,-4.8741,-13.3313,10.8300,-3.1150,-7.8474,-10.4676,0.3698,-11.7895,-0.8979,-8.8531,-3.0252,-11.8644,0.4309,-6.6805,-9.5199,-15.3426
2097.6562,-1.3759,-2.2390,-12.2406,-6.1043,-16.9395,8.6977,-0.5623,-9.8795,-11.2045,2.0054,-12.9162,-5.1307,-10.0357,-2.1531,-11.7340,-1.8335,-7.3092,-7.5543,-15.8716
2101.5625,-3.4968,-1.0054,-9.0287,-4.9800,-17.7386,3.2760,1.5251,-9.3307,-10.3976,1.6012,-12.2313,-8.2268,-8.9529,0.6279,-11.1005,-3.2593,-5.6898,-4.1518,-13.8884
2105.4688,-5.7556,-0.0032,-4.6518,-3.4852,-15.5971,-2.0701,1.7397,-8.0267,-7.8755,-0.8072,-10.4780,-8.8903,-5.7814,3.5843,-10.6945,-3.4523,-1.9358,-1.0873,-11.0947
2109.3750,-6.7225,0.2017,-1.6917,-3.2349,-11.5380,-4.1307,-0.7752,-7.6724,-4.2608,-3.8558,-8.6984,-7.3667,-1.5743,5.5992,-10.6222,-2.6385,2.8953,0.3191,-8.7860
2113.2812,-5.8901,-0.6364,-1.3531,-4.2851,-7.1733,-2.2028,-5.7017,-8.4699,-0.7252,-5.6404,-7.5062,-5.4449,2.0875,6.6645,-10.3024,-1.5574,7.2515,-0.1865,-7.1473
2117.1875,-3.8629,-2.2700,-2.8728,-5.2588,-3.7529,1.5107,-11.4024,-9.0653,1.6068,-5.0122,-6.8017,-5.2497,3.9298,7.4983,-9.0574,-0.9846,9.9184,-1.8833,-5.5376
2121.0938,-1.7705,-4.0867,-4.3787,-4.6072,-1.4697,3.7064,-15.5096,-7.8240,2.3010,-2.3910,-6.0448,-7.6562,3.8126,8.7185,-6.7854,-1.2135,10.7088,-3.6631,-3.3600
2125.0000,-0.4194,-5.4505,-4.4027,-1.9561,0.4807,2.4757,-16.0031,-4.3600,1.8878,0.5268,-4.7889,-11.5284,2.9024,10.2825,-4.1103,-1.8891,10.5202,-4.6668,-0.7159
2128.9062,0.1059,-6.0538,-2.8699,1.5331,3.1300,-1.5032,-12.1464,-0.0419,1.5177,1.9133,-3.0522,-14.4214,2.9291,11.6149,-1.9083,-2.3304,10.6890,-4.6160,1.6709
2132.8125,0.0977,-6.0814,-0.9192,4.0404,6.8464,-5.8998,-4.7493,2.9576,2.1557,0.9202,-1.2955,-14.2877,4.9657,12.2423,-0.6704,-2.0947,12.0809,-3.7572,3.1129
2136.7188,-0.4606,-6.0987,0.1495,4.4757,11.0139,-8.8196,4.2908,3.3247,3.8462,-2.0307,-0.0981,-10.9429,8.6116,12.3396,-0.2665,-1.3373,14.5600,-2.5745,3.5769
2140.6250,-2.1621,-6.7214,-0.1026,3.2738,14.5279,-10.1728,12.7502,1.6512,5.6144,-5.8369,0.2056,-6.2052,12.2351,12.6736,-0.2633,-0.6754,17.1919,-1.4960,3.7264
2144.5312,-5.6173,-8.2329,-1.0165,1.9950,16.7003,-11.2011,18.6847,0.0277,6.1555,-9.5452,-0.2910,-2.6131,14.1485,13.9453,-0.4174,-0.6698,18.9802,-0.7383,4.3734
2148.4375,-10.4530,-10.3501,-1.4490,2.0789,17.8267,-12.7421,20.7675,0.4933,4.8696,-12.6951,-1.1104,-1.6952,13.8385,16.0471,-0.8174,-1.3484,19.5424,-0.3190,5.8192
2152.3438,-14.8064,-12.2796,-0.6576,3.7387,18.9250,-13.9606,18.5619,3.5345,2.4659,-15.0162,-1.5799,-3.0708,12.2900,17.8613,-1.5302,-2.1686,19.2123,-0.1786,7.6262
2156.2500,-16.0138,-13.0724,1.2334,5.8257,20.8320,-12.8452,12.8662,7.7516,0.6069,-15.9790,-1.0759,-4.9885,11.1276,17.8301,-2.1396,-2.4539,18.5472,-0.3261,8.9727
2160.1562,-12.2679,-12.1251,3.4528,6.7077,23.3859,-8.1354,5.8724,10.8754,0.7595,-14.8433,0.7269,-5.7954,11.2373,14.9398,-1.7415,-1.9437,17.7088,-0.9228,9.2620
2164.0625,-4.1192,-9.5729,5.1922,5.4329,25.3872,-0.9410,0.6527,11.2905,3.0614,-11.3265,3.6506,-5.1586,11.9760,9.4321,0.4350,-1.0018,16.2779,-2.2437,8.4809
2167.9688,5.3850,-6.3353,6.0796,2.2975,25.4281,5.5491,-0.1842,8.9198,6.0776,-6.3139,6.9595,-4.1265,11.6315,2.7359,4.2335,-0.3091,13.6809,-4.5115,7.0658
2171.8750,12.2381,-3.7369,6.2092,-1.5264,22.9721,8.2629,3.9359,4.9310,7.7078,-1.8281,9.5706,-4.0852,8.8084,-3.3260,8.3356,-0.3019,9.8671,-7.6785,5.4721
2175.7812,13.7603,-2.8568,5.8452,-4.8969,18.8360,6.6050,10.8748,0.6919,6.6393,-0.0134,10.5248,-5.5225,3.6591,-7.4978,10.9397,-0.8278,5.6408,-11.2886,3.8776
2179.6875,10.0883,-3.9365,5.1630,-7.3707,14.6723,2.9385,16.7758,-3.0815,3.2896,-1.7536,9.5082,-7.6003,-2.0224,-9.5789,10.9518,-1.3065,2.3120,-14.5373,2.2836
2183.5938,3.8472,-6.1823,4.2684,-9.1582,11.8261,0.6390,18.3632,-6.3525,-0.4763,-5.9805,7.0918,-8.8245,-5.9478,-10.1845,8.7859,-1.2520,0.8852,-16.5410,0.8795
2187.5000,-1.7122,-8.1079,3.4099,-10.5357,10.4359,1.2483,15.0632,-9.1423,-2.6670,-10.2965,4.4710,-8.2048,-6.8615,-10.0628,6.0989,-0.7011,1.3877,-16.6952,0.2597
2191.4062,-4.7406,-8.2715,3.0772,-11.3324,9.4604,3.1455,9.3648,-11.0067,-2.5524,-12.5422,2.8114,-5.9497,-5.3072,-9.5380,4.6051,-0.1730,2.8474,-14.9303,1.1864
2195.3125,-5.5700,-6.0340,3.7766,-10.9911,7.5856,2.9843,5.0076,-11.2102,-1.0962,-12.1674,2.6086,-3.1860,-3.1001,-8.4754,4.8669,-0.1871,3.9280,-11.7295,3.9984
2199.2188,-5.8488,-1.9331,5.5986,-9.1517,4.2800,-1.1809,4.2333,-9.4848,-0.1353,-10.3878,3.5044,-1.0174,-1.9786,-6.7057,6.0117,-0.7532,3.7417,-7.9071,8.1256
2203.1250,-6.8874,2.5380,7.9425,-6.2122,0.1700,-7.7095,6.1495,-6.6494,-0.9619,-9.0438,4.6868,0.2623,-2.4874,-4.4729,6.5936,-1.2820,2.2604,-4.2830,12.1697
2207.0312,-8.5775,5.6487,9.7080,-3.3132,-3.5276,-12.1466,7.4940,-4.4086,-3.3923,-9.0931,5.5663,1.1880,-3.8811,-2.4757,5.8903,-1.0158,0.1054,-1.4198,14.6154
2210.9375,-9.6612,6.2813,9.9177,-1.6689,-6.0134,-10.5849,5.2561,-4.3324,-6.0016,-9.9346,6.1991,2.4576,-4.9733,-1.4359,4.5626,0.3685,-2.0113,0.4735,14.7404
2214.8438,-8.9804,4.4749,8.3692,-1.7288,-7.5071,-3.0114,-0.8640,-6.7541,-7.2854,-10.0613,7.1198,4.2327,-5.1331,-1.5352,4.1169,2.4834,-3.7006,1.4747,13.0920
2218.7500,-6.5762,1.3814,5.8302,-2.8301,-8.9497,6.1554,-8.0844,-10.4634,-6.8093,-8.4533,8.7183,6.0203,-4.6189,-2.1908,5.5957,4.5142,-4.8834,1.7972,11.1595
2222.6562,-3.7362,-1.3431,3.5815,-3.6362,-11.0693,11.0070,-12.5557,-13.4849,-5.4712,-5.5372,10.6810,7.1824,-4.0877,-2.3800,8.5703,5.8237,-5.4950,1.6400,10.4236
2226.5625,-2.0262,-2.3926,2.5741,-3.0537,-13.6098,8.4378,-12.1709,-14.3801,-4.7309,-2.9234,11.9906,7.5501,-3.8407,-1.2998,11.2812,6.3731,-5.2970,1.0962,11.4038
2230.4688,-2.1812,-1.4559,2.7698,-0.9599,-15.3969,0.4741,-7.9802,-13.1038,-5.4729,-2.1549,11.5454,7.5462,-3.5363,1.1138,11.8518,6.6172,-4.0482,0.1468,13.3301
2234.3750,-3.7607,0.6917,3.1454,1.7726,-15.2235,-7.2282,-3.1811,-10.8175,-7.3963,-3.5042,8.9529,7.7018,-2.6152,4.1720,9.6323,6.9903,-1.8908,-1.2541,14.6419
2238.2812,-5.7410,2.6925,2.3988,3.9286,-12.8537,-9.6009,-0.6230,-8.8834,-9.3497,-5.7850,4.8840,8.0385,-0.9975,6.9040,5.6301,7.4536,0.4533,-3.0355,13.9672
2242.1875,-7.3946,3.4123,-0.0892,4.7677,-9.3281,-5.8378,-0.9054,-7.8791,-10.2507,-7.2862,0.6933,7.9398,0.6467,8.6485,1.7210,7.5198,1.9662,-4.8864,10.9398
2246.0938,-8.6346,2.5744,-3.6955,4.4219,-6.3017,0.2924,-2.5336,-7.3743,-9.8152,-7.0219,-2.4253,6.7011,1.3555,9.3443,-0.6962,6.7434,1.9655,-6.2626,6.3623
2250.0000,-9.5904,0.8456,-6.8167,3.6494,-4.9244,3.6341,-3.7789,-6.5416,-8.5625,-5.2860,-4.1195,4.3075,0.6828,9.3659,-1.5327,5.2393,0.6037,-6.5856,1.6743
2253.9062,-9.9609,-0.6696,-7.8463,3.2053,-5.1361,1.7044,-4.4543,-4.9946,-7.2173,-3.1399,-4.9035,1.7147,-0.8775,9.1015,-1.7357,3.7389,-1.1988,-5.5695,-1.8811
2257.8125,-8.9286,-1.1974,-6.2661,3.3227,-5.9097,-3.6243,-5.9829,-3.1260,-6.1091,-1.3829,-5.5558,0.2810,-2.2700,8.6315,-2.2450,3.0791,-2.3856,-3.4826,-3.8698
2261.7188,-5.8724,-0.8206,-3.1307,3.6423,-6.2061,-8.0640,-9.7423,-1.7116,-5.0929,0.0484,-6.4113,0.7190,-2.7733,7.7343,-3.1293,3.5194,-2.4931,-1.1368,-4.7444
2265.6250,-1.2785,-0.4080,-0.5683,3.5528,-5.8370,-8.7337,-15.2799,-1.1948,-3.9784,1.7493,-7.1245,2.4048,-2.6407,6.1528,-3.6365,4.4677,-1.9059,0.4609,-5.4363
2269.5312,3.0822,-0.9897,-0.5424,2.6284,-5.5308,-6.6152,-20.1641,-1.3109,-2.9695,3.9592,-7.0707,3.6656,-2.9001,3.8582,-3.0562,4.8837,-1.4464,0.6246,-6.7771
2273.4375,5.1181,-3.0018,-3.6154,0.8547,-6.1754,-5.5807,-21.7780,-1.3706,-2.6200,6.0220,-6.0107,2.9113,-4.4420,1.0905,-1.5627,4.0727,-1.6470,-0.6394,-9.0801
2277.3438,3.9257,-5.9213,-8.5114,-1.4398,-7.9030,-8.8208,-19.5513,-0.9211,-3.2881,6.7968,-4.4216,-0.2153,-7.1535,-1.8214,-0.2170,2.2367,-2.3194,-2.6550,-12.0470
2281.2500,0.6572,-8.5541,-12.8033,-3.8032,-9.8220,-15.7128,-15.6011,-0.1785,-4.5894,5.7462,-3.1880,-4.5515,-9.8526,-4.6649,-0.0526,0.3258,-2.7780,-4.4812,-14.9586
2285.1562,-2.0668,-9.7834,-14.3397,-5.8361,-10.6512,-21.8553,-13.0524,0.1535,-5.4134,3.7421,-2.8925,-8.2258,-11.1139,-7.3802,-1.0113,-0.7099,-2.5127,-5.4251,-16.9973
2289.0625,-1.9006,-9.2645,-12.5230,-7.2452,-9.7462,-22.4074,-13.3685,-0.4815,-4.6037,2.7640,-3.3042,-9.9571,-10.3205,-9.9121,-1.7044,-0.6738,-1.7090,-5.3203,-17.5557
2292.9688,1.5867,-7.5895,-8.6081,-7.8262,-7.6480,-16.1075,-15.0183,-1.9561,-1.8059,4.5512,-3.5121,-9.8624,-8.0683,-12.0432,-0.3344,-0.2742,-1.1263,-4.4146,-16.4387
2296.8750,6.6238,-5.8252,-4.8112,-7.4620,-5.6572,-6.6884,-14.7821,-3.4692,2.2156,9.1892,-2.6270,-9.1867,-5.5868,-13.3940,3.8656,-0.5482,-1.3959,-3.0122,-13.9081
2300.7812,10.5377,-4.7700,-2.8056,-6.1472,-4.7447,-0.4105,-10.7243,-4.0805,6.0893,14.7759,-0.4921,-9.2138,-3.6741,-13.6197,9.8162,-2.0148,-2.3232,-1.1958,-10.5514
2304.6875,11.6532,-4.4668,-2.6182,-3.9932,-4.6894,-1.5106,-4.2892,-3.3217,8.7908,18.5384,2.1755,-10.2378,-2.0662,-12.6470,15.1207,-4.2333,-2.8338,1.1362,-7.0124
2308.5938,10.3470,-4.3013,-2.6908,-1.1876,-4.1955,-9.0529,0.4618,-1.4259,10.2715,18.6480,4.3310,-11.3913,0.2038,-10.7535,17.6268,-6.1062,-1.7057,3.9588,-3.7026
2312.5000,8.5023,-3.5808,-1.0863,2.0406,-1.9599,-17.6147,0.0893,0.9248,11.2517,15.4087,5.3915,-11.4308,3.7512,-8.4248,16.8769,-6.6751,1.4268,6.8220,-0.6661
2316.4062,7.8770,-2.1415,2.9859,5.3802,2.1349,-21.2828,-5.1034,3.0349,12.3668,10.9413,5.6246,-9.8250,8.0057,-6.1135,14.3573,-5.7760,5.5901,8.8617,2.2929
2320.3125,8.7246,-0.5350,8.4012,8.3392,6.6899,-17.9190,-10.7950,4.4493,13.4163,7.6143,5.8263,-7.2769,11.3694,-4.0924,12.3642,-4.0678,8.9547,9.1747,5.2812
2324.2188,9.7341,0.3260,12.6805,10.2240,9.6740,-10.5109,-11.7350,4.9198,13.3922,6.4051,6.5724,-5.2763,12.3232,-2.4864,12.3543,-2.4660,10.0071,7.3270,8.0273
2328.1250,9.2414,-0.2192,13.5378,10.3347,9.9116,-4.7274,-5.9061,4.2904,11.3154,6.3807,7.6871,-5.0328,10.6282,-1.3889,14.0226,-1.4819,8.5883,3.6477,9.8956
2332.0312,6.6446,-2.1556,10.3707,8.3512,8.0407,-4.6724,3.5939,2.5398,7.2065,5.6008,8.3914,-6.6001,7.6422,-0.8971,15.7522,-0.9931,6.0459,-0.8900,10.2721
2335.9375,2.8534,-4.8331,4.6840,4.6622,6.1539,-10.0641,10.6337,-0.0377,2.3639,2.6673,8.0144,-8.8280,5.4455,-1.0041,16.0057,-0.5676,4.3794,-5.1147,9.0919
2339.8438,-0.5313,-7.3870,-0.8246,0.3317,6.3153,-16.7993,10.6249,-2.7871,-1.3428,-2.2722,6.6640,-10.1448,5.4122,-1.4711,14.5270,0.0077,4.9743,-8.1416,7.0947
2343.7500,-2.5393,-9.1951,-3.8666,-3.3915,9.0180,-20.1998,4.0479,-5.0027,-2.6608,-7.7443,5.2625,-9.5851,7.3051,-1.8721,12.4313,0.4906,7.7950,-9.6325,5.5292
2347.6562,-3.5018,-10.0590,-3.7558,-5.7558,12.7333,-18.3180,-3.8799,-6.4533,-1.7201,-12.0797,4.8741,-7.3545,9.5588,-1.8686,11.1931,0.4375,11.5366,-9.7590,5.4085
2351.5625,-4.5313,-10.0611,-1.4503,-6.9001,14.9162,-12.8918,-7.1809,-7.6567,0.1930,-14.4864,5.8508,-4.6072,10.4883,-1.5318,11.4166,-0.3027,14.5434,-8.9936,6.7967
2355.4688,-6.3235,-9.3175,1.4401,-7.6375,13.7609,-7.5551,-3.6318,-9.5250,1.6350,-15.2723,7.4998,-2.6739,9.4667,-1.4121,12.4042,-1.3197,15.7957,-7.9011,8.6655
2359.3750,-8.3859,-7.8931,3.8353,-8.7511,9.4453,-5.0073,3.7033,-12.5196,1.9521,-15.2092,8.5734,-2.2950,7.1950,-2.2042,12.8381,-1.8576,15.3117,-7.0125,9.5031
2363.2812,-9.4165,-5.9549,5.6574,-10.3356,3.9811,-5.4086,9.0356,-15.9781,1.4367,-14.7398,8.2114,-3.3132,4.9490,-4.1848,11.9626,-1.3410,13.8080,-6.7471,8.3148
2367.1875,-8.5479,-3.9826,7.3308,-11.7192,-0.1922,-7.0047,8.3648,-18.2898,0.6457,-13.7690,6.5899,-4.9033,3.4964,-6.8430,10.2522,0.2328,12.0079,-7.3256,5.3266
2371.0938,-6.3804,-2.7669,8.8580,-12.0573,-1.8305,-8.0910,2.3228,-17.9753,-0.4443,-12.1659,4.7567,-6.0868,2.5762,-9.0434,9.0096,2.3558,10.1647,-8.6853,1.8672
2375.0000,-4.8490,-3.0786,9.3627,-11.1260,-1.5674,-8.4748,-4.7869,-14.9245,-2.6331,-10.4016,3.7922,-6.1848,1.3136,-9.6836,9.2385,4.4408,8.1050,-10.4747,-0.5146
2378.9062,-5.9065,-5.1757,7.5962,-9.6338,-1.2268,-9.2585,-8.7279,-10.7556,-6.7933,-9.5865,3.9869,-5.0187,-0.8546,-8.4118,10.7535,6.2241,5.6393,-12.1802,-1.0766
2382.8125,-9.9923,-8.4883,3.0777,-8.7223,-2.3420,-11.3407,-8.6138,-7.8335,-12.8233,-10.7105,4.7060,-2.8669,-3.5610,-5.8840,12.2866,7.7874,2.9253,-13.3328,-0.3056
2386.7188,-15.4910,-11.7478,-3.0606,-9.0036,-5.0003,-14.1354,-7.0458,-7.5488,-19.1800,-13.6581,5.0374,-0.2941,-5.7209,-3.3601,12.5167,9.2155,0.4662,-13.6733,0.5696
2390.6250,-19.6561,-13.5479,-8.3279,-9.9248,-7.8322,-15.7333,-7.1914,-9.1642,-23.5182,-16.8913,4.6565,2.0475,-6.3853,-1.9297,11.1675,10.2583,-1.2328,-13.1800,0.5875
2394.5312,-20.3711,-13.0360,-10.2445,-10.0614,-9.0836,-14.4050,-9.5116,-10.2288,-24.1005,-18.2451,4.1481,3.6052,-5.5223,-1.9321,9.2450,10.3664,-2.0467,-11.9865,-0.2050
2398.4375,-17.4954,-10.3423,-7.9692,-8.2148,-7.9286,-10.1447,-11.1010,-8.3924,-20.9869,-16.3845,4.4787,4.0757,-4.0922,-2.9647,8.1880,9.1242,-2.3427,-10.2982,-0.8663
2402.3438,-12.8675,-6.5072,-3.0279,-4.4891,-5.0563,-4.8984,-8.2942,-3.2966,-16.1081,-11.8568,6.0368,3.4763,-3.3729,-4.3936,8.6105,6.7065,-2.7486,-8.3803,-0.4386
2406.2500,-9.0263,-2.9550,1.4646,-0.4342,-2.1455,-1.2216,-0.3097,2.9560,-12.1090,-6.8761,8.0678,2.0982,-4.0853,-5.8890,9.6790,3.9130,-3.7736,-6.5714,1.1218
2410.1562,-7.5979,-0.8048,2.6789,1.9864,-0.6653,-0.4171,9.2898,7.2330,-10.7325,-3.8877,9.0449,0.3630,-5.9825,-7.5259,9.6775,1.6789,-5.5536,-5.2063,2.7413
2414.0625,-8.4407,-0.3709,-0.1512,1.9147,-0.8862,-1.6286,14.7687,7.7038,-11.8384,-3.9010,7.7658,-1.3331,-8.1573,-9.4060,7.3546,0.4232,-7.8618,-4.4122,2.9724
2417.9688,-10.0088,-1.0838,-5.2233,0.4444,-1.7745,-2.5827,12.4193,5.2957,-13.6793,-5.8076,4.3457,-2.6964,-9.7428,-11.2043,2.9932,-0.2192,-10.3044,-3.9166,1.1429
2421.8750,-10.5254,-1.8433,-9.2818,0.0552,-1.7772,-1.3611,3.4291,3.1008,-14.1672,-7.2078,0.3007,-3.5246,-10.4266,-12.1332,-1.6667,-1.0299,-12.5193,-3.0927,-1.9891
2425.7812,-9.0907,-1.6127,-9.6428,2.9332,0.1043,2.1919,-6.9185,4.1045,-12.2126,-6.1627,-2.3969,-3.6818,-10.4303,-11.4496,-4.6300,-2.4877,-14.2501,-1.3365,-4.6264
2429.6875,-6.0490,0.0403,-5.8318,9.3498,3.6827,6.4681,-13.0694,8.9263,-8.2600,-2.5925,-2.6184,-3.1469,-10.0858,-9.1144,-5.0591,-4.3084,-15.3175,1.4252,-5.1267
2433.5938,-2.5484,2.7233,0.1882,17.2951,7.7531,9.4004,-12.9806,15.2927,-3.7841,1.7008,-0.7708,-2.1219,-9.4545,-6.0092,-3.8101,-5.6632,-15.5968,4.4973,-3.1246
2437.5000,0.2538,5.4355,5.2903,23.6806,10.8533,9.9826,-8.9139,19.6644,-0.2382,4.3881,1.6047,-1.0807,-8.3240,-3.4291,-2.6922,-5.9256,-15.0662,6.7360,0.2498
2441.4062,1.7821,7.1176,7.0996,26.2807,12.0739,8.8363,-4.8488,19.7955,1.7643,4.3252,2.9805,-0.6350,-6.5341,-2.1725,-3.0454,-5.3214,-13.8810,7.3033,3.2047
2445.3125,2.1552,7.2389,5.3361,25.0451,11.4441,7.4809,-2.9247,16.3009,2.5455,2.3427,2.8318,-1.2269,-4.2777,-1.9366,-4.7557,-4.8858,-12.3614,6.3311,4.5265
2449.2188,1.9016,6.0769,1.8001,21.8892,9.7688,6.9870,-2.0125,12.0824,2.8343,0.5360,1.7474,-2.8345,-2.0567,-1.5427,-6.4568,-5.6861,-10.8352,4.9406,4.2919
2453.1250,1.5534,4.5036,-0.8884,19.1913,8.1298,7.1094,0.4655,10.1022,3.1227,0.6050,0.6778,-4.9201,-0.3100,0.1286,-6.7104,-7.8937,-9.4084,4.5012,3.5665
2457.0312,1.3564,3.3945,-0.9305,18.1505,7.3840,6.5397,5.2624,11.2289,3.3895,2.5104,0.0282,-6.7094,0.9583,3.2053,-5.1874,-10.4716,-7.8302,5.6158,3.4058
2460.9375,1.1992,3.0386,1.6580,18.1883,7.8771,4.0120,9.7082,13.7580,3.3038,4.4741,-0.6186,-7.6406,2.2021,6.6479,-2.8989,-11.7933,-5.5893,7.6107,3.9989
2464.8438,0.7526,2.9588,5.2341,17.7286,9.4136,-0.6302,9.4773,14.8832,2.6440,4.3426,-1.9474,-7.6784,3.9553,9.0069,-1.3193,-10.7749,-2.2276,8.9824,4.6252
2468.7500,-0.2560,2.2888,7.6625,15.6416,11.4161,-6.2055,2.4086,12.9103,1.5603,1.3011,-4.0571,-7.2716,6.3485,9.5390,-1.1527,-7.6711,2.3040,8.5269,4.3956
2472.6562,-1.7710,0.4599,7.6148,12.1912,13.1890,-10.9322,-8.9095,8.5138,0.5043,-3.3574,-6.1097,-6.9966,8.9217,8.7989,-1.7718,-3.9176,7.4821,6.3041,3.1035
2476.5625,-3.3169,-2.2984,5.2404,8.7910,14.2173,-13.5519,-18.2714,4.1561,-0.0657,-7.0213,-6.8497,-7.1598,10.9007,8.2181,-1.7928,-1.1303,12.3748,3.6566,1.4486
2480.4688,-4.2125,-5.0301,1.8935,6.8458,14.3963,-14.0366,-20.1577,2.2166,0.0512,-7.5769,-5.5942,-7.6462,11.7402,8.9873,-0.2985,-0.0236,16.0716,2.2125,0.4553
2484.3750,-4.0233,-6.6715,-0.7889,6.6477,14.0692,-13.4346,-13.9155,3.2984,0.7440,-4.9476,-2.8550,-8.0895,11.5242,11.1179,2.3226,-0.0631,18.1414,2.6186,0.6020
2488.2812,-2.9534,-6.7715,-1.8105,7.1968,13.8004,-13.0347,-4.4051,5.9300,1.7331,-1.2276,-0.0261,-8.1810,10.9274,13.4246,4.6379,-0.0800,18.8345,4.0051,1.4251
2492.1875,-1.8212,-5.7643,-1.1883,7.0461,13.9751,-13.4658,1.5836,7.7521,2.7698,0.7235,1.6583,-7.8509,10.7740,14.4295,5.3366,0.6761,18.8830,4.6483,1.9538
2496.0938,-1.5114,-4.5713,0.3502,5.4631,14.4840,-14.3351,0.4411,7.1978,3.7547,-0.7492,2.0544,-7.2028,11.5155,13.4562,4.3309,1.8954,18.9900,3.3544,1.6157
2500.0000,-2.2287,-3.8251,2.0243,2.9964,14.7535,-14.6107,-5.6268,4.4434,4.7390,-4.9493,2.1502,-6.3224,12.9817,11.0438,2.8569,2.4703,19.3159,0.4877,0.8372
2503.9062,-3.1433,-3.3264,3.5148,1.0401,14.1709,-13.4577,-10.5214,1.0834,5.8506,-9.3176,3.1576,-5.1930,14.5408,8.3811,2.4497,1.4211,19.3067,-2.1882,0.8035
2507.8125,-2.8387,-2.1938,5.0164,0.7762,12.6365,-10.9526,-9.1911,-1.0500,7.1976,-11.2174,5.3994,-3.8254,15.5153,6.2711,3.6153,-1.2766,18.0286,-2.7789,2.5364
2511.7188,-0.3769,0.3626,6.8696,2.3046,10.8108,-8.1812,-1.6365,-1.0072,8.7699,-9.7653,7.9299,-2.4746,15.5610,4.5054,5.3124,-4.6178,14.8466,-0.6896,6.0255
2515.6250,3.7665,4.2182,9.1048,4.5678,9.7834,-6.6035,7.2074,0.8885,10.3533,-6.4335,9.2452,-1.6883,14.7854,2.1644,5.7279,-7.2815,10.0186,2.8669,10.1146
2519.5312,7.6916,8.1233,11.2529,6.0354,10.3080,-7.0442,11.5677,3.4070,11.5043,-4.0194,8.5286,-2.0512,13.5856,-1.4368,3.7761,-8.5405,4.7682,5.6589,13.2417
2523.4375,9.1725,10.3370,12.5515,5.5953,12.1240,-8.9566,9.5609,5.0930,11.6581,-4.7143,6.3993,-3.7641,12.3536,-5.9848,0.1227,-8.6509,0.6984,5.9099,14.4484
2527.3438,7.1904,9.7142,12.3910,3.0550,13.9085,-10.5170,4.7085,4.8310,10.3855,-8.6099,4.5094,-6.3876,11.2475,-10.2587,-3.1353,-8.4596,-1.1441,3.3677,13.8872
2531.2500,2.7880,6.4929,10.6975,-0.9467,14.0002,-9.6353,3.0156,2.1680,7.6979,-13.6448,4.2706,-8.9974,10.1466,-13.0145,-3.9496,-8.6083,-0.9517,-0.7457,12.4928
2535.1562,-1.4720,2.2248,8.0250,-5.3682,11.4754,-5.3455,7.9759,-2.5139,4.2015,-16.9766,5.7367,-10.6891,8.7894,-13.9171,-1.8374,-9.0140,-0.0856,-4.7179,11.1696
2539.0625,-3.1608,-1.1076,5.3360,-9.1535,6.8431,1.3158,17.5442,-7.9571,0.9395,-16.8011,7.5775,-11.0840,6.9937,-13.7249,1.7564,-9.0331,-0.2325,-7.4080,10.2008
2542.9688,-1.6073,-2.1844,3.6251,-11.4138,1.8395,7.6393,25.5275,-12.2907,-1.0663,-13.3905,8.2048,-10.4704,4.8198,-13.5690,4.5519,-8.1225,-2.3144,-8.6032,9.3210
2546.8750,1.6880,-0.9378,3.5705,-11.5229,-1.5964,10.7436,26.3104,-13.7317,-1.3465,-8.7194,7.1511,-9.4924,2.5648,-13.9507,5.1440,-6.3987,-5.8987,-8.5896,8.2778
2550.7812,4.1643,1.6739,5.3207,-9.3029,-2.4993,9.3862,19.1800,-11.5230,-0.2697,-5.0428,5.5485,-8.6521,0.5691,-14.3394,3.9942,-4.6010,-9.5421,-7.5342,7.2769
2554.6875,4.0278,4.4334,8.4266,-5.2684,-1.4226,4.8866,8.8683,-6.5385,1.1179,-3.4583,5.2556,-8.0247,-1.0613,-13.7433,2.9370,-3.4903,-11.8437,-5.3510,6.8494
2558.5938,1.4599,6.5689,11.9112,-0.6627,0.0007,0.4479,1.9508,-1.0082,1.6348,-3.4017,7.2828,-7.3903,-2.6212,-11.7742,3.6093,-3.2050,-12.4495,-2.1672,7.2491
2562.5000,-1.6470,7.9410,14.4981,2.9396,0.1494,-0.7890,1.9843,2.6434,0.5855,-3.3074,10.7870,-6.6234,-4.6874,-9.2557,6.0661,-3.1367,-12.2501,1.1542,7.9686
2566.4062,-3.1634,8.7179,15.0065,4.3607,-1.6044,2.2846,7.1608,3.1608,-1.9009,-1.8576,13.5058,-5.9615,-7.7113,-7.7619,8.6941,-2.4503,-12.5955,3.1026,7.9042
2570.3125,-2.2665,8.9307,12.8214,3.4287,-4.6623,8.0807,12.1529,1.0793,-5.0034,1.0769,13.3724,-5.8826,-11.5480,-8.3721,9.4890,-0.8223,-14.0940,2.3538,6.1365
2574.2188,0.0659,8.3232,8.2220,1.0024,-7.7821,13.4180,12.4831,-1.8593,-7.7196,4.3825,10.0851,-6.6654,-15.2692,-10.6351,7.6661,1.2305,-15.9204,-1.2437,2.7092
2578.1250,1.8671,6.5907,2.3365,-1.6523,-9.9665,15.6181,7.8482,-4.0624,-9.4412,6.4430,5.3907,-8.0005,-17.4873,-12.6441,4.3004,2.7329,-16.2152,-6.3710,-1.2762
2582.0312,1.5679,3.7490,-3.3339,-3.6878,-10.9916,14.1151,1.8336,-5.1663,-10.2555,6.0807,1.8183,-9.0055,-17.0822,-12.2683,1.4682,3.0592,-13.3573,-10.9704,-4.3946
2585.9375,-1.1116,0.2782,-7.5929,-5.0669,-11.2545,10.4705,-1.5441,-6.0025,-10.8089,3.0880,0.8098,-8.6905,-13.9013,-8.6423,0.5708,2.5143,-7.2142,-13.4991,-5.8988
2589.8438,-5.3085,-3.0904,-10.0266,-6.2191,-11.1762,6.8812,-1.4783,-7.5244,-11.8284,-1.8615,1.6852,-6.5632,-8.9403,-2.7668,1.1854,2.1892,0.5530,-13.7376,-6.1676
2593.7500,-9.8607,-5.7587,-10.9784,-7.2815,-10.7162,4.3937,-1.1411,-9.6413,-13.5941,-7.6794,2.2396,-2.9487,-3.8234,3.2526,1.3802,3.1578,7.3909,-12.5390,-6.2139
2597.6562,-14.0163,-7.4966,-11.0693,-7.6254,-9.4061,2.2311,-4.9286,-11.0149,-15.6830,-13.2979,0.5039,1.1852,0.1215,7.7341,-0.7349,5.6108,11.3548,-10.7993,-6.6625
2601.5625,-17.4538,-8.3696,-10.6514,-6.1721,-6.8446,-1.2564,-14.4190,-10.0746,-17.1490,-17.8473,-3.7028,4.7521,2.5794,10.5162,-5.4362,8.5912,12.1758,-8.5964,-7.0782
2605.4688,-19.7948,-8.4877,-9.6370,-2.3280,-3.2059,-6.8026,-26.3547,-6.4455,-17.0552,-20.6511,-8.6269,7.0516,4.2618,12.7812,-11.0392,10.5588,11.1918,-5.2918,-6.2658
2609.3750,-20.2888,-7.8579,-7.8329,3.2142,0.6910,-13.0744,-34.3907,-1.5550,-15.0625,-21.2567,-11.9275,7.9549,6.2097,15.7986,-15.0610,10.3883,10.2642,-0.5173,-3.3523
2613.2812,-18.1612,-6.4931,-5.4669,8.5643,3.8316,-17.1677,-33.4211,2.2137,-11.7208,-19.5979,-12.4411,7.7411,8.8908,19.6510,-15.9959,8.0881,10.5016,4.8774,1.2286
2617.1875,-13.4170,-4.6584,-3.3789,11.7074,5.6283,-16.4927,-23.2999,3.2651,-8.2627,-16.1546,-10.9816,6.7896,11.7487,23.0056,-14.3384,4.7418,11.6747,8.8898,5.7061
2621.0938,-7.3433,-2.9645,-2.5936,11.8480,6.2358,-10.6950,-9.2143,2.0713,-5.9765,-11.8873,-9.5849,5.3587,13.5279,24.1209,-12.0844,1.7445,12.6291,9.5856,8.0105
2625.0000,-2.0878,-2.1311,-3.5200,10.0001,6.3379,-2.1844,1.5644,0.9031,-5.5057,-7.8724,-9.8343,3.5384,13.1301,22.2587,-11.1358,-0.0949,12.2623,6.5777,7.1283
2628.9062,0.5598,-2.5442,-5.4165,8.3033,6.6068,5.1577,4.2404,2.1173,-6.4919,-4.8337,-11.6139,1.3070,10.3811,18.3353,-11.8662,-0.9582,10.2967,1.5250,3.7453
2632.8125,0.3203,-3.9515,-6.6558,8.4977,7.2755,8.2151,-0.7492,6.2713,-7.7932,-2.8920,-13.2549,-1.3992,6.1763,14.2712,-12.9419,-1.6967,7.3510,-2.8710,-0.2953
2636.7188,-1.4024,-5.5711,-5.7351,10.6725,8.1324,6.3079,-8.4673,11.5410,-8.1597,-1.7117,-12.9177,-4.6063,1.9507,11.5716,-12.4858,-3.0868,4.4126,-4.6780,-3.2667
2640.6250,-2.5219,-6.5688,-2.3499,13.2440,8.8758,1.2608,-12.9164,14.9536,-6.9464,-0.9072,-10.0734,-8.1640,-1.1022,10.2940,-9.6263,-5.2336,2.2294,-3.9428,-4.5579
2644.5312,-1.7069,-6.5458,2.2998,14.2086,9.4764,-3.9916,-10.7190,14.5517,-4.4110,-0.3581,-5.9068,-11.5706,-2.5168,9.2354,-5.2124,-7.5301,1.0758,-2.3257,-4.6707
2648.4375,0.8414,-5.6645,6.2825,12.7356,10.2179,-7.1654,-2.7346,10.8710,-1.4121,-0.1650,-2.3502,-13.9222,-2.4901,7.1531,-1.1685,-9.1373,0.9217,-1.4532,-4.3466
2652.3438,3.8383,-4.3366,8.2790,9.8808,11.3936,-7.5852,7.0494,6.6138,1.2628,-0.3005,-0.5551,-14.1754,-1.4564,3.9769,0.9623,-9.5803,1.6775,-1.3634,-3.6676
2656.2500,6.1583,-2.7740,8.4965,7.8466,12.9464,-5.9299,14.2246,4.7551,3.4513,-0.3094,-0.0338,-11.7173,0.2806,0.9823,1.1320,-9.0179,3.2054,-0.3864,-1.9501
2660.1562,7.7997,-0.8282,8.4260,8.3195,14.3886,-3.2873,16.4029,6.4792,5.6474,0.5901,0.8625,-6.9375,2.5849,-0.2388,0.7228,-8.0339,5.1247,3.3584,1.4837
2664.0625,9.7525,1.7108,9.5886,11.1299,15.0935,-0.3964,14.0898,10.4323,8.4874,2.9728,3.5389,-1.3453,5.2678,0.8425,1.4079,-7.1647,6.7388,10.0326,6.3708
2667.9688,12.8924,4.6100,12.2276,14.2553,14.7280,2.4207,9.8794,13.7635,12.0784,6.6052,7.9547,3.0173,7.9225,3.1281,3.8577,-6.5422,7.3471,17.3432,11.3041
2671.8750,16.8705,6.9723,14.9957,15.1912,13.4783,4.8493,6.7651,14.1168,15.6893,10.2731,12.5597,4.6402,10.0456,4.6569,7.2689,-5.8953,6.8196,21.7400,14.5415
2675.7812,19.9944,7.6053,15.9414,12.6954,11.8984,6.2942,6.5572,11.1120,18.0689,12.2708,15.3860,3.4451,11.3715,4.1254,10.0091,-4.8517,5.9529,20.7549,15.2282
2679.6875,20.2894,5.7993,14.0647,7.6353,10.5257,6.1024,9.0564,6.3399,18.1950,11.2992,15.4199,0.8790,12.1117,1.9518,10.8088,-3.2654,6.1780,14.7408,14.0284
2683.5938,16.9320,1.9436,10.2136,2.3361,9.5779,4.1108,12.2040,2.0330,15.9291,7.1951,13.2161,-0.9448,12.8370,0.0112,9.5852,-1.3143,8.6682,6.6783,12.6041
2687.5000,10.9154,-2.5525,6.5533,-1.0776,8.9422,0.9669,13.1112,-0.5179,12.1143,1.0024,10.3637,-0.5524,14.0399,0.2146,7.3508,0.6683,13.4335,0.1784,12.3113
2691.4062,4.4070,-6.0709,4.9420,-2.1442,8.3876,-2.1704,9.6138,-1.6872,8.0506,-5.6419,8.3150,1.9869,15.7025,3.0185,5.4068,2.4470,19.1023,-2.8326,13.1366
2695.3125,-0.6974,-7.7954,5.4424,-2.3029,7.7535,-4.3932,1.6948,-3.0074,4.7313,-11.3647,7.5169,5.1598,17.2133,7.0055,4.5165,3.9935,23.6372,-3.0700,13.7272
2699.2188,-3.8895,-8.1841,6.1613,-3.7859,6.9383,-5.6759,-8.0531,-5.9509,2.3723,-15.5748,7.4349,7.0237,17.7125,9.8446,4.6532,5.3740,25.5315,-2.9119,12.4948
2703.1250,-6.0024,-8.5339,4.6251,-7.9834,5.7603,-6.8461,-15.4729,-10.9014,0.5183,-18.3634,7.2851,6.4307,16.6143,9.8828,5.3650,6.5464,24.6433,-4.3955,8.9186
2707.0312,-8.1456,-9.9436,-0.2931,-14.4188,3.9340,-8.8846,-17.1053,-16.9192,-1.4376,-19.9968,6.7458,3.6395,13.9317,7.1837,6.3031,7.2852,22.0845,-7.7921,4.0217
2710.9375,-10.5866,-12.4520,-7.3505,-20.9848,1.3049,-12.0844,-12.4267,-22.2828,-3.7781,-20.4987,6.0436,-0.0337,10.2083,3.3108,7.4204,7.3376,19.2965,-11.7642,-0.3317
2714.8438,-12.5444,-15.0181,-13.6325,-25.2058,-1.8048,-15.7110,-4.5169,-25.3426,-6.3967,-19.6843,5.4418,-3.1851,6.1654,0.1325,8.7338,6.7028,17.0464,-14.7702,-2.7347
2718.7500,-13.0374,-16.3652,-16.5030,-25.6487,-4.5039,-18.4126,1.5818,-25.2075,-9.1210,-17.5764,4.7184,-5.1806,2.3565,-1.3831,9.9873,5.7860,15.0954,-16.4139,-3.1092
2722.6562,-11.9931,-16.0315,-15.3817,-22.6078,-5.7372,-19.0618,1.9990,-22.0405,-12.0463,-14.7647,3.2230,-6.3271,-0.9573,-1.5356,10.6360,5.2471,12.7045,-17.6070,-2.5163
2726.5625,-10.5730,-14.7718,-12.0390,-17.7524,-5.0311,-17.4181,-3.3718,-16.9821,-15.4791,-12.2854,0.5505,-7.3423,-3.7226,-1.3246,10.2496,5.5978,9.4605,-19.4928,-2.1496
2730.4688,-10.3191,-13.9357,-9.2054,-13.0986,-3.0472,-14.1857,-10.7131,-11.7767,-19.4411,-10.9872,-2.7433,-8.6080,-5.9738,-1.5776,9.0000,6.8195,5.6832,-22.1408,-2.3774
2734.3750,-11.7590,-14.2533,-8.5496,-9.9960,-1.4328,-10.5107,-14.8471,-8.1651,-23.1307,-10.8191,-5.0842,-9.7851,-7.8078,-2.5225,7.7646,8.3002,2.0837,-24.1718,-2.5946
2738.2812,-13.6432,-14.9822,-9.5383,-8.6744,-1.9237,-7.3228,-12.8317,-7.1786,-24.8950,-10.6255,-4.6873,-10.0310,-9.4149,-4.0362,7.6647,9.1781,-0.9710,-23.6484,-1.9228
2742.1875,-13.5719,-14.1791,-10.0059,-8.4596,-5.2428,-4.9429,-6.0278,-8.6385,-22.9597,-8.7274,-0.7277,-8.5976,-11.0289,-6.1477,9.3311,8.8799,-3.8789,-19.4988,-0.1018
2746.0938,-9.6917,-10.0447,-7.9633,-8.3821,-10.5765,-3.1061,0.9106,-11.2164,-16.5869,-4.0058,5.9730,-5.3579,-12.7438,-9.1848,12.4411,7.4810,-7.4726,-12.3358,2.1934
2750.0000,-2.2575,-2.4475,-3.2581,-7.7677,-16.0486,-1.2688,3.4274,-13.1635,-6.9054,3.2026,13.2709,-0.9323,-14.3335,-13.3535,15.8825,5.6219,-12.1799,-4.0819,3.8416
2753.9062,6.1347,6.5126,2.1676,-6.5248,-19.8901,1.0228,0.3352,-13.3511,3.2524,11.0232,18.8302,3.5946,-15.2891,-18.1557,18.4248,4.0360,-17.4006,3.1999,4.1103
2757.8125,11.9164,13.4500,5.6002,-5.0588,-21.4749,3.8428,-5.4834,-11.9414,10.5843,16.9060,21.2868,7.1346,-15.1423,-22.2816,19.4057,3.0373,-21.6920,8.3032,3.1228
2761.7188,12.6509,15.6483,5.4593,-3.9342,-21.4821,6.7294,-9.4579,-10.1672,12.9762,18.9568,20.7026,8.9838,-13.8713,-24.2415,18.9672,2.3558,-23.6894,11.0271,1.6106
2765.6250,8.4890,12.7613,2.3683,-3.4907,-21.1205,8.7286,-8.9398,-9.3268,10.5957,16.9626,18.1380,9.0257,-12.0369,-23.3318,17.7550,1.4568,-23.0533,11.6195,0.2342
2769.5312,2.0499,7.0839,-1.3752,-3.6214,-21.0780,8.7351,-5.2285,-9.7324,5.7302,12.5225,14.8038,7.7496,-10.4598,-20.1614,16.4015,0.1024,-20.6712,10.2462,-0.9028
2773.4375,-3.1327,2.1364,-3.5141,-3.8451,-21.0571,6.1133,-2.4401,-10.4589,1.4386,8.2240,11.4552,6.1013,-9.6180,-16.2577,15.2127,-1.2873,-17.9284,7.0491,-2.1508
2777.3438,-4.5669,0.4482,-3.4616,-3.6468,-20.2486,1.3171,-4.1307,-10.1451,-0.1750,6.3382,8.3559,5.1486,-9.2272,-12.9997,14.2288,-1.7917,-15.6213,2.6523,-3.7925
2781.2500,-1.9943,1.9953,-2.6751,-2.8871,-18.2912,-3.9728,-10.3729,-8.2385,0.9644,7.7272,5.6087,5.6026,-8.3844,-10.6955,13.4683,-0.5965,-13.3926,-1.5834,-5.6413
2785.1562,2.7424,4.3305,-3.5295,-1.9880,-15.8315,-7.5293,-17.6267,-5.6410,3.0788,11.4864,3.3889,7.3854,-6.2332,-8.5269,13.0341,2.3721,-10.1493,-4.0876,-7.1569
2789.0625,6.8716,4.3164,-7.5140,-1.7003,-14.1146,-7.8709,-21.5173,-4.1285,3.7780,15.4411,1.8221,9.5378,-2.6743,-5.3932,12.9522,6.2585,-5.1276,-4.1541,-7.9586
2792.9688,8.1182,0.2904,-14.0275,-2.5406,-13.8786,-5.3884,-20.2867,-4.9057,1.5431,17.2051,0.6898,10.6470,1.4415,-0.9558,12.9345,9.7026,1.2638,-2.6636,-8.2183
2796.8750,5.6575,-6.7885,-20.5951,-4.2741,-14.4846,-2.4142,-16.1237,-7.4396,-3.4389,15.3000,-0.6199,9.6439,4.8210,3.9752,12.3932,11.5985,7.5155,-1.6668,-8.5143
2800.7812,0.2954,-13.9571,-24.3409,-5.8712,-14.1246,-1.9469,-13.2808,-9.6041,-9.5045,9.8400,-2.7059,6.4948,6.5772,8.0161,10.8256,11.6655,11.9624,-2.9230,-9.2391
2804.6875,-6.0137,-18.1741,-23.7231,-6.0868,-11.1108,-5.7158,-14.4957,-9.1803,-14.5327,2.4959,-5.5453,2.2891,6.7760,10.2544,8.3181,10.4479,13.8660,-6.4375,-10.1105
2808.5938,-11.0113,-18.2301,-19.4115,-4.3416,-5.3249,-12.8970,-18.6593,-5.6417,-17.0454,-4.2538,-8.2288,-1.4107,6.2682,10.8827,5.7193,8.7865,13.8048,-10.2058,-10.2998
2812.5000,-13.0315,-15.3732,-13.7925,-1.2874,1.3442,-20.4905,-21.6955,-0.8160,-16.7465,-8.2616,-9.3932,-3.5578,5.9615,10.9033,4.2264,7.1924,13.1123,-11.5202,-9.1523
2816.4062,-11.6658,-12.2961,-9.4852,1.4277,6.0574,-25.2334,-20.0090,2.2072,-14.3186,-8.7085,-8.1457,-4.2638,6.1258,11.1759,4.5937,5.5975,12.8555,-8.9600,-6.9076
2820.3125,-7.9226,-11.2572,-7.8456,2.1388,6.9169,-25.7571,-13.7002,1.2200,-10.7875,-6.4435,-4.8077,-4.6223,6.2860,11.6464,6.5303,3.6377,13.1683,-3.5655,-4.7418
2824.2188,-3.7284,-12.6521,-8.3750,0.2668,4.3312,-23.4147,-6.8311,-3.4645,-6.9658,-3.4444,-0.8595,-5.8336,5.7578,11.4385,8.7864,1.1848,13.4107,1.7545,-3.9832
2828.1250,-0.9101,-14.9700,-9.3231,-3.2304,0.8074,-21.1200,-4.3624,-9.1181,-3.2978,-1.6550,1.9572,-8.2778,4.3519,9.7488,9.9349,-1.3502,12.9230,4.1974,-5.0703
2832.0312,-0.1705,-16.0622,-9.0127,-6.4198,-0.7301,-21.0328,-8.1183,-12.4071,-0.0545,-1.8616,2.7594,-11.2309,2.6368,6.7680,9.3193,-3.2253,11.6830,2.9632,-7.1075
2835.9375,-0.7028,-14.7470,-6.9857,-7.6160,1.0983,-22.8485,-15.0531,-11.6030,2.4346,-3.3063,2.0384,-13.4293,1.5323,3.7848,7.4748,-3.9312,10.3120,-0.3381,-8.4483
2839.8438,-0.7814,-11.6104,-4.2375,-6.4321,5.2956,-24.0490,-19.3691,-7.6113,3.7873,-4.3159,1.1849,-14.0334,1.5689,2.2809,5.7060,-3.6431,9.4689,-3.0378,-7.9104
2843.7500,0.9845,-8.4963,-2.4248,-3.9456,9.3472,-21.9721,-16.9739,-3.1530,3.8280,-3.5552,1.3990,-13.2398,2.4280,2.6806,5.1367,-3.1578,9.1942,-3.4376,-5.6779
2847.6562,4.5808,-7.1305,-2.6141,-1.9085,11.0726,-16.1071,-8.7994,-0.8100,2.8563,-1.0548,2.8379,-12.0725,3.1426,3.7670,5.9525,-3.3240,8.7878,-1.9546,-3.1527
2851.5625,8.5120,-7.8977,-4.4372,-1.6047,10.0710,-8.7734,-0.2716,-1.4235,1.6485,1.7368,4.6569,-11.5359,2.7970,3.3159,7.4012,-4.3923,7.3273,-0.5567,-1.8364
2855.4688,10.8478,-9.6090,-6.2472,-3.1575,7.7464,-3.5532,2.8131,-3.9359,1.1221,2.9635,5.8786,-11.8020,1.1704,-0.4202,8.5195,-5.7986,4.3939,-1.0173,-2.1107
2859.3750,10.6620,-10.3532,-6.1880,-5.6849,6.0330,-2.6170,-1.1261,-6.5756,1.8623,1.7334,6.3461,-12.0619,-1.1479,-7.4132,8.9768,-6.5697,0.4183,-3.4126,-2.8813
2863.2812,8.7577,-8.7805,-3.4568,-8.0314,5.9239,-5.0191,-8.0120,-8.2708,3.8287,-1.1722,6.9429,-11.1339,-3.1920,-15.6632,9.3291,-6.0521,-3.5912,-6.0295,-2.3773
2867.1875,7.0490,-4.9439,1.1164,-9.4259,6.9641,-7.3623,-11.0516,-9.1427,6.4249,-3.8480,8.8524,-8.3362,-4.1882,-22.2406,10.4542,-4.4049,-6.6637,-6.6996,0.5148
2871.0938,6.9890,-0.2134,5.5891,-9.6056,7.9998,-6.4091,-5.9003,-9.8265,8.8528,-4.7412,12.4249,-3.9613,-3.8141,-24.8461,12.6121,-2.4798,-8.3082,-4.4679,5.4193
2875.0000,8.2397,3.5593,8.1748,-8.5000,8.4145,-1.6612,5.8975,-10.4067,10.4823,-3.9746,16.5854,0.9535,-2.0565,-22.8870,14.9168,-1.1872,-8.5014,-0.3044,10.7583
2878.9062,8.6914,5.0171,8.3680,-5.9814,8.7087,4.1165,17.8644,-10.0527,11.0045,-3.4530,19.3308,5.3013,1.0271,-17.5061,15.7263,-0.8463,-7.3842,3.6197,14.8818
2882.8125,5.9618,3.8514,7.1301,-2.0763,9.8868,6.9120,23.2555,-7.7701,10.3452,-5.5409,19.0325,8.4611,5.2761,-10.7573,13.7483,-1.0139,-5.0778,5.4467,17.1154
2886.7188,-0.6537,0.7614,6.0309,2.5033,12.1888,4.5414,19.8917,-3.6314,8.5132,-11.1825,15.6083,10.3519,10.0995,-4.6062,9.0719,-0.8987,-1.8480,4.7573,17.9247
2890.6250,-9.2553,-2.9675,6.0203,6.1110,14.3341,-1.5455,11.5103,0.6659,5.5794,-18.8471,10.6840,11.0754,14.2330,-0.3304,3.3234,-0.0046,1.5835,2.5417,18.1615
2894.5312,-16.2375,-5.9539,6.7842,6.7169,14.0813,-7.1179,4.6915,2.5867,1.8101,-25.1810,6.5856,10.5802,16.0255,1.5754,-1.2495,1.5066,4.0234,0.2163,18.1212
2898.4375,-18.4971,-7.1104,7.1759,3.1400,9.8322,-8.0503,3.8279,0.4661,-2.2163,-27.0425,4.8559,8.7037,14.2895,1.2725,-3.1806,2.9883,4.3265,-1.4214,17.2614
2902.3438,-15.4385,-5.9449,6.3477,-3.8517,2.0784,-3.0913,8.0505,-5.1143,-5.7178,-23.5652,5.3259,5.5380,9.1970,-0.5089,-2.7208,3.8218,2.1818,-2.5032,14.8295
2906.2500,-9.3722,-2.7851,4.6198,-11.5076,-6.5021,5.4920,12.4049,-11.3899,-8.0732,-16.8091,6.3576,1.7235,2.4918,-2.5554,-1.6596,3.8181,-1.4621,-3.5796,10.8366
2910.1562,-4.0380,1.1956,3.3043,-16.4120,-12.5228,13.7353,12.1927,-14.9998,-9.2262,-10.5254,6.0271,-1.6990,-3.3114,-3.4973,-2.1652,3.1920,-4.7981,-4.8936,6.4802
2914.0625,-2.3105,4.3235,3.5544,-16.4397,-13.9670,18.7413,6.9368,-14.0511,-9.8089,-7.8863,3.3800,-3.8528,-6.3310,-2.4542,-5.4442,2.1971,-6.2442,-6.1231,3.5554
2917.9688,-4.6753,5.1435,5.1591,-12.0615,-11.4017,20.2686,0.8078,-9.2579,-10.8229,-9.7348,-1.0898,-4.5821,-6.4016,0.3248,-11.1115,0.8118,-5.4847,-6.7659,3.2317
2921.8750,-9.4165,3.1844,6.3491,-6.0592,-7.4755,20.1135,-0.7784,-3.4123,-13.0328,-14.4853,-5.9674,-4.5314,-5.0715,3.3731,-17.6223,-1.1942,-3.6905,-6.7219,5.1325
2925.7812,-14.1697,-0.7277,4.9345,-1.7831,-5.0886,20.0872,4.3758,0.3884,-16.4615,-19.5747,-9.9540,-4.6518,-4.5026,4.7516,-23.3729,-3.8611,-2.7079,-6.4714,7.4588
2929.6875,-17.5556,-4.9075,0.0158,-1.1130,-5.5550,20.4487,13.3091,0.5330,-20.3342,-23.2727,-12.6244,-5.5113,-6.0450,3.2757,-27.6601,-6.7058,-3.7795,-6.6546,8.1102
2933.5938,-19.7082,-7.7934,-7.0509,-3.4864,-8.0082,20.1102,20.0280,-2.4053,-23.5146,-25.5184,-14.4281,-6.9576,-9.4745,-0.6055,-30.8787,-8.8500,-6.7214,-7.4411,6.0024
2937.5000,-21.5039,-8.8272,-13.2849,-6.5770,-10.3211,18.2787,20.0030,-6.3246,-25.1366,-27.3173,-16.0724,-8.3852,-13.3609,-4.9852,-33.9437,-9.6175,-10.1430,-8.2908,1.6527
2941.4062,-23.3396,-8.6022,-15.9674,-8.0249,-10.7182,15.8824,13.4851,-8.9636,-25.0138,-29.3959,-17.8650,-9.3472,-16.1962,-7.7051,-37.4640,-9.1534,-12.5043,-8.3676,-3.3177
2945.3125,-24.5811,-8.1668,-14.4463,-6.9247,-8.8562,15.2901,5.0788,-9.0258,-23.5911,-31.3298,-19.5250,-9.9606,-17.3936,-7.7686,-41.2915,-8.5034,-13.1843,-7.2716,-7.3058
2949.2188,-24.1293,-8.0349,-10.5146,-4.0682,-5.7033,18.3573,0.0120,-6.4838,-21.5427,-31.8667,-20.5266,-10.7419,-17.4591,-5.9239,-44.6957,-8.9640,-12.7691,-5.4489,-9.6186
2953.1250,-21.5450,-7.7125,-7.0643,-0.9524,-2.5318,24.4243,0.1453,-2.1631,-19.3498,-30.0972,-20.5993,-12.0158,-17.3362,-3.9746,-46.9128,-11.1049,-12.4077,-3.8949,-10.5621
2957.0312,-17.6885,-6.1722,-6.0152,1.5148,0.0398,30.1421,2.8932,2.8843,-17.1498,-26.3962,-19.9313,-13.4379,-17.5511,-3.3456,-47.5883,-14.1981,-12.8112,-3.3692,-10.8381
2960.9375,-14.2640,-2.9375,-7.0725,3.5505,2.2093,31.5969,3.8228,7.7767,-14.8928,-22.2756,-18.9352,-14.0996,-17.8592,-4.0168,-46.8155,-16.5582,-13.7069,-3.7765,-10.8670
2964.8438,-12.6181,1.1136,-8.2161,5.9355,4.3858,27.2500,0.7037,11.8972,-12.5969,-19.2483,-17.8457,-13.1947,-17.5995,-4.6474,-44.8632,-16.6352,-14.1384,-4.2400,-10.5956
2968.7500,-12.7991,3.9681,-7.4799,8.9572,6.5058,19.3351,-4.3810,14.8722,-10.4569,-17.6863,-16.5559,-10.7291,-16.3516,-3.7533,-41.9339,-14.1119,-13.2986,-3.8221,-9.8370
