Time,Fp1,F3,C3,P3,O1,F7,T3,T5,Fz,Fp2,F4,C4,P4,O2,F8,T4,T6,Cz,Pz
0.0000,-1.4542,-0.1762,-0.1334,-0.1565,0.7172,-0.0199,0.1416,-1.1067,-1.3849,-0.4304,-0.5941,-0.6000,-1.5399,-2.1445,0.8894,-1.0778,-1.8820,-1.0626,-1.1629
3.9062,0.4068,1.0952,-0.1524,0.7421,1.5855,1.0537,1.2977,-0.2524,-0.4299,0.4495,-0.0847,-0.2647,-1.3102,-2.1740,1.3335,-1.2195,-1.8567,-0.4990,-1.1343
7.8125,2.3683,1.9210,-0.5703,1.2908,2.0497,2.0337,1.8436,0.5239,0.1782,0.7763,-0.0734,-0.3236,-0.9755,-2.0890,1.2419,-1.7530,-1.4608,-0.2941,-1.2169
11.7188,2.8610,1.7702,-1.1934,1.1870,1.9862,2.1579,1.4456,1.0415,0.0642,0.0092,-0.6463,-0.7291,-0.3893,-1.5079,0.3286,-2.4177,-0.7293,-0.6776,-1.2038
15.6250,0.9209,0.7578,-1.5707,0.5982,1.6624,1.0598,0.3699,1.3507,-0.7168,-1.9602,-1.5958,-1.1600,0.4676,-0.1744,-1.3857,-2.8214,0.0887,-1.5409,-0.8647
19.5312,-2.8282,-0.3622,-1.2603,0.0635,1.4959,-0.8128,-0.6457,1.6414,-1.6445,-4.5249,-2.5197,-1.2535,1.4119,1.7923,-3.4539,-2.7127,0.6806,-2.4220,-0.1404
23.4375,-6.2425,-0.6923,-0.1317,0.1145,1.7052,-2.3343,-0.8572,2.0365,-2.0138,-6.5017,-3.0073,-0.8846,2.1506,3.8820,-5.1155,-2.1580,0.8931,-2.7236,0.7823
27.3438,-6.9156,0.1633,1.5064,0.8933,2.1406,-2.3854,-0.0046,2.4527,-1.3617,-6.7145,-2.8111,-0.2682,2.4841,5.4543,-5.6421,-1.4827,0.8537,-2.0576,1.5881
31.2500,-3.8315,1.7938,3.0572,2.0492,2.4268,-0.6361,1.5119,2.6531,0.2445,-4.6967,-1.9244,0.2148,2.4578,6.1072,-4.7322,-1.0086,0.8756,-0.5026,2.0578
35.1562,1.7874,3.2752,3.9823,2.9877,2.2855,2.1519,2.8970,2.4505,2.2607,-1.0367,-0.5421,0.3504,2.3301,5.8970,-2.6962,-0.7846,1.1977,1.4113,2.2219
39.0625,7.1344,3.8677,4.1235,3.2836,1.7587,4.5685,3.4835,1.8872,4.0256,2.9057,1.0605,0.3263,2.3742,5.2583,-0.2851,-0.5182,1.7554,3.0112,2.3233
42.9688,9.5917,3.5952,3.7898,2.9608,1.1495,5.4591,3.1515,1.2305,5.1726,5.7546,2.6600,0.6633,2.6683,4.6935,1.7328,0.2203,2.1826,3.9019,2.6215
46.8750,8.3914,3.2423,3.5518,2.4478,0.7454,4.6482,2.3566,0.7778,5.8058,6.8444,4.1560,1.8570,3.0455,4.4639,2.9640,1.6539,2.0745,4.2167,3.1996
50.7812,4.9939,3.7407,3.8766,2.2608,0.5767,2.9657,1.7645,0.6247,6.3292,6.4437,5.5468,3.9689,3.2446,4.4936,3.4869,3.5601,1.3292,4.5122,3.9266
54.6875,1.9520,5.3946,4.8375,2.6554,0.4231,1.5837,1.7662,0.5890,7.0770,5.3846,6.8348,6.4686,3.1330,4.5202,3.6295,5.3197,0.2982,5.3592,4.5897
58.5938,1.1412,7.5509,6.0795,3.4915,0.0597,1.1896,2.2217,0.3608,8.0404,4.4416,7.9360,8.4682,2.8146,4.3420,3.6479,6.2457,-0.4003,6.9051,5.0711
62.5000,2.6603,9.0078,7.0528,4.3816,-0.4819,1.6227,2.6045,-0.2340,8.9024,3.9476,8.6782,9.2224,2.5335,3.9582,3.5837,5.9893,-0.2979,8.7264,5.4138
66.4062,5.1299,8.8980,7.3589,4.9949,-0.8720,2.2133,2.4245,-1.0582,9.3455,3.8774,8.9063,8.5774,2.4627,3.5171,3.3933,4.7645,0.5798,10.0990,5.7319
70.3125,7.0121,7.3998,6.9920,5.2939,-0.7022,2.4926,1.6146,-1.7095,9.3749,4.2023,8.6335,7.0774,2.5670,3.1527,3.1784,3.2442,1.7064,10.5173,6.0679
74.2188,7.8233,5.7287,6.3403,5.5542,0.2228,2.6550,0.6112,-1.7513,9.3860,5.1005,8.1184,5.6650,2.6682,2.8720,3.2446,2.1941,2.4081,10.0975,6.3504
78.1250,8.2966,5.3759,5.9662,6.1822,1.7703,3.3816,0.0895,-0.9608,9.9016,6.7842,7.7839,5.1726,2.6586,2.5888,3.8842,2.0722,2.3238,9.5650,6.5099
82.0312,9.4692,7.1154,6.3155,7.4659,3.6266,5.1787,0.5564,0.5700,11.1730,9.1110,8.0064,5.9233,2.6732,2.2530,5.0618,2.8371,1.6346,9.8100,6.6527
85.9375,11.5640,10.4775,7.5228,9.4172,5.5572,7.8031,2.0794,2.5175,12.9567,11.4116,8.9052,7.6598,3.0538,1.9449,6.3250,4.0622,0.8970,11.3057,7.1137
89.8438,13.6561,14.0521,9.3977,11.7720,7.5329,10.2826,4.2973,4.5020,14.6489,12.8066,10.2782,9.7918,4.1124,1.8416,7.0927,5.2529,0.6222,13.7879,8.2931
93.7500,14.4067,16.3857,11.5507,14.1142,9.6078,11.5530,6.6487,6.2232,15.6825,12.8368,11.7282,11.7511,5.8738,2.0907,7.1231,6.1399,0.9326,16.4116,10.3631
97.6562,13.2201,16.8330,13.5517,16.0317,11.6754,11.2188,8.6201,7.4979,15.8865,11.8778,12.8770,13.2168,8.0073,2.7099,6.7461,6.7569,1.5530,18.2637,13.0598
101.5625,10.8166,15.7919,15.0291,17.2270,13.3589,9.8337,9.8656,8.2331,15.5303,10.9105,13.5069,14.1075,10.0032,3.5998,6.5889,7.2717,2.1140,18.8663,15.7332
105.4688,8.7190,14.2332,15.6982,17.5559,14.1804,8.4751,10.1951,8.4068,15.0294,10.7449,13.5368,14.4215,11.4543,4.6408,6.9629,7.7268,2.4924,18.3366,17.6421
109.3750,8.0725,12.9441,15.3728,17.0102,13.8966,7.9511,9.5478,8.0780,14.5601,11.3035,12.9013,14.1018,12.2181,5.7617,7.4357,7.9079,2.8883,17.1382,18.2967
113.2812,8.7762,12.0607,14.0102,15.6784,12.7142,8.2567,8.0355,7.3901,13.9034,11.6086,11.4947,13.0456,12.3505,6.8975,7.0418,7.4648,3.5762,15.6623,17.6227
117.1875,9.6374,11.1790,11.7779,13.7119,11.1745,8.6831,6.0190,6.5217,12.6577,10.5786,9.2831,11.2333,11.9008,7.8756,5.0829,6.2124,4.5533,13.9762,15.8645
121.0938,9.3939,9.8593,9.0684,11.3080,9.7734,8.4440,4.0771,5.6018,10.6502,8.0360,6.5083,8.8457,10.7796,8.3678,1.9077,4.3791,5.4110,11.9084,13.3487
125.0000,7.7334,8.0574,6.3939,8.7048,8.6197,7.2872,2.7831,4.6597,8.2004,5.0645,3.7692,6.2465,8.8404,8.0086,-1.0425,2.5832,5.5747,9.3553,10.3169
128.9062,5.4671,6.1352,4.1756,6.1710,7.4207,5.6040,2.3738,3.6675,5.9945,3.3091,1.8101,3.8270,6.1098,6.6361,-2.1309,1.4964,4.7414,6.5189,6.9439
132.8125,3.7546,4.4965,2.5446,3.9672,5.8089,3.9994,2.5485,2.6439,4.6341,3.6724,1.0849,1.8251,2.9507,4.4784,-0.7910,1.3989,3.1603,3.8664,3.4787
136.7188,3.0839,3.2151,1.3008,2.2729,3.7288,2.7366,2.6035,1.7126,4.2018,5.4374,1.3962,0.2606,-0.0239,2.1104,1.8246,1.9436,1.5061,1.8505,0.3272
140.6250,2.9007,2.0093,0.0891,1.1101,1.5373,1.5557,1.8846,1.0277,4.1963,6.6083,1.9350,-0.9682,-2.2593,0.1708,3.4470,2.3379,0.4209,0.6361,-2.0448
144.5312,2.1978,0.5927,-1.3007,0.3161,-0.2884,0.0149,0.2738,0.6026,3.9156,5.3425,1.7859,-1.9124,-3.5672,-0.9823,2.2505,1.8660,0.0739,0.0653,-3.3411
148.4375,0.5319,-0.9217,-2.7187,-0.3875,-1.5896,-1.9650,-1.6522,0.1934,3.0140,1.4398,0.5886,-2.4772,-4.1877,-1.4375,-1.7282,0.4123,0.0824,-0.1236,-3.6153
152.3438,-1.4443,-1.9569,-3.7004,-1.2418,-2.7156,-3.8619,-2.9599,-0.6133,1.8040,-3.2886,-1.1308,-2.4942,-4.5540,-1.6086,-6.4166,-1.3949,-0.1447,-0.0322,-3.2432
156.2500,-2.4325,-1.8589,-3.7745,-2.2955,-4.2559,-4.8682,-2.9941,-2.1143,1.0521,-6.1529,-2.2611,-1.9115,-4.9452,-1.9279,-9.0192,-2.5569,-0.9225,0.4582,-2.6953
160.1562,-1.5691,-0.4553,-2.8307,-3.3490,-6.4921,-4.5273,-1.8647,-4.1962,1.4041,-5.4528,-1.8802,-0.9409,-5.3080,-2.5906,-7.9353,-2.3706,-2.0506,1.4858,-2.2747
164.0625,0.7739,1.6783,-1.2745,-4.0511,-9.0138,-3.1643,-0.4073,-6.2800,2.8691,-1.7099,0.0374,-0.0142,-5.3785,-3.5158,-3.8954,-0.9299,-3.0010,2.9373,-2.0069
167.9688,3.1638,3.5053,0.1775,-4.0956,-10.8430,-1.7323,0.3892,-7.5995,4.7626,2.6704,2.5226,0.4572,-4.9827,-4.4990,0.5372,0.9047,-3.3600,4.3796,-1.7343
171.8750,4.1471,4.1960,0.9468,-3.3978,-11.0245,-1.1646,0.0888,-7.6551,6.1651,5.0704,4.2303,0.3620,-4.2435,-5.3805,2.7466,2.0683,-3.1484,5.3042,-1.3035
175.7812,3.3214,3.6859,0.9712,-2.1393,-9.2647,-1.7308,-0.8807,-6.5248,6.5580,4.4285,4.3485,-0.0062,-3.5080,-6.0754,1.8189,2.0011,-2.7595,5.5050,-0.6813
179.6875,1.5821,2.6921,0.7184,-0.6683,-6.1490,-2.8945,-1.5662,-4.8020,6.1557,1.8143,3.1275,-0.1296,-3.0603,-6.4810,-0.9987,1.0011,-2.5864,5.2628,0.0694
183.5938,0.3620,2.1573,0.7955,0.6582,-2.7862,-3.7722,-1.2488,-3.2012,5.6820,-0.5498,1.6372,0.3626,-2.8796,-6.4173,-3.4074,-0.0350,-2.6787,5.1409,0.8771
187.5000,0.5038,2.5315,1.4230,1.5808,-0.1550,-3.8206,-0.0551,-2.1250,5.7642,-1.0032,0.9415,1.3886,-2.6662,-5.7347,-3.8173,-0.2888,-2.7328,5.5163,1.6890
191.4062,1.6687,3.4285,2.1785,1.9517,1.3724,-3.2195,1.0622,-1.5083,6.4165,0.4270,1.3272,2.4082,-2.1219,-4.5349,-2.4005,0.3837,-2.4232,6.2212,2.4051
195.3125,2.7107,3.9170,2.2381,1.7081,2.0312,-2.6778,0.9960,-1.0275,7.0161,2.2750,2.1733,2.7581,-1.2338,-3.2827,-0.6978,1.3763,-1.7680,6.6125,2.8196
199.2188,2.6387,3.2241,0.9819,0.8837,2.2843,-2.8603,-0.6695,-0.4640,6.7912,2.9341,2.5363,2.1174,-0.2983,-2.6142,-0.2151,1.8222,-1.1807,6.0576,2.6982
203.1250,1.3407,1.3183,-1.4732,-0.3316,2.4265,-3.9074,-3.2776,0.0965,5.4408,1.8922,1.9565,0.7771,0.3542,-2.8886,-1.2092,1.2659,-1.1274,4.4675,1.9922
207.0312,-0.4898,-1.0604,-4.2329,-1.5662,2.4834,-5.4054,-5.4945,0.3919,3.3965,-0.0598,0.8204,-0.5030,0.6948,-3.7980,-2.6354,-0.0012,-1.6713,2.4364,1.0137
210.9375,-2.0707,-2.9369,-6.1609,-2.3742,2.4092,-6.7713,-6.2211,0.2987,1.5131,-1.6998,-0.0121,-0.9856,1.0720,-4.3916,-3.2155,-1.1911,-2.3128,0.8404,0.3578
214.8438,-3.2000,-3.7915,-6.6354,-2.4700,2.3145,-7.6899,-5.3596,0.0257,0.4220,-2.4874,0.0023,-0.4735,1.9194,-3.6056,-2.6520,-1.6501,-2.3099,0.1810,0.5334
218.7500,-4.2852,-3.8877,-5.9803,-1.9409,2.4573,-8.2381,-3.8679,-0.0171,0.0536,-2.9431,0.5569,0.5113,3.3140,-0.9900,-1.9276,-1.3668,-1.2576,0.1911,1.5364
222.6562,-5.7559,-4.0061,-5.2306,-1.2454,2.9874,-8.6399,-3.0490,0.4204,-0.2895,-4.0096,0.6873,1.0384,4.7683,2.8838,-2.4376,-0.9580,0.5419,0.0399,2.7209
226.5625,-7.4561,-4.8038,-5.3735,-0.9399,3.6950,-8.9220,-3.5924,1.1596,-1.3514,-6.0170,-0.4392,0.3809,5.4812,6.6721,-4.7109,-1.1490,2.2437,-0.9972,3.1522
230.4688,-8.6263,-6.2931,-6.6144,-1.2966,4.0378,-8.8161,-5.0739,1.6788,-3.2776,-8.2104,-2.7736,-1.4817,4.8957,9.0358,-7.8358,-2.1691,3.0593,-2.9224,2.2497
234.3750,-8.5400,-7.8284,-8.2197,-2.1095,3.4709,-8.0149,-6.2839,1.5147,-5.4154,-9.2959,-5.3044,-3.8213,3.1324,9.4144,-10.1042,-3.5460,2.8255,-4.9543,0.2457
238.2812,-7.2358,-8.6020,-9.0801,-2.8782,1.8182,-6.5590,-6.1427,0.6416,-6.7399,-8.5551,-6.7503,-5.6199,0.9335,8.2492,-10.3566,-4.4646,2.0847,-6.1020,-1.9323
242.1875,-5.6618,-8.2692,-8.5886,-3.2630,-0.6333,-4.9941,-4.5312,-0.5135,-6.6018,-6.5619,-6.5038,-6.2222,-0.8704,6.5184,-8.9078,-4.4033,1.6058,-5.9422,-3.3283
246.0938,-5.0319,-7.2311,-7.1676,-3.4521,-3.4000,-4.1152,-2.4238,-1.4665,-5.2389,-4.8478,-5.0867,-5.7333,-1.9619,4.9633,-7.2783,-3.5398,1.7358,-4.9851,-3.6892
250.0000,-5.8858,-6.3625,-6.0139,-4.0934,-6.1845,-4.4497,-1.2288,-2.1500,-3.6501,-4.7460,-3.7525,-4.8944,-2.7235,3.6138,-6.9580,-2.6077,2.1161,-4.3149,-3.6726
253.9062,-7.6305,-6.3771,-6.2084,-5.7639,-9.0180,-5.8556,-1.8083,-3.0246,-2.9010,-6.3484,-3.5437,-4.5355,-3.8454,1.9639,-8.2340,-2.3270,2.0021,-4.7511,-4.3131
257.8125,-8.9691,-7.2841,-7.8319,-8.3496,-12.0186,-7.5382,-3.8751,-4.6650,-3.3602,-8.4344,-4.5376,-5.0030,-5.6653,-0.3893,-10.0546,-2.8686,0.9182,-6.1690,-6.1208
261.7188,-8.8905,-8.3236,-9.7614,-10.8528,-14.9895,-8.4892,-6.1720,-7.1131,-4.4242,-9.4409,-5.8593,-5.9660,-7.7849,-3.2103,-11.0161,-3.7784,-0.9029,-7.5161,-8.5239
265.6250,-7.4325,-8.4359,-10.3478,-11.8828,-17.2620,-8.0592,-7.2842,-9.5522,-4.9425,-8.6904,-6.4234,-6.7220,-9.2998,-5.6786,-10.6129,-4.4015,-2.6802,-7.5418,-10.1514
269.5312,-5.6157,-6.9540,-8.5316,-10.5633,-18.0124,-6.3027,-6.5051,-10.6575,-4.0431,-6.8928,-5.7956,-6.7483,-9.4810,-7.0148,-9.6702,-4.4405,-3.7191,-5.7128,-9.8123
273.4375,-4.6263,-4.0608,-4.6127,-7.2203,-16.8599,-3.9117,-4.1863,-9.4579,-1.7663,-5.5372,-4.4857,-6.0747,-8.3627,-7.1671,-9.5851,-4.1771,-3.9843,-2.6317,-7.4450
277.3438,-4.9238,-0.7142,-0.1176,-3.3010,-14.2642,-1.8178,-1.4004,-6.0950,0.9470,-5.6944,-3.4623,-5.1978,-6.7417,-6.9538,-11.0282,-4.1724,-4.1044,0.3542,-4.2770
281.2500,-5.9721,1.9094,3.1585,-0.5044,-11.3429,-0.7151,0.7788,-1.8756,2.9036,-7.2007,-3.3065,-4.6176,-5.5599,-7.4778,-13.2346,-4.7070,-4.7730,2.0718,-2.0048
285.1562,-6.7440,3.0975,4.2724,0.2991,-9.1814,-0.7432,1.8623,1.4891,3.4776,-8.8454,-3.7076,-4.3756,-5.1504,-9.2291,-14.5294,-5.4492,-6.0411,2.2975,-1.5669
289.0625,-6.5176,2.9839,3.6451,-0.4135,-8.1333,-1.4439,2.0535,2.9503,3.0191,-9.3477,-3.7115,-3.9829,-4.9652,-11.5837,-13.6896,-5.6667,-7.1300,1.8332,-2.4386
292.9688,-5.2992,2.4020,2.6340,-1.2511,-7.6579,-1.9741,1.9096,2.7287,2.5654,-8.2965,-2.5224,-2.8247,-4.0391,-13.1413,-11.0189,-4.8473,-7.0014,1.8484,-3.0206
296.8750,-3.5986,2.3140,2.5032,-0.9894,-6.8306,-1.4840,1.8834,2.0263,3.0629,-6.3211,-0.2173,-0.7557,-1.8545,-12.7016,-8.2210,-3.2407,-5.2860,2.9812,-1.8712
300.7812,-1.8698,3.1780,3.5356,0.4969,-5.1304,0.4702,2.0768,2.0678,4.6466,-4.4502,2.1896,1.5760,1.0718,-10.1652,-7.1405,-1.8596,-2.8213,4.8437,1.1292
304.6875,-0.1881,4.6460,4.8978,2.1452,-2.8747,3.6394,2.3107,3.1989,6.4797,-3.2837,3.3803,2.9668,3.3776,-6.6690,-8.3732,-1.8775,-1.2830,6.2634,4.5715
308.5938,1.5517,5.7737,5.3070,2.5280,-0.9547,7.0836,2.3650,4.7088,7.2644,-2.6903,2.5842,2.3508,3.7343,-3.8268,-10.8627,-3.8289,-2.0736,6.0668,6.4560
312.5000,3.1751,5.6071,3.9819,0.9671,-0.0908,9.5353,2.1573,5.4765,6.0807,-2.2148,0.0292,-0.4987,1.7947,-2.6211,-12.7897,-7.1816,-5.2360,3.8510,5.6005
316.4062,4.0412,3.7791,1.1911,-1.9040,-0.2221,10.0047,1.7456,4.9080,2.9981,-1.7270,-3.2822,-4.7302,-1.4872,-2.7613,-13.0105,-10.5922,-9.2113,0.2412,2.4853
320.3125,3.4226,0.7496,-1.9589,-4.5568,-0.5414,8.3144,1.2147,3.4229,-0.9302,-1.6537,-6.2361,-8.8142,-4.4107,-2.9744,-11.8707,-12.6716,-11.6888,-3.4884,-1.0784
324.2188,1.1787,-2.4500,-4.2965,-5.6579,-0.1603,5.2248,0.5892,2.1194,-4.2692,-2.5562,-8.1900,-11.3338,-5.5748,-2.0004,-10.7618,-12.7377,-11.0144,-6.1369,-3.2023
328.1250,-1.8957,-4.7963,-5.3394,-5.0226,1.1281,2.0222,-0.1526,1.8962,-5.9993,-4.4564,-9.1061,-11.6769,-4.6942,0.4547,-10.8452,-11.0795,-7.2122,-7.1760,-3.1721
332.0312,-4.4535,-5.8053,-5.5088,-3.7316,2.6059,-0.2015,-1.0053,2.7300,-6.0088,-6.5844,-9.2627,-10.2274,-2.6550,3.5054,-12.0442,-8.6269,-1.9352,-6.9016,-1.8098
335.9375,-5.5011,-5.6880,-5.6989,-3.3371,3.1126,-1.1163,-1.8998,3.6685,-5.0059,-7.8639,-8.8841,-8.0006,-0.8378,5.7417,-13.1529,-6.3296,2.5953,-6.1248,-0.7477
339.8438,-5.1215,-5.0658,-6.5547,-4.7480,1.8774,-1.1863,-2.7421,3.5388,-3.9593,-7.7787,-8.0131,-6.0132,-0.2333,6.2396,-12.9540,-4.6924,4.9151,-5.6515,-1.2105
343.7500,-4.4020,-4.4730,-7.9801,-7.5940,-0.9452,-1.1632,-3.4664,1.8209,-3.4641,-6.8756,-6.6682,-4.8060,-0.9564,5.1679,-11.3784,-3.7230,5.0284,-5.8587,-3.2153
347.6562,-4.5754,-4.0119,-9.1995,-10.4940,-4.4368,-1.4331,-4.0220,-0.9734,-3.4468,-6.4147,-5.0612,-4.3676,-2.4160,3.5636,-9.7049,-3.2100,4.0974,-6.5701,-5.7218
351.5625,-6.0421,-3.3943,-9.2953,-11.9949,-7.6167,-1.7231,-4.2923,-3.6765,-3.3697,-7.3907,-3.6252,-4.4129,-3.9075,2.4732,-9.5981,-3.0330,3.4280,-7.2485,-7.5251
355.4688,-8.0528,-2.3131,-7.8376,-11.4968,-10.1070,-1.3880,-4.0477,-5.2825,-2.7564,-9.7000,-2.8109,-4.7415,-5.1398,2.1192,-11.7525,-3.2538,3.5110,-7.3772,-8.1649
359.3750,-9.3054,-0.8368,-5.2028,-9.5521,-12.2379,-0.0364,-3.0458,-5.5811,-1.6525,-12.1449,-2.8379,-5.4049,-6.3347,1.7137,-15.2395,-3.9701,3.7707,-6.8278,-8.1819
363.2812,-8.9622,0.4947,-2.4077,-7.4031,-14.5333,2.0217,-1.2672,-5.1569,-0.6908,-13.2948,-3.6151,-6.5885,-7.8944,0.0604,-18.0837,-5.1072,3.1236,-6.0178,-8.5981
367.1875,-7.2638,0.9692,-0.5922,-6.1474,-17.0131,3.8842,0.8800,-4.8064,-0.7038,-12.5255,-4.8695,-8.3360,-9.9392,-3.4713,-18.6100,-6.3436,0.8995,-5.7419,-10.0735
371.0938,-5.2712,0.1838,-0.4591,-6.1021,-18.8828,4.6481,2.6015,-4.8513,-2.1382,-10.4154,-6.3209,-10.3371,-12.0513,-8.2640,-16.5130,-7.2201,-2.5263,-6.7180,-12.3722
375.0000,-4.0038,-1.6497,-1.9563,-6.7272,-18.8740,4.0167,3.0675,-4.8722,-4.6694,-8.2146,-7.7183,-11.9388,-13.3715,-12.5179,-12.8711,-7.3303,-5.7903,-9.0675,-14.4736
378.9062,-3.7251,-3.8128,-4.3274,-7.0499,-16.0031,2.4396,1.8970,-4.0393,-7.2951,-6.8622,-8.7321,-12.3828,-12.9515,-14.0402,-9.1986,-6.4569,-7.2202,-12.0540,-15.1731
382.8125,-3.9550,-5.5309,-6.4697,-6.2505,-10.2245,0.6917,-0.5503,-1.7682,-8.8766,-6.3690,-8.8907,-11.1380,-10.1562,-11.3070,-6.3668,-4.6056,-5.7052,-14.3141,-13.7208
386.7188,-4.1215,-6.4399,-7.4198,-4.0591,-2.5565,-0.7437,-3.3103,1.7900,-8.7983,-6.0362,-7.7509,-8.1614,-4.9506,-4.2259,-4.2396,-1.9875,-1.2653,-14.5391,-10.1180
390.6250,-4.1991,-6.7320,-6.7579,-0.8156,5.3625,-1.9666,-5.3290,5.7639,-7.3239,-5.2486,-5.2652,-3.9699,1.9975,5.7629,-2.2002,0.9917,4.9442,-12.2452,-5.0050
394.5312,-4.7154,-6.8881,-4.7609,2.7399,11.9763,-3.3952,-6.0270,9.0525,-5.4139,-4.1067,-2.0565,0.5027,9.4173,16.2501,0.0067,3.7566,11.1421,-8.1393,0.6669
398.4375,-6.1134,-7.2203,-2.2349,5.7898,16.3713,-5.1967,-5.5385,10.9432,-4.1133,-3.3369,0.7155,4.2089,15.7496,24.7845,1.8975,5.6768,15.6623,-3.7870,5.9489
402.3438,-8.0762,-7.5801,-0.0929,7.7466,18.4681,-6.9417,-4.4783,11.4642,-3.9021,-3.5823,1.9390,6.3478,19.6445,29.7454,2.6403,6.3018,17.5845,-0.7304,10.1057
406.2500,-9.5085,-7.4534,1.1236,8.4648,18.8582,-7.8190,-3.4280,11.2823,-4.4212,-4.7337,1.2458,6.6530,20.4963,30.8113,1.8168,5.6146,17.0004,0.4079,12.7592
410.1562,-9.2952,-6.3498,1.5286,8.2932,18.4438,-7.2604,-2.5304,11.2575,-4.7395,-5.9242,-0.6784,5.4925,18.7547,28.8729,-0.1501,4.1155,14.8359,0.2501,13.9888
414.0625,-7.2407,-4.1717,1.8081,7.9165,18.0337,-5.4454,-1.4755,11.9450,-3.9647,-6.2123,-2.4412,3.7234,15.7736,25.4676,-2.2730,2.6168,12.3379,0.1981,14.3149
417.9688,-4.3527,-1.2748,2.8003,8.0074,18.0038,-3.2207,0.1464,13.3222,-1.7837,-5.3530,-2.7510,2.3447,13.1779,22.0136,-3.7107,1.8266,10.4795,1.4937,14.4683
421.8750,-2.1380,1.8144,4.9771,8.8426,18.1234,-1.4511,2.4326,14.8538,1.4156,-3.9598,-1.1417,2.0936,12.0465,19.2087,-4.2712,1.9788,9.5747,4.4399,14.9857
425.7812,-1.4168,4.7776,8.1410,10.1183,17.6520,-0.3129,5.0284,15.8213,4.8789,-2.8961,1.8713,3.1665,12.3776,16.8770,-4.2930,2.7605,9.2847,8.2890,15.8545
429.6875,-1.6252,7.6628,11.5250,11.1212,15.7427,0.8707,7.3607,15.7183,7.9964,-2.4310,5.2589,5.1876,13.1740,14.3131,-4.0857,3.5795,8.9741,11.8148,16.4808
433.5938,-1.2346,10.6910,14.2225,11.1854,12.0039,3.0651,9.0355,14.5086,10.6048,-1.9381,8.1690,7.4157,13.1043,10.8932,-3.5247,3.9660,8.1638,14.1019,16.0640
437.5000,0.9867,13.8758,15.6658,10.1407,6.8993,6.6421,10.0728,12.6229,12.8832,-0.4630,10.3090,9.0617,11.3167,6.5653,-2.2288,3.8059,6.7793,14.9770,14.1487
441.4062,4.8620,16.7822,15.8504,8.4323,1.6746,10.8811,10.7951,10.7091,14.9700,2.2907,11.7922,9.5589,7.8929,1.9176,-0.1709,3.2576,5.0526,14.8320,10.9613
445.3125,8.7698,18.6546,15.2000,6.8107,-2.2335,14.2891,11.4847,9.2776,16.6495,5.4303,12.6849,8.6969,3.6976,-2.1903,1.9048,2.4755,3.2087,14.0846,7.2733
449.2188,10.7679,18.8524,14.2141,5.8148,-3.9787,15.5468,12.1107,8.4479,17.3894,7.3465,12.7336,6.6308,-0.1962,-5.1477,2.7744,1.4252,1.2367,12.7857,3.8984
453.1250,10.0304,17.2883,13.1736,5.4359,-3.7630,14.3964,12.3646,7.9451,16.7249,6.9045,11.5590,3.8292,-3.0619,-6.8868,1.6334,-0.0191,-1.0271,10.7082,1.2231
457.0312,7.4772,14.5447,12.0899,5.2131,-2.6342,11.8168,11.9687,7.3452,14.6882,4.4188,9.1568,0.9938,-4.6951,-7.7537,-1.1103,-1.7756,-3.5596,7.8091,-0.8564
460.9375,5.1004,11.5772,10.8697,4.6745,-1.7449,9.3629,10.9864,6.4026,11.9282,1.5786,6.2277,-1.0794,-5.1961,-8.0924,-3.8814,-3.3559,-5.8665,4.6054,-2.5684
464.8438,4.5140,9.2037,9.5057,3.7589,-1.5913,8.1623,9.8473,5.2276,9.3906,0.3013,3.9576,-1.7290,-4.6531,-7.8960,-4.9259,-4.0181,-7.0712,2.0671,-3.8193
468.7500,5.8451,7.7214,8.1164,2.8730,-1.7761,8.2871,9.0396,4.1893,7.7722,1.3623,3.3225,-0.7067,-3.0471,-6.8180,-3.5537,-3.2379,-6.4145,1.0390,-4.1018
472.6562,7.7920,6.8841,6.8285,2.5378,-1.4510,8.9026,8.7080,3.6155,7.1461,3.8596,4.4210,1.6418,-0.4439,-4.5436,-0.6710,-1.1603,-3.8395,1.6300,-2.8872
476.5625,8.7396,6.2077,5.6482,2.9180,-0.0822,9.0034,8.4982,3.5271,7.0351,5.9380,6.3710,4.4533,2.7587,-1.2214,1.8537,1.3514,-0.2027,3.0795,-0.1975
480.4688,8.0113,5.3561,4.4788,3.6234,2.0450,8.1510,7.8066,3.6181,6.8640,6.2039,7.8981,6.7161,5.8273,2.3987,2.5361,3.1770,3.1180,4.2543,3.1505
484.3750,6.2931,4.3431,3.2871,3.9485,3.9507,6.6983,6.2738,3.5037,6.4312,4.7276,8.2013,7.7619,8.0126,5.2532,1.3062,3.6217,4.9950,4.4232,5.9034
488.2812,4.9700,3.4494,2.2546,3.3587,4.5854,5.4295,4.1440,3.0373,6.0219,2.8683,7.4521,7.5853,8.9611,6.4853,-0.5658,2.8329,5.1672,3.7191,7.1182
492.1875,4.9833,2.9634,1.7310,1.8434,3.4675,4.9683,2.1962,2.4349,6.0756,2.1016,6.5545,6.7695,8.8766,5.8402,-1.5588,1.6381,4.2570,2.9328,6.7430
496.0938,6.1305,2.9523,1.9702,-0.1187,0.8890,5.4044,1.2618,2.0986,6.6818,2.8114,6.3612,6.0503,8.2820,3.6978,-1.1235,0.9194,3.1913,2.8112,5.5795
500.0000,7.2948,3.2085,2.8446,-1.9069,-2.3724,6.3311,1.6647,2.2858,7.3347,3.9959,6.9626,5.8104,7.5827,0.7966,-0.0721,0.9924,2.4939,3.4296,4.6608
503.9062,7.3093,3.3728,3.8028,-3.1048,-5.5123,7.1465,2.9893,2.9025,7.1876,4.0778,7.6003,5.8602,6.8185,-2.0841,0.1271,1.4464,2.0157,4.1496,4.5413
507.8125,5.7055,3.1308,4.1752,-3.5778,-7.9544,7.3335,4.3517,3.6060,5.6597,2.1220,7.2645,5.6639,5.8352,-4.2608,-1.4714,1.5471,1.3081,4.1972,5.0599
511.7188,2.8078,2.3670,3.6509,-3.2936,-9.3007,6.5720,4.9874,4.1287,2.9496,-1.5161,5.5050,4.8401,4.7251,-5.1094,-4.6074,0.8643,0.3039,3.3869,5.7287
515.6250,-0.7382,1.2228,2.5739,-2.1423,-9.2115,4.7597,4.7430,4.5371,0.0527,-5.5685,2.8280,3.5512,4.1021,-4.0727,-8.1358,-0.3733,-0.3147,2.3857,6.3633
519.5312,-4.4430,0.0619,1.8024,0.0045,-7.5031,2.0879,4.1364,5.1774,-1.7737,-8.8526,0.3827,2.4673,4.8653,-0.8871,-10.9984,-1.4648,0.5480,2.2721,7.3611
523.4375,-7.9929,-0.6368,2.1846,3.0199,-4.4730,-0.8267,3.9620,6.3301,-1.7472,-11.0120,-0.8131,2.3084,7.5255,4.0475,-12.9705,-1.7976,3.5468,3.7131,9.3413
527.3438,-10.8810,-0.4400,4.0035,6.3223,-1.1187,-2.9403,4.7417,7.8688,-0.0005,-12.4129,-0.5260,3.2934,11.5919,9.4861,-14.5562,-1.3244,8.1753,6.4013,12.4342
531.2500,-12.1651,0.8561,6.7869,9.0415,1.1330,-3.0982,6.4105,9.2547,2.5628,-13.3922,0.6194,4.9146,15.5692,13.6533,-16.1960,-0.5845,12.8035,9.2053,15.8626
535.1562,-10.7979,3.0961,9.6254,10.5358,1.2075,-0.6122,8.4395,9.9360,4.8670,-13.6307,1.6489,6.2228,17.7075,15.0415,-17.5790,-0.2705,15.5526,10.9387,18.2665
539.0625,-6.4236,5.7799,11.7670,10.9023,-0.7952,4.2441,10.2726,9.8700,6.2826,-12.3066,1.9041,6.4373,17.0711,13.2668,-17.7717,-0.7033,15.4447,11.1684,18.6177
542.9688,-0.0094,8.2577,13.0592,11.0324,-3.3958,10.2194,11.7368,9.7307,6.8528,-8.9588,1.3779,5.4527,14.1871,9.4039,-16.1272,-1.6307,13.0170,10.4583,17.0415
546.8750,6.3310,10.0254,13.9262,12.0717,-4.4594,15.6522,13.1195,10.5649,7.0332,-4.3029,0.5364,3.8881,10.7764,5.4932,-13.1877,-2.4839,9.9509,9.8751,14.8601
550.7812,10.3780,10.9424,14.9218,14.6087,-2.4865,19.2996,14.8613,13.0778,7.2089,-0.1894,-0.1481,2.6578,8.7036,3.4489,-10.6934,-2.8463,7.9705,10.1494,13.7391
554.6875,11.0607,11.2210,16.2088,18.1711,2.3698,20.8750,17.0933,17.0406,7.3819,1.4353,-0.5421,2.3799,8.8375,4.0256,-10.5082,-2.7391,7.7834,11.1308,14.5167
558.5938,9.0323,11.1818,17.3572,21.4224,8.2812,20.9404,19.3646,21.2627,7.2404,-0.1424,-0.8302,3.0301,10.5889,6.4867,-13.2066,-2.5013,8.7842,11.9282,16.5777
562.5000,6.1330,10.9530,17.6035,22.9448,12.7712,20.2783,20.7743,24.1826,6.4991,-3.8097,-1.2179,4.0484,12.4110,9.1647,-17.4486,-2.4050,9.6647,11.5985,18.2535
566.4062,4.1289,10.3496,16.3699,22.0670,14.1187,19.2635,20.4529,24.7009,5.1972,-7.2901,-1.6714,4.7679,12.8778,10.5222,-20.7399,-2.3664,9.4278,9.8411,17.9737
570.3125,3.6443,9.0487,13.6743,19.1764,12.2231,17.7312,18.1034,22.7190,3.7033,-8.6339,-1.9375,4.8318,11.5870,10.0239,-21.1095,-2.0208,8.0555,7.1934,15.3458
574.2188,4.0264,6.9453,10.1653,15.3616,8.4384,15.4123,14.2674,19.0819,2.4474,-7.4591,-1.8081,4.3262,9.3116,8.3115,-18.4850,-1.1027,6.4053,4.6315,11.4072
578.1250,4.1467,4.4108,6.7990,11.7246,4.6224,12.5212,10.1434,15.0432,1.6235,-5.0458,-1.3674,3.6051,7.3908,6.6734,-14.7181,0.2096,5.5081,2.9326,7.9221
582.0312,3.4401,2.2228,4.4029,8.8949,2.1397,9.9404,7.0482,11.6572,1.1204,-3.2490,-0.9701,3.0127,6.8652,6.2473,-12.2178,1.3116,5.8529,2.2897,6.2811
585.9375,2.3588,1.1651,3.3895,7.0308,1.4521,8.7751,5.8115,9.4621,0.7239,-3.0783,-0.9448,2.7319,7.9553,7.4838,-12.2013,1.5833,7.1704,2.4147,6.7866
589.8438,1.9424,1.5546,3.7165,6.1471,2.3745,9.5850,6.4267,8.5274,0.3920,-4.0093,-1.2722,2.8272,10.1428,10.1169,-13.8670,0.8869,8.7832,2.9531,8.7413
593.7500,2.9196,3.0249,5.0087,6.3522,4.5627,11.9007,8.1285,8.6652,0.3374,-4.4970,-1.5307,3.3535,12.6492,13.5033,-15.0834,-0.2546,10.1500,3.8047,11.1215
597.6562,5.0933,4.7272,6.6990,7.7244,7.7317,14.4381,9.8316,9.5681,0.8225,-3.2345,-1.1954,4.3592,14.8749,16.9890,-14.0405,-0.9655,11.1467,5.0757,13.2340
601.5625,7.4735,5.8178,8.1365,9.9587,11.4887,15.8892,10.6784,10.8147,1.8333,-0.1676,-0.0767,5.7476,16.5123,20.0685,-10.5991,-0.6069,11.9202,6.7437,14.8861
605.4688,8.9946,5.9034,8.7144,12.1918,15.0988,15.7176,10.4012,11.8747,2.9282,3.4805,1.4464,7.1366,17.3879,22.3544,-6.3457,0.7846,12.5376,8.3824,16.0833
609.3750,9.2151,5.1598,8.0695,13.3014,17.5878,14.3833,9.3265,12.2543,3.4355,6.1254,2.6076,7.9123,17.3119,23.5441,-3.3686,2.5298,12.8044,9.2501,16.6668
613.2812,8.4762,4.0882,6.2922,12.5568,18.2388,12.8693,8.0614,11.7444,2.8935,6.9279,2.7448,7.5272,16.1413,23.5075,-2.7344,3.7774,12.4315,8.7320,16.2905
617.1875,7.4868,3.1267,3.9812,10.1360,17.1034,11.9158,7.0766,10.5636,1.4088,6.2588,1.7540,5.8716,13.9952,22.4266,-3.8187,4.0624,11.3810,6.8050,14.7585
621.0938,6.7539,2.4082,2.0114,7.0616,15.0396,11.5606,6.4448,9.2136,-0.3552,5.2437,0.1760,3.4377,11.3691,20.8020,-4.9370,3.5556,10.0450,4.1464,12.3728
625.0000,6.3340,1.8080,1.0808,4.5453,13.1482,11.3043,5.8812,8.1068,-1.5845,4.8314,-1.1534,1.1127,8.9587,19.2207,-4.7209,2.8632,9.0508,1.7646,9.9019
628.9062,6.0320,1.1795,1.2980,3.2113,12.0027,10.6908,5.0330,7.2546,-1.8385,5.1401,-1.6439,-0.3013,7.2736,18.0036,-3.1493,2.5700,8.8222,0.3991,8.1236
632.8125,5.7688,0.5450,2.1067,2.7890,11.2954,9.7805,3.8033,6.3053,-1.3163,5.5437,-1.3065,-0.5273,6.3394,17.0003,-1.4779,2.8805,9.2555,0.1138,7.2920
636.7188,5.7252,0.0789,2.6386,2.4996,10.2111,9.1094,2.4809,4.9408,-0.6777,5.3374,-0.6863,0.0830,5.7504,15.7213,-1.1856,3.5921,9.7920,0.3616,6.9799
640.6250,6.1302,-0.0837,2.2806,1.7996,8.2355,9.1884,1.5785,3.3077,-0.5543,4.3871,-0.4407,0.8446,5.0513,13.7358,-2.7933,4.3549,9.8418,0.4459,6.4472
644.5312,6.9266,-0.0188,1.0705,0.8528,5.7150,9.9870,1.4851,2.0716,-1.1128,3.2424,-0.8710,1.2134,4.1390,11.0348,-5.4468,4.9654,9.2204,0.0190,5.2374
648.4375,7.6726,0.0048,-0.3594,0.3370,3.6603,10.8596,2.1742,1.9667,-1.9809,2.6703,-1.7294,1.1067,3.3430,8.0673,-7.5284,5.4609,8.2467,-0.7383,3.5091
652.3438,7.8207,-0.2605,-1.2468,0.7591,2.9174,10.9993,3.1779,3.1508,-2.5637,3.0310,-2.4132,0.8694,3.1041,5.4075,-7.7810,5.9800,7.4293,-1.3476,1.8286
656.2500,7.1572,-0.8021,-1.2281,1.8866,3.3861,10.0660,3.8659,4.9078,-2.4898,4.0092,-2.3808,0.9581,3.5196,3.3213,-6.1019,6.5555,7.0130,-1.4466,0.6223
660.1562,6.0159,-1.2818,-0.5420,2.8246,3.9745,8.4853,3.8591,6.0275,-1.8398,4.8852,-1.4877,1.6060,4.1574,1.5917,-3.4836,7.0373,6.7673,-1.0432,-0.2131
664.0625,5.0645,-1.2123,0.2343,2.7287,3.3983,7.1810,3.3079,5.6645,-0.9971,5.0925,-0.0188,2.7133,4.3364,-0.2372,-1.2462,7.2089,6.1963,-0.4261,-1.1731
667.9688,4.8266,-0.2542,0.7001,1.5836,1.2270,6.9462,2.8402,4.0495,-0.2637,4.6090,1.5699,4.0007,3.6782,-2.3837,-0.1841,6.9789,4.9944,0.1633,-2.5760
671.8750,5.3320,1.5719,0.9903,0.3773,-1.6640,7.9292,3.1933,2.4637,0.4325,3.9086,2.9812,5.2550,2.4830,-4.5135,-0.2166,6.4736,3.3656,0.7956,-4.0613
675.7812,6.1740,3.8913,1.6877,0.4525,-3.6392,9.5949,4.7449,2.4088,1.4879,3.5669,4.2245,6.4440,1.5910,-5.8691,-0.6760,5.9489,1.9307,1.8177,-4.6459
679.6875,6.8959,6.1649,3.3410,2.4869,-3.4664,11.1440,7.2316,4.5277,3.2531,3.8674,5.4802,7.6142,1.7902,-5.7795,-0.8943,5.6030,1.2832,3.5257,-3.3857
683.5938,7.3526,7.9119,5.9412,5.8812,-1.2127,12.0319,9.8299,8.0628,5.6260,4.6939,6.8038,8.6884,3.2040,-4.1691,-0.6164,5.4447,1.5426,5.8010,-0.1691
687.5000,7.7310,8.8331,8.7518,9.0532,1.8094,12.2034,11.5603,11.2773,7.9396,5.7225,7.9222,9.3678,5.1385,-1.6696,-0.0068,5.3169,2.2560,8.0105,3.9892
691.4062,8.2352,8.8158,10.6419,10.4526,3.9956,11.9337,11.7844,12.5640,9.2685,6.6889,8.3109,9.2587,6.5290,0.7681,0.6222,5.0358,2.7279,9.2826,7.4422
695.3125,8.7561,7.9022,10.7178,9.5589,4.5557,11.4851,10.5177,11.4572,8.9759,7.4935,7.5313,8.1493,6.6684,2.4767,1.0592,4.5192,2.5190,9.0040,8.8824
699.2188,8.8677,6.2977,8.8492,7.1411,3.9310,10.9070,8.3958,8.8364,7.1379,8.1059,5.6008,6.2262,5.6746,3.4378,1.2364,3.8076,1.7324,7.2110,8.1045
703.1250,8.1962,4.4049,5.7608,4.6239,3.2522,10.1248,6.3332,6.2129,4.5529,8.4287,3.1165,4.0472,4.3493,4.1416,1.1240,2.9892,0.8793,4.6174,6.0228
707.0312,6.8557,2.7853,2.6494,3.0722,3.3277,9.1884,5.0776,4.6616,2.3173,8.3016,1.0025,2.2638,3.5424,5.0669,0.6647,2.1179,0.4452,2.2491,3.9611
710.9375,5.5401,1.9782,0.5721,2.5549,4.0006,8.4017,4.9006,4.1875,1.2283,7.6603,0.0033,1.2628,3.5106,6.2052,-0.1561,1.1995,0.5007,0.9055,2.7603
714.8438,5.1190,2.2262,-0.0394,2.3119,4.3707,8.1748,5.5647,3.9506,1.3766,6.6802,0.2323,0.9582,3.7516,7.0101,-1.1997,0.2353,0.6491,0.7604,2.3479
718.7500,5.9974,3.2795,0.4975,1.5055,3.6568,8.6971,6.5403,3.1029,2.1572,5.7178,1.0718,0.8613,3.4218,6.8218,-2.1965,-0.7472,0.3367,1.3166,2.0167
722.6562,7.7218,4.4434,1.3639,-0.0827,1.9523,9.7026,7.3152,1.5489,2.6569,5.0430,1.5056,0.3763,2.0026,5.4315,-2.9513,-1.7213,-0.7240,1.7148,1.1088
726.5625,9.1644,4.8957,1.6782,-1.9488,0.2363,10.5422,7.6120,0.0383,2.1660,4.5749,0.6966,-0.8601,-0.3007,3.3361,-3.5643,-2.7082,-2.3318,1.2017,-0.4733
730.4688,9.1966,4.1100,0.8962,-3.3769,-0.3835,10.5365,7.4152,-0.4566,0.5224,3.8812,-1.5300,-2.7806,-2.7174,1.4581,-4.4170,-3.7595,-3.9236,-0.4977,-2.3068
734.3750,7.4043,2.1352,-0.9897,-4.0898,0.4100,9.3671,6.8413,0.4263,-1.8651,2.5164,-4.5742,-4.9192,-4.4842,0.5125,-5.8357,-4.8421,-4.9365,-3.0784,-3.9311
738.2812,4.3685,-0.4364,-3.4931,-4.4866,1.7911,7.2472,5.9818,2.0391,-4.2630,0.4774,-7.3623,-6.6274,-5.3821,0.4730,-7.6460,-5.7124,-5.1430,-5.8389,-5.3059
742.1875,1.3451,-2.7800,-5.8645,-5.2852,2.2907,4.7807,4.8450,3.0598,-5.9548,-1.5870,-8.8659,-7.3579,-5.8373,0.5284,-9.0056,-5.9272,-4.7464,-8.0218,-6.8309
746.0938,-0.4232,-4.2305,-7.4024,-6.8804,0.7743,2.6449,3.4353,2.3196,-6.5005,-2.6406,-8.5468,-6.8891,-6.5363,-0.4250,-8.7639,-5.0681,-4.2181,-9.1275,-8.9092
750.0000,-0.3266,-4.5285,-7.7254,-8.9445,-2.8083,1.3157,1.8911,-0.4526,-5.8346,-1.8806,-6.5246,-5.4093,-7.8736,-3.0787,-6.2080,-3.0779,-4.0268,-9.0602,-11.4401
753.9062,1.3929,-3.8215,-6.8967,-10.5850,-7.4021,0.9678,0.5451,-4.4469,-4.2232,0.6940,-3.4503,-3.4368,-9.6535,-7.2540,-1.7048,-0.4646,-4.4431,-8.0687,-13.6936
757.8125,3.8650,-2.4845,-5.3523,-10.9244,-11.4950,1.5237,-0.1829,-8.2204,-2.1420,4.1794,-0.2165,-1.6083,-11.2434,-11.9664,3.2651,1.8341,-5.5014,-6.5522,-14.7072
761.7188,6.0570,-0.9143,-3.6667,-9.6570,-13.9322,2.7368,-0.0279,-10.4477,-0.1244,7.2394,2.3412,-0.4163,-12.0226,-15.9357,6.8096,2.9138,-7.0709,-4.8547,-13.9189
765.6250,7.2222,0.5869,-2.2771,-7.1970,-14.3703,4.2374,0.8923,-10.5233,1.3982,8.8621,3.6661,-0.0058,-11.7629,-18.1999,7.6750,2.4277,-8.9297,-3.1573,-11.5552
769.5312,7.1625,1.8291,-1.3158,-4.3690,-13.1965,5.5741,2.0367,-8.7363,2.2385,8.9086,3.6176,-0.1288,-10.6677,-18.4707,5.9755,0.8224,-10.7864,-1.4981,-8.4883
773.4375,6.2582,2.7163,-0.6360,-1.9286,-11.1381,6.3215,2.6597,-6.0309,2.5254,8.0988,2.5227,-0.2879,-9.0929,-17.0832,3.1165,-0.9008,-12.2726,0.1261,-5.6826
777.3438,5.2788,3.2463,0.0018,-0.2625,-8.9061,6.2546,2.1923,-3.5527,2.6472,7.4695,1.1026,0.0004,-7.2176,-14.6558,0.9480,-1.7627,-12.9773,1.6680,-3.6544
781.2500,5.0227,3.5150,0.7197,0.5947,-7.0419,5.4800,0.5695,-2.2048,3.0529,7.6852,0.2282,0.9602,-4.9478,-11.7156,0.6959,-1.3523,-12.5538,3.0116,-2.3181
785.1562,5.8919,3.6761,1.4271,0.7627,-5.8773,4.3919,-1.7050,-2.3457,3.9888,8.6596,0.5392,2.4565,-2.1191,-8.5020,2.3400,0.0046,-10.8648,4.0288,-1.2690
789.0625,7.5999,3.8395,1.8917,0.3758,-5.4533,3.4281,-3.8130,-3.6924,5.3143,9.7001,2.0889,4.0807,1.1920,-5.0010,4.7876,1.5331,-8.0822,4.6497,-0.2188
792.9688,9.2241,3.9661,1.9031,-0.3922,-5.3958,2.7735,-5.0577,-5.4534,6.5269,10.0239,4.2396,5.3482,4.5265,-1.1240,6.6482,2.5229,-4.6773,4.8853,0.7770
796.8750,9.6706,3.8547,1.4013,-1.2384,-4.9387,2.2296,-5.2245,-6.6769,7.0129,9.2653,5.9352,5.8833,7.2012,3.0981,7.0563,2.7073,-1.2978,4.7861,1.4429
800.7812,8.3408,3.2639,0.4870,-1.7611,-3.2590,1.3690,-4.6573,-6.7052,6.3962,7.6491,6.2514,5.5055,8.6533,7.3970,6.0304,2.2872,1.4160,4.3812,1.5917
804.6875,5.5847,2.1009,-0.6686,-1.6715,-0.0396,-0.1191,-4.0164,-5.5230,4.7738,5.7714,4.9106,4.2199,8.7098,11.2534,4.2395,1.6559,3.0042,3.6589,1.3124
808.5938,2.5822,0.5348,-1.9254,-1.0488,4.1104,-2.1498,-3.8817,-3.7839,2.6789,4.1993,2.4296,2.1731,7.5882,13.9883,2.4553,1.0828,3.2946,2.6080,0.8619
812.5000,0.6512,-1.0745,-3.2131,-0.4073,7.7573,-4.2459,-4.4469,-2.4557,0.7755,3.1784,-0.2171,-0.3724,5.6534,14.9460,1.1202,0.5898,2.4226,1.2750,0.3653
816.4062,0.4024,-2.4019,-4.5054,-0.4689,9.3274,-5.8359,-5.4787,-2.2736,-0.5362,2.6078,-2.2105,-3.0560,3.1473,13.7394,0.2793,0.0601,0.7676,-0.2310,-0.3969
820.3125,1.3306,-3.3796,-5.7854,-1.7588,7.9955,-6.6281,-6.5323,-3.3434,-1.3473,2.2260,-3.3665,-5.4774,0.1134,10.4757,-0.1948,-0.5704,-1.1703,-1.8095,-1.8949
824.2188,2.1697,-4.2345,-7.0456,-4.2929,4.1881,-6.7828,-7.2568,-5.1549,-2.1413,1.8231,-4.1489,-7.3096,-3.4269,5.8491,-0.3567,-1.2244,-2.9119,-3.4534,-4.4875
828.1250,1.8033,-5.2862,-8.3040,-7.5651,-0.6565,-6.7596,-7.5842,-6.9860,-3.4116,1.3377,-5.2048,-8.4100,-7.2085,1.0043,-0.1347,-1.7482,-4.1085,-5.2478,-8.0528
832.0312,0.0982,-6.6359,-9.5793,-10.8221,-4.9256,-6.9621,-7.6997,-8.3932,-5.2343,0.8279,-6.7558,-8.8343,-10.6095,-2.8229,0.5383,-2.0291,-4.5848,-7.2349,-11.9004
835.9375,-1.9482,-7.9765,-10.8072,-13.4228,-7.6993,-7.4502,-7.8450,-9.4274,-7.0847,0.4128,-8.2916,-8.7223,-12.8316,-4.7585,1.5905,-2.0306,-4.3193,-9.2241,-15.0577
839.8438,-2.8775,-8.6953,-11.7638,-15.0555,-9.0807,-7.9257,-8.1166,-10.4317,-8.0503,0.2567,-8.8168,-8.1403,-13.2993,-4.6345,2.8328,-1.7236,-3.4065,-10.7181,-16.7641
843.7500,-1.7959,-8.2362,-12.1087,-15.7340,-9.8301,-7.9808,-8.4027,-11.6146,-7.3505,0.5752,-7.5100,-7.0307,-12.0320,-3.0555,4.1114,-1.0251,-2.0504,-11.0903,-16.8713
847.6562,0.9688,-6.5000,-11.5885,-15.6663,-10.6483,-7.4068,-8.4906,-12.7655,-4.8633,1.5783,-4.3594,-5.3540,-9.7442,-1.1503,5.4224,0.1319,-0.5941,-9.9741,-15.9186
851.5625,4.0376,-4.0083,-10.2984,-15.1421,-11.6694,-6.3374,-8.2492,-13.3624,-1.3315,3.3107,-0.3324,-3.3315,-7.5817,-0.1201,6.8424,1.6152,0.4734,-7.6280,-14.8547
855.4688,5.8446,-1.7008,-8.7911,-14.4963,-12.5046,-5.1516,-7.7442,-12.9931,1.9151,5.4846,3.0650,-1.5567,-6.6196,-0.7789,8.3205,2.9733,0.6152,-4.9842,-14.5746
859.3750,5.5866,-0.4654,-7.8741,-14.0817,-12.7195,-4.2428,-7.1987,-11.7444,3.5991,7.4724,4.5883,-0.7907,-7.3768,-3.2720,9.5439,3.5703,-0.5376,-3.2512,-15.5047
863.2812,3.6304,-0.6798,-8.1503,-14.1620,-12.3041,-3.8358,-6.8297,-10.2283,3.1586,8.5671,3.9337,-1.4864,-9.5898,-7.0690,10.0700,2.9781,-2.9447,-3.2437,-17.4197
867.1875,1.1763,-2.0310,-9.5763,-14.7409,-11.7428,-3.9481,-6.6821,-9.1970,1.0592,8.4123,1.8915,-3.3512,-12.3523,-11.2108,9.6901,1.3737,-6.0659,-4.8469,-19.5466
871.0938,-0.5005,-3.7102,-11.3656,-15.4612,-11.6437,-4.4553,-6.5846,-9.0285,-1.4289,7.3306,-0.1047,-5.3191,-14.5403,-14.7026,8.7486,-0.3970,-9.0378,-6.9960,-20.9004
875.0000,-0.6837,-4.8480,-12.3678,-15.7162,-12.2470,-5.1513,-6.2651,-9.4721,-2.8779,6.2707,-0.7558,-6.0666,-15.3158,-16.8875,8.1015,-1.2356,-11.0746,-8.2445,-20.7095
878.9062,0.6253,-4.9297,-11.7265,-14.9646,-13.2064,-5.7543,-5.5480,-9.8434,-2.4232,6.3206,0.4454,-4.8113,-14.4647,-17.6449,8.6403,-0.4712,-11.8638,-7.6016,-18.7517
882.8125,2.9622,-3.9670,-9.3995,-13.0620,-13.8006,-5.9214,-4.4963,-9.5157,-0.1709,8.0385,3.0252,-1.8649,-12.4142,-17.3191,10.6623,1.6609,-11.6900,-5.1114,-15.4397
886.7188,5.7378,-2.3770,-6.1895,-10.3702,-13.3891,-5.3600,-3.3944,-8.3373,2.9151,11.0293,5.8676,1.4790,-9.9302,-16.4098,13.5490,4.1217,-11.1708,-1.7997,-11.5977
890.6250,8.3916,-0.6932,-3.2602,-7.5508,-11.7698,-4.0328,-2.5775,-6.6824,5.5575,14.0815,7.8482,3.7080,-7.6682,-15.1923,16.0485,5.7311,-10.7637,0.9736,-8.0301
894.5312,10.3761,0.6912,-1.4658,-5.1871,-9.2190,-2.3072,-2.2210,-5.1393,6.8207,15.8322,8.3926,4.0153,-5.8362,-13.5074,17.0330,5.9455,-10.3874,2.3142,-5.1314
898.4375,11.1931,1.6156,-0.9439,-3.5140,-6.2664,-0.8647,-2.2361,-4.1094,6.5160,15.5730,7.6739,2.7574,-4.1756,-10.8903,16.2363,5.1925,-9.4595,2.2185,-2.7876
902.3438,10.6231,2.0856,-1.2179,-2.4438,-3.4423,-0.3325,-2.3446,-3.6269,5.1676,13.6910,6.3888,1.1308,-2.2727,-7.0019,14.4471,4.5122,-7.3639,1.3761,-0.6466
906.2500,9.0140,2.1600,-1.6725,-1.8307,-1.1796,-0.8416,-2.2819,-3.4960,3.6182,11.4572,5.2969,0.3171,0.0067,-2.0937,13.0042,4.7674,-4.0382,0.5630,1.4375
910.1562,7.3013,1.9051,-2.0064,-1.7128,0.1489,-1.8466,-1.9830,-3.5734,2.5492,10.2812,4.8172,0.7284,2.2774,2.8443,12.9308,6.0154,-0.2382,0.1158,3.1386
914.0625,6.5565,1.4403,-2.3194,-2.2933,0.2275,-2.4229,-1.6133,-3.9209,2.2046,10.8876,4.9129,1.8943,3.7972,6.4459,14.3036,7.5122,2.7708,-0.1207,3.8254
917.9688,7.2550,0.9948,-2.8100,-3.6603,-1.0538,-1.9116,-1.4229,-4.6913,2.4368,12.9107,5.2899,3.0231,3.9613,7.6900,16.2780,8.3305,3.9442,-0.3907,3.0846
921.8750,8.7863,0.8726,-3.3920,-5.4974,-3.3824,-0.4800,-1.5304,-5.8604,2.9701,15.1318,5.7273,3.7398,2.7868,6.5349,17.7145,8.0960,3.1315,-0.5692,1.2004
925.7812,9.6826,1.2957,-3.6028,-7.0870,-5.9730,0.8597,-1.8055,-7.0684,3.6465,16.1925,6.2756,4.3713,1.0018,4.0065,17.9279,7.2527,1.2083,-0.1076,-0.8497
929.6875,8.5632,2.2171,-2.9296,-7.6899,-7.8521,0.8884,-1.9455,-7.7473,4.4722,15.3489,7.1632,5.5315,-0.4009,1.6029,17.0318,6.6458,-0.4689,1.5012,-1.9963
933.5938,5.2196,3.2557,-1.3102,-7.0633,-8.3851,-0.9004,-1.6945,-7.4771,5.4587,12.8434,8.4795,7.3555,-0.8834,0.3561,15.6835,6.7610,-0.9459,4.0869,-1.9035
937.5000,1.0454,3.8492,0.6193,-5.7169,-7.7055,-3.7495,-1.0373,-6.3134,6.4262,9.7241,9.8901,9.0634,-0.8406,0.1733,14.4945,7.2482,-0.2955,6.5610,-1.3833
941.4062,-1.6200,3.5711,1.7941,-4.6649,-6.7017,-5.9299,-0.2137,-4.8318,6.9678,7.2608,10.6522,9.3059,-1.4242,-0.0571,13.5898,7.1425,0.4594,7.3922,-1.9797
945.3125,-0.9185,2.4129,1.3732,-4.7968,-6.4937,-5.7908,0.4593,-3.8411,6.6432,6.2976,9.9923,7.1226,-3.7474,-1.6271,12.6390,5.6417,0.0859,5.5704,-4.8973
949.2188,3.2345,0.8283,-0.6785,-6.2952,-7.7103,-2.9186,0.8116,-3.9525,5.2783,6.8765,7.6319,2.8031,-7.9823,-5.0020,11.2775,2.8377,-1.9596,1.4007,-9.9938
953.1250,8.8952,-0.5289,-3.5199,-8.5215,-10.0568,1.3965,0.8966,-5.2884,3.1466,8.2895,4.0949,-2.0563,-13.0146,-9.3720,9.5374,-0.1924,-5.1040,-3.4968,-15.6131
957.0312,13.1258,-1.2203,-5.9559,-10.4602,-12.4936,4.7811,0.8434,-7.4972,0.8751,9.4964,0.5414,-5.4413,-16.9826,-13.1236,7.9252,-2.0486,-8.0074,-7.0735,-19.4911
960.9375,13.7097,-1.3121,-7.1961,-11.4035,-13.9248,5.1626,0.6100,-10.0190,-0.8778,9.6844,-1.8136,-6.1725,-18.4085,-14.9320,7.0979,-1.9517,-9.4501,-8.0715,-20.1822
964.8438,10.4615,-1.3198,-7.3092,-11.3795,-13.9308,2.0462,-0.1265,-12.3881,-1.7584,8.6932,-2.3368,-4.6261,-17.1639,-14.7007,7.4125,-0.2633,-9.1356,-6.7435,-18.0142
968.7500,5.2958,-1.8200,-7.0520,-11.0218,-13.0342,-3.1520,-1.7859,-14.3741,-1.8349,7.0951,-1.2564,-2.3912,-14.5696,-13.6485,8.7088,1.8094,-7.8453,-4.5647,-14.8545
972.6562,1.0259,-2.9891,-7.2126,-11.0003,-12.3134,-7.9524,-4.4890,-15.9199,-1.4317,5.8834,0.5886,-1.1058,-12.5088,-13.4388,10.4667,3.0989,-6.8439,-3.1446,-12.8030
976.5625,-0.3201,-4.4047,-7.9705,-11.4610,-12.6392,-10.2986,-7.7474,-16.9932,-0.8332,5.9091,2.3255,-1.3279,-12.1378,-14.9520,12.1680,3.2852,-6.9644,-3.1255,-12.7266
980.4688,1.3975,-5.2834,-8.7581,-11.9107,-14.0710,-9.7253,-10.5341,-17.5113,-0.1054,7.3609,3.5299,-2.2630,-13.0958,-17.5841,13.5497,3.0257,-8.0273,-3.8607,-13.7005
984.3750,4.5451,-5.0229,-8.7287,-11.6329,-15.8304,-7.4765,-11.7849,-17.4051,0.8175,9.5880,4.2865,-2.5200,-13.7826,-19.5968,14.5691,3.3386,-8.9985,-4.0804,-13.7812
988.2812,6.8748,-3.6795,-7.4754,-10.3094,-16.8494,-5.5575,-11.0478,-16.7493,1.8691,11.4058,4.8495,-1.2854,-12.5231,-19.2866,15.1825,4.7372,-8.7558,-3.0125,-11.5512
992.1875,6.9149,-2.0332,-5.4489,-8.3574,-16.4907,-5.4041,-8.8309,-15.8208,2.6663,11.7474,5.2379,0.9965,-8.7942,-16.1459,15.2027,6.7906,-6.9022,-1.0838,-7.2888
996.0938,4.7180,-1.1543,-3.7433,-6.7076,-14.9253,-7.0619,-6.3663,-15.0037,2.6226,10.2924,5.1395,2.9539,-3.6453,-11.1900,14.4167,8.4340,-4.0460,0.3464,-2.8732
1000.0000,1.5947,-1.7371,-3.3856,-6.1696,-12.9255,-9.3602,-4.8961,-14.5859,1.3442,7.6848,4.2170,3.3550,0.9740,-6.2416,12.8757,8.7673,-1.3685,0.0244,-0.4728
1003.9062,-0.8550,-3.6344,-4.6334,-6.8532,-11.2589,-10.8609,-4.9383,-14.5890,-0.9643,5.1797,2.5490,2.0719,3.4756,-2.7202,11.0721,7.7137,0.1786,-2.1845,-0.9796
1007.8125,-1.7067,-5.9094,-6.7853,-8.0757,-10.1533,-10.8545,-6.0308,-14.7607,-3.4244,3.9201,0.7946,0.1926,3.5754,-0.8312,9.7762,6.0435,0.4544,-5.0904,-3.3550
1011.7188,-1.0795,-7.3751,-8.6361,-8.8346,-9.2298,-9.7200,-7.1239,-14.7474,-4.8723,4.2894,-0.1247,-0.7989,2.2717,0.2817,9.5818,4.7748,0.0843,-6.9568,-5.3812
1015.6250,0.2053,-7.2755,-9.2522,-8.5054,-7.9382,-8.4804,-7.3410,-14.3370,-4.5154,5.7476,0.3652,-0.1313,0.9530,1.6045,10.4796,4.4403,-0.1312,-6.6881,-5.2635
1019.5312,1.3130,-5.6762,-8.5261,-7.2662,-6.1397,-7.9720,-6.5655,-13.6081,-2.4283,7.2384,2.0508,1.7078,0.3577,3.3082,11.8018,4.7812,0.1266,-4.5505,-2.9000
1023.4375,1.9128,-3.3453,-7.1419,-5.9484,-4.3709,-8.2765,-5.4503,-12.8805,0.4627,7.8773,4.0214,3.3885,0.1743,4.5500,12.6220,5.0675,0.4804,-1.9051,0.1080
1027.3438,2.2215,-1.2452,-6.0167,-5.4313,-3.5525,-8.7984,-4.8718,-12.4918,2.9225,7.4559,5.2608,3.7705,-0.4710,4.1721,12.3501,4.7445,0.2355,-0.1842,1.6860
1031.2500,2.6550,0.0076,-5.6424,-6.0154,-4.3258,-8.8457,-5.2523,-12.5432,4.1269,6.4489,5.3128,2.7425,-2.0942,1.7417,11.1022,3.8732,-0.9653,0.1061,0.8188
1035.1562,3.4188,0.3846,-5.7917,-7.2099,-6.4917,-8.2061,-6.2462,-12.7799,4.0833,5.5734,4.5319,1.2381,-4.2758,-1.9053,9.5858,3.0322,-2.7363,-0.3733,-1.7470
1039.0625,4.3428,0.2926,-5.7616,-8.0605,-8.9752,-7.2669,-6.9960,-12.6905,3.4849,5.2522,3.7400,0.4603,-5.8992,-5.0754,8.5938,2.7983,-4.1245,-0.4350,-4.1110
1042.9688,5.0254,0.2037,-4.9344,-7.7635,-10.3840,-6.6272,-6.7330,-11.7717,3.1315,5.3649,3.5670,0.9476,-6.0061,-6.3130,8.4754,3.2516,-4.2516,0.6586,-4.6326
1046.8750,5.1187,0.3472,-3.2303,-6.1382,-9.8134,-6.5623,-5.2657,-9.7994,3.3472,5.4251,3.9860,2.2101,-4.5792,-5.3800,8.9507,3.9056,-2.9530,2.6480,-3.0778
1050.7812,4.5221,0.6443,-1.1443,-3.6649,-7.3782,-6.7955,-3.0264,-6.9482,3.8022,5.0009,4.3862,3.1775,-2.6219,-3.4017,9.3666,4.0969,-0.9444,4.5399,-0.6823
1054.6875,3.3845,0.8642,0.6111,-1.1250,-4.1288,-6.7510,-0.7026,-3.6982,3.8363,4.0474,4.0979,3.0565,-1.4700,-2.0774,9.1767,3.5000,0.6004,5.4100,0.8322
1058.5938,1.9847,0.8349,1.5569,0.8593,-1.4245,-6.0549,1.2120,-0.6046,3.0125,2.9310,2.9355,1.9003,-1.8688,-2.5342,8.2998,2.3496,0.7613,5.0745,0.4857
1062.5000,0.6352,0.5541,1.6640,2.0710,-0.1733,-4.8528,2.6072,1.9186,1.4786,2.1816,1.3374,0.4640,-3.5114,-4.6331,7.1387,1.2187,-0.6156,4.1167,-1.3983
1066.4062,-0.3288,0.1593,1.2263,2.6263,-0.4085,-3.6793,3.6022,3.6796,-0.1177,2.1935,0.0193,-0.4796,-5.3515,-7.1713,6.2963,0.5639,-2.9154,3.3171,-3.6232
1070.3125,-0.5433,-0.1700,0.5593,2.7363,-1.4128,-2.9979,4.2564,4.6477,-1.0701,3.0754,-0.5509,-0.7634,-6.3905,-8.7611,6.2139,0.4209,-5.2003,3.0163,-5.0823
1074.2188,0.2932,-0.2878,-0.1958,2.5426,-2.2359,-2.8097,4.4414,4.8497,-1.0682,4.6823,-0.4342,-0.8706,-6.3027,-8.7127,6.9514,0.4802,-6.7510,2.9549,-5.4473
1078.1250,2.2138,-0.1048,-1.0137,2.1487,-2.2346,-2.6681,3.9847,4.3379,-0.3391,6.7133,-0.0606,-1.3906,-5.4504,-7.3254,8.1940,0.4362,-7.3517,2.6920,-5.0921
1082.0312,4.8053,0.4050,-1.7681,1.7545,-1.3192,-2.0911,2.9310,3.2559,0.5935,8.7669,0.1964,-2.3742,-4.3715,-5.4874,9.4226,0.2866,-7.2100,2.1866,-4.4475
1085.9375,7.2560,1.1860,-2.1067,1.6956,0.1576,-1.0218,1.6520,1.9140,1.3176,10.3703,0.3356,-3.1588,-3.2460,-3.9888,10.1403,0.3234,-6.6756,1.9912,-3.4423
1089.8438,8.7072,2.0904,-1.5884,2.2806,1.6965,0.0645,0.6741,0.7486,1.7995,11.0892,0.6886,-2.8315,-1.8154,-3.0877,10.0770,0.8462,-6.0099,2.8534,-1.5585
1093.7500,8.7504,2.9316,-0.0138,3.5266,2.8964,0.5236,0.3507,0.1273,2.3414,10.7674,1.6010,-0.9561,0.2119,-2.5726,9.3294,1.8737,-5.3324,5.0577,1.5562
1097.6562,7.7426,3.6108,2.3181,5.0297,3.5363,0.0956,0.6519,0.1095,3.3164,9.7662,3.1400,2.0375,2.6862,-2.1314,8.3878,3.1224,-4.6767,8.0899,5.4981
1101.5625,6.6795,4.2380,4.6750,6.1362,3.5467,-0.8045,1.2427,0.3548,4.9095,8.9631,5.0820,5.1320,4.9604,-1.6333,7.9858,4.2741,-4.0145,10.9537,9.1260
1105.4688,6.6418,5.1216,6.2892,6.3456,2.9876,-1.3201,1.7678,0.3005,7.0432,9.3727,7.1534,7.4498,6.3568,-1.0862,8.7669,5.2806,-3.2015,12.9057,11.2581
1109.3750,8.1415,6.5719,6.8234,5.6625,2.0730,-0.7541,2.0866,-0.4718,9.4826,11.5342,9.2590,8.8375,6.7749,-0.3878,10.8926,6.4104,-1.9460,13.9962,11.5166
1113.2812,10.7982,8.6160,6.5604,4.6159,1.1694,0.9163,2.2622,-1.9236,11.9709,15.0606,11.4520,9.8353,6.8791,0.8038,13.8248,7.9604,0.0681,14.9357,10.6179
1117.1875,13.5763,10.8352,6.1573,3.8942,0.6723,3.0150,2.3540,-3.5481,14.2663,18.7209,13.6632,11.0672,7.6299,2.8710,16.4814,9.8647,2.9085,16.3680,9.8287
1121.0938,15.4346,12.4988,6.1366,3.8426,0.7740,4.6607,2.2561,-4.6985,16.0890,21.0903,15.4676,12.5742,9.4811,5.8282,17.7492,11.5541,6.1656,18.1543,9.9828
1125.0000,15.9545,12.9703,6.4970,4.1970,1.2754,5.4069,1.7879,-5.0377,17.1067,21.3898,16.1795,13.6648,11.8885,9.0702,17.0828,12.2394,9.0014,19.3114,10.8339
1128.9062,15.5258,12.1451,6.7499,4.2738,1.6253,5.5456,0.9836,-4.7706,17.0625,19.9484,15.2917,13.4375,13.5784,11.5592,14.8073,11.4467,10.5381,18.7322,11.2681
1132.8125,14.9894,10.6082,6.3644,3.5006,1.2324,5.8530,0.2948,-4.4607,15.9969,17.9554,12.9439,11.5659,13.4258,12.3939,11.9096,9.4023,10.3670,16.1592,10.2284
1136.7188,15.0134,9.3625,5.2829,1.9113,-0.1186,6.9830,0.4347,-4.5427,14.3789,16.6582,10.0119,8.7017,11.2941,11.3701,9.4393,6.9523,8.8164,12.6190,7.6298
1140.6250,15.6563,9.2639,4.0973,0.2413,-2.0289,8.9708,1.8912,-4.8878,12.9759,16.5633,7.6707,6.1366,8.1830,9.1193,7.9140,5.0475,6.7550,9.9016,4.5441
1144.5312,16.4090,10.5180,3.7202,-0.4603,-3.6147,11.2106,4.4610,-4.7692,12.4791,17.1900,6.6966,4.9516,5.5573,6.7119,7.1197,4.1598,5.0435,9.4047,2.5037
1148.4375,16.6419,12.5629,4.7670,0.5536,-3.9461,12.8933,7.2222,-3.2970,13.1042,17.5200,7.0108,5.2968,4.3666,5.0149,6.4107,4.0543,4.0270,11.1823,2.4580
1152.3438,16.0924,14.4143,7.0931,3.2919,-2.5234,13.5542,9.0606,-0.0426,14.4457,16.7794,7.8084,6.3550,4.4992,4.2608,5.2554,4.0734,3.4412,13.9110,4.1714
1156.2500,15.0275,15.2359,9.8246,7.0303,0.4987,13.3229,9.4130,4.5764,15.7063,14.9705,8.1772,7.0085,5.0605,4.1030,3.6180,3.6970,2.7890,15.8077,6.4902
1160.1562,13.9841,14.7684,11.8667,10.7081,4.4409,12.7251,8.6639,9.4240,16.1565,12.7899,7.7383,6.6843,5.2100,4.0478,1.9220,2.9456,1.8718,15.8177,8.2205
1164.0625,13.3216,13.3629,12.5299,13.4241,8.4435,12.2326,7.8533,13.2047,15.5226,11.0536,6.8280,5.7213,4.8588,3.8885,0.6731,2.3229,1.0352,14.2101,8.9151
1167.9688,12.9441,11.6546,11.8489,14.7345,11.7775,11.9242,7.8751,15.0871,14.0578,10.1029,6.1132,4.9977,4.6760,3.8177,0.0666,2.3656,0.9207,12.1951,8.9918
1171.8750,12.3959,10.1421,10.4158,14.6579,13.9725,11.4901,8.7674,15.0100,12.2947,9.6377,5.9806,5.1497,5.4372,4.1962,-0.1220,3.1709,1.9252,10.9341,9.1798
1175.7812,11.2309,8.9647,8.9097,13.5075,14.7986,10.5273,9.6564,13.5436,10.7001,9.0543,6.2118,6.0327,7.2948,5.2384,-0.3144,4.2801,3.8196,10.7443,9.8255
1179.6875,9.3570,7.9860,7.7032,11.7396,14.2522,8.8640,9.4248,11.4792,9.4892,7.9724,6.2063,6.8675,9.5982,6.8999,-0.7872,5.0127,5.8594,11.0815,10.6530
1183.5938,7.1047,7.0580,6.8112,9.8894,12.6225,6.6731,7.6026,9.4619,8.6900,6.5231,5.5598,6.9455,11.4144,9.0224,-1.4828,4.9919,7.3168,11.2186,11.1395
1187.5000,5.0059,6.2280,6.1391,8.5185,10.5547,4.3432,4.7892,7.8639,8.3287,5.2083,4.5038,6.3007,12.2993,11.5338,-2.0878,4.4542,8.0118,10.9776,11.1215
1191.4062,3.4933,5.7290,5.7437,8.0711,8.9410,2.2629,2.2675,6.8639,8.5177,4.4979,3.8240,5.7739,12.6514,14.4502,-2.2676,4.1035,8.4041,10.8736,11.0522
1195.3125,2.7519,5.7832,5.8390,8.6564,8.5750,0.7014,1.1028,6.5523,9.3446,4.5205,4.2944,6.3758,13.3317,17.6425,-1.8533,4.6120,9.1608,11.5658,11.6513
1199.2188,2.7870,6.3887,6.5385,9.9244,9.7294,-0.1770,1.4168,6.9253,10.6705,5.0699,6.0608,8.4345,14.8619,20.6012,-0.8685,6.1304,10.5493,13.1239,13.2351
1203.1250,3.5689,7.2579,7.5893,11.2036,11.9582,-0.2705,2.3849,7.8026,12.0561,5.8579,8.4577,11.2059,16.8868,22.5037,0.5493,8.1519,12.1596,14.7832,15.3217
1207.0312,5.0634,7.9497,8.3909,11.8853,14.3212,0.4108,2.9242,8.8111,12.9445,6.7402,10.4134,13.2890,18.3855,22.6614,2.2066,9.8168,13.2022,15.4485,16.8968
1210.9375,7.1004,8.0954,8.3546,11.8145,15.9370,1.6220,2.5046,9.5290,13.0034,7.7117,11.1463,13.5699,18.4957,21.0688,3.8411,10.4355,13.1583,14.5595,17.1742
1214.8438,9.2274,7.5727,7.3516,11.3818,16.4954,2.8393,1.4430,9.7138,12.3677,8.7165,10.6463,12.0010,17.2803,18.6100,5.1175,9.8780,12.2537,12.5959,16.2451
1218.7500,10.7595,6.5349,5.8739,11.2033,16.3555,3.4338,0.4931,9.4277,11.5635,9.5087,9.6051,9.6339,15.7772,16.6664,5.7364,8.5953,11.3491,10.7725,15.0639
1222.6562,11.0886,5.3104,4.7304,11.5976,16.1476,3.0250,0.1263,8.9324,11.1372,9.7558,8.8806,7.8775,15.2318,16.3028,5.6434,7.3000,11.2976,10.1274,14.7324
1226.5625,10.0755,4.2489,4.4638,12.2581,16.1772,1.7780,0.1357,8.4263,11.2478,9.3282,8.9045,7.5227,16.0815,17.5586,5.1683,6.5399,12.2504,10.7169,15.6113
1230.4688,8.2216,3.5926,4.9235,12.4045,16.1012,0.3819,-0.1096,7.8486,11.5344,8.5124,9.4520,8.2388,17.4921,19.3478,4.9163,6.4334,13.4533,11.5609,16.9503
1234.3750,6.4395,3.4072,5.3405,11.3378,15.1523,-0.3482,-1.0075,6.9435,11.3737,7.9087,9.8891,8.8843,17.8502,20.0727,5.4083,6.6898,13.7107,11.3976,17.3435
1238.2812,5.5314,3.5774,4.8847,9.0021,12.7659,-0.0106,-2.2637,5.5580,10.3508,8.0352,9.6693,8.3731,15.8842,18.5660,6.7089,6.8529,12.1927,9.6633,15.6960
1242.1875,5.7201,3.8632,3.3077,6.1234,9.1423,1.0834,-3.0572,3.9332,8.6014,8.9341,8.7069,6.4578,11.6017,14.7562,8.3513,6.5920,9.0032,6.9379,12.0033
1246.0938,6.5665,4.0133,1.1978,3.8075,5.3021,2.0963,-2.7043,2.7184,6.7761,10.1115,7.4000,3.8861,6.3641,9.6582,9.6684,5.8786,5.1175,4.5253,7.3957
1250.0000,7.3367,3.9028,-0.3545,2.8834,2.5630,2.2387,-1.2435,2.6470,5.6553,10.8963,6.3526,1.8721,2.0615,4.7574,10.3116,4.9816,1.7702,3.5141,3.4537
1253.9062,7.5567,3.6265,-0.4449,3.4655,1.7935,1.3425,0.5911,4.0865,5.6892,10.9616,6.0384,1.3088,-0.0001,1.2374,10.5456,4.3182,-0.2452,4.0538,1.3091
1257.8125,7.3543,3.4737,1.0837,5.0241,2.9550,0.0233,2.0133,6.7876,6.7763,10.6016,6.6215,2.2820,0.2758,-0.4684,11.0538,4.2484,-0.8875,5.3766,1.1457
1261.7188,7.3466,3.7634,3.5829,6.8491,5.2207,-0.6970,2.8962,10.0151,8.3991,10.5382,7.9849,4.1696,1.9948,-0.6122,12.3780,4.9080,-0.6494,6.4841,2.3523
1265.6250,8.1584,4.6195,6.0344,8.5035,7.5383,-0.0611,3.8968,12.9509,9.9726,11.3893,9.8588,6.1618,4.0518,0.2633,14.4368,6.1494,-0.0685,6.9034,4.0860
1269.5312,9.9216,5.8317,7.6314,9.9167,9.2106,1.9068,5.8117,15.0636,11.1364,13.2007,11.9216,7.7692,5.8293,1.7037,16.5365,7.6123,0.6269,6.9090,5.7655
1273.4375,12.1025,6.9168,8.0986,11.1122,10.1188,4.3743,8.6561,16.2028,11.8108,15.3861,13.8376,8.9725,7.3386,3.4800,17.9011,8.8984,1.5141,7.0866,7.1802
1277.3438,13.7683,7.3711,7.6040,11.8950,10.5272,6.1610,11.2675,16.4264,12.0491,17.1026,15.2858,9.9945,8.8419,5.5080,18.3048,9.7660,2.7207,7.6712,8.2832
1281.2500,14.1032,6.9656,6.4468,11.8537,10.7260,6.3772,11.8817,15.7945,11.8725,17.7647,16.0326,10.9610,10.3977,7.7314,18.2746,10.2388,4.2093,8.2596,8.9896
1285.1562,12.8429,5.8910,4.8430,10.7263,10.8262,4.8533,9.3646,14.3538,11.2488,17.3215,16.0249,11.7526,11.7605,10.0996,18.6558,10.5570,5.7962,8.1475,9.2163
1289.0625,10.3836,4.6463,2.9723,8.8070,10.8220,2.1469,4.2017,12.3159,10.2093,16.1383,15.4167,12.1340,12.6774,12.6060,19.8627,10.9883,7.3433,6.9916,9.0986
1292.9688,7.5459,3.7345,1.1603,6.9697,10.7630,-0.8052,-1.5548,10.1991,8.9538,14.6416,14.4732,11.9957,13.2401,15.2613,21.4246,11.6120,8.8889,5.1994,9.0925
1296.8750,5.1680,3.3550,-0.0849,6.1679,10.7963,-3.1467,-5.4504,8.6933,7.7939,13.0372,13.3989,11.4644,13.8943,17.9491,22.2353,12.2217,10.5520,3.6778,9.7449
1300.7812,3.7517,3.2852,-0.3310,6.7253,10.9966,-4.4344,-6.1416,8.2450,6.9386,11.3016,12.2192,10.7837,15.0424,20.2782,21.3565,12.4256,12.2854,3.1152,11.2334
1304.6875,3.3018,3.0152,0.3788,7.9721,11.1463,-4.7384,-4.2105,8.6551,6.2945,9.3866,10.8158,10.0861,16.5717,21.6233,18.7660,11.8947,13.7317,3.3865,13.0469
1308.5938,3.3807,2.0438,1.3431,8.5781,10.7253,-4.5418,-1.7126,9.0560,5.4765,7.4064,9.0994,9.2781,17.7623,21.4266,15.4559,10.6021,14.3768,3.5996,14.1466
1312.5000,3.3229,0.1622,1.4951,7.4168,9.2037,-4.5168,-0.7875,8.3892,4.0787,5.6289,7.1849,8.1554,17.7317,19.5995,12.7893,8.8939,13.9334,2.7888,13.5875
1316.4062,2.5308,-2.4207,0.0691,4.3599,6.4581,-5.2485,-2.3020,6.1124,2.0318,4.2960,5.4188,6.6509,16.1135,16.7135,11.6027,7.3341,12.6536,0.7266,11.1930
1320.3125,0.7587,-5.1471,-2.7996,0.4148,2.9745,-6.9672,-5.4258,2.6364,-0.2259,3.4565,4.2195,4.9903,13.4268,13.7682,11.7367,6.4137,11.2713,-1.8025,7.7664
1324.2188,-1.7260,-7.3183,-6.0068,-2.9165,-0.3638,-9.3796,-8.3380,-0.8524,-1.9362,2.9668,3.8281,3.5932,10.7964,11.6227,12.3206,6.2959,10.5509,-3.5190,4.6291
1328.1250,-4.2081,-8.3441,-8.0703,-4.6024,-2.7876,-11.7104,-9.4760,-3.0963,-2.4816,2.6394,4.1394,2.7735,9.1834,10.4589,12.5275,6.7446,10.7402,-3.5941,2.7688
1332.0312,-5.8382,-7.9549,-8.0252,-4.6721,-4.0818,-13.0041,-8.4349,-3.5143,-1.8193,2.3748,4.7252,2.4717,8.6942,9.6669,12.1552,7.2674,11.3406,-2.3122,2.1966
1335.9375,-6.0733,-6.3138,-6.0222,-4.0228,-4.6150,-12.5897,-5.9825,-2.4703,-0.5750,2.1433,5.0367,2.2519,8.5047,8.2759,11.5750,7.3806,11.3998,-0.9282,1.9914
1339.8438,-5.0025,-3.9845,-3.2017,-3.6186,-4.9322,-10.4712,-3.3339,-0.8898,0.3041,1.8536,4.6678,1.6026,7.4945,5.6622,11.1585,6.8521,10.1534,-0.7939,1.0259
1343.7500,-3.3378,-1.7334,-0.9198,-3.7035,-5.2233,-7.3918,-1.3137,0.4676,0.1409,1.2881,3.5485,0.3468,5.1492,2.0590,10.7543,5.8048,7.5782,-2.3637,-1.1207
1347.6562,-2.0290,-0.2096,0.1447,-3.6136,-5.0932,-4.4920,0.0062,1.5342,-1.0123,0.2419,1.9908,-1.1320,2.0741,-1.4855,9.7429,4.6520,4.4737,-4.7898,-3.7093
1351.5625,-1.7146,0.3638,0.3856,-2.3042,-3.8299,-2.7332,1.0607,2.8841,-2.3510,-1.2028,0.5890,-2.0259,-0.2644,-3.6811,7.6762,3.9109,2.0148,-6.3942,-5.1836
1355.4688,-2.3477,0.3092,0.9054,0.8258,-0.9900,-2.4278,2.2623,5.1781,-2.7699,-2.5213,0.0108,-1.5380,-0.4116,-3.7222,4.9501,3.9778,1.0811,-5.7007,-4.1090
1359.3750,-3.2487,0.3107,2.6615,5.4179,3.1315,-3.1580,3.6465,8.5416,-1.5246,-2.9314,0.7374,0.6454,2.1740,-1.7092,2.8557,4.9518,1.7970,-2.3457,-0.1065
1363.2812,-3.5598,0.9876,5.7237,10.2901,7.5016,-4.1167,4.9063,12.3362,1.2910,-1.8840,2.8249,4.1277,6.7724,1.4717,2.8223,6.5705,3.5463,2.6963,5.8083
1367.1875,-2.8110,2.4645,9.1492,14.0781,10.8420,-4.6299,5.6783,15.4695,4.7346,0.4603,5.7857,7.9460,11.7980,4.6775,5.3423,8.2846,5.3934,7.6591,11.6872
1371.0938,-1.2319,4.2204,11.5392,15.9079,12.2913,-4.5175,5.7884,16.9969,7.4760,3.1486,8.6854,10.9909,15.6397,7.0807,9.3942,9.4572,6.5999,10.9077,15.6239
1375.0000,0.3787,5.3505,11.8822,15.6823,11.8154,-4.0865,5.2806,16.5976,8.4563,4.8812,10.4735,12.4675,17.4051,8.4479,12.8699,9.6126,6.9199,11.6722,16.6665
1378.9062,1.1224,5.1026,10.1243,13.9041,10.1352,-3.8154,4.2920,14.6484,7.3762,4.7318,10.4312,12.1710,17.1642,9.0339,13.7810,8.6308,6.5592,10.2311,15.1748
1382.8125,0.4987,3.3514,7.1316,11.2843,8.2679,-3.9884,2.9562,11.9334,4.7613,2.6718,8.5150,10.4782,15.6610,9.2562,11.4352,6.7912,5.9138,7.5620,12.4822
1386.7188,-1.3627,0.6925,4.1277,8.4524,7.0023,-4.5368,1.4307,9.2446,1.6079,-0.4541,5.3866,8.1066,13.7804,9.4123,6.7862,4.6432,5.3101,4.7688,10.1148
1390.6250,-3.8309,-1.9142,2.0157,5.8861,6.6075,-5.1601,-0.0343,7.1208,-1.1532,-3.4632,2.0865,5.7857,12.1314,9.5975,1.7597,2.7706,4.9029,2.6233,9.0260
1394.5312,-6.1318,-3.7181,1.0011,3.9450,6.8749,-5.5924,-1.1365,5.7895,-3.0633,-5.5004,-0.4757,3.9898,10.9300,9.7973,-1.9242,1.5713,4.7313,1.3942,9.2368
1398.4375,-7.7081,-4.5877,0.6762,2.8292,7.3695,-5.7994,-1.7107,5.2163,-4.2158,-6.3981,-1.9211,2.8238,10.1268,10.0099,-3.6172,1.1527,4.8266,0.9239,10.0051
1402.3438,-8.4126,-4.9998,0.4075,2.4338,7.6843,-5.9804,-1.9239,5.1498,-5.0279,-6.5622,-2.4706,2.0749,9.5857,10.2715,-3.7969,1.3650,5.2542,0.8110,10.3564
1406.2500,-8.5044,-5.6481,-0.2876,2.2567,7.5619,-6.4118,-2.2698,5.1571,-5.9024,-6.5696,-2.6838,1.3749,9.1670,10.5753,-3.4414,1.9098,6.0528,0.5782,9.6386
1410.1562,-8.5068,-6.9714,-1.5985,1.5446,6.8812,-7.2747,-3.2982,4.7285,-7.0104,-6.8247,-3.0777,0.3835,8.7020,10.7762,-3.3045,2.4457,7.1242,-0.2114,7.7974
1414.0625,-8.9950,-8.9241,-3.5097,-0.3208,5.5990,-8.5795,-5.2407,3.4934,-8.3025,-7.4857,-3.8870,-1.0887,7.9519,10.5901,-3.6145,2.6531,8.1669,-1.8679,5.2612
1417.9688,-10.3547,-11.1084,-5.9491,-3.4227,3.7262,-10.1952,-7.8092,1.4519,-9.6773,-8.5930,-5.0799,-3.0539,6.6439,9.7179,-4.2726,2.2831,8.7293,-4.4996,2.5633
1421.8750,-12.5636,-13.1063,-8.8196,-7.1896,1.3551,-11.9106,-10.3278,-0.9495,-11.1285,-10.1688,-6.5404,-5.3962,4.5954,8.0262,-5.2092,1.2278,8.3874,-7.9549,-0.0248
1425.7812,-15.0918,-14.7236,-11.8916,-10.6709,-1.3052,-13.4608,-12.1024,-3.0076,-12.7284,-12.1417,-8.2103,-7.9289,1.8512,5.6666,-6.5005,-0.3968,6.9765,-11.8136,-2.6025
1429.6875,-17.0356,-15.9677,-14.6893,-13.0413,-3.9394,-14.5325,-12.7577,-4.1349,-14.4595,-14.1880,-10.0602,-10.4094,-1.2639,3.0425,-8.1596,-2.2216,4.7509,-15.4514,-5.4359
1433.5938,-17.5030,-16.8223,-16.5440,-13.9996,-6.2060,-14.8117,-12.3213,-4.1799,-16.0471,-15.7182,-11.9337,-12.5160,-4.2304,0.6211,-9.8728,-3.7207,2.3492,-18.1825,-8.6066
1437.5000,-16.0999,-17.0636,-16.8630,-13.8193,-7.8672,-14.1084,-11.0604,-3.4829,-16.9686,-16.1386,-13.4447,-13.8510,-6.5301,-1.3186,-11.0206,-4.4291,0.5295,-19.4574,-11.7899
1441.4062,-13.2305,-16.3182,-15.4822,-13.0705,-8.9137,-12.5002,-9.2743,-2.6392,-16.6872,-15.2458,-14.0694,-14.0360,-7.8629,-2.8578,-11.0495,-4.1721,-0.2246,-19.0622,-14.3489
1445.3125,-9.9747,-14.3543,-12.8625,-12.2557,-9.6123,-10.3777,-7.2357,-2.1504,-14.9783,-13.4338,-13.4119,-12.8963,-8.2732,-4.4127,-9.9059,-3.1593,-0.0055,-17.2356,-15.6993
1449.2188,-7.5450,-11.3788,-9.9569,-11.6112,-10.4166,-8.3108,-5.2792,-2.2040,-12.1205,-11.4857,-11.4602,-10.6306,-8.1102,-6.4880,-8.1408,-1.8665,0.5248,-14.6218,-15.6887
1453.1250,-6.6152,-8.0828,-7.7730,-11.1445,-11.7372,-6.7835,-3.8503,-2.6932,-8.7987,-10.0489,-8.6369,-7.8288,-7.8247,-9.3131,-6.5492,-0.7721,0.5079,-12.0331,-14.7088
1457.0312,-6.9445,-5.3544,-6.8678,-10.7809,-13.6566,-5.9597,-3.3472,-3.3925,-5.7656,-9.1792,-5.5990,-5.2678,-7.6989,-12.5635,-5.6077,-0.1216,-0.5588,-10.1024,-13.4444
1460.9375,-7.5573,-3.8313,-7.0787,-10.4447,-15.7505,-5.6411,-3.8078,-4.1051,-3.4801,-8.3324,-2.9234,-3.5691,-7.6611,-15.3550,-5.1606,0.1260,-2.4379,-9.0066,-12.4343
1464.8438,-7.3864,-3.5937,-7.6692,-10.0275,-17.1667,-5.4557,-4.7180,-4.6730,-1.9660,-6.8519,-0.8994,-2.9189,-7.3168,-16.5743,-4.6214,0.1531,-4.2228,-8.4394,-11.7618
1468.7500,-5.9713,-4.1980,-7.8113,-9.3462,-16.9892,-5.1484,-5.2020,-4.9021,-0.9691,-4.5964,0.4523,-3.0367,-6.2071,-15.4060,-3.5307,0.0712,-4.8668,-7.8816,-11.0994
1472.6562,-3.7604,-5.0113,-7.1079,-8.2144,-14.7261,-4.7647,-4.5725,-4.5444,-0.2750,-2.2135,1.1909,-3.4205,-4.1574,-11.7796,-2.0234,-0.1809,-3.8544,-7.0135,-10.0580
1476.5625,-1.8290,-5.5978,-5.8215,-6.6169,-10.6367,-4.5945,-2.8776,-3.4162,0.0673,-0.8123,1.2833,-3.7030,-1.4890,-6.4705,-0.8238,-0.7521,-1.5669,-5.9885,-8.5571
1480.4688,-1.2117,-5.8951,-4.6575,-4.8274,-5.6690,-4.9168,-0.9937,-1.5707,-0.2119,-1.2462,0.5990,-3.8657,1.0719,-0.7803,-0.7695,-1.6895,0.9193,-5.3494,-6.9141
1484.3750,-2.2919,-6.0953,-4.2412,-3.3045,-1.0084,-5.7337,-0.0983,0.6452,-1.3316,-3.5252,-0.9292,-4.1587,2.7677,4.0279,-2.2316,-2.8169,2.4840,-5.6124,-5.5805
1488.2812,-4.6204,-6.3674,-4.6399,-2.3804,2.5023,-6.6938,-0.8346,2.7464,-3.1835,-6.7855,-3.1239,-4.7974,3.2447,7.2188,-4.8625,-3.7957,2.6312,-6.8007,-4.7395
1492.1875,-7.2299,-6.6590,-5.2617,-1.9680,4.7086,-7.2693,-2.7681,4.3881,-5.2794,-9.8265,-5.5294,-5.6821,2.7604,8.7350,-7.8223,-4.3290,1.7300,-8.2837,-4.1017
1496.0938,-9.1893,-6.7254,-5.2213,-1.5576,6.0410,-7.0703,-4.5807,5.5492,-6.9813,-11.8060,-7.5764,-6.3781,2.0102,8.9778,-10.2658,-4.3447,0.6904,-9.0890,-3.0882
1500.0000,-10.0328,-6.3444,-3.9418,-0.5750,7.0559,-6.0875,-4.9238,6.4569,-7.8610,-12.5987,-8.8474,-6.3979,1.6697,8.4217,-11.7135,-4.0107,0.3289,-8.5162,-1.2851
1503.9062,-9.8433,-5.5334,-1.5966,1.1242,7.9559,-4.7045,-3.3533,7.2977,-7.9364,-12.6184,-9.2718,-5.5856,1.9528,7.3435,-12.0910,-3.5759,0.8733,-6.6377,1.1706
1507.8125,-9.0372,-4.5972,0.9185,3.0052,8.4292,-3.4833,-0.6725,7.9516,-7.6296,-12.3284,-9.1334,-4.3076,2.4789,5.8151,-11.5308,-3.1770,1.9163,-4.3219,3.5735
1511.7188,-8.0762,-3.9749,2.4805,4.0868,7.9022,-2.8708,1.5739,7.9891,-7.4925,-11.8833,-8.9009,-3.2825,2.5371,3.8871,-10.2058,-2.7792,2.7767,-2.7306,5.0324
1515.6250,-7.3103,-4.0033,2.3943,3.5444,5.9987,-3.0105,2.1068,6.9664,-7.8997,-11.1765,-8.9914,-3.1465,1.5625,1.7516,-8.3611,-2.2972,2.9532,-2.6132,4.9934
1519.5312,-6.9867,-4.7571,0.7905,1.2791,2.8653,-3.7513,0.7113,4.8101,-8.8994,-10.1913,-9.5912,-4.0481,-0.4920,-0.2763,-6.4540,-1.7774,2.3458,-3.8686,3.5469
1523.4375,-7.3081,-6.0475,-1.4743,-1.9525,-0.8553,-4.8048,-1.7102,1.9933,-10.2710,-9.2761,-10.5992,-5.5538,-3.1205,-1.9374,-5.1546,-1.4576,1.1602,-5.6577,1.3360
1527.3438,-8.4010,-7.5386,-3.3327,-4.9485,-4.3475,-5.9145,-3.8185,-0.6478,-11.6819,-9.0355,-11.6834,-6.9238,-5.5576,-3.1943,-5.0679,-1.6179,-0.3289,-6.9680,-0.8368
1531.2500,-10.1774,-8.8732,-4.0928,-6.7354,-6.9913,-6.9213,-4.7217,-2.3418,-12.8040,-9.8711,-12.4058,-7.5563,-7.1844,-4.2216,-6.3156,-2.3234,-1.9178,-7.2260,-2.4162
1535.1562,-12.2097,-9.7372,-3.7390,-7.0565,-8.5439,-7.7116,-4.4364,-2.7671,-13.3361,-11.5381,-12.3739,-7.2973,-7.7895,-5.2208,-8.3140,-3.2737,-3.4337,-6.5494,-3.2694
1539.0625,-13.7731,-9.8759,-2.8049,-6.3854,-9.0895,-8.1335,-3.6676,-2.1562,-13.0001,-13.1145,-11.3799,-6.4263,-7.5663,-6.2240,-9.9954,-3.9154,-4.6435,-5.5174,-3.5906
1542.9688,-14.1042,-9.1242,-1.9640,-5.5215,-8.8934,-7.9870,-3.1670,-1.1008,-11.6085,-13.4798,-9.4914,-5.3808,-6.9131,-7.0719,-10.3913,-3.7754,-5.2926,-4.6841,-3.6789
1546.8750,-12.7644,-7.4886,-1.6393,-5.0933,-8.3138,-7.1266,-3.2063,-0.2354,-9.2128,-12.0035,-7.0504,-4.4540,-6.2076,-7.5940,-9.2022,-2.7897,-5.3007,-4.2188,-3.7749
1550.7812,-9.9013,-5.2364,-1.8626,-5.2944,-7.7910,-5.6125,-3.5356,-0.0109,-6.2240,-8.9706,-4.5679,-3.6903,-5.6825,-7.8269,-6.9537,-1.3826,-4.9317,-3.9151,-4.0192
1554.6875,-6.2475,-2.9024,-2.4099,-5.9534,-7.7990,-3.7908,-3.7742,-0.6334,-3.3637,-5.4493,-2.5542,-3.0134,-5.4152,-8.0489,-4.6379,-0.2270,-4.7157,-3.5086,-4.4759
1558.5938,-2.8487,-1.1559,-3.0516,-6.7824,-8.6621,-2.2195,-3.8437,-2.0929,-1.4120,-2.7058,-1.3675,-2.4348,-5.3683,-8.5492,-3.1116,0.1560,-5.0904,-3.0108,-5.1300
1562.5000,-0.6631,-0.5654,-3.7242,-7.5777,-10.2994,-1.4593,-4.0688,-4.1760,-0.8772,-1.5706,-1.1558,-2.1373,-5.4221,-9.2932,-2.6833,-0.3167,-6.0056,-2.7833,-5.8559
1566.4062,-0.2349,-1.3840,-4.5340,-8.2590,-12.1118,-1.8425,-4.8881,-6.4564,-1.7994,-2.1574,-1.9011,-2.3580,-5.4066,-9.7691,-3.1472,-1.3057,-6.8340,-3.3006,-6.4335
1570.3125,-1.5808,-3.4754,-5.6460,-8.8106,-13.1929,-3.3565,-6.4496,-8.3587,-3.8140,-4.0421,-3.4987,-3.1783,-5.1659,-9.2014,-4.1555,-2.3317,-6.7358,-4.8016,-6.6711
1574.2188,-4.2972,-6.4165,-7.1683,-9.2514,-12.8163,-5.6989,-8.4440,-9.3729,-6.4193,-6.6798,-5.7933,-4.4165,-4.6522,-7.0382,-5.5709,-3.1050,-5.2589,-7.1028,-6.5792
1578.1250,-7.7865,-9.6994,-9.0984,-9.6719,-10.8994,-8.4543,-10.3076,-9.3406,-9.2429,-9.7111,-8.5460,-5.7326,-3.9857,-3.3862,-7.4971,-3.6700,-2.7304,-9.7079,-6.4449
1582.0312,-11.4651,-12.9089,-11.3241,-10.2564,-8.0967,-11.2672,-11.6102,-8.6071,-12.1194,-12.9586,-11.3936,-6.8703,-3.4077,0.9303,-9.9845,-4.2867,-0.1124,-12.1179,-6.6930
1585.9375,-14.8679,-15.7868,-13.6366,-11.1889,-5.4128,-13.9083,-12.3086,-7.8619,-14.9566,-16.2006,-13.8883,-7.8379,-3.1287,4.7644,-12.6973,-5.1673,1.6090,-14.1033,-7.5859
1589.8438,-17.6499,-18.1906,-15.7494,-12.4607,-3.5783,-16.2269,-12.6826,-7.7145,-17.5493,-18.9849,-15.6438,-8.8646,-3.1723,7.2483,-14.8701,-6.2749,2.0610,-15.7500,-8.9732
1593.7500,-19.5533,-20.0223,-17.3566,-13.7355,-2.6291,-18.0730,-13.0476,-8.2800,-19.5364,-20.6953,-16.5108,-10.1533,-3.3421,8.2148,-15.6464,-7.3205,1.6773,-17.2726,-10.3013
1597.6562,-20.4110,-21.2024,-18.2436,-14.4372,-1.9924,-19.2884,-13.5078,-9.0929,-20.5679,-20.8628,-16.6491,-11.6184,-3.3531,8.1745,-14.5847,-7.9379,1.3132,-18.7542,-10.9112
1601.5625,-20.2111,-21.7027,-18.3948,-14.0619,-1.0034,-19.7926,-13.9449,-9.4440,-20.5542,-19.5024,-16.4218,-12.8316,-3.0338,7.9009,-11.9764,-7.8971,1.5952,-20.0051,-10.4252
1605.4688,-19.1692,-21.5863,-17.9967,-12.5156,0.5449,-19.6834,-14.2024,-8.9075,-19.7794,-17.2213,-16.1644,-13.2430,-2.4388,7.9253,-8.7504,-7.2176,2.5129,-20.6288,-8.9396
1609.3750,-17.7232,-20.9975,-17.2887,-10.2168,2.2337,-19.2362,-14.2552,-7.6640,-18.7598,-14.9909,-15.9894,-12.5389,-1.7793,8.2672,-6.0219,-6.1351,3.5413,-20.2371,-6.8915
1613.2812,-16.3971,-20.0950,-16.3462,-7.8666,3.3328,-18.7563,-14.1904,-6.3676,-17.9324,-13.6943,-15.7645,-10.8826,-1.2386,8.5217,-4.5660,-4.9755,4.1438,-18.6748,-4.7273
1617.1875,-15.5688,-18.9822,-14.9859,-6.0469,3.3207,-18.3695,-14.0307,-5.6637,-17.4050,-13.6984,-15.2738,-8.8617,-0.8463,8.1709,-4.5068,-4.0237,4.2022,-16.1370,-2.6636
1621.0938,-15.2692,-17.7009,-12.9314,-4.9536,2.1859,-17.9197,-13.6086,-5.7439,-16.9556,-14.6801,-14.4299,-7.1710,-0.5383,6.8692,-5.3496,-3.4378,4.0137,-13.1393,-0.7397
1625.0000,-15.1532,-16.3050,-10.1782,-4.4631,0.2941,-17.0914,-12.6730,-6.2924,-16.2759,-15.7910,-13.3675,-6.2482,-0.3606,4.5391,-6.2740,-3.2185,3.8864,-10.3704,0.9020
1628.9062,-14.6966,-14.9504,-7.2855,-4.4466,-2.0187,-15.7066,-11.1895,-6.8508,-15.2572,-16.0717,-12.3529,-6.1034,-0.6160,1.2966,-6.5092,-3.2217,3.7242,-8.4817,1.7987
1632.8125,-13.5229,-13.9095,-5.2953,-5.0286,-4.7373,-13.9826,-9.5798,-7.2766,-14.0895,-14.9088,-11.5922,-6.4333,-1.7703,-2.6537,-5.6285,-3.2174,3.0061,-7.8688,1.2773
1636.7188,-11.6581,-13.4608,-5.2097,-6.5220,-8.0690,-12.5240,-8.6316,-7.8847,-13.1014,-12.3191,-11.0993,-6.9049,-4.1202,-7.0433,-3.6797,-2.9955,1.2148,-8.5105,-1.1080
1640.6250,-9.5375,-13.7057,-7.3054,-9.0569,-12.0354,-11.9907,-9.0510,-9.1319,-12.4832,-8.9298,-10.7232,-7.3813,-7.4480,-11.4966,-1.1326,-2.4829,-1.6337,-9.9401,-5.1142
1644.5312,-7.7449,-14.4422,-10.7658,-12.2142,-16.1306,-12.6384,-10.9351,-11.1059,-12.1303,-5.6679,-10.2913,-7.9266,-10.9498,-15.5173,1.3364,-1.7999,-4.8264,-11.4022,-9.7031
1648.4375,-6.6589,-15.2096,-13.9744,-15.0238,-19.3946,-14.0634,-13.5668,-13.2721,-11.7427,-3.3173,-9.7321,-8.6089,-13.5564,-18.5786,3.1534,-1.1934,-7.3322,-12.1678,-13.4435
1652.3438,-6.2550,-15.5150,-15.3774,-16.4272,-20.9145,-15.3842,-15.7407,-14.7406,-11.0992,-2.1777,-9.0762,-9.2880,-14.4750,-20.2810,4.1154,-0.8686,-8.4573,-11.8726,-15.2073
1656.2500,-6.2101,-15.1215,-14.4043,-15.9262,-20.4024,-15.7889,-16.4562,-14.8856,-10.2818,-2.0154,-8.3624,-9.5869,-13.6007,-20.4677,4.4596,-0.8343,-8.2675,-10.6939,-14.7210
1660.1562,-6.2289,-14.2143,-11.8308,-13.9497,-18.3996,-15.0972,-15.5240,-13.8320,-9.6633,-2.3281,-7.5753,-9.1096,-11.5259,-19.2185,4.6526,-0.8979,-7.4562,-9.2446,-12.6280
1664.0625,-6.3351,-13.3259,-9.3127,-11.6421,-15.9327,-13.9280,-13.6670,-12.3977,-9.6637,-2.7507,-6.7120,-7.7698,-9.1541,-16.7541,5.0034,-0.8482,-6.7778,-8.2291,-10.0604
1667.9688,-6.8809,-13.0461,-8.3732,-10.1894,-13.8627,-13.3210,-12.0413,-11.5032,-10.4670,-3.3226,-5.9321,-5.9901,-7.2062,-13.3619,5.3600,-0.6988,-6.5142,-8.0660,-8.0380
1671.8750,-8.2419,-13.6897,-9.5094,-10.1413,-12.4052,-14.0398,-11.5050,-11.4958,-11.9122,-4.4152,-5.6297,-4.5975,-5.9531,-9.4179,5.1477,-0.7829,-6.3884,-8.7122,-7.0799
1675.7812,-10.4208,-15.1246,-11.9997,-11.1892,-11.1585,-16.0381,-12.1332,-11.9210,-13.6253,-6.3556,-6.2834,-4.4290,-5.3083,-5.4586,3.7892,-1.5644,-5.9515,-9.7903,-7.1940
1679.6875,-12.8827,-16.8618,-14.4999,-12.5178,-9.5796,-18.4711,-13.2890,-11.9317,-15.2607,-9.0156,-8.1190,-5.8627,-5.1194,-2.1617,1.2472,-3.2485,-5.0681,-10.9038,-8.1125
1683.5938,-14.7950,-18.3376,-15.9634,-13.4244,-7.5056,-20.2606,-14.1545,-11.0116,-16.6469,-11.6927,-10.8064,-8.5489,-5.3613,-0.1385,-1.7193,-5.4679,-4.0611,-11.8927,-9.5009
1687.5000,-15.5434,-19.1990,-16.2234,-13.7273,-5.3105,-20.8171,-14.3062,-9.4283,-17.7306,-13.4274,-13.4512,-11.5123,-6.0571,0.3967,-3.8497,-7.3241,-3.3897,-12.8314,-10.9851
1691.4062,-15.1641,-19.4100,-15.8578,-13.6848,-3.5950,-20.4021,-13.9200,-8.0392,-18.4062,-13.5839,-14.9693,-13.5821,-7.0245,-0.1422,-4.1110,-7.8408,-3.1610,-13.7814,-12.0732
1695.3125,-14.3609,-19.1377,-15.5175,-13.5519,-2.6875,-19.8679,-13.4914,-7.5904,-18.4234,-12.3029,-14.6586,-13.9250,-7.7334,-0.8037,-2.4021,-6.5778,-2.9327,-14.5208,-12.1794
1699.2188,-14.0576,-18.5331,-15.2915,-13.1944,-2.3711,-19.9643,-13.3341,-8.0713,-17.4996,-10.4855,-12.6131,-12.4034,-7.4876,-0.5445,0.2684,-3.9957,-2.0257,-14.5140,-10.8588
1703.1250,-14.7668,-17.5887,-14.6233,-12.1157,-2.0588,-20.7212,-13.2735,-8.6596,-15.5738,-9.2720,-9.7017,-9.5925,-5.8714,1.1891,2.3097,-1.2843,-0.1194,-13.2118,-8.1329
1707.0312,-16.2052,-16.1828,-12.8355,-9.8976,-1.2703,-21.3651,-12.7813,-8.3328,-12.9846,-9.3328,-7.1051,-6.4745,-3.1440,4.0996,2.4825,0.2794,2.3640,-10.5004,-4.6319
1710.9375,-17.4228,-14.2594,-9.8242,-6.6966,-0.0305,-20.8386,-11.4359,-6.6838,-10.3843,-10.4361,-5.6904,-3.9905,-0.2469,7.1397,0.6456,0.0553,4.4331,-6.9592,-1.3729
1714.8438,-17.3683,-11.9804,-6.3401,-3.3600,1.1204,-18.5537,-9.3269,-4.2995,-8.3928,-11.5840,-5.5953,-2.6745,1.6525,9.0393,-2.1709,-1.6168,5.1641,-3.6765,0.7433
1718.7500,-15.5213,-9.7040,-3.5941,-1.0061,1.5048,-14.8404,-7.0577,-2.3825,-7.2161,-11.6359,-6.2440,-2.5190,1.8154,8.9510,-4.4114,-3.6714,4.3275,-1.6724,1.3942
1722.6562,-12.1942,-7.7872,-2.4577,-0.3321,0.7806,-10.7790,-5.3185,-1.8857,-6.5119,-10.0182,-6.7399,-3.0891,0.3516,6.8379,-4.9373,-4.9895,2.5280,-1.2809,0.9392
1726.5625,-8.3402,-6.3639,-2.8594,-1.1469,-0.8424,-7.5436,-4.3552,-2.8163,-5.6331,-7.0768,-6.3743,-3.7869,-1.8777,3.4047,-3.6701,-5.0490,0.7589,-1.9217,0.0939
1730.4688,-5.0312,-5.2866,-3.8486,-2.4906,-2.7810,-5.7274,-3.7675,-4.2518,-4.1080,-3.8732,-4.9678,-4.1275,-3.8077,-0.3365,-1.5596,-4.1501,-0.2816,-2.4623,-0.5846
1734.3750,-2.9520,-4.2981,-4.2962,-3.2835,-4.4927,-5.1068,-2.8392,-5.0648,-2.0317,-1.5869,-2.9066,-3.9159,-4.7940,-3.5660,0.0512,-3.1167,-0.5967,-1.9734,-1.0303
1738.2812,-2.1946,-3.3076,-3.7157,-3.0590,-5.8056,-4.9641,-1.1833,-4.8042,-0.0845,-0.9057,-0.9172,-3.2763,-4.9026,-5.9290,0.2272,-2.7197,-0.7469,-0.3827,-1.5995
1742.1875,-2.4045,-2.5376,-2.5878,-2.2590,-6.9359,-4.6886,0.7913,-4.0454,0.8649,-1.7496,0.2780,-2.5474,-4.7059,-7.4763,-1.0807,-3.2110,-1.3128,1.4368,-2.6804
1746.0938,-3.1056,-2.3893,-1.9390,-1.8721,-8.2062,-4.1984,2.0058,-3.9191,0.3279,-3.4319,0.2740,-2.0983,-4.7722,-8.3950,-3.1189,-4.2390,-2.4087,2.2441,-4.2941
1750.0000,-3.9651,-3.0901,-2.4862,-2.6611,-9.6978,-3.8933,1.4238,-5.1578,-1.4374,-5.0935,-0.8382,-2.1429,-5.2288,-8.7668,-4.8532,-5.1353,-3.6075,1.3133,-5.9849
1753.9062,-4.8601,-4.3892,-3.9960,-4.5253,-11.0983,-4.2132,-1.1141,-7.3851,-3.5142,-6.1312,-2.4898,-2.6317,-5.7031,-8.5207,-5.5765,-5.3416,-4.2957,-0.9816,-7.0721
1757.8125,-5.7719,-5.5696,-5.3610,-6.4628,-11.8529,-5.1638,-4.5504,-9.2194,-4.8378,-6.4021,-3.8687,-3.2814,-5.6586,-7.5860,-5.2545,-4.7078,-4.1529,-3.3166,-7.0764
1761.7188,-6.6361,-5.8351,-5.3662,-7.1862,-11.5110,-6.1760,-7.0862,-9.1697,-4.8229,-6.1569,-4.3098,-3.7412,-4.8686,-6.0925,-4.4616,-3.5300,-3.3950,-4.2526,-6.0279
1765.6250,-7.2714,-4.8399,-3.6037,-5.9894,-10.0294,-6.4099,-7.2278,-6.7042,-3.7195,-5.8009,-3.6754,-3.8178,-3.6804,-4.4417,-3.9973,-2.3695,-2.6376,-3.2181,-4.4643
1769.5312,-7.4264,-2.9846,-0.8616,-3.2721,-7.8262,-5.2864,-4.7284,-2.7179,-2.4679,-5.6391,-2.4971,-3.6294,-2.8750,-3.1620,-4.4251,-1.7914,-2.5211,-0.9626,-3.1385
1773.4375,-6.9068,-1.2301,1.3257,-0.3461,-5.5413,-2.8852,-0.7726,0.9735,-2.1261,-5.7287,-1.7315,-3.5758,-3.1973,-2.6228,-5.7775,-2.1456,-3.3662,0.8693,-2.6236
1777.3438,-5.7077,-0.5142,1.6814,1.3722,-3.6486,0.0526,2.7544,2.7973,-3.2072,-5.8913,-2.2054,-4.1131,-4.8495,-2.7862,-7.5680,-3.4452,-5.0449,0.8028,-3.0332
1781.2500,-4.0814,-1.1504,0.0552,1.2550,-2.1646,2.5074,4.4372,2.4533,-5.3318,-5.8594,-4.0629,-5.4521,-7.2739,-3.1765,-9.0859,-5.3560,-7.0692,-1.4650,-3.9875
1785.1562,-2.4929,-2.6243,-2.4510,-0.1578,-0.6560,3.7061,4.1544,1.0895,-7.4178,-5.4746,-6.5927,-7.3709,-9.3823,-3.1227,-9.8112,-7.3020,-8.7916,-4.8155,-4.8258
1789.0625,-1.4538,-3.9367,-4.2023,-1.5604,1.4253,3.4891,3.0041,0.4902,-8.3097,-4.8244,-8.6046,-9.2807,-10.1297,-2.1591,-9.7172,-8.6770,-9.6234,-7.4058,-4.9555
1792.9688,-1.2820,-4.2560,-4.1074,-1.7976,4.2640,2.3453,2.4167,1.8206,-7.4731,-4.2215,-9.1534,-10.5241,-9.1147,-0.3490,-9.2806,-9.1019,-9.2383,-7.8582,-4.1794
1796.8750,-1.8981,-3.4191,-2.3167,-0.6707,7.3731,1.1394,3.1119,4.7890,-5.3214,-4.0142,-8.1337,-10.7222,-6.8495,1.6888,-9.1762,-8.6047,-7.7302,-6.1300,-2.8357
1800.7812,-2.7933,-1.9393,-0.0677,0.9330,9.7086,0.7024,4.6528,7.8045,-2.9558,-4.3285,-6.3206,-9.9445,-4.5092,3.1080,-9.8281,-7.5990,-5.6370,-3.4641,-1.6517
1804.6875,-3.2406,-0.5408,1.2077,1.6931,10.2149,1.4805,5.8909,9.0301,-1.4635,-4.9166,-4.8028,-8.5886,-3.2672,3.3467,-11.0948,-6.6360,-3.7363,-1.4582,-1.3418
1808.5938,-2.6743,0.4092,0.8919,0.8423,8.5066,3.3760,5.9289,7.6183,-1.2146,-5.2451,-4.1986,-7.0648,-3.5893,2.5061,-12.3102,-6.0605,-2.6375,-0.9192,-2.1448
1812.5000,-1.0283,1.1359,-0.3965,-1.2160,5.2360,5.8184,4.8488,4.2939,-1.6210,-4.8052,-4.2247,-5.5238,-4.9238,1.3233,-12.6761,-5.7969,-2.3901,-1.3234,-3.5841
1816.4062,1.1952,2.1944,-1.2536,-3.1237,1.8386,8.0242,3.6485,0.8949,-1.5360,-3.4554,-3.9419,-3.8326,-6.0221,0.7094,-11.7684,-5.4231,-2.4137,-1.2696,-4.6576
1820.3125,3.2027,3.9341,-0.4947,-3.4988,-0.2641,9.3416,3.4526,-0.8067,-0.0495,-1.5557,-2.5081,-1.8101,-5.7383,1.1210,-9.8258,-4.5017,-1.8928,0.4134,-4.4130
1824.2188,4.3729,6.1316,1.9946,-1.9336,-0.5306,9.5427,4.6224,-0.2013,2.8476,0.2245,0.1230,0.4737,-3.8229,2.1825,-7.6254,-2.9383,-0.4296,3.7263,-2.5807
1828.1250,4.6000,8.0952,5.1540,0.6608,0.3515,8.9255,6.4660,1.8695,6.1918,1.3101,3.0878,2.5984,-1.1782,2.8477,-6.0286,-1.1046,1.5181,7.4281,0.1605
1832.0312,4.2791,9.1686,7.4605,2.6397,0.9135,8.1554,7.7723,3.7849,8.6390,1.5540,5.1835,4.0028,0.6452,2.0409,-5.5049,0.3738,2.8193,9.8956,2.5177
1835.9375,3.9470,9.2356,7.9511,2.7460,-0.1136,7.9064,7.7433,4.2653,9.3290,1.2592,5.7066,4.3689,0.4347,-0.6185,-5.9417,1.0191,2.4446,10.2755,3.3448
1839.8438,3.8541,8.8118,6.8330,0.9677,-2.9468,8.4820,6.5879,3.1455,8.4265,0.8758,4.9301,3.8824,-1.8500,-4.4962,-6.8366,0.8010,0.3192,9.0653,2.3369
1843.7500,3.8007,8.6317,5.2581,-1.4944,-6.6331,9.6411,5.3120,1.2901,6.9561,0.6151,3.8624,3.1443,-4.9738,-8.2609,-7.6936,0.1187,-2.4114,7.6805,0.1734
1847.6562,3.3707,9.0384,4.4349,-3.1342,-9.7603,10.7494,4.8812,-0.2175,6.0449,0.2942,3.4660,2.7600,-7.1689,-10.6499,-8.3217,-0.5095,-4.0019,7.3294,-2.0027
1851.5625,2.3787,9.6571,4.7290,-3.2586,-11.4770,11.1829,5.4344,-0.9547,6.1103,-0.4512,3.9227,2.8932,-7.2634,-11.1779,-8.8458,-0.8100,-3.2621,8.0460,-3.4016
1855.4688,1.1589,9.6303,5.4075,-2.4855,-12.0563,10.7380,6.1849,-1.4334,6.5811,-1.7518,4.4927,3.1137,-5.4481,-10.3276,-9.4819,-0.8996,-0.4437,8.6259,-4.1025
1859.3750,0.4309,8.2615,5.2109,-2.2417,-12.5631,9.7808,6.0923,-2.5723,6.3524,-3.2381,4.0652,2.6723,-3.1562,-9.1183,-10.3037,-1.1298,2.8100,7.5326,-4.8891
1863.2812,0.7991,5.5920,3.3333,-3.6310,-13.8693,9.0232,4.7633,-4.8099,4.6373,-4.1853,1.9814,1.0186,-2.1305,-8.3817,-11.2046,-1.7825,4.4757,4.1052,-6.5368
1867.1875,2.2476,2.4661,0.0864,-6.5198,-15.7787,9.0612,2.8477,-7.5749,1.5863,-4.0150,-1.4802,-1.8013,-3.3042,-8.2575,-12.0610,-2.8732,3.4396,-0.8394,-9.1044
1871.0938,4.0260,0.0180,-3.2453,-9.5374,-16.9775,9.9711,1.5968,-9.5634,-1.7852,-2.7978,-5.2971,-5.1426,-6.2412,-8.2325,-12.9204,-4.2051,0.1704,-5.4745,-11.7849
1875.0000,5.0546,-1.0534,-5.2560,-10.9982,-15.9086,11.2383,1.9219,-9.6357,-4.3004,-1.3529,-8.3980,-8.1405,-9.4803,-7.6390,-14.0111,-5.5898,-3.6763,-8.1636,-13.4378
1878.9062,4.5987,-0.8919,-5.3502,-10.0647,-11.9517,12.0745,3.6990,-7.6522,-5.4197,-0.8057,-10.3200,-10.1809,-11.4970,-6.1987,-15.5327,-7.0059,-6.3971,-8.5117,-13.3950
1882.8125,2.7561,-0.2834,-4.0714,-7.2852,-6.0221,11.9274,5.8760,-4.5942,-5.5316,-1.8587,-11.3448,-11.1326,-11.5950,-4.2053,-17.3875,-8.5289,-7.2783,-7.4999,-11.9173
1886.7188,0.4262,-0.0077,-2.5972,-4.1274,-0.1059,10.8547,7.2972,-1.8608,-5.5244,-4.2675,-12.0537,-11.2168,-10.1453,-2.2430,-19.0894,-10.0898,-6.8149,-6.6305,-9.9517
1890.6250,-1.2165,-0.2375,-1.7985,-1.8888,3.9635,9.5193,7.5855,-0.2721,-5.9855,-6.8990,-12.6907,-10.6832,-8.0991,-0.7049,-19.9645,-11.2989,-6.0474,-6.7481,-8.3903
1894.5312,-1.3916,-0.4332,-1.5933,-0.8323,5.6111,8.8081,7.3780,0.4480,-6.6662,-8.3671,-12.8632,-9.5941,-6.2270,0.4885,-19.5382,-11.5556,-5.6236,-7.4312,-7.4198
1898.4375,-0.1025,0.1971,-1.0961,-0.1937,5.7150,9.3144,7.7295,1.3039,-6.6496,-7.8460,-11.8328,-7.8992,-4.6785,1.7484,-17.8580,-10.4360,-5.3464,-7.4012,-6.4755
1902.3438,1.9576,2.0325,0.5480,0.9881,5.7773,11.0052,9.1764,3.0616,-5.1124,-5.5437,-9.1850,-5.7103,-3.1497,3.3809,-15.5342,-8.0966,-4.5312,-5.6187,-4.8293
1906.2500,3.8652,4.6742,3.2985,2.9148,6.7154,13.2720,11.2298,5.4584,-2.0972,-2.5473,-5.3606,-3.4974,-1.4401,5.2091,-13.4699,-5.3671,-2.8173,-2.2212,-2.3376
1910.1562,4.9692,7.1578,6.0292,4.7350,8.1833,15.3153,12.7243,7.2464,1.3189,-0.1659,-1.6207,-1.9800,0.1108,6.5585,-12.4434,-3.4006,-0.7197,1.4091,0.2570
1914.0625,5.1541,8.5849,7.2158,5.1662,8.9044,16.6137,12.7586,7.0896,3.6354,0.7922,0.5790,-1.7439,0.6948,6.6253,-12.7805,-3.0708,0.5639,3.5066,1.7278
1917.9688,4.7852,8.7076,6.0363,3.5509,7.7279,17.1881,11.4773,4.6533,3.9086,0.3656,0.4068,-2.8614,-0.4266,4.9681,-14.2743,-4.5074,-0.0332,3.0797,1.1847
1921.8750,4.4490,8.0511,3.0738,0.5086,4.5858,17.5186,10.0541,1.0404,2.4004,-0.7519,-1.8707,-4.8151,-3.3316,1.7907,-16.3545,-7.0806,-2.6371,0.5418,-1.2903
1925.7812,4.6674,7.5034,0.0697,-2.3525,0.6352,18.1939,9.8618,-1.8061,0.4240,-1.7475,-5.0610,-6.8073,-7.2477,-2.1433,-18.3894,-9.8310,-6.2481,-2.6009,-4.6510
1929.6875,5.6980,7.6919,-1.1472,-3.4769,-2.4974,19.5303,11.4563,-2.3476,-0.5165,-2.1856,-7.7368,-8.2362,-10.9063,-5.8664,-19.9618,-12.0331,-9.3207,-4.7336,-7.5135
1933.5938,7.4466,8.5953,0.1721,-2.3936,-3.7886,21.3946,14.1515,-0.4577,0.3049,-2.1635,-8.9949,-8.9932,-13.1853,-8.5883,-21.0066,-13.5060,-10.6826,-5.0719,-8.9395
1937.5000,9.4803,9.6433,3.2378,0.0172,-3.4236,23.3147,16.5060,2.5206,2.4149,-2.0886,-8.8250,-9.3760,-13.6064,-9.9063,-21.7642,-14.4939,-10.1480,-3.9421,-8.8442
1941.4062,11.1486,10.1849,6.2770,2.1992,-2.5418,24.7754,17.3436,4.6970,4.5234,-2.2953,-7.9142,-9.7152,-12.4039,-9.8144,-22.5817,-15.2702,-8.4540,-2.3155,-7.8154
1945.3125,11.8156,9.9534,7.7001,3.0212,-2.3647,25.4891,16.5339,4.8636,5.4066,-2.7902,-7.0844,-10.0313,-10.2127,-8.6044,-23.6587,-15.8114,-6.6546,-1.0344,-6.5653
1949.2188,11.1422,9.1964,7.0682,2.5016,-3.3640,25.4767,14.9698,3.1808,4.6721,-3.2837,-6.7618,-9.9996,-7.6648,-6.7541,-24.8762,-15.8006,-5.4591,-0.3141,-5.4507
1953.1250,9.2831,8.4178,5.2354,1.6768,-5.0193,24.9400,13.8096,0.9034,2.9241,-3.4464,-6.8025,-9.2387,-5.1659,-4.8149,-25.8248,-14.9363,-4.9500,0.1930,-4.3656
1957.0312,6.8528,7.9691,3.6427,1.7798,-6.2451,24.0541,13.5996,-0.5604,1.2903,-3.1755,-6.7284,-7.6718,-2.9121,-3.2636,-26.0460,-13.2711,-4.7694,0.9416,-2.9849
1960.9375,4.6391,7.8197,3.3248,3.3681,-6.0998,22.8456,13.9477,-0.5320,0.6955,-2.6753,-6.1573,-5.6589,-1.0091,-2.3275,-25.3535,-11.2851,-4.5203,2.0707,-1.0955
1964.8438,3.2062,7.6592,4.3233,6.0101,-4.2772,21.2400,13.9464,0.6980,1.3698,-2.3063,-5.1113,-3.7910,0.4711,-1.8795,-24.0138,-9.6202,-4.0487,3.3278,1.2380
1968.7500,2.6304,7.2158,5.8423,8.6674,-1.1346,19.2218,12.9610,2.3157,2.8475,-2.3283,-4.0111,-2.5182,1.5263,-1.5174,-22.6283,-8.6792,-3.4590,4.3210,3.7231
1972.6562,2.5346,6.5142,6.9225,10.4065,2.6187,16.9597,11.1427,3.6530,4.3511,-2.7345,-3.3892,-1.9134,2.2457,-0.8365,-21.7607,-8.4028,-2.9578,4.8241,5.9795
1976.5625,2.3892,5.8624,7.0860,10.9028,6.2682,14.7855,9.2906,4.5409,5.2425,-3.2910,-3.5375,-1.7459,2.7239,0.2612,-21.5589,-8.3940,-2.7139,4.8761,7.6287
1980.4688,1.8715,5.5918,6.5122,10.4488,9.2618,13.0334,8.2199,5.1612,5.2723,-3.7371,-4.3246,-1.7698,2.9090,1.4497,-21.6573,-8.2782,-2.8246,4.6474,8.3279
1984.3750,1.0483,5.7743,5.7229,9.5918,11.2191,11.8663,8.1663,5.6562,4.5708,-3.9739,-5.2833,-1.9534,2.5540,2.1757,-21.4559,-8.0026,-3.3269,4.2603,7.8439
1988.2812,0.2966,6.1539,5.1205,8.7574,11.9281,11.2261,8.6848,5.9161,3.5050,-4.0829,-5.8830,-2.4343,1.3946,2.0626,-20.5763,-7.8293,-4.1582,3.7601,6.2234
1992.1875,0.0599,6.3555,4.7689,8.1275,11.4195,10.9462,9.0783,5.7334,2.5429,-4.1521,-5.7964,-3.2411,-0.5211,1.2386,-19.1351,-8.0315,-5.0673,3.2495,3.9558
1996.0938,0.6278,6.2070,4.5337,7.7519,10.0423,10.9281,8.9716,5.1325,2.1577,-4.0616,-4.9991,-4.0480,-2.6128,0.3305,-17.6024,-8.5488,-5.5979,3.0079,1.9338
2000.0000,2.0524,5.9162,4.3762,7.6788,8.3955,11.2266,8.5693,4.5025,2.7177,-3.4376,-3.6791,-4.2269,-3.9108,0.0943,-16.3485,-8.9009,-5.2516,3.4094,1.1065
2003.9062,4.1786,5.9521,4.4819,7.9329,7.0702,11.9611,8.4242,4.3487,4.3261,-1.8751,-2.0635,-3.2263,-3.5684,0.9181,-15.2665,-8.4613,-3.7873,4.6448,1.9626
2007.8125,6.6928,6.7038,5.0919,8.3802,6.3418,13.1220,8.9456,4.8494,6.6854,0.6890,-0.3090,-1.0158,-1.4469,2.5344,-13.8287,-6.9099,-1.4587,6.4617,4.1733
2011.7188,9.1470,8.1630,6.1954,8.6725,6.0343,14.4443,10.0611,5.6236,9.1288,3.7342,1.4744,1.7516,1.6411,4.1366,-11.5883,-4.5325,1.0155,8.1762,6.6748
2015.6250,11.0125,9.8666,7.3848,8.4036,5.6758,15.4880,11.2827,5.9652,10.8832,6.2866,3.1216,4.0261,4.2549,4.8174,-8.7350,-2.1356,2.7706,9.0110,8.1933
2019.5312,11.8432,11.1518,8.0443,7.3928,4.8354,15.9000,12.0822,5.3988,11.4564,7.4208,4.3562,4.9251,5.0594,4.0382,-6.2014,-0.6192,3.2090,8.5501,7.8962
2023.4375,11.5211,11.5549,7.7502,5.8557,3.3902,15.6740,12.2469,4.1079,10.9040,6.8412,4.8653,4.1984,3.5216,1.8495,-5.1309,-0.4912,2.2331,6.9801,5.7625
2027.3438,10.4183,11.0838,6.5698,4.2833,1.5301,15.1937,11.9395,2.8502,9.7729,5.1355,4.4726,2.2831,0.1399,-1.2234,-6.0383,-1.6373,0.1700,4.9361,2.4642
2031.2500,9.2869,10.1823,5.0112,3.0932,-0.4718,14.9883,11.4581,2.3844,8.7320,3.4747,3.2809,-0.0523,-3.9070,-4.4884,-8.3032,-3.4651,-2.5025,3.0677,-1.0969
2035.1562,8.8554,9.4164,3.6569,2.3303,-2.5000,15.3488,10.9409,2.8469,8.1354,2.9059,1.6620,-2.1846,-7.4204,-7.3618,-10.4483,-5.2813,-5.3824,1.6543,-4.2360
2039.0625,9.3580,9.1024,2.7671,1.6752,-4.6243,16.0793,10.2762,3.5897,7.8280,3.6980,0.0838,-3.8840,-9.7096,-9.4727,-11.0760,-6.6251,-8.1572,0.5524,-6.6240
2042.9688,10.3412,9.1270,2.1644,0.7713,-6.8852,16.5799,9.2766,3.6446,7.3412,5.1979,-1.1096,-5.1935,-10.6974,-10.6197,-9.8071,-7.3578,-10.4654,-0.5114,-8.1201
2046.8750,10.9424,9.0725,1.4765,-0.3962,-9.0349,16.2324,7.9405,2.4741,6.3343,6.3203,-1.8055,-6.1124,-10.6492,-10.7046,-7.5115,-7.5200,-11.8176,-1.5664,-8.5559
2050.7812,10.5000,8.5534,0.5246,-1.3989,-10.4911,14.8306,6.5514,0.4274,4.9522,6.3438,-2.0472,-6.3988,-9.8229,-9.7320,-5.6284,-7.1373,-11.7413,-2.2656,-7.7341
2054.6875,9.0780,7.5258,-0.4764,-1.6550,-10.6057,12.7579,5.5163,-1.4693,3.8172,5.4517,-1.8549,-5.6877,-8.3313,-7.8629,-5.0654,-6.1573,-10.0906,-2.1174,-5.6693
2058.5938,7.5109,6.3598,-1.0755,-0.8998,-9.0924,10.7840,5.0724,-2.2436,3.6459,4.6272,-1.1103,-3.8339,-6.2694,-5.4367,-5.5031,-4.5540,-7.2709,-0.9004,-2.8305
2062.5000,6.9025,5.6267,-0.9727,0.5436,-6.3069,9.6161,5.1046,-1.6749,4.7599,4.9702,0.3747,-1.1777,-3.9147,-2.9015,-5.6427,-2.4751,-4.1463,1.0754,-0.0942
2066.4062,7.9123,5.7459,-0.3074,1.9300,-3.1535,9.5081,5.2265,-0.4265,6.8460,6.9185,2.6421,1.5254,-1.7517,-0.6730,-4.2249,-0.2686,-1.6258,3.0890,1.6647
2070.3125,10.3247,6.7269,0.4087,2.5973,-0.6400,10.1773,5.0662,0.4874,9.1417,9.9206,5.3982,3.5056,-0.2457,0.9958,-1.0586,1.6615,-0.1853,4.4458,2.0976
2074.2188,13.1859,8.1727,0.6852,2.4374,0.6542,11.0527,4.5414,0.4910,10.9115,12.7698,8.0280,4.4360,0.4688,2.0682,2.7088,3.0643,0.3485,4.9203,1.6337
2078.1250,15.3842,9.5316,0.4704,1.9796,0.8746,11.6524,3.9213,-0.1070,11.8719,14.3376,9.8473,4.6077,0.7181,2.6950,5.2837,3.9465,0.6042,4.8841,1.2340
2082.0312,16.2467,10.4179,0.2467,2.0163,0.7772,11.8219,3.6392,-0.3430,12.2668,14.1818,10.4449,4.6863,1.0991,3.1451,5.3800,4.4852,1.2103,5.0260,1.7797
2085.9375,15.7646,10.7857,0.6974,3.0409,1.2786,11.6944,3.9960,0.6728,12.5612,12.6537,9.8879,5.2249,2.0817,3.7261,3.0268,4.8293,2.4067,5.8625,3.5040
2089.8438,14.3868,10.8509,2.1660,4.8960,2.9287,11.4545,4.9543,3.0674,13.0064,10.5274,8.6578,6.2846,3.6877,4.6928,-0.4797,4.9695,3.9759,7.3774,5.8529
2093.7500,12.6448,10.8416,4.3050,6.8591,5.5874,11.1178,6.1431,6.0437,13.4219,8.5187,7.3746,7.4305,5.4799,6.1350,-3.3558,4.7995,5.4951,9.0273,7.8538
2097.6562,10.9401,10.7784,6.1919,8.0762,8.4609,10.5008,7.0434,8.3398,13.3638,7.0619,6.5073,8.0848,6.8626,7.8817,-4.2462,4.3253,6.6776,10.0900,8.7170
2101.5625,9.5984,10.4604,6.8588,8.0266,10.4645,9.3900,7.2286,8.9684,12.5530,6.4208,6.2541,7.9642,7.4658,9.5019,-2.6986,3.8305,7.5409,10.1070,8.2520
2105.4688,9.0092,9.6719,5.8865,6.7276,10.7298,7.7638,6.5331,7.7393,11.2223,6.8896,6.6193,7.2803,7.3351,10.4594,0.9512,3.8200,8.3053,9.1371,6.8487
2109.3750,9.5873,8.4476,3.6674,4.6101,9.0190,5.8911,5.0903,5.2716,10.0903,8.7772,7.5590,6.5770,6.8074,10.3768,5.9970,4.7323,9.1466,7.6844,5.1041
2113.2812,11.4949,7.1754,1.1702,2.2286,5.8504,4.2325,3.2625,2.5734,9.9413,12.1188,9.0367,6.3487,6.2024,9.2518,11.6844,6.6083,10.0186,6.3868,3.4128
2117.1875,14.3525,6.4216,-0.6184,0.0336,2.2711,3.2144,1.5142,0.5225,11.0853,16.3752,10.9418,6.7294,5.5846,7.4663,17.2850,8.9761,10.6756,5.6814,1.8197
2121.0938,17.2537,6.5714,-1.2034,-1.6814,-0.6265,3.0200,0.2789,-0.4390,13.0813,20.4693,12.9765,7.4655,4.7825,5.5544,22.0768,11.0717,10.8532,5.6417,0.1919
2125.0000,19.1847,7.5253,-0.7358,-2.7207,-2.2103,3.5071,-0.1510,-0.3045,14.9362,23.2589,14.6659,8.1523,3.6281,3.8810,25.4537,12.2737,10.4537,6.0370,-1.4841
2128.9062,19.5879,8.6800,0.2243,-2.9516,-2.5767,4.2688,0.3050,0.6677,15.6668,24.1558,15.5432,8.5288,2.2036,2.4617,27.1799,12.4603,9.6038,6.5263,-2.9571
2132.8125,18.6439,9.2337,1.1109,-2.3645,-2.4320,4.7790,1.4919,2.1116,14.8589,23.4267,15.3998,8.6016,0.8755,1.0629,27.5526,12.0364,8.5690,6.8387,-3.8405
2136.7188,17.0345,8.6362,1.6267,-1.1642,-2.6464,4.5582,3.0444,3.6176,12.8634,21.9199,14.4104,8.5352,0.0724,-0.5003,27.2378,11.6135,7.6087,6.8464,-3.9078
2140.6250,15.3733,6.8980,1.7473,0.2358,-3.7299,3.3237,4.4545,4.7728,10.5225,20.4160,13.0233,8.4335,-0.0210,-2.1123,26.8186,11.5737,6.8692,6.5355,-3.3026
2144.5312,13.7771,4.5728,1.5483,1.3804,-5.5255,1.1070,5.1830,5.2706,8.6409,19.1178,11.6911,8.2221,0.3997,-3.3605,26.4011,11.8347,6.3623,5.9525,-2.4745
2148.4375,11.9476,2.4428,1.0741,2.0310,-7.2824,-1.6952,4.8154,5.0864,7.5753,17.6876,10.6455,7.7371,0.9243,-3.7964,25.6351,11.9781,6.0100,5.1989,-1.8608
2152.3438,9.6888,1.1274,0.3877,2.3432,-8.0456,-4.3908,3.2460,4.5930,7.2004,15.7864,9.8779,6.9486,1.2914,-3.2393,24.1728,11.6283,5.7194,4.4809,-1.5286
2156.2500,7.3801,0.8561,-0.2616,2.8272,-7.1242,-6.2116,0.8239,4.4667,7.2131,13.6247,9.3121,6.1175,1.6711,-1.8732,22.1719,10.7828,5.4563,4.1444,-1.0399
2160.1562,5.9190,1.4968,-0.3644,4.0797,-4.3921,-6.6250,-1.6516,5.3608,7.4893,12.0003,8.9886,5.7275,2.6200,-0.0678,20.3525,9.8322,5.2905,4.6091,0.3382
2164.0625,6.0844,2.7431,0.6640,6.4299,-0.3114,-5.5954,-3.1739,7.5036,8.1897,11.7220,9.0742,6.2013,4.6902,1.9041,19.4703,9.2552,5.3760,6.1769,3.1777
2167.9688,7.8026,4.2795,3.0886,9.6955,4.2666,-3.6354,-2.9789,10.4698,9.5347,12.8657,9.6750,7.5887,7.9378,3.9875,19.6027,9.2258,5.8462,8.7968,7.4580
2171.8750,9.9670,5.8182,6.5212,13.1926,8.3872,-1.5868,-0.9943,13.3032,11.4537,14.5130,10.6254,9.4529,11.6890,6.1915,19.8935,9.4468,6.6594,11.9452,12.4281
2175.7812,11.0778,7.0612,9.9476,16.0049,11.2606,-0.2239,2.0031,14.9647,13.4354,15.2820,11.4734,11.0629,14.7761,8.3154,19.0894,9.3550,7.5043,14.7540,16.8764
2179.6875,10.3097,7.7188,12.1959,17.3859,12.4757,0.1135,4.7075,14.8730,14.7533,14.3197,11.7353,11.7885,16.1445,9.8508,16.5452,8.5589,7.8831,16.3850,19.6834
2183.5938,8.2067,7.6566,12.6056,17.1005,12.1386,-0.3395,5.9817,13.2346,14.9393,12.0062,11.2524,11.4546,15.4622,10.2318,12.9088,7.1843,7.3880,16.4708,20.3641
2187.5000,6.4184,7.0768,11.4650,15.5368,10.8719,-0.9263,5.5367,10.9643,14.1527,9.7870,10.3692,10.4322,13.3328,9.2920,9.8610,5.8623,6.0236,15.3556,19.2962
2191.4062,6.5878,6.5439,9.8878,13.5264,9.6023,-0.9211,4.1377,9.2247,13.1391,9.1954,9.7590,9.4126,10.9558,7.5599,8.9969,5.3502,4.3352,13.9474,17.4970
2195.3125,9.1639,6.7375,9.1615,11.9519,9.1473,0.1086,3.1399,8.8281,12.7664,10.7615,9.9932,9.0135,9.4410,6.0899,10.6517,6.0439,3.1898,13.2218,16.0715
2199.2188,13.0020,8.0263,9.9622,11.3353,9.7794,2.0971,3.6069,9.8286,13.4486,13.6090,11.1549,9.4632,9.2158,5.8698,13.5826,7.7165,3.2978,13.6550,15.6399
2203.1250,16.0537,10.1457,11.9473,11.6215,11.0458,4.5037,5.5852,11.5303,14.8695,16.0306,12.7797,10.5413,9.8978,7.1975,15.7935,9.6535,4.7772,14.9401,16.0717
2207.0312,16.6550,12.2438,13.9910,12.2734,12.0231,6.5311,8.0452,12.9101,16.2057,16.6000,14.1606,11.7747,10.6816,9.4832,15.8996,11.0716,7.0735,16.1792,16.6584
2210.9375,14.4998,13.3295,14.8997,12.6203,11.9068,7.4422,9.5555,13.2115,16.6862,15.0015,14.7814,12.7272,10.9344,11.6378,13.9965,11.5257,9.3067,16.4358,16.5873
2214.8438,10.6636,12.8581,14.1209,12.2446,10.5641,6.8655,9.2376,12.3621,16.0781,12.0223,14.5606,13.1859,10.5679,12.7736,11.3825,11.0442,10.8007,15.2892,15.4013
2218.7500,6.7634,11.0646,11.9862,11.1746,8.6464,4.9843,7.3366,10.9674,14.7580,8.8292,13.7577,13.1524,9.9428,12.7090,9.4065,9.9585,11.4107,13.0320,13.1700
2222.6562,3.9499,8.8126,9.3772,9.7845,7.1446,2.5229,5.0140,9.8926,13.3548,6.1792,12.6728,12.7073,9.4355,11.9398,8.4051,8.6141,11.4262,10.4105,10.3260
2226.5625,2.4548,7.0645,7.1173,8.5104,6.6849,0.4978,3.5342,9.7065,12.2767,4.1812,11.4271,11.9001,9.0572,11.1571,7.6023,7.2068,11.1757,8.1308,7.3604
2230.4688,1.8925,6.3458,5.5570,7.6117,7.0899,-0.1999,3.4506,10.3550,11.5060,2.6863,10.0094,10.7710,8.4654,10.7373,6.0200,5.8418,10.7022,6.5074,4.6472
2234.3750,1.9006,6.5656,4.6253,7.1470,7.5549,0.7877,4.3753,11.2756,10.7991,1.8229,8.5162,9.4724,7.3750,10.5992,3.5814,4.7006,9.8049,5.4874,2.5073
2238.2812,2.5042,7.2716,4.2175,7.1352,7.3240,3.1068,5.4460,11.8570,10.0795,2.0931,7.3150,8.3435,6.0152,10.4779,1.4103,4.0989,8.3958,4.9625,1.3709
2242.1875,3.9235,8.0877,4.5124,7.7003,6.3363,5.8744,6.0669,11.8963,9.6417,3.8872,6.9144,7.8120,5.1950,10.2935,0.9985,4.3200,6.8111,5.0416,1.7772
2246.0938,6.0919,8.9622,5.8867,9.0094,5.3108,8.1461,6.3137,11.7048,9.9479,6.8579,7.5870,8.1345,5.8225,10.2312,2.8948,5.3248,5.7162,5.9981,4.0772
2250.0000,8.4141,10.0407,8.4614,11.0136,5.1638,9.4045,6.7026,11.7804,11.1639,9.7978,9.0470,9.1536,8.1748,10.4467,6.0285,6.5954,5.5961,7.9108,8.0091
2253.9062,10.0538,11.3159,11.6820,13.2301,6.2021,9.7648,7.5707,12.3098,12.8426,11.2751,10.4951,10.2826,11.4809,10.7016,8.3140,7.3072,6.2367,10.3233,12.5218
2257.8125,10.5276,12.4049,14.3688,14.8337,7.7564,9.7674,8.6445,12.9153,14.0826,10.6161,11.0785,10.8000,14.2205,10.3477,8.1423,6.7916,6.6977,12.2917,16.1290
2261.7188,10.0682,12.7041,15.3345,15.1071,8.6030,9.9049,9.2051,12.8925,14.1139,8.4543,10.4697,10.3017,15.0306,8.7966,5.6071,5.0002,5.9330,12.8986,17.6965
2265.6250,9.3971,11.8359,14.1829,13.9699,7.9012,10.2230,8.7308,11.7903,12.8859,6.3377,9.1268,9.0102,13.6285,6.1436,2.4686,2.6323,3.6591,11.9060,17.1729
2269.5312,9.0690,10.0219,11.6833,12.1581,5.9239,10.2860,7.4558,9.8819,11.1726,5.6175,8.0015,7.6950,11.0731,3.3855,0.8401,0.7851,0.7825,10.0313,15.7042
2273.4375,8.9572,8.0327,9.3605,10.8186,3.9693,9.5304,6.3104,8.1084,10.0521,6.4464,7.8670,7.2070,9.1135,1.9232,1.5998,0.3172,-1.0502,8.5535,14.9431
2277.3438,8.3587,6.6896,8.5068,10.7245,3.4543,7.7445,6.2118,7.4653,10.1071,7.6724,8.7433,7.9080,9.0243,2.6082,3.7661,1.3283,-0.5573,8.4546,15.9398
2281.2500,6.6737,6.2671,9.2870,11.6599,4.8404,5.3086,7.2457,8.2506,10.9443,7.7420,9.8478,9.3776,10.7266,5.0269,5.3146,3.1039,2.1962,9.6887,18.3636
2285.1562,4.0867,6.2652,10.5982,12.4769,7.2150,3.0086,8.4364,9.7567,11.4270,5.9272,10.1285,10.6176,12.8276,7.6281,4.7812,4.5646,5.7057,11.1378,20.6391
2289.0625,1.6232,5.7608,10.8311,11.8674,8.8870,1.5514,8.3806,10.6946,10.4853,2.9231,9.0018,10.6461,13.5758,8.7008,2.3788,4.9256,7.9709,11.3362,20.9650
2292.9688,0.4491,4.1035,9.0224,9.3398,8.5888,1.1343,6.3251,10.0935,7.9171,0.3411,6.7641,9.1039,12.0736,7.5476,-0.2352,4.1306,7.8377,9.4773,18.5426
2296.8750,0.9277,1.4365,5.5767,5.6828,6.4016,1.3730,2.8666,8.0305,4.5794,-0.5092,4.3795,6.4802,8.8953,4.9938,-1.3203,2.7925,5.7687,5.9846,14.1605
2300.7812,2.2109,-1.3617,2.0275,2.5227,3.7081,1.6249,-0.3158,5.6270,1.8130,0.3960,2.8045,3.8117,5.6806,2.8249,-0.4298,1.7137,3.4676,2.2304,9.7093
2304.6875,2.7615,-3.2809,-0.0076,1.2429,2.1998,1.4508,-1.5641,4.2813,0.5227,1.8117,2.3421,2.0592,4.0016,2.5312,1.2893,1.3388,2.6287,-0.3926,6.9556
2308.5938,1.4769,-3.8760,0.0704,2.0269,2.6665,0.8792,-0.3881,4.6802,0.5918,2.2148,2.4851,1.5674,4.3134,4.2657,2.0750,1.5155,3.7386,-1.3726,6.4256
2312.5000,-1.4257,-3.5313,1.4700,3.7323,4.4584,0.3082,2.2028,6.3231,1.0529,0.9860,2.3390,1.9356,5.7180,6.7731,0.9840,1.6939,5.8056,-1.3107,7.1655
2316.4062,-4.4538,-3.1029,2.6251,4.7071,5.9958,0.1648,4.4455,7.9189,0.8623,-1.1375,1.2941,2.3435,6.6700,8.3278,-1.3823,1.3819,7.1817,-1.3539,7.5090
2320.3125,-5.8223,-3.2358,2.3366,3.9637,5.9291,0.6049,5.0919,8.3634,-0.3309,-2.6750,-0.5478,2.0796,6.0824,7.9748,-3.4136,0.5038,6.8184,-2.2964,6.2711
2324.2188,-4.6699,-3.8965,0.6038,1.8554,4.0849,1.4644,4.2461,7.5577,-1.9991,-2.5853,-2.4813,0.9209,4.0344,6.1549,-3.8139,-0.5882,4.9934,-4.0366,3.5192
2328.1250,-1.6421,-4.4823,-1.4455,-0.2330,1.5256,2.4404,3.1441,6.4429,-3.2469,-1.0956,-3.7316,-0.8434,1.6133,4.2837,-2.6281,-1.4266,2.9888,-5.7688,0.4211
2332.0312,1.5482,-4.4015,-2.4459,-0.9345,-0.2751,3.2986,3.0676,6.2217,-3.5839,0.4471,-4.0045,-2.6952,0.0682,3.6433,-1.1690,-1.8033,2.0278,-6.7063,-1.6433
2335.9375,3.2186,-3.6425,-1.8317,0.0995,-0.4996,3.9177,4.2476,7.3598,-3.3366,0.5597,-3.6652,-4.2377,-0.0700,4.4419,-0.9572,-1.9154,2.3312,-6.7314,-2.0145
2339.8438,2.6750,-2.8656,-0.2634,1.9800,0.4820,4.1721,5.6237,9.1377,-3.3809,-1.3211,-3.4490,-5.3786,0.7234,5.7330,-2.5640,-2.1830,3.0193,-6.4628,-1.0763
2343.7500,0.4164,-2.9338,0.8461,3.2728,1.4588,3.8287,5.6567,10.1096,-4.4237,-4.4850,-3.9492,-6.2664,1.4220,6.2055,-5.2701,-2.8943,2.8928,-6.7179,0.1811
2347.6562,-2.4150,-4.2506,0.3394,3.0543,1.2986,2.6343,3.5752,9.1422,-6.4113,-7.4992,-5.2530,-7.0818,1.2495,5.2066,-7.7403,-3.9589,1.4355,-7.8266,0.9458
2351.5625,-4.8122,-6.4183,-1.8714,1.5411,-0.2430,0.5805,0.0925,6.2712,-8.5297,-9.1855,-6.9510,-7.8553,0.2223,3.2190,-9.0857,-4.9537,-0.7572,-9.3517,1.1070
2355.4688,-6.3273,-8.4749,-4.7317,-0.1358,-2.3740,-1.8750,-2.9731,2.7480,-9.7828,-9.2888,-8.4518,-8.4263,-0.9255,1.4707,-9.4213,-5.4155,-2.4371,-10.4178,1.1812
2359.3750,-6.9590,-9.5151,-6.7142,-0.7810,-3.8149,-3.8822,-3.9155,0.2535,-9.6803,-8.4144,-9.3330,-8.5374,-1.3120,1.0230,-9.5169,-5.1490,-2.6494,-10.3555,1.7991
2363.2812,-6.7879,-9.2175,-6.7280,0.0635,-3.6107,-4.6078,-2.3085,-0.1487,-8.5042,-7.4030,-9.4807,-7.9773,-0.5100,2.0481,-9.9279,-4.3201,-1.4089,-9.1356,3.2133
2367.1875,-5.7867,-7.9097,-4.6659,1.9391,-1.6533,-3.7407,0.7191,1.4138,-6.9760,-6.6982,-8.9748,-6.6834,1.2452,3.8107,-10.4113,-3.2808,0.4004,-7.2681,5.1949
2371.0938,-3.9667,-6.1828,-1.3070,3.9599,1.3690,-1.7243,3.2783,3.8683,-5.6318,-6.1687,-7.8823,-4.7663,3.3294,5.3073,-10.1384,-2.2800,1.7791,-5.2979,7.3227
2375.0000,-1.6420,-4.4199,2.2430,5.5075,4.4586,0.4881,3.9862,6.0031,-4.4249,-5.4154,-6.1629,-2.4647,5.2123,6.0278,-8.4939,-1.2909,2.3954,-3.3508,9.3469
2378.9062,0.5430,-2.6206,5.1304,6.5596,6.8500,2.0150,2.7951,7.2014,-2.8672,-4.2083,-3.7650,-0.0599,6.7691,6.2642,-5.7337,-0.0804,2.7907,-1.1152,11.2990
2382.8125,1.9481,-0.6179,7.0065,7.4433,8.2682,2.5656,0.8403,7.6007,-0.5636,-2.6662,-0.8063,2.2230,8.2220,6.7781,-2.8979,1.5521,3.8813,1.7456,13.2820
2386.7188,2.3863,1.5678,7.9159,8.2965,8.8268,2.5299,-0.5020,7.6615,2.3257,-1.0801,2.3467,4.2880,9.8175,8.1298,-1.0285,3.5661,6.1761,5.1244,15.1699
2390.6250,2.2837,3.5919,8.0440,8.7505,8.7352,2.5898,-0.6094,7.5807,5.0861,0.3853,5.1955,6.1694,11.5237,10.1936,-0.3512,5.6650,9.3127,8.3664,16.5161
2394.5312,2.3656,5.0027,7.5635,8.1315,8.0651,3.1589,0.0516,7.0571,6.9181,1.8037,7.3478,7.9361,12.9726,12.1971,-0.1244,7.4711,12.2333,10.6364,16.7737
2398.4375,3.0901,5.6111,6.6491,6.0299,6.7303,4.0759,0.4234,5.5899,7.4915,3.3176,8.6963,9.5387,13.6658,13.2163,0.7008,8.7397,13.8321,11.4685,15.6541
2402.3438,4.2875,5.6595,5.5484,2.7744,4.6638,4.7688,-0.2545,3.0429,7.1446,4.8720,9.3988,10.7107,13.2743,12.7495,2.5513,9.4414,13.5962,11.0576,13.3380
2406.2500,5.3073,5.6137,4.5714,-0.5802,2.0521,4.7359,-1.8483,-0.0011,6.5834,6.1318,9.6864,11.0410,11.8357,10.9975,4.8103,9.6715,11.8352,10.0742,10.3854
2410.1562,5.5527,5.7461,3.9805,-2.7626,-0.5425,3.9518,-3.4284,-2.4013,6.3447,6.6825,9.6680,10.2300,9.7551,8.7236,6.2654,9.4948,9.4326,9.1796,7.4416
2414.0625,4.9593,5.8957,3.8891,-2.9374,-2.2821,2.8919,-3.9294,-3.0467,6.4644,6.3554,9.3025,8.3888,7.6477,6.8506,6.0730,8.8874,7.3632,8.6460,4.9801
2417.9688,4.0295,5.6578,4.2750,-1.0740,-2.3783,2.1845,-2.8554,-1.4788,6.6013,5.3967,8.5665,6.1506,6.1231,6.0609,4.4630,7.8371,6.2879,8.3703,3.2470
2421.8750,3.4211,4.8796,5.0916,2.1491,-0.5134,2.1962,-0.5445,1.8494,6.4801,4.3440,7.6665,4.4468,5.5903,6.5770,2.6217,6.5070,6.3830,8.2114,2.3670
2425.7812,3.4626,4.0328,6.3491,5.7520,2.8621,2.8765,2.1190,5.8047,6.2492,3.7190,7.0867,4.0250,6.1295,8.1483,1.8535,5.2915,7.3713,8.2965,2.4330
2429.6875,4.0046,4.0751,8.0549,8.8628,6.5774,3.9431,4.2623,9.1134,6.4341,3.7854,7.3746,5.0071,7.4639,10.1775,2.6857,4.6667,8.6628,8.9895,3.4544
2433.5938,4.6887,5.8083,10.0539,10.9300,9.2098,5.1833,5.4402,10.8848,7.5100,4.5238,8.7792,6.8072,9.0684,11.9335,4.5958,4.9166,9.5635,10.5305,5.2249
2437.5000,5.3274,9.1768,11.9417,11.7575,9.8011,6.5614,5.6882,10.8863,9.4480,5.7638,11.0006,8.5128,10.4115,12.8244,6.5137,5.9374,9.5560,12.6816,7.2915
2441.4062,5.9971,13.0681,13.2017,11.4981,8.4366,8.0294,5.2999,9.5269,11.6195,7.2823,13.2660,9.4965,11.2373,12.6697,7.6407,7.2844,8.5880,14.7343,9.1418
2445.3125,6.7509,15.8512,13.5254,10.6574,6.2960,9.2522,4.5873,7.6430,13.1629,8.7683,14.7292,9.8316,11.7157,11.8409,7.9199,8.4446,7.1934,15.9369,10.5129
2449.2188,7.2702,16.3435,13.0811,10.0142,5.0556,9.5925,3.8098,6.1947,13.5453,9.7560,14.9563,10.1938,12.3259,11.1230,7.8402,9.1374,6.2703,16.0239,11.5679
2453.1250,6.9036,14.5563,12.4778,10.3361,5.9270,8.5087,3.2397,5.9328,12.9024,9.7257,14.1726,11.2945,13.4951,11.2852,7.8323,9.4143,6.5364,15.4056,12.7482
2457.0312,5.2188,11.6978,12.3826,11.9431,8.9040,6.1307,3.1959,7.0995,11.9124,8.4406,13.0997,13.2528,15.2148,12.5594,7.8323,9.4899,7.9633,14.8382,14.3691
2460.9375,2.6732,9.4268,13.0436,14.3914,12.7133,3.5280,3.9250,9.2723,11.3211,6.3120,12.4848,15.3844,16.9235,14.3710,7.3990,9.4532,9.6114,14.8203,16.2697
2464.8438,0.7581,8.8720,14.0856,16.5854,15.5478,2.3201,5.3942,11.4852,11.4825,4.4373,12.6411,16.6036,17.7978,15.5692,6.2579,9.1198,10.0912,15.2091,17.8328
2468.7500,1.2790,10.0662,14.7740,17.3742,16.1429,3.7452,7.1944,12.6600,12.2315,4.1187,13.3094,16.1811,17.3026,15.0988,4.7611,8.1717,8.4423,15.3868,18.4165
2472.6562,5.1177,12.1141,14.5802,16.3014,14.5161,7.7630,8.6982,12.1769,13.1219,6.0660,13.9193,14.3169,15.6326,12.7229,3.8168,6.4973,4.8653,14.8549,17.8953
2476.5625,11.3413,13.8844,13.6190,13.9830,11.8914,12.8476,9.4100,10.2558,13.7829,9.8103,14.0434,12.0982,13.7034,9.3101,4.2929,4.4519,0.7704,13.7570,16.8715
2480.4688,17.4107,14.6834,12.5951,11.7770,9.8721,16.7109,9.2615,7.8663,14.0961,13.8016,13.7022,10.8420,12.6454,6.4384,6.3509,2.7947,-1.9670,12.8651,16.3365
2484.3750,20.5124,14.4699,12.2589,10.9036,9.4158,17.5630,8.6135,6.1571,14.0960,16.2271,13.2969,11.2674,13.1074,5.5098,9.2399,2.2886,-2.0948,12.9837,16.9796
2488.2812,19.2043,13.5787,12.7715,11.6048,10.2846,15.1155,7.9351,5.7406,13.7543,16.0581,13.2349,13.0648,14.8326,6.9122,11.7265,3.2208,0.2905,14.2282,18.6375
2492.1875,14.2738,12.2926,13.4870,12.9548,11.2982,10.6769,7.3975,6.3046,12.9011,13.6326,13.5476,15.1451,16.8030,9.7628,12.8507,5.1831,3.8546,15.7751,20.3131
2496.0938,8.2184,10.6567,13.3691,13.4924,11.1710,6.2969,6.7098,6.8424,11.3911,10.3814,13.8128,16.3687,17.8577,12.4014,12.4663,7.2853,6.8747,16.3517,20.7858
2500.0000,3.7078,8.6510,11.7757,12.2497,9.3458,3.5500,5.3628,6.3711,9.3702,7.8985,13.4621,16.2306,17.3706,13.3277,11.2163,8.6713,8.2365,15.1488,19.3970
2503.9062,2.0789,6.4956,9.0362,9.4483,6.2886,2.7628,3.1301,4.6544,7.3751,7.0088,12.2494,15.0430,15.5450,12.0023,10.0251,8.9895,7.9301,12.4787,16.4589
2507.8125,2.8415,4.7405,6.3644,6.3650,3.1122,3.1351,0.4483,2.4208,6.1127,7.4491,10.5193,13.5491,13.1687,9.0457,9.5135,8.5128,6.7944,9.6528,13.0058
2511.7188,4.3977,3.9962,5.1213,4.4688,0.8532,3.5534,-1.6553,0.9106,6.0306,8.2969,9.0419,12.3097,11.0507,5.7734,9.7235,7.8560,5.7975,8.1229,10.0904
2515.6250,5.3141,4.4883,5.9272,4.4589,-0.0902,3.4345,-2.1128,1.0553,6.9875,8.7342,8.5025,11.3375,9.5580,3.4203,10.2504,7.5218,5.4162,8.4892,8.1440
2519.5312,5.1746,5.8039,8.2432,5.8835,-0.0257,2.9884,-0.5113,2.8579,8.2834,8.5382,8.9973,10.2208,8.5507,2.5506,10.5742,7.6016,5.5143,10.0940,6.8497
2523.4375,4.4770,7.0634,10.7164,7.5771,0.4217,2.7884,2.5375,5.3994,9.0533,7.9780,9.9031,8.5885,7.6916,2.9647,10.3112,7.8116,5.6873,11.4950,5.5694
2527.3438,3.8344,7.4246,12.0365,8.5415,0.8194,3.0798,5.6405,7.4543,8.7538,7.3091,10.2339,6.5195,6.8315,4.0488,9.2679,7.7825,5.6982,11.4678,3.9527
2531.2500,3.2525,6.5617,11.6991,8.5953,1.2006,3.4306,7.3617,8.2738,7.4110,6.3707,9.2512,4.5694,6.1542,5.2442,7.3848,7.3471,5.6255,9.8058,2.2419
2535.1562,2.1028,4.7806,10.1638,8.3301,1.9540,3.0168,7.0008,7.9962,5.4770,4.6624,6.9151,3.4010,5.9890,6.3034,4.7246,6.6113,5.6534,7.3563,1.0543
2539.0625,-0.2351,2.7092,8.3522,8.4653,3.4630,1.3004,4.9232,7.4266,3.4389,1.8353,3.8751,3.3093,6.4748,7.2233,1.5337,5.7914,5.7525,5.3085,0.8395
2542.9688,-3.6646,0.8155,6.9060,9.1467,5.7631,-1.4666,2.2437,7.3851,1.4907,-1.8433,1.0268,3.9937,7.3678,8.0039,-1.7300,4.9909,5.5828,4.2952,1.4560
2546.8750,-7.2423,-0.8859,5.7628,9.7481,8.4379,-4.3426,0.0941,8.1064,-0.4959,-5.4832,-1.0433,4.7332,8.1496,8.4874,-4.5233,4.1155,4.7276,3.9775,2.2022
2550.7812,-9.7670,-2.7436,4.3303,9.3227,10.7898,-6.3478,-1.0360,9.1058,-2.7169,-8.0742,-2.3404,4.8203,8.3443,8.4194,-6.4656,2.9901,3.0619,3.3877,2.2728
2554.6875,-10.6127,-5.0993,2.0696,7.3365,12.1593,-7.1702,-1.4709,9.5635,-5.1329,-9.1207,-3.3068,3.9463,7.7889,7.6636,-7.5229,1.5623,0.9283,1.7295,1.2866
2558.5938,-10.1268,-7.9326,-0.9953,4.1127,12.2071,-7.3722,-1.9701,8.9101,-7.3740,-8.9089,-4.3802,2.3013,6.6568,6.3651,-7.9490,0.0130,-1.0463,-0.9868,-0.5049
2562.5000,-9.2748,-10.7762,-4.2297,0.6547,11.0250,-7.9247,-3.1094,7.1847,-8.9278,-8.1965,-5.6108,0.3757,5.2441,4.9026,-7.9975,-1.3195,-2.3613,-3.9328,-2.4562
2566.4062,-8.8271,-12.9359,-6.8119,-2.0021,9.0496,-9.4110,-4.8645,4.9419,-9.4574,-7.5750,-6.6097,-1.3536,3.7192,3.6502,-7.6331,-2.1334,-2.9559,-6.0417,-3.9968
2570.3125,-8.7466,-13.8361,-8.2695,-3.4123,6.8459,-11.4997,-6.6622,2.8298,-8.9973,-7.0112,-6.8360,-2.6319,2.0521,2.7349,-6.5044,-2.3209,-3.1817,-6.7083,-4.9577
2574.2188,-8.2554,-13.2623,-8.7063,-3.8675,4.8780,-13.0885,-7.8077,1.1866,-7.8814,-5.9199,-5.9840,-3.4305,0.1738,1.9854,-4.2388,-1.9777,-3.4670,-6.0884,-5.5242
2578.1250,-6.5035,-11.3818,-8.5668,-4.0044,3.3701,-13.0217,-7.9428,-0.0532,-6.4704,-3.6944,-4.1741,-3.8077,-1.7826,1.1189,-0.8383,-1.2858,-3.9521,-4.8199,-5.8985
2582.0312,-3.2892,-8.5970,-8.1588,-4.2192,2.3102,-10.8686,-7.2029,-1.1187,-4.8967,-0.2623,-1.8272,-3.7633,-3.3885,0.0187,3.1602,-0.3863,-4.3859,-3.4401,-5.9806
2585.9375,0.7276,-5.3648,-7.3444,-4.3544,1.5690,-7.2162,-6.0016,-2.0682,-3.0222,3.7657,0.6501,-3.1922,-4.0867,-1.1259,6.9259,0.6564,-4.3587,-1.9844,-5.3531
2589.8438,4.4536,-2.0848,-5.6611,-3.8857,1.0407,-3.2955,-4.6641,-2.6557,-0.6322,7.4459,3.1063,-1.9526,-3.5284,-1.9422,9.8168,1.7953,-3.6727,-0.0727,-3.6022
2593.7500,7.0566,0.9360,-2.7861,-2.4375,0.7044,-0.2397,-3.2270,-2.5183,2.2863,10.0558,5.6223,0.0035,-1.8489,-2.1796,11.7276,2.9321,-2.5536,2.6100,-0.7363
2597.6562,8.3881,3.4896,1.0215,-0.2103,0.5623,1.5032,-1.5608,-1.5394,5.3921,11.4277,8.2590,2.5034,0.3157,-1.9607,13.0204,3.9156,-1.5400,5.8450,2.6155
2601.5625,8.8643,5.4730,4.8611,2.0113,0.5110,2.2348,0.3157,-0.0978,8.0760,11.8520,10.7943,5.0852,2.0955,-1.7722,14.0910,4.6075,-1.1450,8.8090,5.3886
2605.4688,8.9947,6.8823,7.5904,3.2775,0.2697,2.5904,2.0334,1.0147,9.7337,11.7105,12.6857,7.0387,2.7775,-2.1728,14.9358,4.9434,-1.5465,10.4786,6.5520
2609.3750,9.0003,7.7711,8.4286,3.0170,-0.5375,3.0121,3.0028,0.9830,10.0570,11.1913,13.3248,7.5931,2.1014,-3.4156,15.0998,4.9318,-2.5216,10.2326,5.5818
2613.2812,8.8202,8.1937,7.3682,1.3363,-2.1590,3.5027,2.8222,-0.5678,9.1822,10.3213,12.4316,6.2422,0.3255,-5.2489,14.0832,4.6098,-3.6353,8.2429,2.6851
2617.1875,8.4248,8.1876,5.1448,-1.0908,-4.4894,3.7824,1.6559,-3.3244,7.6331,9.2333,10.3226,3.0964,-1.9211,-7.0376,11.8966,4.0355,-4.5098,5.4080,-1.3007
2621.0938,8.0786,7.8321,2.8225,-3.4167,-7.0082,3.6486,0.2584,-6.3994,6.1123,8.3564,7.8579,-0.9389,-3.8785,-8.1180,9.3009,3.3565,-4.9687,2.9032,-5.2283
2625.0000,8.2633,7.3430,1.2860,-5.0047,-8.9612,3.2136,-0.4344,-8.7308,5.2492,8.2846,6.0770,-4.3449,-4.8699,-8.1331,7.4866,2.8953,-4.9892,1.6515,-8.0033
2628.9062,9.3024,7.0970,0.9380,-5.5829,-9.6989,2.8427,0.1009,-9.5400,5.4039,9.3760,5.7271,-5.5539,-4.4420,-7.1336,7.3785,3.1222,-4.5627,2.0139,-8.8684
2632.8125,11.0239,7.5052,1.7056,-5.1570,-8.9767,2.8770,1.6077,-8.6210,6.5753,11.4058,6.9439,-3.6722,-2.4487,-5.4120,9.0523,4.4420,-3.6274,3.7995,-7.5742
2636.7188,12.7827,8.7676,3.2390,-3.8468,-7.0434,3.3913,3.1786,-6.3552,8.4239,13.5997,9.2441,1.0219,0.9041,-3.2441,11.6882,6.8910,-2.1460,6.4799,-4.4433
2640.6250,13.8614,10.6636,5.1017,-1.8180,-4.4854,4.1686,3.8110,-3.4963,10.3935,15.0803,11.8046,7.1242,5.0727,-0.7558,14.0949,9.9668,-0.2483,9.4164,-0.3060
2644.5312,13.9349,12.5518,6.8434,0.6591,-1.9416,4.8711,3.0168,-0.8583,11.9000,15.4186,13.8508,12.7212,9.2882,1.9941,15.4273,12.7810,1.7165,11.9926,3.7254
2648.4375,13.2197,13.6323,8.0067,3.1375,0.1375,5.2262,1.0837,0.9638,12.5295,14.8676,14.9455,16.2633,12.7707,4.8263,15.5948,14.5059,3.3086,13.6799,6.6262
2652.3438,12.1883,13.3445,8.1861,5.0526,1.5823,5.0722,-1.1628,1.7575,12.1753,14.0847,15.0567,17.2100,14.9710,7.3536,15.1077,14.8445,4.2402,14.1229,7.8435
2656.2500,11.1026,11.6652,7.1930,5.9388,2.4598,4.2764,-2.8967,1.7115,11.0491,13.5489,14.4231,16.1028,15.7222,9.1105,14.5364,14.1852,4.5541,13.2653,7.4968
2660.1562,9.7761,9.1234,5.2313,5.6783,2.9753,2.6854,-3.7422,1.2963,9.5585,13.1307,13.3370,14.0755,15.2217,9.8166,14.0253,13.3014,4.5850,11.4373,6.2588
2664.0625,7.7874,6.5294,2.9191,4.5987,3.3805,0.2417,-3.8502,1.0424,8.1114,12.1735,11.9888,12.1482,13.8601,9.5535,13.2295,12.7871,4.7074,9.2850,4.9557
2667.9688,4.9842,4.5927,1.0653,3.3178,3.8877,-2.7750,-3.6145,1.2926,6.9479,10.0555,10.4458,10.7463,12.0083,8.6837,11.6918,12.6346,5.0335,7.5131,4.1163
2671.8750,1.8544,3.6522,0.2868,2.4102,4.5667,-5.6036,-3.2995,2.0331,6.0846,6.8204,8.7419,9.6818,9.8851,7.5485,9.3397,12.2696,5.2765,6.5534,3.7381
2675.7812,-0.5742,3.6411,0.6911,2.0964,5.2452,-7.1695,-2.8811,2.8925,5.3886,3.3826,6.9840,8.5060,7.5549,6.1761,6.6967,11.0224,4.8848,6.3553,3.4000
2679.6875,-1.2863,4.2456,1.8344,2.1440,5.4971,-6.5707,-2.1913,3.3293,4.7188,1.1032,5.3804,6.9189,5.0111,4.2464,4.6341,8.6740,3.3730,6.4437,2.6143
2683.5938,0.0899,5.1086,2.9912,2.0373,4.7959,-3.6202,-1.1998,2.9205,4.0416,0.9810,4.1614,4.9479,2.2519,1.3675,3.8283,5.6587,0.6374,6.2171,1.1543
2687.5000,3.0106,5.9480,3.5675,1.3011,2.8043,0.9206,-0.1579,1.5968,3.4465,2.9912,3.4444,2.8334,-0.7030,-2.5340,4.3036,2.7670,-2.9372,5.3049,-0.8623
2691.4062,6.2823,6.5575,3.3942,-0.2231,-0.3628,5.6191,0.5344,-0.3150,3.0570,6.0133,3.1392,0.7865,-3.8317,-7.0174,5.3676,0.5908,-6.6414,3.7581,-3.1531
2695.3125,8.6657,6.7522,2.7223,-2.3067,-4.1020,9.0307,0.6258,-2.2722,2.8908,8.4044,2.9639,-1.1569,-7.1042,-11.3003,5.9773,-0.8519,-9.7638,1.9579,-5.5323
2699.2188,9.4189,6.3383,1.9458,-4.4955,-7.5913,10.3515,0.2111,-3.8191,2.7556,8.8593,2.5608,-3.0929,-10.4248,-14.6919,5.2964,-2.0233,-11.8820,0.3109,-8.0280
2703.1250,8.4789,5.1412,1.2544,-6.3915,-10.2297,9.6837,-0.3646,-4.8391,2.2510,7.0371,1.6383,-5.1015,-13.5693,-16.9737,3.1099,-3.4027,-12.9735,-1.0663,-10.7736
2707.0312,6.2772,3.0728,0.4567,-7.8835,-11.9644,7.7984,-0.8341,-5.6087,0.9003,3.6185,0.0522,-7.1563,-16.2000,-18.4407,-0.1209,-5.0486,-13.3219,-2.4614,-13.7886
2710.9375,3.4208,0.2013,-0.9076,-9.1923,-13.2671,5.6091,-1.2969,-6.6257,-1.6235,-0.1663,-2.1942,-9.1645,-17.9889,-19.5715,-3.5426,-6.5512,-13.3095,-4.3966,-16.8512
2714.8438,0.4831,-3.1987,-3.2343,-10.7047,-14.7558,3.7271,-2.1970,-8.3055,-5.2664,-3.1920,-4.9833,-11.0629,-18.7804,-20.5748,-6.3347,-7.3995,-13.2218,-7.2643,-19.5749
2718.7500,-2.0272,-6.6338,-6.5083,-12.6890,-16.7068,2.3457,-3.9533,-10.7119,-9.4745,-4.8805,-8.0770,-12.8313,-18.6651,-21.1553,-8.0312,-7.4320,-13.1462,-10.9797,-21.6104
2722.6562,-3.6413,-9.4444,-10.1639,-15.0552,-18.7964,1.4279,-6.5026,-13.4627,-13.2840,-5.2402,-11.0638,-14.3758,-17.8877,-20.6813,-8.5979,-6.9656,-12.9776,-14.8639,-22.7928
2726.5625,-3.9966,-10.9619,-13.2559,-17.3089,-20.2589,0.9539,-9.1257,-15.8645,-15.6377,-4.5975,-13.3421,-15.3954,-16.6507,-18.6418,-8.2838,-6.4856,-12.5002,-17.8583,-23.1143
2730.4688,-3.0139,-10.7630,-14.8784,-18.7550,-20.3649,0.9928,-10.7585,-17.2184,-15.8276,-3.2852,-14.2511,-15.4138,-14.9784,-15.0769,-7.3853,-6.1706,-11.5106,-18.9933,-22.5871
2734.3750,-1.0452,-8.9247,-14.6264,-18.8634,-18.9024,1.5618,-10.6323,-17.1601,-13.8642,-1.5117,-13.3703,-14.0482,-12.7833,-10.6918,-6.0876,-5.6996,-9.9566,-17.8858,-21.1742
2738.2812,1.1745,-6.1153,-12.8551,-17.6003,-16.3457,2.4454,-8.8227,-15.8685,-10.5630,0.5523,-10.8490,-11.3684,-10.1071,-6.5842,-4.4759,-4.5549,-8.0493,-14.9967,-18.9045
2742.1875,2.8097,-3.3939,-10.5693,-15.5098,-13.6060,3.1891,-6.2955,-14.0229,-7.2483,2.6141,-7.5190,-8.0542,-7.3323,-3.7588,-2.6763,-2.5983,-6.2805,-11.4750,-16.0830
2746.0938,3.3028,-1.7501,-8.9519,-13.4563,-11.5287,3.3309,-4.3666,-12.4948,-5.1749,4.2187,-4.6186,-5.1489,-5.1315,-2.7053,-0.9887,-0.4110,-5.2803,-8.6268,-13.3537
2750.0000,2.6325,-1.6084,-8.7398,-12.1382,-10.4475,2.7152,-3.8897,-11.8975,-4.9403,4.9125,-3.1940,-3.4901,-4.1025,-3.2388,0.1381,0.9649,-5.5247,-7.2635,-11.4426
2753.9062,1.3069,-2.5970,-9.7786,-11.6552,-10.0535,1.6403,-4.7006,-12.2243,-6.2017,4.5176,-3.5030,-3.1771,-4.3084,-4.6344,0.3311,0.7667,-7.0172,-7.2889,-10.6780
2757.8125,0.1087,-3.7536,-11.0370,-11.4218,-9.6296,0.7016,-5.6978,-12.7998,-7.8694,3.3111,-4.8202,-3.4712,-5.0894,-5.9535,-0.4100,-0.8259,-9.1517,-7.7842,-10.6473
2761.7188,-0.2702,-4.0757,-11.1377,-10.5299,-8.4992,0.4183,-5.5342,-12.6311,-8.6909,1.9399,-5.8330,-3.2593,-5.3772,-6.4235,-1.5737,-2.6707,-10.9103,-7.5762,-10.3435
2765.6250,0.4563,-3.0870,-9.1530,-8.3798,-6.4383,0.8985,-3.4904,-11.0083,-7.9170,1.0681,-5.4362,-1.8080,-4.3889,-5.7488,-2.3317,-3.3933,-11.3633,-5.9749,-8.8264
2769.5312,2.0127,-1.0774,-5.2184,-5.1916,-3.8477,1.7695,0.0195,-8.0221,-5.6862,0.9536,-3.4371,0.6997,-2.2523,-4.2592,-2.0235,-2.3776,-10.2187,-3.2364,-6.0012
2773.4375,3.6147,1.1174,-0.5708,-2.0469,-1.6150,2.4098,3.6267,-4.6612,-2.9230,1.2324,-0.7010,3.2310,-0.0889,-2.8241,-0.6404,-0.2755,-8.0737,-0.4500,-2.9275
2777.3438,4.2376,2.6222,3.0569,-0.3888,-0.7410,2.3117,5.7527,-2.3764,-0.8228,1.0950,1.3769,4.5435,0.5793,-2.5162,1.0524,1.3848,-6.1642,1.0970,-1.3409
2781.2500,3.0540,2.9721,4.3510,-1.2555,-1.9065,1.3319,5.4590,-2.3237,-0.2273,-0.2042,1.7358,3.9576,-1.2485,-4.1306,1.9254,1.2424,-5.7111,0.6773,-2.6203
2785.1562,-0.1044,2.2377,3.0912,-4.7117,-5.1696,-0.3027,2.8989,-4.7265,-1.2417,-2.8002,0.2712,1.7197,-5.4184,-7.7793,1.2202,-0.9525,-7.2435,-1.4814,-6.8854
2789.0625,-4.5030,0.8140,0.1670,-9.8186,-9.9268,-2.1870,-0.8555,-8.7438,-3.2820,-6.0023,-2.1920,-1.2820,-10.7245,-12.7974,-0.8763,-4.1892,-10.3189,-4.4169,-12.8700
2792.9688,-8.7001,-0.9041,-3.0541,-15.1377,-15.1441,-3.9600,-4.4436,-12.9241,-5.4810,-8.6064,-4.5271,-4.2064,-15.6760,-18.0404,-3.2648,-6.9404,-13.8113,-7.0990,-18.6894
2796.8750,-11.2049,-2.7017,-5.5672,-19.4233,-19.7336,-5.4186,-6.8882,-15.9521,-7.1813,-9.5991,-6.0633,-6.8101,-19.3734,-22.4008,-4.6247,-8.2282,-16.5621,-9.0656,-22.9622
2800.7812,-11.3035,-4.4865,-7.2122,-22.0679,-22.8817,-6.5050,-7.9276,-17.2206,-8.2233,-8.8308,-6.9297,-9.4311,-21.8578,-25.2199,-4.3286,-8.2065,-17.9475,-10.5828,-25.4832
2804.6875,-9.5581,-6.1243,-8.5026,-23.0847,-24.1822,-7.2495,-7.8970,-16.9104,-8.8957,-7.2042,-7.7681,-12.4310,-23.7003,-26.3401,-2.9275,-7.8493,-18.0027,-12.2388,-26.9770
2808.5938,-7.5859,-7.3790,-9.9958,-22.7606,-23.5698,-7.7544,-7.3489,-15.6214,-9.6335,-6.2018,-9.0793,-15.5666,-25.1971,-25.8267,-1.8080,-8.0320,-17.0877,-14.3080,-28.1815
2812.5000,-7.1528,-8.0561,-11.7335,-21.3341,-21.1873,-8.2243,-6.7209,-13.9032,-10.6977,-6.9999,-10.7362,-17.8463,-25.8587,-23.6575,-2.2072,-8.7614,-15.4267,-16.4003,-29.0314
2816.4062,-9.0945,-8.2367,-13.2071,-18.9679,-17.3434,-8.9693,-6.2558,-12.0511,-12.0412,-9.7173,-12.0512,-18.0685,-24.6589,-19.7054,-4.2634,-9.1671,-12.9297,-17.6906,-28.6361
2820.3125,-12.7672,-8.3729,-13.8692,-15.9838,-12.5945,-10.3171,-6.1338,-10.2645,-13.4165,-13.2888,-12.3382,-15.6968,-20.9004,-14.0736,-6.8014,-8.2473,-9.4454,-17.5697,-26.0960
2824.2188,-16.4274,-9.1003,-13.7510,-13.0597,-7.8143,-12.4511,-6.6093,-8.9281,-14.5996,-16.0663,-11.5097,-11.4162,-15.0207,-7.4854,-8.0509,-5.7548,-5.2049,-16.2075,-21.4919
2828.1250,-18.3238,-10.8423,-13.6275,-11.0887,-4.0545,-15.2704,-7.9627,-8.6608,-15.5364,-16.7696,-10.2145,-6.8926,-8.6424,-1.3012,-6.8176,-2.4949,-1.0215,-14.5517,-16.1876
2832.0312,-17.7736,-13.4681,-14.5112,-10.6870,-2.1413,-18.3765,-10.2622,-9.9799,-16.2956,-15.1740,-9.3743,-3.8214,-3.7199,3.0237,-3.2799,0.2186,2.0179,-13.7009,-12.0915
2835.9375,-15.4891,-16.2542,-16.8039,-11.6808,-2.1996,-21.2058,-13.1296,-12.7962,-16.8739,-12.1067,-9.4552,-2.8859,-1.3343,4.7616,1.1592,1.5325,3.2130,-14.0789,-10.3549
2839.8438,-12.9430,-18.2057,-19.7577,-13.0058,-3.4538,-23.2330,-15.7439,-16.1680,-17.0292,-8.7968,-10.0341,-3.3481,-1.0095,4.4260,4.8514,1.6872,2.7757,-15.0233,-10.4865
2843.7500,-11.2574,-18.5487,-21.7244,-13.2019,-4.5396,-24.1311,-17.1669,-18.6125,-16.3072,-6.0665,-10.0136,-3.5744,-1.0749,3.5275,6.9948,1.8149,1.7778,-15.1325,-10.6045
2847.6562,-10.4411,-17.0961,-21.1053,-11.2467,-4.2191,-23.8258,-16.8264,-18.8600,-14.2871,-3.9293,-8.3556,-2.1416,0.1584,3.6468,8.0490,3.0532,1.4929,-13.1646,-8.7131
2851.5625,-9.5321,-14.2841,-17.3746,-7.1789,-2.0665,-22.4637,-14.8488,-16.5732,-10.8962,-1.8374,-4.8162,1.2395,3.2501,5.4348,9.2051,5.6536,2.5728,-8.8722,-4.0957
2855.4688,-7.5090,-10.8958,-11.4566,-2.0751,1.3434,-20.3547,-11.9995,-12.5305,-6.5676,0.6710,-0.1557,5.6025,7.3308,8.2470,11.3529,8.7601,4.6519,-3.1873,2.1900
2859.3750,-4.2490,-7.6689,-5.1859,2.6138,4.8834,-17.9232,-9.2459,-8.1340,-2.1044,3.4601,4.3090,9.4421,10.8262,10.6810,14.3465,11.0096,6.6642,2.3598,8.0658
2863.2812,-0.7764,-5.0174,-0.2328,5.8948,7.6277,-15.6437,-7.2181,-4.5894,1.6859,5.8248,7.4747,11.7070,12.6122,11.6070,17.1102,11.4829,7.6244,6.5528,11.8459
2867.1875,1.4053,-2.9852,2.7485,7.6462,9.3452,-13.9265,-5.9222,-2.3352,4.3589,7.0262,8.9945,12.3422,12.7027,10.9104,18.4641,10.2885,7.2717,9.0765,13.2368
2871.0938,1.3988,-1.3932,4.1872,8.3534,10.3662,-12.9700,-4.8952,-1.0917,5.9607,6.8948,9.2539,12.0324,11.9780,9.3933,18.0051,8.3764,6.1029,10.3944,13.2052
2875.0000,-0.4099,-0.0515,4.9197,8.4321,10.9661,-12.6676,-3.6823,-0.4164,6.8447,6.0099,8.8804,11.4240,11.2357,7.9524,16.3676,6.7789,4.8162,11.0855,12.8953
2878.9062,-2.5954,1.0876,5.3610,7.7227,10.8261,-12.6655,-2.2912,-0.2643,7.3241,5.2971,8.2243,10.4971,10.3911,6.7331,14.7027,5.8917,3.6604,11.2183,12.5236
2882.8125,-3.6765,1.8934,5.1868,5.5934,9.0932,-12.5811,-1.2879,-1.0781,7.4274,5.3510,7.2144,8.6149,8.5152,4.9797,13.8272,5.3347,2.2512,10.2815,11.1671
2886.7188,-3.1102,2.1281,3.7389,1.5835,5.0787,-12.2612,-1.4498,-3.3349,6.9331,6.0065,5.6498,5.2148,4.7026,1.7337,13.7178,4.4424,0.0158,7.7247,7.6231
2890.6250,-1.5814,1.5848,0.7700,-3.9374,-0.9324,-11.8994,-3.2099,-6.9430,5.6441,6.4953,3.6156,0.5721,-0.9385,-3.1717,13.7105,2.9447,-3.1104,3.6508,1.6322
2894.5312,-0.4239,0.2297,-3.1299,-9.6726,-7.4545,-11.9087,-6.2778,-11.0177,3.6620,6.0604,1.6168,-4.0271,-7.0098,-8.6435,13.1768,1.2789,-6.3404,-0.9423,-5.5478
2898.4375,-0.6517,-1.7178,-6.8090,-14.0201,-12.4522,-12.6184,-9.7164,-14.2733,1.4238,4.5492,0.2808,-6.9250,-11.5467,-12.8140,12.0819,0.2985,-8.3762,-4.6303,-11.7267
2902.3438,-2.3217,-3.8247,-9.3301,-16.0058,-14.4877,-14.0041,-12.4399,-15.7705,-0.5525,2.5276,-0.1420,-7.1301,-13.2279,-14.1536,10.9703,0.6339,-8.2089,-6.4376,-15.1152
2906.2500,-4.6427,-5.6126,-10.6237,-15.8480,-13.5561,-15.6548,-13.8119,-15.4674,-2.0161,0.8380,-0.0460,-5.0035,-12.1619,-12.3881,10.4282,2.2175,-5.7675,-6.4677,-15.4043
2910.1562,-6.6455,-6.7814,-11.4801,-14.7286,-10.9974,-17.0121,-13.9572,-14.1678,-3.1402,-0.0345,-0.2423,-2.0646,-9.6580,-8.5457,10.5155,4.3305,-1.9205,-5.7992,-13.7900
2914.0625,-7.8399,-7.3593,-12.8681,-13.9306,-8.5484,-17.7177,-13.5926,-12.9250,-4.3352,-0.2838,-1.3649,-0.0247,-7.1854,-4.1463,10.6681,6.1047,2.1522,-5.6970,-11.9660
2917.9688,-8.3715,-7.6667,-15.1137,-13.9756,-7.2413,-17.8208,-13.5085,-12.3684,-5.8491,-0.5494,-3.3535,0.2823,-5.3473,-0.2025,10.1576,7.0717,5.6992,-6.7089,-10.8946
2921.8750,-8.6563,-8.1003,-17.5891,-14.3859,-6.9428,-17.6981,-14.0570,-12.4455,-7.4734,-1.3365,-5.4288,-0.6729,-3.6586,3.1983,8.7126,7.3506,8.6698,-8.3108,-10.2934
2925.7812,-8.8968,-8.8665,-19.1593,-14.2080,-6.7993,-17.7563,-14.9769,-12.7041,-8.6157,-2.5749,-6.6085,-1.5996,-1.2477,6.4860,6.7696,7.3856,11.3577,-9.3471,-9.1566
2929.6875,-8.9283,-9.8455,-19.0331,-12.8500,-6.1284,-18.1438,-15.6403,-12.7995,-8.7175,-3.6781,-6.3960,-1.3869,2.1537,9.8298,5.1376,7.5007,13.8011,-8.9195,-6.7963
2933.5938,-8.5003,-10.6771,-17.3405,-10.5593,-4.9720,-18.6813,-15.5160,-12.7555,-7.7027,-4.0495,-5.1229,0.1276,5.7928,12.7375,4.3623,7.6556,15.5271,-7.0435,-3.4970
2937.5000,-7.6816,-10.9996,-14.9821,-8.1718,-3.8634,-19.0403,-14.5123,-12.7651,-6.0876,-3.6073,-3.6812,2.1630,8.4222,14.4154,4.3236,7.5805,15.9084,-4.5826,-0.2538
2941.4062,-6.9642,-10.6561,-12.8784,-6.3542,-3.0683,-19.0066,-12.9757,-12.7535,-4.6265,-2.8830,-2.8390,3.7091,9.3430,14.5673,4.4024,7.1323,14.8307,-2.5325,2.1465
2945.3125,-6.9111,-9.7235,-11.2269,-4.9749,-2.0415,-18.6121,-11.3805,-12.1612,-3.7379,-2.5937,-2.6621,4.3554,9.0779,13.8832,4.0623,6.5302,13.0365,-1.2285,3.8746
2949.2188,-7.6264,-8.3703,-9.3724,-3.1434,0.3224,-18.0394,-9.9663,-10.2299,-3.1615,-3.0281,-2.4889,4.5763,9.0593,13.6862,3.3410,6.2404,11.7375,-0.1018,5.9570
2953.1250,-8.5183,-6.6999,-6.4100,0.0714,4.7553,-17.4025,-8.6017,-6.6283,-2.1546,-3.7523,-1.4946,5.2598,10.5104,14.9145,2.8259,6.5864,11.7043,1.8095,9.3576
2957.0312,-8.6197,-4.7411,-2.0570,4.7772,10.7410,-16.6131,-6.9706,-1.9179,-0.1247,-3.8978,0.5760,6.8621,13.3718,17.2302,3.1280,7.4040,12.5408,4.9808,13.9804
2960.9375,-7.2746,-2.6004,2.8919,9.9227,16.4783,-15.4623,-4.9263,2.5678,2.7638,-2.8331,3.0694,8.8652,16.1443,19.0217,4.3044,8.0463,12.7945,8.8273,18.4360
2964.8438,-4.6756,-0.6178,6.9013,13.7836,19.8338,-13.8641,-2.7330,5.4193,5.5026,-0.7046,4.7635,9.9917,16.8316,18.4077,5.7279,7.7764,10.9340,11.8999,20.8292
2968.7500,-1.8226,0.6730,8.6067,14.9607,19.6414,-12.0504,-0.9905,5.9536,6.8051,1.5804,4.6749,9.0550,14.3256,14.5537,6.5320,6.2847,6.5236,12.7549,20.0175
2972.6562,0.0957,0.8280,7.6559,13.2026,16.3964,-10.5305,-0.2763,4.5499,5.9685,2.9372,2.7707,5.8475,9.2205,8.3280,6.2767,3.9593,0.7085,10.9045,16.4088
2976.5625,0.4599,-0.1573,4.9007,9.5034,11.8307,-9.8038,-0.7493,2.2947,3.4242,2.8323,0.0767,1.4257,3.4610,1.7978,5.2932,1.7051,-4.4062,7.1959,11.7020
2980.4688,-0.4204,-1.7190,1.8354,5.4452,7.7062,-10.0149,-2.0006,0.2305,0.5600,1.6350,-1.9068,-2.4258,-0.9086,-3.0744,4.4309,0.4255,-7.0788,3.3563,7.7724
2984.3750,-1.5748,-2.9748,-0.2954,2.2723,4.7479,-10.8018,-3.2687,-1.2199,-1.0948,0.3571,-2.0943,-4.2043,-2.9874,-5.5856,4.4176,0.5090,-7.0128,1.0076,5.5215
2988.2812,-2.0317,-3.2352,-1.1145,0.3192,2.4853,-11.4624,-3.8838,-2.2597,-0.7774,-0.0049,-0.4245,-3.5182,-3.3904,-6.4934,5.3531,1.6494,-5.4250,0.7871,4.4948
2992.1875,-1.3828,-2.4352,-1.1097,-0.8978,0.0234,-11.3468,-3.6470,-3.2437,1.1126,0.9492,2.1812,-1.2302,-3.5720,-7.2021,6.7227,3.0927,-4.0753,2.0994,3.4576
2996.0938,0.1047,-1.1780,-1.1275,-2.1065,-2.9703,-10.2298,-2.8973,-4.1891,3.3611,2.8844,4.4269,1.1184,-4.6809,-8.6196,7.8699,4.1216,-3.9964,3.5825,1.4136
3000.0000,1.8028,-0.3517,-1.7932,-3.7037,-5.9024,-8.4408,-2.2398,-4.7108,4.7403,5.0404,5.3754,2.1876,-6.8049,-10.5556,8.4917,4.4561,-4.8504,3.9289,-1.7130
3003.9062,3.1365,-0.5901,-3.2446,-5.5683,-7.7837,-6.6956,-2.1377,-4.4217,4.6848,6.6849,4.8357,1.4773,-9.0905,-12.0392,8.7326,4.3331,-5.3374,2.5377,-5.1668
3007.8125,3.7740,-1.9500,-5.2534,-7.3010,-8.1536,-5.7528,-2.6552,-3.4153,3.4159,7.3788,3.2328,-0.5940,-10.5214,-12.1983,8.8351,4.2589,-4.2811,-0.3316,-8.0298
3011.7188,3.5400,-3.9996,-7.5183,-8.6063,-7.5717,-6.0950,-3.5093,-2.3615,1.5372,6.9583,1.1635,-3.0983,-10.6914,-10.9480,8.7161,4.6346,-1.5444,-3.8732,-9.8747
