Time,Fp1,F3,C3,P3,O1,F7,T3,T5,Fz,Fp2,F4,C4,P4,O2,F8,T4,T6,Cz,Pz
0.0000,-1.5839,-1.1483,-1.3655,-1.3533,-4.5238,2.5971,-1.4843,-3.5135,-5.8791,5.3446,-2.2805,-7.2823,-9.9147,-1.6788,-0.0116,-0.0326,-10.9723,-3.7583,-3.2822
3.9062,-1.0688,-0.3220,-4.6127,-1.6184,-1.8141,3.1941,-4.0511,-5.0860,-3.9645,4.8161,-5.6301,-6.6215,-9.3724,-1.3041,-3.8094,1.0869,-9.6743,-5.2361,-6.8713
7.8125,-1.2775,0.0764,-10.7278,-3.0895,0.1659,2.9992,-10.4887,-7.6070,-2.6300,2.9231,-12.1469,-4.2821,-8.3098,-1.6843,-10.1599,2.1454,-7.7460,-5.8000,-12.3241
11.7188,-1.9481,-0.1737,-16.9346,-3.6652,1.2978,1.8818,-18.1065,-8.1197,-2.3408,1.3319,-19.5252,-0.3596,-6.4759,-0.9446,-16.2600,3.0935,-5.0190,-3.7850,-17.2906
15.6250,-2.5883,-0.9948,-20.5576,-1.7362,2.1927,0.2191,-23.5318,-4.5232,-2.9721,1.4074,-24.9185,4.3206,-3.7641,2.3272,-19.3799,4.0742,-1.2752,0.8193,-19.7709
19.5312,-2.8874,-2.0969,-20.8292,2.5057,3.6144,-1.3071,-24.8396,2.7227,-3.9228,3.0874,-26.6488,8.6276,-0.3486,7.7568,-18.7224,5.2444,3.4671,6.1186,-19.2809
23.4375,-2.9766,-3.1755,-19.1972,7.2368,5.7293,-2.1661,-22.5622,10.7783,-4.5986,4.9148,-25.0557,11.6619,3.2701,13.2152,-15.9061,6.5443,8.6141,9.5438,-16.8935
27.3438,-3.2960,-4.0550,-17.9512,10.5090,7.8397,-2.3611,-18.9397,16.4032,-4.8549,5.2257,-21.9631,13.0711,6.4254,16.2846,-13.7163,7.6302,12.9947,9.6765,-14.2531
31.2500,-4.1301,-4.6713,-18.2997,11.8239,8.9037,-2.4214,-16.1076,18.2155,-4.9803,3.5473,-19.2692,13.0097,8.6424,16.0646,-14.0595,8.0668,15.4147,7.2761,-12.4024
35.1562,-5.1647,-4.9385,-19.4202,12.4380,8.4790,-2.9634,-14.6332,17.4887,-5.1782,1.0797,-17.7333,11.8636,9.9937,13.8959,-16.6186,7.6435,15.5242,4.7206,-11.2807
39.0625,-5.4614,-4.6598,-19.1742,14.1417,7.3070,-4.1345,-13.4132,16.9213,-4.9872,-0.1303,-16.7650,9.9781,11.1606,12.3923,-19.1287,6.5438,14.3503,4.3003,-10.1190
42.9688,-3.9700,-3.6084,-15.8405,17.5628,6.9606,-5.3884,-10.8227,18.4296,-3.2278,1.3292,-15.1819,7.5618,13.0467,13.4874,-18.9710,5.1919,13.9257,6.6783,-8.2413
46.8750,-0.2859,-1.7462,-9.4634,21.4697,8.7161,-5.8213,-6.0916,21.7448,1.2990,5.2538,-12.2119,4.7730,16.1185,16.9834,-14.8757,3.8739,16.0480,10.6492,-5.5694
50.7812,4.8854,0.6036,-1.8079,23.7085,12.4866,-4.8662,0.1354,24.8724,8.7822,10.0619,-7.9750,1.8616,19.9244,20.7002,-7.5889,2.4485,20.9296,14.2673,-2.5230
54.6875,9.9581,2.8212,4.9225,23.0193,16.7038,-2.8227,6.3299,25.9153,17.8500,13.9898,-3.2312,-0.7773,23.2071,22.0853,0.7679,0.4297,26.7543,16.3488,0.4200
58.5938,13.3298,4.3091,9.5062,20.2012,19.3469,-0.7741,11.1150,24.6802,26.0675,16.2534,1.2112,-2.7003,24.6435,20.0432,7.9798,-2.5742,30.6237,17.1482,3.0134
62.5000,14.3477,4.8689,12.1872,17.6175,19.4065,0.1183,13.9695,22.7491,31.2930,17.3038,4.8758,-3.6226,23.7573,15.6269,12.7153,-6.3944,30.3837,17.7781,5.1681
66.4062,13.7184,4.8469,14.0191,17.4065,17.6738,-0.5345,15.2110,22.0390,32.9929,18.1067,7.5815,-3.6182,21.3509,11.1642,14.7228,-10.2066,26.0962,19.0113,6.7438
70.3125,13.0395,4.9044,15.8048,19.8437,16.2098,-1.9832,15.5236,23.1351,32.5413,19.1701,9.2380,-3.1783,19.0876,8.5872,14.4690,-12.9380,20.0688,20.5601,7.5761
74.2188,13.7296,5.5412,17.5700,23.1710,16.8562,-2.7671,15.5570,24.8112,32.2198,20.1686,9.8312,-3.0457,18.4557,8.2529,12.7512,-13.9004,15.3526,21.4238,7.8051
78.1250,16.0653,6.7032,18.8870,24.9884,19.9063,-1.6705,15.8444,25.0852,33.5919,20.4049,9.6498,-3.8456,19.8250,9.0414,10.5585,-13.1770,13.7423,20.9110,8.1358
82.0312,18.9859,7.7739,19.5530,24.0299,23.9416,1.4486,16.8430,22.8455,36.4211,19.5878,9.4253,-5.6775,22.2693,9.4655,9.0009,-11.4629,14.7089,19.3480,9.5896
85.9375,20.8047,7.9776,19.8597,20.8829,26.9388,5.5309,18.7776,18.6513,38.9219,18.1522,10.0405,-7.9138,24.2780,8.7992,8.9908,-9.4962,16.0270,17.7888,12.7388
89.8438,20.3394,6.9196,20.1849,17.1577,27.7576,8.9633,21.2957,14.0920,39.1413,16.8074,11.8672,-9.4032,24.8266,7.3712,10.6888,-7.5400,15.6027,16.9708,16.9912
93.7500,17.6832,4.8811,20.3761,13.9392,26.8430,10.5295,23.3309,10.3656,36.4229,15.7405,14.2612,-9.0518,24.0160,5.9610,13.1653,-5.3275,13.1194,16.4715,20.6384
97.6562,14.1018,2.6553,19.6543,10.9188,25.6309,10.0156,23.5552,7.3819,31.8617,14.2466,15.7728,-6.4837,22.8403,4.9731,14.7655,-2.4859,10.2773,14.8889,21.8541
101.5625,11.1620,1.0464,17.2780,6.9439,25.2068,8.1117,21.2959,4.1633,27.4460,11.2003,15.1094,-2.3550,22.3210,4.1382,14.1492,0.9510,9.4892,10.9876,20.0137
105.4688,9.7359,0.3892,13.4221,1.4363,25.3625,5.7812,17.2330,0.1127,24.5898,6.0324,12.1996,1.9443,22.7194,2.9273,11.3280,4.4001,12.0600,4.8851,16.2963
109.3750,9.5737,0.4192,9.4022,-4.6536,24.8442,3.6198,13.1782,-4.0816,23.1942,-0.5984,8.4831,5.0682,23.4372,1.2040,7.8496,7.0861,17.2329,-1.7463,12.9790
113.2812,9.6986,0.5489,6.8677,-9.2905,22.5711,1.6536,10.8946,-6.8087,21.9220,-7.0367,6.0541,6.4792,23.6313,-0.5307,5.8387,8.5857,22.7715,-6.7078,11.8437
117.1875,9.2601,0.3102,6.5136,-10.8948,18.7734,-0.3665,10.7684,-6.9127,19.3962,-11.6236,6.1914,6.6668,22.9842,-1.5246,6.5130,9.0785,26.5549,-8.7711,12.8870
121.0938,8.1739,-0.3751,7.3913,-9.6878,15.0417,-2.5103,11.4177,-4.8775,15.3348,-13.6928,8.3743,6.6570,21.9684,-1.4226,9.2851,9.0902,27.9282,-8.4832,14.3697
125.0000,7.0793,-1.2680,7.5079,-7.6663,13.1688,-4.4641,10.6887,-2.7088,10.7309,-13.8207,10.6003,7.1717,21.3857,-0.5813,12.1822,8.9757,27.8208,-7.6668,14.2197
128.9062,6.6947,-2.1133,5.3601,-7.1626,13.6844,-5.7357,7.3757,-2.5018,6.9877,-13.2039,10.8471,8.0836,21.5783,0.2200,13.2999,8.6368,27.6619,-8.0371,11.7112
132.8125,7.1185,-2.8831,1.2166,-9.1239,15.2747,-6.0637,2.3254,-4.8273,4.7486,-12.7342,8.6053,8.5960,21.9879,0.3962,12.1778,7.7588,28.0470,-10.0237,8.0845
136.7188,7.6478,-3.7551,-2.9191,-12.4802,15.6132,-5.6710,-2.0279,-8.2652,3.3712,-12.5209,5.2971,8.0135,21.4483,-0.0454,10.0228,6.3551,28.2307,-12.6615,5.5943
140.6250,7.2686,-4.8651,-4.7146,-15.0593,13.0149,-5.1509,-3.4360,-10.4861,1.4458,-12.1604,3.2195,6.4714,19.0023,-0.6403,8.6281,5.0752,26.7882,-14.5209,5.7364
144.5312,5.4405,-6.0787,-3.2305,-15.2550,7.6730,-5.0796,-1.5747,-10.0043,-2.0754,-11.3887,3.7910,4.9953,14.6142,-0.9532,8.8827,4.8862,22.8428,-14.8413,8.0765
148.4375,2.5699,-7.0157,0.3704,-13.0960,1.5520,-5.6568,1.6416,-7.2000,-7.0290,-10.4649,6.4351,4.7810,9.2477,-0.9418,10.0929,6.2911,16.8517,-13.9690,10.6182
152.3438,-0.1952,-7.3353,3.6684,-9.9519,-2.9566,-6.6236,3.4727,-3.8497,-12.0967,-9.9414,8.9628,6.2277,4.2870,-0.8857,10.6569,8.7266,10.3627,-12.8598,11.4028
156.2500,-1.7002,-7.0496,4.7104,-7.2826,-4.5939,-7.4666,2.4245,-1.6575,-15.6769,-10.0798,9.1775,8.5024,0.7596,-1.0115,9.5047,10.7364,4.9971,-12.1955,10.0324
160.1562,-1.5168,-6.5793,3.2852,-5.5744,-3.8854,-7.7112,-0.6322,-1.0533,-16.8879,-10.5007,6.4949,10.0329,-1.0941,-1.2279,7.0804,10.9250,1.4802,-11.9040,7.8885
164.0625,-0.1611,-6.4572,0.8383,-4.3164,-2.5121,-7.0878,-3.1727,-1.1972,-15.9994,-10.4314,2.3740,9.6007,-1.7055,-1.2529,5.0247,9.0183,-0.5897,-11.4187,6.8992
167.9688,1.3165,-6.8822,-0.7784,-2.8607,-2.0017,-5.5178,-2.9897,-1.0231,-14.0833,-9.3419,-0.7349,7.2231,-1.7483,-0.9923,4.8037,6.1810,-2.1901,-10.3233,7.8950
171.8750,2.0336,-7.4749,-0.6584,-1.2347,-2.7672,-3.0359,0.1207,-0.2763,-12.2535,-7.3870,-1.1166,4.1550,-1.7822,-0.7528,6.4183,4.2669,-4.0865,-8.7285,9.9075
175.7812,1.7657,-7.4634,0.7241,-0.0991,-4.1208,0.2066,4.2491,0.3986,-11.0740,-5.2401,1.0705,2.0261,-2.1583,-1.0129,8.2805,4.5172,-6.4235,-7.0557,10.9596
179.6875,0.9311,-6.2072,2.1563,0.0674,-5.0734,3.8442,6.8471,0.3111,-10.4693,-3.4652,4.0083,1.7869,-3.0607,-1.9205,8.3956,6.6978,-8.8785,-5.5142,9.6584
183.5938,0.1763,-3.6995,2.6913,-0.3124,-5.1642,7.2374,6.5583,-0.3898,-10.0387,-2.0143,5.5240,3.2541,-4.4623,-3.0040,5.9201,9.3535,-11.0677,-3.8549,6.2655
187.5000,-0.0734,-0.6784,2.1240,-0.1005,-4.6846,9.5988,3.9663,-0.7300,-9.4385,-0.3385,4.4789,5.5248,-5.9712,-3.4377,1.8555,10.9798,-12.7608,-1.6968,2.3918
191.4062,0.2161,1.7531,0.6669,1.5242,-4.2556,10.3108,0.7779,0.1279,-8.5712,1.9614,1.2875,7.8146,-6.7992,-2.6991,-1.6783,11.1722,-13.7636,0.8783,-0.3692
195.3125,0.8326,2.7451,-1.6663,4.1220,-4.2490,9.2573,-1.7538,1.8915,-7.5693,4.5417,-2.6534,9.9710,-6.0848,-1.0455,-3.0187,10.8232,-13.7115,3.0893,-1.6965
199.2188,1.5566,2.1386,-5.2283,6.1104,-4.5642,6.9374,-3.7949,3.1563,-6.7081,6.3702,-6.0477,12.2510,-3.4876,0.6683,-2.1695,11.2159,-12.1162,3.9163,-2.6504
203.1250,2.2527,0.4386,-10.2302,6.0139,-4.8527,4.2507,-6.5194,2.5960,-6.3299,6.4629,-8.4554,14.6449,0.3855,1.7387,-0.7478,12.7785,-8.7284,2.9393,-4.6019
207.0312,2.7637,-1.6170,-16.0694,3.8481,-4.8567,2.0675,-10.7599,0.3587,-6.7405,4.7109,-10.2679,16.4470,4.1742,2.2908,-0.7698,14.5620,-3.9142,0.8138,-7.9367
210.9375,2.7787,-3.5532,-21.2552,1.3878,-4.4940,0.8398,-15.9471,-1.6325,-8.0247,2.0717,-12.1039,16.5658,6.5889,3.2341,-3.2407,14.9164,1.3437,-1.1179,-11.6383
214.8438,1.8869,-5.3545,-24.1887,0.9344,-3.6610,0.4759,-20.2848,-0.9415,-9.8614,-0.0871,-14.2037,14.3862,7.3210,5.4407,-7.5706,12.8480,5.9096,-1.8396,-14.0752
218.7500,-0.1439,-7.2518,-24.2464,3.4946,-2.0705,0.5231,-22.0326,3.4459,-11.5323,-0.9748,-16.2760,10.4540,7.3028,8.8065,-12.1281,8.9474,9.1075,-1.4617,-14.2885
222.6562,-3.0527,-9.3088,-22.2440,7.8809,0.5847,0.5072,-20.8296,10.0939,-12.2316,-0.8687,-17.7963,6.3276,8.0235,12.0539,-15.3688,5.0942,11.0193,-1.0771,-12.6873
226.5625,-6.0080,-11.1683,-19.8143,11.5728,4.2252,0.2068,-17.9663,15.9577,-11.5239,-0.6829,-18.4097,3.6058,10.3572,13.5737,-16.6508,3.1242,12.2687,-1.7159,-10.6002
230.4688,-7.8985,-12.1802,-18.1466,12.7289,8.1602,-0.2894,-15.3908,18.5582,-9.5933,-0.9872,-18.0878,2.8400,13.8219,12.7179,-16.2445,3.4850,13.5162,-3.2462,-9.1158
234.3750,-7.8608,-11.8299,-17.1140,11.7271,11.3969,-0.7398,-14.2633,17.8162,-7.0297,-1.3490,-16.9861,3.1796,16.9073,10.4857,-14.7565,4.9304,15.0988,-4.1999,-8.2255
238.2812,-5.7348,-10.1404,-15.5251,10.9177,13.3558,-0.9934,-14.1967,16.0683,-4.2773,-0.6265,-15.2198,3.0391,18.2637,8.9458,-12.5965,5.4817,17.0461,-2.7875,-6.9758
242.1875,-2.1679,-7.7303,-12.2963,12.7103,14.4018,-1.1562,-13.7149,16.2097,-1.2140,1.9722,-12.8068,1.2665,17.8029,9.7315,-9.9276,3.8914,19.3132,1.6312,-4.4519
246.0938,1.6932,-5.4623,-7.5487,17.5044,15.6353,-1.5688,-11.4771,19.4123,2.7101,5.9524,-9.8143,-2.0894,16.7784,12.7407,-6.9966,0.4827,21.8683,7.8037,-0.7158
250.0000,4.7474,-3.9201,-2.6780,23.1625,17.9736,-2.5966,-7.2673,24.2176,7.8118,9.5805,-6.5272,-5.9641,16.7209,16.0870,-4.3758,-3.2254,24.4788,13.2446,3.1061
253.9062,6.4323,-3.0824,0.6904,26.5092,21.2194,-4.3394,-2.0443,27.7017,13.5457,11.0081,-3.4260,-9.1749,18.0847,17.4045,-2.7659,-5.7144,26.4461,15.8850,5.6433
257.8125,6.9288,-2.4214,1.9960,25.7077,23.9559,-6.4368,2.8383,27.7546,18.5536,9.6595,-0.9430,-11.2365,19.7679,15.5509,-2.4714,-6.4904,26.7294,15.4936,6.3135
261.7188,7.0059,-1.3482,2.2013,21.6399,24.5066,-8.1249,6.5159,24.6484,21.5300,6.7870,0.8238,-12.4317,20.0014,11.4195,-3.0254,-6.1679,24.6080,13.7927,5.7318
265.6250,7.5914,0.3204,3.0191,17.2060,22.2987,-8.5763,8.9223,20.6905,22.3085,4.6902,2.2077,-13.1675,17.9565,7.2552,-3.3519,-5.6821,20.4728,13.1773,5.2227
269.5312,9.2666,2.2089,5.5469,15.1158,18.5330,-7.3768,10.4456,18.3202,22.2410,5.1211,3.7892,-13.2802,14.7401,5.0211,-2.4112,-5.4036,16.0314,14.9968,5.8920
273.4375,11.9138,3.6477,9.4294,15.9221,15.5149,-4.8564,11.3993,18.2294,23.3845,8.0336,6.0506,-11.9840,12.8490,5.0723,0.1432,-4.9288,13.5207,18.6588,8.0011
277.3438,14.7074,4.1575,13.2116,17.8017,15.0525,-2.0232,11.8294,18.9864,26.9589,11.5928,9.0942,-8.5550,14.3715,6.1075,3.7863,-3.6551,14.2963,22.1501,11.0358
281.2500,16.5046,3.8027,15.5425,18.1580,17.1310,-0.0723,11.7428,18.3598,32.2291,13.4193,12.5853,-3.1549,19.2924,6.3449,7.5254,-1.5368,17.7940,23.4943,14.2454
285.1562,16.4900,3.1587,16.2036,15.6826,19.9322,0.2684,11.4007,15.1685,36.7779,12.1451,15.9228,2.9757,25.2815,4.9332,10.5378,0.7210,21.7424,22.0274,17.1076
289.0625,14.7309,2.9212,16.1368,11.2356,21.2428,-0.8653,11.2877,10.1441,38.1161,8.1826,18.5149,8.2025,29.2456,2.5060,12.5544,2.2317,23.6402,18.6213,19.3878
292.9688,12.2706,3.4339,16.5270,6.9470,20.1756,-2.6167,11.7442,5.2031,35.4943,3.2462,20.0146,11.5540,29.5334,0.5368,13.7668,2.7428,22.5187,14.8585,20.9347
296.8750,10.6027,4.4678,17.7880,4.4083,17.8440,-4.0122,12.6471,1.8632,30.5233,-0.9072,20.4264,13.2966,27.1268,0.1171,14.4435,2.9343,19.6976,11.9194,21.5971
300.7812,10.7661,5.3954,19.3250,3.4936,16.4399,-4.6037,13.5106,0.1806,26.0618,-3.5515,20.0660,14.5610,24.8843,1.1723,14.6469,3.8873,17.9184,10.0277,21.4354
304.6875,12.6186,5.6263,20.2153,2.7247,17.4427,-4.6823,13.9722,-0.9667,24.1604,-5.1700,19.4009,16.3378,25.3900,2.6820,14.2853,6.1524,19.4345,8.7217,20.9775
308.5938,14.8274,4.9882,20.1349,0.7588,20.3950,-4.9109,14.2076,-2.6184,24.6228,-6.7679,18.8335,18.6812,29.0274,3.6113,13.3937,9.2217,24.4287,7.5321,21.1004
312.5000,15.6807,3.7945,19.6656,-2.3301,23.2324,-5.6793,14.8252,-4.6732,25.2963,-8.9648,18.5231,20.7630,33.7125,3.7171,12.3286,11.8704,30.8890,6.4161,22.4333
316.4062,14.2416,2.5740,19.7094,-5.0591,23.8980,-6.7146,16.2543,-5.9606,23.8612,-11.5633,18.3496,21.6826,36.4354,3.5839,11.6550,13.0822,35.9754,5.6350,24.7017
320.3125,11.0489,1.6849,20.5606,-5.7821,21.9305,-7.2872,18.1558,-5.3357,19.7046,-13.8186,18.0599,21.2929,35.3933,3.9456,11.7982,12.7671,37.8141,5.3150,26.6436
324.2188,7.8068,1.1110,21.5022,-4.0860,18.7398,-6.8553,19.4481,-2.8019,14.3956,-15.0762,17.5196,20.3146,31.1098,4.9410,12.7437,11.6759,36.4082,5.1803,26.7529
328.1250,6.2006,0.5864,21.3280,-1.1698,16.3612,-5.6018,19.0515,0.3395,10.3937,-15.2350,16.8846,19.6544,25.7897,5.9488,14.0290,10.6322,33.1228,4.7307,24.3956
332.0312,6.6369,-0.0657,19.3630,1.0737,15.7228,-4.3702,16.8049,2.4454,9.0381,-14.7287,16.5343,19.5516,21.5405,6.1028,15.0243,9.8106,29.3341,3.6823,20.4270
335.9375,7.8399,-0.6668,16.0976,1.4807,15.8546,-3.9874,13.7780,2.7797,9.4402,-14.1394,16.7675,19.3305,18.8944,5.0089,15.2796,8.7290,25.4166,2.2495,16.7310
339.8438,7.6700,-0.7291,12.8791,0.3872,14.6916,-4.5063,11.6410,2.0110,9.1709,-13.8069,17.4675,17.9917,16.7101,3.0558,14.6991,6.9418,20.8368,1.0060,14.9346
343.7500,4.6541,0.1850,10.9151,-0.8130,10.8164,-5.0266,11.5118,1.5728,6.1936,-13.7190,18.0065,15.1281,13.3728,1.0993,13.4713,4.7438,15.1244,0.4540,15.2459
347.6562,-0.8447,2.0461,10.4263,-0.8734,4.7262,-4.3282,13.1620,2.4527,0.5023,-13.6888,17.5207,11.3486,8.2230,-0.1650,11.8707,3.1353,8.7550,0.6782,16.3260
351.5625,-6.6863,4.2136,10.6434,0.3473,-1.3993,-1.8780,15.2050,4.4148,-5.8172,-13.6103,15.4152,7.8324,2.0827,-0.6150,10.0980,2.9678,3.1096,1.3535,16.3141
355.4688,-10.2534,5.7208,10.5940,1.8972,-5.2384,1.5970,16.1265,6.2526,-10.1186,-13.5730,11.7761,5.4067,-3.4153,-0.6244,8.2350,3.9935,-0.4768,2.0402,14.2206
359.3750,-10.1159,5.8427,9.9587,2.5898,-5.9562,4.4973,15.3576,6.7995,-11.0814,-13.7731,7.4104,3.9836,-7.0195,-0.6592,6.2865,4.7507,-1.7532,2.4688,10.6176
363.2812,-6.9119,4.5782,9.2476,1.9411,-4.6712,5.4854,13.5802,5.8448,-9.4955,-14.3203,3.4894,2.8715,-8.5749,-0.9479,4.2456,3.5718,-1.7705,2.5860,7.1309
367.1875,-2.8567,2.7101,9.1805,0.4547,-3.4794,4.5189,12.0818,4.2473,-7.4215,-15.0822,1.0202,1.6857,-8.7943,-1.4702,2.1645,0.0109,-2.0773,2.4140,5.1900
371.0938,-0.2665,1.3759,9.8662,-0.8616,-3.8873,2.9516,11.7145,3.2385,-6.5069,-15.6641,0.4493,1.0012,-8.4552,-2.1638,0.2250,-4.4975,-3.5583,1.9593,5.0414
375.0000,-0.1540,1.4106,10.5381,-1.2516,-5.8975,2.5588,12.2716,3.5228,-6.8385,-15.5419,1.5554,2.0707,-7.8105,-3.0580,-1.2401,-7.4236,-5.8678,1.3163,5.7438
378.9062,-1.8386,2.8738,10.0955,-0.6296,-8.3556,4.1907,12.6974,4.8530,-7.1672,-14.3097,3.5897,5.7413,-6.6829,-4.1739,-1.8607,-6.9090,-7.8807,0.8410,6.0200
382.8125,-3.7252,5.0524,7.9769,0.5529,-10.1070,7.0868,11.8721,6.2939,-6.1721,-11.9525,5.5227,11.4581,-5.0209,-5.3240,-1.4997,-3.1927,-8.7202,1.1157,5.1781
386.7188,-4.5682,6.9148,4.6079,1.7250,-10.9107,9.4019,9.3236,6.8526,-3.6235,-9.0002,6.3182,17.2627,-3.2750,-6.0839,-0.5324,1.4499,-8.4603,2.5853,3.3614
390.6250,-4.2608,7.7078,1.0537,2.4907,-11.3854,9.5670,5.3876,5.9876,-0.5058,-6.4110,5.2371,20.9223,-2.1774,-6.0476,0.1313,4.2751,-7.9344,5.0926,1.0556
394.5312,-3.6545,7.3208,-1.7987,2.6472,-12.1711,7.4489,0.8401,3.7532,1.8753,-5.1446,2.1507,21.3777,-2.1221,-5.1642,-0.5603,3.9827,-7.8823,7.7459,-1.5558
398.4375,-3.6935,6.2281,-3.8181,2.1037,-13.1595,4.4193,-3.5905,0.6853,2.9246,-5.6013,-2.2849,19.3904,-2.7548,-3.8195,-3.1482,1.5151,-8.2350,9.3618,-4.7309
402.3438,-4.6365,5.1070,-5.5089,0.9356,-13.5128,2.2881,-7.4616,-2.3596,3.0235,-7.2821,-6.8037,16.8755,-3.2027,-2.5263,-7.1991,-0.8380,-8.1730,9.2577,-8.6884
406.2500,-5.9673,4.4184,-7.3752,-0.4396,-12.4249,1.9373,-10.5684,-4.3581,2.8975,-8.9725,-10.1059,15.4510,-2.7679,-1.4578,-11.4456,-1.2808,-6.8728,7.8107,-13.0159
410.1562,-6.9706,4.2126,-9.3801,-1.2301,-9.8811,2.7160,-12.8287,-4.3824,2.7878,-9.4353,-11.5613,15.3525,-1.4565,-0.2538,-14.5322,0.1834,-4.2328,6.2996,-16.6034
414.0625,-7.4005,4.2269,-10.9698,-0.5963,-6.6895,3.0449,-14.2781,-2.0189,2.2726,-8.1981,-11.5511,15.5366,0.1556,1.6758,-15.8597,1.9845,-0.9055,6.0745,-18.2462
417.9688,-7.6417,4.1413,-11.5727,1.7973,-3.7397,1.7251,-15.1096,2.2692,0.9233,-5.8729,-11.1108,14.8029,1.6010,4.5635,-15.8642,2.4847,2.3810,7.6427,-17.4288
421.8750,-8.2438,3.7896,-11.0521,5.4461,-1.1811,-1.0957,-15.5681,7.1925,-0.8564,-3.7195,-11.0445,12.9290,3.0962,7.9213,-15.4647,1.4388,5.5507,10.3592,-14.6173
425.7812,-9.2611,3.2082,-9.6871,9.2476,1.6879,-4.0541,-15.6674,11.2467,-1.7006,-2.7198,-11.1596,10.8381,5.4220,10.7630,-15.1022,0.1719,9.2229,12.9584,-10.8286
429.6875,-10.0001,2.5546,-7.7590,12.2247,5.6671,-5.6714,-14.9854,13.5722,-0.1349,-2.8345,-10.2905,9.6743,9.1437,12.2892,-14.2034,0.3271,13.9666,14.5048,-6.9012
433.5938,-9.4233,2.0058,-5.2332,14.1809,10.6930,-5.5319,-12.8484,14.4459,4.2275,-3.0263,-7.2194,9.6143,13.8540,12.4920,-11.6189,2.2524,19.4232,15.0233,-3.1358
437.5000,-6.9051,1.7148,-1.9279,15.7234,15.5718,-4.6081,-8.9119,14.9821,10.1878,-2.0645,-1.8430,9.4895,18.1794,12.1711,-6.7731,4.4260,24.1708,15.3357,0.4188
441.4062,-2.7444,1.8105,1.9675,17.5943,18.7410,-4.4885,-3.7038,16.2190,15.6742,0.4932,4.3792,7.6221,20.6705,12.3229,-0.5701,4.4822,26.6093,16.2799,3.4282
445.3125,1.9593,2.3765,5.5940,19.8560,19.4862,-6.1252,1.4233,18.2947,19.1629,3.9101,9.1970,3.2452,20.9030,13.3871,4.8351,1.0831,26.2376,17.9688,5.1597
449.2188,5.9511,3.3784,7.7940,21.6578,18.5883,-9.0744,5.0770,20.3888,20.6682,6.7902,11.1041,-2.6402,19.8646,14.9557,7.4207,-4.8409,24.2560,19.6875,5.0675
453.1250,8.4874,4.6001,7.9838,21.8575,17.8003,-11.7884,6.8294,21.4901,21.4976,8.1032,10.4789,-7.6980,19.2420,16.1584,6.8494,-10.4947,22.8844,20.4835,3.5950
457.0312,9.5578,5.6797,6.7987,20.0402,18.5222,-12.7053,7.6117,21.3464,22.9987,7.9008,9.3699,-9.6927,20.1378,16.3733,4.9078,-13.0072,23.8140,19.9478,2.3485
460.9375,9.5976,6.2795,5.8470,17.0761,20.7363,-11.3016,9.0511,20.7605,25.3846,7.1573,9.9856,-7.8645,22.2499,15.6527,4.3250,-11.2841,26.9603,18.5552,3.2232
464.8438,9.0214,6.3011,6.6193,14.6773,23.0728,-8.3658,12.1691,20.9287,27.6478,6.8874,13.0126,-3.2594,24.1935,14.5292,6.7491,-6.5837,30.5131,17.3202,6.9984
468.7500,7.9870,5.9843,9.3661,14.2029,23.9498,-5.3839,16.4669,22.3324,28.6149,7.2809,17.1051,2.1294,24.7001,13.4193,11.4275,-1.4838,32.2797,17.0664,12.5270
472.6562,6.5183,5.7829,12.8782,15.6022,22.8400,-3.5763,20.2133,24.1157,28.1710,7.5699,20.0063,6.6667,23.6910,12.1908,15.6920,1.8864,31.2918,17.8744,17.3154
476.5625,4.7697,6.0683,15.4070,17.3226,20.6222,-3.2978,21.7905,24.5124,27.5068,6.7155,20.4334,9.8413,22.3208,10.2937,16.9669,3.0150,28.4330,19.0731,19.2102
480.4688,3.1087,6.8557,16.0070,17.2958,18.7599,-4.1248,21.0335,22.0392,28.0899,4.3148,19.1807,12.0604,21.9616,7.3364,14.7761,2.8293,25.6227,19.6928,17.9376
484.3750,1.9130,7.7584,15.2002,14.2975,18.0500,-5.3933,19.4202,16.5370,30.2230,0.9543,18.4723,13.8544,23.0020,3.5756,11.1558,2.5322,24.2518,19.0008,15.2674
488.2812,1.2880,8.2303,14.4241,8.7195,18.0338,-6.6644,18.8845,9.2704,32.5068,-2.2726,20.0334,15.2722,24.5037,-0.1348,9.1037,2.5189,24.1467,16.7844,13.6276
492.1875,1.0140,7.9471,14.7726,2.2590,17.5699,-7.7798,20.2046,2.0681,32.8179,-4.6396,23.4726,15.9435,25.0273,-2.9106,10.2647,2.2381,23.8869,13.3313,14.2615
496.0938,0.8124,7.0649,16.1547,-3.1623,16.0356,-8.6020,22.3500,-3.7629,30.1125,-6.2845,26.4045,15.6189,23.9232,-4.4308,13.6906,0.9802,22.1814,9.2710,16.4141
500.0000,0.6897,6.1606,17.6184,-6.4414,14.0504,-8.8070,23.4122,-7.9104,25.5551,-7.9102,26.3501,14.5809,21.9646,-5.0485,16.6713,-1.2022,19.1383,5.4198,18.1945
503.9062,0.9949,5.8736,18.5078,-7.6406,13.0139,-8.0056,22.3856,-10.6793,21.9139,-9.9914,22.9280,13.4989,20.7338,-5.3447,16.9652,-3.2930,16.3513,2.6079,18.3524
507.8125,2.0612,6.4729,19.3141,-7.5819,13.7970,-6.1075,20.2542,-12.2777,21.5383,-12.2347,18.4800,12.8657,21.2441,-5.5543,14.6078,-4.0183,15.6905,1.4000,17.4222
511.7188,3.7046,7.6357,21.3000,-7.1580,15.7184,-3.5831,19.3347,-12.5081,24.4478,-13.8095,16.4505,12.5600,22.9553,-5.3932,11.8136,-2.8688,17.7433,1.7643,17.2165
515.6250,5.0607,8.5927,25.0987,-6.8887,16.7778,-1.3306,21.2878,-11.1362,28.0810,-14.1580,18.6675,11.9605,24.0564,-4.4388,11.0475,-0.5945,21.1497,2.9407,19.0713
519.5312,5.0209,8.5600,29.5388,-6.8995,15.0865,-0.1892,25.4328,-8.5008,29.0005,-13.6419,23.6766,10.5161,22.8360,-2.6882,12.8552,1.2243,23.3860,3.7510,22.3657
523.4375,3.0303,7.2022,31.9328,-7.1147,10.3984,-0.4471,28.8915,-5.6571,25.3158,-13.3884,27.5641,8.2545,19.0408,-0.7431,15.2652,1.1888,22.4320,3.2834,24.6721
527.3438,-0.3606,4.8547,29.8963,-7.3841,4.4705,-1.7097,28.6470,-3.7805,17.9882,-14.3974,26.7842,5.7710,14.0974,0.5919,15.2966,-1.0786,18.0930,1.5150,23.5434
531.2500,-3.6991,2.3810,23.3642,-7.4820,-0.1288,-3.2137,23.9713,-3.2960,10.0387,-16.6534,20.8714,3.7305,9.9912,0.9559,11.3782,-4.8199,12.0384,-0.6425,18.5300
535.1562,-5.5440,0.7591,15.0948,-7.1396,-1.8953,-4.3301,17.2375,-3.5382,4.3108,-19.0324,12.9284,2.3681,7.7048,0.7229,4.7249,-8.7101,6.5971,-2.0036,11.7457
539.0625,-5.4649,0.6314,9.0212,-6.2392,-1.4938,-4.8796,12.3304,-3.3344,1.5434,-20.1370,7.4605,1.4657,6.4912,0.6367,-1.4471,-11.5951,3.2449,-2.0261,6.4393
542.9688,-4.3691,2.0517,7.5517,-5.0457,-1.2077,-5.0635,11.7956,-2.0665,0.2170,-19.3865,7.1827,0.8167,4.5850,1.0868,-4.2324,-12.8892,1.8572,-1.2521,4.6575
546.8750,-3.8551,4.5353,9.8839,-4.1902,-3.1406,-5.1288,14.9445,-0.2807,-1.8126,-17.4407,11.2204,0.6993,0.7751,1.6830,-3.0300,-12.5129,1.1481,-0.8570,5.8456
550.7812,-5.0242,7.3435,12.7122,-4.2721,-7.5606,-5.0791,18.4377,0.7504,-5.2979,-15.5894,16.0209,1.8358,-4.4426,1.5581,0.3271,-10.6427,-0.1771,-1.6105,7.4847
554.6875,-7.6220,9.8190,12.8412,-5.3199,-12.6658,-4.6667,18.9106,0.1915,-8.8729,-14.6308,18.1699,4.7776,-9.0851,0.1820,3.2888,-7.5988,-2.4733,-3.0956,7.2159
558.5938,-10.1716,11.5921,9.6634,-6.5888,-15.9331,-3.6503,15.5609,-1.4816,-10.1940,-14.2154,16.8679,9.2292,-11.1160,-2.0238,4.6370,-3.9317,-5.0494,-3.8923,4.7128
562.5000,-11.0350,12.5819,5.5136,-6.9787,-15.9885,-2.0887,10.6393,-2.7323,-7.9911,-13.2420,14.1775,13.9558,-9.9654,-3.8597,5.1515,-0.4811,-6.8434,-2.6740,1.8068
566.4062,-9.6429,12.8501,3.6005,-5.8425,-13.5619,-0.4247,7.4720,-2.2139,-3.3296,-10.9637,12.9944,17.4694,-6.9454,-4.2381,6.4164,1.8352,-7.2612,0.6258,0.8307
570.3125,-6.9866,12.4538,5.1835,-3.5496,-10.8438,0.7175,7.6406,0.0166,0.9831,-7.8177,14.4972,19.0112,-4.2558,-3.0684,8.9089,2.4718,-6.5521,4.5559,2.5907
574.2188,-4.9933,11.4192,8.3133,-1.2836,-9.8078,0.8869,9.6160,2.4122,2.4206,-5.1971,17.1618,19.0415,-3.3781,-1.3694,11.1270,1.6297,-5.5305,7.1027,5.6281
578.1250,-5.2147,9.8502,9.2173,-0.1532,-10.8194,0.0884,9.9516,3.1461,0.6254,-4.2991,18.0689,18.8136,-4.0969,-0.4652,10.6144,0.2181,-4.9600,7.1768,7.3213
582.0312,-7.7521,8.0600,5.2755,-0.2997,-12.5536,-1.1733,6.0639,1.6573,-2.3038,-5.0192,15.3471,19.3500,-4.8519,-0.9010,6.0862,-0.6403,-5.0884,5.4698,5.8699
585.9375,-11.1663,6.5723,-2.7747,-0.7502,-13.1742,-2.1125,-1.6386,-0.7859,-3.3501,-5.8834,9.7272,20.6446,-4.0720,-1.9824,-1.1432,-0.2479,-5.6155,3.9691,1.5478
589.8438,-13.4176,5.9209,-11.1762,-0.1918,-11.7740,-2.0339,-9.9603,-2.0474,-0.7817,-5.1592,3.9861,21.7312,-1.4244,-2.3364,-7.7280,1.3138,-6.0121,4.4651,-3.6906
593.7500,-13.1736,6.3367,-15.7903,1.9331,-8.9594,-0.6886,-15.2441,-0.8648,4.6079,-2.2714,0.8167,21.5392,1.9471,-1.0369,-10.5411,3.3243,-5.8929,7.1933,-7.7818
597.6562,-10.6031,7.5376,-14.9921,4.9130,-6.2200,1.5526,-15.9454,2.0790,10.0810,1.6528,0.8876,19.8008,4.2884,1.6451,-8.9033,4.9048,-5.1936,10.6594,-9.9409
601.5625,-7.1706,8.8083,-10.6225,7.2874,-4.6910,3.8082,-13.4723,4.6915,12.8546,4.5933,2.5925,17.2448,4.4771,4.4888,-5.0625,5.4733,-4.1047,12.7668,-10.8133
605.4688,-4.6395,9.3773,-6.3763,8.0017,-4.3250,5.0679,-10.7873,5.2146,11.9064,5.1661,3.5333,14.9323,2.7248,6.3438,-2.5435,4.9052,-2.8820,12.3498,-11.4880
609.3750,-3.9864,8.8724,-5.0057,7.2542,-4.0727,4.6868,-10.0481,3.7421,8.4609,3.6288,2.3971,13.3287,0.3239,7.0375,-3.6326,3.4063,-1.6768,9.9364,-12.4070
613.2812,-4.9170,7.5427,-6.5365,6.3382,-2.8227,2.7347,-11.2066,2.2273,4.9713,1.5590,-0.2917,11.9294,-1.2366,7.3952,-7.8697,1.3091,-0.4633,7.2201,-13.1421
617.1875,-6.2095,6.0671,-8.7334,6.6173,-0.2879,-0.0306,-12.5305,2.9434,3.4688,0.5137,-2.9783,9.7726,-1.0900,8.3803,-12.5781,-1.0239,0.9354,5.7592,-13.0919
621.0938,-6.5655,5.0589,-9.1905,8.4968,2.8475,-2.5906,-12.3645,6.6537,4.4631,0.8259,-4.5347,6.3977,0.7499,10.1451,-14.8742,-3.1975,2.7453,5.9815,-12.2676
625.0000,-5.3782,4.6171,-7.2120,11.2390,5.5579,-4.2578,-10.5032,12.0056,7.0135,1.5522,-5.0170,2.4158,3.6823,11.8701,-13.5656,-4.8196,5.1003,7.2282,-11.3151
628.9062,-2.9688,4.2705,-4.0208,13.7359,7.3115,-5.0467,-8.0633,16.6396,9.6893,1.5681,-5.1443,-0.8244,6.9882,12.5751,-9.6083,-5.6599,7.9298,8.6508,-10.7419
632.8125,-0.2370,3.3832,-1.3607,15.5199,8.4513,-5.5598,-6.1533,19.0771,11.5919,0.8042,-5.1559,-2.2215,10.1285,12.2002,-5.0290,-5.8290,10.9606,10.0807,-10.1685
636.7188,1.9640,1.7351,0.1069,17.1011,9.8872,-6.4628,-4.6909,19.8074,12.7522,0.4805,-4.2598,-1.7515,12.8085,11.9518,-1.3640,-5.7758,13.8757,12.0943,-8.4712
640.6250,3.3093,-0.1786,1.1869,19.3310,12.4127,-7.9309,-2.4963,20.6904,13.8044,2.0743,-1.2892,-0.4593,14.9565,13.4910,1.1583,-6.0122,16.5481,15.2617,-4.8386
644.5312,4.0795,-1.4028,3.0892,22.3781,16.1800,-9.4910,1.4348,23.2205,15.3564,5.8851,4.0000,0.3764,16.7321,17.5260,3.2707,-6.7177,19.1635,19.3112,0.1870
648.4375,4.8560,-1.1946,6.0143,25.2780,20.6507,-10.3859,6.6881,27.1526,17.5629,10.4681,10.2379,0.2195,18.4989,22.9432,5.7209,-7.5344,22.0831,23.0104,4.7514
652.3438,6.0788,0.3749,8.7521,26.5368,24.9360,-10.1756,11.4202,30.6500,20.1101,13.5127,15.1235,-0.3841,20.6314,27.2550,8.6349,-7.7555,25.4847,24.9254,6.9844
656.2500,7.7522,2.3652,9.6882,25.3331,28.2043,-9.0943,13.6827,31.8013,22.4647,13.5209,17.0336,-0.3351,23.1855,28.1312,11.6110,-6.8094,29.0451,24.4438,6.5563
660.1562,9.4622,3.5566,8.3081,22.2904,29.9173,-7.8690,12.9767,30.1766,24.1249,10.9259,16.2257,1.1015,25.6860,24.9229,14.2153,-4.6922,31.9568,22.2114,5.1245
664.0625,10.6637,3.2926,5.8223,19.1042,29.8961,-7.1446,10.6968,27.0849,24.7434,7.7072,14.5822,3.7458,27.3075,19.0764,16.2569,-2.0199,33.3534,19.6304,5.1394
667.9688,11.0393,1.9649,4.3154,17.2613,28.3458,-6.9874,9.0690,24.3270,24.1825,5.7845,14.0636,6.7177,27.4361,13.1715,17.6016,0.3403,32.8798,17.8465,7.8814
671.8750,10.6958,0.7627,5.1407,16.8780,25.8840,-6.8745,9.4784,22.5525,22.5963,5.4861,15.1651,9.1574,26.2280,9.3220,17.8793,1.7785,30.9685,17.0437,12.3488
675.7812,10.0757,0.8447,7.9600,16.6249,23.4564,-6.1699,11.5906,20.6710,20.5118,5.3443,16.6924,10.8073,24.6693,8.0707,16.6118,2.2221,28.5658,16.5535,16.0056
679.6875,9.6438,2.5272,11.2567,14.8256,22.0107,-4.6762,13.9525,16.8614,18.7667,3.3911,17.0475,11.9993,23.9689,8.4367,13.8294,2.0222,26.4718,15.5786,16.8637
683.5938,9.5672,5.0789,13.8359,10.8513,22.0086,-2.7894,15.4606,10.3355,18.2123,-1.0988,15.8931,13.1443,24.6598,8.8730,10.6077,1.5997,24.7957,13.8577,15.2099
687.5000,9.6137,7.2651,15.9373,5.6883,23.0923,-1.1322,16.3518,2.3454,19.2834,-6.8332,14.6959,14.2414,26.0991,8.3120,8.8205,1.1630,22.9796,11.7423,13.4988
691.4062,9.3550,8.2257,18.9208,1.2421,24.2313,-0.0033,17.8353,-4.4600,21.7065,-11.3294,15.5929,14.8517,26.8240,6.5978,10.0047,0.6942,20.4032,9.7436,14.4194
695.3125,8.5369,8.0284,23.7692,-1.0317,24.3633,0.8535,20.7359,-7.8473,24.5786,-12.6904,19.4812,14.5218,25.5831,4.2328,14.0937,0.1350,17.0970,8.0666,18.6762
699.2188,7.3440,7.5016,29.7559,-1.0619,23.1344,1.9429,24.4273,-7.5256,26.8122,-10.9443,24.9656,13.2376,22.3041,1.8856,19.0999,-0.4559,13.9540,6.5839,24.3142
703.1250,6.3400,7.5157,34.5643,0.0324,21.1800,3.4477,27.1022,-5.1858,27.6803,-7.9465,29.1453,11.4876,18.2492,0.1201,22.2145,-0.9356,12.1989,5.2096,28.1814
707.0312,6.0933,8.2992,35.9261,1.0019,19.6741,4.9315,27.2356,-3.0794,27.1168,-5.9958,29.7004,9.9049,15.1991,-0.5920,21.6687,-1.2369,12.4709,4.2098,28.3708
710.9375,6.7393,9.3302,33.4967,1.4422,19.4162,5.6323,25.0014,-2.3380,25.5972,-6.2811,26.6281,8.8453,14.2406,0.1330,17.9901,-1.4550,14.2245,4.0570,25.6694
714.8438,7.8039,9.8633,29.3776,1.8877,20.1211,5.1357,22.3679,-2.3716,23.7127,-8.3091,22.2193,8.2883,15.0459,2.3598,13.6479,-1.7336,15.9596,4.9194,22.8489
718.7500,8.4409,9.6323,26.7241,3.0425,20.4768,3.8399,21.6859,-1.7183,21.7458,-10.5997,19.2831,8.1093,16.1658,5.5156,11.2928,-2.0435,16.1724,6.3002,22.4034
722.6562,7.9425,9.1267,27.4340,4.9147,18.9937,2.7613,23.8666,0.4921,19.5235,-11.9453,19.0448,8.3953,16.0959,8.4020,11.9029,-2.0834,14.3627,7.2616,24.5920
726.5625,6.1714,9.1884,30.6943,6.6554,15.0638,2.7795,27.6266,3.7363,16.6137,-12.1976,20.3922,9.4413,14.3111,9.7689,14.2371,-1.4467,11.3674,7.1252,27.3563
730.4688,3.6162,10.2442,33.5309,7.2346,9.4707,3.9336,30.4187,6.5714,12.7012,-12.0789,21.0169,11.3949,11.5251,9.1582,15.9687,0.0507,8.7799,6.0415,28.1118
734.3750,1.0387,11.8093,32.9509,6.3273,3.9644,5.3826,30.2935,7.8703,7.8821,-12.3623,19.4416,13.9069,9.0431,7.3539,15.5469,2.1605,7.8765,4.8660,25.8787
738.2812,-1.0195,12.7069,28.0484,4.6086,0.1867,6.0980,27.2037,7.6915,2.6937,-13.2198,16.2323,16.1878,7.7521,5.9593,13.2935,4.3117,8.8052,4.3777,21.9925
742.1875,-2.5159,11.8881,20.5255,3.2038,-1.3102,5.7227,22.7697,7.0593,-2.1282,-14.2469,13.4182,17.5112,7.5108,6.2920,10.9090,5.9672,10.5590,4.5111,18.8751
746.0938,-3.7942,9.2440,13.3455,2.7920,-1.2904,4.8495,18.8203,6.9359,-6.0100,-15.0026,12.6640,17.7539,7.3404,8.3939,9.8870,6.9286,11.6752,4.3305,17.9655
750.0000,-5.2071,5.7781,8.6570,3.1541,-1.1986,4.4489,15.9967,7.3619,-8.8077,-15.4653,13.7681,17.4672,6.1940,10.9472,10.2076,7.3294,11.1149,2.8480,18.5683
753.9062,-6.7942,2.9791,6.5705,3.5256,-2.1523,4.9172,13.5607,7.5361,-10.8243,-15.9709,14.7630,17.3553,3.6921,12.2111,10.4005,7.3409,8.7422,0.0041,18.5398
757.8125,-8.2640,1.8421,5.5713,3.3851,-4.2686,5.5906,10.4485,6.7120,-12.5633,-16.7505,13.5279,17.5864,0.3195,11.2808,8.8857,6.8909,5.1890,-3.0959,16.1639
761.7188,-9.2697,2.2577,4.0272,2.9321,-6.7401,5.2209,6.5361,5.0460,-14.3532,-17.5781,9.5608,17.5689,-2.9683,8.6946,5.4218,5.6954,1.3411,-4.9911,11.5992
765.6250,-9.7247,3.2112,1.4875,2.8310,-8.5133,3.0892,2.9462,3.5930,-16.0709,-17.9107,4.4319,16.4634,-5.3571,5.9358,1.4109,3.6132,-2.1351,-5.0840,6.7042
769.5312,-9.8807,3.6239,-1.1867,3.5010,-9.0287,-0.1627,1.1176,3.4399,-17.1513,-17.3986,0.5457,14.0443,-6.5552,4.2660,-1.2196,1.0020,-4.9611,-4.1852,3.4552
773.4375,-10.0972,3.1886,-2.7667,4.6659,-8.4966,-2.7482,1.4741,4.7656,-16.9089,-16.2621,-0.7635,11.1551,-6.7538,3.8531,-1.6364,-1.3050,-7.1369,-3.8122,2.3396
777.3438,-10.4900,2.5710,-2.7380,5.6320,-7.5784,-2.9382,2.8944,6.6887,-14.9894,-15.1379,-0.2491,9.2690,-6.3117,3.8790,-0.8730,-2.4754,-8.7487,-4.7567,2.0706
781.2500,-10.7520,2.8419,-1.6105,6.0565,-6.7742,-0.3547,3.4956,8.0535,-11.6577,-14.5040,-0.0744,9.4061,-5.4581,3.4697,-1.0962,-2.2744,-9.8425,-6.1575,0.8038
785.1562,-10.3101,4.5866,-0.3248,6.4610,-6.0038,3.6753,2.1059,8.4578,-7.7163,-14.2094,-2.0217,11.2422,-4.2113,2.6091,-3.9345,-1.2836,-10.3768,-5.9974,-2.2288
789.0625,-8.7214,7.3678,0.5881,7.9195,-4.6832,7.0228,-0.7969,8.5962,-4.0956,-13.5728,-6.0478,13.1664,-2.5001,2.2381,-9.1888,-0.5190,-10.2033,-2.7645,-6.0454
792.9688,-6.0335,9.9416,1.3085,11.0923,-2.2219,8.2416,-3.4666,9.6004,-1.3966,-12.0030,-10.3276,13.3199,-0.3474,3.4634,-14.9323,-0.7121,-9.0919,3.0459,-8.7147
796.8750,-2.8595,11.0572,2.2737,15.4155,1.4318,7.4893,-4.2828,11.9488,0.2947,-9.6058,-12.7014,10.8636,2.0142,6.5655,-18.8962,-1.8170,-6.8662,8.9124,-8.8937
800.7812,-0.1182,10.2550,3.4642,19.2166,5.5935,6.1908,-3.0259,14.9098,1.2158,-7.2192,-12.3380,6.5213,4.1464,10.6565,-20.0526,-3.1394,-3.6466,11.9349,-6.8131
804.6875,1.3983,8.1090,4.1461,20.7793,9.1447,5.7673,-1.0269,17.0257,1.5645,-5.8102,-10.3062,2.0109,5.5256,14.2683,-19.1997,-3.9742,-0.0291,10.9456,-3.9714
808.5938,1.3866,5.7835,3.3454,19.5675,11.1501,6.4861,-0.1143,17.2380,1.3127,-5.7256,-8.6645,-1.1549,5.7646,16.3665,-18.1789,-4.2141,3.0411,7.4131,-1.9158
812.5000,0.1588,4.2611,0.6619,16.6326,11.4016,7.3529,-1.2247,15.7100,0.3857,-6.4310,-8.8516,-2.5601,4.8810,16.9617,-18.4060,-4.4195,4.7701,4.3681,-1.1928
816.4062,-1.4872,3.7935,-3.2777,13.8634,10.5453,7.0701,-3.7517,13.6683,-0.9585,-6.9527,-10.6478,-2.8425,3.4781,16.8768,-19.8567,-5.3050,5.1178,4.1525,-1.2729
820.3125,-2.5742,3.9049,-7.1158,12.6665,9.7151,5.2012,-6.0523,12.4365,-1.9540,-6.6340,-12.4566,-2.8893,2.6555,16.9697,-21.2143,-7.0961,5.0192,6.7487,-1.3326
824.2188,-2.3186,3.8601,-9.5772,13.1147,9.9021,2.5367,-6.6237,12.5067,-1.6456,-5.5598,-12.5962,-3.0362,3.5658,17.5325,-20.9619,-9.3176,5.9201,9.9957,-1.0529
828.1250,-0.4628,3.1986,-10.1638,14.1931,11.4638,0.3710,-5.0269,13.4104,0.4312,-4.3195,-10.5509,-2.9444,6.7825,18.3512,-18.5372,-11.1819,8.8289,11.4730,-0.6973
832.0312,2.5481,1.9575,-9.2447,14.8615,14.0785,-0.6501,-1.9593,14.4209,3.7275,-3.3740,-7.2588,-2.1601,11.8724,19.2554,-14.7151,-12.2133,13.5468,10.5005,-0.4944
835.9375,5.6627,0.4922,-7.5701,15.0067,17.1532,-1.0846,1.3990,15.3843,6.8282,-2.6332,-4.3110,-0.7406,17.5399,20.5369,-11.0316,-12.5331,18.7226,8.6392,-0.0334
839.8438,7.6387,-0.8872,-5.6785,15.5031,20.3707,-2.1508,4.1435,16.8997,8.3104,-1.6331,-2.7550,0.6967,22.3624,22.7692,-8.7518,-12.5562,22.8034,8.3398,1.6480
843.7500,7.6529,-2.1438,-3.6663,17.3785,23.9419,-4.5504,5.9758,19.6844,7.7618,-0.1271,-2.4081,1.5656,25.6706,26.1685,-8.1200,-12.4059,25.2262,10.8995,5.2857
847.6562,5.8077,-3.4425,-1.4170,20.8226,28.3263,-7.6942,7.0434,23.7063,6.1834,1.4959,-2.1232,1.9622,27.9330,30.1114,-8.3356,-11.6480,26.9038,15.4120,10.6077
851.5625,3.1997,-4.8740,1.0099,24.8570,33.5856,-10.0350,7.6192,27.8848,5.3874,2.4074,-0.7189,2.6942,30.2909,33.3251,-8.1600,-9.6768,29.5207,19.5145,16.2798
855.4688,1.4196,-6.2284,3.2199,27.8954,38.8677,-10.2641,7.9521,30.6638,6.7523,2.0316,2.1378,4.5588,33.5175,34.6617,-6.6996,-6.4665,34.0725,21.2282,20.6733
859.3750,1.7068,-7.0176,4.6959,28.6973,42.5124,-8.3687,8.3212,31.0096,10.2344,0.6322,5.6943,7.4652,37.1741,33.8211,-3.8955,-2.9891,39.7507,20.3309,22.8342
863.2812,4.2463,-6.7461,5.1993,26.9755,42.8698,-5.6405,9.0934,29.0354,14.4006,-0.7557,8.6191,10.2210,39.6705,31.4075,-0.4979,-0.7964,44.1210,18.1893,22.8803
867.1875,8.0632,-5.2404,5.0459,23.3058,39.3817,-3.6103,10.6291,25.7916,17.4937,-1.0536,9.8659,11.2905,39.2953,28.2880,2.3986,-0.9560,44.6090,16.3368,21.5982
871.0938,11.6043,-2.8083,5.0665,18.5941,33.1816,-2.8035,13.1096,22.4603,18.7381,0.0410,9.3376,9.9806,35.5155,24.8471,3.9912,-3.1475,40.2881,15.1318,19.7208
875.0000,13.6426,-0.1163,6.2893,13.6367,26.6974,-2.3778,16.4810,19.6379,18.8799,1.8069,7.9660,7.0815,29.5639,20.8152,4.2480,-5.7039,32.6605,13.6685,17.5894
878.9062,13.9169,2.1371,9.5102,9.0564,22.3848,-0.9633,20.5740,17.2185,19.5293,3.0197,7.1832,4.3692,23.8017,15.8132,3.9626,-6.6846,24.8090,10.9324,15.4363
882.8125,13.1015,3.5542,14.9150,5.4354,21.3510,2.0043,25.2230,14.8206,21.8073,2.8122,8.0910,3.3033,20.2459,10.0708,4.3066,-5.2294,19.4894,7.0632,13.8499
886.7188,12.1793,4.1834,21.8631,3.2731,22.7753,5.6099,30.1674,12.2648,25.3551,1.2007,10.7901,3.9429,19.3068,4.5931,6.0767,-2.1649,17.5164,3.5050,13.7601
890.6250,11.7042,4.4032,28.9318,2.6660,24.5418,8.0533,34.7663,9.6787,28.4954,-1.0809,14.2660,4.9659,19.6597,0.5464,9.0821,0.6214,17.5653,1.8556,15.7660
894.5312,11.4966,4.6278,34.3083,3.0268,24.6747,8.0502,37.8729,7.2477,29.4307,-3.2080,16.9446,4.7935,19.3465,-1.6205,12.1265,1.5697,17.4459,2.4295,19.3594
898.4375,10.9638,5.0202,36.4881,3.2613,22.6014,5.8764,38.2085,4.9817,27.5494,-4.7919,17.6458,2.9179,17.2851,-2.5069,13.7065,0.5317,15.8250,3.8520,22.8643
902.3438,9.7537,5.3903,35.0077,2.4414,19.3781,3.1674,35.1735,2.7824,23.8228,-5.9241,16.3658,0.3615,14.0652,-3.1841,13.0388,-1.2615,13.1023,4.1133,24.3780
906.2500,8.1982,5.3501,30.7673,0.4894,16.7516,1.6166,29.5271,0.7089,19.9993,-6.8404,14.3426,-1.0965,11.4499,-4.1847,10.6979,-2.2642,10.8618,2.2187,23.0963
910.1562,7.1727,4.6346,25.6251,-1.7490,15.7621,1.6461,23.2795,-0.9338,17.2497,-7.6228,13.2653,-0.2891,10.9838,-4.9750,8.3274,-1.8131,10.4362,-0.9841,19.9493
914.0625,7.4580,3.3802,21.3891,-3.1973,15.9171,2.1555,18.6547,-1.8849,15.3384,-8.2333,14.0867,2.4819,12.7610,-4.4522,7.5346,-0.5021,11.7589,-3.5274,16.9456
917.9688,9.0785,2.1493,18.8065,-3.4697,15.5372,1.5631,16.7567,-2.3505,12.9584,-8.7620,16.2559,5.7579,15.2635,-2.0912,8.7311,0.5025,13.3719,-3.9830,15.6749
921.8750,11.1267,1.6343,17.2539,-3.2070,13.0080,-0.7354,16.9285,-3.0545,8.9302,-9.5161,17.9916,8.0956,16.3586,1.2769,10.8073,0.5512,13.5084,-2.6295,16.1632
925.7812,12.2294,2.1881,15.3855,-3.4709,8.0072,-3.7252,17.3549,-4.6904,3.2855,-10.7438,17.5034,9.1048,14.7008,3.8319,11.9453,0.0416,11.3502,-1.1314,17.0177
929.6875,11.3540,3.4849,12.2824,-4.6856,1.8088,-5.5168,16.4964,-7.1512,-2.6327,-12.2236,14.3313,9.5295,10.5332,4.0837,10.9906,-0.0515,7.5008,-1.0392,16.7234
933.5938,8.4171,4.5816,8.2262,-6.0931,-3.5471,-4.8864,14.2391,-9.2748,-7.1208,-13.1911,9.7919,10.3861,5.3840,2.0706,8.3191,0.8060,3.4031,-2.4494,14.9665
937.5000,4.3063,4.4172,4.4778,-6.3105,-6.6001,-2.3461,11.8325,-9.5260,-9.3482,-12.8314,6.1185,11.9630,0.9779,-0.6179,5.4941,2.0786,0.2600,-4.0087,12.8297
941.4062,0.3367,2.4877,2.2297,-4.6013,-7.3578,0.1638,10.6720,-7.2200,-9.9002,-11.0146,4.8629,13.5560,-1.8088,-2.0948,3.9681,2.5272,-1.6712,-4.2393,11.6938
945.3125,-2.4768,-0.7349,1.5942,-1.7561,-7.1200,0.7485,10.9652,-3.2886,-10.2239,-8.6061,5.7431,14.1324,-3.2529,-1.6944,3.8854,1.2977,-2.9432,-2.9705,11.8362
949.2188,-3.8731,-3.9529,1.4924,0.3030,-7.4220,-0.9640,11.4498,0.1854,-11.4411,-6.9499,6.8460,13.3016,-4.2698,-0.4655,3.9961,-1.2006,-4.1977,-1.5531,12.0189
953.1250,-4.2991,-5.7338,0.5825,0.0119,-8.9045,-3.5235,10.4529,1.4620,-13.4713,-6.8274,6.0826,11.7130,-5.5846,-0.1739,2.7920,-3.4223,-5.5415,-1.6217,10.5121
957.0312,-4.4791,-5.3393,-1.5296,-2.4465,-10.9207,-4.7761,7.4095,0.5186,-15.1298,-7.7411,2.8068,10.5278,-7.2242,-1.6361,-0.0708,-3.7885,-6.5210,-3.4966,6.7044
960.9375,-4.9267,-3.1692,-3.8402,-5.0945,-12.1151,-3.5182,3.5068,-0.8811,-15.0911,-8.2093,-1.6574,10.4298,-8.6231,-3.8286,-3.2924,-1.9007,-6.6241,-5.6940,1.8658
964.8438,-5.6922,-0.5198,-4.7154,-5.6335,-11.4937,-0.3875,0.8130,-0.6061,-12.9428,-6.9433,-5.0136,11.0512,-9.1369,-4.6107,-4.8912,1.1271,-5.7943,-6.0680,-1.7106
968.7500,-6.4309,1.2048,-3.3074,-3.3042,-9.1820,2.6802,0.5478,2.0254,-9.5256,-3.9745,-5.7577,11.3229,-8.5118,-2.5258,-3.8905,3.5085,-4.4892,-3.6514,-2.5639
972.6562,-6.6714,1.3241,-0.4578,0.4318,-6.3456,3.9687,1.9396,5.5609,-6.3259,-0.7382,-4.3379,10.4552,-6.9838,1.8260,-1.3397,4.1395,-3.2671,0.4163,-1.3698
976.5625,-6.0853,0.2206,1.7204,3.0464,-4.3721,3.2636,2.6926,7.5324,-4.4115,1.0591,-2.7985,8.7016,-5.0242,6.0666,0.2627,3.3911,-2.3102,3.7546,-0.5250
980.4688,-4.6225,-1.0177,1.3347,3.0562,-3.9304,1.9206,0.7602,6.5430,-3.7094,0.9119,-3.1841,7.2427,-2.9983,7.8304,-1.1959,2.7262,-1.3258,4.7228,-2.2516
984.3750,-2.4954,-1.3929,-1.8711,1.3261,-4.5656,1.7145,-4.0033,3.5838,-3.1350,0.0691,-5.9534,7.2719,-1.0051,6.6298,-5.7539,3.4768,0.0982,3.8192,-6.7369
988.2812,-0.0759,-0.6844,-6.3064,0.3984,-5.0718,3.4062,-9.6882,1.3858,-1.4488,0.6027,-9.6351,9.0439,1.0364,4.2337,-11.1965,5.7811,2.0212,3.2355,-11.8535
992.1875,2.2266,0.4243,-9.7185,2.3123,-4.3404,6.1381,-13.8252,2.2217,1.7819,3.6668,-11.9716,11.6689,3.1800,3.2039,-14.6001,8.5137,3.9912,4.8764,-14.7409
996.0938,4.0672,0.8441,-10.8446,6.7107,-2.0885,8.0825,-15.3062,5.9301,5.7680,8.3759,-11.6341,13.8051,5.3079,4.7783,-14.4499,10.2113,5.3431,8.5251,-13.9990
1000.0000,5.2383,-0.1564,-10.2395,10.8924,0.9994,7.7986,-15.1357,9.8646,8.8900,12.3125,-9.1756,14.6574,7.1475,7.8747,-11.7038,10.1980,5.6993,11.7944,-10.7290
1003.9062,5.7112,-2.4401,-9.6599,11.9001,3.7631,5.2581,-15.3914,10.9354,9.6404,13.3612,-6.5238,14.4639,8.4220,10.0764,-8.9873,8.9984,5.2633,12.0297,-7.5956
1007.8125,5.6380,-5.0714,-10.5518,9.0100,5.3326,1.8121,-17.2853,8.1602,7.5558,11.4341,-5.4661,14.1131,9.0419,9.8003,-8.5497,7.7622,4.6967,8.6391,-6.6970
1011.7188,5.3146,-6.8956,-12.8817,4.5593,5.6688,-0.8006,-19.9781,3.6315,3.6187,8.6661,-6.3226,14.2703,9.2308,7.8166,-10.5580,7.2469,4.7273,3.8720,-7.9754
1015.6250,5.1125,-7.2362,-15.2224,2.3301,5.5595,-1.6231,-21.1736,1.0349,-0.0945,7.8559,-7.7851,14.7730,9.5085,6.7818,-13.0033,7.2369,5.8134,1.2823,-9.4137
1019.5312,5.3961,-6.2656,-15.9541,4.6937,6.1058,-1.0009,-19.0120,2.8436,-1.3639,10.3568,-7.9529,14.7829,10.4951,9.0895,-13.2237,6.8595,8.0694,3.0243,-8.7773
1023.4375,6.4330,-4.8463,-14.5480,10.7691,8.0357,-0.1692,-13.6816,8.4265,1.0702,15.0879,-5.7092,13.5191,12.5891,14.7687,-9.8332,5.4776,11.3764,8.1403,-5.4272
1027.3438,8.3074,-3.9794,-11.8979,17.0764,11.2633,-0.3023,-7.3965,14.5968,6.7996,19.4393,-1.4288,10.9193,15.6740,21.1856,-3.6284,3.3631,15.4601,13.2449,-0.7537
1031.2500,10.8601,-4.2224,-9.5011,20.1781,14.9523,-1.7320,-2.7551,18.1509,13.8431,21.3127,3.3813,7.6866,19.0703,24.8688,3.0737,1.5677,19.8371,15.0897,3.0119
1035.1562,13.6974,-5.4140,-8.2372,19.2123,18.0367,-3.8241,-0.8365,18.3246,19.5813,20.6363,7.0879,4.7307,21.8479,24.0597,8.0089,1.1012,23.7706,12.9769,4.5234
1039.0625,16.3042,-6.8283,-7.7628,16.3373,19.8792,-5.4965,-0.5800,17.1818,22.1029,19.1674,8.8026,2.5170,23.3769,19.9845,10.2182,2.1066,26.4548,9.1305,4.1544
1042.9688,18.2397,-7.6171,-6.9491,14.8123,20.6549,-5.9499,0.1112,17.6616,21.2231,18.8360,8.6139,0.8671,23.7631,15.8633,10.1914,3.7056,27.4497,6.7973,3.3747
1046.8750,19.3249,-7.2624,-4.8970,16.3252,21.2063,-5.1258,2.5401,20.9425,18.5315,20.0782,7.2530,-0.6882,23.8032,14.4601,9.0861,4.6238,27.0716,7.6653,3.3660
1050.7812,19.7023,-5.7960,-1.6369,19.7136,22.4377,-3.6563,6.2111,25.3160,16.3677,21.5555,5.6149,-2.3818,24.4021,16.1047,7.8568,4.0831,26.3428,10.6651,4.1357
1054.6875,19.7138,-3.7087,2.0163,22.0096,24.6269,-2.4046,9.4300,27.4868,16.3281,21.4345,4.4603,-3.9976,25.8199,18.6697,6.9780,2.2778,26.3811,13.0209,4.8257
1058.5938,19.6661,-1.6479,5.2140,20.8354,27.1208,-1.9090,10.8922,25.2048,18.2822,19.0595,4.2951,-5.1183,27.3348,19.3937,6.7403,0.1361,27.5842,12.5718,4.7881
1062.5000,19.6494,-0.0951,7.7057,16.1643,28.6644,-2.0475,10.8343,19.0667,20.6042,15.5505,5.2638,-5.5435,27.6732,17.0027,7.5532,-1.3561,29.2290,9.4198,4.3481
1066.4062,19.5461,0.8111,9.8353,10.1152,28.1991,-2.0992,10.7788,12.0619,21.4953,12.8252,7.0278,-5.4494,25.9804,12.4613,9.7871,-1.7098,29.8792,5.6369,4.5434
1070.3125,19.2247,1.2491,12.0215,5.1465,25.6256,-1.1711,12.1660,7.3121,20.4586,11.9320,8.8199,-5.1487,22.6191,7.8973,13.2741,-1.0124,28.3956,3.4225,6.1300
1074.2188,18.7507,1.5440,14.3031,2.2737,21.9979,1.2287,15.1269,5.8879,18.8053,12.1748,9.8405,-4.7212,19.1115,4.7453,17.0465,0.3688,24.8286,3.3429,8.8308
1078.1250,18.4120,1.9719,16.3879,0.7449,18.9645,4.7880,18.4615,6.4031,18.7314,11.7990,9.8378,-3.9216,17.1449,2.7007,19.7490,2.0802,20.4924,4.0899,11.5488
1082.0312,18.4961,2.6429,18.0844,-0.7724,17.7775,8.4229,20.7685,6.5266,21.5686,9.6261,9.4007,-2.4983,17.3148,0.2883,20.5198,3.8124,17.1064,3.8221,13.3368
1085.9375,18.9752,3.4927,19.5821,-2.7456,18.5117,10.7881,21.6436,4.9827,26.5057,6.1800,9.5859,-0.6226,18.5775,-3.5545,19.6235,5.1561,15.6074,1.8178,14.1882
1089.8438,19.3749,4.3458,21.2061,-4.4241,20.0209,11.0099,21.8489,2.3463,30.8158,3.2894,11.0277,1.0347,18.9261,-8.2982,18.2383,5.5914,15.5212,-0.9960,14.8836
1093.7500,18.9987,4.9890,22.8500,-4.8106,20.6769,9.1994,22.3424,0.1255,31.5586,2.4921,13.2201,1.7586,16.8811,-12.0570,17.5101,4.7765,15.3796,-3.0055,16.0446
1097.6562,17.4073,5.2206,23.7131,-3.9184,19.4035,6.3960,23.1370,-0.8489,27.6105,3.6351,14.6762,1.4544,12.7012,-13.0244,17.6538,2.9490,13.8701,-3.4053,17.3393
1101.5625,14.8138,4.8917,22.7711,-3.0146,16.3150,3.9457,23.1250,-1.1862,20.5643,4.9200,14.0171,0.9340,8.3481,-10.9039,17.8865,1.0377,10.8401,-2.8578,17.6892
1105.4688,12.0585,3.9653,19.7121,-3.5354,12.5444,2.7138,21.1011,-2.1961,13.7910,4.3953,11.2145,1.4884,6.1368,-7.1831,17.2725,0.2493,7.3830,-2.7589,16.3859
1109.3750,10.1033,2.5858,15.5216,-5.6512,9.4106,2.6632,17.0600,-4.4291,10.2648,1.6309,7.9240,3.9869,7.0191,-4.0830,15.7353,1.3361,4.9440,-3.8305,14.0896
1113.2812,9.3546,1.0948,12.0519,-7.8734,7.5186,3.0699,12.5096,-6.9471,10.6363,-1.8706,6.4674,8.1711,9.7764,-3.0661,14.3020,4.0676,4.1447,-5.3558,12.6598
1117.1875,9.2976,-0.0745,10.7362,-8.1986,6.4147,3.1755,9.3797,-8.0728,12.8738,-3.8982,8.1112,12.7068,11.7660,-4.0492,14.2854,7.3346,4.2448,-5.7812,13.7502
1121.0938,8.7534,-0.6234,11.4168,-5.8796,5.0039,2.7477,8.3932,-6.9618,13.6817,-3.3635,11.9710,15.9812,10.7153,-5.7987,16.0570,9.8412,3.6661,-4.1656,17.2701
1125.0000,6.6418,-0.6140,12.2992,-2.2600,2.4038,2.1200,8.3482,-4.5231,10.6862,-1.1834,15.4901,17.0632,6.2744,-7.0260,18.4849,10.8849,1.1922,-1.1841,21.0901
1128.9062,2.7592,-0.5192,11.2141,0.1549,-1.3804,1.7303,7.0547,-2.7618,3.9033,0.5202,16.2372,16.1365,0.2161,-7.2452,19.6087,10.6624,-3.0589,1.2419,22.4309
1132.8125,-1.9711,-0.9898,7.2858,-0.3048,-5.4170,1.6115,3.2411,-3.0503,-4.4102,0.2021,13.6758,14.1585,-4.8209,-6.8217,18.0843,9.9292,-7.6191,1.4284,19.9489
1136.7188,-5.9757,-2.4219,1.7134,-3.0773,-8.4517,1.3291,-2.1639,-4.8567,-11.2729,-1.8728,9.5172,12.1041,-7.0917,-6.3948,14.2479,9.3541,-10.6291,-0.6985,14.8503
1140.6250,-7.9457,-4.5902,-2.9846,-5.7914,-9.7248,0.4597,-6.5299,-6.1248,-14.7381,-3.9693,6.3590,10.4225,-6.7410,-6.3220,9.9150,9.1101,-11.0802,-3.4818,10.0610
1144.5312,-7.5942,-6.6314,-4.7011,-6.1913,-9.4634,-0.8113,-7.4945,-5.0522,-14.7572,-4.4405,5.6853,9.0670,-5.4087,-6.6094,7.0488,8.9862,-9.4653,-4.7605,8.0353
1148.4375,-5.7681,-7.4711,-3.1280,-3.9597,-8.7556,-1.5655,-4.8311,-1.7379,-12.7576,-3.1053,6.8236,7.9232,-4.8775,-7.2256,6.3567,8.8188,-7.4083,-3.4348,8.9152
1152.3438,-3.8600,-6.4800,0.2173,-0.9015,-8.9158,-0.7350,-0.6804,1.7843,-10.4501,-1.2455,7.6674,7.1364,-5.8446,-8.3310,6.9202,8.7770,-6.5675,-0.1376,10.4956
1156.2500,-2.9289,-3.9476,3.2224,0.6533,-10.7470,1.9872,2.0531,3.2333,-8.7831,-0.2776,6.5196,7.0031,-7.6802,-10.1098,7.0937,9.2055,-7.5802,3.4290,9.9971
1160.1562,-3.1070,-1.0274,4.5907,-0.1483,-14.1086,5.6501,1.8284,2.0695,-7.6744,-0.3500,3.4898,7.5586,-9.1893,-12.3753,5.8641,10.1813,-9.7342,5.8287,6.2019
1164.0625,-3.6495,0.8691,4.3247,-1.9831,-17.9858,8.4616,-0.6069,0.0443,-6.4924,-0.1803,0.2804,8.3213,-9.6307,-14.4177,3.5240,11.2432,-11.5218,6.7727,0.2593
1167.9688,-3.5372,0.8791,3.0772,-2.5264,-20.9644,8.9239,-3.1764,-0.2204,-4.7660,1.6811,-1.4194,8.5280,-9.1580,-15.3606,1.1518,11.6273,-11.6456,6.9367,-5.3862
1171.8750,-2.1942,-0.8104,1.1717,-0.4489,-21.8490,6.8892,-4.4121,2.5507,-2.5761,5.2997,-1.5149,7.7264,-8.4314,-14.7871,-0.5565,10.8759,-9.8046,7.0664,-8.9481
1175.7812,0.1471,-3.0931,-1.6937,3.4987,-20.1442,3.7238,-4.6750,7.1720,-0.4428,8.9797,-1.6564,6.2095,-7.8667,-13.0800,-2.0126,9.3055,-6.8018,7.2816,-10.4808
1179.6875,2.6272,-4.6271,-5.7945,7.2135,-16.2315,1.3969,-5.6505,10.9576,1.0812,10.5226,-3.7877,4.8604,-7.2403,-11.1320,-4.3450,7.8728,-3.9839,7.1705,-11.3998
1183.5938,4.3059,-4.6340,-10.5127,9.0697,-11.2065,1.1174,-8.6449,11.9424,1.7537,9.1116,-8.3246,4.4644,-5.9842,-9.6479,-8.2369,7.4615,-2.4311,6.4498,-12.9174
1187.5000,4.6907,-3.3178,-14.2842,9.1826,-6.4545,2.4940,-13.2561,10.4410,1.7083,6.1674,-13.5629,5.0340,-3.8641,-8.6458,-13.0469,8.1253,-2.4091,5.4289,-14.8672
1191.4062,3.9322,-1.6694,-15.6639,8.9825,-3.1228,3.8193,-17.6306,8.5855,1.2726,4.3238,-16.9099,5.7262,-1.3976,-7.6050,-17.0568,8.9177,-3.3750,4.7589,-15.9631
1195.3125,2.6302,-0.8274,-14.6890,9.5438,-1.6804,3.2573,-20.0868,8.2518,0.7191,5.2721,-16.9775,5.4611,0.3917,-6.1053,-18.7233,8.5080,-4.4523,4.7049,-15.1960
1199.2188,1.4459,-1.4212,-13.2525,10.2827,-1.7455,0.0740,-20.6379,9.2198,0.1228,8.2601,-14.8002,3.7630,0.7050,-4.3322,-17.9266,6.1569,-5.0157,4.7123,-13.0305
1203.1250,0.7887,-3.2846,-13.9005,9.3492,-2.2683,-4.9386,-21.0048,9.2577,-0.6083,10.5716,-13.1152,1.1368,-0.4053,-2.9222,-16.1627,2.3126,-4.9906,3.8083,-11.2358
1207.0312,0.7377,-5.6462,-17.8131,5.4923,-2.0094,-10.0658,-23.0269,6.1526,-1.5609,9.6947,-14.2249,-1.3385,-2.0115,-2.2466,-15.4735,-1.6403,-4.6944,1.5794,-11.4265
1210.9375,1.1657,-7.6030,-23.5766,-0.2559,-0.1131,-13.7911,-26.8188,-0.0252,-2.5979,5.4534,-18.1439,-2.8753,-2.8916,-1.8130,-16.9288,-4.3061,-4.3717,-1.1602,-13.5752
1214.8438,1.9205,-8.5551,-27.8781,-4.7420,3.4914,-15.6232,-30.3154,-6.4423,-3.2285,0.3470,-22.5115,-3.5948,-2.2573,-0.4398,-19.8294,-5.1898,-3.7977,-2.7226,-15.8467
1218.7500,2.9250,-8.3822,-27.7681,-4.8523,8.0504,-16.1295,-30.7043,-9.3704,-2.6966,-2.2316,-24.3281,-4.3965,-0.1155,2.7970,-22.2113,-4.9372,-2.2895,-1.7704,-15.9872
1222.6562,4.1702,-7.3490,-22.8181,-0.0435,12.3297,-16.2960,-26.6388,-6.9785,-0.3333,-0.5041,-22.1177,-6.1881,2.9067,7.5884,-22.2053,-4.7699,0.8207,1.5588,-13.1504
1226.5625,5.6591,-5.8783,-15.4872,6.8791,15.1725,-16.7736,-19.4166,-0.7807,3.9588,4.4335,-16.8394,-9.1092,6.0198,12.2752,-19.2057,-5.5870,5.5601,5.6046,-8.6359
1230.4688,7.3785,-4.3495,-9.3686,11.5529,15.9975,-17.5343,-12.1347,5.4699,9.3937,9.5546,-10.9499,-12.3702,8.6281,14.8359,-14.0580,-7.4137,11.0211,8.3343,-4.9116
1234.3750,9.3126,-2.9957,-6.6472,11.1600,15.0004,-18.0688,-7.4819,8.5690,14.4668,12.2213,-6.5255,-14.8199,10.4062,14.3012,-8.3175,-9.5512,15.7063,8.8044,-3.7255
1238.2812,11.4491,-1.8893,-6.7150,6.4479,12.9736,-17.8556,-5.9271,8.0895,17.6461,11.9971,-4.0134,-15.7693,11.2270,11.4954,-3.3036,-11.2117,18.3772,7.7531,-4.8537
1242.1875,13.7346,-0.9818,-6.9466,1.0783,10.8584,-16.7232,-5.6934,6.3061,18.2480,10.5770,-2.5011,-15.4170,11.1687,8.4833,0.3439,-12.0745,18.8619,6.8512,-6.4624
1246.0938,15.9933,-0.1768,-4.9132,-1.1865,9.2834,-14.9121,-4.4068,5.9983,16.9263,10.0574,-1.0168,-14.5726,10.6375,7.1089,2.4938,-12.3284,18.2222,7.2540,-6.6854
1250.0000,17.8943,0.5780,-0.2187,0.7560,8.3441,-12.8968,-0.9716,8.0494,15.3664,11.1005,0.4685,-13.9492,10.4013,7.7363,3.1883,-12.2387,18.0833,8.6672,-5.0377
1253.9062,19.0424,1.2239,5.4547,4.7636,7.7413,-11.1460,3.8437,10.8451,15.2924,12.5220,1.2685,-13.6056,11.3096,9.1354,2.6154,-11.6800,19.5296,9.6873,-2.5140
1257.8125,19.1873,1.6089,9.9671,7.3804,7.1709,-9.9405,8.4270,11.8810,17.4125,12.5273,1.1354,-12.9584,13.7528,9.5305,1.3777,-10.0935,22.3293,9.0802,-0.4225
1261.7188,18.4268,1.6106,12.5342,6.6200,6.6845,-9.2729,11.8811,10.0970,21.0264,10.4099,1.1064,-11.2957,17.2337,7.9297,0.5964,-6.9523,25.0670,6.8820,0.9043
1265.6250,17.2459,1.2924,14.1930,3.3547,6.7414,-8.8385,14.6778,6.8754,24.5806,7.1929,3.0452,-8.3496,20.4665,4.6941,1.4589,-2.3748,26.1232,4.3845,2.3391
1269.5312,16.3096,0.9619,16.6150,0.3145,7.8687,-8.1627,17.8801,4.8427,26.7667,4.6903,8.0938,-4.4947,22.0685,1.0052,4.3838,2.6313,24.8125,3.0552,4.9681
1273.4375,16.0961,1.0399,20.3944,-0.3117,10.1360,-6.8848,21.7550,5.5313,27.3548,3.8751,15.3461,-0.4807,21.4296,-2.1881,8.4894,6.5572,21.8490,3.3493,8.8488
1277.3438,16.5914,1.7913,24.3546,1.3828,12.8402,-5.0821,25.1525,7.9426,27.1586,4.0307,22.0306,3.0307,19.1367,-4.7947,11.9698,8.2140,18.8008,4.4303,12.7187
1281.2500,17.2589,3.1030,26.4792,3.3080,14.7056,-3.3829,26.3166,9.2719,27.2036,3.4452,25.2825,5.7702,16.6107,-7.2944,13.2795,7.4612,16.9529,4.9881,14.9807
1285.1562,17.3389,4.4969,25.6380,3.2867,14.5714,-2.6711,24.4527,7.2034,27.7935,1.0313,24.2074,7.8501,15.1878,-9.9108,12.2880,5.3537,16.4479,4.3829,15.1040
1289.0625,16.3079,5.4074,22.5894,0.8679,12.1586,-3.4713,20.6352,1.8500,28.2261,-2.5701,20.5832,9.5470,15.2970,-12.0873,10.4603,3.5910,16.3521,3.0897,14.1631
1292.9688,14.2059,5.5440,19.3801,-2.4668,8.3770,-5.4231,17.1682,-4.2737,27.3736,-5.3937,17.5696,11.0877,16.3084,-12.8019,9.8253,3.5878,15.5627,2.0841,13.9689
1296.8750,11.6079,5.0714,17.6680,-4.7399,4.8861,-7.3107,15.8583,-8.1960,24.6284,-5.7488,17.3847,12.5470,17.1047,-11.4613,11.4660,5.7112,13.8048,1.7856,15.5021
1300.7812,9.2492,4.4621,17.4192,-5.1895,3.1267,-7.7615,16.6450,-8.7151,20.4282,-3.6601,19.7461,13.8191,16.8880,-8.5623,14.6897,9.1184,11.8952,1.5715,18.0066
1304.6875,7.5477,4.1259,17.0932,-4.7492,3.4349,-6.1955,17.7605,-7.1057,15.9287,-0.9259,22.2646,14.6024,15.5978,-5.4892,17.5329,12.2714,11.0426,0.3442,19.5621
1308.5938,6.3392,4.1010,15.1289,-4.9715,4.8377,-3.3199,17.2933,-5.8327,12.1059,0.2573,22.4105,14.4345,13.6804,-3.5694,18.2009,13.8163,11.7359,-2.3493,18.6755
1312.5000,4.9998,4.0483,11.4158,-6.4783,5.6759,-0.7190,14.8190,-6.4667,9.0322,-1.0385,19.4462,12.8737,11.4954,-3.1648,16.3144,13.3222,13.1285,-5.6887,15.5339
1316.4062,2.8659,3.5524,7.4584,-8.3952,4.6264,0.2422,11.7023,-8.5754,5.9181,-3.8763,14.8204,9.8288,8.9170,-3.5474,13.0190,11.4633,13.4565,-8.0864,11.8371
1320.3125,-0.3298,2.4864,5.0916,-9.2785,1.4250,-0.5892,9.8224,-10.4254,1.8703,-6.3538,10.8312,5.8415,5.4829,-3.6337,9.9639,9.5536,11.2319,-8.4609,9.3492
1324.2188,-4.2762,1.1483,4.8685,-8.6459,-3.1678,-2.0394,9.8463,-10.7353,-3.2634,-7.1766,8.7700,2.0380,0.9501,-2.9244,8.0575,8.7257,6.3418,-7.1890,8.4199
1328.1250,-8.2385,0.0675,5.5417,-7.6456,-8.0356,-2.5018,10.5758,-9.8639,-8.6378,-6.5700,8.0999,-0.3487,-4.2361,-1.8517,7.0219,9.2638,0.2494,-5.8682,7.7590
1332.0312,-11.4077,-0.3543,5.1193,-8.1581,-12.4333,-1.1771,9.9718,-9.4036,-12.9184,-5.8277,7.2596,-0.6453,-8.9812,-1.2857,6.0228,10.5097,-4.8419,-6.0226,5.6682
1335.9375,-13.2135,-0.0770,2.6186,-11.0496,-16.2064,1.3051,7.0039,-10.5994,-15.1165,-5.9873,5.2832,0.8766,-12.0933,-1.6901,4.7054,11.4025,-7.2562,-7.8100,1.6685
1339.8438,-13.4587,0.6342,-0.9804,-15.1114,-19.4113,3.3834,2.7316,-13.0421,-15.1079,-6.8345,2.7701,3.2180,-12.9485,-2.6952,3.6488,11.2826,-6.6806,-9.8272,-2.8895
1343.7500,-12.2944,1.4698,-3.4267,-17.6946,-21.7720,3.7952,-0.3635,-14.8123,-13.5188,-7.0933,1.3587,5.3529,-11.8004,-3.4399,3.8051,10.3907,-4.0930,-10.2123,-5.7950
1347.6562,-10.1512,2.2870,-3.0151,-16.6173,-22.5501,2.5603,-0.3162,-13.9588,-11.2074,-5.5901,2.1759,6.8872,-9.5592,-3.3289,5.4319,9.6851,-0.9857,-8.1588,-5.7436
1351.5625,-7.6906,3.0922,-0.0667,-11.8248,-21.0278,0.9262,2.6635,-10.0411,-8.8369,-2.3477,4.6197,8.1617,-7.2564,-2.4944,7.5109,10.0845,1.4774,-4.6077,-3.4455
1355.4688,-5.7215,3.8485,3.1240,-5.4525,-17.2275,0.3238,6.1607,-4.4477,-6.8294,1.3399,6.5487,9.7246,-5.5799,-1.5615,8.2560,11.6929,2.8333,-1.5612,-1.1616
1359.3750,-4.9840,4.3415,3.8435,-0.2537,-12.2156,1.1886,7.2034,0.7117,-5.5498,3.8903,5.7671,11.6403,-4.7233,-0.9835,6.3759,13.6155,3.1608,-0.5887,-1.0452
1363.2812,-5.8060,4.2861,0.8159,2.3305,-7.6281,2.6170,4.3196,4.1349,-5.3456,4.6121,1.6294,13.2614,-4.5101,-0.6099,2.0876,14.5617,2.7297,-1.7244,-3.6172
1367.1875,-7.8158,3.6127,-5.0170,2.9439,-4.6939,3.1453,-1.5317,5.9909,-6.2732,4.0971,-4.4846,13.7131,-4.5884,0.0849,-2.9538,13.8230,1.8211,-3.5862,-7.5305
1371.0938,-9.9675,2.6605,-11.2725,3.4303,-3.4888,2.0100,-7.7596,7.2826,-7.7725,3.5688,-10.1417,12.7111,-4.5515,1.3432,-6.7760,11.8785,0.7786,-4.5189,-10.7012
1375.0000,-10.9866,2.0405,-15.7490,5.1571,-3.0236,-0.1488,-11.9372,8.6367,-8.7331,3.8271,-13.4564,10.9963,-4.0074,2.7087,-8.3893,10.1128,0.0621,-3.7726,-11.8114
1378.9062,-10.0505,2.2048,-17.6502,7.9779,-2.1204,-1.7312,-13.2181,9.6920,-8.1125,4.7196,-14.1023,9.9374,-2.6945,3.3285,-8.2849,9.7990,0.0907,-1.8018,-11.0193
1382.8125,-7.2908,3.0516,-17.6417,10.5971,-0.3867,-1.4218,-12.4614,9.6105,-5.7148,5.5283,-13.0998,10.5334,-0.6477,2.7635,-7.8258,11.0928,0.9365,0.4094,-9.4806
1386.7188,-3.7577,3.9240,-16.9496,11.8518,1.4996,0.7653,-11.2430,8.1433,-2.4633,5.8147,-11.7642,12.5869,1.7213,1.5617,-8.1065,12.8316,2.1723,2.2707,-8.2839
1390.6250,-0.8230,4.0705,-16.3625,11.6951,2.4310,3.4699,-10.6990,6.1508,0.1879,5.8822,-10.7741,14.7320,3.7757,0.9868,-9.2123,13.3429,3.1096,3.9259,-7.7567
1394.5312,0.6097,3.2411,-15.8666,11.0476,1.9043,4.9950,-11.0406,5.0086,1.3423,6.4153,-10.0462,15.3393,5.0101,2.0278,-10.3887,11.6810,3.3200,5.7985,-7.6043
1398.4375,0.5739,1.9368,-14.9733,10.7787,0.5750,4.5216,-11.8423,5.4050,1.3879,7.6559,-9.3087,13.6160,5.3787,4.5105,-10.8467,8.3449,3.0266,7.8925,-7.5234
1402.3438,-0.1098,1.0708,-13.2529,10.8622,-0.1592,2.5811,-12.5709,6.6667,1.7003,8.9341,-8.6795,10.0539,5.3333,7.1288,-10.4506,4.9015,3.0036,9.5890,-7.5690
1406.2500,-0.4579,1.2689,-10.5907,10.5344,0.7698,0.4759,-12.8120,7.3152,3.4777,9.0684,-8.6625,5.9145,5.5173,8.4689,-9.7348,2.7843,4.0100,10.1644,-7.9160
1410.1562,0.0451,2.3521,-7.1075,9.2900,3.2526,-0.8125,-12.1570,6.4349,6.6374,7.3574,-9.5946,2.2200,6.3459,8.2180,-9.3307,2.1971,6.2040,9.5339,-8.3521
1414.0625,1.2422,3.4308,-3.0380,7.7148,6.0942,-1.3174,-10.1370,4.6401,9.7399,4.3170,-11.1147,-0.8986,7.7976,7.5197,-9.3768,1.9896,9.0288,8.4828,-8.1408
1417.9688,2.6056,3.5589,1.2068,7.2594,7.9900,-1.8692,-6.5052,3.7059,11.1073,1.4844,-12.2016,-3.9857,9.5561,8.1003,-9.4302,0.6140,11.6787,8.1081,-6.5295
1421.8750,3.7325,2.4414,4.9222,9.0223,8.5899,-3.2419,-1.6862,5.0858,10.2763,0.3770,-11.8100,-7.4351,11.3314,10.8247,-8.9008,-2.5868,13.7487,8.9310,-3.4933
1425.7812,4.6156,0.6292,7.2590,12.5790,8.7630,-5.4379,3.1277,8.5603,8.5578,1.4088,-9.6066,-10.8440,13.0343,14.8620,-7.5777,-6.7859,15.4938,10.4683,0.0062
1429.6875,5.5040,-0.9521,7.7399,15.9647,9.8362,-7.7054,6.5408,12.2316,8.1289,3.6115,-6.2343,-13.1656,14.6487,18.1887,-5.7914,-10.2500,17.4587,11.6594,2.5845
1433.5938,6.5462,-1.7485,6.7798,16.9893,12.4393,-9.2085,7.8715,13.9692,10.2893,5.3585,-2.9330,-13.5618,15.9720,19.0702,-4.1304,-11.6355,19.8041,11.7791,3.4131
1437.5000,7.5810,-1.9743,5.6626,14.9093,15.9321,-9.7129,7.6873,13.1550,14.2760,5.5019,-0.8315,-12.2035,16.5718,17.3473,-3.0207,-10.9750,21.9608,11.0290,2.7963
1441.4062,8.2839,-2.3277,5.7830,11.0983,18.9080,-9.6807,7.4364,11.2562,17.6761,4.0523,-0.3978,-10.2698,16.1278,14.4973,-2.5256,-9.5765,22.9921,10.2817,1.8626
1445.3125,8.5241,-3.2660,7.6262,8.1112,20.3567,-9.7280,8.3915,10.6824,18.2229,1.9551,-1.3110,-9.0683,14.9162,12.4280,-2.4451,-8.9337,22.4171,10.2185,1.6642
1449.2188,8.5694,-4.4700,10.3168,7.8124,20.4935,-9.9741,10.7353,12.7986,15.6107,0.2512,-2.6819,-8.9731,13.9465,11.9846,-2.4990,-9.5372,20.7926,10.6456,2.4911
1453.1250,8.9001,-4.9847,12.2179,9.9953,20.5222,-9.8880,13.5384,16.6857,11.8663,-0.6625,-3.4101,-9.0832,14.4462,12.3547,-2.3786,-10.5421,19.4768,10.6191,3.9630
1457.0312,9.7577,-3.9609,12.2086,12.5355,21.4992,-8.7722,15.6279,19.6609,9.9163,-1.1465,-2.5597,-7.9360,16.9363,11.8011,-1.6985,-10.5426,19.6559,9.2754,5.7004
1460.9375,10.8337,-1.4040,10.6367,12.9229,23.2570,-6.4389,16.5809,19.1670,11.4161,-1.8465,0.2499,-4.7381,20.5899,9.0757,-0.0747,-8.8020,21.3635,6.6250,7.8120
1464.8438,11.4294,1.6994,9.1161,9.9864,24.3438,-3.4656,16.9709,14.5656,15.5201,-3.1195,4.5170,-0.1189,23.4955,4.3708,2.5625,-5.9265,23.3082,3.5927,10.6373
1468.7500,11.0188,4.0151,9.2525,4.5593,23.1215,-0.8001,17.6778,7.4893,19.5488,-4.8113,8.8452,4.2172,23.8094,-0.8873,5.6542,-3.4366,23.7290,1.2594,13.9825
1472.6562,9.7646,4.7691,11.2967,-1.2770,19.1789,0.9259,18.9250,0.5782,21.0181,-6.4600,11.4927,6.6779,21.0501,-5.1138,8.1072,-2.5896,21.6823,-0.0252,16.7083
1476.5625,8.5125,4.2133,13.8468,-5.6556,13.9003,1.7645,19.9688,-4.3304,19.4281,-7.6464,11.3671,6.8692,16.5665,-7.5668,8.9509,-3.4097,17.7851,-0.8755,17.3193
1480.4688,8.1915,3.2909,14.9003,-7.9624,9.6529,2.1985,19.7697,-7.1718,16.4363,-8.1929,8.8734,5.7399,12.7399,-8.5079,8.1629,-4.6954,13.8340,-2.2527,15.2649
1484.3750,9.0579,2.8005,13.4476,-8.8137,8.1516,2.5456,18.0570,-9.1819,14.3540,-8.1478,5.8883,4.7214,11.4168,-8.5594,6.9425,-4.9757,11.5761,-4.5587,11.8327
1488.2812,10.4041,2.7679,10.3259,-9.2272,9.2332,2.6225,15.7824,-11.5550,14.2459,-7.7045,4.6440,4.6138,12.6793,-7.9719,7.0079,-3.6290,11.5562,-7.2434,9.6387
1492.1875,11.0222,2.5481,7.6353,-9.7825,10.9782,2.0222,14.4693,-14.4009,15.1781,-7.1735,6.1659,5.1281,14.8534,-6.5016,9.2881,-1.2814,12.8828,-9.2525,10.8281
1496.0938,10.1021,1.5505,7.1810,-10.3918,11.0809,0.7560,14.9550,-16.7712,15.1651,-6.9442,9.4235,5.3981,15.7434,-3.9438,13.0126,0.7835,14.0187,-9.8838,15.2989
1500.0000,7.8562,-0.0597,9.1801,-10.6766,8.4184,-0.3885,16.6215,-17.5731,12.9443,-7.3048,11.9759,4.9409,14.1680,-0.7198,16.0565,1.6697,13.9153,-9.2804,20.4591
1503.9062,5.3411,-1.3302,12.2211,-10.4663,3.6562,-0.2362,17.8359,-16.5137,9.0453,-8.1564,11.7749,4.1838,10.6600,2.1317,16.4539,1.5009,12.5965,-8.1645,22.9165
1507.8125,3.5810,-1.2353,14.4206,-9.9648,-1.4738,1.8380,17.2802,-14.3224,5.2549,-8.8966,8.7896,4.0912,6.8605,3.6302,13.9726,1.1594,10.8090,-7.1454,20.9210
1511.7188,2.6847,0.4357,14.7710,-9.5315,-5.5446,5.1751,15.0407,-12.1865,2.9591,-8.7397,5.1176,5.2352,4.1485,3.6081,10.4378,1.4153,9.1472,-6.3128,15.6571
1515.6250,1.6989,2.7793,13.6116,-9.3705,-8.3276,7.9981,12.5040,-10.9518,1.8150,-7.3845,3.3714,7.1565,2.6138,2.8468,8.3971,2.2164,7.4635,-5.5031,10.3132
1519.5312,-0.6217,4.3717,11.9835,-9.4072,-10.5569,8.4958,11.1313,-10.6964,-0.0577,-5.5205,4.5519,8.6199,1.1614,2.4331,9.0767,2.7399,5.0836,-4.8986,7.6283
1523.4375,-4.6937,4.3304,10.5882,-9.3730,-12.8908,6.0773,11.1827,-10.8565,-4.4486,-4.6147,7.1463,8.5933,-1.3932,2.8807,11.2723,2.1430,1.6196,-5.2184,7.8816
1527.3438,-9.5250,3.0065,9.3247,-8.9212,-15.0490,1.8490,11.5287,-10.6372,-11.3087,-5.9300,8.2936,7.1419,-5.1670,3.7764,12.1823,0.3618,-2.3651,-7.1185,8.9506
1531.2500,-13.1926,1.7389,7.7451,-7.6722,-15.9069,-2.0825,10.7384,-9.3634,-18.3600,-9.4273,6.1826,5.4719,-8.9455,4.2407,9.6506,-1.7186,-5.4774,-10.2505,8.3570
1535.1562,-14.0860,1.8408,5.8599,-5.2880,-14.4808,-3.9812,8.4792,-6.6765,-22.4845,-13.4813,1.7390,5.0594,-11.0283,3.7614,4.0633,-2.8661,-6.3910,-12.9371,5.5421
1539.0625,-12.0171,3.6006,4.3940,-1.7183,-10.9537,-3.5162,5.9448,-2.6929,-21.8930,-15.8223,-1.8861,6.5546,-10.5130,2.6324,-1.7001,-2.3842,-4.8463,-13.0447,2.4057
1542.9688,-8.3710,6.0749,4.1407,2.4714,-6.8372,-1.7312,4.8478,1.8404,-17.4278,-15.1310,-1.7794,9.3339,-8.0121,1.6147,-4.3659,-0.5753,-1.9650,-9.5882,1.6002
1546.8750,-5.1794,7.8218,4.9784,6.0401,-4.0664,-0.0580,5.7942,5.6066,-12.0037,-12.0616,2.2155,12.0300,-5.2602,1.1708,-2.8421,1.5515,0.4033,-3.7923,4.0111
1550.7812,-3.7966,7.9837,5.5334,7.5789,-3.6944,0.7868,7.4700,7.2410,-8.6069,-8.7854,7.0032,13.5779,-3.9330,1.0314,0.7840,3.0503,0.8493,1.4348,7.6095
1554.6875,-4.1273,6.8752,3.9688,6.4335,-5.1858,1.1597,7.4404,6.2053,-8.3383,-7.2859,8.3222,13.9197,-4.5721,0.5349,2.7079,3.6621,-0.7383,3.4498,8.7731
1558.5938,-4.9115,5.6464,-0.6254,3.3955,-6.8394,1.8958,4.0035,3.4278,-9.8969,-7.7182,3.9157,13.8444,-6.3665,-0.5676,0.2730,3.8358,-3.2045,1.8418,5.1084
1562.5000,-4.7678,5.3358,-7.3784,0.4881,-7.0028,3.3492,-2.3971,1.0442,-10.7694,-8.2150,-4.6447,14.1757,-7.8575,-1.6447,-5.9673,4.2138,-4.9678,-1.1730,-2.5040
1566.4062,-3.1781,6.0882,-14.0871,-0.2234,-5.1710,4.9220,-9.3761,1.1430,-9.1384,-6.4262,-12.9308,15.0409,-7.9622,-1.5927,-12.6141,5.0547,-5.0434,-2.3713,-10.3490
1570.3125,-0.7189,7.1331,-18.6694,1.9545,-2.2057,5.4908,-14.2866,4.2665,-5.0988,-1.6364,-16.7303,15.8252,-6.5719,0.1532,-15.9525,6.0539,-3.5643,0.0035,-14.5190
1574.2188,1.5168,7.4772,-20.4781,5.7819,0.3809,4.3639,-16.0213,8.8160,-0.4154,4.2843,-14.9103,15.7874,-4.4048,2.9081,-14.6961,6.6367,-1.5365,4.8400,-13.6922
1578.1250,2.7538,6.6994,-20.4406,8.9124,1.4685,1.9588,-15.5097,11.9855,2.8131,8.0059,-9.9618,14.7378,-2.3786,5.0707,-10.8490,6.4054,-0.0944,8.9726,-9.8887
1582.0312,2.9623,5.2010,-19.9880,9.5774,0.9454,-0.3820,-14.6062,11.6980,3.4993,7.1966,-5.9465,13.1600,-1.0452,5.3601,-8.0837,5.3480,0.2089,9.6143,-6.7022
1585.9375,2.6344,3.7630,-19.7455,7.8632,-0.4222,-1.3136,-14.4032,8.1441,2.0149,2.4158,-5.5416,11.6799,-0.4406,3.9711,-8.9613,3.6903,-0.3269,6.5055,-6.5188
1589.8438,2.2248,2.8423,-19.1188,5.5746,-1.6076,-0.4414,-14.4275,3.7085,-0.3665,-3.1129,-8.4427,10.3837,-0.2929,2.6194,-13.1480,1.6082,-0.7834,2.0856,-8.9559
1593.7500,1.7999,2.2288,-17.0789,4.7807,-1.8929,1.4152,-13.3363,1.2686,-2.4086,-5.7690,-12.1543,8.6253,-0.2802,3.3166,-17.8968,-0.8843,-0.1398,-0.4241,-11.6256
1597.6562,1.1737,1.3296,-13.3764,6.2103,-1.0493,2.8124,-10.3952,2.1382,-3.5003,-4.1322,-14.2620,5.5341,-0.1132,6.7938,-20.2427,-3.7718,2.2183,0.5264,-12.3708
1601.5625,0.3293,-0.2090,-9.0472,8.7971,0.8214,2.6492,-6.3598,5.2446,-3.6222,0.1039,-14.2243,0.8157,0.5104,11.8551,-19.0943,-6.7956,6.2045,3.7760,-10.9868
1605.4688,-0.3318,-2.1121,-5.7271,10.7198,3.4980,0.8022,-2.9622,8.1635,-2.9769,3.6038,-13.3348,-4.8316,1.8849,16.2298,-15.6606,-9.4278,11.0392,6.5862,-9.0426
1609.3750,-0.1965,-3.6640,-4.3769,11.0299,6.7135,-1.9623,-1.4735,9.1447,-1.7336,4.0590,-13.1562,-10.0452,4.1226,18.2746,-12.1089,-11.1465,15.5548,6.9355,-8.1445
1613.2812,1.0616,-4.2942,-4.5547,10.4558,10.1413,-4.6170,-1.6426,8.4693,-0.0580,1.9294,-13.9613,-13.6164,6.9754,18.1655,-9.7559,-11.7935,18.7135,5.0673,-8.3178
1617.1875,3.1472,-4.0357,-4.8751,10.6820,13.4604,-6.5080,-1.9562,8.0521,1.7681,-0.0955,-14.5435,-15.1503,9.8859,17.6228,-8.2986,-11.6807,20.1278,3.0827,-7.9787
1621.0938,5.3058,-3.4486,-4.2256,12.7244,16.5323,-7.5589,-0.9681,9.6743,3.4198,0.5871,-13.4302,-15.0823,12.3219,18.4179,-6.5524,-11.3125,20.2973,3.0309,-5.4787
1625.0000,6.8844,-3.0865,-2.6320,15.8347,19.5142,-8.0201,1.5076,13.3668,4.8106,4.3228,-10.2846,-14.1249,14.1535,20.9024,-3.8367,-10.9398,20.3492,5.1671,-0.7797
1628.9062,7.8268,-2.9911,-1.0096,17.9400,22.7066,-8.0874,4.3982,17.3156,6.2920,8.9300,-6.1981,-12.6790,15.7250,23.7556,-0.6945,-10.3406,21.3495,7.8244,4.2853
1632.8125,8.6768,-2.6746,-0.0823,17.3067,26.1677,-7.7359,6.5181,19.3462,8.4677,11.4987,-2.6670,-10.7165,17.5003,25.1084,1.6509,-9.0494,23.5788,8.9171,7.4258
1636.7188,10.0743,-1.6151,0.4546,14.0312,29.4141,-6.8536,7.7492,18.7005,11.6650,10.7307,-0.2672,-8.1704,19.5498,24.0603,2.5064,-6.8721,26.2813,7.7196,7.7456
1640.6250,12.1652,0.1812,1.6744,10.0557,31.5550,-5.4813,9.1204,16.5784,15.4783,7.8925,1.7189,-5.3813,21.3434,21.3146,2.4237,-4.2413,28.1359,5.3958,6.4131
1644.5312,14.4254,2.0706,4.2548,7.6384,31.8807,-3.9040,11.6861,14.9914,18.8392,5.6373,4.4050,-3.0937,22.1057,18.4527,2.7587,-2.0621,28.1882,3.8941,5.5968
1648.4375,16.0543,3.2488,7.5237,7.5285,30.4949,-2.5155,15.2614,14.9352,20.6739,5.7218,8.0322,-1.9185,21.5052,16.5332,4.5033,-1.0994,26.5993,4.2413,6.6473
1652.3438,16.6033,3.4241,9.7320,8.3798,28.4362,-1.5901,18.2758,15.4713,20.6947,7.5271,11.5920,-1.7061,20.1059,15.2513,7.4671,-1.3567,24.6274,5.7380,9.1460
1656.2500,16.3065,3.0956,9.4779,7.9084,27.0710,-1.1587,19.0170,14.5244,19.6942,8.5918,13.7635,-1.4310,19.1280,13.3558,10.5337,-1.9494,23.7847,6.7052,11.6127
1660.1562,15.8282,3.1619,7.0783,4.8345,27.1324,-1.0637,17.2321,10.7219,19.0508,6.6881,14.3061,0.1913,19.6002,9.9103,12.7089,-1.6257,24.7359,6.0467,13.1332
1664.0625,15.6475,4.1556,4.5804,-0.0147,28.1351,-1.1027,14.6180,4.7037,19.7738,1.7314,14.5424,3.7521,21.5218,5.2610,13.9581,0.4042,26.7407,4.2047,14.3316
1667.9688,15.6144,5.7479,4.2231,-4.3454,28.6818,-1.1190,13.6325,-1.2136,21.7993,-4.0143,16.3307,8.5871,23.7189,0.8637,15.0562,3.9118,28.0851,2.6761,16.7300
1671.8750,15.0776,6.9667,6.5640,-6.2155,27.5028,-0.9920,15.5377,-4.7374,24.0723,-7.5623,20.3294,13.0849,24.5895,-1.8571,16.6290,7.7612,27.2333,2.5747,21.0633
1675.7812,13.4954,6.9899,9.9247,-5.4846,24.4664,-0.5984,19.3452,-5.2401,25.3455,-7.3453,25.1117,15.6894,23.2353,-2.6025,18.3467,10.6003,23.8946,3.5754,26.1557
1679.6875,11.0147,5.8717,11.7790,-3.7124,20.7631,0.1620,22.6325,-4.0104,25.0606,-4.2334,28.0575,15.8827,20.1350,-2.3054,19.1073,11.6402,19.2459,4.2109,29.5380
1683.5938,8.5023,4.5809,11.0290,-2.6801,18.0748,1.2688,23.5981,-2.9994,23.6289,-0.7637,27.4127,14.4320,16.8218,-2.2027,18.1044,11.0012,15.1547,3.2436,29.4215
1687.5000,6.9463,4.2701,9.2183,-2.8818,17.3227,2.5090,22.6064,-3.2094,21.9158,0.6754,23.8040,12.7376,14.7727,-2.7410,15.7840,9.4445,12.9594,0.8474,26.3409
1691.4062,6.6732,5.3300,9.4901,-3.3039,17.9428,3.5230,21.8461,-4.1007,20.3778,-0.7244,19.8518,11.7884,14.3235,-3.2967,13.7067,7.7550,12.6557,-1.5085,22.9294
1695.3125,7.0063,6.9885,13.9656,-2.6183,18.2531,3.9634,23.3381,-4.4145,18.5778,-4.0766,18.1000,11.5101,14.4245,-2.9192,13.2931,6.2558,13.0213,-2.3998,21.8624
1699.2188,6.6723,7.8134,21.6506,-0.6385,16.6582,3.6588,26.9923,-3.5382,15.4979,-7.7893,18.9553,10.9738,13.4279,-1.3671,14.5012,4.7824,12.5341,-1.8022,23.6357
1703.1250,4.6916,6.7740,28.7044,1.3446,12.8070,2.6757,30.4429,-2.1045,10.4279,-10.6715,20.3990,9.2789,10.3279,0.5601,15.6717,3.0722,10.4151,-1.1904,26.1020
1707.0312,1.1053,4.0689,31.0520,1.6936,7.8616,1.2701,30.8993,-1.2856,3.7388,-12.3244,19.7704,6.4255,5.5386,1.7262,14.8351,1.2192,7.1025,-2.2143,26.2552
1710.9375,-2.9962,1.0869,27.3731,0.0054,3.7064,-0.1947,27.4959,-1.5020,-3.0826,-12.7974,16.1472,3.5166,0.6448,1.7530,11.4710,-0.1836,3.9047,-5.0873,22.8188
1714.8438,-6.1653,-0.4846,20.0956,-2.3444,1.6965,-1.3032,22.1271,-1.8389,-8.2150,-12.1370,11.2810,2.1297,-2.6807,1.4574,7.2027,-0.3394,2.1386,-8.1512,17.4365
1718.7500,-7.5150,0.2400,13.5591,-3.2895,1.8338,-1.6403,17.9926,-0.8197,-10.5731,-10.3766,8.2317,3.2909,-3.7993,2.1557,4.7032,1.2208,2.3380,-9.1037,13.3821
1722.6562,-7.2196,2.8134,10.7770,-1.9059,2.8965,-0.9183,17.0284,2.1050,-10.4239,-7.8912,8.7974,6.7549,-3.4681,4.3966,5.5830,4.2424,3.9939,-6.9155,12.8069
1726.5625,-6.2840,5.8263,11.3596,0.6480,3.3380,0.8224,18.3872,5.7481,-9.1344,-5.5536,11.9101,11.0700,-3.2105,7.2672,8.9684,7.7728,5.9078,-2.7978,14.8443
1730.4688,-5.7919,7.8564,12.2118,2.0283,2.2761,3.0829,19.2752,7.9344,-8.2395,-4.2965,14.4040,14.3799,-4.1733,8.9681,12.0102,10.6151,6.8839,0.6666,16.2348
1734.3750,-6.1857,8.2937,10.3512,0.7825,-0.0749,5.0344,17.4483,7.3013,-8.4764,-4.3444,13.5729,15.4471,-6.2927,8.2532,12.0172,11.9457,6.3534,1.5657,14.0341
1738.2812,-7.0611,7.5091,5.4740,-2.1612,-2.7083,5.9424,13.2213,4.6224,-9.4233,-4.8540,9.3972,14.2757,-8.3406,5.5225,8.5492,11.7266,4.6184,0.1781,8.1667
1742.1875,-7.5624,6.3655,0.1406,-3.9803,-4.5407,5.6502,9.2186,2.4093,-9.9397,-4.4562,4.5517,11.9905,-8.7987,2.5900,3.7713,10.6668,2.6205,-1.3203,1.6437
1746.0938,-7.0532,5.5312,-2.5333,-2.1746,-5.0313,4.7461,8.0129,2.9723,-9.0591,-2.3864,2.1466,10.0955,-6.9406,1.2613,0.7443,9.7595,1.3680,-0.7360,-1.8317
1750.0000,-5.5842,5.1196,-1.7066,3.2511,-4.3754,4.1969,9.6441,6.4875,-6.7013,0.7465,3.0713,9.5946,-3.3859,1.8948,0.9901,9.6799,1.3207,2.2578,-0.9498
1753.9062,-3.8659,4.8397,0.2618,9.4946,-3.2726,4.6373,11.2022,10.7142,-3.7213,3.3147,5.1770,10.5002,0.2425,3.1769,3.2771,10.4109,2.0801,5.8344,1.9885
1757.8125,-2.7996,4.4248,-0.3644,12.9303,-2.4898,5.8315,8.9807,12.6946,-1.2834,3.9852,5.0247,11.9905,2.3302,3.3287,4.5954,11.3232,2.6064,7.5833,2.8081
1761.7188,-2.8959,3.9354,-5.5665,11.8613,-2.4580,6.7712,1.5474,11.1120,-0.0120,2.9316,0.7922,13.0669,2.2963,1.7309,2.5456,11.6491,1.8994,6.6172,-1.1715
1765.6250,-3.9495,3.7059,-13.6760,7.8683,-3.0558,6.4183,-8.7587,7.3911,0.4752,1.8605,-6.0511,13.2580,0.9707,-0.4319,-2.7487,11.0257,-0.2506,4.4263,-8.8182
1769.5312,-5.1526,4.0346,-20.2932,4.6511,-3.6505,4.5677,-17.1870,4.6219,1.3038,2.7080,-11.6933,12.9035,0.0713,-1.0994,-8.6828,9.7370,-2.9713,3.7328,-15.7976
1773.4375,-5.5654,4.9084,-21.3551,5.2458,-3.4088,2.1445,-19.8067,5.1643,3.5060,6.0162,-12.8076,12.8317,1.0901,0.9110,-12.0762,8.4879,-4.7744,6.2756,-17.6828
1777.3438,-4.6622,5.9789,-16.0048,9.7842,-1.7895,0.6318,-16.1447,8.8609,7.1839,10.3505,-9.0013,13.6582,4.2802,4.7986,-11.4125,7.8711,-4.5614,11.3512,-13.1827
1781.2500,-2.6408,6.7689,-7.1183,15.5027,1.0190,0.9985,-9.2768,13.2678,11.2846,13.3208,-2.9788,15.2001,8.3949,8.2799,-7.7148,7.9197,-2.4801,16.3075,-5.0599
1785.1562,-0.3182,6.9112,0.7864,18.9047,4.0344,2.9190,-3.4477,15.6419,14.2070,13.4329,1.6074,16.4422,11.3888,9.3253,-3.5253,8.0782,0.0659,18.5662,1.8560
1789.0625,1.3337,6.2496,4.5581,18.3169,5.9620,4.9000,-1.1713,15.0169,14.8736,11.2631,2.8098,16.1128,11.6861,7.7302,-0.9550,7.6172,1.4063,17.5125,3.9557
1792.9688,1.7486,4.8016,4.0981,14.8769,6.0297,5.2527,-1.9907,12.7116,13.5290,8.9642,1.4529,13.4954,9.2343,5.2557,-0.3806,6.1757,0.9627,14.7534,0.9918
1796.8750,1.0896,2.7071,1.7035,11.3466,4.6430,3.2073,-3.5763,10.9878,11.6607,8.4883,-0.0611,8.9129,5.6510,4.2519,-0.6808,4.0109,-0.0525,12.6367,-4.2977
1800.7812,0.1264,0.2579,-0.0871,9.8810,3.3164,-0.6402,-3.9515,11.1175,11.0282,9.9936,-0.0067,3.5405,3.3157,5.9041,-0.5778,1.7624,0.7340,12.3503,-8.4693
1804.6875,-0.2713,-2.0523,-0.2994,10.5829,3.7843,-4.8301,-2.9110,12.5135,12.4459,11.7745,1.3106,-1.3167,3.9441,9.4940,0.1810,-0.0743,5.1852,13.1813,-9.6541
1808.5938,0.3002,-3.6046,0.2959,11.8596,6.8169,-8.0455,-1.6318,13.5596,15.1978,11.7871,2.1402,-4.9586,7.5444,13.1745,0.7726,-1.5275,13.0912,13.4568,-8.2560
1812.5000,1.5400,-3.9320,0.4216,12.0436,11.5846,-9.8348,-1.1311,13.2610,17.5541,9.4934,1.1226,-7.5160,12.4356,15.4954,0.2779,-3.0602,21.9239,12.2310,-5.9520
1816.4062,2.7162,-3.0578,-0.3486,10.7873,16.1077,-10.5593,-1.1362,12.1757,18.0585,6.4548,-1.3357,-9.5486,16.3200,16.3714,-1.2846,-5.0745,28.2462,10.2038,-4.1625
1820.3125,3.2692,-1.6244,-1.2757,9.1208,18.5520,-10.7502,-0.3802,11.8048,16.6480,5.1282,-3.3568,-11.3840,17.6961,16.7591,-2.8152,-7.4272,29.8894,9.0837,-3.2697
1824.2188,3.3026,-0.6238,-1.2577,8.3215,18.4631,-10.5192,2.0693,13.0549,14.7367,6.8179,-3.2301,-12.7572,16.6829,17.4753,-2.9752,-9.3837,27.3745,9.9965,-2.9190
1828.1250,3.5610,-0.8223,0.1516,8.7410,17.0176,-9.5547,5.7874,15.2294,14.1501,10.4623,-0.8993,-13.0399,14.7517,18.3016,-1.2544,-10.0884,23.5310,12.3624,-2.7260
1832.0312,4.8599,-2.2441,2.4493,9.6273,16.0841,-7.6574,9.2655,16.5175,15.6810,13.2751,2.0156,-11.8487,13.6328,18.1925,1.6448,-9.1977,21.5537,14.2368,-2.5412
1835.9375,7.3593,-4.0962,4.7452,9.9675,16.7943,-5.2632,11.2100,15.5744,18.3836,12.7643,3.6445,-9.4946,14.2178,16.3593,4.3697,-7.1689,22.8818,13.8340,-2.1165
1839.8438,10.2391,-5.2460,6.4907,9.4318,18.7217,-3.4059,11.6195,12.7579,20.2000,8.5450,3.4498,-6.8701,16.2071,13.1932,5.8855,-4.9686,26.4077,10.9418,-0.7755
1843.7500,12.0851,-4.9674,7.6339,8.4801,20.2961,-3.0805,11.6073,9.8532,19.4960,2.5402,2.5769,-4.8519,18.6335,10.1320,6.0404,-3.4352,29.5171,7.0422,2.2704
1847.6562,11.7791,-3.4522,8.1546,7.5709,20.1095,-4.5225,12.1371,8.4476,16.3483,-2.5334,2.7115,-3.7179,20.7194,8.5268,5.3681,-2.8129,30.0946,4.0620,7.0497
1851.5625,9.2899,-1.7185,7.6376,6.3292,18.0601,-7.0158,12.9018,8.3626,12.5652,-5.1542,4.5093,-3.0694,22.3276,8.4815,4.4696,-2.8113,27.9520,2.8199,12.2375
1855.4688,5.7902,-0.9465,5.5330,3.6170,15.4204,-9.3899,12.4967,7.5845,10.3827,-5.9121,7.0202,-2.3143,23.6826,8.6910,3.6093,-3.0836,24.6579,2.4550,15.6330
1859.3750,2.9853,-1.6717,2.0096,-1.3906,13.7947,-10.7740,9.8522,3.8929,10.8165,-6.7208,8.6098,-1.2671,24.7132,7.4637,2.8429,-3.6437,22.0325,1.2713,15.6163
1863.2812,2.0953,-3.3722,-1.4351,-8.0263,13.8445,-10.9658,5.6665,-3.0870,12.9526,-9.0647,8.5303,-0.3109,24.7118,4.0917,2.4015,-4.8052,20.5984,-1.7382,12.5159
1867.1875,3.1836,-4.7310,-2.4201,-13.9846,14.8389,-10.1513,2.4429,-11.1263,14.7445,-12.7109,7.7075,0.0467,22.7326,-0.5614,2.8059,-6.6790,19.2411,-5.9386,8.6963
1871.0938,5.2623,-4.4161,0.8731,-16.5503,15.3858,-8.3365,2.8769,-16.6564,14.7003,-15.8563,8.0050,-0.1721,18.4683,-4.7231,4.4865,-8.7147,16.2985,-9.4058,7.0987
1875.0000,7.0452,-1.8932,8.2746,-14.3921,14.6952,-5.1421,7.7879,-17.1683,13.1119,-16.5036,10.5767,-0.1899,12.8483,-7.0445,7.2478,-9.8041,11.1260,-10.2602,9.2294
1878.9062,7.7708,2.2239,17.4032,-8.5806,13.2568,-0.2795,15.2761,-12.9489,11.8059,-13.9516,14.7320,1.0121,7.7287,-7.4969,10.1461,-9.0030,4.8121,-7.9489,14.0964
1882.8125,7.5147,6.4776,24.9619,-2.0551,12.3021,5.6622,21.8506,-6.8805,12.5569,-9.3115,18.3087,3.7801,4.7480,-7.1454,12.0155,-6.3526,-0.5556,-3.5940,18.8999
1886.7188,6.8375,9.3220,28.6563,2.0641,12.4712,10.9154,24.6895,-2.5281,15.3867,-4.7903,19.2572,7.2338,4.1373,-7.0903,12.2549,-3.0910,-3.4808,0.6966,20.9228
1890.6250,6.1250,9.8818,28.3257,2.1067,12.8430,13.2335,23.2995,-1.9751,18.1280,-2.3723,17.1237,9.6301,4.4152,-7.5318,11.2003,-0.9622,-4.2081,2.9516,19.1795
1894.5312,5.1842,8.3054,25.5161,-1.6044,11.2730,11.2925,19.3851,-4.8998,17.6995,-2.8198,13.2421,9.4948,3.2993,-7.7323,9.7340,-1.0457,-4.4930,2.1749,14.6728
1898.4375,3.4128,5.5697,21.9898,-7.3956,5.9465,5.8013,15.2292,-9.2904,12.2402,-5.5026,9.5713,6.7199,-0.7310,-6.8135,8.4744,-2.9718,-6.1610,-1.4100,9.2974
1902.3438,0.3858,2.9039,18.4839,-13.3230,-2.9811,-0.6129,12.0398,-12.9652,2.5683,-8.9290,7.2414,2.7748,-7.2992,-4.6094,7.2964,-5.1486,-9.5875,-6.5712,4.4717
1906.2500,-3.6326,1.1825,14.6928,-17.8622,-12.9646,-4.8430,9.5746,-14.6800,-8.1026,-11.5113,6.0223,-0.1836,-14.2254,-1.8106,5.6468,-5.8734,-13.2859,-11.4896,0.6237
1910.1562,-7.6746,0.5999,10.2990,-20.0025,-20.3260,-5.1581,7.1161,-14.2373,-16.0112,-12.1910,5.0267,-0.6860,-18.7937,0.6702,3.3745,-4.5092,-14.9237,-14.3233,-2.2703
1914.0625,-10.5857,0.7458,5.9203,-19.1664,-22.3942,-2.1990,4.6657,-11.9607,-18.9940,-10.8065,3.8386,1.1788,-19.3335,2.4752,1.2518,-1.8517,-12.9961,-13.9335,-3.8935
1917.9688,-11.7006,0.9727,2.9535,-15.3998,-19.0591,1.5812,3.1336,-8.2905,-17.5237,-8.1869,2.9368,3.9947,-16.0896,3.9945,0.5722,0.5601,-7.9241,-10.5798,-3.5110
1921.8750,-11.2002,0.8069,2.3584,-9.7276,-12.6837,3.6179,3.3433,-3.8420,-14.0871,-5.8819,3.0197,6.1144,-10.9025,5.8382,2.0296,1.6162,-1.8153,-6.0959,-0.7815
1925.7812,-9.9219,0.1693,3.4874,-4.0934,-6.4981,2.8630,4.8656,0.4182,-11.4989,-5.4511,3.9348,6.7584,-6.0366,8.1399,4.8163,1.3654,2.8708,-3.1234,3.3507
1929.6875,-8.7921,-0.6856,4.1409,-0.4918,-2.6397,0.2397,5.9196,3.4199,-11.3502,-7.5163,4.3430,6.3306,-2.9814,10.3885,6.8301,0.7759,4.7710,-3.5849,6.7170
1933.5938,-8.2986,-1.4313,2.0122,0.3221,-1.1514,-2.2676,4.6122,4.7095,-13.4960,-11.1451,2.6006,5.8339,-1.9174,11.9591,6.0166,0.7982,4.2265,-7.3089,7.1805
1937.5000,-8.3440,-1.9325,-3.5609,-0.4705,-0.4585,-3.0974,0.5054,5.0196,-16.6325,-14.1643,-1.8103,5.9714,-1.9928,12.8151,1.8917,1.5510,2.7822,-11.8879,4.2044
1941.4062,-8.5170,-2.3304,-10.9831,-0.4349,1.2255,-2.0569,-4.9000,5.9693,-19.3101,-14.4529,-7.5774,6.6852,-2.0419,13.6582,-3.9665,2.2978,2.0742,-14.1163,-0.5830
1945.3125,-8.5216,-2.8959,-17.4942,2.3211,4.6516,-0.1452,-9.2931,8.8740,-20.6408,-11.4608,-12.3148,7.4275,-1.2405,15.3104,-8.9209,2.1835,2.8975,-12.1507,-4.4225
1949.2188,-8.4239,-3.7599,-21.1345,7.5443,9.2292,1.4346,-11.4006,13.5346,-20.4064,-6.8051,-14.2755,7.8080,0.5906,17.8580,-11.0637,1.0544,4.9578,-6.8318,-5.3565
1953.1250,-8.5458,-4.7196,-22.0131,12.7788,13.6359,2.2133,-11.9695,18.0987,-18.7832,-3.3054,-13.6463,7.9794,3.0298,20.3733,-10.4389,-0.3625,7.2669,-1.0871,-3.5763
1957.0312,-9.1088,-5.2767,-21.8836,15.0866,16.6963,2.6506,-13.0015,20.3051,-16.0710,-2.9760,-12.3355,8.4214,5.3024,21.5485,-8.7854,-1.0695,8.7766,2.2376,-1.1325
1960.9375,-9.9114,-4.9097,-22.4333,13.3154,17.8745,3.5703,-15.8617,19.2265,-12.6025,-5.4253,-12.4058,9.3682,6.6241,20.7482,-8.0560,-0.6591,8.8538,2.4954,-0.2664
1964.8438,-10.3011,-3.4185,-23.7452,9.1246,17.2089,5.3950,-19.8970,16.0777,-8.7367,-7.9708,-14.4332,10.4505,6.5754,18.5547,-8.9185,0.3283,7.4360,1.6357,-1.7186
1968.7500,-9.4998,-1.1158,-24.2089,5.8690,15.0008,7.8032,-22.7981,13.3219,-4.7813,-7.5440,-17.1354,10.9190,5.3843,16.2871,-10.4057,0.8565,4.9236,2.5282,-4.3406
1972.6562,-7.1026,1.2760,-21.9120,6.1355,11.6502,9.9978,-22.4470,12.7149,-0.8598,-3.0278,-18.5304,10.2691,3.9198,14.8734,-10.9034,0.2621,1.9311,6.5361,-6.2205
1976.5625,-3.4321,2.9815,-16.2992,9.8506,7.7267,11.2734,-18.6902,13.8920,3.1106,3.7877,-17.5979,8.7104,3.2745,14.0710,-9.5803,-1.2131,-1.0039,12.3137,-6.2891
1980.4688,0.5106,3.5757,-8.7036,14.4639,4.0379,11.4099,-13.5063,14.7362,7.2346,9.4612,-15.0163,7.0484,4.0945,12.7589,-7.0573,-2.6788,-3.6434,16.8553,-5.0401
1984.3750,3.5323,3.1927,-1.3408,17.0556,1.4397,10.6570,-9.3990,13.3075,11.3906,11.4772,-12.3821,6.0600,6.0953,10.0919,-4.8082,-3.4080,-6.0662,17.9813,-3.8325
1988.2812,4.9269,2.4122,4.3383,16.6603,0.4358,9.4395,-7.3703,9.7468,15.1893,10.1558,-10.6542,5.8922,8.1896,6.5003,-3.8650,-3.4921,-8.4001,16.2251,-3.4842
1992.1875,4.9351,1.8924,8.5412,14.9277,0.8929,8.0747,-6.2071,6.4936,18.2484,8.3610,-9.2449,5.9840,9.2495,3.5911,-3.9518,-3.7729,-10.3974,14.5169,-3.4499
1996.0938,4.6489,1.9705,12.5697,14.6172,2.1777,6.6709,-3.6949,6.5047,20.5490,9.1811,-6.6110,5.5546,8.9956,2.9352,-3.7630,-5.1132,-11.2028,15.8352,-2.3168
2000.0000,5.3430,2.4654,17.3515,17.2061,3.6658,5.1598,1.2713,10.8415,22.4744,13.3749,-1.8695,4.2133,8.3013,4.7265,-2.1149,-7.6390,-9.6432,20.6894,0.8295
2003.9062,7.6021,2.7947,22.3529,21.6019,5.2273,3.3393,7.4846,17.6051,24.3634,18.6065,3.9756,2.1760,8.5836,7.4908,1.0088,-10.5973,-5.0185,26.4884,5.3847
2007.8125,10.8182,2.3271,25.7813,25.0138,7.2800,0.9134,12.1716,23.1667,25.9055,21.1059,8.3432,-0.0419,10.6750,9.1856,4.3620,-12.9320,2.1143,29.3718,9.4696
2011.7188,13.4576,0.7601,25.8709,25.2324,10.3575,-2.3767,13.0798,24.7909,25.9918,18.4922,8.8032,-2.1075,14.0718,8.8566,6.3213,-14.0674,9.8467,27.1039,11.2719
2015.6250,14.0074,-1.6983,22.1730,22.4177,14.5613,-6.4899,10.1877,22.5940,23.3772,11.5855,4.9060,-4.0419,17.2428,7.4929,5.9951,-14.2350,15.8215,20.7757,10.3942
2019.5312,12.0115,-4.4374,15.8549,18.9322,19.3664,-10.8562,5.6600,19.2881,17.8156,3.8339,-1.3327,-5.9376,18.8579,7.3300,3.7033,-14.1111,18.6738,14.0061,8.1311
2023.4375,8.4642,-6.7663,8.9010,17.3981,23.9390,-14.4553,2.1527,17.9328,10.7755,-1.1552,-6.6929,-7.5481,18.9833,10.1040,0.5665,-14.1470,18.9995,10.3132,6.4974
2027.3438,5.2230,-8.2513,2.9790,18.6049,27.6689,-16.3137,0.9075,19.5036,4.9763,-2.0634,-8.8011,-8.2379,19.1990,15.6233,-2.3264,-14.2240,19.0179,10.7177,6.8292
2031.2500,3.7888,-8.8726,-1.1457,20.9617,30.4392,-16.1579,1.1548,22.1953,2.8305,-0.4852,-7.4524,-7.4437,21.3883,21.7747,-4.4633,-13.9266,20.9931,13.3564,9.0395
2035.1562,4.3042,-8.9234,-3.4009,21.8558,32.4138,-14.7194,1.1571,22.9437,4.8116,0.5834,-4.3282,-5.2755,26.0461,25.9348,-5.8436,-13.1292,25.4731,15.2161,11.9790
2039.0625,5.5233,-8.7410,-3.8981,19.7114,33.5921,-13.3484,-0.1485,19.8728,8.9991,-0.9351,-1.5046,-2.6711,31.4694,26.6599,-6.5744,-12.2806,30.6822,14.4491,14.4309
2042.9688,5.8270,-8.4590,-2.7515,15.0501,33.6136,-13.1101,-2.3393,13.6966,12.2854,-4.8810,0.0002,-0.8521,34.6234,24.3829,-6.6369,-12.0529,33.6467,11.4310,15.8568
2046.8750,4.5579,-7.9483,-0.3423,9.7937,32.0740,-14.0093,-4.0858,7.0407,12.4846,-9.3832,0.5998,-0.4548,33.2006,20.7135,-6.0412,-12.6414,32.3399,7.9205,16.3889
2050.7812,2.6577,-6.9712,2.4567,5.5613,29.1008,-14.9698,-4.4108,2.3625,9.8268,-12.5499,1.3781,-1.0562,27.3813,17.0677,-5.1050,-13.3884,27.2826,5.2885,16.3101
2054.6875,2.0602,-5.4214,4.6110,2.4927,25.6173,-14.6498,-3.3877,0.2163,6.7134,-13.8247,3.0294,-1.5407,19.9151,13.7886,-4.4190,-13.1697,21.3409,3.4450,15.6644
2058.5938,4.2293,-3.4576,5.7253,-0.4500,22.9157,-12.4933,-1.6908,-0.8030,5.8970,-13.9967,5.4140,-1.0430,14.3473,10.3582,-4.3873,-11.3047,17.7682,1.3102,14.3752
2062.5000,8.9240,-1.4213,6.6010,-4.1137,21.7445,-9.1878,0.4258,-2.5599,8.4572,-14.1029,7.9594,0.3228,12.6295,6.3080,-4.7248,-8.2212,17.8791,-1.7610,12.6433
2066.4062,14.1664,0.4015,8.8557,-8.0533,21.6113,-6.1452,3.5819,-5.6927,13.0980,-14.3655,10.3609,1.6060,13.8648,1.8803,-4.4493,-5.2363,20.0741,-5.0203,11.0814
2070.3125,17.5149,1.9858,13.6806,-10.7301,20.9373,-4.4153,8.5943,-9.1342,17.2547,-14.1218,12.8559,1.9546,15.1170,-2.1531,-2.5237,-3.5393,20.9684,-6.7584,10.3267
2074.2188,17.7466,3.5648,20.6724,-10.8244,18.0778,-3.9184,15.2699,-11.1090,19.0849,-12.6932,15.8495,1.5512,13.6718,-5.2530,1.2982,-3.1790,17.8215,-5.7434,10.4691
2078.1250,15.6975,5.4031,27.7944,-8.4549,12.5157,-3.6321,21.9062,-10.6344,18.7423,-10.2667,19.3224,1.6935,9.0505,-7.6380,6.1267,-2.9326,10.4935,-2.3535,10.9114
2082.0312,13.6021,7.5126,32.6733,-5.1782,5.3298,-2.5660,26.1889,-8.2323,17.9545,-7.8963,22.6404,3.8570,3.2905,-10.0109,10.4352,-1.2425,1.5242,1.6361,10.9237
2085.9375,13.3953,9.5406,34.2853,-2.7444,-1.4551,-0.6835,26.8869,-5.3606,18.3119,-6.6059,24.9679,8.4588,-0.6542,-12.7293,13.0432,2.4861,-5.6647,4.4400,10.4579
2089.8438,15.2276,10.9412,33.6430,-1.6960,-6.1861,1.0384,24.8946,-3.2043,19.7211,-6.4452,25.8864,14.3542,-1.1181,-15.2414,13.8044,7.2829,-9.0691,5.5991,10.4391
2093.7500,17.3077,11.3191,32.8386,-1.0451,-8.5967,1.4822,22.5925,-1.9326,20.3208,-6.4215,25.6336,19.5389,1.1442,-16.3930,13.4669,11.2318,-9.2249,6.0998,12.1252
2097.6562,17.1938,10.6935,33.1674,0.6947,-9.7682,0.4467,21.9112,-0.9852,17.9494,-5.4281,24.7561,22.5369,3.6999,-15.3961,12.8873,12.8497,-8.4293,7.2105,15.9697
2101.5625,13.5790,9.4770,33.8960,4.0443,-11.0968,-1.0544,22.6734,0.0434,11.9837,-3.3607,23.5470,23.3652,4.3923,-12.5803,12.3288,12.1302,-8.7793,9.1256,20.9600
2105.4688,7.2547,8.1827,32.7738,7.9604,-13.0822,-1.5633,22.6616,0.8566,4.0596,-1.3982,21.8421,23.2951,2.9623,-9.1884,11.4624,10.4221,-10.5636,10.6731,25.1051
2109.3750,0.5661,7.0816,27.9480,10.6293,-14.8785,-0.4061,19.4506,0.7794,-2.9187,-1.1437,19.3757,23.6290,1.1266,-6.3268,10.0070,9.2699,-12.1660,10.3681,26.7927
2113.2812,-4.2014,6.0727,19.7133,10.9512,-14.9426,1.6678,12.5187,-0.4067,-6.7292,-3.3283,16.3121,24.5410,1.1393,-3.9979,8.3216,9.1953,-11.4284,7.8521,25.9415
2117.1875,-6.3055,4.8514,10.5874,9.4147,-12.2666,3.0164,3.8479,-1.9883,-7.2627,-7.1845,13.3416,24.9765,4.0120,-1.1318,7.2799,9.4271,-7.3486,4.3768,23.9649
2121.0938,-6.8533,3.2188,3.5538,7.6207,-7.2391,2.4043,-3.5486,-2.7360,-6.4101,-11.0296,11.1290,23.6986,8.7468,3.3229,7.4414,8.7744,-0.8406,1.8309,22.5252
2125.0000,-7.7909,1.2671,-0.1487,6.9180,-1.4834,-0.0012,-7.9726,-1.8707,-6.5881,-13.5534,9.5616,20.5712,13.0919,9.1824,8.2638,6.8573,5.9112,1.1395,22.0979
2128.9062,-10.3928,-0.7072,-1.8817,7.3849,3.1957,-2.7758,-10.2866,0.3207,-9.0734,-14.7043,7.5585,16.9335,15.1583,14.8164,8.1861,4.6084,10.9075,1.4835,21.5705
2132.8125,-14.3504,-2.4606,-4.3789,8.0470,5.9620,-4.4073,-12.9717,2.8285,-13.3257,-15.4372,3.7950,14.6765,14.6612,18.2559,5.7128,3.5849,13.4922,1.1087,19.2529
2136.7188,-18.0357,-3.9740,-9.4152,8.0720,7.3518,-4.4915,-17.7652,4.9268,-17.6112,-16.6002,-2.1118,14.7465,12.9325,18.7578,0.7013,4.6586,14.4591,-0.9216,14.4687
2140.6250,-19.6313,-5.3599,-16.2677,7.7716,8.6638,-3.9270,-23.8767,6.8864,-20.2500,-17.9874,-8.9255,16.3282,11.8148,17.4712,-5.2474,7.2032,15.1887,-3.5912,8.3549
2144.5312,-18.2653,-6.5833,-22.2157,8.4013,10.8118,-3.9409,-28.3459,9.6528,-20.4963,-18.4211,-14.3034,17.4299,12.3188,16.5308,-9.7555,9.4948,16.5505,-4.5224,3.1279
2148.4375,-14.4149,-7.2805,-24.6445,10.8546,13.4837,-4.8016,-28.3241,13.7038,-18.5581,-16.7903,-16.2589,16.4359,13.9698,17.2309,-11.3382,10.0235,18.3316,-1.9350,0.3589
2152.3438,-9.4596,-6.9128,-23.0119,14.4279,15.2105,-5.3819,-23.4334,18.1375,-15.0402,-13.1025,-14.5283,13.3722,15.1697,18.7789,-10.4713,8.6409,19.4580,3.6420,-0.3284
2156.2500,-4.8424,-5.2044,-19.0845,16.8856,14.2972,-4.0278,-16.2476,20.9602,-10.4630,-8.5809,-10.7831,9.8527,14.1975,18.7395,-9.1609,6.5974,18.7153,9.4370,-1.0237
2160.1562,-1.4279,-2.5229,-15.3161,15.9939,9.9934,-0.0555,-10.4564,20.5422,-5.2256,-4.6890,-7.4782,7.7625,10.1654,14.9147,-9.3002,5.4534,15.4516,12.3954,-3.8874
2164.0625,0.6506,0.1730,-12.7798,11.3868,3.1381,5.3980,-8.1602,17.1196,0.1781,-1.9361,-6.1646,7.7748,3.4530,7.1950,-11.1062,5.7853,9.9050,11.5420,-9.3805
2167.9688,1.7711,1.8793,-10.3978,5.2234,-4.1308,9.9638,-8.4436,13.0232,5.1362,0.4584,-6.5072,8.9238,-4.4422,-2.1137,-12.9021,6.7630,3.1084,8.8297,-15.7609
2171.8750,2.5053,2.2353,-6.0851,0.9787,-9.4312,11.6768,-8.3212,11.2543,9.2479,3.7000,-6.7010,9.5505,-11.4251,-9.7784,-12.4574,6.9257,-3.4847,7.7083,-20.2293
2175.7812,3.3727,1.8173,1.1918,1.1862,-11.3399,10.3679,-5.2401,13.3788,12.6770,8.0832,-4.9230,8.7790,-15.4648,-13.7749,-8.8431,5.4581,-8.4843,10.4737,-20.8134
2179.6875,4.6568,1.7503,10.1826,5.8018,-10.0585,7.6783,0.8755,18.3403,16.0488,12.3772,-0.7228,7.2427,-15.2511,-14.4000,-3.3380,2.8614,-11.0237,16.4657,-17.5595
2183.5938,6.2514,2.8645,17.9757,12.3914,-7.1759,5.6709,7.5986,23.1516,19.8055,14.5541,4.6303,6.4338,-10.7003,-13.5543,1.3344,0.4478,-11.0434,22.5388,-12.2312
2187.5000,7.6250,5.0148,21.9599,17.9256,-4.6670,5.1669,11.8878,24.9789,23.5329,13.3418,8.9941,7.2457,-3.0885,-12.8974,2.8515,-0.8817,-9.2379,25.4349,-6.9217
2191.4062,8.0532,7.1033,21.5509,20.7675,-3.7014,5.1637,12.3042,23.0608,25.9578,9.3488,10.7047,8.9855,5.3801,-12.4611,0.8206,-1.4889,-6.6190,24.1982,-2.7522
2195.3125,7.1090,7.8317,18.3654,21.3943,-3.9552,3.7986,9.8471,19.0530,25.8167,4.8028,9.4919,9.7559,12.4987,-10.8534,-3.1048,-2.6975,-3.8998,20.7655,0.4130
2199.2188,5.1178,6.6356,14.8285,21.4853,-3.8522,0.0461,6.9238,15.6339,22.9977,2.0506,6.4603,7.9469,17.0367,-6.7938,-6.4898,-5.5562,-1.1023,18.3352,3.2547
2203.1250,3.1585,4.0861,12.4173,22.2952,-1.6205,-5.2750,5.4537,14.5323,18.9614,1.9566,3.3248,3.6193,19.1804,-0.5897,-7.7192,-9.7091,2.2890,18.8518,6.0976
2207.0312,2.4481,1.4326,10.8990,23.6744,3.4702,-10.0277,5.6426,15.4907,15.9155,3.4115,1.4879,-1.3870,20.1242,5.7611,-6.7720,-13.3743,6.6969,21.5742,8.6199
2210.9375,3.4421,-0.3654,8.9834,24.4145,10.4893,-12.3932,6.2319,16.8374,15.2304,4.2690,1.4588,-4.7572,21.0830,9.9684,-4.7876,-14.5364,11.8361,23.7640,10.2833
2214.8438,5.3301,-1.3593,5.6539,23.4435,17.3030,-12.2756,5.7704,17.0369,16.3177,2.9259,2.7651,-5.4040,22.4338,11.1821,-3.0059,-12.4488,16.6746,22.8485,10.9165
2218.7500,6.4236,-2.4985,1.0276,20.7555,21.8722,-11.3269,3.7536,15.8897,16.9543,-0.6706,4.2452,-4.2242,23.6164,10.6109,-2.0092,-8.2627,20.1143,18.3259,10.8413
2222.6562,5.2985,-4.7510,-3.8207,17.3142,23.5536,-11.5832,0.8163,14.4648,14.9438,-5.2541,4.5691,-3.3305,23.8245,10.5055,-1.7337,-4.2751,21.9070,12.0018,10.4782
2226.5625,1.9079,-8.1463,-7.6925,14.1246,23.4911,-13.8246,-1.9125,13.9555,9.8950,-9.3595,2.8724,-4.3918,22.8804,12.3358,-1.9570,-2.3721,23.0189,6.5241,9.9253
2230.4688,-2.1992,-11.5170,-9.9248,11.3578,23.7629,-16.9716,-3.5514,14.5001,3.7200,-12.3502,-0.6785,-7.3920,21.5218,15.6277,-2.6154,-2.8437,25.0065,3.4691,8.9996
2234.3750,-4.8153,-13.1938,-10.4047,8.2904,25.8243,-18.9595,-3.7163,14.9474,-0.6039,-14.5823,-4.7089,-10.7273,20.8177,18.3434,-3.6250,-4.4118,28.7520,2.4421,7.6944
2238.2812,-4.5504,-12.1659,-9.1895,4.0498,29.3330,-18.3395,-2.3330,13.7072,-1.1059,-16.7336,-7.1271,-12.4702,21.1790,18.4246,-4.4957,-5.3399,33.5152,1.7340,6.4959
2242.1875,-1.7720,-8.8428,-6.3191,-1.5290,32.2379,-15.3133,0.5108,9.9522,1.8533,-18.9906,-6.2060,-11.7440,21.8269,15.2332,-4.2999,-4.6920,37.1353,-0.1494,6.0886
2246.0938,1.7032,-4.8400,-2.0675,-7.6633,32.1335,-11.4413,4.4017,4.2313,6.0056,-20.7935,-1.6692,-9.1607,21.2514,9.8146,-2.2190,-2.7992,37.3860,-3.3322,6.6145
2250.0000,3.9429,-1.9363,2.7398,-13.1391,27.9522,-8.3696,8.3899,-1.8986,8.9812,-21.2749,5.0003,-6.1118,18.3954,3.9436,1.7386,-0.7150,33.5581,-6.5786,7.2314
2253.9062,4.2492,-0.9601,6.9134,-17.0815,20.7734,-6.6711,11.2326,-6.8456,10.0522,-19.9348,11.4013,-3.6137,13.6608,-1.1368,6.5300,0.7472,27.0845,-8.2856,6.5931
2257.8125,3.5087,-1.3856,9.6870,-19.3446,13.1335,-5.7000,12.1901,-9.8109,10.4572,-16.9883,15.7432,-1.6599,8.9028,-5.2683,10.6890,1.5672,20.6872,-7.5917,4.0582
2261.7188,3.3110,-1.8649,11.4781,-20.3007,7.3005,-4.4387,11.7955,-10.9768,12.1178,-13.1989,17.9878,0.5096,6.3281,-8.9512,13.3347,2.3018,16.6276,-4.8144,0.6320
2265.6250,4.5699,-1.2320,13.7985,-20.3489,3.7468,-2.4960,11.7867,-11.1037,15.8462,-9.4677,19.7004,3.6143,7.0566,-12.5296,14.7461,3.4384,15.3325,-1.0691,-1.3454
2269.5312,6.7464,0.7777,18.1267,-19.6226,0.9267,-0.3764,13.9717,-10.9555,20.5100,-6.5530,22.6473,7.7650,10.3795,-15.8006,15.9904,4.9692,15.3748,2.4746,0.2125
2273.4375,8.2659,3.5500,24.5231,-18.0735,-3.4730,1.1372,18.7671,-10.9265,23.8006,-5.0173,27.1875,12.5333,14.2309,-18.3222,17.8958,6.5346,14.7414,5.1273,5.4078
2277.3438,7.7529,6.2027,31.1855,-15.7056,-10.7054,1.8365,24.6233,-10.9560,23.9409,-5.1952,31.7519,17.4239,16.5002,-19.9676,20.2509,7.9003,12.3524,6.7607,11.9431
2281.2500,5.0715,8.2124,35.5035,-12.6358,-19.8597,2.3470,28.9750,-10.6250,20.9433,-6.9848,33.9019,22.1797,16.2326,-21.0646,21.9402,9.2301,8.6666,7.5889,16.5574
2285.1562,1.3539,9.5679,35.9268,-8.9358,-28.2439,3.5425,30.1124,-9.3466,16.4541,-9.5897,32.2028,26.6067,13.9294,-21.9376,21.9213,10.8587,5.0071,7.9241,17.3540
2289.0625,-1.9477,10.4312,33.1702,-4.5360,-32.9599,5.6618,28.4993,-6.6635,12.3934,-11.5911,27.4374,30.1769,10.8842,-22.3425,20.1964,12.8021,2.2865,8.0328,15.2244
2292.9688,-4.1713,10.7163,29.6896,0.5544,-32.5758,7.9604,26.3898,-2.6239,9.5416,-11.5807,22.1540,31.9559,8.1817,-21.4636,17.9062,14.5350,0.2574,8.0394,13.1708
2296.8750,-5.8095,10.0291,27.7383,5.8220,-27.8170,9.2548,25.9495,1.9753,7.1754,-9.0791,18.8389,31.1110,6.1223,-18.6204,16.4240,15.3254,-2.1025,7.8313,13.9599
2300.7812,-7.8812,8.0407,27.5229,10.0797,-20.9483,8.9025,27.3710,5.7664,3.9328,-5.0618,18.1179,27.6459,4.3788,-14.0886,16.2016,14.8630,-5.4611,7.0458,17.9017
2304.6875,-10.8967,4.9447,26.9763,11.9175,-14.4078,7.3519,28.5634,7.4827,-0.9145,-1.5571,18.3841,22.6746,2.5739,-9.2080,16.3611,13.5807,-9.2887,5.2622,22.4990
2308.5938,-14.3112,1.5465,23.3891,10.6056,-9.6424,5.7549,26.7537,6.7653,-6.8437,-0.4442,17.1313,17.8569,0.7021,-5.5138,15.4054,12.3003,-12.0760,2.3598,24.2554
2312.5000,-16.9155,-1.1576,15.6162,6.7703,-6.7851,4.9630,20.7477,4.4960,-12.5349,-2.2508,12.9308,14.3464,-0.9340,-3.5312,12.4677,11.4624,-12.4623,-1.2137,21.2242
2316.4062,-17.8029,-2.6045,5.0870,2.1997,-5.1380,4.7926,12.0072,2.2863,-16.8775,-5.8286,6.5118,12.0947,-2.1210,-2.2905,8.0567,10.6492,-10.3359,-4.5478,14.3216
2320.3125,-17.0816,-2.9909,-5.1809,-1.2196,-3.9247,4.2316,3.6395,1.3926,-19.6084,-9.1488,0.1712,10.1363,-3.0339,-0.1042,3.6863,8.9328,-6.9752,-6.7561,6.4544
2324.2188,-15.7411,-3.0323,-12.7267,-2.6884,-2.7632,2.4482,-1.8923,1.8509,-21.0836,-10.6000,-3.9236,7.6606,-4.1468,3.9186,0.7217,5.8657,-4.1031,-7.5006,0.2713
2328.1250,-14.8123,-3.3466,-17.1878,-2.8787,-1.6838,-0.2638,-4.4768,2.5342,-21.5150,-9.8052,-5.1503,4.9642,-5.8436,8.8578,-0.5744,2.2824,-2.6275,-7.1167,-3.6182
2332.0312,-14.5483,-3.9609,-20.0363,-3.2055,-0.8924,-2.4621,-6.1091,2.1284,-20.4798,-7.4202,-4.5214,3.4071,-8.0836,12.3979,-1.0259,0.1090,-2.0880,-6.2104,-6.6163
2335.9375,-14.3021,-4.3287,-22.8640,-4.5918,-0.5757,-2.5617,-8.9628,0.2406,-17.2258,-4.2492,-3.5621,4.3077,-10.3934,12.4681,-1.6462,1.1287,-1.2198,-5.0732,-10.5249
2339.8438,-13.1659,-3.8200,-25.7804,-6.7667,-0.8716,-0.1021,-13.4363,-2.2956,-11.5334,-0.5591,-3.0460,7.6554,-12.1509,8.8621,-2.7017,5.5618,0.8886,-3.4575,-15.8443
2343.7500,-10.7967,-2.2627,-27.3271,-8.6712,-1.9134,3.7508,-17.8123,-4.1963,-4.3412,3.7908,-2.6439,11.7712,-12.8928,3.5391,-3.5623,11.5954,4.0307,-0.9596,-21.4161
2347.6562,-7.7328,-0.0924,-25.9377,-9.5631,-3.8112,6.9110,-19.7694,-4.9065,2.4948,8.6041,-1.6250,14.3390,-12.4216,-0.6838,-3.4269,16.3656,7.1207,2.3172,-25.5725
2351.5625,-4.9756,1.9924,-21.5897,-9.7636,-6.5529,7.7754,-18.4056,-5.0925,7.2142,12.8269,0.1882,14.1024,-10.7287,-2.0632,-2.2145,17.7823,9.1657,5.4733,-27.6272
2355.4688,-3.2436,3.5539,-16.1228,-10.2856,-9.9199,6.2648,-15.0281,-5.9118,9.1835,14.9291,2.1565,11.8978,-7.9245,-1.0123,-0.7812,15.8864,10.0893,7.2891,-28.3214
2359.3750,-2.5444,4.6750,-11.8730,-11.6038,-13.4941,3.7473,-12.0452,-7.6144,9.1656,14.0272,3.4611,10.1336,-4.2972,0.4494,-0.2533,12.7182,10.6911,7.1814,-28.8621
2363.2812,-2.3759,5.7531,-9.7756,-12.6854,-16.7205,1.9626,-10.9298,-8.7381,8.6642,10.8158,3.9574,11.0123,-0.3971,0.3705,-1.0813,10.7764,11.8103,5.8444,-29.5104
2367.1875,-2.2851,7.0354,-8.5932,-11.2994,-18.9353,1.8146,-10.9966,-6.7891,8.9008,7.3978,4.3499,14.8029,3.0701,-1.6802,-2.6705,11.2026,13.4629,4.9341,-29.0921
2371.0938,-2.2177,8.3121,-5.9883,-5.5788,-19.3672,2.9176,-10.0185,-0.0886,10.2051,5.9687,5.4631,19.4788,5.6042,-4.4609,-3.9127,13.0282,14.7400,5.9145,-25.9570
2375.0000,-2.3420,9.0358,-0.5800,4.3192,-17.2452,4.1213,-6.1388,10.5992,12.1710,7.3080,7.2926,22.0212,7.2896,-6.1711,-4.1158,14.0013,14.5750,8.9286,-19.5682
2378.9062,-2.5747,8.7572,6.7301,15.8338,-12.1375,4.4662,0.5268,22.0329,14.2672,10.2724,8.8003,20.4390,8.8214,-5.8124,-3.4772,12.3173,12.7186,12.6266,-11.2851
2382.8125,-2.3569,7.4994,13.2711,25.3454,-4.4124,3.7680,7.8849,30.2578,16.2765,12.7249,8.7630,15.0436,11.0290,-3.6987,-2.6884,7.9334,10.0714,15.1610,-3.5787
2386.7188,-1.0107,5.7542,16.5267,30.3312,4.5376,2.4516,13.3701,32.9616,18.2104,13.1646,6.9742,8.1207,14.1919,-0.8453,-2.0933,2.5280,8.0769,15.5945,1.7109
2390.6250,1.5728,4.1149,15.8906,30.7519,12.6655,0.9314,15.6594,30.7156,19.9104,11.7462,4.6773,2.3508,17.7098,2.0637,-1.2588,-1.7639,7.6888,14.5944,4.6130
2394.5312,4.5555,2.8698,12.8788,28.6922,18.2148,-0.8151,15.2512,26.2392,20.8619,9.8986,3.7171,-0.7963,20.4829,5.1572,0.5731,-3.8034,8.7828,13.8362,6.7263
2398.4375,6.5529,1.9004,9.7634,26.6424,20.7106,-3.0882,13.6428,22.3504,20.5128,8.9413,5.0469,-1.5885,21.7866,8.9362,3.5491,-3.9977,10.4803,14.5940,9.6823
2402.3438,6.6224,0.9471,7.8835,25.8172,21.2665,-5.9133,12.0298,20.2143,18.8558,8.9394,7.8834,-1.2997,21.9414,13.4201,6.7284,-3.6427,12.0486,16.6778,13.7248
2406.2500,5.0838,-0.0193,7.0325,25.7444,21.8515,-8.6659,10.7033,19.1387,16.7011,8.7994,10.3235,-0.9987,22.1516,17.7519,8.6589,-3.7073,13.5392,18.5978,17.6108
2410.1562,3.4459,-0.6712,6.2557,25.2061,23.9122,-10.2929,9.4993,17.8169,15.2853,7.4906,10.9766,-0.8706,23.5160,20.6769,8.6322,-4.0822,15.5821,18.8150,19.8261
2414.0625,3.3846,-0.5749,5.1257,23.5081,27.3134,-10.0080,8.5982,15.7562,15.4468,5.2466,10.2184,-0.4939,25.9423,21.4745,7.5089,-3.8529,18.5313,17.0252,19.9379
2417.9688,5.4988,0.3956,4.2220,20.9124,30.4228,-7.9014,8.6902,13.6137,17.0277,3.5835,9.9164,0.3630,27.8873,20.4916,7.2440,-2.2823,21.7801,14.3941,18.8342
2421.8750,8.8073,1.8456,4.4073,17.9671,31.3553,-4.9498,10.2595,12.2513,19.0216,4.0064,11.7670,1.2506,27.2815,18.7835,9.3261,0.3701,23.9615,12.5439,17.6743
2425.7812,11.4130,3.0556,5.7044,14.5465,29.4760,-2.3963,12.7411,11.5198,20.3709,6.4781,15.6384,1.3258,23.0643,17.1818,13.3713,2.8901,23.9795,12.1466,16.6134
2429.6875,11.8555,3.4471,6.9927,9.6768,25.9918,-0.9780,14.5629,10.0240,20.7530,9.0382,19.4063,0.1472,16.1976,15.6320,17.1334,3.9754,22.0438,12.3130,14.6026
2433.5938,10.1289,2.9529,6.9574,2.4480,23.1048,-0.5881,14.2892,6.1995,20.6843,9.0612,20.5518,-1.7613,9.3237,13.3985,18.1029,3.2226,19.7787,11.2926,10.5593
2437.5000,7.5985,2.0020,5.4592,-6.7838,22.3131,-0.5851,11.9563,-0.2043,20.8568,5.2517,18.2608,-3.1249,5.2165,9.9423,15.5106,1.4470,19.1814,7.9045,4.8500
2441.4062,5.9177,1.1482,3.9663,-16.0789,23.1582,-0.4447,9.3242,-7.5808,21.2941,-1.2151,14.2425,-2.7961,5.0865,5.6580,11.1067,0.0891,21.1600,2.5169,-0.4022
2445.3125,5.8121,0.6553,4.4504,-22.9364,23.4356,-0.2045,8.6229,-13.4261,21.1059,-7.3861,11.4839,-0.6171,7.9386,1.7682,7.9851,0.1679,24.7834,-3.2097,-2.7102
2449.2188,6.6662,0.3716,7.5767,-25.9087,20.7848,-0.3696,10.7283,-16.0560,19.1242,-10.5799,11.8789,2.4059,11.4054,-0.5703,8.2922,1.5674,27.8703,-7.5585,-1.2765
2453.1250,7.1704,-0.0317,11.8034,-25.4714,14.4910,-1.4070,14.3493,-15.6502,14.9417,-10.2218,14.6712,4.7496,13.3982,-1.1789,11.6061,3.1536,28.5081,-9.9280,2.0892
2457.0312,6.4358,-0.6890,14.3607,-23.3945,6.1346,-3.2747,17.0406,-13.7721,9.4781,-8.0645,17.0355,5.3500,13.3505,-0.9800,15.2794,3.5930,26.3555,-11.0058,4.1700
2460.9375,4.6499,-1.3643,13.4696,-21.1551,-1.4168,-5.3672,17.2828,-11.8439,4.5313,-6.6904,16.3720,4.2095,12.2101,-1.2016,16.4823,2.2534,22.7442,-11.9028,2.8704
2464.8438,2.7807,-1.6150,9.9785,-18.7740,-5.9164,-6.8942,15.8452,-9.9689,1.5803,-7.5421,12.4477,2.2619,11.3314,-2.3357,14.3225,-0.4292,19.5281,-13.0772,-0.9519
2468.7500,1.6457,-1.1406,6.9285,-15.0971,-7.1132,-7.3770,15.1574,-7.1561,0.7268,-10.0302,7.6179,0.6907,11.2426,-3.7356,10.3826,-3.3025,17.6031,-13.9938,-3.9376
2472.6562,1.1730,-0.0126,7.2377,-9.2499,-6.5973,-6.8967,17.1088,-2.7079,0.5956,-12.3159,4.9358,0.2353,11.2696,-4.1797,7.3224,-5.2442,16.2547,-13.7535,-2.7287
2476.5625,0.4797,1.4032,11.3144,-1.9182,-6.3222,-5.9632,21.1364,2.5699,-0.7074,-12.9815,5.7072,0.9311,10.2427,-2.9022,6.7616,-5.7623,13.8243,-12.0557,3.4254
2480.4688,-1.3215,2.7480,16.5776,4.7795,-7.0196,-5.1616,24.3403,6.5633,-4.2727,-12.1479,8.5035,2.3325,7.6205,-0.2138,8.1788,-5.0928,9.1405,-9.5912,12.0443
2484.3750,-4.2894,3.9231,19.3541,8.8117,-7.7570,-4.8509,23.6981,7.4257,-9.6517,-11.1689,10.4212,3.9334,4.0637,2.7687,9.6427,-3.8328,2.5803,-7.5176,19.2723
2488.2812,-7.5040,5.0816,17.6677,9.8461,-6.9331,-5.0691,18.6089,5.1970,-15.1884,-11.2909,9.5080,5.4507,0.9844,4.9796,9.6282,-2.4478,-4.0689,-6.5186,22.6875
2492.1875,-9.7164,6.3867,12.6798,9.4946,-3.8544,-5.6119,11.6038,1.9755,-19.1056,-12.5042,6.3279,6.8439,-0.5476,6.0702,8.3031,-1.0155,-8.8347,-6.3136,22.7917
2496.0938,-10.2519,7.7736,7.6380,9.8867,0.4111,-6.1505,6.5174,0.3430,-20.5230,-13.5622,3.3927,8.1747,-0.6501,6.3482,7.2069,0.6613,-10.9308,-6.0456,22.0526
2500.0000,-9.4294,8.9432,5.2450,11.7649,3.6047,-6.3138,5.5568,1.2910,-19.7296,-13.0731,2.9967,9.4789,-0.5571,6.1688,7.6884,2.7161,-11.2480,-5.1472,22.4429
2503.9062,-8.1899,9.6004,5.6373,13.7852,3.8337,-5.7558,7.6867,3.4212,-17.6495,-10.6490,5.3047,10.7288,-1.7082,5.4548,9.5439,4.9424,-11.6269,-3.8413,23.6474
2507.8125,-7.2914,9.7272,6.5977,13.7067,0.9091,-4.2606,9.6898,4.1792,-15.0294,-7.1180,8.2802,11.8459,-4.7187,3.8540,11.0949,6.7985,-13.4849,-2.7879,23.4638
2511.7188,-6.7628,9.6437,5.7063,10.4909,-3.5478,-1.8595,9.0066,2.1397,-11.9918,-3.6965,9.4438,12.7107,-8.9968,1.3729,10.6417,7.7080,-16.8132,-2.2220,19.9736
2515.6250,-6.0513,9.7904,2.5085,5.4568,-7.2744,1.1333,5.9238,-1.6062,-8.2248,-0.9488,7.9141,13.1812,-13.2222,-1.1956,7.9978,7.4621,-20.2374,-1.4622,13.5044
2519.5312,-4.6837,10.4117,-1.1760,1.3799,-8.9022,4.2329,3.2056,-4.2174,-3.5565,1.5010,4.9983,13.1655,-16.2385,-2.5943,4.7190,6.4504,-22.0278,0.6269,6.5924
2523.4375,-2.8320,11.3988,-3.0178,0.2002,-8.7326,6.9907,3.4555,-3.4685,1.5976,4.2919,2.8952,12.7399,-17.6530,-2.0131,2.7812,5.5373,-21.2816,4.5171,1.9205
2527.3438,-1.2774,12.4126,-2.4069,1.2916,-8.2689,9.1464,6.4913,0.2585,6.2683,7.3928,2.7024,12.2060,-17.7624,0.1845,2.8336,5.6102,-18.4350,9.2347,0.0182
2531.2500,-0.8042,13.1607,-1.1321,1.8774,-8.9716,10.6115,9.0881,4.0948,9.4070,9.8671,3.4778,11.9802,-16.9987,2.6236,3.5567,7.0460,-14.8065,12.7289,-1.2283
2535.1562,-1.5482,13.5795,-1.8601,-0.6104,-11.2187,11.3247,7.4740,4.9261,10.4546,10.6233,3.1445,12.3335,-15.4477,3.9249,2.7245,9.4233,-11.5789,13.2554,-4.7395
2539.0625,-2.8652,13.7670,-5.7039,-6.1389,-14.1915,11.1420,0.5849,1.9668,9.6288,9.4821,0.4013,13.1614,-12.8589,3.7431,-0.8944,11.6910,-8.9948,10.7220,-11.5874
2542.9688,-3.8356,13.7558,-11.0081,-11.7059,-16.6375,9.9032,-8.6628,-2.4616,7.7730,7.5266,-4.0576,13.9848,-9.0969,2.9379,-6.4040,12.7287,-6.3314,6.8688,-19.7899
2546.8750,-3.9851,13.3654,-14.4658,-13.4355,-17.8250,7.6403,-15.2606,-4.6286,5.8873,6.3107,-8.0831,14.2242,-4.5940,2.7126,-11.3876,11.9703,-2.6310,4.0588,-25.6440
2550.7812,-3.6208,12.3098,-13.6965,-9.5163,-17.9497,4.7389,-15.7396,-2.2182,4.6207,6.5402,-9.8866,13.5506,-0.3620,3.4754,-13.7621,9.6966,2.3739,3.5934,-26.5529
2554.6875,-3.5075,10.4941,-9.1487,-1.6041,-17.7535,1.8614,-10.6613,3.9984,3.9973,7.3955,-9.5409,12.0359,2.5161,4.4640,-13.3415,6.7975,7.8309,4.8863,-23.0194
2558.5938,-4.1526,8.2351,-3.7449,6.4765,-17.7290,-0.3668,-3.9945,10.9545,3.5165,7.1742,-8.8629,9.9762,3.5696,4.5247,-11.8300,4.1595,12.1652,6.1399,-18.1590
2562.5000,-5.2846,6.1694,-0.5778,11.6770,-17.5418,-1.6985,0.0596,15.8112,2.5802,4.8022,-9.7973,7.5479,3.3026,3.3845,-11.3012,2.0934,14.0617,5.9397,-15.1413
2566.4062,-5.9470,4.8634,-0.5802,13.9079,-16.0855,-2.3740,0.1829,18.0769,1.0148,0.9493,-12.7106,4.6163,2.9617,2.2402,-12.4818,0.1962,13.3699,4.4362,-14.6855
2570.3125,-5.1327,4.4095,-2.0648,15.6966,-12.1135,-2.9064,-1.4827,19.5914,-0.6357,-2.2528,-16.0635,0.8955,3.8340,3.0069,-14.2763,-2.2691,11.2939,3.1562,-14.6534
2574.2188,-2.4745,4.3446,-2.4110,19.6725,-5.0331,-3.7020,-1.6012,22.4934,-1.2943,-2.7550,-17.7082,-3.6525,6.5056,6.7328,-14.8699,-5.7564,9.6854,3.6526,-12.0167
2578.1250,1.5102,3.9985,-0.3739,26.0474,4.5987,-4.7916,1.2985,27.0000,0.0092,-0.1784,-16.6554,-8.5288,10.5125,12.4934,-13.3935,-10.0309,9.8587,6.1767,-5.5121
2582.0312,5.7549,3.0361,2.9595,32.2329,15.1270,-5.8473,5.5903,30.9563,3.4050,3.8534,-13.7866,-12.8066,14.5715,17.7852,-10.6888,-14.2483,11.7017,9.5032,3.2072
2585.9375,9.2652,1.7783,5.2999,34.9117,24.3631,-6.4271,8.1158,31.5671,7.8855,6.9347,-10.9502,-15.6041,17.2427,20.2345,-8.5333,-17.4342,13.7138,12.0302,10.7939
2589.8438,11.5726,1.0242,5.2779,32.7915,30.4171,-6.2395,7.0961,27.8350,11.7644,7.6812,-9.3068,-16.5744,17.6585,19.3083,-8.0396,-18.9994,14.0068,13.1680,14.6903
2593.7500,12.7658,1.4658,3.6579,27.6966,32.4575,-5.2562,3.8223,21.6071,13.7079,6.6773,-8.4153,-16.0387,15.9392,16.6377,-8.6446,-18.9395,11.6434,13.7949,14.8037
2597.6562,13.1955,3.1075,2.6024,23.0635,31.0611,-3.6692,1.6590,16.2975,13.6643,5.8423,-6.8408,-14.6743,13.0887,14.6570,-8.5689,-17.6470,7.4049,15.3721,13.1127
2601.5625,13.1580,5.1267,3.6972,21.1052,27.9406,-1.8062,3.2254,14.2962,12.9800,6.7845,-3.6788,-13.0281,10.4410,14.6386,-6.3353,-15.5562,3.4131,18.4864,11.7570
2605.4688,12.7911,6.3124,6.5244,21.0257,25.1008,-0.0865,8.1734,15.1651,13.5047,9.5035,0.4364,-11.2458,8.9658,15.7150,-2.0274,-12.9277,1.8076,22.0898,11.3720
2609.3750,12.1745,5.8085,9.0496,19.7732,23.8034,1.0285,13.4369,16.0550,16.2448,12.4548,3.7894,-9.1890,8.8344,15.6823,2.7854,-9.8995,3.3608,24.1285,11.0473
2613.2812,11.4529,3.6698,9.4602,14.6822,23.9200,1.1850,15.7036,13.9518,20.5438,13.8279,5.1142,-6.7603,9.5048,12.9156,6.3545,-6.6744,7.0051,23.0725,9.7367
2617.1875,10.8224,0.8583,7.8085,5.7965,24.1131,0.3758,13.9981,7.9184,24.4586,12.9158,4.8070,-4.0926,10.2658,7.8150,8.1367,-3.6065,10.6280,19.0978,7.6499
2621.0938,10.3951,-1.3105,6.0034,-4.0290,22.8027,-0.9138,10.2470,-0.3841,26.1298,10.4612,4.6797,-1.4240,10.8650,2.5904,9.0664,-1.0775,12.5781,13.9699,6.2633
2625.0000,10.0919,-1.9078,6.1766,-11.2644,19.3251,-1.8639,7.4802,-8.1246,25.1560,7.8018,6.4134,1.1868,11.7512,-0.4296,10.5307,0.7223,12.7827,9.7499,6.9425
2628.9062,9.6906,-0.8489,8.8846,-14.2513,14.4883,-1.7890,7.3321,-13.3386,22.9142,5.6607,10.0570,3.9667,13.7125,-0.5765,12.9989,1.8880,12.6442,7.3954,9.5092
2632.8125,9.0100,1.1877,12.7377,-14.0824,10.0817,-0.6246,9.0057,-15.9084,21.5386,3.6625,13.9237,7.1863,17.1390,0.7273,15.5388,2.6673,13.7921,6.3474,12.1759
2636.7188,8.0789,3.2704,15.7513,-13.2215,7.6305,0.9723,10.4774,-16.8956,22.3049,0.9487,16.0301,10.7546,21.4716,1.1877,16.6430,3.2259,16.6512,5.3215,13.0171
2640.6250,7.1533,4.7868,17.1653,-13.1977,7.2661,2.0747,10.7041,-17.1038,24.6539,-2.7353,15.8384,14.0525,25.3224,-0.5348,15.6156,3.5401,19.9566,3.5236,11.7020
2644.5312,6.5646,5.7069,18.0623,-13.4078,7.5582,2.2016,10.7420,-16.3042,26.6138,-6.5151,14.7495,16.2409,27.2740,-3.8830,13.2698,3.5253,21.6319,1.2373,9.8919
2648.4375,6.5128,6.4100,20.1978,-11.9979,6.4880,1.7263,12.7148,-13.7856,26.2837,-8.9362,14.8431,16.8517,26.8194,-7.0382,11.2950,3.2650,20.3848,-0.6366,9.8526
2652.3438,6.9352,7.2454,24.0911,-7.9309,2.9076,1.5812,17.5523,-9.5667,23.2057,-9.1379,16.9053,16.1629,24.7212,-8.5025,10.8271,3.0725,16.7733,-1.5628,12.4346
2656.2500,7.5044,8.1599,28.1332,-2.3209,-2.5511,2.4186,23.5847,-4.9670,18.5415,-7.6472,19.4644,14.9833,22.4560,-8.2562,11.4678,3.2577,12.8697,-1.9330,16.2060
2660.1562,7.7215,8.6562,29.6105,2.2033,-7.7761,3.8946,27.3853,-1.8493,13.9473,-6.1084,19.7588,13.9627,21.0992,-7.5600,11.6229,3.7633,10.7189,-2.7083,18.5714
2664.0625,7.0561,8.1045,26.8481,3.5844,-10.4799,4.7336,26.3017,-1.1350,10.1019,-6.1580,15.9324,12.9931,20.4755,-7.6660,9.8970,4.0281,10.7510,-4.5060,17.9757
2667.9688,5.1145,6.1896,20.6462,2.0612,-9.5965,3.6502,20.5982,-1.9481,6.1334,-8.3376,8.6768,11.2530,19.2520,-8.6097,6.3685,3.2979,11.3861,-6.9930,15.2942
2671.8750,1.8358,3.1885,13.7428,0.0149,-5.8319,0.4747,13.3916,-2.2555,0.4542,-11.8497,0.9457,7.9358,15.9506,-9.1302,2.6654,1.2313,10.1810,-9.1429,13.1543
2675.7812,-2.3474,-0.1121,8.7242,0.0306,-1.0694,-3.4383,8.3793,-0.5503,-7.6588,-15.2277,-4.0717,3.0994,10.1364,-7.7549,0.7691,-1.6639,5.6867,-10.1125,13.6999
2679.6875,-6.5101,-2.8054,6.1543,2.7903,2.8573,-5.9553,7.1894,2.8416,-17.0383,-17.2831,-5.1156,-2.0916,2.8773,-4.0947,1.5277,-4.1762,-1.3759,-9.9358,16.6902
2683.5938,-9.5057,-4.3087,4.5143,6.5458,5.1337,-5.6039,8.4718,5.9795,-25.0467,-17.5984,-3.4744,-6.0067,-3.8943,0.7405,4.0745,-5.1109,-8.5154,-9.4183,19.5878
2687.5000,-10.4551,-4.5819,1.9678,8.5715,6.0848,-2.6413,9.3662,6.8950,-29.1845,-16.3598,-1.6674,-7.6202,-8.6387,4.9102,6.5610,-4.0977,-13.1545,-9.3545,19.6245
2691.4062,-9.2102,-4.0005,-1.6407,7.3466,6.5295,1.1027,8.0126,5.2030,-28.6865,-13.9298,-1.3699,-7.1628,-11.1332,7.1026,7.5388,-1.8738,-14.3546,-9.8032,16.1295
2695.3125,-6.4843,-3.0114,-4.3796,3.6636,6.9756,3.5463,4.9776,2.3556,-24.9143,-10.6716,-2.2935,-5.8064,-12.3800,7.2509,6.8575,0.2166,-13.3298,-10.0763,11.1448
2699.2188,-3.5139,-1.8456,-3.8682,-0.1668,7.2601,3.8629,2.4859,0.3375,-20.3005,-7.1260,-2.8298,-4.6133,-13.6204,6.2250,5.4447,1.1759,-12.4221,-9.4170,7.7723
2703.1250,-1.4214,-0.5070,0.3973,-2.2324,6.8026,3.0207,2.2484,-0.0438,-16.7055,-4.1497,-1.7431,-3.6052,-15.2643,4.9230,4.3142,1.0697,-13.3419,-7.7018,7.6062
2707.0312,-0.6751,0.9728,6.0661,-2.4071,5.1569,2.9339,3.8272,0.2273,-14.4335,-2.6060,0.6287,-1.7400,-16.5792,3.6364,3.7370,0.9742,-15.9623,-5.4974,9.3882
2710.9375,-0.9871,2.2559,9.2764,-2.1321,2.3895,4.8848,4.9294,-0.6124,-12.5467,-2.6914,2.6710,2.1435,-16.3412,2.1908,3.2445,2.1956,-18.4775,-3.4433,10.0070
2714.8438,-1.6791,2.6864,7.3607,-2.9479,-0.9613,8.4447,3.3150,-3.3709,-10.0577,-3.5006,2.9223,8.1545,-13.8834,0.5744,2.3116,5.3299,-18.7150,-1.6039,7.0141
2718.7500,-2.2165,1.6428,0.7876,-5.1529,-4.2426,11.7274,-1.3594,-6.9944,-6.9430,-3.4077,1.2912,14.9113,-9.6937,-0.6951,0.9653,9.8275,-15.6165,0.5118,0.5782
2722.6562,-2.5100,-0.9540,-7.2031,-7.7163,-7.0606,12.7568,-7.3083,-9.3181,-4.1805,-1.1939,-1.0297,20.2286,-5.1351,-0.9197,-0.2910,14.3198,-9.9032,3.2116,-6.7048
2726.5625,-2.7986,-4.3664,-12.9630,-9.3634,-9.4408,10.8767,-12.1015,-8.8423,-2.8915,2.8894,-2.8239,22.4380,-1.5858,0.0095,-1.1309,17.4124,-3.6186,5.8752,-11.9327
2730.4688,-3.2781,-7.2835,-14.9119,-9.7076,-11.7410,7.1351,-14.5124,-5.9909,-3.3906,7.0495,-4.0764,21.3556,0.2813,1.2011,-1.9346,18.3630,0.9982,7.0415,-14.1552
2734.3750,-3.8338,-8.5106,-14.2348,-9.3615,-14.4122,3.4225,-15.1641,-2.7430,-4.9400,9.0973,-5.9922,18.2071,0.5720,1.2306,-3.5927,17.2477,2.5452,5.4731,-14.9209
2738.2812,-4.1160,-7.6887,-13.4249,-9.0009,-17.7120,1.1193,-15.5494,-0.9436,-6.3388,8.0240,-9.7407,14.6450,-0.2919,-0.7921,-6.6790,14.6555,0.8965,1.3954,-16.7370
2742.1875,-3.8807,-5.5500,-14.0376,-8.3845,-21.4446,0.3249,-16.4475,-0.7521,-6.7713,4.7836,-15.0504,11.6672,-2.0124,-4.4293,-10.7331,11.2679,-2.9601,-3.2229,-20.7905
2746.0938,-3.2723,-3.5003,-15.5463,-6.3799,-24.8216,0.1805,-17.2170,-0.5779,-6.2009,1.6130,-19.9768,9.2336,-4.3864,-8.1137,-14.3719,7.6425,-7.3959,-5.8000,-25.8279
2750.0000,-2.7673,-2.7771,-16.1281,-2.0626,-26.5819,-0.1342,-16.5653,1.4425,-5.0797,0.3799,-22.1785,6.7368,-6.9020,-10.2296,-16.2411,4.2277,-10.6668,-4.9528,-29.0541
2753.9062,-2.7976,-3.7352,-14.5289,4.1309,-25.4439,-0.6675,-14.0062,5.7175,-3.7664,1.2564,-20.7072,3.7801,-8.4966,-10.2031,-16.0467,1.4019,-11.4145,-1.5736,-28.2297
2757.8125,-3.3574,-5.7242,-11.3100,10.3704,-20.7470,-0.8426,-10.5922,10.7398,-2.2432,2.7789,-16.8137,0.5460,-7.9194,-8.6997,-14.7779,-0.6306,-9.1138,1.7852,-23.2345
2761.7188,-3.9285,-7.6078,-8.4112,14.7252,-12.9091,-0.2717,-8.1865,14.3174,-0.3477,3.2243,-13.0492,-2.5016,-4.5633,-6.7899,-13.8797,-2.0147,-4.3179,2.8550,-15.9309
2765.6250,-3.8003,-8.5248,-7.4828,16.7426,-3.3227,0.5852,-7.8859,15.4443,1.8081,2.1465,-11.3468,-5.1973,0.8974,-4.8419,-14.0333,-3.2507,1.5265,1.4438,-8.6303
2769.5312,-2.5369,-8.3541,-8.4799,17.8918,6.3520,0.5950,-9.0030,15.1889,3.7395,0.7807,-11.6215,-7.9097,6.6898,-2.1473,-14.5527,-4.8991,6.7533,-0.3665,-2.5529
2773.4375,-0.2280,-7.5962,-9.7263,20.3520,15.0674,-1.1236,-9.5481,15.8009,4.9705,0.9660,-12.0043,-11.1685,10.9439,2.3550,-13.9211,-7.1524,10.3223,0.1513,2.4919
2777.3438,2.6454,-6.8419,-9.3449,25.0572,22.7953,-4.3134,-7.8349,18.7643,5.5220,3.4885,-10.4854,-15.0303,12.8004,8.8629,-11.0479,-9.6403,12.2766,4.1439,7.1566
2781.2500,5.5726,-6.2859,-6.7969,30.6346,30.1061,-7.5406,-3.8597,23.4271,5.9668,7.2458,-6.6133,-18.8171,12.7646,16.0822,-6.2451,-11.6957,13.4394,10.0951,11.3815
2785.1562,8.2739,-5.6642,-3.2408,34.2035,37.2131,-9.1253,0.6969,27.3673,6.9020,9.9693,-1.8998,-21.5396,12.0305,21.7999,-1.1571,-12.9133,14.5412,14.7655,14.1263
2789.0625,10.6574,-4.6204,-0.4943,33.4708,43.2712,-8.3426,3.7953,28.1941,8.2868,9.9523,1.3348,-22.6772,11.3601,24.2747,2.2738,-13.5309,15.4737,15.4649,14.2151
2792.9688,12.5756,-3.1505,0.4327,28.4416,46.6067,-5.9486,4.5305,25.2963,9.3212,7.3922,1.6929,-22.6128,10.4933,23.3585,2.9975,-14.2530,15.3402,11.9407,11.4688
2796.8750,13.6882,-1.7287,-0.0167,21.3476,45.8366,-3.6180,3.5596,20.1183,9.1068,4.2624,-0.3519,-22.2785,8.6198,20.4727,1.3537,-15.5973,13.3480,6.4768,7.0681
2800.7812,13.6377,-0.9991,-0.5734,14.8460,41.0613,-2.7505,2.2303,14.8047,7.5935,2.8095,-2.9316,-22.2649,5.5079,17.4869,-1.3455,-17.2960,9.8399,2.1851,2.8268
2804.6875,12.4322,-1.2898,-0.3661,9.9697,34.1335,-3.5806,1.3134,10.4072,5.9316,3.8609,-4.1664,-22.1653,2.2525,15.4167,-3.6725,-18.3093,6.5288,0.8191,0.0278
2808.5938,10.6762,-2.3517,0.3807,5.5069,27.6537,-5.2276,0.5127,6.1768,5.7572,6.2412,-3.3178,-20.7856,0.8547,13.9457,-4.7037,-17.5392,5.5608,1.7125,-1.1848
2812.5000,9.3610,-3.5353,0.7304,-0.6982,23.3511,-6.5353,-0.8772,0.5016,7.8467,7.6850,-0.9330,-17.1374,2.8209,12.0476,-4.1150,-14.7250,7.9920,2.5063,-1.4386
2816.4062,9.2733,-4.2557,0.0482,-9.6089,21.0671,-6.9389,-2.8934,-7.3412,11.2301,6.4741,1.8869,-11.4342,7.8616,9.0795,-1.9883,-10.7878,12.8471,0.9647,-1.2682
2820.3125,10.4393,-4.3654,-1.3333,-19.7724,19.1590,-6.6670,-4.5150,-16.1205,13.6209,2.5501,4.3144,-5.2448,13.8070,5.3977,1.2816,-7.2852,17.5905,-3.5199,-0.6219
2824.2188,12.0571,-4.1533,-2.3803,-27.9925,16.0361,-6.2310,-4.3917,-23.1796,13.0081,-2.6211,6.0673,-0.6088,17.9425,2.0361,4.8999,-5.3507,19.7842,-9.7236,0.8437
2828.1250,13.0296,-4.0057,-2.2468,-31.3572,11.6093,-5.7785,-2.0328,-26.1560,9.2528,-7.1442,7.1296,1.2446,18.8181,-0.1842,7.7106,-4.9412,18.7439,-15.5972,3.0807
2832.0312,12.7378,-4.0482,-0.9269,-29.0650,7.4522,-4.9515,1.6717,-24.5591,4.4073,-9.8112,7.4371,0.6012,17.1465,-1.3095,8.6587,-4.9961,15.9344,-19.5534,5.3700
2835.9375,11.4809,-4.0754,0.9047,-22.7586,5.4854,-3.3604,5.1328,-20.0462,1.3933,-10.4810,6.9517,-1.1165,15.0768,-2.1474,7.5236,-4.3847,13.7727,-21.1081,6.8172
2839.8438,10.2377,-3.8038,2.6324,-15.3104,6.2179,-1.1738,7.3585,-15.2929,1.9545,-9.6962,6.0044,-2.4529,14.4031,-3.5777,5.3240,-2.8685,13.7392,-20.6474,7.1891
2843.7500,9.9143,-3.1885,4.2467,-9.1315,8.0048,0.8061,8.6758,-12.3842,5.4108,-8.0978,5.4056,-2.8405,15.1181,-5.9194,3.8641,-1.2834,15.2471,-18.8005,7.2481
2847.6562,10.6394,-2.4901,6.1528,-5.2220,8.0325,1.7354,10.1890,-11.8549,9.1598,-6.1750,6.0054,-2.6509,15.4586,-8.8434,4.5420,-0.7903,16.1384,-16.0466,8.1626
2851.5625,11.6347,-2.0160,8.4639,-3.3645,4.3660,1.4887,12.4574,-12.8508,10.5386,-4.3848,7.9774,-2.4674,13.4015,-11.7587,7.2531,-1.8196,14.4065,-12.7647,10.4467
2855.4688,11.7528,-1.7712,10.5470,-2.9053,-2.4996,0.8720,14.6485,-14.0055,8.6267,-3.2602,10.4884,-2.3231,8.4109,-14.1905,10.3145,-3.6045,9.7904,-9.4439,13.3899
2859.3750,10.2758,-1.3671,11.3749,-3.2912,-9.8195,1.0159,15.0482,-14.2631,4.6529,-3.2033,12.1749,-1.6278,2.0316,-15.7898,11.6132,-4.7134,4.0021,-6.6706,15.5529
2863.2812,7.3871,-0.3262,10.4373,-4.0471,-14.4331,2.4107,12.5853,-13.1887,0.7949,-4.1072,12.1341,0.1630,-3.1636,-16.1010,10.1842,-4.1564,-0.5615,-4.8382,15.9424
2867.1875,4.0004,1.4370,8.3506,-4.5716,-14.8985,4.4139,8.0338,-10.8675,-1.5905,-5.2602,10.6123,2.7885,-5.4637,-14.5397,6.9842,-2.1542,-2.5894,-3.8895,14.8140
2871.0938,1.1184,3.3741,6.4981,-4.2820,-12.3458,5.7132,3.7311,-7.7503,-2.8881,-5.7929,8.7700,5.1001,-5.2857,-10.8342,4.1982,0.0701,-2.7293,-3.4065,13.3389
2875.0000,-0.7761,4.5624,5.9004,-3.1458,-9.4659,5.4207,1.8983,-4.5968,-4.6314,-5.3752,7.6878,5.8362,-4.8459,-5.6225,3.5794,1.3051,-2.9266,-3.0084,12.3978
2878.9062,-1.8691,4.3301,6.2821,-2.0500,-8.4752,3.8989,2.9012,-2.3509,-7.9764,-4.5240,7.4833,4.6584,-6.4938,-0.5541,5.1325,1.3282,-4.8050,-2.6755,11.6194
2882.8125,-2.6632,2.7913,6.2208,-2.4410,-9.6269,2.5873,4.9332,-1.7611,-12.5400,-4.1368,7.3399,2.5669,-10.9557,2.4693,7.2011,1.0396,-8.3695,-2.6585,9.6361
2886.7188,-3.4667,0.8592,4.3455,-5.3064,-11.3281,2.9069,5.4462,-2.8896,-16.5387,-4.5740,6.4435,1.2921,-16.7527,2.5300,7.8846,1.6578,-11.9977,-3.0495,5.4542
2890.6250,-4.1476,-0.3157,0.5925,-10.2699,-11.6236,5.1082,3.1788,-4.9409,-18.0797,-5.1173,4.9564,2.1042,-21.1415,0.4631,6.6140,3.6688,-13.6388,-3.4656,-0.2450
2894.5312,-4.3221,-0.0984,-3.5985,-15.6125,-9.7806,8.0173,-0.8993,-6.6995,-16.5462,-4.4085,4.0584,4.9687,-21.8328,-1.5741,4.5830,6.4184,-12.2429,-3.2398,-5.1442
2898.4375,-3.7818,1.2232,-6.3888,-19.2999,-6.7374,9.9354,-4.5001,-7.3307,-13.0095,-1.6324,4.8861,8.6994,-18.2882,-1.5608,3.6856,8.6818,-8.3682,-2.0275,-6.8574
2902.3438,-2.7825,2.6643,-7.0397,-20.2063,-4.1837,10.0006,-5.9906,-6.8724,-9.4230,2.5445,7.2444,11.9340,-11.8398,0.9478,4.8561,9.7069,-3.6508,-0.2672,-4.8559
2906.2500,-1.9454,3.2233,-6.5159,-18.5206,-3.1394,8.9176,-5.7301,-5.9173,-7.3013,6.1968,9.2937,14.0984,-4.7693,4.5249,7.1955,9.8236,0.2934,1.0268,-1.1365
2910.1562,-1.8377,2.5212,-6.6376,-15.0474,-3.2250,8.4387,-5.6419,-4.7061,-6.8925,7.5183,8.6768,15.5770,0.8838,6.9795,8.6021,10.0858,2.6441,1.0947,1.0545
2914.0625,-2.5460,0.9678,-8.4858,-10.1420,-3.1538,9.9666,-7.4213,-2.4963,-7.3467,6.3089,4.3080,17.0150,4.0495,7.0012,7.3667,11.2476,3.3639,0.2094,-0.4568
2917.9688,-3.5568,-0.6058,-11.4308,-3.3920,-1.9419,13.3620,-10.9598,2.0270,-7.5632,4.2951,-2.6154,18.4339,4.6700,5.0229,3.4174,12.9608,2.6605,-0.3459,-5.2098
2921.8750,-4.0330,-1.5246,-13.6378,5.5402,0.2065,16.8979,-14.3644,9.4179,-6.9536,3.8849,-9.2849,18.9861,3.3377,2.6284,-1.7511,13.9156,0.5687,0.7689,-10.5479
2925.7812,-3.3021,-1.6295,-13.6227,15.6766,2.0343,18.4269,-15.5525,18.2963,-5.5913,6.2640,-13.1934,17.6021,0.9142,1.0499,-6.2981,12.8632,-2.9412,3.7695,-13.6908
2929.6875,-1.2448,-1.2155,-11.5103,24.4165,2.2029,16.9049,-14.0298,25.5372,-3.8243,10.3831,-13.8049,13.9903,-1.7082,0.0801,-9.3037,9.7070,-7.5057,7.3495,-13.7599
2933.5938,1.6431,-0.6887,-8.9083,28.8197,0.2756,13.1539,-11.3072,28.0447,-1.8431,13.7436,-12.6627,9.1190,-3.7822,-1.6279,-11.0444,5.7636,-12.0894,9.5181,-12.1539
2937.5000,4.5325,-0.2636,-7.5242,27.7064,-3.0220,9.3280,-9.6041,24.9618,0.4039,14.4355,-11.8891,4.7266,-4.8899,-5.0943,-12.1927,2.9466,-15.2503,9.1122,-11.0742
2941.4062,6.7073,0.0760,-7.7605,22.8591,-6.3369,7.4972,-9.9810,18.5817,2.9870,12.7919,-12.3492,2.2098,-5.0405,-9.6519,-12.8267,2.4794,-15.7998,6.7920,-11.5322
2945.3125,7.9207,0.3910,-8.5302,18.1079,-8.4695,8.3566,-11.5265,13.0422,5.8001,11.2567,-13.0118,1.7478,-4.5158,-12.9401,-12.2485,4.1083,-13.3536,4.6611,-12.5408
2949.2188,8.4763,0.5977,-8.4302,16.7350,-8.7893,10.9010,-12.2885,11.5811,8.6335,12.4766,-12.0104,2.3149,-3.4860,-12.4110,-9.7884,6.3752,-8.3835,4.7269,-12.1198
2953.1250,8.9957,0.4660,-7.1745,19.1168,-7.1309,13.1742,-11.1054,14.3480,11.3897,17.0973,-8.4570,2.5055,-1.7042,-7.2234,-5.7853,7.6804,-1.8309,7.3730,-9.1635
2957.0312,10.0060,-0.2054,-5.9419,22.5144,-3.5122,13.4829,-8.7142,18.4551,14.1250,23.0448,-3.4306,1.4753,1.3621,0.9796,-1.7123,7.2957,5.3071,11.0481,-4.5093
2960.9375,11.5783,-1.4095,-6.2740,23.2961,1.9118,11.2672,-7.1581,20.2639,16.7813,26.9186,0.7232,-0.7117,5.9337,9.0652,0.8170,5.6074,12.0925,13.4308,-0.2931
2964.8438,13.2420,-2.9119,-8.4996,19.8985,8.6201,7.1854,-8.0110,18.1515,18.8728,26.4451,2.1958,-3.4684,11.3082,14.4357,1.3471,3.5392,17.5372,13.1601,1.8073
2968.7500,14.2612,-4.3946,-11.1534,14.1516,15.5784,2.5498,-10.9698,13.6161,19.5599,22.0896,1.1007,-6.3178,15.8551,16.5451,0.9949,1.7349,20.6518,10.7871,1.8763
2972.6562,14.1386,-5.6166,-12.0126,9.8486,21.5246,-1.4031,-14.0299,9.9071,18.2493,16.6064,-0.7126,-9.1528,17.8536,16.8176,1.4986,0.1859,20.8842,8.2433,1.4906
2976.5625,13.0412,-6.4469,-9.9221,9.6683,25.6086,-3.9797,-15.0770,9.3415,15.3091,12.9522,-1.2218,-11.9357,16.6973,17.1714,3.6418,-1.4809,18.7094,7.3120,2.1667
