Time,Fp1,F3,C3,P3,O1,F7,T3,T5,Fz,Fp2,F4,C4,P4,O2,F8,T4,T6,Cz,Pz
0.0000,-2.5463,-0.3976,-1.2919,-0.1516,0.2769,-0.6079,-0.4407,0.7327,-0.5636,-3.4011,-2.9501,2.1020,1.4256,-0.5777,-2.7368,-2.9105,0.2370,-0.4230,-0.8092
3.9062,-0.6934,-0.0891,-0.3021,0.3089,0.5850,-0.3242,1.0746,1.4036,-0.3251,-1.7653,-2.8956,2.0971,0.8139,0.8392,-2.3572,-1.8666,-0.6774,-0.3517,-0.0130
7.8125,2.1385,0.3263,1.1989,1.0280,0.8138,0.3722,3.1206,2.1545,0.2243,0.9909,-1.8335,1.8959,0.0355,1.8675,-1.6144,-0.0477,-1.8739,0.1735,1.1080
11.7188,5.0985,0.7428,2.9595,2.0599,0.9200,1.3498,5.2273,2.8585,0.9891,4.0745,0.2204,1.3622,-0.6026,0.9259,-0.7297,1.8734,-3.1456,1.3389,2.5131
15.6250,7.0923,1.0887,4.6693,3.4198,0.9907,2.3087,6.8491,3.4456,1.7322,6.2536,2.6200,0.4608,-0.8859,-1.8870,-0.0410,3.0865,-4.2691,3.1389,4.1781
19.5312,7.3341,1.3638,6.0892,5.0027,1.2123,2.8990,7.5847,3.9004,2.1648,6.4891,4.3378,-0.6439,-0.7365,-4.6075,0.2126,3.1284,-5.0081,5.3420,6.0863
23.4375,5.7554,1.5930,7.0795,6.5129,1.7527,2.8540,7.3152,4.2031,2.0552,4.5542,4.4866,-1.6319,-0.1762,-4.9249,0.0452,2.1036,-5.1248,7.5128,8.1327
27.3438,3.0242,1.7233,7.5202,7.4713,2.6144,2.0732,6.1980,4.2680,1.3044,1.2417,2.8126,-2.2335,0.6740,-2.1868,-0.3040,0.4978,-4.4595,9.0735,9.9925
31.2500,0.1752,1.5568,7.2208,7.3427,3.5520,0.6359,4.5450,3.9367,-0.0307,-2.0060,-0.1363,-2.4649,1.5132,1.8511,-0.5614,-1.2225,-3.0678,9.4216,11.0726
35.1562,-1.9079,0.8112,5.9480,5.7570,4.1233,-1.2336,2.6816,3.0558,-1.7448,-3.8515,-3.2640,-2.6941,1.8029,4.2757,-0.6221,-2.8622,-1.3080,8.1240,10.6594
39.0625,-2.8450,-0.6879,3.6096,2.7342,3.8763,-3.2127,0.8706,1.6023,-3.5017,-3.7514,-5.4477,-3.4311,0.9018,3.2968,-0.6027,-4.3894,0.2389,5.1565,8.2596
42.9688,-2.7738,-2.7904,0.4891,-1.2079,2.5880,-4.9285,-0.6735,-0.2241,-4.8715,-2.1671,-6.0304,-4.9460,-1.5650,-0.3501,-0.6946,-5.5969,1.0254,1.0674,3.9782
46.8750,-2.0902,-4.9457,-2.6621,-5.1446,0.4258,-6.0189,-1.7379,-2.0200,-5.4206,-0.1873,-5.0346,-6.9740,-5.2977,-4.0847,-0.9368,-5.9070,0.8335,-3.0792,-1.3081
50.7812,-1.1479,-6.3693,-4.8114,-8.0260,-2.0750,-6.2181,-2.1082,-3.3235,-4.8648,1.1776,-3.0321,-8.7465,-9.2106,-5.6681,-1.0981,-4.6098,-0.0987,-6.0453,-6.1504
54.6875,-0.1251,-6.4027,-5.0709,-9.0415,-4.2288,-5.4522,-1.6455,-3.8235,-3.2364,1.5708,-0.7922,-9.3694,-11.8234,-5.0027,-0.7897,-1.4478,-1.2289,-6.9247,-9.0652
58.5938,0.8975,-4.8758,-3.1429,-7.9117,-5.5077,-3.8960,-0.4006,-3.5142,-0.9554,1.3894,1.0820,-8.3297,-12.0162,-3.9872,0.2485,2.8929,-2.0584,-5.5523,-9.1580
62.5000,1.7872,-2.2505,0.4845,-4.9734,-5.7681,-1.9443,1.3305,-2.6958,1.2830,1.3886,2.3623,-5.8062,-9.6938,-4.5896,1.8856,6.8551,-2.4352,-2.5664,-6.5003
66.4062,2.3181,0.5596,4.7277,-1.0228,-5.2578,-0.0896,3.0822,-1.8012,2.7915,2.0915,3.1848,-2.5976,-5.8986,-6.9047,3.5628,8.7436,-2.5975,0.9332,-2.0553
70.3125,2.3006,2.6036,8.3911,3.0058,-4.3961,1.2451,4.4133,-1.1364,3.2059,3.4070,3.8642,0.2695,-2.2484,-8.9920,4.5347,7.7123,-2.9301,3.9294,2.7951
74.2188,1.7723,3.3125,10.6694,6.3709,-3.4648,1.8412,5.1155,-0.6886,2.6394,4.6850,4.6299,1.9921,-0.0428,-8.6813,4.2585,4.3445,-3.6248,5.9041,6.8411
78.1250,1.0571,2.6917,11.3929,8.7105,-2.4229,1.7249,5.3038,-0.1309,1.5638,5.1389,5.4087,2.2494,0.3813,-5.7041,2.6946,0.3895,-4.5071,6.8859,9.4324
82.0312,0.5938,1.2094,10.9117,10.0170,-0.9840,1.1095,5.3202,0.9548,0.4841,4.3320,5.7688,1.1898,-0.3596,-2.1349,0.3437,-2.2199,-5.1629,7.1532,10.4944
85.9375,0.6233,-0.5133,9.7445,10.4460,1.0752,0.2836,5.4978,2.7508,-0.3793,2.4219,5.0918,-0.7423,-1.2927,-0.6226,-1.9947,-2.4519,-5.2590,6.8592,10.2602
89.8438,0.9697,-1.9988,8.2459,10.1013,3.5870,-0.4873,5.9294,4.9720,-1.1742,0.0458,2.9383,-2.9748,-1.8003,-1.9512,-3.5942,-0.6719,-4.8046,5.8834,8.9678
93.7500,1.1117,-3.0295,6.5028,8.9426,5.8987,-1.0134,6.3896,6.8950,-2.1988,-2.0301,-0.5614,-4.8992,-1.9274,-4.2060,-4.0980,1.7280,-4.1432,4.0236,6.7518
97.6562,0.5414,-3.5687,4.4852,6.8839,7.1354,-1.1913,6.4645,7.6755,-3.5392,-3.2552,-4.5366,-5.9433,-2.1139,-4.4566,-3.6056,3.2661,-3.6840,1.3650,3.7744
101.5625,-0.8189,-3.6088,2.2971,4.0195,6.6995,-1.0065,5.8149,6.8019,-4.8402,-3.4485,-7.6081,-5.7147,-2.6321,-1.5467,-2.5435,3.2250,-3.5811,-1.4942,0.4438
105.4688,-2.4444,-3.1025,0.3101,0.8129,4.7005,-0.5429,4.4093,4.4324,-5.4154,-2.7411,-8.4896,-4.1992,-3.2196,2.5900,-1.4240,1.9005,-3.6120,-3.5853,-2.5064
109.3750,-3.4394,-2.0375,-0.9384,-1.9190,2.0120,0.0117,2.5814,1.3997,-4.6620,-1.4218,-6.6693,-1.8764,-3.2178,4.4825,-0.6226,0.1841,-3.3510,-4.0392,-4.2014
113.2812,-3.0559,-0.5812,-1.0301,-3.2844,-0.1324,0.3987,0.8765,-1.1509,-2.5146,0.1839,-2.7651,0.4045,-2.1009,2.3341,-0.2628,-1.1298,-2.5080,-2.5926,-4.0049
117.1875,-1.1740,0.8576,0.0530,-2.7486,-0.7957,0.3771,-0.2214,-2.3159,0.3876,1.7564,1.7142,1.7909,0.0246,-2.0286,-0.2280,-1.8006,-1.1830,0.2072,-1.8748
121.0938,1.5735,1.7479,1.8424,-0.4830,0.1457,-0.1600,-0.5198,-1.8752,2.9717,2.9973,5.1178,1.8470,2.3510,-4.4870,-0.2646,-2.1034,0.1443,3.2451,1.5254
125.0000,4.1232,1.7057,3.5614,2.5983,1.9520,-1.1034,-0.1788,-0.3735,4.2996,3.6866,6.4937,0.7540,3.7895,-2.3468,-0.1176,-2.4321,0.8758,5.3902,5.0427
128.9062,5.5491,0.7505,4.4777,5.1906,3.4752,-2.1402,0.4158,1.2086,4.0818,3.7825,6.0092,-0.8569,3.5818,2.8414,0.3563,-2.9100,0.6238,6.0271,7.4728
132.8125,5.5200,-0.6302,4.2374,6.1905,3.8422,-2.8773,0.8758,2.0013,2.8059,3.4798,4.6957,-2.3337,1.6819,6.1829,1.1364,-3.3005,-0.5982,5.2661,8.0055
136.7188,4.3788,-1.6860,3.0017,5.2208,2.9388,-3.0222,0.9919,1.6957,1.3950,3.1379,3.6932,-3.4033,-1.3147,3.6898,2.0594,-3.2322,-2.4136,3.7442,6.4739
140.6250,2.8292,-1.7888,1.3226,2.7936,1.4016,-2.5328,0.7807,0.6439,0.6180,3.0697,3.5050,-4.2689,-4.5787,-3.7362,2.8969,-2.5095,-4.2821,2.1759,3.3289
144.5312,1.4744,-0.7880,-0.1628,0.0139,0.1474,-1.6506,0.3964,-0.4271,0.6295,3.3120,3.7523,-5.3562,-7.4645,-10.4423,3.4492,-1.2574,-5.7200,0.9423,-0.5989
148.4375,0.5182,0.8720,-1.0453,-2.0106,-0.2367,-0.7934,-0.0101,-0.8912,0.9274,3.5481,3.5703,-6.9041,-9.6622,-10.7358,3.6124,0.1805,-6.4332,-0.0479,-4.4062
152.3438,-0.2011,2.3570,-1.2962,-2.7121,0.1617,-0.3552,-0.3849,-0.5882,0.7403,3.2781,2.3351,-8.6970,-11.0561,-4.3043,3.3977,1.4664,-6.3464,-1.1724,-7.3552
156.2500,-0.9165,2.8719,-1.1896,-2.2494,0.7085,-0.5087,-0.7626,0.1370,-0.4175,2.1688,0.1943,-10.1139,-11.4866,2.8027,2.9132,2.4222,-5.5707,-2.7204,-8.9775
160.1562,-1.6257,2.0882,-1.0575,-1.2585,0.7151,-1.1109,-1.1767,0.7195,-2.3797,0.3650,-1.9723,-10.4443,-10.6566,3.3235,2.3354,3.0221,-4.3465,-4.5706,-9.0662
164.0625,-2.0028,0.3395,-1.0366,-0.3580,-0.0522,-1.7590,-1.5664,0.7787,-4.3704,-1.4612,-3.1178,-9.2617,-8.2780,-3.9586,1.8846,3.2894,-2.9696,-6.1284,-7.6261
167.9688,-1.5887,-1.5282,-0.9694,0.2479,-1.1866,-1.9771,-1.7530,0.3709,-5.4178,-2.4037,-2.7050,-6.6420,-4.3563,-11.8391,1.7914,3.2359,-1.6956,-6.5832,-4.8461
171.8750,-0.1217,-2.5767,-0.5277,0.8087,-1.8966,-1.4469,-1.5155,-0.0681,-4.8805,-1.8157,-1.0217,-3.1518,0.5952,-11.0497,2.2315,2.9121,-0.6529,-5.3697,-1.1146
175.7812,2.2205,-2.2465,0.5169,1.7047,-1.5272,-0.1738,-0.7303,-0.0425,-2.7845,0.2848,1.0632,0.3415,5.5670,-1.6092,3.2293,2.5034,0.1752,-2.5796,2.9605
179.6875,4.8265,-0.6291,2.0500,3.0101,-0.0106,1.4947,0.5066,0.6376,0.1985,3.1551,2.6959,2.9349,9.3149,0.5908,4.5788,2.3360,0.8659,0.9304,6.5908
183.5938,6.9038,1.6040,3.5731,4.2753,2.0334,3.0129,1.8506,1.6827,3.0894,5.6757,3.5498,3.9600,10.7669,-29.6622,5.8547,2.7226,1.4132,3.8534,8.9529
187.5000,7.8300,3.5697,4.4190,4.7131,3.5997,3.8796,2.8075,2.4562,5.0523,6.9204,3.9116,3.2199,9.4197,-108.1015,6.5559,3.7219,1.6398,5.0502,9.4235
191.4062,7.4212,4.6314,4.1137,3.6872,3.8208,3.8633,2.9302,2.3311,5.7257,6.6272,4.3295,1.1257,5.5743,-221.7427,6.3398,4.9934,1.2689,4.1497,7.8217
195.3125,5.9958,4.6909,2.6665,1.1826,2.4136,3.0982,2.0282,1.0589,5.2968,5.3056,5.1243,-1.3672,0.3125,-324.7914,5.2270,5.8975,0.1457,1.7774,4.5373
199.2188,4.2263,4.1569,0.5992,-2.0688,-0.1764,2.0040,0.2876,-1.0674,4.3243,3.9271,6.1306,-3.0889,-4.8156,-357.3820,3.6456,5.8308,-1.5354,-0.7596,0.4551
203.1250,2.8597,3.6296,-1.3249,-4.9224,-2.9857,1.0717,-1.7713,-3.3438,3.4318,3.3894,6.8369,-3.1771,-8.3157,-279.3535,2.2626,4.6128,-3.1850,-2.1835,-3.3255
207.0312,2.4199,3.5049,-2.5192,-6.4281,-4.9685,0.6294,-3.4980,-5.0034,3.0281,4.0603,6.7895,-1.5417,-9.2976,-98.8234,1.6766,2.6761,-4.0463,-1.9490,-5.8734
210.9375,3.0009,3.7476,-2.8882,-6.3452,-5.4428,0.7083,-4.3942,-5.5878,3.1740,5.6417,5.9490,1.0180,-7.8043,124.3298,2.1354,0.9138,-3.5954,-0.5159,-6.7471
214.8438,4.2264,3.9631,-2.8437,-5.2511,-4.3528,1.0708,-4.3386,-5.1461,3.6313,7.3935,4.7479,3.1795,-4.7480,305.5407,3.4336,0.2417,-1.8747,0.9741,-6.1141
218.7500,5.4047,3.7054,-3.0088,-4.1795,-2.2544,1.3695,-3.6330,-4.1665,4.0393,8.5537,3.8298,3.7806,-1.4671,379.0185,5.0377,1.1123,0.4672,1.4082,-4.6230
222.6562,5.8384,2.8061,-3.7934,-4.0098,-0.0526,1.3413,-2.8307,-3.2903,4.1174,8.7046,3.6662,2.4294,0.8688,331.9267,6.3565,3.2557,2.4774,0.3501,-3.0975
226.5625,5.1659,1.5036,-5.1012,-4.9703,1.3837,0.9309,-2.4235,-2.9670,3.7859,7.9023,4.3047,-0.3298,1.6891,208.5747,7.0006,5.7967,3.3740,-1.7746,-2.2003
230.4688,3.5684,0.2939,-6.3464,-6.5330,1.5631,0.2944,-2.5557,-3.2317,3.1560,6.5479,5.3824,-3.3896,1.0808,82.5173,6.8999,7.6857,2.9177,-4.0338,-2.2111
234.3750,1.7120,-0.3873,-6.7722,-7.7407,0.5276,-0.2956,-2.9277,-3.7205,2.4134,5.1235,6.3521,-5.7329,-0.4863,14.3967,6.2487,8.2053,1.4721,-5.6065,-2.9951
238.2812,0.4194,-0.4339,-5.8816,-7.7573,-1.2335,-0.5769,-2.9654,-3.9083,1.6847,3.9640,6.7565,-6.9396,-2.5260,21.3885,5.3480,7.2838,-0.2476,-6.2360,-4.1415
242.1875,0.2300,-0.1138,-3.7370,-6.3271,-3.0546,-0.3975,-2.1723,-3.4407,0.9775,3.1708,6.4010,-7.2473,-4.7258,75.2801,4.4524,5.4655,-1.5581,-6.2445,-5.1842
246.0938,1.0938,0.1245,-0.9711,-3.9081,-4.4010,0.2373,-0.4768,-2.3752,0.2297,2.6699,5.3729,-7.1945,-6.8723,127.0876,3.7009,3.5916,-2.0887,-6.1664,-5.7945
250.0000,2.3907,-0.0628,1.4810,-1.4357,-5.0500,1.1608,1.6349,-1.1931,-0.5796,2.3342,3.9505,-7.1524,-8.6508,139.8985,3.1367,2.3932,-1.8303,-6.3168,-5.8699
253.9062,3.2791,-0.7337,2.7754,0.1296,-5.0699,2.0711,3.2914,-0.5647,-1.3558,2.0818,2.4733,-7.0917,-9.5604,108.7059,2.7716,2.2202,-0.9934,-6.6147,-5.5002
257.8125,3.1759,-1.6909,2.4800,0.2316,-4.6466,2.5932,3.6414,-0.9888,-1.9244,1.9091,1.2235,-6.7111,-9.0817,57.0461,2.6332,3.0081,0.1740,-6.7552,-4.8542
261.7188,2.0781,-2.6739,0.6901,-1.0748,-3.9055,2.3854,2.2797,-2.5045,-2.1651,1.8670,0.3379,-5.7778,-7.0115,16.4815,2.7635,4.4276,1.4728,-6.5447,-4.0614
265.6250,0.5360,-3.5564,-2.0756,-3.2068,-2.8663,1.2767,-0.5349,-4.6418,-2.1449,2.0141,-0.2307,-4.3929,-3.7172,5.0174,3.1728,6.0619,2.7152,-6.1098,-3.1600
269.5312,-0.6944,-4.4022,-5.1107,-5.3572,-1.5539,-0.6205,-3.9839,-6.6435,-2.1330,2.3732,-0.6754,-2.9859,-0.0977,18.5203,3.7859,7.4970,3.6515,-5.8114,-2.1359
273.4375,-1.0915,-5.3526,-7.7637,-6.8565,-0.1544,-2.8972,-7.0562,-7.8380,-2.4534,2.9000,-1.2104,-2.0684,2.7675,38.1971,4.4211,8.3286,3.9718,-5.9439,-1.0190
277.3438,-0.6289,-6.4417,-9.5914,-7.4264,0.9446,-4.9747,-8.9778,-7.9518,-3.2496,3.4718,-1.9041,-1.9402,4.0875,46.0016,4.8299,8.1869,3.4302,-6.4610,0.0429
281.2500,0.2852,-7.4856,-10.3992,-7.2239,1.3123,-6.3330,-9.4863,-7.1914,-4.3200,3.9104,-2.5691,-2.5443,3.6774,36.1172,4.7941,6.8644,2.0219,-6.9440,0.8004
285.1562,1.1139,-8.1306,-10.1996,-6.6791,0.7521,-6.7275,-8.8334,-6.0663,-5.1574,4.0449,-2.8053,-3.5310,1.9666,15.7077,4.2394,4.5050,0.0834,-6.8371,1.0198
289.0625,1.5223,-8.0342,-9.1524,-6.2274,-0.4996,-6.2726,-7.5580,-5.0778,-5.2049,3.7985,-2.2137,-4.4509,-0.2717,-3.1267,3.3029,1.6990,-1.7866,-5.7866,0.6306
292.9688,1.5252,-7.0619,-7.5261,-6.0802,-1.8279,-5.3424,-6.1878,-4.4711,-4.1911,3.2479,-0.6768,-4.9498,-2.2904,-12.6274,2.2998,-0.6712,-2.9782,-3.8628,-0.2006
296.8750,1.3906,-5.3834,-5.6808,-6.1511,-2.5558,-4.3527,-5.0369,-4.1872,-2.3389,2.6052,1.4693,-4.8874,-3.6459,-13.2097,1.5880,-1.8258,-3.1662,-1.5420,-1.1367
300.7812,1.4075,-3.4155,-4.0284,-6.1582,-2.3388,-3.5563,-4.1777,-4.0067,-0.3020,2.1147,3.5081,-4.3684,-4.2822,-10.6102,1.3943,-1.5095,-2.4783,0.5194,-1.8455
304.6875,1.6936,-1.6473,-2.9315,-5.8244,-1.3763,-2.9726,-3.5442,-3.7540,1.1580,1.9244,4.6628,-3.6931,-4.4292,-10.2109,1.7071,-0.1525,-1.4232,1.7815,-2.1651
308.5938,2.1615,-0.4359,-2.5446,-5.0398,-0.2823,-2.4660,-3.0519,-3.4033,1.5825,2.0240,4.5042,-3.2213,-4.3949,-13.4531,2.3084,1.3810,-0.6065,2.0533,-2.1367
312.5000,2.6307,0.1379,-2.6714,-3.8886,0.3130,-1.8934,-2.6426,-3.0250,1.0818,2.3040,3.2231,-3.1604,-4.3503,-18.3706,2.9320,2.3203,-0.3942,1.5842,-1.8791
316.4062,2.9764,0.2980,-2.7524,-2.5387,0.1732,-1.2003,-2.2414,-2.6393,0.2980,2.6993,1.5964,-3.3596,-4.2011,-22.5322,3.4441,2.4435,-0.7255,0.9944,-1.4009
320.3125,3.2066,0.4710,-2.0565,-1.0934,-0.3963,-0.4091,-1.6985,-2.1184,0.0762,3.2967,0.6484,-3.2654,-3.6194,-25.2485,3.9150,2.1402,-1.1920,1.0556,-0.5178
324.2188,3.4285,1.0851,-0.0405,0.4710,-0.7632,0.4574,-0.8034,-1.2402,1.0156,4.2969,1.1683,-2.1574,-2.2502,-27.3938,4.5254,2.0431,-1.3326,2.3641,1.0292
328.1250,3.7551,2.3416,3.2915,2.2248,-0.4023,1.4218,0.6022,0.1305,3.1354,5.8243,3.3262,0.3863,-0.0129,-29.7409,5.3762,2.5146,-0.9534,5.0110,3.3114
332.0312,4.2255,4.0623,7.2480,4.1225,0.7367,2.5040,2.4736,1.8629,5.8317,7.7128,6.5765,4.0501,2.6786,-31.8858,6.3505,3.3954,-0.2589,8.4118,5.9935
335.9375,4.7872,5.7100,10.6661,5.8910,2.1661,3.6177,4.4896,3.5284,8.1449,9.4525,9.8904,7.7030,4.9560,-32.8378,7.1492,4.2148,0.2952,11.4452,8.3520
339.8438,5.3315,6.6103,12.4228,7.0788,3.1295,4.5180,6.1357,4.5637,9.2029,10.3923,12.1967,9.8406,5.8493,-32.4644,7.4927,4.6921,0.3270,12.9107,9.5733
343.7500,5.7475,6.2941,11.9883,7.2627,3.0219,4.8884,6.9280,4.5420,8.6177,10.1098,12.8197,9.3710,4.7968,-32.1000,7.3421,5.0926,-0.1955,12.1136,9.1744
347.6562,5.9636,4.7804,9.7063,6.2888,1.6980,4.5416,6.6602,3.3890,6.6439,8.7133,11.7129,6.2872,2.0153,-33.5340,6.9636,6.0918,-0.9243,9.2516,7.2871
351.5625,5.9707,2.6215,6.6231,4.3885,-0.4942,3.5982,5.5265,1.4162,4.0271,6.8470,9.3996,1.7769,-1.5240,-37.2740,6.7628,8.1816,-1.3723,5.3443,4.6164
355.4688,5.8252,0.6491,3.9457,2.0872,-2.9313,2.4906,4.0355,-0.8372,1.6278,5.3536,6.6737,-2.3548,-4.5358,-41.7840,6.9900,11.0527,-1.2550,1.7096,2.0934
359.3750,5.6285,-0.4567,2.4400,-0.0377,-5.0137,1.7501,2.7564,-2.8441,0.0194,4.7922,4.2282,-4.6344,-6.0315,-44.5398,7.5272,13.4755,-0.6880,-0.7178,0.4370
363.2812,5.4783,-0.5199,2.1184,-1.5978,-6.3661,1.6963,2.0375,-4.2711,-0.7352,5.1242,2.3960,-4.6740,-5.7418,-44.0593,7.9256,13.8845,-0.1017,-1.8063,-0.1160
367.1875,5.4073,0.0820,2.3867,-2.4897,-6.8651,2.2412,1.8601,-5.0200,-1.0167,5.7879,1.1193,-3.2786,-4.1224,-41.1284,7.6895,11.3547,0.0619,-2.1321,0.2177
371.0938,5.3542,0.7136,2.5296,-2.8156,-6.5513,2.9580,1.9058,-5.1525,-1.3423,6.1180,0.1291,-1.8713,-1.9980,-38.1265,6.6243,6.3282,-0.3559,-2.4531,1.0169
375.0000,5.2060,0.9341,2.2060,-2.7170,-5.5395,3.3830,1.7895,-4.7855,-2.0036,5.8243,-0.7967,-1.6206,-0.1167,-37.0364,5.0118,0.5629,-1.1563,-3.1296,1.9224
378.9062,4.9085,0.8022,1.6356,-2.2591,-3.9967,3.3450,1.3131,-4.0332,-2.8639,5.1973,-1.6582,-2.8110,1.1033,-37.8769,3.4887,-3.7305,-1.9705,-3.8915,2.7487
382.8125,4.5688,0.8177,1.3756,-1.4432,-2.1740,3.0851,0.5872,-3.0103,-3.4394,4.8989,-2.2419,-4.7991,1.5473,-38.9000,2.7010,-5.0588,-2.5534,-4.0969,3.4180
386.7188,4.4543,1.5307,1.8664,-0.3113,-0.4169,3.0678,-0.0429,-1.8524,-3.2157,5.4870,-2.2897,-6.5088,1.2324,-38.3166,2.9501,-3.4175,-2.9533,-3.2755,3.8352
390.6250,4.8416,3.0825,3.0687,0.9657,0.8973,3.6083,-0.2152,-0.7083,-2.0070,7.0097,-1.7092,-7.1072,0.1953,-35.9779,4.0392,-0.2153,-3.4328,-1.5530,3.8454
394.5312,5.7893,5.0032,4.4416,2.1057,1.4821,4.5809,0.2256,0.2987,-0.1339,8.9474,-0.6867,-6.4530,-1.4679,-33.5160,5.3886,2.5567,-4.2136,0.3451,3.3171
398.4375,6.9955,6.4245,5.2692,2.8370,1.2536,5.4267,1.1296,1.1013,1.6995,10.5294,0.3683,-5.1041,-3.4969,-32.8447,6.3256,3.3831,-5.2496,1.5111,2.2705
402.3438,7.8810,6.5892,5.1103,3.0323,0.3616,5.4766,2.1208,1.6702,2.7646,11.1893,1.0115,-3.9475,-5.4554,-34.3746,6.3743,1.9102,-6.2034,1.4001,0.9264
406.2500,7.8992,5.3323,4.0745,2.7542,-0.8762,4.3869,2.8004,1.9591,2.6951,10.8452,0.9793,-3.6982,-6.8772,-36.5324,5.4128,-1.0458,-6.6393,0.1416,-0.3776
410.1562,6.8986,3.2248,2.7518,2.1817,-2.0954,2.3985,2.9520,1.8660,1.6759,9.8412,0.3199,-4.5245,-7.4733,-37.0106,3.6689,-4.0486,-6.2818,-1.5635,-1.3425
414.0625,5.2907,1.2825,1.8593,1.4801,-2.9971,0.2500,2.6372,1.2693,0.3286,8.6440,-0.6147,-5.9600,-7.2319,-34.6598,1.6098,-5.7677,-5.1602,-2.8582,-1.8169
417.9688,3.8709,0.4196,1.8363,0.7228,-3.4073,-1.2047,2.1377,0.1391,-0.6317,7.5510,-1.3036,-7.1186,-6.3383,-30.4053,-0.2088,-5.5061,-3.5615,-3.1755,-1.7917
421.8750,3.3695,0.9718,2.6361,-0.0804,-3.2873,-1.4367,1.7877,-1.3485,-0.7655,6.6191,-1.2637,-7.1223,-5.0090,-26.4440,-1.2972,-3.3643,-1.8664,-2.4585,-1.3149
425.7812,4.0014,2.5537,3.8101,-0.8806,-2.7143,-0.4842,1.7974,-2.7900,-0.1025,5.8165,-0.2598,-5.5644,-3.4147,-24.4671,-1.3784,-0.0882,-0.4061,-1.0827,-0.4342
429.6875,5.3105,4.2965,4.7975,-1.5136,-1.8527,1.1202,2.1603,-3.6788,0.9248,5.2094,1.5525,-2.7951,-1.7663,-24.4388,-0.4968,3.2576,0.5798,0.4005,0.7667
433.5938,6.4234,5.2950,5.2162,-1.7377,-0.9166,2.6547,2.6838,-3.6266,1.7386,4.9794,3.6133,0.1470,-0.4520,-24.9029,0.9679,5.6610,0.9216,1.5139,2.0724
437.5000,6.5593,5.0052,4.9880,-1.3796,-0.1182,3.5481,3.1115,-2.5640,1.9018,5.2290,5.1173,1.9844,-0.0151,-24.4235,2.4257,6.4896,0.5277,1.9786,3.0964
441.4062,5.4719,3.4105,4.2596,-0.4963,0.3892,3.5742,3.2601,-0.7990,1.2848,5.7460,5.3242,1.8489,-0.8750,-22.8201,3.3162,5.6902,-0.5363,1.7128,3.3893
445.3125,3.5471,0.9352,3.2171,0.5701,0.5511,2.8429,3.0956,1.1073,0.0551,5.9631,3.9132,-0.2206,-2.9447,-21.1303,3.3517,3.7781,-1.9638,0.7785,2.6680
449.2188,1.5107,-1.7895,1.9440,1.3080,0.4155,1.6563,2.7172,2.5812,-1.4607,5.2215,1.2035,-3.2475,-5.4576,-20.4301,2.6240,1.5871,-3.2379,-0.6612,1.0250
453.1250,-0.0405,-4.1667,0.4143,1.2762,0.1039,0.3447,2.2724,3.2698,-2.9413,3.1993,-1.9119,-5.8238,-7.2320,-20.6596,1.5051,-0.1294,-3.8280,-2.3656,-1.0365
457.0312,-0.9718,-5.7951,-1.3907,0.3438,-0.2237,-0.8350,1.8648,3.1548,-4.1788,0.2107,-4.3395,-6.8868,-7.2860,-20.5542,0.4027,-1.0381,-3.4624,-4.0485,-2.7935
460.9375,-1.6040,-6.5326,-3.3469,-1.2050,-0.3890,-1.7279,1.5107,2.5131,-5.0994,-2.8625,-5.3019,-6.2996,-5.4202,-18.7379,-0.4714,-1.3074,-2.2945,-5.4350,-3.6177
464.8438,-2.4034,-6.4808,-5.1422,-2.7623,-0.2027,-2.2685,1.1654,1.7684,-5.7190,-5.0005,-4.7184,-4.8724,-2.3582,-14.9738,-1.1683,-1.3780,-0.8252,-6.3249,-3.2361
468.7500,-3.5995,-5.9078,-6.3687,-3.6460,0.5078,-2.4576,0.7912,1.3143,-6.0734,-5.5757,-3.2160,-3.8124,0.6758,-10.4289,-1.8707,-1.5812,0.3875,-6.6277,-1.8012
472.6562,-4.9852,-5.1234,-6.7014,-3.3892,1.8294,-2.3389,0.4139,1.3794,-6.1601,-4.6481,-1.7495,-3.9586,2.6647,-6.7070,-2.6681,-1.8752,1.0480,-6.3517,0.2342
476.5625,-6.0118,-4.3413,-6.0546,-1.9377,3.6717,-1.9732,0.1276,1.9658,-5.9121,-2.8486,-1.0437,-5.2923,3.3136,-4.5113,-3.4071,-1.8899,1.2628,-5.5653,2.3307
480.4688,-6.0932,-3.5894,-4.6177,0.3328,5.7169,-1.4184,0.0414,2.8637,-5.2173,-0.9525,-1.1940,-7.0057,3.0465,-3.1244,-3.7278,-1.2467,1.4176,-4.3605,4.0408
484.3750,-4.9219,-2.7278,-2.7454,2.7813,7.4786,-0.7330,0.2086,3.7303,-3.9819,0.5564,-1.6608,-8.0337,2.5550,-1.1556,-3.2634,0.0827,1.8971,-2.8338,5.0968
488.2812,-2.6264,-1.5815,-0.7713,4.7721,8.4778,-0.0056,0.5840,4.2138,-2.2208,1.6545,-1.6494,-7.6638,2.2778,2.1193,-1.8732,1.6474,2.8405,-1.0807,5.4341
492.1875,0.2758,-0.1157,1.1373,5.9261,8.4592,0.6144,1.0413,4.0881,-0.1283,2.6094,-0.6235,-5.8471,2.1975,6.0203,0.2389,2.7281,4.0796,0.8088,5.1916
496.0938,3.0639,1.4632,2.9920,6.2376,7.5232,0.9314,1.4352,3.3488,1.9230,3.6432,1.3646,-3.0881,2.0441,8.9742,2.5840,2.7573,5.2566,2.7510,4.6942
500.0000,5.0319,2.7658,4.8575,6.0072,6.0828,0.7807,1.6687,2.2197,3.4816,4.6935,3.7106,-0.0926,1.6643,9.8184,4.5805,1.6828,6.0082,4.6504,4.3712
503.9062,5.6700,3.4160,6.6795,5.6357,4.6603,0.1342,1.7235,1.0609,4.1880,5.4317,5.6035,2.5384,1.2138,8.7576,5.7709,0.0484,6.0992,6.3618,4.5891
507.8125,4.7912,3.2684,8.1986,5.3974,3.6412,-0.8438,1.6432,0.2188,3.9338,5.4974,6.4450,4.4082,1.0277,7.1636,5.9627,-1.2513,5.4742,7.6658,5.4545
511.7188,2.5977,2.4992,9.0310,5.3234,3.1317,-1.8524,1.4924,-0.1030,2.9181,4.7526,6.0998,5.2776,1.3211,6.4357,5.2535,-1.3976,4.2679,8.3029,6.7143
515.6250,-0.3375,1.5077,8.8849,5.2564,2.9952,-2.6098,1.3261,0.1154,1.5591,3.3742,4.8785,5.0421,2.0138,6.9428,3.9578,-0.0341,2.8079,8.0833,7.8564
519.5312,-3.2092,0.6853,7.7776,5.0280,3.0213,-3.0160,1.1883,0.7631,0.3033,1.7421,3.3223,3.8182,2.8341,7.9475,2.4797,2.5609,1.5822,7.0227,8.3891
523.4375,-5.2340,0.2025,6.0972,4.6263,3.0964,-3.2071,1.1260,1.6899,-0.5644,0.2324,1.9486,2.0456,3.5839,8.5017,1.1731,5.5714,1.1047,5.4104,8.1363
527.3438,-5.9407,-0.0528,4.4412,4.2286,3.2586,-3.4562,1.1901,2.7611,-1.0043,-0.9266,1.0788,0.4200,4.2883,8.4334,0.2328,7.9560,1.6748,3.7293,7.3416
531.2500,-5.3626,-0.3596,3.3075,4.0685,3.6120,-3.9799,1.4062,3.8442,-1.1666,-1.6615,0.7799,-0.4146,5.0641,8.4961,-0.3498,8.8546,3.1457,2.4434,6.4868
535.1562,-4.0175,-0.9595,2.8225,4.2309,4.1838,-4.7860,1.7292,4.7617,-1.2495,-1.9724,0.8890,-0.2636,5.8160,9.5477,-0.7416,7.9427,4.8778,1.7615,5.9295
539.0625,-2.6640,-1.9054,2.6816,4.5300,4.8419,-5.6693,2.0199,5.2854,-1.3717,-1.8759,1.0889,0.4233,6.0625,11.5432,-1.1474,5.5906,5.9812,1.5259,5.6100
542.9688,-1.9451,-3.0487,2.3506,4.5771,5.3360,-6.3537,2.0788,5.2134,-1.5373,-1.4355,1.0327,0.7628,5.1208,13.3211,-1.6719,2.7406,5.7564,1.3066,5.0485
546.8750,-2.0966,-4.1472,1.4146,4.0132,5.4280,-6.6708,1.7358,4.4998,-1.6927,-0.8351,0.5096,-0.0223,2.5765,13.4607,-2.2455,0.5232,4.0800,0.6582,3.6633
550.7812,-2.8627,-4.9946,-0.1386,2.7607,5.0145,-6.6356,0.9562,3.3433,-1.8073,-0.3856,-0.4029,-2.0690,-1.2956,11.5158,-2.6599,-0.2321,1.4829,-0.6067,1.2142
554.6875,-3.6477,-5.4774,-1.8738,1.1247,4.1614,-6.3646,-0.0978,2.1499,-1.8995,-0.3946,-1.3018,-4.7164,-5.5033,8.5465,-2.6938,0.6445,-1.1425,-2.2809,-1.9243
558.5938,-3.8155,-5.5366,-3.1261,-0.3297,3.0441,-5.9056,-1.0917,1.3631,-1.9839,-0.9523,-1.6096,-6.8509,-8.7640,6.4441,-2.2422,2.6233,-3.0181,-3.8331,-4.8531
562.5000,-2.9858,-5.0970,-3.3473,-1.0524,1.8565,-5.1265,-1.6296,1.2496,-1.9901,-1.7853,-0.8771,-7.5414,-10.1165,6.5667,-1.3666,4.7688,-3.8347,-4.6366,-6.5617
566.4062,-1.1964,-4.0491,-2.3762,-0.7722,0.7556,-3.7694,-1.4095,1.7660,-1.7372,-2.3249,0.9225,-6.5503,-9.3167,8.7956,-0.2392,6.1896,-3.7760,-4.2337,-6.4189
570.3125,1.1205,-2.3215,-0.4907,0.4007,-0.1381,-1.6540,-0.3600,2.5855,-1.0139,-2.0002,3.3025,-4.3980,-6.7967,11.7639,0.9612,6.3879,-3.2506,-2.5159,-4.4549
574.2188,3.3224,-0.0001,1.7608,2.0651,-0.7239,1.1078,1.2993,3.2642,0.2690,-0.6062,5.4611,-1.9715,-3.2955,14.0223,2.1147,5.3427,-2.5653,0.2381,-1.2936
578.1250,4.8181,2.5954,3.8258,3.7325,-0.9320,4.0450,3.1048,3.4478,1.9515,1.4884,6.6736,0.0322,0.5183,15.1362,3.1420,3.3578,-1.7833,3.4581,2.1899
582.0312,5.3018,4.9513,5.3571,5.0130,-0.7684,6.4769,4.4995,3.0080,3.6214,3.4543,6.6454,1.4477,4.1773,15.8186,3.9387,0.8555,-0.8335,6.4614,5.2611
585.9375,4.8710,6.5145,6.2755,5.7028,-0.3445,7.8059,5.0440,2.0623,4.7584,4.4065,5.6105,2.5673,7.3009,17.0629,4.3450,-1.7230,0.2687,8.6524,7.5507
589.8438,3.9718,6.8898,6.6977,5.7726,0.1586,7.7871,4.6090,0.8969,4.9563,3.8845,4.1318,3.7526,9.4533,19.0969,4.2092,-3.8933,1.3032,9.6800,9.0314
593.7500,3.1840,5.9858,6.8082,5.3133,0.5879,6.6246,3.4606,-0.1454,4.1002,2.1287,2.7508,5.0386,10.1849,21.0908,3.5117,-5.1106,1.9336,9.5052,9.8264
597.6562,2.9324,4.0468,6.7549,4.4833,0.9064,4.8526,2.1711,-0.7742,2.4049,-0.0162,1.7251,6.0199,9.2640,21.8498,2.4516,-4.8942,1.9243,8.3544,10.0092
601.5625,3.2626,1.5715,6.5989,3.4658,1.1897,3.0826,1.3676,-0.8400,0.3051,-1.5276,1.0033,6.0974,6.9021,20.8537,1.4046,-3.0830,1.3061,6.5869,9.5245
605.4688,3.8091,-0.8377,6.3118,2.4208,1.5165,1.7576,1.4215,-0.3986,-1.7245,-1.7265,0.4095,4.9163,3.7589,18.7204,0.7540,-0.0429,0.3671,4.5501,8.2590
609.3750,3.9940,-2.6385,5.8040,1.4378,1.8353,1.0291,2.2413,0.2792,-3.3162,-0.6076,-0.1338,2.7004,0.6898,16.7119,0.6959,3.3754,-0.5019,2.5069,6.1970
613.2812,3.3646,-3.4813,4.9816,0.5301,1.9369,0.7868,3.3064,0.7965,-4.2612,1.1972,-0.5150,0.2576,-1.5907,15.7493,1.1512,6.1775,-0.9734,0.6643,3.5575
617.1875,1.8890,-3.2876,3.8335,-0.2974,1.5943,0.7935,3.9538,0.8221,-4.4817,2.7837,-0.5189,-1.3666,-2.7056,15.8121,1.8460,7.6840,-0.8498,-0.7467,0.8307
621.0938,0.0326,-2.2543,2.5227,-0.9349,0.7953,0.8424,3.7755,0.3099,-3.9826,3.4589,0.0087,-1.3995,-2.5894,16.2098,2.5050,7.8252,-0.0381,-1.4447,-1.3158
625.0000,-1.4401,-0.7732,1.4209,-1.1013,-0.1137,0.8668,2.8932,-0.3924,-2.8391,3.0774,1.0624,0.2654,-1.3512,16.4071,3.0217,7.0941,1.4700,-1.1899,-2.2376
628.9062,-1.8361,0.7226,1.0242,-0.4232,-0.5294,0.9646,1.9272,-0.6608,-1.2189,2.0692,2.5112,3.0108,0.7927,16.5903,3.4944,6.2200,3.5433,0.0436,-1.5538
632.8125,-0.8707,1.9360,1.7465,1.3361,0.0665,1.3393,1.6519,0.0755,0.6061,1.1731,4.2075,5.8093,3.4582,17.4251,4.1115,5.8069,5.8251,1.9483,0.6621
636.7188,1.2118,2.8252,3.6771,4.0238,1.7226,2.1829,2.5343,1.9641,2.3075,1.0447,6.0518,7.7358,6.0262,19.2288,4.9787,6.1567,7.7436,3.9468,3.8321
640.6250,3.7880,3.5947,6.4457,7.0167,3.8635,3.5481,4.4374,4.5570,3.6076,1.9476,7.9444,8.3955,7.7446,21.3521,6.0076,7.3083,8.7011,5.4449,7.0134
644.5312,6.1692,4.5440,9.3100,9.4290,5.5209,5.2702,6.6847,6.9833,4.3894,3.6662,9.6694,8.0282,8.0389,22.4220,6.9345,9.1468,8.3753,6.1316,9.2082
648.4375,7.8942,5.8491,11.4574,10.5371,5.8542,6.9841,8.4516,8.3974,4.7338,5.6412,10.8403,7.2389,6.8489,21.3347,7.4450,11.4182,6.9358,6.1167,9.7320
652.3438,8.8490,7.4035,12.3786,10.1812,4.6529,8.2479,9.2431,8.4434,4.8513,7.2264,11.0043,6.5332,4.7244,18.1999,7.3219,13.6498,4.9992,5.7997,8.4892
656.2500,9.1858,8.8256,12.1077,8.8752,2.4960,8.7230,9.1541,7.4404,4.9450,7.9327,9.8826,5.9656,2.5550,14.4188,6.5374,15.1387,3.3177,5.5531,6.0223
660.1562,9.1337,9.6461,11.1829,7.5328,0.4475,8.3233,8.7525,6.1665,5.0935,7.5737,7.6026,5.1406,1.0903,11.7828,5.2569,15.1651,2.3921,5.4552,3.3072
664.0625,8.8387,9.5750,10.3435,6.9616,-0.5342,7.2537,8.6671,5.3759,5.2303,6.2979,4.7566,3.5763,0.5838,11.2855,3.7722,13.3912,2.2637,5.2818,1.3788
667.9688,8.3251,8.6869,10.1290,7.4369,-0.1092,5.9116,9.1516,5.3574,5.2309,4.5306,2.2106,1.1820,0.8100,12.5745,2.3987,10.1780,2.6091,4.7708,0.9549
671.8750,7.5733,7.4060,10.6040,8.6089,1.3160,4.7062,9.9027,5.8097,5.0423,2.8558,0.7445,-1.4971,1.4116,14.4266,1.3698,6.5298,3.0399,3.9543,2.2081
675.7812,6.6370,6.2880,11.3513,9.7683,2.8980,3.8906,10.2360,6.0828,4.7622,1.8486,0.7102,-3.4749,2.2699,15.7818,0.7614,3.6085,3.3694,3.2792,4.7555
679.6875,5.7059,5.7274,11.7178,10.2598,3.8715,3.4903,9.4952,5.5998,4.6103,1.8815,1.8919,-3.8689,3.5753,16.4521,0.4799,2.0982,3.6547,3.3763,7.8292
683.5938,5.0694,5.7655,11.1589,9.7577,3.9286,3.3515,7.4360,4.1679,4.8090,2.9609,3.6406,-2.4503,5.5320,16.9581,0.3380,1.8632,4.0139,4.6091,10.5274
687.5000,4.9981,6.1126,9.4926,8.2628,3.2477,3.2608,4.3666,2.0059,5.4512,4.6840,5.2083,0.1688,7.9446,17.7336,0.1979,2.1574,4.3967,6.7179,12.0535
691.4062,5.6051,6.3613,6.9481,5.9052,2.2165,3.0624,0.9942,-0.4710,6.4362,6.3801,6.1045,2.8459,10.0520,18.4726,0.1019,2.2410,4.5070,8.8384,11.8893
695.3125,6.7576,6.2469,4.0236,2.7833,1.0997,2.7137,-1.8979,-2.8998,7.5040,7.4120,6.2922,4.5202,10.7930,18.2311,0.2880,1.9370,3.9437,9.9256,9.8982
699.2188,8.0839,5.7828,1.2613,-0.9980,-0.0961,2.2688,-3.7521,-5.0655,8.3387,7.4971,6.1279,4.7329,9.3543,16.1967,1.0386,1.6932,2.4467,9.3326,6.3566
703.1250,9.0808,5.1879,-0.9375,-5.1320,-1.4922,1.8186,-4.3831,-6.8158,8.6781,6.8607,6.0832,3.7389,5.6319,12.4382,2.4288,2.0950,0.0697,7.1737,1.9032
707.0312,9.2920,4.6708,-2.3892,-8.9699,-3.0907,1.4272,-3.9535,-7.9360,8.3809,6.1018,6.4057,2.1826,0.3036,7.9656,4.1432,3.2189,-2.8292,4.2443,-2.6142
710.9375,8.4904,4.2324,-3.1057,-11.6404,-4.6431,1.0940,-2.8506,-8.1556,7.4486,5.8204,6.9132,0.6055,-5.5066,4.0395,5.5255,4.3658,-5.7372,1.5589,-6.3760
714.8438,6.7928,3.6422,-3.2203,-12.4286,-5.7588,0.7500,-1.5429,-7.3253,6.0205,6.2199,7.0590,-0.8591,-10.7112,1.3244,5.8899,4.4398,-8.1544,-0.1878,-8.8367
718.7500,4.6425,2.6160,-2.9103,-11.1835,-6.1701,0.2865,-0.4534,-5.6274,4.3585,6.9405,6.2559,-2.4157,-14.5753,-0.4028,4.9373,2.7420,-9.6858,-0.9041,-9.8679
722.6562,2.6522,1.0751,-2.3366,-8.4545,-5.9308,-0.3936,0.1489,-3.6121,2.8102,7.2513,4.2877,-4.2564,-16.7342,-1.7770,3.0077,-0.3935,-10.0651,-0.9882,-9.7109
726.5625,1.3596,-0.7066,-1.6058,-5.2204,-5.3765,-1.3222,0.2296,-1.9654,1.7253,6.5038,1.5581,-6.2263,-17.0288,-3.0694,0.9744,-3.6078,-9.1775,-0.9467,-8.7562
730.4688,1.0008,-2.1978,-0.7606,-2.3651,-4.8626,-2.4348,0.0023,-1.1229,1.3236,4.5679,-1.0100,-7.7670,-15.3886,-3.8286,-0.1960,-5.2106,-7.1198,-1.0297,-7.2787
734.3750,1.4076,-2.9168,0.1891,-0.2452,-4.4842,-3.5866,-0.1644,-0.9964,1.5654,1.9698,-2.4159,-8.1904,-11.8930,-3.2725,0.0317,-4.1175,-4.2509,-1.1246,-5.3021
738.2812,2.0817,-2.7599,1.1955,1.3544,-4.0122,-4.6166,0.0615,-1.0307,2.1037,-0.3688,-2.1310,-7.1014,-6.9436,-1.0868,1.4719,-0.4364,-1.1469,-0.9484,-2.7016
742.1875,2.4133,-2.1272,2.0932,2.8590,-3.1155,-5.4262,0.7714,-0.5909,2.3832,-1.6349,-0.4326,-4.6925,-1.3558,2.0793,3.3424,4.6336,1.5704,-0.3752,0.5081
746.0938,1.9411,-1.7360,2.5698,4.4101,-1.7144,-6.0215,1.7200,0.5642,1.8697,-1.5636,1.7067,-1.7286,3.7699,4.8820,4.7172,9.4596,3.4539,0.3431,3.8975
750.0000,0.5382,-2.2152,2.2315,5.6110,-0.1857,-6.4874,2.4107,2.0425,0.3105,-0.5496,3.1313,0.7631,7.3737,6.1287,5.0195,12.7280,4.3655,0.6213,6.5863
753.9062,-1.5487,-3.7290,0.7628,5.7102,0.7687,-6.9088,2.3299,2.9937,-2.1189,0.6125,3.1206,1.9237,8.7882,5.5306,4.2601,13.8609,4.4365,-0.1736,7.5423
757.8125,-3.8077,-5.8742,-1.8932,4.1040,0.5369,-7.2959,1.2005,2.6019,-4.8738,1.1762,1.7360,1.3929,7.9367,3.7833,2.9148,12.9611,3.8991,-2.3650,6.0931
761.7188,-5.6542,-7.9252,-5.4328,0.8054,-0.9772,-7.5730,-0.8869,0.5861,-7.2893,0.7973,-0.3062,-0.6024,5.2992,1.9558,1.5712,10.4834,2.9240,-5.7496,2.3577
765.6250,-6.6252,-9.2719,-9.2391,-3.4476,-3.2209,-7.6391,-3.5251,-2.6041,-8.8852,-0.3871,-2.1343,-3.4117,1.6920,0.7166,0.6045,6.9343,1.5810,-9.6384,-2.6845
769.5312,-6.5092,-9.7622,-12.5672,-7.5212,-5.2688,-7.4465,-6.1694,-6.0133,-9.5563,-1.9334,-3.2423,-6.2752,-2.0247,-0.0044,0.0777,2.7772,-0.0806,-13.1323,-7.5706
773.4375,-5.3777,-9.7174,-14.7808,-10.4369,-6.3474,-7.0226,-8.3249,-8.6726,-9.5381,-3.3441,-3.6858,-8.6309,-5.2052,-0.7357,-0.1222,-1.5078,-1.9391,-15.4781,-10.9943
777.3438,-3.5212,-9.6105,-15.5296,-11.7951,-6.2739,-6.4051,-9.6497,-10.0578,-9.1757,-4.2199,-3.8449,-10.2719,-7.5688,-1.9094,-0.0688,-5.3686,-3.8035,-16.3242,-12.3531
781.2500,-1.3202,-9.6336,-14.8027,-11.8409,-5.5302,-5.5418,-9.9672,-10.2633,-8.6455,-4.2652,-3.9656,-11.2840,-9.1971,-3.5406,0.3163,-8.2395,-5.5151,-15.7608,-11.9039
785.1562,0.8982,-9.4710,-12.8722,-11.1929,-4.9347,-4.2591,-9.2526,-9.8361,-7.8179,-3.2488,-3.8484,-11.8147,-10.3715,-5.3623,1.1946,-9.6859,-7.0413,-14.1595,-10.4682
789.0625,2.9545,-8.4670,-10.1886,-10.4649,-5.1326,-2.3649,-7.6496,-9.4184,-6.3603,-1.0512,-2.9451,-11.8295,-11.3135,-7.1848,2.6317,-9.5322,-8.4508,-11.9365,-8.9050
792.9688,4.8172,-6.1059,-7.2881,-10.0256,-6.2278,0.1489,-5.5110,-9.4228,-4.0317,2.1724,-0.8153,-11.0412,-11.9709,-9.0640,4.4559,-7.9080,-9.7689,-9.3923,-7.6870
796.8750,6.5064,-2.4946,-4.7177,-9.9883,-7.7649,2.9443,-3.3857,-9.8948,-0.9828,5.8437,2.3894,-9.1054,-12.0092,-11.0980,6.2624,-5.2278,-10.8434,-6.7112,-6.8146
800.7812,7.9598,1.4940,-2.9503,-10.3354,-9.0338,5.3615,-1.8891,-10.5777,2.1481,9.0118,5.7888,-5.9872,-11.0612,-13.0798,7.5633,-2.1473,-11.3672,-4.0822,-6.0500
804.6875,8.9585,4.5561,-2.2687,-11.0110,-9.4733,6.6738,-1.4713,-11.0859,4.4428,10.6847,8.1363,-2.2495,-9.1028,-14.4163,7.9906,0.5110,-11.0821,-1.8120,-5.2433
808.5938,9.1837,5.6029,-2.6527,-11.8945,-8.9265,6.4511,-2.2013,-11.0778,5.1300,10.3118,8.4863,0.9954,-6.6823,-14.4925,7.4436,1.9276,-10.0195,-0.3088,-4.4976
812.5000,8.3969,4.3378,-3.7493,-12.7148,-7.6341,4.8179,-3.7077,-10.3666,3.9954,8.1293,6.7471,2.5321,-4.7870,-13.2251,6.1165,1.5799,-8.5719,0.0822,-4.0799
816.4062,6.6356,1.4154,-4.9880,-13.0409,-6.0305,2.4278,-5.3397,-8.9664,1.5245,5.1118,3.7584,1.6699,-4.3644,-11.3132,4.4132,-0.4374,-7.2996,-0.7165,-4.1938
820.3125,4.2870,-1.9139,-5.8190,-12.4278,-4.5112,0.1493,-6.4739,-7.0839,-1.3293,2.4965,0.8303,-1.3311,-5.7841,-9.8966,2.7958,-3.2808,-6.5856,-2.4242,-4.8226
824.2188,1.9595,-4.4532,-5.9549,-10.6550,-3.3055,-1.3614,-6.7916,-5.0589,-3.6322,1.1308,-0.9759,-5.3328,-8.6010,-9.8182,1.6242,-5.5925,-6.3844,-4.5071,-5.7630
828.1250,0.2072,-5.6113,-5.4652,-7.8914,-2.4760,-1.9469,-6.3661,-3.2510,-4.9300,1.0328,-1.3859,-8.8784,-11.7888,-11.0360,1.0385,-6.0728,-6.2554,-6.4180,-6.7852
832.0312,-0.7299,-5.5481,-4.6529,-4.6522,-1.9773,-1.9306,-5.5228,-1.8974,-5.3988,1.4463,-0.9531,-10.8997,-14.2761,-12.6407,0.9301,-4.1216,-5.6617,-7.8047,-7.7434
835.9375,-0.9984,-4.8764,-3.7894,-1.5567,-1.6975,-1.8258,-4.5817,-1.0116,-5.5955,1.3666,-0.6067,-11.1401,-15.4081,-13.4694,1.0211,-0.1766,-4.3190,-8.5478,-8.5154
839.8438,-0.9696,-4.1643,-2.8903,0.9569,-1.4687,-1.9720,-3.6598,-0.3921,-5.9774,0.2115,-1.0110,-10.0617,-15.0401,-12.8508,1.0300,4.4637,-2.3544,-8.6292,-8.8332
843.7500,-0.9581,-3.5848,-1.7079,2.7707,-1.0880,-2.3342,-2.6606,0.2376,-6.5186,-1.7892,-2.1416,-8.3701,-13.2840,-10.9469,0.8398,8.2431,-0.1894,-7.9757,-8.2044
847.6562,-1.0250,-2.9266,0.0343,3.9977,-0.3893,-2.5811,-1.4365,1.0310,-6.6999,-3.7323,-3.3274,-6.5358,-10.2148,-8.5038,0.5648,10.0335,1.7292,-6.4470,-6.0919
851.5625,-1.0083,-1.9124,2.3163,4.7535,0.6553,-2.3672,0.0071,1.8876,-5.8944,-4.6170,-3.7046,-4.6473,-5.8466,-6.2836,0.4557,9.5408,3.1379,-4.0082,-2.3057
855.4688,-0.7493,-0.5571,4.6518,4.9798,1.8777,-1.6154,1.4253,2.4888,-3.8922,-3.9811,-2.7805,-2.6305,-0.4099,-4.6418,0.6892,7.2722,3.9831,-0.9473,2.6540
859.3750,-0.3177,0.7181,6.2344,4.4669,2.9625,-0.6057,2.4357,2.4943,-1.1853,-2.1872,-0.7489,-0.5730,5.3607,-3.5130,1.1840,4.1794,4.3139,2.0790,7.6057
863.2812,-0.0301,1.3125,6.3565,3.0635,3.5932,0.1906,2.7453,1.7783,1.2214,-0.1811,1.6251,1.1711,10.2851,-2.6950,1.5915,1.2275,4.1892,4.2835,11.1428
867.1875,-0.2076,0.8617,4.8549,0.9135,3.6050,0.4197,2.3534,0.5464,2.3851,1.1114,3.4622,2.1997,13.2250,-2.1118,1.4994,-0.9079,3.6863,5.1576,12.3115
871.0938,-0.8428,-0.4532,2.2905,-1.4765,3.0400,0.0941,1.5889,-0.7544,2.0165,1.3489,4.2664,2.4003,13.6908,-1.8423,0.7267,-1.9675,2.9591,4.7686,11.0918
875.0000,-1.4541,-1.9343,-0.2858,-3.4248,2.0708,-0.3833,0.9495,-1.6870,0.6795,0.9394,4.1513,2.0756,12.0882,-1.9832,-0.4997,-2.1143,2.2171,3.7074,8.3544
878.9062,-1.3054,-2.7390,-1.8674,-4.4216,0.8548,-0.4480,0.8304,-2.0778,-0.5620,0.7115,3.6645,1.6972,9.3641,-2.5655,-1.6344,-1.8589,1.5735,2.6857,5.3040
882.8125,0.0966,-2.3699,-2.0221,-4.4227,-0.5620,0.2768,1.3018,-2.1116,-0.8315,1.3272,3.3470,1.4608,6.2912,-3.6385,-2.1346,-1.8831,0.8722,2.0508,2.7713
886.7188,2.5517,-0.9759,-1.0968,-3.8935,-2.2144,1.7175,2.0681,-2.2041,-0.0049,2.8287,3.3332,1.0273,2.9550,-5.3887,-1.8015,-2.7377,-0.3075,1.5741,0.8225
890.6250,5.1117,0.7316,0.0253,-3.5562,-4.0848,3.3419,2.6378,-2.7314,1.2384,4.6088,3.2713,-0.2706,-1.1100,-8.0637,-0.8975,-4.5002,-2.3755,0.6860,-1.0636
894.5312,6.5348,1.8958,0.4731,-3.9719,-5.9753,4.4249,2.6122,-3.7796,1.9157,5.8068,2.6247,-2.8428,-6.1981,-11.6429,0.0543,-6.5931,-5.3203,-0.9953,-3.3943
898.4375,6.0112,2.0139,-0.0862,-5.1875,-7.4947,4.4508,1.9329,-5.0621,1.4531,5.8539,1.1482,-6.2993,-11.6946,-15.5019,0.6529,-7.9544,-8.4714,-3.2255,-6.0750
902.3438,3.7061,1.2188,-1.2484,-6.6471,-8.1883,3.4220,0.9429,-6.0427,0.1114,4.8089,-0.7976,-9.4049,-15.9731,-18.4398,0.9097,-7.5554,-10.6853,-5.1278,-8.2614
906.2500,0.7440,0.1821,-2.1100,-7.4210,-7.7375,1.8860,0.2196,-6.1885,-1.1716,3.2882,-2.3431,-10.6607,-17.1404,-19.2159,1.2289,-5.0041,-10.9204,-5.6632,-8.7712
910.1562,-1.3915,-0.2921,-1.7927,-6.6427,-6.1117,0.6475,0.2609,-5.2143,-1.4170,2.0664,-2.5922,-9.1828,-14.1964,-17.3185,2.0861,-0.8522,-8.8648,-4.2786,-6.8009
914.0625,-1.6911,0.2627,0.0475,-3.9378,-3.5944,0.3149,1.1938,-3.2039,-0.2770,1.6311,-1.1955,-5.3067,-7.8173,-13.4215,3.6353,3.6305,-5.1951,-1.3007,-2.4888
917.9688,-0.1744,1.7116,3.0061,0.3600,-0.6852,0.9401,2.6709,-0.5694,1.7180,1.9713,1.3640,-0.4973,-0.1880,-9.1365,5.5336,7.1056,-1.2650,2.1907,3.0249
921.8750,2.1637,3.3949,6.1141,5.3078,2.0546,1.9692,4.0215,2.1084,3.4980,2.6886,3.9812,3.4020,6.0524,-6.1622,7.1153,8.8416,1.6027,4.9295,8.0744
925.7812,3.9533,4.4828,8.3009,9.7195,4.1456,2.5410,4.5861,4.2818,4.1318,3.2976,5.5227,5.1183,9.0963,-5.3769,7.7939,8.9906,2.7773,6.1072,11.2021
929.6875,4.1985,4.3956,8.8839,12.6267,5.2908,1.9692,4.0522,5.5993,3.3740,3.4781,5.4375,4.5196,8.7022,-6.4723,7.4068,8.3167,2.5368,5.7048,11.7492
933.5938,2.7225,3.0668,7.8388,13.6194,5.4325,0.1269,2.6083,5.9829,1.7262,3.1298,4.0032,2.4984,6.0059,-8.3259,6.2674,7.6029,1.7464,4.3530,10.0249
937.5000,0.1001,0.9359,5.7395,12.9134,4.7599,-2.4841,0.8313,5.6036,0.0164,2.2665,2.0693,0.3059,2.6492,-9.7884,4.9084,7.1665,1.2566,2.8680,7.0253
941.4062,-2.7763,-1.2846,3.4343,11.1264,3.6438,-5.0025,-0.6218,4.7701,-1.1652,0.9163,0.4917,-1.2074,-0.1533,-10.3172,3.7296,6.8006,1.4174,1.7892,3.9002
945.3125,-5.1485,-2.9148,1.6488,8.8982,2.4855,-6.6353,-1.3360,3.7776,-1.7611,-0.8360,-0.3535,-1.9849,-2.0684,-10.0873,2.8173,6.1269,1.9764,1.1884,1.4510
949.2188,-6.5804,-3.5315,0.7195,6.5730,1.5235,-6.9856,-1.2921,2.7829,-2.0937,-2.6924,-0.6659,-2.6123,-3.4800,-9.6459,2.0555,5.0446,2.3428,0.8050,-0.1148
953.1250,-6.8665,-3.0325,0.5702,4.1268,0.7065,-6.1123,-0.7815,1.7705,-2.4311,-4.0482,-0.9046,-3.7870,-4.9673,-9.4800,1.4093,3.9154,1.9876,0.3550,-1.0988
957.0312,-5.8735,-1.5744,0.8977,1.3713,-0.2572,-4.3483,-0.1581,0.6334,-2.6445,-4.1401,-1.3271,-5.7711,-6.8148,-9.8130,1.1175,3.3432,0.7268,-0.2167,-1.9789
960.9375,-3.5428,0.5347,1.4269,-1.7088,-1.6596,-2.0545,0.3981,-0.6747,-2.2413,-2.4415,-1.7377,-8.1488,-8.8022,-10.6548,1.6000,3.7174,-1.2214,-0.6851,-3.0195
964.8438,-0.0870,2.9156,2.0705,-4.7265,-3.4936,0.5057,0.9591,-2.0139,-0.7541,0.9176,-1.6268,-10.0002,-10.2939,-11.8973,3.1147,4.8559,-3.3642,-0.6909,-4.0414
968.7500,3.8202,5.1638,2.9060,-6.9555,-5.3099,3.1183,1.7348,-3.0548,1.8153,5.0153,-0.5856,-10.3722,-10.5173,-13.2880,5.4141,6.0066,-5.1345,0.0312,-4.4885
972.6562,7.1196,6.8975,4.0102,-7.6800,-6.3768,5.5003,2.8631,-3.4248,4.8477,8.4634,1.3224,-8.7917,-8.9191,-14.3514,7.6884,6.2135,-6.0901,1.4768,-3.7774
976.5625,8.7840,7.8396,5.2854,-6.6301,-6.0965,7.2721,4.2581,-2.9299,7.3892,10.0713,3.5116,-5.5672,-5.5070,-14.4740,8.8984,4.8239,-6.0770,3.3288,-1.7402
980.4688,8.3694,7.9159,6.4146,-4.2181,-4.4278,8.0910,5.6147,-1.7125,8.6840,9.4744,5.1884,-1.7344,-1.0599,-13.2567,8.3298,1.8458,-5.3239,5.0516,1.1111
984.3750,6.3295,7.3006,6.9904,-1.4023,-2.0184,7.8642,6.5585,-0.2300,8.5906,7.3334,5.8036,1.3379,2.9542,-10.9347,6.0276,-2.0251,-4.4076,6.0740,3.6982
988.2812,3.8330,6.3473,6.7395,0.7649,0.0805,6.8600,6.8328,0.9524,7.6005,4.9584,5.3296,2.5071,4.8436,-8.4878,2.8240,-5.6966,-4.0450,5.9822,4.8490
992.1875,2.1425,5.4064,5.6876,1.6392,0.9702,5.5962,6.4025,1.4401,6.4563,3.5696,4.1854,1.3282,3.4199,-7.2216,-0.0751,-8.1276,-4.7636,4.6489,3.8754
996.0938,1.9221,4.6199,4.1452,1.2375,0.3822,4.5427,5.4253,1.1911,5.6412,3.6386,2.8918,-1.7900,-1.3702,-8.0137,-1.7071,-8.7281,-6.6143,2.2479,0.9090
1000.0000,2.9007,3.8214,2.5174,0.1021,-1.2302,3.8323,4.1322,0.4906,5.0852,4.6958,1.7226,-5.8157,-8.3094,-10.7386,-1.8095,-7.5537,-9.1102,-0.8409,-3.2117
1003.9062,4.0887,2.6238,1.0626,-1.1080,-3.0365,3.1834,2.7126,-0.2549,4.2696,5.6891,0.6007,-9.5824,-15.4161,-14.3102,-0.8646,-5.2340,-11.4519,-4.1794,-7.4222
1007.8125,4.3875,0.6624,-0.2340,-2.0158,-4.3598,2.1015,1.2750,-0.7631,2.6317,5.6349,-0.7120,-12.2671,-20.8281,-17.3283,0.2634,-2.6747,-12.9092,-7.3851,-10.9523
1011.7188,3.1904,-2.1456,-1.5873,-2.6580,-5.0201,0.2309,-0.1168,-0.9987,-0.0194,4.1502,-2.3042,-13.6086,-23.5353,-18.8545,0.8550,-0.6624,-13.1154,-10.1564,-13.5432
1015.6250,0.6214,-5.4868,-3.1940,-3.3002,-5.2710,-2.3755,-1.3881,-1.1105,-3.3497,1.5727,-3.9407,-13.7912,-23.5329,-18.7531,0.7072,0.4527,-12.0981,-12.2279,-15.2492
1019.5312,-2.6690,-8.7583,-5.0303,-4.1099,-5.4180,-5.2446,-2.4445,-1.2519,-6.6839,-1.3265,-5.1692,-13.1330,-21.3925,-17.4099,0.1596,0.8518,-10.0768,-13.3357,-16.0338
1023.4375,-5.9324,-11.3332,-6.8117,-4.9526,-5.4476,-7.7245,-3.2248,-1.4384,-9.3761,-3.7850,-5.6335,-11.8230,-17.6570,-15.1659,-0.1971,1.0774,-7.2349,-13.2667,-15.5264
1027.3438,-8.6536,-12.8234,-8.1452,-5.4658,-4.9824,-9.3126,-3.7721,-1.5537,-11.1090,-5.3482,-5.3563,-9.8786,-12.5600,-12.0226,0.0834,1.7035,-3.6756,-11.9847,-13.1842
1031.2500,-10.5992,-13.1854,-8.7631,-5.3424,-3.6109,-9.8613,-4.2529,-1.4945,-11.9443,-5.8912,-4.7679,-7.3060,-6.2492,-7.8954,1.0466,3.0381,0.4118,-9.7367,-8.7752
1035.1562,-11.6476,-12.6308,-8.6738,-4.5976,-1.3405,-9.5579,-4.8872,-1.3282,-12.1295,-5.4516,-4.4320,-4.2900,0.7504,-3.1564,2.3522,5.0171,4.5525,-7.0253,-2.8211
1039.0625,-11.6228,-11.4311,-8.1252,-3.6054,1.2008,-8.7332,-5.8130,-1.3190,-11.8341,-4.0776,-4.6413,-1.2371,7.3173,1.1103,3.5150,7.3113,7.9884,-4.4179,3.3743
1042.9688,-10.3153,-9.7706,-7.4200,-2.8730,3.0145,-7.6504,-6.9639,-1.7779,-11.0121,-1.8249,-5.1559,1.3638,12.0373,3.5104,4.2032,9.5212,9.9557,-2.2979,8.2071
1046.8750,-7.6788,-7.7418,-6.7233,-2.7207,3.3018,-6.4091,-8.0444,-2.8311,-9.4851,1.1289,-5.2808,3.1426,13.8620,3.2007,4.4114,11.2973,10.0728,-0.7277,10.4988
1050.7812,-4.0273,-5.4540,-6.0017,-3.1036,1.9727,-4.9902,-8.6353,-4.2742,-7.1708,4.4037,-4.2622,3.9537,12.6419,0.5565,4.4216,12.3261,8.5536,0.4732,10.0154
1054.6875,-0.0354,-3.1286,-5.1251,-3.6990,-0.2617,-3.3707,-8.3906,-5.6355,-4.2790,7.4924,-1.7703,3.8269,9.1352,-2.9322,4.5937,12.2705,6.0728,1.4931,7.4631
1058.5938,3.5009,-1.0663,-4.0349,-4.1790,-2.2917,-1.6056,-7.2258,-6.4234,-1.3166,9.9713,1.8293,2.8517,4.5042,-5.5393,5.1240,10.8157,3.3711,2.3245,4.0015
1062.5000,6.0076,0.5211,-2.8362,-4.4495,-3.2405,0.1746,-5.3938,-6.4031,1.1293,11.6964,5.5985,1.1325,-0.3024,-6.3482,5.9133,7.8731,0.8824,2.7645,0.6228
1066.4062,7.3630,1.6918,-1.7339,-4.6676,-2.9170,1.8304,-3.3952,-5.7191,2.7040,12.8265,8.4865,-1.1377,-4.8297,-5.7042,6.6171,3.8170,-1.3592,2.6310,-2.2038
1070.3125,7.8835,2.8057,-0.8620,-5.0292,-1.8123,3.2842,-1.7554,-4.7817,3.4933,13.6473,9.8652,-3.5770,-8.9271,-4.7657,6.8390,-0.4748,-3.5058,2.0190,-4.4496
1074.2188,8.0944,4.3326,-0.1422,-5.4934,-0.6818,4.5451,-0.7781,-3.9912,3.9751,14.3214,9.8244,-5.6382,-12.3533,-4.5296,6.3518,-3.9111,-5.5831,1.3695,-6.1606
1078.1250,8.4407,6.5233,0.7086,-5.6637,-0.0204,5.6764,-0.4022,-3.4805,4.7187,14.7527,9.0530,-6.8081,-14.5808,-5.0848,5.2174,-5.7017,-7.3441,1.2570,-7.1338
1082.0312,9.0925,9.1494,2.0128,-4.9306,0.2249,6.7275,-0.2444,-3.0373,5.9987,14.6626,8.3840,-6.8659,-14.9826,-5.6245,3.7417,-5.7804,-8.3903,2.0259,-6.8874
1085.9375,9.9084,11.5041,3.9183,-2.7887,0.5496,7.6633,0.1900,-2.2457,7.5660,13.8162,8.2839,-5.9952,-13.2196,-5.1311,2.3032,-4.8315,-8.4327,3.5436,-4.9264
1089.8438,10.5226,12.7050,6.2851,0.8713,1.5133,8.3274,1.2424,-0.7480,8.7390,12.2260,8.6038,-4.6342,-9.4695,-3.1482,1.1659,-3.8586,-7.4570,5.2697,-1.0921
1093.7500,10.4927,12.1481,8.7501,5.6683,3.3584,8.4687,2.9263,1.5359,8.7918,10.1874,8.7405,-3.1542,-4.3006,-0.0567,0.3959,-3.5564,-5.6696,6.6047,4.2479
1097.6562,9.4700,9.8571,10.9178,10.8619,5.8585,7.8447,4.9372,4.3490,7.4199,8.1322,8.0976,-1.6100,1.6639,3.2713,-0.0772,-3.8919,-3.3047,7.2683,10.2725
1101.5625,7.3710,6.5211,12.5407,15.5976,8.4439,6.3745,6.8288,7.2080,4.9974,6.4195,6.5400,0.2360,7.9609,6.0735,-0.3114,-4.1650,-0.4910,7.4280,15.9637
1105.4688,4.5066,3.1908,13.5636,19.1187,10.4848,4.2615,8.2363,9.5967,2.4423,5.2057,4.5401,2.6317,14.1881,8.0554,-0.2427,-3.4866,2.6962,7.4882,20.3850
1109.3750,1.5745,0.7967,14.0130,20.8761,11.5536,1.9858,9.0054,11.1336,0.7400,4.4534,2.9139,5.5234,19.7388,9.3081,0.2899,-1.3364,6.0718,7.7078,22.8732
1113.2812,-0.5627,-0.2580,13.8303,20.5654,11.5504,0.1148,9.1568,11.6484,0.3942,4.0194,2.3143,8.4744,23.7275,10.0002,1.3874,2.1595,9.2615,7.9471,23.1320
1117.1875,-1.2773,-0.2289,12.7933,18.1633,10.6811,-0.9986,8.7386,11.1669,1.1296,3.7212,2.8070,10.8847,25.3183,10.2078,2.9121,6.3604,11.8348,7.7386,21.2692
1121.0938,-0.5641,0.1530,10.6090,13.9799,9.3380,-1.4524,7.7014,9.8473,2.0318,3.3393,3.8042,12.3310,24.2715,10.0228,4.4343,10.4853,13.5714,6.6259,17.7826
1125.0000,0.8497,0.0614,7.1387,8.6663,7.9388,-1.7759,5.9129,7.9083,2.0482,2.6103,4.3924,12.7455,21.2416,9.7368,5.3737,13.9284,14.6191,4.5091,13.4522
1128.9062,1.8232,-1.0451,2.6119,3.0987,6.7638,-2.6019,3.3191,5.5713,0.5549,1.3007,3.8445,12.2922,17.4715,9.7874,5.2747,16.3291,15.3608,1.7398,9.1120
1132.8125,1.4430,-3.2049,-2.3189,-1.8627,5.8388,-4.1935,0.1357,3.0241,-2.3298,-0.6238,1.9963,11.0744,14.0079,10.3947,4.0487,17.4500,16.0434,-1.0947,5.3662
1136.7188,-0.3728,-5.9598,-6.7428,-5.6312,4.9227,-6.1312,-3.0889,0.4174,-5.8431,-2.8396,-0.7177,8.9649,11.0059,11.1862,2.0319,17.0765,16.4553,-3.5189,2.4023
1140.6250,-2.7031,-8.5423,-9.8002,-8.0129,3.6491,-7.4174,-5.6234,-2.1011,-8.9846,-4.6806,-3.5472,5.7621,7.7101,11.2278,-0.1789,15.0991,15.9517,-5.3801,0.0430
1144.5312,-4.0557,-10.1470,-10.9786,-9.1094,1.7891,-7.0015,-6.8497,-4.3240,-10.9657,-5.4035,-5.8058,1.5783,3.2144,9.5902,-2.0029,11.7365,13.8757,-6.7753,-1.9698
1148.4375,-3.1941,-10.1864,-10.2436,-9.0783,-0.4973,-4.4381,-6.5332,-5.9399,-11.4482,-4.5924,-7.1073,-2.8697,-2.5257,6.1092,-3.0887,7.6845,10.1074,-7.7747,-3.6374
1152.3438,0.1224,-8.4598,-7.9604,-7.9391,-2.5957,-0.2597,-4.8978,-6.5617,-10.4953,-2.4499,-7.3568,-6.3822,-8.2226,1.7439,-3.3506,3.9881,5.3300,-8.1788,-4.5619
1156.2500,4.9414,-5.2035,-4.6782,-5.5830,-3.6555,4.2083,-2.4692,-5.8533,-8.3536,0.2531,-6.5897,-7.8244,-11.7731,-1.8214,-2.8553,1.6291,0.7786,-7.5164,-4.1327
1160.1562,9.5985,-1.0160,-0.9222,-1.9964,-3.0128,7.5143,0.2000,-3.7128,-5.2678,2.5901,-4.8429,-6.7733,-11.4888,-3.1292,-1.6915,1.0482,-2.3991,-5.3074,-1.9481
1164.0625,12.5918,3.3189,2.8964,2.4737,-0.5858,8.8382,2.7397,-0.4110,-1.4560,4.0174,-2.1744,-3.8087,-7.2159,-1.8024,0.0486,1.8981,-3.7520,-1.4170,1.8042
1167.9688,13.3327,7.0636,6.4423,7.0390,3.0106,8.3770,4.9860,3.4161,2.7876,4.6881,1.2033,-0.2184,-0.5656,1.2996,2.1679,3.1961,-3.7034,3.7324,6.2778
1171.8750,12.3452,9.7380,9.3826,10.6948,6.7295,7.1335,6.8539,6.9520,7.0059,5.3168,4.8309,2.7103,5.9089,4.7143,4.2617,3.8063,-3.1922,9.2320,10.2850
1175.7812,10.8439,11.2405,11.3962,12.6622,9.5991,6.2650,8.2045,9.4906,10.6345,6.6659,8.0784,4.3475,10.0386,7.3112,5.7606,2.9914,-3.0387,14.0018,12.8267
1179.6875,9.9909,11.8291,12.3101,12.7985,11.1822,6.4156,8.8507,10.6949,13.2029,8.9877,10.3852,4.9059,11.0225,8.8594,6.1662,0.7524,-3.4573,17.1823,13.5279
1183.5938,10.2897,11.9734,12.2855,11.7261,11.7222,7.4373,8.7154,10.6971,14.5535,11.7995,11.5164,5.0776,9.5299,9.8915,5.3563,-2.1880,-4.0043,18.4180,12.7453
1187.5000,11.4385,12.1351,11.8974,10.5865,11.9107,8.6233,8.0127,10.0044,14.9196,14.1489,11.6583,5.4286,7.0203,11.0784,3.7498,-4.7186,-3.9362,17.9291,11.3221
1191.4062,12.6491,12.5718,11.9793,10.5431,12.4378,9.2367,7.2757,9.2712,14.7934,15.1966,11.2826,6.0011,4.8512,12.6618,2.1762,-5.8166,-2.7048,16.3736,10.1636
1195.3125,13.1737,13.2440,13.2463,12.2797,13.5994,8.9618,7.1511,9.0536,14.6541,14.7278,10.8686,6.3839,3.7391,14.3490,1.4842,-4.9623,-0.2781,14.5767,9.8757
1199.2188,12.7065,13.8624,15.8768,15.7252,15.1658,8.0067,8.0530,9.6401,14.7210,13.2534,10.6672,6.1484,3.7557,15.6426,2.1047,-2.3372,2.8538,13.2319,10.6153
1203.1250,11.4645,14.0494,19.3007,20.0929,16.5367,6.8581,9.8937,10.9891,14.8736,11.6468,10.6513,5.2883,4.6315,16.2319,3.8264,1.2606,5.9214,12.6739,12.1558
1207.0312,9.9722,13.5389,22.3606,24.1727,17.0446,5.9176,12.0756,12.7532,14.7735,10.5711,10.6541,4.3231,6.0235,16.1048,5.9182,4.7466,8.1961,12.8001,14.0644
1210.9375,8.7280,12.3190,23.8026,26.7241,16.2243,5.2823,13.7708,14.3584,14.0977,10.0818,10.5668,3.9914,7.5955,15.3601,7.5165,7.1909,9.2427,13.1708,15.8732
1214.8438,7.9485,10.6473,22.8483,26.8276,13.9434,4.7828,14.3203,15.1308,12.7411,9.6568,10.4332,4.7567,9.0110,13.9979,8.0431,8.1825,9.0486,13.2426,17.1857
1218.7500,7.4976,8.9237,19.5337,24.1058,10.3974,4.1833,13.5156,14.4707,10.8748,8.6052,10.3719,6.4677,10.0000,11.9555,7.4220,7.9454,8.0236,12.6197,17.7153
1222.6562,6.9963,7.4760,14.6306,18.7829,6.0364,3.3572,11.6030,12.0548,8.8461,6.5615,10.3962,8.3937,10.5080,9.3706,6.0094,7.1554,6.8672,11.1938,17.2800
1226.5625,6.0318,6.3645,9.2094,11.5897,1.4760,2.3099,9.0455,7.9980,6.9849,3.7378,10.2842,9.5992,10.7573,6.7771,4.3310,6.5625,6.3100,9.1052,15.7795
1230.4688,4.3705,5.3132,4.1164,3.5510,-2.6045,1.0727,6.2258,2.8867,5.4293,0.7922,9.6225,9.4232,11.0733,4.9581,2.8096,6.6323,6.7913,6.5772,13.1791
1234.3750,2.0908,3.8273,-0.3262,-4.2766,-5.5942,-0.4032,3.2942,-2.3668,4.0614,-1.5632,8.0292,7.7915,11.5448,4.4837,1.6313,7.3907,8.2203,3.7626,9.5304
1238.2812,-0.4209,1.4604,-4.2447,-11.0266,-7.1015,-2.2387,0.2392,-6.8128,2.5865,-2.9367,5.4287,5.2139,11.7978,5.2828,0.7799,8.5148,9.9736,0.7224,5.0413
1242.1875,-2.6189,-1.8902,-7.8630,-16.1290,-7.0698,-4.4975,-2.9083,-9.7738,0.7238,-3.3824,2.2032,2.4976,11.1326,6.6200,0.1634,9.5524,11.1765,-2.4533,0.1601
1246.0938,-4.0377,-5.8163,-11.1447,-19.2898,-5.7966,-7.0356,-5.9136,-11.0348,-1.5864,-3.2422,-0.8977,0.3421,8.9863,7.5388,-0.2720,10.0975,11.1263,-5.5030,-4.4114
1250.0000,-4.5065,-9.4722,-13.6830,-20.4074,-3.8375,-9.4503,-8.3521,-10.8340,-4.0688,-2.8602,-3.0699,-0.9882,5.3822,7.4387,-0.5029,9.8385,9.6052,-7.9840,-7.8634
1253.9062,-4.2158,-11.8832,-14.9098,-19.5248,-1.8396,-11.1807,-9.7881,-9.6809,-6.1733,-2.3846,-3.8358,-1.7640,0.9802,6.3376,-0.4657,8.5359,6.8827,-9.4512,-9.5852
1257.8125,-3.5806,-12.3596,-14.4674,-16.8687,-0.3792,-11.7111,-9.9915,-8.1135,-7.3040,-1.7732,-3.2870,-2.6230,-3.3593,4.6345,-0.1302,6.0516,3.4275,-9.7236,-9.5013
1261.7188,-2.9732,-10.8129,-12.4838,-12.9331,0.1460,-10.7734,-9.0392,-6.5138,-7.1138,-0.9497,-2.0396,-4.2082,-7.1813,2.6207,0.4318,2.4774,-0.4388,-9.0396,-8.2252
1265.6250,-2.4929,-7.8077,-9.5596,-8.4894,-0.4283,-8.4603,-7.2447,-5.0480,-5.7043,0.0429,-0.9079,-6.7862,-10.7191,0.1985,1.0210,-1.7338,-4.6710,-7.9632,-6.8688
1269.5312,-1.9350,-4.3117,-6.4775,-4.4325,-2.0048,-5.2146,-4.9797,-3.7149,-3.6055,1.0225,-0.4615,-10.0406,-14.5878,-2.9189,1.3518,-5.8020,-9.3090,-7.0712,-6.5393
1273.4375,-0.9929,-1.2668,-3.8242,-1.4815,-4.2148,-1.7110,-2.5235,-2.4411,-1.5290,1.7875,-0.7190,-13.1685,-19.0900,-6.6982,1.1664,-8.8907,-14.1252,-6.6230,-7.7660
1277.3438,0.4378,0.7940,-1.7636,0.1115,-6.4601,1.3261,-0.0352,-1.1641,-0.0329,2.2650,-1.1676,-15.2431,-23.6672,-10.4374,0.3878,-10.4873,-18.4167,-6.4343,-10.1823
1281.2500,2.0724,1.8810,-0.0877,0.6606,-8.0478,3.3230,2.3569,0.1224,0.7035,2.5539,-1.1195,-15.6572,-26.9492,-12.9493,-0.7734,-10.6386,-21.1546,-6.0446,-12.6680
1285.1562,3.3194,2.3721,1.5138,0.8621,-8.4055,4.0187,4.4473,1.3586,0.8584,2.8152,-0.2036,-14.3966,-27.4220,-13.2081,-1.8529,-9.8530,-21.4408,-5.0631,-13.8867
1289.0625,3.5979,2.6469,3.1564,1.4138,-7.2921,3.5272,5.9344,2.4368,0.7268,3.0862,1.3158,-11.9967,-24.2709,-10.9915,-2.3409,-8.7253,-18.9866,-3.4579,-12.9206
1292.9688,2.6860,2.7654,4.6328,2.6574,-4.8856,2.2597,6.5268,3.2481,0.4391,3.1634,2.6180,-9.2258,-17.8410,-7.0241,-1.9809,-7.5627,-14.3008,-1.6004,-9.6552
1296.8750,0.8596,2.4004,5.5237,4.4493,-1.6853,0.7236,6.1113,3.7493,-0.1548,2.6633,2.7927,-6.7049,-9.4433,-2.5099,-0.9774,-6.2978,-8.4688,-0.0478,-4.7380
1300.7812,-1.2795,1.0736,5.4646,6.3205,1.7170,-0.7095,4.8638,4.0205,-1.3470,1.2509,1.4221,-4.6929,-0.7012,1.5880,0.0531,-4.7428,-2.6777,0.7803,0.8026
1304.6875,-3.1694,-1.4534,4.3931,7.7921,4.8533,-1.9431,3.2169,4.2631,-3.2788,-1.0940,-1.0887,-3.1281,7.0955,4.9828,0.4114,-2.9433,2.2192,0.8229,6.0054
1308.5938,-4.5972,-4.8898,2.6220,8.6241,7.4474,-3.1200,1.6832,4.7019,-5.7129,-3.9412,-3.6675,-1.8316,13.2588,7.9306,-0.2496,-1.2889,5.8757,0.3731,10.2374
1312.5000,-5.7391,-8.4342,0.7011,8.8421,9.3154,-4.4373,0.6282,5.4173,-8.0517,-6.5106,-5.1462,-0.6888,17.5668,10.7058,-1.6562,-0.2324,8.3451,-0.1223,13.1879
1316.4062,-6.9147,-11.1153,-0.8476,8.5521,10.2110,-5.9391,0.1142,6.1942,-9.6108,-7.9812,-4.9029,0.3151,19.9853,13.1531,-3.0071,0.1797,9.8532,-0.3231,14.7074
1320.3125,-8.2438,-12.2620,-1.7663,7.7111,9.7764,-7.4269,-0.1005,6.5037,-9.9758,-7.8614,-3.1784,1.1776,20.5247,14.6760,-3.3943,0.5477,10.6256,-0.1708,14.6793
1324.2188,-9.4658,-11.8201,-2.1434,6.0457,7.6814,-8.5494,-0.4103,5.6751,-9.2114,-6.2306,-0.8771,1.9483,19.2969,14.6365,-2.3016,1.8392,10.8367,0.0923,13.0296
1328.1250,-10.0627,-10.3254,-2.3082,3.1989,3.8763,-9.0016,-1.1435,3.2104,-7.7932,-3.7247,1.0017,2.6836,16.6138,12.8112,0.1242,4.6977,10.6168,0.0454,9.8400
1332.0312,-9.6053,-8.5608,-2.6122,-0.9796,-1.2193,-8.6930,-2.3872,-0.9088,-6.3269,-1.2603,1.9203,3.3199,12.9470,9.5410,3.1816,8.8147,10.0310,-0.7148,5.4372
1335.9375,-8.0801,-7.1204,-3.2253,-6.1860,-6.7495,-7.7727,-3.9425,-6.0917,-5.2464,0.3701,1.9981,3.6020,8.7403,5.4991,6.0007,12.8692,9.0214,-2.3786,0.3701
1339.8438,-5.9604,-6.1516,-4.0561,-11.6223,-11.6866,-6.5130,-5.4219,-11.2754,-4.6736,0.8389,1.7627,3.1828,4.2463,1.3193,7.9436,15.1718,7.3959,-4.7940,-4.7154
1343.7500,-3.9591,-5.4101,-4.8243,-16.2041,-15.1847,-5.1529,-6.4337,-15.2824,-4.4834,0.3931,1.6813,1.8698,-0.4330,-2.6053,8.7857,14.6453,4.9453,-7.4550,-9.2074
1347.6562,-2.6217,-4.5455,-5.2211,-18.9199,-16.8216,-3.8179,-6.7546,-17.2366,-4.4696,-0.3156,1.8301,-0.1535,-5.1078,-6.0385,8.6370,11.5039,1.6673,-9.6328,-12.5866
1351.5625,-2.0245,-3.3908,-5.0554,-19.1747,-16.6185,-2.5521,-6.4083,-16.8504,-4.4635,-0.5917,1.9236,-2.3142,-9.2715,-8.6995,7.7453,7.1732,-2.0435,-10.6264,-14.4185
1355.4688,-1.7741,-2.0508,-4.3026,-16.9794,-14.8806,-1.3992,-5.6150,-14.4702,-4.3344,-0.0584,1.6408,-3.8952,-12.1228,-10.1968,6.3687,3.4988,-5.4084,-10.0416,-14.3642
1359.3750,-1.3019,-0.7590,-3.0551,-12.9315,-12.0147,-0.4345,-4.6529,-10.8910,-3.9304,1.1638,0.9648,-4.4002,-12.8978,-10.1997,4.7803,1.7548,-7.5393,-7.9712,-12.2812
1363.2812,-0.2555,0.3504,-1.4409,-8.0185,-8.4550,0.2935,-3.7107,-7.0520,-3.0753,2.5520,0.2566,-3.8126,-11.3262,-8.7065,3.3173,2.0632,-7.8592,-4.9785,-8.3954
1367.1875,1.2685,1.3515,0.4125,-3.3281,-4.7086,0.8567,-2.8160,-3.7521,-1.6760,3.4899,0.0036,-2.5939,-7.9102,-6.1639,2.3328,3.5168,-6.4395,-1.8810,-3.4216
1371.0938,2.7944,2.4266,2.3429,0.2476,-1.4102,1.4703,-1.8692,-1.4791,0.1248,3.6136,0.4404,-1.4472,-3.8371,-3.3211,2.0184,4.8242,-4.0522,0.5629,1.5038
1375.0000,3.7837,3.6506,4.1016,2.2334,0.7493,2.3917,-0.7509,-0.3698,1.8993,3.0020,1.3347,-1.0081,-0.5684,-0.9266,2.2221,5.0019,-1.8875,1.9104,5.1199
1378.9062,3.9868,4.8549,5.3735,2.6671,1.2499,3.7456,0.5743,-0.2600,3.0826,2.1094,2.1048,-1.6342,0.6742,0.5109,2.4418,3.7088,-1.0698,2.1235,6.4649
1382.8125,3.6012,5.7061,5.9087,2.0397,0.0189,5.4021,2.0257,-0.7717,3.2661,1.4859,2.1798,-3.3560,-0.7036,0.7703,2.0678,1.1476,-2.2001,1.4788,5.2258
1386.7188,3.1387,5.9512,5.6999,1.0961,-2.4296,7.0053,3.4575,-1.4104,2.4493,1.4500,1.3391,-5.9334,-4.5174,-0.1601,0.7403,-2.2421,-5.1275,0.3766,1.8369
1390.6250,3.0862,5.6229,5.0670,0.5546,-5.1192,8.1418,4.7428,-1.6741,1.0562,1.8992,-0.2102,-8.9377,-9.8825,-2.1212,-1.4223,-6.0058,-9.0328,-0.8469,-2.7173
1394.5312,3.5737,5.0134,4.5334,0.8412,-6.9770,8.5293,5.8181,-1.1818,-0.3292,2.3562,-2.0533,-11.8298,-15.4706,-4.7160,-3.9010,-9.6875,-12.7646,-2.0321,-7.2891
1398.4375,4.2490,4.4023,4.5136,1.9363,-7.2671,8.0961,6.6499,0.1938,-1.3556,2.2162,-3.8996,-14.0704,-19.9015,-7.2493,-6.1062,-12.7394,-15.2728,-3.2159,-10.9534
1402.3438,4.4391,3.7408,4.9908,3.3921,-5.8769,6.9159,7.1561,2.2394,-2.1594,1.0505,-5.7667,-15.2790,-22.1966,-8.8624,-7.7185,-14.5171,-15.9628,-4.5684,-13.2272
1406.2500,3.5062,2.5703,5.4179,4.5185,-3.3201,5.0874,7.1601,4.4215,-3.2863,-1.1877,-7.8771,-15.3773,-22.1338,-8.9025,-8.7920,-14.4474,-14.8354,-6.2640,-14.0644
1410.1562,1.2070,0.3075,4.9685,4.6660,-0.4751,2.6918,6.4455,6.0434,-5.2977,-4.1419,-10.3482,-14.6004,-20.2969,-7.3200,-9.5629,-12.2862,-12.3762,-8.3152,-13.6869
1414.0625,-2.1326,-3.2490,3.0403,3.4973,1.7901,-0.1147,4.9033,6.5005,-8.2964,-7.1910,-12.9119,-13.3129,-17.7147,-4.7744,-10.1409,-8.2907,-9.2649,-10.4321,-12.3746
1417.9688,-5.7075,-7.5407,-0.2851,1.1375,2.9227,-2.9552,2.6803,5.5268,-11.6813,-9.6575,-14.8842,-11.7170,-15.2301,-2.2907,-10.3463,-3.1887,-6.0574,-12.0015,-10.3285
1421.8750,-8.5327,-11.3128,-4.1348,-1.8636,2.7979,-5.2012,0.2121,3.3093,-14.3127,-10.9866,-15.4322,-9.6641,-12.9756,-0.6496,-9.8224,2.0362,-3.0010,-12.2579,-7.6594
1425.7812,-9.8051,-13.1626,-7.2068,-4.7498,1.6343,-6.1627,-1.9180,0.3976,-15.0254,-10.8509,-13.9873,-6.7464,-10.3302,0.0659,-8.3190,6.4339,-0.0667,-10.6189,-4.4747
1429.6875,-9.1690,-12.2796,-8.4234,-6.8656,-0.1973,-5.4416,-3.2375,-2.5544,-13.2098,-9.1891,-10.5593,-2.6561,-6.4463,0.4267,-5.9021,9.3393,2.8465,-7.0300,-0.9891
1433.5938,-6.7930,-8.9273,-7.4938,-7.9110,-2.3486,-3.2275,-3.6141,-5.0775,-9.1364,-6.2076,-5.7650,2.4261,-1.0160,1.1381,-2.9162,10.5317,5.6812,-2.1062,2.4283
1437.5000,-3.2561,-4.3518,-5.0461,-8.0151,-4.5676,-0.3086,-3.3085,-7.0402,-3.8438,-2.3528,-0.5592,7.7191,5.2644,2.4333,0.2546,10.2866,8.1219,3.0645,5.3161
1441.4062,0.6860,-0.1502,-2.2449,-7.5887,-6.6641,2.2714,-2.8063,-8.5792,1.3437,1.7638,4.1784,12.1436,10.9059,3.8387,3.4054,9.2943,9.6903,7.3892,7.2775
1445.3125,4.3505,2.5317,-0.1354,-7.0404,-8.4291,3.7401,-2.5224,-9.8602,5.4021,5.5041,7.9777,14.8795,14.4160,4.4816,6.5137,8.4234,9.9696,10.2609,8.1505
1449.2188,7.3042,3.5063,0.8828,-6.5292,-9.5950,3.9939,-2.5592,-10.8383,7.9878,8.3856,10.8644,15.8083,15.1386,3.6974,9.5303,8.3640,8.8164,11.7765,8.0876
1453.1250,9.4182,3.4828,1.1450,-5.9131,-9.8910,3.6078,-2.6709,-11.1977,9.4360,10.2308,13.1719,15.5229,13.5694,1.4763,12.1669,9.2937,6.4423,12.5462,7.4788
1457.0312,10.7975,3.5191,1.3579,-4.9276,-9.1746,3.4406,-2.4530,-10.5315,10.4150,11.1999,15.2002,14.8797,10.9445,-1.5540,13.9098,10.7645,3.3437,13.2145,6.7391
1460.9375,11.6320,4.3478,2.0546,-3.4711,-7.5572,4.0731,-1.6356,-8.6516,11.4596,11.6630,16.9228,14.3934,8.4223,-4.5428,14.3002,11.9251,0.1500,14.0023,6.0770
1464.8438,12.0423,5.9758,3.2386,-1.7816,-5.4250,5.4313,-0.2892,-5.8164,12.6494,11.9635,17.9192,13.8956,6.4517,-6.8742,13.2785,11.9867,-2.5262,14.5652,5.3882
1468.7500,12.0013,7.7585,4.4291,-0.3543,-3.3092,6.8289,1.1874,-2.6966,13.5982,12.1996,17.5885,12.7005,4.7438,-8.3394,11.3036,10.6597,-4.2002,14.2513,4.3624
1472.6562,11.3759,8.8473,5.0442,0.3752,-1.6550,7.3982,2.2886,-0.0757,13.7363,12.1599,15.5452,10.1624,2.7902,-8.9803,9.1182,8.2796,-4.6045,12.5810,2.7566
1476.5625,10.0698,8.7133,4.8323,0.3723,-0.6165,6.6369,2.6902,1.5413,12.7068,11.4672,11.9756,6.2394,0.4685,-8.8352,7.3118,5.5473,-3.7740,9.6341,0.6715
1480.4688,8.1854,7.4447,4.0592,0.1189,-0.0026,4.7305,2.4284,2.1645,10.6449,9.8602,7.7343,1.6726,-1.7390,-7.8587,6.0090,3.0830,-2.0903,6.1045,-1.3590
1484.3750,6.0950,5.6819,3.3380,0.3849,0.5803,2.4624,1.8676,2.2510,8.1845,7.4453,4.0820,-2.3425,-3.0534,-6.0735,4.9243,1.1266,-0.2127,3.0030,-2.5557
1488.2812,4.3546,4.2687,3.2412,1.7728,1.4695,0.7802,1.4896,2.3859,6.1897,4.7507,2.1648,-4.7794,-2.9560,-3.7666,3.7317,-0.4130,1.1386,1.1965,-2.2775
1492.1875,3.4806,3.8303,3.9604,4.3185,2.7228,0.2902,1.6400,2.9249,5.3551,2.5250,2.4875,-5.3028,-1.5609,-1.4935,2.4462,-1.6412,1.4760,1.0413,-0.3920
1496.0938,3.6988,4.4930,5.2221,7.4055,4.0665,0.9745,2.3714,3.8234,5.8757,1.3710,4.6560,-4.3886,0.4416,0.1628,1.4894,-2.4043,0.7549,2.2752,2.5849
1500.0000,4.8062,5.8546,6.4748,10.0484,5.0385,2.2690,3.4487,4.7321,7.3386,1.4178,7.5248,-3.0117,2.1672,0.8855,1.3649,-2.3308,-0.6429,4.1647,5.6653
1503.9062,6.2275,7.1859,7.1845,11.3583,5.2291,3.4159,4.4767,5.2520,8.8724,2.2206,9.6702,-2.1362,2.9327,0.7214,2.1833,-1.1879,-2.1594,5.7868,7.7831
1507.8125,7.2447,7.7437,7.0326,10.8984,4.4713,3.8527,5.0546,5.1498,9.4755,2.9581,9.9514,-2.3199,2.4200,-0.0926,3.4166,0.7349,-3.3867,6.3102,8.1928
1511.7188,7.2832,7.0550,5.9232,8.7432,2.8802,3.4171,4.8824,4.3964,8.3821,2.8263,7.9032,-3.6169,0.6141,-1.3946,4.1049,2.5707,-4.2509,5.2013,6.6786
1515.6250,6.1195,5.0637,3.8689,5.2744,0.7487,2.2924,3.8068,3.0531,5.3406,1.4233,3.8287,-5.7405,-2.3037,-3.1863,3.4043,3.2725,-4.9308,2.3492,3.5165
1519.5312,3.9360,2.1107,0.9134,0.9299,-1.6030,0.7962,1.8431,1.1507,0.7279,-1.0713,-1.3696,-8.2936,-5.9569,-5.4493,1.1169,2.2363,-5.5903,-1.8837,-0.7179
1523.4375,1.2369,-1.2110,-2.8026,-3.8907,-3.9252,-0.8055,-0.7939,-1.3042,-4.5196,-3.9923,-6.4876,-10.8877,-9.7107,-7.8691,-2.1475,-0.2737,-6.1423,-6.7005,-5.3431
1527.3438,-1.3040,-4.2413,-6.8797,-8.7288,-6.0480,-2.3305,-3.6656,-4.1918,-9.1432,-6.4815,-10.3250,-13.1067,-12.7124,-9.7773,-5.2698,-3.2090,-6.2433,-11.0311,-9.6733
1531.2500,-2.9988,-6.4027,-10.5681,-12.9342,-7.8407,-3.5787,-6.1503,-7.1446,-11.9193,-7.8110,-11.9522,-14.4297,-14.1456,-10.4563,-7.1679,-5.2916,-5.5379,-13.8144,-13.0459
1535.1562,-3.2914,-7.2863,-12.9065,-15.7036,-9.1853,-4.2336,-7.5955,-9.5703,-12.0546,-7.5930,-10.9421,-14.2721,-13.5982,-9.6270,-7.2513,-5.6826,-3.9778,-14.3338,-14.8721
1539.0625,-1.9042,-6.6971,-13.0982,-16.3585,-9.9874,-3.9107,-7.5541,-10.8703,-9.4955,-5.8318,-7.5396,-12.2167,-11.2964,-7.7342,-5.5604,-4.3523,-1.9701,-12.4817,-14.7727
1542.9688,1.0225,-4.6973,-10.9418,-14.7129,-10.1964,-2.3747,-6.0004,-10.7310,-5.0141,-2.8657,-2.6811,-8.3390,-8.0131,-5.7579,-2.6003,-1.9660,-0.2323,-8.8316,-12.7604
1546.8750,4.8660,-1.6517,-7.0464,-11.2662,-9.7956,0.2038,-3.3947,-9.2852,0.0096,0.7218,2.2321,-3.4066,-4.6964,-4.6360,0.9393,0.5670,0.5639,-4.4665,-9.3368
1550.7812,8.6218,1.7768,-2.6526,-7.0448,-8.7628,3.1585,-0.5271,-7.0262,4.0661,4.1918,5.8000,1.2435,-2.0723,-4.7060,4.3925,2.5483,0.1287,-0.6201,-5.3919
1554.6875,11.2050,4.7499,0.8873,-3.1522,-7.0567,5.5291,1.8013,-4.5298,6.0766,6.7709,7.1635,4.1797,-0.4768,-5.5716,7.1974,3.6836,-1.3363,1.7329,-1.9064
1558.5938,11.8641,6.5101,2.7007,-0.2951,-4.6793,6.4949,3.1032,-2.1839,5.7840,7.8385,6.3460,4.5014,0.0286,-6.4798,8.9161,3.9817,-3.2973,2.1764,0.4014
1562.5000,10.5161,6.6843,2.7299,1.4238,-1.7996,5.8015,3.3643,-0.1040,3.7884,7.1552,4.1889,2.2828,-0.5560,-6.9005,9.2834,3.5370,-5.1861,0.9329,1.2915
1566.4062,7.8079,5.4714,1.6299,2.3468,1.1598,3.9135,2.9595,1.7337,1.2084,5.0227,1.8898,-1.4427,-2.2423,-6.8579,8.2894,2.3981,-6.6384,-1.2954,0.9743
1570.3125,4.8407,3.5751,0.3195,2.8897,3.5863,1.7733,2.3921,3.2876,-0.8543,2.2425,0.3906,-5.1850,-4.9145,-6.7831,6.2267,0.6072,-7.5556,-3.6396,-0.1093
1574.2188,2.6799,1.8791,-0.5248,3.2419,4.9158,0.2902,2.0191,4.3677,-1.7740,-0.1710,-0.0411,-7.7255,-8.1369,-7.0531,3.6313,-1.6688,-8.0072,-5.3873,-1.5275
1578.1250,1.9057,1.0218,-0.7257,3.3411,4.9317,-0.1392,1.9220,4.7574,-1.5657,-1.4175,0.1881,-8.6586,-11.1477,-7.6203,1.1278,-4.0510,-8.0915,-6.1784,-2.9584
1582.0312,2.4333,1.1131,-0.4994,3.0918,3.9260,0.2123,1.9717,4.4374,-0.7159,-1.2578,0.3776,-8.4369,-13.1331,-8.0411,-0.7419,-5.9940,-7.8591,-6.0115,-4.1296
1585.9375,3.6682,1.7542,-0.1229,2.6057,2.5808,0.6541,2.0080,3.7059,0.1761,-0.0792,0.0263,-7.9235,-13.6217,-7.8607,-1.6274,-6.9505,-7.3313,-5.1050,-4.7175
1589.8438,4.8695,2.3378,0.3440,2.2353,1.6070,0.5654,1.9894,3.0579,0.7186,1.3659,-0.8706,-7.7652,-12.7168,-7.0156,-1.4018,-6.5807,-6.5647,-3.7312,-4.3669
1593.7500,5.4929,2.4246,1.0734,2.3468,1.3505,-0.2036,2.0071,2.8759,0.8423,2.3917,-1.8750,-8.0113,-10.9904,-5.9133,-0.1632,-4.9262,-5.6976,-2.1390,-2.8823
1597.6562,5.3386,1.9543,2.2249,3.0037,1.6220,-1.2700,2.1665,3.1506,0.6957,2.7204,-2.4261,-8.2147,-9.1270,-5.1299,1.7624,-2.4822,-4.9397,-0.5907,-0.4729
1601.5625,4.4850,1.1757,3.6568,3.8166,1.8661,-2.0180,2.4429,3.4519,0.4399,2.5343,-2.1904,-7.9048,-7.5893,-4.9815,3.8475,-0.1142,-4.5119,0.5656,2.1590
1605.4688,3.1222,0.3804,4.8455,4.1042,1.5609,-2.0430,2.6296,3.2026,0.1039,2.2398,-1.2281,-7.0530,-6.5319,-5.3170,5.4862,1.2116,-4.5629,0.9095,4.0200
1609.3750,1.4331,-0.3429,5.1126,3.2838,0.5814,-1.4378,2.4293,2.0824,-0.4119,2.1310,0.0847,-6.1653,-5.9598,-5.6784,6.2246,0.8415,-5.0907,0.1092,4.2569
1613.2812,-0.4173,-1.1512,4.0271,1.2366,-0.7120,-0.7397,1.6332,0.2878,-1.2102,2.1985,1.2797,-5.9206,-5.9175,-5.6683,5.9969,-1.1709,-5.8954,-1.8424,2.5802
1617.1875,-2.2296,-2.2670,1.7114,-1.5904,-1.7049,-0.5884,0.2705,-1.5362,-2.2530,2.2047,2.0119,-6.6205,-6.4887,-5.2114,5.1976,-3.9244,-6.5959,-4.4839,-0.5758
1621.0938,-3.7504,-3.7237,-1.1589,-4.4024,-1.9072,-1.3291,-1.3665,-2.6508,-3.3032,1.9463,2.1689,-7.8657,-7.5864,-4.5120,4.4913,-5.9548,-6.7256,-6.9764,-4.2494
1625.0000,-4.7319,-5.2367,-3.6636,-6.4414,-1.2218,-2.8101,-2.8330,-2.6350,-3.9867,1.4886,1.8755,-8.7111,-8.7379,-3.7814,4.4412,-5.8856,-5.8919,-8.4267,-7.3679
1628.9062,-5.0319,-6.2991,-5.0555,-7.2902,0.0531,-4.4780,-3.7076,-1.5942,-3.9349,1.1847,1.4432,-8.2043,-9.1096,-2.9987,5.1909,-3.1311,-3.9317,-8.2735,-9.1267
1632.8125,-4.6671,-6.4380,-5.0314,-6.9345,1.4480,-5.6815,-3.7381,-0.0598,-2.9310,1.4573,1.3007,-5.9360,-7.8445,-1.9182,6.4308,1.7604,-0.9795,-6.5054,-9.1359
1636.7188,-3.7743,-5.4632,-3.7319,-5.6048,2.5850,-5.9849,-2.9031,1.3252,-0.9985,2.5008,1.8921,-2.2354,-4.5250,-0.3132,7.6795,7.3582,2.5902,-3.5871,-7.3355
1640.6250,-2.5180,-3.5608,-1.5402,-3.5591,3.3042,-5.3276,-1.3932,2.1180,1.5931,4.1190,3.5294,2.0855,0.5412,1.7601,8.6743,12.0715,6.3066,-0.1621,-3.8494
1644.5312,-1.0352,-1.2017,1.1293,-0.9716,3.6165,-3.9858,0.4478,2.2156,4.3922,5.8148,6.2303,6.2148,6.3995,3.9027,9.5640,14.9087,9.7318,3.2492,1.0489
1648.4375,0.5285,1.0503,3.9075,2.0229,3.5883,-2.4133,2.1935,1.7947,6.8745,7.0694,9.6292,9.6909,11.8347,5.5699,10.7395,15.8216,12.4969,6.3623,6.8326
1652.3438,1.9341,2.7162,6.4159,5.2101,3.2901,-1.0656,3.4208,1.1546,8.5700,7.6243,13.0399,12.4102,15.8180,6.3696,12.4194,15.4679,14.2588,9.0176,12.6264
1656.2500,2.8269,3.5039,8.2157,8.2320,2.8444,-0.2709,3.8209,0.5858,9.1812,7.5878,15.6755,14.3658,17.7793,6.2405,14.3149,14.6205,14.6694,10.9989,17.3067
1660.1562,2.8626,3.3450,8.8869,10.6433,2.4842,-0.1530,3.3195,0.3121,8.6615,7.3223,16.9232,15.3873,17.6283,5.4045,15.6607,13.6626,13.4510,11.9793,19.8450
1664.0625,1.9425,2.4037,8.2351,12.0530,2.5005,-0.5943,2.1461,0.4690,7.2224,7.2078,16.5364,15.1201,15.6213,4.1655,15.6295,12.4912,10.5699,11.6776,19.7325
1667.9688,0.3980,1.0577,6.4824,12.2516,3.0558,-1.2528,0.7851,1.0635,5.2641,7.4387,14.6562,13.2579,12.2156,2.7237,13.8563,10.8133,6.3869,10.1097,17.2189
1671.8750,-1.0532,-0.1813,4.2688,11.2545,3.9875,-1.6645,-0.2047,1.9215,3.2466,7.9566,11.6864,9.8364,7.9816,1.1312,10.7004,8.5284,1.6411,7.7211,13.1922
1675.7812,-1.6276,-0.8336,2.4046,9.2650,4.7863,-1.4327,-0.4334,2.6931,1.5520,8.5142,8.1313,5.3567,3.5496,-0.6168,7.0593,5.8720,-2.7725,5.2537,8.7640
1679.6875,-0.9263,-0.6609,1.4922,6.6150,4.8364,-0.4356,0.1421,2.9789,0.3822,8.7959,4.4902,0.6542,-0.4573,-2.4536,3.8641,3.2406,-6.1145,3.3991,4.8207
1683.5938,0.7559,0.1886,1.6394,3.7311,3.8088,1.0639,1.2092,2.5497,-0.2759,8.5219,1.2277,-3.3867,-3.5037,-4.1698,1.6108,0.9013,-8.0065,2.4580,1.8081
1687.5000,2.4881,1.2027,2.4377,1.1136,1.9541,2.4935,2.2698,1.5309,-0.6216,7.5193,-1.2480,-6.0923,-5.1998,-5.4274,0.2342,-1.1211,-8.4107,2.2266,-0.1710
1691.4062,3.1454,1.7152,3.2129,-0.7241,0.0698,3.2168,2.8898,0.4064,-0.9619,5.7780,-2.6593,-7.1295,-5.3208,-5.8362,-0.6310,-2.8682,-7.4449,2.1775,-1.1043
1695.3125,2.0124,1.2051,3.3909,-1.3862,-0.8804,2.8227,2.8819,-0.2049,-1.6036,3.4994,-2.9752,-6.5261,-3.8286,-5.0604,-1.2375,-4.1523,-5.2212,1.8024,-0.9104
1699.2188,-0.7882,-0.4648,2.7691,-0.7547,-0.2808,1.3028,2.3271,0.1099,-2.7315,1.1014,-2.4716,-4.6563,-0.9395,-2.9449,-1.4853,-4.4444,-1.8656,0.8942,0.4885
1703.1250,-4.2922,-2.9843,1.5620,0.9170,1.7982,-0.9707,1.4481,1.3037,-4.3018,-0.8676,-1.6417,-2.2020,2.7931,0.3618,-1.0209,-3.1184,2.3004,-0.3830,2.9451
1707.0312,-7.1274,-5.7122,0.2358,3.0617,4.6413,-3.4241,0.4425,2.8658,-5.9916,-1.9124,-0.9594,-0.0240,6.5020,4.3487,0.4182,0.0740,6.6105,-1.6267,5.9443
1710.9375,-8.1507,-7.8915,-0.7481,4.9997,7.2637,-5.4943,-0.6084,4.0750,-7.2578,-1.7945,-0.6258,1.1123,9.2419,8.2245,2.6834,4.6345,10.1374,-2.4074,8.7083
1714.8438,-6.9577,-8.8665,-1.1418,6.1845,8.8754,-6.7611,-1.7074,4.3538,-7.5209,-0.6429,-0.4791,0.8816,10.3842,11.1563,5.1573,9.3494,12.0334,-2.4341,10.5147
1718.7500,-4.0164,-8.2533,-0.9932,6.3585,9.1634,-6.9806,-2.8367,3.5172,-6.4289,1.1069,-0.1548,-0.3989,9.9359,12.5707,6.9978,12.7449,11.9290,-1.6346,11.0093
1722.6562,-0.3973,-6.0644,-0.5949,5.5509,8.2765,-6.0843,-3.8780,1.7957,-4.0874,2.9136,0.5852,-1.9075,8.5116,12.3474,7.5251,13.7056,10.1041,-0.1872,10.2891
1726.5625,2.7289,-2.7798,-0.3402,3.9573,6.6050,-4.2101,-4.6270,-0.3341,-1.1267,4.3491,1.5772,-2.7981,6.8967,10.7851,6.5179,11.9044,7.2967,1.4726,8.7069
1730.4688,4.5617,0.6858,-0.5413,1.8178,4.5535,-1.7574,-4.8901,-2.3692,1.4673,5.2091,2.2359,-2.7588,5.4618,8.3714,4.2708,7.8506,4.2779,2.7022,6.5698
1734.3750,4.9040,3.1927,-1.2735,-0.6149,2.4497,0.6253,-4.5914,-3.9205,2.7162,5.4735,1.8385,-2.2703,3.8652,5.5307,1.4186,2.6119,1.4958,2.8231,3.9779
1738.2812,4.1016,3.7681,-2.3075,-3.0194,0.5813,2.2064,-3.8111,-4.7417,2.0560,5.1919,-0.0482,-2.3451,1.3272,2.5311,-1.3484,-2.5695,-0.9690,1.4088,0.9264
1742.1875,2.7777,2.0559,-3.1796,-4.9557,-0.7576,2.4722,-2.7335,-4.7092,-0.4011,4.4102,-3.2572,-3.8648,-2.6571,-0.4113,-3.5333,-6.5851,-3.1545,-1.4310,-2.4297
1746.0938,1.5230,-1.4092,-3.3895,-5.9256,-1.3131,1.4137,-1.5468,-3.8291,-3.8779,3.2013,-7.0166,-6.9281,-7.6687,-2.9754,-4.9530,-8.6468,-4.9227,-4.9597,-5.5907
1750.0000,0.6854,-5.3044,-2.6411,-5.5602,-0.9994,-0.3967,-0.3666,-2.2806,-7.2168,1.7517,-10.2512,-10.6348,-12.2956,-4.7158,-5.7143,-8.4108,-5.8950,-8.0326,-7.7897
1753.9062,0.3211,-8.0270,-0.9997,-3.8368,0.0049,-2.0350,0.7685,-0.4300,-9.3130,0.3905,-12.0129,-13.4618,-14.7719,-5.2517,-6.0781,-6.0729,-5.6827,-9.5594,-8.3133
1757.8125,0.2860,-8.3963,1.1290,-1.1765,1.3040,-2.6727,1.8365,1.2529,-9.5120,-0.5135,-11.8113,-14.0133,-13.9400,-4.5269,-6.2820,-2.3725,-4.2177,-8.9804,-6.8607
1761.7188,0.3825,-6.2025,3.1830,1.6699,2.4678,-1.9957,2.7554,2.3671,-7.8202,-0.7434,-9.7144,-11.7099,-9.9020,-2.9121,-6.4027,1.5875,-1.8950,-6.4985,-3.7117
1765.6250,0.4787,-2.3102,4.6746,3.9050,3.2296,-0.3529,3.3487,2.7451,-4.8680,-0.3778,-6.2443,-7.0537,-3.9488,-1.0311,-6.3290,4.7108,0.6092,-2.9573,0.3771
1769.5312,0.5442,1.7349,5.3290,4.9871,3.5534,1.4501,3.3853,2.4929,-1.6676,0.2377,-2.1899,-1.3865,2.1366,0.5830,-5.8714,6.3108,2.7076,0.5367,4.4489
1773.4375,0.6079,4.3896,5.0773,4.7933,3.5296,2.5829,2.6862,1.8743,0.7293,0.6947,1.5574,3.6694,6.8928,1.7387,-4.9505,6.3234,4.1714,3.0215,7.6177
1777.3438,0.6868,4.7407,3.9702,3.5804,3.2077,2.5949,1.2569,1.1263,1.5577,0.7658,4.1314,6.7914,9.6064,2.5562,-3.7443,5.2016,5.0998,3.9312,9.2304
1781.2500,0.7434,2.7958,2.1350,1.8088,2.5277,1.5774,-0.6195,0.3522,0.5559,0.5147,4.8387,7.3431,10.2226,3.2052,-2.6777,3.5770,5.6539,3.1457,8.9443
1785.1562,0.7064,-0.6381,-0.1673,-0.0401,1.4326,0.0381,-2.3958,-0.4278,-1.9771,0.1927,3.3635,5.4975,9.0168,3.6640,-2.2316,1.9349,5.8160,0.9245,6.8028
1789.0625,0.5351,-4.3598,-2.4605,-1.5650,0.0719,-1.3920,-3.4161,-1.1257,-5.2938,0.0076,-0.0327,2.1206,6.4091,3.7353,-2.6745,0.5137,5.4053,-2.1789,3.3161
1792.9688,0.2730,-7.2365,-4.0949,-2.4634,-1.0976,-2.2329,-3.1870,-1.4916,-8.4450,-0.0472,-4.4548,-1.5395,3.0381,3.3163,-3.8853,-0.5539,4.3400,-5.4046,-0.5505
1796.8750,0.0396,-8.5430,-4.4914,-2.5437,-1.4599,-2.2907,-1.6563,-1.2038,-10.5861,-0.1642,-8.5815,-4.2962,-0.1356,2.6673,-5.3864,-1.0485,2.8989,-7.9300,-3.6060
1800.7812,-0.0474,-8.1043,-3.4870,-1.7809,-0.5912,-1.6479,0.6576,-0.1167,-11.2411,-0.5109,-11.1208,-5.4739,-2.0143,2.3888,-6.5688,-0.6492,1.7101,-9.1010,-4.8690
1804.6875,0.0327,-6.2606,-1.5398,-0.3897,1.4115,-0.5826,2.8055,1.5148,-10.4275,-1.0118,-11.3285,-5.1616,-1.8824,3.0491,-6.9647,0.8445,1.4146,-8.6799,-4.0121
1808.5938,0.1682,-3.7103,0.4181,1.1760,3.8791,0.5209,3.8095,3.0396,-8.5924,-1.3127,-9.3222,-4.0974,0.0850,4.7170,-6.4062,3.2196,2.2342,-6.9572,-1.5343
1812.5000,0.1853,-1.2758,1.4654,2.3672,5.8753,1.2621,3.1543,3.7051,-6.3869,-0.9838,-6.0047,-3.1886,2.7893,6.7844,-5.0043,5.7575,3.7777,-4.6128,1.4946
1816.4062,-0.0065,0.3607,1.2442,2.7882,6.6875,1.3432,1.0983,3.0858,-4.3788,0.1730,-2.6136,-2.9175,4.8152,8.2633,-3.0160,7.4866,5.2524,-2.3665,3.9967
1820.3125,-0.2872,0.8864,0.2105,2.4079,6.1859,0.7113,-1.3992,1.3632,-2.8319,1.9427,-0.1260,-3.0123,5.3237,8.3810,-0.7236,7.6716,5.9386,-0.6129,5.4202
1824.2188,-0.3222,0.4691,-0.6162,1.5807,4.8124,-0.3462,-3.1371,-0.7506,-1.6487,3.7930,1.1682,-2.6270,4.5864,7.0466,1.5984,6.2377,5.5845,0.7320,5.9127
1828.1250,0.2847,-0.3147,-0.2701,0.8375,3.2170,-1.2485,-3.2796,-2.4162,-0.4937,5.1980,1.7064,-0.9414,3.7348,4.8521,3.6594,3.8524,4.4532,2.0796,6.0511
1832.0312,1.7489,-0.7239,1.5703,0.5692,1.8089,-1.3499,-1.7686,-3.1352,0.9747,5.9668,2.3092,2.2156,3.8787,2.6295,5.1599,1.6073,3.0310,3.8230,6.3486
1835.9375,3.9148,-0.1754,4.4023,0.8129,0.5475,-0.2683,0.6988,-2.9742,2.8813,6.3424,3.6623,6.1556,5.2463,0.9178,5.8749,0.4918,1.6587,6.0284,6.8967
1839.8438,6.2442,1.4975,7.2334,1.2878,-0.8891,1.8605,3.1037,-2.4052,5.0312,6.7939,5.9164,9.6857,6.9955,-0.2596,5.7635,0.9591,0.3792,8.3565,7.3746
1843.7500,8.0167,3.9648,9.1802,1.6491,-2.6996,4.3681,4.6701,-1.8998,6.9711,7.6440,8.6070,11.7809,7.8332,-1.1847,5.0021,2.7866,-0.9162,10.2336,7.3661
1847.6562,8.6494,6.5299,9.9190,1.7688,-4.6461,6.3207,5.2143,-1.5837,8.1808,8.7967,10.9068,12.1007,6.9581,-2.0410,3.8857,5.2373,-2.2190,11.1356,6.7064
1851.5625,7.9681,8.4036,9.7084,1.8268,-6.0852,6.9424,5.0880,-1.2042,8.2992,9.7549,12.0407,11.0148,4.6115,-2.6885,2.6545,7.3751,-3.2774,10.8068,5.5913
1855.4688,6.2872,9.0056,9.0365,2.1430,-6.3401,5.9762,4.8054,-0.4133,7.2802,9.9210,11.6314,9.1773,1.8503,-2.8063,1.3799,8.3668,-3.7377,9.3210,4.3972
1859.3750,4.2569,8.1727,8.2029,2.8808,-5.1482,3.7923,4.6446,0.8714,5.4115,8.9741,9.8108,7.0211,-0.2273,-2.2446,0.0002,7.6889,-3.4341,7.0122,3.3984
1863.2812,2.5629,6.2010,7.1617,3.8598,-2.8549,1.1956,4.5012,2.3269,3.1937,7.0729,7.0794,4.5641,-1.1759,-1.2400,-1.5308,5.2373,-2.5730,4.3572,2.6259
1867.1875,1.6351,3.7112,5.7077,4.6367,-0.2125,-0.9543,4.0666,3.4249,1.1409,4.7579,4.0319,1.6333,-1.3143,-0.2734,-3.1224,1.3579,-1.6490,1.8630,1.9648
1871.0938,1.5017,1.3890,3.8080,4.8052,2.0722,-2.1116,3.1590,3.8221,-0.4082,2.6312,1.1124,-1.7408,-1.2602,0.3181,-4.5724,-3.2169,-1.1479,-0.0499,1.3672
1875.0000,1.8386,-0.2956,1.7740,4.2885,3.7098,-2.2332,1.9356,3.6304,-1.3901,1.0333,-1.4835,-5.1330,-1.3528,0.6313,-5.7236,-7.5493,-1.2592,-1.1773,0.9588
1878.9062,2.1608,-1.2712,0.1146,3.3918,4.8608,-1.7242,0.8228,3.3397,-1.9922,-0.0782,-3.7450,-7.9125,-1.4525,1.1104,-6.6015,-10.7671,-1.7993,-1.6343,0.9236
1882.8125,2.0467,-1.8549,-0.8158,2.5591,5.8265,-1.2013,0.2212,3.4318,-2.5241,-0.9922,-5.6948,-9.6458,-1.2282,2.1319,-7.3786,-12.3228,-2.3627,-1.8380,1.2653
1886.7188,1.2955,-2.5401,-1.0898,2.0145,6.6573,-1.1985,0.2151,3.9689,-3.2447,-1.9649,-7.2574,-10.3591,-0.5996,3.6059,-8.1556,-12.1130,-2.5544,-2.3147,1.6752
1890.6250,-0.0247,-3.6789,-1.1726,1.5670,6.9975,-1.9400,0.5019,4.4778,-4.2215,-2.9946,-8.2252,-10.4224,0.1037,4.9431,-8.7320,-10.4048,-2.1285,-3.3908,1.6644
1894.5312,-1.6229,-5.2276,-1.5914,0.7508,6.3030,-3.2562,0.5938,4.2420,-5.2772,-3.7933,-8.3346,-10.1546,0.4134,5.4456,-8.5881,-7.6364,-0.9875,-4.9453,0.8988
1898.4375,-3.0815,-6.7075,-2.5470,-0.7808,4.2810,-4.6561,0.1437,2.8145,-6.0447,-3.9569,-7.4043,-9.4989,0.1555,4.8189,-7.1635,-4.2370,0.8653,-6.4041,-0.5095
1902.3438,-3.9667,-7.4196,-3.7442,-2.8985,1.2172,-5.5184,-0.8265,0.3867,-6.1114,-3.2132,-5.4602,-8.0784,-0.3756,3.3942,-4.2777,-0.5774,3.3037,-7.0215,-1.9968
1906.2500,-3.9399,-6.8076,-4.5585,-4.9593,-2.0706,-5.3300,-1.9387,-2.2582,-5.1988,-1.5905,-2.7821,-5.6197,-0.6860,1.8754,-0.3907,2.9601,5.9809,-6.3030,-2.8661
1910.1562,-2.8636,-4.7690,-4.4193,-6.1581,-4.6569,-3.8893,-2.6833,-4.1949,-3.3102,0.5841,0.1509,-2.4079,-0.5699,0.8076,3.5162,5.9102,8.2760,-4.3176,-2.7292
1914.0625,-0.8791,-1.7435,-3.1585,-6.0521,-6.0385,-1.3990,-2.6987,-4.9140,-0.7852,2.8343,2.7938,0.6277,-0.3792,0.1808,6.4017,7.7709,9.4151,-1.7121,-1.7767
1917.9688,1.5829,1.4632,-1.1215,-4.9052,-6.4175,1.5896,-1.9438,-4.6175,1.7758,4.7313,4.6923,2.3325,-0.8235,-0.5323,7.6770,8.1802,8.7668,0.5768,-0.7003
1921.8750,3.8972,4.0134,0.9924,-3.6040,-6.5461,4.3626,-0.6905,-4.0606,3.7035,6.0234,5.6013,1.9921,-2.4466,-1.9544,7.4374,7.1125,6.1540,1.7364,-0.3290
1925.7812,5.4379,5.3528,2.4388,-3.1788,-7.2319,6.2907,0.6208,-4.0549,4.5090,6.6480,5.5241,-0.2170,-5.2069,-4.3331,6.2772,4.9425,1.9773,1.3969,-1.2163
1929.6875,5.8091,5.3652,2.7224,-4.2233,-8.8222,7.0374,1.5677,-4.9631,4.0880,6.6526,4.6706,-3.3137,-8.4866,-7.3632,4.8466,2.3095,-2.9338,-0.2749,-3.4067
1933.5938,5.0039,4.3370,1.7644,-6.5710,-10.9857,6.6465,1.8960,-6.5036,2.7859,6.1026,3.3666,-6.0760,-11.4891,-10.3856,3.4764,-0.1480,-7.6427,-2.6900,-6.4637
1937.5000,3.4042,2.7955,-0.0843,-9.4069,-12.9092,5.4791,1.5954,-7.9616,1.2715,5.0479,1.9575,-7.6925,-13.6728,-12.7575,2.1163,-2.0322,-11.3989,-5.0606,-9.6745
1941.4062,1.6073,1.3177,-2.1650,-11.7205,-13.7662,4.0354,0.8906,-8.6408,0.2584,3.5658,0.7366,-8.0804,-14.8842,-14.1086,0.5802,-3.2719,-13.7634,-6.6362,-12.2892
1945.3125,0.1586,0.3670,-3.7415,-12.8015,-13.1633,2.7439,0.1458,-8.2562,0.1904,1.8352,-0.0954,-7.7129,-15.1622,-14.3557,-1.1349,-4.0407,-14.5846,-6.9132,-13.7081
1949.2188,-0.6694,0.1776,-4.2834,-12.4963,-11.3130,1.8102,-0.2993,-7.0367,1.0419,0.1663,-0.4542,-7.1554,-14.4901,-13.5753,-2.7207,-4.5970,-13.9459,-5.7961,-13.6126
1953.1250,-0.9390,0.6903,-3.7042,-11.1204,-8.8673,1.1878,-0.3004,-5.5146,2.3377,-1.0688,-0.3880,-6.6784,-12.7858,-11.9214,-3.7121,-5.1549,-12.1683,-3.6598,-12.0543
1957.0312,-0.9275,1.5671,-2.4199,-9.1504,-6.5426,0.6756,0.0137,-4.1676,3.3963,-1.5922,-0.0736,-6.2015,-10.1451,-9.6586,-3.7891,-5.8362,-9.8233,-1.2432,-9.4723
1960.9375,-0.9101,2.3132,-1.1479,-6.9240,-4.7618,0.0872,0.3335,-3.1473,3.6799,-1.3811,0.2328,-5.5373,-7.0576,-7.2075,-2.9908,-6.6715,-7.6349,0.6457,-6.5711
1964.8438,-0.9830,2.4958,-0.5094,-4.5296,-3.4959,-0.5992,0.4065,-2.2407,3.0758,-0.7230,0.2983,-4.6796,-4.2948,-5.0519,-1.6877,-7.5951,-6.2167,1.5080,-4.0465
1968.7500,-1.0292,1.9724,-0.6520,-1.9090,-2.3617,-1.1955,0.2737,-1.0607,1.9620,-0.1005,0.0405,-3.8826,-2.4692,-3.4992,-0.3515,-8.4161,-5.7589,1.4124,-2.2694
1972.6562,-0.8342,1.0007,-1.1440,0.9362,-0.8993,-1.3989,0.3168,0.6663,1.0203,0.0590,-0.3912,-3.4718,-1.6064,-2.4763,0.7015,-8.8074,-5.8924,0.9539,-1.1241
1976.5625,-0.2624,0.1364,-1.2463,3.7871,1.1187,-0.9820,1.0292,2.8790,0.8918,-0.3631,-0.6482,-3.5531,-1.1300,-1.5790,1.4240,-8.3716,-5.8830,0.9045,-0.1442
1980.4688,0.6223,-0.0521,-0.4172,6.1952,3.4957,0.0279,2.6221,5.1372,1.8512,-1.0805,-0.3419,-3.8631,-0.3418,-0.4056,1.9675,-6.7979,-5.0809,1.7516,1.0996
1984.3750,1.5636,0.6961,1.2763,7.6111,5.6309,1.2930,4.7342,6.7729,3.6678,-1.5478,0.7400,-3.8906,0.9598,1.0541,2.5163,-4.0511,-3.3441,3.4135,2.6103
1988.2812,2.2321,2.1652,3.1290,7.5866,6.7527,2.2854,6.4881,7.1639,5.7181,-1.2870,2.4809,-3.1958,2.2423,2.3031,3.1584,-0.4885,-1.1399,5.3086,3.8611
1992.1875,2.3791,3.7522,4.1952,5.9592,6.2746,2.5325,6.9252,6.0097,7.2884,-0.2091,4.4522,-1.7073,2.6234,2.6406,3.8622,3.1781,0.7506,6.7227,4.0927
1996.0938,1.9459,4.7679,3.8609,2.9543,4.1117,1.8586,5.5777,3.4874,7.9113,1.2825,6.1060,0.2039,1.6026,1.6900,4.5403,6.0913,1.7194,7.2204,2.8405
2000.0000,1.0898,4.7810,2.2181,-0.8336,0.7928,0.4885,2.8068,0.2114,7.5712,2.4967,7.0461,1.9278,-0.4505,-0.2529,5.1302,7.5577,1.6715,6.8407,0.3309
2003.9062,0.1403,3.8225,-0.0001,-4.5852,-2.7159,-1.0460,-0.3379,-2.9967,6.6878,2.8718,7.2212,2.9712,-2.4765,-2.3492,5.6387,7.3376,0.9999,5.9899,-2.5469
2007.8125,-0.4869,2.3558,-1.8622,-7.4926,-5.4158,-2.1417,-2.6749,-5.4274,5.9007,2.3538,6.9262,3.2447,-3.4659,-3.7584,6.1361,5.7865,0.2540,5.1560,-4.7103
2011.7188,-0.4013,1.0562,-2.7509,-9.0137,-6.7138,-2.3718,-3.5203,-6.7449,5.7699,1.4892,6.6166,3.1034,-3.1899,-4.1946,6.7106,3.7682,-0.2279,4.6668,-5.4975
2015.6250,0.6300,0.5268,-2.6177,-9.0432,-6.6619,-1.6253,-2.9935,-7.0622,6.5395,1.1451,6.6509,3.1091,-2.3453,-4.0772,7.4011,2.3420,-0.4619,4.6292,-5.0228
2019.5312,2.5558,1.0825,-1.8536,-7.9169,-5.8629,-0.0926,-1.8236,-6.7991,8.0661,2.0009,7.1182,3.6532,-1.9985,-4.1635,8.1331,2.3302,-0.6816,5.0187,-4.0393
2023.4375,4.9825,2.6711,-0.9255,-6.2370,-5.0969,1.8550,-0.8152,-6.4131,9.9270,4.1148,7.8430,4.6748,-2.7664,-4.9508,8.6976,3.9502,-1.0831,5.7829,-3.4064
2027.3438,7.2581,4.9288,-0.0575,-4.5956,-4.8844,3.8082,-0.3480,-6.1590,11.6354,6.8332,8.5463,5.6682,-4.3624,-6.3072,8.8256,6.6932,-1.6740,6.8547,-3.5199
2031.2500,8.7159,7.3241,0.8372,-3.3284,-5.2351,5.4216,-0.2310,-6.0023,12.8464,9.1133,9.0442,6.0048,-5.8302,-7.5943,8.3573,9.5385,-2.3160,8.0926,-4.0734
2035.1562,8.9899,9.3357,1.9827,-2.4137,-5.7090,6.4682,0.0358,-5.7097,13.4550,10.0746,9.3559,5.3886,-6.2374,-8.1562,7.4257,11.4173,-2.8695,9.2524,-4.2845
2039.0625,8.2294,10.6089,3.4976,-1.5458,-5.7193,6.8692,0.8229,-5.0238,13.5548,9.4563,9.6634,4.1449,-5.2742,-7.7707,6.5056,11.6991,-3.2766,10.0631,-3.4105
2042.9688,7.0562,11.0444,5.2742,-0.3203,-4.8653,6.7071,2.0839,-3.7987,13.3043,7.7183,10.1619,3.1159,-3.3327,-6.7212,6.2220,10.4471,-3.5068,10.3700,-1.2046
2046.8750,6.2415,10.7844,7.0398,1.5773,-3.0949,6.2001,3.4033,-2.0242,12.7957,5.7457,10.9023,3.1747,-1.0933,-5.4716,6.9670,8.3167,-3.4478,10.2274,1.9642
2050.7812,6.2623,10.1043,8.5175,4.2596,-0.6357,5.6112,4.3064,0.2338,12.0108,4.3538,11.7182,4.6430,0.9802,-4.2431,8.5486,6.1771,-2.8863,9.8555,5.3675
2054.6875,7.0013,9.2621,9.5545,7.6159,2.2019,5.1084,4.5803,2.8870,10.8865,3.8897,12.2713,7.0017,2.8370,-2.8475,10.1439,4.6949,-1.6365,9.4910,8.3443
2058.5938,7.7860,8.3871,10.1416,11.3389,5.1739,4.6513,4.3781,5.8090,9.4325,4.1393,12.1816,9.1244,4.6508,-0.8962,10.6674,4.1085,0.2785,9.2525,10.6124
2062.5000,7.7648,7.4608,10.3477,14.9591,8.1004,3.9934,4.0575,8.7625,7.8049,4.5410,11.1779,9.9189,6.5052,1.8067,9.3882,4.2754,2.5622,9.1158,12.2841
2066.4062,6.3972,6.3833,10.2380,17.8831,10.7471,2.8274,3.8979,11.3529,6.2611,4.5249,9.2078,8.9676,8.2638,5.0129,6.4173,4.8879,4.7811,8.9847,13.6144
2070.3125,3.7620,5.0580,9.8186,19.4675,12.7309,1.0026,3.9028,13.0818,5.0047,3.7650,6.4748,6.7357,9.6960,8.1063,2.7258,5.6691,6.6090,8.7505,14.6771
2074.2188,0.5066,3.4330,9.0095,19.1570,13.5716,-1.3253,3.8075,13.5002,4.0185,2.2362,3.3978,4.2076,10.6594,10.4181,-0.3556,6.4306,7.9840,8.2613,15.1927
2078.1250,-2.5053,1.4911,7.6354,16.6669,12.8890,-3.7181,3.2571,12.3791,3.0146,0.1290,0.5048,2.2168,11.1066,11.5250,-1.8553,7.0161,9.0432,7.2483,14.6213
2082.0312,-4.6031,-0.7536,5.4619,12.1377,10.6248,-5.6457,2.0221,9.7965,1.5763,-2.2483,-1.7087,0.9541,10.9106,11.3281,-1.6429,7.2486,9.8859,5.3505,12.4710
2085.9375,-5.5257,-3.1982,2.3187,6.1789,7.1289,-6.7196,0.1294,6.0988,-0.5601,-4.4934,-2.9139,-0.0020,9.7425,9.9246,-0.3792,6.9697,10.3656,2.3319,8.6406
2089.8438,-5.3611,-5.5486,-1.6992,-0.2424,3.0428,-6.8197,-2.1331,1.7815,-3.2434,-6.0947,-3.0275,-1.1890,7.2321,7.4506,0.9972,6.1447,10.0959,-1.6004,3.6032
2093.7500,-4.3282,-7.2752,-6.0575,-6.0412,-0.9544,-6.0493,-4.3024,-2.6239,-5.8511,-6.4877,-2.2047,-2.7142,3.3640,4.0631,1.8695,4.9255,8.6845,-5.6303,-1.6815
2097.6562,-2.6127,-7.7392,-9.7994,-10.2978,-4.3778,-4.5874,-5.8683,-6.6030,-7.5209,-5.2488,-0.7540,-4.1068,-1.2292,0.0621,2.2241,3.5948,6.0272,-8.5461,-6.0948
2101.5625,-0.3781,-6.4959,-11.8447,-12.4862,-7.0149,-2.5764,-6.4141,-9.6725,-7.5811,-2.3625,0.9763,-4.6907,-5.4163,-3.9965,2.4702,2.4261,2.4505,-9.3150,-8.7741
2105.4688,2.1069,-3.6248,-11.4814,-12.5768,-8.8338,-0.1403,-5.7554,-11.4217,-5.9482,1.6187,2.6793,-4.1724,-8.1646,-7.3564,2.9962,1.5820,-1.3872,-7.7042,-9.4235
2109.3750,4.4020,0.1447,-8.7871,-10.9937,-9.8219,2.4998,-4.0407,-11.6183,-3.2491,5.6838,4.1113,-2.9536,-9.1767,-9.3000,3.8302,1.1386,-4.7476,-4.5237,-8.3763
2113.2812,6.0158,3.6590,-4.6983,-8.4505,-9.8953,4.9441,-1.7537,-10.3343,-0.5661,8.7488,5.0722,-1.8850,-9.0549,-9.4374,4.6464,1.1941,-7.0451,-1.2703,-6.3944
2117.1875,6.6662,5.8470,-0.6276,-5.7210,-8.9507,6.6843,0.4332,-7.9926,1.0801,10.1269,5.4037,-1.6264,-8.8070,-7.8694,5.0746,1.9185,-7.9515,0.6563,-4.3100
2121.0938,6.4810,6.2304,2.1895,-3.4105,-7.0166,7.3206,1.9221,-5.2554,1.2300,9.8129,5.0393,-2.1059,-9.0374,-5.1419,5.0326,3.4335,-7.3994,0.6883,-2.6849
2125.0000,5.9475,5.1262,3.2562,-1.7966,-4.3788,6.7907,2.4543,-2.7746,0.1851,8.4069,4.0890,-2.5139,-9.4456,-2.0478,4.8111,5.5774,-5.5772,-0.6828,-1.6349
2128.9062,5.6028,3.4118,2.9650,-0.7877,-1.5659,5.4413,2.2257,-0.9281,-1.2046,6.7327,2.8838,-1.8626,-9.0426,0.6129,4.8545,7.7644,-2.9498,-2.3053,-0.8737
2132.8125,5.6650,2.0008,2.2726,-0.0107,0.8289,3.8734,1.7723,0.3094,-2.0416,5.3974,1.9046,0.2910,-6.9341,2.2358,5.4183,9.1360,-0.2367,-3.0999,0.0761
2136.7188,5.8784,1.3574,2.1194,1.0044,2.4030,2.6465,1.6786,1.2863,-1.8795,4.5610,1.5866,3.4865,-3.0715,2.5635,6.3651,8.9991,1.7620,-2.6414,1.6207
2140.6250,5.7047,1.3330,2.9391,2.6135,3.1355,2.0214,2.2667,2.4361,-0.9433,4.0207,2.0808,6.6125,1.6058,1.7813,7.2372,7.2903,2.4870,-1.2620,3.8914
2144.5312,4.7289,1.3757,4.5083,4.8990,3.3994,1.8839,3.4353,4.0199,0.0321,3.4858,3.1108,8.5592,5.7278,0.5062,7.5294,4.7184,1.9288,0.2892,6.6624
2148.4375,2.9833,0.9172,6.1463,7.6120,3.7782,1.8625,4.7230,5.9842,0.2219,2.8054,4.0310,8.7877,8.3066,-0.4002,6.9623,2.4190,0.6929,1.3084,9.4040
2152.3438,0.9384,-0.3373,7.0843,10.2303,4.7716,1.5352,5.5411,7.9829,-0.8692,1.9841,4.0881,7.4413,9.1976,-0.1876,5.5910,1.2929,-0.2850,1.3986,11.4449
2156.2500,-0.8347,-2.3623,6.7839,12.1041,6.5349,0.6030,5.4412,9.5220,-3.2140,1.0198,2.7695,5.0155,8.9293,1.4050,3.7253,1.4549,-0.2446,0.4423,12.1992
2160.1562,-2.0739,-4.9464,5.0884,12.6465,8.7785,-1.0254,4.2925,10.1377,-6.3603,-0.2394,0.0609,1.9347,8.1413,3.9790,1.7599,2.1708,0.9809,-1.5517,11.3895
2164.0625,-2.9855,-7.8247,2.2229,11.5185,10.8728,-3.2108,2.3132,9.5394,-9.7014,-2.0420,-3.5196,-1.5947,7.1315,6.6592,0.0270,2.3396,2.8987,-4.4980,9.1750
2167.9688,-4.0196,-10.6880,-1.2903,8.7557,12.1068,-5.5858,-0.0263,7.6918,-12.7289,-4.4817,-7.1297,-5.3783,5.8417,8.5508,-1.2800,1.2004,4.6781,-8.1233,6.1074
2171.8750,-5.4266,-13.1151,-4.7628,4.7903,11.9709,-7.5991,-2.1750,4.8352,-15.1296,-7.2434,-9.9456,-8.9364,4.1755,9.1871,-2.1277,-1.1997,5.6307,-11.8437,2.9009
2175.7812,-6.9405,-14.5827,-7.5211,0.3424,10.3394,-8.6595,-3.6894,1.4447,-16.7282,-9.5888,-11.4674,-11.4716,2.2654,8.6722,-2.6266,-4.0617,5.5348,-14.8380,0.1107
2179.6875,-7.8494,-14.6501,-9.1182,-3.7936,7.4781,-8.3906,-4.3811,-1.8798,-17.3842,-10.6628,-11.6454,-12.2236,0.4091,7.4399,-2.9637,-6.3280,4.6273,-16.3651,-2.1052
2183.5938,-7.4281,-13.2355,-9.4896,-6.9869,3.9054,-6.8899,-4.3659,-4.5746,-16.9618,-9.9590,-10.7885,-10.9822,-1.2337,5.8337,-3.2721,-7.2486,3.3347,-16.1365,-3.9838
2187.5000,-5.4296,-10.7643,-8.9355,-8.9240,0.1977,-4.7965,-3.9742,-6.2682,-15.4048,-7.6332,-9.3331,-8.3507,-2.8337,3.8476,-3.4807,-6.6614,1.9774,-14.4634,-5.8912
2191.4062,-2.2836,-8.0140,-7.8922,-9.6043,-3.1567,-3.0336,-3.5396,-6.8583,-12.8497,-4.4386,-7.6131,-5.5094,-4.7174,1.2320,-3.2617,-4.8859,0.6459,-12.0417,-7.9485
2195.3125,1.1419,-5.6977,-6.6081,-9.1996,-5.8065,-2.2982,-3.1691,-6.4691,-9.6683,-1.3135,-5.7586,-3.5972,-6.9423,-2.1325,-2.1715,-2.4135,-0.7218,-9.5179,-9.8041
2199.2188,4.0380,-4.0540,-4.9580,-7.8872,-7.5175,-2.5911,-2.6428,-5.3275,-6.3822,1.1036,-3.7597,-3.1167,-9.0263,-5.9093,0.0388,0.3228,-2.1874,-7.1534,-10.7402
2203.1250,6.0578,-2.7422,-2.5677,-5.7864,-8.1553,-3.1292,-1.5433,-3.6552,-3.4814,2.7138,-1.6268,-3.7519,-10.1513,-9.3154,3.1288,2.9649,-3.7279,-4.8299,-10.0901
2207.0312,7.3577,-1.1452,0.7900,-3.0464,-7.7178,-2.7748,0.4267,-1.6580,-1.2512,3.8200,0.4858,-4.6843,-9.7519,-11.4886,6.3243,5.1204,-5.2535,-2.3673,-7.7187
2210.9375,8.2923,1.1247,4.8001,-0.0042,-6.3987,-0.7671,3.1295,0.3949,0.3016,4.7625,2.2973,-5.1507,-8.0241,-11.9540,8.6297,6.3344,-6.6595,0.1303,-4.2471
2214.8438,9.0368,3.8855,8.5379,2.7516,-4.6063,2.7056,5.9085,2.1045,1.3971,5.6270,3.5671,-4.8503,-5.8980,-10.8598,9.3552,6.2487,-7.8319,2.2037,-0.8382
2218.7500,9.4415,6.4707,10.8615,4.5295,-2.8701,6.4980,7.8407,3.0037,2.3523,6.2428,4.2968,-3.9708,-4.4360,-8.8339,8.5328,4.8549,-8.6139,3.3220,1.3618
2222.6562,9.2210,8.1868,11.0658,4.8634,-1.6428,9.1165,8.2111,2.7708,3.4457,6.4351,4.8063,-2.8992,-4.0987,-6.5948,6.9296,2.6258,-8.8100,3.3049,1.8106
2226.5625,8.3011,8.8048,9.3758,3.8283,-1.0940,9.5792,6.9278,1.4766,4.8214,6.2823,5.5806,-1.8915,-4.4476,-4.6070,5.6132,0.3769,-8.2802,2.5441,0.8392
2230.4688,7.0161,8.7107,6.9162,2.1147,-1.0230,7.9732,4.6086,-0.3235,6.4376,6.1298,6.9417,-0.9405,-4.5131,-2.9861,5.3289,-1.0877,-7.0721,1.8249,-0.5472
2234.3750,5.9644,8.5907,5.1240,0.7598,-0.9598,5.3499,2.2708,-1.7704,8.0476,6.3180,8.7393,0.1113,-3.5250,-1.6384,6.0824,-1.3242,-5.4605,1.8511,-1.2052
2238.2812,5.6060,8.8761,4.9456,0.6564,-0.4088,3.0360,0.8057,-2.0973,9.2249,6.8376,10.2913,1.3623,-1.4270,-0.4488,7.1882,-0.3807,-3.8149,2.7987,-0.4106
2242.1875,5.8939,9.3585,6.3172,2.1119,0.8998,1.8272,0.5537,-1.0220,9.4625,7.2117,10.6768,2.7275,1.1917,0.6477,7.7383,1.3333,-2.3625,4.2041,1.8620
2246.0938,6.2298,9.2745,8.2500,4.7135,2.8864,1.5912,1.2145,1.1028,8.3613,6.7491,9.2595,3.9736,3.6164,1.7174,7.1768,3.3027,-1.0342,5.2574,5.0329
2250.0000,5.8051,7.8185,9.4498,7.5634,5.1753,1.5051,2.1043,3.4750,5.8584,5.0250,6.1467,4.8451,5.4941,2.8726,5.6198,5.0942,0.4510,5.2929,8.2620
2253.9062,4.1193,4.7408,9.0672,9.7232,7.2622,0.7166,2.5589,5.2454,2.3738,2.2550,2.2811,5.1645,6.8900,4.2008,3.7495,6.3906,2.2974,4.1583,10.8036
2257.8125,1.3383,0.6190,7.1173,10.5972,8.6854,-1.0497,2.2289,5.8931,-1.2448,-0.7231,-0.9382,4.8498,7.9421,5.6164,2.3864,6.9363,4.3543,2.2497,12.1951
2261.7188,-1.7353,-3.3803,4.3532,10.0627,9.1212,-3.3351,1.1354,5.3688,-4.0156,-2.8773,-2.3308,3.8844,8.5110,6.7917,2.0228,6.5284,6.0927,0.2322,12.2509
2265.6250,-4.0592,-6.0993,1.7389,8.3494,8.4124,-5.2940,-0.4652,3.9788,-5.2487,-3.5507,-1.5382,2.3025,8.2020,7.2900,2.5765,5.1113,6.8943,-1.3481,10.9694
2269.5312,-4.8729,-6.9719,-0.1050,5.8262,6.5837,-6.2540,-2.2512,2.1476,-4.8896,-2.8098,0.7823,0.2136,6.7552,6.8497,3.4596,2.9048,6.4644,-2.3283,8.4753
2273.4375,-4.0511,-6.2544,-1.1474,2.8694,3.8804,-6.0914,-3.9200,0.2432,-3.5771,-1.3644,3.2786,-2.1747,4.4235,5.6068,3.8774,0.4258,5.0611,-2.9442,5.0453
2277.3438,-2.1262,-4.8086,-1.7905,-0.1352,0.7917,-5.2074,-5.1839,-1.4508,-2.3508,-0.1370,4.5569,-4.5843,1.9368,4.0585,3.1883,-1.6697,3.3609,-3.6303,1.1592
2281.2500,-0.0090,-3.6091,-2.4808,-2.7450,-2.0192,-4.1872,-5.7634,-2.6751,-2.1371,0.2270,3.8131,-6.7387,0.0254,2.7586,1.1752,-2.8579,2.0481,-4.7314,-2.5182
2285.1562,1.4225,-3.2680,-3.3648,-4.4925,-3.9162,-3.4228,-5.4466,-3.1752,-3.2740,-0.3725,1.1405,-8.4265,-1.1045,1.9567,-1.8500,-2.9698,1.4245,-6.2667,-5.2746
2289.0625,1.6751,-3.8072,-4.1867,-5.0363,-4.5541,-2.9469,-4.1944,-2.7866,-5.3219,-1.5438,-2.5837,-9.5049,-1.8693,1.4517,-5.1267,-2.2334,1.3058,-7.8482,-6.5667
2292.9688,0.8145,-4.7319,-4.4449,-4.3371,-4.0494,-2.5301,-2.2028,-1.5713,-7.2595,-2.6622,-6.1040,-9.8556,-2.8639,0.7736,-7.6888,-1.1236,1.2480,-8.7895,-6.2114
2296.8750,-0.5791,-5.3092,-3.6797,-2.7119,-2.9249,-1.9040,0.1499,0.1280,-7.9609,-3.1405,-8.2576,-9.3633,-4.2444,-0.4428,-8.7055,-0.1317,0.8988,-8.3842,-4.4508
2300.7812,-1.6466,-4.9026,-1.7328,-0.6985,-1.8268,-0.9294,2.4459,1.7963,-6.7183,-2.5885,-8.3258,-7.9732,-5.4855,-2.1710,-7.8053,0.4163,0.2072,-6.2590,-1.8589
2304.6875,-1.6082,-3.2406,1.1258,1.1923,-1.1728,0.3730,4.3608,2.9749,-3.5672,-0.8753,-6.2029,-5.8045,-5.7591,-3.9939,-5.2422,0.4269,-0.6294,-2.6512,0.8612
2308.5938,-0.1296,-0.5525,4.2325,2.6695,-0.9548,1.8753,5.6953,3.4588,0.7124,1.8290,-2.4047,-3.2233,-4.6401,-5.3691,-1.8092,0.0144,-1.3797,1.5464,3.0916
2312.5000,2.4594,2.4609,6.7068,3.6730,-0.8267,3.3807,6.3097,3.3318,4.8917,5.0095,2.0543,-0.7848,-2.5502,-5.9455,1.4767,-0.5635,-1.9469,5.0468,4.4381
2316.4062,5.2266,4.8323,7.7274,4.2249,-0.4143,4.6114,6.0608,2.8274,7.7401,7.8335,5.9117,0.9564,-0.5483,-5.7125,3.7677,-0.9853,-2.3680,6.6599,4.7607
2320.3125,7.0061,5.6670,6.8377,4.2711,0.3727,5.2015,4.8398,2.1384,8.4454,9.3496,8.0270,1.6642,0.3771,-4.9214,4.6627,-0.9709,-2.6949,5.7977,4.1224
2324.2188,6.9336,4.5126,4.1712,3.6659,1.2524,4.7813,2.7157,1.3294,6.8676,8.8532,7.7866,1.3353,-0.0497,-3.8920,4.2489,-0.4054,-2.9100,2.7445,2.7201
2328.1250,4.8824,1.5958,0.4798,2.3265,1.7712,3.1607,0.0693,0.4105,3.5611,6.2631,5.3773,0.2539,-1.3087,-2.8684,2.9345,0.5732,-2.9649,-1.4470,0.8461
2332.0312,1.5515,-2.2047,-3.0969,0.4292,1.6510,0.5127,-2.4258,-0.5105,-0.4255,2.2684,1.7586,-1.1607,-2.5710,-1.9921,1.2148,1.6037,-2.8808,-5.3831,-1.1153
2335.9375,-1.8648,-5.6740,-5.4574,-1.5326,1.0330,-2.5850,-4.0267,-1.1532,-3.9008,-1.8962,-1.7099,-2.5028,-3.2941,-1.3334,-0.4875,2.2735,-2.7689,-7.8667,-2.6964
2339.8438,-4.2531,-7.7367,-5.9759,-2.9163,0.4356,-5.3219,-4.2440,-1.1640,-5.9209,-4.9739,-3.8404,-3.4539,-3.4218,-0.8887,-1.8628,2.3509,-2.7071,-8.2978,-3.4155
2343.7500,-5.0848,-7.8737,-4.7328,-3.2376,0.4476,-6.9740,-3.0721,-0.3426,-6.0857,-6.2334,-4.1073,-3.7953,-3.0874,-0.5320,-2.6958,1.9269,-2.5706,-6.7873,-2.9211
2347.6562,-4.5721,-6.2843,-2.4195,-2.4210,1.3552,-7.2003,-0.9811,1.1647,-4.6304,-5.7359,-2.8039,-3.4253,-2.1960,-0.0061,-2.8742,1.3568,-2.0060,-3.9897,-1.1611
2351.5625,-3.4251,-3.7309,0.0267,-0.8304,2.9439,-6.1576,1.3190,2.8571,-2.2756,-4.1866,-0.8002,-2.4090,-0.3692,0.9605,-2.4461,1.0317,-0.6443,-0.7807,1.5195
2355.4688,-2.3957,-1.1638,1.8531,0.9303,4.5908,-4.3798,3.1901,4.0805,0.1023,-2.4850,0.9381,-1.0179,2.6245,2.4381,-1.6618,1.1407,1.5640,2.0650,4.4384
2359.3750,-1.9029,0.6778,2.7582,2.3039,5.5733,-2.5087,4.2739,4.3226,1.8285,-1.2626,1.7874,0.3167,6.3329,4.1348,-0.9189,1.5917,4.1515,4.0810,6.7969
2363.2812,-1.9388,1.5084,2.8840,2.9726,5.3967,-1.0256,4.5124,3.4263,2.6519,-0.6643,1.6404,1.1558,9.5250,5.4456,-0.6014,2.1341,6.2717,5.1610,7.9684
2367.1875,-2.2452,1.5007,2.5891,2.8707,3.9652,-0.1142,4.0377,1.6152,2.7347,-0.4504,0.7836,1.2314,10.7489,5.7300,-0.9008,2.5613,7.1235,5.4727,7.7093
2371.0938,-2.5754,1.0931,2.1775,2.0735,1.5455,0.3126,3.0527,-0.6490,2.4452,-0.2852,-0.3777,0.5315,9.1903,4.6518,-1.7407,2.8111,6.3829,5.2935,6.1873
2375.0000,-2.8385,0.7209,1.7487,0.6921,-1.3940,0.4725,1.7794,-2.8628,2.0930,0.0082,-1.5419,-0.7679,5.1840,2.3582,-2.8574,2.8807,4.3439,4.8500,3.8319
2378.9062,-3.0509,0.6066,1.2300,-1.1372,-4.3459,0.5550,0.4581,-4.6229,1.7708,0.3789,-2.5644,-2.4547,-0.0162,-0.6156,-3.9723,2.6507,1.6871,4.2407,1.1173
2382.8125,-3.1876,0.6974,0.5247,-3.1948,-6.8570,0.6252,-0.6769,-5.6820,1.3891,0.6601,-3.3688,-4.3719,-5.0116,-3.6236,-4.9268,1.8157,-0.9301,3.4813,-1.5837
2386.7188,-3.0931,0.7598,-0.3477,-5.1507,-8.5691,0.6260,-1.4795,-5.9572,0.8564,0.7374,-3.8375,-6.3619,-8.9551,-6.1612,-5.6878,0.0517,-3.1471,2.6326,-4.0101
2390.6250,-2.5497,0.5707,-1.2144,-6.6445,-9.2592,0.4627,-1.9806,-5.5360,0.2624,0.6412,-3.7930,-8.1213,-11.6606,-7.9366,-6.2443,-2.6520,-4.8709,1.9058,-5.9335
2394.5312,-1.4583,0.0926,-1.8289,-7.4444,-8.9013,0.1126,-2.3855,-4.6778,-0.0822,0.5130,-3.0866,-9.1383,-13.1612,-8.7893,-6.5043,-5.7391,-6.0412,1.6391,-7.1025
2398.4375,0.0134,-0.4690,-2.0060,-7.5712,-7.7069,-0.3135,-2.9373,-3.7647,0.2042,0.4986,-1.7236,-8.8476,-13.2389,-8.6105,-6.2923,-8.1506,-6.4605,2.1248,-7.2932
2402.3438,1.4410,-0.7715,-1.7285,-7.2792,-6.0799,-0.6080,-3.7179,-3.1693,1.3221,0.6579,0.0713,-6.9607,-11.4502,-7.3914,-5.4575,-8.7525,-5.8771,3.3894,-6.4425
2406.2500,2.3292,-0.5490,-1.1686,-6.8878,-4.4694,-0.5946,-4.5334,-3.0806,3.1032,0.9488,1.9022,-3.7529,-7.6697,-5.3620,-4.0070,-6.9198,-4.2637,5.0935,-4.7562
2410.1562,2.3664,0.1938,-0.6146,-6.5703,-3.1806,-0.2663,-4.9935,-3.3881,5.0256,1.2782,3.3429,-0.0674,-2.6393,-3.0509,-2.1599,-2.9439,-2.0334,6.6587,-2.6829
2414.0625,1.5967,1.1418,-0.3390,-6.2460,-2.2544,0.1726,-4.7546,-3.7178,6.4452,1.5690,4.1000,3.0294,2.0736,-1.1264,-0.2819,1.9821,0.0391,7.5701,-0.7408
2417.9688,0.4114,1.8282,-0.4638,-5.6473,-1.4912,0.4223,-3.7623,-3.6233,6.9174,1.7998,4.1250,4.7569,4.8355,-0.0650,1.2509,6.2106,1.1857,7.6624,0.7030
2421.8750,-0.6306,1.9077,-0.8869,-4.5113,-0.6047,0.3051,-2.3190,-2.8309,6.4181,2.0026,3.6246,4.9750,4.9149,0.1311,2.1744,8.2969,1.0591,7.1869,1.5629
2425.7812,-1.0550,1.3722,-1.3116,-2.7652,0.5901,-0.0632,-0.9172,-1.3910,5.3298,2.2328,2.9641,4.1602,2.9189,-0.0643,2.3945,7.5592,-0.1023,6.6036,2.0006
2429.6875,-0.6768,0.5625,-1.3799,-0.5878,2.0678,-0.2987,0.0470,0.3545,4.1995,2.5292,2.4951,3.0330,0.3425,-0.0127,1.9878,4.3164,-1.6611,6.2411,2.2700
2433.5938,0.3326,-0.0390,-0.8567,1.6722,3.6121,0.0070,0.4831,1.9582,3.4200,2.8795,2.3782,2.1001,-1.4313,0.6670,1.1741,-0.2568,-2.9629,6.0700,2.5606
2437.5000,1.5351,-0.0996,0.2295,3.6495,4.9281,0.9736,0.6024,3.0828,3.0322,3.2042,2.4913,1.4112,-1.9226,1.8641,0.2704,-4.5672,-3.6395,5.7543,2.9389
2441.4062,2.4360,0.3833,1.5752,5.0839,5.7641,2.2871,0.7234,3.6159,2.7667,3.3767,2.4892,0.6601,-1.5847,3.0859,-0.3951,-7.1680,-3.6586,4.9413,3.3898
2445.3125,2.7240,1.1304,2.7389,5.8514,5.9722,3.3660,1.0433,3.6325,2.2873,3.2876,2.0130,-0.4835,-1.1634,3.8077,-0.6122,-7.2674,-3.1740,3.5704,3.8808
2449.2188,2.4339,1.8078,3.3529,5.9238,5.5031,3.7601,1.5325,3.2612,1.4630,2.9339,0.9454,-2.0659,-1.0019,3.7901,-0.4060,-5.0124,-2.3638,1.9689,4.3665
2453.1250,1.9389,2.2546,3.2827,5.3109,4.3733,3.5041,1.9983,2.5613,0.4805,2.4791,-0.4486,-3.7683,-0.8810,3.1433,-0.0482,-1.4300,-1.3976,0.6625,4.7300
2457.0312,1.7529,2.5381,2.6330,4.0364,2.6526,3.1409,2.2306,1.4922,-0.2864,2.2242,-1.6146,-5.0803,-0.4505,2.1372,0.0901,1.9852,-0.5012,0.0355,4.7379
2460.9375,2.2219,2.8010,1.6049,2.1545,0.4786,3.3482,2.1006,-0.0179,-0.5593,2.4731,-2.0210,-5.5912,0.2296,0.9542,-0.2160,3.8963,0.0288,0.0809,4.0964
2464.8438,3.2746,3.0372,0.3211,-0.2150,-1.9270,4.4026,1.5591,-1.9656,-0.3912,3.3511,-1.5164,-5.2165,0.5917,-0.3975,-0.8602,3.6902,-0.0483,0.4057,2.6124
2468.7500,4.3970,2.9951,-1.2356,-2.8561,-4.2735,5.8712,0.5865,-4.1999,-0.1771,4.6869,-0.4942,-4.2472,0.0167,-1.9621,-1.4317,1.7052,-0.7217,0.4724,0.3680
2472.6562,4.8855,2.3153,-3.1092,-5.4475,-6.2545,6.7974,-0.8056,-6.4251,-0.4159,6.0492,0.2747,-3.2230,-1.5842,-3.6441,-1.4628,-1.0033,-1.6505,-0.0951,-2.2279
2476.5625,4.2584,0.8214,-5.1635,-7.5840,-7.6156,6.3032,-2.4919,-8.2702,-1.3732,6.9402,0.0757,-2.7064,-3.6238,-5.1397,-0.7430,-3.2297,-2.3243,-1.3330,-4.5738
2480.4688,2.5800,-1.2544,-6.9645,-8.8455,-8.2062,4.2132,-4.1499,-9.3929,-2.8780,7.0380,-1.3072,-3.0550,-5.2894,-6.0676,0.5218,-4.1965,-2.3836,-2.9703,-6.1374
2484.3750,0.4805,-3.3056,-7.8950,-8.9226,-8.0038,1.2573,-5.3008,-9.5799,-4.4043,6.3418,-3.4260,-4.2763,-6.1949,-6.1949,1.8231,-3.8269,-1.8631,-4.6117,-6.6921
2488.2812,-1.1737,-4.6596,-7.4840,-7.7702,-7.1173,-1.3205,-5.5189,-8.8163,-5.3977,5.1313,-5.4010,-6.0203,-6.6338,-5.5820,2.6544,-2.5995,-1.1608,-5.9382,-6.3918
2492.1875,-1.7697,-4.9704,-5.7534,-5.7105,-5.7801,-2.5086,-4.7053,-7.3028,-5.6302,3.7776,-6.4163,-7.7238,-7.1913,-4.5456,2.7873,-1.1405,-0.7460,-6.8163,-5.6471
2496.0938,-1.2973,-4.4242,-3.3265,-3.3940,-4.3234,-2.1310,-3.2192,-5.4064,-5.3354,2.5446,-6.1662,-8.8496,-8.0673,-3.4935,2.3333,0.1441,-0.8326,-7.2857,-4.8918
2500.0000,-0.3269,-3.6013,-1.1714,-1.5794,-3.1109,-0.9021,-1.7267,-3.5500,-5.0178,1.5193,-4.9751,-9.1017,-8.7509,-2.7670,1.5818,1.1649,-1.2748,-7.4611,-4.3777
2503.9062,0.3700,-3.0709,-0.0903,-0.8092,-2.4336,0.0983,-0.8148,-2.0777,-5.0541,0.7065,-3.5275,-8.4909,-8.3916,-2.5762,0.7805,1.9744,-1.7496,-7.4128,-4.1014
2507.8125,0.3159,-2.9857,-0.2601,-1.1483,-2.4001,0.1593,-0.6132,-1.1569,-5.3626,0.1894,-2.4020,-7.2171,-6.5757,-3.0038,0.0436,2.5206,-2.0545,-7.0831,-3.8726
2511.7188,-0.3843,-2.9568,-1.1268,-2.1532,-2.8852,-0.6190,-0.6938,-0.7632,-5.3844,0.1990,-1.7229,-5.4680,-3.8182,-3.9943,-0.5635,2.5700,-2.2578,-6.2846,-3.4597
2515.6250,-1.1407,-2.3080,-1.7419,-3.1125,-3.5815,-1.4600,-0.3541,-0.7503,-4.4214,1.0012,-1.1487,-3.3138,-1.2899,-5.3008,-0.8905,1.8824,-2.5769,-4.8040,-2.7271
2519.5312,-1.2836,-0.5569,-1.3456,-3.4323,-4.1384,-1.5022,0.8819,-0.9492,-2.1291,2.6573,-0.1824,-0.8029,0.0391,-6.4678,-0.6981,0.5047,-3.1058,-2.5823,-1.7006
2523.4375,-0.5015,2.1870,0.1732,-2.9360,-4.3120,-0.4194,2.8772,-1.2246,1.1555,4.8319,1.4247,1.8176,0.1298,-6.9486,0.1653,-1.0631,-3.6470,0.1240,-0.5480
2527.3438,0.9685,5.1679,2.2300,-1.8964,-4.0370,1.3478,4.8887,-1.4562,4.4813,6.8224,3.4499,3.9871,-0.1537,-6.3601,1.5476,-2.0007,-3.8078,2.7291,0.5103
2531.2500,2.5003,7.3232,3.9338,-0.7959,-3.3883,2.8790,5.9880,-1.4856,6.7298,7.8479,5.2949,5.0107,0.1806,-4.7272,2.9549,-1.5648,-3.2911,4.5235,1.3146
2535.1562,3.4580,7.8235,4.6439,0.0074,-2.4770,3.3516,5.6341,-1.1083,7.1850,7.4560,6.3252,4.4945,1.3853,-2.5239,3.7922,0.4740,-2.1352,5.0312,1.8480
2539.0625,3.5395,6.5027,4.3255,0.4727,-1.3758,2.5127,4.0257,-0.1639,5.8925,5.8044,6.2298,2.7351,2.7574,-0.4378,3.7453,3.6252,-0.7061,4.3088,2.2337
2542.9688,2.8862,3.9397,3.4830,0.8065,-0.1315,0.7613,1.9980,1.3112,3.6055,3.6307,5.1857,0.7148,3.2551,1.0033,3.0220,6.8477,0.5494,2.9661,2.6338
2546.8750,1.9319,1.1644,2.7491,1.2063,1.1569,-1.1565,0.5302,2.9854,1.3712,1.9036,3.7515,-0.4013,2.4088,1.6871,2.2420,9.0209,1.3804,1.8431,3.1026
2550.7812,1.1303,-0.8353,2.4395,1.6350,2.2878,-2.5930,0.1804,4.2984,0.0122,1.3451,2.5783,0.0181,0.7393,1.8802,2.0286,9.4734,1.8298,1.5221,3.5006
2554.6875,0.7426,-1.5363,2.3886,1.8177,3.0120,-3.2922,0.8030,4.7095,-0.2012,2.0920,2.1131,1.6479,-0.6618,1.9544,2.5871,8.2889,2.1108,1.9967,3.5595
2558.5938,0.7840,-1.0329,2.1658,1.4724,3.1837,-3.3929,1.7103,4.0034,0.4560,3.6802,2.4425,3.4256,-1.0005,2.1104,3.5827,6.2282,2.4095,2.7371,3.0900
2562.5000,1.1005,0.1162,1.4893,0.6018,2.8968,-3.2147,2.1501,2.4640,1.4391,5.3387,3.3205,4.2999,-0.3281,2.3159,4.4037,4.3102,2.7931,3.1141,2.2005
2566.4062,1.4815,1.2215,0.5167,-0.3917,2.4798,-3.0157,1.7812,0.7810,2.2667,6.4051,4.3264,3.9752,0.6799,2.4649,4.6064,3.2766,3.2609,2.8747,1.3430
2570.3125,1.7316,1.7915,-0.2088,-0.8834,2.3134,-2.8734,0.8566,-0.2822,2.7120,6.6202,5.0518,3.0803,1.4481,2.5658,4.2041,3.2285,3.8172,2.3113,1.0941
2574.2188,1.6996,1.7060,-0.1174,-0.3977,2.5741,-2.7147,0.0294,-0.2735,2.7875,6.1579,5.2380,2.6104,2.0064,2.7469,3.5922,3.6334,4.4262,1.9927,1.7717
2578.1250,1.3092,1.1946,0.9864,1.0753,3.0899,-2.4139,-0.0607,0.7411,2.6048,5.4220,4.8318,3.0549,2.7782,3.0593,3.1928,3.6948,4.8670,2.2664,3.1435
2582.0312,0.6142,0.6730,2.7722,3.0418,3.4365,-1.8703,0.8485,2.2693,2.2521,4.7754,3.9700,3.9028,3.8682,3.2848,3.1135,2.8695,4.6734,2.9303,4.4713
2585.9375,-0.1561,0.5406,4.5849,4.7808,3.2358,-1.0323,2.5331,3.7132,1.7793,4.3781,2.9196,3.9584,4.5995,2.9907,3.0921,1.2258,3.3373,3.3515,4.9221
2589.8438,-0.6254,1.0257,5.8480,5.7555,2.4593,0.0989,4.4486,4.7025,1.2735,4.2078,1.9995,2.2822,3.8799,1.8683,2.7579,-0.5690,0.7344,2.9620,4.1098
2593.7500,-0.4063,2.1234,6.3811,5.8910,1.5094,1.4514,6.0277,5.2285,0.9266,4.1987,1.5021,-0.9353,1.2167,0.1093,1.9935,-1.6199,-2.5237,1.7581,2.4014
2597.6562,0.7104,3.6259,6.4193,5.5430,0.9941,2.8569,6.9171,5.5105,1.0106,4.3633,1.6271,-4.2517,-2.4869,-1.5255,1.1101,-1.2973,-5.1563,0.4058,0.7481
2601.5625,2.6219,5.2153,6.3522,5.1976,1.3245,4.0618,7.0472,5.7170,1.7506,4.7964,2.4394,-5.7574,-5.1741,-2.0882,0.7015,0.4497,-5.7859,-0.1536,0.1223
2605.4688,4.9323,6.5774,6.3959,5.1173,2.4072,4.8061,6.5509,5.7587,3.1717,5.5679,3.8568,-4.2534,-4.9219,-1.0569,1.2893,3.1255,-3.7192,0.6720,0.9227
2609.3750,7.1242,7.4936,6.4439,5.1753,3.6531,4.9460,5.6342,5.3139,5.0239,6.6020,5.6682,-0.0185,-1.3622,1.2633,3.0065,5.9956,0.5754,2.7121,2.7429
2613.2812,8.7829,7.8784,6.1877,4.9776,4.3157,4.5419,4.4906,4.0749,6.8392,7.6485,7.5759,5.3450,3.9013,3.8770,5.5143,8.4254,5.6447,5.1201,4.6583
2617.1875,9.7378,7.7531,5.3932,4.1756,3.9449,3.8424,3.2791,2.0396,8.1019,8.3777,9.2555,9.8476,8.2901,5.7020,8.1684,10.0374,9.7921,6.8803,5.8226
2621.0938,10.0446,7.1808,4.1091,2.7501,2.6588,3.1565,2.1312,-0.3636,8.4442,8.5364,10.4193,12.1729,9.9659,6.2163,10.2950,10.6545,11.9069,7.3735,5.9622
2625.0000,9.8468,6.2120,2.6590,1.0751,1.0592,2.6882,1.1429,-2.4242,7.7771,8.0572,10.8707,12.1898,8.9740,5.6893,11.4188,10.1908,11.8635,6.6317,5.4448
2628.9062,9.2350,4.8831,1.4399,-0.2728,-0.1427,2.4385,0.3536,-3.4923,6.3050,7.0564,10.5363,10.6959,6.9720,4.8591,11.3693,8.6673,10.3067,5.1732,4.9153
2632.8125,8.2152,3.2741,0.6948,-0.8349,-0.5373,2.2399,-0.2500,-3.3093,4.4293,5.7405,9.4651,8.7135,5.8147,4.3402,10.2814,6.3704,8.0775,3.6054,4.7905
2636.7188,6.8018,1.5756,0.4237,-0.5221,-0.2006,1.9008,-0.6796,-2.1272,2.5912,4.3042,7.8045,6.8884,6.1482,4.2256,8.5318,3.9710,5.7404,2.2995,4.9790
2640.6250,5.1460,0.0924,0.4702,0.3456,0.4367,1.3630,-0.8689,-0.5533,1.1146,2.8866,5.7636,5.3405,7.0973,4.1546,6.6150,2.3783,3.5028,1.3151,4.9969
2644.5312,3.5742,-0.8568,0.6774,1.2183,0.9102,0.7673,-0.6490,0.7727,0.1051,1.5915,3.5842,3.9044,7.1893,3.7256,4.9582,2.2915,1.4488,0.5270,4.3518
2648.4375,2.4709,-1.1117,0.9703,1.6014,0.9972,0.3800,0.1655,1.4745,-0.5627,0.5093,1.5170,2.4400,5.6578,2.8693,3.7213,3.6956,-0.2356,-0.2213,2.8972
2652.3438,2.0642,-0.8075,1.3092,1.2925,0.7784,0.4248,1.6045,1.5490,-1.1638,-0.3091,-0.2058,0.9485,3.0297,1.8760,2.7026,5.6827,-1.2976,-1.0579,0.9206
2656.2500,2.2556,-0.3664,1.5870,0.4612,0.4952,0.9252,3.3964,1.2669,-1.9778,-0.9192,-1.4182,-0.5084,0.5844,1.0961,1.4552,6.8210,-1.6672,-2.0946,-1.0499
2660.1562,2.6271,-0.3093,1.6027,-0.4462,0.3495,1.6566,4.9820,0.9652,-3.1379,-1.5135,-2.0804,-1.9014,-0.7521,0.6165,-0.4008,5.9169,-1.6438,-3.4041,-2.5406
2664.0625,2.6499,-0.9744,1.1725,-0.9160,0.4027,2.2415,5.7344,0.8762,-4.5449,-2.3411,-2.3191,-3.1984,-1.0867,0.2108,-2.8537,2.7098,-1.7825,-4.9230,-3.3224
2667.9688,1.9809,-2.3076,0.3057,-0.5933,0.6146,2.3359,5.2894,1.0739,-5.8942,-3.5292,-2.4046,-4.2589,-1.2816,-0.4098,-5.3991,-1.9601,-2.5255,-6.3661,-3.4188
2671.8750,0.6650,-3.8664,-0.7085,0.5597,0.9334,1.7985,3.7868,1.5184,-6.8101,-4.9165,-2.6474,-4.8390,-2.0694,-1.3032,-7.2774,-6.6246,-3.8770,-7.2892,-3.0055
2675.7812,-0.8883,-5.0523,-1.4146,2.2287,1.3192,0.7493,1.8494,2.1151,-7.0248,-6.0447,-3.2477,-4.7885,-3.4245,-2.2497,-7.9184,-9.9806,-5.4083,-7.3298,-2.3224
2679.6875,-2.1486,-5.4384,-1.4629,3.8436,1.6711,-0.5104,0.2758,2.7244,-6.5132,-6.3665,-4.1756,-4.2977,-4.7452,-3.0010,-7.2951,-11.4803,-6.6003,-6.4829,-1.6478
2683.5938,-2.7775,-4.9947,-0.8669,4.7768,1.7482,-1.6614,-0.3909,3.1356,-5.5124,-5.5751,-5.1615,-3.9266,-5.6028,-3.5801,-5.9273,-11.3728,-7.2357,-5.1905,-1.2849
2687.5000,-2.8171,-4.0772,-0.0602,4.5727,1.2096,-2.5120,-0.1629,3.0731,-4.4206,-3.8473,-5.8194,-4.2918,-6.2702,-4.3173,-4.5265,-10.2680,-7.5024,-4.1354,-1.4920
2691.4062,-2.6348,-3.2009,0.3097,3.1202,-0.1894,-3.0451,0.4095,2.2903,-3.6288,-1.8213,-5.8485,-5.5906,-7.4660,-5.5445,-3.5345,-8.6240,-7.7258,-3.8563,-2.3636
2695.3125,-2.6623,-2.7523,-0.2663,0.6935,-2.3595,-3.3578,0.5671,0.7286,-3.3681,-0.2878,-5.2018,-7.3477,-9.5292,-7.1956,-2.8881,-6.5487,-7.9821,-4.4501,-3.7545
2699.2188,-3.0977,-2.8218,-1.8691,-2.1582,-4.7904,-3.5540,-0.2135,-1.3661,-3.6366,0.2317,-4.1184,-8.6490,-11.8327,-8.6898,-2.1654,-4.0023,-7.9610,-5.5710,-5.3349
2703.1250,-3.7572,-3.2363,-4.0926,-4.8193,-6.7313,-3.6726,-1.9210,-3.4767,-4.2204,-0.2364,-2.9942,-8.7492,-13.0780,-9.2590,-0.9812,-1.1413,-7.2282,-6.7007,-6.7605
2707.0312,-4.1692,-3.7265,-6.2309,-6.8119,-7.5655,-3.6929,-4.0199,-5.0211,-4.7815,-1.1499,-2.1566,-7.6078,-12.3120,-8.5009,0.6803,1.5491,-5.6715,-7.4577,-7.8305
2710.9375,-3.8433,-4.0846,-7.5893,-7.9010,-7.1473,-3.5885,-5.7401,-5.6280,-4.9710,-1.7655,-1.6723,-5.9149,-9.7869,-6.7155,2.4392,3.4737,-3.7251,-7.7062,-8.5001
2714.8438,-2.5486,-4.2073,-7.7470,-8.0672,-5.8623,-3.3645,-6.4617,-5.3125,-4.5342,-1.5288,-1.3014,-4.5522,-6.8449,-4.7269,3.7963,4.3147,-2.1336,-7.4221,-8.7396
2718.7500,-0.4386,-4.0338,-6.6649,-7.4014,-4.3559,-3.0343,-5.9781,-4.4319,-3.3892,-0.3101,-0.6297,-3.8931,-4.8370,-3.3032,4.4831,4.2521,-1.4088,-6.5014,-8.3765
2722.6562,2.0284,-3.4815,-4.6362,-6.0139,-3.1055,-2.5648,-4.5241,-3.4433,-1.6632,1.6222,0.6906,-3.5042,-3.9707,-2.6210,4.6259,3.8289,-1.4181,-4.7469,-7.1003
2726.5625,4.3024,-2.4714,-2.1453,-4.0270,-2.1335,-1.8609,-2.6029,-2.6239,0.3336,3.8164,2.7228,-2.5091,-3.1148,-2.1999,4.6330,3.5727,-1.4607,-2.0885,-4.6803
2730.4688,5.9526,-1.0367,0.2942,-1.6401,-1.0654,-0.8441,-0.7432,-1.9405,2.2098,5.8631,5.1737,-0.3503,-0.8055,-1.3551,4.9219,3.6811,-0.7981,1.1565,-1.2514
2734.3750,6.7752,0.5937,2.2832,0.8152,0.5104,0.4126,0.6840,-1.1520,3.6471,7.4978,7.5099,2.6576,3.3549,0.2009,5.6933,4.0038,0.7733,4.2668,2.5760
2738.2812,6.7858,2.0457,3.6416,2.9161,2.6462,1.6048,1.5301,-0.0616,4.5438,8.5676,9.2029,5.4447,8.1147,2.0965,6.8686,4.2836,2.7640,6.4518,5.9246
2742.1875,6.1519,2.9900,4.4430,4.3016,4.8986,2.2798,1.8356,1.2733,5.0617,8.9623,9.9719,6.9186,11.3664,3.5875,8.1640,4.4093,4.3719,7.3398,8.0816
2746.0938,5.1291,3.3459,4.9439,4.8556,6.5678,2.0791,1.7508,2.5313,5.5251,8.6074,9.8925,6.7669,11.7192,4.1508,9.1980,4.4534,5.0873,7.2486,8.8684
2750.0000,4.0136,3.3323,5.4120,4.7891,7.1517,1.0016,1.4522,3.3272,6.2034,7.5319,9.3160,5.7096,9.5671,3.8969,9.5839,4.5013,5.0342,6.9865,8.6853
2753.9062,3.0848,3.2955,5.9256,4.5391,6.6950,-0.5101,1.0735,3.4693,7.0946,5.9314,8.6474,4.9904,6.7578,3.4691,9.0369,4.4859,4.7863,7.2835,8.1923
2757.8125,2.5204,3.4212,6.2728,4.5177,5.7758,-1.7628,0.6642,3.0801,7.8498,4.1384,8.1145,5.4666,5.1339,3.5129,7.5344,4.2346,4.8317,8.2481,7.8552
2761.7188,2.3155,3.5461,6.0472,4.8568,5.1243,-2.1962,0.1903,2.4854,7.9160,2.4901,7.6614,6.9578,5.1492,4.1439,5.4600,3.7100,5.1447,9.2545,7.6769
2765.6250,2.2746,3.2395,4.9197,5.3142,5.1258,-1.7162,-0.4102,1.9540,6.8428,1.1805,7.0256,8.3171,5.6857,4.8282,3.5751,3.2041,5.2146,9.3550,7.2922
2769.5312,2.1156,2.1317,2.9306,5.4127,5.5458,-0.7437,-1.1417,1.4889,4.5873,0.2047,5.9448,8.1678,5.1651,4.7575,2.7081,3.2409,4.4949,7.9288,6.3260
2773.4375,1.6419,0.2674,0.5995,4.7388,5.6690,0.0668,-1.8892,0.8352,1.6266,-0.5642,4.3609,5.7920,2.9604,3.4216,3.2622,4.1941,2.8888,5.1127,4.7309
2777.3438,0.8673,-1.7850,-1.2582,3.2176,4.7698,0.2532,-2.4385,-0.2866,-1.2114,-1.2350,2.4926,1.5944,-0.0966,0.9590,4.8540,5.9079,0.8748,1.7301,2.8547
2781.2500,-0.0101,-3.1881,-1.9342,1.1955,2.6126,-0.1786,-2.5850,-1.8914,-3.1297,-1.8085,0.7357,-3.1141,-2.4928,-1.9298,6.3994,7.6690,-0.8153,-1.1961,1.2126
2785.1562,-0.7804,-3.3240,-1.2235,-0.7235,-0.3361,-0.8213,-2.2729,-3.6033,-3.7510,-2.2057,-0.5393,-6.8131,-3.3493,-4.3857,6.6976,8.6165,-1.6877,-2.9870,0.1574
2789.0625,-1.4119,-2.2045,0.4279,-1.9863,-3.1160,-1.2157,-1.6640,-4.8086,-3.2958,-2.3758,-1.1659,-8.5044,-3.0960,-5.7987,5.1898,8.3106,-1.7580,-3.5607,-0.3046
2792.9688,-2.0933,-0.5262,2.1216,-2.3609,-4.7732,-1.2165,-1.0775,-5.0087,-2.4476,-2.3768,-1.2361,-8.0978,-2.9417,-5.9801,2.3753,7.0112,-1.4238,-3.3078,-0.4434
2796.8750,-3.0659,0.6867,2.9407,-2.0214,-4.8532,-1.0984,-0.8269,-4.1451,-1.9792,-2.3538,-1.0199,-6.3402,-3.6763,-5.0950,-0.4476,5.4221,-1.1005,-2.7726,-0.5775
2800.7812,-4.3537,0.6424,2.3802,-1.4162,-3.6106,-1.3250,-1.0560,-2.6816,-2.3537,-2.4336,-0.8263,-4.4181,-4.9333,-3.5117,-1.9923,4.0843,-0.9463,-2.4008,-0.8811
2804.6875,-5.6174,-0.7924,0.5485,-1.0168,-1.8370,-2.1614,-1.6823,-1.3774,-3.5145,-2.6361,-0.8970,-3.4529,-5.5942,-1.7059,-1.8106,2.9064,-0.8795,-2.4692,-1.3534
2808.5938,-6.2913,-3.0437,-1.9297,-1.0951,-0.4329,-3.4287,-2.4734,-0.8856,-4.9667,-2.8843,-1.3696,-4.0661,-4.9493,-0.2109,-0.5590,1.2382,-0.8069,-3.1165,-1.9190
2812.5000,-5.9587,-5.1617,-4.2189,-1.6329,0.0251,-4.5887,-3.1883,-1.4147,-6.0763,-3.1021,-2.2803,-6.1320,-3.5137,0.4868,0.4908,-1.5305,-0.8036,-4.3309,-2.5311
2816.4062,-4.7105,-6.3120,-5.6070,-2.3807,-0.5007,-5.0948,-3.6726,-2.6449,-6.3999,-3.2986,-3.5471,-8.8017,-2.6971,0.1382,0.3549,-5.2984,-1.0659,-5.8603,-3.1781
2820.3125,-3.1939,-6.1396,-5.7247,-3.0010,-1.5930,-4.7432,-3.8489,-3.9297,-5.8605,-3.5416,-4.9232,-10.8374,-3.5740,-1.1028,-0.9792,-9.0441,-1.6981,-7.1712,-3.8160
2824.2188,-2.2520,-4.8348,-4.6030,-3.2141,-2.6699,-3.7688,-3.6409,-4.6473,-4.6984,-3.8274,-5.9784,-11.1747,-5.8571,-2.7104,-2.5604,-11.2868,-2.5653,-7.6005,-4.3236
2828.1250,-2.3522,-2.9273,-2.6027,-2.8910,-3.2973,-2.6265,-2.9331,-4.4979,-3.2678,-3.9674,-6.1865,-9.4682,-8.0357,-4.0648,-3.1449,-10.9231,-3.3774,-6.6975,-4.5512
2832.0312,-3.1917,-0.9801,-0.2747,-2.0794,-3.3529,-1.6409,-1.6361,-3.5991,-1.8317,-3.6281,-5.1392,-6.3076,-8.6154,-4.8114,-2.0429,-7.8726,-3.9385,-4.5455,-4.4236
2835.9375,-3.7905,0.6344,1.8065,-0.9730,-2.9833,-0.7966,0.1745,-2.3628,-0.4811,-2.5482,-2.7938,-2.9257,-7.3813,-5.0314,0.4408,-3.1204,-4.3170,-1.8037,-3.9901
2839.8438,-3.0648,1.7931,3.2124,0.1600,-2.4184,0.1798,2.1651,-1.2501,0.7994,-0.7917,0.3984,-0.5258,-5.5483,-5.0778,3.2313,1.8198,-4.7531,0.6223,-3.3560
2843.7500,-0.5388,2.5476,3.7914,1.0722,-1.7835,1.5212,3.8097,-0.5478,2.0015,1.1689,3.6011,0.3708,-4.6326,-5.2006,5.1658,5.6189,-5.3624,2.0913,-2.5486
2847.6562,3.2679,3.0104,3.7061,1.6263,-1.0346,3.1420,4.6176,-0.2709,3.0128,2.6497,5.9149,0.1367,-5.0376,-5.2759,5.6429,7.5838,-5.9070,2.5719,-1.4606
2851.5625,7.0377,3.2720,3.3352,1.8364,-0.0497,4.5924,4.3959,-0.2139,3.6489,3.1330,6.7483,-0.3243,-5.6452,-4.8852,4.8407,7.6835,-5.8756,2.5774,0.0411
2855.4688,9.3231,3.3666,3.0634,1.8294,1.1970,5.2749,3.3687,-0.1048,3.7642,2.5695,6.0328,-0.2555,-4.8368,-3.6974,3.4474,6.3167,-4.8509,2.7368,1.8973
2859.3750,9.2696,3.2666,3.0615,1.7400,2.5110,4.7690,2.0581,0.2261,3.3471,1.3766,4.1714,0.4423,-2.0721,-1.8374,2.1646,4.0915,-2.8792,3.3164,3.7172
2863.2812,6.9692,2.8927,3.1857,1.6011,3.5061,3.0528,0.9904,0.7414,2.5245,0.1192,1.7802,1.2154,1.4020,0.0872,1.3308,1.7331,-0.5194,4.0335,4.8835
2867.1875,3.2915,2.1469,3.0676,1.3114,3.7896,0.5056,0.4114,1.2057,1.4739,-0.8969,-0.6005,1.3416,3.4401,1.3632,0.8502,0.0137,1.4997,4.2822,4.8911
2871.0938,-0.6181,0.9763,2.3532,0.7181,3.1967,-2.2636,0.1960,1.3031,0.3226,-1.8074,-2.6550,0.5142,2.8054,1.6724,0.3814,-0.4508,2.7591,3.5930,3.7109
2875.0000,-3.8106,-0.5500,0.9489,-0.2295,1.9240,-4.6288,0.0013,0.8091,-0.8788,-2.9923,-4.2544,-0.9047,0.3529,1.3192,-0.3888,0.4807,3.3892,1.9933,1.9071
2878.9062,-5.7204,-2.1987,-0.8750,-1.3682,0.4614,-6.0932,-0.4494,-0.2690,-2.0871,-4.6374,-5.3258,-2.1229,-1.5022,0.9937,-1.5425,2.2747,3.8762,0.0302,0.3844
2882.8125,-6.0866,-3.6125,-2.5919,-2.3501,-0.6511,-6.3578,-1.1507,-1.6643,-3.1660,-6.3974,-5.7700,-2.4484,-0.6841,1.2471,-2.8615,3.8911,4.5952,-1.5358,-0.1087
2886.7188,-4.8270,-4.4358,-3.6743,-2.8253,-1.1077,-5.3600,-1.8070,-2.9587,-3.8642,-7.4593,-5.5036,-1.7283,2.8107,2.0815,-3.8916,4.3196,5.4477,-2.1511,0.5842
2890.6250,-2.0695,-4.4687,-3.8507,-2.6748,-0.9923,-3.3131,-2.0327,-3.7793,-3.9279,-7.0201,-4.5791,-0.4258,6.7896,2.9615,-4.1261,3.1688,5.8903,-1.7495,1.9259
2894.5312,1.6732,-3.7651,-3.2239,-2.1320,-0.7146,-0.7083,-1.6164,-3.9765,-3.2982,-4.8763,-3.2675,0.6513,8.4736,3.2167,-3.2721,0.8852,5.3207,-0.7653,2.9753
2898.4375,5.4064,-2.6151,-2.1999,-1.6903,-0.7648,1.7866,-0.6769,-3.6807,-2.2523,-1.7065,-2.0148,0.7442,6.5296,2.5059,-1.4977,-1.5805,3.5092,0.0822,2.8840
2902.3438,7.8634,-1.4239,-1.2811,-1.8255,-1.4318,3.5426,0.3826,-3.2034,-1.3604,1.1892,-1.2861,-0.5742,1.9010,0.9973,0.5039,-3.4302,0.7526,0.1006,1.3104
2906.2500,8.0334,-0.5565,-0.8448,-2.6967,-2.6422,4.2096,1.0854,-2.8437,-1.2428,2.5648,-1.3947,-3.3067,-3.1422,-0.8277,1.7563,-4.5072,-2.3273,-1.0971,-1.4552
2910.1562,5.7300,-0.2339,-1.0140,-4.0186,-4.0007,3.8387,1.1209,-2.7213,-2.2507,1.9023,-2.4150,-7.0601,-6.8114,-2.5317,1.4933,-5.2523,-5.1328,-3.4327,-4.6681
2914.0625,1.8125,-0.5203,-1.6677,-5.2005,-4.9938,2.8000,0.4783,-2.7397,-4.2670,-0.3393,-4.2056,-11.1186,-8.8990,-3.9319,-0.3632,-6.1786,-7.3046,-6.3678,-7.4671
2917.9688,-2.1555,-1.3782,-2.5611,-5.6802,-5.2412,1.5452,-0.5855,-2.6957,-6.7551,-3.0492,-6.4884,-14.5716,-10.3389,-5.0272,-3.0790,-7.3065,-8.6836,-9.0910,-9.1956
2921.8750,-4.6685,-2.7233,-3.4763,-5.2547,-4.6675,0.3727,-1.7012,-2.4556,-9.0296,-5.1334,-8.9123,-16.5539,-11.8204,-5.7747,-5.4828,-8.0341,-9.1519,-10.8457,-9.5936
2925.7812,-5.0244,-4.4273,-4.3181,-4.2028,-3.5271,-0.6515,-2.5613,-2.0712,-10.5789,-6.0925,-11.0780,-16.5809,-12.8667,-5.9724,-6.6488,-7.5741,-8.5736,-11.2698,-8.8331
2929.6875,-3.6073,-6.2691,-5.1040,-3.1227,-2.2833,-1.5834,-3.0186,-1.7539,-11.2402,-6.1567,-12.5618,-14.8154,-12.2810,-5.3802,-6.4366,-5.6282,-6.9249,-10.5635,-7.4157
2933.5938,-1.5485,-7.8898,-5.8567,-2.5774,-1.4027,-2.4124,-3.0684,-1.7208,-11.1406,-5.9471,-12.9906,-12.0505,-9.5097,-3.9660,-5.5015,-2.7660,-4.4781,-9.3576,-5.9590
2937.5000,-0.0034,-8.8233,-6.4698,-2.7563,-1.1457,-2.9592,-2.7539,-2.0158,-10.4843,-5.9384,-12.1644,-9.3299,-5.5455,-2.0346,-4.7541,-0.1854,-1.8161,-8.3236,-4.9240
2941.4062,0.4934,-8.6298,-6.6421,-3.3456,-1.4337,-2.9450,-2.0719,-2.4260,-9.3645,-6.1094,-10.1593,-7.3847,-2.3707,-0.0904,-4.6575,1.0072,0.4111,-7.7511,-4.3782
2945.3125,0.2114,-7.0903,-5.9540,-3.6751,-1.8555,-2.1785,-0.9534,-2.5505,-7.7429,-5.9996,-7.3257,-6.2344,-1.3093,1.4684,-4.8861,0.5022,1.8342,-7.3656,-3.9259
2949.2188,-0.1068,-4.3640,-4.0764,-3.0544,-1.8291,-0.7118,0.6627,-1.9852,-5.5918,-5.0944,-4.1583,-5.2307,-1.7631,2.5702,-4.6110,-1.0022,2.5436,-6.5164,-2.8887
2953.1250,0.1866,-1.0036,-1.0088,-1.1126,-0.8724,1.1541,2.7113,-0.5150,-3.0593,-3.2427,-1.1052,-3.5302,-1.5828,3.4188,-3.1967,-2.2166,2.9442,-4.6134,-0.6865
2957.0312,1.2398,2.2087,2.8047,2.0245,1.1350,3.0166,4.9298,1.7876,-0.4945,-0.8082,1.5713,-0.6847,1.0929,4.2240,-0.7765,-2.0126,3.4003,-1.5192,2.7726
2960.9375,2.6972,4.5536,6.5834,5.7879,3.8408,4.5591,6.9067,4.5960,1.7135,1.5390,3.8079,3.0369,6.0745,4.9605,1.7442,-0.0341,3.9612,2.3559,6.9340
2964.8438,4.0359,5.6608,9.5196,9.3972,6.5448,5.6507,8.2474,7.4546,3.3710,3.2326,5.6480,6.7865,11.0313,5.3746,3.2724,3.1729,4.3880,6.2864,10.7901
2968.7500,4.9583,5.6502,11.1310,12.1420,8.5205,6.3099,8.7700,9.9175,4.6017,4.1363,7.1343,9.6068,13.2772,5.2367,3.2685,6.5165,4.4425,9.5951,13.3392
2972.6562,5.5501,5.0486,11.4516,13.5929,9.3674,6.5925,8.5985,11.6389,5.7408,4.5722,8.2713,10.9131,11.9719,4.6117,2.0982,8.9359,4.1725,11.8934,14.0509
2976.5625,6.1182,4.5180,10.9410,13.6757,9.1885,6.5064,8.0756,12.4065,7.0587,5.0492,9.0643,10.7154,8.8391,3.8992,0.7534,9.8658,3.9365,13.0879,13.0771
2980.4688,6.8596,4.5287,10.1677,12.6198,8.4825,6.0141,7.5317,12.1450,8.5096,5.8875,9.5687,9.5236,6.7345,3.5915,0.1704,9.3884,4.1433,13.2460,11.1121
2984.3750,7.6282,5.1390,9.4648,10.8316,7.8131,5.0992,7.0565,10.9240,9.6985,6.9902,9.8730,8.0709,7.2679,3.9405,0.6544,8.0686,4.9319,12.4981,9.0166
2988.2812,7.9792,5.9872,8.7772,8.7546,7.4648,3.8248,6.4383,8.9662,10.1026,7.9063,10.0088,7.0263,9.5388,4.8035,1.7975,6.6058,6.0647,11.0568,7.4383
2992.1875,7.4610,6.4909,7.7869,6.7522,7.3063,2.3349,5.3326,6.6296,9.3996,8.1326,9.8610,6.7752,11.0873,5.7776,2.8772,5.4824,7.1137,9.2681,6.6154
2996.0938,5.9487,6.1440,6.2158,5.0353,6.9417,0.8099,3.5604,4.3322,7.6749,7.4535,9.1727,7.2721,10.1979,6.4922,3.3730,4.7647,7.7599,7.5438,6.4005
3000.0000,3.7850,4.7625,4.0875,3.6407,6.0334,-0.5741,1.3305,2.4322,5.3683,6.1053,7.6794,7.9892,7.4626,6.8072,3.2045,4.1449,7.9421,6.1453,6.4141
3003.9062,1.6304,2.5712,1.7693,2.4678,4.5697,-1.6510,-0.7853,1.1179,3.0144,4.6667,5.3043,8.0480,5.1522,6.7756,2.5736,3.2083,7.7441,4.9797,6.2134
3007.8125,0.1223,0.1091,-0.2220,1.3671,2.8942,-2.2588,-2.1327,0.3728,0.9780,3.7522,2.2948,6.6042,4.9456,6.4564,1.6358,1.7838,7.1678,3.6360,5.4289
3011.7188,-0.4367,-1.9806,-1.5018,0.2549,1.4924,-2.2648,-2.3390,0.0460,-0.6245,3.6952,-0.7928,3.3826,6.1321,5.7948,0.3343,0.1547,6.0514,1.7324,3.8821
3015.6250,-0.1664,-3.1733,-1.9829,-0.7986,0.7006,-1.6373,-1.5205,-0.0122,-1.7831,4.4046,-3.2593,-0.9422,6.0761,4.7083,-1.4465,-1.0405,4.2527,-0.6358,1.6952
3019.5312,0.5655,-3.2151,-1.8243,-1.5604,0.5452,-0.5130,-0.1929,0.1631,-2.3836,5.4633,-4.4947,-4.8530,2.7084,3.2928,-3.5652,-1.1978,1.9466,-2.7128,-0.6591
3023.4375,1.4417,-2.1646,-1.2251,-1.7295,0.8082,0.8152,1.0559,0.6631,-2.1339,6.3948,-4.1728,-6.6673,-3.1455,1.9190,-5.4596,-0.1830,-0.2662,-3.3968,-2.4532
3027.3438,2.4052,-0.3349,-0.2419,-1.0982,1.2408,2.0232,1.9090,1.6047,-0.7279,6.9300,-2.3459,-5.4630,-7.8493,1.0670,-6.3332,1.5104,-1.6157,-1.9206,-2.9737
3031.2500,3.6317,1.8311,1.2246,0.3068,1.7411,2.9314,2.4609,2.9857,1.8595,7.1255,0.5674,-1.6712,-7.6829,0.9840,-5.5991,3.0363,-1.6521,1.5517,-1.8666
3035.1562,5.2926,3.9086,3.2643,2.1933,2.3610,3.6111,3.0787,4.6045,5.1760,7.2811,3.8837,3.1006,-2.0309,1.4460,-3.2705,3.7428,-0.6022,5.8612,0.6369
3039.0625,7.2864,5.6156,5.7508,4.1188,3.1556,4.3288,4.1031,6.1142,8.3833,7.7273,6.8323,6.9715,5.7720,1.8590,-0.0180,3.5974,0.7145,9.4315,3.7785
3042.9688,9.1548,6.8761,8.2647,5.6982,4.0227,5.3484,5.6014,7.1886,10.6248,8.6214,8.7903,8.8575,10.8866,1.6701,3.1480,3.1586,1.3957,11.1341,6.6182
3046.8750,10.2759,7.7925,10.2266,6.7805,4.6880,6.7173,7.3212,7.6946,11.4516,9.8677,9.5173,9.0121,10.8080,0.7936,5.3542,3.1047,1.0442,10.8765,8.4808
3050.7812,10.2360,8.5368,11.1634,7.4814,4.8673,8.1852,8.8395,7.7512,11.0323,11.1913,9.2766,8.6844,7.3540,-0.2857,6.2118,3.6838,0.0182,9.5303,9.2436
3054.6875,9.1316,9.2074,10.9347,8.0413,4.4857,9.3126,9.7732,7.6253,10.0009,12.2972,8.7338,9.1495,5.0075,-0.8343,5.8731,4.5358,-0.8278,8.2790,9.2937
3058.5938,7.5780,9.7273,9.7684,8.5921,3.7714,9.6978,9.9089,7.5248,9.0387,13.0075,8.6186,10.7889,6.9368,-0.3872,4.8469,5.0427,-0.7090,7.8466,9.1976
