Time,Fp1,F3,C3,P3,O1,F7,T3,T5,Fz,Fp2,F4,C4,P4,O2,F8,T4,T6,Cz,Pz
0.0000,0.2248,1.8057,1.9658,3.2628,2.4457,-1.3048,0.4149,2.9386,1.9392,0.5859,1.6431,1.2634,0.1813,2.7559,-0.8110,-0.4796,-0.0213,2.5829,1.4567
3.9062,-2.3320,0.0114,1.7902,3.0827,2.2473,-3.0362,-0.2795,2.7135,1.3298,-0.8442,1.2752,0.9097,0.9414,3.0175,-0.6835,-0.1259,0.4052,2.1491,2.3676
7.8125,-5.3217,-1.7849,1.7926,3.0299,1.9567,-4.6722,-0.9872,2.3976,1.1841,-2.2345,1.4321,1.0116,2.7233,3.5594,0.0669,0.8214,1.3257,1.7737,3.9156
11.7188,-7.5930,-2.6338,2.3004,3.3134,1.7698,-5.3123,-1.2963,2.0841,1.8926,-3.0317,2.4269,1.9200,5.6289,4.5428,1.4151,2.2783,2.6829,1.8669,6.0740
15.6250,-8.2356,-2.0134,3.4207,3.9346,1.8635,-4.4511,-0.8873,1.7766,3.3697,-3.0158,4.0534,3.5864,9.2027,5.9784,2.9109,3.8057,4.2031,2.6130,8.4932
19.5312,-7.1437,-0.2494,4.8582,4.5704,2.2419,-2.3839,0.2271,1.3427,4.9665,-2.4698,5.5641,5.4534,12.4763,7.5816,3.8582,4.7738,5.4617,3.7554,10.5298
23.4375,-5.1394,1.5696,5.9584,4.6518,2.6721,-0.1580,1.6092,0.5893,5.7422,-2.0450,6.0143,6.6358,14.3199,8.7650,3.6915,4.6731,6.0216,4.6487,11.4523
27.3438,-3.5626,2.1600,5.9888,3.6283,2.7763,0.9451,2.5402,-0.5761,4.9579,-2.4075,4.7739,6.3060,13.9314,8.8269,2.3058,3.3799,5.5880,4.5710,10.7374
31.2500,-3.5687,0.7498,4.5158,1.2801,2.2380,0.1017,2.3535,-2.0185,2.4927,-3.8904,1.8785,4.0685,11.1995,7.2703,0.1103,1.2083,4.1149,3.1075,8.2971
35.1562,-5.5460,-2.5098,1.6612,-2.1106,0.9955,-2.6018,0.7864,-3.3975,-1.0772,-6.3568,-1.9999,0.1253,6.7388,4.0828,-2.2338,-1.2831,1.8249,0.3684,4.5153
39.0625,-8.9661,-6.6597,-1.9133,-5.8429,-0.7091,-6.2191,-1.8448,-4.3555,-4.7825,-9.3168,-5.9235,-4.8207,1.5896,-0.1948,-4.2060,-3.5862,-0.8629,-3.0829,0.0818
42.9688,-12.7029,-10.4621,-5.2952,-9.1072,-2.4699,-9.4417,-4.7546,-4.7586,-7.7490,-12.1769,-9.1357,-9.8237,-3.2322,-4.6743,-5.6665,-5.4419,-3.4631,-6.5225,-4.2757
46.8750,-15.5838,-12.9929,-7.7314,-11.3569,-3.9581,-11.2297,-7.0325,-4.8202,-9.5680,-14.4492,-11.3015,-13.9602,-7.0840,-8.4986,-6.7834,-6.8245,-5.5630,-9.3841,-8.0171
50.7812,-16.8601,-13.9613,-8.9473,-12.5459,-5.1114,-11.2175,-8.0475,-5.0027,-10.3538,-15.8254,-12.4472,-16.5124,-9.7871,-11.1896,-7.7279,-7.7700,-6.9198,-11.4228,-10.8864
54.6875,-16.3919,-13.6483,-9.2217,-13.1094,-6.1454,-9.7233,-7.7068,-5.7412,-10.5126,-16.1564,-12.7353,-17.0884,-11.4806,-12.7767,-8.4051,-8.2233,-7.4910,-12.6801,-12.8810
58.5938,-14.5512,-12.6053,-9.1942,-13.7094,-7.3833,-7.4475,-6.4502,-7.1641,-10.4249,-15.4351,-12.3063,-15.7285,-12.3964,-13.6576,-8.4554,-8.0526,-7.4017,-13.3404,-14.1627
62.5000,-11.9774,-11.3520,-9.5123,-14.8794,-9.0142,-5.0984,-4.9975,-8.9951,-10.2552,-13.8301,-11.3043,-12.9810,-12.7206,-14.2961,-7.5452,-7.2243,-6.8772,-13.6033,-14.9661
66.4062,-9.3332,-10.2269,-10.4918,-16.7439,-10.9364,-3.1549,-3.9907,-10.7033,-9.9669,-11.7145,-10.0031,-9.8445,-12.5995,-14.9468,-5.7184,-5.9800,-6.1744,-13.6336,-15.5191
70.3125,-7.1289,-9.3788,-11.9449,-18.9365,-12.7794,-1.8230,-3.7093,-11.8006,-9.4620,-9.5929,-8.8375,-7.4777,-12.2187,-15.5552,-3.5129,-4.8300,-5.5314,-13.5537,-15.9542
74.2188,-5.6182,-8.8037,-13.2509,-20.7441,-14.0819,-1.1106,-3.9844,-12.0947,-8.7015,-7.9018,-8.2314,-6.7178,-11.8317,-15.8531,-1.7148,-4.3109,-5.1307,-13.4165,-16.2165
78.1250,-4.7613,-8.3614,-13.6397,-21.4055,-14.5096,-0.9090,-4.3357,-11.7406,-7.7260,-6.7882,-8.3173,-7.6323,-11.6667,-15.5520,-0.8991,-4.6475,-5.0613,-13.1484,-16.0209
82.0312,-4.2726,-7.8000,-12.5623,-20.4324,-13.9855,-1.0336,-4.2447,-11.0797,-6.6068,-6.0339,-8.7826,-9.3963,-11.7558,-14.4964,-1.0804,-5.5549,-5.2740,-12.5215,-14.9280
85.9375,-3.7674,-6.8491,-9.9787,-17.8176,-12.6705,-1.2480,-3.4235,-10.3912,-5.4087,-5.2159,-9.0095,-10.6428,-11.8085,-12.6968,-1.7250,-6.3413,-5.5503,-11.2258,-12.5483
89.8438,-2.9610,-5.3803,-6.4184,-14.0382,-10.8299,-1.3096,-1.9490,-9.7266,-4.2031,-4.0159,-8.4523,-10.1488,-11.2457,-10.2607,-2.1099,-6.2677,-5.5222,-9.0395,-8.7893
93.7500,-1.8146,-3.5332,-2.7706,-9.8520,-8.6818,-1.0374,-0.2079,-8.9180,-3.0923,-2.4576,-6.9883,-7.4787,-9.4159,-7.3066,-1.7673,-4.9426,-4.7722,-6.0018,-3.9975
97.6562,-0.5290,-1.6899,0.1037,-5.9794,-6.3221,-0.3633,1.3051,-7.7300,-2.1822,-0.8850,-4.9756,-3.2086,-5.9086,-3.9393,-0.7005,-2.5076,-3.0011,-2.4678,1.1129
101.5625,0.6166,-0.2786,1.7420,-2.8269,-3.7598,0.6630,2.2204,-6.0371,-1.5010,0.3139,-2.9739,1.3934,-0.8168,-0.3017,0.7456,0.4773,-0.2000,1.0037,5.7234
105.4688,1.4644,0.4724,2.2352,-0.3931,-1.0281,1.9019,2.4324,-3.9141,-0.9442,1.0269,-1.3485,5.0166,5.1807,3.3523,2.2083,3.3387,3.2610,3.8583,9.2203
109.3750,2.0630,0.6471,2.0902,1.5973,1.7077,3.1474,2.0827,-1.6063,-0.3377,1.5171,-0.0748,6.8852,10.9683,6.6407,3.5388,5.5679,6.6907,5.7214,11.3717
113.2812,2.5704,0.5330,1.8907,3.4190,4.1256,4.1353,1.4249,0.5794,0.3905,2.2013,1.1065,6.9553,15.3300,9.1313,4.7660,6.9147,9.2832,6.4516,12.2923
117.1875,3.0615,0.3796,1.9675,5.1067,5.8372,4.5739,0.6767,2.3869,1.0627,3.2678,2.3272,5.7089,17.3509,10.4893,5.8627,7.3092,10.3952,6.0950,12.2594
121.0938,3.4154,0.2250,2.2734,6.4041,6.5595,4.2472,-0.0380,3.6775,1.2935,4.4419,3.3509,3.7851,16.7352,10.6136,6.5723,6.7529,9.7798,4.8330,11.5333
125.0000,3.4029,-0.0664,2.5100,6.9316,6.2763,3.1742,-0.6377,4.4411,0.7568,5.1201,3.6843,1.7273,13.9128,9.6832,6.5005,5.3120,7.6772,2.9843,10.2962
128.9062,2.9178,-0.5939,2.3848,6.4530,5.2880,1.7166,-0.9981,4.7664,-0.4856,4.8100,2.9801,-0.0462,9.8803,8.0772,5.4444,3.2194,4.7234,1.0235,8.7031
132.8125,2.1583,-1.2375,1.8009,5.0515,4.0907,0.5055,-0.9420,4.7831,-1.8667,3.5618,1.4060,-1.1688,5.8284,6.2066,3.6952,0.9572,1.7196,-0.4914,6.9393
136.7188,1.5749,-1.6837,0.8590,3.0953,3.1266,0.1526,-0.3501,4.5911,-2.5699,2.0471,-0.3443,-1.3405,2.7045,4.3420,2.0263,-0.8183,-0.6429,-1.1293,5.1908
140.6250,1.5829,-1.6638,-0.2882,1.0247,2.5358,0.8853,0.6768,4.1983,-2.0461,1.1853,-1.4469,-0.4933,0.8999,2.5287,1.3042,-1.5324,-1.9944,-0.8438,3.5396
144.5312,2.2413,-1.2081,-1.5702,-0.8777,2.0664,2.3525,1.7504,3.5101,-0.4400,1.5518,-1.4705,1.0375,0.1979,0.6325,1.9566,-0.9861,-2.3589,-0.0778,1.8938
148.4375,3.1604,-0.6793,-2.9910,-2.5684,1.2225,3.7793,2.3276,2.3955,1.4159,2.9823,-0.6312,2.5485,-0.0077,-1.5151,3.6751,0.5128,-2.0726,0.4317,0.0554
152.3438,3.7449,-0.5233,-4.4888,-4.1347,-0.4160,4.4207,2.0050,0.8125,2.5004,4.6640,0.4162,3.2850,-0.3577,-3.9614,5.5848,2.2923,-1.5954,0.0879,-2.0900
156.2500,3.6176,-0.9174,-5.8160,-5.6062,-2.8937,4.0329,0.7936,-1.0852,2.2810,5.6622,1.0774,2.8609,-1.2300,-6.5646,6.7797,3.6597,-1.3039,-1.1615,-4.4070
160.1562,2.9084,-1.6086,-6.5953,-6.8558,-5.7997,3.0323,-0.8338,-2.9474,1.0903,5.5202,1.2084,1.4745,-2.6458,-9.0556,6.8585,4.2340,-1.3591,-2.7545,-6.5282
164.0625,2.1720,-2.1010,-6.5615,-7.6745,-8.4753,2.2077,-2.1935,-4.3650,-0.1013,4.5189,1.0924,-0.2665,-4.3810,-11.1866,6.0940,4.0692,-1.7022,-3.8732,-8.0790
167.9688,1.9701,-2.0665,-5.8172,-7.9490,-10.3792,2.1682,-2.7997,-5.0755,-0.3841,3.4309,1.0480,-1.7978,-6.1624,-12.8574,5.1400,3.5217,-2.1622,-4.0096,-8.9496
171.8750,2.4214,-1.6529,-4.8700,-7.7731,-11.3634,2.9099,-2.6600,-5.1028,0.4107,2.9603,1.0299,-2.9781,-7.7897,-14.1201,4.5192,2.9851,-2.5980,-3.3350,-9.3820
175.7812,3.0647,-1.4197,-4.3594,-7.3775,-11.6606,3.8125,-2.2451,-4.7267,1.5524,3.2740,0.5989,-4.0860,-9.1112,-15.0475,4.2814,2.6850,-2.9762,-2.5818,-9.7601
179.6875,3.1593,-1.9217,-4.6273,-6.9212,-11.5940,4.0700,-2.1421,-4.2897,1.9125,3.9405,-0.6712,-5.4257,-9.9135,-15.5539,4.0738,2.6469,-3.3279,-2.4987,-10.2333
183.5938,2.2194,-3.2502,-5.4410,-6.3287,-11.2326,3.2459,-2.6333,-3.9745,0.7838,4.2907,-2.6691,-6.8702,-9.8586,-15.3152,3.5399,2.8060,-3.6178,-3.2683,-10.4736
187.5000,0.3927,-4.8988,-6.1081,-5.3367,-10.2735,1.5566,-3.4989,-3.7105,-1.5664,3.9144,-4.5681,-7.7497,-8.5678,-13.8829,2.7118,3.1273,-3.6307,-4.3302,-9.8032
191.4062,-1.6018,-6.0802,-5.9445,-3.7510,-8.2759,-0.3065,-4.1879,-3.2770,-4.0124,2.9344,-5.2218,-7.2365,-5.8268,-10.9569,2.0732,3.6298,-2.9894,-4.7651,-7.6648
195.3125,-2.9431,-6.2686,-4.7800,-1.7164,-5.0998,-1.6605,-4.2268,-2.5193,-5.2783,1.8830,-3.9134,-4.9718,-1.7804,-6.6556,2.2285,4.3141,-1.3367,-3.9751,-4.1158
199.2188,-3.2536,-5.5567,-3.1259,0.2448,-1.2172,-2.2537,-3.5623,-1.5051,-4.7463,1.2985,-0.9314,-1.4473,3.0265,-1.6004,3.4199,5.0858,1.4023,-2.1562,0.0334
203.1250,-2.8322,-4.5577,-1.8510,1.5133,2.3789,-2.3279,-2.5831,-0.4934,-2.8161,1.3439,2.4747,2.1848,7.8025,3.2717,5.2518,5.7629,4.8449,-0.2021,3.5946
207.0312,-2.4137,-3.9320,-1.5727,1.8046,4.6680,-2.3155,-1.8123,0.2614,-0.6009,1.7086,4.7776,4.7750,11.7721,7.0770,6.8380,6.1704,8.2021,0.9035,5.6722
210.9375,-2.6334,-3.9133,-2.1954,1.4282,5.1969,-2.4445,-1.5156,0.7102,0.7855,1.8354,5.0523,5.8307,14.3950,9.3283,7.2869,6.2346,10.5692,0.7651,6.1716
214.8438,-3.5754,-4.1984,-2.9417,1.1411,4.3676,-2.5720,-1.5281,1.0423,0.8452,1.2947,3.4713,5.6770,15.4441,10.0583,6.2080,5.9864,11.3152,-0.1786,5.7816
218.7500,-4.7133,-4.2685,-2.8774,1.6477,3.2016,-2.3604,-1.4324,1.5114,-0.1664,0.0538,1.1019,5.0145,14.9513,9.6741,3.9233,5.4686,10.3567,-1.0179,5.4322
222.6562,-5.2696,-3.8635,-1.5716,3.0801,2.7156,-1.6250,-0.9386,2.1850,-1.5841,-1.5140,-0.8197,4.2456,13.1170,8.6632,1.2699,4.6392,8.1613,-1.0679,5.6142
226.5625,-4.7366,-3.2143,0.5725,4.8397,3.3162,-0.5485,-0.1598,2.8224,-2.8321,-2.8511,-1.6232,3.1289,10.2658,7.3495,-0.8546,3.3840,5.4826,-0.3783,6.0497
230.4688,-3.2128,-2.8449,2.5503,5.9443,4.6091,0.4187,0.4463,2.9971,-3.7089,-3.5130,-1.4795,1.0625,6.8466,5.8343,-1.9217,1.6577,2.9870,0.3175,5.9492
234.3750,-1.3561,-3.1146,3.3931,5.6638,5.7273,0.8898,0.4323,2.3882,-4.3210,-3.3746,-1.1055,-2.2218,3.4026,4.1039,-1.9486,-0.3515,0.9857,0.1559,4.6575
238.2812,-0.0080,-3.8826,2.7697,4.0032,5.9260,0.8337,-0.2590,1.0239,-4.8228,-2.6613,-1.1834,-6.1303,0.4488,2.1749,-1.3762,-2.1934,-0.5972,-1.2224,2.2059
242.1875,0.2663,-4.5783,1.1590,1.6913,5.0223,0.5953,-1.1904,-0.7147,-5.2308,-1.8201,-1.9229,-9.3313,-1.7125,0.1454,-0.7708,-3.3406,-2.0398,-3.4258,-0.6340
246.0938,-0.5326,-4.6187,-0.4936,-0.3223,3.3987,0.6391,-1.6935,-2.3450,-5.4503,-1.3044,-3.0146,-10.5167,-3.1168,-1.8673,-0.5275,-3.4967,-3.5660,-5.6047,-2.8320
250.0000,-1.8421,-3.8348,-1.3664,-1.5037,1.6195,1.2302,-1.3133,-3.6074,-5.4243,-1.3567,-3.9080,-9.2764,-4.0869,-3.8150,-0.7068,-2.8181,-5.1750,-7.0323,-3.7577
253.9062,-2.7931,-2.5582,-1.1976,-2.0541,-0.0131,2.3001,-0.1121,-4.6186,-5.2072,-1.8704,-4.1457,-6.4318,-5.0015,-5.7220,-1.0411,-1.8674,-6.6370,-7.5261,-3.5463
257.8125,-2.5804,-1.3073,-0.3185,-2.6941,-1.6234,3.5752,1.3787,-5.7354,-4.8660,-2.3967,-3.5306,-3.5533,-6.0262,-7.5871,-1.0820,-1.2946,-7.6212,-7.4246,-2.9380
261.7188,-0.8009,-0.3461,0.6611,-4.0839,-3.5439,4.8226,2.5101,-7.2289,-4.3157,-2.3313,-2.1062,-1.9862,-7.0024,-9.2793,-0.4294,-1.4430,-7.8606,-7.2018,-2.7484
265.6250,2.3454,0.5025,1.2396,-6.3086,-5.9164,5.9798,2.9026,-9.0189,-3.2980,-1.2348,-0.0885,-2.0764,-7.5932,-10.5541,1.0345,-2.1470,-7.2695,-7.0750,-3.3770
269.5312,6.0602,1.6193,1.2198,-8.7936,-8.4455,7.0615,2.6023,-10.6702,-1.6056,0.8552,2.1362,-3.1279,-7.5951,-11.2204,3.0024,-2.8698,-5.9846,-6.9259,-4.6872
273.4375,9.1816,3.1209,0.6512,-10.6931,-10.5053,7.9495,1.9311,-11.6615,0.5877,3.3119,3.9808,-4.0769,-7.1804,-11.3381,4.7861,-3.0895,-4.3382,-6.5660,-6.2708
277.3438,10.6084,4.5644,-0.3434,-11.4483,-11.5168,8.2992,1.1918,-11.7250,2.5843,5.1316,4.7442,-4.3325,-6.8569,-11.2585,5.5829,-2.6633,-2.7770,-6.0693,-7.8138
281.2500,9.7699,5.1161,-1.6660,-11.1046,-11.3014,7.7051,0.4717,-11.0058,3.4118,5.4201,3.8990,-4.1389,-7.1264,-11.4069,4.8813,-1.9074,-1.7261,-5.8371,-9.2357
285.1562,6.9295,4.1088,-3.1942,-10.1738,-10.1432,6.0406,-0.3177,-9.9229,2.3817,3.9096,1.4650,-4.2120,-8.0521,-11.9112,2.8032,-1.3325,-1.4136,-6.2926,-10.5056
289.0625,3.1340,1.5918,-4.6783,-9.1715,-8.5209,3.7050,-1.2386,-8.8403,-0.3976,1.1948,-1.8018,-4.9773,-9.0440,-12.3363,0.1624,-1.2257,-1.7125,-7.4356,-11.3403
292.9688,-0.2186,-1.5498,-5.7320,-8.1927,-6.7297,1.5402,-2.1611,-7.7961,-3.9314,-1.4956,-4.6284,-6.0458,-9.0581,-11.7703,-1.8577,-1.3879,-2.1021,-8.6373,-11.1097
296.8750,-2.0061,-4.0297,-5.9760,-6.8441,-4.6896,0.4083,-2.7862,-6.4962,-6.7878,-2.9086,-5.8135,-6.3675,-7.1355,-9.2867,-2.2819,-1.2322,-1.8254,-8.9007,-9.1145
300.7812,-1.8794,-4.8740,-5.2433,-4.5800,-2.0895,0.6856,-2.8379,-4.5802,-7.8352,-2.4264,-4.8678,-4.9678,-2.9777,-4.5415,-0.8733,-0.1944,-0.2232,-7.4584,-5.0829
304.6875,-0.3553,-3.9427,-3.6857,-1.1877,1.2452,2.0149,-2.2615,-1.9668,-6.8125,-0.3926,-2.3002,-1.7141,2.7920,1.8688,1.7006,1.8236,2.9021,-4.3059,0.4747
308.5938,1.5436,-1.9308,-1.6945,2.9246,5.0456,3.4979,-1.2656,0.9732,-4.3911,2.0931,0.6512,2.4688,8.8438,8.5440,4.1870,4.2881,7.0968,-0.2898,6.3493
312.5000,2.8812,0.1090,0.3019,6.8404,8.5922,4.2138,-0.1788,3.5484,-1.7284,3.7924,2.6906,6.1028,13.7111,13.8632,5.3937,6.2776,11.3771,3.3225,11.1479
316.4062,3.2793,1.3678,2.0089,9.5678,11.0293,3.7333,0.7530,5.1027,0.1652,3.9925,3.1281,8.0225,16.3894,16.6880,4.8032,6.9910,14.6215,5.5112,13.9270
320.3125,3.0044,1.6159,3.2899,10.5133,11.7977,2.3100,1.4670,5.3656,0.8514,2.8347,2.1453,7.9993,16.6471,16.7836,2.8126,6.2010,16.0304,5.9756,14.5467
324.2188,2.6611,1.1216,4.0683,9.7166,10.9036,0.6595,2.0178,4.5765,0.4809,1.1440,0.5518,6.7252,14.9302,14.7477,0.4758,4.3713,15.4041,5.1400,13.5519
328.1250,2.7276,0.3126,4.2412,7.7474,8.8641,-0.4934,2.4276,3.3158,-0.4969,-0.0972,-0.7525,5.2325,11.9903,11.5457,-1.0812,2.3807,13.1033,3.7568,11.7121
332.0312,3.2491,-0.5175,3.7157,5.3782,6.3863,-0.7945,2.6007,2.1617,-1.6584,-0.2898,-1.2448,4.2104,8.5006,7.9781,-1.2294,1.0469,9.7633,2.4337,9.5625
335.9375,3.8684,-1.2585,2.5536,3.2457,3.9942,-0.3517,2.3837,1.3897,-2.7449,0.5373,-0.9236,3.6936,4.8752,4.3992,-0.0823,0.7493,5.9734,1.4060,7.2469
339.8438,4.1361,-1.8348,1.0824,1.6691,1.8268,0.4557,1.7192,0.8832,-3.6006,1.8756,-0.1314,3.2707,1.3350,0.8009,1.6755,1.3542,2.1286,0.6449,4.7052
343.7500,3.8593,-2.0650,-0.1687,0.6551,-0.3049,1.2640,0.7535,0.2824,-4.0619,3.1196,0.7396,2.5689,-1.9094,-2.8808,3.2235,2.4294,-1.4927,0.1255,1.9942
347.6562,3.2443,-1.7067,-0.7167,0.0172,-2.6744,1.8980,-0.2038,-0.7427,-3.9548,3.9103,1.4362,1.6081,-4.5376,-6.4961,4.0242,3.5533,-4.5569,-0.0212,-0.5423
351.5625,2.7438,-0.6695,-0.4056,-0.4910,-5.3793,2.3443,-0.8451,-2.2672,-3.2207,4.2332,1.8525,0.7746,-6.1678,-9.6386,3.9994,4.5004,-6.6072,0.3894,-2.3972
355.4688,2.7291,0.7896,0.4831,-1.0795,-8.2126,2.6057,-1.0331,-4.0539,-2.0484,4.2627,1.9420,0.4867,-6.5384,-11.8320,3.4180,5.2114,-7.2122,1.3370,-3.2175
359.3750,3.2121,2.0835,1.3821,-1.8660,-10.7209,2.5907,-0.8514,-5.6765,-0.8692,4.1149,1.6633,0.8453,-5.6932,-12.7862,2.6276,5.6373,-6.2527,2.4262,-3.0712
363.2812,3.8040,2.5626,1.7593,-2.8465,-12.4005,2.1430,-0.5184,-6.7321,-0.1802,3.7124,1.0150,1.5332,-4.0374,-12.5442,1.8281,5.6284,-4.1348,2.9896,-2.4606
367.1875,3.9320,1.8737,1.3930,-3.8958,-12.9216,1.1852,-0.2512,-7.0193,-0.3003,2.8560,0.0977,2.0077,-2.2195,-11.4393,1.0204,4.9838,-1.7312,2.4375,-2.0640
371.0938,3.1755,0.1735,0.4287,-4.8066,-12.2699,-0.1454,-0.1834,-6.5895,-1.2192,1.4345,-0.8926,1.8166,-0.8924,-9.9188,0.1193,3.6280,-0.0259,0.6307,-2.3685
375.0000,1.5133,-1.9455,-0.7857,-5.3663,-10.7384,-1.4926,-0.3721,-5.6650,-2.6213,-0.3992,-1.7651,0.8184,-0.4683,-8.3602,-0.8883,1.7649,0.3580,-1.9810,-3.4209
378.9062,-0.6590,-3.7644,-1.9363,-5.4353,-8.7768,-2.4379,-0.8349,-4.4907,-4.0497,-2.2343,-2.4535,-0.7950,-0.9744,-6.9735,-1.8741,-0.1346,-0.5281,-4.5551,-4.8278
382.8125,-2.7450,-4.7898,-2.8712,-4.9921,-6.7742,-2.7304,-1.5420,-3.2212,-5.0932,-3.6055,-3.0465,-2.6210,-2.0609,-5.8069,-2.6378,-1.5379,-1.9978,-6.2715,-5.9829
386.7188,-4.2611,-4.9471,-3.5593,-4.1289,-4.8959,-2.4465,-2.3565,-1.9118,-5.5049,-4.2680,-3.6880,-4.1977,-3.1452,-4.8049,-3.0560,-2.1266,-3.1036,-6.7162,-6.3742
390.6250,-5.0679,-4.5403,-3.9678,-3.0202,-3.0712,-1.9732,-3.0025,-0.6101,-5.2357,-4.3630,-4.4242,-5.1196,-3.6302,-3.8628,-3.1903,-1.9638,-3.1250,-6.0246,-5.8097
394.5312,-5.3957,-4.0431,-4.0025,-1.8923,-1.1448,-1.8124,-3.1480,0.5322,-4.4220,-4.3548,-5.1275,-5.1327,-3.1093,-2.8547,-3.2677,-1.4422,-1.8893,-4.7347,-4.4642
398.4375,-5.6632,-3.8615,-3.5778,-0.9926,0.9124,-2.3150,-2.5982,1.2353,-3.3531,-4.7661,-5.5696,-4.2302,-1.4828,-1.6420,-3.5372,-1.0451,0.2440,-3.4736,-2.7488
402.3438,-6.2055,-4.1785,-2.7447,-0.5294,2.8925,-3.4923,-1.4740,1.2090,-2.4018,-5.8623,-5.5921,-2.7096,1.0543,-0.0809,-4.0990,-1.0724,2.6914,-2.6642,-1.0803
406.2500,-7.0687,-4.9158,-1.7365,-0.5631,4.4504,-5.0116,-0.2163,0.3684,-1.8935,-7.4694,-5.2338,-1.0995,4.1379,1.9642,-4.8209,-1.4938,5.0302,-2.3867,0.3387
410.1562,-7.9823,-5.7841,-0.8509,-0.8882,5.3743,-6.3726,0.6384,-0.9926,-1.9392,-9.0330,-4.7012,0.0824,7.4014,4.5950,-5.3992,-2.0029,7.2085,-2.4176,1.6279
414.0625,-8.5097,-6.3815,-0.2359,-1.0087,5.8331,-7.1571,0.7907,-2.2145,-2.3311,-9.8833,-4.1929,0.6363,10.5884,7.8311,-5.5228,-2.2176,9.4545,-2.3820,3.1655
417.9688,-8.2779,-6.3127,0.2550,-0.2985,6.3826,-7.2016,0.3916,-2.5268,-2.6005,-9.5610,-3.7121,0.8417,13.5475,11.5317,-5.0367,-1.9002,11.9562,-1.9285,5.3671
421.8750,-7.1504,-5.3100,1.0053,1.6707,7.6478,-6.6006,-0.0314,-1.4415,-2.2496,-8.0318,-3.0250,1.3044,16.1228,15.3087,-4.0080,-1.0779,14.5330,-0.8667,8.4018
425.7812,-5.2595,-3.3291,2.3895,4.7918,9.8418,-5.5572,0.0946,0.9291,-1.0367,-5.6878,-1.8184,2.5324,18.0336,18.4961,-2.6688,-0.0212,16.5310,0.7638,11.9929
429.6875,-2.9070,-0.5810,4.4994,8.3040,12.4413,-4.2041,1.0172,3.8370,0.8702,-3.1525,0.0428,4.5081,18.8595,20.2501,-1.2918,0.8873,17.0422,2.7040,15.4286
433.5938,-0.4211,2.5204,7.0299,11.0355,14.2911,-2.5325,2.5037,6.2022,2.9849,-1.0042,2.3404,6.5778,18.1852,19.8023,-0.0821,1.3251,15.3510,4.5656,17.8072
437.5000,1.9369,5.4754,9.4015,11.9306,14.1507,-0.4863,4.0028,7.1163,4.7882,0.4459,4.5507,7.7934,15.8421,16.7845,0.8647,1.1713,11.3608,5.9795,18.4056
441.4062,3.9800,7.8290,11.0304,10.5811,11.3856,1.8545,4.9989,6.2710,6.0129,1.2266,6.1015,7.5158,12.0950,11.4577,1.5451,0.5718,5.7488,6.7426,16.9802
445.3125,5.5571,9.2609,11.5698,7.4364,6.3786,4.1542,5.3070,4.0751,6.7328,1.6208,6.6840,5.8778,7.6248,4.6940,2.0176,-0.1036,-0.2644,6.8862,13.8397
449.2188,6.5357,9.6217,10.9892,3.5467,0.3824,5.8912,5.1138,1.3959,7.2062,1.9816,6.4222,3.7703,3.2793,-2.3168,2.3902,-0.4113,-5.4210,6.6155,9.6671
453.1250,6.8441,8.9367,9.4910,-0.0152,-5.1052,6.6051,4.7682,-0.9146,7.6046,2.5432,5.7912,2.3300,-0.2832,-8.4954,2.8099,-0.0505,-8.9405,6.1475,5.2144
457.0312,6.5362,7.4040,7.3706,-2.6936,-9.0554,6.1686,4.5016,-2.4297,7.8394,3.3091,5.3370,2.2533,-2.8421,-13.2018,3.4225,0.9518,-10.7576,5.5477,1.0614
460.9375,5.8115,5.3840,4.9287,-4.6137,-11.2681,4.8929,4.2825,-3.2684,7.6195,4.0613,5.3699,3.3857,-4.5969,-16.2944,4.2925,2.2045,-11.3643,4.6861,-2.4449
464.8438,4.9416,3.3451,2.4609,-6.2847,-12.1918,3.3722,3.8854,-3.8853,6.6888,4.4834,5.8127,4.8459,-5.8976,-17.9263,5.3298,3.1236,-11.3723,3.3596,-5.0938
468.7500,4.1363,1.7390,0.2637,-8.0743,-12.3902,2.1528,3.0845,-4.6930,5.0593,4.3393,6.2842,5.5833,-6.9118,-18.2629,6.2906,3.2551,-11.0833,1.5150,-6.6989
472.6562,3.4342,0.8362,-1.4106,-9.8365,-12.0768,1.4394,1.8142,-5.7667,3.0626,3.6191,6.3470,4.9926,-7.4702,-17.3452,6.8828,2.5689,-10.3484,-0.5827,-7.1026
476.5625,2.7033,0.6049,-2.4494,-10.9618,-11.0544,1.0327,0.1997,-6.8059,1.1842,2.5656,5.7597,3.2108,-7.2080,-15.1904,6.9195,1.5240,-8.7975,-2.3768,-6.3120
480.4688,1.7561,0.7243,-2.9437,-10.8101,-9.0664,0.5352,-1.5131,-7.3523,-0.1979,1.5495,4.5796,0.9617,-5.9059,-12.0197,6.4073,0.8229,-6.2690,-3.2634,-4.6423
484.3750,0.5016,0.7495,-3.1403,-9.2091,-6.2401,-0.3230,-3.0314,-7.0996,-0.9898,0.8453,3.0710,-0.8820,-3.7712,-8.3833,5.4932,0.9732,-3.1145,-2.9294,-2.7072
488.2812,-0.9744,0.3445,-3.2855,-6.6540,-3.2249,-1.4667,-4.0456,-6.0877,-1.3756,0.4349,1.5005,-1.7197,-1.4272,-5.0160,4.3023,1.9294,-0.1307,-1.5782,-1.1910
492.1875,-2.4567,-0.5560,-3.4632,-4.0539,-0.8684,-2.5154,-4.2571,-4.6670,-1.6662,-0.0261,-0.0288,-1.4132,0.4255,-2.4673,2.8057,3.0666,1.8786,0.1083,-0.5030
496.0938,-3.7399,-1.7602,-3.5590,-2.1977,0.3603,-3.0439,-3.4846,-3.2737,-2.1321,-1.0277,-1.5890,-0.2390,1.4598,-0.7502,0.8570,3.5348,2.6355,1.2736,-0.5345
500.0000,-4.7560,-2.9941,-3.3957,-1.3117,0.7601,-2.8830,-1.8469,-2.1789,-2.9234,-2.8932,-3.2884,1.2694,1.9641,0.7162,-1.5969,2.7866,2.6387,1.2919,-0.7031
503.9062,-5.6044,-4.1114,-2.9514,-1.0155,1.2669,-2.2574,0.1062,-1.3751,-4.0873,-5.5236,-5.0993,2.4715,2.6672,2.7698,-4.2872,0.9351,2.9193,0.0510,-0.2997
507.8125,-6.4692,-5.1870,-2.4907,-0.6992,2.8297,-1.6815,1.4879,-0.6628,-5.6109,-8.3755,-6.8001,2.7544,4.2226,5.9440,-6.6014,-1.3058,4.4040,-2.0400,1.0450
511.7188,-7.4898,-6.4247,-2.4870,-0.0453,5.6909,-1.6895,1.4508,0.1396,-7.4194,-10.7132,-8.0987,1.7088,6.6769,10.0229,-7.8626,-3.0656,7.2706,-4.3014,3.0555
515.6250,-8.6671,-7.9447,-3.3566,0.6813,9.0670,-2.5648,-0.3187,1.0126,-9.3292,-11.9935,-8.8537,-0.6581,9.2893,14.0059,-7.7713,-3.8527,10.7113,-6.1285,4.8688
519.5312,-9.8505,-9.6055,-5.1669,0.7870,11.4779,-4.2075,-3.3052,1.7061,-11.0204,-12.1399,-9.2160,-3.7932,10.8594,16.5262,-6.6898,-3.8149,13.2842,-7.2310,5.4484
523.4375,-10.7906,-10.9952,-7.5128,-0.3573,11.5444,-6.1734,-6.3199,1.8796,-12.0919,-11.5205,-9.5461,-6.7180,10.3853,16.4911,-5.5018,-3.5517,13.6654,-7.6504,4.1375
527.3438,-11.2116,-11.6123,-9.6533,-2.8245,8.7603,-7.8310,-8.0892,1.3140,-12.1995,-10.6420,-10.1216,-8.4375,7.6523,13.5804,-5.0602,-3.6161,11.3601,-7.5950,1.0439
531.2500,-10.8772,-11.1275,-10.8403,-5.9824,3.7671,-8.5590,-7.9467,0.0537,-11.2012,-9.7699,-10.8304,-8.4542,3.3882,8.3483,-5.5605,-4.0656,6.9582,-7.2349,-2.9598
535.1562,-9.6511,-9.5636,-10.6550,-8.7962,-2.0145,-7.9304,-6.1961,-1.6087,-9.2222,-8.7450,-11.0972,-7.0628,-1.1058,1.9174,-6.2970,-4.3841,1.8021,-6.6041,-6.6293
539.0625,-7.5610,-7.2897,-9.1738,-10.3857,-7.1312,-5.8616,-3.8961,-3.2883,-6.6044,-7.1362,-10.1642,-5.1887,-4.6085,-4.5108,-6.0431,-3.8390,-2.7067,-5.6551,-8.9265
542.9688,-4.8453,-4.8417,-6.8966,-10.4835,-10.7460,-2.6933,-2.1981,-4.6937,-3.7810,-4.6286,-7.5975,-3.8284,-6.5155,-10.0441,-3.8728,-2.0276,-5.7373,-4.3950,-9.4807
546.8750,-1.9363,-2.6902,-4.5050,-9.5184,-12.8271,0.8491,-1.6654,-5.7275,-1.1565,-1.3751,-3.6985,-3.4441,-6.9700,-14.2236,0.1047,0.7624,-7.2534,-2.9801,-8.6991
550.7812,0.6465,-1.0931,-2.5926,-8.3070,-13.8516,3.8501,-2.0184,-6.4545,0.9564,1.9469,0.4798,-3.7324,-6.5812,-16.9177,4.6221,3.6255,-7.7714,-1.6904,-7.4892
554.6875,2.4646,-0.0997,-1.4954,-7.5840,-14.3149,5.5199,-2.4520,-6.9892,2.3429,4.4276,3.5793,-3.9428,-5.9863,-18.1593,7.8823,5.4994,-7.8866,-0.8072,-6.7611
558.5938,3.2989,0.3297,-1.2681,-7.6720,-14.4152,5.5029,-2.2803,-7.4050,2.8774,5.3814,4.6000,-3.5302,-5.5684,-18.0822,8.5727,5.7181,-7.9050,-0.4923,-6.9888
562.5000,3.1749,0.2007,-1.7691,-8.4633,-14.0968,4.0200,-1.4478,-7.7311,2.5295,4.6741,3.3807,-2.6654,-5.4688,-16.9848,6.6159,4.3193,-7.7949,-0.7594,-8.0571
566.4062,2.2684,-0.5464,-2.7781,-9.6489,-13.3405,1.7554,-0.5563,-8.0203,1.3813,2.7270,0.6060,-2.2099,-5.7869,-15.4104,3.1746,1.9524,-7.4163,-1.5450,-9.4458
570.3125,0.7766,-1.9502,-4.0770,-10.9773,-12.4076,-0.4562,-0.4069,-8.3971,-0.3710,0.2325,-2.6394,-3.1376,-6.7201,-14.0968,-0.0811,-0.5103,-6.7989,-2.8008,-10.6042
574.2188,-1.1316,-3.8932,-5.4695,-12.3411,-11.7980,-1.9722,-1.3972,-9.0059,-2.4490,-2.1988,-5.4533,-5.7893,-8.4705,-13.7323,-1.9443,-2.3945,-6.2322,-4.5088,-11.2665
578.1250,-3.2495,-6.0311,-6.7583,-13.6584,-11.9208,-2.5331,-3.1964,-9.8670,-4.5475,-4.2295,-7.4604,-9.4892,-10.9644,-14.6048,-2.2488,-3.4399,-6.0934,-6.5905,-11.5127
582.0312,-5.2342,-7.8650,-7.7239,-14.6926,-12.7122,-2.2379,-4.9189,-10.7447,-6.3897,-5.7530,-8.7461,-12.8126,-13.6191,-16.3395,-1.7255,-3.7530,-6.5464,-8.7853,-11.5559
585.9375,-6.6192,-8.9479,-8.1468,-15.0057,-13.4980,-1.3766,-5.6629,-11.1602,-7.7724,-6.7378,-9.5220,-14.3539,-15.3963,-17.9070,-1.3209,-3.6060,-7.3375,-10.6258,-11.4271
589.8438,-7.0152,-9.1208,-7.8837,-14.1348,-13.2436,-0.2712,-5.0477,-10.5971,-8.6102,-7.1466,-9.8452,-13.5032,-15.1954,-17.9627,-1.5123,-3.2558,-7.8458,-11.5889,-10.8018
593.7500,-6.4048,-8.6379,-6.9683,-11.8975,-11.0762,0.7795,-3.4062,-8.8073,-8.9834,-7.0198,-9.6283,-10.7454,-12.3984,-15.3998,-2.0993,-2.8829,-7.3718,-11.3734,-9.1246
597.6562,-5.3150,-8.0871,-5.6696,-8.6130,-6.7790,1.4703,-1.5417,-6.0264,-9.1620,-6.6314,-8.9045,-7.3274,-7.2498,-9.8775,-2.5556,-2.6323,-5.4979,-10.1427,-5.9847
601.5625,-4.6751,-8.1250,-4.4506,-5.0649,-0.9709,1.4804,-0.2456,-2.9387,-9.5561,-6.5286,-8.0755,-4.5537,-0.8444,-2.0743,-2.6071,-2.6651,-2.3177,-8.5574,-1.5165
605.4688,-5.3688,-9.1586,-3.8150,-2.1964,5.1218,0.5622,0.1023,-0.3789,-10.5667,-7.3360,-7.8714,-3.1812,5.2762,6.4647,-2.5548,-3.1490,1.5745,-7.5379,3.4443
609.3750,-7.7217,-11.1463,-4.1053,-0.7100,10.1613,-1.2985,-0.3732,1.0621,-12.3857,-9.4012,-8.9832,-3.2543,9.6916,13.8373,-3.0949,-4.1908,5.2999,-7.8612,7.5827
613.2812,-11.2545,-13.6322,-5.3581,-0.8033,13.1881,-3.7741,-1.2556,1.2890,-14.8614,-12.5127,-11.6111,-4.3826,11.5448,18.4368,-4.7865,-5.7657,7.9910,-9.8068,9.6180
617.1875,-14.8873,-15.9894,-7.3025,-2.1791,13.8725,-6.2521,-2.1582,0.6606,-17.5366,-15.9105,-15.2674,-6.1664,10.6824,19.4698,-7.5808,-7.6975,9.0372,-13.0404,8.8459
621.0938,-17.4895,-17.7236,-9.5028,-4.2877,12.4635,-8.0648,-2.9301,-0.3027,-19.8642,-18.6192,-18.9978,-8.4262,7.5144,17.1307,-10.7616,-9.6969,8.2139,-16.7820,5.4328
625.0000,-18.4308,-18.6542,-11.5520,-6.6180,9.5404,-8.7684,-3.6406,-1.2543,-21.4711,-19.9103,-21.8724,-11.1040,2.7566,12.3892,-13.3287,-11.4259,5.7011,-20.1422,0.3273
628.9062,-17.7922,-18.8726,-13.1899,-8.8561,5.7463,-8.3080,-4.4042,-2.1701,-22.2862,-19.6064,-23.4010,-13.9822,-2.7761,6.5279,-14.5368,-12.5595,2.0228,-22.4294,-5.1395
632.8125,-16.1313,-18.5327,-14.2805,-10.8470,1.6316,-6.9795,-5.2030,-3.2263,-22.4363,-18.0526,-23.5961,-16.5098,-8.2673,0.6689,-14.2238,-12.8431,-2.0715,-23.2879,-9.7475
636.7188,-14.0093,-17.6409,-14.6975,-12.4520,-2.3726,-5.2385,-5.8359,-4.5224,-21.9896,-15.8127,-22.6949,-17.9251,-12.9414,-4.5000,-12.7551,-12.1617,-5.7792,-22.6597,-12.7517
640.6250,-11.6351,-16.0147,-14.2468,-13.4619,-5.9218,-3.4932,-6.0181,-5.8790,-20.7682,-13.3278,-20.8207,-17.6262,-16.1418,-8.7240,-10.6999,-10.6133,-8.4491,-20.6759,-13.9992
644.5312,-8.8683,-13.4526,-12.7353,-13.6610,-8.7456,-1.9984,-5.5505,-6.8824,-18.4197,-10.7675,-17.8949,-15.5385,-17.4743,-11.9882,-8.5142,-8.5387,-9.7623,-17.5932,-13.8233
648.4375,-5.5358,-9.9958,-10.1707,-13.0055,-10.6850,-0.8652,-4.4498,-7.1595,-14.7451,-8.1300,-13.8785,-12.2222,-16.9510,-14.3067,-6.4309,-6.4486,-9.8089,-13.8093,-12.8200
652.3438,-1.7776,-6.0805,-6.9490,-11.7636,-11.7444,-0.1108,-2.9658,-6.6834,-10.0556,-5.4500,-9.1180,-8.6345,-15.0272,-15.6361,-4.5422,-4.8351,-9.0100,-9.8832,-11.6148
656.2500,1.8733,-2.4375,-3.8475,-10.4783,-12.1002,0.3317,-1.4878,-5.8763,-5.2516,-2.9041,-4.4453,-5.6829,-12.4645,-15.9418,-2.9053,-3.9390,-7.9109,-6.4575,-10.6803
660.1562,4.7509,0.2356,-1.7468,-9.7249,-12.0352,0.6467,-0.3908,-5.4058,-1.4826,-0.7167,-0.8567,-3.8274,-10.0551,-15.3251,-1.5320,-3.6043,-6.9481,-4.0511,-10.2183
664.0625,6.4641,1.6415,-1.1886,-9.7856,-11.8197,1.1390,0.1133,-5.7821,0.4639,1.0444,1.0649,-2.9350,-8.3257,-14.0810,-0.2819,-3.3285,-6.3097,-2.8089,-10.1113
667.9688,7.1424,2.0596,-2.0186,-10.4342,-11.5937,2.1328,0.0668,-7.0106,0.6619,2.5822,1.5787,-2.4265,-7.3572,-12.6160,1.1806,-2.5118,-5.9517,-2.3706,-9.9549
671.8750,7.3410,2.2111,-3.3478,-10.9712,-11.3077,3.7872,-0.2320,-8.5202,0.0849,4.2633,1.7194,-1.5944,-6.7964,-11.2668,3.2368,-0.7796,-5.7300,-1.9767,-9.1824
675.7812,7.6778,2.8867,-3.9036,-10.5098,-10.7461,5.9422,-0.3262,-9.4214,0.1091,6.3403,2.7224,0.0829,-6.0454,-10.1360,6.0186,1.8012,-5.5358,-0.7984,-7.2630
679.6875,8.4687,4.5470,-2.6176,-8.3721,-9.6203,8.1304,0.2213,-8.9408,1.7567,8.7104,5.2872,2.7585,-4.5349,-9.0513,9.1790,4.7425,-5.3310,1.6703,-3.9140
683.5938,9.6010,7.1160,0.8445,-4.4006,-7.6954,9.7845,1.6223,-6.7873,5.1327,10.9079,9.1476,6.1934,-1.9652,-7.6708,11.9470,7.3808,-5.0676,5.3622,0.7517
687.5000,10.6894,10.0529,5.8760,0.9531,-4.9042,10.5278,3.7159,-3.2600,9.3836,12.3591,13.2118,9.8505,1.5775,-5.6648,13.4895,9.2029,-4.5759,9.6575,6.2064
691.4062,11.3511,12.6212,11.1427,6.7807,-1.4104,10.3532,5.9637,0.9212,13.1747,12.7263,16.1590,13.0490,5.6613,-2.8724,13.3724,10.0635,-3.5417,13.6496,11.6265
695.3125,11.3806,14.1806,15.1056,12.0171,2.4039,9.5618,7.6196,4.9330,15.3671,12.0945,17.0969,15.1387,9.6750,0.6320,11.8084,10.1769,-1.6343,16.5000,16.1077
699.2188,10.7276,14.3566,16.6066,15.7510,6.0238,8.4989,8.0241,8.1303,15.4935,10.8650,15.8967,15.6702,13.0417,4.5581,9.5177,9.9103,1.2688,17.7033,18.9069
703.1250,9.3662,13.0590,15.2719,17.4385,8.9333,7.2783,6.8930,10.1708,13.8057,9.4412,13.0786,14.5264,15.3843,8.4571,7.2942,9.5240,4.9076,17.1650,19.6350
707.0312,7.2276,10.4209,11.5888,16.9784,10.7422,5.7009,4.4572,10.9813,10.9684,7.9448,9.4238,11.9694,16.5770,11.7843,5.5714,9.0261,8.6524,15.1173,18.3465
710.9375,4.2892,6.7488,6.6628,14.6692,11.2612,3.4415,1.3737,10.6491,7.6643,6.1766,5.6126,8.5687,16.6791,13.9766,4.2745,8.2262,11.7312,11.9744,15.4969
714.8438,0.7469,2.5104,1.7763,11.0914,10.5056,0.3783,-1.5587,9.3337,4.3633,3.8510,2.0828,5.0173,15.8103,14.5719,3.0241,6.9383,13.5567,8.2188,11.7789
718.7500,-2.9066,-1.6907,-2.0665,6.9578,8.6475,-3.1703,-3.7364,7.2418,1.3243,0.9264,-0.9141,1.9004,14.0589,13.3663,1.5109,5.1872,13.9658,4.3400,7.8864
722.6562,-6.0140,-5.2203,-4.4392,2.9571,5.9618,-6.4850,-4.9711,4.6453,-1.2838,-2.2194,-3.2176,-0.4903,11.4839,10.5390,-0.2400,3.2737,13.2281,0.7877,4.2988
726.5625,-8.0418,-7.6001,-5.5300,-0.3857,2.7954,-8.7594,-5.4849,1.8885,-3.3049,-4.9050,-4.7485,-2.2149,8.1981,6.6507,-1.8834,1.6467,11.8254,-2.1004,1.1765
730.4688,-8.8302,-8.6887,-5.9214,-2.8096,-0.4480,-9.4987,-5.7003,-0.6544,-4.6272,-6.4825,-5.5690,-3.5900,4.4523,2.4641,-2.9940,0.6573,10.1481,-4.1846,-1.5836
734.3750,-8.6208,-8.7312,-6.2268,-4.3521,-3.3500,-8.7559,-5.9541,-2.6708,-5.2595,-6.6717,-5.8945,-4.9842,0.6325,-1.3521,-3.3280,0.3508,8.2995,-5.5615,-4.1689
738.2812,-7.8399,-8.2141,-6.7651,-5.2994,-5.5751,-7.0633,-6.3016,-4.0099,-5.3425,-5.6804,-5.9792,-6.5969,-2.8582,-4.4824,-2.9209,0.4325,6.1269,-6.4964,-6.6573
742.1875,-6.7999,-7.5867,-7.4357,-6.0587,-6.9983,-5.1138,-6.5156,-4.7418,-5.0568,-4.0543,-5.9315,-8.3237,-5.7618,-7.0254,-1.9967,0.4349,3.4400,-7.2606,-8.9267
746.0938,-5.5430,-7.0138,-7.8459,-6.9875,-7.7786,-3.4023,-6.2649,-5.1336,-4.5025,-2.3785,-5.6166,-9.7759,-8.0559,-9.3091,-0.8058,-0.0105,0.2600,-7.9618,-10.7173
750.0000,-3.9323,-6.3198,-7.6025,-8.2406,-8.2911,-2.0424,-5.3512,-5.5386,-3.6679,-1.0261,-4.7603,-10.4564,-9.8882,-11.5655,0.4631,-0.9617,-3.0709,-8.4822,-11.7922
753.9062,-1.9015,-5.1691,-6.5831,-9.6959,-8.9077,-0.8462,-3.8588,-6.2340,-2.5263,-0.0848,-3.2096,-10.0173,-11.3850,-13.6735,1.6605,-2.1432,-5.9903,-8.5780,-12.0737
757.8125,0.3535,-3.3689,-5.0247,-10.9978,-9.7314,0.4258,-2.1298,-7.2753,-1.1787,0.5510,-1.1556,-8.4739,-12.4624,-15.1472,2.6244,-3.1180,-7.9559,-8.0790,-11.6579
761.7188,2.4049,-1.0912,-3.3846,-11.7074,-10.4591,1.8348,-0.5892,-8.4424,0.1036,1.0353,0.8750,-6.2553,-12.7904,-15.3923,3.2053,-3.5406,-8.6729,-7.0493,-10.7069
765.6250,3.8378,1.1487,-2.0727,-11.4972,-10.5021,3.2140,0.4709,-9.3198,1.0130,1.4855,2.2950,-4.0417,-11.9630,-14.0779,3.3824,-3.3299,-8.1796,-5.7854,-9.3163
769.5312,4.5224,2.7602,-1.2288,-10.3024,-9.3409,4.3125,1.0215,-9.4910,1.4425,1.9827,2.8272,-2.4504,-9.7849,-11.3921,3.3615,-2.6635,-6.7692,-4.6360,-7.4749
773.4375,4.7074,3.4337,-0.6731,-8.3505,-6.9180,5.0083,1.2752,-8.7559,1.6411,2.6025,2.7103,-1.7280,-6.4885,-8.0126,3.5269,-1.8185,-4.8302,-3.7630,-5.1548
777.3438,4.8533,3.3521,-0.0420,-6.0545,-3.8132,5.4173,1.5406,-7.2565,2.1346,3.4084,2.5847,-1.6217,-2.7234,-4.8046,4.2230,-0.9835,-2.7195,-3.0148,-2.4562
781.2500,5.3197,3.1121,0.9930,-3.8224,-1.0448,5.8094,2.0436,-5.4307,3.4187,4.3983,3.1213,-1.5127,0.7011,-2.4183,5.5001,-0.1702,-0.7275,-2.0157,0.3276
785.1562,6.1231,3.3868,2.5544,-1.8844,0.4318,6.3890,2.8175,-3.8052,5.6128,5.4602,4.6332,-0.7491,3.1852,-1.0170,7.0241,0.7322,0.8971,-0.4242,2.8098
789.0625,6.9281,4.5284,4.5140,-0.2252,0.2565,7.1077,3.7082,-2.7324,8.3105,6.4001,6.9141,1.0079,4.6086,-0.2753,8.2559,1.8285,1.9443,1.8129,4.7280
792.9688,7.2697,6.3508,6.5664,1.3521,-1.0914,7.6624,4.4760,-2.2151,10.7508,7.0452,9.3849,3.6240,5.3520,0.3797,8.8016,3.1297,2.3120,4.3905,6.1319
796.8750,6.8507,8.2239,8.3555,3.0809,-2.4967,7.7012,4.9292,-1.9170,12.2149,7.3504,11.4255,6.6027,6.0695,1.4446,8.6920,4.5693,2.1156,6.8143,7.3902
800.7812,5.7228,9.4181,9.5905,5.0912,-2.7647,7.1001,5.0165,-1.3528,12.4005,7.4195,12.6653,9.3810,7.3474,3.1172,8.3704,6.0868,1.7402,8.6916,8.9819
804.6875,4.2501,9.4851,10.1186,7.3420,-1.2241,6.1002,4.8370,-0.1552,11.5340,7.4099,13.0675,11.6087,9.4290,5.2684,8.3742,7.6755,1.7463,9.9323,11.1818
808.5938,2.9001,8.4472,9.9426,9.6328,1.9425,5.1792,4.5664,1.7233,10.1531,7.3872,12.8007,13.2285,12.1212,7.5687,8.9192,9.3221,2.6311,10.7046,13.8278
812.5000,1.9995,6.6943,9.1811,11.6509,5.8002,4.7115,4.3373,3.9639,8.7107,7.2402,12.0247,14.3209,14.8824,9.6502,9.6838,10.8720,4.5572,11.1700,16.3057
816.4062,1.5867,4.6754,7.9707,13.0090,9.1027,4.6466,4.1319,5.9984,7.2632,6.7322,10.7507,14.8459,17.0107,11.1973,9.9612,11.9475,7.2050,11.1931,17.7610
820.3125,1.4222,2.6006,6.3454,13.2734,10.8217,4.4512,3.7489,7.2125,5.4459,5.6610,8.8516,14.4965,17.8389,11.9455,9.0975,12.0353,9.8546,10.2673,17.4198
824.2188,1.1246,0.3511,4.1690,12.0249,10.5048,3.4071,2.8803,7.1436,2.7544,4.0171,6.1981,12.8036,16.8917,11.6560,6.9333,10.7430,11.6743,7.7619,14.8721
828.1250,0.3620,-2.3470,1.2016,8.9937,8.3390,1.1112,1.2835,5.6075,-1.0441,2.0315,2.8238,9.4560,14.0027,10.1469,3.9639,8.0819,12.0720,3.3748,10.2197
832.0312,-0.9790,-5.6042,-2.6837,4.2463,4.9636,-2.1391,-1.0262,2.7399,-5.6236,0.0852,-0.9690,4.6353,9.3971,7.4056,1.1207,4.5779,10.9286,-2.4913,4.0740
835.9375,-2.7009,-9.1243,-7.2386,-1.6718,1.1739,-5.3537,-3.6733,-1.0337,-10.1132,-1.4466,-4.6147,-0.8667,3.7121,3.7148,-0.6822,1.1064,8.6038,-8.6954,-2.5666
839.8438,-4.3199,-12.2091,-11.7180,-7.7607,-2.3446,-7.2961,-6.0000,-5.0809,-13.4234,-2.3107,-7.4093,-5.8591,-2.0929,-0.3229,-0.9629,-1.4780,5.7296,-13.7408,-8.5282
843.7500,-5.2207,-14.0333,-15.0483,-12.8116,-5.1766,-7.1297,-7.3212,-8.6911,-14.7198,-2.3949,-8.7294,-9.2055,-6.9586,-3.9323,0.1685,-2.6984,2.9230,-16.3934,-12.7411
847.6562,-4.9100,-14.0458,-16.2699,-15.8035,-7.2174,-4.8857,-7.2484,-11.2363,-13.8102,-1.6894,-8.2856,-10.2833,-10.0316,-6.4477,2.1409,-2.5964,0.5710,-16.2086,-14.5430
851.5625,-3.2775,-12.2746,-15.0371,-16.2753,-8.6068,-1.4721,-5.9026,-12.3272,-11.2515,-0.2713,-6.3091,-9.2090,-10.9358,-7.5888,4.2128,-1.5935,-1.2198,-13.6882,-13.9049
855.4688,-0.7334,-9.3686,-11.8758,-14.4886,-9.5813,1.7801,-3.8823,-11.9100,-8.1254,1.6429,-3.5604,-6.7266,-9.8812,-7.5654,5.7440,-0.2055,-2.5258,-10.0052,-11.4638
859.3750,1.8793,-6.3490,-8.0101,-11.2972,-10.2924,3.7602,-1.9827,-10.2588,-5.5866,3.6288,-1.0971,-3.8470,-7.5501,-6.9345,6.3434,1.1860,-3.4538,-6.4718,-8.2965
863.2812,3.5986,-4.1992,-4.8223,-7.7984,-10.6714,4.0427,-0.8170,-7.8591,-4.3955,5.0772,0.1387,-1.4447,-4.8151,-6.2805,5.8996,2.3689,-4.0411,-4.0408,-5.5092
867.1875,3.7562,-3.4904,-3.2435,-4.9381,-10.4301,2.9432,-0.5554,-5.2374,-4.6500,5.3819,-0.2692,-0.0099,-2.4257,-5.9004,4.5541,3.1829,-4.2544,-3.0664,-3.8299
871.0938,2.2846,-4.2073,-3.4111,-3.2471,-9.2286,1.2025,-0.9276,-2.8145,-5.8326,4.2341,-2.0288,0.3724,-0.8062,-5.6798,2.6548,3.4089,-4.0642,-3.3672,-3.4082
875.0000,-0.2448,-5.8268,-4.7577,-2.7791,-6.9366,-0.4567,-1.4634,-0.8407,-7.1341,1.8544,-4.3076,-0.1138,-0.0258,-5.2238,0.6739,2.8114,-3.5196,-4.4616,-3.9010
878.9062,-2.8823,-7.5788,-6.4135,-3.2089,-3.8219,-1.6244,-1.7934,0.5848,-7.8730,-1.0180,-6.1729,-1.1661,0.1026,-4.1494,-0.9324,1.3303,-2.7611,-5.7932,-4.7453
882.8125,-4.7229,-8.7524,-7.6345,-3.9867,-0.5129,-2.2256,-1.8070,1.4575,-7.7875,-3.4215,-7.0529,-2.4265,-0.1018,-2.3412,-1.8924,-0.7281,-1.9576,-6.8418,-5.4128
886.7188,-5.2741,-8.9117,-8.0000,-4.4763,2.2888,-2.3473,-1.5811,1.8350,-7.0533,-4.6130,-6.9438,-3.4624,-0.2574,-0.0094,-2.2227,-2.6844,-1.2092,-7.1415,-5.4938
890.6250,-4.5900,-7.9585,-7.3420,-4.0686,4.1960,-2.0531,-1.1751,1.8478,-6.0439,-4.4007,-6.2482,-3.7591,0.0641,2.4725,-2.1787,-3.7281,-0.4810,-6.3013,-4.6242
894.5312,-3.1375,-6.0603,-5.5714,-2.3073,5.3728,-1.3320,-0.4876,1.7241,-5.0054,-3.1685,-5.3766,-2.8239,1.3068,4.8172,-2.0532,-3.2902,0.3846,-4.0948,-2.4182
898.4375,-1.5073,-3.5241,-2.6205,0.9645,6.4424,-0.1910,0.6824,1.7741,-3.8669,-1.5922,-4.4036,-0.4096,3.8137,6.9719,-1.9474,-1.3253,1.5780,-0.5934,1.4313
902.3438,-0.1543,-0.6989,1.4233,5.4852,8.0884,1.2098,2.4005,2.2988,-2.3184,-0.2454,-3.0360,3.2489,7.6316,9.0599,-1.6865,1.6660,3.1989,3.7606,6.8812
906.2500,0.6973,2.0499,6.1175,10.5666,10.5831,2.5023,4.3786,3.4484,-0.1105,0.6428,-0.9284,7.3538,12.3414,11.1650,-0.9734,4.8730,5.1639,8.2263,13.2838
910.1562,0.9750,4.3198,10.6147,15.2471,13.5430,3.1870,5.9767,5.1054,2.6247,1.1343,1.8680,10.7315,17.0516,13.1312,0.2964,7.5110,7.1925,11.9787,19.3963
914.0625,0.6090,5.6696,13.8822,18.5657,16.0740,2.8044,6.4814,6.8705,5.2558,1.3116,4.6570,12.2551,20.6290,14.5427,1.7794,9.0619,8.8823,14.3588,23.7549
917.9688,-0.5424,5.6944,15.0976,19.8410,17.2235,1.1187,5.5054,8.1844,6.8464,1.0310,6.2677,11.3152,22.1003,14.9153,2.7041,9.3238,9.8416,15.0245,25.2551
921.8750,-2.6187,4.1791,13.9845,18.8329,16.4620,-1.7587,3.2423,8.5426,6.5747,-0.0811,5.6015,8.0974,21.0362,13.9738,2.2211,8.3235,9.8275,13.9397,23.6061
925.7812,-5.5703,1.2570,10.8777,15.7401,13.9112,-5.3442,0.3909,7.7052,4.1539,-2.3532,2.2618,3.5053,17.7146,11.8226,-0.0916,6.2204,8.8341,11.2527,19.3772
929.6875,-8.9960,-2.5342,6.5044,11.0779,10.2114,-8.8690,-2.2155,5.8013,0.0233,-5.7019,-3.1018,-1.2438,12.9679,8.8891,-3.8747,3.2869,7.0957,7.1913,13.6172
933.5938,-12.1440,-6.3700,1.6566,5.5321,6.1567,-11.4775,-4.0368,3.2759,-4.7868,-9.4548,-8.9562,-5.1453,7.7968,5.6819,-8.0306,-0.0599,5.0031,2.0706,7.3133
937.5000,-14.1311,-9.4083,-3.0210,-0.1515,2.3478,-12.5028,-5.0329,0.7055,-9.0377,-12.5356,-13.4965,-7.7830,2.9617,2.5314,-11.1814,-3.2746,2.9607,-3.6008,1.0477
941.4062,-14.2988,-11.0876,-7.0349,-5.2462,-0.9445,-11.7310,-5.5341,-1.4325,-11.7149,-13.9424,-15.4049,-9.3732,-1.2328,-0.5130,-12.3048,-5.8156,1.2380,-9.0433,-4.9513
945.3125,-12.5251,-11.3014,-9.9370,-9.1435,-3.6892,-9.5234,-5.8946,-2.9291,-12.3231,-13.2464,-14.3759,-10.4834,-4.8728,-3.5793,-11.1959,-7.3476,-0.1220,-13.2945,-10.4782
949.2188,-9.3129,-10.3573,-11.2972,-11.4884,-5.9198,-6.6948,-6.1958,-3.8800,-10.9526,-10.8041,-11.1622,-11.6115,-8.1714,-6.7580,-8.5020,-7.8814,-1.2891,-15.4990,-15.0609
953.1250,-5.5848,-8.7548,-10.8506,-12.2974,-7.6333,-4.1620,-6.2085,-4.5814,-8.1482,-7.5516,-7.1404,-12.8681,-11.1894,-9.9405,-5.3262,-7.7293,-2.5209,-15.2762,-17.9907
957.0312,-2.2780,-6.9213,-8.7304,-11.9588,-8.8156,-2.5235,-5.6221,-5.3417,-4.6783,-4.5051,-3.6398,-13.9203,-13.7041,-12.8149,-2.6446,-7.2785,-3.9725,-12.9438,-18.6812
960.9375,0.0477,-5.0639,-5.5688,-11.0596,-9.5135,-1.8059,-4.3442,-6.3038,-1.3006,-2.2749,-1.3770,-14.1942,-15.2776,-14.9975,-0.8720,-6.7239,-5.5368,-9.4265,-17.0846
964.8438,1.3764,-3.2059,-2.3136,-10.0965,-9.8339,-1.5365,-2.6320,-7.3604,1.4192,-0.8734,-0.2644,-13.1944,-15.4518,-16.1875,0.2002,-5.9505,-6.8160,-5.8577,-13.8282
968.7500,2.0943,-1.3490,0.1897,-9.2317,-9.8364,-1.1054,-0.9533,-8.1999,3.2077,0.0941,0.3472,-10.7666,-13.9548,-16.2386,1.1007,-4.6617,-7.2711,-3.0798,-9.9282
972.6562,2.6406,0.3781,1.5971,-8.2544,-9.4091,-0.1902,0.3117,-8.4537,4.0900,1.0176,1.1566,-7.1923,-10.8335,-15.1368,2.2282,-2.6817,-6.5057,-1.3298,-6.2623
976.5625,3.1777,1.7055,2.1772,-6.7870,-8.2667,1.0315,1.0958,-7.8667,4.2943,1.9370,2.4311,-3.1115,-6.4928,-12.9548,3.5396,-0.2237,-4.5417,-0.2908,-3.1683
980.4688,3.4914,2.3527,2.5478,-4.6058,-6.1268,2.0161,1.6267,-6.4082,4.0844,2.4933,3.8259,0.6642,-1.6552,-9.8564,4.5550,2.0778,-1.9212,0.5400,-0.4455
984.3750,3.1807,2.2073,3.2143,-1.8563,-2.9665,2.2343,2.1869,-4.2727,3.5949,2.1999,4.5983,3.3742,2.7642,-6.1468,4.6581,3.4276,0.4662,1.4259,2.2680
988.2812,2.0058,1.4202,4.2308,0.9943,0.8328,1.5352,2.8476,-1.7830,2.7705,0.8415,4.0862,4.5238,5.8840,-2.2880,3.5004,3.2925,1.7838,2.2025,5.0596
992.1875,0.1521,0.3516,5.2170,3.4415,4.5915,0.2552,3.3928,0.7438,1.4689,-1.2730,2.1691,4.0591,7.1678,1.1986,1.2699,1.7424,1.6853,2.4591,7.6022
996.0938,-1.7749,-0.5907,5.7078,5.2668,7.6488,-0.9795,3.5022,3.0902,-0.3189,-3.3860,-0.5617,2.4524,6.7116,3.9270,-1.3276,-0.5008,0.5435,1.9567,9.4299
1000.0000,-3.0391,-1.1087,5.5695,6.6607,9.6878,-1.5984,3.0553,5.1505,-2.2751,-4.6653,-3.0303,0.6298,5.3274,5.8146,-3.3620,-2.3500,-0.6864,0.9710,10.4044
1003.9062,-3.1722,-1.0783,5.1684,8.0469,10.8386,-1.3449,2.3168,6.8705,-3.7556,-4.6576,-4.1821,-0.2998,4.2837,7.0831,-4.0912,-2.8350,-0.9331,0.2799,10.9751
1007.8125,-2.2359,-0.5118,5.1541,9.7200,11.4826,-0.3077,1.8370,8.1681,-4.0474,-3.5450,-3.4914,0.5352,4.7383,8.0580,-3.2868,-1.5364,0.4258,0.7535,11.9665
1011.7188,-0.7883,0.5092,5.9981,11.5520,11.8966,1.2292,2.1093,8.8980,-2.7744,-2.0474,-1.2046,3.3601,7.1166,8.8921,-1.3216,1.2414,3.2068,2.7872,13.9823
1015.6250,0.4188,1.8538,7.6028,12.9821,12.0003,2.9558,3.2071,8.8879,-0.2112,-1.0228,1.7951,7.5620,10.7961,9.4190,1.0070,4.6273,6.4789,5.9501,16.8322
1019.5312,0.8265,3.3046,9.2558,13.3104,11.3963,4.5947,4.6541,8.0275,2.7192,-1.0004,4.4042,11.8530,14.3332,9.2646,2.8203,7.5715,9.0158,9.1065,19.4150
1023.4375,0.3187,4.5249,9.9759,12.1053,9.6805,5.8585,5.6347,6.3554,4.8172,-1.9164,5.7658,14.7547,16.1620,8.1540,3.5076,9.2659,9.8995,10.9660,20.2116
1027.3438,-0.7837,5.1138,9.0414,9.4572,6.7948,6.4234,5.4300,4.0882,5.1743,-3.1986,5.5619,15.1952,15.3897,6.1859,2.9339,9.4028,8.9440,10.7436,18.1210
1031.2500,-1.9429,4.7630,6.3841,5.9174,3.1589,6.0267,3.8172,1.5699,3.6220,-4.1338,4.0349,12.9372,12.2193,3.8472,1.4352,8.1829,6.7154,8.5306,13.1262
1035.1562,-2.6881,3.4371,2.6231,2.1797,-0.5254,4.6585,1.1981,-0.8371,0.8029,-4.2879,1.7893,8.6389,7.7444,1.7216,-0.3711,6.1185,4.1595,5.1672,6.3661
1039.0625,-2.8080,1.4538,-1.2594,-1.2728,-3.6692,2.6987,-1.6130,-2.8706,-2.1777,-3.7260,-0.4866,3.5349,3.2530,0.0805,-1.8584,3.7699,2.0681,1.7255,-0.4392
1042.9688,-2.3849,-0.6181,-4.3952,-4.3307,-6.1204,0.8382,-3.8030,-4.4457,-4.3144,-2.9166,-2.2474,-1.0829,-0.5080,-1.3474,-2.6249,1.5581,0.6962,-1.0570,-5.8580
1046.8750,-1.6998,-2.2050,-6.3906,-7.1547,-8.2008,-0.2282,-4.9362,-5.6636,-5.1539,-2.4013,-3.2074,-4.3341,-3.6395,-3.2392,-2.5996,-0.2761,-0.2687,-3.0461,-9.3925
1050.7812,-1.0914,-2.9886,-7.3987,-9.9233,-10.4410,-0.1749,-5.0983,-6.7539,-4.9018,-2.4553,-3.3578,-5.9757,-6.7954,-6.2374,-2.0002,-1.6052,-1.4011,-4.5673,-11.5475
1054.6875,-0.8338,-3.0314,-7.9128,-12.6337,-13.2050,0.7556,-4.7642,-7.9726,-4.1719,-2.9506,-2.9208,-6.3430,-10.5230,-10.4886,-1.1885,-2.3394,-3.1067,-6.0152,-13.3409
1058.5938,-1.0593,-2.7088,-8.4399,-15.0918,-16.4475,1.8741,-4.4999,-9.4909,-3.5829,-3.4923,-2.2726,-6.1003,-14.7149,-15.4647,-0.5090,-2.4297,-5.3323,-7.5263,-15.6059
1062.5000,-1.7249,-2.5022,-9.2459,-17.0654,-19.7370,2.4229,-4.6779,-11.3071,-3.4668,-3.7159,-1.8463,-5.9500,-18.5558,-20.1765,-0.1846,-1.9537,-7.5751,-8.9408,-18.5136
1066.4062,-2.6246,-2.7792,-10.2884,-18.4456,-22.4813,1.9860,-5.3387,-13.2106,-3.8367,-3.5351,-2.0246,-6.4090,-20.9875,-23.6279,-0.3002,-1.1992,-9.1631,-10.0330,-21.5547
1070.3125,-3.4559,-3.6668,-11.3245,-19.2714,-24.1729,0.6920,-6.2308,-14.8175,-4.5573,-3.1760,-3.0403,-7.6884,-21.3590,-25.2166,-0.8470,-0.6363,-9.6206,-10.7855,-23.9088
1074.2188,-3.9320,-5.0375,-12.0807,-19.5912,-24.5036,-0.8816,-6.9627,-15.6769,-5.5268,-2.9863,-4.9019,-9.6554,-19.8075,-24.8564,-1.7702,-0.7328,-8.9023,-11.4504,-24.9057
1078.1250,-3.8940,-6.5631,-12.3611,-19.2832,-23.3285,-2.0105,-7.1663,-15.4204,-6.6978,-3.1595,-7.3535,-11.8517,-17.1196,-22.8132,-2.9692,-1.6876,-7.3779,-12.3179,-24.2854
1082.0312,-3.3582,-7.7771,-12.0345,-18.0029,-20.5926,-2.1404,-6.6031,-13.9047,-7.9231,-3.5645,-9.8735,-13.5744,-14.1902,-19.4413,-4.2510,-3.2424,-5.5995,-13.3528,-22.1454
1085.9375,-2.4564,-8.1410,-10.9463,-15.3430,-16.3389,-1.0695,-5.2002,-11.2876,-8.7821,-3.7933,-11.7261,-14.0439,-11.4653,-15.0362,-5.2868,-4.7227,-4.0066,-13.9886,-18.6965
1089.8438,-1.3078,-7.1556,-8.8643,-11.1349,-10.8211,1.0350,-3.0449,-8.0039,-8.5897,-3.3932,-12.1006,-12.6579,-8.7483,-9.8862,-5.6426,-5.3333,-2.7400,-13.2901,-14.0625
1093.7500,0.0804,-4.5466,-5.5589,-5.7062,-4.6216,3.7227,-0.3717,-4.6484,-6.6758,-2.1351,-10.3594,-9.2725,-5.4885,-4.4254,-4.9182,-4.5730,-1.6562,-10.4549,-8.2976
1097.6562,1.7875,-0.4786,-1.0188,0.0797,1.3646,6.3790,2.4509,-1.8145,-2.8215,-0.1598,-6.3542,-4.3911,-1.3350,0.6899,-2.9531,-2.5373,-0.5154,-5.3841,-1.6121
1101.5625,3.8207,4.3299,4.3158,5.0555,6.1336,8.3592,4.9565,0.0470,2.4141,2.0717,-0.6766,0.8655,3.4214,4.6848,0.0093,0.0777,0.7823,1.0239,5.3734
1105.4688,5.9343,8.7185,9.4824,8.1502,8.8863,9.1542,6.6626,0.7059,7.7232,3.9784,5.3399,5.0622,7.8170,6.9047,3.3182,2.2962,2.0556,7.0732,11.5721
1109.3750,7.5849,11.4506,13.2143,8.7660,9.2868,8.5700,7.2010,0.1629,11.4945,5.0923,9.9801,6.9539,10.6165,7.0378,6.1171,3.3368,2.8822,10.9060,15.6886
1113.2812,8.1156,11.6999,14.4111,6.9617,7.5307,6.8354,6.4519,-1.3805,12.4864,5.2082,11.7932,5.9904,10.9119,5.1926,7.6767,2.9792,2.8043,11.2764,16.7086
1117.1875,7.0976,9.4120,12.6468,3.3766,4.2092,4.5331,4.6148,-3.5672,10.3837,4.4019,10.2414,2.5764,8.5755,1.8154,7.6962,1.6157,1.5921,8.0814,14.3707
1121.0938,4.6233,5.3281,8.4233,-1.0520,0.0683,2.3275,2.1583,-5.9422,5.9306,2.9373,5.9910,-2.0751,4.3310,-2.4689,6.4049,-0.0304,-0.5812,2.3835,9.3446
1125.0000,1.3357,0.6290,2.9820,-5.4480,-4.2025,0.6100,-0.3537,-8.0416,0.5590,1.1273,0.6299,-6.4668,-0.5799,-6.9944,4.4081,-1.3422,-3.1584,-4.0816,2.9821
1128.9062,-1.8640,-3.6226,-2.2729,-9.2868,-8.0795,-0.7225,-2.4895,-9.5202,-4.2984,-0.7835,-4.0870,-9.4803,-4.9465,-11.1426,2.3653,-2.1381,-5.4195,-9.6710,-3.2613
1132.8125,-4.2767,-6.9301,-6.4373,-12.5111,-11.2270,-2.1796,-4.1167,-10.2849,-7.8400,-2.6657,-7.0673,-10.8381,-8.0774,-14.4212,0.6946,-2.6990,-6.8050,-13.4993,-8.4352
1136.7188,-5.7417,-9.4488,-9.4714,-15.4292,-13.4942,-4.2935,-5.4107,-10.5567,-10.1365,-4.4700,-8.3121,-11.1099,-10.0020,-16.5672,-0.5273,-3.4931,-7.1739,-15.6840,-12.4000
1140.6250,-6.6232,-11.6684,-12.0359,-18.4401,-14.9194,-7.1577,-6.6870,-10.7917,-11.8701,-6.1323,-8.7001,-11.2583,-11.3077,-17.6394,-1.4329,-4.7850,-6.8556,-17.0709,-15.6599
1144.5312,-7.4451,-13.9055,-14.8907,-21.7048,-15.7176,-10.1945,-8.1447,-11.4579,-13.7473,-7.4784,-9.2743,-11.9883,-12.7121,-18.0073,-2.1200,-6.3858,-6.4564,-18.6018,-18.8279
1148.4375,-8.4173,-15.9436,-18.2295,-24.9293,-16.2039,-12.3395,-9.6739,-12.7602,-15.9465,-8.2017,-10.4936,-13.2970,-14.5941,-18.1738,-2.4907,-7.7118,-6.5167,-20.6792,-22.0604
1152.3438,-9.1880,-17.0701,-21.3898,-27.3973,-16.6466,-12.5753,-10.8560,-14.4694,-17.9409,-7.9619,-11.9289,-14.4970,-16.7296,-18.4874,-2.3005,-8.1205,-7.2032,-22.8825,-24.8240
1156.2500,-9.0182,-16.5077,-23.1514,-28.2708,-17.1131,-10.5201,-11.1760,-15.9763,-18.8008,-6.5791,-12.5849,-14.6892,-18.3746,-18.9094,-1.3792,-7.3134,-8.2065,-24.1957,-26.1561
1160.1562,-7.2918,-13.9737,-22.4632,-27.0245,-17.4057,-6.7199,-10.3318,-16.5698,-17.7917,-4.2192,-11.6096,-13.3668,-18.6593,-19.0023,0.1482,-5.5462,-8.9014,-23.6162,-25.2596
1164.0625,-4.0332,-9.9968,-19.1478,-23.7688,-17.1419,-2.4586,-8.4533,-15.7960,-14.8887,-1.4355,-8.9053,-10.7446,-17.0739,-18.1730,1.8309,-3.5020,-8.6800,-20.7820,-22.0456
1167.9688,-0.0748,-5.7590,-14.1213,-19.2527,-15.9395,0.8258,-6.0828,-13.6901,-10.8769,1.0082,-5.2344,-7.5985,-13.7690,-16.0289,3.1055,-1.8989,-7.2678,-16.2369,-17.2569
1171.8750,3.2752,-2.5214,-8.9664,-14.5085,-13.5995,2.2072,-3.9114,-10.7379,-6.9591,2.4754,-1.7665,-4.7416,-9.4876,-12.6151,3.6261,-1.0747,-4.8523,-11.1687,-12.0771
1175.7812,4.8979,-0.9682,-5.0994,-10.3317,-10.1839,1.6745,-2.4188,-7.5934,-4.1040,2.7745,0.6063,-2.5183,-5.1708,-8.3845,3.4830,-0.8155,-1.9675,-6.7776,-7.4743
1179.6875,4.4721,-0.8687,-3.0433,-6.9107,-5.9685,0.0763,-1.6309,-4.7329,-2.5435,2.2609,1.7261,-0.6782,-1.4802,-3.9363,3.1451,-0.5407,0.7776,-3.6664,-3.7138
1183.5938,2.6613,-1.2712,-2.2497,-3.8471,-1.3335,-1.3371,-1.1461,-2.2673,-1.7364,1.6401,2.1155,1.2923,1.4661,0.2784,3.1519,0.2745,2.9564,-1.6283,-0.3640
1187.5000,0.7612,-1.1129,-1.5663,-0.5592,3.3208,-1.5272,-0.4141,-0.0237,-0.8190,1.5778,2.4988,3.6442,3.9907,4.0833,3.7573,1.7192,4.4315,0.0564,3.2232
1191.4062,0.0114,0.1335,-0.0341,3.2007,7.5959,-0.1327,0.9056,2.1830,0.7586,2.3516,3.2648,6.0628,6.4849,7.4771,4.7710,3.3657,5.2835,2.0391,7.3053
1195.3125,0.9646,2.1785,2.5042,7.0725,11.0985,2.4116,2.7259,4.3006,2.8405,3.7532,4.2479,7.8348,9.0446,10.4322,5.7055,4.5468,5.6548,4.4408,11.4545
1199.2188,3.2561,4.1632,5.3605,10.2613,13.4924,5.1277,4.5853,6.0071,4.6864,5.2857,4.9497,8.3782,11.3693,12.7815,6.1220,4.8084,5.6365,6.8180,14.7912
1203.1250,5.8728,5.2587,7.5195,12.0500,14.6146,6.9706,5.9281,6.9275,5.5257,6.5021,5.0004,7.7351,12.9813,14.2926,5.9310,4.2282,5.2718,8.5485,16.5796
1207.0312,7.7327,5.2166,8.3421,12.2992,14.5870,7.3018,6.4251,6.9424,5.1567,7.2474,4.4986,6.6375,13.5791,14.8556,5.4360,3.3802,4.6412,9.3335,16.7529
1210.9375,8.2343,4.5106,7.9742,11.5747,13.8130,6.1514,6.1365,6.3519,4.1602,7.6515,3.9766,6.0594,13.2513,14.6056,5.0992,2.9604,3.9280,9.4343,15.9818
1214.8438,7.4874,3.9896,7.1955,10.7892,12.8070,4.1679,5.4264,5.7491,3.5487,7.9123,4.0200,6.5535,12.3904,13.8501,5.2011,3.3243,3.3755,9.4648,15.2227
1218.7500,6.1446,4.2830,6.8329,10.5866,11.9237,2.2949,4.7060,5.6660,4.0676,8.0581,4.8192,7.8441,11.3851,12.8385,5.6414,4.2488,3.1426,9.8957,15.0580
1222.6562,4.9757,5.3578,7.1567,10.8831,11.1485,1.3287,4.1849,6.2208,5.6207,7.8818,5.9750,8.9781,10.3373,11.5540,6.0115,5.0765,3.1580,10.6400,15.2875
1226.5625,4.4448,6.5123,7.6767,10.8860,10.0943,1.5596,3.7889,7.0095,7.2301,7.0926,6.6928,8.9432,9.0222,9.7050,5.8733,5.1407,3.0961,11.0363,15.0555
1230.4688,4.5096,6.7996,7.4697,9.5919,8.2253,2.6568,3.2777,7.3263,7.5930,5.5632,6.2378,7.3302,7.1160,6.9479,5.0360,4.1819,2.5257,10.2572,13.4170
1234.3750,4.7153,5.5991,5.8089,6.4452,5.1829,3.8419,2.4588,6.5784,5.8932,3.4770,4.3535,4.5874,4.5054,3.1923,3.6386,2.4855,1.1616,7.8669,9.9534
1238.2812,4.4944,2.9803,2.6670,1.7362,1.0225,4.2652,1.3399,4.6338,2.3476,1.2674,1.3917,1.7092,1.4397,-1.2283,2.0061,0.6694,-0.9311,4.1531,5.0337
1242.1875,3.4974,-0.3401,-1.2269,-3.5010,-3.7644,3.4069,0.1226,1.8956,-1.8644,-0.5992,-1.8987,-0.4032,-1.5784,-5.6379,0.4139,-0.7048,-3.3123,0.0216,-0.4047
1246.0938,1.7890,-3.3776,-4.7847,-7.9965,-8.4249,1.3207,-0.9374,-0.9212,-5.2360,-1.8352,-4.7592,-1.4588,-4.0573,-9.2896,-1.0488,-1.4249,-5.3455,-3.4497,-5.3466
1250.0000,-0.1702,-5.3398,-7.1190,-10.8175,-12.1858,-1.3850,-1.6833,-3.1410,-6.7228,-2.3993,-6.7386,-1.8327,-5.7182,-11.6382,-2.4230,-1.6428,-6.4770,-5.4878,-9.0906
1253.9062,-1.7322,-5.9071,-7.8994,-11.6628,-14.4285,-3.8103,-2.1072,-4.3832,-6.1995,-2.4109,-7.7726,-2.1666,-6.4932,-12.4522,-3.7034,-1.6475,-6.4550,-5.8461,-11.3108
1257.8125,-2.3570,-5.2374,-7.3212,-10.7676,-14.7568,-5.1482,-2.2701,-4.5967,-4.3457,-2.0174,-8.0401,-2.8372,-6.3657,-11.7464,-4.7104,-1.5997,-5.3777,-4.7052,-11.8535
1261.7188,-1.8626,-3.7807,-5.7979,-8.5811,-13.0175,-5.0209,-2.1779,-3.9183,-2.1131,-1.3393,-7.7454,-3.6791,-5.2451,-9.6574,-5.1411,-1.4365,-3.5760,-2.4236,-10.5521
1265.6250,-0.5209,-2.0699,-3.6648,-5.5032,-9.3512,-3.6242,-1.7308,-2.5157,-0.1766,-0.5182,-6.9955,-4.1376,-3.0297,-6.3976,-4.7750,-1.0003,-1.4361,0.6183,-7.3018
1269.5312,1.0450,-0.5937,-1.1244,-1.8600,-4.2715,-1.6256,-0.8078,-0.5462,1.2762,0.2142,-5.8343,-3.7105,0.1657,-2.3214,-3.6828,-0.2639,0.7175,3.9786,-2.3755
1273.4375,2.1222,0.2562,1.5767,1.9396,1.3288,0.1385,0.5724,1.7647,2.3521,0.5576,-4.3700,-2.3410,3.8240,2.0049,-2.2667,0.5471,2.6352,7.0323,3.3067
1277.3438,2.2152,0.2388,3.9647,5.2891,6.3536,1.0314,2.1475,4.0415,3.0992,0.2804,-2.8604,-0.4901,7.0968,5.8661,-1.0841,1.0449,4.1025,8.9847,8.2820
1281.2500,1.2568,-0.6472,5.3945,7.5053,9.8680,0.8867,3.4756,5.8055,3.3246,-0.6219,-1.6649,1.1423,9.1692,8.6370,-0.5643,0.9217,4.9397,9.1401,11.1080
1285.1562,-0.3823,-2.0946,5.3878,8.1663,11.4892,0.0526,4.1560,6.6704,2.7425,-1.8862,-1.0824,2.0315,9.7126,10.0725,-0.8043,0.1647,5.0837,7.3116,11.1129
1289.0625,-2.0950,-3.5405,4.0323,7.4370,11.5651,-0.8180,4.0710,6.5683,1.3165,-3.1217,-1.1853,2.0938,9.1107,10.4434,-1.5721,-0.9156,4.6960,4.0833,8.8542
1292.9688,-3.3494,-4.3870,2.1095,6.1004,10.9823,-1.1307,3.4727,5.8308,-0.5187,-4.0463,-1.7740,1.6458,8.2650,10.3868,-2.4909,-1.8613,4.1803,0.6765,5.9326
1296.8750,-3.9444,-4.3026,0.7684,5.1926,10.6654,-0.6825,2.8315,5.0300,-1.9901,-4.6466,-2.4910,1.1219,8.0665,10.5276,-3.2624,-2.3232,4.0366,-1.5921,4.1914
1300.7812,-4.0701,-3.4235,0.8811,5.4162,11.0421,0.2211,2.5245,4.6509,-2.4322,-5.1336,-3.0257,0.7651,8.8581,11.0962,-3.7738,-2.2255,4.5946,-1.9772,4.7351
1304.6875,-4.1402,-2.3037,2.4779,6.6923,11.7989,0.9372,2.5694,4.7954,-1.7414,-5.7218,-3.2729,0.5004,10.2353,11.7893,-4.0453,-1.7486,5.7882,-0.7020,7.3349
1308.5938,-4.4991,-1.6109,4.6510,8.1552,12.0895,0.8567,2.5971,5.1132,-0.4985,-6.4018,-3.3411,0.0588,11.3128,11.9666,-4.1001,-1.1705,7.1397,1.1738,10.5694
1312.5000,-5.1861,-1.7406,6.0367,8.6244,11.0766,-0.2367,2.1023,5.0124,0.3621,-6.8941,-3.4133,-0.7534,11.2825,11.0617,-3.8904,-0.6958,8.0020,2.3492,12.6093
1316.4062,-5.9069,-2.5913,5.6011,7.2822,8.4746,-2.0345,0.8215,4.0234,0.1347,-6.8388,-3.5685,-1.8309,9.9047,8.9462,-3.3501,-0.3816,7.9313,1.9888,12.1860
1320.3125,-6.2355,-3.6495,3.2444,4.1475,4.7568,-3.8783,-1.0204,2.0878,-1.2181,-6.0930,-3.7044,-2.7510,7.6318,6.0255,-2.5222,-0.1840,6.9540,0.1243,9.2022
1324.2188,-5.9220,-4.3357,-0.1552,0.0625,0.9043,-5.1372,-2.7792,-0.3982,-3.0720,-4.9155,-3.6252,-2.9882,5.3116,3.0204,-1.6355,-0.0560,5.5445,-2.4661,4.6874
1328.1250,-5.1055,-4.3907,-3.2785,-3.7835,-2.1367,-5.5492,-3.7611,-2.7985,-4.5899,-3.8867,-3.2338,-2.2468,3.6832,0.5845,-1.0325,-0.0075,4.3174,-4.7902,0.1904
1332.0312,-4.2830,-4.0499,-5.1317,-6.4874,-3.9464,-5.3172,-3.6671,-4.5625,-5.3020,-3.5971,-2.6764,-0.7152,2.9842,-1.0069,-0.9717,-0.0876,3.6342,-6.2315,-3.0033
1335.9375,-4.0375,-3.8935,-5.5608,-7.8342,-4.7758,-4.9073,-2.8223,-5.4629,-5.4141,-4.2996,-2.3086,0.9275,2.8906,-1.9246,-1.4355,-0.3137,3.3923,-6.8347,-4.4070
1339.8438,-4.6822,-4.4663,-5.2167,-8.2536,-5.2825,-4.6967,-2.0201,-5.6264,-5.6313,-5.7503,-2.4777,1.7953,2.7812,-2.6002,-2.0935,-0.6167,3.1399,-7.1445,-4.3945
1343.7500,-6.0435,-5.9063,-5.0380,-8.4072,-6.0523,-4.7112,-2.0592,-5.3798,-6.6237,-7.3343,-3.2595,1.2445,2.1328,-3.4212,-2.4728,-0.8518,2.4345,-7.7480,-3.8465
1347.6562,-7.5230,-7.8129,-5.6188,-8.7114,-7.2204,-4.6267,-3.2467,-5.0381,-8.5029,-8.3921,-4.3428,-0.7469,0.7984,-4.4926,-2.2430,-0.8751,1.1880,-8.8440,-3.6334
1351.5625,-8.4084,-9.4309,-6.8637,-9.1075,-8.4189,-4.0220,-5.1763,-4.7690,-10.6691,-8.5419,-5.1685,-3.5001,-0.9686,-5.5851,-1.4339,-0.6430,-0.2506,-10.1173,-4.2107
1355.4688,-8.2471,-10.0352,-8.1158,-9.1995,-9.0508,-2.6974,-6.9205,-4.5829,-12.1283,-7.8164,-5.2523,-5.9275,-2.7136,-6.2743,-0.4361,-0.2714,-1.3339,-10.9733,-5.4831
1359.3750,-7.0590,-9.2887,-8.6209,-8.6211,-8.6891,-0.8356,-7.5275,-4.4074,-12.0683,-6.5634,-4.4822,-7.0557,-4.0482,-6.1765,0.2310,-0.0111,-1.7007,-10.9463,-6.9353
1363.2812,-5.2701,-7.3788,-8.0048,-7.3528,-7.3382,1.1009,-6.5313,-4.1613,-10.3233,-5.2049,-3.1836,-6.4894,-4.8188,-5.1506,0.2444,-0.1324,-1.4241,-9.9967,-7.9150
1367.1875,-3.4300,-4.8829,-6.4676,-5.7636,-5.4070,2.6506,-4.1855,-3.7807,-7.4501,-4.0135,-1.9029,-4.5483,-5.0948,-3.3722,-0.3089,-0.7640,-0.9364,-8.5053,-7.9247
1371.0938,-1.9089,-2.4712,-4.6181,-4.3617,-3.4391,3.6026,-1.3073,-3.2073,-4.4066,-3.0311,-1.0607,-2.0114,-5.0188,-1.2594,-0.9738,-1.7640,-0.6864,-6.9924,-6.8085
1375.0000,-0.7704,-0.6315,-3.0950,-3.4394,-1.7941,4.0419,1.1533,-2.3869,-2.0666,-2.1506,-0.7253,0.3523,-4.6403,0.7010,-1.2124,-2.7113,-0.7806,-5.7722,-4.7795
1378.9062,0.1197,0.4456,-2.2258,-2.8658,-0.4839,4.1720,2.5625,-1.3041,-0.8688,-1.2833,-0.6632,2.1575,-3.8539,2.1393,-0.7650,-3.0600,-0.8796,-4.7833,-2.2958
1382.8125,0.8567,0.8042,-1.9035,-2.1663,0.7491,4.0719,2.8325,-0.0284,-0.7613,-0.4954,-0.6139,3.4557,-2.4867,2.9190,0.1407,-2.4107,-0.4364,-3.6985,0.1516
1386.7188,1.3310,0.5816,-1.7098,-0.8319,2.1860,3.5898,2.3479,1.2796,-1.3863,-0.0203,-0.5547,4.4822,-0.4809,3.1414,0.8777,-0.7619,0.8853,-2.2154,2.2390
1390.6250,1.2720,-0.0877,-1.1753,1.3470,3.8925,2.4750,1.6799,2.4303,-2.3182,-0.1315,-0.7252,5.3331,1.9512,3.0536,0.7784,1.4180,2.9089,-0.3099,3.8977
1394.5312,0.4776,-1.0630,-0.0318,4.1306,5.6360,0.6597,1.2751,3.3044,-3.1949,-0.9394,-1.3719,5.8415,4.3162,2.9169,-0.4359,3.3803,4.9775,1.7238,5.2434
1398.4375,-0.9418,-2.1262,1.6499,6.9356,7.0032,-1.5217,1.2788,3.9140,-3.7256,-2.2360,-2.4142,5.7450,6.0048,2.9028,-2.4150,4.4712,6.3064,3.4598,6.3895
1402.3438,-2.5040,-2.9551,3.4703,9.1079,7.6291,-3.3658,1.5517,4.3689,-3.6743,-3.5012,-3.3274,4.9927,6.5596,3.0585,-4.2985,4.4807,6.4257,4.6002,7.2674
1406.2500,-3.5558,-3.2133,4.8435,10.1892,7.3919,-4.1074,1.8245,4.7606,-2.9162,-4.1094,-3.3995,3.9175,5.9025,3.3365,-5.1535,3.7443,5.4281,5.1165,7.5882
1410.1562,-3.6278,-2.7295,5.2265,10.0444,6.4624,-3.3285,1.8830,5.0479,-1.5549,-3.6556,-2.2272,3.1038,4.3905,3.6506,-4.4949,2.9210,3.8808,5.1880,6.9995
1414.0625,-2.7167,-1.6448,4.3627,8.8310,5.1925,-1.2177,1.6847,5.0393,0.0200,-2.2212,-0.1001,3.0278,2.6652,3.9178,-2.5803,2.5825,2.4863,5.0151,5.3629
1417.9688,-1.3069,-0.4015,2.4429,6.8837,3.9207,1.4897,1.3639,4.5037,1.2536,-0.3986,2.0477,3.7368,1.3763,4.0690,-0.2860,2.8836,1.7255,4.6765,2.9727
1421.8750,-0.1088,0.4560,0.0861,4.6034,2.8119,3.8610,1.1370,3.3410,1.7108,0.9855,3.1483,4.8135,0.9244,4.0435,1.3817,3.5306,1.6920,4.1440,0.5431
1425.7812,0.3264,0.5635,-1.8975,2.3788,1.8101,5.1992,1.1638,1.6916,1.3553,1.3194,2.6636,5.6501,1.3426,3.7913,1.8581,4.0540,2.1717,3.4176,-1.0830
1429.6875,-0.1215,-0.0791,-2.8841,0.5156,0.7150,5.3179,1.4326,-0.1085,0.6070,0.5668,0.9477,5.8229,2.3491,3.2921,1.3260,4.1721,2.8568,2.6271,-1.3745
1433.5938,-1.1350,-1.1495,-2.7688,-0.8518,-0.6766,4.5255,1.7345,-1.7087,0.0860,-0.7043,-0.9669,5.2885,3.5049,2.5731,0.5641,3.9708,3.5242,1.9696,-0.4521
1437.5000,-2.1952,-2.2440,-2.0551,-1.8365,-2.4429,3.3742,1.7513,-2.9479,0.1793,-1.6680,-2.0361,4.2829,4.3798,1.7005,0.4276,3.7713,4.0781,1.5048,0.8961
1441.4062,-2.8892,-3.1476,-1.6095,-2.7870,-4.4852,2.3546,1.2241,-3.9411,0.7197,-1.7621,-1.8806,3.0485,4.6592,0.7359,1.2885,3.8058,4.4781,0.9854,1.5697
1445.3125,-3.0961,-3.9346,-2.1884,-4.1354,-6.5672,1.7140,0.1175,-4.9845,1.0252,-1.0485,-1.0070,1.6427,4.1857,-0.3197,2.7934,3.9735,4.6490,-0.0880,0.7151
1449.2188,-2.9618,-4.8246,-3.9946,-6.1454,-8.4199,1.4621,-1.3229,-6.3396,0.3151,-0.1666,-0.4228,-0.0124,2.9675,-1.5504,4.0924,3.8879,4.4559,-2.1478,-1.8199
1453.1250,-2.7229,-5.9032,-6.5250,-8.7011,-9.8582,1.4988,-2.6691,-8.0370,-1.7448,0.1035,-0.9172,-1.9093,1.1749,-3.0879,4.3870,3.1909,3.7521,-5.1677,-5.3886
1457.0312,-2.5215,-6.9331,-8.8112,-11.2832,-10.8533,1.7368,-3.5242,-9.8255,-4.7297,-0.6177,-2.5084,-3.7941,-0.8844,-5.0191,3.4407,1.8879,2.4570,-8.4889,-8.8639
1460.9375,-2.3317,-7.4229,-9.9144,-13.1790,-11.5176,2.1377,-3.7235,-11.2905,-7.5946,-2.0257,-4.4302,-5.2469,-2.8297,-7.2839,1.7279,0.4287,0.6140,-11.0463,-11.1841
1464.8438,-2.0146,-6.9328,-9.3872,-13.8194,-12.0023,2.6710,-3.3956,-12.0592,-9.1979,-3.2986,-5.6424,-5.9633,-4.3058,-9.6219,0.1422,-0.5514,-1.5856,-11.9010,-11.8177
1468.7500,-1.4337,-5.4085,-7.4385,-13.0421,-12.3522,3.2671,-2.8400,-11.9612,-8.8871,-3.6022,-5.4855,-6.0011,-5.0782,-11.6082,-0.5287,-0.6499,-3.8083,-10.7562,-10.8999
1472.6562,-0.5394,-3.2910,-4.7357,-11.1253,-12.4062,3.8217,-2.3046,-11.0659,-6.7966,-2.5967,-4.0287,-5.7621,-5.0756,-12.7775,-0.0180,0.0325,-5.6212,-8.1192,-9.0129
1476.5625,0.6114,-1.3007,-2.0029,-8.5926,-11.8249,4.2455,-1.8263,-9.6053,-3.7065,-0.6202,-1.9112,-5.6951,-4.3750,-12.7967,1.3514,0.9685,-6.6004,-5.0054,-6.7967
1480.4688,1.8802,-0.0271,0.3157,-5.9386,-10.2686,4.5018,-1.2519,-7.8590,-0.5980,1.5445,0.1437,-5.9522,-3.1637,-11.6198,2.9361,1.5608,-6.5088,-2.3897,-4.6583
1484.3750,3.0719,0.3973,2.1328,-3.4660,-7.6531,4.5833,-0.4286,-6.0738,1.7900,3.1339,1.7482,-6.2882,-1.7222,-9.5564,4.1521,1.5070,-5.4766,-0.7713,-2.7390
1488.2812,3.9522,0.3127,3.5421,-1.3131,-4.3303,4.4461,0.5864,-4.4359,3.1545,3.7814,2.9089,-6.2980,-0.4252,-7.2089,4.7107,0.9137,-4.0536,-0.1090,-1.0906
1492.1875,4.2850,0.2323,4.5689,0.4060,-1.0509,3.9711,1.4732,-3.0637,3.5387,3.5913,3.7539,-5.7987,0.2985,-5.2760,4.6111,0.1119,-3.0260,-0.0934,0.1413
1496.0938,3.9180,0.4502,5.0626,1.5127,1.3265,3.0189,1.8199,-1.9905,3.1263,2.9298,4.2263,-5.0229,0.1066,-4.2852,3.9870,-0.6344,-3.0264,-0.4807,0.7149
1500.0000,2.8910,0.8437,4.8113,1.8308,2.2514,1.5646,1.4115,-1.1482,2.1236,2.1396,4.0538,-4.4370,-1.0422,-4.3667,2.9925,-1.2712,-4.1331,-1.2050,0.4912
1503.9062,1.4914,1.0110,3.7777,1.3596,1.7871,-0.1816,0.4240,-0.3930,0.7980,1.3937,3.0443,-4.3150,-2.7343,-5.1864,1.8248,-1.8469,-5.7311,-2.2123,-0.3382
1507.8125,0.1824,0.6324,2.2526,0.3878,0.5988,-1.7836,-0.6390,0.4003,-0.4398,0.7481,1.4467,-4.4314,-4.1734,-6.0979,0.8107,-2.2903,-6.7853,-3.2220,-1.2194
1511.7188,-0.5981,-0.2239,0.7775,-0.5915,-0.4048,-2.7586,-1.2474,1.2167,-1.0816,0.2757,0.0168,-4.1663,-4.5330,-6.4579,0.3940,-2.3204,-6.4246,-3.7009,-1.4931
1515.6250,-0.6693,-1.0910,-0.1329,-1.1462,-0.5894,-2.8397,-1.1858,1.8436,-0.7576,0.1132,-0.3618,-2.9899,-3.4390,-5.9480,0.9305,-1.6214,-4.4973,-3.1546,-0.8011
1519.5312,-0.2277,-1.4102,-0.2858,-1.1703,0.0383,-2.1587,-0.6925,1.9488,0.4686,0.3536,0.7088,-0.9623,-1.2823,-4.7217,2.3901,-0.1671,-1.7332,-1.5472,0.6426
1523.4375,0.2353,-0.9418,0.0889,-0.9435,0.8494,-1.2121,-0.2883,1.2761,1.9862,0.8845,2.7390,1.1651,0.8938,-3.2882,4.2016,1.5896,0.6300,0.4994,2.1392
1527.3438,0.1886,0.0155,0.5065,-0.9171,0.9947,-0.6080,-0.4110,-0.1638,2.8568,1.3393,4.5064,2.3744,1.9377,-2.1999,5.4309,2.8781,1.5529,1.9521,2.9286
1531.2500,-0.6539,0.7610,0.5505,-1.3775,-0.0587,-0.7326,-1.1138,-2.0529,2.2955,1.2537,4.7368,2.0480,1.2690,-1.7418,5.2596,3.0659,0.7978,1.9532,2.6708
1535.1562,-2.1840,0.6078,0.1218,-2.2433,-2.2013,-1.5388,-2.0446,-3.9290,0.1302,0.3458,2.8892,0.3856,-0.7420,-1.8208,3.4864,2.0995,-0.9519,0.3598,1.6412
1539.0625,-3.9634,-0.6910,-0.5614,-3.1682,-4.7743,-2.5825,-2.7208,-5.4629,-3.0617,-1.2787,-0.4825,-1.7472,-2.9746,-2.1219,0.7068,0.5863,-2.5338,-2.1551,0.4844
1542.9688,-5.4529,-2.7731,-1.2057,-3.8844,-7.0152,-3.2804,-2.8989,-6.6567,-6.2495,-3.1570,-4.0533,-3.4329,-4.2501,-2.4140,-1.9884,-0.5824,-3.0219,-4.5368,-0.3143
1546.8750,-6.2621,-4.8581,-1.7405,-4.5180,-8.5529,-3.2285,-2.7683,-7.8096,-8.5077,-4.7306,-6.5287,-4.3214,-4.0918,-2.7802,-3.6326,-0.8264,-2.2646,-6.0278,-0.8539
1550.7812,-6.2866,-6.1692,-2.4346,-5.6004,-9.6148,-2.3931,-2.8282,-9.2575,-9.4921,-5.6596,-7.3949,-4.7985,-3.0568,-3.5976,-3.9256,-0.2702,-0.9225,-6.6217,-1.8113
1554.6875,-5.6831,-6.3342,-3.7223,-7.7107,-10.8014,-1.0808,-3.5313,-11.0575,-9.5465,-5.9730,-7.1217,-5.5990,-2.4074,-5.2669,-3.3392,0.3532,-0.0203,-6.9785,-3.9667
1558.5938,-4.7337,-5.5409,-5.8410,-10.9671,-12.5785,0.2654,-4.9477,-12.8468,-9.3934,-5.9615,-6.7094,-7.1810,-3.3193,-7.8726,-2.7205,0.2279,-0.3216,-7.8756,-7.5701
1562.5000,-3.7027,-4.3893,-8.5300,-14.7317,-14.8292,1.2951,-6.6783,-13.9915,-9.6311,-5.9112,-6.9235,-9.3474,-6.1217,-11.0086,-2.6762,-0.9632,-1.9157,-9.5979,-11.9890
1566.4062,-2.7619,-3.5507,-11.0250,-17.7821,-16.7753,1.8686,-8.0710,-13.9452,-10.3619,-5.8902,-7.7648,-11.3853,-10.0480,-13.8997,-3.1746,-2.8149,-4.2262,-11.7011,-15.9093
1570.3125,-1.9990,-3.4370,-12.3908,-18.8984,-17.3417,2.0165,-8.5837,-12.5832,-11.1763,-5.7499,-8.5388,-12.5883,-13.6422,-15.7530,-3.6427,-4.4874,-6.3741,-13.3050,-17.9915
1574.2188,-1.4713,-4.0466,-12.0175,-17.5289,-15.7554,1.8078,-8.0556,-10.2959,-11.4717,-5.3283,-8.4515,-12.7413,-15.5603,-16.1314,-3.4773,-5.2914,-7.6373,-13.6925,-17.5842
1578.1250,-1.2475,-5.0399,-9.9837,-14.1258,-12.0250,1.2418,-6.7361,-7.7798,-10.8807,-4.6796,-7.2869,-12.2089,-15.2806,-15.1373,-2.5856,-5.1482,-7.7495,-12.7918,-15.0578
1582.0312,-1.4112,-5.9742,-7.0682,-9.9396,-7.0197,0.2494,-5.0970,-5.6683,-9.5321,-4.1311,-5.6686,-11.6014,-13.3245,-13.3224,-1.5425,-4.6064,-6.9301,-11.2201,-11.5744
1585.9375,-2.0233,-6.5538,-4.3957,-6.3924,-2.1040,-1.2018,-3.5905,-4.2337,-7.9916,-4.0948,-4.7081,-11.3168,-10.9057,-11.4031,-1.2278,-4.4171,-5.7018,-9.8878,-8.4657
1589.8438,-3.0701,-6.7610,-2.9176,-4.3974,1.4676,-2.9798,-2.5065,-3.3288,-6.9332,-4.7589,-5.2746,-11.3196,-9.2506,-9.9463,-2.1865,-4.9821,-4.6274,-9.4466,-6.6068
1593.7500,-4.4248,-6.8062,-3.0061,-3.9994,3.0767,-4.7425,-1.9707,-2.5642,-6.7449,-5.8864,-7.3816,-11.2864,-8.9793,-9.1693,-4.1684,-6.0605,-4.0802,-9.9353,-6.1215
1597.6562,-5.8465,-6.9376,-4.3501,-4.4932,2.9379,-6.0269,-2.0034,-1.5748,-7.2950,-6.8898,-10.1028,-10.9327,-9.8482,-8.9019,-6.1938,-6.9240,-4.1036,-10.8055,-6.5073
1601.5625,-7.0277,-7.2308,-6.1600,-4.8900,1.9018,-6.4445,-2.5329,-0.2040,-7.9816,-7.1587,-12.0707,-10.2123,-10.9284,-8.6853,-7.1268,-6.8369,-4.3877,-11.2511,-7.0052
1605.4688,-7.6793,-7.4908,-7.5287,-4.4318,0.9981,-5.8768,-3.3415,1.4740,-8.0275,-6.4306,-12.2261,-9.2261,-11.0825,-7.9525,-6.3797,-5.5252,-4.3857,-10.6079,-6.9508
1609.3750,-7.6187,-7.3337,-7.7611,-2.8857,0.9569,-4.5563,-4.0255,3.2471,-6.8607,-4.9483,-10.3447,-7.9657,-9.4948,-6.2466,-4.2700,-3.3335,-3.5618,-8.6101,-5.9475
1613.2812,-6.8136,-6.4072,-6.5590,-0.5286,1.9225,-2.9683,-4.0778,4.8701,-4.3834,-3.2818,-7.0417,-6.1760,-6.0329,-3.4332,-1.7841,-0.9910,-1.6887,-5.4309,-3.8801
1617.1875,-5.3571,-4.6164,-4.0578,2.0771,3.4660,-1.6127,-3.1147,6.1104,-1.0054,-1.9214,-3.3109,-3.5212,-1.3092,0.1662,0.0944,0.8310,0.9607,-1.5687,-0.8866
1621.0938,-3.3907,-2.2113,-0.7708,4.3382,4.8546,-0.7502,-1.1331,6.7503,2.5609,-0.9176,0.0525,0.0475,3.5642,3.8105,1.0310,1.8807,3.6759,2.3233,2.6341
1625.0000,-1.0409,0.3178,2.5229,5.7889,5.4341,-0.2824,1.3848,6.6032,5.6242,0.1679,2.7675,4.0321,7.4270,6.5903,1.5210,2.3909,5.6446,5.6046,6.0231
1628.9062,1.5740,2.4723,4.9550,6.1416,4.9375,0.1524,3.6366,5.5809,7.7827,1.9369,4.9704,7.5032,9.5376,7.8250,2.4808,2.8429,6.3927,7.8033,8.4804
1632.8125,4.2623,3.9546,5.8266,5.2979,3.5853,0.9148,4.8823,3.7780,9.0090,4.6526,6.8573,9.5776,9.8511,7.4152,4.5347,3.6053,6.0564,8.7462,9.3456
1636.7188,6.6811,4.7345,4.8976,3.3783,1.9419,2.0891,4.8329,1.4998,9.5334,7.9018,8.3882,9.9463,8.9707,5.9350,7.4927,4.6823,5.2857,8.6171,8.4368
1640.6250,8.3654,4.9614,2.5770,0.7643,0.6159,3.3806,3.8080,-0.8150,9.6287,10.6860,9.2868,9.0747,7.7945,4.3669,10.3845,5.7163,4.8194,7.8885,6.2352
1644.5312,8.9101,4.8177,-0.1391,-1.9186,-0.0348,4.2683,2.5520,-2.7485,9.4474,11.9377,9.3184,7.9109,7.0423,3.5947,12.0382,6.2273,5.0022,7.1236,3.7492
1648.4375,8.2226,4.4360,-2.0337,-3.9385,-0.0391,4.3308,1.8110,-4.0487,9.0092,11.1662,8.5995,7.2896,6.9238,3.9343,11.8218,5.9305,5.5745,6.7299,2.0701
1652.3438,6.6759,3.9233,-2.2113,-4.7053,0.2692,3.5383,1.9200,-4.6821,8.3185,8.8227,7.6586,7.4271,7.1283,4.9823,10.0542,4.9342,5.8852,6.7954,1.8437
1656.2500,5.0125,3.4300,-0.5456,-4.0256,0.4909,2.3089,2.6472,-4.7763,7.4914,6.1190,7.1597,7.8413,7.1208,5.8770,7.8141,3.6978,5.3818,7.0942,2.9562
1660.1562,4.0036,3.1591,2.2371,-2.2197,0.4094,1.2768,3.3822,-4.5078,6.7699,4.3779,7.4639,7.7302,6.5411,5.8163,6.2758,2.7731,4.0330,7.2508,4.6283
1664.0625,4.0474,3.2693,4.9245,-0.0054,0.1060,0.9133,3.5452,-4.0112,6.3951,4.2926,8.3501,6.5441,5.4487,4.5169,6.0089,2.4853,2.3840,6.9587,5.8697
1667.9688,4.9591,3.7435,6.4588,1.8253,-0.1120,1.2485,2.9630,-3.3539,6.4337,5.5543,9.1211,4.3784,4.2698,2.3505,6.6881,2.7474,1.2107,6.1289,6.0386
1671.8750,6.1019,4.3453,6.4941,2.7829,0.0875,1.8791,1.9815,-2.5610,6.7003,7.0765,9.0517,1.9573,3.5073,0.0989,7.3790,3.1297,1.0181,4.9104,5.1868
1675.7812,6.7783,4.7341,5.5396,2.9064,0.8580,2.2522,1.2493,-1.6480,6.8477,7.6725,7.8800,0.2421,3.4198,-1.4939,7.1830,3.1456,1.7338,3.5986,4.0013
1679.6875,6.6212,4.6701,4.5966,2.6973,2.0797,2.0247,1.3020,-0.6391,6.5661,6.7510,5.9942,-0.0908,3.8753,-2.0926,5.8054,2.5740,2.7901,2.4993,3.3834
1683.5938,5.7283,4.1519,4.4990,2.7811,3.4118,1.2522,2.1981,0.4211,5.7402,4.5996,4.1722,0.9852,4.4475,-1.8649,3.6914,1.6079,3.5125,1.8014,3.9081
1687.5000,4.4703,3.3654,5.3588,3.4807,4.4484,0.2887,3.4264,1.4436,4.4474,2.1067,3.0434,2.8128,4.6676,-1.2910,1.6828,0.7252,3.5313,1.4907,5.4640
1691.4062,3.1518,2.4795,6.4587,4.5579,4.8936,-0.5079,4.1510,2.2682,2.8180,0.1488,2.6528,4.3485,4.2668,-0.8452,0.4647,0.3631,2.9510,1.3261,7.2721
1695.3125,1.8039,1.4666,6.6681,5.3014,4.6788,-1.0340,3.6643,2.6773,0.9011,-0.9262,2.4446,4.6493,3.2910,-0.7496,0.1834,0.6180,2.2133,0.9124,8.2774
1699.2188,0.2736,0.1300,5.1423,4.9380,3.9842,-1.4699,1.7998,2.4848,-1.3175,-1.3900,1.6923,3.3399,2.0653,-0.9138,0.4619,1.1833,1.8013,-0.1117,7.7120
1703.1250,-1.4751,-1.6445,1.8896,3.1437,3.1639,-2.0703,-0.9261,1.6789,-3.7339,-1.7854,0.0810,0.8537,1.0657,-1.0449,0.7476,1.5737,2.0049,-1.8183,5.5371
1707.0312,-3.1175,-3.5997,-2.1282,0.3476,2.6032,-2.8887,-3.5263,0.5281,-5.9373,-2.4336,-1.9747,-1.6823,0.7607,-0.8239,0.7086,1.4845,2.8648,-3.8008,2.5327
1710.9375,-4.0194,-5.0434,-5.4226,-2.3741,2.5580,-3.6544,-4.9975,-0.4511,-7.2227,-3.1666,-3.5202,-2.9092,1.4611,-0.0468,0.4005,1.0308,4.2519,-5.2096,-0.0221
1714.8438,-3.5916,-5.1346,-6.6917,-3.7833,3.0439,-3.9024,-4.7785,-0.6990,-6.8868,-3.4627,-3.6519,-1.8671,3.2030,1.3174,0.1219,0.6904,5.9589,-5.0782,-0.9236
1718.7500,-1.7065,-3.3811,-5.4240,-3.0862,3.8345,-3.2670,-2.9749,0.0966,-4.6628,-2.8535,-2.1177,1.5026,5.7024,3.1391,0.1161,0.9863,7.7271,-2.8210,0.4115
1722.6562,1.1338,-0.0201,-2.0866,-0.3287,4.5853,-1.7332,-0.2547,1.7885,-1.0000,-1.2894,0.4798,6.2641,8.4276,5.1796,0.3656,2.1239,9.2462,1.3689,3.7010
1726.5625,4.0196,3.9999,2.1643,3.6265,5.0294,0.3179,2.5041,3.7800,3.0432,0.7982,3.0178,10.8878,10.7949,7.1567,0.6310,3.8346,10.2126,6.4872,7.9615
1730.4688,6.1041,7.4553,6.0475,7.5102,5.1320,2.2850,4.6032,5.2762,6.2780,2.7535,4.5039,13.9584,12.4087,8.8127,0.6763,5.5237,10.4673,11.1198,11.9746
1734.3750,7.0053,9.4357,8.6748,10.2027,5.0969,3.6179,5.7524,5.6524,7.9556,4.0636,4.6127,14.8065,13.2072,9.9711,0.4817,6.6115,10.1204,14.0758,14.7953
1738.2812,6.8844,9.7123,9.7767,11.1444,5.2064,4.0271,6.0523,4.7427,8.0706,4.5771,3.7698,13.7142,13.4076,10.5637,0.2682,6.8316,9.5256,14.8890,16.0439
1742.1875,6.1920,8.6854,9.5887,10.4290,5.5903,3.5492,5.7989,2.9004,7.2114,4.4609,2.7597,11.5990,13.2742,10.6127,0.3178,6.3032,9.0590,13.9013,15.8715
1746.0938,5.3092,7.0056,8.5455,8.6055,6.0888,2.4912,5.2616,0.8123,6.0819,3.9916,2.1540,9.4040,12.8687,10.1792,0.7390,5.3698,8.8240,11.9122,14.6897
1750.0000,4.3548,5.1748,7.0033,6.3574,6.3233,1.3184,4.5684,-0.8194,5.0374,3.3703,1.9573,7.5917,11.9774,9.3147,1.3643,4.3544,8.5080,9.6544,12.8770
1753.9062,3.2620,3.3992,5.1442,4.2431,5.9489,0.5222,3.7318,-1.5609,3.9535,2.6885,1.6947,6.0450,10.2914,8.0558,1.8573,3.4134,7.5393,7.4530,10.6492
1757.8125,2.0041,1.7298,3.0693,2.5898,4.9240,0.4657,2.7562,-1.3739,2.4942,2.0094,0.8470,4.3864,7.7263,6.4710,1.9435,2.5593,5.4885,5.2645,8.1353
1761.7188,0.7447,0.2954,0.9601,1.5156,3.6035,1.2201,1.7305,-0.5550,0.5521,1.4420,-0.6899,2.4436,4.6463,4.7250,1.5899,1.7820,2.4530,3.0066,5.5440
1765.6250,-0.2169,-0.6192,-0.8399,1.0008,2.5703,2.4669,0.8429,0.4497,-1.4834,1.1148,-2.4425,0.5126,1.8045,3.1023,1.0124,1.1338,-0.8549,0.8799,3.2502
1769.5312,-0.6387,-0.7333,-1.9064,0.9430,2.2979,3.5753,0.3183,1.2532,-2.8456,1.0863,-3.5996,-0.7682,0.0041,1.9439,0.5280,0.7053,-3.4176,-0.5957,1.7014
1773.4375,-0.4852,-0.0306,-1.9459,1.1798,2.8583,3.8913,0.3177,1.6647,-2.8343,1.2990,-3.4897,-0.8395,-0.3190,1.5047,0.3772,0.5322,-4.4511,-0.8852,1.1850
1777.3438,0.0918,1.1151,-1.0146,1.4990,3.8594,3.1221,0.8468,1.7072,-1.2958,1.6454,-1.9953,0.3535,0.6655,1.7940,0.6400,0.5380,-3.8405,0.1262,1.6072
1781.2500,0.8995,2.0771,0.3939,1.6553,4.6484,1.5715,1.7062,1.5216,1.1744,2.0881,0.3366,2.2128,2.2593,2.4902,1.2663,0.5764,-2.2020,1.8853,2.4374
1785.1562,1.8152,2.2886,1.4727,1.4018,4.6483,0.0240,2.5081,1.2235,3.4383,2.6984,2.5301,3.7179,3.5649,3.0054,2.1437,0.5379,-0.5389,3.3173,2.8776
1789.0625,2.7494,1.5132,1.4110,0.5389,3.6268,-0.7136,2.7807,0.8032,4.3238,3.5406,3.6145,3.9088,3.8705,2.7105,3.1155,0.4213,0.2933,3.3200,2.1947
1792.9688,3.5125,-0.0995,-0.2318,-1.0149,1.7678,-0.3418,2.1570,0.1420,3.1646,4.4796,3.0354,2.3667,2.9046,1.2471,3.9459,0.2994,-0.0021,1.3374,0.0651
1796.8750,3.7645,-2.1671,-3.2647,-3.1407,-0.4530,0.6983,0.5888,-0.8514,0.1107,5.1055,0.8714,-0.5478,0.8915,-1.2156,4.3150,0.2116,-1.0853,-2.3077,-3.2212
1800.7812,3.1754,-4.2812,-6.8593,-5.4684,-2.4832,1.4876,-1.5341,-2.0752,-3.9220,4.9091,-2.2064,-3.8184,-1.5520,-3.9383,3.9302,0.0885,-2.2347,-6.5092,-6.8000
1804.6875,1.7216,-6.1172,-9.8428,-7.4277,-3.8908,1.2444,-3.4755,-3.1753,-7.6237,3.6416,-5.1926,-6.2127,-3.6106,-5.8647,2.7321,-0.2090,-2.7572,-9.8599,-9.5232
1808.5938,-0.1337,-7.4276,-11.1886,-8.4404,-4.4916,-0.1229,-4.4777,-3.6818,-9.8237,1.5980,-7.1260,-6.8565,-4.5232,-6.1081,1.0501,-0.7540,-2.3302,-11.2829,-10.4141
1812.5000,-1.5970,-8.0205,-10.4853,-8.2049,-4.4061,-1.9276,-4.1785,-3.2946,-9.9650,-0.4351,-7.4634,-5.6833,-3.8677,-4.4534,-0.4594,-1.4400,-1.1315,-10.5085,-9.1157
1816.4062,-2.0149,-7.8205,-8.1451,-6.9171,-4.0433,-3.1642,-2.8717,-2.1392,-8.3231,-1.6051,-6.3056,-3.5187,-1.8028,-1.5879,-1.1312,-2.0012,0.2674,-8.1710,-6.1280
1820.3125,-1.3474,-6.9811,-5.2201,-5.2559,-3.9836,-3.2052,-1.4030,-0.7893,-5.8564,-1.5329,-4.3642,-1.7021,0.8826,1.1241,-0.7038,-2.1752,1.1690,-5.4765,-2.6799
1824.2188,-0.2663,-5.9088,-2.8944,-4.0757,-4.7445,-2.2383,-0.7034,0.0148,-3.7299,-0.5819,-2.6415,-1.3841,3.0314,2.2736,0.4514,-1.8935,1.0606,-3.5993,-0.2340
1828.1250,0.2604,-5.0921,-1.9044,-3.9458,-6.4979,-1.1288,-1.2184,-0.1912,-2.7236,0.3700,-1.9435,-2.8574,3.6504,1.1304,1.4851,-1.3479,-0.1566,-3.1036,0.1810
1832.0312,-0.3545,-4.8003,-2.2052,-4.8157,-8.8929,-0.8070,-2.6041,-1.2826,-2.8398,0.5240,-2.4657,-5.3332,2.4479,-1.9567,1.5645,-0.8704,-2.1183,-3.6943,-1.5239
1835.9375,-1.8726,-4.8819,-3.0734,-6.0485,-11.1450,-1.6272,-3.9254,-2.6005,-3.3568,-0.2953,-3.6974,-7.3671,0.0287,-5.7492,0.4129,-0.7094,-4.1664,-4.4488,-4.4455
1839.8438,-3.3805,-4.8687,-3.5918,-6.8364,-12.4092,-3.1605,-4.2683,-3.3762,-3.3390,-1.5421,-4.7349,-7.7419,-2.4428,-8.8190,-1.4645,-0.8683,-5.6749,-4.4248,-7.1566
1843.7500,-3.9728,-4.3697,-3.2294,-6.7423,-12.2574,-4.5526,-3.3757,-3.2576,-2.3167,-2.3815,-4.8448,-6.2825,-3.9555,-10.3465,-3.0462,-1.1270,-6.3693,-3.3034,-8.4575
1847.6562,-3.4824,-3.4767,-2.1635,-6.0005,-10.9574,-5.1609,-1.8677,-2.5715,-0.6972,-2.3415,-3.9434,-4.0483,-4.2886,-10.5207,-3.4093,-1.2262,-6.4525,-1.6712,-7.9877
1851.5625,-2.7015,-2.8331,-1.1490,-5.3551,-9.3393,-4.9823,-0.8673,-2.1190,0.4018,-1.7042,-2.6816,-2.7149,-4.1284,-10.2859,-2.3152,-1.0710,-6.4406,-0.7300,-6.3438
1855.4688,-2.8854,-3.2351,-1.0182,-5.5332,-8.2982,-4.5637,-1.2574,-2.6252,-0.1565,-1.3450,-2.0580,-3.4950,-4.5494,-10.6110,-0.3891,-0.8004,-6.7958,-1.5698,-4.6498
1859.3750,-4.8599,-5.0058,-2.1318,-6.7167,-8.2435,-4.4905,-3.0663,-4.2174,-2.7375,-2.1290,-2.7928,-6.3049,-6.2046,-11.7812,1.2230,-0.6792,-7.5971,-4.4377,-3.8669
1863.2812,-8.3688,-7.6077,-4.1277,-8.3852,-8.8661,-4.8724,-5.4082,-6.3015,-6.5790,-4.2980,-4.8571,-9.7594,-8.7958,-13.2050,1.5085,-0.9019,-8.4850,-8.4758,-4.2816
1867.1875,-12.1430,-9.8374,-6.1209,-9.6453,-9.3878,-5.2330,-7.0317,-7.9277,-10.1438,-7.2806,-7.4617,-12.0399,-11.2220,-13.8693,0.1513,-1.4603,-8.9356,-12.1265,-5.4674
1871.0938,-14.6644,-10.5393,-7.2151,-9.8094,-9.1181,-4.8918,-7.1108,-8.3931,-11.9881,-10.0441,-9.5130,-12.0701,-12.3176,-13.1172,-2.3269,-2.1611,-8.6776,-13.9805,-6.6838
1875.0000,-15.0989,-9.3703,-6.9953,-8.8180,-7.9206,-3.5368,-5.7448,-7.6611,-11.5935,-11.7263,-10.2411,-10.2032,-11.6562,-11.1862,-4.9009,-2.7649,-7.9378,-13.5465,-7.3875
1878.9062,-13.7607,-7.0708,-5.7050,-7.2214,-6.2612,-1.5425,-3.8421,-6.3190,-9.6237,-12.1071,-9.6039,-7.9494,-9.8380,-9.1094,-6.6202,-3.1322,-7.3116,-11.4665,-7.4979
1882.8125,-11.8196,-5.0272,-4.0322,-5.7694,-4.8199,0.2177,-2.4920,-5.1295,-7.4556,-11.6378,-8.2379,-6.9392,-8.0530,-8.0347,-7.0795,-3.2790,-7.3272,-9.0630,-7.2806
1886.7188,-10.5060,-4.4132,-2.6880,-4.9329,-3.9742,0.9313,-2.2746,-4.5206,-6.3223,-11.0725,-7.0286,-7.8491,-7.2429,-8.4380,-6.5367,-3.3263,-8.0204,-7.5401,-7.0133
1890.6250,-10.3986,-5.5020,-2.0696,-4.7040,-3.5489,0.3697,-2.9768,-4.3757,-6.6517,-11.0125,-6.6121,-10.0244,-7.4783,-9.7820,-5.6725,-3.4088,-8.8488,-7.3658,-6.7445
1894.5312,-11.2639,-7.6086,-2.1973,-4.7765,-3.0154,-0.9938,-3.8688,-4.2451,-8.0075,-11.6665,-7.1225,-12.0251,-7.9973,-10.8623,-5.1874,-3.6147,-9.0368,-8.2001,-6.3407
1898.4375,-12.4666,-9.6614,-2.8975,-4.9054,-1.9689,-2.3338,-4.2915,-3.7774,-9.5940,-12.9137,-8.2941,-12.6610,-7.8546,-10.5935,-5.4841,-3.9783,-8.1177,-9.3353,-5.7498
1902.3438,-13.5471,-10.9468,-4.0253,-5.1199,-0.5044,-3.0147,-4.1074,-3.0239,-10.8878,-14.5103,-9.7683,-11.7625,-6.6730,-8.6896,-6.5722,-4.4927,-6.2757,-10.2655,-5.2114
1906.2500,-14.4859,-11.4797,-5.5286,-5.6169,0.8066,-2.9341,-3.7016,-2.3910,-11.9141,-16.2160,-11.3384,-10.1685,-4.9313,-5.7842,-8.1747,-5.1054,-4.2264,-10.9590,-5.1828
1910.1562,-15.4794,-11.7648,-7.3116,-6.4514,1.3151,-2.4526,-3.5795,-2.3061,-12.9983,-17.7568,-12.9533,-9.0063,-3.5818,-2.9447,-9.9062,-5.6997,-2.7143,-11.6745,-5.9925
1914.0625,-16.4812,-12.1943,-9.0500,-7.3237,0.7562,-2.0151,-3.9024,-2.8800,-14.2490,-18.7332,-14.5174,-8.8376,-3.3041,-0.9549,-11.4003,-6.1019,-1.9935,-12.5290,-7.4794
1917.9688,-16.9575,-12.5925,-10.1645,-7.6899,-0.5820,-1.7769,-4.3283,-3.8336,-15.2323,-18.6577,-15.6972,-9.2964,-3.9670,0.1243,-12.3515,-6.1423,-1.6764,-13.2052,-8.9301
1921.8750,-16.1268,-12.2794,-10.0474,-7.1459,-2.1016,-1.5142,-4.2729,-4.7335,-15.1368,-17.1805,-15.9378,-9.4367,-4.7015,0.8390,-12.5159,-5.7448,-1.0655,-13.0578,-9.4196
1925.7812,-13.5414,-10.6048,-8.4277,-5.7860,-3.3440,-0.8561,-3.3806,-5.3315,-13.3323,-14.3679,-14.7298,-8.4769,-4.5277,1.8060,-11.7342,-4.9735,0.2776,-11.5539,-8.3665
1929.6875,-9.5646,-7.5330,-5.6264,-4.2295,-4.2875,0.3685,-1.8412,-5.7302,-9.9059,-10.7942,-11.9616,-6.3739,-3.0692,3.1743,-9.9974,-3.9887,2.1451,-8.7157,-5.9322
1933.5938,-5.3411,-3.8196,-2.4945,-3.2527,-5.2689,1.9427,-0.3142,-6.2454,-5.7582,-7.3196,-8.1088,-3.8375,-0.8428,4.4667,-7.5061,-2.9331,3.7611,-5.2270,-2.9887
1937.5000,-2.2193,-0.6356,-0.0317,-3.2718,-6.6090,3.3700,0.4856,-7.0833,-2.1583,-4.6574,-4.1002,-1.8363,1.0667,4.8884,-4.6565,-1.8397,4.2655,-2.1123,-0.6632
1941.4062,-0.9914,1.0993,1.1031,-4.0552,-8.2576,4.1871,0.2441,-8.0941,-0.0448,-3.0080,-0.9099,-0.9899,1.6966,3.8523,-1.9238,-0.6424,3.2570,-0.2006,0.2527
1945.3125,-1.4553,1.2132,0.8959,-4.8816,-9.7463,4.2536,-0.7639,-8.8016,0.4634,-2.0135,0.8961,-1.2643,0.7767,1.3528,0.3142,0.7083,1.0217,0.2750,-0.3314
1949.2188,-2.5831,0.2933,-0.0824,-5.0358,-10.4898,3.8242,-1.8636,-8.6918,0.0349,-1.0614,1.3958,-2.1104,-1.1831,-2.0373,1.9154,2.1169,-1.6813,-0.2948,-1.8592
1953.1250,-3.1655,-0.7506,-1.0476,-4.2862,-10.1969,3.3780,-2.3950,-7.5516,-0.3785,0.2731,1.1923,-2.8655,-3.2895,-5.4912,2.9851,3.3158,-4.0878,-1.2124,-3.5158
1957.0312,-2.4967,-1.2363,-1.4472,-3.0080,-9.0710,3.3340,-2.0730,-5.6169,-0.1603,1.9460,1.0157,-3.1117,-4.8272,-8.3188,3.7430,3.9802,-5.8054,-1.8956,-4.6758
1960.9375,-0.6776,-1.0162,-1.2102,-1.8815,-7.6474,3.8365,-1.0818,-3.4366,0.6353,3.4998,1.2809,-2.8012,-5.5969,-10.1749,4.3241,3.9088,-6.8599,-2.1366,-5.1458
1964.8438,1.5950,-0.4020,-0.6798,-1.3983,-6.3950,4.7126,0.1052,-1.5590,1.4114,4.3845,1.8598,-2.1681,-5.8505,-11.0136,4.6413,3.1401,-7.4393,-2.0825,-5.1075
1968.7500,3.5374,0.1536,-0.3163,-1.5349,-5.3833,5.5857,1.0205,-0.2530,1.4852,4.3105,2.1947,-1.5638,-5.9379,-10.9047,4.4153,1.9216,-7.5824,-2.0180,-4.8670
1972.6562,4.7140,0.3544,-0.3872,-1.8056,-4.2596,6.0475,1.4169,0.5688,0.5511,3.4042,1.6839,-1.3167,-5.9596,-9.8948,3.3758,0.5667,-7.0687,-2.1318,-4.6068
1976.5625,5.1432,0.1554,-0.8417,-1.6317,-2.5445,5.7956,1.3049,1.2097,-1.1369,2.1034,0.1087,-1.6177,-5.6710,-8.0141,1.5211,-0.6787,-5.5883,-2.4102,-4.2879
1980.4688,5.0851,-0.3356,-1.4173,-0.7480,-0.0299,4.7038,0.8517,1.9461,-2.9369,0.9040,-2.1524,-2.4057,-4.6814,-5.3881,-0.7350,-1.6647,-3.0474,-2.6872,-3.7275
1984.3750,4.7375,-1.0083,-1.8711,0.6254,2.9945,2.8424,0.2508,2.8370,-4.2012,0.1371,-4.2578,-3.2933,-2.7866,-2.3302,-2.6534,-2.2672,0.2288,-2.7786,-2.7681
1988.2812,4.0879,-1.8167,-2.1517,1.9318,5.8298,0.4734,-0.3505,3.6762,-4.6196,-0.1119,-5.3191,-3.6468,-0.2011,0.6861,-3.4853,-2.3275,3.5549,-2.6046,-1.4201
1992.1875,3.0087,-2.7377,-2.3970,2.6120,7.6987,-1.9764,-0.8558,4.0923,-4.3334,0.0486,-4.8638,-2.8789,2.4677,3.1774,-2.8482,-1.7034,6.1736,-2.2363,0.1023
1996.0938,1.4921,-3.6913,-2.7724,2.3951,8.1157,-3.9885,-1.1970,3.7331,-3.7832,0.4195,-3.0743,-0.8417,4.4949,4.8373,-0.9425,-0.4216,7.6038,-1.8557,1.4719
2000.0000,-0.1779,-4.5061,-3.2821,1.3871,7.0955,-5.0833,-1.3267,2.4524,-3.4004,0.7991,-0.6642,1.9474,5.4126,5.6533,1.5362,1.1989,7.8503,-1.6523,2.4151
2003.9062,-1.4567,-4.9535,-3.7010,-0.0454,5.1225,-4.9824,-1.2323,0.4267,-3.3276,1.0417,1.5342,4.4746,5.2748,5.8910,3.7527,2.5979,7.3750,-1.7018,2.8684
2007.8125,-1.7706,-4.8192,-3.6856,-1.4813,2.9263,-3.7379,-0.9470,-1.8580,-3.3250,1.1049,3.0147,5.7733,4.6575,5.9524,5.1484,3.2296,6.8602,-1.8893,3.0319
2011.7188,-0.8156,-3.9699,-2.9957,-2.6124,1.1807,-1.7570,-0.5402,-3.7670,-2.9187,1.0767,3.8049,5.5215,4.3704,6.1751,5.6698,2.8774,6.8840,-1.9331,3.2673
2015.6250,1.2442,-2.4058,-1.6754,-3.3093,0.2454,0.3148,-0.0905,-4.7820,-1.7100,1.1470,4.3234,4.2728,5.0143,6.6619,5.6808,1.8116,7.6492,-1.5257,3.8783
2019.5312,3.7899,-0.3034,-0.0649,-3.5981,0.0442,1.8274,0.3367,-4.7503,0.3281,1.4995,5.0064,3.1221,6.6200,7.2221,5.6405,0.6566,8.8810,-0.5289,4.8959
2023.4375,5.9751,1.9696,1.3769,-3.5903,0.1292,2.3857,0.6987,-3.9744,2.7576,2.1685,5.9764,3.0059,8.5905,7.4649,5.7825,0.0410,9.9429,0.9001,6.0196
2027.3438,7.0748,3.9137,2.3310,-3.4052,-0.0759,2.0190,0.9786,-3.0629,4.8677,2.9682,6.9870,4.1163,10.0141,7.0164,6.0202,0.2594,10.1408,2.3633,6.7858
2031.2500,6.8056,5.0627,2.7928,-3.1113,-0.9471,1.1683,1.1973,-2.6048,6.0679,3.5820,7.6692,5.8441,10.1949,5.7560,6.1278,1.1675,9.0907,3.4546,6.8805
2035.1562,5.4759,5.2074,3.0437,-2.7102,-2.4144,0.4812,1.4280,-2.8578,6.2475,3.7872,7.8784,7.2810,9.0875,3.9363,6.0360,2.3597,6.9700,4.0277,6.3855
2039.0625,3.8782,4.5487,3.4339,-2.1801,-3.9588,0.5021,1.7874,-3.6482,5.8589,3.6665,7.8612,7.8943,7.3456,2.0890,5.9878,3.4697,4.4915,4.2963,5.7606
2042.9688,2.9504,3.6513,4.1172,-1.5607,-4.8971,1.4086,2.3814,-4.5464,5.6387,3.6282,8.0922,7.8621,5.9214,0.7438,6.4038,4.3618,2.5731,4.6601,5.5316
2046.8750,3.3417,3.1740,4.9156,-1.0146,-4.8085,2.9345,3.2149,-5.1890,6.1156,4.1708,8.8873,7.8268,5.4482,0.1171,7.5331,5.0871,1.8565,5.3531,5.8790
2050.7812,5.0898,3.5136,5.4140,-0.7909,-3.8357,4.5188,4.1235,-5.5041,7.2247,5.5211,10.0848,8.2777,5.8097,-0.0264,9.1503,5.6841,2.3479,6.1750,6.4311
2054.6875,7.5830,4.5776,5.2314,-1.0692,-2.6353,5.5942,4.7918,-5.6712,8.3005,7.3972,11.0561,9.0672,6.2037,-0.2253,10.5548,6.0264,3.4115,6.5429,6.4534
2058.5938,9.8437,5.8397,4.2950,-1.7684,-1.9717,5.8456,4.8798,-5.8514,8.4846,9.0912,11.0751,9.4597,5.6848,-0.9596,10.9236,5.8725,4.1429,5.8817,5.3511
2062.5000,10.9971,6.6465,2.9310,-2.4727,-2.2035,5.2967,4.2081,-5.9153,7.2931,9.8509,9.8043,8.6928,3.8405,-2.3040,9.8091,5.0848,3.9041,4.0986,3.1532
2066.4062,10.6762,6.5773,1.7016,-2.5845,-3.0142,4.2008,2.8937,-5.4170,4.9620,9.3205,7.5511,6.6221,1.1381,-3.8382,7.4471,3.8227,2.6860,1.7788,0.6189
2070.3125,9.1435,5.6303,1.0812,-1.6698,-3.5956,2.8427,1.3408,-3.8817,2.3239,7.7365,5.0966,3.9421,-1.3117,-4.8932,4.6477,2.5200,1.0684,-0.0954,-1.1563
2074.2188,7.0753,4.1370,1.1702,0.2004,-3.1876,1.4062,0.0686,-1.2267,0.2821,5.7393,3.2030,1.7868,-2.4425,-4.9862,2.3274,1.6235,-0.1883,-0.7658,-1.4104
2078.1250,5.1530,2.5026,1.6254,2.3542,-1.6220,-0.0118,-0.5465,1.9972,-0.7635,3.9343,2.1402,0.9805,-1.9281,-4.1606,0.9852,1.2785,-0.6430,-0.2453,-0.2300
2082.0312,3.7141,0.9720,1.8469,3.7812,0.5038,-1.2918,-0.4705,4.7559,-1.1487,2.5207,1.5622,1.4751,-0.4289,-2.9995,0.4737,1.2100,-0.4339,0.6154,1.4410
2085.9375,2.6649,-0.4248,1.3083,3.6450,2.1546,-2.2244,-0.0338,6.0232,-1.6702,1.2610,0.8187,2.3832,0.7805,-2.2944,0.2080,0.9196,-0.1370,0.6362,2.3242
2089.8438,1.6802,-1.7488,-0.1597,1.7586,2.4825,-2.5834,0.2507,5.3240,-2.9926,-0.1897,-0.5269,2.5884,0.5747,-2.5705,-0.3475,0.0748,-0.3374,-0.9107,1.5462
2093.7500,0.5301,-2.9860,-2.2814,-1.2602,1.3514,-2.3065,-0.0172,2.9969,-5.1394,-1.8532,-2.3484,1.5122,-1.3342,-3.7586,-1.2664,-1.1891,-1.2064,-3.7612,-0.8514
2097.6562,-0.6960,-3.9849,-4.4669,-4.2511,-0.5684,-1.6285,-0.8778,0.0226,-7.4162,-3.2427,-4.0236,-0.4873,-4.1880,-5.2021,-2.1118,-2.2879,-2.3593,-6.7334,-3.9168
2101.5625,-1.6162,-4.5424,-6.0696,-6.0462,-2.1799,-1.0170,-1.9599,-2.4632,-8.8157,-3.6027,-4.8675,-2.3448,-6.5627,-5.9849,-2.2778,-2.5404,-3.0674,-8.3890,-6.2765
2105.4688,-1.8066,-4.5561,-6.6392,-5.9932,-2.5668,-0.9046,-2.6718,-3.6829,-8.6393,-2.4377,-4.6186,-2.9840,-7.1075,-5.3923,-1.4675,-1.6235,-2.6771,-7.8728,-6.8147
2109.3750,-1.1018,-4.1216,-6.0735,-4.2117,-1.4717,-1.3829,-2.5413,-3.4929,-6.9357,0.0373,-3.6368,-2.0253,-5.2460,-3.2727,0.0383,0.1730,-0.9827,-5.4131,-5.1909
2113.2812,0.2552,-3.5034,-4.6403,-1.4999,0.5997,-2.0938,-1.5190,-2.3329,-4.4917,2.8632,-2.6827,-0.0642,-1.4945,-0.1446,1.5115,2.0616,1.6398,-2.1948,-1.9827
2117.1875,1.7099,-3.0114,-2.8845,1.0190,2.6575,-2.4314,-0.0569,-0.9499,-2.4018,4.7898,-2.4409,1.6335,2.7316,2.9787,2.2111,3.1652,4.3746,0.2855,1.5548
2121.0938,2.6792,-2.8646,-1.4492,2.3329,3.7026,-1.9479,1.1059,-0.0693,-1.4923,4.9523,-3.1147,1.8269,5.7154,4.9684,1.8180,2.9622,6.2883,0.9839,3.9765
2125.0000,2.8478,-3.1068,-0.8476,1.9006,3.1581,-0.6841,1.3517,-0.1447,-1.9297,3.3515,-4.3472,-0.0141,6.1742,5.0274,0.5825,1.5102,6.6815,-0.2320,4.1997
2128.9062,2.3096,-3.5872,-1.2496,-0.1629,1.0866,0.8186,0.5538,-1.2284,-3.2023,0.8418,-5.4858,-3.3941,3.8225,3.0452,-0.8883,-0.6417,5.3419,-2.6195,1.9422
2132.8125,1.4855,-3.9892,-2.3799,-3.1192,-1.8568,1.8596,-0.8226,-2.9613,-4.4363,-1.3543,-5.9824,-6.9988,-0.4819,-0.2952,-2.0246,-2.7508,2.6223,-4.9937,-2.1073
2136.7188,0.8825,-3.9079,-3.6124,-5.8627,-4.6949,2.0468,-1.9715,-4.6838,-4.8440,-2.2917,-5.6635,-9.3094,-5.0978,-3.7528,-2.5856,-4.1928,-0.6861,-6.2781,-6.4984
2140.6250,0.8367,-2.9924,-4.2624,-7.3465,-6.5200,1.5668,-2.2177,-5.6713,-4.0752,-1.7254,-4.7356,-9.3243,-8.3366,-6.0622,-2.6718,-4.6392,-3.6567,-5.9151,-9.5910
2144.5312,1.3724,-1.1400,-3.9469,-7.0322,-6.8635,1.0619,-1.4247,-5.4456,-2.3343,-0.1056,-3.5857,-7.0470,-9.2445,-6.5438,-2.5074,-4.0776,-5.5991,-4.0095,-10.2883
2148.4375,2.2271,1.3423,-2.8056,-5.1523,-5.8841,1.1911,-0.0809,-4.0264,-0.2470,1.7733,-2.5544,-3.5034,-8.0265,-5.4630,-2.2056,-2.7431,-6.3323,-1.2189,-8.5716
2152.3438,3.0006,3.7397,-1.4223,-2.6096,-4.2627,2.1719,1.0029,-1.9619,1.4352,3.1938,-1.8241,-0.2678,-5.8570,-3.8835,-1.7158,-1.0356,-6.1972,1.5253,-5.5041
2156.2500,3.3281,5.1742,-0.4637,-0.5151,-2.8199,3.6100,1.1969,-0.0648,2.1667,3.7533,-1.4407,1.2911,-4.1466,-3.0361,-0.9771,0.5616,-5.7748,3.3712,-2.6370
2160.1562,2.9968,5.0176,-0.2513,0.4092,-2.0441,4.7235,0.4386,1.0306,1.8409,3.3506,-1.3820,0.6740,-3.6782,-3.5388,-0.1203,1.5918,-5.4601,3.8666,-1.1223
2164.0625,1.9746,3.2536,-0.5544,0.2114,-1.8112,4.8032,-0.7487,1.2282,0.8298,2.0479,-1.5855,-1.5215,-4.1448,-4.9600,0.4882,1.7708,-5.1670,3.1346,-1.0667
2167.9688,0.3769,0.5438,-0.7632,-0.3777,-1.4974,3.6103,-1.6086,1.0046,-0.1978,-0.0145,-1.9299,-3.9425,-4.4011,-6.0461,0.4364,1.1192,-4.3899,1.8066,-1.5557
2171.8750,-1.5832,-2.0858,-0.3431,-0.4624,-0.4462,1.4795,-1.6387,1.0725,-0.6116,-2.5820,-2.2362,-5.2158,-3.2890,-5.5227,-0.4350,-0.0141,-2.6158,0.7095,-1.3511
2175.7812,-3.6367,-3.7788,0.7379,0.3963,1.5044,-0.8959,-0.8897,1.8854,-0.1507,-5.2184,-2.3408,-4.6729,-0.5040,-2.9777,-1.8593,-1.0900,0.1786,0.4376,0.1917
2179.6875,-5.4984,-4.2779,1.9223,1.8733,3.8029,-2.8270,0.1047,3.3186,0.9247,-7.3559,-2.2146,-2.6608,3.0866,0.7596,-3.2538,-1.6354,3.3058,1.0381,2.6182
2183.5938,-6.9242,-3.9810,2.4019,3.0989,5.4602,-3.9148,0.6943,4.7469,1.9613,-8.5171,-2.0228,-0.2786,5.9083,4.0278,-4.0601,-1.4801,5.6292,2.0025,4.6418
2187.5000,-7.7823,-3.5958,1.6702,3.2563,5.6624,-4.1295,0.5136,5.4637,2.2685,-8.5863,-2.0399,1.2779,6.6385,5.2976,-4.0820,-0.8302,6.1810,2.5863,5.0103
2191.4062,-8.1007,-3.6362,-0.0906,2.1421,4.3147,-3.7064,-0.3412,5.1401,1.5146,-7.9202,-2.4406,1.3630,5.0291,4.0755,-3.5747,-0.1273,4.7487,2.2692,3.3757
2195.3125,-8.0445,-4.0987,-2.0616,0.2981,2.1281,-2.9717,-1.4352,4.0007,-0.0593,-7.1612,-3.1084,0.1548,2.0533,1.1617,-3.0193,0.2206,2.0350,1.0709,0.5607
2199.2188,-7.8057,-4.5201,-3.2564,-1.3751,0.1724,-2.2047,-2.2815,2.5987,-1.7319,-6.8337,-3.6220,-1.5485,-0.7051,-1.8945,-2.7454,0.0713,-0.7260,-0.4709,-1.9597
2203.1250,-7.4577,-4.3424,-3.1000,-2.2457,-0.8092,-1.5721,-2.5735,1.3705,-2.6507,-6.9871,-3.4703,-2.8226,-1.9960,-3.7674,-2.6863,-0.3993,-2.4526,-1.6344,-2.9976
2207.0312,-6.8707,-3.3099,-1.7397,-2.3755,-0.8571,-1.1140,-2.2341,0.3073,-2.2489,-7.1481,-2.3794,-3.0786,-1.5635,-4.1094,-2.4465,-0.8431,-2.7597,-1.9341,-2.3656
2210.9375,-5.7724,-1.6280,0.0949,-2.4466,-0.7153,-0.7582,-1.3270,-1.0125,-0.5112,-6.6433,-0.5334,-2.2615,-0.1352,-3.6182,-1.6326,-0.9763,-2.0361,-1.3618,-0.9031
2214.8438,-3.9477,0.1901,1.5589,-3.2487,-1.2778,-0.3631,0.0222,-3.0529,2.0279,-5.0885,1.4749,-0.7621,1.1692,-3.4291,-0.1941,-0.7461,-1.0605,-0.3254,0.1563
2218.7500,-1.4708,1.6388,2.1580,-5.0876,-2.9500,0.2012,1.6003,-5.8811,4.5238,-2.7055,2.9491,0.8156,1.5567,-4.2919,1.4855,-0.3246,-0.4616,0.6318,0.0046
2222.6562,1.1926,2.4609,1.9256,-7.5142,-5.3488,0.9583,3.0296,-8.9762,6.1625,-0.2390,3.4582,1.8766,0.9368,-6.0940,2.8197,0.0475,-0.3974,1.1226,-1.2843
2226.5625,3.3166,2.6793,1.2587,-9.5415,-7.5148,1.7767,3.7907,-11.4213,6.4509,1.4772,3.0372,1.9903,-0.2098,-8.0076,3.4013,0.2456,-0.6216,1.0457,-2.9084
2230.4688,4.2459,2.4635,0.5984,-10.1871,-8.4598,2.4216,3.4413,-12.3535,5.3591,2.0075,2.1019,1.0092,-1.2651,-9.0930,3.2518,0.3388,-0.8112,0.5300,-3.9100
2234.3750,3.7523,1.9866,0.2095,-8.9866,-7.6803,2.6950,1.9427,-11.3869,3.2999,1.5253,1.1612,-0.8311,-1.8466,-8.9043,2.7558,0.5120,-0.8602,-0.2037,-3.7306
2238.2812,2.1956,1.3892,0.1791,-6.1839,-5.3443,2.5766,-0.1487,-8.7659,0.9732,0.6229,0.5321,-2.8962,-1.8926,-7.6999,2.3421,0.8951,-0.9201,-0.9385,-2.4074
2242.1875,0.3692,0.8283,0.5458,-2.5414,-2.1167,2.2557,-1.8414,-5.1993,-0.8772,-0.1200,0.2348,-4.3231,-1.5047,-6.1751,2.1599,1.4330,-1.1980,-1.4795,-0.3842
2246.0938,-0.9091,0.4977,1.3690,1.0495,1.1845,2.0101,-2.2177,-1.5236,-1.7333,-0.4923,0.0925,-4.3941,-0.7719,-4.9688,1.9955,1.8966,-1.7163,-1.6530,1.8236
2250.0000,-1.2343,0.5385,2.6317,3.9021,3.8692,2.0055,-1.0084,1.5969,-1.5188,-0.6975,-0.0906,-2.9541,0.2433,-4.3005,1.4840,2.0304,-2.2464,-1.3612,3.8359
2253.9062,-0.8225,0.8864,4.0607,5.6630,5.4917,2.1610,1.1518,3.7974,-0.6616,-1.1019,-0.4284,-0.6022,1.3810,-3.9498,0.4364,1.7315,-2.4651,-0.6881,5.4026
2257.8125,-0.3563,1.2068,5.0734,6.2585,5.8612,2.1954,3.0173,4.9794,0.0626,-1.9091,-0.9813,1.5365,2.2977,-3.5178,-0.9768,1.1273,-2.1943,0.0441,6.3082
2261.7188,-0.5475,1.0372,4.9969,5.7899,5.0517,1.8390,3.4443,5.2156,-0.1142,-3.0083,-1.8268,2.4009,2.5743,-2.7354,-2.3254,0.4917,-1.5248,0.3711,6.3684
2265.6250,-1.6687,0.0960,3.4897,4.4859,3.4349,1.0709,2.0966,4.6843,-1.5395,-4.0768,-3.0388,1.6175,1.9918,-1.5997,-3.2101,0.0608,-0.7308,-0.0580,5.5683
2269.5312,-3.3325,-1.4407,0.8909,2.7189,1.6514,0.2030,-0.3145,3.6519,-3.8830,-4.8039,-4.5369,-0.2386,0.7783,-0.2885,-3.5032,-0.1123,-0.0539,-1.2055,4.2171
2273.4375,-4.6574,-2.9165,-1.7901,1.0038,0.4306,-0.2695,-2.4326,2.4596,-6.2057,-5.0320,-5.9220,-1.9409,-0.3858,1.0315,-3.3475,-0.1499,0.4682,-2.5477,2.9363
2277.3438,-4.7388,-3.4996,-3.3256,-0.1001,0.2885,0.0301,-3.0648,1.4674,-7.3711,-4.7177,-6.4973,-2.3101,-0.6598,2.3373,-2.9333,-0.1927,1.0020,-3.2732,2.4134
2281.2500,-3.1624,-2.6571,-2.9407,-0.1824,1.2648,1.1017,-1.8935,0.9551,-6.6198,-3.8030,-5.5723,-0.8886,0.5220,3.7340,-2.2650,-0.2211,1.7621,-2.7065,3.0436
2285.1562,-0.2673,-0.5075,-0.8040,0.8183,2.8892,2.5329,0.3544,1.0283,-4.0122,-2.1762,-2.9324,1.8187,3.1233,5.3241,-1.1438,-0.0140,2.8249,-0.7242,4.6859
2289.0625,2.9970,2.1838,1.9873,2.5287,4.4291,3.7229,2.3764,1.5823,-0.4808,0.1877,0.8312,4.6637,6.4655,7.0632,0.5904,0.6881,4.0445,2.0910,6.6929
2292.9688,5.5501,4.3786,3.9531,4.2380,5.2753,4.2320,3.0914,2.3450,2.5679,3.0128,4.4166,6.5060,9.4809,8.6984,2.7531,1.9122,5.1117,4.6742,8.1977
2296.8750,6.7314,5.2903,4.0067,5.1585,5.2182,4.0364,2.2602,2.9773,3.9212,5.6557,6.3760,6.7763,11.1154,9.8170,4.7255,3.2804,5.6951,5.9744,8.4864
2300.7812,6.6153,4.7527,2.0198,4.7423,4.4450,3.5230,0.5592,3.1877,3.1554,7.3328,5.8735,5.6385,10.7053,9.9840,5.7213,4.1048,5.5725,5.4591,7.2650
2304.6875,5.9151,3.2371,-1.1370,2.9175,3.2936,3.2262,-0.9023,2.8227,0.8423,7.5524,3.1846,3.7244,8.2041,8.9119,5.2690,3.7466,4.6996,3.3610,4.7228
2308.5938,5.5345,1.5411,-4.0808,0.1375,1.9727,3.4729,-1.2833,1.9104,-1.7471,6.4667,-0.3952,1.6901,4.2149,6.6070,3.5765,2.0353,3.2196,0.5472,1.4219
2312.5000,6.0345,0.3630,-5.6330,-2.7857,0.4651,4.1637,-0.4827,0.6475,-3.2871,4.8639,-3.2161,-0.0926,-0.1743,3.4291,1.4924,-0.5288,1.4362,-1.9037,-1.9009
2316.4062,7.3333,0.0063,-5.3658,-5.0018,-1.3282,4.8379,0.8878,-0.6687,-3.0453,3.7583,-4.1297,-1.5488,-3.7255,0.0222,0.0533,-2.9541,-0.2482,-3.1872,-4.5473
2320.3125,8.8127,0.3475,-3.7083,-5.9550,-3.3411,4.9882,1.9655,-1.7448,-1.1967,3.8246,-3.0344,-2.6976,-5.4819,-2.8870,-0.0973,-4.2420,-1.4439,-3.0819,-6.0471
2324.2188,9.7536,1.0281,-1.6087,-5.5793,-5.2092,4.4306,2.2039,-2.3916,1.3465,5.0486,-0.8011,-3.4534,-5.1415,-4.7525,0.9614,-3.8998,-1.9231,-1.9539,-6.2889
2328.1250,9.8114,1.7121,0.0112,-4.2585,-6.3726,3.4849,1.6812,-2.5720,3.4658,6.8149,1.3281,-3.6095,-3.1881,-5.4076,2.5568,-2.1752,-1.7372,-0.4913,-5.5345
2332.0312,9.2203,2.2530,0.7019,-2.5769,-6.3505,2.8276,0.9800,-2.3667,4.4174,8.3445,2.4644,-3.0093,-0.6658,-5.0812,3.8922,0.1151,-1.2120,0.6718,-4.2758
2335.9375,8.5955,2.6978,0.6188,-0.9984,-4.9982,3.0820,0.7574,-1.8775,4.1483,9.1581,2.4728,-1.7494,1.3302,-4.2129,4.5159,2.0405,-0.7828,1.2448,-2.9688
2339.8438,8.4740,3.1675,0.3266,0.3429,-2.5754,4.3848,1.3072,-1.1317,3.2064,9.2527,1.8596,-0.2335,2.1880,-3.1732,4.4837,3.0088,-0.7410,1.3555,-1.7843
2343.7500,8.9170,3.7117,0.4252,1.6249,0.3963,6.2085,2.3923,-0.0589,2.3497,8.9248,1.3081,0.9954,2.0376,-2.0647,4.1602,2.9641,-1.0453,1.3984,-0.5415
2347.6562,9.4526,4.2309,1.2139,3.1174,3.3687,7.5782,3.4313,1.4349,2.1130,8.4445,1.2288,1.5519,1.5854,-0.7309,3.8745,2.2730,-1.3282,1.7618,1.1046
2351.5625,9.3989,4.5039,2.5520,4.9126,5.9398,7.5839,3.8844,3.3367,2.5820,7.8666,1.6151,1.4456,1.6454,1.0473,3.7188,1.4389,-1.1038,2.5907,3.3329
2355.4688,8.3376,4.2967,3.9577,6.7897,7.8896,5.8921,3.5742,5.4282,3.4575,7.1106,2.2282,1.1015,2.6763,3.3188,3.6208,0.8594,-0.0461,3.7110,5.9194
2359.3750,6.3964,3.4925,4.8658,8.3015,9.1232,2.9452,2.7409,7.2908,4.3093,6.1834,2.8908,1.1371,4.6084,5.8673,3.5660,0.7472,1.8421,4.7440,8.2875
2363.2812,4.1401,2.1713,4.9081,9.0213,9.6166,-0.2824,1.8280,8.4269,4.8230,5.2914,3.6177,2.0131,7.0172,8.3168,3.7169,1.1771,4.2631,5.3299,9.8377
2367.1875,2.1540,0.5964,4.0845,8.7820,9.4195,-2.8288,1.1695,8.4433,4.8954,4.6943,4.4895,3.7484,9.4523,10.3406,4.2785,2.1336,6.8073,5.3219,10.3299
2371.0938,0.6307,-0.8940,2.7560,7.7546,8.6807,-4.2558,0.8011,7.2105,4.5706,4.4053,5.4077,5.8515,11.6452,11.8017,5.2042,3.4747,9.1324,4.8377,10.0320
2375.0000,-0.7331,-2.0450,1.4715,6.3250,7.6274,-4.8193,0.5067,4.9300,3.9192,4.0142,5.9803,7.5082,13.4591,12.7102,6.0126,4.8582,11.0161,4.1449,9.5028
2378.9062,-2.4563,-2.8157,0.7082,4.8640,6.4638,-5.2135,0.0340,2.0879,2.9758,2.8471,5.6789,7.9307,14.6846,13.0428,5.9374,5.7538,12.2831,3.4606,9.1505
2382.8125,-4.8270,-3.4113,0.6405,3.5377,5.2457,-6.0831,-0.7023,-0.6855,1.7666,0.4107,4.1828,6.6993,14.9209,12.5943,4.3801,5.6262,12.7186,2.7953,8.8830
2386.7188,-7.6320,-4.1854,1.0388,2.2617,3.8292,-7.6293,-1.5874,-2.8086,0.3659,-3.1823,1.6587,3.9372,13.7068,11.0153,1.3751,4.2263,12.0885,1.9368,8.1144
2390.6250,-10.2730,-5.4521,1.3493,0.7975,1.9573,-9.5517,-2.4541,-3.9392,-1.0985,-7.1418,-1.2499,0.2494,10.8355,8.0473,-2.2829,1.8058,10.2794,0.5844,6.1433
2394.5312,-12.1841,-7.3002,0.9261,-1.0894,-0.5535,-11.3158,-3.2743,-4.0989,-2.5151,-10.3821,-3.7424,-3.5280,6.6088,3.8012,-5.3869,-0.9208,7.4531,-1.4535,2.6499
2398.4375,-13.2393,-9.5116,-0.6774,-3.5022,-3.6389,-12.5199,-4.2199,-3.6746,-3.8733,-12.1324,-5.2908,-6.6387,1.8034,-1.1333,-6.9556,-3.0888,4.0783,-4.1145,-2.0214
2402.3438,-13.8424,-11.6399,-3.4859,-6.3587,-6.9417,-13.0923,-5.5239,-3.2673,-5.2742,-12.3734,-5.8995,-8.6389,-2.6629,-5.8578,-6.7609,-4.1037,0.7834,-7.0718,-6.9760
2406.2500,-14.6328,-13.2172,-7.0488,-9.4055,-9.9276,-13.2113,-7.2391,-3.4334,-6.8398,-11.8166,-6.0359,-9.4758,-6.1486,-9.5375,-5.4121,-3.9184,-1.8908,-9.8594,-11.1887
2410.1562,-16.0217,-13.9840,-10.5854,-12.2746,-12.0962,-13.0612,-9.0870,-4.4293,-8.5803,-11.4513,-6.2990,-9.4217,-8.5063,-11.7608,-3.9558,-3.0011,-3.6852,-12.0569,-13.9533
2414.0625,-17.8941,-14.0145,-13.2674,-14.5689,-13.1703,-12.6520,-10.5370,-6.0979,-10.3244,-11.9683,-7.0498,-8.9267,-9.9772,-12.6772,-3.2621,-2.0307,-4.6589,-13.4378,-15.1025
2417.9688,-19.6768,-13.6602,-14.5144,-15.9692,-13.1745,-11.8500,-11.0865,-7.9671,-11.7754,-13.4190,-8.2298,-8.4608,-10.8836,-12.8478,-3.5868,-1.5229,-5.0747,-14.0125,-14.9268
2421.8750,-20.7024,-13.3364,-14.1760,-16.3360,-12.3831,-10.5746,-10.5553,-9.5094,-12.6592,-15.2783,-9.4430,-8.3772,-11.3813,-12.9146,-4.5496,-1.6132,-5.2402,-13.9642,-13.9221
2425.7812,-20.5973,-13.2718,-12.5339,-15.7587,-11.1836,-8.9692,-9.1896,-10.4051,-12.8593,-16.8044,-10.2096,-8.8109,-11.4526,-13.2830,-5.4854,-2.0969,-5.4037,-13.5280,-12.5609
2429.6875,-19.4387,-13.3701,-10.1475,-14.5079,-9.9229,-7.3790,-7.5030,-10.6444,-12.4553,-17.4333,-10.2218,-9.6290,-11.1014,-13.9713,-5.8971,-2.6509,-5.7291,-12.8873,-11.1978
2433.5938,-17.6202,-13.2796,-7.6349,-12.9045,-8.7930,-6.1382,-5.9741,-10.4168,-11.6605,-16.9934,-9.4746,-10.4684,-10.5337,-14.6613,-5.7220,-3.0623,-6.2958,-12.1384,-10.0770
2437.5000,-15.5854,-12.6403,-5.4941,-11.1778,-7.7879,-5.3399,-4.8172,-9.8863,-10.7326,-15.6922,-8.2473,-10.8852,-10.1232,-14.8785,-5.2865,-3.3217,-7.0717,-11.3247,-9.3382
2441.4062,-13.6471,-11.3631,-4.0202,-9.4090,-6.7414,-4.7892,-3.9761,-9.0360,-9.9265,-13.9704,-6.9866,-10.5740,-10.1559,-14.1923,-5.0379,-3.5558,-7.8733,-10.4990,-8.9660
2445.3125,-11.9958,-9.7579,-3.3108,-7.5948,-5.4356,-4.1911,-3.3100,-7.7113,-9.4918,-12.3348,-6.1503,-9.5440,-10.5495,-12.3635,-5.2527,-3.8819,-8.3839,-9.7513,-8.7298
2449.2188,-10.8096,-8.4053,-3.3058,-5.7752,-3.7404,-3.4317,-2.7923,-5.8309,-9.6480,-11.2151,-6.0469,-8.1178,-10.7890,-9.4157,-5.8918,-4.2893,-8.2797,-9.1697,-8.2138
2453.1250,-10.2992,-7.8241,-3.8196,-4.1070,-1.7176,-2.7156,-2.5454,-3.5960,-10.4835,-10.8312,-6.7001,-6.7137,-10.1652,-5.6381,-6.6456,-4.6119,-7.4184,-8.7522,-6.9840
2457.0312,-10.5948,-8.1265,-4.5602,-2.8057,0.3729,-2.4311,-2.6824,-1.5102,-11.8118,-11.0831,-7.7874,-5.5253,-8.1739,-1.5224,-7.1044,-4.5836,-5.9556,-8.3389,-4.8232
2460.9375,-11.5528,-8.8827,-5.1703,-1.9877,2.1814,-2.8264,-3.1010,-0.1598,-13.1115,-11.5356,-8.7175,-4.3271,-4.8116,2.3602,-6.9517,-3.9441,-4.2739,-7.6363,-1.8904
2464.8438,-12.6640,-9.3053,-5.3154,-1.5441,3.4354,-3.7403,-3.4294,0.1147,-13.6640,-11.5714,-8.8651,-2.5887,-0.5829,5.5191,-6.0999,-2.5572,-2.7369,-6.3581,1.3077
2468.7500,-13.1920,-8.6717,-4.8037,-1.1703,4.0609,-4.6055,-3.2103,-0.5702,-12.8805,-10.6926,-7.8806,0.1139,3.7565,7.6858,-4.7296,-0.5144,-1.4317,-4.4181,4.1268
2472.6562,-12.5002,-6.7459,-3.6802,-0.5644,4.1756,-4.7522,-2.2134,-1.7013,-10.6505,-8.8117,-5.9105,3.6425,7.5254,8.8704,-3.2242,1.8192,-0.1023,-2.0570,6.0538
2476.5625,-10.3815,-3.9517,-2.2306,0.3384,3.9568,-3.8167,-0.6506,-2.6678,-7.4829,-6.3299,-3.5780,7.1303,10.3043,9.2989,-2.0117,3.8684,1.6352,0.2001,6.8825
2480.4688,-7.1892,-1.1921,-0.8773,1.2739,3.4798,-1.9859,0.8825,-3.0990,-4.3177,-3.9194,-1.7018,9.2954,11.9220,9.2612,-1.3722,5.0435,3.9208,1.7600,6.7181
2484.3750,-3.6995,0.5837,-0.0123,1.7920,2.6511,0.0837,1.7219,-3.0197,-2.0947,-2.1348,-0.9010,9.1047,12.3367,8.9479,-1.3014,5.0085,6.3810,2.2395,5.8447
2488.2812,-0.7951,0.8203,0.1511,1.5514,1.2978,1.6149,1.5089,-2.7390,-1.3312,-1.1235,-1.3165,6.3995,11.5638,8.3621,-1.5245,3.8799,8.1865,1.6396,4.5625
2492.1875,0.8614,-0.4257,-0.3596,0.5635,-0.6448,2.1076,0.3819,-2.5753,-1.9558,-0.6409,-2.6096,2.0732,9.7115,7.3432,-1.6769,2.2118,8.4480,0.3043,3.0869
2496.0938,1.0352,-2.5726,-1.3122,-0.7902,-2.9818,1.5575,-1.1223,-2.6254,-3.4643,-0.3456,-4.2114,-2.3415,7.0537,5.6790,-1.5574,0.7274,6.7281,-1.3076,1.5383
2500.0000,-0.0262,-4.8135,-2.3702,-1.9844,-5.2660,0.4036,-2.3731,-2.7362,-5.2532,-0.1223,-5.6373,-5.4440,4.0190,3.2430,-1.2805,-0.0711,3.3489,-2.8819,-0.0192
2503.9062,-1.6687,-6.4423,-3.2067,-2.6635,-6.9788,-0.7249,-2.9557,-2.6734,-6.8881,-0.1530,-6.6573,-6.6350,1.0460,0.0910,-1.2006,-0.1759,-0.7077,-4.3649,-1.5446
2507.8125,-3.0138,-7.0566,-3.5993,-2.8289,-7.7804,-1.3009,-2.8113,-2.3420,-8.1569,-0.6635,-7.2430,-6.2960,-1.6141,-3.5198,-1.6306,-0.0406,-4.2601,-5.8666,-3.0221
2511.7188,-3.2364,-6.5938,-3.4959,-2.7863,-7.6762,-1.0922,-2.1758,-1.8883,-8.9420,-1.5552,-7.3920,-5.4177,-3.9947,-7.1917,-2.5406,-0.2456,-6.4857,-7.4380,-4.4817
2515.6250,-1.8921,-5.2528,-3.0359,-2.9108,-7.0043,-0.1967,-1.4047,-1.6137,-9.0829,-2.2591,-7.0111,-4.9564,-6.3182,-10.5052,-3.4662,-1.0783,-7.2657,-8.9041,-6.0006
2519.5312,0.8384,-3.3767,-2.5049,-3.4059,-6.2585,1.0576,-0.8055,-1.7720,-8.3754,-1.9925,-5.9687,-5.3273,-8.7581,-13.1505,-3.7278,-2.3114,-7.1463,-9.8883,-7.6561
2523.4375,4.1532,-1.3389,-2.2050,-4.2078,-5.8572,2.2869,-0.5409,-2.3990,-6.7093,-0.2800,-4.2622,-6.2975,-11.2201,-15.0157,-2.8407,-3.3355,-6.9674,-10.0164,-9.4331
2527.3438,6.9610,0.5587,-2.2780,-5.0589,-5.9779,3.2293,-0.5955,-3.2851,-4.2163,2.6437,-2.1385,-7.2471,-13.2973,-16.1781,-0.8415,-3.5494,-7.3799,-9.1471,-11.1259
2531.2500,8.4160,2.1599,-2.5744,-5.6585,-6.5167,3.8511,-0.7846,-4.0956,-1.2865,5.8751,-0.0345,-7.5555,-14.4309,-16.7824,1.7011,-2.7338,-8.5000,-7.4596,-12.2976
2535.1562,8.3552,3.4627,-2.6821,-5.7720,-7.1557,4.3231,-0.8113,-4.5467,1.5667,8.3405,1.6397,-6.8644,-14.1709,-16.8599,4.0137,-1.1542,-9.8507,-5.3379,-12.3593
2539.0625,7.3440,4.5330,-2.1510,-5.2616,-7.4819,4.8610,-0.3953,-4.5270,3.8904,9.4154,2.7159,-5.1349,-12.3786,-16.1987,5.5604,0.6555,-10.5912,-3.1540,-10.7849
2542.9688,6.2703,5.3530,-0.8145,-4.0879,-7.1141,5.5095,0.5491,-4.1089,5.3910,9.2296,3.3095,-2.5851,-9.2692,-14.3803,6.2970,2.2397,-9.9121,-1.1234,-7.4032
2546.8750,5.7421,5.7131,0.9944,-2.3479,-5.8222,6.0174,1.7835,-3.4724,5.9132,8.4513,3.6526,0.3687,-5.3118,-11.0110,6.5710,3.4282,-7.4209,0.6641,-2.6303
2550.7812,5.7037,5.2608,2.5118,-0.3452,-3.6320,5.9267,2.7868,-2.8072,5.3840,7.7322,3.8527,3.1401,-1.0759,-6.0478,6.7621,4.2661,-3.3592,2.0888,2.5169
2554.6875,5.5500,3.7276,2.9098,1.3971,-0.8821,4.8657,3.0052,-2.2496,3.8322,7.2423,3.7750,5.0495,2.8899,-0.0201,6.9474,4.7687,1.4429,2.8903,6.7044
2558.5938,4.6574,1.2063,1.7700,2.2697,1.8173,2.8750,2.1913,-1.8712,1.4995,6.6395,3.1524,5.5292,6.1300,6.0242,6.8446,4.7519,5.8681,2.7427,8.7888
2562.5000,2.9346,-1.7274,-0.6318,1.8500,3.7584,0.5228,0.6101,-1.7017,-1.0778,5.4697,1.8468,4.4121,8.3346,10.8772,6.0750,3.9268,8.9519,1.5023,8.3199
2566.4062,0.9736,-4.1858,-3.4221,0.1772,4.4062,-1.3196,-1.0585,-1.7563,-3.1578,3.6612,0.0627,2.1291,9.4025,13.6712,4.5358,2.2154,10.2706,-0.5459,5.7716
2570.3125,-0.3206,-5.3689,-5.5601,-2.1577,3.6523,-1.9411,-2.0890,-2.0454,-4.0774,1.7120,-1.6522,-0.3626,9.4932,14.2508,2.5962,0.0305,10.0909,-2.6504,2.3589
2574.2188,-0.3413,-4.9515,-6.3302,-4.2055,1.9134,-1.1964,-2.1160,-2.5608,-3.5704,0.4210,-2.6303,-1.9472,9.0125,13.2018,0.9610,-1.7517,9.1986,-3.8496,-0.4792
2578.1250,0.8349,-3.1975,-5.5955,-5.0645,-0.0078,0.4331,-1.2947,-3.2462,-1.8883,0.3729,-2.3842,-1.8377,8.4935,11.5154,0.2956,-2.1900,8.4861,-3.4040,-1.6616
2582.0312,2.5750,-0.7304,-3.6912,-4.2896,-1.2633,2.1799,-0.1087,-3.9731,0.3894,1.5680,-0.8023,0.0865,8.3947,10.0716,0.8725,-0.8256,8.5050,-1.1597,-0.8206
2585.9375,4.2071,1.8645,-1.1006,-2.0917,-1.3527,3.4975,1.0175,-4.5477,2.7256,3.4604,1.8419,3.2673,8.8976,9.2249,2.4705,1.9831,9.2124,2.3620,1.7027
2589.8438,5.4908,4.2988,1.7986,0.7627,-0.3751,4.3628,1.9891,-4.7686,4.8908,5.3391,5.0151,6.7488,9.7966,8.7007,4.5617,5.1860,10.0272,6.1851,5.1339
2593.7500,6.6520,6.5138,4.7295,3.2731,0.9956,5.1522,2.9764,-4.5206,6.9058,6.7365,8.0665,9.5543,10.5342,7.8229,6.6167,7.5704,10.1471,9.2631,8.5884
2597.6562,7.9601,8.3744,7.3080,4.5774,1.8145,6.1907,4.0760,-3.8569,8.7160,7.5586,10.3267,10.9588,10.3742,5.9152,8.3044,8.3683,8.9430,10.8186,11.2649
2601.5625,9.2316,9.4284,8.8957,4.2171,1.3151,7.3380,5.0046,-3.0062,9.8990,7.8926,11.1948,10.5859,8.6570,2.6522,9.4784,7.5687,6.2404,10.5050,12.4955
2605.4688,9.7339,9.0095,8.7490,2.2328,-0.7078,7.9589,5.1340,-2.2782,9.7265,7.7228,10.2833,8.4041,5.0592,-1.7976,10.0305,5.7697,2.3792,8.3934,11.7734
2609.3750,8.6543,6.6860,6.4557,-0.8936,-3.7712,7.3368,3.9095,-1.9076,7.6295,6.8484,7.6113,4.7192,-0.2247,-6.8588,9.7897,3.7157,-1.9313,4.8781,8.8772
2613.2812,5.8226,2.7453,2.3700,-4.3981,-6.9049,5.2406,1.3680,-1.9341,3.7598,5.1031,3.7268,0.1752,-6.4533,-11.7778,8.5858,1.8541,-5.8704,0.5825,4.0639
2617.1875,2.1110,-1.6897,-2.3183,-7.4525,-9.0947,2.2190,-1.6633,-2.2047,-0.8052,2.6877,-0.3910,-4.3289,-12.5069,-15.8656,6.4333,0.1968,-8.7740,-3.7285,-1.8308
2621.0938,-0.8754,-5.0906,-6.0314,-9.4006,-9.7518,-0.6169,-3.9079,-2.5037,-4.4684,0.2953,-3.6861,-7.8784,-17.2301,-18.6655,3.6712,-1.4742,-10.3352,-7.2702,-7.5496
2625.0000,-1.6894,-6.2841,-7.5545,-9.9479,-8.9715,-2.1873,-4.3508,-2.7175,-5.9380,-1.1471,-5.4782,-9.8789,-19.8282,-20.0126,0.9144,-3.2568,-10.6875,-9.4068,-11.8297
2628.9062,0.0723,-5.0598,-6.6328,-9.2268,-7.4387,-2.0062,-2.8510,-2.9047,-4.9437,-0.9925,-5.7377,-10.2910,-20.1363,-19.9998,-1.1813,-4.9147,-10.3299,-9.8176,-13.8766
2632.8125,3.5106,-2.2177,-4.0326,-7.6917,-6.0299,-0.3449,-0.2272,-3.2063,-2.3432,0.7102,-4.9872,-9.5700,-18.6097,-18.8820,-2.1929,-5.9498,-9.8912,-8.5660,-13.6197
2636.7188,6.9846,0.9698,-1.0360,-5.8847,-5.3292,2.0674,2.2531,-3.6616,0.4687,3.2083,-3.8788,-8.3076,-16.0201,-16.9597,-2.0622,-5.8900,-9.8003,-6.0287,-11.6031
2640.6250,9.1059,3.5016,1.2849,-4.2001,-5.3372,4.5297,3.6334,-4.0835,2.4418,5.4689,-2.7342,-6.8031,-13.0217,-14.4840,-1.0187,-4.5796,-10.0173,-2.7318,-8.6087
2644.5312,9.4767,5.0901,2.5373,-2.7824,-5.5392,6.6677,3.7592,-4.1169,3.4251,6.7477,-1.3847,-4.8855,-9.8484,-11.6193,0.6129,-2.2799,-9.9979,0.7952,-5.2809
2648.4375,8.6915,6.0384,2.9596,-1.6025,-5.2862,8.3683,3.1918,-3.4674,4.0217,6.9175,0.5594,-2.1476,-6.3357,-8.4705,2.5506,0.4581,-8.9714,4.0692,-1.9897
2652.3438,7.6738,6.7223,2.9805,-0.6244,-4.2416,9.4991,2.6627,-2.1379,4.8953,6.3621,3.1994,1.5543,-2.2526,-5.1481,4.5376,3.0333,-6.4200,6.6265,1.0441
2656.2500,6.8955,7.1269,2.7784,0.0926,-2.6024,9.7318,2.5047,-0.4832,6.0861,5.5602,5.9921,5.7146,2.2923,-1.8133,6.2212,4.9861,-2.4882,8.0262,3.5474
2660.1562,6.0771,6.8169,2.1880,0.4499,-0.9520,8.6807,2.4817,0.9850,6.8777,4.7005,7.8593,9.2346,6.6740,1.3353,7.0945,6.0575,1.9598,7.9638,5.1510
2664.0625,4.5628,5.3504,0.9902,0.4721,0.1544,6.2602,2.1030,1.9183,6.3299,3.6154,7.7525,10.9478,9.9659,4.1266,6.6299,6.1507,5.7227,6.4626,5.5739
2667.9688,2.0328,2.7775,-0.7015,0.4133,0.5831,2.9466,1.1314,2.3396,4.0697,2.0514,5.3251,10.2832,11.4345,6.4780,4.5779,5.2894,7.8892,3.9938,4.8829
2671.8750,-1.0397,-0.2022,-2.3210,0.6675,0.7156,-0.3310,-0.1432,2.5717,0.7265,0.0320,1.2544,7.6149,10.9927,8.3920,1.2365,3.6293,8.3287,1.3748,3.5755
2675.7812,-3.5669,-2.5852,-3.1408,1.5011,1.1655,-2.6510,-1.0860,2.9286,-2.3455,-1.9975,-3.0315,4.0464,9.2921,9.8793,-2.5258,1.4953,7.7178,-0.5658,2.3599
2679.6875,-4.5406,-3.6666,-2.7725,2.7915,2.3055,-3.5960,-1.2074,3.4029,-3.8872,-3.3708,-6.0770,0.7773,7.3652,10.8609,-5.5766,-0.6345,7.0651,-1.3831,1.7498
2683.5938,-3.7210,-3.4485,-1.4904,3.9938,3.9295,-3.4153,-0.5637,3.6076,-3.5141,-3.6009,-7.1242,-1.5092,6.0310,11.1377,-7.0120,-2.2444,7.0273,-1.2137,1.7635
2687.5000,-1.8014,-2.5414,-0.1052,4.4142,5.2975,-2.7262,0.2578,3.0462,-1.9017,-2.6799,-6.3929,-2.8298,5.4431,10.4706,-6.5528,-2.9584,7.4649,-0.6257,1.9617
2691.4062,0.0751,-1.6381,0.5522,3.6421,5.5563,-1.9858,0.5695,1.5332,-0.2499,-1.0585,-4.7656,-3.5738,5.0762,8.7350,-4.6079,-2.6785,7.5394,-0.2019,1.8114
2695.3125,1.0959,-0.9648,0.1825,1.8537,4.2777,-1.1458,0.1089,-0.5507,0.5814,0.6708,-3.1211,-3.9673,4.1537,6.0496,-1.9765,-1.5964,6.3007,-0.1343,1.1132
2699.2188,1.2919,-0.1314,-0.7813,-0.2352,1.7726,0.2340,-0.7420,-2.3847,0.6483,2.1456,-1.7745,-3.7766,2.2291,2.7849,0.6081,-0.0787,3.3838,-0.1151,0.1728
2703.1250,1.4301,1.5052,-1.4633,-1.7568,-1.0250,2.4991,-1.2114,-3.1658,0.8149,3.3924,-0.3875,-2.5014,-0.4657,-0.5639,2.8011,1.4945,-0.6484,0.3922,-0.4171
2707.0312,2.3872,4.2422,-1.1196,-2.1760,-3.0386,5.4283,-0.6870,-2.6031,2.0630,4.6763,1.6276,0.0836,-3.1356,-3.5629,4.6506,2.8338,-4.5530,1.6912,-0.2307
2710.9375,4.4667,7.6538,0.3925,-1.5601,-3.6120,8.1675,0.8352,-1.1135,4.7244,6.1848,4.5198,3.4688,-4.9191,-5.9722,6.3301,3.7485,-7.0997,3.5330,0.6337
2714.8438,7.1410,10.7295,2.5456,-0.4757,-2.8280,9.6640,2.7181,0.4214,8.1750,7.8032,7.8524,6.4331,-5.4330,-7.7547,7.8322,4.1015,-7.7756,5.1821,1.5542
2718.7500,9.3771,12.4441,4.4844,0.3924,-1.4189,9.3175,4.0791,1.1786,11.1870,9.1544,10.6451,7.6179,-5.0030,-8.9800,8.8682,3.7955,-7.0586,5.8430,1.7533
2722.6562,10.2929,12.3628,5.5172,0.6312,-0.3413,7.3915,4.3338,0.8584,12.6741,9.8601,11.9159,6.3208,-4.4266,-9.7071,9.0524,2.8327,-6.0899,5.1670,0.7869
2726.5625,9.6826,10.8663,5.4385,0.2510,-0.2721,4.8847,3.5193,-0.1983,12.3137,9.8075,11.2670,2.9929,-4.4237,-9.9320,8.2264,1.4044,-5.9508,3.4964,-1.1658
2730.4688,8.0669,8.8521,4.5151,-0.4564,-1.2986,2.9349,2.2025,-1.2873,10.6462,9.1985,9.1313,-0.9063,-5.1340,-9.6234,6.6645,-0.0898,-6.9886,1.6752,-3.3863
2734.3750,6.2687,7.1281,3.2147,-1.2048,-2.9450,2.1385,1.0684,-1.8052,8.6223,8.3351,6.5174,-3.6496,-5.9944,-8.8008,4.9764,-1.1632,-8.5980,0.5410,-5.0077
2738.2812,4.8279,5.9075,1.8994,-1.9183,-4.4836,2.2170,0.4821,-1.5941,6.9386,7.3046,4.4147,-4.1527,-6.0850,-7.5870,3.7425,-1.4719,-9.5823,0.4205,-5.4664
2742.1875,3.6540,4.7244,0.6778,-2.7224,-5.3361,2.2174,0.3067,-0.9733,5.6099,5.8241,3.2276,-2.5307,-4.7328,-6.1884,3.1211,-1.0238,-8.8705,0.9401,-4.7623
2746.0938,2.1313,2.7990,-0.5383,-3.7612,-5.3439,1.1006,0.0617,-0.4791,4.0432,3.4004,2.5874,0.0133,-1.9924,-4.8149,2.7095,-0.2174,-6.1611,1.2615,-3.4150
2750.0000,-0.4089,-0.4003,-1.8703,-5.0005,-4.7750,-1.6476,-0.7129,-0.5091,1.5322,-0.2671,1.6489,1.8846,1.3086,-3.5837,1.7849,0.3468,-2.1180,0.5873,-2.1750
2753.9062,-4.1584,-4.7470,-3.3349,-6.1629,-4.0868,-5.7137,-2.1341,-1.0901,-2.1643,-4.9066,-0.3139,1.9736,4.0056,-2.4569,-0.2068,0.1944,1.9899,-1.3623,-1.6541
2757.8125,-8.5728,-9.4246,-4.8024,-6.8286,-3.5928,-10.0856,-3.8808,-1.8809,-6.5313,-9.6013,-3.3799,0.2280,5.2594,-1.2385,-3.2207,-0.7436,4.9828,-4.1653,-2.0436
2761.7188,-12.5336,-13.2635,-6.0342,-6.6224,-3.2318,-13.4960,-5.3545,-2.3696,-10.4645,-13.1236,-6.8359,-2.3666,5.0452,0.3615,-6.5322,-2.0767,6.3917,-6.8835,-3.0231
2765.6250,-14.8385,-15.2427,-6.7417,-5.3684,-2.5788,-14.9432,-5.9773,-2.1376,-12.7885,-14.5144,-9.5011,-4.3512,4.1652,2.6083,-9.0768,-3.1666,6.6463,-8.4930,-3.8836
2769.5312,-14.7537,-14.9000,-6.6379,-3.1465,-1.1003,-14.0644,-5.4541,-1.0591,-12.8245,-13.5739,-10.3280,-4.5701,3.7732,5.5959,-10.0136,-3.4861,6.7331,-8.3266,-3.8146
2773.4375,-12.3447,-12.4755,-5.4956,-0.2547,1.4877,-11.2423,-3.8813,0.6354,-10.7002,-10.9670,-8.9342,-2.7425,4.6958,9.1237,-9.1697,-2.9085,7.5394,-6.3217,-2.2490
2777.3438,-8.4333,-8.7618,-3.2350,2.8732,4.9699,-7.4371,-1.6783,2.4422,-7.2529,-7.8719,-5.7720,0.4497,6.9573,12.6657,-7.0930,-1.7557,9.2849,-2.9919,0.8711
2781.2500,-4.2208,-4.7618,-0.0233,5.7584,8.6465,-3.8176,0.5921,3.7768,-3.6044,-5.3729,-1.8600,3.7641,9.7841,15.4808,-4.6903,-0.5780,11.3818,0.8228,5.0300
2785.1562,-0.7791,-1.3175,3.6741,7.9664,11.6175,-1.3252,2.4188,4.2059,-0.6468,-3.9440,1.7451,6.0421,12.0594,16.8501,-2.6842,0.1932,12.7997,4.2857,9.3137
2789.0625,1.3433,1.1411,7.1567,9.1934,13.1766,-0.3318,3.4801,3.6289,1.2929,-3.3091,4.4244,6.7423,12.9281,16.3432,-1.2335,0.5017,12.6970,6.8253,12.7495
2792.9688,2.2316,2.6422,9.6804,9.3296,13.0911,-0.5378,3.6924,2.3200,2.4581,-2.7314,6.1636,6.0984,12.1775,13.9800,0.0527,0.6717,10.9194,8.2388,14.6420
2796.8750,2.4167,3.5245,10.7131,8.4696,11.6171,-1.1643,3.1868,0.7934,3.3727,-1.5377,7.3543,4.8594,10.1935,10.1964,1.7318,1.1575,8.0579,8.6310,14.7492
2800.7812,2.5252,4.1884,10.1428,6.8565,9.2753,-1.3537,2.2464,-0.4524,4.4437,0.4405,8.3924,3.8006,7.5850,5.6381,4.0304,2.1941,5.0490,8.2564,13.2428
2804.6875,2.9672,4.8771,8.3353,4.7903,6.5620,-0.5750,1.2332,-1.1741,5.6890,2.7517,9.3417,3.2961,4.7798,0.9146,6.5609,3.5678,2.5935,7.3623,10.5314
2808.5938,3.8077,5.5904,6.0055,2.5572,3.7922,1.1783,0.5143,-1.4598,6.7346,4.5767,9.8676,3.1833,1.8758,-3.5347,8.4386,4.6593,0.7825,6.1083,7.0889
2812.5000,4.8454,6.1541,3.9451,0.4126,1.1522,3.4860,0.3793,-1.5929,7.0634,5.1797,9.4645,2.9576,-1.1834,-7.4047,8.7416,4.7481,-0.8356,4.5837,3.3824
2816.4062,5.7998,6.3762,2.7175,-1.3996,-1.1358,5.7976,0.9501,-1.7970,6.3508,4.3008,7.8198,2.1469,-4.2955,-10.3974,7.0472,3.4155,-2.8173,2.8791,-0.1192
2820.3125,6.4690,6.1823,2.4441,-2.6532,-2.7255,7.7171,2.1090,-2.0448,4.6858,2.2877,5.0829,0.6297,-7.0330,-12.1606,3.7336,0.8188,-5.3332,1.1446,-2.9519
2824.2188,6.7754,5.6524,2.7795,-3.2087,-3.2585,9.0990,3.4943,-2.0758,2.5525,-0.0758,1.8746,-1.2754,-8.7850,-12.3967,-0.1296,-2.3197,-7.9669,-0.4160,-4.7497
2828.1250,6.7156,4.9551,3.0975,-3.1152,-2.6292,9.9426,4.6032,-1.6167,0.5989,-1.9349,-0.9675,-2.9736,-9.1185,-11.0972,-3.2481,-5.0076,-9.9325,-1.6087,-5.3909
2832.0312,6.2960,4.2430,2.8131,-2.6540,-1.2028,10.2236,4.9878,-0.6417,-0.6659,-2.7310,-2.7669,-3.8947,-8.0897,-8.7242,-4.6819,-6.4100,-10.5488,-2.3248,-5.0806
2835.9375,5.5258,3.5820,1.6907,-2.2504,0.2140,9.8417,4.4604,0.5293,-1.0773,-2.4071,-3.3065,-3.7692,-6.2668,-6.1606,-4.2445,-6.1930,-9.6454,-2.5746,-4.2732
2839.8438,4.4673,2.9460,-0.0277,-2.2690,0.6963,8.7384,3.1910,1.3814,-0.8360,-1.3747,-2.9040,-2.7565,-4.4322,-4.3867,-2.5309,-4.6217,-7.6449,-2.4661,-3.4608
2843.7500,3.2806,2.2564,-1.7579,-2.8117,-0.3435,7.0730,1.6229,1.5117,-0.3667,-0.2814,-2.2379,-1.3927,-3.1693,-4.0375,-0.5851,-2.3909,-5.3032,-2.1559,-2.9625
2847.6562,2.1935,1.4234,-2.9147,-3.6588,-2.8361,5.2717,0.2396,0.8777,-0.1198,0.3045,-2.0261,-0.3914,-2.6136,-5.0893,0.6057,-0.3004,-3.3110,-1.8167,-2.8600
2851.5625,1.3925,0.3701,-3.2661,-4.4084,-6.0628,3.8517,-0.6844,-0.1799,-0.4161,0.1427,-2.7139,-0.3659,-2.5107,-6.8633,0.5313,1.0555,-2.0167,-1.6319,-3.1010
2855.4688,0.9031,-0.9476,-3.0820,-4.7222,-8.9794,3.1129,-1.1912,-1.1450,-1.3821,-0.6123,-4.3103,-1.5580,-2.4883,-8.3360,-0.7003,1.4494,-1.3935,-1.7893,-3.6465
2859.3750,0.5520,-2.5068,-2.9681,-4.5059,-10.6543,2.9235,-1.5377,-1.6026,-2.9578,-1.5522,-6.4322,-3.6721,-2.3020,-8.5740,-2.5345,1.0022,-1.1835,-2.4324,-4.4969
2863.2812,0.0540,-4.1810,-3.4747,-3.8930,-10.5778,2.7866,-1.9604,-1.3937,-4.9355,-2.2861,-8.5101,-5.9125,-1.8667,-7.0592,-4.3208,0.0489,-1.0516,-3.5658,-5.5507
2867.1875,-0.8199,-5.7394,-4.7231,-3.0551,-8.7149,2.1742,-2.4778,-0.5734,-7.0060,-2.6803,-10.0449,-7.2685,-1.0949,-3.7807,-5.6315,-1.0166,-0.6454,-4.9717,-6.4261
2871.0938,-2.0987,-6.9171,-6.2943,-2.0017,-5.3632,0.9103,-2.8753,0.7393,-8.8135,-2.9203,-10.7881,-6.9704,0.2547,0.8684,-6.3789,-1.8484,0.3978,-6.2210,-6.4639
2875.0000,-3.5820,-7.5373,-7.4608,-0.5490,-0.9776,-0.6766,-2.8815,2.4537,-10.0308,-3.3456,-10.7713,-4.9074,2.5104,6.2517,-6.7040,-2.2020,2.3760,-6.8193,-5.0201
2878.9062,-4.9405,-7.6127,-7.6178,1.4910,3.9055,-1.9562,-2.3973,4.4520,-10.4447,-4.1606,-10.1953,-1.7594,5.7842,11.6017,-6.7521,-1.9637,5.3234,-6.4380,-1.9183
2882.8125,-5.8825,-7.3447,-6.6346,4.0367,8.6518,-2.4253,-1.5949,6.4537,-10.0188,-5.2209,-9.2684,1.2918,9.6472,16.0846,-6.5146,-1.1782,8.7954,-5.0978,2.2525
2886.7188,-6.2816,-7.0040,-4.9024,6.6003,12.5324,-2.0604,-0.8022,7.9659,-8.8975,-6.0635,-8.0980,3.1613,13.0834,18.9017,-5.8527,-0.0602,11.8466,-3.1819,6.2677
2890.6250,-6.1979,-6.7588,-3.0603,8.4359,14.8549,-1.3359,-0.2532,8.4378,-7.3434,-6.1882,-6.6960,3.4431,14.8616,19.4811,-4.6738,1.0464,13.3421,-1.2506,8.8310
2894.5312,-5.7919,-6.5670,-1.5923,8.9167,15.2120,-0.8843,0.1004,7.5655,-5.6355,-5.4145,-5.0741,2.6095,14.1687,17.7119,-3.1120,1.7780,12.5146,0.2395,9.2636
2898.4375,-5.1975,-6.2123,-0.5678,7.9074,13.7055,-1.0351,0.5601,5.5414,-3.9760,-4.0603,-3.3387,1.6754,11.1221,14.0734,-1.5524,1.8940,9.4567,1.1395,7.8822
2902.3438,-4.4384,-5.4640,0.3154,5.8780,10.9745,-1.5631,1.4393,3.0430,-2.4497,-2.7909,-1.7053,1.5136,6.8068,9.5312,-0.4520,1.3764,5.2077,1.6066,5.8018
2906.2500,-3.4445,-4.2580,1.4344,3.6645,7.9549,-1.8427,2.7759,0.9170,-1.0493,-2.2156,-0.4127,2.2513,2.7607,5.1939,-0.0691,0.4207,1.3043,1.9068,4.2635
2910.1562,-2.1658,-2.7809,2.9061,2.0120,5.4711,-1.3168,4.2121,-0.2643,0.2512,-2.4997,0.3953,3.1526,0.1840,1.8824,-0.2966,-0.6846,-0.9936,2.1617,3.9005
2914.0625,-0.7188,-1.4116,4.4368,1.1788,3.8753,0.0300,5.1400,-0.4955,1.4129,-3.2690,0.7294,3.0794,-0.6640,-0.1679,-0.7342,-1.7151,-1.3603,2.2189,4.3933
2917.9688,0.5335,-0.5616,5.4453,0.8398,2.9348,1.5309,5.0238,-0.2931,2.2853,-3.8868,0.7089,1.2455,-0.5244,-1.3183,-0.9621,-2.5991,-0.5410,1.7404,4.7107
2921.8750,1.0516,-0.5093,5.3726,0.3314,2.0228,2.1537,3.6929,-0.3502,2.6325,-3.9153,0.4537,-2.2275,-0.6280,-2.2617,-0.8249,-3.3795,0.1274,0.4529,3.7647
2925.7812,0.3546,-1.3000,3.9888,-0.9302,0.4960,1.1079,1.4253,-1.1251,2.2406,-3.4289,0.0139,-6.3119,-1.9289,-3.6367,-0.5143,-4.0835,-0.4691,-1.6063,1.0671
2929.6875,-1.6702,-2.7294,1.5341,-3.1138,-1.9556,-1.6193,-1.2067,-2.6256,1.0719,-2.9455,-0.5952,-9.6277,-4.5376,-5.7242,-0.3795,-4.6064,-2.5577,-4.0152,-2.9870
2933.5938,-4.5547,-4.3900,-1.3624,-5.9057,-5.1651,-5.1341,-3.6046,-4.4945,-0.6152,-3.0188,-1.2796,-11.1823,-7.6678,-8.3593,-0.6020,-4.7148,-5.3543,-6.1211,-7.3293
2937.5000,-7.3090,-5.7659,-3.9248,-8.7111,-8.6027,-8.0155,-5.3522,-6.2932,-2.2748,-3.7894,-1.7860,-10.8295,-10.0973,-11.0586,-0.9876,-4.1845,-7.5352,-7.3380,-10.7548
2941.4062,-8.8039,-6.3758,-5.5225,-10.9719,-11.6485,-9.0156,-6.2760,-7.7594,-3.2563,-4.8355,-1.7643,-9.1952,-10.8511,-13.2650,-1.0532,-2.9852,-8.0069,-7.4176,-12.4674
2945.3125,-8.3384,-5.9598,-5.8997,-12.4063,-13.8629,-7.7096,-6.3907,-8.8711,-3.1102,-5.4482,-0.9780,-7.1817,-9.7151,-14.5753,-0.3759,-1.3738,-6.5176,-6.5488,-12.3744
2949.2188,-6.0980,-4.6470,-5.2697,-13.0553,-15.1127,-4.7482,-5.8341,-9.7159,-1.8685,-5.1460,0.4634,-5.4258,-7.3129,-14.8587,1.0378,0.1892,-3.7703,-5.2440,-11.0377
2953.1250,-3.2037,-2.9999,-4.2385,-13.1547,-15.5173,-1.5742,-4.8555,-10.3101,-0.1240,-4.0605,2.0288,-4.0634,-4.7400,-14.2386,2.6381,1.2626,-1.0059,-4.0918,-9.3633
2957.0312,-1.2508,-1.8472,-3.5676,-12.9437,-15.2776,0.2558,-3.8239,-10.5295,1.1828,-2.9091,2.9457,-2.8992,-2.9829,-12.9706,3.5851,1.6484,0.6804,-3.5137,-8.1911
2960.9375,-1.5251,-1.9301,-3.8489,-12.5321,-14.5075,-0.1896,-3.1710,-10.2021,1.1921,-2.5668,2.5649,-1.7815,-2.4445,-11.2886,3.2215,1.4660,0.8960,-3.6396,-7.9535
2964.8438,-4.3095,-3.5198,-5.2180,-11.8838,-13.1693,-2.7804,-3.2266,-9.2740,-0.4465,-3.5281,0.7019,-0.8615,-2.8104,-9.2984,1.4586,1.0270,0.0939,-4.3378,-8.5205
2968.7500,-8.6782,-6.2280,-7.2525,-10.8985,-11.1451,-6.3950,-4.0167,-7.9036,-3.3863,-5.6201,-2.2541,-0.5423,-3.2974,-6.9771,-1.1771,0.5971,-0.7436,-5.3480,-9.2882
2972.6562,-12.9189,-9.1453,-9.1341,-9.5200,-8.3924,-9.4533,-5.1708,-6.4037,-6.7488,-8.1361,-5.5286,-1.1737,-3.1279,-4.2835,-3.8583,0.2123,-0.6768,-6.4233,-9.4796
2976.5625,-15.3614,-11.2572,-10.0184,-7.8060,-5.0861,-10.6464,-6.0492,-5.0747,-9.5483,-10.2634,-8.3222,-2.7380,-1.9663,-1.3133,-5.9065,-0.3191,0.6811,-7.4026,-8.5351
2980.4688,-15.1589,-11.9074,-9.4324,-5.9268,-1.6525,-9.5066,-6.0600,-4.0572,-11.1299,-11.4925,-10.1191,-4.7598,-0.0929,1.6076,-7.0780,-1.2278,2.9704,-8.1885,-6.4019
2984.3750,-12.6034,-11.0475,-7.4856,-4.1052,1.3360,-6.5541,-4.9897,-3.3076,-11.3826,-11.7504,-10.7774,-6.5011,1.7651,3.9796,-7.5202,-2.5377,5.2874,-8.6721,-3.5601
2988.2812,-8.8481,-9.1499,-4.7832,-2.5320,3.3626,-2.9688,-3.1376,-2.6993,-10.6406,-11.2356,-10.4052,-7.2978,2.8386,5.3336,-7.4826,-3.9371,6.6487,-8.6771,-0.7547
2992.1875,-5.2497,-6.8741,-2.1028,-1.3022,4.1662,0.0213,-1.1576,-2.1560,-9.3877,-10.1469,-9.1713,-6.8267,2.7304,5.4741,-7.0335,-4.8671,6.4687,-7.9855,1.4161
2996.0938,-2.7333,-4.7217,-0.0349,-0.3972,3.8439,1.7098,0.3019,-1.7080,-7.9825,-8.5484,-7.2219,-5.1687,1.6125,4.6015,-6.0104,-4.7870,4.8100,-6.4534,2.8022
3000.0000,-1.5068,-2.8907,1.2101,0.2805,2.8074,2.1515,0.9366,-1.4337,-6.5735,-6.4555,-4.7547,-2.6946,0.1087,3.2180,-4.2339,-3.4692,2.3000,-4.1558,3.6981
3003.9062,-1.1953,-1.3721,1.7525,0.8378,1.6210,1.9734,0.9015,-1.3463,-5.2066,-4.0282,-2.1483,0.1001,-1.0550,1.8592,-1.8035,-1.1559,-0.2149,-1.4653,4.5438
