Time,Fp1,F3,C3,P3,O1,F7,T3,T5,Fz,Fp2,F4,C4,P4,O2,F8,T4,T6,Cz,Pz
0.0000,-0.5590,-1.7345,-1.5608,-5.1242,-9.2872,0.0840,-2.6829,-3.7942,-2.2651,1.9139,-1.7321,-0.8147,-0.4230,2.4867,-1.2365,0.6358,2.6309,-3.2542,-4.7764
3.9062,6.2439,1.2208,0.0074,-2.4660,-6.3767,2.1380,-2.1937,-2.8483,0.3594,5.3668,0.2865,0.9967,1.1596,3.2809,-0.4748,1.9490,2.0201,-0.3225,-1.8022
7.8125,11.6946,4.3531,1.1628,0.5912,-1.9991,3.6874,-1.8960,-2.0130,3.3282,9.1973,3.2514,2.9705,2.8610,3.8750,1.7294,3.3277,0.8356,2.9254,1.9279
11.7188,14.0418,6.3531,1.5746,3.4316,3.5300,3.9020,-1.6811,-1.5631,5.5523,12.3179,6.3475,4.2768,4.3231,4.0631,5.1670,3.9931,-0.6374,5.3852,5.7287
15.6250,13.1627,6.4467,1.5221,5.7480,9.6697,2.6761,-1.1337,-1.4102,6.2532,13.9887,8.5544,4.2998,5.3269,3.8296,8.9016,3.4610,-1.9182,6.2924,9.0736
19.5312,10.5287,4.8972,1.6986,7.6451,15.7445,0.7595,0.2121,-1.0667,5.3992,14.1545,9.1292,3.0109,5.7990,3.3137,11.6211,1.8863,-2.6275,5.6251,11.7530
23.4375,8.2988,2.8200,2.6371,9.4194,21.0093,-0.7098,2.4672,0.0843,3.6744,13.3443,7.9496,0.9965,5.7083,2.6575,12.2541,-0.0091,-2.7598,4.0505,13.7512
27.3438,8.1803,1.4113,4.1766,11.1904,24.7208,-0.9832,5.1185,2.3512,2.0064,12.2308,5.5236,-0.9042,4.9607,1.8329,10.5057,-1.3968,-2.7431,2.4578,14.9796
31.2500,10.7295,1.1294,5.4082,12.6773,26.2718,-0.2401,7.1431,5.4142,0.9802,11.1704,2.6714,-2.1293,3.3925,0.5604,6.9931,-1.8757,-3.2333,1.4032,15.1236
35.1562,15.3532,1.4215,5.2136,13.3082,25.3830,0.5250,7.5235,8.3676,0.5302,10.0401,0.0864,-2.7401,0.8816,-1.6167,2.8962,-1.7125,-4.7669,0.8381,13.7681
39.0625,20.7846,1.2008,3.0597,12.5908,22.2648,0.2230,5.8867,10.1404,0.0961,8.4505,-1.9601,-3.3381,-2.5061,-5.1211,-0.6565,-1.6305,-7.4862,0.2786,10.7352
42.9688,25.6176,-0.2753,-0.5173,10.4749,17.6268,-1.5034,2.8555,10.0584,-0.9011,6.1409,-3.6137,-4.5978,-6.4418,-10.0849,-3.0919,-2.3117,-11.0867,-0.7358,6.3741
46.8750,28.6555,-2.7783,-4.1218,7.4365,12.4776,-3.9589,-0.1673,8.2045,-2.6088,3.2482,-5.1687,-6.7226,-10.3894,-16.1631,-4.4968,-3.9572,-14.9768,-2.2382,1.5546
50.7812,29.1141,-5.2061,-6.3026,4.2288,7.7865,-5.8476,-1.7166,5.3562,-4.6197,0.2688,-6.7405,-9.1979,-13.7509,-22.5039,-5.3100,-6.1794,-18.5029,-3.7649,-2.6766
54.6875,26.8237,-6.3400,-6.4144,1.4934,4.1835,-6.2022,-1.0801,2.5562,-6.2232,-2.2252,-8.0999,-11.0160,-16.0111,-27.9063,-5.8620,-8.2404,-21.0832,-4.6449,-5.5630
58.5938,22.4123,-5.7045,-4.9430,-0.4784,1.8566,-5.1207,1.2865,0.6009,-6.8256,-3.8764,-8.7737,-11.2343,-16.8087,-31.1275,-6.1002,-9.4213,-22.2085,-4.4209,-6.9159
62.5000,17.2556,-3.8929,-3.0704,-1.6830,0.6740,-3.7491,4.0231,-0.2386,-6.2503,-4.6349,-8.3375,-9.5048,-15.9399,-31.2503,-5.6775,-9.2790,-21.4120,-3.1043,-7.0283
66.4062,12.9995,-2.1207,-1.8029,-2.1451,0.4046,-3.4816,5.6643,-0.1405,-4.7533,-4.6359,-6.7055,-6.2428,-13.3581,-27.9958,-4.3075,-7.6995,-18.3488,-1.1120,-6.3203
70.3125,10.7771,-1.3423,-1.2922,-1.7269,0.8526,-4.9252,5.4919,0.5640,-2.8081,-4.0275,-4.2330,-2.3549,-9.2262,-21.8694,-2.0992,-4.8434,-13.0252,1.0283,-5.0037
74.2188,10.5787,-1.5877,-0.8345,-0.2107,1.8151,-7.3808,3.9195,1.6423,-0.8483,-2.9336,-1.5719,1.2583,-4.0026,-14.0697,0.3861,-1.1225,-6.0506,2.9707,-3.0277
78.1250,11.2603,-2.0099,0.4712,2.3905,2.9438,-9.2463,2.1801,2.9835,0.8625,-1.5851,0.6244,4.0853,1.5293,-6.1637,2.4006,2.7710,1.3170,4.6451,-0.3242
82.0312,11.2831,-1.5951,2.9080,5.5628,3.7065,-9.0989,1.5241,4.4343,2.2023,-0.4704,1.9702,6.0499,6.3854,0.3830,3.4099,5.9099,7.4798,6.1303,2.8733
85.9375,9.7252,-0.0007,5.7863,8.3492,3.5837,-6.7143,2.4394,5.6603,3.0961,-0.2977,2.4440,7.2693,9.6698,4.6603,3.3599,7.3829,11.0964,7.4524,5.9422
89.8438,6.8499,2.1119,7.8276,9.7888,2.4416,-3.2996,4.3717,6.2236,3.4679,-1.6989,2.2924,7.7747,10.9181,6.5783,2.6496,6.7162,11.6755,8.4865,8.1382
93.7500,3.8112,3.5048,8.0252,9.4906,0.8233,-0.7530,6.0979,5.8706,3.2820,-4.8225,1.8367,7.4472,10.3127,6.8275,1.8624,4.2192,9.8181,9.0365,9.0613
97.6562,1.7219,3.2496,6.3723,7.9458,-0.1181,-0.4410,6.4894,4.8120,2.6171,-9.0918,1.3213,6.2157,8.6283,6.5365,1.4479,0.9629,6.9262,9.0131,8.9772
101.5625,0.8135,1.4371,3.9398,6.3250,0.8805,-2.3255,5.1782,3.7339,1.6953,-13.3297,0.8834,4.3291,6.9021,6.7646,1.5384,-1.6990,4.5025,8.5589,8.7294
105.4688,0.3437,-0.7992,2.2410,5.8457,4.4882,-5.0324,2.7266,3.4591,0.8287,-16.2218,0.6134,2.4345,5.9835,8.0463,1.9560,-2.8290,3.4169,8.0155,9.2546
109.3750,-0.6957,-1.9718,2.3099,7.0921,10.2909,-6.8065,0.2395,4.4449,0.3168,-16.8748,0.6107,1.3310,6.1892,10.1893,2.3448,-2.3875,3.5492,7.7528,11.0032
113.2812,-2.6806,-1.1748,4.0994,9.7069,16.8542,-6.6860,-1.2933,6.4548,0.3548,-15.1732,0.9551,1.5275,7.2364,12.4134,2.3303,-1.1715,3.9979,7.9733,13.6457
117.1875,-5.0385,1.3540,6.5689,12.6279,22.3511,-5.0906,-1.5001,8.6473,0.9876,-11.7712,1.6100,2.9022,8.4672,13.7512,1.6636,-0.2390,3.7083,8.6124,16.2572
121.0938,-6.8034,4.3952,8.3591,14.6904,25.4083,-3.4345,-0.6894,10.0423,2.1058,-7.7766,2.3564,4.7206,9.2180,13.5074,0.3549,-0.2136,2.1256,9.3764,17.8549
125.0000,-7.5797,6.4993,8.5839,15.2016,25.6799,-3.0549,0.5000,10.0607,3.4640,-4.3144,2.8549,6.0257,9.1207,11.5460,-1.2186,-0.9429,-0.5202,9.8754,17.9320
128.9062,-8.0670,6.8240,7.2425,14.1615,23.8331,-4.2152,1.5730,8.7887,4.7228,-2.1643,2.8415,6.1603,8.1834,8.2819,-2.3156,-1.7245,-3.4440,9.7682,16.6539
132.8125,-9.6150,5.5386,5.0481,12.0719,21.0056,-5.8793,2.4412,6.8173,5.5334,-1.5581,2.3359,5.0886,6.6514,4.4180,-2.0464,-1.8990,-5.8663,8.8644,14.6292
136.7188,-13.0790,3.5937,2.8708,9.5501,18.1231,-6.4153,3.3210,4.8075,5.6649,-2.1451,1.6986,3.3298,4.7821,0.6064,0.2004,-1.3535,-7.5132,7.1699,12.4534
140.6250,-17.8739,2.0625,1.2070,7.0360,15.5109,-4.7441,4.3890,3.1064,5.1212,-3.1129,1.4555,1.5809,2.7109,-2.7640,4.3101,-0.5719,-8.7234,4.8878,10.3566
144.5312,-22.0524,1.5015,0.0110,4.7466,12.9932,-1.1477,5.4851,1.6679,4.1669,-3.4671,1.9684,0.3047,0.4940,-5.5557,9.2721,-0.2269,-10.0954,2.3795,8.1811
148.4375,-23.4751,1.7166,-1.0651,2.8089,10.3195,2.8193,6.1119,0.2827,3.2126,-2.4450,3.1665,-0.4497,-1.7247,-7.7102,13.4956,-0.6596,-11.9293,0.0765,5.6642
152.3438,-21.2792,2.0263,-2.2537,1.3807,7.5499,5.2706,5.7547,-1.1050,2.6037,0.0721,4.5335,-0.9189,-3.5839,-9.0835,15.5278,-1.6517,-13.8555,-1.6496,2.7896
156.2500,-16.5662,1.8085,-3.3973,0.6293,5.1095,5.1731,4.3098,-2.2531,2.4357,3.3763,5.3891,-1.3391,-4.5580,-9.4410,14.7915,-2.6468,-14.9318,-2.6165,-0.0580
160.1562,-11.7678,0.9589,-4.0035,0.5990,3.5039,3.0105,2.3060,-2.7493,2.5215,6.1741,5.2946,-1.7460,-4.2113,-8.6287,11.8828,-3.2060,-14.1765,-2.8955,-2.2469
164.0625,-9.1045,-0.0189,-3.5770,1.1161,2.9526,0.4997,0.7280,-2.2852,2.5371,7.2294,4.3185,-2.0007,-2.5152,-6.7877,8.2093,-3.3087,-11.2154,-2.7646,-3.2532
167.9688,-9.2037,-0.3389,-1.9964,1.8501,3.2428,-0.4589,0.5064,-0.8555,2.2471,6.0953,2.9798,-1.9932,-0.0127,-4.4270,5.1802,-3.2504,-6.6279,-2.5731,-2.9784
171.8750,-10.8076,0.5334,0.3092,2.5016,3.9153,1.0566,1.9654,1.2532,1.6491,3.4799,1.9070,-1.8304,2.3179,-2.2609,3.4597,-3.2405,-1.7550,-2.5942,-1.8321
175.7812,-11.7015,2.4625,2.4931,2.9664,4.6196,4.4256,4.5744,3.6344,0.9356,0.9430,1.4431,-1.8413,3.4712,-0.8833,2.7601,-3.0660,1.9373,-2.9522,-0.5375
179.6875,-10.1540,4.6036,3.6591,3.3275,5.3437,7.8443,7.1749,5.9242,0.3105,0.0282,1.4611,-2.3852,2.8879,-0.4840,2.2694,-2.1559,3.5702,-3.6526,0.2131
183.5938,-5.8933,5.7917,3.2656,3.6768,6.3273,9.3714,8.5745,7.8275,-0.1937,1.3304,1.5005,-3.6046,0.7289,-0.7953,1.3610,-0.0583,3.2312,-4.6645,0.0591
187.5000,-0.0762,5.1701,1.3667,3.9182,7.7308,8.0299,8.1705,9.0351,-0.7483,4.1036,1.1137,-5.3035,-2.2082,-1.3051,0.0522,3.0079,1.8197,-5.9671,-0.9115
191.4062,5.5488,2.7177,-1.4152,3.7408,9.3359,4.3386,6.2443,9.1800,-1.5806,6.7001,0.1743,-7.0337,-4.8814,-1.5888,-1.1113,5.9792,0.4820,-7.5094,-2.2530
195.3125,9.6148,-0.6302,-4.1539,2.8233,10.5454,0.0117,3.7610,7.9565,-2.7495,7.5929,-1.0487,-8.3152,-6.4823,-1.5344,-1.6108,7.3712,-0.0122,-9.1143,-3.3799
199.2188,11.6665,-3.3690,-5.9881,1.1365,10.7238,-2.9467,1.8081,5.3640,-4.0140,6.3311,-2.0702,-8.8340,-6.7409,-1.3158,-1.4793,6.0979,0.4046,-10.4227,-3.7997
203.1250,12.1231,-4.1426,-6.4309,-0.8942,9.6530,-3.2187,1.0173,1.8898,-4.8985,3.8010,-2.4685,-8.5024,-5.9183,-1.1622,-1.3572,2.1865,1.2088,-10.9587,-3.2762
207.0312,11.9403,-2.4198,-5.5004,-2.5249,7.7679,-0.7023,1.3127,-1.5613,-4.9201,1.6249,-2.0754,-7.3889,-4.5506,-1.1204,-2.0187,-3.0849,1.7026,-10.3153,-1.8889
210.9375,12.2621,1.2357,-3.6412,-3.0792,5.9731,3.6090,2.1127,-4.0192,-3.8389,1.1053,-0.9888,-5.6205,-3.1337,-1.0096,-3.7406,-7.7472,1.4410,-8.3680,0.0048
214.8438,14.1227,5.4498,-1.4978,-2.3438,5.1298,8.2290,2.8169,-4.8994,-1.7835,2.4226,0.5323,-3.3597,-1.9446,-0.6143,-6.0184,-10.0873,0.4190,-5.3852,1.8854
218.7500,18.0862,8.7184,0.3477,-0.7124,5.5353,11.8680,3.2349,-4.2747,0.8065,4.5993,2.1712,-0.8606,-1.0625,0.0354,-7.8734,-9.4459,-1.0454,-1.9600,3.2336
222.6562,23.8276,10.1073,1.5609,1.0253,6.7347,13.8527,3.6600,-2.7957,3.3653,6.2066,3.5884,1.4787,-0.5083,0.5271,-8.5316,-6.4426,-2.5920,1.2053,3.6976
226.5625,29.9271,9.5978,2.1042,2.1162,7.7921,14.1468,4.5432,-1.3157,5.3989,6.2882,4.4328,3.1680,-0.3563,0.2205,-7.9624,-2.5599,-4.0484,3.5472,3.2089
230.4688,34.2364,7.9259,2.1597,2.2282,7.8560,13.0965,6.0090,-0.4608,6.6011,4.8613,4.4080,3.7951,-0.7237,-1.3740,-6.8688,0.6235,-5.4625,4.7965,1.9977
234.3750,34.8608,6.0586,1.9842,1.5600,6.6738,11.1425,7.5772,-0.3923,6.8650,2.6995,3.4108,3.2227,-1.6579,-4.2272,-6.1447,2.1125,-6.9526,4.9803,0.4958
238.2812,31.2745,4.6446,1.7741,0.6459,4.7483,8.6787,8.3353,-0.8538,6.2217,0.6300,1.6433,1.6790,-3.0317,-7.6867,-6.2260,1.7762,-8.5085,4.3066,-0.8383
242.1875,24.8006,3.7515,1.5948,0.0166,3.0581,6.0751,7.4974,-1.3998,4.7677,-1.0972,-0.4352,-0.3314,-4.5411,-10.7273,-6.8393,0.1888,-9.8939,3.0255,-1.6915
246.0938,17.9882,2.9974,1.3920,-0.0563,2.5174,3.7463,5.0088,-1.6164,2.6231,-2.9062,-2.3461,-2.2472,-5.8188,-12.4267,-7.3302,-1.7759,-10.7166,1.3520,-1.9880
250.0000,13.1753,1.9368,1.0682,0.4050,3.4879,2.1354,1.7804,-1.2167,-0.0587,-5.4289,-3.8802,-3.6682,-6.5836,-12.3938,-7.2904,-3.3375,-10.6145,-0.5210,-1.8612
253.9062,11.1730,0.4308,0.5830,1.2351,5.6051,1.5782,-0.6576,-0.0294,-3.0366,-8.8672,-5.2027,-4.4466,-6.7236,-10.9164,-6.9620,-4.0263,-9.4416,-2.3575,-1.5303
257.8125,10.9986,-1.2231,0.0262,2.3109,7.9862,2.1354,-0.9342,2.0141,-5.9207,-12.6844,-6.6452,-4.6245,-6.2729,-8.7673,-7.0723,-3.7156,-7.3530,-3.8344,-1.1543
261.7188,10.8416,-2.4581,-0.3844,3.6211,9.6842,3.5218,1.3831,4.8269,-8.1647,-15.8571,-8.2964,-4.2968,-5.3288,-6.8067,-8.2082,-2.5583,-4.7545,-4.5762,-0.7460
265.6250,9.5158,-2.7749,-0.3982,5.1831,10.1365,5.2023,5.4671,8.0862,-9.1768,-17.4943,-9.7137,-3.5152,-3.9961,-5.6127,-10.2219,-0.9090,-2.1607,-4.2775,-0.1918
269.5312,7.2674,-2.0492,0.1081,6.8890,9.3846,6.6042,9.5739,11.2331,-8.5608,-17.3757,-10.0476,-2.3015,-2.4111,-5.3146,-12.1632,0.7489,-0.0340,-2.8646,0.6350
273.4375,5.3139,-0.6432,0.9871,8.4158,7.9813,7.3162,11.8709,13.6177,-6.3977,-16.0453,-8.5956,-0.7385,-0.8051,-5.6647,-12.8502,1.9031,1.3318,-0.6126,1.7393
277.3438,4.5228,0.7270,1.7947,9.2854,6.6662,7.1622,11.3014,14.7371,-3.3936,-14.4379,-5.4451,0.9541,0.4836,-6.2472,-11.6963,2.1589,1.8577,1.8681,2.9353
281.2500,4.3698,1.3007,1.9406,9.0602,5.9982,6.1407,8.0320,14.4251,-0.7254,-13.3325,-1.7128,2.4404,1.1198,-6.6793,-9.1963,1.3906,1.6654,3.8114,3.9021
285.1562,3.1337,0.6231,0.9790,7.5741,6.1349,4.3210,3.2852,12.8741,0.4398,-12.9980,0.9044,3.3951,0.9744,-6.7128,-6.6927,-0.1872,1.0248,4.5987,4.3526
289.0625,-0.7100,-1.2133,-1.1005,5.0771,6.8475,1.8133,-1.2919,10.4891,-0.4414,-13.2023,1.0875,3.6645,0.2889,-6.2331,-5.5499,-2.0951,0.2808,4.0612,4.2280
292.9688,-6.9637,-3.5433,-3.7552,2.2103,7.7206,-1.1480,-4.3517,7.6886,-2.8851,-13.4714,-1.2191,3.3621,-0.3428,-5.2215,-6.2910,-3.7983,-0.2337,2.6239,3.7936
296.8750,-13.3340,-5.3532,-6.0475,-0.1911,8.3890,-4.0849,-5.2995,4.7883,-5.4796,-13.3546,-4.6146,2.8295,-0.2325,-3.7438,-8.2836,-4.9445,-0.2957,1.1802,3.5505
300.7812,-16.6741,-5.6834,-7.0297,-1.3983,8.6653,-6.2600,-4.3257,2.0106,-6.5219,-12.5339,-6.9537,2.4742,1.0090,-1.9811,-10.1824,-5.4983,0.1128,0.7155,3.9776
304.6875,-15.0544,-4.0497,-6.1641,-1.0752,8.5077,-6.8606,-2.1143,-0.4482,-4.8928,-10.8136,-6.5859,2.5561,3.1605,-0.2617,-10.8140,-5.6976,0.7460,1.8365,5.2322
308.5938,-9.1724,-0.6849,-3.5562,0.5719,7.9052,-5.3406,0.5362,-2.4027,-0.6847,-8.1363,-3.3560,3.0309,5.3739,0.9683,-9.8951,-5.8654,1.1210,4.4461,6.9907
312.5000,-2.0325,3.5291,0.1197,2.8602,6.8118,-1.7514,2.9759,-3.7512,4.7926,-4.6998,1.2815,3.5340,6.5152,1.2635,-8.1076,-6.2056,0.6596,7.7473,8.5534
316.4062,2.9238,7.4267,3.9423,4.9031,5.2139,3.1408,4.7835,-4.5658,9.6555,-1.0741,5.1329,3.5297,5.7209,0.3604,-6.5097,-6.7067,-1.0706,10.5971,9.1887
320.3125,3.9232,10.0459,7.1119,5.9824,3.2858,8.0563,5.7292,-5.0895,12.3768,1.8747,6.5770,2.5747,2.8805,-1.6683,-5.7212,-7.2028,-4.1086,12.0350,8.5358
324.2188,1.7402,10.9876,9.1666,5.8483,1.4845,11.6557,5.7230,-5.5984,12.4767,3.3404,5.4923,0.5797,-1.2307,-4.3783,-5.4641,-7.5203,-7.9740,11.7110,6.8272
328.1250,-1.1796,10.4698,9.9744,4.7976,0.4511,13.0402,4.8056,-6.2129,10.6082,3.0572,3.2231,-2.0663,-5.2666,-7.0862,-4.7794,-7.5902,-11.7714,9.9927,4.7852
332.0312,-2.5881,9.0812,9.5956,3.4895,0.7149,12.0676,3.1655,-6.8058,8.0516,1.5784,1.6442,-4.5964,-7.9247,-9.1280,-2.7683,-7.4426,-14.5217,7.7189,3.2419
335.9375,-1.8793,7.4173,8.1838,2.6004,2.3668,9.3561,1.1365,-7.0912,5.9820,0.0974,1.9603,-6.1711,-8.5357,-10.1254,0.6613,-7.1045,-15.5822,5.7644,2.7092
339.8438,-0.1301,5.8366,6.0248,2.5102,4.9221,6.0016,-0.8505,-6.8305,4.9628,-0.1497,4.0207,-6.2512,-7.3179,-10.1251,4.5703,-6.5079,-14.9381,4.6725,3.1577
343.7500,1.0982,4.4696,3.6539,3.1897,7.4973,3.1590,-2.3467,-5.9891,4.9122,1.4503,6.5576,-4.8438,-5.1708,-9.5368,7.4658,-5.5084,-13.1905,4.5384,4.1286
347.6562,1.1183,3.4102,1.8791,4.3259,9.2166,1.6652,-2.9652,-4.7077,5.4484,4.5842,8.1282,-2.4810,-3.1496,-8.9098,8.1884,-4.0212,-11.2318,5.1501,5.0802
351.5625,0.5505,2.8867,1.5693,5.5772,9.6070,1.8252,-2.4515,-3.1079,6.2861,8.2627,8.0872,0.0640,-1.9346,-8.6792,6.6333,-2.1706,-9.7830,6.2342,5.7228
355.4688,0.6028,3.2226,3.2392,6.7740,8.7482,3.3892,-0.7508,-1.1029,7.3815,11.4346,6.9370,2.1591,-1.5921,-9.0182,3.8268,-0.3191,-9.0617,7.6128,6.1185
359.3750,1.9270,4.5738,6.6566,7.9452,7.1230,5.6855,1.9254,1.6000,8.7597,13.5275,5.8522,3.5674,-1.7196,-9.8542,1.2894,1.0781,-8.7636,9.1803,6.5075
363.2812,4.0715,6.6276,10.7555,9.1822,5.3201,7.8467,5.0716,5.2626,10.2219,14.5611,5.7519,4.4317,-1.8253,-10.9814,0.0871,1.7110,-8.3459,10.7597,7.0241
367.1875,5.9653,8.5232,13.9972,10.4751,3.8251,9.0670,7.9558,9.7984,11.2190,14.8247,6.5822,5.0243,-1.6583,-12.1512,0.1856,1.5812,-7.4048,11.9939,7.5416
371.0938,6.9440,9.1359,15.0509,11.6596,3.0217,8.8350,9.8140,14.6170,11.0435,14.4502,7.3115,5.4588,-1.2769,-13.0584,0.5365,0.9739,-5.8972,12.3986,7.7715
375.0000,7.3631,7.6247,13.4413,12.5171,3.3159,7.0758,10.1183,18.7803,9.2419,13.2680,6.6391,5.5772,-0.8528,-13.2664,-0.1488,0.2573,-4.0834,11.5767,7.5328
378.9062,8.2192,3.9399,9.7917,12.9398,5.1700,4.1540,8.7962,21.3982,5.9684,11.0744,3.9317,5.0951,-0.4088,-12.2010,-2.4437,-0.3359,-2.2731,9.4646,6.9621
382.8125,10.0938,-1.0282,5.5058,13.0227,8.9030,0.7254,6.2728,22.0269,2.0251,8.0625,-0.2479,3.8941,0.2756,-9.3208,-5.7121,-0.7774,-0.5921,6.4446,6.4775
386.7188,12.3633,-5.7880,2.0581,13.0000,14.3393,-2.5062,3.2957,20.8270,-1.4659,5.0003,-4.3795,2.2330,1.5001,-4.4330,-8.4308,-1.1187,1.0519,3.2382,6.4978
390.6250,13.4531,-8.9112,0.2908,13.0683,20.5780,-5.0184,0.6294,18.4084,-3.5756,2.9196,-6.8441,0.7037,3.3502,2.0292,-9.1442,-1.2927,2.7957,0.6275,7.1250
394.5312,12.0481,-9.6661,0.1039,13.2257,26.1427,-6.5863,-1.2157,15.4920,-3.9696,2.4817,-6.8519,-0.0636,5.5174,8.9859,-7.4352,-1.0390,4.5991,-0.8456,8.0367
398.4375,8.3359,-8.2807,0.6813,13.2421,29.5262,-7.2479,-2.0908,12.6074,-2.9826,3.4823,-4.8585,0.2412,7.3998,15.0331,-4.2588,-0.0542,6.1707,-1.0520,8.6863
402.3438,4.2387,-5.7166,1.0703,12.7743,29.8504,-7.1744,-2.1372,9.9714,-1.3543,4.9035,-2.2253,1.4196,8.4308,18.9689,-1.3952,1.7149,7.1084,-0.2583,8.6683
406.2500,2.3258,-3.1211,0.7397,11.5369,27.2378,-6.5491,-1.6409,7.5375,0.1854,5.5313,-0.3693,2.8657,8.4021,20.2310,-0.3593,3.8643,7.1468,1.0334,7.9735
410.1562,4.1164,-1.2892,-0.2162,9.4144,22.6553,-5.5333,-0.9354,5.1060,1.2346,4.7250,0.0462,3.8841,7.5379,18.9990,-1.4720,5.6087,6.3144,2.2838,6.9374
414.0625,8.9933,-0.4250,-1.3077,6.4674,17.3432,-4.3140,-0.3974,2.4040,1.7838,2.7948,-0.6170,4.0189,6.2687,15.9311,-3.6971,6.1481,4.8799,3.0640,5.9210
417.9688,14.5327,-0.2742,-2.1104,2.8779,12.2154,-3.1564,-0.4589,-0.8561,2.0468,0.7143,-1.3643,3.2064,4.8888,11.7548,-5.3385,5.1168,3.1392,3.1296,4.9820
421.8750,18.0338,-0.4653,-2.6176,-1.0836,7.6183,-2.3776,-1.5234,-4.8692,2.2143,-0.6161,-1.3155,1.7055,3.3759,7.0028,-5.1233,2.8262,1.2238,2.4469,3.8114
425.7812,18.1780,-0.7924,-3.2381,-5.0325,3.5533,-2.2232,-3.7501,-9.5577,2.3097,-1.0117,-0.2909,-0.0921,1.5287,2.0492,-2.9586,0.1363,-0.9074,1.2020,2.0155
429.6875,15.6902,-1.2547,-4.4427,-8.4380,0.1153,-2.7225,-6.8178,-14.4117,2.2308,-1.0910,1.1392,-1.8199,-0.6876,-2.6642,0.1048,-1.9714,-3.2887,-0.2123,-0.4517
433.5938,12.6312,-1.8728,-6.3063,-10.6745,-2.2471,-3.6306,-9.8654,-18.5009,1.9205,-1.7656,2.1365,-3.1813,-2.8804,-6.4839,2.6175,-2.8613,-5.7343,-1.2665,-3.0363
437.5000,10.9172,-2.4698,-8.2695,-11.1967,-2.8884,-4.5192,-11.7433,-20.7443,1.5206,-3.5375,2.2405,-3.9196,-4.3040,-8.6897,3.6386,-2.4885,-7.7849,-1.4449,-4.7353
441.4062,11.1311,-2.6279,-9.3086,-9.7679,-1.4305,-4.9767,-11.5152,-20.3434,1.3744,-6.1260,1.7175,-3.8155,-4.2693,-8.8864,3.1983,-1.3185,-8.8851,-0.4434,-4.5949
445.3125,12.3680,-1.8916,-8.4457,-6.6009,1.8345,-4.7986,-8.9512,-17.1418,1.8540,-8.6745,1.3719,-2.7686,-2.6142,-7.3548,2.0732,-0.0227,-8.6839,1.6719,-2.2482
449.2188,13.0545,-0.0892,-5.3132,-2.2966,5.9451,-4.0541,-4.7046,-11.6835,3.1136,-10.3359,1.9656,-0.9194,0.1151,-5.0516,1.1261,0.8475,-7.2500,4.4447,1.8482
453.1250,12.0409,2.4604,-0.4397,2.4042,9.7235,-3.0009,-0.0251,-4.9292,4.9359,-10.7706,3.6576,1.3049,2.9343,-3.1742,0.7354,1.0485,-5.0553,7.1848,6.6242
457.0312,9.2115,5.0334,4.9208,6.9170,12.3913,-1.9174,3.8598,2.1896,6.7907,-10.2022,5.8581,3.3054,4.9801,-2.5252,0.7018,0.6593,-2.7411,9.2453,10.9084
460.9375,5.3449,6.8569,9.3376,10.9791,13.9338,-0.9663,6.3422,9.0897,8.0936,-9.0625,7.5943,4.5558,5.9824,-3.0842,0.6157,-0.0205,-0.8309,10.2858,13.9272
464.8438,1.5175,7.5236,11.8390,14.5999,14.9770,-0.1630,7.6553,15.5473,8.5154,-7.5881,8.1256,4.8428,6.3308,-4.0700,0.3176,-0.6156,0.4407,10.3862,15.5222
468.7500,-1.4375,7.1964,12.3010,17.8578,16.2864,0.5602,8.5852,21.4474,8.1468,-5.7428,7.3786,4.3464,6.7069,-4.4479,0.0525,-0.8302,1.1149,9.9525,16.0308
472.6562,-3.1275,6.4652,11.3968,20.7042,18.2484,1.2621,9.8596,26.5060,7.4041,-3.5260,5.9080,3.5085,7.5613,-3.5381,0.2050,-0.5921,1.3868,9.4694,15.9831
476.5625,-3.5307,5.9438,10.1580,22.9151,20.6784,1.9324,11.5985,30.2024,6.7259,-1.3573,4.4335,2.7697,8.8091,-1.3286,0.8620,-0.1316,1.4924,9.2419,15.8313
480.4688,-2.9075,5.8702,9.4023,24.2087,23.0424,2.4791,13.1746,31.9835,6.2603,-0.1202,3.3038,2.3430,9.9395,1.6674,1.5952,0.0872,1.6677,9.2679,15.8370
484.3750,-1.7987,5.9698,9.3370,24.4259,24.8796,2.7384,13.5718,31.5893,5.7584,-0.7062,2.2880,2.1571,10.4229,4.8426,1.6768,-0.3856,2.1414,9.2992,16.0861
488.2812,-0.9810,5.6668,9.5301,23.6331,26.0949,2.4941,12.0190,29.2537,4.7647,-3.3298,0.8464,1.9850,10.0899,7.8604,0.5946,-1.6532,3.0819,9.0382,16.5304
492.1875,-1.2017,4.4949,9.2275,22.0737,26.9158,1.5294,8.5101,25.6286,2.9903,-7.1321,-1.3212,1.6464,9.2058,10.6934,-1.5129,-3.2745,4.4775,8.3331,16.9881
496.0938,-2.7394,2.4326,7.8091,20.0110,27.5733,-0.2599,3.8953,21.4729,0.6144,-10.4521,-3.8728,1.1364,8.2098,13.3566,-3.8314,-4.4003,6.0261,7.2484,17.1315
500.0000,-5.1112,-0.0538,5.1260,17.5790,27.9621,-2.7105,-0.5059,17.3089,-1.7122,-11.6816,-5.8999,0.5931,7.3423,15.5996,-5.2930,-4.2487,7.1517,5.9770,16.5380
503.9062,-7.2672,-2.2720,1.5562,14.7401,27.5443,-5.2944,-3.5355,13.2515,-3.2011,-10.1902,-6.4776,0.1404,6.4531,16.8466,-5.1713,-2.6640,7.2015,4.6687,14.8357
507.8125,-8.2678,-3.6830,-2.2037,11.3730,25.5818,-7.2021,-4.7069,9.0935,-3.4007,-6.7142,-5.3343,-0.2664,5.1275,16.4633,-3.4728,-0.3738,5.7457,3.3143,11.8871
511.7188,-7.9981,-4.1468,-5.4492,7.4319,21.5692,-7.6480,-4.3178,4.5658,-2.5000,-2.9379,-3.1667,-0.8628,3.0243,14.1697,-0.9042,1.3008,2.8140,1.7832,7.9031
515.6250,-7.3230,-3.8951,-7.6924,3.0871,15.6183,-6.2799,-3.1480,-0.3930,-1.2438,-0.5201,-1.3363,-1.9239,0.1784,10.3010,1.5208,1.1795,-1.0704,0.0017,3.4187
519.5312,-7.4450,-3.2913,-8.7097,-1.2203,8.5825,-3.4530,-1.9615,-5.4993,-0.4920,-0.1678,-1.0882,-3.5204,-2.9366,5.7312,2.9742,-1.0283,-5.0777,-1.8539,-0.8503
523.4375,-8.8561,-2.5774,-8.4624,-4.8356,1.8530,-0.1594,-1.1331,-10.1709,-0.6983,-1.3074,-2.7662,-5.3406,-5.6021,1.5110,3.1414,-4.4481,-8.3649,-3.3115,-4.1868
527.3438,-10.6916,-1.7927,-7.0199,-7.0525,-3.0911,2.4014,-0.6038,-13.7147,-1.6507,-2.5086,-5.5287,-6.7176,-7.1623,-1.5456,2.2717,-7.4511,-10.3247,-3.7824,-6.0202
531.2500,-11.0895,-0.8974,-4.5761,-7.3417,-5.1960,3.3888,-0.1387,-15.5706,-2.6457,-2.3551,-7.7721,-6.8974,-7.2658,-3.0978,0.9997,-8.5213,-10.7009,-2.8929,-6.0349
535.1562,-8.4331,0.0320,-1.5334,-5.5837,-4.2136,2.6897,0.3453,-15.5141,-2.9793,-0.2320,-8.0320,-5.4317,-5.9539,-3.2647,0.0639,-7.0568,-9.5836,-0.7699,-4.2667
539.0625,-2.6241,0.7277,1.4730,-2.2047,-0.7997,0.8763,0.6489,-13.7418,-2.4175,3.3895,-5.8286,-2.4914,-3.6214,-2.4630,0.0236,-3.6325,-7.3559,1.9194,-1.1768
542.9688,4.6005,0.8703,3.7231,1.8815,3.7186,-1.1911,0.4699,-10.7933,-1.3226,7.2570,-1.9518,1.0986,-0.9142,-1.2498,1.0427,0.3852,-4.6307,4.2430,2.3726
546.8750,10.6602,0.3605,4.7165,5.5564,7.8278,-2.8216,-0.2373,-7.3291,-0.3529,10.0036,1.9778,4.1652,1.4048,-0.2420,2.8015,3.5787,-2.1591,5.4620,5.3259
550.7812,13.8162,-0.4840,4.4633,7.9157,10.3702,-3.7042,-1.0158,-3.8584,0.0464,10.8086,4.4062,5.7100,2.6419,-0.0637,4.5998,5.1032,-0.6655,5.4116,6.8140
554.6875,14.3550,-0.9906,3.5438,8.6289,10.9049,-3.7824,-1.0203,-0.5630,-0.0099,9.7499,4.6702,5.3875,2.4053,-1.2322,5.6665,4.8814,-0.6187,4.5684,6.5426
558.5938,14.3670,-0.4644,2.8377,8.0392,9.7324,-2.9852,0.5006,2.6734,0.0788,7.7226,3.2820,3.6735,0.8045,-3.9597,5.5673,3.3859,-2.0281,3.7542,4.9510
562.5000,16.2106,1.3869,3.0449,6.9367,7.6004,-1.1233,3.6321,6.0418,0.9501,5.9833,1.5445,1.6162,-1.5177,-7.9661,4.4907,1.2782,-4.3872,3.6507,2.9997
566.4062,20.7331,4.2092,4.2887,6.1315,5.2940,1.8984,7.5322,9.5413,2.7734,5.5239,0.7652,0.2952,-3.6027,-12.4423,3.2001,-0.8312,-6.8281,4.4237,1.6766
570.3125,26.5467,7.1182,6.0699,6.0844,3.3665,5.7098,10.7357,12.8723,5.0633,6.5551,1.5482,0.2861,-4.5751,-16.2374,2.6248,-2.4312,-8.4333,5.6849,1.5183
574.2188,30.9224,9.1451,7.6212,6.8093,2.1458,9.3114,11.9251,15.5858,6.9676,8.3653,3.5618,1.4310,-4.0183,-18.2126,3.3068,-3.0980,-8.5607,6.8038,2.4480
578.1250,31.6984,9.7671,8.4317,8.0668,1.9298,11.3896,10.7337,17.3936,7.8450,9.6801,5.8669,3.0320,-2.1101,-17.6074,5.0640,-2.5723,-7.0412,7.3539,4.0165
582.0312,28.8443,9.2134,8.5829,9.6594,3.1254,11.0276,8.0613,18.3941,7.7334,9.3917,7.5530,4.3291,0.5516,-14.2705,7.1158,-0.9246,-4.1907,7.3961,5.8344
585.9375,24.5499,8.3545,8.6554,11.5726,6.1232,8.3682,5.6454,19.0046,7.3677,7.2714,8.2720,4.9587,3.3007,-8.6945,8.6095,1.3555,-0.6748,7.4175,7.8425
589.8438,21.7610,8.2240,9.2684,13.8447,10.9290,4.7261,5.0860,19.6076,7.7161,4.2100,8.3621,5.1118,5.6927,-1.8853,9.1944,3.5102,2.6940,7.9782,10.2051
593.7500,22.1901,9.4351,10.5861,16.2861,16.8171,1.9665,6.8912,20.1572,9.3355,1.7516,8.5304,5.3214,7.5674,4.8738,9.2342,4.8841,5.1690,9.3124,12.9243
597.6562,25.1952,11.8210,12.1553,18.3198,22.3406,1.4748,10.1365,20.0719,11.9798,1.1279,9.3393,6.0476,8.9088,10.3158,9.5007,5.2854,6.2671,11.1493,15.5312
601.5625,28.2807,14.5020,13.2040,19.1479,25.8305,3.3616,12.9700,18.5567,14.7248,2.3829,10.8352,7.3499,9.6828,13.5112,10.5652,5.0620,5.9203,12.8636,17.1747
605.4688,28.8235,16.3401,13.1867,18.1956,26.1733,6.4303,13.6754,15.1821,16.5195,4.2083,12.5390,8.8557,9.8217,14.1469,12.3361,4.8071,4.5191,13.8370,17.1211
609.3750,25.7984,16.5234,12.1692,15.5389,23.4132,8.9358,11.6508,10.3173,16.7911,4.6949,13.7697,10.0184,9.3661,12.6473,14.0874,4.8976,2.7783,13.7834,15.3190
613.2812,20.3449,14.9546,10.7546,11.9847,18.7767,9.6298,7.7120,5.0746,15.7048,2.5827,14.0618,10.4640,8.6019,10.0260,14.9576,5.2112,1.4285,12.8322,12.5733
617.1875,14.8849,12.2373,9.5878,8.6813,14.0581,8.4064,3.5513,0.7460,13.9298,-1.8085,13.3995,10.1827,8.0022,7.4718,14.5471,5.2499,0.8620,11.3443,10.1196
621.0938,11.5031,9.2883,8.8013,6.4755,10.7083,6.1564,0.7097,-1.9217,12.1053,-6.6444,12.1295,9.4470,7.9412,5.8325,13.1615,4.5814,0.9365,9.6200,8.8349
625.0000,10.7192,6.8147,7.8275,5.4279,9.1622,4.0049,-0.2953,-3.1259,10.3945,-9.6703,10.6363,8.5427,8.3591,5.2657,11.5168,3.2499,1.0858,7.7113,8.6233
628.9062,11.3839,4.9664,5.7548,4.8183,8.7871,2.5178,-0.1647,-3.7968,8.4316,-9.6500,9.0214,7.5219,8.6525,5.2593,10.1337,1.8201,0.6961,5.4627,8.4373
632.8125,11.5842,3.3588,2.0139,3.6537,8.4357,1.4418,-0.2543,-4.9076,5.6825,-7.1808,7.0189,6.1590,7.9410,5.0128,8.8930,0.9915,-0.4833,2.7294,6.9687
636.7188,9.8085,1.4353,-3.0651,1.3529,7.2193,0.1069,-1.6373,-6.7656,1.9530,-4.3065,4.2203,4.1417,5.5949,3.9362,7.1179,1.0637,-2.1765,-0.3912,3.5667
640.6250,5.6169,-1.0615,-8.2144,-1.8302,5.0149,-1.8742,-4.3782,-8.7593,-2.3082,-3.1623,0.4744,1.3621,1.6933,1.9497,4.1597,1.6620,-3.7880,-3.4782,-1.2294
644.5312,-0.4236,-3.8063,-11.7623,-4.9094,2.4332,-4.1761,-7.4402,-9.7225,-6.1143,-4.5577,-3.7976,-1.8895,-2.9036,-0.5968,0.0761,1.9493,-4.8409,-5.9079,-5.9039
648.4375,-7.2209,-5.9756,-12.4310,-6.7130,0.3396,-5.9226,-9.2475,-8.6688,-8.3868,-7.4576,-7.5987,-4.9588,-6.9522,-3.2907,-4.1114,1.1874,-5.3295,-7.1018,-8.7832
652.3438,-13.5799,-6.6659,-9.9448,-6.5235,-0.7162,-6.2962,-8.5505,-5.4159,-8.4759,-9.6995,-9.7201,-7.0815,-9.4646,-6.0153,-6.8252,-0.7524,-5.7203,-6.7686,-8.9318
656.2500,-18.3707,-5.4127,-5.1397,-4.4330,-0.7980,-5.1165,-5.1033,-0.7219,-6.4704,-9.4410,-9.3125,-7.7227,-10.1991,-9.0130,-6.8038,-3.2959,-6.5917,-5.0349,-6.5814
660.1562,-20.6218,-2.5156,0.4230,-1.2438,-0.4583,-2.9587,0.1904,4.1155,-3.1615,-6.3442,-6.3703,-6.8296,-9.7096,-12.5878,-3.9064,-5.5481,-8.1660,-2.4262,-2.8899
664.0625,-19.7965,1.0234,5.0890,1.9766,-0.3184,-0.7549,5.7021,7.9153,0.2855,-1.7241,-1.8546,-4.8730,-8.9358,-16.6568,0.6633,-6.8660,-10.0752,0.2839,0.7367
667.9688,-16.2147,3.9306,7.6843,4.4022,-0.6314,0.7911,9.8255,10.1312,2.7841,2.3764,2.6531,-2.6566,-8.5996,-20.4867,4.8859,-7.2102,-11.5285,2.3125,3.3111
671.8750,-11.2286,5.2479,7.8446,5.7624,-1.0762,1.5366,11.6690,10.9788,3.7236,4.4966,5.6320,-0.9706,-8.7681,-22.8413,6.9274,-7.0406,-11.7598,3.1454,4.5699
675.7812,-6.7549,4.7805,6.0663,6.3537,-0.8747,1.7810,11.3759,11.1769,3.1897,4.5650,6.3203,-0.2367,-8.8203,-22.4955,6.0608,-6.8604,-10.4430,2.7728,4.8722
679.6875,-4.2176,3.1764,3.5197,6.8127,0.8479,1.8628,9.9476,11.5041,1.9416,3.7386,5.0770,-0.2983,-7.8074,-18.8349,3.0111,-6.7581,-7.8066,1.7748,4.8883
683.5938,-3.5370,1.5959,1.6664,7.7875,4.6312,1.8431,8.6704,12.4122,1.1340,3.5074,3.2036,-0.4661,-4.9862,-12.2034,-0.4427,-6.2792,-4.4186,1.1618,5.3108
687.5000,-2.9823,1.1321,1.7331,9.6458,10.3596,1.5267,8.4304,13.8423,1.8421,4.7587,2.2916,0.1776,-0.2429,-3.8240,-2.3692,-4.7130,-0.8482,1.9713,6.6795
691.4062,-0.2187,2.2693,4.1854,12.3118,17.1853,0.7609,9.2565,15.2732,4.5494,7.4131,3.4194,2.3378,5.7867,4.6398,-1.6067,-1.5899,2.5389,4.7691,9.2693
695.3125,5.9948,4.6538,8.4390,15.2830,23.7392,-0.2924,10.3370,15.9519,8.8411,10.7511,6.6193,6.1362,11.9336,11.6391,1.7537,2.9377,5.5451,9.3111,12.9769
699.2188,14.6138,7.2969,13.0366,17.8276,28.5720,-1.1745,10.5230,15.2205,13.5120,14.0474,10.9066,11.0071,16.9339,16.1579,6.5229,8.0614,7.9799,14.5829,17.2474
703.1250,22.5837,9.1105,16.3050,19.2941,30.6627,-1.4407,9.0610,12.8302,17.1126,16.9892,14.8563,15.9267,19.8972,17.8678,11.0701,12.6252,9.5813,19.2448,21.1614
707.0312,26.5861,9.4956,17.1998,19.3903,29.7726,-0.9980,6.1320,9.1077,18.6881,19.6278,17.3948,19.8583,20.6141,17.0466,14.1044,15.5874,10.1262,22.2603,23.7466
710.9375,25.1808,8.6579,15.8489,18.2742,26.4700,-0.1777,2.8477,4.8645,18.2942,22.0285,18.3422,22.1722,19.5805,14.3753,15.1819,16.4019,9.6428,23.3494,24.3998
714.8438,19.8858,7.4609,13.4219,16.3848,21.8044,0.5271,0.6466,1.0460,16.9445,23.9929,18.3803,22.8109,17.7263,10.7208,14.7182,15.1753,8.5166,22.9966,23.1683
718.7500,14.3812,6.8823,11.3600,14.1120,16.8020,0.8356,0.4177,-1.7262,15.9720,25.0993,18.4737,22.1394,15.9693,6.9556,13.5698,12.5911,7.3569,22.0158,20.6841
722.6562,12.2909,7.3789,10.4415,11.5356,12.0698,0.8431,1.8866,-3.4522,16.1672,24.9926,19.1235,20.6182,14.8043,3.8207,12.4708,9.6662,6.6882,20.9641,17.7695
726.5625,14.9920,8.5490,10.3087,8.4464,7.7268,0.8383,3.6947,-4.6831,17.2435,23.6390,19.9493,18.5440,14.1354,1.8254,11.6596,7.4298,6.6866,19.7979,14.9773
730.4688,20.8959,9.3304,9.8023,4.6700,3.6708,0.9442,4.1850,-6.0861,17.9996,21.3255,19.8999,16.0303,13.4437,1.1868,10.8833,6.6005,7.1594,18.0053,12.3875
734.3750,26.6384,8.6554,7.8900,0.4686,-0.0411,0.9283,2.4553,-7.9057,17.1118,18.4380,17.9810,13.2048,12.1947,1.8175,9.7213,7.3468,7.7707,15.1199,9.7946
738.2812,29.3109,6.1882,4.5478,-3.3109,-2.9997,0.3970,-0.9752,-9.6859,14.0607,15.2521,14.0376,10.4233,10.2404,3.3583,7.9740,9.2208,8.3186,11.2545,7.1160
742.1875,28.2063,2.6741,0.9498,-5.5343,-4.6010,-0.7519,-4.3373,-10.4722,9.5831,11.9337,9.0590,8.2783,7.9651,5.2434,5.8491,11.3217,8.8287,7.2607,4.6737
746.0938,24.9644,-0.3634,-1.2063,-5.4042,-4.4580,-2.0071,-5.5664,-9.3997,5.3330,8.7133,4.7621,7.3316,6.0695,6.7899,3.8318,12.6575,9.3844,4.3635,3.0947
750.0000,22.1692,-1.4559,-0.8092,-3.0205,-2.7698,-2.3981,-3.4971,-6.2924,2.9389,5.9990,2.6626,7.7224,5.1139,7.3196,2.3501,12.5524,9.8465,3.4674,2.8700
753.9062,21.4889,-0.0825,1.8657,0.5238,-0.3626,-1.1154,1.4085,-1.8754,3.0381,4.2208,3.1869,8.9244,5.1001,6.3150,1.4800,10.9043,9.7196,4.5565,3.8977
757.8125,22.6584,2.9263,5.2117,3.6331,1.6670,1.8115,7.2268,2.5575,4.8773,3.4567,5.3679,9.8582,5.3576,3.5871,0.8903,8.1538,8.3273,6.5712,5.3669
761.7188,23.8876,5.7562,7.1718,5.0193,2.5016,5.3037,11.5333,5.8189,6.7151,3.1463,7.3269,9.3465,4.8252,-0.6102,0.0508,4.9888,5.2144,7.8674,6.1135
765.6250,23.2409,6.5758,6.3788,4.3428,2.0119,7.7329,12.6003,7.4231,6.7697,2.2124,7.2669,6.6795,2.5883,-5.5942,-1.4505,1.9647,0.5090,7.0208,5.2414
769.5312,19.9311,4.5605,2.8488,2.3007,0.7840,7.8696,10.1802,7.7436,4.1598,-0.3706,4.4094,1.9827,-1.6136,-10.4326,-3.6902,-0.7313,-5.0137,3.5532,2.6199
773.4375,14.6830,0.3838,-2.1407,0.1426,-0.2280,5.6715,5.5049,7.6693,-0.6646,-4.8901,-0.6404,-3.8061,-7.1718,-14.2402,-6.4005,-3.2380,-10.2276,-1.7943,-1.0436
777.3438,9.0958,-4.1087,-6.8132,-1.0474,-0.1956,2.3692,0.5904,8.0116,-6.1681,-10.5714,-6.2555,-9.3182,-12.7907,-16.4748,-9.1232,-5.7457,-14.1336,-7.3618,-4.5715
781.2500,4.6242,-6.8478,-9.7595,-0.8511,1.2267,-0.2278,-2.7145,9.0364,-10.4487,-15.8886,-10.6153,-13.2823,-16.9727,-17.0992,-11.3846,-8.1837,-16.2393,-11.2786,-6.8720
785.1562,1.9241,-6.5699,-10.4089,0.4569,3.8318,-0.7626,-3.4479,10.3733,-12.0298,-19.3469,-12.5100,-14.9435,-18.5845,-16.5369,-12.7881,-10.0901,-16.6467,-12.2321,-7.3599
789.0625,0.8742,-3.3634,-8.9637,2.2679,7.0392,0.9604,-1.7444,11.2929,-10.3799,-20.2351,-11.7195,-14.2163,-17.2632,-15.4421,-13.0325,-10.7700,-15.8583,-9.9572,-6.0623
792.9688,1.0139,1.5146,-6.0240,4.0705,10.1663,4.0087,1.4372,11.1386,-6.0155,-18.8799,-8.8682,-11.5779,-13.5117,-14.3904,-11.9438,-9.6731,-14.4688,-5.2651,-3.4515
796.8750,1.9051,6.3694,-2.2516,5.6652,12.6518,7.0010,4.8374,9.6665,-0.2417,-16.2904,-4.9614,-7.8162,-8.4630,-13.6188,-9.5787,-6.7833,-12.9267,0.3537,-0.1774
800.7812,3.1539,9.8819,1.7396,7.0983,14.1870,8.9240,7.4033,7.1585,5.3205,-13.5132,-0.9378,-3.7697,-3.4231,-12.9189,-6.3497,-2.7906,-11.4514,5.3476,3.1470
804.6875,4.2355,11.5612,5.3444,8.4704,14.7797,9.5474,8.6067,4.3189,9.2566,-11.1686,2.5407,-0.1446,0.6162,-11.7240,-3.0392,1.0838,-10.0708,8.6648,6.0658
808.5938,4.4646,11.6778,7.9829,9.8198,14.7662,9.2478,8.5190,2.0418,10.7928,-9.4307,5.0559,2.5792,3.2918,-9.3662,-0.5978,3.5612,-8.7008,10.0404,8.3427
812.5000,3.2792,10.8496,9.2771,11.1540,14.7337,8.4920,7.6771,1.1304,10.0162,-8.3228,6.3260,4.1781,4.8822,-5.4186,0.2316,3.8720,-7.2145,9.9258,9.9949
816.4062,0.6480,9.6220,9.2841,12.5318,15.3037,7.4378,6.8137,2.0253,7.7935,-7.9590,6.1960,4.6808,6.0265,0.0079,-0.7212,2.1367,-5.5036,9.1464,11.2708
820.3125,-2.7738,8.3002,8.5640,14.0532,16.8088,5.9517,6.5545,4.6055,5.3903,-8.4674,4.7622,4.3424,7.3053,6.1527,-2.9172,-0.6478,-3.5378,8.4814,12.5259
824.2188,-5.9468,7.0531,7.9505,15.7235,19.0100,3.9660,7.1893,8.1528,3.9281,-9.6693,2.5115,3.5855,8.9100,11.7712,-5.3024,-3.0437,-1.4025,8.3641,14.0151
828.1250,-8.0347,6.0912,8.1131,17.3073,21.0551,1.8121,8.6013,11.5503,3.9163,-10.8696,0.2956,2.8989,10.5731,15.5504,-6.7429,-3.8401,0.7206,8.8097,15.7036
832.0312,-8.8538,5.6960,9.1729,18.3338,21.7782,0.1946,10.3654,13.6894,5.0812,-11.0690,-0.9424,2.6907,11.7740,16.6101,-6.4818,-2.6218,2.6340,9.5357,17.2265
835.9375,-8.8608,6.0296,10.6190,18.3015,20.2429,-0.2280,11.9404,13.9203,6.5699,-9.5618,-0.5986,3.1261,12.0641,14.8486,-4.4077,0.0600,4.2076,10.1505,18.0417
839.8438,-8.7288,6.8747,11.5756,16.9542,16.2479,0.6438,12.8413,12.3141,7.4070,-6.5120,1.2369,4.0120,11.2926,10.9420,-1.0504,3.0080,5.3829,10.2922,17.6898
843.7500,-8.8729,7.5530,11.2496,14.4212,10.4992,2.1471,12.7171,9.5797,6.9567,-3.0271,3.7312,4.8067,9.5995,5.9837,2.6392,5.0086,6.0767,9.6828,15.9976
847.6562,-9.2881,7.1743,9.2959,11.1103,4.3297,3.1528,11.3533,6.6776,5.1645,-0.5739,5.6424,4.7999,7.2206,0.9587,5.6050,5.4077,6.0672,8.1517,13.1073
851.5625,-9.7572,5.1277,5.9238,7.4378,-0.8905,2.6945,8.6827,4.3552,2.4958,-0.0692,5.8936,3.4263,4.2829,-3.6505,6.9924,4.3046,4.9973,5.6901,9.3489
855.4688,-10.1669,1.5179,1.7407,3.6146,-4.3265,0.5212,4.8605,2.8714,-0.3470,-1.2654,4.0914,0.5725,0.7619,-7.9112,6.3917,2.2870,2.5645,2.5289,5.0774
859.3750,-10.6132,-2.7666,-2.5291,-0.3431,-5.9338,-2.7799,0.3584,2.0388,-2.7586,-2.8858,0.7034,-3.3009,-3.3737,-12.1467,3.9721,-0.0712,-1.1898,-0.8491,0.5922
863.2812,-11.2255,-6.4578,-6.2998,-4.4026,-6.2965,-6.1438,-4.0465,1.4958,-4.4644,-3.4548,-3.2041,-7.3290,-7.9620,-16.5249,0.4502,-2.5748,-5.7065,-3.8497,-3.8443
867.1875,-11.9345,-8.5800,-9.2602,-8.2987,-6.1953,-8.6077,-7.4790,0.9865,-5.5798,-2.2721,-6.5234,-10.6460,-12.5749,-20.8109,-3.1497,-5.3736,-10.0325,-6.0373,-7.9718
871.0938,-12.4650,-8.9808,-11.3804,-11.5162,-6.1752,-9.7308,-9.3167,0.4656,-6.4945,0.1360,-8.6352,-12.7948,-16.6444,-24.4332,-5.8964,-8.5772,-13.2354,-7.3742,-11.5608
875.0000,-12.5910,-8.3709,-12.8097,-13.5024,-6.3287,-9.6342,-9.4802,0.0133,-7.6322,2.3971,-9.6129,-13.8841,-19.6917,-26.7778,-7.3436,-11.8410,-14.8699,-8.2301,-14.4859
878.9062,-12.3771,-7.8214,-13.7039,-13.9387,-6.3374,-8.7250,-8.4484,-0.3024,-9.1702,3.2402,-10.0007,-14.3774,-21.4666,-27.4677,-7.6878,-14.2946,-15.1776,-9.0889,-16.7347
882.8125,-12.0780,-8.0244,-14.0432,-12.8451,-5.6640,-7.3704,-6.9477,-0.4651,-10.8417,2.3668,-10.3325,-14.6467,-21.8856,-26.4198,-7.5646,-14.9369,-14.8512,-10.1066,-18.2675
886.7188,-11.6760,-8.7995,-13.5391,-10.4370,-3.7546,-5.7610,-5.5048,-0.4240,-11.9478,0.6624,-10.7201,-14.6078,-20.8373,-23.6660,-7.5803,-13.2680,-14.4957,-10.8345,-18.7896
890.6250,-10.4492,-9.1865,-11.7249,-6.8729,-0.1864,-4.0058,-4.1789,-0.0007,-11.6412,-0.3707,-10.7843,-13.7179,-18.0625,-19.1312,-7.8711,-9.7108,-14.1483,-10.3623,-17.6403
894.5312,-7.0844,-8.0897,-8.2452,-2.1506,5.2075,-2.2984,-2.6753,1.0636,-9.3924,0.4327,-9.9688,-11.3738,-13.2823,-12.6099,-7.9996,-5.4888,-13.2084,-7.8664,-14.0020
898.4375,-0.4904,-5.0639,-3.2104,3.7134,12.1904,-0.9502,-0.7592,2.8932,-5.3965,3.1797,-8.0096,-7.4494,-6.5450,-4.0315,-7.2813,-1.9894,-10.8555,-3.2442,-7.4217
902.3438,9.1489,-0.7184,2.6122,10.3346,19.9849,-0.2272,1.3653,5.2381,-0.6430,6.8644,-5.2202,-2.5826,1.4534,6.1378,-5.3300,-0.0119,-6.6935,2.6002,1.6308
906.2500,19.8992,3.5497,7.9599,16.7502,27.2720,-0.1182,3.0481,7.4255,3.4694,9.9690,-2.3753,2.0316,9.3637,16.6646,-2.4298,0.6049,-1.1835,8.0638,11.5745
910.1562,28.7318,6.3454,11.5731,21.6062,32.4569,-0.2490,3.6270,8.6129,5.8135,11.3202,-0.2553,5.2488,15.6047,25.7327,0.5526,0.7333,4.4446,11.6082,20.1472
914.0625,33.0902,7.0920,12.7868,23.7249,34.1987,-0.0540,3.0078,8.2352,6.1203,10.6985,0.8389,6.6025,19.0261,31.5338,2.6819,1.2752,8.7717,12.5293,25.3259
917.9688,32.4141,6.3479,11.8688,22.7376,32.0078,0.8813,1.9333,6.3742,5.1032,8.8924,1.2627,6.5376,19.4308,32.9879,3.5420,2.5331,10.9046,11.2645,26.2578
921.8750,28.5676,5.4247,9.8871,19.3610,26.5890,2.5443,1.6589,3.7977,4.0169,7.2257,1.7600,6.0979,17.6301,30.2008,3.4797,4.0652,10.8911,9.0634,23.6579
925.7812,24.7884,5.5542,8.1645,15.0981,19.6772,4.4857,3.1736,1.6121,3.9154,6.8417,2.9251,6.2711,14.9846,24.4024,3.3247,5.0905,9.5964,7.2535,19.4107
929.6875,23.7755,7.1340,7.6280,11.5022,13.3585,6.0875,6.4646,0.7183,5.0696,8.1036,4.7574,7.4132,12.6965,17.3871,3.7825,5.1071,8.1464,6.5672,15.5837
933.5938,26.1303,9.5097,8.4001,9.4241,9.1724,6.9136,10.3478,1.3795,6.8913,10.3689,6.6116,9.0880,11.2627,10.7549,4.9322,4.2456,7.2971,6.9007,13.4076
937.5000,30.1279,11.3840,9.8147,8.6692,7.4486,6.8938,13.0333,3.1337,8.3584,12.2198,7.5717,10.3654,10.3716,5.3358,6.1762,3.0956,7.0941,7.5578,12.7780
941.4062,32.8863,11.5509,10.7810,8.2335,7.2472,6.2223,13.1049,5.0682,8.6100,12.0525,6.9900,10.3319,9.2427,1.0632,6.6536,2.1624,6.9773,7.7202,12.5055
945.3125,32.0961,9.4901,10.2639,6.9440,6.9524,5.0812,10.3086,6.2777,7.3113,8.7902,4.8312,8.4887,7.1552,-2.6972,5.7956,1.4007,6.2046,6.8115,11.1061
949.2188,27.1981,5.5122,7.6684,4.1258,5.2151,3.4379,5.6714,6.2618,4.6152,2.4240,1.6158,4.8697,3.8514,-6.5800,3.6240,0.2202,4.3126,4.5994,7.6530
953.1250,19.4044,0.4797,3.0402,-0.0408,1.7344,1.1116,0.9142,5.0963,0.8769,-5.8791,-1.9523,-0.0618,-0.3645,-10.7322,0.6150,-2.0086,1.3593,1.1267,2.2531
957.0312,10.7976,-4.6192,-2.8964,-4.5994,-2.5394,-1.9150,-2.4351,3.3577,-3.5572,-14.1914,-5.3781,-5.5601,-4.7999,-14.6457,-2.6999,-5.3147,-2.1318,-3.3314,-4.0198
960.9375,3.2664,-8.9526,-8.8444,-8.2217,-5.8805,-5.1828,-3.6772,1.8813,-8.2959,-20.6038,-8.5065,-10.6865,-8.6550,-17.3722,-6.0399,-8.8553,-5.4336,-8.1938,-9.6024
964.8438,-2.0705,-11.8992,-13.2131,-9.7182,-6.6683,-7.7279,-3.0078,1.4637,-12.6884,-24.0003,-11.3347,-14.4000,-11.2534,-17.9896,-9.3375,-11.2668,-7.9085,-12.5048,-13.0414
968.7500,-4.8571,-13.0065,-14.5934,-8.4501,-4.1901,-8.4537,-1.1111,2.5921,-15.7549,-24.4305,-13.7046,-15.7768,-12.1660,-16.0773,-12.4295,-11.4530,-9.1955,-15.0781,-13.4639
972.6562,-5.2758,-12.0423,-12.3301,-4.5331,1.0449,-6.7329,1.3430,5.2585,-16.4846,-22.8926,-15.1634,-14.3783,-11.2589,-11.9620,-14.7963,-9.2948,-9.2535,-14.9343,-10.7993
976.5625,-3.9745,-9.1760,-6.9352,1.1970,7.6009,-2.8732,3.9410,8.9131,-14.4033,-20.6784,-15.1476,-10.5900,-8.7153,-6.6178,-15.6572,-5.8050,-8.3039,-11.8464,-5.7547
980.4688,-2.1385,-5.1281,-0.0550,7.4320,13.8019,1.8750,6.4305,12.5960,-10.0248,-18.6880,-13.3807,-5.6521,-5.0359,-1.2735,-14.4342,-2.6110,-6.7396,-6.6353,0.4062
984.3750,-1.3643,-1.0614,6.1119,12.7845,18.4136,5.8356,8.4928,15.2317,-4.7939,-17.1151,-10.1909,-1.2331,-0.9780,3.0711,-11.2650,-1.0879,-5.0371,-0.9439,6.2194
988.2812,-3.0770,1.8539,9.7224,16.2048,20.9809,7.6910,9.6659,15.9910,-0.4445,-15.6282,-6.4867,1.3041,2.5961,5.9755,-7.1407,-1.6699,-3.6731,3.4677,10.4328
992.1875,-7.6861,3.0051,10.0621,17.2713,21.7287,7.1110,9.5309,14.5657,1.8793,-13.8309,-3.3537,1.5444,4.9365,7.5761,-3.4767,-3.7183,-3.0268,5.5336,12.3546
996.0938,-14.0778,2.6785,7.7546,16.2349,21.1866,4.8817,8.0236,11.2318,2.1914,-11.6180,-1.4993,0.1794,5.6204,8.3110,-1.3335,-5.9506,-3.2717,5.3324,12.0139
1000.0000,-19.9695,1.9140,4.3088,13.8101,19.8228,2.4774,5.6046,6.6868,1.5562,-9.1756,-0.8883,-1.4271,4.6854,8.5374,-0.7950,-7.1038,-4.2881,3.9271,10.0632
1003.9062,-23.0735,1.9180,1.2997,10.8360,17.8956,1.3206,3.1177,1.7697,1.3813,-6.6941,-0.7923,-1.9984,2.6387,8.2902,-0.9437,-6.4421,-5.6527,2.7192,7.4757
1007.8125,-22.3703,3.3724,-0.3212,7.9890,15.5447,2.1230,1.3965,-2.7744,2.5758,-4.1063,-0.2255,-0.9628,0.3382,7.3301,-0.4877,-3.9069,-6.7416,2.7221,5.1876
1011.7188,-18.6247,6.0608,-0.4299,5.6699,12.9704,4.6229,0.8621,-6.3891,5.0962,-1.1336,1.4943,1.4113,-1.2354,5.4365,1.3559,0.0206,-6.9419,4.1554,3.8451
1015.6250,-13.7807,9.0261,0.5435,4.0528,10.5137,7.7959,1.3512,-8.6847,8.1041,2.3610,4.3739,4.3618,-1.2809,2.7309,4.2988,4.5417,-5.8988,6.5093,3.7221
1019.5312,-9.6872,11.1317,2.0496,3.1746,8.5483,10.3755,2.2531,-9.4105,10.5422,6.0135,7.7425,7.1437,0.5130,-0.2154,7.1157,8.7083,-3.6908,8.9283,4.7561
1023.4375,-7.0917,11.6553,3.6664,2.9502,7.2538,11.3995,2.8417,-8.5111,11.6997,8.9547,10.5784,9.3327,3.7610,-2.5981,8.3873,11.5594,-0.8378,10.6227,6.6026
1027.3438,-5.5959,10.5626,5.0470,3.1151,6.4425,10.5404,2.6004,-6.2452,11.4274,10.2612,11.9561,10.7709,7.4088,-3.8098,7.3649,12.3254,1.8799,11.0977,8.6631
1031.2500,-4.4854,8.3571,5.7534,3.2038,5.5901,8.1257,1.3986,-3.2466,9.9714,9.5863,11.3890,11.3074,10.0618,-3.8182,4.4018,10.7139,3.7171,10.1840,10.1374
1035.1562,-3.6494,5.6849,5.2562,2.6814,4.0935,4.9075,-0.5099,-0.4025,7.6630,7.4972,8.9402,10.6393,10.5346,-3.2372,0.6977,7.1308,4.2350,7.9882,10.1982
1039.0625,-3.7651,2.9978,3.2073,1.2197,1.6328,1.7286,-2.6106,1.4610,4.7436,5.2167,5.1230,8.4378,8.3863,-3.0153,-2.4444,2.6232,3.4218,4.8610,8.3002
1042.9688,-5.5793,0.4752,-0.1996,-1.0404,-1.5616,-0.7654,-4.3112,1.9469,1.4193,3.8946,0.6920,4.6781,4.1602,-3.8988,-4.3507,-1.5338,1.6238,1.3730,4.5019
1046.8750,-8.9131,-1.8201,-4.1103,-3.4469,-4.6985,-2.2746,-5.1501,1.2992,-1.9820,3.9028,-3.5664,-0.1111,-0.8351,-5.9715,-5.2368,-4.4263,-0.6458,-1.7865,-0.4113
1050.7812,-12.3045,-3.7460,-7.3228,-5.1036,-6.7053,-2.8351,-4.9899,0.3136,-4.9572,4.6566,-6.9936,-4.9244,-5.1151,-8.5381,-5.8786,-5.9071,-2.8965,-4.0253,-5.1504
1054.6875,-13.7062,-5.0337,-8.8978,-5.3237,-6.6804,-2.6954,-4.1191,-0.0292,-6.9736,5.0968,-9.1652,-8.6907,-7.6771,-10.4293,-6.9584,-6.5340,-4.7592,-5.0947,-8.4384
1058.5938,-11.7909,-5.4297,-8.6734,-4.0064,-4.3133,-2.1581,-3.1681,0.9699,-7.7213,4.4843,-9.9560,-10.7739,-8.3781,-10.5837,-8.5473,-7.0655,-5.9952,-5.2045,-9.5696
1062.5000,-6.8768,-4.9043,-7.3290,-1.7055,-0.0760,-1.4595,-2.8177,3.3917,-7.2840,2.9268,-9.5563,-11.2449,-7.8551,-8.6128,-10.0542,-7.8673,-6.4890,-4.9024,-8.7089
1066.4062,-0.7424,-3.7500,-5.9434,0.6417,4.9095,-0.7298,-3.4139,6.6401,-6.1042,1.2631,-8.4166,-10.7645,-7.0887,-5.0702,-10.6476,-8.6672,-6.2956,-4.7712,-6.7671
1070.3125,4.5497,-2.4802,-5.3475,2.1464,9.2726,-0.0201,-4.7202,9.6656,-4.7729,0.4069,-7.1076,-10.1784,-6.8990,-1.2938,-9.8449,-8.8579,-5.7249,-5.1329,-4.9369
1074.2188,7.9291,-1.5873,-5.7035,2.3050,11.8913,0.6506,-5.9997,11.3510,-3.7852,0.6563,-6.1256,-10.0916,-7.6606,1.1164,-7.8742,-8.1269,-5.3627,-5.9438,-4.1584
1078.1250,9.7440,-1.3113,-6.5607,1.0871,12.2731,1.2757,-6.4321,10.9000,-3.3900,1.4869,-5.7114,-10.6579,-9.3236,0.9577,-5.5802,-6.9193,-5.9237,-6.9197,-4.7913
1082.0312,11.0858,-1.5568,-7.2825,-1.1849,10.6714,1.8743,-5.6302,8.1034,-3.5658,1.9705,-5.7652,-11.6411,-11.6118,-2.0552,-3.9431,-6.3233,-7.9316,-7.7656,-6.6038
1085.9375,12.6487,-1.9896,-7.4935,-4.0036,7.9190,2.4968,-3.9154,3.4185,-4.0679,1.4934,-5.9041,-12.6238,-14.1753,-7.1261,-3.5197,-7.3777,-11.3691,-8.3201,-8.9903
1089.8438,14.1165,-2.2384,-7.2193,-6.7568,5.0890,3.1776,-2.1425,-2.1438,-4.4934,0.2316,-5.6450,-13.1933,-16.5781,-12.6377,-4.1434,-10.2492,-15.5132,-8.5240,-11.2236
1093.7500,14.5970,-2.0786,-6.6656,-8.7259,3.1511,3.8386,-1.1539,-7.2924,-4.3661,-0.9559,-4.6290,-13.0196,-18.1907,-16.7307,-5.0511,-13.8710,-19.1024,-8.2780,-12.6033
1097.6562,13.7173,-1.5045,-5.8640,-9.1226,2.7499,4.2238,-1.2082,-10.8163,-3.2730,-1.1112,-2.7794,-11.8583,-18.1770,-17.9653,-5.3397,-16.3626,-20.7986,-7.3482,-12.4997
1101.5625,12.4008,-0.6681,-4.4996,-7.2669,4.1310,3.9646,-1.7610,-11.9255,-1.0404,0.2032,-0.3131,-9.5614,-15.7141,-15.8000,-4.4704,-16.0249,-19.7272,-5.4264,-10.3960
1105.4688,12.5632,0.2652,-2.0688,-2.8811,7.1525,2.8113,-1.7553,-10.4534,2.1401,2.6854,2.3966,-6.1280,-10.3916,-10.7076,-2.5297,-12.3085,-15.8216,-2.3131,-6.0114
1109.3750,15.8332,1.2604,1.7507,3.6644,11.3064,0.9219,-0.2434,-6.8491,5.7461,5.5714,5.0236,-1.7500,-2.5683,-3.9187,-0.1168,-6.1526,-9.8129,1.9191,0.5130
1113.2812,22.2263,2.4684,6.7930,11.3324,15.7419,-0.9995,3.0448,-1.9752,9.1428,8.1336,7.4341,3.2045,6.5625,3.0562,2.0456,0.5066,-2.9063,6.9015,8.4889
1117.1875,29.8049,4.1456,12.3716,18.6882,19.3607,-1.8988,7.5219,3.1872,11.8663,9.9976,9.6769,8.2749,15.2884,8.8945,3.5249,5.7305,3.6541,12.0851,16.7386
1121.0938,35.6522,6.4568,17.5243,24.3410,21.0640,-0.8909,12.0227,7.7907,13.7792,11.0797,11.8197,12.9864,21.9369,12.7414,4.3657,8.4633,8.9138,16.8879,23.8639
1125.0000,37.5138,9.2551,21.3520,27.3504,20.1431,2.1483,15.3341,11.2488,14.9843,11.2904,13.7412,16.8570,25.4047,14.2593,4.9492,8.8193,12.3230,20.7615,28.6268
1128.9062,34.9773,11.9796,23.2488,27.4329,16.6613,6.2940,16.6585,13.2523,15.5671,10.3427,15.0354,19.3513,25.4159,13.5359,5.6349,7.7036,13.6852,23.1744,30.2820
1132.8125,29.4316,13.7775,22.9527,24.9352,11.5988,9.8511,15.8034,13.7450,15.3903,7.8952,15.1377,19.8890,22.4453,10.9794,6.4316,6.1140,13.0637,23.6166,28.7389
1136.7188,22.9613,13.8463,20.4942,20.6554,6.5954,11.1349,13.1032,12.9224,14.1372,3.9417,13.6398,18.0150,17.4220,7.2609,6.9285,4.5997,10.7347,21.7309,24.5255
1140.6250,17.0615,11.8420,16.1666,15.6105,3.3339,9.3551,9.2210,11.2351,11.6056,-0.8881,10.6213,13.7053,11.4015,3.2548,6.5524,3.1594,7.1823,17.5505,18.6095
1144.5312,12.0743,8.1215,10.5485,10.7973,2.8224,5.0816,4.9658,9.3239,8.0294,-5.4312,6.7713,7.6187,5.3349,-0.1195,4.9955,1.5201,3.0585,11.6765,12.1454
1148.4375,7.5754,3.6444,4.4938,6.9478,4.9366,-0.0176,1.1485,7.8281,4.1415,-8.5160,3.1674,1.0525,-0.0549,-2.1917,2.5305,-0.4945,-0.9474,5.2031,6.1998
1152.3438,3.1812,-0.4540,-1.0254,4.3075,8.4670,-4.0484,-1.5815,7.1131,0.8612,-9.6026,0.7800,-4.4943,-4.3469,-2.8656,-0.0243,-2.7794,-4.3085,-0.6582,1.4886
1156.2500,-0.9982,-3.3952,-5.2287,2.5339,11.6608,-5.8687,-2.9389,7.0624,-1.2248,-9.1117,-0.0434,-7.9799,-7.4806,-2.7697,-1.7166,-5.0177,-6.8284,-5.0804,-1.8141
1160.1562,-4.6058,-5.0868,-7.8424,0.8343,12.9846,-5.5949,-3.1499,7.0951,-2.2296,-8.2052,0.2002,-9.3208,-9.7594,-3.0606,-2.0189,-6.8752,-8.6715,-7.9447,-4.1052
1164.0625,-7.6378,-6.0458,-9.2030,-1.6315,11.7385,-4.3475,-2.8888,6.4560,-2.8955,-8.1336,0.4171,-9.3864,-11.7214,-4.8862,-1.1855,-8.1330,-10.2224,-9.7626,-6.1438
1167.9688,-10.7189,-6.9645,-10.0315,-5.2343,8.2547,-3.4313,-2.9405,4.6469,-4.0912,-9.5365,-0.4546,-9.4259,-13.8584,-8.7376,-0.1440,-8.6798,-11.8383,-11.2291,-8.6350
1171.8750,-14.6698,-8.1954,-10.9696,-9.5255,3.6543,-3.4920,-3.7222,1.7553,-6.1901,-12.0909,-2.7679,-10.2380,-16.2808,-14.0375,0.0558,-8.4295,-13.6183,-12.6877,-11.7683
1175.7812,-19.6589,-9.4856,-12.1424,-13.3010,-0.6528,-4.1895,-4.9600,-1.5301,-8.7425,-14.6740,-5.8388,-11.5925,-18.5143,-19.2269,-1.0714,-7.2892,-15.2976,-13.8565,-14.9601
1179.6875,-24.6694,-10.1259,-13.0216,-15.1015,-3.4633,-4.5624,-5.7786,-4.2431,-10.6670,-15.9102,-8.1935,-12.2926,-19.5885,-22.3575,-3.0558,-5.2349,-16.3120,-13.9871,-16.9855
1183.5938,-27.8292,-9.4066,-12.6890,-13.9061,-4.0855,-3.7952,-5.2154,-5.6200,-10.8410,-14.7938,-8.2990,-10.8738,-18.4288,-21.9193,-4.6515,-2.4383,-15.9959,-12.3396,-16.4905
1187.5000,-27.4658,-7.0737,-10.3555,-9.6334,-2.4155,-1.8401,-2.8717,-5.4550,-8.7178,-11.0976,-5.3921,-6.5308,-14.3809,-17.4962,-4.5206,0.6787,-13.8354,-8.6528,-12.6492
1191.4062,-23.1365,-3.4915,-5.8333,-3.1682,1.1478,0.5314,0.7267,-4.1284,-4.5972,-5.4275,0.0517,0.2926,-7.5981,-9.9356,-2.0361,3.5336,-9.6868,-3.3140,-5.6264
1195.3125,-15.8662,0.5730,0.3060,4.0802,5.8570,2.2663,4.3310,-2.3166,0.5767,1.0454,6.4829,8.0113,0.9176,-0.9798,2.2776,5.5876,-3.8914,2.8431,3.4049
1199.2188,-7.4334,4.3728,6.9562,10.8029,10.7911,2.7634,6.6474,-0.5851,5.7119,7.0348,11.9926,14.6374,9.6468,7.4188,6.9399,6.5506,2.7499,8.9321,12.6965
1203.1250,0.6992,7.5147,12.9295,16.2268,15.0414,2.2802,7.0797,0.8762,10.0237,11.5852,15.1807,18.7001,17.0793,13.7504,10.2412,6.4788,9.1429,14.3157,20.5683
1207.0312,7.9546,9.9924,17.3646,20.1454,17.8964,1.7262,6.0583,2.2291,13.1915,14.3452,15.7045,19.8161,22.1697,17.2914,11.0847,5.7235,14.1672,18.6400,25.9245
1210.9375,14.3041,11.9372,19.8845,22.6186,18.9902,1.9845,4.7348,3.7280,15.2025,15.5584,14.2362,18.6266,24.5231,18.0750,9.4725,4.7715,16.9687,21.6556,28.4171
1214.8438,19.4206,13.3097,20.4854,23.6250,18.3647,3.2352,4.2323,5.4287,16.0778,15.7817,11.9139,16.2232,24.2920,16.6234,6.3999,4.0549,17.1881,23.0422,28.2677
1218.7500,22.1983,13.7913,19.3134,22.9494,16.4211,4.7565,4.9314,7.0721,15.7298,15.4849,9.6647,13.4811,21.9265,13.6542,3.2792,3.7960,15.0512,22.4418,25.9525
1222.6562,21.2430,12.9820,16.5398,20.3826,13.7889,5.3607,6.2503,8.2187,14.0632,14.7755,7.8170,10.7204,17.9737,9.9010,1.2641,3.9363,11.2907,19.7229,21.9916
1226.5625,16.0942,10.7736,12.4295,16.0671,11.1646,4.1903,7.0527,8.5344,11.2294,13.4375,6.1925,7.8446,13.0253,6.0481,0.8414,4.1736,6.9200,15.2908,16.9407
1230.4688,8.2101,7.6211,7.5187,10.6999,9.1621,1.3560,6.4113,8.0285,7.8106,11.2650,4.5341,4.7694,7.7618,2.6829,1.8326,4.1110,2.9272,10.1785,11.4908
1234.3750,0.7589,4.4804,2.6890,5.3999,8.1815,-2.0094,4.2292,7.0781,4.7412,8.4436,2.9063,1.7711,2.9491,0.1870,3.6785,3.4753,-0.0223,5.7661,6.4818
1238.2812,-2.9208,2.3933,-1.0263,1.2744,8.2960,-4.3340,1.3287,6.2184,2.9465,5.6542,1.7563,-0.5216,-0.7197,-1.4098,5.7571,2.3061,-1.7773,3.2166,2.7108
1242.1875,-1.2833,1.9452,-2.8779,-1.0684,9.1832,-4.4803,-1.0385,5.8282,2.8796,3.7568,1.5944,-1.4862,-2.8927,-2.4911,7.5539,0.9971,-2.7081,2.9261,0.6053
1246.0938,4.3959,2.9292,-2.8316,-1.7637,10.1727,-2.3800,-1.9338,5.9100,4.2366,3.2366,2.5532,-0.9457,-3.7543,-3.7109,8.6853,0.1287,-3.5023,4.3178,-0.0118
1250.0000,10.7492,4.4501,-1.6754,-1.5359,10.4683,0.9422,-1.2552,6.1059,6.0624,3.8339,4.1858,0.6478,-3.9545,-5.6441,8.8958,0.1559,-4.8031,6.1427,0.1501
1253.9062,14.4328,5.4392,-0.6381,-1.2259,9.5122,3.9543,0.2737,5.9439,7.2456,4.6927,5.6911,2.4406,-4.2313,-8.3863,8.1264,1.1276,-6.8367,7.1603,0.2615
1257.8125,14.2593,5.2952,-0.6672,-1.2724,7.3360,5.4460,1.6162,5.1659,7.1554,4.9887,6.4342,3.6809,-4.9130,-11.3454,6.6187,2.6207,-9.2205,6.8377,-0.0903
1261.7188,11.9173,4.2690,-1.7828,-1.4460,4.6790,5.1194,2.0904,3.9343,6.0537,4.5923,6.3871,4.1629,-5.6210,-13.3967,4.9197,3.9505,-11.0869,5.6685,-0.5759
1265.6250,10.7846,3.3484,-2.9454,-0.9923,2.7391,3.6258,1.7647,2.7819,5.0052,4.2257,6.1559,4.3116,-5.4165,-13.3761,3.6896,4.5368,-11.5039,4.9083,-0.2518
1269.5312,13.6347,3.6879,-2.5968,0.8972,2.6219,2.0881,1.3462,2.3229,5.2837,4.9170,6.5466,4.8475,-3.3654,-10.6731,3.3755,4.2025,-9.9893,5.8485,1.8918
1273.4375,20.7709,5.9084,0.3940,4.5509,4.7620,1.4372,1.6592,2.8878,7.5907,7.1050,7.9660,6.2594,0.7947,-5.6037,3.9575,3.2252,-6.8252,9.0304,6.2704
1277.3438,29.7951,9.6759,5.9463,9.5250,8.6433,1.9645,3.0694,4.2967,11.5541,10.0872,10.0917,8.4393,6.3147,0.6507,4.9731,2.1381,-2.9668,13.8554,12.3315
1281.2500,37.0962,13.8112,12.6519,14.7220,12.9964,3.3124,5.2303,5.9088,15.8402,12.3141,12.0625,10.7249,11.6767,6.5082,5.8409,1.4361,0.4252,18.8334,18.7034
1285.1562,40.0103,16.8716,18.4416,18.8557,16.3698,4.8319,7.3052,6.9230,18.8535,12.4101,13.0680,12.3109,15.3125,10.5976,6.2782,1.3765,2.5589,22.3404,23.7885
1289.0625,38.2430,17.8682,21.6459,21.0057,17.7489,6.0210,8.5030,6.7616,19.6136,10.1976,12.9152,12.7433,16.3707,12.1932,6.5052,1.9559,3.3366,23.4480,26.4500
1292.9688,33.7342,16.7117,21.8040,20.9525,16.8830,6.7519,8.5634,5.3223,18.2663,6.9126,12.1508,12.1560,15.0582,11.2833,7.0582,2.9944,3.2321,22.3324,26.4056
1296.8750,29.2206,14.1530,19.7340,19.1234,14.1826,7.1761,7.8731,2.9733,15.8999,4.3518,11.6328,11.0967,12.3515,8.3266,8.3168,4.2046,2.8229,20.0246,24.1362
1300.7812,26.5417,11.2932,16.8582,16.2150,10.3374,7.4342,7.1457,0.3263,13.7863,3.5114,11.8490,10.0806,9.2906,3.9325,10.0785,5.2034,2.3196,17.6728,20.4384
1304.6875,25.7573,8.9774,14.2606,12.7556,5.9620,7.4190,6.8982,-2.0538,12.5507,3.7352,12.4766,9.1986,6.3500,-1.2985,11.5140,5.5404,1.4443,15.7986,15.9534
1308.5938,25.4733,7.4242,12.1054,8.8992,1.5087,6.7823,7.0879,-3.8249,11.8249,3.0908,12.5236,8.0730,3.3191,-6.7089,11.5890,4.8530,-0.2403,14.0329,10.9845
1312.5000,23.9549,6.2616,9.7686,4.5818,-2.5519,5.1792,7.1602,-4.8549,10.6077,-0.1966,10.9833,6.1980,-0.2409,-11.4436,9.7052,3.1311,-2.7885,11.5000,5.6809
1316.4062,20.2019,4.8816,6.5350,-0.0853,-5.5142,2.5651,6.4697,-5.0856,8.0661,-6.2594,7.5650,3.4288,-4.3182,-14.4663,6.1408,0.9112,-5.5349,7.5885,0.3925
1320.3125,14.3641,2.8552,2.3344,-4.4849,-6.4523,-0.6776,4.7835,-4.4121,4.2121,-13.1796,2.9975,0.2638,-8.0803,-14.8543,1.9853,-0.8325,-7.2680,2.5789,-4.1209
1324.2188,7.4294,0.1691,-2.0053,-7.5048,-4.5591,-3.8850,2.5177,-2.6866,-0.0174,-18.0606,-1.3113,-2.3036,-10.1387,-12.2538,-1.4111,-1.1632,-6.8696,-2.3121,-6.8338
1328.1250,0.5824,-2.8003,-5.1473,-7.9541,0.3638,-6.4338,0.5495,0.1609,-3.3189,-18.9010,-4.0423,-3.2932,-9.3259,-7.1998,-3.1305,0.2099,-4.0326,-5.5262,-6.9047
1332.0312,-5.2917,-5.4843,-5.9946,-5.1751,7.5936,-8.0210,-0.2664,3.9874,-4.8142,-15.9572,-4.6628,-2.2895,-5.4783,-1.0268,-3.0947,2.6100,0.4239,-6.0283,-4.1544
1335.9375,-9.7433,-7.3400,-4.2909,0.5083,15.6008,-8.7181,0.4460,8.4041,-4.5253,-11.5978,-3.6211,0.3180,0.3191,4.6637,-1.9600,4.6676,4.8908,-3.8888,0.7387
1339.8438,-12.6388,-7.9893,-0.7147,7.7887,22.5843,-8.7846,2.4310,12.8750,-3.2331,-8.7096,-1.9549,3.5580,6.2307,8.7191,-0.6118,5.1185,7.7932,-0.2205,6.4701
1343.7500,-14.0156,-7.2804,3.5312,14.8491,27.1558,-8.3972,5.0097,16.8800,-1.8724,-8.7578,-0.6153,6.4162,10.6210,10.9239,0.3758,3.6508,8.4207,3.4754,11.6470
1347.6562,-14.0364,-5.3193,7.3134,20.0707,28.8113,-7.5058,7.4580,20.0309,-0.9280,-10.8609,0.0401,8.3450,12.8642,11.9631,0.9665,1.2149,7.2691,6.1223,15.3317
1351.5625,-12.9944,-2.4832,9.9730,22.6118,27.9653,-5.9282,9.2934,22.0860,-0.2519,-12.5138,0.2899,9.4348,13.5092,12.8781,1.4709,-0.4743,5.6955,7.5358,17.3023
1355.4688,-11.2603,0.6303,11.3722,22.5891,25.5835,-3.6046,10.3255,22.8991,0.6282,-11.4135,0.6749,10.1756,13.7243,14.3508,2.1333,0.0195,5.1046,8.2958,17.9304
1359.3750,-9.1540,3.3664,11.6877,20.8276,22.6668,-0.8110,10.5378,22.3951,2.0107,-7.0764,1.5232,11.0044,14.4184,16.2493,2.8334,2.9283,6.1513,9.1732,17.8017
1363.2812,-6.8442,5.2582,11.1853,18.3683,19.8686,1.8534,9.9832,20.6189,3.7420,-1.1232,2.7165,11.9595,15.6250,17.7027,3.1311,7.0825,8.4111,10.5296,17.3351
1367.1875,-4.3905,6.2245,10.1359,16.0057,17.3909,3.7250,8.8097,17.8142,5.3562,3.9008,3.8254,12.6624,16.5370,17.6289,2.6196,10.5803,10.6714,12.0802,16.6110
1371.0938,-1.9109,6.5758,8.8476,14.0522,15.1113,4.4255,7.3589,14.4201,6.4761,6.2607,4.4669,12.6122,16.1238,15.3692,1.3185,11.8875,11.6352,13.1303,15.4615
1375.0000,0.2810,6.7910,7.6761,12.3684,12.7784,4.0696,6.1594,10.9202,7.1178,6.0765,4.5970,11.5656,13.8810,11.0412,-0.1970,10.6601,10.6129,13.0718,13.7063
1378.9062,1.7320,7.1886,6.9202,10.5677,10.1408,3.1876,5.7029,7.5992,7.6371,5.0017,4.5283,9.7341,10.2001,5.4285,-1.0559,7.7972,7.8287,11.7843,11.3526
1382.8125,2.1109,7.7114,6.6485,8.2645,6.9865,2.4075,6.0924,4.3760,8.3650,4.8838,4.6763,7.6710,6.1314,-0.4660,-0.6024,4.7691,4.2144,9.6912,8.6356
1386.7188,1.4892,7.9775,6.6063,5.2658,3.1643,2.0970,6.8286,0.8726,9.2386,6.4471,5.2318,5.9385,2.7366,-5.8840,1.1609,2.7274,0.8624,7.4788,5.8999
1390.6250,0.4069,7.5625,6.3111,1.6704,-1.3360,2.1862,6.9676,-3.2630,9.7392,8.9262,5.9887,4.7876,0.4906,-10.5014,3.4817,1.9788,-1.5247,5.6989,3.4274
1394.5312,-0.3714,6.3074,5.3014,-2.1339,-6.2520,2.2689,5.6400,-7.9587,9.2056,10.8055,6.4367,4.0562,-0.8720,-14.2735,5.1972,2.0786,-2.8806,4.5122,1.3332
1398.4375,-0.2646,4.4241,3.3802,-5.5642,-10.9550,1.8957,2.6286,-12.5135,7.2891,11.0023,6.0440,3.3311,-2.0011,-17.1070,5.3207,2.3392,-3.6161,3.6928,-0.4121
1402.3438,0.8335,2.3299,0.6994,-8.0130,-14.5043,0.8651,-1.3938,-15.7688,4.2122,9.5825,4.5446,2.2413,-3.3541,-18.6353,3.5497,2.3100,-4.1934,2.8326,-1.8673
1406.2500,2.5719,0.3505,-2.3451,-9.0421,-15.8853,-0.6635,-5.1714,-16.6059,0.6446,7.5433,2.0653,0.6815,-4.8195,-18.2836,0.4177,1.9055,-4.7240,1.5810,-3.0054
1410.1562,4.4341,-1.4667,-5.2982,-8.5254,-14.3552,-2.2809,-7.5465,-14.5035,-2.6939,5.9467,-0.9539,-1.1636,-5.7967,-15.5930,-2.9813,1.2012,-4.8536,-0.2102,-3.6808
1414.0625,6.0714,-3.2784,-7.7674,-6.6707,-9.7481,-3.5684,-8.0719,-9.8278,-5.3992,5.1374,-3.9622,-2.9719,-5.6507,-10.5924,-5.5296,0.1834,-4.0133,-2.4605,-3.6977
1417.9688,7.4488,-5.1810,-9.4305,-3.9050,-2.5975,-4.3130,-7.1491,-3.6865,-7.4577,4.6325,-6.4870,-4.4711,-4.2002,-3.9682,-6.5876,-1.2751,-1.8807,-4.8951,-2.9334
1421.8750,8.7516,-6.9866,-10.0013,-0.6895,5.9792,-4.5833,-5.6223,2.5653,-9.0136,3.6889,-8.2169,-5.5239,-1.8839,3.0943,-6.2034,-3.1944,1.2580,-7.0875,-1.4322
1425.7812,10.1927,-8.2498,-9.2690,2.6316,14.5848,-4.6541,-4.1491,7.8754,-10.0538,2.0271,-8.9793,-6.0751,0.5060,9.3259,-4.9559,-5.2517,4.5050,-8.5155,0.5896
1429.6875,11.9005,-8.5576,-7.2441,5.8663,21.9166,-4.8487,-2.8163,11.8039,-10.2896,0.1234,-8.6900,-6.0538,2.3277,13.8301,-3.5598,-6.7986,6.7579,-8.6800,2.8307
1433.5938,13.9360,-7.8692,-4.3063,8.8960,27.0796,-5.3884,-1.2680,14.4639,-9.3493,-1.1288,-7.3580,-5.3563,3.4677,16.3465,-2.4751,-7.1849,7.3040,-7.3025,5.0292
1437.5000,16.3328,-6.6326,-1.1939,11.5632,29.7425,-6.3061,0.7956,16.2031,-7.1408,-1.0848,-5.1642,-3.9623,4.3240,17.2036,-1.7359,-6.1741,6.2332,-4.5286,7.0458
1441.4062,19.0316,-5.5533,1.2435,13.6212,30.1045,-7.4308,3.1735,17.2632,-4.1003,0.1847,-2.5459,-2.1029,5.4082,17.0052,-1.0584,-4.1339,4.3875,-1.0004,8.8539
1445.3125,21.7242,-5.1511,2.4292,14.7865,28.6978,-8.4321,5.1529,17.6262,-1.1084,1.9444,-0.1774,-0.3190,6.8474,16.2249,-0.1282,-1.8460,2.8433,2.3065,10.4395
1449.2188,23.7831,-5.4092,2.3469,14.8494,26.1080,-8.9113,5.9628,17.0944,0.9108,3.2640,1.2207,0.6993,8.1411,14.9158,1.1293,-0.0611,2.2315,4.4540,11.6730
1453.1250,24.4552,-5.7705,1.5293,13.7533,22.7213,-8.5289,5.3460,15.4978,1.4737,3.5233,1.1996,0.4503,8.3541,12.6731,2.4546,0.8838,2.3207,4.9482,12.2365
1457.0312,23.2847,-5.4987,0.7246,11.5801,18.6076,-7.1396,3.7980,12.8617,0.8032,2.6128,-0.1363,-1.0619,6.6358,8.8629,3.3811,1.1317,2.1442,3.9481,11.6676
1460.9375,20.4827,-4.1677,0.4344,8.4657,13.5932,-4.8805,2.2699,9.4332,-0.2924,0.7857,-2.0770,-3.2543,2.7433,3.0066,3.4954,1.0499,0.6074,2.1429,9.5218
1464.8438,16.9134,-1.9587,0.6132,4.5284,7.4947,-2.1554,1.5407,5.5767,-0.8620,-1.6226,-3.5817,-5.2247,-2.7500,-4.8564,2.6792,0.8820,-2.7955,0.3567,5.5948
1468.7500,13.6144,0.4233,0.7211,-0.1047,0.3974,0.4975,1.7170,1.6334,-0.3232,-4.3539,-3.7901,-6.2186,-8.6703,-13.9918,1.2027,0.5804,-7.6011,-0.8859,0.1106
1472.6562,11.1487,2.1467,0.1023,-5.1738,-7.1713,2.5976,2.2239,-2.1602,1.2404,-7.1965,-2.5051,-6.0219,-13.7281,-23.0658,-0.3743,-0.0760,-12.5608,-1.5706,-6.2137
1476.5625,9.2791,2.6988,-1.5494,-10.1559,-14.2781,3.8704,2.2738,-5.6605,3.1453,-9.8959,-0.3578,-5.0322,-16.9816,-30.4833,-1.4492,-1.2057,-16.2623,-2.0629,-12.2740
1480.4688,7.2522,2.1060,-3.9292,-14.2616,-19.8319,4.2683,1.4494,-8.7435,4.4802,-12.1707,1.4798,-3.9665,-18.0512,-34.8433,-1.6606,-2.6317,-17.7980,-2.7473,-16.8452
1484.3750,4.4993,0.8170,-6.2344,-16.6303,-22.9349,3.8654,-0.0339,-11.2341,4.5593,-13.8557,1.8995,-3.4057,-17.0541,-35.3464,-1.0937,-3.9248,-17.0948,-3.7039,-18.9392
1488.2812,1.1842,-0.6413,-7.5987,-16.6688,-23.1775,2.7186,-1.5562,-12.8880,3.2069,-15.0335,0.4383,-3.4857,-14.4105,-32.0138,-0.3090,-4.6496,-14.7690,-4.6596,-18.1474
1492.1875,-1.9024,-2.0008,-7.6013,-14.3623,-20.7467,0.8180,-2.5998,-13.4410,0.7384,-15.9934,-2.5084,-3.9369,-10.6968,-25.6541,-0.1597,-4.6290,-11.6773,-5.2498,-14.8386
1496.0938,-4.0884,-3.3687,-6.5514,-10.3647,-16.3161,-1.8160,-3.1186,-12.7014,-2.3072,-17.0083,-5.9613,-4.4189,-6.6089,-17.6066,-1.4352,-4.0529,-8.4960,-5.3881,-10.1082
1500.0000,-5.6084,-5.0621,-5.3614,-5.7740,-10.7813,-4.9503,-3.4819,-10.6461,-5.4768,-18.0921,-8.9297,-4.8772,-2.9455,-9.3559,-4.4583,-3.3841,-5.5715,-5.4399,-5.4456
1503.9062,-7.6974,-7.2693,-5.0408,-1.6726,-4.9618,-8.0228,-4.0524,-7.4699,-8.5356,-18.9323,-10.9069,-5.6282,-0.4757,-2.1440,-8.8161,-3.1443,-3.0474,-6.0195,-2.2006
1507.8125,-11.7259,-9.7479,-6.0652,1.3421,0.6146,-10.2224,-4.7483,-3.5581,-11.3418,-19.0549,-11.9780,-7.0802,0.3398,3.3044,-13.3875,-3.7041,-1.0703,-7.5055,-1.0425
1511.7188,-17.9010,-11.7579,-7.9722,3.3821,5.7774,-10.7778,-4.9577,0.6190,-13.5869,-18.0876,-12.5118,-9.2812,-0.3664,6.8713,-16.7133,-5.1463,0.1452,-9.6059,-1.6617
1515.6250,-24.5374,-12.3082,-9.4588,5.1119,10.6245,-9.3175,-3.9007,4.6450,-14.6535,-15.9245,-12.7036,-11.6403,-1.8036,8.9347,-17.5820,-7.2063,0.4591,-11.3216,-2.8909
1519.5312,-28.6305,-10.6327,-9.0028,7.2835,15.3243,-6.0936,-1.2000,8.2548,-13.7894,-12.7051,-12.3317,-13.0761,-2.8136,10.1097,-15.5641,-9.2808,0.0194,-11.4167,-3.2465
1523.4375,-27.5665,-6.6665,-5.7303,10.2180,19.8925,-1.9248,2.7384,11.3304,-10.5701,-8.7014,-10.9196,-12.5578,-2.4227,10.9489,-11.2188,-10.5360,-0.6620,-9.1569,-1.6630
1527.3438,-20.9059,-1.2520,-0.0624,13.5344,24.0428,2.1226,6.8027,13.7976,-5.3705,-4.2699,-8.1831,-9.7234,-0.3602,11.7251,-5.8513,-10.1577,-0.8913,-4.8543,1.9382
1531.2500,-10.9906,4.0905,6.2680,16.2891,27.1924,5.1469,9.6673,15.5010,0.5199,0.0835,-4.4181,-5.1826,2.7764,12.3819,-0.9378,-7.7145,-0.1538,0.1581,6.5541
1535.1562,-1.8405,7.7773,10.9225,17.4580,28.6478,6.6973,10.4023,16.1698,5.3277,3.6575,-0.5175,-0.2982,5.8247,12.6502,2.4775,-3.4853,1.5613,4.1565,10.5542
1539.0625,3.0324,8.8761,12.0679,16.4840,27.9040,6.8115,8.8586,15.5320,7.6085,5.7176,2.4279,3.4330,7.6587,12.2431,4.1020,1.4689,3.6821,5.9024,12.4608
1542.9688,2.5065,7.5347,9.3008,13.5726,24.9164,5.8399,5.6616,13.5260,6.9881,5.8906,3.6914,5.0420,7.7275,10.9990,4.2981,5.6234,5.2774,5.2394,11.6441
1546.8750,-1.7593,4.8688,3.8653,9.5723,20.1945,4.2141,1.8876,10.4630,4.3634,4.5589,3.2706,4.4361,6.2289,8.8984,3.6938,7.6206,5.4654,3.0635,8.5698
1550.7812,-6.5859,2.3538,-1.9710,5.5340,14.6458,2.3213,-1.3637,6.9967,1.4100,2.9051,1.8314,2.3011,3.8661,5.9772,2.7871,6.9143,3.7983,0.7253,4.4953
1554.6875,-9.2370,1.0796,-6.0204,2.2379,9.2384,0.5331,-3.2968,3.8773,-0.3132,2.4353,0.3164,-0.2994,1.4070,2.2558,1.7951,4.0728,0.4532,-0.7125,0.8319
1558.5938,-8.7504,1.3225,-7.1217,-0.0195,4.6584,-0.6950,-3.5625,1.6194,-0.1069,4.1926,-0.4927,-2.3449,-0.6347,-2.2100,0.8001,0.5493,-3.8221,-0.8829,-1.4390
1562.5000,-5.8805,2.6829,-5.4110,-1.2830,1.1440,-0.8017,-2.2322,0.2959,1.7299,8.1619,-0.1870,-3.0940,-2.0182,-7.1553,0.0149,-1.9769,-7.9522,0.0261,-1.9854
1566.4062,-1.9620,4.6480,-1.8503,-1.5999,-1.4350,0.7329,0.3293,-0.4008,4.3901,13.2988,1.3328,-2.1235,-2.5751,-11.9465,-0.0931,-2.3466,-10.8634,1.7604,-0.9419
1570.3125,2.2662,7.1286,2.5734,-0.7899,-3.3414,4.1132,3.6315,-0.8689,7.2676,18.1960,4.0212,0.6847,-2.0435,-15.6287,1.0245,-0.3828,-11.8066,4.3909,1.4378
1574.2188,6.9630,10.5262,7.3876,1.4644,-4.7533,8.9829,7.2088,-1.2805,10.3346,21.9267,7.7259,5.0828,-0.1539,-17.2621,3.6030,3.1192,-10.5991,8.2551,4.9745
1578.1250,12.5139,15.2290,12.5565,5.2414,-5.7012,14.3809,10.6958,-1.4633,13.9072,24.4516,12.0346,10.3374,3.0517,-16.4200,7.2092,6.8000,-7.7185,13.4624,9.4449
1582.0312,18.6076,20.8894,17.9155,10.0028,-6.1526,18.9744,13.7907,-1.0678,17.9994,26.2940,16.0974,15.2123,6.9189,-13.5440,10.7025,9.2923,-4.1875,19.3444,14.2775
1585.9375,23.9450,26.0625,22.6296,14.5410,-6.1161,21.4920,16.1353,0.1063,21.8065,27.7547,18.6821,18.2116,10.1993,-9.8628,12.6122,9.6759,-1.2383,24.3280,18.3820
1589.8438,26.8868,28.6003,25.1858,17.3824,-5.6304,21.1683,17.2239,1.8665,23.7951,28.3194,18.5867,18.0860,11.5003,-6.8217,11.7797,7.7072,0.1516,26.4514,20.3730
1593.7500,26.5327,26.6907,24.0468,17.4634,-4.6284,18.0024,16.4770,3.6511,22.4458,26.7897,15.2451,14.3895,9.9678,-5.2963,7.9423,3.8290,-0.3336,24.3011,19.1685
1597.6562,23.3582,19.9521,18.5944,14.6820,-2.8162,12.7237,13.5177,4.8128,17.2098,22.1175,9.1639,7.7827,5.8030,-5.0662,1.9427,-0.9793,-2.2106,17.8356,14.6363
1601.5625,18.9001,9.8816,9.7389,9.9768,0.2535,6.5037,8.5229,4.9650,9.0422,14.3541,1.8653,-0.1249,0.2704,-4.9238,-4.5611,-5.4706,-4.4320,8.5840,7.8540
1605.4688,14.7578,-0.6842,-0.2566,4.8685,4.8608,0.5568,2.3967,4.1593,0.1256,4.9853,-4.7000,-7.3558,-4.8522,-3.4238,-9.7578,-8.4958,-5.9051,-0.9335,0.7453
1609.3750,11.7053,-8.8358,-8.6992,0.7319,10.7148,-4.1954,-3.4346,2.7920,-7.0905,-3.6594,-8.9724,-12.2988,-8.0914,0.1423,-12.4010,-9.3961,-6.0329,-8.2634,-4.7643
1613.2812,9.5706,-12.8730,-13.6306,-1.7757,16.7651,-7.2819,-7.5832,1.3373,-10.9779,-9.5739,-10.3839,-14.2532,-8.9110,5.1522,-12.2490,-8.2802,-4.9844,-11.9957,-7.6072
1617.1875,7.8606,-12.8935,-14.5831,-2.8255,21.4544,-8.6503,-9.3314,0.1156,-11.3323,-12.0486,-9.4286,-13.5507,-7.8226,9.8512,-10.0383,-6.0186,-3.5404,-12.1764,-7.9554
1621.0938,6.4922,-10.4207,-12.5467,-3.0654,23.3714,-8.5204,-8.9490,-0.7501,-9.2113,-11.8332,-7.2242,-11.2563,-5.9546,12.2746,-7.0402,-3.8871,-2.6068,-10.0210,-6.9131
1625.0000,5.9352,-7.3885,-9.2493,-3.0888,21.9744,-7.2361,-7.4750,-1.2025,-6.2073,-10.4613,-4.8837,-8.6404,-4.3746,11.3650,-4.4499,-2.9858,-2.6832,-7.1728,-5.7386
1628.9062,6.6326,-5.1410,-6.2326,-3.0817,17.9527,-5.1920,-6.0799,-1.1011,-3.6527,-9.2906,-3.0842,-6.6858,-3.5716,7.6044,-2.9235,-3.7218,-3.6010,-4.9460,-5.0966
1632.8125,8.2332,-4.0092,-4.2607,-2.8394,12.9650,-2.8404,-5.4052,-0.2200,-2.2027,-8.9457,-2.0295,-5.8249,-3.3698,2.7632,-2.4742,-5.6448,-4.6821,-3.9175,-4.8002
1636.7188,9.3841,-3.5950,-3.3162,-2.0835,8.8534,-0.7155,-5.3022,1.5748,-1.9221,-9.4562,-1.7127,-5.9592,-3.2633,-1.0994,-2.7243,-7.7425,-5.2153,-3.9783,-4.1697
1640.6250,8.3884,-3.4315,-3.0512,-0.8172,6.7463,0.6077,-5.1229,4.0925,-2.6557,-10.8020,-2.1945,-6.6872,-2.9121,-2.7915,-3.3051,-9.0265,-4.9529,-4.6939,-2.7249
1644.5312,4.3084,-3.4994,-3.2989,0.5326,6.5352,0.6594,-4.3390,6.7173,-4.3299,-13.2742,-3.6524,-7.5939,-2.4706,-2.6230,-4.1246,-9.0604,-4.3224,-5.6955,-0.7222
1648.4375,-2.3046,-4.2519,-4.2788,1.2729,6.9959,-0.7150,-3.0419,8.5474,-6.9588,-17.2646,-6.1642,-8.4574,-2.5476,-2.1582,-5.3254,-8.1178,-4.2136,-6.8733,0.8444
1652.3438,-9.6157,-6.1673,-6.3712,0.7963,6.4646,-3.1918,-1.9613,8.7232,-10.3887,-22.6334,-9.4106,-9.2774,-3.8242,-3.2587,-6.9792,-6.8947,-5.4563,-8.2920,0.8005
1656.2500,-15.4958,-9.1750,-9.6374,-1.0789,3.6952,-5.9674,-1.9749,6.7778,-14.0201,-28.2192,-12.5489,-10.1205,-6.5559,-6.9864,-8.7581,-5.9794,-8.2814,-9.9231,-1.4290
1660.1562,-18.5675,-12.3685,-13.4276,-3.9477,-1.5277,-7.9669,-3.4333,2.8407,-16.7595,-32.0109,-14.4002,-10.8745,-10.2442,-12.9814,-9.8557,-5.4285,-12.0702,-11.3857,-5.2993
1664.0625,-18.6028,-14.2305,-16.3738,-6.9010,-8.2792,-8.2029,-5.7585,-2.3786,-17.3079,-32.0215,-13.8825,-11.0775,-13.6791,-19.6230,-9.2733,-4.7187,-15.5415,-11.8917,-9.2161
1667.9688,-16.1446,-13.2892,-16.8508,-8.8091,-14.8769,-6.1419,-7.6068,-7.7896,-14.6849,-27.3644,-10.4745,-9.9800,-15.3702,-24.8263,-6.3404,-3.0969,-17.2922,-10.4912,-11.1935
1671.8750,-11.8525,-8.8776,-13.7289,-8.7140,-19.5417,-1.9243,-7.5414,-12.2118,-8.7501,-18.8468,-4.4829,-6.8901,-14.1964,-27.0068,-1.1621,-0.1088,-16.4276,-6.5558,-9.7771
1675.7812,-6.2226,-1.6113,-7.0595,-6.2154,-21.0490,3.6429,-4.8489,-14.6774,-0.4693,-8.7016,2.9935,-1.6702,-9.9849,-25.7160,5.2829,4.0124,-12.9795,-0.2827,-4.7772
1679.6875,0.1123,6.6741,1.6706,-1.7196,-19.1345,9.3052,-0.0457,-14.6891,8.2281,0.3613,10.3613,4.8900,-3.7376,-21.6853,11.4642,8.3169,-7.9185,7.0714,2.5383
1683.5938,5.9150,13.5355,9.9160,3.5759,-14.5272,13.7018,5.2161,-12.3766,14.9988,6.2108,15.9627,11.1090,2.6478,-16.3467,15.8644,11.4790,-2.7623,13.4373,9.8848
1687.5000,9.3630,16.8492,14.9945,8.0323,-8.6104,15.7241,8.8283,-8.4821,17.8715,7.9100,18.5036,14.9566,7.0932,-11.1392,17.4928,12.3289,1.0368,16.6541,14.8474
1691.4062,8.8208,15.6665,15.1885,10.1885,-2.8368,14.8149,9.1848,-4.1269,15.9866,5.7219,17.3910,14.9207,8.2088,-6.9490,16.1274,10.3287,2.6545,15.3892,15.8452
1695.3125,3.9343,10.6194,10.5275,9.4109,1.8677,11.1564,5.9719,-0.4031,9.9828,0.7308,12.9225,10.7790,5.9199,-3.9082,12.2565,5.8041,2.1659,9.8199,12.7763
1699.2188,-3.7940,3.6780,2.8532,6.2508,5.4407,5.6923,0.4072,2.0485,1.8320,-5.5695,6.2745,3.8495,1.5332,-1.5683,6.8500,-0.1323,0.4247,1.7015,7.0714
1703.1250,-11.5218,-2.6500,-4.9135,2.2762,8.5742,-0.0688,-5.2233,3.2581,-5.8551,-11.5437,-0.7562,-3.4713,-2.8264,0.7032,1.1059,-5.9194,-1.3808,-6.2682,1.1186
1707.0312,-16.4713,-6.3232,-9.9897,-0.6002,12.1927,-4.4806,-8.5581,3.8158,-10.7866,-15.6258,-6.2441,-8.6945,-5.1637,3.3310,-3.7718,-10.0325,-2.2796,-11.5177,-2.7167
1710.9375,-17.3332,-6.5096,-10.8603,-0.9800,16.7922,-6.3200,-8.2408,4.4862,-11.7980,-16.6310,-8.7399,-10.2733,-4.4874,6.3327,-6.7998,-11.4736,-1.9212,-12.5967,-3.0587
1714.8438,-14.7475,-3.7344,-7.7766,1.4208,22.0329,-5.2629,-4.5584,5.7788,-9.1546,-14.1611,-7.7646,-8.1743,-1.1740,9.3853,-7.4656,-10.1127,-0.6401,-9.6305,-0.0351
1718.7500,-10.5938,0.5890,-2.4063,5.7464,26.8517,-2.0232,0.7172,7.7320,-4.2351,-8.8661,-3.9644,-3.7261,3.3482,12.0814,-5.9169,-6.7452,0.8322,-4.0595,4.9083
1722.6562,-6.6672,4.9450,3.1314,10.5325,30.0463,1.9739,5.2447,10.0144,1.2029,-2.2809,1.1781,1.1313,7.3976,14.1974,-2.9356,-2.7990,1.8426,2.1374,9.7960
1726.5625,-3.7043,8.3685,7.2994,14.4556,30.9664,5.2656,7.3233,12.2246,5.7782,3.8017,5.9686,4.7679,9.8615,15.7894,0.3847,0.2380,2.2038,7.2975,13.0969
1730.4688,-1.3687,10.6430,9.6938,16.8541,29.8590,7.0244,6.7344,14.1402,8.8927,8.1152,9.1702,6.4833,10.5912,17.0396,3.1423,1.4479,2.2612,10.5970,14.3559
1734.3750,0.9739,12.0295,10.8787,17.7607,27.6332,7.3465,4.7288,15.7287,10.6551,10.3908,10.3994,6.5642,10.1921,17.9457,5.0180,0.8667,2.5884,12.0716,14.1521
1738.2812,3.4371,12.8071,11.7044,17.5233,25.2013,6.9853,3.1647,16.9413,11.4779,11.2340,10.0760,5.8496,9.4062,18.0741,6.2807,-0.5984,3.4917,12.2632,13.4549
1742.1875,5.4376,12.9864,12.5936,16.3527,22.8471,6.7137,3.3220,17.4948,11.6651,11.5321,9.0084,5.1251,8.5226,16.5954,7.3790,-1.7066,4.6433,11.7823,12.8270
1746.0938,6.2455,12.3864,13.2536,14.1430,20.0562,6.7551,5.1284,16.8638,11.2577,11.8425,7.8873,4.7103,7.2069,12.6576,8.4099,-1.5979,5.1113,11.0399,12.0133
1750.0000,5.7285,10.9670,12.9647,10.6748,15.9213,6.6886,7.2799,14.5329,10.1857,12.1841,6.9848,4.4321,4.8461,5.9318,8.8827,-0.2731,3.8303,10.2290,10.1975
1753.9062,4.6308,9.1081,11.2104,6.0130,9.8404,5.9006,8.1589,10.3467,8.5515,12.3106,6.1950,3.9262,1.1557,-2.9837,8.0178,1.4563,0.2744,9.4575,6.7490
1757.8125,4.1554,7.5651,8.2010,0.7668,2.0397,4.2475,6.9383,4.7015,6.7882,12.1498,5.3220,3.0246,-3.3805,-12.5679,5.4150,2.5284,-5.0614,8.8696,1.9327
1761.7188,5.2116,7.0747,4.9288,-4.0128,-6.4012,2.4049,4.1427,-1.5600,5.5402,11.9890,4.3681,1.9667,-7.5580,-20.8368,1.6042,2.3486,-10.6887,8.6526,-2.9416
1765.6250,7.9336,7.8614,2.7012,-7.2578,-13.9863,1.5710,1.3132,-7.4729,5.3202,12.2318,3.6060,1.3055,-9.9860,-26.0424,-1.9917,1.1947,-14.7013,8.9354,-6.0941
1769.5312,11.7947,9.3964,2.4341,-8.3606,-19.3741,2.6575,0.0203,-12.2622,6.1684,12.9532,3.3866,1.5745,-9.7948,-27.2590,-3.7704,0.0230,-15.6202,9.6730,-6.2470
1773.4375,16.1048,10.6094,4.1345,-7.4072,-21.7327,5.5097,0.8903,-15.4534,7.5497,13.6749,3.8331,2.9216,-7.0935,-24.5876,-2.9357,-0.2153,-13.0694,10.6022,-3.3898
1777.3438,20.3847,10.4561,6.8783,-5.0448,-20.7605,8.7479,3.2652,-16.7825,8.5828,13.6157,4.6503,4.9276,-2.9188,-18.9432,-0.1069,0.7028,-7.9347,11.3060,1.1515
1781.2500,24.2936,8.5002,9.2881,-2.1067,-16.5373,10.4323,5.6687,-16.0800,8.4841,12.2583,5.1971,6.7243,1.2744,-11.6162,2.8950,2.0114,-1.9483,11.3519,5.3945
1785.1562,27.2758,5.1530,10.2274,0.7543,-9.4511,9.1909,6.7172,-13.3035,6.9776,9.7860,4.7926,7.3642,4.2712,-3.8732,4.0075,2.3728,3.0595,10.4474,7.7212
1789.0625,28.4161,1.4290,9.3252,3.2250,-0.2937,5.0918,5.8744,-8.7234,4.4361,7.0134,3.0783,6.2660,5.5473,3.2477,2.0687,0.7364,5.8550,8.5591,7.6417
1792.9688,26.8338,-1.6181,7.0698,5.2653,9.6381,-0.3246,3.6237,-3.0722,1.6827,4.8384,0.2337,3.5194,5.3217,8.9724,-2.5385,-2.9053,6.1410,5.9639,5.8977
1796.8750,22.4253,-3.4207,4.4738,6.9477,18.6894,-4.9033,1.0626,2.5683,-0.4225,3.6373,-3.0585,-0.0957,4.2726,12.7936,-8.0958,-7.3639,4.4681,3.2134,3.9207
1800.7812,16.3429,-4.0740,2.5420,8.3561,25.3368,-7.0786,-0.7224,7.1810,-1.3690,3.0872,-5.8590,-3.3924,3.1414,14.5353,-12.4385,-10.8275,1.8575,1.0065,3.0265
1804.6875,10.6832,-4.0886,1.8466,9.5913,28.8103,-6.6604,-1.0965,10.3085,-1.1483,2.5519,-7.3015,-5.2375,2.4454,14.4429,-13.9764,-11.8177,-0.6359,-0.0147,3.8140
1808.5938,7.4354,-3.9248,2.4005,10.8085,29.4435,-4.7294,0.0407,12.2790,-0.1224,1.6996,-6.8735,-4.9901,2.3884,13.1660,-12.3007,-9.9501,-2.2487,0.5127,6.0382
1812.5000,7.3557,-3.6383,3.8206,12.1838,28.4657,-2.7766,2.4119,13.9557,1.2695,0.8170,-4.5728,-2.7310,2.9181,11.5412,-8.1574,-6.0548,-2.6602,2.5187,8.9109
1816.4062,9.5732,-2.8755,5.6139,13.7861,27.3019,-1.7164,5.5281,16.1266,2.7606,0.5283,-0.9149,0.8128,3.8284,10.2342,-2.9475,-1.6278,-1.9922,5.4998,11.5675
1820.3125,12.2320,-1.2079,7.3948,15.4460,26.7941,-1.4382,8.7470,18.9286,4.3173,1.1425,3.2099,4.6043,4.8479,9.4388,1.8921,2.0063,-0.6927,8.6961,13.4304
1824.2188,13.7185,1.4399,8.9353,16.7568,26.8287,-1.1429,11.3002,21.6990,6.0120,2.2001,6.8163,7.7385,5.7236,8.8313,5.3424,4.3015,0.6664,11.3838,14.3423
1828.1250,13.5883,4.5771,10.0897,17.2532,26.5737,-0.1394,12.4424,23.3662,7.8442,2.6730,9.1804,9.7921,6.3219,7.8315,7.0001,5.5481,1.6335,13.1509,14.4985
1832.0312,12.5580,7.3173,10.7102,16.6784,25.1212,1.5275,11.7550,23.1105,9.6614,1.7497,10.1411,10.9250,6.7187,6.0096,7.0711,6.4383,2.0746,14.0246,14.2790
1835.9375,11.6573,8.8444,10.6482,15.1546,22.0704,3.0801,9.4426,20.8427,11.2392,-0.3809,10.1819,11.6982,7.2013,3.3838,6.2264,7.4914,2.2143,14.3872,14.0620
1839.8438,11.2716,8.8842,9.8425,13.1272,17.6824,3.6134,6.3694,17.1875,12.4366,-2.4144,10.1891,12.7051,8.1232,0.4225,5.3381,8.7128,2.4678,14.7289,14.0607
1843.7500,10.8416,7.8775,8.4147,11.1053,12.5856,2.8292,3.7197,13.0210,13.2830,-2.6894,10.9569,14.2038,9.6538,-2.2279,5.1206,9.6523,3.1399,15.3664,14.2228
1847.6562,9.4177,6.7352,6.6823,9.3729,7.3410,1.3402,2.4257,8.9293,13.9067,-0.3564,12.6912,15.9390,11.5722,-4.0890,5.7910,9.7431,4.1781,16.2700,14.2432
1851.5625,6.5538,6.3194,5.0613,7.8758,2.2394,0.3161,2.7027,4.9905,14.3579,3.8770,14.8174,17.2483,13.2712,-5.0381,6.9379,8.6620,5.1620,17.0798,13.7238
1855.4688,2.7682,6.9661,3.9132,6.3641,-2.5396,0.7194,3.9872,1.0154,14.4825,8.0058,16.2567,17.4047,14.0233,-5.2380,7.7353,6.5023,5.5695,17.2938,12.4324
1859.3750,-0.8195,8.3367,3.4277,4.6879,-6.6041,2.6661,5.3194,-2.9729,13.9783,9.8809,16.0457,16.0218,13.3798,-4.8955,7.4376,3.7234,5.1590,16.5283,10.5195
1863.2812,-3.3607,9.6726,3.5979,3.0241,-9.2099,5.3375,5.9187,-6.4269,12.6287,8.4985,13.9388,13.3085,11.4599,-4.0510,5.8706,0.9784,4.2013,14.7225,8.5324
1867.1875,-4.9110,10.2727,4.2778,1.8596,-9.5056,7.4773,5.5870,-8.4088,10.5477,4.5683,10.6068,10.0290,8.9310,-2.5545,3.5921,-1.0613,3.3746,12.1939,7.1730
1871.0938,-6.2681,9.8851,5.2573,1.7202,-7.0384,8.1180,4.7091,-8.1170,8.2351,0.0100,7.2864,7.1738,6.6717,-0.2375,1.5862,-1.8430,3.3604,9.5225,6.9136
1875.0000,-8.1286,8.7757,6.2999,2.8177,-2.1632,7.0643,3.8973,-5.4548,6.3574,-3.2304,5.0845,5.5011,5.3151,2.8486,0.6742,-1.0628,4.3972,7.3154,7.7044
1878.9062,-10.2627,7.4640,7.1409,4.8461,3.9631,4.8725,3.5473,-1.2515,5.3716,-4.2191,4.3703,5.1794,4.9497,6.2987,1.0346,1.1985,6.0910,5.9547,8.9684
1882.8125,-11.4346,6.3331,7.4901,7.0654,9.8367,2.4182,3.5959,3.0332,5.2416,-3.2868,4.6364,5.7199,5.1471,9.4144,2.1492,4.3886,7.6174,5.4393,9.8967
1886.7188,-10.2202,5.3899,7.0881,8.6297,14.2353,0.3906,3.6040,5.9555,5.4521,-1.4646,4.8966,6.2366,5.2721,11.4327,3.1905,7.5538,8.1852,5.3929,9.8642
1890.6250,-6.1542,4.3302,5.8138,8.9716,16.6447,-0.9694,3.0738,6.7183,5.3280,0.3532,4.3447,5.9039,4.8569,11.8042,3.5549,9.6181,7.4546,5.2465,8.7115
1894.5312,-0.3443,2.8480,3.7884,8.0374,17.2689,-1.7896,1.7877,5.4574,4.4552,1.8738,2.8380,4.3762,3.8087,10.4005,3.1610,9.7911,5.6501,4.5223,6.7490
1898.4375,4.9542,0.9602,1.4009,6.2712,16.7049,-2.2920,-0.0199,3.0804,2.9304,3.2471,0.9131,1.9537,2.3604,7.5719,2.3396,7.9050,3.3258,3.0910,4.5339
1902.3438,7.5619,-0.8819,-0.7803,4.3933,15.5536,-2.5568,-1.7260,0.8046,1.2852,4.5697,-0.6319,-0.5860,0.8577,4.0428,1.4612,4.4885,0.9821,1.2742,2.6024
1906.2500,6.5960,-1.9748,-2.1806,3.1092,14.2117,-2.4708,-2.5648,-0.3478,0.1559,5.5841,-1.2737,-2.3906,-0.4354,0.6769,0.6335,0.5257,-1.1856,-0.2766,1.3241
1910.1562,2.9131,-1.7290,-2.4014,2.8796,12.8888,-1.8422,-1.9443,0.1161,-0.0711,5.8738,-1.0511,-2.9471,-1.3893,-1.8143,-0.2859,-2.9632,-3.2473,-0.8802,0.9023
1914.0625,-1.4376,-0.0014,-1.3402,3.8108,11.7143,-0.5589,0.2849,2.0712,0.5866,5.3793,-0.4408,-2.2830,-1.9295,-3.1189,-1.4006,-5.2831,-5.2759,-0.1610,1.4197
1917.9688,-4.3089,2.7928,0.7849,5.6559,10.7687,1.3162,3.7067,4.8869,1.8150,4.7392,0.0525,-0.8566,-1.9448,-3.4189,-2.4820,-6.1847,-7.0898,1.7585,2.8222
1921.8750,-4.3810,5.8334,3.4946,7.8889,10.0039,3.5356,7.4255,7.6575,3.2535,5.0778,0.2823,0.7765,-1.2905,-3.2649,-2.9515,-5.7400,-8.2134,4.3155,4.8397
1925.7812,-1.4585,8.2224,6.1665,9.8346,9.1665,5.7061,10.3637,9.4771,4.6888,7.3053,0.5562,2.3037,0.1032,-3.2676,-2.1933,-4.1253,-8.0985,6.7857,6.9566
1929.6875,3.8115,9.3208,8.1855,10.8457,7.8642,7.3487,11.6818,9.7039,6.0717,11.4165,1.3893,3.7800,2.1080,-3.7533,0.0132,-1.5044,-6.4635,8.6185,8.5409
1933.5938,10.3932,8.9581,9.1058,10.5048,5.7966,7.9951,11.1420,8.1589,7.3850,16.3100,3.0890,5.4560,4.3677,-4.5779,3.2509,1.9036,-3.5304,9.6309,9.1143
1937.5000,17.1337,7.4510,8.7846,8.7890,3.0108,7.3492,9.2274,5.1959,8.4979,20.2880,5.4424,7.4277,6.3969,-5.2209,6.5807,5.6538,-0.0121,9.9499,8.5993
1941.4062,22.8203,5.4483,7.4323,6.1132,-0.0142,5.4778,6.9265,1.6041,9.1307,21.9133,7.7044,9.3571,7.7459,-5.1119,8.9381,8.9826,3.1395,9.7668,7.3563
1945.3125,26.2694,3.6676,5.5310,3.2060,-2.5428,2.9167,5.2706,-1.6336,8.9607,20.6695,8.9010,10.4915,8.1343,-3.9893,9.5571,10.9353,5.0907,9.0958,5.9561
1949.2188,26.6554,2.6174,3.6354,0.8530,-3.9203,0.5636,4.8606,-3.6435,7.7939,17.0556,8.2948,10.0224,7.4954,-2.0622,8.2025,10.7108,5.4227,7.7345,4.8355
1953.1250,23.9933,2.4055,2.1417,-0.3833,-3.8519,-0.6716,5.6316,-3.9164,5.6973,12.1655,5.7806,7.5926,5.9494,0.1275,5.1568,8.0614,4.2569,5.4734,4.0802
1957.0312,19.4118,2.7163,1.1514,-0.3383,-2.4540,-0.3203,6.9678,-2.4374,3.0239,7.1269,2.0136,3.6298,3.7637,2.0382,1.0619,3.5228,2.1837,2.4093,3.4877
1960.9375,14.8772,2.9800,0.5115,0.7537,-0.0796,1.3404,8.0741,0.3343,0.3280,2.7643,-1.8071,-0.7374,1.3272,3.4201,-3.2549,-1.6799,0.0326,-0.8893,2.8453
1964.8438,12.3718,2.6707,0.0062,2.4051,2.9146,3.3491,8.3736,3.6078,-1.7920,-0.4248,-4.4266,-4.1810,-0.8888,4.3657,-6.9318,-6.0473,-1.4385,-3.5363,2.1817
1968.7500,12.9385,1.5886,-0.4348,4.0750,6.2703,4.5097,7.7203,6.4848,-2.8782,-2.1735,-5.0858,-5.8162,-2.4290,5.1034,-9.2377,-8.3714,-1.8323,-4.7548,1.7778
1972.6562,16.1583,-0.0243,-0.6615,5.3279,9.7411,4.0117,6.3518,8.2170,-2.7773,-2.4544,-3.8769,-5.6051,-3.0096,5.7118,-9.7777,-8.2040,-1.2636,-4.3161,1.9177
1976.5625,20.3890,-1.6066,-0.4255,5.9132,12.9344,1.8810,4.6710,8.4383,-1.7286,-1.6227,-1.7071,-4.2764,-2.6531,5.9922,-8.6633,-6.0152,-0.2885,-2.6902,2.5905
1980.4688,23.6272,-2.5770,0.3851,5.7837,15.2750,-1.0090,3.0188,7.2954,-0.3130,-0.4896,0.1428,-2.8233,-1.6979,5.6102,-6.5131,-2.9661,0.3846,-0.7795,3.4049
1984.3750,24.4794,-2.6435,1.5710,5.0898,16.1917,-3.3925,1.5568,5.4019,0.7543,-0.1106,0.6565,-1.9112,-0.6405,4.4072,-4.2124,-0.3960,0.2753,0.6053,3.8195
1988.2812,22.7052,-1.9551,2.6522,4.1525,15.4422,-4.2948,0.2812,3.6003,0.9222,-1.3043,-0.4257,-1.5813,0.1105,2.6382,-2.5264,0.7446,-0.6050,1.1824,3.5299
1992.1875,19.1003,-1.0245,3.1053,3.3863,13.3497,-3.5726,-0.8887,2.6091,0.0477,-4.1922,-2.5438,-1.4191,0.4143,0.9327,-1.7917,0.2547,-1.7741,1.2520,2.7122
1996.0938,14.8969,-0.4837,2.6612,3.1494,10.7498,-2.0154,-2.0159,2.7122,-1.5627,-8.1093,-4.7227,-1.0328,0.3887,-0.0329,-1.8827,-1.3231,-2.5906,1.3382,1.9107
2000.0000,11.0948,-0.8157,1.4606,3.5561,8.6218,-0.9446,-3.0859,3.6436,-3.3490,-11.9903,-6.1898,-0.4671,0.2259,0.0435,-2.4514,-3.0538,-2.6754,1.6902,1.6317
2003.9062,8.0866,-2.1854,-0.0398,4.3520,7.5930,-1.5192,-3.9885,4.7275,-4.8128,-14.9794,-6.8079,-0.2331,-0.0203,0.8477,-3.2358,-4.1082,-2.1724,2.0215,1.9367
2007.8125,5.6887,-4.4099,-1.3492,4.9606,7.6074,-4.1011,-4.5480,5.1909,-5.7452,-16.8269,-7.0435,-0.9203,-0.5002,1.5495,-4.1767,-4.1367,-1.6720,1.6996,2.3488
2011.7188,3.4491,-7.0288,-2.2232,4.7322,7.9661,-8.0044,-4.5964,4.4856,-6.2193,-17.8057,-7.5075,-2.6715,-1.4215,1.2017,-5.2487,-3.3276,-1.8369,0.2615,2.1665
2015.6250,1.0032,-9.4193,-2.7522,3.2970,7.7286,-11.7572,-4.0702,2.4729,-6.3777,-18.2610,-8.4020,-4.9129,-2.7964,-0.7785,-6.1667,-2.1527,-2.9712,-2.1195,0.9806
2019.5312,-1.6953,-10.9304,-3.2067,0.8349,6.2524,-13.7525,-3.0726,-0.5722,-6.2067,-18.2022,-9.2798,-6.5640,-4.2850,-4.2968,-6.2683,-0.9905,-4.8097,-4.5758,-0.9642
2023.4375,-4.3313,-11.0455,-3.7582,-1.9145,3.5653,-12.9787,-1.8430,-4.0749,-5.5008,-17.2932,-9.2973,-6.6196,-5.2846,-8.5814,-4.7626,0.1081,-6.6552,-5.9746,-2.8213
2027.3438,-6.3563,-9.5663,-4.2825,-3.9434,0.3658,-9.4863,-0.6312,-7.3061,-4.0680,-15.2493,-7.7939,-4.7394,-5.2433,-12.4761,-1.2533,1.3554,-7.7618,-5.5687,-3.5894
2031.2500,-7.2416,-6.7558,-4.3985,-4.4410,-2.3400,-4.3758,0.4418,-9.5170,-2.0201,-12.2831,-4.7954,-1.4781,-4.0065,-14.8851,3.8061,2.9139,-7.7143,-3.4452,-2.6835
2035.1562,-6.7813,-3.3456,-3.7335,-3.1898,-3.7525,0.6774,1.4161,-10.0867,0.1027,-9.1836,-1.0989,1.9671,-1.9696,-15.1852,9.0779,4.5685,-6.5869,-0.4890,-0.2902
2039.0625,-5.3272,-0.3483,-2.2486,-0.6838,-3.6569,4.1271,2.3604,-8.7046,1.5086,-6.9135,2.1062,4.3145,0.0694,-13.4567,12.8257,5.6456,-4.8351,2.0910,2.6804
2042.9688,-3.8068,1.2829,-0.4040,2.0993,-2.4672,5.1572,3.1597,-5.5406,1.5451,-6.0200,3.8117,4.7242,1.2765,-10.4480,13.6790,5.2877,-3.0455,3.3473,4.9991
2046.8750,-3.4316,1.0063,0.9672,4.1488,-0.9297,3.9109,3.4120,-1.2895,0.0420,-6.3343,3.5891,3.0409,1.1561,-7.2786,11.2482,2.9557,-1.7183,2.9389,5.6527
2050.7812,-5.1599,-1.1116,1.0405,4.8628,0.3259,1.2793,2.5896,3.0121,-2.6246,-7.2047,1.6165,-0.2807,-0.2620,-4.9766,6.2555,-1.1399,-1.1700,1.0950,4.2646
2054.6875,-9.1574,-4.4389,-0.5566,4.2671,1.1274,-1.6025,0.4258,6.3685,-5.7695,-8.0644,-1.5730,-4.4136,-2.4875,-4.0315,0.1506,-5.9629,-1.5183,-1.6577,1.2449
2058.5938,-14.5656,-8.0234,-3.4769,2.9283,1.8015,-3.8714,-2.7194,8.2323,-8.7392,-8.8385,-5.3553,-8.3883,-4.8021,-4.1710,-5.5251,-10.0208,-2.6580,-4.7425,-2.3566
2062.5000,-19.7650,-10.9084,-6.7223,1.6366,2.9109,-5.2156,-5.8210,8.6998,-11.1033,-9.8207,-9.0913,-11.2605,-6.5153,-4.5004,-9.6630,-12.0086,-4.2072,-7.5968,-5.2275
2066.4062,-23.0482,-12.3877,-9.0354,1.0344,4.8563,-5.8213,-7.6043,8.3683,-12.5991,-11.1067,-12.0486,-12.2753,-7.1359,-3.9669,-11.7763,-11.3923,-5.5025,-9.6207,-6.2769
2070.3125,-23.3663,-12.1377,-9.4415,1.3686,7.5893,-6.0803,-7.2227,7.9400,-12.9600,-12.0896,-13.3839,-11.0844,-6.4448,-1.9282,-11.8746,-8.6209,-5.7543,-10.2051,-5.0637
2074.2188,-20.7502,-10.2390,-7.6825,2.4559,10.6017,-6.2664,-4.7792,7.8283,-11.8661,-11.5367,-12.3676,-7.9538,-4.5087,1.4836,-10.2174,-4.8629,-4.3757,-8.9572,-1.9967
2078.1250,-16.1896,-7.1250,-4.3352,3.8404,13.1871,-6.3687,-1.3281,8.0146,-9.1357,-8.3281,-8.7988,-3.7957,-1.6685,5.4128,-7.1491,-1.4232,-1.3396,-6.0178,1.8151
2082.0312,-11.0658,-3.4745,-0.5528,5.0401,14.8021,-6.1506,1.6841,8.2218,-5.0343,-2.3773,-3.3327,0.1027,1.5059,8.7175,-3.0873,0.8372,2.6676,-2.2053,5.0370
2085.9375,-6.4793,-0.0420,2.4449,5.7579,15.3084,-5.3617,3.2038,8.2371,-0.4122,4.9768,2.5851,2.5961,4.3285,10.5313,1.4052,1.7811,6.4484,1.2224,6.7055
2089.8438,-2.8409,2.5563,3.8862,5.9693,14.9593,-3.9528,3.0890,8.1143,3.5352,11.4971,7.2523,3.1861,6.1772,10.6161,5.5932,1.8636,8.7917,3.1349,6.6372
2093.7500,0.1014,4.0351,3.7243,5.8617,14.1665,-2.1585,2.0499,8.0885,5.8191,15.2357,9.4582,2.2120,6.6827,9.3156,8.6676,1.7221,9.0080,3.1045,5.4169
2097.6562,2.8963,4.5135,2.5561,5.6695,13.2089,-0.4033,1.0950,8.2725,6.1865,15.6164,9.0226,0.5995,5.8404,7.1906,9.9588,1.7624,7.2002,1.6156,3.9648
2101.5625,5.9589,4.4170,1.2525,5.4917,12.0677,0.9132,0.8848,8.3860,5.2571,13.6868,6.8063,-0.6799,3.9830,4.6162,9.1784,1.9894,4.1290,-0.2486,2.9517
2105.4688,9.3279,4.2505,0.5096,5.1896,10.4703,1.6323,1.4168,7.7609,4.1473,11.3760,4.2047,-1.0987,1.6325,1.6225,6.5828,2.1439,0.7768,-1.4464,2.4338
2109.3750,12.7006,4.3688,0.5566,4.4296,8.0939,1.9365,2.1889,5.6723,3.8105,10.2743,2.4419,-0.7264,-0.6905,-1.9370,2.9759,2.0001,-2.1111,-1.5345,1.9358
2113.2812,15.6550,4.8725,1.1484,2.8689,4.7911,2.2708,2.6454,1.8043,4.5239,10.7490,2.0710,-0.0033,-2.6059,-6.0502,-0.4824,1.5786,-4.2531,-0.7953,0.9052
2117.1875,17.8852,5.6630,1.8081,0.4049,0.7203,3.1119,2.5481,-3.4414,5.8442,11.9368,2.9059,0.6426,-3.9220,-10.3204,-2.6291,1.1114,-5.7492,0.1000,-0.7909
2121.0938,19.3227,6.5795,2.1500,-2.6404,-3.6589,4.6895,2.0448,-8.9906,7.0193,12.5123,4.3193,1.0406,-4.6087,-14.0291,-2.7100,0.7953,-6.8260,0.6130,-2.6825
2125.0000,20.1186,7.4936,2.0953,-5.5220,-7.6854,6.8044,1.4776,-13.4672,7.5299,11.6286,5.6445,1.2366,-4.7500,-16.4520,-0.6928,0.5446,-7.6254,0.6641,-3.9532
2128.9062,20.5373,8.2949,1.8732,-7.3014,-10.6299,8.8525,1.1595,-15.6806,7.3715,9.3808,6.4298,1.2626,-4.5114,-17.2061,2.6662,-0.0305,-8.1764,0.5597,-3.9562
2132.8125,20.8246,8.8093,1.8319,-7.2289,-11.8327,10.0674,1.2988,-14.9966,6.9037,6.5657,6.4657,0.9561,-4.1220,-16.3996,6.0659,-1.3617,-8.5150,0.6268,-2.6362
2136.7188,21.0868,8.7554,2.1843,-5.1066,-10.8498,9.8699,2.0487,-11.4729,6.4282,4.0247,5.6784,0.0018,-3.8436,-14.5070,8.1325,-3.5457,-8.8017,0.8590,-0.5840
2140.6250,21.2037,7.8159,2.8319,-1.4432,-7.6025,8.1385,3.5087,-5.7904,5.8419,2.0971,4.0424,-1.8345,-3.9128,-12.0810,7.9245,-6.1458,-9.2935,0.8446,1.2898
2144.5312,20.8160,5.7941,3.3612,2.7017,-2.4826,5.2454,5.5619,0.9266,4.6416,0.5346,1.5904,-4.4741,-4.4639,-9.5060,5.2552,-8.3588,-10.1651,0.0179,2.2313
2148.4375,19.4386,2.7553,3.2171,6.1345,3.6655,1.8402,7.6541,7.3411,2.2804,-1.1664,-1.5120,-7.4854,-5.4700,-6.9294,0.7163,-9.4744,-11.3044,-1.9571,1.9800
2152.3438,16.7131,-0.9427,1.9818,8.0139,9.7350,-1.4765,8.7827,12.1868,-1.3721,-3.3409,-4.9113,-10.2633,-6.7288,-4.3607,-4.5627,-9.3196,-12.2555,-4.9308,0.8081
2156.2500,12.7153,-4.7334,-0.3641,8.1677,14.6776,-4.3701,7.8878,14.5980,-5.7843,-5.9490,-8.0898,-12.2827,-7.9077,-1.8174,-9.2824,-8.3597,-12.3883,-8.2847,-0.6890
2160.1562,8.1423,-7.9686,-3.3265,7.0800,17.8194,-6.7401,4.5255,14.4022,-9.8928,-8.6530,-10.4641,-13.2459,-8.6356,0.5978,-12.3226,-7.3592,-11.2274,-11.1757,-1.8829
2164.0625,4.2075,-10.0196,-6.0135,5.5635,19.0167,-8.4873,-0.6039,12.2157,-12.5312,-11.0199,-11.5193,-13.0646,-8.6220,2.7161,-12.9982,-6.8351,-8.7558,-12.8433,-2.3376
2167.9688,2.2081,-10.3592,-7.4777,4.3009,18.5760,-9.2996,-5.7269,9.2190,-12.9184,-12.6646,-10.9485,-11.7677,-7.7728,4.3572,-11.2119,-6.7018,-5.5125,-12.8397,-1.9264
2171.8750,2.9316,-8.6902,-7.1584,3.5081,17.0002,-8.6847,-8.7795,6.6519,-10.9677,-13.2928,-8.7760,-9.4784,-6.2627,5.3524,-7.4981,-6.3865,-2.4119,-11.1345,-0.8644
2175.7812,6.2101,-5.1457,-5.2128,2.9010,14.7227,-6.3014,-8.5184,5.2618,-7.3019,-12.7434,-5.4289,-6.4980,-4.5170,5.5366,-2.9192,-5.3396,-0.3620,-8.1205,0.3331
2179.6875,10.8912,-0.4649,-2.5296,1.9669,11.9888,-2.3865,-5.2817,5.0070,-3.0074,-11.1049,-1.6921,-3.3799,-3.0727,4.7679,1.2271,-3.5525,0.1359,-4.5395,1.0006
2183.5938,15.2771,4.0501,-0.3594,0.3669,8.9318,2.0618,-0.8751,5.1946,0.7564,-8.8328,1.5046,-0.8316,-2.3451,3.0260,3.8545,-1.6625,-0.7814,-1.3069,0.5996
2187.5000,17.8166,6.9284,0.2943,-1.7772,5.7531,5.5764,2.4059,4.9660,3.1506,-6.6858,3.4351,0.5962,-2.3966,0.5520,4.5252,-0.5182,-2.3838,0.7809,-0.9548
2191.4062,17.6910,7.1876,-0.7858,-3.8812,2.8442,6.9105,3.0465,3.8272,3.9338,-5.3884,3.9140,0.8658,-2.8398,-2.0860,3.6496,-0.4972,-3.6459,1.3863,-3.1055
2195.3125,15.0141,4.9206,-2.8734,-5.1745,0.7310,5.7407,1.1049,1.8989,3.5275,-5.1671,3.4233,0.5825,-2.9639,-4.1136,2.2963,-1.0850,-3.6680,0.8522,-4.7812
2199.2188,10.6091,1.4148,-4.6409,-5.0833,-0.1532,2.9260,-1.9371,-0.2430,2.8301,-5.4938,2.9122,0.7349,-2.0599,-4.8551,1.6672,-1.0730,-2.0413,0.1342,-4.8561
2203.1250,5.5693,-1.3753,-4.8311,-3.4961,0.2692,0.1039,-4.1306,-1.9883,2.8307,-5.3039,3.3385,2.1481,0.2132,-4.0771,2.5011,0.6996,0.9927,0.4046,-2.7260
2207.0312,0.8814,-1.7848,-2.8889,-0.7727,1.5914,-1.1783,-4.2000,-3.0645,4.1750,-3.6347,5.1924,4.9833,3.6211,-2.1605,4.7285,4.5369,4.6503,2.4968,1.3403
2210.9375,-2.7300,0.6991,0.7990,2.4791,3.0364,-0.2903,-2.1771,-3.6116,6.8891,-0.2932,8.2664,8.6173,7.4373,0.0373,7.5568,9.5594,7.9283,6.4869,6.3123
2214.8438,-4.7900,5.1847,5.1688,5.7009,3.7839,2.1964,0.7888,-3.9389,10.4004,3.9204,11.7895,11.9937,10.7812,1.5863,9.9114,14.0951,10.0030,11.6524,10.9274
2218.7500,-5.0608,9.8902,9.0588,8.5806,3.3599,4.9238,3.2308,-4.1709,13.8387,7.6234,14.8185,14.2194,13.0250,1.9463,10.9632,16.5500,10.5375,16.8272,14.3202
2222.6562,-3.6376,13.1126,11.7449,11.0646,1.9002,6.5787,4.2272,-4.0532,16.4375,9.6405,16.6416,15.0187,14.0448,1.2347,10.4615,16.2162,9.7769,20.9298,16.3677
2226.5625,-1.0876,14.0599,13.1374,13.2331,0.1558,6.6075,3.8213,-3.0558,17.8044,9.6363,16.9810,14.7679,14.1882,0.1563,8.7480,13.5501,8.4018,23.3552,17.5587
2230.4688,1.5565,13.0708,13.5933,15.1610,-0.7751,5.3898,2.8339,-0.6977,17.9306,8.1741,15.9511,14.1327,14.0033,-0.3606,6.5248,9.8198,7.2170,24.0349,18.5192
2234.3750,3.0856,11.1624,13.5377,16.8587,0.1226,3.8261,2.2781,3.1285,16.9944,6.2051,13.8885,13.5923,13.9067,0.3785,4.5435,6.4096,6.8099,23.2106,19.5376
2238.2812,2.6152,9.2746,13.1742,18.2965,3.3622,2.6772,2.7672,8.0303,15.1459,4.4095,11.2075,13.1736,13.9809,2.5122,3.3499,4.2164,7.3175,21.1451,20.3999
2242.1875,0.0312,7.7339,12.4421,19.4371,8.7138,2.1180,4.2309,13.2325,12.4461,2.8815,8.3409,12.5352,13.9908,5.5759,3.1211,3.4171,8.3877,17.9966,20.5993
2246.0938,-3.9089,6.2503,11.1806,20.2057,15.2266,1.7714,6.0235,17.8349,8.9895,1.3513,5.7130,11.2828,13.5716,8.7169,3.5912,3.6047,9.3388,13.9202,19.7207
2250.0000,-7.9137,4.3654,9.3247,20.4069,21.4957,1.1303,7.3005,21.0515,5.0808,-0.3069,3.6608,9.2683,12.4545,11.0445,4.0850,4.0931,9.4494,9.2667,17.7108
2253.9062,-10.7544,1.9744,6.9838,19.6806,26.0691,0.0199,7.4469,22.3461,1.2910,-1.7468,2.3056,6.6869,10.6084,11.9502,3.7203,4.2056,8.2618,4.6731,14.8703
2257.8125,-11.7840,-0.4612,4.3869,17.6002,27.8556,-1.2363,6.3667,21.4833,-1.6912,-2.3013,1.4763,3.9683,8.2492,11.2809,1.7877,3.4827,5.7818,0.9246,11.6324
2261.7188,-11.1165,-2.1410,1.7890,13.9229,26.4173,-2.0338,4.5245,18.5650,-3.3371,-1.4989,0.7964,1.5895,5.7476,9.3284,-1.8202,1.8356,2.4929,-1.3528,8.3362
2265.6250,-9.4404,-2.4121,-0.5653,8.8734,22.0801,-1.9023,2.7315,14.0769,-3.5137,0.4770,-0.0743,-0.0656,3.4994,6.6753,-6.3766,-0.3630,-0.8253,-1.9822,5.1612
2269.5312,-7.6526,-1.1858,-2.4181,3.2649,15.8511,-0.8135,1.7566,8.8884,-2.5362,2.7755,-1.1953,-0.7750,1.8080,3.9764,-10.5024,-2.3465,-3.4048,-1.3260,2.2307
2273.4375,-6.5332,0.9646,-3.4989,-1.6779,9.1666,0.8067,1.9313,4.1126,-1.0203,4.3482,-2.2913,-0.5284,0.8040,1.7570,-12.7569,-3.2630,-4.7936,-0.1186,-0.2594
2277.3438,-6.5550,3.0554,-3.6213,-4.7687,3.5161,2.3285,2.9474,0.7943,0.3685,4.5611,-2.9535,0.4112,0.4123,0.2848,-12.3528,-2.6541,-5.0221,0.8633,-2.0309
2281.2500,-7.7725,4.1337,-2.8386,-5.3761,0.0206,3.2355,3.9851,-0.4809,1.1375,3.5116,-2.9604,1.4950,0.3755,-0.4675,-9.5775,-0.8321,-4.5574,1.1212,-2.8623
2285.1562,-9.7241,3.6839,-1.5260,-3.7314,-0.9253,3.3172,4.1446,0.1328,1.0880,1.8526,-2.4681,2.0261,0.3399,-0.7785,-5.6458,1.1534,-4.0710,0.6008,-2.7615
2289.0625,-11.3967,1.8394,-0.2672,-0.8477,0.1900,2.6780,2.9639,1.7446,0.3341,0.3094,-1.9068,1.4697,-0.0167,-1.0826,-2.0576,2.0502,-4.1341,-0.3460,-2.0260
2292.9688,-11.4136,-0.6612,0.4352,1.9263,2.1400,1.6330,0.7179,3.0572,-0.7521,-0.7213,-1.6481,-0.2056,-0.8654,-1.8452,0.1481,1.1691,-4.9867,-1.1566,-1.1285
2296.8750,-8.5410,-2.7495,0.4494,3.4905,3.4052,0.5916,-1.7053,2.8978,-1.6544,-1.2233,-1.7062,-2.3949,-2.1721,-3.4263,0.7936,-1.1199,-6.4777,-1.3155,-0.5031
2300.7812,-2.3644,-3.4502,0.0876,3.4198,2.7725,-0.0357,-3.3037,0.7105,-1.8909,-1.3158,-1.7265,-4.0981,-3.7350,-5.9483,0.4152,-3.5490,-8.1804,-0.5759,-0.3731
2304.6875,6.2465,-2.3142,-0.1202,2.0330,-0.1595,0.0580,-3.5446,-3.2117,-1.2272,-1.0088,-1.2944,-4.4590,-5.2899,-9.2027,-0.2605,-4.7312,-9.6005,0.9293,-0.7193
2308.5938,15.2667,0.3187,0.1850,0.1113,-4.8010,0.9337,-2.6674,-7.8455,0.1603,-0.2129,-0.3376,-3.2987,-6.6169,-12.6446,-0.8167,-4.0669,-10.3691,2.7256,-1.3716
2312.5000,22.2979,3.3895,0.9152,-1.5431,-9.8093,2.2841,-1.5140,-11.8344,1.6878,1.0094,0.7081,-1.2907,-7.5948,-15.5158,-1.2901,-2.1584,-10.3415,4.1742,-2.1319
2316.4062,25.6276,5.5530,1.5830,-2.4524,-13.6265,3.4558,-0.9923,-13.9770,2.5861,2.2239,1.1295,0.3733,-8.1863,-17.0860,-1.9295,-0.4202,-9.5920,4.7267,-2.8380
2320.3125,24.9560,5.8085,1.6552,-2.5511,-15.0605,3.6931,-1.5137,-13.6084,2.2657,2.7094,0.4258,0.6474,-8.3913,-16.9285,-2.8247,-0.1269,-8.3421,4.1531,-3.3569
2324.2188,21.3638,4.0080,0.9645,-2.0288,-13.6491,2.5362,-2.7534,-10.7549,0.6331,1.8644,-1.2986,-0.7727,-8.2142,-15.0993,-3.7297,-1.5412,-6.8695,2.6367,-3.5601
2328.1250,16.5907,0.9448,-0.1256,-1.0871,-9.6936,0.1500,-3.8640,-6.0552,-1.8280,-0.3467,-3.3382,-3.2849,-7.6654,-12.1133,-4.2133,-3.7186,-5.4309,0.6934,-3.3354
2332.0312,12.1400,-2.0542,-0.9335,0.2002,-4.0289,-2.6483,-3.9856,-0.5233,-4.2712,-3.2753,-4.8072,-5.7315,-6.7771,-8.7105,-3.9962,-5.1246,-4.2030,-1.0432,-2.6348
2335.9375,8.7810,-3.8088,-0.9082,1.8371,2.2937,-4.7388,-2.7286,4.7422,-5.8760,-5.9327,-5.1856,-7.0298,-5.6021,-5.5236,-3.1940,-4.6469,-3.2492,-2.0581,-1.5075
2339.8438,6.6507,-3.8459,0.0032,3.7334,8.2595,-5.2566,-0.3566,8.8213,-6.1859,-7.5786,-4.6096,-6.6955,-4.1809,-2.8243,-2.2762,-2.3319,-2.5166,-2.0981,-0.0742
2343.7500,5.6675,-2.5210,1.3293,5.5755,13.0389,-4.0367,2.3910,11.1619,-5.2186,-8.1298,-3.7069,-4.9796,-2.5087,-0.4858,-1.7793,0.6215,-1.8761,-1.1780,1.5433
2347.6562,5.7619,-0.6736,2.4068,6.8843,16.0831,-1.6812,4.6826,11.6800,-3.3316,-8.0951,-3.1091,-2.6087,-0.5417,1.8304,-1.9925,2.5739,-1.1968,0.5102,3.2749
2351.5625,6.6923,0.9187,2.8298,7.2621,17.2202,0.7819,5.9471,10.7542,-0.9752,-8.1040,-3.0016,-0.3513,1.7360,4.3838,-2.8283,2.3874,-0.4241,2.6968,5.0821
2355.4688,7.6906,1.9219,2.6999,6.6801,16.7292,2.4259,6.0346,9.1056,1.4866,-8.4062,-3.0293,1.3099,4.2147,7.1359,-3.9309,0.0267,0.3776,5.0775,6.8772
2359.3750,7.4537,2.4559,2.5085,5.5938,15.3012,2.8249,5.1700,7.5671,3.8004,-8.7311,-2.6140,2.2527,6.5966,9.7202,-4.9045,-3.4861,1.0407,7.3040,8.4596
2363.2812,4.7560,2.8159,2.7521,4.7630,13.8178,2.1277,3.7957,6.7947,5.7393,-8.6009,-1.4417,2.5813,8.4242,11.5940,-5.4915,-6.6563,1.3553,8.9836,9.5454
2367.1875,-0.6176,3.1777,3.5615,4.8413,12.9920,0.8444,2.4083,7.0167,7.0387,-7.8270,0.2332,2.4439,9.2066,12.2647,-5.6145,-8.2610,1.1427,9.7453,9.8957
2371.0938,-7.3545,3.5276,4.6052,5.9699,13.0351,-0.4466,1.4412,7.9314,7.4459,-6.7685,1.6842,1.9384,8.5987,11.4602,-5.3182,-7.8638,0.3060,9.3775,9.4607
2375.0000,-13.1003,3.8315,5.3215,7.6347,13.5387,-1.2734,1.1808,8.8181,6.8711,-6.1246,2.1521,1.1385,6.5524,9.1759,-4.6966,-5.9052,-1.1458,7.9705,8.4261
2378.9062,-15.8233,4.2467,5.2995,8.8982,13.6484,-1.2833,1.6981,8.8272,5.5306,-6.3978,1.3433,0.1726,3.3773,5.6163,-3.8513,-3.4066,-3.0925,5.9729,7.1110
2382.8125,-15.1855,5.1356,4.5413,8.8848,12.4425,-0.2133,2.8054,7.3239,3.9608,-7.4324,-0.3222,-0.7312,-0.3187,1.1014,-2.8596,-1.4661,-5.3027,4.0977,5.7783
2386.7188,-12.8838,6.8174,3.4310,7.2310,9.3141,2.0430,4.0745,4.1257,2.8580,-8.3883,-1.8667,-1.2773,-3.7900,-4.0003,-1.7285,-0.7609,-7.4531,3.0897,4.4872
2390.6250,-11.5742,9.2222,2.4527,4.2346,4.1882,5.2556,4.9438,-0.4651,2.8005,-8.1971,-2.2290,-1.1959,-6.3632,-9.2926,-0.3613,-1.2447,-9.1861,3.4352,3.0954
2394.5312,-13.0276,11.7254,1.8636,0.6317,-2.4690,8.7164,4.9002,-5.8157,3.9774,-6.2059,-0.8101,-0.3539,-7.6273,-14.3420,1.3887,-2.1739,-10.2067,5.1312,1.4147
2398.4375,-16.8141,13.3296,1.5445,-2.8230,-9.7696,11.3292,3.6726,-11.1836,6.0527,-2.5940,2.1841,1.1603,-7.5365,-18.6669,3.5498,-2.4894,-10.3829,7.6207,-0.5867
2402.3438,-20.5200,13.1207,1.1147,-5.6849,-16.5507,11.9955,1.3597,-15.8708,8.2330,1.6853,5.7676,3.0087,-6.3835,-21.7484,5.8396,-1.4185,-9.7864,9.9409,-2.6740
2406.2500,-21.4242,10.7300,0.2178,-7.8571,-21.5317,10.1364,-1.5640,-19.2595,9.5309,5.3708,8.5603,4.6593,-4.6516,-23.0844,7.6243,1.0018,-8.6378,11.0542,-4.4055
2410.1562,-18.4720,6.5272,-1.2171,-9.3653,-23.5421,6.0497,-4.3787,-20.7929,9.1382,7.4674,9.3721,5.5368,-2.8133,-22.3025,8.1487,3.8084,-7.1812,10.2506,-5.3292
2414.0625,-13.1145,1.4535,-2.9017,-10.1005,-21.8613,0.8601,-6.3492,-20.0197,6.7700,7.6253,7.7305,5.2419,-1.1723,-19.3213,6.9638,5.5517,-5.5710,7.4613,-5.1973
2417.9688,-8.3702,-3.3780,-4.3316,-9.7692,-16.5791,-3.9441,-6.9775,-16.7645,2.8339,6.1918,4.1114,3.7551,0.1763,-14.5010,4.2887,5.1049,-3.8534,3.3382,-4.0771
2421.8750,-6.7520,-7.0692,-5.0439,-8.1147,-8.7592,-7.1421,-6.1773,-11.3515,-1.6693,4.0032,-0.2446,1.5122,1.2677,-8.6719,1.0243,2.3801,-2.0567,-0.9572,-2.3006
2425.7812,-8.5328,-9.1308,-4.8259,-5.2340,-0.1998,-8.2352,-4.2865,-4.7101,-5.4953,2.0704,-3.8590,-0.7203,2.1508,-2.9514,-1.6537,-1.5153,-0.3113,-4.1815,-0.2889
2429.6875,-11.5755,-9.4646,-3.7660,-1.7107,7.2097,-7.5061,-1.8933,1.7935,-7.6138,1.2779,-5.6365,-2.1404,2.8340,1.6409,-2.8984,-4.8244,1.1122,-5.4654,1.6518
2433.5938,-12.8129,-8.2423,-2.1420,1.5988,12.2567,-5.7128,0.4503,6.7971,-7.5660,2.1428,-5.2714,-2.2357,3.3355,4.6078,-2.5989,-6.0832,1.9093,-4.5906,3.4583
2437.5000,-10.2905,-5.8049,-0.2394,4.0244,14.8708,-3.6460,2.4765,9.4655,-5.5586,4.6631,-3.2438,-0.9688,3.7792,6.1886,-1.3196,-4.8793,1.9393,-1.9718,5.2985
2441.4062,-4.3372,-2.6197,1.7786,5.4782,15.9860,-1.8115,4.2582,9.8163,-2.2750,8.3056,-0.4408,1.2674,4.4196,7.1857,0.1736,-1.9688,1.3710,1.6123,7.4231
2445.3125,2.8622,0.7525,3.8753,6.4905,16.8528,-0.3574,6.0257,8.6524,1.4602,12.1873,2.3429,3.8772,5.5160,8.4474,1.4415,1.2767,0.6497,5.3679,9.9498
2449.2188,8.8402,3.7429,6.0294,7.8262,18.2118,0.8048,7.8539,7.1303,4.9642,15.4186,4.7155,6.3162,7.1066,10.2909,2.5649,3.6796,0.2714,8.7227,12.6881
2453.1250,12.3547,5.9084,8.0936,9.9183,19.8469,1.8320,9.4412,6.1995,7.7978,17.4544,6.6500,8.2238,8.8410,12.2349,3.8753,4.7766,0.4904,11.3616,15.1080
2457.0312,13.8145,7.0439,9.7276,12.4942,20.7959,2.8368,10.1650,6.2131,9.7090,18.2487,8.1967,9.3969,10.0354,13.2431,5.4676,4.7705,1.1500,13.1158,16.4970
2460.9375,14.5248,7.1988,10.4701,14.6498,20.0606,3.8418,9.4251,6.8822,10.5541,18.1090,9.2182,9.6939,9.9799,12.3551,6.9186,4.0804,1.7540,13.8507,16.2544
2464.8438,15.5312,6.5949,9.9355,15.3267,17.3255,4.7566,7.0771,7.5347,10.3187,17.3597,9.3965,9.0066,8.3437,9.3087,7.4822,2.9359,1.7482,13.4692,14.1910
2468.7500,17.0138,5.5216,8.0494,13.8933,13.1971,5.3676,3.6658,7.4743,9.2365,16.0840,8.5292,7.3641,5.4318,4.7511,6.6584,1.3657,0.8458,12.0371,10.6823
2472.6562,18.5883,4.2994,5.2040,10.4844,8.8185,5.3943,0.2779,6.2401,7.8792,14.1803,6.8910,5.1032,2.1198,-0.0902,4.7200,-0.4471,-0.7851,9.9251,6.5938
2476.5625,20.0701,3.3299,2.2423,5.9428,5.1555,4.6641,-1.9256,3.6936,7.0698,11.7165,5.3456,2.9489,-0.4994,-4.0344,2.7784,-1.8228,-2.5624,7.8358,3.0130
2480.4688,21.9142,3.1476,0.2485,1.4655,2.4715,3.3571,-2.2220,0.0069,7.5917,9.2930,5.0467,1.8767,-1.5443,-6.4317,2.2781,-1.6609,-3.7104,6.6504,0.9213
2484.3750,24.9107,4.3460,0.2021,-1.7984,0.3630,2.1488,-0.5825,-4.3385,9.8237,8.0378,6.8500,2.7590,-0.6070,-7.1990,4.2092,0.9808,-3.5345,7.1423,0.9437
2488.2812,29.4126,7.3233,2.6129,-3.0074,-1.6924,2.0550,2.4469,-8.5205,13.5089,9.0784,10.7716,5.9427,2.2464,-6.4620,8.5187,6.1504,-1.6385,9.6722,3.2421
2492.1875,34.7934,11.9378,7.2686,-1.7326,-3.7009,3.9389,6.1078,-11.4126,17.7937,12.7347,15.8274,10.9724,6.6283,-4.1785,14.0648,12.6408,1.9510,13.9868,7.5152
2496.0938,39.6219,17.2868,13.1988,1.9857,-4.9258,7.8970,9.7544,-11.8172,21.5070,17.9628,20.3632,16.6168,11.9416,-0.1318,19.1055,18.3376,6.7414,19.1878,13.0351
2500.0000,42.4162,21.8155,18.8923,7.5511,-4.2779,12.9142,12.9420,-8.9102,23.5228,22.5180,22.7098,21.2141,17.3482,5.6355,22.0088,21.1454,11.8046,23.8866,18.6977
2503.9062,42.3654,23.8087,22.7230,13.7655,-1.0811,17.1061,15.2994,-2.7230,23.0440,23.8873,21.8302,23.2104,21.6941,12.2855,21.8078,19.9709,15.9198,26.5230,23.1481
2507.8125,39.4868,22.0943,23.4587,18.9924,4.3082,18.5368,16.3937,5.6237,19.7487,20.5326,17.6717,21.6839,23.6103,18.0607,18.4062,15.1993,17.8690,25.8011,25.0626
2511.7188,34.2255,16.6265,20.6784,21.6279,10.4783,16.2140,15.7953,14.1507,13.8454,12.7345,11.1189,16.6668,21.9260,20.8529,12.4782,8.4226,16.8494,21.1461,23.5788
2515.6250,27.0038,8.6317,14.9360,20.7502,15.5943,10.6808,13.3567,20.6917,6.0923,2.5247,3.6378,9.1544,16.2783,19.2484,5.2285,1.6318,12.8536,13.0308,18.7155
2519.5312,18.2202,0.1988,7.5900,16.6146,18.3179,3.8140,9.4953,23.7164,-2.2451,-7.2673,-3.2040,0.8062,7.5691,13.4265,-1.8777,-3.6291,6.8032,2.9983,11.5347
2523.4375,8.6981,-6.5211,0.3500,10.6531,18.4571,-2.1000,5.2054,22.9018,-9.5930,-14.3055,-8.1706,-6.5558,-2.0946,5.2893,-7.4142,-6.7066,0.3012,-6.7135,3.8711
2527.3438,0.0456,-10.1325,-5.2835,4.8859,16.9627,-5.4902,1.6894,19.1648,-14.4741,-17.6552,-10.6402,-11.4811,-10.0835,-2.3492,-10.3528,-7.7481,-4.9433,-13.8731,-2.3203
2531.2500,-5.6589,-10.4407,-8.4594,1.0103,15.2987,-6.1735,-0.2188,14.1511,-16.0145,-17.8632,-10.6877,-13.2762,-14.2808,-7.0925,-10.4107,-7.2825,-7.7632,-17.0217,-5.7138
2535.1562,-6.9008,-8.3346,-9.1303,-0.3454,14.5848,-5.2055,-0.4820,9.4621,-14.3028,-16.2962,-8.9558,-12.1186,-13.9501,-8.0409,-8.1991,-5.8129,-7.9343,-15.9694,-6.0820
2539.0625,-3.8273,-5.2140,-7.8970,0.2125,15.0182,-4.0604,0.1522,6.0158,-10.3606,-14.2438,-6.3531,-8.8775,-9.9820,-6.0115,-4.9992,-3.6590,-6.1347,-11.7843,-4.2521
2542.9688,1.4803,-2.2978,-5.6662,1.3301,15.8726,-3.6965,0.6126,3.8339,-5.6884,-12.3452,-3.6906,-4.7413,-4.4027,-2.8397,-2.1879,-1.0575,-3.5134,-6.2842,-1.5999
2546.8750,5.9516,-0.1832,-3.3099,1.7358,16.0130,-4.0952,0.1272,2.3002,-1.6164,-10.6015,-1.4190,-0.8172,0.5686,-0.2646,-0.5881,1.6528,-1.1320,-1.2854,0.6140
2550.7812,7.1882,1.1575,-1.4684,0.9133,14.5777,-4.5062,-1.3825,0.6834,1.1702,-8.8129,0.3970,2.1360,3.4105,0.8960,-0.1336,3.9589,0.4144,2.0244,1.7072
2554.6875,4.7451,2.0267,-0.5184,-0.7514,11.4311,-4.1516,-3.3616,-1.3870,2.6719,-7.0428,1.8603,3.7711,3.7260,0.8424,-0.0785,5.2897,1.0363,3.3216,1.6402
2558.5938,0.1519,2.5809,-0.6289,-2.3789,7.1748,-2.8672,-5.0515,-3.7423,3.2163,-5.7698,2.9322,4.0489,2.0896,0.2477,0.3645,5.2476,0.9151,2.9549,0.7469
2562.5000,-4.3181,2.6246,-1.8056,-3.2596,2.7784,-1.2524,-5.9760,-5.8540,3.0037,-5.6665,3.2670,3.0787,-0.4818,-0.4386,1.3753,3.7949,0.2166,1.5150,-0.6282
2566.4062,-7.2230,1.7291,-3.8868,-3.3463,-0.9158,-0.2816,-6.1649,-7.2331,1.9025,-7.2001,2.3413,1.0143,-3.0887,-1.3228,2.3181,1.2740,-1.0361,-0.5532,-2.3438
2570.3125,-8.7427,-0.4391,-6.5266,-3.2887,-3.5378,-0.6871,-6.0140,-7.7977,-0.3660,-10.3239,-0.1706,-1.9452,-5.2635,-2.8497,2.1436,-1.7503,-2.8680,-3.0911,-4.4316
2574.2188,-10.1820,-3.8144,-9.2269,-4.0078,-5.2373,-2.5348,-5.9301,-7.9826,-3.8181,-14.4069,-4.0156,-5.4735,-6.9561,-5.2686,0.1583,-4.7216,-5.1474,-6.0891,-6.9017
2578.1250,-12.6614,-7.8400,-11.4320,-6.0671,-6.4635,-5.2168,-6.0295,-8.5040,-7.9038,-18.3775,-8.2498,-9.0344,-8.2883,-8.2210,-3.3456,-7.2464,-7.4516,-9.4046,-9.5400
2582.0312,-16.0473,-11.6165,-12.6389,-9.1961,-7.6317,-7.7764,-6.0765,-9.8899,-11.5603,-20.9738,-11.5193,-11.8810,-9.2662,-10.7673,-7.0388,-9.0886,-9.1303,-12.5395,-11.8297
2585.9375,-18.9321,-14.1816,-12.4667,-12.2338,-8.8566,-9.2966,-5.6550,-12.0298,-13.6199,-21.0347,-12.6196,-13.1894,-9.6245,-11.8383,-9.1628,-10.0396,-9.5492,-14.6436,-13.0391
2589.8438,-19.6343,-14.7866,-10.6815,-13.5523,-9.8727,-9.1411,-4.4185,-14.0205,-13.3340,-17.8330,-11.0471,-12.3249,-8.8975,-10.8153,-8.4686,-9.8143,-8.3841,-14.7926,-12.4487
2593.7500,-17.4278,-13.1047,-7.2402,-11.7911,-10.1583,-7.0398,-2.2588,-14.4524,-10.7260,-11.4363,-7.2680,-9.1680,-6.7064,-7.8782,-4.9490,-8.1270,-5.8123,-12.4475,-9.6540
2597.6562,-13.0953,-9.3769,-2.4122,-6.5798,-9.1934,-3.1512,0.6626,-12.0469,-6.6171,-2.9663,-2.5874,-4.3605,-3.1342,-3.9383,0.0488,-4.9770,-2.5067,-7.8882,-4.8557
2601.5625,-8.4608,-4.4919,3.0575,1.1008,-6.7218,1.8191,3.9647,-6.3448,-2.3653,5.4728,1.2979,0.6881,1.0256,-0.2263,4.3938,-0.9797,0.5590,-2.3714,0.9864
2605.4688,-5.3132,0.0853,7.9045,9.1405,-2.8944,6.5527,7.1070,1.9185,0.5444,11.3611,2.8693,4.1428,4.3579,2.2224,6.1220,2.5457,2.4192,2.1540,6.2742
2609.3750,-4.4972,2.6546,10.5949,15.0728,1.7729,9.3368,9.4453,10.9787,0.9284,12.7301,1.2837,4.3913,5.3280,2.9374,4.2944,3.9419,2.4345,3.7545,9.2366
2613.2812,-5.6928,1.9052,9.8986,17.0934,6.6014,8.6798,10.3415,18.6952,-1.7148,9.1186,-3.3305,0.7661,3.0316,2.1089,-0.6260,1.9754,0.5216,1.3777,8.6383
2617.1875,-7.8376,-2.3903,5.5585,14.8487,10.9992,4.1311,9.3624,23.3770,-6.9416,1.9752,-9.8473,-6.0057,-2.1877,0.4191,-7.0028,-3.3821,-2.7830,-4.5391,4.4335
2621.0938,-9.7330,-9.0042,-1.3391,9.5875,14.6220,-3.1760,6.5124,24.3748,-13.3379,-5.8267,-16.4216,-13.9164,-8.6603,-1.2844,-12.7078,-10.6581,-6.4683,-12.0831,-2.0131
2625.0000,-10.4246,-15.5470,-8.6175,3.5685,17.3661,-10.7156,2.3569,22.1754,-18.8625,-11.2196,-21.0452,-20.3933,-14.0091,-2.3306,-15.9370,-17.3662,-9.3826,-18.5886,-8.3614
2628.9062,-9.2936,-19.4340,-13.8800,-0.9899,19.2309,-15.5818,-2.0925,18.0181,-21.5582,-12.3156,-22.2483,-23.3306,-16.2208,-2.4488,-15.8364,-21.1168,-10.6523,-21.7659,-12.2634
2632.8125,-6.0783,-19.0982,-15.5870,-2.8668,20.1828,-15.8719,-5.7248,13.2997,-20.3839,-9.1877,-19.6829,-21.9439,-14.6023,-1.7842,-12.7303,-20.7625,-10.0111,-20.6774,-12.4011
2636.7188,-0.9907,-14.7773,-13.7399,-2.2023,20.1487,-11.6761,-7.7429,9.1021,-15.7399,-3.6336,-14.2944,-17.0129,-10.0639,-0.7001,-7.9093,-16.9027,-7.8749,-16.0495,-9.0329
2640.6250,5.1713,-8.3731,-9.7494,-0.1121,19.1663,-5.0576,-7.9113,6.0314,-9.3220,1.9132,-7.9278,-10.3980,-4.5433,0.5224,-3.0911,-11.4307,-5.1045,-9.7622,-3.7332
2644.5312,11.1840,-2.4130,-5.5450,2.1532,17.5668,1.0220,-6.5062,4.3230,-3.2927,5.6725,-2.5036,-4.1102,0.0913,1.8975,0.2305,-6.4035,-2.5648,-3.8294,1.5207
2648.4375,15.9197,1.2974,-2.4584,3.9575,16.0008,4.2437,-4.0321,4.0145,0.8065,7.2667,0.8353,0.5479,2.9875,3.6921,1.3100,-2.9496,-0.7199,0.5378,5.3712
2652.3438,18.9477,2.5251,-0.5705,5.4804,15.1980,4.0570,-0.9278,5.0005,2.7622,7.5635,2.1396,3.3334,4.5341,6.1174,0.3572,-0.8947,0.5035,3.2741,7.6138
2656.2500,20.7198,2.4637,1.0832,7.3028,15.5418,1.7662,2.5278,6.9473,3.5726,7.8185,2.4014,4.7969,5.7718,8.9447,-1.6423,0.7139,1.5074,5.0917,8.9688
2660.1562,22.0823,2.7289,3.6103,9.7217,16.7193,-0.4170,6.0630,9.1979,4.5833,8.7282,2.7958,5.6612,7.4360,11.3447,-3.4113,2.6224,2.6093,6.7301,10.3140
2664.0625,23.4054,4.1867,7.2843,12.3062,17.7192,-0.7379,9.1836,10.8379,6.4553,9.9916,3.8939,6.2822,9.3115,12.1501,-3.9618,4.6643,3.7100,8.3564,11.9329
2667.9688,24.0368,6.3906,11.1647,14.0204,17.2651,1.1380,11.1165,10.9726,8.6677,10.5931,5.3394,6.5124,10.3466,10.4643,-3.0155,5.8426,4.2855,9.4975,13.2845
2671.8750,22.6438,7.9756,13.5922,13.8402,14.4896,4.0777,11.0715,9.1026,9.9039,9.5455,6.1789,5.9889,9.4347,6.2684,-1.0744,5.1234,3.7352,9.4912,13.4239
2675.7812,18.3402,7.7059,13.2565,11.4529,9.4695,6.2870,8.7219,5.3894,9.0650,6.5741,5.6116,4.5863,6.3102,0.6127,0.8931,2.3439,1.8730,8.0992,11.7548
2679.6875,11.7944,5.4433,10.1460,7.5776,3.2916,6.4207,4.6077,0.6546,6.2106,2.3300,3.6547,2.6999,1.9285,-4.7986,1.9987,-1.4400,-0.7776,5.8388,8.5891
2683.5938,5.3734,2.3831,5.7554,3.6959,-2.4094,4.3374,0.1508,-3.8915,2.7614,-1.9432,1.2836,1.1661,-1.9473,-8.4309,1.9344,-4.4332,-3.1193,3.8124,5.1323
2687.5000,1.9976,0.4045,2.3813,1.3518,-6.1816,1.1211,-2.8259,-7.0526,0.7815,-5.0325,-0.0547,0.8723,-3.6962,-9.6676,1.1544,-5.0970,-4.0179,3.1478,2.9029
2691.4062,3.3438,0.9586,1.8987,1.4238,-7.3384,-1.5670,-2.8863,-8.0051,1.7654,-6.3008,0.7324,2.2878,-2.7292,-9.0221,0.6149,-3.0096,-2.9424,4.3963,2.9407
2695.3125,8.6042,4.1861,4.7198,3.7532,-6.0956,-2.3947,0.3122,-6.4986,5.6781,-5.9017,3.7034,5.1677,0.2165,-7.6899,1.1830,0.9321,-0.3224,7.2265,5.2657
2699.2188,14.7189,8.7738,9.5181,7.2782,-3.2580,-1.0438,5.7674,-2.8860,10.8360,-4.6411,7.7319,8.5700,3.5192,-6.7420,3.0260,5.0278,2.6123,10.5480,8.8607
2703.1250,18.0087,12.5866,13.8557,10.5421,0.2773,1.6384,11.4797,1.9759,14.7011,-3.6179,10.9603,11.1691,5.5441,-6.4855,5.3420,7.6227,4.4383,12.9604,12.1417
2707.0312,16.1674,13.6802,15.3577,12.2933,3.8710,4.0515,15.2400,6.9242,15.1267,-3.8134,11.6174,11.7354,5.4201,-6.3886,6.6390,7.7743,4.2561,13.2957,13.6345
2710.9375,9.3462,11.1527,12.8137,11.9121,7.1855,4.6052,15.4930,10.7755,11.3750,-5.7501,8.8035,9.6061,3.3295,-5.5725,5.4754,5.4494,2.1167,11.0375,12.5334
2714.8438,-0.2708,5.4663,6.6827,9.5445,10.0173,2.4908,11.9035,12.6725,4.4116,-9.2901,2.9023,4.9828,0.2452,-3.5022,1.2965,1.3150,-1.0634,6.4979,8.9430
2718.7500,-9.9425,-1.8135,-1.1789,5.9602,12.1519,-1.8764,5.4242,12.3929,-3.5922,-13.6334,-4.5278,-1.0656,-2.6379,-0.4009,-5.0961,-3.6082,-4.0189,0.7275,3.7790
2722.6562,-17.7953,-8.6494,-8.3532,2.2414,13.4059,-6.9569,-2.0999,10.4718,-10.2189,-17.5523,-11.3093,-6.9286,-4.4323,2.8651,-11.7397,-8.2121,-5.7665,-4.8023,-1.5721
2726.5625,-23.2976,-13.2407,-12.8211,-0.5797,13.8129,-10.7203,-8.5786,8.0266,-13.7375,-19.8231,-15.4206,-11.0196,-4.8124,5.3117,-16.3212,-11.4682,-5.9999,-8.6637,-5.6980
2730.4688,-26.7128,-14.5635,-13.6244,-1.8262,13.7504,-11.5522,-12.3163,6.3095,-13.6223,-19.6966,-15.7008,-12.3686,-3.9699,6.3941,-17.2079,-12.6007,-5.0765,-9.9445,-7.5862
2734.3750,-28.2353,-12.6053,-11.0144,-1.3402,13.8232,-9.0106,-12.4555,6.1795,-10.5292,-17.1814,-12.2324,-10.9764,-2.3945,6.2379,-14.1758,-11.3181,-3.6812,-8.5543,-6.9217
2738.2812,-27.6266,-8.2599,-6.1343,0.5371,14.5150,-4.0366,-9.1408,7.7504,-5.8448,-12.9833,-6.2627,-7.7531,-0.6385,5.4366,-8.4682,-8.0032,-2.4224,-5.2201,-4.1672
2742.1875,-24.6105,-2.9333,-0.4708,3.1482,15.8206,1.5137,-3.4155,10.3852,-1.0665,-8.1377,0.3002,-4.0623,0.8417,4.6026,-2.1807,-3.6758,-1.6062,-1.1562,-0.3857
2746.0938,-19.5615,1.9897,4.6503,5.7698,17.1287,5.7785,3.0943,13.0114,2.7188,-3.5626,5.6115,-1.1072,1.7506,3.9818,2.6831,0.3527,-1.2706,2.4427,3.1461
2750.0000,-13.7499,5.6066,8.3480,7.8118,17.4682,7.7414,8.6301,14.5579,5.0814,0.2005,8.5352,0.5246,1.9567,3.3545,5.0052,3.0037,-1.3704,4.8310,5.3889
2753.9062,-8.8081,7.6914,10.2261,8.8895,15.9885,7.5577,11.7887,14.2851,6.1817,2.9515,8.9464,0.9483,1.4677,2.2301,4.8429,3.8509,-1.9239,5.8648,5.8682
2757.8125,-5.7749,8.5595,10.2773,8.7901,12.3872,6.2144,11.9218,11.8963,6.4913,4.6352,7.6019,0.7214,0.4039,0.1711,3.1681,3.2047,-2.9952,5.8527,4.7508
2761.7188,-4.4753,8.7274,8.7828,7.4295,7.0449,4.8016,9.3166,7.4884,6.4857,5.2361,5.6919,0.4570,-1.0191,-2.9458,1.2834,1.8456,-4.5409,5.2637,2.6694
2765.6250,-3.7478,8.6035,6.2749,4.8845,0.8261,3.8981,5.0751,1.4816,6.4758,4.9071,4.3224,0.5622,-2.4952,-6.8409,0.2493,0.6062,-6.2678,4.5127,0.4182
2769.5312,-2.3541,8.3965,3.5180,1.4885,-5.2886,3.4486,0.7123,-5.3938,6.6328,4.2145,4.1593,1.2084,-3.6434,-10.9056,0.5645,0.0570,-7.6461,3.9305,-1.3222
2773.4375,0.1396,8.2424,1.4047,-2.1180,-10.5154,3.1274,-2.3845,-12.1098,7.1180,4.1928,5.3305,2.4476,-4.0650,-14.3753,2.1493,0.4162,-8.1117,3.8483,-2.1306
2777.3438,3.1819,8.3651,0.7049,-5.1051,-14.3973,2.8272,-3.4269,-17.4843,8.1529,5.9812,7.5292,4.2925,-3.4628,-16.5406,4.5298,1.6235,-7.3453,4.6229,-1.8688
2781.2500,5.8453,9.0650,1.7272,-6.7537,-16.7799,2.8490,-2.4411,-20.5177,9.9198,10.1383,10.1913,6.6594,-1.7940,-16.9514,7.0712,3.4361,-5.4542,6.4913,-0.6546
2785.1562,7.6764,10.4871,4.0747,-6.7986,-17.7407,3.6362,-0.1608,-20.8061,12.3393,16.0608,12.6568,9.2345,0.6278,-15.5684,9.1661,5.4728,-2.9410,9.3227,1.1613
2789.0625,9.0660,12.3477,6.6835,-5.5951,-17.5384,5.2868,2.3225,-18.7818,14.9044,21.9829,14.3039,11.4343,3.1681,-12.7965,10.3540,7.2503,-0.4769,12.4757,3.0235
2792.9688,10.8448,13.8886,8.2115,-3.9653,-16.5537,7.2726,3.9803,-15.5673,16.7594,25.7097,14.6815,12.5742,5.0741,-9.3550,10.3910,8.2950,1.3828,14.9407,4.2641
2796.8750,13.4717,14.1907,7.6317,-2.7765,-15.1588,8.6424,4.1665,-12.4503,17.0524,25.7309,13.6349,12.1887,5.7676,-6.0119,9.2812,8.3254,2.3806,15.7558,4.2933
2800.7812,16.5209,12.7027,4.7410,-2.4886,-13.5222,8.6042,2.7498,-10.2477,15.3846,22.0458,11.3625,10.2938,5.0820,-3.2969,7.2623,7.3858,2.5597,14.4734,2.8454
2804.6875,18.9211,9.6360,0.3016,-2.9394,-11.4649,7.0665,0.0750,-8.9316,12.0732,16.1619,8.3418,7.3994,3.3131,-1.3445,4.7393,5.8009,2.1289,11.3878,0.1579
2808.5938,19.7746,5.9257,-4.2766,-3.4959,-8.5176,4.7259,-3.1750,-7.7543,8.0398,10.2503,5.1357,4.2441,1.0613,0.0544,2.1837,3.9577,1.3115,7.3749,-3.0339
2812.5000,19.0951,2.7433,-7.5587,-3.4629,-4.2203,2.6226,-6.1544,-5.7966,4.3712,5.9919,2.1887,1.4328,-1.0370,1.2382,0.0330,2.0839,0.2784,3.4495,-5.7278
2816.4062,17.8633,0.8618,-8.6892,-2.4900,1.4799,1.4776,-8.0446,-2.5958,1.8159,3.8423,-0.2572,-0.7789,-2.5358,2.4475,-1.3815,0.2283,-0.8158,0.3203,-7.0269
2820.3125,17.3432,0.2916,-7.6800,-0.7323,7.9910,1.2890,-8.2597,1.5380,0.5154,3.1295,-2.0837,-2.4283,-3.2609,3.7253,-1.8746,-1.5221,-1.7683,-1.8002,-6.4891
2824.2188,18.1854,0.4176,-5.2715,1.2988,14.1924,1.4643,-6.6356,5.6965,0.1030,2.8126,-3.1511,-3.6060,-3.2548,4.9752,-1.4301,-2.7907,-2.3244,-3.0709,-4.2958
2828.1250,20.0016,0.5172,-2.4872,3.0633,18.8776,1.3631,-3.5261,8.8976,0.0550,2.2980,-3.2511,-4.2611,-2.6737,6.0844,-0.2129,-2.9242,-2.2765,-3.7414,-1.1671
2832.0312,21.7098,0.2849,-0.1429,4.2733,21.2747,0.8306,0.2762,10.6072,0.0382,1.7389,-2.2426,-4.2200,-1.7230,6.9823,1.4479,-1.3907,-1.6082,-3.9440,1.9338
2835.9375,22.3535,0.0037,1.4486,4.9677,21.3338,0.3305,3.8091,10.9368,0.0427,1.6819,-0.2798,-3.3931,-0.6467,7.5834,3.1295,1.6589,-0.5801,-3.6836,4.1769
2839.8438,21.7609,0.2777,2.4765,5.3791,19.6257,0.5968,6.3022,10.4343,0.2774,2.4304,2.0877,-1.9680,0.2880,7.6861,4.4441,5.1201,0.3320,-2.9620,5.1651
2843.7500,20.5811,1.5489,3.3951,5.7167,16.9471,2.0773,7.4527,9.6528,0.9696,3.6758,4.1114,-0.3840,0.8632,6.9580,5.1832,7.2976,0.6398,-1.8715,5.0413
2847.6562,19.7459,3.7510,4.6092,6.0148,13.9022,4.5655,7.4663,8.7970,2.2378,4.6872,5.2835,0.9347,1.0289,5.0775,5.4068,6.8146,0.0885,-0.5481,4.3648
2851.5625,19.8267,6.3202,6.2341,6.1179,10.7099,7.2544,6.8481,7.6557,4.0908,4.8824,5.7345,1.8967,0.9760,1.9643,5.4233,3.5381,-1.1921,0.9699,3.8157
2855.4688,20.7659,8.5173,8.0254,5.7812,7.2950,9.1417,6.0840,5.8168,6.4767,4.2983,6.2568,2.8505,1.0769,-2.0608,5.6581,-1.1257,-2.7226,2.8204,3.8630
2859.3750,22.0994,9.8157,9.4880,4.8095,3.5306,9.5097,5.4178,2.9921,9.2740,3.5730,7.8435,4.3580,1.6898,-6.3198,6.4682,-4.8535,-3.8824,5.2145,4.5569
2863.2812,23.3807,10.1157,10.1136,3.1744,-0.5662,8.2208,4.8559,-0.7495,12.2099,3.4593,10.9790,6.7703,2.9372,-10.0193,7.9810,-5.6293,-4.1783,8.1904,5.5541
2867.1875,24.4080,9.7051,9.6470,1.0811,-4.7925,5.7421,4.3565,-4.9419,14.8124,4.2571,15.1522,9.9038,4.6092,-12.5465,10.0197,-2.8334,-3.4331,11.4155,6.3700
2871.0938,25.1024,9.0626,8.2623,-1.0266,-8.8276,2.9746,4.0232,-8.8417,16.5161,5.6062,18.9706,13.0617,6.2745,-13.6430,12.1340,2.4742,-1.8022,14.2250,6.7167
2875.0000,25.2365,8.6512,6.5506,-2.5399,-12.2988,0.9877,4.1249,-11.6199,16.9289,6.7767,20.8748,15.3994,7.5346,-13.3793,13.7247,8.2198,0.3641,15.9273,6.7209
2878.9062,24.3473,8.7828,5.2908,-2.8521,-14.7847,0.7032,4.9035,-12.5565,16.0977,7.1977,20.0367,16.3854,8.2522,-11.9939,14.2298,12.4595,2.7114,16.1906,6.8668
2882.8125,21.9727,9.5381,5.0864,-1.5939,-15.8072,2.5391,6.3142,-11.2219,14.5563,6.7970,16.8619,16.0402,8.5914,-9.7438,13.3249,14.2678,5.0017,15.2426,7.6719
2886.7188,18.0181,10.7091,6.0442,1.1547,-14.9094,6.1042,7.9161,-7.6361,13.0550,5.9055,12.7536,14.8062,8.8416,-6.8619,11.0720,13.8784,7.1026,13.7187,9.2821
2890.6250,12.9056,11.7910,7.6777,4.8006,-11.8498,10.1405,9.0323,-2.3558,12.1051,4.8531,9.2748,13.1688,9.1475,-3.6020,7.9394,12.1433,8.8818,12.2441,11.2510
2894.5312,7.3309,12.0987,9.1098,8.4021,-6.8136,12.8977,9.1026,3.5965,11.6345,3.6272,7.2491,11.3255,9.3436,-0.2711,4.6519,9.8157,10.1132,11.0284,12.6805
2898.4375,1.8146,11.0422,9.4864,11.0215,-0.4776,12.8985,7.9967,9.0059,11.0120,1.8941,6.3758,9.1410,9.0190,2.8261,1.9103,7.1904,10.4921,9.7587,12.6808
2902.3438,-3.5541,8.4595,8.3793,12.1040,6.1682,9.7449,6.0720,12.8711,9.4593,-0.6389,5.5887,6.3983,7.7801,5.5004,0.1105,4.2681,9.7735,7.8731,10.8958
2906.2500,-8.9229,4.8023,5.9611,11.6824,12.1686,4.4627,3.9370,14.7570,6.5978,-3.8417,3.8833,3.1255,5.5421,7.7386,-0.7782,1.1757,7.9515,5.0322,7.7716
2910.1562,-14.1713,1.0048,2.8680,10.2923,16.9194,-0.9290,2.0873,14.8978,2.7656,-7.1008,1.0395,-0.2689,2.6542,9.6263,-1.0974,-1.5989,5.3489,1.4591,4.3835
2914.0625,-18.5542,-1.9476,-0.1466,8.6484,20.2628,-4.4637,0.6642,13.9750,-1.1157,-9.6575,-2.2400,-3.1675,-0.2269,11.1676,-1.2199,-3.3913,2.5330,-2.0955,1.8955
2917.9688,-20.8945,-3.5146,-2.5528,7.2698,22.3298,-5.2900,-0.5155,12.6977,-4.0479,-11.0914,-4.8338,-5.0949,-2.4413,12.1472,-1.3038,-3.8155,0.0846,-4.7512,0.9587
2921.8750,-20.2976,-3.8529,-4.1908,6.2698,23.2793,-4.0778,-1.7189,11.4366,-5.5099,-11.5667,-5.9688,-5.9834,-3.6242,12.1786,-1.2606,-3.0978,-1.6489,-6.0006,1.3981
2925.7812,-16.8952,-3.6568,-5.1832,5.4128,23.1439,-2.4929,-3.0474,10.1341,-5.7052,-11.6419,-5.7099,-6.1592,-3.8248,10.9458,-0.9595,-1.9892,-2.6649,-5.9810,2.3703
2929.6875,-12.0155,-3.6862,-5.7201,4.3789,21.8898,-2.0766,-4.3637,8.5218,-5.3568,-11.7841,-4.8508,-6.0617,-3.3904,8.4836,-0.4930,-1.2939,-3.2133,-5.3401,2.8966
2933.5938,-7.5501,-4.2946,-5.8878,3.0506,19.6151,-3.2747,-5.4201,6.4669,-5.2048,-11.9589,-4.3133,-5.9105,-2.7078,5.2818,-0.2543,-1.3549,-3.5662,-4.7870,2.4525
2937.5000,-4.8853,-5.2560,-5.6451,1.6375,16.6877,-5.2493,-6.0487,4.1823,-5.5412,-11.6053,-4.4950,-5.5666,-1.9728,2.1020,-0.7075,-1.8727,-3.8134,-4.6312,1.2673
2941.4062,-4.1264,-5.9776,-4.9310,0.5633,13.6709,-6.5568,-6.2438,2.1385,-6.0733,-10.0203,-5.0254,-4.6867,-1.1346,-0.3987,-1.9860,-2.1795,-3.8299,-4.6133,0.1626
2945.3125,-4.1705,-5.9245,-3.7975,0.1925,11.0487,-6.1787,-6.0865,0.7377,-6.1805,-6.8769,-5.0836,-3.0529,-0.0408,-1.9983,-3.6347,-1.7581,-3.4393,-4.1347,0.0338
2949.2188,-3.5822,-4.9578,-2.4609,0.5715,8.9331,-4.1747,-5.6119,-0.0118,-5.3730,-2.5252,-4.0430,-0.8336,1.3267,-2.9721,-4.7589,-0.6264,-2.6521,-2.7255,1.2816
2953.1250,-1.6428,-3.3841,-1.2380,1.3503,6.9640,-1.5423,-4.7761,-0.5668,-3.6506,2.1107,-1.9819,1.4203,2.6981,-3.8506,-4.5584,0.6688,-1.7854,-0.4368,3.5296
2957.0312,1.1827,-1.7326,-0.4173,1.9434,4.4988,0.5402,-3.5717,-1.5882,-1.5426,5.9478,0.2955,3.0501,3.5775,-5.0395,-2.9072,1.4220,-1.3427,2.1053,5.7918
2960.9375,3.6762,-0.4540,-0.1431,1.8508,0.9982,1.4905,-2.1794,-3.4958,0.1800,8.2106,1.7443,3.6554,3.5122,-6.5584,-0.5469,1.2285,-1.6983,4.0210,6.9979
2964.8438,4.8483,0.2557,-0.3682,0.9592,-3.6064,1.5611,-0.9731,-6.1257,0.9283,8.7032,1.7449,3.3114,2.4141,-8.0537,1.3097,0.2316,-2.7851,4.6646,6.5771
2968.7500,4.7202,0.4338,-0.8844,-0.3567,-8.7643,1.4383,-0.3044,-8.7199,0.5957,7.8019,0.4981,2.4933,0.7122,-9.0477,1.7422,-0.9777,-4.0201,3.9650,4.7677
2972.6562,4.3236,0.2138,-1.4116,-1.4112,-13.4513,1.5851,-0.2053,-10.2736,-0.4378,6.2289,-1.1184,1.7548,-0.8091,-9.2317,0.7333,-1.7134,-4.5673,2.4032,2.4690
2976.5625,4.9327,-0.2895,-1.7180,-1.5890,-16.5320,1.8675,-0.2715,-10.0479,-1.5861,4.7312,-2.1496,1.3565,-1.4454,-8.6096,-0.8379,-1.5774,-3.8283,0.6523,0.7125
2980.4688,7.1115,-1.0023,-1.7385,-0.7278,-17.1746,1.7332,0.0979,-7.9570,-2.4439,3.7705,-2.2322,1.0671,-1.0423,-7.4276,-1.8646,-0.6767,-1.8770,-0.8774,0.0487
2984.3750,10.2800,-1.8558,-1.6446,0.7264,-15.1495,0.7509,1.2090,-4.6222,-3.0414,3.3162,-1.8940,0.2571,-0.1974,-5.9825,-1.8990,0.4040,0.4456,-2.2832,0.2112
2988.2812,13.0998,-2.7699,-1.8061,1.9113,-10.9024,-0.9519,2.6806,-1.0762,-3.8053,2.8316,-2.2655,-1.7609,-0.0109,-4.4629,-1.6092,0.8326,1.8825,-4.0409,0.2691
2992.1875,14.3719,-3.6865,-2.6190,2.0152,-5.3824,-2.7067,3.5075,1.7088,-5.2371,1.5256,-4.3539,-5.3174,-1.4669,-2.9188,-2.4153,-0.1335,1.4039,-6.5840,-0.7918
2996.0938,13.7925,-4.6078,-4.2503,0.7715,0.3124,-3.7471,2.6438,3.2228,-7.4936,-1.1713,-8.3091,-10.1052,-4.7785,-1.3384,-5.4804,-2.8154,-1.1980,-9.8651,-3.3840
3000.0000,12.0619,-5.5668,-6.4359,-1.3135,5.3328,-3.7152,-0.2239,3.5659,-10.1289,-5.1190,-13.1387,-15.1716,-9.0940,0.2659,-10.7100,-6.8944,-5.1040,-13.1918,-6.9318
3003.9062,10.3464,-6.5212,-8.4822,-3.1607,9.3494,-2.8448,-4.2502,3.3047,-12.1853,-9.2871,-17.0747,-19.2000,-12.7838,1.8396,-16.4694,-11.4130,-8.7890,-15.4609,-10.0390
3007.8125,9.5459,-7.2521,-9.5288,-3.6638,12.5619,-1.7124,-7.7118,3.1449,-12.6247,-12.1006,-18.4211,-20.9681,-14.1916,3.3388,-20.2892,-15.0475,-10.7212,-15.6665,-11.1508
3011.7188,9.8928,-7.3757,-8.9653,-2.2811,15.4318,-0.7895,-8.8945,3.5938,-10.8839,-12.2252,-16.4204,-19.8010,-12.4489,4.7852,-20.1889,-16.5958,-10.0793,-13.3973,-9.3561
3015.6250,11.0744,-6.5087,-6.7684,0.6679,18.2809,-0.1557,-7.0549,4.7642,-7.2365,-9.3750,-11.6599,-15.8326,-7.9054,6.2570,-15.8336,-15.4883,-7.1184,-9.0447,-4.8853
3019.5312,12.6378,-4.5063,-3.5472,4.1775,20.9912,0.4309,-2.8440,6.3812,-2.7362,-4.6217,-5.7930,-9.9698,-1.9448,7.8089,-8.8206,-12.0685,-3.0057,-3.6253,0.9786
