Time,Fp1,F3,C3,P3,O1,F7,T3,T5,Fz,Fp2,F4,C4,P4,O2,F8,T4,T6,Cz,Pz
0.0000,-3.3158,-6.2650,-6.0374,-2.5722,2.6289,-3.1001,-2.9818,-0.2232,-5.3530,-3.7004,-4.5342,-4.1842,-3.0698,1.2965,-4.1928,-4.4597,-2.0559,-5.3214,-4.0005
3.9062,-2.2280,-4.3268,-3.9130,-0.6683,2.7368,-1.4173,-2.7906,1.1148,-4.1512,-3.6543,-3.8563,-3.9368,-2.6589,0.9842,-4.6588,-4.6436,-1.9486,-3.5962,-3.2175
7.8125,-0.6614,-0.9420,-0.5190,1.7456,2.5430,0.7581,-2.2556,2.6012,-2.1282,-3.0159,-2.3853,-2.9831,-1.8362,0.5645,-4.3701,-3.5698,-1.5036,-0.8518,-1.9355
11.7188,1.0919,3.0012,3.0883,3.7543,1.7096,2.6006,-0.9637,3.5007,0.2399,-1.6159,-0.3374,-1.5028,-0.8328,-0.1350,-2.9790,-0.6995,-0.8789,2.1934,-0.5117
15.6250,2.5897,6.1347,5.5865,4.4516,0.0292,3.3443,1.1657,3.1872,2.2514,0.4013,1.7829,0.0418,-0.0022,-1.3614,-0.6297,3.6032,-0.4319,4.5512,0.5687
19.5312,3.4321,7.3540,6.1898,3.4698,-2.4115,2.7633,3.6449,1.5253,3.3638,2.5904,3.4487,1.2029,0.3934,-3.2856,2.0521,8.0174,-0.5169,5.4909,0.9710
23.4375,3.4678,6.4619,5.1319,1.2275,-5.2132,1.3416,5.5710,-1.0055,3.4921,4.3904,4.3892,1.8324,0.3404,-5.8385,4.2590,10.8486,-1.2412,4.9420,0.7098
27.3438,2.8926,4.2789,3.4611,-1.2858,-7.8229,-0.0010,6.1306,-3.5472,3.0174,5.3846,4.6890,2.1380,0.0628,-8.6462,5.4138,10.9544,-2.3474,3.5081,0.1263
31.2500,2.1695,2.1346,2.2824,-3.0666,-9.7823,-0.4606,5.1327,-5.3245,2.5045,5.4876,4.6483,2.4635,-0.1428,-11.1184,5.4335,8.4349,-3.3147,2.0868,-0.3385
35.1562,1.8022,1.0789,2.0082,-3.6358,-10.9077,0.1850,3.1823,-6.0420,2.3355,4.9508,4.5175,2.9712,-0.0949,-12.6564,4.6920,4.6173,-3.6297,1.3549,-0.4094
39.0625,2.0839,1.3321,2.1874,-3.2115,-11.2864,1.5012,1.3356,-5.9670,2.5184,4.1904,4.3166,3.4840,0.2056,-12.8735,3.7301,1.3121,-3.0601,1.4598,-0.0889
42.9688,2.9612,2.3184,2.0376,-2.4233,-11.1055,2.7514,0.4525,-5.6575,2.7937,3.5487,3.8758,3.6291,0.6652,-11.7208,2.9278,-0.1957,-1.7636,2.0939,0.4498
46.8750,4.0849,3.2094,1.2501,-1.7944,-10.4516,3.4225,0.6889,-5.5346,2.9324,3.1380,3.0604,3.1816,1.2467,-9.4728,2.3582,0.2224,-0.1746,2.8486,1.0834
50.7812,5.0146,3.5590,0.4008,-1.3740,-9.2486,3.5582,1.4846,-5.5964,2.9782,2.8551,1.9911,2.3360,2.0250,-6.6111,1.8943,1.6621,1.2389,3.5552,1.8693
54.6875,5.4525,3.5826,0.5916,-0.7748,-7.3974,3.6783,2.0399,-5.4629,3.2375,2.5410,1.0695,1.6699,3.0782,-3.6845,1.4459,2.9253,2.1850,4.3568,2.9653
58.5938,5.3808,3.9187,2.5554,0.4305,-5.0204,4.3598,1.9194,-4.7037,4.0240,2.1632,0.7631,1.7931,4.2957,-1.2033,1.1196,3.3288,2.6032,5.4825,4.3929
62.5000,5.0333,5.0949,5.9144,2.2713,-2.6114,5.7818,1.3334,-3.2075,5.3564,1.8826,1.2932,2.9206,5.2850,0.4282,1.1680,3.0390,2.5725,6.9319,5.8503
66.4062,4.7338,7.1047,9.2139,4.2369,-0.9288,7.5535,0.9062,-1.3277,6.8504,1.9488,2.4495,4.6796,5.5086,0.9706,1.7723,2.7629,2.1829,8.3426,6.7688
70.3125,4.6978,9.3871,10.7943,5.5509,-0.6409,8.9371,1.1342,0.2964,7.9006,2.4881,3.6769,6.3031,4.6127,0.4189,2.8381,3.1025,1.4905,9.1641,6.6267
74.2188,4.9080,11.1819,9.9194,5.6718,-1.9146,9.3113,1.9740,1.1188,8.0357,3.3371,4.3865,7.0871,2.7367,-0.9459,3.9805,4.0861,0.5844,9.0205,5.3318
78.1250,5.1277,11.9759,7.3499,4.6690,-4.2130,8.5668,2.8889,1.0141,7.2057,4.0564,4.2909,6.8032,0.5695,-2.5839,4.7306,5.2081,-0.3164,7.9958,3.3947
82.0312,5.0403,11.7332,4.9170,3.2126,-6.4666,7.1814,3.3125,0.3448,5.8157,4.1533,3.5504,5.7971,-0.9379,-3.8410,4.8269,5.8908,-0.8529,6.6314,1.7381
85.9375,4.4441,10.8014,4.3574,2.1894,-7.5602,5.9371,3.1559,-0.2570,4.4958,3.3967,2.6476,4.7285,-1.0573,-4.1830,4.3829,5.9611,-0.6612,5.6305,1.2269
89.8438,3.3989,9.6270,6.1956,2.2050,-6.8802,5.4620,2.9418,-0.2411,3.7688,2.0244,2.0866,4.1496,0.3222,-3.4164,3.8071,5.7552,0.4144,5.4681,2.1986
93.7500,2.2397,8.5137,9.4243,3.2898,-4.6141,5.8772,3.4392,0.5927,3.8161,0.6861,2.1091,4.2068,2.6361,-1.7786,3.5229,5.7843,2.1722,6.1519,4.2812
97.6562,1.4375,7.5650,12.1737,4.9642,-1.6348,6.7532,5.0627,2.0477,4.4516,0.1148,2.5887,4.6308,4.9539,0.1622,3.6770,6.2507,4.0869,7.2638,6.6041
101.5625,1.3618,6.7759,12.8897,6.5734,0.9595,7.3882,7.4918,3.6890,5.2702,0.6985,3.1344,4.9687,6.4604,1.7525,4.0319,6.8196,5.5304,8.2197,8.2611
105.4688,2.0703,6.1429,11.2383,7.6459,2.3793,7.2400,9.8072,5.0788,5.8542,2.2079,3.3191,4.8686,6.8173,2.5213,4.1126,6.8356,6.0608,8.5701,8.7447
109.3750,3.2492,5.6922,8.1963,8.0613,2.4529,6.2596,11.0565,5.9455,5.9347,3.8729,2.8984,4.2337,6.2155,2.3340,3.5133,5.8205,5.6108,8.1755,8.1169
113.2812,4.3605,5.4466,5.3707,7.9769,1.5619,4.9366,10.8462,6.2223,5.4701,4.7937,1.9228,3.1999,5.1369,1.3708,2.1689,3.8663,4.4731,7.2076,6.8648
117.1875,4.9318,5.4082,4.0656,7.6253,0.2882,4.0254,9.5432,5.9821,4.6514,4.4689,0.7172,2.0149,4.0204,-0.0310,0.4309,1.6232,3.1052,6.0258,5.5798
121.0938,4.8256,5.5968,4.6823,7.1509,-0.9714,4.1021,7.9681,5.3496,3.8456,3.1230,-0.2483,0.9304,3.0499,-1.5578,-1.0893,-0.1058,1.8799,5.0216,4.6653
125.0000,4.3178,6.0876,6.7150,6.5767,-2.1701,5.2026,6.8316,4.4513,3.4683,1.6200,-0.5429,0.1527,2.1677,-3.0147,-1.8096,-0.8645,0.9304,4.4827,4.2179
128.9062,3.9226,6.9595,9.1793,5.8808,-3.4624,6.7576,6.3307,3.4181,3.7977,0.9912,0.0402,-0.1787,1.2488,-4.2926,-1.4417,-0.7827,0.1646,4.4995,4.0911
132.8125,4.0571,8.1473,11.1073,5.0912,-4.8722,7.8825,6.1700,2.4114,4.7985,1.8387,1.3710,-0.0268,0.2868,-5.2573,-0.1048,-0.4135,-0.5846,4.9265,4.0557
136.7188,4.7591,9.3149,11.8436,4.3258,-6.0369,7.8691,5.9363,1.6341,6.0696,3.9685,3.0008,0.5012,-0.5374,-5.6624,1.7416,-0.3186,-1.3809,5.4284,3.9529
140.6250,5.6452,9.9115,11.1304,3.7689,-6.2445,6.5969,5.4913,1.3064,6.9979,6.4703,4.3361,1.1678,-0.9285,-5.1756,3.4914,-0.7082,-2.0891,5.6324,3.7791
144.5312,6.1486,9.4598,9.1196,3.6168,-4.7839,4.6117,5.0686,1.6056,7.0773,8.2022,4.9106,1.7166,-0.6228,-3.5301,4.6187,-1.3562,-2.4156,5.3410,3.6950
148.4375,5.8867,7.9248,6.4001,4.0284,-1.4136,2.8166,5.0140,2.5925,6.2212,8.3974,4.6263,2.0374,0.4843,-0.7266,4.8544,-1.7887,-2.0528,4.6955,3.9704
152.3438,4.9161,5.8918,3.9602,5.0830,3.3543,1.9595,5.4084,4.1530,4.8615,7.0459,3.8242,2.2722,2.2898,2.8425,4.2676,-1.5578,-0.8433,4.1653,4.8770
156.2500,3.7039,4.3617,2.9377,6.7386,8.3602,2.2396,5.9076,5.9919,3.7424,4.8534,3.1280,2.7596,4.5145,6.4486,3.2341,-0.4119,1.1225,4.3278,6.5538
160.1562,2.8355,4.2254,4.1361,8.7975,12.2755,3.2736,5.9591,7.7029,3.5155,2.8327,3.1346,3.8283,6.7864,9.2727,2.3065,1.6863,3.5239,5.5465,8.8920
164.0625,2.6576,5.7300,7.5197,10.9150,14.1975,4.4236,5.2544,8.9092,4.3862,1.7891,4.1226,5.5685,8.7453,10.7369,2.0163,4.6054,5.9254,7.7389,11.5071
167.9688,3.0957,8.2907,12.0310,12.6763,14.0279,5.2399,4.0728,9.4174,6.0351,1.9887,5.9385,7.7407,10.1402,10.7494,2.6699,8.0448,7.9288,10.3887,13.8409
171.8750,3.7568,10.7950,15.9456,13.7235,12.4186,5.7014,3.2247,9.3012,7.8526,3.1534,8.1062,9.8869,10.8904,9.7139,4.2106,11.4883,9.2854,12.7947,15.3641
175.7812,4.2272,12.2155,17.6554,13.8652,10.3261,6.0961,3.5793,8.8441,9.3082,4.7176,10.0670,11.5584,11.0778,8.2784,6.2150,14.2225,9.9210,14.3936,15.7786
179.6875,4.3456,12.1422,16.4628,13.0993,8.4433,6.6601,5.4562,8.3496,10.1951,6.1457,11.3924,12.4941,10.8575,6.9474,8.0372,15.5198,9.8751,14.9445,15.1000
183.5938,4.2610,10.9061,12.9195,11.5370,6.8425,7.2795,8.2785,7.9183,10.5942,7.1219,11.8627,12.6304,10.3209,5.7796,9.0534,14.9523,9.2091,14.4800,13.5694
187.5000,4.2535,9.2523,8.4986,9.2934,5.0242,7.5077,10.7397,7.3387,10.6258,7.5514,11.4180,11.9726,9.3925,4.3593,8.9024,12.6504,7.9475,13.1051,11.4525
191.4062,4.4677,7.8198,4.7904,6.4393,2.3164,6.9002,11.4281,6.1865,10.2143,7.4461,10.0807,10.4701,7.8400,2.0777,7.6146,9.3000,6.0939,10.8403,8.8691
195.3125,4.7663,6.7884,2.6979,3.0636,-1.6293,5.4054,9.5758,4.1033,9.0779,6.8270,7.9403,8.0334,5.4197,-1.4310,5.5748,5.8274,3.7039,7.6538,5.7758
199.2188,4.8153,5.9021,2.0887,-0.6032,-6.5401,3.4929,5.5210,1.0945,6.9701,5.7190,5.2092,4.6984,2.0876,-5.9588,3.3415,2.9429,0.9536,3.6634,2.1227
203.1250,4.3376,4.7985,2.0700,-4.1165,-11.5752,1.8935,0.6226,-2.3492,3.9955,4.2231,2.2720,0.8030,-1.8540,-10.7091,1.4184,0.8343,-1.8575,-0.6696,-1.9239
207.0312,3.3524,3.3758,1.6739,-6.8904,-15.6732,1.1276,-3.3425,-5.4098,0.7486,2.5789,-0.3601,-2.9970,-5.7778,-14.6203,0.0855,-0.7925,-4.3874,-4.5481,-5.8585
210.9375,2.2303,1.9338,0.5147,-8.4062,-17.9849,1.1778,-5.0032,-7.3119,-1.8632,1.1447,-2.2032,-5.9334,-8.9332,-16.8454,-0.6408,-2.3653,-6.3705,-7.1039,-8.9280
214.8438,1.5231,1.0095,-0.9768,-8.4448,-18.1712,1.5572,-4.0313,-7.6969,-3.0309,0.2859,-2.9848,-7.4502,-10.7281,-17.1097,-0.9234,-4.0494,-7.6985,-7.7844,-10.4209
218.7500,1.6743,1.0409,-1.8645,-7.1974,-16.4568,1.7253,-1.2761,-6.7835,-2.4479,0.2342,-2.7417,-7.4445,-10.9459,-15.7532,-0.9589,-5.5845,-8.4120,-6.6258,-10.0104
222.6562,2.7837,2.0839,-1.3566,-5.1825,-13.4731,1.5274,1.6760,-5.2204,-0.4650,0.9938,-1.7678,-6.2734,-9.7942,-13.4670,-0.8557,-6.4581,-8.6167,-4.2398,-7.9576
226.5625,4.5519,3.7495,0.6109,-3.0160,-10.0060,1.3105,3.3076,-3.7252,2.0890,2.3446,-0.4510,-4.5342,-7.7810,-10.9168,-0.5919,-6.2698,-8.3936,-1.5203,-5.0499
230.4688,6.4169,5.3817,3.2303,-1.1679,-6.7650,1.6185,2.9430,-2.7235,4.3054,3.9290,0.8974,-2.7684,-5.5001,-8.4950,-0.0602,-5.0110,-7.7739,0.7579,-2.2818
234.3750,7.7961,6.3690,5.2344,0.1684,-4.2291,2.7040,1.0931,-2.1903,5.5906,5.3748,2.1256,-1.2683,-3.4343,-6.3193,0.8363,-3.0716,-6.7950,2.2296,-0.4247
238.2812,8.3143,6.4343,5.6532,1.0539,-2.5784,4.2480,-0.8239,-1.7595,5.8635,6.4023,3.2129,-0.0675,-1.8472,-4.4099,2.0884,-0.9966,-5.5790,2.9924,0.3046
242.1875,7.9301,5.7752,4.4671,1.6788,-1.7025,5.5271,-1.2601,-1.0083,5.4937,6.8819,4.1832,0.9374,-0.7711,-2.8571,3.5306,0.8004,-4.3513,3.4391,0.3047
246.0938,6.9285,4.9896,2.7290,2.2285,-1.2841,5.9205,0.5831,0.2666,5.0518,6.8354,5.0296,1.8522,-0.0653,-1.8250,4.8562,2.1616,-3.3559,3.9967,0.3358
250.0000,5.7980,4.8006,2.0115,2.8015,-0.9505,5.3751,4.2488,1.9293,5.0134,6.3928,5.6903,2.7228,0.4909,-1.3948,5.6991,3.0988,-2.7105,4.9047,1.0701
253.9062,5.0337,5.6810,3.4513,3.3922,-0.4502,4.4652,8.1832,3.5810,5.5477,5.7265,6.0665,3.5434,1.0934,-1.3992,5.7602,3.6273,-2.3040,6.1160,2.6762
257.8125,4.9332,7.5513,6.9577,3.9105,0.2224,3.9831,10.4963,4.7578,6.4636,4.9877,6.0583,4.2776,1.8229,-1.4245,4.9401,3.7021,-1.8284,7.3303,4.6718
261.7188,5.4640,9.7311,11.1158,4.2192,0.8239,4.3520,9.9282,5.1308,7.3188,4.2726,5.6072,4.8562,2.6009,-1.0309,3.4242,3.3176,-0.9500,8.1306,6.1492
265.6250,6.2677,11.2296,13.9198,4.1866,0.9955,5.2968,6.5064,4.6179,7.6404,3.6275,4.7452,5.1689,3.2226,-0.0612,1.6642,2.6587,0.4742,8.1729,6.2728
269.5312,6.8217,11.2647,13.9391,3.7498,0.4613,6.0205,1.5489,3.3831,7.1617,3.0779,3.6382,5.0966,3.4634,1.1844,0.2369,2.1167,2.2706,7.3597,4.7770
273.4375,6.6926,9.7287,11.1890,2.9638,-0.8223,5.7652,-2.9700,1.7510,5.9626,2.6513,2.5826,4.5927,3.2036,2.0591,-0.3846,2.0856,3.9984,5.9171,2.1645
277.3438,5.7561,7.2952,7.1188,1.9926,-2.6543,4.3560,-5.3414,0.0854,4.4357,2.3644,1.9119,3.7562,2.4944,1.9254,-0.0488,2.6572,5.1525,4.3137,-0.5367
281.2500,4.2592,5.0541,3.6780,1.0219,-4.7103,2.3389,-4.8550,-1.3298,3.0798,2.1838,1.8242,2.8196,1.5160,0.5384,0.9847,3.4631,5.3998,3.0335,-2.3410
285.1562,2.6833,3.8634,2.0524,0.1357,-6.7088,0.6239,-2.0127,-2.3735,2.2284,1.9993,2.2220,2.0261,0.4521,-1.7911,2.1512,3.8417,4.7165,2.3110,-2.8632
289.0625,1.4834,3.8293,1.9209,-0.7533,-8.5082,-0.1088,1.8085,-3.1083,1.8729,1.6562,2.6933,1.4720,-0.6239,-4.3589,2.8511,3.2739,3.3581,1.9942,-2.5221
292.9688,0.8565,4.2699,1.7681,-1.8417,-10.0803,0.1780,5.0110,-3.7213,1.7015,1.0539,2.7024,1.0378,-1.7611,-6.4474,2.7486,1.7994,1.7009,1.6483,-2.2464
296.8750,0.6728,4.2131,0.0718,-3.2505,-11.3981,0.9161,6.4197,-4.3960,1.3412,0.2550,1.9196,0.4833,-3.0194,-7.6769,1.9386,0.0989,0.0614,0.8650,-2.8540
300.7812,0.6023,3.1050,-3.4398,-4.8300,-12.3350,1.3712,5.6679,-5.1691,0.6522,-0.4792,0.4934,-0.3449,-4.3184,-8.1135,0.8833,-0.8692,-1.4018,-0.4072,-4.4880
304.6875,0.3490,1.2438,-7.3595,-6.1062,-12.6618,1.1643,3.2479,-5.8526,-0.1218,-0.7824,-0.9351,-1.3421,-5.3708,-8.0962,0.1585,-0.4663,-2.6680,-1.7414,-6.4685
308.5938,-0.1515,-0.3685,-9.3552,-6.4500,-12.1505,0.5249,0.2785,-6.0825,-0.4622,-0.3752,-1.5321,-2.1513,-5.7773,-7.9337,0.1562,1.1940,-3.7584,-2.4259,-7.6559
312.5000,-0.6817,-0.6619,-7.6487,-5.4032,-10.7168,0.1273,-1.9049,-5.4921,0.1171,0.7529,-0.7320,-2.3592,-5.2429,-7.6923,0.9161,3.2882,-4.6416,-1.8755,-7.1040
316.4062,-0.8573,0.8110,-2.2414,-2.9724,-8.5084,0.6376,-2.2290,-3.9269,1.7540,2.2927,1.4185,-1.7520,-3.7753,-7.2111,2.1701,4.7959,-5.2053,-0.0022,-4.6012
320.3125,-0.3343,3.5960,4.9471,0.2976,-5.8825,2.2696,-0.3075,-1.5822,4.1166,3.7428,4.2555,-0.4488,-1.7255,-6.3050,3.5462,5.1463,-5.3030,2.6945,-0.7858
324.2188,0.9980,6.6322,11.1397,3.5408,-3.2872,4.6107,3.3421,1.0277,6.5493,4.6499,6.8444,1.1810,0.3708,-4.9826,4.7849,4.5633,-4.8374,5.3799,3.2066
328.1250,2.9208,8.8821,14.2720,5.9600,-1.1139,6.8009,7.4252,3.2664,8.3881,4.8221,8.4634,2.7506,2.0558,-3.5110,5.8327,3.8766,-3.8249,7.3151,6.3177
332.0312,4.9225,9.8485,14.0561,7.1702,0.4068,7.9446,10.3728,4.6428,9.2501,4.3938,8.9297,4.0632,3.1551,-2.2788,6.7755,3.9328,-2.4045,8.1946,8.0177
335.9375,6.3572,9.6571,11.8880,7.3006,1.2298,7.5357,11.0474,5.0111,9.1408,3.7171,8.5859,5.1470,3.8005,-1.5626,7.6892,5.0154,-0.7876,8.1984,8.4035
339.8438,6.6807,8.7368,9.7365,6.8187,1.4514,5.6950,9.3191,4.6003,8.3557,3.1614,7.9948,6.1090,4.2751,-1.3650,8.5320,6.6673,0.8223,7.7653,7.9598
343.7500,5.6896,7.4178,8.8139,6.2051,1.2336,3.1237,6.1711,3.8683,7.2771,2.9440,7.5665,6.9410,4.7952,-1.4320,9.1507,8.0246,2.2997,7.2733,7.1937
347.6562,3.6647,5.7806,8.9171,5.6877,0.7381,0.8035,3.2145,3.2646,6.2055,3.0726,7.3597,7.4445,5.3752,-1.4289,9.3829,8.4146,3.6239,6.8440,6.3813
351.5625,1.3256,3.8341,8.8174,5.1877,0.0962,-0.4290,1.8288,3.0289,5.2999,3.3965,7.1514,7.3428,5.8521,-1.1395,9.1639,7.8001,4.8542,6.3685,5.5431
355.4688,-0.4313,1.8008,7.3433,4.4809,-0.5820,-0.2535,2.3999,3.1182,4.6076,3.7030,6.6820,6.5021,6.0319,-0.5540,8.5627,6.7757,6.0677,5.6855,4.5936
359.3750,-0.9285,0.1953,4.3609,3.4445,-1.1775,0.9853,4.1055,3.2805,4.1167,3.7976,5.8829,5.0974,5.8492,0.1988,7.7366,6.1411,7.2954,4.7544,3.5202
363.2812,-0.0492,-0.4292,0.9784,2.2157,-1.5419,2.4342,5.4010,3.2130,3.7822,3.5523,4.9422,3.5988,5.4346,1.0034,6.8593,6.3624,8.4903,3.7022,2.4658
367.1875,1.6734,0.1084,-1.1358,1.1573,-1.5173,3.1395,4.9377,2.7158,3.5346,2.9420,4.1936,2.5778,5.0592,1.8639,6.0840,7.2913,9.5422,2.7434,1.6840
371.0938,3.3050,1.3925,-0.8332,0.6557,-1.0019,2.5151,2.3770,1.7687,3.3034,2.0785,3.9302,2.4491,4.9996,2.8806,5.5500,8.3136,10.3267,2.0604,1.4209
375.0000,3.9952,2.5956,1.7544,0.8807,-0.0332,0.6332,-1.3792,0.5170,3.0668,1.2185,4.2671,3.2916,5.4055,4.1170,5.3896,8.7989,10.7555,1.7385,1.8031
378.9062,3.4372,2.9837,5.2478,1.6614,1.1747,-1.8202,-4.6724,-0.8018,2.8933,0.7012,5.1106,4.8274,6.2318,5.4660,5.6888,8.5331,10.7990,1.7784,2.7816
382.8125,2.0396,2.3961,7.7961,2.5628,2.2863,-3.8973,-5.9925,-1.9409,2.9245,0.8113,6.2169,6.5460,7.2575,6.6266,6.4075,7.8503,10.4742,2.1427,4.1461
386.7188,0.6995,1.3536,8.1004,3.1278,2.9878,-4.8476,-4.7724,-2.7012,3.2901,1.6248,7.2820,7.8962,8.1708,7.2243,7.3285,7.3998,9.8186,2.7817,5.5955
390.6250,0.3021,0.7139,6.0872,3.1489,3.1421,-4.4269,-1.6343,-2.9601,4.0061,2.9399,8.0265,8.4717,8.6853,7.0056,8.1068,7.7204,8.8781,3.6295,6.8421
394.5312,1.2311,1.1153,2.8885,2.8058,2.8494,-2.9072,2.0064,-2.6854,4.9353,4.3565,8.2666,8.1388,8.6455,5.9761,8.4257,8.8973,7.7160,4.6026,7.7163
398.4375,3.1671,2.5940,0.2006,2.5762,2.3554,-0.8279,4.7093,-1.9462,5.8525,5.4727,7.9728,7.0811,8.0852,4.3920,8.1715,10.4937,6.4260,5.6333,8.2279
402.3438,5.2719,4.6174,-0.5783,2.9581,1.8567,1.3195,5.6975,-0.9102,6.5762,6.0791,7.2955,5.7420,7.2111,2.6092,7.5045,11.7711,5.1189,6.7184,8.5457
406.2500,6.6391,6.4734,1.0268,4.1605,1.3395,3.2761,5.1225,0.1933,7.0751,6.2265,6.5269,4.6658,6.3109,0.8922,6.7612,12.0490,3.8756,7.9329,8.8927
410.1562,6.7509,7.7183,4.4610,5.9518,0.5863,4.9934,3.8357,1.1536,7.4720,6.1317,5.9908,4.2806,5.6239,-0.6924,6.2429,11.0130,2.6962,9.3673,9.4114
414.0625,5.7050,8.3797,8.5280,7.7713,-0.6273,6.4815,2.8679,1.8734,7.9419,6.0035,5.9022,4.7153,5.2384,-2.2334,6.0341,8.8387,1.4946,11.0189,10.0790
417.9688,4.1190,8.8137,12.0095,9.0435,-2.2756,7.6718,2.9244,2.4226,8.5793,5.9233,6.2716,5.7525,5.0743,-3.8233,5.9776,6.1045,0.1678,12.7149,10.7286
421.8750,2.7962,9.3643,14.1720,9.5008,-3.9683,8.3919,4.1215,2.9978,9.3233,5.8597,6.9097,6.9527,4.9607,-5.4146,5.8193,3.5559,-1.2909,14.1398,11.1546
425.7812,2.3320,10.0800,14.9275,9.2993,-5.1070,8.4427,6.0195,3.7834,9.9802,5.7725,7.5219,7.8816,4.7536,-6.7912,5.4064,1.8189,-2.7116,14.9607,11.2190
429.6875,2.8439,10.6620,14.6291,8.8464,-5.2520,7.6942,7.8556,4.7835,10.3073,5.6874,7.8247,8.2963,4.4115,-7.6814,4.7812,1.1669,-3.7758,14.9677,10.8754
433.5938,3.9275,10.6369,13.6876,8.4549,-4.4649,6.1347,8.8399,5.7299,10.0895,5.6493,7.6124,8.1735,3.9778,-7.9357,4.0968,1.4278,-4.1620,14.1287,10.1017
437.5000,4.8410,9.6118,12.2733,8.0699,-3.3697,3.8730,8.4107,6.1509,9.1721,5.5839,6.7574,7.5798,3.4896,-7.6412,3.4243,2.0748,-3.7306,12.5298,8.8204
441.4062,4.8372,7.4614,10.2834,7.2789,-2.8400,1.1363,6.4060,5.5942,7.4697,5.2090,5.1900,6.5089,2.8981,-7.0837,2.6170,2.4735,-2.6300,10.2684,6.9079
445.3125,3.5085,4.3812,7.5628,5.6216,-3.4716,-1.7172,3.1352,3.8965,4.9972,4.1214,2.9191,4.8410,2.0788,-6.5707,1.3639,2.1816,-1.2391,7.4057,4.3225
449.2188,0.9997,0.8266,4.1924,2.9945,-5.1653,-4.2136,-0.6718,1.3416,1.9347,2.0583,0.1015,2.4792,0.9439,-6.2232,-0.5790,1.1511,0.0300,4.0328,1.2672
453.1250,-2.0179,-2.6111,0.6191,-0.1395,-7.1012,-5.8684,-4.0546,-1.4006,-1.3255,-0.8349,-2.9034,-0.4350,-0.4222,-5.8770,-3.1321,-0.2753,0.9525,0.3936,-1.7558
457.0312,-4.6233,-5.3608,-2.4785,-2.9104,-8.1498,-6.3836,-6.1283,-3.5457,-4.2287,-3.9458,-5.5782,-3.4175,-1.7153,-5.1651,-5.8062,-1.5717,1.5907,-3.0578,-4.0890
460.9375,-6.0634,-7.0375,-4.4983,-4.4888,-7.4906,-5.8362,-6.4128,-4.5406,-6.2338,-6.4420,-7.4174,-5.7745,-2.5166,-3.7473,-7.8738,-2.3143,2.2076,-5.7577,-5.2071
464.8438,-6.1060,-7.5674,-5.1826,-4.5401,-5.0802,-4.7043,-5.0420,-4.3030,-7.0436,-7.7037,-8.1465,-6.9269,-2.5086,-1.5560,-8.7181,-2.3756,3.0465,-7.2597,-4.9770
468.7500,-5.1374,-7.1959,-4.6687,-3.3904,-1.7047,-3.6525,-2.7337,-3.2335,-6.7512,-7.6636,-7.8522,-6.7219,-1.6735,1.0826,-8.1516,-1.9220,4.1179,-7.4516,-3.7178
472.6562,-3.9297,-6.3315,-3.3170,-1.8056,1.3933,-3.1559,-0.4979,-2.0090,-5.7878,-6.8161,-6.9271,-5.5167,-0.3470,3.5234,-6.5116,-1.2499,5.1323,-6.6096,-2.0200
476.5625,-3.1924,-5.2806,-1.4807,-0.5482,3.0818,-3.1853,0.8018,-1.2807,-4.6791,-5.8677,-5.8473,-3.9654,0.9171,5.0355,-4.4774,-0.5992,5.6219,-5.2474,-0.4470
480.4688,-3.1524,-4.0329,0.5940,-0.0121,2.7905,-3.1718,0.8319,-1.4348,-3.7498,-5.2563,-4.9193,-2.6498,1.5978,5.0778,-2.7203,-0.0748,5.1788,-3.8534,0.6843
484.3750,-3.4058,-2.2666,2.6832,-0.1559,0.6419,-2.3075,-0.0741,-2.5125,-2.9618,-4.8651,-4.1535,-1.8000,1.4336,3.4865,-1.5886,0.2963,3.6709,-2.6856,1.3225
488.2812,-3.1300,0.3845,4.4467,-0.7203,-2.7333,-0.0213,-1.1010,-4.2809,-1.9916,-4.1299,-3.3355,-1.2777,0.5070,0.5044,-0.9974,0.4686,1.3196,-1.7405,1.5378
492.1875,-1.5436,3.9529,5.4350,-1.5108,-6.5337,3.6511,-1.3718,-6.3695,-0.4921,-2.4717,-2.2264,-0.8024,-0.8397,-3.3369,-0.5586,0.3618,-1.3938,-0.8806,1.3728
496.0938,1.6367,7.9165,5.3237,-2.5023,-10.0804,8.0215,-0.3893,-8.3855,1.6360,0.2412,-0.7472,-0.2232,-2.1879,-7.4073,0.1448,-0.0399,-3.9282,0.0023,0.8257
500.0000,5.9839,11.3318,4.2365,-3.6963,-12.9554,12.0451,1.7279,-9.9679,4.1446,3.5144,0.9756,0.3719,-3.2142,-11.1522,1.3059,-0.5652,-5.8821,0.9169,-0.0284
503.9062,10.4915,13.2933,2.8818,-4.8788,-14.9893,14.7718,4.3348,-10.8046,6.5689,6.4530,2.7133,0.7785,-3.7699,-14.1885,2.7966,-0.8492,-7.0972,1.8304,-0.9104
507.8125,13.9662,13.4495,2.3105,-5.5268,-16.1718,15.7077,6.6183,-10.6566,8.4906,8.2405,4.2897,0.9113,-3.8543,-16.3117,4.2610,-0.5029,-7.6340,2.7748,-1.3565
511.7188,15.4904,12.2371,3.3647,-5.0022,-16.5621,14.9268,8.0199,-9.4055,9.7503,8.5627,5.6667,0.9466,-3.5302,-17.4405,5.3309,0.6348,-7.6489,3.8850,-0.9247
515.6250,14.7554,10.6543,6.1398,-2.9442,-16.2346,12.9427,8.4823,-7.1070,10.4708,7.7210,6.9050,1.2475,-2.8469,-17.5472,5.8330,2.3514,-7.2449,5.3102,0.5296
519.5312,12.1491,9.6872,9.8226,0.4038,-15.2624,10.4601,8.3829,-4.0097,10.8876,6.3933,8.0439,2.1171,-1.8156,-16.6182,5.8683,4.1532,-6.3790,7.0531,2.7009
523.4375,8.5878,9.7339,13.0448,4.1788,-13.7275,8.1323,8.2045,-0.5182,11.1178,5.2228,9.0012,3.5629,-0.4417,-14.6621,5.7189,5.5551,-4.8775,8.8557,4.9228
527.3438,5.1682,10.3785,14.5565,7.2449,-11.7378,6.3851,8.1562,2.8898,11.0339,4.4988,9.5676,5.2445,1.2138,-11.7538,5.6356,6.3615,-2.5627,10.2354,6.4623
531.2500,2.7657,10.6542,13.8198,8.7176,-9.4305,5.3141,7.9934,5.7631,10.3375,4.0984,9.5016,6.6440,2.9909,-8.0775,5.6405,6.7258,0.5706,10.6759,6.8486
535.1562,1.7237,9.6327,11.1901,8.3681,-6.9379,4.6623,7.1672,7.7672,8.7891,3.6771,8.6609,7.3395,4.6418,-3.9261,5.4757,6.9390,4.2279,9.8794,6.0623
539.0625,1.7615,6.9896,7.6384,6.6946,-4.3175,3.9163,5.2231,8.7504,6.4456,2.9459,7.0956,7.2057,5.9105,0.3578,4.7564,7.1147,7.8312,7.9506,4.5126
542.9688,2.1551,3.2273,4.2498,4.6499,-1.4928,2.5427,2.2040,8.7790,3.7481,1.8584,5.0613,6.4296,6.6490,4.4731,3.2525,7.0357,10.7006,5.4132,2.8576
546.8750,2.1280,-0.5516,1.8203,3.1988,1.7222,0.3024,-1.2085,8.1217,1.3880,0.6162,2.9552,5.3661,6.9058,8.2237,1.1251,6.3137,12.3267,3.0471,1.7768
550.7812,1.2698,-3.1694,0.7231,2.9340,5.4732,-2.5159,-3.9297,7.1673,0.0101,-0.4655,1.2061,4.3517,6.9206,11.5047,-1.0512,4.7671,12.5904,1.6085,1.7782
554.6875,-0.2385,-3.9030,0.9869,3.9061,9.6414,-5.1197,-4.9712,6.2801,-0.0868,-1.1220,0.1543,3.5922,7.0014,14.2134,-2.5317,2.7332,11.7991,1.5459,3.0599
558.5938,-1.7286,-2.7489,2.4060,5.6878,13.6880,-6.5443,-3.9301,5.6505,0.9148,-1.2327,-0.0444,3.1659,7.3422,16.1517,-2.7848,1.0445,10.5124,2.8294,5.4327
562.5000,-2.4264,-0.3227,4.5770,7.6033,16.7259,-6.1486,-1.1939,5.2209,2.4680,-0.8104,0.5468,3.0976,7.8958,17.0136,-1.7807,0.6338,9.2565,4.9781,8.3356
566.4062,-1.8875,2.5163,6.9122,9.0159,17.8570,-3.9861,2.2445,4.7504,3.9787,0.0768,1.7019,3.4324,8.4048,16.5061,0.0078,2.0000,8.3034,7.2940,10.9972
570.3125,-0.2191,5.0981,8.7677,9.5777,16.6305,-0.8095,5.2497,3.9952,5.1547,1.3828,3.1724,4.2621,8.5980,14.5510,1.9104,4.8882,7.6372,9.2148,12.7383
574.2188,2.0413,7.2109,9.7228,9.3589,13.3473,2.3207,7.0285,2.8984,6.1863,3.1070,4.8475,5.6986,8.4302,11.4336,3.4792,8.3993,7.1036,10.6087,13.3009
578.1250,4.2921,9.0836,9.8635,8.7946,8.9834,4.5962,7.3974,1.6581,7.6306,5.2476,6.8281,7.8082,8.1833,7.7629,4.7447,11.4604,6.6024,11.8317,13.0029
582.0312,6.2150,11.1174,9.8224,8.4419,4.7197,5.8453,6.7375,0.6102,10.0377,7.7115,9.3310,10.5216,8.3097,4.2186,6.1274,13.3468,6.1620,13.4690,12.5702
585.9375,7.8606,13.5272,10.4427,8.6392,1.3350,6.5072,5.7143,-0.0032,13.5095,10.2359,12.4403,13.5390,9.0762,1.2079,8.0520,13.9341,5.8335,15.8713,12.6817
589.8438,9.4242,16.1049,12.2064,9.2450,-1.1682,7.2283,4.9377,-0.2181,17.4484,12.3796,15.8404,16.2813,10.2348,-1.3498,10.5188,13.5582,5.5013,18.7554,13.4796
593.7500,10.8988,18.2413,14.7891,9.6362,-3.4549,8.3539,4.7226,-0.3412,20.6744,13.6167,18.7266,17.9550,10.9816,-3.9433,12.9263,12.6353,4.7952,21.1500,14.3682
597.6562,11.8879,19.2017,17.0761,9.0180,-6.3225,9.6447,5.0236,-0.7354,21.8921,13.5118,20.0149,17.7784,10.3058,-7.1054,14.2824,11.3329,3.2338,21.7880,14.2801
601.5625,11.7510,18.4962,17.6934,6.9001,-10.0786,10.3919,5.5224,-1.5418,20.2875,11.9046,18.8022,15.3169,7.5775,-10.9660,13.6944,9.5162,0.5549,19.7694,12.2874
605.4688,10.0084,16.1306,15.7542,3.4557,-14.2354,9.8427,5.7993,-2.5402,15.9459,9.0047,14.8514,10.7761,3.0248,-15.0035,10.8515,6.9728,-2.9756,15.1147,8.1991
609.3750,6.7309,12.5957,11.3647,-0.4819,-17.7157,7.6663,5.5154,-3.2652,9.8619,5.3364,8.8259,5.0622,-2.2205,-18.1732,6.2235,3.7205,-6.5139,8.8602,2.7666
613.2812,2.6382,8.6206,5.5838,-3.8118,-19.4302,4.1886,4.5491,-3.3119,3.5353,1.5473,2.1113,-0.4878,-6.5878,-19.3605,0.8785,0.1616,-8.9411,2.6101,-2.6351
617.1875,-1.1866,4.8577,-0.1066,-5.7202,-18.8465,0.2805,3.0484,-2.6175,-1.6352,-1.8186,-3.7094,-4.6135,-8.7998,-17.9068,-3.9604,-3.0325,-9.3819,-2.2055,-6.6554
621.0938,-3.7988,1.6952,-4.4671,-6.0496,-16.1945,-3.0110,1.3773,-1.5131,-4.8470,-4.4608,-7.4640,-6.6235,-8.4538,-13.9073,-7.3686,-5.2310,-7.6465,-4.9272,-8.5495
625.0000,-4.8109,-0.7151,-6.9063,-5.2560,-12.2162,-4.8830,-0.0293,-0.4950,-6.0496,-6.3094,-8.7774,-6.6040,-6.1180,-8.1302,-8.9729,-6.1513,-4.3333,-5.7833,-8.3696
628.9062,-4.4874,-2.2969,-7.4650,-4.0065,-7.6784,-5.0495,-0.8436,0.1268,-5.7374,-7.3928,-8.0623,-5.2309,-2.9152,-1.6415,-8.9299,-5.9770,-0.5289,-5.5050,-6.7196
632.8125,-3.4940,-2.9251,-6.5179,-2.7123,-3.0062,-3.7756,-0.9675,0.4488,-4.5548,-7.7004,-6.1675,-3.3173,0.1229,4.6127,-7.7106,-5.2238,2.7145,-4.7405,-4.3034
636.7188,-2.4830,-2.4593,-4.4815,-1.3242,1.7255,-1.6972,-0.5355,0.8949,-2.9567,-7.1495,-3.9113,-1.3853,2.5217,10.0255,-5.8382,-4.4325,4.8188,-3.6715,-1.5906
640.6250,-1.7697,-0.9042,-1.7192,0.4849,6.4859,0.4729,0.2008,1.8828,-1.0930,-5.6795,-1.7555,0.4814,4.3975,14.2795,-3.7022,-3.8578,5.8070,-2.0581,1.2237
644.5312,-1.2571,1.4625,1.3870,2.9141,10.9454,2.2320,1.0278,3.4683,1.0815,-3.3915,0.2465,2.4540,6.1078,17.1546,-1.4976,-3.3200,6.0896,0.3830,4.0296
648.4375,-0.5947,4.1425,4.3783,5.7297,14.3918,3.4613,1.8650,5.2257,3.6002,-0.6082,2.2687,4.6236,7.8180,18.4032,0.7279,-2.3050,6.0937,3.5870,6.6091
652.3438,0.5686,6.6523,6.8118,8.2991,16.0024,4.4203,2.7446,6.4605,6.3378,2.2147,4.4605,6.7888,9.3022,17.8176,2.9729,-0.2771,5.9838,7.0407,8.6258
656.2500,2.3884,8.7793,8.4568,9.9434,15.2998,5.5593,3.7074,6.6201,9.0053,4.6841,6.7889,8.5267,10.0999,15.4368,5.1853,2.9408,5.6312,10.0371,9.7998
660.1562,4.7573,10.6502,9.4137,10.3511,12.4764,7.2230,4.7059,5.6313,11.2603,6.6418,9.0430,9.4866,9.8786,11.7029,7.2196,6.9262,4.8078,12.0795,10.1081
664.0625,7.3504,12.5331,10.0103,9.7518,8.3590,9.3894,5.5923,3.9402,12.8452,8.1927,10.9566,9.6698,8.7155,7.3979,8.8754,10.7155,3.4393,13.1313,9.8230
667.9688,9.7279,14.5036,10.5179,8.7343,4.0207,11.5913,6.1963,2.2395,13.6704,9.5654,12.3437,9.4681,7.0909,3.3442,10.0027,13.1880,1.7387,13.5374,9.3415
671.8750,11.4558,16.2343,10.9061,7.8497,0.2821,13.0934,6.4286,1.0714,13.8148,10.8996,13.1613,9.4134,5.6072,0.0359,10.6086,13.6097,0.1401,13.6960,8.9249
675.7812,12.2277,17.0964,10.8500,7.2875,-2.5935,13.2543,6.3295,0.5695,13.4669,12.1050,13.4767,9.8072,4.6459,-2.5615,10.8823,12.0458,-0.9103,13.7393,8.5462
679.6875,11.9690,16.5358,10.0140,6.8430,-4.8448,11.8849,6.0345,0.4891,12.8428,12.8817,13.3840,10.4938,4.2030,-4.8940,11.0881,9.3823,-1.1674,13.4562,7.9578
683.5938,10.8791,14.4713,8.4023,6.1692,-6.8661,9.3929,5.6909,0.4726,12.1058,12.8836,12.9296,10.9435,3.9958,-7.4403,11.3682,6.8972,-0.6832,12.4992,6.9257
687.5000,9.3622,11.4221,6.4880,5.1058,-8.8164,6.6102,5.3846,0.3422,11.3050,11.9081,12.0877,10.5937,3.7338,-10.2942,11.5794,5.5947,0.2512,10.7046,5.4519
691.4062,7.8460,8.2527,4.9852,3.8405,-10.4387,4.3818,5.1100,0.2123,10.3468,9.9952,10.7860,9.2183,3.3396,-12.9676,11.2974,5.6804,1.2646,8.2824,3.8216
695.3125,6.5650,5.6937,4.4008,2.7952,-11.1899,3.1394,4.7733,0.3574,9.0281,7.3921,8.9575,7.0803,2.9669,-14.5478,10.0287,6.4951,2.0689,5.7409,2.4430
699.2188,5.4361,3.9618,4.6841,2.3388,-10.5816,2.7025,4.2109,0.9501,7.1396,4.4343,6.5936,4.7738,2.8296,-14.1329,7.5298,6.9518,2.5480,3.6091,1.5988
703.1250,4.1240,2.7345,5.2377,2.5394,-8.5065,2.4235,3.2347,1.8684,4.6120,1.4386,3.7866,2.8740,2.9967,-11.3135,4.0386,6.2109,2.7507,2.1554,1.2865
707.0312,2.2828,1.4850,5.2998,3.1252,-5.3517,1.5988,1.7342,2.7167,1.6327,-1.3317,0.7574,1.6331,3.3198,-6.4424,0.2597,4.1809,2.8161,1.2915,1.2562
710.9375,-0.1605,-0.0631,4.4428,3.6646,-1.8425,-0.0872,-0.1690,3.0499,-1.3477,-3.6395,-2.1410,0.9119,3.5446,-0.5533,-2.9112,1.5528,2.8848,0.7086,1.2148
714.8438,-2.8587,-1.6807,2.8564,3.8297,1.2759,-2.3366,-2.0062,2.6525,-3.7466,-5.2502,-4.4642,0.3681,3.5121,5.0285,-4.7710,-0.6238,3.0405,0.1373,1.0529
718.7500,-5.1412,-2.7446,1.2404,3.5677,3.5293,-4.3608,-3.0250,1.6877,-5.0688,-5.9642,-5.7767,-0.2489,3.2870,9.1846,-5.0866,-1.5322,3.2987,-0.4482,0.9402
722.6562,-6.3143,-2.6276,0.4015,3.0893,4.8239,-5.2862,-2.5058,0.6211,-5.1009,-5.7007,-5.7989,-0.9033,3.1155,11.3753,-4.1256,-0.9851,3.6276,-0.8049,1.2224
726.5625,-5.9942,-1.0998,0.8254,2.7038,5.3421,-4.6185,-0.2230,-0.0376,-3.9742,-4.5736,-4.5467,-1.3030,3.2416,11.7195,-2.4606,0.5701,3.9748,-0.5772,2.1820
730.4688,-4.2813,1.5167,2.4743,2.6186,5.3201,-2.5057,3.2323,-0.0173,-2.0696,-2.8890,-2.3815,-1.1159,3.7151,10.7725,-0.6913,2.3701,4.2707,0.4677,3.8067
734.3750,-1.6812,4.5168,4.8757,2.8182,4.8564,0.3464,6.5576,0.5700,0.1742,-1.0457,0.0847,-0.2159,4.3239,9.1378,0.7579,3.7340,4.4102,2.2658,5.7094
738.2812,1.1642,7.1753,7.3816,3.0775,3.8618,3.0551,8.3327,1.3040,2.4300,0.6183,2.2189,1.2042,4.6911,7.1264,1.7012,4.3089,4.2334,4.4341,7.2555
742.1875,3.7629,9.0745,9.4194,3.0874,2.1655,5.0153,7.8186,1.7019,4.5421,1.9485,3.6323,2.7196,4.4672,4.6462,2.1539,4.0930,3.5443,6.4153,7.8419
746.0938,5.9098,10.2206,10.6311,2.6295,-0.3059,6.1578,5.4619,1.4965,6.4707,3.0012,4.3398,3.8939,3.4991,1.3755,2.2744,3.3199,2.1880,7.7182,7.1846
750.0000,7.6177,10.9223,10.9150,1.7153,-3.3931,6.8594,2.7209,0.7930,8.1889,3.9656,4.7130,4.4894,1.8901,-2.8836,2.3203,2.3298,0.1660,8.1434,5.4656
753.9062,8.9290,11.5418,10.4270,0.6256,-6.6926,7.5738,1.2456,0.0195,9.6191,5.0273,5.2365,4.5465,-0.0547,-7.8860,2.5889,1.4837,-2.2752,7.8788,3.2589
757.8125,9.7647,12.2682,9.5537,-0.1894,-9.6738,8.4363,1.8932,-0.3055,10.6485,6.2455,6.1998,4.3041,-1.9435,-12.8687,3.3091,1.0876,-4.6538,7.4028,1.2708
761.7188,9.9307,13.0219,8.8081,-0.3246,-11.8578,9.1260,4.2173,0.1303,11.1912,7.5013,7.5070,4.0280,-3.4138,-16.7982,4.5057,1.2882,-6.3942,7.2225,0.0266
765.6250,9.2783,13.5143,8.6126,0.3375,-12.9730,9.1013,6.7805,1.2265,11.2330,8.5345,8.7212,3.8617,-4.2180,-18.8324,5.9282,1.9733,-7.0547,7.5701,-0.3339
769.5312,7.8942,13.4101,9.0406,1.4922,-13.0237,8.0584,8.0870,2.4663,10.8152,9.0465,9.3189,3.7773,-4.2810,-18.7441,7.1288,2.7748,-6.5314,8.2282,-0.0575
773.4375,6.1621,12.5079,9.6801,2.4935,-12.2559,6.2791,7.4992,3.1295,9.9753,8.8232,8.9917,3.6345,-3.7248,-17.0528,7.6777,3.2374,-5.1190,8.6070,0.4094
777.3438,4.6173,10.8509,9.7721,2.6538,-11.0446,4.5734,5.5176,2.6287,8.7047,7.8287,7.8046,3.2877,-2.8383,-14.7586,7.3930,3.0916,-3.3780,8.0616,0.6744
781.2500,3.6560,8.7092,8.6107,1.6254,-9.7433,3.7874,3.2694,0.8084,6.9710,6.2297,6.1189,2.6698,-1.9707,-12.8010,6.4227,2.4516,-1.8657,6.2830,0.5767
785.1562,3.2753,6.4356,5.9946,-0.3520,-8.5449,4.1724,1.6232,-1.9422,4.7977,4.3393,4.3444,1.8116,-1.3673,-11.5341,5.1146,1.7715,-0.8730,3.5282,0.2097
789.0625,3.0239,4.2654,2.4355,-2.5088,-7.3992,5.0605,0.6084,-4.8245,2.3362,2.4994,2.7015,0.8075,-1.0240,-10.5225,3.7642,1.5477,-0.3139,0.5292,-0.1895
792.9688,2.2252,2.1833,-1.0460,-3.9111,-6.0358,5.1398,-0.4367,-6.9593,-0.1410,0.9515,1.1527,-0.2310,-0.6661,-8.7928,2.4319,1.9557,0.1708,-1.8847,-0.3879
796.8750,0.3724,-0.0409,-3.4462,-3.9476,-4.1095,3.2337,-2.1446,-7.7587,-2.3417,-0.2427,-0.4674,-1.2036,0.0970,-5.4242,0.9723,2.6800,0.9544,-3.2353,-0.2535
800.7812,-2.5245,-2.6437,-4.3104,-2.6654,-1.4336,-0.8782,-4.4296,-7.1702,-4.0925,-1.1909,-2.2394,-2.0309,1.4966,-0.1674,-0.7461,3.0810,2.1629,-3.6401,0.2232
804.6875,-5.8443,-5.6058,-3.9418,-0.7588,1.8001,-6.1433,-6.4095,-5.6824,-5.4148,-2.0711,-4.0360,-2.6688,3.3648,6.2483,-2.6099,2.6041,3.5599,-3.7022,0.9447
808.5938,-8.5810,-8.5220,-3.1651,0.7843,4.9533,-10.6829,-7.0293,-4.0942,-6.4750,-2.9964,-5.5770,-3.1371,5.1011,12.2984,-4.2162,1.1572,4.6457,-4.1175,1.7147
812.5000,-9.7813,-10.7224,-2.8093,1.1770,7.1139,-12.7745,-5.9072,-3.1544,-7.4267,-3.9146,-6.6077,-3.5413,5.9106,16.2662,-5.0690,-0.8016,4.9129,-5.2445,2.2459
816.4062,-8.9679,-11.5993,-3.2384,0.2030,7.4794,-11.7814,-3.7225,-3.2334,-8.2457,-4.5989,-7.0464,-4.0405,5.2168,16.9782,-4.8831,-2.5179,4.1193,-6.8935,2.2169
820.3125,-6.3397,-10.9355,-4.1985,-1.7144,5.7762,-8.4536,-1.7997,-4.1677,-8.6742,-4.7340,-6.9782,-4.7389,3.0231,14.3193,-3.7696,-3.3557,2.4320,-8.4368,1.4159
824.2188,-2.6676,-9.0074,-5.0221,-3.7390,2.4764,-4.4203,-1.1633,-5.3384,-8.3238,-4.0532,-6.5046,-5.5427,0.0018,9.2862,-2.1641,-3.0984,0.3696,-9.1416,-0.0785
828.1250,1.0389,-6.3785,-5.0105,-4.9943,-1.3503,-1.2066,-1.7601,-5.9425,-6.8884,-2.4591,-5.5896,-6.0845,-2.7726,3.5534,-0.5553,-1.9682,-1.4288,-8.5085,-1.8064
832.0312,3.9264,-3.5264,-3.7546,-4.8959,-4.5172,0.6003,-2.4459,-5.3394,-4.3417,-0.0749,-4.0534,-5.8194,-4.3249,-1.2438,0.7805,-0.4155,-2.4931,-6.4434,-3.0496
835.9375,5.5874,-0.5731,-1.2548,-3.3265,-6.2921,1.5327,-1.7696,-3.3255,-1.0005,2.7833,-1.7496,-4.3043,-4.2579,-4.1825,1.8478,1.1301,-2.7374,-3.2276,-3.1713
839.8438,6.1581,2.6710,2.1335,-0.6388,-6.7360,2.7135,1.0018,-0.2242,2.5862,5.6925,1.1988,-1.5378,-2.9489,-5.3785,2.7805,2.3723,-2.5021,0.6193,-2.0051
843.7500,6.2205,6.3751,5.8245,2.4745,-6.5974,5.0107,5.3468,3.2416,5.8553,8.2277,4.3054,1.8563,-1.3578,-5.8225,3.6253,3.1086,-2.4001,4.4738,-0.0427
847.6562,6.5542,10.3194,9.1240,5.1899,-6.8064,8.4385,9.8047,6.2332,8.4339,10.0557,6.8821,4.7751,-0.5463,-6.8085,4.2599,3.1591,-3.0311,7.6987,1.7467
851.5625,7.8053,13.7880,11.3620,6.8039,-7.8623,12.1525,12.8819,8.1076,10.2172,10.9995,8.3839,6.1117,-1.1569,-9.2270,4.5176,2.3934,-4.6801,9.7319,2.4105
855.4688,10.1620,15.8452,12.0719,6.9665,-9.4842,14.9699,13.8846,8.6197,11.2962,11.0639,8.7116,5.3334,-3.1152,-13.0627,4.4020,0.8641,-7.1343,10.2191,1.5420
859.3750,13.1544,15.8334,11.1819,5.8132,-10.7467,16.0236,13.1222,7.9367,11.7966,10.4154,8.2525,2.8278,-5.6904,-17.3395,4.1816,-1.0764,-9.7058,9.1602,-0.4825
863.2812,15.7087,13.7613,9.0971,3.9106,-10.6265,15.1308,11.4299,6.4784,11.7397,9.3168,7.6098,-0.2298,-7.8625,-20.5412,4.2473,-2.8195,-11.4695,6.9655,-2.7193
867.1875,16.5215,10.3190,6.5586,2.0036,-8.6288,12.7181,9.4643,4.6879,11.0171,8.0345,7.1933,-2.4600,-8.7913,-21.2952,4.8135,-3.7306,-11.6217,4.3318,-4.1949
871.0938,14.6663,6.5194,4.3009,0.6711,-5.1113,9.4591,7.3376,2.8602,9.4968,6.7568,6.9562,-2.9992,-8.1488,-18.9754,5.6976,-3.4394,-9.8081,1.9622,-4.4240
875.0000,10.1732,3.2227,2.7030,0.0769,-1.1097,5.9433,4.8244,1.1097,7.2031,5.5657,6.4717,-1.9264,-6.1660,-13.9302,6.3780,-2.0069,-6.2690,0.2832,-3.5795
878.9062,4.2493,0.8620,1.6788,-0.0294,2.2212,2.5866,1.8898,-0.5357,4.4593,4.4793,5.3152,-0.1271,-3.4069,-7.2512,6.3307,0.1310,-1.7366,-0.6553,-2.2320
882.8125,-1.0717,-0.4902,0.9062,-0.0587,4.1997,-0.2418,-0.9659,-2.0086,1.8983,3.5361,3.4922,1.3266,-0.4286,-0.2511,5.4218,2.3869,2.8606,-1.0280,-0.8663
886.7188,-3.7754,-0.8477,0.2358,-0.2451,4.8831,-2.0895,-2.8719,-3.1496,0.2989,2.8598,1.6071,1.8873,2.4661,6.0374,4.0721,4.2556,6.7368,-0.9469,0.4654
890.6250,-2.8231,-0.1110,-0.0504,-0.4602,4.8661,-2.4855,-3.1540,-3.7765,0.2974,2.6470,0.6230,1.8704,5.2468,11.0795,3.0523,5.4382,9.4655,-0.2703,2.1102
894.5312,1.2898,1.8594,0.6242,-0.3159,4.7729,-1.2101,-1.8557,-3.8242,2.0917,3.0676,1.3292,2.1925,7.9619,14.7154,3.0290,5.8509,10.9920,1.3207,4.4386
898.4375,6.7152,4.9529,2.6486,0.5167,4.7977,1.4240,0.2069,-3.4434,5.2854,4.1345,3.8341,3.6822,10.4879,16.8700,4.1567,5.6033,11.4805,4.0083,7.4184
902.3438,11.1238,8.5677,5.7534,2.0088,4.5983,4.5268,1.9197,-2.9666,8.9691,5.6336,7.4010,6.4234,12.4178,17.3543,5.9854,5.0061,11.1245,7.5206,10.4679
906.2500,12.8256,11.6823,8.9526,3.7244,3.5976,6.9344,2.5413,-2.7357,12.0384,7.1759,10.7468,9.5795,13.1962,15.9238,7.7340,4.5633,10.0494,11.0758,12.7170
910.1562,11.5433,13.2751,11.0314,5.0682,1.4671,7.7357,2.1040,-2.8915,13.6221,8.3595,12.6470,11.8289,12.4350,12.5374,8.7401,4.8474,8.3471,13.6857,13.5051
914.0625,8.4359,12.8545,11.2951,5.6586,-1.5595,6.7338,1.3025,-3.2623,13.4241,8.9509,12.5142,12.1370,10.2088,7.5931,8.7915,6.2178,6.1740,14.6544,12.7736
917.9688,5.3896,10.7494,10.0516,5.5521,-4.7729,4.5688,1.0012,-3.4376,11.8094,8.9718,10.6367,10.3686,7.1139,1.9155,8.1505,8.5096,3.8002,13.9515,11.0770
921.8750,3.9996,7.9521,8.4467,5.1563,-7.4202,2.4164,1.7323,-2.9930,9.5842,8.6354,7.9652,7.3537,4.0158,-3.5490,7.2981,10.9337,1.5374,12.2041,9.2085
925.7812,4.8040,5.6005,7.7167,4.8995,-9.1795,1.4168,3.4941,-1.7355,7.5864,8.1739,5.5907,4.3872,1.6157,-8.1527,6.6060,12.3558,-0.4130,10.3082,7.7000
929.6875,7.1470,4.4192,8.3598,4.9097,-10.3304,2.1327,5.8896,0.1836,6.3024,7.6737,4.2145,2.4987,0.1019,-11.7979,6.1558,11.8839,-2.0743,8.9132,6.5420
933.5938,9.6645,4.4432,9.8098,4.9460,-11.4820,4.3082,8.3974,2.3528,5.7093,7.0318,3.8849,1.9564,-0.8865,-14.8412,5.7907,9.4309,-3.6597,8.1120,5.3043
937.5000,11.0455,5.1415,10.8499,4.6282,-13.0351,7.0268,10.5398,4.3218,5.4032,6.0632,4.1008,2.2736,-1.9506,-17.7075,5.3094,5.8679,-5.3834,7.5141,3.5550
941.4062,10.6294,5.7907,10.4698,3.7788,-14.7583,9.1568,11.8820,5.8108,4.9029,4.6768,4.1716,2.6425,-3.4742,-20.4757,4.6302,2.6084,-7.2315,6.6081,1.2666
945.3125,8.5625,5.8300,8.5467,2.6032,-15.8027,9.8404,11.9937,6.7770,3.9274,2.9907,3.5988,2.4635,-5.3181,-22.7178,3.8099,0.8384,-8.8559,5.1369,-1.0831
949.2188,5.5332,5.0102,5.8695,1.5585,-15.1873,8.7901,10.5374,7.3099,2.4913,1.2966,2.2791,1.6303,-6.8683,-23.6962,2.9371,0.8707,-9.6863,3.2359,-2.7850
953.1250,2.3323,3.3440,3.5165,1.0128,-12.4536,6.2870,7.5009,7.4516,0.8036,-0.1035,0.4669,0.4584,-7.4001,-22.7722,2.0216,2.0414,-9.2087,1.2854,-3.3490
957.0312,-0.4796,1.0062,2.0813,0.9616,-8.0540,2.9461,3.4013,7.0895,-0.9042,-1.0692,-1.4150,-0.6018,-6.5117,-19.7454,0.9957,3.2133,-7.2432,-0.3589,-2.8091
960.9375,-2.6547,-1.6875,1.3349,1.0341,-3.1921,-0.5782,-0.7643,6.0144,-2.4692,-1.6725,-2.9643,-1.2153,-4.3405,-14.9125,-0.1653,3.5418,-4.0499,-1.5307,-1.6745
964.8438,-4.1412,-4.2374,0.5647,0.7985,0.8020,-3.7758,-3.8888,4.1110,-3.7504,-2.0905,-3.8919,-1.2279,-1.4388,-8.8536,-1.3076,2.9833,-0.2048,-2.2106,-0.5649
968.7500,-4.9264,-5.9797,-0.7078,0.1378,3.1692,-6.2918,-5.2732,1.5441,-4.5257,-2.4249,-4.0231,-0.5914,1.5739,-2.1510,-2.0867,2.2236,3.6597,-2.3642,0.2046
972.6562,-4.9770,-6.2773,-2.2144,-0.5968,4.0480,-7.8364,-4.9767,-1.2068,-4.4769,-2.5966,-3.2890,0.6956,4.3213,4.7316,-2.1288,2.1117,7.0764,-1.8491,0.8019
976.5625,-4.2985,-4.8369,-3.0536,-0.7892,4.2380,-8.1352,-3.7620,-3.5160,-3.3365,-2.4073,-1.7638,2.5305,6.7372,11.3397,-1.2816,3.0257,9.8016,-0.5058,1.7044
980.4688,-3.0282,-1.9524,-2.3508,0.0166,4.5858,-7.0115,-2.6494,-4.8907,-1.1171,-1.7301,0.2778,4.5968,8.8863,17.0370,0.2196,4.6177,11.7177,1.6323,3.3112
984.3750,-1.4555,1.5365,0.0474,1.7731,5.4197,-4.5661,-2.3397,-5.1946,1.7583,-0.6778,2.3773,6.3638,10.7230,20.9689,1.8118,6.0848,12.7039,4.2010,5.6228
988.2812,0.0669,4.6128,3.3850,3.9206,6.4014,-1.3032,-2.8408,-4.6720,4.5721,0.3989,4.0458,7.2987,12.0083,22.3107,2.8901,6.7325,12.6112,6.5960,8.2078
992.1875,1.2689,6.5932,6.4704,5.7232,6.8535,1.9523,-3.4977,-3.7626,6.6484,1.1078,5.0081,7.1983,12.4551,20.6908,3.1553,6.4037,11.3741,8.2699,10.4647
996.0938,2.0629,7.4674,8.4564,6.7150,6.2895,4.3732,-3.3867,-2.8259,7.7052,1.2735,5.3781,6.3985,11.9744,16.5053,2.7978,5.4899,9.1658,9.0374,11.9741
1000.0000,2.5310,7.8418,9.3473,6.9483,4.7556,5.5300,-1.8371,-1.9518,7.9803,1.0641,5.6096,5.6485,10.8032,10.8680,2.3798,4.5697,6.4492,9.1606,12.6884
1003.9062,2.8174,8.5117,9.8756,6.8874,2.7639,5.6172,1.1964,-0.9672,8.0253,0.8731,6.2016,5.6665,9.3878,5.1636,2.4685,3.9962,3.8425,9.1391,12.8420
1007.8125,3.0129,9.9284,10.8726,7.0459,0.9085,5.3274,5.0859,0.3849,8.3019,1.0314,7.3265,6.6487,8.0986,0.4459,3.2524,3.7497,1.8582,9.3482,12.6794
1011.7188,3.1173,11.8961,12.6264,7.6338,-0.5174,5.4114,8.8080,2.2264,8.8601,1.5589,8.6450,8.0832,6.9957,-2.9639,4.3953,3.6256,0.6738,9.7860,12.2294
1015.6250,3.1019,13.6796,14.6931,8.4500,-1.6191,6.1884,11.4020,4.4311,9.3274,2.1530,9.4717,9.0350,5.8340,-5.4439,5.2440,3.5396,0.0829,10.1068,11.3036
1019.5312,3.0053,14.4391,16.2512,9.0619,-2.6710,7.3317,12.3919,6.6809,9.2138,2.4344,9.2205,8.7408,4.3101,-7.6503,5.2651,3.6466,-0.3422,9.9055,9.7083
1023.4375,2.9678,13.7138,16.6721,9.1097,-3.7756,8.0947,11.9756,8.6349,8.3054,2.2720,7.8360,7.1168,2.3600,-9.9950,4.4220,4.1479,-0.9805,9.0320,7.4911
1027.3438,3.1540,11.6671,15.8564,8.5122,-4.7004,7.8435,10.8892,10.0861,6.8516,1.9291,5.8980,4.8259,0.2756,-12.3517,3.2323,4.9616,-1.9489,7.6996,5.0108
1031.2500,3.6071,8.9765,14.1274,7.4556,-5.0205,6.5418,9.9979,11.0069,5.4100,1.8983,4.2952,2.8570,-1.4508,-14.1429,2.4519,5.5862,-3.0541,6.3209,2.7668
1035.1562,4.1503,6.4691,11.8558,6.2212,-4.4435,4.8395,9.8145,11.4711,4.4653,2.5266,3.6707,1.9110,-2.4310,-14.7045,2.5943,5.3665,-3.9057,5.2121,1.1135
1039.0625,4.4311,4.7308,9.1941,5.0095,-3.0487,3.6744,10.1989,11.5290,4.1078,3.7080,4.0192,2.0160,-2.5964,-13.6653,3.6101,4.0359,-4.0959,4.4001,0.0799
1042.9688,4.1110,3.8913,6.1569,3.8835,-1.2523,3.6311,10.4208,11.1309,4.0033,4.8873,4.7203,2.6224,-2.1675,-11.1118,4.9481,2.1342,-3.3473,3.6707,-0.5723
1046.8750,3.0825,3.6511,2.9350,2.8292,0.4622,4.4864,9.5689,10.1469,3.6648,5.3972,4.9867,3.0691,-1.4234,-7.4884,5.9470,0.9124,-1.5868,2.7972,-1.1064
1050.7812,1.5623,3.4841,0.0913,1.8349,1.8258,5.2708,7.0863,8.4558,2.8073,4.8961,4.4029,3.0571,-0.4761,-3.3593,6.2715,1.6639,1.0387,1.7461,-1.5882
1054.6875,-0.0217,2.8897,-1.6348,0.9012,2.8552,4.8389,3.1219,6.0356,1.5231,3.5895,3.1689,2.7857,0.7550,0.7892,6.0772,4.8511,4.1769,0.6910,-1.8666
1058.5938,-1.2828,1.5948,-1.8390,-0.0130,3.6775,2.6053,-1.5031,3.0022,0.1681,2.0709,1.8887,2.6912,2.3537,4.6091,5.7927,9.6125,7.3210,-0.1633,-1.7675
1062.5000,-2.0911,-0.3361,-0.8819,-1.0186,4.2802,-1.0226,-5.6819,-0.4089,-0.9160,0.9028,1.0872,3.0332,4.1800,7.8483,5.7013,14.0466,9.9248,-0.7747,-1.3267
1066.4062,-2.5928,-2.4874,0.1697,-2.2218,4.4177,-4.7969,-8.5127,-3.8820,-1.6008,0.2584,0.8454,3.6816,5.8258,10.3068,5.6632,16.1869,11.5776,-1.2848,-0.8421
1070.3125,-3.0116,-4.1782,0.1614,-3.5708,3.7680,-7.2778,-9.6095,-7.0545,-1.9308,-0.0998,0.8385,4.2708,6.8268,11.8543,5.2172,15.1087,12.1694,-1.8231,-0.6665
1074.2188,-3.3808,-4.6492,-1.3428,-4.7481,2.2177,-7.5809,-9.0951,-9.5422,-1.9033,-0.4909,0.7357,4.5771,6.9840,12.4811,4.0068,11.4848,11.9346,-2.2506,-0.8835
1078.1250,-3.4198,-3.3242,-3.6336,-5.2331,0.0352,-5.7714,-7.3661,-10.9847,-1.2905,-0.9035,0.6198,4.7825,6.5359,12.3059,2.2082,7.2254,11.3128,-2.0814,-1.1305
1082.0312,-2.6743,-0.0677,-5.1598,-4.5455,-2.2212,-2.6921,-4.8422,-11.1241,0.2977,-0.8489,1.0553,5.3779,6.0189,11.4982,0.6068,4.4060,10.6787,-0.7041,-0.7522
1085.9375,-0.8390,4.6812,-4.4231,-2.5354,-4.0053,0.6298,-1.8585,-9.8926,3.1155,0.3629,2.7032,6.7501,5.8955,10.1616,0.2092,4.1312,10.1041,2.2015,0.7763
1089.8438,1.9664,9.9893,-0.9143,0.4774,-5.0685,3.5938,1.3044,-7.4573,6.9644,3.0944,5.7504,8.7719,6.2164,8.2762,1.6200,6.0128,9.3180,6.3354,3.4326
1093.7500,5.1856,14.7284,4.5098,3.8234,-5.5173,6.2697,4.3796,-4.1793,11.1250,6.9813,9.5939,10.7368,6.5761,5.7641,4.6010,8.5406,7.9084,10.7897,6.5429
1097.6562,8.1082,17.9777,10.0488,6.8028,-5.6146,9.1420,7.1627,-0.5003,14.6389,10.9809,13.0594,11.7330,6.4082,2.6400,8.1267,10.0638,5.6414,14.4387,9.0958
1101.5625,10.2594,19.3511,13.9230,9.0035,-5.5022,12.5562,9.6100,3.1839,16.7829,13.8755,15.0454,11.2187,5.4078,-0.8713,10.9130,9.7438,2.6793,16.4841,10.2963
1105.4688,11.6196,19.0971,15.3008,10.4253,-5.0741,16.2568,11.8486,6.5917,17.4265,14.9206,15.1635,9.3961,3.7755,-4.3580,12.0846,7.9064,-0.4557,16.8222,10.0092
1109.3750,12.5194,17.9289,14.6632,11.3523,-4.1055,19.3436,14.0073,9.5427,17.0368,14.2158,13.9369,7.1173,2.1036,-7.3885,11.5639,5.6492,-3.1512,16.0139,8.8116
1113.2812,13.2969,16.6756,13.4403,12.0885,-2.5215,20.7027,15.9622,11.8978,16.3413,12.5732,12.4284,5.3855,0.9941,-9.7121,9.9774,4.0392,-5.0172,14.9005,7.6279
1117.1875,13.9855,15.9264,13.1640,12.7454,-0.5784,19.6618,17.2279,13.5214,15.8920,10.9968,11.5696,4.7959,0.6901,-11.3463,8.2048,3.4626,-6.0268,14.1278,7.1912
1121.0938,14.2792,15.8274,14.6169,13.2105,1.2039,16.4686,17.1726,14.3011,15.8197,10.1313,11.6551,5.2875,0.9824,-12.4822,6.9064,3.5304,-6.4006,13.8697,7.6626
1125.0000,13.8013,16.1018,17.4064,13.2773,2.3203,12.2790,15.4869,14.2040,15.9038,10.0216,12.3174,6.3321,1.4398,-13.2713,6.3168,3.5325,-6.3401,13.8814,8.6198
1128.9062,12.4620,16.2517,20.1472,12.8085,2.5629,8.6255,12.5752,13.3028,15.8447,10.2704,12.9325,7.3752,1.7710,-13.6459,6.3516,3.0721,-5.8234,13.7793,9.3726
1132.8125,10.6060,15.8182,21.1376,11.8027,2.1018,6.6386,9.5118,11.7299,15.4947,10.4042,13.1069,8.1815,2.0414,-13.3009,6.8416,2.4201,-4.6166,13.3172,9.3792
1136.7188,8.8116,14.5716,19.2024,10.3383,1.3181,6.4538,7.4719,9.5803,14.8767,10.1509,12.8784,8.8528,2.5926,-11.8516,7.6593,2.3553,-2.4857,12.4759,8.5121
1140.6250,7.4762,12.5600,14.3108,8.4730,0.5321,7.1426,6.9567,6.8487,14.0209,9.4630,12.5227,9.5600,3.7440,-9.0630,8.6556,3.6174,0.5613,11.3556,7.0588
1144.5312,6.5063,10.0273,7.6719,6.2136,-0.1589,7.2262,7.3578,3.4805,12.8076,8.3529,12.1778,10.2499,5.5114,-5.0043,9.5252,6.3468,4.1855,10.0106,5.5178
1148.4375,5.3708,7.2769,1.2382,3.5958,-0.8224,5.5037,7.2392,-0.4660,10.9952,6.7540,11.6269,10.5903,7.5505,-0.0469,9.7961,9.8746,7.8433,8.3918,4.3454
1152.3438,3.5065,4.5694,-3.1728,0.8157,-1.4858,1.7463,5.2358,-4.6439,8.4398,4.5676,10.4304,10.2035,9.3538,5.2664,9.0285,12.9874,11.0257,6.4471,3.7892
1156.2500,0.7964,2.0976,-4.7114,-1.7093,-1.9759,-3.1251,1.0065,-8.3762,5.3345,1.8619,8.3024,8.9954,10.5394,10.3785,7.1078,14.4963,13.4351,4.2854,3.8488
1160.1562,-2.2345,0.0212,-3.8404,-3.4311,-1.9568,-7.4834,-4.4119,-10.8327,2.2479,-0.9741,5.4200,7.3005,11.0206,14.8066,4.4027,13.7831,14.9896,2.2458,4.3295
1164.0625,-4.6655,-1.5049,-1.9871,-3.8937,-1.1585,-9.8228,-9.1264,-11.3756,-0.1177,-3.3051,2.4047,5.7020,10.9483,18.1410,1.6346,11.0385,15.6883,0.7790,4.9291
1167.9688,-5.7193,-2.3610,-0.6892,-2.9730,0.3649,-9.5236,-11.4658,-9.9000,-1.3168,-4.5619,-0.0336,4.6391,10.4986,20.0107,-0.4909,7.1095,15.4755,0.1951,5.3280
1171.8750,-5.2324,-2.5469,-0.7342,-0.9961,2.1440,-7.1431,-10.9110,-6.9626,-1.4373,-4.5961,-1.5360,4.0864,9.6845,20.0930,-1.6593,3.0801,14.2273,0.4446,5.2751
1175.7812,-3.7516,-2.2517,-1.8098,1.3410,3.4566,-4.0840,-8.2751,-3.5946,-1.0611,-3.8185,-2.2979,3.5518,8.3443,18.2043,-2.0841,-0.1784,11.8753,1.0947,4.6654
1179.6875,-2.2073,-1.8208,-2.8571,3.2367,3.6677,-1.8362,-5.0561,-0.8645,-0.9171,-2.9978,-2.8874,2.4205,6.3156,14.4376,-2.3256,-2.2777,8.5654,1.5488,3.5874
1183.5938,-1.3954,-1.5932,-2.8587,4.1183,2.5574,-1.2123,-2.4495,0.5942,-1.4345,-2.8240,-3.8050,0.4252,3.6694,9.2642,-2.9195,-3.3129,4.7253,1.3958,2.3142
1187.5000,-1.5938,-1.6821,-1.5104,3.8983,0.4598,-1.9902,-0.7086,0.8455,-2.4749,-3.5083,-5.0897,-2.0679,0.8338,3.5162,-4.0531,-3.6442,0.9836,0.6863,1.2315
1191.4062,-2.5104,-1.8461,0.6710,3.0283,-1.8593,-3.1362,0.7495,0.5625,-3.3985,-4.6648,-6.2345,-4.1550,-1.4940,-1.7864,-5.4667,-3.6024,-2.0137,-0.0373,0.7240
1195.3125,-3.5184,-1.5740,2.8255,2.3012,-3.5282,-3.4566,2.6519,0.6269,-3.4162,-5.5356,-6.4617,-4.8326,-2.6180,-5.7256,-6.5946,-3.2828,-3.7884,0.0011,1.0555
1199.2188,-3.9768,-0.3830,4.4071,2.4596,-3.9557,-2.2985,5.1511,1.6238,-2.0170,-5.4082,-5.1775,-3.5301,-2.1648,-7.7958,-6.8285,-2.5367,-4.1404,1.3865,2.2715
1203.1250,-3.4503,1.8263,5.5018,3.7753,-3.1157,0.0904,7.6079,3.4884,0.7585,-3.9737,-2.3326,-0.4466,-0.2974,-8.1040,-5.7542,-1.1563,-3.1738,4.1397,4.1369
1207.0312,-1.7845,4.5865,6.5758,5.8103,-1.6092,2.7231,8.9962,5.4896,4.3136,-1.4445,1.5016,3.4803,2.2838,-7.3518,-3.2892,0.8620,-1.2696,7.5977,6.1295
1210.9375,0.8843,7.0027,7.8865,7.5186,-0.4572,4.4401,8.5858,6.5598,7.7290,1.5894,5.3519,6.9425,4.5639,-6.5695,0.2784,3.1532,0.9776,10.6304,7.5192
1214.8438,4.1088,8.1725,9.0651,7.6918,-0.6824,4.5445,6.3932,5.8078,10.0954,4.4398,8.2193,8.7783,5.5776,-6.6862,4.3242,5.0527,2.8696,12.1016,7.5581
1218.7500,7.1304,7.6550,9.2410,5.5584,-2.8389,3.1501,3.1139,2.9578,10.8058,6.5716,9.4274,8.4056,4.7714,-8.1155,8.0004,5.8977,3.7809,11.3626,5.7584
1222.6562,9.0080,5.7031,7.6451,1.2267,-6.6997,1.0664,-0.3405,-1.5007,9.7155,7.7228,8.8147,6.0021,2.2184,-10.5596,10.4487,5.3952,3.3675,8.5346,2.1555
1226.5625,8.9407,3.1128,4.2384,-4.2880,-11.2762,-0.6841,-3.3081,-6.5188,7.1493,7.8886,6.7346,2.3872,-1.4080,-13.1420,11.0877,3.8227,1.7171,4.4448,-2.5876
1230.4688,6.6823,0.7802,-0.1221,-9.4943,-15.1942,-1.4207,-5.5184,-10.9339,3.7773,7.2290,3.8960,-1.3240,-5.0947,-14.8121,9.8621,1.9031,-0.6604,0.2520,-7.3378
1234.3750,2.8039,-0.7571,-4.1193,-13.0913,-17.2650,-1.1148,-6.8975,-13.9218,0.4041,5.9673,1.1122,-4.1485,-7.8695,-14.8171,7.3032,0.3980,-3.0307,-3.0446,-10.8861
1238.2812,-1.4278,-1.5156,-6.6990,-14.5031,-16.9702,-0.3022,-7.3169,-15.2331,-2.2695,4.3197,-0.9629,-5.5777,-9.1360,-12.9954,4.3174,-0.3380,-4.7353,-4.9648,-12.4088
1242.1875,-4.5751,-1.9006,-7.5655,-13.9939,-14.6181,0.3119,-6.5814,-15.1272,-3.8413,2.4663,-2.0298,-5.7033,-8.8199,-9.7591,1.7787,-0.5470,-5.4385,-5.6118,-11.7692
1246.0938,-5.7091,-2.3270,-7.1392,-12.3383,-11.1106,0.2885,-4.7072,-14.0889,-4.2922,0.5589,-2.2003,-5.0814,-7.2909,-5.8209,0.1403,-0.8609,-5.1949,-5.4504,-9.5085
1250.0000,-4.8589,-2.8997,-6.0854,-10.2982,-7.4850,-0.3313,-2.2314,-12.5277,-3.9303,-1.2501,-1.8899,-4.4014,-5.1381,-1.8617,-0.7065,-1.8182,-4.3252,-4.9633,-6.5462
1253.9062,-2.9522,-3.3653,-4.8354,-8.2517,-4.4993,-1.1378,-0.2039,-10.6374,-3.2210,-2.7828,-1.5896,-4.1191,-2.9342,1.6579,-1.2480,-3.4251,-3.2042,-4.3989,-3.7660
1257.8125,-1.2748,-3.3411,-3.4601,-6.1850,-2.4675,-1.6734,0.2745,-8.4650,-2.5826,-3.8440,-1.6242,-4.2417,-1.0941,4.4804,-1.9625,-5.0687,-2.0975,-3.7384,-1.7019
1261.7188,-0.7683,-2.6340,-1.9196,-3.9826,-1.3576,-1.7268,-1.2652,-6.0893,-2.2409,-4.2811,-2.0174,-4.3786,0.1540,6.4240,-2.9931,-5.8652,-1.1254,-2.8562,-0.4538
1265.6250,-1.5763,-1.4163,-0.3823,-1.7434,-1.0009,-1.4061,-4.2183,-3.7420,-2.2002,-4.0708,-2.5333,-4.0325,0.7401,7.3103,-4.0870,-5.2308,-0.3269,-1.7279,0.1861
1269.5312,-3.0805,-0.1483,0.7294,0.1414,-1.2324,-0.9769,-7.0704,-1.7628,-2.3249,-3.3813,-2.8651,-2.9668,0.7236,7.0316,-4.8243,-3.3076,0.2606,-0.5337,0.5186
1273.4375,-4.3575,0.6779,1.0336,1.2090,-1.8896,-0.6215,-8.1499,-0.4199,-2.4722,-2.5498,-2.8599,-1.4320,0.2729,5.6938,-4.9621,-0.9626,0.5716,0.4018,0.7594
1277.3438,-4.7442,0.7871,0.5593,1.2636,-2.7486,-0.3228,-6.5512,0.2657,-2.6012,-1.9661,-2.6493,-0.1078,-0.3821,3.6784,-4.6455,0.6487,0.5343,0.7722,0.9596
1281.2500,-4.1701,0.2128,-0.1691,0.5597,-3.5224,0.0386,-2.6696,0.5501,-2.8029,-1.9121,-2.6076,0.2258,-1.0504,1.5174,-4.3426,0.6899,0.1002,0.4352,1.0181
1285.1562,-3.0977,-0.7837,-0.4604,-0.3209,-3.9719,0.4731,1.9842,0.8160,-3.2402,-2.4451,-3.1538,-0.8872,-1.6904,-0.3678,-4.5486,-0.9363,-0.7513,-0.5406,0.7544
1289.0625,-2.1681,-1.8643,0.0386,-0.8143,-4.0517,0.7580,5.5798,1.3371,-4.0321,-3.3919,-4.5011,-3.2929,-2.4404,-1.8826,-5.4623,-3.5812,-2.0188,-1.9260,0.0198
1292.9688,-1.8048,-2.7211,1.0772,-0.6908,-3.9507,0.5460,6.8986,2.1173,-5.1359,-4.4484,-6.4846,-6.2439,-3.5043,-3.2602,-6.8456,-6.2222,-3.6560,-3.4115,-1.1739
1296.8750,-2.0083,-3.1024,2.0163,-0.1234,-3.9633,-0.3408,5.8708,2.9041,-6.2908,-5.3180,-8.5665,-8.7134,-4.9344,-4.8278,-8.1513,-7.9699,-5.5132,-4.6613,-2.5595
1300.7812,-2.4181,-2.8124,2.3747,0.5212,-4.2668,-1.6506,3.4590,3.3567,-7.0615,-5.8051,-10.0302,-9.8424,-6.4569,-6.7013,-8.8288,-8.4307,-7.2922,-5.3390,-3.6295
1304.6875,-2.5483,-1.7469,2.2742,0.9943,-4.7708,-2.7072,1.0351,3.2508,-6.9823,-5.8241,-10.2790,-9.2857,-7.4940,-8.6311,-8.6148,-7.7695,-8.5827,-5.1482,-3.8069
1308.5938,-2.0279,0.0342,2.4100,1.3444,-5.1579,-2.7408,-0.3335,2.5945,-5.7512,-5.3496,-9.1016,-7.2926,-7.4181,-10.1104,-7.6380,-6.5090,-9.0017,-3.9190,-2.7247
1312.5000,-0.7253,2.2697,3.5408,1.8452,-5.0891,-1.3597,-0.2878,1.6104,-3.3915,-4.3741,-6.7699,-4.5108,-5.9040,-10.6616,-6.2931,-5.2228,-8.3693,-1.7131,-0.4643
1316.4062,1.2542,4.5580,5.8707,2.7458,-4.4210,1.1446,0.8715,0.6218,-0.3020,-2.9226,-3.9256,-1.6593,-3.1600,-10.0928,-4.9896,-4.2934,-6.8085,1.1221,2.4102
1320.3125,3.6230,6.4963,8.7778,4.0300,-3.2858,3.8785,2.5267,-0.0811,2.8288,-1.1261,-1.3232,0.7284,0.1158,-8.5628,-3.9500,-3.8284,-4.7015,4.0038,5.0717
1324.2188,5.9385,7.7877,11.0780,5.3416,-2.0103,5.7723,4.0788,-0.3535,5.2068,0.6944,0.4203,2.3543,3.0183,-6.4597,-3.1967,-3.7358,-2.5456,6.2528,6.7807
1328.1250,7.5908,8.2156,11.6159,6.0928,-0.9821,6.0772,5.0654,-0.2827,6.1271,1.9963,0.9311,3.0130,4.7642,-4.2481,-2.7331,-3.8911,-0.8271,7.2453,7.1393
1332.0312,7.8214,7.5042,9.7650,5.6620,-0.5882,4.6199,5.0741,-0.2475,5.1091,2.0819,0.0079,2.4057,4.8648,-2.4271,-2.7839,-4.3091,-0.0026,6.5047,6.0870
1335.9375,5.8625,5.2193,5.5524,3.5692,-1.2435,1.6877,3.6436,-0.8973,1.9561,0.2733,-2.5150,0.0979,3.0883,-1.5909,-3.8937,-5.2282,-0.5553,3.7335,3.6788
1339.8438,1.2287,0.8871,-0.5480,-0.4031,-3.3924,-2.3053,0.3473,-2.9796,-3.2200,-3.8343,-6.8008,-4.2891,-0.6539,-2.4326,-6.7468,-7.0504,-2.9840,-1.1472,-0.1274
1343.7500,-5.9311,-5.6364,-7.8672,-6.1130,-7.3468,-7.0690,-4.9174,-6.9954,-9.9620,-10.1101,-12.8372,-10.7314,-6.3047,-5.5297,-11.7424,-10.1310,-7.6060,-7.8865,-5.4396
1347.6562,-14.6120,-13.7460,-15.6001,-12.9661,-12.9728,-12.3977,-11.6207,-12.8031,-17.4266,-17.7277,-20.1359,-18.5137,-13.4746,-10.9378,-18.5413,-14.5021,-14.2122,-15.7524,-12.1185
1351.5625,-23.0522,-21.9442,-22.7011,-19.8919,-19.4278,-17.8893,-18.5371,-19.4037,-24.4157,-25.2221,-27.5348,-26.2215,-21.2166,-17.8464,-25.8842,-19.6720,-21.8042,-23.4765,-19.4122
1355.4688,-29.2165,-28.2003,-27.8710,-25.4983,-25.2198,-22.7105,-24.0760,-25.1249,-29.5631,-30.8319,-33.3405,-32.0988,-28.0266,-24.6159,-31.8736,-24.6443,-28.6825,-29.4505,-25.8837
1359.3750,-31.5190,-30.7333,-29.8540,-28.4587,-28.7020,-25.6931,-26.8987,-28.2253,-31.6926,-33.0644,-35.8669,-34.6511,-32.2310,-29.3238,-34.6663,-28.1953,-32.9804,-32.2006,-29.8226
1363.2812,-29.4683,-28.8286,-27.9842,-28.0186,-28.8116,-25.8153,-26.5039,-27.6698,-30.2311,-31.2778,-34.1500,-33.2168,-32.6511,-30.6020,-33.2614,-29.3084,-33.4401,-30.9691,-29.9977
1367.1875,-23.9006,-23.2147,-22.6400,-24.3715,-25.6404,-22.8056,-23.4413,-23.6657,-25.4820,-25.9959,-28.4552,-28.2268,-29.1882,-28.2967,-27.9686,-27.5562,-30.0069,-26.0998,-26.3197
1371.0938,-16.6436,-15.7522,-15.2431,-18.6576,-20.4563,-17.4599,-19.0094,-17.6240,-18.5878,-18.7507,-20.2568,-21.0252,-22.9511,-23.5355,-20.2859,-23.2418,-23.8724,-18.9730,-19.9820
1375.0000,-9.7432,-8.5862,-7.7170,-12.5244,-15.1142,-11.4007,-14.5954,-11.5255,-11.1563,-11.4737,-11.6515,-13.3447,-15.7939,-18.1322,-12.2330,-17.2430,-16.9053,-11.4708,-12.9422
1378.9062,-4.6318,-3.2332,-1.6960,-7.4450,-11.1713,-6.3559,-11.0284,-7.0170,-4.6999,-5.7087,-4.5003,-6.6879,-9.4941,-13.6747,-5.4967,-10.6639,-10.7834,-5.2212,-7.0206
1382.8125,-1.6493,-0.0857,2.0568,-4.1467,-9.2156,-3.3526,-8.3043,-4.7286,-0.1385,-2.0450,0.2556,-1.8857,-5.0238,-10.8366,-0.8374,-4.4843,-6.3219,-1.0066,-3.1286
1386.7188,-0.1326,1.4603,3.7266,-2.4395,-8.7749,-2.2893,-5.8107,-4.1665,2.4235,-0.0546,2.7735,1.0183,-2.3056,-9.2906,1.9690,0.6476,-3.3529,1.3808,-1.0441
1390.6250,1.0363,2.4350,4.0805,-1.4991,-8.7988,-2.1209,-2.8750,-4.1833,3.5818,1.2682,3.9630,2.5813,-0.5325,-8.1942,3.7115,4.4546,-1.1474,2.8100,0.2022
1394.5312,2.7740,3.6815,3.9850,-0.4010,-8.3611,-1.5160,0.7206,-3.6939,4.2763,2.8580,4.8864,3.6160,1.2068,-6.8608,5.1734,6.9745,0.9624,4.2461,1.6349
1398.4375,5.3991,5.5363,4.1159,1.4122,-7.1338,0.4170,4.5745,-2.2033,5.3788,5.1097,6.2671,4.8547,3.4047,-5.1583,6.7710,8.4915,3.1826,6.2753,3.7756
1402.3438,8.6514,7.8798,4.9213,3.9544,-5.3912,3.7433,7.9273,0.1135,7.3859,7.8296,8.3244,6.7295,5.9915,-3.4196,8.5555,9.4711,5.2914,8.9358,6.5042
1406.2500,12.0083,10.3874,6.6699,6.8342,-3.6314,7.8109,10.1597,2.7260,10.3000,10.5508,10.9068,9.3011,8.5716,-2.0145,10.4592,10.4596,6.9963,11.8610,9.3200
1410.1562,15.0250,12.7536,9.4042,9.5539,-2.1292,11.7112,11.2023,5.1755,13.6936,12.9342,13.7305,12.3156,10.8053,-0.9440,12.5203,11.9242,8.2914,14.5705,11.7518
1414.0625,17.4867,14.7808,12.8147,11.7794,-0.7153,14.7724,11.6050,7.3276,16.9147,14.9698,16.5401,15.3542,12.6611,0.2489,14.8932,14.0825,9.5451,16.7215,13.6461
1417.9688,19.3573,16.3909,16.2331,13.4699,1.1243,16.8179,12.2389,9.3452,19.3634,16.8831,19.1453,18.0275,14.4091,2.2227,17.6673,16.8281,11.2760,18.2223,15.2056
1421.8750,20.6737,17.6574,18.9073,14.8663,3.9509,18.1186,13.8223,11.4878,20.7586,18.8852,21.4081,20.1489,16.4172,5.4528,20.6831,19.8171,13.8086,19.2182,16.8344
1425.7812,21.5338,18.8651,20.4663,16.3869,8.0844,19.1555,16.5511,13.9275,21.2851,20.9941,23.2637,21.8043,18.9177,9.9859,23.5312,22.6690,17.0592,20.0108,18.9188
1429.6875,22.1805,20.4846,21.2368,18.4714,13.4556,20.3688,20.0285,16.6944,21.5323,23.0557,24.7702,23.2693,21.8798,15.4504,25.7563,25.1368,20.5781,20.9472,21.6476
1433.5938,23.0394,22.9565,22.0916,21.3908,19.6112,22.0070,23.5029,19.7211,22.2100,24.9024,26.1024,24.8002,25.0189,21.2390,27.1120,27.1212,23.7791,22.2881,24.9067
1437.5000,24.5688,26.3391,23.8382,25.0616,25.8090,24.0781,26.2539,22.8808,23.7573,26.4747,27.4322,26.4165,27.8956,26.6907,27.6720,28.5376,26.1830,24.0721,28.2581
1441.4062,26.9444,30.0602,26.5493,28.9544,31.1647,26.3574,27.9072,25.9600,26.0563,27.7912,28.7523,27.8259,30.0423,31.1737,27.7265,29.1893,27.5409,26.0368,31.0317
1445.3125,29.7965,33.0328,29.3664,32.1989,34.8473,28.4289,28.5286,28.6115,28.4428,28.8151,29.7918,28.5697,31.0925,34.1127,27.5687,28.8207,27.8268,27.6798,32.5517
1449.2188,32.2529,34.1872,31.0070,33.9103,36.3185,29.7901,28.4859,30.3943,30.0488,29.3838,30.1459,28.3250,30.8993,35.0715,27.3537,27.3776,27.1805,28.4815,32.4457
1453.1250,33.3613,33.1492,30.6795,33.6157,35.5414,30.0444,28.1911,30.9450,30.3041,29.3192,29.5772,27.1753,29.6168,33.9288,27.1315,25.2908,25.8750,28.2009,30.8902
1457.0312,32.6747,30.6100,28.7532,31.5498,33.0377,29.1384,27.8797,30.2012,29.2991,28.6612,28.2870,25.6571,27.6909,31.0472,26.9876,23.5086,24.3046,27.0685,28.6124
1460.9375,30.6143,28.0688,26.6502,28.6167,29.7065,27.5117,27.5433,28.5136,27.7758,27.8161,26.9263,24.5221,25.7264,27.2664,27.1229,23.1338,22.9360,25.7300,26.5837
1464.8438,28.3236,27.0222,25.9694,25.9879,26.4563,26.0180,27.0286,26.5319,26.7368,27.4329,26.2816,24.3393,24.2670,23.6347,27.7610,24.8094,22.1879,24.9342,25.5346
1468.7500,27.0559,28.0760,27.4188,24.5326,23.8315,25.5796,26.2257,24.8981,26.8984,28.0231,26.8086,25.1808,23.5926,20.9763,28.9361,28.2332,22.2773,25.1310,25.5717
1472.6562,27.4631,30.5528,30.2993,24.3950,21.8447,26.7119,25.2158,23.9281,28.3160,29.5653,28.3243,26.5884,23.6408,19.5341,30.3468,32.1617,23.1252,26.2160,26.1428
1476.5625,29.2385,32.8780,32.9060,24.9591,20.1016,29.1786,24.2812,23.4804,30.3870,31.3998,30.0813,27.8363,24.0851,18.9087,31.4358,34.9764,24.3890,27.5753,26.3813
1480.4688,31.3339,33.5206,33.5750,25.2150,18.1202,32.0083,23.7584,23.0916,32.1982,32.5417,31.1892,28.3193,24.5012,18.3345,31.6823,35.5091,25.6025,28.3993,25.6086
1484.3750,32.5894,31.8966,31.6652,24.3075,15.6314,33.9189,23.8163,22.2801,32.9801,32.2427,31.1068,27.8218,24.5106,17.1257,30.9133,33.6293,26.3356,28.0737,23.6757
1488.2812,32.3514,28.6705,27.8504,21.9619,12.6891,33.9463,24.2972,20.8197,32.4026,30.4336,29.8807,26.5235,23.8392,15.0273,29.4007,30.2382,26.2916,26.4339,20.9493
1492.1875,30.7002,25.2924,23.6072,18.5817,9.5742,31.9313,24.7315,18.8265,30.5919,27.7441,27.9962,24.7853,22.3244,12.2933,27.6622,26.6902,25.3296,23.7765,18.0117
1496.0938,28.2113,23.1117,20.3309,15.0186,6.6274,28.5768,24.5498,16.6480,27.9492,25.0856,25.9856,22.9010,19.9524,9.4974,26.1040,24.0289,23.4639,20.6857,15.3345
1500.0000,25.5015,22.6502,18.6925,12.1882,4.1580,25.0358,23.3884,14.6691,24.9502,23.0881,24.1005,20.9984,16.9569,7.2384,24.7699,22.5111,20.8892,17.8133,13.1653
1503.9062,22.9176,23.4634,18.5764,10.7403,2.4696,22.2722,21.3206,13.1743,22.0503,21.7753,22.2796,19.1297,13.9029,5.9200,23.3803,21.6705,18.0091,15.7217,11.6568
1507.8125,20.5529,24.5869,19.4668,10.9026,1.9051,20.5793,18.8675,12.3206,19.6800,20.6841,20.3970,17.4383,11.6185,5.6849,21.6264,20.7978,15.3891,14.8033,11.0511
1511.7188,18.4795,25.1847,20.8655,12.4917,2.7798,19.5384,16.7618,12.1695,18.2214,19.3056,18.5506,16.2231,10.9016,6.4578,19.4895,19.4661,13.5780,15.2214,11.6827
1515.6250,16.9133,24.9442,22.4187,15.0151,5.1796,18.4201,15.5779,12.6904,17.8887,17.5068,17.1253,15.8139,12.1010,8.0021,17.3388,17.7563,12.8465,16.8391,13.7365
1519.5312,16.1140,24.0137,23.7653,17.7981,8.7488,16.7398,15.4307,13.7080,18.5622,15.6298,16.5536,16.3270,14.8146,9.9442,15.7276,16.0954,12.9983,19.1774,16.9309
1523.4375,16.0890,22.6442,24.3931,20.1246,12.6633,14.5893,15.9119,14.8543,19.7246,14.2167,16.9473,17.4853,17.9416,11.7980,15.0343,14.8872,13.4089,21.4892,20.4135
1527.3438,16.3780,20.8864,23.7569,21.3986,15.8852,12.5272,16.3075,15.6204,20.6171,13.5886,17.8984,18.6600,20.1356,13.0526,15.1997,14.2215,13.3203,22.9884,23.0320
1531.2500,16.1724,18.5951,21.6321,21.3087,17.5957,11.1224,15.9746,15.5371,20.5819,13.5935,18.6337,19.1472,20.4441,13.3349,15.7382,13.8344,12.2421,23.1605,23.8694
1535.1562,14.7657,15.7020,18.4104,19.9295,17.5549,10.4931,14.6673,14.4015,19.4015,13.6936,18.4522,18.5275,18.7768,12.5742,16.0007,13.2908,10.2160,21.9893,22.7219
1539.0625,12.0425,12.4843,15.0365,17.6890,16.1543,10.1803,12.6227,12.4000,17.4091,13.3075,17.1559,16.8895,15.9195,11.0518,15.5033,12.2265,7.7738,19.9525,20.2003
1542.9688,8.6363,9.5576,12.5484,15.1837,14.1175,9.4518,10.3592,10.0233,15.2786,12.1474,15.1703,14.7735,13.0760,9.2697,14.1186,10.5011,5.6115,17.7647,17.3725
1546.8750,5.5898,7.5462,11.5027,12.9124,12.0294,7.8081,8.3075,7.8016,13.6088,10.3259,13.2545,12.8539,11.1994,7.6810,12.0439,8.2219,4.1856,16.0001,15.1535
1550.7812,3.7067,6.6506,11.6683,11.0528,9.9864,5.3087,6.5034,6.0119,12.5574,8.1934,11.9751,11.5360,10.4889,6.4208,9.6163,5.6876,3.4768,14.7989,13.8036
1554.6875,3.0189,6.4260,12.1779,9.3924,7.5748,2.4689,4.5459,4.5396,11.7477,6.0572,11.2806,10.6895,10.3095,5.1913,7.1164,3.3016,3.0427,13.8076,12.8074
1558.5938,2.7398,5.9521,12.0022,7.4438,4.1741,-0.1897,1.8716,2.9774,10.4886,3.9926,10.4551,9.6661,9.5442,3.3772,4.6668,1.4603,2.2893,12.3604,11.1727
1562.5000,1.7474,4.3056,10.4149,4.6885,-0.6089,-2.5738,-1.8002,0.8985,8.1603,1.8532,8.4950,7.6033,7.1581,0.3476,2.2400,0.3980,0.7700,9.7915,7.9564
1566.4062,-0.7088,1.0556,7.1921,0.8408,-6.6288,-5.0670,-6.1273,-1.8643,4.5338,-0.5658,4.6959,3.8714,2.6865,-4.1901,-0.2722,0.0235,-1.6478,5.7265,2.7431
1570.3125,-4.5339,-3.4997,2.5416,-3.9710,-13.1646,-8.1155,-10.1542,-5.0924,-0.1314,-3.3490,-0.8833,-1.5473,-3.5479,-9.9456,-2.9743,-0.1383,-4.7876,0.2567,-4.1214
1574.2188,-8.8359,-8.4597,-3.0479,-9.1701,-19.1468,-11.6550,-12.7243,-8.2654,-5.2090,-6.3794,-7.3344,-7.9261,-10.5281,-16.0242,-5.8830,-0.7937,-8.2597,-6.0307,-11.5951
1578.1250,-12.4397,-12.7064,-8.8691,-13.8571,-23.5124,-14.8571,-13.0988,-10.7897,-9.9336,-9.3733,-13.2395,-13.9888,-16.8639,-21.1567,-8.8489,-2.5192,-11.5527,-12.1572,-18.2440
1582.0312,-14.5264,-15.3341,-13.9968,-17.0720,-25.5324,-16.4824,-11.4238,-12.2422,-13.6112,-11.9746,-17.2587,-18.3656,-21.2179,-24.1105,-11.5201,-5.3715,-14.1025,-16.9814,-22.6761
1585.9375,-15.0083,-15.9443,-17.4017,-18.1240,-25.0132,-15.6849,-8.7420,-12.5222,-15.7634,-13.8535,-18.6785,-20.1282,-22.7231,-24.1426,-13.4081,-8.7305,-15.3897,-19.5355,-23.9918
1589.8438,-14.4616,-14.7361,-18.3009,-16.8869,-22.3421,-12.7331,-6.4954,-11.8712,-16.2288,-14.7931,-17.6718,-19.1745,-21.2883,-21.3185,-14.0835,-11.5385,-15.1144,-19.3967,-22.1232
1593.7500,-13.7258,-12.4149,-16.6209,-13.9327,-18.3918,-9.1016,-5.7827,-10.7865,-15.2362,-14.7759,-15.1729,-16.2842,-17.6840,-16.5567,-13.4367,-12.8564,-13.4020,-16.9467,-17.9312
1597.6562,-13.4571,-9.9661,-13.2462,-10.4144,-14.3073,-6.7764,-6.8085,-9.8763,-13.4137,-14.0518,-12.4526,-12.8079,-13.3367,-11.3539,-11.8498,-12.4253,-10.9053,-13.3497,-12.9731
1601.5625,-13.8930,-8.3424,-9.7705,-7.6965,-11.2074,-7.1564,-8.8622,-9.6967,-11.6575,-13.1297,-10.6033,-10.1246,-9.8542,-7.2809,-10.1335,-10.8769,-8.6703,-10.1711,-8.9769
1605.4688,-14.8972,-8.1301,-7.7785,-6.8584,-9.8714,-10.2398,-10.8397,-10.5955,-10.8372,-12.6339,-10.1655,-9.1152,-8.4398,-5.4498,-9.2045,-9.4361,-7.7616,-8.7502,-7.2103
1609.3750,-16.1728,-9.3104,-8.0526,-8.2810,-10.5078,-14.6251,-11.9678,-12.5968,-11.4339,-13.0429,-11.0379,-9.8943,-9.4517,-6.1756,-9.6558,-9.2680,-8.8057,-9.6156,-8.0249
1613.2812,-17.4607,-11.2531,-10.2133,-11.5110,-12.7092,-18.3313,-12.2594,-15.3705,-13.3004,-14.4328,-12.6729,-11.9015,-12.3214,-8.9676,-11.4665,-10.8558,-11.6957,-12.2572,-10.7967
1617.1875,-18.6136,-13.0059,-13.0481,-15.4741,-15.6281,-19.9150,-12.4044,-18.3207,-15.7111,-16.3900,-14.4185,-14.2680,-15.8778,-12.8267,-14.0335,-13.7723,-15.6298,-15.4023,-14.2891
1621.0938,-19.5551,-13.7830,-15.3171,-18.9406,-18.3192,-19.1890,-13.1922,-20.7881,-17.7117,-18.1840,-15.8198,-16.2371,-18.9063,-16.6838,-16.5115,-16.9638,-19.4721,-17.6623,-17.2410
1625.0000,-20.2158,-13.4006,-16.4875,-21.0201,-20.1020,-17.1471,-14.8865,-22.2952,-18.5909,-19.1301,-16.7329,-17.4210,-20.6477,-19.7698,-18.2511,-19.3510,-22.2417,-18.2004,-18.8776
1628.9062,-20.5200,-12.3898,-16.9016,-21.4576,-20.7903,-15.2334,-17.0036,-22.7259,-18.2030,-18.9411,-17.2334,-17.8032,-20.9982,-21.7760,-19.0662,-20.3744,-23.4761,-17.0599,-19.1066
1632.8125,-20.4333,-11.6808,-17.2936,-20.6173,-20.6919,-14.4933,-18.6549,-22.3456,-16.9572,-17.8575,-17.4192,-17.5630,-20.3598,-22.7989,-19.1871,-20.1789,-23.3097,-15.0044,-18.3639
1636.7188,-20.0166,-12.0234,-18.0498,-19.2039,-20.3958,-15.1367,-19.2030,-21.6462,-15.5040,-16.4808,-17.2648,-16.8886,-19.2964,-23.1627,-18.9717,-19.3765,-22.2750,-13.0089,-17.2641
1640.6250,-19.4333,-13.4960,-18.7907,-17.8939,-20.4603,-16.6873,-18.7467,-21.0894,-14.3388,-15.4249,-16.6311,-15.9099,-18.2299,-23.2436,-18.6034,-18.5813,-20.9794,-11.7364,-16.2814
1644.5312,-18.8946,-15.4281,-18.6135,-17.0686,-21.1541,-18.4695,-18.0699,-20.8839,-13.5838,-15.0076,-15.4168,-14.7590,-17.3371,-23.3593,-17.9939,-18.0264,-19.8385,-11.2995,-15.6161
1648.4375,-18.5756,-16.8043,-16.8364,-16.7565,-22.3649,-20.0150,-18.0761,-20.9136,-13.0676,-15.1619,-13.7348,-13.6560,-16.6396,-23.7191,-16.9423,-17.4813,-18.9730,-11.3956,-15.2554
1652.3438,-18.5483,-16.9048,-13.7054,-16.7679,-23.7037,-21.1375,-19.1106,-20.8521,-12.6003,-15.5898,-11.9717,-12.9015,-16.1528,-24.3955,-15.4123,-16.4896,-18.2696,-11.6589,-15.1256
1656.2500,-18.7596,-15.7721,-10.5195,-16.9061,-24.7320,-21.7501,-20.6583,-20.3940,-12.2108,-16.0187,-10.6681,-12.7512,-15.9532,-25.2971,-13.7054,-14.7511,-17.5267,-11.9582,-15.2112
1660.1562,-19.0572,-14.2020,-9.0213,-17.1137,-25.1827,-21.7080,-21.6482,-19.4653,-12.1541,-16.3757,-10.2734,-13.2554,-16.1171,-26.1650,-12.3891,-12.4054,-16.5957,-12.4453,-15.5731
1664.0625,-19.2460,-13.2621,-10.3943,-17.4706,-25.0525,-20.8818,-21.1614,-18.2875,-12.6817,-16.7730,-10.9148,-14.1943,-16.5997,-26.6245,-12.0124,-10.0484,-15.4599,-13.3500,-16.2728
1667.9688,-19.1609,-13.6443,-14.4823,-18.0551,-24.5222,-19.4006,-19.0601,-17.2543,-13.7540,-17.3458,-12.3143,-15.1705,-17.1671,-26.2989,-12.7874,-8.4711,-14.2328,-14.6930,-17.2598
1671.8750,-18.7313,-15.2515,-19.7165,-18.7663,-23.7636,-17.7956,-16.1121,-16.6895,-14.9232,-18.0768,-13.8956,-15.8010,-17.4440,-24.9403,-14.4353,-8.2623,-13.0898,-16.1251,-18.2849
1675.7812,-18.0137,-17.2532,-23.8082,-19.2359,-22.7684,-16.8127,-13.5345,-16.6319,-15.4938,-18.7324,-15.0146,-15.8697,-17.0517,-22.5139,-16.2840,-9.4849,-12.1649,-17.0059,-18.8947
1679.6875,-17.1608,-18.5427,-24.8228,-18.9150,-21.3277,-16.9380,-12.2697,-16.7811,-14.8721,-18.9456,-15.1904,-15.3357,-15.7546,-19.1962,-17.5538,-11.5951,-11.4587,-16.6780,-18.5340
1683.5938,-16.3267,-18.2982,-22.0629,-17.3248,-19.1943,-17.9580,-12.4608,-16.6512,-12.8844,-18.3798,-14.2330,-14.2132,-13.5433,-15.3048,-17.6726,-13.6530,-10.8098,-14.7811,-16.7493
1687.5000,-15.5504,-16.3323,-16.3323,-14.3543,-16.3349,-18.9235,-13.4381,-15.8549,-9.8719,-16.8777,-12.2459,-12.4552,-10.6372,-11.2145,-16.4713,-14.7290,-9.9613,-11.4479,-13.4306
1691.4062,-14.6970,-13.0921,-9.5114,-10.4406,-13.1002,-18.6332,-14.1767,-14.3573,-6.5245,-14.5347,-9.5524,-9.9788,-7.4365,-7.3117,-14.2003,-14.3161,-8.7091,-7.2982,-8.9819
1695.3125,-13.5231,-9.3972,-3.7183,-6.5064,-10.1761,-16.3837,-13.9100,-12.5508,-3.5832,-11.6907,-6.6126,-6.8552,-4.4531,-3.9939,-11.4050,-12.5544,-7.0612,-3.2514,-4.3021
1699.2188,-11.8615,-6.1198,-0.4789,-3.6470,-8.3100,-12.5042,-12.5268,-11.0952,-1.5956,-8.8709,-3.9635,-3.5273,-2.2262,-1.6720,-8.7440,-10.1642,-5.3151,-0.2426,-0.5313
1703.1250,-9.8238,-3.9610,-0.2562,-2.6965,-7.9590,-8.3048,-10.5658,-10.6044,-0.8313,-6.6877,-2.1574,-0.8453,-1.2087,-0.7272,-6.8202,-8.1254,-3.9893,1.0561,1.3612
1707.0312,-7.8771,-3.3476,-2.4664,-3.8797,-9.0662,-5.4298,-8.8716,-11.3459,-1.3313,-5.7004,-1.6574,0.1982,-1.6322,-1.4058,-6.0527,-7.2587,-3.6237,0.4281,0.9677
1710.9375,-6.7028,-4.3778,-5.8827,-6.7201,-11.0986,-4.9894,-8.1430,-13.1101,-2.9786,-6.2374,-2.6838,-1.0499,-3.3991,-3.6919,-6.5891,-7.8988,-4.5390,-1.8312,-1.3866
1714.8438,-6.8732,-6.7690,-9.1914,-10.2471,-13.3187,-6.9792,-8.6102,-15.3077,-5.5072,-8.2296,-5.0715,-4.4724,-6.0733,-7.2295,-8.2605,-9.7944,-6.6752,-5.0104,-4.7848
1718.7500,-8.5170,-9.8491,-11.4545,-13.3905,-15.1200,-10.3122,-9.9639,-17.2287,-8.4717,-11.1455,-8.2374,-9.0905,-9.0075,-11.3541,-10.6010,-12.2488,-9.5914,-8.2058,-8.1039
1722.6562,-11.1761,-12.6851,-12.3235,-15.3654,-16.2335,-13.4141,-11.5341,-18.3169,-11.2688,-14.1063,-11.3297,-13.4234,-11.5689,-15.2490,-12.9535,-14.4137,-12.6233,-10.6067,-10.4550
1726.5625,-13.9597,-14.3845,-11.9771,-15.8771,-16.7138,-15.0188,-12.6159,-18.3290,-13.2858,-16.1776,-13.5314,-16.1395,-13.3574,-18.1772,-14.6574,-15.5970,-15.1179,-11.7396,-11.4693
1730.4688,-15.9268,-14.4611,-10.8774,-15.0896,-16.7653,-14.7222,-12.7978,-17.3290,-14.1327,-16.7243,-14.3861,-16.6450,-14.3006,-19.7040,-15.2623,-15.4670,-16.6361,-11.5767,-11.3246
1734.3750,-16.4853,-13.0575,-9.4925,-13.4281,-16.5555,-13.0338,-12.1395,-15.5656,-13.8171,-15.6581,-13.9696,-15.2812,-14.5785,-19.8178,-14.6775,-14.1007,-17.0428,-10.4662,-10.5410
1738.2812,-15.5879,-10.8547,-8.1159,-11.3524,-16.1360,-10.9622,-11.0937,-13.3282,-12.7181,-13.4407,-12.7926,-13.0278,-14.4301,-18.8942,-13.1795,-11.8899,-16.4658,-8.9240,-9.6801
1742.1875,-13.6340,-8.6843,-6.8383,-9.2124,-15.4840,-9.4051,-10.1794,-10.8607,-11.3428,-10.8339,-11.4725,-10.9041,-13.9671,-17.5075,-11.2580,-9.3621,-15.1699,-7.3931,-9.0916
1746.0938,-11.1730,-7.0596,-5.6322,-7.2166,-14.5848,-8.6776,-9.5746,-8.3520,-10.0068,-8.5258,-10.3557,-9.4296,-13.1102,-16.1617,-9.3683,-6.9890,-13.4187,-6.0885,-8.8013
1750.0000,-8.6143,-5.9192,-4.4632,-5.4740,-13.4663,-8.4026,-8.8910,-5.9722,-8.6574,-6.8308,-9.3203,-8.4488,-11.6845,-15.0604,-7.7167,-5.0483,-11.3887,-4.9910,-8.5602
1753.9062,-6.1189,-4.7477,-3.3474,-4.0446,-12.1675,-7.7873,-7.3433,-3.9026,-6.9750,-5.6172,-7.8958,-7.3813,-9.6033,-14.0266,-6.1958,-3.5816,-9.1639,-3.9662,-8.0104
1757.8125,-3.7010,-2.9891,-2.3327,-2.9589,-10.6926,-6.1162,-4.2863,-2.3294,-4.6937,-4.4793,-5.6359,-5.6962,-7.0152,-12.6220,-4.5106,-2.4497,-6.7920,-2.9166,-6.8928
1761.7188,-1.4121,-0.4721,-1.4395,-2.2077,-9.0174,-3.1968,0.1876,-1.3989,-1.9163,-3.0364,-2.5146,-3.2920,-4.3059,-10.4104,-2.4231,-1.4445,-4.3533,-1.8642,-5.2011
1765.6250,0.5617,2.4410,-0.6149,-1.7243,-7.1515,0.4855,5.0191,-1.1557,0.8205,-1.1761,0.9244,-0.5533,-1.9380,-7.2280,0.0324,-0.3939,-1.9873,-0.9172,-3.2024
1769.5312,1.9803,5.0761,0.2659,-1.3794,-5.1924,3.9955,8.5787,-1.4929,2.8091,0.8923,3.7918,1.9153,-0.2126,-3.3120,2.5002,0.7938,0.1471,-0.1499,-1.2956
1773.4375,2.7446,6.8789,1.3600,-0.9906,-3.3015,6.4501,9.5415,-2.1402,3.6138,2.7879,5.3401,3.6787,0.9081,0.7868,4.4623,2.1462,1.9571,0.5126,0.2358
1777.3438,3.0450,7.7584,2.8046,-0.3492,-1.6025,7.5197,7.7280,-2.7092,3.4012,4.2052,5.4235,4.7255,1.8046,4.4521,5.5188,3.6610,3.4842,1.3184,1.4341
1781.2500,3.3287,8.1152,4.6752,0.7320,-0.0828,7.6282,4.3438,-2.7995,2.9197,5.1014,4.6335,5.4463,3.0105,7.2615,5.6214,5.3033,4.8923,2.5895,2.6911
1785.1562,4.0817,8.5524,6.9537,2.3477,1.3982,7.7072,1.3939,-2.1408,3.1102,5.7133,4.0055,6.3736,4.9156,9.1059,5.1187,6.9583,6.3593,4.5429,4.5250
1789.0625,5.5565,9.4768,9.5028,4.4211,2.9737,8.6234,0.5808,-0.7132,4.5699,6.4004,4.4526,7.8601,7.5180,10.1128,4.5830,8.3911,7.9228,7.1283,7.2124
1792.9688,7.6220,10.8569,12.0552,6.6615,4.5929,10.6136,2.3576,1.2213,7.1920,7.4129,6.2577,9.8727,10.3570,10.4493,4.5218,9.2870,9.3781,9.9755,10.4971
1796.8750,9.8295,12.2742,14.2419,8.6062,5.9497,13.0864,5.7289,3.2111,10.1993,8.7265,8.9195,11.9887,12.6735,10.1502,5.1387,9.3926,10.3117,12.4910,13.5853
1800.7812,11.6490,13.2032,15.6771,9.7625,6.5986,14.9363,8.9168,4.8028,12.5491,10.0413,11.4321,13.5633,13.7232,9.0897,6.2711,8.6861,10.2773,14.0666,15.4732
1804.6875,12.7232,13.3192,16.0811,9.8041,6.2003,15.1991,10.4509,5.7298,13.4707,10.9458,12.8231,13.9745,13.0952,7.1057,7.5146,7.4477,9.0307,14.3111,15.4417
1808.5938,12.9955,12.6504,15.3874,8.7291,4.7379,13.6502,9.9914,6.0007,12.8327,11.1521,12.6366,12.8603,10.8859,4.1824,8.4418,6.1476,6.6969,13.2055,13.4315
1812.5000,12.6641,11.5211,13.7765,6.8925,2.5543,10.9745,8.3977,5.8438,11.1574,10.6672,11.1084,10.2910,7.6611,0.5656,8.7880,5.1966,3.7734,11.1198,10.0796
1816.4062,12.0284,10.3704,11.6176,4.8876,0.1930,8.4013,7.0711,5.5537,9.3106,9.8037,8.9808,6.8341,4.2432,-3.2548,8.5272,4.7250,0.9662,8.6908,6.4072
1820.3125,11.3423,9.5740,9.3518,3.3340,-1.8350,7.0309,7.0439,5.3502,8.0660,9.0235,7.1060,3.4636,1.4347,-6.6700,7.8389,4.5619,-1.0528,6.6117,3.3586
1824.2188,10.7503,9.3436,7.3800,2.6759,-3.1932,7.2575,8.3918,5.3373,7.7775,8.7001,6.0733,1.2869,-0.2015,-9.1020,7.0201,4.4511,-1.8484,5.4128,1.4597
1828.1250,10.3056,9.6965,5.9953,3.0756,-3.6970,8.6146,10.2696,5.5642,8.3005,8.9298,6.0285,1.1340,-0.4396,-10.1083,6.3906,4.3516,-1.3043,5.3063,0.7558
1832.0312,10.0134,10.4545,5.3607,4.4227,-3.1982,10.0968,11.4597,6.1055,9.1543,9.4961,6.7213,3.1659,0.6326,-9.4302,6.2084,4.5806,0.4210,6.1432,0.9913
1835.9375,9.8551,11.2669,5.4987,6.4177,-1.5281,10.7346,11.0560,7.0628,9.8075,10.0072,7.6987,6.7167,2.7108,-7.0129,6.5964,5.6480,3.0072,7.4951,1.8592
1839.8438,9.7934,11.6958,6.2775,8.6709,1.4116,10.0910,8.9164,8.4660,9.9406,10.1329,8.5313,10.5187,5.3952,-3.0257,7.4953,7.8630,6.0895,8.8353,3.1546
1843.7500,9.7889,11.3941,7.4178,10.7881,5.4638,8.4425,5.7272,10.1552,9.5776,9.8105,8.9868,13.2622,8.3012,2.1313,8.6801,10.9874,9.3380,9.7552,4.7853
1847.6562,9.8450,10.3266,8.5616,12.4475,10.1046,6.6132,2.7348,11.7692,9.0529,9.3039,9.1094,14.2279,11.1418,7.8685,9.8635,14.2184,12.4937,10.1308,6.7074
1851.5625,10.0508,8.9028,9.4122,13.4819,14.5389,5.5974,1.2900,12.8993,8.8412,9.0745,9.1882,13.6357,13.7619,13.5128,10.8480,16.5684,15.3677,10.1612,8.8748
1855.4688,10.5671,7.8866,9.8850,13.9437,17.9888,6.1577,2.3453,13.3348,9.3259,9.5270,9.6125,12.4857,16.1103,18.4423,11.6352,17.4232,17.8109,10.2508,11.2314
1859.3750,11.5369,8.0694,10.1667,14.1038,20.0025,8.5395,6.0339,13.2271,10.6052,10.7689,10.6544,11.9588,18.1546,22.1856,12.3982,16.9092,19.6691,10.7827,13.7002
1863.2812,12.9659,9.8545,10.6164,14.3435,20.5798,12.3730,11.4868,13.0318,12.4284,12.5234,12.2737,12.7232,19.7865,24.4465,13.3159,15.8108,20.7525,11.9010,16.1333
1867.1875,14.6685,13.0001,11.5462,14.9648,20.0392,16.7828,17.0461,13.2330,14.3082,14.2641,14.0684,14.5662,20.7901,25.0751,14.3785,15.0797,20.8629,13.4280,18.2507
1871.0938,16.3410,16.7005,13.0158,16.0139,18.7387,20.6857,20.9043,14.0208,15.7668,15.5124,15.4463,16.5755,20.9222,24.0536,15.3248,15.2587,19.8957,14.9735,19.6616
1875.0000,17.7332,19.9818,14.7859,17.2331,16.8668,23.1960,21.9462,15.1466,16.5905,16.1306,15.9560,17.7425,20.0784,21.5400,15.7940,16.1947,17.9757,16.1759,20.0222
1878.9062,18.8000,22.1826,16.4738,18.1894,14.4521,23.9806,20.3525,16.0714,16.9412,16.4271,15.5872,17.5899,18.4415,17.9401,15.6074,17.2080,15.5289,16.9215,19.2668
1882.8125,19.7079,23.2226,17.8052,18.5147,11.5595,23.3773,17.5513,16.3181,17.2354,16.9768,14.8234,16.4152,16.4854,13.9113,14.9688,17.5671,13.1968,17.3885,17.7441
1886.7188,20.6682,23.4967,18.7743,18.1096,8.4874,22.1756,15.4429,15.7888,17.8440,18.2291,14.3633,15.0096,14.7859,10.2217,14.3935,16.9279,11.5848,17.8714,16.1094
1890.6250,21.7028,23.4823,19.5830,17.1797,5.7801,21.1450,15.2980,14.8284,18.7880,20.1241,14.6504,14.0641,13.7221,7.4871,14.3616,15.4549,10.9594,18.4960,14.9840
1894.5312,22.5177,23.3371,20.3922,16.0835,4.0194,20.5764,17.0028,13.9945,19.6339,21.9700,15.5110,13.6837,13.2511,5.9297,14.9131,13.6005,11.0811,19.0296,14.5822
1898.4375,22.6037,22.7707,21.0718,15.1042,3.5419,20.1318,19.1607,13.7028,19.6846,22.7072,16.1686,13.3423,12.9231,5.3216,15.4896,11.7601,11.3100,18.9452,14.5705
1902.3438,21.5261,21.2792,21.1608,14.3076,4.2909,19.1219,20.0196,13.9994,18.3746,21.4584,15.6719,12.2959,12.1593,5.1812,15.1920,10.0783,10.9597,17.7353,14.2911
1906.2500,19.2257,18.5774,20.1098,13.5843,5.9115,17.0497,18.6300,14.6094,15.6397,18.0673,13.4923,10.1548,10.6386,5.1117,13.3386,8.5200,9.7051,15.2854,13.2236
1910.1562,16.1263,14.9238,17.6761,12.8322,8.0055,14.0545,15.4639,15.1953,12.0272,13.2958,9.9110,7.2121,8.5455,5.0585,9.9723,7.0902,7.7908,12.0541,11.3766
1914.0625,12.9650,11.1029,14.2128,12.1230,10.3409,10.9386,12.0800,15.6049,8.4659,8.5270,5.9331,4.3071,6.5049,5.3051,5.9668,5.9740,5.8986,8.9118,9.3289
1917.9688,10.4423,8.0603,10.6357,11.7063,12.8545,8.7284,10.0712,15.9077,5.8254,5.1094,2.7689,2.3285,5.2283,6.2019,2.6254,5.4564,4.7464,6.7119,7.8805
1921.8750,8.9080,6.4174,8.0474,11.8255,15.4565,8.0481,10.0226,16.1959,4.5208,3.7069,1.2026,1.7042,5.0905,7.8218,1.0037,5.6871,4.6692,5.8547,7.5477
1925.7812,8.2668,6.1710,7.2107,12.4714,17.8166,8.7234,11.1852,16.3311,4.3886,4.0329,1.2388,2.2152,5.9084,9.7973,1.3744,6.5012,5.4468,6.1175,8.2463
1929.6875,8.1379,6.7571,8.1583,13.2664,19.3363,9.8868,12.0583,15.8730,4.8800,5.1199,2.2211,3.2300,7.0643,11.4698,3.1561,7.4704,6.4797,6.8551,9.3727
1933.5938,8.1366,7.4227,10.1518,13.5921,19.3757,10.5165,11.4412,14.2987,5.4255,5.9488,3.3087,4.1629,7.8909,12.2594,5.3191,8.1703,7.1882,7.4299,10.2070
1937.5000,8.0844,7.6595,12.0066,12.9101,17.6051,10.0532,9.2202,11.3867,5.7316,6.0400,3.9743,4.8262,8.0637,11.9993,6.9768,8.4671,7.3696,7.5806,10.3483
1941.4062,8.0280,7.4319,12.6132,11.0788,14.2429,8.6915,6.3816,7.4925,5.8446,5.6426,4.2141,5.4473,7.7516,11.0019,7.7833,8.5924,7.2863,7.4925,9.8906
1945.3125,8.0938,7.0837,11.4084,8.4624,10.0050,7.1796,4.3039,3.4893,5.9862,5.4291,4.3834,6.3786,7.4445,9.8148,7.9310,8.9360,7.4488,7.5502,9.2533
1949.2188,8.3162,7.0175,8.5945,5.7538,5.7809,6.2888,3.8624,0.3680,6.3135,5.9303,4.8348,7.7424,7.5902,8.8442,7.8372,9.7023,8.2502,7.9767,8.8276
1953.1250,8.5732,7.3779,5.0412,3.6187,2.2324,6.3247,4.9524,-1.2662,6.7853,7.1107,5.6379,9.2753,8.2889,8.1138,7.7977,10.6915,9.6929,8.6300,8.7037
1957.0312,8.6686,7.9441,1.9295,2.3787,-0.4472,6.9892,6.6852,-1.4842,7.2150,8.3711,6.5596,10.4684,9.2346,7.3170,7.8529,11.3841,11.3638,9.1012,8.6498
1960.9375,8.4824,8.2858,0.2886,1.9184,-2.4862,7.6495,8.0365,-0.9216,7.4417,8.9651,7.2699,10.8799,9.9151,6.1069,7.9019,11.2833,12.6486,9.0226,8.3144
1964.8438,8.0690,8.0626,0.5996,1.8502,-4.2564,7.7938,8.4604,-0.3442,7.4703,8.5235,7.5807,10.3833,9.9186,4.4010,7.8990,10.2785,13.0356,8.3429,7.4741
1968.7500,7.6292,7.2624,2.6204,1.8091,-5.9549,7.3592,8.0892,-0.1687,7.4672,7.3140,7.5371,9.1889,9.1450,2.4845,7.9297,8.7697,12.3348,7.3604,6.1587
1972.6562,7.3794,6.2304,5.5085,1.6861,-7.4305,6.7342,7.4814,-0.2384,7.6179,6.0599,7.3231,7.6627,7.8162,0.8567,8.1073,7.4545,10.7234,6.4994,4.6154
1976.5625,7.4117,5.4810,8.2076,1.6714,-8.2367,6.4693,7.1832,0.0292,7.9666,5.4527,7.0989,6.1147,6.3245,-0.0469,8.4093,6.9157,8.6404,6.0182,3.1934
1980.4688,7.6363,5.4183,9.9380,2.1142,-7.8517,6.9115,7.4255,1.2454,8.3699,5.7114,6.9210,4.7257,5.0504,-0.0497,8.6386,7.2803,6.6193,5.8845,2.2538
1984.3750,7.8360,6.1365,10.5522,3.3136,-5.9367,7.9946,8.1062,3.6669,8.6100,6.4948,6.8005,3.6439,4.2649,0.7712,8.5822,8.1721,5.1385,5.9100,2.1299
1988.2812,7.7923,7.4028,10.5618,5.3677,-2.5088,9.2891,8.9727,7.0512,8.5843,7.2121,6.8211,3.1183,4.1296,2.2393,8.2469,8.9798,4.5179,6.0188,3.0791
1992.1875,7.4036,8.8061,10.7957,8.1342,2.0256,10.2483,9.8130,10.7943,8.4215,7.4883,7.1752,3.4934,4.7255,4.2194,7.9570,9.2587,4.8543,6.3960,5.1696
1996.0938,6.7353,9.9595,11.8650,11.2749,6.9681,10.4831,10.5287,14.2211,8.4197,7.4305,8.0504,5.0028,6.0327,6.6141,8.1836,9.0000,5.9888,7.3539,8.1365
2000.0000,5.9830,10.6333,13.7391,14.3200,11.5115,9.9179,11.0968,16.8314,8.8283,7.4966,9.4349,7.4839,7.8548,9.2265,9.1911,8.6040,7.5248,8.9811,11.3318
2003.9062,5.3748,10.7638,15.6966,16.7282,14.9504,8.7710,11.5118,18.3806,9.6220,8.0702,11.0039,10.2443,9.7660,11.6335,10.7575,8.5813,8.9193,10.8533,13.8788
2007.8125,5.0631,10.3746,16.7020,17.9674,16.8616,7.4082,11.7654,18.8102,10.4347,9.0687,12.2081,12.2502,11.1739,13.2246,12.2068,9.1830,9.6418,12.0817,15.0156
2011.7188,5.0553,9.5009,16.0005,17.6514,17.1952,6.1682,11.8496,18.1393,10.7302,9.9029,12.5468,12.5945,11.5198,13.4355,12.7796,10.1922,9.3504,11.7597,14.4552
2015.6250,5.2201,8.1859,13.5805,15.7134,16.2364,5.2458,11.7333,16.4195,10.1257,9.8510,11.8615,10.9941,10.5320,12.0453,12.1156,11.0055,8.0070,9.5620,12.5381
2019.5312,5.3730,6.5504,10.2263,12.5226,14.4459,4.6715,11.3109,13.7746,8.6735,8.6023,10.4569,8.0030,8.3835,9.3345,10.5191,10.9545,5.8785,6.0958,10.0605
2023.4375,5.4044,4.8658,7.1278,8.8360,12.2453,4.3684,10.3862,10.4624,6.9122,6.5823,8.9584,4.7809,5.6470,5.9798,8.8092,9.6793,3.4260,2.7184,7.8646
2027.3438,5.3801,3.5489,5.2773,5.5471,9.8545,4.2370,8.7642,6.8801,5.6327,4.7966,7.9839,2.5214,3.0529,2.7391,7.8346,7.3448,1.1416,0.8710,6.4329
2031.2500,5.5388,3.0430,4.9974,3.3258,7.2670,4.2162,6.4342,3.4845,5.4766,4.2575,7.8271,1.8593,1.1802,0.1208,7.9625,4.5911,-0.5931,1.3039,5.7227
2035.1562,6.1606,3.6276,5.8505,2.3367,4.3726,4.2925,3.7246,0.6680,6.5904,5.3469,8.3336,2.5956,0.2443,-1.7601,8.8687,2.2552,-1.5753,3.6618,5.3151
2039.0625,7.3610,5.2535,6.9441,2.2022,1.1430,4.4634,1.2797,-1.3387,8.5301,7.5306,9.0260,3.8828,0.0857,-3.0769,9.7546,1.0171,-1.7756,6.6853,4.7481
2042.9688,8.9315,7.5004,7.4251,2.2429,-2.2415,4.6915,-0.1926,-2.4952,10.4677,9.6252,9.3795,4.7412,0.3385,-4.0450,9.8381,1.1411,-1.2893,8.9038,3.8077
2046.8750,10.3474,9.6920,6.8828,1.8614,-5.4116,4.8860,-0.2891,-2.9182,11.5806,10.4640,9.0811,4.5910,0.6593,-4.7267,8.8033,2.4122,-0.2844,9.3980,2.6073
2050.7812,10.9812,11.1328,5.4745,0.8502,-7.9588,4.9288,0.8262,-2.8290,11.4130,9.5580,8.1366,3.5039,0.8858,-5.0175,6.9454,4.2632,1.0398,8.1913,1.4556
2054.6875,10.4273,11.3721,3.7639,-0.5405,-9.6115,4.7330,2.4535,-2.5044,10.0376,7.3538,6.8072,2.0750,1.0596,-4.7898,4.9614,6.0112,2.4850,6.0899,0.6495
2058.5938,8.7626,10.3906,2.4167,-1.7798,-10.3133,4.2996,3.6969,-2.2230,7.9688,4.9524,5.4556,1.0488,1.3468,-4.0451,3.5571,7.1062,3.8881,4.1459,0.3533
2062.5000,6.5803,8.6402,1.9288,-2.3378,-10.1529,3.7448,3.9358,-2.1813,5.9168,3.4831,4.4082,0.9531,1.9381,-2.9298,3.1216,7.3201,5.1553,3.1200,0.6225
2066.4062,4.7575,6.9167,2.5045,-1.8898,-9.2053,3.2910,3.1605,-2.3872,4.5269,3.5216,3.8940,1.9363,2.9919,-1.5932,3.6314,6.8340,6.2826,3.2591,1.5094
2070.3125,4.0689,6.1012,4.0902,-0.3511,-7.4176,3.2269,1.9807,-2.5899,4.2124,4.8787,4.0448,3.8371,4.6214,-0.0131,4.7763,6.1969,7.3400,4.4378,3.1245
2074.2188,4.8475,6.8493,6.4949,2.2074,-4.6486,3.8385,1.3001,-2.3243,5.0998,6.8301,4.9024,6.3606,6.8783,2.0362,6.1695,6.1361,8.4156,6.4545,5.5798
2078.1250,6.8576,9.3290,9.4994,5.6341,-0.8624,5.3049,1.8379,-1.1042,7.0403,8.5853,6.3955,9.2026,9.6921,4.7954,7.4981,7.2418,9.5331,9.1994,8.8428
2082.0312,9.4224,13.1031,12.8890,9.6673,3.6473,7.5666,3.7536,1.3010,9.6389,9.6812,8.3017,12.0555,12.7849,8.2098,8.5588,9.6228,10.5843,12.5641,12.6073
2085.9375,11.7117,17.2149,16.3943,13.8346,8.1751,10.2170,6.5696,4.6554,12.2993,10.0857,10.2426,14.5515,15.6366,11.7177,9.2191,12.7068,11.3199,16.2025,16.2842
2089.8438,13.0367,20.4625,19.5875,17.4072,11.7686,12.5056,9.4155,8.2537,14.3199,10.0150,11.7524,16.2598,17.5717,14.3340,9.3848,15.3501,11.4231,19.3928,19.1372
2093.7500,13.0300,21.7754,21.8248,19.5331,13.5939,13.5321,11.4529,11.1702,15.0659,9.6502,12.4086,16.7943,17.9792,15.0438,9.0083,16.2916,10.6511,21.1876,20.5021
2097.6562,11.6844,20.5569,22.3299,19.5437,13.3152,12.6079,12.2439,12.6472,14.1792,8.9707,11.9642,15.9810,16.5749,13.3142,8.1168,14.7777,8.9852,20.8169,19.9893
2101.5625,9.2889,16.8708,20.4535,17.2831,11.2691,9.6377,11.8672,12.4172,11.7310,7.7966,10.4167,13.9630,13.5671,9.4290,6.8117,11.0277,6.7074,18.1061,17.5892
2105.4688,6.3210,11.4101,16.0315,13.2502,8.3128,5.2898,10.7333,10.7781,8.2210,5.9720,7.9831,11.1491,9.6196,4.4354,5.2253,6.2331,4.3445,13.6320,13.6618
2109.3750,3.3206,5.2754,9.6587,8.4324,5.4139,0.7975,9.2294,8.3810,4.4011,3.5338,5.0142,8.0309,5.6110,-0.2862,3.4688,2.0234,2.4829,8.4986,8.8369
2113.2812,0.7528,-0.3475,2.6716,3.8968,3.2026,-2.5689,7.4319,5.8651,1.0043,0.7453,1.9064,4.9912,2.3053,-3.6013,1.6240,-0.3423,1.5312,3.8563,3.8689
2117.1875,-1.1230,-4.5029,-3.2460,0.3596,1.7354,-4.0963,5.0924,3.5614,-1.4863,-2.0032,-0.9444,2.2336,0.0985,-5.0422,-0.2043,-0.5974,1.5481,0.4452,-0.5164
2121.0938,-2.3255,-6.6869,-6.7072,-2.0248,0.5976,-3.9458,1.9238,1.4349,-2.9178,-4.3355,-3.1525,-0.1319,-1.0411,-4.8715,-1.8203,0.4785,2.2289,-1.5866,-3.7582
2125.0000,-3.1028,-6.9275,-7.2020,-3.5471,-0.7306,-2.9877,-1.9981,-0.7199,-3.3842,-5.9707,-4.3639,-1.9441,-1.4349,-3.8016,-2.9246,1.6136,3.0611,-2.5289,-5.5563
2128.9062,-3.7520,-5.7085,-5.2814,-4.5960,-2.4773,-2.2431,-6.0132,-2.9830,-3.0663,-6.7206,-4.3269,-2.9353,-1.4621,-2.5745,-3.2019,1.8546,3.5623,-2.7689,-5.9033
2132.8125,-4.3866,-3.7570,-2.2139,-5.3191,-4.3965,-2.2750,-9.0411,-5.1202,-2.1119,-6.4597,-3.0039,-2.8432,-1.3724,-1.6475,-2.4740,1.1141,3.4719,-2.5073,-5.0441
2136.7188,-4.7965,-1.7577,0.7031,-5.5140,-5.9124,-2.9102,-10.0925,-6.6372,-0.6256,-5.1439,-0.6584,-1.6326,-1.2372,-1.1295,-0.8288,0.1056,2.7995,-1.7051,-3.3799
2140.6250,-4.5229,-0.0989,2.7706,-4.8185,-6.4943,-3.4554,-8.8341,-7.0482,1.2535,-2.8926,2.1617,0.3450,-1.0305,-0.9357,1.3633,-0.2619,1.7285,-0.2594,-1.3590
2144.5312,-3.1487,1.2248,4.0763,-3.0675,-6.0268,-3.2414,-5.8436,-6.1920,3.2723,-0.0704,4.7696,2.4004,-0.7587,-1.0054,3.5653,0.4090,0.4597,1.7450,0.6035
2148.4375,-0.6547,2.4865,5.1504,-0.5755,-4.9422,-2.1134,-2.3621,-4.3965,5.0614,2.7287,6.5651,3.7830,-0.5351,-1.4177,5.2626,1.7001,-0.8915,3.8994,2.1588
2152.3438,2.3863,3.9282,6.3569,1.8632,-4.0294,-0.5375,0.3261,-2.3863,6.2291,4.8375,7.2280,4.0345,-0.5485,-2.3381,6.1238,2.6877,-2.2853,5.5586,3.0337
2156.2500,4.9461,5.4652,7.4712,3.2896,-4.0287,0.7318,1.5177,-0.9754,6.5023,5.7574,6.7873,3.2074,-0.9466,-3.8515,6.0623,2.6368,-3.6644,6.1104,3.0546
2160.1562,5.9901,6.6053,7.7624,3.0542,-5.2476,1.1718,1.3450,-0.7112,5.8354,5.3608,5.5430,1.8099,-1.7127,-5.8124,5.2015,1.5708,-4.8685,5.2805,2.2037
2164.0625,5.0215,6.6846,6.5345,1.1823,-7.4109,0.8318,0.5376,-1.6521,4.4353,3.9383,3.9046,0.5082,-2.6187,-7.8221,3.7965,0.2991,-5.6400,3.3021,0.6776
2167.9688,2.4088,5.3140,3.7374,-1.5891,-9.8163,0.2634,-0.1118,-3.3808,2.6961,2.0651,2.2432,-0.2306,-3.2993,-9.3636,2.1691,-0.1329,-5.7327,0.8501,-1.1149
2171.8750,-0.7226,2.7505,0.1852,-4.1480,-11.6959,0.1053,-0.2167,-5.2304,1.0745,0.3596,0.8203,-0.3514,-3.4267,-10.0305,0.6626,0.8072,-5.0626,-1.2406,-2.6669
2175.7812,-3.0230,-0.0895,-2.8125,-5.5542,-12.5746,0.6181,0.0724,-6.5936,-0.0536,-0.7431,-0.2162,-0.1737,-2.9058,-9.7307,-0.4137,2.7043,-3.8039,-2.3482,-3.5827
2179.6875,-3.6119,-2.0580,-4.1922,-5.5046,-12.4412,1.4815,0.2860,-7.1635,-0.5171,-1.1108,-0.8244,-0.1628,-1.9889,-8.7575,-0.8819,4.3752,-2.3690,-2.3535,-3.7870
2183.5938,-2.5548,-2.4230,-3.7601,-4.4588,-11.6642,1.9778,-0.0121,-7.0033,-0.4205,-0.9054,-1.0873,-0.6636,-1.2291,-7.6765,-0.8054,4.5413,-1.2731,-1.6999,-3.6008
2187.5000,-0.8411,-1.3350,-2.2790,-3.3507,-10.7266,1.4309,-0.9876,-6.4362,-0.1247,-0.4871,-1.2364,-1.7507,-1.2606,-7.0645,-0.5315,2.5602,-0.9458,-1.1781,-3.6021
2191.4062,0.1506,0.2165,-0.9639,-3.0420,-9.9409,-0.3769,-2.5137,-5.8350,-0.1167,-0.2855,-1.6156,-3.2423,-2.4856,-7.2144,-0.5886,-1.2274,-1.5725,-1.5249,-4.3108
2195.3125,-0.5812,0.9686,-0.7322,-3.8315,-9.3007,-3.0528,-4.2849,-5.4298,-0.7934,-0.6697,-2.5417,-4.8264,-4.8165,-7.9542,-1.4395,-5.7048,-3.0239,-3.0296,-5.8566
2199.2188,-3.0871,0.1406,-1.7056,-5.3029,-8.5363,-5.7722,-5.9229,-5.2292,-2.2461,-1.8320,-4.1059,-6.1990,-7.6237,-8.6922,-3.2020,-9.5531,-4.8993,-5.3563,-7.8307
2203.1250,-6.4182,-2.0970,-3.2644,-6.5985,-7.3302,-7.6715,-7.0174,-5.0815,-4.1634,-3.7024,-6.0361,-7.1439,-9.9520,-8.7008,-5.5078,-11.8248,-6.6660,-7.6914,-9.4365
2207.0312,-9.1405,-4.7361,-4.5584,-6.9493,-5.5645,-8.2414,-7.1684,-4.8212,-5.9306,-5.9339,-7.7429,-7.5492,-10.9289,-7.5151,-7.6157,-12.2261,-7.8513,-9.1478,-9.8839
2210.9375,-10.1242,-6.5432,-5.0778,-6.1331,-3.4588,-7.5299,-6.1172,-4.4026,-6.9033,-7.9932,-8.5693,-7.3938,-10.1687,-5.2410,-8.7538,-11.0536,-8.2184,-9.2085,-8.8134
2214.8438,-9.1522,-6.7665,-4.8848,-4.5794,-1.5154,-6.0724,-3.9416,-3.9327,-6.7199,-9.3503,-8.1263,-6.7350,-7.9545,-2.5834,-8.5133,-8.9387,-7.8550,-7.9617,-6.5029
2218.7500,-6.9971,-5.4879,-4.3934,-3.0667,-0.2955,-4.5927,-1.1655,-3.5866,-5.4809,-9.6914,-6.5160,-5.6970,-5.0961,-0.5474,-7.0675,-6.5902,-7.1257,-5.9972,-3.7262
2222.6562,-4.9275,-3.4381,-3.9287,-2.2190,-0.1452,-3.6246,1.3754,-3.4674,-3.6873,-9.0442,-4.2953,-4.4438,-2.5362,0.0464,-5.0800,-4.6234,-6.4974,-4.0413,-1.3448
2226.5625,-3.9494,-1.4633,-3.4409,-2.1369,-1.0251,-3.2477,2.8988,-3.5167,-1.9747,-7.7365,-2.1890,-3.1292,-0.9278,-1.0319,-3.3487,-3.4456,-6.3143,-2.5632,0.1211
2230.4688,-4.2474,-0.0459,-2.5998,-2.3972,-2.5461,-3.0899,3.0591,-3.5466,-0.7982,-6.2056,-0.7215,-1.8487,-0.4095,-3.3273,-2.3906,-3.1497,-6.6377,-1.5915,0.6866
2234.3750,-5.1564,0.8108,-1.1747,-2.4043,-4.1971,-2.6208,2.0729,-3.3830,-0.2491,-4.7697,0.0124,-0.6257,-0.6761,-5.9727,-2.2066,-3.4442,-7.2368,-0.8303,0.7598
2238.2812,-5.6607,1.3262,0.6246,-1.8362,-5.6285,-1.5822,0.4817,-3.0204,-0.0902,-3.5036,0.3103,0.5503,-1.2552,-8.1634,-2.3525,-3.7226,-7.7351,0.0394,0.7857
2242.1875,-5.0861,1.5874,2.1447,-0.8764,-6.8152,-0.2871,-1.2689,-2.6734,0.0378,-2.2933,0.6034,1.6578,-1.7859,-9.5465,-2.2564,-3.3342,-7.8205,1.0985,0.9317
2246.0938,-3.5380,1.4102,2.6571,-0.0828,-7.9939,0.4511,-3.0931,-2.6711,0.3825,-1.0261,1.1551,2.5936,-2.1313,-10.3036,-1.5819,-1.9702,-7.3919,2.1397,1.0241
2250.0000,-1.8169,0.5197,1.8393,-0.0074,-9.4158,-0.2157,-5.1479,-3.2568,0.9499,0.2196,1.9047,3.1785,-2.3028,-10.9091,-0.4261,0.0614,-6.5648,2.8319,0.7551
2253.9062,-0.8924,-1.1257,0.0125,-0.8480,-11.0878,-2.5641,-7.4336,-4.4261,1.5223,1.1206,2.5283,3.2167,-2.3191,-11.7508,0.7441,1.8987,-5.5535,2.9424,-0.0224
2257.8125,-1.2946,-3.1667,-2.0492,-2.3720,-12.6948,-5.9599,-9.4823,-5.9214,1.7731,1.2401,2.6454,2.5766,-2.1539,-12.8715,1.3569,2.5616,-4.5335,2.4401,-1.1510
2261.7188,-2.8253,-5.0019,-3.6139,-4.1402,-13.7764,-9.0808,-10.4753,-7.3929,1.3937,0.2681,2.0208,1.2513,-1.8228,-13.9777,1.0339,1.5366,-3.5818,1.4198,-2.2925
2265.6250,-4.7532,-6.1706,-4.4498,-5.8344,-14.0515,-10.6432,-9.7953,-8.6157,0.1818,-1.7719,0.6478,-0.6280,-1.5154,-14.6673,-0.2417,-0.8560,-2.7246,-0.0531,-3.2212
2269.5312,-6.3350,-6.6675,-4.9289,-7.4315,-13.6598,-10.2098,-7.6253,-9.6080,-1.9060,-4.4779,-1.3018,-2.8223,-1.6171,-14.6843,-2.1562,-3.5834,-2.0271,-2.0136,-4.0475
2273.4375,-7.2915,-6.9394,-5.7140,-9.0989,-13.1302,-8.5343,-5.0875,-10.5614,-4.7175,-7.2175,-3.5892,-5.0465,-2.5390,-14.0197,-4.2530,-5.4770,-1.6347,-4.5018,-5.1748
2277.3438,-7.9266,-7.5606,-7.2520,-10.9169,-13.0617,-7.1586,-3.7059,-11.6335,-7.8896,-9.3920,-5.9931,-7.0451,-4.4433,-12.8233,-6.1582,-5.9295,-1.7186,-7.3765,-6.9942
2281.2500,-8.8321,-8.8246,-9.4212,-12.6674,-13.7116,-7.4616,-4.4783,-12.7549,-10.8954,-10.6816,-8.3308,-8.6665,-7.0591,-11.2413,-7.7277,-5.2725,-2.3673,-10.2177,-9.5258
2285.1562,-10.4072,-10.5473,-11.5620,-13.8774,-14.7674,-9.7509,-7.1841,-13.5990,-13.1829,-11.1485,-10.4382,-9.9087,-9.7507,-9.3386,-9.0522,-4.5820,-3.5137,-12.4439,-12.2763
2289.0625,-12.5241,-12.2040,-12.8549,-14.1017,-15.4754,-12.9979,-10.4394,-13.7482,-14.3680,-11.1498,-12.1505,-10.9064,-11.8249,-7.1724,-10.3314,-5.0177,-4.9583,-13.6018,-14.4376
2292.9688,-14.5543,-13.2666,-12.7868,-13.2359,-15.0648,-15.4132,-12.5037,-12.9484,-14.3831,-11.1062,-13.3058,-11.8424,-12.8854,-4.9347,-11.6886,-7.0997,-6.4683,-13.6308,-15.3133
2296.8750,-15.7126,-13.4755,-11.4119,-11.6214,-13.2064,-15.5095,-12.3106,-11.2763,-13.4764,-11.2433,-13.7647,-12.8080,-12.9949,-3.0095,-13.0260,-10.3637,-7.8699,-12.8958,-14.6959
2300.7812,-15.4798,-12.8646,-9.2693,-9.8522,-10.2174,-12.9764,-10.0316,-9.1059,-12.0468,-11.4416,-13.4320,-13.6888,-12.5367,-1.8485,-14.0059,-13.5982,-9.0618,-11.9403,-12.9489
2304.6875,-13.8427,-11.5806,-7.0524,-8.4160,-6.8886,-8.8235,-6.8204,-6.9022,-10.4130,-11.2873,-12.2838,-14.1601,-11.8874,-1.7205,-14.1876,-15.5024,-9.9549,-11.1200,-10.7538
2308.5938,-11.2419,-9.7027,-5.2618,-7.4187,-4.0577,-4.7350,-3.9723,-4.9855,-8.6741,-10.3168,-10.4109,-13.8264,-11.1460,-2.5096,-13.2698,-15.3577,-10.4133,-10.3783,-8.7085
2312.5000,-8.3126,-7.2421,-4.0447,-6.5785,-2.2092,-2.0837,-2.1280,-3.4253,-6.7599,-8.3387,-8.0662,-12.4466,-10.1198,-3.7221,-11.3119,-13.3265,-10.2790,-9.3283,-7.0461
2316.4062,-5.6071,-4.3156,-3.2707,-5.4799,-1.3397,-1.2356,-1.0710,-2.1177,-4.6229,-5.6495,-5.6644,-10.1128,-8.5651,-4.7308,-8.7940,-10.2496,-9.4830,-7.5830,-5.6380
2320.3125,-3.4471,-1.3018,-2.7271,-3.8973,-1.1357,-1.5310,-0.1898,-0.9720,-2.4103,-2.9882,-3.6796,-7.2579,-6.4843,-5.1149,-6.4447,-7.1248,-8.1604,-5.0895,-4.2291
2324.2188,-1.9261,1.2201,-2.2647,-1.9672,-1.2946,-1.8607,0.8262,-0.0560,-0.4556,-1.2089,-2.4419,-4.4655,-4.2349,-4.8870,-4.8961,-4.6150,-6.6561,-2.2204,-2.7012
2328.1250,-0.9839,2.7723,-1.7976,-0.1080,-1.7473,-1.3976,1.6323,0.4042,0.9307,-0.8238,-1.9308,-2.1864,-2.3526,-4.4668,-4.3499,-2.8569,-5.3817,0.4451,-1.1665
2332.0312,-0.4674,3.3217,-1.2032,1.2300,-2.6380,-0.0196,1.4902,0.1646,1.7221,-1.6778,-1.7129,-0.5326,-1.2122,-4.4218,-4.4596,-1.6095,-4.5986,2.4869,0.1506
2335.9375,-0.1590,3.3848,-0.2591,1.8015,-4.1110,1.7654,-0.0758,-0.8607,2.2697,-2.9754,-1.1246,0.7171,-0.7822,-5.1354,-4.5282,-0.5615,-4.2738,3.8843,1.1177
2339.8438,0.1840,3.7604,1.2692,1.6468,-6.0920,3.2362,-2.7529,-2.5098,3.1119,-3.6875,0.3517,1.9083,-0.6610,-6.5891,-3.9271,0.4399,-4.1165,4.9563,1.8008
2343.7500,0.7414,5.0283,3.4034,0.9983,-8.2349,3.8909,-5.4623,-4.4209,4.5888,-3.1277,2.7212,3.2343,-0.3775,-8.3622,-2.4928,1.3556,-3.7806,6.0523,2.3817
2347.6562,1.5184,7.1385,5.7430,0.1178,-10.0699,3.6518,-6.9317,-6.1736,6.5207,-1.3598,5.3600,4.5726,0.2615,-9.8257,-0.6524,2.0547,-3.1003,7.2249,2.9575
2351.5625,2.2970,9.3745,7.4635,-0.8174,-11.2345,2.8071,-6.4245,-7.4349,8.1924,0.8215,7.2620,5.5302,1.0263,-10.4156,0.8112,2.3967,-2.2035,8.1242,3.3896
2355.4688,2.7179,10.7270,7.6152,-1.7275,-11.6198,1.8157,-4.1422,-8.0380,8.6983,2.3365,7.5352,5.6534,1.4217,-9.8599,1.2152,2.2100,-1.4347,8.1888,3.3380
2359.3750,2.4761,10.4349,5.6179,-2.5820,-11.3484,1.1133,-1.0724,-7.9869,7.4534,2.4259,5.8655,4.6565,1.0264,-8.2837,0.3673,1.2276,-1.1526,6.9919,2.4719
2363.2812,1.5124,8.3542,1.6835,-3.3633,-10.6347,0.9707,1.5644,-7.4218,4.5485,1.0417,2.6695,2.5347,-0.2285,-6.1722,-1.3525,-0.8708,-1.5436,4.5053,0.7169
2367.1875,0.0665,4.9484,-3.1168,-4.0749,-9.6580,1.3916,2.8896,-6.5780,0.7217,-1.2090,-1.1498,-0.4742,-2.0308,-4.2131,-3.2607,-4.2278,-2.5622,1.1202,-1.6348
2371.0938,-1.4624,0.9635,-7.2447,-4.7616,-8.5413,2.0538,2.6429,-5.7373,-3.0354,-3.5032,-4.6769,-4.0040,-3.9038,-3.0669,-4.8008,-8.4933,-4.0033,-2.5548,-4.0274
2375.0000,-2.7638,-2.9521,-9.3842,-5.4859,-7.4159,2.3575,1.0984,-5.1513,-5.9797,-5.3126,-7.3871,-7.6422,-5.4912,-3.1290,-5.8434,-12.6773,-5.6221,-5.9499,-5.8905
2378.9062,-3.8037,-6.4285,-9.0586,-6.2457,-6.4653,1.6421,-1.2104,-4.9353,-7.9117,-6.6371,-9.2425,-10.9352,-6.6994,-4.3670,-6.6657,-15.3882,-7.2009,-8.6714,-6.8760
2382.8125,-4.8115,-9.2864,-6.8201,-6.8809,-5.8596,-0.4681,-3.7335,-4.9801,-9.0998,-7.8223,-10.4690,-13.3660,-7.6101,-6.3097,-7.6397,-15.4358,-8.5369,-10.4702,-6.9428
2386.7188,-6.0594,-11.3253,-3.8950,-7.0572,-5.6015,-3.7646,-6.0021,-4.9520,-9.9252,-9.1193,-11.2150,-14.4007,-8.2584,-8.2103,-8.8606,-12.4927,-9.4015,-11.1383,-6.2629
2390.6250,-7.5782,-12.2108,-1.4915,-6.3752,-5.4137,-7.4128,-7.6257,-4.4211,-10.5195,-10.3290,-11.3542,-13.6462,-8.4690,-9.3312,-9.9764,-7.3923,-9.5519,-10.4744,-5.0398
2394.5312,-9.0062,-11.5849,-0.1875,-4.5738,-4.8060,-10.2557,-8.2889,-3.0808,-10.6468,-10.8070,-10.5676,-11.0588,-7.8944,-9.2274,-10.3392,-1.8087,-8.8197,-8.3842,-3.3744
2398.4375,-9.6940,-9.3297,0.2444,-1.7211,-3.3425,-11.3255,-7.8033,-0.9459,-9.8963,-9.8456,-8.6230,-7.0639,-6.2405,-7.9034,-9.3773,2.5523,-7.2267,-5.0445,-1.2670
2402.3438,-9.0243,-5.7813,0.5085,1.7238,-0.9684,-10.2760,-6.1824,1.5893,-8.0235,-7.1747,-5.6319,-2.4738,-3.5238,-5.7788,-6.9460,4.7965,-5.0342,-0.9790,1.2625
2406.2500,-6.7631,-1.7134,1.2115,5.0331,1.8289,-7.4844,-3.6752,3.8858,-5.1867,-3.2334,-2.0854,1.7950,-0.1731,-3.4967,-3.4413,5.2103,-2.6734,3.0586,4.0385
2410.1562,-3.2338,1.9380,2.4490,7.4734,4.1731,-3.7875,-0.7239,5.3294,-1.9066,0.9858,1.3604,5.0702,3.1079,-1.6754,0.3818,4.9380,-0.5826,6.3665,6.6937
2414.0625,0.7928,4.4632,3.8151,8.5918,5.2164,-0.0532,2.1352,5.5954,1.2159,4.4326,4.2028,7.1526,5.6450,-0.7103,3.7589,5.1925,0.9581,8.5857,8.7775
2417.9688,4.4315,5.6596,4.7811,8.3873,4.5891,3.1324,4.3889,4.7703,3.8222,6.5237,6.3028,8.3070,7.0920,-0.6835,6.2237,6.5146,1.9050,9.8232,9.9592
2421.8750,7.0519,5.8526,5.1259,7.2865,2.6019,5.5061,5.6637,3.2722,5.9365,7.3747,7.8603,9.0345,7.5551,-1.3825,7.7180,8.5385,2.4151,10.5283,10.1987
2425.7812,8.4873,5.6593,5.0864,5.9321,0.0680,6.9632,5.8308,1.6244,7.8366,7.6169,9.1917,9.7710,7.4881,-2.3935,8.4857,10.3617,2.7379,11.1968,9.7746
2429.6875,8.9949,5.6415,5.1330,4.8866,-2.1480,7.3984,5.0681,0.2139,9.7599,7.9426,10.4762,10.6837,7.4318,-3.2359,8.8599,11.2092,3.1072,12.0812,9.1358
2433.5938,9.0248,6.0417,5.5744,4.3984,-3.5711,6.7193,3.8233,-0.8355,11.6631,8.6815,11.6394,11.6590,7.7466,-3.5086,9.0841,10.9188,3.6786,13.0781,8.6591
2437.5000,8.9575,6.7345,6.3256,4.3493,-4.2730,5.0177,2.6418,-1.6180,13.2100,9.6627,12.4389,12.4529,8.4730,-3.0123,9.2547,9.9480,4.5178,13.8452,8.4591
2441.4062,8.9605,7.3907,7.0257,4.4071,-4.6640,2.7233,1.9144,-2.2766,13.9991,10.4166,12.6757,12.8819,9.3717,-1.8039,9.3739,8.9712,5.6086,14.0634,8.3704
2445.3125,9.0163,7.7334,7.3931,4.2898,-5.0860,0.5572,1.6872,-2.8240,13.8703,10.5486,12.3761,12.9280,10.0919,-0.1500,9.4379,8.4105,6.8587,13.6685,8.1128
2449.2188,9.0547,7.7201,7.4951,3.9706,-5.5052,-0.7452,1.6815,-3.0781,13.0666,10.0235,11.8130,12.7009,10.3595,1.6026,9.4801,8.2396,8.1015,12.9032,7.5241
2453.1250,9.0636,7.5363,7.6714,3.6821,-5.5257,-0.7885,1.5406,-2.7609,12.1197,9.1782,11.3429,12.2967,10.0786,3.1699,9.5387,8.1399,9.1092,12.1498,6.6875
2457.0312,9.0860,7.4093,8.1425,3.7017,-4.7171,0.2792,1.1443,-1.7117,11.5109,8.4687,11.1534,11.6583,9.3042,4.3968,9.5778,7.8072,9.6251,11.6425,5.8519
2460.9375,9.1152,7.3725,8.6290,4.0605,-3.0189,1.8485,0.7464,-0.0828,11.3199,8.1272,11.0757,10.5363,8.1236,5.2101,9.4265,7.1214,9.4116,11.2392,5.1895
2464.8438,8.9884,7.1553,8.3470,4.3912,-0.9194,3.1637,0.7991,1.6227,11.1007,7.9611,10.5944,8.5946,6.5410,5.5106,8.7949,6.0608,8.3018,10.4138,4.5742
2468.7500,8.3923,6.3049,6.4821,4.0671,0.7456,3.6813,1.5646,2.7306,10.0942,7.4302,9.0788,5.6167,4.4550,5.1179,7.3835,4.5030,6.2488,8.5089,3.5723
2472.6562,7.0182,4.4954,2.8528,2.5880,1.2688,3.2769,2.8094,2.7233,7.6797,5.9690,6.1369,1.7064,1.7604,3.8484,5.0485,2.1762,3.3705,5.1354,1.7029
2476.5625,4.7852,1.8322,-1.7281,-0.0196,0.5188,2.2205,3.8492,1.5413,3.8083,3.3676,1.9105,-2.6333,-1.4838,1.6999,1.9436,-1.1059,-0.0205,0.5019,-1.1761
2480.4688,1.9858,-1.0659,-5.7246,-3.0684,-0.9413,0.9776,3.9668,-0.3277,-0.8462,-0.0126,-2.8634,-6.6083,-4.9332,-0.9941,-1.4470,-5.0710,-3.4297,-4.5307,-4.6211
2484.3750,-0.7657,-3.3047,-7.6785,-5.4781,-2.1563,-0.0280,2.9282,-2.0500,-5.1240,-3.3240,-7.0866,-9.3973,-7.9822,-3.5897,-4.4265,-8.8037,-6.2663,-8.7338,-7.6988
2488.2812,-2.7750,-4.1580,-7.0369,-6.3177,-2.3224,-0.5733,1.2197,-2.8471,-7.8845,-5.5857,-9.7348,-10.4547,-9.9467,-5.3778,-6.3213,-10.9994,-7.9984,-11.0110,-9.4088
2492.1875,-3.5691,-3.4442,-4.4469,-5.2981,-1.2352,-0.6608,-0.1925,-2.3764,-8.4975,-6.1208,-10.2740,-9.6992,-10.3241,-5.9239,-6.7316,-10.5931,-8.3256,-10.8551,-9.1893
2496.0938,-3.0803,-1.5803,-1.2987,-2.9020,0.6284,-0.4229,-0.4316,-0.8697,-7.0516,-4.8446,-8.8370,-7.4911,-8.9892,-5.2900,-5.6705,-7.3941,-7.2836,-8.5193,-7.1866
2500.0000,-1.6064,0.7357,1.1867,-0.0660,2.4302,0.0362,0.7806,1.0502,-4.1846,-2.2581,-6.0661,-4.4162,-6.2265,-3.9805,-3.5180,-2.2938,-5.2152,-4.8193,-4.1160
2503.9062,0.4129,3.0056,2.7111,2.3786,3.4709,0.7759,3.0180,2.7556,-0.6720,0.8332,-2.7273,-1.0095,-2.5943,-2.6350,-0.8171,3.1335,-2.6158,-0.6965,-0.8144
2507.8125,2.6441,5.2331,3.9872,4.1390,3.5554,2.0379,5.4884,3.9577,2.9502,3.7024,0.6615,2.4145,1.2857,-1.6642,1.9690,7.4162,0.0600,3.1899,2.2091
2511.7188,4.9658,7.8118,6.1107,5.4983,3.0148,4.0979,7.5343,4.7935,6.4996,5.9644,3.9590,5.7325,4.8945,-1.0600,4.5981,9.8786,2.5231,6.6135,4.9262
2515.6250,7.3718,11.0584,9.6563,6.9595,2.4164,6.9905,8.9274,5.6165,9.9602,7.5939,7.2259,8.8319,7.8729,-0.4907,7.0209,10.8249,4.6516,9.6217,7.5710
2519.5312,9.7623,14.7198,14.1152,8.7679,2.1842,10.2648,9.7867,6.6505,13.1733,8.7314,10.4001,11.4421,9.9948,0.4092,9.2295,11.1396,6.4018,12.2257,10.2444
2523.4375,11.7946,17.8387,18.0507,10.6516,2.3812,12.9762,10.2643,7.7542,15.6677,9.4504,13.0888,13.1359,11.1371,1.7657,11.1107,11.6075,7.7250,14.1873,12.6576
2527.3438,12.9309,19.1416,19.8673,11.9552,2.7633,14.0233,10.3126,8.4608,16.7888,9.6634,14.6594,13.5367,11.2975,3.3895,12.4230,12.4136,8.5636,15.0670,14.2184
2531.2500,12.6813,17.7551,18.6997,12.0586,3.0140,12.7209,9.7326,8.2649,16.0696,9.2319,14.5983,12.5990,10.6427,4.9159,12.9180,13.1195,8.9190,14.5029,14.4011
2535.1562,10.9033,13.8107,14.8862,10.7873,2.9651,9.2924,8.4338,6.9592,13.5990,8.1810,12.8965,10.7516,9.5132,6.0323,12.5191,13.0754,8.9122,12.5190,13.1267
2539.0625,7.9738,8.5401,9.7861,8.5480,2.6511,4.9310,6.6339,4.8007,10.1249,6.8361,10.1829,8.7646,8.3295,6.6223,11.4215,11.9454,8.7575,9.6407,10.8764
2542.9688,4.7175,3.7725,5.1146,6.1242,2.2014,1.3014,4.7879,2.4082,6.7920,5.7473,7.4816,7.3837,7.4285,6.7538,10.0369,9.9861,8.6442,6.7277,8.4574
2546.8750,2.1203,1.1110,2.2129,4.2968,1.6996,-0.2907,3.2923,0.4757,4.6461,5.4223,5.7268,6.9512,6.9289,6.5699,8.8092,7.9185,8.6103,4.6213,6.5898
2550.7812,0.9659,1.2498,1.6287,3.5320,1.1522,0.4231,2.2335,-0.5082,4.1846,6.0350,5.3303,7.2581,6.7272,6.2012,8.0201,6.5129,8.5170,3.8179,5.5933
2554.6875,1.5618,3.7809,3.1236,3.8923,0.5928,2.5831,1.4307,-0.3831,5.1986,7.3060,6.0583,7.7258,6.6319,5.7639,7.6989,6.1669,8.1603,4.3338,5.3565
2558.5938,3.6576,7.5253,5.9627,5.1440,0.2179,4.7801,0.7649,0.7418,6.9660,8.6437,7.2640,7.7948,6.5384,5.4034,7.6730,6.7259,7.4463,5.7903,5.5511
2562.5000,6.5607,11.1300,9.2450,6.9188,0.4002,5.9458,0.5042,2.6223,8.6489,9.4632,8.2905,7.2578,6.5015,5.2864,7.7044,7.6137,6.4947,7.6118,5.8888
2566.4062,9.3800,13.5810,12.1179,8.8071,1.5144,5.9814,1.2879,4.9696,9.6522,9.4858,8.7755,6.3186,6.6390,5.4984,7.6150,8.1565,5.5784,9.2019,6.2269
2570.3125,11.3080,14.4217,13.8825,10.3745,3.6624,5.7202,3.6910,7.4550,9.7730,8.8440,8.6963,5.3600,6.9352,5.9132,7.3376,7.9033,4.9314,10.0426,6.4870
2574.2188,11.8623,13.6946,14.0811,11.1873,6.4856,6.2683,7.6516,9.6892,9.1283,7.9517,8.2025,4.6127,7.1102,6.1658,6.8980,6.7884,4.5636,9.7573,6.5199
2578.1250,11.0265,11.7730,12.6254,10.9252,9.2206,8.1860,12.2148,11.2680,7.9805,7.2458,7.4210,3.9827,6.6943,5.8069,6.3729,5.0965,4.2272,8.2056,6.0838
2582.0312,9.2472,9.2277,9.9078,9.5530,11.0011,11.0677,15.8636,11.9084,6.6031,6.9670,6.3983,3.1677,5.3031,4.5761,5.8608,3.2900,3.5737,5.6056,4.9905
2585.9375,7.2714,6.7483,6.7745,7.4283,11.2487,13.7919,17.2834,11.5935,5.2408,7.0930,5.1933,1.9649,2.9458,2.6132,5.4615,1.8061,2.4022,2.5865,3.3033
2589.8438,5.8607,5.0390,4.2755,5.2214,9.9276,15.2481,16.0731,10.6056,4.1195,7.4216,3.9885,0.5268,0.1513,0.4471,5.2423,0.9139,0.8332,0.0541,1.4085
2593.7500,5.4871,4.6244,3.2493,3.6391,7.5303,15.0336,12.9319,9.3852,3.4293,7.7137,3.0789,-0.6488,-2.2048,-1.2575,5.1897,0.6796,-0.7077,-1.1488,-0.1335
2597.6562,6.1422,5.6177,3.9313,3.0895,4.8215,13.6614,9.2127,8.2866,3.2555,7.8012,2.7144,-1.0030,-3.2933,-2.0344,5.1886,1.0329,-1.6777,-0.6436,-0.8730
2601.5625,7.3640,7.5951,5.8073,3.4862,2.5107,12.1755,6.1702,7.3891,3.5129,7.6230,2.9226,-0.2795,-2.7160,-1.8097,5.0759,1.8764,-1.6544,1.2563,-0.6916
2605.4688,8.4755,9.7089,7.8284,4.3213,1.0340,11.4656,4.4146,6.5011,3.9624,7.2127,3.4745,1.2972,-0.6568,-0.8328,4.7631,3.1649,-0.4852,3.6631,0.2002
2609.3750,8.9186,11.0343,8.9120,4.9684,0.5301,11.7466,3.8791,5.3659,4.3364,6.6746,4.0482,3.1607,2.2749,0.5867,4.3519,4.8928,1.7034,5.5539,1.4777
2613.2812,8.5102,10.9934,8.4840,5.0396,0.9521,12.5170,4.2040,3.9274,4.5003,6.1576,4.4751,4.7586,5.3859,2.3222,4.1320,6.9926,4.5912,6.2973,2.9539
2617.1875,7.4927,9.6308,6.7785,4.5889,2.1869,12.9683,5.1450,2.4678,4.5364,5.8097,4.8667,5.8739,8.1973,4.4663,4.4206,9.2148,7.7560,5.9615,4.6673
2621.0938,6.3721,7.5961,4.7243,4.0540,4.0826,12.5389,6.6634,1.5072,4.6766,5.7086,5.5018,6.6858,10.5286,7.1323,5.3191,11.0941,10.7276,5.2234,6.7353
2625.0000,5.6512,5.8434,3.4647,3.9858,6.3865,11.2500,8.6716,1.5172,5.1242,5.8025,6.5446,7.5408,12.3607,10.1817,6.5576,12.0680,13.0265,4.9365,9.0925
2628.9062,5.6077,5.2036,3.7594,4.7228,8.6818,9.6418,10.7321,2.6241,5.8878,5.9187,7.8123,8.6111,13.6253,13.0985,7.5658,11.7144,14.2408,5.6207,11.3319
2632.8125,6.2158,6.0262,5.5842,6.1816,10.4190,8.3932,12.0539,4.4850,6.7491,5.8601,8.7924,9.6927,14.1021,15.1257,7.7670,9.9808,14.1464,7.1685,12.7962
2636.7188,7.2076,8.0315,8.1428,7.8554,11.0609,7.8829,11.8792,6.4076,7.3818,5.5387,8.9259,10.2843,13.5034,15.5918,6.9221,7.2585,12.8096,8.9157,12.8824
2640.6250,8.2027,10.4072,10.2696,9.0039,10.2733,7.9527,10.0026,7.6395,7.5324,5.0455,7.9644,9.8826,11.6767,14.2191,5.2909,4.2359,10.5791,9.9988,11.3640
2644.5312,8.8250,12.0994,10.9960,8.9401,8.0508,7.9967,7.0164,7.6641,7.1303,4.5835,6.1392,8.2850,8.7670,11.2262,3.4866,1.6007,7.9376,9.7722,8.5168
2648.4375,8.7769,12.1981,9.9694,7.3009,4.7070,7.3162,4.0496,6.3673,6.2597,4.2958,4.0142,5.7008,5.2152,7.1874,2.1077,-0.2384,5.2821,8.0639,4.9750
2652.3438,7.8898,10.2954,7.5289,4.2077,0.7484,5.5498,2.1368,4.0298,5.0446,4.1148,2.1276,2.6267,1.5932,2.7697,1.3918,-1.2555,2.7752,5.1821,1.4239
2656.2500,6.1755,6.6948,4.4536,0.2684,-3.2810,2.9481,1.6296,1.1963,3.5617,3.7707,0.6895,-0.3946,-1.6078,-1.4684,1.1280,-1.6890,0.3725,1.7397,-1.6622
2660.1562,3.8680,2.3674,1.5844,-3.5814,-6.8959,0.3347,2.0423,-1.4957,1.8679,2.9861,-0.4454,-2.9561,-4.0993,-5.1161,0.8805,-1.8011,-1.9871,-1.5653,-4.0850
2664.0625,1.4100,-1.3683,-0.4551,-6.3575,-9.6766,-1.2639,2.4262,-3.4675,0.1149,1.7348,-1.5194,-4.8116,-5.7674,-7.8262,0.3560,-1.6839,-4.1664,-4.1136,-5.7925
2667.9688,-0.6502,-3.3490,-1.3343,-7.3421,-11.2365,-1.1563,2.0078,-4.3182,-1.3629,0.3678,-2.5416,-5.7907,-6.5544,-9.2437,-0.3541,-1.2369,-5.7573,-5.4567,-6.6967
2671.8750,-1.8339,-3.0406,-0.9548,-6.3242,-11.2304,0.5891,0.6754,-3.9123,-2.1023,-0.5218,-3.1544,-5.7321,-6.3707,-9.0562,-0.8237,-0.3138,-6.2285,-5.3771,-6.6029
2675.7812,-1.9000,-0.7519,0.6018,-3.6699,-9.4487,3.1016,-0.9723,-2.4181,-1.7115,-0.4358,-2.8162,-4.5262,-5.1234,-7.1596,-0.5868,1.0823,-5.2176,-3.9378,-5.3118
2679.6875,-0.9187,2.5364,3.0433,-0.1802,-5.9634,5.1277,-2.0002,-0.2660,-0.0998,0.7069,-1.1762,-2.2430,-2.8437,-3.8195,0.5481,2.7067,-2.7866,-1.4909,-2.8163
2683.5938,0.7877,5.6517,5.8152,3.2167,-1.2322,5.7207,-1.6705,1.9890,2.4250,2.4930,1.6291,0.7773,0.1951,0.3135,2.3853,4.1610,0.5299,1.4102,0.5652
2687.5000,2.7946,7.7661,8.1742,5.8123,3.9389,4.8039,0.1756,3.8612,5.2720,4.2547,4.9745,3.9765,3.4844,4.3888,4.4881,5.1129,3.9256,4.2014,4.2319
2691.4062,4.7230,8.7076,9.4535,7.3534,8.5958,3.2367,3.0559,5.0947,7.8338,5.4724,8.0428,6.7788,6.4437,7.6597,6.4421,5.5065,6.6635,6.5252,7.5155
2695.3125,6.3128,8.8929,9.4120,8.0588,11.9299,2.2963,6.0696,5.7015,9.7380,6.0663,10.2161,8.8210,8.6578,9.7418,8.0290,5.6223,8.3682,8.3474,9.9398
2699.2188,7.4140,8.9605,8.4313,8.4146,13.5254,2.8597,8.2532,5.8554,10.9347,6.3760,11.3125,10.0666,10.0410,10.6791,9.2030,5.9328,9.1190,9.8843,11.3764
2703.1250,7.9501,9.3428,7.3657,8.8526,13.4380,4.7974,8.9134,5.7131,11.5906,6.8484,11.5465,10.7349,10.8190,10.7914,9.9461,6.8281,9.3129,11.3700,12.0130
2707.0312,7.9107,10.0322,7.0705,9.4807,12.0667,6.9871,7.8462,5.2876,11.8924,7.6649,11.2932,11.1050,11.3313,10.4021,10.1765,8.3660,9.3935,12.8108,12.1710
2710.9375,7.3826,10.6424,7.8748,10.0099,9.8938,7.9675,5.4054,4.4623,11.9041,8.5769,10.8469,11.3301,11.7732,9.6170,9.8195,10.1973,9.5997,13.8933,12.0904
2714.8438,6.5661,10.6790,9.3323,9.9170,7.2395,6.8332,2.3999,3.1379,11.5579,9.0630,10.3214,11.3739,12.0376,8.2826,8.9729,11.7200,9.8553,14.1215,11.8040
2718.7500,5.7198,9.8214,10.4273,8.7563,4.1640,3.8032,-0.1777,1.3994,10.7437,8.6846,9.6916,11.0769,11.7561,6.1399,7.9790,12.3830,9.8360,13.1028,11.1510
2722.6562,5.0268,8.0513,10.1172,6.4427,0.5647,0.1034,-1.5315,-0.4318,9.3955,7.3758,8.8745,10.2719,10.5132,3.0700,7.2665,11.9661,9.1605,10.7996,9.8978
2726.5625,4.4615,5.5989,7.8847,3.3434,-3.5993,-2.7506,-1.4125,-1.9198,7.5076,5.4642,7.7515,8.8546,8.1084,-0.7248,7.0242,10.6672,7.6027,7.5821,7.8833
2730.4688,3.7635,2.7957,3.9865,0.1212,-8.0971,-3.8089,-0.2639,-2.7470,5.0995,3.4279,6.1450,6.7840,4.7099,-4.7171,6.9544,8.9418,5.2260,4.0526,5.1169
2734.3750,2.5749,-0.0417,-0.6940,-2.5781,-12.3624,-3.1567,0.9481,-2.9009,2.2101,1.5887,3.8422,4.0629,0.8206,-8.2326,6.3539,7.1913,2.3842,0.7623,1.8012
2738.2812,0.6857,-2.6445,-5.0413,-4.4084,-15.6269,-1.7550,1.1752,-2.6816,-1.0328,-0.0264,0.7319,0.7614,-2.9155,-10.7067,4.5480,5.5072,-0.4047,-1.9969,-1.7048
2742.1875,-1.7607,-4.7764,-8.1035,-5.4134,-17.1924,-0.8214,-0.2008,-2.5072,-4.3156,-1.5678,-3.0028,-2.9074,-5.9488,-11.8753,1.4186,3.6512,-2.6495,-4.2084,-4.9560
2746.0938,-4.2480,-6.2456,-9.3329,-5.8823,-16.7046,-1.1679,-3.0376,-2.6373,-7.1299,-3.1135,-6.7983,-6.5330,-7.9800,-11.8030,-2.3609,1.2990,-4.0524,-5.9807,-7.5089
2750.0000,-6.0945,-6.9720,-8.6744,-6.0864,-14.2975,-2.8699,-6.4556,-2.9969,-8.9298,-4.5103,-9.8642,-9.5591,-8.9749,-10.7578,-5.6084,-1.6072,-4.5746,-7.3684,-9.0200
2753.9062,-6.7825,-7.0602,-6.5712,-6.0793,-10.5436,-5.3651,-9.2047,-3.2223,-9.4016,-5.4479,-11.5449,-11.4610,-9.0671,-9.0307,-7.2992,-4.6531,-4.3783,-8.2989,-9.3392
2757.8125,-6.2172,-6.7923,-3.8979,-5.6927,-6.2425,-7.8091,-10.2007,-2.9086,-8.6718,-5.7079,-11.6725,-11.9615,-8.4304,-6.8250,-7.1842,-7.0660,-3.6909,-8.6378,-8.5582
2761.7188,-4.7625,-6.4983,-1.7385,-4.7142,-2.1561,-9.4265,-8.9844,-1.8976,-7.2757,-5.3739,-10.6567,-11.1469,-7.1977,-4.2735,-5.9263,-8.1088,-2.6798,-8.3131,-6.9725
2765.6250,-3.0336,-6.3579,-0.9569,-3.1043,1.1906,-9.7060,-5.9042,-0.4180,-5.8603,-4.8143,-9.2110,-9.3964,-5.4580,-1.5466,-4.6360,-7.5092,-1.4154,-7.3755,-4.9494
2769.5312,-1.5804,-6.2632,-1.6940,-1.0889,3.5682,-8.4590,-1.9584,1.0147,-4.7925,-4.4229,-7.8809,-7.1658,-3.3066,1.0552,-4.1152,-5.6320,0.0622,-5.9468,-2.7610
2773.4375,-0.6522,-5.8536,-3.1112,0.9331,4.9644,-5.8421,1.6265,1.8762,-3.9444,-4.3126,-6.7011,-4.7751,-0.9041,3.1131,-4.3340,-3.2632,1.6316,-4.1162,-0.4856
2777.3438,-0.1734,-4.7335,-3.6844,2.5893,5.4365,-2.3781,3.8969,1.9110,-2.8286,-4.2097,-5.2417,-2.3454,1.4923,4.2169,-4.5167,-1.1440,3.0277,-1.9019,1.9370
2781.2500,0.0884,-2.7559,-2.0456,3.6851,4.9928,1.0944,4.5361,1.2416,-1.0166,-3.6571,-3.0303,0.0813,3.5398,4.1280,-3.7769,0.4231,3.8903,0.6586,4.5087
2785.1562,0.3014,-0.1976,2.0563,4.2070,3.5734,3.6328,3.9300,0.2569,1.4455,-2.4003,-0.0526,2.3504,4.8621,2.8709,-1.8500,1.6173,3.9099,3.3503,6.9584
2789.0625,0.4537,2.2995,7.3186,4.2059,1.1458,4.5481,2.9015,-0.6262,3.9317,-0.6695,3.0452,4.1042,5.1364,0.7024,0.6103,2.7634,2.9815,5.7043,8.6852
2792.9688,0.4100,4.0094,11.3876,3.6896,-2.1428,3.7382,2.2411,-1.1655,5.5494,0.8688,5.2333,4.8937,4.2043,-2.0078,2.3933,3.8777,1.2712,7.1210,8.9620
2796.8750,0.0759,4.4792,12.1291,2.6377,-5.8529,1.7771,2.2793,-1.3446,5.6839,1.4879,5.6975,4.4396,2.1745,-4.8901,2.5078,4.4624,-0.8488,7.1665,7.3348
2800.7812,-0.4720,3.7632,8.9346,1.1327,-9.2710,-0.3429,2.7389,-1.2760,4.4108,0.8624,4.3660,2.8665,-0.5350,-7.6098,0.8370,3.7534,-2.9537,5.8664,3.9928
2804.6875,-0.9955,2.4007,3.2131,-0.5206,-11.5893,-1.7014,2.9575,-1.0638,2.4883,-0.7025,2.0040,0.7336,-3.2688,-9.8334,-1.7728,1.2956,-4.7137,3.7823,-0.1458
2808.5938,-1.2431,1.1463,-2.3111,-1.8305,-12.1893,-1.8934,2.3500,-0.7394,0.9221,-2.4345,-0.1935,-1.1818,-5.3301,-11.2021,-4.0344,-2.5470,-5.9595,1.7800,-3.7496
2812.5000,-1.1209,0.6001,-5.1063,-2.3367,-10.9036,-1.1702,0.8213,-0.3074,0.3862,-3.5408,-1.2492,-2.2324,-6.2386,-11.3925,-4.9776,-6.5344,-6.6519,0.6056,-5.6606
2816.4062,-0.7564,0.9347,-4.2200,-1.8838,-8.1215,-0.2094,-1.1352,0.1655,0.8764,-3.6375,-0.8821,-2.1792,-5.9292,-10.2661,-4.4347,-9.0612,-6.8116,0.5246,-5.4402
2820.3125,-0.3991,1.8572,-0.6909,-0.7484,-4.6684,0.3243,-2.7172,0.5186,1.8081,-2.8869,0.4559,-1.2494,-4.7752,-8.0165,-2.9692,-8.9703,-6.4785,1.2486,-3.5555
2824.2188,-0.2324,2.8129,3.2245,0.4922,-1.5013,0.1546,-3.2827,0.5705,2.4628,-1.7835,1.9553,0.0350,-3.4019,-5.1916,-1.3708,-6.1888,-5.7277,2.1829,-1.0951
2828.1250,-0.2379,3.3048,5.4489,1.2810,0.6438,-0.5019,-2.6963,0.2455,2.4627,-0.7760,2.9513,1.1354,-2.3753,-2.5292,-0.1207,-1.7966,-4.7077,2.8172,0.8212
2832.0312,-0.2220,3.1507,5.1917,1.3795,1.4891,-1.1234,-1.3361,-0.3542,1.9594,-0.0083,3.2316,1.7246,-1.9305,-0.6678,0.8026,2.5188,-3.6379,2.9932,1.5895
2835.9375,0.0044,2.5445,3.1243,0.9408,1.2369,-1.2199,0.2060,-1.0054,1.4422,0.6514,3.0098,1.7661,-1.8909,0.1198,1.7013,5.3041,-2.7332,2.8886,1.3200
2839.8438,0.4244,1.9044,0.6600,0.3199,0.3866,-0.6180,1.4834,-1.5218,1.3383,1.3571,2.6617,1.4511,-1.8231,0.0173,2.7586,5.9951,-2.0885,2.7666,0.6094
2843.7500,0.7485,1.6059,-1.0509,-0.2276,-0.5397,0.4423,2.3458,-1.8975,1.7004,2.0365,2.4479,1.0626,-1.3319,-0.4694,3.8029,5.0422,-1.6075,2.7028,0.0723
2847.6562,0.5531,1.7498,-1.7169,-0.7327,-1.2246,1.4179,2.8045,-2.3245,2.1791,2.3588,2.3922,0.8354,-0.3223,-0.7955,4.4053,3.4909,-1.0447,2.4990,-0.0544
2851.5625,-0.4502,2.0875,-1.8020,-1.4590,-1.6442,1.7051,2.7804,-3.0624,2.2612,1.9482,2.3301,0.8532,0.9206,-0.6550,4.2011,2.3171,-0.1616,1.8314,-0.0072
2855.4688,-2.1941,2.1321,-1.9692,-2.6656,-2.0086,0.9001,2.0004,-4.2517,1.5770,0.6747,2.0262,0.9928,1.8722,-0.1136,3.1588,1.9189,1.0878,0.5041,-0.2758
2859.3750,-4.2370,1.3890,-2.5761,-4.3764,-2.6187,-1.0266,0.1787,-5.8052,0.0716,-1.2059,1.2611,0.9419,2.0421,0.4546,1.5914,2.0300,2.4653,-1.3949,-1.2491
2863.2812,-5.9754,-0.4072,-3.5596,-6.3219,-3.7133,-3.7084,-2.6364,-7.4454,-2.0297,-3.1736,-0.1195,0.3142,1.2300,0.5782,-0.0676,2.0416,3.5268,-3.5403,-2.9565
2867.1875,-6.9551,-3.1496,-4.6565,-8.0704,-5.3558,-6.5234,-5.8445,-8.8437,-4.3685,-4.7333,-2.1409,-1.1401,-0.3579,-0.0612,-1.5150,1.4823,3.8501,-5.5551,-5.0304
2871.0938,-7.0823,-6.3564,-5.6439,-9.2223,-7.3724,-8.8323,-8.4315,-9.7385,-6.5673,-5.6552,-4.5948,-3.3075,-2.1714,-1.4456,-2.6501,0.3461,3.2911,-7.1667,-6.8609
2875.0000,-6.5999,-9.2908,-6.3504,-9.5150,-9.3445,-10.1972,-9.4343,-9.9420,-8.2432,-5.9970,-6.9615,-5.6056,-3.5077,-3.1750,-3.4411,-0.9194,2.1187,-8.2072,-7.8142
2878.9062,-5.8547,-11.1583,-6.4836,-8.7907,-10.6647,-10.4609,-8.4393,-9.2573,-8.9802,-5.9159,-8.4797,-7.1155,-3.7432,-4.5781,-3.7521,-1.7222,0.9339,-8.4865,-7.4057
2882.8125,-5.0227,-11.3232,-5.5450,-6.9159,-10.6729,-9.6538,-5.7754,-7.4232,-8.3752,-5.4454,-8.4186,-6.9499,-2.5255,-4.9463,-3.3280,-1.7102,0.3998,-7.6934,-5.3954
2886.7188,-3.9908,-9.4983,-3.0450,-3.7850,-8.8658,-7.8201,-2.2702,-4.2015,-6.2064,-4.4356,-6.4517,-4.6943,0.1198,-3.8167,-1.9910,-0.9764,0.9163,-5.4726,-1.8365
2890.6250,-2.4796,-5.8636,1.0687,0.5458,-5.1204,-4.9293,1.2469,0.3975,-2.6389,-2.7140,-2.9093,-0.6761,3.7866,-1.1943,0.1091,0.0471,2.4103,-1.6800,2.8995
2894.5312,-0.3275,-1.0687,6.1112,5.6887,0.1643,-0.9889,4.3366,5.8925,1.6946,-0.3402,1.2876,4.1208,7.7869,2.3887,2.4248,0.9224,4.3540,3.3513,8.1443
2898.4375,2.2665,3.9044,10.8095,10.8837,6.0952,3.6957,6.9772,11.3037,5.8494,2.2645,5.0196,8.4746,11.3326,6.0261,4.2337,1.5318,6.0031,8.7547,13.0471
2902.3438,4.7223,8.0083,13.8943,15.1791,11.5020,8.3330,9.2569,15.4105,8.9190,4.4432,7.4783,11.4561,13.7523,8.7567,5.0321,2.1537,6.7292,13.3823,16.7866
2906.2500,6.3196,10.4503,14.7661,17.7625,15.2733,11.7614,11.0207,17.2042,10.3957,5.6268,8.4850,12.7698,14.6714,9.9116,4.8225,3.2154,6.2794,16.2559,18.8055
2910.1562,6.5669,10.9475,13.7663,18.2531,16.6757,12.9180,11.7873,16.2975,10.3329,5.6391,8.4335,12.7259,14.0848,9.3330,4.0733,4.8754,4.8398,16.9602,18.9519
2914.0625,5.4766,9.8002,11.8476,16.7778,15.5320,11.4305,11.0246,13.0595,9.2245,4.7712,7.9168,11.8935,12.2917,7.3650,3.3669,6.7350,2.8929,15.7481,17.4479
2917.9688,3.5760,7.7341,9.8757,13.8040,12.2005,7.9405,8.5780,8.4023,7.6891,3.5749,7.3059,10.6852,9.7304,4.6432,2.9851,7.9214,0.9636,13.3104,14.7138
2921.8750,1.6456,5.5674,8.0626,9.8620,7.3871,3.8761,4.9128,3.3493,6.1581,2.5208,6.5630,9.1451,6.7979,1.8051,2.7311,7.5451,-0.6040,10.3737,11.1628
2925.7812,0.3346,3.8529,5.9344,5.3467,1.8889,0.7348,0.9626,-1.3687,4.7409,1.7543,5.3867,7.0553,3.7426,-0.7319,2.1145,5.2656,-1.7381,7.3764,7.0896
2929.6875,-0.1276,2.6689,2.8309,0.5010,-3.6263,-0.7145,-2.3355,-5.4829,3.3068,1.1032,3.5476,4.2465,0.6668,-2.8410,0.7543,1.5876,-2.5821,4.3939,2.6953
2933.5938,0.0272,1.6670,-1.4435,-4.4615,-8.7315,-0.7989,-4.5037,-9.0771,1.6896,0.3043,1.1496,0.8663,-2.3924,-4.6192,-1.2995,-2.3410,-3.3539,1.3051,-1.8127
2937.5000,0.3113,0.3561,-6.2903,-9.2307,-13.2232,-0.6231,-5.6784,-12.3165,-0.1330,-0.7330,-1.3684,-2.5932,-5.3696,-6.2565,-3.5555,-5.3336,-4.2140,-1.9553,-6.1485
2941.4062,0.2971,-1.5242,-10.5263,-13.3783,-17.0019,-1.2576,-6.3715,-15.1949,-1.9779,-1.8137,-3.4671,-5.5185,-8.1209,-7.9096,-5.3731,-6.7962,-5.1987,-5.2280,-9.9590
2945.3125,-0.1401,-3.7446,-12.9597,-16.4381,-19.9131,-2.9679,-7.0264,-17.4312,-3.5127,-2.5574,-4.7824,-7.4726,-10.4263,-9.6079,-6.3268,-6.9702,-6.2212,-8.1233,-12.8939
2949.2188,-0.7718,-5.5948,-12.9363,-18.0068,-21.6310,-4.9971,-7.6800,-18.5350,-4.3625,-2.6146,-5.2363,-8.3472,-12.0187,-11.1895,-6.3769,-6.6316,-7.1023,-10.1340,-14.6604
2953.1250,-1.1576,-6.1719,-10.5385,-17.7909,-21.6603,-6.0462,-7.9376,-17.9770,-4.2078,-1.8369,-4.9261,-8.2724,-12.6130,-12.2790,-5.7495,-6.4599,-7.6012,-10.7759,-15.0229
2957.0312,-0.8758,-4.8127,-6.3970,-15.6073,-19.4903,-5.1244,-7.2418,-15.3841,-2.8556,-0.3001,-3.9174,-7.3768,-11.9383,-12.3461,-4.6581,-6.5240,-7.4471,-9.6973,-13.7806
2960.9375,0.2879,-1.4423,-1.3314,-11.4091,-14.8585,-2.2011,-5.2276,-10.7013,-0.2988,1.7946,-2.1344,-5.6110,-9.7994,-10.8780,-3.1167,-6.2450,-6.3981,-6.7611,-10.7993
2964.8438,2.2736,3.3468,3.9271,-5.3855,-8.0030,1.7635,-1.9376,-4.2885,3.2346,4.2249,0.5450,-2.7955,-6.1787,-7.6341,-1.0015,-4.8536,-4.3380,-2.1248,-6.1290
2968.7500,4.8005,8.5309,8.8232,1.9123,0.2426,5.4012,2.1974,3.0794,7.2731,6.7675,4.0615,1.1217,-1.3454,-2.8663,1.6934,-2.0079,-1.3808,3.6974,-0.1489
2972.6562,7.4776,13.0773,12.9471,9.5441,8.6051,7.7266,6.5472,10.3407,11.1769,9.1403,8.0012,5.7917,4.1006,2.6412,4.6321,1.8746,2.0817,9.8543,6.3858
2976.5625,9.9043,16.3212,16.0171,16.3509,15.7389,8.6173,10.4939,16.3973,14.3022,10.9631,11.6393,10.4063,9.3155,7.7878,7.1563,5.8004,5.4471,15.3218,12.4849
2980.4688,11.7258,18.1028,17.9203,21.2912,20.6440,8.7088,13.5577,20.4163,16.1944,11.8271,14.2097,13.9533,13.4312,11.5543,8.5787,8.7575,8.0836,19.1940,17.2216
2984.3750,12.6585,18.6219,18.7475,23.7803,22.9297,8.8281,15.4234,22.0498,16.7158,11.4690,15.2457,15.6706,15.8278,13.3832,8.5672,10.2497,9.5564,20.9821,20.0385
2988.2812,12.5150,18.1445,18.7379,23.8381,22.8015,9.3752,15.9174,21.4618,16.0399,9.9408,14.7867,15.4299,16.3357,13.3377,7.3550,10.4537,9.7879,20.7660,20.8905
2992.1875,11.2487,16.7837,18.1373,21.9669,20.8108,10.0546,14.9925,19.1500,14.5222,7.6409,13.3258,13.8073,15.2694,11.9621,5.6221,9.9409,9.0729,19.1061,20.1532
2996.0938,9.0031,14.5081,17.0761,18.8540,17.5407,10.0994,12.7368,15.6754,12.5343,5.1600,11.5404,11.7836,13.2797,9.9529,4.1171,9.2191,7.9367,16.7642,18.3753
3000.0000,6.1292,11.3593,15.5678,15.1011,13.4222,8.8074,9.3954,11.4736,10.3578,3.0221,9.9710,10.2411,11.0986,7.8508,3.2606,8.4485,6.9110,14.3880,16.0425
3003.9062,3.1401,7.6926,13.6266,11.1298,8.7586,6.0405,5.3858,6.8517,8.1854,1.4815,8.8240,9.5507,9.2943,5.9265,2.9778,7.5078,6.3305,12.3258,13.4821
3007.8125,0.6011,4.2228,11.3839,7.2613,3.8770,2.3908,1.2897,2.1288,6.1896,0.4985,7.9853,9.4744,8.1285,4.2724,2.8494,6.2938,6.2376,10.6369,10.9143
3011.7188,-1.0175,1.7858,9.0776,3.8240,-0.7718,-1.0636,-2.2021,-2.2421,4.5773,-0.1096,7.1975,9.4146,7.5468,2.9604,2.4606,4.9597,6.4131,9.2344,8.5397
3015.6250,-1.4747,0.9312,6.9096,1.1400,-4.6934,-3.2600,-4.4248,-5.7266,3.5663,-0.4678,6.2761,8.8282,7.2668,2.0975,1.7116,3.8755,6.4974,8.0314,6.5490
3019.5312,-0.8362,1.6051,4.9026,-0.6330,-7.5868,-3.6408,-4.9554,-7.9471,3.2903,-0.5445,5.2355,7.5433,6.9086,1.7158,0.8915,3.3406,6.1345,6.9923,5.0285
3023.4375,0.5341,3.1415,2.9131,-1.6690,-9.5646,-2.3845,-3.8394,-8.9436,3.6959,-0.2204,4.2675,5.7989,6.1182,1.5977,0.4830,3.2947,5.0831,6.0878,3.8524
3027.3438,2.0742,4.5940,0.8258,-2.4720,-11.1586,-0.2803,-1.6842,-9.2287,4.5088,0.5364,3.5996,4.0198,4.6595,1.2131,0.8292,3.2817,3.2679,5.2324,2.6847
