Time,Fp1,F3,C3,P3,O1,F7,T3,T5,Fz,Fp2,F4,C4,P4,O2,F8,T4,T6,Cz,Pz
0.0000,0.6164,0.1193,-4.7861,-13.1272,-13.7977,-3.3096,-7.4338,-14.0440,1.3965,1.2122,1.7103,-3.2117,-11.0625,-13.8622,2.4536,-3.0700,-8.3115,-3.9248,-11.3581
3.9062,1.4335,-0.4706,-5.0264,-13.4121,-14.4783,1.4832,-9.2798,-13.6980,1.1123,1.2449,2.1131,-1.7973,-10.8852,-14.8566,2.6908,-2.9824,-9.7019,-3.9574,-12.6202
7.8125,2.7973,-0.0442,-4.6897,-12.4352,-13.7338,8.5167,-9.0108,-11.9758,1.6873,2.0212,2.8899,0.3906,-9.5121,-14.8462,3.0697,-2.2127,-10.6336,-2.7555,-13.0703
11.7188,4.7691,2.4309,-3.0019,-9.4424,-11.1824,16.4341,-4.4793,-8.5280,3.8199,3.8476,4.3611,3.5458,-6.3178,-12.9998,3.7244,-0.5437,-10.2818,0.4281,-11.6263
15.6250,7.2738,7.4238,0.7816,-4.0368,-7.0366,23.4725,4.8545,-3.3347,7.7079,6.6174,6.7991,7.8585,-1.0594,-8.9579,4.7607,1.9812,-8.1954,5.8058,-7.5456
19.5312,10.0132,14.3345,6.9297,3.6290,-1.8959,28.1717,17.0688,3.3365,12.7376,9.7440,10.1617,13.2676,5.9649,-3.0186,6.1361,5.0306,-4.5548,12.7908,-0.7744
23.4375,12.4586,21.4608,14.8578,12.8200,3.6232,29.8576,28.3431,11.0073,17.5678,12.3465,13.9023,19.1976,13.9635,3.9825,7.5817,8.0638,-0.0963,20.0873,7.9808
27.3438,13.9721,26.5528,23.0861,22.3532,9.1503,28.6975,34.7924,19.0393,20.6233,13.5988,17.0244,24.5149,21.8726,11.0164,8.6364,10.4798,4.2505,26.1216,17.4720
31.2500,14.0256,27.7374,29.6634,30.8725,14.5657,25.4109,34.5520,26.6709,20.7658,13.0562,18.4187,27.8401,28.6455,17.2330,8.8044,11.7883,7.7985,29.6123,26.2876
35.1562,12.4119,24.3601,32.9207,37.1987,19.8053,20.8890,28.8351,33.1146,17.7862,10.7954,17.3366,28.1262,33.4956,22.1765,7.7660,11.7509,10.3573,30.0060,33.2168
39.0625,9.3329,17.2989,32.1831,40.6480,24.6614,15.9392,21.2719,37.7447,12.4552,7.3189,13.7409,25.1933,36.0249,25.7667,5.5255,10.4508,12.1795,27.5838,37.4800
42.9688,5.3131,8.5668,28.0371,41.1947,28.7362,11.1948,15.8888,40.3007,6.1106,3.3037,8.3207,19.8776,36.2282,28.1070,2.4023,8.2592,13.6601,23.2200,38.7977
46.8750,0.9894,0.3923,21.9714,39.3825,31.5497,7.0936,14.9163,40.9544,0.0148,-0.6678,2.1504,13.6525,34.3950,29.2572,-1.1372,5.6941,14.9926,17.9382,37.3361
50.7812,-3.1169,-5.7593,15.5774,35.9989,32.6800,3.8255,17.6872,40.1404,-5.1758,-4.2824,-3.8110,7.8989,30.9539,29.1033,-4.7135,3.2120,15.9908,12.4892,33.5828
54.6875,-6.7389,-9.7258,9.7687,31.6657,31.8250,1.2673,21.1912,38.2180,-9.5654,-7.5338,-9.0885,3.2420,26.3116,27.3864,-8.1876,1.0210,16.1714,7.1319,28.1897
58.5938,-9.8735,-12.4891,4.4863,26.5760,28.7949,-0.9920,21.8637,35.1904,-13.7514,-10.6358,-13.7214,-0.6509,20.7518,23.8712,-11.6337,-0.9797,15.0374,1.6913,21.8178
62.5000,-12.6809,-15.4251,-0.9485,20.5516,23.5473,-3.4571,17.5360,30.7193,-18.3050,-13.8447,-17.9687,-4.6839,14.4447,18.5706,-15.1402,-3.0790,12.3963,-4.1550,15.0241
66.4062,-15.3312,-19.3815,-7.0823,13.4027,16.3417,-6.4271,8.5049,24.4792,-23.2869,-17.2393,-21.9041,-9.5979,7.5712,11.9187,-18.5656,-5.4974,8.5408,-10.5072,8.2297
70.3125,-17.8535,-24.0919,-13.6883,5.3630,7.9422,-9.7718,-2.7226,16.6370,-28.0500,-20.5377,-25.1761,-15.3420,0.4911,4.7932,-21.4161,-8.1361,4.2016,-16.9689,1.7744
74.2188,-20.0357,-28.2474,-19.6718,-2.7134,-0.3371,-12.9494,-12.7196,8.0997,-31.4292,-23.0624,-27.0889,-20.9390,-6.1696,-1.6595,-22.9533,-10.4980,0.2960,-22.6170,-3.9973
78.1250,-21.4188,-30.1898,-23.5969,-9.5750,-6.9154,-15.2724,-18.7161,0.2867,-32.2334,-23.9386,-26.9483,-24.9254,-11.6107,-6.3646,-22.4981,-11.8587,-2.4092,-26.2705,-8.7044
82.0312,-21.4155,-28.8387,-24.4918,-14.1300,-10.5230,-16.2545,-19.7141,-5.4967,-29.8053,-22.4987,-24.4542,-26.0986,-15.1283,-8.7002,-19.7767,-11.6189,-3.5725,-26.9674,-12.0078
85.9375,-19.5386,-24.3266,-22.4087,-16.0067,-10.7925,-15.8089,-16.7120,-8.7137,-24.3803,-18.7067,-19.9006,-24.1319,-16.4303,-8.7476,-15.1124,-9.6448,-3.3735,-24.4341,-13.7650
89.8438,-15.6532,-17.9696,-18.3791,-15.7566,-8.4987,-14.1823,-12.0462,-9.8490,-17.0540,-13.3339,-14.0758,-19.7206,-15.8051,-7.2714,-9.3489,-6.3948,-2.3996,-19.2958,-14.1499
93.7500,-10.1206,-11.5746,-13.8080,-14.5502,-5.2515,-11.7024,-8.2075,-10.0788,-9.3539,-7.7014,-7.9365,-14.2140,-14.0203,-5.4141,-3.5373,-2.7486,-1.3869,-12.8800,-13.6233
97.6562,-3.7242,-6.4779,-9.7126,-13.5377,-2.7743,-8.5440,-6.6744,-10.5555,-2.6112,-3.0598,-2.2500,-8.9832,-11.9850,-4.2392,1.4489,0.3688,-0.9444,-6.6790,-12.7345
101.5625,2.6133,-2.8793,-6.2883,-13.2619,-2.1579,-4.6852,-7.2967,-11.7598,2.5539,0.0590,2.6050,-4.8847,-10.3617,-4.3424,5.1772,2.3582,-1.3847,-1.7385,-11.8617
105.4688,8.1790,0.1233,-3.0409,-13.4670,-3.4938,-0.0701,-8.5311,-13.3131,6.3605,2.1038,6.6022,-2.0761,-9.3470,-5.7146,7.6836,3.1182,-2.7159,1.6932,-11.0601
109.3750,12.6794,3.8165,0.6634,-13.3830,-6.0380,5.1607,-8.4337,-14.3198,9.5405,4.1626,9.8609,-0.2030,-8.7232,-7.8890,9.2877,2.9559,-4.7496,4.0652,-10.1236
113.2812,16.1843,8.9069,5.0340,-12.2585,-8.7309,10.5513,-5.8846,-13.9642,12.7459,7.1883,12.4154,1.2272,-8.1084,-10.2378,10.3311,2.3338,-7.2206,6.0481,-8.8188
117.1875,18.8570,14.9161,9.6467,-9.7851,-10.7089,15.4129,-1.3232,-11.9507,16.0443,11.2684,14.1051,2.5303,-7.2098,-12.2174,10.9923,1.6346,-9.8279,7.9942,-7.1165
121.0938,20.6761,20.3251,13.6828,-6.1700,-11.5205,19.0574,3.5045,-8.5393,18.8103,15.4296,14.6437,3.7449,-5.9114,-13.4258,11.2622,1.0741,-12.1911,9.6856,-5.2408
125.0000,21.3666,23.3974,16.4058,-1.8760,-11.0048,21.0530,6.7002,-4.2372,20.0882,18.1388,13.8251,4.7479,-4.1723,-13.4981,11.0568,0.7727,-13.8051,10.5319,-3.4830
128.9062,20.6031,23.1815,17.5498,2.7397,-9.0316,21.3768,7.5632,0.5711,19.2065,18.2061,11.7486,5.4682,-1.8615,-11.9915,10.3661,0.8772,-14.0966,10.0809,-1.9012
132.8125,18.3419,20.0852,17.4083,7.6286,-5.3592,20.4142,7.2190,5.7860,16.2684,15.5221,8.9316,6.0524,1.3022,-8.4208,9.3403,1.6046,-12.6113,8.4967,-0.1263
136.7188,15.0275,15.6796,16.6496,12.9907,0.2627,18.8207,8.0112,11.4789,12.2152,11.1596,6.2276,6.8848,5.6279,-2.4786,8.2626,3.1539,-9.2476,6.6702,2.5662
140.6250,11.5002,11.8736,16.0368,19.0355,7.8203,17.2972,11.9527,17.6475,8.4205,6.7837,4.5526,8.4468,11.2199,5.6782,7.4333,5.5427,-4.3818,5.8632,6.9207
144.5312,8.6402,9.9644,16.2145,25.7463,16.7905,16.3447,19.2124,24.0457,6.0526,3.7570,4.5188,11.0733,17.7985,15.2745,7.0274,8.4879,1.2265,7.0767,13.2798
148.4375,6.9717,10.1065,17.5871,32.7742,26.0966,16.0815,27.6737,30.1815,5.5611,2.4970,6.1349,14.7123,24.7045,25.0285,6.9933,11.4283,6.7220,10.5047,21.3058
152.3438,6.4704,11.4413,20.2168,39.4780,34.3123,16.2091,33.9442,35.4328,6.5450,2.4433,8.7262,18.8060,31.0918,33.5106,7.0345,13.6957,11.4767,15.3784,29.9938
156.2500,6.6689,12.7105,23.7012,45.0465,40.0373,16.1781,35.2568,39.1714,8.0243,2.5775,11.1414,22.3890,36.1926,39.5809,6.6884,14.7549,15.2572,20.2797,37.9678
160.1562,6.9456,12.9290,27.1199,48.6556,42.3095,15.4986,31.0983,40.8547,8.9209,2.0991,12.1864,24.4117,39.5117,42.7052,5.4868,14.3939,18.1492,23.7467,43.9153
164.0625,6.7882,11.7383,29.2053,49.6588,40.9223,14.0344,23.5597,40.1390,8.4890,0.8229,11.1012,24.1799,40.8781,43.0239,3.1532,12.7820,20.3181,24.8595,46.9782
167.9688,5.8889,9.3398,28.7981,47.8101,36.5488,12.0884,16.2003,37.0601,6.5221,-0.8929,7.8610,21.7002,40.3804,41.1879,-0.2348,10.3835,21.7904,23.5390,46.9632
171.8750,4.0984,6.1833,25.4199,43.4508,30.6043,10.1976,12.1256,32.2146,3.3130,-2.5475,3.1561,17.7203,38.2681,38.0737,-4.2028,7.7794,22.4156,20.4554,44.3246
175.7812,1.3738,2.6802,19.6231,37.5215,24.8362,8.7467,12.4046,26.7604,-0.5433,-3.9000,-1.9384,13.3920,34.8794,34.5116,-8.0068,5.4773,22.0215,16.6345,39.9488
179.6875,-2.1757,-0.9024,12.8324,31.2967,20.7369,7.6591,15.6709,22.0902,-4.3962,-5.1137,-6.4348,9.7000,30.5975,31.1073,-10.9051,3.7761,20.6317,12.9699,34.8266
183.5938,-6.1863,-4.4015,6.6867,25.8924,18.9907,6.3905,19.0103,19.2413,-7.7576,-6.5968,-9.8076,6.9751,25.8060,28.1738,-12.4637,2.7203,18.5666,9.8641,29.7246
187.5000,-10.0275,-7.7075,2.2378,21.7854,19.2203,4.2511,19.5377,18.3521,-10.4487,-8.6968,-12.0982,4.7935,20.8328,25.7509,-12.7402,2.1408,16.3417,7.1462,24.9773
191.4062,-12.9928,-10.7884,-0.5055,18.6356,20.2014,0.8441,15.7946,18.5359,-12.6364,-11.4545,-13.7322,2.3446,15.9077,23.6815,-12.2406,1.7531,14.4268,4.2794,20.4831
195.3125,-14.6387,-13.7460,-2.4040,15.5561,20.4775,-3.6779,8.3314,18.3329,-14.7294,-14.5371,-15.1886,-0.9537,11.1698,21.7184,-11.6641,1.2699,13.0253,0.7434,15.9035
199.2188,-15.0576,-16.7907,-4.5206,11.6872,19.0752,-8.7022,-0.6777,16.5203,-17.1439,-17.3428,-16.7244,-4.9979,6.7209,19.6297,-11.5710,0.4892,12.0122,-3.6092,10.9590
203.1250,-14.8596,-20.0781,-7.4264,6.7221,15.9284,-13.4931,-8.4964,12.7902,-20.0299,-19.2016,-18.2932,-9.0224,2.6761,17.2667,-12.1563,-0.6645,11.0488,-8.4144,5.6524
207.0312,-14.8217,-23.4896,-10.9456,1.0486,11.7839,-17.5030,-13.0506,7.8635,-23.1000,-19.5970,-19.6570,-12.1040,-0.8475,14.5710,-13.2372,-2.1421,9.7817,-12.9523,0.2856
210.9375,-15.3982,-26.5198,-14.4544,-4.5589,7.6678,-20.4366,-13.8012,2.9772,-25.6797,-18.3551,-20.5684,-13.8048,-3.8032,11.5334,-14.4267,-3.7938,8.0001,-16.5087,-4.7287
214.8438,-16.4092,-28.3957,-17.4318,-9.4518,4.2632,-22.0800,-11.9100,-0.8942,-26.9795,-15.7474,-20.8828,-14.4887,-6.2805,8.1523,-15.3516,-5.3930,5.6911,-18.7255,-9.1193
218.7500,-17.1216,-28.3938,-19.7822,-13.4379,1.5874,-22.1274,-9.6118,-3.5456,-26.4555,-12.4395,-20.5396,-15.0544,-8.4735,4.4424,-15.7700,-6.6602,3.0138,-19.7239,-12.8764
222.6562,-16.6811,-26.1859,-21.6691,-16.7014,-0.8542,-20.2473,-9.0433,-5.4579,-24.0596,-9.2578,-19.4720,-16.2424,-10.5319,0.5010,-15.5428,-7.3059,0.2538,-19.9244,-16.1440
226.5625,-14.6221,-22.0208,-23.0353,-19.4076,-3.5876,-16.4032,-11.0811,-7.2391,-20.2509,-6.8399,-17.5626,-17.9946,-12.3818,-3.4170,-14.5434,-7.1089,-2.2141,-19.6923,-18.9635
230.4688,-11.1433,-16.6575,-23.2849,-21.3370,-6.7107,-11.1727,-14.8178,-9.0401,-15.7812,-5.3452,-14.7195,-19.3425,-13.6599,-6.8896,-12.6376,-6.0171,-3.9805,-19.0609,-21.0802
234.3750,-7.0017,-11.1079,-21.5063,-21.8706,-9.7602,-5.7305,-18.0304,-10.3834,-11.3979,-4.4122,-11.0357,-18.9534,-13.8529,-9.4229,-9.7966,-4.2190,-4.7083,-17.7320,-21.9972
238.2812,-3.1264,-6.3300,-17.1788,-20.3688,-11.9627,-1.3703,-18.4423,-10.5017,-7.6287,-3.4214,-6.9030,-15.9972,-12.5846,-10.6149,-6.2736,-2.1233,-4.2746,-15.3622,-21.2784
242.1875,-0.2061,-2.9846,-10.8549,-16.6680,-12.6678,1.1921,-15.0637,-8.8978,-4.7265,-1.9222,-2.9598,-10.7613,-9.8735,-10.2962,-2.6811,-0.2256,-2.8626,-11.9299,-18.9040
246.0938,1.5271,-1.2973,-4.2281,-11.3127,-11.6690,2.2683,-8.7840,-5.6923,-2.7344,0.0543,0.1374,-4.5899,-6.1768,-8.5646,0.1540,1.0936,-0.9145,-7.9108,-15.4061
250.0000,2.2538,-1.0200,0.6199,-5.3308,-9.2374,3.0367,-1.8356,-1.5250,-1.5752,2.0132,1.9954,0.8239,-2.1738,-5.7034,1.5321,1.7333,1.0686,-4.1207,-11.6494
253.9062,2.3586,-1.5049,2.3961,0.3017,-5.9100,4.8078,3.5251,2.8639,-1.1002,3.3362,2.6402,4.3333,1.5797,-2.0498,1.2385,1.9040,2.7777,-1.3135,-8.3636
257.8125,2.2088,-1.9192,1.4336,5.1323,-2.2212,8.1555,6.2513,7.0154,-1.1049,3.7040,2.4415,5.8522,4.9025,2.0954,-0.3086,2.0028,4.2392,0.2016,-5.7235
261.7188,2.0186,-1.5856,-0.4169,9.3218,1.4529,12.4738,6.8673,10.8192,-1.3593,3.2937,1.8566,6.2023,7.9896,6.4722,-2.2302,2.4039,5.7508,0.6798,-3.2552
265.6250,1.8168,-0.3274,-0.8414,13.3265,4.9010,16.2561,6.8082,14.2820,-1.6715,2.6177,1.1725,6.4647,11.1860,10.8176,-3.5930,3.2883,7.6469,0.7410,-0.1365
269.5312,1.4929,1.3888,1.5767,17.4441,8.0227,17.9292,7.3099,17.2703,-1.9433,2.1387,0.4267,7.3205,14.7079,14.8498,-3.8188,4.6066,10.0534,1.0080,4.2994
273.4375,0.8967,2.6681,6.5483,21.5679,10.8132,16.7271,8.6871,19.4991,-2.1596,1.9694,-0.4470,8.8082,18.5003,18.3252,-2.8721,6.1745,12.7961,1.8289,10.1703
277.3438,-0.0263,2.7123,12.3200,25.3059,13.3967,13.0956,10.4557,20.7873,-2.3046,1.8896,-1.3757,10.5769,22.2976,21.1372,-1.1495,7.8130,15.5123,3.2335,16.9848
281.2500,-1.1169,1.3736,16.7763,28.3221,16.0263,8.4315,12.0506,21.3335,-2.2769,1.6526,-2.0209,12.3398,25.7952,23.3687,0.8148,9.4261,17.8678,5.0838,23.9043
285.1562,-1.9880,-0.6368,18.6666,30.5951,18.9694,4.3689,13.4332,21.7123,-1.9048,1.3103,-1.9088,14.1216,28.7711,25.2320,2.6176,10.9656,19.7096,7.2454,30.1211
289.0625,-2.1848,-2.0807,18.1884,32.3762,22.3024,2.0445,15.0411,22.5191,-1.0933,1.2585,-0.7650,16.0984,31.0694,26.9138,4.0741,12.3311,21.0489,9.6269,35.1049
292.9688,-1.4820,-1.9231,16.6259,33.8884,25.7478,1.7080,17.1525,23.9041,-0.0137,1.9233,1.1645,18.1896,32.4938,28.4206,5.1147,13.3004,21.9091,12.0756,38.6125
296.8750,-0.1490,-0.0214,15.3721,35.0238,28.7007,2.7933,19.2847,25.3750,0.8255,3.3078,3.0556,19.7752,32.7482,29.5346,5.6181,13.5652,22.1821,14.2522,40.5382
300.7812,1.0292,2.6761,15.0174,35.2983,30.4783,4.3109,20.2448,26.0683,0.7369,4.7609,3.8061,19.8303,31.5211,29.9164,5.3340,12.8573,21.6247,15.6305,40.7799
304.6875,1.0757,4.5818,15.0687,34.1189,30.6654,5.3160,18.8889,25.3325,-0.8062,5.2011,2.5619,17.4525,28.6793,29.2888,3.9641,11.0844,20.0107,15.6637,39.2412
308.5938,-0.6436,4.3136,14.3938,31.1774,29.3408,5.2501,15.0093,23.2047,-3.8422,3.7077,-0.8204,12.4547,24.4307,27.5868,1.3493,8.3838,17.3262,14.0263,35.9556
312.5000,-3.9864,1.4244,12.0225,26.6887,27.0374,4.0629,9.6004,20.4192,-7.8203,0.1210,-5.6405,5.6275,19.3194,24.9881,-2.3630,5.0683,13.8563,10.7839,31.2066
316.4062,-7.9993,-3.4002,7.7759,21.3189,24.4583,2.1215,4.2330,17.9305,-11.8034,-4.7348,-10.6295,-1.5123,14.0361,21.8286,-6.6770,1.5122,10.0953,6.4026,25.5262
320.3125,-11.3421,-8.7384,2.3862,15.8725,22.1303,-0.0200,0.0055,16.2941,-14.8575,-9.3626,-14.4832,-7.3457,9.1608,18.4752,-10.8580,-1.9393,6.5370,1.6183,19.5558
324.2188,-12.9317,-13.1164,-2.8685,10.9648,20.2072,-1.8803,-3.0859,15.3554,-16.3925,-12.2609,-16.3697,-10.7945,4.9993,15.2334,-14.1389,-4.9961,3.4873,-2.7422,13.8540
328.1250,-12.4098,-15.5516,-6.7283,6.8787,18.5216,-3.2076,-5.8340,14.4611,-16.2708,-12.5765,-16.1722,-11.6524,1.5986,12.3139,-15.9372,-7.4083,1.0081,-5.9178,8.7691
332.0312,-10.1609,-15.7016,-8.4033,3.6415,16.8138,-3.9468,-8.8225,13.0136,-14.6740,-10.4042,-14.3879,-10.4938,-1.1082,9.8269,-16.0089,-8.9720,-1.0010,-7.3402,4.4326
335.9375,-6.9162,-13.6864,-7.7576,1.1942,14.9576,-4.0459,-11.5934,10.9410,-11.8784,-6.6289,-11.7900,-8.2857,-3.1564,7.7719,-14.4989,-9.5896,-2.6697,-6.7568,0.8435
339.8438,-3.2607,-9.8510,-5.2528,-0.5044,13.0294,-3.2615,-12.7326,8.7397,-8.1235,-2.4554,-9.0480,-5.9398,-4.5063,6.0276,-11.8780,-9.3467,-4.0714,-4.3402,-2.0370
343.7500,0.6017,-4.6858,-1.7550,-1.5004,11.1946,-1.1673,-10.8929,7.0803,-3.6470,1.1068,-6.4807,-3.9986,-5.1000,4.3884,-8.7785,-8.5241,-5.2204,-0.7083,-4.2354
347.6562,4.6880,1.1035,1.7159,-1.9210,9.5173,2.5575,-5.9773,6.2995,1.1984,3.5721,-4.0173,-2.5306,-4.9389,2.6737,-5.7788,-7.4921,-6.1085,3.2261,-5.7648
351.5625,8.8643,6.5720,4.2652,-1.9904,7.8483,7.7136,0.4833,6.1666,5.8947,5.0220,-1.3418,-1.2140,-4.0984,0.8704,-3.2190,-6.5227,-6.7164,6.5716,-6.6385
355.4688,12.6053,10.7365,5.3965,-1.9340,5.8826,13.3635,6.1429,6.0869,9.8646,5.8997,1.8646,0.4508,-2.6774,-0.7891,-1.1387,-5.6344,-6.9810,8.8044,-6.8745
359.3750,15.1208,12.9659,5.1936,-1.8373,3.3635,18.0680,9.3141,5.5685,12.6815,6.6735,5.6883,2.8681,-0.7475,-1.8976,0.6238,-4.5882,-6.7631,9.9474,-6.4951
363.2812,15.7886,13.3152,4.3050,-1.5728,0.3151,20.5380,10.0413,4.5968,14.2371,7.5234,9.8499,6.1040,1.6373,-2.0786,2.2246,-3.0574,-5.8724,10.4603,-5.5395
367.1875,14.5815,12.5282,3.6904,-0.8632,-2.8335,20.3259,9.9901,3.6560,14.7496,8.2010,13.7386,9.7837,4.3771,-1.2020,3.6341,-0.8725,-4.1613,10.9015,-4.0895
371.0938,12.1623,11.6453,4.2139,0.5636,-5.3107,18.0829,11.2324,3.4166,14.6082,8.1558,16.6207,13.2119,7.2868,0.5461,4.6172,1.8252,-1.6269,11.5767,-2.2770
375.0000,9.5518,11.4338,6.2732,2.8363,-6.2384,15.1589,14.7973,4.3434,14.1663,6.9014,17.9433,15.6921,10.1527,2.8046,4.9019,4.6318,1.5608,12.3991,-0.2456
378.9062,7.5759,11.9999,9.6436,5.9011,-4.9514,12.7784,19.9866,6.4960,13.6106,4.4371,17.5884,16.8831,12.8663,5.3037,4.4216,7.1023,5.1384,13.0307,1.9252
382.8125,6.4526,12.8242,13.6025,9.5793,-1.2752,11.3479,24.8599,9.6111,12.9570,1.4499,15.9257,16.9737,15.5288,8.0581,3.4410,8.9938,8.8789,13.1782,4.2764
386.7188,5.7707,13.1685,17.2456,13.6422,4.3532,10.3758,27.4675,13.3269,12.1270,-0.9078,13.6123,16.5449,18.4052,11.3312,2.4380,10.3569,12.6694,12.8118,6.9454
390.6250,4.8467,12.5559,19.8264,17.8343,10.9783,9.0431,26.9637,17.3371,11.0194,-1.6276,11.2385,16.1911,21.7144,15.3711,1.7927,11.4119,16.4671,12.1558,10.0548
394.5312,3.2004,11.0047,20.9723,21.8477,17.4150,6.9784,23.9382,21.3686,9.5399,-0.5178,9.0317,16.1484,25.3778,20.0978,1.4937,12.3054,20.1644,11.4860,13.5753
398.4375,0.8481,8.9028,20.7253,25.3132,22.6318,4.6333,19.9136,25.0650,7.6175,1.5073,6.8155,16.1861,28.9148,24.9742,1.0964,12.9337,23.4767,10.9165,17.2653
402.3438,-1.7372,6.6729,19.4434,27.8704,26.0796,2.9656,16.4691,27.9560,5.2585,2.7967,4.2615,15.8354,31.5966,29.1803,0.0061,12.9767,25.9644,10.3489,20.7414
406.2500,-3.9210,4.5071,17.6295,29.3047,27.8261,2.6782,14.5320,29.6095,2.6306,1.8677,1.2671,14.7818,32.7939,32.0005,-2.0765,12.1331,27.2052,9.6148,23.6440
410.1562,-5.2435,2.3497,15.7466,29.6617,28.4385,3.6138,14.0921,29.8850,0.1052,-1.6612,-1.8114,13.1272,32.3098,33.1828,-4.8519,10.3925,27.0206,8.6770,25.7884
414.0625,-5.6011,0.0946,14.0588,29.2462,28.6698,4.7898,14.2864,29.0837,-1.8264,-6.6991,-4.2631,11.3235,30.4820,33.0394,-7.4966,8.1431,25.6045,7.7113,27.1997
417.9688,-5.2151,-2.2009,12.5475,28.4824,29.1048,5.0594,13.7114,27.8358,-2.7663,-11.1654,-5.4288,9.8344,27.9883,32.2347,-9.1033,6.0171,23.4612,6.9980,28.0157
421.8750,-4.4592,-4.2686,10.9523,27.7137,29.9356,3.9016,10.9282,26.7578,-2.6432,-13.0911,-5.1510,8.7910,25.4863,31.4063,-9.2142,4.5578,21.1821,6.7098,28.3444
425.7812,-3.6697,-5.7713,8.9491,27.0621,30.9648,1.7497,5.1557,26.0946,-1.8042,-11.7022,-3.9554,7.9093,23.3180,30.8650,-8.0937,3.9209,19.1915,6.7708,28.1924
429.6875,-3.0260,-6.5060,6.3997,26.4261,31.8066,-0.3567,-3.0306,25.5960,-0.8783,-7.8382,-2.8112,6.7334,21.4546,30.5405,-6.5505,3.8053,17.6079,6.8971,27.5191
433.5938,-2.5260,-6.5039,3.5298,25.5967,32.1467,-1.4895,-11.4328,24.7226,-0.4711,-3.4581,-2.5952,5.0142,19.6771,30.1573,-5.4240,3.6611,16.2793,6.7809,26.3645
437.5000,-2.0365,-5.9717,0.8993,24.4010,31.8969,-1.3541,-16.8329,23.0469,-0.8725,-0.5403,-3.5860,2.9336,17.8291,29.4775,-5.0737,3.0372,14.9397,6.2694,24.9258
441.4062,-1.3888,-5.1547,-0.8577,22.7826,31.1546,-0.2612,-16.4585,20.5730,-1.9532,-0.0351,-5.3088,1.0082,15.9502,28.4252,-5.2075,1.8468,13.3715,5.4054,23.4919
445.3125,-0.4874,-4.2467,-1.3938,20.7917,30.0054,1.3226,-9.6426,17.7518,-3.3008,-1.4596,-6.8248,-0.2398,14.2074,27.0316,-5.1441,0.3866,11.4785,4.3229,22.2571
449.2188,0.6142,-3.3991,-0.8797,18.5269,28.3174,3.1747,1.3620,15.1813,-4.4799,-3.3072,-7.2777,-0.5870,12.7067,25.2853,-4.3059,-0.8804,9.2577,3.1137,21.1438
453.1250,1.7204,-2.7655,0.0624,16.0910,25.6919,5.2904,12.1244,13.1979,-5.2332,-3.9639,-6.3532,-0.1682,11.3555,23.0466,-2.5937,-1.6151,6.7341,1.7977,19.7870
457.0312,2.6029,-2.4755,0.7166,13.5882,21.6509,7.4916,18.1283,11.6461,-5.5021,-2.5653,-4.3773,0.7235,9.9018,20.1215,-0.3924,-1.7626,3.9377,0.4300,17.7356
460.9375,3.1701,-2.5070,0.7112,11.1440,15.9893,9.1230,17.0803,9.9911,-5.2916,0.6591,-2.0214,1.9062,8.1377,16.4544,1.7670,-1.4829,0.9529,-0.7556,14.7779
464.8438,3.5924,-2.5551,0.2604,8.9055,9.0940,9.2647,10.0680,7.7066,-4.5195,4.6635,0.1675,3.4224,6.1250,12.2939,3.6212,-0.9204,-1.9979,-1.3139,11.1940
468.7500,4.2798,-2.0513,0.0429,7.0077,2.0073,7.4413,0.8688,4.6799,-2.9868,8.2396,2.1000,5.4219,4.2756,8.1907,5.3555,0.0004,-4.5159,-0.7399,7.7536
472.6562,5.6874,-0.4049,0.7795,5.5241,-3.8738,4.2964,-6.1288,1.3554,-0.5040,10.6433,4.1338,7.9368,3.2107,4.7965,7.4230,1.5879,-6.0929,1.2662,5.4168
476.5625,8.0421,2.6333,2.7697,4.4406,-7.3706,1.5888,-8.1015,-1.4929,2.9189,11.8773,6.7472,10.7551,3.4659,2.5714,10.1397,4.1712,-6.2768,4.5825,4.8712
480.4688,11.1495,6.7130,5.6743,3.6728,-8.0915,1.3086,-4.8274,-3.2220,6.9572,12.5408,10.1207,13.5017,5.2050,1.5758,13.3530,7.7988,-4.8641,8.6390,6.1483
484.3750,14.4077,10.9310,8.6802,3.1168,-6.6722,4.4050,1.7998,-3.7140,11.0154,13.3851,13.8989,15.8499,8.1059,1.4771,16.4235,12.0577,-2.0178,12.6042,8.5437
488.2812,17.0325,14.1990,10.9391,2.7077,-4.5008,10.0124,9.1646,-3.4317,14.4099,14.8322,17.2878,17.6797,11.4820,1.7751,18.5385,16.1570,1.7642,15.6794,10.9092
492.1875,18.3710,15.7385,12.0078,2.4611,-3.0208,15.8061,15.1915,-3.0793,16.5919,16.7014,19.4348,19.0579,14.5776,2.1177,19.1501,19.2576,5.8295,17.3566,12.1917
496.0938,18.1397,15.4193,12.0216,2.4892,-2.9586,19.3464,18.8058,-3.0775,17.3078,18.2769,19.8722,20.0807,16.8866,2.5254,18.2551,20.8643,9.6235,17.5378,11.9483
500.0000,16.4811,13.7542,11.5120,2.9852,-3.9104,19.5395,19.6861,-3.2027,16.6496,18.6835,18.7701,20.7407,18.3404,3.3904,16.3550,21.0511,12.8887,16.5071,10.5673
503.9062,13.8494,11.5770,11.0060,4.1669,-4.5488,17.2157,17.9081,-2.6570,15.0023,17.3857,16.8492,20.9503,19.2782,5.2425,14.1455,20.3804,15.7038,14.8038,9.0683
507.8125,10.8215,9.6185,10.6825,6.1817,-3.3671,14.4201,13.9527,-0.5601,12.9218,14.5399,14.9956,20.6907,20.2220,8.4026,12.1506,19.5604,18.3390,13.0529,8.5742
511.7188,7.9303,8.2266,10.3147,9.0017,0.4446,12.9211,8.9884,3.4330,10.9722,10.9807,13.7836,20.1263,21.5711,12.7148,10.5186,19.0426,21.0001,11.7864,9.7270
515.6250,5.5651,7.3536,9.5355,12.3689,6.4930,12.9951,4.9046,8.7957,9.5525,7.8068,13.1718,19.5313,23.3682,17.5135,9.0683,18.7905,23.6116,11.2831,12.3584
519.5312,3.9196,6.7497,8.2377,15.8514,13.3435,13.3417,3.6825,14.3222,8.7604,5.7747,12.5468,19.0490,25.2526,21.8628,7.5031,18.3500,25.7710,11.4740,15.5881
523.4375,2.9662,6.1912,6.8151,19.0083,19.2584,12.1640,6.2809,18.7556,8.3583,4.8663,11.1019,18.4756,26.6240,24.9570,5.6265,17.1632,26.9190,11.9681,18.2906
527.3438,2.4624,5.5923,6.0417,21.5857,23.0788,8.6145,11.7683,21.4648,7.8888,4.3271,8.3442,17.2879,26.9335,26.4738,3.4300,14.9300,26.6337,12.2230,19.6678
531.2500,2.0250,4.9668,6.6188,23.6164,24.7470,3.5580,17.4464,22.7321,6.9145,3.1974,4.4393,14.9664,25.9538,26.6903,1.0405,11.7967,24.8806,11.8076,19.6137
535.1562,1.2793,4.3222,8.6655,25.3457,25.1939,-0.8951,20.1012,23.4687,5.2697,1.0189,0.1880,11.4215,23.8925,26.2946,-1.3880,8.2689,22.0634,10.6330,18.6912
539.0625,0.0339,3.5957,11.5015,27.0178,25.7110,-2.7562,17.7287,24.5510,3.1799,-1.7635,-3.3667,7.2159,21.2982,26.0030,-3.7383,4.9170,18.8434,9.0214,17.7735
542.9688,-1.6193,2.6823,13.9127,28.6649,27.2128,-1.4770,10.6922,26.2309,1.1592,-4.0239,-5.4790,3.3833,18.8157,26.2017,-5.9137,2.0669,15.8314,7.5597,17.5814
546.8750,-3.3540,1.5156,14.7809,30.0447,29.8145,1.6686,1.5947,28.0093,-0.2767,-4.7168,-6.0770,0.9177,16.9177,26.8132,-7.7868,-0.3327,13.3343,6.7990,18.3748
550.7812,-4.7962,0.1167,13.6949,30.7675,32.9046,4.3670,-6.0555,29.0299,-0.9221,-3.6949,-5.7628,0.2390,15.7378,27.4388,-9.1914,-2.5960,11.2940,6.9501,19.9195
554.6875,-5.7389,-1.4401,11.1348,30.5060,35.5620,4.6618,-9.5911,28.6793,-1.0323,-2.0006,-5.4523,0.9632,15.0595,27.6487,-9.9944,-5.0265,9.4249,7.7256,21.6625
558.5938,-6.2501,-3.1147,8.0861,29.1228,36.9959,2.0554,-8.3810,26.9458,-1.2135,-1.3558,-5.8837,2.1065,14.4367,27.2042,-10.2071,-7.6699,7.4370,8.4080,22.9509
562.5000,-6.6038,-4.9580,5.3308,26.6259,36.7477,-2.3296,-3.9332,24.2874,-2.1024,-3.0967,-7.2863,2.5801,13.3707,26.0632,-10.0458,-10.2512,5.1928,8.1230,23.1713
566.4062,-7.0803,-7.0620,2.9129,23.0264,34.6328,-6.5261,0.9820,21.1534,-4.0108,-7.2125,-9.3701,1.6800,11.4757,24.2003,-9.8690,-12.3259,2.7198,6.2114,21.8149
570.3125,-7.7689,-9.4103,0.1897,18.2753,30.6031,-8.8583,3.6256,17.5750,-6.7284,-12.1373,-11.5827,-0.6697,8.5977,21.4293,-9.9990,-13.5367,0.1186,2.5634,18.5662
574.2188,-8.4990,-11.7236,-3.5251,12.4038,24.7335,-8.7325,2.3966,13.1957,-9.5890,-15.5013,-13.4180,-3.9708,4.8771,17.4242,-10.5213,-13.8022,-2.5261,-2.2212,13.4744
578.1250,-8.9358,-13.4340,-8.1659,5.8000,17.3741,-6.6973,-2.6034,7.7536,-11.7628,-15.4418,-14.5761,-7.3882,0.7436,11.9843,-11.1845,-13.3225,-5.1456,-6.9410,7.1339
582.0312,-8.7703,-13.8631,-12.5783,-0.6200,9.3102,-3.8948,-9.6239,1.6447,-12.6250,-11.6948,-14.9257,-10.0202,-3.1715,5.3739,-11.4771,-12.4092,-7.6079,-10.1785,0.6968
585.9375,-7.8811,-12.5570,-14.9763,-5.5823,1.7101,-1.3462,-15.8568,-3.9271,-12.0195,-5.7951,-14.3824,-11.1239,-6.2081,-1.5340,-10.8535,-11.2666,-9.6463,-10.8532,-4.4177
589.8438,-6.3780,-9.6047,-13.9816,-7.9836,-4.2252,0.4928,-18.4174,-7.4366,-10.2983,-0.2478,-12.8629,-10.2985,-7.8886,-7.4814,-8.9942,-9.8686,-10.8851,-8.7176,-7.0624
593.7500,-4.5193,-5.7319,-9.5755,-7.5035,-7.7565,1.7492,-15.4619,-7.9127,-8.1253,2.8464,-10.3773,-7.6242,-8.0778,-11.3440,-5.9592,-8.0014,-10.9696,-4.5357,-6.8823
597.6562,-2.5717,-2.0551,-3.2847,-4.8890,-8.9414,2.8551,-7.0484,-5.6226,-6.1466,2.9006,-7.1624,-3.6952,-6.9985,-12.6426,-2.1563,-5.4265,-9.7208,0.2043,-4.4929
601.5625,-0.6967,0.4295,2.6023,-1.6538,-8.5640,4.2316,4.6955,-2.0527,-4.6870,1.0504,-3.6972,0.5428,-5.0808,-11.7247,1.8491,-2.0461,-7.2067,3.9575,-1.1654
605.4688,1.0785,1.3673,6.3320,0.6988,-7.6640,6.1063,16.3184,0.8812,-3.6250,-0.6289,-0.5222,4.1536,-2.7217,-9.4882,5.5668,2.0272,-3.6872,5.8482,1.8289
609.3750,2.8092,1.2649,7.6626,1.4811,-6.9355,8.4766,24.4658,1.9353,-2.5142,-0.3975,2.0420,6.6195,-0.0999,-6.8255,8.7268,6.5108,0.5112,6.0517,3.8334
613.2812,4.5359,1.2325,7.8676,1.1552,-6.3658,11.1288,27.3074,1.2589,-0.8937,2.1413,4.0656,8.0574,2.8381,-4.1525,11.2685,11.0381,5.0882,5.5963,5.0128
617.1875,6.1935,2.3407,8.7611,0.9765,-5.3390,13.6480,25.2153,0.2693,1.3714,5.8716,5.9114,9.0750,6.2158,-1.3243,13.2096,15.2115,9.7607,5.6861,6.0494
621.0938,7.5688,4.9369,11.3934,2.1740,-3.1312,15.4482,20.3225,0.7539,3.9156,8.8839,7.9015,10.3303,10.0061,2.0357,14.4996,18.6080,14.1881,6.9482,7.5608
625.0000,8.3325,8.3351,15.2910,5.1871,0.5201,15.9017,15.2434,3.7614,5.9827,9.6176,9.9747,12.0763,13.9175,6.0566,14.9663,20.7914,17.9355,9.0674,9.6412
628.9062,8.1467,11.1082,18.7383,9.4307,5.1361,14.5962,11.7287,8.9631,6.7840,7.7453,11.5997,14.0024,17.4780,10.3542,14.3926,21.4044,20.5630,11.0361,11.8242
632.8125,6.8219,11.8591,19.8906,13.6982,9.6798,11.6284,10.0247,14.8494,5.9253,4.3045,12.0448,15.4864,20.2695,14.1781,12.6713,20.3433,21.8216,11.8462,13.4537
636.7188,4.4608,10.0397,17.9643,16.8992,13.0861,7.7499,9.2193,19.5948,3.6618,1.0461,10.8505,16.0691,22.1494,16.8672,9.9342,17.9178,21.8311,11.1669,14.1721
640.6250,1.5132,6.3257,13.7308,18.6378,14.8161,4.2051,8.2131,22.0361,0.8277,-0.5812,8.1895,15.7925,23.3020,18.2817,6.5665,14.8483,21.0905,9.5643,14.1681
644.5312,-1.3141,2.2984,9.0383,19.2901,15.1124,2.2611,6.5964,22.1908,-1.5365,-0.2062,4.8597,15.1382,24.0717,18.8929,3.0899,12.0231,20.2663,8.1274,14.0232
648.4375,-3.2829,-0.3991,5.7314,19.5955,14.8182,2.6201,4.8592,21.0662,-2.6652,1.3543,1.8903,14.6046,24.6876,19.4591,-0.0224,10.0872,19.8533,7.7568,14.2843
652.3438,-3.9034,-0.9406,4.6858,20.0922,14.8852,5.0215,3.8702,19.9571,-2.4018,2.6693,0.0016,14.2463,25.0638,20.5035,-2.5057,9.0824,19.8994,8.5859,15.0782
656.2500,-3.1420,0.2863,5.5205,20.7791,15.8576,8.2779,4.0716,19.6947,-1.2185,2.5701,-0.7432,13.5405,24.8145,21.9510,-4.3607,8.3747,19.9640,9.8990,16.0319
660.1562,-1.4525,1.9900,7.0498,21.1912,17.6150,10.7717,5.0056,20.2749,0.0707,0.8030,-0.8883,11.7104,23.4781,23.1594,-5.7939,6.9629,19.3402,10.5787,16.5311
664.0625,0.3980,2.7818,8.0724,20.7736,19.4889,11.1881,5.5309,21.0132,0.7356,-1.9003,-1.1866,8.2929,20.8080,23.3116,-7.0775,4.0375,17.4158,9.7797,16.1163
667.9688,1.6393,1.9824,7.9644,19.2665,20.6576,9.1158,4.6050,21.0563,0.4687,-4.3248,-2.1192,3.5424,16.9433,21.8966,-8.3996,-0.5161,13.9735,7.4081,14.7387
671.8750,1.8108,-0.0451,6.7837,16.8490,20.5797,5.2143,2.1135,19.9031,-0.5181,-5.4990,-3.6288,-1.6300,12.3541,18.9682,-9.7631,-5.9684,9.2761,4.1371,12.7195
675.7812,0.9396,-2.1962,4.9691,13.9872,19.2266,0.8808,-0.8314,17.6441,-1.6590,-5.1980,-5.2092,-6.1580,7.5991,15.0450,-10.9723,-11.0580,3.9183,0.9908,10.4708
679.6875,-0.4920,-3.3287,2.9439,11.1288,17.0093,-2.3872,-2.3984,14.8310,-2.3561,-3.9519,-6.2631,-9.4254,3.0485,10.7623,-11.7146,-14.6048,-1.4477,-1.2315,8.1895
683.5938,-1.7744,-2.9222,0.8990,8.4600,14.4754,-3.5959,-1.1356,12.1094,-2.2948,-2.6179,-6.4882,-11.5709,-1.2583,6.5378,-11.7126,-16.0834,-6.3526,-2.3601,5.7325
687.5000,-2.2952,-1.3149,-1.1807,5.8687,11.9825,-2.5540,2.9526,9.8665,-1.6082,-1.8334,-6.0585,-13.2978,-5.5376,2.4687,-10.8891,-15.8380,-10.6052,-2.8946,2.7456
691.4062,-1.8145,0.5676,-3.3600,3.1133,9.5552,0.2034,8.0409,8.0996,-0.8221,-1.7006,-5.5052,-15.3317,-10.0136,-1.5039,-9.4624,-14.8280,-14.2223,-3.6950,-1.0412
695.3125,-0.5660,1.7771,-5.6084,0.0810,7.0077,3.7338,11.1922,6.5613,-0.6016,-1.8588,-5.3816,-17.8902,-14.6420,-5.3219,-7.9001,-14.0617,-17.2622,-5.5033,-5.5343
699.2188,0.8701,1.8497,-7.7245,-3.0168,4.2366,7.0452,9.9019,5.0596,-1.4064,-1.8319,-5.9098,-20.4966,-18.9624,-8.6434,-6.7206,-14.0444,-19.6631,-8.5290,-10.1670
703.1250,1.8655,0.9877,-9.3127,-5.6237,1.4667,9.3597,3.6866,3.6971,-3.2109,-1.3776,-6.8087,-22.2231,-22.1692,-10.9108,-6.2207,-14.5398,-21.1701,-12.2758,-14.0202
707.0312,2.0659,-0.1289,-9.8128,-7.0165,-0.7463,10.2678,-5.2436,2.8775,-5.4405,-0.6124,-7.4034,-22.1861,-23.3830,-11.6113,-6.2826,-14.7540,-21.3867,-15.6861,-16.1258
710.9375,1.5618,-0.7485,-8.6364,-6.6189,-1.7964,9.8144,-12.7833,3.0585,-7.1904,0.1215,-6.9740,-19.9900,-22.0047,-10.5622,-6.4012,-13.8117,-19.9288,-17.5505,-15.8311
714.8438,0.8039,-0.4380,-5.4488,-4.3132,-1.4297,8.5114,-14.9382,4.4076,-7.6553,0.4975,-5.1761,-15.8982,-17.9919,-8.0443,-5.9628,-11.2475,-16.6181,-17.0250,-13.0781
718.7500,0.3000,0.7227,-0.5078,-0.5885,0.0025,7.2038,-9.9923,6.5999,-6.5660,0.3572,-2.3152,-10.6956,-11.9312,-4.7071,-4.6439,-7.2530,-11.6261,-14.0329,-8.4777
722.6562,0.2688,2.2036,5.1697,3.5815,1.6413,6.7343,0.4288,8.9197,-4.3895,-0.3059,0.6919,-5.3644,-4.8637,-1.2999,-2.6917,-2.5733,-5.4939,-9.3543,-3.1274
726.5625,0.4650,3.2872,10.0405,7.1122,2.5526,7.4928,12.1082,10.6287,-2.1493,-1.4596,2.6893,-0.7457,2.0621,1.6245,-0.8828,1.8616,0.9993,-4.3317,1.7779
730.4688,0.3052,3.4064,12.6730,9.2641,2.2472,9.0956,20.4447,11.3729,-0.9321,-3.0965,2.8306,2.6905,7.9584,3.8898,-0.1362,5.3556,7.0729,-0.3129,5.3823
734.3750,-0.7649,2.4088,12.4818,9.9342,0.9602,10.4640,22.8455,11.3510,-1.3368,-5.1710,1.0278,4.9178,12.4216,5.6826,-0.9803,7.7017,12.1778,1.8976,7.4516
738.2812,-2.8819,0.6269,10.0881,9.6042,-0.5068,10.3665,19.8913,11.1174,-3.1810,-7.4704,-1.9596,6.2694,15.5198,7.3677,-3.1936,9.1630,16.1125,2.2940,8.3520
742.1875,-5.6100,-1.2941,6.9960,8.9636,-1.2957,8.1685,14.6239,11.1470,-5.6419,-9.5692,-4.8763,7.2234,17.5718,9.2332,-5.8629,10.2209,18.9685,1.5055,8.7310
746.0938,-8.1404,-2.7458,4.7083,8.4389,-1.0368,4.3141,10.4930,11.4682,-7.7566,-10.9665,-6.6070,8.1201,18.8512,11.2907,-7.8571,11.2456,20.9465,0.3277,9.0734
750.0000,-9.7466,-3.5132,3.8118,7.9306,-0.0773,0.1653,9.3185,11.6342,-8.9859,-11.3588,-6.7601,8.9198,19.3813,13.2308,-8.4531,12.2690,22.1635,-0.7621,9.3877
753.9062,-10.2218,-3.9341,3.6348,6.9316,0.7510,-2.7874,10.5132,11.0623,-9.5107,-10.8720,-5.8761,9.1369,18.9271,14.5525,-7.7455,12.9706,22.5661,-1.8259,9.2034
757.8125,-10.0253,-4.7460,2.7249,4.9385,0.6665,-3.8805,11.8907,9.4933,-10.0886,-10.0761,-5.1370,8.0290,17.1710,14.8003,-6.5913,12.8689,21.9911,-3.3219,7.8734
761.7188,-10.0307,-6.6794,-0.1569,1.8632,-0.5770,-3.7690,11.3093,7.2224,-11.5674,-9.7394,-5.7331,4.9918,13.9569,13.7852,-6.1232,11.5981,20.3183,-5.7283,4.9886
765.6250,-11.0122,-10.0219,-5.1839,-1.8486,-2.5605,-4.0771,7.9520,4.9150,-14.3454,-10.4537,-8.2337,-0.0281,9.4597,11.6740,-7.1221,9.1162,17.6007,-9.1854,0.6555
769.5312,-13.1649,-14.4124,-11.3130,-5.4667,-4.4788,-6.3754,2.4764,3.1342,-18.0836,-12.3471,-12.2898,-6.3418,4.1925,8.9043,-9.6118,5.7364,14.0900,-13.3544,-4.5102
773.4375,-15.9380,-18.9875,-16.8981,-8.3980,-5.6078,-11.1083,-3.7994,1.9446,-21.8159,-15.0371,-16.8037,-12.6857,-1.1410,5.9848,-12.8872,1.9804,10.1508,-17.5273,-9.6377
777.3438,-18.2758,-22.7829,-20.6078,-10.4625,-5.6396,-17.1552,-9.8368,0.9105,-24.3742,-17.8214,-20.4376,-17.6912,-5.8612,3.3025,-15.9170,-1.6488,6.1316,-20.8758,-13.9241
781.2500,-19.1318,-25.1309,-22.0166,-11.8288,-4.7016,-22.3124,-15.1712,-0.4865,-24.8940,-19.9683,-22.1798,-20.4249,-9.4983,1.0402,-17.8524,-4.8415,2.2741,-22.6960,-16.8496
785.1562,-17.9747,-25.8196,-21.5280,-12.6912,-3.1240,-24.4041,-19.4857,-2.3257,-23.1595,-20.9489,-21.6980,-20.7224,-11.8865,-0.7775,-18.3484,-7.5173,-1.3050,-22.5782,-18.2233
789.0625,-15.0240,-24.9639,-19.8076,-12.9785,-1.1984,-22.3613,-22.0749,-4.0476,-19.6527,-20.5303,-19.3588,-19.1607,-13.1589,-2.1808,-17.5602,-9.7282,-4.5822,-20.5071,-18.1222
792.9688,-11.1085,-22.7481,-17.2379,-12.3520,0.8750,-16.6714,-21.8940,-4.7762,-15.3173,-18.7557,-15.9628,-16.7094,-13.6585,-3.1906,-15.8857,-11.5112,-7.5845,-16.9048,-16.8241
796.8750,-7.2417,-19.2709,-13.8174,-10.5069,2.8555,-9.0279,-18.3133,-3.9650,-11.1517,-15.8781,-12.3515,-14.2531,-13.7837,-3.8309,-13.6603,-12.7874,-10.3520,-12.5702,-14.7663
800.7812,-4.1380,-14.6050,-9.5011,-7.5157,4.3486,-1.4772,-11.9629,-1.8832,-7.7877,-12.2816,-9.0483,-12.2101,-13.7904,-4.1675,-10.9866,-13.3541,-12.8801,-8.4382,-12.4667
804.6875,-1.9090,-8.9777,-4.5872,-3.8935,4.9184,4.4251,-4.8318,0.4683,-5.2046,-8.3732,-6.0528,-10.3827,-13.5993,-4.2811,-7.7596,-12.9493,-15.0272,-5.1655,-10.3388
808.5938,-0.0725,-2.8590,0.2826,-0.2688,4.4337,8.0669,0.6947,2.0227,-2.6974,-4.4333,-2.8487,-8.0595,-12.6990,-4.1440,-3.8192,-11.3355,-16.4240,-2.7059,-8.4261
812.5000,2.1446,3.1804,4.5790,3.1237,3.4035,9.7618,3.2936,2.4586,0.8486,-0.4770,1.3657,-4.3005,-10.2435,-3.4825,0.8837,-8.3676,-16.4771,-0.1573,-6.2186
816.4062,5.3648,8.7624,8.4211,6.7201,2.9713,10.4196,3.5957,2.5647,6.4339,3.7610,7.2761,1.6847,-5.3791,-1.7759,6.1878,-4.0503,-14.5482,3.9076,-2.7471
820.3125,9.6904,13.8926,12.6584,11.3928,4.4238,11.1133,3.7651,3.8314,14.3553,8.6274,15.0158,10.1627,2.2932,1.5125,11.7003,1.3967,-10.2886,10.6774,2.9759
824.2188,14.5766,18.8349,18.2710,17.7825,8.4226,12.6638,5.9775,7.4743,23.8210,14.1833,23.8847,20.6075,12.3312,6.5424,16.8345,7.4748,-3.9733,20.2661,11.3369
828.1250,19.0043,23.6919,25.4187,25.6305,14.4287,15.3046,10.8518,13.5144,33.0072,19.8709,32.3970,31.6549,23.3763,12.7811,20.8970,13.4072,3.3851,31.3004,21.6694
832.0312,21.8731,27.9902,32.8378,33.6029,20.7534,18.5148,16.9659,20.5449,39.6167,24.4718,38.7021,41.3637,33.5016,19.0212,23.2323,18.2724,10.2869,41.2504,32.2894
835.9375,22.4336,30.6404,38.1538,39.8097,25.3091,21.1550,21.8116,26.3915,41.7502,26.4926,41.2387,47.7671,40.8800,23.8228,23.4165,21.2793,15.3025,47.4216,41.0893
839.8438,20.5714,30.4241,39.0820,42.7590,26.6842,21.9632,23.4917,29.2907,38.7120,24.8569,39.3402,49.5463,44.4781,26.1913,21.4406,22.0838,17.6784,48.1314,46.4287
843.7500,16.8310,26.7792,34.8424,42.1808,24.9224,20.2513,21.9489,28.8695,31.3658,19.5533,33.5133,46.5549,44.4358,26.1155,17.7844,20.9738,17.6656,43.4673,47.8581
847.6562,12.1915,20.3815,26.8814,39.2107,21.5306,16.4167,18.8964,26.3322,21.8515,11.8510,25.2634,39.9392,41.9412,24.6258,13.3046,18.7853,16.3769,35.2472,46.2787
851.5625,7.7124,13.0811,18.3664,35.8105,18.6908,11.8812,16.5950,23.7543,12.7800,3.8916,16.5585,31.7638,38.6644,23.2980,8.9507,16.5494,15.2352,26.2293,43.4473
855.4688,4.2005,7.1277,12.6665,33.7608,18.1241,8.3719,16.4176,22.9254,6.2634,-2.1909,9.1753,24.2761,36.0348,23.4608,5.4285,15.0350,15.3056,18.9908,41.0954
859.3750,2.0055,4.0757,11.6583,33.7920,20.2487,6.9138,18.1859,24.4229,3.1954,-5.1959,4.1834,19.1110,34.7086,25.5493,2.9702,14.4286,16.8573,14.9982,40.1294
863.2812,0.9787,3.9911,14.8005,35.3028,24.0750,7.1695,20.5808,27.4109,3.0529,-5.3541,1.7151,16.7588,34.4409,28.9528,1.3171,14.3196,19.3563,14.2135,40.3053
867.1875,0.5671,5.4160,19.4517,36.7497,27.8326,7.6121,22.1160,30.1962,4.2354,-4.1411,1.0344,16.4835,34.3563,32.4100,-0.0965,13.9804,21.8365,15.2846,40.4888
871.0938,-0.0015,6.1101,22.1941,36.4310,29.9156,6.4831,21.8571,31.1518,4.7453,-3.5110,0.8308,16.6902,33.4182,34.6836,-1.8744,12.7634,23.4030,16.1350,39.2977
875.0000,-1.4802,4.1460,20.4149,33.2409,29.6033,2.9374,19.4621,29.4716,2.9188,-4.9500,-0.3463,15.5697,30.8537,35.1161,-4.4331,10.3870,23.5909,14.7054,35.7615
878.9062,-4.3575,-1.2245,13.3655,27.0678,27.2138,-2.3880,14.8013,25.4065,-2.0404,-8.8235,-3.6070,11.7812,26.3726,33.7897,-7.8919,6.9827,22.4349,9.6433,29.6883
882.8125,-8.6682,-9.3322,2.2990,18.7467,23.7108,-7.7793,7.7673,19.9708,-9.8586,-14.3182,-9.3085,4.9454,20.1648,31.2820,-12.0669,2.9385,20.2917,0.7919,21.6321
886.7188,-13.9465,-18.5033,-10.2140,9.6768,20.0779,-11.5547,-1.3841,14.3806,-19.3397,-19.9573,-16.8692,-4.2107,12.7601,28.2423,-16.5231,-1.3154,17.5798,-10.6625,12.5678
890.6250,-19.3706,-26.8227,-21.3645,1.3013,16.8415,-13.1212,-11.4567,9.5526,-28.7893,-24.3801,-24.9403,-14.1144,4.8493,25.0708,-20.6611,-5.4395,14.5965,-22.5013,3.4877
894.5312,-24.0631,-32.8517,-29.1080,-5.3665,13.9631,-13.2607,-20.1931,5.8688,-36.5768,-26.9646,-31.9335,-22.9391,-2.8768,21.8526,-23.8565,-9.1990,11.4787,-32.2347,-4.8898
898.4375,-27.4079,-36.0225,-32.7674,-10.0338,11.0764,-13.4723,-25.0560,3.2236,-41.6514,-27.9835,-36.6962,-29.3136,-9.8546,18.5090,-25.6587,-12.4263,8.2703,-38.0797,-12.2187
902.3438,-29.2112,-36.6395,-33.1020,-13.1419,7.8611,-14.8531,-24.6161,1.2397,-43.8202,-28.2490,-38.9865,-32.8409,-15.7321,14.9974,-25.9913,-15.0095,5.0131,-39.7135,-18.4534
906.2500,-29.6135,-35.5736,-31.8545,-15.5794,4.3134,-17.3016,-19.6185,-0.4846,-43.6644,-28.4795,-39.4582,-34.1528,-20.3849,11.4046,-25.2287,-16.9262,1.8019,-38.3653,-23.6865
910.1562,-28.8187,-33.8021,-30.9181,-18.1800,0.7728,-19.5715,-12.8438,-2.1980,-42.1185,-28.7665,-39.1275,-34.4273,-23.8409,7.8852,-24.0417,-18.2578,-1.2091,-36.1030,-27.9807
914.0625,-26.8387,-31.9541,-31.4144,-21.2230,-2.2831,-20.0940,-7.6554,-3.9263,-39.9075,-28.4554,-38.6257,-34.5923,-26.1387,4.5157,-23.0268,-19.1181,-3.8339,-34.6343,-31.2563
917.9688,-23.4546,-30.0229,-33.0816,-24.2060,-4.5413,-17.9724,-6.0773,-5.5115,-37.1391,-26.5154,-37.7081,-34.6608,-27.2002,1.1853,-22.3035,-19.5045,-5.8966,-34.2818,-33.2702
921.8750,-18.4501,-27.3812,-34.3254,-26.0559,-6.0706,-13.4831,-7.6632,-6.7302,-33.2880,-22.1875,-35.3590,-33.6236,-26.8143,-2.3860,-21.3385,-19.1789,-7.2816,-33.7640,-33.6938
925.7812,-11.9640,-23.1424,-33.0097,-25.7040,-7.3202,-7.8076,-9.9313,-7.4292,-27.6057,-15.5283,-30.4587,-30.0310,-24.7654,-6.4884,-19.1669,-17.7002,-7.9743,-30.9677,-32.2612
929.6875,-4.6922,-16.7370,-27.6460,-22.7104,-8.8738,-2.2560,-10.0768,-7.6032,-19.7354,-7.5144,-22.6053,-22.9671,-21.0352,-11.1872,-14.9358,-14.6437,-8.0684,-24.2949,-28.9258
933.5938,2.2547,-8.4105,-18.3462,-17.5570,-11.0737,2.4573,-6.7939,-7.3595,-10.1691,0.3773,-12.5588,-12.8323,-15.9324,-16.1229,-8.4718,-9.8955,-7.7105,-13.7874,-23.9463
937.5000,7.8131,0.6756,-6.9563,-11.4110,-13.7192,6.4398,-0.9863,-6.7833,-0.2507,6.8825,-2.0080,-1.4180,-10.0365,-20.4667,-0.5128,-3.8319,-6.9935,-1.3353,-17.8497
941.4062,11.4815,8.8665,3.7639,-5.4924,-16.0338,10.2953,5.0548,-5.7934,8.3183,11.5405,7.2079,8.8422,-3.9628,-23.1021,7.5642,2.7560,-5.8574,10.1757,-11.2769
945.3125,13.5620,14.7693,11.4748,-0.4411,-16.9612,14.5546,9.3413,-4.1088,14.2162,14.8080,13.9441,16.0402,1.9073,-23.0123,14.3801,8.9668,-4.0798,18.2837,-4.7824
949.2188,14.9469,17.9055,15.3311,3.9174,-15.6586,19.2592,11.5086,-1.3836,17.0770,17.6288,18.1525,19.6994,7.5432,-19.7291,19.1707,14.1432,-1.3956,22.1021,1.3134
953.1250,16.5570,18.8544,16.1818,8.2731,-11.9191,23.9095,12.8459,2.5473,17.5799,20.7260,20.6326,20.8776,13.1395,-13.6240,22.0130,18.0620,2.2966,22.5573,6.9512
957.0312,18.7657,18.7867,15.8371,13.2227,-6.2740,27.7131,15.0797,7.4635,17.0090,24.0649,22.3473,21.4119,18.8253,-5.8529,23.5453,20.8606,6.7672,21.6389,12.2378
960.9375,21.1616,18.6894,15.9263,18.7680,0.2870,29.9158,18.8510,12.7444,16.5392,26.8259,23.7710,22.7792,24.4093,2.0715,24.4004,22.7819,11.4466,21.1736,17.2924
964.8438,22.7957,18.7876,17.0786,24.2484,6.7976,30.0401,23.0262,17.5805,16.6552,27.9074,24.6704,25.2582,29.3463,8.8845,24.7506,23.9301,15.6076,21.8693,22.1157
968.7500,22.7571,18.5335,18.8692,28.7187,12.6911,27.9882,25.3589,21.2995,17.0103,26.6326,24.3948,27.8674,32.9558,14.0224,24.2641,24.2003,18.6476,23.1389,26.5391
972.6562,20.7276,17.1350,20.4129,31.4871,17.8410,24.0631,24.0511,23.6198,16.7645,23.2083,22.4153,29.0514,34.7493,17.6592,22.4672,23.4025,20.3062,23.6925,30.2589
976.5625,17.1830,14.2322,21.0773,32.4484,22.2861,18.9375,19.1196,24.6928,15.1663,18.6388,18.7268,27.6427,34.6515,20.3179,19.2193,21.4578,20.6926,22.4441,32.9259
980.4688,13.1388,10.2425,20.8011,32.0282,25.8921,13.5410,12.6085,24.9350,12.0243,14.1577,13.8731,23.5112,32.9867,22.3351,14.9398,18.5142,20.1239,19.1602,34.2543
984.3750,9.6088,6.1557,19.8914,30.8446,28.2524,8.8205,7.4723,24.7832,7.8181,10.5495,8.6434,17.5747,30.2712,23.5711,10.4211,14.9088,18.8992,14.5306,34.1240
988.2812,7.1080,2.9576,18.5985,29.3685,28.9403,5.4208,5.8447,24.5306,3.4328,7.8012,3.6993,11.2650,26.9837,23.5909,6.3763,11.0299,17.1710,9.7335,32.6564
992.1875,5.4805,1.1029,16.8982,27.8110,27.9387,3.4373,7.8022,24.3137,-0.2799,5.2986,-0.6104,5.8497,23.4696,22.1943,3.0604,7.1952,14.9886,5.8430,30.2375
996.0938,4.1281,0.3841,14.6599,26.2510,25.9036,2.4135,11.3917,24.1953,-2.8414,2.4169,-4.1707,2.0068,20.0043,19.8829,0.2437,3.6206,12.4560,3.4327,27.4559
1000.0000,2.4769,0.2213,12.0001,24.8178,24.0049,1.6329,13.8719,24.2263,-4.2237,-0.9061,-6.8951,-0.1964,16.8969,17.8533,-2.4583,0.4574,9.8526,2.5196,24.9450
1003.9062,0.3913,0.1034,9.4354,23.7312,23.3816,0.5629,13.3582,24.4151,-4.6840,-4.0146,-8.6065,-1.0555,14.4881,17.4240,-5.1644,-2.1808,7.5955,2.7571,23.1690
1007.8125,-1.7079,-0.1585,7.6265,23.1496,24.5368,-0.8137,9.8588,24.6404,-4.5261,-5.9114,-9.1205,-0.9710,12.9950,19.2255,-7.5522,-4.2569,6.0403,3.6752,22.2427
1011.7188,-3.0823,-0.4976,6.8835,22.9677,27.0591,-1.9877,5.1182,24.6131,-3.9577,-5.9225,-8.4637,-0.3470,12.3152,22.7023,-9.0737,-5.8800,5.2526,4.8292,21.8833
1015.6250,-3.1242,-0.8379,6.8554,22.7629,29.8506,-2.2460,1.4563,23.9657,-3.1104,-4.2008,-7.0341,0.3761,11.9659,26.3123,-9.4030,-7.3147,4.9135,5.8480,21.5378
1019.5312,-1.7487,-1.2522,6.7129,21.9696,31.7020,-1.1301,0.3834,22.4338,-2.1422,-1.7160,-5.5393,0.7021,11.2617,28.3467,-8.7678,-8.8669,4.4468,6.4543,20.6313
1023.4375,0.5044,-1.8779,5.7406,20.1738,31.8436,1.2520,1.8410,20.0056,-1.2910,0.2911,-4.7014,0.1881,9.6565,27.8680,-7.8861,-10.6894,3.3062,6.5104,18.8105
1027.3438,2.7262,-2.6799,3.8974,17.3158,30.1523,4.2389,4.4528,16.9194,-0.7950,1.0556,-4.8835,-1.3448,7.0455,25.1630,-7.5144,-12.6350,1.2572,6.0679,16.0584
1031.2500,4.1136,-3.3036,1.8940,13.6675,26.9669,6.9382,6.5119,13.5027,-0.7256,0.7570,-5.8628,-3.6464,3.8288,21.4341,-7.9116,-14.2827,-1.5098,5.3559,12.6373
1035.1562,4.3945,-3.1933,0.7000,9.6288,22.7358,8.6615,7.0109,9.9754,-0.8662,0.3937,-6.8982,-6.0577,0.6987,17.9659,-8.6071,-15.1459,-4.4905,4.6783,8.9253
1039.0625,3.9530,-1.9313,0.8459,5.5284,17.7986,9.2337,6.0823,6.3795,-0.7618,1.1221,-7.0739,-7.7459,-1.7086,15.3480,-8.6638,-14.9373,-7.1177,4.2684,5.2664
1042.9688,3.5745,0.4450,2.0598,1.5876,12.4336,9.0246,4.6755,2.7018,0.0509,3.4644,-5.7488,-8.0379,-3.0740,13.2674,-7.2866,-13.7139,-8.9953,4.1957,1.9207
1046.8750,3.9498,3.3853,3.5209,-1.9554,7.0535,8.7050,3.8092,-0.9051,1.7574,6.8907,-2.8856,-6.6814,-3.4273,10.9561,-4.3748,-11.8017,-9.9902,4.3868,-0.8947
1050.7812,5.2311,6.0773,4.5231,-4.7219,2.2942,8.8591,3.9588,-3.9960,4.1058,10.0527,0.9012,-3.9143,-2.9794,7.9145,-0.6451,-9.5590,-10.1580,4.7311,-2.9605
1054.6875,6.9040,7.8294,5.0097,-6.2457,-1.1598,9.6444,4.9461,-5.9424,6.4907,11.5432,4.5975,-0.3371,-1.9155,4.3604,2.7640,-7.1507,-9.5886,5.1751,-4.0902
1058.5938,8.0592,8.3288,5.5408,-6.2220,-2.9369,10.6606,6.2798,-6.2488,8.2434,10.7130,7.2138,3.3221,-0.3101,1.0860,4.9421,-4.4979,-8.2941,5.7240,-4.2453
1062.5000,7.9002,7.6400,6.7144,-4.7821,-3.2587,11.1004,7.5768,-4.8755,8.9540,8.0301,8.1742,6.4386,1.7960,-1.1341,5.6748,-1.4324,-6.2143,6.3497,-3.6397
1066.4062,6.1805,6.0126,8.5099,-2.5540,-2.8990,10.1335,8.7045,-2.3377,8.6249,4.7470,7.4897,8.6359,4.2551,-2.1136,5.4255,2.0644,-3.3274,6.8970,-2.7162
1070.3125,3.3088,3.6923,10.1048,-0.3991,-2.7900,7.3632,9.5916,0.5168,7.5622,2.0807,5.6435,9.8212,6.7523,-2.3602,4.8652,5.7230,0.2272,7.0869,-1.9549
1074.2188,0.0733,0.8784,10.3522,1.0455,-3.4980,3.1344,9.9802,2.9302,6.0904,0.4347,3.2701,10.1274,8.9005,-2.6322,4.3018,9.0574,4.1116,6.6479,-1.6009
1078.1250,-2.8222,-2.1878,8.5952,1.7294,-4.8822,-1.4874,9.4551,4.6036,4.2963,-0.8201,0.8169,9.8010,10.4367,-3.2760,3.4308,11.6025,7.8838,5.5006,-1.4803
1082.0312,-5.1064,-5.1403,5.2177,2.2082,-6.1354,-5.1039,7.8283,5.7914,1.9984,-2.8340,-1.6124,9.0908,11.3840,-3.8373,1.6005,13.1581,11.1802,3.8704,-1.0387
1085.9375,-6.9584,-7.5289,1.5250,3.3003,-6.1704,-6.5880,5.5807,7.0821,-1.0190,-6.3465,-4.1444,8.1874,12.0611,-3.2471,-1.5821,13.8778,13.8785,2.2423,0.3911
1089.8438,-8.7127,-8.9756,-0.9694,5.5977,-4.1311,-5.6207,3.9023,9.0187,-4.6616,-10.9386,-6.8342,7.2345,12.9195,-0.4815,-5.7361,14.1515,16.1326,1.1721,3.2300
1093.7500,-10.4768,-9.3294,-1.3593,9.1327,0.2177,-2.8819,4.1089,11.7863,-8.3287,-15.0005,-9.3950,6.3780,14.2927,4.7295,-9.6777,14.3655,18.2377,1.0507,7.3934
1097.6562,-11.9418,-8.7072,0.2550,13.3707,6.3582,0.2167,6.7019,15.1139,-11.0516,-16.5138,-11.1777,5.7766,16.1857,11.5894,-11.9610,14.6910,20.3846,1.9377,12.2633
1101.5625,-12.5237,-7.4182,2.9593,17.4699,13.1393,2.1410,10.7133,18.3846,-11.9469,-14.2319,-11.4711,5.5155,18.2048,18.5051,-11.6883,15.0163,22.4438,3.5246,16.8842
1105.4688,-11.7450,-5.8655,5.5663,20.6022,19.0749,1.8927,13.9139,20.8408,-10.7401,-8.5562,-9.9760,5.4525,19.6604,23.7644,-9.0922,15.0352,23.9215,5.2204,20.2725
1109.3750,-9.6022,-4.5092,7.0946,22.1494,22.7428,-0.5920,13.9279,21.7788,-8.0354,-1.5498,-7.1528,5.1234,19.8069,26.2345,-5.5094,14.4158,24.1497,6.3171,21.6969
1113.2812,-6.6765,-3.8682,6.9461,21.7503,23.2165,-4.4740,9.6489,20.7066,-5.1258,3.9798,-4.1801,3.8536,18.1390,25.7383,-2.7330,12.9491,22.6326,6.1903,20.8490
1117.1875,-3.9111,-4.4491,4.8651,19.3037,20.4277,-8.4271,2.0474,17.4924,-3.4079,5.8448,-2.4755,1.1070,14.6367,22.9899,-2.1068,10.6190,19.3681,4.5009,17.8952
1121.0938,-2.1856,-6.5298,0.9207,15.0303,15.3055,-11.2236,-6.2265,12.5056,-3.7079,3.5345,-3.0049,-3.0901,9.8523,19.2100,-3.8756,7.5938,14.9488,1.3519,13.4335
1125.0000,-1.9252,-9.8769,-4.3610,9.5725,9.5595,-12.2189,-12.2828,6.6664,-5.8923,-1.6134,-5.7616,-7.9365,4.7714,15.6520,-7.1419,4.1707,10.3564,-2.6699,8.3720
1128.9062,-2.9425,-13.6136,-9.8643,3.9870,5.1044,-11.5364,-14.6016,1.2846,-8.9758,-7.1938,-9.7202,-12.0759,0.4716,13.2303,-10.4098,0.7082,6.5394,-6.6274,3.7266
1132.8125,-4.5592,-16.4242,-14.0244,-0.4926,3.3350,-9.8959,-13.7823,-2.3491,-11.6450,-10.9923,-13.3018,-14.2064,-2.2844,12.3333,-12.3642,-2.4432,3.9983,-9.5332,0.3613
1136.7188,-5.9082,-17.0739,-15.3590,-2.8900,4.5852,-8.1835,-11.9326,-3.4839,-12.8789,-12.0013,-15.0903,-13.7503,-3.3174,12.8130,-12.4341,-5.0000,2.6122,-10.7042,-1.2537
1140.6250,-6.2544,-14.9706,-13.1638,-2.8952,8.0546,-6.9676,-11.0907,-2.2706,-12.3157,-10.6617,-14.4035,-11.1548,-3.0076,14.1127,-10.8683,-6.7837,1.8050,-9.9949,-1.1548
1144.5312,-5.2093,-10.4206,-7.9245,-0.9856,12.2400,-6.1934,-11.7337,0.2800,-10.1991,-8.2808,-11.4333,-7.5961,-1.9790,15.4954,-8.3731,-7.7206,0.9513,-7.7770,0.2038
1148.4375,-2.7966,-4.4093,-1.1189,1.8458,15.6340,-5.2123,-12.3977,2.7763,-7.0190,-6.0593,-6.9447,-4.2512,-0.6780,16.3192,-5.6102,-7.8077,-0.2244,-4.6751,2.2073
1152.3438,0.6093,1.9425,5.5146,4.6125,17.3153,-3.1506,-10.7157,4.1286,-3.1366,-4.3481,-1.7844,-1.6062,0.8876,16.2743,-2.8836,-7.0746,-1.4906,-1.2234,4.3676
1156.2500,4.4303,7.8715,10.7828,6.7896,17.1622,0.5640,-5.2274,4.0575,1.3469,-2.5569,3.4776,0.7334,3.0799,15.4851,-0.1620,-5.5818,-2.2761,2.3432,6.4804
1160.1562,8.0756,13.1022,14.4090,8.4443,15.6718,5.8013,3.2434,3.1450,6.4276,0.2925,8.5906,3.6131,6.2870,14.4222,2.6604,-3.4695,-2.0457,6.0462,8.5834
1164.0625,11.1349,17.5945,16.7929,10.0084,13.5959,11.6972,11.6347,2.4237,11.9166,4.7742,13.4155,7.5990,10.5505,13.6648,5.5072,-1.0159,-0.6405,9.9391,10.7861
1167.9688,13.5085,21.1937,18.4381,11.9030,11.6487,17.0342,16.2303,2.7791,17.2972,10.5491,17.6960,12.4849,15.4397,13.6410,8.0637,1.3686,1.6240,13.9003,13.1302
1171.8750,15.4073,23.5302,19.5418,14.2964,10.4048,20.8336,14.8967,4.5365,21.8599,16.4498,21.0257,17.3930,20.2708,14.4853,9.9458,3.2591,4.1515,17.6243,15.5954
1175.7812,17.1972,24.2848,20.0553,17.1336,10.3192,22.8181,8.6092,7.4478,25.0360,21.0831,23.0446,21.3844,24.5176,16.0755,10.9512,4.4207,6.4199,20.8227,18.2291
1179.6875,19.1437,23.5988,20.0926,20.3433,11.7207,23.4751,1.2522,11.0127,26.6922,23.5603,23.7088,24.1092,28.1119,18.1948,11.2038,4.9844,8.2751,23.4677,21.2568
1183.5938,21.1914,22.2436,20.2512,23.9916,14.7044,23.6952,-2.3207,14.8564,27.1708,23.9054,23.4053,25.9999,31.4090,20.6820,11.0955,5.4638,9.9919,25.8548,25.0197
1187.5000,22.9137,21.3234,21.4713,28.2119,18.9939,24.2254,1.0776,18.8814,27.0406,22.9163,22.7917,27.8594,34.8332,23.4550,11.0751,6.5523,12.0731,28.3880,29.7225
1191.4062,23.6862,21.6474,24.4506,32.9470,23.9185,25.2733,11.1399,23.1139,26.7275,21.5955,22.4396,30.1549,38.4518,26.3906,11.4262,8.7725,14.9080,31.2065,35.1360
1195.3125,23.0018,23.1927,29.0254,37.7182,28.5850,26.4740,24.1304,27.4017,26.2711,20.5267,22.4991,32.5548,41.7827,29.1610,12.1571,12.1580,18.4823,33.9195,40.4820
1199.2188,20.7519,25.0531,34.0086,41.6442,32.1786,27.1766,34.8390,31.2363,25.3588,19.5814,22.6033,34.0641,43.9733,31.1766,13.0317,16.1535,22.2926,35.6675,44.6302
1203.1250,17.3097,25.9391,37.6683,43.7608,34.2214,26.8150,39.3191,33.8703,23.5894,18.1182,22.0714,33.6663,44.2374,31.7283,13.6826,19.8097,25.5098,35.5188,46.5420
1207.0312,13.3696,24.9093,38.5748,43.4710,34.6522,25.1265,36.8379,34.6847,20.7755,15.5244,20.2913,31.0088,42.2668,30.2986,13.7289,22.1830,27.3141,32.9802,45.7200
1210.9375,9.6422,21.8617,36.2914,40.8471,33.7199,22.1510,29.9449,33.5646,17.0888,11.7409,17.0611,26.6479,38.3731,26.8826,12.8670,22.7340,27.2446,28.3095,42.4048
1214.8438,6.5823,17.4996,31.5041,36.5952,31.8051,18.1196,22.6938,31.0225,12.9805,7.4350,12.7079,21.7062,33.3067,22.1254,10.9475,21.5176,25.4003,22.4395,37.4133
1218.7500,4.2924,12.8560,25.5735,31.7007,29.2938,13.3853,18.1592,27.9637,8.9634,3.7087,7.9467,17.2116,27.8989,17.1525,8.0562,19.0789,22.3962,16.5540,31.7235
1222.6562,2.6155,8.7371,19.8396,26.9660,26.5345,8.4329,16.7859,25.2146,5.4075,1.5203,3.5791,13.5904,22.7482,13.1312,4.5650,16.1354,19.0872,11.5661,26.0574
1226.5625,1.3163,5.4313,15.0907,22.6979,23.8153,3.8627,16.5422,23.0888,2.4544,1.1663,0.1950,10.6202,18.0902,10.7611,1.0850,13.2356,16.1854,7.7790,20.6814
1230.4688,0.2134,2.7840,11.4130,18.6918,21.2954,0.2250,14.6807,21.2487,0.0533,2.1256,-1.9913,7.7947,13.8557,9.9587,-1.7222,10.5760,13.9591,4.8880,15.4964
1234.3750,-0.8085,0.4705,8.3696,14.4874,18.9137,-2.2704,9.8791,18.9491,-1.9491,3.3445,-3.1304,4.7716,9.8228,9.9259,-3.4226,8.0519,12.1725,2.2788,10.3083
1238.2812,-1.8690,-1.7817,5.3153,9.7313,16.3834,-3.9652,3.3090,15.5283,-3.7274,3.7826,-3.5901,1.5838,5.7775,9.5935,-4.0307,5.4708,10.3002,-0.5651,5.0935
1242.1875,-3.1405,-4.1372,1.6969,4.4570,13.3556,-5.6466,-2.0945,10.8710,-5.4162,2.9015,-3.7579,-1.4644,1.6435,8.2168,-4.0181,2.7755,7.8987,-3.7557,0.1059
1246.0938,-4.8006,-6.6887,-2.7122,-0.8451,9.6993,-8.0809,-3.6805,5.5770,-7.0510,0.8419,-3.8759,-4.0406,-2.4283,5.7944,-4.0592,0.1356,4.9141,-6.9236,-4.2079
1250.0000,-6.8982,-9.4416,-7.6574,-5.3936,5.7075,-11.4360,-1.0732,0.7275,-8.5155,-1.7607,-3.9687,-5.9323,-6.0381,3.0612,-4.6352,-2.1328,1.7381,-9.3831,-7.4131
1253.9062,-9.2342,-12.2081,-12.3959,-8.4413,2.0370,-15.0021,3.2576,-2.6358,-9.5387,-4.1605,-3.8838,-7.0186,-8.6314,1.0517,-5.7262,-3.7469,-1.0212,-10.4535,-9.2890
1257.8125,-11.3589,-14.5252,-15.9267,-9.6225,-0.6359,-17.4682,5.2997,-4.0409,-9.7916,-5.8344,-3.4192,-7.1819,-9.7203,0.4875,-6.7946,-4.6083,-2.9043,-9.7974,-9.9325
1261.7188,-12.7176,-15.7493,-17.4445,-9.1580,-2.0395,-17.6436,1.9085,-3.8282,-9.0638,-6.5921,-2.4667,-6.3294,-9.1465,1.3590,-7.0896,-4.8248,-3.8550,-7.6279,-9.7158
1265.6250,-12.8730,-15.3493,-16.8062,-7.7988,-2.5074,-15.1677,-7.1653,-2.9607,-7.4213,-6.4631,-1.0898,-4.5516,-7.2265,2.9583,-6.0991,-4.5988,-4.1958,-4.6770,-9.1193
1269.5312,-11.6790,-13.2226,-14.6896,-6.4953,-2.7847,-10.7280,-18.8924,-2.4921,-5.2191,-5.5071,0.5163,-2.2611,-4.6474,4.3339,-3.8747,-4.0670,-4.3458,-1.9074,-8.5120
1273.4375,-9.3152,-9.7950,-12.2518,-5.9265,-3.5497,-5.6301,-28.4701,-2.9892,-2.9225,-3.7182,2.1588,-0.1106,-2.1335,4.8702,-1.0288,-3.2107,-4.4879,-0.0773,-7.9781
1277.3438,-6.1797,-5.8002,-10.4304,-6.1289,-4.9768,-1.0200,-31.8115,-4.2356,-0.8351,-1.0956,3.7805,1.3421,-0.0725,4.6225,1.5929,-1.9028,-4.4279,0.6293,-7.2850
1281.2500,-2.7260,-1.8829,-9.3283,-6.4471,-6.6454,2.6968,-27.5769,-5.3897,1.0802,2.1859,5.4839,2.0122,1.6529,4.2083,3.3599,-0.0613,-3.7491,0.6939,-6.0216
1285.1562,0.6585,1.6797,-8.1384,-5.8676,-7.8453,5.8525,-17.6530,-5.4966,3.1356,5.6511,7.4041,2.4004,3.5072,4.3610,4.1524,2.1988,-2.1483,0.9914,-3.8464
1289.0625,3.6810,4.9302,-5.7160,-3.5724,-8.0391,8.9862,-5.9639,-4.0417,5.6234,8.5640,9.5038,3.2899,5.9212,5.4662,4.3376,4.5327,0.2965,2.2792,-0.7070
1292.9688,6.1101,7.9134,-1.4419,0.5961,-7.1423,12.2305,3.5633,-1.2134,8.4815,10.1418,11.4402,5.1960,8.9544,7.3856,4.4642,6.4926,3.1252,4.7315,3.1026
1296.8750,7.7444,10.3717,4.2188,6.0268,-5.4451,15.0994,8.6996,2.2653,11.1570,9.8456,12.6294,7.9506,12.2300,9.6417,4.8834,7.7489,5.7607,7.7964,7.0879
1300.7812,8.4292,11.7386,9.8693,11.6403,-3.2997,16.8250,9.4795,5.5955,12.7902,7.6068,12.5097,10.7398,15.1697,11.7735,5.5358,8.2676,7.8413,10.4694,10.8013
1304.6875,8.1104,11.4765,13.9508,16.4012,-0.8747,16.9534,7.5900,8.3308,12.6268,3.8869,10.8582,12.5881,17.3304,13.5691,6.0199,8.3254,9.3726,11.8184,14.0183
1308.5938,6.8762,9.5125,15.6042,19.7262,1.8073,15.7091,5.1821,10.4979,10.4136,-0.4515,7.9599,12.9515,18.5882,15.0195,5.8779,8.3374,10.5969,11.4461,16.7176
1312.5000,4.9482,6.4274,15.0470,21.5705,4.6092,13.8376,3.8525,12.3663,6.5432,-4.4105,4.5066,12.0018,19.0554,16.0832,4.9036,8.5948,11.6955,9.6240,18.8941
1316.4062,2.6302,3.2198,13.2607,22.2084,7.0830,12.0635,4.2280,14.0773,1.8826,-7.1674,1.2765,10.4164,18.8489,16.5205,3.2802,9.0710,12.5728,7.0566,20.3746
1320.3125,0.2555,0.7875,11.2774,21.9227,8.5966,10.6094,6.1104,15.4338,-2.5893,-8.3279,-1.2123,8.8641,17.9443,15.9917,1.4754,9.4206,12.9058,4.4661,20.8185
1324.2188,-1.8338,-0.5200,9.6005,20.8396,8.7603,9.1683,8.8483,16.0126,-6.1180,-8.0343,-2.8646,7.5909,16.2639,14.3772,-0.0240,9.1808,12.4340,2.2753,19.9431
1328.1250,-3.2892,-0.9767,8.1287,18.9963,7.8346,7.3497,11.6397,15.5089,-8.3294,-6.8763,-3.9073,6.4057,13.9214,12.0591,-0.9643,8.0631,11.2685,0.5558,17.8187
1332.0312,-3.7916,-1.1584,6.5295,16.5259,6.7367,5.2249,13.6995,14.0403,-9.1976,-5.6176,-4.6218,5.0312,11.3784,9.8859,-1.4161,6.1660,9.9657,-0.7980,14.9874
1335.9375,-3.1568,-1.4820,4.6908,13.7604,6.5370,3.5073,14.4147,12.1691,-8.9291,-4.8449,-5.1149,3.4916,9.3156,8.7631,-1.6686,3.9793,9.2765,-1.8585,12.2626
1339.8438,-1.4808,-1.9406,2.8784,11.1417,7.7384,3.1785,13.5852,10.6163,-7.8699,-4.7104,-5.2892,2.1892,8.2461,9.1041,-2.0199,2.1686,9.7085,-2.5928,10.2949
1343.7500,0.7728,-2.1995,1.5219,9.0007,9.8587,4.8056,11.6686,9.8751,-6.4675,-4.9251,-5.0213,1.5844,8.1332,10.5150,-2.6189,1.2459,11.1850,-2.9612,9.1862
1347.6562,2.8432,-1.9454,0.8566,7.3877,11.6689,8.0408,9.7911,9.9979,-5.2366,-5.0367,-4.4054,1.7311,8.3166,11.9582,-3.4635,1.2959,13.0219,-3.0682,8.4261
1351.5625,3.9233,-1.2137,0.7271,6.0934,11.9884,11.6755,9.3442,10.6926,-4.6778,-4.8406,-3.8708,2.0505,7.8481,12.3183,-4.5434,1.8983,14.2441,-3.2139,7.2135
1355.4688,3.4921,-0.4659,0.6790,4.8451,10.5108,14.2262,11.2495,11.6227,-5.1488,-4.6540,-4.0677,1.5628,6.0432,11.0219,-5.9931,2.2948,14.0536,-3.7826,4.9589
1359.3750,1.5530,-0.3794,0.2207,3.5230,8.0738,14.6684,15.2695,12.6591,-6.7531,-5.2231,-5.5665,-0.5433,2.8907,8.3225,-8.0992,1.7327,12.1903,-5.0396,1.6362
1363.2812,-1.3631,-1.5022,-0.9559,2.2257,6.1491,12.8620,19.8328,13.8811,-9.3048,-7.2549,-8.5300,-4.3734,-0.9461,5.0915,-11.0920,-0.1625,9.0127,-6.9767,-2.2330
1367.1875,-4.4480,-3.9762,-2.9047,1.1455,5.8724,9.4601,22.6046,15.3396,-12.3835,-10.8358,-12.5394,-9.1739,-4.5201,2.2803,-14.8235,-3.1572,5.3014,-9.3029,-5.9196
1371.0938,-6.9864,-7.4556,-5.4489,0.3633,7.2643,5.4444,21.5946,16.7910,-15.4365,-15.1321,-16.6713,-13.6565,-7.1093,0.4085,-18.5555,-6.4414,1.9182,-11.5754,-8.8894
1375.0000,-8.6463,-11.2263,-8.1993,-0.2635,9.1766,1.6360,16.2232,17.6454,-17.8893,-18.6466,-19.8085,-16.5956,-8.5226,-0.6208,-21.0784,-8.9373,-0.5169,-13.3829,-10.9974
1378.9062,-9.5423,-14.4520,-10.5723,-1.0261,10.0062,-1.5385,7.7237,17.2138,-19.2556,-19.9617,-21.0652,-17.3554,-9.0552,-1.3239,-21.2033,-9.7735,-1.8236,-14.4882,-12.3895
1382.8125,-10.0593,-16.4558,-11.9190,-2.1550,8.7100,-3.9819,-1.3793,15.1159,-19.2640,-18.5578,-20.1533,-16.0909,-9.1972,-2.2416,-18.4189,-8.7170,-2.2966,-14.8814,-13.2530
1386.7188,-10.5564,-16.9475,-11.8298,-3.6273,5.4675,-5.7172,-8.4390,11.5823,-17.9777,-15.1857,-17.5259,-13.5822,-9.3293,-3.6137,-13.3361,-6.3429,-2.5833,-14.7445,-13.6410
1390.6250,-11.1232,-16.1071,-10.4736,-5.1168,1.5914,-6.7242,-11.8381,7.4510,-15.8239,-11.5042,-14.1966,-10.8350,-9.5792,-5.2850,-7.5896,-3.8167,-3.4212,-14.3403,-13.4869
1394.5312,-11.5073,-14.4596,-8.6721,-6.1093,-1.2169,-6.9009,-11.4922,3.8494,-13.4425,-9.1488,-11.2657,-8.6434,-9.8430,-6.8256,-3.1424,-2.3511,-5.2943,-13.8483,-12.7372
1398.4375,-11.2347,-12.5631,-7.5010,-6.1033,-1.7767,-6.1126,-8.5080,1.7426,-11.3582,-8.7736,-9.3408,-7.2665,-9.8639,-7.7372,-1.3066,-2.5791,-8.1258,-13.1971,-11.4310
1402.3438,-9.8498,-10.6650,-7.5639,-4.7921,0.0306,-4.2680,-4.3384,1.5788,-9.6451,-9.6652,-8.1556,-6.3176,-9.2828,-7.6272,-2.0184,-4.1725,-11.1710,-11.9948,-9.6347
1406.2500,-7.1667,-8.5618,-8.4311,-2.1743,3.3340,-1.4083,-0.0564,3.1791,-7.8373,-10.1897,-6.6596,-4.9236,-7.6895,-6.3154,-3.8237,-5.9395,-13.2289,-9.6634,-7.3129
1410.1562,-3.4337,-5.8143,-8.7504,1.4082,6.8115,2.1831,3.8100,5.8676,-5.2413,-8.8190,-3.6394,-2.1531,-4.7666,-3.8983,-4.6577,-6.3986,-13.1469,-5.8006,-4.3173
1414.0625,0.6543,-2.2376,-7.1095,5.2969,9.3228,5.8951,6.9238,8.7376,-1.5353,-5.1160,1.3971,2.4039,-0.5429,-0.7787,-3.0290,-4.5594,-10.4032,-0.6158,-0.5912
1417.9688,4.1200,1.6638,-3.1413,8.6290,10.3020,8.8476,8.7318,10.9386,2.7203,-0.0812,7.5846,8.1654,4.3775,2.3775,1.0549,-0.5017,-5.4627,4.8423,3.5287
1421.8750,6.0153,4.6870,1.9281,10.5606,9.8025,10.1893,8.4958,11.9077,6.0770,4.3425,12.7871,13.5131,8.8293,4.8089,5.9760,4.5715,0.3206,8.9165,7.1816
1425.7812,5.7835,5.4756,5.7911,10.5668,8.2996,9.5599,5.8464,11.5107,6.8363,6.2934,14.5199,16.3383,11.4642,5.9282,9.3181,8.8592,5.2467,10.0331,9.2350
1429.6875,3.5194,3.3420,6.4011,8.6941,6.4314,7.4343,1.4317,10.0670,4.0312,4.9335,11.2955,15.0196,11.3681,5.5759,9.1735,10.8019,7.9968,7.5327,8.8605
1433.5938,-0.0245,-1.1759,3.2838,5.6064,4.7947,5.0237,-2.9750,8.2343,-1.8570,0.7878,3.6303,9.3473,8.5774,4.1052,5.2135,9.7987,8.1721,2.1450,6.0943
1437.5000,-3.7388,-6.4631,-2.0895,2.3465,3.8105,3.6402,-5.2132,6.7680,-8.9664,-4.6443,-5.9592,0.8364,4.1488,2.2206,-1.0880,6.4365,6.3762,-4.2534,1.9783
1441.4062,-6.6548,-10.6723,-7.1523,-0.1024,3.6332,3.8307,-3.9871,6.2318,-14.9671,-9.6970,-14.1029,-7.8529,-0.3159,0.6454,-7.2128,2.1343,3.8271,-9.5419,-1.8897
1445.3125,-8.3903,-12.7604,-9.7598,-1.2286,4.1029,4.8577,0.1905,6.7817,-18.3127,-13.2659,-18.2969,-14.1528,-3.4534,-0.1971,-10.9147,-1.5813,1.7325,-12.4316,-4.1783
1449.2188,-9.2827,-13.0390,-9.3708,-1.1603,4.7811,4.9923,5.0880,8.1247,-19.0617,-15.0867,-18.2209,-16.8256,-4.7842,-0.3148,-11.3649,-3.7752,0.7596,-13.0775,-4.5321
1453.1250,-10.1083,-12.8600,-7.1671,-0.5154,5.0944,2.5821,7.9529,9.6587,-18.7319,-15.5277,-15.8476,-16.4908,-4.8537,-0.0422,-9.5012,-4.4332,0.8394,-12.8462,-3.7274
1457.0312,-11.5325,-13.6427,-5.1468,-0.0538,4.5528,-2.7185,7.1118,10.7087,-19.2525,-15.1487,-14.2322,-15.1274,-4.8093,0.1960,-7.4167,-4.3024,1.3415,-13.3808,-3.1767
1460.9375,-13.6164,-15.8953,-4.8990,-0.3462,2.9491,-9.3938,2.9409,10.7374,-21.6659,-14.3429,-15.6684,-14.8354,-5.6852,0.0929,-7.1497,-4.3861,1.4731,-15.5421,-4.0863
1464.8438,-15.6929,-18.8762,-6.8573,-1.6102,0.4487,-14.6782,-2.4283,9.4665,-25.3916,-13.2363,-20.2989,-16.5818,-7.8132,-0.4613,-9.5484,-5.3870,0.6827,-18.8716,-6.7679
1468.7500,-16.7073,-21.0868,-10.3530,-3.7129,-2.4594,-16.0806,-6.4522,6.9232,-28.5099,-11.7947,-26.0061,-19.6577,-10.6644,-1.4134,-13.8117,-7.3752,-1.1057,-21.8729,-10.4805
1472.6562,-15.8268,-21.2159,-14.1736,-6.2384,-5.1133,-12.9208,-7.6483,3.4613,-28.8753,-9.9748,-29.6377,-22.1348,-13.1549,-2.6068,-17.9206,-9.8050,-3.4947,-22.8884,-13.8371
1476.5625,-12.9517,-18.8885,-17.0915,-8.5436,-6.8669,-6.8901,-6.2409,-0.2457,-25.3634,-7.7922,-28.8211,-22.0248,-14.2062,-3.8079,-19.6977,-11.8214,-5.8192,-21.0060,-15.4971
1480.4688,-8.8177,-14.7688,-18.0783,-9.8383,-7.2732,-1.2162,-3.6601,-3.3058,-18.5101,-5.3092,-23.2922,-18.4502,-13.2590,-4.7201,-17.9229,-12.6813,-7.4569,-16.4728,-14.7576
1484.3750,-4.6361,-10.0532,-16.3585,-9.3861,-6.2398,1.1135,-1.4018,-4.8703,-10.2135,-2.6272,-14.9902,-12.1712,-10.5185,-5.0543,-12.9389,-12.0940,-8.1171,-10.4527,-11.7873
1488.2812,-1.4957,-5.7809,-11.6196,-6.8390,-4.1209,-0.9879,-0.1479,-4.5071,-2.7458,0.0637,-6.9331,-5.2042,-6.8606,-4.6720,-6.4709,-10.3470,-7.9831,-4.3764,-7.4718
1492.1875,0.1224,-2.4268,-4.4248,-2.5469,-1.6741,-6.1481,0.2690,-2.4898,2.3103,2.4261,-1.5972,0.2122,-3.4657,-3.7205,-0.7945,-8.1812,-7.6282,0.6875,-3.0131
1496.0938,0.4641,0.0602,3.5468,2.4236,0.1814,-11.3762,0.2142,0.2365,4.6285,4.0193,0.2496,2.7225,-1.3281,-2.6207,2.3050,-6.4731,-7.7137,4.3255,0.5288
1500.0000,0.2463,1.9594,9.9129,6.7107,0.7765,-13.7487,-0.3763,2.5019,5.0032,4.4991,-0.3427,2.4526,-0.8180,-1.8396,2.2677,-5.8516,-8.5941,6.7031,2.6051
1503.9062,0.2250,3.5279,12.7094,9.3743,0.1000,-11.9234,-1.9611,3.5832,4.7223,3.8825,-1.3847,0.8299,-1.4731,-1.5452,-0.1313,-6.4034,-10.0331,8.2977,3.3615
1507.8125,0.8486,4.9484,11.6170,10.4810,-1.0526,-6.6547,-4.6964,3.6927,4.8705,2.6771,-1.1932,-0.2281,-2.1404,-1.3749,-3.2897,-7.6036,-11.2137,9.6438,3.5719
1511.7188,2.1422,6.3761,8.3792,11.1196,-1.3704,-0.1483,-7.7271,3.9176,5.9112,1.7120,0.7412,0.6959,-1.4616,-0.5308,-5.5916,-8.5175,-11.0801,11.1678,4.3079
1515.6250,3.8023,7.8986,5.9092,12.7314,0.3085,5.2235,-9.2298,5.5593,7.6543,1.6950,3.6870,3.8565,1.4795,1.7817,-6.1081,-8.2057,-8.8642,13.0753,6.4319
1519.5312,5.3717,9.3662,6.5062,16.1174,4.2890,8.0434,-7.4103,9.2349,9.4941,2.7393,6.3028,8.3228,6.6539,5.8052,-4.8680,-6.1535,-4.5164,15.2520,10.1289
1523.4375,6.3829,10.2671,10.3427,20.7676,9.7028,8.2470,-1.8473,14.3181,10.7242,4.1796,7.4883,12.5571,13.0169,10.9303,-2.6477,-2.5206,1.2078,17.2272,14.7385
1527.3438,6.4443,9.8764,15.3228,25.0126,14.8390,6.7571,5.8313,19.1351,10.7908,4.8568,6.9345,15.2528,18.9528,15.8902,-0.4697,1.9176,7.0682,18.3046,19.0356
1531.2500,5.3158,7.7057,18.4883,26.9769,18.0037,4.7530,12.5884,21.8613,9.4376,3.7601,5.1269,15.9689,23.0300,19.3924,0.8858,6.1098,11.9025,17.8876,21.8565
1535.1562,3.0033,3.9772,18.0295,25.7545,18.4388,3.0741,15.6745,21.5934,6.7552,0.6639,2.9143,15.2314,24.6673,20.8348,1.1279,9.1781,15.1241,15.8598,22.7303
1539.0625,-0.1618,-0.2718,14.4727,22.0372,16.7545,2.0347,14.3217,18.9180,3.1435,-3.6360,0.9859,14.0865,24.3407,20.6671,0.4160,10.7503,16.8934,12.7666,22.1268
1542.9688,-3.5452,-3.6449,10.1940,17.7540,14.5965,1.5926,10.2896,15.5947,-0.8074,-7.6596,-0.4250,13.4043,23.2244,20.1510,-0.8480,11.0212,17.8966,9.6133,21.1464
1546.8750,-6.3869,-5.1761,7.6260,14.9274,13.7259,1.6144,6.8373,13.5298,-4.4964,-9.9811,-1.4954,13.3655,22.4893,20.6386,-2.2284,10.5447,18.8861,7.3366,20.8245
1550.7812,-8.0849,-4.9305,7.4914,14.4787,15.0518,2.0097,6.7285,13.6762,-7.4869,-9.9497,-2.5393,13.4344,22.6748,22.7917,-3.3696,9.8975,20.2576,6.2610,21.4866
1554.6875,-8.4442,-3.9688,8.3656,15.7533,18.1857,2.6798,10.5157,15.5409,-9.6002,-7.9816,-3.7297,12.8029,23.4873,26.2093,-4.0298,9.4089,21.8894,5.9099,22.5681
1558.5938,-7.7409,-3.6545,7.8743,17.0594,21.7615,3.4022,16.1711,17.5911,-10.8817,-5.2692,-4.9849,10.9966,24.1031,29.6843,-4.1007,9.0819,23.2986,5.3391,23.0180
1562.5000,-6.5480,-4.7521,4.6121,16.8422,24.2922,3.8070,20.2680,18.2720,-11.4689,-3.0978,-6.0445,8.2433,23.7515,31.9274,-3.6451,8.7098,23.9831,3.8092,22.0233
1566.4062,-5.4136,-6.9243,-0.6520,14.7139,25.0235,3.5130,19.9731,16.9758,-11.4486,-2.1734,-6.6307,5.3751,22.2112,32.3117,-2.9063,8.0815,23.7339,1.3664,19.5838
1570.3125,-4.5701,-8.9610,-5.3672,11.6760,24.2750,2.3553,14.6603,14.3542,-10.7923,-2.3248,-6.5679,3.3524,19.9345,31.1859,-2.2221,7.1444,22.7379,-1.0713,16.5671
1574.2188,-3.8385,-9.5634,-6.8950,9.4232,23.1017,0.5507,6.2535,11.8134,-9.4016,-2.7015,-5.8002,2.7326,17.7605,29.5727,-1.8362,6.0402,21.4291,-2.2098,14.2104
1578.1250,-2.7718,-8.1411,-4.2815,9.2130,22.5365,-1.3210,-1.8148,10.5498,-7.2221,-2.2975,-4.3435,3.4141,16.4113,28.4511,-1.7124,5.0132,20.1874,-1.1661,13.3847
1582.0312,-0.9476,-5.1065,1.1178,11.0416,22.9064,-2.5420,-6.3783,10.7624,-4.3456,-0.4803,-2.2531,4.7781,16.0701,28.0774,-1.5008,4.2566,19.0647,1.9450,14.0706
1585.9375,1.7607,-1.5291,6.5295,13.6310,23.6364,-2.5809,-6.0643,11.5334,-1.0347,2.7449,0.3464,6.0844,16.2689,27.7732,-0.7318,3.7814,17.6981,5.9962,15.3502
1589.8438,5.0782,1.5562,9.4845,15.1981,23.6246,-1.3474,-1.8198,11.4293,2.3442,6.8095,3.2056,6.8414,16.1328,26.3255,0.8549,3.3711,15.4710,9.4209,15.9045
1593.7500,8.4362,3.7114,9.2009,14.5036,21.9269,0.7683,3.7450,9.4224,5.4455,10.8766,5.9497,6.9443,14.8451,22.7642,3.0671,2.6496,11.8510,11.0348,14.7227
1597.6562,11.2266,5.2142,6.8118,11.5481,18.3254,3.1055,7.7694,5.5581,8.0644,14.1600,8.1884,6.5710,12.0939,17.0499,5.3021,1.2442,6.7368,10.6288,11.6390
1601.5625,13.0623,6.7464,4.4716,7.5493,13.4663,5.0853,8.5521,0.9728,10.1945,16.1276,9.6969,5.9868,8.2830,10.2505,6.8855,-1.0083,0.6329,9.0163,7.4390
1605.4688,13.9142,8.9185,4.0552,4.2818,8.5310,6.5090,6.2479,-2.7169,11.9940,16.5709,10.5489,5.4228,4.4057,4.0881,7.4946,-3.9024,-5.4509,7.5495,3.5177
1609.3750,14.0607,11.9166,6.2663,3.2065,4.6742,7.6179,2.5436,-4.2581,13.6675,15.6001,11.0844,5.0776,1.6454,0.1137,7.3642,-6.8366,-10.3364,7.4142,1.2893
1613.2812,13.8878,15.4051,10.5354,4.8746,2.5634,8.8671,-0.4432,-3.3333,15.3184,13.6204,11.6993,5.1662,0.9007,-1.0168,7.1078,-8.9699,-13.0904,9.0995,1.6399
1617.1875,13.6564,18.6605,15.5410,8.8651,2.2477,10.5445,-1.3713,-0.5522,16.8542,11.2829,12.5797,5.9107,2.4680,0.2421,7.2625,-9.5218,-13.3136,12.2912,4.6576
1621.0938,13.3700,20.8434,19.9179,14.1831,3.3603,12.4823,-0.2631,3.0695,18.0151,9.3568,13.5642,7.4449,6.0260,2.7135,7.8837,-8.0943,-11.1805,16.1720,9.7203
1625.0000,12.8215,21.3300,22.7921,19.8103,5.4608,14.0727,1.8708,6.7682,18.5358,8.4971,14.2528,9.7095,10.8964,5.2231,8.5030,-4.8495,-7.2522,19.8951,15.8505
1628.9062,11.7903,20.0230,24.0160,25.0767,8.2746,14.6154,4.0761,10.3959,18.3518,8.9689,14.3026,12.4363,16.3910,7.2119,8.5021,-0.4429,-2.2050,22.9424,22.1310
1632.8125,10.2594,17.5091,24.1225,29.6911,11.6868,13.8005,6.3899,14.2744,17.7082,10.4639,13.7066,15.2505,22.0216,8.8858,7.6405,4.2656,3.3574,25.1976,27.9672
1636.7188,8.4996,14.9101,24.0318,33.5045,15.5360,12.0108,9.9140,18.6778,17.0581,12.1416,12.8390,17.8174,27.4591,10.8617,6.3321,8.5663,8.9325,26.7590,33.0907
1640.6250,6.9411,13.3807,24.5586,36.2456,19.4009,10.2160,15.8585,23.3330,16.7722,12.9304,12.2033,19.9266,32.3289,13.5915,5.4243,12.1259,14.0464,27.6698,37.3566
1644.5312,5.8952,13.4462,25.8801,37.4579,22.5808,9.4704,24.1801,27.3199,16.8300,11.9753,12.0424,21.4708,36.0660,16.9641,5.5960,14.9713,18.2164,27.7695,40.5199
1648.4375,5.3045,14.5720,27.2706,36.7140,24.3488,10.2861,32.8542,29.4859,16.7219,9.0273,12.0936,22.3745,38.0197,20.3383,6.7901,17.2725,21.0431,26.7708,42.1826
1652.3438,4.7104,15.3259,27.3777,33.9711,24.3570,12.2503,38.5051,29.1349,15.6885,4.5795,11.6948,22.5704,37.7959,22.9613,8.1104,19.0928,22.3973,24.5034,41.9783
1656.2500,3.4965,14.1608,25.0140,29.8014,22.9404,14.1345,38.2010,26.5406,13.2044,-0.3239,10.2117,22.0585,35.6072,24.4637,8.3086,20.2828,22.5574,21.1508,39.8708
1660.1562,1.2867,10.4023,20.0276,25.2782,21.0778,14.4642,31.3240,22.9138,9.4134,-4.5166,7.5144,20.9778,32.3280,25.0886,6.5729,20.5825,22.1492,17.2975,36.3280
1664.0625,-1.7502,4.8054,13.6302,21.5024,19.9470,12.2611,20.2285,19.7906,5.2089,-7.1771,4.1707,19.5804,29.1240,25.4964,3.0979,19.8425,21.8649,13.7194,32.1887
1667.9688,-4.9011,-0.7468,7.8431,19.0063,20.2601,7.5714,9.1109,18.1785,1.8472,-8.1208,1.1943,18.0672,26.8186,26.2766,-0.9596,18.1914,22.1006,11.0135,28.2427
1671.8750,-7.2437,-4.2810,4.3263,17.3960,21.7417,1.5129,1.7002,17.9749,0.2845,-7.8008,-0.5174,16.3893,25.3862,27.4876,-4.1289,16.0234,22.7330,9.2789,24.7717
1675.7812,-8.1304,-4.8709,3.3560,15.5017,23.0880,-4.1825,-0.7881,18.0192,0.6321,-7.0346,-0.7017,14.1938,23.9268,28.5216,-5.4671,13.8128,23.1854,8.0513,21.3624
1679.6875,-7.5286,-3.1346,3.6839,12.0100,22.5107,-7.9070,-0.1253,16.7615,2.0835,-6.5945,0.1311,11.0268,21.1892,28.3834,-5.0553,11.8891,22.7555,6.5566,17.1584
1683.5938,-6.0075,-0.7685,3.4165,6.2502,18.6396,-8.8545,0.3095,13.1551,3.3816,-6.8440,1.0335,6.7132,16.3502,26.2230,-3.8444,10.3250,21.0113,4.1620,11.4284
1687.5000,-4.3795,0.5579,1.3076,-1.3282,11.3202,-7.3343,-2.1819,7.2502,3.5586,-7.5734,1.2173,1.6657,9.5781,21.8170,-2.9771,8.9969,18.0221,0.7749,4.1072
1691.4062,-3.2195,0.2008,-2.4527,-9.2874,1.8533,-4.5839,-7.9186,0.1613,2.5002,-8.0997,0.5361,-3.1307,2.0344,15.7391,-3.0423,7.7502,14.3043,-3.0409,-4.0336
1695.3125,-2.5567,-1.2030,-6.4997,-15.8933,-7.4967,-2.1646,-14.7702,-6.5378,0.9962,-7.5865,-0.4410,-6.5161,-4.6794,9.1437,-3.7379,6.5335,10.5420,-6.3082,-11.6959
1699.2188,-1.9171,-2.3219,-9.3584,-19.9715,-14.5019,-1.2106,-19.6212,-11.6073,0.2515,-5.4524,-0.7918,-7.7337,-9.2869,3.2867,-4.1271,5.4091,7.2675,-8.1121,-17.6501
1703.1250,-0.6719,-2.0791,-10.4734,-21.4335,-17.9616,-1.8844,-20.3022,-14.6603,1.1625,-1.6913,0.1945,-6.8355,-11.3655,-0.9728,-3.2869,4.4577,4.6800,-8.0509,-21.2506
1707.0312,1.5330,-0.2943,-10.4261,-21.1755,-18.1622,-3.3152,-16.7449,-16.1510,3.7872,3.0412,2.5899,-4.6500,-11.3751,-3.4626,-0.9191,3.6813,2.6686,-6.4198,-22.5850
1710.9375,4.5275,2.3595,-10.2327,-20.4386,-16.5752,-4.0781,-10.7738,-16.9069,7.3051,7.6358,5.7664,-2.3145,-10.2459,-4.6658,2.4490,2.9970,0.9730,-4.0367,-22.2267
1714.8438,7.6829,4.9358,-10.3411,-20.0274,-14.9859,-2.9876,-4.8875,-17.5282,10.4625,10.9613,8.7088,-0.6461,-8.8264,-5.4072,5.7628,2.3328,-0.6374,-1.8119,-20.8089
1718.7500,10.2341,6.8375,-10.1616,-19.8479,-14.5463,0.2165,-0.9291,-18.0107,12.2288,12.3427,10.5136,0.2757,-7.5104,-6.4114,8.0256,1.7383,-2.2533,-0.2960,-18.7042
1722.6562,11.6634,8.0477,-8.5027,-18.9997,-15.2621,4.6898,0.5975,-17.7708,12.2998,11.8662,10.8199,1.0850,-6.1880,-7.9334,8.8177,1.4099,-3.7930,0.5658,-15.9641
1726.5625,11.9320,8.9061,-4.5393,-16.3229,-16.1412,8.9412,0.3915,-16.0103,11.2016,10.3572,9.9817,2.7018,-4.4488,-9.6236,8.4735,1.6005,-5.0150,1.3602,-12.4678
1730.4688,11.4522,9.7181,1.4763,-11.0568,-15.8504,11.6803,-0.2529,-12.1893,9.9782,9.0177,8.9234,5.7685,-1.8565,-10.6859,7.8595,2.4784,-5.5537,2.8684,-8.1069
1734.3750,10.8381,10.5451,8.3159,-3.2527,-13.4640,12.5475,-0.0706,-6.3638,9.6521,8.8766,8.7445,10.2668,1.8490,-10.2552,7.9024,4.0458,-4.9951,5.6404,-2.8749
1738.2812,10.5807,11.2901,14.5666,6.2259,-8.8959,12.2680,1.7539,0.7518,10.7308,10.3067,10.2260,15.4955,6.6585,-7.8165,9.1210,6.1691,-3.0155,9.6885,3.1427
1742.1875,10.8174,11.9044,19.4489,16.0439,-2.8413,12.1204,5.3387,7.9944,12.9756,12.8402,13.4303,20.3833,12.2801,-3.4650,11.3749,8.6820,0.4440,14.4326,9.7857
1746.0938,11.2988,12.4554,23.0254,24.8586,3.6460,13.0537,9.9739,14.1305,15.5159,15.3810,17.5713,23.9454,18.1790,2.1194,13.9289,11.4564,5.0562,18.9139,16.7802
1750.0000,11.5542,12.9719,25.7207,31.6977,9.6476,15.0245,14.2112,18.2573,17.2345,16.7169,21.2544,25.6594,23.6864,7.9659,15.7907,14.3734,10.1388,22.1681,23.6833
1753.9062,11.1555,13.2392,27.6600,36.1511,14.6866,16.9909,16.3431,20.0930,17.2467,16.0852,23.0285,25.6072,28.1883,13.2230,16.1666,17.2211,14.8701,23.5909,29.9181
1757.8125,9.9371,12.7980,28.4578,38.3795,18.7613,17.5693,15.2331,20.0607,15.2672,13.5125,22.0281,24.3518,31.3436,17.4791,14.8319,19.6290,18.5982,23.1397,34.9578
1761.7188,8.0593,11.2325,27.6474,38.9910,22.1919,15.9186,11.1051,19.1352,11.7097,9.7597,18.3881,22.6271,33.2144,20.8464,12.2327,21.1315,21.0783,21.2960,38.5736
1765.6250,5.8909,8.5475,25.3403,38.8270,25.4253,12.2765,5.7335,18.4963,7.4861,5.9049,13.1900,20.9861,34.1996,23.7893,9.2541,21.3537,22.4949,18.8251,40.9634
1769.5312,3.7914,5.3079,22.4576,38.6912,28.8793,7.8118,1.7417,19.1075,3.6034,2.7849,7.9321,19.5634,34.7709,26.8097,6.7490,20.2003,23.2582,16.4517,42.6169
1773.4375,1.9296,2.3646,20.2307,39.0744,32.8202,3.9222,1.2946,21.3771,0.7487,0.5965,3.7901,18.0591,35.1533,30.1502,5.0723,17.9086,23.7035,14.5976,43.9548
1777.3438,0.2493,0.3192,19.3077,39.9638,37.2355,1.4574,4.9379,25.0263,-0.9520,-1.1275,1.0743,15.9547,35.1491,33.6456,3.8905,14.9143,23.8842,13.2774,44.9636
1781.2500,-1.4121,-0.8902,19.1902,40.8259,41.7191,0.3621,11.3018,29.2059,-1.9101,-3.1536,-0.8088,12.8473,34.2290,36.7617,2.4033,11.6204,23.5813,12.1641,45.0898
1785.1562,-3.1514,-1.9620,18.5069,40.7941,45.4565,-0.0921,17.8360,32.8006,-2.8324,-6.0064,-2.8862,8.7161,31.8370,38.7798,-0.1262,8.2319,22.5002,10.7566,43.4960
1789.0625,-4.9130,-3.7664,15.9657,38.9968,47.4014,-0.7173,22.0764,34.7952,-4.4042,-9.5692,-5.9416,3.9564,27.7143,39.0428,-3.8476,4.7661,20.5042,8.5579,39.5332
1792.9688,-6.5609,-6.7722,11.2661,34.8872,46.6388,-1.9019,22.6593,34.5725,-7.0489,-13.0767,-10.0563,-0.8522,22.0363,37.1784,-8.1454,1.2057,17.7197,5.2015,33.1253
1796.8750,-8.0499,-10.7665,5.2602,28.4386,42.7907,-3.5024,19.5910,32.0632,-10.8409,-15.5251,-14.6346,-5.3056,15.2920,33.2320,-11.9564,-2.3542,14.4500,0.5149,24.8165
1800.7812,-9.5440,-15.0415,-0.7539,20.1348,36.2494,-5.1251,13.8646,27.7202,-15.5490,-16.2744,-18.8570,-9.4299,8.0151,27.6668,-14.4115,-5.7100,10.9755,-5.4549,15.4697
1804.6875,-11.3516,-18.8683,-6.0301,10.7879,28.0835,-6.5121,6.9066,22.3420,-20.7423,-15.4901,-22.2310,-13.6478,0.5630,21.2227,-15.4060,-8.7117,7.3944,-12.4355,5.8389
1808.5938,-13.6851,-21.8885,-10.8520,1.2797,19.6340,-7.7124,0.2412,16.7945,-25.8996,-14.1470,-24.8643,-18.4572,-6.9146,14.6730,-15.7165,-11.4442,3.6210,-19.9484,-3.6855
1812.5000,-16.4016,-24.1602,-16.1064,-7.6653,11.9906,-8.9278,-4.6568,11.7163,-30.5094,-13.5679,-27.2951,-24.0183,-14.3290,8.5702,-16.5537,-14.2417,-0.4664,-27.3771,-13.0107
1816.4062,-18.9343,-25.8927,-22.3067,-15.6043,5.6089,-10.1934,-6.6364,7.3142,-34.1697,-14.7415,-30.0201,-29.9198,-21.4668,3.0975,-18.8027,-17.4644,-4.8409,-34.0868,-22.0483
1820.3125,-20.5121,-27.1405,-28.8787,-22.3755,0.2501,-11.1764,-5.4284,3.3520,-36.6756,-17.7968,-33.0557,-35.2846,-27.9205,-1.8985,-22.4112,-21.1600,-9.2471,-39.5576,-30.4499
1824.2188,-20.5656,-27.7247,-34.3211,-27.9909,-4.7438,-11.2773,-2.1760,-0.6295,-38.0469,-21.9197,-35.8248,-39.1586,-33.1840,-6.7047,-26.3123,-24.8555,-13.2857,-43.4688,-37.5855
1828.1250,-19.0658,-27.4237,-37.1523,-32.4713,-9.9901,-9.9868,0.6676,-4.9436,-38.4545,-25.7434,-37.4324,-40.9404,-36.8406,-11.4781,-28.9413,-27.6693,-16.6054,-45.6899,-42.7823
1832.0312,-16.5661,-26.2333,-36.9282,-35.6945,-15.6436,-7.2625,0.4094,-9.4284,-38.0601,-27.9759,-37.1378,-40.5886,-38.7075,-16.0694,-29.0467,-28.7278,-19.0702,-46.1962,-45.6425
1835.9375,-13.9038,-24.4461,-34.5447,-37.3418,-21.2070,-3.6764,-4.2581,-13.3652,-36.8640,-27.9228,-34.7299,-38.5007,-38.8540,-20.0348,-26.3254,-27.6488,-20.7910,-44.9800,-46.2100
1839.8438,-11.7473,-22.4697,-31.5950,-36.9990,-25.6597,-0.2290,-12.1170,-15.7411,-34.6784,-25.6595,-30.5990,-35.1783,-37.5081,-22.8258,-21.5372,-24.7899,-22.0073,-42.0368,-44.8853
1843.7500,-10.2782,-20.5372,-29.2790,-34.3996,-27.8703,2.0782,-19.7267,-15.7529,-31.2794,-21.8365,-25.5109,-30.9267,-34.9420,-24.0507,-16.0756,-21.0947,-22.9044,-37.4516,-42.1766
1847.6562,-9.2026,-18.5640,-27.6904,-29.6989,-27.1391,2.6960,-23.2405,-13.2868,-26.6619,-17.3047,-20.2581,-25.7973,-31.4163,-23.6665,-11.2831,-17.6246,-23.4879,-31.5274,-38.4869
1851.5625,-8.0574,-16.2787,-25.9917,-23.6139,-23.6434,1.7899,-20.6987,-9.0865,-21.2302,-12.8036,-15.3993,-19.7937,-27.1947,-22.0125,-7.9062,-15.0593,-23.5898,-24.8515,-34.0747
1855.4688,-6.5834,-13.5250,-23.2855,-17.2911,-18.5481,0.1946,-13.2921,-4.4821,-15.7728,-8.8454,-11.1994,-13.1710,-22.5723,-19.6811,-5.9482,-13.4525,-22.9868,-18.2174,-29.1703
1859.3750,-4.9092,-10.4845,-19.4620,-11.9057,-13.6484,-0.9284,-4.6902,-0.7980,-11.1947,-5.7657,-7.7326,-6.5837,-17.8582,-17.2957,-4.9132,-12.3501,-21.5424,-12.4085,-24.0939
1863.2812,-3.4437,-7.6330,-15.3537,-8.1568,-10.6176,-0.5994,1.1659,1.2498,-8.1444,-3.8044,-5.0261,-0.9424,-13.2991,-15.2851,-4.2182,-11.1472,-19.2790,-7.9394,-19.2302
1867.1875,-2.5851,-5.4609,-12.0927,-5.9293,-10.1730,1.5085,2.3368,1.8458,-6.7464,-3.1037,-3.1276,2.9672,-8.9986,-13.7324,-3.5127,-9.4346,-16.3499,-4.8911,-14.8496
1871.0938,-2.4665,-4.1796,-10.2028,-4.3363,-11.6014,4.8563,-0.2741,1.9066,-6.5919,-3.6213,-2.0704,4.8796,-4.9000,-12.3431,-2.7643,-7.1412,-12.9502,-2.9313,-10.9155
1875.0000,-2.9049,-3.6423,-9.1603,-2.1686,-12.9782,8.2206,-3.9525,2.5591,-6.9850,-5.0493,-1.7897,5.2116,-0.8620,-10.5573,-2.1426,-4.4491,-9.2450,-1.5140,-7.0578
1878.9062,-3.5543,-3.5323,-7.7901,1.4569,-12.0746,10.2380,-6.1821,4.5510,-7.2951,-6.8418,-2.0769,4.8744,3.2104,-7.7866,-1.8363,-1.6113,-5.3622,-0.1594,-2.7877
1882.8125,-4.1215,-3.6599,-5.2124,6.5896,-7.5320,10.0762,-6.1119,7.9007,-7.2213,-8.3720,-2.6241,4.8225,7.2615,-3.7077,-1.9262,1.1684,-1.4379,1.3260,2.1573
1886.7188,-4.4871,-4.1247,-1.6287,12.3653,0.3336,7.8814,-4.5140,11.9400,-6.8512,-9.1465,-3.1419,5.5835,11.0718,1.5156,-2.3514,3.7315,2.3438,2.7918,7.5607
1890.6250,-4.6777,-5.2097,1.6650,17.4146,9.5931,4.7267,-2.5189,15.6907,-6.5228,-8.9644,-3.4817,7.0278,14.3479,7.2125,-2.9380,5.8996,5.7726,3.8698,12.7533
1894.5312,-4.7600,-7.0856,3.0938,20.5518,17.6503,2.0514,-0.3591,18.3534,-6.5935,-7.9541,-3.6863,8.5013,16.8611,12.4419,-3.4463,7.4601,8.6918,4.2174,16.9292
1898.4375,-4.7681,-9.5430,1.9117,21.3725,22.5613,0.8923,2.7476,19.6567,-7.2369,-6.4905,-3.9297,9.2439,18.5567,16.3960,-3.6279,8.2519,11.0803,3.7522,19.5681
1902.3438,-4.7172,-11.9571,-1.1539,20.4338,23.9691,1.3600,7.4945,19.9084,-8.3389,-5.0499,-4.3758,8.8524,19.5715,18.7614,-3.3094,8.2930,13.0597,2.7602,20.7054
1906.2500,-4.6583,-13.5211,-4.1791,18.9175,23.1106,2.6767,13.1952,19.7515,-9.5142,-4.0543,-5.0359,7.5232,20.1489,19.8200,-2.4935,7.8263,14.7984,1.8108,20.8776
1910.1562,-4.6862,-13.6157,-5.1032,17.9644,21.9186,3.7444,17.5870,19.7698,-10.2294,-3.7346,-5.7130,5.9382,20.4924,20.2151,-1.4257,7.2112,16.3590,1.5053,20.7747
1914.0625,-4.8644,-12.1008,-2.9374,18.0470,21.7893,3.8645,18.1511,20.1511,-10.0035,-4.0312,-6.0824,4.8574,20.6302,20.5127,-0.5503,6.7055,17.5889,2.1694,20.8093
1917.9688,-5.1218,-9.3816,1.6033,18.7242,22.7776,3.1374,14.0765,20.5764,-8.6320,-4.5736,-5.8727,4.6524,20.3630,20.8315,-0.3331,6.2806,18.1410,3.6442,20.8629
1921.8750,-5.2239,-6.2291,6.4224,18.9077,23.6803,2.2960,7.3172,20.3893,-6.3385,-4.7874,-5.0475,5.0534,19.3329,20.7802,-1.0201,5.6117,17.6346,5.2981,20.3581
1925.7812,-4.8709,-3.4596,9.1404,17.4830,22.8930,2.1222,1.7269,18.9565,-3.7523,-4.1388,-3.8702,5.2569,17.1955,19.7411,-2.4749,4.2717,15.8739,6.2838,18.6093
1929.6875,-3.8730,-1.6166,8.3556,13.9419,19.4532,2.8743,0.6617,16.0308,-1.6629,-2.4279,-2.7936,4.3470,13.8220,17.3136,-4.2142,2.0228,12.9971,5.9373,15.2450
1933.5938,-2.2805,-0.7815,4.3809,8.6830,13.6192,4.1281,4.6601,11.9246,-0.6294,0.0364,-2.2152,1.8023,9.4319,13.6260,-5.6438,-0.9716,9.4647,4.1282,10.4594
1937.5000,-0.3670,-0.5725,-0.9333,2.8347,6.6836,5.1226,10.8871,7.3954,-0.6403,2.5269,-2.2299,-2.1745,4.5771,9.3189,-6.3574,-4.1444,5.8885,1.3813,4.9626
1941.4062,1.5264,-0.3216,-5.1710,-2.2815,0.2321,5.3435,14.8556,3.3008,-1.0361,4.2648,-2.5205,-6.6722,-0.0292,5.2262,-6.3016,-6.7371,2.7963,-1.3064,-0.3273
1945.3125,3.1826,0.6447,-6.5756,-5.7419,-4.6336,4.9220,13.3322,0.2064,-0.7834,4.8821,-2.4560,-10.4094,-3.7640,1.9737,-5.6927,-8.1054,0.4594,-2.8713,-4.6651
1949.2188,4.6077,2.7424,-4.8589,-7.3547,-7.6470,4.5832,6.4719,-1.8408,1.0171,4.6995,-1.3552,-12.2260,-6.3007,-0.2530,-4.7399,-7.9617,-1.1351,-2.6192,-7.7235
1953.1250,5.9915,5.9966,-1.1718,-7.5904,-9.1888,5.1982,-2.2645,-3.2526,4.6693,4.6203,1.2176,-11.5034,-7.6645,-1.6574,-3.3816,-6.4508,-2.1797,-0.4835,-9.5886
1957.0312,7.5798,10.0904,2.7047,-7.1944,-9.8067,7.2573,-8.3290,-4.5919,9.7293,5.6684,5.2618,-8.3546,-8.1164,-2.5807,-1.2486,-4.0561,-2.8913,2.9994,-10.5481
1960.9375,9.5583,14.5422,5.4403,-6.7289,-9.8150,10.5900,-8.9130,-6.1927,15.2486,8.4294,10.3256,-3.5459,-7.9463,-3.2491,2.0756,-1.4160,-3.4062,6.9566,-10.8272
1964.8438,12.0044,18.8867,6.8577,-6.2992,-9.2056,14.4534,-4.4923,-7.9166,20.2459,12.7252,15.6454,1.7830,-7.3069,-3.6833,6.6459,0.8611,-3.7734,10.5341,-10.4465
1968.7500,14.8867,22.7437,7.8523,-5.5881,-7.8317,17.8657,1.8466,-9.1773,24.1121,17.7037,20.3601,6.4798,-6.1869,-3.7927,11.8768,2.3265,-4.0227,13.1644,-9.2797
1972.6562,18.0488,25.7606,9.6229,-4.1386,-5.6560,19.9583,6.6832,-9.2187,26.7119,22.2608,23.7181,9.7043,-4.5288,-3.5491,16.6201,2.7634,-4.2340,14.6479,-7.2554
1976.5625,21.1562,27.5324,12.7432,-1.6982,-2.8731,20.1994,8.4835,-7.5054,28.1672,25.5159,25.2329,11.1266,-2.3961,-3.0996,19.6117,2.2183,-4.5446,15.0576,-4.5530
1980.4688,23.6639,27.6346,16.6853,1.5682,0.1322,18.4910,8.2658,-4.0358,28.5275,27.0687,24.7737,10.9500,-0.0591,-2.7430,20.0607,0.9983,-5.0754,14.5679,-1.6436
1984.3750,24.8946,25.8159,20.0930,5.1023,2.9066,15.2129,8.3985,0.5744,27.5962,26.9521,22.5860,9.7621,2.0779,-2.7908,18.0431,-0.3780,-5.8195,13.3237,0.8745
1988.2812,24.2661,22.2409,21.5914,8.1882,5.0373,11.2224,10.5465,5.2859,25.0533,25.4183,19.2310,8.2779,3.6848,-3.3906,14.4703,-1.2906,-6.5609,11.4202,2.5645
1992.1875,21.5826,17.5838,20.5821,10.2789,6.2383,7.7221,14.3174,9.0382,20.7879,22.7734,15.4390,7.0875,4.7264,-4.3919,10.6499,-1.1787,-6.8841,8.9867,3.4019
1996.0938,17.2199,12.8424,17.5194,11.2603,6.4590,5.8999,17.5614,11.1989,15.1922,19.3723,11.9055,6.5191,5.5573,-5.3081,7.6919,0.2904,-6.2872,6.2990,3.8377
2000.0000,12.0633,8.9316,13.5554,11.5314,6.0172,6.4023,18.0413,11.8585,9.1856,15.6980,9.0977,6.6623,6.8109,-5.4071,6.0863,3.1077,-4.3637,3.8295,4.6248
2003.9062,7.1939,6.2974,9.8788,11.8577,5.6501,8.8972,15.2023,11.8152,3.9142,12.3519,7.1461,7.4926,9.1174,-3.9388,5.6478,6.9093,-0.9828,2.1720,6.4858
2007.8125,3.4808,4.8017,7.2238,13.0418,6.3429,12.0479,10.7295,12.2127,0.2819,9.8559,5.8629,8.9715,12.7799,-0.4590,5.7902,11.0747,3.6085,1.8443,9.7814
2011.7188,1.2937,3.9532,5.8198,15.5412,8.9003,14.0446,7.4763,13.9652,-1.4247,8.3618,4.8654,11.0221,17.5661,4.8689,5.9116,14.8999,8.8130,3.0504,14.3339
2015.6250,0.4774,3.3085,5.6586,19.2025,13.4399,13.4946,7.5142,17.2395,-1.6171,7.4977,3.7391,13.3917,22.7236,11.1721,5.6532,17.7835,13.8389,5.5179,19.4792
2019.5312,0.5582,2.7417,6.7182,23.2510,19.1266,10.1954,10.6776,21.2772,-1.1666,6.5286,2.1750,15.5355,27.2170,17.0965,4.9292,19.3620,17.9311,8.5151,24.3066
2023.4375,1.0241,2.3821,8.8802,26.5681,24.3996,5.3127,14.6206,24.6929,-0.9945,4.7882,0.0481,16.6752,30.0832,21.3323,3.7956,19.5511,20.5833,11.0687,27.9699
2027.3438,1.5038,2.2826,11.6183,28.1440,27.6529,0.8014,16.3491,26.1265,-1.7080,2.1187,-2.5586,16.0808,30.7455,23.1986,2.3143,18.4903,21.6428,12.3043,29.9301
2031.2500,1.7791,2.1061,13.8163,27.4864,28.0159,-1.6403,14.1733,24.9142,-3.4407,-0.9925,-5.3784,13.4445,29.1527,22.9508,0.5209,16.4239,21.2666,11.7578,30.0419
2035.1562,1.6926,1.1271,14.0401,24.7781,25.7643,-1.4929,8.7589,21.4044,-5.9242,-3.6934,-8.0343,9.1070,25.6992,21.5893,-1.5170,13.5790,19.7649,9.5142,28.4770
2039.0625,1.0829,-1.3767,11.2381,20.7093,22.0977,0.3200,2.5936,16.7394,-8.6990,-5.2931,-10.1656,3.9531,20.9924,20.2484,-3.6475,10.1012,17.4267,6.1205,25.5526
2042.9688,-0.1727,-5.5692,5.4607,16.1013,18.4174,1.9871,-1.7132,12.2379,-11.3225,-5.6761,-11.5740,-0.9963,15.6033,19.5249,-5.6685,6.0795,14.4280,2.3380,21.5745
2046.8750,-2.0297,-10.7133,-1.9144,11.5581,15.5686,1.8658,-3.1008,8.7535,-13.4686,-5.3206,-12.3114,-5.0580,9.9328,19.1798,-7.4289,1.6445,10.8701,-1.1232,16.7797
2050.7812,-4.1696,-15.3094,-8.6802,7.3485,13.5246,-0.5596,-2.5641,6.3840,-14.8996,-4.9164,-12.6297,-8.1231,4.2464,18.4139,-8.8980,-2.9259,6.9079,-3.7601,11.4024
2054.6875,-6.0183,-17.6897,-12.7719,3.5502,11.6779,-4.3580,-2.2126,4.6632,-15.3729,-4.8592,-12.7813,-10.5052,-1.1831,16.5314,-10.1147,-7.1689,2.8663,-5.2924,5.8006
2058.5938,-6.9168,-16.7622,-13.1496,0.2926,9.4746,-7.6451,-3.6140,3.0452,-14.5888,-4.9794,-12.7760,-12.5192,-5.9523,13.5293,-11.0367,-10.5161,-0.7527,-5.6034,0.5332
2062.5000,-6.3792,-12.5118,-10.1048,-2.1324,6.9017,-8.6176,-6.6263,1.3133,-12.2591,-4.6905,-12.2679,-14.1010,-9.5425,10.1864,-11.4193,-12.4688,-3.4036,-4.7071,-3.7121
2066.4062,-4.3183,-6.0190,-4.9079,-3.4109,4.4683,-6.5630,-9.5264,-0.3638,-8.2948,-3.4412,-10.6977,-14.7561,-11.4955,7.5777,-10.8606,-12.7894,-4.7102,-2.7845,-6.3499
2070.3125,-1.1363,0.9840,0.8802,-3.5028,2.7148,-2.2986,-10.2850,-1.7242,-3.0123,-1.1473,-7.6551,-13.8898,-11.6567,6.3482,-9.0387,-11.6070,-4.6423,-0.2358,-7.1863
2074.2188,2.3727,6.7812,5.9783,-2.8409,1.6587,2.2073,-8.0265,-2.7731,2.7939,1.6914,-3.2493,-11.2900,-10.3287,6.2619,-6.0042,-9.3780,-3.5539,2.3546,-6.5901
2078.1250,5.2834,10.2676,9.5957,-2.2134,0.6437,4.8476,-3.6216,-3.8895,8.0243,4.2571,1.7708,-7.4164,-8.2114,6.3548,-2.3120,-6.7171,-2.0567,4.3962,-5.3995
2082.0312,6.8826,11.2571,11.3757,-2.3310,-1.2281,4.4958,0.9504,-5.5526,11.6721,5.8697,6.2730,-3.2689,-6.1287,5.5942,1.1415,-4.1866,-0.7848,5.5533,-4.5526
2085.9375,6.9616,10.4256,11.3269,-3.3282,-4.3507,1.6307,3.9187,-7.8764,13.2668,6.3304,9.2575,0.1060,-4.6685,3.5918,3.5165,-2.1465,-0.1616,5.9324,-4.6037
2089.8438,5.9228,8.9461,9.8799,-4.5468,-8.0918,-1.8942,4.7041,-10.3101,13.1101,5.9537,10.3301,2.1668,-3.9258,0.8821,4.4256,-0.7225,-0.2667,6.0518,-5.3876
2093.7500,4.6114,7.9580,7.9489,-4.7979,-10.9213,-3.8481,3.8926,-11.7723,12.1268,5.3031,9.8420,3.1433,-3.4852,-1.4102,4.0800,0.1264,-0.8499,6.5749,-6.0451
2097.6562,3.9075,8.0733,6.7557,-2.9939,-11.1936,-2.8611,2.3723,-11.1889,11.3688,4.8287,8.6191,3.8644,-2.6466,-2.2673,3.0904,0.5183,-1.4668,7.9491,-5.4359
2101.5625,4.2551,9.1325,7.3306,1.2194,-8.1276,0.7881,0.4795,-8.1116,11.4370,4.6326,7.4694,5.2678,-0.7652,-1.3619,2.0670,0.6095,-1.6682,10.1703,-2.7296
2105.4688,5.3848,10.3423,9.9285,7.2247,-2.3602,5.3077,-2.0459,-3.0202,12.1678,4.4752,6.7914,7.8966,2.4779,0.8450,1.2865,0.6215,-1.1560,12.8248,2.1494
2109.3750,6.4268,10.7611,13.7886,13.7446,4.3093,8.4095,-5.2389,2.8931,12.7964,3.9803,6.5130,11.6636,7.0047,3.5023,0.6426,0.8858,0.1538,15.3811,8.4860
2113.2812,6.4018,9.8906,17.5157,19.5175,9.8658,8.6327,-7.9910,8.3303,12.5153,2.8974,6.3445,15.9759,12.4725,5.9469,-0.1193,1.8242,2.1796,17.5400,15.1689
2117.1875,4.8360,8.0301,19.9289,23.9229,13.1646,6.1920,-8.0229,12.5209,11.0797,1.2814,6.1182,20.0955,18.4982,8.0612,-1.0834,3.8239,4.7966,19.4113,21.2832
2121.0938,2.1248,6.1473,20.8320,27.1901,14.5139,2.8240,-3.0963,15.5185,9.0583,-0.4870,5.9545,23.5018,24.8210,10.2183,-2.0096,7.0446,7.9562,21.4013,26.5448
2125.0000,-0.6179,5.3023,21.1392,30.0922,15.4183,0.7064,7.2238,18.0261,7.5401,-1.8406,6.1564,26.0649,31.3075,12.9269,-2.4616,11.2623,11.7196,23.8885,31.3180
2128.9062,-2.1860,5.9614,22.2048,33.3500,17.6514,1.1016,20.5616,20.8944,7.4578,-2.2697,6.9461,27.9766,37.8114,16.4672,-2.1142,15.8575,16.1654,26.8973,36.2171
2132.8125,-2.0305,7.6433,24.7757,37.1235,22.2065,3.5595,32.4265,24.6023,8.9479,-1.5836,8.2565,29.5184,43.9962,20.7481,-1.0120,19.9872,21.2098,29.9765,41.5452
2136.7188,-0.6674,9.1491,28.2964,40.8788,28.7147,6.1735,38.4152,28.9871,11.1623,-0.0801,9.7167,30.8100,49.2505,25.4024,0.4075,22.8759,26.4450,32.3475,46.9217
2140.6250,0.5383,9.2540,31.0817,43.6605,35.6164,6.7300,36.6004,33.3138,12.6643,1.4802,10.8026,31.6583,52.7737,29.9562,1.5343,24.0873,31.1199,33.2218,51.3238
2144.5312,0.1164,7.4220,31.2832,44.5583,40.9296,4.0424,28.5460,36.5904,12.1776,2.1359,11.0144,31.5725,53.8045,33.9111,1.8866,23.6420,34.3215,32.0995,53.5113
2148.4375,-2.6609,4.0860,28.0130,43.0841,43.1564,-1.3371,18.2643,37.9462,9.2417,1.1524,9.9741,29.9401,51.8893,36.7188,1.2965,21.9297,35.2997,28.9063,52.5832
2152.3438,-7.3260,0.3253,21.8742,39.2812,41.8516,-7.4242,9.8153,36.9175,4.4035,-1.5721,7.4616,26.3044,47.0638,37.7779,-0.1058,19.4757,33.7820,23.9474,48.3567
2156.2500,-12.4145,-2.8200,14.5596,33.5872,37.6294,-11.8947,5.1513,33.5664,-1.1215,-5.3483,3.4854,20.6387,39.8699,36.5857,-2.0358,16.6941,30.1093,17.7648,41.3952
2160.1562,-16.1860,-4.9243,7.8254,26.6022,31.7129,-13.2830,3.5700,28.4272,-6.0648,-8.9150,-1.5722,13.4911,31.2117,33.0281,-4.1826,13.7556,25.1128,11.0064,32.7258
2164.0625,-17.4459,-6.2721,2.5539,18.9193,25.3378,-11.6163,2.9415,22.3157,-9.6129,-10.9734,-6.8351,5.9025,22.1183,27.6187,-6.2350,10.6218,19.7931,4.3506,23.4463
2167.9688,-16.0251,-7.4586,-1.4882,11.0699,19.3221,-8.2146,1.6193,16.0592,-11.5539,-10.7820,-11.0364,-0.9096,13.5077,21.4601,-7.8489,7.2000,14.9645,-1.5466,14.4314
2171.8750,-12.7196,-8.8254,-5.1174,3.5301,13.9465,-4.8893,-0.4435,10.2354,-12.0797,-8.5088,-12.9423,-5.9888,6.0173,15.8581,-8.6716,3.5121,11.0347,-6.1437,6.2318
2175.7812,-8.8052,-10.1501,-8.8966,-3.2929,9.0938,-3.0557,-2.1185,5.0239,-11.4760,-5.1469,-11.9608,-8.9960,-0.0721,11.7604,-8.4827,-0.2212,7.9956,-9.1520,-0.8784
2179.6875,-5.4482,-10.7945,-12.6318,-9.1243,4.4940,-3.2004,-2.5534,0.2498,-9.9484,-2.0412,-8.5775,-10.2980,-4.8226,9.3435,-7.3767,-3.6204,5.5773,-10.6541,-6.8165
2183.5938,-3.3046,-10.1690,-15.5391,-13.8803,-0.0644,-4.8510,-2.3392,-4.3873,-7.6673,-0.2704,-4.2726,-10.7259,-8.5508,8.0065,-5.8203,-6.2794,3.4455,-11.0970,-11.6361
2187.5000,-2.4286,-8.1568,-16.8856,-17.6454,-4.6147,-6.9155,-3.3424,-9.0117,-4.9147,-0.1954,-0.8546,-11.1199,-11.6756,6.7800,-4.4687,-7.9165,1.3391,-11.1121,-15.4923
2191.4062,-2.4203,-5.2013,-16.5660,-20.5428,-8.9755,-8.1509,-7.2613,-13.3715,-2.1386,-1.3731,0.4640,-11.9003,-14.5290,4.9030,-3.8013,-8.4756,-0.8825,-11.2214,-18.5703
2195.3125,-2.6674,-2.0289,-15.1616,-22.5631,-12.7776,-7.5916,-14.0197,-16.8654,0.1846,-2.8340,-0.2957,-12.8929,-17.1834,2.2210,-3.8036,-8.1417,-3.2411,-11.5796,-20.9615
2199.2188,-2.5702,0.7607,-13.4578,-23.4690,-15.5528,-4.8664,-21.3042,-18.7927,1.7972,-3.5532,-1.9380,-13.4942,-19.3715,-0.8069,-3.9363,-7.2741,-5.6465,-11.9075,-22.5482
2203.1250,-1.7153,2.9409,-11.8260,-22.8635,-16.8853,-0.3597,-25.7109,-18.6818,2.8239,-2.8849,-2.8341,-13.0651,-20.5627,-3.4492,-3.4574,-6.2848,-7.8958,-11.6642,-22.9980
2207.0312,0.0099,4.6091,-9.9720,-20.4038,-16.5910,4.8603,-24.7563,-16.5068,3.7030,-0.7887,-1.8922,-11.3180,-20.1894,-5.1412,-1.9118,-5.5003,-9.7010,-10.3690,-21.9184
2210.9375,2.3878,5.9460,-7.2508,-16.0429,-14.8384,9.4105,-18.3469,-12.6730,4.9073,2.2060,0.8467,-8.4776,-17.9322,-5.7483,0.5353,-5.0476,-10.7688,-7.8861,-19.1070
2214.8438,4.9701,7.0174,-3.2947,-10.1480,-12.1234,12.1930,-8.7012,-7.8033,6.6395,5.2478,4.3386,-5.1371,-13.9118,-5.5301,3.1643,-4.8074,-10.9122,-4.5079,-14.7403
2218.7500,7.3034,7.7778,1.5575,-3.4134,-9.0739,12.9643,1.1574,-2.4752,8.7137,7.5102,7.2634,-1.9145,-8.6720,-4.8879,5.1379,-4.4603,-10.1248,-0.7957,-9.3600
2222.6562,9.1783,8.2415,6.3901,3.3915,-6.1729,12.5245,9.2056,2.9315,10.7001,8.5077,8.8439,0.8780,-2.9462,-4.0963,6.0253,-3.6241,-8.5562,2.7162,-3.6387
2226.5625,10.7385,8.6333,10.3265,9.6967,-3.5579,12.3206,15.2620,8.2105,12.2204,8.2668,9.2240,3.3548,2.6650,-3.1832,6.0593,-2.0298,-6.3940,5.7644,1.9339
2230.4688,12.3352,9.3447,13.1609,15.2697,-1.0290,13.5986,20.3953,13.1890,13.1689,7.2803,9.2054,5.9083,7.9137,-1.9933,5.9541,0.3436,-3.7358,8.4029,7.2356
2234.3750,14.1772,10.6787,15.4953,20.1456,1.7244,16.5693,25.5164,17.6010,13.6939,6.2532,9.5805,8.8862,12.8877,-0.3444,6.4076,3.2507,-0.5518,10.8337,12.4327
2238.2812,15.9990,12.5464,18.2206,24.4029,4.8161,20.1171,30.3174,21.0707,13.9549,5.7424,10.5435,12.2942,17.7719,1.8449,7.6256,6.2929,3.2173,13.1424,17.6821
2242.1875,17.0100,14.3398,21.6781,27.9394,7.9736,22.2989,33.3550,23.2111,13.8464,5.8581,11.5619,15.6975,22.5499,4.5165,9.1771,9.1001,7.4906,15.1161,22.8160
2246.0938,16.2353,15.1060,25.1141,30.3980,10.6006,21.3974,33.1313,23.7649,12.9156,6.1894,11.7434,18.3809,26.8489,7.5008,10.2583,11.4736,11.9320,16.2662,27.2401
2250.0000,13.0970,13.9557,26.8797,31.3021,12.0692,16.9288,29.2657,22.7008,10.5733,6.0081,10.4041,19.6761,30.0411,10.5536,10.1718,13.4009,15.9939,16.0493,30.1395
2253.9062,7.8833,10.4980,25.3320,30.3267,12.0735,10.0038,22.8424,20.2319,6.4876,4.6628,7.4538,19.2743,31.5434,13.3784,8.7049,14.9382,19.1124,14.1606,30.8851
2257.8125,1.7782,5.0716,19.9004,27.5453,10.8369,2.8154,15.7160,16.7792,0.9120,1.9573,3.3902,17.3573,31.1274,15.6615,6.1934,16.0494,20.9437,10.7376,29.3958
2261.7188,-3.6266,-1.3397,11.6305,23.4981,9.0610,-2.4537,9.3734,12.9201,-5.2788,-1.6913,-1.0156,14.4887,29.0491,17.1623,3.2814,16.5281,21.4967,6.3668,26.2285
2265.6250,-7.0865,-7.4590,2.8240,19.0294,7.6525,-4.6804,4.2420,9.3295,-10.8940,-5.4034,-5.0811,11.3437,25.9266,17.8513,0.5797,16.0755,21.0858,1.8996,22.3377
2269.5312,-8.2867,-12.1691,-4.0461,14.9669,7.3837,-4.2372,-0.0975,6.6809,-14.9147,-8.2211,-8.3936,8.4338,22.4542,18.0140,-1.5568,14.5020,20.1469,-1.8276,18.6430
2273.4375,-7.9035,-14.8697,-7.5217,11.8053,8.6464,-2.6274,-4.0938,5.4781,-16.8950,-9.5276,-10.7703,5.9711,19.1295,18.2128,-3.0416,11.9210,19.0395,-4.2463,15.6484
2277.3438,-7.1148,-15.6082,-7.7715,9.5453,11.3711,-1.5872,-7.5692,5.8458,-17.0680,-9.2982,-12.1289,3.9138,16.1357,19.0572,-3.9319,8.7964,17.9442,-5.1950,13.3131
2281.2500,-6.8706,-14.9517,-6.3189,7.7523,15.0820,-2.1817,-9.8027,7.3775,-16.1271,-8.0753,-12.4297,2.1271,13.4003,20.8572,-4.3129,5.7889,16.8805,-4.9222,11.2112
2285.1562,-7.3780,-13.6782,-5.1052,5.7882,19.0099,-4.3568,-10.2678,9.1584,-14.8356,-6.6996,-11.7381,0.5397,10.7437,23.3433,-4.2760,3.4782,15.7850,-3.9765,8.8549
2289.0625,-8.1077,-12.4284,-5.4660,3.0950,22.2173,-7.1076,-9.3726,10.0214,-13.6946,-5.9342,-10.3145,-0.7975,8.0041,25.6393,-3.9612,2.1190,14.5658,-3.0242,5.9826
2292.9688,-8.2804,-11.4744,-7.5888,-0.5880,23.7536,-9.0931,-8.5257,8.9697,-12.8267,-6.1484,-8.6012,-1.7593,5.0869,26.5605,-3.5679,1.5716,13.1020,-2.6398,2.6682
2296.8750,-7.4891,-10.7044,-10.6730,-5.1384,22.8760,-9.3384,-9.3896,5.5978,-12.0833,-7.1831,-7.0606,-2.2402,1.9657,25.1277,-3.2809,1.4396,11.2302,-3.1167,-0.7700
2300.7812,-6.0285,-9.8166,-13.5852,-10.0873,19.3221,-7.6882,-12.8293,0.3157,-11.2526,-8.4416,-5.9585,-2.2241,-1.3042,21.0506,-3.1543,1.3157,8.7800,-4.3594,-3.9677
2304.6875,-4.7162,-8.6054,-15.5477,-14.7372,13.5336,-4.8428,-18.3013,-5.7330,-10.2171,-9.1660,-5.2535,-1.7987,-4.5464,14.9259,-3.0651,0.9790,5.6780,-5.9107,-6.6848
2308.5938,-4.3274,-7.1621,-16.4476,-18.3128,6.6811,-2.0060,-24.0898,-11.0329,-8.9811,-8.7895,-4.6848,-1.1350,-7.4460,8.0330,-2.8048,0.4303,2.0570,-7.1273,-8.8569
2312.5000,-5.0284,-5.8574,-16.6400,-20.1240,0.3943,-0.3264,-28.1669,-14.1850,-7.6003,-7.2192,-4.0069,-0.4642,-9.6237,1.8181,-2.2666,-0.2308,-1.7253,-7.4475,-10.5229
2316.4062,-6.1965,-5.1018,-16.4454,-19.7231,-3.7557,-0.3740,-29.0539,-14.3297,-6.1110,-4.9170,-3.2043,-0.0594,-10.8099,-2.6850,-1.5895,-0.9783,-5.2130,-6.6344,-11.6979
2320.3125,-6.7634,-5.0283,-15.7150,-17.0347,-4.8231,-1.8734,-26.1792,-11.3607,-4.5342,-2.7193,-2.5279,-0.1923,-11.0303,-5.2164,-1.1320,-1.9428,-8.0719,-4.8776,-12.2887
2324.2188,-5.8810,-5.3145,-13.7798,-12.4152,-2.8411,-3.8140,-19.7182,-5.8892,-2.9529,-1.4573,-2.3262,-1.0418,-10.6653,-6.2768,-1.2635,-3.3368,-10.2663,-2.7040,-12.1162
2328.1250,-3.4947,-5.2961,-9.8552,-6.6009,1.2166,-4.9086,-10.3144,0.9857,-1.5846,-1.5526,-2.7930,-2.5780,-10.2980,-6.7741,-2.1028,-5.2628,-12.0597,-0.7490,-11.0415
2332.0312,-0.4614,-4.3531,-3.6866,-0.5410,5.8581,-4.2091,0.9452,7.9943,-0.7680,-2.8005,-3.8118,-4.4960,-10.4003,-7.5308,-3.3859,-7.5304,-13.8119,0.4884,-9.1216
2335.9375,1.8725,-2.3616,3.9521,4.8457,9.6765,-1.5943,12.3405,13.9974,-0.8381,-4.4728,-5.0069,-6.2695,-11.0305,-8.9018,-4.5657,-9.6091,-15.6787,0.7906,-6.6883
2339.8438,2.3884,0.0691,11.2648,8.9059,11.8444,2.1217,21.5529,18.2052,-1.9510,-5.7013,-5.9595,-7.3306,-11.7355,-10.6742,-5.0932,-10.7677,-17.4035,0.2237,-4.2675
2343.7500,0.7890,1.7682,16.0569,11.4004,12.2812,5.5391,26.3194,20.2867,-3.9628,-5.9388,-6.4309,-7.2863,-11.7413,-12.2597,-4.7057,-10.3467,-18.3482,-0.9524,-2.3442
2347.6562,-2.2714,1.5491,16.7429,12.5206,11.4672,7.3264,25.5840,20.3723,-6.4400,-5.2401,-6.4382,-6.0471,-10.3366,-13.0418,-3.5441,-8.0390,-17.7722,-2.3833,-1.0791
2351.5625,-5.5720,-1.1305,13.2357,12.7831,10.0665,6.8575,20.4337,18.9720,-8.8020,-4.2021,-6.1437,-3.7940,-7.2328,-12.6776,-2.0431,-4.0484,-15.2177,-3.6755,-0.1429
2355.4688,-7.9790,-5.7602,7.1889,12.8510,8.6070,4.5110,13.9849,16.8357,-10.5231,-3.6033,-5.6570,-0.8257,-2.6956,-11.1984,-0.6782,0.9434,-10.7866,-4.4297,1.1964
2359.3750,-8.9804,-10.8814,1.3537,13.3380,7.3906,1.4823,9.9640,14.7863,-11.2969,-3.9613,-4.9189,2.5850,2.6133,-8.8843,0.2586,5.9869,-5.1511,-4.3067,3.7304
2363.2812,-8.8163,-14.7048,-1.7117,14.6415,6.6214,-0.7868,10.6529,13.5491,-11.1034,-5.2691,-3.7692,6.2095,7.9684,-6.0172,0.7302,10.1646,0.7090,-3.1546,7.8613
2367.1875,-8.1819,-15.9470,-0.9225,16.8326,6.5797,-1.2668,15.4672,13.5968,-10.1748,-7.0537,-2.1618,9.7501,12.8704,-2.6883,0.8590,12.8603,5.9003,-1.1468,13.2899
2371.0938,-7.7345,-14.4499,2.7850,19.6193,7.6298,0.2271,21.1898,15.0269,-8.9025,-8.6956,-0.3680,12.7146,17.1242,1.2037,0.7599,13.8996,9.9266,1.1732,19.0332
2375.0000,-7.7228,-11.2367,6.9941,22.3962,9.9803,3.0130,23.8603,17.4984,-7.7247,-9.7945,1.0038,14.4310,20.6867,5.7498,0.4271,13.5140,12.7641,3.0224,23.7874
2378.9062,-7.9429,-7.9587,9.1621,24.3812,13.3283,5.8967,21.2040,20.2651,-7.0197,-10.3519,1.2325,14.2640,23.4214,10.7528,-0.2611,12.1597,14.6869,3.6631,26.4530
2382.8125,-7.9923,-6.0326,8.0056,24.8167,16.6638,7.7073,14.0560,22.3355,-7.0109,-10.6750,-0.1527,11.9347,24.9551,15.5734,-1.4418,10.2776,15.9716,2.7128,26.5388
2386.7188,-7.6112,-5.9499,4.0897,23.1815,18.4729,7.7675,5.8458,22.7518,-7.7009,-11.0915,-3.0794,7.7404,24.7580,19.2512,-3.1497,8.1082,16.6700,0.3103,24.2381
2390.6250,-6.8696,-7.1485,-0.7143,19.3486,17.3463,6.1196,0.4636,20.9155,-8.8642,-11.6834,-6.8956,2.5100,22.4130,20.8853,-5.2571,5.6455,16.5795,-2.9621,20.1707
2394.5312,-6.0928,-8.4948,-4.5172,13.6317,12.7176,3.4537,-0.1157,16.8345,-10.1259,-12.2211,-10.6277,-2.7121,17.9097,20.0849,-7.4969,2.7417,15.4136,-6.3566,14.9886
2398.4375,-5.6062,-9.0530,-6.5754,6.7083,5.3025,0.8050,3.0590,11.1688,-11.1088,-12.3394,-13.3961,-7.0857,11.7707,17.2164,-9.5438,-0.7047,13.0438,-9.2819,9.1071
2402.3438,-5.4936,-8.6370,-7.5614,-0.5478,-3.0750,-0.8478,6.7205,5.0261,-11.5816,-11.8321,-14.7576,-10.2617,4.9155,13.2623,-11.1107,-4.5914,9.6487,-11.4925,2.7118
2406.2500,-5.5381,-7.7956,-8.8007,-7.2588,-10.2450,-0.9318,7.5052,-0.4185,-11.5222,-10.8550,-14.7916,-12.3872,-1.6717,9.3338,-12.0270,-8.5785,5.6731,-13.0580,-4.0099
2410.1562,-5.3734,-7.2635,-11.0612,-12.6945,-14.6596,0.5370,3.9983,-4.3025,-11.0520,-9.8871,-13.9094,-13.8540,-7.2893,6.1059,-12.2789,-12.1999,1.6310,-14.1645,-10.6255
2414.0625,-4.7305,-7.2892,-13.7919,-16.3508,-16.0233,2.9948,-2.5278,-6.2765,-10.2822,-9.4478,-12.5310,-14.9633,-11.6892,3.5230,-12.0071,-15.0529,-2.1089,-14.8921,-16.4108
2417.9688,-3.6078,-7.3409,-15.3809,-17.9581,-15.2286,5.5719,-8.9974,-6.4444,-9.1818,-9.7314,-10.8450,-15.7092,-14.9885,0.9820,-11.4544,-16.9550,-5.4094,-15.1113,-20.5593
2421.8750,-2.2587,-6.4352,-14.2592,-17.4571,-13.6451,7.4409,-12.3376,-5.1196,-7.5736,-10.3895,-8.7954,-15.7894,-17.4007,-2.1035,-10.8706,-17.9798,-8.2734,-14.5504,-22.5223
2425.7812,-1.0146,-3.8808,-10.0620,-14.9797,-12.2137,8.1343,-11.0588,-2.5815,-5.2754,-10.6196,-6.2760,-14.8150,-18.9692,-5.7170,-10.4037,-18.3620,-10.6604,-12.9814,-22.2575
2429.6875,-0.0694,0.0877,-4.0090,-10.8534,-10.9107,7.7018,-5.7811,0.9977,-2.2963,-9.5471,-3.3728,-12.5904,-19.4827,-9.0368,-10.0236,-18.3402,-12.3672,-10.4058,-20.2329
2433.5938,0.6355,4.2714,1.7731,-5.6131,-8.9102,6.6458,1.3705,5.4188,1.0582,-6.7084,-0.4655,-9.3127,-18.6248,-10.8035,-9.5259,-18.0325,-13.0861,-7.1313,-17.1914
2437.5000,1.3571,7.1442,5.5101,0.0171,-5.3169,5.6678,7.9478,10.2455,4.2617,-2.3670,1.9011,-5.5934,-16.2576,-10.0701,-8.6246,-17.4100,-12.6217,-3.7006,-13.8339
2441.4062,2.3660,7.7720,6.7435,5.2143,0.0263,5.3424,12.2211,14.7230,6.7909,2.5306,3.3015,-2.2775,-12.6403,-6.8745,-7.0929,-16.3569,-11.1123,-0.7062,-10.5998
2445.3125,3.7435,6.3928,6.3578,9.2269,6.2018,5.8630,13.6528,17.9555,8.3570,6.7557,3.6867,-0.1181,-8.4232,-2.3836,-4.8838,-14.7563,-9.0753,1.4222,-7.6380
2449.2188,5.2794,4.2517,5.7235,11.5837,11.5901,6.9706,12.7819,19.2887,8.9917,9.3494,3.4385,0.5721,-4.3943,1.6339,-2.1677,-12.5411,-7.1994,2.5643,-4.9227
2453.1250,6.5321,2.7849,5.6303,12.2577,14.7332,8.0877,10.7536,18.6712,8.9384,10.0279,3.1734,0.1279,-1.1176,3.7282,0.7221,-9.6942,-5.9780,2.9274,-2.3925
2457.0312,7.0233,2.6987,5.7952,11.6891,15.1520,8.5881,8.7477,16.7445,8.4362,9.2262,3.3990,-0.5420,1.3217,3.5441,3.3990,-6.2341,-5.4051,2.9266,-0.0167
2460.9375,6.4742,3.5596,5.2596,10.6250,13.6096,8.0747,7.4898,14.5557,7.5578,7.7764,4.2207,-0.3423,3.3113,1.9892,5.5267,-2.2335,-4.9342,2.9778,2.2198
2464.8438,4.9610,4.1620,3.3177,9.8148,11.6578,6.5406,6.9831,13.0264,6.2158,6.4282,5.2641,1.4488,5.4475,0.6919,6.8791,2.1222,-3.7518,3.2996,4.3532
2468.7500,2.9049,3.4058,0.2445,9.6921,10.7398,4.3470,6.5886,12.4764,4.3228,5.5015,5.8575,4.7332,8.1678,1.0758,7.3541,6.4819,-1.2233,3.8244,6.4370
2472.6562,0.8921,1.0804,-2.7216,10.1986,11.3790,2.0463,5.4809,12.4870,1.9720,4.8575,5.3795,8.5475,11.4938,3.5917,6.9706,10.3538,2.7414,4.2767,8.4960
2476.5625,-0.5943,-1.9633,-4.1119,10.8541,12.9212,0.1461,3.2910,12.1894,-0.5035,4.1585,3.5946,11.5174,15.0216,7.5319,5.8670,13.2390,7.6023,4.3862,10.4900
2480.4688,-1.3879,-4.3391,-3.1272,11.0496,13.9593,-1.0661,0.5437,10.8083,-2.6446,3.2011,0.8156,12.6101,18.1415,11.4879,4.2961,14.8267,12.4227,4.1223,12.3381
2484.3750,-1.6791,-4.9718,-0.0782,10.4145,13.1818,-1.5662,-1.4836,8.1394,-4.0721,2.0770,-2.1848,11.7572,20.3421,14.1374,2.5919,15.1438,16.2742,3.7989,13.9929
2488.2812,-1.8521,-3.7070,3.8830,9.0533,10.1650,-1.5163,-1.5123,4.6871,-4.6467,1.0608,-4.4715,9.9420,21.4199,14.8949,1.0924,14.5533,18.5939,3.9607,15.4974
2492.1875,-2.2128,-1.3302,7.4670,7.5107,5.6789,-1.1439,0.8078,1.4004,-4.4872,0.3383,-5.3299,8.6415,21.4958,14.0893,0.0406,13.5818,19.3233,5.0817,16.9496
2496.0938,-2.7777,0.9466,9.8575,6.4714,1.3579,-0.6625,4.4507,-0.8206,-3.8629,-0.1887,-4.5701,8.9174,20.8645,12.6427,-0.4916,12.6592,18.8072,7.2315,18.3751
2500.0000,-3.2605,2.1556,10.8582,6.3600,-1.0825,-0.2624,7.4605,-1.5577,-3.0559,-0.8398,-2.6178,10.7043,19.7966,11.5029,-0.6086,11.9191,17.5552,9.9116,19.5922
2503.9062,-3.2714,1.9965,10.6208,7.0733,-0.6754,-0.1242,8.0889,-1.0190,-2.2840,-1.8568,-0.3427,12.7583,18.4165,11.1714,-0.5227,11.1770,16.0163,12.1915,20.1928
2507.8125,-2.5935,0.8414,9.3062,8.0088,2.3310,-0.3800,5.8809,0.1445,-1.6974,-3.0887,1.3182,13.3395,16.7120,11.5599,-0.4494,10.0964,14.4675,13.1125,19.7008
2511.7188,-1.3449,-0.5675,7.0044,8.3895,6.5956,-0.9957,1.9440,1.2104,-1.3908,-3.9236,1.7784,11.2438,14.6411,12.1834,-0.5251,8.4390,13.0260,12.1702,17.8474
2515.6250,0.0963,-1.4824,3.9359,7.7056,10.3242,-1.6428,-1.8038,1.7246,-1.3741,-3.5779,1.0647,6.5735,12.2464,12.5230,-0.7829,6.2434,11.7249,9.6180,14.8028
2519.5312,1.3540,-1.3974,0.6648,6.0266,12.1109,-1.6945,-3.8662,1.6500,-1.5147,-1.5967,-0.2153,0.7822,9.7025,12.3370,-1.1765,3.8287,10.5831,6.4112,11.1992
2523.4375,2.3151,-0.1542,-1.9688,4.0016,11.5656,-0.4384,-3.9838,1.2920,-1.5290,1.7522,-1.1955,-4.0359,7.2679,11.7693,-1.6128,1.6288,9.6278,3.7925,7.8952
2527.3438,3.1896,2.0334,-3.2354,2.5445,9.4253,2.5402,-2.9680,1.0863,-1.0922,5.4739,-1.2009,-6.2029,5.1802,11.2301,-1.9627,-0.0298,8.8739,2.7107,5.5896
2531.2500,4.3148,4.6092,-2.9475,2.3749,7.1018,7.0031,-1.7688,1.3729,-0.0383,8.2811,-0.0835,-5.2679,3.5582,11.1384,-2.0588,-1.0754,8.2894,3.3659,4.4962
2535.1562,5.8410,6.8060,-1.5753,3.6640,5.9110,11.9754,-0.5994,2.2515,1.4798,9.2345,1.7374,-2.1499,2.3708,11.6681,-1.7220,-1.6861,7.7778,5.1203,4.2694
2539.0625,7.5378,7.9249,0.0854,5.9705,6.3941,16.0558,1.1244,3.5539,3.0118,8.2184,3.5425,1.4117,1.4913,12.6297,-0.8484,-2.1586,7.1975,6.8302,4.2328
2542.9688,8.8847,7.6871,1.4701,8.4834,8.0878,18.0114,3.9716,4.9198,4.0447,5.9724,4.7139,3.7564,0.8092,13.5515,0.4678,-2.7439,6.4181,7.4373,3.7824
2546.8750,9.4011,6.4547,2.6059,10.4263,9.8548,17.3486,7.5320,5.9442,4.3179,3.6711,5.0245,4.0651,0.3344,13.9275,1.8563,-3.5424,5.3955,6.5121,2.7386
2550.7812,8.9851,5.1134,3.9866,11.4003,10.5722,14.5353,10.2182,6.3489,3.9981,2.3086,4.6525,2.6268,0.2263,13.5055,2.7295,-4.4902,4.2256,4.4608,1.4465
2554.6875,8.0044,4.5997,6.0508,11.4960,9.7798,10.7352,10.1746,6.1244,3.5675,2.2441,3.9465,0.5440,0.7107,12.4502,2.5067,-5.4096,3.1343,2.2795,0.5704
2558.5938,7.0531,5.3153,8.6624,11.1463,7.9226,7.2017,6.7084,5.5746,3.4743,3.1361,3.1323,-0.9160,1.9155,11.2672,0.9193,-6.0707,2.3831,0.9843,0.7020
2562.5000,6.5318,6.8113,11.0157,10.8313,6.0648,4.6762,1.1326,5.2200,3.7797,4.2460,2.1765,-0.9806,3.7118,10.5070,-1.7688,-6.2411,2.1181,1.0270,2.0027
2566.4062,6.3481,7.9949,12.0719,10.8082,5.2590,3.1255,-3.7490,5.5694,4.0601,4.8773,0.8911,0.2646,5.6689,10.4124,-4.7821,-5.7353,2.2468,2.0235,4.0749
2570.3125,5.9656,7.7805,11.2382,11.0030,5.9443,1.9361,-5.3040,6.8486,3.6580,4.6834,-0.8198,1.9513,7.1837,10.7359,-7.1358,-4.4858,2.4337,2.9535,6.1251
2574.2188,4.7859,5.7868,8.8092,11.0923,7.7100,0.4098,-2.7749,8.8222,2.1306,3.7044,-2.7807,2.8864,7.7453,10.8688,-8.0885,-2.6202,2.2538,2.7263,7.3257
2578.1250,2.6099,2.6245,5.8457,10.7008,9.5376,-1.7527,2.1782,10.8265,-0.4042,2.1932,-4.5837,2.1640,7.1996,10.2313,-7.5093,-0.4890,1.4439,0.7953,7.1803
2582.0312,-0.1414,-0.4324,3.5558,9.5939,10.3604,-4.2513,6.5079,12.0298,-3.2664,0.4122,-5.8279,-0.3632,5.8552,8.6855,-5.9396,1.4166,0.1069,-2.5232,5.7160
2585.9375,-2.6065,-2.1918,2.5808,7.7723,9.6200,-6.3494,7.6901,11.8109,-5.5689,-1.4466,-6.3763,-3.9883,4.3450,6.6943,-4.2940,2.6530,-1.2758,-6.2043,3.4262
2589.8438,-3.9551,-2.2304,2.6422,5.4428,7.5274,-7.2709,5.2232,10.0632,-6.6982,-3.1989,-6.4307,-7.4852,3.2993,5.0925,-3.3532,3.0368,-2.0650,-9.0457,1.0212
2593.7500,-3.8475,-1.0898,2.7565,2.9070,4.9195,-6.5988,0.7591,7.2534,-6.6134,-4.5707,-6.3515,-9.7018,3.0091,4.5887,-3.3336,2.7485,-1.8150,-10.2653,-0.8710
2597.6562,-2.5934,0.1209,1.8580,0.4395,2.8185,-4.4824,-3.1048,4.1909,-5.7815,-5.2022,-6.3503,-10.0918,3.2788,5.3095,-3.7854,2.2449,-0.5491,-9.8329,-1.9124
2601.5625,-0.9256,0.4366,-0.5607,-1.7827,1.9378,-1.5781,-4.4547,1.6255,-4.8161,-4.7966,-6.2816,-8.8909,3.5648,6.6866,-3.8829,2.0116,1.2212,-8.3694,-2.0962
2605.4688,0.4437,-0.3977,-4.1475,-3.6769,2.3810,1.2293,-3.0261,-0.1049,-4.0705,-3.3248,-5.7014,-6.8505,3.3266,7.7768,-2.9364,2.3028,2.7651,-6.7083,-1.6378
2609.3750,1.1973,-1.8356,-7.8478,-5.1880,3.6599,3.1979,-0.0241,-1.1773,-3.4435,-1.1281,-4.1670,-4.7127,2.3896,7.8233,-0.8202,3.0349,3.5466,-5.3953,-0.7954
2613.2812,1.5017,-2.9160,-10.3728,-6.2038,4.9971,4.0419,2.8457,-2.0821,-2.4943,1.1885,-1.5767,-2.7732,1.1059,6.7072,1.9412,3.9083,3.5380,-4.4099,0.2889
2617.1875,1.8003,-2.8400,-10.7092,-6.5020,5.7457,4.0457,4.3405,-3.2420,-0.7561,3.0368,1.6932,-0.8095,0.2252,5.0121,4.4783,4.6710,3.2452,-3.2362,1.6611
2621.0938,2.4824,-1.3754,-8.4514,-5.7748,5.7112,3.8982,4.0592,-4.6901,1.9662,4.1431,4.9555,1.6055,0.5486,3.6750,6.0858,5.3345,3.4279,-1.1985,3.5218
2625.0000,3.6533,1.1113,-3.8792,-3.7406,5.2152,4.2854,2.2450,-6.0082,5.4850,4.6740,7.5820,4.6560,2.5596,3.4614,6.6254,6.1798,4.6832,2.1501,6.1050
2628.9062,5.1225,3.9425,2.1712,-0.3092,4.8755,5.4269,-0.5619,-6.5657,9.3299,5.1096,9.3337,8.0466,6.2175,4.5955,6.5791,7.5357,7.1335,6.7904,9.5210
2632.8125,6.5741,6.5076,8.5567,4.2814,5.2277,6.8385,-3.6548,-5.9091,12.9546,5.9357,10.4410,11.1562,10.9908,6.7483,6.7302,9.4824,10.3855,12.2340,13.6259
2636.7188,7.7697,8.5066,14.1309,9.4458,6.4031,7.5364,-6.0940,-4.0505,15.9122,7.3432,11.3936,13.4601,16.0712,9.3362,7.6721,11.6970,13.7532,17.7021,17.9836
2640.6250,8.6469,9.9637,18.0471,14.3944,8.0545,6.6553,-6.7673,-1.4688,17.9263,9.1119,12.5873,14.8891,20.6319,11.8850,9.4423,13.5669,16.5814,22.3679,21.9518
2644.5312,9.2710,11.0689,19.9947,18.3972,9.5725,4.1500,-4.8057,1.1779,18.8726,10.7355,14.0562,15.8315,24.0088,14.2016,11.4905,14.5106,18.4717,25.5625,24.8739
2648.4375,9.7037,11.9806,20.2744,21.0432,10.4605,1.0972,-0.1845,3.4365,18.7374,11.6984,15.4461,16.7599,25.7679,16.2692,12.9798,14.2938,19.3027,26.9018,26.2956
2652.3438,9.8987,12.6991,19.6406,22.3522,10.6246,-0.7199,5.9670,5.2829,17.6005,11.7265,16.2209,17.7634,25.7009,17.9930,13.2273,13.1267,19.0917,26.3396,26.1011
2656.2500,9.6976,13.0543,18.9354,22.6662,10.3896,0.1772,11.7218,7.0362,15.6444,10.8735,15.9569,18.3617,23.8161,19.0350,12.0274,11.4798,17.8442,24.1561,24.4992
2660.1562,8.9261,12.7888,18.6566,22.3780,10.2322,3.9248,15.2780,9.0256,13.1526,9.4145,14.5504,17.7855,20.3564,18.8998,9.6960,9.7516,15.5258,20.8801,21.8744
2664.0625,7.5223,11.6889,18.6806,21.6631,10.4205,8.9569,15.8862,11.2497,10.4692,7.6401,12.2409,15.5514,15.8170,17.2368,6.8550,8.0282,12.1799,17.1410,18.6015
2667.9688,5.6112,9.7096,18.3074,20.3881,10.8258,12.6788,14.1698,13.2778,7.9160,5.6915,9.4772,11.9214,10.9027,14.1555,4.1136,6.1049,8.0880,13.4819,14.9466
2671.8750,3.4751,7.0393,16.6422,18.2659,11.0500,12.8816,11.6388,14.4835,5.6986,3.5291,6.7213,7.8865,6.3912,10.3211,1.8331,3.7512,3.8266,10.2013,11.1094
2675.7812,1.4292,4.0638,13.1284,15.1599,10.7866,9.0695,9.7613,14.4674,3.8392,1.0335,4.2923,4.6397,2.9264,6.7347,0.0688,1.0178,0.1350,7.2997,7.3530
2679.6875,-0.3319,1.2281,7.9476,11.3365,10.1454,2.8435,9.2145,13.3881,2.1698,-1.8390,2.2955,2.8734,0.8293,4.3036,-1.3342,-1.6465,-2.3588,4.5638,4.0847
2683.5938,-1.8280,-1.1489,2.0495,7.4816,9.6802,-2.9636,9.7284,11.9674,0.4022,-4.9460,0.6348,2.3772,0.0193,3.4432,-2.5918,-3.5747,-3.4024,1.7513,1.7772
2687.5000,-3.2600,-3.0029,-3.2253,4.4450,10.0594,-5.9070,10.4559,11.1427,-1.7313,-7.9505,-0.9121,2.2192,0.0951,3.9282,-3.8662,-4.2522,-3.2167,-1.2210,0.7410
2691.4062,-4.8531,-4.5096,-6.7361,2.8509,11.5842,-5.3002,10.4749,11.5693,-4.3094,-10.4118,-2.5758,1.3960,0.5412,5.0631,-5.2127,-3.6386,-2.3645,-4.1819,0.8912
2695.3125,-6.6561,-5.9195,-8.0289,2.8056,13.8875,-2.4763,9.0836,13.2695,-7.0994,-11.9297,-4.4548,-0.4810,0.9621,6.0535,-6.5633,-2.2260,-1.4645,-6.7510,1.6990
2699.2188,-8.4206,-7.3396,-7.4557,3.8731,16.0472,0.1984,5.8717,15.6289,-9.5665,-12.2834,-6.3989,-2.9170,1.2299,6.3686,-7.7222,-0.7889,-0.9112,-8.4930,2.4179
2703.1250,-9.6604,-8.6124,-5.8893,5.3270,17.0718,0.8773,0.7902,17.7256,-11.0533,-11.5155,-7.9852,-4.8447,1.4854,5.9172,-8.3850,0.0242,-0.7444,-9.0976,2.4898
2707.0312,-9.8894,-9.3917,-4.2297,6.5180,16.4626,-0.6797,-5.6331,18.7828,-11.0757,-9.9288,-8.6399,-5.2854,2.0087,4.9892,-8.2142,0.0143,-0.7137,-8.4975,1.8888
2710.9375,-8.9192,-9.3850,-3.0144,7.1440,14.4964,-3.1695,-12.0993,18.4889,-9.5931,-7.9886,-7.8895,-3.9138,3.0446,4.0517,-6.9837,-0.5098,-0.4675,-6.8749,1.1704
2714.8438,-7.0365,-8.6068,-2.3438,7.2874,12.0520,-4.8344,-16.7183,17.0395,-7.0888,-6.1544,-5.6365,-1.1770,4.6775,3.5342,-4.7380,-0.9499,0.2557,-4.5695,1.1602
2718.7500,-4.9248,-7.4575,-2.0971,7.2422,10.1001,-4.7600,-17.7416,14.9363,-4.3844,-4.7050,-2.3064,2.0576,6.8037,3.7028,-1.8664,-0.7714,1.5283,-1.9455,2.4534
2722.6562,-3.3432,-6.5406,-2.2029,7.2745,9.1790,-3.4688,-14.5539,12.7028,-2.2633,-3.6438,1.2491,5.0360,9.1846,4.6332,0.9888,0.2120,3.2390,0.7148,5.0263
2726.5625,-2.7263,-6.3013,-2.7037,7.4746,9.1707,-2.4298,-8.2744,10.6811,-1.1059,-2.7446,4.0799,7.4548,11.5202,6.2286,3.1829,1.7598,5.1537,3.2427,8.2039
2730.4688,-2.9383,-6.6985,-3.5452,7.7697,9.4792,-2.8912,-1.4255,8.9819,-0.7429,-1.7252,5.5493,9.4106,13.4968,8.2352,4.3621,3.3479,6.9775,5.5409,11.0088
2734.3750,-3.3325,-7.1269,-4.2835,8.0479,9.4573,-4.8922,3.2886,7.5533,-0.6085,-0.4500,5.6148,11.0679,14.8112,10.2557,4.6323,4.4377,8.4034,7.5121,12.6786
2738.2812,-3.0939,-6.6703,-4.0335,8.2773,8.7968,-7.1476,4.4046,6.2843,-0.0956,0.9719,4.8195,12.3492,15.2103,11.8067,4.4956,4.7336,9.1733,9.0189,13.0396
2742.1875,-1.6740,-4.5772,-1.8453,8.5321,7.6572,-7.8535,2.4348,5.0819,1.1056,2.2734,3.9890,12.9030,14.5776,12.4515,4.5722,4.3159,9.1674,9.9159,12.5235
2746.0938,0.9244,-0.7085,2.6341,8.9188,6.4977,-5.8271,-0.5509,3.9118,2.8716,3.2525,3.7917,12.3714,13.0364,11.9786,5.2595,3.5986,8.4905,10.1408,11.8413
2750.0000,4.1574,4.2885,8.6482,9.4681,5.7555,-1.2102,-2.1988,2.8172,4.7592,3.9741,4.3989,10.7410,10.9862,10.5266,6.5180,3.1309,7.4771,9.7978,11.5292
2753.9062,7.2150,9.1922,14.4042,10.0747,5.5770,4.6765,-1.1655,1.9214,6.2592,4.7813,5.4255,8.4890,8.9926,8.5525,7.9031,3.3242,6.5626,9.1552,11.6408
2757.8125,9.3898,12.7104,17.8369,10.5207,5.7353,10.1340,2.3373,1.3976,7.0151,6.0672,6.1757,6.3878,7.5360,6.6182,8.8152,4.2202,6.0487,8.5220,11.7425
2761.7188,10.3373,14.0278,17.6871,10.5571,5.7374,13.9511,6.9432,1.3887,6.8980,7.9323,6.0477,5.0756,6.7358,5.0884,8.8177,5.4198,5.8926,8.0552,11.1795
2765.6250,10.1200,13.1195,14.2385,9.9836,5.0323,15.8016,11.0428,1.8992,5.9458,9.9655,4.8661,4.6738,6.2274,3.9126,7.8423,6.2315,5.6703,7.6148,9.4320
2769.5312,9.0600,10.6748,9.1971,8.6847,3.2109,16.0541,13.5496,2.7179,4.2640,11.3385,2.9542,4.7005,5.3074,2.6398,6.1758,5.9968,4.7801,6.7771,6.3628
2773.4375,7.5212,7.6788,4.7179,6.6204,0.1346,15.2949,14.1382,3.4381,1.9739,11.2077,0.9137,4.3407,3.3051,0.6826,4.2597,4.4373,2.7932,5.0328,2.2539
2777.3438,5.7471,4.8838,2.1446,3.8097,-4.0206,13.9798,13.0433,3.5934,-0.7775,9.2081,-0.7569,2.9048,-0.0169,-2.3074,2.4330,1.8316,-0.2571,2.0734,-2.3451
2781.2500,3.8210,2.4676,1.2539,0.3414,-8.7929,12.4116,10.7669,2.8648,-3.7977,5.7331,-1.9731,0.2037,-4.2763,-6.1746,0.7734,-1.1007,-3.8413,-1.9969,-6.8424
2785.1562,1.7361,0.0700,0.4995,-3.5803,-13.5235,10.9043,7.9354,1.2604,-6.8702,1.8078,-3.1173,-3.3644,-8.6289,-10.2705,-0.8815,-3.5671,-7.1959,-6.6579,-10.7933
2789.0625,-0.4866,-2.8173,-1.8820,-7.5896,-17.4972,9.8500,5.2558,-0.8238,-9.8090,-1.3902,-4.7915,-7.0370,-12.1903,-13.7475,-2.7632,-5.1192,-9.7268,-11.1867,-13.9868
2792.9688,-2.7013,-6.3480,-6.6030,-11.1655,-20.1079,9.5412,3.3779,-2.7009,-12.4912,-3.0905,-7.4106,-10.0754,-14.4778,-15.9682,-4.9631,-5.8698,-11.2996,-14.9655,-16.4289
2796.8750,-4.6122,-10.0309,-12.7079,-13.7273,-21.0034,9.8824,2.6082,-3.6214,-14.8236,-3.2514,-10.8766,-12.1029,-15.6096,-16.7919,-7.3167,-6.3670,-12.2301,-17.7056,-18.2561
2800.7812,-5.8397,-12.8612,-18.0049,-14.8098,-20.1595,10.2849,2.6863,-3.0507,-16.6651,-2.4812,-14.5358,-13.2383,-16.1537,-16.5746,-9.4495,-7.2014,-12.9898,-19.4730,-19.6215
2804.6875,-6.0658,-13.8344,-20.2885,-14.2557,-17.8563,9.9215,2.9042,-0.8934,-17.7877,-1.6421,-17.4609,-13.9843,-16.7334,-15.8926,-10.9600,-8.5946,-13.8333,-20.5305,-20.5987
2808.5938,-5.2042,-12.5560,-18.6084,-12.3308,-14.5735,8.2278,2.6057,2.4217,-17.9457,-1.3980,-18.9037,-14.9429,-17.6351,-15.1668,-11.6380,-10.2368,-14.6026,-21.1215,-21.1359
2812.5000,-3.5152,-9.5764,-13.8376,-9.6849,-10.8543,5.3029,1.7325,6.0478,-17.0361,-1.9568,-18.6605,-16.4834,-18.6457,-14.4179,-11.5920,-11.4813,-14.8365,-21.3326,-21.0806
2816.4062,-1.5853,-6.2240,-8.2379,-7.1383,-7.1921,1.9053,0.9456,8.9994,-15.2426,-3.1015,-17.1380,-18.4989,-19.1878,-13.2974,-11.2072,-11.7625,-14.1003,-21.0946,-20.2643
2820.3125,-0.1470,-3.9935,-4.3101,-5.3654,-3.9653,-0.9780,1.1344,10.5173,-13.0340,-4.4097,-15.0875,-20.3574,-18.6419,-11.3667,-10.9465,-10.9568,-12.3020,-20.2757,-18.6011
2824.2188,0.2054,-3.8106,-3.5813,-4.6080,-1.4163,-2.6971,2.6382,10.3716,-10.9734,-5.4801,-13.1706,-21.0928,-16.6534,-8.4479,-11.0944,-9.4437,-9.7793,-18.7685,-16.1417
2828.1250,-0.7245,-5.5695,-5.9447,-4.5628,0.3536,-3.2516,4.8088,8.9582,-9.4283,-6.0424,-11.6215,-19.7933,-13.2683,-4.8264,-11.5836,-7.8347,-7.1089,-16.5087,-13.0435
2832.0312,-2.6325,-8.1821,-9.8050,-4.5116,1.3911,-3.1571,6.3412,7.1218,-8.3545,-5.9623,-10.1969,-16.0373,-8.8633,-1.1760,-12.0091,-6.5633,-4.7785,-13.4388,-9.4758
2835.9375,-4.8293,-10.0960,-12.8604,-3.6490,1.8952,-3.0017,6.1959,5.7722,-7.2992,-5.2341,-8.4210,-10.1686,-3.9545,1.7605,-11.8385,-5.6235,-2.9415,-9.4895,-5.5248
2839.8438,-6.5211,-9.9984,-13.1032,-1.4588,2.1950,-3.0364,4.4204,5.4718,-5.6382,-4.0280,-5.9524,-3.2389,0.9924,3.5585,-10.7137,-4.6319,-1.4050,-4.6329,-1.1759
2843.7500,-7.1202,-7.3603,-9.6141,2.0363,2.6738,-3.0848,2.1876,6.2013,-2.9246,-2.7443,-2.8345,3.3955,5.6639,4.3446,-8.6799,-3.1607,0.1709,1.0026,3.5990
2847.6562,-6.4422,-2.6008,-2.8923,6.2667,3.6388,-2.7881,0.9554,7.4137,0.8363,-1.9573,0.5098,8.6365,9.8936,4.7361,-6.2039,-1.0991,2.0116,7.0330,8.6916
2851.5625,-4.7190,3.1345,5.3402,10.3381,5.1750,-1.9538,1.3567,8.3319,5.1268,-2.1693,3.5060,12.0613,13.5871,5.5072,-3.9587,1.2118,4.0781,12.8196,13.7425
2855.4688,-2.4516,8.4283,12.7662,13.3744,7.0546,-0.7259,2.6847,8.3195,9.0916,-3.4552,5.7099,13.9517,16.6308,7.1584,-2.4818,3.1637,6.0985,17.6010,18.1549
2859.3750,-0.1962,12.0764,17.3297,14.8270,8.7760,0.5296,3.4098,7.1364,11.8624,-5.2180,6.9675,14.9271,18.8394,9.6301,-1.8981,4.2549,7.7333,20.7142,21.2619
2863.2812,1.6224,13.4549,18.0335,14.6406,9.7574,1.4939,2.3657,4.9838,12.8950,-6.2913,7.3896,15.4349,19.9825,12.3288,-1.8680,4.3983,8.7561,21.8155,22.5889
2867.1875,2.8091,12.6880,15.3646,13.2425,9.6261,2.0847,-0.2934,2.3731,12.1880,-5.4465,7.2124,15.4531,19.8986,14.4662,-1.7957,3.9626,9.1552,21.0151,22.0871
2871.0938,3.3973,10.5852,11.1199,11.3871,8.4696,2.4297,-3.1046,-0.0675,10.3030,-2.0985,6.6733,14.6193,18.6586,15.5243,-1.1813,3.5317,9.1299,18.8756,20.2216
2875.0000,3.5680,8.3446,7.6369,9.9176,6.8923,2.6849,-4.2786,-1.7537,8.1678,3.1874,5.9786,12.6886,16.6808,15.5750,0.0842,3.5510,9.0116,16.2672,17.8504
2878.9062,3.5248,7.0759,6.7321,9.5050,5.8011,2.8811,-2.9173,-2.2467,6.7130,8.7347,5.3301,9.9633,14.6883,15.2486,1.6481,4.0868,9.1487,14.1063,15.9266
2882.8125,3.3733,7.2986,8.8489,10.4267,5.9874,2.9331,0.4298,-1.3277,6.4727,12.4166,4.9191,7.3256,13.4583,15.3495,2.8843,4.8300,9.7776,13.0421,15.1330
2886.7188,3.0596,8.6444,12.8656,12.4545,7.7077,2.7762,4.2389,0.9357,7.3219,12.6446,4.8319,5.7788,13.4434,16.3319,3.2209,5.3092,10.9002,13.1921,15.6011
2890.6250,2.4047,9.9673,16.6956,14.9132,10.5044,2.4703,7.0988,4.1572,8.5022,9.1653,4.9174,5.7700,14.4630,17.9540,2.4159,5.1564,12.2130,14.0481,16.8407
2894.5312,1.2240,9.8834,18.3779,16.9225,13.3941,2.1436,8.5605,7.6988,8.9624,3.2139,4.7455,6.7751,15.6795,19.3398,0.6321,4.2691,13.1502,14.6407,17.9327
2898.4375,-0.5369,7.5100,17.0745,17.7469,15.3523,1.8101,9.1489,10.8585,7.8716,-3.0898,3.7499,7.4907,15.9432,19.4416,-1.7076,2.8079,13.0759,13.9408,17.9230
2902.3438,-2.7456,3.0077,13.4273,17.1018,15.8386,1.2385,9.6227,13.1196,5.0410,-7.7867,1.5239,6.5775,14.3690,17.6485,-4.1687,1.0832,11.5756,11.3457,16.2557
2906.2500,-5.1521,-2.4197,9.0905,15.2608,15.0724,0.0423,10.1420,14.3385,1.0152,-9.9947,-1.8981,3.5062,10.8416,14.1847,-6.4949,-0.5723,8.7098,7.0089,13.0476
2910.1562,-7.5392,-7.1174,5.7269,12.9039,13.9056,-2.0163,10.0282,14.7635,-3.2253,-10.1962,-5.9662,-1.0469,6.1512,10.0588,-8.6332,-1.8810,5.0716,1.8258,9.0607
2914.0625,-9.8334,-9.8580,4.0633,10.7894,13.3694,-4.7173,8.2918,14.8790,-6.7743,-9.7643,-9.8238,-5.5319,1.6616,6.5863,-10.6086,-2.6526,1.5806,-2.9457,5.3746
2917.9688,-12.0692,-10.4935,3.5578,9.4380,14.1553,-7.3322,4.5048,15.1716,-9.2138,-10.0374,-12.6888,-8.3837,-1.3148,4.7596,-12.3626,-2.8086,-0.9012,-6.2361,2.9148
2921.8750,-14.2141,-9.9798,2.8637,8.9979,16.3097,-8.9445,-0.6397,15.9499,-10.6883,-11.5059,-14.1789,-8.8615,-2.0868,4.8185,-13.6826,-2.4160,-1.9289,-7.5914,2.0790
2925.7812,-15.9911,-9.7423,0.8034,9.3347,19.2758,-8.9802,-5.4731,17.2887,-11.6262,-13.5864,-14.3879,-7.3442,-0.7942,6.2387,-14.2779,-1.6996,-1.6086,-7.2497,2.6529
2929.6875,-16.8804,-10.7654,-2.7405,10.2360,22.2076,-7.6104,-8.0789,19.0738,-12.3275,-15.0781,-13.6940,-4.9359,1.8196,8.1001,-13.9524,-0.9847,-0.4435,-5.8600,4.0434
2933.5938,-16.3674,-12.9657,-6.5706,11.5585,24.3487,-5.7323,-7.1405,21.0677,-12.7198,-14.9798,-12.4643,-2.6961,4.8836,9.5857,-12.7571,-0.5662,0.9953,-4.0510,5.6689
2937.5000,-14.3187,-15.2401,-8.7454,13.2103,25.2773,-4.4954,-2.4719,22.9487,-12.4454,-13.1318,-10.8795,-1.0355,7.8139,10.3232,-11.0195,-0.5654,2.3602,-2.1356,7.2571
2941.4062,-11.2205,-16.1552,-7.6853,15.0110,24.9455,-4.6362,4.9184,24.3444,-11.2022,-10.2919,-8.9914,0.3417,10.4420,10.4204,-9.2254,-0.8708,3.6116,-0.1190,8.8708
2945.3125,-8.0668,-14.8507,-3.1937,16.5780,23.5732,-6.0226,13.1239,24.9130,-9.0755,-7.6344,-6.9328,1.9780,12.8468,10.2494,-7.8175,-1.2227,4.8793,2.0422,10.6690
2949.2188,-5.8998,-11.5967,3.2117,17.3729,21.5072,-7.6904,19.8404,24.4747,-6.6138,-6.0342,-5.0704,4.0744,15.0716,10.1685,-7.0178,-1.4014,6.2363,4.1591,12.5934
2953.1250,-5.2602,-7.6778,8.8940,16.9091,19.1146,-8.3633,22.9907,23.1099,-4.5880,-5.6166,-3.9303,6.2190,16.9485,10.3540,-6.7616,-1.3972,7.5643,5.7354,14.2201
