Time,Fp1,F3,C3,P3,O1,F7,T3,T5,Fz,Fp2,F4,C4,P4,O2,F8,T4,T6,Cz,Pz
0.0000,2.0092,3.0057,0.4944,-3.0571,-4.2849,3.8677,-0.1803,-1.7363,2.3348,2.0053,0.2095,-1.9557,-4.6972,-9.0135,1.9393,-0.0541,-2.3945,0.3097,-3.4458
3.9062,2.3586,3.9898,2.8551,-0.4549,-3.1971,4.1068,0.8503,-1.2344,4.1272,2.7130,3.5426,1.2443,-1.6390,-6.8284,3.5530,1.2817,-2.0732,3.1840,0.5440
7.8125,2.9792,5.6385,6.1899,2.9785,-1.5400,4.3782,2.5478,-0.4704,7.2064,3.5637,8.1805,5.3401,2.2438,-4.1369,5.6605,2.5886,-2.0614,7.1512,5.3651
11.7188,3.7294,7.7388,9.6733,6.4869,0.4339,4.5743,4.4944,0.4989,11.0276,4.2980,12.8884,9.2728,5.8684,-1.4777,7.5647,3.3419,-2.3600,11.2952,9.6243
15.6250,4.4019,9.8489,12.2864,9.2347,2.2734,4.6012,6.0527,1.5798,14.5446,4.7287,16.2068,11.8909,8.1539,0.7381,8.5691,3.2949,-2.7428,14.4460,12.1156
19.5312,4.8109,11.4096,13.2820,10.6714,3.5054,4.3884,6.6938,2.6853,16.6001,4.7998,17.1176,12.4610,8.5721,2.4100,8.3447,2.6017,-2.8722,15.6436,12.4013
23.4375,4.8384,11.8872,12.5039,10.7549,3.8598,3.8746,6.2852,3.7597,16.4025,4.5269,15.4761,10.9844,7.4214,3.7379,7.0827,1.6699,-2.5050,14.5116,10.9551
27.3438,4.4160,10.9038,10.3767,9.9205,3.4067,3.0064,5.1441,4.7583,13.8432,3.8888,11.9898,8.1553,5.6561,5.0520,5.3478,0.8690,-1.6507,11.3577,8.8130
31.2500,3.4814,8.3376,7.5947,8.8182,2.5065,1.7796,3.8147,5.5853,9.5025,2.7927,7.8052,5.0045,4.3694,6.6124,3.7514,0.3294,-0.5676,6.9802,6.9727
35.1562,1.9793,4.3897,4.7288,7.9698,1.5875,0.3063,2.7113,6.0391,4.3677,1.1740,3.9797,2.4458,4.2411,8.5038,2.6672,-0.0167,0.4179,2.3207,5.9129
39.0625,-0.0629,-0.3996,2.0090,7.5287,0.8869,-1.1572,1.8713,5.8265,-0.5637,-0.8367,1.1276,0.9638,5.2634,10.6632,2.1526,-0.2150,1.1502,-1.8414,5.4867
42.9688,-2.4279,-5.2234,-0.6024,7.2624,0.3368,-2.2820,0.9824,4.6786,-4.5949,-2.8380,-0.6364,0.5645,6.8722,12.9737,2.0676,-0.1178,1.7718,-5.0262,5.1873
46.8750,-4.6803,-9.2040,-3.1482,6.7470,-0.3131,-2.8390,-0.3400,2.5321,-7.4387,-4.2912,-1.5349,0.9309,8.3511,15.3279,2.2442,0.5414,2.6330,-7.0333,4.5595
50.7812,-6.2963,-11.6869,-5.4566,5.6531,-1.2058,-2.8823,-2.2252,-0.3258,-9.1523,-4.8269,-1.9221,1.6319,9.2245,17.6115,2.5536,1.8467,4.0252,-7.8724,3.4818
54.6875,-6.9356,-12.5244,-7.1556,3.9593,-2.1219,-2.8189,-4.4030,-3.2590,-10.0063,-4.5342,-2.1626,2.2527,9.4037,19.6428,2.8435,3.4161,5.9125,-7.7404,2.1712
58.5938,-6.7048,-12.1932,-7.9233,1.9843,-2.4585,-3.2803,-6.3435,-5.4737,-10.3878,-4.0078,-2.5992,2.4295,9.0493,21.1510,2.8528,4.4236,7.8531,-7.0471,0.9621
62.5000,-6.2237,-11.6377,-7.7843,0.2344,-1.4941,-4.8323,-7.5803,-6.3287,-10.7541,-4.0729,-3.5383,1.8593,8.3134,21.8501,2.2421,4.0094,9.1867,-6.3982,0.0498
66.4062,-6.3863,-11.8640,-7.2118,-0.8362,1.2018,-7.6663,-7.9903,-5.6111,-11.5763,-5.3232,-5.1891,0.3622,7.1905,21.5792,0.7762,1.8518,9.3877,-6.4442,-0.6167
70.3125,-7.8926,-13.4638,-6.9197,-1.0153,5.4650,-11.4470,-7.8376,-3.6195,-13.2145,-7.7558,-7.5707,-2.0049,5.5938,20.4211,-1.4532,-1.4964,8.3705,-7.6017,-1.2296
74.2188,-10.7997,-16.3137,-7.4525,-0.3803,10.5329,-15.4103,-7.5599,-1.0046,-15.7355,-10.7388,-10.4480,-4.8638,3.5839,18.7114,-3.9455,-4.7829,6.5582,-9.7825,-1.8933
78.1250,-14.3684,-19.6205,-8.8301,0.8012,15.3481,-18.6669,-7.4562,1.5476,-18.7748,-13.3374,-13.3515,-7.5500,1.5482,16.9186,-5.9532,-6.6786,4.6799,-12.3172,-2.4425
82.0312,-17.3421,-22.2971,-10.4902,2.2318,18.9887,-20.5547,-7.4921,3.6069,-21.5661,-14.7925,-15.6772,-9.2951,0.1564,15.4641,-6.8213,-6.4674,3.4275,-14.1770,-2.4476
85.9375,-18.5388,-23.4675,-11.5802,3.6991,20.9775,-20.8675,-7.3542,5.1021,-23.1871,-14.8544,-16.8281,-9.4851,0.0745,14.5821,-6.3084,-4.3694,3.1770,-14.4227,-1.4286
89.8438,-17.4437,-22.8309,-11.4315,5.0782,21.3214,-19.8667,-6.7039,6.1939,-22.9411,-13.7878,-16.3596,-7.8812,1.5989,14.2864,-4.6927,-1.3163,3.9066,-12.6581,0.8351
93.7500,-14.4677,-20.7079,-9.9321,6.2479,20.3114,-18.1077,-5.4519,7.0208,-20.6892,-12.0894,-14.1178,-4.7119,4.4367,14.4353,-2.6063,1.6270,5.3023,-9.2400,4.0828
97.6562,-10.7255,-17.7838,-7.5800,7.0094,18.2586,-16.1907,-3.8668,7.5016,-16.9504,-10.1474,-10.3532,-0.6116,7.7798,14.8298,-0.7121,3.7865,6.9309,-5.1223,7.5876
101.5625,-7.4654,-14.7337,-5.1998,7.1008,15.3487,-14.5571,-2.4538,7.3317,-12.6992,-8.0757,-5.7591,3.5596,10.6432,15.2807,0.5796,5.0317,8.3603,-1.4166,10.4316
105.4688,-5.4805,-11.9541,-3.5010,6.3302,11.6894,-13.3950,-1.6859,6.1825,-8.9539,-5.8093,-1.3518,6.9585,12.2882,15.6255,1.2062,5.5503,9.2025,1.0955,11.9180
109.3750,-4.8242,-9.5220,-2.7348,4.7557,7.4769,-12.6516,-1.7562,3.9747,-6.3626,-3.3407,1.8414,9.0083,12.5114,15.7278,1.3508,5.5159,9.1442,2.2513,11.9048
113.2812,-4.9529,-7.3441,-2.6264,2.7809,3.1326,-12.1132,-2.4924,1.0449,-4.9909,-0.8894,3.1963,9.5854,11.6670,15.4966,1.2541,4.9485,8.0339,2.4734,10.8767
117.1875,-5.1538,-5.3465,-2.5882,1.0698,-0.7095,-11.5155,-3.4607,-1.9144,-4.4009,1.1401,2.8011,9.0634,10.4362,14.9295,1.0737,3.8503,6.0083,2.4694,9.7037
121.0938,-4.9657,-3.5647,-2.0671,0.2838,-3.3800,-10.6551,-4.1826,-4.1267,-3.9535,2.3861,1.4466,8.1513,9.4809,14.1396,0.8623,2.4316,3.5476,2.8479,9.2076
125.0000,-4.3453,-2.0943,-0.8296,0.7645,-4.4284,-9.4801,-4.3400,-5.0765,-3.1549,2.7736,0.2434,7.5521,9.1529,13.3199,0.6337,1.1530,1.3492,3.8481,9.7645
128.9062,-3.5294,-0.9749,0.9486,2.3390,-3.8233,-8.1262,-3.8756,-4.7428,-1.8679,2.5931,0.0498,7.5909,9.3862,12.6447,0.4378,0.4827,0.0266,5.2890,11.1491
132.8125,-2.7474,-0.1168,2.8039,4.3763,-1.9930,-6.8674,-2.9659,-3.5945,-0.2997,2.3509,1.0457,8.0358,9.7985,12.1644,0.3775,0.5417,-0.2068,6.7269,12.6958
136.7188,-2.0154,0.6718,4.2290,6.0864,0.3272,-5.9835,-1.9058,-2.3433,1.1913,2.4852,2.7203,8.2662,9.9406,11.7787,0.5634,0.9496,0.3481,7.7123,13.6742
140.6250,-1.1493,1.5839,4.9148,6.9176,2.3925,-5.5975,-0.9659,-1.5737,2.3359,3.1300,4.2825,7.7390,9.5674,11.3258,1.0463,1.0523,1.0733,8.0202,13.6707
144.5312,0.0416,2.7189,4.8882,6.8419,3.7790,-5.5725,-0.2790,-1.4306,3.1048,4.0722,5.2149,6.4725,8.7979,10.7465,1.7808,0.4100,1.4405,7.7540,12.7787
148.4375,1.5479,4.0539,4.5010,6.3723,4.6012,-5.5466,0.2090,-1.5208,3.6962,4.9169,5.5937,5.1998,8.0796,10.2100,2.6416,-0.8126,1.3596,7.2925,11.5183
152.3438,3.0991,5.4764,4.2825,6.3001,5.4952,-5.1106,0.7085,-1.0853,4.3880,5.3456,5.9611,5.0149,7.9603,10.0983,3.4798,-1.8711,1.2209,7.1076,10.5495
156.2500,4.2840,6.8247,4.7122,7.2904,7.3335,-4.0501,1.4798,0.6291,5.3448,5.2997,6.8532,6.6728,8.7762,10.8343,4.1837,-1.9030,1.5920,7.5349,10.3463
160.1562,4.7540,7.8922,5.9926,9.5447,10.7736,-2.5173,2.6866,3.9687,6.4868,4.9805,8.3328,9.9832,10.4240,12.6452,4.7099,-0.5157,2.7816,8.5954,10.9940
164.0625,4.3653,8.4035,7.9129,12.6988,15.8509,-1.0268,4.2674,8.6334,7.4831,4.6708,9.8645,13.7333,12.3670,15.4112,5.0698,1.9186,4.5927,9.9552,12.2000
167.9688,3.1829,8.0224,9.8692,15.9916,21.8443,-0.2554,5.8920,13.7237,7.8695,4.4994,10.6211,16.2693,13.9026,18.7028,5.2803,4.4736,6.4578,11.0521,13.4916
171.8750,1.3851,6.4419,11.0579,18.5999,27.5198,-0.7400,7.0427,18.0598,7.2335,4.3003,10.0016,16.4227,14.5640,21.9876,5.3122,6.2392,7.8686,11.3383,14.4876
175.7812,-0.8300,3.5426,10.7822,19.9592,31.6479,-2.6214,7.1991,20.6264,5.3891,3.6673,8.0027,14.2108,14.4230,24.8785,5.0759,6.8535,8.7806,10.5272,15.0972
179.6875,-3.2630,-0.4657,8.7496,19.9220,33.5200,-5.5674,6.0493,20.9349,2.4688,2.1856,5.2070,10.8516,14.0893,27.2605,4.4702,6.6489,9.6754,8.7208,15.5394
183.5938,-5.6788,-5.0271,5.2235,18.7076,33.1761,-8.9129,3.6260,19.1366,-1.0990,-0.2865,2.4276,8.0594,14.3682,29.2207,3.4799,6.3548,11.2024,6.3525,16.1646
187.5000,-7.8030,-9.3961,0.9464,16.7147,31.2274,-11.9454,0.3024,15.8604,-4.7203,-3.4549,0.2759,7.0551,15.7502,30.8377,2.2604,6.6103,13.6340,3.9790,17.1727
191.4062,-9.4059,-12.9106,-3.1439,14.3249,28.4098,-14.1925,-3.3479,11.8885,-7.8246,-6.6618,-1.0663,7.9057,18.0339,31.9853,1.1348,7.6318,16.5255,2.0333,18.3906
195.3125,-10.4387,-15.2427,-6.2766,11.7999,25.1679,-15.5744,-6.7536,7.8558,-10.0395,-9.1723,-1.7717,9.5923,20.3279,32.2954,0.4679,9.2166,18.8460,0.6710,19.2622
199.2188,-11.1063,-16.4905,-8.1183,9.2953,21.5322,-16.3571,-9.5113,4.1167,-11.2858,-10.5288,-2.1121,10.7235,21.4660,31.3188,0.4642,10.9882,19.5277,-0.2228,19.0935
203.1250,-11.7795,-17.0581,-8.8247,6.9329,17.3322,-16.9458,-11.4479,0.8004,-11.7553,-10.7689,-2.2472,10.4127,20.6196,28.7902,1.0091,12.6338,18.0923,-0.8907,17.4416
207.0312,-12.7613,-17.3963,-8.8633,4.8446,12.5479,-17.6390,-12.5783,-2.0460,-11.7867,-10.3736,-2.1962,8.7607,17.7627,24.8383,1.6739,13.9551,14.9530,-1.5243,14.4240
210.9375,-14.0545,-17.7545,-8.7200,3.1410,7.5174,-18.4756,-13.0144,-4.3602,-11.7018,-9.9707,-1.9608,6.6764,13.7234,20.0193,1.9152,14.7607,11.2062,-2.1588,10.7418
214.8438,-15.3099,-18.0867,-8.6621,1.8246,2.8380,-19.2512,-12.8962,-6.0859,-11.6835,-9.9732,-1.6522,5.2104,9.7879,15.1605,1.3708,14.7844,8.0563,-2.6948,7.3643
218.7500,-16.0294,-18.1605,-8.6894,0.7245,-0.9562,-19.6842,-12.3784,-7.2721,-11.7542,-10.3784,-1.5010,4.8631,7.0784,11.0996,0.0722,13.7770,6.2366,-3.0209,5.0334
222.6562,-15.9187,-17.7926,-8.6817,-0.4774,-3.6847,-19.6259,-11.6579,-8.1395,-11.8575,-10.8522,-1.7486,5.3004,6.0395,8.4408,-1.5720,11.7296,5.7555,-3.1542,3.8738
226.5625,-15.1540,-17.0605,-8.6226,-2.1128,-5.5522,-19.1826,-10.9856,-9.0221,-11.9844,-11.0362,-2.5229,5.6091,6.2908,7.4051,-3.0227,9.0241,6.0555,-3.3095,3.3457
230.4688,-14.3561,-16.3452,-8.7253,-4.3481,-6.8949,-18.6717,-10.6178,-10.1870,-12.2538,-10.8634,-3.7997,4.8808,6.8887,7.7948,-3.9394,6.3202,6.4132,-3.8463,2.5769
234.3750,-14.2455,-16.1597,-9.3485,-7.0570,-7.8409,-18.4291,-10.7096,-11.6409,-12.8815,-10.6562,-5.4583,2.7418,6.8252,9.0518,-4.3789,4.1909,6.2985,-5.1105,0.8750
238.2812,-15.1739,-16.8449,-10.7345,-9.8245,-8.1510,-18.5835,-11.2064,-13.0567,-14.0393,-10.9275,-7.3536,-0.4680,5.4981,10.3964,-4.7385,2.7446,5.5101,-7.2382,-1.8821
242.1875,-16.8312,-18.3042,-12.7376,-12.0891,-7.3734,-18.9396,-11.8135,-13.8913,-15.6822,-12.0121,-9.3240,-3.9154,2.9420,11.0447,-5.4830,1.5317,4.1006,-10.0156,-5.1927
246.0938,-18.3372,-19.9467,-14.7469,-13.3575,-5.2097,-19.0552,-12.0920,-13.6459,-17.4571,-13.7778,-11.1348,-6.7132,-0.2431,10.4770,-6.8403,-0.1474,2.2400,-12.8748,-8.2119
250.0000,-18.6967,-20.9031,-15.9019,-13.3858,-1.8278,-18.4845,-11.6562,-12.1274,-18.7721,-15.6233,-12.4407,-8.3068,-3.1796,8.6699,-8.6594,-2.7103,0.1511,-15.0503,-10.1653
253.9062,-17.3603,-20.4258,-15.5141,-12.2468,2.1042,-17.0517,-10.3758,-9.5681,-19.0206,-16.7780,-12.8540,-8.6222,-5.0642,6.1662,-10.5095,-5.8993,-1.8713,-15.8460,-10.6499
257.8125,-14.5573,-18.2678,-13.4537,-10.2646,5.6925,-14.9884,-8.4668,-6.5365,-17.8526,-16.7193,-12.1150,-7.9487,-5.4407,3.8883,-11.9359,-8.8246,-3.4544,-14.9016,-9.6882
261.7188,-11.1924,-14.8214,-10.2547,-7.8651,8.2173,-12.8357,-6.4008,-3.6934,-15.3484,-15.4409,-10.2570,-6.6780,-4.3170,2.7308,-12.6933,-10.4453,-4.2415,-12.3314,-7.5845
265.6250,-8.3521,-10.9226,-6.8456,-5.4236,9.4041,-11.1461,-4.6671,-1.5199,-11.9882,-13.4069,-7.6361,-5.0720,-2.1151,3.1147,-12.8176,-10.1897,-4.0685,-8.6615,-4.7356
269.5312,-6.7024,-7.4129,-4.0479,-3.1760,9.4174,-10.1465,-3.5129,-0.1532,-8.4254,-11.2320,-4.7809,-3.1893,0.5052,4.7509,-12.5189,-8.3097,-3.0966,-4.5952,-1.5248
273.4375,-6.1234,-4.7067,-2.1414,-1.2175,8.6261,-9.5619,-2.8102,0.6031,-5.1852,-9.3088,-2.1543,-0.9931,2.8789,6.7686,-12.0022,-5.7401,-1.7774,-0.7314,1.6843
277.3438,-5.7986,-2.6237,-0.7705,0.4382,7.3306,-8.7261,-2.1373,1.1192,-2.4627,-7.6254,0.0135,1.4479,4.5427,8.1589,-11.3530,-3.5616,-0.6390,2.6117,4.5323
281.2500,-4.7140,-0.5987,0.7451,1.7878,5.6326,-6.9460,-1.0336,1.7231,-0.1339,-5.8854,1.7140,3.8164,5.3432,8.2815,-10.5555,-2.4169,-0.0264,5.3811,6.7003
285.1562,-2.2907,1.8529,2.8890,2.7984,3.5028,-3.9346,0.7171,2.5390,2.0329,-3.8339,3.0045,5.5858,5.4130,7.1392,-9.6030,-2.2428,0.0315,7.6201,7.9975
289.0625,1.2064,4.7053,5.5530,3.4140,0.9591,-0.0669,2.9445,3.4542,4.1087,-1.5575,3.8541,6.2584,5.0377,5.2696,-8.5978,-2.4530,-0.2581,9.2826,8.4251
292.9688,4.7271,7.3189,8.0305,3.5942,-1.7932,3.7092,5.1766,4.2165,5.8630,0.4567,4.1284,5.6758,4.4893,3.3482,-7.7541,-2.4089,-0.6658,10.1709,8.1456
296.8750,6.9491,8.7575,9.4089,3.3508,-4.3546,6.2939,6.8990,4.5983,6.8522,1.5590,3.7292,4.1893,3.9092,1.7850,-7.3012,-1.8527,-1.1137,10.0427,7.3634
300.7812,6.9794,8.3541,9.1128,2.7554,-6.2559,6.9837,7.8299,4.5316,6.6911,1.3331,2.7633,2.5328,3.2857,0.5756,-7.3600,-1.0350,-1.6751,8.7990,6.2021
304.6875,4.8638,6.1774,7.2509,1.9090,-7.1354,5.8530,8.0443,4.1342,5.3292,-0.0988,1.5752,1.4150,2.5108,-0.5200,-7.8842,-0.5003,-2.4206,6.6023,4.6703
308.5938,1.6163,3.0922,4.5500,0.8926,-6.8805,3.7443,7.8788,3.6137,3.1421,-2.0626,0.5737,1.0583,1.4582,-1.6433,-8.7085,-0.7144,-3.2659,3.8219,2.7334
312.5000,-1.2639,0.3500,1.9290,-0.2675,-5.6808,1.8524,7.6884,3.1121,0.7601,-3.6436,-0.0477,0.9922,0.0328,-2.6184,-9.6673,-1.7956,-3.9766,0.8354,0.4256
316.4062,-2.5330,-1.0663,-0.0062,-1.5925,-3.9827,1.1096,7.6155,2.5947,-1.2642,-4.1555,-0.4900,0.2867,-1.8139,-3.0259,-10.6947,-3.4989,-4.3523,-2.1679,-2.0985
320.3125,-1.8017,-0.9540,-1.2305,-3.0982,-2.3562,1.7074,7.5138,1.8651,-2.7383,-3.5003,-1.2639,-1.8700,-4.0703,-2.5119,-11.8259,-5.4166,-4.4402,-5.2283,-4.6063
324.2188,0.3342,0.0423,-2.1821,-4.7258,-1.3034,3.0160,7.0635,0.7085,-3.8711,-2.2042,-2.8533,-5.5906,-6.6243,-1.0949,-13.0890,-7.2150,-4.5803,-8.4606,-6.8784
328.1250,2.6896,0.8445,-3.3739,-6.3021,-1.0588,3.9491,5.9936,-0.9220,-5.0424,-1.1001,-5.3235,-10.0914,-9.2142,0.7725,-14.3578,-8.7400,-5.1971,-11.8104,-8.7596
332.0312,4.1685,0.5804,-5.0063,-7.5628,-1.4646,3.5687,4.2640,-2.7993,-6.4540,-0.8336,-8.1390,-14.0356,-11.4309,2.4469,-15.2804,-9.9473,-6.4597,-14.9091,-10.1320
335.9375,4.3296,-0.9308,-6.8309,-8.2384,-2.0013,1.5912,2.1063,-4.4752,-7.9016,-1.4793,-10.3410,-16.2259,-12.8218,3.4752,-15.3701,-10.7606,-8.0646,-17.1531,-10.8581
339.8438,3.5277,-3.1136,-8.3203,-8.1602,-1.9965,-1.4728,-0.0806,-5.4698,-8.8302,-2.4944,-11.0132,-16.2178,-13.0793,3.8450,-14.2436,-11.0041,-9.3349,-17.9799,-10.7820
343.7500,2.5944,-4.9934,-8.9927,-7.3277,-0.9389,-4.5985,-1.8925,-5.4863,-8.6463,-3.0362,-9.7704,-14.4722,-12.2166,3.9277,-11.8808,-10.4836,-9.6100,-17.1657,-9.8302
347.6562,2.2999,-5.7279,-8.6579,-5.8964,1.2565,-6.7589,-3.0350,-4.5224,-7.0786,-2.4504,-6.9737,-11.9721,-10.6008,4.1647,-8.7327,-9.1542,-8.6740,-14.9471,-8.1436
351.5625,2.9498,-4.9897,-7.4327,-4.0908,4.1831,-7.3735,-3.3415,-2.8197,-4.3473,-0.6344,-3.5274,-9.5805,-8.7877,4.7273,-5.5653,-7.2271,-6.9157,-11.8842,-6.1110
355.4688,4.3398,-3.0081,-5.5569,-2.0919,7.1271,-6.4716,-2.7256,-0.6966,-1.0282,1.9394,-0.3688,-7.5698,-7.2226,5.3933,-3.0862,-5.1047,-5.0876,-8.5498,-4.2213
359.3750,6.0314,-0.3099,-3.1765,0.0389,9.4089,-4.5410,-1.1437,1.6194,2.2902,4.5340,2.0505,-5.6024,-5.9803,5.7228,-1.5584,-3.1646,-3.8122,-5.2453,-2.7873
363.2812,7.6980,2.6217,-0.2664,2.3591,10.6936,-2.2142,1.3825,4.0569,5.3158,6.5764,3.9717,-3.1159,-4.7132,5.3974,-0.6501,-1.5417,-3.1733,-1.9183,-1.7189
367.1875,9.2782,5.5374,3.2539,4.9723,11.1061,0.0046,4.6947,6.6434,8.1161,7.9212,6.0914,0.2055,-2.8624,4.4828,0.3528,-0.0756,-2.6820,1.6789,-0.5278
371.0938,10.8513,8.3661,7.3081,7.9249,11.1011,1.8477,8.4452,9.3851,10.8971,8.7957,9.0176,4.2048,-0.0192,3.4338,2.0769,1.5227,-1.6441,5.7047,1.3963
375.0000,12.3785,11.0093,11.5206,11.1274,11.1836,3.2464,12.1265,12.1762,13.6685,9.5001,12.7547,8.3860,3.7777,2.8501,4.6261,3.3986,0.3271,10.0017,4.3826
378.9062,13.5551,13.1760,15.2596,14.3353,11.6474,4.2454,15.1969,14.7921,16.0492,10.1036,16.5493,12.2388,7.9914,3.1528,7.4759,5.3830,3.0163,14.0636,8.2027
382.8125,13.9189,14.4082,17.8571,17.1991,12.4683,4.9512,17.2440,16.9526,17.3725,10.3663,19.2164,15.4742,11.8228,4.3901,9.7845,7.0654,5.7335,17.2073,12.1073
386.7188,13.1498,14.2989,18.8795,19.3640,13.3809,5.5156,18.1020,18.4046,17.0408,9.9366,19.7682,18.0007,14.5953,6.2716,10.9165,8.0725,7.7707,18.8449,15.1706
390.6250,11.3288,12.7560,18.3012,20.5851,14.0672,6.0976,17.8623,18.9809,14.9012,8.6622,17.9709,19.7173,16.0684,8.3784,10.8194,8.3442,8.8575,18.7156,16.7438
394.5312,8.9531,10.1319,16.4923,20.8177,14.3369,6.7728,16.7830,18.6301,11.3931,6.7699,14.4886,20.3567,16.5077,10.3960,9.9860,8.1864,9.2970,16.9727,16.7546
398.4375,6.6801,7.1172,14.0421,20.2455,14.2113,7.4373,15.1583,17.4365,7.3668,4.7740,10.5275,19.5665,16.4888,12.2356,9.0389,8.0381,9.6994,14.1141,15.6941
402.3438,4.9804,4.4516,11.5219,19.2238,13.8866,7.8010,13.2239,15.6324,3.6900,3.1841,7.2054,17.2072,16.5686,14.0069,8.2571,8.1195,10.5193,10.8060,14.3256
406.2500,3.9408,2.6151,9.3050,18.1484,13.6152,7.5269,11.1375,13.5808,0.8883,2.2332,5.0440,13.6439,17.0199,15.8988,7.4185,8.2418,11.7387,7.6883,13.3064
410.1562,3.3366,1.6730,7.5158,17.3015,13.5714,6.4570,9.0219,11.6950,-0.9691,1.8264,3.8858,9.7814,17.7668,18.0546,6.0913,7.9583,12.9197,5.2275,12.9362
414.0625,2.8899,1.3463,6.1048,16.7466,13.7618,4.7707,7.0159,10.3022,-2.1043,1.7301,3.2497,6.7609,18.5281,20.4912,4.1551,6.9758,13.5721,3.6571,13.1407
417.9688,2.4962,1.2430,4.9834,16.3334,14.0172,2.9378,5.2839,9.5110,-2.7383,1.8315,2.8345,5.4716,19.0476,23.0638,2.1236,5.5216,13.5529,2.9989,13.6418
421.8750,2.2517,1.0964,4.1303,15.8107,14.0646,1.4626,3.9699,9.1663,-2.8919,2.2498,2.7921,6.1584,19.2544,25.4582,0.9681,4.3518,13.1977,3.1318,14.1689
425.7812,2.2869,0.8704,3.6052,14.9796,13.6474,0.5769,3.1251,8.9361,-2.4140,3.2058,3.5657,8.3408,19.2522,27.2141,1.5124,4.3291,13.0814,3.8626,14.5683
429.6875,2.5715,0.6894,3.4675,13.7909,12.6349,0.1028,2.6625,8.4886,-1.1953,4.7598,5.4232,11.0613,19.1613,27.8057,3.8131,5.8207,13.5820,4.9631,14.7673
433.5938,2.8760,0.6696,3.6597,12.3250,11.0675,-0.3979,2.3796,7.6569,0.6127,6.6425,8.0517,13.2983,18.9310,26.7902,6.9937,8.3403,14.5555,6.1714,14.6546
437.5000,2.9348,0.7860,3.9512,10.6813,9.1160,-1.2690,2.0520,6.4922,2.5548,8.3365,10.5557,14.3265,18.2688,23.9860,9.6941,10.7198,15.3556,7.1938,14.0030
441.4062,2.6845,0.8788,4.0109,8.8746,6.9822,-2.4444,1.5542,5.1870,4.0609,9.3704,11.9199,13.8969,16.7576,19.5924,10.8607,11.7469,15.1888,7.7510,12.5215
445.3125,2.3767,0.7969,3.5970,6.8368,4.8046,-3.4052,0.9422,3.9386,4.7550,9.6181,11.6507,12.2336,14.1123,14.1692,10.3522,10.8693,13.5749,7.6811,10.0346
449.2188,2.4589,0.5730,2.7583,4.5396,2.6217,-3.4645,0.4420,2.8535,4.6832,9.3803,10.1583,9.9207,10.4288,8.4636,8.9618,8.5059,10.6286,7.0521,6.6840
453.1250,3.2915,0.4943,1.9015,2.1481,0.4077,-2.2094,0.3347,1.9498,4.3067,9.1878,8.5913,7.7335,6.2629,3.1641,7.8662,5.7661,7.0093,6.1975,3.0055
457.0312,4.8953,0.9904,1.6356,0.0672,-1.8586,0.1876,0.7868,1.2220,4.2499,9.4602,8.1941,6.4311,2.4664,-1.2890,7.9015,3.7735,3.6034,5.6076,-0.2033
460.9375,6.9031,2.3831,2.4417,-1.1953,-4.1419,2.9928,1.7182,0.6910,4.9528,10.2550,9.5815,6.5150,-0.1517,-4.7366,9.1446,3.0509,1.1463,5.6998,-2.1942
464.8438,8.7406,4.6451,4.3479,-1.2904,-6.3390,5.2644,2.7905,0.3841,6.4286,11.2609,12.3817,8.0185,-1.1616,-7.1795,11.0246,3.3525,-0.0130,6.5851,-2.5978
468.7500,9.9097,7.3259,6.8252,-0.2506,-8.2906,6.3200,3.5481,0.2711,8.2683,12.0150,15.4633,10.4367,-0.6609,-8.6022,12.7892,4.0010,0.0701,7.9811,-1.5807
472.6562,10.1975,9.7163,9.0057,1.4914,-9.7842,6.0499,3.6526,0.2351,9.8804,12.1756,17.5891,12.8850,0.8394,-8.8784,13.9424,4.4405,1.0704,9.3484,0.2740
476.5625,9.7091,11.1770,10.1264,3.3202,-10.5487,4.9205,3.0895,0.1356,10.8194,11.6788,18.0813,14.4598,2.7112,-7.8342,14.3622,4.5976,2.5604,10.1839,2.2987
480.4688,8.7551,11.4495,9.9414,4.7626,-10.2810,3.7028,2.2192,-0.0660,11.0097,10.7130,17.1092,14.6345,4.4982,-5.4314,14.1172,4.8229,4.1269,10.2899,4.0794
484.3750,7.6992,10.7646,8.8399,5.7069,-8.7504,3.1013,1.6189,-0.2223,10.7382,9.5801,15.4684,13.4744,6.0264,-1.9457,13.2362,5.5052,5.4297,9.8409,5.5858
488.2812,6.8497,9.6796,7.5842,6.3748,-5.9659,3.4752,1.7803,-0.0502,10.4310,8.5536,14.0416,11.5396,7.2977,2.0018,11.6762,6.6744,6.2353,9.2007,7.0143
492.1875,6.4085,8.7345,6.8223,7.0733,-2.3110,4.7460,2.8198,0.6847,10.3508,7.8014,13.2902,9.5305,8.2793,5.6135,9.4969,7.8794,6.4435,8.6165,8.4705
496.0938,6.4354,8.1335,6.6821,7.9086,1.4768,6.4821,4.3712,1.9635,10.3996,7.3626,13.0575,7.8881,8.7722,8.2171,7.0274,8.4029,6.0889,8.0097,9.7369
500.0000,6.8095,7.6431,6.7105,8.6641,4.5353,8.0833,5.7350,3.4398,10.1447,7.1395,12.7391,6.5862,8.4739,9.5391,4.7957,7.6392,5.2914,7.0178,10.3159
503.9062,7.2213,6.7708,6.1910,8.9230,6.2260,8.9895,6.2184,4.5667,9.0557,6.9013,11.6607,5.2250,7.1946,9.7944,3.2095,5.3860,4.1651,5.2676,9.7351
507.8125,7.2512,5.1127,4.6300,8.3378,6.4068,8.8600,5.4831,4.8571,6.8200,6.3389,9.4260,3.3425,5.0574,9.5288,2.2333,1.9081,2.7448,2.6858,7.9007
511.7188,6.5398,2.6531,2.0927,6.8525,5.4494,7.6796,3.7091,4.1176,3.5540,5.1974,6.0707,0.7324,2.5160,9.2924,1.3559,-2.1952,0.9881,-0.3760,5.2331
515.6250,4.9703,-0.1736,-0.8220,4.7325,3.9814,5.7515,1.4858,2.5168,-0.2094,3.4374,2.0007,-2.4224,0.1480,9.3203,-0.0637,-6.1934,-1.1375,-3.2991,2.4689
519.5312,2.7415,-2.7036,-3.3359,2.4057,2.5161,3.5595,-0.5031,0.4673,-3.7526,1.3119,-2.1990,-5.6583,-1.6463,9.3991,-2.3045,-9.4063,-3.5443,-5.5358,0.2553
523.4375,0.2665,-4.4156,-4.9315,0.2486,1.2199,1.5468,-1.8173,-1.5768,-6.4942,-0.7362,-5.9734,-8.4779,-2.8361,8.9971,-5.0241,-11.3535,-5.9807,-6.8995,-1.1826
527.3438,-2.0467,-5.2310,-5.5965,-1.5315,-0.0332,-0.0818,-2.4354,-3.2712,-8.2273,-2.3276,-8.9510,-10.5651,-3.7058,7.5930,-7.4574,-11.8939,-8.0984,-7.6164,-2.0736
531.2500,-3.9893,-5.5595,-5.7459,-2.8665,-1.3811,-1.4173,-2.6878,-4.4177,-9.1531,-3.3942,-11.0133,-11.8470,-4.5949,5.0223,-8.9465,-11.3191,-9.5906,-8.1178,-2.8260
535.1562,-5.5898,-6.0658,-5.9097,-3.7248,-2.7023,-2.7223,-3.0133,-4.9285,-9.7128,-4.2326,-12.2806,-12.4031,-5.6133,1.6547,-9.4025,-10.2995,-10.3061,-8.7315,-3.6639
539.0625,-6.9851,-7.2920,-6.4175,-4.0541,-3.5833,-4.2045,-3.7008,-4.8044,-10.3271,-5.2974,-13.0254,-12.3227,-6.5325,-1.6966,-9.3400,-9.6116,-10.2652,-9.4842,-4.4452
542.9688,-8.2422,-9.3551,-7.2708,-3.8271,-3.5712,-5.8427,-4.7605,-4.1713,-11.1911,-6.8544,-13.5364,-11.6273,-6.9219,-4.0841,-9.4466,-9.7220,-9.5824,-10.1321,-4.7818
546.8750,-9.2756,-11.8784,-8.2378,-3.1347,-2.5298,-7.3883,-5.9725,-3.3203,-12.2190,-8.7406,-13.9836,-10.3045,-6.4278,-4.7969,-10.0148,-10.4638,-8.3770,-10.3646,-4.3478
550.7812,-9.9238,-14.1787,-9.0496,-2.2157,-0.8201,-8.5341,-7.0433,-2.6583,-13.1367,-10.4120,-14.3442,-8.4084,-5.0000,-3.6134,-10.6776,-11.0566,-6.7525,-10.0137,-3.1274
554.6875,-10.1052,-15.5855,-9.5348,-1.3596,0.8555,-9.1172,-7.7511,-2.5345,-13.6426,-11.2658,-14.4361,-6.1350,-2.9188,-0.8347,-10.6628,-10.5345,-4.8515,-9.1226,-1.4198
558.5938,-9.9129,-15.7202,-9.6204,-0.7371,1.8660,-9.1978,-7.9982,-3.0216,-13.5440,-11.0198,-14.0481,-3.8052,-0.6242,2.8868,-9.3859,-8.3631,-2.9106,-7.8549,0.3810
562.5000,-9.5582,-14.6114,-9.2564,-0.2874,2.0422,-8.9586,-7.7762,-3.8124,-12.8197,-9.8883,-13.1020,-1.7600,1.5199,6.8143,-6.9425,-4.8559,-1.2224,-6.3522,2.0370
566.4062,-9.2130,-12.6361,-8.3830,0.2322,1.7767,-8.5222,-7.1142,-4.3412,-11.6205,-8.4406,-11.7603,-0.2367,3.3685,10.3627,-4.1396,-1.0886,0.0124,-4.6751,3.5535
570.3125,-8.8901,-10.3614,-7.0042,1.0546,1.7595,-7.8541,-6.0765,-4.0929,-10.2380,-7.2539,-10.4159,0.6991,4.9749,13.2186,-2.0435,1.6662,0.8464,-2.8725,5.0543
574.2188,-8.4755,-8.3782,-5.3116,2.2027,2.5272,-6.8505,-4.8101,-2.9176,-9.0599,-6.6103,-9.5606,1.1305,6.4581,15.3335,-1.3684,2.6407,1.6168,-1.1044,6.5763
578.1250,-7.8927,-7.1767,-3.7289,3.4295,4.1204,-5.5449,-3.5789,-1.1441,-8.4972,-6.4365,-9.5902,1.2064,7.8719,16.8243,-2.1232,1.9621,2.7673,0.3115,7.9688
582.0312,-7.2597,-7.0556,-2.7840,4.3462,6.0533,-4.2474,-2.7131,0.5913,-8.8690,-6.4902,-10.6298,1.0609,9.1581,17.8385,-3.7192,0.4958,4.5367,1.0022,8.9729
585.9375,-6.8892,-8.0500,-2.8459,4.6477,7.5836,-3.4637,-2.4656,1.6926,-10.2679,-6.6211,-12.4560,0.7798,10.1839,18.4310,-5.4087,-0.7284,6.7108,0.7367,9.3961
589.8438,-7.1107,-9.8949,-3.8864,4.2701,8.0838,-3.6092,-2.8543,1.9031,-12.4749,-6.9016,-14.5560,0.4157,10.8066,18.4972,-6.7188,-1.1112,8.6297,-0.4206,9.2159
593.7500,-8.0415,-12.0727,-5.4431,3.3764,7.2869,-4.7128,-3.6092,1.3711,-14.9958,-7.5455,-16.3114,0.0118,10.9126,17.7923,-7.6032,-0.7238,9.4922,-2.1221,8.5248
597.6562,-9.4906,-13.9796,-6.8410,2.1964,5.3046,-6.3441,-4.2892,0.4662,-17.2390,-8.7060,-17.2393,-0.4041,10.4306,16.0502,-8.2798,-0.0957,8.8001,-3.9192,7.3811
601.5625,-11.0783,-15.1707,-7.5588,0.8581,2.4808,-7.8475,-4.5255,-0.5002,-18.7581,-10.3246,-17.1887,-0.8516,9.3492,13.1666,-8.9465,0.2393,6.6741,-5.4962,5.7248
605.4688,-12.4854,-15.5623,-7.5172,-0.6528,-0.7728,-8.7391,-4.2465,-1.4457,-19.4321,-12.1393,-16.3917,-1.4175,7.7563,9.3590,-9.6081,0.0921,3.8387,-6.8015,3.4630
609.3750,-13.6368,-15.4577,-7.1030,-2.3780,-4.0526,-8.9882,-3.7347,-2.4684,-19.4717,-13.8227,-15.3262,-2.2170,5.8679,5.2051,-10.1115,-0.3457,1.2736,-7.9909,0.6727
613.2812,-14.6748,-15.3452,-6.9029,-4.2076,-6.9516,-8.9766,-3.4605,-3.6391,-19.2449,-15.1270,-14.4484,-3.2946,3.9961,1.5028,-10.3043,-0.7341,-0.2658,-9.2326,-2.2530
617.1875,-15.7456,-15.5648,-7.3060,-5.7835,-9.0346,-9.1665,-3.7817,-4.8035,-19.0243,-15.9331,-13.9334,-4.5207,2.4433,-1.0015,-10.1616,-0.8521,-0.5781,-10.5103,-4.6635
621.0938,-16.7779,-16.0439,-8.2177,-6.5671,-9.8683,-9.7227,-4.6879,-5.5485,-18.8068,-16.2048,-13.5793,-5.5663,1.3848,-1.8822,-9.7882,-0.6956,-0.0190,-11.5549,-5.9014
625.0000,-17.4427,-16.2821,-9.0610,-6.0416,-9.1088,-10.3719,-5.7529,-5.3649,-18.3093,-15.9286,-12.9388,-5.9980,0.8331,-1.1500,-9.3258,-0.3739,0.7939,-11.9398,-5.5820
628.9062,-17.3410,-15.6183,-9.0667,-3.9322,-6.5988,-10.6037,-6.3286,-3.9063,-17.1305,-15.1151,-11.6027,-5.4602,0.7324,0.8480,-8.8628,0.0510,1.3728,-11.2709,-3.7087
632.8125,-16.2824,-13.6280,-7.6832,-0.3333,-2.4287,-10.0538,-5.8733,-1.1898,-14.9726,-13.8534,-9.4536,-3.8411,1.1214,3.6717,-8.4071,0.6182,1.6115,-9.3577,-0.5684
636.7188,-14.4406,-10.4048,-4.8729,4.3042,3.0473,-8.7756,-4.2273,2.3673,-11.7974,-12.3423,-6.7270,-1.3239,2.2224,7.0071,-7.9107,1.3711,1.7727,-6.2864,3.4772
640.6250,-12.2641,-6.5467,-1.1391,9.2925,9.2261,-7.1925,-1.6899,6.0810,-7.8503,-10.8338,-3.8482,1.7026,4.3409,10.7160,-7.2977,2.2196,2.2595,-2.3892,8.1150
644.5312,-10.2098,-2.8571,2.7135,13.8696,15.2996,-5.7687,1.1273,9.2254,-3.5723,-9.5097,-1.1720,4.8086,7.5978,14.6989,-6.4774,2.9145,3.3352,1.8446,13.0275
648.4375,-8.4985,0.0467,5.9350,17.3593,20.3583,-4.6611,3.5720,11.2484,0.5294,-8.3900,1.1824,7.6545,11.6660,18.6969,-5.3705,3.1879,4.9600,5.8701,17.7488
652.3438,-7.0665,1.9773,8.1101,19.3043,23.5788,-3.6232,5.1976,11.9030,3.9959,-7.3598,3.2912,10.0216,15.7279,22.2115,-3.9745,2.9655,6.8170,9.1891,21.6163
656.2500,-5.7269,3.1444,9.2314,19.5585,24.4562,-2.2462,5.8761,11.2689,6.5044,-6.3033,5.2392,11.7652,18.7526,24.6397,-2.4335,2.4828,8.4802,11.4543,23.9395
660.1562,-4.3918,3.9097,9.5692,18.3059,22.9790,-0.3537,5.7579,9.6703,7.9394,-5.2360,6.9638,12.7766,19.9759,25.5554,-1.0293,2.2020,9.6159,12.5659,24.3170
664.0625,-3.1716,4.5235,9.4471,15.9798,19.6292,1.7525,5.1370,7.5277,8.4436,-4.3119,8.2779,13.0182,19.3050,24.9484,-0.0418,2.5684,10.1136,12.7091,22.8826
667.9688,-2.2783,5.0187,9.0618,13.0959,15.1767,3.3952,4.3030,5.1987,8.4021,-3.6864,9.0596,12.6120,17.3875,23.2438,0.4572,3.7568,10.1018,12.2831,20.2801
671.8750,-1.8307,5.2964,8.4314,10.0699,10.3656,3.9178,3.4389,2.8734,8.3180,-3.3428,9.4377,11.8825,15.2761,21.0691,0.7154,5.5552,9.8643,11.7206,17.3454
675.7812,-1.7344,5.2902,7.4689,7.1155,5.6682,3.0995,2.5818,0.5758,8.5918,-3.0401,9.7798,11.2675,13.8760,18.9123,1.1781,7.4354,9.7049,11.2750,14.6916
679.6875,-1.7443,5.0550,6.1031,4.2776,1.2427,1.3019,1.6442,-1.7361,9.3059,-2.4552,10.4435,11.1103,13.4955,16.8896,2.1583,8.7535,9.8111,10.9027,12.4606
683.5938,-1.6613,4.7137,4.3681,1.5642,-2.9141,-0.7512,0.4834,-4.0355,10.1520,-1.4331,11.4566,11.4593,13.7548,14.7689,3.5145,8.9802,10.1631,10.3245,10.3892
687.5000,-1.5018,4.3278,2.4174,-0.9278,-6.7571,-2.4063,-0.9968,-6.1559,10.5787,-0.1634,12.3893,12.0297,13.8810,12.2189,4.6024,7.8840,10.5205,9.2414,8.1132
691.4062,-1.5002,3.8240,0.4741,-2.9946,-10.0913,-3.4318,-2.7489,-7.8390,10.1008,0.8661,12.5630,12.3737,13.1878,9.1057,4.6042,5.6329,10.5030,7.5661,5.4813
695.3125,-1.9397,3.0508,-1.2400,-4.4255,-12.6357,-4.0723,-4.5412,-8.8727,8.5887,1.1221,11.4869,12.1537,11.4492,5.6414,3.0614,2.7907,9.7487,5.5078,2.6726
699.2188,-2.9416,1.9164,-2.5630,-5.1330,-14.1656,-4.8017,-6.0168,-9.2132,6.3472,0.3229,9.2209,11.3200,8.9730,2.3072,0.2486,0.1794,8.0938,3.4397,0.0747
703.1250,-4.3727,0.4788,-3.4268,-5.1982,-14.5819,-5.9707,-6.8455,-8.9859,3.9198,-1.4177,6.3861,10.0626,6.3818,-0.3721,-2.9033,-1.4007,5.6921,1.6375,-1.9468
707.0312,-5.9298,-1.1023,-3.8709,-4.7811,-13.8351,-7.5891,-6.8957,-8.3515,1.7441,-3.6787,3.7910,8.5870,4.2739,-2.0331,-5.3231,-1.5168,3.0042,0.0815,-3.2048
710.9375,-7.3216,-2.7156,-4.0345,-3.9651,-11.7813,-9.3609,-6.3230,-7.3334,-0.1050,-5.9680,1.9280,6.9161,2.9705,-2.5406,-6.4270,-0.3533,0.6445,-1.5165,-3.6857
714.8438,-8.4033,-4.4070,-4.1185,-2.6713,-8.1392,-10.9053,-5.5033,-5.7533,-1.9008,-7.9313,0.7024,4.9070,2.4632,-1.9167,-6.4264,1.3114,-0.8552,-3.4552,-3.4355
718.7500,-9.1722,-6.3260,-4.3103,-0.7291,-2.6612,-11.9868,-4.8345,-3.3539,-3.9817,-9.4104,-0.4062,2.4960,2.5331,-0.2378,-6.1020,2.4556,-1.2543,-5.7294,-2.4657
722.6562,-9.6590,-8.5218,-4.6932,1.9286,4.5513,-12.6038,-4.5220,-0.0482,-6.4055,-10.3626,-1.8730,-0.0330,2.9276,2.3974,-6.2059,2.3432,-0.6817,-7.8982,-0.7656
726.5625,-9.8320,-10.7524,-5.1880,5.0950,12.8106,-12.9115,-4.4831,3.8771,-8.8001,-10.7612,-3.7036,-2.0219,3.4845,5.8130,-6.9180,0.9322,0.4551,-9.2670,1.6029
730.4688,-9.6116,-12.4951,-5.5779,8.2864,20.9075,-13.0744,-4.4347,7.7684,-10.5431,-10.5854,-5.3817,-2.7572,4.1599,9.7020,-7.7424,-1.0991,1.6836,-9.2950,4.4265
734.3750,-8.9831,-13.2111,-5.6210,10.9370,27.5159,-13.1690,-4.1071,10.8555,-11.1653,-9.9039,-6.2338,-1.9593,4.9840,13.6716,-7.9045,-2.7477,2.6923,-7.9666,7.3601
738.2812,-8.1027,-12.7136,-5.1979,12.6723,31.7333,-13.1931,-3.4389,12.6049,-10.7040,-8.9516,-5.9426,-0.0833,5.9971,17.4023,-6.9525,-3.2666,3.4571,-5.8632,10.0393
742.1875,-7.2856,-11.3733,-4.4006,13.4746,33.4320,-13.1398,-2.6219,12.9594,-9.7497,-8.0919,-4.8249,1.8393,7.1992,20.8190,-5.1256,-2.5663,4.2089,-3.8610,12.2053
746.0938,-6.8603,-9.9813,-3.4991,13.6269,33.1970,-13.0527,-1.9689,12.3104,-9.1342,-7.6531,-3.6664,2.7745,8.5241,24.1221,-3.2343,-1.1870,5.2682,-2.6397,13.7558
750.0000,-6.9824,-9.3204,-2.7955,13.4771,31.8855,-13.0093,-1.7026,11.2258,-9.4504,-7.7415,-3.2305,2.3139,9.8338,27.6018,-2.1499,0.1172,6.8376,-2.3215,14.6977
753.9062,-7.5413,-9.7124,-2.4584,13.1910,30.0904,-13.0513,-1.8152,10.1142,-10.7130,-8.1705,-3.7901,0.9179,10.9345,31.3194,-2.2676,0.8807,8.8594,-2.4836,15.0548
757.8125,-8.2268,-10.8431,-2.4464,12.6648,27.8446,-13.1261,-2.0913,9.0392,-12.3719,-8.5660,-5.0011,-0.4128,11.6171,34.8587,-3.3040,1.1720,11.0072,-2.5284,14.8043
761.7188,-8.7053,-11.9828,-2.5722,11.6479,24.7360,-13.0953,-2.2678,7.7851,-13.6562,-8.5795,-6.1719,-0.8224,11.7156,37.3457,-4.5303,1.4363,12.8061,-2.1475,13.8878
765.6250,-8.7818,-12.4503,-2.6554,9.9751,20.3296,-12.8057,-2.2063,6.1063,-14.0113,-8.0609,-6.7053,-0.1604,11.1570,37.7803,-5.2404,2.0845,13.8137,-1.5439,12.2768
769.5312,-8.4448,-12.0047,-2.6503,7.7379,14.6029,-12.1711,-1.9555,3.9745,-13.3512,-7.0808,-6.3909,0.9760,9.9754,35.5214,-5.1206,3.1493,13.7664,-1.2525,10.0428
773.4375,-7.7879,-10.9168,-2.6520,5.2779,8.1115,-11.2117,-1.6706,1.6581,-11.9971,-5.8108,-5.3804,1.7360,8.2782,30.6509,-4.2975,4.2577,12.6296,-1.6896,7.3837
777.3438,-6.8905,-9.7075,-2.7836,3.0168,1.7936,-10.0340,-1.4664,-0.4057,-10.3909,-4.3738,-3.9368,1.6698,6.1896,23.9938,-3.0997,4.9218,10.5487,-2.7663,4.5904
781.2500,-5.7608,-8.7734,-3.0585,1.2475,-3.4450,-8.7834,-1.3254,-1.8479,-8.8156,-2.7880,-2.2075,1.0522,3.8125,16.7720,-1.7594,4.9117,7.7574,-3.8661,1.9677
785.1562,-4.3803,-8.1770,-3.3368,0.0193,-7.1052,-7.6125,-1.1284,-2.5542,-7.3143,-1.0439,-0.2128,0.6354,1.2388,10.0839,-0.2893,4.4254,4.5145,-4.2278,-0.2622
789.0625,-2.8021,-7.7256,-3.4177,-0.8286,-9.2206,-6.6782,-0.7751,-2.6907,-5.8288,0.7624,1.9687,1.0241,-1.4023,4.5027,1.3962,3.9371,1.1014,-3.4815,-2.0365
792.9688,-1.2154,-7.2347,-3.2027,-1.5338,-10.1966,-6.1426,-0.2911,-2.5741,-4.4118,2.3592,4.0182,2.1485,-3.9032,0.0054,3.2449,3.8470,-2.1474,-1.9591,-3.4698
796.8750,0.0864,-6.7400,-2.7961,-2.2742,-10.4916,-6.1398,0.1672,-2.4831,-3.3196,3.3712,5.4041,3.2388,-5.9922,-3.7584,4.9285,4.1984,-4.8452,-0.5462,-4.7839
800.7812,0.8214,-6.4817,-2.4540,-3.0980,-10.3330,-6.7003,0.4135,-2.5280,-2.8985,3.5031,5.6456,3.3347,-7.4104,-7.0478,5.9340,4.6660,-6.6353,-0.1504,-6.1543
804.6875,0.8525,-6.6805,-2.4026,-3.9240,-9.6110,-7.6750,0.3582,-2.6389,-3.3399,2.7264,4.6392,1.9700,-8.0078,-9.7218,5.8449,4.8120,-7.3310,-1.1248,-7.5375
808.5938,0.2642,-7.2908,-2.6522,-4.5739,-7.9760,-8.7247,0.0638,-2.6533,-4.4828,1.3548,2.8060,-0.4468,-7.7883,-11.2157,4.6324,4.4154,-7.0239,-3.0165,-8.5769
812.5000,-0.6525,-7.9289,-2.9409,-4.8051,-5.0640,-9.4141,-0.3039,-2.4280,-5.8070,-0.0439,0.9343,-2.8121,-6.8591,-10.7948,2.7617,3.6415,-6.0629,-4.7922,-8.6761
816.4062,-1.4930,-8.0379,-2.8538,-4.3505,-0.7340,-9.3818,-0.5811,-1.9079,-6.6304,-0.8565,-0.1887,-3.9321,-5.3097,-7.9297,1.0270,2.9429,-4.8775,-5.3858,-7.2396
820.3125,-1.8697,-7.1710,-2.0434,-2.9937,4.7841,-8.5017,-0.6805,-1.1268,-6.3938,-0.6623,-0.1307,-3.1469,-3.1099,-2.5916,0.1894,2.7781,-3.7339,-4.2270,-3.9788
824.2188,-1.5373,-5.2083,-0.4131,-0.6844,10.8782,-6.9392,-0.5843,-0.1622,-4.8778,0.6047,1.0489,-0.6038,-0.1240,4.6573,0.6046,3.3429,-2.5850,-1.4603,0.8731
828.1250,-0.4800,-2.3911,1.8339,2.3522,16.6761,-5.0700,-0.2847,0.9054,-2.2607,2.6277,2.9129,2.9180,3.7292,12.7813,2.0380,4.4817,-1.1369,2.2100,6.5589
832.0312,1.0648,0.7987,4.2809,5.5897,21.2566,-3.3059,0.2526,1.9995,0.9665,4.8206,4.8871,6.4296,8.2459,20.5161,3.7696,5.8034,0.8849,5.8786,12.0147
835.9375,2.6622,3.7965,6.4387,8.3137,23.8837,-1.9332,1.0485,3.0217,4.1519,6.5373,6.4624,9.1088,12.7948,26.6437,4.9387,6.8977,3.4382,8.7609,16.2018
839.8438,3.8116,6.0606,7.8624,9.8560,24.1903,-1.0505,2.0197,3.8278,6.6312,7.2937,7.2797,10.4576,16.4039,30.2385,4.9574,7.5036,6.0560,10.3393,18.4042
843.7500,4.1156,7.1320,8.2212,9.8532,22.2553,-0.6227,2.9233,4.2438,7.8562,6.9163,7.1363,10.2863,18.0976,30.8584,3.7778,7.5476,8.0393,10.3654,18.3863
847.6562,3.4217,6.7156,7.3595,8.4024,18.5526,-0.5865,3.4141,4.1355,7.5160,5.5579,6.0011,8.6676,17.3409,28.6481,1.8741,7.0714,8.8560,8.8415,16.3890
851.5625,1.8769,4.8171,5.3739,6.0269,13.7906,-0.9139,3.2120,3.4993,5.6470,3.5877,4.0667,5.9459,14.3441,24.3059,-0.0424,6.1367,8.4803,6.0517,13.0054
855.4688,-0.1277,1.8622,2.6719,3.4601,8.7040,-1.5835,2.2818,2.5147,2.6780,1.4262,1.7752,2.7383,10.0234,18.8763,-1.4092,4.7842,7.4170,2.5875,8.9922
859.3750,-2.0914,-1.3360,-0.0724,1.3472,3.8711,-2.4914,0.9020,1.5072,-0.6522,-0.5827,-0.2696,-0.1913,5.5958,13.4037,-2.0731,3.0606,6.3541,-0.7486,5.0609
863.2812,-3.5556,-3.8363,-2.1208,0.0061,-0.3790,-3.3921,-0.4388,0.8172,-3.5218,-2.2015,-1.5190,-2.2117,2.0155,8.5796,-2.2778,1.0732,5.6581,-3.2077,1.6901
867.1875,-4.2188,-4.9726,-2.9753,-0.6424,-3.9454,-3.9487,-1.2672,0.6372,-5.3198,-3.2573,-1.7227,-3.1168,-0.4309,4.5564,-2.4104,-0.9866,5.0666,-4.4217,-0.9796
871.0938,-3.9988,-4.6810,-2.6278,-0.9545,-6.8443,-3.8888,-1.3404,0.9111,-5.8683,-3.6069,-1.0451,-3.2143,-2.1287,1.0410,-2.6927,-2.8797,3.8318,-4.5809,-3.1132
875.0000,-3.0457,-3.5343,-1.5832,-1.3303,-9.0754,-3.1764,-0.7307,1.3634,-5.4568,-3.1831,0.0328,-3.1049,-3.7468,-2.3827,-3.0394,-4.4003,1.2613,-4.3137,-5.0063
878.9062,-1.7137,-2.4335,-0.6113,-2.0000,-10.5473,-2.0761,0.2520,1.6506,-4.6704,-2.1077,0.9678,-3.2742,-5.7149,-5.8971,-3.1791,-5.4594,-2.6938,-4.3111,-6.8553
882.8125,-0.4791,-2.1272,-0.3522,-2.9399,-11.1106,-1.0456,1.2296,1.5451,-4.1096,-0.7727,1.4035,-3.7799,-7.9150,-9.2902,-2.9397,-6.1289,-7.2278,-4.9274,-8.6154
886.7188,0.2057,-2.8427,-1.0066,-3.9497,-10.6854,-0.5011,1.9056,1.0402,-4.1485,0.2277,1.2635,-4.2648,-9.7826,-12.0878,-2.4725,-6.6208,-11.0386,-6.0187,-10.0478
890.6250,0.0960,-4.2385,-2.2890,-4.8185,-9.3962,-0.5941,2.1252,0.3154,-4.8333,0.3411,0.6696,-4.2819,-10.7236,-13.8677,-2.2251,-7.2032,-13.0561,-7.1119,-10.9205
894.5312,-0.7053,-5.6691,-3.6502,-5.4542,-7.6063,-1.1371,1.8555,-0.4019,-5.9260,-0.6332,-0.2057,-3.6704,-10.5248,-14.5100,-2.6575,-8.0767,-13.0637,-7.7579,-11.1966
898.4375,-1.7442,-6.5577,-4.5967,-5.8824,-5.7906,-1.7244,1.1486,-0.9712,-7.0193,-2.3635,-1.2060,-2.6711,-9.4440,-14.1792,-3.8902,-9.2535,-11.7753,-7.7892,-11.0351
902.3438,-2.3905,-6.6293,-4.8922,-6.1178,-4.2921,-1.9698,0.1371,-1.3732,-7.6442,-4.0752,-2.1300,-1.6720,-7.9088,-13.0477,-5.5344,-10.4943,-10.2965,-7.2903,-10.5755
906.2500,-2.1241,-5.8919,-4.5348,-6.0153,-3.1082,-1.7102,-0.9450,-1.6321,-7.3481,-4.8955,-2.6306,-0.7823,-6.0660,-10.9903,-6.8394,-11.3482,-9.3275,-6.3267,-9.6722
910.1562,-0.7822,-4.4511,-3.5825,-5.2402,-1.8617,-1.0528,-1.7698,-1.7044,-5.7733,-4.2654,-2.2240,0.4029,-3.5563,-7.5373,-7.0716,-11.3053,-8.6668,-4.6887,-7.8346
914.0625,1.3782,-2.3523,-2.0040,-3.4177,-0.0159,-0.2541,-1.9949,-1.4429,-2.7675,-2.1882,-0.4826,2.6050,0.2597,-2.2003,-5.8891,-10.0160,-7.3806,-1.9076,-4.4968
917.9688,3.8373,0.4082,0.3061,-0.3905,2.7686,0.4711,-1.3991,-0.6798,1.4978,0.8182,2.6765,6.3162,5.7442,5.0083,-3.4840,-7.4835,-4.5355,2.4089,0.5149
921.8750,6.0837,3.7251,3.3640,3.5887,6.3537,1.0702,-0.0021,0.6290,6.4808,4.0073,6.8070,11.2821,12.4883,13.2377,-0.4343,-4.1286,0.0137,8.1423,6.6540
925.7812,7.8207,7.2346,6.9272,7.8802,10.1101,1.6275,1.9124,2.3173,11.3691,6.7372,11.0188,16.4106,19.2747,20.9511,2.6044,-0.6742,5.3507,14.4638,12.7523
929.6875,8.9879,10.3322,10.4725,11.7110,13.2007,2.2251,3.8918,4.0607,15.3212,8.6633,14.3277,20.2322,24.5852,26.5593,5.1572,2.1186,9.9574,20.0654,17.5467
933.5938,9.6182,12.3855,13.3593,14.5096,14.9954,2.8049,5.4818,5.5406,17.7466,9.7259,16.0792,21.6497,27.3486,29.1825,7.0054,3.7480,12.6108,23.7169,20.3098
937.5000,9.6818,13.0209,15.0737,16.1054,15.3564,3.1438,6.3747,6.6003,18.4806,10.0152,16.1905,20.5058,27.4417,29.0551,8.1003,4.1630,13.1079,24.8095,21.1537
941.4062,9.0679,12.2977,15.3959,16.6667,14.6210,2.9705,6.4771,7.2742,17.7635,9.6497,15.0732,17.6085,25.6135,27.2945,8.4431,3.7525,12.3211,23.5487,20.7903
945.3125,7.7363,10.6611,14.4053,16.4370,13.3111,2.1522,5.8887,7.6703,16.0522,8.7489,13.3057,14.2149,22.9102,25.1682,8.0424,3.1318,11.5513,20.7006,19.9271
949.2188,5.9119,8.7093,12.3625,15.4790,11.7849,0.8282,4.8357,7.8041,13.7892,7.4722,11.2861,11.3197,20.0199,23.3323,6.9592,2.8302,11.6344,17.0964,18.7483
953.1250,4.1341,6.9218,9.5843,13.6279,10.0707,-0.5998,3.5996,7.5274,11.2631,6.0395,9.0881,9.1951,16.9926,21.5327,5.3536,3.0310,12.4148,13.2403,16.8669
957.0312,3.0602,5.4979,6.3938,10.6897,7.9724,-1.6282,2.4560,6.6189,8.6114,4.6780,6.5860,7.4247,13.4892,18.9439,3.4531,3.4938,12.9287,9.2526,13.7700
960.9375,3.1071,4.3614,3.1292,6.7255,5.3360,-1.8808,1.6094,4.9747,5.9096,3.5223,3.7163,5.3344,9.3102,14.8818,1.4429,3.6962,12.1336,5.1106,9.3928
964.8438,4.1574,3.2845,0.1285,2.1812,2.2513,-1.2939,1.1233,2.7467,3.2472,2.5509,0.6617,2.4890,4.7560,9.3821,-0.6286,3.1192,9.6515,0.9352,4.3557
968.7500,5.5456,2.0333,-2.3618,-2.2602,-0.9604,-0.1682,0.8797,0.3148,0.7237,1.6167,-2.1836,-1.0600,0.5247,3.2525,-2.8352,1.5293,6.0122,-2.9291,-0.3369
972.6562,6.3684,0.4656,-4.3045,-6.0139,-3.9424,0.9367,0.6184,-1.8938,-1.6077,0.5557,-4.4358,-4.8663,-2.7638,-2.4082,-5.2389,-0.8909,2.2649,-6.0948,-3.9152
976.5625,5.9531,-1.4314,-5.9002,-8.8669,-6.4987,1.4222,0.0726,-3.6075,-3.7726,-0.7030,-5.9568,-8.3740,-5.0249,-6.8522,-7.7328,-3.6312,-0.7238,-8.3995,-6.2976
980.4688,4.2103,-3.5402,-7.4510,-10.9778,-8.6194,0.8970,-0.8554,-4.7845,-5.8257,-2.0956,-6.9246,-11.1608,-6.7579,-10.0220,-9.9891,-6.1082,-2.7709,-10.0136,-8.0266
984.3750,1.6663,-5.6327,-9.1135,-12.6009,-10.3179,-0.6467,-1.9893,-5.5170,-7.7447,-3.4580,-7.6869,-13.0074,-8.6217,-12.3654,-11.5698,-7.9395,-4.3486,-11.2772,-9.7305
988.2812,-0.8288,-7.4153,-10.7123,-13.7491,-11.4364,-2.8038,-2.9353,-5.8584,-9.3540,-4.5875,-8.4999,-13.8299,-10.8463,-14.2977,-12.1339,-9.0808,-6.0987,-12.3795,-11.5304
992.1875,-2.5295,-8.6081,-11.7733,-14.0727,-11.6151,-4.8955,-3.2910,-5.7295,-10.3587,-5.2846,-9.3323,-13.6077,-12.9355,-15.7341,-11.6045,-9.7457,-8.2801,-13.1396,-12.8517
996.0938,-3.1137,-9.0379,-11.7879,-13.0699,-10.4933,-6.2314,-2.8880,-4.9837,-10.4846,-5.3755,-9.8599,-12.3939,-13.9055,-16.0474,-10.1849,-10.1657,-10.5453,-13.0716,-12.7929
1000.0000,-2.7382,-8.6965,-10.5437,-10.4893,-8.0089,-6.3870,-1.9039,-3.5776,-9.6331,-4.7515,-9.6429,-10.3721,-12.9112,-14.4825,-8.2258,-10.3511,-12.1654,-11.7087,-10.7782
1003.9062,-1.8482,-7.7227,-8.2859,-6.6256,-4.5647,-5.3666,-0.7553,-1.6946,-7.9414,-3.4455,-8.3620,-7.8540,-9.8212,-10.7252,-6.0454,-10.0237,-12.4957,-8.9574,-7.0131
1007.8125,-0.8943,-6.3145,-5.5888,-2.2750,-0.9099,-3.5703,0.1702,0.2969,-5.7059,-1.6978,-5.9753,-5.1621,-5.3450,-5.2257,-3.8226,-8.7904,-11.3350,-5.2300,-2.4219
1011.7188,-0.1204,-4.6287,-3.0230,1.6354,2.2053,-1.5771,0.7665,2.0326,-3.2306,0.0736,-2.7295,-2.4660,-0.6422,0.9374,-1.6159,-6.4653,-8.9676,-1.2647,1.8651
1015.6250,0.4882,-2.7377,-0.8583,4.4939,4.3720,0.1398,1.2681,3.3454,-0.7155,1.4403,0.9414,0.2835,3.2923,6.5391,0.5395,-3.3328,-5.9385,2.2353,5.0919
1019.5312,1.1181,-0.6704,0.9879,6.2267,5.6353,1.4100,2.0649,4.3090,1.7371,2.2027,4.5458,3.2301,6.0481,10.7093,2.5525,-0.1530,-2.7901,4.8990,7.1337
1023.4375,1.9844,1.5062,2.7383,7.1702,6.3244,2.3709,3.3938,5.0968,4.0285,2.5406,7.6338,6.3638,7.7836,13.1575,4.2783,2.1463,0.0553,6.7458,8.3182
1027.3438,3.2045,3.6377,4.4631,7.7235,6.7562,3.2921,5.1158,5.7697,5.9822,2.9368,9.8612,9.3431,8.8709,14.0578,5.5954,2.9472,2.2637,8.0137,9.0263
1031.2500,4.7281,5.5138,5.9493,8.0593,7.0456,4.3372,6.7377,6.1723,7.3693,3.8767,11.0462,11.5630,9.5250,13.7697,6.4896,2.3167,3.5577,8.9223,9.4075
1035.1562,6.3283,6.9541,6.8371,8.0908,7.1477,5.4169,7.6697,6.0286,8.0334,5.4970,11.2215,12.4734,9.6935,12.6326,7.0766,1.0354,3.8073,9.5416,9.3914
1039.0625,7.6509,7.8728,6.9081,7.6748,7.0507,6.2162,7.5530,5.1700,8.0095,7.4230,10.6413,11.9438,9.2371,10.9506,7.5419,0.2246,3.2041,9.8214,8.9057
1042.9688,8.3189,8.2623,6.2820,6.8383,6.9134,6.3683,6.4470,3.7148,7.5135,8.9239,9.6893,10.4024,8.1893,9.0841,8.0280,0.7560,2.3308,9.6953,8.0510
1046.8750,8.0680,8.1058,5.3505,5.8206,6.9981,5.6565,4.7669,2.0494,6.7770,9.3011,8.6886,8.6114,6.8404,7.4745,8.5277,2.7682,1.9683,9.1366,7.0607
1050.7812,6.8629,7.2997,4.4848,4.8923,7.4354,4.1246,3.0293,0.6173,5.8301,8.2586,7.6983,7.1968,5.5643,6.5059,8.8367,5.5727,2.6777,8.1170,6.0926
1054.6875,4.9286,5.6713,3.7482,4.1187,8.0251,2.0480,1.5838,-0.3297,4.4071,6.0145,6.4311,6.2441,4.5361,6.2804,8.5967,8.0086,4.4112,6.5373,5.0619
1058.5938,2.6624,3.1084,2.8466,3.2882,8.2712,-0.1929,0.4990,-0.8309,2.0792,3.0988,4.3801,5.2478,3.5813,6.4921,7.4330,9.0496,6.4420,4.2394,3.6903
1062.5000,0.4598,-0.2785,1.3758,2.0929,7.6731,-2.2482,-0.3517,-1.0985,-1.4385,0.0028,1.1195,3.4672,2.2906,6.5373,5.1498,8.3152,7.7158,1.1369,1.7503
1066.4062,-1.4525,-4.0868,-0.8107,0.4283,6.0791,-3.8762,-1.0966,-1.2840,-6.0003,-3.0560,-3.3815,0.4615,0.3176,5.8245,1.9089,6.2056,7.4279,-2.6163,-0.6960
1070.3125,-3.0763,-7.7163,-3.3919,-1.4298,3.8361,-4.9540,-1.7177,-1.3236,-10.9674,-6.0981,-8.6234,-3.5562,-2.3647,4.0904,-1.7153,3.6049,5.4648,-6.5631,-3.2652
1074.2188,-4.5597,-10.5950,-5.6968,-2.9349,1.5993,-5.4559,-2.0489,-0.9903,-15.4372,-9.1362,-13.7170,-7.7793,-5.4265,1.5180,-4.8827,1.3564,2.4282,-10.0700,-5.4651
1078.1250,-6.0309,-12.4044,-7.0781,-3.6012,-0.0808,-5.4381,-1.9053,-0.1142,-18.6369,-11.9456,-17.7303,-11.2352,-8.3655,-1.4051,-6.8217,-0.1612,-0.7495,-12.5842,-6.9841
1082.0312,-7.4668,-13.1725,-7.2863,-3.3159,-1.1079,-5.0347,-1.2390,1.2061,-20.2443,-14.0587,-20.0489,-13.2864,-10.7499,-4.1628,-7.2099,-1.1136,-3.3168,-13.8603,-7.8286
1085.9375,-8.6925,-13.1866,-6.5867,-2.3963,-1.8682,-4.4479,-0.2094,2.5779,-20.4433,-15.0114,-20.5542,-13.8802,-12.3388,-6.4122,-6.3872,-1.9324,-4.9990,-14.0059,-8.2098
1089.8438,-9.5147,-12.7933,-5.5517,-1.3480,-2.9082,-3.9143,0.8724,3.5119,-19.7023,-14.6670,-19.5478,-13.4141,-13.0289,-7.9833,-5.2343,-2.8929,-5.9225,-13.3299,-8.2837
1093.7500,-9.8903,-12.2168,-4.6878,-0.5097,-4.4843,-3.6507,1.6772,3.7089,-18.4408,-13.3694,-17.5106,-12.3575,-12.7294,-8.7291,-4.7314,-3.8439,-6.2962,-12.1156,-7.9645
1097.6562,-9.9961,-11.4975,-4.1599,0.1476,-6.3025,-3.7987,1.9855,3.2299,-16.8077,-11.7949,-14.8661,-10.9205,-11.3189,-8.4054,-5.4126,-4.2698,-6.1413,-10.4884,-6.9693
1101.5625,-10.1238,-10.5560,-3.7838,0.9207,-7.6381,-4.3871,1.7440,2.4277,-14.6957,-10.5788,-11.8804,-8.9937,-8.7480,-6.7352,-7.0265,-3.6381,-5.2827,-8.4563,-5.0589
1105.4688,-10.4467,-9.3082,-3.2532,2.0637,-7.7639,-5.3103,1.0473,1.6923,-11.9434,-9.9458,-8.7044,-6.3640,-5.2016,-3.6493,-8.6208,-1.7961,-3.5824,-6.0601,-2.2903
1109.3750,-10.8059,-7.7402,-2.4089,3.5180,-6.4081,-6.3226,0.0799,1.1931,-8.5498,-9.5731,-5.4638,-3.0083,-1.1611,0.4750,-9.0215,0.8490,-1.1897,-3.4826,0.9143
1113.2812,-10.6790,-5.9038,-1.3498,4.9002,-3.9454,-7.0611,-0.9410,0.8025,-4.7442,-8.7613,-2.2897,0.7684,2.7277,4.7981,-7.4440,3.4908,1.4222,-1.0117,3.9348
1117.1875,-9.3964,-3.8681,-0.3275,5.7580,-1.2099,-7.1249,-1.8088,0.2453,-0.8790,-6.8104,0.7322,4.4454,5.9247,8.3083,-3.8919,5.3333,3.6864,1.1180,6.2436
1121.0938,-6.5197,-1.6877,0.4695,5.9029,0.9449,-6.2216,-2.3604,-0.6405,2.7486,-3.3962,3.6231,7.5504,8.2321,10.2900,0.8625,6.0049,5.2686,2.8708,7.6305
1125.0000,-2.1771,0.5783,1.0645,5.5622,2.0629,-4.3349,-2.5064,-1.7265,5.9975,1.2342,6.4895,9.8728,9.8356,10.6911,5.6721,5.7408,6.2394,4.4124,8.2429
1128.9062,2.8545,2.8241,1.6674,5.2363,2.2472,-1.8142,-2.2450,-2.6274,8.8386,6.3207,9.4000,11.4869,11.1248,10.1499,9.5296,5.2373,6.9579,5.9533,8.4490
1132.8125,7.4065,4.8840,2.5053,5.3640,2.0084,0.7096,-1.6476,-2.9247,11.2234,10.8567,12.2414,12.5988,12.4135,9.6433,11.9174,5.2720,7.7562,7.5498,8.6344
1136.7188,10.4113,6.5788,3.6438,6.0382,1.9342,2.5862,-0.8172,-2.4292,12.9979,13.9460,14.6787,13.3573,13.7426,9.9523,12.8499,6.2986,8.6592,9.0175,9.0455
1140.6250,11.3782,7.7903,4.9224,6.9699,2.3944,3.4668,0.1518,-1.3055,13.9474,15.1129,16.2750,13.7672,14.8790,11.2588,12.6616,8.2139,9.3501,10.0274,9.7323
1144.5312,10.5877,8.4999,6.0364,7.7137,3.4389,3.4854,1.1810,0.0215,13.9429,14.4468,16.7056,13.7410,15.4889,13.1011,11.7230,10.3928,9.4032,10.3127,10.5764
1148.4375,8.8873,8.7479,6.6930,7.9833,4.9029,3.1637,2.1782,1.1214,13.0591,12.5222,15.9141,13.2102,15.3575,14.6991,10.2527,11.9503,8.6182,9.8301,11.3642
1152.3438,7.1955,8.5402,6.7366,7.8363,6.6057,3.0695,3.0036,1.8155,11.5491,10.1170,14.0987,12.1931,14.5164,15.4357,8.2898,12.1083,7.2223,8.7581,11.8759
1156.2500,6.0006,7.7833,6.1801,7.6135,8.4932,3.4368,3.4826,2.2838,9.6761,7.8541,11.5446,10.7797,13.2205,15.2040,5.7859,10.5219,5.8055,7.3468,11.9734
1160.1562,5.1468,6.3247,5.1537,7.6968,10.6333,4.0008,3.4822,2.9598,7.5277,5.9432,8.4463,9.0819,11.8112,14.4264,2.7341,7.4491,5.0333,5.7504,11.6585
1164.0625,4.0313,4.0927,3.8286,8.2610,13.0799,4.1729,3.0082,4.2721,4.9737,4.1691,4.8712,7.2189,10.5621,13.7620,-0.7300,3.6999,5.3115,3.9782,11.0698
1167.9688,2.0778,1.2416,2.3619,9.1723,15.7043,3.4475,2.2430,6.3728,1.8251,2.1343,0.8946,5.3499,9.5878,13.6983,-4.2882,0.3631,6.5863,1.9968,10.4008
1171.8750,-0.8220,-1.8237,0.8681,10.0675,18.1091,1.7626,1.4632,8.9941,-1.9090,-0.3963,-3.2190,3.6901,8.8443,14.2721,-7.4821,-1.6127,8.3660,-0.1184,9.7730
1175.7812,-4.1855,-4.6033,-0.5993,10.5245,19.6886,-0.4395,0.8643,11.5021,-5.8694,-3.2760,-6.9812,2.4383,8.1945,15.0663,-9.8476,-1.8338,9.9239,-2.1323,9.1381
1179.6875,-7.2088,-6.7641,-2.0667,10.2045,19.8160,-2.4990,0.3999,13.1221,-9.4471,-6.0360,-9.8766,1.6262,7.4893,15.4511,-11.1160,-0.6820,10.5741,-3.7668,8.2824
1183.5938,-9.2431,-8.3410,-3.6404,8.9085,18.0757,-3.9708,-0.2368,13.2304,-12.1051,-8.1801,-11.6848,1.0019,6.6202,14.9089,-11.3918,0.8008,9.9066,-4.9118,6.9438
1187.5000,-10.1534,-9.7206,-5.4578,6.5815,14.4390,-4.8965,-1.4384,11.5889,-13.7088,-9.5010,-12.6767,0.0866,5.5320,13.2610,-11.1805,1.3643,7.9141,-5.7547,4.9795
1191.4062,-10.3259,-11.3807,-7.5862,3.3341,9.3171,-5.7248,-3.3991,8.4342,-14.6174,-10.1819,-13.4896,-1.5628,4.2084,10.7054,-11.1844,0.1566,4.9864,-6.6971,2.4849
1195.3125,-10.3370,-13.5326,-9.9127,-0.4958,3.4819,-6.9439,-5.8969,4.3995,-15.4387,-10.6054,-14.7015,-4.0167,2.6645,7.7005,-11.9265,-2.8115,1.7847,-8.0762,-0.1998
1199.2188,-10.5338,-15.8971,-12.1002,-4.3002,-2.1114,-8.6940,-8.3061,0.3144,-16.5876,-11.0171,-16.3719,-6.7959,0.9699,4.7995,-13.4048,-6.6084,-0.9667,-9.8687,-2.5905
1203.1250,-10.8227,-17.7831,-13.6599,-7.2771,-6.5480,-10.6369,-9.8699,-3.0411,-17.9500,-11.3083,-17.8851,-9.0195,-0.7034,2.5288,-15.0131,-9.7965,-2.7050,-11.5954,-4.2096
1207.0312,-10.8026,-18.4505,-14.1322,-8.6707,-9.1728,-12.1640,-10.0953,-5.1537,-18.9047,-11.0947,-18.2563,-9.8387,-2.0477,1.3212,-15.8259,-11.1266,-3.1924,-12.5292,-4.7187
1210.9375,-10.1170,-17.5460,-13.2960,-8.1022,-9.7624,-12.7820,-9.0393,-5.9088,-18.7172,-10.0384,-16.7437,-8.9082,-2.6608,1.4591,-15.1110,-10.1513,-2.5565,-12.1037,-4.0030
1214.8438,-8.7490,-15.3394,-11.2975,-5.8148,-8.6014,-12.4004,-7.3031,-5.6087,-17.0555,-8.1649,-13.3752,-6.5927,-2.1847,2.9861,-12.7618,-7.4241,-1.2008,-10.2760,-2.2022
1218.7500,-7.0405,-12.5998,-8.6240,-2.6577,-6.4076,-11.3362,-5.7228,-4.8622,-14.2718,-5.9239,-9.0246,-3.7640,-0.5002,5.6114,-9.3701,-4.1794,0.3646,-7.6038,0.3181
1222.6562,-5.4432,-10.1822,-5.9245,0.2415,-4.0886,-10.0721,-4.9294,-4.3613,-11.2413,-3.9360,-4.9588,-1.3068,2.1354,8.6953,-5.8933,-1.6767,1.6871,-4.9704,3.0653
1226.5625,-4.2166,-8.5791,-3.7610,1.9831,-2.3798,-8.9701,-5.0346,-4.5989,-8.8483,-2.6138,-2.1355,0.3538,5.1167,11.3961,-3.1350,-0.5782,2.4712,-3.1162,5.5837
1230.4688,-3.3167,-7.7166,-2.4105,2.3175,-1.5117,-8.1471,-5.6235,-5.6335,-7.4608,-1.9396,-0.7009,1.4060,7.7138,12.9650,-1.3802,-0.6972,2.6016,-2.2606,7.6283
1234.3750,-2.5501,-7.1144,-1.8119,1.7399,-1.0877,-7.5602,-6.0507,-7.0219,-6.7543,-1.5596,-0.0095,2.4021,9.3900,13.0572,-0.3969,-1.2252,2.1208,-2.0480,9.2450
1238.2812,-1.8388,-6.2874,-1.6759,1.1867,-0.2887,-7.1789,-5.8514,-7.9940,-6.0075,-1.1021,0.8649,3.7904,10.0284,11.8802,0.2527,-1.2719,1.1958,-1.8482,10.6810
1242.1875,-1.3466,-5.1130,-1.6881,1.4907,1.6515,-7.0671,-5.0190,-7.8257,-4.6686,-0.4552,2.4813,5.5459,9.9219,10.0702,0.8630,-0.3853,0.0829,-1.2167,12.1476
1246.0938,-1.3378,-3.9180,-1.6872,2.9053,4.9389,-7.3044,-3.9843,-6.2362,-2.7962,0.2091,4.6756,7.1448,9.5265,8.3548,1.4587,1.2396,-0.9263,-0.2178,13.5782
1250.0000,-1.8802,-3.2374,-1.7148,4.9730,8.9799,-7.8315,-3.3215,-3.5850,-1.0632,0.6614,6.7108,7.8899,9.1432,7.1989,1.9402,2.9470,-1.5798,0.6006,14.5623
1253.9062,-2.6627,-3.4218,-1.9152,6.8164,12.5916,-8.3870,-3.3700,-0.7271,-0.3161,0.8677,7.7947,7.3730,8.7478,6.6488,2.3185,4.0485,-1.7353,0.5693,14.5376
1257.8125,-3.1299,-4.3711,-2.3588,7.6673,14.5793,-8.6231,-4.0092,1.4237,-0.9905,1.0258,7.5946,5.7769,8.0886,6.4577,2.7885,4.2191,-1.3816,-0.6326,13.1399
1261.7188,-2.8845,-5.5755,-2.9171,7.3087,14.3576,-8.3328,-4.7222,2.3818,-2.7872,1.3358,6.4070,3.8302,6.9712,6.3797,3.5523,3.6364,-0.5902,-2.7059,10.4827
1265.6250,-2.0634,-6.4330,-3.2909,6.1558,12.2399,-7.6114,-4.9080,2.3324,-4.8323,1.7020,4.9073,2.4411,5.5099,6.4024,4.5464,2.8180,0.5682,-4.8429,7.1578
1269.5312,-1.3692,-6.6187,-3.1916,4.9402,9.2106,-6.8116,-4.2476,1.9690,-6.2143,1.6584,3.6879,2.2231,4.1393,6.7405,5.3402,2.2932,2.0715,-6.1702,3.9413
1273.4375,-1.6716,-6.2564,-2.5603,4.2172,6.3177,-6.3125,-2.9034,2.0196,-6.5312,0.6475,2.9161,3.1734,3.3586,7.5955,5.3541,2.3225,3.9097,-6.2509,1.3927
1277.3438,-3.4190,-5.7848,-1.6664,4.0287,4.0718,-6.2681,-1.4297,2.7643,-6.0862,-1.5126,2.3257,4.6766,3.3886,8.8755,4.2728,2.8143,5.9819,-5.3338,-0.3819
1281.2500,-6.2718,-5.6257,-0.9902,3.9416,2.2335,-6.5258,-0.4499,3.8607,-5.6137,-4.3312,1.5019,5.8237,3.9933,10.1083,2.3382,3.4485,8.0194,-4.1866,-1.6544
1285.1562,-9.2349,-5.8915,-0.9366,3.4253,0.1138,-6.7706,-0.2930,4.5931,-5.7384,-6.7952,0.2302,5.8758,4.6084,10.6508,0.2653,3.8892,9.6204,-3.6127,-2.7682
1289.0625,-11.2222,-6.3317,-1.5561,2.2924,-2.8234,-6.7799,-0.8037,4.3815,-6.5393,-7.9295,-1.3335,4.6355,4.6958,10.0724,-1.1996,3.9451,10.4113,-3.9518,-3.8407
1292.9688,-11.6738,-6.5401,-2.4662,0.8922,-6.4653,-6.5893,-1.4357,3.2068,-7.5029,-7.4093,-2.7610,2.5364,4.0802,8.4530,-1.7648,3.6017,10.2448,-4.8784,-4.6907
1296.8750,-10.8139,-6.2640,-3.0478,-0.0798,-9.9807,-6.4447,-1.5649,1.6679,-7.8780,-5.7927,-3.6133,0.4119,3.0405,6.3860,-1.7531,2.9593,9.3009,-5.6214,-5.0147
1300.7812,-9.3930,-5.5910,-2.8092,-0.0209,-12.2112,-6.5849,-0.8368,0.6357,-7.1751,-4.1864,-3.6731,-0.9296,2.1119,4.6775,-1.7989,2.1637,8.0109,-5.4587,-4.6368
1304.6875,-8.1307,-4.8827,-1.6876,1.2020,-12.2555,-7.0264,0.6555,0.7376,-5.4799,-3.5511,-3.0104,-1.0932,1.7565,3.9446,-2.2997,1.3927,6.8412,-4.1667,-3.6184
1308.5938,-7.2642,-4.5076,-0.0860,3.1934,-9.8860,-7.5159,2.4533,2.0074,-3.3901,-4.1074,-1.8819,-0.2353,2.1366,4.3737,-3.0427,0.8817,6.0724,-2.1406,-2.1458
1312.5000,-6.5051,-4.5609,1.3851,5.3172,-5.5777,-7.6792,4.0098,3.9112,-1.6425,-5.2395,-0.5686,1.1134,3.1228,5.7664,-3.3098,0.9092,5.7075,-0.1181,-0.3162
1316.4062,-5.3810,-4.7655,2.2935,7.1092,-0.2051,-7.2505,4.9838,5.6938,-0.6864,-5.9433,0.7308,2.4198,4.4780,7.7834,-2.4079,1.6837,5.5498,1.2991,1.9659
1320.3125,-3.6665,-4.6209,2.6413,8.5177,5.3481,-6.2170,5.3782,6.7942,-0.4669,-5.4980,1.9125,3.4689,6.0392,10.1642,-0.2420,3.1658,5.3765,2.0106,4.8671
1324.2188,-1.5731,-3.7049,2.8246,9.8138,10.4228,-4.7975,5.4579,7.0633,-0.5242,-3.9058,2.9197,4.4222,7.7496,12.7494,2.4937,4.9490,5.0797,2.4404,8.3646
1328.1250,0.4066,-1.9403,3.3311,11.2645,14.5918,-3.3006,5.5262,6.6887,-0.3091,-1.8320,3.7031,5.5846,9.5450,15.3290,4.6646,6.3350,4.6932,3.2230,12.0706
1332.0312,1.8337,0.3325,4.3896,12.8355,17.5545,-1.9894,5.7171,5.9486,0.4955,-0.1380,4.2201,7.0570,11.2327,17.5038,5.3497,6.6334,4.3225,4.7757,15.3186
1335.9375,2.5532,2.5117,5.8131,14.1555,19.0894,-1.0354,5.9369,5.0089,1.8331,0.6403,4.4610,8.5463,12.5064,18.7537,4.3612,5.5534,4.0606,7.0377,17.4890
1339.8438,2.6670,4.0217,7.1334,14.7688,19.1399,-0.5506,5.9731,3.9075,3.3620,0.5213,4.4704,9.5001,13.1191,18.7311,2.2986,3.4522,3.9627,9.5254,18.3586
1343.7500,2.3373,4.5752,7.9245,14.4807,17.9484,-0.6121,5.6784,2.6929,4.6830,-0.0801,4.3513,9.4965,13.0879,17.5841,0.1463,1.2471,4.0781,11.6374,18.2236
1347.6562,1.6440,4.2818,8.0852,13.5330,16.0848,-1.2185,5.0943,1.5629,5.5609,-0.7097,4.2584,8.6140,12.7559,16.0332,-1.2725,-0.0091,4.4788,12.9888,17.7072
1351.5625,0.6427,3.5708,7.8931,12.4777,14.2787,-2.2083,4.4339,0.8578,6.0190,-1.1342,4.3875,7.4969,12.6366,15.0729,-1.6239,0.3244,5.2273,13.5704,17.3856
1355.4688,-0.4512,2.9855,7.8132,11.8448,13.1179,-3.2369,3.9493,0.8997,6.2843,-1.3350,4.9480,7.0291,13.1245,15.4308,-1.0235,2.1278,6.2960,13.6680,17.4892
1359.3750,-1.1772,2.9565,8.2090,11.8483,12.7905,-3.8848,3.7871,1.7992,6.6396,-1.3071,6.0983,7.8149,14.2655,17.1223,0.2354,4.5918,7.5114,13.6499,17.8678
1363.2812,-1.0095,3.6528,9.1580,12.3337,13.0326,-3.8626,3.9353,3.3812,7.2772,-0.8866,7.8531,9.8143,15.7409,19.4029,1.9159,6.6803,8.6009,13.7895,18.2070
1367.1875,0.2740,4.9601,10.4770,12.9807,13.3143,-3.1823,4.2871,5.2869,8.2321,0.2123,10.0199,12.3912,17.0776,21.1738,3.8655,7.7113,9.3377,14.2262,18.3124
1371.0938,2.3166,6.5767,11.9035,13.5886,13.1481,-2.1598,4.7606,7.1742,9.4170,2.1654,12.2334,14.7424,17.9431,21.5944,5.8897,7.7044,9.6971,15.0373,18.2534
1375.0000,4.2715,8.1692,13.2787,14.2186,12.3435,-1.2267,5.3722,8.8665,10.7204,4.7988,14.1122,16.4098,18.3366,20.5207,7.6617,7.2906,9.8999,16.3052,18.2874
1378.9062,5.2689,9.5099,14.5956,15.0948,11.0822,-0.6701,6.2040,10.3552,12.0961,7.5509,15.4636,17.5140,18.5654,18.5116,8.8052,7.2555,10.2900,18.0875,18.6489
1382.8125,4.9670,10.5306,15.8982,16.3557,9.8114,-0.4791,7.2903,11.6774,13.5731,9.6925,16.3996,18.5526,19.0330,16.4411,9.1021,8.0187,11.1037,20.2971,19.3702
1386.7188,3.7870,11.2735,17.1313,17.8581,9.0411,-0.4073,8.5110,12.7882,15.1684,10.6706,17.2543,19.9178,19.9734,15.0039,8.6394,9.3779,12.2770,22.5942,20.2497
1390.6250,2.6314,11.7755,18.0728,19.1903,9.1553,-0.2020,9.5806,13.5387,16.7514,10.3523,18.3207,21.4926,21.2818,14.4401,7.7477,10.6650,13.4231,24.4025,20.9594
1394.5312,2.2605,11.9638,18.4035,19.8857,10.2978,0.1679,10.1530,13.7758,17.9621,9.0255,19.5669,22.6218,22.5231,14.6128,6.7621,11.1889,14.0107,25.0803,21.1958
1398.4375,2.7654,11.6370,17.8661,19.6815,12.3445,0.4526,9.9829,13.4791,18.2690,7.1868,20.5373,22.4872,23.1057,15.3044,5.7998,10.6622,13.6447,24.1687,20.7766
1402.3438,3.5161,10.5559,16.4000,18.6411,14.9428,0.2752,9.0445,12.8158,17.1790,5.2813,20.5423,20.6254,22.5325,16.4568,4.7393,9.3388,12.2858,21.5820,19.6550
1406.2500,3.6203,8.5982,14.1687,17.0673,17.6041,-0.6092,7.5387,12.0605,14.5025,3.5552,19.0477,17.2384,20.6192,18.1573,3.4154,7.7915,10.2803,17.6421,17.8882
1410.1562,2.5550,5.8852,11.4800,15.2865,19.8318,-2.1251,5.7935,11.4304,10.5211,2.0694,16.0224,13.0988,17.5835,20.3986,1.8463,6.4995,8.1805,12.9487,15.6096
1414.0625,0.5123,2.7966,8.6687,13.4648,21.2513,-3.8764,4.1221,10.9477,5.9396,0.7914,12.0117,9.1315,13.9651,22.8325,0.2797,5.5317,6.4564,8.1688,13.0163
1417.9688,-1.7723,-0.1462,6.0169,11.5728,21.6880,-5.3240,2.7227,10.4236,1.6219,-0.3419,7.8755,5.9607,10.4028,24.7507,-1.0016,4.5331,5.2584,3.8494,10.3492
1421.8750,-3.5481,-2.4701,3.7352,9.4972,21.1506,-6.0209,1.6585,9.5712,-1.7508,-1.4317,4.3537,3.6963,7.3688,25.3541,-1.9435,3.0187,4.3604,0.3222,7.8428
1425.7812,-4.5183,-3.9159,1.9672,7.1910,19.7298,-5.7752,0.9026,8.1706,-3.9158,-2.6330,1.7371,2.0477,4.9907,24.1482,-2.8008,0.7748,3.3181,-2.2996,5.6562
1429.6875,-4.9053,-4.4989,0.7746,4.7405,17.4801,-4.6786,0.3936,6.1830,-5.0345,-4.0921,-0.1568,0.6275,3.0601,21.2039,-3.9164,-1.8982,1.7574,-4.0714,3.8223
1433.5938,-5.1061,-4.4486,0.0926,2.3085,14.3749,-3.0326,0.0625,3.7561,-5.4956,-5.8000,-1.7144,-0.7847,1.2232,17.1059,-5.3530,-4.2677,-0.3629,-5.1581,2.2483
1437.5000,-5.2588,-4.0777,-0.2973,0.0078,10.3751,-1.2381,-0.1758,1.1335,-5.6610,-7.4657,-3.1774,-2.1685,-0.7624,12.6314,-6.6937,-5.5430,-2.6699,-5.7825,0.7635
1441.4062,-5.1009,-3.6555,-0.7225,-2.1878,5.5695,0.3014,-0.4321,-1.4634,-5.7186,-8.5551,-4.4678,-3.3680,-2.8707,8.3724,-7.2384,-5.3297,-4.5403,-6.1794,-0.8145
1445.3125,-4.2464,-3.3399,-1.4906,-4.4208,0.2804,1.2607,-0.8233,-3.9072,-5.7065,-8.5503,-5.2989,-4.2439,-4.8507,4.5425,-6.5194,-3.8990,-5.4367,-6.5464,-2.6216
1449.2188,-2.6530,-3.1756,-2.7328,-6.8233,-4.9523,1.4680,-1.4162,-6.1554,-5.6408,-7.3119,-5.4680,-4.7488,-6.4307,1.0608,-4.7744,-2.1038,-5.2351,-6.9964,-4.7003
1453.1250,-0.8764,-3.1304,-4.3147,-9.3657,-9.5157,0.9620,-2.1708,-8.1749,-5.6110,-5.3088,-5.0956,-4.8985,-7.5227,-2.1863,-2.9880,-0.9677,-4.3385,-7.5261,-6.9552
1457.0312,0.1422,-3.1381,-5.8764,-11.7752,-12.9123,-0.0079,-2.9263,-9.8537,-5.7529,-3.5126,-4.6223,-4.7118,-8.2628,-5.1094,-2.3933,-1.1546,-3.4839,-8.0182,-9.1218
1460.9375,-0.3543,-3.1307,-6.9923,-13.5826,-14.8799,-1.0687,-3.4541,-10.9561,-6.1263,-2.9525,-4.5574,-4.1983,-8.8482,-7.3684,-3.7196,-2.6035,-3.3245,-8.2814,-10.7852
1464.8438,-2.4101,-3.0602,-7.3623,-14.2829,-15.3855,-1.8731,-3.5576,-11.1591,-6.6145,-4.1540,-5.1553,-3.4108,-9.2972,-8.5246,-6.6880,-4.5356,-4.0258,-8.1216,-11.4859
1468.7500,-5.2568,-2.9131,-6.9293,-13.5400,-14.5245,-2.2328,-3.1634,-10.1679,-6.9496,-6.7957,-6.2457,-2.5004,-9.3353,-8.2690,-10.1170,-5.8452,-5.1285,-7.4226,-10.9006
1472.6562,-7.7308,-2.7105,-5.8652,-11.3418,-12.4164,-2.1544,-2.3480,-7.8628,-6.8660,-9.8116,-7.3285,-1.6958,-8.5284,-6.5745,-12.5964,-5.6786,-5.7862,-6.2050,-9.0188
1476.5625,-8.9257,-2.4863,-4.4474,-8.0313,-9.1739,-1.7565,-1.2829,-4.4061,-6.2735,-11.9075,-7.8643,-1.1946,-6.5963,-3.6925,-13.2968,-3.8940,-5.2582,-4.6339,-6.2062
1480.4688,-8.6435,-2.2477,-2.9090,-4.1934,-4.9508,-1.1330,-0.1296,-0.2425,-5.3142,-12.2101,-7.5646,-1.0333,-3.6898,-0.0358,-12.3958,-1.1499,-3.3661,-2.9565,-3.0916
1484.3750,-7.3676,-1.9405,-1.3488,-0.4427,-0.0121,-0.2713,1.0488,4.0225,-4.2562,-10.6823,-6.5045,-1.0411,-0.4180,3.9537,-10.8640,1.4290,-0.6342,-1.3916,-0.3198
1488.2812,-5.8278,-1.4508,0.2581,2.7877,5.2417,0.9103,2.3008,7.8173,-3.2986,-8.0821,-5.0198,-0.9278,2.4200,7.8743,-9.7889,2.8262,1.9765,-0.0224,1.7026
1492.1875,-4.5037,-0.6558,1.9742,5.3541,10.3209,2.4301,3.7118,10.7727,-2.4386,-5.5144,-3.4863,-0.4636,4.2396,11.3709,-9.7005,2.6326,3.5806,1.2348,2.9316
1496.0938,-3.4130,0.4945,3.7981,7.3511,14.7334,4.1238,5.2848,12.7777,-1.5056,-3.8517,-2.1406,0.3653,4.9495,14.1361,-10.3231,1.2043,3.8177,2.5509,3.6254
1500.0000,-2.2881,1.9085,5.6082,8.9395,18.0636,5.6387,6.8539,13.9011,-0.3405,-3.3513,-1.0383,1.3331,4.9352,15.9523,-10.8582,-0.5877,2.9818,4.0252,4.1544
1503.9062,-0.9474,3.3388,7.1737,10.1615,20.0173,6.5669,8.0935,14.2424,1.0108,-3.6499,-0.1358,2.1050,4.7748,16.7663,-10.5506,-1.8448,1.7826,5.5458,4.8004
1507.8125,0.4535,4.4387,8.2235,10.8660,20.4417,6.6364,8.6329,13.8195,2.2410,-4.0794,0.5996,2.4444,4.8872,16.7262,-9.1400,-2.0811,0.9155,6.7756,5.6424
1511.7188,1.4827,4.8687,8.5338,10.7923,19.3368,5.8417,8.2209,12.5682,2.9112,-4.0808,1.1384,2.3643,5.3322,16.1225,-6.9378,-1.3817,0.7094,7.3027,6.5521
1515.6250,1.7413,4.4119,8.0033,9.7544,16.8559,4.4365,6.8522,10.4449,2.6924,-3.4744,1.4202,2.1236,5.8532,15.2313,-4.5519,-0.2394,1.0364,6.8826,7.2585
1519.5312,1.1703,3.0585,6.6923,7.7960,13.2743,2.8056,4.7835,7.5454,1.5650,-2.4726,1.4202,2.0643,6.0842,14.1460,-2.5057,0.7835,1.4822,5.6234,7.4335
1523.4375,0.1228,1.0339,4.8173,5.2063,8.9154,1.3053,2.4308,4.1435,-0.1437,-1.4858,1.1871,2.3836,5.7625,12.7078,-1.0142,1.3471,1.6266,3.9832,6.7841
1527.3438,-0.8468,-1.2432,2.7035,2.3895,4.0706,0.1627,0.2023,0.6169,-1.8977,-0.8748,0.8265,2.9827,4.8262,10.6016,-0.0164,1.4310,1.2549,2.5617,5.1580
1531.2500,-1.3184,-3.2697,0.7035,-0.3143,-1.0276,-0.5398,-1.6438,-2.6824,-3.1806,-0.7908,0.4480,3.4908,3.3931,7.5826,0.6321,1.2360,0.4104,1.8003,2.6536
1535.1562,-1.2385,-4.6182,-0.8978,-2.7262,-6.1428,-0.8306,-3.0479,-5.5201,-3.6915,-1.1565,0.1220,3.4620,1.6904,3.7038,0.9901,1.0067,-0.6837,1.7660,-0.3266
1539.0625,-0.9096,-5.0990,-1.9624,-4.7846,-10.9222,-0.8203,-4.0958,-7.7759,-3.4293,-1.7507,-0.1276,2.6381,-0.0027,-0.5948,1.0087,0.9009,-1.7450,2.1466,-3.1492
1542.9688,-0.7723,-4.8549,-2.5324,-6.4208,-14.8418,-0.6941,-4.9127,-9.3743,-2.6533,-2.3223,-0.3040,1.1228,-1.3975,-4.6116,0.6407,0.9575,-2.5281,2.4451,-5.1678
1546.8750,-1.1358,-4.3189,-2.7964,-7.4838,-17.3046,-0.6929,-5.5732,-10.2348,-1.7615,-2.6767,-0.4145,-0.6409,-2.2584,-7.6682,-0.0294,1.1334,-2.8808,2.2488,-6.0013
1550.7812,-2.0136,-4.0218,-2.9976,-7.7996,-17.8809,-1.0422,-6.0744,-10.3065,-1.1385,-2.7192,-0.4635,-2.0831,-2.4904,-9.4033,-0.7465,1.3462,-2.7765,1.4176,-5.7152
1554.6875,-3.1318,-4.3223,-3.3192,-7.3320,-16.5542,-1.8367,-6.3707,-9.6659,-1.0179,-2.4649,-0.4572,-2.7859,-2.1961,-9.9058,-1.1681,1.4973,-2.3234,0.1104,-4.7767
1558.5938,-4.0723,-5.1995,-3.8006,-6.3036,-13.7899,-2.9480,-6.4302,-8.5837,-1.3957,-2.0219,-0.4051,-2.6639,-1.6261,-9.6018,-1.0164,1.4922,-1.7283,-1.3222,-3.7837
1562.5000,-4.4638,-6.2443,-4.3293,-5.1470,-10.3346,-4.0401,-6.2762,-7.4693,-2.0336,-1.5488,-0.3144,-1.9450,-1.0176,-8.9522,-0.2061,1.2854,-1.1991,-2.4899,-3.1161
1566.4062,-4.1456,-6.8845,-4.7184,-4.2799,-6.8450,-4.7228,-5.9940,-6.6946,-2.5699,-1.1909,-0.1845,-0.9817,-0.4164,-8.1361,1.1168,0.9356,-0.8206,-3.0861,-2.7276
1570.3125,-3.2537,-6.7374,-4.8362,-3.8530,-3.5867,-4.7764,-5.7164,-6.4047,-2.7108,-1.0211,-0.0190,-0.0349,0.3696,-6.9189,2.6394,0.6217,-0.4820,-2.9688,-2.2179
1574.2188,-2.2032,-5.8852,-4.7188,-3.6693,-0.4268,-4.3149,-5.6046,-6.4604,-2.4147,-1.0175,0.1480,0.8160,1.6115,-4.8091,4.0123,0.5728,0.0715,-2.2194,-1.1573
1578.1250,-1.5557,-4.8903,-4.6009,-3.3700,2.8513,-3.7735,-5.8244,-6.5729,-1.9596,-1.0993,0.2302,1.5852,3.3726,-1.4364,4.9819,0.9307,1.0671,-1.1779,0.5312
1582.0312,-1.7938,-4.5147,-4.8335,-2.7800,6.1233,-3.7048,-6.5071,-6.5517,-1.8297,-1.1977,0.0971,2.2017,5.2972,3.0603,5.4652,1.6263,2.5044,-0.4083,2.3724
1585.9375,-3.0854,-5.2893,-5.7217,-2.1664,8.7157,-4.4882,-7.6861,-6.4862,-2.4632,-1.3124,-0.3809,2.4050,6.6568,7.8847,5.5307,2.3642,4.0620,-0.5390,3.4625
1589.8438,-5.1559,-7.1854,-7.3609,-2.1850,9.6209,-6.1119,-9.2317,-6.7147,-3.9989,-1.5055,-1.2717,1.8273,6.6745,11.8051,5.2991,2.7438,5.1882,-1.9965,2.8777
1593.7500,-7.3656,-9.5918,-9.5603,-3.4981,8.0573,-8.1539,-10.8325,-7.5772,-6.1761,-1.8333,-2.5400,0.2279,4.9480,13.6688,4.8261,2.4503,5.3436,-4.7526,0.1614
1597.6562,-8.9843,-11.6212,-11.9002,-6.2850,4.0329,-9.9728,-12.0650,-9.1135,-8.4569,-2.2679,-4.0514,-2.2837,1.7089,12.9455,4.0502,1.3996,4.2641,-8.2514,-4.3641
1601.5625,-9.5344,-12.5739,-13.9010,-9.9746,-1.4733,-11.0058,-12.5502,-10.9238,-10.3026,-2.6797,-5.6160,-5.2111,-2.2504,9.9931,2.8576,-0.2498,2.0980,-11.6125,-9.6343
1605.4688,-9.0140,-12.2911,-15.2190,-13.4158,-6.8826,-11.0215,-12.1303,-12.3109,-11.4372,-2.9116,-7.0490,-7.8720,-5.9392,5.8819,1.2293,-2.2047,-0.6539,-14.0369,-14.2308
1609.3750,-7.8728,-11.2037,-15.7726,-15.4282,-10.7584,-10.2058,-10.9707,-12.6410,-11.9436,-2.9050,-8.2170,-9.7170,-8.6017,1.8605,-0.6371,-4.1772,-3.3544,-15.1939,-16.9527
1613.2812,-6.7583,-10.0660,-15.7386,-15.4246,-12.4933,-9.0532,-9.5169,-11.7079,-12.1491,-2.7875,-9.0585,-10.5618,-9.9770,-1.2381,-2.3469,-5.9605,-5.4824,-15.3504,-17.3054
1617.1875,-6.1893,-9.5490,-15.4365,-13.7350,-12.5367,-8.1292,-8.3146,-9.8791,-12.3908,-2.8430,-9.5836,-10.5908,-10.2792,-3.3109,-3.4944,-7.4128,-6.7962,-15.1536,-15.6760
1621.0938,-6.3457,-9.9287,-15.1718,-11.4345,-12.0363,-7.8218,-7.7822,-7.9356,-12.8186,-3.3594,-9.8598,-10.1604,-9.9694,-4.8509,-3.9126,-8.4052,-7.3468,-15.2039,-13.1076
1625.0000,-7.0722,-11.0282,-15.1261,-9.7766,-12.1229,-8.1929,-8.0534,-6.7020,-13.3502,-4.4366,-9.9905,-9.5674,-9.4934,-6.4687,-3.8055,-8.8125,-7.3599,-15.6925,-10.7858
1628.9062,-8.0460,-12.4021,-15.3374,-9.5576,-13.2716,-8.9863,-8.9640,-6.6756,-13.7819,-5.8761,-10.0820,-8.9544,-9.1275,-8.3908,-3.6423,-8.5791,-7.0666,-16.3389,-9.4964
1632.8125,-8.9691,-13.6185,-15.7543,-10.7650,-15.0962,-9.7790,-10.1711,-7.8401,-13.9599,-7.2353,-10.2075,-8.3930,-8.9605,-10.2616,-3.8524,-7.8099,-6.5807,-16.6559,-9.3316
1636.7188,-9.6608,-14.4578,-16.3012,-12.6731,-16.6536,-10.1958,-11.3164,-9.7242,-13.8928,-8.0303,-10.3838,-8.0272,-8.9494,-11.3805,-4.5205,-6.7996,-5.8864,-16.3459,-9.7814
1640.6250,-10.0336,-14.9321,-16.9012,-14.2824,-17.0251,-10.0831,-12.1351,-11.6255,-13.7404,-7.9812,-10.5768,-8.1047,-8.9764,-11.2107,-5.3032,-5.9476,-4.9413,-15.5486,-10.1300
1644.5312,-10.0278,-15.1562,-17.4465,-14.8256,-15.8071,-9.5564,-12.4668,-12.8657,-13.7055,-7.1609,-10.7384,-8.8261,-8.8900,-9.8172,-5.6477,-5.5919,-3.8279,-14.7654,-9.8992
1648.4375,-9.5950,-15.1861,-17.7594,-14.0666,-13.2488,-8.8989,-12.2015,-12.9721,-13.9040,-5.9655,-10.8460,-10.1129,-8.5530,-7.9307,-5.1769,-5.8572,-2.8438,-14.5162,-9.0745
1652.3438,-8.7508,-14.9451,-17.6049,-12.2854,-10.0182,-8.3694,-11.2421,-11.7636,-14.2919,-4.9209,-10.9131,-11.5010,-7.9150,-6.5748,-3.9762,-6.6112,-2.4388,-14.9702,-8.0044
1656.2500,-7.6348,-14.2815,-16.7819,-10.0369,-6.8060,-8.0343,-9.5396,-9.3699,-14.6777,-4.4341,-10.9551,-12.3026,-7.0740,-6.4814,-2.5764,-7.5523,-2.9947,-15.8051,-7.0890
1660.1562,-6.4934,-13.1083,-15.2572,-7.8713,-4.0311,-7.7285,-7.1915,-6.2136,-14.8046,-4.6181,-10.9391,-11.9867,-6.2678,-7.6551,-1.6407,-8.3719,-4.5587,-16.3954,-6.5094
1664.0625,-5.5673,-11.5275,-13.2566,-6.1713,-1.7995,-7.1786,-4.5212,-2.9422,-14.4581,-5.2732,-10.7624,-10.5452,-5.7691,-9.3544,-1.5705,-8.8962,-6.7093,-16.2057,-6.1874
1667.9688,-4.9536,-9.8511,-11.2304,-5.1303,-0.0664,-6.2151,-2.0483,-0.2798,-13.5556,-6.0183,-10.2950,-8.5796,-5.7346,-10.4887,-2.2928,-9.1335,-8.6823,-15.1303,-5.9718
1671.8750,-4.5488,-8.4934,-9.6743,-4.7918,1.1749,-4.9362,-0.3176,1.2033,-12.1844,-6.4852,-9.4654,-7.0065,-6.1007,-10.1763,-3.3495,-9.2160,-9.7266,-13.5582,-5.8548
1675.7812,-4.1284,-7.7822,-8.8754,-5.0519,1.8452,-3.7044,0.3501,1.3326,-10.5690,-6.4696,-8.3276,-6.5249,-6.5942,-8.1308,-4.1907,-9.2763,-9.4869,-12.1176,-5.9983
1679.6875,-3.5126,-7.7802,-8.7209,-5.6095,1.8987,-2.9577,0.0509,0.4611,-8.9724,-5.9684,-7.0476,-7.1622,-6.8443,-4.6820,-4.4483,-9.3280,-8.1611,-11.2597,-6.5187
1683.5938,-2.6988,-8.2125,-8.6941,-5.9457,1.4888,-2.9420,-0.6915,-0.6155,-7.5697,-5.1088,-5.8058,-8.1831,-6.5139,-0.4907,-4.0234,-9.2115,-6.3112,-10.9412,-7.2033
1687.5000,-1.8610,-8.5492,-8.0952,-5.4380,1.0059,-3.5318,-1.1371,-0.9751,-6.3586,-4.0352,-4.6786,-8.4441,-5.3802,3.7977,-2.9968,-8.6419,-4.4475,-10.6092,-7.4328
1691.4062,-1.2175,-8.2255,-6.3993,-3.6330,0.8996,-4.2651,-0.6770,0.0029,-5.1696,-2.8387,-3.5914,-7.0078,-3.3548,7.7297,-1.5107,-7.3555,-2.6861,-9.5148,-6.4581
1695.3125,-0.8647,-6.9112,-3.5696,-0.5624,1.3730,-4.5836,0.8571,2.3025,-3.7889,-1.5711,-2.3884,-3.6859,-0.4981,10.9933,0.2458,-5.2967,-0.7437,-7.1832,-3.9021
1699.2188,-0.7026,-4.7023,-0.1461,3.1113,2.1607,-4.1420,3.0911,5.2208,-2.1306,-0.3175,-0.9783,0.7902,2.9382,13.2868,1.9586,-2.7445,1.7130,-3.7696,-0.1410
1703.1250,-0.5053,-2.1298,2.9638,6.2797,2.5943,-3.0006,5.2832,7.6645,-0.3515,0.7446,0.5474,5.0658,6.4754,14.3171,3.1619,-0.2760,4.6343,-0.0789,3.7503
1707.0312,-0.0837,0.0434,4.9063,7.8871,1.9861,-1.5868,6.6943,8.6778,1.1834,1.3731,1.9171,7.7817,9.4741,14.0022,3.3921,1.4642,7.4337,2.7914,6.5313
1710.9375,0.5763,1.1597,5.3004,7.5063,0.1379,-0.4504,6.9614,7.9403,2.0804,1.3799,2.8073,8.2052,11.3538,12.7391,2.4866,2.0929,9.2917,4.0100,7.5053
1714.8438,1.2951,0.9790,4.4279,5.6522,-2.3505,0.0370,6.2737,5.9693,2.1398,0.7737,3.0127,6.5622,11.8895,11.4638,0.8149,1.7239,9.7299,3.4661,6.9487
1718.7500,1.8068,-0.1961,3.0852,3.6043,-4.2224,-0.1366,5.2570,3.8952,1.4778,-0.1814,2.5438,3.9068,11.3889,11.3248,-0.7931,0.9270,9.0246,1.8521,5.9597
1722.6562,1.9138,-1.6579,2.1720,2.7798,-4.1508,-0.6533,4.6359,2.9075,0.4624,-1.0589,1.5935,1.5943,10.5770,13.0590,-1.4671,0.3859,8.0944,0.3069,5.7985
1726.5625,1.5913,-2.6319,2.2412,3.9873,-1.4695,-1.0678,4.8648,3.6617,-0.4988,-1.4852,0.4126,0.6184,10.1877,16.4299,-0.8414,0.4406,7.8713,-0.1947,7.1294
1730.4688,0.9859,-2.6451,3.2522,6.9895,3.3843,-1.0512,5.9314,5.9690,-1.1820,-1.3533,-0.8082,1.1454,10.4901,20.1333,0.6420,0.8216,8.5766,0.6377,9.6392
1734.3750,0.3279,-1.7354,4.6496,10.6440,9.0136,-0.5380,7.4216,8.9396,-1.6385,-0.8959,-1.9713,2.4806,11.0713,22.3394,1.9168,0.7963,9.4443,2.2825,12.2577
1738.2812,-0.1831,-0.4024,5.6976,13.5400,13.7473,0.2810,8.7779,11.4867,-2.1038,-0.5531,-3.0270,3.4831,11.0645,21.6367,1.8921,-0.3232,9.1576,3.7416,13.8151
1742.1875,-0.4566,0.6610,5.8625,14.7498,16.4791,1.0815,9.5755,12.8860,-2.8001,-0.7068,-3.9169,3.2055,9.7162,17.8500,0.1032,-2.6313,6.7552,4.1304,13.7091
1746.0938,-0.5293,0.9065,5.0321,14.2402,17.1595,1.5543,9.6548,13.0576,-3.7701,-1.4422,-4.5744,1.4157,6.9376,12.2266,-2.9994,-5.4343,2.3995,3.1656,12.1798
1750.0000,-0.5262,0.1667,3.4832,12.7235,16.6485,1.5034,9.0717,12.4291,-4.8436,-2.4893,-4.9742,-1.2730,3.4686,6.8429,-6.3010,-7.5900,-2.5391,1.2714,10.0755
1753.9062,-0.5841,-1.3008,1.6745,11.0938,16.0401,0.8782,7.9557,11.5149,-5.7334,-3.3779,-5.1636,-3.7153,0.5327,3.5567,-8.6399,-8.1934,-6.1726,-0.7212,8.3163
1757.8125,-0.7630,-2.9483,0.0280,9.8585,15.9153,-0.2322,6.4214,10.5327,-6.1719,-3.7009,-5.2115,-4.7975,-0.8049,3.1092,-9.3890,-7.1492,-7.1221,-2.0517,7.4170
1761.7188,-0.9805,-4.1614,-1.1715,8.9457,16.0152,-1.6109,4.6040,9.3362,-5.9961,-3.3140,-5.0959,-3.9393,-0.1713,4.8815,-8.6650,-5.2238,-5.2232,-2.3727,7.3362
1765.6250,-1.0128,-4.4699,-1.7522,7.9765,15.5371,-2.9344,2.7625,7.6929,-5.1555,-2.3577,-4.6335,-1.2929,1.9965,7.3934,-7.0995,-3.5173,-1.4930,-1.7813,7.6619
1769.5312,-0.5903,-3.6915,-1.6049,6.7433,13.8227,-3.8322,1.3122,5.6702,-3.6935,-1.1159,-3.5564,2.4001,4.7675,9.1798,-5.3995,-2.7113,2.5402,-0.6032,7.9390
1773.4375,0.4325,-1.9896,-0.7039,5.4953,10.9356,-4.0066,0.6866,3.7895,-1.7597,0.1592,-1.7340,6.1513,7.2087,9.4879,-4.0090,-2.6220,5.6445,0.8511,7.9003
1777.3438,1.9229,0.1579,0.7961,4.7944,7.7083,-3.3777,1.0754,2.7796,0.3484,1.3285,0.6054,9.0695,8.7382,8.4230,-3.0457,-2.3808,7.3166,2.3741,7.4960
1781.2500,3.4472,2.0893,2.4933,5.0519,5.2175,-2.1728,2.2173,3.0651,2.1902,2.3219,2.8516,10.5889,9.1951,6.5818,-2.4492,-1.1139,7.6790,3.7920,6.7901
1785.1562,4.4447,3.1864,3.8264,6.1200,4.0573,-0.8784,3.4361,4.3624,3.3073,3.0551,4.2838,10.5806,8.7209,4.5469,-2.1372,1.3731,7.0973,4.8929,5.8741
1789.0625,4.5426,3.1433,4.3384,7.2897,3.9312,-0.0352,3.9640,5.7199,3.4590,3.4279,4.5167,9.3906,7.6455,2.6445,-2.0211,4.4121,5.9170,5.5066,4.8867
1792.9688,3.8363,2.1604,3.9806,7.7428,3.8644,0.0368,3.3888,6.0420,2.8386,3.4383,3.8375,7.7963,6.4769,1.0862,-1.9063,6.9314,4.5109,5.7140,4.0953
1796.8750,2.9388,0.9298,3.2424,7.1503,2.9010,-0.5628,1.9416,4.7889,2.0966,3.3211,3.1652,6.8167,5.9017,0.2702,-1.4360,8.2270,3.4725,5.9902,3.9091
1800.7812,2.7166,0.3635,2.9666,5.9746,0.8124,-1.3236,0.4166,2.3844,2.0874,3.5529,3.5884,7.3404,6.6319,0.8704,-0.2091,8.4797,3.6108,7.0715,4.7376
1804.6875,3.8249,1.1612,3.9104,5.2253,-1.6673,-1.5611,-0.2572,0.0391,3.4367,4.6431,5.7257,9.6832,9.0511,3.5235,1.9567,8.6267,5.5711,9.5334,6.7402
1808.5938,6.3039,3.4415,6.3010,5.8151,-3.2382,-0.7710,0.4616,-0.9224,6.1717,6.8002,9.3063,13.3226,12.8467,8.2824,4.8023,9.6649,9.2756,13.3304,9.6383
1812.5000,9.4931,6.6595,9.6680,7.9589,-2.7970,1.0913,2.4361,0.1922,9.6588,9.6950,13.2586,17.0429,16.9353,14.2605,7.6398,11.8746,13.6358,17.6514,12.7581
1816.4062,12.3424,9.8854,13.0790,11.0366,-0.0685,3.5624,4.9687,3.0896,12.9128,12.5251,16.2806,19.5063,19.8612,19.8182,9.6452,14.5167,16.8828,21.2737,15.3352
1820.3125,13.9513,12.2950,15.6408,14.0118,4.2706,5.8836,7.2349,6.7274,15.1100,14.3971,17.5488,19.9613,20.5213,23.2829,10.2744,16.2305,17.4382,23.2438,16.9198
1824.2188,14.0224,13.5789,16.9555,16.0988,9.0021,7.3559,8.7368,9.9404,15.9930,14.8145,17.1278,18.6490,18.7930,23.7972,9.5447,15.8730,14.8200,23.4439,17.6248
1828.1250,12.9566,14.0181,17.2482,17.1991,12.9946,7.6423,9.4849,12.0291,15.9170,13.9579,15.8319,16.6157,15.6404,21.7598,8.0037,13.2476,9.9880,22.6346,18.0303
1832.0312,11.5465,14.1854,17.1033,17.8095,15.6490,6.8625,9.8223,12.9511,15.5198,12.5560,14.6499,15.0230,12.5890,18.5662,6.4077,9.2559,4.8717,21.9156,18.7798
1835.9375,10.4720,14.4846,17.0066,18.4989,16.9438,5.4549,10.0557,13.0741,15.2466,11.4139,14.1204,14.4100,10.8826,15.8123,5.3165,5.4016,1.3579,21.9587,20.1155
1839.8438,9.9217,14.8476,17.0135,19.3677,17.1673,3.9138,10.1833,12.7493,15.0515,10.9034,14.0615,14.4111,10.8554,14.4647,4.8436,2.9874,0.3689,22.5498,21.6659
1843.7500,9.5676,14.7990,16.7568,19.9017,16.6045,2.5671,9.9110,12.0491,14.4769,10.7550,13.8044,14.1267,11.9045,14.4960,4.6919,2.5060,1.5720,22.7679,22.6445
1847.6562,8.8823,13.8364,15.7664,19.3328,15.4076,1.5079,8.9273,10.8295,13.0436,10.2931,12.7377,12.8682,13.0259,15.1387,4.4152,3.5483,3.8135,21.6739,22.3447
1851.5625,7.5623,11.8450,13.8535,17.2332,13.6780,0.6794,7.2105,9.0037,10.6722,8.9522,10.7736,10.7206,13.4971,15.4913,3.7229,5.1953,5.8953,19.0141,20.6034
1855.4688,5.7696,9.2408,11.2842,13.9012,11.6093,0.0151,5.1299,6.7575,7.8305,6.7194,8.4199,8.4960,13.2219,15.0192,2.6441,6.5743,7.1472,15.4300,17.9125
1859.3750,4.0373,6.7299,8.6299,10.2552,9.5226,-0.4817,3.2638,4.5174,5.2938,4.1947,6.4293,7.1086,12.5397,13.6460,1.4770,7.2282,7.4823,12.0302,15.0938
1863.2812,2.9209,4.8545,6.4178,7.3136,7.7536,-0.7651,2.0663,2.7060,3.6738,2.2277,5.2874,6.8433,11.7243,11.4899,0.5814,7.1375,7.0499,9.6392,12.7586
1867.1875,2.6428,3.6539,4.8382,5.6310,6.4982,-0.8390,1.6203,1.5006,3.0389,1.3753,4.9024,7.0857,10.6219,8.5792,0.1550,6.4947,5.8789,8.2738,10.9357
1871.0938,2.9686,2.6928,3.7092,5.0743,5.7611,-0.8218,1.6373,0.7954,2.8889,1.5481,4.7047,6.7384,8.7467,4.8562,0.1233,5.4637,3.8476,7.2141,9.1401
1875.0000,3.3838,1.4380,2.6988,5.0571,5.4485,-0.9184,1.6795,0.3832,2.5073,2.0787,4.0769,5.0374,5.7728,0.4976,0.1948,4.1069,0.9869,5.6027,6.8413
1878.9062,3.4325,-0.2926,1.6189,5.0227,5.5108,-1.3170,1.4294,0.1831,1.4541,2.1593,2.8062,2.1694,2.0275,-3.7381,0.0401,2.4929,-2.1843,3.1199,3.9898
1882.8125,2.9764,-2.1494,0.5634,4.8060,5.9919,-2.0873,0.8200,0.3025,-0.1410,1.3504,1.2390,-0.7719,-1.4391,-6.5074,-0.5161,0.8456,-4.6478,0.2408,1.1997
1886.7188,2.2052,-3.4897,-0.2063,4.6296,6.9297,-3.1599,-0.0338,0.8743,-1.6930,-0.1742,0.0246,-2.4765,-3.3301,-6.3698,-1.4022,-0.4282,-5.3105,-2.1046,-0.5809
1890.6250,1.4104,-3.8792,-0.5312,4.7811,8.1940,-4.3994,-1.0071,1.8141,-2.6156,-1.7925,-0.3832,-2.2780,-2.8480,-2.5459,-2.3607,-0.8983,-3.6312,-3.2147,-0.7109
1894.5312,0.7068,-3.4983,-0.5628,5.2548,9.4228,-5.7076,-2.0802,2.7280,-2.8025,-2.8790,-0.1256,-0.5913,-0.2230,4.5128,-3.1253,-0.3776,-0.0406,-3.1527,0.6327
1898.4375,-0.0821,-3.1369,-0.7352,5.6476,10.1463,-7.0652,-3.3025,3.0892,-2.7951,-3.2215,0.0518,1.3512,3.3303,13.1275,-3.5977,0.8750,4.1489,-2.7608,2.4494
1902.3438,-1.2774,-3.7396,-1.5009,5.3974,10.0376,-8.4696,-4.6497,2.5796,-3.4844,-3.1355,-0.7748,2.2591,6.2147,21.0145,-3.8963,2.1713,7.3197,-3.1455,3.4552
1906.2500,-3.0328,-5.7722,-2.9986,4.1895,9.1100,-9.8122,-5.9078,1.3417,-5.5090,-3.2128,-3.0823,1.5183,7.2487,26.2037,-4.2270,2.6699,8.2978,-4.9762,2.8364
1910.1562,-5.0812,-8.8213,-4.8801,2.2388,7.7123,-10.8025,-6.7033,-0.0634,-8.7235,-3.8830,-6.4596,-0.5458,6.2089,27.7740,-4.6499,1.8038,6.8697,-8.0435,0.7414
1914.0625,-6.7400,-11.7028,-6.4239,0.2475,6.3162,-11.0278,-6.6805,-0.9862,-12.0952,-5.0816,-9.6489,-2.9629,3.8520,26.0629,-4.9119,-0.3544,3.8245,-11.3258,-1.7914
1917.9688,-7.2118,-13.0414,-6.8829,-0.9395,5.2411,-10.1480,-5.7170,-1.0850,-14.1377,-6.2366,-11.0961,-4.6899,1.4729,22.3250,-4.5001,-3.0018,0.5480,-13.4934,-3.4067
1921.8750,-6.0197,-11.9893,-5.8714,-0.7681,4.4992,-8.1236,-4.0321,-0.5166,-13.6611,-6.5794,-9.7364,-5.0683,0.2839,18.0860,-2.9313,-4.8876,-1.5925,-13.5380,-3.1418
1925.7812,-3.3184,-8.6722,-3.5759,0.7497,3.8388,-5.3302,-2.1137,0.1968,-10.4160,-5.5846,-5.5837,-3.9496,0.9257,14.5256,-0.1181,-4.8717,-1.7834,-11.1990,-0.8661
1929.6875,0.1181,-4.1176,-0.6768,3.0478,2.9216,-2.4648,-0.5055,0.5129,-5.2596,-3.2736,0.2128,-1.5522,3.2828,12.1216,3.4407,-2.4990,-0.0231,-7.0180,2.7423
1933.5938,3.2414,0.2716,1.9661,5.2655,1.4944,-0.2688,0.4243,0.1791,0.2534,-0.2137,5.8976,1.7337,6.6000,10.6153,6.8203,1.7194,2.9512,-2.0646,6.5829
1937.5000,5.2178,3.3874,3.6970,6.6003,-0.5313,0.7951,0.6148,-0.6874,4.6226,2.7707,9.9448,5.4351,9.7981,9.2353,9.1287,6.4968,5.9980,2.4911,9.6111
1941.4062,5.7910,4.8642,4.3226,6.5946,-3.0710,0.7400,0.2916,-1.7561,7.0700,4.9937,11.7464,8.9983,11.8651,7.0770,9.9995,10.3619,8.0296,5.7700,11.1696
1945.3125,5.3235,5.0952,4.1303,5.2664,-5.8518,0.0194,-0.1702,-2.7184,7.7664,6.1854,11.7796,11.8288,12.2104,3.5260,9.7914,12.3416,8.4202,7.4080,11.0939
1949.2188,4.5113,4.8599,3.6740,3.0678,-8.3695,-0.7240,-0.4225,-3.4211,7.5258,6.5151,11.1746,13.4454,10.8715,-1.4017,9.3400,12.3593,7.2087,7.5652,9.6482
1953.1250,3.9512,4.8077,3.4480,0.7065,-9.9002,-0.9903,-0.2845,-3.8372,7.1872,6.3785,10.9520,13.6737,8.4744,-6.9472,9.3943,11.1304,5.0076,6.7417,7.3813
1957.0312,3.8096,5.0910,3.6169,-1.1138,-9.6852,-0.6666,0.1984,-3.9592,7.0723,6.0999,11.3856,12.7209,5.9299,-11.8230,10.0972,9.6380,2.6627,5.4864,4.9438
1960.9375,3.7713,5.3272,3.9375,-1.9504,-7.3025,-0.0631,0.7865,-3.7476,6.8380,5.7328,11.8676,11.0428,3.9822,-14.7101,10.8595,8.5335,0.8403,4.1359,2.8799
1964.8438,3.2725,4.8807,3.9143,-1.7827,-3.0451,0.2664,1.1515,-3.1891,5.7868,5.0666,11.3479,9.0799,2.8514,-14.8218,10.7270,7.8378,-0.2247,2.7155,1.4392
1968.7500,1.8685,3.2833,3.1052,-0.9926,1.9764,-0.1816,1.0211,-2.3937,3.4225,3.8183,9.0724,7.0616,2.1993,-12.2351,9.0170,7.1131,-0.6789,1.0603,0.5100
1972.6562,-0.4800,0.5589,1.4142,-0.1575,6.1957,-1.5996,0.3048,-1.6104,-0.1062,1.8770,5.1643,5.0242,1.4656,-7.7915,5.8140,5.9438,-0.7569,-0.9206,-0.2457
1976.5625,-3.3525,-2.7262,-0.8006,0.2524,8.3168,-3.7671,-0.8541,-1.1085,-3.9554,-0.5508,0.6845,3.0064,0.3688,-2.6238,2.0019,4.3581,-0.4789,-3.0262,-1.0970
1980.4688,-6.0631,-5.7094,-2.8782,0.1096,8.0174,-6.1478,-2.1349,-0.9987,-6.9715,-2.9890,-2.8798,1.2249,-0.7848,2.3996,-1.1956,2.8716,0.4063,-4.7701,-1.9731
1984.3750,-7.9857,-7.6423,-4.1958,-0.3383,6.1837,-8.1303,-3.1817,-1.1362,-8.2968,-4.9042,-4.4056,0.0369,-1.2379,6.9663,-2.8791,2.1153,2.1580,-5.6476,-2.4342
1988.2812,-8.8368,-8.2474,-4.5091,-0.6587,4.4698,-9.2932,-3.7603,-1.1955,-7.8460,-5.9644,-3.7466,-0.3196,-0.3170,11.1925,-2.9348,2.3206,4.6450,-5.5027,-1.9536
1992.1875,-8.7771,-7.8289,-4.0869,-0.5221,4.3942,-9.5689,-3.8442,-0.8724,-6.3724,-6.1950,-1.8118,-0.0084,1.9909,15.2158,-2.0272,3.0536,7.1472,-4.7256,-0.3439
1996.0938,-8.2942,-7.0787,-3.5478,0.0988,6.4926,-9.2343,-3.5850,-0.0652,-5.0748,-5.9459,-0.0642,0.3634,4.8499,18.8416,-1.1586,3.4164,8.5877,-4.0971,1.9860
2000.0000,-7.9343,-6.6828,-3.4840,0.9395,10.0294,-8.7423,-3.1962,1.0891,-4.9486,-5.6848,0.2739,0.0488,6.9648,21.5180,-1.0870,2.6077,8.1260,-4.3284,4.1698
2003.9062,-8.0202,-6.9451,-4.0978,1.6413,13.4271,-8.4819,-2.8316,2.3310,-6.2366,-5.7310,-1.1308,-1.3499,7.3325,22.6463,-1.9533,0.4637,5.7421,-5.5768,5.3665
2007.8125,-8.4899,-7.6371,-5.0778,1.9799,15.1240,-8.5888,-2.5358,3.4272,-8.2828,-6.0758,-3.5729,-3.5366,5.8619,21.9754,-3.3069,-2.3936,2.3851,-7.2680,5.2641
2011.7188,-8.9334,-8.1537,-5.7976,1.9631,14.3284,-8.8977,-2.2863,4.2194,-9.8793,-6.3891,-5.7205,-5.5926,3.4269,19.7644,-4.4605,-4.9156,-0.4870,-8.3793,4.2407
2015.6250,-8.8101,-7.8837,-5.7201,1.7404,11.2460,-9.0551,-2.0760,4.5502,-9.9254,-6.2165,-6.3499,-6.4644,1.2941,16.5864,-4.9235,-6.2589,-1.7394,-8.0377,3.0564
2019.5312,-7.7460,-6.5862,-4.7531,1.4169,6.7348,-8.7296,-1.9593,4.1712,-8.0443,-5.2642,-5.0008,-5.5915,0.3027,12.9371,-4.6538,-6.2747,-1.2405,-6.0665,2.2939
2023.4375,-5.7682,-4.5614,-3.3312,0.9333,1.7132,-7.8084,-2.0215,2.7829,-4.8234,-3.6218,-2.2152,-3.2881,0.3519,8.9646,-4.0161,-5.5422,0.0660,-3.1364,1.9615
2027.3438,-3.3549,-2.5298,-2.1676,0.1193,-3.2433,-6.4770,-2.2961,0.2503,-1.5460,-1.7963,0.7432,-0.6389,0.5433,4.5421,-3.5239,-4.9468,0.7698,-0.4158,1.5516
2031.2500,-1.2663,-1.2875,-1.8283,-1.1118,-7.8775,-5.1436,-2.6981,-3.1287,0.4398,-0.5232,2.5159,1.0412,-0.1322,-0.3745,-3.5531,-5.1056,-0.1026,1.0660,0.5067
2035.1562,-0.2232,-1.3254,-2.3900,-2.5741,-11.9075,-4.2454,-3.0312,-6.5192,0.3748,-0.4364,2.2857,0.8790,-2.0482,-5.3930,-4.1915,-6.0235,-2.4795,0.9609,-1.2648
2039.0625,-0.5868,-2.5995,-3.3865,-3.7797,-14.7110,-4.0369,-3.0672,-8.7575,-1.5804,-1.7563,0.1090,-1.1166,-4.6520,-9.6339,-5.2749,-7.1847,-5.3229,-0.2614,-3.2170
2042.9688,-2.1923,-4.5539,-4.0701,-4.1143,-15.3451,-4.4646,-2.6459,-8.8213,-4.4938,-4.1555,-3.1911,-4.0643,-6.8172,-12.0541,-6.5384,-7.9687,-7.3199,-1.6367,-4.4716
2046.8750,-4.4212,-6.3685,-3.8230,-3.1254,-12.9543,-5.1904,-1.7336,-6.3219,-7.1739,-6.8767,-6.4681,-6.6396,-7.5697,-11.9392,-7.7570,-8.0718,-7.7002,-2.2669,-4.3770
2050.7812,-6.4727,-7.3071,-2.4790,-0.7567,-7.3232,-5.7520,-0.4199,-1.7393,-8.7430,-9.0523,-8.7728,-7.6885,-6.6768,-9.2374,-8.7911,-7.6360,-6.6255,-1.7826,-2.9196
2054.6875,-7.6986,-7.0126,-0.3829,2.5980,0.7809,-5.7823,1.1223,3.7406,-8.9594,-10.0671,-9.6843,-6.7264,-4.7073,-4.5411,-9.5403,-7.0212,-4.9194,-0.4608,-0.7075
2058.5938,-7.8384,-5.6290,1.8178,6.2375,9.7140,-5.1814,2.6712,8.6968,-8.1525,-9.7885,-9.3218,-4.1028,-2.5630,1.2173,-9.8771,-6.4257,-3.3807,1.0273,1.4309
2062.5000,-7.0569,-3.7074,3.5107,9.4071,17.4807,-4.1553,3.9744,12.0074,-6.8718,-8.5570,-8.0978,-0.7821,-0.8487,7.1045,-9.6452,-5.6608,-2.2086,2.0550,2.9327
2066.4062,-5.7920,-1.9394,4.3954,11.5425,22.4278,-3.1000,4.7773,13.1974,-5.5049,-6.9634,-6.4065,2.1382,0.4690,12.3406,-8.7430,-4.2675,-0.9629,2.4073,3.7456
2070.3125,-4.5169,-0.8307,4.5767,12.4222,23.7873,-2.3845,4.8965,12.4885,-4.0974,-5.5479,-4.4416,3.9423,1.9036,16.2601,-7.2394,-1.8981,0.9332,2.3869,4.2241
2074.2188,-3.5434,-0.4616,4.4622,12.2047,21.8578,-2.1418,4.3314,10.6021,-2.4489,-4.5824,-2.2225,4.6056,3.9520,18.2595,-5.4240,1.3134,3.5558,2.6316,4.8243
2078.1250,-2.9477,-0.4553,4.5528,11.3633,17.7945,-2.1784,3.3471,8.4539,-0.3695,-4.0334,0.2435,4.7572,6.6491,17.9172,-3.7244,4.6778,6.2190,3.7610,5.8453
2082.0312,-2.6216,-0.1842,5.2331,10.5326,13.1354,-2.0619,2.4434,6.8606,2.1045,-3.6869,2.8160,5.3163,9.4925,15.2827,-2.5128,7.2551,7.8237,6.0380,7.3620
2085.9375,-2.3899,0.8745,6.6388,10.2860,9.2545,-1.3544,2.1737,6.3171,4.6773,-3.3303,5.2138,6.9805,11.7645,11.1060,-1.9090,8.3602,7.5904,9.2037,9.3015
2089.8438,-2.1211,2.8161,8.6191,10.8925,6.9282,0.1221,2.8762,6.8648,6.9416,-2.8746,7.1446,9.8245,12.9868,6.7339,-1.7107,7.9464,5.6523,12.5488,11.5109
2093.7500,-1.7866,5.2012,10.7825,12.1469,6.1412,2.1327,4.4602,8.0744,8.5787,-2.3631,8.4656,13.2162,13.1720,3.5960,-1.5121,6.6198,3.0651,15.1797,13.7287
2097.6562,-1.4647,7.2381,12.6020,13.3861,6.1868,4.0835,6.3845,9.1821,9.4701,-1.8981,9.2444,16.0936,12.7137,2.5146,-0.9527,5.2721,1.1993,16.3560,15.5206
2101.5625,-1.3035,8.1694,13.5630,13.7376,6.0225,5.2743,7.8676,9.3786,9.6675,-1.5571,9.6751,17.4649,12.0363,3.2625,0.0605,4.5683,0.9128,15.7586,16.3209
2105.4688,-1.4633,7.6516,13.3229,12.5264,4.7488,5.2306,8.2382,8.1653,9.2840,-1.3568,9.9207,16.8779,11.2927,4.6862,1.3049,4.6049,2.0622,13.5862,15.6495
2109.3750,-2.0479,5.9202,11.8389,9.6441,2.0183,3.9449,7.2463,5.6156,8.4204,-1.2684,10.0111,14.6320,10.3389,5.3690,2.4059,4.9420,3.6713,10.4571,13.4064
2113.2812,-3.0411,3.6562,9.4091,5.6713,-1.7997,1.9005,5.1745,2.3856,7.1879,-1.2496,9.8802,11.6387,8.9843,4.4530,3.1014,4.9647,4.6268,7.1740,10.0359
2117.1875,-4.2730,1.6445,6.5945,1.6555,-5.7696,-0.1391,2.6982,-0.5585,5.7905,-1.2604,9.5049,9.0112,7.3010,2.1236,3.4167,4.3296,4.4216,4.4549,6.4052
2121.0938,-5.4441,0.4274,4.0372,-1.3563,-8.7733,-1.4641,0.5785,-2.3735,4.5614,-1.2625,9.0188,7.5806,5.7319,-0.5266,3.6160,3.2159,3.4582,2.7288,3.4357
2125.0000,-6.2147,0.1329,2.2421,-2.7843,-9.9393,-1.7055,-0.6515,-2.7045,3.8743,-1.2233,8.6831,7.5546,4.8899,-2.1436,3.9562,2.2349,2.7437,2.0499,1.7016
2128.9062,-6.3306,0.5302,1.4116,-2.7248,-8.9231,-0.9365,-0.8630,-1.7957,3.9526,-1.1349,8.7115,8.4602,5.1749,-1.8515,4.4252,2.0715,3.2179,2.1334,1.2367
2132.8125,-5.7247,1.2251,1.3990,-1.8002,-5.9491,0.4376,-0.3150,-0.3098,4.6940,-1.0292,9.0727,9.3885,6.4713,0.3539,4.6746,3.0829,5.1689,2.4798,1.6444
2136.7188,-4.5428,1.8454,1.7906,-0.7601,-1.6569,1.9153,0.5104,1.0149,5.6454,-0.9549,9.4349,9.4323,8.1416,3.7358,4.2291,5.0810,8.0871,2.5460,2.3986
2140.6250,-3.0785,2.1215,2.0718,-0.0883,3.1238,3.1133,1.1179,1.6708,6.1742,-0.9151,9.3220,8.1215,9.3348,7.3074,2.8490,7.4040,10.9862,1.9212,3.1156
2144.5312,-1.6612,1.8683,1.8029,0.1541,7.5613,3.8526,1.1625,1.5078,5.7555,-0.8156,8.3957,5.6503,9.4232,10.3252,0.7857,9.2091,12.9310,0.4613,3.6350
2148.4375,-0.5626,0.9520,0.7437,0.1883,10.9418,4.1023,0.5191,0.6706,4.2121,-0.4948,6.6687,2.7707,8.3068,12.4958,-1.2802,9.8211,13.4304,-1.6641,3.9131
2152.3438,0.0319,-0.6895,-1.1041,0.2130,12.7567,3.8595,-0.7317,-0.5581,1.7718,0.1396,4.4941,0.3889,6.4125,13.8537,-2.6204,8.9732,12.5167,-4.0450,3.8660
2156.2500,-0.0031,-2.9782,-3.5289,0.1671,12.7906,3.0759,-2.3670,-1.8940,-1.0817,0.9412,2.3317,-0.9311,4.4105,14.4983,-2.9259,6.8637,10.5625,-6.2104,3.3102
2160.1562,-0.7624,-5.6496,-6.1903,-0.2723,11.1923,1.6888,-4.0978,-3.1134,-3.8605,1.4644,0.4605,-1.2737,2.8337,14.4325,-2.5388,4.0460,8.0331,-7.8397,2.0464
2164.0625,-2.2863,-8.2990,-8.7169,-1.4630,8.4625,-0.2688,-5.6375,-4.0612,-6.2716,1.1206,-1.1515,-1.2899,1.8235,13.6112,-2.2623,1.2250,5.3347,-8.8980,0.0111
2167.9688,-4.4847,-10.5202,-10.7942,-3.5019,5.3116,-2.5726,-6.7530,-4.6498,-8.2593,-0.4829,-2.7257,-1.7585,1.1347,12.1143,-2.8442,-0.9651,2.7850,-9.6122,-2.6220
2171.8750,-7.0654,-12.0598,-12.2199,-6.0685,2.4173,-4.8136,-7.2991,-4.8667,-9.8954,-3.2139,-4.3989,-3.0556,0.3658,10.2534,-4.4628,-2.1489,0.6282,-10.2934,-5.4568
2175.7812,-9.5475,-12.8901,-12.9171,-8.5151,0.1942,-6.5296,-7.2318,-4.7729,-11.2226,-6.3401,-6.0217,-4.8815,-0.7428,8.4866,-6.5683,-2.3210,-0.9835,-11.1048,-7.9895
2179.6875,-11.3987,-13.1579,-12.9099,-10.1552,-1.3053,-7.3971,-6.6031,-4.4698,-12.1703,-8.8243,-7.2056,-6.4437,-2.1258,7.1782,-8.2093,-1.8496,-2.0376,-11.9221,-9.7536
2183.5938,-12.2484,-13.0523,-12.2850,-10.5819,-2.3120,-7.3714,-5.5408,-4.0488,-12.5990,-9.8665,-7.6076,-6.9915,-3.4276,6.3715,-8.6511,-1.3465,-2.6702,-12.3805,-10.4408
2187.5000,-12.0628,-12.6878,-11.1685,-9.8446,-3.1509,-6.6931,-4.2200,-3.5685,-12.4313,-9.3717,-7.2453,-6.3474,-4.2231,5.7452,-7.8830,-1.4277,-3.0932,-12.0931,-9.9789
2191.4062,-11.1692,-12.0746,-9.7341,-8.4081,-4.0730,-5.7530,-2.8349,-3.0929,-11.7671,-8.0280,-6.5917,-5.0677,-4.2846,4.7961,-6.6654,-2.4404,-3.4729,-10.9113,-8.5667
2195.3125,-10.0937,-11.1818,-8.2234,-6.9398,-5.2054,-4.8971,-1.5722,-2.7663,-10.8894,-6.9055,-6.3413,-4.1085,-3.7344,3.1382,-6.0575,-4.2786,-3.8535,-9.0673,-6.6502
2199.2188,-9.2900,-10.0257,-6.9372,-6.0410,-6.6091,-4.2813,-0.5874,-2.8410,-10.1428,-6.7979,-6.9756,-4.2175,-2.9875,0.7320,-6.7142,-6.3909,-4.1853,-7.1019,-4.8119
2203.1250,-8.9077,-8.7099,-6.1567,-6.0319,-8.3471,-3.8516,0.0205,-3.5895,-9.7496,-7.7181,-8.4137,-5.4597,-2.5171,-2.0856,-8.4003,-8.0028,-4.4237,-5.6059,-3.5735
2207.0312,-8.7325,-7.3882,-6.0037,-6.8465,-10.4584,-3.4450,0.2331,-5.1064,-9.6709,-8.8786,-9.9957,-7.1884,-2.5780,-4.7693,-10.0548,-8.4660,-4.5929,-4.9120,-3.1742
2210.9375,-8.3362,-6.1852,-6.3112,-8.0446,-12.8253,-2.9369,0.1277,-7.1180,-9.6021,-9.1845,-10.8314,-8.4588,-3.0556,-6.8154,-10.3939,-7.5693,-4.7421,-4.9045,-3.4401
2214.8438,-7.3509,-5.1378,-6.6056,-8.9316,-15.0373,-2.3422,-0.1292,-8.9537,-9.1184,-7.9347,-10.3060,-8.5822,-3.5388,-7.9522,-8.7007,-5.6512,-4.8268,-5.0554,-3.8442
2218.7500,-5.7121,-4.2027,-6.2687,-8.7770,-16.3994,-1.8146,-0.3225,-9.7629,-7.9084,-5.2938,-8.4369,-7.4576,-3.5831,-8.1902,-5.3256,-3.4493,-4.6462,-4.6838,-3.7620
2222.6562,-3.7333,-3.3207,-4.8421,-7.0988,-16.1582,-1.5587,-0.2621,-8.9088,-5.9820,-2.2460,-5.8759,-5.5108,-3.0125,-7.7479,-1.5868,-1.7549,-3.9397,-3.3208,-2.8080
2226.5625,-1.9712,-2.4912,-2.3300,-3.9265,-13.8685,-1.7151,0.1307,-6.3347,-3.7442,-0.0717,-3.5826,-3.3681,-2.0702,-6.9220,0.8827,-1.0484,-2.6161,-1.0071,-1.0767
2230.4688,-0.9546,-1.8035,0.6862,0.0890,-9.7027,-2.2841,0.7623,-2.6801,-1.8837,0.3226,-2.3862,-1.5468,-1.3114,-5.9697,0.9729,-1.3040,-0.9408,1.6327,0.8565
2234.3750,-0.9217,-1.4071,3.2299,3.8331,-4.4983,-3.1187,1.3733,0.9518,-1.1087,-1.1676,-2.6825,-0.3617,-1.2781,-5.0265,-1.3473,-2.0630,0.5052,3.6052,2.1901
2238.2812,-1.6983,-1.4380,4.3546,6.1482,0.5247,-3.9779,1.6280,3.4734,-1.8374,-3.8658,-4.3855,-0.0156,-2.1402,-4.0569,-5.0461,-2.7314,1.1361,3.9823,2.2906
2242.1875,-2.7723,-1.9429,3.6031,6.3559,4.2561,-4.6058,1.2637,4.2930,-3.9856,-6.7028,-7.0735,-0.6779,-3.5190,-2.8411,-8.5742,-2.9337,0.7630,2.3663,1.0289
2246.0938,-3.5229,-2.8419,1.2462,4.6136,6.1446,-4.8084,0.2304,3.5418,-6.9565,-8.7039,-10.1771,-2.3952,-4.6196,-1.0240,-10.6156,-2.7217,-0.2019,-0.8479,-1.1109
2250.0000,-3.4900,-3.9468,-1.8408,1.8850,6.3712,-4.5134,-1.2522,1.9401,-9.8528,-9.3139,-13.0938,-4.8844,-4.6184,1.7463,-10.6421,-2.5198,-0.9254,-4.5738,-3.2134
2253.9062,-2.5597,-5.0254,-4.5988,-0.4997,5.6636,-3.8029,-2.7626,0.3975,-11.8196,-8.4627,-15.2346,-7.4255,-3.0992,5.6109,-9.0193,-2.8385,-0.6457,-7.4804,-4.3236
2257.8125,-0.9863,-5.8773,-6.2624,-1.4754,4.8745,-2.9018,-3.8450,-0.4226,-12.3602,-6.4484,-16.0833,-9.0471,-0.2885,10.3087,-6.6773,-3.9224,0.8344,-8.5733,-3.8618
2261.7188,0.7511,-6.3826,-6.6238,-0.7210,4.5616,-2.1059,-4.1920,-0.3454,-11.4738,-3.7738,-15.3241,-8.9679,3.0498,15.1246,-4.5802,-5.5410,2.9901,-7.6078,-1.8584
2265.6250,2.1850,-6.4953,-5.9618,1.2775,4.7884,-1.6560,-3.7510,0.3594,-9.5583,-1.0148,-12.9956,-7.0254,6.0046,19.0573,-3.2836,-7.0456,4.8756,-5.1095,1.1113
2269.5312,3.0752,-6.1927,-4.7298,3.5927,5.2127,-1.6051,-2.7092,1.2270,-7.1514,1.2955,-9.5484,-3.7809,7.9710,21.1748,-2.7712,-7.6622,5.6925,-2.0094,4.2515
2273.4375,3.4972,-5.4276,-3.2485,5.3987,5.3610,-1.7623,-1.3846,1.8696,-4.6688,2.8070,-5.7144,-0.2009,8.9052,21.0028,-2.5866,-6.8561,5.2492,0.8696,6.9407
2277.3438,3.7594,-4.1413,-1.6185,6.3454,4.8966,-1.7729,-0.1042,2.1080,-2.2941,3.4932,-2.2235,2.8770,9.2422,18.7473,-2.1380,-4.5730,4.0148,3.1471,8.9613
2281.2500,4.1903,-2.3586,0.1158,6.5565,3.7354,-1.3247,0.8636,1.9194,-0.0675,3.6942,0.4774,5.1271,9.5390,15.2206,-1.0106,-1.2479,2.7557,4.8512,10.4285
2285.1562,4.9092,-0.3119,1.7191,6.3152,1.9910,-0.3764,1.3104,1.2961,1.9176,3.9672,2.3254,6.7190,10.0755,11.4954,0.8399,2.3863,2.0289,6.0939,11.4884
2289.0625,5.7162,1.5119,2.6823,5.7195,-0.1454,0.7412,1.0750,0.1607,3.3771,4.7660,3.5044,7.9571,10.6640,8.4600,3.0609,5.5611,1.8858,6.7449,12.0236
2292.9688,6.1772,2.4934,2.4248,4.5911,-2.4673,1.4439,0.0760,-1.5694,3.8876,6.1150,4.1795,8.8876,10.7842,6.4980,5.0328,7.6743,1.9646,6.3941,11.6195
2296.8750,5.8704,2.1591,0.6787,2.7077,-4.7109,1.1987,-1.6019,-3.8069,3.1161,7.4983,4.3058,9.1856,9.9459,5.4407,6.1011,8.3818,1.8554,4.6607,9.8585
2300.7812,4.6555,0.4725,-2.2195,0.1621,-6.4865,-0.1538,-3.6331,-6.1529,1.0797,8.0799,3.6573,8.3953,8.0374,4.7824,5.8310,7.6136,1.4332,1.6182,6.7466
2304.6875,2.7946,-2.0661,-5.3783,-2.4673,-7.3080,-2.2650,-5.4832,-7.9383,-1.7653,7.1601,2.0509,6.3104,5.4262,4.0130,4.1916,5.5693,0.9046,-2.0232,2.9352
2308.5938,0.8286,-4.6318,-7.7731,-4.3269,-6.7795,-4.4377,-6.5911,-8.4879,-4.7027,4.6019,-0.4163,3.1855,2.7466,2.8828,1.5846,2.6971,0.5489,-5.1907,-0.4946
2312.5000,-0.7393,-6.5271,-8.8096,-4.7830,-4.8598,-6.0066,-6.6385,-7.4858,-7.1280,0.9524,-3.3124,-0.3801,0.5178,1.4837,-1.3135,-0.3924,0.3852,-7.0588,-2.6113
2316.4062,-1.7706,-7.6118,-8.6734,-3.8712,-2.0160,-6.7177,-5.7570,-5.2205,-8.8855,-2.8303,-6.0651,-3.7744,-1.1488,0.1518,-3.8397,-3.1158,0.0510,-7.5982,-3.2074
2320.3125,-2.6149,-8.4184,-8.2289,-2.3666,0.8920,-6.8709,-4.5304,-2.5311,-10.3463,-5.8915,-8.2784,-6.6523,-2.5589,-0.7180,-5.6286,-5.1606,-0.9770,-7.6608,-2.9556
2324.2188,-3.9268,-9.8341,-8.5118,-1.3830,2.9922,-7.1323,-3.7530,-0.4382,-12.1531,-7.9219,-9.9463,-8.9720,-4.1599,-0.8365,-6.7447,-6.6370,-2.9635,-8.4874,-2.9948
2328.1250,-6.2594,-12.5120,-10.1245,-1.7347,3.8490,-8.1276,-4.0561,0.3542,-14.7747,-9.2671,-11.4089,-10.8193,-6.1770,-0.1117,-7.5886,-7.9957,-5.6001,-10.9227,-4.1958
2332.0312,-9.6696,-16.3766,-12.9012,-3.4641,3.6954,-10.0660,-5.5990,-0.1947,-18.1467,-10.6498,-13.0746,-12.2258,-8.4138,1.3344,-8.6316,-9.7023,-8.0505,-14.8396,-6.5964
2335.9375,-13.5800,-20.5563,-16.0336,-5.8392,3.2775,-12.6200,-7.9941,-1.4736,-21.6285,-12.6871,-15.1040,-13.1587,-10.3506,3.1969,-10.1304,-11.8433,-9.3652,-19.1528,-9.3912
2339.8438,-16.9975,-23.8096,-18.5504,-7.8108,3.3818,-15.1166,-10.4983,-2.5835,-24.3101,-15.4936,-17.2701,-13.6655,-11.4636,5.0566,-11.9817,-13.9391,-9.0216,-22.4188,-11.4715
2343.7500,-18.9753,-25.1880,-19.8307,-8.6245,4.3321,-16.9012,-12.3547,-2.8393,-25.4790,-18.5834,-19.0801,-13.9866,-11.5369,6.4858,-13.7830,-15.1432,-7.2473,-23.6375,-12.1234
2347.6562,-19.0529,-24.5152,-19.8410,-8.1945,5.7775,-17.6383,-13.0944,-2.1114,-24.9599,-21.0956,-20.0583,-14.4583,-10.7544,7.1782,-15.0402,-14.7513,-4.9173,-22.7483,-11.3981
2351.5625,-17.4247,-22.3874,-18.9916,-7.0311,6.9089,-17.3788,-12.6537,-0.8183,-23.1305,-22.1853,-19.9850,-15.2251,-9.5301,7.0527,-15.3848,-12.7076,-3.0844,-20.5367,-9.9295
2355.4688,-14.7593,-19.7178,-17.7593,-5.8191,6.9585,-16.3917,-11.2847,0.3966,-20.6293,-21.3644,-18.9399,-15.9915,-8.2204,6.2638,-14.6864,-9.7485,-2.4270,-18.0599,-8.3947
2359.3750,-11.8005,-17.1512,-16.3553,-4.9634,5.6549,-14.9141,-9.3552,1.0761,-17.9637,-18.6449,-17.1527,-16.0632,-6.9393,5.0914,-13.0361,-7.0406,-2.9401,-15.9944,-7.0526
2363.2812,-9.0017,-14.7390,-14.6415,-4.3965,3.3449,-13.0056,-7.1708,1.1889,-15.2693,-14.4689,-14.8035,-14.7270,-5.5951,3.7626,-10.6614,-5.5075,-4.0287,-14.3158,-5.6944
2367.1875,-6.4001,-12.0638,-12.3077,-3.7342,0.7353,-10.5957,-4.9066,1.0676,-12.3459,-9.5120,-11.9338,-11.7382,-4.0860,2.3224,-7.8505,-5.2733,-4.9114,-12.4593,-3.9817
2371.0938,-3.7639,-8.6802,-9.1475,-2.6128,-1.5362,-7.6642,-2.6431,1.1258,-8.9057,-4.4709,-8.5228,-7.5627,-2.4658,0.6575,-4.9156,-5.5949,-5.0649,-9.7865,-1.8409
2375.0000,-0.8749,-4.5343,-5.2354,-0.9477,-3.1895,-4.4018,-0.4432,1.5669,-4.8414,0.0933,-4.6451,-3.1720,-0.9303,-1.3261,-2.1671,-5.3444,-4.4423,-6.0206,0.4336
2378.9062,2.2530,-0.0706,-0.9106,1.0535,-4.2755,-1.2209,1.6039,2.2800,-0.3410,3.8372,-0.5661,0.4911,0.3646,-3.4897,0.1435,-3.7366,-3.3715,-1.3937,2.4381
2382.8125,5.3486,4.0181,3.3806,3.0842,-4.9052,1.4007,3.3951,2.9676,4.1918,6.6511,3.3127,3.0136,1.4854,-5.3860,1.9026,-0.8359,-2.2491,3.5141,4.0295
2386.7188,8.0290,7.1877,7.2538,4.9597,-4.9919,3.1426,4.8627,3.3886,8.3166,8.6203,6.6189,4.6444,2.7211,-6.4130,3.1779,2.4725,-1.2643,8.0712,5.4584
2390.6250,9.9938,9.3014,10.4684,6.6935,-4.2329,3.9964,6.0141,3.5329,11.7010,9.9405,9.1646,5.9932,4.3671,-6.1332,4.1626,5.0085,-0.3332,11.8170,7.1314
2394.5312,11.1387,10.5987,12.9157,8.3956,-2.3572,4.2650,6.9314,3.6135,14.1592,10.8088,10.9803,7.5442,6.4453,-4.5545,5.0301,5.9721,0.7448,14.5205,9.1960
2398.4375,11.5474,11.4496,14.5766,10.1015,0.5589,4.4189,7.7284,3.8981,15.6174,11.3339,12.2210,9.3429,8.5953,-2.1724,5.7906,5.3560,2.0561,16.1309,11.3106
2402.3438,11.4098,12.1066,15.5048,11.6800,3.9673,4.8943,8.4870,4.5091,16.0865,11.5088,13.0279,11.0505,10.2561,0.2853,6.2662,3.8853,3.4649,16.7284,12.8170
2406.2500,10.9473,12.6239,15.8337,12.8844,7.0373,5.9265,9.2004,5.3281,15.6864,11.2657,13.4551,12.2680,11.0370,2.2674,6.2286,2.5830,4.7127,16.5238,13.1973
2410.1562,10.3798,12.9505,15.7621,13.4958,9.0474,7.4739,9.7546,6.0572,14.6827,10.5797,13.4980,12.8397,11.0152,3.7064,5.6198,2.2588,5.6475,15.8637,12.4590
2414.0625,9.9125,13.0697,15.4900,13.4433,9.7228,9.2392,9.9637,6.3872,13.4645,9.5540,13.1792,12.9070,10.7273,5.0258,4.6938,3.1971,6.3931,15.1658,11.1433
2417.9688,9.7006,13.0489,15.1364,12.8284,9.3120,10.7700,9.6629,6.1705,12.4311,8.4299,12.6068,12.7163,10.8422,6.8447,3.9584,5.1448,7.3056,14.7755,9.9594
2421.8750,9.7895,12.9817,14.7130,11.8722,8.3878,11.6149,8.8291,5.5153,11.8499,7.5075,11.9647,12.3965,11.7375,9.5733,3.9266,7.5137,8.7243,14.8314,9.3470
2425.7812,10.0822,12.9163,14.2010,10.8581,7.5467,11.5036,7.6720,4.7711,11.7898,7.0234,11.4593,11.9290,13.2808,13.1529,4.8323,9.6409,10.6864,15.2527,9.3128
2429.6875,10.3879,12.8693,13.6899,10.1170,7.2158,10.4963,6.6290,4.4247,12.1930,7.0572,11.2817,11.3401,14.9712,17.0893,6.4965,10.9994,12.8186,15.8809,9.6408
2433.5938,10.5492,12.9223,13.4634,10.0242,7.6445,9.0268,6.2297,4.9421,13.0247,7.5164,11.6055,10.9243,16.3258,20.7253,8.4325,11.3337,14.5039,16.6784,10.2551
2437.5000,10.5621,13.2840,13.9239,10.9340,8.9898,7.7805,6.8657,6.5948,14.3604,8.1963,12.5812,11.2469,17.2169,23.5542,10.1169,10.7200,15.2298,17.8130,11.3842
2441.4062,10.5848,14.1973,15.3543,13.0175,11.3316,7.4183,8.5720,9.3133,16.2974,8.8708,14.2685,12.8386,17.9042,25.3739,11.2412,9.5355,14.8842,19.5246,13.3567
2445.3125,10.7961,15.7015,17.6454,16.0675,14.5482,8.2509,10.9427,12.6295,18.7232,9.3590,16.5064,15.7545,18.7405,26.2208,11.7881,8.3046,13.7979,21.8317,16.1830
2449.2188,11.1897,17.4172,20.1811,19.4136,18.1531,10.0318,13.2520,15.7626,21.1205,9.5476,18.8127,19.3186,19.7809,26.1819,11.9122,7.4473,12.5057,24.2870,19.2834
2453.1250,11.4641,18.5691,22.0022,22.0641,21.2839,12.0032,14.7385,17.8574,22.6179,9.3832,20.4456,22.2914,20.6067,25.2547,11.7439,7.0447,11.3940,25.9990,21.6273
2457.0312,11.1287,18.3231,22.2054,23.0617,22.9601,13.2118,14.9187,18.3010,22.3498,8.8678,20.6780,23.4224,20.5149,23.3596,11.2772,6.7782,10.4822,25.9801,22.2328
2460.9375,9.7973,16.2811,20.3736,21.8943,22.5233,12.9551,13.7689,16.9789,19.9556,8.0723,19.1801,22.0869,18.9573,20.4779,10.4193,6.1200,9.4794,23.6618,20.6945
2464.8438,7.4921,12.8149,16.7968,18.7381,20.0037,11.1317,11.6910,14.3319,15.9042,7.1492,16.2830,18.6297,15.9250,16.7853,9.1430,4.6852,8.0580,19.2717,17.3805
2468.7500,4.7387,8.9796,12.3491,14.3917,16.1605,8.3022,9.2927,11.1678,11.3842,6.3097,12.9124,14.2050,12.0072,12.6614,7.6059,2.5205,6.1325,13.8229,13.1876
2472.6562,2.3543,6.0027,8.0863,9.9292,12.1369,5.4193,7.1137,8.3147,7.7619,5.7496,10.1695,10.1999,8.0832,8.5560,6.1262,0.1225,3.9390,8.6824,9.0497
2476.5625,1.0316,4.6358,4.7852,6.2597,8.9208,3.3693,5.4411,6.2905,5.8950,5.5507,8.7695,7.5621,4.8550,4.8103,5.0256,-1.8426,1.8707,4.9432,5.5381
2480.4688,0.9717,4.7679,2.6742,3.8215,6.9349,2.5682,4.2863,5.1572,5.7125,5.6196,8.6717,6.4003,2.5294,1.5643,4.4492,-2.9312,0.2122,2.9507,2.7751
2484.3750,1.7963,5.5506,1.4816,2.5445,5.9920,2.8280,3.4982,4.6182,6.3276,5.7198,9.1439,6.0560,0.8404,-1.1760,4.2932,-3.1512,-1.0146,2.2479,0.6258
2488.2812,2.7993,5.9552,0.7395,2.0537,5.6123,3.5460,2.9160,4.2769,6.6204,5.5999,9.2420,5.5849,-0.6293,-3.3609,4.2939,-2.8694,-1.9715,1.9572,-1.0403
2492.1875,3.3719,5.4088,0.1396,1.9602,5.4594,4.0894,2.4687,3.8959,5.9329,5.1559,8.4147,4.3682,-2.0649,-4.7407,4.2173,-2.4794,-2.7620,1.3598,-2.2141
2496.0938,3.3316,4.1094,-0.2766,2.0675,5.5976,4.1400,2.1824,3.5109,4.4476,4.5270,6.8567,2.5155,-3.2287,-4.8596,4.0278,-2.0895,-3.2282,0.3237,-2.7759
2500.0000,2.9539,2.8379,-0.1939,2.4003,6.4028,3.8045,2.1200,3.3562,3.0248,4.0490,5.3890,0.8379,-3.5755,-3.2381,3.9257,-1.4722,-2.9671,-0.6636,-2.5921
2503.9062,2.7113,2.4156,0.7034,3.0845,8.2072,3.4466,2.3095,3.6711,2.6220,4.0732,4.9423,0.4001,-2.5843,0.3396,4.2320,-0.3064,-1.5857,-0.8506,-1.5728
2507.8125,2.9139,3.1733,2.4502,4.1831,10.9260,3.3757,2.7042,4.5108,3.6749,4.7439,5.9738,1.8915,-0.0943,5.5886,5.1835,1.4832,0.9700,0.2745,0.3222
2511.7188,3.4981,4.7688,4.6988,5.5978,13.9222,3.6054,3.1889,5.6705,5.8287,5.8700,8.1802,5.1679,3.5510,11.6779,6.7523,3.5626,4.2440,2.6538,3.0616
2515.6250,4.0946,6.4387,6.8644,7.0868,16.2050,3.8439,3.6173,6.7542,8.1686,6.9823,10.6748,9.2357,7.6194,17.4255,8.5909,5.3386,7.3925,5.6979,6.4662
2519.5312,4.3105,7.4900,8.4296,8.3700,16.8558,3.7135,3.8615,7.3446,9.7790,7.5646,12.5031,12.7158,11.2847,21.6560,10.1455,6.3192,9.5437,8.6413,10.1337
2523.4375,4.0204,7.6921,9.2123,9.2529,15.4471,3.0410,3.8538,7.1876,10.2627,7.3353,13.1663,14.5422,13.9365,23.5692,10.9000,6.4214,10.1894,10.9641,13.4731
2527.3438,3.4673,7.3290,9.4248,9.6938,12.2407,2.0089,3.6111,6.3058,9.9029,6.4164,12.8393,14.4963,15.3549,22.9562,10.6429,6.0107,9.3845,12.5957,15.8965
2531.2500,3.1092,6.9116,9.4821,9.7834,8.0775,1.0527,3.2276,4.9913,9.3919,5.2806,12.1771,13.2592,15.6870,20.1902,9.6167,5.6519,7.6611,13.7826,17.0743
2535.1562,3.3187,6.7758,9.6818,9.6539,4.0311,0.5666,2.8341,3.6832,9.3301,4.4960,11.8562,11.9487,15.2720,16.0237,8.4434,5.7574,5.7334,14.7410,17.0741
2539.0625,4.1336,6.8479,9.9688,9.3725,0.9964,0.6208,2.5349,2.7785,9.8245,4.4088,12.1499,11.4288,14.4301,11.3180,7.8253,6.3719,4.1793,15.3662,16.2686
2542.9688,5.2148,6.7255,9.9456,8.8796,-0.6057,0.8930,2.3529,2.4569,10.4343,4.9473,12.7836,11.8209,13.3337,6.8314,8.1520,7.2121,3.2666,15.2297,15.0699
2546.8750,6.0311,5.9967,9.1323,8.0060,-0.9051,0.8750,2.2154,2.5981,10.4728,5.6618,13.1313,12.5122,12.0172,3.1270,9.2337,7.8886,2.9736,13.8786,13.6824
2550.7812,6.1510,4.5615,7.3048,6.5574,-0.4393,0.2200,1.9931,2.8307,9.4522,5.9771,12.6044,12.6200,10.4828,0.5589,10.3437,8.1312,3.1320,11.2198,12.0512
2554.6875,5.4622,2.7288,4.6813,4.4185,0.1140,-1.0116,1.5667,2.6905,7.3787,5.5061,10.9889,11.5719,8.7980,-0.7466,10.5900,7.8730,3.5585,7.6933,10.0118
2558.5938,4.1946,1.0208,1.8177,1.6184,0.1991,-2.3868,0.8775,1.8148,4.7194,4.2421,8.5402,9.4067,7.0866,-0.9616,9.4264,7.1845,4.0884,4.0724,7.4828
2562.5000,2.7441,-0.1808,-0.7286,-1.6737,-0.4665,-3.4025,-0.0729,0.0827,2.0792,2.5251,5.8046,6.6247,5.4042,-0.6250,6.9971,6.1577,4.5154,1.0016,4.5237
2566.4062,1.4187,-0.9082,-2.7462,-5.2108,-1.8863,-3.8482,-1.2644,-2.3570,-0.1887,0.8153,3.2969,3.7516,3.5986,-0.5804,4.0814,4.8510,4.5321,-1.4176,1.2235
2570.3125,0.2654,-1.6172,-4.4878,-8.7419,-3.8785,-3.9719,-2.6989,-5.1630,-2.1810,-0.5767,1.2306,0.9737,1.3015,-1.6935,1.6475,3.3206,3.7693,-3.6871,-2.4387
2574.2188,-0.9152,-2.9228,-6.4721,-12.0559,-6.1882,-4.3236,-4.3922,-7.9322,-4.3280,-1.6410,-0.5534,-1.8845,-1.8745,-4.4070,0.2762,1.6762,1.9630,-6.5536,-6.5820
2578.1250,-2.3833,-5.2264,-9.0951,-14.9833,-8.5508,-5.3783,-6.3140,-10.3168,-7.0463,-2.6235,-2.4390,-5.0597,-6.0153,-8.3630,-0.1811,0.0823,-0.8310,-10.4547,-11.2218
2582.0312,-4.2267,-8.4640,-12.3132,-17.3777,-10.7022,-7.2004,-8.3215,-12.0934,-10.3950,-3.8300,-4.7724,-8.5061,-10.6726,-12.3683,-0.4900,-1.3131,-4.1227,-15.1433,-16.0375
2585.9375,-6.2369,-12.1183,-15.6065,-19.1103,-12.3817,-9.3818,-10.1532,-13.1825,-13.9612,-5.4129,-7.6360,-11.8060,-14.9191,-14.8324,-1.5348,-2.4652,-7.0967,-19.7493,-20.3366
2589.8438,-7.9824,-15.4682,-18.2430,-20.0842,-13.3757,-11.2929,-11.5095,-13.6350,-17.0462,-7.2639,-10.7725,-14.4060,-17.7246,-14.5223,-3.7519,-3.4553,-8.9395,-23.2367,-23.3003
2593.7500,-9.0379,-17.9076,-19.6551,-20.2490,-13.6002,-12.4623,-12.1813,-13.5920,-19.0223,-9.0559,-13.6759,-15.9718,-18.4529,-11.2358,-6.8474,-4.4184,-9.2343,-24.9445,-24.3631
2597.6562,-9.2221,-19.1449,-19.6778,-19.5882,-13.1604,-12.8136,-12.1403,-13.2168,-19.6268,-10.3847,-15.7790,-16.5518,-17.1714,-5.9845,-9.9550,-5.4173,-8.1909,-24.8515,-23.4500
2601.5625,-8.6866,-19.1973,-18.5152,-18.0869,-12.3184,-12.6077,-11.5269,-12.6071,-19.0115,-10.9183,-16.6377,-16.4109,-14.5603,-0.5315,-12.1039,-6.3464,-6.5446,-23.4179,-20.9058
2605.4688,-7.7970,-18.2409,-16.5043,-15.7216,-11.3572,-12.1610,-10.5385,-11.7288,-17.5501,-10.4904,-16.0473,-15.6895,-11.4802,3.4784,-12.6916,-6.9296,-5.1488,-21.1667,-17.2047
2609.3750,-6.8929,-16.4620,-13.8913,-12.5174,-10.4205,-11.5818,-9.3048,-10.4279,-15.5746,-9.1314,-14.0846,-14.2100,-8.4974,5.2935,-11.7008,-6.8229,-4.4901,-18.3501,-12.7120
2613.2812,-6.1022,-14.0259,-10.7979,-8.6655,-9.4447,-10.7392,-7.8429,-8.5455,-13.2530,-7.0696,-11.1041,-11.6456,-5.6985,5.2817,-9.6017,-5.7809,-4.4323,-14.9564,-7.7087
2617.1875,-5.3480,-11.1610,-7.3864,-4.6186,-8.2510,-9.4878,-6.1328,-6.0900,-10.6952,-4.7238,-7.7066,-7.9501,-2.9130,4.4976,-7.0851,-3.8214,-4.3705,-11.0320,-2.6278
2621.0938,-4.5421,-8.2516,-4.0516,-1.0534,-6.7434,-7.9525,-4.2507,-3.3504,-8.1756,-2.6633,-4.6598,-3.6959,-0.1438,3.9023,-4.8256,-1.3193,-3.7118,-7.0235,1.7775
2625.0000,-3.8079,-5.8199,-1.4309,1.3503,-5.0626,-6.6164,-2.4478,-0.8466,-6.2481,-1.4963,-2.7351,0.0114,2.1628,3.7590,-3.3704,1.0298,-2.3666,-3.8112,4.5951
2628.9062,-3.5379,-4.3636,-0.1611,2.2318,-3.5601,-6.0982,-1.0906,0.8979,-5.5876,-1.6775,-2.4672,2.0667,3.2639,3.5842,-3.1072,2.4086,-0.9007,-2.3326,5.2297
2632.8125,-4.2024,-4.1378,-0.5174,1.7848,-2.5828,-6.7517,-0.4814,1.6417,-6.6065,-3.3033,-3.9174,2.0081,2.6143,2.6450,-4.2057,2.2092,-0.2142,-3.0172,3.8585
2636.7188,-6.0172,-5.0277,-2.1869,0.7225,-2.2122,-8.3790,-0.6736,1.5833,-9.0907,-6.0097,-6.5748,0.3105,0.3493,0.6169,-6.5052,0.3724,-0.9383,-5.4292,1.4740
2640.6250,-8.7072,-6.6021,-4.3608,-0.0620,-2.1605,-10.2868,-1.4132,1.2648,-12.1423,-9.0674,-9.4950,-1.9050,-2.6314,-2.0710,-9.4417,-2.4490,-2.9540,-8.4017,-0.6134
2644.5312,-11.5571,-8.3169,-6.1143,0.0291,-1.9264,-11.6780,-2.2580,1.2537,-14.5319,-11.6598,-11.6551,-3.5589,-5.0911,-4.4363,-12.1476,-5.0564,-5.3762,-10.6128,-1.5217
2648.4375,-13.7501,-9.7354,-6.8460,0.9753,-1.1239,-12.1186,-2.8074,1.7977,-15.2898,-13.2130,-12.3661,-4.2183,-6.1314,-5.5254,-13.7554,-6.2028,-7.0353,-11.2487,-1.2726
2652.3438,-14.7825,-10.6299,-6.5051,2.1857,0.2486,-11.7585,-2.8953,2.6787,-14.1808,-13.5932,-11.5242,-4.2019,-5.6546,-4.9547,-13.7751,-5.2096,-7.1476,-10.3349,-0.6461
2656.2500,-14.6766,-10.9291,-5.4849,2.9123,1.8057,-11.1538,-2.6299,3.3700,-11.7629,-13.0618,-9.5659,-4.1384,-4.2954,-3.0396,-12.3167,-2.3705,-5.7292,-8.5459,-0.5068
2660.1562,-13.8532,-10.5964,-4.2838,2.7745,3.0633,-10.8241,-2.2641,3.3962,-8.9969,-12.0239,-7.1632,-4.3409,-2.8799,-0.4538,-10.0057,1.1239,-3.4862,-6.6572,-1.0926
2664.0625,-12.7677,-9.5678,-3.1830,2.0543,3.8180,-10.8651,-1.9999,2.6519,-6.6696,-10.7461,-4.8597,-4.4833,-1.8081,2.2988,-7.6333,3.7528,-1.2807,-5.0328,-1.7833
2667.9688,-11.5876,-7.8170,-2.1453,1.5589,4.3365,-10.8947,-1.8586,1.4694,-5.0080,-9.2331,-2.8700,-3.8266,-0.7996,5.2000,-5.7630,4.4370,0.4373,-3.4830,-1.5118
2671.8750,-10.1547,-5.4905,-0.9643,2.1294,5.1929,-10.3623,-1.6961,0.3980,-3.7151,-7.3434,-1.1431,-1.8158,0.8322,8.5995,-4.5340,3.0887,1.8361,-1.5442,0.4944
2675.7812,-8.2517,-2.9797,0.4887,4.1096,6.8446,-8.9878,-1.3291,-0.1383,-2.3540,-5.0482,0.4050,1.4148,3.5999,12.7674,-3.7523,0.6288,3.4278,1.0677,4.1776
2679.6875,-5.9513,-0.8231,2.1240,7.1152,9.2351,-7.0081,-0.6708,-0.0639,-0.7683,-2.6301,1.6992,5.0169,7.3854,17.4636,-3.1533,-1.5267,5.5465,4.1780,8.6785
2683.5938,-3.7522,0.5356,3.6941,10.2437,11.7090,-5.0525,0.2233,0.3826,0.7786,-0.6515,2.5172,7.9138,11.4291,21.8496,-2.6135,-2.2029,7.9860,7.2359,12.8612
2687.5000,-2.3601,0.9883,4.9831,12.5757,13.3186,-3.7413,1.2134,0.8836,1.8300,0.3149,2.6951,9.4457,14.7488,24.8204,-2.1619,-1.0090,10.0672,9.6665,15.9282
2691.4062,-2.2485,0.8285,5.9572,13.6395,13.3340,-3.2941,2.1746,1.2775,2.1337,0.0285,2.3500,9.7190,16.6761,25.5433,-1.8216,1.5785,11.0763,11.2091,17.7085
2695.3125,-3.3124,0.5763,6.7502,13.5586,11.6342,-3.4159,3.0506,1.6097,1.8850,-1.2323,1.9128,9.4304,17.1457,23.8614,-1.4543,4.5653,10.7465,11.9965,18.4981
2699.2188,-4.8793,0.6604,7.5044,12.8359,8.7423,-3.5243,3.8265,1.9816,1.6176,-2.7754,1.9069,9.3206,16.5853,20.3283,-0.7723,6.9665,9.4292,12.3469,18.6651
2703.1250,-6.0869,1.1621,8.2091,11.9708,5.5114,-3.1390,4.4601,2.3470,1.8198,-3.8387,2.6079,9.6652,15.5458,15.8916,0.4634,8.2082,7.8457,12.4640,18.3606
2707.0312,-6.3755,1.7952,8.6848,11.1907,2.6926,-2.1595,4.8519,2.4588,2.5683,-3.9626,3.8304,10.1501,14.3646,11.4519,2.2077,8.2468,6.6120,12.2956,17.5200
2710.9375,-5.7597,2.1370,8.7406,10.4611,0.6615,-0.8581,4.9012,2.0442,3.4651,-3.1715,5.0134,10.1828,13.0749,7.5598,4.0521,7.4375,5.8804,11.6566,16.0735
2714.8438,-4.7134,1.9564,8.3868,9.7066,-0.5631,0.3680,4.6167,1.0963,3.9296,-1.8737,5.5664,9.3749,11.5530,4.3784,5.3916,6.2987,5.3348,10.4955,14.1341
2718.7500,-3.7814,1.4111,7.9203,9.0236,-1.0937,1.2789,4.1916,0.0461,3.6321,-0.5729,5.2443,7.8380,9.7286,1.8496,5.7493,5.3025,4.5089,9.0628,11.9923
2722.6562,-3.2162,0.9670,7.7799,8.6845,-0.9577,1.8999,3.9582,-0.3617,2.7416,0.4066,4.2932,6.0996,7.6795,-0.1040,5.0548,4.7443,3.1749,7.8107,9.9422
2726.5625,-2.8968,1.0805,8.2353,8.9147,-0.0621,2.3958,4.2164,0.5322,1.7976,1.0182,3.2635,4.7339,5.5765,-1.4759,3.6995,4.6817,1.5296,7.0710,8.1031
2730.4688,-2.5502,1.8449,9.1096,9.6202,1.6570,2.8324,5.0249,2.8563,1.2972,1.3911,2.6248,3.9928,3.5806,-2.1950,2.3349,4.9367,0.0767,6.7477,6.3835
2734.3750,-2.0654,2.8412,9.7479,10.3022,4.0515,3.0249,6.0910,6.0087,1.3023,1.6444,2.4536,3.6948,1.8197,-2.1896,1.5387,5.1753,-0.6758,6.2790,4.6044
2738.2812,-1.6326,3.3141,9.3037,10.2763,6.7182,2.6000,6.8500,8.8645,1.3642,1.7742,2.4096,3.4219,0.4628,-1.4143,1.5371,5.0668,-0.4794,4.9488,2.6775
2742.1875,-1.5925,2.5951,7.2162,9.0904,9.1508,1.2394,6.7210,10.3058,0.8361,1.6873,2.0122,2.8632,-0.2065,0.1754,2.1238,4.4687,0.5881,2.3771,0.7236
2746.0938,-2.1261,0.5319,3.6119,6.8739,10.9846,-1.0563,5.4129,9.7885,-0.6385,1.3333,1.0172,2.0563,0.1601,2.6432,2.7913,3.5285,2.2441,-1.1230,-0.9172
2750.0000,-3.0418,-2.3367,-0.6235,4.3670,12.1495,-3.8619,3.1140,7.6244,-2.8043,0.8068,-0.3704,1.3764,1.7821,6.0155,2.9901,2.6173,4.1765,-4.5761,-1.7669
2753.9062,-3.8469,-4.9867,-4.1859,2.5644,12.8141,-6.4569,0.4495,4.8170,-4.8746,0.3247,-1.5947,1.2931,4.5259,10.1454,2.3820,2.1096,6.1357,-6.7830,-1.3609
2757.8125,-4.0653,-6.4096,-5.9625,2.1578,13.1562,-8.1251,-1.7855,2.5378,-5.9783,0.0858,-2.0936,2.0604,7.8200,14.5772,0.9827,2.1405,7.9075,-6.9369,0.5409
2761.7188,-3.5755,-6.1460,-5.5962,3.1005,13.1299,-8.4652,-2.9888,1.5275,-5.6927,0.1162,-1.6658,3.5216,10.7981,18.5291,-0.8578,2.5060,9.2408,-5.0738,3.7218
2765.6250,-2.7197,-4.5592,-3.6968,4.5643,12.4079,-7.5568,-3.0259,1.7426,-4.3277,0.2186,-0.6290,5.1322,12.6121,21.0636,-2.6230,2.7798,9.8366,-2.1048,7.3780
2769.5312,-2.1028,-2.6860,-1.5627,5.3416,10.5636,-5.9078,-2.2742,2.4275,-2.7840,0.0670,0.3215,6.1785,12.7467,21.4048,-3.8742,2.5700,9.4432,0.5866,10.2527
2773.4375,-2.2175,-1.7284,-0.5411,4.4824,7.3905,-4.2196,-1.4151,2.5599,-2.0782,-0.6120,0.4667,6.0824,11.1755,19.2613,-4.4643,1.7402,8.0047,1.7640,11.0989
2777.3438,-3.1499,-2.4478,-1.3587,1.8165,3.1516,-3.0877,-1.0853,1.4208,-2.8192,-1.8894,-0.5755,4.6523,8.3031,14.9868,-4.6111,0.4497,5.7566,0.8560,9.3053
2781.2500,-4.5502,-4.7845,-3.7821,-1.9338,-1.4155,-2.7740,-1.5722,-1.0180,-4.9297,-3.6016,-2.6723,2.1721,4.7600,9.4815,-4.7759,-0.9903,3.1856,-1.8700,5.3186
2785.1562,-5.8671,-7.9071,-6.7928,-5.5200,-5.3713,-3.1529,-2.7129,-4.0898,-7.7445,-5.4417,-5.2589,-0.7138,1.1716,3.8687,-5.3953,-2.3153,0.8543,-5.5233,0.5252
2789.0625,-6.6728,-10.6606,-9.1731,-7.8114,-7.9877,-3.8430,-4.0372,-6.8005,-10.3924,-7.0999,-7.6194,-3.2729,-2.0023,-0.9003,-6.6083,-3.4019,-0.8269,-9.0418,-3.4401
2792.9688,-6.8712,-12.1652,-10.1678,-8.3608,-9.0700,-4.4528,-5.0617,-8.3513,-12.2256,-8.3665,-9.2128,-4.9921,-4.5226,-4.3233,-8.1446,-4.2062,-1.7592,-11.6304,-5.5838
2796.8750,-6.6778,-12.2331,-9.8411,-7.5782,-8.9992,-4.8036,-5.5536,-8.5187,-13.0632,-9.1499,-9.8823,-5.7692,-6.3351,-6.3788,-9.4549,-4.6323,-2.1567,-12.9834,-6.0697
2800.7812,-6.4197,-11.3841,-8.9389,-6.4247,-8.4596,-5.0045,-5.6127,-7.6861,-13.1511,-9.4320,-9.8543,-5.8857,-7.4798,-7.3254,-10.0165,-4.4813,-2.3797,-13.2314,-5.9926
2804.6875,-6.3018,-10.4731,-8.3638,-5.8153,-8.0015,-5.3320,-5.5359,-6.5293,-12.9078,-9.2176,-9.5411,-5.7748,-7.9849,-7.4081,-9.6264,-3.5589,-2.6853,-12.7102,-6.5383
2808.5938,-6.2842,-10.1660,-8.6044,-6.0862,-7.6911,-5.9877,-5.5710,-5.5705,-12.6342,-8.5222,-9.2643,-5.7262,-7.7989,-6.6622,-8.4968,-1.8790,-3.0370,-11.7273,-8.1082
2812.5000,-6.1265,-10.5771,-9.4775,-6.8432,-7.0659,-6.8941,-5.7361,-4.8868,-12.3597,-7.4035,-9.0575,-5.7152,-6.8134,-4.9394,-7.0977,0.2021,-3.1024,-10.4651,-10.0301
2816.4062,-5.5578,-11.2673,-10.3262,-7.2719,-5.4427,-7.6786,-5.8299,-4.1580,-11.8962,-6.0028,-8.6685,-5.4741,-4.9887,-2.1370,-5.8595,2.0519,-2.4692,-9.0441,-11.0660
2820.3125,-4.4694,-11.5754,-10.5163,-6.7105,-2.4207,-7.8796,-5.6258,-3.0033,-11.0403,-4.5551,-7.7683,-4.7582,-2.5235,1.5282,-4.9448,3.0247,-0.9758,-7.6482,-10.3489
2824.2188,-3.0270,-11.0532,-9.8864,-5.1204,1.7111,-7.2568,-5.1020,-1.3656,-9.7771,-3.3456,-6.2400,-3.6176,0.0579,5.4004,-4.2388,2.7696,1.0496,-6.5747,-8.0621
2828.1250,-1.6391,-9.7302,-8.8475,-3.1580,5.9206,-5.9945,-4.5288,0.3351,-8.3441,-2.6220,-4.3550,-2.4683,2.0110,8.5355,-3.5456,1.3962,2.8280,-6.1296,-5.3673
2832.0312,-0.7847,-8.0589,-8.0791,-1.8015,8.8007,-4.6405,-4.3289,1.3973,-7.1092,-2.4959,-2.6966,-1.8887,2.6673,10.0701,-2.8281,-0.5997,3.4798,-6.4207,-3.6375
2835.9375,-0.7679,-6.6012,-8.0434,-1.7700,9.1884,-3.7882,-4.7867,1.2562,-6.3342,-2.8780,-1.8488,-2.2646,1.7752,9.6112,-2.3015,-2.5979,2.5134,-7.1952,-3.5593
2839.8438,-1.5196,-5.6741,-8.6536,-3.1017,6.7062,-3.6948,-5.8051,-0.1613,-5.9803,-3.4864,-2.0335,-3.5216,-0.3292,7.4203,-2.3067,-4.1385,0.1556,-7.8677,-4.7390
2843.7500,-2.5662,-5.1792,-9.3175,-5.1505,1.9364,-4.0882,-6.8918,-2.3902,-5.6901,-3.9425,-2.9352,-5.1321,-2.8545,4.2790,-3.0568,-5.0780,-2.7124,-7.7686,-6.0576
2847.6562,-3.2162,-4.7027,-9.3112,-6.9867,-3.8610,-4.3078,-7.4076,-4.7183,-4.9764,-3.9300,-3.8458,-6.3965,-4.9290,1.1089,-4.4411,-5.5567,-5.0113,-6.4858,-6.4676
2851.5625,-2.8954,-3.7983,-8.2188,-7.9324,-9.3167,-3.7059,-6.9339,-6.6071,-3.5108,-3.3487,-4.0553,-6.8048,-5.9919,-1.4349,-6.0292,-5.8344,-6.0504,-4.0923,-5.6353
2855.4688,-1.4576,-2.2600,-6.1491,-7.8876,-13.4876,-2.0577,-5.5218,-7.9480,-1.3363,-2.3759,-3.2436,-6.2425,-5.9597,-3.1735,-7.2718,-6.1082,-5.8768,-1.1054,-4.0006
2859.3750,0.7200,-0.2243,-3.6113,-7.2639,-16.0877,0.2828,-3.6594,-8.9875,1.1327,-1.3812,-1.6253,-4.9281,-5.0924,-4.3215,-7.7613,-6.4086,-5.1619,1.8059,-2.2947
2863.2812,2.9319,1.9329,-1.1746,-6.6108,-17.3477,2.5814,-1.9775,-9.9997,3.3263,-0.7199,0.2316,-3.1769,-3.7031,-5.2024,-7.3923,-6.6054,-4.7041,4.1758,-0.9511
2867.1875,4.5260,3.8060,0.8302,-6.2193,-17.6615,4.1417,-0.8861,-10.9692,4.8130,-0.5173,1.7677,-1.2083,-1.9592,-5.9658,-6.3458,-6.4999,-4.8838,5.9266,0.1268
2871.0938,5.2395,5.1337,2.3731,-5.9759,-17.2805,4.6711,-0.3765,-11.5332,5.4855,-0.5834,2.7181,0.8487,0.0702,-6.4904,-4.9456,-5.9468,-5.4391,7.2600,1.3049
2875.0000,5.2759,5.8479,3.5498,-5.5401,-16.2346,4.3733,-0.1046,-11.2283,5.5309,-0.5334,3.1387,2.7814,2.1881,-6.5132,-3.5028,-4.9518,-5.7013,8.3457,2.7269
2878.9062,5.0842,6.0095,4.3498,-4.6823,-14.4726,3.7415,0.3192,-9.8562,5.2245,-0.0537,3.2032,4.1493,3.9036,-5.8691,-2.2315,-3.7018,-5.1107,9.0467,4.0202
2882.8125,5.0058,5.7137,4.5738,-3.5078,-12.0565,3.2222,1.0464,-7.6872,4.7076,0.8577,2.9712,4.3652,4.5366,-4.6549,-1.2439,-2.5101,-3.6470,8.9054,4.4513
2886.7188,5.0457,5.0451,3.9769,-2.3944,-9.2272,2.9885,1.9020,-5.3400,3.9109,1.8490,2.3336,3.0188,3.5904,-3.1925,-0.5689,-1.6960,-1.8803,7.4319,3.4234
2890.6250,4.9275,4.0948,2.5266,-1.6922,-6.2854,2.9464,2.5339,-3.4158,2.6680,2.4217,1.1729,0.2374,1.1551,-1.8152,-0.1546,-1.4495,-0.6228,4.5115,0.9592
2894.5312,4.3724,2.9903,0.5652,-1.4176,-3.3894,2.9174,2.6757,-2.1437,0.9225,2.2566,-0.4181,-3.2056,-1.9677,-0.6255,0.1338,-1.7532,-0.4275,0.6425,-2.1742
2898.4375,3.3687,1.8786,-1.2716,-1.1809,-0.4460,2.8175,2.3252,-1.2858,-1.1413,1.4303,-2.0772,-6.1798,-4.5607,0.5982,0.4736,-2.4040,-1.2644,-3.1887,-4.7834
2902.3438,2.2081,0.8512,-2.3548,-0.4198,2.7983,2.6825,1.7210,-0.3582,-3.1497,0.3564,-3.3602,-7.7563,-5.5640,2.2686,0.9814,-3.1193,-2.5531,-5.9515,-5.8114
2906.2500,1.2523,-0.1320,-2.3990,1.2122,6.5128,2.5415,1.1537,0.9978,-4.7390,-0.5179,-4.0456,-7.6931,-4.5892,4.6985,1.6004,-3.6624,-3.4930,-7.0763,-4.8233
2910.1562,0.6177,-1.2420,-1.6217,3.5634,10.5501,2.2768,0.7636,2.7577,-5.7575,-1.0436,-4.3060,-6.5259,-2.0703,7.8307,2.0726,-3.9089,-3.4602,-6.7137,-2.1718
2914.0625,0.0473,-2.6673,-0.6254,6.0014,14.3936,1.6276,0.4748,4.5345,-6.3206,-1.4704,-4.5833,-5.1985,1.0122,11.1600,2.0578,-3.8311,-2.2566,-5.5988,1.1996
2917.9688,-0.8950,-4.4430,-0.0758,7.7203,17.3281,0.3757,0.1013,5.8390,-6.6868,-2.2227,-5.2417,-4.4787,3.6345,13.9058,1.3538,-3.4430,-0.1312,-4.6202,4.1780
2921.8750,-2.4323,-6.3389,-0.3703,8.1440,18.7317,-1.4156,-0.4745,6.3767,-7.0572,-3.5016,-6.2644,-4.5511,5.1500,15.3442,0.0770,-2.7778,2.3658,-4.3675,5.9188
2925.7812,-4.2841,-7.9088,-1.4816,7.1820,18.3157,-3.3074,-1.1951,6.1793,-7.4556,-5.0219,-7.2502,-5.0450,5.4242,15.1147,-1.3424,-1.9317,4.5859,-4.9183,6.1180
2929.6875,-5.7313,-8.7104,-3.0400,5.2095,16.1929,-4.6500,-1.8729,5.5098,-7.7761,-6.1180,-7.7344,-5.4411,4.6958,13.3355,-2.3847,-1.1285,5.9744,-5.9476,5.0296
2933.5938,-6.0396,-8.5762,-4.5752,2.8261,12.7765,-4.9370,-2.3382,4.6508,-7.9426,-6.1888,-7.5938,-5.5275,3.3365,10.4806,-2.7626,-0.7150,6.2273,-7.0304,3.2516
2937.5000,-4.9671,-7.7627,-5.7547,0.5746,8.6129,-4.1248,-2.5615,3.7546,-8.0325,-5.1825,-7.1988,-5.5543,1.6839,7.1143,-2.6291,-1.0315,5.3924,-7.9042,1.3995
2941.4062,-2.9939,-6.8500,-6.4841,-1.2117,4.2609,-2.6945,-2.6429,2.8584,-8.2366,-3.7501,-7.1558,-5.9714,0.0059,3.6555,-2.5115,-2.2050,3.8621,-8.5284,-0.1559
2945.3125,-1.0801,-6.4160,-6.8373,-2.3870,0.2511,-1.3902,-2.6774,2.0193,-8.6689,-2.9011,-7.8024,-6.9627,-1.4734,0.3115,-2.9855,-3.9990,2.2152,-8.9457,-1.3512
2949.2188,-0.0856,-6.6657,-6.8955,-2.8846,-2.9240,-0.7872,-2.6110,1.4233,-9.1704,-3.3470,-8.8407,-8.1542,-2.5769,-2.8052,-4.2834,-5.8519,0.9445,-9.0977,-2.2785
2953.1250,-0.2271,-7.2517,-6.6259,-2.6564,-4.8623,-0.9587,-2.2251,1.3454,-9.2887,-4.9637,-9.4270,-8.7575,-3.2284,-5.4895,-6.0914,-7.1212,0.2140,-8.7681,-2.9552
2957.0312,-0.9394,-7.4344,-5.8926,-1.7277,-5.3616,-1.4593,-1.2933,1.9624,-8.4985,-6.7661,-8.7123,-8.0847,-3.4977,-7.3476,-7.6854,-7.4089,-0.1880,-7.7161,-3.2189
2960.9375,-1.2458,-6.5218,-4.5990,-0.3149,-4.5195,-1.6355,0.1832,3.1514,-6.5516,-7.4580,-6.4812,-6.0833,-3.5617,-7.8861,-8.3393,-6.7702,-0.6422,-5.9103,-2.8574
2964.8438,-0.4043,-4.3410,-2.8578,1.1276,-2.7228,-1.0681,1.8391,4.4399,-3.7227,-6.2335,-3.4208,-3.4911,-3.5801,-6.7425,-7.7584,-5.6649,-1.3614,-3.6821,-1.8813
2968.7500,1.5898,-1.4387,-1.0497,2.0388,-0.4838,0.1392,3.0417,5.1883,-0.7550,-3.3095,-0.7824,-1.4590,-3.5606,-3.9012,-6.2625,-4.6748,-2.1656,-1.6547,-0.6866
2972.6562,3.9733,1.1546,0.3168,2.0451,1.8136,1.4119,3.2121,4.9331,1.5095,0.1697,0.3889,-0.8468,-3.3073,0.2637,-4.5925,-4.1567,-2.5460,-0.4383,0.1076
2976.5625,5.6823,2.4995,0.9040,1.2663,4.1067,2.0699,2.2008,3.7031,2.6220,2.8141,-0.0338,-1.6321,-2.4845,5.1629,-3.4497,-4.0395,-1.9885,-0.2365,0.1236
2980.4688,6.0249,2.3383,0.8383,0.4244,6.6544,1.7811,0.4860,2.1140,2.8432,3.8271,-1.0818,-2.8143,-0.7469,10.2694,-3.0483,-3.8807,-0.3199,-0.5908,-0.3175
2984.3750,5.1380,1.3327,0.7875,0.6220,9.8185,0.8179,-0.9624,1.1550,3.0687,3.4670,-1.1940,-2.8944,2.1355,15.3033,-2.9654,-3.1378,2.1775,-0.4481,-0.1391
2988.2812,3.9371,0.7621,1.7030,2.8319,13.7353,-0.0563,-1.1203,1.7417,4.3631,2.8347,0.8865,-0.6663,6.1927,20.1806,-2.3928,-1.4891,4.9623,1.4097,1.9734
2992.1875,3.5745,1.8114,4.2993,7.3220,18.0684,-0.0236,0.5574,4.2418,7.3361,3.1274,5.3490,4.1135,11.1857,24.7556,-0.6570,0.9700,7.5664,5.7259,6.7123
2996.0938,4.7165,4.8371,8.5325,13.3249,21.9921,1.2718,3.7959,8.2099,11.6940,4.8309,11.1217,10.5211,16.5336,28.5499,2.2964,3.7423,9.7831,12.2161,13.4791
3000.0000,7.0609,9.0440,13.4034,19.1784,24.4380,3.4290,7.5494,12.4882,16.2268,7.3574,16.3350,16.8007,21.2838,30.7009,5.7399,6.1258,11.5586,19.4151,20.3922
