Time,Fp1,F3,C3,P3,O1,F7,T3,T5,Fz,Fp2,F4,C4,P4,O2,F8,T4,T6,Cz,Pz
0.0000,0.0069,-3.3718,-6.7391,-7.4233,-7.1999,2.5774,-0.1102,-7.1724,-3.8703,-1.5772,-4.9148,-4.7881,-0.9720,0.8589,-7.9410,0.0682,2.9370,-3.8885,-4.5828
3.9062,-2.0778,-4.6244,-5.1213,-5.2745,-4.5819,5.4919,0.1903,-4.0448,-4.0396,-3.2257,-5.5521,-4.1929,-0.2387,2.0370,-3.7495,5.4288,4.3845,-3.5030,-3.7381
7.8125,-5.0277,-4.7725,-1.0656,-1.1308,-0.1059,7.5478,0.9861,1.1258,-3.2418,-4.9107,-4.8556,-1.4900,1.9680,3.9475,3.5432,10.7945,7.0047,-1.8415,-1.2725
11.7188,-8.2561,-3.0055,5.2290,4.6526,5.5072,7.6048,2.3442,7.6321,-1.4216,-6.0979,-2.7077,2.9777,5.2790,6.2547,11.8340,15.1795,10.3021,1.0595,2.6090
15.6250,-11.1840,0.3912,12.1087,10.7630,10.7807,5.0217,4.0217,14.0102,0.6492,-6.6561,-0.0913,7.3687,8.2992,8.2740,18.2541,18.1449,13.0592,4.1600,6.6403
19.5312,-13.4932,3.8871,16.9813,15.3540,14.1046,-0.1181,5.4880,18.5908,1.6356,-6.9597,1.2976,9.1418,9.1928,9.2186,20.5194,19.5081,13.8066,5.7225,8.9443
23.4375,-15.1469,5.3856,17.5501,16.8612,14.5365,-6.8921,6.1167,20.2333,0.3664,-7.6083,-0.0023,6.5122,6.7049,8.5566,17.8615,18.8763,11.5854,4.1885,7.9866
27.3438,-16.2000,3.4134,13.0895,14.7824,12.3165,-13.5687,5.4609,18.8517,-3.4059,-8.9385,-4.2876,-0.3576,0.9850,6.2837,11.1373,15.5480,6.5466,-0.8611,3.4904
31.2500,-16.5835,-1.8833,4.9845,9.9839,8.7791,-17.9486,3.4783,15.4480,-8.7103,-10.6739,-10.3771,-9.2500,-6.3457,2.9536,2.3149,9.0238,-0.0203,-8.2665,-3.2595
35.1562,-16.0596,-8.5873,-3.8314,4.3552,5.7072,-18.1287,0.6073,11.6480,-13.7435,-11.9769,-16.1192,-16.9786,-12.9617,-0.5516,-6.1771,-0.1871,-6.2926,-15.6854,-9.9339
39.0625,-14.3982,-13.8708,-10.2365,0.0056,4.5044,-13.4898,-2.3337,9.0054,-16.7189,-11.9012,-19.4067,-20.9861,-16.9616,-3.3827,-11.9435,-10.1432,-10.8008,-20.6292,-14.2105
42.9688,-11.6358,-15.4163,-12.3069,-1.5750,5.6433,-5.3589,-4.3814,8.4316,-16.6770,-9.9664,-19.1002,-20.4589,-17.6686,-5.0249,-13.0646,-17.9576,-13.0617,-21.5564,-14.7642
46.8750,-8.2083,-12.5964,-9.9855,-0.0006,8.6328,3.2321,-4.7323,9.9764,-13.8170,-6.4928,-15.3908,-16.3613,-15.6802,-5.4175,-8.7247,-21.1219,-13.6074,-18.4407,-11.6942
50.7812,-4.8376,-6.7542,-4.7862,4.0193,12.3997,8.8106,-3.0512,12.9552,-9.2439,-2.4978,-9.5401,-10.5669,-12.2790,-4.8945,0.0474,-18.9416,-13.4773,-12.5891,-6.2691
54.6875,-2.2346,-0.4617,1.1345,9.0527,15.7665,9.1736,0.2996,16.2506,-4.3863,0.7717,-3.2896,-4.8279,-8.7175,-4.0442,10.0915,-13.1481,-13.5801,-5.9346,-0.2709
58.5938,-0.8091,3.7806,5.9188,13.4387,17.7481,4.5441,4.2189,18.6208,-0.4577,2.3881,1.7002,-0.2650,-5.8538,-3.5735,16.9352,-7.1618,-14.3518,-0.2606,4.6457
62.5000,-0.5554,4.6722,8.5049,15.7272,17.6270,-2.5804,7.1220,18.9629,1.8122,2.0866,4.2140,2.5020,-4.2287,-4.1815,16.7851,-4.2931,-15.8364,3.2840,7.3262
66.4062,-1.1452,2.5109,8.6353,15.0224,14.9789,-8.8300,7.5045,16.5766,2.2096,0.2827,3.7160,3.0334,-4.2696,-6.3871,8.7929,-5.8603,-17.9607,4.3097,7.2418
70.3125,-2.1234,-1.2213,6.6496,11.2476,9.8220,-11.7405,4.6517,11.4464,0.9998,-2.1621,0.5516,1.0893,-6.2403,-10.2867,-3.8727,-10.3329,-20.6534,3.1074,4.5309
74.2188,-3.0671,-4.7256,3.3337,5.2844,2.8658,-10.8137,-0.8440,4.4398,-1.0908,-4.2618,-3.9512,-2.9174,-9.8708,-15.3328,-15.1803,-14.0647,-23.6605,0.5277,0.0422
78.1250,-3.6501,-6.6852,-0.1470,-1.1404,-4.3832,-7.3164,-7.1077,-2.7656,-2.9564,-5.1856,-7.7058,-7.5032,-14.0095,-20.3096,-19.3097,-13.2823,-26.2537,-2.1707,-4.7271
82.0312,-3.6522,-6.6373,-2.4205,-5.9241,-9.9156,-3.1648,-11.6774,-8.1389,-3.4041,-4.4578,-8.5653,-10.3389,-16.7605,-23.6409,-13.9492,-6.2578,-27.2067,-3.6109,-7.9676
85.9375,-2.9853,-4.8839,-2.3412,-7.3337,-11.9346,0.2062,-12.6181,-10.0310,-1.6593,-2.0884,-5.3162,-9.2817,-16.2524,-23.9815,-1.7356,5.5473,-25.2453,-2.7651,-8.1904
89.8438,-1.7479,-2.1508,0.4385,-4.7276,-9.6808,2.2673,-9.4927,-7.8588,2.1543,1.3834,1.5500,-3.6730,-11.6652,-20.8275,11.2160,18.0424,-19.7844,0.5592,-4.9035
93.7500,-0.2439,0.7533,5.1275,1.1291,-3.8870,3.0839,-3.6162,-2.3686,6.9085,4.9904,9.8336,5.0025,-3.8364,-14.8024,18.8883,26.5266,-11.4601,5.5159,1.0698
97.6562,1.1056,3.1481,10.0306,8.3734,3.4624,2.8268,2.6152,4.6868,10.9158,7.6167,16.5490,13.6796,5.0301,-7.4162,18.8273,28.1108,-2.0269,10.5137,7.8955
101.5625,1.9437,4.5835,13.3494,14.8514,9.9912,1.6560,6.9815,11.2990,12.7406,8.3921,19.3396,19.2596,12.4422,-0.3939,13.3056,23.2385,6.4022,13.9213,13.5508
105.4688,2.1404,4.8991,14.1175,19.0062,13.9580,0.0003,8.5573,15.9780,11.9031,7.0285,17.5862,20.1904,16.8239,5.0648,7.5057,15.4507,12.3300,14.8082,16.7153
109.3750,1.8140,4.2529,12.6725,20.3820,14.8945,-1.2576,8.0185,18.1617,9.0285,3.9190,12.5501,17.0828,18.0944,8.6842,6.0018,9.4715,15.4547,13.2817,17.2241
113.2812,1.1847,3.0657,10.3313,19.5215,13.5539,-1.1440,6.9612,18.1206,5.3532,-0.0684,6.4952,12.0276,17.3184,10.9703,9.8781,8.6128,16.5159,10.2381,15.8592
117.1875,0.3790,1.8341,8.4632,17.4043,11.2843,0.6190,6.6947,16.5272,1.9350,-3.9889,1.3759,7.1708,15.7708,12.6671,16.2933,12.9048,16.5812,6.7237,13.6827
121.0938,-0.6504,0.8672,7.5794,14.8247,9.2583,3.0988,7.3144,14.0220,-0.8913,-7.1885,-2.0736,3.5589,14.1264,14.1888,20.5884,19.0158,16.3119,3.3515,11.3894
125.0000,-2.0111,0.0999,7.0548,12.0816,7.9984,4.5683,7.6771,11.0252,-3.4688,-9.4510,-4.3368,0.9738,12.3102,15.3873,19.3860,22.0734,15.7105,0.1422,9.0840
128.9062,-3.6625,-0.8657,5.6691,9.1012,7.3832,3.7669,6.2855,7.8196,-6.2784,-10.8910,-6.3336,-1.3121,9.9906,15.7682,12.6275,18.4450,14.4478,-3.1709,6.5462
132.8125,-5.3115,-2.4722,2.5905,5.8153,6.9986,1.0746,2.4639,4.7291,-9.3551,-11.7230,-8.5052,-3.5879,7.2105,14.9581,3.3884,7.9656,12.4236,-6.6586,3.6997
136.7188,-6.5478,-4.8358,-1.8736,2.4816,6.5306,-1.4953,-2.9959,2.1923,-12.1107,-12.0867,-10.4310,-5.3464,4.5936,13.0773,-4.1528,-5.6547,10.0692,-9.9207,0.8939
140.6250,-7.1505,-7.5435,-6.2695,-0.2777,5.9602,-1.7512,-8.1742,0.6598,-13.6832,-12.0274,-11.1967,-5.7447,2.9632,10.7590,-7.1261,-16.5457,8.1433,-12.2121,-1.2065
144.5312,-7.3208,-9.7859,-8.7441,-1.7276,5.5120,0.7366,-11.1263,0.4030,-13.5242,-11.5905,-10.1696,-4.4315,2.7097,8.8159,-5.3079,-19.6579,7.1968,-12.8543,-2.0118
148.4375,-7.6072,-10.7724,-8.0696,-1.3839,5.4756,3.8016,-11.0035,1.3891,-11.7695,-10.9012,-7.5676,-2.0135,3.4482,7.7874,-0.8383,-13.4344,7.1464,-11.6232,-1.3701
152.3438,-8.4987,-10.1706,-4.3204,0.7286,6.0437,3.8949,-8.4508,3.3017,-9.1223,-10.1337,-4.3987,0.2486,4.2623,7.6602,3.1894,-0.7400,7.2993,-8.8579,0.3549
156.2500,-9.9395,-8.2777,1.1737,4.0487,7.2327,-1.2612,-5.0578,5.6681,-6.3569,-9.3797,-1.8272,1.2937,4.3490,7.9191,4.2987,12.4721,6.8110,-5.2551,2.5148
160.1562,-11.1331,-5.8024,6.5154,7.6682,8.8647,-10.4761,-2.2916,7.9886,-3.8234,-8.5233,-0.4262,1.0165,3.5647,7.8614,1.6218,20.0733,5.2280,-1.5287,4.5231
164.0625,-10.8497,-3.3990,10.1393,10.6364,10.5759,-19.1674,-0.6709,9.8018,-1.3094,-7.2331,0.1763,0.3642,2.4594,6.9584,-3.8877,18.7484,2.7235,1.8437,6.0746
167.9688,-8.1160,-1.2736,11.4382,12.2598,11.8600,-21.9865,0.2829,10.7121,1.6767,-5.1034,1.0459,0.7169,1.7973,5.0551,-9.8523,9.5407,-0.1099,4.6799,7.1334
171.8750,-2.8797,0.8718,10.8613,12.3090,12.1887,-16.3416,1.3735,10.4471,5.4431,-1.8733,3.2832,3.0072,1.9558,2.3348,-13.2732,-2.7862,-2.7066,7.0077,7.7721
175.7812,3.7884,3.5278,9.5437,11.0767,11.2117,-4.3368,2.9105,8.9731,9.8212,2.3999,7.3876,7.1773,2.6652,-0.8674,-11.6044,-12.1688,-4.8521,8.9608,8.0352
179.6875,10.1234,6.9391,8.7394,9.2695,8.9614,8.3566,4.3922,6.6057,14.2319,7.3043,13.0066,12.2840,3.2684,-4.2452,-3.8797,-14.1625,-6.6634,10.7297,7.9440
183.5938,14.5079,10.8711,9.3450,7.7667,5.9363,16.0235,4.9240,4.0096,18.0338,12.1952,19.1570,17.1032,3.2748,-7.5776,8.5722,-7.8901,-8.2890,12.5570,7.6190
187.5000,16.2552,14.7604,11.6827,7.3353,2.9862,16.4045,4.0337,2.0351,20.8951,16.4184,24.7309,20.7927,2.7876,-10.6526,22.3643,3.8656,-9.6079,14.7192,7.3973
191.4062,15.8984,18.1385,15.5518,8.4266,1.0376,11.7598,2.2361,1.4496,22.9599,19.5423,28.9817,23.2248,2.5054,-13.1454,33.4154,16.3148,-10.1768,17.4673,7.8270
195.3125,14.8439,20.9970,20.4487,11.1335,0.7942,6.8494,0.8875,2.7002,24.7393,21.5030,31.7575,24.8748,3.3265,-14.5678,38.8961,25.0693,-9.4648,20.9522,9.5093
199.2188,14.6011,23.7880,25.8162,15.2890,2.5490,5.4037,1.3954,5.8191,26.8239,22.5928,33.4096,26.4199,5.8392,-14.3648,38.6508,28.0284,-7.1938,25.1661,12.8494
203.1250,16.0022,27.0113,31.1940,20.5812,6.1538,7.6768,4.3264,10.4760,29.5636,23.2728,34.4630,28.2993,9.9978,-12.1415,35.1185,25.8708,-3.5509,29.8964,17.8218
207.0312,18.7875,30.6546,36.2035,26.5598,11.0875,10.7570,9.0279,16.0886,32.8249,23.8704,35.2204,30.4196,15.1059,-7.9245,31.6678,21.1266,0.8432,34.6648,23.8390
210.9375,21.7168,33.8932,40.3917,32.5184,16.5427,11.2007,14.0096,21.8986,35.8871,24.2981,35.4904,32.0939,20.0326,-2.3134,30.3489,16.5686,5.1513,38.6634,29.7833
214.8438,23.1154,35.3085,43.0591,37.3968,21.5171,7.8680,17.7992,27.0138,37.5311,23.9664,34.5848,32.2415,23.5269,3.5934,30.5535,13.9192,8.5826,40.7844,34.2299
218.7500,21.5984,33.5480,43.2492,39.9011,24.9704,2.8136,19.6785,30.5014,36.3722,21.9974,31.6262,29.8331,24.5531,8.5234,29.5204,13.4971,10.5934,39.8611,35.8428
222.6562,16.6822,28.0541,40.0180,38.9290,26.1027,-0.3358,19.8347,31.6136,31.4125,17.6903,26.0564,24.4610,22.6247,11.4990,24.3682,14.7207,11.0050,35.1387,33.8507
226.5625,9.0538,19.4328,32.9311,34.1450,24.6944,0.8244,18.9085,30.1030,22.6352,11.0173,18.1026,16.7753,18.0718,12.2389,14.2700,16.8372,10.0483,26.7931,28.4207
230.4688,0.3928,9.2611,22.5478,26.3641,21.3193,5.6484,17.3459,26.4527,11.3293,2.8612,8.9254,8.4697,12.0862,11.2771,1.2893,19.2336,8.3135,16.1758,20.7259
234.3750,-7.2063,-0.5274,10.5715,17.4336,17.2339,10.8712,15.0638,21.8175,-0.1374,-5.1871,0.3029,1.6774,6.3896,9.7054,-10.6537,21.1789,6.5640,5.5263,12.5992
238.2812,-12.0078,-8.3168,-0.5302,9.5699,13.9005,12.8553,11.6625,17.6167,-9.1228,-11.4150,-6.0435,-2.0100,2.5608,8.6485,-17.9292,21.4423,5.4293,-2.8192,5.8737
242.1875,-13.2919,-13.2082,-8.3530,4.4586,12.3504,9.9388,6.9882,14.9421,-13.7653,-14.6690,-9.1501,-2.3541,1.3242,8.7488,-19.0196,18.4308,5.1155,-7.3572,1.7076
246.0938,-11.5935,-15.0390,-11.4642,2.6051,12.7370,3.2687,1.5825,14.0963,-13.7459,-14.7728,-9.1578,-0.5685,2.2348,9.9467,-14.9461,11.0878,5.3366,-7.9712,0.2400
250.0000,-8.3891,-14.1628,-9.9363,3.2953,14.3506,-4.2480,-3.3614,14.5248,-10.3215,-12.4756,-7.1157,1.4473,4.0149,11.6710,-8.2933,0.0699,5.5687,-5.7868,0.7520
253.9062,-5.3627,-11.2172,-5.2237,5.1561,16.0878,-9.8815,-6.5566,15.1776,-5.5963,-8.9935,-4.3683,2.3015,5.3769,13.2937,-1.7268,-11.7374,5.5011,-2.4281,2.2136
257.8125,-3.6156,-7.0033,0.5470,6.9356,17.0717,-12.4703,-7.3457,15.0754,-1.4510,-5.4294,-1.8970,1.9511,5.7993,14.5251,3.0034,-20.0621,5.3557,0.8496,3.8588
261.7188,-3.2296,-2.4312,5.4897,8.0177,17.0276,-12.4900,-6.1181,13.7460,1.2523,-2.3896,0.0091,1.5902,5.7068,15.4733,5.2304,-21.2622,5.7791,3.6108,5.4296
265.6250,-3.4070,1.5923,8.6038,8.4025,16.1999,-11.1290,-4.1402,11.3084,2.7671,0.0503,1.6123,2.6278,5.9123,16.3331,5.1003,-14.4206,7.2954,6.0426,6.9723
269.5312,-3.0833,4.3832,9.8687,8.2757,14.9304,-9.3215,-2.8871,8.2261,3.8962,2.0998,3.2814,5.4569,6.7323,16.9585,3.4311,-2.1678,9.6734,8.3386,8.3944
273.4375,-1.6369,5.7046,9.8453,7.5650,13.2548,-7.4454,-3.2632,4.9570,5.2097,3.9435,5.0814,8.9137,7.4681,16.6828,1.7936,10.4314,11.7091,10.1779,9.1672
277.3438,0.7211,5.8170,9.1091,5.8566,10.8489,-5.6341,-5.1534,1.7515,6.5815,5.5573,6.6682,10.8769,6.7191,14.5909,2.3339,18.3749,11.7042,10.7237,8.4571
281.2500,3.0905,5.2695,7.8880,2.7455,7.3706,-4.1202,-7.5361,-1.2999,7.3107,6.7142,7.5110,9.6539,3.3797,10.1166,6.8484,19.1412,8.4340,9.1614,5.6484
285.1562,4.4396,4.5341,6.0885,-1.6535,2.9302,-3.1453,-9.0690,-4.0708,6.6768,7.1149,7.2414,5.2177,-2.3732,3.5674,15.3082,13.6146,2.0010,5.3882,0.9136
289.0625,4.2221,3.7319,3.6204,-6.4413,-1.6986,-2.5447,-8.8082,-6.2531,4.5026,6.5407,5.8704,-0.5853,-8.8581,-3.8227,24.8571,5.0932,-6.0329,0.3377,-4.5886
292.9688,2.6847,2.6543,0.7426,-10.1614,-5.3354,-1.5441,-6.6710,-7.3970,1.3468,4.9714,3.7517,-5.0483,-13.6840,-10.4120,30.4354,-2.8128,-13.4015,-4.3268,-9.0904
296.8750,0.7090,1.0744,-1.8314,-11.4179,-6.9835,0.8391,-3.4147,-7.1133,-1.7633,2.6555,1.3718,-6.1967,-15.0944,-14.9529,27.2677,-7.9781,-18.3388,-6.9861,-10.9938
300.7812,-0.6888,-0.8829,-3.1484,-9.5188,-6.3645,4.9763,-0.1668,-5.2835,-3.8349,0.1270,-0.8384,-3.9181,-12.9777,-17.1705,14.0170,-10.2458,-20.4661,-6.8267,-9.6103
304.6875,-0.8897,-2.6061,-2.4201,-4.7621,-4.0297,10.0593,2.2195,-2.1270,-4.3191,-1.8744,-2.5420,0.1018,-8.8615,-17.7389,-5.4529,-10.6302,-20.7860,-4.1362,-5.4313
308.5938,0.0555,-3.2361,0.6213,1.7745,-0.9683,14.3531,3.6225,1.9129,-3.2183,-2.6185,-3.4119,3.5630,-4.8949,-17.6766,-23.2380,-10.1349,-20.8005,-0.0035,0.2123
312.5000,1.5295,-2.1515,5.5998,8.7665,2.0216,16.2114,4.6636,6.3708,-0.9250,-1.7048,-3.0808,5.0480,-2.5068,-17.5691,-31.2464,-9.1360,-21.3616,4.3278,5.8683
316.4062,2.7222,0.6134,11.6316,15.1558,4.7750,15.1532,6.2562,10.9031,2.0201,0.6591,-1.2573,4.8436,-1.6291,-17.1448,-25.6546,-7.5959,-22.0310,8.0208,10.6153
320.3125,3.0414,4.2914,17.6006,20.3657,7.7259,12.1873,8.9426,15.2906,5.0805,3.6140,2.0162,4.5849,-0.9613,-15.4874,-9.2506,-5.5885,-21.3677,10.8116,14.2783
324.2188,2.3414,7.6984,22.4163,24.1809,11.4390,9.1098,12.4023,19.3291,7.7511,5.9462,6.1426,6.0049,0.9627,-11.7317,9.9043,-3.4295,-17.9273,12.7750,17.1386
328.1250,0.8809,9.7434,25.1675,26.4744,16.0368,7.2641,15.4430,22.7146,9.5497,6.6278,10.0022,9.6342,4.6621,-5.7737,22.8131,-1.2286,-11.2978,13.9422,19.3949
332.0312,-0.9217,9.8306,25.1947,27.0276,20.9115,6.6424,16.5143,25.0240,10.0662,5.3211,12.3099,14.2849,9.2771,1.4760,24.3317,1.5944,-2.5089,14.0754,20.7666
335.9375,-2.7675,7.9583,22.1655,25.5760,24.9068,5.9340,14.4803,25.8142,9.0773,2.5447,12.1517,17.6143,13.0428,8.4446,15.6153,6.0970,6.4042,12.7433,20.5154
339.8438,-4.6237,4.5300,16.1940,22.0236,26.8502,3.4283,9.2193,24.7861,6.6411,-0.6174,9.4058,17.3893,14.2877,13.6160,2.9359,12.7570,13.3558,9.6110,17.8688
343.7500,-6.6659,0.0674,7.9522,16.6533,26.1082,-1.8838,1.7125,21.9265,3.0856,-3.1051,4.7965,12.6873,12.3009,16.1692,-6.1686,20.3272,17.0869,4.7314,12.5744
347.6562,-9.0644,-4.9758,-1.3446,10.1748,22.8598,-9.7112,-6.4150,17.5643,-1.1101,-4.4219,-0.4558,4.3813,7.5904,16.1933,-6.9680,25.7420,17.5093,-1.3450,5.2374
351.5625,-11.7621,-10.2143,-10.1678,3.5758,17.9795,-18.6234,-13.6167,12.3270,-5.4506,-4.8063,-5.1755,-5.2697,1.5147,14.4461,0.4737,25.6051,15.4638,-7.6808,-2.7649
355.4688,-14.3897,-15.2145,-17.0811,-2.1403,12.6536,-26.7083,-18.9896,7.0132,-9.4750,-4.9578,-8.6417,-13.5990,-4.3569,11.9000,12.1769,18.5291,12.1832,-13.1962,-9.7418
359.3750,-16.3882,-19.3971,-21.1582,-6.2003,7.9634,-32.2576,-22.3995,2.4135,-12.7122,-5.5145,-10.6464,-18.5209,-8.7490,9.3816,22.9771,6.6893,8.8246,-16.9242,-14.2754
363.2812,-17.2756,-22.0620,-22.2069,-8.2057,4.6189,-34.1884,-24.1870,-0.8832,-14.6337,-6.6245,-11.2404,-19.0948,-10.8739,7.4531,29.2061,-4.7868,6.2501,-18.2043,-15.6515
367.1875,-16.9018,-22.5499,-20.6946,-8.1671,2.8877,-32.2131,-24.7362,-2.6484,-14.7268,-7.8643,-10.4247,-15.5575,-10.4210,6.4593,29.8572,-10.5476,4.9850,-16.8106,-13.9794
371.0938,-15.5324,-20.4752,-17.4339,-6.4612,2.6501,-26.8952,-24.2233,-3.0719,-12.7180,-8.5218,-8.0765,-9.0080,-7.5429,6.5633,26.0288,-8.2286,5.1922,-13.0246,-10.0253
375.0000,-13.7011,-15.9346,-13.2263,-3.7393,3.4934,-19.6044,-22.6682,-2.6733,-8.8298,-8.0379,-4.1933,-1.0110,-2.9115,7.6731,19.5520,0.0357,6.5944,-7.6310,-4.9054
378.9062,-11.9112,-9.6012,-8.6534,-0.7849,4.8115,-12.2246,-20.1563,-2.0765,-3.8688,-6.3298,0.7433,6.7341,2.2805,9.3319,11.9638,8.9509,8.4403,-1.7795,0.2143
382.8125,-10.3629,-2.6363,-4.0847,1.6792,5.9317,-6.5134,-16.9745,-1.7380,0.9949,-3.8239,5.6420,12.6750,6.5528,10.7390,4.3816,13.4560,9.6631,3.3120,4.3452
386.7188,-8.8666,3.6049,0.1932,3.1986,6.2845,-3.3030,-13.5150,-1.7632,4.7075,-1.2141,9.1486,15.7214,8.6310,10.9946,-2.0307,11.9020,9.2603,6.7485,6.8377
390.6250,-6.9923,8.0135,3.8915,3.7234,5.5772,-2.0083,-10.0252,-1.9179,6.8285,0.8884,10.3571,15.5817,7.9837,9.4770,-5.7646,6.8556,6.7291,8.2820,7.4966
394.5312,-4.3604,10.1574,6.7728,3.5901,3.8825,-0.8729,-6.4463,-1.8337,7.7465,2.2265,9.4530,12.9618,5.0707,6.1274,-5.3446,3.0220,2.2984,8.3876,6.6199
398.4375,-0.9039,10.4791,8.7989,3.3269,1.5771,2.0359,-2.5206,-1.2929,8.4508,2.9715,7.7980,9.4146,1.1011,1.4477,-0.2202,3.8064,-3.2018,8.0145,4.8989
402.3438,3.0404,10.1032,10.2170,3.3707,-0.8553,7.6032,1.8715,-0.4163,9.9528,3.5992,7.2719,6.7692,-2.5929,-3.7861,8.5131,8.9583,-8.7546,8.1042,3.1572
406.2500,6.8495,10.2803,11.4649,3.8458,-3.0464,14.9714,6.4064,0.3672,12.6750,4.6441,9.1834,6.3279,-5.1964,-8.8948,18.2312,14.9104,-13.5871,9.1166,2.0108
410.1562,9.8631,11.7267,12.9120,4.5369,-4.8590,21.8517,10.3134,0.5628,16.1602,6.4397,13.4025,8.2349,-6.6786,-13.4925,25.8469,17.4707,-17.3487,10.8175,1.6204
414.0625,11.6341,14.2319,14.6043,5.0745,-6.3315,25.6913,12.7342,-0.0753,19.2838,8.9403,18.3011,11.3991,-7.5395,-17.3956,29.2670,14.8729,-19.9654,12.4513,1.6934
417.9688,12.0733,16.7871,16.2041,5.2190,-7.5035,25.0027,13.2247,-1.3419,20.8526,11.6933,21.6077,14.0732,-8.2433,-20.3629,28.3651,9.0271,-21.3376,13.2014,1.7576
421.8750,11.4430,18.1897,17.1944,5.0646,-8.2559,20.0759,12.0459,-2.6121,20.2532,13.9815,21.6909,14.8035,-8.7422,-21.9222,24.8710,4.1737,-21.1587,12.6767,1.5464
425.7812,10.2230,17.7672,17.2290,5.0297,-8.2877,12.7176,10.0287,-3.0915,17.7786,15.0958,18.4923,13.2215,-8.4225,-21.4746,21.2515,3.9886,-19.0266,11.1422,1.2442
429.6875,8.9056,15.7668,16.3930,5.6320,-7.2536,5.2689,8.0968,-2.1535,14.4575,14.6312,13.5340,10.2176,-6.5072,-18.6471,19.3008,9.1800,-14.7828,9.3639,1.4120
433.5938,7.7959,13.1589,15.1880,7.1786,-4.9786,-0.4573,6.7767,0.4006,11.4952,12.6703,9.0170,7.4038,-2.6443,-13.6544,19.3272,17.1197,-8.8327,8.1578,2.6195
437.5000,6.8868,10.9760,14.2280,9.5450,-1.6148,-3.7405,6.0219,4.2642,9.6491,9.7507,6.5895,6.1877,2.7046,-7.3982,20.4096,23.5571,-2.1917,7.9041,5.0070
441.4062,5.8678,9.6145,13.8239,12.1585,2.3482,-4.8407,5.4298,8.7304,8.8744,6.6153,6.5323,6.9970,8.3133,-1.2015,21.4488,25.1046,3.8087,8.2938,8.0546
445.3125,4.2770,8.5513,13.7033,14.1773,6.2158,-4.4675,4.6402,12.9054,8.3967,3.8598,7.7824,9.0642,12.6356,3.6794,22.1707,20.8838,7.9986,8.4370,10.7088
449.2188,1.7440,6.6531,13.0370,14.7681,9.2823,-3.2715,3.5834,15.9386,7.1258,1.6584,8.6497,10.8270,14.3797,6.4810,23.2500,12.5359,9.7578,7.2598,11.7941
453.1250,-1.7896,2.8774,10.7738,13.3593,11.0012,-1.6715,2.4033,17.2176,4.1637,-0.2849,7.6912,10.6562,12.9154,7.0741,25.3647,2.9717,9.1163,3.9801,10.4797
457.0312,-5.9874,-3.0704,6.1351,9.8038,11.0918,-0.0299,1.1633,16.5087,-0.8330,-2.5283,4.2298,7.5140,8.3740,5.8085,27.8546,-5.1035,6.5692,-1.5538,6.5736
460.9375,-10.2230,-10.5034,-0.9431,4.4421,9.5926,1.0723,-0.3598,14.0333,-7.5437,-5.5313,-1.6228,1.2901,1.5026,3.2350,28.1229,-10.0608,2.7769,-8.7771,0.5538
464.8438,-13.8157,-18.0361,-9.6056,-1.9264,6.8797,0.7770,-2.5630,10.4475,-15.0884,-9.3305,-9.2069,-7.1993,-6.5657,-0.0806,22.5846,-11.4745,-1.6407,-16.5623,-6.5987
468.7500,-16.2647,-24.1725,-18.2100,-8.1695,3.6315,-1.7215,-5.6239,6.6879,-22.2416,-13.4181,-17.4947,-16.4197,-14.5079,-3.5735,8.9289,-9.8913,-6.1307,-23.5229,-13.6410
472.6562,-17.3581,-27.8510,-24.7880,-13.0698,0.6974,-6.5591,-9.1339,3.6892,-27.6884,-16.8926,-25.1141,-24.4403,-20.9771,-6.6189,-11.6144,-6.6003,-10.1272,-28.3668,-19.3119
476.5625,-17.1274,-28.6937,-27.7087,-15.6722,-1.1444,-12.6523,-12.0928,2.0584,-30.3075,-18.8129,-30.4216,-29.3697,-24.8196,-8.5613,-33.6458,-3.3900,-13.0249,-30.2225,-22.5840
480.4688,-15.7183,-26.9251,-26.3099,-15.6244,-1.4756,-17.6656,-13.3609,1.8492,-29.4753,-18.5923,-31.8839,-29.9163,-25.3693,-8.9115,-49.4655,-2.0468,-14.3095,-28.8745,-22.9354
484.3750,-13.2941,-23.1060,-21.2169,-13.3430,-0.4320,-18.7630,-12.3193,2.5657,-25.3160,-16.2531,-28.7624,-25.9455,-22.7280,-7.6191,-52.7618,-3.5529,-13.8022,-24.8351,-20.5706
488.2812,-10.0350,-17.8767,-14.1471,-9.8757,1.3274,-13.9914,-9.3068,3.4124,-18.7645,-12.4227,-21.7233,-18.7426,-17.8501,-5.2182,-42.1274,-7.4024,-11.8572,-19.2000,-16.4458
492.1875,-6.2029,-11.8242,-7.2259,-6.4786,2.8989,-3.6559,-5.5201,3.6702,-11.3348,-8.0788,-12.8629,-10.7008,-12.3012,-2.6986,-22.2378,-11.6513,-9.3452,-13.3014,-11.9822
496.0938,-2.1815,-5.4805,-2.1072,-4.0999,3.5349,9.1684,-2.4164,2.9993,-4.6295,-4.1604,-4.9312,-4.4247,-7.7350,-1.1266,-1.7585,-13.9470,-7.3782,-8.2786,-8.5229
500.0000,1.5730,0.6178,0.6542,-3.0405,2.9544,19.5640,-0.9780,1.5140,0.2091,-1.2249,-0.0807,-1.6207,-5.3122,-1.2128,11.0154,-13.0313,-6.8915,-4.7513,-6.7825
503.9062,4.6581,5.8919,1.6412,-2.9642,1.3993,22.9547,-1.2843,-0.3799,2.8388,0.6990,1.1431,-2.3672,-5.3413,-3.0564,12.3495,-9.6929,-8.2834,-2.7425,-6.5990
507.8125,6.8470,9.7681,2.0215,-3.2199,-0.5705,17.5276,-2.6098,-2.2464,3.6860,2.0136,-0.0594,-5.1952,-7.2972,-6.1781,4.6865,-6.3698,-11.2817,-1.8564,-7.1405
511.7188,8.1360,11.8329,2.7723,-3.2422,-2.3890,5.5162,-3.9248,-3.7956,3.6015,3.2856,-1.5598,-7.9385,-10.1539,-9.7739,-5.1906,-5.5063,-15.0708,-1.5638,-7.4340
515.6250,8.7093,12.0609,4.1885,-2.7713,-3.7014,-7.5687,-4.4420,-4.8817,3.4369,4.9566,-1.5441,-8.8338,-12.8090,-13.0139,-10.2641,-7.7284,-18.5874,-1.3984,-6.8733
519.5312,8.8670,10.9967,5.9666,-1.7870,-4.3794,-15.5473,-3.8910,-5.3821,3.7840,7.1680,0.6040,-7.2237,-14.3734,-15.2429,-7.1739,-11.1513,-20.8368,-0.9690,-5.3895
523.4375,8.9646,9.7304,7.7286,-0.2820,-4.3914,-14.6775,-2.4409,-5.1149,4.9509,9.7471,4.2632,-3.5216,-14.2568,-16.0534,2.3237,-12.4177,-21.1261,0.1298,-3.2288
527.3438,9.3503,9.5521,9.5177,1.8862,-3.6859,-5.5278,-0.4393,-3.9080,7.0554,12.3091,8.2542,1.3717,-12.1448,-15.2993,12.9541,-8.8593,-19.1912,2.3242,-0.5754
531.2500,10.2587,11.3486,11.8248,4.9027,-2.2096,7.4556,1.7906,-1.7875,10.0480,14.3883,11.6496,6.6710,-8.0178,-13.1164,19.3479,-0.3496,-15.2436,5.8685,2.6369
535.1562,11.6577,15.0250,15.0875,8.7225,-0.0393,18.4133,3.9817,0.8849,13.6009,15.5424,14.1375,11.8850,-2.2605,-9.9360,19.1023,10.4097,-9.9486,10.5340,6.5562
539.0625,13.1381,19.3302,19.0622,12.8572,2.5177,23.1123,5.8620,3.4891,16.9927,15.4338,15.7924,16.5558,4.2491,-6.4141,13.7458,19.3572,-4.3104,15.4364,11.0346
542.9688,13.9831,22.3193,22.6266,16.4477,4.9924,20.8350,7.1625,5.4522,19.2034,13.9173,16.5970,19.9464,10.2434,-3.2323,7.3092,23.3027,0.5654,19.2291,15.3884
546.8750,13.4807,22.3103,24.2827,18.6384,6.9927,14.1846,7.7593,6.5989,19.3018,11.1292,16.2077,21.1058,14.4330,-0.8341,3.6387,21.4645,3.7998,20.6609,18.5616
550.7812,11.3557,18.8310,23.0813,19.0253,8.4449,7.1743,7.8407,7.2852,16.9498,7.5143,14.1868,19.3824,15.9968,0.7456,4.1657,15.4324,5.0364,19.2035,19.6402
554.6875,8.0476,12.9601,19.3156,17.8595,9.6326,2.9191,7.8984,8.1781,12.6764,3.7180,10.4785,15.0083,14.9118,1.8217,7.3523,7.8078,4.5476,15.3455,18.3681
558.5938,4.5850,6.7777,14.4272,15.8483,10.9555,2.2873,8.4458,9.7910,7.6649,0.3425,5.6802,9.2241,11.8964,2.7802,9.9163,0.6334,3.0647,10.3235,15.2785
562.5000,2.0447,2.1981,10.1210,13.6833,12.5523,4.0712,9.5952,12.0835,3.1204,-2.3173,0.8231,3.7171,7.9781,3.7571,8.9450,-5.2988,1.4013,5.4331,11.3233
566.4062,0.8917,-0.1122,7.2754,11.6262,14.0648,6.2288,10.7977,14.4140,-0.3901,-4.3880,-3.2035,-0.3196,3.9552,4.5041,3.6374,-9.9818,0.0747,1.3536,7.2624
570.3125,0.6367,-1.0386,5.4195,9.4404,14.7527,7.2038,11.0024,15.9029,-3.1733,-6.2809,-6.1511,-2.8564,0.1015,4.5526,-4.2363,-13.2228,-0.8556,-2.0781,3.2598
574.2188,0.0882,-2.3403,3.1653,6.6974,13.9259,6.5212,9.2252,15.9683,-6.0446,-8.3746,-8.4516,-4.9252,-3.7138,3.5732,-11.3253,-14.1599,-1.6501,-5.5205,-1.0146
578.1250,-1.9087,-5.4328,-0.7055,3.2108,11.4221,4.5216,5.2091,14.6718,-9.6191,-10.7295,-10.7841,-7.7899,-7.6168,1.6755,-14.5613,-11.7748,-2.5718,-9.4832,-5.8680
582.0312,-5.7031,-10.4374,-6.2747,-0.7342,7.7968,1.7006,-0.2578,12.6372,-13.7723,-13.0451,-13.5173,-11.9671,-11.3733,-0.5785,-12.9029,-6.0195,-3.6269,-13.8533,-11.0610
585.9375,-10.5420,-16.1103,-12.3225,-4.5108,4.0791,-1.7331,-5.6193,10.6170,-17.6633,-14.8942,-16.4468,-16.7888,-14.3780,-2.4693,-8.0253,1.4082,-4.5557,-17.9094,-15.7008
589.8438,-14.9436,-20.6509,-17.0554,-7.5132,1.2430,-5.7811,-9.3006,9.0277,-20.2869,-16.0474,-18.9762,-20.7958,-16.0107,-3.5277,-3.5213,7.4293,-5.0710,-20.7664,-18.6598
593.7500,-17.4905,-22.7888,-19.1750,-9.4572,-0.2606,-10.2287,-10.4896,7.7855,-21.1223,-16.6152,-20.5327,-22.6544,-16.0860,-3.7722,-2.9456,9.0578,-5.1499,-21.8888,-19.2343
597.6562,-17.5233,-22.3944,-18.5254,-10.3978,-0.6141,-14.2992,-9.4793,6.5337,-20.3814,-16.8662,-20.8527,-21.9330,-15.0401,-3.6253,-7.7149,5.1156,-5.1378,-21.2975,-17.5758
601.5625,-15.3190,-20.2493,-15.9248,-10.5000,-0.3556,-16.7312,-7.3813,5.0506,-18.6850,-16.8506,-19.9468,-19.2323,-13.6904,-3.5884,-16.0812,-2.9366,-5.5620,-19.3761,-14.5964
605.4688,-11.7271,-17.2501,-12.4195,-9.8056,0.0500,-16.3041,-5.4197,3.4940,-16.4634,-16.1542,-17.8652,-15.6637,-12.7284,-3.9256,-23.8979,-11.6439,-6.7791,-16.5064,-11.4309
609.3750,-7.6054,-13.7152,-8.6042,-8.2280,0.4635,-12.5189,-4.2666,2.2845,-13.5991,-14.0478,-14.5630,-12.1328,-12.3130,-4.5831,-26.8698,-17.3344,-8.7158,-12.8733,-8.8371
613.2812,-3.4749,-9.3334,-4.5169,-5.7873,0.9925,-6.0260,-3.8117,1.7317,-9.6268,-10.0073,-10.0323,-8.9465,-12.0565,-5.3742,-23.0002,-17.9759,-10.9036,-8.5865,-6.9241
617.1875,0.4364,-3.7460,-0.0842,-2.8476,1.6994,1.4820,-3.4367,1.7298,-4.3318,-4.2552,-4.5717,-5.9332,-11.3946,-6.2477,-13.6977,-14.0465,-12.7886,-3.9502,-5.3228
621.0938,3.9443,2.7674,4.3844,-0.0766,2.3895,7.9213,-2.5314,1.8083,1.7730,2.1077,1.1229,-2.8389,-10.0387,-7.3962,-2.7737,-7.9959,-14.0834,0.4480,-3.5879
625.0000,6.7817,9.1206,8.1781,1.9375,2.6955,11.7200,-0.8693,1.5379,7.5495,7.5634,6.2394,0.4011,-8.1564,-9.0942,6.0616,-2.7342,-14.8927,4.0104,-1.4950
628.9062,8.7548,13.9666,10.7173,3.1666,2.4149,12.5194,1.3753,0.9910,11.9141,10.9866,10.3478,3.7184,-6.1487,-11.3839,11.5196,-0.0958,-15.5144,6.5995,0.9541
632.8125,10.0152,16.5662,12.1764,4.3205,1.8188,11.2762,3.8874,0.8696,14.5932,12.2718,13.7025,7.1385,-4.2307,-13.8643,15.2281,-0.1162,-16.0738,8.7949,3.7273
636.7188,11.1069,17.2899,13.5795,6.4874,1.6317,9.6635,6.4731,2.1327,16.3294,12.3265,17.0146,10.8526,-2.1838,-15.7827,19.9990,-1.3747,-16.2858,11.6164,6.9038
640.6250,12.6071,17.3209,16.1407,10.3901,2.6153,9.0740,9.0890,5.3272,18.2959,12.4049,20.7715,14.9656,0.4793,-16.4048,27.0946,-2.0112,-15.5541,15.7848,10.5804
644.5312,14.5602,17.7404,20.2573,15.7366,5.0040,9.8146,11.6430,10.0697,21.0958,13.2265,24.5951,19.1099,4.0395,-15.4252,34.5554,-0.7309,-13.3566,21.0049,14.6087
648.4375,16.1797,18.6827,24.9364,21.1513,8.1972,11.0117,13.7836,15.0603,24.1047,14.4907,27.1997,22.3254,8.1637,-13.1300,38.0107,2.7314,-9.6366,25.8341,18.4189
652.3438,16.1857,19.2332,28.1969,24.8202,10.9759,11.3198,14.9187,18.6688,25.7221,15.1338,27.1166,23.4608,11.9325,-10.1882,33.6369,7.7766,-4.9014,28.3580,21.1580
656.2500,13.6803,18.1940,28.2879,25.4975,12.1676,9.9595,14.5108,19.7501,24.4513,14.1511,23.7704,21.9335,14.3560,-7.2044,21.2852,13.4415,0.0604,27.3256,22.1261
660.1562,8.9846,15.1701,24.9184,23.2513,11.3596,7.3372,12.4516,18.1962,20.0833,11.4028,18.1535,18.3265,15.0463,-4.3404,5.4895,18.8399,4.6407,23.0255,21.2365
664.0625,3.7705,11.1366,19.6074,19.4603,9.2041,4.7563,9.2230,14.9103,14.1159,7.8305,12.5498,14.3266,14.5552,-1.2688,-6.5994,23.3279,8.7087,17.2894,19.1592
667.9688,0.2455,7.9877,14.8454,16.0463,7.1029,3.3959,5.6950,11.2595,9.0329,4.9268,9.3797,11.9216,14.0823,2.5016,-9.2122,26.4527,12.5152,12.5524,17.0038
671.8750,-0.1695,7.3086,12.5915,14.4102,6.4524,3.3381,2.6838,8.3791,6.8550,3.8169,9.8527,12.3052,14.7000,7.1458,-1.3657,27.8869,16.2743,10.5161,15.7152
675.7812,2.1959,9.2115,13.1137,14.7234,7.9018,3.4578,0.5751,6.7425,7.9095,4.5716,13.2725,15.1716,16.5961,12.2180,12.5343,27.4867,19.7501,11.2338,15.5640
679.6875,5.3582,12.0893,14.9513,15.9836,11.0565,2.3603,-0.7319,6.1920,10.6381,6.1932,17.4267,18.8539,18.8604,16.7416,25.2757,25.4271,22.1901,13.1730,16.0563
683.5938,6.8487,13.5307,15.9955,16.7561,14.7697,-0.3068,-1.5545,6.3085,12.5749,7.2489,19.8016,21.2204,19.9883,19.6616,30.9331,22.2383,22.7041,14.1940,16.3083
687.5000,5.2283,11.8318,14.9203,16.1039,17.8019,-3.2489,-2.0784,6.8084,11.8509,6.7077,18.8698,20.7758,18.8004,20.3966,27.9053,18.6155,20.8564,12.8221,15.6255
691.4062,0.9637,7.1078,11.9841,14.1284,19.4375,-4.2634,-2.2256,7.7012,8.2549,4.4488,14.7176,17.3324,15.1940,19.1607,19.1658,15.0667,17.0652,9.0439,13.9129
695.3125,-3.9054,1.2555,8.7005,11.8207,19.7197,-1.9359,-1.8414,9.1520,3.2169,1.1842,8.7595,11.9408,10.2491,16.8630,9.8942,11.6363,12.5134,4.1990,11.6755
699.2188,-7.0713,-3.2168,6.6759,10.3670,19.2364,2.9394,-1.0194,11.2048,-1.1880,-2.0568,2.8529,6.2373,5.6301,14.6431,4.2576,7.9417,8.5932,0.1112,9.6481
703.1250,-7.3653,-4.7287,6.4618,10.3680,18.6595,7.4015,-0.2541,13.5941,-3.5045,-4.4872,-1.5908,1.6525,2.6660,13.2994,3.3913,3.5545,6.2128,-1.9649,8.3226
707.0312,-5.3642,-3.5455,7.2004,11.4506,18.3481,8.0181,-0.2312,15.7765,-3.6252,-5.8271,-4.0482,-1.1090,1.6685,12.9203,5.5365,-1.5089,5.3750,-1.9629,7.6683
710.9375,-2.8654,-1.5178,7.2510,12.4817,18.2265,3.1804,-1.3659,17.1513,-2.6129,-6.2089,-4.8046,-2.1691,1.8688,12.8982,7.7632,-6.5535,5.2517,-0.8963,7.1913
714.8438,-1.6567,-0.8598,5.3160,12.2307,17.9437,-5.6029,-3.4280,17.3210,-1.8660,-5.9112,-4.5927,-2.2577,1.9527,12.2944,7.8408,-10.4514,4.6709,-0.1778,6.2582
718.7500,-2.4167,-2.7738,1.3016,10.0845,17.1552,-14.3983,-5.5652,16.2444,-2.2425,-5.1669,-4.2330,-2.3549,0.8327,10.3491,5.0929,-12.2577,2.7082,-0.8082,4.4739
722.6562,-4.4153,-6.7614,-3.5970,6.4204,15.7353,-19.1309,-6.7551,14.2195,-3.6663,-4.1477,-4.3931,-3.3102,-1.7936,6.8719,0.0945,-11.7934,-0.9226,-2.8730,1.9132
726.5625,-6.0926,-10.9616,-7.5505,2.4534,13.8188,-17.9426,-6.3995,11.7372,-5.3284,-3.0349,-5.4099,-5.4842,-5.3549,2.3402,-6.0744,-9.7636,-5.8162,-5.5427,-0.8801
730.4688,-6.0369,-13.2056,-9.0098,-0.3336,11.6972,-12.0688,-4.6533,9.2988,-6.2064,-2.0188,-7.1074,-8.4819,-8.7484,-2.3135,-12.2248,-7.2808,-11.0842,-7.4890,-3.0898
734.3750,-3.7141,-12.0958,-7.3363,-0.8672,9.6670,-4.7514,-2.2697,7.2766,-5.5128,-1.1654,-8.6767,-11.1224,-10.8573,-6.0978,-16.9322,-5.0953,-15.6636,-7.4559,-3.9140
738.2812,0.4234,-7.5255,-2.8903,1.0694,7.9196,0.9241,-0.0837,5.8567,-2.8686,-0.2539,-8.7992,-11.7858,-10.9709,-8.3506,-18.3911,-3.0847,-18.6058,-4.7306,-2.8404
742.1875,5.3589,-0.4881,3.3113,4.8066,6.5063,3.7320,1.4908,5.0569,1.7278,1.2322,-6.1243,-9.1039,-8.9671,-8.9628,-14.8487,-0.4157,-19.3160,0.6320,0.1637
746.0938,10.0806,7.5350,10.0597,9.1470,5.3583,4.5167,2.6093,4.7890,7.9496,3.8695,0.0259,-2.7118,-5.2724,-8.3715,-5.6485,3.6807,-17.7446,7.8470,4.5951
750.0000,13.9405,15.1706,16.2963,12.8952,4.3335,5.0616,3.7287,4.9307,15.1145,7.9083,9.0923,6.3691,-0.6879,-7.3532,7.8020,9.0630,-14.4768,15.6405,9.5207
753.9062,16.6974,21.4542,21.2718,15.2950,3.2737,6.6848,5.1691,5.3731,22.1733,12.9723,19.2433,16.0113,3.8434,-6.7164,22.0438,14.4256,-10.6121,22.6047,13.8428
757.8125,18.3776,25.8413,24.5972,16.1932,2.0661,9.6090,6.8538,6.0260,27.8805,18.0626,28.0035,23.8551,7.4941,-7.0030,32.9040,17.9373,-7.3747,27.5765,16.6528
761.7188,19.1317,28.1119,26.2486,15.9178,0.6976,13.3211,8.4049,6.7882,31.1883,21.9034,33.2786,28.3283,9.7984,-8.2951,37.5506,18.4237,-5.5598,29.9401,17.5469
765.6250,19.1554,28.3138,26.5148,14.9986,-0.7273,17.2805,9.4822,7.5136,31.6859,23.4605,34.2427,29.2501,10.8116,-10.1841,36.0125,16.2885,-5.0937,29.7604,16.7567
769.5312,18.6167,26.7475,25.8390,13.9090,-2.0258,21.1663,10.0646,8.0163,29.7919,22.3545,31.6001,27.6963,11.0824,-11.9112,31.1128,13.4474,-5.0102,27.6920,15.0200
773.4375,17.5352,23.8960,24.5846,12.9435,-3.0175,24.4691,10.4400,8.1308,26.5182,18.9612,27.0842,25.2564,11.4008,-12.6386,26.7309,12.1821,-3.9434,24.6888,13.2404
777.3438,15.6742,20.2560,22.8542,12.2355,-3.5955,26.0026,10.9117,7.8051,22.9082,14.1735,22.4987,23.1668,12.4053,-11.7532,25.4095,13.6010,-0.9151,21.6256,12.0987
781.2500,12.5875,16.1528,20.5052,11.8312,-3.7276,24.0996,11.4624,7.1675,19.4938,8.9859,18.8542,21.8272,14.2451,-9.0874,26.8092,16.7549,4.0365,18.9962,11.8105
785.1562,7.8998,11.6906,17.3801,11.7331,-3.3798,17.6511,11.6474,6.5114,16.1256,4.1313,16.0644,20.9059,16.4940,-4.9596,28.0258,19.1103,9.7903,16.8166,12.1377
789.0625,1.7080,6.9015,13.5936,11.8862,-2.4196,7.2817,10.8185,6.1903,12.2806,-0.0662,13.3078,19.8312,18.3778,-0.0198,25.6196,18.1923,14.7117,14.7620,12.6151
792.9688,-5.1721,1.9881,9.6441,12.1499,-0.5973,-4.3798,8.5376,6.4715,7.6235,-3.6037,9.7639,18.2567,19.1858,5.0196,18.0941,13.3739,17.5283,12.4436,12.8344
796.8750,-11.3591,-2.5564,6.2263,12.3184,2.3347,-13.8041,4.9138,7.4288,2.4202,-6.5883,5.2428,16.1890,18.6246,9.6257,7.2229,6.5927,17.9758,9.6664,12.6136
800.7812,-15.4611,-6.0942,3.8525,12.2080,6.4083,-18.4412,0.6604,8.9332,-2.4867,-9.0542,0.3406,13.7832,16.9149,13.5375,-2.7029,1.4130,16.8259,6.5357,11.9792
804.6875,-16.7497,-8.1842,2.5568,11.7662,11.2653,-18.1010,-3.1503,10.7381,-6.1201,-10.9108,-3.9179,11.0798,14.6043,16.6872,-7.3512,0.9290,15.3137,3.3814,11.0269
808.5938,-15.5411,-8.8690,1.9169,11.1225,16.1681,-14.8553,-5.5000,12.5985,-7.9191,-12.0233,-6.6761,7.9672,12.2520,19.0384,-5.0698,5.8062,14.3636,0.5781,9.8042
812.5000,-13.0377,-8.6715,1.3893,10.5302,20.2384,-11.5665,-5.8248,14.3459,-8.0309,-12.3457,-7.6958,4.4192,10.1950,20.4796,1.8697,13.7250,14.1203,-1.6170,8.3177
816.4062,-10.7175,-8.2803,0.7012,10.2177,22.8154,-10.1550,-4.2701,15.8752,-7.1822,-12.0080,-7.4135,0.7758,8.5084,20.8579,8.3986,20.6116,14.0365,-3.1305,6.6459
820.3125,-9.6440,-8.1553,-0.0196,10.2265,23.7235,-10.8308,-1.7290,17.0643,-6.2647,-11.3008,-6.6374,-2.2528,7.1048,20.1177,9.5997,22.8984,13.3751,-4.0516,5.0231
824.2188,-10.0948,-8.3569,-0.4976,10.3271,23.2782,-12.6639,0.3732,17.6955,-5.9408,-10.5719,-6.1314,-3.9806,5.8265,18.4176,3.7413,19.4062,11.7120,-4.5915,3.7648
828.1250,-11.6677,-8.7186,-0.7446,10.0629,22.0184,-14.7659,0.5494,17.4535,-6.5025,-10.0994,-6.3514,-4.3142,4.4376,16.1037,-6.5091,11.7275,9.0876,-5.0674,3.0305
832.0312,-13.6977,-9.1848,-1.2947,8.9163,20.3387,-16.9362,-2.1208,16.0315,-7.9764,-10.0074,-7.4316,-4.0525,2.5667,13.5314,-15.5571,2.9955,5.7732,-5.8834,2.5807
835.9375,-15.6451,-9.9735,-2.9668,6.5376,18.2656,-19.2287,-7.4452,13.3077,-10.2688,-10.2468,-9.3050,-4.5847,-0.2453,10.8570,-18.2529,-4.0403,1.9289,-7.4266,1.7524
839.8438,-17.2056,-11.3619,-6.2464,2.9485,15.5298,-20.9887,-13.9821,9.4950,-13.1543,-10.6237,-11.7670,-7.0493,-4.3013,7.9653,-13.1146,-8.3508,-2.4990,-9.8464,-0.2367
843.7500,-18.1578,-13.2350,-10.7142,-1.3687,11.8795,-20.5053,-19.5241,5.1620,-16.1105,-10.8382,-14.3964,-11.4500,-9.4028,4.6078,-3.3451,-10.6140,-7.5340,-12.8071,-3.7781
847.6562,-18.1807,-14.8143,-14.9997,-5.5635,7.4064,-15.9562,-22.0890,1.0685,-18.2201,-10.5301,-16.4502,-16.3541,-14.6690,0.6669,5.0919,-12.0937,-12.8018,-15.4155,-8.4743
851.5625,-16.8814,-14.9204,-17.4117,-8.6964,2.6433,-7.1289,-20.9419,-2.1346,-18.3823,-9.3529,-16.9488,-19.4988,-18.7597,-3.6511,7.2046,-13.3876,-17.4193,-16.4893,-13.1636
855.4688,-14.0657,-12.7264,-16.9118,-10.1190,-1.6534,3.5001,-17.0368,-4.2028,-15.8531,-7.1007,-15.0650,-19.0467,-20.4964,-7.8555,2.1692,-14.0075,-20.3466,-15.1324,-16.4351
859.3750,-10.0418,-8.5033,-13.7961,-9.7832,-4.8969,11.5181,-12.5289,-5.4192,-10.8195,-3.8585,-10.6610,-14.7480,-19.5574,-11.4362,-6.0767,-13.0251,-21.0329,-11.3264,-17.3708
863.2812,-5.6678,-3.7383,-9.5761,-8.2949,-6.9778,13.0313,-9.5580,-6.4362,-4.5653,-0.0803,-4.6059,-8.2372,-16.7832,-14.1719,-11.2669,-10.1648,-19.8933,-6.1334,-16.0513
867.1875,-2.0173,-0.3692,-6.0631,-6.6288,-8.2794,7.2866,-9.0029,-7.8897,1.0218,3.5051,1.4537,-2.1858,-13.8049,-16.2527,-8.7367,-6.3845,-18.2065,-1.2720,-13.4770
871.0938,0.1793,0.4756,-4.2138,-5.6082,-9.3970,-2.4487,-9.9863,-9.9838,4.4237,6.1821,5.8696,1.2378,-12.1358,-18.1130,1.6502,-3.3953,-17.4039,1.7886,-10.9175
875.0000,0.9605,-0.6130,-3.5002,-5.4263,-10.7528,-10.5763,-10.4722,-12.2987,5.3776,7.6077,7.9064,1.6585,-12.2560,-20.0826,15.4192,-2.4141,-18.1702,2.7031,-9.0943
878.9062,1.1178,-1.4848,-2.2596,-5.5040,-12.3508,-12.4678,-8.5941,-13.9613,5.0752,8.0246,8.2031,0.6983,-13.2820,-22.1021,26.2313,-3.0643,-19.9558,2.5155,-7.7392
882.8125,1.7063,0.2951,1.1672,-4.8098,-13.8011,-7.2264,-3.8645,-14.1065,5.4650,8.1514,8.4124,0.9215,-13.4739,-23.7046,29.6482,-3.2925,-21.2577,3.0675,-5.8336
886.7188,3.3678,5.8135,7.2382,-2.4844,-14.5518,1.9200,2.5140,-12.3611,8.0314,8.7566,10.1700,4.1662,-11.2944,-24.2733,25.5442,-0.4784,-20.5147,5.8497,-2.3831
890.6250,5.8888,13.9007,14.7517,1.5975,-14.1476,9.8034,8.4193,-9.0547,12.8056,10.1483,14.0184,10.3224,-6.3605,-23.3863,17.7924,6.9065,-17.0432,10.9937,2.7933
894.5312,8.2799,21.6203,21.4500,6.6808,-12.3652,12.5458,12.1172,-5.0233,18.2535,11.9054,18.9872,17.3409,0.3073,-21.0103,11.6495,18.1188,-11.4181,17.0625,8.7952
898.4375,9.3345,25.9146,25.3077,11.4973,-9.2079,9.6825,13.2227,-1.1389,22.1366,13.0567,23.1216,22.4603,6.8742,-17.4347,10.6373,30.1752,-5.0839,21.8010,14.0809
902.3438,8.3223,25.3686,25.6722,14.9188,-4.8555,3.9284,12.6976,2.1243,22.8050,12.6323,24.6260,23.8409,11.7073,-13.0362,14.8005,39.0909,0.4991,23.3888,17.3197
906.2500,5.3986,20.9464,23.5245,16.4872,0.3373,-0.9735,11.9577,4.8074,20.1011,10.2528,22.8740,21.5475,14.1573,-8.0852,21.1293,41.6480,4.5900,21.4054,18.0908
910.1562,1.4933,15.2316,20.7177,16.5113,5.8056,-2.6536,11.7706,7.2245,15.3141,6.3751,18.6428,17.2893,14.6488,-2.7365,25.5266,36.7945,7.3341,16.9181,16.9889
914.0625,-2.2263,10.7027,18.7247,15.7199,10.8121,-1.1696,11.7368,9.5761,10.2650,2.0295,13.4744,13.1727,14.1255,2.8241,24.9481,26.0572,9.3523,11.6965,15.1201
917.9688,-4.9759,8.2102,17.7367,14.7568,14.6514,1.7039,10.6900,11.7334,6.1724,-1.7783,8.6653,10.3706,13.3265,8.2490,18.5954,12.8708,11.1345,7.1285,13.3822
921.8750,-6.6868,6.6491,16.6917,13.8758,16.9735,4.0589,7.6820,13.3658,3.0598,-4.6029,4.6055,8.6050,12.4221,13.0704,7.8887,1.1717,12.7060,3.5693,12.0333
925.7812,-7.8842,3.9836,14.1737,13.0081,18.0324,4.9717,2.8162,14.3000,0.0557,-6.6839,0.8811,6.7123,11.2058,16.9111,-4.3397,-6.1726,13.7578,0.5005,10.7975
929.6875,-9.2338,-1.1436,9.5448,12.0766,18.6404,4.4494,-2.6694,14.8028,-3.6953,-8.6018,-3.0341,3.7788,9.5902,19.6981,-14.8517,-8.4987,14.0549,-2.7203,9.3445
933.5938,-11.0655,-8.3343,3.5423,11.2530,19.7741,2.5974,-7.1049,15.5167,-8.2017,-10.7398,-7.0945,-0.0351,7.9393,21.6868,-20.9295,-7.5632,13.7357,-6.1361,7.7223
937.5000,-13.1710,-15.5907,-2.0484,10.9220,22.0144,-0.9731,-9.3583,17.0418,-12.4723,-12.9486,-10.5543,-3.5741,6.9333,23.2489,-21.2020,-6.6171,13.2460,-9.0374,6.3989
941.4062,-14.9660,-20.5293,-5.4151,11.3716,25.1530,-6.8036,-9.3961,19.4436,-15.1329,-14.6474,-12.4775,-5.5538,7.0653,24.5725,-16.2696,-8.5861,12.9749,-10.4635,5.8975
945.3125,-15.8780,-21.7836,-5.7694,12.4572,28.2259,-14.5579,-8.0925,22.0545,-15.3563,-15.2678,-12.4656,-5.5209,8.1727,25.5052,-8.7602,-14.1610,12.9105,-9.9496,6.3281
949.2188,-15.6877,-19.6773,-3.7783,13.5225,29.9739,-22.2911,-6.4966,23.7545,-13.4470,-14.6939,-11.0228,-4.1816,9.3929,25.6665,-2.4364,-20.9184,12.6070,-7.9508,7.1879
953.1250,-14.6101,-15.8129,-1.1508,13.6737,29.4639,-26.8957,-5.1339,23.5778,-10.6834,-13.3633,-9.2742,-2.8927,9.6031,24.7366,-0.4655,-24.2897,11.4932,-5.6386,7.5847
957.0312,-13.0859,-11.9757,0.3234,12.2441,26.5129,-25.7180,-3.8376,21.2622,-8.5427,-11.9488,-8.2559,-2.7477,8.0437,22.6853,-3.6745,-20.2110,9.2747,-4.2315,6.7258
960.9375,-11.4443,-9.1420,-0.3001,9.1596,21.7006,-18.3549,-2.1726,17.3896,-7.8328,-10.8543,-8.3016,-3.9570,4.6981,19.7512,-9.9301,-8.0924,6.1161,-4.3317,4.3382
964.8438,-9.6723,-7.1936,-2.7208,4.9935,16.0329,-7.3451,-0.0605,13.0466,-8.2791,-9.8912,-8.9438,-5.9327,0.2088,16.1975,-15.2641,7.8319,2.4821,-5.6832,0.7746
968.7500,-7.4452,-5.3721,-5.6515,0.7155,10.5103,2.8800,1.9203,9.2488,-8.7755,-8.3747,-9.3309,-7.8968,-4.5416,12.0703,-16.2324,20.0583,-1.2010,-7.4303,-3.1964
972.6562,-4.3954,-3.0054,-7.5043,-2.6859,5.8543,8.2769,2.8199,6.5014,-8.0735,-5.5809,-8.7872,-9.4359,-8.8380,7.1985,-12.0468,21.8315,-4.7691,-8.6121,-6.7172
976.5625,-0.4399,0.0464,-7.1105,-4.5027,2.4655,7.3578,1.9887,4.7284,-5.4543,-1.2605,-7.0961,-10.5315,-12.2600,1.4791,-5.0289,11.4107,-8.2543,-8.5396,-9.0756
980.4688,4.0542,3.4615,-4.1623,-4.4430,0.4990,1.9513,-0.3629,3.5265,-1.0167,4.1260,-4.3798,-11.1065,-14.5390,-4.7701,0.9825,-6.1901,-11.6184,-6.8890,-9.7914
984.3750,8.3854,6.8433,0.7367,-2.6461,-0.1047,-3.8623,-3.1483,2.4953,4.4884,9.5896,-0.8062,-10.5967,-15.3945,-10.7091,3.2107,-21.4827,-14.5552,-3.6110,-8.6499
988.2812,11.8576,10.0252,6.3460,0.3506,0.3186,-5.9631,-4.9764,1.4055,10.0738,14.0828,3.5340,-8.0717,-14.5821,-15.2859,1.7353,-25.8132,-16.5728,1.1248,-5.7837
992.1875,14.1424,13.0417,11.2445,3.6838,1.1141,-2.2657,-4.9390,0.1568,14.9027,16.9613,8.4511,-2.9595,-12.1515,-17.8044,-0.7137,-16.5842,-17.3139,6.8506,-1.7746
996.0938,15.4362,15.8478,14.3115,6.3391,1.4400,6.4247,-3.0930,-1.3360,18.4768,18.1842,13.3872,4.1546,-8.6615,-18.3620,-0.7352,0.9484,-16.8481,12.7000,2.3792
1000.0000,16.3000,18.0919,15.0911,7.4633,0.6061,17.0588,-0.3332,-3.1498,20.6313,18.1805,17.4043,11.3752,-5.0774,-17.8139,3.4598,16.6512,-15.6605,17.5006,5.5567
1003.9062,17.2608,19.1920,13.9089,6.7254,-1.5417,25.9435,2.2290,-5.2134,21.4369,17.5152,19.5815,16.3113,-2.3132,-17.2361,11.0569,21.5797,-14.3023,20.1520,7.0007
1007.8125,18.4065,18.6943,11.6803,4.5267,-4.4526,30.3665,3.9398,-7.1516,21.0956,16.5720,19.5976,17.4475,-0.6997,-17.2178,19.4716,13.3938,-12.9530,20.1315,6.7263
1011.7188,19.2360,16.6469,9.4724,1.8858,-7.0768,29.5009,4.8856,-8.3036,19.8574,15.4230,18.0361,15.1605,0.2239,-17.4618,26.1646,-2.2843,-11.2471,17.8077,5.5482
1015.6250,18.8907,13.6965,8.0331,-0.0006,-8.3667,24.3689,5.6407,-7.9813,17.9584,13.9184,16.1025,11.6198,1.3919,-16.9817,29.9714,-15.3939,-8.5387,14.3208,4.6422
1019.5312,16.6723,10.8230,7.5457,-0.2994,-7.7849,17.1228,6.7200,-5.8364,15.5950,11.9054,14.8750,9.5350,3.5465,-14.7853,31.0680,-17.5465,-4.4439,11.0621,4.8727
1023.4375,12.5650,8.8857,7.7519,1.1206,-5.5197,10.1038,8.1623,-2.0958,12.9637,9.4319,14.6092,10.5209,6.6798,-10.6032,29.9367,-6.8496,0.7246,9.0511,6.3075
1027.3438,7.4399,8.2726,8.3414,3.7410,-2.3023,5.0589,9.5406,2.5048,10.3495,6.8197,14.6221,14.1385,9.9789,-5.1902,26.5281,11.4489,5.9569,8.5659,8.2354
1031.2500,2.7739,8.8366,9.3068,6.7691,1.0219,2.7036,10.3540,7.0556,8.1795,4.5685,13.8742,18.2280,12.3178,-0.0070,20.5356,28.5718,10.0031,9.1932,9.6637
1035.1562,-0.0159,10.0838,10.9654,9.5651,3.8784,2.6614,10.4650,10.8630,6.9334,3.1398,11.8332,20.2816,12.9488,3.5146,12.5523,37.4709,11.9894,10.1867,9.9497
1039.0625,-0.2826,11.4286,13.5932,11.8502,6.0930,3.7407,10.2221,13.6614,6.8921,2.7324,8.9652,18.9335,11.9166,4.6768,4.8915,36.3399,11.8007,10.8554,9.1364
1042.9688,1.4876,12.3475,16.9342,13.6126,7.7627,4.4657,10.1668,15.5579,7.8553,3.1692,6.4575,14.6236,9.9380,3.8027,0.9321,28.4927,10.0236,10.7674,7.8008
1046.8750,3.8839,12.4074,19.9985,14.8617,9.0440,3.7091,10.5558,16.8068,9.0578,3.9649,5.3524,9.1153,7.8892,1.9955,3.0397,19.2935,7.5549,9.7492,6.5748
1050.7812,5.2580,11.2731,21.4031,15.4742,10.0436,1.1915,11.0912,17.6036,9.4374,4.5494,5.7329,4.3243,6.3042,0.5713,10.4703,12.6242,5.1821,7.8176,5.7253
1054.6875,4.5272,8.7902,20.1229,15.2640,10.8555,-2.3871,11.0944,18.0226,8.1753,4.5259,6.5829,1.3055,5.2282,0.4955,19.0168,9.2458,3.3847,5.1761,5.0931
1058.5938,1.6592,5.1284,16.1771,14.1996,11.6347,-5.6876,10.0125,18.0816,5.2028,3.8179,6.4514,-0.0007,4.4523,2.0726,23.0757,7.6804,2.3755,2.2614,4.3895
1062.5000,-2.4078,0.8537,10.7586,12.5535,12.5642,-7.4117,7.8672,17.8190,1.3211,2.6190,4.4562,-0.2848,3.8500,4.9473,19.0190,6.3336,2.2034,-0.2904,3.5623
1066.4062,-6.3301,-3.1966,5.6498,10.8223,13.6908,-6.9827,5.2766,17.2903,-2.2013,1.1936,0.9017,-0.1785,3.4871,8.3158,7.6223,4.9114,2.7408,-1.8598,2.9033
1070.3125,-9.0598,-6.2302,2.2590,9.4498,14.7621,-4.8598,2.9973,16.5001,-4.3400,-0.3235,-2.9257,0.0753,3.4157,11.2139,-6.2153,4.1001,3.5617,-2.1750,2.7958
1074.2188,-10.2784,-7.8465,0.8912,8.5564,15.2477,-2.3024,1.3270,15.3640,-4.8868,-1.9704,-5.6186,0.4401,3.3761,12.7976,-16.3841,4.0995,3.9013,-1.5354,3.3120
1078.1250,-10.3597,-8.1966,0.7300,7.8896,14.6075,-0.7087,-0.1510,13.7771,-4.5001,-3.8092,-6.5261,0.7129,2.7434,12.5792,-19.1607,3.5801,2.8852,-0.7139,4.0082
1082.0312,-9.9538,-7.8470,0.5284,7.0415,12.6678,-0.8917,-2.2237,11.7586,-4.1911,-5.7005,-6.0210,0.4191,0.8655,10.5817,-15.0459,0.2258,0.0040,-0.5293,4.1249
1085.9375,-9.5039,-7.4173,-0.4734,5.7742,9.8392,-2.6800,-5.3066,9.5476,-4.5906,-7.1954,-5.0099,-0.8500,-2.4073,7.3425,-7.6925,-7.3793,-4.4490,-1.3315,3.0822
1089.8438,-9.0038,-7.2051,-2.0322,4.2090,6.9848,-5.0366,-8.8552,7.5421,-5.4955,-7.6722,-4.1102,-2.9348,-6.4200,3.7204,-0.8975,-17.9939,-9.3286,-2.7467,0.9187
1093.7500,-8.1034,-7.0080,-3.1197,2.7417,4.9739,-6.5933,-11.4292,6.0850,-5.9992,-6.6608,-3.1527,-4.9328,-9.9387,0.5465,3.9965,-27.6235,-13.1192,-3.8760,-1.6575
1097.6562,-6.4304,-6.2292,-2.6854,1.7605,4.1882,-6.2991,-11.4748,5.2421,-5.1082,-4.1474,-1.3880,-5.6179,-11.8285,-1.7207,8.3694,-31.4468,-14.7187,-3.8385,-3.6621
1101.5625,-3.8732,-4.1957,-0.4073,1.3883,4.3048,-3.8665,-8.3522,4.7421,-2.4145,-0.6398,1.7797,-4.2374,-11.7431,-3.1444,14.2279,-26.6179,-14.0463,-2.3059,-4.4073
1105.4688,-0.6473,-0.5300,3.0854,1.4462,4.5122,0.1453,-2.9111,4.1485,1.6263,3.0696,6.1277,-1.1100,-10.3288,-4.1608,21.5961,-14.0950,-12.0608,0.3242,-3.8625
1109.3750,2.8484,4.5777,6.6256,1.6488,4.0353,4.5790,2.8234,3.1596,5.9681,6.2935,10.5560,2.4645,-8.7655,-5.2211,27.6684,1.7280,-10.1511,3.2113,-2.5684
1113.2812,6.2246,10.2900,9.2094,1.8603,2.6386,8.1118,6.6965,1.8260,9.5699,8.7329,13.7095,4.9841,-7.9374,-6.4568,28.6052,15.3361,-9.2784,5.5926,-1.1943
1117.1875,9.1812,15.2659,10.4619,2.1885,0.7881,9.7126,7.5397,0.5184,11.8877,10.4704,14.8247,5.6859,-7.8128,-7.5963,22.7041,22.8489,-9.4295,7.1633,-0.0804
1121.0938,11.4448,18.0188,10.5724,2.8317,-0.6310,9.0026,5.6469,-0.3487,12.9537,11.7091,14.1706,4.9681,-7.4874,-8.1902,12.4463,23.5444,-9.7358,8.0659,0.9054
1125.0000,12.6840,17.4262,9.8384,3.7981,-0.8645,6.4221,2.3447,-0.6548,13.0645,12.4760,12.7565,3.9791,-5.8845,-7.9822,3.5992,19.4428,-9.1594,8.5407,2.1136
1128.9062,12.5531,13.2440,8.2581,4.7368,0.2317,3.1168,-0.9856,-0.7287,12.3860,12.5355,11.5339,3.6747,-2.6332,-7.1500,1.7023,13.5715,-7.2674,8.5494,3.6859
1132.8125,10.9030,6.4006,5.5504,5.0561,2.0721,0.5096,-3.7213,-1.1875,10.8148,11.5858,10.7029,4.0619,1.5038,-6.2223,8.2874,8.2723,-4.5574,7.7033,5.3061
1136.7188,8.0197,-1.1484,1.6054,4.2945,3.6493,-0.3329,-6.1080,-2.5313,8.2007,9.5863,9.6549,4.2300,4.9929,-5.7088,19.5367,4.6024,-2.1114,5.5907,6.3459
1140.6250,4.6742,-7.0698,-3.0147,2.5099,4.0865,0.7380,-8.6680,-4.7349,4.7300,6.9463,7.5949,3.1827,6.4809,-5.6959,28.4558,2.8683,-0.8188,2.2774,6.3183
1144.5312,1.8579,-9.6024,-6.9985,0.4032,3.1194,2.8013,-11.4352,-7.1026,1.1228,4.3942,4.3620,0.8593,5.7185,-5.7088,29.1772,3.4321,-0.7092,-1.4157,5.3065
1148.4375,0.3024,-8.3741,-8.8173,-0.9586,1.2415,4.3039,-13.6430,-8.5091,-1.5797,2.5809,0.7934,-1.4670,3.8210,-4.9769,20.5092,6.8345,-0.8650,-4.1405,4.0304
1152.3438,0.0639,-4.6305,-7.5896,-0.7002,-0.5590,3.9192,-14.1251,-7.9297,-2.5542,1.6767,-1.6977,-1.8288,2.6438,-2.9697,6.3932,13.0012,-0.0058,-4.7047,3.4502
1156.2500,0.4632,-0.6795,-3.7123,1.3355,-1.3205,1.3505,-12.1296,-4.9863,-1.7244,1.2469,-2.0782,1.0878,3.6160,0.1281,-6.8771,20.2444,2.6114,-2.8290,4.1304
1160.1562,0.4625,1.2241,1.2050,4.4137,-0.6042,-2.4392,-7.9352,-0.2116,0.0840,0.5121,-0.5103,6.7701,6.7417,3.3275,-14.5989,25.1561,6.5495,0.5041,5.7781
1164.0625,-0.7229,-0.0176,5.1228,7.2133,1.2982,-5.7656,-2.8041,5.1291,1.4962,-1.1610,1.5848,12.7389,10.3993,5.2342,-16.0300,23.9598,10.2322,3.3840,7.2795
1167.9688,-3.1524,-3.8573,6.6138,8.4664,3.5493,-7.2260,1.7002,9.5865,1.2670,-3.8526,2.3156,15.6645,12.1084,4.7477,-13.7729,14.7824,11.6897,3.8650,7.2580
1171.8750,-6.1321,-8.5096,5.5288,7.5874,5.2358,-6.5354,4.5485,12.1720,-1.1058,-7.0287,0.4627,13.1489,9.8609,1.6784,-11.0211,-0.5835,9.6036,0.9499,4.8472
1175.7812,-8.6551,-12.0207,2.8904,4.9482,5.8641,-4.6561,5.6681,12.7670,-5.1745,-9.8642,-3.7846,5.1190,3.2814,-3.0659,-8.9966,-16.8087,4.0712,-4.8764,0.2279
1179.6875,-10.0316,-13.3798,0.1225,1.6554,5.6082,-3.1572,5.7123,12.0814,-9.8327,-11.7377,-8.9876,-6.0123,-6.0278,-7.8363,-6.5495,-27.3726,-3.3357,-11.8607,-5.3890
1183.5938,-10.3007,-13.0263,-1.8593,-1.0354,5.1771,-3.2584,5.4164,11.1954,-13.9029,-12.5831,-13.3900,-16.5157,-15.1450,-10.9617,-2.0369,-27.9908,-10.2485,-17.8178,-10.3212
1187.5000,-10.1573,-12.4686,-3.1040,-2.3295,5.3835,-5.1939,5.0479,10.9435,-16.6645,-12.8800,-15.9725,-23.1475,-21.1360,-11.4555,4.2669,-19.1197,-14.5509,-21.1217,-13.1910
1191.4062,-10.4446,-13.2573,-4.3606,-2.1875,6.6643,-8.2557,4.3369,11.4953,-18.0378,-13.3000,-16.9153,-24.5432,-22.3244,-9.3640,9.4012,-5.8932,-15.2604,-21.3188,-13.4818
1195.3125,-11.5465,-15.9357,-6.3126,-1.1625,8.8294,-11.3552,2.8801,12.3633,-18.3707,-14.2396,-17.1868,-21.4777,-18.8995,-5.6193,9.4335,4.6672,-12.8209,-19.0776,-11.5971
1199.2188,-13.0773,-19.5884,-8.8542,0.0811,11.1707,-13.6053,0.6590,12.8121,-18.0165,-15.5304,-17.6028,-15.9987,-12.6225,-1.5291,2.4643,7.6176,-8.7261,-15.5868,-8.4558
1203.1250,-14.0713,-22.2488,-10.9177,1.2398,12.8517,-14.5192,-1.7490,12.3937,-17.0000,-16.4986,-18.0676,-10.1060,-5.8762,1.7927,-9.4086,2.8520,-4.7355,-11.8196,-4.9312
1207.0312,-13.5459,-21.9251,-10.9905,2.5243,13.3340,-13.8352,-3.4323,11.2620,-14.9888,-16.3244,-17.5643,-4.8305,-0.6052,3.7690,-20.8230,-5.0594,-2.1206,-8.1104,-1.4926
1210.9375,-11.0773,-17.6606,-8.0114,4.4069,12.5986,-11.3366,-3.6905,10.0666,-11.5733,-14.4770,-14.9081,-0.1863,2.3268,4.3663,-26.2549,-9.8707,-1.2886,-4.2451,1.7695
1214.8438,-7.0287,-10.0486,-2.0892,7.1520,11.0644,-6.9995,-2.4777,9.5067,-6.6575,-10.9713,-9.7138,4.1697,3.1410,3.8662,-23.3694,-7.6097,-1.8781,0.0860,4.8417
1218.7500,-2.3093,-0.9461,5.4134,10.4674,9.2994,-1.4013,-0.4478,9.8500,-0.6882,-6.3184,-2.8681,8.1927,2.6663,2.6151,-14.2815,1.0211,-3.1520,4.8427,7.5040
1222.6562,2.1534,7.4248,12.5011,13.5396,7.7292,4.0712,1.4167,10.7358,5.4485,-1.2376,3.8595,11.2249,1.7615,0.9195,-3.9069,11.2771,-4.4021,9.5201,9.3240
1226.5625,5.8729,13.4891,17.5210,15.4477,6.5049,7.6560,2.3463,11.3858,10.8192,3.6665,8.8229,12.4502,0.9795,-0.9047,3.3114,17.5194,-5.1566,13.4267,9.9521
1230.4688,8.9117,16.9186,19.9277,15.6874,5.5542,8.2373,2.1739,11.0646,14.8850,8.0646,11.4439,11.6578,0.5719,-2.4564,5.9282,16.7334,-5.1752,16.1224,9.4862
1234.3750,11.6103,18.5473,20.4032,14.4516,4.7135,6.2974,1.3761,9.4773,17.7138,11.8363,12.4577,9.6932,0.6773,-3.2984,5.6143,10.1132,-4.3654,17.6787,8.5860
1238.2812,14.1676,19.7027,20.2791,12.4736,3.8154,3.9835,0.7789,6.8584,19.8164,14.8844,13.3111,8.1891,1.4419,-3.1627,5.1309,1.8266,-2.7636,18.5630,8.1740
1242.1875,16.3928,21.3477,20.6173,10.5376,2.6928,3.9883,1.1081,3.7377,21.7031,17.0110,15.1387,8.6691,2.9357,-2.1840,6.0086,-3.9556,-0.6067,19.2322,8.8614
1246.0938,17.8044,23.5009,21.5052,8.9901,1.1628,7.8237,2.6040,0.5958,23.4429,17.9764,18.0093,11.5707,4.9423,-0.9632,7.8134,-5.5633,1.6120,19.7386,10.4672
1250.0000,17.9911,25.2274,21.9844,7.5792,-0.9212,14.6400,4.8638,-2.3306,24.5175,17.6955,20.9103,15.8212,6.8426,-0.3443,9.3845,-4.1755,3.2349,19.6369,11.9822
1253.9062,16.9516,25.1815,20.6486,5.7174,-3.5347,21.4984,6.9709,-4.9814,24.0779,16.3914,22.4126,19.2690,7.7633,-0.9870,10.6712,-2.0531,3.6996,18.2670,12.0616
1257.8125,15.1434,22.3845,16.5450,2.9710,-6.3593,25.0483,7.8648,-7.2534,21.4517,14.5350,21.5146,19.7469,6.9644,-2.9766,13.2595,-0.2975,2.8276,15.2095,9.7790
1261.7188,13.1813,16.8099,9.8350,-0.5666,-8.8002,23.5459,6.8107,-8.8520,16.5840,12.5539,18.1031,16.1660,4.2423,-5.7269,18.8397,1.9557,0.9347,10.6001,5.1909
1265.6250,11.3887,9.4624,1.8256,-4.2610,-10.1933,17.8634,3.7773,-9.3648,10.1391,10.4984,12.8129,9.0412,0.0870,-8.2543,26.7923,6.2684,-1.3439,5.0981,-0.6323
1269.5312,9.5331,1.9296,-5.6245,-7.2589,-10.1049,10.8152,-0.4637,-8.5031,3.2162,7.9368,6.5180,0.2109,-4.5132,-9.6666,33.1339,12.6958,-3.4183,-0.4393,-6.1176
1273.4375,6.9656,-4.3196,-10.9430,-8.8990,-8.5328,5.3055,-4.5902,-6.3067,-3.1197,4.2338,-0.0861,-8.0187,-8.4949,-9.5707,32.2624,18.6558,-5.0450,-5.3235,-9.9185
1277.3438,3.1145,-8.4826,-13.4217,-8.9313,-5.8700,2.6068,-7.2441,-3.1298,-8.1883,-0.9034,-6.5070,-13.7939,-11.1073,-8.1611,20.7608,20.1000,-6.3445,-9.1905,-11.4281
1281.2500,-1.9744,-10.5298,-13.2351,-7.4490,-2.6478,1.9267,-7.5664,0.5961,-11.7372,-6.9609,-12.1702,-16.2428,-12.0563,-5.9753,0.6342,14.3611,-7.5186,-11.8862,-10.8257
1285.1562,-7.4169,-10.8736,-10.9941,-4.6652,0.7603,1.4341,-5.4960,4.6283,-13.7285,-12.5949,-16.1989,-15.4718,-11.3966,-3.5217,-20.6538,2.5749,-8.4986,-13.2444,-8.7317
1289.0625,-11.7730,-9.8940,-7.2313,-0.7710,4.2667,-0.1397,-1.7040,8.9785,-14.1036,-16.1646,-17.5877,-12.2103,-9.3439,-1.0482,-33.9110,-10.3081,-8.8265,-13.0040,-5.7819
1292.9688,-13.7086,-7.6904,-2.2186,3.9948,7.9466,-2.5542,2.7554,13.7049,-12.7542,-16.5656,-15.7563,-7.4201,-6.1937,1.4135,-33.5559,-18.2089,-7.9159,-10.9778,-2.4168
1296.8750,-12.6704,-4.2437,3.7754,9.1562,11.7772,-4.4031,6.8541,18.5890,-9.7327,-13.8775,-11.1023,-2.0722,-2.3880,3.8196,-21.0567,-17.5771,-5.5377,-7.3530,1.0472
1300.7812,-9.1983,0.1572,10.0601,13.9214,15.4609,-4.3653,9.8526,22.9803,-5.5140,-9.4080,-5.0854,2.9268,1.4134,5.9384,-4.0818,-9.5060,-2.1661,-2.8527,4.2469
1304.6875,-4.7014,4.6136,15.3695,17.3893,18.4960,-2.3250,11.3562,25.9912,-1.0417,-5.0705,0.3341,6.8112,4.4422,7.4061,8.1563,1.1252,1.1216,1.4442,6.7485
1308.5938,-0.8309,7.7782,18.2480,18.9828,20.4619,0.4857,11.2625,26.9665,2.5680,-2.4411,3.6268,9.1350,6.1534,7.9954,10.2953,8.7803,3.1995,4.5836,8.2582
1312.5000,1.2198,8.5002,17.8315,18.8305,21.3147,2.3572,9.7340,25.9233,4.5349,-2.0364,4.4244,9.9770,6.5871,7.8760,3.4597,10.4021,3.5620,6.2301,8.9042
1316.4062,1.1463,6.5839,14.5288,17.7943,21.4578,2.2501,7.2310,23.6386,4.8220,-3.2059,3.5870,9.9689,6.4600,7.6245,-6.3483,6.4705,2.6484,6.8371,9.3082
1320.3125,-0.4646,3.1301,10.0889,17.0486,21.5063,0.3653,4.5102,21.2793,4.1595,-4.6477,2.5724,10.0070,6.8161,7.9135,-12.6326,-0.3719,1.5685,7.3451,10.2892
1324.2188,-2.4996,0.1327,6.8892,17.4256,21.8822,-2.1814,2.4624,19.7778,3.6423,-5.1859,2.5361,10.7369,8.3733,9.0600,-12.3456,-7.6242,1.3824,8.5774,12.3310
1328.1250,-3.8355,-0.5265,6.7785,18.9243,22.5090,-4.1826,1.7794,19.3327,4.1321,-4.3408,3.7413,12.1195,10.9718,10.7450,-6.8286,-14.1456,2.4101,10.7109,15.1695
1332.0312,-3.7740,1.8804,10.1206,20.6986,22.8156,-4.9666,2.6095,19.3458,5.8189,-2.4113,5.6168,13.4095,13.5314,12.1253,0.3811,-19.4694,4.0401,13.1641,17.8266
1335.9375,-2.2513,6.4888,15.5889,21.5457,22.0586,-4.4400,4.4358,18.8239,8.1853,-0.1261,7.3381,13.6356,14.6260,12.2977,6.7134,-22.2348,5.1730,14.9720,19.1313
1339.8438,0.2149,11.2989,20.8295,20.5977,19.7667,-2.7290,6.3020,16.9920,10.3608,1.8365,8.4662,12.3169,13.3623,10.8260,12.0967,-19.6591,4.9948,15.4024,18.4232
1343.7500,2.7868,14.2733,23.6159,17.8071,16.0399,0.0841,7.2911,13.7489,11.6202,3.1554,9.1903,9.9340,10.0112,7.9933,17.8643,-9.0998,3.5448,14.4220,15.9826
1347.6562,4.6764,14.4250,22.8730,13.9601,11.5439,3.8300,6.9825,9.7247,11.7378,3.8872,10.0528,7.7896,5.9622,4.6232,24.3260,9.2063,1.6920,12.7290,12.8996
1351.5625,5.4913,12.2718,19.0815,10.2557,7.2263,7.9098,5.6243,5.9503,11.0375,4.2992,11.4292,7.2788,2.9936,1.6003,29.3824,30.5307,0.5442,11.3603,10.4653
1355.4688,5.4174,9.4402,13.9457,7.7329,3.9376,11.2113,3.9423,3.3649,10.1827,4.6978,13.1913,9.0129,2.2988,-0.5865,29.6288,47.0164,0.7105,11.1379,9.4850
1359.3750,5.1351,7.7197,9.5778,6.8648,2.1480,12.5595,2.7321,2.4292,9.8675,5.3541,14.8123,12.3766,3.8638,-1.9951,23.2293,51.7296,1.9233,12.2862,9.9402
1363.2812,5.4686,8.1472,7.6111,7.4804,1.8572,11.4690,2.4792,2.9983,10.5617,6.4880,15.8086,15.8409,6.5592,-3.0178,12.2186,42.9011,3.2617,14.4026,11.1657
1367.1875,6.9132,10.6013,8.5791,8.9519,2.6708,8.6011,3.1799,4.4400,12.3621,8.2205,16.1496,17.8519,8.8440,-3.9999,2.1490,25.3575,3.7912,16.7182,12.3460
1371.0938,9.2849,14.0116,11.7272,10.4668,3.9534,5.4757,4.3743,5.8850,14.9349,10.4605,16.2952,17.7176,9.6028,-4.9741,-1.0375,7.8901,3.1592,18.4333,12.9483
1375.0000,11.7130,16.9385,15.2684,11.2392,4.9953,3.5493,5.2979,6.4936,17.5367,12.8131,16.8051,15.9041,8.6036,-5.6812,5.1357,-1.8723,1.7439,18.9299,12.8142
1378.9062,13.0273,18.1524,17.0063,10.6415,5.1800,3.2867,5.0757,5.6816,19.1518,14.6315,17.8048,13.5572,6.3652,-5.8195,17.8278,-1.7202,0.2957,17.8165,11.9329
1382.8125,12.3560,16.9795,15.1680,8.3187,4.1560,3.8905,2.9574,3.2854,18.7810,15.2535,18.7098,11.6032,3.6351,-5.3044,30.4170,4.5297,-0.6274,14.9045,10.1729
1386.7188,9.6036,13.3958,9.1834,4.3214,1.9799,3.8654,-1.3843,-0.3633,15.8390,14.3106,18.4452,10.0790,0.9049,-4.3329,36.4491,10.2851,-1.0058,10.2390,7.2551
1390.6250,5.5234,7.9715,0.0689,-0.8029,-0.8458,1.9842,-7.5614,-4.5038,10.4882,11.9144,16.0534,8.1767,-1.7122,-3.2196,33.3692,10.8256,-1.2480,4.2007,3.0201
1394.5312,1.3311,1.7304,-9.8485,-6.0813,-3.5101,-2.0243,-14.3661,-8.1807,3.7014,8.5866,11.3128,4.9699,-4.2375,-2.1501,23.6481,6.0695,-1.7450,-2.4309,-2.2305
1398.4375,-1.9181,-4.0988,-17.8495,-10.4066,-5.1918,-7.4455,-20.0385,-10.5862,-3.0540,4.9724,4.9777,0.2918,-6.4992,-1.0574,12.7893,-0.2339,-2.4524,-8.5907,-7.6344
1402.3438,-3.8221,-8.4554,-21.9892,-12.9548,-5.3920,-13.0520,-22.9067,-11.3610,-8.3961,1.5324,-1.5087,-4.8886,-8.0404,0.2801,5.7910,-3.8794,-2.8372,-13.2496,-12.0552
1406.2500,-4.7162,-10.8435,-21.9052,-13.5089,-4.1303,-17.6058,-22.1303,-10.6898,-11.5781,-1.5838,-6.6543,-8.9019,-8.3639,2.0000,4.4761,-3.3670,-2.2460,-15.8043,-14.6046
1410.1562,-5.3325,-11.5291,-18.8016,-12.4889,-1.8925,-20.0672,-18.1292,-9.1249,-12.7060,-4.4185,-9.5385,-10.3610,-7.3258,3.9658,7.2208,-0.5024,-0.4350,-16.3090,-15.0585
1414.0625,-6.2767,-11.3527,-14.6138,-10.6542,0.6360,-19.6085,-12.4079,-7.2393,-12.5101,-6.9646,-10.0906,-9.0382,-5.3567,5.7779,10.8260,1.7237,2.1222,-15.3913,-13.8904
1417.9688,-7.6572,-11.1976,-10.8762,-8.6597,2.8913,-15.7694,-6.8387,-5.3192,-11.8338,-9.0088,-8.9347,-6.0470,-3.3095,6.9793,12.9114,1.9827,4.3797,-13.8919,-11.9193
1421.8750,-9.0718,-11.4228,-8.0055,-6.7443,4.6215,-8.8959,-2.8099,-3.2909,-11.1640,-10.1913,-6.9626,-3.2092,-2.0156,7.3069,13.1709,1.7355,5.2446,-12.4437,-9.8351
1425.7812,-9.9111,-11.6511,-5.4250,-4.7392,5.8629,-0.5475,-0.7334,-0.9147,-10.4789,-10.2334,-4.9120,-2.0262,-1.8395,6.8115,12.9037,3.7241,4.1574,-11.2431,-7.9262
1429.6875,-9.7463,-11.0938,-2.3664,-2.3573,6.7678,6.6807,-0.1508,1.9035,-9.4556,-9.1539,-3.1644,-2.9070,-2.5229,5.7809,13.5159,9.1433,1.3825,-10.1217,-6.1485
1433.5938,-8.5538,-9.2120,1.2819,0.4647,7.4406,10.1727,-0.2724,4.9152,-7.8434,-7.3058,-1.7963,-5.0926,-3.3964,4.5482,15.2335,15.9319,-2.1366,-8.8221,-4.4039
1437.5000,-6.6788,-6.2428,4.7195,3.4272,7.9026,8.7084,-0.5217,7.5973,-5.7231,-5.2046,-0.7669,-7.2307,-3.7882,3.3449,16.8661,19.7580,-5.2366,-7.2528,-2.7530
1441.4062,-4.6257,-3.1856,6.7479,6.0228,8.1849,3.3417,-0.7240,9.4430,-3.4911,-3.2795,-0.0719,-8.1593,-3.3521,2.2964,16.5935,17.1149,-7.0257,-5.5462,-1.3806
1445.3125,-2.8490,-1.2217,6.6452,7.8522,8.4314,-3.0188,-0.9065,10.2713,-1.6238,-1.7282,0.2338,-7.4038,-2.1421,1.5235,13.1202,8.2047,-7.1692,-3.9162,-0.3725
1449.2188,-1.6644,-0.9648,4.7281,8.8551,8.8826,-7.2409,-0.9933,10.3335,-0.4196,-0.5620,0.1283,-5.1829,-0.4641,1.2101,6.4937,-2.6643,-5.8966,-2.4712,0.4595
1453.1250,-1.2660,-2.0760,2.1761,9.2824,9.7115,-7.8096,-0.7259,10.1355,0.1006,0.2255,-0.2704,-2.0856,1.3171,1.5283,-1.7508,-9.6321,-3.8289,-1.1559,1.5004
1457.0312,-1.7461,-3.5228,0.2655,9.4432,10.8221,-5.6271,0.1016,10.0948,0.1051,0.5286,-0.6869,1.2459,2.8651,2.4413,-9.0781,-9.0711,-1.7630,0.1315,3.0215
1460.9375,-3.0405,-4.2871,-0.4047,9.4369,11.7739,-3.1948,1.3229,10.2639,-0.2047,0.1667,-0.7923,4.2232,3.8455,3.5422,-12.8629,-1.9568,-0.4899,1.3676,4.8780
1464.8438,-4.8302,-4.0030,-0.1310,9.0836,11.9271,-2.7474,2.3423,10.2986,-0.6725,-0.9259,-0.3757,6.2733,3.9132,4.1019,-11.4720,6.8061,-0.6258,2.3562,6.4861
1468.7500,-6.5149,-3.0697,0.3417,8.1072,10.7457,-4.6787,2.4767,9.6819,-1.1398,-2.5003,0.5242,6.8811,2.8275,3.3674,-5.1730,11.5721,-2.4241,2.8801,7.1525
1472.6562,-7.3609,-2.1952,0.5242,6.4179,8.0678,-7.3780,1.4817,8.0400,-1.3576,-3.9547,1.6225,5.8335,0.6654,0.9599,3.6036,9.4266,-5.6079,2.9448,6.5449
1476.5625,-6.8012,-1.7571,0.5641,4.2571,4.1661,-8.5496,-0.1713,5.3435,-0.9886,-4.5307,2.5412,3.5266,-2.0436,-2.8855,11.0433,1.6502,-9.3491,2.8937,4.9542
1480.4688,-4.7410,-1.4947,1.0212,2.0711,-0.4419,-6.9933,-1.5545,1.8828,0.2433,-3.6651,3.0328,1.0176,-4.4507,-7.4236,13.6878,-7.5772,-12.5082,3.2442,3.1259
1484.3750,-1.6792,-0.7719,2.2584,0.1940,-5.2941,-3.5025,-1.9643,-1.9227,2.3346,-1.3127,3.1343,-0.3963,-5.8089,-11.8113,10.3586,-14.0645,-14.1129,4.3045,1.7470
1488.2812,1.4463,0.8037,3.9778,-1.4177,-10.1718,-0.2347,-1.5397,-5.7212,4.8685,1.9402,3.1369,0.0632,-5.9622,-15.5723,3.0812,-15.9931,-13.8650,5.8239,0.9401
1492.1875,3.6261,2.9012,5.2947,-3.1782,-15.0347,0.9334,-1.3138,-9.2861,7.0857,5.0497,3.3641,2.0233,-5.5670,-18.7975,-3.7982,-14.3198,-12.3683,6.9583,0.1350
1496.0938,4.1742,4.5146,5.2936,-5.5646,-19.7494,-0.1893,-2.5680,-12.4210,8.1464,6.9092,3.8806,3.9540,-5.8226,-21.9246,-6.0328,-11.2949,-10.8778,6.6414,-1.5623
1500.0000,2.9621,4.5283,3.6277,-8.7004,-23.8242,-1.9865,-5.8728,-14.8206,7.4568,6.7955,4.3293,3.9351,-7.7865,-25.2243,-2.0481,-8.4901,-10.6355,4.1792,-4.7242
1503.9062,0.4076,2.4028,0.7077,-12.1166,-26.3850,-2.2612,-10.4741,-16.0340,4.9005,4.6680,4.0404,0.8129,-11.6514,-28.3429,6.0035,-5.8637,-12.1389,-0.2873,-9.0993
1507.8125,-2.7376,-1.4946,-2.6223,-14.8706,-26.4761,0.1058,-14.5041,-15.5967,0.8794,1.1815,2.3886,-4.9658,-16.4395,-30.2491,13.4857,-2.3973,-14.7817,-5.7479,-13.5894
1511.7188,-5.6793,-6.1174,-5.6167,-15.9734,-23.5496,4.2555,-15.9576,-13.2702,-3.8290,-2.6054,-0.8021,-11.4294,-20.3610,-29.6931,16.0712,2.4243,-17.1246,-10.7581,-16.7382
1515.6250,-7.8389,-10.3343,-7.9387,-14.8801,-17.8585,7.8115,-13.8546,-9.2443,-8.3258,-5.7055,-5.0721,-16.1067,-21.6946,-25.9478,12.2541,7.6058,-17.6875,-14.1022,-17.4529
1519.5312,-9.0086,-13.4652,-9.5589,-11.7684,-10.5004,8.3439,-8.8595,-4.1711,-11.8647,-7.6392,-9.5087,-17.4202,-19.7158,-19.3897,3.9428,10.9576,-15.8202,-15.3139,-15.5474
1523.4375,-9.3798,-15.4306,-10.4275,-7.4596,-3.0461,4.8459,-2.9591,1.0067,-14.0641,-8.6030,-13.2064,-15.5883,-15.1403,-11.5299,-5.1297,10.5256,-12.1254,-14.7835,-11.8220
1527.3438,-9.4330,-16.4929,-10.2851,-3.0484,3.0729,-1.6780,1.6112,5.3606,-14.9885,-9.2604,-15.7094,-12.4519,-9.8050,-4.4130,-11.9008,6.0811,-8.1531,-13.4294,-7.6617
1531.2500,-9.7024,-16.8549,-8.8118,0.5506,7.1103,-8.7671,3.5421,8.2831,-15.0504,-10.2495,-17.1358,-10.3047,-5.7416,0.3219,-15.5450,-0.4212,-5.5235,-12.1537,-4.3901
1535.1562,-10.4804,-16.4288,-5.9747,2.9192,9.2133,-13.7615,3.0315,9.6715,-14.7447,-11.6878,-17.8921,-10.4471,-4.1477,2.2064,-17.1230,-5.7736,-4.9886,-11.3882,-2.7137
1539.0625,-11.6007,-14.9245,-2.2330,4.1901,10.2052,-15.0296,1.4679,9.9205,-14.3293,-12.9984,-18.1979,-12.3724,-4.8245,2.1010,-17.8848,-7.2651,-6.0052,-10.9590,-2.5104
1542.9688,-12.4566,-12.1558,1.6139,4.8529,11.0748,-12.6059,0.4582,9.7239,-13.6454,-13.2185,-17.8003,-14.1074,-6.3867,1.6499,-17.8294,-4.1813,-7.0861,-10.3062,-3.0306
1546.8750,-12.3187,-8.3366,4.8140,5.4234,12.4424,-8.0807,0.8189,9.7512,-12.2403,-11.6526,-16.1463,-13.5062,-7.1170,2.3338,-15.8040,1.8005,-6.7279,-8.9141,-3.3783
1550.7812,-10.8275,-4.1756,6.9481,6.1337,14.2630,-3.9019,2.1295,10.3195,-9.7785,-8.4756,-12.9368,-9.6883,-5.9726,4.6489,-11.0275,7.4781,-4.3533,-6.7124,-3.0229
1554.6875,-8.3675,-0.7128,7.8774,6.7860,15.8953,-2.3805,3.0773,11.2071,-6.4977,-4.8611,-8.6546,-3.7126,-3.1699,7.8628,-4.6142,9.7084,-0.6913,-4.2260,-2.0766
1558.5938,-6.0235,1.0309,7.4730,6.8537,16.4791,-4.7157,2.3504,11.7275,-3.3504,-2.4649,-4.6054,1.9507,-0.0202,10.4675,0.4458,6.8562,2.6364,-2.3696,-1.1884
1562.5000,-5.0358,0.4689,5.4997,5.8120,15.4204,-10.3712,-0.4743,11.0741,-1.6117,-2.4985,-2.3081,4.8446,1.8798,11.0544,1.1524,-0.5547,4.0724,-1.9547,-1.0938
1566.4062,-6.0055,-2.2119,1.9164,3.5529,12.7371,-17.1111,-4.5701,8.7985,-2.0836,-4.9309,-2.5456,3.9844,1.6273,9.1099,-3.0944,-10.1686,3.0406,-3.1424,-2.0605
1570.3125,-8.3317,-5.9339,-2.5799,0.6511,9.0941,-21.8171,-8.2302,5.1660,-4.3742,-8.3340,-4.6968,0.4666,-0.4102,5.2923,-9.5008,-18.8125,0.2756,-5.1526,-3.5626
1574.2188,-10.3046,-8.9619,-6.3095,-1.7276,5.5072,-21.8400,-9.7538,1.1521,-6.7939,-10.5315,-6.8669,-3.1353,-2.7611,1.0599,-13.3377,-23.6700,-2.6135,-6.4611,-4.4260
1578.1250,-9.9150,-9.5069,-7.1338,-2.3150,2.8635,-16.2668,-8.3498,-1.9792,-7.0887,-9.7196,-6.8434,-4.2192,-3.6623,-2.1090,-11.0343,-23.1336,-4.0565,-5.4774,-3.4295
1582.0312,-5.9777,-6.5220,-3.6520,-0.4185,1.5055,-6.4136,-4.5619,-3.3189,-3.6851,-5.4261,-3.3472,-1.5799,-2.0464,-3.4503,-2.7241,-17.0956,-3.3516,-1.4011,-0.0476
1585.9375,1.0849,-0.3117,3.6632,3.5913,1.0998,4.7727,0.0143,-2.8087,3.2828,1.2474,3.1881,4.0087,1.8650,-3.2035,7.6886,-6.7253,-0.9367,5.2142,5.1144
1589.8438,9.3066,7.4390,12.2958,8.3209,0.8672,14.0886,3.5560,-1.2688,11.8451,8.2262,10.8092,10.3438,6.6911,-2.3383,15.1224,6.0285,1.9992,12.5666,10.5014
1593.7500,16.1041,14.3572,18.8380,11.9744,0.0540,19.4385,4.9299,0.0953,19.1290,13.5339,17.0974,15.0766,10.6408,-1.9302,16.7768,18.9331,4.2573,18.4021,14.3508
1597.6562,19.5569,18.5032,20.8826,13.2504,-1.6177,20.4547,4.2088,0.4291,22.8429,16.2018,20.4254,16.9284,12.4196,-2.5767,13.9588,29.8144,5.2345,21.0978,15.5746
1601.5625,19.3022,19.3070,18.4419,12.0025,-3.7748,18.1738,2.5353,-0.2437,22.4253,16.5283,20.6542,16.1465,11.7674,-4.1829,10.9314,36.7693,5.0459,20.4202,14.2513
1605.4688,16.5457,17.7442,13.8886,9.2648,-5.5937,14.1919,1.4394,-1.0388,19.1719,15.6277,18.8962,14.0313,9.3601,-6.1834,11.6010,38.3902,4.1735,17.5086,11.4357
1609.3750,13.2291,15.6176,10.3830,6.6268,-6.2547,9.9560,2.0032,-0.7679,15.3011,14.6315,16.5962,11.9433,6.2224,-7.9954,16.4564,34.0989,2.9606,14.1073,8.4369
1613.2812,10.9009,14.3877,9.8194,5.3471,-5.3805,6.5517,4.3223,1.3182,12.5914,14.0644,14.5939,10.4738,3.0875,-9.3733,22.0067,24.5149,1.3417,11.5401,6.0631
1617.1875,9.9769,14.3083,11.6896,5.7533,-3.2030,4.8118,7.5136,5.0668,11.4643,13.7240,12.7816,9.2746,0.1293,-10.4349,23.1709,11.6070,-1.0035,10.0767,4.3312
1621.0938,9.7766,14.4275,13.6357,7.2690,-0.3771,5.2926,10.2135,9.5161,11.0454,13.0337,10.5048,7.5675,-2.8003,-11.3760,16.9535,-1.6306,-4.2068,9.0628,2.7964
1625.0000,9.2109,13.4301,13.2694,8.9810,2.4228,7.8955,11.2653,13.4559,10.0612,11.5463,7.3363,4.9122,-5.6637,-12.1065,4.8319,-12.0285,-7.8172,7.6607,1.2052
1628.9062,7.6073,10.7163,9.9496,10.3132,4.8655,11.4339,10.2433,16.0761,7.8931,9.2546,3.6341,1.6996,-7.8800,-12.0939,-7.8094,-17.3308,-10.7647,5.6394,-0.0485
1632.8125,5.1389,6.9568,5.2738,11.3407,7.0730,13.7471,7.5971,17.3048,5.0656,6.5630,0.4942,-0.9314,-8.4207,-10.5514,-14.8238,-17.0141,-11.7479,3.6521,-0.0299
1636.7188,2.6467,3.7431,1.9908,12.5734,9.4368,12.6755,4.4086,17.6779,2.8889,4.0312,-0.8421,-1.6553,-6.3369,-6.8752,-12.9494,-12.3933,-9.8378,2.8248,2.1274
1640.6250,1.0563,2.5871,2.1662,14.4296,12.2839,7.4929,1.9221,17.8944,2.5687,2.1165,0.2924,0.3661,-1.3905,-1.0660,-3.6463,-5.9268,-4.9668,3.9796,6.5414
1644.5312,0.8153,3.9681,5.9089,16.8245,15.6055,-0.1797,1.0612,18.3868,4.4215,1.0647,3.6038,5.0653,5.6193,6.1206,7.9033,-0.0801,1.9495,7.0533,12.3220
1648.4375,1.6923,7.0576,11.4777,19.1701,18.9953,-6.8294,2.1066,19.1585,7.6986,0.9322,7.9773,11.4583,13.0485,13.3786,15.8280,3.6561,9.2914,11.1006,17.9200
1652.3438,2.9879,10.2606,16.5497,20.7537,21.8001,-8.8627,4.6299,19.9119,11.0621,1.6185,11.9980,17.9574,19.0172,19.2888,16.6953,5.1158,15.2566,14.8322,21.8564
1656.2500,3.9436,12.1525,19.6398,21.1763,23.3729,-4.7504,7.6899,20.2953,13.3312,2.8323,14.5191,22.8230,22.1022,22.7524,10.9805,5.1004,18.3930,17.2705,23.3577
1660.1562,4.0683,12.1803,20.6804,20.5197,23.2965,3.8977,10.2172,20.0677,13.9995,4.0449,15.0009,24.6169,21.7724,23.2338,2.3136,4.6510,17.9719,18.0791,22.5303
1664.0625,3.2331,10.7305,20.5061,19.1506,21.5018,13.1188,11.4354,19.1117,13.2618,4.5655,13.5492,22.6045,18.4207,20.7716,-4.7473,4.4433,14.1383,17.4219,20.0520
1667.9688,1.5834,8.6521,19.8373,17.3699,18.2806,18.8056,11.1382,17.3794,11.6560,3.8097,10.7475,17.0555,13.0794,15.8558,-7.0363,4.6221,7.8499,15.5832,16.6809
1671.8750,-0.5884,6.6669,18.6526,15.2215,14.2211,18.9329,9.6866,14.8964,9.6542,1.6619,7.4234,9.3267,7.0337,9.3022,-4.0447,5.0367,0.6339,12.7304,12.9477
1675.7812,-2.9074,5.0823,16.4165,12.6239,10.0861,14.3996,7.7351,11.8521,7.4921,-1.3070,4.4268,1.5794,1.5095,2.1798,2.2648,5.5771,-5.8016,9.0232,9.1902
1679.6875,-4.9335,3.9126,12.8794,9.6983,6.6395,8.0657,5.8504,8.6777,5.2868,-3.9705,2.4348,-3.8973,-2.5123,-4.2606,8.7576,6.3092,-10.0267,4.9320,5.7924
1683.5938,-6.2062,3.1805,8.7046,6.9835,4.4450,2.8016,4.2578,5.9752,3.2670,-5.1295,1.8021,-5.5501,-4.3993,-8.7474,12.8039,7.3377,-11.2863,1.4103,3.3383
1687.5000,-6.3606,3.0794,5.3462,5.3016,3.7049,-0.0501,2.8637,4.2718,1.8862,-4.1072,2.5042,-3.2054,-3.9436,-10.2769,13.5543,8.5751,-9.6723,-0.3437,2.4851
1691.4062,-5.2625,3.8616,4.2290,5.3125,4.2220,-0.8570,1.5030,3.7348,1.7058,-1.1121,4.2191,1.8814,-1.3990,-8.4490,12.2540,9.6667,-5.9863,0.5280,3.6146
1695.3125,-3.0724,5.5822,5.8386,7.0549,5.5258,-0.6845,0.1970,4.0596,3.1201,2.8529,6.5173,7.6532,2.5713,-3.6909,11.4214,10.1680,-1.3507,3.9803,6.5148
1699.2188,-0.1898,7.9540,9.3914,9.8185,7.1097,-0.1191,-0.7923,4.6524,6.0968,6.4825,9.0489,12.2409,7.0656,2.7742,13.2365,9.8385,3.2261,8.9361,10.3473
1703.1250,2.8761,10.4544,13.3110,12.4776,8.6517,1.0579,-1.1480,5.0260,10.0904,8.7718,11.6047,14.7747,11.1884,9.2485,17.9714,8.8020,7.1064,13.7356,13.9612
1707.0312,5.6152,12.5993,16.1509,14.1009,10.0935,3.1711,-0.7477,5.1541,14.1766,9.3953,14.0302,15.5825,14.2696,14.0643,23.4405,7.4365,10.0018,16.9262,16.3886
1710.9375,7.5542,14.1565,17.3341,14.4575,11.5431,5.6932,0.2632,5.5350,17.3504,8.6906,16.0931,15.7219,15.9707,16.0839,26.0160,6.0876,11.7664,17.9287,17.2425
1714.8438,8.2694,15.1349,17.2698,14.0984,13.0814,7.0514,1.6561,6.8883,18.8654,7.3289,17.4524,16.1910,16.2679,15.0135,22.8197,4.8635,12.2231,17.1961,16.8096
1718.7500,7.4614,15.5808,16.8738,13.9659,14.6144,5.5809,3.3908,9.6545,18.4796,5.9175,17.7834,17.3173,15.3699,11.4344,13.8125,3.7010,11.1962,15.8001,15.8127
1722.6562,5.1189,15.3773,16.8837,14.7748,15.8704,0.9807,5.6769,13.5991,16.5054,4.7591,16.9613,18.6486,13.6385,6.5692,2.3306,2.6488,8.7410,14.7272,14.9920
1726.5625,1.6733,14.2310,17.4034,16.5413,16.5359,-4.9263,8.6753,17.7724,13.6290,3.8434,15.1309,19.3192,11.5388,1.8860,-6.5388,2.0869,5.3783,14.3083,14.7272
1730.4688,-2.0249,11.8762,17.8818,18.5315,16.4345,-8.9251,12.0227,20.8710,10.5722,2.9861,12.5839,18.5947,9.5842,-1.3209,-8.9182,2.6070,2.0998,14.0959,14.8763
1734.3750,-4.9937,8.3469,17.4449,19.6524,15.6354,-8.3302,14.6100,21.8180,7.7629,1.9856,9.5455,16.2618,8.2397,-2.2478,-4.5694,4.5467,0.0540,13.2214,14.8971
1738.2812,-6.5673,4.1216,15.3686,19.0576,14.4400,-2.8303,14.9519,20.2699,5.2135,0.7194,6.0876,12.7078,7.7893,-0.7215,2.9020,7.5014,0.0483,11.0028,14.1861
1742.1875,-6.7342,0.0374,11.4897,16.6369,13.2747,5.0733,12.0653,16.7996,2.6987,-0.8073,2.2914,8.7370,8.2270,2.8456,8.3469,10.2598,2.1452,7.4530,12.4685
1746.0938,-6.1154,-2.9765,6.4233,13.1296,12.5509,11.4459,6.3164,12.6720,0.1320,-2.4258,-1.4540,5.2699,9.2384,7.6297,8.4183,11.3643,5.5885,3.4088,10.0343
1750.0000,-5.5483,-4.2051,1.4896,9.8006,12.5378,13.2587,-0.4238,9.3175,-2.1318,-3.7885,-4.3182,3.0372,10.2893,12.6129,3.6938,10.0312,9.1001,0.2002,7.6675
1753.9062,-5.5241,-3.3710,-1.7044,7.8381,13.2640,10.1496,-5.5893,7.7367,-3.3322,-4.4340,-5.3029,2.3238,10.7836,16.7718,-1.9068,6.8105,11.3746,-0.9877,6.2609
1757.8125,-5.8539,-0.7218,-1.9540,7.7721,14.4565,4.4576,-7.3031,8.0952,-2.7298,-3.9654,-3.8456,2.8272,10.2251,19.2170,-3.9979,3.4364,11.5265,0.2595,6.2986
1761.7188,-5.8057,3.0147,0.8581,9.2105,15.5528,-0.4327,-5.4778,9.6854,-0.1751,-2.2862,-0.3527,3.7351,8.3520,19.3150,-0.8384,1.8321,9.3194,3.3105,7.5097
1765.6250,-4.6347,6.7997,5.4913,11.0343,15.8344,-2.2701,-1.8794,11.2729,3.5929,0.2590,3.8031,4.0964,5.2441,16.8274,5.5649,2.8544,5.1643,6.7504,8.9420
1769.5312,-2.1500,9.5692,9.7739,11.9620,14.6782,-1.1910,0.9426,11.6699,7.1986,2.9702,6.9587,3.3853,1.3967,12.0505,11.1367,5.6394,-0.0261,9.0821,9.4666
1773.4375,1.0727,10.5892,11.6274,11.1885,11.8395,0.6911,1.1916,10.2607,9.3499,5.1059,8.1413,1.9481,-2.2987,5.8673,12.9055,8.0820,-5.0506,9.5044,8.4378
1777.3438,3.9798,9.7532,10.1556,8.7526,7.6141,0.9335,-1.1672,7.2236,9.5816,6.2534,7.6821,0.9605,-4.7500,-0.3958,11.2625,8.2196,-8.6890,8.3136,6.0872
1781.2500,5.6350,7.6594,6.1345,5.4391,2.7665,-1.5522,-4.5540,3.3509,8.5156,6.5172,6.9739,1.7685,-5.0569,-5.3345,9.5674,5.6184,-10.0336,6.6638,3.3754
1785.1562,5.7247,5.3732,1.5570,2.2958,-1.7550,-5.8822,-6.9112,-0.4005,7.4262,6.3901,7.4632,4.9239,-2.9709,-7.9371,11.3607,1.7808,-8.8206,5.8074,1.3743
1789.0625,4.6621,3.9503,-1.5092,0.0844,-5.1509,-9.9142,-7.0056,-3.3387,7.3814,6.3861,9.5525,9.5532,0.8424,-7.9334,17.2683,-0.7775,-5.5988,6.2866,0.5935
1792.9688,3.2672,3.9541,-2.0255,-0.9872,-6.9523,-11.6505,-5.0215,-5.1840,8.5406,6.6848,12.2087,13.6028,4.9753,-5.8171,23.9845,-0.2113,-1.5685,7.6092,0.7237
1796.8750,2.2800,5.2284,-0.3556,-1.1096,-6.9685,-10.3327,-2.1442,-5.8843,10.0948,7.0303,13.6138,14.9646,7.9028,-2.5166,26.2311,3.3553,1.9202,8.6424,0.9854
1800.7812,2.0322,7.0399,2.2635,-0.4673,-5.1103,-6.5976,0.4275,-5.3008,10.8809,6.9472,12.4426,12.8297,8.7639,1.0942,20.4123,7.8327,3.9889,8.4608,0.8255
1804.6875,2.4378,8.4845,4.6853,1.0527,-1.3078,-1.8036,2.2381,-3.0824,10.2246,6.1087,8.8717,8.3449,7.8318,4.5330,7.4100,10.5009,4.6108,7.0528,0.4287
1808.5938,3.2164,8.9091,6.5175,3.7612,4.3332,2.8424,3.5798,1.0935,8.4061,4.5924,4.5790,4.0237,6.3289,7.6902,-7.4740,9.7650,4.4902,5.3607,0.6248
1812.5000,4.1252,8.1316,8.0434,7.7171,11.2190,6.7393,4.8719,7.0378,6.4301,2.8562,1.7020,2.1950,5.6421,10.4985,-17.4545,6.1216,4.4913,4.6011,2.2172
1816.4062,5.0346,6.4084,9.5824,12.2820,18.0781,9.7644,6.0450,13.6980,5.2977,1.4765,1.4741,3.4932,6.4054,12.5821,-18.1465,1.6939,4.9825,5.3442,5.2164
1820.3125,5.8634,4.2623,10.9134,16.1024,23.1714,11.8721,6.5089,19.2978,5.3354,0.8548,3.4954,6.4438,8.0559,13.2062,-9.9032,-1.2739,5.5524,7.0373,8.5779
1824.2188,6.5092,2.3166,11.3060,17.6676,24.9310,12.8592,5.7469,22.0265,6.0722,1.0885,6.1429,8.4946,9.1942,11.6365,2.7395,-1.8382,5.3149,8.3605,10.7132
1828.1250,6.8851,1.1879,10.1654,16.1686,22.7279,12.4881,4.0046,20.9380,6.7235,2.0446,7.7976,7.8314,8.5453,7.6939,13.9032,-0.6777,3.6071,8.1960,10.4839
1832.0312,7.0295,1.3798,7.7487,12.1046,17.2981,10.7943,2.4134,16.5150,6.8733,3.5130,7.9836,4.7269,5.8920,2.1034,19.5212,0.8276,0.5907,6.5230,8.0089
1835.9375,7.1487,3.1086,5.2995,7.1838,10.5040,8.2489,2.3218,10.5102,6.8070,5.2749,7.5949,1.4468,2.3352,-3.6688,18.9198,1.9395,-2.6943,4.5617,4.7029
1839.8438,7.4858,6.0989,4.3853,3.4995,4.4980,5.5957,4.2668,5.1110,7.2269,7.0406,8.0635,0.7206,-0.3285,-8.0572,14.2390,3.1926,-4.8973,4.0087,2.4692
1843.7500,8.0734,9.5012,5.8528,2.4382,0.7419,3.4785,7.3684,1.8986,8.5697,8.3631,10.1021,3.7892,-0.7312,-10.1435,8.5510,5.7643,-5.1818,5.8505,2.5455
1847.6562,8.5655,12.0792,9.1467,3.9657,-0.5630,2.1351,9.6776,1.1940,10.4596,8.6837,12.9552,9.3587,1.1724,-10.0401,4.1303,10.0806,-3.7498,9.5567,4.7363
1851.5625,8.3289,12.6580,12.5026,6.7013,-0.3305,1.3518,9.3218,2.1251,11.7356,7.5582,14.7180,14.1931,4.0237,-8.6743,1.8221,14.8341,-1.7074,13.2076,7.5097
1855.4688,6.7904,10.6201,13.8993,8.6972,0.1269,0.6382,5.6913,3.2886,11.0699,4.9318,13.5134,14.9777,5.8412,-7.1369,1.4375,17.3540,-0.3666,14.4854,8.8704
1859.3750,3.8247,6.1691,12.1337,8.4286,-0.0958,-0.5595,-0.1518,3.5445,7.7630,1.2477,8.7177,10.2557,5.1525,-6.0425,2.4296,15.2551,-0.4585,11.8982,7.4454
1863.2812,-0.0952,0.2023,7.3367,5.4299,-1.0901,-2.7324,-6.1215,2.4754,2.1817,-2.7345,1.4130,1.2368,1.7681,-5.3161,4.2066,8.2601,-1.7727,5.5002,3.1391
1867.1875,-4.1108,-6.1070,0.6998,0.3112,-2.3127,-6.2198,-10.3578,0.3399,-4.4285,-6.3152,-6.2019,-8.9442,-3.2393,-4.4921,6.0362,-1.1662,-3.4253,-3.2462,-2.9513
1871.0938,-7.4178,-11.7439,-6.2619,-5.7069,-3.1336,-11.0311,-12.2217,-2.2939,-10.5924,-9.1665,-12.0130,-16.9449,-8.2462,-3.2509,6.9776,-8.9753,-4.5183,-12.2535,-9.1911
1875.0000,-9.6301,-16.0530,-12.3375,-11.3575,-3.3324,-16.5737,-12.3969,-4.8938,-15.2643,-11.3517,-15.0153,-20.8086,-11.9656,-1.7677,6.2013,-11.8414,-4.7166,-19.6841,-14.1692
1878.9062,-10.8264,-18.6742,-16.7890,-15.6756,-3.2140,-21.5083,-12.1155,-7.0694,-18.1095,-13.0452,-15.5708,-20.5688,-13.9602,-0.6251,3.5733,-9.1331,-4.3736,-24.4442,-17.1492
1882.8125,-11.2863,-19.3977,-19.1632,-18.0713,-3.3209,-24.0237,-12.1302,-8.4813,-19.3349,-14.1896,-14.8716,-17.7389,-14.5668,-0.3872,-0.0180,-3.2556,-4.1871,-26.2029,-18.0884
1886.7188,-11.1626,-18.1617,-19.1315,-18.2864,-3.9980,-22.5967,-12.1843,-8.7697,-19.3154,-14.3936,-14.0802,-14.2465,-14.4300,-1.1817,-3.0147,1.8575,-4.6897,-25.1748,-17.3878
1890.6250,-10.3783,-15.2451,-16.6336,-16.4040,-5.1294,-16.9030,-11.3184,-7.6655,-18.3466,-13.2021,-13.7383,-11.5461,-14.0495,-2.6087,-4.1141,3.1037,-5.9404,-21.9600,-15.6280
1894.5312,-8.8387,-11.4687,-12.2260,-12.9237,-6.2058,-8.2908,-8.7393,-5.2350,-16.6726,-10.5661,-13.7414,-10.3059,-13.6267,-4.0238,-3.1530,-0.0816,-7.5819,-17.5190,-13.4287
1898.4375,-6.7717,-8.1305,-7.2446,-8.7558,-6.6363,0.6067,-4.5942,-2.0364,-14.6657,-7.1529,-13.7418,-10.5651,-13.1997,-4.9554,-1.3058,-5.6736,-9.1391,-13.1201,-11.3983
1902.3438,-4.8708,-6.5632,-3.4643,-5.0033,-6.0722,7.0117,-0.1064,1.0060,-12.9040,-4.2032,-13.5820,-11.9973,-12.8374,-5.3327,-0.4308,-10.5401,-10.2903,-10.0628,-10.0628
1906.2500,-4.0420,-7.4953,-2.3231,-2.5658,-4.5491,9.2538,3.0026,3.0005,-11.9950,-2.9499,-13.4296,-14.0334,-12.6761,-5.3797,-1.9992,-12.3929,-10.9265,-9.1922,-9.7338
1910.1562,-4.8572,-10.6061,-4.1700,-1.7823,-2.4075,7.3839,3.4030,3.5208,-12.2265,-3.9279,-13.5649,-15.8911,-12.7768,-5.3081,-6.2918,-10.9718,-11.0326,-10.4685,-10.3827
1914.0625,-7.0757,-14.5929,-8.0462,-2.3481,-0.0955,2.8254,0.8031,2.7881,-13.3008,-6.6106,-14.0396,-16.7129,-12.9720,-5.0937,-12.2879,-7.8508,-10.5649,-12.9173,-11.6294
1917.9688,-9.5974,-17.7601,-12.1760,-3.5624,2.0087,-2.5971,-3.9797,1.4797,-14.3729,-9.6156,-14.4871,-15.8948,-12.8791,-4.5274,-18.1521,-5.1706,-9.4684,-15.0624,-12.8792
1921.8750,-10.9495,-18.8003,-14.8627,-4.7289,3.6834,-7.5234,-9.4626,0.3054,-14.4101,-11.3678,-14.2204,-13.4224,-12.1010,-3.4799,-21.9026,-4.2019,-7.8091,-15.6167,-13.5284
1925.7812,-10.0524,-17.3176,-15.2269,-5.4299,4.8715,-11.2782,-14.1159,-0.3572,-12.6712,-10.8322,-12.5463,-9.9152,-10.4571,-2.1279,-21.9177,-4.6051,-5.8646,-14.0154,-13.1180
1929.6875,-6.8124,-13.8267,-13.3751,-5.5184,5.6531,-13.5047,-16.8188,-0.5442,-9.0325,-7.9184,-9.1010,-6.2525,-8.0537,-0.9172,-17.2541,-4.7336,-4.0456,-10.4997,-11.3738
1933.5938,-2.1842,-9.3075,-10.0133,-4.9099,6.1983,-13.7735,-17.0208,-0.5061,-4.0060,-3.3898,-4.0415,-3.0033,-5.1497,-0.2676,-7.9439,-2.7073,-2.6800,-5.7798,-8.1879
1937.5000,2.3271,-4.6582,-5.8807,-3.4262,6.6852,-11.6918,-14.6958,-0.4288,1.5089,1.5789,1.9656,-0.0924,-1.9581,-0.2548,4.6962,2.3749,-1.8378,-0.5905,-3.6399
1941.4062,5.4202,-0.3915,-1.4272,-0.8803,7.1869,-7.4898,-10.2493,-0.3074,6.5598,5.8917,7.9109,2.9948,1.4136,-0.5454,18.0090,9.7166,-1.3620,4.5308,1.9059
1945.3125,6.5728,3.3110,3.1167,2.6382,7.5807,-2.4818,-4.4544,-0.0419,10.3894,8.8182,12.6899,6.5849,4.8114,-0.6641,28.5553,16.9633,-1.0961,9.1488,7.7096
1949.2188,6.1420,6.3447,7.4709,6.5342,7.5682,1.2519,1.6318,0.3710,12.5392,10.0340,15.3751,10.2519,7.8144,-0.3967,33.3320,21.1750,-1.1123,12.7200,12.7186
1953.1250,4.9965,8.4948,11.1638,9.7993,6.8409,2.0157,6.8545,0.7574,12.8574,9.5344,15.4681,12.8138,9.6961,-0.0056,31.1401,20.2319,-1.7147,14.5624,15.8575
1957.0312,3.9501,9.4746,13.6830,11.4605,5.3242,-0.2588,10.2577,0.8945,11.4876,7.5707,13.0735,12.9974,9.7045,-0.0670,23.2760,14.0114,-3.1652,14.1347,16.4518
1960.9375,3.3352,9.1301,14.7903,11.1281,3.3387,-3.7105,11.3781,0.7502,8.8536,4.6402,8.9174,10.3520,7.5368,-1.0334,12.9886,4.6781,-5.3309,11.4509,14.5582
1964.8438,2.9283,7.6102,14.7058,9.2602,1.5344,-5.6472,10.3804,0.6160,5.5957,1.4492,4.1545,5.7509,3.6809,-2.8540,3.9034,-4.2116,-7.5598,7.2909,10.9836
1968.7500,2.2083,5.3450,13.9570,6.9173,0.5848,-4.4253,7.9498,0.9771,2.4133,-1.2474,-0.0024,1.0580,-0.6708,-4.9534,-1.6700,-9.4525,-8.9529,2.9685,6.9431
1972.6562,0.7556,2.8415,12.9721,5.1284,0.7945,-0.7484,4.9908,2.1662,-0.1564,-2.9143,-2.6985,-1.8828,-4.1542,-6.6019,-3.5151,-9.8561,-8.8976,-0.2672,3.5262
1976.5625,-1.4446,0.4585,11.7190,4.2716,1.8598,2.7118,2.2869,4.0385,-1.9150,-3.4658,-3.7082,-2.2867,-5.9142,-7.4078,-2.9635,-6.8068,-7.4917,-1.8407,1.2578
1980.4688,-3.9401,-1.6710,9.6922,3.8824,2.9554,3.2760,0.2781,5.9229,-3.0186,-3.2835,-3.4261,-0.8013,-6.0004,-7.5604,-1.5412,-3.2598,-5.5284,-2.0777,-0.0183
1984.3750,-5.9972,-3.5288,6.3039,3.0267,3.1288,0.4320,-0.9718,6.9344,-3.8019,-2.9683,-2.5798,1.0298,-5.2244,-7.6393,0.1374,-1.7260,-4.0098,-1.9013,-0.8998
1988.2812,-6.9188,-5.0292,1.4410,0.9966,1.7952,-3.4627,-1.6513,6.4837,-4.5077,-2.9558,-1.8155,1.8318,-4.5803,-8.1325,2.4256,-2.5556,-3.5079,-2.2009,-1.9993
1992.1875,-6.3398,-5.9329,-4.1860,-2.1296,-0.9401,-4.6637,-2.0144,4.6678,-5.0889,-3.2389,-1.3824,1.2565,-4.6236,-9.0279,5.7053,-3.7420,-3.8240,-3.2800,-3.5797
1996.0938,-4.3697,-5.9389,-9.1636,-5.4291,-4.3089,-0.7915,-2.2234,2.2850,-5.2161,-3.3843,-1.0821,0.0677,-5.2137,-9.7853,9.3146,-2.4828,-4.1944,-4.7207,-5.4371
2000.0000,-1.5345,-4.8863,-11.9365,-7.6119,-7.2322,7.1280,-2.2693,0.4476,-4.4918,-2.8409,-0.4967,-0.5569,-5.7538,-9.7091,11.3440,2.5371,-3.8935,-5.7132,-7.0522
2003.9062,1.4436,-2.9095,-11.5193,-7.7276,-8.7965,14.9452,-1.9819,0.0124,-2.7381,-1.3361,0.6602,0.0335,-5.7131,-8.4403,9.6591,9.7957,-2.7910,-5.6019,-7.8900
2007.8125,3.9197,-0.4281,-7.9823,-5.6663,-8.6049,17.9753,-1.1234,1.1612,-0.1739,0.9020,2.2953,1.4623,-5.0324,-6.2065,3.5537,15.6119,-1.4479,-4.2879,-7.6684
2011.7188,5.5297,2.0194,-2.4637,-2.1718,-6.8438,14.1659,0.4616,3.3606,2.6355,3.2400,3.9531,2.6123,-4.1289,-3.6563,-5.1375,16.5185,-0.6766,-2.2575,-6.4674
2015.6250,6.2383,3.9781,3.2908,1.5967,-4.0792,5.5974,2.6850,5.7002,5.0231,4.9810,5.0856,2.4701,-3.5264,-1.4197,-12.3958,11.7183,-0.8914,-0.2645,-4.6487
2019.5312,6.2308,5.1839,7.6280,4.6558,-0.9354,-2.8147,5.1226,7.3844,6.5061,5.7188,5.3908,0.9087,-3.4109,0.2731,-13.8820,3.8467,-1.7377,1.0955,-2.6577
2023.4375,5.7279,5.5373,9.5999,6.5845,2.1491,-6.5672,7.0663,8.0872,6.9350,5.4762,4.9763,-1.1611,-3.4551,1.6398,-7.3652,-2.5933,-2.2887,1.6470,-0.8250
2027.3438,4.8397,5.0132,9.2230,7.5234,4.9714,-4.5185,7.7464,7.9813,6.4253,4.5610,4.2165,-2.3902,-3.0463,3.0514,5.6533,-4.1010,-1.6872,1.5962,0.7244
2031.2500,3.5402,3.6168,7.2991,7.8588,7.4318,0.5016,6.6571,7.4687,5.1426,3.2773,3.3901,-1.9373,-1.7571,4.6367,20.1328,-0.3824,0.2162,1.2604,2.0170
2035.1562,1.7672,1.4350,4.9194,7.8465,9.3470,3.8044,3.8357,6.8146,3.1193,1.7220,2.3639,-0.1186,0.2745,6.0893,29.5682,5.6125,2.6749,0.7705,3.0777
2039.0625,-0.4273,-1.2679,2.9184,7.4317,10.3650,2.1500,-0.0657,5.9313,0.2599,-0.1761,0.5997,1.6889,2.3200,6.8123,29.0226,9.7657,4.4383,-0.0452,3.7932
2042.9688,-2.7799,-4.0170,1.5551,6.3636,10.0711,-4.0568,-3.9865,4.4541,-3.4363,-2.4128,-2.4425,1.8543,3.4151,6.2809,17.6484,9.4505,4.4533,-1.5121,3.9060
2046.8750,-4.8385,-6.2223,0.5719,4.5035,8.2490,-11.1267,-6.8698,2.0598,-7.5825,-4.6668,-6.7218,-0.4746,2.8730,4.3592,-0.5923,4.9284,2.4144,-3.7792,3.1789
2050.7812,-6.1012,-7.3682,-0.4318,2.1052,5.1451,-14.6181,-8.0819,-1.1730,-11.2713,-6.2813,-11.2567,-4.7388,0.6545,1.3639,-18.4805,-1.3149,-1.1651,-6.5131,1.6485
2054.6875,-6.2020,-7.1815,-1.5564,-0.1324,1.5523,-12.2040,-7.6218,-4.5914,-13.2685,-6.5427,-14.3172,-9.1152,-2.6002,-2.1334,-28.7422,-6.5369,-5.3374,-8.8270,-0.2076
2058.5938,-5.0555,-5.6750,-2.3802,-1.2977,-1.3924,-4.9532,-6.0148,-7.1159,-12.5087,-5.1069,-14.1724,-11.3697,-5.8638,-5.5902,-27.4042,-9.3934,-9.2448,-9.5496,-1.5471
2062.5000,-2.8984,-3.0595,-2.1215,-0.6782,-2.6433,3.6613,-3.9576,-7.6572,-8.6589,-2.2955,-10.0257,-9.9529,-8.1530,-8.6658,-15.6275,-10.1278,-12.4230,-7.7500,-1.5101
2066.4062,-0.2150,0.3782,-0.1096,1.8649,-1.7152,10.1250,-1.9318,-5.6045,-2.4329,0.9628,-2.5917,-4.7668,-8.8776,-11.2003,0.9741,-9.4642,-14.7401,-3.2755,0.3213
2070.3125,2.4162,4.3176,3.7102,5.7581,1.0666,12.9169,-0.0156,-1.1446,4.5597,3.5498,6.0670,2.7720,-7.9728,-13.0805,15.2385,-7.4479,-16.1166,2.9928,3.6180
2074.2188,4.4922,8.3342,8.5576,9.8986,4.6843,12.9535,1.9988,4.7489,10.3995,4.7059,13.4038,10.3691,-5.8080,-14.1427,22.0491,-3.4043,-16.3118,9.3542,7.3695
2078.1250,5.7101,11.8131,13.0464,13.0804,7.8760,12.4091,4.2734,10.6514,13.6055,4.3825,17.4971,15.8475,-2.9660,-14.1977,20.6532,2.9199,-14.9720,13.9291,10.3274
2082.0312,6.0019,13.9960,15.7693,14.4682,9.6819,12.9444,6.6122,15.1945,13.6800,3.1898,17.8056,18.0145,-0.0128,-13.1487,14.4443,10.1541,-11.9040,15.4460,11.5992
2085.9375,5.4784,14.2313,15.9318,13.8965,9.8049,14.5886,8.4015,17.5200,11.1920,1.9837,15.1913,17.0142,2.6450,-11.0944,8.4618,15.3611,-7.3546,13.7829,11.0502
2089.8438,4.3220,12.3273,13.6982,11.8595,8.6087,15.8900,8.8775,17.4985,7.3954,1.3630,11.2727,14.0477,4.7781,-8.3354,6.2501,15.6782,-2.0780,9.9745,9.2750
2093.7500,2.6961,8.7727,10.0673,9.2097,6.7886,15.0396,7.5815,15.6514,3.6129,1.3857,7.5396,10.6465,6.2465,-5.2940,8.0620,10.4555,2.8699,5.6661,7.1592
2097.6562,0.7315,4.6162,6.3512,6.7280,4.9416,11.1358,4.7239,12.8484,0.7113,1.6585,4.7387,7.8865,6.8787,-2.4184,11.4171,2.1845,6.4856,2.2957,5.3090
2101.5625,-1.4066,1.0015,3.5407,4.7869,3.2995,4.8411,1.2144,9.9417,-1.0997,1.6945,2.8044,5.9355,6.4157,-0.1265,13.3840,-4.7353,8.1242,0.4385,3.7117
2105.4688,-3.4325,-1.3947,1.8930,3.2741,1.7653,-1.8443,-1.6993,7.4964,-2.1170,1.2711,1.2403,4.1458,4.5913,1.2245,12.7946,-6.7239,7.6349,-0.3395,1.8392
2109.3750,-4.9310,-2.6586,0.9467,1.8014,0.1846,-6.4765,-3.0034,5.7115,-2.7967,0.5467,-0.3821,1.6162,1.3374,1.4007,10.7662,-3.3576,5.3298,-1.0625,-0.8749
2113.2812,-5.4844,-3.4467,-0.0604,0.0650,-1.3648,-7.2743,-2.3955,4.5196,-3.4325,-0.1104,-2.1338,-2.1030,-2.9938,0.4156,9.2763,2.3993,1.8726,-2.6188,-4.4999
2117.1875,-4.8942,-4.4065,-1.6188,-1.8575,-2.4839,-3.9689,-0.4093,3.7707,-4.0176,-0.4176,-3.7601,-6.5684,-7.5559,-1.3496,9.0750,6.2848,-1.8513,-5.1585,-8.3674
2121.0938,-3.3625,-5.6035,-3.5540,-3.4552,-2.6329,1.9564,1.8709,3.3780,-4.3183,-0.3585,-4.9116,-10.5307,-11.1928,-3.1493,8.7399,5.6732,-4.8893,-7.9585,-11.2938
2125.0000,-1.4820,-6.3851,-5.0549,-4.0192,-1.4654,7.8103,3.3402,3.3445,-4.0682,-0.1245,-5.3578,-12.5165,-12.8493,-4.0829,5.7564,1.2670,-6.4300,-9.8192,-12.1486
2128.9062,0.0145,-5.8286,-5.1294,-3.0395,0.9026,10.8904,3.3675,3.6725,-3.1549,0.1119,-5.0454,-11.5877,-12.0164,-3.4580,-1.1581,-3.5937,-6.0464,-9.7464,-10.4380
2132.8125,0.6387,-3.4961,-3.2378,-0.5407,3.8661,9.8407,2.0191,4.2389,-1.6984,0.3851,-4.0208,-7.8490,-8.9686,-1.1265,-10.3668,-5.3844,-3.8672,-7.5153,-6.5697
2136.7188,0.4406,0.0468,0.2804,2.8412,6.5679,5.4386,-0.0598,4.7465,0.0065,0.9214,-2.3342,-2.4231,-4.6467,2.4101,-17.7675,-2.7609,-0.5539,-3.7976,-1.6629
2140.6250,0.0152,3.3807,4.2731,6.0978,8.2630,0.2484,-2.0016,4.8100,1.6441,1.9318,-0.0294,3.0807,-0.2459,6.2040,-19.2803,2.8143,2.9484,0.2020,2.9669
2144.5312,0.1869,5.0408,7.3435,8.2795,8.6094,-2.8067,-3.1142,4.1433,3.0434,3.3886,2.7817,7.2866,3.2577,9.2697,-13.6373,8.4183,5.7749,3.3657,6.3470
2148.4375,1.5408,4.4893,8.6055,8.8899,7.7448,-2.1704,-3.1436,2.7323,4.2672,4.9897,5.8417,9.5603,5.3862,10.9626,-3.3905,11.7536,7.4193,5.1713,8.1249
2152.3438,4.0777,2.5807,8.1627,8.0336,6.1407,1.4262,-2.3165,0.8700,5.5669,6.3619,8.7589,10.0673,6.1328,11.1291,6.6952,12.3380,7.7791,5.8138,8.4884
2156.2500,7.1974,1.1434,6.9905,6.2589,4.3438,5.5124,-1.1863,-0.9864,7.2148,7.3574,11.1272,9.4383,5.7256,9.9830,12.7662,11.0661,6.9868,5.9114,7.8530
2160.1562,10.0117,1.8726,6.2676,4.2107,2.7521,7.5722,-0.3716,-2.4560,9.2923,8.1978,12.6875,8.3240,4.4006,7.8434,14.2711,8.8163,5.1940,6.0222,6.5582
2164.0625,11.7874,5.2173,6.5683,2.3144,1.5195,6.7273,-0.3037,-3.4181,11.5541,9.3177,13.4298,7.1304,2.3526,4.9384,13.8967,5.4979,2.4950,6.2910,4.7688
2167.9688,12.2498,9.9799,7.4473,0.6713,0.5954,4.2089,-1.0780,-4.0131,13.4597,10.9858,13.5617,6.0342,-0.1456,1.3988,15.1430,0.4343,-0.9582,6.4378,2.5956
2171.8750,11.5951,13.9091,7.7138,-0.8009,-0.1637,2.2898,-2.4601,-4.4586,14.3802,12.9661,13.3514,5.1519,-2.6233,-2.5928,19.3716,-6.2925,-4.7761,6.0606,0.2882
2175.7812,10.2567,14.9405,6.2468,-2.1166,-0.8875,2.4929,-4.0281,-4.8129,13.8863,14.4901,12.9260,4.6418,-4.4641,-6.6514,24.5278,-12.8474,-8.2898,5.0204,-1.6978
2179.6875,8.6244,12.3353,2.8352,-3.0585,-1.6339,4.4532,-5.3734,-4.8619,11.9696,14.6139,12.1476,4.6229,-5.1630,-10.1879,26.4730,-16.1109,-10.7542,3.6336,-2.8535
2183.5938,6.9095,7.0616,-1.5046,-3.2337,-2.3828,6.2972,-6.2507,-4.2256,9.0831,12.7703,10.6664,4.9999,-4.6262,-12.5927,21.9536,-13.5358,-11.7007,2.5409,-2.9028
2187.5000,5.2084,1.2512,-4.9632,-2.3191,-3.0590,6.2147,-6.6008,-2.6237,5.9839,9.1792,8.1643,5.3987,-3.2852,-13.4982,11.0842,-5.1104,-11.2043,2.3431,-2.0166
2191.4062,3.6556,-2.8802,-5.8743,-0.3269,-3.5615,3.9457,-6.4527,-0.1161,3.4613,4.8493,4.6841,5.3447,-1.9022,-12.9545,-2.3597,6.0943,-9.8554,3.2473,-0.7765
2195.3125,2.4966,-4.0101,-3.5987,2.3039,-3.7886,0.9744,-5.7955,2.8540,2.0778,1.1471,0.8465,4.6046,-1.1593,-11.4016,-12.9662,15.3598,-8.4279,4.9506,0.1321
2199.2188,1.9907,-2.1093,1.1524,4.8773,-3.6529,-0.7225,-4.5307,5.6607,2.0159,-0.8350,-2.2371,3.4375,-1.2823,-9.4451,-16.6198,18.8779,-7.4445,6.8221,0.3239
2203.1250,2.2090,1.7978,6.7051,6.7866,-3.0836,-0.3375,-2.5520,7.8175,3.0594,-0.7689,-3.4065,2.5294,-1.9317,-7.5541,-12.4987,15.7691,-6.9154,8.2541,-0.0309
2207.0312,2.8909,6.2236,11.2574,7.8381,-2.0131,1.0899,0.1044,9.2169,4.6857,0.8031,-2.0734,2.6041,-2.4119,-5.8424,-3.1272,8.3044,-6.4029,8.9620,-0.2699
2210.9375,3.4978,9.7867,13.6790,8.3534,-0.3627,1.5756,3.1617,10.1387,6.2318,2.7697,1.3259,3.9625,-2.0417,-4.0416,7.1950,0.3410,-5.3387,9.0703,0.4119
2214.8438,3.4617,11.5510,13.8785,8.9789,1.9471,-0.0537,6.1437,11.0334,7.1005,3.9724,5.3731,6.2766,-0.4534,-1.6836,14.4172,-4.8540,-3.3662,8.9699,2.5233
2218.7500,2.4816,11.1403,12.6279,10.2978,4.9355,-3.0293,8.5333,12.2219,6.9628,3.6823,8.2772,8.7923,2.3202,1.5915,16.1431,-5.9918,-0.5008,9.0633,5.9914
2222.6562,0.6815,8.7319,11.0242,12.4513,8.4582,-5.1480,9.9350,13.6963,5.8796,1.8322,8.7622,10.7860,5.9326,5.7458,12.0609,-3.7263,2.9375,9.5436,10.1606
2226.5625,-1.4722,4.9803,9.9002,14.9748,12.1175,-4.5886,10.1345,15.1212,4.2634,-1.0475,6.7230,11.9278,9.8423,10.2156,3.6689,0.3710,6.4956,10.2984,14.0371
2230.4688,-3.4348,0.8409,9.4614,16.9489,15.2744,-1.5748,9.0531,16.0152,2.6597,-4.1059,3.2303,12.2818,13.3612,14.0362,-6.3123,4.8493,9.7056,10.9461,16.6305
2234.3750,-4.8571,-2.7251,9.2752,17.4120,17.2200,1.5498,6.7058,15.9955,1.4428,-6.5144,-0.1374,11.9785,15.6753,16.1979,-14.7048,8.7464,12.0955,10.9703,17.2424
2238.2812,-5.7015,-5.0769,8.5870,15.8486,17.4727,2.0345,3.2700,14.9636,0.6099,-7.7392,-2.2200,10.8773,15.9724,16.0962,-18.8472,11.3570,13.1788,9.9154,15.6403
2242.1875,-6.1473,-6.0797,6.8072,12.5160,16.0676,-1.0496,-0.7542,13.1594,-0.1648,-7.6636,-2.8596,8.5677,13.7502,13.8585,-17.6140,11.9796,12.5499,7.6066,12.1256
2246.0938,-6.3728,-6.0287,3.9398,8.4314,13.6550,-5.8524,-4.4670,11.0768,-1.2187,-6.5476,-2.7719,4.7852,9.1987,10.3632,-11.9850,10.0927,10.1070,4.3245,7.5110
2250.0000,-6.3773,-5.3608,0.7174,4.9853,11.2980,-8.9364,-6.7718,9.2789,-2.5310,-4.8702,-2.8333,-0.0554,3.3941,6.9021,-4.6475,5.8467,6.2725,0.8319,2.9816
2253.9062,-5.9683,-4.3671,-1.6826,3.3321,10.0227,-7.8286,-6.8765,8.1759,-3.5799,-3.1301,-3.3265,-4.6758,-1.9226,4.6387,1.3718,0.3432,2.0128,-1.8345,-0.1978
2257.8125,-4.9211,-3.1115,-2.2479,3.8459,10.3374,-3.0189,-4.8366,7.8505,-3.5890,-1.6907,-3.7089,-7.3678,-4.9814,4.1387,4.3161,-4.7031,-1.4380,-2.7775,-1.0981
2261.7188,-3.2014,-1.5831,-0.7441,5.9346,11.9946,2.1695,-1.7365,8.0211,-2.0472,-0.7169,-3.0732,-6.8718,-4.7428,5.2259,4.4991,-7.7732,-3.0485,-1.6781,0.4925
2265.6250,-1.0950,0.0998,2.0678,8.3432,14.1476,3.8417,0.7500,8.1946,0.8448,-0.2053,-0.9428,-3.1599,-1.3662,7.2227,3.7240,-8.2259,-2.4000,0.9985,3.9322
2269.5312,0.8537,1.6607,4.8241,9.8176,15.8252,0.3077,1.2745,7.9644,4.1474,-0.0582,2.2178,2.4155,3.8851,9.3955,3.7356,-6.3389,0.1841,4.1957,7.9675
2273.4375,2.0797,2.8718,6.3835,9.7715,16.4406,-6.6590,-0.3231,7.2991,6.6561,-0.1446,5.1903,7.7540,9.2396,11.3014,4.8803,-2.7596,3.8301,6.7848,11.2732
2277.3438,2.2857,3.8065,6.5709,8.5672,16.0234,-12.9992,-2.8014,6.6201,7.5966,-0.3184,6.7755,11.0498,13.1597,12.8118,6.0108,2.0486,7.4681,8.1133,13.0097
2281.2500,1.6165,4.8584,6.2994,7.2262,15.0354,-15.1037,-4.1892,6.5651,7.0766,-0.4170,6.5929,11.6096,14.8225,13.8394,5.7017,7.7820,10.1298,8.2404,13.0831
2285.1562,0.6089,6.4153,6.9110,6.7341,13.9160,-12.1159,-2.9944,7.5329,5.9697,-0.2801,5.3177,9.9778,14.1531,14.0280,3.7666,13.6969,11.0828,7.7196,11.9751
2289.0625,-0.0716,8.3964,9.1283,7.3759,12.6916,-6.1973,0.8000,9.2930,5.3004,0.1895,4.1839,7.3900,11.5413,12.7149,1.7746,18.0959,9.8719,7.1069,10.2963
2292.9688,0.0257,10.0518,12.3506,8.5428,10.9508,-0.7126,5.6196,10.9587,5.5565,0.9551,4.1247,5.0046,7.5526,9.2818,2.0232,18.6695,6.4066,6.5703,8.4011
2296.8750,0.8997,10.2924,14.8583,9.1559,8.2301,2.1943,9.1776,11.4162,6.4167,1.8261,5.1814,3.4425,2.8574,3.7019,5.6681,13.8305,1.1355,5.8988,6.3401
2300.7812,2.1057,8.4217,14.8854,8.4428,4.5462,2.8180,9.8095,9.9957,7.0765,2.5326,6.5947,2.8493,-1.6618,-3.1031,11.4570,4.2446,-4.8332,4.8889,4.1539
2304.6875,3.0109,4.7774,11.8739,6.5428,0.6778,3.1178,7.4211,6.9599,6.9177,2.8644,7.4659,3.2564,-4.8743,-9.4187,16.1460,-6.6727,-9.8911,3.7693,2.2263
2308.5938,3.1515,0.7676,7.0320,4.5110,-2.0642,4.7232,3.4668,3.4633,6.0051,2.7906,7.4540,4.8033,-5.6651,-13.4092,16.4543,-14.0149,-12.4633,3.2617,1.3455
2312.5000,2.4802,-1.8295,2.7389,3.6839,-2.4978,7.3700,0.0204,0.9581,5.0275,2.4680,6.9677,7.5580,-3.4730,-13.9663,11.2597,-13.9224,-11.7294,4.1404,2.3285
2316.4062,1.3493,-1.9049,1.1255,4.8062,-0.2720,8.9935,-1.4235,0.3983,4.7205,2.1191,6.7236,11.0749,1.2137,-11.2452,2.5247,-5.9059,-8.1254,6.5608,5.4128
2320.3125,0.2413,0.2852,2.7494,7.4972,3.8385,7.3715,-0.6610,1.7399,5.2138,1.8570,7.0411,14.1381,6.7967,-6.5718,-5.6849,6.5896,-3.2600,9.6657,9.8417
2324.2188,-0.5730,3.2515,6.2535,10.4202,8.2589,2.0175,1.3622,4.0519,5.8182,1.5806,7.4519,15.0666,11.1203,-1.7772,-9.4353,17.8751,0.8025,11.8442,13.9977
2328.1250,-1.2115,5.1692,9.2466,12.0590,11.3844,-5.1372,3.3192,6.1440,5.4570,1.0268,6.9581,12.5541,12.4212,1.6470,-6.9934,23.0105,2.5361,11.5784,16.0954
2332.0312,-2.0567,4.9619,9.8259,11.6023,12.3414,-10.7948,4.3117,7.2783,3.4642,-0.0397,4.7783,6.5694,10.1727,3.1083,0.4571,20.3058,1.6655,8.3801,15.0684
2335.9375,-3.4038,2.8829,7.7455,9.3794,11.3046,-12.3280,4.2203,7.4976,0.1864,-1.6208,1.0413,-1.3002,5.3410,2.9333,9.6672,11.8824,-0.8071,3.2062,11.1372
2339.8438,-5.1273,0.2640,4.4923,6.5955,9.2253,-9.3788,3.5064,7.3968,-3.0617,-3.4063,-3.0902,-8.3880,-0.0989,1.9441,17.0181,2.1232,-3.2486,-1.9484,5.7246
2343.7500,-6.6317,-1.3441,2.2769,4.5756,7.1914,-3.9726,2.7629,7.5570,-4.7047,-4.8907,-5.9881,-12.1498,-4.1158,0.9230,20.0326,-4.8581,-4.2980,-5.0616,0.7713
2347.6562,-7.1706,-1.0565,2.6343,4.0202,5.8387,0.8320,2.3933,8.0835,-3.8386,-5.6294,-6.4679,-11.3823,-5.5220,0.2889,18.0560,-7.1448,-3.4925,-5.1029,-2.1545
2351.5625,-6.3595,0.9521,5.5240,4.7188,5.1483,2.7857,2.5725,8.5692,-0.8027,-5.4827,-4.4672,-6.7840,-4.3683,0.0979,12.0973,-5.3679,-1.3098,-2.4790,-2.4847
2355.4688,-4.5404,3.6780,9.4209,5.8288,4.6789,1.5967,3.3495,8.4685,2.9612,-4.7001,-1.0849,-0.5675,-1.7068,0.2438,4.2084,-1.6468,1.2864,1.2938,-0.7429
2359.3750,-2.7132,5.8799,12.2333,6.4608,4.0066,-1.2154,4.6634,7.5605,5.6636,-3.7851,2.0125,4.6294,1.0580,0.6377,-3.2239,1.8914,3.4295,4.4217,1.8540
2363.2812,-2.0155,6.6360,12.4216,6.1607,3.0503,-3.4884,6.2123,6.1413,6.0788,-3.2157,3.4458,6.9321,2.8404,1.2400,-8.1078,4.0275,4.7021,5.6595,4.0019
2367.1875,-3.0408,5.6202,9.6831,5.0241,2.0955,-3.7714,7.3512,4.8148,4.1054,-3.1825,2.7592,5.9311,3.2472,1.9815,-9.1468,4.4861,5.1331,4.7144,4.8120
2371.0938,-5.4280,3.0990,4.9391,3.4665,1.5563,-2.0711,7.2585,4.0666,0.7170,-3.5008,0.5383,2.6349,2.5604,2.7044,-6.1375,3.4955,4.9814,2.1397,4.0325
2375.0000,-8.0099,-0.2172,-0.2161,1.8901,1.6808,0.3144,5.3981,3.9568,-2.5981,-3.7574,-1.9813,-1.1846,1.4360,3.2137,0.0470,1.4753,4.5314,-1.0812,1.9903
2378.9062,-9.4706,-3.3806,-4.2224,0.4929,2.3993,1.6281,2.0003,4.1487,-4.5634,-3.6112,-3.5625,-3.8609,0.5197,3.3951,7.7865,-0.9149,4.0146,-3.9679,-0.6415
2382.8125,-9.1236,-5.4784,-6.0969,-0.7015,3.3799,0.6261,-1.8365,4.2179,-4.6468,-3.0677,-3.5422,-4.5129,0.1440,3.2790,15.1703,-2.6556,3.6016,-5.8227,-3.1277
2386.7188,-7.3307,-5.9752,-5.6770,-1.7003,4.2137,-2.7980,-4.6128,3.9784,-3.1929,-2.5418,-2.0884,-3.2944,0.2015,2.9670,20.3490,-2.6150,3.3476,-6.3437,-4.9143
2390.6250,-5.2916,-5.0072,-3.5737,-2.4438,4.5920,-7.5771,-5.2403,3.5719,-1.1619,-2.6376,-0.0522,-1.1862,0.2232,2.4742,21.7441,-0.2404,3.0806,-5.6384,-5.7710
2394.5312,-4.3259,-3.4095,-0.8895,-2.8299,4.3930,-11.9859,-3.6858,3.2773,0.3641,-3.7424,1.5003,0.5374,-0.3599,1.6386,18.3335,3.7796,2.3624,-4.1609,-5.7909
2398.4375,-5.0861,-2.3359,1.2313,-2.8005,3.6791,-14.4510,-0.9992,3.2216,0.6864,-5.6726,1.8605,0.9397,-1.8526,0.2186,10.2185,7.5510,0.6747,-2.5448,-5.2453
2402.3438,-7.1776,-2.5954,2.0981,-2.3794,2.6565,-14.2783,1.3090,3.2402,-0.1979,-7.6166,1.0739,-0.1010,-3.9897,-1.8507,-0.7115,8.9685,-2.1827,-1.3272,-4.3612
2406.2500,-9.4039,-4.0887,1.8081,-1.6112,1.6301,-11.9370,2.1335,2.9969,-1.6049,-8.4691,-0.0553,-1.7837,-5.8829,-4.2310,-10.6734,7.1640,-5.7257,-0.6633,-3.1488
2410.1562,-10.4660,-5.7514,1.2120,-0.4631,0.9455,-8.7290,1.3222,2.2637,-2.4980,-7.4158,-0.3945,-2.7324,-6.3358,-6.1949,-15.0937,3.3990,-8.7789,-0.2113,-1.3976
2414.0625,-9.6816,-6.1148,1.4607,1.2003,0.8956,-6.0014,-0.4043,1.1349,-2.0068,-4.4402,0.8634,-1.6853,-4.4470,-6.9412,-10.8453,0.5960,-9.9739,0.6887,1.1342
2417.9688,-7.3092,-4.1796,3.3401,3.5113,1.6071,-4.3608,-2.0225,0.0140,0.1200,-0.4277,3.6906,1.7901,-0.2073,-6.0541,1.5200,1.5845,-8.5385,2.5993,4.4500
2421.8750,-4.3301,-0.0531,6.7729,6.4226,2.9660,-3.4006,-2.8203,-0.6114,3.3653,3.2402,7.1866,6.9399,5.2765,-3.8141,17.1883,7.0932,-4.8914,5.5753,8.1477
2425.7812,-1.8767,5.0584,10.8021,9.5916,4.6451,-2.1605,-2.6631,-0.4421,6.6914,5.3987,10.0695,12.0694,10.1469,-1.1349,29.0872,14.8602,-0.5981,9.0319,11.4897
2429.6875,-0.6716,9.4819,14.0772,12.4308,6.2382,-0.0340,-1.8477,0.4911,9.0534,5.7023,11.4086,15.3179,12.6321,0.8678,31.7258,20.6231,2.3802,11.9978,13.6912
2433.5938,-0.7791,11.9149,15.5401,14.3142,7.4339,2.5196,-0.7913,1.8784,9.8861,4.7506,11.1357,15.5763,11.9269,1.4363,24.5891,20.5564,2.7394,13.6076,14.2631
2437.5000,-1.7306,11.9504,14.8876,14.8288,8.1274,4.0374,0.1467,3.3010,9.2940,3.6584,9.9981,13.0421,8.6163,0.5328,12.7012,13.7077,0.5516,13.5256,13.2095
2441.4062,-2.8630,10.0485,12.5663,13.9347,8.4120,2.9559,0.6372,4.3990,7.8644,3.3474,8.9894,9.0925,4.3774,-1.1912,3.6497,2.8739,-2.8030,12.0501,10.9841
2445.3125,-3.6309,7.1101,9.3888,11.9682,8.4763,-1.1982,0.3262,4.9668,6.2655,4.0133,8.6566,5.5416,1.1133,-2.7699,2.7999,-6.7412,-5.4477,9.8700,8.2662
2449.2188,-3.7524,4.0240,6.0955,9.5153,8.4943,-7.1583,-1.0307,4.9885,4.9055,5.0960,8.7679,3.7115,0.0117,-3.3977,9.8619,-10.3701,-6.0502,7.6720,5.7131
2453.1250,-3.2101,1.4568,3.1588,7.2342,8.5794,-12.3404,-3.2546,4.6533,3.8479,5.7311,8.5628,3.8461,1.0596,-2.7372,19.2217,-6.3493,-4.4547,5.8596,3.8172
2457.0312,-2.2153,-0.1386,0.8670,5.6903,8.8063,-14.1706,-5.5376,4.3463,2.9632,5.3355,7.3821,5.1715,3.2499,-0.9388,23.8753,2.9869,-1.5624,4.5173,2.8779
2460.9375,-1.2044,-0.5139,-0.5146,5.2211,9.2354,-11.5350,-6.6694,4.5569,2.1266,3.9108,5.1944,6.5026,5.2889,1.5537,20.2391,12.7039,1.3708,3.5550,3.0056
2464.8438,-0.8219,0.2290,-0.7549,5.8259,9.8751,-5.4664,-5.7293,5.6678,1.2754,1.8792,2.6191,6.9656,6.3222,4.2264,10.4381,18.0745,3.4938,2.8504,4.0744
2468.7500,-1.7831,1.4397,0.1124,7.1058,10.5843,1.3398,-2.8514,7.6823,0.2999,-0.3695,0.4306,6.3742,6.2337,6.6045,0.4932,17.0850,4.6748,2.2644,5.6364
2472.6562,-4.5715,1.9453,1.5402,8.3057,10.9977,5.8610,0.5231,10.0548,-1.0780,-2.8220,-1.0722,5.0698,5.3981,8.2353,-4.1825,11.1789,5.2329,1.5539,6.9066
2476.5625,-9.0772,0.4873,2.4864,8.5081,10.5745,6.1464,2.2416,11.7867,-3.2459,-5.7745,-2.3319,3.4209,4.1450,8.6504,-2.6193,3.9318,5.3831,0.3278,6.9255
2480.4688,-14.4026,-3.5681,1.8159,6.9542,8.8041,2.0497,0.6509,11.8164,-6.4174,-9.3844,-4.1933,1.4147,2.3760,7.4235,1.3417,-1.3509,4.8733,-1.8310,4.9009
2484.3750,-19.0335,-9.6727,-1.0931,3.3788,5.4857,-4.9414,-4.2979,9.5385,-10.2899,-13.1963,-7.1704,-1.3115,-0.3637,4.3521,2.3053,-3.5139,3.1178,-5.0973,0.5934
2488.2812,-21.3784,-16.1127,-5.9014,-1.7959,0.9276,-12.4907,-10.7947,5.1647,-13.9183,-16.0588,-10.8361,-4.9926,-4.4018,-0.3301,-2.3546,-3.7577,-0.2624,-9.1479,-5.4599
2492.1875,-20.4447,-20.6789,-11.3134,-7.5193,-4.0703,-18.2935,-16.0062,-0.2919,-15.9734,-16.5879,-13.7938,-9.1689,-9.3999,-5.8583,-10.3904,-4.2024,-4.9011,-13.1100,-12.0198
2496.0938,-16.2944,-21.6412,-15.5540,-12.4190,-8.4709,-20.6866,-17.5425,-5.4223,-15.3016,-13.9328,-14.3105,-12.5111,-14.1822,-11.0625,-16.3136,-5.9451,-9.5776,-15.7937,-17.5059
2500.0000,-10.0164,-18.4745,-17.0612,-15.2358,-11.3788,-18.9255,-14.6823,-8.9994,-11.4896,-8.3578,-11.2512,-13.2935,-17.1212,-14.7015,-15.4257,-8.0445,-12.6803,-16.1227,-20.4932
2503.9062,-3.2176,-11.9570,-15.0495,-15.2183,-12.3600,-13.2555,-8.6411,-10.4186,-5.1104,-1.2428,-4.7607,-10.3304,-16.9073,-15.8793,-7.1593,-8.1639,-12.9976,-13.5640,-20.1453
2507.8125,2.6875,-3.6859,-9.7267,-12.3434,-11.5546,-4.8609,-1.7887,-9.7977,2.4809,5.5256,3.6986,-3.8275,-13.2646,-14.3665,4.6945,-4.4052,-10.3680,-8.3683,-16.4433
2511.7188,6.9965,4.6098,-2.1685,-7.3096,-9.5422,4.3573,3.6350,-7.7464,9.6719,10.4092,11.9529,4.4227,-7.1851,-10.6880,14.8364,2.9966,-5.7974,-1.5336,-10.1706
2515.6250,9.7832,11.5430,6.0064,-1.3346,-7.0482,12.2541,6.5120,-5.0025,15.1410,12.8151,18.0052,11.7158,-0.5334,-5.9376,20.0519,11.3736,-0.9750,5.4689,-2.6943
2519.5312,11.5217,16.1807,13.0177,4.1715,-4.6441,17.0864,7.0367,-2.1637,18.1702,13.1177,20.7375,15.6631,4.7644,-1.3918,20.8271,17.0162,2.5304,11.0971,4.3817
2523.4375,12.5542,17.9516,17.3049,7.9689,-2.5787,18.0552,6.1595,0.3747,18.6474,12.1699,20.1293,15.2935,7.5067,1.9221,19.9964,17.3668,3.9441,14.1421,9.6101
2527.3438,12.7612,16.6138,17.8992,9.3045,-0.7999,15.4434,4.7852,2.3318,16.8727,10.6759,16.9932,11.4037,7.5765,3.5306,19.8052,12.5625,3.4846,14.0351,12.0571
2531.2500,11.6515,12.3909,14.7297,8.1016,0.8762,10.2777,3.2693,3.4579,13.3571,8.8365,12.4749,5.9843,5.7457,3.5757,19.9013,5.3014,2.0324,10.9869,11.5265
2535.1562,8.8126,6.1410,8.7384,4.9681,2.5595,3.7782,1.4532,3.5691,8.7317,6.4526,7.6154,1.1078,3.1148,2.6221,17.8498,-0.8490,0.5149,5.9274,8.5764
2539.0625,4.4256,-0.6810,1.6776,1.0118,4.1671,-2.9927,-0.9236,2.6897,3.7540,3.3559,3.1600,-2.0304,0.5550,1.3245,11.6260,-3.5460,-0.6149,0.2555,4.3159
2542.9688,-0.5003,-6.3750,-4.4087,-2.4840,5.4588,-9.0566,-3.7973,1.1796,-0.6888,-0.1663,-0.3881,-3.3731,-1.5407,0.1292,1.9472,-2.7970,-1.5177,-4.5310,0.0567
2546.8750,-4.3674,-9.5286,-7.8431,-4.4193,6.2056,-13.2022,-6.6251,-0.2916,-3.6775,-3.2540,-2.6156,-3.5229,-3.1317,-0.8348,-7.5199,-0.4793,-2.6855,-7.2204,-3.0472
2550.7812,-5.6265,-9.4516,-7.8355,-4.1591,6.3810,-13.8986,-8.5558,-0.9658,-4.4762,-4.7655,-3.1289,-2.9762,-4.2131,-1.6410,-12.3173,1.2395,-4.4509,-7.1778,-4.2471
2554.6875,-3.5047,-6.3116,-4.6515,-1.6634,6.2437,-9.7978,-8.7796,-0.3215,-2.7988,-3.8294,-1.6681,-1.6835,-4.5920,-2.3286,-10.1254,1.3627,-6.6182,-4.4770,-3.2919
2558.5938,1.5483,-0.9746,0.6028,2.5440,6.2346,-0.7009,-6.8677,1.6720,0.9919,-0.3685,1.6340,0.7428,-3.9393,-2.7276,-2.3343,0.3968,-8.4589,0.1357,-0.4027
2562.5000,7.9420,5.2776,6.4323,7.5359,6.7307,11.6507,-2.9732,4.5236,5.8637,4.6811,6.0173,4.3708,-2.0759,-2.4837,6.7811,-0.5163,-9.0851,5.4227,3.8019
2566.4062,13.5405,11.0084,11.4239,12.2182,7.8033,23.6956,2.1494,7.4431,10.3344,9.5931,10.1034,8.4058,0.7333,-1.2818,12.5721,-0.8138,-7.9764,9.9485,8.4036
2570.3125,16.5097,14.8541,14.5818,15.5953,9.1469,31.3462,7.3186,9.7096,12.9065,12.4604,12.2703,11.2683,3.7169,0.8795,12.4489,-1.0094,-5.3373,12.4460,12.3327
2574.2188,16.0267,15.8046,15.4793,17.0109,10.2472,31.9206,11.2714,10.9878,12.5879,11.9549,11.3048,11.3496,5.8518,3.5577,6.7972,-2.0740,-2.0600,12.1803,14.5996
2578.1250,12.5301,13.5518,14.2517,16.3040,10.6982,25.6212,13.0998,11.4266,9.2904,7.9134,7.0277,7.9810,6.2996,5.9886,-1.8143,-4.2833,0.6874,9.1896,14.5767
2582.0312,7.4141,8.7413,11.4652,13.8207,10.4573,15.5870,12.5993,11.4897,3.8961,1.4637,0.5103,1.9514,4.7623,7.3995,-10.2288,-6.6223,2.0014,4.2782,12.2153
2585.9375,2.3415,2.8764,7.8912,10.2630,9.8529,6.3395,10.3313,11.6240,-2.0938,-5.4121,-6.3305,-4.8210,1.5536,7.3247,-16.0119,-7.4214,1.5957,-1.2824,8.0650
2589.8438,-1.4682,-2.2335,4.2442,6.4277,9.3138,1.4369,7.3142,11.9612,-7.1984,-10.7086,-11.6195,-10.2910,-2.6265,5.7434,-18.0049,-5.8507,-0.2133,-6.2374,3.0534
2593.7500,-3.6258,-5.2716,0.9849,2.9524,8.9922,1.6861,4.4868,12.2284,-10.5660,-13.2350,-14.4203,-13.3302,-7.0308,2.9856,-16.3348,-3.0555,-2.8146,-9.7867,-1.8687
2597.6562,-4.4780,-6.0021,-1.7061,0.1828,8.5494,4.9565,2.2681,11.9189,-12.2145,-13.0302,-15.1005,-14.1476,-11.0827,-0.4829,-12.2454,-1.8052,-5.6488,-11.7467,-6.0242
2601.5625,-4.6472,-5.2496,-3.7740,-1.7962,7.2833,7.6730,0.5049,10.6142,-12.7583,-11.1345,-14.9072,-13.8489,-14.3633,-4.2251,-7.7786,-4.5896,-8.3460,-12.3701,-9.0937
2605.4688,-4.5193,-4.2468,-5.0816,-3.0300,4.5569,7.0441,-1.1615,8.2566,-12.8039,-8.8603,-14.9977,-13.4798,-16.4582,-7.8446,-5.0764,-11.3870,-10.6029,-11.9785,-10.9870
2609.3750,-4.0013,-3.7695,-5.3420,-3.5817,0.2692,2.6659,-2.7949,5.2081,-12.4265,-7.0052,-15.5540,-13.2294,-16.8758,-10.8930,-5.3127,-18.8408,-11.9807,-10.6860,-11.6524
2613.2812,-2.6751,-3.6472,-4.3008,-3.5219,-4.9366,-3.4080,-3.9405,2.0683,-11.1067,-5.4913,-15.5935,-12.3326,-15.1884,-12.8236,-7.8232,-21.7968,-11.8821,-8.4173,-11.0043
2617.1875,-0.2147,-2.9858,-2.0631,-2.9958,-9.8764,-8.0501,-3.8897,-0.6164,-8.1938,-3.6372,-13.6500,-9.7068,-11.3470,-13.1075,-10.2396,-16.5207,-9.8246,-5.1859,-9.0317
2621.0938,3.2415,-0.9317,0.7079,-2.2641,-13.3260,-8.9304,-2.2633,-2.5562,-3.5781,-0.8531,-8.8979,-4.8581,-5.9351,-11.4880,-9.8938,-3.5576,-5.8628,-1.3799,-5.9808
2625.0000,7.0300,2.5858,2.9643,-1.6242,-14.5225,-5.6973,0.5456,-3.7122,1.9297,2.7420,-1.9599,1.5747,-0.1149,-8.2065,-5.7340,11.8373,-0.8316,2.2253,-2.4222
2628.9062,10.2623,6.6736,3.8054,-1.2262,-13.3859,0.1527,3.4577,-4.1177,6.8386,6.2274,5.1854,7.9928,4.7866,-4.0187,0.6567,22.3110,3.8447,4.8014,0.9072
2632.8125,12.2816,9.9790,3.0530,-0.9199,-10.3802,6.4382,5.3259,-3.6965,9.7361,8.3939,10.1903,12.5996,7.8430,0.0578,5.9076,22.6456,6.7487,5.9420,3.4111
2636.7188,12.9698,11.5065,1.4478,-0.2853,-6.1730,11.5867,5.6603,-2.2476,10.0815,8.5193,11.6069,14.2539,8.8951,3.1365,7.1773,12.9680,7.1390,5.9237,4.8840
2640.6250,12.7083,11.1699,0.2577,1.1167,-1.3543,15.2012,4.9168,0.3658,8.4973,6.8706,9.6296,12.9173,8.4806,4.7711,4.2800,-1.2018,5.2729,5.5324,5.5203
2644.5312,12.0480,9.7278,0.5021,3.4114,3.6237,17.6738,4.1121,3.9583,6.3554,4.5843,5.8587,9.5111,7.3839,5.0193,-0.0911,-12.2115,2.1776,5.5489,5.6840
2648.4375,11.3503,8.2176,2.3084,6.2357,8.3242,19.3400,4.0404,7.9123,4.9410,3.0037,2.2889,5.3825,6.1358,4.2710,-2.3924,-14.8202,-0.9610,6.2563,5.6263
2652.3438,10.6666,7.3421,4.8647,8.8836,12.2175,19.9564,4.6886,11.3476,4.7670,2.9220,0.2247,1.7617,4.8251,3.0039,-1.0600,-9.1223,-3.3684,7.3329,5.3832
2656.2500,9.9254,7.2316,7.0281,10.7150,14.7538,18.9463,5.3107,13.5074,5.4872,4.2264,-0.1849,-0.5148,3.3430,1.6417,2.0971,-0.0006,-4.8428,8.2107,4.9290
2660.1562,9.2414,7.6571,8.1598,11.5626,15.6112,16.1843,5.1080,14.1265,6.4062,6.1375,0.4133,-1.0131,1.8310,0.5643,3.2055,6.4340,-5.4694,8.6172,4.4355
2664.0625,9.0444,8.4079,8.5632,11.8335,14.9284,12.5965,3.9728,13.5313,7.1465,7.8221,1.3653,0.3656,0.9121,0.1640,-0.4858,6.9603,-5.2038,8.8590,4.3652
2667.9688,9.8572,9.4543,9.1677,12.1929,13.3020,9.9438,2.6748,12.3858,7.9304,8.9122,2.5631,3.3530,1.4256,0.7955,-7.9609,3.1343,-3.7362,9.5833,5.2377
2671.8750,11.8317,10.7574,10.6587,13.0101,11.4811,9.7709,2.2899,11.2362,9.2500,9.5782,4.3396,7.1986,3.7715,2.5743,-14.5357,-0.2647,-0.8048,11.1586,7.1742
2675.7812,14.3886,11.9364,12.7015,13.9496,9.9316,12.2042,3.2819,10.1549,11.1954,10.1548,6.8398,10.6637,7.3283,5.1527,-14.9142,0.9531,3.2797,13.1366,9.5529
2679.6875,16.2892,12.1628,13.8913,14.0275,8.5698,15.5124,4.9637,8.7280,13.0059,10.6592,9.4339,12.3074,10.4481,7.6890,-7.1335,7.0597,7.3732,14.2515,11.1025
2683.5938,16.2023,10.4875,12.5707,12.1645,6.8794,16.9072,5.8239,6.4127,13.2746,10.6054,10.7314,11.0468,11.1847,9.1326,5.4993,13.9478,9.8409,13.0560,10.4887
2687.5000,13.4698,6.4469,8.0169,7.9204,4.3639,14.2017,4.5603,3.0357,10.7610,9.2833,9.2971,6.7223,8.3913,8.7246,16.0414,15.9009,9.4009,8.8342,7.0950
2691.4062,8.5926,0.5336,1.1799,1.9404,1.0344,7.2907,1.0943,-0.9015,5.2915,6.3097,4.6247,0.3116,2.5070,6.4206,18.1500,9.6793,5.9491,2.1961,1.5065
2695.3125,3.0918,-5.8349,-5.5988,-4.2066,-2.4216,-1.5669,-3.1993,-4.3363,-1.8845,2.0512,-2.3095,-6.4021,-4.5240,2.9473,10.0778,-2.9335,0.7722,-5.0667,-4.6533
2699.2188,-1.2210,-10.8909,-9.7958,-8.7484,-4.9512,-8.9389,-6.2793,-6.1418,-8.5795,-2.4018,-9.3399,-11.5806,-10.2237,-0.5792,-4.2395,-15.9321,-4.0768,-10.8220,-9.4946
2703.1250,-3.1513,-13.3091,-10.1145,-10.5851,-5.7584,-12.1838,-6.7341,-5.7296,-12.7334,-5.7173,-14.1172,-14.1050,-12.8832,-3.2571,-17.6297,-22.7446,-6.8983,-13.6404,-11.8079
2707.0312,-2.6753,-12.7569,-7.2062,-9.8086,-4.8437,-10.9405,-4.6966,-3.4040,-13.4164,-6.9650,-15.2296,-13.9553,-12.4061,-4.8445,-23.9055,-20.2924,-7.2593,-13.4237,-11.6242
2710.9375,-0.8283,-9.9122,-3.2392,-7.5681,-3.0920,-7.1802,-1.7343,-0.2537,-11.1737,-6.0326,-12.7892,-12.0135,-10.1811,-5.7699,-21.0867,-10.7557,-6.1133,-11.2732,-10.0610
2714.8438,0.9666,-6.0081,-0.5910,-5.3757,-1.8185,-3.8023,0.2054,2.3658,-7.5572,-3.5935,-8.2009,-9.4568,-8.0989,-6.7153,-11.7953,0.0610,-5.0608,-8.7335,-8.5676
2718.7500,1.6946,-2.2272,-0.4853,-4.2769,-2.0298,-2.7216,0.0600,3.4736,-4.1984,-0.6984,-3.3456,-7.1330,-7.3716,-8.0695,-1.0490,6.5529,-5.2601,-6.9107,-8.0501
2722.6562,1.1985,0.7058,-2.4060,-4.3647,-3.8438,-3.7282,-1.7407,2.8854,-2.0213,1.7306,0.2927,-5.2770,-7.9043,-9.6214,6.7396,6.7085,-6.7137,-5.9922,-8.4091
2726.5625,0.0725,2.5856,-4.5941,-4.8841,-6.4146,-4.8588,-3.6986,1.2069,-1.0215,3.2192,2.1025,-3.6642,-8.5712,-10.6898,9.6527,2.8739,-8.3754,-5.3882,-8.7350
2730.4688,-0.8423,3.5387,-5.2393,-4.8036,-8.3973,-3.9712,-4.3488,-0.5597,-0.6175,3.7639,2.3043,-2.0060,-8.1281,-10.5772,8.3235,-0.4039,-8.9474,-4.3132,-7.9854
2734.3750,-0.9828,3.8014,-3.5743,-3.4660,-8.6602,-0.3954,-3.2331,-1.5527,-0.2197,3.6456,1.6023,-0.2598,-6.0992,-9.0260,4.7913,0.2466,-7.7803,-2.3815,-5.6807
2738.2812,-0.2932,3.6192,-0.2058,-0.9302,-6.8283,4.5058,-1.0893,-1.4328,0.4022,3.2141,0.8176,1.3612,-3.0487,-6.3752,1.2785,4.8240,-5.2640,0.1538,-2.1857
2742.1875,0.9029,3.2630,3.4349,2.1560,-3.3751,8.2524,0.8006,-0.4324,1.1358,2.7632,0.6556,2.6374,-0.1176,-3.3464,-0.4818,10.3245,-2.4944,2.6103,1.5574
2746.0938,2.2002,3.0538,6.0699,5.0009,0.7244,8.9840,1.5623,0.8990,1.7947,2.5018,1.5649,3.6057,1.7824,-0.6400,0.4787,13.1588,-0.5158,4.3356,4.6168
2750.0000,3.3216,3.2993,7.3010,7.1127,4.5138,6.7891,1.2828,2.0593,2.3484,2.5486,3.5991,4.5913,2.5285,1.3689,4.0778,11.7052,0.2952,5.0920,6.5772
2753.9062,4.1270,4.1549,7.6498,8.4700,7.4292,3.6877,0.8184,2.8444,2.9242,2.9031,6.3008,5.9571,2.7432,2.6591,8.9013,7.1768,0.3048,5.1471,7.6598
2757.8125,4.5060,5.5165,7.9893,9.3705,9.3588,2.2784,1.0840,3.3659,3.6323,3.4201,8.7639,7.7636,3.2502,3.3634,12.4445,2.3758,0.1795,5.0702,8.4371
2761.7188,4.3389,7.0539,8.8501,10.1277,10.4515,3.9919,2.4025,3.8766,4.4265,3.8559,9.9991,9.6246,4.4728,3.5469,12.2904,-0.4965,0.3229,5.4109,9.3906
2765.6250,3.6155,8.3973,10.1161,10.8569,10.8791,8.1594,4.3777,4.5545,5.1682,4.0126,9.5104,10.9125,6.2086,3.1559,7.8257,-1.2163,0.6249,6.4690,10.6246
2769.5312,2.6206,9.3740,11.2868,11.4832,10.7337,12.5143,6.3108,5.3879,5.8496,3.9064,7.7454,11.1999,7.8880,2.1614,1.2897,-1.1319,0.6715,8.2511,11.8991
2773.4375,1.9730,10.1321,12.0358,11.9109,10.0858,14.7427,7.7586,6.2074,6.7545,3.8275,6.0397,10.6212,9.0547,0.7519,-2.9846,-1.5001,0.1933,10.5623,12.8936
2777.3438,2.3817,11.0501,12.5790,12.1737,9.0934,13.9797,8.7706,6.8015,8.3411,4.2011,5.9445,9.8593,9.6656,-0.6200,-1.1237,-2.0835,-0.6413,13.1057,13.4631
2781.2500,4.1981,12.4551,13.5257,12.4182,8.0223,11.2255,9.6449,7.0135,10.8505,5.2945,8.2546,9.7182,9.9951,-1.4125,7.4233,-1.2646,-1.3250,15.5057,13.6841
2785.1562,7.0415,14.3064,15.2991,12.7322,7.1392,8.4510,10.4588,6.7651,13.8981,6.9474,12.3387,10.5436,10.2583,-1.2881,18.7890,2.3583,-1.4158,17.2770,13.6773
2789.0625,9.7944,16.0421,17.5719,12.9742,6.5673,7.0943,10.8141,6.0364,16.3887,8.5216,16.2694,11.8941,10.2968,-0.3197,26.4798,8.2077,-0.9103,17.8392,13.3823
2792.9688,11.0521,16.7167,19.1877,12.7752,6.2388,7.0528,10.0467,4.8680,16.9223,9.1510,17.7779,12.7183,9.6066,1.0430,25.2162,13.3602,-0.2807,16.6596,12.5002
2796.8750,9.8205,15.4000,18.7129,11.7549,6.0018,6.8779,7.7556,3.4152,14.5229,8.1768,15.5147,11.9601,7.7116,2.2335,14.4005,14.1305,-0.1369,13.5018,10.6855
2800.7812,6.0674,11.6561,15.3063,9.8126,5.8060,4.9882,4.2275,2.0049,9.2698,5.5214,9.8603,9.2174,4.6003,2.8863,-1.1629,8.6502,-0.7664,8.6482,7.8624
2804.6875,0.8011,5.8539,9.3424,7.2753,5.8090,0.9837,0.3924,1.1015,2.4205,1.7750,2.7764,5.0310,0.8891,3.0125,-13.9259,-1.3825,-1.8968,2.9340,4.4244
2808.5938,-4.3791,-0.8710,2.3601,4.7729,6.2963,-3.9057,-2.6927,1.1383,-4.0923,-2.0647,-3.2205,0.6198,-2.4283,2.9375,-17.9988,-11.1565,-2.8530,-2.4784,1.1390
2812.5000,-8.0066,-7.0068,-3.6575,2.9030,7.4517,-7.5600,-4.4647,2.2816,-8.5287,-5.0475,-6.3429,-2.7633,-4.4893,3.0643,-12.4850,-15.3139,-2.9917,-6.5073,-1.2161
2816.4062,-9.3522,-11.2295,-7.2335,1.9114,9.1434,-8.3686,-5.1200,4.2790,-10.0896,-6.6610,-6.3199,-4.4488,-4.9895,3.6206,-1.6781,-11.0888,-2.1029,-8.5415,-2.2617
2820.3125,-8.6152,-12.8708,-8.0086,1.6062,10.8966,-6.3081,-5.3293,6.5225,-9.1433,-6.9496,-4.2791,-4.5763,-4.2651,4.5357,7.8394,-0.0641,-0.5129,-8.6148,-2.2014
2824.2188,-6.6671,-12.0821,-6.6888,1.5601,12.0985,-2.9810,-5.6237,8.3248,-6.8502,-6.3389,-1.8968,-3.8444,-3.0107,5.4833,11.1750,12.5373,1.1500,-7.2861,-1.6575
2828.1250,-4.5571,-9.6522,-4.4449,1.4455,12.3116,-0.6328,-5.9275,9.2542,-4.4612,-5.3190,-0.4085,-3.0044,-1.8538,6.0341,7.6498,20.5789,2.3320,-5.3143,-1.2672
2832.0312,-3.0657,-6.6156,-2.2026,1.2601,11.4906,-0.8450,-5.6055,9.3199,-2.7162,-4.2041,-0.0780,-2.4439,-1.0667,5.8222,0.5217,20.1456,2.8128,-3.3216,-1.3021
2835.9375,-2.5010,-3.8644,-0.2631,1.2867,9.9650,-3.7377,-4.0015,8.8921,-1.6548,-3.0970,-0.3495,-2.0920,-0.5614,4.6679,-5.5150,11.3780,2.7077,-1.6164,-1.5532
2839.8438,-2.7464,-1.9242,1.5868,1.8357,8.2171,-8.0884,-1.0674,8.4220,-0.8623,-2.0255,-0.4475,-1.6321,-0.1016,2.6435,-7.1882,-1.8193,2.2791,-0.2312,-1.5334
2843.7500,-3.4490,-0.9307,3.6583,2.9709,6.6218,-12.1306,2.3976,8.1581,0.0846,-1.0989,0.0430,-0.8184,0.4604,0.0898,-4.1137,-13.8109,1.7361,0.9078,-0.8455
2847.6562,-4.2140,-0.7382,5.9733,4.4179,5.3238,-14.4338,5.0992,8.0446,1.2776,-0.5406,0.9741,0.3205,1.0778,-2.4356,1.6714,-19.8353,1.1631,1.8171,0.5316
2851.5625,-4.7437,-1.0638,8.1450,5.7002,4.3010,-14.3751,5.9640,7.8383,2.4223,-0.5649,1.8441,1.4798,1.5587,-4.3026,7.3463,-17.9586,0.5793,2.3971,2.2039
2855.4688,-4.9197,-1.6127,9.5340,6.3801,3.5167,-12.1241,4.7296,7.3190,3.0452,-1.1959,2.1807,2.2183,1.6783,-5.0351,10.8538,-9.6561,0.0205,2.4842,3.5626
2859.3750,-4.8381,-2.1733,9.5232,6.2273,3.0011,-8.3954,2.0167,6.4151,2.7918,-2.1736,1.8130,2.1353,1.2613,-4.5370,11.5485,1.0531,-0.4544,1.9568,4.0731
2863.2812,-4.7787,-2.6708,7.7575,5.2305,2.7875,-4.2249,-1.1287,5.1677,1.6418,-3.0292,0.9121,1.0259,0.2169,-3.1817,9.9698,9.4884,-0.8303,0.8296,3.4895
2867.1875,-5.0789,-3.1498,4.3001,3.5185,2.7710,-0.7910,-3.8632,3.6093,-0.0404,-3.2890,-0.1251,-0.9798,-1.4180,-1.6718,7.2842,12.4679,-1.1785,-0.6874,1.9190
2871.0938,-5.9322,-3.6602,-0.2686,1.3188,2.6437,0.8741,-5.8918,1.7116,-1.6023,-2.6842,-0.8009,-3.3058,-3.3901,-0.6989,4.8431,9.8690,-1.5935,-2.1644,-0.2263
2875.0000,-7.2060,-4.0909,-4.8269,-0.9885,2.0123,0.3370,-7.3296,-0.5137,-2.2874,-1.2504,-0.5908,-4.9328,-5.1485,-0.5815,3.9012,4.8021,-2.0469,-2.9802,-2.3214
2878.9062,-8.4129,-4.0701,-7.8674,-2.8094,0.6475,-1.8617,-8.2665,-2.8389,-1.4615,0.7147,0.9730,-4.6362,-5.8944,-1.1021,5.2899,2.0853,-2.2927,-2.4441,-3.6350
2882.8125,-8.8972,-3.0619,-7.9324,-3.4185,-1.3081,-4.3084,-8.4482,-4.7521,1.1561,2.7807,4.1245,-1.4853,-4.8455,-1.6688,8.9983,5.5319,-1.9541,-0.0398,-3.4832
2886.7188,-8.1675,-0.6741,-4.2561,-2.2487,-3.3433,-5.4657,-7.3750,-5.6217,5.3139,4.5196,8.6248,4.5741,-1.6496,-1.7228,13.9331,15.3901,-0.7945,4.2704,-1.4527
2890.6250,-6.1844,2.9874,2.6883,0.7472,-4.8126,-4.7139,-4.7611,-5.0302,10.1997,5.6034,13.6318,12.3967,3.2741,-1.1395,18.2215,27.5100,0.9956,9.8417,2.3661
2894.5312,-3.4157,7.1748,11.1241,4.9230,-5.2486,-2.9403,-0.9751,-3.0519,14.6413,5.8731,17.8665,19.8694,8.7180,-0.3505,20.0931,35.0750,2.7262,15.4242,7.2776
2898.4375,-0.6100,10.7379,18.5778,9.1482,-4.5363,-2.0822,2.9386,-0.2461,17.5159,5.3979,20.0974,24.7150,13.0954,-0.0809,18.8733,32.2636,3.4762,19.5809,12.1388
2902.3438,1.5758,12.6647,22.9341,12.3422,-2.8397,-3.7441,5.7518,2.6622,18.2042,4.4995,19.7237,25.5107,15.1204,-0.8448,15.4012,17.8616,2.6010,21.2893,15.7742
2906.2500,2.8561,12.5999,23.3785,14.0214,-0.3640,-7.7961,6.7488,5.2031,16.8490,3.6784,17.1036,22.3689,14.4095,-2.5172,11.4980,-3.4087,0.1861,20.4092,17.4612
2910.1562,3.3297,10.9898,20.6668,14.4921,2.8259,-12.0661,6.1278,7.3746,14.2444,3.4067,13.3860,16.8686,11.6618,-4.2725,8.7844,-22.8897,-2.8548,17.7186,17.2174
2914.0625,3.2424,8.7311,16.5488,14.5400,6.7609,-13.5823,4.7994,9.4808,11.3903,3.8455,9.9027,11.2443,8.2979,-4.9642,7.6521,-32.3623,-5.1472,14.4630,15.7086
2917.9688,2.6990,6.5594,12.7079,14.8132,11.3127,-10.6811,3.7094,11.7151,8.9590,4.6528,7.4721,7.2836,5.7425,-3.7430,7.1264,-28.2995,-5.5188,11.6656,13.8201
2921.8750,1.5528,4.6079,9.8880,15.3269,15.9447,-4.5168,3.1714,13.8189,6.9962,5.0506,6.0392,5.5498,4.7402,-0.5590,5.7357,-13.5035,-3.5972,9.6164,12.1501
2925.7812,-0.4350,2.4573,7.7322,15.4416,19.7139,1.2514,2.6978,15.1092,5.0383,4.1951,4.8654,5.3312,5.0673,3.7468,2.7735,4.7722,-0.0134,7.8532,10.7351
2929.6875,-3.2948,-0.3712,5.3612,14.3379,21.6096,2.6099,1.4525,14.8967,2.5621,1.6851,3.1306,5.2667,5.7676,7.8128,-0.9505,18.9414,3.8983,5.6262,9.1622
2933.5938,-6.6530,-3.8714,2.2217,11.6532,21.0591,-2.1585,-1.0162,13.0095,-0.5428,-2.0898,0.5449,4.2111,5.7446,10.3775,-3.4221,24.8701,6.7269,2.5191,6.9692
2937.5000,-9.8231,-7.3944,-1.4135,7.8277,18.2791,-11.1490,-4.3162,10.0319,-3.7993,-6.0159,-2.4209,1.8248,4.3635,10.8106,-2.6143,23.1669,7.6012,-1.1962,4.0515
2941.4062,-12.1481,-10.0201,-4.6127,3.9137,14.2218,-19.8407,-7.3745,7.0555,-6.3873,-8.7582,-4.8152,-1.3839,1.7459,9.2916,2.2094,17.5879,6.4922,-4.6958,0.8054
2945.3125,-13.3579,-11.1819,-6.4441,0.9797,10.1185,-23.8486,-9.1066,5.0834,-7.6384,-9.4417,-5.7897,-4.4645,-1.3571,6.5951,9.9040,12.0350,4.1000,-7.1116,-2.0709
2949.2188,-13.6779,-11.0586,-6.6185,-0.4814,6.8883,-21.5986,-9.0992,4.4803,-7.4478,-8.1200,-5.1060,-6.5501,-3.9921,3.6557,17.9092,8.3057,1.4462,-8.0452,-3.9704
2953.1250,-13.6007,-10.4251,-5.6671,-0.7566,4.7660,-15.1398,-7.8165,4.8265,-6.3344,-5.7460,-3.2629,-7.2011,-5.4724,1.1722,23.4683,5.9006,-0.5859,-7.7483,-4.7055
2957.0312,-13.4894,-10.0759,-4.5802,-0.6339,3.3533,-8.6145,-6.2099,5.2507,-5.1283,-3.6591,-1.2071,-6.4737,-5.6553,-0.5668,24.8952,3.5470,-1.5501,-6.8941,-4.5827
2960.9375,-13.3186,-10.2786,-4.2105,-0.8793,2.0168,-5.5350,-5.0649,4.9879,-4.5119,-2.8931,0.1499,-4.8148,-4.9349,-1.6180,22.2299,0.9148,-1.4948,-6.1505,-4.2107
2964.8438,-12.7658,-10.6831,-4.8629,-1.8398,0.3455,-6.7761,-4.5931,3.7788,-4.7154,-3.7056,0.3079,-2.9241,-4.0143,-2.1989,17.0157,-0.9104,-0.8313,-5.8754,-4.1922
2968.7500,-11.5918,-10.7402,-6.2877,-3.4017,-1.6324,-10.5568,-4.5455,1.8776,-5.5299,-5.5726,-0.7330,-1.6210,-3.6004,-2.5336,11.3996,-0.4688,-0.1267,-6.1047,-4.8796
2972.6562,-10.0079,-10.2559,-7.9746,-5.2409,-3.5754,-14.1702,-4.6816,-0.2649,-6.5623,-7.5895,-2.6353,-1.6519,-4.1564,-2.8015,7.0531,2.5044,0.0866,-6.7489,-6.2929
2976.5625,-8.6985,-9.5912,-9.4645,-7.1053,-5.1590,-15.9942,-5.1341,-2.3567,-7.5027,-8.9871,-4.9531,-3.3961,-5.7742,-3.1642,4.4439,6.3558,-0.5538,-7.7587,-8.1780
2980.4688,-8.4123,-9.3089,-10.4651,-8.8948,-6.3459,-16.2782,-6.3110,-4.3865,-8.2057,-9.4433,-7.2538,-6.5686,-8.1667,-3.7898,2.7966,8.2937,-2.1598,-9.0842,-10.1201
2984.3750,-9.3736,-9.5486,-10.7787,-10.5153,-7.3985,-16.3076,-8.3934,-6.4552,-8.5716,-9.0603,-9.1005,-10.1350,-10.7527,-4.8190,0.7534,6.1411,-4.5675,-10.4742,-11.6450
