Time,Fp1,F3,C3,P3,O1,F7,T3,T5,Fz,Fp2,F4,C4,P4,O2,F8,T4,T6,Cz,Pz
0.0000,10.7072,9.4451,6.4711,4.9243,2.8317,8.8726,8.5148,6.0957,8.5170,5.4299,6.3719,5.5237,4.1107,3.8953,7.2490,5.1949,3.3346,6.4459,5.5234
3.9062,9.2369,7.3701,4.4737,3.3316,0.9521,7.2065,6.5194,4.7128,6.9054,4.9462,5.9355,5.3744,2.7449,1.8950,7.5238,4.8680,1.9738,5.3460,3.3717
7.8125,7.2352,4.8413,2.3451,1.7558,-0.8291,5.3207,4.4385,3.5074,4.9398,4.2598,5.3566,4.6946,0.6710,-0.6032,7.7774,3.9921,0.2896,3.9372,0.5969
11.7188,5.1868,2.2783,0.4847,0.5508,-1.8946,3.5646,2.6110,2.7396,2.9989,3.0609,4.6120,3.3869,-1.7355,-2.8200,7.6531,2.4015,-0.9601,2.3230,-2.3155
15.6250,3.5371,-0.0632,-0.9102,-0.1727,-1.9139,2.0977,1.1035,2.3943,1.3166,1.0150,3.6715,1.7139,-3.8596,-3.9583,6.8628,0.5098,-0.9993,0.6023,-4.8767
19.5312,2.4092,-2.1635,-1.8738,-0.5282,-0.9639,0.8478,-0.2386,2.2652,-0.1227,-1.9542,2.5721,0.2505,-5.0608,-3.5538,5.4299,-0.7361,0.5422,-1.0702,-6.7111
23.4375,1.5271,-4.1008,-2.5480,-0.6662,0.5843,-0.3579,-1.5853,2.1678,-1.4862,-5.4474,1.4890,-0.3748,-4.9101,-1.6378,3.7721,-0.3760,3.3929,-2.4036,-7.5531
27.3438,0.4231,-5.8175,-2.9934,-0.5644,2.3197,-1.5864,-2.9219,2.1149,-2.8613,-8.6201,0.7307,0.1979,-3.3296,1.3646,2.5301,1.8698,6.7509,-2.9652,-7.1819
31.2500,-1.1932,-6.9979,-3.0649,0.0349,4.0176,-2.6727,-3.9978,2.3217,-4.0736,-10.5095,0.6241,1.8756,-0.5739,4.9036,2.2218,5.2348,9.6901,-2.3155,-5.4061
35.1562,-3.1566,-7.1970,-2.4525,1.4762,5.7060,-3.2778,-4.4572,3.0415,-4.7181,-10.5101,1.3305,4.1765,2.9125,8.5500,2.9294,8.2013,11.6162,-0.2527,-2.1617
39.0625,-4.8716,-6.1719,-0.8875,3.9172,7.5541,-3.1093,-4.0641,4.3540,-4.4223,-8.7370,2.6939,6.4897,6.6555,12.0640,4.2235,9.3349,12.5010,2.9654,2.3157
42.9688,-5.6560,-4.1942,1.5897,7.1104,9.6726,-2.1665,-2.8804,6.0540,-3.1782,-6.0468,4.2239,8.3454,10.2348,15.2839,5.3804,8.1339,12.7642,6.5791,7.3820
46.8750,-5.1892,-2.0849,4.4728,10.3901,11.9483,-0.8364,-1.2933,7.7061,-1.5003,-3.6713,5.2490,9.5277,13.2648,17.9603,5.7681,5.3208,12.9018,9.5377,12.0632
50.7812,-3.7564,-0.8768,6.8776,12.8907,13.9995,0.2508,0.1292,8.8108,-0.2525,-2.6340,5.1845,9.9912,15.3386,19.6918,5.1726,2.3786,13.1108,10.8956,15.3416
54.6875,-2.1020,-1.2561,7.8904,13.8790,15.2609,0.5556,0.8876,8.9703,-0.1988,-3.2489,3.7945,9.7001,16.0331,20.0218,3.8892,0.6535,13.1440,10.2051,16.5251
58.5938,-0.9654,-3.1140,7.0253,13.0310,15.1594,-0.0347,0.7928,7.9767,-1.5342,-4.9627,1.3256,8.5568,15.0234,18.6335,2.5493,0.6381,12.4664,7.7048,15.5065
62.5000,-0.6046,-5.5118,4.5387,10.5233,13.3175,-1.0779,0.0802,5.8263,-3.6931,-6.6274,-1.5508,6.5010,12.2594,15.5085,1.8037,1.8830,10.5887,4.2062,12.7662
66.4062,-0.6393,-7.1283,1.3902,6.9276,9.7259,-1.7702,-0.6803,2.7160,-5.5870,-7.0686,-3.9672,3.7009,8.0888,10.9590,2.0323,3.5104,7.3651,0.7423,9.1211
70.3125,-0.3382,-6.9601,-1.1806,2.9874,4.8275,-1.3873,-0.8688,-0.9487,-6.1612,-5.6740,-5.1750,0.6557,3.2215,5.5417,3.1990,4.8701,3.0946,-1.8394,5.3658
74.2188,0.8324,-4.8757,-2.2613,-0.6119,-0.5400,0.2629,-0.1809,-4.5732,-4.9578,-2.7152,-4.8254,-1.9214,-1.4758,-0.0703,4.8782,5.8292,-1.5891,-3.1497,2.0024
78.1250,2.7774,-1.6976,-1.7246,-3.4010,-5.3624,2.6501,1.1198,-7.4898,-2.3595,0.7543,-3.1109,-3.4175,-5.2637,-5.1857,6.4133,6.5318,-5.9367,-3.2979,-0.8162
82.0312,4.7713,1.2394,-0.2685,-5.1975,-8.7801,4.7408,2.2378,-9.1878,0.6243,3.3831,-0.7029,-3.6466,-7.7471,-9.1692,7.1513,6.9214,-9.2848,-2.7335,-3.1507
85.9375,5.9072,2.7918,0.9904,-6.1016,-10.4059,5.5350,2.2119,-9.5655,2.8971,4.1676,1.5054,-2.9710,-8.9286,-11.5391,6.6979,6.5096,-11.1781,-2.0083,-5.0828
89.8438,5.6971,2.5687,1.1314,-6.4345,-10.4721,4.6275,0.4505,-9.0398,3.8236,2.9484,2.7590,-2.1209,-9.0966,-12.1141,5.1180,4.6535,-11.4325,-1.5781,-6.6092
93.7500,4.4035,1.0423,-0.1091,-6.6251,-9.7055,2.4537,-2.8685,-8.3917,3.4816,0.5080,2.7551,-1.8074,-8.6416,-11.1444,2.9772,1.1578,-10.1759,-1.6982,-7.6797
97.6562,2.8583,-0.8138,-2.2839,-7.0558,-8.9637,0.0551,-6.7999,-8.3795,2.5081,-1.8060,1.7572,-2.3554,-7.9072,-9.3067,1.1435,-3.2959,-7.8625,-2.4025,-8.3129
101.5625,1.8797,-2.1074,-4.5757,-7.9052,-8.8061,-1.5144,-10.0816,-9.3172,1.6680,-2.7637,0.4416,-3.5658,-7.1329,-7.4815,0.3746,-7.2963,-5.2066,-3.5255,-8.6653
105.4688,1.6895,-2.4728,-6.2777,-9.0523,-9.2228,-1.7889,-11.7914,-10.8693,1.4218,-1.9038,-0.4601,-4.8672,-6.4652,-6.3702,0.8730,-9.4067,-2.9898,-4.7477,-8.9706
109.3750,1.7476,-2.1405,-7.1031,-10.1002,-9.6708,-1.1259,-11.8118,-12.2047,1.7320,0.2016,-0.5390,-5.6462,-5.9777,-6.1512,2.0834,-8.9778,-1.7783,-5.6752,-9.3776
113.2812,1.1368,-1.6523,-7.1705,-10.5302,-9.3963,-0.4301,-10.8119,-12.4391,2.1782,2.2355,0.0976,-5.5554,-5.6622,-6.3927,2.9238,-6.5158,-1.6785,-5.9628,-9.8063
117.1875,-0.7544,-1.4532,-6.7548,-9.9300,-7.8639,-0.5465,-9.7589,-11.1145,2.2632,2.8446,0.9223,-4.6456,-5.4076,-6.3091,2.3951,-3.3612,-2.2843,-5.4572,-9.9480
121.0938,-3.7234,-1.6378,-6.0420,-8.1960,-5.0600,-1.7195,-9.2891,-8.4473,1.7057,1.3854,1.3096,-3.2892,-5.0152,-5.2313,0.2373,-0.9086,-2.8788,-4.2944,-9.4384
125.0000,-6.7848,-1.9888,-5.0791,-5.6134,-1.5206,-3.4714,-9.3579,-5.2158,0.5589,-1.7197,0.8864,-1.9782,-4.2817,-3.0157,-2.7985,0.1077,-2.8077,-2.8805,-8.1076
128.9062,-8.7440,-2.2343,-3.9164,-2.7767,1.9085,-4.9747,-9.3918,-2.3801,-0.8718,-5.2298,-0.2937,-1.1151,-3.1198,-0.1436,-5.3012,-0.1725,-1.8239,-1.7356,-6.1408
132.8125,-8.9410,-2.3081,-2.7709,-0.3819,4.4305,-5.6551,-8.8105,-0.6627,-2.2223,-7.7966,-1.8327,-0.8842,-1.6412,2.5411,-6.0236,-1.0721,-0.2088,-1.2603,-4.0302
136.7188,-7.6763,-2.4235,-2.0224,1.0194,5.5900,-5.6093,-7.5301,-0.3131,-3.2444,-8.7152,-3.2429,-1.2217,-0.1350,4.2835,-4.6900,-1.9472,1.3982,-1.5402,-2.3301
140.6250,-6.0371,-2.9164,-2.0056,1.2073,5.3801,-5.5464,-6.0818,-1.1301,-3.8787,-8.2673,-4.1955,-1.8688,1.0644,4.7790,-2.2538,-2.5763,2.3603,-2.2990,-1.3621
144.5312,-5.2451,-3.9851,-2.7481,0.3541,4.1596,-6.2924,-5.2646,-2.6582,-4.2238,-7.4643,-4.6191,-2.4828,1.7453,4.2451,-0.3923,-3.1587,2.3857,-3.0382,-1.0587
148.4375,-5.9519,-5.5203,-3.8785,-1.0600,2.4615,-8.1948,-5.5880,-4.4020,-4.4565,-7.3749,-4.6370,-2.7804,1.9194,3.2025,-0.5161,-4.0272,1.6614,-3.3002,-1.0503
152.3438,-7.9275,-7.1506,-4.8137,-2.4434,0.7912,-10.8397,-6.9034,-5.9499,-4.7617,-8.4777,-4.4423,-2.6800,1.7824,2.1385,-2.9061,-5.3494,0.7140,-2.9245,-0.9485
156.2500,-10.3072,-8.4727,-5.1308,-3.3319,-0.5196,-13.2750,-8.4821,-7.0044,-5.2950,-10.4421,-4.2273,-2.3820,1.5501,1.2631,-6.5336,-7.0283,0.0833,-2.1688,-0.6470
160.1562,-12.1965,-9.3125,-4.8736,-3.5827,-1.3888,-14.5990,-9.4764,-7.3937,-6.1697,-12.4406,-4.1980,-2.3298,1.2650,0.4668,-9.6898,-8.8060,-0.0110,-1.6302,-0.4498
164.0625,-13.2200,-9.8439,-4.5793,-3.4446,-1.9867,-14.5258,-9.4450,-7.1189,-7.4481,-13.7430,-4.6034,-3.0374,0.6958,-0.5546,-11.0304,-10.4285,0.1639,-1.9999,-0.9395
167.9688,-13.6778,-10.4906,-4.9888,-3.4630,-2.6687,-13.5639,-8.5986,-6.4153,-9.1302,-14.1727,-5.6887,-4.8435,-0.5923,-2.1227,-10.3759,-11.7375,-0.0552,-3.7609,-2.6583
171.8750,-14.2567,-11.6759,-6.6186,-4.2425,-3.8317,-12.7024,-7.6336,-5.7444,-11.1498,-14.1309,-7.5608,-7.7155,-3.0101,-4.4385,-8.7721,-12.6744,-1.4124,-6.9643,-5.7900
175.7812,-15.5341,-13.5766,-9.4577,-6.1572,-5.7264,-12.8186,-7.2985,-5.6509,-13.3887,-14.2133,-10.0606,-11.2156,-6.6664,-7.5015,-7.8017,-13.2661,-4.3300,-11.1839,-10.0219
179.6875,-17.6098,-16.0267,-12.9646,-9.1414,-8.2906,-14.1833,-7.9857,-6.5151,-15.7080,-14.7301,-12.7694,-14.6638,-11.1908,-11.0661,-8.6071,-13.6407,-8.6053,-15.6729,-14.6611
183.5938,-20.0766,-18.6159,-16.3465,-12.6701,-11.1006,-16.3593,-9.5789,-8.3313,-17.9822,-15.4858,-15.1907,-17.4227,-15.7756,-14.6391,-11.2433,-14.0292,-13.3750,-19.6564,-18.9293
187.5000,-22.2932,-20.9097,-18.9388,-15.9553,-13.4941,-18.5197,-11.5907,-10.6601,-20.1195,-15.9673,-17.0085,-19.1625,-19.4584,-17.5655,-14.7316,-14.6767,-17.4089,-22.6312,-22.2713
191.4062,-23.7483,-22.6555,-20.4687,-18.2758,-14.8388,-19.9579,-13.4513,-12.8157,-22.0625,-15.7782,-18.2370,-19.9723,-21.5358,-19.2394,-17.7187,-15.6713,-19.6419,-24.5330,-24.5181
195.3125,-24.2859,-23.8594,-21.0839,-19.2774,-14.8220,-20.4634,-14.7619,-14.1996,-23.7737,-14.9831,-19.1449,-20.2745,-21.9082,-19.3881,-19.2830,-16.8192,-19.7040,-25.6894,-25.8432
199.2188,-24.1007,-24.7034,-21.1718,-19.0918,-13.6091,-20.3541,-15.4060,-14.5910,-25.2141,-14.0989,-19.9991,-20.5941,-21.1574,-18.2729,-19.3862,-17.7255,-18.1626,-26.5780,-26.5642
203.1250,-23.5649,-25.3706,-21.1013,-18.2116,-11.7722,-20.1853,-15.5207,-14.2206,-26.3244,-13.7394,-20.8215,-21.3026,-20.2721,-16.6367,-18.7457,-18.0935,-16.2953,-27.5134,-26.9166
207.0312,-23.0295,-25.8892,-21.0287,-17.1960,-10.0184,-20.3479,-15.3912,-13.5847,-27.0149,-14.1734,-21.3531,-22.4463,-20.1300,-15.3572,-18.2851,-18.0416,-15.4565,-28.4332,-26.9197
210.9375,-22.7049,-26.0898,-20.8503,-16.3748,-8.8616,-20.8138,-15.3178,-13.1227,-27.1739,-15.1178,-21.2618,-23.7219,-20.9972,-14.9673,-18.5533,-18.1420,-16.3479,-28.9073,-26.3951
214.8438,-22.6422,-25.6983,-20.3005,-15.7166,-8.4188,-21.1724,-15.4836,-12.9644,-26.7014,-15.9099,-20.4350,-24.5938,-22.3371,-15.3368,-19.4595,-19.0485,-18.6032,-28.3742,-25.1088
218.7500,-22.7705,-24.5103,-19.1323,-14.9272,-8.4364,-20.9169,-15.8536,-12.9020,-25.5670,-15.9307,-19.1187,-24.5008,-23.0697,-15.7477,-20.4258,-20.9083,-20.9565,-26.4754,-22.9525
222.6562,-22.9499,-22.5482,-17.2890,-13.7066,-8.5161,-19.7963,-16.1601,-12.5963,-23.8689,-14.9772,-17.7766,-23.0758,-22.1663,-15.3581,-20.7956,-23.0000,-21.9342,-23.2979,-20.0654
226.5625,-23.0288,-20.1122,-14.9901,-12.0023,-8.3944,-18.0208,-16.0277,-11.8676,-21.8545,-13.3339,-16.7623,-20.3046,-19.2563,-13.7752,-20.2196,-23.9684,-20.6902,-19.3845,-16.8360
230.4688,-22.9146,-17.6946,-12.6874,-10.1052,-8.1084,-16.2015,-15.2163,-10.8772,-19.8753,-11.5210,-16.0603,-16.5630,-14.8902,-11.3678,-18.8162,-22.6236,-17.4929,-15.5091,-13.7829
234.3750,-22.6435,-15.7958,-10.9080,-8.5367,-7.9584,-15.0591,-13.8597,-10.0787,-18.2765,-9.9285,-15.3135,-12.5161,-10.2988,-9.0963,-17.0701,-18.8235,-13.5745,-12.3537,-11.3785
238.2812,-22.4055,-14.7331,-10.0539,-7.7993,-8.3105,-15.0587,-12.5277,-9.9724,-17.2706,-8.6114,-14.1402,-8.9118,-6.7897,-7.9594,-15.5772,-13.8026,-10.4341,-10.2711,-9.9012
242.1875,-22.4775,-14.5323,-10.2529,-8.1381,-9.3690,-16.1708,-12.0121,-10.8186,-16.8593,-7.3854,-12.5111,-6.3535,-5.1389,-8.4133,-14.7849,-9.6232,-9.0251,-9.2513,-9.3873
246.0938,-23.0762,-14.9489,-11.3282,-9.4377,-11.0535,-17.8859,-12.9069,-12.4822,-16.8510,-6.1209,-10.8866,-5.1412,-5.3249,-10.1348,-14.8305,-8.0194,-9.3112,-9.0660,-9.6917
250.0000,-24.2059,-15.6006,-12.8889,-11.2911,-13.0330,-19.4750,-15.2169,-14.4887,-16.9632,-4.9879,-9.9799,-5.2392,-6.7199,-12.2651,-15.5160,-9.3614,-10.4290,-9.4599,-10.6030
253.9062,-25.6069,-16.1370,-14.4780,-13.1775,-14.8725,-20.3562,-18.2481,-16.2448,-16.9545,-4.4383,-10.2882,-6.3569,-8.5519,-13.9451,-16.4048,-12.4411,-11.2984,-10.2464,-11.9297
257.8125,-26.8587,-16.3676,-15.7006,-14.6486,-16.1965,-20.3706,-20.8887,-17.2905,-16.7156,-4.9175,-11.7208,-8.0780,-10.3042,-14.7751,-17.0100,-15.2524,-11.2596,-11.2696,-13.5023
261.7188,-27.5909,-16.2973,-16.2933,-15.4464,-16.7923,-19.8218,-22.1520,-17.4589,-16.2829,-6.5057,-13.6035,-9.9726,-11.8066,-14.9151,-17.0182,-16.2684,-10.3417,-12.3115,-15.1105
265.6250,-27.6768,-16.0749,-16.1549,-15.5376,-16.6371,-19.2672,-21.6827,-16.8960,-15.7905,-8.7544,-15.0785,-11.6664,-13.0368,-14.8188,-16.4634,-15.3763,-9.0591,-13.0753,-16.4584
269.5312,-27.2842,-15.8992,-15.3783,-15.0938,-15.8803,-19.1901,-19.9405,-15.9693,-15.4061,-10.8544,-15.6360,-12.8930,-13.8739,-14.8466,-15.7559,-13.8607,-7.9621,-13.3081,-17.2186
273.4375,-26.7487,-15.9338,-14.2828,-14.4430,-14.8099,-19.7406,-17.9617,-15.1324,-15.2852,-12.0432,-15.4148,-13.5575,-14.0639,-15.0582,-15.5138,-13.4689,-7.3026,-12.9956,-17.1960
277.3438,-26.3505,-16.2605,-13.3908,-13.9946,-13.8023,-20.6859,-16.8357,-14.7919,-15.5449,-11.9935,-15.0669,-13.7956,-13.4573,-15.3067,-16.2490,-15.2002,-7.0373,-12.4700,-16.5067
281.2500,-26.1382,-16.8692,-13.2783,-14.1227,-13.2314,-21.5772,-17.1859,-15.1942,-16.2345,-10.9385,-15.2821,-13.9639,-12.3165,-15.5054,-18.0586,-18.6152,-7.0999,-12.3043,-15.6289
285.1562,-25.9130,-17.6684,-14.3104,-15.0192,-13.3389,-22.0133,-18.9150,-16.3434,-17.2933,-9.4713,-16.3037,-14.5009,-11.3906,-15.8069,-20.5049,-22.0880,-7.6570,-13.0108,-15.2370
289.0625,-25.3769,-18.5059,-16.3854,-16.5772,-14.1133,-21.8377,-21.3168,-17.9765,-18.5226,-8.1714,-17.7627,-15.6835,-11.5983,-16.5232,-22.7789,-23.7938,-9.0890,-14.7132,-15.8686
292.9688,-24.3468,-19.2025,-18.8738,-18.3844,-15.2630,-21.1665,-23.4588,-19.6347,-19.6186,-7.3172,-18.9331,-17.4049,-13.4647,-17.8414,-24.0804,-22.7767,-11.6725,-17.0161,-17.6048
296.8750,-22.8947,-19.6051,-20.8580,-19.8697,-16.3297,-20.2610,-24.6239,-20.8347,-20.2824,-6.8602,-19.2218,-19.1395,-16.6789,-19.5726,-24.0095,-19.4542,-15.2016,-19.1816,-19.9687
300.7812,-21.3316,-19.6494,-21.5923,-20.5571,-16.9077,-19.3545,-24.5990,-21.2822,-20.3656,-6.6387,-18.5522,-20.1704,-20.1088,-21.1570,-22.7441,-15.3167,-18.8630,-20.5252,-22.1297
304.6875,-20.0499,-19.4024,-20.9258,-20.2960,-16.8476,-18.5501,-23.6937,-21.0141,-19.9586,-6.6387,-17.3888,-19.9813,-22.3221,-21.9561,-20.9030,-12.0806,-21.5190,-20.7867,-23.3099
308.5938,-19.3263,-19.0527,-19.4103,-19.3327,-16.3165,-17.8360,-22.5114,-20.3733,-19.3469,-7.0839,-16.3999,-18.5764,-22.3225,-21.6358,-19.1803,-10.8216,-22.2560,-20.2382,-23.1545
312.5000,-19.2016,-18.8373,-17.9917,-18.1693,-15.6717,-17.1782,-21.6044,-19.8129,-18.8439,-8.2769,-15.9989,-16.5021,-20.0524,-20.3686,-17.9770,-11.5353,-20.8606,-19.4592,-21.8474
316.4062,-19.4979,-18.9339,-17.4537,-17.2852,-15.2289,-16.6019,-21.1931,-19.6356,-18.6011,-10.3062,-16.0745,-14.5266,-16.3606,-18.7094,-17.2426,-13.2704,-17.9171,-18.9340,-19.9187
320.3125,-19.9481,-19.3733,-17.9600,-16.8884,-15.0804,-16.2009,-21.0931,-19.8307,-18.5287,-12.8473,-16.0841,-13.1696,-12.4816,-17.2367,-16.6062,-14.6737,-14.4676,-18.7423,-17.8923
324.2188,-20.3477,-20.0215,-18.9902,-16.8414,-15.0826,-16.0770,-20.8865,-20.1096,-18.3879,-15.2221,-15.4384,-12.3965,-9.3745,-16.2136,-15.6903,-14.6432,-11.4550,-18.5511,-16.0154
328.1250,-20.6368,-20.6420,-19.7105,-16.7970,-15.0072,-16.2651,-20.2340,-20.1119,-17.9949,-16.7081,-13.9192,-11.6959,-7.3272,-15.4965,-14.3980,-12.8082,-9.2927,-17.9028,-14.2367
332.0312,-20.8722,-21.0051,-19.5289,-16.4457,-14.7294,-16.7006,-19.1344,-19.6382,-17.3866,-16.9047,-11.8594,-10.4993,-6.0209,-14.7291,-12.9976,-9.6747,-7.7979,-16.5925,-12.4098
335.9375,-21.1258,-20.9895,-18.4710,-15.7111,-14.3038,-17.2475,-17.9563,-18.7546,-16.8190,-15.9301,-9.9757,-8.6565,-4.9323,-13.6544,-11.9664,-6.4007,-6.4776,-14.8690,-10.5413
339.8438,-21.3919,-20.6307,-17.1396,-14.7787,-13.8720,-17.7597,-17.2038,-17.7129,-16.5950,-14.3321,-8.9671,-6.6314,-3.7615,-12.3113,-11.7087,-4.2872,-4.9401,-13.3232,-8.8854
343.7500,-21.5758,-20.1049,-16.3068,-13.9591,-13.4823,-18.1325,-17.1613,-16.7651,-16.8526,-12.7907,-9.1369,-5.2724,-2.6101,-10.9900,-12.3283,-4.1838,-3.1638,-12.5473,-7.8157
347.6562,-21.5795,-19.6676,-16.4265,-13.4898,-12.9781,-18.3195,-17.6593,-16.0162,-17.4844,-11.8144,-10.2724,-5.3086,-1.8532,-10.0076,-13.5880,-6.0799,-1.4850,-12.7997,-7.5815
351.5625,-21.4205,-19.5694,-17.3797,-13.4002,-12.0567,-18.3180,-18.1428,-15.4086,-18.2575,-11.6068,-11.8416,-6.9095,-1.8566,-9.4841,-15.0639,-9.1084,-0.3615,-13.8942,-8.1358
355.4688,-21.2857,-19.9669,-18.5875,-13.4985,-10.4598,-18.1430,-18.0148,-14.8085,-19.0406,-12.1354,-13.3621,-9.5927,-2.7505,-9.2705,-16.3815,-11.9941,-0.0922,-15.3590,-9.1525
359.3750,-21.4516,-20.8392,-19.3712,-13.4532,-8.1491,-17.8021,-17.0235,-14.0841,-19.9376,-13.2791,-14.6843,-12.5127,-4.3728,-9.0432,-17.3875,-13.7133,-0.6600,-16.7187,-10.2023
363.2812,-22.0899,-21.9293,-19.2998,-12.8985,-5.3195,-17.2737,-15.4085,-13.0858,-21.1816,-14.8975,-15.9926,-14.8981,-6.3445,-8.4583,-18.1563,-13.9692,-1.7538,-17.6827,-10.9361
367.1875,-23.0688,-22.7495,-18.3157,-11.5142,-2.2388,-16.4905,-13.6850,-11.5609,-22.8270,-16.7603,-17.5220,-16.3367,-8.1744,-7.2481,-18.8455,-13.1757,-2.9134,-18.1187,-11.1461
371.0938,-23.8914,-22.6888,-16.6135,-9.0920,0.9547,-15.3427,-12.2173,-9.1319,-24.4632,-18.4329,-19.1926,-16.7561,-9.3381,-5.2354,-19.5004,-11.9692,-3.6979,-17.8807,-10.6967
375.0000,-23.8509,-21.2237,-14.4165,-5.6197,4.3114,-13.7165,-10.9104,-5.4586,-25.2117,-19.2832,-20.4450,-16.2057,-9.3656,-2.3438,-19.9404,-10.6198,-3.8102,-16.6891,-9.4436
378.9062,-22.3557,-18.1695,-11.8375,-1.3840,7.9059,-11.5733,-9.2875,-0.5584,-24.1028,-18.7016,-20.4432,-14.6872,-7.9959,1.3125,-19.8080,-8.8134,-3.1651,-14.2238,-7.2701
382.8125,-19.2630,-13.8583,-8.9143,2.9719,11.5481,-9.0351,-6.9389,4.9089,-20.6612,-16.4449,-18.5657,-12.2112,-5.3765,5.2741,-18.7609,-6.0207,-1.9151,-10.4148,-4.2603
386.7188,-15.0315,-9.1262,-5.7667,6.5243,14.5956,-6.4247,-4.0325,9.6376,-15.3457,-12.8802,-14.8910,-9.0237,-2.1750,8.6561,-16.7007,-2.2036,-0.4339,-5.7258,-0.8752
390.6250,-10.5903,-5.0737,-2.7334,8.3201,16.0553,-4.2106,-1.4784,12.0721,-9.5228,-8.9185,-10.3366,-5.7683,0.5492,10.3004,-13.8979,1.7094,0.7611,-1.1800,2.0533
394.5312,-6.9732,-2.6698,-0.3667,7.7306,14.9827,-2.8608,-0.5579,11.0673,-4.9189,-5.6149,-6.3065,-3.3563,1.7443,9.1953,-10.9243,4.0528,1.1599,1.9813,3.5947
398.4375,-4.8975,-2.3674,0.7405,4.7487,10.9783,-2.6604,-2.1920,6.4812,-2.8149,-3.6433,-4.0041,-2.5442,0.8724,4.9991,-8.4076,3.3434,0.4498,2.8690,3.1550
402.3438,-4.4945,-3.9090,0.2188,0.0658,4.4979,-3.5776,-6.3072,-0.6411,-3.4255,-2.9620,-3.8038,-3.4630,-1.7637,-1.6268,-6.7349,-0.6694,-1.3340,1.4274,0.8275
406.2500,-5.3102,-6.4211,-1.8502,-5.1322,-3.2157,-5.2466,-11.7207,-8.4228,-5.8121,-2.8871,-5.0632,-5.4328,-5.0942,-9.1142,-5.8720,-6.5649,-3.7818,-1.4710,-2.5654
410.1562,-6.5545,-8.7605,-4.8608,-9.5667,-10.5558,-7.0766,-16.6457,-14.8860,-8.3774,-2.5389,-6.5018,-7.2315,-7.7514,-15.5310,-5.4129,-11.8192,-6.2373,-4.4012,-5.7897
414.0625,-7.4566,-9.9583,-7.8207,-12.2819,-16.1163,-8.4431,-19.5214,-18.6909,-9.6583,-1.3861,-6.9222,-7.6883,-8.6835,-19.3286,-4.8425,-14.1052,-8.0325,-6.0377,-7.7119
417.9688,-7.5582,-9.5657,-9.6713,-12.9006,-19.1303,-8.8888,-19.6781,-19.5378,-8.9810,0.4459,-5.8358,-6.2519,-7.5766,-19.9232,-3.8629,-12.5291,-8.7229,-5.7282,-7.7319
421.8750,-6.8301,-7.7615,-9.6824,-11.6404,-19.6062,-8.2646,-17.4836,-18.0876,-6.6507,2.2829,-3.6272,-3.2027,-4.8723,-17.8250,-2.5828,-8.0283,-8.2172,-3.6928,-5.9314
425.7812,-5.5973,-5.1991,-7.7553,-9.1324,-18.1615,-6.7710,-13.9666,-15.5146,-3.6300,3.3419,-1.1894,0.5809,-1.4254,-14.2798,-1.4437,-2.7029,-6.7535,-0.7815,-2.9132
429.6875,-4.3364,-2.6832,-4.4839,-6.1556,-15.6826,-4.8856,-10.2298,-12.9569,-0.9454,3.2187,0.6921,4.1121,1.9490,-10.6409,-0.9193,1.4388,-4.7529,2.0264,0.5246
433.5938,-3.4467,-0.8364,-0.9120,-3.3963,-12.9833,-3.1928,-7.0248,-11.1158,0.8223,2.1307,1.7915,6.7172,4.7630,-7.8086,-1.1783,3.4877,-2.6384,4.0783,3.6835
437.5000,-3.0859,0.1067,1.9176,-1.2920,-10.5807,-2.1607,-4.6698,-10.1231,1.7081,0.7937,2.4495,8.1697,6.8590,-5.9933,-1.9357,3.7950,-0.7099,5.2316,6.1108
441.4062,-3.1279,0.3062,3.4078,0.0274,-8.6316,-1.9452,-3.2135,-9.6528,2.1595,0.0374,3.1771,8.5456,8.2187,-4.8543,-2.6078,3.3186,0.8783,5.7272,7.6034
445.3125,-3.2513,0.1522,3.6104,0.7115,-7.0069,-2.3102,-2.6049,-9.1686,2.6427,0.3959,4.1710,7.9925,8.7793,-3.8647,-2.6833,2.7474,2.0537,5.9020,8.1531
449.2188,-3.1174,0.0272,3.0848,1.0862,-5.4488,-2.7300,-2.7108,-8.1943,3.3133,1.8902,5.1031,6.6159,8.4133,-2.6635,-2.0706,2.0749,2.7431,5.9462,7.9020
453.1250,-2.5513,0.1105,2.5075,1.4993,-3.7431,-2.6542,-3.2267,-6.5205,3.9343,4.0760,5.3333,4.5456,7.0707,-1.2132,-1.1806,0.8746,2.8438,5.8380,7.1156
457.0312,-1.6339,0.3096,2.2795,2.1629,-1.8367,-1.8213,-3.6599,-4.2882,4.0566,6.2847,4.3948,2.0750,4.9520,0.2763,-0.6687,-1.0448,2.2874,5.4488,6.1349
460.9375,-0.6499,0.3349,2.3613,3.0581,0.1455,-0.4536,-3.5096,-1.9236,3.3286,7.9105,2.4043,-0.2861,2.5571,1.5597,-0.9939,-3.2073,1.1592,4.7096,5.2837
464.8438,0.0786,-0.1349,2.4076,3.9517,1.9852,0.7960,-2.5753,0.0562,1.7435,8.6177,0.1034,-1.9332,0.5486,2.5446,-2.0838,-4.6517,-0.2139,3.7122,4.7573
468.7500,0.3693,-1.2833,2.0660,4.5170,3.4924,1.1471,-1.1656,1.2811,-0.3159,8.4103,-1.5151,-2.4061,-0.5072,3.3347,-3.3438,-4.5959,-1.3062,2.6852,4.5556
472.6562,0.2513,-3.0618,1.2137,4.4919,4.5803,0.1004,-0.0026,1.6854,-2.2532,7.5706,-1.7684,-1.6070,-0.3816,4.1110,-4.0244,-3.0544,-1.5965,1.8701,4.5010
476.5625,-0.1138,-5.2048,-0.0167,3.7864,5.2390,-2.2699,0.1718,1.4887,-3.5545,6.5085,-0.6862,0.1254,0.7109,4.9370,-3.7164,-0.9033,-0.8563,1.3750,4.3290
480.4688,-0.5951,-7.3306,-1.3930,2.4876,5.4427,-5.3073,-0.9480,1.0112,-4.0402,5.5816,0.9881,2.1156,2.1873,5.6310,-2.6459,0.6805,0.6446,1.0906,3.7961
484.3750,-1.2030,-9.0726,-2.7567,0.7850,5.0864,-8.0649,-3.0237,0.4447,-3.9352,4.9565,2.1938,3.5708,3.3115,5.8101,-1.5598,0.9949,2.1751,0.7154,2.7517
488.2812,-2.0460,-10.1827,-4.0627,-1.1194,4.0404,-9.7406,-5.2675,-0.2595,-3.7208,4.5733,2.1127,3.8354,3.4660,5.1086,-1.2571,0.2267,2.8645,-0.1137,1.1636
492.1875,-3.1567,-10.5798,-5.2808,-3.0563,2.3080,-10.0264,-6.9143,-1.3047,-3.8510,4.2366,0.5778,2.6094,2.3843,3.4554,-2.0611,-0.7896,2.1708,-1.6355,-0.8787
496.0938,-4.3326,-10.3486,-6.2901,-4.8875,0.1671,-9.1954,-7.6544,-2.8270,-4.4953,3.7818,-1.8764,0.0765,0.2628,1.2298,-3.5739,-1.2655,0.2308,-3.8085,-3.1654
500.0000,-5.1513,-9.7048,-6.9099,-6.4963,-1.8539,-7.9050,-7.7399,-4.7104,-5.4526,3.2068,-4.3229,-3.1100,-2.2976,-0.8349,-4.8844,-1.0689,-2.1425,-6.2666,-5.3832
503.9062,-5.2021,-8.9418,-7.0741,-7.8069,-3.2095,-6.8477,-7.7139,-6.5832,-6.2849,2.6644,-5.9162,-6.0189,-4.5193,-1.9865,-5.1064,-0.7972,-3.8619,-8.4333,-7.1802
507.8125,-4.3975,-8.3573,-6.9949,-8.8166,-3.6557,-6.4445,-7.9721,-8.0059,-6.5842,2.3043,-6.2733,-7.7817,-5.7663,-1.8568,-3.9194,-1.2792,-4.1621,-9.7576,-8.2832
511.7188,-3.1311,-8.1597,-7.1233,-9.5861,-3.4285,-6.7206,-8.4694,-8.7089,-6.2077,2.0750,-5.5734,-7.9571,-5.8167,-0.6886,-1.7761,-2.8948,-3.0429,-9.9633,-8.6126
515.6250,-2.1240,-8.3774,-7.8566,-10.1555,-3.1186,-7.3850,-8.7670,-8.6991,-5.3358,1.6567,-4.3593,-6.7295,-4.9485,0.7753,0.3447,-5.2212,-1.2801,-9.1725,-8.3146
519.5312,-2.0120,-8.8152,-9.1668,-10.4260,-3.2855,-8.0275,-8.3647,-8.1623,-4.3262,0.6267,-3.1839,-4.8054,-3.7849,1.6978,1.4865,-7.2507,0.0175,-7.8232,-7.6661
523.4375,-2.9255,-9.1030,-10.4432,-10.1198,-4.0603,-8.3109,-7.0760,-7.2574,-3.4702,-1.2122,-2.3199,-3.0336,-2.9748,1.6159,1.2329,-8.0047,0.0412,-6.4206,-6.9044
527.3438,-4.3542,-8.8447,-10.7402,-8.9053,-5.0307,-8.0791,-5.1909,-5.9912,-2.8214,-3.5623,-1.6933,-1.9615,-2.8877,0.6772,-0.1010,-7.1062,-1.2833,-5.2704,-6.1040
531.2500,-5.4164,-7.8134,-9.3404,-6.6660,-5.5200,-7.3712,-3.3353,-4.2953,-2.2106,-5.6487,-1.0581,-1.5984,-3.4918,-0.5079,-1.6901,-4.9452,-3.3180,-4.3582,-5.2052
535.1562,-5.3842,-6.0943,-6.2857,-3.7436,-5.0941,-6.3777,-2.1387,-2.2493,-1.4278,-6.5843,-0.2719,-1.5334,-4.4687,-1.3019,-2.6764,-2.3911,-5.1537,-3.4467,-4.1818
539.0625,-4.1378,-4.0840,-2.4987,-0.9490,-3.9358,-5.3760,-1.9272,-0.2467,-0.4291,-5.8955,0.5305,-1.3112,-5.4596,-1.4703,-2.6125,-0.3101,-6.1618,-2.3102,-3.2095
542.9688,-2.2572,-2.3240,0.6444,0.7527,-2.7991,-4.6554,-2.6089,1.0831,0.5896,-3.8731,0.9972,-0.7884,-6.2634,-1.3119,-1.6333,0.7842,-6.2931,-0.9336,-2.6659
546.8750,-0.6947,-1.2414,2.0632,0.7554,-2.5325,-4.4272,-3.7758,1.2042,1.3124,-1.4897,0.8208,-0.2074,-6.8601,-1.3946,-0.2967,0.7895,-5.9562,0.4687,-2.9081
550.7812,-0.2403,-0.9335,1.5875,-0.7812,-3.4805,-4.7302,-4.9222,0.0508,1.5317,0.1097,0.0152,0.0533,-7.2759,-2.0829,0.7714,-0.1287,-5.6020,1.6167,-3.9585
554.6875,-1.1089,-1.1224,0.0431,-2.9202,-5.1776,-5.3754,-5.6449,-1.8278,1.3143,0.2508,-1.0093,-0.1576,-7.4336,-3.1899,1.2041,-1.6831,-5.3437,2.3737,-5.3400
558.5938,-2.8793,-1.3161,-1.2568,-4.3973,-6.5688,-5.9825,-5.7510,-3.4992,0.9768,-0.8954,-1.6590,-0.5909,-7.1341,-4.0142,1.0204,-3.4975,-4.8888,2.8261,-6.2372
562.5000,-4.7780,-1.0962,-1.3006,-4.3005,-6.6365,-6.1297,-5.2729,-4.1444,0.8794,-2.4474,-1.5402,-0.7675,-6.1997,-3.7558,0.5153,-5.0848,-3.8179,3.1686,-5.9394
566.4062,-6.0944,-0.3721,0.0345,-2.5795,-5.0339,-5.5655,-4.4302,-3.5138,1.1793,-3.3771,-0.7510,-0.3668,-4.6670,-2.0458,0.0195,-5.9124,-1.9869,3.4924,-4.2974
570.3125,-6.4759,0.5453,1.9459,-0.0712,-2.3181,-4.3744,-3.5639,-2.0564,1.7231,-3.1444,0.1414,0.4803,-2.8619,0.7598,-0.3122,-5.6153,0.2595,3.6611,-1.8810
574.2188,-5.9751,1.1013,3.2163,1.9732,0.3582,-2.9859,-3.0448,-0.6452,2.1549,-2.0025,0.4577,1.2459,-1.2753,3.7137,-0.5614,-4.2466,2.2234,3.3961,0.3022
578.1250,-4.8999,0.8047,2.9401,2.5670,1.8850,-1.9914,-3.1591,-0.0879,2.1657,-0.7944,-0.1247,1.3889,-0.3105,5.7527,-0.9417,-2.3600,3.2397,2.5213,1.3680
582.0312,-3.6159,-0.4843,1.0235,1.4636,1.7562,-1.8477,-4.0013,-0.7301,1.7050,-0.3868,-1.3139,0.7774,-0.0797,6.2153,-1.6116,-0.8009,3.0379,1.1697,1.0411
585.9375,-2.4254,-2.4468,-1.8117,-0.8238,0.2353,-2.6232,-5.4302,-2.3664,1.0053,-1.1130,-2.3570,-0.1876,-0.3905,5.1032,-2.5285,-0.2883,1.8340,-0.2317,-0.2485
589.8438,-1.5389,-4.4422,-4.4809,-3.4051,-1.9108,-3.9375,-7.1235,-4.4507,0.4046,-2.5702,-2.5279,-0.8663,-0.9216,2.9755,-3.4342,-1.0435,0.1233,-1.2196,-1.7018
593.7500,-1.0790,-5.8148,-6.1402,-5.5028,-3.8720,-5.1402,-8.7108,-6.4118,0.0990,-3.8744,-1.6323,-0.8813,-1.4413,0.6028,-3.9781,-2.7021,-1.6400,-1.6153,-2.6705
597.6562,-1.0589,-6.2027,-6.5813,-6.7358,-5.1358,-5.6390,-9.9110,-7.8598,0.0072,-4.1854,-0.1821,-0.4358,-1.9015,-1.3734,-3.9000,-4.5587,-3.2271,-1.6591,-2.9960
601.5625,-1.3445,-5.6802,-6.2150,-7.0844,-5.5468,-5.1960,-10.5985,-8.6054,-0.1551,-3.1626,0.9028,-0.1817,-2.3509,-2.5971,-3.1639,-5.9608,-4.5706,-1.8347,-2.9565
605.4688,-1.6626,-4.6671,-5.7016,-6.6683,-5.1526,-4.0316,-10.7751,-8.5788,-0.6468,-1.0881,0.8882,-0.7069,-2.7648,-2.9591,-1.9624,-6.5804,-5.5577,-2.4966,-2.9111
609.3750,-1.7020,-3.6698,-5.4853,-5.5805,-4.0440,-2.6878,-10.4942,-7.7900,-1.4873,1.3754,-0.2673,-2.0120,-2.9640,-2.4902,-0.5956,-6.4053,-5.9069,-3.5780,-2.9464
613.2812,-1.2817,-3.0182,-5.5285,-3.9196,-2.3421,-1.7441,-9.8141,-6.3886,-2.4178,3.5925,-1.8309,-3.3818,-2.7142,-1.3130,0.6928,-5.5168,-5.2799,-4.6128,-2.8137
617.1875,-0.4921,-2.7547,-5.3973,-1.9542,-0.3123,-1.5568,-8.8213,-4.7476,-3.0788,5.2451,-2.7139,-3.7832,-1.9428,0.3238,1.8118,-3.8836,-3.5714,-5.0803,-2.1980
621.0938,0.2882,-2.7337,-4.6358,-0.2145,1.5530,-2.1592,-7.6957,-3.4320,-3.2875,6.3314,-2.1441,-2.5473,-0.8904,2.0194,2.7888,-1.3726,-1.1432,-4.8317,-1.0928
625.0000,0.5268,-2.8515,-3.1869,0.6445,2.6333,-3.3479,-6.7395,-2.9949,-3.2298,6.9112,-0.1912,0.1187,-0.0509,3.2956,3.6322,2.0071,1.2210,-4.2815,0.0347
628.9062,-0.2376,-3.2388,-1.5908,0.1690,2.4526,-4.8654,-6.3147,-3.6946,-3.4291,6.8186,2.1753,3.1370,0.0902,3.7757,4.1967,5.8161,2.6690,-4.2075,0.4457
632.8125,-2.1880,-4.2694,-0.8109,-1.6003,0.9563,-6.5446,-6.7011,-5.3269,-4.4954,5.5897,3.5328,5.0867,-0.6561,3.3542,4.1663,9.1054,2.7309,-5.2782,-0.4287
636.7188,-5.1362,-6.3516,-1.7596,-4.1019,-1.4162,-8.3331,-7.9571,-7.3161,-6.7954,2.7077,2.7171,4.9234,-2.0750,2.2244,3.1936,10.6747,1.5619,-7.6251,-2.6185
640.6250,-8.5725,-9.6199,-4.7718,-6.5507,-3.9451,-10.2130,-9.8704,-9.0350,-10.2278,-1.9564,-0.5834,2.4658,-3.7037,0.7262,1.1246,9.5770,-0.1994,-10.7434,-5.5839
644.5312,-11.8316,-13.7190,-9.3279,-8.3749,-6.0085,-12.1044,-12.0306,-10.1544,-14.2214,-7.7970,-5.6495,-1.5988,-5.1365,-0.8786,-1.8344,5.6047,-1.8622,-13.7738,-8.5355
648.4375,-14.3102,-17.8361,-14.1980,-9.4985,-7.3812,-13.8393,-13.9761,-10.7887,-17.9492,-13.5003,-11.0398,-6.1222,-6.2549,-2.5330,-5.1293,-0.5075,-3.1028,-15.9606,-10.8714
652.3438,-15.6649,-20.9987,-17.9546,-10.2780,-8.2600,-15.2224,-15.3292,-11.3394,-20.6392,-17.5240,-15.2185,-10.0269,-7.2175,-4.3121,-8.0646,-7.2826,-4.0778,-16.9865,-12.4268
656.2500,-15.9247,-22.4932,-19.5957,-11.1512,-9.0133,-16.1285,-15.8623,-12.1493,-21.8341,-18.8258,-17.1905,-12.6672,-8.2320,-6.2106,-10.0959,-13.0114,-5.1640,-17.0032,-13.3961
660.1562,-15.4707,-22.1836,-18.9592,-12.2680,-9.8467,-16.5590,-15.5060,-13.2167,-21.5034,-17.4435,-16.8573,-13.8949,-9.3036,-7.9772,-11.0409,-16.3418,-6.5381,-16.4064,-14.0427
664.0625,-14.8757,-20.5590,-16.7288,-13.3800,-10.6311,-16.6220,-14.3478,-14.1757,-19.9935,-14.5597,-14.9554,-13.9110,-10.1718,-9.1624,-11.0962,-16.7029,-7.9302,-15.5671,-14.4599
667.9688,-14.6616,-18.4882,-14.0570,-14.0703,-11.0174,-16.4664,-12.6546,-14.5595,-17.8756,-11.9559,-12.6405,-13.0722,-10.5013,-9.3874,-10.6663,-14.4238,-8.7629,-14.7103,-14.5784
671.8750,-15.0865,-16.8223,-12.0288,-14.1420,-10.7485,-16.2287,-10.8891,-14.1620,-15.7672,-11.1228,-10.9441,-11.7733,-10.1878,-8.6603,-10.1277,-10.5464,-8.5927,-13.9757,-14.3884
675.7812,-16.0778,-16.0580,-11.2485,-13.8570,-9.9289,-16.0324,-9.6493,-13.2388,-14.1843,-12.5246,-10.3712,-10.4150,-9.5359,-7.4967,-9.6757,-6.4437,-7.5313,-13.5347,-14.1524
679.6875,-17.3490,-16.2210,-11.7218,-13.8186,-9.0356,-16.0191,-9.4870,-12.3920,-13.4452,-15.4515,-10.8167,-9.3876,-9.1472,-6.7156,-9.3315,-3.3947,-6.3106,-13.6100,-14.3784
683.5938,-18.6213,-16.9893,-13.0212,-14.5523,-8.6339,-16.3537,-10.6527,-12.2028,-13.6247,-18.5455,-11.7994,-9.0125,-9.5599,-6.9996,-9.0660,-2.2473,-5.8905,-14.3539,-15.5125
687.5000,-19.7975,-17.9408,-14.5724,-16.0666,-8.9788,-17.1630,-12.9037,-12.8404,-14.5553,-20.6698,-12.8331,-9.4412,-10.8717,-8.4819,-8.9249,-3.2424,-6.8369,-15.6825,-17.5496
691.4062,-20.9616,-18.7582,-15.8782,-17.7083,-9.7733,-18.4252,-15.5158,-13.9043,-15.8777,-21.5667,-13.6944,-10.5675,-12.5999,-10.6228,-9.0518,-6.0135,-8.8751,-17.2177,-19.8559
695.3125,-22.2097,-19.2888,-16.5948,-18.4376,-10.2701,-19.8869,-17.5449,-14.6039,-17.1390,-21.8864,-14.4312,-12.0137,-13.8854,-12.4651,-9.5925,-9.7307,-10.9384,-18.4074,-21.3755
699.2188,-23.4552,-19.4702,-16.4976,-17.3702,-9.6744,-21.0869,-18.2268,-14.1764,-17.9239,-22.5885,-15.1494,-13.2191,-13.9246,-13.1199,-10.5588,-13.3384,-11.7172,-18.7559,-21.1315
703.1250,-24.3810,-19.2284,-15.4459,-14.2588,-7.6102,-21.5071,-17.3085,-12.2961,-17.9798,-24.1407,-15.7705,-13.6125,-12.3695,-12.1993,-11.7569,-15.8269,-10.3919,-18.0158,-18.7294
707.0312,-24.6082,-18.4543,-13.4181,-9.6337,-4.3596,-20.7918,-15.1240,-9.2440,-17.2863,-26.0825,-15.9732,-12.8159,-9.4718,-9.9571,-12.8387,-16.4845,-7.1056,-16.2337,-14.5602
710.9375,-23.9689,-17.0869,-10.5978,-4.5391,-0.7303,-18.9233,-12.3751,-5.7558,-16.0370,-27.2704,-15.3813,-10.8094,-5.9122,-7.0930,-13.4441,-15.0743,-2.8981,-13.6582,-9.5982
714.8438,-22.6692,-15.2325,-7.4196,-0.0515,2.3585,-16.2591,-9.7550,-2.6572,-14.5341,-26.6507,-13.8638,-7.9804,-2.4526,-4.3741,-13.3495,-11.8873,0.8478,-10.6168,-4.9385
718.7500,-21.1898,-13.2077,-4.4894,3.1300,4.3076,-13.4091,-7.6395,-0.5068,-13.0481,-24.0310,-11.7037,-5.0116,0.3674,-2.3154,-12.5422,-7.6475,3.1024,-7.4573,-1.3629
722.6562,-19.9696,-11.4435,-2.3814,4.8160,5.0256,-11.0097,-6.0213,0.5595,-11.7155,-20.3144,-9.4838,-2.6264,2.3313,-1.0854,-11.2001,-3.2911,3.6180,-4.5626,0.8387
726.5625,-19.0987,-10.2930,-1.4118,5.1786,4.7865,-9.5020,-4.6990,0.7311,-10.5360,-17.0227,-7.7507,-1.3003,3.4368,-0.6325,-9.6161,0.3009,2.8724,-2.3613,1.7560
730.4688,-18.2690,-9.8634,-1.5250,4.4887,3.8976,-9.0070,-3.5681,0.2774,-9.4731,-15.4164,-6.7038,-1.0920,3.7063,-0.8874,-8.1200,2.5110,1.6226,-1.2563,1.6036
734.3750,-17.0473,-9.9910,-2.3726,2.9416,2.4400,-9.3381,-2.8016,-0.6586,-8.5918,-15.7863,-6.1477,-1.7022,3.0769,-1.8724,-7.0222,3.0605,0.3908,-1.4759,0.5325
738.2812,-15.2858,-10.3798,-3.5446,0.6653,0.2760,-10.1269,-2.7870,-2.0893,-8.1288,-17.3635,-5.7494,-2.7288,1.4534,-3.6398,-6.5636,1.9593,-0.7852,-2.9391,-1.3801
742.1875,-13.3538,-10.8100,-4.8084,-2.1430,-2.6869,-10.9898,-3.8533,-4.0324,-8.4159,-18.8697,-5.3904,-3.9448,-1.1221,-6.1000,-6.8482,-0.5811,-2.2105,-5.2420,-3.9993
746.0938,-11.9803,-11.2641,-6.1976,-5.1005,-6.1858,-11.6584,-5.9636,-6.3091,-9.6689,-19.3095,-5.3170,-5.3871,-4.3143,-8.8878,-7.7686,-4.1714,-4.1416,-7.7908,-6.9986
750.0000,-11.7757,-11.8759,-7.8837,-7.6612,-9.5068,-12.0187,-8.5815,-8.4641,-11.7583,-18.4836,-5.9384,-7.1797,-7.4869,-11.3917,-8.9752,-8.1907,-6.4446,-10.0097,-9.8488
753.9062,-12.7534,-12.7348,-9.9115,-9.2887,-11.7261,-12.0604,-10.8217,-9.8972,-14.1255,-16.9309,-7.4135,-9.2253,-9.8857,-12.9665,-9.9499,-11.7529,-8.5512,-11.5047,-11.9622
757.8125,-14.2022,-13.6946,-11.9893,-9.6812,-12.1703,-11.7859,-11.8287,-10.1514,-15.9474,-15.4158,-9.3622,-11.0387,-10.9414,-13.2244,-10.1922,-13.8442,-9.7522,-12.1172,-12.9136
761.7188,-15.0336,-14.3477,-13.5081,-8.9144,-10.8115,-11.1508,-11.1884,-9.1825,-16.5073,-14.3651,-10.9752,-11.9227,-10.5366,-12.2407,-9.4514,-13.6882,-9.6352,-11.8885,-12.6183
765.6250,-14.4025,-14.2163,-13.8304,-7.4176,-8.3319,-10.0885,-9.1490,-7.4292,-15.5797,-13.6395,-11.4978,-11.4282,-9.0857,-10.5456,-7.8804,-11.2002,-8.3747,-11.0067,-11.3718
769.5312,-12.2019,-13.0553,-12.6935,-5.7961,-5.7913,-8.6040,-6.5202,-5.6167,-13.5896,-12.7489,-10.7549,-9.7778,-7.3634,-8.8914,-6.0114,-7.2407,-6.6774,-9.7736,-9.7324
773.4375,-9.1122,-11.0643,-10.4651,-4.5887,-4.0839,-6.8635,-4.2913,-4.3943,-11.4150,-11.3005,-9.3144,-7.8921,-6.1475,-7.9058,-4.5367,-3.4076,-5.4005,-8.5648,-8.2986
777.3438,-6.1826,-8.8434,-8.0414,-4.0723,-3.5068,-5.1899,-3.1591,-4.0143,-9.9130,-9.3342,-8.1267,-6.9007,-5.8469,-7.8099,-3.9907,-1.3578,-5.0664,-7.7255,-7.4743
781.2500,-4.2288,-7.0946,-6.3918,-4.1892,-3.6873,-3.9278,-3.2113,-4.2398,-9.4385,-7.3216,-7.8650,-7.4042,-6.3053,-8.3429,-4.4928,-1.9751,-5.5631,-7.4052,-7.3156
785.1562,-3.4326,-6.2352,-5.9953,-4.6107,-3.8905,-3.2423,-3.9335,-4.5283,-9.6520,-5.8617,-8.4321,-8.9877,-6.8875,-8.9281,-5.6837,-4.8650,-6.2039,-7.4246,-7.5220
789.0625,-3.3680,-6.1660,-6.5239,-4.8930,-3.4962,-2.9846,-4.5342,-4.3708,-9.7510,-5.3064,-9.0011,-10.3695,-6.8078,-8.9831,-6.8901,-8.5170,-6.1093,-7.3023,-7.5779
792.9688,-3.3825,-6.3389,-7.0031,-4.6545,-2.3448,-2.7376,-4.4064,-3.5761,-8.9894,-5.5627,-8.5760,-10.1504,-5.5306,-8.2037,-7.4317,-11.0803,-4.6893,-6.4866,-6.9848
796.8750,-3.0403,-6.0822,-6.3901,-3.7041,-0.7576,-2.0434,-3.4613,-2.3350,-7.1602,-6.1684,-6.6812,-7.6979,-3.0313,-6.6772,-6.9174,-11.3026,-1.9592,-4.6837,-5.4799
800.7812,-2.3322,-4.9790,-4.2234,-2.0815,0.7405,-0.6793,-2.1396,-1.0481,-4.7263,-6.5556,-3.6900,-3.5758,0.2088,-4.7832,-5.3885,-9.0748,1.4690,-2.0707,-3.1376
804.6875,-1.5569,-3.0714,-0.9299,-0.0062,1.7859,1.2017,-1.0903,-0.0474,-2.5139,-6.3217,-0.5673,0.7769,3.4488,-2.9657,-3.2559,-5.2830,4.6873,0.7699,-0.3098
808.5938,-1.0136,-0.7871,2.4188,2.2248,2.3833,3.1711,-0.7143,0.6002,-1.1729,-5.3696,1.7694,3.9028,6.0226,-1.5248,-1.0823,-1.1326,6.9020,3.1713,2.5476
812.5000,-0.7549,1.3286,4.7524,4.3335,2.8347,4.8016,-0.8627,1.0866,-0.7687,-3.8824,2.9998,5.1349,7.5735,-0.5426,0.6668,2.5518,7.7372,4.7479,5.0527
816.4062,-0.5710,2.8809,5.6272,6.1056,3.4610,5.9243,-0.8971,1.6749,-0.7853,-2.1886,3.4736,4.8300,8.0897,0.0388,1.7806,5.5763,7.3051,5.5472,6.9730
820.3125,-0.1884,3.7315,5.4220,7.3743,4.3215,6.6776,-0.1011,2.4666,-0.5368,-0.6020,3.7903,3.9187,7.7730,0.2755,2.3071,8.0742,6.0580,5.8862,8.1771
824.2188,0.4846,3.9191,4.9865,7.9819,5.1205,7.3096,1.7991,3.2844,0.2973,0.7010,4.2386,3.1486,6.8667,0.1347,2.4287,9.9695,4.5402,6.0037,8.5343
828.1250,1.2467,3.5081,5.0032,7.7738,5.3678,7.8898,4.3343,3.7483,1.3894,1.7313,4.5385,2.5870,5.5577,-0.4731,2.3001,10.7018,3.1751,5.8078,7.8763
832.0312,1.6962,2.5113,5.5113,6.6589,4.6895,8.1623,6.4302,3.4996,1.9410,2.6475,4.0793,1.7161,3.9860,-1.5761,1.9473,9.4804,2.1650,4.9278,6.0837
835.9375,1.4512,0.9463,5.9189,4.7110,3.0996,7.6780,6.9389,2.4348,1.2123,3.6356,2.4598,-0.0084,2.2994,-3.0362,1.2806,5.9112,1.5017,3.0446,3.2477
839.8438,0.3507,-1.0445,5.4720,2.2389,1.0629,6.1262,5.2778,0.8099,-0.9455,4.7567,-0.0933,-2.5974,0.6716,-4.5487,0.2031,0.5196,1.0440,0.2511,-0.2219
843.7500,-1.4769,-3.1411,3.8287,-0.2475,-0.6943,3.6283,1.8068,-0.8467,-3.9112,5.8472,-2.7563,-5.4011,-0.7461,-5.7552,-1.2634,-5.2563,0.6142,-2.8407,-3.6578
847.6562,-3.6895,-4.9385,1.3252,-2.1972,-1.5297,0.7619,-2.2842,-1.9699,-6.5916,6.5530,-4.5744,-7.4926,-1.8909,-6.3982,-2.9208,-9.6631,0.0861,-5.3526,-6.3717
851.5625,-5.8816,-6.1371,-1.2407,-3.2381,-1.2027,-1.7248,-5.5310,-2.2187,-8.0084,6.5060,-5.0300,-8.2539,-2.7994,-6.4204,-4.4491,-11.4645,-0.5536,-6.5953,-7.9428
855.4688,-7.7171,-6.6981,-3.1314,-3.3428,0.0009,-3.3241,-6.9002,-1.6352,-7.8097,5.5514,-4.3176,-7.7303,-3.5383,-5.9564,-5.5445,-10.4971,-1.1928,-6.4244,-8.3865
859.3750,-8.9959,-6.8457,-4.1136,-2.8409,1.4044,-4.0300,-6.2765,-0.6282,-6.4071,3.8777,-3.1585,-6.5229,-4.1100,-5.2471,-6.0605,-7.6384,-1.6504,-5.2732,-8.0990
863.2812,-9.6611,-6.9150,-4.5262,-2.2616,2.2666,-4.2818,-4.4894,0.2061,-4.6922,1.9474,-2.3162,-5.3530,-4.4237,-4.5451,-6.0660,-4.2692,-1.7930,-3.8697,-7.6133
867.1875,-9.7823,-7.1571,-4.9673,-2.0849,2.1356,-4.6467,-2.8866,0.3401,-3.5440,0.2564,-2.1661,-4.6443,-4.3744,-4.0648,-5.7862,-1.6051,-1.6514,-2.8522,-7.3207
871.0938,-9.5372,-7.6394,-5.8622,-2.5345,1.0558,-5.4723,-2.6832,-0.4660,-3.4307,-0.9234,-2.5871,-4.4078,-3.9733,-3.9665,-5.4636,-0.2804,-1.4501,-2.5307,-7.3157
875.0000,-9.1861,-8.2927,-7.2296,-3.5114,-0.4723,-6.7358,-4.4066,-2.0757,-4.3058,-1.6439,-3.1883,-4.4341,-3.4121,-4.3298,-5.2271,-0.3198,-1.4973,-2.8926,-7.4347
878.9062,-9.0178,-9.0346,-8.7690,-4.6885,-1.7528,-8.1496,-7.6845,-4.0481,-5.7802,-2.1574,-3.6432,-4.5635,-2.9792,-5.0941,-5.0509,-1.3689,-1.9742,-3.7595,-7.4274
882.8125,-9.2586,-9.8453,-10.1406,-5.6966,-2.2449,-9.3993,-11.4502,-5.8356,-7.3957,-2.6679,-3.8765,-4.7931,-2.8661,-6.0102,-4.8245,-2.9482,-2.7575,-4.9232,-7.1378
886.7188,-9.9719,-10.7234,-11.1834,-6.2994,-1.8337,-10.3219,-14.4518,-7.0188,-8.8158,-3.1432,-4.0042,-5.1659,-3.0099,-6.6868,-4.4804,-4.5950,-3.4232,-6.1661,-6.5953
890.6250,-10.9982,-11.5726,-11.9156,-6.4830,-0.8997,-10.9186,-15.8260,-7.4800,-9.8628,-3.3274,-4.1390,-5.6073,-3.1199,-6.7738,-4.0878,-5.9215,-3.4812,-7.2203,-5.9937
894.5312,-11.9855,-12.1441,-12.3718,-6.4402,-0.1632,-11.2489,-15.4757,-7.4428,-10.4612,-2.9352,-4.2617,-5.9092,-2.9039,-6.2129,-3.8432,-6.6819,-2.7275,-7.7925,-5.6057
898.4375,-12.5197,-12.1236,-12.4676,-6.4774,-0.3756,-11.3351,-14.0741,-7.3575,-10.5891,-1.8726,-4.2658,-5.9046,-2.3472,-5.3832,-3.9582,-6.8635,-1.4811,-7.7071,-5.6841
902.3438,-12.3099,-11.3241,-12.0336,-6.8816,-1.9801,-11.1578,-12.6826,-7.6716,-10.2820,-0.3175,-4.1130,-5.6696,-1.8195,-4.9817,-4.5198,-6.7115,-0.5053,-7.0746,-6.3701
906.2500,-11.3412,-9.8368,-10.9827,-7.7793,-4.8660,-10.7139,-12.1541,-8.5727,-9.6476,1.3900,-3.9300,-5.5312,-1.8817,-5.6238,-5.4171,-6.5912,-0.5963,-6.3097,-7.6087
910.1562,-9.9084,-8.0013,-9.4348,-9.0198,-8.3047,-10.0400,-12.6261,-9.8161,-8.8257,2.9479,-3.9314,-5.8130,-2.8804,-7.3584,-6.3867,-6.7258,-2.0555,-5.9071,-9.0870
914.0625,-8.4960,-6.1906,-7.6575,-10.1374,-11.1119,-9.1606,-13.3940,-10.7343,-7.8859,4.2225,-4.2087,-6.4956,-4.5992,-9.4172,-7.1436,-6.9951,-4.3825,-6.0796,-10.2511
917.9688,-7.5529,-4.5636,-5.8566,-10.4515,-12.0232,-8.0209,-13.2821,-10.4728,-6.7412,5.2220,-4.5584,-7.0816,-6.2396,-10.4370,-7.5092,-6.9885,-6.4293,-6.5140,-10.4579
921.8750,-7.2756,-2.9876,-4.0154,-9.3298,-10.1972,-6.5218,-11.3536,-8.3972,-5.1771,5.9690,-4.5108,-6.8322,-6.8088,-9.1333,-7.4455,-6.3258,-6.9878,-6.4660,-9.2501
925.7812,-7.5261,-1.2193,-1.9675,-6.5432,-5.6752,-4.6920,-7.5814,-4.5157,-3.0230,6.4094,-3.5794,-5.2560,-5.7074,-5.0970,-6.9816,-5.0224,-5.4924,-5.1957,-6.6388
929.6875,-7.9342,0.7719,0.3069,-2.5442,0.4194,-2.8823,-3.0702,0.2987,-0.3667,6.4502,-1.5806,-2.5130,-3.1537,0.7504,-6.1002,-3.5864,-2.4155,-2.4878,-3.2210
933.5938,-8.1327,2.5881,2.3957,1.5258,6.1165,-1.7818,0.3539,4.4610,2.3492,6.0909,1.1901,0.5779,-0.1476,6.3737,-4.6917,-2.7124,0.9097,1.0932,-0.0119
937.5000,-7.9845,3.5007,3.4676,4.1922,9.2719,-2.1451,1.0096,6.2202,4.4585,5.5102,4.0521,2.9676,2.0327,9.4783,-2.6383,-2.7495,2.9689,4.4138,1.9687
941.4062,-7.6636,2.8488,2.6733,4.2596,8.4424,-4.3403,-1.7789,4.4023,5.3827,4.9942,6.2515,3.9679,2.5144,8.5905,0.0110,-3.3452,2.8672,6.3462,2.1543
945.3125,-7.5407,0.4962,-0.2825,1.3924,3.5616,-8.0181,-7.3146,-0.9961,4.9377,4.7335,7.3022,3.6087,1.2776,3.7890,2.9020,-3.5860,0.7846,6.3574,0.6791
949.2188,-7.9480,-2.9700,-4.7957,-3.6635,-3.9589,-12.1741,-13.8674,-8.6973,3.4346,4.6440,7.1603,2.5296,-0.8991,-3.3210,5.4014,-2.6063,-2.1764,4.7505,-1.7325
953.1250,-8.9689,-6.4646,-9.5383,-9.3775,-11.8178,-15.6331,-19.5244,-16.6301,1.4992,4.3809,6.1533,1.4997,-2.9490,-10.3861,6.8213,-0.2736,-4.6512,2.4228,-4.1706
957.0312,-10.3784,-8.9411,-13.1005,-14.1261,-17.8464,-17.6669,-23.0647,-22.8100,-0.2739,3.5819,4.7430,0.9126,-4.1510,-15.4209,6.7373,2.5441,-5.7814,0.3160,-6.0001
960.9375,-11.7537,-9.9136,-14.7124,-16.9168,-20.9453,-18.3318,-24.3786,-26.1700,-1.6103,2.1851,3.2890,0.6012,-4.4922,-17.6633,5.2149,4.3634,-5.6378,-1.0843,-7.1096
964.8438,-12.6692,-9.6396,-14.5779,-17.7468,-21.4392,-18.2833,-24.2483,-26.9027,-2.6043,0.5896,1.9486,0.0748,-4.5577,-17.7380,2.7932,3.9133,-5.0691,-1.9014,-7.8256
968.7500,-12.8561,-8.8675,-13.6092,-17.4130,-20.6756,-18.1969,-23.6952,-26.1401,-3.5209,-0.4914,0.7357,-1.0212,-5.0531,-17.0956,0.2212,0.8904,-5.1008,-2.6234,-8.5813
972.6562,-12.2570,-8.3315,-12.7564,-16.9149,-20.1291,-18.2187,-23.3267,-25.1781,-4.5143,-0.4238,-0.3487,-2.5656,-6.2947,-17.0924,-1.9017,-3.8267,-6.2719,-3.6713,-9.5746
976.5625,-10.9939,-8.3333,-12.3983,-16.8325,-20.5539,-17.8616,-23.0634,-24.7187,-5.4774,0.9473,-1.2370,-3.9834,-7.9992,-18.2481,-3.3657,-8.6136,-8.3116,-5.0838,-10.6336
980.4688,-9.3137,-8.6664,-12.2027,-17.0553,-21.6705,-16.4385,-22.3455,-24.5737,-6.1295,3.1467,-1.8324,-4.6112,-9.4884,-20.0695,-4.3348,-11.8884,-10.3318,-6.5134,-11.3565
984.3750,-7.5540,-8.8909,-11.5201,-16.9950,-22.5192,-13.7175,-20.6156,-23.9715,-6.2653,5.2721,-2.1273,-4.1560,-10.1482,-21.4738,-5.1111,-12.7811,-11.3867,-7.5025,-11.4115
988.2812,-6.1046,-8.7314,-9.9957,-16.0985,-22.1918,-10.2984,-17.7414,-22.2198,-5.9680,6.4362,-2.2973,-2.9419,-9.8274,-21.5014,-5.8595,-11.3575,-11.0403,-7.8231,-10.7850
992.1875,-5.3165,-8.3039,-7.9406,-14.2897,-20.4431,-7.3928,-14.1354,-19.2655,-5.6130,6.1976,-2.6732,-1.7843,-8.9174,-19.8743,-6.4899,-8.3950,-9.5983,-7.6438,-9.8194
996.0938,-5.3502,-8.0210,-6.1923,-12.0483,-17.8047,-6.1157,-10.5492,-15.7814,-5.6457,4.7545,-3.5762,-1.5610,-8.0820,-17.0939,-6.7717,-4.9545,-7.8877,-7.4154,-9.0211
1000.0000,-6.0432,-8.2615,-5.5644,-10.0922,-15.1788,-6.7598,-7.7090,-12.7463,-6.2833,2.8251,-5.1051,-2.7263,-7.8302,-14.0739,-6.5769,-2.0144,-6.7458,-7.5637,-8.7655
1003.9062,-6.9178,-9.0531,-6.2799,-8.9060,-13.2312,-8.5540,-6.0107,-10.8230,-7.3515,1.3019,-7.0157,-5.0372,-8.2158,-11.5802,-6.0566,-0.2800,-6.5443,-8.1968,-9.0808
1007.8125,-7.3873,-10.0019,-7.7851,-8.4467,-11.9985,-10.0934,-5.4090,-9.9578,-8.3770,0.8592,-8.7908,-7.6373,-8.8420,-9.8322,-5.6021,-0.1134,-7.0274,-9.0207,-9.6306
1011.7188,-7.0795,-10.5238,-9.0715,-8.2151,-10.9428,-10.1727,-5.5056,-9.4584,-8.8776,1.6751,-9.8869,-9.4548,-9.1396,-8.4840,-5.6112,-1.4958,-7.5310,-9.5166,-9.8958
1015.6250,-6.0785,-10.2280,-9.2851,-7.6204,-9.3679,-8.4994,-5.7546,-8.4734,-8.6616,3.3586,-10.0233,-9.7115,-8.7155,-6.9479,-6.2234,-4.0117,-7.4134,-9.2684,-9.4414
1019.5312,-4.9040,-9.1997,-8.2162,-6.3681,-6.8883,-5.8453,-5.6888,-6.5410,-7.9385,5.0942,-9.3404,-8.2888,-7.5424,-4.8205,-7.2191,-6.9274,-6.4181,-8.2342,-8.1196
1023.4375,-4.2066,-7.9970,-6.3649,-4.6120,-3.6535,-3.5714,-5.0899,-3.8559,-7.1780,5.9539,-8.3220,-5.7712,-5.8956,-2.1360,-8.1554,-9.4083,-4.7621,-6.7913,-6.1099
1027.3438,-4.3622,-7.3567,-4.5703,-2.7985,-0.2295,-2.8407,-4.0567,-1.1177,-6.8172,5.2767,-7.5266,-3.1513,-4.1240,0.6841,-8.6427,-10.8094,-2.9362,-5.5234,-3.7988
1031.2500,-5.2422,-7.7837,-3.4796,-1.3533,2.7240,-3.9971,-2.9462,0.8940,-7.0148,2.9681,-7.2940,-1.3543,-2.4480,3.1122,-8.5698,-10.8802,-1.3917,-4.8825,-1.5918
1035.1562,-6.3274,-9.2634,-3.2127,-0.4573,4.7454,-6.4411,-2.2009,1.7224,-7.6046,-0.4260,-7.6158,-0.8367,-0.9332,4.8106,-8.1351,-9.7695,-0.3323,-4.9390,0.2222
1039.0625,-7.0988,-11.2612,-3.4210,-0.0597,5.6713,-9.0174,-2.1361,1.3757,-8.2626,-3.9445,-8.2416,-1.4644,0.3638,5.7510,-7.6885,-7.8614,0.2671,-5.3820,1.4842
1042.9688,-7.4252,-13.0055,-3.6541,-0.0790,5.5523,-10.6449,-2.7974,0.1826,-8.7583,-6.6591,-8.9264,-2.7144,1.2281,6.1071,-7.5203,-5.5973,0.4766,-5.7713,2.0803
1046.8750,-7.6597,-13.8902,-3.7467,-0.5922,4.5164,-10.8350,-3.9785,-1.4798,-9.1119,-8.1183,-9.6214,-4.0440,1.2737,6.0351,-7.7437,-3.4222,0.2400,-5.8744,1.8582
1050.7812,-8.3550,-13.7722,-3.9406,-1.8272,2.7052,-9.8561,-5.3878,-3.3747,-9.5510,-8.5296,-10.4525,-5.1800,0.1471,5.5294,-8.3174,-1.8378,-0.6223,-5.8530,0.6480
1054.6875,-9.7935,-13.0013,-4.6577,-3.9365,0.3170,-8.5115,-6.8383,-5.4038,-10.3025,-8.5487,-11.5011,-6.1458,-2.1682,4.4696,-9.1324,-1.4036,-2.2195,-6.1579,-1.5881
1058.5938,-11.6766,-12.1744,-6.0946,-6.7140,-2.3138,-7.6871,-8.3022,-7.4637,-11.3679,-8.7928,-12.5721,-7.0450,-5.1639,2.8278,-10.0544,-2.5407,-4.3514,-7.1877,-4.5676
1062.5000,-13.2215,-11.7640,-7.9420,-9.4847,-4.6968,-7.8998,-9.7679,-9.3037,-12.4424,-9.3906,-13.1712,-7.8012,-7.9064,0.8754,-10.8889,-5.1873,-6.4222,-8.9397,-7.6146
1066.4062,-13.6308,-11.8397,-9.4519,-11.2931,-6.2701,-9.0559,-11.0091,-10.5059,-13.0487,-9.8826,-12.7735,-8.0906,-9.4147,-0.7852,-11.3496,-8.5643,-7.6194,-10.9077,-9.8170
1070.3125,-12.6275,-12.0516,-9.8404,-11.3191,-6.5581,-10.5202,-11.4906,-10.6108,-12.8105,-9.5668,-11.2339,-7.5497,-9.1190,-1.4256,-11.1383,-11.3313,-7.2883,-12.3276,-10.3876
1074.2188,-10.6823,-11.8835,-8.7760,-9.2915,-5.3307,-11.4592,-10.5713,-9.3161,-11.7043,-8.0746,-9.0416,-6.1133,-7.1337,-0.5416,-10.1493,-12.1799,-5.2888,-12.6298,-9.0524
1078.1250,-8.7651,-11.0194,-6.6272,-5.6586,-2.6994,-11.2913,-7.9471,-6.6408,-10.1245,-5.7785,-7.1811,-4.2046,-4.1838,1.8540,-8.6621,-10.5622,-2.1174,-11.8050,-6.2340
1082.0312,-7.7655,-9.5857,-4.2859,-1.4160,0.8798,-10.0088,-4.0399,-2.9748,-8.7094,-3.7157,-6.6147,-2.5840,-1.2296,5.1746,-7.3265,-7.0780,1.2907,-10.4228,-2.8885
1085.9375,-7.9586,-8.0998,-2.6544,2.3182,4.7029,-8.1850,-0.0000,1.0093,-8.0123,-3.0265,-7.6775,-1.9070,0.9880,8.4889,-6.8556,-3.2066,3.9741,-9.2711,-0.0586
1089.8438,-8.8564,-7.1414,-2.1085,4.7623,8.0030,-6.6378,2.8005,4.5576,-8.1957,-4.2384,-9.7808,-2.2773,2.2309,10.9268,-7.5686,-0.4939,5.3508,-8.8389,1.6215
1093.7500,-9.5331,-6.9468,-2.2793,5.7461,10.1915,-5.9291,3.5432,7.0873,-8.9235,-6.8582,-11.6559,-3.1188,2.7479,12.0514,-9.0938,0.2993,5.4108,-8.9802,2.1885
1097.6562,-9.2057,-7.1970,-2.2985,5.6976,11.0766,-5.9977,2.5196,8.3981,-9.5158,-9.5560,-12.0346,-3.4911,3.0191,12.0125,-10.4935,-0.4661,4.6295,-8.9859,2.2400
1101.5625,-7.6992,-7.1613,-1.3600,5.3803,10.9527,-6.1714,1.0518,8.7445,-9.2925,-10.8553,-10.3713,-2.6656,3.4449,11.4147,-10.8026,-1.6997,3.6839,-8.0220,2.5351
1105.4688,-5.5208,-6.1342,0.7536,5.5225,10.4766,-5.5767,0.7406,8.7047,-7.9232,-9.9247,-7.1659,-0.5912,4.1606,10.9851,-9.6605,-2.4040,3.1369,-5.6554,3.5572
1109.3750,-3.5258,-3.9019,3.5103,6.5026,10.3512,-3.7089,2.4649,8.8762,-5.5990,-7.0019,-3.6869,2.0575,5.0417,11.2206,-7.5966,-2.3371,3.2331,-2.1342,5.2933
1113.2812,-2.4071,-0.9359,5.9301,8.2140,10.9610,-0.8019,5.7639,9.5424,-2.9361,-3.2182,-1.2612,4.2812,5.8444,12.1882,-5.7271,-2.0519,3.8640,1.7406,7.3291
1117.1875,-2.3232,1.8291,7.1523,10.1482,12.1690,2.2483,9.0341,10.5021,-0.6664,0.0446,-0.5576,5.3433,6.3660,13.5597,-5.0213,-2.3189,4.6736,5.0511,9.1523
1121.0938,-2.8654,3.5103,6.9121,11.6485,13.4119,4.3683,10.4595,11.1926,0.7149,1.8627,-1.2836,5.1698,6.5350,14.8326,-5.6235,-3.3914,5.2362,7.2216,10.4422
1125.0000,-3.3490,3.7686,5.6380,12.2124,14.0489,4.9000,9.1114,11.0537,1.1558,2.1404,-2.4443,4.3305,6.4118,15.5967,-6.7153,-4.6803,5.2344,8.2239,11.1639
1128.9062,-3.2321,2.9643,4.1293,11.6943,13.7477,3.9322,5.5235,9.9123,1.0022,1.4778,-2.9770,3.6416,6.1253,15.6981,-7.0540,-5.0982,4.5822,8.4391,11.4400
1132.8125,-2.4202,1.8773,3.0356,10.3035,12.6515,2.1776,1.3735,8.1174,0.7396,0.6839,-2.3655,3.6602,5.7831,15.2215,-5.8461,-3.8305,3.4486,8.3053,11.3267
1136.7188,-1.3078,1.1723,2.4694,8.4029,11.2140,0.5025,-1.5259,6.3120,0.6809,0.2721,-0.8875,4.3705,5.3846,14.3269,-3.3565,-0.9829,2.1671,7.9982,10.6723
1140.6250,-0.5575,0.9610,1.9822,6.2364,9.8227,-0.5739,-2.2876,4.9745,0.7869,0.2360,0.6103,5.2157,4.7716,13.0654,-0.8096,2.3598,1.0604,7.3413,9.1700
1144.5312,-0.7472,0.7520,0.9040,3.7793,8.4911,-1.0978,-1.3988,4.0556,0.7263,0.1911,1.2398,5.4199,3.6600,11.3136,0.3859,4.7163,0.2687,5.9811,6.5778
1148.4375,-2.0637,-0.1728,-1.1687,0.8391,6.8589,-1.5142,-0.3023,2.9947,0.1323,-0.2669,0.5816,4.4091,1.7895,8.8874,-0.4167,5.0508,-0.3093,3.6992,2.9775
1152.3438,-4.1844,-2.1987,-4.0290,-2.6301,4.5220,-2.2698,-0.4132,1.1498,-1.1060,-1.2469,-1.0965,2.1236,-0.8465,5.7762,-2.6275,3.3376,-0.9041,0.6656,-1.0893
1156.2500,-6.4011,-5.0064,-6.8597,-6.2165,1.4621,-3.4688,-2.2178,-1.6365,-2.7103,-2.4872,-3.0068,-0.9016,-3.8110,2.3406,-4.7512,0.5223,-1.6474,-2.5201,-4.7022
1160.1562,-7.9306,-7.6461,-8.5874,-9.0047,-1.7460,-4.7971,-5.0184,-4.7431,-4.1340,-3.5422,-4.2773,-3.7166,-6.2411,-0.6846,-5.3203,-2.0477,-2.3814,-5.0298,-6.8589
1164.0625,-8.2729,-9.0365,-8.4200,-9.9183,-4.1333,-5.7333,-7.4474,-7.0038,-4.8757,-4.0855,-4.4154,-5.3328,-7.1553,-2.4417,-3.8203,-3.3382,-2.6682,-6.1621,-6.8795
1167.9688,-7.4461,-8.5935,-6.2995,-8.3115,-4.8467,-5.8828,-8.3800,-7.3687,-4.7943,-4.1232,-3.5586,-5.1619,-5.9544,-2.3519,-1.0032,-3.0730,-2.0364,-5.6847,-4.7486
1171.8750,-5.9754,-6.6041,-3.0337,-4.4620,-3.6522,-5.2146,-7.6377,-5.5802,-4.2189,-3.9840,-2.3877,-3.3341,-2.8456,-0.4561,1.6061,-1.7111,-0.3310,-3.9943,-1.2242
1175.7812,-4.6277,-4.1115,-0.0083,0.3857,-1.1024,-4.0686,-6.0445,-2.4117,-3.7684,-4.0986,-1.7456,-0.7142,1.1036,2.5167,2.6776,-0.0573,2.0734,-1.9958,2.3828
1179.6875,-4.0182,-2.3679,1.4280,4.5244,1.7425,-2.9543,-4.8289,0.7124,-3.9763,-4.7062,-2.1562,1.4555,4.3953,5.4239,1.8888,1.2159,4.3778,-0.7263,4.7121
1183.5938,-4.2966,-2.1766,0.6315,6.5938,3.8622,-2.2754,-4.7876,2.4908,-4.9511,-5.6695,-3.5013,2.1638,5.8264,7.2050,0.0756,1.8703,5.7581,-0.8836,4.9367
1187.5000,-5.0920,-3.5042,-1.9592,6.2304,4.7508,-2.1374,-5.7603,2.4268,-6.2971,-6.5133,-5.0517,1.1814,5.1037,7.3431,-1.3417,2.1157,5.8243,-2.4928,3.1375
1191.4062,-5.7563,-5.5817,-4.9833,4.1663,4.5438,-2.3331,-6.7522,0.9995,-7.3638,-6.6736,-5.8650,-0.7882,2.9685,6.0479,-1.2679,2.3850,4.8368,-4.9024,0.2474
1195.3125,-5.7713,-7.4162,-6.8413,1.7194,3.7665,-2.5001,-6.6204,-0.7519,-7.6828,-5.8299,-5.3549,-2.5042,0.7348,4.0718,0.3996,3.0165,3.5254,-7.1402,-2.4431
1199.2188,-5.0857,-8.3948,-6.5854,-0.0040,2.9178,-2.3593,-4.8835,-1.9230,-7.3155,-4.1439,-3.7037,-2.9441,-0.4903,2.2754,2.7304,4.0010,2.6191,-8.4521,-3.9677
1203.1250,-4.1794,-8.6169,-4.5228,-0.6973,2.1784,-1.9082,-2.1371,-2.2536,-6.8761,-2.2727,-1.8470,-1.9665,-0.4273,1.1915,4.3297,4.9060,2.3915,-8.7211,-4.1722
1207.0312,-3.8128,-8.7666,-2.1421,-0.8855,1.4110,-1.4620,0.1984,-2.1494,-7.1877,-1.1337,-0.9908,-0.4421,0.2888,0.8175,4.1416,5.0233,2.5256,-8.5115,-3.7170
1210.9375,-4.6066,-9.6210,-1.3317,-1.4282,0.3973,-1.5058,0.6661,-2.2667,-8.7644,-1.5178,-1.9115,0.2688,0.5858,0.7156,2.0126,3.6975,2.3776,-8.7028,-3.5997
1214.8438,-6.6918,-11.5089,-3.2950,-2.8633,-0.9042,-2.4220,-1.3673,-2.9988,-11.4353,-3.7181,-4.4501,-0.8167,-0.3327,0.3215,-1.2728,0.7058,1.4508,-9.9302,-4.5067
1218.7500,-9.6219,-14.0555,-7.7956,-5.0417,-2.2806,-4.2353,-5.2914,-4.2332,-14.3534,-7.3422,-7.5286,-3.6506,-2.5003,-0.7392,-4.4444,-3.4957,-0.2497,-12.1786,-6.4161
1222.6562,-12.5797,-16.3641,-13.2101,-7.2768,-3.4171,-6.5280,-9.5356,-5.5169,-16.4012,-11.3984,-9.7107,-7.1483,-5.2149,-2.4963,-6.3938,-7.8170,-2.2167,-14.7817,-8.6988
1226.5625,-14.7480,-17.5157,-17.3957,-8.8668,-4.1517,-8.6000,-12.4032,-6.4639,-16.7662,-14.6375,-9.9896,-9.8403,-7.5183,-4.6841,-6.6622,-10.9034,-3.7803,-16.8145,-10.6216
1230.4688,-15.6392,-17.0788,-18.8717,-9.5986,-4.6323,-9.8053,-12.9842,-7.0797,-15.3555,-16.0272,-8.3358,-10.7529,-8.7841,-6.9151,-5.5510,-11.6924,-4.5409,-17.6212,-11.8728
1234.3750,-15.2370,-15.3309,-17.6033,-9.8774,-5.2566,-9.8836,-11.6217,-7.7636,-12.8220,-15.1762,-5.6799,-9.9445,-9.0338,-8.8483,-3.8676,-9.9035,-4.6019,-17.1395,-12.7273
1238.2812,-13.9270,-13.0819,-14.9195,-10.4064,-6.4302,-9.0936,-9.6701,-9.0051,-10.2080,-12.5310,-3.3584,-8.3745,-8.8158,-10.2688,-2.4923,-6.2178,-4.4587,-15.8415,-13.7389
1242.1875,-12.3019,-11.2365,-12.6402,-11.6593,-8.3029,-8.0698,-8.6983,-11.0092,-8.4323,-9.2457,-2.3804,-7.2376,-8.7779,-11.0814,-2.0064,-2.0512,-4.6434,-14.3722,-15.2043
1246.0938,-10.9567,-10.3696,-11.9808,-13.5174,-10.6511,-7.4941,-9.6134,-13.5213,-7.9115,-6.7498,-2.9631,-7.2397,-9.2409,-11.2794,-2.5386,0.9835,-5.3737,-13.1592,-16.8159
1250.0000,-10.3449,-10.5508,-12.9207,-15.3181,-12.9713,-7.7819,-12.2127,-15.9627,-8.4945,-6.1708,-4.5792,-8.2852,-10.0341,-10.9359,-3.8478,1.6896,-6.4335,-12.2537,-17.7880
1253.9062,-10.6976,-11.4683,-14.3934,-16.2654,-14.7161,-8.9602,-15.4029,-17.7618,-9.6851,-7.8552,-6.4144,-9.7144,-10.6569,-10.2213,-5.5378,-0.2753,-7.3385,-11.4688,-17.3866
1257.8125,-11.9825,-12.7116,-15.1109,-15.9181,-15.5300,-10.7698,-17.9137,-18.6437,-10.9693,-11.2080,-7.8846,-10.8442,-10.6223,-9.3998,-7.2579,-4.2904,-7.6601,-10.6660,-15.4912
1261.7188,-13.8961,-14.0002,-14.4433,-14.4420,-15.3651,-12.8734,-19.0419,-18.7001,-12.0429,-14.9478,-8.8714,-11.3955,-9.7599,-8.7716,-8.7883,-9.0167,-7.2961,-9.9489,-12.7817
1265.6250,-15.9186,-15.2233,-12.7840,-12.4880,-14.4453,-14.9985,-18.9712,-18.2323,-12.8408,-17.6766,-9.5813,-11.5381,-8.3190,-8.5713,-10.0079,-12.8951,-6.5376,-9.6188,-10.4048
1269.5312,-17.4560,-16.3185,-11.2099,-10.8103,-13.1356,-16.9329,-18.5032,-17.5205,-13.4157,-18.5005,-10.2071,-11.6081,-6.8506,-8.8802,-10.8190,-14.7305,-5.9148,-9.9388,-9.3323
1273.4375,-18.0463,-17.1314,-10.7145,-9.8830,-11.8069,-18.4301,-18.4207,-16.6950,-13.7899,-17.3986,-10.6887,-11.7834,-5.9545,-9.6094,-11.1230,-14.1515,-5.9240,-10.8882,-9.8303
1277.3438,-17.5423,-17.3933,-11.5451,-9.7335,-10.7532,-19.1687,-18.9270,-15.7799,-13.8880,-15.1572,-10.7508,-11.9805,-6.0139,-10.5653,-10.8814,-11.7598,-6.7793,-12.0860,-11.3626
1281.2500,-16.1705,-16.8469,-13.0554,-10.0454,-10.1663,-18.8604,-19.5286,-14.8330,-13.5714,-12.9141,-10.1569,-12.0134,-7.0233,-11.5526,-10.2129,-8.8673,-8.3030,-12.9324,-12.9513
1285.1562,-14.4176,-15.4251,-14.1274,-10.4122,-10.1341,-17.4592,-19.4193,-14.0383,-12.7307,-11.5671,-8.9529,-11.8274,-8.5707,-12.4476,-9.4296,-6.8955,-9.9970,-12.8746,-13.7313
1289.0625,-12.8011,-13.3522,-13.8632,-10.5682,-10.6385,-15.3124,-18.0872,-13.6588,-11.3718,-11.3640,-7.5018,-11.5844,-9.9971,-13.2104,-8.9501,-6.7002,-11.2656,-11.6531,-13.3583
1292.9688,-11.6572,-11.1000,-12.1235,-10.4860,-11.5547,-13.1043,-15.7350,-13.8814,-9.6656,-11.8825,-6.2946,-11.5319,-10.6955,-13.8544,-9.1198,-8.1783,-11.7060,-9.4238,-12.0838
1296.8750,-11.0671,-9.2346,-9.6318,-10.3411,-12.6777,-11.5832,-13.2465,-14.6778,-7.9579,-12.3757,-5.7004,-11.7977,-10.4374,-14.4254,-10.0532,-10.4099,-11.3408,-6.7420,-10.5520
1300.7812,-10.9549,-8.2520,-7.6350,-10.4149,-13.7871,-11.2228,-11.7382,-15.7940,-6.7334,-12.2570,-5.8501,-12.3091,-9.5636,-15.0149,-11.6127,-12.2913,-10.6700,-4.4353,-9.5082
1304.6875,-11.2667,-8.4749,-7.3316,-10.9994,-14.7290,-12.0305,-11.9884,-16.8842,-6.5133,-11.4386,-6.7101,-12.9160,-8.8963,-15.7823,-13.5426,-13.2927,-10.4793,-3.3903,-9.5787
1308.5938,-12.0870,-10.0097,-9.3453,-12.3143,-15.4661,-13.6169,-14.0798,-17.6926,-7.6730,-10.3505,-8.2315,-13.5931,-9.3588,-16.9239,-15.6537,-13.8416,-11.4593,-4.2680,-11.1425
1312.5000,-13.5951,-12.7160,-13.4482,-14.4178,-16.0562,-15.4640,-17.4172,-18.1553,-10.2232,-9.6676,-10.3952,-14.5076,-11.4637,-18.5577,-17.9032,-15.0276,-13.8103,-7.1981,-14.2307
1316.4062,-15.8848,-16.1682,-18.6104,-17.1180,-16.5671,-17.1998,-21.0405,-18.3603,-13.6663,-9.9345,-13.0861,-15.8507,-14.9508,-20.5725,-20.2858,-17.7603,-17.0566,-11.5765,-18.4253
1320.3125,-18.7794,-19.6568,-23.3418,-19.9396,-16.9862,-18.7022,-24.0116,-18.4142,-17.0605,-11.3069,-15.9124,-17.5503,-18.8089,-22.5527,-22.6161,-21.9138,-20.2057,-16.1267,-22.8356
1324.2188,-21.7916,-22.3146,-26.2146,-22.2152,-17.2004,-19.9966,-25.6850,-18.3362,-19.3353,-13.5245,-18.1805,-19.1257,-21.7181,-23.8847,-24.3991,-26.0716,-22.2074,-19.3039,-26.2793
1328.1250,-24.2839,-23.3985,-26.3930,-23.3168,-17.0793,-21.0693,-25.8141,-18.0718,-19.7555,-16.0813,-19.1486,-19.8665,-22.6957,-24.0450,-24.9614,-28.1476,-22.4761,-19.9350,-27.6974
1332.0312,-25.7523,-22.6298,-23.9717,-22.9442,-16.6186,-21.7707,-24.5554,-17.6135,-18.3008,-18.4614,-18.4534,-19.2719,-21.5935,-22.9304,-23.8344,-26.5901,-21.1864,-17.7986,-26.6494
1335.9375,-26.0625,-20.4026,-19.9578,-21.3133,-16.0387,-21.8964,-22.4338,-17.1192,-15.7305,-20.3112,-16.4308,-17.4556,-19.1640,-21.0238,-21.1675,-21.4507,-19.1691,-13.8121,-23.6027
1339.8438,-25.4956,-17.6899,-15.8651,-19.1125,-15.7436,-21.3809,-20.2502,-16.9042,-13.2591,-21.4958,-14.0654,-15.1993,-16.6608,-19.2464,-17.8655,-14.6173,-17.4639,-9.6649,-19.7919
1343.7500,-24.5759,-15.6385,-13.0734,-17.2125,-16.1245,-20.4407,-18.8630,-17.2720,-11.9925,-22.0672,-12.5358,-13.5650,-15.1972,-18.5271,-15.2776,-8.9881,-16.7880,-7.0448,-16.6643
1347.6562,-23.7909,-15.0420,-12.2513,-16.2661,-17.3103,-19.5328,-18.8418,-18.2826,-12.4268,-22.1991,-12.6037,-13.2881,-15.2193,-19.3085,-14.5535,-7.0117,-17.2186,-6.8564,-15.1915
1351.5625,-23.3691,-15.9824,-13.1301,-16.4127,-19.0251,-19.1310,-20.1336,-19.6299,-14.2799,-22.1201,-14.2211,-14.3421,-16.3610,-21.2801,-16.0236,-9.4192,-18.2489,-8.8521,-15.4350
1355.4688,-23.2358,-17.8458,-14.7434,-17.2564,-20.6759,-19.4572,-21.9761,-20.7512,-16.7329,-22.0392,-16.6038,-15.9646,-17.7232,-23.5183,-18.9876,-14.8685,-19.1489,-11.8654,-16.6125
1359.3750,-23.1420,-19.6977,-15.9877,-18.1330,-21.6566,-20.3437,-23.2101,-21.1384,-18.9091,-22.0592,-18.7147,-17.1263,-18.3912,-24.9794,-22.0626,-20.6832,-19.3925,-14.4885,-17.6102
1363.2812,-22.8581,-20.7850,-16.1871,-18.5074,-21.7046,-21.3171,-22.8974,-20.6709,-20.2944,-22.1013,-19.8355,-17.1352,-17.9032,-25.0706,-23.8962,-24.2312,-18.9031,-15.7900,-17.6257
1367.1875,-22.3016,-20.8666,-15.3577,-18.2695,-21.0851,-21.8523,-20.9051,-19.7429,-20.8660,-21.8964,-19.8660,-15.9957,-16.4415,-23.9647,-23.8240,-24.1610,-18.0029,-15.6821,-16.5697
1371.0938,-21.5314,-20.2005,-14.0637,-17.7561,-20.4637,-21.6417,-18.0622,-19.0717,-20.9027,-21.0868,-19.1956,-14.3228,-14.6867,-22.4691,-22.0934,-20.8575,-17.1412,-14.7818,-15.0223
1375.0000,-20.6446,-19.2471,-13.0018,-17.4941,-20.5128,-20.7250,-15.7274,-19.2748,-20.6589,-19.4191,-18.2946,-12.9139,-13.4419,-21.5284,-19.5647,-15.9844,-16.5924,-13.9223,-13.8222
1378.9062,-19.6747,-18.3210,-12.5907,-17.8314,-21.4790,-19.4227,-14.9886,-20.4671,-20.1477,-16.9337,-17.3496,-12.2807,-13.2284,-21.6590,-17.1319,-11.4942,-16.3085,-13.6468,-13.5634
1382.8125,-18.5736,-17.4274,-12.8005,-18.6876,-22.9825,-18.1353,-15.9915,-22.1359,-19.1759,-14.0352,-16.2058,-12.4291,-14.0461,-22.6566,-15.2609,-8.7167,-15.9957,-13.9735,-14.2960
1386.7188,-17.2897,-16.3670,-13.2753,-19.5788,-24.1916,-17.1406,-17.8479,-23.3904,-17.5796,-11.3743,-14.6302,-12.9749,-15.4008,-23.7396,-13.9171,-7.9750,-15.3476,-14.5120,-15.5655
1390.6250,-15.8782,-14.9980,-13.6217,-19.8986,-24.2828,-16.5024,-19.2057,-23.4462,-15.4686,-9.5840,-12.6663,-13.4608,-16.5714,-24.0266,-12.8645,-8.7951,-14.2794,-14.7956,-16.7213
1394.5312,-14.5536,-13.4489,-13.6574,-19.2789,-22.9096,-16.1207,-19.1170,-22.0542,-13.2937,-9.0014,-10.7878,-13.6415,-16.9747,-23.0446,-12.0556,-10.4260,-13.0155,-14.5915,-17.2829
1398.4375,-13.6359,-12.1268,-13.4781,-17.8048,-20.3905,-15.8695,-17.6255,-19.6152,-11.6799,-9.5283,-9.7108,-13.5701,-16.4375,-20.9603,-11.7938,-12.2827,-11.9695,-14.0175,-17.1544
1402.3438,-13.4119,-11.5199,-13.3371,-15.9533,-17.4953,-15.7170,-15.6784,-16.9203,-11.1314,-10.7052,-9.9763,-13.4784,-15.2272,-18.4153,-12.5394,-14.0766,-11.4757,-13.4345,-16.5864
1406.2500,-13.9856,-11.9274,-13.4466,-14.2962,-14.9683,-15.7509,-14.4315,-14.6913,-11.7888,-11.9534,-11.5788,-13.5659,-13.8258,-16.0946,-14.5029,-15.6598,-11.5286,-13.2147,-15.9356
1410.1562,-15.2009,-13.2807,-13.8294,-13.1559,-13.0916,-16.0928,-14.4372,-13.2082,-13.3680,-12.8444,-13.8888,-13.8385,-12.5844,-14.3142,-17.3279,-16.7999,-11.6968,-13.5264,-15.3784
1414.0625,-16.6730,-15.1433,-14.2966,-12.4250,-11.5653,-16.7584,-15.2772,-12.2410,-15.2903,-13.2466,-15.9248,-14.0740,-11.4801,-12.8839,-20.1067,-17.1060,-11.3005,-14.2334,-14.7527
1417.9688,-17.9115,-16.8670,-14.5397,-11.6544,-9.7739,-17.5571,-15.8831,-11.2924,-16.9032,-13.2846,-16.8083,-13.9120,-10.1458,-11.3107,-21.7441,-16.1816,-9.7890,-14.9396,-13.6314
1421.8750,-18.4778,-17.8116,-14.2700,-10.3519,-7.2593,-18.1054,-15.2966,-9.9657,-17.6735,-13.1595,-16.1459,-13.0158,-8.1696,-9.1950,-21.4590,-13.9016,-7.1185,-15.1469,-11.6021
1425.7812,-18.1144,-17.5419,-13.3340,-8.3048,-4.0960,-17.9661,-13.3248,-8.2178,-17.2955,-12.9603,-14.1467,-11.2460,-5.4747,-6.5625,-19.1357,-10.6135,-3.8955,-14.4694,-8.6021
1429.6875,-16.8078,-15.9552,-11.7675,-5.7433,-0.9325,-16.8533,-10.6426,-6.3607,-15.7283,-12.5875,-11.4588,-8.7874,-2.5153,-3.9309,-15.3471,-7.1080,-1.1592,-12.8274,-5.1090
1433.5938,-14.7807,-13.3298,-9.7875,-3.2599,1.3151,-14.7988,-8.3090,-4.8570,-13.2076,-11.8250,-8.8581,-6.1707,-0.1328,-2.0834,-11.0743,-4.3407,0.1134,-10.5443,-2.0427
1437.5000,-12.4256,-10.2811,-7.7381,-1.5454,1.9239,-12.1884,-7.0830,-4.0710,-10.2406,-10.4986,-6.9615,-4.1446,0.8623,-1.6875,-7.3047,-3.0310,-0.4861,-8.2828,-0.3912
1441.4062,-10.2034,-7.6083,-6.0116,-1.0862,0.7112,-9.6395,-7.0297,-4.1270,-7.5392,-8.6036,-6.0745,-3.4026,0.1292,-2.9668,-4.7104,-3.3410,-2.5781,-6.8100,-0.7349
1445.3125,-8.5237,-6.0359,-4.9496,-1.9627,-1.8984,-7.7671,-7.6490,-4.9097,-5.8416,-6.3180,-6.1758,-4.2556,-2.0132,-5.5746,-3.5124,-4.7933,-5.1951,-6.6639,-2.9247
1449.2188,-7.6268,-5.9206,-4.7366,-3.8120,-5.0657,-6.9393,-8.3430,-6.1329,-5.6329,-3.9025,-6.9773,-6.4058,-4.7471,-8.6965,-3.5120,-6.4723,-7.2815,-7.8633,-6.0952
1453.1250,-7.4960,-7.0519,-5.3029,-5.9342,-7.8325,-7.1248,-8.7971,-7.3849,-6.8744,-1.5730,-8.0066,-8.9701,-7.1400,-11.2976,-4.2122,-7.4101,-8.1808,-9.8162,-9.0125
1457.0312,-7.8376,-8.6780,-6.2810,-7.4845,-9.3539,-7.8933,-8.9708,-8.1343,-8.9021,0.5572,-8.7010,-10.7892,-8.4972,-12.4034,-4.9654,-6.9774,-7.8218,-11.5023,-10.5699
1460.9375,-8.1610,-9.7939,-7.0606,-7.6981,-9.0140,-8.5662,-8.7642,-7.7700,-10.6108,2.4254,-8.5351,-10.9050,-8.4947,-11.3361,-5.1392,-5.1036,-6.5316,-11.8717,-10.1740
1464.8438,-7.9577,-9.5858,-6.9683,-6.1152,-6.4838,-8.4681,-7.7361,-5.7588,-10.8961,3.9180,-7.1887,-8.9799,-7.0985,-7.8827,-4.2999,-2.2490,-4.6621,-10.2915,-7.8620
1468.7500,-6.9255,-7.8197,-5.5382,-2.7634,-1.8097,-7.1927,-5.2339,-1.9136,-9.1676,4.8287,-4.7070,-5.4494,-4.4371,-2.3922,-2.3816,0.8276,-2.3352,-6.8328,-4.1626
1472.6562,-5.1335,-4.9688,-2.7707,1.7640,4.4564,-4.7933,-0.9465,3.3609,-5.6762,4.9534,-1.5662,-1.3375,-0.7913,4.2161,0.2476,3.3729,0.5031,-2.2718,0.1430
1476.5625,-3.0232,-2.0029,0.7578,6.4045,11.1896,-1.8150,4.5135,9.0244,-1.4632,4.2882,1.4326,2.1615,3.2893,10.5758,2.8982,4.8749,3.7831,2.1921,4.2057
1480.4688,-1.2072,0.0589,4.0322,9.9133,16.8293,0.8701,9.5216,13.6557,2.0722,3.1927,3.4452,4.1280,6.9076,15.1583,4.8493,5.1533,7.0363,5.3688,7.1972
1484.3750,-0.1418,0.6018,5.9658,11.2643,19.7812,2.3952,12.0768,15.9313,3.7873,2.3634,3.9408,4.1995,8.9715,16.6831,5.6922,4.3232,9.4104,6.4820,8.3829
1488.2812,0.1493,-0.3465,5.8484,10.0098,18.9765,2.2777,10.8715,15.1082,3.2915,2.5632,2.9696,2.6138,8.6128,14.5422,5.5401,2.6981,10.0294,5.4016,7.2819
1492.1875,0.1170,-2.1929,3.6569,6.4375,14.3451,0.6721,6.1319,11.2845,1.0810,4.2198,1.1872,0.0611,5.6785,9.0721,4.9683,0.7027,8.4919,2.6462,3.9108
1496.0938,0.4278,-4.1005,0.0666,1.4576,6.9550,-1.6505,-0.3534,5.3338,-1.7389,7.1264,-0.4090,-2.5515,0.9796,1.5384,4.6983,-1.1893,5.1873,-0.8124,-1.0297
1500.0000,1.5276,-5.3665,-3.8413,-3.7140,-1.2883,-3.6193,-6.1032,-1.4143,-3.9796,10.4536,-0.9282,-4.3347,-3.9166,-6.2027,5.2029,-2.5101,1.2148,-3.8591,-6.2118
1503.9062,3.2968,-5.6704,-7.0136,-7.9242,-8.2763,-4.3396,-9.2061,-7.5693,-4.8668,13.1152,-0.0002,-4.6154,-7.2958,-12.2696,6.4683,-2.8730,-2.0544,-5.5611,-10.0604
1507.8125,5.0505,-5.0951,-8.7687,-10.3541,-12.4015,-3.4821,-9.2096,-11.9966,-4.2727,14.3118,2.0669,-3.0935,-8.0030,-15.3454,8.0594,-2.0569,-3.5272,-5.4231,-11.3321
1511.7188,5.9398,-3.9612,-8.9035,-10.6365,-13.0413,-1.3758,-7.1162,-14.0003,-2.6140,13.9458,4.4819,0.0643,-5.8811,-15.0723,9.4434,-0.0657,-2.7688,-3.5082,-9.6191
1515.6250,5.5377,-2.5954,-7.5756,-8.8545,-10.6469,1.2396,-4.5527,-13.4056,-0.5292,12.6620,6.4180,4.2347,-1.7391,-12.0967,10.3593,2.8718,-0.0733,-0.3895,-5.5128
1519.5312,4.2314,-1.1671,-5.1092,-5.4839,-6.4428,3.6414,-2.7010,-10.5769,1.4533,11.4821,7.4614,8.4910,3.0797,-7.7456,10.9887,6.3602,3.7325,3.0578,-0.3365
1523.4375,3.1173,0.3386,-1.8739,-1.2986,-1.8928,5.4697,-1.6804,-6.3506,3.0878,11.2459,7.7993,11.8819,7.2674,-3.4692,11.8127,9.9158,7.6073,5.9630,4.4158
1527.3438,3.3999,2.0303,1.7277,2.7949,1.8456,6.7952,-0.7118,-1.8255,4.3831,12.1862,8.0408,13.7500,9.9894,-0.2758,13.2484,13.0363,10.6106,7.7616,7.6617
1531.2500,5.6358,3.9777,5.2481,6.0190,4.2831,7.9122,1.1460,1.9949,5.4628,13.8787,8.7937,13.9627,11.0557,1.6022,15.3083,15.2627,12.1620,8.3812,9.0804
1535.1562,9.3089,6.1259,8.2693,8.0204,5.6663,9.0393,4.2526,4.5905,6.4416,15.5687,10.2729,12.9583,10.8519,2.6750,17.5149,16.2706,12.2184,8.2347,9.1207
1539.0625,13.0466,8.2993,10.5706,9.0478,6.7508,10.1577,8.1279,6.1369,7.3928,16.6504,12.1927,11.5816,10.1328,3.8250,19.1361,16.0022,11.3166,8.0233,8.7213
1542.9688,15.3860,10.2812,12.2678,9.8582,8.3821,11.0868,11.7876,7.3792,8.3855,16.9955,13.9992,10.7753,9.7603,5.7884,19.5973,14.7881,10.4035,8.4317,8.8935
1546.8750,15.6261,11.9132,13.7685,11.3333,11.0622,11.7057,14.3654,9.1864,9.5118,16.9437,15.2635,11.2424,10.4279,8.7554,18.8095,13.3452,10.4463,9.8438,10.3270
1550.7812,14.2286,13.1556,15.5090,13.9810,14.6931,12.1172,15.5764,12.0190,10.8523,16.9981,15.9527,13.1984,12.4197,12.2926,17.2105,12.5629,11.9629,12.2009,13.1447
1554.6875,12.5072,14.0802,17.6260,17.6149,18.6228,12.6057,15.7517,15.6316,12.3999,17.4478,16.3920,16.2960,15.4894,15.6196,15.5031,13.1084,14.7286,15.0582,16.8779
1558.5938,11.8066,14.8146,19.8098,21.4315,21.9808,13.4174,15.5149,19.2059,14.0171,18.1720,16.9651,19.7515,18.9527,18.0730,14.2671,15.0357,17.8750,17.8050,20.6739
1562.5000,12.7029,15.4782,21.4882,24.4646,24.1321,14.5431,15.3898,21.8410,15.4879,18.7375,17.7938,22.6348,21.9959,19.4823,13.6874,17.6481,20.3720,19.9392,23.6667
1566.4062,14.7296,16.1486,22.2399,26.1427,24.9987,15.6892,15.6041,23.0890,16.6410,18.7048,18.6460,24.2260,24.0599,20.2310,13.5451,19.7635,21.6159,21.2612,25.3528
1570.3125,16.7732,16.8616,22.1375,26.5833,25.0547,16.4760,16.1430,23.1871,17.4524,17.9307,19.1384,24.2934,25.0712,20.9625,13.4385,20.2942,21.7403,21.8932,25.7805
1574.2188,17.8382,17.6209,21.7355,26.4248,24.9831,16.7187,16.9037,22.8349,18.0328,16.6752,19.0627,23.1603,25.3591,22.1111,13.0566,18.8350,21.4264,22.1212,25.4294
1578.1250,17.6592,18.3901,21.6661,26.3036,25.1963,16.5729,17.7721,22.6731,18.4927,15.4587,18.5646,21.5061,25.3024,23.5513,12.3285,15.9058,21.3363,22.1533,24.8357
1582.0312,16.7770,19.0671,22.1227,26.3389,25.5241,16.4235,18.5725,22.8197,18.7860,14.7728,18.0210,19.9865,24.9597,24.5972,11.3841,12.6799,21.5705,21.9388,24.1908
1585.9375,16.0831,19.4702,22.6258,25.9952,25.2826,16.5923,18.9984,22.7794,18.6668,14.8204,17.7043,18.8730,23.9686,24.3721,10.4077,10.3465,21.5518,21.1663,23.1920
1589.8438,16.1827,19.3728,22.2942,24.4401,23.7093,17.0788,18.6689,21.7884,17.8230,15.4185,17.5036,17.9246,21.8216,22.3390,9.5203,9.4891,20.4352,19.4577,21.2780
1593.7500,17.0064,18.5942,20.4672,21.1728,20.5020,17.5259,17.3326,19.3611,16.1092,16.0856,16.9400,16.5855,18.3389,18.6744,8.7662,9.8484,17.7573,16.6557,18.1137
1597.6562,17.8815,17.0997,17.2435,16.5019,16.1212,17.4362,15.0841,15.6749,13.7067,16.2378,15.4874,14.3993,13.9854,14.2562,8.1653,10.5872,13.8530,13.0313,13.9924
1601.5625,17.9473,15.0457,13.5267,11.5355,11.6468,16.4826,12.4045,11.5454,11.0750,15.3887,12.9699,11.3806,9.7615,10.2629,7.7276,10.8433,9.7288,9.2699,9.8446
1605.4688,16.6035,12.7257,10.5116,7.6674,8.2560,14.6987,9.9484,8.0133,8.7054,13.2873,9.7383,8.0946,6.6955,7.6124,7.3791,10.1909,6.4764,6.2176,6.7975
1609.3750,13.7327,10.4425,8.9534,5.8653,6.6264,12.4354,8.1979,5.8138,6.8489,9.9802,6.4944,5.3769,5.2638,6.5579,6.8589,8.7308,4.6417,4.5136,5.5510
1613.2812,9.6533,8.3890,8.7313,6.1920,6.6164,10.1430,7.2206,5.0522,5.4256,5.8133,3.8981,3.8643,5.1371,6.6563,5.7277,6.8216,3.9911,4.3145,5.9794
1617.1875,4.9420,6.6185,9.0142,7.8336,7.4000,8.1492,6.7060,5.2558,4.1936,1.3703,2.2506,3.6410,5.4372,7.1011,3.5736,4.7167,3.8091,5.2653,7.2354
1621.0938,0.2808,5.1194,8.8960,9.5841,7.9560,6.5736,6.2502,5.7267,3.0518,-2.6659,1.4648,4.2286,5.3279,7.2002,0.3412,2.4151,3.4758,6.7261,8.2859
1625.0000,-3.6426,3.9233,8.0323,10.4716,7.6104,5.3874,5.6699,5.9466,2.2228,-5.7283,1.2932,4.9151,4.5332,6.7143,-3.4390,-0.1782,2.8771,8.1054,8.5151
1628.9062,-6.2639,3.1398,6.8142,10.1640,6.3252,4.5132,5.0998,5.7921,2.1314,-7.5961,1.5725,5.1857,3.4299,5.8814,-6.7422,-2.9505,2.3615,9.0931,7.9924
1632.8125,-7.3622,2.8609,5.9694,8.9659,4.6078,3.8532,4.7960,5.4695,3.0238,-8.5267,2.2566,4.9612,2.6766,5.1566,-8.5056,-5.4351,2.3162,9.6615,7.2520
1636.7188,-7.2858,2.9914,5.9085,7.4886,3.1521,3.2313,4.7985,5.2665,4.5986,-9.1845,3.2168,4.4983,2.6691,4.8648,-8.2288,-6.9862,2.7304,9.8709,6.7866
1640.6250,-6.9747,3.1434,6.3187,6.2408,2.4541,2.3406,4.7313,5.3074,5.9616,-10.3496,4.0327,4.0637,3.2258,4.9946,-6.3511,-7.1721,3.1092,9.6517,6.6446
1644.5312,-7.6286,2.7187,6.3111,5.3842,2.6150,0.8057,3.9303,5.4616,6.0196,-12.5255,4.0341,3.6501,3.7206,5.2463,-4.1257,-6.0883,2.8133,8.7476,6.4219
1648.4375,-10.1001,1.1820,5.0107,4.7409,3.3880,-1.6302,1.8503,5.4277,4.1088,-15.6470,2.6587,2.9603,3.5446,5.2727,-3.0068,-4.3392,1.5594,6.8800,5.6192
1652.3438,-14.3450,-1.6186,2.1566,3.9796,4.3718,-4.9025,-1.5188,4.9101,0.4574,-19.0648,-0.1083,1.6652,2.5457,4.9290,-3.8819,-2.6915,-0.3103,4.0203,4.0667
1656.2500,-19.3087,-5.2909,-1.7149,2.8287,5.1994,-8.5665,-5.5259,3.7660,-3.8533,-21.8357,-3.5706,-0.2737,1.1245,4.3621,-6.6005,-1.6613,-2.0076,0.5650,2.0800
1660.1562,-23.3988,-9.0251,-5.6052,1.2018,5.6259,-11.9570,-9.1435,2.0545,-7.4412,-23.1676,-6.6309,-2.4794,-0.0662,3.8866,-10.0797,-1.3454,-2.8036,-2.7398,0.2401
1664.0625,-25.3100,-11.9551,-8.6370,-0.7888,5.5199,-14.4899,-11.5053,-0.0113,-9.3568,-22.7759,-8.4141,-4.3385,-0.5822,3.7446,-12.9135,-1.5982,-2.4969,-5.1082,-1.0158
1667.9688,-24.7122,-13.5517,-10.4663,-2.8955,4.8263,-15.9211,-12.3648,-2.1605,-9.5368,-20.9557,-8.7759,-5.3621,-0.4742,3.9170,-14.1076,-2.3631,-1.5202,-6.0836,-1.6680
1671.8750,-22.3751,-13.8223,-11.2795,-4.8337,3.5501,-16.4074,-12.1906,-4.1614,-8.7043,-18.3572,-8.3234,-5.4709,-0.2144,4.1082,-13.5125,-3.8286,-0.6320,-5.7495,-2.0609
1675.7812,-19.6644,-13.2212,-11.4746,-6.3935,1.7587,-16.3495,-11.8504,-5.8950,-7.8257,-15.6327,-7.9270,-5.0186,-0.3555,3.9048,-11.7485,-6.2330,-0.4418,-4.6731,-2.6012
1679.6875,-17.7550,-12.3668,-11.3485,-7.5501,-0.4350,-16.1473,-12.1013,-7.3976,-7.5258,-13.1898,-8.0952,-4.5685,-1.1985,2.9903,-9.7542,-9.4657,-1.1136,-3.6442,-3.4830
1683.5938,-17.0739,-11.7685,-11.0580,-8.5315,-2.9281,-16.0406,-13.2135,-8.8600,-7.8655,-11.1924,-8.6980,-4.6135,-2.7091,1.2760,-8.3015,-12.8402,-2.4333,-3.3812,-4.6723
1687.5000,-17.2988,-11.7249,-10.8382,-9.7815,-5.6898,-16.1201,-14.9454,-10.5667,-8.5890,-9.7563,-9.2539,-5.4331,-4.7042,-1.1248,-7.7729,-15.3315,-4.1350,-4.3566,-6.1421
1691.4062,-17.8279,-12.3940,-11.2085,-11.7857,-8.7683,-16.4499,-16.8362,-12.7730,-9.5837,-9.1406,-9.5362,-7.1310,-7.1103,-4.0309,-8.2516,-16.2105,-6.1943,-6.7672,-8.1161
1695.3125,-18.3221,-13.9020,-12.8803,-14.8124,-12.2162,-17.1575,-18.5765,-15.5622,-11.1380,-9.7405,-9.9735,-9.7288,-10.0479,-7.3150,-9.7308,-15.6398,-8.8391,-10.5662,-11.0497
1699.2188,-18.9100,-16.3384,-16.3318,-18.7041,-15.9722,-18.3880,-20.1864,-18.7577,-13.7562,-11.8487,-11.4551,-13.1575,-13.6523,-10.9140,-12.1966,-14.7344,-12.2608,-15.4608,-15.2913
1703.1250,-19.9440,-19.6170,-21.3300,-22.8669,-19.7900,-20.1513,-21.8960,-21.9605,-17.6601,-15.3486,-14.6298,-17.1238,-17.7729,-14.7233,-15.4957,-14.9305,-16.2576,-20.8795,-20.6541
1707.0312,-21.5595,-23.3319,-26.7939,-26.5059,-23.2845,-22.1995,-23.8517,-24.7155,-22.3875,-19.5891,-19.2281,-21.0029,-21.8197,-18.4703,-19.1411,-17.0203,-20.1078,-26.0069,-26.2535
1710.9375,-23.4329,-26.7897,-31.2019,-29.0028,-26.0848,-24.0733,-25.8975,-26.7277,-26.8630,-23.5868,-23.9927,-23.9559,-24.9367,-21.6914,-22.3103,-20.5182,-22.8224,-29.9889,-30.8137
1714.8438,-24.9670,-29.2827,-33.3621,-30.2165,-27.9988,-25.3304,-27.6134,-27.9978,-29.9725,-26.4793,-27.3787,-25.3157,-26.4397,-23.8681,-24.1650,-23.8566,-23.6572,-32.2802,-33.3111
1718.7500,-25.7704,-30.4735,-33.0798,-30.5203,-29.0780,-25.8216,-28.5921,-28.7848,-31.2733,-27.9569,-28.5916,-25.0362,-26.2459,-24.6617,-24.3530,-25.3524,-22.5734,-32.9495,-33.5563
1722.6562,-26.0460,-30.6350,-31.2861,-30.5421,-29.5393,-25.8187,-28.7461,-29.4091,-31.3289,-28.3891,-28.2137,-23.8694,-24.9919,-24.1076,-23.3460,-24.3240,-20.3456,-32.7132,-32.3193
1726.5625,-26.5462,-30.5497,-29.5209,-30.7721,-29.6064,-25.8820,-28.4071,-30.0221,-31.3856,-28.5493,-27.9041,-23.0601,-23.7323,-22.6432,-22.3110,-21.5932,-18.2240,-32.5998,-30.8981
1730.4688,-28.0707,-31.0898,-29.0867,-31.2959,-29.3919,-26.5288,-28.1300,-30.5048,-32.5708,-29.1085,-29.3025,-23.6733,-23.3861,-20.9435,-22.5008,-19.0061,-17.3269,-33.3999,-30.3976
1734.3750,-30.8397,-32.7240,-30.3889,-31.8277,-28.9093,-27.9085,-28.3332,-30.5817,-35.1427,-30.2247,-32.8598,-25.9602,-24.2712,-19.6553,-24.4897,-18.2833,-18.1004,-35.2271,-31.1769
1738.2812,-34.1939,-35.2572,-32.8432,-32.0113,-28.1955,-29.6951,-29.0304,-30.0827,-38.3036,-31.4936,-37.4177,-29.1911,-26.0077,-19.1715,-27.7378,-19.9711,-20.1435,-37.4806,-32.7949
1742.1875,-36.8689,-37.9611,-35.3427,-31.7612,-27.4266,-31.2725,-29.8449,-29.1679,-40.7029,-32.2759,-40.8605,-32.0881,-27.8273,-19.5502,-30.7958,-23.1904,-22.4791,-39.2392,-34.4322
1746.0938,-37.6968,-39.9865,-36.9298,-31.3784,-26.9000,-32.0911,-30.2915,-28.3289,-41.2765,-32.1584,-41.4218,-33.5791,-29.0593,-20.5793,-32.0706,-26.3059,-24.0995,-39.8210,-35.4497
1750.0000,-36.2857,-40.7726,-37.2263,-31.3287,-26.8554,-31.9640,-30.1160,-28.1198,-39.8408,-31.2135,-38.7616,-33.3614,-29.4637,-21.9093,-30.7105,-27.9958,-24.4677,-39.1210,-35.6863
1753.9062,-33.2335,-40.1959,-36.3984,-31.8221,-27.2403,-31.1155,-29.4476,-28.7642,-37.0522,-29.8701,-34.0891,-31.9009,-29.2119,-23.1624,-27.0737,-27.9583,-23.7019,-37.5008,-35.3220
1757.8125,-29.7371,-38.4174,-34.7816,-32.4999,-27.6021,-29.9639,-28.6635,-29.9015,-33.8089,-28.4916,-29.2753,-29.9034,-28.5743,-23.9859,-22.5008,-26.8037,-22.3740,-35.3400,-34.4760
1761.7188,-26.8588,-35.6172,-32.5154,-32.4945,-27.2331,-28.8036,-28.0858,-30.6809,-30.5696,-26.9776,-25.5961,-27.6845,-27.5842,-24.0822,-18.5401,-25.3144,-21.0832,-32.6226,-32.9056
1765.6250,-24.9256,-31.8692,-29.4857,-30.8872,-25.5334,-27.6149,-27.7506,-30.1993,-27.1072,-24.7081,-22.9884,-24.9335,-25.9509,-23.2647,-16.1050,-23.7129,-20.0893,-28.9162,-30.0847
1769.5312,-23.4363,-27.2690,-25.5976,-27.3083,-22.4001,-26.1344,-27.4247,-28.0450,-22.8686,-20.9236,-20.3110,-21.0623,-23.2984,-21.5444,-15.0667,-21.5317,-19.2260,-23.8010,-25.6368
1773.4375,-21.5101,-22.1830,-21.1252,-22.2877,-18.3959,-24.1308,-26.8387,-24.6068,-17.6467,-15.3295,-16.3818,-15.8731,-19.5542,-19.1838,-14.4937,-18.1740,-18.1166,-17.4412,-19.8055
1777.3438,-18.5567,-17.3571,-16.8096,-17.0913,-14.5578,-21.6767,-25.9335,-20.9242,-12.0267,-8.5353,-11.0226,-10.0141,-15.1829,-16.6420,-13.3401,-13.6850,-16.5133,-10.8370,-13.5874
1781.2500,-14.7254,-13.7021,-13.5597,-13.0934,-11.9139,-19.2048,-24.9019,-18.1326,-7.2289,-2.0028,-5.3608,-4.8338,-11.0606,-14.3943,-11.1292,-9.0746,-14.5085,-5.4882,-8.3679
1785.1562,-10.8546,-11.8321,-11.9233,-11.0395,-10.9591,-17.2858,-23.9807,-16.8198,-4.4204,2.5341,-1.1793,-1.6794,-8.0433,-12.7087,-8.2151,-5.8646,-12.4791,-2.6204,-5.2495
1789.0625,-7.9751,-11.6547,-11.6917,-10.6513,-11.3869,-16.2636,-23.1598,-16.6880,-3.9677,3.9016,0.2230,-1.1067,-6.5081,-11.5230,-5.5021,-5.1377,-10.8237,-2.4665,-4.4908
1792.9688,-6.7052,-12.3340,-11.9497,-10.8296,-12.2431,-16.0011,-22.0679,-16.7406,-5.1635,2.1205,-1.1268,-2.5524,-6.1841,-10.5227,-3.8463,-6.7699,-9.7088,-4.1026,-5.4184
1796.8750,-6.9204,-12.7172,-11.5952,-10.3455,-12.4330,-15.9265,-20.1722,-15.8940,-6.6408,-1.5165,-3.8924,-4.7041,-6.3945,-9.3920,-3.5369,-9.4246,-9.0212,-5.9861,-6.8742
1800.7812,-7.8876,-12.0007,-10.0272,-8.6033,-11.3117,-15.3753,-17.1879,-13.6455,-7.2101,-4.9966,-6.2693,-6.3179,-6.5444,-8.0830,-4.1691,-11.3518,-8.5542,-6.8696,-7.9101
1804.6875,-8.7500,-10.2207,-7.5660,-6.0076,-9.0314,-14.0191,-13.4079,-10.3915,-6.5707,-6.5083,-7.0757,-6.9301,-6.5139,-6.9116,-4.9503,-11.4609,-8.2607,-6.5044,-8.2884
1808.5938,-9.0391,-8.2481,-5.3161,-3.7103,-6.4500,-12.1007,-9.6875,-7.2023,-5.4403,-5.2815,-6.3882,-7.0013,-6.6814,-6.3904,-5.2118,-9.9429,-8.3418,-5.6835,-8.4814
1812.5000,-8.8954,-7.2740,-4.5288,-2.8968,-4.6480,-10.3168,-7.0459,-5.1966,-5.0454,-1.9370,-5.3600,-7.4436,-7.5635,-6.8843,-4.7974,-8.0399,-9.0707,-5.6192,-9.2004
1816.4062,-8.8847,-8.0987,-5.8396,-4.0544,-4.3189,-9.4089,-6.1178,-4.8968,-6.3301,1.8245,-5.4018,-8.9004,-9.3374,-8.3047,-4.1078,-7.1513,-10.4724,-7.0885,-10.7954
1820.3125,-9.5559,-10.6540,-8.8437,-6.6683,-5.3755,-9.7190,-6.8072,-5.9503,-9.3919,4.0414,-7.2843,-11.2901,-11.5997,-10.0556,-3.8060,-7.9056,-12.1266,-9.9167,-12.9357
1824.2188,-11.0346,-14.0312,-12.2745,-9.5232,-6.9901,-10.9801,-8.3651,-7.3668,-13.4600,3.4297,-10.7082,-13.8931,-13.5523,-11.2911,-4.3866,-9.8043,-13.2963,-13.1132,-14.7899
1828.1250,-12.9007,-16.9663,-14.6802,-11.4089,-8.0494,-12.4623,-9.8352,-8.1060,-17.3550,0.0067,-14.5350,-15.8610,-14.4961,-11.3468,-5.8644,-11.6159,-13.3443,-15.5247,-15.5748
1832.0312,-14.4032,-18.4659,-15.1990,-11.7927,-7.7643,-13.3649,-10.5664,-7.6549,-20.0827,-4.8849,-17.4499,-16.7438,-14.2895,-10.0870,-7.7410,-12.1834,-12.1616,-16.5347,-15.0997
1835.9375,-14.8554,-18.2109,-13.9735,-11.0532,-6.0875,-13.2050,-10.4636,-6.2585,-21.1900,-9.1523,-18.6079,-16.6667,-13.4390,-7.9565,-9.2359,-11.0719,-10.2833,-16.3433,-13.9276
1839.8438,-13.9628,-16.5523,-11.9746,-10.1539,-3.6990,-11.9790,-9.8422,-4.6986,-20.7396,-10.8557,-17.9021,-16.0770,-12.7411,-5.7041,-9.6375,-8.6669,-8.5684,-15.6785,-13.0290
1843.7500,-11.9079,-14.1755,-10.3549,-9.9768,-1.5708,-10.0419,-9.0299,-3.7816,-19.0298,-9.0291,-15.7891,-15.3039,-12.7099,-3.9462,-8.5929,-5.7581,-7.6357,-15.1827,-13.1336
1847.6562,-9.1884,-11.6889,-9.7341,-10.7342,-0.3712,-7.8302,-8.0260,-3.8560,-16.3288,-4.0574,-12.8802,-14.2821,-13.1753,-2.8350,-6.2188,-2.9888,-7.4387,-14.9191,-14.1898
1851.5625,-6.3483,-9.3771,-9.8425,-11.8120,-0.0663,-5.6314,-6.4734,-4.6339,-12.8071,2.5363,-9.6073,-12.6362,-13.3335,-2.0222,-3.0208,-0.5810,-7.2897,-14.3258,-15.2816
1855.4688,-3.7751,-7.2123,-9.7283,-12.1265,0.0370,-3.5299,-3.9691,-5.3949,-8.6618,8.7659,-6.1477,-10.0347,-12.2249,-0.9269,0.3136,1.5267,-6.3317,-12.6241,-15.0785
1859.3750,-1.6490,-5.0417,-8.3885,-10.7666,0.8295,-1.5099,-0.4961,-5.4256,-4.2658,13.0007,-2.5834,-6.5304,-9.3342,0.8696,3.1524,3.3315,-4.1391,-9.3856,-12.5683
1863.2812,-0.0039,-2.7881,-5.4326,-7.5345,2.8026,0.4108,3.3366,-4.4257,-0.1783,14.5647,0.8922,-2.6274,-4.9291,3.3469,5.1085,4.5578,-1.0305,-4.8795,-7.6504
1867.1875,1.2002,-0.5339,-1.3724,-3.0705,5.6883,2.1434,6.4460,-2.6467,3.0281,13.8835,3.9118,0.9742,0.0711,6.0467,6.1313,4.7999,2.1258,0.0107,-1.2512
1871.0938,2.0638,1.5341,2.6427,1.4992,8.5705,3.6079,7.7838,-0.6983,5.0176,12.1639,6.0821,3.7732,4.6001,8.3385,6.4859,3.9226,4.4784,4.2301,5.1043
1875.0000,2.7735,3.2559,5.4883,5.1717,10.4082,4.8457,6.9340,0.8515,5.8571,10.7931,7.2413,5.7364,8.0001,9.7757,6.6294,2.3964,5.7411,7.0723,10.0180
1878.9062,3.5911,4.6111,6.7279,7.5732,10.6548,6.0492,4.4622,1.8398,5.9936,10.7415,7.6388,7.2681,10.2895,10.3245,7.0210,1.2628,6.3533,8.4772,12.8417
1882.8125,4.7527,5.7463,6.8687,9.0744,9.5868,7.4589,1.7837,2.6162,6.0547,12.2185,7.8815,8.9108,12.0053,10.3337,7.9312,1.6704,7.1550,8.9622,13.8698
1886.7188,6.3188,6.9043,7.0456,10.4620,8.1360,9.1890,0.5657,3.8226,6.5765,14.6952,8.6403,10.9684,13.7493,10.2779,9.3276,4.2297,8.8085,9.2625,14.0301
1890.6250,8.0836,8.2863,8.3135,12.3752,7.3278,11.1029,1.9257,5.9657,7.7834,17.2419,10.2607,13.2734,15.7355,10.4423,10.8922,8.5836,11.3483,9.8997,14.2782
1894.5312,9.6399,9.9121,10.9703,14.8525,7.6746,12.8348,5.8233,9.0319,9.5045,19.0013,12.5078,15.2267,17.6113,10.7430,12.1688,13.4800,14.1320,10.9117,15.0501
1898.4375,10.5906,11.5504,14.3300,17.2591,8.8991,13.9540,10.9801,12.3821,11.2482,19.5724,14.6138,16.0800,18.6432,10.7911,12.7731,17.3353,16.1890,11.8651,16.0678
1902.3438,10.7851,12.7728,17.0932,18.6406,10.1493,14.1798,15.4164,15.0140,12.4044,19.1345,15.6357,15.3129,18.1401,10.1527,12.5588,18.9799,16.7215,12.1188,16.5753
1906.2500,10.4205,13.1339,18.0993,18.2882,10.5531,13.5235,17.3789,16.0633,12.5029,18.2710,14.9464,12.9141,15.8663,8.6421,11.6536,18.1664,15.4643,11.1895,15.8377
1910.1562,9.9348,12.4053,17.0015,16.1782,9.7554,12.2844,16.1996,15.2631,11.4295,17.5978,12.5906,9.4332,12.2188,6.4699,10.3514,15.5665,12.7467,9.0325,13.6022
1914.0625,9.7560,10.7385,14.4489,13.0209,8.1066,10.9125,12.6276,13.0950,9.5022,17.4078,9.2999,5.7737,8.0900,4.1625,8.9351,12.2887,9.2981,6.1060,10.2676
1917.9688,10.0737,8.6475,11.6663,9.8923,6.4074,9.8165,8.4300,10.5337,7.3518,17.5329,6.1509,2.8279,4.5010,2.3098,7.5450,9.2362,5.9604,3.1980,6.6906
1921.8750,10.7732,6.7906,9.7046,7.6723,5.4013,9.2135,5.4606,8.5325,5.6436,17.5054,4.0600,1.1299,2.1995,1.2980,6.1792,6.7047,3.4526,1.1074,3.7681
1925.7812,11.5551,5.6575,8.8432,6.6242,5.3512,9.0775,4.7036,7.5457,4.7743,16.9228,3.4014,0.7035,1.4155,1.1803,4.8216,4.4574,2.2371,0.3385,2.0422
1929.6875,12.1289,5.3416,8.5244,6.3541,5.9542,9.1970,5.8333,7.3645,4.7119,15.7809,3.9562,1.1823,1.8734,1.7421,3.5981,2.1902,2.4605,0.9512,1.5367
1933.5938,12.3363,5.5406,7.8470,6.1526,6.6143,9.2996,7.5336,7.3421,5.0798,14.5475,5.1886,2.1238,3.0267,2.6924,2.8333,0.0402,3.9409,2.6199,1.8802
1937.5000,12.1363,5.7909,6.2784,5.4867,6.8621,9.1825,8.3686,6.8491,5.4365,13.8966,6.6432,3.3223,4.3764,3.8437,2.9348,-1.2508,6.2138,4.8474,2.6049
1941.4062,11.5096,5.7874,4.1036,4.3379,6.6405,8.7887,7.6599,5.6668,5.5766,14.2500,8.1936,4.9183,5.7073,5.1704,4.1501,-0.6800,8.6695,7.2064,3.4330
1945.3125,10.4061,5.5838,2.3105,3.1968,6.2942,8.1956,5.8327,4.0886,5.6550,15.4138,9.9913,7.2335,7.1345,6.7332,6.3411,2.3595,10.7686,9.4881,4.4019
1949.2188,8.8066,5.5436,1.9893,2.7491,6.3079,7.5285,4.0407,2.6967,6.0541,16.5683,12.1859,10.4486,8.9617,8.5488,8.9361,7.5412,12.2533,11.7049,5.7948
1953.1250,6.8533,6.0810,3.6434,3.4723,6.9918,6.8540,3.3407,1.9844,7.0894,16.6625,14.6470,14.3577,11.4537,10.5122,11.1273,13.5814,13.2368,13.9819,7.9541
1957.0312,4.9138,7.3670,6.8565,5.3857,8.3112,6.1265,3.9722,2.0714,8.7611,15.0044,16.9143,18.3878,14.6585,12.4243,12.2336,18.8055,14.1111,16.4154,11.0900
1960.9375,3.4736,9.1931,10.5138,8.0723,9.9347,5.2304,5.2068,2.6725,10.7231,11.7023,18.4275,21.8855,18.3664,14.0894,12.0348,21.9848,15.3178,18.9687,15.1619
1964.8438,2.8843,11.0675,13.4138,10.9099,11.4237,4.1000,5.8468,3.3047,12.4823,7.6811,18.8766,24.4703,22.1993,15.3969,10.8810,22.9267,17.1142,21.4364,19.8429
1968.7500,3.1272,12.4624,14.8739,13.3419,12.4199,2.8320,5.0311,3.5795,13.6737,4.2466,18.4131,26.1938,25.7444,16.3201,9.4996,22.4424,19.4565,23.4707,24.5461
1972.6562,3.7729,13.0420,14.9728,15.0378,12.7276,1.7008,2.8228,3.4032,14.2105,2.4371,17.5542,27.3775,28.6364,16.8375,8.5989,21.7173,22.0358,24.6551,28.4990
1976.5625,4.1983,12.7392,14.3343,15.9010,12.2903,1.0394,0.2158,2.9945,14.2110,2.5205,16.8294,28.2391,30.5525,16.8453,8.4873,21.5055,24.3999,24.6163,30.8791
1980.4688,3.9402,11.6707,13.6462,15.9854,11.1256,1.0441,-1.4266,2.7417,13.7774,3.9025,16.4045,28.5882,31.1654,16.1363,8.9267,21.6778,26.0637,23.1537,31.0182
1984.3750,2.9553,9.9920,13.2343,15.4078,9.2899,1.6263,-1.1475,2.9973,12.8176,5.4671,15.9448,27.8375,30.1430,14.4714,9.2969,21.4047,26.5624,20.3403,28.6339
1988.2812,1.6108,7.8110,12.9237,14.3030,6.8877,2.4133,1.0623,3.9065,11.0631,6.1382,14.8186,25.3550,27.2467,11.7051,8.9664,19.8134,25.4900,16.5359,23.9881
1992.1875,0.4084,5.2110,12.2129,12.8110,4.1018,2.9119,4.2369,5.3336,8.2850,5.3551,12.5104,20.9333,22.4991,7.8974,7.6424,16.6422,22.5952,12.2761,17.8688
1996.0938,-0.3682,2.3331,10.6114,11.0701,1.2167,2.7422,6.9028,6.9084,4.5561,3.2434,8.9770,15.0500,16.3205,3.3666,5.4928,12.4374,17.9473,8.0761,11.3627
2000.0000,-0.8389,-0.5686,7.9472,9.2175,-1.3719,1.8080,7.7819,8.1896,0.3636,0.4482,4.7187,8.7326,9.5251,-1.3227,2.9781,8.1814,12.0844,4.2561,5.5038
2003.9062,-1.4176,-3.1522,4.5147,7.4143,-3.1534,0.3185,6.3941,8.8992,-3.5171,-2.2315,0.5332,3.1017,3.1392,-5.4182,0.5184,4.6472,5.9983,0.9019,0.9657
2007.8125,-2.4839,-5.0779,1.0273,5.8956,-3.5284,-1.3267,3.3071,9.1283,-6.3217,-4.2023,-2.8750,-1.1186,-1.8977,-8.0842,-1.7805,1.9547,0.8754,-2.0115,-2.0556
2011.7188,-4.0612,-6.1007,-1.6020,4.9873,-1.9160,-2.7041,-0.0622,9.3802,-7.5922,-5.2724,-5.1844,-3.8272,-5.0185,-8.5688,-4.1557,-0.3708,-2.3342,-4.4243,-3.7358
2015.6250,-5.7243,-6.1261,-2.6013,5.0181,2.0200,-3.4959,-2.0244,10.3555,-7.3161,-5.6352,-6.4866,-5.4088,-6.1749,-6.4383,-6.9473,-2.9095,-3.3048,-6.0901,-4.3966
2019.5312,-6.8068,-5.2312,-1.7076,6.1094,8.0760,-3.5572,-1.3691,12.5193,-5.8690,-5.6919,-7.0882,-6.3743,-5.7907,-1.8222,-10.2453,-5.8117,-2.4463,-6.6770,-4.3227
2023.4375,-6.7838,-3.6793,0.5886,7.9426,15.2966,-2.9497,2.0038,15.6571,-3.8395,-5.8202,-7.2554,-7.0462,-4.5574,4.4504,-13.6590,-8.6060,-0.6528,-6.0361,-3.7276
2027.3438,-5.5997,-1.9312,3.0878,9.6822,22.0364,-1.9679,6.8693,18.7084,-1.8518,-6.1966,-7.0850,-7.4787,-3.1750,10.9479,-16.3811,-10.4732,1.1776,-4.4523,-2.8462
2031.2500,-3.7507,-0.6098,4.2887,10.1914,26.3841,-1.1369,11.0468,20.0661,-0.4507,-6.7471,-6.5634,-7.6055,-2.1489,16.0022,-17.5366,-10.7675,2.5605,-2.6709,-2.0329
2035.1562,-2.0801,-0.3665,3.0375,8.5049,26.8330,-1.1184,12.2708,18.2715,-0.0394,-7.2382,-5.7286,-7.4459,-1.7099,18.2320,-16.6323,-9.4138,3.5232,-1.6253,-1.7441
2039.0625,-1.4045,-1.6520,-0.8930,4.3313,22.9006,-2.4891,9.1982,12.7707,-0.8225,-7.4593,-4.7839,-7.1839,-1.8591,17.0058,-13.8509,-6.9334,4.3337,-1.9933,-2.3827
2042.9688,-2.1635,-4.4840,-6.6356,-1.7122,15.3709,-5.4560,2.0608,4.3043,-2.7398,-7.3915,-4.0586,-7.0632,-2.4814,12.6312,-10.0163,-4.1374,5.0695,-3.8426,-4.0940
2046.8750,-4.2500,-8.3499,-12.6098,-8.3019,6.0064,-9.6577,-7.3961,-5.3178,-5.4336,-7.2617,-3.8363,-7.1999,-3.4445,6.1923,-6.2409,-1.7415,5.3606,-6.5830,-6.6497
2050.7812,-7.0733,-12.3373,-17.2655,-13.9574,-3.1376,-14.2044,-16.6804,-13.9598,-8.3071,-7.4326,-4.1730,-7.4724,-4.6254,-0.8688,-3.4418,-0.1541,4.5358,-9.2562,-9.4944
2054.6875,-9.8013,-15.4586,-19.7614,-17.6341,-10.4530,-17.9857,-23.6214,-20.0190,-10.6913,-8.1805,-4.8347,-7.5835,-5.8599,-7.2187,-1.9798,0.5010,2.1195,-10.9855,-11.9271
2058.5938,-11.6687,-17.0165,-20.1841,-19.0300,-15.2137,-20.1104,-27.1683,-22.9410,-12.0609,-9.4890,-5.4016,-7.2482,-6.8747,-11.9562,-1.5943,0.2651,-1.6479,-11.3285,-13.3142
2062.5000,-12.2354,-16.8237,-19.2171,-18.4769,-17.5508,-20.2428,-27.5277,-23.1619,-12.1999,-10.9939,-5.4789,-6.3726,-7.2878,-14.7186,-1.6400,-0.6974,-5.6619,-10.3626,-13.2456
2066.4062,-11.5136,-15.1803,-17.5342,-16.5541,-18.0816,-18.6553,-25.6651,-21.6000,-11.2359,-12.1306,-4.8924,-5.1011,-6.7302,-15.6201,-1.4695,-2.0243,-8.3690,-8.5187,-11.6067
2070.3125,-9.9286,-12.6537,-15.3630,-13.7241,-17.4753,-15.9888,-22.5770,-19.0706,-9.5431,-12.4070,-3.7643,-3.7179,-5.0537,-15.1199,-0.7512,-3.1011,-8.5700,-6.3225,-8.6011
2074.2188,-8.1303,-9.8131,-12.5077,-10.2246,-16.2053,-12.8935,-18.8277,-15.9779,-7.5790,-11.6443,-2.4439,-2.4848,-2.5070,-13.8812,0.4258,-3.2053,-6.1445,-4.2086,-4.7486
2078.1250,-6.7209,-7.0642,-8.7633,-6.2313,-14.5516,-9.7770,-14.5889,-12.3985,-5.7386,-10.0439,-1.3443,-1.5309,0.2571,-12.6173,1.6729,-1.8775,-2.2304,-2.4709,-0.8364
2082.0312,-6.0047,-4.6363,-4.3599,-2.0927,-12.7347,-6.7869,-10.0295,-8.3915,-4.2784,-8.0494,-0.7733,-0.8554,2.3986,-11.9087,2.5398,0.6787,1.3051,-1.2956,2.2296
2085.9375,-5.8737,-2.6636,-0.0670,1.5959,-11.0022,-3.9803,-5.6493,-4.2498,-3.3050,-6.1026,-0.8325,-0.4144,3.2484,-12.0179,2.7258,3.4781,2.8258,-0.7864,3.6849
2089.8438,-5.8921,-1.2582,3.1405,4.1675,-9.5834,-1.5039,-2.2321,-0.5070,-2.8013,-4.4525,-1.4118,-0.2098,2.6153,-12.7895,2.1661,5.1029,1.7637,-0.9458,3.1951
2093.7500,-5.5563,-0.5098,4.6087,5.1891,-8.5684,0.3679,-0.4204,2.2729,-2.6661,-3.1255,-2.2675,-0.3128,0.8610,-13.7198,0.9936,4.4105,-1.1593,-1.6543,1.0232
2097.6562,-4.6043,-0.4303,4.3439,4.6751,-7.8461,1.3674,-0.2348,3.7417,-2.7639,-2.0473,-3.1383,-0.8045,-1.3068,-14.1973,-0.5607,1.2179,-4.4307,-2.7035,-2.0502
2101.5625,-3.2084,-0.9054,2.9349,3.0604,-7.1792,1.4238,-0.9372,3.8727,-2.9785,-1.2022,-3.8499,-1.6820,-3.1988,-13.7993,-2.2542,-3.4609,-6.6334,-3.8849,-5.0431
2105.4688,-1.9258,-1.7033,1.1542,0.9672,-6.3755,0.7608,-1.3965,2.8910,-3.2508,-0.7001,-4.3611,-2.7928,-4.4414,-12.4822,-3.8723,-7.8199,-7.1597,-5.0631,-7.1722
2109.3750,-1.4107,-2.5375,-0.4456,-1.0628,-5.4232,-0.1767,-0.7538,1.1244,-3.5707,-0.6988,-4.7333,-3.8494,-5.0428,-10.5597,-5.2376,-10.1280,-6.3510,-6.1583,-8.1214
2113.2812,-2.0301,-3.1396,-1.6606,-2.7025,-4.4879,-0.9139,1.0450,-1.0949,-3.9163,-1.2392,-5.0382,-4.5281,-5.2276,-8.5011,-6.2175,-9.5980,-5.0637,-7.0432,-8.0465
2117.1875,-3.5998,-3.3092,-2.4635,-3.8070,-3.7732,-1.1324,3.2027,-3.4367,-4.1814,-2.1204,-5.2620,-4.6139,-5.1971,-6.6905,-6.7452,-6.7845,-4.0343,-7.4523,-7.3528
2121.0938,-5.4099,-2.9403,-2.7545,-4.3121,-3.3558,-0.7525,4.5476,-5.5470,-4.1639,-2.9194,-5.2726,-4.1229,-5.0047,-5.2960,-6.8375,-3.2941,-3.4978,-7.0242,-6.4137
2125.0000,-6.5596,-2.0521,-2.3015,-4.1931,-3.1199,0.0956,4.2318,-7.0781,-3.6573,-3.1735,-4.8902,-3.3307,-4.6209,-4.2964,-6.5842,-0.9716,-3.2716,-5.5043,-5.4138
2128.9062,-6.4388,-0.8293,-0.9445,-3.5225,-2.8335,1.1485,2.2215,-7.7954,-2.6150,-2.6355,-4.0315,-2.6739,-4.0953,-3.5954,-6.1084,-0.9946,-3.1440,-2.9909,-4.3816
2132.8125,-5.0973,0.3635,1.1121,-2.5451,-2.3032,2.0716,-0.7001,-7.6885,-1.2790,-1.4640,-2.8399,-2.5490,-3.6429,-3.1072,-5.5227,-3.3456,-3.1905,-0.0352,-3.3355
2136.7188,-3.2820,1.0474,3.1984,-1.6576,-1.4945,2.5009,-3.3853,-6.9912,-0.1587,-0.2303,-1.6992,-3.1038,-3.5496,-2.7570,-4.9145,-6.9062,-3.7377,2.5267,-2.3964
2140.6250,-2.0991,0.7949,4.4089,-1.2582,-0.5450,2.1078,-4.9363,-6.0788,0.1692,0.2907,-1.0929,-4.1377,-3.9522,-2.4391,-4.3661,-10.0859,-5.0094,3.9504,-1.7688
2144.5312,-2.4652,-0.5683,4.0497,-1.5513,0.3182,0.7167,-5.1295,-5.3099,-0.6544,-0.5329,-1.3673,-5.1800,-4.6728,-2.0180,-3.9784,-11.6272,-6.7679,3.9520,-1.6099
2148.4375,-4.6365,-2.8401,2.0091,-2.4503,0.8837,-1.5663,-4.4473,-4.9176,-2.5697,-2.8579,-2.5350,-5.7206,-5.2593,-1.4110,-3.8539,-11.1578,-8.2840,2.8322,-1.8965
2152.3438,-8.0722,-5.4982,-1.1905,-3.6538,1.0247,-4.3099,-3.7575,-5.0014,-5.1142,-6.2189,-4.2455,-5.4662,-5.2333,-0.6890,-4.0313,-9.2247,-8.7137,1.2728,-2.3974
2156.2500,-11.7074,-7.9348,-4.6839,-4.8383,0.7194,-6.8802,-3.8558,-5.5790,-7.6564,-9.6673,-5.9563,-4.4788,-4.3833,-0.0845,-4.4146,-6.8402,-7.6311,-0.0727,-2.7778
2160.1562,-14.4861,-9.7552,-7.6972,-5.8268,0.0506,-8.7111,-5.1207,-6.6113,-9.7098,-12.1676,-7.2152,-3.1235,-2.9007,0.1436,-4.7776,-4.8448,-5.3324,-0.9384,-2.7772
2164.0625,-15.8667,-10.9707,-9.8644,-6.6224,-0.8002,-9.5924,-7.4227,-7.9633,-11.1401,-13.0841,-7.8911,-1.8798,-1.2713,-0.0874,-4.8829,-3.4826,-2.6813,-1.5500,-2.3596
2167.9688,-16.0374,-11.9667,-11.2807,-7.3115,-1.5827,-9.8025,-10.2779,-9.3543,-12.1547,-12.5169,-8.2226,-1.1474,-0.0133,-0.5758,-4.6732,-2.4400,-0.6019,-2.4351,-1.7646
2171.8750,-15.7452,-13.2581,-12.3288,-7.9446,-2.0613,-9.9862,-13.1164,-10.3972,-13.1068,-11.2952,-8.6626,-1.1639,0.5478,-0.9377,-4.4100,-1.2997,0.4243,-4.0849,-1.4399
2175.7812,-15.8558,-15.1653,-13.4215,-8.5011,-2.1413,-10.8199,-15.5086,-10.7628,-14.2556,-10.5988,-9.6156,-2.0393,0.3333,-0.8781,-4.6324,-0.0765,0.5210,-6.6718,-1.8791
2179.6875,-16.8923,-17.5901,-14.7899,-8.9507,-1.9594,-12.6376,-17.2471,-10.3802,-15.6316,-11.3818,-11.2202,-3.8161,-0.5923,-0.4431,-5.9045,0.5661,0.1685,-9.9612,-3.4145
2183.5938,-18.7872,-20.0143,-16.3706,-9.3253,-1.8527,-15.2206,-18.2816,-9.5165,-17.0609,-13.8923,-13.2855,-6.4534,-2.1457,-0.0514,-8.4675,-0.3758,-0.2277,-13.4205,-6.0301
2187.5000,-20.9487,-21.7213,-17.8001,-9.7075,-2.1799,-17.8632,-18.5916,-8.6366,-18.2955,-17.5468,-15.3962,-9.7281,-4.2475,-0.2535,-12.0018,-3.5656,-0.6197,-16.4322,-9.2820
2191.4062,-22.5707,-22.1299,-18.5284,-10.1320,-3.0859,-19.6837,-18.1090,-8.1090,-19.1415,-21.2225,-17.1117,-13.1618,-6.7407,-1.3708,-15.6743,-8.7139,-1.2736,-18.5049,-12.3999
2195.3125,-23.0137,-21.0804,-18.0592,-10.4986,-4.3706,-20.0231,-16.7551,-7.9665,-19.5146,-23.8035,-18.1538,-16.1086,-9.3226,-3.2694,-18.4887,-14.4809,-2.4896,-19.4203,-14.5792
2199.2188,-22.0760,-18.9401,-16.2598,-10.6118,-5.5743,-18.7384,-14.5681,-7.9135,-19.4271,-24.6821,-18.5061,-18.0237,-11.6038,-5.4318,-19.7657,-19.0378,-4.3438,-19.2952,-15.3563
2203.1250,-20.0580,-16.4798,-13.5802,-10.3527,-6.2520,-16.2603,-11.8167,-7.6011,-18.9584,-23.9622,-18.4007,-18.7714,-13.2922,-7.2729,-19.4875,-21.0038,-6.6469,-18.5473,-14.8686
2207.0312,-17.6214,-14.5683,-10.9866,-9.8605,-6.2641,-13.3988,-8.9968,-6.9734,-18.2467,-22.3006,-18.2112,-18.7440,-14.3646,-8.4683,-18.3041,-20.1968,-9.1101,-17.7546,-13.8144
2210.9375,-15.5210,-13.8129,-9.5484,-9.5487,-5.8812,-10.9977,-6.6811,-6.4097,-17.4897,-20.5222,-18.2926,-18.6590,-15.0717,-9.0621,-17.1930,-17.7242,-11.5338,-17.4314,-13.0912
2214.8438,-14.3153,-14.3018,-9.8550,-9.8927,-5.6226,-9.5968,-5.3017,-6.5184,-16.9095,-19.2422,-18.8203,-19.1273,-15.7487,-9.3029,-16.9624,-15.3422,-13.8458,-17.8011,-13.3018
2218.7500,-14.1590,-15.5717,-11.6297,-11.1047,-5.9310,-9.2532,-4.9996,-7.7009,-16.6609,-18.6681,-19.6901,-20.2764,-16.5687,-9.3664,-17.8723,-14.4775,-15.9847,-18.6936,-14.4362
2222.6562,-14.7536,-16.8294,-13.8459,-12.9329,-6.9013,-9.5929,-5.6326,-9.7916,-16.7267,-18.6173,-20.5385,-21.7053,-17.4417,-9.2090,-19.5666,-15.5181,-17.7803,-19.6501,-15.9506
2226.5625,-15.4836,-17.3365,-15.3408,-14.7568,-8.2420,-10.0556,-6.9169,-12.0537,-16.8804,-18.6677,-20.9024,-22.8262,-18.1490,-8.6709,-21.3228,-17.7920,-18.9930,-20.2011,-17.1993
2230.4688,-15.6988,-16.7704,-15.5529,-15.9473,-9.4814,-10.2040,-8.5847,-13.5677,-16.7727,-18.3423,-20.4662,-23.3520,-18.6039,-7.7366,-22.4530,-20.1929,-19.5107,-20.1539,-17.9178
2234.3750,-15.0267,-15.3771,-14.8726,-16.2596,-10.2610,-9.9353,-10.4381,-13.7722,-16.1161,-17.2780,-19.2692,-23.5575,-19.0059,-6.7164,-22.6308,-21.9841,-19.5297,-19.6925,-18.3985
2238.2812,-13.5659,-13.8281,-14.3328,-15.9840,-10.5195,-9.4903,-12.2889,-12.8029,-14.8612,-15.3774,-17.7361,-24.0796,-19.7246,-6.1716,-21.9906,-23.2200,-19.5200,-19.2104,-19.2114
2242.1875,-11.8484,-12.8574,-14.8341,-15.7465,-10.4680,-9.2648,-13.8837,-11.4144,-13.2496,-12.9247,-16.4719,-25.3615,-20.9707,-6.6103,-20.9892,-24.5123,-19.9396,-18.9805,-20.6657
2246.0938,-10.5711,-12.8793,-16.4589,-16.0954,-10.4205,-9.5445,-14.9439,-10.5485,-11.7000,-10.5944,-15.9093,-27.1327,-22.5080,-8.1678,-20.1349,-26.3418,-20.8880,-18.9017,-22.4214
2250.0000,-10.2297,-13.7990,-18.3863,-17.1573,-10.6292,-10.3232,-15.3405,-10.8424,-10.5888,-9.2613,-16.0097,-28.3382,-23.6623,-10.5102,-19.7305,-28.4375,-21.9719,-18.5209,-23.5807
2253.9062,-10.8563,-15.1079,-19.4877,-18.5868,-11.2335,-11.3149,-15.2740,-12.3712,-10.0600,-9.6102,-16.2206,-27.6402,-23.6730,-13.0293,-19.7362,-29.7028,-22.5216,-17.3395,-23.2412
2257.8125,-12.0128,-16.1900,-19.1680,-19.8197,-12.3061,-12.1399,-15.2721,-14.7342,-9.9737,-11.6987,-15.7533,-24.2192,-22.1671,-15.1812,-19.7929,-28.7870,-22.0237,-15.2023,-21.1418
2261.7188,-13.0439,-16.6430,-17.8174,-20.4278,-13.8905,-12.5626,-15.9187,-17.3526,-10.0191,-14.7387,-14.0457,-18.3693,-19.4201,-16.7216,-19.3846,-24.9564,-20.4620,-12.4924,-17.9315
2265.6250,-13.4399,-16.4313,-16.5227,-20.3297,-15.9487,-12.6233,-17.4454,-19.7430,-9.9109,-17.3115,-11.1413,-11.4918,-16.2129,-17.6930,-18.0829,-18.7017,-18.3127,-9.9823,-14.8442
2269.5312,-13.0915,-15.8098,-16.2462,-19.7446,-18.2493,-12.5849,-19.4709,-21.6121,-9.5501,-17.9998,-7.7456,-5.4679,-13.3820,-18.2200,-15.7867,-11.6759,-16.2051,-8.4262,-12.9806
2273.4375,-12.2963,-15.1043,-17.0895,-18.9736,-20.3241,-12.7361,-21.1232,-22.7932,-9.0603,-16.1402,-4.9048,-1.7812,-11.3845,-18.3219,-12.8532,-5.9692,-14.5135,-8.1591,-12.6824
2277.3438,-11.5321,-14.5032,-18.2015,-18.2032,-21.6024,-13.1846,-21.5322,-23.1709,-8.6882,-12.2572,-3.4781,-0.8965,-10.1746,-17.9149,-10.0303,-3.1312,-13.1933,-8.9543,-13.4212
2281.2500,-11.1559,-13.9792,-18.4000,-17.4697,-21.7017,-13.7749,-20.4005,-22.7100,-8.6377,-7.8754,-3.6983,-2.2138,-9.4451,-16.9978,-8.1741,-3.4848,-11.9748,-10.2116,-14.2542
2285.1562,-11.2188,-13.3536,-17.0378,-16.7699,-20.7065,-14.1767,-18.2619,-21.5702,-8.9285,-4.7522,-5.0676,-4.5459,-9.0069,-15.8425,-7.8466,-6.0857,-10.7360,-11.3228,-14.5036
2289.0625,-11.4917,-12.4293,-14.4626,-16.1816,-19.2325,-14.0857,-16.2178,-20.1768,-9.3565,-3.9419,-6.6350,-6.7732,-8.9898,-14.9892,-8.9922,-9.3000,-9.7331,-11.9669,-14.1745
2292.9688,-11.6546,-11.1025,-11.7420,-15.8691,-18.1855,-13.4079,-15.2919,-19.1225,-9.5757,-5.2334,-7.4937,-8.2953,-9.7067,-14.9946,-10.8927,-11.6379,-9.4821,-12.1678,-13.8451
2296.8750,-11.5003,-9.4124,-9.8886,-15.9622,-18.3224,-12.3216,-15.8094,-18.9066,-9.2678,-7.3074,-7.2252,-9.0954,-11.3024,-16.0870,-12.4759,-12.3924,-10.3681,-12.1362,-14.1536
2300.7812,-11.0194,-7.5381,-9.1878,-16.4175,-19.8534,-11.1852,-17.2034,-19.6535,-8.3229,-8.5293,-6.0670,-9.5042,-13.4843,-17.9715,-12.8479,-11.7924,-12.2833,-12.0550,-15.2861
2304.6875,-10.3298,-5.7664,-9.1236,-16.9843,-22.3097,-10.3489,-18.3634,-20.9935,-6.9386,-7.9089,-4.7397,-9.8899,-15.5680,-19.9343,-11.7625,-10.6797,-14.5805,-11.9725,-16.8319
2308.5938,-9.5260,-4.4281,-8.9087,-17.3111,-24.7416,-9.9714,-18.2837,-22.1951,-5.5683,-5.6500,-4.0423,-10.4628,-16.8229,-21.1873,-9.7451,-9.9573,-16.3919,-11.8425,-18.0732
2312.5000,-8.5723,-3.7878,-8.1564,-17.1110,-26.1262,-9.9359,-16.5900,-22.4805,-4.7144,-2.9675,-4.4250,-11.2276,-16.8690,-21.2320,-7.7746,-10.1236,-17.0911,-11.6227,-18.4528
2316.4062,-7.3213,-3.9001,-7.1412,-16.2666,-25.7652,-9.9042,-13.6411,-21.3531,-4.6505,-1.3006,-5.7396,-12.0128,-15.8422,-20.0211,-6.6944,-11.0937,-16.5761,-11.3102,-17.8674
2320.3125,-5.6458,-4.5048,-6.4542,-14.8148,-23.4963,-9.4853,-10.2132,-18.7754,-5.2216,-1.4201,-7.2809,-12.5049,-14.2227,-17.8530,-6.7026,-12.3206,-15.2019,-10.8785,-16.6023
2324.2188,-3.5957,-5.0638,-6.3674,-12.8599,-19.6688,-8.4435,-7.0457,-15.1397,-5.8626,-2.9833,-8.1037,-12.2998,-12.4771,-15.1183,-7.2371,-13.0848,-13.4539,-10.1939,-15.0225
2328.1250,-1.4732,-4.9848,-6.4640,-10.5142,-14.9508,-6.8484,-4.5638,-11.0871,-5.8711,-4.7948,-7.4830,-11.0332,-10.7899,-12.0958,-7.3354,-12.7904,-11.6342,-9.0292,-13.3031
2332.0312,0.2341,-3.9543,-5.8857,-7.9248,-10.0871,-5.0916,-2.9024,-7.2817,-4.8178,-5.5873,-5.3132,-8.6037,-9.0731,-8.9245,-6.2585,-11.1694,-9.7905,-7.2196,-11.4164
2335.9375,1.0430,-2.1925,-4.0429,-5.3465,-5.6981,-3.7462,-2.1033,-4.2308,-2.8610,-4.8139,-2.2500,-5.3890,-7.2184,-5.7278,-3.9980,-8.3834,-7.9052,-4.8689,-9.3540
2339.8438,0.7007,-0.4388,-1.2410,-3.1620,-2.1637,-3.3217,-2.2473,-2.1869,-0.7552,-2.9523,0.5085,-2.2816,-5.3723,-2.7547,-1.3585,-5.0409,-6.1546,-2.4440,-7.3580
2343.7500,-0.6626,0.3828,1.3007,-1.7801,0.3985,-4.0265,-3.3826,-1.1341,0.4997,-1.1455,1.7391,-0.4253,-4.0043,-0.4073,0.4433,-2.1273,-4.9966,-0.6400,-5.9307
2347.6562,-2.5436,-0.3344,2.1285,-1.4449,2.0698,-5.6542,-5.3237,-0.8468,0.1972,-0.4346,0.7812,-0.7115,-3.6966,0.8765,0.4318,-0.7998,-4.9875,-0.0520,-5.5719
2351.5625,-4.2538,-2.4949,0.5077,-2.0754,3.0084,-7.6588,-7.5285,-1.0034,-1.6567,-1.0919,-2.1000,-3.2737,-4.7882,0.8137,-1.5907,-2.0184,-6.4394,-0.8318,-6.4178
2355.4688,-5.2199,-5.2806,-2.9989,-3.2519,3.3254,-9.3837,-9.2194,-1.3167,-4.3068,-2.4859,-5.7868,-7.2751,-7.1030,-0.5767,-4.9132,-6.0856,-9.1494,-2.5439,-8.0438
2359.3750,-5.2589,-7.5378,-6.7379,-4.3778,3.0287,-10.3329,-9.7214,-1.6272,-6.6392,-3.5507,-8.8114,-11.1540,-9.9325,-2.9472,-8.2472,-12.2911,-12.3857,-4.3253,-9.5858
2363.2812,-4.6834,-8.3699,-8.8523,-4.9301,2.0757,-10.3524,-8.8195,-1.9123,-7.7822,-3.5314,-10.0412,-13.2500,-12.2855,-5.7190,-10.3276,-18.9103,-15.1515,-5.2791,-10.1232
2367.1875,-4.1599,-7.6037,-8.3067,-4.6653,0.5023,-9.6516,-6.9052,-2.2149,-7.5668,-2.5040,-9.1886,-12.5151,-13.2691,-8.2569,-10.4676,-23.6886,-16.5773,-4.8898,-9.1025
2371.0938,-4.3703,-5.8712,-5.4390,-3.6841,-1.4711,-8.6790,-4.8184,-2.5540,-6.5769,-1.3239,-6.8790,-8.9607,-12.4153,-10.0525,-8.8078,-24.6935,-16.2371,-3.2446,-6.5755
2375.0000,-5.6487,-4.2713,-1.7473,-2.3494,-3.4554,-7.9383,-3.4778,-2.8942,-5.7728,-1.0473,-4.2599,-3.6246,-9.8206,-10.8590,-6.1697,-21.1659,-14.2463,-0.9574,-3.1513
2378.9062,-7.7964,-3.8164,0.9126,-1.1274,-5.0502,-7.8332,-3.5071,-3.2053,-5.9323,-2.2216,-2.3948,1.9095,-6.0657,-10.7335,-3.6222,-13.9201,-11.1272,1.1379,0.2736
2382.8125,-10.1945,-4.9751,1.2303,-0.4342,-6.0507,-8.5849,-5.0345,-3.5575,-7.2515,-4.5238,-1.7939,6.1845,-1.9770,-9.9689,-1.9881,-5.0384,-7.5421,2.3431,2.8514
2386.7188,-12.1593,-7.5384,-1.0368,-0.5345,-6.5572,-10.2150,-7.7209,-4.1533,-9.3303,-6.9814,-2.3213,8.4021,1.6574,-8.9395,-1.5227,3.0201,-4.0400,2.3160,4.0384
2390.6250,-13.3337,-10.8356,-5.1264,-1.5010,-6.9002,-12.5610,-10.9504,-5.2358,-11.5114,-8.6153,-3.4751,8.5760,4.2981,-7.9375,-1.8996,8.4328,-0.9370,1.0734,3.6932
2394.5312,-13.8747,-14.1269,-9.7861,-3.2231,-7.4235,-15.3105,-14.0684,-6.9157,-13.3233,-9.0598,-4.8113,7.2847,5.7124,-7.0963,-2.4891,10.6078,1.6285,-1.1719,2.0191
2398.4375,-14.3206,-16.9313,-13.9013,-5.4578,-8.2766,-18.0562,-16.5699,-9.0412,-14.7336,-8.7476,-6.2220,5.2092,5.8773,-6.4526,-2.7748,10.0767,3.5240,-4.1940,-0.5955
2402.3438,-15.2185,-19.1237,-16.9089,-7.9108,-9.3585,-20.3784,-18.1933,-11.2272,-16.0687,-8.5530,-7.9082,2.7428,4.8137,-6.0969,-2.6844,7.8418,4.4667,-7.8235,-3.7594
2406.2500,-16.7499,-20.7981,-18.8393,-10.3194,-10.4384,-21.9365,-18.9126,-13.0449,-17.6852,-9.1594,-10.1055,-0.1100,2.4877,-6.2754,-2.6466,4.6662,4.0262,-11.8669,-7.1985
2410.1562,-18.5899,-22.0341,-20.0467,-12.4947,-11.3378,-22.5352,-18.8498,-14.2466,-19.6368,-10.5899,-12.7761,-3.5157,-1.1228,-7.3140,-3.3237,0.7868,1.8394,-15.9605,-10.7535
2414.0625,-20.0880,-22.7460,-20.8374,-14.3001,-12.0178,-22.1406,-18.1589,-14.8606,-21.5639,-12.2060,-15.4902,-7.4525,-5.8208,-9.3648,-5.1551,-3.8086,-2.0588,-19.5097,-14.2641
2417.9688,-20.6480,-22.7136,-21.2263,-15.5923,-12.5061,-20.8541,-16.9504,-15.0844,-22.8724,-13.1420,-17.5763,-11.4774,-10.9985,-12.1386,-7.9726,-8.8348,-7.0094,-21.8193,-17.4271
2421.8750,-20.0669,-21.7674,-20.9590,-16.1938,-12.7474,-18.8819,-15.3133,-15.0622,-23.0716,-12.8510,-18.4470,-14.8079,-15.6619,-14.8555,-10.9400,-13.3967,-11.8247,-22.3911,-19.7610
2425.7812,-18.6254,-19.9887,-19.7685,-15.9538,-12.5403,-16.5223,-13.4200,-14.7308,-22.0511,-11.3940,-17.9018,-16.6939,-18.7500,-16.5359,-12.8995,-16.2416,-15.2453,-21.2223,-20.7585
2429.6875,-16.8930,-17.7734,-17.6855,-14.8794,-11.6585,-14.1554,-11.6191,-13.8746,-20.1274,-9.3126,-16.2328,-16.8510,-19.6231,-16.5168,-12.9654,-16.4675,-16.5474,-18.8970,-20.1731
2433.5938,-15.3856,-15.6901,-15.1747,-13.2395,-10.0842,-12.1874,-10.3925,-12.3587,-17.8523,-7.2302,-14.0823,-15.6626,-18.4279,-14.8757,-11.0366,-14.2012,-15.9342,-16.3630,-18.2630
2437.5000,-14.2983,-14.1998,-12.9710,-11.5290,-8.1593,-10.9257,-10.1346,-10.3590,-15.7224,-5.4905,-12.1424,-14.0006,-16.0769,-12.4542,-7.9166,-10.7261,-14.4230,-14.4818,-15.7915
2441.4062,-13.4675,-13.4039,-11.6846,-10.2622,-6.4846,-10.4297,-10.8640,-8.3838,-13.9741,-4.0713,-10.8625,-12.7632,-13.8064,-10.4089,-4.9469,-7.8946,-13.2462,-13.6043,-13.7220
2445.3125,-12.5638,-12.9899,-11.4253,-9.6989,-5.5829,-10.4416,-12.0861,-7.0278,-12.5730,-2.7792,-10.3104,-12.4209,-12.5539,-9.5402,-3.3443,-7.1571,-13.1147,-13.4398,-12.7495
2449.2188,-11.3773,-12.4296,-11.7119,-9.6795,-5.5382,-10.4856,-12.9723,-6.6033,-11.3694,-1.5251,-10.2387,-12.8552,-12.5301,-9.8251,-3.6151,-8.8122,-13.8135,-13.3101,-12.9444
2453.1250,-10.0135,-11.3264,-11.7630,-9.6983,-5.8793,-10.1194,-12.8192,-6.9029,-10.2889,-0.4565,-10.2936,-13.5626,-13.2347,-10.4614,-5.3671,-11.9417,-14.4020,-12.6297,-13.7335
2457.0312,-8.8815,-9.6988,-10.9986,-9.1859,-5.8278,-9.2021,-11.5111,-7.2759,-9.4169,0.1326,-10.2285,-14.0425,-13.8644,-10.3975,-7.6008,-15.0295,-13.8839,-11.2906,-14.2282
2460.9375,-8.4872,-8.0090,-9.4168,-7.8255,-4.7740,-7.9970,-9.6509,-6.9901,-8.9250,0.0086,-9.9959,-14.0650,-13.8039,-8.9942,-9.2710,-16.8204,-11.8850,-9.6854,-13.6873
2464.8438,-9.1477,-6.8966,-7.5745,-5.6993,-2.6715,-7.0201,-8.2035,-5.6575,-8.8987,-0.8524,-9.6724,-13.6360,-12.8668,-6.3824,-9.7773,-16.8589,-8.8755,-8.3517,-11.8251
2468.7500,-10.7840,-6.7728,-6.1743,-3.1835,-0.0830,-6.7146,-7.8415,-3.4592,-9.1986,-2.2656,-9.2850,-12.7338,-11.1708,-3.3028,-9.1237,-15.4325,-5.7963,-7.4981,-8.8082
2472.6562,-12.9016,-7.5295,-5.5465,-0.6925,2.1565,-7.1643,-8.4284,-1.0370,-9.4622,-3.9411,-8.6788,-11.0935,-8.8259,-0.5748,-7.7264,-13.0913,-3.3783,-6.7725,-5.0173
2476.5625,-14.7743,-8.5618,-5.4048,1.5318,3.4345,-8.0429,-9.0286,0.8638,-9.2634,-5.5674,-7.5464,-8.2807,-5.7414,1.4179,-6.0664,-10.1871,-1.6537,-5.4712,-0.7994
2480.4688,-15.7458,-9.1011,-5.0584,3.4448,3.6914,-8.8322,-8.4944,1.7791,-8.3357,-6.8156,-5.6239,-4.0525,-1.7306,2.8846,-4.4366,-6.7818,0.0014,-3.0667,3.6019
2484.3750,-15.5024,-8.6519,-3.9272,5.0672,3.3890,-9.1518,-6.2639,1.7264,-6.7209,-7.3182,-2.9278,1.2698,3.1845,4.3645,-2.9076,-2.9145,2.3543,0.3184,7.9401
2488.2812,-14.1821,-7.2556,-1.9734,6.3513,3.1750,-8.9615,-2.8217,1.1434,-4.7453,-6.7335,0.1521,6.7549,8.5550,6.2816,-1.4487,1.1008,5.7362,3.8561,11.8502
2492.1875,-12.2646,-5.4174,0.2762,7.1939,3.4916,-8.5009,0.5229,0.6450,-2.8323,-4.9288,3.0086,11.2668,13.6029,8.6489,-0.0424,4.6899,9.8221,6.4584,14.8975
2496.0938,-10.3031,-3.7591,2.1358,7.5902,4.3807,-8.0310,2.4282,0.7464,-1.2669,-2.1726,5.1525,14.0949,17.6017,11.1015,1.3207,7.3939,13.8957,7.4502,16.8000
2500.0000,-8.6463,-2.6379,3.2828,7.7758,5.5714,-7.5924,2.3688,1.6736,-0.0583,0.8466,6.5068,15.3686,20.2626,13.1766,2.7275,9.2994,17.3508,7.0167,17.6488
2503.9062,-7.3118,-1.9829,3.9944,8.1816,6.7324,-6.9744,0.9724,3.3099,1.0097,3.2732,7.4343,15.9333,21.8243,14.5978,4.3750,11.1117,20.0224,6.1075,17.9144
2507.8125,-6.0773,-1.4334,4.9112,9.1768,7.6888,-5.9156,-0.3819,5.2630,2.1785,4.5038,8.4435,16.7369,22.7756,15.3646,6.4477,13.7088,22.1133,5.8505,18.1789
2511.7188,-4.7255,-0.6548,6.5074,10.7710,8.4713,-4.3686,-0.4365,7.0205,3.4989,4.5084,9.7592,18.1501,23.4385,15.6447,8.8900,17.4379,23.8337,6.8589,18.7662
2515.6250,-3.2703,0.4089,8.6723,12.5231,9.2139,-2.6104,1.1777,8.1527,4.7527,3.8181,11.0727,19.7140,23.7549,15.6164,11.2552,21.6732,25.1022,8.8916,19.5464
2519.5312,-2.0047,1.5163,10.7270,13.7754,10.0201,-1.1022,3.7693,8.4995,5.5746,3.1598,11.6909,20.5124,23.4533,15.4141,12.8054,25.0200,25.5890,11.0748,20.0761
2523.4375,-1.3280,2.3285,11.8715,14.0813,10.8974,-0.1984,6.0862,8.2525,5.7003,2.9770,11.0282,19.9056,22.4442,15.1842,12.8729,26.0971,25.0677,12.5092,19.9745
2527.3438,-1.4635,2.6568,11.7305,13.5170,11.7704,0.0769,7.1245,7.8590,5.1761,3.1691,9.1118,18.0786,21.0839,15.1314,11.2877,24.3975,23.7573,12.8342,19.2353
2531.2500,-2.2576,2.5706,10.5984,12.6227,12.5085,0.0288,6.7102,7.7571,4.3799,3.2377,6.7219,15.9799,20.0304,15.4309,8.5875,20.6350,22.3193,12.3751,18.2141
2535.1562,-3.2032,2.3046,9.2119,11.9828,12.9211,0.0819,5.5104,8.0745,3.8252,2.7298,5.0158,14.6717,19.7497,16.0321,5.8356,16.3343,21.4465,11.8073,17.2852
2539.0625,-3.6788,2.0683,8.2364,11.7451,12.7507,0.5324,4.5259,8.4915,3.8671,1.6545,4.8432,14.5567,20.0464,16.5292,4.1210,12.9459,21.3342,11.6135,16.4425
2542.9688,-3.2555,1.9252,7.8522,11.4601,11.7469,1.4388,4.4434,8.4073,4.4972,0.5610,6.2043,15.0586,20.0327,16.2840,4.0226,11.0943,21.4541,11.7337,15.1990
2546.8750,-1.8871,1.8331,7.7359,10.4132,9.8620,2.6958,5.2718,7.3642,5.3625,0.2173,8.2263,15.0126,18.6494,14.8176,5.3486,10.4503,20.8578,11.6490,12.9308
2550.7812,0.1085,1.7880,7.4239,8.2606,7.4828,4.1852,6.4563,5.4902,5.9975,1.1122,9.6932,13.5089,15.4337,12.2529,7.2839,10.2451,18.8405,10.8215,9.4672
2554.6875,2.2306,1.9240,6.7609,5.5217,5.5164,5.8500,7.3409,3.6527,6.1179,3.1287,9.7829,10.5947,11.0021,9.4889,8.8301,9.9834,15.5121,9.1640,5.5003
2558.5938,4.0049,2.4603,6.0845,3.5284,5.1738,7.6355,7.6452,3.1561,5.7891,5.6035,8.5248,7.3313,6.8706,7.9088,9.2641,9.7938,11.8619,7.2091,2.4618
2562.5000,5.1109,3.5229,6.0106,3.7772,7.4598,9.3765,7.6478,5.0874,5.3689,7.7137,6.6910,5.1558,4.6749,8.7161,8.3806,10.1721,9.2465,5.8621,1.8606
2566.4062,5.4112,4.9873,6.9787,7.0318,12.5890,10.7744,7.9781,9.6505,5.2759,8.9172,5.2342,4.9804,5.2625,12.2486,6.4627,11.3627,8.6222,5.9002,4.4431
2570.3125,4.9439,6.4810,8.8869,12.7239,19.6494,11.5223,9.1577,15.8754,5.7398,9.1685,4.6872,6.6386,8.2229,17.6609,4.0932,12.9129,10.0106,7.5276,9.6852
2574.2188,3.9296,7.5643,11.0650,19.0380,26.7478,11.4928,11.1725,21.8938,6.6863,8.8188,4.9365,9.0290,12.1306,23.1692,1.9658,13.8034,12.5120,10.2368,15.9302
2578.1250,2.7724,7.9617,12.5962,23.6664,31.6284,10.8254,13.3303,25.6658,7.8020,8.3347,5.4765,10.8264,15.3186,26.7394,0.7618,13.1077,14.8170,13.0245,21.1028
2582.0312,1.9805,7.6763,12.7695,24.8283,32.5024,9.8164,14.5019,25.7973,8.7065,8.0567,5.8956,11.2594,16.6881,26.8734,1.0395,10.7093,15.8665,14.8149,23.5958
2585.9375,1.9664,6.9078,11.3923,22.0159,28.7113,8.6847,13.6479,22.0608,9.1064,8.1372,6.1892,10.4507,16.0906,23.1390,3.0590,7.5377,15.2734,14.8704,22.8614
2589.8438,2.8008,5.8578,8.8200,16.1173,20.9408,7.4059,10.3810,15.4068,8.8524,8.6181,6.6632,9.1541,14.1456,16.2543,6.5662,5.1089,13.3268,13.0254,19.4548
2593.7500,4.0842,4.5900,5.7472,8.9302,10.9291,5.7748,5.2750,7.5250,7.9164,9.5059,7.5303,8.1343,11.7163,7.7672,10.6840,4.6478,10.6822,9.6975,14.6057
2597.6562,5.0784,3.0662,2.9216,2.3814,0.8453,3.6728,-0.2648,0.2072,6.3621,10.7351,8.5481,7.6448,9.4259,-0.4833,14.0820,6.3591,7.9919,5.7165,9.6234
2601.5625,5.0794,1.3249,0.9269,-2.1456,-7.3760,1.3364,-4.5518,-5.2006,4.3594,12.0563,9.0210,7.3326,7.4837,-6.9134,15.4529,9.3006,5.6840,2.0500,5.4504
2605.4688,3.8358,-0.3610,0.0812,-4.1205,-12.5002,-0.6101,-6.3473,-8.0766,2.2183,12.9883,8.2013,6.5760,5.8211,-10.5921,14.1001,11.9095,3.9344,-0.4964,2.5155
2609.3750,1.7453,-1.5081,0.4216,-3.7889,-14.1581,-1.4335,-5.4092,-8.5097,0.3669,12.9582,5.8194,4.9718,4.3376,-11.4082,10.3087,12.8195,2.7455,-1.5263,0.8358
2613.2812,-0.3168,-1.6529,1.7271,-1.8667,-12.7453,-0.7210,-2.5690,-7.0858,-0.7751,11.6082,2.3635,2.6354,3.0460,-9.9833,5.2537,11.4769,2.0247,-1.1593,0.2127
2617.1875,-1.4489,-0.6425,3.5767,0.8036,-9.1662,1.3301,0.7130,-4.6014,-0.9842,9.0962,-1.0944,0.1441,2.0424,-7.3629,0.4679,8.2641,1.6288,0.0590,0.3871
2621.0938,-1.1801,1.2219,5.4604,3.5027,-4.5329,3.9743,3.0788,-1.8047,-0.3585,6.1724,-3.4192,-1.7902,1.3896,-4.5931,-2.8346,4.1785,1.4068,1.4285,1.1075
2625.0000,0.3448,3.3071,6.9382,5.7560,0.1082,6.3004,3.8903,0.7701,0.7291,3.9275,-3.9492,-2.6880,1.0490,-2.3477,-4.1932,0.3509,1.2685,2.4255,2.1401
2628.9062,2.5404,4.9705,7.7886,7.3463,3.9804,7.6881,3.4084,2.8540,1.8490,3.3047,-2.7347,-2.4956,0.9200,-0.7723,-3.8781,-2.3243,1.2507,2.9211,3.2640
2632.8125,4.7611,5.8766,8.0621,8.2513,6.6823,8.0512,2.4752,4.3878,2.7722,4.6223,-0.3865,-1.5391,0.9345,0.3929,-2.5031,-3.3517,1.5111,3.1583,4.2723
2636.7188,6.6183,6.1139,7.9975,8.5430,8.1810,7.7456,1.9359,5.4050,3.5856,7.3685,2.3087,-0.3156,1.1051,1.5002,-0.5887,-2.6605,2.2118,3.5069,4.9753
2640.6250,8.0443,6.0600,7.8437,8.2907,8.7012,7.2536,2.1678,5.9246,4.5740,10.3954,4.7428,0.7398,1.4750,2.6941,1.6232,-0.5818,3.3434,4.1567,5.2059
2644.5312,9.1272,6.1100,7.6961,7.5159,8.5590,6.8884,2.9723,5.9137,5.9433,12.4300,6.6344,1.4043,2.0095,3.8099,4.0351,2.2186,4.6083,4.9591,4.8374
2648.4375,9.9020,6.4577,7.4483,6.2209,8.0120,6.7019,3.8251,5.3372,7.5847,12.6578,7.9659,1.6925,2.5259,4.5157,6.4339,4.9182,5.4683,5.5251,3.8232
2652.3438,10.2850,7.0472,6.8831,4.4696,7.1905,6.5959,4.2535,4.2474,9.0620,11.0930,8.8326,1.7723,2.7296,4.5689,8.3823,6.8325,5.3621,5.5085,2.2458
2656.2500,10.1862,7.6756,5.8320,2.4495,6.1253,6.4858,4.0708,2.8315,9.8434,8.5524,9.3261,1.8214,2.3408,3.9867,9.3911,7.6920,3.9831,4.8663,0.3372
2660.1562,9.6660,8.1290,4.2934,0.4509,4.8318,6.3582,3.3522,1.3653,9.6205,6.2402,9.4898,1.8870,1.2326,3.0049,9.2399,7.6963,1.4612,3.8994,-1.5669
2664.0625,8.9623,8.2439,2.4386,-1.2475,3.3803,6.1932,2.2487,0.0889,8.4853,5.1423,9.3121,1.8198,-0.5061,1.8695,8.1679,7.2481,-1.6611,3.0358,-3.1376
2667.9688,8.3372,7.8866,0.5171,-2.5191,1.8960,5.8625,0.8366,-0.9140,6.8368,5.5297,8.7212,1.3272,-2.6136,0.6386,6.7410,6.5167,-4.6498,2.5081,-4.1853
2671.8750,7.8599,6.9268,-1.2592,-3.4549,0.4937,5.1426,-0.8632,-1.7411,5.0914,6.8241,7.5932,0.1360,-4.7700,-0.8431,5.4623,5.1681,-6.8857,2.1606,-4.7437
2675.7812,7.3201,5.2840,-2.7725,-4.2905,-0.7994,3.8753,-2.7387,-2.5747,3.4166,7.9032,5.8125,-1.8186,-6.7159,-2.7682,4.4171,2.5422,-8.1064,1.5383,-5.0561
2679.6875,6.3702,3.0419,-3.9703,-5.2297,-2.0592,2.1591,-4.4726,-3.5212,1.6895,7.6921,3.3867,-4.2949,-8.3190,-5.1256,3.2403,-1.7526,-8.4729,0.2093,-5.4635
2683.5938,4.8074,0.5317,-4.7954,-6.2753,-3.3903,0.3989,-5.5976,-4.4954,-0.2942,5.7298,0.5490,-6.8104,-9.5710,-7.5821,1.4554,-7.2164,-8.4409,-1.8995,-6.2445
2687.5000,2.7795,-1.7232,-5.1496,-7.1875,-4.7969,-0.8711,-5.7141,-5.2321,-2.5313,2.4035,-2.2490,-8.8461,-10.5271,-9.5839,-1.0603,-12.3154,-8.5018,-4.3887,-7.4783
2691.4062,0.7437,-3.2195,-4.9363,-7.6103,-6.0875,-1.3005,-4.7225,-5.4262,-4.6846,-1.2764,-4.4931,-10.0659,-11.2247,-10.6140,-3.8466,-15.0656,-8.9158,-6.5882,-8.9908
2695.3125,-0.8049,-3.7351,-4.1635,-7.2967,-6.8968,-0.9648,-2.9008,-4.9147,-6.2395,-4.2267,-5.8390,-10.4218,-11.6185,-10.4337,-6.0672,-14.0997,-9.5626,-7.9510,-10.4093
2699.2188,-1.6385,-3.4712,-3.0334,-6.2929,-6.8371,-0.3549,-0.7693,-3.7912,-6.8483,-5.8483,-6.2759,-10.0943,-11.5666,-9.1572,-7.0239,-9.5768,-9.9880,-8.3859,-11.3045
2703.1250,-1.9087,-2.9653,-1.9375,-4.9637,-5.7082,-0.1019,1.1581,-2.3862,-6.6084,-6.2711,-6.1055,-9.3350,-10.8856,-7.1362,-6.6098,-3.3156,-9.6336,-8.3151,-11.3671
2707.0312,-1.9933,-2.8110,-1.3257,-3.8329,-3.6426,-0.6058,2.5714,-1.1246,-6.0574,-6.1664,-5.7446,-8.3364,-9.4548,-4.7623,-5.3710,2.0230,-8.1440,-8.4136,-10.5436
2710.9375,-2.2083,-3.3475,-1.4983,-3.3235,-1.0894,-1.8034,3.3974,-0.3394,-5.8606,-6.2693,-5.4815,-7.2053,-7.3196,-2.3243,-4.1346,4.2777,-5.5883,-9.1898,-9.0661
2714.8438,-2.6191,-4.5011,-2.4280,-3.5341,1.3669,-3.2207,3.6919,-0.1300,-6.3930,-6.9221,-5.3493,-6.0156,-4.7257,0.0098,-3.4856,2.8755,-2.4665,-10.6561,-7.3512
2718.7500,-3.0896,-5.8615,-3.7220,-4.1710,3.2561,-4.2682,3.5085,-0.3247,-7.4967,-7.9170,-5.1849,-4.8488,-2.0515,2.1246,-3.4816,-0.9613,0.5145,-12.2785,-5.8066
2722.6562,-3.5054,-6.9268,-4.7712,-4.6728,4.3967,-4.5876,2.8516,-0.5563,-8.5790,-8.7096,-4.8124,-3.7597,0.3324,3.8954,-3.7956,-4.9825,2.7738,-13.2303,-4.6415
2726.5625,-3.9539,-7.3581,-5.0319,-4.4738,4.9000,-4.2400,1.7270,-0.4215,-8.9838,-8.8358,-4.2059,-2.7059,2.1933,5.1918,-4.1377,-7.1585,4.1003,-12.8090,-3.7916
2730.4688,-4.6820,-7.1043,-4.3020,-3.2879,5.0133,-3.6392,0.2153,0.3318,-8.3915,-8.2469,-3.5211,-1.5454,3.4714,5.9299,-4.5823,-6.6756,4.6624,-10.8004,-3.0098
2734.3750,-5.8427,-6.3594,-2.8460,-1.2882,4.9149,-3.2944,-1.5153,1.6560,-6.9956,-7.3523,-2.9940,-0.1674,4.2041,6.1112,-5.5109,-4.1622,4.7914,-7.6194,-2.0794
2738.2812,-7.2442,-5.4227,-1.2929,0.9070,4.6005,-3.5299,-3.2700,3.1608,-5.3667,-6.7581,-2.8007,1.3132,4.4055,5.8068,-7.1990,-1.1359,4.6992,-4.1672,-1.0194
2742.1875,-8.3435,-4.5723,-0.3560,2.4519,3.9291,-4.3410,-4.8994,4.2196,-4.1240,-6.8840,-2.9821,2.4653,4.0076,5.1064,-9.3876,0.8944,4.3334,-1.4804,-0.1449
2746.0938,-8.5587,-4.0130,-0.5192,2.6176,2.7867,-5.4458,-6.3147,4.2099,-3.6347,-7.7076,-3.4688,2.6964,2.9203,4.0863,-11.2283,1.1249,3.4700,-0.3228,0.0726
2750.0000,-7.7122,-3.8852,-1.8511,1.1168,1.2385,-6.4739,-7.4398,2.7984,-3.9104,-8.7911,-4.1571,1.6115,1.1702,2.8279,-11.7246,-0.3648,1.9638,-0.8932,-0.7297
2753.9062,-6.2804,-4.2755,-4.0281,-1.7459,-0.4474,-7.1734,-8.1726,0.1325,-4.7117,-9.5641,-4.9628,-0.6522,-1.0029,1.4551,-10.4069,-2.9012,-0.0474,-2.7691,-2.5745
2757.8125,-5.2242,-5.1862,-6.5229,-5.1850,-1.9323,-7.5221,-8.4309,-3.1789,-5.7394,-9.6826,-5.8208,-3.3827,-3.1936,0.1290,-7.7662,-5.6776,-2.1574,-5.1099,-5.0921
2761.7188,-5.4523,-6.4833,-8.8300,-8.2686,-3.0052,-7.7051,-8.2781,-6.3123,-6.7674,-9.2478,-6.6568,-5.6366,-5.0194,-1.0275,-5.1039,-8.0911,-3.9292,-7.0307,-7.6803
2765.6250,-7.2412,-7.8804,-10.6047,-10.3153,-3.7096,-7.9902,-8.0218,-8.5888,-7.6564,-8.7542,-7.3817,-6.7764,-6.3301,-2.0276,-3.8448,-9.8393,-5.1830,-7.9749,-9.7773
2769.5312,-9.9912,-9.0093,-11.6767,-11.1468,-4.3025,-8.5821,-8.1594,-9.7575,-8.2979,-8.7976,-7.9244,-6.8433,-7.2799,-3.0458,-4.7341,-10.8487,-6.1110,-7.9060,-11.0843
2773.4375,-12.5021,-9.5683,-11.9953,-11.0715,-5.0687,-9.5323,-9.1337,-10.0460,-8.5791,-9.7144,-8.2747,-6.4916,-8.1945,-4.3121,-7.4243,-11.1773,-7.1160,-7.2307,-11.6221
2777.3438,-13.6210,-9.4771,-11.6004,-10.6259,-6.1142,-10.7404,-11.0224,-9.9595,-8.4225,-11.3615,-8.4920,-6.5208,-9.3174,-5.9244,-10.7024,-10.9726,-8.4838,-6.5099,-11.6259
2781.2500,-12.8800,-8.9508,-10.6625,-10.2518,-7.2831,-12.0295,-13.3758,-9.9627,-7.8707,-13.1735,-8.6730,-7.3399,-10.6195,-7.7164,-13.1914,-10.4713,-10.1357,-6.1414,-11.3840
2785.1562,-10.7477,-8.4404,-9.5429,-10.1154,-8.2634,-13.2393,-15.3603,-10.2468,-7.1376,-14.4695,-8.9119,-8.7535,-11.8242,-9.3055,-14.0785,-9.9845,-11.6612,-6.2105,-11.1412
2789.0625,-8.3588,-8.4546,-8.7764,-10.1670,-8.8178,-14.2772,-16.1785,-10.7160,-6.5716,-14.8323,-9.2927,-10.2181,-12.6395,-10.3246,-13.4456,-9.8367,-12.6255,-6.5883,-11.1059
2792.9688,-6.8968,-9.3398,-8.9135,-10.3635,-8.9889,-15.0999,-15.5340,-11.1740,-6.5340,-14.3247,-9.9053,-11.3431,-13.0275,-10.6906,-12.0708,-10.2777,-12.9316,-7.1781,-11.4991
2796.8750,-6.9912,-11.1132,-10.2641,-10.8506,-9.1345,-15.6489,-13.8501,-11.5509,-7.2572,-13.4026,-10.8362,-12.2159,-13.2886,-10.7065,-10.8990,-11.4040,-12.9530,-8.0959,-12.5404
2800.7812,-8.4509,-13.4222,-12.6818,-11.9339,-9.7518,-15.8005,-12.0809,-11.9925,-8.7480,-12.5731,-12.0924,-13.2641,-13.8668,-10.8926,-10.5379,-13.1099,-13.3027,-9.6128,-14.3248
2804.6875,-10.4420,-15.6542,-15.5388,-13.8298,-11.1859,-15.3885,-11.2001,-12.7447,-10.7713,-12.0281,-13.4915,-14.7534,-14.9862,-11.6309,-11.0424,-15.0706,-14.3679,-11.8717,-16.6573
2808.5938,-11.9692,-17.1648,-17.9431,-16.3762,-13.3934,-14.3095,-11.6628,-13.9239,-12.9103,-11.5155,-14.6245,-16.3462,-16.3807,-12.8629,-12.0200,-16.7722,-15.9330,-14.5903,-18.9857
2812.5000,-12.3813,-17.5390,-19.1138,-18.9417,-15.9091,-12.6565,-13.1567,-15.3583,-14.6799,-10.5607,-14.9895,-17.1431,-17.3426,-14.0671,-12.9090,-17.6195,-17.1823,-17.0149,-20.5439
2816.4062,-11.6502,-16.7780,-18.7239,-20.6575,-18.0473,-10.7863,-14.7898,-16.6365,-15.6673,-8.8993,-14.2810,-16.2717,-17.1099,-14.5656,-13.2410,-17.1397,-17.1352,-18.2395,-20.6817
2820.3125,-10.3164,-15.3171,-17.0385,-20.8690,-19.2296,-9.2456,-15.5979,-17.3468,-15.6711,-6.8014,-12.6665,-13.6285,-15.3683,-13.9736,-12.7913,-15.2203,-15.2694,-17.7353,-19.2157
2824.2188,-9.1657,-13.8418,-14.7787,-19.5261,-19.2583,-8.5570,-15.0745,-17.3445,-14.7864,-5.0128,-10.8310,-10.1931,-12.5341,-12.4938,-11.6211,-12.2502,-11.9323,-15.7413,-16.5838
2828.1250,-8.8164,-12.9660,-12.7884,-17.2478,-18.3796,-8.9575,-13.4230,-16.8540,-13.3819,-4.2955,-9.6767,-7.5818,-9.6005,-10.8392,-10.0467,-9.0278,-8.2525,-13.2126,-13.6776
2832.0312,-9.4134,-12.9250,-11.6711,-14.9897,-17.1095,-10.2337,-11.4096,-16.3237,-11.9438,-4.8581,-9.8011,-7.0557,-7.6034,-9.8138,-8.5439,-6.4214,-5.5659,-11.2963,-11.4177
2835.9375,-10.5628,-13.4485,-11.5600,-13.5119,-15.9291,-11.7650,-9.9283,-16.1254,-10.8396,-6.0952,-11.0657,-8.6324,-7.0208,-9.8128,-7.5732,-4.9439,-4.6841,-10.6394,-10.2995
2839.8438,-11.5294,-13.9051,-12.1077,-12.9761,-15.0340,-12.7835,-9.5347,-16.3036,-10.1228,-6.8792,-12.5635,-10.9458,-7.4819,-10.5679,-7.3585,-4.5043,-5.4458,-10.9784,-10.1727
2843.7500,-11.6003,-13.6543,-12.6737,-12.9242,-14.2869,-12.7316,-10.1984,-16.5508,-9.5073,-6.2663,-13.0648,-12.0210,-7.9851,-11.3108,-7.7257,-4.5215,-6.8285,-11.3038,-10.3825
2847.6562,-10.4393,-12.4119,-12.6104,-12.6377,-13.3901,-11.5320,-11.3753,-16.4257,-8.5505,-4.1589,-11.7045,-10.5019,-7.5079,-11.2574,-8.1272,-4.3521,-7.5564,-10.5160,-10.1869
2851.5625,-8.2554,-10.4092,-11.5267,-11.6310,-12.1570,-9.6125,-12.3220,-15.6645,-6.9493,-1.4502,-8.4933,-6.5347,-5.6419,-10.1057,-7.8938,-3.7512,-6.8383,-8.1536,-9.1964
2855.4688,-5.6922,-8.2402,-9.4322,-9.9555,-10.6959,-7.6596,-12.4629,-14.3712,-4.7634,0.4981,-4.3284,-1.7193,-2.8645,-8.2295,-6.6001,-3.0322,-4.7936,-4.7122,-7.5760
2859.3750,-3.4916,-6.4875,-6.7199,-8.1327,-9.3731,-6.2298,-11.6238,-12.9564,-2.4133,0.7309,-0.4902,1.8484,-0.2777,-6.4462,-4.3250,-2.7908,-2.3194,-1.3473,-5.9016
