Time,Fp1,F3,C3,P3,O1,F7,T3,T5,Fz,Fp2,F4,C4,P4,O2,F8,T4,T6,Cz,Pz
0.0000,-1.1323,-0.7179,-0.7518,-2.9867,-3.6230,-1.3687,-0.7283,-2.1527,0.3715,-1.4390,-0.3252,-2.3968,-3.6479,-4.4627,-0.0445,-3.8704,-4.9367,-1.6187,-3.1743
3.9062,-1.3201,-1.7258,-2.9327,-4.7219,-3.9085,-1.3853,-0.6439,-2.2508,-2.5164,-1.6579,-1.3600,-3.9459,-5.9550,-4.9820,-0.8304,-4.5536,-5.4883,-4.9837,-5.6446
7.8125,-1.5031,-3.3806,-5.0574,-5.9615,-3.2322,-1.5653,-0.2670,-1.7324,-6.1724,-2.2042,-2.9313,-5.2862,-8.0748,-4.8058,-1.9047,-4.8036,-5.5445,-8.1842,-7.9486
11.7188,-2.0687,-5.7939,-6.7598,-6.3454,-1.5819,-2.2578,-0.0397,-0.7986,-9.8882,-3.3033,-5.1492,-6.2980,-9.3472,-3.9099,-3.2218,-4.4810,-4.8245,-10.4452,-9.4779
15.6250,-3.4229,-8.8734,-8.1413,-6.1097,0.4607,-3.6289,-0.5810,-0.0246,-13.0603,-5.0246,-8.0155,-7.2776,-9.5706,-2.7012,-4.6836,-3.6995,-3.3465,-11.7387,-10.1007
19.5312,-5.6279,-12.1988,-9.6231,-5.8957,2.0306,-5.4455,-2.2750,-0.0123,-15.3590,-7.1197,-11.2191,-8.6097,-9.0039,-1.7205,-6.0866,-2.6895,-1.4098,-12.6664,-10.1003
23.4375,-8.1849,-15.0239,-11.4644,-6.2091,2.5338,-7.1045,-4.9041,-0.9497,-16.6368,-8.9939,-14.0137,-10.2405,-8.0199,-1.1987,-7.1024,-1.5894,0.5989,-13.7938,-9.7751
27.3438,-10.1519,-16.4625,-13.2930,-6.9135,2.0794,-7.9243,-7.5930,-2.3808,-16.7059,-9.8773,-15.3505,-11.3854,-6.6924,-0.8001,-7.3540,-0.3330,2.4482,-14.9352,-9.0206
31.2500,-10.5746,-15.8161,-14.0506,-7.1594,1.4750,-7.5271,-9.1583,-3.3830,-15.2415,-9.1504,-14.3037,-10.7999,-4.6654,0.2206,-6.5898,1.2730,4.1807,-14.9917,-7.2614
35.1562,-8.9865,-12.9047,-12.5067,-5.8704,1.7427,-6.0606,-8.7043,-3.0865,-11.9719,-6.6716,-10.6136,-7.5484,-1.4497,2.5045,-4.8763,3.3320,6.0200,-12.5745,-3.8565
39.0625,-5.6831,-8.2394,-8.0958,-2.5089,3.4419,-4.1130,-6.1372,-1.2323,-7.0694,-2.9301,-5.0284,-1.8005,3.0437,6.0481,-2.6792,5.6650,8.1224,-7.0693,1.2602
42.9688,-1.6165,-2.9338,-1.5534,2.3825,6.2284,-2.3883,-2.2923,1.5857,-1.4421,1.0770,0.8225,4.9229,8.1332,10.0162,-0.7440,7.7960,10.3495,0.5807,7.1649
46.8750,2.0087,1.6312,5.1201,7.2583,8.9488,-1.3647,1.4132,4.1675,3.3745,4.2062,5.0444,10.3237,12.4827,13.0747,0.2034,9.1472,12.2332,7.9802,12.1165
50.7812,4.2001,4.2685,9.4608,10.2734,10.2358,-1.1509,3.6217,5.3197,5.7865,5.6055,6.3069,12.4566,14.7022,14.0692,-0.2027,9.3321,13.1880,12.3307,14.3090
54.6875,4.4772,4.3975,9.7257,10.2232,9.2647,-1.5882,3.6293,4.4846,4.9117,5.0312,4.4520,10.7581,14.0897,12.6520,-1.7717,8.3705,12.8545,11.8599,12.8077
58.5938,2.9310,2.2534,5.8112,7.1765,6.2333,-2.4626,1.6331,2.0295,1.1052,2.9109,0.5475,6.3468,11.0544,9.4888,-3.8238,6.7015,11.3707,6.7994,8.1192
62.5000,0.1136,-1.1890,-0.6231,2.4491,2.3031,-3.6338,-1.4602,-0.9534,-4.0984,0.1446,-3.6475,1.4122,6.9519,5.9425,-5.4981,4.9928,9.3914,-0.6632,2.0446
66.4062,-3.1266,-4.5587,-6.9134,-2.0410,-0.9489,-4.9866,-4.5122,-3.2043,-8.6408,-2.2491,-6.5075,-1.9336,3.4292,3.4377,-6.1423,3.8564,7.8244,-7.4264,-3.1216
70.3125,-5.8153,-6.5804,-10.6265,-4.6569,-2.2571,-6.2845,-6.6348,-3.8877,-10.8550,-3.4844,-7.2161,-2.6602,1.6606,2.8608,-5.5795,3.6108,7.4097,-10.9232,-5.6171
74.2188,-7.0523,-6.5308,-10.6159,-4.6969,-1.2032,-7.0933,-7.4351,-2.9123,-10.1545,-3.2255,-5.9643,-1.1340,1.8917,4.2740,-4.1195,4.1850,8.3586,-10.2035,-4.9289
78.1250,-6.2558,-4.4674,-7.3706,-2.5356,1.6700,-6.8866,-6.9561,-0.8517,-7.1509,-1.6099,-3.6352,1.3409,3.4870,7.0074,-2.3255,5.1849,10.2368,-6.1533,-1.8723
82.0312,-3.3862,-1.1239,-2.5477,0.7272,5.1659,-5.2874,-5.4319,1.4336,-3.1863,0.9004,-1.2195,3.3882,5.3767,10.0006,-0.6814,6.0823,12.1521,-0.8453,1.9384
85.9375,0.9876,2.4853,1.9791,3.8572,7.9733,-2.2815,-3.0654,3.2341,0.4161,3.7546,0.6857,4.2877,6.6116,12.1999,0.6493,6.4551,13.1564,3.5500,4.9027
89.8438,5.8737,5.5573,5.0078,6.0075,9.1881,1.7418,0.0184,4.2624,2.9615,6.5298,2.0517,4.2049,6.7501,12.8752,1.8452,6.1950,12.6739,5.7309,6.1223
93.7500,10.2374,7.8251,6.3899,6.9669,8.6171,6.1369,3.6379,4.6559,4.5566,9.0340,3.2445,3.9135,5.9514,11.8062,3.2318,5.5945,10.7568,5.6981,5.6803
97.6562,13.3753,9.5393,6.7973,7.0933,6.7785,10.2196,7.3752,4.7665,5.8167,11.2588,4.6766,4.2785,4.8145,9.3245,4.9982,5.2488,8.0490,4.5458,4.4549
101.5625,15.0680,11.1295,7.1119,7.0186,4.6250,13.4187,10.5305,4.8846,7.3332,13.2192,6.5089,5.8114,4.0760,6.1943,7.0015,5.7740,5.4710,3.7842,3.6132
105.4688,15.4517,12.7720,7.8355,7.2764,3.1108,15.3186,12.3077,5.0574,9.2245,14.7910,8.5491,8.4706,4.2826,3.3299,8.7813,7.4481,3.7727,4.5289,4.0295
109.3750,14.7496,14.1592,8.8413,8.0127,2.7773,15.6652,12.1691,5.0861,11.0169,15.6645,10.3521,11.7012,5.5298,1.4233,9.7832,9.9571,3.1724,6.9142,5.8683
113.2812,13.1020,14.6374,9.5436,8.9064,3.5380,14.4241,10.1621,4.6902,11.8992,15.4740,11.4244,14.6223,7.3573,0.6490,9.6630,12.4238,3.2743,9.9891,8.4959
117.1875,10.6233,13.6339,9.3168,9.3479,4.7694,11.8846,7.0052,3.7392,11.1943,14.0405,11.4162,16.2901,8.8781,0.6318,8.4876,13.7614,3.3266,12.1551,10.7558
121.0938,7.5973,11.0844,7.8907,8.8035,5.6780,8.6901,3.8330,2.4180,8.7786,11.5677,10.2284,15.9970,9.1518,0.7413,6.7047,13.2067,2.6996,11.9619,11.5040
125.0000,4.5710,7.5637,5.5050,7.1813,5.7605,5.6689,1.7008,1.2208,5.2140,8.6300,8.0190,13.5534,7.6709,0.5621,4.8831,10.7483,1.3220,8.8845,10.1723
128.9062,2.1795,4.0158,2.7766,4.9767,5.1009,3.4800,1.1010,0.7513,1.5090,5.9117,5.1352,9.4397,4.7140,0.2389,3.3720,7.1905,-0.1903,3.6694,7.0896
132.8125,0.7737,1.2561,0.3973,3.0752,4.3200,2.2732,1.7601,1.4131,-1.3664,3.8355,2.0063,4.7066,1.3204,0.4300,2.0899,3.7791,-0.8268,-1.9642,3.3777
136.7188,0.1420,-0.4264,-1.1574,2.2863,4.1841,1.6231,2.8377,3.1496,-2.9513,2.3283,-0.9668,0.5976,-1.1735,1.8473,0.5874,1.5754,0.2333,-6.1439,0.4398
140.6250,-0.3862,-1.3075,-1.7671,2.8699,5.0938,0.8496,3.4211,5.3874,-3.4764,0.9172,-3.4945,-1.9665,-1.8292,4.6608,-1.6306,0.9204,3.0712,-7.7497,-0.7185
144.5312,-1.4406,-1.9035,-1.6247,4.3487,6.7671,-0.4429,3.0316,7.2424,-3.6478,-0.8587,-5.4264,-2.7752,-0.6356,8.1749,-4.7042,1.2982,6.8506,-6.9055,0.0199
148.4375,-3.0277,-2.5288,-1.0779,5.7463,8.3293,-1.9715,1.8550,7.9055,-4.1469,-2.9758,-6.7199,-2.3610,1.4635,11.0481,-8.1862,1.6815,10.1526,-4.7887,1.8505
152.3438,-4.3185,-3.0506,-0.4547,6.1278,8.7799,-2.8431,0.5724,7.0185,-5.1472,-4.7292,-7.3676,-1.6397,3.1007,11.9753,-11.1378,1.1646,11.6687,-2.8897,3.5021
156.2500,-4.0449,-2.9986,0.0534,5.1249,7.5693,-2.0942,-0.0881,4.8408,-6.1483,-5.0094,-7.3280,-1.3598,3.2773,10.4327,-12.5231,-0.4793,10.8674,-2.1716,3.9326
160.1562,-1.3161,-1.9264,0.4343,3.1337,4.9425,0.6278,0.2080,2.1222,-6.2445,-2.9389,-6.5018,-1.6787,1.9426,7.0137,-11.6960,-2.6333,8.2520,-2.6106,2.8834
164.0625,3.6760,0.2506,0.8375,1.0840,1.8426,4.7105,1.2371,-0.2458,-4.6733,1.5085,-4.7728,-2.1078,0.0040,3.1290,-8.7137,-4.1655,5.0577,-3.3341,0.9940
167.9688,9.5709,3.1779,1.5126,-0.0610,-0.5702,8.8226,2.4129,-1.6071,-1.3083,7.3172,-2.0969,-1.8440,-1.2387,0.2404,-4.3166,-4.0693,2.5642,-3.2063,-0.5737
171.8750,14.4869,6.2713,2.7091,0.2331,-1.4994,11.6307,3.1938,-1.7531,3.2084,12.8316,1.3991,-0.2835,-0.8864,-0.9073,0.3958,-2.0638,1.4219,-1.4788,-0.7767
175.7812,17.0113,9.0281,4.5425,1.8896,-0.8677,12.5289,3.4233,-0.8928,7.7641,16.5381,5.3510,2.5698,1.0165,-0.6001,4.3958,1.1786,1.3737,1.8428,0.7526
179.6875,16.9011,11.1964,6.8641,4.3546,0.7311,11.9067,3.3860,0.5529,11.2995,17.7617,9.1542,6.0122,3.5023,0.1456,7.0432,4.3109,1.5123,6.0330,3.5176
183.5938,15.0486,12.6998,9.2047,6.8934,2.4133,10.7913,3.5573,2.1745,13.2235,16.8613,12.0417,8.8945,5.2233,0.2739,8.1598,5.9611,0.8949,9.9611,6.4056
187.5000,12.7757,13.4232,10.8624,8.8478,3.4703,10.1222,4.2312,3.6872,13.4860,14.8350,13.2477,10.0902,5.1806,-0.6718,7.9026,5.4169,-0.8542,12.4742,8.2128
191.4062,10.9684,13.0876,11.1484,9.7535,3.6563,10.1518,5.2837,4.9083,12.3383,12.6258,12.2385,8.9712,3.2222,-2.3374,6.5742,2.9855,-3.2958,12.7103,8.1741
195.3125,9.6442,11.3649,9.7045,9.3596,3.1767,10.3601,6.2299,5.6808,10.0292,10.6010,8.9533,5.6973,0.0673,-3.8543,4.5045,-0.1645,-5.4003,10.3183,6.2576
199.2188,8.2054,8.1829,6.7381,7.6464,2.4478,9.9037,6.5315,5.8463,6.7033,8.5260,3.9566,1.2092,-3.1027,-4.4119,2.0373,-2.5995,-6.0974,5.6032,3.1207
203.1250,6.1273,3.9888,3.0224,4.8781,1.8103,8.2610,5.9457,5.3069,2.5695,5.9941,-1.6078,-3.0897,-5.2240,-3.7368,-0.4391,-3.3379,-4.8368,-0.4467,-0.2127
207.0312,3.5262,-0.2671,-0.3824,1.6170,1.3669,5.6248,4.6836,4.1204,-1.8460,2.9527,-6.3148,-5.8613,-5.8004,-2.2105,-2.5080,-2.3025,-1.8725,-6.3498,-2.7907
210.9375,1.1728,-3.4906,-2.5804,-1.4019,0.9974,2.7975,3.2780,2.5271,-5.6573,-0.0829,-8.9472,-6.3763,-5.0372,-0.6064,-3.8208,-0.2721,1.8516,-10.5853,-4.1008
214.8438,-0.0588,-4.9683,-3.2464,-3.5515,0.4945,0.6908,2.2489,0.8555,-7.9327,-2.2918,-8.9887,-4.8307,-3.6574,0.3547,-4.2291,1.6203,5.1282,-12.1894,-4.2266
218.7500,0.1121,-4.7454,-2.7692,-4.6101,-0.2925,-0.2122,1.7848,-0.6477,-8.2214,-3.0924,-6.8822,-2.2615,-2.5310,0.3601,-3.8605,2.5339,7.0022,-11.2028,-3.7415
222.6562,1.0584,-3.6142,-2.0396,-4.8717,-1.3790,-0.0853,1.6406,-1.9400,-6.9262,-2.5690,-3.8830,-0.0567,-2.2902,-0.3992,-3.0803,2.3289,7.1338,-8.6752,-3.3930
226.5625,1.5649,-2.6961,-1.9794,-4.9448,-2.6415,0.4366,1.3109,-3.1518,-5.1981,-1.4660,-1.5274,0.7252,-3.0722,-1.3936,-2.3491,1.5171,5.8661,-6.1499,-3.7106
230.4688,0.5859,-2.8467,-3.0480,-5.3245,-3.8507,0.7020,0.3669,-4.4039,-4.3312,-0.7438,-0.9407,-0.1190,-4.4673,-2.0425,-2.0474,0.8277,3.9952,-4.8686,-4.7131
234.3750,-2.0645,-4.2149,-4.9852,-6.0021,-4.7105,0.4260,-1.2536,-5.5943,-4.9992,-1.0006,-2.3192,-1.8565,-5.6827,-1.9619,-2.3454,0.7015,2.3728,-5.1412,-5.8577
238.2812,-5.5434,-6.1959,-6.9284,-6.3856,-4.9053,-0.2221,-3.1759,-6.3227,-6.8285,-2.1455,-4.8573,-3.2386,-5.8662,-1.0745,-3.1615,1.0529,1.5334,-6.2528,-6.2745
242.1875,-8.4383,-7.7941,-7.8497,-5.6241,-4.1777,-0.8424,-4.7745,-6.0402,-8.6171,-3.5244,-7.1706,-3.1922,-4.4767,0.4212,-4.2082,1.4330,1.5135,-6.9607,-5.1959
246.0938,-9.5552,-8.1824,-7.0929,-3.1600,-2.4365,-1.1544,-5.5002,-4.3626,-9.0931,-4.3851,-8.0046,-1.3956,-1.5523,2.1623,-5.0988,1.4416,1.9304,-6.2729,-2.3805
250.0000,-8.5526,-7.1515,-4.7357,0.8281,0.1502,-1.2288,-5.1601,-1.3570,-7.7357,-4.3543,-6.8666,1.5732,2.2501,3.7474,-5.4884,1.0626,2.2578,-4.0346,1.6810
253.9062,-6.0682,-5.2093,-1.5928,5.3804,3.1445,-1.4579,-3.9989,2.3893,-5.1267,-3.6210,-4.2530,4.5705,5.8798,4.8402,-5.2170,0.6712,2.1354,-0.9865,5.9029
257.8125,-3.3199,-3.2924,1.1428,9.1584,5.9530,-2.2976,-2.5528,5.9857,-2.5998,-2.7507,-1.3668,6.4778,8.2991,5.2411,-4.4113,0.7111,1.5419,1.6950,9.0381
261.7188,-1.4650,-2.2552,2.4435,11.0728,8.0341,-3.9468,-1.3776,8.6293,-1.4215,-2.3031,0.5074,6.7034,8.8907,4.9294,-3.4862,1.2948,0.7474,3.0579,10.2118
265.6250,-1.0964,-2.4221,1.9035,10.7839,9.0975,-6.1605,-0.8080,9.9441,-2.0423,-2.5308,0.6240,5.3478,7.6839,4.0688,-3.0096,2.0377,0.1007,2.8286,9.2943
269.5312,-2.1092,-3.4454,-0.1129,8.8091,9.1861,-8.3048,-0.8697,10.0730,-3.8997,-3.3350,-0.9308,3.0120,5.3031,2.9665,-3.4586,2.2718,-0.1922,1.4343,6.9303
273.4375,-3.9240,-4.5444,-2.6946,6.2007,8.5930,-9.6303,-1.3644,9.4833,-5.8723,-4.4475,-3.4005,0.4352,2.6802,1.9856,-4.9699,1.5006,-0.1437,-0.3474,4.2069
277.3438,-5.8606,-4.9863,-4.8505,3.9991,7.6635,-9.6244,-2.0431,8.6227,-7.0471,-5.6579,-5.8333,-1.8059,0.6796,1.4353,-7.2222,-0.2171,0.1293,-1.8397,2.1332
281.2500,-7.4298,-4.5306,-5.9696,2.7597,6.6068,-8.2660,-2.7494,7.6494,-7.2664,-6.9058,-7.5680,-3.4048,-0.1957,1.4774,-9.5335,-2.2249,0.6084,-2.7462,1.1910
285.1562,-8.4209,-3.5719,-6.0433,2.3803,5.4274,-6.0537,-3.4509,6.3988,-7.0991,-8.1926,-8.4505,-4.2696,0.0894,2.0866,-11.1421,-3.5992,1.4884,-3.1475,1.1799
289.0625,-8.8172,-2.8895,-5.5560,2.2681,4.0084,-3.7912,-4.1643,4.5845,-7.2931,-9.4176,-8.6966,-4.4213,1.1864,3.0758,-11.5261,-3.6381,3.0845,-3.3019,1.4175
292.9688,-8.6594,-3.1456,-5.1392,1.7156,2.2763,-2.2325,-4.8498,2.0811,-8.1247,-10.2950,-8.5512,-3.9458,2.5603,4.1660,-10.5945,-2.2045,5.5640,-3.4260,1.1692
296.8750,-7.9738,-4.4329,-5.2064,0.2729,0.3270,-1.7575,-5.3629,-0.9072,-9.1190,-10.4385,-8.0170,-3.0069,3.6979,5.0664,-8.6586,0.2633,8.6799,-3.5937,0.0666
300.7812,-6.7981,-6.1536,-5.7739,-2.0544,-1.5743,-2.2346,-5.5000,-3.9003,-9.3416,-9.5678,-6.8577,-1.8578,4.2510,5.5353,-6.2332,3.0260,11.7158,-3.7649,-1.7066
304.6875,-5.2575,-7.3159,-6.5364,-4.8378,-3.1138,-3.1270,-5.1049,-6.3693,-8.0566,-7.7061,-4.8714,-0.7953,4.0906,5.4160,-3.8061,5.3974,13.7275,-3.8717,-3.5434
308.5938,-3.6071,-7.0823,-7.1063,-7.4322,-4.0821,-3.7738,-4.1605,-7.9786,-5.2960,-5.2369,-2.2204,-0.0616,3.2852,4.6585,-1.7114,6.9646,13.9765,-3.8763,-4.7606
312.5000,-2.1843,-5.2441,-7.2323,-9.2319,-4.4536,-3.6952,-2.8046,-8.6850,-1.9498,-2.7818,0.4521,0.2459,2.0386,3.3398,-0.1416,7.6043,12.3113,-3.7693,-4.9540
316.4062,-1.2806,-2.3474,-6.8613,-9.8570,-4.3427,-2.7712,-1.2640,-8.6452,0.6870,-0.9576,2.2517,0.1914,0.6200,1.6742,0.7723,7.3730,9.2689,-3.5413,-4.1630
320.3125,-1.0019,0.5943,-6.0426,-9.2087,-3.8761,-1.2340,0.2416,-8.0158,1.6202,-0.1302,2.5002,-0.0615,-0.6884,-0.0053,0.9207,6.4038,5.8318,-3.1680,-2.7737
324.2188,-1.2078,2.6131,-4.7982,-7.4052,-3.0778,0.4836,1.5648,-6.7979,0.6737,-0.2764,1.1513,-0.3419,-1.6195,-1.3147,0.2659,4.8814,2.9814,-2.6244,-1.2441
328.1250,-1.5778,3.2254,-3.1005,-4.6713,-1.8496,1.9358,2.6329,-4.8406,-1.4760,-1.0083,-1.1251,-0.5291,-1.9357,-1.9233,-1.0619,3.0648,1.2982,-1.9060,0.1652
332.0312,-1.7831,2.5659,-0.9947,-1.2602,-0.0636,2.7957,3.4050,-2.0011,-3.7280,-1.7491,-3.2648,-0.5473,-1.4506,-1.6570,-2.7226,1.2833,0.8139,-1.0288,1.4961
335.9375,-1.6657,1.2001,1.2387,2.5458,2.2959,2.9077,3.8349,1.6458,-5.1512,-1.9848,-4.3520,-0.3273,-0.0796,-0.5487,-4.2442,-0.1327,1.1534,-0.0093,2.9851
339.8438,-1.3154,-0.2173,3.0546,6.3799,5.0312,2.2910,3.8741,5.6902,-5.3904,-1.4828,-4.0563,0.2086,2.0872,1.1873,-5.1927,-0.9484,1.8309,1.1460,4.8303
343.7500,-0.9848,-1.2150,3.8409,9.7520,7.7362,1.1337,3.5137,9.4474,-4.6932,-0.3735,-2.7102,1.1099,4.7268,3.2368,-5.3325,-1.0786,2.5035,2.4153,6.9865
347.6562,-0.8901,-1.5890,3.2693,12.1020,9.9095,-0.2224,2.8249,12.1716,-3.6194,0.9532,-1.0124,2.3303,7.2986,5.2756,-4.6752,-0.5645,3.0488,3.7044,9.1142
351.5625,-1.0285,-1.3331,1.5768,12.9638,11.1248,-1.3480,1.9546,13.3224,-2.6660,2.0874,0.4257,3.6894,9.1737,7.0235,-3.3999,0.4914,3.4812,4.8087,10.7098
355.4688,-1.1483,-0.5470,-0.4449,12.1770,11.1849,-1.8700,1.0647,12.7556,-2.0364,2.8411,1.3917,4.9120,9.8595,8.2643,-1.7151,1.9664,3.8215,5.4469,11.3414
359.3750,-0.9189,0.5836,-1.8089,10.0261,10.2022,-1.6590,0.2439,10.7626,-1.6439,3.3393,2.0712,5.7446,9.2316,8.8603,0.2318,3.7029,4.0430,5.3817,10.8630
363.2812,-0.2025,1.7461,-1.8714,7.2026,8.5760,-0.9586,-0.5518,7.9545,-1.2809,3.8940,2.7869,6.0836,7.6458,8.7938,2.3413,5.4738,4.1263,4.5693,9.4995
367.1875,0.7603,2.4979,-0.7373,4.5666,6.8666,-0.3481,-1.4837,5.0490,-0.8105,4.7356,3.6927,6.0310,5.8368,8.2157,4.4751,6.9925,4.1507,3.2397,7.7587
371.0938,1.4092,2.3855,0.7295,2.7992,5.5964,-0.5049,-2.7334,2.6451,-0.2692,5.7893,4.6367,5.8186,4.6063,7.4425,6.3861,7.9922,4.3125,1.8269,6.2050
375.0000,1.1757,1.1650,1.3301,2.1084,5.0382,-1.8560,-4.3619,1.0592,0.1473,6.6695,5.2564,5.6231,4.4261,6.8450,7.7356,8.3263,4.8159,0.7544,5.1896
378.9062,-0.1249,-0.9965,0.1752,2.1420,5.0755,-4.2964,-6.1954,0.2687,0.1784,6.9172,5.2038,5.3719,5.1516,6.6460,8.2003,8.0067,5.6925,0.1874,4.6573
382.8125,-2.0802,-3.4847,-2.7965,2.1690,5.2197,-7.1405,-7.8061,-0.0242,-0.3789,6.3271,4.3310,4.6782,6.0206,6.7382,7.6068,7.1457,6.6814,-0.0894,4.1369
386.7188,-3.8165,-5.4219,-6.7017,1.4557,4.8135,-9.3605,-8.6234,-0.2350,-1.5548,5.1230,2.7393,2.9969,5.9848,6.6700,6.0160,5.8565,7.2877,-0.5529,2.9606
390.6250,-4.4440,-5.9961,-10.0587,-0.3363,3.3596,-10.0079,-8.1504,-0.7021,-3.1260,3.8386,0.7146,-0.0253,4.2466,5.8718,3.7204,4.2192,7.0268,-1.6108,0.6496
394.5312,-3.5585,-4.7760,-11.4140,-2.9278,0.8238,-8.6159,-6.2016,-1.5325,-4.6084,2.9745,-1.3561,-4.1738,0.7476,4.0367,1.1706,2.3635,5.7331,-3.2378,-2.7052
398.4375,-1.4829,-1.8660,-9.9531,-5.4967,-2.2564,-5.3859,-3.0467,-2.5544,-5.3640,2.6816,-3.0265,-8.5047,-3.6589,1.4290,-1.1284,0.6023,3.7401,-4.8215,-6.2922
402.3438,0.9208,2.1514,-5.8323,-7.0357,-4.9509,-1.0749,0.6308,-3.4027,-4.8248,2.7184,-3.8241,-11.5722,-7.4831,-1.1102,-2.7240,-0.5415,1.7911,-5.3761,-8.8095
406.2500,2.7741,6.4314,-0.1238,-6.8356,-6.3435,3.3437,3.9706,-3.6985,-2.7607,2.7332,-3.3449,-12.0234,-9.2354,-2.5337,-3.3143,-0.5220,0.6897,-4.0633,-9.0436
410.1562,3.7237,10.1362,5.5705,-4.8614,-5.9669,7.0737,6.2750,-3.2352,0.5443,2.6620,-1.4307,-9.2973,-8.1316,-2.1610,-2.8287,0.8839,0.8603,-0.7494,-6.5349
414.0625,4.1588,12.6620,9.6727,-1.8209,-4.0355,9.7548,7.2885,-2.0778,4.3354,2.9220,1.6644,-4.0385,-4.5116,-0.1182,-1.4556,3.2966,2.0712,3.7549,-1.9571
417.9688,4.9566,13.7732,11.1589,1.1354,-1.3413,11.4864,7.2700,-0.5259,7.6716,4.2061,5.2684,2.0675,0.2678,2.6486,0.4229,5.7642,3.4999,7.9794,3.0651
421.8750,6.9039,13.6251,9.8993,2.9567,1.1369,12.6377,6.8147,1.0354,9.8296,6.9802,8.5259,7.0276,4.4431,4.8400,2.3892,7.1705,4.1406,10.5078,6.6849
425.7812,10.1478,12.6752,6.6996,3.2095,2.7013,13.5690,6.5203,2.3142,10.6123,11.0245,10.7803,9.4875,6.6672,5.4991,4.1743,6.8229,3.3485,10.7372,7.7544
429.6875,14.0134,11.4984,3.0111,2.2941,3.2320,14.4146,6.6832,3.2283,10.3813,15.3663,11.8733,9.3669,6.6247,4.5338,5.7470,4.8576,1.2235,9.2241,6.4286
433.5938,17.3013,10.5563,0.3878,1.2288,3.1704,15.0295,7.1884,3.9067,9.7882,18.6937,12.1470,7.8012,5.1185,2.7526,7.2291,2.1802,-1.3942,7.3701,4.0798
437.5000,18.8832,10.0100,-0.1235,1.1020,3.2245,15.1069,7.6387,4.5904,9.3606,20.0079,12.1241,6.4088,3.5822,1.3962,8.6688,-0.0502,-3.3281,6.5935,2.5364
441.4062,18.2456,9.6731,1.5912,2.4855,3.9773,14.3796,7.6232,5.4944,9.1910,19.0992,12.0735,6.3115,3.2888,1.4495,9.8311,-1.0755,-3.6556,7.4688,3.0667
445.3125,15.6812,9.1458,4.6768,5.1275,5.6065,12.7874,6.9520,6.6976,8.9141,16.5525,11.7760,7.4990,4.6840,3.1361,10.1921,-0.9145,-2.1606,9.3621,5.6882
449.2188,12.0577,8.0679,7.7004,8.0892,7.8319,10.5174,5.7255,8.0980,7.9773,13.3137,10.6794,8.9151,7.1964,5.8633,9.2076,-0.2250,0.5901,10.8042,9.1950
453.1250,8.3410,6.3444,9.2959,10.2267,10.0684,7.9088,4.2244,9.4289,6.0277,10.1415,8.3571,9.1875,9.5940,8.5927,6.7262,0.2277,3.5664,10.3815,11.8583
457.0312,5.1719,4.2023,8.7418,10.7271,11.6654,5.2915,2.7243,10.3153,3.1691,7.3129,4.9506,7.5189,10.6520,10.3718,3.2715,0.1123,5.7860,7.5964,12.3583
460.9375,2.7155,2.0382,6.1851,9.4012,12.1114,2.8603,1.3615,10.3551,-0.0640,4.7354,1.2638,4.1710,9.7435,10.7093,-0.0457,-0.2948,6.7213,3.1635,10.3932
464.8438,0.8061,0.1598,2.4234,6.6138,11.1498,0.6574,0.1196,9.2271,-2.9843,2.3062,-1.5960,0.2661,7.0536,9.6387,-2.0114,-0.4035,6.4085,-1.4288,6.6571
468.7500,-0.7690,-1.3927,-1.5873,2.9810,8.8257,-1.3413,-1.0922,6.8276,-5.0920,0.1928,-2.8136,-2.9153,3.3718,7.5436,-1.9373,0.1743,5.2709,-4.7875,2.3013
472.6562,-2.0593,-2.8099,-5.1791,-0.9079,5.5025,-3.1088,-2.3464,3.4033,-6.2610,-1.1943,-2.3114,-4.6402,-0.3330,4.9479,-0.0536,1.2928,3.8366,-6.3447,-1.6992
476.5625,-2.9339,-4.2772,-8.1109,-4.5560,1.8504,-4.5119,-3.6488,-0.3915,-6.6711,-1.4990,-0.7470,-4.9776,-3.2693,2.4213,2.6059,2.3879,2.5551,-6.4937,-4.8580
480.4688,-3.2299,-5.7107,-10.3641,-7.4341,-1.2427,-5.3615,-4.9322,-3.5943,-6.5661,-0.7321,0.9281,-4.4948,-4.9486,0.5886,4.7857,2.9625,1.7849,-6.0958,-7.0462
484.3750,-2.9327,-6.6804,-11.8030,-8.8799,-2.8875,-5.5390,-6.0526,-5.2190,-6.0334,0.6622,2.0468,-3.6926,-5.1271,0.0923,5.7150,3.0706,1.8563,-5.7531,-8.1497
488.2812,-2.2537,-6.6153,-12.0031,-8.2336,-2.5166,-5.1046,-6.7712,-4.6525,-4.9762,2.0400,2.5580,-2.6348,-3.7448,1.3865,5.4988,3.4052,3.0463,-5.3848,-7.8871
492.1875,-1.5597,-5.1893,-10.4210,-5.2285,-0.1900,-4.3000,-6.7593,-1.9890,-3.3010,2.9075,2.9113,-1.0484,-0.9972,4.4036,4.9478,4.8642,5.3962,-4.4066,-5.9977
496.0938,-1.2064,-2.6335,-6.8223,-0.3985,3.2928,-3.4223,-5.6805,1.8885,-1.1727,3.1201,3.6109,1.2154,2.5061,8.3163,4.9592,7.8451,8.4771,-2.3613,-2.6663
500.0000,-1.3796,0.2597,-1.6724,4.8378,6.5979,-2.6342,-3.3637,5.5810,0.8766,2.8028,4.7719,3.7542,5.6978,11.6484,5.8544,11.7464,11.3282,0.4870,1.1905
503.9062,-2.0255,2.4904,3.8152,8.6096,8.3510,-1.8327,0.0118,7.7194,2.1138,2.0982,5.9865,5.6054,7.3115,12.8144,7.1036,15.0550,12.7300,3.0708,4.1074
507.8125,-2.8924,3.3747,8.0729,9.3992,7.7117,-0.6741,3.8497,7.5389,1.9836,0.9845,6.5763,5.7252,6.4254,10.8809,7.6218,16.0432,11.7549,4.0642,4.7233
511.7188,-3.6482,2.9223,9.8342,6.7939,4.7466,1.2285,7.2788,5.1904,0.4737,-0.6633,6.0363,3.6583,3.0208,6.1386,6.4477,13.7039,8.3096,2.7203,2.5439
515.6250,-4.0123,1.8238,8.6929,1.7284,0.3930,4.0296,9.4711,1.6169,-1.7830,-2.8168,4.3661,-0.0653,-1.8161,0.1144,3.3806,8.3796,3.3211,-0.5594,-1.6863
519.5312,-3.8476,1.0444,5.2648,-3.9585,-3.9819,7.4544,9.9804,-1.9427,-3.7672,-5.0733,2.0837,-4.0995,-6.2646,-5.0610,-0.8148,1.7050,-1.6044,-4.3241,-6.2810
523.4375,-3.1818,1.2685,0.8827,-8.4153,-7.1967,10.8125,8.9144,-4.5503,-4.5667,-6.6959,-0.0483,-6.9383,-8.5863,-7.6346,-4.7505,-4.1236,-4.9065,-6.8085,-9.4401
527.3438,-2.1588,2.5327,-2.9831,-10.6054,-8.7191,13.2481,6.8436,-5.9362,-3.8196,-6.9494,-1.3838,-7.6568,-7.9581,-7.0398,-7.0901,-7.3561,-5.7840,-6.8569,-10.1198
531.2500,-0.9519,4.2630,-5.2660,-10.6102,-8.7412,14.1168,4.5102,-6.4478,-1.8480,-5.5307,-1.6198,-6.2920,-4.8473,-4.0879,-7.1654,-7.4320,-4.4970,-4.4803,-8.4387
535.1562,0.3107,5.6705,-5.5739,-9.2895,-7.8676,13.2952,2.5077,-6.6499,0.5820,-2.8062,-0.8087,-3.6692,-0.7054,-0.4458,-5.2195,-5.0897,-2.0989,-0.7417,-5.4209
539.0625,1.5606,6.2338,-4.1486,-7.5864,-6.6466,11.2472,1.1018,-6.8571,2.7050,0.3125,0.7716,-0.8434,2.8279,2.2848,-2.2024,-1.8389,0.2084,2.9010,-2.3059
542.9688,2.7378,5.9583,-1.6391,-5.9543,-5.2529,8.7925,0.2539,-6.9064,4.1177,2.7872,2.7484,1.4565,4.7369,3.3511,0.7076,0.8615,1.6975,5.3501,0.1023
546.8750,3.7181,5.2676,1.1495,-4.2521,-3.5070,6.6937,-0.2211,-6.3062,4.8491,3.9127,4.7134,3.0440,4.9992,3.0671,2.5813,2.2606,2.3625,6.2742,1.6630
550.7812,4.2949,4.6362,3.4502,-2.0973,-1.1735,5.2844,-0.4874,-4.6414,5.1466,3.5665,6.2437,4.0931,4.3590,2.4039,3.0104,2.4919,2.7082,6.0038,2.6595
554.6875,4.2631,4.2407,4.6833,0.6436,1.7071,4.3477,-0.6094,-1.9443,5.1829,2.1526,6.9697,4.7775,3.7337,2.2716,2.1266,2.2595,3.2945,5.1034,3.3728
558.5938,3.5711,3.8721,4.5917,3.6097,4.7112,3.3144,-0.5746,1.2240,4.9168,0.3342,6.7189,5.0434,3.6747,2.9732,0.4482,2.2958,4.3676,3.9766,3.8340
562.5000,2.4260,3.1513,3.3368,6.1088,7.2276,1.6611,-0.3699,4.0276,4.2005,-1.2634,5.6508,4.6856,4.2036,4.1521,-1.3388,2.9363,5.7967,2.7580,3.9162
566.4062,1.2418,1.8736,1.4621,7.5391,8.8034,-0.7325,-0.0565,5.7677,3.0126,-2.2447,4.2510,3.6380,5.0359,5.1955,-2.5965,4.0310,7.2827,1.4795,3.6193
570.3125,0.4131,0.2183,-0.3318,7.7371,9.3737,-3.4772,0.1931,6.1757,1.5938,-2.5044,3.1145,2.2143,5.9297,5.7515,-2.9255,5.1741,8.6190,0.2866,3.2400
574.2188,0.0440,-1.3268,-1.5358,6.9984,9.1989,-5.8766,0.1055,5.4205,0.3425,-2.2004,2.6082,1.0686,6.8514,5.9646,-2.3032,6.0439,9.7811,-0.5263,3.2207
578.1250,-0.1648,-2.2691,-2.1101,5.7825,8.5647,-7.3037,-0.6218,3.8754,-0.4667,-1.6799,2.6197,0.8545,7.8453,6.2695,-1.1105,6.6094,10.7965,-0.7072,3.7633
582.0312,-0.7430,-2.4220,-2.4873,4.3516,7.4925,-7.5212,-2.1827,1.8544,-0.9141,-1.3574,2.5863,1.7926,8.7621,6.9234,0.0082,7.0848,11.5408,-0.3002,4.5215
585.9375,-2.0604,-2.0091,-3.2534,2.6326,5.7130,-6.7667,-4.4932,-0.4782,-1.4079,-1.5454,1.8289,3.4412,9.1324,7.6590,0.4395,7.6982,11.6712,0.2705,4.6712
589.8438,-3.9755,-1.5061,-4.6869,0.4061,2.9610,-5.5852,-7.0830,-2.9849,-2.3842,-2.2878,0.0071,4.8488,8.3563,7.7558,-0.0737,8.4601,10.7962,0.3898,3.3903
593.7500,-5.8008,-1.3507,-6.4676,-2.3334,-0.6164,-4.5438,-9.1635,-5.3611,-3.9456,-3.3032,-2.5937,5.0250,6.1213,6.5191,-1.2602,9.1028,8.7785,-0.3952,0.4592
597.6562,-6.6729,-1.7272,-7.7863,-5.1358,-4.2601,-4.0099,-9.9129,-7.0769,-5.7200,-4.1172,-5.1460,3.4689,2.7521,3.8456,-2.4377,9.2291,5.9473,-2.1001,-3.4343
601.5625,-6.1235,-2.5520,-7.8204,-7.1820,-6.8143,-4.0918,-8.8791,-7.5519,-7.0747,-4.3489,-6.7109,0.4593,-0.7864,0.4678,-2.8909,8.5643,3.0393,-4.2908,-6.9279
605.4688,-4.4694,-3.6220,-6.2787,-7.6666,-7.2774,-4.7126,-6.2705,-6.4664,-7.5524,-3.9828,-6.7664,-3.0468,-3.2893,-2.3283,-2.3085,7.1377,0.8790,-6.3301,-8.6449
609.3750,-2.7182,-4.7734,-3.6455,-6.2376,-5.3577,-5.7054,-2.9229,-3.9908,-7.2129,-3.4324,-5.5149,-5.8439,-3.8944,-3.3645,-1.0170,5.2741,-0.0130,-7.7026,-7.8874
613.2812,-1.9995,-5.9235,-0.9469,-3.2153,-1.6755,-6.8516,0.0948,-0.7578,-6.6217,-3.3129,-3.7850,-7.0073,-2.5053,-2.2063,0.1551,3.4076,0.3585,-8.2105,-4.9507
617.1875,-2.8691,-6.9890,0.8146,0.5325,2.5261,-7.8709,2.0266,2.4169,-6.4755,-4.0488,-2.5919,-6.2763,0.1829,0.6129,0.3203,1.8446,1.5325,-7.9573,-0.9108
621.0938,-4.9460,-7.7978,1.1805,3.9591,5.9808,-8.4411,2.7833,4.8836,-7.1324,-5.5704,-2.6221,-4.1448,3.0354,3.8996,-0.9654,0.6286,2.8774,-7.2048,2.9280
625.0000,-7.1351,-8.1113,0.3760,6.2240,7.9400,-8.3010,2.8642,6.3551,-8.3848,-7.3139,-3.9386,-1.6576,4.9727,6.4238,-3.4420,-0.4170,3.8948,-6.2581,5.5610
628.9062,-8.2977,-7.7714,-0.9937,6.9018,8.3476,-7.3926,2.8919,6.8501,-9.6371,-8.5367,-6.0464,-0.0195,5.3399,7.4734,-6.2816,-1.5105,4.3639,-5.4559,6.5095
632.8125,-7.9226,-6.8538,-2.4329,5.9781,7.6090,-5.9299,3.0890,6.4798,-10.3476,-8.7424,-8.2343,-0.1561,4.0174,7.0451,-8.5406,-2.7268,4.2906,-5.1993,5.7345
636.7188,-6.3576,-5.6822,-3.8574,3.7338,6.1838,-4.3033,3.0843,5.2783,-10.3966,-7.9369,-9.9528,-2.3584,1.3288,5.6403,-9.6594,-3.9258,3.7677,-5.8852,3.4416
640.6250,-4.4722,-4.6563,-5.4923,0.6459,4.3158,-2.8515,2.2087,3.2252,-10.1070,-6.5601,-11.0059,-6.1166,-2.1104,3.8798,-9.7213,-4.8330,2.8853,-7.6847,-0.0012
644.5312,-3.0191,-4.0010,-7.4724,-2.6500,2.0675,-1.6509,0.0827,0.4396,-9.9136,-5.1673,-11.4795,-10.2187,-5.5074,2.2110,-9.3327,-5.2069,1.7565,-10.2810,-3.9910
648.4375,-2.1538,-3.6234,-9.4809,-5.3973,-0.4268,-0.4884,-2.9378,-2.6311,-9.9488,-4.0962,-11.5144,-13.1288,-7.9945,0.8506,-9.2124,-4.9773,0.5959,-12.7897,-7.6186
652.3438,-1.4371,-3.1936,-10.7424,-6.8421,-2.7410,0.9383,-5.8113,-5.2176,-9.8753,-3.3366,-11.1106,-13.5577,-8.8001,-0.0962,-9.7381,-4.2648,-0.2627,-14.0243,-9.8006
656.2500,-0.2777,-2.3970,-10.4166,-6.4582,-4.1845,2.7238,-7.3630,-6.4829,-9.1049,-2.6525,-10.1062,-11.0202,-7.5108,-0.5110,-10.7075,-3.2799,-0.4712,-13.0445,-9.6619
660.1562,1.5345,-1.1714,-8.1381,-4.1780,-4.0941,4.5837,-6.9830,-5.8978,-7.2465,-1.8223,-8.3309,-6.1192,-4.3196,-0.2608,-11.4395,-2.1821,0.1504,-9.7004,-6.9833
664.0625,3.6031,0.2482,-4.3281,-0.4849,-2.2057,5.9584,-4.9925,-3.5140,-4.4501,-0.8043,-5.8130,-0.3731,-0.0830,0.6868,-11.1474,-1.0018,1.4834,-4.8290,-2.4183
667.9688,5.1577,1.5049,-0.0599,3.7147,1.1411,6.3452,-2.4287,0.0328,-1.3952,0.2725,-2.8875,4.3916,3.9231,2.1533,-9.3791,0.3195,3.1289,0.0614,2.7098
671.8750,5.5642,2.3680,3.4402,7.3998,5.0946,5.6401,-0.3994,3.7869,1.0664,1.2396,-0.1252,6.8198,6.4862,3.7568,-6.2926,1.8049,4.5735,3.4736,6.9524
675.7812,4.7460,2.8573,5.3386,9.7743,8.6198,4.2468,0.5509,6.8515,2.3595,2.0109,1.8829,6.5952,6.9485,5.0539,-2.6268,3.3300,5.3982,4.5941,9.3233
679.6875,3.2451,3.1502,5.4698,10.4832,10.8755,2.8685,0.6494,8.6815,2.4258,2.6070,2.7657,4.4976,5.4479,5.7229,0.6196,4.6213,5.4063,3.5888,9.6046
683.5938,1.9122,3.3666,4.2333,9.6328,11.4549,2.1144,0.5832,9.1712,1.6366,3.1022,2.5196,1.9225,2.7883,5.6706,2.6479,5.3847,4.6212,1.3900,8.2437
687.5000,1.4609,3.4290,2.2605,7.6547,10.4210,2.1807,0.9350,8.5499,0.4980,3.5851,1.5030,0.1391,0.0258,5.0105,3.2406,5.4951,3.2021,-0.8509,5.9753
691.4062,2.1627,3.1364,0.1100,5.1161,8.1845,2.8029,1.7830,7.1907,-0.6011,4.1830,0.3000,-0.2956,-1.9877,3.9565,2.8744,5.1193,1.3744,-2.2988,3.4510
695.3125,3.8196,2.4049,-1.8355,2.5634,5.3230,3.4866,2.7240,5.4467,-1.4384,5.1023,-0.4789,0.3466,-2.8738,2.7235,2.4986,4.6762,-0.5767,-2.6791,1.0880
699.2188,5.9492,1.4718,-3.2967,0.4315,2.4174,3.8376,3.2465,3.5724,-1.8416,6.5802,-0.3891,1.3333,-2.7177,1.4948,3.0695,4.6337,-2.2802,-2.1748,-0.8494
703.1250,8.0136,0.8622,-4.0064,-0.9994,-0.0690,3.7665,3.1401,1.7242,-1.5949,8.7051,0.7111,2.0458,-1.8616,0.4452,5.0545,5.2475,-3.3057,-1.1458,-2.1067
707.0312,9.5647,1.0861,-3.7428,-1.6220,-1.8637,3.4569,2.6381,0.0036,-0.5189,11.1977,2.6009,2.3712,-0.6705,-0.2387,8.1510,6.3923,-3.2919,0.0975,-2.4180
710.9375,10.2933,2.2492,-2.4852,-1.4975,-2.8967,3.1584,2.2194,-1.4886,1.2981,13.3367,4.7302,2.6698,0.5902,-0.3874,11.3673,7.5881,-2.1299,1.3373,-1.6536
714.8438,10.0387,3.8505,-0.5565,-0.8163,-3.2397,2.9714,2.2567,-2.6104,3.3131,14.1632,6.3489,3.3741,1.7387,0.0793,13.4376,8.2107,-0.0849,2.3549,-0.0135
718.7500,8.8043,4.9360,1.3974,0.1717,-2.9934,2.7692,2.7839,-3.1684,4.5959,12.9123,6.7179,4.5197,2.5963,1.0848,13.3691,7.7711,2.2499,2.8513,1.9229
722.6562,6.7589,4.5495,2.6298,1.2318,-2.1889,2.2839,3.5312,-2.9599,4.1988,9.4391,5.3506,5.5545,2.9448,2.3856,10.8550,6.1180,4.1745,2.4971,3.3849
726.5625,4.1844,2.2282,2.6134,2.1889,-0.7792,1.2779,4.1566,-1.8653,1.6516,4.3664,2.2060,5.5810,2.5793,3.6318,6.3609,3.4732,5.1711,1.1045,3.7601
730.4688,1.3711,-1.7313,1.2814,2.9320,1.2569,-0.3106,4.4683,0.0475,-2.7063,-1.1600,-2.2457,3.9026,1.4359,4.4798,0.8736,0.3182,5.1078,-1.1964,2.9060
734.3750,-1.4687,-6.3663,-0.9343,3.4042,3.7693,-2.3096,4.4790,2.4742,-7.7689,-5.9721,-7.1238,0.5432,-0.2831,4.7153,-4.5226,-2.7776,4.2572,-3.9084,1.2399
738.2812,-4.1955,-10.4238,-3.2708,3.6099,6.3699,-4.3414,4.2925,4.9316,-12.0773,-9.3391,-11.3777,-3.5827,-2.0787,4.3474,-9.0105,-5.2941,3.1420,-6.2929,-0.4434
742.1875,-6.6405,-12.8137,-4.9137,3.6368,8.5225,-5.9103,3.9600,6.9119,-14.3925,-11.1265,-14.0857,-6.9742,-3.2703,3.6378,-12.1853,-6.8289,2.3056,-7.6170,-1.3266
746.0938,-8.5050,-12.9446,-5.2669,3.6544,9.7557,-6.5297,3.4423,8.0551,-14.1474,-11.6125,-14.7099,-8.1826,-3.2431,3.0314,-13.9739,-7.1296,2.1221,-7.4049,-0.9179
750.0000,-9.3814,-10.8540,-4.1328,3.8427,9.8637,-5.8783,2.6991,8.2400,-11.5924,-11.1491,-13.2276,-6.4680,-1.7380,2.9811,-14.4579,-6.1343,2.7011,-5.5981,0.7546
753.9062,-8.9298,-7.1454,-1.7709,4.2624,8.9588,-3.9511,1.8012,7.5498,-7.6209,-9.9339,-10.1086,-2.1583,0.9538,3.7134,-13.7459,-4.0208,3.8857,-2.5808,3.1640
757.8125,-7.1122,-2.7955,1.1707,4.7473,7.3487,-1.1327,0.9467,6.1554,-3.4025,-8.0322,-6.1579,3.4550,4.0188,5.0468,-11.9664,-1.2132,5.3108,0.9201,5.4876
761.7188,-4.3087,1.1196,3.8469,4.9268,5.3441,1.8826,0.3485,4.2180,0.0095,-5.5777,-2.2781,8.6266,6.4096,6.3948,-9.3312,1.7139,6.5081,4.0287,6.9128
765.6250,-1.2082,3.7256,5.4949,4.4186,3.1518,4.3270,0.0837,1.8902,1.9656,-2.9328,0.7778,11.8432,7.2952,7.0099,-6.1670,4.2256,7.0561,5.9651,6.9418
769.5312,1.4764,4.6076,5.7169,3.1012,0.9246,5.6562,0.0316,-0.6005,2.3448,-0.6328,2.5970,12.3911,6.4534,6.3764,-2.8491,6.0248,6.7496,6.2847,5.5887
773.4375,3.2905,3.9217,4.6390,1.2882,-1.1035,5.7483,-0.0396,-2.8807,1.5115,0.8760,3.1848,10.5746,4.3848,4.5354,0.3288,7.1296,5.7156,5.0328,3.3838
777.3438,4.1441,2.2915,2.8501,-0.3509,-2.5587,4.8901,-0.3002,-4.4785,0.1355,1.5160,2.9076,7.5052,2.0524,2.1169,3.2459,7.7692,4.3864,2.7400,1.1555
781.2500,4.2085,0.5145,1.1276,-1.1240,-3.0509,3.5682,-0.7241,-5.0020,-1.0672,1.6499,2.3176,4.5656,0.3724,0.0193,5.9235,8.1542,3.2954,0.2322,-0.3357
785.1562,3.7204,-0.7802,0.0828,-0.7224,-2.4248,2.2070,-1.0897,-4.3527,-1.5837,1.8624,1.9245,2.7919,-0.2597,-1.0946,8.3784,8.2749,2.7779,-1.6818,-0.7436
789.0625,2.8610,-1.3451,-0.0864,0.5602,-0.9490,1.0215,-1.1057,-2.8235,-1.2532,2.5782,2.0027,2.4566,-0.1251,-1.1696,10.4679,7.8783,2.7539,-2.5159,-0.2757
792.9688,1.7770,-1.2948,0.3907,1.9576,0.7372,0.0520,-0.5770,-0.9937,-0.2654,3.7683,2.5119,3.0429,0.0728,-0.7454,11.8545,6.6530,2.7511,-2.2645,0.4647
796.8750,0.6702,-0.9079,1.0549,2.6523,1.9320,-0.6963,0.4883,0.5336,0.9744,4.9477,3.1583,3.6132,-0.2949,-0.5566,12.1440,4.5077,2.1917,-1.3445,0.8516
800.7812,-0.1858,-0.4136,1.4813,2.2355,2.2519,-1.1600,1.8671,1.3969,2.0308,5.4733,3.5621,3.3741,-1.3616,-1.0101,11.1278,1.7519,0.7837,-0.3634,0.6042
804.6875,-0.5640,0.0861,1.4488,0.9247,1.8275,-1.2645,3.1821,1.5881,2.5856,4.9537,3.4466,2.1354,-2.6874,-1.8978,8.9779,-0.9527,-1.2315,0.1687,-0.0726
808.5938,-0.4566,0.5360,0.9488,-0.5889,1.1762,-1.0666,3.9944,1.3596,2.5006,3.5119,2.7617,0.4199,-3.5492,-2.5417,6.2564,-2.8543,-3.1492,0.0467,-0.6529
812.5000,-0.1414,0.8064,0.0959,-1.5477,0.8453,-0.8406,3.9112,1.0121,1.8115,1.7354,1.6914,-0.8316,-3.3834,-2.2652,3.7123,-3.4362,-4.1559,-0.5788,-0.6356
816.4062,-0.0475,0.6802,-0.9479,-1.5250,1.0787,-0.9886,2.7110,0.7159,0.6938,0.3503,0.5535,-0.7859,-2.0795,-0.8545,1.9656,-2.6205,-3.7477,-1.3095,0.1641
820.3125,-0.4898,-0.0057,-1.9792,-0.5788,1.7363,-1.7946,0.4663,0.4719,-0.5807,-0.1811,-0.3557,0.8172,0.0419,1.3089,1.2447,-0.7576,-1.9487,-1.7041,1.5565
824.2188,-1.4660,-1.1773,-2.7360,0.8847,2.4924,-3.1884,-2.4001,0.2053,-1.7119,0.1005,-0.8985,3.5081,2.4938,3.5170,1.3140,1.5566,0.7875,-1.4944,3.1503
828.1250,-2.6703,-2.4729,-2.9483,2.3913,3.1244,-4.7082,-5.1980,-0.1150,-2.4814,0.7049,-1.1589,6.3008,4.8876,5.1826,1.6154,3.7070,3.8857,-0.7299,4.5910
832.0312,-3.7160,-3.4180,-2.4886,3.6081,3.6431,-5.7252,-7.2029,-0.4341,-2.8728,0.9931,-1.4082,8.1363,6.9932,6.1269,1.5386,5.2128,6.9218,0.2087,5.6727
835.9375,-4.3898,-3.7321,-1.5321,4.3636,4.1614,-5.8008,-7.9495,-0.6763,-3.1209,0.5374,-1.9878,8.3109,8.5823,6.5114,0.6758,5.7749,9.6673,0.7497,6.2642
839.8438,-4.7407,-3.5444,-0.5741,4.5353,4.6244,-4.9454,-7.4234,-0.8447,-3.6164,-0.6642,-3.1532,6.6925,9.2494,6.5089,-1.0511,5.2642,11.9103,0.3823,6.1622
843.7500,-4.9493,-3.3323,-0.2209,3.9616,4.6617,-3.6053,-6.0324,-1.0549,-4.6753,-2.2291,-4.9398,3.6743,8.4366,6.0126,-3.4197,3.7139,13.2520,-1.0791,5.0603
847.6562,-5.1070,-3.5900,-0.8369,2.5037,3.7399,-2.3878,-4.3678,-1.4542,-6.2938,-3.6368,-7.1088,-0.0428,5.7340,4.6523,-6.0406,1.3329,13.1111,-3.3550,2.7279
851.5625,-5.1092,-4.4425,-2.2686,0.2327,1.5585,-1.7098,-2.9020,-2.0725,-8.0557,-4.5171,-9.2037,-3.6923,1.2844,2.1332,-8.5027,-1.4906,11.0105,-5.7721,-0.6959
855.4688,-4.7554,-5.4838,-3.8533,-2.4096,-1.5803,-1.5934,-1.8096,-2.7175,-9.2835,-4.8018,-10.7057,-6.6089,-4.0049,-1.3544,-10.4623,-4.2365,6.9866,-7.5337,-4.5208
859.3750,-3.9633,-5.9758,-4.7469,-4.6414,-4.7213,-1.7187,-1.0006,-3.0007,-9.3700,-4.6616,-11.2245,-8.3064,-8.6544,-4.9898,-11.6625,-6.3558,1.8293,-8.0542,-7.6277
863.2812,-2.8929,-5.2937,-4.3814,-5.6059,-6.6220,-1.6643,-0.3007,-2.5042,-8.0954,-4.2929,-10.6428,-8.5125,-11.1735,-7.5993,-11.9213,-7.3908,-3.0690,-7.1823,-8.8936
867.1875,-1.8530,-3.3288,-2.7680,-4.7497,-6.3509,-1.1609,0.3830,-1.0008,-5.7367,-3.7174,-9.1440,-7.2033,-10.7106,-8.2196,-11.1350,-7.0657,-6.2354,-5.2003,-7.7081
871.0938,-1.0544,-0.5810,-0.4542,-2.1075,-3.7756,-0.2005,1.0366,1.3924,-2.9096,-2.7434,-7.1141,-4.6330,-7.4466,-6.6041,-9.3179,-5.3347,-6.7538,-2.6311,-4.2919
875.0000,-0.4218,2.1167,1.8179,1.6676,0.3445,1.0310,1.6441,4.2095,-0.2576,-1.1214,-4.9703,-1.3191,-2.5288,-3.3601,-6.6514,-2.4031,-4.6732,0.0051,0.3617
878.9062,0.3607,4.0559,3.5139,5.5414,4.6988,2.3114,2.2922,6.7849,1.8066,1.2163,-3.0082,2.0498,2.4027,0.3516,-3.4925,1.2630,-0.9760,2.3284,4.8819
882.8125,1.5876,4.9990,4.5044,8.4771,7.9910,3.5063,3.1445,8.4823,3.1681,4.0069,-1.3412,4.7738,5.8457,3.3578,-0.3070,4.9649,2.8623,4.0863,8.0358
886.7188,3.2599,5.2112,4.9633,9.7719,9.4187,4.5913,4.2761,8.9025,3.8950,6.7196,0.0510,6.3180,6.9362,4.9368,2.4555,7.8875,5.4835,5.0727,9.1175
890.6250,5.0295,5.1931,5.0896,9.2258,8.8555,5.5855,5.5022,7.9892,4.0820,8.8001,1.2144,6.4426,5.6465,4.9857,4.4834,9.3223,6.1330,5.1114,8.0794
894.5312,6.4130,5.3176,4.8886,7.1184,6.7209,6.4672,6.3693,6.0030,3.7865,9.9373,2.1307,5.2466,2.6713,3.8806,5.6527,8.9321,4.8397,4.1604,5.4289
898.4375,7.1082,5.6070,4.1757,4.0526,3.6935,7.1283,6.3704,3.3926,3.0835,10.1758,2.7018,3.1211,-0.8863,2.1912,5.9821,6.9177,2.2774,2.4555,2.0012
902.3438,7.1570,5.7684,2.7776,0.7527,0.4495,7.3880,5.2651,0.6297,2.1462,9.8052,2.8084,0.6338,-3.8947,0.4405,5.5373,3.9612,-0.5715,0.5359,-1.2879
906.2500,6.8360,5.4243,0.7519,-2.1231,-2.4715,7.0510,3.2803,-1.9184,1.2356,9.1194,2.3963,-1.6259,-5.5267,-0.9997,4.3677,0.9370,-2.7866,-0.9450,-3.6677
910.1562,6.3801,4.3667,-1.5563,-4.1200,-4.6844,5.9864,1.0287,-4.0280,0.5742,8.2275,1.5283,-3.2059,-5.4731,-1.9048,2.5291,-1.4667,-3.7910,-1.5503,-4.7006
914.0625,5.7894,2.6767,-3.6645,-5.0582,-5.9340,4.2054,-0.8215,-5.5697,0.1989,7.0498,0.3718,-3.9117,-3.9857,-2.1648,0.1693,-3.0018,-3.4762,-1.3223,-4.3992
917.9688,4.8854,0.6667,-5.1888,-5.0215,-6.0821,1.9128,-1.9104,-6.4206,-0.0755,5.4805,-0.8669,-3.8431,-1.7335,-1.7692,-2.4142,-3.8414,-2.1554,-0.7733,-3.2058
921.8750,3.5589,-1.2838,-5.9887,-4.2660,-5.1151,-0.5025,-2.3307,-6.4106,-0.5296,3.5661,-2.0166,-3.3222,0.4866,-0.7963,-4.8311,-4.3227,-0.3734,-0.5748,-1.7941
925.7812,1.9717,-2.8786,-6.1262,-3.0795,-3.1498,-2.5596,-2.4527,-5.3528,-1.3357,1.5413,-2.9874,-2.7324,2.0688,0.6237,-6.7731,-4.6394,1.3541,-1.1289,-0.7452
929.6875,0.5114,-3.9597,-5.7015,-1.6550,-0.4226,-3.8434,-2.5609,-3.1539,-2.4313,-0.3138,-3.7723,-2.3413,2.8087,2.3647,-8.1946,-4.7049,2.7579,-2.3049,-0.2539
933.5938,-0.4834,-4.4689,-4.7193,-0.0422,2.7294,-4.1590,-2.5751,0.0639,-3.5688,-1.8686,-4.4161,-2.2000,2.9057,4.3355,-9.3495,-4.2694,3.8806,-3.5185,-0.0450
937.5000,-0.9861,-4.3772,-3.1090,1.7982,5.8852,-3.5948,-2.0777,3.9078,-4.4940,-3.2082,-4.9721,-2.1740,2.7741,6.4412,-10.6041,-3.1881,4.9515,-4.1000,0.4264
941.4062,-1.2812,-3.6566,-0.8861,3.8758,8.5667,-2.4512,-0.6484,7.7751,-5.1023,-4.4831,-5.4588,-2.0789,2.7813,8.4935,-12.1108,-1.6241,6.1431,-3.6986,1.5938
945.3125,-1.6590,-2.3182,1.6798,6.0616,10.3047,-1.0714,1.7205,11.0078,-5.4373,-5.6397,-5.8241,-1.8273,3.0641,10.1491,-13.5582,-0.0243,7.3687,-2.4553,3.4483
949.2188,-2.0469,-0.4844,4.0465,8.0586,10.7588,0.3198,4.4335,13.0667,-5.5400,-6.2550,-5.9244,-1.4817,3.5117,10.9637,-14.2050,1.1211,8.2650,-0.8527,5.4765
953.1250,-1.9100,1.5749,5.5804,9.4720,9.8562,1.6729,6.4997,13.6539,-5.2897,-5.6533,-5.5368,-1.1795,3.8877,10.5705,-13.2415,1.5654,8.3890,0.6232,6.9183
957.0312,-0.5678,3.4939,5.8475,9.9418,7.8685,3.0447,7.0500,12.7496,-4.4053,-3.2878,-4.4238,-0.9908,3.9905,8.8981,-10.2945,1.4362,7.5078,1.7519,7.1900
960.9375,2.2642,4.9463,4.8369,9.2696,5.3514,4.4738,5.8598,10.5850,-2.6481,0.8369,-2.4487,-0.8294,3.7465,6.2835,-5.7616,1.1296,5.7858,2.5993,6.2077
964.8438,6.1132,5.7919,2.9785,7.4861,2.9408,5.9001,3.5456,7.5842,-0.0969,5.9902,0.2962,-0.5036,3.2025,3.3873,-0.7383,1.0540,3.7313,3.3116,4.4116
968.7500,9.8761,6.1379,0.9383,4.8403,1.0936,7.1828,1.2890,4.2938,2.7182,10.9356,3.4177,0.1119,2.4604,0.9331,3.4559,1.4060,1.9306,3.8718,2.4850
972.6562,12.3948,6.2515,-0.6911,1.7306,-0.0873,8.1820,0.2232,1.2867,4.9621,14.4445,6.2704,0.9051,1.6210,-0.5948,5.8905,2.1181,0.7443,4.0227,0.9585
976.5625,13.0940,6.3595,-1.6350,-1.3869,-0.8355,8.8190,0.8271,-0.9664,5.8642,15.8154,8.1415,1.5011,0.7755,-1.1278,6.4193,2.9798,0.1710,3.4212,-0.0452
980.4688,12.2397,6.4548,-1.9955,-4.0848,-1.5140,9.0641,2.6737,-2.2290,5.0977,15.1089,8.5126,1.4387,0.0282,-0.9701,5.6385,3.8152,-0.0360,1.9055,-0.7757
984.3750,10.6444,6.2526,-2.1186,-6.0318,-2.3383,8.8737,4.6768,-2.5669,2.9378,12.9961,7.2811,0.4626,-0.4926,-0.5717,4.4632,4.5828,-0.0948,-0.3261,-1.5764
988.2812,9.0510,5.3548,-2.3671,-7.0411,-3.2029,8.1578,5.6889,-2.2972,0.1079,10.3515,4.8256,-1.2576,-0.6651,-0.2574,3.6034,5.3413,0.0261,-2.7583,-2.5696
992.1875,7.6527,3.5414,-2.9395,-7.1032,-3.7307,6.8349,5.1035,-1.8263,-2.5815,7.8473,1.8636,-3.1479,-0.4355,-0.0685,3.2533,6.1342,0.6010,-4.8040,-3.5318
996.0938,6.0856,0.9977,-3.8263,-6.4023,-3.5299,4.9472,3.1189,-1.4679,-4.5853,5.7604,-0.8402,-4.5134,0.1233,0.1940,3.1365,6.8899,1.9031,-6.0917,-4.0489
1000.0000,3.8665,-1.6949,-4.9028,-5.3032,-2.5094,2.7395,0.5320,-1.3505,-5.7804,4.0371,-2.7750,-4.9311,0.7962,0.7645,2.8121,7.4050,3.8915,-6.6198,-3.8474
1003.9062,0.9202,-3.8300,-6.0658,-4.2891,-1.0485,0.6136,-1.7845,-1.4657,-6.3768,2.5054,-3.8351,-4.5041,1.2714,1.6764,2.0044,7.4115,6.0601,-6.6913,-3.0697
1007.8125,-2.2064,-4.9488,-7.2986,-3.8342,0.1173,-1.0351,-3.3813,-1.7940,-6.6778,1.0727,-4.2443,-3.7961,1.2474,2.6537,0.7599,6.6812,7.5882,-6.6782,-2.2816
1011.7188,-4.5919,-5.0622,-8.6011,-4.2212,0.2710,-1.9965,-4.4010,-2.3821,-6.8405,-0.1907,-4.3007,-3.4578,0.5779,3.2159,-0.6098,5.1283,7.7367,-6.7552,-2.1654
1015.6250,-5.4548,-4.5650,-9.8312,-5.3641,-0.8386,-2.3130,-5.3311,-3.2790,-6.7631,-1.0828,-4.1018,-3.7652,-0.5952,2.9585,-1.6923,2.8878,6.2733,-6.7492,-3.0627
1019.5312,-4.5692,-3.8981,-10.5909,-6.7355,-2.7421,-2.1906,-6.5389,-4.3713,-6.1383,-1.3604,-3.4318,-4.3678,-1.7953,1.8536,-2.1196,0.3553,3.6741,-6.1927,-4.6510
1023.4375,-2.3267,-3.2104,-10.2999,-7.4927,-4.3766,-1.8291,-7.9266,-5.2723,-4.6380,-0.8377,-1.8994,-4.4373,-2.3227,0.3788,-1.6419,-1.8506,0.9669,-4.5675,-5.9932
1027.3438,0.5307,-2.2862,-8.4877,-6.8197,-4.5852,-1.3084,-8.9603,-5.4208,-2.1474,0.5249,0.7388,-3.1633,-1.5383,-0.6445,-0.1755,-3.0422,-0.7195,-1.6387,-5.9912
1031.2500,3.2675,-0.8094,-5.1743,-4.3662,-2.7554,-0.6163,-9.0579,-4.4014,1.0564,2.5494,4.2667,-0.3121,0.7747,-0.4577,2.1224,-2.7232,-0.6791,2.2843,-4.0249
1035.1562,5.3605,1.2254,-1.0940,-0.5643,0.7520,0.2168,-8.0628,-2.3054,4.2813,4.8137,7.9261,3.5023,4.1633,1.1861,4.7809,-0.8559,1.0386,6.3151,-0.4102
1039.0625,6.4978,3.2916,2.4535,3.4003,4.6563,1.0080,-6.4519,0.1373,6.6105,6.7207,10.6623,7.0341,7.5616,3.7951,7.0490,2.0301,3.6535,9.2659,3.6213
1042.9688,6.4987,4.5213,4.1396,6.0319,7.3190,1.4511,-5.1025,1.8240,7.2713,7.6803,11.6040,9.0175,9.7039,6.2981,8.1227,5.0052,6.0249,10.1560,6.4690
1046.8750,5.3142,4.2362,3.2947,6.2177,7.5492,1.2864,-4.7486,1.8563,6.0342,7.3521,10.5244,8.8349,9.7303,7.5455,7.5194,7.1511,7.1857,8.7251,6.9682
1050.7812,3.1357,2.4709,0.3552,3.8231,5.2291,0.4904,-5.4882,0.1050,3.4221,5.8271,8.0142,6.8471,7.6566,6.8951,5.3989,8.0062,6.7804,5.6604,5.0130
1054.6875,0.4790,0.0984,-3.2386,-0.1574,1.4077,-0.6616,-6.6852,-2.6002,0.5622,3.6251,5.2365,4.1804,4.4132,4.5616,2.5969,7.7731,5.1968,2.3530,1.6334
1058.5938,-1.9173,-1.5905,-5.7121,-4.0251,-2.2039,-1.7224,-7.3484,-4.8220,-1.3077,1.4768,3.3687,2.0876,1.3862,1.5259,0.2731,7.1348,3.3312,0.2449,-1.5344
1062.5000,-3.4037,-1.6300,-5.8616,-6.1842,-4.0700,-2.3082,-6.7446,-5.2439,-1.4562,-0.0161,3.0181,1.2555,-0.2985,-0.9469,-0.6781,6.7737,2.1139,0.0908,-3.0942
1066.4062,-3.7760,0.0189,-3.6921,-5.9059,-3.5495,-2.2877,-4.8387,-3.3705,-0.0576,-0.6644,3.9268,1.4692,-0.3301,-1.9147,-0.1261,6.8958,2.0417,1.5527,-2.5726
1070.3125,-3.4252,2.4065,-0.4037,-3.6317,-1.1226,-1.8018,-2.2740,0.2004,1.8770,-0.7630,5.1323,1.8268,0.7252,-1.1590,1.1980,7.0826,2.9626,3.3939,-0.5615
1074.2188,-3.1428,4.1349,2.2839,-0.6580,1.9618,-1.1174,0.0799,4.0832,3.0347,-0.9089,5.5010,1.3692,1.8817,0.8096,2.0903,6.5886,4.2223,4.1959,1.7336
1078.1250,-3.6643,4.1791,3.0907,1.6010,4.3794,-0.4269,1.6879,6.7994,2.5219,-1.6613,4.3546,-0.2576,2.4054,3.0972,1.5451,4.9043,5.0790,3.1959,3.2358
1082.0312,-5.2182,2.4909,1.8665,2.3399,5.3595,0.2731,2.6345,7.4686,0.3694,-3.2219,1.8603,-2.5044,2.2630,4.8898,-0.6707,2.2136,5.1467,0.7545,3.5726
1085.9375,-7.3511,0.0283,-0.3808,1.6781,4.9297,1.1588,3.4547,6.1382,-2.4621,-5.2940,-1.0162,-4.1630,2.0709,5.7743,-3.8601,-0.5717,4.6050,-1.8313,3.1601
1089.8438,-9.1315,-1.7892,-2.1174,0.4308,3.7114,2.4486,4.6576,3.6328,-4.5789,-7.1857,-2.9654,-4.0131,2.6012,5.7858,-6.7330,-2.2513,4.0601,-3.0634,2.7955
1093.7500,-9.6159,-1.8652,-2.1883,-0.4651,2.4675,4.2523,6.2946,1.0780,-4.8732,-8.1084,-2.9678,-1.5119,4.1918,5.2324,-8.0444,-1.9953,4.1447,-2.0925,3.0625
1097.6562,-8.3219,-0.0006,-0.4607,-0.4947,1.7067,6.4744,7.8773,-0.6066,-3.0806,-7.5362,-0.7949,2.8428,6.4498,4.4567,-7.1938,0.1750,5.1059,0.8056,3.9448
1101.5625,-5.4743,3.0336,2.1488,0.2393,1.5545,8.7989,8.6875,-0.9978,0.1014,-5.4704,2.8541,7.6553,8.4320,3.6865,-4.4967,3.3657,6.6318,4.3814,4.8756
1105.4688,-1.9236,5.9180,4.2459,1.2299,1.8946,10.7459,8.2479,-0.1709,3.3600,-2.4875,6.6372,11.1951,9.1683,3.0255,-1.0288,6.2502,8.0197,7.0735,5.1542
1109.3750,1.2062,7.4393,4.7683,1.9905,2.6096,11.7919,6.6249,1.4909,5.3790,0.4653,9.1384,12.1001,8.1964,2.5349,1.8504,7.7038,8.5794,7.7868,4.4327
1113.2812,2.9790,7.0355,3.5605,2.3862,3.7208,11.5390,4.3758,3.5191,5.4132,2.4576,9.4639,9.9095,5.7976,2.3157,3.0653,7.2804,8.0258,6.3731,2.9578
1117.1875,3.0262,4.9921,1.4099,2.6651,5.3313,9.8966,2.2065,5.4955,3.5767,2.9837,7.6065,5.2258,2.8361,2.5263,2.2473,5.3106,6.6310,3.6039,1.4327
1121.0938,1.6930,2.2460,-0.4417,3.2031,7.4321,7.1923,0.5919,7.0829,0.7503,2.1962,4.4259,-0.5200,0.3366,3.3266,-0.1392,2.6375,5.0587,0.7196,0.6106
1125.0000,-0.1170,-0.0736,-1.0075,4.1610,9.7287,4.1179,-0.4019,8.0013,-1.8259,0.8355,1.2627,-5.5753,-0.9485,4.7764,-3.0040,0.1955,3.9931,-1.1684,0.8781
1128.9062,-1.3487,-1.1439,-0.0841,5.2981,11.6298,1.4832,-1.0225,8.0180,-3.0902,-0.1329,-0.6381,-8.4476,-0.7831,6.7342,-5.0836,-1.3309,3.7823,-1.5255,2.0654
1132.8125,-1.2856,-0.7716,1.6732,6.0674,12.4352,-0.1313,-1.5836,6.9858,-2.6028,-0.0002,-0.6365,-8.3655,0.5597,8.8075,-5.4661,-1.6395,4.2915,-0.5251,3.5630
1136.7188,0.1104,0.5905,3.1449,5.9349,11.6416,-0.6324,-2.2570,4.9214,-0.7077,1.3348,1.0846,-5.4800,2.4874,10.4000,-3.9715,-0.7637,5.0238,1.1360,4.6467
1140.6250,2.1944,2.1315,3.3793,4.7277,9.2117,-0.4159,-3.0153,2.0827,1.6639,3.3327,3.6751,-0.7576,4.3419,10.8801,-1.2193,1.0397,5.4166,2.6080,4.8242
1144.5312,3.9893,3.1324,2.1204,2.8002,5.6682,-0.0854,-3.7035,-1.0081,3.4662,5.1132,6.0578,4.3826,5.6198,9.8383,1.6627,3.3698,5.1377,3.2738,4.0375
1148.4375,4.7116,3.3506,-0.0406,0.9146,1.9480,-0.0558,-4.1332,-3.6412,4.0628,5.9138,7.4267,8.5492,6.1001,7.3283,3.5627,5.7213,4.2291,2.9949,2.6530
1152.3438,4.1744,3.1268,-1.9625,-0.1084,-0.9361,-0.2972,-4.1295,-5.1089,3.5319,5.4517,7.5632,10.7967,5.8555,3.9501,3.8933,7.5395,3.0456,2.1307,1.2745
1156.2500,2.8378,3.1410,-2.5436,0.2092,-2.2864,-0.3976,-3.5438,-4.9670,2.5761,4.0039,6.8349,10.8391,5.1536,0.6784,2.8306,8.3492,2.0445,1.3255,0.4764
1160.1562,1.4873,3.9449,-1.2978,1.7554,-1.9897,0.0952,-2.2993,-3.2630,2.0746,2.1974,5.9081,9.0068,4.2913,-1.5198,1.1655,7.9361,1.5514,1.1573,0.5687
1164.0625,0.7532,5.5433,1.3739,3.8662,-0.5269,1.2836,-0.4936,-0.5979,2.5261,0.6609,5.3469,6.0158,3.4496,-2.0983,-0.1450,6.4856,1.6216,1.8143,1.4807
1167.9688,0.7719,7.2911,4.3576,5.6351,1.2948,2.7586,1.5120,2.0626,3.7090,-0.2607,5.3110,2.6843,2.6524,-1.1422,-0.4833,4.5652,2.0561,2.9675,2.8086
1171.8750,1.1801,8.1933,6.3561,6.3464,2.7647,3.7870,3.1334,3.7898,4.7707,-0.5995,5.4927,-0.2786,1.8606,0.7530,0.1299,2.9092,2.5512,3.9250,4.0072
1175.7812,1.4038,7.4504,6.5066,5.8171,3.6260,3.7306,3.7879,4.1306,4.7009,-0.6718,5.3015,-2.3611,1.1334,2.8587,1.0791,2.0832,2.8899,3.9978,4.6469
1179.6875,1.0198,4.9334,4.7724,4.4710,4.1627,2.4253,3.2107,3.3422,2.9165,-0.8950,4.1866,-3.2538,0.7225,4.7049,1.4911,2.2021,3.0677,2.8840,4.6146
1183.5938,-0.0444,1.3061,1.9202,3.1036,4.9516,0.2807,1.6665,2.2616,-0.3861,-1.6163,1.9355,-2.8430,0.9956,6.2336,0.6728,2.8684,3.2786,0.8511,4.1496
1187.5000,-1.5608,-2.2762,-0.8897,2.4550,6.4120,-1.9504,-0.1184,1.8399,-4.3036,-3.0021,-1.1820,-1.2370,2.1995,7.6287,-1.5604,3.3890,3.7661,-1.3929,3.6867
1191.4062,-3.2026,-4.7142,-2.6759,2.8138,8.4210,-3.5685,-1.3087,2.5810,-7.6685,-4.9845,-4.4829,1.1958,4.2050,8.9658,-4.7963,3.1667,4.6236,-3.0676,3.5780
1195.3125,-4.7198,-5.4495,-3.0724,3.8604,10.2462,-4.2432,-1.4082,4.2057,-9.5941,-7.2548,-7.1223,3.8393,6.4195,9.9577,-8.1809,2.0469,5.6643,-3.7190,3.8497
1199.2188,-5.9761,-4.6406,-2.4218,4.8347,10.8664,-4.0824,-0.5296,5.7578,-9.8259,-9.3162,-8.4264,5.9434,7.9625,10.0041,-10.7277,0.4129,6.4510,-3.4239,4.1394
1203.1250,-6.8742,-2.9826,-1.5104,4.9361,9.5174,-3.4657,0.6858,6.1169,-8.7451,-10.6135,-8.1709,6.8277,8.0350,8.5326,-11.6554,-1.0375,6.4849,-2.7014,3.8659
1207.0312,-7.2884,-1.3220,-1.1179,3.7391,6.1524,-2.7953,1.4484,4.6370,-7.0779,-10.7241,-6.6803,6.1032,6.2848,5.4087,-10.6418,-1.7058,5.4583,-2.2013,2.5506
1210.9375,-7.0937,-0.2969,-1.6323,1.4035,1.5458,-2.3291,1.2578,1.5428,-5.5137,-9.5343,-4.6868,3.8156,2.9690,1.1351,-7.9156,-1.4452,3.4316,-2.3618,0.1155
1214.8438,-6.2727,-0.1647,-2.9207,-1.4210,-3.0252,-2.1681,0.1285,-2.1539,-4.4394,-7.3070,-2.9982,0.4475,-1.1585,-3.2973,-4.1612,-0.6286,0.8370,-3.2208,-3.0091
1218.7500,-4.9983,-0.8399,-4.4870,-3.9266,-6.3411,-2.3431,-1.5096,-5.1716,-3.8924,-4.5928,-2.1287,-3.2289,-5.1493,-6.8157,-0.2672,0.1148,-1.6931,-4.4593,-6.0322
1222.6562,-3.6054,-2.0497,-5.7907,-5.5184,-7.7314,-2.8914,-3.1294,-6.6116,-3.6951,-2.0250,-2.0876,-6.3924,-8.1794,-8.6809,2.9828,0.3262,-3.5747,-5.6170,-8.1289
1226.5625,-2.4551,-3.4889,-6.5278,-6.0252,-7.2477,-3.8489,-4.3990,-6.3649,-3.6514,-0.1095,-2.4498,-8.4209,-9.7464,-8.6846,5.1469,0.0258,-4.4679,-6.3400,-8.7742
1230.4688,-1.7853,-4.9084,-6.7197,-5.6553,-5.4702,-5.1700,-5.2567,-5.0516,-3.6820,0.8909,-2.6705,-9.0617,-9.7097,-7.0693,6.1882,-0.3075,-4.3325,-6.5243,-7.9204
1234.3750,-1.6457,-6.1306,-6.5872,-4.7624,-3.1157,-6.6518,-5.7519,-3.5538,-3.8369,0.9558,-2.4533,-8.4602,-8.2307,-4.2918,6.3500,-0.0805,-3.3513,-6.3009,-5.9447
1238.2812,-1.9365,-7.0283,-6.3175,-3.5903,-0.7029,-7.9384,-5.8217,-2.4499,-4.2006,0.2452,-1.9310,-7.0391,-5.6865,-0.8209,5.9388,0.9700,-1.7976,-5.8972,-3.4266
1242.1875,-2.4874,-7.4972,-5.8929,-2.1649,1.5442,-8.6264,-5.2085,-1.7086,-4.7611,-0.9494,-1.5351,-5.2771,-2.5875,2.9175,5.1589,2.5361,0.0640,-5.4743,-0.8961
1246.0938,-3.0991,-7.4394,-5.1012,-0.3943,3.5557,-8.4225,-3.6104,-0.8232,-5.3333,-2.2243,-1.6387,-3.4899,0.5122,6.4795,4.0962,3.8779,2.0004,-5.0356,1.3092
1250.0000,-3.5309,-6.7670,-3.7222,1.7068,5.1961,-7.2673,-0.9626,0.7202,-5.5961,-3.1032,-2.2257,-1.7231,3.1245,9.3540,2.8343,4.2727,3.7814,-4.4559,3.0324
1253.9062,-3.4949,-5.4320,-1.7576,3.8436,6.1611,-5.3589,2.3687,2.9664,-5.2399,-3.1577,-2.8302,0.1830,4.9336,11.0316,1.5818,3.4931,5.1571,-3.6036,4.1891
1257.8125,-2.7264,-3.4809,0.4669,5.4694,6.0893,-3.0615,5.6496,5.3416,-4.1509,-2.1943,-2.8131,2.3972,5.8509,11.1872,0.6822,2.0027,5.8866,-2.4707,4.6874
1261.7188,-1.1296,-1.1075,2.4231,6.0448,4.8260,-0.7480,8.0986,6.9513,-2.5152,-0.4013,-1.7949,4.8920,5.9918,9.8657,0.4716,0.7305,5.8153,-1.2189,4.4645
1265.6250,1.0948,1.3385,3.6711,5.3910,2.6583,1.3385,9.2742,7.1519,-0.7610,1.6769,0.0547,7.3668,5.5988,7.5382,1.0752,0.5467,4.9594,-0.0997,3.6255
1269.5312,3.4583,3.4210,4.1348,3.9174,0.3412,3.1289,9.2884,6.0260,0.6528,3.3789,2.0842,9.3576,4.9658,4.9673,2.2960,1.7509,3.5445,0.7060,2.5668
1273.4375,5.3702,4.7558,4.1680,2.5400,-1.1489,4.6598,8.7066,4.4368,1.4843,4.2679,3.5488,10.4650,4.3983,2.9353,3.6891,3.8786,1.9716,1.2177,1.9386
1277.3438,6.4107,5.1605,4.3400,2.2802,-1.0340,5.9464,8.1981,3.5902,1.8311,4.3683,4.0558,10.5505,4.1892,1.9653,4.7816,5.9405,0.7127,1.6506,2.3939
1281.2500,6.5295,4.7352,5.0599,3.7302,0.8870,6.8958,8.1562,4.3480,2.0346,4.1265,3.7634,9.7747,4.5603,2.1622,5.2919,6.9571,0.1723,2.2529,4.2240
1285.1562,6.0420,3.8230,6.2798,6.6783,4.1057,7.3362,8.5184,6.7008,2.4141,4.1023,3.2036,8.4612,5.5507,3.2316,5.2079,6.4851,0.5566,3.0831,7.0933
1289.0625,5.4223,2.8594,7.4788,10.1264,7.6015,7.1546,8.8764,9.7218,3.0021,4.5772,2.8700,6.8968,6.9116,4.6449,4.6918,4.8426,1.7953,3.8825,10.0733
1292.9688,5.0201,2.1752,7.9498,12.7191,10.2742,6.4353,8.7795,12.0346,3.4649,5.3337,2.8692,5.2094,8.1075,5.8594,3.9126,2.9178,3.5440,4.1509,12.0108
1296.8750,4.8648,1.8416,7.2072,13.3685,11.3928,5.4696,8.0182,12.5194,3.2709,5.7554,2.8775,3.3931,8.4840,6.4977,2.9494,1.6715,5.2773,3.4024,12.0573
1300.7812,4.6566,1.6266,5.2491,11.7409,10.8361,4.5834,6.7119,10.8533,2.0025,5.1908,2.4124,1.4264,7.5497,6.4223,1.8348,1.6107,6.4513,1.4460,10.0654
1304.6875,3.9345,1.0883,2.5157,8.3526,9.0271,3.8798,5.1723,7.6010,-0.3889,3.3577,1.2049,-0.6370,5.2204,5.7071,0.6780,2.5168,6.6836,-1.4876,6.6235
1308.5938,2.3295,-0.2172,-0.4023,4.2547,6.6378,3.0950,3.6660,3.8577,-3.5389,0.5480,-0.5980,-2.6795,1.8773,4.5492,-0.2696,3.5791,5.8849,-4.8476,2.7184
1312.5000,-0.2118,-2.4853,-3.0793,0.5163,4.2580,1.7280,2.2551,0.6950,-6.8395,-2.4763,-2.5273,-4.6003,-1.7964,3.1849,-0.6994,3.8650,4.2882,-8.0111,-0.7561
1316.4062,-3.3182,-5.4760,-5.3764,-2.1956,2.2153,-0.5829,0.8178,-1.2650,-9.6907,-4.8221,-4.0899,-6.3588,-5.0941,1.8457,-0.4475,2.8739,2.3596,-10.5039,-3.3438
1320.3125,-6.2503,-8.5062,-7.3194,-3.7451,0.6033,-3.6728,-0.7896,-1.9669,-11.6776,-5.8463,-5.0450,-7.9140,-7.5157,0.7442,0.3371,0.8623,0.6233,-12.0717,-5.0469
1324.2188,-8.1316,-10.6794,-8.8879,-4.3832,-0.5759,-6.7587,-2.5689,-1.7696,-12.6143,-5.3979,-5.4808,-9.1148,-8.8496,0.0401,1.2036,-1.2647,-0.5390,-12.6178,-6.0865
1328.1250,-8.3011,-11.2951,-9.9308,-4.5038,-1.3116,-8.7867,-4.3416,-1.2035,-12.5094,-3.8328,-5.6814,-9.6802,-9.1366,-0.2416,1.6185,-2.4620,-1.0403,-12.1389,-6.6363
1332.0312,-6.6567,-10.2486,-10.2980,-4.4793,-1.6178,-9.0524,-5.8525,-0.7981,-11.5450,-1.8332,-5.9151,-9.3613,-8.6160,-0.3134,1.2680,-2.1832,-1.1358,-10.7666,-6.7470
1335.9375,-3.8034,-8.1719,-10.0643,-4.6227,-1.6487,-7.6956,-6.9184,-1.0011,-10.0831,-0.1241,-6.2972,-8.2087,-7.7099,-0.6463,0.2517,-0.7679,-1.3342,-8.8787,-6.4838
1339.8438,-0.8609,-6.1652,-9.6003,-5.1815,-1.7423,-5.6911,-7.4899,-2.1059,-8.6202,0.8033,-6.7740,-6.7198,-6.9855,-1.8125,-0.9595,0.6907,-2.1783,-7.1128,-6.0946
1343.7500,1.0497,-5.1957,-9.3462,-6.2529,-2.2805,-4.2747,-7.5741,-4.1185,-7.6031,0.8736,-7.1664,-5.6552,-6.9866,-4.1464,-1.7704,0.9739,-3.9517,-6.1340,-5.9806
1347.6562,1.4032,-5.4846,-9.3987,-7.6208,-3.4040,-4.1397,-7.0919,-6.6166,-7.1432,0.4486,-7.1931,-5.5434,-7.9131,-7.3797,-1.7572,-0.4764,-6.4255,-6.2039,-6.4101
1351.5625,0.6010,-6.2735,-9.2299,-8.6644,-4.7821,-4.9377,-5.8156,-8.7580,-6.8161,0.1653,-6.4729,-6.1673,-9.3118,-10.5029,-0.8369,-3.0900,-8.7848,-6.8256,-7.1689
1355.4688,-0.2190,-6.1864,-7.8355,-8.5156,-5.6528,-5.4532,-3.4814,-9.5583,-5.7674,0.6336,-4.5920,-6.4427,-10.0553,-12.0445,0.7614,-5.3465,-9.8407,-6.8019,-7.4642
1359.3750,0.1540,-4.0398,-4.3326,-6.4871,-5.1937,-4.3793,-0.0365,-8.3737,-3.1808,2.1154,-1.3077,-4.9056,-8.7797,-10.7269,2.6622,-5.5558,-8.5109,-4.8238,-6.2708
1363.2812,2.2327,0.3582,1.3257,-2.5670,-3.0384,-1.2067,4.1488,-5.3306,1.1107,4.3448,3.1673,-0.6185,-4.6552,-6.1959,4.5106,-2.8217,-4.3885,-0.3317,-2.9892
1367.1875,5.4334,5.9235,8.0005,2.3569,0.3886,3.3562,8.2762,-1.3984,6.2680,6.6028,7.9889,6.0372,1.9325,0.6058,6.0396,2.3715,1.8870,5.8856,1.9909
1371.0938,8.3323,10.7465,13.6910,6.7665,3.9717,7.7118,11.3740,2.0144,10.6529,8.0324,11.8148,13.2343,9.2656,7.6995,7.0375,8.3072,8.7042,11.8162,7.2380
1375.0000,9.4508,13.0440,16.4175,9.1968,6.4220,10.2393,12.6837,3.7534,12.5757,8.0386,13.2842,18.4172,14.9306,12.8942,7.2956,12.8503,14.0450,15.1238,10.8586
1378.9062,8.1025,12.0611,15.1803,8.9572,6.9164,10.1452,11.9553,3.4976,11.1842,6.5659,11.6456,19.5168,16.9252,14.7494,6.6259,14.4664,16.3121,14.3569,11.4181
1382.8125,4.7858,8.4007,10.4374,6.4511,5.4707,7.7884,9.4865,1.8617,6.9620,4.1131,7.1875,15.9782,14.6231,13.1522,4.9692,12.8794,15.0117,9.7534,8.6635
1386.7188,0.9029,3.6224,3.8373,2.8873,2.8263,4.3469,5.9098,-0.0440,1.5170,1.5050,1.2029,9.0131,9.0308,9.2024,2.5258,9.0398,10.9311,3.1391,3.6177
1390.6250,-1.9898,-0.5963,-2.6012,-0.4303,-0.0453,1.1213,1.8971,-1.3113,-3.2202,-0.4380,-4.5215,0.9614,2.2001,4.5172,-0.1906,4.4975,5.7156,-3.0324,-1.9934
1394.5312,-2.9246,-3.2076,-7.3625,-2.7778,-2.4727,-1.0481,-2.0192,-1.7350,-5.9036,-1.1592,-8.4268,-5.8250,-3.8226,0.4044,-2.4490,0.6063,1.0796,-6.9153,-6.6085
1398.4375,-1.8406,-4.0447,-9.8850,-4.2309,-4.3055,-1.9376,-5.4306,-1.8049,-6.2581,-0.4737,-9.7410,-9.9210,-7.8662,-2.6084,-3.5331,-1.9799,-1.9088,-8.0451,-9.4622
1402.3438,0.6153,-3.5462,-10.4331,-5.3301,-5.7229,-1.7117,-7.9360,-2.2275,-4.9226,1.4491,-8.6241,-11.1257,-9.8467,-4.6772,-3.0215,-3.3032,-3.1050,-7.2385,-10.6500
1406.2500,3.5648,-2.2607,-9.6095,-6.4744,-6.8339,-0.6049,-9.1049,-3.3312,-2.8522,4.1562,-5.9043,-10.1002,-10.3173,-6.1525,-0.9914,-3.7265,-3.0399,-5.7834,-10.6898
1410.1562,6.2939,-0.5168,-7.8918,-7.4945,-7.4037,1.2038,-8.6233,-4.7714,-0.7275,7.0008,-2.6231,-7.7245,-9.7769,-7.1016,1.9531,-3.5223,-2.3803,-4.5148,-9.9584
1414.0625,8.3683,1.5643,-5.4755,-7.7018,-6.9298,3.4791,-6.5480,-5.7270,1.2607,9.2784,0.3550,-4.6265,-8.2589,-7.1807,4.8600,-2.7141,-1.4714,-3.3812,-8.4046
1417.9688,9.5321,3.8404,-2.4268,-6.3609,-5.0070,5.7748,-3.4574,-5.4319,3.2085,10.4378,2.5251,-1.1043,-5.4466,-5.8979,6.7619,-1.2184,-0.2281,-1.7152,-5.6973
1421.8750,9.6077,5.9805,1.0632,-3.2385,-1.7019,7.4631,-0.3190,-3.6740,5.1347,10.3156,3.7365,2.6640,-1.1490,-3.0291,7.0387,0.8928,1.6241,1.0710,-1.6412
1425.7812,8.5455,7.5368,4.5544,1.1471,2.3480,7.9959,1.9142,-0.9379,6.7830,9.2529,4.1012,6.4023,4.2781,1.1342,5.6564,3.2536,4.1909,4.8964,3.4735
1429.6875,6.5737,8.1925,7.4481,5.7242,6.1873,7.2162,2.7533,1.8627,7.7329,7.9593,3.8903,9.7076,9.8972,5.8618,3.1704,5.3087,7.2046,8.9267,8.8359
1433.5938,4.2555,7.9561,9.2042,9.3541,8.9709,5.4632,2.3758,3.8511,7.6909,7.1329,3.4286,12.1927,14.5544,10.2941,0.4753,6.5802,10.0993,12.0043,13.4044
1437.5000,2.3118,7.1157,9.5309,11.2875,10.2833,3.3690,1.4348,4.5467,6.7032,7.0287,2.9696,13.6275,17.3738,13.7462,-1.5898,6.8976,12.2747,13.2622,16.3179
1441.4062,1.2666,5.9841,8.4544,11.3477,10.1689,1.4875,0.5983,3.9394,5.1182,7.2626,2.5745,13.9426,18.0483,15.8252,-2.5960,6.4334,13.3431,12.5122,17.1827
1445.3125,1.1499,4.6531,6.2799,9.8208,8.9207,0.0333,0.1319,2.3276,3.3453,7.0169,2.0677,13.1162,16.7863,16.3587,-2.6676,5.5350,13.2059,10.2096,16.1087
1449.2188,1.4808,2.9765,3.5046,7.2160,6.8357,-1.0872,-0.1892,0.1092,1.6123,5.5567,1.1288,11.0939,14.0363,15.2825,-2.3507,4.4855,11.9603,7.1005,13.5410
1453.1250,1.5652,0.8058,0.7164,4.0820,4.1290,-2.0129,-0.7960,-2.3190,-0.0957,2.7349,-0.5023,7.8645,10.2351,12.6310,-2.2952,3.3609,9.7673,3.8320,10.0311
1457.0312,0.9122,-1.7198,-1.5319,0.9394,1.0308,-2.6844,-1.8964,-4.5476,-1.8960,-0.8557,-2.8261,3.6588,5.7482,8.6413,-2.9295,2.0684,6.8125,0.7645,6.0736
1460.9375,-0.5052,-4.0907,-2.8782,-1.7387,-2.0738,-2.8431,-3.2352,-6.1449,-3.8052,-4.1934,-5.5209,-0.9021,0.9742,3.8556,-4.2906,0.5216,3.3842,-1.9741,2.0527
1464.8438,-2.2940,-5.6532,-3.2814,-3.5890,-4.6394,-2.2823,-4.2294,-6.7543,-5.6412,-6.3965,-8.0631,-4.8789,-3.5455,-0.9166,-6.0630,-1.1748,-0.0310,-4.3186,-1.7306
1468.7500,-3.9149,-5.9959,-3.0324,-4.4689,-6.1408,-1.1259,-4.3795,-6.2762,-7.0896,-7.1662,-9.9478,-7.3259,-7.1578,-4.8058,-7.7524,-2.6564,-2.7672,-6.1479,-4.9998
1472.6562,-4.9631,-5.2087,-2.5928,-4.5179,-6.3244,0.1282,-3.6446,-4.9844,-7.8630,-6.8196,-10.8675,-7.6807,-9.2776,-7.1552,-8.8717,-3.4013,-4.1648,-7.2932,-7.4568
1476.5625,-5.2824,-3.8198,-2.3341,-4.0771,-5.3465,0.8819,-2.4963,-3.4392,-7.8296,-5.9355,-10.7606,-6.0111,-9.6054,-7.7083,-9.0586,-2.9619,-3.8473,-7.6358,-8.7822
1480.4688,-4.9022,-2.4657,-2.3467,-3.4830,-3.6897,0.8351,-1.6074,-2.1953,-7.0491,-4.9154,-9.7573,-2.9937,-8.2557,-6.6335,-8.1333,-1.2232,-1.9348,-7.2037,-8.7150
1484.3750,-3.9360,-1.5492,-2.4645,-2.8735,-1.9198,0.1982,-1.4061,-1.4800,-5.7462,-3.7998,-8.1203,0.3339,-5.7455,-4.4196,-6.1480,1.4376,0.9347,-6.2074,-7.2114
1488.2812,-2.5662,-1.1337,-2.4934,-2.1605,-0.4478,-0.4716,-1.8248,-1.0671,-4.2785,-2.4544,-6.2409,2.8989,-2.8724,-1.7364,-3.4445,4.1889,3.8022,-5.0074,-4.6159
1492.1875,-1.1055,-1.1094,-2.4562,-1.1984,0.5562,-0.7038,-2.4141,-0.4533,-3.1006,-0.9273,-4.6424,3.8725,-0.5336,0.6840,-0.6601,6.0058,5.7209,-4.0301,-1.7122
1496.0938,-0.0023,-1.4351,-2.6262,-0.0098,1.0930,-0.4903,-2.7151,0.7686,-2.6651,0.3694,-3.8777,2.8662,0.4979,2.1723,1.4134,6.0812,6.0884,-3.6417,0.4715
1500.0000,0.3214,-2.2030,-3.2743,1.1348,1.2191,-0.3019,-2.5865,2.5956,-3.2203,0.8566,-4.2775,0.0649,-0.1684,2.2992,2.1328,4.2190,4.8552,-3.9920,1.0980
1503.9062,-0.2517,-3.4455,-4.3041,1.8780,1.0113,-0.7106,-2.2378,4.5800,-4.5786,0.2446,-5.6655,-3.7243,-2.3099,1.0812,1.3462,1.0070,2.5391,-4.8755,0.0061
1507.8125,-1.3499,-4.8586,-5.0865,2.0724,0.6278,-1.8906,-1.9602,6.1008,-6.0370,-1.1156,-7.2726,-7.1988,-5.0305,-0.9138,-0.4424,-2.3616,0.0375,-5.7107,-2.0618
1511.7188,-2.2276,-5.7379,-4.7078,1.9701,0.3675,-3.3801,-1.7953,6.7533,-6.6051,-2.3104,-8.0164,-8.9425,-7.0069,-2.7097,-2.2519,-4.5810,-1.7091,-5.7192,-3.7133
1515.6250,-2.1848,-5.2829,-2.5442,2.1178,0.6052,-4.3060,-1.4322,6.5878,-5.5103,-2.3880,-7.0761,-8.0033,-7.0372,-3.3345,-3.1130,-4.8217,-2.0923,-4.2920,-3.5940
1519.5312,-1.0424,-3.1264,1.2058,2.9908,1.5892,-3.9340,-0.4348,6.0472,-2.7170,-0.9915,-4.4402,-4.4140,-4.6663,-2.3238,-2.6103,-3.1138,-1.1001,-1.3766,-1.1603
1523.4375,0.6709,0.2802,5.4323,4.6152,3.2273,-2.1606,1.3733,5.6634,0.8926,1.3520,-1.0470,0.6696,-0.5306,-0.0142,-1.1481,-0.3156,0.6670,2.3536,2.9291
1527.3438,1.9980,3.7524,8.6043,6.4693,5.0454,0.4031,3.6786,5.7399,3.8682,3.5192,1.6374,5.3810,3.8434,2.5976,0.2482,2.3202,2.2738,5.7076,7.0856
1531.2500,2.1495,5.9478,9.5765,7.7693,6.4038,2.8160,5.8076,6.2316,4.9291,4.4829,2.3950,7.9597,6.7473,4.3936,0.4942,3.7397,2.9149,7.5086,9.6135
1535.1562,1.0196,6.0927,8.2061,7.9645,6.8687,4.3876,7.1394,6.8772,3.6619,3.9398,0.9121,7.5459,7.1409,4.7656,-0.9669,3.5122,2.3366,7.1694,9.6157
1539.0625,-0.7433,4.3896,5.3745,7.0987,6.5016,5.0483,7.4942,7.4491,0.7387,2.4435,-2.0984,4.5111,5.1538,3.9475,-3.9056,1.8802,0.9765,4.9747,7.4399
1542.9688,-2.1708,1.8292,2.3974,5.7766,5.8512,5.2625,7.1991,7.9159,-2.4970,0.9634,-5.3772,0.1525,1.9457,2.8319,-7.5110,-0.5297,-0.2790,1.8928,4.4051
1546.8750,-2.6120,-0.4663,0.2178,4.7476,5.6271,5.5708,6.7724,8.3962,-4.8204,0.1958,-7.8657,-4.0317,-0.9803,2.3885,-10.8833,-3.0946,-0.5957,-0.9749,1.9912
1550.7812,-2.1267,-1.9240,-1.0878,4.3908,6.2434,6.1116,6.4694,8.9560,-5.7893,0.1245,-9.2176,-7.0256,-2.5783,3.0545,-13.4653,-5.4173,0.3340,-2.9633,1.0049
1554.6875,-1.3639,-2.7696,-2.1803,4.4588,7.5237,6.4775,6.0499,9.4259,-5.8675,0.1365,-9.7611,-8.5573,-2.7005,4.4812,-15.1405,-7.2790,2.1196,-4.0886,1.2246
1558.5938,-1.0309,-3.6941,-3.8277,4.2547,8.7581,6.0148,4.9682,9.3978,-5.9569,-0.4099,-10.0015,-8.8782,-1.9635,5.7766,-15.9939,-8.4423,3.9005,-4.8397,1.6956
1562.5000,-1.3502,-5.1937,-6.2267,3.1202,9.0818,4.3563,2.8653,8.4313,-6.6780,-1.5953,-10.0782,-8.3297,-1.2069,6.0608,-15.9855,-8.5369,4.8226,-5.6893,1.4340
1566.4062,-1.8972,-7.0555,-8.7403,0.9055,7.9493,1.8077,-0.0030,6.3434,-7.8863,-2.7683,-9.5984,-7.0616,-0.9439,4.9716,-14.8378,-7.1866,4.4758,-6.6714,0.0639
1570.3125,-1.9216,-8.3560,-10.2184,-1.8837,5.4312,-0.6921,-2.7419,3.3955,-8.7344,-2.9327,-7.9640,-5.0840,-1.1460,2.8232,-12.2567,-4.3234,3.0494,-7.3082,-1.9938
1574.2188,-0.9022,-7.9825,-9.6775,-4.3394,2.1858,-2.0312,-4.2598,0.2562,-8.2194,-1.4303,-4.9322,-2.5345,-1.4267,0.3734,-8.3221,-0.4535,1.1566,-6.9258,-3.8399
1578.1250,1.0710,-5.3423,-6.9009,-5.6243,-0.8465,-1.5246,-3.9053,-2.2449,-5.8475,1.5488,-0.9759,0.1296,-1.4116,-1.6002,-3.7286,3.3693,-0.5183,-5.1360,-4.6602
1582.0312,3.3432,-0.8093,-2.6057,-5.3695,-2.8394,0.7081,-1.8825,-3.4420,-2.0002,4.9780,2.8387,2.2269,-1.0004,-2.6376,0.3607,5.9312,-1.5222,-2.1633,-4.1616
1585.9375,5.1046,4.3634,1.8855,-3.7868,-3.3721,3.7989,0.8258,-3.0804,2.2050,7.5213,5.3866,3.1910,-0.3644,-2.6848,2.8128,6.4276,-1.7395,1.1891,-2.6477
1589.8438,5.8486,8.6012,5.2378,-1.4920,-2.5151,6.5625,2.9725,-1.3898,5.4458,8.2369,6.0729,2.9016,0.2484,-1.9656,3.0871,4.8904,-1.3104,3.9076,-0.7658
1593.7500,5.5660,10.7069,6.6243,0.8027,-0.7345,8.0329,3.6664,1.0160,6.8029,7.0240,5.0975,1.7475,0.7027,-0.7957,1.5096,2.2103,-0.4806,5.2399,0.8529
1597.6562,4.5954,10.3271,5.9402,2.5337,1.3001,7.8150,2.7298,3.3488,6.1218,4.5754,3.2574,0.3726,1.0103,0.5214,-0.9137,-0.2799,0.5048,5.0013,1.8272
1601.5625,3.3070,7.9810,3.6866,3.3777,2.9224,6.1090,0.6319,4.8841,3.9848,1.9215,1.4591,-0.7101,1.2224,1.7001,-3.0261,-1.4410,1.4387,3.5678,2.0454
1605.4688,1.8924,4.7093,0.6642,3.2257,3.6485,3.4772,-1.8838,5.1590,1.3660,-0.1135,0.2690,-1.3602,1.3199,2.4643,-4.0747,-0.8459,2.1694,1.6017,1.5493
1609.3750,0.3962,1.5742,-2.3444,2.1336,3.3035,0.5438,-4.1926,4.0892,-0.8213,-1.2229,-0.2457,-1.7581,1.2203,2.6091,-3.9825,1.0800,2.6461,-0.2986,0.4298
1613.2812,-1.0988,-0.7284,-4.7835,0.3091,2.0720,-2.1949,-5.9710,1.9740,-2.0643,-1.5729,-0.3624,-2.1402,0.9019,2.1263,-3.2337,3.3399,2.9755,-1.8226,-1.1738
1617.1875,-2.3480,-1.9980,-6.3935,-1.8805,0.4390,-4.4020,-7.1324,-0.6109,-2.3465,-1.5176,-0.4051,-2.5458,0.5203,1.2934,-2.5011,4.8920,3.4139,-2.9404,-2.9984
1621.0938,-3.0225,-2.4078,-7.1608,-3.9400,-0.9825,-5.8422,-7.6546,-3.0033,-1.9936,-1.3088,-0.5078,-2.7644,0.3948,0.6191,-2.2645,5.1414,4.2452,-3.7109,-4.6042
1625.0000,-2.9315,-2.2489,-7.1909,-5.3507,-1.6826,-6.3449,-7.4729,-4.6552,-1.3751,-0.9766,-0.5482,-2.4907,0.8506,0.6310,-2.6175,4.1676,5.5904,-4.0545,-5.4331
1628.9062,-2.1860,-1.6940,-6.5602,-5.7172,-1.4427,-5.8375,-6.5092,-5.2645,-0.6269,-0.4038,-0.2262,-1.5346,2.0324,1.6153,-3.3039,2.6141,7.2735,-3.6546,-4.9785
1632.8125,-1.1375,-0.6948,-5.2157,-4.8842,-0.3837,-4.4082,-4.7740,-4.7929,0.4502,0.5146,0.7974,0.0880,3.8362,3.4686,-3.8941,1.3313,8.8668,-2.0673,-2.9850
1636.7188,-0.1158,0.9495,-2.9921,-2.9643,1.1498,-2.3179,-2.4245,-3.3914,2.2473,1.7599,2.7593,2.2303,6.0121,5.7590,-3.9764,0.9639,9.9172,1.0038,0.4243
1640.6250,0.8263,3.3948,0.2353,-0.2751,2.7961,0.0842,0.2754,-1.3057,5.0253,3.1828,5.6661,4.7527,8.3439,7.9528,-3.2930,1.6712,10.2181,5.4183,4.7557
1644.5312,1.9386,6.5356,4.3326,2.7624,4.3447,2.4958,3.0462,1.1685,8.6010,4.5674,9.1977,7.5710,10.7430,9.6556,-1.8170,3.0888,9.9330,10.4720,9.2749
1648.4375,3.5223,9.8950,8.7593,5.7067,5.7661,4.7506,5.6455,3.6722,12.2481,5.7000,12.6946,10.5521,13.1568,10.7137,0.2134,4.5255,9.4625,15.0366,13.1911
1652.3438,5.5841,12.7075,12.6182,8.1361,7.0945,6.7874,7.8353,5.7674,14.9177,6.4047,15.2975,13.3460,15.3543,11.1310,2.3180,5.2918,9.1272,17.9323,15.8255
1656.2500,7.6744,14.1829,14.9226,9.6689,8.2587,8.5184,9.3161,6.9924,15.6869,6.5620,16.2391,15.3212,16.7755,10.8952,3.8920,5.0090,8.8808,18.3692,16.7200
1660.1562,9.0673,13.8375,14.9675,9.9985,8.9930,9.7084,9.7258,7.0081,14.1948,6.1402,15.1756,15.7143,16.6232,9.8782,4.4220,3.7655,8.2728,16.2424,15.6874
1664.0625,9.1812,11.7221,12.6132,8.9610,8.9069,9.9853,8.7597,5.7643,10.8100,5.2368,12.3699,13.9529,14.2217,7.9126,3.7313,2.0623,6.7215,12.1384,12.8242
1667.9688,7.9490,8.4184,8.3339,6.6095,7.6880,9.0166,6.3595,3.5705,6.4353,4.0833,8.5945,9.9788,9.4688,5.0105,2.1178,0.5803,3.9479,7.0586,8.5030
1671.8750,5.8686,4.7914,3.0178,3.2517,5.3223,6.7551,2.8431,0.9953,2.0727,2.9677,4.7814,4.3843,3.1033,1.5596,0.2754,-0.1166,0.2925,2.0153,3.3421
1675.7812,3.6906,1.6229,-2.3585,-0.5813,2.1946,3.5815,-1.1360,-1.3685,-1.5862,2.0891,1.6158,-1.7258,-3.4186,-1.6772,-1.0026,0.1900,-3.3085,-2.2910,-1.8704
1679.6875,1.9614,-0.6856,-7.0087,-4.2353,-1.0015,0.2148,-4.8054,-3.1361,-4.3218,1.4278,-0.6874,-7.0830,-8.4356,-3.8210,-1.2003,1.3070,-5.7130,-5.5733,-6.3128
1683.5938,0.7389,-2.1950,-10.4607,-7.0717,-3.5126,-2.5920,-7.5545,-4.2149,-6.2596,0.7413,-2.3068,-10.6566,-10.7525,-4.2772,-0.3298,2.7422,-6.1256,-7.8414,-9.3134
1687.5000,-0.3325,-3.2731,-12.5286,-8.6041,-4.8109,-4.4058,-9.1241,-4.6955,-7.6057,-0.2727,-3.5209,-11.9420,-10.1316,-3.0472,1.0937,3.9328,-4.5047,-9.1953,-10.5280
1691.4062,-1.6604,-4.3096,-13.2199,-8.6009,-4.7813,-5.2955,-9.6131,-4.6457,-8.4523,-1.7207,-4.4163,-11.0432,-7.3480,-0.7508,2.3482,4.4846,-1.5903,-9.6795,-10.0327
1695.3125,-3.3294,-5.4645,-12.6643,-7.1371,-3.7263,-5.7216,-9.3252,-3.9823,-8.7629,-3.3290,-4.7957,-8.5479,-3.7761,1.6756,2.9071,4.3241,1.4657,-9.2769,-8.2769
1699.2188,-4.9779,-6.5754,-11.0917,-4.5849,-2.2000,-6.1943,-8.5682,-2.5382,-8.4835,-4.4789,-4.3211,-5.2663,-0.7246,3.4419,2.7226,3.7068,3.6585,-8.0077,-5.8990
1703.1250,-5.9975,-7.2461,-8.8269,-1.5390,-0.7627,-6.9157,-7.5264,-0.2900,-7.6369,-4.4849,-2.7674,-1.9413,1.1320,4.2593,2.2310,3.0868,4.5732,-6.0287,-3.4850
1707.0312,-5.9017,-7.0490,-6.2566,1.3221,0.2264,-7.6374,-6.2547,2.4281,-6.3112,-2.9791,-0.2046,0.9588,1.9372,4.3864,2.0855,2.9018,4.4790,-3.6478,-1.3855
1710.9375,-4.6067,-5.7359,-3.7629,3.4127,0.6927,-7.8235,-4.7619,4.9212,-4.5799,-0.1766,2.9926,3.2877,2.3803,4.3564,2.7710,3.3651,4.0497,-1.2435,0.3225
1714.8438,-2.4575,-3.3694,-1.6492,4.4104,0.7921,-7.0137,-3.1022,6.4039,-2.4736,3.1507,6.2744,5.1016,3.1529,4.5761,4.3173,4.3549,3.8985,0.8525,1.7310
1718.7500,-0.0181,-0.3383,-0.0935,4.3565,0.7741,-5.1433,-1.4079,6.4125,-0.0766,6.0003,9.0772,6.4553,4.4703,5.0601,6.2611,5.4581,4.2110,2.4370,2.9400
1722.6562,2.2052,2.7379,0.8617,3.6401,0.8467,-2.6131,0.1498,5.1041,2.3228,7.5914,10.9348,7.2499,5.9414,5.4618,7.8663,6.1581,4.6872,3.4472,3.9572
1726.5625,3.9340,5.1854,1.3019,2.8525,1.1081,-0.0627,1.4429,3.2342,4.1893,7.6907,11.5378,7.2463,6.8510,5.3565,8.4731,6.0811,4.8052,3.9227,4.7149
1730.4688,5.1121,6.4833,1.4239,2.5569,1.5590,1.9981,2.4571,1.7945,4.9209,6.6328,10.7862,6.2495,6.6612,4.5694,7.7856,5.1756,4.2225,3.9569,5.1642
1734.3750,5.7890,6.4384,1.4987,3.0589,2.1585,3.4564,3.3107,1.5111,4.1876,5.0414,8.8466,4.3381,5.3979,3.3186,5.9542,3.7259,3.0478,3.6577,5.3438
1738.2812,6.0057,5.2556,1.7909,4.2769,2.8710,4.5898,4.2046,2.4950,2.2008,3.4341,6.1629,1.9583,3.6723,2.0889,3.4341,2.1894,1.8090,3.1203,5.3500
1742.1875,5.7576,3.4611,2.4453,5.7809,3.6706,5.7987,5.3192,4.2435,-0.3120,1.9563,3.3514,-0.2186,2.3241,1.3419,0.7247,0.9580,1.1407,2.4052,5.2293
1746.0938,5.0313,1.6954,3.3982,6.9921,4.5134,7.2645,6.7032,5.9734,-2.4611,0.4007,0.9854,-1.6136,1.9282,1.2725,-1.8403,0.1896,1.3995,1.5380,4.9027
1750.0000,3.8637,0.4640,4.3930,7.4613,5.3146,8.7674,8.2096,7.0672,-3.6643,-1.5160,-0.6205,-2.0267,2.4920,1.7712,-4.1318,-0.1844,2.4594,0.5498,4.2238
1753.9062,2.3799,-0.0331,5.1217,7.0855,5.9600,9.7887,9.5254,7.3580,-3.9097,-3.8119,-1.4769,-1.6902,3.5321,2.5816,-6.0912,-0.2969,3.8133,-0.4493,3.1615
1757.8125,0.7984,0.0898,5.4173,6.1432,6.3487,9.8336,10.2910,7.1005,-3.6284,-6.0687,-1.7771,-1.0450,4.4524,3.4999,-7.5448,-0.1578,4.9002,-1.2194,1.9672
1761.7188,-0.5953,0.5459,5.3576,5.1151,6.4305,8.7637,10.2525,6.6834,-3.2813,-7.5607,-1.6450,-0.3984,4.9386,4.4439,-8.1346,0.4023,5.4263,-1.4413,1.1534
1765.6250,-1.5113,1.0669,5.1777,4.3791,6.1995,6.9221,9.3570,6.2974,-2.9875,-7.6276,-0.9828,0.2804,5.0849,5.3454,-7.4554,1.6001,5.4627,-0.8909,1.2188
1769.5312,-1.7601,1.5172,5.0235,3.9555,5.6462,4.9681,7.7351,5.7848,-2.4969,-6.0773,0.4301,1.2657,5.1792,5.9837,-5.3404,3.4668,5.2729,0.3376,2.2574
1773.4375,-1.3702,1.8692,4.7263,3.4686,4.7115,3.5211,5.5875,4.7617,-1.5372,-3.3752,2.6287,2.7474,5.3351,5.9442,-2.1077,5.6961,5.0225,1.7203,3.7267
1777.3438,-0.6444,2.0855,3.8010,2.3730,3.3014,2.8344,3.0729,2.9236,-0.2543,-0.4894,5.1809,4.5219,5.2802,4.7986,1.4279,7.7103,4.6071,2.4388,4.5964
1781.2500,-0.0719,2.0256,1.7383,0.3317,1.3839,2.6944,0.2969,0.3285,0.6431,1.5418,7.1963,5.9570,4.4916,2.4211,4.2454,8.9286,3.7422,1.7575,3.8713
1785.1562,-0.0931,1.4791,-1.5593,-2.4818,-0.8824,2.5957,-2.5776,-2.5285,0.2215,2.0930,7.7061,6.2939,2.6020,-0.7807,5.5769,9.0663,2.2505,-0.5420,1.2080
1789.0625,-0.8289,0.3211,-5.4988,-5.3600,-3.0890,2.0752,-5.1910,-4.9035,-2.0348,1.2239,6.2182,5.0983,-0.2210,-3.9209,5.2754,8.2568,0.3217,-3.9376,-2.7650
1792.9688,-1.9619,-1.3178,-8.9199,-7.3647,-4.6686,0.9938,-6.9722,-6.1525,-5.7251,-0.4037,3.0904,2.5553,-3.2203,-5.9958,3.8641,6.9075,-1.4764,-7.3343,-6.6681
1796.8750,-2.8928,-3.0128,-10.6217,-7.8068,-5.1332,-0.3982,-7.3348,-6.0464,-9.5667,-1.9074,-0.5547,-0.5965,-5.3953,-6.3615,2.2273,5.3954,-2.4771,-9.5718,-9.0457
1800.7812,-3.1135,-4.2022,-10.0114,-6.6280,-4.3445,-1.6342,-6.0157,-4.8832,-12.0076,-2.6427,-3.3606,-3.4418,-6.0352,-5.0477,1.1306,3.8322,-2.3114,-9.9944,-9.1147
1804.6875,-2.5610,-4.4734,-7.4750,-4.4558,-2.6532,-2.3210,-3.3500,-3.3407,-12.0577,-2.4821,-4.4063,-5.3208,-5.0915,-2.7179,0.8604,2.0829,-1.1476,-8.7511,-7.1402
1808.5938,-1.6873,-3.8035,-4.2145,-2.2855,-0.7902,-2.3583,-0.2641,-2.1503,-9.8172,-1.7745,-3.6145,-6.0354,-3.1461,-0.3085,1.1924,0.0305,0.3990,-6.6453,-4.2187
1812.5000,-1.1568,-2.5942,-1.6221,-0.9640,0.4657,-1.9644,2.0732,-1.7593,-6.3712,-1.0418,-1.6738,-5.7388,-1.0189,1.4325,1.6720,-2.1184,1.6330,-4.6366,-1.6165
1816.4062,-1.3531,-1.4626,-0.5566,-0.7660,0.6800,-1.5118,2.7810,-2.1451,-3.1402,-0.6222,0.4362,-4.6497,0.7039,2.2407,1.9889,-3.7478,2.1764,-3.3104,-0.0817
1820.3125,-2.0501,-0.9063,-0.9553,-1.2982,-0.0092,-1.2963,1.6833,-2.8672,-1.1176,-0.4865,1.9871,-2.8542,1.9010,2.3243,2.1779,-4.0846,2.1326,-2.6404,0.4567
1824.2188,-2.5154,-1.0491,-2.0002,-1.7786,-0.9704,-1.3865,-0.6348,-3.3199,-0.4698,-0.3314,2.7781,-0.3606,2.7822,2.1069,2.5211,-2.6652,1.9203,-2.1658,0.6511
1828.1250,-2.0185,-1.6242,-2.7119,-1.5231,-1.4393,-1.6337,-3.1572,-3.0584,-0.6929,0.1364,3.0296,2.6456,3.5343,1.9188,3.2424,0.2814,1.9117,-1.4342,1.1571
1832.0312,-0.4062,-2.1992,-2.5842,-0.3665,-0.9650,-1.8103,-4.9472,-2.0386,-1.1408,0.9277,3.0383,5.5818,4.0413,1.8270,4.2334,3.8047,2.1400,-0.3936,2.1131
1835.9375,1.6774,-2.4905,-1.8677,1.2128,0.3146,-1.7638,-5.5379,-0.6548,-1.5109,1.7019,2.8768,7.5165,3.9020,1.6756,5.0167,6.6146,2.2810,0.5241,3.0117
1839.8438,3.1256,-2.5515,-1.3492,2.3256,1.7364,-1.4803,-5.0049,0.4413,-1.9616,1.9495,2.3413,7.5370,2.7373,1.2674,4.9777,7.6732,1.9160,0.6774,3.0316
1843.7500,3.0696,-2.6988,-1.7885,2.1410,2.4858,-1.0252,-3.7445,0.6577,-2.8270,1.3103,1.1551,5.2531,0.5637,0.5497,3.7130,6.6633,0.8877,-0.3391,1.6058
1847.6562,1.4828,-3.2168,-3.3709,0.3532,2.0747,-0.4209,-2.1564,-0.2346,-4.1880,-0.1755,-0.7464,1.1362,-2.0397,-0.3061,1.2756,4.0872,-0.4990,-2.3630,-1.1316
1851.5625,-0.7292,-4.0353,-5.4993,-2.5853,0.6471,0.4362,-0.4487,-1.9575,-5.6356,-2.0375,-3.0524,-3.5396,-4.1077,-0.9589,-1.8186,0.9716,-1.5709,-4.6464,-4.2906
1855.4688,-2.2319,-4.6143,-7.0373,-5.5872,-1.0702,1.7448,1.3467,-3.8134,-6.4046,-3.5789,-5.1419,-7.1650,-4.7227,-1.0402,-4.7987,-1.6229,-1.6262,-6.1673,-6.5979
1859.3750,-2.0405,-4.1587,-6.8606,-7.3711,-2.1511,3.6593,3.2237,-4.9782,-5.7894,-4.1919,-6.3298,-8.4622,-3.4682,-0.3142,-6.9204,-3.0177,-0.3256,-6.1023,-6.9960
1863.2812,-0.0727,-2.0820,-4.4312,-7.0369,-1.9799,6.1193,5.0686,-4.8734,-3.5688,-3.6125,-6.1550,-7.0355,-0.6651,1.2059,-7.6821,-3.0799,2.0832,-4.2264,-5.1641
1867.1875,2.8542,1.5379,-0.1212,-4.5185,-0.5989,8.7534,6.6380,-3.4520,-0.1835,-1.9989,-4.5750,-3.5515,2.7179,3.2206,-6.9189,-2.1301,4.8187,-1.0574,-1.7043
1871.0938,5.5409,5.7949,4.8491,-0.6918,1.3037,10.9296,7.6349,-1.2594,3.4245,0.1712,-1.9952,0.5294,5.4272,5.2071,-4.8032,-0.7151,6.8688,2.3164,2.0895
1875.0000,7.0697,9.2364,8.8269,2.9466,2.7639,11.9500,7.7970,0.7762,6.2018,2.3032,0.8634,3.5525,6.4010,6.5799,-1.7979,0.6162,7.4030,4.6548,4.7753
1878.9062,7.1966,10.4943,10.3332,4.9195,3.0686,11.3181,6.9387,1.7480,7.3962,3.8868,3.2055,4.3481,5.1813,6.9105,1.4293,1.4659,6.1209,5.0694,5.3799
1882.8125,6.2863,8.9584,8.6363,4.4446,2.1462,8.9646,4.9674,1.1942,6.8109,4.6293,4.4391,2.7138,2.1168,6.1231,4.1559,1.6714,3.4014,3.4143,3.8201
1886.7188,4.9268,5.1322,4.0802,1.8190,0.6062,5.3298,1.9343,-0.6594,4.8279,4.5027,4.3914,-0.5009,-1.7171,4.5663,5.8182,1.3378,0.1903,0.3924,0.9403
1890.6250,3.5424,0.4563,-1.9713,-1.6987,-0.5929,1.2509,-1.8624,-2.9731,2.2305,3.7151,3.3732,-3.7528,-4.8818,2.8986,6.2129,0.8051,-2.3418,-2.7003,-1.8594
1894.5312,2.2593,-3.3333,-7.5839,-4.4720,-0.6635,-2.3161,-5.7955,-4.6686,-0.0908,2.6200,2.0359,-5.4694,-6.1174,1.8168,5.5702,0.5212,-3.2521,-4.5167,-3.2523
1898.4375,1.0447,-4.9932,-10.9470,-5.2543,0.5913,-4.6326,-8.9714,-4.9404,-1.4505,1.5848,1.0596,-4.7441,-4.8709,1.7491,4.4195,0.8319,-2.2115,-4.2652,-2.5853
1902.3438,-0.0649,-4.3023,-11.0469,-3.7546,2.6811,-5.4289,-10.4932,-3.6486,-1.6025,0.8564,0.8107,-1.7532,-1.5731,2.6675,3.2986,1.7729,0.3505,-2.0885,-0.1677
1906.2500,-0.8643,-2.0706,-8.0382,-0.7174,4.6971,-4.9569,-9.8425,-1.3846,-0.8172,0.4804,1.1512,2.3045,2.4970,4.1144,2.4700,2.9949,3.4242,0.9923,2.8953
1910.1562,-1.0917,0.3481,-3.1510,2.5008,5.7821,-3.8183,-7.1755,0.8341,0.2425,0.3176,1.5196,5.7323,5.7411,5.4259,1.8222,3.8999,5.8541,3.5688,5.2451
1914.0625,-0.6574,1.7521,1.8194,4.6079,5.5406,-2.6624,-3.3436,2.0822,0.8166,0.1532,1.2520,7.0843,6.9353,6.0271,1.0198,3.9451,6.8266,4.5290,5.9115
1917.9688,0.1969,1.6165,5.2029,4.9373,4.1763,-1.9121,0.4097,1.9773,0.3981,-0.1663,-0.0303,5.7903,5.7514,5.6530,-0.2043,2.9438,6.1742,3.5767,4.7312
1921.8750,0.9348,0.1972,6.0214,3.6280,2.3143,-1.6637,2.9317,0.8181,-1.0272,-0.6552,-2.1908,2.3685,2.8433,4.4054,-1.8154,1.1813,4.3518,1.3127,2.3447
1925.7812,0.9507,-1.7725,4.2172,1.3983,0.6468,-1.7914,3.5809,-0.6501,-2.9785,-1.2156,-4.6333,-1.8507,-0.5305,2.6583,-3.4588,-0.7372,2.1318,-1.1460,-0.1897
1929.6875,-0.1377,-3.5567,0.5199,-0.8860,-0.3758,-2.1574,2.3914,-1.6830,-4.7249,-1.7368,-6.6034,-5.3290,-3.1250,0.8949,-4.6582,-2.2104,0.2100,-2.7698,-1.9236
1933.5938,-2.2783,-4.7641,-3.9123,-2.5741,-0.6474,-2.7607,-0.0486,-1.9192,-5.6540,-2.1794,-7.5532,-6.9536,-4.2299,-0.4391,-5.0830,-2.9356,-1.0497,-3.0941,-2.3992
1937.5000,-4.9521,-5.4038,-7.8810,-3.3600,-0.2900,-3.7068,-2.8871,-1.4758,-5.5665,-2.5738,-7.3688,-6.4191,-3.8431,-1.0270,-4.7070,-2.9952,-1.6228,-2.3272,-1.7146
1941.4062,-7.3366,-5.6883,-10.4337,-3.2036,0.5469,-5.0212,-5.2995,-0.7375,-4.7422,-2.9391,-6.3565,-4.2338,-2.4784,-0.7297,-3.7765,-2.7043,-1.6455,-1.0881,-0.3123
1945.3125,-8.6126,-5.7779,-11.0243,-2.1956,1.8040,-6.4605,-6.6825,-0.0241,-3.7507,-3.2092,-5.0338,-1.4111,-0.7948,0.3832,-2.6469,-2.3480,-1.2220,0.0064,1.3172
1949.2188,-8.3107,-5.6549,-9.5828,-0.5086,3.4590,-7.4970,-6.7456,0.6140,-3.1234,-3.2515,-3.8654,0.9728,0.7010,2.0244,-1.6235,-2.0026,-0.3683,0.6366,2.8204
1953.1250,-6.5594,-5.1897,-6.5196,1.5515,5.3647,-7.5442,-5.5444,1.3349,-3.0751,-2.9869,-3.0870,2.1622,1.7424,3.7317,-0.8976,-1.5509,0.8904,0.8110,3.9852
1957.0312,-4.1017,-4.3128,-2.6427,3.5009,7.1342,-6.3089,-3.4702,2.2532,-3.4267,-2.5165,-2.6807,1.9198,2.2215,4.9908,-0.5685,-0.8560,2.3822,0.6905,4.6441
1960.9375,-2.0179,-3.1456,1.0454,4.7644,8.2087,-4.0469,-1.1639,3.2189,-3.7622,-2.1324,-2.4796,0.5131,2.0889,5.4165,-0.6678,0.0625,3.7561,0.3837,4.6233
1964.8438,-1.2366,-1.9955,3.6482,4.9097,8.1133,-1.5276,0.6795,3.8299,-3.7228,-2.1621,-2.3221,-1.4593,1.3544,4.9180,-1.1309,0.9937,4.6147,-0.1276,3.8197
1968.7500,-2.0586,-1.2272,4.6654,3.9053,6.7582,0.3068,1.5731,3.6942,-3.2627,-2.7354,-2.1749,-3.3128,0.1768,3.7535,-1.7453,1.6710,4.7307,-0.9077,2.3530
1972.6562,-3.9664,-1.1042,4.1321,2.2121,4.5804,0.8079,1.4476,2.7570,-2.7178,-3.6456,-2.1672,-4.4978,-1.0741,2.4262,-2.1642,1.9725,4.1906,-1.9318,0.6460
1976.5625,-5.8643,-1.6875,2.5284,0.6051,2.3999,-0.0562,0.6718,1.4338,-2.6338,-4.4302,-2.5160,-4.7303,-1.9026,1.4538,-2.0406,2.0281,3.3516,-3.0253,-0.6853
1980.4688,-6.6530,-2.8218,0.5117,-0.2114,1.0364,-1.7103,-0.1543,0.4175,-3.4370,-4.6445,-3.3721,-4.0078,-1.9173,1.1202,-1.2287,2.1452,2.6266,-3.9292,-1.1208
1984.3750,-5.8225,-4.1820,-1.3701,0.0221,0.8891,-3.3027,-0.5303,0.2594,-5.1250,-4.1469,-4.6599,-2.5423,-1.0790,1.3368,0.0832,2.5935,2.2358,-4.4402,-0.5472
1988.2812,-3.7139,-5.3501,-2.8280,0.9833,1.7239,-4.1590,-0.3162,1.0029,-7.1638,-3.1932,-6.0165,-0.6728,0.2114,1.6900,1.4262,3.3952,2.0876,-4.5178,0.6150
1992.1875,-1.2988,-5.9184,-3.7939,1.9584,2.7969,-4.1067,0.2302,2.1241,-8.6820,-2.2669,-6.9068,1.1901,1.2689,1.6551,2.2816,4.2617,1.8632,-4.2945,1.5819
1996.0938,0.3772,-5.6307,-4.2817,2.2488,3.2546,-3.5121,0.6491,2.8333,-8.8934,-1.7622,-6.8995,2.5878,1.4598,0.8754,2.3474,4.7217,1.2440,-3.9973,1.6061
2000.0000,0.7325,-4.5348,-4.2942,1.5529,2.5865,-3.0466,0.5646,2.5444,-7.5386,-1.7499,-5.9656,3.0561,0.5293,-0.6339,1.6646,4.3626,0.1333,-3.8477,0.3939
2003.9062,-0.1458,-3.0617,-3.8574,0.1070,0.8848,-3.3343,-0.1277,1.2078,-5.0947,-1.9871,-4.6006,2.2459,-1.2588,-2.4562,0.5302,3.0413,-1.2625,-3.9920,-1.6988
2007.8125,-1.7020,-1.9296,-3.1310,-1.4761,-1.2183,-4.6645,-1.2719,-0.6990,-2.6072,-2.1479,-3.6351,0.1164,-3.2403,-3.9359,-0.7197,0.9522,-2.5278,-4.4659,-3.8063
2011.7188,-3.3152,-1.8445,-2.4547,-2.5431,-2.8796,-6.8779,-2.6169,-2.4871,-1.1969,-2.0787,-3.7817,-2.8934,-4.6454,-4.4560,-1.8823,-1.4635,-3.2318,-5.1689,-4.9524
2015.6250,-4.6017,-3.1078,-2.2239,-2.7000,-3.4452,-9.4333,-3.9838,-3.6470,-1.4851,-1.8734,-5.1607,-5.8617,-4.9089,-3.6971,-2.8908,-3.6921,-3.1025,-5.8403,-4.4961
2019.5312,-5.4425,-5.3473,-2.6306,-1.9135,-2.7130,-11.5923,-5.3077,-4.0547,-3.2474,-1.7114,-7.1088,-7.6371,-3.8528,-1.7594,-3.6736,-5.2961,-2.0934,-6.0771,-2.3960
2023.4375,-5.8029,-7.5721,-3.4434,-0.4067,-0.9519,-12.6442,-6.5379,-3.8949,-5.4900,-1.6019,-8.4397,-7.2896,-1.6908,0.9035,-4.0202,-5.9725,-0.3366,-5.4452,0.8137
2027.3438,-5.5687,-8.5830,-4.0190,1.5258,1.2827,-12.1121,-7.5005,-3.4143,-6.9199,-1.2678,-8.0523,-4.5543,1.0995,3.6905,-3.6012,-5.5313,1.9540,-3.6849,4.2806
2031.2500,-4.5776,-7.5574,-3.6061,3.6285,3.4020,-9.8986,-7.8561,-2.7250,-6.5612,-0.2949,-5.5485,-0.0227,3.9508,6.0857,-2.1601,-3.8648,4.5572,-0.9208,7.1656
2035.1562,-2.8226,-4.4940,-1.7940,5.6601,4.9705,-6.3316,-7.2130,-1.8070,-4.2031,1.5324,-1.4953,5.0510,6.3555,7.7991,0.2531,-0.9743,7.2584,2.2674,8.8856
2039.0625,-0.6328,-0.2601,1.1685,7.2992,5.7694,-2.0825,-5.3376,-0.6732,-0.4683,3.9550,2.8290,9.2516,7.9643,8.7641,3.1865,2.9323,9.8208,5.0076,9.2027
2042.9688,1.3693,3.7997,4.4091,8.1230,5.7670,2.0317,-2.3272,0.4796,3.4968,6.2444,6.0527,11.5623,8.6338,9.0285,5.9139,7.3352,11.9614,6.4953,8.1920
2046.8750,2.5548,6.4850,6.8409,7.7475,5.0625,5.3012,1.3684,1.2982,6.5222,7.5231,7.3284,11.7015,8.4284,8.6386,7.7127,11.3935,13.3713,6.3742,6.1697
2050.7812,2.6324,7.2621,7.7254,6.0817,3.8499,7.3303,5.0958,1.4918,7.8543,7.2122,6.6105,10.0972,7.5737,7.6059,8.1235,14.1091,13.7848,4.9173,3.6304
2054.6875,1.7988,6.4245,7.0601,3.5258,2.3960,8.1127,8.2335,1.0791,7.3619,5.3281,4.4911,7.5639,6.3645,5.9723,7.0542,14.6542,13.0694,2.8868,1.1768
2058.5938,0.5768,4.8423,5.5581,0.9315,1.0007,7.9512,10.3869,0.4546,5.4778,2.4523,1.7658,4.8936,5.0552,3.9111,4.7216,12.7381,11.2953,1.1344,-0.6062
2062.5000,-0.5448,3.4689,4.2228,-0.7286,-0.0779,7.2728,11.4488,0.1846,2.9543,-0.5839,-0.9675,2.5780,3.7755,1.7621,1.5298,8.8316,8.7478,0.1596,-1.3447
2066.4062,-1.4093,2.8737,3.7624,-0.8458,-0.7111,6.4334,11.5157,0.6424,0.5570,-3.0891,-3.4563,0.7513,2.5093,-0.0554,-2.0114,4.0894,5.8715,-0.1279,-1.0681
2070.3125,-2.2213,3.0171,4.1752,0.4534,-0.9494,5.5920,10.7320,1.7253,-1.2014,-4.7487,-5.6823,-0.6958,1.1425,-1.2239,-5.3147,-0.0514,3.1551,-0.3185,-0.2802
2074.2188,-3.3060,3.3354,4.7375,2.2857,-0.9964,4.6877,9.1649,2.8586,-2.2204,-5.6154,-7.6562,-1.9588,-0.4566,-1.6969,-7.7667,-2.4524,0.9903,-1.1468,0.1842
2078.1250,-4.7978,3.0530,4.3959,3.3981,-1.1137,3.5055,6.7930,3.3056,-2.8158,-5.9312,-9.3023,-3.2143,-2.3698,-1.7452,-8.8732,-2.7644,-0.4523,-3.0762,-0.4981
2082.0312,-6.4927,1.5640,2.3504,2.7875,-1.4999,1.7968,3.6216,2.6023,-3.5509,-5.9367,-10.4984,-4.5792,-4.5981,-1.8356,-8.4697,-1.5743,-1.2808,-6.0430,-2.7380
2085.9375,-7.9636,-1.2719,-1.4704,0.2387,-2.1991,-0.5787,-0.1406,0.8560,-4.9300,-5.7797,-11.1837,-6.0865,-7.0516,-2.3954,-6.8574,-0.1057,-1.8340,-9.4676,-6.2732
2089.8438,-8.8287,-5.0167,-6.2720,-3.4980,-3.0675,-3.5264,-3.9555,-1.2614,-7.0660,-5.5238,-11.4057,-7.6385,-9.5245,-3.5842,-4.7251,0.3959,-2.5265,-12.4892,-10.1850
2093.7500,-8.9601,-8.7550,-10.6433,-6.9816,-3.7956,-6.6478,-6.9876,-2.8075,-9.4917,-5.1788,-11.2443,-8.9508,-11.6449,-5.1855,-2.8381,-0.7075,-3.6293,-14.2738,-13.1930
2097.6562,-8.4788,-11.3708,-13.0682,-8.6671,-3.9738,-9.2802,-8.3306,-2.9735,-11.2486,-4.6885,-10.6779,-9.5449,-12.8424,-6.6694,-1.6489,-3.1200,-5.0794,-14.2461,-14.0933
2101.5625,-7.5584,-11.9136,-12.4768,-7.5273,-3.1988,-10.6663,-7.3553,-1.3939,-11.2609,-3.8869,-9.5142,-8.8422,-12.4133,-7.3920,-1.0653,-5.7523,-6.4222,-12.1762,-12.1546
2105.4688,-6.2062,-9.9267,-8.6277,-3.4467,-1.2224,-10.2165,-4.0269,1.7512,-8.8388,-2.4950,-7.4664,-6.3591,-9.7382,-6.8438,-0.5305,-7.2446,-6.9508,-8.1584,-7.3411
2109.3750,-4.2026,-5.6204,-2.2074,2.7358,1.8787,-7.7603,0.9784,5.8229,-4.0588,-0.2172,-4.3407,-1.9409,-4.6183,-4.8539,0.6256,-6.6009,-6.0177,-2.5664,-0.3350
2113.2812,-1.2613,0.1758,5.3552,9.4991,5.5823,-3.6635,6.4374,9.9096,2.1817,3.0790,-0.2241,4.0542,2.4139,-1.6847,2.7756,-3.6245,-3.3895,3.9514,7.5922
2117.1875,2.6897,6.2608,12.2731,15.0866,8.9490,1.2582,10.9705,13.0303,8.4710,7.1932,4.4398,10.7048,10.0032,2.0097,5.7630,1.0255,0.5324,10.4525,14.8033
2121.0938,7.2897,11.4063,16.8629,17.9802,10.8651,5.9979,13.4871,14.3341,13.3918,11.5433,8.9193,16.6523,16.2358,5.3529,8.9607,6.1338,4.7699,15.7388,19.5987
2125.0000,11.7368,14.6721,17.9684,17.2932,10.4584,9.6710,13.4973,13.2993,15.9819,15.2877,12.3641,20.4055,19.2342,7.5034,11.5454,10.4027,8.1181,18.5435,20.6047
2128.9062,15.0151,15.5997,15.2526,13.0174,7.5187,11.7450,11.1792,9.9133,15.9531,17.5804,14.0070,20.7710,17.8710,7.9260,12.8130,12.8789,9.6459,17.8825,17.2053
2132.8125,16.2577,14.2580,9.3013,6.0703,2.7017,12.1096,7.2257,4.7627,13.6295,17.8533,13.3548,17.2994,12.2907,6.5870,12.3827,13.1911,9.1055,13.4736,9.8861
2136.7188,15.0850,11.1669,1.5049,-1.8947,-2.6318,11.0010,2.5827,-1.0498,9.7170,16.0150,10.3538,10.5826,3.9777,3.9912,10.2568,11.5703,7.0397,6.0340,0.2998
2140.6250,11.7758,7.1414,-6.2700,-8.9100,-6.9062,8.8594,-1.7983,-6.1848,5.0607,12.4958,5.4992,2.2388,-4.6989,1.0315,6.7909,8.7097,4.5244,-2.7363,-9.0806
2144.5312,7.2049,3.0882,-12.1573,-13.2512,-8.9305,6.1952,-5.1365,-9.4623,0.4881,8.1317,-0.1763,-5.4960,-11.2914,-1.3007,2.6332,5.5367,2.6786,-10.5620,-15.6851
2148.4375,2.5729,-0.2106,-14.7981,-13.9527,-8.3159,3.4984,-6.9340,-10.2185,-3.2654,3.9295,-5.3049,-10.4800,-14.0967,-2.2383,-1.3694,2.9531,2.1925,-15.2945,-17.7063
2152.3438,-0.9675,-2.2744,-13.7215,-11.0885,-5.5239,1.1813,-7.0463,-8.4780,-5.6133,0.7862,-8.5742,-11.4249,-12.6647,-1.4724,-4.3428,1.5862,3.1029,-15.6481,-14.7395
2156.2500,-2.6487,-2.9937,-9.4635,-5.7039,-1.5625,-0.4613,-5.7026,-4.8843,-6.2025,-0.7486,-9.1839,-8.3708,-7.8182,0.7721,-5.6413,1.6072,4.8910,-11.6652,-7.9181
2160.1562,-2.2669,-2.5580,-3.3672,0.5675,2.4626,-1.2747,-3.4353,-0.4494,-5.0110,-0.5952,-7.1565,-2.6441,-1.2358,3.8230,-5.0994,2.6869,6.7965,-4.7044,0.5235
2164.0625,-0.1537,-1.2778,2.8711,6.0380,5.6939,-1.2382,-0.9005,3.7560,-2.3963,0.8879,-3.3272,3.6976,5.1768,6.7556,-3.1352,4.1330,8.1452,3.0488,8.0674
2167.9688,3.0126,0.5809,7.7408,9.4477,7.6335,-0.4321,1.3553,6.8650,0.9571,3.0675,1.0083,8.6804,9.8614,8.6373,-0.6041,5.1794,8.5299,9.3435,12.7599
2171.8750,6.4428,2.8339,10.3371,10.2501,8.0739,0.9923,3.0682,8.3829,4.1933,5.2529,4.6192,11.1099,11.9483,8.7744,1.5535,5.3130,7.8161,12.5874,13.7605
2175.7812,9.4116,5.2605,10.5229,8.6616,7.0087,2.8091,4.2694,8.2666,6.4948,6.8801,6.7713,10.8531,11.3257,6.9254,2.6898,4.4828,6.0670,12.2714,11.4333
2179.6875,11.3402,7.4430,8.8181,5.5253,4.6513,4.6876,5.1392,6.9268,7.2847,7.6059,7.3638,8.6416,8.5079,3.4305,2.6473,3.0836,3.5020,8.9861,7.0319
2183.5938,11.8309,8.7478,6.1179,2.0542,1.5342,6.1922,5.8166,5.1332,6.3751,7.3190,6.7565,5.5744,4.4087,-0.8148,1.6849,1.7258,0.5178,4.0957,2.1711
2187.5000,10.7256,8.5594,3.3912,-0.4945,-1.4579,6.8752,6.3118,3.8045,4.0334,6.1148,5.4481,2.6171,0.0938,-4.5902,0.2163,0.9163,-2.2978,-0.7590,-1.6920
2191.4062,8.1972,6.6808,1.4616,-1.1722,-3.2703,6.4679,6.5840,3.7011,0.9450,4.2705,3.8276,0.3298,-3.4537,-6.7523,-1.4452,0.8225,-4.2623,-4.1494,-3.6167
2195.3125,4.7956,3.6399,0.8858,0.3511,-3.0729,5.0728,6.6990,5.1207,-1.9490,2.2116,2.1214,-1.1173,-5.5329,-6.6669,-3.1765,1.2349,-4.8265,-5.2153,-3.3210
2199.2188,1.3445,0.6275,1.8804,3.6340,-0.6803,3.2144,6.8974,7.7393,-3.7303,0.4328,0.5029,-1.7553,-5.8546,-4.4674,-4.9493,1.7276,-3.8312,-3.8332,-1.1305
2203.1250,-1.3352,-1.0022,4.2571,7.5698,3.2635,1.6566,7.4616,10.7029,-3.8270,-0.6430,-0.7836,-1.6329,-4.5617,-0.9900,-6.6680,1.9058,-1.6252,-0.5845,2.2058
2207.0312,-2.7543,-0.4378,7.3914,10.7675,7.4903,1.0455,8.4431,12.9577,-2.2506,-0.8197,-1.4157,-0.7580,-2.1247,2.6041,-8.0941,1.5990,1.0627,3.4644,5.7630
2210.9375,-2.9357,2.0962,10.3081,12.0806,10.6303,1.5764,9.4626,13.6773,0.3857,-0.2020,-1.1220,0.8286,0.8452,5.3348,-8.9191,0.9072,3.4496,7.1194,8.6825
2214.8438,-2.3051,5.3998,11.9423,11.0554,11.7812,2.9007,9.7947,12.5832,3.1162,0.8785,0.1489,2.9363,3.7819,6.7694,-8.9259,0.1050,5.0404,9.4563,10.3534
2218.7500,-1.3466,7.9227,11.5332,8.0830,10.8252,4.3523,8.7627,10.0127,5.0436,2.0597,2.1480,5.1714,6.2706,7.0662,-8.1123,-0.5188,5.7865,10.1140,10.5066
2222.6562,-0.2609,8.6053,8.9849,4.1839,8.3528,5.3601,6.2249,6.7220,5.7264,3.1385,4.3996,7.0016,8.0563,6.7106,-6.6901,-0.7881,5.9861,9.3613,9.2208
2226.5625,1.1149,7.4254,4.9837,0.5404,5.2864,5.7785,2.8141,3.5483,5.3282,4.1192,6.3826,7.9191,8.9985,6.1424,-4.9790,-0.6770,6.0183,7.8951,6.8697
2230.4688,3.0459,5.3196,0.7569,-1.9800,2.4541,5.9106,-0.2914,1.1026,4.4500,5.0789,7.7105,7.6242,9.0432,5.5225,-3.2855,-0.2689,6.0987,6.4642,4.0307
2234.3750,5.4838,3.5411,-2.4537,-3.0887,0.3426,6.2142,-1.9836,-0.3815,3.7447,5.9577,8.2135,6.1418,8.2442,4.7658,-1.8454,0.3143,6.2027,5.5044,1.3641
2238.2812,7.8338,2.8743,-3.9486,-3.0378,-0.8994,6.9015,-1.8710,-1.0212,3.5385,6.4577,7.9085,3.8173,6.7992,3.7701,-0.8374,0.9568,6.1619,4.9702,-0.5412
2242.1875,9.1390,3.2041,-3.8589,-2.3620,-1.3117,7.7243,-0.5371,-1.1421,3.6713,6.1675,6.9113,1.1923,5.0355,2.6336,-0.4030,1.5517,5.8207,4.4454,-1.3363
2246.0938,8.6205,3.6894,-3.0016,-1.5719,-0.9929,8.1076,0.7772,-1.1081,3.6341,4.8583,5.3700,-1.1833,3.3101,1.6789,-0.6140,1.9839,5.1251,3.4571,-1.0383
2250.0000,6.2310,3.3886,-2.3805,-0.9554,-0.0845,7.5405,0.8946,-1.1845,2.9062,2.7436,3.4608,-2.9158,1.8653,1.2612,-1.3935,2.1317,4.1038,1.8107,-0.0376
2253.9062,2.8216,1.9030,-2.6201,-0.5483,1.1664,5.9467,-0.6155,-1.4581,1.2903,0.4858,1.4234,-3.8400,0.7386,1.5094,-2.4654,1.9130,2.8103,-0.2437,1.0555
2257.8125,-0.2415,-0.3834,-3.6609,-0.2399,2.3798,3.7654,-3.2130,-1.8236,-0.9456,-1.1080,-0.4233,-3.9801,-0.1985,2.2008,-3.4105,1.3552,1.3174,-2.1071,1.6755
2261.7188,-1.8107,-2.5957,-4.8878,0.0708,3.1292,1.6775,-5.7529,-2.0472,-3.1903,-1.5386,-1.7338,-3.4536,-1.0865,2.8746,-3.8384,0.6403,-0.2146,-3.1364,1.5463
2265.6250,-1.5956,-3.9698,-5.5984,0.3457,3.1114,0.1633,-7.2006,-1.9031,-4.8020,-0.9309,-2.2562,-2.3995,-1.9200,3.1060,-3.5879,0.0681,-1.4775,-2.9994,0.7620
2269.5312,-0.3074,-4.3491,-5.5091,0.3590,2.2828,-0.7976,-7.2415,-1.3409,-5.4413,0.0023,-1.9675,-0.9889,-2.5144,2.7486,-2.8279,-0.0713,-2.0715,-1.8913,-0.3503
2273.4375,0.7786,-4.2584,-4.9718,-0.2448,0.8597,-1.6712,-6.4167,-0.5960,-5.2496,0.3473,-1.1392,0.5054,-2.6395,1.9780,-1.9799,0.3332,-1.7074,-0.4963,-1.4953
2277.3438,0.5761,-4.5223,-4.7516,-1.7859,-0.8213,-2.9881,-5.7220,-0.1490,-4.7775,-0.4939,-0.2699,1.6694,-2.2313,1.1220,-1.4941,1.1027,-0.4418,0.3059,-2.6165
2281.2500,-1.1871,-5.6853,-5.4929,-4.3239,-2.4803,-4.8875,-5.9423,-0.5097,-4.6876,-2.4514,0.1162,2.0324,-1.5158,0.4201,-1.6022,1.7987,1.2330,-0.1370,-3.8887
2285.1562,-3.8117,-7.6021,-7.2051,-7.4744,-3.9795,-6.8959,-7.1386,-1.9108,-5.3710,-4.7888,-0.2690,1.2804,-0.9222,-0.1022,-2.1945,1.9134,2.5633,-1.8912,-5.4882
2289.0625,-5.9874,-9.4462,-9.1082,-10.3958,-5.2654,-8.0986,-8.5899,-4.0847,-6.6708,-6.4384,-1.2890,-0.5119,-0.8133,-0.5552,-2.8894,1.1346,2.9116,-4.3281,-7.3036
2292.9688,-6.4461,-10.1318,-9.9724,-12.0230,-6.2326,-7.6195,-9.2043,-6.2836,-7.8730,-6.4805,-2.3860,-2.8010,-1.2050,-0.9798,-3.2550,-0.4582,2.1224,-6.3464,-8.8109
2296.8750,-4.5632,-8.9059,-8.7929,-11.4984,-6.6417,-5.1355,-8.1414,-7.5780,-8.0099,-4.5399,-2.8185,-4.7498,-1.6806,-1.1938,-3.0531,-2.3896,0.6390,-6.8560,-9.2470
2300.7812,-0.6417,-5.7905,-5.4232,-8.6129,-6.1853,-1.1314,-5.2888,-7.3007,-6.3595,-0.9454,-2.0413,-5.6065,-1.5919,-0.8345,-2.3681,-3.9974,-0.7203,-5.3097,-8.0099
2304.6875,4.2066,-1.6407,-0.7922,-4.0145,-4.6820,3.2471,-1.3455,-5.4000,-2.9007,3.3759,-0.0374,-5.0828,-0.4484,0.4084,-1.5526,-4.7493,-1.2049,-2.0181,-5.0521
2308.5938,8.4949,2.2043,3.4516,0.9668,-2.2731,6.6698,2.5030,-2.4980,1.5299,7.2095,2.5937,-3.4991,1.7400,2.5215,-1.0207,-4.4921,-0.5325,1.9298,-1.0158
2312.5000,10.9245,4.5047,5.7067,4.8298,0.5223,8.1874,5.1210,0.3902,5.5085,9.4613,4.8760,-1.5998,4.3841,5.0526,-1.0070,-3.4909,0.9823,5.1310,2.9869
2316.4062,10.8654,4.6560,5.1975,6.5091,2.9599,7.6170,5.8933,2.3305,7.6311,9.5412,5.9257,-0.1408,6.5612,7.2514,-1.4217,-2.2396,2.6299,6.4987,5.8362
2320.3125,8.5793,2.9330,2.3535,5.7788,4.3669,5.5810,4.9229,2.8850,7.1760,7.5928,5.4083,0.4995,7.4506,8.3983,-1.8817,-1.1554,3.6992,5.7461,6.8554
2324.2188,5.0949,0.3390,-1.4098,3.2649,4.4369,3.2010,2.9070,2.2614,4.4836,4.4647,3.7327,0.4608,6.7173,8.1370,-1.8986,-0.3379,3.8316,3.4768,6.0262
2328.1250,1.7750,-1.8551,-4.3860,0.0940,3.3667,1.6015,0.7890,1.1391,0.8420,1.3944,1.8657,0.2328,4.6480,6.6266,-1.1221,0.4696,3.1556,0.8501,3.8988
2332.0312,-0.2466,-2.6612,-5.3816,-2.6165,1.7680,1.4454,-0.6392,0.2905,-2.0864,-0.4900,0.8607,0.3164,1.9937,4.4453,0.4914,1.6985,2.1671,-0.9942,1.2954
2335.9375,-0.5064,-1.7655,-4.2255,-4.1717,0.3898,2.6936,-1.0254,0.2002,-3.0275,-0.6356,1.3434,0.9341,-0.3703,2.3168,2.6660,3.6544,1.4502,-1.4487,-1.0172
2339.8438,0.6728,0.3997,-1.7576,-4.4600,-0.2194,4.6708,-0.5496,0.8627,-1.6773,0.7316,3.2139,1.9441,-1.7894,0.8132,4.9327,6.2582,1.3923,-0.6496,-2.5482
2343.7500,2.4255,2.9045,0.6474,-3.8600,0.0400,6.3879,0.1888,1.8253,1.1722,2.7690,5.6940,2.9521,-2.0415,0.1701,6.8049,8.9606,2.0080,0.6765,-3.1627
2347.6562,3.7903,4.7489,1.7488,-2.9947,0.7758,6.9703,0.4367,2.4271,4.0184,4.4533,7.6748,3.5023,-1.3655,0.2624,7.9007,10.8785,2.9262,1.6080,-3.0509
2351.5625,4.1139,5.2711,0.9733,-2.4568,1.2948,6.0145,-0.3854,2.1102,5.3563,5.0517,8.1855,3.2270,-0.3382,0.7113,7.9782,11.1074,3.5275,1.4549,-2.6265
2355.4688,3.2342,4.3759,-1.3991,-2.5807,0.9538,3.7397,-2.4001,0.6762,4.3790,4.3879,6.7878,1.9246,0.3441,1.0472,6.9265,9.0952,3.1873,0.0385,-2.3646
2359.3750,1.4303,2.5256,-4.4187,-3.3062,-0.4855,0.8933,-5.1471,-1.6081,1.3502,2.8107,3.7559,-0.3824,0.1207,0.8717,4.7921,4.9343,1.5462,-2.2542,-2.5934
2363.2812,-0.7404,0.5342,-6.8874,-4.1677,-2.6760,-1.5384,-7.6919,-4.0877,-2.5200,0.9449,-0.0053,-3.3729,-1.2025,-0.0126,1.8551,-0.5569,-1.2909,-4.6259,-3.2981
2367.1875,-2.5995,-0.7459,-7.8276,-4.4501,-4.7927,-2.7003,-8.9693,-5.9561,-5.6417,-0.5993,-3.2734,-6.3814,-3.3223,-1.5234,-1.3199,-6.0327,-4.7223,-6.1655,-4.0511
2371.0938,-3.4818,-0.7437,-6.8349,-3.4991,-5.8977,-2.1937,-8.2514,-6.5629,-6.7991,-1.4267,-4.9619,-8.4919,-5.4828,-3.2901,-3.9776,-10.0641,-7.8276,-6.1988,-4.1610
2375.0000,-2.9138,0.5950,-4.2180,-1.0833,-5.3881,-0.2424,-5.5331,-5.6719,-5.7381,-1.4387,-4.5679,-8.8367,-6.7213,-4.7347,-5.4539,-11.6681,-9.6993,-4.5857,-3.0197
2378.9062,-0.8618,2.7374,-0.8882,2.3807,-3.2855,2.3613,-1.6232,-3.5493,-3.2939,-0.8386,-2.4271,-7.0144,-6.2458,-5.2377,-5.5285,-10.6885,-9.7798,-1.8419,-0.4855
2382.8125,2.0677,4.7175,1.9718,5.9103,-0.1993,4.5332,2.1538,-0.8328,-0.9747,-0.0874,0.3744,-3.3984,-3.7856,-4.3437,-4.6108,-7.8240,-8.0395,1.0065,2.9328
2386.7188,4.6904,5.5011,3.3644,8.3643,3.0150,5.3128,4.5421,1.7621,-0.1878,0.2235,2.4567,0.8902,0.2540,-1.9312,-3.5672,-4.2631,-4.9155,2.8272,6.2340
2390.6250,5.6962,4.4455,2.8898,8.9894,5.6959,4.2618,4.9363,3.7448,-1.5051,-0.3893,2.7952,4.4002,4.9173,1.7188,-3.2152,-1.1012,-1.0695,2.8865,8.3708
2394.5312,4.3460,1.6436,0.9240,7.7948,7.6387,1.6642,3.6452,4.9992,-4.3670,-2.0116,1.2385,5.9666,9.0405,5.9805,-3.7709,1.1414,2.8722,1.1997,8.7358
2398.4375,1.0089,-2.0509,-1.5536,5.5192,9.0272,-1.5910,1.6718,5.7018,-7.4081,-4.1665,-1.4131,5.1900,11.6438,10.0366,-4.6382,2.6232,6.4491,-1.4892,7.4053
2402.3438,-2.8799,-5.3827,-3.4359,3.1941,10.1036,-4.4172,0.1259,6.0771,-9.2338,-5.9536,-3.8523,2.5225,12.1954,13.0727,-4.7468,3.8570,9.3306,-4.1179,5.0069
2406.2500,-5.5388,-7.2897,-4.0380,1.5696,10.8343,-6.0377,-0.3914,6.1690,-9.2059,-6.5092,-5.0026,-1.0545,10.6734,14.4610,-3.2852,5.1874,11.2149,-5.8835,2.3240
2410.1562,-5.8712,-7.4170,-3.4247,0.7636,10.8382,-6.3249,-0.0638,5.7957,-7.7711,-5.5564,-4.6145,-4.5210,7.4688,13.9063,-0.3582,6.4396,11.8038,-6.6394,-0.0914
2414.0625,-4.1546,-6.2544,-2.3207,0.3497,9.6522,-5.7804,0.3614,4.7301,-6.1338,-3.6735,-3.3487,-7.1732,3.2397,11.5345,2.9080,7.0006,10.9216,-6.8606,-2.0537
2417.9688,-1.8921,-4.8036,-1.6477,-0.2006,7.1606,-5.1663,0.1358,2.9802,-5.4789,-2.0296,-2.2918,-8.6814,-1.2089,7.8970,4.9578,6.2923,8.6990,-7.2033,-3.5866
2421.8750,-0.8548,-3.9695,-1.9616,-1.0442,3.8680,-5.0114,-0.9609,0.9568,-6.2308,-1.6768,-2.2190,-8.9300,-5.0251,3.8577,4.7611,4.3026,5.6624,-7.9601,-4.6511
2425.7812,-1.9111,-4.0421,-3.1282,-1.8025,0.7846,-5.2968,-2.4687,-0.6260,-7.8085,-2.8298,-3.0885,-7.8664,-7.4444,0.3570,2.5159,1.7771,2.6103,-8.7882,-5.0095
2429.6875,-4.4155,-4.5766,-4.4237,-1.8216,-1.0501,-5.5095,-3.5561,-1.0972,-9.0152,-4.6305,-4.0962,-5.5224,-7.9784,-1.8874,-0.3913,-0.1103,0.3095,-8.9056,-4.3484
2433.5938,-6.5843,-4.7256,-4.9799,-0.6689,-1.1222,-5.0135,-3.5631,-0.2243,-8.7889,-5.6147,-4.2378,-2.1781,-6.5900,-2.6176,-2.1779,-0.4220,-0.8126,-7.6260,-2.5648
2437.5000,-6.6246,-3.7879,-4.2793,1.4914,0.2786,-3.4830,-2.4059,1.5919,-6.8243,-4.6217,-2.9833,1.5340,-3.7355,-2.0827,-1.7185,0.9799,-0.7839,-4.8645,0.0302
2441.4062,-3.8766,-1.6218,-2.3973,3.9138,2.2392,-1.1152,-0.5888,3.4628,-3.6857,-1.5627,-0.6064,4.7646,-0.1945,-0.8468,0.8123,3.3590,0.0584,-1.2646,2.7834
2445.3125,0.7706,1.3146,0.1197,5.6716,3.7466,1.4953,1.1467,4.4314,-0.3880,2.4720,2.0287,6.8102,3.2538,0.5482,4.1086,5.5782,1.3599,2.1398,5.0310
2449.2188,5.4306,4.2688,2.6025,6.1692,4.2186,3.7007,2.2582,3.9269,2.2262,5.8499,4.0381,7.4766,6.1331,1.8709,6.5710,6.8063,2.9691,4.4944,6.4626
2453.1250,8.3292,6.5965,4.5686,5.4263,3.7180,5.1090,2.6153,2.0017,3.8854,7.3615,5.0245,7.1652,8.3613,3.2531,7.2449,6.9789,4.9195,5.5418,7.2444
2457.0312,8.7350,7.9937,5.7983,3.9632,2.7507,5.6623,2.3808,-0.7647,4.8338,6.8792,5.1801,6.5798,10.0725,4.9627,6.2624,6.7114,7.1958,5.6237,7.7942
2460.9375,7.1569,8.4533,6.1962,2.4000,1.8306,5.4863,1.7149,-3.6063,5.4325,5.2991,4.9695,6.2319,11.3031,7.0419,4.5649,6.7479,9.4752,5.3058,8.3600
2464.8438,4.7991,8.0632,5.6261,1.0690,1.1336,4.6892,0.5842,-5.9269,5.7630,3.8538,4.6860,6.0890,11.7833,9.0653,3.1806,7.3496,11.0746,4.9197,8.7165
2468.7500,2.7466,6.8647,3.9154,-0.0906,0.4726,3.3036,-1.1483,-7.4674,5.5419,3.3011,4.2481,5.6316,11.0206,10.2183,2.5927,8.0600,11.1965,4.3545,8.2307
2472.6562,1.4514,4.9008,1.0636,-1.3104,-0.4226,1.4180,-3.4240,-8.2241,4.3981,3.5351,3.3830,4.2963,8.6516,9.6942,2.6031,8.0039,9.3540,3.2313,6.2933
2476.5625,0.7745,2.3966,-2.5122,-2.6349,-1.5541,-0.6447,-5.7480,-8.2342,2.2822,3.8281,2.0205,1.9956,4.8360,7.1884,2.6949,6.5009,5.7102,1.3088,2.8443
2480.4688,0.3958,-0.1242,-5.9308,-3.7203,-2.5129,-2.3097,-7.2520,-7.4202,-0.3209,3.4545,0.5466,-0.6666,0.3985,3.1807,2.5395,3.5611,1.1041,-1.1903,-1.3723
2484.3750,0.1728,-1.9530,-8.1225,-3.9560,-2.6622,-2.9853,-7.0895,-5.6234,-2.5567,2.2116,-0.3338,-2.6672,-3.4278,-1.1927,2.2376,-0.0708,-3.2809,-3.5795,-5.0330
2488.2812,0.1611,-2.5282,-8.3197,-2.8447,-1.5314,-2.4259,-4.9318,-2.8012,-3.6540,0.4836,-0.0618,-3.1670,-5.5463,-4.6270,2.1350,-3.3327,-6.4246,-5.0489,-6.8457
2492.1875,0.3526,-1.7838,-6.4820,-0.3840,0.8449,-0.9606,-1.2358,0.7704,-3.3721,-1.1304,1.3099,-2.0548,-5.5216,-6.2252,2.4057,-5.4292,-7.8693,-5.1255,-6.2013
2496.0938,0.4415,-0.2649,-3.3847,2.8131,3.8699,0.6151,2.9105,4.4623,-2.1548,-2.2835,3.0098,-0.0719,-3.7702,-5.8397,2.7698,-6.2009,-7.8003,-3.9623,-3.4892
2500.0000,-0.1052,1.1108,-0.2869,5.7556,6.6491,1.4683,6.2882,7.4900,-0.8955,-3.0741,3.9181,1.5675,-1.3072,-4.0116,2.5923,-6.0816,-6.7986,-2.2791,0.0966
2503.9062,-1.6758,1.5353,1.6549,7.5347,8.4117,1.2219,8.0987,9.2454,-0.4577,-3.8462,3.2024,1.8265,0.7858,-1.5902,1.3066,-5.7346,-5.4521,-1.0000,3.1389
2507.8125,-4.1276,0.7594,1.9171,7.7403,8.8392,0.1951,8.2562,9.5659,-1.2295,-4.8029,0.8212,0.3741,1.8529,0.7035,-1.1467,-5.6449,-4.0743,-0.7965,4.6318
2511.7188,-6.7184,-0.7617,0.8111,6.6026,8.1290,-0.7791,7.2933,8.7744,-2.9465,-5.7695,-2.4217,-2.2951,1.8416,2.5102,-4.1841,-5.9172,-2.6788,-1.7800,4.3399
2515.6250,-8.4638,-2.1175,-0.7294,4.8055,6.7977,-0.8545,5.9877,7.4673,-4.8511,-6.3049,-5.2951,-5.1684,1.1218,3.7785,-6.8510,-6.3387,-1.1765,-3.4770,2.7454
2519.5312,-8.7077,-2.4440,-1.6432,3.1095,5.3744,0.3163,4.9590,6.1860,-6.0772,-6.0636,-6.7699,-7.2232,0.1265,4.5449,-8.3218,-6.5804,0.3894,-5.0663,0.6853
2523.4375,-7.5204,-1.3919,-1.2599,2.0109,4.1743,2.3690,4.4462,5.1757,-6.0545,-5.1118,-6.4899,-7.8349,-0.9137,4.7654,-8.3092,-6.3643,1.7587,-5.7446,-1.0751
2527.3438,-5.6502,0.6963,0.4030,1.6073,3.2549,4.4283,4.3302,4.3664,-4.7412,-3.9341,-4.8483,-6.9111,-1.9788,4.3326,-7.1463,-5.5187,2.5894,-5.0536,-2.1092
2531.2500,-4.0595,2.9851,2.6847,1.6921,2.5262,5.5901,4.3151,3.5560,-2.5964,-3.1152,-2.6832,-4.7715,-3.0584,3.2423,-5.5288,-3.9738,2.7111,-3.0468,-2.3573
2535.1562,-3.3517,4.5933,4.6256,1.9641,1.9009,5.3953,4.1341,2.6425,-0.3279,-2.9278,-0.8132,-1.9285,-3.9444,1.7358,-4.1087,-1.7859,2.3017,-0.2517,-1.9857
2539.0625,-3.4570,5.0355,5.4402,2.2017,1.3688,4.0423,3.6796,1.7272,1.4530,-3.1331,0.3184,1.0837,-4.2192,0.2615,-3.1915,0.7896,1.8386,2.5437,-1.2161
2542.9688,-3.7563,4.4209,4.8946,2.3089,0.9636,2.2493,3.0305,1.0203,2.4955,-3.1443,0.7367,3.7828,-3.4780,-0.7543,-2.6822,3.2662,1.8290,4.5917,-0.2322
2546.8750,-3.5341,3.3181,3.4069,2.2544,0.6725,0.8707,2.3922,0.6297,2.9573,-2.4400,0.7766,5.7652,-1.6371,-1.1700,-2.2626,5.0416,2.4872,5.4533,0.8219
2550.7812,-2.4569,2.3791,1.8108,1.9913,0.3804,0.4758,1.9738,0.4086,3.2124,-0.9418,0.8064,6.7481,0.9013,-1.2237,-1.6550,5.6664,3.5760,5.1283,1.7989
2554.6875,-0.7804,1.9436,0.8879,1.4407,-0.0929,1.0861,1.8402,-0.0054,3.5286,0.8991,0.9944,6.6382,3.3749,-1.3645,-0.8069,5.1277,4.5371,3.9950,2.5289
2558.5938,0.8160,1.8475,0.9071,0.5498,-0.8778,2.1722,1.7989,-0.9681,3.8173,2.3603,1.2246,5.5734,5.0253,-1.9168,0.0917,3.9404,4.8470,2.5941,2.8494
2562.5000,1.6416,1.5421,1.4327,-0.6327,-1.9380,2.8966,1.4071,-2.5737,3.6340,2.8778,1.1851,3.8820,5.4867,-2.8059,0.7477,2.9378,4.3779,1.3674,2.6668
2566.4062,1.3941,0.4517,1.5384,-1.9408,-3.0372,2.4946,0.1502,-4.5511,2.4630,2.3752,0.5742,1.9604,4.9550,-3.5462,0.9667,2.8451,3.5234,0.4840,2.0085
2570.3125,0.3188,-1.6367,0.3423,-3.1578,-3.8271,0.6406,-2.2535,-6.3931,0.1292,1.2993,-0.6798,0.1347,4.0298,-3.5207,0.7994,3.8831,2.9864,-0.1678,1.0286
2574.2188,-0.9452,-4.3821,-2.4294,-4.1220,-4.0163,-2.3564,-5.5775,-7.6331,-2.9328,0.3606,-2.3015,-1.4124,3.3197,-2.3883,0.5442,5.6454,3.3366,-0.8380,-0.0434
2578.1250,-1.7264,-7.0130,-6.1834,-4.7885,-3.5285,-5.6279,-9.0324,-8.0763,-5.7657,0.1434,-3.7351,-2.6218,3.0471,-0.3645,0.5914,7.3217,4.5991,-1.7192,-0.9977
2582.0312,-1.6742,-8.7022,-9.6842,-5.1986,-2.5551,-8.0827,-11.5225,-7.8280,-7.3299,0.8107,-4.3891,-3.4892,2.8883,1.7995,1.1848,8.1203,6.1284,-2.8152,-1.7437
2585.9375,-0.9112,-8.9811,-11.6524,-5.3820,-1.4661,-8.8726,-12.1221,-7.1119,-7.0609,2.0505,-3.9513,-4.0208,2.1448,3.1323,2.2315,7.6281,6.8634,-3.9367,-2.3648
2589.8438,0.0878,-7.9618,-11.4015,-5.2753,-0.6262,-7.7704,-10.5201,-6.0348,-5.2042,3.2661,-2.5977,-4.2504,0.1563,2.8773,3.2874,5.9120,5.8382,-4.8039,-3.0822
2593.7500,0.8051,-6.2439,-9.1472,-4.7380,-0.2183,-5.2663,-7.1774,-4.4958,-2.7082,3.8923,-0.9543,-4.2822,-3.2637,0.8253,3.7562,3.3609,2.6847,-5.1814,-4.1179
2597.6562,0.9835,-4.5747,-5.8298,-3.6735,-0.1770,-2.3244,-3.1074,-2.3292,-0.7229,3.6698,0.2026,-4.2854,-7.5985,-2.5990,3.2132,0.4331,-2.1314,-4.9668,-5.5060
2601.5625,0.7443,-3.4668,-2.5902,-2.1788,-0.2690,0.0791,0.5869,0.4129,-0.0012,2.7521,0.3570,-4.4017,-11.7262,-6.4958,1.6754,-2.4977,-7.4444,-4.2056,-6.9589
2605.4688,0.4540,-2.9917,-0.2362,-0.6084,-0.2694,1.3864,3.1438,3.2600,-0.5580,1.6074,-0.4632,-4.6125,-14.3138,-9.7928,-0.3502,-5.1211,-11.8111,-3.0538,-7.9013
2609.3750,0.4385,-2.8517,0.9934,0.5152,-0.1224,1.6318,4.3163,5.3894,-1.7762,0.7756,-1.7127,-4.6809,-14.3421,-11.5621,-2.0906,-7.0840,-14.0134,-1.7356,-7.7101
2613.2812,0.7364,-2.6616,1.2888,0.7169,0.0183,1.2810,4.2513,5.9710,-2.8670,0.5952,-2.6689,-4.2570,-11.5400,-11.2631,-2.8913,-7.9581,-13.4352,-0.5206,-6.0732
2617.1875,1.0587,-2.2535,0.9314,-0.2031,-0.1001,0.8607,3.2342,4.6059,-3.3790,1.0237,-2.8902,-3.1295,-6.5450,-8.8732,-2.5526,-7.3756,-10.1966,0.2841,-3.2699
2621.0938,0.9777,-1.8212,0.0390,-2.0520,-0.6324,0.6170,1.5122,1.5945,-3.4433,1.6326,-2.5136,-1.4767,-0.7137,-4.8892,-1.4358,-5.2723,-5.0506,0.3617,-0.1755
2625.0000,0.2166,-1.8241,-1.4284,-4.2962,-1.4776,0.4066,-0.6973,-2.1326,-3.6268,1.7823,-2.1993,0.0725,4.3517,-0.1945,-0.2872,-2.0694,0.8752,-0.5438,2.0777
2628.9062,-1.1568,-2.7103,-3.4504,-6.2485,-2.2657,-0.1302,-3.0839,-5.3922,-4.5144,0.9133,-2.7413,0.6695,7.3746,4.1939,0.1184,1.3664,6.3895,-2.5160,2.6411
2632.8125,-2.7532,-4.6133,-5.7260,-7.2946,-2.5155,-1.2465,-5.1790,-7.2282,-6.2897,-1.1670,-4.5637,-0.3058,7.8388,7.4329,-0.6678,4.0075,10.5184,-5.3520,1.4066
2636.7188,-4.0703,-7.1805,-7.6547,-7.0685,-1.8842,-2.8320,-6.4630,-7.2535,-8.5586,-4.1218,-7.3920,-2.8153,6.1086,9.1013,-2.5679,5.0698,12.7015,-8.5082,-0.8934
2640.6250,-4.7344,-9.6212,-8.5583,-5.5365,-0.3710,-4.3846,-6.6049,-5.7175,-10.4970,-7.1322,-10.2870,-6.0122,3.1945,9.2766,-4.9927,4.3357,12.8722,-11.1602,-3.0274
2644.5312,-4.6189,-10.9642,-7.9986,-2.9964,1.6421,-5.2325,-5.6616,-3.3256,-11.2163,-9.1566,-12.0254,-8.4991,0.2931,8.4051,-7.0379,2.2481,11.4119,-12.4004,-3.8694
2648.4375,-3.7955,-10.4260,-5.9842,-0.0134,3.5384,-4.8751,-4.0726,-0.9438,-10.1478,-9.3183,-11.6305,-8.9031,-1.6737,7.0398,-7.7805,-0.2529,8.9988,-11.5374,-2.9342
2652.3438,-2.4039,-7.7438,-2.9482,2.7017,4.7291,-3.2552,-2.4290,0.6734,-7.2698,-7.2725,-8.7964,-6.4961,-2.3088,5.5983,-6.5904,-2.0587,6.4020,-8.3974,-0.5520
2656.2500,-0.5725,-3.3380,0.4550,4.4722,4.8932,-0.8190,-1.1624,1.0647,-3.1065,-3.3927,-4.0233,-1.5559,-1.7052,4.2716,-3.3746,-2.2566,4.2876,-3.4909,2.3870
2660.1562,1.5472,1.7764,3.5833,4.8644,4.0786,1.6591,-0.3622,0.1496,1.4632,1.3186,1.5638,4.7037,-0.2118,3.1056,1.3260,-0.4171,3.0898,2.0658,4.9322
2664.0625,3.6836,6.3118,5.9393,3.8567,2.6316,3.3908,0.1610,-1.7646,5.4865,5.5744,6.6069,10.5941,1.8165,2.1591,6.4477,3.2575,2.9627,6.8929,6.5089
2667.9688,5.4089,9.1443,7.1874,1.8763,1.0159,3.8718,0.6308,-4.0596,8.2015,8.2641,9.9475,14.5820,4.1315,1.5963,10.7235,7.9540,3.8010,9.8364,7.0640
2671.8750,6.2387,9.6846,7.1351,-0.3433,-0.3656,3.0307,1.0684,-5.9824,9.2092,8.8294,10.9490,15.8143,6.5418,1.6329,13.1112,12.4493,5.3026,10.3921,6.9074
2675.7812,5.8363,8.0279,5.7640,-2.0376,-1.2564,1.1827,1.2449,-6.8902,8.5219,7.3966,9.6265,14.3405,8.7991,2.3808,13.1519,15.4665,7.0576,8.8550,6.4242
2679.6875,4.1956,4.8342,3.3095,-2.6915,-1.5216,-1.1586,0.8567,-6.4743,6.4943,4.6294,6.5727,10.9865,10.5611,3.7191,11.0901,16.0985,8.6548,6.1141,5.8733
2683.5938,1.6857,1.0246,0.3015,-2.1862,-1.0758,-3.4948,-0.2055,-4.8502,3.6819,1.4092,2.7265,6.9761,11.4872,5.3043,7.7019,14.1501,9.7886,3.1993,5.3702
2687.5000,-1.0660,-2.5352,-2.5221,-0.7513,0.1467,-5.4670,-1.6922,-2.4563,0.6858,-1.4771,-0.9331,3.4731,11.4059,6.7223,3.9350,10.2375,10.3277,0.8262,4.9857
2691.4062,-3.3804,-5.2163,-4.4325,1.2172,2.1307,-6.8493,-3.0569,0.1802,-1.9635,-3.5023,-3.6683,1.2135,10.4160,7.6776,0.5641,5.5702,10.3070,-0.8136,4.8145
2695.3125,-4.7143,-6.6381,-4.9558,3.3414,4.6635,-7.4603,-3.7141,2.6671,-3.8619,-4.3969,-5.1498,0.3432,8.8279,8.0810,-1.9712,1.4842,9.8349,-1.9243,4.9219
2699.2188,-4.7734,-6.5962,-4.0115,5.3361,7.2571,-7.0985,-3.3322,4.8215,-4.7435,-4.0721,-5.4580,0.4938,6.9753,7.9809,-3.5178,-1.0698,8.9662,-2.7576,5.2169
2703.1250,-3.5556,-5.0366,-1.8840,6.9611,9.2092,-5.5924,-1.9919,6.5681,-4.4844,-2.5841,-4.9354,1.0431,5.0304,7.4052,-4.0629,-1.8457,7.6295,-3.2989,5.3880
2707.0312,-1.3549,-2.1312,0.9268,7.9381,9.8174,-2.9571,-0.1323,7.7660,-3.1187,-0.1756,-3.9675,1.4426,2.9635,6.2550,-3.6432,-1.2886,5.6766,-3.2127,5.0042
2710.9375,1.2829,1.6177,3.8577,7.9472,8.6648,0.4484,1.6642,8.1277,-0.8571,2.6764,-2.8037,1.4675,0.6757,4.3545,-2.3754,-0.2180,3.0419,-2.0875,3.7497
2714.8438,3.6904,5.3911,6.3659,6.7503,5.8294,3.9132,2.9181,7.3260,1.9288,5.3226,-1.5022,1.2802,-1.7960,1.6393,-0.5426,0.6124,-0.0849,0.1908,1.6446
2718.7500,5.3059,8.2805,7.9637,4.3805,1.8960,6.5925,3.4135,5.2395,4.7811,7.1550,-0.0115,1.2884,-4.1636,-1.6467,1.3886,0.8551,-3.2023,3.2108,-0.9053
2722.6562,5.9177,9.6681,8.2909,1.2699,-2.2443,7.8777,3.2296,2.1708,7.2745,7.8814,1.6759,1.8836,-5.9573,-4.8986,2.8907,0.6593,-5.6244,6.1370,-3.2688
2726.5625,5.7722,9.5480,7.2674,-1.7944,-5.7066,7.7150,2.6670,-1.1348,9.1244,7.6746,3.4019,3.2070,-6.7373,-7.3058,3.5779,0.5011,-6.7446,8.1083,-4.8542
2730.4688,5.4258,8.5585,5.2523,-3.9010,-7.8831,6.6532,2.1250,-3.7215,10.2239,7.0591,4.8325,5.0674,-6.3015,-8.1522,3.3488,0.8663,-6.2944,8.6949,-5.3137
2734.3750,5.3743,7.6417,3.0521,-4.3448,-8.5580,5.5434,1.9683,-4.8047,10.5876,6.5645,5.5667,7.0361,-4.7579,-7.1063,2.3624,1.9494,-4.4529,8.1157,-4.5902
2738.2812,5.6684,7.4862,1.6592,-2.9154,-7.8578,5.0301,2.4055,-4.1073,10.2379,6.3494,5.2990,8.6360,-2.4373,-4.3646,0.8760,3.5094,-1.7500,7.0646,-2.8409
2742.1875,5.7832,8.0733,1.7751,-0.0240,-6.1226,5.1279,3.3962,-1.9837,9.1146,6.0536,3.9401,9.4997,0.2566,-0.5934,-0.9188,4.9473,1.1682,6.2388,-0.3571
2746.0938,4.8790,8.6201,3.3619,3.3869,-3.7973,5.1618,4.6188,0.7203,7.0737,5.0040,1.6330,9.4181,2.9379,3.2810,-2.9255,5.5786,3.7785,5.8650,2.4381
2750.0000,2.3360,7.9928,5.5164,6.1264,-1.3853,4.1454,5.5369,2.9923,3.9959,2.6718,-1.3291,8.3036,5.2244,6.3374,-5.0244,4.9922,5.8036,5.5281,4.9466
2753.9062,-1.7586,5.3774,6.8157,7.1459,0.5798,1.3996,5.5697,4.0190,-0.0494,-0.8991,-4.6124,6.1599,6.6913,7.8933,-6.9286,3.3320,7.1928,4.4271,6.4268
2757.8125,-6.4923,0.8265,6.0047,5.9156,1.6149,-2.9472,4.3210,3.4565,-4.6740,-4.9688,-7.9032,3.1265,6.9067,7.6562,-8.1748,1.3432,8.0145,1.9119,6.1916
2761.7188,-10.4820,-4.6419,2.6695,2.6521,1.4420,-7.8880,1.7758,1.5275,-9.1633,-8.3760,-10.8887,-0.4234,5.5967,5.7732,-8.2997,0.1046,8.3466,-2.0251,3.9266
2765.6250,-12.5108,-9.4617,-2.4751,-1.7047,0.1491,-11.9553,-1.6259,-1.0668,-12.6226,-10.0600,-13.1955,-3.8431,2.8559,2.7696,-7.0943,0.5260,8.2189,-6.6072,-0.0493
2769.5312,-12.0794,-12.2222,-7.8474,-5.7876,-1.7620,-13.8998,-5.0792,-3.3827,-14.2366,-9.5348,-14.3649,-6.3299,-0.7549,-0.6185,-4.7441,2.8380,7.6124,-10.5746,-4.7725
2773.4375,-9.5674,-12.2713,-11.6613,-8.2747,-3.5163,-13.2444,-7.6367,-4.5442,-13.5405,-7.0625,-13.9276,-7.1980,-4.3403,-3.6746,-1.7360,6.3624,6.4908,-12.7490,-8.9308
2777.3438,-5.9481,-9.9014,-12.6335,-8.3496,-4.3570,-10.4148,-8.4826,-4.0255,-10.5880,-3.4592,-11.5695,-6.1694,-6.9907,-5.9108,1.4090,9.7409,4.8452,-12.5342,-11.3338
2781.2500,-2.2626,-6.0607,-10.3988,-5.9510,-3.8414,-6.4083,-7.1704,-1.8065,-5.9391,0.3220,-7.3149,-3.5045,-8.1215,-7.1589,4.3768,11.5561,2.7456,-10.0806,-11.3173
2785.1562,0.8253,-1.8056,-5.5048,-1.7142,-1.9859,-2.2409,-3.7641,1.6582,-0.4760,3.5877,-1.6286,0.1180,-7.6383,-7.5000,7.0916,11.0318,0.3882,-6.0721,-8.8960
2789.0625,3.1670,2.1562,0.8955,3.3330,0.8067,1.4778,1.1393,5.6324,4.8639,6.0834,4.6249,3.8979,-5.8578,-7.0832,9.5200,8.4170,-1.8930,-1.3278,-4.6466
2792.9688,4.9477,5.5778,7.4228,8.1376,3.9634,4.6072,6.5120,9.3538,9.3107,7.9050,10.3553,7.1936,-3.2773,-5.9623,11.4189,4.8150,-3.6842,3.4943,0.5433
2796.8750,6.3571,8.4335,12.7533,11.8722,6.9520,7.2033,11.1188,12.2275,12.3507,9.2433,14.4910,9.6231,-0.3723,-4.0692,12.2642,1.5471,-4.6226,7.9240,5.6980
2800.7812,7.3445,10.5603,15.7991,14.0063,9.3699,9.1682,13.8380,13.8910,13.6871,10.1361,16.2191,10.9711,2.4623,-1.3515,11.4686,-0.5667,-4.5429,11.5005,9.8853
2804.6875,7.6004,11.4893,15.8790,14.2767,10.9132,10.1148,14.0126,14.1815,13.1680,10.3743,15.1756,11.0520,4.8495,2.0270,8.7760,-1.5712,-3.5525,13.6237,12.3172
2808.5938,6.7581,10.6351,12.9357,12.6844,11.3255,9.5717,11.7094,13.0980,10.7905,9.6139,11.5599,9.7028,6.3833,5.5827,4.5648,-2.1718,-1.9757,13.6540,12.5033
2812.5000,4.6824,7.7459,7.7111,9.5671,10.4319,7.3897,7.7538,10.8258,6.8148,7.6248,6.1522,6.9564,6.7100,8.6092,-0.1756,-3.1209,-0.1940,11.2702,10.4520
2816.4062,1.6683,3.3014,1.6932,5.6604,8.2671,4.0416,3.4711,7.8005,1.8918,4.5283,0.1897,3.2561,5.7220,10.4452,-4.2254,-4.6210,1.5168,6.8567,6.7887
2820.3125,-1.5786,-1.4628,-3.2926,1.9950,5.1939,0.5560,0.1981,4.7039,-2.9556,0.8694,-4.9250,-0.5113,3.7195,10.7610,-6.6716,-6.1476,3.0465,1.5967,2.6375
2824.2188,-4.1999,-5.0103,-5.7664,-0.4371,1.8812,-1.9347,-1.2382,2.3008,-6.6005,-2.5515,-8.0453,-3.2860,1.3817,9.6936,-7.2966,-6.8008,4.3842,-2.8945,-0.7642
2828.1250,-5.5670,-6.2328,-5.2419,-1.1256,-0.9036,-2.7778,-0.8282,1.1415,-8.2587,-5.0202,-8.6878,-4.3032,-0.4854,7.7585,-6.6054,-5.9318,5.5035,-5.2627,-2.5567
2832.0312,-5.5927,-5.0368,-2.4727,-0.3264,-2.5941,-2.1471,0.6848,1.2877,-7.8753,-6.2393,-7.2245,-3.4780,-1.2969,5.6057,-5.4986,-3.6135,6.3121,-5.0513,-2.5848
2835.9375,-4.7762,-2.4210,0.8925,1.0376,-3.0363,-0.9141,2.2147,2.2560,-6.1867,-6.4415,-4.7162,-1.4450,-0.9256,3.7704,-4.7958,-0.6469,6.7173,-2.8943,-1.3660
2839.8438,-3.9194,0.0374,3.1054,1.8652,-2.4831,-0.1055,2.8736,3.2600,-4.3587,-6.1944,-2.4221,0.7869,0.3030,2.5403,-4.8770,1.8774,6.7385,-0.1374,0.2685
2843.7500,-3.6428,1.0088,3.1488,1.4895,-1.3870,-0.2813,2.3614,3.6360,-3.3744,-6.0074,-1.2191,2.3439,1.8234,1.9592,-5.6103,3.1483,6.5384,1.8847,1.6216
2847.6562,-3.9893,0.0808,1.1541,0.0407,-0.1432,-1.2267,1.0128,3.1936,-3.5337,-5.9994,-1.2502,2.8366,3.0883,1.8982,-6.5540,2.9711,6.3006,2.4766,2.3870
2851.5625,-4.3864,-2.1118,-1.8040,-1.6731,1.0408,-2.1479,-0.4884,2.2678,-4.3830,-5.8666,-2.0061,2.3586,3.7184,2.1154,-7.2766,1.7083,6.0257,1.7602,2.5962
2855.4688,-4.0390,-4.3447,-4.3783,-2.6888,2.0874,-2.2342,-1.5284,1.4429,-5.1230,-5.1892,-2.7756,1.2111,3.5092,2.2896,-7.5959,-0.0462,5.4267,0.3601,2.3738
2859.3750,-2.5237,-5.5431,-5.6688,-2.4707,2.8926,-1.2054,-1.8611,1.1438,-5.2136,-3.8578,-3.1574,-0.3746,2.3906,2.0764,-7.6117,-1.7735,4.0689,-1.1167,1.7456
2863.2812,-0.1836,-5.3408,-5.5752,-1.1798,3.2406,0.5174,-1.6277,1.3783,-4.7493,-2.2801,-3.2760,-2.2804,0.4497,1.2335,-7.5349,-3.1126,1.7228,-2.4166,0.6720
2867.1875,1.9953,-4.1387,-4.6268,0.5189,2.8946,2.1233,-1.1301,1.8009,-4.3282,-1.1642,-3.5480,-4.3030,-1.9710,-0.2139,-7.4355,-3.7480,-1.3008,-3.5773,-0.7383
2871.0938,3.0058,-2.6777,-3.4667,1.9402,1.8129,2.9837,-0.5425,2.0304,-4.4986,-0.9877,-4.1743,-5.9429,-4.2153,-1.8760,-7.0811,-3.3118,-4.1107,-4.5794,-2.0513
2875.0000,2.5529,-1.4512,-2.3642,2.8015,0.3172,3.0889,0.2327,1.9712,-5.1874,-1.5339,-4.7542,-6.4468,-5.4376,-3.0802,-5.9916,-1.4907,-5.6020,-5.0472,-2.5775
2878.9062,1.3804,-0.3610,-1.0735,3.3060,-0.9509,3.0544,1.4703,1.8922,-5.5556,-1.8876,-4.3601,-5.1739,-4.9347,-3.1443,-3.7209,1.6796,-5.0586,-4.2966,-1.7089
2882.8125,0.9014,1.1624,0.8946,3.8733,-1.3068,3.6936,3.3596,2.2050,-4.4485,-0.9787,-2.0972,-2.0657,-2.5327,-1.7181,-0.2258,5.5619,-2.6210,-1.7527,0.6808
2886.7188,2.3091,3.6760,3.8004,4.7510,-0.3838,5.4461,5.7558,3.1130,-1.1854,1.6429,2.1947,2.1331,1.2200,1.0032,3.8999,8.9770,0.7052,2.5384,4.0550
2890.6250,5.7266,7.2114,7.3305,5.8039,1.6482,8.0355,8.1171,4.3993,3.8312,5.3436,7.5901,6.1254,5.2177,4.3278,7.5222,10.6504,3.5409,7.6813,7.4030
2894.5312,9.9776,11.0779,10.6144,6.6167,4.1484,10.5732,9.6846,5.5188,9.1276,8.6329,12.3816,8.6777,8.2703,7.3622,9.4217,9.8398,4.8425,12.1950,9.7037
2898.4375,13.1769,14.1161,12.5992,6.8069,6.3239,12.0251,9.8197,5.9380,12.8409,10.0071,14.9206,9.2262,9.6277,9.3853,8.9155,6.7656,4.3968,14.6539,10.3884
2902.3438,13.8021,15.2512,12.5612,6.3038,7.6096,11.7424,8.3222,5.4839,13.6871,8.8936,14.5096,8.0845,9.2587,10.0995,6.3087,2.5571,2.8176,14.3410,9.5375
2906.2500,11.5821,14.0228,10.4636,5.3970,7.8955,9.7436,5.5621,4.4638,11.6331,6.0710,11.7933,6.1339,7.7424,9.6500,2.8774,-1.2812,1.0880,11.5412,7.7324
2910.1562,7.6501,10.7971,6.9734,4.5410,7.4906,6.6226,2.3532,3.4781,7.8706,3.2648,8.3922,4.2261,5.8691,8.4503,0.3196,-3.5846,-0.0238,7.3301,5.6962
2914.0625,3.8799,6.5629,3.1460,4.0697,6.8765,3.1959,-0.3778,3.0562,4.1215,2.1519,5.9907,2.7130,4.2171,6.9559,-0.0796,-4.0164,-0.2999,3.0180,3.9571
2917.9688,1.8416,2.4528,-0.0379,4.0111,6.4162,0.1392,-1.9733,3.3544,1.7056,3.3970,5.4278,1.4016,2.9494,5.5161,1.8754,-3.0807,0.0026,-0.4196,2.7008
2921.8750,2.0230,-0.7341,-2.0459,4.0975,6.1806,-2.1869,-2.2953,4.0921,0.9259,6.3135,6.3251,-0.0868,1.9069,4.3447,5.1602,-1.7065,0.5074,-2.6301,1.8253
2925.7812,3.7513,-2.7592,-2.9096,3.9331,5.9666,-3.6797,-1.7216,4.7399,1.1006,9.3243,7.4454,-1.8557,0.8803,3.5554,8.0437,-0.6883,1.0507,-3.8024,1.0997
2929.6875,5.7790,-3.8345,-3.0609,3.2016,5.4682,-4.3231,-0.8872,4.8223,1.1637,10.8965,7.5275,-3.5226,-0.1458,3.1871,8.9802,-0.3139,1.7550,-4.3466,0.3140
2933.5938,7.0983,-4.2889,-3.0076,1.8141,4.4892,-4.0631,-0.3075,4.1528,0.4240,10.3591,6.0718,-4.4079,-0.9310,3.1927,7.3939,-0.3483,2.8309,-4.5625,-0.6262
2937.5000,7.4624,-4.2447,-3.0344,-0.0403,3.0860,-2.8210,-0.0946,2.8914,-0.9913,8.1482,3.6168,-3.9806,-1.1130,3.4236,3.9350,-0.3177,4.2984,-4.4826,-1.6544
2941.4062,7.3481,-3.5183,-3.0842,-1.9395,1.5726,-0.6184,0.0558,1.4287,-2.2535,5.4230,1.3751,-2.2510,-0.4405,3.6578,0.0862,0.1205,5.8529,-3.9386,-2.5409
2945.3125,7.4720,-1.8162,-2.8724,-3.3550,0.3850,2.2910,0.5829,0.1822,-2.4041,3.3685,0.4839,0.1443,1.0318,3.6762,-2.6352,0.9421,6.9684,-2.7744,-2.9615
2949.2188,8.2327,0.9039,-2.1518,-3.8458,-0.1350,5.3853,1.6501,-0.5915,-1.0095,2.6192,1.3262,2.2064,2.8822,3.3399,-3.4306,1.7671,7.1475,-1.0658,-2.6568
2953.1250,9.4359,4.1609,-0.9622,-3.2665,0.0659,7.9760,2.8839,-0.8950,1.5036,3.0777,3.3103,3.0255,4.4256,2.6169,-2.5305,2.0894,6.1463,0.7835,-1.6307
2957.0312,10.4352,6.9911,0.3024,-1.8874,0.6881,9.4169,3.4790,-0.9684,4.0283,4.1205,5.2095,2.1821,4.9600,1.5522,-0.9361,1.5997,4.0565,2.1372,-0.2567
2960.9375,10.5519,8.3465,1.0721,-0.3226,1.2091,9.3395,2.6654,-1.1549,5.3636,4.9860,5.8517,-0.0694,4.0808,0.2352,0.2150,0.4386,1.2499,2.3962,0.8389
2964.8438,9.4921,7.6495,0.9347,0.7535,1.1698,7.8164,0.2729,-1.6997,4.8648,5.1164,4.7666,-2.8795,1.9464,-1.1813,0.2836,-0.7551,-1.7269,1.3297,1.1216
2968.7500,7.5170,5.1671,-0.0754,0.9722,0.4764,5.3755,-2.9840,-2.5703,2.7864,4.3282,2.4403,-5.0973,-0.6528,-2.4159,-0.5820,-1.0633,-4.2478,-0.7036,0.5383
2972.6562,5.2871,1.9389,-1.4338,0.4927,-0.4699,2.8293,-5.7476,-3.4047,0.1272,2.8031,0.0467,-5.6902,-2.5256,-3.0305,-1.6288,0.2766,-5.7044,-2.8038,-0.3279
2976.5625,3.4876,-0.7474,-2.3899,-0.0937,-0.9365,0.9659,-6.7096,-3.6525,-1.9300,0.9504,-1.1923,-4.1743,-2.5881,-2.5323,-2.0148,3.3983,-5.6551,-3.8930,-0.5143
2980.4688,2.4505,-2.0400,-2.4071,-0.1586,-0.2687,0.2237,-5.3656,-2.8732,-2.6576,-0.7923,-0.6739,-0.9039,-0.4402,-0.6191,-1.3445,7.5460,-4.0220,-3.2582,0.7347
2984.3750,1.9871,-1.9487,-1.5183,0.5111,1.6729,0.5125,-2.3607,-1.0411,-2.1382,-2.1493,1.2547,2.9442,3.3004,2.5526,0.0826,11.2269,-1.2344,-0.9964,3.3941
2988.2812,1.5273,-1.2449,-0.3616,1.5163,4.3216,1.2927,0.8211,1.3406,-1.1427,-3.1060,3.4784,5.7730,7.1563,6.2668,1.4406,12.7903,1.8242,1.9182,6.4893
2992.1875,0.4940,-0.9061,0.1529,2.0702,6.6183,1.8897,2.6645,3.4252,-0.6259,-3.8563,4.7083,6.2485,9.4370,9.4405,1.8473,11.1935,4.1206,4.0383,8.5074
2996.0938,-1.3040,-1.4840,-0.6369,1.5239,7.5495,1.8738,2.4472,4.4438,-1.1636,-4.6208,4.1493,3.9534,9.0681,11.0660,0.8481,6.5595,4.9186,4.1426,8.1935
3000.0000,-3.5093,-2.8228,-2.7469,-0.1529,6.7139,1.2799,0.5845,4.1304,-2.6796,-5.4580,1.8596,-0.3608,6.1455,10.6792,-1.3782,0.1922,4.1285,1.8527,5.2720
3003.9062,-5.4110,-4.3009,-5.5150,-2.2752,4.5772,0.5265,-1.6989,2.8873,-4.6147,-6.2251,-1.3957,-5.1244,1.8779,8.5889,-4.2042,-6.0050,2.3426,-2.1832,0.6502
3007.8125,-6.4031,-5.3876,-7.9560,-3.8193,2.2438,0.0913,-3.1335,1.5667,-6.3916,-6.7447,-4.6801,-8.7546,-2.0656,5.7216,-6.9923,-10.4128,0.5149,-6.6453,-4.0290
3011.7188,-6.4158,-6.0757,-9.2881,-4.0475,0.8572,0.1647,-3.1107,0.9750,-7.8338,-7.0603,-7.4475,-10.4644,-4.4289,3.1633,-9.4793,-12.3982,-0.5342,-10.2181,-7.2237
3015.6250,-6.0131,-6.8488,-9.3184,-2.9797,0.9660,0.5271,-1.9090,1.3859,-9.2322,-7.5435,-9.7541,-10.5887,-4.9500,1.6539,-11.8344,-12.4483,-0.5039,-12.1889,-8.2315
3019.5312,-6.0464,-8.2019,-8.4802,-1.4181,2.2147,0.7330,-0.3665,2.3470,-11.0119,-8.6911,-11.9905,-10.2259,-4.3301,1.3072,-14.3475,-11.6938,0.3238,-12.6419,-7.4288
3023.4375,-7.0644,-10.0930,-7.5363,-0.5174,3.5291,0.4651,0.7102,2.8974,-13.2496,-10.6910,-14.3498,-10.4355,-3.6600,1.6777,-16.9794,-11.1427,1.3440,-12.2002,-5.9317
3027.3438,-8.8795,-11.7794,-7.1640,-1.1794,3.6841,-0.2127,0.9723,2.0717,-15.4192,-13.0718,-16.4530,-11.5242,-3.7081,2.0895,-19.1309,-11.1048,2.0205,-11.5497,-4.9413
3031.2500,-10.6213,-12.2205,-7.6697,-3.6238,1.9396,-0.9010,0.5410,-0.5864,-16.6000,-14.7698,-17.4520,-12.8906,-4.5255,2.0082,-19.8577,-11.1315,2.1583,-11.0802,-5.1733
3035.1562,-11.2856,-10.7953,-8.9599,-7.3420,-1.5831,-1.1837,-0.3166,-4.7637,-16.0499,-14.6815,-16.5866,-13.5126,-5.5781,1.2528,-18.4403,-10.4493,1.9194,-10.8381,-6.6538
3039.0625,-10.4243,-7.8250,-10.7078,-11.3811,-5.9505,-0.9809,-1.5248,-9.4788,-13.7660,-12.3940,-13.8121,-12.7167,-6.2453,-0.0226,-14.9375,-8.5554,1.6184,-10.7307,-8.8927
3042.9688,-8.4926,-4.4930,-12.5413,-14.7374,-9.8273,-0.6588,-3.2545,-13.4604,-10.6229,-8.5848,-10.0176,-10.6843,-6.2951,-1.5024,-10.3135,-5.5758,1.4692,-10.7409,-11.2292
3046.8750,-6.5842,-2.1753,-14.1164,-16.6450,-12.0271,-0.7916,-5.6499,-15.6104,-7.9410,-4.7467,-6.6117,-8.3405,-6.0026,-2.8986,-5.9946,-2.1842,1.4480,-10.9462,-13.1006
3050.7812,-5.7122,-1.6116,-15.0708,-16.6847,-11.9496,-1.7313,-8.4626,-15.3600,-6.7204,-2.3464,-4.6971,-6.7171,-5.8602,-4.0520,-3.0991,0.8175,1.3360,-11.3295,-14.1176
3054.6875,-6.1261,-2.4678,-14.9762,-14.7782,-9.7480,-3.2895,-10.9191,-12.8134,-7.0213,-1.9467,-4.3750,-6.2413,-6.1267,-4.9296,-1.8345,2.9476,0.8796,-11.5704,-14.0003
3058.5938,-7.1420,-3.5757,-13.4121,-11.1666,-6.2011,-4.7695,-11.9878,-8.6704,-7.8987,-2.8835,-4.6713,-6.4474,-6.5638,-5.5693,-1.4604,4.2358,-0.0481,-11.0482,-12.5252
