Time,Fp1,F3,C3,P3,O1,F7,T3,T5,Fz,Fp2,F4,C4,P4,O2,F8,T4,T6,Cz,Pz
0.0000,-0.1735,-1.3515,-0.1748,0.4586,1.1113,0.1006,2.0773,5.2047,-1.9688,-1.6853,-2.0023,-1.6494,-3.3222,-5.1938,-2.3367,-1.4630,-1.5861,-1.6443,-3.9521
3.9062,-2.3077,-3.5685,-2.2074,-1.4494,-0.0470,1.0645,0.4456,4.5674,-4.2001,-4.2199,-3.8952,-1.8966,-1.7132,-2.7747,-4.4268,-3.4649,0.3539,-2.8241,-3.9168
7.8125,-5.4377,-6.8682,-5.7500,-4.6955,-2.5512,1.6240,-1.7738,2.4925,-7.5691,-8.0998,-6.7674,-3.0913,-0.4418,0.0187,-7.1171,-5.8615,2.2566,-5.4822,-4.5991
11.7188,-8.9662,-10.8204,-10.4700,-8.7394,-6.0336,1.1937,-4.1254,-1.1838,-11.5557,-12.5978,-10.2182,-5.3294,0.0639,2.8833,-9.8264,-8.0667,3.6333,-9.5450,-6.0526
15.6250,-12.0940,-14.7122,-15.4689,-12.5566,-9.4626,-0.5314,-6.2212,-5.9127,-15.3306,-16.6314,-13.5158,-8.0980,-0.0370,5.9614,-12.0102,-9.5076,4.4602,-14.2024,-7.7633
19.5312,-14.1991,-17.7690,-19.6030,-15.0937,-11.5862,-3.3548,-7.9676,-10.5778,-18.0692,-19.2543,-15.8801,-10.4534,-0.0760,9.7282,-13.4150,-9.8797,5.1759,-18.1770,-8.8284
23.4375,-15.1164,-19.4048,-21.9844,-15.7925,-11.5816,-6.5767,-9.5755,-14.0043,-19.2800,-20.0832,-16.8435,-11.5251,0.6400,14.5279,-14.1342,-9.2850,6.3127,-20.3206,-8.4572
27.3438,-15.1399,-19.3982,-22.3890,-14.8775,-9.5181,-9.2448,-11.3359,-15.5597,-18.9750,-19.3995,-16.4796,-11.0382,2.2682,20.0927,-14.4269,-8.1568,8.0278,-20.2015,-6.4923
31.2500,-14.7507,-17.9280,-21.3339,-13.2289,-6.3361,-10.5551,-13.3120,-15.4888,-17.5937,-17.8756,-15.3426,-9.5049,4.2057,25.4256,-14.4309,-6.9951,9.8892,-18.3245,-3.5979
35.1562,-14.2623,-15.4727,-19.7713,-11.9158,-3.3447,-10.2019,-15.1724,-14.7682,-15.7354,-16.1216,-14.1344,-7.9425,5.3907,29.1793,-13.9909,-6.0663,11.0887,-15.8443,-0.9584
39.0625,-13.6319,-12.6309,-18.5730,-11.6590,-1.5476,-8.4860,-16.3045,-14.5532,-13.8568,-14.3601,-13.2941,-7.2908,4.9366,30.2954,-12.7504,-5.2691,10.9271,-13.9378,0.3494
42.9688,-12.5650,-9.9368,-18.0932,-12.5177,-1.2074,-6.1153,-16.1582,-15.5335,-12.1059,-12.4299,-12.7683,-7.9055,2.6653,28.4772,-10.4709,-4.2820,9.2117,-13.2044,-0.0713
46.8750,-10.8248,-7.7189,-18.0368,-13.9351,-1.8828,-3.8120,-14.5980,-17.5623,-10.3626,-10.0804,-12.1069,-9.4370,-0.8242,24.1945,-7.3581,-2.9199,6.2769,-13.4202,-1.7677
50.7812,-8.5068,-6.0239,-17.6631,-15.0629,-2.8504,-1.9626,-12.0190,-19.7497,-8.4249,-7.3098,-10.8152,-11.1330,-4.5747,18.2707,-4.1352,-1.4563,2.6385,-13.7442,-3.7469
54.6875,-6.0653,-4.6164,-16.1722,-15.1456,-3.5827,-0.5227,-9.1300,-20.9309,-6.1982,-4.4862,-8.7223,-12.3202,-7.8498,11.4034,-1.7570,-0.6486,-1.4147,-13.2119,-5.0378
58.5938,-4.0642,-3.0686,-13.0536,-13.7712,-3.9586,0.7784,-6.5310,-20.2225,-3.7653,-2.1619,-6.1236,-12.7310,-10.4530,3.9858,-0.9069,-1.3771,-5.9412,-11.2214,-5.1421
62.5000,-2.8302,-0.9452,-8.2564,-10.9209,-4.1145,2.0959,-4.3598,-17.3693,-1.3174,-0.7242,-3.6145,-12.4956,-12.5875,-3.6853,-1.5955,-4.0769,-11.0697,-7.7817,-4.1325
66.4062,-2.2609,1.9576,-2.1747,-6.8814,-4.1219,3.2572,-2.2517,-12.7480,0.9716,-0.1441,-1.7442,-11.8834,-14.4194,-11.0609,-3.1383,-8.3233,-16.5481,-3.4596,-2.4181
70.3125,-1.9251,5.4197,4.4668,-2.1254,-3.7925,3.8551,0.3461,-7.1084,3.0198,-0.0046,-0.7281,-11.0383,-15.7268,-17.2237,-4.5511,-12.8738,-21.5117,0.8847,-0.4099
74.2188,-1.3764,8.7825,10.7544,2.7811,-2.7872,3.5988,3.7037,-1.2540,4.8100,0.2180,-0.3912,-9.9097,-15.9276,-21.1790,-5.1140,-16.1998,-24.7165,4.4240,1.6643
78.1250,-0.4502,11.1767,15.7457,7.2537,-0.9494,2.6615,7.4936,4.1638,6.3049,0.8256,-0.3447,-8.3832,-14.4649,-22.3766,-4.7304,-17.2142,-25.1288,6.6335,3.7151
82.0312,0.6625,11.9236,18.6722,10.7789,1.4109,1.7335,10.8561,8.6846,7.3945,1.7449,-0.2385,-6.4482,-11.2421,-21.0633,-3.8447,-15.7630,-22.4840,7.4345,5.6275
85.9375,1.5974,10.9030,19.1675,13.0106,3.5325,1.6785,12.8250,11.9826,7.9325,2.6323,0.0823,-4.2321,-6.7622,-18.1665,-2.9959,-12.5888,-17.4239,7.1785,7.1675
89.8438,2.0960,8.6530,17.4217,13.8296,4.5552,2.9744,12.8580,13.8200,7.8318,3.1338,0.5894,-1.8835,-1.8629,-14.7512,-2.3485,-8.8189,-11.1215,6.4651,8.0554
93.7500,2.1657,6.1029,14.1406,13.3210,3.9974,5.3053,11.1386,14.0666,7.1358,3.1048,1.1836,0.5602,2.7502,-11.4136,-1.5598,-5.3294,-4.6590,5.8414,8.1429
97.6562,2.0143,4.0650,10.2663,11.6852,2.0518,7.6057,8.4572,12.7617,5.9983,2.6577,1.7872,3.1596,6.8252,-8.0239,-0.0914,-2.3888,1.4177,5.5107,7.5379
101.5625,1.8382,2.7936,6.5745,9.1476,-0.4912,8.5740,5.7432,10.1527,4.5889,2.0462,2.3497,5.8992,10.5225,-3.9663,2.2676,0.2342,7.1009,5.2179,6.5695
105.4688,1.6542,1.8980,3.3680,5.9360,-2.6373,7.3682,3.5398,6.6611,3.0095,1.5080,2.8035,8.5038,14.0815,1.3318,5.0762,2.8477,12.5511,4.4191,5.6185
109.3750,1.3152,0.6830,0.4557,2.3235,-3.6527,4.0673,1.7466,2.7834,1.3015,1.1819,3.0495,10.4460,17.4769,7.9697,7.3920,5.4407,17.6821,2.6727,4.9423
113.2812,0.6856,-1.3025,-2.5722,-1.3331,-3.3322,-0.3705,-0.2192,-1.0275,-0.4620,1.1225,3.0094,11.1999,20.3264,15.5082,8.3236,7.5918,22.0211,0.0221,4.6143
117.1875,-0.1850,-3.8853,-5.9561,-4.6389,-1.9625,-4.6062,-2.9607,-4.4492,-2.0944,1.3446,2.6936,10.5781,22.0889,23.2237,7.6003,8.7067,24.9178,-2.9042,4.5839
121.0938,-1.0561,-6.3291,-9.5274,-7.2956,-0.0677,-7.5613,-6.6392,-7.3220,-3.3287,1.8229,2.1975,8.8837,22.3650,30.4147,5.7421,8.3689,25.9028,-5.1899,4.7680
125.0000,-1.6765,-7.8101,-12.7672,-9.2284,1.8659,-8.8392,-10.8008,-9.6288,-3.9801,2.4435,1.5990,6.7197,21.0608,36.5159,3.6990,6.5460,24.9153,-6.1705,5.0764
128.9062,-2.0093,-7.9793,-15.0969,-10.5796,3.5353,-8.7420,-14.5883,-11.4381,-4.1236,2.9803,0.8387,4.5669,18.3274,41.0117,2.2153,3.5515,22.2596,-5.8639,5.3652
132.8125,-2.2998,-7.2126,-16.1729,-11.5236,4.8203,-7.9598,-17.1823,-12.8224,-4.1230,3.1661,-0.2858,2.4479,14.3983,43.3576,1.3833,-0.1335,18.3905,-4.9769,5.4079
136.7188,-2.8987,-6.3575,-15.9741,-12.0057,5.7286,-7.1746,-18.1821,-13.7691,-4.4315,2.8469,-1.9551,-0.0353,9.5253,43.1122,0.7076,-3.9959,13.7467,-4.4437,4.9818
140.6250,-3.9479,-6.1454,-14.6476,-11.6028,6.3777,-6.7936,-17.6952,-14.1163,-5.2615,2.1130,-4.0815,-3.2731,4.0969,40.2604,-0.3819,-7.5034,8.7604,-4.7827,4.0664
144.5312,-5.1616,-6.6771,-12.2775,-9.6527,7.0200,-6.8832,-16.1085,-13.5558,-6.3495,1.2907,-6.1798,-7.1241,-1.1874,35.4606,-1.9727,-10.0815,3.9726,-5.7029,3.0198
148.4375,-5.8915,-7.3472,-8.7972,-5.6284,8.0316,-7.2324,-13.7309,-11.7329,-7.0174,0.7686,-7.5058,-10.7069,-5.3194,29.9227,-3.5060,-11.2041,0.0507,-6.2421,2.5641
152.3438,-5.4750,-7.2595,-4.1395,0.4570,9.7855,-7.4507,-10.5742,-8.4218,-6.5415,0.7636,-7.4278,-12.7238,-7.2881,24.8680,-4.1431,-10.6341,-2.4179,-5.3598,3.5113
156.2500,-3.6567,-5.8397,1.4955,7.8800,12.4251,-7.0678,-6.4325,-3.7010,-4.6160,1.1906,-5.8063,-12.1573,-6.5729,20.8705,-3.3911,-8.6539,-3.2712,-2.5977,6.3400
160.1562,-0.8128,-3.2183,7.4955,15.4087,15.6615,-5.6690,-1.2079,1.9718,-1.6054,1.7345,-3.1172,-8.8942,-3.5080,17.5364,-1.5113,-6.0488,-2.9889,1.6291,10.8640
164.0625,2.1772,-0.1301,12.9774,21.7795,18.7569,-3.0850,4.7519,7.8462,1.5993,2.0728,-0.2132,-3.8534,0.7637,13.8002,0.6068,-3.7385,-2.5479,6.2851,16.2053
167.9688,4.3406,2.5698,17.1598,26.1738,20.7601,0.4314,10.5559,13.1054,4.0432,2.0840,2.1293,1.4846,4.7839,8.6956,2.0233,-2.2347,-2.9209,10.3161,21.1116
171.8750,5.0587,4.4064,19.7144,28.4237,20.9085,4.1719,15.0218,17.1244,5.1948,1.8847,3.5753,5.8459,7.4578,2.1158,2.3553,-1.2968,-4.4957,13.1794,24.4572
175.7812,4.2993,5.4456,20.8394,28.8591,18.9877,7.1699,17.1604,19.6298,5.1487,1.6757,4.2696,8.7420,8.5264,-4.9452,1.9735,-0.0799,-6.7873,14.9635,25.6626
179.6875,2.5281,6.0357,20.9947,27.9423,15.4432,8.5807,16.6276,20.6860,4.4357,1.5279,4.5574,10.5138,8.5737,-10.8386,1.6608,2.2593,-8.6484,16.0725,24.8347
183.5938,0.3969,6.3687,20.4926,25.9554,11.1789,8.0562,13.8859,20.5330,3.6066,1.2889,4.6309,11.8767,8.6009,-14.1071,2.0054,5.8876,-8.8620,16.7641,22.5988
187.5000,-1.5808,6.2357,19.2591,22.9378,7.1501,5.9032,9.9876,19.3878,2.8995,0.6992,4.3927,13.3267,9.4552,-14.1968,2.9890,10.0386,-6.7639,16.9077,19.7583
191.4062,-3.1838,5.1840,16.9534,18.8741,3.9740,2.9338,6.1028,17.3370,2.2162,-0.3653,3.6427,14.8278,11.4410,-11.6219,4.0626,13.3977,-2.5366,16.1400,16.9749
195.3125,-4.4241,2.9652,13.3667,13.9517,1.7541,0.0980,3.0509,14.3769,1.3831,-1.7121,2.4186,15.9578,14.2766,-7.5555,4.6246,14.8989,2.9483,14.2708,14.5969
199.2188,-5.3713,-0.0784,8.7907,8.6697,0.1778,-1.8908,1.0663,10.5556,0.4534,-2.8695,1.1817,16.3431,17.3270,-3.1806,4.5103,14.3932,8.5791,11.6014,12.6547
203.1250,-6.0097,-3.0125,4.0528,3.7033,-1.2102,-2.7597,-0.1225,6.1012,-0.2166,-3.3393,0.6395,16.0153,19.9072,0.7734,4.1140,12.7155,13.4439,8.8774,10.9575
207.0312,-6.2251,-4.7504,0.1430,-0.3908,-2.7357,-2.6574,-1.0009,1.4268,-0.1979,-2.9027,1.2852,15.4061,21.4852,4.0922,4.0582,11.0990,17.0373,6.8779,9.2169
210.9375,-5.9081,-4.6659,-2.3376,-3.4317,-4.4674,-2.0004,-1.9639,-3.0101,0.6451,-1.7711,2.9759,14.9879,21.7455,6.8340,4.6794,10.3490,19.2144,5.9151,7.1586
214.8438,-5.0851,-2.9847,-3.5348,-5.6664,-6.2625,-1.2988,-3.1647,-6.9143,1.9433,-0.4798,4.8843,14.8390,20.5788,9.0627,5.7341,10.3604,20.0362,5.6011,4.6173
218.7500,-3.9768,-0.6968,-4.2445,-7.5882,-7.9089,-1.0230,-4.5553,-10.2876,2.9584,0.4067,5.9136,14.4722,18.0690,10.7674,6.5489,10.3061,19.6606,5.0616,1.6070
222.6562,-2.9439,0.9560,-5.4062,-9.6373,-9.2510,-1.4908,-6.0312,-13.3873,2.9997,0.5884,5.3385,13.0779,14.4787,11.9648,6.5009,9.3350,18.3201,3.4745,-1.6558
226.5625,-2.3500,1.1047,-7.5022,-11.9539,-10.2276,-2.7464,-7.5417,-16.5075,1.8500,0.1499,3.2586,10.0386,10.1877,12.8101,5.4660,7.2507,16.3168,0.5943,-4.8049
230.4688,-2.4150,-0.3640,-10.2451,-14.3014,-10.8304,-4.4688,-9.0848,-19.7002,-0.0897,-0.5368,0.5650,5.3832,5.5699,13.5570,3.9124,4.6744,13.9503,-3.0667,-7.4484
234.3750,-3.1279,-2.8413,-12.7393,-16.1706,-11.0446,-6.0070,-10.6063,-22.6030,-2.0314,-1.0319,-1.5633,-0.1127,0.8748,14.3712,2.5864,2.5882,11.3913,-6.5073,-9.3107
238.2812,-4.2487,-5.3615,-14.0012,-16.9887,-10.8261,-6.6128,-11.9098,-24.5005,-3.2456,-1.0242,-2.3112,-5.2421,-3.7806,15.1571,2.0322,1.6173,8.6059,-8.7766,-10.3159
242.1875,-5.3922,-7.0504,-13.5050,-16.3340,-10.1302,-5.8135,-12.6745,-24.6192,-3.4253,-0.4086,-1.6209,-8.9053,-8.2659,15.5636,2.2863,1.5898,5.4292,-9.4510,-10.5635
246.0938,-6.1599,-7.4274,-11.4305,-14.0895,-8.9589,-3.7286,-12.6003,-22.5209,-2.7475,0.7440,-0.1107,-10.5562,-12.2273,15.1910,2.9342,1.6947,1.7753,-8.7703,-10.2084
250.0000,-6.2760,-6.4727,-8.4953,-10.5037,-7.3878,-1.1059,-11.5960,-18.3893,-1.6333,2.2510,1.3892,-10.3245,-14.9996,13.8467,3.4481,1.1026,-2.1616,-7.3784,-9.3174
253.9062,-5.6851,-4.5184,-5.5164,-6.1514,-5.5565,1.0050,-9.8810,-13.0466,-0.4097,3.8579,2.3579,-8.7897,-15.7756,11.6539,3.5431,-0.4194,-5.8827,-5.8575,-7.7922
257.8125,-4.5744,-2.0767,-2.9855,-1.7922,-3.6386,1.7973,-7.9120,-7.6690,0.8840,5.2576,2.8438,-6.5852,-13.9945,8.9362,3.3135,-2.3469,-8.7853,-4.3549,-5.4057
261.7188,-3.3023,0.3200,-0.8986,1.8524,-1.8130,1.1583,-6.1586,-3.3282,2.4315,6.1398,3.3397,-4.0777,-9.7217,5.9878,3.0968,-3.7892,-10.4614,-2.5279,-1.9400
265.6250,-2.2475,2.2503,1.0956,4.3415,-0.2431,-0.2570,-4.8558,-0.5809,4.4003,6.2958,4.4007,-1.2881,-3.7449,2.9373,3.2039,-4.1182,-10.8741,0.1693,2.6453
269.5312,-1.6366,3.5083,3.3580,5.6745,0.9503,-1.3932,-3.8885,0.6937,6.7214,5.7384,6.2627,1.9460,2.7320,-0.1666,3.7119,-3.3623,-10.2678,4.0423,8.0968
273.4375,-1.4321,4.1541,5.9471,6.2748,1.7370,-1.3970,-2.8937,1.1365,9.0413,4.7432,8.6753,5.7022,8.6508,-3.1089,4.4308,-2.0884,-8.8728,8.8288,13.8635
277.3438,-1.3489,4.4610,8.5077,6.7749,2.2315,-0.0977,-1.5277,1.5265,10.8622,3.7433,11.0016,9.7796,13.5786,-5.3152,5.0200,-0.8910,-6.6345,13.6888,19.2149
281.2500,-1.0135,4.7472,10.4108,7.6949,2.7117,1.9196,0.2651,2.3803,11.7526,3.1032,12.4917,13.6916,17.7931,-5.9153,5.1502,0.1026,-3.1997,17.5271,23.4467
285.1562,-0.1951,5.1595,11.0602,9.1790,3.5601,3.6828,2.1606,3.7412,11.4936,2.8968,12.5744,16.8370,21.9112,-4.0860,4.6246,1.3227,1.7858,19.4739,26.0962
289.0625,1.0124,5.5429,10.2083,10.9407,5.1275,4.4189,3.6192,5.2488,10.0986,2.8368,11.0539,18.7413,26.2977,0.5085,3.4344,3.3677,8.2583,19.2601,27.0842
292.9688,2.1730,5.5017,8.1235,12.4503,7.5707,4.0054,4.2235,6.4228,7.7487,2.4224,8.1678,19.2310,30.6476,7.4528,1.7651,6.4183,15.4973,17.2898,26.7164
296.8750,2.6886,4.6469,5.5260,13.2530,10.7477,3.0262,3.9806,6.9773,4.7251,1.2334,4.5133,18.4513,34.0250,15.6647,-0.0465,9.8903,22.2713,14.3849,25.5306
300.7812,2.0976,2.8860,3.3093,13.2209,14.2271,2.4050,3.3834,6.9781,1.3804,-0.8057,0.8647,16.7319,35.3427,23.7837,-1.6195,12.5947,27.3143,11.3573,24.0480
304.6875,0.3340,0.5651,2.1662,12.5828,17.4071,2.8351,3.1574,6.7586,-1.8806,-3.3558,-2.0828,14.3854,33.9763,30.6375,-2.6977,13.3269,29.8508,8.6497,22.5370
308.5938,-2.2027,-1.6503,2.2891,11.7191,19.6810,4.3337,3.8184,6.6614,-4.6648,-5.8377,-3.9709,11.5559,30.1201,35.5349,-3.3081,11.5179,29.8503,6.2281,20.9044
312.5000,-4.8152,-3.1025,3.2889,10.8596,20.5736,6.1842,5.3042,6.7730,-6.7078,-7.7414,-4.9319,8.1991,24.6675,38.2698,-3.7934,7.5468,27.8733,3.7532,18.7721
316.4062,-6.8279,-3.4828,4.3772,9.8893,19.8120,7.3077,6.9245,6.8205,-7.9829,-8.8817,-5.5346,4.1995,18.7131,38.9165,-4.6417,2.5441,24.6479,0.8976,15.7056
320.3125,-7.8854,-2.9804,4.7287,8.3947,17.3438,6.8677,7.6945,6.2912,-8.7065,-9.4446,-6.4976,-0.4429,13.0120,37.6103,-6.1714,-2.1703,20.6816,-2.3903,11.4804
324.2188,-8.0698,-2.1516,3.8437,5.9246,13.3421,4.7681,6.8797,4.6978,-9.2053,-9.8124,-8.2827,-5.4631,7.7397,34.4799,-8.2553,-5.6683,16.1607,-5.8193,6.2562
328.1250,-7.7912,-1.5989,1.7363,2.3004,8.2095,1.7522,4.4298,1.8278,-9.7064,-10.2923,-10.7750,-10.3054,2.6745,29.7522,-10.2902,-7.7022,11.1572,-8.8968,0.5758
332.0312,-7.5331,-1.6613,-1.1304,-2.2213,2.5495,-0.9764,1.0260,-2.1677,-10.1874,-10.9309,-13.2529,-14.2497,-2.3735,23.9045,-11.4806,-8.6023,5.9290,-11.1705,-4.8067
335.9375,-7.6092,-2.2907,-4.0997,-7.0315,-2.9397,-2.4110,-2.3057,-6.8756,-10.3931,-11.5211,-14.7044,-16.6495,-7.2226,17.6942,-11.2913,-8.9220,1.0320,-12.4242,-9.1862
339.8438,-8.0505,-3.1561,-6.6132,-11.4360,-7.6542,-2.2970,-4.7853,-11.8216,-10.0119,-11.7707,-14.3454,-17.1857,-11.3267,11.9781,-9.7853,-9.0806,-2.8838,-12.7295,-12.1447
343.7500,-8.6432,-3.8697,-8.3842,-14.9351,-11.2843,-1.2448,-6.3015,-16.6241,-8.8882,-11.4871,-12.0563,-16.0242,-14.1276,7.3881,-7.6108,-9.1988,-5.4655,-12.3510,-13.6751
347.6562,-9.0432,-4.1685,-9.3921,-17.3471,-13.9056,-0.3146,-7.3850,-21.0016,-7.1139,-10.6345,-8.4730,-13.7909,-15.4848,4.0493,-5.6226,-9.1608,-6.9374,-11.5735,-14.1454
351.5625,-8.8781,-3.9480,-9.7470,-18.7213,-15.8760,-0.3146,-8.7358,-24.6561,-4.9292,-9.2305,-4.6607,-11.3405,-15.8433,1.5292,-4.3661,-8.7952,-8.0216,-10.5395,-14.1124
355.4688,-7.8054,-3.1666,-9.5332,-19.1298,-17.5609,-1.2547,-10.6103,-27.1558,-2.5095,-7.1890,-1.5423,-9.3854,-15.9685,-0.9139,-3.7560,-8.0243,-9.4938,-9.1665,-14.0430
359.3750,-5.5661,-1.7385,-8.7240,-18.4954,-19.0314,-2.3131,-12.4853,-27.9499,0.1920,-4.2761,0.5876,-8.1397,-16.3862,-3.8947,-3.1550,-6.8929,-11.6377,-7.1738,-14.0471
363.2812,-2.0872,0.4701,-7.1920,-16.5811,-19.9237,-2.3545,-13.2592,-26.5571,3.4050,-0.2733,2.1704,-7.1631,-16.8987,-7.5155,-1.8064,-5.4950,-13.9664,-4.2158,-13.7464
367.1875,2.3825,3.5193,-4.7835,-13.1476,-19.5732,-0.6714,-11.9012,-22.8342,7.3067,4.7249,4.0420,-5.5371,-16.5463,-11.2626,0.6585,-3.8885,-15.4332,-0.0862,-12.3790
371.0938,7.1984,7.2336,-1.4119,-8.1767,-17.3767,2.5356,-8.1521,-17.1529,11.7456,10.0913,6.8391,-2.3529,-14.1184,-14.2665,3.9505,-2.0816,-15.0461,5.0811,-9.1498
375.0000,11.4261,11.1340,2.8536,-2.0203,-13.1890,6.2571,-2.8193,-10.3512,16.1294,14.7363,10.5143,2.6964,-8.9556,-15.7928,7.2476,-0.1120,-12.5305,10.7130,-3.7024
378.9062,14.1520,14.5436,7.7155,4.6120,-7.5215,9.2862,2.5546,-3.4588,19.5912,17.5143,14.2584,8.9358,-1.5628,-15.6778,9.6199,1.8412,-8.6278,15.8857,3.5181
382.8125,14.8740,16.8287,12.6127,10.8160,-1.4134,10.9257,6.4691,2.6548,21.3632,17.7812,16.8898,14.8071,6.3852,-14.4342,10.4921,3.4095,-4.8203,19.6061,11.2389
386.7188,13.7490,17.6439,16.7664,15.7220,3.9731,11.3187,8.2181,7.5127,21.1420,15.7739,17.4836,18.4789,12.7178,-12.9350,9.8831,4.1174,-2.6117,21.1806,17.7534
390.6250,11.5211,17.0340,19.3430,18.6905,7.8236,11.1955,8.1511,11.0209,19.2212,12.5457,15.8687,18.7029,15.7859,-11.8438,8.3178,3.5809,-2.7569,20.4845,21.5889
394.5312,9.1354,15.3380,19.7115,19.4168,9.9628,11.2388,7.2924,13.2555,16.3059,9.4451,12.6981,15.4636,15.2546,-11.1378,6.5012,1.7283,-4.8681,17.9749,22.1253
398.4375,7.2481,12.9626,17.6961,17.9433,10.8213,11.5311,6.5828,14.2195,13.1239,7.4118,9.0622,10.0348,12.2171,-10.0391,4.9588,-1.0885,-7.6103,14.4244,19.8333
402.3438,5.9260,10.1809,13.6911,14.6106,11.1126,11.4749,6.2510,13.7565,10.0739,6.5048,5.8912,4.3680,8.5592,-7.4412,3.8301,-4.1750,-9.3719,10.5320,15.9955
406.2500,4.7205,7.0890,8.5534,9.9782,11.4097,10.2378,5.7298,11.6914,7.1258,5.9522,3.5149,0.1310,5.9447,-2.6074,2.8902,-6.7531,-9.0413,6.6520,12.0617
410.1562,3.0647,3.7461,3.3084,4.7290,11.8534,7.4040,4.1615,8.0988,4.0214,4.7050,1.6364,-2.0645,5.0053,4.2681,1.7509,-8.2764,-6.4896,2.8130,8.9957
414.0625,0.7329,0.3868,-1.1881,-0.4395,12.1396,3.3801,1.1355,3.4945,0.6325,2.1594,-0.2957,-2.8033,5.1804,11.9856,0.1155,-8.6394,-2.5413,-1.0039,6.9644
417.9688,-1.9340,-2.4683,-4.4681,-4.9277,11.7710,-0.7181,-2.8571,-1.2192,-2.7703,-1.3962,-2.5846,-3.3156,5.2467,18.8214,-2.0382,-8.1710,1.4975,-4.5514,5.4974
421.8750,-4.1827,-4.1325,-6.4706,-8.3350,10.4078,-3.6221,-6.5830,-5.0708,-5.5292,-4.8852,-4.9972,-4.6008,4.1650,23.2963,-4.4186,-7.4243,4.4630,-7.2385,3.9566
425.7812,-5.2792,-4.0835,-7.4098,-10.5236,8.1020,-4.5596,-8.7581,-7.4384,-6.9092,-7.0349,-6.8828,-6.7905,1.7036,24.7900,-6.5324,-6.8883,5.7743,-8.4001,1.9859
429.6875,-4.9467,-2.3351,-7.6193,-11.6309,5.2736,-3.6199,-8.8305,-8.3310,-6.5367,-7.0969,-7.6139,-9.1438,-1.5258,23.6616,-7.8902,-6.7882,5.5017,-7.7723,-0.3347
433.5938,-3.5475,0.3849,-7.4677,-12.0217,2.4459,-1.6660,-7.3445,-8.3628,-4.7088,-5.2672,-7.0530,-10.6431,-4.5790,20.8462,-8.2152,-7.0689,4.1015,-5.8451,-2.6754
437.5000,-1.9105,2.8099,-7.3436,-12.1806,-0.0911,0.1054,-5.6377,-8.4229,-2.3756,-2.5728,-5.7241,-10.7563,-6.8493,17.2245,-7.5625,-7.5325,2.0375,-3.8031,-4.7888
441.4062,-0.9146,3.6389,-7.6231,-12.5579,-2.4654,0.6923,-5.0495,-9.2196,-0.7719,-0.3143,-4.5642,-9.8285,-8.4216,13.1770,-6.2888,-8.0023,-0.4551,-3.0097,-6.7125
445.3125,-1.0623,2.1512,-8.5486,-13.4010,-5.1178,-0.3330,-6.1246,-10.9413,-0.8630,0.5963,-4.3961,-8.8314,-9.8810,8.5906,-4.8812,-8.3898,-3.3332,-4.2940,-8.6858
449.2188,-2.2539,-1.3774,-10.0481,-14.6336,-8.4532,-2.7058,-8.2954,-13.2031,-2.8777,0.0358,-5.4429,-8.6492,-11.7292,3.2567,-3.7219,-8.6340,-6.5026,-7.4558,-10.8543
453.1250,-3.8533,-5.6948,-11.6259,-15.8506,-12.4592,-5.5941,-10.2234,-15.2852,-6.1613,-1.3742,-7.1802,-9.4071,-13.8412,-2.6596,-2.9086,-8.6005,-9.5781,-11.3003,-12.9996
457.0312,-4.9902,-9.0613,-12.4635,-16.4648,-16.5495,-7.8950,-10.5820,-16.5121,-9.4366,-2.6731,-8.6129,-10.3215,-15.3677,-8.4416,-2.2302,-8.0674,-11.8607,-14.2070,-14.5169
460.9375,-4.9558,-10.0014,-11.7492,-15.9646,-19.7635,-8.6216,-8.8108,-16.5662,-11.3568,-3.0686,-8.8135,-10.1939,-15.1815,-13.0798,-1.3213,-6.8524,-12.6014,-14.9223,-14.6856
464.8438,-3.5280,-7.9711,-9.0942,-14.1625,-21.2311,-7.2814,-5.4147,-15.5845,-11.0965,-2.2779,-7.4132,-8.2219,-12.5886,-15.7988,0.0814,-5.0042,-11.4138,-13.1356,-13.0644
468.7500,-1.0977,-3.6207,-4.8012,-11.2956,-20.6301,-4.1175,-1.6733,-14.0213,-8.7022,-0.5735,-4.7774,-4.5792,-7.8307,-16.4878,1.9228,-2.8933,-8.5707,-9.5335,-9.7561
472.6562,1.4622,1.4736,0.1819,-7.9054,-18.3515,-0.0776,1.0314,-12.3811,-5.0391,1.4242,-1.7918,-0.3644,-2.0315,-15.7271,3.7860,-1.0832,-4.9566,-5.3385,-5.3700
476.5625,3.1520,5.4870,4.6150,-4.5600,-15.2629,3.5323,1.8688,-10.9806,-1.3646,3.0562,0.6016,3.0555,3.3998,-14.3703,5.0668,-0.0155,-1.6457,-1.6284,-0.7121
480.4688,3.2898,7.1127,7.4398,-1.5904,-12.2161,5.5916,0.8528,-9.8592,1.2558,3.8844,1.8522,4.8763,7.5344,-12.9463,5.2887,0.2941,0.6769,1.1651,3.5914
484.3750,1.8435,6.0690,8.1334,0.9862,-9.6108,5.6473,-1.3277,-8.8636,2.3970,3.8115,2.0048,5.3171,10.3735,-11.2731,4.3924,0.3199,2.1066,3.3120,7.3045
488.2812,-0.5297,3.1306,6.7947,3.3034,-7.2859,4.0740,-3.7743,-7.8314,2.3706,3.0513,1.5800,5.4112,12.6964,-8.5459,2.8292,0.7603,3.4600,5.4070,10.5140
492.1875,-2.7923,-0.2990,3.9819,5.3613,-4.7856,1.8218,-5.8397,-6.7556,1.9354,1.9881,1.2300,6.2725,15.4144,-3.8643,1.3830,2.0811,5.7629,7.8212,13.3621
496.0938,-4.0476,-2.8483,0.4401,6.8387,-1.7991,-0.1027,-7.3372,-5.8295,1.8017,0.9898,1.3753,8.3184,18.8529,3.1178,0.7933,4.1652,9.5687,10.3272,15.7785
500.0000,-3.9967,-3.7527,-3.1353,7.1639,1.5378,-1.1166,-8.4372,-5.3498,2.2158,0.2465,2.0152,10.9512,22.4245,11.8116,1.3703,6.3236,14.5148,12.1268,17.3986
503.9062,-3.0654,-3.0972,-6.2326,5.8265,4.6741,-1.2449,-9.3786,-5.5394,2.8573,-0.2990,2.7935,12.8919,24.8944,20.8067,2.8136,7.6887,19.3954,12.2658,17.7193
507.8125,-2.1166,-1.6509,-8.5722,2.7332,6.9625,-0.9501,-10.2080,-6.3976,3.0943,-0.8875,3.2562,12.9451,25.0588,28.4066,4.3460,7.7435,22.7196,10.1960,16.3858
511.7188,-1.9083,-0.4168,-10.1079,-1.6371,8.0180,-0.7668,-10.7121,-7.6727,2.4303,-1.7674,3.1382,10.7099,22.3998,33.2748,5.1002,6.6282,23.4298,6.1605,13.4225
515.6250,-2.6239,-0.1320,-10.9834,-6.3995,7.8602,-0.9846,-10.5622,-8.9777,0.8633,-2.9914,2.5141,6.8076,17.3212,34.8437,4.5534,5.0042,21.3631,1.1738,9.2661
519.5312,-3.7553,-0.9498,-11.4215,-10.6498,6.7624,-1.5411,-9.5592,-9.9879,-1.0585,-4.3066,1.7346,2.5126,10.8534,33.3132,2.7750,3.5677,17.2104,-3.4035,4.5821
523.4375,-4.4030,-2.4223,-11.5540,-13.8267,4.9574,-2.1203,-7.8094,-10.6047,-2.5112,-5.2200,1.2017,-0.9582,4.0673,29.3217,0.3600,2.5587,12.0508,-6.4683,-0.0152
527.3438,-3.8037,-3.7526,-11.2761,-15.8241,2.4512,-2.3435,-5.7165,-10.9895,-2.8250,-5.2278,1.1293,-3.0547,-2.4020,23.5507,-1.8941,1.6315,6.7902,-7.6275,-4.1731
531.2500,-1.7644,-4.1755,-10.2451,-16.8155,-0.9003,-1.9412,-3.7952,-11.4437,-1.8126,-4.0917,1.4363,-4.0543,-8.4242,16.5110,-3.3700,0.1971,1.8600,-7.2572,-7.8236
535.1562,1.2325,-3.2899,-8.0870,-16.9551,-5.1168,-0.8658,-2.4203,-12.2057,0.1831,-2.0043,1.8303,-4.7230,-14.0458,8.5946,-3.8602,-2.0014,-2.6843,-6.1578,-11.0265
539.0625,4.2802,-1.2145,-4.7281,-16.2008,-9.8509,0.6485,-1.6643,-13.2849,2.5150,0.4579,2.0148,-5.7303,-19.0515,0.2753,-3.5484,-4.5135,-6.8137,-5.0354,-13.7543
542.9688,6.4746,1.4725,-0.6430,-14.3944,-14.3942,2.0958,-1.3168,-14.4307,4.5630,2.5796,1.8738,-7.1980,-22.7722,-7.7550,-2.8088,-6.3240,-10.2397,-4.1368,-15.7770
546.8750,7.2765,3.9622,3.1854,-11.5312,-17.9624,2.8339,-1.0675,-15.2531,5.9635,3.8206,1.5127,-8.6453,-24.3132,-14.6587,-1.9827,-6.4670,-12.4300,-3.2607,-16.7394
550.7812,6.6550,5.5120,5.6396,-7.9921,-20.0755,2.3754,-0.7341,-15.4181,6.6332,4.0384,1.1419,-9.3292,-23.0684,-19.7088,-1.2611,-4.7069,-12.9188,-2.1060,-16.3905
554.6875,5.0094,5.6994,5.9972,-4.5322,-20.7670,0.7369,-0.3895,-14.8010,6.6370,3.5160,0.9050,-8.7348,-19.1741,-22.5578,-0.6849,-1.7937,-11.6692,-0.6839,-14.8129
558.5938,2.9735,4.5517,4.3122,-1.9856,-20.4706,-1.3755,-0.3105,-13.5122,6.0527,2.8086,0.7966,-6.8926,-13.5752,-23.3278,-0.1833,0.9349,-9.1952,0.5379,-12.4764
562.5000,1.2109,2.5161,1.4105,-0.8537,-19.6609,-2.7592,-0.7788,-11.7978,4.9557,2.5085,0.7414,-4.3312,-7.6251,-22.4528,0.4302,2.3879,-6.3237,0.9041,-10.0385
566.4062,0.2563,0.2916,-1.5085,-1.0358,-18.4962,-2.3001,-1.8629,-9.8963,3.5282,3.0496,0.7774,-1.7124,-2.4417,-20.3794,1.4898,2.4471,-3.7378,0.0997,-7.9808
570.3125,0.4088,-1.4102,-3.4331,-1.8758,-16.7140,0.3345,-3.3190,-7.9549,2.1769,4.6189,1.1928,0.6021,1.5934,-17.3374,3.4407,2.0830,-1.6118,-1.4376,-6.2976
574.2188,1.6794,-2.0881,-3.9432,-2.5102,-13.8532,4.3365,-4.6800,-6.0576,1.5149,7.1678,2.4765,2.7678,4.8899,-13.3455,6.6547,2.7456,0.4079,-2.5611,-4.4570
578.1250,3.8125,-1.5788,-3.2592,-2.3212,-9.6612,8.0476,-5.4878,-4.3294,2.1550,10.4675,5.0707,5.3149,8.2311,-8.4509,11.1423,5.4034,2.8529,-1.9693,-1.7057
582.0312,6.3913,-0.0575,-1.9725,-1.2535,-4.4237,9.8180,-5.5387,-3.0217,4.3980,14.1577,9.0555,8.7327,12.1479,-3.0274,16.3461,9.8545,5.9454,1.0279,2.4260
585.9375,8.9890,2.0674,-0.6772,0.1609,0.9933,8.9513,-5.0060,-2.4889,7.9912,17.7779,13.9610,13.0410,16.4682,2.1084,21.2140,14.7672,9.3007,6.0096,7.7129
589.8438,11.2812,4.2990,0.2615,1.0610,5.4223,6.1324,-4.3715,-3.0446,12.1116,20.8073,18.8398,17.6182,20.3120,5.8972,24.5991,18.4360,12.0238,11.5533,13.1841
593.7500,13.0466,6.1677,0.7095,0.6554,7.8454,3.0244,-4.2023,-4.7766,15.6095,22.7448,22.5786,21.4003,22.5272,7.4787,25.7979,19.7691,13.1512,15.9178,17.5001
597.6562,14.0719,7.2840,0.6214,-1.4235,7.7877,1.2502,-4.8873,-7.4439,17.4063,23.2303,24.2925,23.3449,22.2993,6.6283,24.9002,18.8772,12.1711,17.8979,19.5620
601.5625,14.0653,7.3452,-0.0788,-4.9528,5.4701,1.3965,-6.4590,-10.5391,16.8658,22.1680,23.6096,22.9001,19.5793,3.9121,22.7053,16.8966,9.3148,17.3309,19.0076
605.4688,12.7044,6.1465,-1.4814,-9.1891,1.6740,2.6822,-8.5799,-13.4958,13.9821,19.7880,20.7353,20.2265,15.0993,0.4463,20.2311,15.1868,5.4611,14.9695,16.3120
609.3750,9.8430,3.6369,-3.5626,-13.1286,-2.5940,3.5134,-10.6887,-15.9226,9.3309,16.5989,16.3107,16.0757,10.0000,-2.6173,18.1226,14.4369,1.7293,11.8513,12.4560
613.2812,5.7504,0.0140,-6.0606,-15.8482,-6.4684,2.5602,-12.2320,-17.7128,3.8370,13.2284,11.1736,11.4245,5.3105,-4.5816,16.3448,14.2605,-0.9951,8.6164,8.3938
617.1875,1.1834,-4.2039,-8.4693,-16.7896,-9.4594,-0.3488,-12.8729,-18.9553,-1.5261,10.2060,6.1306,7.0829,1.5840,-5.3838,14.3531,13.5186,-2.3506,5.2374,4.6628
621.0938,-2.8367,-8.2125,-10.1711,-15.8794,-11.4673,-4.0987,-12.5882,-19.7008,-5.9937,7.7772,1.7918,3.4687,-1.1361,-5.3785,11.5990,11.1355,-2.4913,1.3108,1.3590
625.0000,-5.4659,-11.1121,-10.6457,-13.4496,-12.6009,-7.0003,-11.6181,-19.7461,-9.1598,5.8343,-1.5346,0.6088,-3.0651,-4.8918,7.9924,6.8625,-1.8491,-3.3431,-1.5674
628.9062,-6.4496,-12.2228,-9.6567,-10.0217,-12.9262,-7.8664,-10.3064,-18.6106,-11.0092,4.0013,-3.9010,-1.7145,-4.3573,-3.8672,3.9812,1.4974,-0.8521,-8.2484,-3.9693
632.8125,-6.2352,-11.4061,-7.3527,-6.0830,-12.3112,-6.7549,-8.9197,-15.7650,-11.8536,1.8373,-5.7139,-3.8104,-4.9559,-1.8642,0.1932,-3.5713,0.2277,-12.3634,-5.4077
636.7188,-5.6989,-9.2294,-4.2666,-1.9816,-10.4798,-4.9095,-7.5466,-11.0071,-12.2074,-0.9401,-7.6236,-6.0039,-4.7101,1.5737,-3.0821,-7.2011,1.2357,-14.6687,-5.4061
640.6250,-5.6530,-6.8499,-1.2150,2.0228,-7.2593,-3.9594,-6.1306,-4.7567,-12.6344,-4.3226,-10.2998,-8.6246,-3.6684,6.4233,-6.1756,-9.1951,1.9756,-14.8670,-3.8779
644.5312,-6.4427,-5.6050,0.8992,5.6283,-2.8630,-4.8994,-4.6101,1.9428,-13.5938,-8.0345,-14.1536,-11.9780,-2.3199,11.9129,-9.8525,-10.4456,2.0726,-13.7044,-1.4018
648.4375,-7.8712,-6.4466,1.3651,8.4175,2.0045,-7.4883,-3.0656,7.7735,-15.3113,-11.6852,-19.1235,-16.2440,-1.5837,16.7068,-14.7631,-12.4424,0.9805,-12.6549,0.8995
652.3438,-9.4512,-9.4624,-0.0528,9.9371,6.3437,-10.4135,-1.7617,11.6870,-17.6994,-14.9475,-24.6316,-21.3274,-2.4945,19.4823,-20.8965,-16.4298,-1.8412,-13.1245,1.8513
656.2500,-10.7606,-13.7291,-2.9579,9.9015,9.2898,-12.0835,-1.0349,13.3502,-20.3469,-17.6440,-29.7379,-26.7576,-5.7264,19.5739,-27.3966,-22.6703,-6.6543,-15.6394,0.8077
660.1562,-11.6313,-17.6181,-6.4201,8.3790,10.5285,-11.5405,-1.0862,13.2311,-22.5914,-19.6904,-33.4186,-31.7283,-11.1959,17.2980,-32.8568,-30.1892,-13.2050,-19.4975,-2.0307
664.0625,-12.0692,-19.4609,-9.3448,5.8095,10.4227,-8.9507,-1.8195,12.2609,-23.6769,-20.9540,-34.8451,-35.2855,-17.9526,13.7576,-35.9012,-37.0996,-20.6418,-23.0780,-5.7437
667.9688,-12.0306,-18.2896,-10.9607,2.8101,9.7408,-5.4197,-2.8543,11.2580,-22.9699,-21.1616,-33.5651,-36.5825,-24.4110,10.2451,-35.7125,-41.3228,-27.6332,-24.6153,-9.1554
671.8750,-11.3033,-14.2916,-11.1584,-0.1158,9.1397,-2.3048,-3.7338,10.4489,-20.1793,-19.9727,-29.5645,-35.0802,-28.8117,7.6075,-32.2533,-41.3545,-32.6538,-22.9977,-11.3301
675.7812,-9.6385,-8.7391,-10.4631,-2.7723,8.7387,-0.4764,-4.2079,9.3741,-15.5002,-17.2199,-23.2515,-30.6258,-29.7134,5.9447,-26.1561,-36.7526,-34.3461,-18.1863,-11.8121
679.6875,-7.0543,-3.4027,-9.6309,-5.2306,8.0812,0.0315,-4.3964,7.2404,-9.6111,-13.1765,-15.4030,-23.4269,-26.3447,4.7886,-18.4392,-28.1857,-31.8533,-11.1072,-10.5377
683.5938,-4.0526,0.2633,-9.1090,-7.5868,6.5270,-0.1785,-4.7001,3.5106,-3.5006,-8.6468,-7.0735,-14.0001,-18.7459,3.5997,-10.2305,-17.0904,-25.0408,-3.1676,-7.5839
687.5000,-1.5187,1.7487,-8.7076,-9.6958,3.8198,-0.4194,-5.4914,-1.6261,1.8257,-4.7493,0.5708,-3.1464,-7.7244,2.2300,-2.5725,-5.1305,-14.5569,4.2938,-3.0084
691.4062,-0.2959,1.6079,-7.7156,-11.0882,0.4349,-0.4207,-6.7779,-7.1975,5.6432,-2.4449,6.5090,8.0679,5.3161,1.0567,3.7311,6.2967,-1.7197,10.3661,3.0766
695.3125,-0.6820,1.0291,-5.4059,-11.1494,-2.5545,-0.4425,-8.0803,-11.8556,7.6929,-2.0482,10.1538,18.4039,18.6306,0.7309,8.2723,16.3280,11.7542,14.6518,10.2804
699.2188,-2.1867,1.1155,-1.6111,-9.4565,-4.0340,-0.9488,-8.6397,-14.5218,8.1842,-3.0107,11.5466,26.6761,30.4565,1.7475,11.1556,24.6183,24.1220,17.1633,17.7841
703.1250,-3.7404,2.2935,3.0159,-6.0568,-3.4799,-2.1041,-7.8570,-14.9029,7.6422,-4.1420,11.3402,32.0729,39.3740,4.1384,12.9587,31.1165,33.9975,18.1689,24.4584
707.0312,-4.2531,4.1681,7.2468,-1.5081,-1.2601,-3.4819,-5.6991,-13.5830,6.6938,-4.1820,10.5429,34.4264,44.6177,7.4815,14.4660,35.7943,40.6246,18.0696,29.2401
710.9375,-3.1895,5.8691,9.9005,3.3431,1.5898,-4.2325,-2.8022,-11.6437,5.8914,-2.4281,10.1265,34.2676,46.2203,11.1821,16.2572,38.4880,43.9494,17.3068,31.5617
714.8438,-0.8214,6.6374,10.4700,7.7095,3.9693,-3.6300,-0.1848,-10.0336,5.6203,0.9313,10.6784,32.5935,44.9010,14.8107,18.3786,38.9367,44.4646,16.2647,31.5672
718.7500,1.9740,6.2769,9.3771,11.1367,5.3143,-1.6366,1.2782,-9.0513,6.0679,4.9546,12.2478,30.4303,41.7205,18.2658,20.3174,36.9805,42.9060,15.1676,29.9790
722.6562,4.2135,5.2100,7.7038,13.5656,5.8298,0.9237,1.3104,-8.2331,7.2014,8.4616,14.4214,28.4042,37.6502,21.6803,21.3200,32.7832,39.9468,14.0194,27.6964
726.5625,5.2845,4.1372,6.5647,15.1815,6.2372,2.7463,0.3472,-6.7061,8.7361,10.6104,16.5404,26.5331,33.2564,25.1690,20.8539,26.9231,36.0316,12.6411,25.3611
730.4688,5.1338,3.5463,6.4831,16.1587,7.2142,2.7753,-0.7605,-3.8042,10.1317,11.2054,17.9248,24.3334,28.6375,28.6017,18.9073,20.2686,31.3984,10.8005,23.1147
734.3750,4.1137,3.3859,7.1087,16.4454,8.8783,0.8302,-1.2732,0.4052,10.6840,10.5922,18.0154,21.1641,23.6027,31.5368,15.9255,13.6836,26.2210,8.3587,20.6266
738.2812,2.6495,3.0932,7.4086,15.6942,10.6079,-2.2744,-1.0107,4.9843,9.7389,9.2654,16.4396,16.6109,17.9446,33.3241,12.4514,7.7164,20.7309,5.3320,17.3123
742.1875,0.9746,1.9319,6.2041,13.3700,11.2879,-5.1947,-0.4637,8.4683,6.9676,7.4879,13.0637,10.7150,11.6288,33.2965,8.7546,2.4492,15.2113,1.8298,12.5952
746.0938,-0.9136,-0.5774,2.7635,9.0007,9.8354,-6.8153,-0.5113,9.5240,2.5691,5.1873,8.0718,3.9559,4.8069,30.9621,4.7445,-2.3978,9.8684,-2.0719,6.1146
750.0000,-3.0936,-4.3790,-2.8282,2.4818,5.7448,-6.8258,-1.9068,7.5854,-2.7247,2.1805,2.0358,-2.9617,-2.2907,26.1684,0.2367,-7.1648,4.6999,-6.3977,-2.1305
753.9062,-5.5077,-8.8815,-9.6689,-5.6906,-0.5896,-5.7842,-4.8150,3.1451,-7.8753,-1.4632,-4.1194,-9.3772,-9.4465,19.2401,-4.6356,-11.9315,-0.4979,-11.1900,-11.6722
757.8125,-7.8619,-13.1936,-16.3710,-14.3824,-7.8981,-4.6765,-8.6449,-2.4437,-11.8981,-5.2111,-9.3230,-14.8581,-16.4196,11.0683,-9.2092,-16.3713,-5.9340,-16.3049,-21.5192
761.7188,-9.7015,-16.4493,-21.5573,-22.0535,-14.3913,-4.2948,-12.2612,-7.5457,-14.1850,-8.1939,-12.7035,-19.2284,-22.8001,3.0632,-12.4910,-19.8768,-11.5360,-21.2258,-30.2346
765.6250,-10.6051,-18.0658,-24.3037,-27.2099,-18.3200,-4.8244,-14.4644,-10.9049,-14.6391,-9.6169,-13.9201,-22.4639,-27.8864,-3.1195,-13.6809,-21.8832,-16.7703,-25.0630,-36.2215
769.5312,-10.3707,-17.8546,-24.3631,-28.8995,-18.5417,-5.8412,-14.5027,-12.0645,-13.5832,-9.1988,-13.2949,-24.5413,-30.7385,-6.0726,-12.6773,-22.1919,-20.7276,-26.8035,-38.1772
773.4375,-9.0879,-15.9847,-22.1042,-27.0123,-14.8880,-6.6370,-12.3693,-11.3638,-11.5259,-7.3509,-11.6480,-25.3380,-30.4570,-5.1819,-10.2077,-21.0926,-22.4800,-25.7174,-35.5434
777.3438,-7.0728,-12.8486,-18.2258,-22.2219,-8.1879,-6.6099,-8.7484,-9.5680,-8.9257,-4.9752,-9.8966,-24.6437,-26.5801,-0.9475,-7.4681,-19.2032,-21.5335,-21.7049,-28.7163
781.2500,-4.7182,-8.8965,-13.4017,-15.5984,0.0676,-5.4944,-4.6459,-7.3738,-6.0648,-3.0012,-8.6223,-22.2799,-19.3929,5.1326,-5.4844,-17.1299,-18.1271,-15.3843,-18.8883
785.1562,-2.3455,-4.4978,-8.0349,-8.1163,8.2701,-3.3769,-0.8989,-5.0789,-3.0524,-1.9420,-7.8324,-18.2678,-9.9671,11.1148,-4.5938,-15.1598,-13.2005,-7.8611,-7.5957
789.0625,-0.1217,0.1189,-2.2365,-0.3524,15.1965,-0.5920,2.1793,-2.5800,0.0986,-1.7176,-7.0321,-12.9450,0.1100,15.3417,-4.3590,-13.1777,-8.0393,-0.3010,3.7717
792.9688,1.9393,4.8220,3.9822,7.4626,20.2376,2.3871,4.8269,0.3422,3.3953,-1.8099,-5.5472,-6.9504,9.1989,16.9853,-3.9329,-10.8443,-3.7824,6.4634,14.2371
796.8750,3.9158,9.4535,10.4396,15.1119,23.2846,5.0395,7.5236,3.6642,6.8282,-1.6081,-2.9034,-1.0563,16.0581,16.1458,-2.5992,-7.8995,-1.0358,12.0971,23.1830
800.7812,5.8969,13.7086,16.6223,22.0524,24.4081,6.9221,10.5286,6.9275,10.3608,-0.7138,0.9437,4.0917,20.1037,13.5161,-0.1281,-4.3727,0.2402,16.6502,30.1151
804.6875,7.9143,17.1210,21.7500,27.3495,23.5851,7.8507,13.5564,9.3412,13.9133,0.9533,5.6272,8.1969,21.4151,9.8755,3.2504,-0.5565,0.5631,20.2865,34.5026
808.5938,9.9053,19.2106,25.0501,29.9765,20.6745,8.0482,15.8157,10.1219,17.3298,3.2419,10.5756,11.3738,20.5442,5.7395,7.1616,3.2197,0.6041,23.0456,35.8734
812.5000,11.7107,19.7355,26.0881,29.3123,15.6490,8.1074,16.4212,8.8756,20.3537,5.9155,15.2523,14.0019,18.2497,1.3417,11.3918,6.8263,0.8806,24.7809,34.1186
816.4062,13.1038,18.8936,24.9642,25.5228,8.8905,8.6928,14.9447,5.8106,22.6483,8.7252,19.2783,16.4421,15.2689,-3.1265,15.9186,10.3740,1.5864,25.2827,29.7599
820.3125,13.8430,17.3070,22.2603,19.5742,1.3003,10.1011,11.7633,1.6776,23.8738,11.3726,22.3927,18.7703,12.1815,-7.2616,20.6307,13.9968,2.5938,24.4700,23.9205
824.2188,13.7320,15.7405,18.7688,12.8600,-5.9038,11.9629,7.9581,-2.5186,23.7865,13.4444,24.3269,20.6807,9.3657,-10.4035,24.9703,17.5222,3.5871,22.4976,17.9305
828.1250,12.6705,14.6791,15.1524,6.6551,-11.6081,13.3308,4.7912,-5.8791,22.3050,14.4299,24.7222,21.6148,7.0133,-11.8434,27.8272,20.2913,4.2526,19.6970,12.7613
832.0312,10.6764,14.0161,11.7111,1.6935,-15.1939,13.1696,3.0538,-7.8772,19.5036,13.8619,23.1842,21.0406,5.1700,-11.1392,27.8705,21.3225,4.4514,16.3898,8.6291
835.9375,7.8746,13.0649,8.3594,-1.9370,-16.6721,10.9690,2.6744,-8.4385,15.5479,11.5149,19.4648,18.7225,3.7795,-8.3179,24.2036,19.7921,4.3120,12.7038,5.0236
839.8438,4.4588,10.9291,4.7971,-4.5949,-16.5081,7.0877,2.8204,-7.8433,10.6271,7.5407,13.6734,14.8391,2.7233,-3.8407,16.9753,15.5741,4.2028,8.5281,1.1551
843.7500,0.6523,7.0388,0.7644,-6.7542,-15.2827,2.5866,2.4243,-6.5389,4.9452,2.4620,6.3906,9.9051,1.8619,1.6296,7.5584,9.5014,4.5857,3.6571,-3.4528
847.6562,-3.3125,1.5447,-3.7495,-8.7369,-13.4152,-1.3501,0.8058,-4.9610,-1.2162,-2.9648,-1.3900,4.5733,1.0802,7.4985,-1.8734,3.1507,5.8036,-1.9514,-8.5824
851.5625,-7.1898,-4.6623,-8.4329,-10.6174,-11.0932,-4.0372,-1.9824,-3.4352,-7.4106,-7.9339,-8.4816,-0.5589,0.3358,13.3908,-9.1874,-1.7739,7.8980,-7.9597,-13.3712
855.4688,-10.7096,-10.3186,-12.7307,-12.2753,-8.3842,-5.5634,-5.2638,-2.1714,-12.9991,-11.7474,-13.8018,-5.0425,-0.3043,19.1275,-13.1301,-4.1476,10.5521,-13.6246,-16.7355
859.3750,-13.5927,-14.3317,-16.0306,-13.5148,-5.3887,-6.5770,-8.1847,-1.3188,-17.2470,-13.9276,-16.6443,-8.5664,-0.6699,24.5893,-13.7352,-3.8580,13.1962,-18.0122,-17.9032
863.2812,-15.6057,-16.2008,-17.8780,-14.1698,-2.3005,-7.7721,-10.1866,-1.0249,-19.5382,-14.3092,-16.8456,-10.9120,-0.5558,29.5721,-12.1215,-1.7597,15.2232,-20.3670,-16.7494
867.1875,-16.6395,-16.1154,-18.1379,-14.1683,0.6467,-9.4352,-11.2167,-1.4476,-19.6217,-13.1169,-14.8075,-11.9490,0.1551,33.7150,-9.8341,0.7870,16.2009,-20.4484,-13.7900
871.0938,-16.7609,-14.7340,-17.0449,-13.5566,3.2599,-11.3238,-11.5964,-2.7040,-17.7612,-10.9672,-11.3743,-11.6935,1.3679,36.5178,-8.1017,2.5312,15.9754,-18.6500,-9.8964
875.0000,-16.1868,-12.8177,-15.1216,-12.4900,5.3976,-12.8893,-11.7024,-4.7828,-14.6874,-8.7132,-7.5894,-10.3805,2.7286,37.4289,-7.3801,2.7976,14.6349,-15.8223,-5.9360
878.9062,-15.1744,-10.9323,-12.9967,-11.1885,6.8966,-13.6296,-11.7108,-7.4806,-11.3433,-7.1145,-4.3861,-8.4725,3.7108,35.9789,-7.3445,1.6308,12.3905,-12.8789,-2.5290
882.8125,-13.8807,-9.3373,-11.1942,-9.8642,7.5003,-13.3202,-11.5626,-10.4201,-8.5205,-6.4561,-2.3021,-6.5561,3.8225,31.9382,-7.2391,-0.3716,9.4723,-10.3911,0.0102
886.7188,-12.2816,-8.0418,-9.9725,-8.6521,6.8973,-12.0223,-11.1207,-13.1630,-6.5557,-6.3434,-1.3260,-5.1505,2.8452,25.4621,-6.3374,-2.3924,6.1046,-8.3829,1.6090
890.6250,-10.2185,-6.9210,-9.2692,-7.5825,4.8925,-9.9467,-10.3521,-15.3632,-5.2417,-5.8558,-0.9588,-4.5062,0.9789,17.1601,-4.2813,-3.7292,2.5498,-6.4349,2.3580
894.5312,-7.5615,-5.8034,-8.7561,-6.6101,1.6134,-7.3266,-9.3768,-16.8705,-4.0063,-4.0490,-0.4891,-4.4923,-1.1932,8.0241,-1.1959,-4.0171,-0.8484,-4.0239,2.4814
898.4375,-4.3906,-4.5096,-7.9709,-5.6721,-2.4037,-4.3836,-8.3578,-17.7143,-2.2725,-0.5520,0.6335,-4.6300,-2.9150,-0.7976,2.3906,-3.3005,-3.6839,-0.8952,2.3351
902.3438,-1.0690,-2.8811,-6.4807,-4.7257,-6.3432,-1.3511,-7.3426,-17.9751,0.1883,4.1018,2.5092,-4.2705,-3.5429,-8.3077,5.7357,-1.9566,-5.5789,2.7514,2.3664
906.2500,1.8640,-0.8375,-4.0400,-3.7403,-9.4078,1.5321,-6.2030,-17.6404,3.1070,8.6516,4.7471,-2.8532,-2.7760,-13.9109,8.1156,-0.5014,-6.2937,6.3597,2.9929
910.1562,3.9362,1.5533,-0.7162,-2.6730,-11.1233,4.0854,-4.7331,-16.5616,5.8554,11.7312,6.7047,-0.1437,-0.7372,-17.4892,9.0673,0.6639,-5.7923,9.3239,4.4278
914.0625,4.9845,4.0437,3.0557,-1.4804,-11.4794,6.2454,-2.8364,-14.5699,7.7966,12.5903,7.8752,3.6412,2.1032,-19.2792,8.5919,1.4646,-4.2370,11.3018,6.5405
917.9688,5.2401,6.2565,6.5365,-0.1942,-10.8433,8.0351,-0.6670,-11.6882,8.6370,11.4828,8.1919,7.8788,5.1014,-19.6436,7.2250,2.2046,-1.9361,12.3401,8.8421
921.8750,5.1932,7.8044,8.8923,0.9876,-9.7257,9.4382,1.3756,-8.2913,8.5669,9.4847,8.0515,11.7403,7.6301,-18.8807,5.8756,3.3889,0.7144,12.7469,10.6269
925.7812,5.3017,8.4131,9.5058,1.6878,-8.5527,10.2808,2.7869,-5.0766,8.0925,7.8491,8.0233,14.4633,9.2257,-17.1705,5.4199,5.3690,3.2755,12.8101,11.2211
929.6875,5.7085,7.9838,8.2591,1.4789,-7.5648,10.2504,3.1453,-2.8223,7.6588,7.2822,8.4094,15.5752,9.6715,-14.6451,6.1976,7.9935,5.3172,12.5542,10.2294
933.5938,6.1263,6.5765,5.6235,0.1151,-6.8497,9.0782,2.2497,-2.0512,7.2985,7.5623,8.9263,14.9723,9.0162,-11.4857,7.6869,10.4902,6.5066,11.6947,7.6775
937.5000,5.9557,4.3575,2.4679,-2.2671,-6.4214,6.7700,0.1742,-2.7889,6.5423,7.7004,8.7275,12.8407,7.5297,-7.9421,8.6044,11.7091,6.7222,9.8192,3.9955
941.4062,4.5779,1.5703,-0.3441,-5.1197,-6.2450,3.7000,-2.7384,-4.5530,4.6760,6.5207,6.7935,9.4950,5.6090,-4.2506,7.4707,10.6549,6.1363,6.6809,-0.1312
945.3125,1.6770,-1.4518,-2.3441,-7.6682,-6.1806,0.4736,-5.9155,-6.5668,1.2157,3.3148,2.5017,5.2583,3.6604,-0.5214,3.3946,7.0394,5.1918,2.4318,-3.9666
949.2188,-2.5553,-4.2727,-3.5972,-9.2122,-5.9159,-2.3577,-8.6383,-8.0682,-3.6747,-1.7774,-3.9269,0.4603,2.0067,3.3022,-3.3427,1.5384,4.4435,-2.3366,-6.8957
953.1250,-7.4209,-6.4061,-4.4972,-9.3705,-4.9942,-4.5245,-10.2049,-8.5468,-9.0864,-7.8234,-11.3582,-4.4723,0.8545,7.3547,-11.2575,-4.4267,4.3232,-6.7667,-8.5164
957.0312,-11.9194,-7.4587,-5.3630,-8.1511,-2.9909,-6.0472,-10.1667,-7.8246,-13.6774,-13.5060,-18.1077,-8.9497,0.3203,11.6711,-18.2461,-9.2986,4.9444,-10.0356,-8.6575
960.9375,-15.0816,-7.3083,-6.1290,-5.8534,0.2236,-7.0372,-8.5497,-6.0041,-16.2486,-17.6522,-22.5766,-12.2957,0.4614,16.0299,-22.4908,-12.0700,6.0533,-11.6498,-7.3691
964.8438,-16.3096,-6.2031,-6.3660,-2.9121,4.2861,-7.4767,-5.9137,-3.3773,-16.2832,-19.6357,-23.8602,-13.9805,1.2578,19.9240,-23.2135,-12.6801,7.1550,-11.6123,-4.9168
968.7500,-15.5933,-4.6891,-5.6292,0.2101,8.3600,-7.1753,-3.1577,-0.3595,-14.1593,-19.5126,-22.0502,-13.8857,2.5418,22.6978,-20.8971,-11.9099,7.7461,-10.4009,-1.7727
972.6562,-13.5058,-3.3722,-3.8740,3.0680,11.4171,-5.9487,-1.1220,2.5596,-10.9246,-17.8803,-18.1071,-12.4123,3.9492,23.7955,-16.9064,-10.8497,7.5343,-8.7585,1.4488
976.5625,-10.9547,-2.6286,-1.6059,5.2829,12.6727,-3.8662,-0.1940,4.8975,-7.7596,-15.5535,-13.3887,-10.3145,4.9928,23.0087,-12.7686,-10.2534,6.5449,-7.3696,4.1497
980.4688,-8.7792,-2.4286,0.3871,6.6537,11.9532,-1.3439,-0.1552,6.3112,-5.4210,-13.2053,-9.0756,-8.3218,5.2865,20.6053,-9.5215,-10.1498,5.0867,-6.5460,5.9726
984.3750,-7.3762,-2.3799,1.5540,7.2832,9.7845,1.0226,-0.3782,6.7216,-3.9571,-11.1226,-5.7646,-6.7691,4.8183,17.2671,-7.4363,-9.9243,3.6114,-6.0696,6.9805
988.2812,-6.5523,-1.9682,1.9776,7.5890,7.1285,2.7800,-0.2577,6.3305,-2.8265,-9.1792,-3.3993,-5.4717,4.0734,13.8440,-6.1635,-8.8033,2.5377,-5.2963,7.6517
992.1875,-5.6967,-0.8509,2.3321,8.1001,4.8904,3.8562,0.4011,5.4803,-1.3199,-7.0322,-1.5247,-3.9356,3.8562,11.0127,-5.1171,-6.4366,2.0989,-3.5116,8.6316
996.0938,-4.1905,0.9707,3.4001,9.1024,3.4658,4.5402,1.2936,4.4262,0.9737,-4.4342,0.3145,-1.7640,4.8460,8.9897,-3.8377,-3.2166,2.2594,-0.3780,10.3351
1000.0000,-1.8126,3.1958,5.4801,10.3616,2.5933,5.2309,1.8821,3.1777,3.9314,-1.4715,2.2688,1.0156,7.1356,7.4518,-2.1660,-0.1326,2.7238,3.7760,12.6299
1003.9062,1.1098,5.4464,8.1204,11.1681,1.6109,6.1574,1.8264,1.5446,7.0116,1.4336,4.1424,3.9297,10.0693,5.7409,-0.2182,1.7644,3.0503,8.0325,14.8308
1007.8125,3.9090,7.5137,10.3934,10.7568,-0.0258,7.2764,1.2732,-0.6204,9.6296,3.7775,5.6135,6.3619,12.5477,3.2832,1.7396,1.9678,2.8430,11.3350,16.0667
1011.7188,6.0092,9.4679,11.5335,8.8711,-2.2797,8.3915,0.7971,-3.1497,11.5446,5.3328,6.5512,7.9701,13.6582,0.0125,3.4179,0.8313,1.9526,13.0859,15.8370
1015.6250,7.2920,11.5599,11.4848,6.0847,-4.4271,9.3501,1.0326,-5.4774,13.0076,6.3544,7.2041,8.9308,13.2434,-3.4630,4.5972,-0.6072,0.5825,13.5252,14.4087
1019.5312,8.1394,13.9809,10.9565,3.6056,-5.4108,10.1298,2.2527,-6.8505,14.5716,7.4602,8.1161,9.8382,12.0209,-6.0981,5.2009,-1.1960,-0.7769,13.6236,12.7630
1023.4375,9.1168,16.6339,10.9355,2.6289,-4.4598,10.7505,4.1845,-6.7322,16.6822,9.2248,9.8060,11.3261,11.1433,-6.9659,5.3543,-0.3030,-1.5778,14.5085,12.0704
1027.3438,10.5162,19.0703,11.9949,3.6318,-1.6029,11.1320,6.1821,-5.1416,19.3100,11.7412,12.4089,13.6610,11.4664,-5.8250,5.3913,1.8600,-1.4964,16.7510,12.9921
1031.2500,12.0845,20.6442,13.8875,6.0806,2.2576,11.0804,7.6270,-2.6891,21.8685,14.4582,15.5138,16.5641,13.0035,-3.3378,5.7555,4.4032,-0.6062,19.9630,15.2507
1035.1562,13.1430,20.8077,15.7042,8.7609,5.7872,10.4652,8.2751,-0.2606,23.4854,16.4360,18.3122,19.3580,14.9357,-0.7599,6.7908,6.2965,0.6657,22.9806,17.7710
1039.0625,13.0268,19.3889,16.4718,10.5270,7.9291,9.4461,8.3220,1.4662,23.4700,16.8813,19.9766,21.3180,16.1672,0.7565,8.5071,6.9373,1.7760,24.5416,19.3286
1042.9688,11.5403,16.7001,15.7644,10.9798,8.4640,8.5088,8.1674,2.3767,21.6925,15.6206,20.0376,21.9980,16.0466,0.8405,10.4615,6.4036,2.3528,24.0335,19.3012
1046.8750,9.1058,13.4124,13.9100,10.6400,8.0854,8.1904,8.0677,2.9279,18.6391,13.1960,18.5381,21.3473,14.7578,0.1413,11.8653,5.2652,2.3582,21.8340,18.0362
1050.7812,6.4914,10.2551,11.6861,10.5274,7.9521,8.6332,7.9298,3.8191,15.1104,10.5173,15.8932,19.5977,13.1252,-0.0375,11.9016,4.1125,2.0401,19.0198,16.5889
1054.6875,4.3002,7.6835,9.7604,11.4528,8.9941,9.3015,7.3811,5.5338,11.7544,8.2958,12.5772,17.0431,11.9885,1.5032,10.1080,3.1357,1.7260,16.6378,16.0012
1058.5938,2.5737,5.6744,8.2851,13.4861,11.3840,9.1364,6.0437,8.0240,8.7263,6.6324,8.8643,13.8733,11.5957,5.1585,6.6180,2.0297,1.6094,15.0167,16.5934
1062.5000,0.7861,3.7489,6.8996,15.9069,14.4624,7.1307,3.8056,10.6979,5.6821,5.0187,4.7869,10.1464,11.4364,10.2906,2.1237,0.2621,1.6623,13.5689,17.7265
1066.4062,-1.7607,1.2178,5.0790,17.5985,17.1170,2.9847,0.9048,12.6854,2.0948,2.7317,0.3091,5.8737,10.6107,15.5766,-2.4292,-2.5044,1.7016,11.2029,18.1737
1070.3125,-5.4021,-2.4512,2.5312,17.5858,18.3526,-2.5960,-2.2102,13.2151,-2.3180,-0.6480,-4.4413,1.1296,8.4558,19.6876,-6.2498,-6.1304,1.5293,7.0693,16.8424
1074.2188,-9.7891,-7.3059,-0.6406,15.4019,17.7212,-8.1836,-5.1132,11.9202,-7.3268,-4.9210,-9.0704,-3.8842,4.9936,21.8826,-8.9964,-10.0367,1.0323,1.1590,13.3829
1078.1250,-13.9873,-12.7729,-4.0667,11.1612,15.4171,-12.3284,-7.5536,8.9661,-12.2383,-9.3301,-13.0260,-8.8323,0.9185,22.2029,-10.8108,-13.5037,0.1956,-5.6095,8.3303
1082.0312,-16.9324,-17.7945,-7.3590,5.4367,12.0713,-14.2368,-9.4376,4.9918,-16.2112,-12.9233,-15.8358,-13.2743,-2.8171,21.2425,-12.0949,-16.0120,-0.9351,-11.8330,2.7634
1085.9375,-17.9625,-21.2091,-10.2499,-0.8999,8.4346,-14.0220,-10.6978,0.9092,-18.6341,-14.9848,-17.3086,-16.7164,-5.4988,19.7197,-13.1811,-17.4101,-2.2644,-16.2941,-2.2372
1089.8438,-17.1218,-22.2288,-12.5437,-6.8126,5.1380,-12.4338,-11.1984,-2.3816,-19.3528,-15.3058,-17.5703,-18.7013,-6.9033,18.1408,-14.0969,-17.8496,-3.6090,-18.4546,-5.9790
1093.7500,-15.0885,-20.8044,-14.0001,-11.2773,2.5961,-10.3286,-10.7879,-4.2941,-18.6515,-14.2008,-16.9360,-18.9509,-7.2066,16.7047,-14.5603,-17.5982,-4.6698,-18.5357,-8.2238
1097.6562,-12.8038,-17.6936,-14.3424,-13.5695,0.9957,-8.2700,-9.4785,-4.7817,-17.0528,-12.3229,-15.7329,-17.5251,-6.7117,15.3955,-14.2005,-16.9001,-5.1044,-17.2332,-9.0234
1101.5625,-11.0277,-14.1644,-13.4528,-13.5931,0.2875,-6.4891,-7.6064,-4.3786,-15.0829,-10.3952,-14.2005,-14.9042,-5.6573,14.0998,-12.8580,-15.9595,-4.7227,-15.3144,-8.5540
1105.4688,-10.0420,-11.4411,-11.6101,-12.0313,0.1648,-5.1105,-5.8116,-3.9836,-13.1216,-8.9582,-12.5064,-11.8975,-4.2424,12.6389,-10.7713,-14.9883,-3.7056,-13.3379,-7.0968
1109.3750,-9.6087,-10.1415,-9.5245,-10.1139,0.0992,-4.3476,-4.7862,-4.4355,-11.3608,-8.1875,-10.8077,-9.3620,-2.7797,10.7399,-8.5184,-14.1949,-2.6714,-11.5794,-5.1171
1113.2812,-9.1507,-9.9835,-8.0408,-9.0189,-0.4969,-4.4311,-4.9058,-6.0661,-9.8223,-7.8212,-9.2563,-7.8370,-1.7619,8.0594,-6.7322,-13.6610,-2.4707,-10.0814,-3.2574
1117.1875,-8.0405,-9.9299,-7.6433,-9.2094,-1.9974,-5.3053,-5.9654,-8.4805,-8.3790,-7.2418,-7.9100,-7.2860,-1.7008,4.3354,-5.7458,-13.1923,-3.7597,-8.7050,-2.1247
1121.0938,-5.8746,-8.7234,-8.0885,-10.1289,-4.3136,-6.3765,-7.2075,-10.7185,-6.7834,-5.7349,-6.6236,-7.1035,-2.8062,-0.3880,-5.3812,-12.3042,-6.5760,-7.1431,-1.9479
1125.0000,-2.6476,-5.5614,-8.4578,-10.4999,-6.8364,-6.6128,-7.6685,-11.7447,-4.7419,-2.8600,-5.0456,-6.4149,-4.7414,-5.6196,-5.0183,-10.4345,-10.1840,-4.9679,-2.3535
1128.9062,1.2174,-0.5713,-7.6517,-9.0907,-8.6523,-5.0461,-6.6767,-11.0034,-2.0592,1.2313,-2.7859,-4.5249,-6.6701,-10.5033,-3.9252,-7.3006,-13.3260,-1.7938,-2.4804
1132.8125,4.9868,5.1617,-5.0427,-5.4930,-8.9542,-1.4069,-4.2291,-8.7210,1.1983,5.7297,0.3077,-1.2870,-7.6211,-14.1245,-1.6753,-3.1781,-14.7722,2.4611,-1.4378
1136.7188,7.8533,10.0382,-0.8780,-0.4259,-7.4399,3.5389,-1.0276,-5.7785,4.6259,9.4509,3.9390,2.7969,-6.9649,-15.8889,1.5790,1.1124,-13.8828,7.3650,1.1495
1140.6250,9.2154,12.6432,3.8179,4.6195,-4.4887,8.2263,1.8607,-3.2380,7.5779,11.3667,7.3825,6.7862,-4.7164,-15.7594,5.1320,4.5460,-10.8758,11.9953,4.8546
1144.5312,8.8954,12.3552,7.7642,8.1558,-1.0237,11.0198,3.5360,-1.8106,9.4243,11.1087,9.7642,9.7049,-1.4890,-14.2203,8.0366,6.3774,-6.6732,15.2563,8.6203
1148.4375,7.1968,9.5739,10.0282,9.4063,1.8625,11.0277,3.6943,-1.5755,9.8348,9.1551,10.4689,10.9302,1.8475,-11.9973,9.5397,6.4763,-2.4359,16.3586,11.2898
1152.3438,4.7697,5.4750,10.3544,8.5412,3.3307,8.5224,2.7101,-2.0817,8.9229,6.5813,9.4429,10.3941,4.5774,-9.6970,9.4112,5.3174,0.9398,15.1906,12.1678
1156.2500,2.3395,1.4412,9.0813,6.3781,3.0804,4.7285,1.3322,-2.7158,7.1530,4.5099,7.2123,8.5306,6.3842,-7.5592,8.0054,3.6517,3.1077,12.3557,11.2835
1160.1562,0.4275,-1.5347,6.7946,3.8252,1.3990,1.1223,0.1864,-3.0744,5.0649,3.5693,4.6022,6.0281,7.3346,-5.4317,6.0419,2.0865,4.2390,8.8462,9.2382
1164.0625,-0.8100,-3.1887,4.0039,1.4544,-1.0061,-1.3291,-0.6034,-3.1155,2.9855,3.6526,2.3155,3.5217,7.6787,-2.9556,4.2298,0.8373,4.7636,5.5458,6.7934
1167.9688,-1.5593,-3.9361,1.0429,-0.5838,-3.3005,-2.5508,-1.4334,-3.0489,0.9037,4.0700,0.6065,1.3608,7.6284,0.1539,2.9325,-0.2255,5.0693,2.8488,4.4821
1171.8750,-2.1820,-4.5065,-1.8289,-2.3693,-4.8250,-3.1834,-2.8678,-3.1049,-1.4259,3.9639,-0.7801,-0.4639,7.2360,3.8672,2.0300,-1.3195,5.3199,0.5956,2.4566
1175.7812,-3.0024,-5.4879,-4.3088,-3.9905,-5.3164,-4.0127,-5.1485,-3.3813,-4.2325,2.7321,-2.3892,-2.2252,6.3966,7.7516,1.0366,-2.4936,5.4377,-1.6887,0.5815
1179.6875,-4.1572,-7.0187,-6.0897,-5.4807,-4.9789,-5.3917,-7.9085,-3.8673,-7.5043,0.2581,-4.6939,-4.2557,4.9261,11.0743,-0.5914,-3.5523,5.2032,-4.4353,-1.3681
1183.5938,-5.5637,-8.7672,-7.0515,-6.9081,-4.3829,-7.0145,-10.3051,-4.5839,-10.9268,-3.1016,-7.7908,-6.7307,2.6625,13.0635,-3.1041,-4.1866,4.3891,-7.7772,-3.5615
1187.5000,-6.9912,-10.1694,-7.4348,-8.4561,-4.2137,-8.1583,-11.5194,-5.6849,-14.0047,-6.6882,-11.3016,-9.5361,-0.4316,13.2279,-6.2324,-4.1929,2.8747,-11.5100,-6.0626
1191.4062,-8.1785,-10.7703,-7.8032,-10.3458,-4.9576,-8.2118,-11.3049,-7.3992,-16.2728,-9.7513,-14.5124,-12.2780,-4.1728,11.5934,-9.2064,-3.6126,0.7230,-15.2232,-8.8202
1195.3125,-8.9350,-10.4736,-8.7525,-12.6208,-6.6586,-7.1386,-10.2118,-9.8350,-17.4597,-11.6314,-16.6614,-14.4288,-8.1070,8.7340,-11.0328,-2.7053,-1.7861,-18.4717,-11.6315
1199.2188,-9.1891,-9.5785,-10.5341,-14.9739,-8.8694,-5.5753,-9.3041,-12.7891,-17.5305,-11.9110,-17.2312,-15.5418,-11.5690,5.5554,-10.9249,-1.7873,-4.1912,-20.8831,-14.1030
1203.1250,-8.9802,-8.6071,-12.8496,-16.8022,-10.8406,-4.4926,-9.5177,-15.7247,-16.6245,-10.5382,-16.1242,-15.4324,-13.8885,2.9162,-8.6895,-1.0556,-5.9766,-22.1908,-15.7019
1207.0312,-8.4130,-8.0376,-14.9792,-17.5129,-11.8703,-4.6195,-11.0584,-17.9672,-14.9675,-7.8846,-13.6666,-14.2424,-14.6799,1.2691,-4.8731,-0.5054,-6.7734,-22.2526,-15.9596
1210.9375,-7.5999,-8.0884,-16.1789,-16.8966,-11.6446,-5.9735,-13.2333,-19.0216,-12.8236,-4.6716,-10.4655,-12.3615,-14.0617,0.5091,-0.5698,0.0228,-6.5545,-21.1007,-14.7553
1214.8438,-6.6149,-8.6503,-16.0951,-15.3055,-10.3935,-7.7829,-14.8382,-18.8188,-10.4851,-1.7396,-7.1915,-10.2494,-12.6383,0.1065,3.0371,0.7133,-5.7023,-18.9957,-12.4880
1218.7500,-5.4734,-9.3660,-14.9327,-13.4929,-8.7816,-8.8545,-14.8653,-17.7411,-8.2506,0.2718,-4.3697,-8.2456,-11.2046,-0.5596,5.1836,1.6471,-4.8710,-16.4061,-9.9655
1222.6562,-4.1456,-9.7804,-13.2812,-12.2013,-7.5938,-8.1871,-13.0859,-16.4077,-6.3477,1.1812,-2.2392,-6.4515,-10.3095,-1.8614,5.8280,2.7436,-4.6751,-13.8588,-8.0119
1226.5625,-2.5937,-9.4768,-11.7259,-11.7604,-7.3789,-5.4906,-10.1478,-15.3488,-4.8205,1.3177,-0.7133,-4.7286,-9.9374,-3.7619,5.5989,3.7964,-5.3536,-11.7043,-7.0116
1230.4688,-0.8145,-8.1613,-10.5057,-11.9450,-8.2258,-1.3347,-7.1507,-14.7581,-3.4601,1.3347,0.5560,-2.8049,-9.5160,-5.8906,5.4297,4.5797,-6.5997,-9.9322,-6.6881
1234.3750,1.1314,-5.7157,-9.4249,-12.1617,-9.7689,3.1310,-4.9959,-14.4567,-1.8637,1.8850,2.0269,-0.4389,-8.2649,-7.7648,6.0823,4.9737,-7.6728,-8.1737,-6.2864
1238.2812,3.1192,-2.2555,-8.0512,-11.8212,-11.3935,6.7107,-3.9348,-14.0708,0.3654,3.3343,4.0683,2.4243,-5.6811,-8.9989,7.8072,5.0462,-7.7524,-5.9272,-5.0585
1242.1875,4.9809,1.8079,-6.0494,-10.6555,-12.5298,8.6543,-3.5750,-13.3033,3.3616,5.6448,6.7711,5.5687,-1.8658,-9.3906,10.2827,5.0461,-6.3520,-2.8952,-2.7424
1246.0938,6.5374,5.7677,-3.4382,-8.8109,-12.8952,8.8753,-3.2805,-12.1358,6.8313,8.4505,9.8465,8.5356,2.4967,-8.8906,12.8150,5.2977,-3.5681,0.7662,0.2734
1250.0000,7.6253,8.7584,-0.6306,-6.7185,-12.5893,7.8405,-2.6525,-10.8499,10.0940,11.2355,12.6722,10.7687,6.4783,-7.5439,14.6568,6.0435,-0.0314,4.4435,3.1878
1253.9062,8.1177,10.0436,1.7384,-4.8728,-12.0165,6.2542,-1.7621,-9.8684,12.3370,13.5041,14.5006,11.8315,9.3401,-5.4773,15.2872,7.3145,3.4073,7.3251,5.2426
1257.8125,7.9437,9.3509,3.0815,-3.6646,-11.6812,4.7345,-1.0231,-9.5190,12.9695,14.8848,14.7655,11.6069,10.8021,-2.9292,14.5638,8.9060,6.0768,8.7792,6.0822
1261.7188,7.1138,7.0678,3.0813,-3.3244,-11.9434,3.6243,-0.8549,-9.8592,11.8936,15.1770,13.3557,10.3745,11.0285,-0.2495,12.7451,10.4755,7.7542,8.6381,5.8035
1265.6250,5.7427,4.1457,1.7798,-3.9352,-12.8393,2.9677,-1.4083,-10.6624,9.5503,14.3818,10.7109,8.7043,10.3933,2.1875,10.4121,11.7036,8.6683,7.2354,4.7298
1269.5312,4.0538,1.7011,-0.4767,-5.4436,-14.0489,2.5955,-2.5341,-11.5657,6.7125,12.7200,7.6658,7.1911,9.2131,4.1291,8.3089,12.4153,9.2583,5.1899,3.1289
1273.4375,2.3455,0.4958,-3.1901,-7.6475,-15.0353,2.2453,-3.9600,-12.2916,4.1347,10.6036,5.0936,6.1540,7.6092,5.5425,7.1100,12.5903,9.8394,3.0750,1.1007
1277.3438,0.9162,0.5737,-5.8905,-10.2000,-15.3033,1.6716,-5.4891,-12.8073,2.2353,8.5252,3.5192,5.4640,5.5405,6.5737,7.1588,12.2732,10.3732,1.1640,-1.3190
1281.2500,-0.0287,1.2731,-8.2774,-12.6778,-14.6531,0.7317,-7.0528,-13.3247,0.9704,6.8819,2.9024,4.6125,2.9362,7.3781,8.2812,11.4745,10.4721,-0.6153,-3.9800
1285.1562,-0.4461,1.6221,-10.2676,-14.7114,-13.2947,-0.5659,-8.6058,-14.1321,-0.0537,5.8218,2.7111,3.0036,-0.1783,7.9475,9.7997,10.1524,9.6385,-2.5138,-6.5618
1289.0625,-0.4619,0.9035,-11.9260,-16.1054,-11.7492,-2.0737,-10.0003,-15.3546,-1.3017,5.2053,2.2427,0.3227,-3.6209,8.0809,10.7983,8.2987,7.6074,-4.6963,-8.7115
1292.9688,-0.3007,-0.9343,-13.3135,-16.8687,-10.5838,-3.5812,-10.9885,-16.7911,-3.0182,4.7181,1.0145,-3.2250,-7.0581,7.5403,10.5410,6.0507,4.6030,-7.0441,-10.2624
1296.8750,-0.1651,-3.2497,-14.3357,-17.1324,-10.1268,-4.9130,-11.3721,-17.9441,-5.0733,4.0687,-0.9938,-6.9462,-10.0507,6.2796,8.8281,3.7210,1.3529,-9.1393,-11.3378
1300.7812,-0.1221,-5.0695,-14.7030,-17.0189,-10.3298,-5.9715,-11.1671,-18.2505,-7.0125,3.1489,-3.3618,-9.9506,-12.1376,4.5558,6.0850,1.6974,-1.1763,-10.4450,-12.2289
1304.6875,-0.0608,-5.6206,-14.0571,-16.5610,-10.8538,-6.6767,-10.6167,-17.3962,-8.2710,2.0626,-5.4718,-11.5436,-12.9653,2.8061,3.1321,0.2739,-2.2151,-10.5809,-13.1314
1308.5938,0.2454,-4.7228,-12.2120,-15.7252,-11.3120,-6.8448,-10.0076,-15.5308,-8.4328,1.0234,-6.8036,-11.5059,-12.4437,1.3576,0.7862,-0.4604,-1.5874,-9.5388,-13.9450
1312.5000,0.9974,-2.8348,-9.3568,-14.5014,-11.4953,-6.1351,-9.4218,-13.2351,-7.4014,0.2118,-7.1045,-10.1168,-10.8464,0.1857,-0.4593,-0.5846,0.1447,-7.7093,-14.3010
1316.4062,2.2237,-0.7507,-6.0606,-12.9601,-11.4245,-4.1788,-8.6351,-11.2319,-5.4086,-0.3010,-6.3686,-7.9332,-8.7562,-1.0704,-0.5036,-0.1969,1.8910,-5.6891,-13.7974
1320.3125,3.7229,0.8558,-3.0276,-11.2060,-11.1974,-0.8733,-7.2756,-9.9821,-2.8746,-0.5226,-4.6973,-5.4718,-6.8224,-2.8039,0.5145,0.7104,2.5217,-3.9617,-12.2561
1324.2188,5.1447,1.7820,-0.7244,-9.2523,-10.7569,3.3469,-5.1440,-9.3975,-0.2091,-0.4508,-2.1860,-2.9839,-5.4233,-5.0422,2.4042,2.2225,1.4048,-2.6257,-9.8006
1328.1250,6.1814,2.3602,0.8906,-6.9264,-9.7766,7.5116,-2.4527,-8.8518,2.3414,-0.0179,1.0663,-0.4382,-4.4331,-7.2449,4.9658,4.3179,-1.2775,-1.3348,-6.7059
1332.0312,6.7632,3.2260,2.3373,-3.9203,-7.7860,10.4978,0.2261,-7.5115,4.7311,0.8739,4.8476,2.3151,-3.2625,-8.4762,7.8732,6.6746,-4.6016,0.5008,-3.1608
1335.9375,7.1316,4.9333,4.2742,-0.0009,-4.4849,11.6286,2.2961,-4.8201,7.0406,2.2557,8.7482,5.3347,-1.1883,-7.8796,10.5667,8.6601,-7.3213,3.3488,0.8429
1339.8438,7.7265,7.6199,7.0449,4.7342,-0.0442,11.1063,3.5262,-0.8675,9.3528,4.0137,12.2189,8.4839,2.2082,-5.1670,12.3516,9.5868,-8.4081,7.2306,5.3906
1343.7500,8.9301,10.8851,10.4013,9.7324,4.8251,9.9364,4.1998,3.5706,11.6528,5.8999,14.7824,11.4946,6.7638,-0.8138,12.7386,9.1127,-7.4295,11.6304,10.3897
1347.6562,10.8102,13.9271,13.5874,14.1090,9.1153,9.3065,4.8932,7.3603,13.7998,7.6248,16.2712,14.1353,11.7869,4.1587,11.8145,7.5312,-4.5912,15.6958,15.3968
1351.5625,13.0116,15.8651,15.7378,16.9848,11.9511,9.7822,6.0235,9.5312,15.5637,8.9595,16.9154,16.3414,16.3953,8.6672,10.3326,5.7273,-0.4823,18.6129,19.6884
1355.4688,14.8678,16.0940,16.3356,17.8593,12.9517,10.8622,7.4843,9.7108,16.6884,9.7677,17.1816,18.1911,19.9014,12.0082,9.3554,4.7782,4.2699,19.9344,22.5468
1359.3750,15.6704,14.5116,15.4395,16.8111,12.3118,11.2442,8.6385,8.2391,16.9444,9.9508,17.4313,19.7272,21.9954,14.0128,9.6014,5.4084,9.2030,19.6723,23.5615
1363.2812,14.9491,11.5214,13.5531,14.4089,10.5736,9.6761,8.6892,5.9184,16.1588,9.3695,17.6117,20.7503,22.6482,14.8776,10.9107,7.6082,13.9874,18.1287,22.7405
1367.1875,12.6182,7.8211,11.2488,11.3930,8.2625,5.8390,7.1859,3.5592,14.2419,7.8361,17.1985,20.7576,21.8750,14.8576,12.2257,10.6244,18.2535,15.6082,20.3767
1371.0938,8.9428,4.0896,8.8126,8.3132,5.6365,0.6440,4.3288,1.5874,11.2250,5.2202,15.4677,19.1253,19.6042,14.0654,12.1672,13.3114,21.4831,12.2253,16.8105
1375.0000,4.3896,0.7285,6.1413,5.3287,2.7042,-4.2922,0.8765,-0.0747,7.3023,1.6140,11.9593,15.4666,15.7888,12.5044,9.8774,14.6271,23.1058,7.9377,12.2882
1378.9062,-0.5246,-2.2159,2.9296,2.2637,-0.5418,-7.6572,-2.2698,-1.8172,2.8355,-2.5614,6.8531,9.9576,10.6713,10.2649,5.5881,14.0154,22.7662,2.7612,7.0164
1382.8125,-5.3106,-4.9330,-1.0115,-1.1377,-3.8782,-9.2434,-4.5320,-3.9896,-1.7140,-6.6167,1.0047,3.4043,4.9522,7.6871,0.5301,11.5271,20.5692,-3.0145,1.3226
1386.7188,-9.5234,-7.6192,-5.5302,-4.9255,-6.8007,-9.9733,-5.8843,-6.6136,-5.9186,-9.8267,-4.4129,-3.0363,-0.3479,5.3314,-3.7738,7.6957,17.1020,-8.7910,-4.2605
1390.6250,-12.7823,-10.2864,-10.1358,-8.7967,-8.7219,-11.1254,-6.7396,-9.3279,-9.5199,-11.7277,-8.4680,-8.3510,-4.3097,3.7538,-6.3764,3.2963,13.1840,-13.8490,-9.1018
1394.5312,-14.8375,-12.7135,-14.1844,-12.1638,-9.2775,-13.3085,-7.6048,-11.5742,-12.4713,-12.3131,-10.8963,-12.0942,-6.5610,3.2391,-7.3721,-0.8920,9.4958,-17.6331,-12.7032
1398.4375,-15.6512,-14.5469,-17.0965,-14.3905,-8.5184,-15.9171,-8.7362,-12.8877,-14.8370,-12.0078,-12.1255,-14.4756,-7.4242,3.6780,-7.6744,-4.2686,6.3361,-19.9325,-14.8635
1402.3438,-15.4114,-15.4602,-18.4784,-15.0614,-6.8456,-17.4665,-9.9864,-13.1074,-16.5877,-11.4231,-12.8749,-16.0515,-7.6372,4.6698,-8.2801,-6.5358,3.6574,-20.8379,-15.6272
1406.2500,-14.4204,-15.2659,-18.1325,-14.1448,-4.7388,-16.5807,-10.8872,-12.3961,-17.4289,-11.0188,-13.5781,-17.2210,-7.8175,5.7701,-9.5308,-7.7604,1.3251,-20.5262,-15.0622
1410.1562,-12.9012,-13.9246,-16.0419,-11.9775,-2.4814,-12.9450,-10.8852,-11.0867,-16.8073,-10.8577,-14.0061,-17.8689,-8.0409,6.7129,-10.8665,-8.3306,-0.6322,-19.0542,-13.0746
1414.0625,-10.8487,-11.4899,-12.4057,-9.0934,-0.0829,-7.5670,-9.5952,-9.4756,-14.1545,-10.5821,-13.3591,-17.4140,-7.8305,7.4646,-11.2163,-8.7744,-1.9957,-16.3313,-9.4665
1417.9688,-8.0512,-8.0706,-7.7082,-5.9939,2.5534,-2.1807,-6.9724,-7.6942,-9.2699,-9.6260,-10.8015,-15.2513,-6.5630,8.1061,-9.7464,-9.4809,-2.5805,-12.2941,-4.2432
1421.8750,-4.2971,-3.8608,-2.7155,-2.9762,5.3630,1.7772,-3.3622,-5.7178,-2.6222,-7.5480,-6.1211,-11.2970,-3.9951,8.6593,-6.4629,-10.4605,-2.5165,-7.1427,2.0607
1425.7812,0.3585,0.7930,1.6958,-0.0948,7.9806,3.9177,0.5739,-3.4792,4.6439,-4.3086,-0.0876,-6.2550,-0.5278,9.0039,-2.2864,-11.3063,-2.3200,-1.4367,8.3411
1429.6875,5.4555,5.3712,4.8514,2.7397,9.8608,4.9075,4.0430,-0.9927,11.0628,-0.3531,5.7550,-1.3881,2.9827,8.9479,1.4283,-11.4227,-2.6383,4.0477,13.3007
1433.5938,10.2376,9.2759,6.5741,5.5958,10.5913,5.8070,6.3781,1.5879,15.4188,3.5390,9.7849,2.0984,5.7281,8.3869,3.6029,-10.4159,-3.8123,8.6232,16.0608
1437.5000,13.9604,12.0222,7.2627,8.3911,10.1709,7.2610,7.2883,4.0004,17.2394,6.5600,11.1057,3.6910,7.4041,7.4179,3.9442,-8.4068,-5.5748,11.9629,16.6185
1441.4062,16.2148,13.4293,7.6757,10.8740,9.0387,9.1155,6.9883,5.9595,16.9447,8.1930,9.9959,3.8286,8.3073,6.3081,2.9786,-6.0424,-7.1383,14.1657,15.8225
1445.3125,17.0699,13.6956,8.5251,12.7266,7.8130,10.6723,6.1178,7.2439,15.5751,8.4048,7.7468,3.6339,9.0355,5.3375,1.6611,-4.1552,-7.6498,15.5951,14.8570
1449.2188,16.9630,13.3115,10.1172,13.7247,6.9153,11.3196,5.4556,7.7499,14.2586,7.6468,5.9936,4.2920,10.0406,4.6339,0.8476,-3.2512,-6.7133,16.6270,14.5581
1453.1250,16.4303,12.8600,12.2464,13.8526,6.3458,11.0336,5.5521,7.5072,13.7203,6.6763,5.9277,6.4555,11.3715,4.1336,0.9514,-3.1364,-4.6084,17.4820,15.0071
1457.0312,15.8591,12.8089,14.3779,13.3006,5.7700,10.3940,6.4671,6.6662,14.0847,6.2762,7.8176,10.0057,12.7695,3.7084,1.9306,-2.9364,-2.0427,18.2242,15.6452
1460.9375,15.3931,13.3787,15.9704,12.3482,4.8523,10.1384,7.7493,5.4640,15.0185,6.9709,11.0433,14.2407,13.9943,3.3691,3.5162,-1.5368,0.3836,18.8600,15.7859
1464.8438,14.9898,14.5012,16.7167,11.2082,3.5868,10.6127,8.6622,4.1653,16.0510,8.8223,14.5290,18.2891,15.0792,3.3823,5.4518,1.7744,2.6002,19.4002,15.1331
1468.7500,14.5222,15.8340,16.5665,9.9365,2.3745,11.5095,8.5244,2.9832,16.8205,11.3677,17.2514,21.4519,16.2869,4.1856,7.5588,6.8120,5.0521,19.8032,13.9397
1472.6562,13.8174,16.8059,15.5727,8.4612,1.7813,12.0421,6.9885,2.0029,17.1023,13.7271,18.5340,23.2947,17.7921,6.1240,9.6106,12.4217,8.2447,19.8533,12.7244
1476.5625,12.6253,16.7131,13.7209,6.7026,2.1432,11.3921,4.1462,1.1479,16.6632,14.8711,18.0509,23.5382,19.3526,9.1663,11.1694,16.8870,12.1849,19.1168,11.7982
1480.4688,10.6063,14.9066,10.8966,4.6869,3.3025,9.1196,0.4602,0.2177,15.1392,13.9813,15.6886,21.9478,20.2619,12.7951,11.5796,18.6228,16.1472,17.0796,10.9747
1484.3750,7.4322,11.0625,7.0154,2.5640,4.6663,5.3134,-3.3978,-1.0052,12.1099,10.7823,11.4788,18.3836,19.6714,16.1679,10.2014,16.8310,18.9730,13.4264,9.6816
1488.2812,2.9957,5.4267,2.2099,0.5104,5.5492,0.4831,-6.7253,-2.6269,7.3769,5.6944,5.6922,12.9987,17.0922,18.4716,6.7763,11.8221,19.7241,8.2896,7.3784
1492.1875,-2.3992,-1.1244,-3.0800,-1.4067,5.5622,-4.6544,-8.9538,-4.5553,1.2643,-0.2884,-1.0133,6.4078,12.7363,19.2686,1.6884,4.8787,18.2505,2.2887,3.9640
1496.0938,-8.0287,-7.3198,-8.1878,-3.2899,4.7851,-9.3450,-9.8036,-6.5020,-5.3068,-5.9771,-7.5957,-0.3655,7.4602,18.6320,-4.0814,-2.2525,15.2794,-3.6828,-0.1158
1500.0000,-12.9865,-11.9682,-12.4271,-5.3289,3.6244,-12.8972,-9.4011,-8.0733,-11.0883,-10.4565,-12.8998,-6.2067,2.3398,17.0056,-9.3320,-8.0002,11.9642,-8.7945,-4.1144
1503.9062,-16.5633,-14.4496,-15.2980,-7.6113,2.4830,-14.7801,-8.2832,-8.9067,-15.0135,-13.4095,-16.1012,-10.3354,-1.8453,14.8980,-13.1529,-11.4728,9.1984,-12.5325,-7.3801
1507.8125,-18.5476,-14.9454,-16.5889,-9.9525,1.4968,-14.7635,-7.2133,-8.7935,-16.6561,-15.1214,-17.0626,-12.5865,-4.8988,12.6180,-15.2688,-12.6443,7.1489,-14.7371,-9.6152
1511.7188,-19.2606,-14.2590,-16.3520,-11.8749,0.5243,-13.0418,-6.8267,-7.7397,-16.3656,-16.1630,-16.3577,-13.3791,-7.1183,10.2093,-16.0132,-12.1980,5.2931,-15.4671,-10.8511
1515.6250,-19.2998,-13.3171,-14.8142,-12.7777,-0.6254,-10.2179,-7.2617,-5.9536,-14.9956,-16.9522,-14.9225,-13.4045,-8.9372,7.5925,-15.9641,-11.1432,2.8925,-14.8505,-11.2201
1519.5312,-19.1573,-12.6457,-12.2950,-12.2157,-1.9208,-7.0869,-8.0094,-3.7745,-13.4000,-17.4716,-13.5386,-13.2349,-10.5657,4.7779,-15.4981,-10.3891,-0.4426,-13.0618,-10.7494
1523.4375,-18.9533,-12.1368,-9.1624,-10.1277,-3.0166,-4.3051,-8.1337,-1.5748,-12.0081,-17.3288,-12.4692,-13.0840,-11.8562,1.9775,-14.5780,-10.4397,-4.4654,-10.4177,-9.3466
1527.3438,-18.4467,-11.2398,-5.8050,-6.8825,-3.4233,-2.1447,-6.7967,0.3337,-10.7276,-16.1148,-11.4620,-12.8275,-12.4375,-0.4587,-12.9152,-11.2867,-8.4257,-7.4479,-6.9680
1531.2500,-17.2967,-9.4433,-2.5863,-3.1224,-2.8213,-0.4953,-3.8045,1.7671,-9.1978,-13.8130,-10.0867,-12.2155,-11.9778,-2.2170,-10.3777,-12.4910,-11.4766,-4.7920,-3.7985
1535.1562,-15.3882,-6.7275,0.2187,0.4976,-1.2898,0.9022,0.1706,2.6931,-7.1887,-10.9597,-8.1549,-11.1071,-10.3808,-3.1562,-7.3219,-13.3861,-13.0638,-2.9214,-0.2696
1539.0625,-13.0016,-3.6899,2.4711,3.5276,0.7143,2.1731,3.8688,3.2090,-4.8618,-8.4253,-5.9326,-9.5767,-7.8091,-3.3030,-4.5683,-13.3331,-13.0782,-1.8602,3.1193
1542.9688,-10.7182,-1.2608,4.1634,5.7933,2.6149,3.1944,6.0906,3.4807,-2.7181,-6.9395,-4.0129,-7.8572,-4.5667,-2.7307,-2.9970,-11.9670,-11.7580,-1.1347,6.0438
1546.8750,-9.1249,-0.1844,5.3645,7.3235,4.0316,3.7202,6.3359,3.6665,-1.2831,-6.6761,-2.9506,-6.1893,-0.9614,-1.4464,-3.0214,-9.3737,-9.4889,-0.0406,8.4777
1550.7812,-8.5032,-0.5883,6.1539,8.2172,4.9401,3.6193,5.0451,3.8507,-0.7508,-7.1756,-2.9101,-4.6860,2.7588,0.5944,-4.3088,-6.1279,-6.6659,1.9148,10.6070
1554.6875,-8.6909,-1.9010,6.5906,8.5497,5.5827,3.0085,3.2914,4.0123,-0.8331,-7.6611,-3.5487,-3.2778,6.3842,3.3435,-5.9565,-3.1316,-3.6668,4.6907,12.6069
1558.5938,-9.1889,-3.1613,6.7225,8.3613,6.2138,2.1614,2.1186,4.0344,-0.9143,-7.5310,-4.1916,-1.7455,9.7008,6.5103,-7.0117,-1.2612,-0.8660,7.7422,14.4572
1562.5000,-9.4439,-3.5320,6.6054,7.7008,6.8709,1.2765,1.9347,3.7503,-0.4149,-6.6954,-4.1703,0.1901,12.4888,9.5632,-6.9846,-0.9452,1.4023,10.3848,15.9263
1566.4062,-9.1386,-2.7200,6.2904,6.6647,7.3352,0.3172,2.3270,3.0141,0.8629,-5.5375,-3.1226,2.7540,14.5735,11.9336,-6.0083,-1.8845,2.9518,12.2256,16.7228
1570.3125,-8.3283,-1.0812,5.7797,5.3954,7.3009,-0.9164,2.3875,1.7767,2.6135,-4.5556,-1.1080,6.0008,15.8863,13.3127,-4.5692,-3.1100,3.8396,13.3389,16.6880
1574.2188,-7.3582,0.6211,4.9951,4.0480,6.6278,-2.5338,1.3183,0.1462,4.1939,-3.9631,1.4765,9.7258,16.4864,13.8354,-3.0443,-3.4133,4.3577,14.0576,15.8897
1578.1250,-6.6210,1.6404,3.8071,2.7622,5.4997,-4.3420,-1.0665,-1.6004,4.9708,-3.5482,4.0914,13.4515,16.5322,14.0048,-1.4194,-1.9662,4.8970,14.5509,14.5684
1582.0312,-6.3037,1.6053,2.1288,1.6611,4.3764,-5.8901,-4.2357,-3.0812,4.6486,-2.8884,6.2442,16.5304,16.2273,14.3818,0.5942,1.2104,5.7650,14.5434,13.0033
1585.9375,-6.2764,0.6317,0.0181,0.8618,3.7649,-6.7783,-7.2578,-3.9514,3.4010,-1.7481,7.6059,18.3541,15.7705,15.2365,3.1485,5.2148,7.0712,13.4362,11.4085
1589.8438,-6.1914,-0.8398,-2.2938,0.4604,3.9471,-6.9999,-9.3140,-4.0747,1.7511,-0.3414,8.0483,18.5886,15.3152,16.3893,5.9028,8.7166,8.7334,10.7824,9.9204
1593.7500,-5.7351,-2.3491,-4.4826,0.4799,4.8215,-7.0175,-10.0939,-3.6340,0.2770,0.7544,7.6238,17.3111,14.9266,17.3458,8.0452,10.6424,10.5618,6.7732,8.6445
1597.6562,-4.8761,-3.6722,-6.2744,0.8106,5.9481,-7.4588,-9.8743,-3.0932,-0.6922,0.9892,6.5140,14.9622,14.5375,17.6266,8.7284,10.6894,12.3296,2.3401,7.6814
1601.5625,-3.9434,-4.8837,-7.5583,1.2016,6.7668,-8.6174,-9.2875,-2.9915,-1.2342,0.2537,4.9531,12.1279,13.9390,17.0680,7.6262,9.3684,13.7815,-1.2726,7.0869
1605.4688,-3.4647,-6.2138,-8.3916,1.3410,6.8703,-10.1297,-8.9581,-3.6562,-1.7683,-0.9944,3.1427,9.2708,12.8508,15.9015,5.1976,7.5739,14.6159,-3.2239,6.7974
1609.3750,-3.8425,-7.8071,-8.9064,0.9958,6.1893,-11.1064,-9.2133,-4.9946,-2.8040,-2.0010,1.1862,6.5633,11.0742,14.5814,2.4323,5.9820,14.5233,-3.6061,6.6056
1613.2812,-5.0594,-9.5434,-9.1966,0.1346,4.9998,-10.6730,-9.9858,-6.5059,-4.6326,-2.2053,-0.9223,3.9071,8.6532,13.4997,0.2210,4.6676,13.3121,-3.4035,6.2357
1617.1875,-6.6074,-11.0299,-9.2733,-1.0499,3.7541,-8.5635,-10.8976,-7.5314,-7.1193,-1.6118,-3.2416,1.1007,5.9294,12.7810,-1.2278,3.1616,11.0528,-3.8720,5.4899
1621.0938,-7.7103,-11.7663,-9.1104,-2.2366,2.8328,-5.3491,-11.4351,-7.6073,-9.7066,-0.7838,-5.7874,-1.9719,3.4127,12.2718,-2.5177,0.8592,8.1117,-5.7263,4.3640
1625.0000,-7.7308,-11.3846,-8.7185,-3.1296,2.3530,-2.1265,-11.1282,-6.7053,-11.6412,-0.4646,-8.4555,-5.2555,1.5091,11.6898,-4.6314,-2.5338,4.9981,-8.6659,3.0472
1628.9062,-6.5305,-9.8307,-8.1632,-3.5716,2.1387,0.1323,-9.6883,-5.2036,-12.3179,-1.0880,-11.0113,-8.5758,0.2647,10.8016,-8.2108,-6.8177,2.0911,-11.5537,1.8015
1632.8125,-4.5668,-7.3986,-7.4958,-3.5523,1.8684,1.1287,-7.0992,-3.6112,-11.5715,-2.5099,-13.1550,-11.7580,-0.6980,9.5127,-13.0145,-11.4564,-0.5752,-13.1275,0.8063
1636.7188,-2.6622,-4.6138,-6.6584,-3.1287,1.3069,1.3282,-3.6555,-2.2330,-9.7615,-4.1251,-14.6218,-14.7011,-1.9772,7.8439,-17.9055,-15.8988,-3.2973,-12.7804,0.0782
1640.6250,-1.5736,-2.0351,-5.4651,-2.3384,0.4708,1.5579,0.0774,-1.0139,-7.5998,-5.2624,-15.2591,-17.3444,-4.0253,5.8555,-21.3779,-19.7924,-6.4400,-10.9088,-0.4916
1644.5312,-1.6057,-0.0683,-3.7158,-1.1884,-0.3885,2.4158,3.4010,0.3303,-5.8063,-5.5677,-15.0437,-19.5583,-6.8430,3.6009,-22.3016,-22.9418,-10.0903,-8.6245,-1.0270
1648.4375,-2.4785,1.1435,-1.3866,0.2712,-0.9837,3.8977,5.7014,1.9930,-4.7721,-5.1184,-14.0451,-21.0598,-9.9305,1.1338,-20.4488,-25.0996,-13.8703,-7.0456,-1.5837
1652.3438,-3.5079,1.7276,1.2408,1.8554,-1.2418,5.4659,6.6707,3.8132,-4.4100,-4.2251,-12.3721,-21.4397,-12.5315,-1.4616,-16.5260,-25.8221,-17.0519,-6.6370,-2.1534
1656.2500,-3.9779,1.9999,3.6314,3.2315,-1.4230,6.4651,6.4258,5.2773,-4.2652,-3.1094,-10.1432,-20.3112,-14.0124,-4.0606,-11.7391,-24.5715,-18.9071,-7.0071,-2.7279
1660.1562,-3.4926,2.3188,5.2337,4.0287,-1.9975,6.5718,5.4503,5.8049,-3.8146,-1.7228,-7.4953,-17.5050,-14.1344,-6.5156,-7.1799,-21.0378,-19.0631,-7.2491,-3.3386
1664.0625,-2.1310,2.9171,5.7684,4.0175,-3.3319,5.9807,4.3726,5.1206,-2.7766,0.1567,-4.6159,-13.2001,-13.0586,-8.6644,-3.3800,-15.4563,-17.6292,-6.5614,-4.0082
1667.9688,-0.3549,3.7716,5.3840,3.2444,-5.3835,5.2439,3.6805,3.4438,-1.2589,2.6340,-1.7643,-7.9205,-11.1137,-10.3048,-0.2456,-8.6737,-15.0314,-4.7344,-4.6385
1671.8750,1.2472,4.5791,4.5731,2.0237,-7.6196,4.9093,3.5136,1.3540,0.3272,5.4541,0.7468,-2.3998,-8.5163,-11.1555,2.6523,-1.8771,-11.7006,-2.2162,-4.9408
1675.7812,2.2291,4.8831,3.8976,0.7839,-9.2437,5.1962,3.6380,-0.5697,1.5142,8.0137,2.6155,2.6214,-5.2558,-10.8680,5.6433,3.8653,-7.8531,0.2323,-4.5042
1679.6875,2.4431,4.3194,3.6952,-0.1334,-9.6041,5.8765,3.6112,-2.0669,2.0290,9.6433,3.6439,6.5855,-1.2189,-9.1376,8.6425,7.9781,-3.5164,2.0267,-3.0019
1683.5938,2.0346,2.8652,3.9483,-0.5911,-8.5275,6.3798,3.0474,-3.2391,1.9032,9.9744,3.8204,9.2357,3.5516,-5.8772,11.1240,10.4629,1.2465,3.0709,-0.4143
1687.5000,1.3117,0.9373,4.3827,-0.6232,-6.3568,6.0411,1.8434,-4.2947,1.3993,9.1402,3.3444,10.6375,8.6694,-1.3494,12.3856,11.6888,6.1128,3.7210,2.8929
1691.4062,0.5754,-0.7504,4.7096,-0.2917,-3.6754,4.3860,0.2521,-5.2149,0.8297,7.6766,2.5688,11.1068,13.4395,3.8528,11.9455,12.0663,10.4721,4.4716,6.3167
1695.3125,-0.0020,-1.5226,4.8398,0.4381,-0.9164,1.3771,-1.2319,-5.6309,0.3982,6.2039,1.8671,11.0643,17.1045,8.9914,9.8509,11.8261,13.6353,5.6001,9.3138
1699.2188,-0.3978,-1.0875,4.9308,1.6929,1.8570,-2.4519,-2.1113,-5.0466,0.1600,5.1136,1.4856,10.8612,19.1433,13.4314,6.7280,11.0068,15.1387,6.9980,11.6565
1703.1250,-0.6628,0.3216,5.2499,3.5463,4.8370,-6.0545,-2.1289,-3.2699,0.1024,4.4693,1.4620,10.6424,19.4389,16.7972,3.5494,9.5962,14.9369,8.2741,13.4704
1707.0312,-0.8004,2.1055,5.9601,5.8353,8.1077,-8.1796,-1.3894,-0.7289,0.2630,4.1568,1.6686,10.3169,18.2355,18.9494,1.2492,7.6795,13.3653,9.0385,15.0259
1710.9375,-0.6831,3.6654,6.9769,8.0904,11.3097,-7.8717,-0.2997,1.6016,0.7851,4.1334,1.9680,9.6671,15.9562,19.8341,0.3934,5.4814,10.9269,9.1773,16.4324
1714.8438,-0.0719,4.7426,7.9902,9.6626,13.6124,-4.9573,0.6451,2.6692,1.8627,4.5563,2.3830,8.5489,13.0322,19.3574,1.0636,3.2943,8.0734,8.9503,17.4620
1718.7500,1.2527,5.5110,8.6308,10.0046,14.0664,-0.2337,1.1199,1.9290,3.6094,5.6685,3.1512,7.0667,9.8486,17.4127,2.9657,1.3722,5.1296,8.8586,17.6430
1722.6562,3.3117,6.3699,8.6704,8.9458,12.1399,4.8127,1.1325,-0.3387,5.9338,7.5150,4.5855,5.5971,6.7911,14.0589,5.6302,-0.1333,2.3661,9.3571,16.5733
1726.5625,5.8081,7.5909,8.1315,6.7955,8.0999,8.6720,0.9946,-3.1903,8.4974,9.7061,6.7942,4.6155,4.2783,9.7007,8.5401,-1.1752,0.0999,10.5643,14.2382
1730.4688,8.1578,9.0674,7.2445,4.2054,2.9856,10.5072,1.1063,-5.5491,10.7787,11.4361,9.4298,4.4110,2.6816,5.0999,11.1182,-1.7866,-1.3213,12.1220,11.1049
1734.3750,9.6822,10.3395,6.2876,1.8711,-1.8211,10.4747,1.6692,-6.7501,12.2135,11.8053,11.6693,4.8696,2.1486,1.1556,12.6704,-2.0672,-1.6772,13.2886,7.9156
1738.2812,9.8789,10.8693,5.4142,0.2453,-5.1724,9.4727,2.5030,-6.7479,12.3593,10.2884,12.5083,5.4902,2.4610,-1.4308,12.4597,-2.1723,-1.0602,13.2465,5.3090
1742.1875,8.6349,10.3692,4.5772,-0.5777,-6.5504,8.4902,3.0988,-5.8938,11.0404,7.0778,11.2647,5.6605,3.0787,-2.3963,9.9979,-2.2642,0.0883,11.4988,3.5215
1746.0938,6.2770,8.9618,3.5957,-0.7685,-6.0935,7.9886,2.9087,-4.5026,8.4424,3.0855,8.0181,5.0441,3.4044,-1.9125,5.4397,-2.4147,1.1745,8.1734,2.3600
1750.0000,3.4384,7.0823,2.3203,-0.5551,-4.3186,7.7164,1.7197,-2.5675,5.1279,-0.4244,3.7115,3.8317,3.1356,-0.3651,-0.2072,-2.5051,1.7867,4.0672,1.4448
1753.9062,0.8215,5.2163,0.7869,-0.0618,-1.7755,7.0435,-0.1213,0.1409,1.9404,-2.3927,-0.1948,2.6739,2.4712,1.9013,-5.3069,-2.2161,1.9479,0.3712,0.5364
1757.8125,-1.0276,3.6677,-0.7469,0.6979,1.1312,5.5368,-1.8075,3.6695,-0.2163,-2.4218,-2.3641,2.3095,2.0065,4.6794,-8.2497,-1.1593,2.0928,-1.8266,-0.2922
1761.7188,-1.8412,2.5017,-1.9164,1.6893,4.0935,3.3416,-2.4846,7.4987,-0.6817,-0.8963,-2.1818,3.1096,2.3476,7.7858,-8.2153,0.8930,2.7574,-2.0300,-0.7499
1765.6250,-1.6292,1.6639,-2.4508,2.7085,6.7490,1.1000,-1.7610,10.5207,0.6900,1.2849,0.0164,4.8306,3.6758,10.8655,-5.5760,3.8178,4.1712,-0.5564,-0.5976
1769.5312,-0.5968,1.1457,-2.3326,3.3604,8.6213,-0.5080,-0.0075,11.4805,3.4326,3.2113,3.2066,6.7442,5.5546,13.3231,-1.6535,7.1260,6.0317,1.6432,0.1220
1773.4375,0.9582,1.0518,-1.8064,3.2105,9.2494,-1.2359,1.7684,9.6411,6.6312,4.4223,6.2607,8.0699,7.1267,14.4902,2.0586,10.1588,7.6274,3.4847,1.0752
1777.3438,2.7247,1.5156,-1.2296,2.0276,8.4278,-1.4003,2.4397,5.2583,9.2967,5.0747,8.5002,8.4269,7.6005,13.9463,4.7202,12.3841,8.2486,4.2965,1.8494
1781.2500,4.4232,2.5346,-0.8659,-0.0444,6.3666,-1.5865,1.3860,-0.4593,10.7711,5.7341,9.9027,8.0050,6.7197,11.7709,6.4846,13.6101,7.6191,4.0987,2.2141
1785.1562,5.8238,3.8577,-0.7650,-2.5161,3.6222,-2.1696,-1.1423,-5.9104,10.9493,6.9172,10.8743,7.3432,4.9092,8.5322,8.1364,13.9847,6.0634,3.4552,2.2201
1789.0625,6.7517,5.0184,-0.8149,-4.7831,0.8117,-3.0202,-4.1510,-9.8629,10.1984,8.6680,11.7821,6.8796,2.9946,4.9962,10.3046,13.7943,4.2928,3.0070,2.0559
1792.9688,7.0923,5.5120,-0.9150,-6.4219,-1.7112,-3.6060,-6.4550,-11.9737,9.0486,10.4408,12.5852,6.5995,1.6714,1.7463,12.8291,13.2196,2.9526,2.9991,1.7837
1796.8750,6.8076,5.0265,-1.1210,-7.3637,-3.9985,-3.3935,-7.3204,-12.7818,7.8652,11.3908,12.8238,6.0462,1.0738,-1.0361,14.7596,12.2280,2.2368,3.1187,1.1868
1800.7812,5.9702,3.6123,-1.6223,-7.8377,-6.3641,-2.2397,-6.8090,-13.2129,6.7173,10.9195,11.9672,4.6962,0.7300,-3.4887,15.0066,10.6778,1.8310,2.7513,-0.1093
1804.6875,4.7937,1.7023,-2.5442,-8.1282,-9.0455,-0.4903,-5.6262,-13.9254,5.5007,9.1381,9.8687,2.4285,-0.0622,-5.7646,13.1805,8.5460,1.2239,1.4691,-2.2946
1808.5938,3.6218,-0.0413,-3.7244,-8.3227,-11.9004,1.2586,-4.5974,-14.8994,4.1786,6.9213,6.9885,-0.2699,-1.6910,-7.7431,9.9975,6.0925,0.1706,-0.6029,-5.0584
1812.5000,2.8309,-1.0124,-4.6710,-8.2341,-14.3562,2.5283,-4.1343,-15.4995,2.9147,5.4551,4.1971,-2.5459,-3.8811,-8.9794,6.9200,3.8117,-1.0213,-2.8209,-7.5694
1816.4062,2.6550,-0.9727,-4.8036,-7.5657,-15.6700,3.1745,-4.0451,-14.9444,1.9645,5.5026,2.2609,-3.7296,-5.7856,-8.9394,5.2454,2.1786,-1.5990,-4.4507,-8.8377
1820.3125,3.0089,-0.2444,-3.8642,-6.2079,-15.3533,3.3183,-3.7958,-12.8764,1.3961,6.8345,1.3445,-3.8107,-6.4698,-7.3639,5.2570,1.3544,-0.8223,-5.1903,-8.2706
1824.2188,3.4351,0.3506,-2.2197,-4.4525,-13.5011,3.0932,-3.0184,-9.6804,0.8826,8.2219,0.8794,-3.4810,-5.4847,-4.5101,6.0311,1.0632,1.5137,-5.4027,-6.0705
1828.1250,3.2634,-0.1544,-0.7995,-2.9475,-10.8133,2.4470,-1.8932,-6.3642,-0.2150,8.0704,-0.0818,-3.6757,-3.1626,-1.1019,6.0467,0.7501,4.8310,-5.8617,-3.1915
1832.0312,1.9508,-2.3449,-0.6312,-2.3828,-8.2766,1.1766,-1.1225,-4.0702,-2.4601,5.3691,-2.2267,-4.9015,-0.4521,1.9885,4.1995,-0.0594,7.9699,-7.1661,-0.8505
1835.9375,-0.5661,-5.9951,-2.2189,-3.0865,-6.6820,-0.8262,-1.5005,-3.4990,-5.8803,0.3927,-5.4680,-6.8199,1.6008,4.1310,0.5500,-1.4254,9.7341,-9.2323,0.1212
1839.8438,-3.7256,-10.0189,-5.1552,-4.7897,-6.2511,-3.3183,-3.3628,-4.5648,-9.7699,-5.3001,-8.8980,-8.4004,2.3921,5.1689,-3.6745,-2.9127,9.4573,-11.2459,-0.3171
1843.7500,-6.5255,-12.9085,-8.2445,-6.7302,-6.5872,-5.6580,-6.2822,-6.4661,-12.9398,-9.6155,-11.2602,-8.5766,1.9949,5.3654,-6.7964,-3.8364,7.2644,-12.1448,-1.4996
1847.6562,-7.9673,-13.4796,-10.0996,-8.0498,-6.9708,-7.0407,-9.2151,-8.1248,-14.3021,-11.0062,-11.6491,-6.9803,0.9681,5.1246,-7.6322,-3.6969,3.8957,-11.3229,-2.5552
1851.5625,-7.5197,-11.5057,-9.8694,-8.2507,-6.8175,-6.8885,-11.0090,-8.7441,-13.4318,-9.2554,-9.9974,-4.2533,-0.0973,4.6746,-6.0667,-2.5336,0.2356,-9.0662,-2.9801
1855.4688,-5.3344,-7.8444,-7.6549,-7.4288,-6.0184,-5.1594,-10.9603,-8.1801,-10.7445,-5.5099,-7.0506,-1.7087,-0.9782,3.9121,-2.9500,-0.9642,-3.1430,-6.3997,-2.9036
1859.3750,-2.1015,-3.9382,-4.3720,-6.1421,-4.9608,-2.3833,-9.1017,-6.9359,-7.1862,-1.5740,-3.8700,-0.5489,-1.9010,2.4977,0.5183,0.1315,-6.1469,-4.4259,-2.8870
1863.2812,1.3410,-0.9796,-1.1701,-5.0135,-4.2268,0.5931,-6.0943,-5.8060,-3.6602,1.0827,-1.2160,-1.1490,-3.2719,0.1401,3.4513,0.1008,-8.9767,-3.6039,-3.4198
1867.1875,4.3841,0.7357,1.2020,-4.3418,-4.1750,3.0030,-2.8446,-5.3992,-0.5897,1.9998,0.7766,-2.8738,-5.2594,-3.1063,5.5633,-1.1156,-11.7570,-3.4728,-4.4838
1871.0938,6.7857,1.8418,2.6770,-3.9875,-4.6863,4.4749,-0.1104,-5.8308,2.0996,1.7265,2.4427,-4.5307,-7.5307,-6.7081,6.9893,-2.9630,-14.2557,-3.0255,-5.5003
1875.0000,8.5302,3.2985,3.6488,-3.6052,-5.2448,5.0988,1.6925,-6.7591,4.6124,1.2379,4.1083,-5.1401,-9.3285,-9.7702,7.8871,-4.6013,-15.8837,-1.4829,-5.7054
1878.9062,9.5738,5.5598,4.4453,-3.0433,-5.3035,5.2266,2.4444,-7.7143,6.8491,1.2101,5.6740,-4.5006,-9.8459,-11.3520,8.1811,-5.3694,-15.9641,1.0697,-4.6942
1882.8125,9.7016,8.0910,4.8978,-2.5986,-4.6792,5.1358,2.1621,-8.4776,8.2685,1.6300,6.5828,-3.1938,-8.6578,-10.8232,7.6383,-5.0900,-14.0800,3.6400,-2.7549
1886.7188,8.6169,9.5804,4.3293,-2.9066,-3.6970,4.7665,0.8950,-9.2359,8.1753,1.9340,6.1996,-2.0695,-5.9376,-8.0841,6.1676,-4.0413,-10.2770,4.9255,-0.7488
1890.6250,6.1879,8.7227,1.9912,-4.5063,-2.9681,3.7010,-1.2501,-10.3965,6.2353,1.4977,4.3204,-1.6050,-2.3355,-3.5592,4.0530,-2.6502,-5.0149,4.1532,0.3969
1894.5312,2.6534,5.0636,-2.3369,-7.3673,-2.9463,1.4282,-4.0104,-12.1922,2.8338,0.0930,1.4259,-1.5973,1.3806,2.0024,1.8977,-1.1557,1.0535,1.5900,0.2589
1898.4375,-1.3844,-0.6416,-7.9933,-10.7337,-3.5778,-2.2402,-6.9254,-14.3699,-1.0062,-1.9877,-1.5193,-1.3843,4.6728,7.7807,0.2956,0.5015,7.2961,-1.6183,-0.8270
1902.3438,-5.1889,-6.7749,-13.5841,-13.4426,-4.3105,-6.8472,-9.4349,-16.2135,-4.1202,-4.1635,-3.5950,-0.4095,7.3514,13.0516,-0.5234,2.4824,13.1619,-4.1637,-1.9908
1906.2500,-8.1907,-11.6655,-17.5826,-14.5540,-4.4817,-11.2911,-11.0850,-16.9246,-5.7955,-5.9294,-4.4213,1.2916,9.4211,17.2169,-0.8097,4.7079,18.0913,-5.3555,-2.3898
1910.1562,-10.1674,-14.3515,-19.0409,-13.8950,-3.8226,-14.2200,-11.7186,-16.1183,-6.0795,-7.0806,-4.2958,3.0352,10.8107,19.7620,-1.0808,6.6600,21.4211,-5.4415,-1.7398
1914.0625,-11.2061,-14.8641,-18.0074,-12.1485,-2.7130,-14.6554,-11.5235,-14.0908,-5.6214,-7.6787,-3.9062,3.8979,11.2268,20.2678,-1.7425,7.5315,22.4471,-5.2828,-0.4728
1917.9688,-11.5099,-13.9525,-15.4216,-10.4077,-1.9761,-12.5160,-10.9028,-11.6562,-5.1846,-7.8563,-3.8448,3.3016,10.2706,18.5439,-2.8178,6.6777,20.6884,-5.6449,0.5715
1921.8750,-11.2054,-12.5171,-12.5634,-9.4813,-2.3278,-8.7242,-10.2458,-9.6481,-5.1663,-7.6576,-4.2651,1.3755,7.7555,14.8169,-3.9690,4.0855,16.2223,-6.6192,0.7123
1925.7812,-10.2848,-11.1379,-10.3870,-9.4111,-3.8572,-4.7990,-9.7383,-8.4271,-5.4257,-7.0389,-4.8798,-1.1314,3.9935,9.8070,-4.7658,0.5240,9.8546,-7.5724,-0.1214
1929.6875,-8.6961,-9.9327,-9.1103,-9.5282,-5.9142,-2.1294,-9.3178,-7.7400,-5.4815,-5.9912,-5.2383,-3.3004,-0.1870,4.5507,-4.9756,-2.7731,2.9542,-7.6318,-1.3490
1933.5938,-6.4882,-8.7120,-8.2618,-8.9999,-7.5091,-1.3204,-8.7824,-7.0281,-4.8940,-4.6386,-5.0358,-4.5338,-3.7583,-0.0107,-4.6518,-4.7323,-3.0251,-6.3350,-2.1215
1937.5000,-3.8878,-7.2251,-7.1064,-7.4767,-7.9609,-1.9650,-7.9706,-5.9513,-3.5517,-3.2043,-4.2313,-4.7691,-5.9774,-3.4627,-3.9770,-4.9957,-7.1063,-3.9733,-1.8731
1941.4062,-1.2465,-5.3130,-5.1641,-5.3710,-7.3448,-2.9448,-6.8934,-4.7273,-1.6978,-1.8628,-2.9441,-4.3172,-6.7384,-6.0875,-3.0237,-4.0592,-9.1305,-1.3941,-0.6808
1945.3125,1.1025,-2.9319,-2.5080,-3.5692,-6.4185,-3.0605,-5.7420,-4.0151,0.2661,-0.6149,-1.2850,-3.4994,-6.5646,-8.6215,-1.6629,-2.9082,-9.6904,0.5749,0.7924
1949.2188,2.9862,-0.1378,0.3049,-2.7852,-6.0780,-1.6283,-4.7799,-4.4089,2.0147,0.6930,0.6889,-2.3795,-6.2429,-11.7160,0.2724,-2.3907,-9.7056,1.6579,1.7142
1953.1250,4.4439,2.8866,2.5795,-3.0389,-6.7305,1.2515,-4.1956,-5.9171,3.4026,2.2024,2.8511,-0.7956,-6.3407,-15.4375,2.6850,-2.7291,-9.8977,2.2403,1.5716
1957.0312,5.6602,5.7762,3.8544,-3.6522,-8.0321,4.8230,-4.0087,-7.8324,4.4003,3.8542,4.8478,1.3426,-6.9160,-19.1410,5.0329,-3.4712,-10.4702,2.9937,0.4185
1960.9375,6.8152,7.9971,4.0649,-3.7808,-9.1702,8.0479,-4.0815,-9.1285,4.9600,5.3306,6.1001,3.7331,-7.5921,-21.8098,6.4678,-3.8832,-11.1442,4.2996,-1.2529
1964.8438,7.9243,8.9981,3.4318,-3.0887,-9.4672,9.9950,-4.2165,-9.1275,4.9500,6.1850,6.0404,5.6119,-7.9045,-22.6332,6.2651,-3.5012,-11.4708,5.8909,-2.8812
1968.7500,8.7505,8.4486,2.2092,-2.0512,-8.8458,10.0995,-4.2696,-7.9630,4.2132,6.0733,4.4520,6.0439,-7.6413,-21.4177,4.2826,-2.4757,-11.1713,6.9624,-4.1614
1972.6562,8.8466,6.4202,0.5115,-1.6284,-7.8057,8.2735,-4.2063,-6.4890,2.6999,4.9332,1.6679,4.4343,-6.9203,-18.5529,1.1309,-1.4958,-10.2724,6.6701,-5.0946
1976.5625,7.7377,3.3821,-1.6402,-2.5158,-6.9369,4.9171,-4.0698,-5.6720,0.5603,2.9994,-1.5407,0.9551,-5.9650,-14.5817,-2.0930,-1.3653,-8.9759,4.6723,-5.7619
1980.4688,5.1853,0.0127,-4.1043,-4.5093,-6.3553,0.8476,-3.8989,-5.8832,-1.8751,0.6724,-4.3386,-3.3978,-4.7899,-9.7335,-4.3648,-2.5124,-7.4101,1.3563,-6.0360
1984.3750,1.4091,-3.0434,-6.4390,-6.4706,-5.5153,-2.8886,-3.6625,-6.5922,-4.2144,-1.6495,-6.2232,-7.1918,-3.0901,-3.8153,-5.2424,-4.7280,-5.4886,-2.3776,-5.5033
1988.2812,-2.8729,-5.3257,-7.9540,-6.9657,-3.5743,-5.3407,-3.2699,-6.6937,-6.1384,-3.6662,-7.1869,-9.2046,-0.4757,3.4154,-5.0083,-7.2593,-3.0099,-5.5980,-3.7019
1992.1875,-6.6574,-6.5675,-8.0267,-5.1703,-0.0643,-6.0289,-2.6535,-5.2573,-7.4721,-5.1774,-7.5621,-8.9871,3.0920,11.6653,-4.3774,-9.1672,0.0696,-7.7626,-0.5314
1996.0938,-9.0587,-6.6525,-6.5040,-1.4369,4.6224,-5.1808,-1.8659,-2.1937,-8.1744,-6.0549,-7.6909,-7.0365,7.0022,19.7866,-3.9863,-9.7299,3.4098,-8.8307,3.4731
2000.0000,-9.7077,-5.6370,-3.9149,2.8624,9.3072,-3.6495,-1.1102,1.6085,-8.2906,-6.2590,-7.6786,-4.4924,10.1185,26.0575,-4.0167,-8.7015,6.3139,-9.0633,7.2428
2003.9062,-8.9198,-3.8586,-1.3112,6.1042,12.6346,-2.5004,-0.6706,4.7588,-7.9221,-5.9014,-7.3991,-2.5362,11.3211,28.9726,-4.1871,-6.3526,8.0344,-8.7236,9.6439
2007.8125,-7.5145,-2.0066,0.2074,7.2834,13.8065,-2.4653,-0.7776,6.1256,-7.2310,-5.2766,-6.7149,-1.8291,10.1455,28.0588,-4.0787,-3.3378,8.1754,-7.9211,10.0410
2011.7188,-6.3706,-0.9805,0.0241,6.4294,12.9445,-3.5771,-1.4928,5.3895,-6.4434,-4.7758,-5.7031,-2.2875,7.0911,24.1601,-3.5256,-0.4727,6.9205,-6.6895,8.6008
2015.6250,-5.9658,-1.4941,-1.7135,4.3624,10.8589,-5.2010,-2.6882,3.0739,-5.8016,-4.6824,-4.6861,-3.2794,3.3677,18.9637,-2.7721,1.5152,4.9233,-5.1773,6.1459
2019.5312,-6.1639,-3.5994,-4.2072,2.0435,8.4262,-6.4295,-4.1218,0.1111,-5.4546,-4.9636,-4.0249,-4.0769,0.2261,14.0469,-2.2841,2.2180,2.9256,-3.7349,3.6625
2023.4375,-6.3637,-6.4558,-6.4216,0.0139,6.0429,-6.5846,-5.5418,-2.7032,-5.3387,-5.2180,-3.8309,-4.2666,-1.6937,10.0563,-2.3645,1.7070,1.3549,-2.7699,1.7881
2027.3438,-5.8989,-8.5836,-7.5405,-1.7112,3.5335,-5.5194,-6.7353,-4.9996,-5.1376,-4.8617,-3.8234,-3.8782,-2.5784,6.5457,-2.8663,0.5377,0.1611,-2.4502,0.5981
2031.2500,-4.4343,-8.5609,-7.2265,-3.3131,0.5312,-3.5747,-7.4911,-6.7438,-4.3863,-3.4793,-3.4599,-3.2022,-3.1061,2.5498,-3.2266,-0.4643,-1.0207,-2.4881,-0.2171
2035.1562,-2.1289,-5.8050,-5.6080,-4.7499,-3.0060,-1.2853,-7.5391,-7.9350,-2.7031,-1.1371,-2.2696,-2.4718,-3.8325,-2.5278,-2.8128,-0.5981,-2.5207,-2.2159,-0.9648
2039.0625,0.4925,-0.9742,-3.0976,-5.6266,-6.5645,0.9246,-6.5669,-8.3981,-0.0427,1.5473,-0.1754,-1.6647,-4.7521,-8.3309,-1.3526,0.3041,-4.3569,-0.9674,-1.6653
2042.9688,2.8341,4.2835,-0.2089,-5.4657,-9.3152,2.8576,-4.3719,-7.8493,3.1720,3.6511,2.4038,-0.5659,-5.3409,-13.6606,0.8379,1.6967,-6.2137,1.4539,-2.0710
2046.8750,4.4832,8.1234,2.5313,-4.1493,-10.6441,4.4489,-1.0863,-6.1713,6.1411,4.3851,4.7298,0.9671,-5.0227,-17.1793,2.9752,2.5267,-7.6630,4.5328,-1.9469
2050.7812,5.2873,9.3878,4.6029,-2.1596,-10.5735,5.5937,2.6781,-3.6558,7.9878,3.4827,6.0854,2.7514,-3.6910,-18.2072,4.1957,1.7775,-8.4433,7.2166,-1.3657
2054.6875,5.2642,8.0782,5.5404,-0.4012,-9.7644,6.0637,5.9208,-0.9980,8.1307,1.3180,6.0742,4.2443,-1.8862,-17.0757,3.9702,-0.9234,-8.5869,8.4352,-0.7645
2058.5938,4.4649,5.1701,5.0585,0.2917,-9.1005,5.5804,7.6008,0.9805,6.5350,-1.3072,4.7267,4.7781,-0.4909,-14.8309,2.3167,-4.9887,-8.3253,7.6626,-0.6988
2062.5000,2.9136,1.9341,3.2024,-0.3766,-9.1514,3.9887,7.0983,1.7040,3.7020,-3.5776,2.3981,3.9213,-0.1603,-12.5300,-0.2681,-9.0627,-7.8704,5.1861,-1.4600
2066.4062,0.6595,-0.7823,0.4090,-2.0274,-9.8717,1.4133,4.5405,1.0775,0.4022,-5.0407,-0.4340,1.7412,-0.8898,-10.6201,-3.0632,-11.6457,-7.2532,1.9307,-2.8292
2070.3125,-2.1207,-2.8721,-2.5987,-3.8603,-10.7026,-1.6907,0.7931,-0.5371,-2.6911,-5.7389,-3.3331,-1.1879,-2.0108,-8.7889,-5.3906,-11.8109,-6.3255,-1.0349,-4.1409
2074.2188,-5.0653,-4.7309,-5.0500,-5.0849,-10.9459,-4.6140,-2.9014,-2.5431,-5.2439,-6.0462,-5.9483,-4.0134,-2.5935,-6.3197,-6.7730,-9.6059,-4.8913,-2.9959,-4.6163
2078.1250,-7.6708,-6.6888,-6.3750,-5.2352,-10.1269,-6.5746,-5.4567,-4.3664,-7.2381,-6.3298,-7.9659,-5.9213,-1.9649,-2.6513,-6.9698,-5.9210,-2.8316,-3.8066,-3.7465
2082.0312,-9.4193,-8.5371,-6.3428,-4.2181,-8.1262,-6.9695,-6.3707,-5.6095,-8.7167,-6.6541,-9.0561,-6.3730,-0.0056,2.2467,-5.9581,-1.9289,-0.1260,-3.7449,-1.4996
2085.9375,-9.9289,-9.4972,-5.0546,-2.1710,-5.0763,-5.6374,-5.8401,-6.0827,-9.5056,-6.7075,-8.8962,-5.1948,2.9110,7.8842,-3.9210,1.5423,3.2065,-3.1699,1.7338
2089.8438,-9.0651,-8.6667,-2.8524,0.6692,-1.1969,-3.0225,-4.5389,-5.7777,-9.1488,-5.9913,-7.2881,-2.5642,6.2106,13.5501,-1.2401,4.3179,7.1332,-2.2522,5.3588
2093.7500,-6.9800,-5.6526,-0.2248,3.9593,3.2559,-0.1029,-3.2159,-4.8511,-7.1536,-4.1529,-4.3066,1.0334,9.3844,18.6316,1.5602,6.7089,11.5099,-0.9611,8.7864
2097.6562,-4.0740,-0.9722,2.2615,7.1608,7.9019,1.9904,-2.3438,-3.6155,-3.4135,-1.2588,-0.3798,4.8563,12.0603,22.7338,3.9511,9.0274,15.9085,0.7222,11.5230
2101.5625,-0.8898,4.0601,4.0454,9.5421,12.1475,2.5494,-1.9816,-2.4786,1.4843,2.1563,3.7720,8.0239,13.9146,25.5866,5.5814,11.1498,19.5390,2.5654,13.1655
2105.4688,2.0348,7.9216,4.7173,10.3875,15.2551,1.7543,-1.8739,-1.7992,6.3246,5.2936,7.3418,9.7506,14.6025,26.9117,6.4034,12.4487,21.4214,4.0378,13.4092
2109.3750,4.3104,9.6143,4.1977,9.3443,16.6052,0.6828,-1.6769,-1.7108,9.7388,7.4324,9.7040,9.6518,13.8493,26.4296,6.6538,12.1540,20.7989,4.5308,12.1426
2113.2812,5.7784,9.1286,2.8434,6.6815,16.0047,0.7451,-1.1641,-2.0247,10.8454,8.2199,10.6239,7.9622,11.6691,24.0420,6.6857,9.9068,17.5796,3.7193,9.5879
2117.1875,6.4965,7.3863,1.3628,3.2525,13.8260,2.8045,-0.3084,-2.3051,9.6886,7.7658,10.3069,5.4947,8.5251,20.0454,6.7511,6.1325,12.5151,1.8324,6.3556
2121.0938,6.6424,5.7196,0.5305,0.1411,10.8548,6.5325,0.7674,-2.0954,7.2061,6.5205,9.2656,3.2959,5.2531,15.1745,6.8675,1.9694,6.9555,-0.3549,3.3071
2125.0000,6.4055,5.1957,0.8323,-1.8096,7.9235,10.4739,1.9076,-1.1697,4.7459,5.0364,8.0771,2.1585,2.7366,10.3897,6.8509,-1.2281,2.2823,-1.8250,1.2472
2128.9062,5.9357,6.1554,2.2474,-2.3056,5.5499,12.8729,3.0213,0.3440,3.4153,3.7569,7.1543,2.2704,1.5197,6.5097,6.4809,-2.5232,-0.6589,-1.7602,0.6028
2132.8125,5.3661,8.1715,4.3076,-1.5829,3.7922,12.7707,4.1057,2.0396,3.6285,2.9215,6.6391,3.2202,1.6102,3.9150,5.6777,-1.7998,-1.7993,0.1055,1.2815
2136.7188,4.8527,10.3815,6.3993,-0.1208,2.3805,10.6473,5.1939,3.4504,5.0662,2.5845,6.4471,4.3537,2.6015,2.5030,4.5711,0.2821,-1.6456,3.3950,2.8013
2140.6250,4.5509,11.9547,8.1159,1.6874,1.0033,8.1348,6.2772,4.2720,6.9963,2.6786,6.4061,5.2413,4.0187,1.9054,3.4287,2.7197,-0.8054,7.2818,4.6105
2144.5312,4.5137,12.4359,9.4418,3.6930,-0.4498,6.9518,7.2629,4.4696,8.7082,3.0635,6.3937,5.9456,5.6426,1.8008,2.5130,4.7079,0.4265,10.8558,6.3978
2148.4375,4.5916,11.8406,10.6676,5.9168,-1.8311,7.7649,8.0111,4.2390,9.8072,3.5556,6.3999,6.9193,7.5911,2.1077,1.9816,5.9739,2.1617,13.4831,8.2007
2152.3438,4.4600,10.5396,12.1164,8.3516,-2.8610,9.7592,8.4330,3.8795,10.2636,3.9759,6.5072,8.6211,10.1200,2.9420,1.8960,6.7506,4.6696,15.0028,10.2602
2156.2500,3.8189,9.0665,13.8760,10.8141,-3.3273,11.2216,8.5841,3.6591,10.2851,4.2311,6.8262,11.1250,13.3023,4.4025,2.3025,7.4692,8.0023,15.6898,12.7298
2160.1562,2.6594,7.9459,15.6998,12.9488,-3.2196,10.7368,8.6686,3.7232,10.1492,4.3873,7.4293,13.9861,16.8156,6.3633,3.2788,8.3992,11.7715,16.0166,15.4374
2164.0625,1.3830,7.5614,17.1125,14.3590,-2.7311,8.1647,8.9163,4.0527,10.0807,4.6521,8.2962,16.4321,19.9802,8.4432,4.8657,9.4610,15.2245,16.3297,17.8545
2167.9688,0.6192,8.0327,17.6251,14.7613,-2.1444,4.7278,9.3842,4.4678,10.1717,5.2293,9.2630,17.7250,22.0139,10.1819,6.9022,10.2853,17.5546,16.5999,19.2934
2171.8750,0.7985,9.1076,16.9240,14.0763,-1.6710,2.1688,9.8122,4.6876,10.3132,6.1102,9.9877,17.4531,22.3432,11.3062,8.8975,10.4355,18.2343,16.3823,19.2212
2175.7812,1.7579,10.1481,14.9529,12.4384,-1.3226,1.5803,9.6622,4.4550,10.1597,6.9540,9.9791,15.5993,20.8061,11.9014,10.0877,9.6305,17.1831,15.0315,17.5163
2179.6875,2.6955,10.3038,11.8972,10.1566,-0.8683,2.7092,8.3747,3.6979,9.2071,7.1867,8.7420,12.4211,17.6779,12.3651,9.7277,7.8466,14.7170,12.0845,14.5398
2183.5938,2.5866,8.8740,8.1229,7.6519,0.0923,4.1724,5.7242,2.6376,7.0318,6.3105,6.0250,8.2976,13.5533,13.1604,7.4954,5.2852,11.3677,7.6153,10.9951
2187.5000,0.8397,5.7065,4.1063,5.3629,1.9474,4.3808,2.0599,1.7422,3.6117,4.2481,2.0595,3.6698,9.1684,14.5161,3.7714,2.2736,7.7009,2.3468,7.6543
2191.4062,-2.2396,1.3916,0.3518,3.6104,4.8368,2.5161,-1.7503,1.4982,-0.4747,1.4850,-2.3807,-0.9298,5.2199,16.2496,-0.4169,-0.8201,4.2073,-2.5801,5.0800
2195.3125,-5.5237,-2.9204,-2.7203,2.4580,8.4684,-1.0526,-4.6849,2.0984,-4.1679,-1.1197,-6.2085,-4.8797,2.2035,17.8175,-3.8146,-3.6344,1.2503,-6.0906,3.4570
2199.2188,-7.6706,-6.0311,-4.8917,1.6540,12.1078,-5.0860,-6.0600,3.2378,-6.3816,-2.7619,-8.4773,-7.6036,0.2882,18.5648,-5.5228,-5.8506,-0.9737,-7.6600,2.5879
2203.1250,-7.8837,-7.2654,-6.2098,0.7345,14.7964,-8.2045,-5.8625,4.1786,-6.5635,-3.0972,-8.8243,-8.8068,-0.7330,18.0305,-5.4192,-7.2474,-2.4774,-7.5232,2.0353
2207.0312,-6.3266,-6.7637,-6.9369,-0.7273,15.7289,-9.5231,-4.7251,4.0889,-5.0121,-2.3598,-7.6295,-8.6549,-1.3640,16.1458,-4.1595,-7.7704,-3.4831,-6.4863,1.3366
2210.9375,-3.9277,-5.3186,-7.3898,-2.8505,14.6057,-8.8688,-3.5578,2.4792,-2.7165,-1.1303,-5.7635,-7.7245,-2.1877,13.2286,-2.7502,-7.5639,-4.3366,-5.4504,0.2035
2214.8438,-1.7385,-3.8648,-7.7514,-5.3255,11.7615,-6.6189,-3.0593,-0.5183,-0.7920,0.0698,-4.0633,-6.7017,-3.5865,9.7937,-1.9409,-6.9194,-5.3435,-4.9336,-1.3688
2218.7500,-0.3116,-2.9529,-7.9674,-7.5319,7.9862,-3.4189,-3.3953,-4.1920,0.1383,1.0657,-2.8606,-5.9920,-5.5336,6.3056,-1.8089,-6.1456,-6.6051,-4.8680,-3.1091
2222.6562,0.4797,-2.5390,-7.7937,-8.8357,4.1446,0.0019,-4.2064,-7.5786,0.2188,2.0065,-1.8707,-5.4950,-7.5757,3.0197,-1.7855,-5.4239,-7.9523,-4.7665,-4.5767
2226.5625,1.1037,-2.1907,-6.9650,-8.8829,0.8243,2.9065,-4.8919,-9.8674,0.1254,3.0835,-0.5080,-4.7070,-9.0211,0.0001,-1.1003,-4.7348,-9.0146,-4.1157,-5.3126
2230.4688,1.8290,-1.5272,-5.3799,-7.7153,-1.7807,4.6487,-4.9584,-10.6544,0.5047,4.2378,1.5962,-3.0924,-9.2303,-2.7179,0.6505,-3.9019,-9.3762,-2.7215,-4.9774
2234.3750,2.4245,-0.5622,-3.1939,-5.6653,-3.7193,4.8740,-4.2207,-9.9459,1.4898,5.1038,4.2418,-0.4831,-7.8537,-4.9457,3.1799,-2.7270,-8.7230,-0.7921,-3.4370
2238.2812,2.3330,0.2884,-0.7753,-3.1345,-5.0201,3.7256,-2.7842,-7.9967,2.6254,5.2445,6.7218,2.7624,-4.9095,-6.2881,5.6369,-1.1371,-6.9143,1.2573,-0.7841
2242.1875,1.1636,0.5192,1.4406,-0.4282,-5.5461,1.8580,-0.8986,-5.1546,3.2294,4.4974,8.2547,5.9424,-0.7080,-6.2866,7.1000,0.7347,-3.9856,3.1060,2.6916
2246.0938,-0.9008,-0.0743,3.1170,2.2576,-5.0904,0.1536,1.1650,-1.8241,2.9109,3.1588,8.4831,8.4109,4.2783,-4.6974,7.1172,2.5706,-0.1445,4.7065,6.5647
2250.0000,-3.1174,-1.2100,4.1247,4.7326,-3.6331,-0.7317,3.1316,1.4806,1.8678,1.8504,7.6947,9.9231,9.5005,-1.7344,5.9550,3.9721,4.2066,6.2307,10.3489
2253.9062,-4.6216,-2.2596,4.5585,6.7216,-1.5397,-0.6992,4.6758,4.1275,0.7692,1.1557,6.6254,10.7067,14.3504,1.8946,4.4122,4.6018,8.4504,7.8496,13.5708
2257.8125,-4.9674,-2.6079,4.6612,7.8916,0.4937,-0.1829,5.4253,5.5052,0.3291,1.2814,5.9976,11.2291,18.1718,5.2232,3.3336,4.3167,11.8230,9.5331,15.8339
2261.7188,-4.3742,-1.9885,4.6901,7.9926,1.7540,0.2164,5.0790,5.2769,0.8858,1.9794,6.1171,11.8336,20.3491,7.4335,3.1352,3.2584,13.6187,11.0217,16.8660
2265.6250,-3.5127,-0.5971,4.7767,7.0063,1.8928,0.1658,3.5895,3.5877,2.2597,2.7672,6.7841,12.4934,20.4885,8.2168,3.6242,1.8658,13.4760,11.9810,16.5506
2269.5312,-3.0045,1.0518,4.8482,5.1879,1.1171,-0.2089,1.2742,1.0555,3.9439,3.2723,7.5343,12.8374,18.6096,7.8769,4.1972,0.7775,11.5919,12.2151,14.9448
2273.4375,-3.0044,2.4004,4.6618,2.9669,0.0529,-0.4969,-1.2615,-1.4949,5.4465,3.4514,7.9992,12.4152,15.2125,7.1105,4.2644,0.6199,8.7072,11.7778,12.2849
2277.3438,-3.1504,3.0853,3.9562,0.7725,-0.6329,-0.3814,-3.3790,-3.4241,6.5314,3.5476,8.1199,11.0155,11.1352,6.5837,3.6312,1.7363,5.8233,10.9104,8.9656
2281.2500,-2.8843,3.0350,2.6429,-1.1143,-0.6112,0.0770,-4.7082,-4.5682,7.2233,3.8477,8.0900,8.8294,7.2381,6.5532,2.6176,3.9794,3.7723,9.8626,5.4754
2285.1562,-1.8867,2.4297,0.9100,-2.6156,-0.0375,0.4571,-5.3166,-5.2588,7.6288,4.4327,8.1133,6.3642,4.0699,6.7521,1.8669,6.6999,2.8676,8.7312,2.2803
2289.0625,-0.3230,1.5873,-0.8550,-3.8257,0.6023,0.2562,-5.6457,-6.0650,7.7486,5.0943,8.1838,4.1733,1.6944,6.6047,1.9654,8.9856,2.8244,7.4227,-0.3149
2292.9688,1.2352,0.8305,-2.3024,-4.9347,0.8241,-0.7900,-6.2472,-7.4111,7.4197,5.4493,8.0470,2.5736,-0.2211,5.6357,3.0849,10.0622,2.9866,5.7484,-2.2585
2296.8750,2.1182,0.3601,-3.3622,-6.1344,0.4428,-2.5659,-7.4623,-9.2793,6.4035,5.1442,7.3450,1.5146,-2.1057,3.8267,4.8233,9.6459,2.7208,3.5730,-3.7284
2300.7812,1.8719,0.1535,-4.3007,-7.5049,-0.3219,-4.6649,-9.2074,-11.1432,4.5301,4.0042,5.8151,0.6538,-4.1459,1.7077,6.3177,8.0361,1.7532,0.9172,-4.9746
2304.6875,0.4046,-0.0742,-5.5097,-8.8955,-0.9547,-6.5995,-10.9643,-12.1509,1.7907,2.0529,3.3951,-0.4305,-6.1036,0.1337,6.5803,5.8769,0.2788,-2.0391,-6.1011
2308.5938,-2.0609,-0.7932,-7.1506,-9.8648,-0.8786,-7.9788,-11.9797,-11.4652,-1.6572,-0.5659,0.1899,-2.0280,-7.4065,-0.1282,4.9138,3.7252,-1.1877,-5.0314,-6.9236
2312.5000,-5.1325,-2.4590,-8.9124,-9.7733,0.3033,-8.5965,-11.5901,-8.6237,-5.5392,-3.6775,-3.6329,-4.1986,-7.4685,1.2224,1.2333,1.7004,-2.1099,-7.8063,-7.0244
2316.4062,-8.3829,-5.2596,-10.1047,-8.0696,2.6311,-8.4635,-9.5498,-3.7912,-9.5166,-7.1135,-7.9055,-6.8092,-6.0730,3.8580,-3.8532,-0.5451,-2.2074,-10.1884,-6.0113
2320.3125,-11.4276,-8.9428,-10.0763,-4.6733,5.7081,-7.8329,-6.2252,2.1871,-13.2257,-10.6912,-12.4268,-9.6390,-3.6040,6.9381,-9.2549,-3.5026,-1.5843,-12.0998,-3.8460
2324.2188,-13.9623,-12.8391,-8.6992,-0.2331,8.7358,-7.1792,-2.5523,7.9718,-16.3208,-14.1710,-16.8741,-12.4584,-0.9850,9.4165,-13.8174,-7.3354,-0.6719,-13.5421,-1.0287
2328.1250,-15.7865,-16.0903,-6.5689,3.9549,10.6910,-7.0485,0.2695,12.1202,-18.5337,-17.2258,-20.7555,-15.0321,0.6691,10.3957,-16.7591,-11.5816,-0.0370,-14.5562,1.5134
2332.0312,-16.8085,-17.9784,-4.7399,6.4192,10.6421,-7.7660,1.2565,13.5653,-19.7271,-19.4403,-23.4736,-17.0758,0.5269,9.3940,-17.9069,-15.2533,-0.1505,-15.1731,2.8114
2335.9375,-17.0176,-18.1915,-4.1381,6.1705,8.1225,-9.1496,0.0906,11.9930,-19.9027,-20.3526,-24.4939,-18.2456,-1.5876,6.4618,-17.6160,-17.3018,-1.2086,-15.3764,2.3147
2339.8438,-16.4341,-16.9086,-5.0298,3.1904,3.3956,-10.4697,-2.6959,7.9392,-19.1525,-19.5627,-23.5429,-18.2210,-5.1100,2.1438,-16.4380,-17.1743,-3.0650,-15.0981,0.1590
2343.7500,-15.0844,-14.6921,-6.9029,-1.5428,-2.5598,-10.7913,-5.9377,2.5422,-17.5957,-16.9080,-20.7435,-16.8616,-8.9789,-2.6842,-14.7558,-15.1192,-5.2934,-14.2655,-2.9150
2347.6562,-13.0405,-12.2642,-8.8313,-6.5224,-8.3951,-9.5607,-8.3821,-2.9417,-15.3607,-12.6522,-16.6224,-14.3417,-12.0807,-7.0636,-12.6206,-12.0476,-7.3493,-12.8826,-5.9428
2351.5625,-10.4980,-10.2667,-10.0545,-10.4118,-12.9315,-7.0573,-9.2918,-7.6143,-12.6277,-7.5649,-11.9802,-11.1516,-13.6746,-10.2324,-9.8867,-9.0351,-8.7651,-11.0924,-8.1840
2355.4688,-7.8096,-9.0693,-10.3646,-12.5824,-15.6192,-4.3461,-8.7703,-11.1617,-9.6763,-2.7693,-7.6553,-7.9249,-13.5982,-11.8532,-6.5204,-6.7650,-9.2978,-9.1626,-9.3829
2359.3750,-5.3969,-8.6566,-10.0560,-13.2157,-16.6634,-2.6782,-7.6217,-13.7397,-6.8529,0.6529,-4.2564,-5.1660,-12.1851,-12.0943,-2.8329,-5.2379,-8.9650,-7.3753,-9.7191
2363.2812,-3.5582,-8.6189,-9.5286,-12.9784,-16.7517,-2.6921,-6.8266,-15.6368,-4.4317,2.1383,-1.9585,-3.0309,-9.9793,-11.5017,0.5650,-3.9003,-7.9646,-5.8770,-9.5303
2367.1875,-2.2996,-8.2807,-8.8895,-12.5241,-16.5516,-3.9642,-6.9513,-16.9536,-2.4496,1.9283,-0.4601,-1.2938,-7.4244,-10.6883,3.0808,-2.0833,-6.5306,-4.5873,-9.0194
2371.0938,-1.3337,-6.9732,-7.8733,-12.1323,-16.2826,-5.2504,-7.8415,-17.5042,-0.6592,0.9548,0.8492,0.4772,-4.6910,-9.9748,4.5076,0.5286,-4.8107,-3.2426,-8.1339
2375.0000,-0.2802,-4.3726,-6.1282,-11.6499,-15.6042,-5.2887,-8.7641,-16.9671,1.3182,0.3432,2.5631,2.6423,-1.6973,-9.1702,5.1663,3.6755,-2.8296,-1.5647,-6.6629
2378.9062,1.0579,-0.7387,-3.6118,-10.6806,-13.8594,-3.6226,-8.8795,-15.1408,3.7085,0.8057,4.9266,5.2799,1.7303,-7.6283,5.6980,6.6542,-0.5416,0.5524,-4.4420
2382.8125,2.5511,3.1179,-0.7514,-8.8385,-10.4945,-0.8729,-7.7285,-12.1071,6.3697,2.2919,7.6887,8.1600,5.6765,-4.5776,6.6355,8.7033,2.0786,2.9626,-1.5028
2386.7188,3.8578,6.1859,1.7840,-5.9077,-5.4014,1.7232,-5.4448,-8.1993,8.8302,4.1114,10.2438,10.8935,10.0303,0.4369,8.0516,9.4050,4.9720,5.3571,1.9308
2390.6250,4.7203,7.7643,3.5365,-1.8813,0.9925,3.1682,-2.6063,-3.8378,10.5901,5.4352,11.9956,13.1349,14.4819,7.2344,9.5304,8.8838,7.9903,7.4604,5.5671
2394.5312,5.2066,7.8387,4.5843,3.0489,7.8821,3.3393,0.1231,0.6132,11.4801,5.8296,12.7217,14.6997,18.5910,14.9727,10.4718,7.7095,10.9303,9.1914,9.1764
2398.4375,5.6839,7.0699,5.4710,8.4800,14.3549,2.9625,2.3052,4.8557,11.7960,5.4656,12.6926,15.5325,21.8764,22.4267,10.5007,6.5767,13.5632,10.6638,12.6182
2402.3438,6.5113,6.3704,6.7720,13.7738,19.6170,2.9747,3.8183,8.5592,12.0641,4.8884,12.4457,15.5803,23.8968,28.4133,9.6741,5.9360,15.6349,12.0161,15.7512
2406.2500,7.6720,6.3150,8.6024,18.1051,23.1047,3.7599,4.7331,11.2863,12.5695,4.5425,12.3459,14.6899,24.3191,32.1411,8.3445,5.7627,16.8559,13.1836,18.3073
2410.1562,8.6410,6.7639,10.4225,20.6415,24.5087,4.8191,5.1273,12.5649,12.9885,4.4133,12.2276,12.6252,22.9792,33.3334,6.7989,5.5707,16.9294,13.7822,19.8415
2414.0625,8.6298,6.9496,11.2880,20.8167,23.7764,5.0977,4.9961,12.1027,12.4369,4.0384,11.3816,9.2098,19.9316,32.1303,4.9715,4.6606,15.6472,13.2130,19.8291
2417.9688,7.0755,5.9878,10.3891,18.5627,21.1249,3.7251,4.3063,10.0017,9.9778,2.8663,8.9446,4.5135,15.4733,28.8973,2.4793,2.4894,13.0271,10.9596,17.8880
2421.8750,4.0509,3.4898,7.5410,14.3665,17.0334,0.6503,3.1157,6.7986,5.3010,0.6906,4.4819,-1.0238,10.1295,24.0949,-1.0103,-1.0068,9.4157,6.9314,14.0276
2425.7812,0.3165,-0.1103,3.3431,9.1077,12.1684,-3.2371,1.6352,3.2637,-0.8671,-2.1406,-1.5821,-6.6046,4.5960,18.2668,-5.3277,-5.2868,5.4723,1.6637,8.7949
2429.6875,-3.0196,-3.7164,-1.0564,3.7638,7.2292,-6.5423,0.1742,0.0571,-6.9235,-4.8647,-7.9597,-11.2293,-0.3589,12.0796,-9.5986,-9.3452,2.0004,-3.7469,3.2189
2433.5938,-5.0100,-6.1169,-4.4364,-0.8746,2.7614,-8.0496,-0.9933,-2.5523,-11.0704,-6.6693,-12.9568,-13.9544,-4.0372,6.2872,-12.4823,-12.0745,-0.3273,-7.9733,-1.4713
2437.5000,-5.2344,-6.5891,-5.9774,-4.3658,-0.9824,-7.2501,-1.7435,-4.7353,-12.1472,-7.0403,-15.1673,-14.1833,-5.9930,1.5474,-12.7636,-12.6992,-1.2358,-9.9317,-4.2812
2441.4062,-3.8506,-5.2245,-5.5475,-6.6399,-4.0760,-4.4739,-2.1247,-6.9007,-10.1529,-5.9087,-14.0620,-11.9074,-6.2162,-1.8481,-9.9855,-11.0932,-0.9844,-9.2118,-4.8726
2445.3125,-1.3897,-2.8322,-3.7322,-7.9301,-6.8425,-0.6565,-2.2887,-9.3797,-6.1924,-3.5853,-10.1953,-7.8003,-5.2323,-4.1635,-4.7712,-7.8354,-0.2921,-6.2808,-3.7721
2449.2188,1.5053,-0.5162,-1.6179,-8.6630,-9.7037,3.0641,-2.3911,-12.1885,-1.9170,-0.5968,-4.9573,-3.0861,-4.0145,-6.1617,1.3487,-3.9756,-0.0599,-2.3546,-2.2176
2453.1250,4.2343,0.8281,-0.3909,-9.3219,-13.0044,5.7224,-2.5246,-14.9897,1.2146,2.4645,-0.0095,0.8324,-3.6598,-8.7623,6.5285,-0.6164,-0.9892,1.0440,-1.6469
2457.0312,6.2841,0.8614,-0.8538,-10.2745,-16.8493,6.7802,-2.7094,-17.2376,2.4799,5.0496,3.3315,2.8807,-4.9065,-12.5521,9.3376,1.4999,-3.2470,2.6855,-3.0245
2460.9375,7.2699,-0.1207,-3.0288,-11.5940,-20.9873,6.2452,-2.9187,-18.3974,2.0324,6.7587,4.5075,2.7381,-7.7095,-17.3954,9.2935,2.2209,-6.3314,2.1441,-6.3284
2464.8438,7.0524,-1.3680,-6.0547,-12.9547,-24.7865,4.6434,-3.1083,-18.1214,0.6541,7.4566,3.7845,0.9548,-11.1216,-22.3611,6.9664,1.9425,-9.2173,-0.0260,-10.4839
2468.7500,5.8711,-2.0179,-8.5049,-13.6978,-27.3458,2.8252,-3.2357,-16.3329,-0.6927,7.3317,1.9844,-1.3364,-13.6136,-26.0244,3.6305,1.3421,-10.7500,-2.5564,-13.8185
2472.6562,4.3394,-1.4719,-9.0473,-13.0902,-27.7516,1.6251,-3.2715,-13.2314,-1.2945,6.8079,0.0341,-2.9876,-13.7315,-27.0109,0.6372,1.0270,-10.1287,-4.0691,-14.8300
2476.5625,3.2063,0.3288,-7.1333,-10.6815,-25.4124,1.4970,-3.2097,-9.2571,-0.9371,6.3016,-1.4471,-3.3793,-10.7770,-24.5293,-1.1878,1.2637,-7.2671,-3.7283,-12.8729
2480.4688,2.9710,2.8536,-3.3121,-6.5742,-20.3328,2.3163,-3.0666,-5.0197,0.0888,5.9582,-2.3267,-2.6335,-5.1537,-18.6629,-1.8365,1.9001,-2.8526,-1.6035,-8.4042
2484.3750,3.6000,5.2177,1.0560,-1.4486,-13.1820,3.4879,-2.8586,-1.1748,1.2035,5.5669,-2.8364,-1.3882,1.8084,-10.3165,-1.9603,2.4963,1.9349,1.4442,-2.6775
2488.2812,4.5674,6.6366,4.5586,3.6870,-5.0943,4.3205,-2.5644,1.7536,1.8798,4.7572,-3.2455,-0.2980,8.4486,-0.8799,-2.3558,2.5865,5.9125,4.2768,2.9099
2492.1875,5.2295,6.8822,6.5096,7.8948,2.7175,4.4453,-2.1017,3.5491,1.9577,3.3698,-3.5510,0.4000,13.4587,8.2241,-3.3892,1.9443,8.3562,6.0915,7.4345
2496.0938,5.2861,6.4696,7.2562,10.6501,9.3522,4.0136,-1.3479,4.3805,1.7655,1.7251,-3.4000,0.9754,16.2966,15.9233,-4.7076,0.7277,9.2122,6.7820,10.7006
2500.0000,4.9945,6.4050,7.8156,11.9627,14.4229,3.5557,-0.2076,4.7080,1.9554,0.5500,-2.3126,1.9141,17.1649,21.6938,-5.4299,-0.5672,8.9814,6.8630,13.0570
2503.9062,4.9634,7.5788,9.0852,12.2441,17.9911,3.6141,1.3107,5.0307,3.1054,0.5555,-0.0717,3.4763,16.6572,25.5383,-4.7231,-1.3293,8.3721,7.0446,14.9631
2507.8125,5.6596,10.1407,11.1585,12.0164,20.3070,4.4112,3.0599,5.5922,5.2991,1.9313,2.9867,5.4262,15.3453,27.7949,-2.4079,-1.1349,7.9306,7.7426,16.6099
2511.7188,6.9855,13.2592,13.2051,11.6161,21.5283,5.7602,4.7829,6.2049,7.9485,4.1213,6.0026,7.1152,13.5533,28.8653,0.8056,0.0148,7.8349,8.8221,17.8029
2515.6250,8.2501,15.4741,13.9840,11.0244,21.5815,7.2290,6.1809,6.3005,10.0090,6.0741,7.9606,7.8478,11.3810,28.9716,3.6390,1.6512,7.9147,9.6974,18.1146
2519.5312,8.5797,15.4849,12.6310,9.8786,20.2225,8.3876,6.9712,5.1932,10.5064,6.8325,8.1893,7.2652,8.8637,28.0342,4.9515,3.0357,7.8241,9.6848,17.1461
2523.4375,7.4941,12.9172,9.1925,7.6532,17.2314,8.9496,6.9107,2.4275,9.0788,6.0782,6.6882,5.4976,6.0899,25.7257,4.3929,3.5171,7.2304,8.3744,14.7234
2527.3438,5.2499,8.5859,4.5739,3.9420,12.6102,8.7536,5.8087,-1.9629,6.2014,4.2708,4.0850,3.0200,3.1924,21.6821,2.5833,2.8690,5.9228,5.8160,10.9520
2531.2500,2.7031,4.0645,-0.0169,-1.2594,6.6760,7.6897,3.5784,-7.4024,2.9383,2.2943,1.2645,0.3546,0.2621,15.7754,0.6948,1.4155,3.8335,2.4579,6.1720
2535.1562,0.7784,0.8045,-3.7261,-7.3944,0.0169,5.7134,0.3433,-12.9391,0.3575,0.8621,-1.0888,-2.1601,-2.6997,8.3042,-0.2984,-0.1460,1.0248,-1.0764,0.8908
2539.0625,-0.1058,-0.6611,-6.3815,-13.4108,-6.6482,2.9681,-3.4616,-17.5360,-1.0410,0.0849,-2.7586,-4.4063,-5.7237,-0.0127,-0.2186,-1.1453,-2.3111,-4.2317,-4.2783
2542.9688,-0.2781,-0.9427,-8.3321,-18.0730,-12.6374,-0.1089,-7.0978,-20.3595,-1.5416,-0.5278,-3.9501,-6.3695,-8.7560,-8.2547,0.2477,-1.3357,-5.8481,-6.6794,-8.7088
2546.8750,-0.5742,-1.3183,-9.9871,-20.4167,-17.4448,-2.8580,-9.7130,-20.9641,-1.9531,-1.6648,-5.0158,-8.0076,-11.5907,-15.6201,0.0454,-1.0418,-9.1645,-8.3583,-11.9140
2550.7812,-1.7782,-2.8659,-11.4182,-20.1348,-20.8191,-4.6715,-10.6690,-19.3400,-3.0477,-3.7013,-6.1642,-9.2097,-13.9219,-21.6663,-1.5188,-0.9457,-11.8476,-9.4134,-13.7145
2554.6875,-4.1015,-5.7532,-12.2930,-17.6797,-22.7664,-5.3039,-9.8462,-15.8498,-5.0469,-6.4089,-7.3261,-9.8365,-15.4718,-26.3236,-4.2712,-1.6223,-13.6251,-10.0653,-14.3021
2558.5938,-7.0101,-9.1139,-12.1424,-14.0069,-23.4740,-4.9824,-7.7361,-11.1108,-7.4566,-9.0398,-8.2115,-9.7581,-16.0824,-29.6738,-7.1922,-3.1094,-14.4377,-10.4498,-14.1042
2562.5000,-9.4823,-11.5643,-10.7347,-10.0872,-23.1701,-4.2116,-5.2341,-5.8636,-9.3240,-10.6911,-8.4644,-8.8339,-15.6853,-31.6396,-8.9284,-4.7990,-14.3916,-10.4904,-13.4840
2566.4062,-10.5256,-12.0153,-8.2875,-6.4697,-21.9724,-3.4128,-3.2180,-0.8502,-9.7446,-10.7147,-7.8037,-6.8796,-14.1853,-31.8046,-8.4867,-5.7531,-13.6144,-9.8838,-12.4539
2570.3125,-9.6557,-10.2744,-5.3971,-3.1548,-19.8051,-2.6815,-2.1398,3.2957,-8.3188,-8.9676,-6.1010,-3.7212,-11.3907,-29.5184,-5.7304,-5.2702,-12.1227,-8.2513,-10.6213
2574.2188,-7.0939,-7.0956,-2.7626,0.1582,-16.4510,-1.8648,-1.8586,6.1412,-5.3242,-5.8302,-3.4216,0.6244,-7.1092,-24.2624,-1.4503,-3.3510,-9.8130,-5.4096,-7.4536
2578.1250,-3.6185,-3.6912,-0.8950,3.6286,-11.7407,-0.8857,-1.8052,7.5105,-1.5465,-2.0461,-0.0549,5.7406,-1.3962,-16.0785,2.9840,-0.7473,-6.6025,-1.6122,-2.7291
2582.0312,-0.1872,-1.0455,0.0302,6.9517,-5.7910,-0.0108,-1.3765,7.4813,2.0993,1.5276,3.4936,10.7633,5.2107,-5.7942,6.2020,1.4656,-2.6260,2.4220,3.1178
2585.9375,2.4602,0.5459,0.1434,9.3854,0.8462,0.2270,-0.3272,6.3123,4.9445,4.1874,6.6111,14.6236,11.6771,5.1211,7.3875,2.5402,1.6623,5.7706,9.0141
2589.8438,4.0356,1.4690,-0.2584,10.1219,7.2400,-0.5346,1.0608,4.3221,6.7629,5.6114,8.8013,16.5089,16.7646,15.0272,6.6051,2.5146,5.5833,7.7452,13.6636
2593.7500,4.6999,2.3860,-0.8586,8.7609,12.3474,-2.0118,2.1167,1.7714,7.7287,5.9762,9.9271,16.2802,19.5090,22.6775,4.7751,2.1658,8.4891,8.2425,16.1291
2597.6562,4.8702,3.7343,-1.4204,5.5740,15.3730,-3.1851,2.1389,-1.1942,8.2007,5.8822,10.3017,14.5574,19.6122,27.5812,3.2898,2.4664,10.0269,7.7613,16.2294
2601.5625,4.9648,5.4515,-1.8286,1.3910,16.0384,-2.7876,0.7766,-4.5140,8.4657,6.0637,10.5086,12.3692,17.5066,29.9815,3.3856,3.8866,10.2456,7.0429,14.5061
2605.4688,5.2123,7.0616,-2.0943,-2.8099,14.6211,-0.1263,-1.7619,-8.1139,8.5726,6.9855,11.0101,10.5551,14.0497,30.4875,5.5141,5.9999,9.4807,6.5505,11.7965
2609.3750,5.5966,8.0104,-2.3245,-6.3424,11.7522,4.3083,-4.7703,-11.8058,8.3315,8.5339,11.7742,9.2835,10.0418,29.5909,9.0133,7.6669,8.1023,6.1354,8.7007
2613.2812,5.9246,7.9972,-2.6558,-9.0130,8.0979,8.9154,-7.3347,-15.2470,7.4588,10.0084,12.1881,7.9954,5.8706,27.3592,12.2958,7.6964,6.3019,5.1327,5.2967
2617.1875,5.9492,7.0944,-3.1552,-10.9906,4.1158,11.7763,-8.7099,-17.9864,5.7843,10.4586,11.3632,5.8087,1.4974,23.4815,13.5363,5.5677,4.0572,2.8452,1.2842
2621.0938,5.4729,5.6257,-3.7257,-12.4720,0.0154,11.7090,-8.6008,-19.5676,3.4030,9.1975,8.6771,2.1318,-3.2355,17.6277,11.5564,1.7532,1.2852,-0.8930,-3.5505
2625.0000,4.4009,3.9448,-4.0710,-13.3914,-4.0805,8.9275,-7.2259,-19.6338,0.6919,6.1946,4.2259,-2.8929,-8.2078,9.8951,6.4541,-2.5564,-1.9376,-5.4485,-8.8753
2628.9062,2.7594,2.2979,-3.7607,-13.3752,-7.9157,4.8921,-5.1423,-17.9925,-1.8135,2.1173,-1.1033,-8.3663,-12.8241,1.0566,-0.3774,-6.1350,-5.2563,-9.6001,-13.6905
2632.8125,0.7133,0.8520,-2.3974,-11.9686,-11.0012,1.4629,-2.9391,-14.6459,-3.6100,-1.9906,-5.9899,-13.0160,-16.1673,-7.5631,-6.8656,-8.3568,-8.1138,-12.1030,-16.6651
2636.7188,-1.4150,-0.1899,0.1728,-8.9828,-12.7402,-0.0964,-0.9668,-9.8179,-4.3834,-5.1795,-9.2540,-15.7380,-17.4211,-14.5418,-11.1777,-9.3849,-9.9847,-12.2630,-16.7651
2640.6250,-3.1647,-0.5387,3.6993,-4.7384,-12.7248,0.3406,0.7498,-3.9904,-4.0602,-6.9343,-10.3123,-16.0007,-16.3016,-18.9155,-12.4516,-9.8254,-10.6233,-10.1883,-13.8155
2644.5312,-4.0430,0.0711,7.5111,-0.0411,-11.0216,1.9388,2.3823,2.0931,-2.7579,-7.2249,-9.2890,-13.9452,-13.2327,-20.5385,-10.9837,-10.1252,-10.1724,-6.6176,-8.6633
2648.4375,-3.7155,1.6723,10.6951,4.1156,-8.2487,3.5739,4.0558,7.5299,-0.6969,-6.3242,-6.7889,-10.2097,-9.1545,-20.0559,-7.8627,-10.1560,-9.0684,-2.4838,-2.8268
2652.3438,-2.2007,3.9279,12.4311,6.9733,-5.3560,4.5008,5.6676,11.4979,1.8553,-4.5854,-3.5381,-5.6356,-5.0783,-18.5097,-4.3454,-9.2786,-7.7990,1.4946,2.1889
2656.2500,0.0554,6.2084,12.3498,8.3333,-3.2088,4.6057,6.8983,13.5616,4.5826,-2.3450,-0.1266,-1.0137,-1.6473,-16.7971,-1.3510,-6.8437,-6.6567,4.9751,5.5422
2660.1562,2.3070,7.8688,10.7286,8.6015,-2.2039,4.1831,7.4052,13.8703,7.0993,0.0344,3.0447,3.0530,1.0499,-15.2782,0.7114,-2.7806,-5.6281,7.8832,7.3172
2664.0625,3.7997,8.5433,8.3826,8.5115,-2.1454,3.5150,7.0561,13.0796,8.9665,2.1029,5.6763,6.1768,3.3251,-13.7302,1.8277,2.1303,-4.4737,10.1807,8.2631
2667.9688,4.0779,8.2469,6.2552,8.6581,-2.4523,2.6167,6.0231,11.9701,9.7782,3.3721,7.4881,8.1539,5.5151,-11.6395,2.1764,6.4978,-2.9424,11.6979,9.1783
2671.8750,3.1373,7.2109,4.9016,9.0918,-2.5621,1.3189,4.6614,10.9445,9.2865,3.4862,8.2345,8.9135,7.6360,-8.6240,2.0018,8.9387,-0.9826,12.1336,10.3148
2675.7812,1.3457,5.5957,4.1655,9.2193,-2.2700,-0.4370,3.2612,9.7181,7.5035,2.4018,7.7976,8.4805,9.2951,-4.7118,1.5782,8.7225,1.1834,11.2023,11.1737
2679.6875,-0.7973,3.3365,3.2807,8.1065,-1.7842,-2.3715,1.8592,7.4460,4.7215,0.4313,6.2647,6.9712,9.9262,-0.3097,1.1693,6.0926,3.1784,8.8324,10.8299
2683.5938,-2.8945,0.2845,1.3842,5.0506,-1.4737,-3.9149,0.2554,3.2799,1.4461,-1.8942,3.9185,4.6299,9.2036,4.0902,0.9199,2.1259,4.7123,5.3067,8.5949
2687.5000,-4.7406,-3.4412,-1.8505,0.1087,-1.5015,-4.5091,-1.7744,-2.9534,-1.7287,-4.0503,1.1460,1.8723,7.3633,8.2411,0.7327,-1.7563,5.7944,1.2755,4.5996
2691.4062,-6.2519,-7.1871,-5.8746,-5.7472,-1.6194,-3.9473,-4.2347,-10.3809,-4.2586,-5.6845,-1.6650,-0.7307,5.1960,12.2547,0.2666,-4.3650,6.7563,-2.3868,-0.0960
2695.3125,-7.3460,-9.8769,-9.4803,-10.9872,-1.2955,-2.5199,-6.8184,-17.2991,-5.7765,-6.6406,-4.1901,-2.5978,3.6678,16.3969,-0.8723,-5.1595,8.0337,-4.8637,-3.9850
2699.2188,-7.9070,-10.5387,-11.4807,-14.2300,-0.1003,-0.8812,-9.0360,-21.9005,-6.1988,-6.8902,-6.1912,-3.3916,3.3600,20.6961,-2.8357,-4.3735,9.8104,-5.7381,-5.9256
2703.1250,-7.8800,-8.9571,-11.4323,-14.9098,1.9193,0.2618,-10.4606,-23.1039,-5.7869,-6.4888,-7.5408,-3.2591,4.0632,24.6510,-5.3436,-2.8487,11.7449,-5.2435,-5.7958
2707.0312,-7.4080,-5.9992,-9.9176,-13.5082,4.1678,0.4494,-10.9063,-21.0006,-5.1159,-5.6217,-8.2679,-2.8681,4.7974,27.2860,-7.7701,-1.6576,12.9898,-4.2576,-4.5669
2710.9375,-6.8679,-3.3167,-8.1764,-11.2027,5.8208,-0.3834,-10.4269,-16.6668,-4.9060,-4.6781,-8.5863,-3.1331,4.3014,27.5875,-9.4767,-1.6445,12.5608,-3.9510,-3.7205
2714.8438,-6.7234,-2.5215,-7.3110,-9.1397,6.3526,-1.9328,-9.1777,-11.4894,-5.7294,-4.2134,-8.8374,-4.7125,1.7502,25.0884,-10.1712,-3.0390,9.8943,-5.1938,-4.3428
2718.7500,-7.2582,-4.2941,-7.5880,-7.7715,5.9196,-3.6635,-7.2962,-6.4500,-7.6998,-4.7204,-9.3228,-7.5502,-2.6964,20.2387,-10.0290,-5.3111,5.2805,-8.0080,-6.4424
2722.6562,-8.3619,-7.9653,-8.3021,-6.6590,5.3201,-4.9854,-4.9144,-1.8059,-10.3126,-6.2989,-10.0973,-10.7704,-7.8395,14.3018,-9.4869,-7.3755,-0.1123,-11.4075,-8.9121
2726.5625,-9.5239,-11.8393,-8.2854,-4.8487,5.5222,-5.4336,-2.2767,2.6872,-12.5697,-8.4509,-10.8592,-13.0514,-11.9376,8.7961,-8.8654,-8.1081,-4.6895,-13.7917,-10.1552
2730.4688,-10.0649,-14.0695,-6.7050,-1.5687,7.0410,-4.8304,0.1953,7.2407,-13.3819,-10.2072,-11.0469,-13.3061,-13.5000,4.7904,-8.1138,-6.9473,-7.1478,-13.7418,-8.9938
2734.3750,-9.4789,-13.5761,-3.6060,3.1972,9.5589,-3.3775,2.0201,11.6069,-12.0785,-10.5905,-10.1243,-11.2750,-11.9544,2.4593,-6.8783,-4.2456,-7.0703,-10.7905,-5.3113
2738.2812,-7.6894,-10.4919,0.1452,8.6092,12.0331,-1.6005,2.9310,15.0706,-8.7606,-9.1697,-7.9012,-7.6623,-7.8424,1.1566,-4.8427,-1.1258,-5.0611,-5.7098,-0.0671
2742.1875,-5.0796,-5.9450,3.4370,13.3801,13.2296,-0.1116,3.1029,16.8479,-4.2951,-6.3510,-4.6920,-3.7179,-2.4653,-0.0579,-2.0743,1.1310,-2.3448,-0.1236,5.2782
2746.0938,-2.2998,-1.3876,5.5759,16.4212,12.3594,0.7268,3.1136,16.5873,0.0655,-3.1823,-1.1978,-0.5206,2.7931,-1.7752,0.9018,1.8309,-0.0671,4.3394,9.5381
2750.0000,0.0252,2.0955,6.5887,17.3307,9.4429,1.0412,3.5938,14.6098,3.2454,-0.7555,1.8297,1.5922,7.0797,-3.8800,3.3765,1.2843,1.2930,6.8520,12.3016
2753.9062,1.5323,4.1330,7.0086,16.4657,5.2173,1.3992,4.7712,11.7219,4.7993,0.4350,3.9500,3.1041,10.3053,-5.6817,4.8893,0.6082,2.0666,7.6836,13.9045
2757.8125,2.2032,4.9780,7.3694,14.6172,0.6928,2.4404,6.2417,8.7436,5.0283,0.7721,5.2162,4.8870,12.9220,-6.4209,5.5158,1.0150,3.0423,7.8473,14.9685
2761.7188,2.2967,5.1584,7.8118,12.5311,-3.3435,4.3890,7.1724,6.0762,4.7264,1.2469,6.0840,7.5625,15.4339,-5.7984,5.8132,3.0426,4.8686,8.3650,15.8623
2765.6250,2.1990,5.1388,8.0682,10.5711,-6.5815,6.7771,6.8457,3.5908,4.7199,2.8103,7.1236,11.0772,17.9638,-4.1757,6.4784,6.2313,7.5982,9.6369,16.4415
2769.5312,2.2745,5.1655,7.7812,8.6793,-9.0970,8.6175,5.1845,0.8766,5.4621,5.7559,8.7118,14.7431,20.1331,-2.3216,7.9600,9.4648,10.6493,11.2892,16.2056
2773.4375,2.7624,5.2942,6.8603,6.5919,-11.0403,8.9746,2.8852,-2.3470,6.8820,9.5226,10.8689,17.6755,21.3066,-0.8861,10.2723,11.7316,13.1805,12.5322,14.7247
2777.3438,3.7308,5.4889,5.5939,4.1315,-12.3473,7.5871,1.0363,-5.9416,8.5242,13.0240,13.2973,19.3125,21.0285,0.0440,13.0767,12.7711,14.6118,12.7311,12.0351
2781.2500,5.0744,5.6871,4.4496,1.3950,-12.6690,5.1154,0.4586,-9.3563,9.8517,15.2708,15.5485,19.6733,19.3685,1.0092,15.9036,13.1484,14.9468,11.7904,8.7451
2785.1562,6.5430,5.8051,3.7463,-1.2473,-11.5545,2.8064,1.2010,-11.8954,10.5123,15.8765,17.1945,19.2205,16.9582,2.8185,18.3153,13.7158,14.6980,10.1315,5.7933
2789.0625,7.7891,5.7255,3.4565,-3.3073,-8.7594,1.7567,2.5258,-13.0556,10.4236,15.1399,17.9104,18.4591,14.6845,5.9982,19.9208,14.8652,14.4832,8.3397,4.0067
2792.9688,8.4360,5.3077,3.2677,-4.3911,-4.4878,2.2449,3.3869,-12.7317,9.6679,13.7005,17.4687,17.5677,13.2185,10.3990,20.3204,16.1315,14.5788,6.7718,3.7099
2796.8750,8.1686,4.4323,2.8248,-4.3641,0.5783,3.5796,3.0770,-11.2047,8.3140,12.0507,15.7201,16.3055,12.6573,15.2078,19.1392,16.4580,14.7303,5.3971,4.5902
2800.7812,6.8437,3.0540,1.9570,-3.4069,5.4840,4.5681,1.6268,-8.9705,6.3234,10.2670,12.6347,14.2399,12.5003,19.3489,16.2246,14.9474,14.3472,3.9475,5.8768
2804.6875,4.6001,1.2458,0.7479,-1.9492,9.3435,4.2904,-0.2765,-6.5354,3.6242,8.1374,8.4117,11.1244,11.9816,22.0206,11.9055,11.5617,12.9488,2.2250,6.7319
2808.5938,1.9109,-0.7747,-0.5492,-0.5105,11.6548,2.6563,-1.7594,-4.2858,0.3046,5.5578,3.5778,7.1711,10.5655,23.0394,7.0870,7.2611,10.5610,0.3252,6.6545
2812.5000,-0.4912,-2.6482,-1.6421,0.4844,12.4368,0.3831,-2.2929,-2.4568,-3.2291,2.8599,-1.0416,3.0381,8.3019,22.8008,3.0167,3.4678,7.7929,-1.3809,5.6983
2816.4062,-1.8515,-3.9343,-2.2871,0.8388,12.1229,-1.5524,-1.9563,-1.1634,-6.2865,0.7769,-4.5402,-0.4597,5.8147,21.9114,0.7657,1.2210,5.5251,-2.4798,4.3997
2820.3125,-1.7365,-4.2558,-2.3304,0.6058,11.2646,-2.5729,-1.3103,-0.4402,-8.1540,0.0224,-6.2787,-2.7455,3.9201,20.7482,0.6974,0.6083,4.3980,-2.7917,3.4560
2824.2188,-0.3178,-3.4979,-1.7595,-0.0024,10.2037,-2.7969,-1.0081,-0.2609,-8.4571,0.7600,-6.1902,-3.7480,3.1103,19.2314,2.2538,0.8477,4.4160,-2.5042,3.3216
2828.1250,1.5996,-1.9556,-0.7745,-0.7548,8.8977,-2.7927,-1.4053,-0.5407,-7.3964,2.3611,-4.8512,-3.8916,3.2345,16.9420,4.2296,0.9323,4.9237,-2.0788,3.9442
2832.0312,2.9024,-0.2969,0.1948,-1.4978,7.0097,-3.0216,-2.3871,-1.1368,-5.6779,3.6784,-3.2317,-3.8215,3.5915,13.4899,5.4117,0.3501,4.9753,-1.9887,4.7949
2835.9375,2.7347,0.7130,0.6256,-2.1537,4.2182,-3.4243,-3.4722,-1.8594,-4.1418,3.7106,-2.2226,-4.0249,3.3806,8.8745,5.2181,-0.6312,3.8759,-2.4396,5.1822
2839.8438,1.0064,0.6200,0.1912,-2.6472,0.5548,-3.4732,-4.0954,-2.4978,-3.2982,2.2423,-2.1943,-4.5698,2.2151,3.5937,3.9601,-1.2913,1.5636,-3.2256,4.6725
2843.7500,-1.4802,-0.4143,-0.9581,-2.8491,-3.4614,-2.6387,-3.9024,-2.8626,-3.0624,0.0250,-2.8442,-5.1106,0.3543,-1.5742,2.5660,-1.1121,-1.3922,-3.7963,3.3601
2847.6562,-3.4171,-1.6319,-2.1528,-2.6175,-7.0129,-0.8905,-2.9159,-2.8386,-2.8712,-1.6550,-3.4383,-5.1494,-1.5039,-5.9748,1.9405,-0.2500,-4.1597,-3.5104,1.8128
2851.5625,-3.7036,-2.0609,-2.5132,-1.9225,-9.4031,1.1722,-1.5104,-2.4306,-2.1158,-1.7670,-3.3080,-4.3907,-2.7249,-9.4023,2.3588,0.5365,-6.1322,-1.9633,0.7209
2855.4688,-2.0711,-1.0620,-1.4758,-0.9506,-10.4410,2.6770,-0.2239,-1.7716,-0.6057,-0.1824,-2.2960,-2.9668,-3.1781,-12.1273,3.2800,0.4474,-7.2181,0.7630,0.4687
2859.3750,0.7649,1.2871,0.7923,-0.0677,-10.5241,3.0578,0.5014,-1.0714,1.2538,2.2385,-0.8663,-1.3887,-3.3006,-14.6033,3.7035,-0.7342,-7.7632,4.0538,0.9083
2863.2812,3.5255,4.2063,3.3964,0.3851,-10.3381,2.4201,0.5243,-0.5163,2.6998,4.1722,0.1896,-0.2539,-3.7320,-17.0354,2.8450,-2.4245,-8.1818,6.9642,1.4835
2867.1875,5.0950,6.6102,5.1756,0.3405,-10.3546,1.4241,0.0475,-0.1706,3.1107,4.6150,0.2593,0.1050,-4.7823,-19.0966,0.7015,-3.6037,-8.5716,8.5994,1.6203
2871.0938,5.0944,7.6386,5.3470,0.1058,-10.4621,0.7820,-0.5343,0.0516,2.4221,3.4130,-0.7066,-0.1988,-6.1214,-19.9897,-1.8728,-3.5134,-8.5893,8.5011,1.1188
2875.0000,3.9621,7.0061,3.9179,0.1918,-9.9964,0.7562,-0.9022,0.3125,1.1714,1.2200,-2.1775,-0.7096,-6.9333,-18.8442,-3.6497,-2.1935,-7.6796,6.8472,0.2845
2878.9062,2.5395,5.0135,1.6000,0.9402,-8.1746,1.0222,-1.0355,0.7115,0.1411,-1.0332,-3.3876,-0.9451,-6.4508,-15.2275,-3.7827,-0.4796,-5.5037,4.3504,-0.2894
2882.8125,1.4849,2.2918,-0.6934,2.1916,-4.6647,0.9706,-1.2351,1.1733,-0.1498,-2.7481,-3.7951,-0.7120,-4.5104,-9.4707,-2.3576,0.5450,-2.2735,1.8975,-0.1338
2886.7188,0.9218,-0.5034,-2.4110,3.2504,0.0787,0.1830,-1.9125,1.4493,0.2468,-3.9160,-3.3482,-0.2142,-1.7471,-2.6182,-0.3722,0.2698,1.2378,0.1150,0.7623
2890.6250,0.5182,-2.8722,-3.6079,3.2271,4.9290,-1.2873,-3.2754,1.2444,0.8036,-4.8820,-2.4086,0.1017,0.7114,3.9725,0.8623,-1.0372,4.0233,-0.9027,1.9105
2894.5312,-0.1237,-4.5039,-4.7453,1.5714,8.5828,-3.0198,-5.1275,0.3919,0.9286,-5.8511,-1.4344,-0.1585,1.8501,9.1547,0.5318,-2.4063,5.3024,-1.5600,2.5825
2898.4375,-1.0986,-5.2629,-6.2352,-1.5410,10.1348,-4.5820,-6.9410,-1.0448,0.3879,-6.5561,-0.6783,-1.1107,1.2841,12.3601,-1.1708,-2.8052,4.8404,-2.4504,2.1919
2902.3438,-2.1157,-5.2149,-8.0816,-5.2395,9.4065,-5.8131,-8.1727,-2.8174,-0.5537,-6.3705,-0.1149,-2.5724,-0.6245,13.6433,-3.1677,-1.8203,2.9650,-3.9594,0.5673
2906.2500,-2.7292,-4.6650,-9.8553,-8.4085,6.8946,-6.8061,-8.6085,-4.6547,-1.3460,-4.7925,0.3992,-4.2232,-3.0709,13.4381,-4.1717,0.0554,0.3220,-6.0111,-2.0107
2910.1562,-2.6688,-4.0962,-10.9751,-10.2793,3.4429,-7.6380,-8.4872,-6.4243,-1.5381,-1.9359,0.9095,-5.7935,-5.2851,12.2173,-3.4799,1.7013,-2.4367,-8.0935,-4.9701
2914.0625,-2.0151,-3.9495,-11.0583,-10.7914,-0.1265,-8.1280,-8.3028,-8.1750,-1.0470,1.3607,1.2983,-7.1337,-6.8601,10.2704,-1.3747,2.0308,-4.8466,-9.5323,-7.6721
2917.9688,-1.1197,-4.3446,-10.1007,-10.5063,-3.2344,-7.8865,-8.4195,-10.0258,-0.1435,3.9169,1.4214,-8.1487,-7.7681,7.6966,1.1104,0.6257,-6.6483,-9.8474,-9.5844
2921.8750,-0.3814,-4.9590,-8.4176,-10.1638,-5.5881,-6.6607,-8.7854,-11.9813,0.7821,4.8420,1.3032,-8.7117,-8.1566,4.5510,2.8746,-2.0329,-7.7170,-8.9994,-10.3839
2925.7812,-0.0784,-5.2247,-6.4688,-10.2003,-7.1367,-4.7085,-8.9680,-13.8113,1.4542,3.9914,1.1786,-8.6954,-8.1577,0.9928,3.4064,-4.8590,-8.0287,-7.4163,-10.0324
2929.6875,-0.3670,-4.7779,-4.7320,-10.5549,-8.0278,-2.8679,-8.5059,-15.0904,1.7566,1.9517,1.2936,-8.1414,-7.8799,-2.6905,2.9712,-6.7956,-7.7098,-5.8158,-8.8457
2933.5938,-1.3847,-3.8656,-3.6773,-10.8603,-8.5679,-2.1992,-7.3318,-15.3820,1.5897,-0.4089,1.5962,-7.4271,-7.5502,-6.1863,2.2346,-7.4169,-7.0952,-4.9335,-7.4975
2937.5000,-3.2948,-3.3791,-3.7524,-10.8399,-9.1231,-3.4037,-5.9507,-14.4542,0.7146,-2.4934,1.5828,-7.2329,-7.6121,-9.2882,1.6277,-7.1580,-6.6767,-5.2765,-6.8637
2941.4062,-6.1752,-4.4030,-5.2603,-10.5883,-9.9303,-6.4025,-5.2186,-12.3949,-1.2173,-4.2562,0.4909,-8.2281,-8.5998,-11.9332,0.9409,-7.0460,-6.8979,-6.9772,-7.6798
2945.3125,-9.8193,-7.5151,-8.1310,-10.5203,-10.9015,-10.3561,-5.8359,-9.5662,-4.4093,-6.0484,-2.2184,-10.6096,-10.8003,-14.1049,-0.5387,-8.0786,-7.8920,-9.7608,-10.1353
2949.2188,-13.6295,-12.2822,-11.7499,-11.0280,-11.5750,-14.1001,-7.8717,-6.4399,-8.6035,-8.1816,-6.3793,-13.7942,-13.9152,-15.6795,-3.4260,-10.5818,-9.3404,-13.0040,-13.6356
2953.1250,-16.7472,-17.3097,-15.0439,-12.1062,-11.3160,-16.6960,-10.6256,-3.4242,-12.9572,-10.5434,-10.9816,-16.5177,-16.9952,-16.3500,-7.5956,-13.8991,-10.5806,-15.8626,-16.9273
2957.0312,-18.3892,-20.8563,-16.8761,-13.2356,-9.6957,-17.7628,-12.9213,-0.7766,-16.2621,-12.5362,-14.5170,-17.3647,-18.7639,-15.7218,-11.9713,-16.5978,-10.9287,-17.4572,-18.5941
2960.9375,-18.1987,-21.6604,-16.5689,-13.6261,-6.8209,-17.4465,-13.6703,1.3759,-17.4258,-13.3703,-15.6537,-15.4610,-18.1903,-13.5505,-14.9387,-17.1186,-10.0309,-17.0938,-17.6942
2964.8438,-16.3891,-19.4925,-14.2333,-12.6688,-3.3755,-16.1522,-12.3894,2.9622,-15.9554,-12.5050,-13.8654,-10.9318,-14.9886,-9.9821,-15.1647,-14.5581,-8.0260,-14.4761,-14.1964
