Time,Fp1,F3,C3,P3,O1,F7,T3,T5,Fz,Fp2,F4,C4,P4,O2,F8,T4,T6,Cz,Pz
0.0000,-1.4133,0.2358,1.5797,2.6136,2.9272,-2.2653,-2.4190,0.8773,0.1923,-1.7277,0.6636,1.1725,3.5329,3.1835,-2.0073,0.0908,3.4088,2.9337,3.7867
3.9062,2.4915,0.1638,1.5071,3.5687,6.6143,0.0304,-0.7593,2.6294,1.3760,0.1696,1.2542,2.1509,5.2162,6.9596,-2.2850,0.9261,5.3717,3.5593,4.5698
7.8125,7.5994,-0.1686,0.6961,3.5578,10.8391,3.1551,1.1610,4.1973,2.3397,2.9818,1.5518,2.4746,6.3659,11.0926,-1.9536,1.2566,7.1313,2.9896,4.4322
11.7188,11.8986,-0.7845,-0.9729,2.2227,14.6209,6.1587,2.5826,5.0700,2.3979,5.9859,1.2419,1.6550,6.2482,14.3708,-1.1506,0.6514,7.9325,0.8167,3.1137
15.6250,13.3322,-1.4931,-3.1646,-0.0182,17.2746,7.9713,2.9429,5.1857,1.2388,8.0784,0.2816,-0.2337,4.7314,16.0190,-0.3398,-0.8516,7.4571,-2.5207,0.9515
19.5312,10.9866,-1.9765,-5.1988,-2.1553,18.6151,7.9363,2.2167,4.9285,-0.7988,8.3169,-1.0279,-2.5235,2.4017,15.9976,0.0357,-2.6716,6.0187,-5.8676,-1.3009
23.4375,5.7184,-2.0257,-6.4050,-3.2078,18.8064,6.1261,0.9220,4.7929,-2.8454,6.4513,-2.1862,-4.3039,0.2099,14.8019,-0.1204,-3.9633,4.3375,-7.9706,-2.9290
27.3438,-0.2069,-1.7535,-6.4980,-2.8639,18.0289,3.2707,-0.2149,4.9617,-3.9751,3.1225,-2.7721,-4.9381,-1.1284,12.9587,-0.5176,-4.0994,3.0395,-8.2017,-3.6729
31.2500,-4.2804,-1.5909,-5.7205,-1.6912,16.2545,0.3729,-0.7053,5.1184,-3.7412,-0.4036,-2.6745,-4.4112,-1.5691,10.6233,-0.7520,-3.0460,2.2351,-6.9106,-3.8193
35.1562,-5.0387,-2.0138,-4.6588,-0.7632,13.2965,-1.7421,-0.5586,4.6378,-2.4280,-2.8226,-2.1278,-3.2896,-1.7169,7.5721,-0.6637,-1.3790,1.4842,-5.1739,-3.9238
39.0625,-2.7351,-3.1626,-3.8694,-0.9628,9.0629,-2.6998,-0.2029,3.0205,-0.8573,-3.3776,-1.5426,-2.3335,-2.3649,3.5630,-0.4746,0.0732,0.1736,-4.1115,-4.3902
42.9688,0.9494,-4.6323,-3.5779,-2.4404,3.7844,-2.5812,-0.1432,0.2621,0.1188,-2.1437,-1.2561,-2.0331,-3.9211,-1.2475,-0.5826,0.7194,-1.9703,-4.2266,-5.2179
46.8750,3.9243,-5.6247,-3.6350,-4.5747,-1.9683,-1.7375,-0.6046,-3.0895,0.1136,0.1088,-1.3664,-2.3607,-6.1053,-6.1669,-1.1709,0.5057,-4.6093,-5.1794,-6.0781
50.7812,4.8090,-5.4034,-3.7113,-6.4122,-7.4729,-0.5719,-1.3868,-6.2041,-0.6103,2.3605,-1.7293,-2.8630,-8.0952,-10.2149,-1.9554,-0.1486,-6.9517,-6.0932,-6.6092
54.6875,3.5414,-3.7632,-3.5420,-7.2361,-12.0843,0.6031,-1.9957,-8.3558,-1.3494,3.8467,-2.0770,-2.9850,-8.9943,-12.5744,-2.2956,-0.6921,-8.2150,-6.1370,-6.6639
58.5938,1.2153,-1.1938,-3.0372,-6.8761,-15.3436,1.6115,-1.9370,-9.1794,-1.3971,4.3664,-2.1515,-2.3888,-8.3054,-12.9351,-1.6151,-0.7905,-8.0580,-4.9913,-6.3141
62.5000,-0.6660,1.3836,-2.2226,-5.6198,-16.9541,2.4049,-0.9812,-8.6859,-0.4365,4.2672,-1.7811,-1.0915,-6.1434,-11.5396,0.1659,-0.4511,-6.7001,-2.9456,-5.6544
66.4062,-1.0569,3.1332,-1.1385,-3.8985,-16.7495,3.0272,0.7343,-7.1243,1.3174,4.1431,-0.9067,0.6014,-3.1316,-8.9770,2.4988,0.1103,-4.7064,-0.6566,-4.6343
70.3125,0.0982,3.7300,0.1614,-2.0482,-14.7718,3.5547,2.7803,-4.8534,3.2535,4.4215,0.3898,2.2534,-0.1213,-5.9245,4.4721,0.6865,-2.6569,1.2003,-3.1212
74.2188,1.8890,3.4253,1.4945,-0.3101,-11.4244,4.0105,4.6138,-2.3057,4.6552,5.0626,1.8384,3.4306,2.0815,-3.0043,5.2886,1.1721,-0.9609,2.1598,-1.1713
78.1250,2.9507,2.7443,2.4596,1.0251,-7.5199,4.2875,5.7645,0.0115,4.9817,5.5397,2.9734,3.7744,2.8904,-0.7607,4.6386,1.4686,0.1011,2.0093,0.7364
82.0312,2.1774,2.0563,2.5285,1.5594,-4.0667,4.1462,5.9702,1.5943,4.0291,5.1268,3.2432,3.0590,2.0349,0.3608,2.7586,1.3383,0.2498,0.7323,1.7712
85.9375,-0.7088,1.3253,1.3304,0.9498,-1.8341,3.3208,5.2339,2.1282,1.9454,3.3452,2.2438,1.2696,-0.3738,0.1215,0.2036,0.4101,-0.7917,-1.5348,1.1626
89.8438,-4.9916,0.1854,-1.0625,-0.8144,-0.9604,1.6922,3.7905,1.6687,-0.8654,0.3156,-0.0348,-1.3318,-3.8279,-1.3645,-2.4544,-1.5861,-3.0971,-4.5049,-1.3014
93.7500,-9.2689,-1.7486,-4.0896,-3.2780,-0.9056,-0.5878,1.9901,0.6498,-3.9004,-3.2084,-3.1243,-4.2371,-7.5307,-3.5973,-4.7965,-4.5012,-6.2912,-7.7652,-5.0658
97.6562,-12.0875,-4.5733,-6.9865,-5.7006,-0.8359,-3.1175,0.1382,-0.3462,-6.7203,-6.1790,-6.2527,-6.8644,-10.6612,-5.8755,-6.5489,-7.6376,-9.5180,-10.8783,-9.0807
101.5625,-12.5970,-7.9855,-9.2223,-7.4706,-0.2085,-5.4121,-1.6199,-0.9289,-9.0608,-7.7881,-8.7071,-8.8016,-12.7008,-7.6303,-7.5126,-9.9858,-11.7512,-13.5254,-12.3902
105.4688,-10.9003,-11.3941,-10.7635,-8.4502,0.8558,-7.1051,-3.2864,-1.1116,-10.8449,-7.8865,-10.1656,-9.9710,-13.6320,-8.6932,-7.5751,-10.7399,-12.3073,-15.5802,-14.6239
109.3750,-7.9277,-14.1386,-11.9483,-8.9786,1.6888,-8.0430,-4.8567,-1.2311,-12.0929,-7.0264,-10.7819,-10.5882,-13.8560,-9.2970,-6.8287,-9.7732,-11.2305,-17.0431,-16.0384
113.2812,-4.9157,-15.6739,-13.0556,-9.5137,1.6098,-8.2229,-6.1259,-1.6264,-12.7863,-6.0933,-10.9681,-10.9308,-13.8560,-9.7943,-5.6697,-7.7362,-9.2642,-17.8815,-17.0901
117.1875,-2.7906,-15.6664,-13.9088,-10.1814,0.4889,-7.6521,-6.6204,-2.3211,-12.7860,-5.7544,-11.0290,-11.0759,-13.8150,-10.2889,-4.7170,-5.6757,-7.3957,-17.9214,-17.8814
121.0938,-1.7968,-14.0390,-13.8566,-10.5839,-1.0816,-6.2792,-5.7668,-2.9556,-11.8741,-6.0660,-10.9042,-10.7965,-13.4465,-10.4501,-4.5101,-4.3969,-6.2562,-16.9065,-17.9192
125.0000,-1.5479,-11.0062,-12.1901,-10.0242,-2.1416,-4.0800,-3.2422,-3.0261,-9.9027,-6.4776,-10.1911,-9.6953,-12.1584,-9.6521,-5.1315,-3.9802,-5.7589,-14.6961,-16.3858
128.9062,-1.4081,-7.0839,-8.7088,-7.9910,-1.9970,-1.2336,0.7042,-2.2547,-6.9462,-6.2087,-8.4224,-7.4837,-9.4392,-7.3516,-6.0148,-3.7702,-5.2041,-11.4415,-12.7322
132.8125,-0.9228,-3.0022,-4.0137,-4.5549,-0.6858,1.7807,5.2000,-0.8146,-3.3438,-4.7396,-5.4036,-4.2111,-5.2192,-3.4643,-6.1235,-2.8467,-3.7743,-7.5814,-7.1618
136.7188,-0.0231,0.5061,0.7119,-0.4079,1.0337,4.3031,9.0538,0.7427,0.4058,-2.1082,-1.3950,-0.3005,0.0091,1.4832,-4.4743,-0.6741,-1.1058,-3.6447,-0.6610
140.6250,1.0773,2.9654,4.2950,3.4555,2.1390,5.7988,11.2682,1.7906,3.8181,1.1418,2.9497,3.6113,5.3485,6.4920,-0.7470,2.4853,2.4070,-0.0205,5.4319
144.5312,2.1489,4.3131,6.1355,6.1754,1.9156,6.1570,11.4646,1.9372,6.5458,4.2753,6.8171,6.9030,9.8061,10.4219,4.3648,5.6543,5.7395,3.1158,10.0104
148.4375,3.1404,4.8404,6.3746,7.3128,0.2861,5.7602,9.9708,1.1525,8.3862,6.7112,9.4963,9.1349,12.5839,12.3564,9.3050,7.6665,7.7194,5.6708,12.5659
152.3438,4.1575,4.9561,5.6169,6.8808,-2.2432,5.2500,7.5451,-0.3066,9.2233,8.1955,10.5690,10.1099,13.2667,11.8818,12.2921,7.8218,7.6092,7.4477,13.1756
156.2500,5.2770,4.9463,4.4773,5.2182,-4.8884,5.1325,4.9456,-2.0451,9.0175,8.7646,10.0152,9.8778,11.9117,9.2285,12.1644,6.2955,5.5023,8.1329,12.2433
160.1562,6.3821,4.9043,3.3041,2.8615,-6.9024,5.4911,2.6289,-3.6228,7.8992,8.6101,8.2536,8.7406,9.0650,5.2388,9.0166,4.0782,2.3390,7.5322,10.2553
164.0625,7.1752,4.8567,2.2286,0.4674,-7.7497,6.0002,0.7366,-4.5801,6.2915,7.9853,6.0944,7.2375,5.6697,1.1324,4.2790,2.4843,-0.4854,5.8870,7.7016
167.9688,7.3717,4.9318,1.3837,-1.2905,-7.1657,6.2185,-0.7029,-4.5006,4.8955,7.1983,4.5390,6.0280,2.8055,-1.9210,0.1476,2.4870,-1.7709,3.9620,5.1034
171.8750,6.9235,5.3679,1.0059,-1.9332,-5.2019,5.9387,-1.5764,-3.1847,4.4366,6.6209,4.4038,5.6348,1.2787,-3.2853,-1.4069,4.2190,-1.1205,2.7232,2.9710
175.7812,6.0914,6.2978,1.2736,-1.4353,-2.2771,5.3371,-1.6749,-0.8633,5.2562,6.6132,5.8894,6.1439,1.2427,-3.1478,0.4177,6.8901,0.8229,2.7485,1.6198
179.6875,5.3016,7.4706,2.0263,-0.3290,0.8625,4.8248,-0.8696,1.7456,7.0064,7.3479,8.3464,7.0735,2.1034,-2.3904,4.8421,9.1757,2.7059,3.7793,0.9688
183.5938,4.8752,8.1913,2.6703,0.5225,3.3857,4.7254,0.6926,3.6882,8.7102,8.6368,10.4676,7.5767,2.8547,-2.0302,9.8619,9.9008,3.2498,4.7923,0.5458
187.5000,4.8139,7.6353,2.4553,0.4315,4.7712,5.0286,2.5638,4.2661,9.2327,9.9072,10.9083,6.9358,2.7012,-2.5290,13.2194,8.6798,2.0747,4.6223,-0.2052
191.4062,4.7831,5.4073,0.9901,-0.6358,5.1214,5.4013,4.1896,3.4727,7.9214,10.4004,9.0378,5.0624,1.5807,-3.4240,13.4976,6.1675,0.0290,2.7535,-1.4832
195.3125,4.3045,1.9700,-1.3812,-1.9759,5.1260,5.4407,5.1947,2.0495,5.0183,9.5212,5.3704,2.6492,0.2066,-3.5844,10.7624,3.7470,-1.2681,-0.2757,-2.8940
199.2188,3.0540,-1.4164,-3.6721,-2.5794,5.6174,4.9789,5.5546,1.0658,1.5634,7.1596,1.3639,0.8115,-0.4434,-1.9851,6.4245,2.7805,-0.4677,-3.1617,-3.6530
203.1250,1.1063,-3.3004,-4.8103,-1.8204,6.9707,4.2181,5.5407,1.2684,-1.1659,3.8094,-1.3432,0.4038,0.1420,1.5028,2.4317,3.8175,2.5292,-4.6436,-3.1391
207.0312,-0.9941,-2.8609,-4.2955,0.0852,8.7707,3.6087,5.4968,2.6330,-2.3283,0.4199,-1.8131,1.4531,1.5885,5.8698,0.2723,6.2269,6.3488,-4.2747,-1.4090
210.9375,-2.3817,-0.4225,-2.4963,2.2016,10.0193,3.5641,5.6182,4.4250,-1.8851,-1.9512,-0.2656,3.1087,2.8606,9.4886,0.3486,8.5085,8.9130,-2.6273,0.7324
214.8438,-2.1999,2.6914,-0.3778,3.5067,9.7747,4.2077,5.8814,5.7121,-0.4624,-2.5288,2.1626,4.1704,2.9948,11.0735,2.0108,9.1392,8.7496,-0.8123,2.2023
218.7500,-0.0003,4.9012,1.1334,3.5744,7.7838,5.3097,6.1332,5.9511,1.1443,-1.1029,4.1758,3.8591,1.8098,10.4225,4.1253,7.4611,5.9617,0.3098,2.3394
222.6562,3.9548,5.2535,1.6846,2.7972,4.6480,6.4281,6.2277,5.2290,2.4511,1.8944,5.0811,2.3126,0.0546,8.4246,5.7479,4.0669,2.1537,0.6460,1.3262
226.5625,8.6525,3.8969,1.5711,1.9885,1.4026,7.1474,6.0915,4.0260,3.4401,5.5386,5.0669,0.4741,-1.1351,6.3412,6.4882,0.4354,-0.6724,0.7686,0.0212
230.4688,12.6396,1.8860,1.3547,1.6892,-1.1768,7.2670,5.6914,2.7431,4.3457,8.7422,4.8667,-0.5407,-1.0782,4.8975,6.4337,-1.9451,-1.4868,1.3261,-0.6781
234.3750,14.5994,0.4837,1.3717,1.7363,-3.0211,6.8532,4.9872,1.4085,5.3070,10.6535,5.1071,-0.1578,-0.0560,3.8518,5.8278,-2.3994,-0.8809,2.4568,-0.4684
238.2812,13.9420,0.4347,1.5252,1.4448,-4.6452,6.1621,3.9646,-0.1968,6.1863,10.9730,5.8324,1.3384,0.8987,2.3366,4.8301,-1.3142,-0.5237,3.6616,0.1961
242.1875,11.0898,1.6501,1.4934,0.2594,-6.5797,5.5037,2.7488,-2.1248,6.6858,10.0405,6.5332,3.0707,0.7743,-0.3228,3.5433,0.2995,-1.8332,4.2127,0.5161
246.0938,7.2736,3.4292,1.1338,-1.6574,-8.8257,5.1173,1.6924,-3.9525,6.6371,8.6306,6.6167,4.1897,-0.6704,-3.9628,2.2195,1.5692,-4.8726,3.7534,0.0041
250.0000,3.9283,4.9872,0.7116,-3.3999,-10.7744,5.1008,1.3067,-4.9024,6.2029,7.5419,5.9383,4.4015,-2.7405,-7.6095,1.3815,2.2889,-8.3060,2.6108,-1.1172
253.9062,2.0277,5.9022,0.7454,-3.9171,-11.6562,5.4023,2.0176,-4.3594,5.8126,7.1914,4.9847,4.0583,-4.3286,-10.1409,1.6624,2.8697,-10.4297,1.5883,-2.0697
257.8125,1.7447,6.2203,1.5954,-2.7907,-11.1519,5.8670,3.8780,-2.3942,5.8777,7.4486,4.5709,3.8070,-4.7043,-11.0490,3.4111,3.8271,-10.4462,1.4117,-2.0941
261.7188,2.6092,6.2372,3.1362,-0.5838,-9.6624,6.3216,6.4417,0.1494,6.5068,7.8062,5.2690,4.0957,-3.9561,-10.6990,6.3378,5.2707,-8.9483,2.2598,-1.0018
265.6250,3.9962,6.1893,4.7946,1.5327,-8.0046,6.6650,8.9231,2.1378,7.4362,7.7739,6.9702,4.8986,-2.7713,-9.8933,9.4902,6.8184,-7.2185,3.7146,0.6954
269.5312,5.5589,6.1000,5.9307,2.6151,-6.7586,6.9155,10.5758,2.8948,8.2146,7.2245,8.8792,5.8109,-1.7777,-9.1164,11.6374,7.9764,-5.9313,5.1225,2.1453
273.4375,7.2855,5.8576,6.2685,2.6147,-5.7843,7.1769,11.0631,2.6712,8.4883,6.4528,9.9389,6.3770,-1.0204,-8.0953,11.8598,8.6153,-4.3911,6.0448,2.7059
277.3438,9.1711,5.4034,6.0406,2.3676,-4.3076,7.5266,10.5888,2.4715,8.1711,5.9037,9.4066,6.3671,-0.0234,-6.0627,9.9978,9.0749,-1.0683,6.4424,2.2816
281.2500,10.8191,4.8359,5.7427,2.9035,-1.5430,7.8878,9.7052,3.3313,7.3928,5.7683,7.2307,5.8069,1.6103,-2.5387,6.7018,9.7508,4.8510,6.4861,1.2411
285.1562,11.3671,4.3271,5.6970,4.5898,2.6030,7.9760,8.9307,5.5480,6.3020,5.7507,4.0295,4.7986,3.5733,1.9922,3.0781,10.4950,12.1031,6.2066,0.0494
289.0625,9.8952,3.9166,5.7597,6.7538,7.2767,7.3786,8.4207,8.4068,4.9044,5.1992,0.7275,3.3397,4.7764,6.0897,0.1562,10.3999,17.4044,5.3165,-1.0654
292.9688,6.0836,3.3591,5.3888,8.0712,11.0819,5.7512,7.8927,10.5982,3.0699,3.5371,-1.9082,1.3298,3.9770,8.1312,-1.5263,8.2952,17.1984,3.3842,-2.1658
296.8750,0.6498,2.1780,4.0083,7.4420,12.8741,3.0314,6.8335,11.0328,0.6974,0.7116,-3.5767,-1.2345,0.7080,7.3418,-2.0368,3.7191,10.0656,0.2304,-3.3992
300.7812,-4.8071,-0.0632,1.4022,4.7298,12.3964,-0.4455,4.8457,9.4942,-2.1052,-2.6461,-4.4661,-4.0543,-4.1804,4.3553,-1.8622,-2.3402,-1.8673,-3.7745,-4.7569
304.6875,-8.5334,-3.4140,-2.1228,0.8560,10.3368,-3.9974,1.9292,6.7074,-4.9702,-5.4726,-5.0301,-6.5227,-8.8160,0.8917,-1.5714,-7.5942,-13.6502,-7.7674,-6.0202
308.5938,-9.4974,-7.3278,-5.8719,-2.7783,7.8033,-6.7942,-1.4439,3.8253,-7.3928,-6.7940,-5.6717,-7.9747,-11.2990,-1.2494,-1.5109,-9.5817,-20.0909,-10.7886,-6.9172
312.5000,-7.8720,-10.7451,-9.0557,-5.1053,5.6128,-8.1166,-4.4737,1.7279,-8.9437,-6.2101,-6.5023,-8.0405,-10.7592,-1.2106,-1.6655,-7.1361,-18.6331,-12.2486,-7.3226
316.4062,-4.8284,-12.4760,-11.0433,-5.8778,3.8845,-7.5740,-6.3087,0.6135,-9.4347,-4.0709,-7.2865,-6.8556,-7.7849,0.5362,-1.7281,-1.2215,-10.7122,-12.1545,-7.3029
320.3125,-1.7979,-11.7249,-11.4717,-5.5638,2.1702,-5.2168,-6.3334,0.1044,-8.9528,-1.2714,-7.5805,-4.9738,-3.9728,2.6347,-1.3357,5.4896,-0.7535,-10.9756,-6.9725
324.2188,0.3156,-8.5099,-10.2506,-4.8234,-0.0391,-1.5261,-4.3744,-0.2929,-7.7706,1.1949,-6.9898,-3.0427,-0.9375,3.7486,-0.3494,10.0980,6.4919,-9.2887,-6.3114
328.1250,1.4898,-3.7516,-7.5604,-4.0128,-2.8305,2.7048,-0.7756,-0.7582,-6.2103,2.6742,-5.4109,-1.4665,0.5450,3.3033,0.9809,11.0955,8.5397,-7.4777,-5.1461
332.0312,2.3436,1.0497,-3.8709,-3.0641,-5.7465,6.5721,3.6792,-1.0634,-4.5375,3.0814,-3.1316,-0.2805,0.7417,1.6253,2.1001,9.0760,6.1167,-5.6711,-3.3466
335.9375,3.5398,4.4346,0.0874,-1.7540,-8.0656,9.3099,7.9860,-0.8338,-2.9133,2.8504,-0.7277,0.7051,0.4800,-0.4899,2.4803,6.1055,2.0620,-3.8929,-1.0836
339.8438,5.2654,5.6193,3.4845,-0.0728,-9.2469,10.5215,11.2264,0.0805,-1.3968,2.6714,1.1952,1.6298,0.4107,-2.3808,2.0317,4.2153,-0.8600,-2.2388,1.0947
343.7500,7.1173,4.8289,5.6700,1.6290,-9.2222,10.3077,12.8541,1.4207,0.0213,3.1510,2.2747,2.3998,0.5565,-3.8504,1.3025,4.0662,-1.6815,-0.9050,2.4864
347.6562,8.4135,3.1427,6.4267,2.8217,-8.3689,9.2166,12.8376,2.6449,1.3639,4.5339,2.5247,2.7353,0.4188,-5.0638,1.2604,4.6707,-1.4346,-0.0561,2.6364
351.5625,8.6656,1.9154,6.0256,3.1356,-7.2350,8.0076,11.5868,3.2511,2.6046,6.5911,2.2571,2.4041,-0.5164,-6.1968,2.6990,4.3019,-1.9277,0.3331,1.6308
355.4688,7.8843,2.0747,5.0269,2.5851,-6.2261,7.3186,9.7027,3.0570,3.6303,8.7186,1.8583,1.4574,-2.2902,-7.1689,5.6150,1.8946,-4.1459,0.4999,0.0624
359.3750,6.5452,3.6744,3.9501,1.5288,-5.4373,7.3903,7.6907,2.2657,4.2732,10.2132,1.5780,0.2901,-4.3503,-7.6619,9.0001,-2.0693,-7.4459,0.7468,-1.3170
363.2812,5.2854,5.9402,3.0377,0.4421,-4.6722,7.9906,5.8005,1.3147,4.4223,10.6081,1.4737,-0.5239,-5.8460,-7.3584,11.2839,-5.7899,-10.0224,1.2407,-2.0094
367.1875,4.5596,7.7614,2.2605,-0.2964,-3.5726,8.5785,4.0692,0.6476,4.1566,9.9005,1.5232,-0.5076,-6.0933,-6.1658,11.2299,-7.2957,-10.1752,1.9256,-1.9602
371.0938,4.4622,8.3216,1.5231,-0.4653,-1.7650,8.6168,2.5017,0.5555,3.7920,8.5392,1.7841,0.5071,-4.8864,-4.2356,8.7344,-5.6849,-7.4041,2.6207,-1.4188
375.0000,4.7771,7.4983,0.8733,0.0594,1.0116,7.8656,1.2302,1.1396,3.7631,7.1643,2.4345,2.3468,-2.4947,-1.7941,4.9723,-1.6287,-2.6004,3.2150,-0.6219
378.9062,5.1660,5.8254,0.5259,1.3387,4.7815,6.5029,0.5185,2.3444,4.3681,6.2492,3.6281,4.6234,0.5723,1.0297,1.7347,3.1373,2.6685,3.7863,0.4210
382.8125,5.3481,4.0989,0.6810,3.2860,9.2211,5.0248,0.6031,3.9914,5.5274,5.8687,5.2588,6.9019,3.8108,4.2026,0.3521,6.8946,7.1448,4.5319,1.8619
386.7188,5.1773,2.9126,1.3000,5.5306,13.6288,3.9936,1.4941,5.7910,6.7392,5.7466,6.8370,8.7951,6.8136,7.6059,0.9075,8.8187,10.4010,5.5569,3.7339
390.6250,4.6247,2.4089,2.0502,7.4043,17.0691,3.7698,2.8967,7.3755,7.3111,5.5455,7.6233,9.9650,9.2094,10.8495,2.2703,9.1085,12.6136,6.6917,5.7102
394.5312,3.7334,2.3415,2.4900,8.1682,18.6996,4.3504,4.3243,8.3898,6.7586,5.1817,6.9899,10.1028,10.5971,13.2874,2.9271,8.4254,13.9258,7.4984,7.1338
398.4375,2.6040,2.3238,2.3611,7.3946,18.1470,5.3687,5.3287,8.6129,5.1243,4.9143,4.7984,8.9807,10.6116,14.2847,2.0331,7.1959,14.0350,7.4850,7.3372
402.3438,1.4108,2.0467,1.7514,5.2471,15.7058,6.2377,5.6841,8.0303,2.9907,5.1197,1.5429,6.5939,9.1232,13.5736,-0.0441,5.3632,12.4128,6.3867,6.0405
406.2500,0.3972,1.3415,0.9890,2.4281,12.1924,6.3748,5.4058,6.7894,1.1494,5.9002,-1.8509,3.3038,6.4246,11.4347,-2.0497,2.7458,8.9932,4.3258,3.5438
410.1562,-0.1909,0.1363,0.3512,-0.2204,8.4966,5.4359,4.6177,5.0617,0.1268,6.8323,-4.4556,-0.1506,3.2258,8.5477,-2.7811,-0.3704,4.7193,1.7532,0.5758
414.0625,-0.2211,-1.5484,-0.1630,-2.2009,5.0935,3.4850,3.4090,2.9267,-0.1201,7.0915,-5.7397,-2.8497,0.3871,5.5960,-1.9556,-2.9959,1.3542,-0.7625,-2.0888
417.9688,0.2355,-3.4953,-0.7862,-3.5838,1.8472,1.0350,1.8213,0.3899,-0.1240,5.9336,-5.7036,-4.0414,-1.4856,2.8974,-0.3926,-3.8779,0.4862,-2.7335,-3.9754
421.8750,0.9208,-5.1709,-1.6754,-4.7930,-1.7303,-1.0859,-0.0136,-2.4522,-0.4859,3.2451,-4.7148,-3.4652,-2.3417,0.3259,0.6000,-2.3791,2.3091,-3.8189,-4.9986
425.7812,1.5323,-5.7874,-2.5983,-6.1098,-5.9092,-2.0321,-1.7195,-5.2304,-1.3977,-0.2191,-3.2037,-1.4678,-2.6716,-2.4232,0.1755,0.8486,5.0732,-3.7752,-5.2803
429.6875,1.9095,-4.6514,-2.9134,-7.2821,-10.2546,-1.3111,-2.6900,-7.2875,-2.4467,-3.1200,-1.4505,1.1687,-3.1553,-5.4282,-1.4447,3.9814,5.7885,-2.4173,-4.8896
433.5938,2.1304,-1.6643,-1.9436,-7.5756,-13.6080,0.9354,-2.3507,-7.9228,-2.8572,-4.2220,0.4110,3.5954,-4.1720,-8.3122,-3.1249,4.9938,1.9684,0.2929,-3.7375
437.5000,2.4229,2.3668,0.4718,-6.2839,-14.6336,3.9030,-0.5449,-6.7970,-2.0240,-3.0924,2.2343,5.2610,-5.4833,-10.3821,-3.5957,2.9227,-6.5747,4.0571,-1.7160
441.4062,2.9294,5.9148,3.6516,-3.3543,-12.6414,6.4139,2.2212,-4.2454,0.0184,-0.3868,3.7266,6.0728,-6.3149,-11.0556,-2.3081,-1.4096,-17.0800,8.1128,1.0361
445.3125,3.4946,7.4375,6.2736,0.3381,-8.1650,7.4290,4.8975,-1.2563,2.5206,2.4683,4.4908,6.2896,-5.8268,-10.2754,0.2164,-5.7527,-24.9543,11.3514,3.9762
449.2188,3.6709,6.2389,7.0551,3.3248,-2.8790,6.5440,6.3762,0.9392,4.4078,4.0288,4.2359,6.2407,-3.7024,-8.6002,2.7382,-7.7173,-26.1990,12.7160,6.2714
453.1250,3.0003,2.9450,5.5161,4.3226,1.1621,4.2082,6.0899,1.4683,4.8967,3.5957,2.9999,6.0671,-0.4863,-6.8881,4.0794,-6.2177,-19.7823,11.6967,7.1512
457.0312,1.4123,-0.7694,2.3230,2.9723,2.5494,1.5239,4.3525,0.2668,3.9397,1.5590,1.2036,5.6471,2.5733,-5.7721,3.7989,-2.1525,-8.4774,8.6225,6.2908
460.9375,-0.5663,-3.1050,-1.0418,0.0567,1.2090,-0.2941,2.2066,-1.8920,2.2100,-0.8600,-0.5288,4.7407,4.1315,-5.2826,2.3533,2.1272,2.4832,4.5368,3.9869
464.8438,-2.0202,-3.1685,-3.1079,-2.9465,-1.6463,-0.5264,0.8409,-3.8124,0.6436,-2.3050,-1.6779,3.2376,3.4701,-4.8690,0.7047,4.2445,8.2557,0.6946,1.0218
468.7500,-2.2200,-1.4590,-3.2300,-4.6874,-4.2521,0.7009,0.9211,-4.4948,-0.1495,-2.0169,-2.0672,1.3328,0.9154,-3.8008,-0.3107,3.2221,7.0756,-2.0286,-1.6969
472.6562,-1.1973,0.5169,-1.8793,-4.6219,-5.2488,2.5205,2.2402,-3.6049,-0.2098,-0.1992,-1.8830,-0.4999,-2.3082,-1.6675,-0.4337,0.0150,1.1500,-3.4637,-3.5080
476.5625,0.1362,1.2662,-0.2435,-3.1510,-4.2916,3.8291,3.8993,-1.5518,-0.0803,2.1640,-1.4805,-1.7291,-4.7139,1.3530,-0.0025,-3.1670,-4.8119,-4.0318,-4.1932
480.4688,0.5268,0.3087,0.5812,-1.2069,-2.0080,3.9183,4.8926,0.8196,-0.3058,3.9031,-1.1207,-2.0531,-5.3190,4.6102,0.4058,-4.2922,-6.5312,-4.3059,-3.9416
484.3750,-0.6968,-1.4976,0.2680,0.3746,0.5679,2.8763,4.7215,2.6992,-0.9492,4.3161,-0.8218,-1.5797,-4.1127,7.3624,0.4284,-2.7742,-2.7333,-4.5782,-3.1660
488.2812,-2.9417,-2.5162,-0.6271,1.2618,2.6455,1.5347,3.6546,3.6653,-1.4848,3.5112,-0.4153,-0.7962,-1.9889,9.1340,0.1548,0.2110,4.2077,-4.7356,-2.3117
492.1875,-4.4883,-1.4160,-1.1594,1.5949,3.9910,0.9872,2.4927,3.7608,-1.1641,2.2670,0.2474,-0.3461,-0.2293,9.8195,0.0057,2.5075,9.8809,-4.5046,-1.7500
496.0938,-3.5110,1.9216,-0.7351,1.6351,4.7801,1.9490,2.0134,3.3205,0.3843,1.5241,1.0873,-0.7395,0.1364,9.5192,0.3526,2.3156,10.5975,-3.8471,-1.7574
500.0000,0.5979,6.2430,0.4138,1.4228,5.2057,4.3149,2.4615,2.7093,2.7445,1.8240,1.7389,-2.1455,-1.2586,8.2999,1.1504,-0.7747,5.5219,-3.1758,-2.5186
503.9062,6.5056,9.5926,1.3341,0.7171,5.1967,7.1614,3.3987,2.1310,4.8064,3.0246,1.6895,-4.3549,-4.0970,6.1102,1.8561,-5.6496,-3.0888,-3.2000,-4.0983
507.8125,11.4267,10.3764,0.9511,-0.7673,4.4594,9.1893,3.9796,1.5744,5.3462,4.4383,0.5468,-6.9007,-7.6546,2.9233,1.7309,-10.4167,-11.5018,-4.4852,-6.3845
511.7188,12.6560,8.1697,-1.2414,-3.0475,2.7678,9.3636,3.4539,0.8664,3.7498,5.2784,-1.7087,-9.2446,-11.1453,-1.0246,0.3684,-13.4632,-16.7682,-7.0329,-9.0565
515.6250,9.2371,3.8262,-4.8478,-5.7498,0.2304,7.4098,1.5781,-0.2273,0.4206,5.1272,-4.6265,-10.9343,-13.9375,-5.1311,-1.8968,-14.1497,-18.1363,-10.1775,-11.6314
519.5312,2.6763,-1.0954,-8.7859,-8.2758,-2.6943,3.9188,-1.2889,-1.8915,-3.3941,4.1498,-7.4102,-11.6823,-15.6042,-8.5877,-4.0260,-12.8061,-16.8670,-12.8819,-13.5963
523.4375,-3.8250,-5.1710,-11.8845,-10.1232,-5.4426,0.0360,-4.4152,-4.1487,-6.2591,2.9547,-9.2271,-11.3834,-15.9004,-10.7272,-4.8317,-10.2140,-14.8613,-14.2458,-14.5734
527.3438,-7.1887,-7.7094,-13.4714,-11.1195,-7.6436,-3.0739,-7.0707,-6.7670,-7.2942,2.2221,-9.5712,-10.1180,-14.7773,-11.3278,-3.7639,-7.0661,-13.2434,-13.9173,-14.4413
531.2500,-6.1965,-8.8328,-13.6058,-11.4156,-9.2392,-4.7013,-8.8140,-9.2534,-6.5652,2.3405,-8.5127,-8.1583,-12.4458,-10.6747,-1.4117,-3.7893,-11.8842,-12.1853,-13.3564
535.1562,-2.0584,-9.1148,-12.8704,-11.2853,-10.3584,-4.7896,-9.5622,-10.9940,-4.9255,3.2478,-6.6936,-5.9534,-9.4048,-9.3547,0.6991,-0.7349,-10.0123,-9.7571,-11.6726
539.0625,2.4998,-9.0994,-11.9205,-10.9154,-11.0909,-3.8131,-9.4682,-11.5267,-3.4526,4.5169,-5.0440,-4.0411,-6.3396,-7.9426,1.0054,1.5919,-7.2269,-7.4083,-9.8023
542.9688,4.9698,-9.0132,-11.1061,-10.3478,-11.3744,-2.4589,-8.7411,-10.8151,-2.8586,5.5827,-4.3323,-2.8713,-3.8913,-6.7897,-1.0079,2.6016,-4.0242,-5.7152,-8.0852
546.8750,4.4628,-8.7853,-10.3853,-9.5779,-11.0885,-1.3053,-7.5408,-9.3318,-3.2202,5.9596,-4.7751,-2.6037,-2.4124,-6.0047,-4.2777,2.0184,-1.4509,-4.9636,-6.7103
550.7812,1.9262,-8.2666,-9.5225,-8.6773,-10.2455,-0.6457,-5.9930,-7.8394,-4.1320,5.3673,-5.9281,-2.9960,-1.8612,-5.5565,-6.6516,0.2792,-0.2540,-5.1773,-5.7105
554.6875,-0.8158,-7.4433,-8.3812,-7.7983,-9.0706,-0.4923,-4.2688,-6.9526,-5.1057,3.7669,-6.9424,-3.4896,-1.9012,-5.3522,-6.2059,-1.4823,-0.2783,-6.1679,-5.0142
558.5938,-2.4056,-6.5001,-7.0931,-7.0483,-7.8604,-0.6978,-2.6343,-6.7447,-5.9085,1.3553,-7.0591,-3.4897,-2.1332,-5.2191,-2.5828,-2.0013,-0.6092,-7.5629,-4.5188
562.5000,-2.7152,-5.7266,-6.0030,-6.3618,-6.7212,-1.0917,-1.4060,-6.6809,-6.6243,-1.4693,-6.0579,-2.7074,-2.3015,-4.8602,2.5782,-0.6840,-0.3131,-8.8654,-4.1487
566.4062,-2.5881,-5.3658,-5.4549,-5.5205,-5.4272,-1.5592,-0.8216,-5.9686,-7.4467,-4.1932,-4.3843,-1.3609,-2.3482,-3.9136,6.5086,1.9197,0.8575,-9.6048,-3.8696
570.3125,-2.9011,-5.5056,-5.5788,-4.3462,-3.5673,-2.0446,-0.9043,-4.1280,-8.4015,-6.3403,-2.8695,-0.0892,-2.3116,-2.1622,7.0006,4.3699,2.3628,-9.5515,-3.6606
574.2188,-3.7483,-6.0631,-6.2149,-2.9271,-0.9167,-2.5085,-1.4104,-1.4035,-9.2278,-7.6380,-2.2203,0.3990,-2.1872,0.2272,3.8314,5.2169,3.4210,-8.8674,-3.4717
578.1250,-4.3748,-6.8392,-7.0083,-1.6746,2.2429,-2.8833,-1.9113,1.2871,-9.5109,-8.0896,-2.6116,-0.2582,-1.8823,2.6483,-1.0549,3.9378,3.7035,-8.0509,-3.2121
582.0312,-3.8571,-7.6036,-7.5976,-1.1194,5.1309,-3.0621,-1.9873,2.8703,-8.9696,-7.8831,-3.6453,-1.8528,-1.3083,4.3026,-4.7779,1.2843,3.5814,-7.6642,-2.7957
585.9375,-1.9483,-8.1732,-7.7846,-1.5570,6.8546,-2.9326,-1.4350,2.7818,-7.6882,-7.1873,-4.6878,-3.7242,-0.5267,4.6426,-5.3657,-1.2101,3.7228,-7.9904,-2.2274
589.8438,0.5895,-8.4629,-7.5908,-2.7882,6.9379,-2.4455,-0.3731,1.3413,-6.1198,-6.0010,-5.3250,-5.1478,0.1897,3.7224,-2.9736,-2.2292,4.4007,-8.8500,-1.6631
593.7500,2.4237,-8.4893,-7.1837,-4.1542,5.6306,-1.6783,0.8343,-0.4155,-4.8391,-4.2099,-5.5910,-5.7392,0.4653,2.1892,0.3494,-1.4866,5.1227,-9.7047,-1.3713
597.6562,2.5313,-8.3108,-6.7190,-4.8632,3.7785,-0.8470,1.8128,-1.3437,-4.1888,-1.8412,-5.7990,-5.6108,0.0530,0.8870,2.1699,0.1966,4.9300,-9.9792,-1.5782
601.5625,0.8840,-7.9227,-6.1883,-4.4057,2.3377,-0.2284,2.4424,-0.8423,-4.0355,0.6916,-6.1125,-5.1862,-0.9629,0.3280,1.3929,1.5638,3.1601,-9.3753,-2.2696
605.4688,-1.5143,-7.1696,-5.3635,-2.8014,1.8518,-0.0045,2.9799,0.8516,-3.7932,2.6213,-6.2156,-4.8236,-2.1435,0.3934,-1.0043,1.8277,0.0769,-7.9683,-3.0909
609.3750,-3.2071,-5.7613,-3.8902,-0.5491,2.2145,-0.1000,3.9265,2.8790,-2.7239,3.2292,-5.3900,-4.5348,-2.8955,0.4667,-2.7179,1.1516,-3.1475,-6.0537,-3.4587
613.2812,-3.0465,-3.4323,-1.5086,1.6475,2.8186,-0.1268,5.6837,4.2973,-0.3646,2.4054,-3.0067,-4.0082,-2.7943,-0.1123,-1.7904,0.3957,-5.1202,-3.9011,-2.8746
617.1875,-0.6579,-0.1814,1.7060,3.1809,2.9338,0.4853,8.1956,4.5758,3.1500,0.9443,0.8971,-2.9127,-1.8411,-1.6099,1.9833,0.3752,-5.1017,-1.6287,-1.2778
621.0938,3.5729,3.5638,5.2295,3.7097,2.0511,2.1922,10.8245,3.7650,7.0599,0.2569,5.4005,-1.2359,-0.4961,-3.7821,6.8895,1.2260,-3.4487,0.7161,0.8016
625.0000,8.8157,7.0113,8.2142,3.1747,0.0279,5.0170,12.5912,2.3140,10.2916,1.5618,9.0731,0.6273,0.5472,-6.1209,10.4500,2.3565,-1.3361,2.9803,2.4369
628.9062,14.1058,9.3262,9.8369,1.7484,-2.9461,8.4081,12.6851,0.7417,11.9692,5.0362,10.7610,2.1298,0.7301,-8.2254,11.0616,2.9932,0.0092,4.8348,2.7887
632.8125,18.4882,10.0589,9.7053,-0.2003,-6.4331,11.4069,10.9551,-0.5955,11.8624,9.5301,10.2889,2.9948,-0.0592,-9.9829,8.9869,2.8618,0.0178,5.9220,1.6073
636.7188,21.0773,9.4211,8.0906,-2.1378,-9.7996,13.0817,8.0673,-1.5306,10.5207,13.1307,8.5981,3.4723,-1.4036,-11.4327,6.0695,2.4573,-1.0163,6.1260,-0.5653
640.6250,21.2127,8.2107,5.8241,-3.4667,-12.2772,13.0063,5.2030,-1.9875,8.9971,14.2927,7.1938,4.1985,-2.5548,-12.4653,4.4464,2.6790,-2.2825,5.7338,-2.6553
644.5312,18.7535,7.3896,3.8902,-3.7326,-13.1239,11.5002,3.4579,-1.9043,8.2937,12.8187,7.2338,5.7146,-2.8123,-12.6595,5.1806,4.1091,-3.0279,5.3133,-3.6499
648.4375,14.3202,7.5471,2.9402,-2.8508,-11.9003,9.4648,3.2949,-1.2564,8.8281,10.0150,8.8308,7.9701,-1.8836,-11.4492,7.7025,6.4813,-2.9520,5.3513,-3.1677
652.3438,9.2180,8.5722,3.0110,-1.1887,-8.7262,7.8872,4.3759,-0.1315,10.2227,7.8711,11.0037,10.1844,-0.0352,-8.5318,10.3280,8.7483,-2.2248,5.9005,-1.6535
656.2500,4.9448,9.7364,3.6043,0.5984,-4.3274,7.2976,5.8489,1.2497,11.5412,7.7780,12.2868,11.2103,2.0431,-4.2144,11.3848,9.7101,-1.2341,6.5075,-0.0770
660.1562,2.5120,10.1392,4.0520,1.9044,0.2135,7.5092,6.8803,2.6067,11.8341,9.6303,11.5954,10.1970,3.5819,0.5832,10.1655,8.7665,-0.3075,6.4958,0.6591
664.0625,2.0003,9.2403,3.9127,2.4602,3.8792,7.8008,7.0807,3.6997,10.6753,11.9179,8.8207,7.1335,4.0934,4.7029,7.1605,6.2852,0.4189,5.4148,0.2150
667.9688,2.6582,7.1554,3.1471,2.3625,6.0602,7.4259,6.5815,4.3572,8.3813,12.7486,4.8403,2.9222,3.5580,7.2633,3.5861,3.3706,0.9885,3.3411,-1.0937
671.8750,3.4890,4.5578,2.0021,1.8313,6.6254,6.1213,5.7795,4.4075,5.8110,11.1168,1.0253,-1.0614,2.3564,7.9921,0.6532,1.2339,1.5696,0.8276,-2.6217
675.7812,3.9204,2.2783,0.7444,0.9142,5.7488,4.2938,4.9932,3.6161,3.8976,7.5811,-1.4021,-3.6358,1.0183,7.2057,-0.9347,0.5945,2.4108,-1.4358,-3.8637
679.6875,4.0890,0.8753,-0.5149,-0.5795,3.7020,2.7728,4.3001,1.7659,3.2074,3.9254,-1.8010,-4.3029,-0.0378,5.5294,-1.0570,1.4533,3.7606,-2.9856,-4.7133
683.5938,4.5602,0.4390,-1.7695,-2.8077,0.8207,2.3036,3.6476,-1.0934,3.7687,2.0680,-0.1950,-3.3057,-0.6228,3.6001,0.0352,3.2748,5.6979,-3.7124,-5.3404
687.5000,5.7267,0.7107,-2.9086,-5.4787,-2.3545,3.1176,3.0969,-4.3895,5.2088,2.9553,2.8909,-1.3037,-0.7164,1.9351,1.9546,5.3499,7.9255,-3.7082,-5.8230
691.4062,7.3707,1.3878,-3.5664,-7.6602,-4.9750,4.8514,2.9542,-7.0193,7.0428,6.1320,6.6487,1.0542,-0.3247,0.9555,4.2883,7.0750,9.7064,-3.0170,-5.8646
695.3125,8.7413,2.3740,-3.2111,-8.0782,-6.0578,6.8374,3.6413,-7.7300,8.8976,10.1795,10.1647,3.3767,0.5989,1.0041,6.6266,8.0462,10.1031,-1.5389,-4.8661
699.2188,9.0972,3.7984,-1.4639,-5.8199,-4.9511,8.5386,5.3773,-5.7603,10.5535,13.6350,12.5936,5.5021,2.0918,2.2348,8.6187,8.0547,8.4810,0.8097,-2.3431
703.1250,8.2941,5.8013,1.5596,-1.0143,-1.8135,9.8143,7.9104,-1.3728,11.8499,15.7461,13.3904,7.3178,4.0285,4.4229,10.0730,7.1147,4.9933,3.8181,1.5995
707.0312,6.9455,8.2547,5.1420,4.9947,2.2819,10.8452,10.5179,4.0976,12.5924,16.6190,12.5506,8.6314,6.0161,6.8873,11.0008,5.5365,0.6862,6.8431,6.0946
710.9375,6.0020,10.6241,8.1975,10.1738,5.7996,11.8044,12.3073,8.7847,12.5644,16.7930,10.6805,9.2008,7.4550,8.6837,11.5031,3.9218,-2.9360,8.9739,9.8061
714.8438,6.0360,12.0912,9.7234,12.7572,7.5304,12.5509,12.6356,11.1552,11.6234,16.6536,8.7357,8.8650,7.7636,9.0226,11.5476,2.9568,-4.6884,9.4287,11.5303
718.7500,6.7572,11.8856,9.2015,12.0649,7.2128,12.5987,11.3857,10.6985,9.7801,16.1340,7.4754,7.6278,6.6380,7.6626,10.8296,3.0383,-4.3582,7.9207,10.7344
722.6562,7.1343,9.6453,6.7268,8.6982,5.5557,11.4052,8.9422,8.0454,7.1763,14.8648,6.9303,5.6078,4.1848,5.0062,8.9025,3.9585,-2.8095,4.7504,7.7126
726.5625,6.0584,5.6093,2.8366,4.0370,3.6399,8.7748,5.9163,4.4743,3.9825,12.5771,6.2708,2.9090,0.8488,1.8204,5.5597,4.9082,-1.4611,0.5786,3.3059
730.4688,3.0923,0.5402,-1.7944,-0.5868,2.1291,5.0766,2.8254,1.1488,0.3214,9.4032,4.2618,-0.4402,-2.8027,-1.2215,1.2051,4.8783,-1.4647,-3.9280,-1.5788
734.3750,-1.2191,-4.5729,-6.5709,-4.4885,0.8653,1.1036,-0.0671,-1.4267,-3.6876,5.8512,0.1009,-4.3815,-6.2859,-3.8483,-3.1124,3.2533,-3.0930,-8.3141,-6.3114
738.2812,-5.6825,-8.8714,-10.9987,-7.6615,-0.8538,-2.3385,-2.6845,-3.4247,-7.7819,2.5091,-5.8708,-8.6081,-9.2692,-6.1396,-6.1252,0.2265,-5.6854,-12.2851,-10.5509
742.1875,-9.1796,-11.8675,-14.5795,-10.3253,-3.5341,-4.8266,-4.9410,-5.2532,-11.4371,-0.2611,-12.0779,-12.4151,-11.4969,-8.1886,-7.0168,-3.2455,-8.1155,-15.4858,-14.0042
746.0938,-11.2523,-13.4745,-16.7462,-12.4066,-6.8550,-6.4231,-6.5942,-7.0180,-13.9223,-2.4065,-16.3768,-14.7961,-12.6763,-9.7810,-5.8992,-5.9348,-9.4271,-17.3557,-16.1977
750.0000,-12.1511,-13.8574,-16.9659,-13.3742,-9.6570,-7.4295,-7.2669,-8.2916,-14.5607,-4.0131,-17.1274,-14.8070,-12.4664,-10.3764,-3.7485,-6.9721,-9.2410,-17.2478,-16.5033
753.9062,-12.3608,-13.2310,-14.9850,-12.5516,-10.6017,-7.9953,-6.6352,-8.3450,-13.0720,-5.0602,-14.0483,-12.0289,-10.6217,-9.4443,-1.8116,-6.2286,-7.7608,-14.7840,-14.4470
757.8125,-12.0224,-11.7408,-11.0629,-9.6628,-9.0589,-7.9026,-4.6596,-6.6709,-9.7848,-5.3244,-8.3563,-6.8693,-7.2138,-6.9126,-0.8620,-4.2495,-5.5039,-10.2149,-10.0966
761.7188,-10.7408,-9.4896,-6.0208,-5.1988,-5.5961,-6.7143,-1.7158,-3.4302,-5.5722,-4.5218,-2.1308,-0.5167,-2.7737,-3.3833,-0.7964,-1.8443,-3.0185,-4.5122,-4.2425
765.6250,-7.9619,-6.6650,-1.0345,-0.3240,-1.7129,-4.1956,1.4649,0.4916,-1.5259,-2.5798,2.6930,5.4478,1.7736,0.0785,-0.8286,0.3559,-0.7604,0.9240,1.7901
769.5312,-3.6411,-3.6497,2.7529,3.6314,1.0144,-0.6976,4.0286,3.8675,1.4552,0.1764,5.1154,9.5961,5.3904,2.4747,-0.1251,2.0971,0.8978,4.8150,6.6223
773.4375,1.3382,-1.0102,4.6205,5.7757,1.8174,2.8089,5.3071,5.7266,2.9480,3.0687,5.2569,11.1126,7.3015,3.3878,1.5672,3.3979,1.6760,6.5145,9.3375
777.3438,5.3949,0.6594,4.4860,5.9939,1.0872,5.1266,5.0654,5.8118,3.0375,5.3223,3.9529,9.9890,7.2792,3.1493,3.7215,4.3089,1.4998,6.2064,9.7573
781.2500,7.0608,0.9637,2.8627,4.8525,0.0008,5.4309,3.5762,4.6403,2.1290,6.3679,2.1157,6.9222,5.6980,2.5660,5.3671,4.7656,0.6412,4.6952,8.3576
785.1562,5.8632,-0.1263,0.5902,3.1784,-0.2932,3.7027,1.4830,3.1486,0.6839,6.0147,0.2829,3.0030,3.3294,2.3890,5.7019,4.6443,-0.2980,2.9250,5.9156
789.0625,2.6682,-2.2523,-1.5303,1.5967,0.6035,0.7277,-0.4897,2.1418,-0.9736,4.4307,-1.4414,-0.6637,0.9805,2.8584,4.5627,3.9384,-0.6580,1.5004,3.1112
792.9688,-0.7827,-4.8033,-3.0319,0.2909,2.1354,-2.3250,-1.8423,1.8668,-2.7026,2.0004,-3.1406,-3.2795,-0.8527,3.5801,2.4672,2.8721,-0.1416,0.4610,0.3011
796.8750,-2.8693,-7.1266,-3.8789,-0.9245,3.1780,-4.4716,-2.4672,1.9443,-4.4693,-0.8149,-4.7996,-4.5297,-2.1509,3.7769,0.2471,1.8265,0.8995,-0.5895,-2.4482
800.7812,-2.9830,-8.7129,-4.3304,-2.3211,2.7299,-5.2943,-2.5886,1.6827,-6.2220,-3.5447,-6.1972,-4.5824,-3.2763,2.7406,-1.4488,1.1139,1.5613,-2.1001,-5.1395
804.6875,-1.7449,-9.2889,-4.6551,-3.9646,0.4976,-4.9588,-2.5203,0.5791,-7.7954,-5.7370,-7.0198,-3.9257,-4.6645,0.2345,-2.4627,0.7621,0.8813,-4.1661,-7.6061
808.5938,-0.4427,-8.8139,-4.8710,-5.5839,-2.9223,-3.9416,-2.3996,-1.2937,-8.8890,-7.0228,-7.0674,-3.1091,-6.4598,-3.3410,-3.0923,0.4746,-1.5408,-6.3364,-9.4178
812.5000,-0.0977,-7.4182,-4.6762,-6.6535,-6.3078,-2.6948,-2.0762,-3.2421,-9.1290,-7.2478,-6.3847,-2.4942,-8.2973,-7.0611,-3.7901,-0.1914,-5.1815,-7.7525,-9.9970
816.4062,-0.7910,-5.3230,-3.6311,-6.6243,-8.3459,-1.4553,-1.2325,-4.2833,-8.1938,-6.5928,-5.2305,-2.1172,-9.3700,-9.7898,-4.8156,-1.5266,-8.7387,-7.5498,-8.8833
820.3125,-1.6619,-2.7663,-1.4837,-5.1738,-8.1732,-0.2477,0.3513,-3.6634,-5.9556,-5.5546,-3.9215,-1.7159,-8.7760,-10.5572,-6.0436,-3.4257,-10.7181,-5.3031,-5.9997
824.2188,-1.5175,0.0525,1.5782,-2.3589,-5.7021,1.0092,2.5807,-1.2697,-2.5763,-4.7171,-2.6545,-0.8910,-5.9847,-8.8769,-7.0059,-5.3341,-10.1342,-1.2695,-1.7636
828.1250,0.3981,2.9911,4.9384,1.3836,-1.6288,2.4061,5.0398,2.2904,1.4981,-4.4034,-1.4074,0.6844,-1.1767,-4.9202,-7.1095,-6.4201,-6.9427,3.7011,3.0247
832.0312,3.9681,5.9264,7.8421,5.3699,2.8526,3.9958,7.2004,5.9725,5.6531,-4.4268,0.0357,3.1023,4.7301,0.4958,-5.9102,-5.9022,-2.0096,8.5257,7.4638
835.9375,8.3063,8.6701,9.7822,8.8685,6.5034,5.7523,8.6928,8.7612,9.2802,-4.1526,1.9481,6.1555,10.3903,6.1041,-3.3244,-3.4039,3.3029,12.3004,10.8534
839.8438,12.2278,10.8964,10.7171,11.2848,8.4786,7.4975,9.4413,10.0582,11.9224,-2.8989,4.4640,9.3687,14.5200,10.5268,0.2938,0.8059,7.6714,14.5384,12.8602
843.7500,14.7342,12.1661,10.9658,12.2833,8.5807,8.8442,9.5797,9.8129,13.3300,-0.4613,7.4064,12.0985,16.3223,12.6722,4.2332,5.7948,10.2063,15.1482,13.4862
847.6562,15.2632,12.0903,10.8650,11.8314,7.2406,9.2592,9.2423,8.3974,13.4321,2.5906,10.2342,13.6821,15.6681,12.0774,7.6401,10.2187,10.6007,14.2474,12.9005
851.5625,13.7084,10.5747,10.4560,10.1821,5.2636,8.3079,8.4276,6.3690,12.2918,5.0946,12.1783,13.6243,13.0046,9.0823,9.7955,12.7848,9.0767,12.0119,11.2808
855.4688,10.3759,7.9925,9.4580,7.8032,3.4791,5.9850,7.0620,4.2787,10.1104,5.9130,12.5519,11.7868,9.1006,4.7535,10.3517,12.7594,6.2376,8.6837,8.7779
859.3750,5.9933,5.1323,7.5624,5.2568,2.4551,2.9095,5.2135,2.5814,7.2724,4.6330,11.1078,8.5005,4.7810,0.5445,9.4285,10.2879,2.8881,4.6916,5.6016
863.2812,1.7012,2.8899,4.8267,3.0305,2.3728,0.1819,3.2536,1.5935,4.3482,1.9006,8.2390,4.5107,0.7366,-2.2240,7.5277,6.3459,-0.1743,0.7046,2.1159
867.1875,-1.1519,1.8480,1.8395,1.3653,3.0528,-1.0961,1.7813,1.4219,1.9710,-0.8643,4.8685,0.7218,-2.5879,-2.8866,5.3149,2.3096,-2.3928,-2.5286,-1.1870
871.0938,-1.4846,1.9965,-0.5139,0.1641,4.0644,-0.3955,1.3067,1.8745,0.5960,-2.2315,2.0384,-2.1648,-5.0546,-1.7293,3.3775,-0.6577,-3.6433,-4.5145,-3.8603
875.0000,0.9545,2.7800,-1.5599,-0.9313,4.8622,1.9278,1.8959,2.4581,0.2767,-1.5440,0.4112,-3.9300,-6.8321,0.1201,2.0693,-2.0796,-4.2634,-5.2912,-5.7104
878.9062,5.2966,3.4573,-1.2671,-2.2848,4.9406,4.7982,3.0470,2.5631,0.6307,0.7635,-0.0182,-4.8509,-8.2816,1.2236,1.4811,-2.2488,-4.8422,-5.3972,-6.8652
882.8125,9.8122,3.5471,-0.2785,-3.9482,4.0131,6.9776,3.9243,1.8050,1.0738,3.4973,0.1916,-5.4151,-9.7116,0.5746,1.5027,-1.8880,-5.8352,-5.4797,-7.6131
886.7188,12.6626,3.0727,0.5019,-5.4813,2.1780,7.6739,3.8286,0.3268,1.2057,5.4500,0.3824,-5.9014,-11.0886,-1.8227,1.9081,-1.6211,-7.2110,-5.7755,-8.1032
890.6250,12.7420,2.4612,0.4962,-6.0763,-0.0316,6.8367,2.6090,-1.1759,1.0979,6.0584,0.2947,-6.1045,-11.8937,-4.8818,2.4261,-1.5922,-8.3710,-5.8439,-8.1295
894.5312,10.1203,2.1979,-0.1843,-4.9796,-1.8104,5.0081,0.7551,-1.7986,1.2665,5.5641,0.2694,-5.4124,-11.2889,-6.9680,2.8056,-1.4635,-8.4365,-4.7975,-7.1962
898.4375,5.8485,2.5010,-0.8425,-1.9949,-2.4437,2.9001,-0.8764,-0.9750,2.3180,4.6328,1.0050,-3.2200,-8.5849,-6.7857,2.8975,-0.7614,-6.7683,-1.9331,-4.8632
902.3438,1.3107,3.2463,-0.6825,2.2461,-1.7010,1.0284,-1.5138,1.1163,4.4902,3.7664,3.0226,0.5720,-3.7717,-4.1239,2.7335,0.6890,-3.4115,2.6456,-1.1592
906.2500,-2.4235,4.1631,0.6569,6.4540,-0.0167,-0.3690,-0.8243,3.5723,7.4009,2.9605,6.1999,5.2996,2.2297,-0.0124,2.5348,2.5468,0.8165,7.8574,3.2343
910.1562,-4.8575,5.1036,2.8681,9.2395,1.6915,-1.1659,1.0014,5.2324,10.1847,1.8370,9.6950,9.7115,7.8151,3.8206,2.5918,4.0982,4.6654,12.0880,7.1894
914.0625,-5.8958,6.1418,5.1595,9.7554,2.4932,-1.1706,3.4115,5.3059,11.9310,0.1050,12.3257,12.4986,11.3661,5.8755,3.0438,4.6552,7.0243,13.9965,9.6264
917.9688,-5.5282,7.4074,6.6992,8.0589,1.9319,-0.1616,5.7455,3.7697,12.1353,-2.0450,13.1696,12.8838,11.9806,5.6383,3.6940,3.9446,7.3927,13.1885,10.0009
921.8750,-3.7163,8.8000,7.0195,5.0025,0.2296,1.8668,7.4302,1.3048,10.8796,-3.9371,12.0132,10.9465,9.8492,3.7307,4.0255,2.2512,6.0029,10.3493,8.4944
925.7812,-0.5841,9.8444,6.1635,1.7589,-1.8969,4.4720,8.0823,-1.1389,8.6676,-4.7978,9.3932,7.5307,6.0766,1.4131,3.4777,0.2568,3.5776,6.7970,5.8312
929.6875,3.3108,9.8577,4.5601,-0.7102,-3.6591,6.8071,7.5677,-2.8276,6.0817,-4.2307,6.2398,3.8262,2.0882,-0.1938,1.8525,-1.2930,0.9299,3.7791,2.8836
933.5938,6.9664,8.3539,2.7754,-1.9464,-4.5612,8.0032,6.0585,-3.4725,3.5255,-2.4175,3.3790,0.8749,-1.0032,-0.6597,-0.4183,-1.8883,-1.3325,1.9505,0.3377
937.5000,9.3219,5.4151,1.3051,-1.9628,-4.4968,7.6673,4.0492,-3.1296,1.2022,0.0753,1.1974,-0.7582,-2.7272,-0.2703,-2.3764,-1.3813,-2.8746,1.2869,-1.4175
941.4062,9.8216,1.7573,0.4740,-1.0295,-3.5909,6.1442,2.2474,-1.9570,-0.7371,2.6802,-0.3678,-1.0491,-3.1853,0.3859,-3.0225,0.0598,-3.5438,1.3604,-2.2156
945.3125,8.7375,-1.5736,0.4083,0.5060,-1.9972,4.3265,1.3150,-0.0805,-2.0741,5.0623,-1.5787,-0.3693,-2.7539,0.8961,-1.9222,2.0799,-3.2946,1.6988,-2.0244
949.2188,6.9698,-3.6864,1.0250,2.2596,0.1526,3.1126,1.5655,2.3308,-2.5799,7.0258,-2.5985,0.7385,-1.8249,1.2184,0.4598,4.2564,-2.2320,1.9846,-0.9674
953.1250,5.4388,-4.2098,2.0438,3.7887,2.6318,2.8751,2.8069,4.9109,-2.2046,8.2434,-3.3429,1.7606,-0.7233,1.5190,2.9556,6.1836,-0.7051,2.0537,0.5901
957.0312,4.5121,-3.3429,3.0673,4.6600,5.0100,3.3016,4.4631,7.0925,-1.2136,8.1566,-3.5433,2.3494,0.2616,1.8742,4.3533,7.5455,0.7176,1.8291,2.0556
960.9375,3.8989,-1.6255,3.7482,4.6569,6.7473,3.7075,5.9222,8.3510,-0.1044,6.2705,-2.9440,2.3983,0.8907,2.1426,4.1351,8.1949,1.4937,1.3266,2.8386
964.8438,3.0872,0.3638,3.9674,3.9923,7.4991,3.5849,6.8888,8.5499,0.6752,2.7032,-1.4930,2.0502,1.1040,2.1252,2.8185,8.2041,1.4712,0.7257,2.7073
968.7500,1.9555,2.1789,3.8921,3.3052,7.4099,2.9875,7.4981,8.0971,0.9990,-1.4660,0.5709,1.6206,1.1518,1.8537,1.6547,7.8309,1.1008,0.3699,2.0141
972.6562,1.0334,3.4960,3.8356,3.3350,7.1114,2.4773,8.1110,7.7239,1.0946,-4.4670,2.7525,1.4334,1.5370,1.7085,1.8343,7.3774,1.2585,0.5856,1.5479
976.5625,1.1446,4.0341,3.9806,4.4200,7.3349,2.6796,8.9435,7.9837,1.2818,-4.7359,4.4188,1.6227,2.6910,2.2007,3.6798,6.9997,2.6920,1.3820,2.0208
980.4688,2.6634,3.5523,4.1516,6.1537,8.3573,3.7668,9.8059,8.8154,1.6076,-1.9379,4.9570,2.0035,4.5502,3.5414,6.3373,6.5859,5.4097,2.2564,3.4882
984.3750,4.9615,1.9641,3.8198,7.4814,9.6872,5.2378,10.1495,9.5095,1.6756,2.5917,3.9448,2.1018,6.3543,5.3305,8.1839,5.7944,8.4473,2.3185,5.1190
988.2812,6.5390,-0.5325,2.3750,7.2369,10.2699,6.1480,9.3916,9.1398,0.8448,6.3988,1.3064,1.3565,6.9038,6.6473,7.7300,4.2513,10.2582,0.7389,5.5399
992.1875,5.8513,-3.4521,-0.4908,4.8051,9.1313,5.6421,7.2874,7.1825,-1.3094,7.2252,-2.5941,-0.5975,5.2051,6.5395,4.4884,1.8022,9.5669,-2.7286,3.6013
996.0938,2.3208,-6.1994,-4.5330,0.4820,6.0376,3.4483,4.0959,3.8858,-4.5931,4.3095,-6.9859,-3.7100,1.1298,4.6049,-0.7050,-1.3261,6.1796,-7.4998,-0.8997
1000.0000,-3.1637,-8.3255,-9.0002,-4.6973,1.7073,0.0414,0.4458,0.1264,-8.1609,-1.1461,-10.8838,-7.4725,-4.3568,1.2734,-6.1001,-4.5463,1.2226,-12.3753,-7.0012
1003.9062,-8.6394,-9.6900,-12.9482,-9.5330,-2.5932,-3.5988,-2.9752,-3.1450,-10.9104,-6.6615,-13.3975,-11.0721,-9.5882,-2.4033,-9.9201,-7.1028,-3.3874,-16.1043,-13.0132
1007.8125,-12.1412,-10.4188,-15.6226,-13.2361,-5.7969,-6.4628,-5.6810,-5.4694,-12.0625,-9.8948,-14.0373,-13.6657,-13.0023,-5.3134,-11.2052,-8.3405,-5.9486,-17.9477,-17.3315
1011.7188,-12.7765,-10.7016,-16.6914,-15.6329,-7.6109,-7.9413,-7.4478,-7.0550,-11.5492,-9.9040,-12.8714,-14.6526,-13.8751,-6.8303,-10.1458,-7.9334,-5.8511,-17.9054,-19.1300
1015.6250,-11.1234,-10.5940,-16.2300,-16.9192,-8.5295,-7.9964,-8.2052,-8.4529,-9.9614,-7.4934,-10.4537,-13.8501,-12.5534,-7.0157,-7.7693,-5.9976,-3.8070,-16.5169,-18.5417
1019.5312,-8.7208,-9.9723,-14.5375,-17.2243,-9.3060,-7.0387,-7.9189,-9.9929,-8.1123,-4.4962,-7.5578,-11.5270,-10.0947,-6.4142,-5.2405,-3.0656,-1.3309,-14.4291,-16.3110
1023.4375,-7.0104,-8.6674,-11.9480,-16.3695,-10.2955,-5.6314,-6.6004,-11.4091,-6.5245,-2.5285,-4.8508,-8.3031,-7.6034,-5.6438,-3.2322,0.0624,0.1642,-12.0485,-13.2366
1027.3438,-6.4290,-6.6620,-8.7651,-14.0226,-11.1530,-4.2049,-4.4348,-11.9410,-5.1786,-2.0442,-2.6684,-4.9507,-5.7021,-5.0788,-1.7294,2.5573,0.0870,-9.4817,-9.8105
1031.2500,-6.2198,-4.1945,-5.3141,-10.1190,-11.0965,-2.9133,-1.8773,-10.8444,-3.6657,-2.2530,-0.9854,-2.1497,-4.4237,-4.7891,-0.3056,3.8372,-1.1866,-6.7256,-6.2397
1035.1562,-5.0468,-1.6947,-2.0120,-5.1883,-9.5202,-1.6677,0.4337,-7.9519,-1.5994,-1.8605,0.4342,-0.2679,-3.4791,-4.6809,1.3933,3.7937,-2.7284,-3.8958,-2.7168
1039.0625,-1.9840,0.3977,0.6550,-0.2860,-6.4988,-0.2848,1.9559,-3.8904,1.0089,-0.0627,1.8138,0.7489,-2.6154,-4.6494,3.3245,2.8594,-3.6759,-1.2950,0.3725
1042.9688,2.7603,1.8027,2.2659,3.4744,-2.8233,1.3438,2.5500,0.1941,3.6616,2.8755,3.1917,1.3108,-1.7884,-4.6106,5.0822,1.8383,-3.6473,0.7130,2.5234
1046.8750,7.8346,2.4529,2.6336,5.4795,0.4376,3.1461,2.5810,3.2194,5.6083,5.7903,4.3781,1.9423,-1.0841,-4.4332,6.2052,1.5235,-2.7709,1.8916,3.4121
1050.7812,11.4434,2.4244,1.8928,5.8732,2.5196,4.8659,2.6980,4.6780,6.2305,7.3579,5.0400,2.9576,-0.5501,-3.9132,6.4752,2.2591,-1.4501,2.2142,3.1526
1054.6875,12.3282,1.8193,0.4420,5.3296,3.2887,6.1521,3.3970,4.7707,5.3344,6.8903,4.8544,4.2174,-0.1484,-2.8915,5.9687,3.6778,-0.1216,1.7882,2.2526
1058.5938,10.4563,0.6947,-1.2314,4.5033,3.1284,6.6953,4.6439,4.1187,3.2023,4.7025,3.6510,5.1134,0.1110,-1.4648,4.8544,4.7967,0.8236,0.7081,1.2557
1062.5000,7.0301,-0.9199,-2.7444,3.5507,2.5370,6.3543,5.8244,3.2852,0.4166,1.8877,1.4912,4.8254,-0.0020,-0.1052,3.1557,4.4737,1.0060,-1.0150,0.3248
1066.4062,3.8278,-2.9443,-3.9294,2.0637,1.7615,5.2223,6.0876,2.4288,-2.4076,-0.3013,-1.3363,2.7437,-0.9316,0.4743,0.7349,2.0156,0.0790,-3.3785,-0.8974
1070.3125,2.2531,-5.1706,-4.8217,-0.5402,0.7224,3.6072,4.8870,1.2899,-4.8308,-1.0828,-4.3907,-1.1548,-3.0724,-0.3027,-2.4483,-2.3858,-2.0953,-6.2362,-3.0020
1074.2188,2.6221,-7.2482,-5.5546,-4.4490,-0.7769,1.9290,2.3729,-0.5217,-6.6629,-0.4709,-7.1990,-6.1831,-6.3966,-2.4731,-6.0177,-7.6466,-5.2144,-9.2122,-6.2779
1078.1250,4.0701,-8.7531,-6.2422,-9.1134,-2.7754,0.5687,-0.6346,-3.1621,-7.9216,0.8106,-9.3831,-11.1574,-10.2617,-5.3916,-9.1275,-12.2464,-8.4786,-11.7793,-10.3115
1082.0312,5.1186,-9.3264,-6.9149,-13.3778,-5.0502,-0.2739,-3.1011,-6.3534,-8.7335,1.7272,-10.7538,-14.8552,-13.5961,-7.9913,-10.8307,-14.9201,-10.8655,-13.4697,-14.0438
1085.9375,4.5767,-8.8263,-7.5287,-16.0098,-7.2463,-0.6461,-4.3828,-9.4612,-9.2326,1.4448,-11.3355,-16.4947,-15.4026,-9.3303,-10.6785,-15.2226,-11.6457,-14.0774,-16.2926
1089.8438,2.2694,-7.4172,-8.0082,-16.2912,-9.0967,-0.7861,-4.5854,-11.7717,-9.4786,-0.2505,-11.3041,-15.9968,-15.2738,-9.0957,-9.1130,-13.6676,-10.8207,-13.7138,-16.4122
1093.7500,-0.8210,-5.5263,-8.2694,-14.3059,-10.5203,-0.9489,-4.4208,-12.7798,-9.4077,-2.7793,-10.8618,-13.9085,-13.5736,-7.7401,-7.2906,-11.3773,-9.1517,-12.6791,-14.6433
1097.6562,-3.0887,-3.6587,-8.1936,-10.7705,-11.5101,-1.1953,-4.6325,-12.3220,-8.8336,-4.9313,-10.1129,-11.0451,-11.1510,-6.1509,-6.3635,-9.4460,-7.6948,-11.2430,-11.9091
1101.5625,-3.2165,-2.1501,-7.5844,-6.5620,-11.9222,-1.2782,-5.3693,-10.5179,-7.5254,-5.3506,-9.0163,-8.0613,-8.7674,-5.0546,-6.6810,-8.3735,-7.1027,-9.4869,-9.1873
1105.4688,-0.9517,-1.0089,-6.1858,-2.2764,-11.3871,-0.7367,-5.9561,-7.6211,-5.3577,-3.1921,-7.4582,-5.1905,-6.6219,-4.5420,-7.5059,-7.8705,-7.1470,-7.3139,-6.8926
1109.3750,2.7001,0.0243,-3.8139,1.8971,-9.4824,0.8011,-5.2761,-3.9231,-2.4759,1.3360,-5.4124,-2.2920,-4.3006,-4.0312,-7.5234,-7.1248,-6.8084,-4.6144,-4.6992
1113.2812,5.9793,1.2074,-0.5708,5.9445,-6.0923,3.2645,-2.5641,0.2163,0.6228,6.8588,-3.0870,0.8454,-1.1919,-2.7105,-5.8481,-5.3578,-4.9241,-1.4776,-1.9323
1117.1875,7.2954,2.4919,2.9972,9.6550,-1.7010,5.9848,1.9060,4.2711,3.1832,11.3140,-0.9429,4.1491,2.9052,-0.1844,-2.8172,-2.3488,-1.0114,1.6957,1.7435
1121.0938,6.0487,3.4300,5.9587,12.4231,2.6339,7.9167,6.7432,7.5265,4.4647,12.8777,0.4639,7.1052,7.3930,3.0959,0.0590,1.3653,4.2444,4.2588,5.8322
1125.0000,2.9016,3.4233,7.3350,13.4133,5.6831,8.1848,10.1028,9.2364,4.0846,10.8972,0.7514,8.9227,10.9883,5.9203,1.0488,4.7202,9.1631,5.5470,9.0809
1128.9062,-0.6324,2.1922,6.5863,12.0084,6.6147,6.6522,10.7181,8.9256,2.2477,6.3026,-0.0676,8.9418,12.3023,6.9114,-0.5628,6.6458,11.8329,5.1543,10.1154
1132.8125,-3.0282,0.1307,3.9644,8.2460,5.3913,4.1178,8.6413,6.6605,-0.2904,1.2003,-1.5624,7.0402,10.5632,5.2857,-3.8365,6.5911,11.0470,3.1213,8.2439
1136.7188,-3.5367,-1.7668,0.4671,2.9363,2.7430,1.9358,5.1877,3.0834,-2.5490,-2.1952,-3.0998,3.7755,6.0632,1.3382,-6.6657,4.7714,6.9052,-0.0617,3.9117
1140.6250,-2.5000,-2.4467,-2.6422,-2.6483,-0.2673,1.2270,2.1008,-0.8550,-3.7844,-2.7203,-4.1779,0.1576,0.0759,-3.6453,-7.1305,2.0208,0.7686,-3.6383,-1.4870
1144.5312,-1.0577,-1.4812,-4.4947,-7.3351,-2.8092,2.1729,0.4945,-4.3270,-3.8360,-0.8437,-4.6702,-2.8250,-5.7068,-8.0002,-4.8115,-0.6457,-5.3827,-6.8614,-6.3222
1148.4375,-0.4458,0.5890,-5.0383,-10.5213,-4.6301,3.8858,0.2920,-6.9508,-3.1497,1.6901,-4.8149,-4.6445,-9.9030,-10.4759,-1.1248,-2.5094,-9.8371,-9.2236,-9.5140
1152.3438,-1.2957,2.5481,-4.9344,-12.2776,-5.9889,4.9965,0.5304,-8.7969,-2.4562,2.9570,-4.9570,-5.3800,-11.9561,-10.7699,1.6084,-3.4121,-11.8396,-10.5391,-10.9227
1156.2500,-3.3087,3.2815,-4.9939,-13.0675,-7.2758,4.5912,0.2652,-10.0985,-2.2956,2.0300,-5.2249,-5.5120,-12.2043,-9.5449,1.7593,-3.6947,-11.7727,-10.8743,-11.1593
1160.1562,-5.4594,2.5057,-5.5563,-13.3245,-8.6249,2.8515,-0.6392,-10.9167,-2.6921,-0.4881,-5.3869,-5.5292,-11.5322,-7.9822,-0.4493,-3.8918,-10.8018,-10.4155,-11.0209
1164.0625,-6.5920,0.9145,-6.2787,-13.2091,-9.8119,0.9140,-1.4583,-11.0518,-3.1916,-2.9079,-5.0113,-5.6225,-10.8480,-7.1721,-3.0567,-4.3845,-10.2088,-9.3891,-10.9755
1167.9688,-6.0741,-0.3849,-6.5029,-12.6987,-10.4987,0.0177,-1.3461,-10.2977,-3.2402,-3.5870,-3.8355,-5.6513,-10.6728,-7.6772,-3.7207,-5.2095,-10.7592,-8.0787,-11.0240
1171.8750,-4.1518,-0.7421,-5.9227,-11.8779,-10.6084,0.5409,-0.2631,-8.8311,-2.6400,-2.0250,-2.0754,-5.3574,-11.0173,-9.4309,-1.4056,-6.0985,-12.3908,-6.8714,-10.9506
1175.7812,-1.8111,-0.4744,-5.0055,-11.1221,-10.4968,1.6591,0.7076,-7.3616,-1.7482,0.7942,-0.4187,-4.6239,-11.5243,-11.9010,2.7695,-6.6723,-14.3304,-6.2137,-10.6795
1179.6875,-0.2163,-0.6036,-4.7721,-10.9423,-10.7283,1.9296,0.0268,-6.8098,-1.2506,3.0458,0.3464,-3.5667,-11.7248,-14.3242,6.1530,-6.6407,-15.5322,-6.4130,-10.4021
1183.5938,-0.0315,-1.9868,-6.0261,-11.5508,-11.5753,0.4239,-3.0583,-7.6434,-1.6425,3.2823,-0.1469,-2.4030,-11.2431,-15.8722,6.2922,-5.8895,-15.1919,-7.3763,-10.3619
1187.5000,-1.0120,-4.4977,-8.5867,-12.4863,-12.6091,-2.4181,-7.6263,-9.3418,-2.7803,1.4324,-1.5255,-1.2349,-9.8821,-15.7620,2.6417,-4.4487,-13.0857,-8.4954,-10.4946
1191.4062,-2.1251,-6.9212,-11.1547,-12.6704,-12.7472,-4.8985,-11.3257,-10.4650,-3.8547,-1.0864,-2.8127,0.0402,-7.6289,-13.4183,-2.8941,-2.4261,-9.6035,-8.8531,-10.2721
1195.3125,-2.1648,-7.7131,-12.0219,-10.9924,-10.8301,-5.1440,-11.7418,-9.4358,-3.8603,-2.2419,-2.9810,1.5850,-4.6596,-8.7366,-6.9891,0.0030,-5.5151,-7.7274,-8.9638
1199.2188,-0.5244,-6.1170,-10.2116,-7.1160,-6.4184,-2.4501,-8.0291,-5.6174,-2.2842,-0.7063,-1.5985,3.3448,-1.3686,-2.3354,-6.8811,2.5336,-1.6381,-5.1192,-6.1930
1203.1250,2.3406,-2.8266,-6.2651,-1.9622,-0.2929,2.0697,-1.6665,0.0262,0.4506,3.2199,0.8425,4.8767,1.6320,4.4287,-2.0866,4.6782,1.4129,-1.9370,-2.4029
1207.0312,5.0803,0.3276,-2.0786,2.5336,5.7233,6.0389,4.2632,5.2064,3.1214,7.6817,3.1447,5.4704,3.6235,9.8340,5.2199,5.8309,3.3058,0.3671,1.1498
1210.9375,6.2021,1.4968,0.1709,4.3466,9.5826,7.2573,6.8653,7.4619,4.3774,10.3134,4.0611,4.5412,4.0220,12.4665,11.3926,5.4849,3.9352,0.5665,2.9524
1214.8438,4.9820,-0.0157,-0.6707,2.4551,10.0178,5.0774,5.1344,5.5246,3.5390,9.6226,3.0031,2.0533,2.6504,11.8566,13.3492,3.5175,3.3423,-1.6088,2.0416
1218.7500,1.9695,-3.3268,-4.0529,-2.5591,7.1431,0.8024,0.4558,0.0641,1.0133,5.8739,0.3818,-1.3179,-0.1174,8.6962,10.2478,0.3688,1.6920,-5.2465,-1.4341
1222.6562,-1.2646,-6.5555,-8.0881,-8.7719,2.3125,-3.1404,-4.3771,-6.6525,-1.9365,0.9582,-2.6066,-4.4200,-3.4575,4.4749,3.8624,-3.0301,-0.6952,-8.6977,-6.2426
1226.5625,-3.0254,-7.9757,-10.6833,-13.8728,-2.6383,-4.6677,-6.9074,-11.9565,-3.9034,-2.6399,-4.6035,-6.1286,-6.4091,0.7282,-2.4851,-5.5861,-3.3341,-10.4273,-10.6546
1230.4688,-2.4970,-6.9387,-10.6585,-16.2267,-6.2711,-3.1703,-6.3285,-14.0769,-4.0584,-3.1330,-4.7355,-5.8230,-8.2324,-1.6558,-5.7379,-6.4813,-5.6567,-9.7381,-13.2141
1234.3750,-0.2119,-3.9907,-8.1537,-15.4340,-8.0304,0.3828,-3.5637,-12.7809,-2.4297,-0.2348,-2.9240,-3.5649,-8.6112,-2.6794,-4.5955,-5.4882,-7.1770,-6.9342,-13.2486
1238.2812,2.3314,-0.2314,-4.1868,-12.1584,-8.1371,4.3089,-0.2353,-9.0836,0.3749,4.9149,0.2671,0.0751,-7.6160,-2.9415,0.0998,-3.0041,-7.6507,-2.8916,-10.8998
1242.1875,3.6707,3.5070,0.1789,-7.4847,-7.1076,7.3395,2.5894,-4.3817,3.7219,10.5307,4.0738,4.3673,-5.5083,-3.0814,6.1491,0.1990,-7.1307,1.5894,-6.7986
1246.0938,3.3484,7.0228,4.3938,-2.3212,-5.3293,9.2147,4.9308,0.3230,7.3284,15.1081,7.9337,8.6944,-2.5726,-3.3745,11.3378,3.3476,-5.8882,6.1555,-1.7017
1250.0000,2.1876,10.4477,8.3594,2.7770,-2.9901,10.4267,7.4179,4.6300,11.1850,17.9409,11.5919,12.6015,0.8934,-3.7251,14.4750,5.9557,-4.2649,10.7558,3.6659
1253.9062,1.6660,13.6426,11.9455,7.3824,-0.3219,11.4554,10.3267,8.4021,15.1321,19.0362,14.9000,15.6882,4.4587,-3.9707,15.5904,7.8976,-2.5582,15.1717,8.5634
1257.8125,2.7869,15.8833,14.6188,10.9146,2.1575,12.1839,13.0191,11.3246,18.4962,18.6654,17.5287,17.5353,7.4830,-4.1676,15.3668,9.2821,-0.9968,18.6875,12.1928
1261.7188,5.2143,16.1741,15.5804,12.6605,3.7086,11.9666,14.2885,12.8207,20.1709,16.9941,18.8835,17.8091,9.2455,-4.5754,14.3779,10.2564,0.2275,20.2636,13.8522
1265.6250,7.3008,13.9931,14.3420,12.1560,3.7703,10.2641,13.3436,12.4239,19.1911,14.0917,18.3551,16.5021,9.2836,-5.3356,12.7451,10.8777,0.9524,19.1665,13.2647
1269.5312,7.0637,9.8824,11.2574,9.6370,2.4083,7.2911,10.6052,10.2797,15.4450,10.2631,15.7702,14.1093,7.7400,-6.1302,10.4117,11.1095,1.1115,15.6115,10.8440
1273.4375,3.5166,5.3646,7.5187,6.1508,0.4372,4.1125,7.6054,7.3072,10.0011,6.3483,11.7210,11.5386,5.4470,-6.1639,7.6942,10.9006,0.8304,10.8989,7.6344
1277.3438,-2.5104,2.1498,4.5328,3.1449,-0.9452,2.0518,5.9761,4.8016,4.7397,3.6296,7.4805,9.7301,3.6148,-4.5741,5.5149,10.2669,0.4544,6.8492,4.8727
1281.2500,-8.6442,1.1340,3.0885,1.7417,-0.8093,1.8219,6.2556,3.7088,1.4399,3.2698,4.4682,9.1914,3.2523,-1.0321,4.9730,9.3231,0.4380,4.8483,3.4104
1285.1562,-12.2313,1.8765,2.9229,2.1691,0.9951,3.0169,7.4392,4.0836,0.8623,5.5854,3.5429,9.7514,4.6564,3.8943,6.4806,8.2753,1.1359,5.1153,3.3658
1289.0625,-11.8364,2.9382,3.0210,3.7357,3.8134,4.3607,7.6875,5.1319,2.4078,9.6495,4.5555,10.7168,7.2862,8.9119,9.1452,7.3989,2.6231,6.6851,4.2339
1292.9688,-8.0524,2.8755,2.4468,5.3674,6.6467,4.5689,5.7422,5.8226,4.5721,13.5696,6.4665,11.3440,10.1010,12.6416,11.0201,7.0047,4.6632,8.1165,5.3546
1296.8750,-3.1112,1.2302,1.1017,6.3281,8.7618,3.2363,2.0331,5.6322,5.9038,15.3781,7.9793,11.3102,12.1362,14.3243,10.2469,7.3512,6.8390,8.4420,6.3843
1300.7812,0.4578,-1.1486,-0.1560,6.6271,10.0279,1.1355,-1.3820,4.8916,5.8446,14.0638,8.2906,10.8515,12.9462,14.1424,6.3928,8.4854,8.7388,7.7164,7.4187
1304.6875,1.2827,-2.6698,-0.1395,6.8497,10.7783,-0.2860,-2.1016,4.4919,4.9197,10.1395,7.4701,10.4653,12.6577,12.9682,1.0025,10.0748,10.0645,6.8141,8.6960
1308.5938,-0.1801,-2.0807,1.7235,7.5654,11.3578,0.1194,0.9286,5.1721,4.1936,5.3893,6.2222,10.3946,11.6649,11.7428,-3.1728,11.3753,10.6180,6.6583,10.1446
1312.5000,-2.1336,0.6479,4.8058,8.7701,11.7368,2.4008,6.4790,6.9063,4.3997,1.9171,5.2194,10.2913,10.2509,10.9251,-3.8884,11.4652,10.2459,7.4555,11.1742
1316.4062,-2.7119,4.2161,7.4975,9.7814,11.4978,5.4172,11.5526,8.8344,5.3666,1.0397,4.5130,9.3578,8.4420,10.3671,-0.9347,9.7193,8.8693,8.4893,10.9334
1320.3125,-1.1760,6.7391,8.1232,9.6714,10.1979,7.5133,13.1025,9.7854,6.1389,2.6567,3.4824,6.9248,6.1875,9.6433,3.6218,6.2896,6.6323,8.6123,8.8908
1324.2188,1.7263,6.8687,5.9820,7.9268,7.8116,7.5272,9.8865,9.0342,5.6951,5.4365,1.3922,3.0868,3.6770,8.5413,6.7468,2.2531,4.0493,7.0726,5.3230
1328.1250,4.4050,4.5809,1.8350,4.8640,4.9016,5.4875,3.2768,6.7735,3.7422,7.6605,-1.8504,-1.0848,1.4798,7.3290,6.4544,-0.7777,1.9577,4.0815,1.3223
1332.0312,5.5682,1.1427,-2.4839,1.4998,2.3666,2.5663,-3.5056,3.9937,1.0087,8.1909,-5.3379,-3.9850,0.3267,6.6075,3.1399,-1.4649,1.1868,0.7211,-1.7384
1335.9375,5.0527,-1.7010,-5.1034,-1.0389,0.9356,0.3367,-7.2614,1.8670,-1.1874,6.9866,-7.5568,-4.3663,0.6454,6.8786,-0.7237,0.4674,2.0825,-1.7350,-2.9611
1339.8438,3.8043,-2.7826,-5.1597,-2.1659,0.7597,-0.1795,-6.6220,1.0539,-1.8060,4.9156,-7.3335,-2.1301,2.1898,8.1580,-2.3214,3.9829,4.1968,-2.6034,-2.4023
1343.7500,3.0938,-2.1376,-3.2167,-2.1126,1.3767,0.9298,-2.6904,1.3783,-0.7811,3.0651,-4.6909,1.5161,4.0719,9.9146,-0.4309,7.2492,6.4151,-2.1388,-0.9619
1347.6562,3.5831,-0.8197,-0.8218,-1.6655,2.0576,2.6334,1.8343,2.0488,0.9438,2.0384,-0.9756,4.6898,5.2346,11.3689,3.8201,8.6683,7.5186,-1.2327,0.2398
1351.5625,4.9200,-0.0682,0.5041,-1.5671,2.2824,3.7087,4.4324,2.2412,2.0758,1.6855,1.9037,5.8896,5.0760,11.9241,7.8800,7.7948,6.8683,-0.7135,0.5740
1355.4688,6.1184,-0.4073,0.2044,-2.0009,2.0276,3.5643,4.2831,1.6394,1.8698,1.3816,2.6521,4.8223,3.8059,11.4344,9.6457,5.5466,4.7698,-0.7661,0.2413
1359.3750,6.3903,-1.2898,-1.0229,-2.4988,1.7061,2.5989,2.5876,0.5973,0.6420,0.5972,1.3869,2.4846,2.2875,10.1561,8.8738,3.5566,2.2639,-0.8750,0.0422
1363.2812,5.7813,-1.5138,-1.7388,-2.3046,1.8446,1.8815,1.5705,-0.1401,-0.4560,-0.6588,-0.4920,0.4673,1.4648,8.4711,7.1140,3.0874,0.4702,-0.2992,0.7741
1367.1875,5.1336,-0.1085,-0.7307,-0.9140,2.7454,2.3971,2.8915,0.0736,-0.2357,-1.8131,-1.2718,-0.0399,1.7669,6.6222,6.3056,4.2386,-0.0779,1.3029,2.6792
1371.0938,5.4216,2.9326,2.1923,1.5858,4.3461,4.3765,6.5447,1.4249,1.7129,-2.0969,-0.0625,1.1049,2.8846,4.6609,7.1908,5.9799,0.3339,3.5676,5.2960
1375.0000,6.9738,6.5769,6.0709,4.5852,6.3158,7.1505,10.9347,3.6194,4.7442,-1.0320,2.6706,3.0803,4.0476,2.6144,8.7950,6.9668,0.9321,5.6553,7.7614
1378.9062,9.1694,9.3804,9.3841,7.3374,8.2630,9.5956,13.9979,6.1540,7.5808,1.2858,5.4988,4.7763,4.5773,0.6966,9.3397,6.5425,1.0811,6.8199,9.3101
1382.8125,10.8327,10.3716,10.9411,9.3565,9.8814,10.8361,14.5448,8.6362,9.1098,4.2473,7.0132,5.5344,4.3117,-0.6469,7.8033,5.2017,0.7352,6.8776,9.6221
1386.7188,11.0348,9.5853,10.4889,10.5509,10.9591,10.7263,12.9112,10.9072,8.9934,7.0402,6.6789,5.4326,3.6171,-0.9372,4.8442,4.1837,0.3981,6.2275,8.8312
1390.6250,9.7232,7.9071,8.6749,11.0447,11.3109,9.8211,10.5470,12.9040,7.7079,8.9876,5.0074,4.9847,3.0164,0.0226,2.3367,4.5013,0.6534,5.4343,7.2724
1394.5312,7.7495,6.3864,6.4639,10.8878,10.7596,8.9219,8.9345,14.4235,6.0662,9.7417,3.0286,4.5701,2.7445,1.9496,1.9017,6.1228,1.6463,4.7273,5.2185
1398.4375,6.3035,5.5384,4.4770,9.9325,9.2323,8.5577,8.6549,15.0360,4.6338,9.3006,1.5499,4.0899,2.5745,4.1702,3.6253,7.9141,2.9219,3.8285,2.8114
1402.3438,6.1688,5.1213,2.7324,8.0007,6.9111,8.7471,9.2290,14.2779,3.4751,7.9280,0.7610,3.1200,2.0389,5.9685,5.9966,8.3926,3.7409,2.2563,0.1967
1406.2500,7.2967,4.4916,0.9259,5.2071,4.2995,9.1318,9.7248,12.0126,2.3577,6.0573,0.3965,1.4047,0.8655,6.9760,7.1020,6.7581,3.6265,-0.1367,-2.3108
1410.1562,8.9290,3.2100,-1.0373,2.1487,2.0969,9.2890,9.5551,8.6830,1.1675,4.1937,0.1916,-0.7512,-0.7137,7.3472,6.0971,3.4730,2.7296,-2.8382,-4.2218
1414.0625,10.1183,1.4185,-2.7350,-0.2532,0.9069,8.9550,8.8162,5.2160,0.1421,2.7876,0.1802,-2.5497,-2.0226,7.5990,3.7701,0.0001,1.7400,-4.8561,-5.0731
1417.9688,10.2712,-0.2686,-3.4217,-1.2108,0.9380,8.0482,7.9723,2.5814,-0.2775,2.0885,0.5925,-3.2018,-2.3391,8.2144,1.7660,-2.0934,1.4176,-5.3107,-4.6916
1421.8750,9.4071,-1.2179,-2.5808,-0.5338,1.8841,6.5983,7.2699,1.2709,0.1676,2.0589,1.5136,-2.4764,-1.3568,9.2664,1.1523,-2.0346,2.0825,-4.0133,-3.3150
1425.7812,8.0671,-1.1830,-0.3813,1.2314,3.0714,4.7606,6.4861,1.0541,1.2889,2.4376,2.6889,-0.8598,0.6015,10.3013,1.5458,-0.1652,3.4169,-1.5967,-1.4673
1429.6875,7.0115,-0.3588,2.3491,3.1043,3.7940,2.9412,5.2789,1.1898,2.5584,2.9486,3.7074,0.8043,2.7478,10.5529,1.5546,2.4466,4.6842,0.9045,0.3222
1433.5938,6.8887,0.8928,4.6434,4.2244,3.6413,1.8467,3.8143,0.9570,3.5140,3.5194,4.4157,1.9079,4.2451,9.3494,0.1803,4.7388,5.1818,2.7124,1.7506
1437.5000,7.9688,2.3488,6.0065,4.2895,2.6347,2.2370,3.0053,0.1329,4.1151,4.3241,5.1519,2.4400,4.6005,6.4713,-2.0039,6.1916,4.6102,3.7145,2.7672
1441.4062,9.9689,3.9683,6.6373,3.6007,1.1178,4.3861,3.9641,-0.9179,4.7262,5.5807,6.5072,2.8441,3.8168,2.2691,-2.9682,6.8632,3.1491,4.3336,3.4155
1445.3125,12.0181,5.6568,7.0842,2.7283,-0.4999,7.5935,6.9511,-1.5896,5.7143,7.2352,8.7315,3.5124,2.2656,-2.4918,-0.6873,7.0334,1.2620,4.9986,3.6588
1449.2188,12.8660,7.0156,7.6211,2.0753,-1.9639,10.2125,10.6636,-1.5408,6.9849,8.7989,11.2627,4.3459,0.4216,-6.9368,5.0936,6.8282,-0.5873,5.6655,3.3607
1453.1250,11.3882,7.3858,7.8733,1.6626,-3.2322,10.3970,12.6106,-0.9654,7.8652,9.5271,12.8296,4.7463,-1.3602,-10.3685,12.1600,6.1227,-2.1207,5.7907,2.4397
1457.0312,7.2454,6.2344,7.0326,1.2597,-4.3654,7.2334,10.5653,-0.4200,7.4826,8.8762,12.1607,4.0400,-2.9270,-12.4245,16.8373,4.7263,-3.2800,4.7816,1.0424
1460.9375,1.3303,3.6036,4.5246,0.7006,-5.3663,1.5273,4.2022,-0.3511,5.3858,6.9291,8.8362,1.9853,-4.2923,-13.0968,16.1242,2.6153,-4.1718,2.5543,-0.4531
1464.8438,-4.3811,0.2301,0.6068,0.0944,-6.1006,-4.3916,-4.2810,-0.7040,1.9370,4.4522,3.6608,-1.0429,-5.5554,-12.6665,9.5519,-0.0122,-4.9992,-0.2757,-1.6563
1468.7500,-7.6664,-2.8306,-3.6008,-0.2538,-6.3550,-7.8829,-11.1669,-0.9417,-1.8431,2.4870,-1.7404,-4.3178,-6.8235,-11.5966,-0.4438,-2.8705,-5.9847,-2.7549,-2.4512
1472.6562,-7.2073,-4.8491,-6.7232,-0.1330,-5.9724,-7.5392,-13.3400,-0.4780,-4.8853,1.7197,-5.8343,-7.2259,-8.1327,-10.3888,-9.8367,-5.7225,-7.2474,-4.2422,-3.0969
1476.5625,-3.3804,-5.8679,-7.9533,0.3342,-4.9505,-4.0697,-10.1775,0.7999,-6.6933,2.0579,-7.9650,-9.5424,-9.3610,-9.4051,-15.1289,-8.3519,-8.6407,-4.8406,-4.0088
1480.4688,1.8634,-6.6066,-7.4942,0.7275,-3.4307,0.0949,-3.9348,2.3308,-7.5271,2.7101,-8.4952,-11.3183,-10.1773,-8.7010,-14.9866,-10.4086,-9.6637,-5.2560,-5.3409
1484.3750,6.0335,-7.8792,-6.3103,0.6307,-1.5979,2.2595,1.6565,3.1804,-8.0348,2.7099,-8.2824,-12.5412,-10.1088,-7.9685,-10.5581,-11.3538,-9.5911,-6.1817,-6.6847
1488.2812,7.4488,-9.9410,-5.3972,-0.0378,0.4100,1.0565,3.6552,2.6458,-8.6447,1.5163,-7.9532,-12.9355,-8.7612,-6.6747,-4.5322,-10.6845,-7.8535,-7.6838,-7.1678
1492.1875,6.0627,-12.2288,-5.1213,-0.9392,2.5007,-2.8373,1.5547,0.7340,-9.1956,-0.7126,-7.5295,-12.1299,-6.1078,-4.3748,0.3400,-8.3552,-4.4891,-9.0793,-5.9584
1496.0938,3.2571,-13.6585,-5.0941,-1.5539,4.5363,-7.2651,-2.7138,-1.8250,-9.0826,-3.3057,-6.6239,-10.0683,-2.6615,-1.0495,2.4359,-5.0606,-0.3535,-9.4151,-2.8746
1500.0000,0.7893,-13.2528,-4.6137,-1.5671,6.2398,-9.9832,-6.2853,-4.0310,-7.7841,-5.5211,-4.9529,-7.2815,0.6359,2.7423,1.7225,-2.0536,3.1435,-8.1943,1.3227
1503.9062,-0.3643,-10.6771,-3.2862,-1.1057,7.2050,-9.9361,-7.2524,-5.2075,-5.3464,-6.8899,-2.7039,-4.7198,2.8039,6.0206,-0.5063,-0.5015,4.7079,-5.7982,5.1903
1507.8125,-0.4865,-6.3958,-1.3525,-0.6529,7.0346,-7.6423,-5.6770,-5.3340,-2.4559,-7.2629,-0.4731,-3.2115,3.2857,7.7903,-2.3602,-0.7797,3.8699,-3.2872,7.2874
1511.7188,-0.6518,-1.4573,0.4734,-0.7229,5.5330,-4.5981,-3.1846,-4.9325,-0.0578,-6.6497,1.1160,-2.9569,2.1963,7.4700,-2.2560,-2.2365,1.2714,-1.7353,6.8692
1515.6250,-1.7242,2.8732,1.4631,-1.5542,2.8248,-2.2538,-1.6230,-4.6462,1.1798,-5.1131,1.7605,-3.4738,0.1882,5.1038,0.2996,-3.6627,-1.6857,-1.5946,4.1764
1519.5312,-3.5872,5.4416,1.2543,-3.0373,-0.6802,-1.2860,-1.8213,-4.8368,1.1735,-2.8742,1.5259,-4.0566,-1.9750,1.2553,4.3706,-4.1780,-3.6397,-2.5354,0.1872
1523.4375,-5.1616,5.4649,-0.0761,-4.8815,-4.4497,-1.5295,-3.2493,-5.4529,0.3339,-0.5092,0.6387,-4.3799,-3.8446,-3.3071,7.9584,-3.8844,-4.0205,-3.8242,-3.9489
1527.3438,-5.1687,2.7865,-2.1843,-6.8289,-8.0086,-2.3957,-4.6205,-6.1785,-0.7883,1.0569,-0.7103,-4.7407,-5.4274,-7.9136,9.0421,-3.7715,-3.2847,-4.8968,-7.4113
1531.2500,-3.0639,-1.9018,-4.6407,-8.7180,-11.0320,-3.3174,-4.8336,-6.6777,-1.8221,0.9349,-2.3479,-5.7228,-6.9782,-12.1173,6.7977,-4.9016,-2.5157,-5.6776,-9.8776
1535.1562,0.5289,-7.0661,-6.9712,-10.3695,-13.3297,-3.9000,-3.5471,-6.7361,-2.6597,-1.1315,-3.9545,-7.5565,-8.6421,-15.6363,2.2193,-7.4669,-2.6870,-6.4445,-11.3778
1539.0625,4.1601,-10.7719,-8.6334,-11.4647,-14.7862,-3.8223,-1.1182,-6.2547,-3.3325,-4.4007,-5.0205,-9.7276,-10.2518,-18.2525,-2.3999,-10.4443,-4.0890,-7.4245,-12.0665
1542.9688,6.4082,-11.5149,-9.1131,-11.6069,-15.3416,-2.7699,1.8373,-5.1995,-3.8624,-7.3772,-5.0925,-11.2078,-11.4415,-19.8040,-4.9284,-12.1545,-6.2567,-8.5019,-12.1264
1546.8750,6.6542,-9.0356,-8.2043,-10.5891,-15.0328,-0.5930,4.8046,-3.6271,-4.2304,-8.6273,-4.1696,-11.1679,-11.9680,-20.2794,-4.8492,-11.3583,-8.3657,-9.2877,-11.8223
1550.7812,5.3054,-4.5685,-6.2875,-8.6673,-14.0379,2.4157,7.4060,-1.7816,-4.4435,-7.6723,-2.8775,-9.6153,-11.9490,-19.8946,-3.6127,-8.1119,-9.7526,-9.4639,-11.5447
1554.6875,3.4044,-0.2449,-4.3101,-6.5757,-12.6452,5.4270,9.2410,-0.1384,-4.5723,-5.3240,-2.1569,-7.4312,-11.7947,-19.0203,-3.5103,-3.7693,-10.1932,-9.0848,-11.6861
1558.5938,1.9561,2.0688,-3.3493,-5.1955,-11.1348,7.3658,9.8248,0.7233,-4.6809,-3.1794,-2.6096,-5.7539,-11.8706,-17.9625,-5.8147,-0.1409,-9.8172,-8.5682,-12.3819
1562.5000,1.4174,1.7750,-3.9856,-5.0702,-9.6519,7.4640,8.7659,0.3916,-4.7236,-2.5782,-4.0043,-5.1940,-12.1708,-16.7540,-9.5964,1.5763,-8.8392,-8.3904,-13.3363
1566.4062,1.6083,-0.2792,-5.9314,-6.1102,-8.1834,5.6963,6.0417,-1.1397,-4.5570,-3.7304,-5.4043,-5.5173,-12.3038,-15.1510,-12.2426,1.3517,-7.3928,-8.7587,-13.9496
1570.3125,1.9954,-2.5637,-8.2270,-7.7130,-6.6748,2.7724,2.1040,-3.4517,-4.1251,-5.6177,-5.9136,-6.0481,-11.8433,-12.8819,-11.4365,0.0346,-5.6091,-9.5388,-13.7395
1574.2188,2.0971,-4.0030,-9.8926,-9.2093,-5.1998,-0.3118,-2.3045,-5.9280,-3.6793,-6.7214,-5.4909,-6.4448,-10.7863,-9.9836,-7.1540,-1.4549,-3.8125,-10.4788,-12.7719
1578.1250,1.7550,-4.6590,-10.5650,-10.2936,-4.0279,-2.8306,-6.4737,-8.0622,-3.7912,-6.0492,-5.1365,-7.1604,-9.7276,-6.9465,-2.0685,-2.7854,-2.5704,-11.5006,-11.7421
1582.0312,1.1620,-5.4826,-10.6369,-11.1122,-3.4954,-4.5977,-9.9222,-9.6184,-5.0394,-3.7473,-6.1933,-9.1382,-9.5430,-4.5048,0.1388,-4.2331,-2.4438,-12.7717,-11.5635
1585.9375,0.6874,-7.3760,-10.8135,-11.9634,-3.7451,-5.8113,-12.3479,-10.5481,-7.5322,-0.9157,-9.2132,-12.9202,-10.7499,-3.1752,-2.5445,-6.1237,-3.5587,-14.4752,-12.7036
1589.8438,0.6257,-10.3272,-11.4651,-12.8852,-4.5350,-6.6799,-13.4688,-10.7881,-10.6312,1.1650,-13.2715,-17.8761,-12.9965,-2.8692,-8.7735,-8.2275,-5.3315,-16.4827,-14.7402
1593.7500,1.0003,-13.2988,-12.3199,-13.5010,-5.3020,-7.1781,-13.0098,-10.1715,-13.1617,1.8051,-16.3505,-22.2330,-15.0954,-2.8964,-14.5171,-9.6613,-6.6297,-18.2451,-16.5083
1597.6562,1.5185,-14.9405,-12.7436,-13.2796,-5.4964,-7.1116,-10.9281,-8.5769,-14.0528,1.1633,-16.6307,-24.0088,-15.6554,-2.4159,-15.7500,-9.4234,-6.3630,-19.0491,-16.8003
1601.5625,1.7167,-14.5438,-12.3510,-12.0130,-4.9886,-6.3703,-7.6808,-6.2059,-12.9970,-0.0767,-13.7948,-22.2505,-13.9406,-1.0622,-11.2865,-7.1660,-4.1683,-18.4752,-15.1694
1605.4688,1.2492,-12.4927,-11.3986,-10.1143,-4.2554,-5.0874,-4.2178,-3.7159,-10.6502,-1.2487,-9.3649,-17.7006,-10.3931,0.6839,-3.6866,-3.6031,-0.7416,-16.7014,-12.2773
1609.3750,0.1762,-9.8906,-10.5936,-8.4552,-4.1706,-3.5402,-1.5645,-2.0057,-8.1928,-2.0183,-5.7619,-12.3949,-6.4549,1.6681,2.4729,-0.2157,2.4370,-14.3998,-9.5204
1613.2812,-0.9389,-7.7118,-10.4547,-7.8196,-5.4801,-1.9041,-0.2326,-1.7208,-6.5421,-2.3040,-4.7109,-8.4390,-3.7712,0.7127,3.7516,1.5735,3.8615,-12.2841,-8.1613
1617.1875,-1.2428,-6.1725,-10.7636,-8.3482,-8.2672,-0.1260,0.0904,-2.7988,-5.7659,-2.0068,-6.1103,-6.7846,-3.2578,-2.6362,0.1712,1.2087,2.8074,-10.6361,-8.5274
1621.0938,-0.0500,-4.7847,-10.5969,-9.3731,-11.7428,1.9281,0.2886,-4.4015,-5.1081,-0.8926,-8.1542,-6.7955,-4.5920,-7.7137,-4.9248,-0.7196,-0.2740,-9.1527,-9.7873
1625.0000,2.7119,-2.9569,-8.9492,-9.7569,-14.5062,4.1828,1.1527,-5.3298,-3.5824,1.2277,-8.5886,-6.8197,-6.4062,-12.9218,-7.3061,-2.8597,-3.9831,-7.1988,-10.4200
1628.9062,6.3702,-0.5649,-5.4636,-8.5001,-15.1463,6.2257,2.8124,-4.6792,-0.6780,4.1948,-6.1819,-5.3024,-7.0337,-16.3817,-4.7798,-3.8517,-6.6634,-4.2524,-9.0474
1632.8125,9.8157,2.0088,-0.6838,-5.2246,-12.8616,7.5343,4.7163,-2.3171,3.3314,7.4011,-1.3909,-1.6791,-5.3525,-16.6979,1.4725,-2.9777,-7.1629,-0.2124,-5.1154
1636.7188,12.0879,4.3523,4.3606,-0.2737,-7.7944,7.9132,6.1695,1.1074,7.6493,10.0523,4.1529,3.4622,-1.2737,-13.4683,7.9733,-0.3841,-5.2762,4.6029,0.9261
1640.6250,12.8684,6.5203,8.8691,5.5291,-0.9523,7.7606,6.9637,4.5885,11.5213,11.6253,8.8424,8.8991,4.3195,-7.3645,11.5000,3.1378,-1.7003,9.6774,7.9372
1644.5312,12.5684,9.0275,12.6749,11.2219,6.1920,7.8640,7.5453,7.3065,14.6319,12.1565,12.0495,13.5036,10.0551,0.1735,11.1962,6.5916,2.3934,14.5041,14.6085
1648.4375,11.9754,12.2780,16.0174,15.9295,12.2107,8.8143,8.5597,8.9434,17.0555,12.1232,14.1995,16.6920,14.6675,7.4448,8.8194,9.1843,5.9052,18.6254,19.8759
1652.3438,11.7310,15.9192,18.9247,18.9471,16.1397,10.4855,10.1592,9.6400,18.8788,12.0109,16.0551,18.4265,17.4141,13.0036,7.1721,10.5619,8.2057,21.5654,23.0951
1656.2500,12.0030,18.7424,20.8167,19.8067,17.6925,12.0358,11.7067,9.7311,19.8859,11.9295,17.8851,18.9480,18.1838,16.0413,8.0461,10.8555,9.2446,22.8384,24.0398
1660.1562,12.5356,19.3389,20.7585,18.4200,17.2443,12.4945,12.1967,9.5075,19.6143,11.5893,19.1862,18.5333,17.3414,16.5398,11.1795,10.5607,9.3829,22.1364,22.8457
1664.0625,12.9490,17.0801,18.2233,15.2238,15.6129,11.5114,11.1032,9.1487,17.7444,10.6348,19.1131,17.4198,15.4439,15.1525,14.7780,10.2766,9.0745,19.5850,19.9500
1667.9688,12.9953,12.6703,13.7293,11.1390,13.7006,9.6695,8.9559,8.7739,14.4783,9.0212,17.1951,15.8325,12.9728,12.8391,16.9374,10.3683,8.5661,15.8254,15.9818
1671.8750,12.5660,7.8038,8.7553,7.2365,12.1124,8.0811,7.1092,8.4626,10.5594,7.0864,13.7437,13.9726,10.1871,10.4021,16.7723,10.6988,7.7606,11.7755,11.5738
1675.7812,11.5195,4.1394,4.8979,4.2460,10.9082,7.5523,6.8060,8.1712,6.8871,5.2491,9.6702,11.9398,7.1393,8.1531,14.5263,10.6186,6.3101,8.1810,7.1671
1679.6875,9.5833,2.3364,2.8709,2.2291,9.6312,7.9641,8.2264,7.6403,4.0231,3.6135,5.9278,9.6968,3.8326,5.9108,10.8937,9.3101,3.8949,5.2761,2.9552
1683.5938,6.5200,1.8462,2.1213,0.6811,7.6348,8.3657,10.2734,6.4551,1.9786,1.8637,3.0525,7.1848,0.4260,3.3447,6.3820,6.3543,0.5419,2.8198,-0.9569
1687.5000,2.4699,1.5605,1.3796,-0.9753,4.5537,7.7131,11.2898,4.3117,0.4338,-0.4114,1.1121,4.5490,-2.6462,0.4423,1.3253,2.1823,-3.2109,0.4901,-4.2876
1691.4062,-1.8444,0.7686,-0.2692,-2.8573,0.6413,5.6765,10.1872,1.3358,-0.8241,-3.2154,-0.0124,2.2740,-4.7516,-2.2462,-3.5970,-1.9334,-6.4327,-1.6861,-6.4555
1695.3125,-5.3242,-0.3296,-2.6331,-4.4697,-3.2611,2.8864,7.1490,-1.8149,-1.6346,-5.9107,-0.3544,1.0406,-5.3373,-3.8108,-7.0470,-4.4368,-8.1825,-3.2385,-6.7952
1699.2188,-7.0689,-0.9049,-4.5680,-5.0828,-6.1447,0.4503,3.4177,-4.2207,-1.6056,-7.5195,0.1358,1.3237,-4.2718,-3.5534,-7.4935,-4.3188,-7.9721,-3.6095,-5.0510
1703.1250,-6.9357,-0.2806,-4.9127,-4.3723,-7.4053,-0.8476,0.3935,-5.2228,-0.5377,-7.3833,1.3598,2.9931,-2.0383,-1.5547,-4.2908,-1.7197,-6.0493,-2.6955,-1.8183
1707.0312,-5.6409,1.4515,-3.4557,-2.8172,-7.2028,-1.0143,-1.2246,-4.8532,1.2460,-5.6817,2.8927,5.2374,0.3848,1.1878,1.4616,2.0930,-3.3169,-1.1223,1.4623
1710.9375,-4.2693,3.4641,-1.1617,-1.5001,-6.3540,-0.6438,-1.6316,-3.8395,2.9809,-3.3754,4.0977,6.9331,1.9462,3.2225,7.1120,5.3869,-0.8984,0.0285,3.1029
1714.8438,-3.5099,4.8017,0.5206,-1.3936,-5.8013,-0.2761,-1.4183,-3.1317,3.9329,-1.5700,4.4950,7.2649,2.0472,3.4725,9.7983,6.8811,0.4322,-0.0887,2.0913
1718.7500,-3.1839,5.0416,0.7275,-2.6217,-5.9802,0.0870,-0.9236,-3.2440,3.9138,-0.7601,4.0923,6.2027,0.8831,1.9232,8.1383,6.3726,0.6501,-1.4483,-1.2115
1722.6562,-2.4418,4.4935,-0.2012,-4.2416,-6.4934,0.8768,-0.0448,-3.8599,3.4388,-0.5295,3.3954,4.5246,-0.6044,-0.2870,3.1154,4.7285,0.4843,-3.0490,-5.0849
1726.5625,-0.5138,3.8450,-1.0183,-4.7486,-6.3174,2.3683,1.3662,-3.9907,3.3891,0.0476,3.0676,3.3718,-1.1640,-1.4628,-2.4895,3.2932,1.0105,-3.4604,-7.2536
1730.4688,2.5355,3.6086,-0.5282,-3.0048,-4.4367,4.1574,2.9613,-2.6133,4.4113,1.5965,3.4920,3.6164,0.1456,-0.3054,-5.7736,3.0950,3.0340,-1.6940,-6.0749
1734.3750,5.6255,3.8298,1.5227,1.0004,-0.5337,5.2235,3.8130,0.6104,6.4710,3.8367,4.5519,5.4114,3.4557,3.3296,-5.3944,4.3056,6.5763,2.1524,-1.4519
1738.2812,7.2275,4.2266,4.2625,6.0366,4.6709,4.6048,2.9836,4.9842,8.8509,5.6544,5.7545,8.1416,7.9444,8.2888,-2.1850,6.2051,10.7279,6.8733,5.0392
1742.1875,6.3183,4.5388,6.2867,10.2189,9.6325,2.1796,0.3259,9.0155,10.5629,5.8268,6.5572,10.7410,12.1236,12.6484,1.6078,7.6053,13.9609,10.7453,10.8688
1746.0938,3.0806,4.7241,6.5430,11.9231,12.6395,-1.0861,-3.1815,11.1030,10.8755,3.8921,6.6352,12.1666,14.4348,14.6025,3.8537,7.4705,14.7753,12.3587,13.7274
1750.0000,-1.1124,4.8517,4.8824,10.5067,12.5716,-3.6597,-5.9312,10.2923,9.6390,0.5518,5.9464,11.8106,13.9061,13.2517,3.7856,5.4309,12.3977,11.2262,12.5469
1753.9062,-4.4034,4.8721,1.9954,6.4984,9.3889,-4.3736,-6.7058,6.7132,7.2776,-2.6794,4.6503,9.7171,10.5939,8.9429,2.2165,1.9846,7.2111,7.8992,7.8991
1757.8125,-5.3973,4.5718,-1.0746,1.2623,4.1355,-3.0920,-5.4467,1.5154,4.5463,-4.3433,3.0375,6.5697,5.6083,3.0712,0.7352,-1.6716,0.6986,3.6301,1.6472
1761.7188,-3.7980,3.8122,-3.4182,-3.6037,-1.5117,-0.6632,-3.1720,-3.6213,2.2353,-3.8668,1.5322,3.4543,0.6828,-2.5064,0.5456,-4.1151,-5.1097,-0.1831,-3.9185
1765.6250,-0.4473,2.8234,-4.4831,-6.8323,-5.9225,1.7360,-1.1154,-7.1554,0.9416,-1.8498,0.6684,1.4450,-2.5575,-6.1773,1.7404,-4.2989,-8.4663,-2.5076,-7.0429
1769.5312,3.1503,2.2032,-4.0809,-7.8391,-8.1194,3.3233,0.2155,-8.2473,0.9184,0.3179,0.9026,1.1311,-3.3131,-7.1394,3.4012,-2.0413,-8.6433,-2.9866,-7.1682
1773.4375,5.4993,2.5085,-2.3880,-6.8236,-8.0681,3.9900,1.2994,-7.0146,1.9841,1.2404,2.2810,2.2945,-1.9696,-5.6460,4.3282,1.8313,-6.2234,-2.0015,-5.0587
1777.3438,5.6739,3.7287,-0.0168,-4.6423,-6.5569,4.0485,2.9863,-4.4010,3.5290,0.2446,4.1927,3.9498,0.1047,-2.8508,3.8398,5.8005,-2.7933,-0.4911,-2.3774
1781.2500,3.6073,5.1203,2.0052,-2.4825,-4.7401,3.7981,5.5410,-1.7207,4.6989,-2.2992,5.4921,4.8057,1.2519,-0.2980,2.1386,8.3210,-0.1779,0.4310,-0.9032
1785.1562,0.0809,5.6418,2.5625,-1.3965,-3.5577,3.3310,8.1674,-0.0634,4.7571,-5.1699,5.0531,3.9479,0.3716,0.7622,0.0906,8.5160,0.4088,-0.0439,-1.7144
1789.0625,-3.5670,4.7271,1.0561,-1.8430,-3.2940,2.6913,9.4433,0.1835,3.4756,-6.8631,2.4709,1.3621,-2.5186,-0.0485,-1.3497,6.5342,-1.1209,-2.0346,-4.6913
1792.9688,-5.9666,2.7877,-2.0846,-3.4561,-3.4763,2.1166,8.3492,-0.5373,1.3008,-6.2767,-1.5639,-2.0354,-6.3023,-2.0431,-1.6736,3.3794,-3.7848,-4.8848,-8.5713
1796.8750,-6.3271,0.9815,-5.4466,-5.2139,-3.1662,2.0111,5.0816,-1.2539,-0.8709,-3.2435,-5.5347,-4.8956,-9.3423,-3.7848,-1.0178,0.3318,-6.0884,-7.4737,-11.5488
1800.7812,-4.8646,0.3503,-7.3753,-5.9792,-1.5060,2.5881,1.0074,-1.0525,-2.2244,1.3051,-7.9042,-6.1615,-10.2907,-3.7899,0.0156,-1.6798,-6.7659,-8.7932,-12.1497
1804.6875,-2.7575,0.9648,-7.0148,-5.1417,1.7454,3.5069,-2.2080,0.3632,-2.5369,5.6460,-7.9624,-5.5707,-8.7013,-1.2781,0.7384,-2.3971,-5.3290,-8.4802,-9.9509
1808.5938,-1.5477,1.7728,-4.9304,-2.9887,5.9594,3.9233,-3.6299,2.4647,-2.3178,7.9735,-6.1794,-3.6551,-5.1588,3.4069,0.7020,-2.1252,-2.1947,-6.9877,-5.7831
1812.5000,-2.2544,1.3321,-2.8057,-0.5639,9.8088,3.0499,-3.4891,4.1720,-2.4571,7.2346,-3.8562,-1.3122,-0.9305,8.9132,-0.1860,-1.3715,1.5907,-5.2879,-1.3185
1816.4062,-4.7310,-1.0843,-2.3433,0.9136,11.7957,0.8396,-2.7740,4.4545,-3.6075,3.6901,-2.3383,0.7115,2.6133,13.4579,-1.7417,-0.5318,4.8296,-4.2884,1.7339
1820.3125,-7.7134,-4.8466,-4.0986,0.7217,10.8915,-1.7919,-2.3950,2.9098,-5.7164,-1.1278,-2.3109,2.0838,4.5035,15.5550,-3.6449,0.1948,6.6151,-4.3231,2.3998
1824.2188,-9.5836,-8.3003,-7.0717,-1.0061,6.9847,-3.4884,-2.6098,-0.0208,-8.0237,-5.1005,-3.5802,2.8125,4.4150,14.5402,-5.5011,0.7126,6.5843,-5.0159,0.7964
1828.1250,-9.3758,-9.8509,-9.3633,-3.4325,0.9225,-3.4005,-3.0999,-3.3119,-9.5168,-6.5283,-5.3712,3.0142,2.6339,10.6848,-6.8124,0.9549,4.9494,-5.5707,-2.0650
1832.0312,-7.3515,-9.0092,-9.4477,-5.5493,-5.8717,-1.8453,-3.5009,-5.9255,-9.5258,-4.9168,-6.8453,2.7804,-0.1493,4.9196,-6.9779,0.9480,2.3462,-5.2784,-4.8752
1835.9375,-4.7516,-6.6462,-7.1770,-6.7444,-12.0141,-0.1260,-3.8350,-7.3532,-8.0745,-1.1211,-7.4820,2.2249,-3.1164,-1.6286,-5.4721,0.9301,-0.4417,-3.9302,-6.6812
1839.8438,-2.9128,-4.3106,-3.8384,-7.0683,-16.7011,0.4052,-4.4459,-7.8281,-5.8007,3.2031,-7.1686,1.5805,-5.5993,-8.0447,-2.2092,1.3174,-2.8073,-1.9221,-7.2701
1843.7500,-2.3863,-3.1602,-1.2676,-7.0836,-19.9023,-0.6512,-5.5344,-8.1101,-3.5609,6.4847,-6.0875,1.1472,-7.3028,-13.8124,2.1126,2.4117,-4.5836,-0.0378,-7.1308
1847.6562,-2.6842,-3.3017,-0.6697,-7.4377,-22.1055,-2.4473,-6.7742,-8.9811,-2.0088,7.9344,-4.5818,1.0614,-8.3875,-18.7479,6.0089,4.0052,-6.1097,0.9355,-7.0603
1851.5625,-2.7977,-3.9597,-1.9481,-8.4305,-23.7631,-3.5395,-7.4153,-10.7335,-1.3882,7.7042,-3.0825,1.0812,-9.3348,-22.7639,7.7297,5.2259,-8.0079,0.5617,-7.6455
1855.4688,-2.0613,-4.2369,-3.9248,-9.8134,-24.7700,-2.9888,-6.8323,-12.9164,-1.5821,6.5279,-2.0468,0.6375,-10.6040,-25.6112,6.1357,4.8730,-10.7311,-1.0609,-8.8933
1859.3750,-0.6975,-3.8122,-5.1986,-10.8954,-24.3185,-1.0630,-5.0547,-14.4745,-2.2937,5.1634,-1.8263,-0.7909,-12.2456,-26.7567,1.4338,2.1365,-14.1168,-3.3402,-10.1973
1863.2812,0.3468,-3.0573,-5.0061,-10.8819,-21.2816,0.9859,-2.8071,-14.2264,-3.2082,4.0036,-2.4957,-3.2259,-13.7241,-25.4957,-4.7546,-2.7508,-17.2481,-5.4365,-10.6657
1867.1875,0.1136,-2.5813,-3.5537,-9.2774,-14.9595,1.8663,-1.0045,-11.4740,-4.0807,3.0201,-3.7820,-6.0356,-14.1311,-21.2900,-10.1517,-8.4272,-18.7935,-6.6323,-9.6494
1871.0938,-1.6638,-2.6755,-1.7316,-6.1736,-5.7616,1.1575,-0.1161,-6.4530,-4.7848,1.9543,-5.2034,-8.2642,-12.7213,-14.1815,-13.0132,-13.0333,-17.7003,-6.6851,-7.1857
1875.0000,-4.3798,-3.1493,-0.5249,-2.2889,4.6291,-0.5063,0.0723,-0.3793,-5.3547,0.5531,-6.3596,-9.2519,-9.4585,-5.0461,-13.0107,-15.2044,-13.8561,-5.9818,-4.0852
1878.9062,-6.9751,-3.6438,-0.5317,1.2842,13.8035,-2.0589,0.1225,4.9915,-5.9848,-1.2881,-7.1564,-9.0811,-5.1889,4.5163,-11.2231,-14.7781,-8.2876,-5.3638,-1.5638
1882.8125,-8.5860,-4.0677,-1.7923,3.5499,19.6592,-2.8605,0.3664,8.1332,-6.9176,-3.4703,-7.7656,-8.4787,-1.2691,12.6773,-9.2452,-12.7424,-2.7237,-5.6476,-0.5812
1886.7188,-8.9327,-4.6957,-3.8640,4.0953,21.3611,-3.0684,0.6298,8.4807,-8.2194,-5.6618,-8.3344,-8.2118,1.1619,18.0537,-8.0429,-10.4741,1.2608,-7.0743,-1.2602
1890.6250,-8.2239,-5.8007,-5.9804,3.3351,19.6685,-3.2473,0.5241,6.7214,-9.5693,-7.2857,-8.6858,-8.4238,1.8180,20.2065,-7.3668,-8.8128,3.0153,-9.0308,-2.7572
1894.5312,-6.7641,-7.1473,-7.2235,2.3376,16.4145,-3.6123,0.0373,4.4398,-10.2513,-7.6049,-8.2954,-8.4386,1.3892,19.6825,-6.1197,-7.6195,3.0338,-10.2739,-3.7169
1898.4375,-4.6508,-7.8481,-6.7634,2.2684,13.4309,-3.6133,-0.1557,3.2621,-9.4384,-5.9761,-6.6165,-7.2217,1.0653,17.5718,-3.3595,-6.0928,2.5042,-9.5931,-3.0755
1902.3438,-1.8085,-6.8120,-4.1979,3.7289,11.5551,-2.2688,0.9620,3.9641,-6.6549,-2.2074,-3.5314,-4.1818,1.7680,14.8552,0.8472,-3.5577,2.4917,-6.5391,-0.7323
1906.2500,1.7280,-3.5084,0.1381,6.3779,10.3057,0.9968,3.9449,6.0646,-2.1325,3.1903,0.4361,0.2783,3.5883,11.9395,5.3750,-0.1123,3.2857,-1.7532,2.3491
1910.1562,5.5885,1.5369,5.1442,9.0940,8.3949,5.7198,8.2740,8.1631,3.1971,9.0791,4.3456,4.8847,5.7795,8.6539,8.8080,3.3468,4.3096,3.3410,4.7038
1914.0625,9.1374,6.9422,9.3743,10.6205,4.7255,10.5369,12.5124,8.8296,8.1108,14.1340,7.3703,8.2236,7.2790,4.6651,10.4085,5.7178,4.6124,7.3186,5.2631
1917.9688,11.7934,11.2767,11.7685,10.3255,-0.7657,14.0438,15.2118,7.5073,11.6751,17.4263,9.2558,9.5774,7.3928,-0.0090,10.5428,6.4521,3.5827,9.5229,4.0314
1921.8750,13.3260,13.9096,12.2712,8.6111,-6.9279,15.7182,15.9201,4.8663,13.6448,18.7965,10.3798,9.3016,6.2023,-4.7610,10.2760,5.9294,1.4047,10.3383,2.1143
1925.7812,13.8812,15.2827,11.8853,6.7062,-11.9550,16.1709,15.4889,2.3948,14.4445,18.7815,11.3933,8.5195,4.4678,-8.6048,10.5181,5.2044,-1.0307,10.8074,1.0812
1929.6875,13.7334,16.4023,12.0326,5.9520,-14.3081,16.5133,15.3800,1.4869,14.7646,18.1544,12.7231,8.3795,3.1346,-10.6958,11.4182,5.3290,-2.6818,11.8612,2.0536
1933.5938,12.9980,17.9180,13.5670,7.0013,-13.4485,17.3344,16.4489,2.6008,15.0463,17.3996,14.2869,9.3742,2.7745,-10.8157,12.4339,6.7124,-3.0107,13.6668,5.0629
1937.5000,11.5622,19.4581,16.0688,9.4051,-10.0029,18.1043,18.1297,4.9953,15.1740,16.4736,15.5671,11.1047,3.2841,-9.5068,12.8911,8.8952,-2.3289,15.4966,9.0278
1941.4062,9.2827,19.7140,17.9202,11.8166,-5.3573,17.4995,18.6873,7.1762,14.5468,14.9854,15.9058,12.5398,3.9691,-7.7802,12.4525,10.8013,-1.6326,16.1634,12.3112
1945.3125,6.2547,17.2373,17.1801,12.6817,-0.9847,14.4288,16.4135,7.7489,12.4605,12.6261,14.7718,12.5322,3.9223,-6.5831,11.0690,11.2501,-2.0355,14.7184,13.5031
1949.2188,2.8983,11.4383,12.7576,11.0209,2.1164,8.9928,10.9254,6.1542,8.5734,9.5185,11.8729,10.3051,2.4843,-6.3363,8.5595,9.4464,-4.1224,10.9833,12.0076
1953.1250,-0.2200,3.1524,5.1776,6.8909,3.6490,2.6525,3.6217,2.8885,3.2119,6.2447,7.1978,5.7567,-0.4172,-6.7799,4.4052,5.2858,-7.5707,5.6460,8.2003
1957.0312,-2.6689,-5.5675,-3.5218,1.3294,3.9214,-2.5312,-3.0418,-0.8478,-2.6269,3.5607,1.1329,-0.4249,-4.1689,-7.1644,-1.7896,-0.5395,-11.2282,-0.0622,3.1819
1960.9375,-4.2880,-12.2988,-10.7041,-4.1313,3.5739,-5.0455,-6.9550,-3.8007,-7.5728,2.0178,-5.3574,-6.8324,-7.6467,-6.6481,-9.3744,-6.6188,-13.6001,-4.8748,-1.6731
1964.8438,-5.0745,-15.2685,-14.3395,-8.1033,3.2857,-4.6789,-7.4700,-5.2209,-10.3692,1.7374,-10.7236,-11.6538,-9.6186,-4.6895,-16.0975,-11.1264,-13.5070,-7.9206,-5.1706
1968.7500,-4.9650,-14.0421,-13.8546,-9.8374,3.5387,-2.4247,-5.5207,-5.0687,-10.3704,2.4336,-13.2551,-13.2759,-9.2557,-1.2771,-18.7228,-12.3973,-10.6137,-8.9318,-6.6351
1972.6562,-3.7707,-9.6171,-10.2332,-9.3968,4.4672,0.2876,-2.7769,-3.8501,-7.8573,3.5962,-11.9148,-11.0474,-6.5541,3.0590,-14.8231,-9.6733,-5.5963,-8.2329,-6.0893
1976.5625,-1.3907,-3.9614,-5.4128,-7.5044,5.8165,2.4203,-0.5271,-2.2622,-4.0136,4.6744,-7.1534,-5.8332,-2.4604,7.4177,-4.7345,-3.6937,0.1133,-6.5822,-4.2457
1980.4688,1.8472,0.7478,-1.3713,-5.1788,7.0430,3.6674,0.9197,-0.8678,-0.5251,5.1738,-1.0972,0.0674,1.4224,10.8007,7.7710,3.2916,4.8805,-4.9332,-2.2782
1984.3750,5.0384,2.8790,0.6261,-3.3298,7.5514,4.2078,2.0039,0.0725,1.0744,4.7039,3.2292,3.7996,3.4685,12.4009,16.9065,8.3055,7.4680,-4.1552,-1.3945
1988.2812,6.9665,1.8480,0.3255,-2.4590,6.9802,4.2279,3.2032,0.6059,0.0333,3.0600,3.3690,3.3060,2.7303,11.8253,17.8338,8.9895,7.4303,-4.7607,-2.3380
1992.1875,6.6929,-1.7700,-1.6775,-2.5559,5.3879,3.6736,4.4942,0.9957,-3.3111,0.3577,-1.2129,-1.5587,-0.6402,9.1907,9.4761,4.8521,5.1652,-6.7230,-5.0423
1996.0938,4.1045,-6.5375,-4.3591,-3.2012,3.2212,2.4069,5.4096,1.5980,-7.7087,-2.8721,-8.7317,-8.8344,-5.4657,5.0709,-4.6047,-2.3187,1.6554,-9.4704,-8.6359
2000.0000,0.0483,-10.7494,-6.6977,-3.8101,1.0711,0.5534,5.5665,2.7335,-11.5682,-5.7602,-15.9436,-15.3790,-10.0750,0.3183,-17.9209,-9.2178,-1.9350,-12.0900,-11.8280
2003.9062,-4.0520,-13.1025,-7.9600,-3.9058,-0.6352,-1.3467,5.1468,4.5608,-13.6307,-7.3914,-19.8013,-18.4404,-13.0146,-4.1749,-24.4152,-12.6361,-4.6256,-13.6727,-13.4957
2007.8125,-6.8547,-13.1687,-7.8181,-3.3044,-1.8165,-2.5768,4.8733,6.9728,-13.4177,-7.2041,-18.9482,-17.0035,-13.5909,-7.6981,-21.5035,-11.0667,-5.8371,-13.6558,-13.1663
2011.7188,-7.6327,-11.4670,-6.3497,-2.1433,-2.6832,-2.7093,5.4738,9.5655,-11.2780,-5.2803,-14.2194,-12.1649,-12.0204,-9.8632,-11.0959,-5.4116,-5.4570,-12.0147,-11.1485
2015.6250,-6.4137,-9.1034,-3.9716,-0.7595,-3.4920,-1.9094,7.0686,11.7290,-8.0885,-2.3437,-7.9552,-6.3700,-9.1793,-10.6313,1.8161,1.6058,-3.8002,-9.2306,-8.2705
2019.5312,-3.7531,-7.1603,-1.3092,0.5138,-4.2731,-0.8017,9.0036,12.8678,-4.8188,0.5602,-2.6384,-2.0051,-6.1262,-10.2164,11.9681,6.9728,-1.4876,-6.0566,-5.3956
2023.4375,-0.3817,-6.1372,1.0108,1.5340,-4.6955,0.0329,10.2966,12.6786,-2.1729,2.5532,0.3122,-0.1706,-3.6227,-8.8895,16.3282,8.9808,0.7693,-3.1863,-2.9882
2027.3438,3.0402,-5.7206,2.6158,2.4370,-4.1412,0.5493,10.3777,11.3534,-0.4058,3.3361,0.9802,-0.2822,-1.8280,-6.7516,15.0419,7.9950,2.4706,-0.9546,-0.9343
2031.2500,6.0075,-4.9861,3.5870,3.5853,-1.9431,1.3274,9.5527,9.5734,0.6905,3.3203,0.5546,-0.6183,-0.2537,-3.5867,10.6709,6.0282,3.6197,0.8041,1.3319
2035.1562,8.1981,-2.9226,4.4634,5.3880,2.3229,3.1581,8.8204,8.2443,1.6790,3.4114,0.5065,0.5971,2.0116,1.0802,6.5411,5.4519,4.8247,2.6691,4.4948
2039.0625,9.5408,0.9904,5.9771,8.0557,8.5987,6.4008,9.1580,8.0616,3.2659,4.5434,1.8695,4.2268,5.8705,7.6805,5.2578,7.6451,7.0638,5.3227,8.9825
2042.9688,10.2843,6.4361,8.6062,11.3972,16.2318,10.5744,10.7939,9.1218,6.0044,7.1730,4.9378,9.8583,11.7181,16.1599,7.9868,12.3475,11.1453,9.1351,14.6992
2046.8750,10.9289,12.3166,12.1845,14.7729,24.0417,14.4906,13.0015,10.8144,9.9901,10.9741,9.3639,16.1461,19.0925,25.6501,14.4377,18.0042,17.1230,13.8475,20.9617
2050.7812,11.9496,17.1923,15.8364,17.2766,30.5865,16.8713,14.5705,12.1084,14.7017,14.8969,14.4348,21.5677,26.6785,34.5165,23.1452,22.7743,24.0307,18.5541,26.6684
2054.6875,13.4380,19.9045,18.3503,18.1068,34.5890,17.0651,14.6204,12.1208,19.1292,17.6030,19.3174,25.1290,32.7327,40.8669,31.7811,25.5190,30.1599,22.0536,30.6554
2058.5938,14.9371,20.0894,18.8331,16.9723,35.3836,15.4139,13.1860,10.6619,22.1963,18.1005,23.2056,26.6540,35.7729,43.3200,37.5701,26.1787,33.7867,23.4252,32.1212
2062.5000,15.6680,18.3334,17.2731,14.3101,33.1723,13.0507,11.1789,8.4164,23.2817,16.2698,25.4258,26.5790,35.1958,41.6205,38.0274,25.4135,33.9527,22.5211,30.9427
2066.4062,15.0713,15.8861,14.6435,11.1624,28.9203,11.2677,9.7805,6.6085,22.5369,12.9863,25.5717,25.4722,31.4940,36.7234,31.9997,23.8865,30.8512,20.0776,27.7279
2070.3125,13.3047,14.0666,12.4304,8.7329,23.8940,10.8453,9.7067,6.3108,20.7935,9.7292,23.6703,23.6448,25.9646,30.2689,20.5709,21.7793,25.6108,17.3553,23.5573
2074.2188,11.3070,13.6569,11.8225,7.8300,19.0675,11.7227,10.8418,7.7973,19.0987,7.8521,20.2977,21.1215,20.0921,23.7427,7.1797,18.8924,19.6493,15.5041,19.5269
2078.1250,10.3028,14.5805,13.0269,8.4887,14.7320,13.1552,12.4377,10.3412,18.1589,7.9044,16.5269,17.9526,14.9605,17.8159,-3.4451,15.1942,14.0134,15.0127,16.3121
2082.0312,11.0213,16.0082,15.1155,9.9641,10.5330,14.2017,13.6605,12.5892,18.0146,9.3882,13.6278,14.5608,10.9763,12.2268,-7.2792,11.2823,9.0761,15.5377,13.9579
2085.9375,13.1315,16.7932,16.4853,11.0822,5.8887,14.2092,14.0430,13.2837,18.0976,11.0826,12.5466,11.7391,7.9396,6.1990,-3.0300,8.2478,4.6672,16.1502,11.9603
2089.8438,15.2816,15.9731,15.6541,10.7427,0.4841,13.0059,13.5230,11.8832,17.5634,11.7222,13.3353,10.1528,5.2886,-0.9460,6.8949,6.8879,0.4187,15.7894,9.5473
2093.7500,15.7423,13.0814,11.9373,8.3193,-5.4996,10.7380,12.1075,8.7185,15.6530,10.6061,14.8278,9.6173,2.3155,-9.3929,17.1486,6.7977,-3.9688,13.6442,5.9929
2097.6562,13.2731,8.1722,5.6692,3.8190,-11.5475,7.5308,9.5129,4.6470,11.8999,7.7841,14.8622,8.7343,-1.6874,-18.8204,21.7376,6.1190,-8.6640,9.3216,0.8517
2101.5625,7.7156,1.6588,-2.0586,-2.1774,-17.1770,3.2683,5.1612,0.5006,6.1893,3.7838,11.1523,5.3698,-7.2380,-28.6090,16.8211,2.3901,-13.7265,2.8689,-5.8903
2105.4688,0.0287,-5.8421,-9.8954,-8.6755,-22.1626,-2.3016,-1.3713,-3.2743,-1.2047,-0.8381,2.5409,-2.0690,-14.3348,-37.9587,2.6495,-5.8204,-19.0187,-5.1997,-13.7054
2109.3750,-8.1614,-13.5498,-16.6549,-14.4500,-26.4013,-9.1747,-9.7373,-6.5839,-9.5293,-5.7422,-9.9859,-13.2461,-22.0973,-45.7738,-16.3580,-17.4961,-23.9740,-13.8318,-21.4655
2113.2812,-15.1848,-20.4929,-21.5058,-18.2699,-29.5334,-16.6782,-18.5184,-9.3877,-17.5094,-10.6809,-23.2116,-25.3777,-28.6961,-50.5007,-33.5022,-29.0352,-27.4435,-21.4651,-27.5522
2117.1875,-19.8138,-25.5795,-23.9859,-19.2243,-30.6969,-23.3855,-25.5716,-11.4642,-23.5513,-15.1734,-32.8385,-34.1843,-31.8571,-50.2887,-42.7841,-35.7723,-27.9270,-26.3634,-30.2596
2121.0938,-21.4962,-27.8810,-24.0062,-17.1187,-28.7596,-27.5405,-28.9480,-12.4947,-26.2865,-18.3618,-35.4860,-36.0249,-29.8910,-43.6815,-41.5538,-34.4708,-24.2778,-27.2889,-28.4726
2125.0000,-20.3953,-27.0685,-21.9380,-12.7652,-23.0275,-27.8666,-27.9047,-12.4208,-25.2751,-19.3094,-30.5388,-30.0655,-22.7677,-30.6072,-31.5760,-25.3624,-16.5742,-24.2389,-22.3574
2128.9062,-17.3349,-23.7652,-18.7128,-7.9219,-14.0206,-24.3438,-23.4186,-11.7638,-21.4577,-17.6414,-20.7598,-19.1333,-12.5581,-13.0634,-18.0541,-12.4331,-6.5868,-18.7768,-13.6593
2132.8125,-13.6535,-19.5458,-15.7532,-4.7574,-3.7408,-18.4791,-17.8550,-11.5726,-16.9810,-14.0849,-11.1678,-8.5792,-2.8268,5.0989,-7.1647,-1.6347,2.6072,-13.6100,-5.3028
2136.7188,-10.8953,-16.4637,-14.6078,-4.9866,4.8927,-12.8159,-13.9113,-12.9275,-14.3453,-10.4342,-6.6596,-3.6537,2.8449,19.4131,-3.3351,2.0560,7.8284,-11.4829,-0.3330
2140.6250,-10.3252,-16.2425,-16.3478,-9.0673,9.2500,-9.8424,-13.3622,-16.2655,-15.2511,-8.7991,-9.6192,-6.8385,2.4667,26.5388,-7.5269,-2.9045,7.2350,-13.8949,-0.6427
2144.5312,-12.4166,-19.4827,-20.9816,-15.8916,8.2062,-10.8252,-16.2404,-20.9703,-19.7537,-10.4940,-18.8100,-16.6477,-3.4961,25.6036,-17.1959,-14.0089,1.1983,-20.3335,-6.1180
2148.4375,-16.5865,-25.2745,-27.2182,-23.1829,2.6679,-15.1894,-20.8594,-25.5321,-26.2003,-15.2275,-30.1310,-28.5491,-12.4670,18.4069,-27.7529,-26.1957,-7.9058,-28.4660,-14.6705
2152.3438,-21.3960,-31.4590,-32.8015,-28.4487,-4.9093,-20.8070,-24.6608,-28.2328,-32.0047,-21.1350,-38.7608,-37.4142,-21.0914,8.3764,-34.7083,-34.5237,-16.8883,-35.2156,-23.1795
2156.2500,-25.1847,-35.4923,-35.3828,-30.0436,-11.7547,-25.0757,-25.4723,-27.9890,-34.8577,-25.7039,-41.4868,-40.0681,-26.8042,-1.1358,-35.5233,-36.5073,-23.2594,-38.1692,-28.8891
2160.1562,-26.8346,-35.5757,-33.6075,-27.8461,-16.0913,-26.2288,-22.5859,-24.8972,-33.7645,-27.0885,-38.0115,-36.5706,-28.8214,-8.2991,-30.4747,-32.9293,-26.2501,-36.6070,-30.5769
2164.0625,-26.2487,-31.5432,-27.9122,-23.2543,-17.8303,-24.1828,-17.1557,-20.2089,-29.4202,-25.0575,-30.7053,-29.7074,-28.1480,-13.2859,-22.3318,-26.9174,-26.8597,-31.6835,-28.9435
2167.9688,-24.2784,-25.0469,-20.5667,-18.5358,-18.3430,-20.4778,-11.7241,-15.7809,-23.7963,-21.0305,-23.1501,-23.2138,-26.7632,-17.6780,-15.0834,-22.0268,-27.0219,-25.7461,-26.0847
2171.8750,-22.1619,-18.8653,-14.7995,-15.8522,-19.5202,-17.3687,-9.0719,-13.2981,-19.1833,-17.2060,-18.3640,-19.8489,-26.5251,-23.2661,-12.2217,-20.4663,-28.4364,-21.1910,-24.3630
2175.7812,-20.8134,-15.5953,-13.3076,-16.3922,-22.6883,-16.5881,-10.8997,-13.6323,-17.1551,-15.3180,-17.5865,-20.3176,-28.3534,-30.9572,-15.2094,-22.3178,-31.7093,-19.4275,-25.2605
2179.6875,-20.3751,-16.3554,-16.8609,-19.9689,-27.9611,-18.4684,-16.9637,-16.5884,-17.9195,-15.7476,-20.0591,-23.3960,-31.9886,-40.3225,-22.7359,-25.9218,-36.1820,-20.4015,-28.7615
2183.5938,-20.2580,-20.2063,-23.7879,-25.2242,-34.3089,-21.8785,-25.1124,-21.0967,-20.3286,-17.4716,-23.6985,-26.9333,-36.2981,-49.8917,-31.1641,-28.9931,-40.4166,-22.8337,-33.5184
2187.5000,-19.6023,-24.6647,-30.7415,-30.3196,-40.2111,-24.9537,-32.2585,-25.7309,-22.5320,-18.8081,-26.2203,-29.0514,-39.8839,-57.8986,-36.1228,-29.7940,-42.9916,-24.9964,-37.6558
2191.4062,-17.8567,-27.0767,-34.4347,-33.7794,-44.4658,-26.1495,-35.8337,-29.3142,-22.9595,-18.4625,-26.1874,-28.9426,-41.6923,-63.0169,-34.6226,-27.8289,-43.1717,-25.6197,-39.7564
2195.3125,-15.1432,-26.0782,-33.4010,-35.0793,-46.6878,-25.0020,-34.9805,-31.3484,-21.1443,-16.2421,-23.5759,-26.9935,-41.3769,-64.7200,-26.6563,-23.8651,-41.1442,-24.4753,-39.4975
2199.2188,-12.2252,-22.2703,-28.7255,-34.6891,-47.2474,-22.1996,-30.8353,-32.0751,-17.9382,-13.0578,-19.6582,-24.3224,-39.2854,-63.1647,-15.3489,-19.3960,-37.7597,-22.3514,-37.6094
2203.1250,-10.1246,-17.6990,-23.2632,-33.5685,-46.7473,-19.0120,-25.7482,-32.1473,-14.9696,-10.2862,-16.2673,-22.0411,-36.0933,-58.7635,-5.4321,-15.8595,-33.9571,-20.4522,-35.2133
2207.0312,-9.6062,-14.4872,-19.8078,-32.4294,-45.4090,-16.4981,-21.9060,-32.1026,-13.6301,-8.9345,-14.7794,-20.6220,-32.2885,-51.7675,-0.7977,-13.9766,-30.1994,-19.5842,-32.9682
2210.9375,-10.7942,-13.5291,-19.3796,-31.2362,-42.7956,-14.9973,-20.1821,-31.9608,-14.1883,-9.1283,-15.3335,-19.6788,-27.8262,-42.1517,-2.5125,-13.5002,-26.2474,-19.6315,-30.5834
2214.8438,-13.0970,-14.0967,-20.7448,-29.2791,-38.0872,-14.1621,-19.8784,-31.2125,-15.6059,-10.1913,-16.7468,-18.2692,-22.2181,-29.9019,-8.4632,-13.4758,-21.4204,-19.6628,-27.0367
2218.7500,-15.4692,-14.5641,-21.4467,-25.7760,-30.7609,-13.4025,-19.4355,-29.2170,-16.2057,-11.2014,-17.2296,-15.5577,-15.0651,-15.5346,-14.8069,-12.8637,-15.2183,-18.6074,-21.3870
2222.6562,-16.8823,-13.6634,-19.5879,-20.5857,-21.2414,-12.3592,-17.5581,-25.7356,-14.7834,-11.6167,-15.5156,-11.4511,-6.7122,-0.4836,-18.2671,-11.1684,-7.9326,-16.0451,-13.6540
2226.5625,-16.7891,-11.3395,-15.0969,-14.5131,-11.0595,-11.0678,-13.9759,-21.2102,-11.4308,-11.5620,-11.7142,-6.8007,1.4576,12.9901,-17.8094,-8.7072,-0.8299,-12.5579,-5.1578
2230.4688,-15.3632,-8.6277,-9.6342,-8.9636,-2.3428,-9.7653,-9.4022,-16.5643,-7.5112,-11.6182,-7.3227,-3.0114,7.4080,22.4554,-14.7352,-6.3718,4.2839,-9.3860,1.9587
2234.3750,-13.3949,-6.7522,-5.3284,-5.1784,3.1102,-8.5846,-4.8805,-12.6612,-4.8057,-12.2950,-4.3670,-1.2848,9.3841,26.2520,-11.3556,-5.0627,5.9246,-7.6372,5.7588
2238.2812,-11.8764,-6.2305,-3.3834,-3.5964,4.6366,-7.4510,-1.1490,-9.8284,-4.4169,-13.5668,-4.2185,-1.9860,6.8562,24.1923,-9.3426,-5.1910,3.7200,-7.6272,5.4505
2242.1875,-11.4644,-6.6948,-3.6091,-3.7891,2.9208,-6.2807,1.4672,-7.8087,-6.1700,-14.7892,-6.8399,-4.5372,0.8677,17.5925,-8.9149,-6.5599,-1.3581,-8.8258,1.6596
2246.0938,-12.0849,-7.4763,-5.0867,-4.9631,-0.4842,-5.2697,2.6803,-6.1543,-8.8574,-15.0462,-10.8916,-7.8492,-6.4530,8.5900,-9.2313,-8.6285,-7.4644,-10.3958,-4.0687
2250.0000,-12.8948,-8.3131,-7.1982,-6.5665,-3.9762,-4.9273,1.9338,-4.6953,-11.0518,-13.6947,-14.5155,-10.9073,-12.8987,-0.8328,-9.3953,-10.8635,-12.7482,-11.8331,-10.1177
2253.9062,-12.6529,-9.4387,-9.9630,-8.4687,-6.5354,-5.6938,-1.2893,-3.6398,-11.8402,-10.7573,-16.1994,-13.0498,-17.0612,-9.5135,-9.1067,-12.8555,-16.0756,-13.1399,-15.3853
2257.8125,-10.3463,-10.9024,-13.3108,-10.5718,-7.8344,-7.3672,-6.5970,-3.1782,-10.9940,-6.9330,-15.1943,-13.8089,-18.5852,-17.0880,-8.4720,-14.1492,-17.2085,-14.3827,-19.2852
2261.7188,-5.7698,-11.7773,-16.0149,-12.2599,-7.9202,-8.8264,-11.9961,-2.9506,-8.6254,-3.2417,-11.4244,-12.6266,-17.7991,-23.4130,-7.3410,-14.0581,-16.4634,-15.0730,-21.3624
2265.6250,0.2488,-10.1823,-15.5409,-12.3183,-6.8676,-8.4312,-14.2691,-1.9468,-4.8177,-0.5267,-5.2501,-8.9164,-15.1763,-27.9710,-4.9925,-11.8068,-14.2317,-14.0430,-21.0433
2269.5312,6.1304,-4.4615,-9.4490,-9.6105,-4.7527,-5.0014,-10.6377,0.8780,0.3284,0.9166,2.5562,-2.6082,-11.1141,-29.7839,-0.6418,-7.0494,-10.7707,-10.1266,-17.8800
2273.4375,10.2387,5.1860,2.3848,-4.1176,-1.9337,1.2246,-0.8533,5.6110,6.2746,1.4334,10.6508,5.2429,-6.1257,-27.9400,5.6039,-0.3904,-6.3554,-3.2353,-12.1379
2277.3438,11.6666,15.9694,16.4817,2.5170,0.7267,8.3836,11.7949,10.8088,11.7739,1.8352,17.1900,12.4756,-1.0882,-22.3166,12.2657,6.6218,-1.5188,5.0665,-5.1488
2281.2500,10.7181,23.5882,26.8512,7.5891,2.0885,13.8470,21.6305,13.9909,15.2628,3.0717,20.4813,16.8054,2.9082,-13.8934,17.1350,12.2348,2.9895,12.1491,1.0775
2285.1562,8.8157,24.7594,28.2840,8.9152,1.4289,15.7305,23.6016,13.1093,15.8761,5.8679,20.0294,17.3034,5.1856,-4.3460,18.7417,15.5638,6.6128,15.8821,4.9247
2289.0625,7.8432,19.5711,19.8675,6.3925,-0.8418,14.1083,16.4341,8.0880,14.3723,10.4145,17.2325,15.3000,6.1186,4.8205,17.5470,17.2031,9.4473,16.1334,6.2356
2292.9688,9.2375,11.8849,6.1998,2.3638,-3.0600,11.0798,3.8327,1.2960,13.0962,16.1922,14.9699,13.8224,7.1449,12.9594,15.8286,18.7957,12.2762,15.0266,6.5277
2296.8750,13.2948,7.2134,-4.8925,0.3427,-3.0541,9.5478,-7.2883,-3.5629,14.7014,22.0282,16.0271,15.6655,9.9017,20.2793,16.1935,21.7390,15.9923,15.5797,8.0449
2300.7812,19.0649,9.2939,-6.9383,2.8238,0.6068,11.4444,-10.6398,-3.5593,20.3308,26.4593,21.2541,21.3096,14.9726,27.1838,19.7688,25.9440,20.7557,19.5526,12.2010
2304.6875,24.8934,17.6454,1.2459,9.6461,7.6731,16.5637,-4.1114,1.7188,28.5464,28.3504,28.7818,28.2479,21.1934,33.5299,25.4482,29.6664,25.5658,26.0355,18.5074
2308.5938,29.3202,27.8727,14.9689,18.0948,16.2734,22.7979,9.2246,9.9979,35.9454,27.5272,35.0506,32.4494,26.1968,38.4580,30.7898,30.7135,28.7245,31.9082,24.8255
2312.5000,31.8325,34.6276,26.9036,24.7430,24.0011,27.6405,23.2886,17.8817,39.2542,25.0643,37.1412,31.1654,28.0012,40.9833,33.8640,28.2605,29.0078,33.9940,28.8563
2316.4062,33.0580,35.2564,31.9774,27.7819,29.3237,29.9487,32.8774,23.0856,37.5589,22.9583,34.8552,25.1753,26.5817,40.8870,34.5887,23.9103,26.7433,31.4533,29.8438
2320.3125,34.2987,31.6075,30.5621,28.1956,32.3511,30.7476,36.6699,25.7885,33.0875,23.2300,31.0114,18.7653,24.2191,39.1374,34.5034,21.0328,23.9210,26.6773,29.2387
2324.2188,36.6878,28.7135,27.7923,28.9276,34.4396,32.4910,37.4240,28.1706,29.8758,26.8583,29.6034,17.2189,24.1986,37.3881,35.2103,22.6237,23.0857,23.9259,29.7684
2328.1250,40.4545,31.2248,29.5649,32.6137,36.9420,37.2379,39.3927,32.5005,31.1219,33.1338,33.0049,23.3639,28.6126,36.8225,36.8118,29.0767,25.6574,26.5413,33.5021
2332.0312,44.7154,40.0503,38.0924,39.4992,40.0320,44.9641,44.8866,39.1822,37.0058,39.8507,40.1668,35.4968,36.7571,37.1924,37.6925,37.4902,30.8335,34.6238,40.2619
2335.9375,47.9048,51.5240,50.1473,47.0411,42.4809,53.1805,52.4240,46.1951,44.4951,44.3177,47.1367,48.1684,45.3016,36.8469,35.8960,43.1792,35.9205,44.7944,47.5303
2339.8438,48.6155,59.6780,59.1875,51.5119,42.5648,58.2062,57.7265,50.3553,49.3169,44.7013,49.6305,55.4175,50.2390,33.8701,31.0266,42.5580,37.9888,52.2573,51.9789
2343.7500,46.4135,60.0918,59.8253,50.5084,39.4578,57.3683,56.8032,49.5184,48.7915,41.0074,45.9469,54.3887,49.3874,27.6214,25.1257,35.5563,35.8068,53.8075,51.6123
2347.6562,42.2141,52.7653,51.5285,44.6455,34.1054,50.7841,48.9461,44.1834,43.6358,35.1813,38.2590,47.0170,43.8039,19.6107,21.7344,25.9559,30.7683,49.7987,47.0933
2351.5625,38.0193,42.1710,39.0787,37.2923,28.9368,41.5960,37.5672,37.3842,37.5521,30.2600,31.4163,38.7514,37.1806,13.0358,23.7383,19.3605,26.1700,43.8127,41.3789
2355.4688,36.0964,34.5321,29.5906,32.5525,26.5812,34.4469,28.3239,32.9474,34.8998,28.9813,30.0496,35.2157,33.6165,11.1867,31.5050,20.0275,25.2843,40.3125,37.9279
2359.3750,37.9297,34.1181,28.1709,32.8386,28.4178,33.0222,25.7810,33.2747,37.9761,32.5065,35.8285,38.9347,35.1992,15.6779,42.5754,28.4896,29.4498,41.8425,38.6505
2363.2812,43.3940,40.8434,35.0223,37.5782,33.8684,38.0344,30.7591,38.0623,45.6041,39.8395,46.5162,48.0597,40.8842,25.5774,53.0148,41.3399,37.3505,47.5328,42.8652
2367.1875,50.5686,50.4917,45.6439,43.7627,40.8129,46.7814,39.9739,44.6733,53.8125,48.2041,57.2388,57.6438,47.2691,37.9127,59.4107,53.1816,45.8524,53.7246,47.8119
2371.0938,56.3823,57.2295,53.7019,47.8435,46.7842,54.5294,48.0623,49.7893,58.0700,54.2194,63.0507,62.4745,50.6605,49.1802,60.2497,59.4819,51.7780,56.1798,50.2924
2375.0000,57.9171,56.8064,54.6035,47.7224,50.1751,56.9749,50.6530,51.2389,55.6890,55.3693,61.2788,59.7363,49.1276,56.9296,56.0824,58.6917,53.5064,52.4654,48.4065
2378.9062,53.8213,48.6567,47.6946,43.6950,50.7972,52.4664,46.6571,48.9501,47.0802,51.1168,52.5099,50.1574,43.3948,60.5695,48.8110,52.6078,51.5235,43.1775,42.4460
2382.8125,45.1071,35.9369,36.1351,37.9878,49.6214,42.8101,38.5903,44.6483,35.3463,43.1326,39.9987,37.3378,36.2361,61.1073,40.8348,45.0473,47.7874,31.4969,34.6090
2386.7188,34.8155,23.7253,24.9387,33.3754,48.0157,32.2539,30.9674,40.6933,24.6395,34.4852,28.0634,25.9069,30.8973,60.1757,34.4754,39.7614,44.4625,21.5260,27.8501
2390.6250,26.5900,16.4713,18.4838,31.7583,46.9863,25.2178,27.8230,38.8222,18.2364,28.1434,20.3086,19.5188,29.4824,59.0101,31.5498,38.7084,42.8118,16.3781,24.5251
2394.5312,22.8554,15.9741,18.7125,33.3918,46.7786,24.0025,30.7108,39.4229,17.2373,25.5386,18.3398,19.4982,32.0806,57.9068,32.8016,41.4089,42.7671,16.9207,25.4278
2398.4375,23.6189,20.7547,24.5964,36.9683,46.9065,27.7031,38.0902,41.5344,20.3525,25.9682,21.3198,24.5097,36.9049,56.3088,37.3063,45.4705,43.2233,21.6065,29.5429
2402.3438,26.6316,26.9890,32.8056,40.3225,46.4628,32.8892,46.2194,43.3954,24.7177,27.2001,26.4553,31.2483,41.2241,53.3124,42.4368,47.8820,42.7408,27.3141,34.5313
2406.2500,28.8559,30.4878,39.1685,41.3589,44.5203,35.6324,50.9873,43.2138,27.3012,26.9455,30.2709,35.8779,42.5985,48.2531,44.8886,46.4533,40.2597,30.7624,37.7334
2410.1562,28.3551,28.7760,40.3897,38.8524,40.4893,33.7221,49.7927,39.8702,26.2840,24.3080,30.2295,35.7077,39.8990,41.0968,42.4953,40.8063,35.5513,29.9146,37.3106
2414.0625,25.4122,22.2794,35.4383,32.8820,34.3508,27.8214,42.6636,33.3536,21.8232,20.2919,25.9814,30.4178,33.7185,32.5144,35.7132,32.5123,29.2949,24.8049,33.0525
2417.9688,22.1602,14.0180,26.0301,24.7730,26.6981,20.9460,32.1785,24.7954,15.8497,17.0350,19.5279,22.1953,26.0200,23.6501,27.5664,24.3020,22.7880,17.4268,26.4472
2421.8750,20.9822,7.9310,15.8728,16.5502,18.5520,16.6240,22.2596,16.0599,10.9788,16.2738,14.0631,14.5868,19.1659,15.6893,21.7976,18.6848,17.3953,10.6945,19.9062
2425.7812,22.7666,6.7001,8.8879,10.0942,10.9994,16.8439,16.3805,9.0141,9.0719,18.0826,12.0485,10.5742,14.7727,9.4014,20.3426,16.6525,13.9440,6.9483,15.4845
2429.6875,26.2064,10.2715,7.2486,6.3704,4.8197,20.9748,15.9989,4.7842,10.2257,20.7547,13.6665,10.9303,12.9672,4.8632,21.9272,17.1842,12.3491,6.7636,13.7790
2433.5938,28.6112,15.9369,10.3170,5.1213,0.2973,26.2152,19.9465,3.3715,12.7774,21.9063,16.6825,13.8511,12.4605,1.5187,22.9108,17.8844,11.6975,8.7306,13.6626
2437.5000,27.6621,19.9394,15.1388,5.1920,-2.6824,29.2104,25.0690,3.8330,14.3332,20.0293,17.8895,16.1320,11.4130,-1.4321,19.8837,16.4344,10.7927,10.3496,13.0467
2441.4062,22.9097,19.6468,18.2253,5.2894,-4.3506,27.8343,27.7982,4.9079,13.2048,15.4166,15.2304,15.1748,8.5853,-4.5191,12.1829,12.0034,8.8709,9.5277,10.2255
2445.3125,16.0219,14.9735,17.5233,4.7030,-4.8163,22.1403,25.8600,5.6952,9.3668,9.8549,9.1883,10.5586,4.0761,-7.6667,2.5024,5.7483,6.0456,5.7777,4.9631
2449.2188,9.6755,8.2142,13.3486,3.5478,-4.0618,14.0699,19.2652,5.9746,4.3622,5.3742,2.4947,4.1887,-0.8067,-10.2530,-4.8362,0.0780,3.1795,0.3996,-1.3644
2453.1250,5.8983,2.4625,7.7671,2.4237,-2.1666,6.2605,10.1240,6.0284,0.2641,2.9899,-1.6484,-1.0182,-4.4299,-11.5254,-6.6806,-2.8496,1.2537,-4.4258,-6.6440
2457.0312,4.9690,-0.3248,2.9604,1.7896,0.4489,0.7261,1.4639,6.1750,-1.6000,2.3058,-1.6265,-3.0097,-5.8801,-11.1024,-2.9401,-2.4417,0.6546,-7.0207,-9.3313
2460.9375,5.5162,-0.3901,-0.2348,1.5249,2.9998,-1.8949,-4.2694,6.4005,-1.3537,2.1333,1.6075,-1.8229,-5.4908,-9.2296,3.6071,0.0098,0.8695,-7.1850,-9.3409
2464.8438,5.6014,0.2267,-2.6340,0.9820,4.6146,-2.2824,-6.2426,6.3489,-0.3341,1.5223,5.2053,0.5426,-4.5520,-6.6391,9.1855,2.1453,0.8033,-6.1933,-7.9919
2468.7500,3.9668,-0.8255,-5.7631,-0.5465,4.7519,-1.8017,-5.3439,5.6251,-0.1706,0.3590,6.1925,1.4015,-4.4552,-4.1291,11.0791,1.9108,-0.5033,-5.8976,-7.1187
2472.6562,0.6580,-4.6692,-10.4589,-3.3069,3.4750,-1.7378,-3.4394,4.1252,-1.8275,-0.8573,3.1358,-1.0617,-5.8634,-2.1630,8.5650,-1.3640,-3.2444,-7.5621,-7.9691
2476.5625,-3.2268,-10.5602,-16.0647,-6.8819,1.3906,-2.7636,-2.2792,2.1164,-5.1674,-1.7264,-3.2682,-6.8613,-8.4100,-0.7372,2.5533,-6.7470,-6.7179,-11.1490,-10.5718
2480.4688,-6.3135,-16.4428,-20.7677,-10.4119,-0.7125,-4.7864,-2.6600,0.0184,-9.1767,-2.4320,-10.8306,-14.2973,-11.0244,0.4393,-5.2524,-12.3160,-9.7473,-15.4153,-13.8708
2484.3750,-7.6862,-20.2277,-22.7823,-13.0530,-2.2924,-7.1384,-4.2437,-1.9193,-12.5858,-3.5480,-17.1221,-20.8405,-12.5879,1.6235,-12.8408,-16.1244,-11.3498,-18.6660,-16.4249
2488.2812,-7.2172,-20.9550,-21.5210,-14.3614,-3.2984,-8.9858,-6.0342,-3.7836,-14.4799,-5.3701,-20.5297,-24.2699,-12.4922,2.8056,-18.0008,-16.9854,-11.2260,-19.6673,-17.1838
2492.1875,-5.4945,-19.1914,-17.9743,-14.4009,-4.1216,-9.7898,-7.1644,-5.8917,-14.6307,-7.4325,-20.6725,-23.5493,-10.8365,3.6879,-18.6975,-14.7987,-9.8202,-18.2234,-15.9219
2496.0938,-3.5460,-16.5339,-14.0973,-13.5826,-5.3215,-9.6145,-7.4913,-8.5095,-13.4901,-8.7158,-18.2258,-19.1546,-8.2688,3.8464,-14.1156,-10.4390,-7.9981,-15.1684,-13.1941
2500.0000,-2.4945,-14.5892,-11.6402,-12.3868,-7.2988,-9.0845,-7.6304,-11.6019,-11.9132,-8.4226,-14.4387,-12.7761,-5.6385,2.9498,-5.7806,-5.3549,-6.5871,-11.8437,-9.9485
2503.9062,-3.1572,-14.0227,-11.1440,-11.1269,-10.0594,-8.9520,-8.4062,-14.7660,-10.7089,-6.6523,-10.5635,-6.4963,-3.6360,0.9315,2.5018,-1.0173,-6.0308,-9.3526,-7.0441
2507.8125,-5.6222,-14.1778,-11.6652,-9.8379,-13.1443,-9.4935,-10.0879,-17.3594,-10.1708,-4.3569,-7.3046,-1.7522,-2.5295,-1.9384,6.5808,1.6448,-6.2748,-7.9722,-4.8880
2511.7188,-9.0188,-13.4806,-11.3662,-8.3206,-15.7506,-10.1724,-11.9750,-18.7409,-9.8316,-2.5866,-4.4635,1.3938,-2.0869,-5.0976,4.8484,2.5986,-6.8787,-7.0458,-3.3347
2515.6250,-11.7846,-10.4746,-8.6757,-6.3470,-17.0388,-9.9296,-12.7345,-18.5338,-8.7073,-1.7004,-1.0908,4.1314,-1.7653,-7.8760,-0.1441,2.5859,-7.2983,-5.4831,-1.9077
2519.5312,-12.5185,-4.9983,-3.4526,-3.9839,-16.5663,-8.0576,-11.4048,-16.8554,-6.0818,-1.3001,3.6509,7.7757,-1.1766,-9.8139,-3.1606,2.4390,-7.2579,-2.6773,-0.2882
2523.4375,-11.0310,1.1628,2.4636,-1.8884,-14.6787,-5.1088,-8.4485,-14.4410,-2.4549,-1.0204,9.2076,12.1909,-0.6397,-11.0079,-0.4511,2.1514,-7.0813,0.6681,1.1531
2527.3438,-8.8568,4.6861,5.7336,-1.3352,-12.6048,-3.0936,-6.0415,-12.5543,0.0484,-1.4733,12.8257,14.8794,-1.4337,-12.2710,6.2391,0.3623,-7.7786,2.4114,1.1406
2531.2500,-8.6603,2.2251,3.0079,-3.7887,-12.0692,-4.5883,-7.1641,-12.5953,-1.6135,-4.3595,10.1779,11.7101,-5.4048,-14.8982,9.2666,-5.1618,-10.7165,-0.1448,-2.1127
2535.1562,-12.6722,-7.6305,-7.1741,-10.1025,-14.4920,-11.1369,-13.8408,-15.4788,-9.6771,-11.3566,-2.3779,-0.7224,-13.9372,-20.0259,-0.4690,-16.0809,-16.8981,-8.6668,-9.9392
2539.0625,-21.0851,-23.0740,-23.0958,-19.7639,-20.1633,-21.9606,-25.5755,-21.0711,-23.7797,-22.4662,-24.9836,-22.3822,-26.8120,-27.8739,-26.6773,-31.8847,-26.1890,-22.3989,-22.1585
2542.9688,-31.5599,-39.4388,-40.1095,-30.7359,-27.9137,-33.9581,-39.0921,-28.0700,-40.3763,-35.1600,-52.8091,-48.6034,-41.7388,-37.3422,-63.2466,-49.3074,-36.9932,-37.9561,-36.6345
2546.8750,-40.3670,-51.2764,-52.5950,-40.1812,-35.5823,-43.1950,-49.7626,-34.5230,-54.0783,-45.2692,-77.3781,-71.6134,-55.0675,-46.3097,-96.0226,-63.4273,-46.7288,-50.6840,-49.9092
2550.7812,-44.5624,-55.1169,-56.7397,-45.7844,-41.0906,-47.0417,-54.0008,-38.7697,-60.3800,-49.3040,-90.4591,-84.2375,-63.4494,-52.5676,-110.4854,-70.0214,-52.9731,-56.9616,-58.7191
2554.6875,-43.7807,-51.2684,-52.5449,-46.9056,-43.4961,-45.5818,-51.1653,-40.2517,-58.1620,-46.6944,-88.4165,-83.6513,-65.5097,-54.8815,-100.6374,-67.7862,-54.6595,-56.0903,-61.5612
2558.5938,-40.3926,-43.4640,-43.7328,-44.7994,-43.3530,-41.3328,-43.7422,-39.6456,-50.3026,-40.3007,-74.2767,-72.7808,-62.4650,-53.5406,-73.0810,-58.9773,-52.5820,-50.5413,-59.3353
2562.5000,-37.8668,-36.4921,-35.4703,-41.7092,-42.1441,-37.4633,-35.6769,-38.2130,-41.8755,-34.6690,-56.0036,-58.3705,-57.2540,-50.0534,-43.2148,-48.0084,-48.8565,-44.3397,-54.6311
2566.4062,-38.4519,-33.3075,-31.2867,-39.4208,-41.1837,-35.7503,-29.9758,-36.8330,-37.0439,-33.1289,-41.9167,-46.9485,-52.7370,-46.2090,-25.8243,-38.9292,-45.6716,-40.6123,-50.1180
2570.3125,-41.7950,-33.5254,-31.2029,-38.2723,-40.7636,-35.7042,-27.2003,-35.4465,-36.7054,-35.7325,-36.1350,-41.3476,-50.1613,-43.1301,-26.2801,-33.4649,-44.1398,-39.9138,-47.0988
2574.2188,-45.4431,-34.2852,-32.3362,-37.3008,-40.1314,-35.4289,-25.8242,-33.3508,-38.4592,-39.4864,-36.9613,-40.0145,-48.8813,-40.9131,-38.1899,-30.8499,-43.9772,-40.4189,-45.1543
2578.1250,-46.7993,-32.8088,-31.5232,-35.3661,-38.2686,-33.4915,-24.0622,-30.1165,-38.8289,-40.6908,-39.1057,-39.3160,-47.3881,-38.9892,-48.8651,-29.3464,-44.1219,-39.7349,-42.9955
2582.0312,-45.0493,-28.7552,-28.0175,-32.3387,-34.8340,-30.3189,-21.6873,-26.3593,-36.0611,-37.6735,-37.9991,-36.9038,-44.7510,-36.8158,-48.5481,-28.0978,-43.7193,-36.9302,-39.7632
2585.9375,-41.6269,-24.5994,-24.2063,-29.3711,-30.5229,-27.9980,-20.3724,-23.6481,-31.4145,-31.9351,-33.0551,-33.5256,-41.3145,-34.3116,-36.8918,-27.8028,-42.6769,-33.2365,-35.7337
2589.8438,-38.9102,-23.7058,-23.7166,-27.9814,-26.5611,-28.5788,-22.2251,-23.4736,-28.0024,-26.9139,-27.6233,-31.9753,-38.1457,-31.7297,-22.3704,-29.7138,-41.3947,-30.9065,-31.9169
2593.7500,-38.1889,-27.4933,-28.2670,-28.6400,-23.7429,-32.1606,-27.6199,-25.9857,-28.1020,-25.3389,-25.8716,-34.1588,-35.7726,-29.1723,-15.4547,-33.8806,-39.9964,-31.1373,-28.9600
2597.6562,-38.4922,-33.8322,-35.6760,-30.0216,-21.8045,-36.2776,-34.0728,-29.4982,-31.0272,-27.1554,-29.0913,-38.7516,-33.3638,-26.2715,-20.7222,-38.2361,-37.8234,-32.7225,-26.3553
2601.5625,-37.2166,-37.9840,-40.7135,-29.6465,-19.6715,-37.1905,-37.2380,-31.2893,-33.2642,-29.5419,-34.2803,-41.4807,-29.1677,-22.4149,-33.5554,-39.4929,-33.7550,-32.5860,-22.7152
2605.4688,-32.1297,-35.5845,-38.4363,-25.5974,-16.4330,-32.3057,-33.5707,-29.2920,-30.8830,-28.9712,-36.0974,-38.0056,-21.9985,-17.4034,-43.5464,-35.3596,-27.2070,-27.9343,-16.9987
2609.3750,-23.2875,-25.6668,-27.7596,-18.1185,-12.2944,-22.0840,-22.9113,-23.5622,-22.5092,-23.7886,-30.7409,-27.2917,-12.6369,-12.0032,-41.9112,-26.4393,-19.0259,-18.5015,-9.7424
2613.2812,-13.4415,-11.6350,-12.7088,-9.8929,-8.7345,-10.1097,-9.1635,-16.4804,-10.6758,-15.4688,-18.8890,-12.8826,-3.9517,-7.8518,-27.5793,-16.2710,-11.4622,-7.2116,-3.2458
2617.1875,-6.5909,0.5114,-0.3386,-4.6813,-7.6755,-1.2340,1.5457,-11.4803,-0.5111,-7.7310,-5.5541,-0.9810,0.5506,-6.6502,-7.8708,-9.2953,-7.0573,1.3177,-0.4082
2621.0938,-5.6401,5.5467,3.3792,-5.1690,-10.2253,1.0178,4.1606,-11.1006,3.3758,-4.2314,3.0335,3.3886,-1.1493,-9.1409,6.3659,-8.0882,-7.1278,3.4700,-2.9448
2625.0000,-10.7165,1.8005,-3.0046,-11.4417,-15.9013,-3.8440,-2.5841,-15.6146,-0.3193,-6.4615,3.2953,-0.5634,-8.2612,-14.5983,7.5755,-11.8015,-10.9180,-1.2932,-10.2372
2628.9062,-19.2002,-8.3197,-15.8602,-21.0731,-22.9066,-13.3857,-15.6495,-23.0674,-8.9944,-13.1734,-3.7176,-9.2375,-17.6300,-21.2289,-4.2564,-16.9211,-16.0771,-10.3364,-19.6607
2632.8125,-27.3315,-20.1552,-28.9958,-30.6783,-29.2592,-23.8870,-29.5638,-30.5754,-18.0107,-21.4642,-13.4240,-17.3859,-25.6747,-27.2320,-22.2980,-19.7847,-20.1788,-19.6901,-28.1737
2636.7188,-32.2603,-29.5475,-37.3918,-37.8064,-33.9471,-32.2950,-39.3753,-35.9299,-23.6212,-28.5339,-20.8795,-21.6719,-30.4842,-31.7862,-37.4388,-19.0552,-22.2346,-26.4660,-34.0459
2640.6250,-33.2452,-34.6916,-39.6408,-41.9006,-37.2748,-37.2916,-42.8526,-38.4503,-24.9342,-32.8719,-23.6915,-22.4870,-32.6367,-35.2774,-43.3902,-16.4123,-23.1315,-30.1880,-37.5184
2644.5312,-31.4170,-36.1351,-37.7128,-43.8220,-40.1766,-39.0633,-40.7850,-38.6838,-23.7265,-34.2912,-22.7842,-22.8701,-34.2312,-38.6348,-39.2090,-15.0537,-24.6910,-32.2710,-39.9937
2648.4375,-28.5194,-35.3566,-34.6301,-44.4938,-43.0462,-38.3005,-35.5721,-37.3972,-22.5084,-33.1837,-20.8215,-25.5444,-36.9037,-42.2863,-28.3083,-17.1665,-28.0375,-34.2423,-42.4348
2652.3438,-25.6260,-33.2350,-31.9903,-43.8018,-44.9971,-35.3574,-29.3197,-34.7415,-22.4113,-29.8498,-19.7382,-30.4013,-40.2865,-45.5100,-15.3805,-22.2095,-32.4646,-36.1435,-44.2154
2656.2500,-22.6766,-29.5430,-29.1077,-40.5850,-44.1515,-30.1760,-22.7537,-30.2094,-22.4210,-24.4755,-19.2739,-34.2971,-42.0173,-46.6618,-3.6356,-27.1814,-35.6294,-36.2955,-43.2953
2660.1562,-18.9929,-23.6349,-24.1402,-33.6623,-38.8138,-22.8674,-15.4908,-23.3206,-20.3726,-17.6206,-17.4498,-33.2359,-39.2770,-44.1262,6.0055,-28.5983,-34.9685,-32.5339,-37.6117
2664.0625,-14.2472,-15.5659,-16.0752,-23.0621,-28.7419,-14.3267,-7.1960,-14.4116,-14.8328,-10.5919,-12.4310,-25.2748,-30.7768,-37.3440,13.7926,-24.7424,-29.3768,-23.9520,-26.6966
2667.9688,-9.1224,-6.6521,-5.9611,-10.5076,-15.6481,-6.2902,1.3740,-4.8809,-6.4466,-5.1829,-4.2832,-12.0678,-17.8433,-27.2411,19.4347,-16.6732,-20.0263,-11.8807,-12.3862
2671.8750,-5.1902,0.9687,3.4754,1.2018,-2.5749,-0.7165,8.2385,3.3038,2.1779,-2.8339,4.6507,1.9542,-3.9074,-15.8162,21.3141,-7.4571,-9.8012,0.5568,1.8585
2675.7812,-4.0900,5.4120,9.4036,9.4784,7.4773,1.1063,11.0595,8.4776,7.8980,-3.7918,10.9584,12.0787,7.2252,-5.2023,17.2902,-0.3065,-1.7476,9.9726,12.5652
2679.6875,-6.5325,5.9634,10.4281,13.0528,12.8477,-0.8417,8.4388,9.9473,8.7749,-6.8971,12.0799,15.7520,13.2072,3.1923,6.5552,3.0760,2.4618,14.3155,17.7800
2683.5938,-11.7390,3.2628,7.0825,12.2721,13.7202,-5.3398,0.8506,8.0997,5.0329,-10.1804,7.7119,13.4907,14.0164,8.9982,-8.7727,2.9887,3.1428,13.6084,17.6586
2687.5000,-17.6531,-1.2192,1.1759,8.5721,11.6582,-10.4874,-9.3071,4.0200,-1.2245,-11.8812,-0.0760,7.9948,11.4967,12.6005,-23.5827,1.0241,2.0409,9.5550,13.9442
2691.4062,-21.8277,-5.9169,-5.2877,3.6288,8.5784,-14.4245,-18.5503,-1.0190,-7.1988,-11.2453,-7.9275,2.3637,8.0462,14.5814,-31.6561,-1.1087,1.0902,4.4623,8.8484
2695.3125,-22.5282,-9.6161,-10.7876,-1.2408,5.8225,-15.8578,-23.6167,-5.8800,-10.6899,-8.6613,-12.7720,-1.3398,5.3415,15.3045,-28.7579,-2.3902,1.3214,0.2093,4.0789
2699.2188,-19.4845,-11.4888,-14.2963,-5.1980,3.8072,-14.2658,-22.6754,-9.6446,-10.8315,-5.1753,-13.0562,-2.4931,3.7952,14.8607,-15.2949,-2.5723,2.5262,-2.2411,0.4770
2703.1250,-13.9148,-10.9835,-15.0145,-7.7111,2.2918,-9.8799,-15.9819,-11.6260,-8.0777,-1.7930,-9.1562,-1.4747,2.8709,13.2952,3.1415,-1.7938,3.7308,-2.7703,-1.7787
2707.0312,-7.8382,-7.9009,-12.4045,-8.4377,0.9306,-3.5902,-5.7734,-11.4733,-3.6912,0.9759,-2.9586,0.9520,1.8510,10.8610,18.0547,-0.2367,4.0288,-1.7806,-2.7802
2710.9375,-3.0736,-2.6987,-6.6715,-7.3211,-0.3182,3.1779,4.5307,-9.3420,0.8640,3.1299,3.0639,3.9371,0.4808,8.0822,22.2422,1.8794,3.1904,0.0774,-2.6635
2714.8438,-0.4854,3.2782,0.7498,-4.7591,-1.1537,8.6945,11.5396,-5.9386,4.3617,4.8634,6.8537,6.5473,-0.8792,5.5914,13.6948,4.0876,1.7121,2.0499,-1.6289
2718.7500,0.1468,8.0325,7.3523,-1.5699,-1.1949,11.3568,13.1075,-2.2809,6.0424,6.2227,7.4738,7.8267,-1.5731,3.8711,-3.1310,5.5998,0.3825,3.4150,-0.0402
2722.6562,-0.3322,9.7159,10.5933,1.3674,-0.2788,10.2770,9.1322,0.7754,5.7179,6.9822,5.3041,7.1500,-1.1356,3.0765,-19.6179,5.5918,-0.2611,3.7122,1.6050
2726.5625,-1.0898,7.6425,9.3339,3.6161,1.4395,5.8057,1.6392,2.9715,3.8134,6.8177,1.7156,4.6985,0.4080,3.0344,-27.6615,3.7296,-0.1997,3.0048,2.8815
2730.4688,-1.6380,2.8932,4.7472,5.4626,3.6334,-0.3232,-5.9183,4.7487,1.3149,5.6678,-1.5853,1.6305,2.5989,3.3920,-23.9586,0.5643,0.2246,1.9705,3.6760
2734.3750,-1.6806,-1.9721,-0.0273,7.7142,6.0400,-5.4427,-9.9331,6.9190,-0.4534,4.0518,-3.2192,-0.3422,4.8762,3.8077,-11.3325,-2.5383,0.7287,1.6593,4.2628
2738.2812,-0.7463,-4.0737,-1.4521,11.0817,8.5669,-6.9501,-8.0622,10.0813,-0.2461,3.0995,-2.5191,0.1855,6.9272,4.0790,3.5875,-3.9749,1.4271,2.9656,5.1319
2742.1875,1.9018,-1.6850,2.4517,15.5253,11.1673,-3.4846,-0.2602,14.1335,2.5912,4.1602,0.4494,3.5361,8.8085,4.1650,14.6339,-2.6979,2.8090,6.0866,6.6631
2746.0938,6.8077,4.7817,10.8878,20.0110,13.5846,4.2771,11.0153,18.1700,7.7270,8.0809,5.0954,8.7601,10.7575,4.1289,19.4256,1.2035,5.3302,10.2938,8.8471
2750.0000,13.5701,12.8518,20.5343,22.8868,15.2082,13.6905,21.6144,20.8323,13.7939,14.5038,10.5091,14.1435,12.8372,4.0719,19.6924,6.4514,8.8941,14.1898,11.2237
2753.9062,20.4515,19.1368,27.1476,22.7087,15.2429,21.1944,27.3217,20.9352,18.8076,21.6523,15.5602,18.0627,14.6903,4.1163,18.7902,11.0941,12.6151,16.3413,13.0718
2757.8125,24.8949,20.9756,27.6572,19.0590,13.1767,23.9377,25.7003,18.0585,20.9560,26.9081,18.9851,19.6544,15.6217,4.4453,18.5857,13.3470,15.1185,15.9537,13.7465
2761.7188,24.8649,17.7127,21.6438,12.8870,9.2771,21.1867,17.3260,12.8261,19.4345,28.0381,19.6496,18.9624,15.0094,5.3451,18.1480,12.3723,15.2753,13.2261,12.9836
2765.6250,20.2156,10.9472,11.4668,6.1596,4.7439,14.7243,5.7231,6.7388,14.8917,24.4416,17.0265,16.6121,12.7843,7.1652,15.0927,8.6416,12.9390,9.1971,11.0186
2769.5312,13.0816,3.6376,1.0355,0.9823,1.3033,7.9321,-4.1516,1.6160,9.1818,17.6288,11.6482,13.3433,9.6276,10.1483,8.2666,3.7076,9.1788,5.1781,8.4594
2773.4375,6.8353,-1.4374,-6.0967,-1.3596,0.3766,3.9798,-8.2671,-1.1334,4.4649,10.5060,5.1507,9.7245,6.6855,14.1840,-0.5584,-0.5146,5.7736,2.0911,5.9795
2777.3438,4.1374,-3.0277,-8.3371,-0.9499,2.2778,4.1143,-5.5494,-1.0983,2.0983,5.7863,-0.3045,6.1441,4.9298,18.6324,-7.4422,-2.6194,4.2162,0.0794,3.9893
2781.2500,5.3279,-1.8587,-6.5833,0.9012,5.9542,7.0473,1.5574,0.9715,1.9514,4.4753,-3.0201,2.9400,4.5699,22.3884,-8.9286,-2.3009,4.8329,-1.4039,2.4714
2785.1562,8.2734,0.0152,-3.4792,2.4099,9.4940,9.8343,8.4189,3.5405,2.5842,5.4249,-2.6004,0.4657,4.9309,24.2423,-4.5137,-0.3594,6.6017,-3.1010,1.0802
2789.0625,9.8417,0.5314,-1.8475,2.2821,11.1532,9.7424,10.7793,5.0525,2.2217,6.2897,-0.0877,-0.9942,4.9177,23.4040,2.9827,1.8624,7.8186,-5.3609,-0.5382
2792.9688,8.0491,-1.1630,-3.1526,0.3770,10.2995,5.9871,7.1450,4.7113,-0.0644,5.2720,2.7201,-1.3821,3.7710,19.9102,9.3946,3.2687,7.1945,-7.8289,-2.4041
2796.8750,3.4343,-4.2725,-6.7997,-2.2786,7.6951,0.2855,-0.3953,2.8561,-3.7192,2.4695,4.3363,-0.9503,1.5979,14.6529,11.9943,3.5510,4.6650,-9.6139,-4.0764
2800.7812,-1.2690,-6.8915,-10.6056,-4.1142,4.9458,-4.1043,-7.3957,0.7167,-7.0345,-0.1216,4.3409,-0.1808,-0.6985,8.9704,11.0326,3.1757,1.3807,-9.8326,-4.8599
2804.6875,-2.9217,-7.1470,-12.1232,-3.9157,3.4759,-4.2620,-9.5843,-0.3134,-8.2276,0.0315,3.3705,0.4258,-2.0455,4.0160,9.0668,2.8930,-1.0900,-8.1801,-4.2514
2808.5938,-0.0053,-4.2644,-10.0444,-1.4922,3.6867,0.7271,-5.2019,0.5409,-6.5493,4.2039,2.4474,0.5753,-1.9333,0.2702,8.8381,3.1575,-1.7739,-5.1541,-2.3434
2812.5000,6.4574,1.0265,-4.8845,2.2487,4.8180,9.2639,4.1745,3.0517,-2.6886,11.4295,2.2128,0.3060,-0.7285,-2.5207,11.4107,3.8762,-0.8214,-1.7830,0.1028
2816.4062,13.6229,6.9057,1.3953,5.8214,5.5513,18.1013,14.6708,6.1951,1.7601,18.9917,2.6328,-0.0339,0.6472,-4.9724,15.8192,4.6199,0.7759,0.9615,2.0113
2820.3125,18.6008,11.4021,6.5454,7.9441,4.9133,24.0026,22.2544,8.7729,5.3487,24.0249,3.3200,0.0612,1.4181,-7.5293,20.1101,5.0639,2.0126,2.6778,2.5897
2824.2188,20.0588,13.3238,9.2408,8.1306,2.8729,25.2469,24.6745,10.0395,7.5914,25.1176,4.0992,1.0340,1.5060,-10.1280,22.6335,5.2590,2.5925,3.6471,1.8100
2828.1250,18.6730,12.7241,9.6471,6.8008,0.2790,22.2470,22.2144,9.9788,9.0052,22.8764,5.2680,3.0572,1.5246,-12.2516,22.5514,5.5091,3.0225,4.5016,0.4607
2832.0312,16.3093,10.7341,9.0683,4.9336,-1.7454,17.1161,17.0972,9.1464,10.4248,19.1956,7.2856,5.9175,2.2402,-13.2842,19.5034,5.9891,4.0511,5.7141,-0.2828
2835.9375,14.6540,8.9042,8.9674,3.5272,-2.5001,12.5440,12.1341,8.2683,12.1657,15.8800,10.1347,9.0450,3.9183,-12.8804,13.2294,6.4773,5.9333,7.2743,0.4676
2839.8438,14.2450,8.3886,9.9876,3.1805,-2.0383,10.5664,9.4225,7.8781,13.6795,13.6259,12.9191,11.6892,6.0567,-11.0942,3.8660,6.4827,8.1140,8.7554,2.7833
2843.7500,14.4337,9.3454,11.5502,3.9543,-0.9805,11.7251,9.6183,8.1582,13.9464,11.9781,14.1222,13.1763,7.7042,-8.2265,-7.2593,5.6941,9.5855,9.6780,5.8350
2847.6562,14.1168,10.8391,12.2328,5.4809,-0.0123,14.8927,11.8837,8.9644,12.2924,10.1034,12.4689,13.1404,8.1324,-4.5632,-17.2906,4.3701,9.6449,9.8753,8.3019
2851.5625,12.6371,11.3401,10.6944,7.1912,0.5683,17.8118,14.3658,9.9293,9.0327,7.6626,7.8614,11.6450,7.3798,-0.2306,-22.7520,3.2980,8.4777,9.6071,9.0652
2855.4688,10.2866,9.6572,6.6426,8.5518,0.9995,18.1911,15.0414,10.5829,5.4930,5.1188,1.7563,9.1733,6.2974,4.7398,-21.4241,3.2991,7.1318,9.3889,7.8365
2859.3750,8.2036,5.8681,1.3257,9.2703,1.8820,14.9665,12.7451,10.5170,3.4107,3.3557,-3.3177,6.5272,6.0824,10.2315,-13.8812,4.6567,6.8984,9.7155,5.4167
2863.2812,7.8188,1.6836,-2.7562,9.4371,3.8418,9.1377,8.0224,9.6041,4.1012,3.0285,-4.8857,4.6751,7.6181,15.9227,-3.3755,6.9390,8.5303,10.8869,3.4426
2867.1875,10.1521,-0.1391,-2.8942,9.5276,7.2070,3.6109,3.2683,8.1739,7.8506,4.1977,-1.7045,4.5477,11.0151,21.3213,6.0687,9.3864,11.8053,12.9913,3.6917
2871.0938,15.2297,2.7650,2.4151,10.1821,11.7910,1.8736,1.7362,6.9631,13.7799,6.4602,5.6003,6.7557,15.5660,25.8940,12.0660,11.5502,15.6632,15.9326,7.2109
2875.0000,21.8210,10.7743,12.3282,11.7893,16.8150,6.0125,5.6222,6.7425,20.1425,9.3383,14.7284,11.2684,20.0570,29.1621,15.0212,13.6307,18.7576,19.3704,13.6444
2878.9062,27.6577,21.5111,23.4697,14.0872,21.0147,15.1576,14.2277,7.7786,24.8722,12.5055,22.6160,17.1998,23.2241,30.7046,17.1953,16.1814,20.0478,22.6002,21.1257
2882.8125,30.2088,30.5833,31.0664,16.0967,22.9984,25.4308,23.5454,9.5082,26.2202,15.6601,26.6499,22.9105,24.1631,30.1470,20.4930,19.3841,19.1401,24.5717,26.9022
2886.7188,27.8421,33.6806,31.1258,16.5700,21.8316,31.7225,28.0055,10.7674,23.3711,18.2494,25.6856,26.5254,22.6046,27.2696,24.7648,22.5104,16.3217,24.2283,28.5239
2890.6250,20.8701,28.9637,22.6866,14.7862,17.6354,30.4789,23.7360,10.5504,16.8840,19.4335,20.4593,26.7169,19.0274,22.2531,27.9457,24.1085,12.4076,21.1069,25.0791
2894.5312,11.8190,18.3238,8.8621,11.2000,11.8242,21.8931,11.4246,8.8296,8.7199,18.4751,13.2192,23.3625,14.5668,15.8934,27.8132,22.9107,8.5180,15.8396,17.8145
2898.4375,4.5206,6.6168,-4.1863,7.4209,6.6832,10.0668,-3.2678,6.7987,1.6525,15.3252,6.7085,17.6659,10.6676,9.5311,23.8425,18.8482,5.7994,10.1213,9.7021
2902.3438,2.2892,-0.8473,-10.1330,5.3848,4.3384,0.8648,-12.4575,6.2200,-1.8573,10.9218,2.9377,11.6014,8.5253,4.5873,17.6322,13.3898,5.0651,5.9898,4.0518
2906.2500,6.1125,-1.1715,-5.8426,6.1534,5.6142,-1.3712,-10.5882,8.2033,-0.8507,6.8629,2.3381,6.9587,8.5328,1.8976,11.6491,8.8537,6.4280,4.7459,2.8488
2910.1562,13.9661,4.5947,6.7070,9.1306,9.4767,3.7138,1.9874,12.2439,3.5634,4.5797,3.7521,4.5402,10.0534,1.2635,7.4654,7.0774,9.1380,6.1793,5.7375
2914.0625,21.7999,12.1865,21.2109,12.3040,13.5096,12.3599,18.8099,16.2858,8.7189,4.5365,5.2879,3.9777,11.7313,1.5802,5.0087,8.3241,11.8284,8.6559,10.2708
2917.9688,25.7354,16.6855,30.3081,13.4603,15.2489,18.9929,30.8652,17.9115,11.8152,6.0106,5.5470,4.2263,12.2338,1.5358,3.3500,11.1625,13.1532,10.0920,13.3238
2921.8750,24.2092,15.3720,29.5776,11.6246,13.6157,19.5404,31.8207,15.9314,11.4622,7.6084,4.4656,4.3481,11.0048,0.4669,2.1293,13.3948,12.4938,9.2314,12.8653
2925.7812,18.7667,9.1833,19.9566,7.7471,9.5488,13.7576,21.7144,11.2802,8.4007,8.1610,3.2244,4.0375,8.5456,-1.2025,2.1551,13.3980,10.2857,6.4013,9.0437
2929.6875,13.0339,1.9997,7.1367,4.1266,5.4074,5.2301,6.8196,6.5347,4.9300,7.3980,3.2950,3.5891,6.0315,-2.2568,4.5279,11.0138,7.7199,3.2480,3.9702
2933.5938,10.5292,-1.6970,-1.7088,2.9222,3.5048,-0.8176,-4.1505,4.3159,3.4129,5.9880,5.3035,3.4554,4.5254,-1.5245,9.1053,7.4981,5.9978,1.6414,0.3852
2937.5000,12.6796,0.6723,-1.9112,4.7628,4.7137,-0.4900,-5.0454,5.6501,4.8400,4.9997,8.5426,3.8396,4.3504,1.3284,13.8922,4.7045,5.6503,2.4997,0.0805
2941.4062,18.2082,8.5315,6.3385,8.4214,8.0446,6.7683,4.5791,9.4253,8.3843,5.2179,11.5102,4.6754,5.0660,5.6076,16.2369,4.1272,6.3961,5.3215,3.0431
2945.3125,24.1345,18.6925,18.5324,11.7794,11.4436,18.1094,19.8437,13.3159,12.1736,6.7713,13.0810,5.9570,6.0349,10.1205,15.0719,6.3624,7.6042,8.6939,7.7606
2949.2188,27.6214,27.1581,28.7397,13.3800,13.2347,28.9411,33.7927,15.4939,14.6649,9.2339,13.4114,8.0254,7.1052,14.0027,12.2922,11.1207,8.9551,11.3500,12.3497
2953.1250,27.4764,31.0491,32.9345,13.4397,13.2058,35.1911,41.1942,15.8718,15.6162,11.9965,13.8378,11.4236,8.8199,17.1987,11.8111,17.5119,10.7285,12.9799,15.6764
2957.0312,24.4853,29.6716,30.7726,13.5716,12.6093,34.9742,40.6345,15.9722,16.0000,14.5686,15.7810,16.3114,11.9313,20.2187,16.6547,24.2753,13.4489,14.2224,17.7442
2960.9375,20.5883,24.4029,25.0070,15.4156,13.1172,29.0336,34.1349,17.5419,17.0082,16.6217,19.4538,21.8812,16.5543,23.3719,26.1909,29.8944,17.1613,15.9012,19.2215
2964.8438,17.6016,17.7456,19.2822,19.1864,15.4929,20.0734,25.2076,20.9699,18.9581,17.8609,23.3858,26.3431,21.6354,26.1129,35.7629,32.8093,20.9574,18.1331,20.5944
2968.7500,16.3132,12.1776,15.9246,23.2311,18.9198,11.5216,16.9620,24.7258,20.9419,17.9606,25.2182,27.6880,25.2351,27.0916,39.3143,31.9105,23.2343,20.0247,21.6417
2972.6562,16.3663,9.2882,15.0527,24.9748,21.4455,6.2669,11.2822,26.2830,21.4667,16.7036,23.2763,24.8435,25.5448,24.9796,33.3201,27.1705,22.6091,20.2133,21.6010
2976.5625,16.7665,9.3765,15.2250,22.6253,21.2166,5.7016,8.9459,23.8790,19.5734,14.2298,17.8083,18.4569,21.9928,19.5258,19.2534,19.9548,18.8691,17.8620,19.8307
