Time,Fp1,F3,C3,P3,O1,F7,T3,T5,Fz,Fp2,F4,C4,P4,O2,F8,T4,T6,Cz,Pz
0.0000,-0.8252,-0.8246,-3.1699,-1.6337,-0.6851,-0.9365,-8.4011,-2.2138,-2.4691,3.1836,0.1884,0.4828,-2.2886,-3.2746,3.9780,0.8959,-2.6260,-2.2923,-0.8729
3.9062,-2.0832,-1.8227,-6.9171,-3.0889,-1.8328,-3.3566,-7.9297,-4.9459,-2.7971,2.6329,0.3930,-0.5532,-1.9005,-2.2400,6.1018,0.0121,-1.8923,-3.5757,-1.1815
7.8125,-3.6620,-2.6959,-10.0598,-4.6173,-3.0022,-5.9878,-5.4636,-8.6170,-2.4432,0.8819,0.9367,-1.4133,-0.6173,0.6237,7.6025,-0.7118,0.0263,-4.4984,-1.0774
11.7188,-4.9039,-3.1986,-10.7945,-5.3143,-3.5151,-7.7176,-1.3081,-11.8557,-0.9752,-1.8127,1.9203,-1.3859,1.6494,5.3314,7.9857,-0.8642,3.0273,-4.1838,-0.4342
15.6250,-5.2570,-3.3329,-8.3828,-4.4638,-2.7979,-7.8850,3.2171,-12.9860,1.4383,-4.5582,3.1184,-0.1395,4.5201,11.0210,7.2285,-0.3569,6.4437,-2.2519,0.5757
19.5312,-4.6442,-3.3328,-3.7830,-2.0732,-0.7639,-6.7886,6.2847,-10.9273,3.8954,-6.2557,3.9406,1.9133,7.2094,16.1955,5.5898,0.4932,9.3030,0.7733,1.4941
23.4375,-3.5343,-3.4782,0.7700,0.9791,2.0284,-5.5638,6.4449,-5.8982,5.1469,-6.2114,3.6896,3.7122,8.8364,19.3534,3.2921,1.1593,10.8061,3.6048,1.7653
27.3438,-2.6394,-3.8638,3.0570,3.3554,4.5812,-5.4445,3.4779,0.5556,4.3488,-4.5434,2.0169,4.1223,8.8393,19.6818,0.3903,1.2401,10.7381,4.8858,1.0171
31.2500,-2.4277,-4.2899,2.2349,4.0240,5.9391,-6.8713,-1.2361,6.2841,1.7178,-2.1193,-0.7157,2.6502,7.2654,17.4183,-3.0340,0.7016,9.5486,4.0343,-0.7147
35.1562,-2.7787,-4.3577,-0.6425,2.8903,5.6690,-9.0614,-5.1093,9.5928,-1.3955,-0.0652,-3.4585,-0.1794,4.7646,13.6712,-6.5344,-0.1369,8.0400,1.6797,-2.9529
39.0625,-3.0233,-3.7129,-3.3073,0.8606,4.0480,-10.3723,-5.4542,10.0039,-3.1544,0.8408,-4.9475,-3.0700,2.2825,9.8046,-9.1787,-0.8371,6.8702,-0.6324,-4.9643
42.9688,-2.3484,-2.2740,-3.7129,-0.7284,1.8526,-9.2674,-0.8782,8.2814,-2.2555,0.5186,-4.3778,-4.6823,0.6251,6.7471,-9.8772,-1.1139,6.1943,-1.3119,-6.0651
46.8750,-0.3111,-0.2955,-1.2624,-0.9392,-0.1043,-5.2804,7.7233,5.7807,1.3173,-0.4994,-1.8567,-4.3627,0.1375,4.6136,-8.0319,-0.9575,5.6756,0.3847,-5.8810
50.7812,2.8598,1.7737,2.9719,0.2332,-1.3868,0.6301,17.2183,3.6079,6.3023,-1.4800,1.6720,-2.3842,0.6519,2.8194,-4.0656,-0.5600,4.8287,4.0135,-4.4326
54.6875,6.3473,3.5350,7.1159,1.9754,-2.0567,6.5490,23.5336,2.1449,10.9263,-1.9267,4.9937,0.4289,1.6880,0.5660,0.6037,-0.1484,3.4275,8.3398,-2.0375
58.5938,9.1440,4.8245,9.7723,3.3051,-2.4707,10.5881,23.7052,1.1705,13.9155,-1.7739,7.3031,3.3658,2.7410,-2.6245,4.2265,0.1284,1.6778,12.1490,0.8639
62.5000,10.5163,5.7258,10.7911,3.7672,-2.9423,11.7797,17.6229,0.3557,15.0799,-1.2706,8.5444,6.2441,3.4734,-6.6301,5.6436,0.2020,0.0458,14.8802,3.8290
66.4062,10.2886,6.4188,11.0467,3.6740,-3.5170,10.3860,8.3778,-0.3282,15.1231,-0.7042,9.2005,9.2539,3.7353,-10.8106,4.8706,0.0372,-1.0984,16.6672,6.4249
70.3125,8.8316,6.9839,11.4954,3.7423,-3.9892,7.5287,0.7999,-0.6069,14.8881,-0.1922,9.7219,12.3795,3.4834,-14.3225,2.9529,-0.3673,-1.7205,17.8451,8.2016
74.2188,6.8175,7.3002,12.3056,4.4352,-4.0920,4.4596,-1.1528,-0.2480,14.6405,0.3182,10.0462,14.9271,2.7358,-16.4368,1.1919,-0.9133,-2.0485,18.3884,8.7475
78.1250,4.8992,7.1045,12.7434,5.5346,-3.6760,1.9467,3.3311,0.6040,13.9266,0.8778,9.5868,15.6439,1.6359,-16.6914,0.2809,-1.3626,-2.2468,17.7811,7.8832
82.0312,3.4660,6.1687,11.8676,6.2782,-2.7393,0.0980,11.4127,1.4375,12.0751,1.3515,7.7100,13.4676,0.5627,-14.8790,-0.0626,-1.4269,-2.1256,15.4501,5.8980
85.9375,2.5582,4.4794,9.4418,5.9583,-1.3291,-1.3819,18.2854,1.7528,8.9129,1.3784,4.3436,8.4182,0.1324,-10.9910,-0.7389,-0.9797,-1.1658,11.4189,3.6252
89.8438,1.9425,2.3073,6.3029,4.5180,0.5456,-2.7636,20.0674,1.4979,5.1012,0.5249,0.2437,1.9466,0.9837,-5.2387,-2.4737,-0.2369,1.0945,6.6285,2.1936
93.7500,1.2943,0.1249,3.8614,2.6804,2.8650,-4.0022,16.0818,1.1757,1.8069,-1.4550,-3.3141,-3.6222,3.4009,1.8435,-5.1784,0.2840,4.5672,2.6002,2.4948
97.6562,0.4042,-1.5813,3.0970,1.5003,5.4334,-4.7493,9.0596,1.4914,-0.0499,-4.4049,-5.2323,-6.2887,6.9984,9.3261,-7.9170,0.0684,8.3957,0.6119,4.6356
101.5625,-0.6821,-2.5037,3.8223,1.6603,7.7571,-4.6106,3.1737,2.7852,-0.3928,-7.7223,-5.2052,-5.4737,10.7174,15.9809,-9.4894,-1.0042,11.2409,0.9492,7.7381
105.4688,-1.6612,-2.6132,4.7951,3.0248,9.1324,-3.4497,1.2868,4.6870,0.0377,-10.5217,-3.8275,-2.2872,13.2301,20.5826,-9.2011,-2.4801,11.9531,2.7667,10.2893
109.3750,-2.1148,-2.1201,4.6243,4.7660,8.9639,-1.5325,3.3169,6.2806,0.3182,-11.9374,-2.1342,1.2100,13.5806,22.3078,-7.2843,-3.5416,10.2263,4.6726,10.9155
113.2812,-1.7257,-1.3260,2.8152,5.9546,7.1348,0.5808,6.7826,6.6777,0.0974,-11.4390,-0.9077,3.2595,11.7076,21.0301,-4.7020,-3.5047,6.8099,5.6336,9.1566
117.1875,-0.4443,-0.4528,0.1895,6.1740,4.1738,2.3331,8.9865,5.5958,-0.1208,-9.0236,-0.2361,3.3524,8.5186,17.3551,-2.5068,-2.2627,3.1240,5.5763,5.7689
121.0938,1.4914,0.4508,-1.6294,5.7241,1.0678,3.4762,9.1006,3.5299,0.6008,-5.2083,0.3919,2.2917,5.4374,12.3753,-1.2171,-0.3471,0.5078,5.2896,2.3428
125.0000,3.6813,1.4688,-1.3033,5.3007,-1.1941,4.1899,8.5506,1.4182,2.8111,-0.8299,1.5640,1.4234,3.6651,7.2745,-0.6135,1.4463,-0.4362,5.7367,0.4389
128.9062,5.7320,2.6632,1.3167,5.4266,-2.0754,4.9146,9.4538,0.0688,6.0743,3.2478,3.3998,1.6460,3.5835,2.9773,-0.0406,2.5868,-0.0207,7.2937,0.7508
132.8125,7.3446,3.9099,5.0718,6.0660,-1.6735,5.9737,12.4302,-0.2379,9.0704,6.3785,5.3839,2.8939,4.6422,-0.0242,1.0511,3.0841,0.8837,9.4523,2.7848
136.7188,8.2831,4.8461,8.1984,6.6877,-0.5447,7.2189,15.6418,0.2686,10.3590,8.2214,6.6815,4.3819,5.7730,-1.6492,2.7111,3.3043,1.4602,11.1605,5.2208
140.6250,8.3013,4.9998,9.3429,6.6850,0.6712,7.9633,15.9760,1.1832,9.2799,8.6675,6.6889,5.3149,6.0477,-2.1031,4.4789,3.4938,1.3968,11.5166,6.6899
144.5312,7.1663,4.0527,8.2252,5.8079,1.5584,7.3208,11.5697,2.2507,6.3671,7.7056,5.4197,5.4630,5.1631,-1.7550,5.7047,3.4331,0.9210,10.3062,6.4706
148.4375,4.8282,2.0875,5.5970,4.2836,1.9824,4.8025,3.7075,3.4150,2.9960,5.3691,3.4702,5.1775,3.4827,-1.0630,5.9400,2.5542,0.4750,8.0366,4.7083
152.3438,1.6384,-0.3506,2.6464,2.5726,1.9298,0.8000,-3.5320,4.5971,0.5302,1.8345,1.6239,4.9113,1.6741,-0.5147,5.1414,0.4782,0.3250,5.5157,2.1121
156.2500,-1.5895,-2.4478,0.3188,0.9943,1.3299,-3.4072,-5.8500,5.4596,-0.4333,-2.3967,0.4050,4.7132,0.2494,-0.5237,3.6098,-2.4413,0.4078,3.3432,-0.5718
160.1562,-3.8163,-3.4891,-1.0236,-0.4586,0.0496,-6.2242,-1.7622,5.4313,-0.2263,-6.4122,-0.1096,4.1584,-0.6630,-1.2675,1.7776,-5.0466,0.4999,1.6925,-2.9161
164.0625,-4.2481,-3.1993,-1.5107,-1.9749,-1.9134,-6.6064,6.1348,4.0406,0.3603,-9.0577,-0.1347,2.7898,-1.1914,-2.5395,0.0309,-5.9340,0.5344,0.4839,-4.8002
167.9688,-2.7814,-1.8643,-1.4586,-3.5902,-4.2096,-4.6938,12.6961,1.3244,0.7636,-9.3685,0.1373,0.6907,-1.4114,-3.7321,-1.3298,-4.3190,0.7764,-0.2782,-6.1490
171.8750,-0.1255,-0.1709,-1.1402,-4.9669,-6.1149,-1.7869,13.5796,-2.0182,1.0160,-7.0715,0.7190,-1.3352,-1.1577,-4.0281,-2.0316,-0.6212,1.6826,-0.3525,-6.7290
175.7812,2.5067,1.1276,-0.7553,-5.5066,-6.8020,0.3642,8.1030,-4.8935,1.5388,-2.8659,1.7256,-2.2028,-0.1511,-2.7606,-1.8011,3.6605,3.5204,0.5402,-6.2252
179.6875,3.9781,1.5270,-0.5017,-4.7507,-5.7779,0.5363,-0.3663,-6.3642,2.5705,1.7305,3.0875,-1.3317,1.6513,0.2239,-0.4575,6.7384,6.0269,2.3233,-4.5525
183.5938,3.7372,0.9118,-0.5710,-2.7838,-3.2139,-1.3288,-6.7044,-6.1370,3.7310,4.9492,4.3530,0.8115,3.7898,4.4040,1.8992,7.4939,8.3841,4.3307,-2.1221
187.5000,1.9837,-0.5002,-1.0197,-0.3307,0.0646,-4.2042,-7.3587,-4.6807,4.1157,5.4988,4.8065,2.8682,5.4071,8.7452,4.7405,6.0018,9.5874,5.5055,0.2149
191.4062,-0.5497,-2.3133,-1.6377,1.5571,2.9486,-6.6803,-2.4293,-2.9189,2.9069,3.0985,3.8811,3.3971,5.7307,12.1315,7.1501,3.3364,9.0081,4.9761,1.5766
195.3125,-3.0024,-4.0888,-1.9988,2.0463,4.5666,-7.7985,4.7706,-1.7122,0.0703,-1.4336,1.6000,1.8008,4.6244,13.8499,8.1086,0.8504,6.8032,2.6449,1.5539
199.2188,-4.7136,-5.4187,-1.7360,0.9554,4.6557,-7.4821,10.1292,-1.4440,-3.3971,-6.5531,-1.2901,-1.2772,2.7848,13.8634,6.9319,-0.5679,3.9000,-0.6364,0.4399
203.1250,-5.3416,-5.9781,-0.8735,-1.1853,3.5860,-6.3550,11.3080,-1.9172,-5.9150,-10.6216,-3.6419,-4.3711,1.3699,12.7222,3.6628,-0.8239,1.5370,-3.4818,-1.0009
207.0312,-4.8312,-5.6137,0.0548,-3.4662,2.0628,-5.1767,8.7816,-2.5505,-6.2260,-12.5020,-4.5263,-6.1392,1.2494,11.1679,-0.7997,-0.4322,0.6199,-4.7493,-2.0755
210.9375,-3.3666,-4.4524,0.2502,-5.0913,0.7164,-4.3476,4.9461,-2.7107,-4.1847,-11.8897,-3.7657,-6.1821,2.3734,9.6771,-4.9483,-0.0613,1.2629,-4.1965,-2.6277
214.8438,-1.3731,-2.9325,-0.8574,-5.7298,-0.1773,-3.8124,2.2684,-2.0011,-0.9034,-9.2989,-2.0331,-5.1840,3.7235,8.2250,-7.2344,-0.1506,2.7760,-2.5876,-3.0858
218.7500,0.5083,-1.6633,-3.1948,-5.5465,-0.7199,-3.3387,1.8986,-0.4141,1.8628,-5.7735,-0.4399,-4.3183,3.9328,6.4158,-6.7294,-0.7866,4.0912,-1.1793,-4.0587
222.6562,1.5892,-1.1337,-6.0096,-4.9601,-1.2088,-2.8660,3.5135,1.6519,2.7170,-2.4656,0.1328,-4.3772,2.1965,3.8895,-3.5733,-1.7882,4.3656,-0.9194,-5.7818
226.5625,1.4416,-1.4292,-8.2672,-4.3382,-1.9037,-2.6149,6.0777,3.4903,1.3865,-0.2402,-0.4618,-5.2490,-1.1312,0.7343,1.0279,-2.8356,3.4153,-1.8792,-7.8327
230.4688,0.1705,-2.1627,-9.2297,-3.8346,-2.8856,-2.8886,8.6270,4.2910,-1.2026,0.5687,-1.6059,-6.0821,-4.6677,-2.3825,5.2981,-3.5484,1.7523,-3.2739,-9.3327
234.3750,-1.5823,-2.7051,-8.8385,-3.4357,-4.0520,-3.7714,10.4659,3.4368,-3.5507,0.1805,-2.3564,-5.9602,-6.7877,-4.4774,7.6718,-3.5515,0.2440,-4.0349,-9.4981
238.2812,-2.9766,-2.5910,-7.6615,-3.1197,-5.1972,-4.9995,10.9205,0.8083,-4.4767,-0.8220,-2.0497,-4.5646,-6.5548,-4.7730,7.4884,-2.6147,-0.3757,-3.5318,-8.1468
242.1875,-3.4694,-1.8298,-6.4725,-2.9643,-6.1008,-6.1104,9.2510,-3.0508,-3.7102,-1.8009,-0.6764,-2.3487,-4.2020,-3.1712,5.2502,-0.8459,0.1418,-1.9624,-5.8104
246.0938,-3.1204,-0.8955,-5.7737,-3.1069,-6.5827,-6.7371,5.0834,-7.0460,-1.8609,-2.3364,1.1897,-0.1458,-0.8896,-0.3893,2.3115,1.2100,1.5088,-0.1682,-3.3958
250.0000,-2.4732,-0.3905,-5.5885,-3.5947,-6.5364,-6.8050,-0.9435,-9.9306,0.1311,-2.3310,2.8178,1.4437,2.0385,2.3375,0.1669,2.7278,3.1253,0.9696,-1.6626
253.9062,-2.0916,-0.6178,-5.6228,-4.2587,-5.9609,-6.4991,-7.0183,-10.8191,1.6290,-1.9173,3.7779,2.4063,3.7687,3.8327,-0.2768,3.0069,4.3998,1.1214,-0.8860
257.8125,-2.1128,-1.3730,-5.6136,-4.7305,-4.9875,-6.0782,-10.8852,-9.5493,2.5830,-1.2709,4.1195,3.1627,4.2547,3.5281,0.9302,1.8932,4.9827,0.6832,-0.8986
261.7188,-2.1808,-2.1052,-5.5591,-4.6168,-3.8628,-5.7238,-11.0896,-6.6946,3.3272,-0.4967,4.1785,4.0738,3.9223,1.7084,2.9299,-0.0862,4.8281,0.4362,-1.3959
265.6250,-1.8259,-2.3267,-5.6448,-3.7219,-2.8602,-5.5363,-7.8229,-3.2355,4.1182,0.3141,4.1991,5.0268,3.1756,-0.6468,4.5831,-2.0170,4.1253,0.9508,-2.2038
269.5312,-0.9793,-1.9583,-5.9490,-2.1729,-2.1456,-5.6137,-2.6723,-0.0983,4.8157,0.9195,4.0802,5.4486,2.1373,-2.3084,5.0442,-3.1521,3.2015,2.1674,-3.2765
273.4375,-0.1703,-1.3564,-6.2088,-0.3641,-1.6763,-6.0526,2.5530,2.1719,4.9645,0.8449,3.4492,4.7427,0.8044,-2.2945,4.0805,-3.3461,2.4563,3.4410,-4.4645
277.3438,-0.1862,-1.0103,-5.8939,1.2412,-1.2154,-6.8034,6.9670,3.4571,4.2028,-0.4471,2.0108,2.8121,-0.5784,-0.1991,2.0320,-3.0590,2.3102,4.0036,-5.3117
281.2500,-1.4142,-1.1587,-4.5897,2.3212,-0.4760,-7.5068,10.7786,3.8883,2.6574,-3.1601,-0.0957,0.2573,-1.3263,3.7390,-0.4638,-2.9261,3.1099,3.5025,-5.1439
285.1562,-3.3871,-1.6273,-2.4120,2.7958,0.6833,-7.5343,14.3832,3.6354,0.9869,-6.7890,-2.2156,-1.9140,-0.5609,8.7852,-2.7635,-3.2223,4.9691,2.2348,-3.4668
289.0625,-4.9473,-2.0114,-0.1027,2.7819,2.1361,-6.3319,17.2536,2.8311,0.0021,-10.0914,-3.4713,-2.8691,2.2115,13.9559,-4.3763,-3.6309,7.6157,0.9257,-0.4038
292.9688,-4.9875,-2.0460,1.3480,2.4704,3.5284,-3.8883,17.7665,1.6491,0.1246,-11.5573,-3.2581,-2.4178,6.5984,18.2569,-4.9943,-3.5007,10.3669,0.2318,3.1790
296.8750,-3.2614,-1.8554,1.3522,2.0333,4.4619,-0.9627,14.3434,0.4138,1.0831,-10.1930,-1.6317,-1.0570,11.2968,20.8559,-4.4964,-2.4014,12.3122,0.3286,6.0257
300.7812,-0.6536,-1.8712,0.1994,1.6134,4.7003,1.1947,7.0999,-0.4121,2.0849,-6.1710,0.6682,0.3987,14.6310,21.1936,-2.9958,-0.5550,12.6626,0.8634,7.1341
304.6875,1.3389,-2.4735,-1.0275,1.3580,4.2618,1.5423,-1.4219,-0.4103,2.3553,-0.9075,2.5777,1.3040,15.3427,19.0520,-0.8906,1.1928,11.1003,1.2683,6.2774
308.5938,1.5821,-3.6387,-1.1201,1.4076,3.3393,-0.0721,-7.3059,0.5375,1.6636,3.5502,3.2406,1.4469,13.1558,14.5930,1.1958,1.8610,7.9384,1.1751,4.0550
312.5000,0.0578,-4.8790,0.4036,1.7932,2.1157,-2.7428,-7.5981,2.0951,0.4632,5.5150,2.4073,0.9580,8.7984,8.3583,2.6399,0.9435,3.9922,0.6193,1.4516
316.4062,-2.1466,-5.5333,2.8490,2.3049,0.6223,-5.0182,-2.3203,3.5482,-0.4496,4.4650,0.4948,0.0254,3.5371,1.2146,3.1190,-1.2743,0.2305,-0.0840,-0.7701
320.3125,-3.6006,-5.1987,4.6630,2.4699,-1.2416,-5.7783,5.3714,4.1050,-0.5014,1.2046,-1.6857,-1.2955,-1.4251,-5.7696,2.7830,-3.8968,-2.6056,-0.6482,-2.4127
324.2188,-3.5005,-3.9840,4.3894,1.7474,-3.5272,-4.8843,11.1220,3.2826,0.2773,-2.6742,-3.3493,-3.0009,-5.3137,-11.5113,2.1380,-5.9483,-4.2205,-1.0281,-3.7064
328.1250,-2.1590,-2.4080,1.6755,-0.1082,-6.0216,-3.1584,12.1053,1.1879,1.3202,-5.6611,-4.0723,-4.8796,-7.7771,-15.1344,1.6752,-6.8862,-4.7372,-1.3631,-4.8452
332.0312,-0.6958,-1.0396,-2.3446,-2.7269,-8.1720,-1.7336,8.6389,-1.4531,1.9709,-6.9933,-3.8951,-6.3497,-8.6669,-16.1716,1.4925,-6.7807,-4.4864,-1.7168,-5.5996
335.9375,-0.1890,-0.1628,-5.5956,-5.1034,-9.2447,-1.2644,3.6028,-3.5547,1.9602,-6.7750,-3.1939,-6.6156,-7.8799,-14.6741,1.2032,-6.1043,-3.7637,-1.8704,-5.3442
339.8438,-0.9208,0.2894,-6.2426,-5.9919,-8.6591,-1.5691,0.2089,-4.1272,1.5621,-5.6016,-2.4351,-5.1157,-5.4149,-11.1755,0.2459,-5.3355,-2.6927,-1.3876,-3.5090
343.7500,-2.2473,0.5202,-3.7814,-4.5590,-6.3141,-1.9258,-0.1579,-2.7443,1.3296,-4.0529,-1.9548,-1.9700,-1.5633,-6.5017,-1.5920,-4.6681,-1.2379,0.0520,-0.1205
347.6562,-3.1413,0.5870,0.6554,-0.9269,-2.7061,-1.7463,1.5338,0.1969,1.6301,-2.4372,-1.8573,1.9141,2.9885,-1.4957,-3.8251,-3.9947,0.6755,2.3003,3.9959
351.5625,-2.9726,0.3090,4.9768,3.7543,1.2455,-1.0786,3.2780,3.5791,2.3400,-0.9102,-2.0509,5.2077,7.3006,3.2239,-5.4102,-3.1199,3.0280,4.6663,7.5542
355.4688,-1.9512,-0.5518,7.3604,7.8122,4.5827,-0.5542,3.9570,6.0361,2.9290,0.2301,-2.3734,6.8028,10.5164,7.3594,-5.3642,-2.0158,5.6274,6.2313,9.4971
359.3750,-0.9397,-1.9917,7.2465,9.8794,6.6965,-0.8458,4.2373,6.5998,2.8602,0.4102,-2.7254,6.3313,12.1792,10.8541,-3.4864,-0.9389,8.1168,6.3659,9.5838
363.2812,-0.8129,-3.6143,5.4857,9.5628,7.5141,-2.0844,5.7176,5.1982,2.0012,-0.9955,-3.1338,4.2395,12.3223,13.7089,-0.6751,-0.3420,10.0570,5.0973,8.4788
367.1875,-1.8430,-4.7815,3.5997,7.5554,7.4050,-3.6975,9.0987,2.7095,0.7407,-4.1900,-3.7042,1.4010,11.2999,15.8334,1.4441,-0.6459,11.0582,3.0659,7.2795
371.0938,-3.5297,-4.9776,2.7006,5.1333,6.8903,-4.7888,12.9879,0.4982,-0.2643,-8.5660,-4.4840,-1.4347,9.5140,17.0379,1.4200,-1.9960,10.9179,1.1041,6.8016
375.0000,-4.9429,-4.1222,2.8110,3.3739,6.3423,-4.7530,14.4785,-0.3315,-0.5157,-12.7308,-5.3212,-3.9684,7.2495,17.1662,-1.1306,-4.1222,9.7125,-0.2530,7.0974
378.9062,-5.2960,-2.5951,3.0151,2.6001,5.8474,-3.6500,11.2294,0.4656,0.0392,-15.0160,-5.8266,-6.2507,4.7089,16.2560,-5.2109,-6.3692,7.7859,-0.9798,7.5138
382.8125,-4.3507,-0.9576,2.2773,2.3867,5.2839,-2.0733,3.5231,2.1949,1.0486,-14.2343,-5.5076,-8.2921,2.1589,14.5852,-8.9389,-7.9056,5.6137,-1.3665,7.2202
386.7188,-2.4314,0.4167,0.3087,2.0661,4.5255,-0.6492,-5.3142,3.7123,2.0645,-10.2790,-4.0357,-9.7431,0.0034,12.5411,-10.5693,-8.0556,3.5895,-1.6117,5.8283
390.6250,-0.1244,1.5218,-2.1472,1.3304,3.6049,0.4179,-10.6098,4.1617,2.8626,-4.2488,-1.5110,-9.9555,-1.3299,10.3888,-9.4267,-6.6269,1.8459,-1.5561,3.6771
394.5312,2.0677,2.5805,-3.8008,0.4729,2.7125,1.3954,-9.1187,3.4677,3.5291,1.9618,1.4480,-8.4395,-1.6386,8.1030,-6.1990,-4.0696,0.2258,-0.7992,1.6037
398.4375,3.8775,3.7114,-3.7111,0.0987,2.0324,2.6503,-1.0548,2.2580,4.2645,6.3929,3.8823,-5.4013,-1.1457,5.4030,-2.4519,-1.3445,-1.5552,0.8739,0.3721
402.3438,5.1840,4.6793,-1.9433,0.5374,1.5381,4.1732,9.9432,1.2963,5.0729,7.7286,4.8794,-1.9347,-0.4809,1.9930,0.2875,0.4890,-3.6460,3.0949,0.1565
406.2500,5.8299,4.9511,0.4714,1.4262,0.9173,5.4009,18.8498,0.8653,5.5976,5.7051,3.9828,0.3667,-0.4187,-2.1413,1.2954,0.7775,-5.8687,4.8969,0.4255
410.1562,5.5473,4.0483,2.2316,1.8199,-0.2846,5.5062,21.9693,0.5728,5.2536,1.1088,1.4139,0.2220,-1.5102,-6.5799,0.8303,-0.4058,-7.7482,5.1731,0.3002
414.0625,4.0862,1.9596,2.6108,0.8025,-2.3575,3.9686,18.6883,-0.2607,3.5949,-4.5676,-2.0068,-2.5682,-3.8124,-10.5787,-0.2881,-2.3265,-8.7706,3.3521,-0.8548
417.9688,1.4728,-0.6911,1.8635,-1.8059,-5.1388,1.0231,11.3765,-1.9283,0.6810,-9.6411,-5.1869,-6.8883,-6.8497,-13.3873,-1.3337,-4.0145,-8.7160,-0.1535,-2.9876
421.8750,-1.7880,-2.8699,0.9328,-5.1488,-7.9413,-2.3336,3.7497,-3.9083,-2.8021,-12.7485,-7.1713,-10.7993,-9.8011,-14.5861,-2.0916,-4.7952,-7.8393,-4.0412,-5.3399
425.7812,-4.7348,-3.6448,0.7071,-7.6837,-9.7823,-4.7970,-1.1546,-5.0544,-5.7620,-13.2077,-7.4509,-12.5074,-11.7975,-14.2400,-2.7933,-4.5984,-6.7575,-6.7282,-6.8521
429.6875,-6.2456,-2.6858,1.3815,-7.9893,-9.8191,-5.3903,-2.2295,-4.3158,-7.1519,-11.1492,-6.0739,-11.2639,-12.1932,-12.7898,-3.6978,-3.8695,-6.0882,-7.1205,-6.7345
433.5938,-5.4977,-0.4529,2.3809,-5.5286,-7.7601,-3.9022,-0.2795,-1.4883,-6.4182,-7.3979,-3.5655,-7.6849,-10.7280,-10.7633,-4.6882,-3.1809,-6.0577,-5.0934,-4.8590
437.5000,-2.3805,2.0403,2.8749,-0.9004,-4.0212,-0.9023,2.9644,2.5594,-3.7188,-3.1532,-0.7268,-3.3326,-7.5665,-8.4969,-5.2196,-2.8418,-6.3278,-1.4378,-1.7605
441.4062,2.3534,3.7507,2.4804,4.5407,0.4637,2.6196,6.0407,6.3752,0.1723,0.4193,1.6131,0.1661,-3.2385,-6.0275,-4.6712,-2.7785,-6.1607,2.6327,1.7120
445.3125,7.3056,4.1218,1.6169,9.4088,4.6652,5.7366,8.4744,8.8027,4.1980,2.5370,2.8356,1.9255,1.4935,-3.1984,-2.8525,-2.7361,-4.8325,6.0712,4.8453
449.2188,10.9533,3.3116,1.2414,12.8797,7.8728,7.9138,10.7250,9.6373,7.4093,2.9689,2.7115,2.0802,5.8119,0.1130,-0.2953,-2.5975,-2.0592,8.3410,7.3276
453.1250,12.2506,2.0243,2.1479,14.8203,9.8739,9.0454,13.5353,9.6025,9.2408,1.9792,1.4578,1.4374,9.0313,3.7953,1.8998,-2.5375,1.8042,9.3882,9.1951
457.0312,11.0263,1.0612,4.3378,15.4781,10.8339,9.2624,17.1316,9.6842,9.5866,0.1063,-0.3705,0.7969,10.7395,7.4454,2.5927,-2.8766,5.8839,9.3783,10.5469
460.9375,7.9824,0.8560,6.9224,15.0504,10.9988,8.6921,20.7705,10.3244,8.7030,-2.0971,-2.1338,0.4098,10.8500,10.4687,1.2039,-3.7595,9.1449,8.4561,11.2696
464.8438,4.3024,1.2538,8.6414,13.4838,10.4470,7.3445,22.9354,11.0665,7.0344,-4.2393,-3.3951,-0.0881,9.5548,12.2727,-1.9632,-4.9359,10.7879,6.7036,10.9903
468.7500,1.0881,1.6499,8.6462,10.6330,9.0569,5.1890,22.1335,10.9041,5.0588,-6.1214,-4.0813,-1.2808,7.2161,12.4537,-5.8512,-5.8493,10.5045,4.2741,9.2998
472.6562,-1.0687,1.3956,7.0124,6.6018,6.6908,2.3416,17.8741,9.0632,3.1975,-7.6532,-4.4208,-3.4348,4.2512,10.9072,-9.1384,-5.9911,8.5100,1.5270,6.0902
476.5625,-2.1677,0.2286,4.6410,1.9575,3.4428,-0.7929,11.2172,5.6418,1.7748,-8.7380,-4.6951,-6.2117,1.0500,7.8411,-10.8128,-5.2584,5.3911,-0.9985,1.7608
480.4688,-2.5491,-1.5301,2.6385,-2.3810,-0.2439,-3.5548,4.4557,1.6460,0.9893,-9.2139,-4.9786,-8.8194,-2.0709,3.7168,-10.5456,-4.0358,1.8702,-2.7911,-2.8646
484.3750,-2.5270,-3.1267,1.6236,-5.5189,-3.6813,-5.2564,-0.0071,-1.5869,0.8812,-8.8914,-5.0528,-10.4646,-4.8860,-0.8477,-8.7136,-2.9294,-1.4111,-3.6072,-6.8647
488.2812,-2.1687,-3.7839,1.4432,-6.9619,-6.1986,-5.4821,-0.9565,-3.1577,1.3239,-7.6645,-4.5612,-10.7697,-7.2505,-5.1797,-6.1215,-2.3493,-4.0235,-3.5543,-9.5790
492.1875,-1.3458,-3.1189,1.4658,-6.7484,-7.3981,-4.2785,0.9993,-3.0361,2.0793,-5.6260,-3.2882,-9.8695,-9.0526,-8.6498,-3.6041,-2.2528,-5.7793,-2.9414,-10.7755
496.0938,0.0291,-1.3231,1.2007,-5.2872,-7.2637,-2.1062,3.9355,-1.9048,2.9227,-3.1124,-1.3513,-8.1638,-10.1371,-10.7650,-1.7121,-2.2380,-6.6738,-2.0037,-10.5519
500.0000,1.7963,0.9926,0.7573,-3.0737,-6.0962,0.4204,5.9689,-0.6001,3.7741,-0.6326,0.8414,-5.9649,-10.2557,-11.2562,-0.6058,-1.9068,-6.7829,-0.7191,-9.1008
503.9062,3.5404,3.1640,0.7860,-0.5125,-4.3573,2.8312,6.5389,0.4057,4.7367,1.3005,2.8330,-3.3396,-9.1147,-10.1508,-0.1569,-1.2111,-6.1736,1.1193,-6.5560
507.8125,4.7802,4.8031,1.9374,2.0584,-2.5288,4.9307,6.6743,1.1303,5.9839,2.3653,4.3719,-0.2653,-6.5507,-7.7976,-0.1592,-0.5162,-4.8808,3.6064,-3.0548
511.7188,5.2024,5.8820,4.2462,4.2487,-1.0265,6.6779,8.0108,1.8079,7.5424,2.5531,5.4831,3.0594,-2.7565,-4.8087,-0.5096,-0.3369,-2.9643,6.4228,1.0547
515.6250,4.7717,6.5510,6.9163,5.6043,-0.1378,7.9347,11.2644,2.5188,9.1237,2.1462,6.3167,6.0575,1.6049,-1.9021,-1.2498,-0.9534,-0.6062,8.7884,5.0803
519.5312,3.6665,6.8624,8.7087,5.7987,0.0593,8.3265,15.3323,3.0592,10.1596,1.5533,6.9145,7.9663,5.5376,0.3217,-2.4523,-2.1967,1.8317,9.7744,8.1177
523.4375,2.1395,6.6372,8.6900,4.9080,-0.2284,7.3901,17.7877,3.1450,10.0753,1.0876,7.1019,8.2850,8.0944,1.5792,-4.0304,-3.5563,3.8584,8.8239,9.4351
527.3438,0.4381,5.5881,6.8298,3.5160,-0.5358,4.9544,16.5044,2.7359,8.6592,0.8171,6.6026,7.1439,8.8073,1.9716,-5.6142,-4.5124,5.0131,6.1496,8.8717
531.2500,-1.1670,3.6107,4.0229,2.4732,-0.3402,1.4770,11.2609,2.1559,6.2781,0.5790,5.2870,5.2761,7.8971,1.8669,-6.6129,-4.8339,5.0581,2.7196,6.9515
535.1562,-2.3295,1.0094,1.5116,2.3930,0.6124,-1.9714,4.1144,1.8630,3.7603,0.1513,3.3477,3.5601,6.1042,1.6456,-6.4742,-4.6308,4.0920,-0.2084,4.5875
539.0625,-2.6792,-1.5352,0.1057,3.2091,2.0500,-4.1627,-1.8019,2.0376,1.9760,-0.5333,1.2554,2.4463,4.2352,1.4650,-5.0185,-4.1549,2.5163,-1.7468,2.5466
542.9688,-2.0133,-3.2638,-0.2624,4.1390,3.2067,-4.3652,-4.2401,2.3452,1.3655,-1.2844,-0.4734,1.7040,2.7244,1.2034,-2.6446,-3.5407,0.8710,-1.8238,1.0360
546.8750,-0.5085,-3.7131,-0.3567,4.1475,3.2127,-2.7684,-3.1635,2.1227,1.7204,-1.7460,-1.5172,0.7123,1.5091,0.6427,-0.2476,-2.7125,-0.3632,-1.1360,-0.2922
550.7812,1.2357,-2.9220,-0.9872,2.6436,1.6557,-0.3694,-0.4947,0.9028,2.3655,-1.6384,-1.8290,-0.9025,0.2880,-0.2248,1.1551,-1.5329,-0.8996,-0.6440,-1.9238
554.6875,2.4233,-1.3475,-2.3839,-0.0577,-1.0453,1.6283,1.4865,-1.1064,2.6147,-0.9859,-1.5353,-2.7853,-1.0601,-0.9968,0.9096,-0.0553,-0.6759,-0.9500,-3.9707
558.5938,2.4613,0.4196,-4.0519,-2.8566,-3.7508,2.5041,1.8719,-2.9886,2.1860,-0.1662,-0.7905,-3.9607,-2.2508,-0.9639,-0.9409,1.3495,0.1846,-1.9700,-5.9710
562.5000,1.2929,1.9253,-5.1981,-4.5363,-5.1962,2.3328,1.6763,-3.6352,1.2991,0.2741,0.2560,-3.5423,-2.7712,0.4809,-3.6678,2.1319,1.4187,-3.1074,-7.1838
566.4062,-0.5594,2.9375,-5.3875,-4.5520,-4.7379,1.7320,2.8157,-2.5001,0.4184,-0.0684,1.3642,-1.5660,-2.3428,3.3516,-6.2084,1.8973,2.6505,-3.7766,-7.1820
570.3125,-2.2700,3.3466,-4.9127,-3.4091,-2.7702,1.2709,6.3166,-0.0714,-0.1353,-1.2131,2.1250,0.7043,-1.3020,6.8285,-7.6569,0.6989,3.4340,-3.8814,-6.2936
574.2188,-3.1323,3.0422,-4.5810,-2.3553,-0.5245,1.0146,11.1537,2.3073,-0.3975,-2.7816,2.0689,1.3426,-0.5556,9.4847,-7.6241,-0.9306,3.3589,-3.8896,-5.5174
578.1250,-2.8669,1.9280,-5.0649,-2.5738,0.6465,0.5514,14.6497,3.2006,-0.6485,-4.2155,0.9732,-1.0579,-1.0730,9.9155,-6.2975,-2.2504,2.2188,-4.4396,-5.9099
582.0312,-1.6646,0.0978,-6.3091,-4.4047,0.0440,-0.5336,14.2109,1.9527,-1.0964,-5.0735,-0.8442,-6.3296,-3.2347,7.4434,-4.2268,-2.7138,0.1618,-5.7656,-7.8335
585.9375,-0.0003,-1.9889,-7.4595,-7.1082,-2.0330,-2.1422,9.1752,-0.9010,-1.6364,-5.2145,-2.5296,-12.5368,-6.4945,2.4964,-2.0139,-2.2396,-2.2912,-7.3771,-10.5985
589.8438,1.6125,-3.5418,-7.4098,-9.3210,-4.5762,-3.5442,1.4491,-3.9598,-1.9005,-4.7664,-3.1109,-16.8685,-9.6152,-3.5606,-0.1024,-1.1877,-4.4180,-8.2596,-12.7795
593.7500,2.7761,-3.7660,-5.6001,-9.9004,-6.5547,-3.7958,-5.5340,-5.8077,-1.5635,-3.9443,-2.1188,-17.1391,-11.3394,-9.0378,1.2568,-0.0842,-5.5955,-7.5030,-13.0373
597.6562,3.2450,-2.3310,-2.5021,-8.6047,-7.5128,-2.4122,-8.8336,-5.8362,-0.6553,-2.8866,0.0093,-13.0104,-11.0547,-12.6247,1.9312,0.6968,-5.5683,-4.9498,-10.9255
601.5625,2.9188,0.3167,0.5680,-6.1881,-7.6883,0.1993,-7.6426,-4.5171,0.3839,-1.6467,2.0763,-6.2033,-9.0309,-13.8134,1.8552,1.0806,-4.5308,-1.4228,-7.1660
605.4688,1.8652,3.0469,2.2074,-3.8902,-7.6269,2.8783,-3.4983,-2.9822,0.9632,-0.3319,2.7948,0.4094,-6.1218,-12.8735,1.0703,1.1998,-2.9800,1.6422,-3.2332
609.3750,0.3575,4.5539,1.7555,-2.6838,-7.6385,4.3520,0.9811,-2.2261,0.7190,0.7552,1.5679,4.2744,-3.1974,-10.4964,-0.1909,1.1798,-1.4387,2.9475,-0.5335
613.2812,-1.1594,4.0239,-0.3435,-2.7671,-7.5280,3.9629,3.8991,-2.4732,-0.2758,1.1403,-1.1434,4.3437,-0.7224,-7.3918,-1.4962,0.9953,-0.2231,2.0169,0.2974
617.1875,-2.2247,1.5832,-2.8573,-3.5762,-6.7985,2.0274,5.1841,-3.1100,-1.6187,0.4103,-4.1193,1.3721,1.2668,-4.0736,-2.3545,0.5180,0.6166,-0.5877,-0.4195
621.0938,-2.5768,-1.7338,-4.5142,-4.2357,-5.1406,-0.3617,6.3025,-3.1782,-2.8897,-1.4771,-6.1411,-2.7080,2.8693,-0.8816,-2.4589,-0.2921,1.1877,-3.6099,-1.7675
625.0000,-2.2818,-4.4859,-4.6769,-4.0984,-2.8015,-1.9182,8.8605,-2.0586,-3.9035,-4.0304,-6.6901,-5.8566,4.0273,1.8952,-1.8815,-1.2241,1.5923,-5.7636,-2.8294
628.9062,-1.6629,-5.5233,-3.5328,-3.0338,-0.5232,-1.7696,13.1132,0.1233,-4.7093,-6.3623,-6.1225,-6.8232,4.4994,3.9680,-1.0758,-1.8402,1.8412,-6.3239,-3.1192
632.8125,-1.0708,-4.5111,-1.7659,-1.3510,0.9200,0.2090,17.4395,2.6065,-5.3800,-7.5873,-5.2549,-5.4828,4.1082,5.1355,-0.6609,-1.7043,1.8903,-5.3511,-2.6441
636.7188,-0.6667,-2.0252,-0.0235,0.4938,1.2358,3.4071,19.1910,4.4915,-5.8202,-7.2561,-4.7154,-2.6243,3.0128,5.4279,-1.1016,-0.6698,1.7405,-3.5064,-1.6836
640.6250,-0.3885,0.7928,1.4111,2.1440,0.7878,6.7360,16.4204,5.2505,-5.7994,-5.5680,-4.5522,0.5379,1.7314,5.1597,-2.4647,0.9793,1.4939,-1.6470,-0.5376
644.5312,-0.1181,2.8119,2.5497,3.3858,0.2917,8.9922,9.3966,4.9149,-5.1980,-3.2341,-4.3524,2.8335,0.8537,4.8164,-4.3783,2.6462,1.3142,-0.4496,0.5619
648.4375,0.1086,3.4144,3.3719,4.0330,0.2581,9.2472,0.8912,3.8714,-4.2338,-1.0879,-3.7134,3.4547,0.6508,4.8303,-6.1920,3.7356,1.3262,-0.2188,1.3811
652.3438,0.0565,2.6921,3.5794,3.8347,0.6013,7.2054,-5.0777,2.4869,-3.4215,0.3154,-2.6458,2.1308,0.8990,5.3868,-7.2343,3.9632,1.5456,-0.8877,1.6174
656.2500,-0.5205,1.2791,2.6870,2.5518,0.7077,3.4196,-5.4239,0.8805,-3.2349,0.8813,-1.5833,-0.8034,1.0680,6.3723,-7.0425,3.4636,1.8957,-2.1269,0.9799
660.1562,-1.6047,-0.0549,0.4186,0.1829,-0.0842,-0.8039,0.1475,-0.9890,-3.7175,0.8703,-1.0157,-4.4728,0.7400,7.4693,-5.5017,2.6388,2.2854,-3.4820,-0.5966
664.0625,-2.8023,-0.8151,-2.8884,-2.8344,-1.9385,-3.8932,8.7544,-3.0238,-4.3822,0.6173,-1.0778,-7.7162,-0.0641,8.3068,-2.8889,1.8628,2.6634,-4.5079,-2.7729
667.9688,-3.5341,-0.9805,-6.2134,-5.6419,-4.3046,-4.7419,15.7891,-4.7614,-4.5372,0.2818,-1.4474,-9.5055,-0.9020,8.5710,0.1589,1.2537,2.9911,-4.8973,-4.8419
671.8750,-3.4164,-0.9003,-8.2440,-7.2535,-6.1758,-3.2949,17.4781,-5.4590,-3.8289,-0.2193,-1.6329,-9.3649,-1.2526,8.0565,2.7674,0.6601,3.1649,-4.5774,-6.0111
675.7812,-2.5374,-0.9687,-8.0379,-6.9886,-6.6410,-0.5872,13.0819,-4.4884,-2.5760,-1.0824,-1.3945,-7.5558,-0.9049,6.7088,4.0616,-0.1417,2.9926,-3.7242,-5.7758
679.6875,-1.3856,-1.2905,-5.5591,-4.8001,-5.3556,1.8741,5.3721,-1.7876,-1.5847,-2.3999,-0.9287,-4.8907,-0.0820,4.7051,3.4943,-1.1947,2.3065,-2.6554,-4.1478
683.5938,-0.4544,-1.5608,-1.7485,-1.3032,-2.6503,3.0422,-0.9980,1.9570,-1.5273,-3.9964,-0.6484,-2.2622,0.7980,2.5405,1.1499,-2.2393,1.1769,-1.6362,-1.6019
687.5000,0.1730,-1.2530,1.9354,2.5115,0.7390,2.9696,-2.3078,5.5661,-2.3278,-5.4126,-0.7410,-0.1678,1.5306,1.0080,-2.1569,-2.8139,0.0705,-0.7072,1.2069
691.4062,0.9079,-0.0119,4.2531,5.7166,4.0825,2.6881,1.9663,7.9362,-3.0508,-6.0410,-0.8931,1.4741,2.3632,0.9754,-5.1163,-2.5198,-0.2258,0.3460,3.7593
695.3125,2.2962,2.0031,4.7868,7.8018,6.9281,3.3792,8.9043,8.5862,-2.4473,-5.3615,-0.4519,3.1132,3.8505,2.9916,-6.4507,-1.2823,1.0373,1.8405,5.8271
699.2188,4.4638,4.0781,4.0824,8.7739,9.1052,5.4042,14.1240,7.8511,0.1747,-3.1908,1.0606,5.1198,6.4042,6.9072,-5.5069,0.5511,4.0880,3.9463,7.4171
703.1250,6.8135,5.2806,3.2766,8.9963,10.5548,7.9073,14.7266,6.6147,4.3612,0.1448,3.4722,7.4149,9.8594,11.7568,-2.5983,2.3368,8.3222,6.4992,8.6027
707.0312,8.2713,4.9978,3.4391,8.8968,11.1873,9.3208,11.2404,5.7620,8.6489,3.8031,5.9196,9.4280,13.3838,16.0377,1.1071,3.4167,12.4103,9.0102,9.3961
710.9375,7.9788,3.3446,4.9960,8.7245,10.8988,8.4568,7.2016,5.6936,11.3758,6.6420,7.3269,10.4046,15.8250,18.2983,4.1174,3.4121,14.8398,10.8796,9.7436
714.8438,5.9657,1.1619,7.5248,8.4730,9.7095,5.4188,6.5854,6.1835,11.6419,7.6326,7.0901,9.8555,16.2892,17.7503,5.2956,2.3892,14.6327,11.6898,9.5997
718.7500,3.2978,-0.4269,9.9904,7.9740,7.8732,1.6658,10.8043,6.6299,9.7900,6.3214,5.4847,7.8632,14.5935,14.5858,4.3348,0.8281,11.8408,11.4022,8.9811
722.6562,1.5313,-0.6492,11.2587,7.0743,5.8334,-0.8564,17.3715,6.5029,7.1093,3.1089,3.4970,5.0688,11.3275,9.8440,1.8102,-0.5885,7.5267,10.3464,7.9407
726.5625,1.7909,0.4822,10.6119,5.7801,4.0408,-0.9396,21.2764,5.6914,4.9970,-0.8499,2.1931,2.3724,7.5229,4.9254,-1.1713,-1.2736,3.2356,9.0271,6.5067
730.4688,4.0698,2.2042,8.0361,4.2973,2.7684,1.1406,18.2871,4.5467,4.1641,-4.1335,2.0668,0.5378,4.1704,1.0370,-3.4892,-0.9963,0.2650,7.8820,4.6848
734.3750,7.2227,3.4860,4.1997,2.9640,2.0650,3.8578,8.0370,3.6280,4.3938,-5.7032,2.8156,-0.0861,1.8802,-1.1517,-4.4167,0.0152,-0.8528,7.1414,2.5759
738.2812,9.6642,3.6521,0.1944,2.1275,1.8652,5.4692,-5.2036,3.3394,4.9459,-5.3525,3.6726,0.3869,0.8365,-1.5290,-3.7547,1.1870,-0.3875,6.8510,0.5327
742.1875,10.3167,2.7559,-2.8259,2.0264,2.1425,5.1292,-14.7053,3.6944,5.2442,-3.6884,4.0261,1.5327,0.9770,-0.3383,-1.7247,1.8919,0.9819,7.0013,-0.8027
746.0938,9.1929,1.4832,-3.9898,2.7140,2.9508,3.3334,-15.1310,4.3370,5.3198,-1.6639,3.8644,2.8500,2.1857,2.0421,1.2260,1.7805,2.6788,7.6305,-0.7047
750.0000,7.2573,0.6693,-2.9752,4.0270,4.3008,1.4312,-5.6942,4.7759,5.7030,0.0183,3.7284,3.9473,4.3272,5.1835,4.5549,0.9662,4.5004,8.7954,1.2293
753.9062,5.6949,0.7526,-0.1558,5.5906,5.9677,0.5920,9.3047,4.6621,6.8792,1.2168,4.2266,4.6163,7.1144,8.5606,7.6551,-0.0587,6.4991,10.4127,4.6915
757.8125,5.0974,1.5067,3.4288,6.8656,7.4124,0.9602,22.8355,3.9369,8.7382,2.1751,5.4811,4.7976,9.9662,11.5081,9.8634,-0.7434,8.6207,12.0901,8.5761
761.7188,5.1070,2.2012,6.3476,7.2594,7.9374,1.5743,28.9015,2.7851,10.4450,3.0228,6.9203,4.5015,12.0482,13.3164,10.5558,-0.8417,10.4326,13.1135,11.3383
765.6250,4.7341,2.0687,7.2923,6.3119,7.0288,1.0810,25.4727,1.4623,10.8540,3.3931,7.5848,3.7567,12.5649,13.4804,9.3635,-0.5714,11.2041,12.6832,11.6823
769.5312,3.1141,0.7788,5.6767,3.9230,4.6854,-1.2523,15.0262,0.1417,9.2126,2.5291,6.7516,2.6340,11.1811,11.9661,6.4185,-0.4401,10.3346,10.3358,9.2327
773.4375,0.1936,-1.3575,2.0255,0.5165,1.5118,-4.9094,2.6831,-1.1095,5.7027,-0.1170,4.4587,1.3250,8.3101,9.3043,2.4582,-0.8392,7.8393,6.3308,4.8007
777.3438,-3.1082,-3.5493,-2.1324,-2.9827,-1.5143,-8.2995,-6.6814,-2.2272,1.4669,-4.2116,1.5710,0.1977,5.0445,6.4018,-1.3450,-1.6912,4.5245,1.7392,0.0523
781.2500,-5.3727,-4.9375,-4.9358,-5.4324,-3.4880,-9.6384,-10.6035,-3.0299,-1.9157,-8.3594,-0.6717,-0.2711,2.6943,4.1398,-3.8223,-2.4308,1.6689,-1.9084,-3.2804
785.1562,-5.5024,-5.0164,-5.1458,-5.9502,-3.9930,-8.0118,-9.4438,-3.2180,-3.2112,-10.6909,-1.3571,0.2804,2.1434,2.9708,-4.3334,-2.3776,0.3606,-3.3110,-4.2337
789.0625,-3.3906,-3.8499,-2.8590,-4.3726,-3.2550,-3.9849,-5.2435,-2.5429,-2.1367,-9.9485,-0.4195,1.8075,3.3764,2.7430,-3.1041,-1.2685,0.8949,-2.0896,-3.0376
792.9688,-0.0341,-1.9968,0.4938,-1.4328,-1.9617,0.6089,-0.0954,-1.0553,0.5378,-6.3821,1.3416,3.6998,5.4681,2.8524,-1.1579,0.4371,2.6208,0.9244,-0.8956
796.8750,2.9816,-0.2121,2.9446,1.5062,-0.8652,3.6067,4.8587,0.7564,3.4303,-1.7978,2.7579,4.9393,7.0754,2.6288,0.1768,1.7405,4.3461,4.0285,0.7473
800.7812,4.3307,0.9112,3.1511,3.0906,-0.3959,3.6756,9.3687,2.0952,5.2756,1.3773,3.0017,4.5952,7.1778,1.7315,-0.0414,1.7038,5.0503,5.4990,1.0284
804.6875,3.6382,1.1845,1.2131,2.6799,-0.4893,1.0501,13.3365,2.2523,5.5387,1.4910,2.0741,2.4278,5.6478,0.3353,-1.8498,0.0830,4.4550,4.5090,0.1067
808.5938,1.6210,0.8449,-1.4061,0.7241,-0.6934,-2.5865,16.1732,1.0697,4.5868,-1.3526,0.7658,-0.7839,3.3118,-0.9828,-4.3525,-2.4492,3.1049,1.5862,-1.0207
812.5000,-0.3919,0.3598,-2.8406,-1.4333,-0.4662,-5.0461,16.8176,-0.8305,3.3500,-5.3710,0.1105,-3.4859,1.4591,-1.5690,-6.2342,-4.6739,1.9385,-1.6797,-1.1979
816.4062,-1.2618,0.1277,-2.0568,-2.2611,0.5140,-4.8987,14.3949,-2.2602,2.6948,-8.2045,0.6690,-4.1390,1.0864,-1.0392,-6.5449,-5.5646,1.6562,-3.5364,0.1393
820.3125,-0.6776,0.2453,0.4591,-0.8823,2.1849,-2.3242,9.0056,-2.0753,2.9019,-8.3368,2.1095,-2.1445,2.3276,0.5371,-5.2901,-4.9038,2.3056,-3.0551,2.5967
824.2188,0.7552,0.4808,3.0428,2.4194,4.1493,0.9876,2.0469,0.1333,3.5690,-5.9224,3.3801,1.6685,4.4093,2.6869,-3.4419,-3.3608,3.3292,-0.6175,5.0579
828.1250,2.0117,0.4798,4.0080,6.3268,5.8817,2.8857,-4.1996,3.6864,3.9919,-2.5156,3.4023,5.3722,6.1422,4.7663,-2.3313,-1.9833,3.9976,2.3862,6.3642
832.0312,2.3934,0.0828,2.8327,9.1850,6.9686,2.1527,-7.5122,7.0606,3.7593,0.0639,1.8568,6.9732,6.6318,6.2388,-2.7771,-1.4630,3.9057,4.4485,6.0137
835.9375,2.0172,-0.4631,0.5453,9.8716,7.2571,-0.6374,-6.7063,8.6441,3.1398,0.9291,-0.4663,5.5689,5.7677,6.8725,-4.5115,-1.6873,3.2003,4.8595,4.4472
839.8438,1.7067,-0.5783,-0.9797,8.3482,6.8511,-3.4117,-2.1666,7.5940,2.9603,0.5814,-2.0439,1.9109,4.2072,6.7877,-6.3018,-1.8823,2.4226,4.0746,2.7523
843.7500,2.3431,0.2799,-0.3535,5.5972,5.9842,-3.9479,4.2732,4.2985,4.0131,0.3545,-1.5503,-2.0053,2.9024,6.3571,-6.7325,-1.2335,2.1138,3.3199,1.9790
847.6562,4.1105,2.1539,2.2802,3.0134,4.8602,-1.4648,10.0052,0.1699,6.3727,1.2845,1.2139,-4.1063,2.4985,6.0163,-5.1640,0.4579,2.4700,3.7114,2.4979
851.5625,6.1727,4.3484,5.2197,1.6300,3.5618,2.6080,12.5882,-3.1083,9.1095,3.2254,5.0091,-3.4514,2.9855,6.0577,-2.2371,2.5428,3.2580,5.4704,3.7930
855.4688,7.0546,5.6492,6.2502,1.6319,2.0793,5.2961,10.6400,-4.4296,10.6654,4.8378,7.7281,-0.7334,3.7913,6.4861,0.4367,3.8746,4.0015,7.7416,4.8070
859.3750,5.5385,4.9608,4.0897,2.4079,0.4292,3.8882,4.4207,-3.7171,9.7304,4.4637,7.5716,2.2388,4.2067,6.9989,1.2339,3.5069,4.2760,9.1285,4.6134
863.2812,1.5250,2.0332,-0.7011,3.0572,-1.2246,-2.1960,-4.0847,-1.7604,6.1079,1.2908,4.1450,3.7403,3.8429,7.1186,-0.4718,1.2886,3.9186,8.6030,3.0009
867.1875,-3.7028,-2.1764,-5.9266,3.0025,-2.5444,-10.6905,-11.6930,0.3894,1.0179,-3.9763,-1.1959,3.2373,2.8386,6.4409,-3.8983,-2.0092,3.0623,6.2155,0.6265
871.0938,-8.0204,-5.8037,-8.9385,2.3300,-3.1269,-17.4718,-15.1122,2.0378,-3.3903,-9.3871,-5.9881,1.6954,1.7315,4.8917,-7.3017,-5.0847,2.0343,3.1635,-1.3383
875.0000,-9.5205,-6.9623,-8.0613,1.6688,-2.7035,-18.7535,-12.2943,3.0896,-5.0760,-12.7856,-7.9432,0.8990,1.1240,2.8496,-8.9912,-6.7579,1.2178,1.1718,-1.8426
878.9062,-7.4874,-4.7630,-3.4306,1.7183,-1.3224,-13.2174,-3.5111,3.8273,-3.1259,-12.9643,-6.1381,2.2231,1.3657,1.0308,-8.2649,-6.5096,0.9395,1.5386,-0.5074
882.8125,-2.7454,0.1105,3.1617,2.7394,0.5994,-2.8275,8.4360,4.4650,1.7948,-10.2371,-1.4567,5.6434,2.4172,0.1546,-5.7033,-4.6452,1.3798,4.3913,2.1973
886.7188,2.7824,5.6358,9.2164,4.3317,2.4024,8.1352,19.1694,4.8495,7.7723,-6.1334,3.9235,9.6128,3.9115,0.5452,-2.6984,-2.0621,2.4877,8.5595,5.2039
890.6250,7.0154,9.4104,12.6695,5.6289,3.4425,15.2289,24.5719,4.5397,12.5358,-2.4697,7.6587,11.8897,5.3267,1.8938,-0.5885,0.2025,3.9229,12.1270,7.3561
894.5312,8.6308,9.8311,12.6438,5.7935,3.3603,15.9602,22.6755,3.1892,14.4313,-0.4000,8.3362,10.8196,6.1621,3.3424,0.0280,1.4026,5.1013,13.3645,7.8972
898.4375,7.5080,6.8549,9.5613,4.5118,2.2320,10.7342,14.6053,0.9314,13.0221,0.0062,5.9926,6.3104,6.0696,3.8784,-0.5792,1.3162,5.3947,11.5592,6.7190
902.3438,4.5713,1.9395,4.7450,2.2020,0.5304,2.2901,4.0088,-1.5395,9.1145,-0.5009,1.8826,-0.0655,4.9383,2.8442,-1.6641,0.2273,4.4328,7.3318,4.3107
906.2500,1.2239,-2.7702,-0.1801,-0.1837,-1.0803,-5.8647,-4.7737,-3.2748,4.2958,-1.0260,-2.2561,-5.8861,2.9363,0.2858,-2.5482,-1.2888,2.3470,2.3043,1.4907
910.1562,-1.2853,-5.5304,-3.8164,-1.6468,-2.0194,-11.0664,-8.7942,-3.5745,0.2532,-1.1234,-5.0009,-9.1330,0.4876,-3.0503,-2.9293,-2.6594,-0.2186,-1.6920,-0.9247
914.0625,-2.2817,-5.7618,-5.3416,-1.6495,-2.0091,-12.3654,-7.6729,-2.3669,-1.8426,-0.9494,-5.7359,-9.1784,-1.8423,-6.0670,-2.8272,-3.5510,-2.3835,-3.4593,-2.3839
917.9688,-1.7694,-4.1217,-4.6615,-0.3670,-1.1519,-10.4360,-3.2673,-0.2356,-1.6944,-0.9529,-4.7066,-6.9854,-3.5393,-7.8147,-2.3402,-3.9492,-3.4626,-2.9154,-2.7290
921.8750,-0.2777,-1.9405,-2.3758,1.4322,0.1499,-6.8497,1.8138,1.8994,0.1087,-1.4083,-2.7389,-4.4602,-4.3313,-7.8772,-1.4977,-4.0545,-3.3075,-1.0022,-2.1874
925.7812,1.4227,-0.4251,0.4516,2.7951,1.3827,-3.2453,5.7916,3.2328,2.3997,-2.1677,-0.8223,-3.3647,-4.2784,-6.4662,-0.3434,-4.0711,-2.3508,0.8879,-1.2554
929.6875,2.6182,-0.1038,2.6829,3.0472,2.1296,-0.7792,8.3693,3.3963,3.9480,-2.8175,0.2627,-4.4060,-3.7057,-4.2266,0.8656,-4.0340,-1.3326,1.6340,-0.5149
933.5938,2.8821,-0.7657,3.5299,2.0781,2.2130,0.0598,10.1680,2.5151,3.9796,-3.0968,0.1721,-6.9767,-3.0184,-1.8946,1.5961,-3.7998,-0.8806,0.8761,-0.4264
937.5000,2.1804,-1.8139,2.8253,0.3317,1.7291,-0.6115,11.5738,1.0411,2.4810,-3.2213,-0.9520,-9.6230,-2.5050,0.0066,1.2556,-3.2129,-1.1949,-0.9507,-1.1537
941.4062,0.8250,-2.7190,1.0114,-1.4441,0.9743,-2.2361,12.0327,-0.4846,0.1383,-3.8083,-2.5986,-10.9099,-2.2286,1.3158,-0.4101,-2.3188,-1.9941,-2.9812,-2.4781
945.3125,-0.7074,-3.2697,-1.1299,-2.5318,0.3054,-4.0330,10.4315,-1.6051,-2.0564,-5.3916,-4.1223,-10.1639,-2.0410,2.2072,-3.0268,-1.4396,-2.7115,-4.4184,-3.8470
949.2188,-2.0111,-3.5214,-2.8349,-2.5052,-0.0088,-5.2588,6.2857,-2.0226,-3.3198,-7.8507,-5.0043,-7.6990,-1.6809,3.0379,-5.6548,-1.0186,-2.7929,-4.8673,-4.5654
953.1250,-2.9258,-3.5803,-3.6110,-1.3440,0.1061,-5.4758,0.7376,-1.6225,-3.4263,-10.2071,-5.0326,-4.4755,-0.8939,4.1338,-7.2153,-1.3232,-1.9350,-4.3699,-4.0793
957.0312,-3.5626,-3.4489,-3.3049,0.5813,0.4983,-4.7220,-3.5887,-0.5007,-2.7141,-11.0437,-4.3276,-1.4804,0.4577,5.5770,-7.0326,-2.2276,-0.1886,-3.2236,-2.2523
960.9375,-4.1786,-3.0617,-2.0505,2.6058,0.8378,-3.4787,-4.0077,1.0134,-1.7891,-9.3809,-3.2228,0.7524,2.3021,7.0684,-5.1658,-3.2658,2.0598,-1.7849,0.4895
964.8438,-4.9841,-2.4498,-0.2160,3.9284,0.7336,-2.4278,0.3984,2.3982,-1.1515,-5.4683,-2.0892,2.2167,4.2956,7.9532,-2.3481,-3.9431,4.1855,-0.3985,3.2347
968.7500,-5.9964,-1.8493,1.6151,3.8409,-0.1113,-2.1173,7.8317,3.0955,-0.9861,-0.9119,-1.2067,3.1416,5.8455,7.4653,0.3937,-4.0817,5.4924,0.5728,4.8993
972.6562,-7.0104,-1.6121,2.7133,2.0120,-1.7491,-2.7095,14.4965,2.7501,-1.2021,2.0805,-0.7278,3.6251,6.2816,5.1446,2.1919,-3.9187,5.4508,0.7593,4.6735
976.5625,-7.6784,-1.9501,2.4285,-1.2676,-3.8980,-3.9252,16.6631,1.4172,-1.6158,1.9756,-0.7008,3.5000,5.1659,1.2374,2.6264,-3.8567,3.9594,-0.0615,2.4120
980.4688,-7.6405,-2.7049,0.5496,-5.0426,-5.9689,-5.1760,12.8318,-0.3949,-2.0853,-1.0523,-1.0840,2.5297,2.6090,-3.1790,1.7705,-4.0453,1.5029,-1.7353,-1.2306
984.3750,-6.6522,-3.3464,-2.4111,-7.9732,-7.2364,-5.7912,4.6518,-1.9094,-2.4968,-5.0419,-1.7246,0.7542,-0.6246,-6.5240,0.0685,-4.1410,-0.9479,-3.6329,-5.0266
988.2812,-4.6837,-3.2521,-5.2727,-8.8960,-7.1214,-5.2413,-3.9525,-2.4273,-2.6713,-7.2772,-2.3476,-1.3292,-3.3707,-7.4206,-1.8357,-3.4880,-2.3396,-4.8576,-7.6946
992.1875,-1.9836,-2.1047,-6.6817,-7.4205,-5.4837,-3.3140,-8.8752,-1.6714,-2.3470,-5.8843,-2.6223,-2.9428,-4.6227,-5.4482,-3.2608,-1.6400,-2.0868,-4.7170,-8.4770
996.0938,0.9227,-0.1394,-5.8380,-4.2149,-2.7787,-0.2271,-7.8767,0.0535,-1.3233,-1.0275,-2.3155,-3.4818,-4.1031,-1.4967,-3.6547,1.1503,-0.4599,-3.1772,-7.4820
1000.0000,3.3458,1.9431,-3.0168,-0.7580,0.0357,3.3539,-1.4702,1.9756,0.3246,5.0738,-1.4433,-2.9289,-2.4878,2.5487,-2.7742,3.8791,1.4688,-0.9617,-5.6008
1003.9062,4.6697,3.3600,0.4896,1.3755,1.8547,6.4564,7.6618,3.2041,2.1610,9.3798,-0.2940,-1.9170,-1.0861,4.6932,-0.8131,5.2949,2.3583,0.8349,-4.0317
1007.8125,4.6370,3.6834,3.0408,1.3244,1.9080,8.1266,16.1698,3.1424,3.5674,9.8002,0.7325,-1.3639,-1.1157,3.8321,1.6314,4.6627,1.3405,1.4047,-3.6625
1011.7188,3.5236,3.0504,3.5508,-0.6209,0.1396,7.8476,21.5280,1.7667,4.1031,6.4182,1.3754,-1.9074,-2.9883,0.3042,3.8041,2.2751,-1.4659,0.7207,-4.6436
1015.6250,2.0543,2.0201,2.0690,-3.2231,-2.7260,5.8343,22.8160,-0.3703,3.7915,1.4122,1.6694,-3.5166,-6.0452,-4.3191,5.1492,-0.6637,-4.9897,-0.4852,-6.3724
1019.5312,1.0472,1.1909,-0.3221,-5.0284,-5.4950,2.9898,20.6420,-2.4097,3.0983,-2.2753,1.8675,-5.5300,-8.9140,-8.0834,5.5619,-2.7302,-7.7779,-1.2504,-7.8712
1023.4375,0.9631,0.8444,-2.2102,-5.1787,-7.0516,0.4761,16.5093,-3.5921,2.5868,-2.6873,2.1727,-7.0730,-10.2666,-9.6362,5.3554,-3.1024,-8.7522,-1.0442,-8.3170
1027.3438,1.6389,0.8447,-2.6869,-3.8113,-6.8624,-0.8894,12.0519,-3.5880,2.5039,0.0588,2.4904,-7.5491,-9.5101,-8.7835,4.9521,-1.9738,-7.6975,-0.0810,-7.4192
1031.2500,2.3968,0.8334,-1.7836,-1.8252,-5.1713,-1.0411,8.4451,-2.5857,2.6197,3.9832,2.4293,-6.8761,-7.0035,-6.3442,4.5240,-0.3133,-5.2212,0.9332,-5.4595
1035.1562,2.4879,0.5550,-0.2777,-0.2077,-2.7945,-0.5986,6.1268,-1.1067,2.4602,6.5614,1.5981,-5.3540,-3.7207,-3.4701,3.8643,0.8248,-2.2741,1.4137,-3.0345
1039.0625,1.5897,0.0701,0.9304,0.6066,-0.6509,-0.3485,4.8626,0.3247,1.7565,6.2797,-0.0016,-3.3349,-0.6357,-0.9191,2.6134,0.9517,0.4051,1.3819,-0.7090
1042.9688,0.0261,-0.2872,1.4032,0.9201,0.6863,-0.6229,4.1138,1.4476,0.7406,3.4577,-1.8056,-0.9971,1.7464,1.2556,0.6795,0.3360,2.5618,1.4297,1.1985
1046.8750,-1.4437,-0.1663,1.3347,1.4091,1.1713,-1.0178,3.5412,2.3107,0.0268,-0.1089,-2.9320,1.5939,3.4453,3.4515,-1.4819,-0.3312,4.2963,2.1795,2.6052
1050.7812,-2.1254,0.5187,1.2534,2.5085,1.1359,-0.6759,3.3411,3.0940,0.1412,-2.3732,-2.7302,4.2202,4.7021,5.9471,-2.9973,-0.4992,5.7166,3.6579,3.5115
1054.6875,-1.8319,1.4772,1.5413,4.0049,0.9620,1.0389,4.1280,3.8611,1.0646,-2.3074,-1.2677,6.3237,5.6194,8.4657,-3.0873,-0.1361,6.6899,5.0967,3.8699
1058.5938,-0.9679,2.1722,2.1409,5.1360,0.8228,3.9484,6.3441,4.4440,2.1676,-0.4418,0.6123,7.1407,6.0431,10.2054,-1.6318,0.3107,6.8965,5.3649,3.5902
1062.5000,-0.2155,2.1055,2.6365,5.1233,0.6618,6.9870,9.5788,4.5596,2.6248,1.5756,1.7520,6.1472,5.7569,10.3274,0.6216,0.2811,6.1270,3.7570,2.6638
1066.4062,-0.0633,1.0884,2.5989,3.7524,0.3799,8.7469,12.3833,4.0737,2.0103,2.0369,1.3828,3.5240,4.7918,8.5643,2.3999,-0.5002,4.5652,0.5709,1.2819
1070.3125,-0.5196,-0.6507,1.9059,1.5851,0.0445,8.3090,12.9242,3.1977,0.6158,0.1625,-0.3947,0.2704,3.5568,5.5207,2.6195,-1.8626,2.8054,-2.9670,-0.1734
1074.2188,-1.1934,-2.5606,0.8110,-0.3539,-0.0772,5.8204,10.2046,2.4342,-0.7687,-3.5248,-2.6775,-2.2093,2.6416,2.4354,1.0285,-3.3224,1.5564,-5.4129,-1.2881
1078.1250,-1.6445,-3.9998,-0.2522,-1.2009,0.2913,2.4408,5.0333,2.2692,-1.4558,-7.5481,-4.3290,-2.8613,2.4094,0.5327,-1.6351,-4.3586,1.2238,-5.9812,-1.8279
1082.0312,-1.7078,-4.4891,-0.9446,-0.7679,1.1644,-0.3081,-0.0798,2.8115,-1.3728,-10.2398,-4.6580,-1.6331,2.6848,0.3555,-4.0685,-4.6344,1.6621,-4.9884,-1.8628
1085.9375,-1.5436,-3.8825,-1.1674,0.3899,2.1692,-1.3715,-2.2546,3.6517,-1.0746,-10.4643,-3.7591,0.4124,2.7938,1.4925,-5.1408,-4.0673,2.2749,-3.5744,-1.7174
1089.8438,-1.4039,-2.4069,-1.0063,1.3767,2.6970,-0.6615,-0.0466,4.0768,-1.2318,-7.9908,-2.3193,1.6386,1.9729,2.8590,-4.4823,-2.7905,2.4049,-2.9115,-1.7812
1093.7500,-1.3416,-0.5691,-0.5765,1.5350,2.2589,1.0368,5.4903,3.5279,-1.9991,-3.4748,-1.0765,0.7465,-0.1086,3.3510,-2.5899,-1.1029,1.7573,-3.4536,-2.2949
1097.6562,-1.1315,1.0282,0.0667,0.8063,0.8056,2.6280,11.2962,1.9946,-2.7868,1.8132,-0.3425,-2.4704,-3.0615,2.4670,-0.4396,0.5598,0.5825,-4.7259,-3.2379
1101.5625,-0.4899,1.8982,0.8727,-0.3436,-1.2210,3.3398,14.1179,0.0635,-2.6659,6.3600,0.0819,-6.9757,-5.9323,0.5341,1.1058,1.6827,-0.4934,-5.7575,-4.3671
1105.4688,0.5867,1.8370,1.6669,-1.3412,-3.1516,3.0496,12.4624,-1.4320,-1.1371,8.8150,0.5892,-11.0323,-7.7151,-1.5652,1.7139,1.8219,-0.8763,-5.8140,-5.3642
1109.3750,1.6673,0.9824,2.1006,-1.9354,-4.4904,2.1776,7.3851,-1.9308,1.3245,8.4046,1.3350,-13.1201,-7.8994,-2.9546,1.6108,0.8248,-0.3821,-4.9028,-5.9908
1113.2812,2.0963,-0.2572,1.7798,-2.3278,-5.1659,1.3142,1.6311,-1.4750,3.4120,5.2721,2.0495,-12.6958,-6.7096,-3.2388,1.2742,-1.0077,0.6517,-3.7159,-6.1671
1117.1875,1.4604,-1.3724,0.5210,-2.9176,-5.4553,0.8713,-2.1901,-0.6209,3.7900,0.5698,2.2348,-10.3730,-4.8922,-2.6056,1.0463,-2.9640,1.5885,-3.0837,-5.9429
1121.0938,-0.0258,-1.9463,-1.4380,-3.8665,-5.6449,0.9524,-3.0787,0.0011,2.0295,-3.8605,1.5837,-7.4519,-3.2000,-1.5352,0.9251,-4.2084,1.9086,-3.3435,-5.3990
1125.0000,-1.5333,-1.7932,-3.4429,-4.8215,-5.6937,1.4353,-1.8065,0.1580,-0.9934,-6.2080,0.2847,-5.1155,-1.9138,-0.3629,0.6359,-4.1849,1.5594,-4.0671,-4.5476
1128.9062,-2.0871,-0.9993,-4.6857,-5.0307,-5.1768,2.1147,0.1402,0.1667,-3.5540,-5.5405,-1.0352,-3.7886,-0.7101,0.9725,-0.1089,-2.9116,1.0228,-4.3279,-3.2980
1132.8125,-1.2067,0.1281,-4.5967,-3.8101,-3.5835,2.7669,1.8452,0.6120,-4.1256,-2.3374,-1.7009,-3.0302,1.0479,2.8142,-1.3600,-0.9863,1.0518,-3.3228,-1.5153
1136.7188,0.7097,1.1664,-3.1473,-1.0666,-0.7741,3.1264,3.4270,1.8291,-2.3351,1.6422,-1.4373,-1.9851,3.7922,5.4029,-2.8564,0.7103,2.2256,-0.9383,0.8516
1140.6250,2.5435,1.7051,-0.8847,2.4834,2.7377,2.8751,5.4235,3.5351,0.7999,4.1723,-0.5553,-0.0671,7.3490,8.5243,-4.1578,1.4522,4.5861,2.1035,3.6408
1144.5312,3.0843,1.4728,1.3265,5.5812,5.9161,1.7426,7.7948,4.9036,3.4997,3.6733,0.2500,2.5848,10.9218,11.4786,-4.8890,1.0075,7.5730,4.6095,6.4313
1148.4375,1.7423,0.4460,2.7199,7.0574,7.7076,-0.3020,9.5525,5.0674,4.2972,0.0328,0.3491,5.1753,13.4813,13.4321,-4.9402,-0.2882,10.3037,5.5712,8.6358
1152.3438,-1.1032,-1.1011,2.9776,6.4639,7.6160,-2.9035,9.4377,3.7284,2.8681,-5.3221,-0.4321,6.7825,14.3209,13.9253,-4.5119,-1.7436,12.0322,4.7230,9.7163
1156.2500,-4.3286,-2.6561,2.3347,4.3258,5.9794,-5.3691,7.0990,1.4595,0.1198,-10.1498,-1.7338,6.9750,13.4338,13.1801,-3.9899,-2.6774,12.5111,2.6781,9.4246
1160.1562,-6.7042,-3.6544,1.3892,1.8435,3.7665,-6.9396,3.6961,-0.5368,-2.4535,-12.5188,-2.9258,6.0791,11.4758,11.9679,-3.7382,-2.7466,12.0356,0.5689,7.9333
1164.0625,-7.5354,-3.7312,0.7310,0.2103,2.0161,-7.1470,1.2656,-1.0948,-3.6856,-11.7224,-3.5214,4.9067,9.3453,11.1011,-3.9347,-2.0796,11.1493,-0.5988,5.7637
1167.9688,-6.9223,-2.9089,0.5970,-0.0556,1.2717,-6.0407,1.2226,0.2173,-3.3378,-8.5135,-3.4638,4.1388,7.6512,10.8823,-4.5391,-1.1658,10.2163,-0.5030,3.5357
1171.8750,-5.5298,-1.5863,0.7535,0.6347,1.3574,-4.1330,3.1760,2.7962,-2.0583,-4.5935,-3.1104,3.8221,6.4112,10.8908,-5.3901,-0.5689,9.1576,0.3540,1.6819
1175.7812,-4.0791,-0.3046,0.6793,1.2577,1.6081,-2.0993,5.1098,5.2958,-0.8134,-1.6956,-2.9432,3.3682,5.1622,10.2629,-6.3419,-0.6194,7.5474,1.0099,0.3040
1179.6875,-2.9238,0.5864,-0.0439,0.8761,1.3769,-0.4260,4.9490,6.3543,-0.2151,-0.7877,-3.2060,2.0884,3.3965,8.2913,-7.3268,-1.2510,5.0180,0.7009,-0.7336
1183.5938,-1.9712,1.1421,-1.3670,-0.7104,0.4781,0.7744,2.3832,5.3456,-0.1781,-1.7855,-3.7044,-0.1174,1.0172,4.9443,-8.2915,-2.0762,1.6914,-0.5875,-1.5495
1187.5000,-0.9380,1.7513,-2.6761,-2.7697,-0.7101,1.6870,-0.5146,2.7301,-0.0805,-3.8362,-3.9005,-2.4611,-1.5004,0.9641,-9.0647,-2.6584,-1.6836,-2.0396,-2.0286
1191.4062,0.3004,2.7981,-3.0678,-4.0374,-1.5242,2.5428,-0.5291,-0.1863,0.7322,-5.9143,-3.2511,-3.6603,-3.3572,-2.5139,-9.2917,-2.8171,-4.0324,-2.4844,-1.8350
1195.3125,1.5485,4.2742,-1.8822,-3.4846,-1.4670,3.3870,4.3265,-1.9489,2.4503,-7.3509,-1.5922,-2.8357,-3.9228,-4.5590,-8.5472,-2.7587,-4.5344,-1.1661,-0.6826
1199.2188,2.4313,5.6298,0.8062,-0.9926,-0.5318,4.0270,12.9813,-1.7192,4.6216,-8.0326,0.6589,-0.3124,-3.1415,-4.8752,-6.6122,-2.9278,-3.1189,1.6696,1.3159
1203.1250,2.7089,6.0099,4.0620,2.4889,0.8020,4.1741,21.4330,0.3014,6.3803,-8.2472,2.6236,2.2891,-1.5790,-3.8178,-3.7530,-3.6576,-0.5435,4.7748,3.5015
1207.0312,2.5090,4.7721,6.4694,5.4156,1.8828,3.6568,24.9440,3.0092,6.9331,-8.3560,3.3648,2.8561,-0.0780,-2.0501,-0.7832,-4.8558,2.0117,6.5394,4.9028
1210.9375,2.2843,1.9680,6.8698,6.4953,2.2975,2.5519,20.9740,5.0054,6.0135,-8.5267,2.3765,0.0549,0.7464,-0.1217,1.2065,-5.9675,3.5846,5.9229,4.7749
1214.8438,2.5128,-1.5346,5.0635,5.4157,2.1206,1.1619,10.9497,5.3384,4.0565,-8.6622,-0.1028,-5.7167,0.8429,1.7387,1.3583,-6.2831,3.9018,3.1172,3.1288
1218.7500,3.3594,-4.3989,2.0555,3.0283,1.8530,-0.1101,-0.3155,3.9817,2.0067,-8.5103,-3.1332,-12.3377,0.6848,3.5266,-0.4789,-5.4078,3.3972,-0.4773,0.8869
1222.6562,4.5492,-5.4574,-0.3546,0.8847,2.0991,-0.8827,-7.2463,1.8045,0.8698,-7.8377,-5.4724,-16.9849,0.9060,5.2112,-3.6050,-3.5694,2.8025,-2.9659,-0.5035
1226.5625,5.5551,-4.2780,-0.4723,0.3968,3.1829,-0.8550,-6.5930,0.0744,1.2414,-6.5527,-6.1329,-17.5800,1.8735,6.5847,-6.7651,-1.5275,2.6188,-2.9476,0.1702
1230.4688,5.9724,-1.3492,2.3610,2.1001,4.9316,0.1641,0.8411,-0.2208,3.0523,-4.7331,-4.8139,-13.8115,3.4775,7.3473,-8.7335,-0.1158,2.8354,-0.2002,3.1750
1234.3750,5.8124,2.1931,7.3168,5.4190,6.7503,2.1806,10.7736,1.1400,5.6415,-2.5895,-1.9905,-7.1607,5.2507,7.3532,-8.8557,0.2790,3.0623,4.3038,7.5948
1238.2812,5.4978,5.1065,12.3772,9.0229,7.9386,4.8799,17.8782,3.5582,8.1024,-0.4181,1.3617,0.0013,6.6977,6.7906,-7.2501,-0.0637,2.9368,8.9978,11.7267
1242.1875,5.5548,6.5466,15.2577,11.5297,8.0622,7.5315,18.6279,5.9854,9.7023,1.4313,4.2351,5.6330,7.5843,6.1170,-4.5985,-0.4433,2.4737,12.5263,13.9055
1246.0938,6.2122,6.3022,14.4934,12.1466,7.1691,9.0982,12.9889,7.4739,10.1606,2.5901,5.9908,8.8298,7.9972,5.7637,-1.7062,-0.2764,2.0877,14.2801,13.3072
1250.0000,7.1945,4.7272,10.1425,10.9259,5.7309,8.6234,4.1726,7.5946,9.6615,2.7420,6.5100,9.8525,8.1682,5.8183,0.8702,0.4611,2.2739,14.4268,10.3050
1253.9062,7.8626,2.4934,3.7643,8.5738,4.3557,5.7681,-3.2549,6.5232,8.6438,1.7334,6.0805,9.5522,8.2280,5.9321,2.9201,1.2134,3.1901,13.5506,6.2197
1257.8125,7.6194,0.3318,-2.2953,6.0026,3.4494,1.1881,-5.7928,4.8163,7.5230,-0.3150,5.1519,8.7072,8.0907,5.5433,4.4144,1.2689,4.4599,12.2282,2.6440
1261.7188,6.3118,-1.1457,-5.9367,3.9183,3.0267,-3.5546,-2.6866,3.0698,6.5177,-2.9622,4.1269,7.7112,7.5494,4.2833,5.2690,0.3251,5.3518,10.8190,0.7223
1265.6250,4.3611,-1.5515,-6.1530,2.6445,2.7796,-6.6165,3.9160,1.6814,5.6497,-5.5193,3.2738,6.6902,6.4958,2.2902,5.2511,-1.2193,5.2183,9.5196,0.7477
1269.5312,2.5401,-0.7926,-3.3175,2.1956,2.3462,-6.7611,10.3008,0.8192,4.8647,-7.2451,2.7343,5.7757,5.0828,0.2084,4.1069,-2.4662,3.8970,8.5188,2.2153
1273.4375,1.5439,0.8892,1.1578,2.4580,1.5973,-4.0229,13.2403,0.5346,4.1536,-7.6057,2.5506,5.2040,3.6979,-1.1446,1.8098,-2.5903,1.8086,8.0521,4.2223
1277.3438,1.6321,2.9563,5.5530,3.3124,0.7460,0.2664,11.6630,0.8675,3.5864,-6.5017,2.6694,5.1406,2.7571,-1.2464,-1.2565,-1.3954,-0.2990,8.2899,5.9474
1281.2500,2.5502,4.7348,8.5698,4.6220,0.2046,4.1477,7.0703,1.8347,3.2591,-4.3541,2.9502,5.4302,2.4599,-0.1933,-4.3245,0.5163,-1.7757,9.1677,6.9600
1285.1562,3.7411,5.6641,9.7266,6.1393,0.2777,6.0336,2.5163,3.3121,3.2247,-1.9826,3.2233,5.5687,2.6647,1.3117,-6.4822,2.0744,-2.3862,10.3287,7.2454
1289.0625,4.6738,5.5258,9.3049,7.4505,0.8960,5.4692,0.7565,4.9337,3.4669,-0.2890,3.3923,5.0063,2.9576,2.2950,-7.0128,2.3600,-2.3478,11.2570,7.0049
1292.9688,5.0708,4.5226,7.9728,8.0489,1.5731,3.2273,2.6437,6.1315,3.9175,0.1468,3.5003,3.5764,2.8560,1.9885,-5.6792,1.1369,-2.1154,11.5208,6.3935
1296.8750,4.9269,3.1559,6.3518,7.5298,1.6297,0.7333,6.7092,6.3453,4.4683,-0.6238,3.6778,1.6924,2.0194,0.1986,-2.8401,-1.0088,-2.0974,10.9614,5.3634
1300.7812,4.3792,1.9713,4.7655,5.8085,0.5601,-0.7872,10.1632,5.3005,4.9477,-1.8811,3.9739,0.0954,0.3608,-2.6060,0.6412,-2.9733,-2.4868,9.7116,3.7032
1304.6875,3.5779,1.3171,3.2560,3.2302,-1.6750,-0.9087,10.6795,3.1903,5.0993,-2.5431,4.2001,-0.7054,-1.9628,-5.5129,3.6693,-3.6960,-3.2683,8.0657,1.2412
1308.5938,2.6625,1.2463,1.7772,0.4903,-4.5969,-0.0374,7.8427,0.6378,4.6401,-1.7132,3.9528,-0.8833,-4.6320,-7.5803,5.2929,-2.6807,-4.3264,6.3202,-1.9164
1312.5000,1.8214,1.5879,0.3835,-1.6230,-7.4226,1.0467,3.3540,-1.5606,3.4292,0.7977,2.8690,-1.2526,-7.2532,-8.2537,5.0633,-0.2341,-5.5296,4.6960,-5.2684
1316.4062,1.3191,2.1093,-0.7289,-2.5567,-9.4141,1.7611,-0.1049,-2.7879,1.6672,4.2710,0.9799,-2.6939,-9.4280,-7.6029,3.2294,2.6629,-6.7334,3.3530,-8.0259
1320.3125,1.4022,2.6520,-1.3434,-2.2368,-10.1722,2.0220,-0.5865,-2.8741,-0.0403,7.3614,-1.1105,-5.4218,-10.8159,-6.2684,0.6537,4.7795,-7.7407,2.4212,-9.4206
1324.2188,2.1181,3.1639,-1.3956,-1.1015,-9.7361,2.1353,1.9451,-2.1442,-0.8813,8.7505,-2.4247,-8.6275,-11.2035,-5.1329,-1.5576,5.1707,-8.3075,1.9751,-9.0661
1328.1250,3.1891,3.6387,-1.0582,0.1084,-8.4692,2.4490,5.7031,-1.2195,-0.2567,7.8292,-2.1491,-10.8081,-10.5635,-4.8562,-2.5620,3.5974,-8.2292,1.9601,-7.1712
1332.0312,4.0798,4.0316,-0.6684,0.7130,-6.8274,3.0620,8.3085,-0.6744,1.8088,5.0148,-0.1993,-10.6267,-9.0586,-5.4963,-2.1737,0.6446,-7.4557,2.1517,-4.4704
1335.9375,4.2609,4.2212,-0.5534,0.4261,-5.1462,3.7839,8.3062,-0.7273,4.5424,1.4997,2.5736,-7.7675,-6.9709,-6.4207,-0.9220,-2.5383,-6.1352,2.2217,-1.8931
1339.8438,3.5097,4.0404,-0.8799,-0.5264,-3.5492,4.3059,5.9836,-1.1363,6.7219,-1.4313,4.7303,-3.2261,-4.5871,-6.5899,0.2693,-4.7734,-4.5365,1.8929,-0.1524
1343.7500,2.0367,3.3499,-1.6229,-1.5803,-2.0017,4.3906,3.0289,-1.3693,7.2626,-3.1067,4.9856,1.1660,-2.1180,-5.1023,0.5971,-5.4092,-2.8983,1.0765,0.5177
1347.6562,0.3359,2.1123,-2.6468,-2.2046,-0.4560,3.9272,1.3465,-0.9694,5.7634,-3.7630,2.9138,3.7008,0.2894,-1.7354,-0.2087,-4.5987,-1.3269,-0.1099,0.3439
1351.5625,-1.1401,0.4357,-3.7954,-2.2424,1.0048,2.8670,1.8497,0.0950,2.6950,-4.2505,-0.8061,3.6586,2.4613,2.8150,-1.8061,-3.1382,0.1708,-1.4473,-0.2346
1355.4688,-2.2412,-1.4213,-4.8955,-1.9906,2.1184,1.1848,3.9785,1.3251,-0.8609,-5.3560,-4.7435,1.5875,4.1227,7.1517,-3.5052,-1.9622,1.5487,-2.7386,-0.8474
1359.3750,-3.1184,-3.0882,-5.6773,-1.9481,2.5334,-1.0260,6.1548,1.9408,-3.7331,-7.1977,-7.4364,-1.1100,4.9389,9.7721,-4.6746,-1.6044,2.6048,-3.8345,-1.3178
1363.2812,-3.9622,-4.1661,-5.7298,-2.3888,2.0086,-3.3838,6.7968,1.3739,-5.1297,-9.1024,-8.0486,-2.9777,4.6928,9.7498,-5.0304,-1.9647,3.0199,-4.5469,-1.5824
1367.1875,-4.6966,-4.3531,-4.6231,-3.0654,0.6191,-5.1791,5.2368,-0.2915,-4.8266,-10.0476,-6.6220,-3.2107,3.4917,7.1562,-4.6664,-2.5096,2.5642,-4.5707,-1.5349
1371.0938,-4.8980,-3.5752,-2.2052,-3.2901,-1.1691,-5.6229,2.0447,-2.2431,-3.0755,-9.3658,-3.8742,-1.9127,1.8399,3.0110,-3.8766,-2.7392,1.3338,-3.5631,-0.9813
1375.0000,-4.0512,-2.0614,1.1025,-2.3920,-2.6392,-4.3163,-1.3284,-3.3439,-0.3989,-7.2234,-0.7589,0.1336,0.4693,-1.2013,-2.9421,-2.5643,-0.1755,-1.4052,0.2124
1378.9062,-1.9852,-0.2991,4.2777,-0.2677,-3.1493,-1.6363,-3.3031,-2.8166,2.5640,-4.5373,1.9210,1.9518,-0.0139,-4.1853,-2.0205,-2.3213,-1.2622,1.5230,1.8909
1382.8125,0.8361,1.1390,6.0870,2.3746,-2.4777,1.2980,-2.8982,-0.7862,5.1406,-2.3789,3.6918,2.8147,0.5362,-5.3277,-1.1534,-2.4332,-1.3919,4.3141,3.5250
1386.7188,3.4285,1.8297,5.7590,4.3097,-0.9776,3.1639,-0.1098,1.6990,6.7323,-1.2690,4.4140,2.4578,1.7140,-4.8080,-0.3116,-2.9987,-0.5176,5.8881,4.4173
1390.6250,4.7915,1.6784,3.5451,4.5024,0.5850,3.1980,4.1561,3.2374,7.0176,-0.8555,4.2340,1.0602,2.7989,-3.3285,0.5863,-3.6487,0.8748,5.5879,4.1170
1394.5312,4.4972,0.9382,0.7433,2.7913,1.4448,1.6809,8.5044,2.9110,6.1667,-0.2078,3.5393,-0.9079,3.1820,-1.6652,1.6634,-3.7935,2.0424,3.6387,2.7581
1398.4375,2.9657,0.0515,-0.9495,0.0751,1.2634,-0.2219,11.6145,0.8586,4.8626,1.4544,2.8659,-2.8748,2.7088,-0.3049,3.0101,-3.0770,2.4114,1.1107,1.0359
1402.3438,1.2211,-0.5974,-0.4442,-2.1721,0.2991,-1.2078,12.7169,-1.7991,3.9898,4.0867,2.6906,-4.3518,1.7109,0.6533,4.5307,-1.6839,1.8815,-0.6770,-0.2260
1406.2500,0.2668,-0.8776,1.9946,-2.7873,-0.7921,-0.6946,11.8051,-3.6523,4.0946,6.6683,3.1550,-5.0974,0.7087,1.3351,5.8206,-0.2587,0.8208,-0.9764,-0.6493
1410.1562,0.4815,-0.9409,4.7962,-1.6457,-1.3966,0.7960,9.5199,-3.8689,4.9602,7.7119,3.9018,-5.2187,0.0050,1.8276,6.2349,0.5100,-0.2188,-0.1198,-0.5985
1414.0625,1.4288,-1.0776,5.9833,0.2528,-1.3281,2.0076,6.7869,-2.6724,5.6466,6.1422,4.2081,-5.1375,-0.5316,2.0201,5.2111,0.3319,-0.8504,0.6594,-0.9454
1417.9688,2.1912,-1.4947,4.4050,1.4077,-0.9014,1.8243,4.4003,-1.1314,5.0635,2.0098,3.4191,-5.3797,-1.3276,1.6641,2.6937,-0.5348,-1.0258,0.0224,-2.4165
1421.8750,1.9894,-2.1593,0.5111,0.7559,-0.6598,0.0473,2.7555,-0.4266,2.7458,-3.4053,1.4360,-6.2537,-2.7027,0.6062,-0.6413,-1.5121,-0.9432,-2.5592,-4.9730
1425.7812,0.6656,-2.8044,-3.8769,-1.6812,-0.9648,-2.4707,1.8302,-1.1006,-0.7030,-8.1791,-1.0942,-7.5899,-4.5037,-0.9777,-3.5996,-2.1148,-0.8009,-6.3729,-7.6864
1429.6875,-1.2723,-3.0916,-6.6942,-4.8434,-1.7469,-4.4206,1.3617,-2.7803,-3.8568,-10.6871,-3.0787,-8.7280,-6.0606,-2.5339,-5.0713,-2.2347,-0.6102,-9.8214,-9.2504
1433.5938,-3.0355,-2.8255,-6.9379,-7.3061,-2.5821,-4.9326,1.0689,-4.5084,-5.2919,-10.3760,-3.6249,-8.8148,-6.5292,-3.3384,-4.6729,-2.1147,-0.2109,-11.3482,-8.8108
1437.5000,-4.0658,-2.0864,-5.2743,-8.1160,-3.0109,-4.1343,0.7881,-5.4021,-4.4586,-7.9486,-2.6114,-7.2806,-5.4107,-2.8660,-2.9911,-2.0857,0.5416,-10.3421,-6.5464
1441.4062,-4.3172,-1.1989,-3.5238,-7.2467,-2.8423,-2.9872,0.4905,-5.1641,-2.0051,-4.8946,-0.7832,-4.2230,-2.9021,-1.1058,-1.2279,-2.3021,1.5873,-7.4510,-3.5836
1445.3125,-4.1480,-0.5536,-3.3591,-5.4334,-2.2224,-2.5400,0.2359,-4.1316,0.6643,-2.6621,0.7145,-0.4539,0.1605,1.3738,-0.4577,-2.6726,2.6339,-4.1362,-1.2900
1449.2188,-3.9574,-0.3903,-5.1093,-3.5782,-1.4498,-3.1566,0.1251,-2.9103,2.2818,-1.9371,1.0519,2.8469,2.7320,3.6672,-0.9906,-2.9894,3.3129,-1.7895,-0.4282
1453.1250,-3.8674,-0.6702,-7.5017,-2.1828,-0.7246,-4.2751,0.2574,-1.9253,2.4358,-2.4016,0.1887,4.6922,4.0833,4.9532,-2.2714,-3.0953,3.3931,-0.9925,-0.7548
1457.0312,-3.6830,-1.1136,-8.5325,-1.1800,-0.0519,-4.8543,0.6680,-1.2216,1.6486,-3.0511,-1.2051,4.7475,4.0987,4.8643,-3.3631,-2.9336,2.8872,-1.3507,-1.3262
1460.9375,-3.1233,-1.3752,-6.8693,-0.2040,0.6358,-4.1618,1.2586,-0.6053,0.8291,-2.8469,-2.2862,3.4395,3.1994,3.6078,-3.6422,-2.4721,1.9875,-1.9276,-1.2643
1464.8438,-2.1083,-1.2512,-2.8143,0.9815,1.2823,-2.3192,1.7995,0.0681,0.5674,-1.3247,-2.6147,1.6695,2.0016,1.7985,-3.1924,-1.6341,0.9127,-1.9205,-0.4158
1468.7500,-0.8641,-0.7924,1.8407,2.2517,1.6537,-0.2217,2.0746,0.7349,0.8039,1.1613,-2.3539,0.3174,0.9724,0.1281,-2.6300,-0.3647,-0.1842,-1.1192,0.5733
1472.6562,0.2213,-0.2618,4.9580,3.2343,1.5144,1.0813,2.1228,1.2177,1.0616,3.6532,-1.9897,-0.1759,0.2958,-0.9270,-2.5310,1.1920,-1.1738,0.0926,0.8004
1476.5625,0.8512,0.0297,5.4007,3.6262,0.8935,1.0709,2.3803,1.4504,0.9669,5.1091,-1.8491,0.0643,-0.0348,-1.2202,-2.9320,2.5799,-1.8451,1.0948,-0.1524
1480.4688,0.9600,-0.1010,3.6602,3.4199,0.1877,0.0134,3.5097,1.5915,0.5739,4.9250,-1.8291,0.5340,-0.0506,-0.8637,-3.2997,3.1553,-1.8887,1.4347,-1.8391
1484.3750,0.6402,-0.6307,1.3721,2.8591,-0.0485,-1.3613,5.9035,1.8923,0.2204,3.1863,-1.5528,0.6949,0.2565,-0.0753,-2.9794,2.4442,-1.0513,1.0071,-3.2161
1488.2812,-0.0444,-1.3876,0.1119,2.1879,0.4922,-2.4644,9.1506,2.4209,0.0787,0.5506,-0.7955,0.2604,0.8526,0.9423,-1.7551,0.5085,0.6222,-0.0338,-3.3611
1492.1875,-1.1476,-2.1880,0.3419,1.4426,1.5822,-3.2498,11.9084,2.8992,-0.1472,-2.1284,0.2064,-0.7185,1.5501,2.0429,-0.0638,-1.9624,2.6676,-1.4681,-2.1256
1496.0938,-2.7097,-2.9460,1.2268,0.4851,2.5560,-4.1098,12.4381,2.8404,-1.0414,-4.1926,0.8565,-1.9649,2.0202,3.1337,1.3097,-3.9535,4.3637,-3.1110,-0.2594
1500.0000,-4.5029,-3.6783,1.3832,-0.7421,2.7709,-5.3827,9.6016,1.9293,-2.9046,-5.3712,0.6558,-3.1667,1.9780,4.1801,1.8175,-4.6596,5.1341,-4.7579,1.0722
1503.9062,-5.9117,-4.4097,-0.0325,-1.9781,2.1081,-6.9013,3.7142,0.3656,-5.2673,-5.7085,-0.3454,-4.1113,1.4161,5.2217,1.5515,-3.9135,4.9333,-6.0844,1.0352
1507.8125,-6.1537,-5.0679,-2.6897,-2.6703,1.1171,-7.9846,-3.3661,-1.1248,-6.9611,-5.3438,-1.4851,-4.6962,0.6892,6.3513,1.1496,-2.2353,4.3200,-6.6603,-0.3664
1511.7188,-4.7828,-5.4599,-5.3177,-2.3112,0.6460,-7.9167,-9.0715,-1.6793,-6.8073,-4.3445,-1.8998,-4.8487,0.3434,7.6148,1.2822,-0.4903,4.1158,-6.1343,-2.3318
1515.6250,-2.1455,-5.3609,-6.5820,-0.8630,1.1947,-6.5547,-11.4058,-0.8646,-4.4689,-2.7275,-1.1196,-4.4519,0.7764,8.8698,2.1248,0.5977,4.8450,-4.4752,-3.7755
1519.5312,0.5956,-4.6542,-5.9497,1.0577,2.4629,-4.5760,-9.8781,0.9578,-0.8226,-0.6340,0.6012,-3.3586,1.9619,9.7170,3.2265,0.7667,6.3350,-2.0799,-3.9437
1523.4375,2.0114,-3.4174,-3.9629,2.4215,3.4542,-3.1194,-5.5302,2.7298,2.4846,1.5204,2.4657,-1.5093,3.4370,9.6146,3.8706,0.2224,7.7751,0.3652,-2.7587
1527.3438,1.2595,-1.8919,-1.8129,2.3400,3.1037,-3.0297,-0.1510,3.2283,4.0337,3.1053,3.6890,0.9161,4.5704,8.1658,3.6375,-0.5888,8.2166,2.2026,-0.7498
1531.2500,-1.3004,-0.3636,-0.5948,0.5862,1.0040,-4.2366,4.6781,1.7282,3.4994,3.5741,4.0015,3.4231,4.9228,5.4218,2.7299,-1.2279,7.1852,3.0990,1.2872
1535.1562,-4.1868,0.9488,-0.7732,-2.2555,-2.2806,-5.7373,8.0359,-1.5787,1.7692,2.8251,3.7260,5.2945,4.4527,1.9806,1.8091,-1.3896,4.9875,3.1304,2.6405
1539.0625,-5.6078,1.9163,-2.1408,-5.1046,-5.5386,-6.2391,9.4541,-5.6286,0.2410,1.3482,3.3957,5.8509,3.4443,-1.2369,1.4728,-0.9191,2.5064,2.6229,2.8644
1542.9688,-4.5435,2.4365,-4.1492,-6.9610,-7.6509,-5.0458,8.4985,-8.9494,-0.1837,-0.0089,3.2390,4.7803,2.2480,-3.4370,1.7736,0.1745,0.6397,1.8873,1.7979
1546.8750,-1.4199,2.3733,-6.2636,-7.3845,-8.2329,-2.5762,4.7598,-10.2963,0.3173,-0.5579,2.9538,2.3664,1.0548,-4.3550,2.1422,1.6595,-0.2179,1.0444,-0.4653
1550.7812,2.0832,1.5975,-8.0839,-6.6123,-7.7556,-0.1403,-1.5565,-9.1597,0.7277,-0.2388,1.9602,-0.5354,-0.1229,-4.3397,1.7727,3.0545,-0.2976,0.0507,-3.5705
1554.6875,4.0044,0.1323,-9.2557,-5.2956,-7.0995,0.8955,-8.9322,-5.9443,0.0428,0.3119,-0.0645,-2.8181,-1.2761,-4.0471,0.1923,3.7617,-0.1339,-1.1301,-6.8910
1558.5938,3.2631,-1.7042,-9.3966,-4.0660,-6.8878,0.0006,-14.5330,-1.7747,-1.9190,0.1996,-2.7924,-3.6189,-2.2098,-3.9411,-2.3848,3.3773,-0.0693,-2.3679,-9.6104
1562.5000,0.2915,-3.3130,-8.2124,-3.2037,-7.0687,-2.1715,-15.3101,1.9741,-4.3326,-1.0411,-5.3130,-2.7506,-2.5330,-3.9404,-5.1468,2.0058,0.0258,-3.3579,-10.9500
1566.4062,-3.2484,-4.0486,-5.7471,-2.5705,-7.0052,-4.2104,-9.7411,4.2314,-5.9173,-2.9888,-6.6402,-0.8230,-1.8742,-3.4642,-7.1350,0.3149,0.6112,-3.7697,-10.4635
1570.3125,-5.4680,-3.5743,-2.5278,-1.7873,-5.9634,-4.8607,0.9135,4.6468,-5.7944,-4.4796,-6.3093,1.0421,-0.1760,-1.8577,-7.7447,-0.7953,2.0328,-3.4426,-8.2355
1574.2188,-5.3359,-2.1129,0.5882,-0.5123,-3.6404,-3.8033,12.8387,3.6839,-4.0361,-4.3317,-4.6541,1.7771,2.1554,1.0788,-6.9742,-0.7558,4.1202,-2.4852,-4.8531
1578.1250,-3.1823,-0.3944,2.8187,1.3358,-0.3970,-1.7914,21.4598,2.3290,-1.5562,-2.2042,-2.5904,0.9114,4.3759,4.8096,-5.3201,0.2545,6.1365,-1.2195,-1.1618
1582.0312,-0.3588,0.7161,3.8417,3.4980,2.9046,-0.0714,23.8053,1.5429,0.5178,1.0031,-1.0756,-1.2191,5.7383,8.2197,-3.4507,1.3623,7.1330,-0.0214,2.0528
1585.9375,1.6657,0.7074,3.8837,5.4463,5.2989,0.4955,19.9921,1.7348,1.5109,3.5402,-0.6110,-3.7200,5.8262,10.1153,-1.8912,1.5411,6.4722,0.8292,4.2829
1589.8438,2.1680,-0.2778,3.4604,6.5702,6.1008,0.0044,12.9262,2.5644,1.4685,3.7984,-1.0833,-5.6919,4.6876,9.7727,-0.8852,0.2915,4.1814,1.2069,5.3386
1593.7500,1.4654,-1.5369,2.9876,6.4149,5.1099,-0.6129,6.4747,3.2045,0.9280,1.2863,-1.9775,-6.7434,2.7210,7.2368,-0.4422,-2.0114,0.9283,1.1088,5.2571
1597.6562,0.5249,-2.2502,2.5647,4.8936,2.6244,-0.3018,3.3175,2.9171,0.4491,-3.0492,-2.7547,-7.1425,0.4312,3.2531,-0.4667,-4.3571,-2.3271,0.5927,4.1990
1601.5625,0.2167,-1.9965,2.0633,2.3772,-0.6611,1.3062,3.7895,1.5774,0.2699,-7.3811,-3.1314,-7.5207,-1.7657,-1.0687,-0.8547,-5.7607,-4.7619,-0.2556,2.4088
1605.4688,0.7320,-1.0098,1.3817,-0.4069,-3.8190,3.5486,6.2546,-0.2040,0.2765,-10.0844,-3.1290,-8.3433,-3.5889,-4.6436,-1.5139,-5.8788,-5.9519,-1.3201,0.2271
1609.3750,1.5260,-0.0152,0.5973,-2.6546,-5.9098,5.0915,8.5145,-1.4534,0.2075,-10.6340,-2.9497,-9.5136,-4.8247,-6.6810,-2.3412,-5.1510,-5.8750,-2.4535,-1.9175
1613.2812,1.7651,0.2480,-0.1305,-3.8199,-6.2578,4.7572,9.1950,-1.4527,-0.1311,-9.7451,-2.8268,-10.3886,-5.2649,-6.7920,-3.2145,-4.3943,-4.7460,-3.5037,-3.5859
1617.1875,0.9311,-0.4987,-0.7906,-3.8223,-4.7048,2.2793,8.2776,-0.1830,-0.7957,-8.7064,-2.9471,-10.1944,-4.7362,-4.9899,-4.0217,-4.1748,-2.8499,-4.3566,-4.4497
1621.0938,-0.8356,-1.9048,-1.6106,-3.0006,-1.7036,-1.5031,6.6784,1.7116,-1.7556,-8.4048,-3.4369,-8.5514,-3.2086,-1.6542,-4.7090,-4.4288,-0.4765,-4.9504,-4.3824
1625.0000,-2.8554,-3.2262,-2.8428,-1.8386,1.8461,-5.1256,5.4149,3.4001,-2.9373,-8.7354,-4.3409,-5.7447,-0.8851,2.5317,-5.3054,-4.5951,2.0552,-5.2380,-3.4641
1628.9062,-4.3719,-3.8029,-4.3781,-0.6462,4.9749,-7.3318,5.0132,4.4271,-4.1869,-8.7965,-5.5659,-2.5576,1.8133,6.7015,-5.8961,-4.1254,4.3726,-5.1307,-1.9132
1632.8125,-5.0181,-3.4640,-5.5460,0.5853,7.0393,-7.7305,5.4333,4.9522,-5.2103,-7.6969,-6.8417,0.1995,4.3758,10.0047,-6.5501,-2.9646,6.0976,-4.4943,-0.0111
1636.7188,-4.9778,-2.6125,-5.3804,2.0526,7.9113,-6.8850,6.3310,5.5021,-5.6221,-5.3735,-7.7806,2.1236,6.3670,11.8368,-7.2367,-1.6362,6.9579,-3.2413,1.9309
1640.6250,-4.7601,-1.9509,-3.2808,3.8374,7.8704,-5.8260,7.3062,6.4388,-5.1492,-2.8117,-8.0490,3.3144,7.5401,12.0073,-7.7789,-0.8778,6.8976,-1.4806,3.5735
1644.5312,-4.7735,-2.0373,0.3751,5.6659,7.3060,-5.3412,7.9666,7.5586,-3.8725,-1.4899,-7.5589,4.0936,7.8613,10.7698,-7.8850,-1.1096,6.1159,0.3921,4.5824
1648.4375,-5.0042,-2.9490,4.1717,6.9377,6.4592,-5.5045,7.9150,8.1390,-2.2972,-2.4134,-6.5390,4.5998,7.4747,8.7046,-7.2693,-2.1201,5.0136,1.7774,4.7330
1652.3438,-5.0193,-4.2464,6.3239,7.0374,5.3754,-5.7193,6.8454,7.4171,-1.1321,-5.3841,-5.4105,4.6026,6.6556,6.5188,-5.8181,-3.1836,4.0712,2.1395,4.0488
1656.2500,-4.2837,-5.2346,5.7264,5.7387,4.0597,-5.1976,4.7729,5.1669,-0.8729,-8.9941,-4.5345,3.7058,5.7682,4.8453,-3.7175,-3.5061,3.7024,1.3310,2.8705
1660.1562,-2.5729,-5.3511,2.7153,3.4263,2.6639,-3.5322,2.2020,1.9683,-1.4618,-11.3555,-3.9998,1.7912,5.1969,4.0920,-1.4502,-2.6933,4.1185,-0.2293,1.7681
1664.0625,-0.2046,-4.4524,-0.9927,0.9753,1.5223,-0.9952,0.0208,-1.0232,-2.2798,-11.1158,-3.6015,-0.6580,5.2269,4.3541,0.3724,-0.9527,5.2364,-1.6751,1.3022
1667.9688,2.0643,-2.8580,-3.2018,-0.6586,0.9904,1.5996,-0.8883,-2.6612,-2.5087,-8.1647,-3.0229,-2.6579,5.9004,5.3902,1.2770,1.0485,6.6693,-2.0903,1.7536
1671.8750,3.4200,-1.1571,-2.4503,-0.8994,1.2125,3.3452,-0.0800,-2.3832,-1.6412,-3.6577,-2.0914,-3.2477,6.9386,6.6799,1.1509,2.5390,7.8357,-0.9870,2.9779
1675.7812,3.4274,0.0936,1.1938,0.1943,2.0055,3.7126,2.2637,-0.4503,0.1960,0.5987,-0.9222,-2.1094,7.8099,7.5878,0.2839,2.9929,8.1800,1.4077,4.4730
1679.6875,2.2708,0.6208,6.2087,2.0023,2.9514,2.7873,5.4766,2.2398,2.3193,3.0216,0.1485,0.1529,7.9513,7.6063,-0.7980,2.3201,7.4232,4.2358,5.6186
1683.5938,0.6749,0.5232,10.4713,3.6700,3.6300,1.1905,8.7216,4.6036,3.9128,2.9322,0.7932,2.3048,7.0395,6.5837,-1.6020,0.8647,5.7131,6.4370,5.9523
1687.5000,-0.4391,0.1845,12.3465,4.4917,3.8197,-0.2166,11.2285,5.8190,4.5196,0.7593,0.9254,3.1898,5.1600,4.8035,-1.8645,-0.7428,3.5662,7.2934,5.3418
1691.4062,-0.3748,0.0712,11.4028,4.1622,3.5396,-0.6731,12.3703,5.5747,4.2951,-2.2523,0.7825,2.4095,2.7723,2.8408,-1.5624,-1.8199,1.6109,6.7889,3.9926
1695.3125,1.0452,0.5137,8.4365,2.8129,2.9389,0.2206,11.6944,4.0796,3.8811,-4.6349,0.8100,0.5381,0.4948,1.2518,-0.7753,-1.8981,0.2734,5.5868,2.3292
1699.2188,3.4279,1.5591,4.9163,0.8754,2.1572,2.3648,9.0687,1.9073,4.0058,-5.3226,1.4263,-1.2536,-1.1600,0.2824,0.4528,-0.9417,-0.3984,4.6463,0.8306
1703.1250,5.9923,2.9472,2.2311,-1.1216,1.2735,5.1446,4.9117,-0.2293,5.0640,-4.0614,2.8063,-1.9016,-1.9460,-0.2104,2.1103,0.5901,-0.6555,4.7068,-0.1098
1707.0312,7.8850,4.2195,1.1261,-2.7220,0.3639,7.5546,0.2635,-1.7107,6.9175,-1.4555,4.7965,-1.0122,-1.8709,-0.5607,4.0762,1.9239,-0.7674,5.9375,-0.2723
1710.9375,8.5027,4.9234,1.5230,-3.6286,-0.4212,8.4975,-3.5301,-2.2056,9.0015,1.3705,6.9902,1.0545,-1.0560,-0.9475,5.9862,2.3638,-0.7408,7.9394,0.3533
1714.8438,7.7152,4.8340,2.7004,-3.7132,-0.8611,7.2314,-5.4514,-1.7714,10.6493,3.3472,8.9081,3.5737,0.4056,-1.1526,7.2784,1.7040,-0.2474,10.0665,1.5877
1718.7500,5.9211,4.0935,3.6870,-2.9829,-0.7681,3.8137,-5.3546,-0.8045,11.4397,3.9968,10.1908,5.9874,2.4865,-0.6185,7.4538,0.4026,1.1691,11.8360,3.1379
1722.6562,3.9093,3.1861,3.6977,-1.5483,-0.1095,-0.7133,-3.9712,0.1675,11.3810,3.6274,10.7161,8.1844,5.1404,1.1951,6.3911,-0.6409,3.7295,13.1477,4.7086
1726.5625,2.5498,2.7291,2.4610,0.3832,0.9574,-4.6028,-2.2994,0.7607,10.8408,3.0442,10.5948,10.3600,8.1654,4.3725,4.4701,-0.6183,7.1425,14.1755,6.0961
1730.4688,2.4083,3.1579,0.3189,2.4912,2.1705,-6.1395,-0.8164,0.9213,10.2681,2.9252,10.0519,12.6158,11.1273,8.3125,2.3722,0.6597,10.6042,15.0264,7.2063
1734.3750,3.4433,4.4567,-1.9543,4.3486,3.3002,-4.5163,0.8378,0.9062,9.8635,3.2632,9.2589,14.6588,13.4160,11.8833,0.6713,2.5876,13.0986,15.4467,7.9883
1738.2812,4.9605,6.0954,-3.5450,5.4994,4.2282,-0.3724,3.3866,1.0679,9.4032,3.2915,8.2163,15.8650,14.4360,13.9007,-0.4925,4.0861,13.8386,14.8415,8.3456
1742.1875,5.9053,7.2426,-4.0060,5.6263,4.9195,4.3854,7.0029,1.5959,8.3514,2.0184,6.7723,15.6809,13.8521,13.6731,-1.4023,4.2420,12.6177,12.6603,8.1221
1746.0938,5.4021,7.1769,-3.4320,4.7456,5.3366,7.4774,10.7441,2.3940,6.2444,-0.9337,4.7937,14.0608,11.7812,11.3221,-2.4156,2.8699,9.9064,8.9224,7.2109
1750.0000,3.2775,5.6870,-2.2821,3.3039,5.4018,7.4276,12.9327,3.1742,3.1388,-4.7730,2.3951,11.5959,8.8287,7.7282,-3.5469,0.6409,6.6735,4.5004,5.7247
1753.9062,0.2587,3.2312,-0.9686,2.0614,5.0617,4.3706,12.3295,3.6822,-0.1732,-7.7350,0.0662,9.2098,5.9300,4.1580,-4.3328,-1.3050,4.0319,0.8858,4.0859
1757.8125,-2.3225,0.7424,0.4844,1.7614,4.4074,0.0018,9.2285,3.8764,-2.3952,-8.0270,-1.4402,7.6183,4.0330,1.7797,-4.1238,-2.0162,2.8576,-0.5147,2.9189
1761.7188,-3.2083,-0.8374,2.4254,2.7397,3.7301,-3.3358,5.5385,3.9288,-2.3611,-4.9719,-1.4565,6.9278,3.7404,1.2852,-2.6202,-1.2532,3.5010,0.8303,2.7613
1765.6250,-1.9164,-1.0397,5.1758,4.7114,3.4261,-3.9287,3.6259,4.0622,0.2525,0.3992,0.1860,6.6494,5.0617,2.7396,-0.2488,0.4231,5.6690,4.1959,3.7566
1769.5312,0.9479,-0.0941,8.5284,6.8968,3.7796,-1.6057,4.6749,4.3621,4.5780,5.7556,2.9339,6.1032,7.3971,5.6541,1.9324,2.0169,8.5081,7.9101,5.5346
1773.4375,3.9797,1.2335,11.5595,8.4399,4.7596,2.2297,7.7826,4.7064,8.8464,8.6867,5.6601,4.9040,9.7727,9.1982,2.7889,2.6690,10.8872,10.2072,7.3732
1777.3438,5.7187,2.0917,12.9849,8.8692,5.9761,5.4446,10.5307,4.8513,11.2214,7.9965,7.1509,3.1681,11.2244,12.4590,1.7705,2.0882,11.8075,10.1262,8.5516
1781.2500,5.4232,2.0091,11.9000,8.3002,6.8463,6.3843,10.6899,4.5882,10.7280,4.2764,6.6837,1.3076,11.1533,14.6769,-0.7597,0.6211,10.7991,7.9154,8.6751
1785.1562,3.4239,1.1051,8.4298,7.2516,6.8861,4.7372,7.8354,3.8566,7.7383,-0.5682,4.3767,-0.4019,9.4940,15.4137,-3.7435,-1.0349,8.1208,4.7213,7.7833
1789.0625,0.8638,-0.0585,3.8195,6.2202,5.9631,1.5900,3.6869,2.7619,3.7307,-4.4794,1.1142,-2.1065,6.6476,14.6243,-6.0328,-2.2684,4.6431,1.8071,6.2178
1792.9688,-0.9896,-0.8554,-0.1542,5.3376,4.3755,-1.2903,0.9214,1.5369,0.4761,-6.3207,-1.8978,-4.2489,3.2604,12.6149,-6.9772,-2.8801,1.4434,-0.1606,4.3873
1796.8750,-1.4218,-0.9443,-2.1182,4.3693,2.7206,-2.4656,1.3438,0.5083,-0.8553,-6.2095,-3.6850,-7.0948,-0.0128,9.9073,-6.6355,-3.1242,-0.6878,-1.3032,2.6066
1800.7812,-0.5371,-0.3780,-1.8079,3.0479,1.6254,-1.5222,4.7480,0.0623,-0.1581,-5.0196,-3.8682,-10.2715,-2.6511,7.0626,-5.5438,-3.4650,-1.5618,-2.1376,1.0841
1804.6875,0.9938,0.5531,-0.1139,1.4595,1.4657,0.8953,9.2442,0.5465,1.7803,-3.5361,-2.6854,-12.7202,-4.3087,4.5321,-4.2727,-4.2016,-1.5595,-2.9585,-0.0163
1808.5938,2.4674,1.5791,1.5348,0.1436,2.1931,3.6263,12.7002,2.0691,3.8829,-1.9283,-0.7380,-13.1908,-4.8173,2.5830,-3.1053,-5.1917,-1.2900,-3.4968,-0.5634
1812.5000,3.5659,2.5989,2.0381,-0.2196,3.3418,5.6927,14.1439,4.2824,5.3864,0.1107,1.3357,-11.0068,-4.2099,1.2960,-2.0191,-5.8527,-1.1742,-3.1203,-0.5428
1816.4062,4.3890,3.6144,1.2047,0.6719,4.2202,6.7109,14.0910,6.3415,6.0883,2.7578,3.0679,-6.5959,-2.7567,0.6017,-0.9011,-5.4733,-1.2198,-1.4152,-0.1521
1820.3125,5.1372,4.5382,-0.2729,2.4129,4.2236,6.8321,13.6685,7.1924,6.1816,5.5476,4.1931,-1.3949,-0.9435,0.3225,0.2283,-3.6814,-1.1160,1.3117,0.2283
1824.2188,5.7455,5.0693,-1.3653,4.0366,3.1367,6.3722,13.3587,6.1259,5.9053,7.4202,4.5793,2.8574,0.6602,0.2155,1.1663,-0.7923,-0.5494,4.0229,0.2275
1828.1250,5.7953,4.7872,-1.3901,4.5769,1.2704,5.4744,12.4412,3.2897,5.3118,7.3418,4.1726,5.0089,1.6099,0.0359,1.6593,2.2120,0.4991,5.4817,-0.2818
1832.0312,4.8041,3.4343,-0.4123,3.6713,-0.6689,4.0688,9.6040,-0.2186,4.3012,5.0503,3.0150,5.0036,1.7570,-0.3749,1.5735,4.1276,1.6899,4.9781,-1.1039
1835.9375,2.6903,1.1952,0.8452,1.7835,-1.9431,2.1262,4.2428,-2.8412,2.8351,1.3637,1.2975,3.7088,1.2667,-1.0097,0.9589,4.1849,2.5247,2.7600,-1.8858
1839.8438,0.0472,-1.2481,1.4835,-0.1061,-2.1912,-0.0383,-2.5803,-3.4049,1.1160,-2.2036,-0.6261,2.2214,0.4706,-1.6793,-0.0203,2.5302,2.6588,-0.1110,-2.4120
1843.7500,-2.0295,-2.9687,1.0024,-1.1144,-1.6310,-1.7010,-8.2942,-1.8071,-0.4259,-4.2764,-2.3098,1.1632,-0.3354,-2.0932,-1.1938,0.2043,2.1056,-2.3600,-2.7713
1847.6562,-2.5093,-3.2312,-0.3569,-0.9385,-0.9040,-2.0124,-10.0564,0.9240,-1.3254,-4.3507,-3.3454,0.4519,-0.9978,-2.0064,-2.4189,-1.4210,1.2096,-3.1476,-3.2194
1851.5625,-1.0480,-1.8609,-1.6810,0.1032,-0.6387,-0.4721,-6.2959,3.2638,-1.3108,-2.9500,-3.4844,-0.3399,-1.4498,-1.3472,-3.5183,-1.4331,0.4315,-2.3740,-3.8157
1855.4688,1.7462,0.6682,-1.8387,1.4386,-1.0168,2.7169,2.3678,4.1176,-0.4145,-1.1448,-2.6994,-1.3721,-1.5733,-0.2486,-4.2098,0.0931,0.1057,-0.5260,-4.1503
1859.3750,4.5993,3.4668,-0.1030,2.6825,-1.6496,6.6588,13.3011,3.4234,1.0774,0.1989,-1.1748,-2.1947,-1.1451,1.0287,-4.1376,2.1788,0.3179,1.7284,-3.4633
1863.2812,6.2572,5.6374,3.3743,3.7974,-1.8738,10.1530,22.9373,2.0357,2.7702,0.9184,0.7491,-1.9860,0.0280,2.2110,-3.0312,3.5906,0.9329,3.8731,-1.1800
1867.1875,6.1615,6.6295,7.5029,4.8802,-1.2776,12.2332,28.1607,1.0051,4.2975,1.4948,2.6579,-0.2267,1.8510,3.0715,-0.9009,3.6298,1.6970,5.6157,2.4792
1871.0938,4.7102,6.3807,10.6910,5.8054,-0.0832,12.5509,27.3994,0.7923,5.3971,2.5251,4.1624,2.7010,3.7667,3.3993,1.8715,2.5320,2.3144,6.7575,6.2979
1875.0000,2.9614,5.2283,11.5977,6.0780,0.9070,11.4174,21.0991,0.9881,5.9348,4.1356,5.0064,5.4777,4.8594,2.9366,4.6267,1.2157,2.4693,7.0700,8.5281
1878.9062,1.9798,3.6925,9.8097,5.0704,0.7878,9.5395,11.5126,0.7222,5.9052,5.7523,5.1463,6.4826,4.2503,1.3934,6.6681,0.5686,1.8458,6.3339,7.8136
1882.8125,2.2309,2.2605,6.0530,2.4950,-0.8624,7.6480,1.8889,-0.5693,5.4136,6.3895,4.7469,4.7193,1.5747,-1.4023,7.5205,0.7881,0.2133,4.5052,4.0003
1886.7188,3.3713,1.2476,1.7903,-1.2507,-3.6906,6.2282,-4.7264,-2.6094,4.6181,5.2632,4.0711,0.4298,-2.7578,-5.2824,7.0821,1.2472,-2.4241,1.8436,-1.7128
1890.6250,4.5226,0.7440,-1.5694,-5.1540,-6.7653,5.4414,-6.6902,-4.3838,3.6400,2.3389,3.3125,-5.0053,-7.6989,-9.6082,5.6191,0.9784,-5.7106,-1.1400,-7.4030
1894.5312,4.8232,0.6302,-3.3646,-8.0588,-9.1090,5.1867,-4.4229,-4.8065,2.4980,-1.5261,2.4850,-9.8038,-12.0165,-13.3804,3.6364,-0.5777,-8.9699,-3.8914,-11.4318
1898.4375,3.9149,0.6481,-3.8483,-9.2338,-10.1916,5.2000,-0.1028,-3.4569,1.1422,-4.9308,1.4669,-12.6659,-14.7938,-15.6014,1.6953,-3.0991,-11.4227,-6.0160,-13.1825
1902.3438,2.1015,0.5243,-3.7565,-8.6735,-10.0692,5.1386,3.5761,-0.8614,-0.4026,-6.5782,0.1912,-13.2621,-15.6906,-15.7220,0.2448,-5.5253,-12.4980,-7.3261,-13.0985
1906.2500,0.1382,0.1152,-3.6307,-6.9753,-9.1402,4.6713,4.9441,1.8581,-1.8821,-5.8766,-1.1569,-12.0997,-14.8760,-13.9199,-0.4957,-6.7134,-12.0634,-7.7351,-12.0990
1910.1562,-1.1832,-0.4970,-3.4230,-4.9392,-7.7739,3.6027,4.2514,3.6830,-2.8012,-3.2041,-2.1168,-9.9845,-12.7705,-11.0286,-0.5743,-6.1509,-10.4381,-7.1507,-10.8730
1914.0625,-1.4124,-1.0360,-2.6904,-3.1928,-6.1257,1.9955,3.2922,4.2378,-2.6449,0.2694,-2.1863,-7.5240,-9.8277,-8.1382,-0.2522,-4.2447,-8.1864,-5.5253,-9.5688
1917.9688,-0.6155,-1.2058,-1.2102,-2.0596,-4.2506,0.1863,3.9610,3.8248,-1.2456,3.0845,-1.1977,-4.9962,-6.4920,-6.0841,0.1269,-2.0251,-5.8303,-3.0609,-8.0308
1921.8750,0.6806,-0.9206,0.5160,-1.6528,-2.3524,-1.3801,6.7193,3.0157,0.9417,4.0706,0.4208,-2.5547,-3.2666,-5.1025,0.2854,-0.5053,-3.6587,-0.3815,-6.2777
1925.7812,1.7024,-0.4334,1.3550,-1.9989,-0.8790,-2.4429,10.0825,2.1794,2.8951,2.7536,1.7332,-0.4701,-0.7203,-4.8249,0.0967,-0.1478,-1.7309,1.5531,-4.7445
1929.6875,1.7075,-0.2446,0.2679,-3.0241,-0.3143,-3.1401,11.5537,1.3257,3.4674,-0.5412,1.7525,0.8822,0.6807,-4.5779,-0.4397,-0.7586,-0.0275,1.8497,-4.0410
1933.5938,0.2564,-0.8055,-2.8185,-4.4196,-0.8002,-3.9372,9.3929,0.3419,2.0031,-4.8725,0.0247,1.3015,0.8422,-3.7882,-1.2973,-1.7938,1.3943,0.1992,-4.4155
1937.5000,-2.5743,-2.1844,-6.6742,-5.5731,-1.9071,-5.2363,3.9775,-0.6415,-1.2305,-9.0281,-3.0272,1.0395,0.1919,-2.2624,-2.4912,-2.7810,2.3686,-2.8371,-5.3924
1941.4062,-6.1107,-3.9188,-9.3103,-5.7404,-2.7944,-6.9017,-2.2348,-1.1300,-5.0873,-11.8803,-6.2477,0.7651,-0.4665,-0.2206,-4.0313,-3.5319,2.7300,-6.0110,-5.9394
1945.3125,-9.2197,-5.1832,-9.1303,-4.4380,-2.7130,-8.0764,-6.1505,-0.5540,-8.0698,-12.6580,-8.3287,1.1544,-0.3737,1.8758,-5.7771,-4.0411,2.4652,-7.9836,-5.1115
1949.2188,-10.6953,-5.2085,-5.9447,-1.8217,-1.5216,-7.5394,-5.9216,1.2199,-9.0576,-11.1088,-8.4903,2.3751,0.7368,3.5592,-7.3271,-4.2412,1.7759,-7.9935,-2.7244
1953.1250,-9.7889,-3.7212,-1.1540,1.2408,0.1547,-4.4861,-2.0168,3.5617,-7.8252,-7.5644,-6.8557,3.8731,2.4590,4.5147,-8.0919,-3.8878,0.9878,-6.2029,0.4356
1957.0312,-6.6378,-1.1420,3.0417,3.5179,1.2615,0.7404,3.1664,5.2455,-5.0723,-2.9055,-4.3079,4.6747,3.9384,4.6134,-7.5780,-2.7148,0.3631,-3.5305,3.0358
1960.9375,-2.3242,1.5816,4.8926,4.0225,0.9401,6.5056,6.7937,5.0834,-1.9813,1.6092,-1.9451,4.0305,4.3652,3.8648,-5.7289,-0.7498,-0.0514,-1.1062,3.9715
1964.8438,1.5519,3.4224,4.0034,2.5304,-0.9603,10.5482,7.1688,2.6568,0.4144,4.6785,-0.4893,1.9475,3.4228,2.3693,-3.0749,1.4827,-0.4275,0.3030,2.9666
1968.7500,3.6195,3.7573,1.3531,-0.2919,-3.7983,11.1425,4.4590,-1.3173,1.6918,5.4048,-0.0048,-0.7837,1.4193,0.3167,-0.5379,3.0837,-1.0021,0.5801,0.6320
1972.6562,3.4152,2.6335,-1.4805,-3.2144,-6.5061,8.0731,0.3189,-5.2396,2.1039,3.6909,-0.0507,-3.1017,-0.9451,-1.9868,1.0319,3.2078,-1.8711,0.1572,-1.9944
1976.5625,1.5952,0.6976,-3.2967,-5.0263,-8.1419,2.7952,-3.1334,-7.3793,2.2743,0.3691,-0.1032,-4.3659,-2.9871,-4.1201,1.3004,1.5467,-2.8756,-0.3285,-4.0521
1980.4688,-0.4651,-1.1506,-3.8005,-5.0563,-8.2911,-2.3529,-4.2914,-6.7171,2.7432,-3.0765,0.0646,-4.7384,-4.3499,-5.6224,0.5770,-1.4382,-3.6678,-0.3831,-5.2013
1984.3750,-1.4632,-2.1833,-3.4351,-3.3929,-7.1314,-5.4158,-2.5568,-3.4363,3.6339,-5.1387,0.2851,-5.0010,-5.0512,-6.1322,-0.4623,-4.6892,-3.9242,0.1569,-5.5534
1988.2812,-0.8822,-2.1417,-2.7885,-0.7573,-5.2144,-5.7870,1.6347,1.1672,4.6049,-4.9905,0.1984,-5.9591,-5.3078,-5.5311,-1.2589,-7.0345,-3.5704,1.1237,-5.3592
1992.1875,0.7969,-1.2849,-2.0888,1.8577,-3.1621,-4.3074,7.0375,5.2804,5.0765,-2.8972,-0.4315,-7.8643,-5.3121,-4.0119,-1.7145,-7.7063,-2.8676,2.1330,-4.7576
1996.0938,2.4879,-0.2009,-1.1357,3.6044,-1.4521,-2.5078,11.9319,7.3674,4.5834,-0.0887,-1.5211,-10.2366,-5.1198,-2.0243,-2.1555,-6.6246,-2.2879,2.7478,-3.7589
2000.0000,3.2167,0.5076,0.3774,4.1056,-0.3340,-1.5553,14.6077,6.8032,3.0552,1.8746,-2.7095,-12.1528,-4.6806,-0.1084,-2.9662,-4.3359,-2.2398,2.6621,-2.3889
2003.9062,2.6948,0.5095,2.4881,3.5946,0.1767,-1.6084,14.0027,4.0964,0.8802,1.9155,-3.5790,-12.7528,-3.9336,1.3102,-4.1850,-1.6936,-2.8047,1.8762,-0.7908
2007.8125,1.4032,-0.1228,4.8498,2.8192,0.2838,-1.9480,10.2763,0.6345,-1.2780,-0.0091,-3.8892,-11.6214,-2.8655,2.0676,-5.3821,0.5210,-3.6529,0.7832,0.8403
2011.7188,0.1846,-0.9905,6.9264,2.7119,0.3555,-1.6917,4.9184,-1.9260,-2.8150,-2.9306,-3.6813,-8.8764,-1.5111,2.2788,-5.9145,1.8553,-4.2108,0.0597,2.4156
2015.6250,-0.3404,-1.6113,8.2873,3.9211,0.7866,-0.5256,0.1418,-2.3766,-3.4963,-5.4493,-3.2233,-5.0369,0.0550,2.2199,-5.3742,2.2415,-3.9986,0.3309,4.0099
2019.5312,-0.1364,-1.7059,8.7601,6.4100,1.7867,1.0578,-2.2314,-0.4817,-3.5711,-6.5396,-2.8651,-0.8572,1.6907,2.1482,-3.9015,1.8913,-2.9395,1.7489,5.7110
2023.4375,0.3082,-1.3713,8.3722,9.3621,3.2075,2.1247,-1.7443,2.9236,-3.6113,-6.1099,-2.8978,2.7866,3.1468,2.1702,-2.1452,1.1243,-1.4388,3.7552,7.3703
2027.3438,0.3704,-1.0338,7.2212,11.5244,4.5573,1.9441,0.5196,6.3300,-4.1469,-4.9908,-3.4653,5.0342,4.1039,2.2412,-0.9054,0.2230,-0.1537,5.2644,8.5073
2031.2500,-0.2894,-1.1836,5.4450,11.8657,5.2536,0.4409,2.7212,8.2813,-5.2971,-4.3566,-4.5216,5.3151,4.3355,2.2936,-0.7062,-0.6332,0.4328,5.2569,8.5395
2035.1562,-1.5429,-2.0324,3.3160,10.1964,4.9893,-1.8117,3.5033,8.0827,-6.6213,-4.9258,-5.8145,3.7135,3.9301,2.3906,-1.5622,-1.3537,0.3744,3.4647,7.2403
2039.0625,-2.9084,-3.2965,1.3046,7.3460,3.9697,-3.9683,2.8316,6.1140,-7.3036,-6.4274,-6.9106,1.1663,3.3950,2.7698,-3.0388,-1.8778,0.3043,0.6920,5.0884
2042.9688,-3.8253,-4.2671,-0.0532,4.7283,2.8267,-5.3402,1.8731,3.5616,-6.5953,-7.6842,-7.2984,-0.7935,3.4882,3.7003,-4.5106,-2.1218,1.0761,-1.5166,3.1778
2046.8750,-3.8951,-4.1649,-0.4734,3.5043,2.2271,-5.6083,2.0329,1.7014,-4.2724,-7.3024,-6.5802,-0.7791,4.7910,5.2152,-5.4311,-1.9779,3.1754,-1.7398,2.6396
2050.7812,-2.9841,-2.6033,-0.1957,3.8499,2.4145,-4.7893,3.8587,1.1426,-0.8397,-4.5828,-4.6869,1.5813,7.2468,6.8982,-5.4900,-1.3762,6.2576,0.4248,3.9021
2054.6875,-1.2182,0.1103,0.0579,4.8122,2.9988,-3.1159,6.5801,1.4861,2.6581,-0.1008,-1.9909,5.2265,9.9842,7.9174,-4.6476,-0.3765,9.1420,4.0127,6.2859
2058.5938,1.0569,3.0363,-0.4972,4.8852,3.1597,-0.9825,8.5640,1.6210,5.1311,4.4441,0.7866,8.0805,11.6157,7.3661,-3.1067,0.7781,10.3441,7.1570,8.2609
2062.5000,3.3257,5.0277,-2.1537,2.9720,2.1591,1.0524,8.3359,0.4893,5.9834,7.0893,2.8716,8.1691,10.9196,4.7704,-1.2577,1.7054,8.8975,8.1255,8.2663
2066.4062,5.0127,5.3078,-4.4178,-0.8705,-0.1547,2.3549,5.4920,-2.1505,5.4024,6.7141,3.7967,4.7945,7.5438,0.4795,0.4201,2.0293,4.9962,6.3099,5.6132
2070.3125,5.6903,3.8826,-6.2258,-5.3834,-3.1745,2.4836,0.9877,-5.4524,4.2447,3.7306,3.6234,-0.9833,2.3158,-4.3238,1.5192,1.5619,0.0480,2.5692,0.9193
2074.2188,5.3153,1.5529,-6.5654,-8.7948,-5.8111,1.5236,-3.2761,-7.8973,3.5800,-0.0990,2.8887,-6.8962,-3.0582,-8.0553,1.8762,0.4180,-3.9474,-1.2726,-4.1908
2078.1250,4.3251,-0.4939,-5.1020,-9.8139,-7.0592,0.2029,-5.2775,-8.1608,4.1353,-2.6591,2.2939,-10.7241,-6.7665,-9.4118,1.6454,-1.0142,-5.3849,-3.4518,-7.9299
2082.0312,3.4552,-1.2966,-2.3939,-8.3190,-6.5215,-0.4231,-3.7271,-5.9094,5.9208,-2.7165,2.3092,-11.4775,-7.7327,-7.9528,1.1853,-2.2433,-3.8585,-3.1911,-9.2344
2085.9375,3.3141,-0.6110,0.4317,-5.3400,-4.5975,0.3683,1.3380,-2.0339,8.2182,-0.6320,2.9166,-9.7927,-6.0779,-4.2792,0.8007,-2.8994,-0.3343,-1.0078,-8.2020
2089.8438,3.9642,0.9853,2.3028,-2.3953,-2.2510,2.3667,8.3905,1.8255,9.9304,1.9147,3.6320,-7.3668,-2.9881,0.2646,0.5097,-2.8934,3.3917,1.7094,-5.8971
2093.7500,4.8137,2.4246,2.7130,-0.6356,-0.5086,4.3585,14.8028,4.1732,10.1150,3.0314,3.7829,-5.8764,-0.0978,4.1840,0.0219,-2.4344,5.6164,3.5254,-3.7125
2097.6562,4.9524,2.7372,1.8299,-0.3224,0.0273,4.7517,17.8077,4.4327,8.4479,1.8483,2.8819,-6.0963,1.2585,6.4035,-1.0269,-1.9063,5.4997,3.6734,-2.6857
2101.5625,3.7529,1.5785,0.2260,-0.9027,-0.5936,2.5826,15.7779,3.1459,5.3945,-0.9236,0.8991,-7.6982,0.5543,6.5575,-2.7358,-1.6790,3.2830,2.2893,-3.1130
2105.4688,1.3389,-0.5860,-1.5034,-1.5421,-1.7834,-1.7397,9.2310,1.5115,2.0046,-3.4831,-1.6935,-9.6976,-1.8524,4.9419,-4.7474,-1.9468,-0.0757,0.1343,-4.5772
2109.3750,-1.4228,-2.7353,-2.9644,-1.7129,-2.7732,-6.4897,0.8684,0.5813,-0.5761,-4.1577,-4.1088,-11.1132,-5.0202,2.2544,-6.3633,-2.6587,-3.5288,-1.9285,-6.2707
2113.2812,-3.4339,-3.8507,-3.9594,-1.4640,-3.0080,-9.5295,-5.6384,0.6254,-1.6431,-2.5387,-5.5632,-11.3858,-7.8801,-0.6880,-6.9070,-3.5515,-6.4006,-3.3627,-7.3951
2117.1875,-4.0476,-3.4732,-4.3850,-1.2583,-2.3821,-9.5400,-7.6085,1.0475,-1.2482,0.2258,-5.5898,-10.4057,-9.6137,-3.1390,-6.0930,-4.2602,-8.4453,-4.0869,-7.4598
2121.0938,-3.4513,-1.9527,-4.2074,-1.5589,-1.2219,-6.8115,-4.9017,0.8661,-0.1206,2.1730,-4.2235,-8.3298,-9.8284,-4.5264,-4.1628,-4.4622,-9.5858,-4.3213,-6.4027
2125.0000,-2.4803,-0.2436,-3.5498,-2.4708,-0.0553,-3.0795,0.0297,-0.5689,0.7732,1.8009,-1.9915,-5.4564,-8.5399,-4.5367,-1.7237,-4.0083,-9.6424,-4.3198,-4.5432
2128.9062,-1.9916,0.6495,-2.7590,-3.6547,0.6939,-0.4948,3.7779,-3.0851,0.8005,-0.9713,0.2944,-2.2409,-6.0513,-3.2058,0.5659,-2.9998,-8.3196,-4.1663,-2.4129
2132.8125,-2.2474,0.2654,-2.3009,-4.5173,0.9230,-0.3631,4.2937,-5.7136,0.0419,-4.7780,1.8770,0.6984,-2.8190,-0.9581,2.2413,-1.7722,-5.4773,-3.7234,-0.5227
2136.7188,-2.7486,-1.0267,-2.4799,-4.5186,0.8770,-2.4304,2.2802,-7.1976,-0.7482,-7.6946,2.3904,2.7689,0.6502,1.4969,3.0882,-0.7808,-1.4515,-2.7228,0.8524
2140.6250,-2.6374,-2.2334,-3.1722,-3.4071,0.9840,-5.1313,0.6031,-6.6621,-0.5927,-8.4225,2.0339,3.7610,3.8719,3.4311,3.0678,-0.4208,2.8737,-0.9334,1.7750
2144.5312,-1.3760,-2.3358,-3.8091,-1.2958,1.5974,-6.6105,2.0517,-4.0620,1.0967,-6.9961,1.4700,4.0937,6.4380,4.4138,2.2562,-0.8598,6.3673,1.6653,2.5626
2148.4375,0.7880,-0.9364,-3.6855,1.3944,2.7842,-5.8584,7.0306,-0.1879,4.1054,-4.6049,1.4615,4.6410,8.0602,4.4921,0.8803,-1.9620,8.1692,4.7675,3.5431
2152.3438,2.9079,1.4397,-2.4151,4.0493,4.2598,-3.2637,12.9072,3.7176,7.4521,-2.7242,2.4179,6.1223,8.5964,4.1015,-0.6194,-3.3411,8.0956,7.7435,4.7772
2156.2500,3.9238,3.5951,-0.2171,5.9893,5.4949,-0.2818,15.5964,6.4868,9.8625,-2.1747,4.1093,8.4288,8.0610,3.7455,-1.6456,-4.5097,6.6670,9.7988,5.9315
2160.1562,3.3489,4.3366,2.1779,6.6213,5.9311,1.5264,12.3379,7.4262,10.4124,-2.7073,5.7418,10.4249,6.6208,3.6513,-1.6859,-5.0473,4.7526,10.2654,6.4147
2164.0625,1.5924,3.1820,3.9462,5.6240,5.2109,1.4564,3.7198,6.4497,8.9728,-3.3098,6.3844,10.4975,4.5802,3.6410,-0.6226,-4.7152,3.0758,8.9159,5.7276
2167.9688,-0.2904,0.6677,4.6220,3.1235,3.3350,0.0282,-6.4902,3.9770,6.2178,-2.9603,5.5159,7.5946,2.3485,3.3207,1.1184,-3.4972,1.9023,6.1345,3.8261
2171.8750,-1.2471,-1.9411,4.2831,-0.2424,0.7020,-1.4372,-13.5846,0.7249,3.2177,-1.3114,3.3571,2.0748,0.3741,2.4622,2.7378,-1.5908,1.0779,2.8199,1.2601
2175.7812,-0.8506,-3.3686,3.3834,-3.4616,-1.9770,-1.7312,-14.6641,-2.4962,0.8782,1.0940,0.7706,-4.2594,-0.9546,1.3029,3.4881,0.6215,0.3284,0.0317,-1.0220
2179.6875,0.4932,-3.0406,2.4075,-5.4801,-3.8736,-0.5616,-10.0602,-4.9432,-0.4470,3.1500,-1.2237,-9.0529,-1.4172,0.5241,3.0864,2.6272,-0.4314,-1.4555,-2.1109
2183.5938,1.8568,-1.3624,1.6250,-5.6015,-4.3072,1.2686,-2.6454,-6.0748,-0.9746,3.8196,-2.0175,-10.6852,-1.0304,0.8830,1.8377,3.8978,-1.0047,-1.4518,-1.5699
2187.5000,2.3972,0.5896,1.0945,-3.7624,-3.0097,2.4166,4.2260,-5.6710,-1.1877,2.7062,-1.7144,-9.1328,-0.0355,2.7128,0.3930,4.0719,-1.0728,-0.3507,0.3765
2191.4062,1.8681,1.7452,0.8346,-0.5433,-0.2838,1.9254,8.5722,-3.9012,-1.4424,0.2800,-0.9815,-5.8631,1.1996,5.6141,-0.6754,3.1407,-0.4558,1.1520,2.9838
2195.3125,0.7326,1.6489,0.9426,3.0849,3.0444,-0.0898,10.2636,-1.2846,-1.7435,-2.3404,-0.5721,-2.8635,2.3194,8.5534,-1.1786,1.5127,0.7305,2.4272,5.3522
2199.2188,-0.1663,0.6298,1.5237,6.1443,5.9073,-2.4589,10.1716,1.4757,-1.8110,-3.9438,-0.8475,-1.4701,3.0951,10.3358,-1.3079,-0.1373,2.1254,3.1527,6.8001
2203.1250,-0.1548,-0.5314,2.5008,7.9802,7.4234,-3.6917,9.0192,3.7297,-1.3555,-3.8670,-1.6022,-1.7375,3.4683,10.1897,-1.3756,-1.2007,3.3223,3.3171,7.0701
2207.0312,0.8429,-1.1753,3.5254,8.4087,7.2762,-2.9630,6.9675,5.0777,-0.3501,-2.3994,-2.2713,-2.6705,3.5250,8.1392,-1.5360,-1.4689,4.0629,3.0633,6.3244
2210.9375,2.2518,-1.1747,4.1411,7.6703,5.8440,-0.6995,4.1051,5.4367,0.8961,-0.7001,-2.3383,-3.0378,3.4411,4.9739,-1.6977,-1.2385,4.3122,2.5391,5.0094
2214.8438,3.1943,-0.9243,4.1181,6.2594,3.9930,1.6462,1.1033,4.9640,1.9086,-0.1872,-1.6466,-2.1540,3.4383,1.8616,-1.6574,-1.0834,4.2087,1.8795,3.6943
2218.7500,3.0308,-0.9537,3.6789,4.7267,2.6305,2.5152,-0.8295,3.9151,2.3415,-1.6651,-0.4295,-0.1424,3.7532,-0.1660,-1.3023,-1.4131,3.9714,1.2959,2.9313
2222.6562,1.7662,-1.4660,3.3690,3.5122,2.2550,1.2667,-0.8208,2.5351,2.1897,-4.6860,0.9052,2.3684,4.5909,-0.5919,-0.7004,-2.1170,3.8401,1.1301,3.1224
2226.5625,0.0710,-2.1363,3.6004,2.8329,2.7483,-1.3747,0.7411,1.0367,1.7783,-7.6062,2.0334,4.7643,6.0406,0.4935,-0.0263,-2.5720,4.0494,1.7497,4.3747
2230.4688,-1.1108,-2.3079,4.2017,2.6365,3.5109,-3.7586,2.2240,-0.3639,1.5386,-8.4363,2.8288,6.7686,7.9780,2.5659,0.5724,-2.0546,4.7866,3.3011,6.3903
2234.3750,-1.1456,-1.4420,4.3777,2.6432,3.8438,-4.3558,1.9552,-1.4311,1.7236,-6.0675,3.2978,8.3961,10.0250,4.9669,1.0267,-0.3040,6.0987,5.4901,8.4920
2238.2812,-0.1305,0.4888,3.2126,2.4855,3.3426,-2.7188,-0.2382,-1.9652,2.2512,-1.1224,3.4554,9.6960,11.6375,7.1699,1.2793,2.1631,7.7936,7.5877,9.8507
2242.1875,1.1239,2.9207,0.4220,1.9040,2.0837,0.2759,-2.4921,-1.9078,2.7668,4.1832,3.2849,10.5655,12.3136,8.9105,1.2028,4.2482,9.4310,8.7196,9.8543
2246.0938,1.5665,4.9725,-3.2078,0.9043,0.5243,3.0445,-2.0646,-1.4142,2.8714,7.1994,2.8125,10.7891,11.8274,10.1662,0.6368,4.8993,10.4638,8.2980,8.4248
2250.0000,0.5664,5.8920,-6.1018,-0.2325,-0.7880,4.3282,2.4648,-0.8165,2.3567,6.3708,2.1922,10.2238,10.3437,11.0308,-0.4442,3.7792,10.4845,6.3322,6.0737
2253.9062,-1.6406,5.4088,-6.8143,-1.1125,-1.5050,3.9349,9.6003,-0.4694,1.3064,2.1846,1.6784,8.9308,8.3310,11.5586,-1.7727,1.5232,9.4316,3.4261,3.6282
2257.8125,-4.0098,3.8214,-4.9988,-1.4731,-1.6041,2.7221,15.3493,-0.5585,0.0305,-3.0912,1.4703,7.1393,6.3139,11.6533,-2.8243,-0.6081,7.6197,0.4765,1.7789
2261.7188,-5.2337,1.8187,-1.7289,-1.3422,-1.3115,1.8981,15.6632,-0.9868,-1.0847,-6.7359,1.5550,5.1119,4.6214,11.0618,-3.0893,-1.4787,5.5649,-1.7216,0.7424
2265.6250,-4.4628,0.1736,1.1253,-0.9874,-0.9071,2.1788,9.3442,-1.4170,-1.7028,-7.1366,1.7113,3.0671,3.2915,9.4932,-2.4137,-0.7499,3.7191,-2.7247,0.2649
2269.5312,-1.7807,-0.5403,2.1038,-0.6815,-0.5513,3.3817,-0.6691,-1.4532,-1.5922,-4.6057,1.7042,1.2314,2.1820,6.8213,-1.1449,0.9477,2.2854,-2.4517,-0.0461
2273.4375,1.8277,-0.1244,1.1304,-0.4599,-0.2346,4.6668,-8.7392,-0.8675,-0.6555,-0.9924,1.5228,-0.0783,1.1827,3.2689,0.0605,2.4399,1.2181,-1.0565,-0.3248
2277.3438,4.9660,1.1872,-0.4489,-0.0757,0.1406,5.1522,-9.9399,0.2573,1.0021,1.5706,1.4373,-0.5138,0.3503,-0.5445,0.6526,2.7358,0.3716,1.1553,-0.3134
2281.2500,6.4706,2.7758,-0.8374,0.7786,0.6206,4.4129,-3.2611,1.5461,2.9753,1.9211,1.7794,0.0549,-0.1477,-3.7578,0.5248,1.5876,-0.3362,3.6809,0.3725
2285.1562,5.8628,3.8043,0.8765,2.1266,1.1100,2.5483,7.5408,2.5066,4.5469,0.3443,2.5865,1.2685,-0.2296,-5.5813,0.0181,-0.4464,-0.8658,5.7498,1.7622
2289.0625,3.4308,3.5078,3.9587,3.5145,1.3992,-0.0979,16.0986,2.7746,4.8880,-1.9049,3.4105,2.2651,-0.0583,-5.6185,-0.4043,-2.4196,-1.1183,6.4277,3.2277
2292.9688,-0.0012,1.5495,6.4180,4.1697,1.3023,-3.2129,17.2950,2.3053,3.4701,-3.5658,3.5078,2.0666,0.0068,-4.0223,-0.5494,-3.5783,-1.0271,4.9910,3.6760
2296.8750,-3.4205,-1.7130,6.3288,3.4686,0.8229,-6.5078,10.4182,1.4121,0.4863,-4.1179,2.3444,0.1942,-0.3286,-1.3966,-0.6341,-3.7303,-0.5809,1.4198,2.2095
2300.7812,-5.9218,-5.2397,3.2076,1.4241,0.2359,-9.4830,-0.3506,0.6230,-3.0255,-3.8769,0.0739,-2.8917,-0.9965,1.5047,-1.0621,-3.2131,0.2343,-3.3271,-1.1452
2304.6875,-6.9013,-7.6838,-1.5095,-1.1611,0.0068,-11.2988,-8.4095,0.4154,-5.5493,-3.5344,-2.3934,-5.8891,-1.4821,4.1027,-2.0213,-2.5618,1.4875,-7.5481,-5.1647
2308.5938,-6.1827,-8.0104,-5.2526,-3.0382,0.5600,-11.0409,-8.6607,0.9566,-5.8369,-3.5875,-3.8494,-7.3091,-1.0731,6.1619,-3.2365,-2.1466,3.2510,-9.5342,-7.8953
2312.5000,-4.0886,-6.0525,-5.8872,-3.1888,2.0065,-8.3270,-0.5481,1.9837,-3.6268,-4.0665,-3.5133,-6.3165,0.6714,7.7187,-4.0863,-2.0165,5.4353,-8.4400,-7.6698
2316.4062,-1.4001,-2.6737,-3.0596,-1.4343,3.9880,-3.8292,11.5374,2.8983,0.1264,-4.6534,-1.5447,-3.2318,3.5260,8.8473,-4.0026,-1.9986,7.6325,-4.7757,-4.0998
2320.3125,0.8678,0.6002,1.5417,1.4017,5.7531,0.7581,20.6712,3.0408,3.7091,-4.9841,1.0133,0.6220,6.5568,9.4382,-2.8496,-1.9199,9.1299,-0.1972,1.5650
2324.2188,1.8538,2.3161,5.1624,3.8901,6.4621,3.4407,21.2207,2.0128,5.5529,-4.8741,2.8323,3.6186,8.5016,9.1528,-1.0074,-1.7686,9.1674,3.3105,6.9643
2328.1250,1.2336,1.8047,5.5694,4.7211,5.5813,2.9630,11.9542,-0.1164,5.0471,-4.3712,3.0458,4.6323,8.3772,7.5997,0.8733,-1.6959,7.3370,4.3918,9.7673
2332.0312,-0.6273,-0.5213,2.2800,3.3453,3.1663,-0.4799,-3.2338,-2.8214,2.7670,-3.7129,1.6668,3.4897,5.9783,4.6325,2.2266,-1.8880,3.8951,2.8865,8.8015
2335.9375,-2.8725,-3.4316,-3.2539,0.1968,-0.1226,-5.3245,-17.3138,-5.3360,0.0124,-3.2833,-0.5470,0.8949,2.0033,0.5902,2.7669,-2.4214,-0.2255,-0.2598,4.5673
2339.8438,-4.6088,-5.5341,-8.5128,-3.5687,-3.2863,-9.4690,-23.7154,-6.9521,-2.0011,-3.5444,-2.6211,-2.0086,-2.2372,-3.6790,2.4298,-3.1914,-3.7494,-3.5980,-1.0905
2343.7500,-5.3452,-5.9446,-11.2338,-6.6255,-5.4044,-11.3327,-19.6051,-7.2579,-2.7597,-4.8467,-3.8938,-4.1223,-5.3581,-7.0570,1.2047,-3.9396,-5.5846,-5.8826,-5.9186
2347.6562,-5.1591,-4.6260,-10.4327,-8.0178,-6.0032,-10.5189,-7.1516,-6.2299,-2.5289,-7.1211,-4.2273,-4.7106,-6.4215,-8.5690,-0.9119,-4.3470,-5.2734,-6.5078,-8.2768
2351.5625,-4.5230,-2.2781,-6.6614,-7.4670,-5.2124,-7.7767,7.8018,-4.1873,-1.9519,-9.6579,-3.8691,-3.5439,-5.2452,-7.7887,-3.7586,-4.1512,-3.1487,-5.5504,-7.7543
2355.4688,-3.9558,0.0838,-1.5333,-5.3904,-3.6647,-4.4255,18.8401,-1.6765,-1.5503,-11.2542,-3.1777,-0.9646,-2.4255,-5.0454,-6.7979,-3.2555,-0.1409,-3.5574,-5.1622
2359.3750,-3.7496,1.5932,3.0963,-2.6900,-2.2032,-1.6844,22.1230,0.6576,-1.4992,-10.8151,-2.4548,2.1068,0.8916,-1.3219,-9.1191,-1.8045,2.6455,-1.2871,-2.0058
2363.2812,-3.9215,1.8216,5.8635,-0.4118,-1.5295,-0.2753,17.9045,2.2079,-1.7536,-8.1125,-1.9467,4.3388,3.4121,2.1316,-9.7818,-0.1859,4.3743,0.4917,0.2569
2367.1875,-4.3346,0.8334,6.2935,0.6400,-1.9245,-0.3699,9.7571,2.5632,-2.2891,-4.1599,-1.8805,4.4465,4.1638,4.3055,-8.3430,1.0790,4.7517,1.1815,0.8367
2371.0938,-4.8220,-0.9245,4.8282,0.2293,-3.1401,-1.7061,2.1739,1.6699,-3.1556,-0.8097,-2.3855,1.8467,2.8904,4.8206,-5.2109,1.5467,4.0392,0.5717,-0.1193
2375.0000,-5.1961,-2.7974,2.5617,-1.1782,-4.5083,-3.6963,-1.9108,-0.0879,-4.2707,0.2997,-3.3103,-2.8398,0.1949,4.0036,-1.5368,1.0760,2.8319,-0.9813,-1.6891
2378.9062,-5.1900,-4.1091,0.7799,-2.5933,-5.2455,-5.5163,-2.2552,-1.9880,-5.1846,-1.2027,-4.1266,-7.8457,-2.6958,2.5987,1.3390,-0.0664,1.7157,-2.5865,-2.6841
2382.8125,-4.4786,-4.3546,0.4230,-2.9822,-4.8427,-6.2974,-0.6585,-3.2671,-5.1400,-4.1121,-4.1106,-11.0072,-4.5045,1.2717,2.5580,-1.3156,0.9639,-3.1855,-2.2798
2386.7188,-2.8583,-3.3798,1.6549,-1.8397,-3.3609,-5.4737,0.7486,-3.4893,-3.5178,-6.3686,-2.7777,-10.8724,-4.5572,0.1964,2.1185,-2.0982,0.4211,-2.1419,-0.4708
2390.6250,-0.4854,-1.4785,3.7616,0.4779,-1.4466,-3.1308,0.9740,-2.7627,-0.3920,-6.3673,-0.2891,-7.5106,-3.1407,-1.0108,0.7476,-2.1431,-0.3539,0.2980,1.9016
2394.5312,2.0484,0.6828,5.5006,2.9125,-0.0029,-0.0779,0.4665,-1.6378,3.2664,-3.9700,2.5039,-2.4814,-1.3042,-2.9390,-0.5980,-1.6175,-1.7441,3.0329,3.6072
2398.4375,3.9460,2.3277,5.7784,4.3152,0.3452,2.5121,0.2845,-0.7173,5.9991,-0.5210,4.4895,2.0658,-0.1754,-5.8160,-1.2521,-0.9946,-3.7126,4.6984,3.7467
2402.3438,4.6433,2.9140,4.2869,4.1472,-0.3179,3.7295,0.9872,-0.2251,6.6823,2.1214,4.9462,4.6030,-0.1983,-9.0949,-1.0765,-0.7360,-5.6530,4.4912,2.3163
2406.2500,4.1514,2.3654,1.6852,2.7986,-1.1756,3.4104,2.1765,0.1555,5.2056,2.8257,3.9604,4.9667,-0.8038,-11.5053,-0.3544,-0.9973,-6.5897,2.6722,0.2424
2410.1562,3.0194,1.0465,-0.8275,1.2810,-1.1486,2.1159,2.9707,1.0223,2.4990,1.8151,2.2990,4.1733,-0.7742,-11.6124,0.4898,-1.5466,-5.6621,0.3745,-1.1863
2414.0625,1.9083,-0.5069,-2.2962,0.4834,0.3891,0.6171,2.8733,2.7285,-0.1387,0.2822,0.8213,3.4948,0.8995,-8.5923,1.1136,-1.9370,-2.6335,-1.1856,-1.1575
2417.9688,1.0802,-1.9149,-2.6265,0.5167,3.1046,-0.7123,2.2091,4.9626,-1.9308,-0.6407,-0.1311,3.4960,4.2303,-2.7731,1.3180,-1.7993,1.8831,-1.5508,0.0977
2421.8750,0.2132,-3.1089,-2.5989,0.6413,5.7842,-2.0991,1.7323,6.7804,-3.0714,-0.7347,-0.9026,3.7307,8.0677,4.4053,1.0076,-1.0539,6.6465,-1.3072,1.4173
2425.7812,-1.2802,-4.2106,-3.2586,-0.1302,7.0113,-3.9829,1.7895,7.1345,-4.3943,-0.7322,-2.1279,3.2816,10.7045,11.0153,0.1662,0.0844,10.3455,-1.5895,1.4644
2429.6875,-3.6450,-5.2414,-5.1109,-2.1739,6.0451,-6.3461,1.8559,5.5853,-6.5212,-1.5657,-4.0862,1.6889,10.8886,15.5075,-1.1075,1.2774,12.1791,-3.1531,-0.3562
2433.5938,-6.3640,-5.9122,-7.6907,-4.7809,3.3306,-8.3432,0.9680,2.7029,-9.1551,-3.4597,-6.3244,-0.4804,8.5846,17.3315,-2.5659,2.2661,12.1307,-5.6929,-3.4361
2437.5000,-8.2957,-5.6959,-9.8058,-6.4711,0.2816,-8.6208,-1.2251,-0.1570,-11.0859,-5.5927,-7.8586,-1.8934,4.9968,16.9857,-3.8656,2.9659,10.8112,-7.9257,-6.2843
2441.4062,-8.3330,-4.1757,-10.2613,-5.9360,-1.5519,-6.1877,-3.6957,-1.6127,-10.9406,-6.5904,-7.8170,-1.3812,1.8506,15.5201,-4.7027,3.4204,9.0183,-8.4031,-7.4266
2445.3125,-6.1379,-1.4388,-8.5439,-2.9716,-1.4024,-1.2278,-4.3514,-1.0800,-8.1419,-5.4705,-6.0430,1.1436,0.4137,13.8279,-4.9285,3.6893,7.3101,-6.4880,-6.2876
2449.2188,-2.4233,1.7823,-5.0133,1.2724,0.2983,4.7726,-1.4050,0.8823,-3.3818,-2.3433,-3.2124,4.4746,0.8725,12.1580,-4.5422,3.7732,5.8340,-2.8051,-3.4775
2453.1250,1.4377,4.3737,-0.5462,4.9474,2.2600,9.7487,5.1257,2.9511,1.7292,1.6126,-0.3898,6.8043,2.4072,10.1026,-3.5746,3.6174,4.4423,1.1508,-0.3251
2457.0312,4.2100,5.3894,4.0139,6.6548,3.1827,12.1839,12.9582,3.9103,5.5769,4.8383,1.6276,6.8686,3.8279,7.0136,-1.9979,3.1608,2.9347,3.9634,1.9877
2460.9375,5.4561,4.5668,8.1611,6.3205,2.5464,11.8952,18.6353,3.4510,7.3818,6.2482,2.6965,4.7640,4.3053,2.5618,0.2052,2.3690,1.2310,5.1361,3.0898
2464.8438,5.6278,2.4876,11.6180,5.2004,0.8511,9.9741,19.5490,2.3756,7.4262,5.7146,3.2012,1.8776,3.7415,-2.8918,2.8271,1.2395,-0.6081,5.2604,3.4649
2468.7500,5.5863,0.2785,14.0316,5.0086,-0.7884,7.9733,15.5517,2.0676,6.6090,3.9791,3.5766,-0.0204,2.6356,-8.3010,5.2683,-0.1851,-2.4458,5.4424,3.9201
2472.6562,5.9436,-0.9811,14.8552,6.7515,-1.3637,6.9328,9.0228,3.5644,5.7390,2.1698,3.8968,0.0880,1.6485,-12.2896,6.6394,-1.7624,-4.0997,6.4299,4.9110
2476.5625,6.6964,-0.8054,13.6062,10.0344,-0.5242,6.8893,3.3142,6.8270,5.0901,1.2615,3.8468,1.8520,1.2128,-13.6693,6.1743,-3.1889,-5.2997,8.0590,6.2080
2480.4688,7.3559,0.4916,10.3126,13.2752,1.3440,7.1110,0.6254,10.6671,4.4643,1.7150,3.0588,3.8334,1.4116,-11.8928,3.7305,-4.0264,-5.6516,9.3730,7.0957
2484.3750,7.3900,2.0207,5.7423,14.6537,3.4602,6.7774,0.7508,13.3720,3.5915,3.3366,1.5013,4.4688,2.1061,-7.2697,0.0212,-3.8764,-4.7209,9.2855,6.9039
2488.2812,6.6042,2.8203,1.1494,13.1686,5.1048,5.5670,1.5277,13.6387,2.4823,5.3178,-0.4061,3.0750,3.1282,-0.8797,-3.6443,-2.6458,-2.2532,7.3150,5.4652
2492.1875,5.2062,2.3603,-2.3377,9.1559,5.8904,3.7836,0.6278,11.2549,1.4686,6.4672,-2.0262,0.2682,4.3697,5.7774,-5.9974,-0.7191,1.5933,3.9229,3.2007
2496.0938,3.5902,0.7950,-4.2542,4.0138,5.7578,2.0455,-2.5741,7.1460,0.9671,5.6724,-2.8704,-2.4240,5.7440,11.2717,-6.4337,1.1417,6.1859,0.2908,0.8350
2500.0000,2.0848,-1.1332,-4.8695,-0.6106,4.8265,0.8591,-6.3488,2.8096,1.2128,2.5098,-2.7983,-3.4720,7.1114,14.6908,-5.2243,2.1850,10.6109,-2.2682,-1.0137
2503.9062,0.8682,-2.4672,-4.7743,-3.6345,3.2834,0.3894,-7.6317,-0.4861,2.1700,-2.3008,-1.9321,-2.2029,8.2628,15.8711,-3.2078,2.1311,14.0262,-2.9025,-2.0943
2507.8125,0.0452,-2.4973,-4.3554,-4.9016,1.3808,0.4975,-4.0553,-2.2569,3.6242,-6.9817,-0.4329,0.8810,8.9718,15.3121,-1.2219,1.3809,15.9523,-1.5328,-2.5242
2511.7188,-0.2843,-1.0981,-3.6011,-4.9860,-0.5343,0.8961,4.3043,-2.8243,5.2952,-9.4759,1.6071,4.4501,9.0500,13.8195,0.3042,0.7729,16.3289,1.1917,-2.6210
2515.6250,-0.0956,1.2080,-2.3684,-4.6765,-2.0762,1.2589,14.5756,-2.8689,6.8526,-8.5965,4.0426,7.0940,8.3566,12.0606,1.3413,0.9991,15.3443,4.1921,-2.7225
2519.5312,0.4137,3.4954,-0.8129,-4.5038,-2.9788,1.2703,22.3841,-2.8618,7.8802,-4.8507,6.4651,8.0093,6.7840,10.2631,1.9385,2.0643,13.2141,6.3602,-3.0843
2523.4375,0.8071,4.8802,0.4876,-4.5558,-3.2472,0.7314,24.0837,-2.7614,7.9506,-0.3131,8.1775,7.2656,4.2904,8.2091,1.9422,3.1971,10.1012,6.9391,-3.8324
2527.3438,0.6551,4.9606,0.9179,-4.5967,-3.1614,-0.2305,18.7119,-2.1579,6.8792,2.5124,8.4900,5.5715,1.0047,5.4963,1.0514,3.3336,6.2232,5.7914,-4.9138
2531.2500,-0.0734,4.0230,0.4418,-4.3279,-3.0973,-0.9957,8.6260,-0.7344,5.0119,2.1994,7.1834,3.7542,-2.6643,1.8872,-0.8119,1.8832,2.0096,3.4703,-6.0499
2535.1562,-0.8015,2.8881,-0.1193,-3.6044,-3.2845,-0.5887,-1.5230,1.3036,3.2598,-0.6972,4.7839,2.2974,-6.0362,-2.4679,-3.1552,-0.7530,-1.8866,1.0241,-6.7690
2539.0625,-0.5822,2.4527,0.4902,-2.5053,-3.6786,1.7815,-6.9835,3.1576,2.7159,-3.9752,2.3779,1.1926,-8.3513,-7.0457,-4.9603,-3.3106,-4.7995,-0.4397,-6.5809
2542.9688,1.2728,3.1658,3.0220,-1.2720,-4.0415,6.0271,-5.2004,3.8156,4.0060,-5.1801,1.0251,0.1381,-9.0772,-11.1510,-5.2016,-4.4048,-6.3576,-0.2640,-5.2456
2546.8750,4.5793,4.7424,6.9513,-0.1855,-4.1602,10.8455,2.9100,2.6598,6.7958,-3.1628,1.1450,-1.1051,-8.1582,-14.1566,-3.5225,-3.4163,-6.6603,1.4323,-2.9773
2550.7812,8.1667,6.3021,10.5258,0.5424,-4.0255,14.1449,13.3593,-0.0854,9.8444,1.2139,2.3010,-2.4688,-6.0559,-15.6544,-0.5794,-0.9206,-6.1790,3.8107,-0.4269
2554.6875,10.4380,6.8717,11.7380,0.8275,-3.8324,14.1419,21.0111,-3.3762,11.6462,5.6560,3.5315,-3.6157,-3.5634,-15.4958,2.2437,1.6455,-5.4522,5.7400,1.5827
2558.5938,10.2919,5.9650,9.6238,0.7123,-3.8105,10.4999,22.1117,-5.8590,11.2718,7.8757,3.9868,-4.2180,-1.5147,-13.7842,3.6057,2.8710,-4.8018,6.3537,2.4232
2562.5000,7.7954,3.8857,4.9836,0.3228,-4.0225,4.7181,16.1555,-6.5730,8.8568,6.9206,3.4180,-4.2623,-0.5474,-10.8767,2.9632,2.2222,-4.2737,5.4162,1.9141
2566.4062,4.1324,1.5607,-0.0143,-0.1933,-4.2875,-0.6044,6.1027,-5.4198,5.4197,3.5674,2.1995,-4.1370,-0.9921,-7.3745,0.8118,0.3004,-3.8088,3.3079,0.3269
2570.3125,0.8513,0.0011,-3.1192,-0.7150,-4.2815,-3.2507,-3.1922,-3.1236,2.1652,-0.3608,0.9262,-4.4116,-2.8456,-4.0232,-1.7264,-1.6380,-3.4572,0.6969,-1.8159
2574.2188,-1.0726,-0.2799,-3.3148,-1.1645,-3.7388,-2.6787,-7.5136,-0.7370,-0.2150,-3.1905,-0.0617,-5.4384,-5.7505,-1.4799,-3.6519,-2.5405,-3.4113,-1.8416,-3.9877
2578.1250,-1.7158,0.4662,-1.3034,-1.4989,-2.6251,-0.2563,-5.4060,0.9674,-1.7671,-4.2898,-0.8568,-7.0463,-8.9772,-0.0284,-4.6423,-2.1980,-3.8070,-4.0046,-5.8020
2582.0312,-1.9285,1.4256,1.1075,-1.7034,-1.1901,1.7342,1.2634,1.8202,-2.9270,-4.1605,-1.7601,-8.5514,-11.5007,0.5813,-5.0538,-1.2552,-4.4627,-5.6731,-7.0241
2585.9375,-2.5485,1.7496,2.2184,-1.8098,0.1061,1.6565,8.5500,2.1205,-3.9368,-3.8274,-2.8786,-9.1011,-12.2668,1.0137,-5.4299,-0.6398,-4.8188,-6.7078,-7.5331
2589.8438,-3.7090,1.0684,1.3953,-1.9268,0.7500,-0.4195,12.6919,2.1981,-4.5101,-4.0450,-3.8971,-8.1436,-10.6125,1.9609,-5.9298,-0.8614,-4.2007,-6.8498,-7.3183
2593.7500,-4.7371,-0.3216,-0.8127,-2.2365,0.3626,-2.8686,12.0444,2.0405,-4.0036,-4.8443,-4.2219,-5.7322,-6.6403,3.6933,-6.1204,-1.6804,-2.2705,-5.8384,-6.5143
2597.6562,-4.6827,-1.6839,-3.3224,-2.9173,-1.1207,-3.7363,7.6259,1.2817,-1.9423,-5.6090,-3.3834,-2.4902,-1.2977,5.8272,-5.2848,-2.3507,0.6473,-3.6575,-5.3989
2601.5625,-3.0561,-2.3069,-5.3335,-4.0117,-3.3425,-2.1550,2.1173,-0.4358,1.5124,-5.5078,-1.3915,0.7068,3.9424,7.4751,-3.0123,-2.2121,3.6213,-0.7083,-4.3009
2605.4688,-0.2299,-1.9038,-6.7000,-5.3256,-5.5716,1.0430,-1.9049,-3.0120,5.5013,-3.9672,1.2159,3.1014,7.6562,7.7026,0.3639,-1.1820,5.5478,2.2460,-3.4569
2609.3750,2.7588,-0.7188,-7.6855,-6.4596,-6.9637,3.9194,-3.3505,-5.7185,8.8370,-0.9617,3.6437,4.2560,8.9835,6.0239,3.8002,0.1946,5.7010,4.3480,-2.9375
2613.2812,4.8217,0.6778,-8.4453,-6.9955,-6.9681,4.7738,-2.8424,-7.4784,10.5332,2.9242,5.2107,4.0252,7.8153,2.6509,6.0348,1.1336,4.0601,4.9701,-2.7188
2617.1875,5.3938,1.7286,-8.7467,-6.7418,-5.6726,3.2721,-1.8436,-7.4412,10.1628,6.6234,5.5706,2.4256,4.6262,-1.6164,6.2311,1.1247,1.2439,3.9182,-2.8422
2621.0938,4.5999,2.1367,-8.1664,-5.8719,-3.8347,0.5820,-1.4321,-5.4826,7.8940,8.8813,4.6917,-0.4192,0.1572,-5.7485,4.3862,0.2043,-1.8479,1.4448,-3.4933
2625.0000,2.9839,1.8973,-6.5510,-4.8327,-2.4968,-1.5292,-1.5930,-2.3017,4.3027,8.7015,2.7133,-4.1936,-4.7931,-8.8612,1.2971,-1.1611,-4.4227,-1.8782,-4.8673
2628.9062,1.0847,1.1609,-4.2943,-4.0621,-2.3613,-1.9539,-1.4290,0.9391,0.1596,5.8398,-0.1329,-8.2751,-9.3804,-10.4251,-1.8493,-2.4354,-5.9920,-5.3233,-6.8721
2632.8125,-0.8078,0.0790,-2.1453,-3.6958,-3.3173,-0.9551,-0.0146,3.1910,-3.7022,1.1033,-3.4564,-11.7721,-12.6733,-10.2878,-4.0011,-3.3208,-6.3530,-8.1532,-8.9058
2636.7188,-2.5889,-1.2383,-0.6769,-3.4764,-4.4697,0.1430,2.7919,3.9631,-6.4829,-3.8094,-6.6057,-13.7994,-13.7830,-8.6067,-4.6138,-3.8109,-5.4988,-9.7533,-9.9638
2640.6250,-4.1163,-2.6426,0.1505,-2.9422,-4.7100,0.0210,6.1660,3.4112,-7.5757,-6.9919,-8.7170,-13.8729,-12.2334,-5.7950,-3.7409,-4.0207,-3.6060,-9.7747,-9.1171
2644.5312,-5.0833,-3.8507,0.9512,-1.7732,-3.4748,-1.6037,8.8619,2.1052,-6.7908,-7.2559,-9.0051,-12.1753,-8.3704,-2.4897,-1.8838,-3.9940,-1.1126,-8.2577,-6.1145
2648.4375,-5.1273,-4.4579,2.3948,-0.0497,-1.1701,-3.7142,10.0626,0.6890,-4.5065,-4.7798,-7.1784,-9.4949,-3.4687,0.5307,0.2646,-3.6716,1.2480,-5.6596,-1.7038
2652.3438,-4.0846,-4.1059,4.5849,1.7630,1.0635,-4.6797,9.9193,-0.3523,-1.5865,-1.0375,-3.7160,-6.8562,0.6720,2.5365,2.0547,-3.0277,2.5984,-2.7295,2.5936
2656.2500,-2.1718,-2.7185,6.8119,3.0949,2.1084,-3.4045,9.3958,-0.7507,0.9589,2.0170,0.2139,-5.0662,2.5062,3.0986,3.0287,-2.2131,2.2603,-0.2594,5.1778
2660.1562,0.0622,-0.6445,7.8933,3.6172,1.6320,-0.1502,9.5125,-0.4179,2.3931,3.0490,3.2057,-4.4440,1.4693,2.2654,2.9802,-1.5382,0.1139,1.1709,5.1422
2664.0625,1.9834,1.4167,6.8946,3.4149,0.3160,3.5206,10.5042,0.5819,2.5057,2.0535,4.2207,-4.8466,-1.7849,0.5421,1.9508,-1.2764,-3.2557,1.3352,2.6777
2667.9688,3.1389,2.7048,3.7559,2.8825,-0.6129,5.6424,11.4834,2.0228,1.5659,0.2314,3.0315,-5.8793,-5.7706,-1.3308,0.1922,-1.4504,-6.7482,0.3499,-1.0912
2671.8750,3.3766,2.7633,-0.5811,2.4465,-0.2130,5.0075,10.9057,3.5411,0.0675,-0.8702,0.2940,-7.0800,-8.9184,-2.6701,-1.8860,-1.8017,-9.1882,-1.4184,-4.6826
2675.7812,2.7949,1.6761,-4.6215,2.3257,1.5665,1.8721,7.6142,4.7547,-1.5104,-0.3780,-2.7612,-7.9537,-10.2244,-3.0505,-3.7711,-2.0002,-9.7843,-3.4351,-6.8776
2679.6875,1.6345,0.0374,-7.0600,2.4877,3.9094,-2.1970,1.8324,5.4392,-2.7633,1.3985,-4.8383,-7.9340,-9.4623,-2.3381,-4.9126,-1.9374,-8.3826,-5.0413,-7.0764
2683.5938,0.2327,-1.3421,-7.3867,2.7839,5.7243,-5.2003,-4.5824,5.6309,-3.2803,3.2760,-5.0539,-6.4615,-6.9675,-0.6144,-4.8180,-1.8482,-5.4321,-5.5315,-5.3236
2687.5000,-0.9560,-1.8360,-6.0386,3.1091,6.3399,-5.7624,-8.9168,5.5464,-2.6157,4.0760,-3.2103,-3.2776,-3.2805,1.8848,-3.1980,-2.1215,-1.7412,-4.3491,-2.1473
2691.4062,-1.3844,-1.2984,-4.0597,3.4390,5.8146,-3.7705,-9.0734,5.3476,-0.4616,3.4520,0.1850,1.2054,1.0445,4.7553,-0.1422,-2.9154,1.8189,-1.3811,1.6192
2695.3125,-0.5913,-0.0992,-2.4910,3.7322,4.6996,-0.2980,-4.8879,4.9354,3.0386,2.1009,4.1174,5.7683,5.3912,7.3926,3.7543,-3.8827,4.5421,2.8106,4.9930
2699.2188,1.5034,1.1091,-1.8323,3.8218,3.5273,3.0570,1.5727,3.9663,7.0898,1.2361,7.3974,8.7312,8.9756,9.0653,7.4297,-4.2731,6.0078,7.0332,7.0506
2703.1250,4.3824,1.7534,-1.8485,3.4449,2.4636,4.9912,7.0514,2.1344,10.4041,1.7004,9.0349,8.7185,10.9283,9.1481,9.6329,-3.4068,6.1092,9.8667,7.2290
2707.0312,7.0171,1.6295,-1.8098,2.4313,1.3763,5.0334,8.9598,-0.4629,11.7311,3.3388,8.5531,5.4433,10.6275,7.4243,9.3951,-1.2153,5.0177,10.2787,5.6081
2710.9375,8.3056,0.9644,-1.0240,0.9212,0.1926,3.5852,6.9401,-3.1607,10.4855,5.0667,6.1422,0.0104,8.0877,4.2651,6.5058,1.5566,3.0965,8.1250,2.9521
2714.8438,7.6584,0.2364,0.6467,-0.5796,-0.8227,1.5489,3.0967,-4.9426,7.0820,5.5973,2.5850,-5.5159,4.1014,0.5368,1.7384,3.6901,0.7863,4.2408,0.3831
2718.7500,5.3706,-0.1287,2.6100,-1.3929,-1.1509,-0.1862,0.6589,-4.9469,2.7552,4.3484,-1.0323,-9.0788,-0.0229,-2.7381,-3.3544,4.1963,-1.4907,0.0609,-1.1841
2722.6562,2.5062,-0.0022,3.8631,-1.0132,-0.4159,-1.1179,1.8648,-2.9548,-1.0362,1.9136,-3.7189,-9.5822,-2.9996,-4.7742,-7.0426,2.9320,-3.3664,-3.0159,-1.4933
2726.5625,0.3225,0.3958,3.6621,0.6139,1.2399,-1.2277,6.4291,0.4546,-3.2651,-0.2452,-4.9225,-7.2858,-4.0663,-5.2481,-8.1628,0.7027,-4.5073,-4.1626,-0.9600
2730.4688,-0.4342,0.6579,2.1343,3.0595,3.1335,-0.8316,11.6435,4.1823,-3.6915,-0.7273,-4.6748,-3.4617,-3.1696,-4.2650,-6.6366,-1.2325,-4.6107,-3.3099,-0.2222
2734.3750,0.0792,0.4553,0.3877,5.6371,4.4246,-0.3236,14.0982,7.1335,-2.7833,0.8334,-3.4911,0.4051,-0.8037,-2.1660,-3.4873,-1.9316,-3.4940,-0.9731,0.4353
2738.2812,0.9759,-0.2491,-0.0504,7.7317,4.6306,0.0406,11.9181,8.6636,-1.3393,3.3997,-2.0911,3.3375,2.3087,0.6363,-0.3321,-1.3052,-1.2757,2.0834,1.3284
2742.1875,1.2657,-1.1640,1.8117,9.0322,3.8990,0.2341,6.0318,8.7199,-0.0832,5.0626,-1.0794,5.1023,5.4562,3.6826,1.3980,-0.0766,1.4800,5.1193,3.0694
2746.0938,0.5284,-1.8257,5.6856,9.5660,2.8607,0.4133,-0.3712,7.6900,0.5744,4.2078,-0.7268,5.9386,8.0144,6.4095,1.1156,0.7702,3.8312,7.5400,5.9316
2750.0000,-0.8071,-1.8593,10.0124,9.5820,2.2101,0.7794,-3.8154,6.1523,0.5743,0.6101,-0.9282,6.1020,9.4550,8.1728,-0.7158,0.6452,4.8163,8.9304,9.3903
2753.9062,-1.7577,-1.1992,12.8050,9.3995,2.3400,1.4136,-2.6148,4.7142,0.1302,-4.2611,-1.3325,5.6157,9.4380,8.4520,-2.9033,-0.3413,3.9634,9.1088,12.2486
2757.8125,-1.4568,-0.1537,12.8197,9.3066,3.2583,2.1630,2.2967,3.9571,-0.3891,-7.9915,-1.5705,4.3835,8.0027,7.1564,-4.1824,-1.5891,1.6440,8.2098,13.3183
2761.7188,0.2400,0.7240,10.2812,9.4935,4.7506,2.6380,8.2095,4.3581,-0.6062,-8.6270,-1.4707,2.4956,5.7032,4.8101,-3.8564,-2.5167,-1.0085,6.6977,12.1814
2765.6250,2.6093,0.8944,6.6462,9.9683,6.5577,2.3505,12.4223,6.0775,-0.3155,-5.8836,-1.1631,0.4010,3.4924,2.4243,-2.0983,-2.9514,-2.6430,5.2026,9.4701
2769.5312,4.4655,0.0962,3.5529,10.4595,8.3833,0.9548,13.6731,8.6842,0.3555,-1.3788,-1.0161,-1.2485,2.3211,1.0691,0.2056,-3.1132,-2.4077,4.2073,6.4443
2773.4375,4.8546,-1.5107,1.6943,10.3986,9.7739,-1.5114,12.3333,11.0688,0.9309,2.3015,-1.4264,-1.9877,2.6582,1.3811,1.9524,-3.2508,-0.3979,3.7732,4.1766
2777.3438,3.5966,-3.3931,0.4355,9.0957,10.0980,-4.5240,9.5009,11.7718,0.8062,3.1439,-2.5636,-1.8508,4.2500,3.3063,2.3814,-3.2755,2.4571,3.5223,2.9462
2781.2500,1.3512,-4.8644,-1.5288,6.1109,8.7940,-7.1958,5.9316,9.6946,-0.3589,0.8797,-4.2111,-1.3412,6.3045,6.2223,1.4103,-2.7369,4.9922,2.9390,2.2766
2785.1562,-0.8068,-5.3777,-4.9445,1.6451,5.8044,-8.6097,1.7323,4.8324,-2.3132,-2.9641,-5.8113,-1.0563,7.9926,9.3234,-0.3977,-1.2036,6.4872,1.8091,1.5483
2789.0625,-2.0111,-4.7575,-9.1156,-3.3190,1.8661,-8.2181,-3.0339,-1.4631,-4.2164,-6.1607,-6.7181,-1.2395,8.9212,11.9848,-2.1875,1.2398,6.9793,0.4789,0.6686
2792.9688,-2.0377,-3.2647,-12.0728,-7.3010,-1.6567,-6.1121,-7.5399,-6.9676,-5.0519,-7.2851,-6.5332,-1.6024,9.2532,13.8795,-3.2792,3.7956,7.0279,-0.2882,0.2480
2796.8750,-1.3137,-1.4672,-11.7549,-8.9527,-3.4097,-3.0142,-10.1030,-9.6321,-4.2405,-6.6068,-5.3354,-1.5588,9.4153,14.8451,-3.4981,5.2774,7.1508,0.1961,1.1311
2800.7812,-0.5546,0.0176,-7.4243,-7.7080,-2.7942,0.0114,-9.1103,-8.6197,-2.0641,-5.7723,-3.6602,-0.7047,9.6437,14.7071,-3.1988,4.7925,7.3775,2.0276,3.6492
2804.6875,-0.3074,0.7813,-0.3379,-4.0758,-0.3218,1.9897,-4.3253,-4.7105,0.4109,-6.5119,-2.2268,0.8175,9.7362,13.2810,-2.9841,2.3325,7.2539,4.5303,7.1924
2808.5938,-0.6944,0.7595,6.8126,0.6073,2.6935,2.3989,2.5153,0.1739,1.8997,-9.2790,-1.5667,2.3490,9.2096,10.5936,-3.2865,-1.1433,6.2754,6.5670,10.4575
2812.5000,-1.4783,0.1920,11.3441,4.8158,4.9200,1.3074,8.4550,4.0307,1.6161,-12.7858,-1.7688,3.1299,7.7353,7.1322,-4.0640,-4.2125,4.3922,7.1562,12.2098
2816.4062,-2.3335,-0.5536,11.9818,7.4891,5.7477,-0.7435,11.0304,5.7710,-0.3114,-14.7797,-2.4889,2.8071,5.5031,3.8486,-4.8030,-5.7631,2.1734,6.0036,12.0050
2820.3125,-3.0911,-1.1815,9.3538,8.3393,5.4900,-3.0130,9.7482,5.5717,-2.9708,-13.5514,-3.2039,1.6739,3.2084,1.8030,-4.8472,-5.5422,0.4793,3.6218,10.3571
2824.2188,-3.7777,-1.5771,5.3629,7.7071,4.9521,-4.8300,6.2361,4.4525,-5.2318,-9.1518,-3.5410,0.4750,1.6438,1.6032,-3.8625,-4.1534,-0.1309,0.9891,8.2653
2828.1250,-4.4512,-1.7752,1.9525,6.1597,4.7203,-5.7428,2.9468,3.4474,-6.3523,-3.4876,-3.4685,-0.0772,1.1790,2.9901,-2.1392,-2.5579,0.1783,-0.9969,6.4908
2832.0312,-4.9926,-1.8280,0.1148,4.1544,4.7122,-5.5277,1.3909,2.9601,-6.2454,0.7865,-3.2334,0.2702,1.5056,4.8639,-0.5010,-1.4538,0.5853,-1.9104,5.1365
2835.9375,-5.0445,-1.6780,-0.2900,1.9788,4.3021,-4.1275,1.2374,2.6946,-5.2902,1.8615,-3.0984,1.2280,1.8358,5.7789,0.1750,-0.9476,0.1391,-1.8207,3.8127
2839.8438,-4.1692,-1.1394,0.0412,-0.0796,2.8916,-1.6151,0.9373,2.1094,-3.8933,-0.1715,-3.0665,2.2542,1.4240,4.6409,-0.4446,-0.6850,-1.6070,-1.0114,2.1969
2843.7500,-2.1383,-0.0185,0.6248,-1.5769,0.4659,1.7614,-0.6753,0.9822,-2.1588,-3.4619,-2.7956,2.9702,0.0530,1.2218,-1.8287,-0.2767,-4.2770,0.3346,0.4948
2847.6562,0.8303,1.6898,1.5477,-1.9866,-2.2950,5.4845,-3.1339,-0.3582,0.0913,-5.6109,-1.7877,3.3791,-1.8351,-3.7620,-2.8051,0.3308,-6.8663,2.2258,-0.5965
2851.5625,4.0464,3.6579,3.1943,-1.0111,-4.4244,8.7259,-4.5021,-1.2812,2.9823,-5.1579,0.2398,3.7303,-3.4338,-8.9905,-2.2585,0.8021,-8.3010,4.6699,-0.4091
2855.4688,6.5643,5.2532,5.6300,1.0961,-5.2798,10.4680,-2.8853,-1.3529,6.2128,-2.4146,3.0251,4.1571,-4.0703,-13.0593,0.0962,0.6841,-7.9923,7.3746,1.0946
2859.3750,7.5443,5.7682,8.1742,3.4813,-4.8990,9.8281,1.8741,-0.6748,8.9478,0.8310,5.7049,4.4031,-3.5710,-14.9035,3.3761,-0.2272,-6.0597,9.6166,3.1264
2863.2812,6.5963,4.7663,9.5393,5.0323,-3.8577,6.4927,7.6888,0.2012,10.1083,2.4988,7.1218,3.8969,-2.2746,-13.9913,5.9033,-1.6919,-3.1427,10.4454,4.4691
2867.1875,3.9580,2.3685,8.4929,4.9488,-2.7670,1.0519,11.4068,0.7055,8.9224,1.5205,6.3814,2.1713,-0.7305,-10.3297,6.1262,-3.1259,0.0101,9.1565,4.2168
2871.0938,0.4401,-0.6917,4.6361,3.1928,-1.8183,-5.0005,10.8867,0.6850,5.4256,-1.5259,3.3779,-0.6602,0.6722,-4.4104,3.5492,-3.9049,2.8841,5.7634,2.3542
2875.0000,-2.8449,-3.3136,-1.1979,0.5241,-0.7255,-9.7118,6.4691,0.4968,0.6095,-4.7974,-1.0144,-3.7416,1.8789,2.8318,-0.9143,-3.6684,5.2825,1.1689,-0.2183
2878.9062,-4.8784,-4.4884,-7.1838,-1.9184,0.8973,-11.4411,0.7596,0.6865,-3.8987,-6.3068,-5.2341,-5.8112,3.0434,10.0873,-5.4057,-2.4575,7.1709,-3.1148,-2.2300
2882.8125,-5.1129,-3.7568,-11.2776,-3.2347,3.0235,-9.6115,-3.1209,1.4956,-6.4949,-5.0943,-7.7024,-5.8825,4.2253,15.8609,-8.1281,-0.6546,8.4576,-5.5894,-2.7951
2886.7188,-3.6809,-1.4311,-12.1240,-3.2115,4.9744,-5.0382,-3.5511,2.5765,-6.2865,-1.7699,-7.5406,-3.8492,5.1605,18.8208,-8.2733,1.1937,8.9018,-5.4314,-1.9014
2890.6250,-1.3299,1.5448,-9.6452,-2.3454,5.6650,0.3991,-1.2715,3.1380,-3.4758,1.8559,-4.9563,-0.6081,5.3036,18.2135,-6.3091,2.5668,8.2177,-2.8528,-0.3557
2894.5312,0.9085,4.0352,-5.0320,-1.4690,4.2070,4.6219,1.4310,2.4336,0.7503,3.8078,-1.0879,2.4140,4.1472,14.1625,-3.5000,3.1156,6.2982,1.0255,0.7388
2898.4375,2.1769,5.2271,-0.1577,-1.2422,0.4847,6.3149,2.5024,0.2538,4.7760,3.0390,2.6020,4.0560,1.6250,7.6828,-1.0359,2.7554,3.3978,4.7163,0.6294
2902.3438,2.1546,4.9552,3.2895,-1.8220,-4.6621,5.4637,1.5074,-2.9095,7.2802,-0.0258,5.0388,4.0457,-1.6746,0.3735,0.6246,1.7013,0.1494,7.0409,-0.6905
2906.2500,1.1392,3.6827,4.5329,-2.8712,-9.7662,3.1817,-0.3288,-6.1220,7.7680,-3.7708,5.9559,3.0603,-4.6588,-6.0900,1.7933,0.4193,-2.6117,7.5912,-2.5218
2910.1562,-0.1872,2.1776,3.9471,-3.8352,-13.3721,0.9591,-1.2963,-8.4914,6.6513,-6.2953,5.8160,2.1955,-6.2000,-10.4525,3.0306,-0.5327,-4.1324,6.7638,-3.8607
2914.0625,-1.1621,1.0906,2.7096,-4.2680,-14.6227,-0.1855,-0.5700,-9.5503,4.8646,-6.4199,5.3393,2.2070,-5.6804,-12.1702,4.5133,-0.7413,-4.0081,5.3890,-3.9135
2917.9688,-1.4771,0.6723,2.0698,-4.0111,-13.4975,-0.1438,1.2922,-9.3189,3.2671,-4.2471,4.9736,3.0286,-3.3088,-11.4191,5.7804,-0.1451,-2.3189,4.1992,-2.4633
2921.8750,-1.2638,0.7609,2.6431,-3.1700,-10.6455,0.4647,3.0063,-8.0870,2.1882,-1.0162,4.6494,3.8827,-0.0283,-8.8741,6.0263,0.9152,0.4037,3.4480,0.0549
2925.7812,-0.9228,0.9959,4.1235,-1.9822,-6.9860,0.8894,3.7231,-6.1465,1.3772,1.6025,3.9469,3.8887,2.9302,-5.4033,4.6958,1.8581,3.3487,2.8783,2.7642
2929.6875,-0.8426,1.0863,5.5581,-0.7092,-3.3426,0.8025,3.6966,-3.7056,0.3496,2.3512,2.5168,2.7351,4.5935,-1.8242,1.9319,2.1588,5.6606,2.0142,4.7164
2933.5938,-1.1946,0.9633,5.9953,0.3851,-0.2843,0.4390,3.9411,-1.0200,-1.1304,0.9314,0.4460,0.9367,4.5918,1.1926,-1.4306,1.6142,6.6546,0.5588,5.2556
2937.5000,-1.8918,0.7513,5.0864,1.0163,1.8319,0.2922,5.2209,1.4270,-2.7712,-1.9573,-1.6838,-0.5114,3.1476,3.0935,-4.2793,0.4220,5.9614,-1.3672,4.2310
2941.4062,-2.6690,0.6215,3.2670,0.9092,2.7568,0.6599,7.2501,2.9266,-3.8743,-5.0050,-3.0706,-0.8518,0.7794,3.3793,-5.7291,-0.9535,3.5862,-3.2857,1.9895
2945.3125,-3.1803,0.6534,1.4216,-0.0897,2.3288,1.4082,8.7696,2.8167,-3.7738,-6.8569,-3.1127,-0.1524,-2.0419,1.6259,-5.4033,-2.0272,-0.1065,-4.6606,-0.8277
2949.2188,-3.0677,0.7922,0.2775,-1.8822,0.5743,2.1067,8.4308,0.8764,-2.3028,-6.6119,-1.7208,0.6630,-5.0487,-2.3565,-3.4117,-2.4905,-4.4648,-5.2260,-3.5769
2953.1250,-2.0407,0.9027,-0.0535,-4.0855,-2.1659,2.3754,5.7688,-2.4368,0.0208,-4.1270,0.6371,0.3979,-8.0784,-8.2801,-0.1893,-2.2680,-8.6716,-5.1312,-5.8475
2957.0312,-0.0297,0.8524,-0.0857,-6.1629,-5.2275,2.1303,1.5152,-6.1175,2.2115,-0.0973,3.1413,-1.5863,-10.8518,-15.2022,3.5987,-1.4555,-11.9100,-4.8273,-7.5335
2960.9375,2.6194,0.5605,-0.5361,-7.6656,-7.8018,1.5356,-2.9329,-9.0717,3.3012,4.1009,4.9393,-4.8433,-12.8553,-21.5814,7.0535,-0.2364,-13.5482,-4.7881,-8.7257
2964.8438,5.0661,-0.0003,-1.7784,-8.4373,-9.2354,0.7444,-6.4048,-10.6379,2.8018,6.8167,5.4289,-7.9951,-13.4654,-25.6376,9.1049,1.1520,-13.2955,-5.2555,-9.5164
2968.7500,6.1804,-0.8164,-3.5584,-8.6468,-9.2832,-0.3051,-8.5044,-10.8433,0.8914,6.7344,4.4206,-9.5058,-12.2669,-25.9261,8.8077,2.4122,-11.2663,-6.1584,-9.8557
2972.6562,5.0441,-1.8285,-5.1638,-8.6224,-8.1589,-1.8279,-9.4758,-10.2415,-1.7506,3.4874,2.1639,-8.6120,-9.3514,-21.8884,5.8282,3.2099,-7.9184,-7.2262,-9.5598
2976.5625,1.5155,-2.9149,-5.9241,-8.6019,-6.3546,-3.9105,-9.6532,-9.4556,-4.3243,-2.0412,-0.7496,-5.8276,-5.3816,-14.1200,0.8173,3.2743,-3.8854,-8.1883,-8.4696
2980.4688,-3.5077,-3.9002,-5.6960,-8.5688,-4.3535,-6.2699,-9.0656,-8.7404,-6.2722,-7.9895,-3.5815,-2.6918,-1.3525,-4.2151,-4.6770,2.5340,0.2181,-8.9133,-6.6497
2984.3750,-8.3721,-4.6104,-5.0013,-8.2841,-2.4244,-8.2961,-7.5447,-7.8574,-7.4309,-12.3303,-5.6902,-0.8947,1.8200,5.7473,-8.8389,1.1883,3.9308,-9.4035,-4.4849
2988.2812,-11.4093,-4.9460,-4.7145,-7.4882,-0.6247,-9.3845,-5.1587,-6.3365,-7.9254,-13.8341,-6.7314,-1.3009,3.6451,13.8400,-10.4416,-0.3602,6.9710,-9.6733,-2.5893
2992.1875,-11.7243,-4.9148,-5.4866,-6.1292,1.0186,-9.2983,-2.4724,-3.9390,-7.9105,-12.6207,-6.7106,-3.4573,4.1564,18.7783,-9.4004,-1.6814,9.1785,-9.6242,-1.5591
2996.0938,-9.5575,-4.5855,-7.2608,-4.4659,2.3123,-8.2607,-0.2987,-1.0070,-7.3456,-9.9349,-5.8528,-5.8770,3.7438,20.1056,-6.6597,-2.4832,10.4419,-9.0262,-1.7014
3000.0000,-6.0120,-3.9933,-9.1893,-2.9802,2.8599,-6.6944,0.8838,1.5446,-5.9577,-7.2714,-4.3752,-6.9200,2.8621,18.0951,-3.5014,-2.6538,10.6774,-7.6365,-2.8895
3003.9062,-2.3557,-3.0810,-10.0343,-2.1526,2.2437,-4.8397,1.3117,2.6156,-3.4336,-5.4194,-2.3372,-5.7328,1.8072,13.5175,-0.7746,-2.1782,9.8707,-5.3856,-4.6238
3007.8125,0.6230,-1.7426,-8.8582,-2.2298,0.3202,-2.6010,1.7092,1.4846,0.2658,-4.0719,0.3012,-2.6819,0.6798,7.4338,1.4208,-1.0399,8.1446,-2.5022,-6.2554
3011.7188,2.8025,0.0426,-5.6264,-3.0956,-2.5674,0.2122,2.5902,-1.7496,4.6757,-2.2573,3.4434,0.9594,-0.4811,1.0702,3.4218,0.7605,5.7985,0.5246,-7.2437
3015.6250,4.4167,2.0854,-1.3632,-4.2895,-5.6172,3.4364,3.6966,-6.0869,8.8651,0.7349,6.6467,3.8463,-1.5196,-4.2796,5.3826,3.0526,3.2901,3.1484,-7.3078
3019.5312,5.5718,3.9819,2.2819,-5.1518,-7.8455,6.3101,4.1281,-9.9611,11.7860,4.6262,9.1638,5.3737,-2.0794,-7.4289,6.8971,5.3423,1.1618,5.0248,-6.4201
3023.4375,6.0142,5.2611,3.8743,-5.0422,-8.4785,7.7282,3.1399,-11.8535,12.7719,8.1644,10.2857,5.9450,-1.6963,-7.5890,7.1976,6.8495,-0.0709,6.1633,-4.6963
3027.3438,5.3326,5.5982,2.9923,-3.5793,-7.2639,6.8970,0.9555,-10.9227,11.8910,9.8810,9.7815,6.5393,-0.0419,-4.6971,5.7818,6.8150,-0.0608,6.8603,-2.3053
3031.2500,3.4070,4.9577,0.5026,-0.8402,-4.5705,3.9379,-1.1633,-7.3766,9.9089,9.0425,8.1003,7.8826,2.7969,0.3920,2.9506,4.9412,1.2168,7.4333,0.5112
3035.1562,0.7071,3.5749,-1.9129,2.5572,-1.2552,-0.0381,-1.7794,-2.4180,7.8423,6.1159,6.1341,9.7936,6.1620,6.0168,-0.2091,1.6768,3.3459,7.9237,3.3302
3039.0625,-1.8379,1.8096,-2.7606,5.5712,1.6266,-3.5011,-0.4494,2.2308,6.3688,2.4407,4.6615,11.1678,8.9257,10.1762,-2.4342,-1.8931,5.4823,7.9815,5.4799
3042.9688,-3.3336,-0.0063,-1.6819,7.0744,3.1602,-5.3595,1.7828,5.0299,5.4795,-0.6132,3.8599,10.6446,9.8811,11.2318,-3.0532,-4.5467,6.5796,7.0518,6.1613
3046.8750,-3.4242,-1.6228,0.2791,6.3223,2.8680,-5.5183,3.0905,5.2409,4.6250,-2.3722,3.2630,7.5406,8.2990,8.5823,-2.3482,-5.5366,5.8158,4.7864,4.7893
3050.7812,-2.4477,-2.8260,1.3269,3.3483,0.8882,-4.7654,2.3128,3.1763,3.2592,-2.9829,2.2199,2.4369,4.3927,3.0086,-1.2594,-4.9314,3.0548,1.4231,1.4099
3054.6875,-1.1472,-3.3922,0.1277,-0.9403,-2.0268,-4.0989,0.0006,-0.0320,1.3868,-2.9504,0.5219,-2.9834,-0.5899,-3.5076,-0.6791,-3.4679,-0.9229,-2.1462,-3.0822
3058.5938,-0.1726,-3.1418,-3.1946,-5.0699,-4.7325,-4.0077,-1.8822,-3.0178,-0.3140,-2.5524,-1.3000,-6.7780,-4.7855,-8.4795,-0.8823,-2.0221,-4.6248,-4.7265,-7.1442
3062.5000,0.2666,-2.0878,-6.9848,-7.6070,-6.1008,-4.2161,-1.5067,-4.7996,-0.9251,-1.6445,-2.2792,-7.7633,-6.5145,-9.8740,-1.5023,-1.0602,-6.4712,-5.4275,-9.2063
