Time,Fp1,F3,C3,P3,O1,F7,T3,T5,Fz,Fp2,F4,C4,P4,O2,F8,T4,T6,Cz,Pz
0.0000,8.1953,7.2193,7.4977,8.5228,8.4558,8.5893,7.1944,11.6979,3.4992,4.4579,3.3950,5.7011,7.4340,9.9411,3.4444,7.2651,7.2904,4.5972,6.9019
3.9062,12.6066,14.2570,7.6097,7.9950,7.9087,8.0488,4.9332,10.3381,7.2489,6.0851,10.4417,9.5645,10.6771,11.4949,4.4608,10.6300,11.2506,8.3531,8.6042
7.8125,16.1572,22.3429,8.4777,7.2648,6.8244,6.6126,4.0869,7.8437,12.2661,8.0012,19.0393,13.8033,14.1414,12.6311,5.7581,14.6273,15.6055,13.1755,10.5960
11.7188,17.7264,28.5715,10.6227,6.7287,5.5758,5.4434,5.4896,4.6700,17.8051,10.1148,27.2544,17.3384,16.6939,12.9707,6.8788,17.7725,19.0520,18.1532,12.5562
15.6250,17.4764,30.4368,13.9256,6.6942,4.6876,6.1521,8.5192,1.5648,22.9466,12.7029,33.0882,19.4101,17.4794,12.5715,7.8626,18.5640,20.6392,22.3207,14.2087
19.5312,16.6712,27.2135,17.3676,7.0529,4.4408,9.6240,11.2471,-0.9432,26.8451,16.1330,35.1717,19.7960,16.2556,11.7765,9.5915,16.2423,20.1453,24.9540,15.2990
23.4375,16.7056,20.4919,19.3673,7.1905,4.5644,15.1166,11.5631,-2.9672,28.9624,20.3250,33.2756,18.7278,13.4004,10.8421,13.4456,11.3166,18.0118,25.7418,15.5365
27.3438,18.0601,13.5086,18.6299,6.2666,4.2685,20.3717,8.5836,-5.2651,29.2422,24.4303,28.4572,16.6580,9.6471,9.6493,20.2998,5.5269,14.9460,24.8217,14.6217
31.2500,19.9657,9.5848,15.0103,3.7379,2.6649,22.8011,3.3560,-8.7601,28.1529,27.1255,22.7485,14.0801,5.7475,7.7511,29.4691,1.1681,11.5046,22.7141,12.4077
35.1562,21.0343,10.4832,9.7813,-0.2038,-0.6529,21.0123,-1.7101,-13.8583,26.5247,27.4646,18.4198,11.4885,2.2529,4.7443,38.4385,0.0488,7.9377,20.1691,9.1084
39.0625,20.3779,15.5381,5.0371,-4.5881,-5.2312,15.6504,-4.3797,-20.0031,25.1935,25.7163,17.0610,9.4021,-0.5173,0.6997,43.8248,2.6195,4.3443,17.9412,5.3799
42.9688,18.3553,21.9967,2.5367,-8.0808,-9.8396,8.9848,-4.0739,-25.7714,24.5957,23.4750,18.8899,8.3219,-2.3832,-3.6786,43.1871,7.7743,0.9547,16.5385,2.1524
46.8750,16.3530,26.3788,2.7150,-9.6185,-12.9911,3.5460,-2.2486,-29.4666,24.5521,22.7642,22.6789,8.5739,-3.2067,-7.3067,36.6019,13.4757,-1.7245,16.0481,0.2577
50.7812,15.7306,26.1611,4.5136,-8.8758,-13.6037,0.7560,-1.3599,-29.8600,24.4026,24.5950,26.4065,10.1264,-2.8725,-9.2383,26.8930,17.8595,-3.0443,16.1410,0.0525
54.6875,16.6976,20.9549,6.1491,-6.2971,-11.4321,0.4309,-3.1007,-26.6613,23.4397,27.9581,28.3090,12.5232,-1.3564,-9.1170,18.1832,20.1443,-2.5575,16.2727,1.2638
58.5938,17.9609,12.6303,6.2897,-2.7239,-7.0582,1.3333,-7.1318,-20.5071,21.3604,30.0729,27.7183,14.9988,1.1723,-7.2926,13.5499,20.7720,-0.3505,15.9650,3.1515
62.5000,17.4387,4.3629,4.8379,1.0969,-1.5086,2.1992,-11.2187,-12.5669,18.4146,27.9255,25.1661,16.7106,4.2845,-4.5653,13.2455,20.6993,2.8525,14.9896,4.8866
66.4062,13.5834,-0.9004,2.8066,4.7946,4.2317,2.4176,-12.7087,-4.0582,15.1344,20.2147,21.7102,16.9604,7.3219,-1.7516,14.6734,20.3587,5.9022,13.3418,5.9215
70.3125,6.4279,-1.8060,1.4333,8.3141,9.5335,1.9659,-10.3402,4.0664,11.8491,8.4463,17.9833,15.3226,9.5523,0.6609,14.1940,19.0648,7.6719,11.0602,6.1611
74.2188,-2.3197,0.8563,1.2142,11.6374,14.1507,0.8839,-5.1324,11.1880,8.3803,-3.6154,13.6845,11.7053,10.4278,2.6143,9.6108,15.3671,7.5484,8.0789,5.8878
78.1250,-10.1660,4.6388,1.5621,14.5518,18.0435,-1.0771,0.2632,16.9456,4.1989,-11.8924,7.9231,6.4099,9.8497,4.3579,1.6938,8.1768,5.7491,4.2767,5.5352
82.0312,-15.1038,6.6672,1.3005,16.6425,21.1709,-4.2419,3.2996,21.1583,-1.0382,-14.1795,0.1856,0.1867,8.2959,6.2317,-6.2901,-2.0934,3.3066,-0.2948,5.4552
85.9375,-16.4926,4.9746,-0.4242,17.4859,23.3845,-8.4487,3.1630,23.7963,-6.9811,-11.2533,-8.8057,-5.8192,6.6774,8.4739,-10.7419,-13.2188,1.6796,-5.2027,5.7691
89.8438,-15.1044,-0.7047,-3.5165,16.8640,24.4441,-12.7379,1.1861,24.9565,-12.5496,-6.2731,-17.0515,-10.3479,5.9219,11.0968,-10.1472,-22.0042,2.1087,-9.6767,6.3188
93.7500,-12.4576,-8.9920,-7.0369,14.8314,24.0969,-15.7109,-0.2046,24.7858,-16.4707,-2.9096,-22.1917,-12.5022,6.4567,13.8279,-6.1226,-25.8242,4.9794,-12.9520,6.6983
97.6562,-9.9441,-17.6101,-9.9003,11.6204,22.1576,-16.3772,0.7428,23.3756,-18.0414,-3.3689,-22.8207,-12.1918,7.8888,16.1272,-2.3831,-23.9218,9.5143,-14.6964,6.3659
101.5625,-8.2526,-24.3315,-11.5830,7.5045,18.5748,-14.8199,3.8441,20.7166,-17.5490,-7.4343,-19.3181,-10.2316,9.1225,17.3127,-2.3079,-17.6782,14.0153,-15.1913,4.8440
105.4688,-7.2946,-27.6415,-12.2928,2.7554,13.4894,-12.0982,7.0647,16.7782,-16.0021,-12.9218,-13.6252,-7.9438,8.9115,16.7984,-6.7061,-9.7408,16.6069,-15.0814,1.9668
109.3750,-6.5127,-26.9156,-12.5269,-2.2945,7.2714,-9.4293,7.8668,11.6638,-14.3360,-17.0777,-8.1171,-6.4389,6.5572,14.3572,-13.2381,-2.6227,16.1380,-14.8409,-1.9438
113.2812,-5.3088,-22.2616,-12.4527,-7.2008,0.4917,-7.3189,4.8979,5.7018,-12.6842,-17.9985,-4.3179,-6.0125,2.3253,10.2536,-17.8506,2.3432,12.7468,-14.3598,-6.1224
117.1875,-3.3877,-14.3350,-11.6825,-11.4878,-6.2056,-5.3885,-1.0855,-0.6383,-10.2914,-15.3346,-2.2720,-6.0628,-2.6964,5.1323,-17.2890,5.1531,7.7424,-13.0097,-9.6728
121.0938,-0.9312,-4.3051,-9.6641,-14.8586,-12.2962,-3.0585,-7.6212,-6.9704,-6.1776,-10.1059,-0.8745,-5.6005,-7.2280,-0.3025,-11.0986,6.5043,2.8434,-10.2037,-12.0206
125.0000,1.4263,6.1226,-6.3676,-17.3762,-17.5293,-0.4741,-11.9643,-13.1798,-0.0816,-3.9795,1.1929,-4.0072,-10.5110,-5.6174,-1.9028,6.9951,-0.7862,-6.0621,-13.2319
128.9062,2.8459,14.8931,-2.6589,-19.4327,-21.9365,1.2280,-12.6085,-19.3904,7.0389,1.4890,4.6177,-1.5093,-12.6392,-10.7604,6.1465,6.7495,-3.1115,-1.6526,-13.9581
132.8125,2.7412,20.1515,0.0346,-21.4652,-25.6764,0.7107,-9.9965,-25.6904,13.3791,5.3364,9.2059,0.9721,-14.2960,-15.8665,9.7499,5.6231,-5.0583,1.4667,-14.9956
136.7188,1.2899,20.9937,0.6023,-23.5891,-28.8136,-2.2377,-6.0778,-31.8028,17.3211,7.3611,14.2109,2.4837,-16.1021,-20.9035,8.2559,3.6658,-7.7240,2.1705,-16.7151
140.6250,-0.3076,17.9836,-0.9509,-25.4191,-31.1896,-5.9520,-3.0833,-36.9755,18.4164,8.0845,18.8304,2.7296,-18.0491,-25.4373,3.8953,1.3628,-11.4976,0.5505,-18.7443
144.5312,-0.1260,13.0283,-3.4046,-26.2462,-32.4789,-7.5221,-2.2998,-40.2304,17.6095,8.5514,22.4542,2.2797,-19.4330,-28.7282,0.4347,-0.5739,-15.6795,-2.0104,-20.1394
148.4375,3.5851,8.5574,-5.0502,-25.4828,-32.3872,-4.5976,-3.5278,-40.8550,16.5293,9.9406,24.5918,2.1393,-19.3429,-30.1241,1.0891,-1.6759,-18.8544,-3.5918,-19.9606
152.3438,11.2662,6.4018,-4.7684,-23.0812,-30.8404,2.8237,-5.4374,-38.8193,16.3391,13.0021,24.7455,2.9903,-17.3623,-29.4877,6.8354,-2.0421,-19.7709,-2.8732,-17.8836
156.2500,21.3281,6.9934,-2.7177,-19.6271,-28.0229,11.9504,-6.5113,-34.8316,16.9497,17.5173,22.5243,4.6486,-13.9858,-27.3506,15.9335,-2.2321,-18.1483,0.0617,-14.4450
160.1562,30.4096,9.3242,-0.1678,-16.0245,-24.2416,18.5561,-5.9897,-29.9791,17.1339,22.1181,18.0100,6.1284,-10.4453,-24.6586,24.7770,-2.8005,-14.8885,3.7680,-10.7583
164.0625,34.6801,11.6317,1.3790,-12.9726,-19.7263,19.3384,-4.3054,-25.1789,15.4413,24.7104,12.0532,6.2704,-8.0370,-22.2506,29.5607,-3.8226,-11.5604,6.2954,-7.8888
167.9688,31.6291,12.3497,1.1512,-10.5720,-14.5234,13.7509,-2.8209,-20.7787,11.2608,23.4219,6.1357,4.5090,-7.3643,-20.3812,27.9542,-4.7562,-9.4774,6.3196,-6.2814
171.8750,21.4179,10.7600,-0.4890,-8.3106,-8.5577,4.1491,-3.0489,-16.5260,5.3079,17.6221,1.7430,1.2777,-7.9566,-18.5618,20.0698,-4.7367,-8.9225,3.8652,-5.5736
175.7812,7.0241,7.0617,-2.4173,-5.4224,-1.8111,-5.7416,-5.7722,-11.8765,-0.7587,8.4258,-0.3915,-2.1854,-8.4773,-15.7939,8.3732,-3.1045,-8.9610,0.2350,-4.8586
179.6875,-6.9753,1.9895,-3.5558,-1.3855,5.5105,-12.9157,-10.5079,-6.4147,-5.2881,-1.6754,-0.6422,-4.4791,-7.3890,-11.0573,-3.3636,0.1508,-7.9309,-2.7437,-3.1888
183.5938,-16.4067,-3.6326,-3.5293,3.7288,12.9188,-16.3669,-15.5885,-0.1501,-7.5134,-9.9208,-0.1706,-4.7292,-3.7125,-3.8206,-11.6096,4.2557,-4.3383,-3.6735,-0.0245
187.5000,-19.2925,-9.1006,-2.7639,9.2168,19.7001,-16.9139,-18.8481,6.4148,-7.8292,-14.5463,-0.1441,-2.9642,2.4816,5.6176,-14.4788,7.8615,2.2941,-2.2240,4.5583
191.4062,-16.5571,-13.7903,-2.0691,13.9826,25.0233,-16.0189,-18.6162,12.3987,-7.3973,-15.5153,-1.0563,-0.0515,10.0359,16.0539,-12.4121,9.4910,11.0233,0.8039,9.9037
195.3125,-11.3409,-17.0950,-2.0915,16.9036,28.0562,-14.6520,-14.5548,16.7469,-7.4269,-14.3213,-2.6241,2.6849,17.0922,25.5933,-7.8452,8.0738,19.7074,3.9079,14.9499
199.2188,-7.3212,-18.5457,-3.0369,17.1731,28.1078,-12.9970,-7.9180,18.4852,-8.6023,-12.9967,-4.2838,3.9462,21.7259,32.1285,-4.0098,3.4161,25.7696,5.5285,18.4689
203.1250,-6.9025,-18.0873,-4.7699,14.5404,24.8344,-10.9689,-1.0730,17.0244,-10.9204,-12.9129,-5.8344,2.8709,22.6057,33.9963,-3.4096,-3.5647,27.2043,4.6286,19.3710
207.0312,-10.1611,-16.2534,-7.0869,9.4198,18.4790,-8.8562,3.5112,12.4668,-13.8793,-14.0665,-7.6680,-0.6953,19.4654,30.6069,-6.6884,-11.0084,23.4155,1.0474,17.0776
210.9375,-15.0151,-14.0008,-9.8633,2.8387,10.0010,-7.4082,4.3125,5.7612,-16.7728,-15.2509,-10.3664,-6.0992,13.2215,22.7604,-12.4277,-16.7444,15.5078,-4.4242,11.8602
214.8438,-18.4835,-12.2185,-12.9610,-3.8172,0.9204,-7.2965,1.3165,-1.4876,-18.8912,-14.9990,-13.9723,-11.9935,5.6600,12.4093,-17.9597,-19.2062,5.8531,-10.2532,4.9373
218.7500,-18.3646,-11.2257,-16.0379,-9.2447,-7.1724,-8.4945,-4.1718,-7.6047,-19.6071,-12.7179,-17.5394,-16.6970,-1.2291,1.8782,-20.7622,-18.2037,-2.9214,-14.6320,-1.8466
222.6562,-14.4620,-10.6415,-18.5128,-12.7125,-13.2545,-10.2046,-10.3023,-11.6072,-18.4527,-9.3064,-19.3966,-18.7474,-6.0152,-7.1205,-19.7107,-15.0829,-9.0680,-16.1020,-6.7232
226.5625,-8.7091,-9.7590,-19.7944,-14.3556,-17.2982,-11.4562,-15.5552,-13.7077,-15.2631,-6.8104,-18.0360,-17.4555,-8.3408,-14.1463,-15.5536,-12.0827,-12.4019,-14.1208,-8.7685
230.4688,-4.1028,-8.1677,-19.6274,-15.0659,-20.1806,-11.8679,-19.2157,-15.1807,-10.3274,-7.2317,-13.0588,-13.1951,-8.9194,-19.9596,-10.4089,-11.1767,-14.1596,-9.3057,-8.3002
234.3750,-2.9958,-6.1443,-18.2638,-15.9646,-23.0595,-11.8820,-21.2497,-17.5651,-4.4068,-11.1424,-5.5361,-7.2506,-9.0114,-25.7428,-6.6037,-13.0474,-16.1012,-3.1859,-6.6349
238.2812,-5.6857,-4.4733,-16.2801,-17.7114,-26.5590,-12.2205,-21.8023,-21.6229,1.4746,-16.9623,2.4779,-1.2652,-9.6661,-32.0902,-5.5066,-16.8017,-19.3732,2.4676,-5.3101
242.1875,-10.1314,-3.7910,-14.1405,-20.0504,-30.2758,-13.0133,-20.7903,-26.7067,6.3940,-21.4608,8.9718,3.4358,-11.1615,-38.4225,-6.9503,-20.5799,-23.8037,6.4132,-5.2269
246.0938,-13.0349,-3.9366,-11.8374,-21.8975,-32.9493,-13.3912,-17.9490,-30.9893,9.8523,-21.3607,12.8903,6.3005,-12.9534,-43.2185,-9.4718,-22.6412,-28.0402,8.4042,-6.2297
250.0000,-11.7338,-3.8486,-8.9156,-21.9629,-33.2212,-12.0071,-13.3101,-32.4874,11.8636,-15.2216,14.3927,7.5705,-14.1289,-44.9204,-11.1417,-22.2285,-30.4152,9.0990,-7.3649
253.9062,-5.8275,-2.1819,-4.9179,-19.5661,-30.5169,-8.1807,-7.7022,-30.2827,12.7719,-4.5033,14.3792,7.9129,-14.0477,-42.9151,-10.4780,-19.7232,-29.9687,9.4921,-7.6203
257.8125,2.4512,1.7038,0.0432,-15.1598,-25.4859,-2.7809,-2.7785,-25.1815,12.9357,6.9092,13.6947,7.9241,-12.7582,-37.9455,-6.9910,-16.1252,-26.9820,10.2213,-6.6476
261.7188,9.4017,7.0462,5.0084,-10.2359,-19.7212,1.9338,-0.3873,-19.3845,12.4919,14.5662,12.5877,7.8018,-10.9484,-31.6987,-1.2061,-12.3408,-22.7258,11.1721,-5.0063
265.6250,11.9123,11.7956,8.4439,-6.6487,-14.9404,3.5471,-1.5919,-15.3492,11.3357,15.6917,10.7604,7.3359,-9.5066,-25.8686,5.6624,-8.7979,-18.6531,11.5942,-3.8079
269.5312,9.1908,13.5547,8.9535,-5.7286,-12.1494,0.9927,-5.9772,-14.5270,9.2892,10.5061,7.8948,6.1559,-9.0067,-21.3230,12.0760,-5.5616,-15.6041,10.6190,-4.0286
273.4375,3.1146,10.8176,6.0230,-7.6722,-11.2878,-4.7234,-11.7638,-16.7071,6.3105,1.8587,4.1980,4.0342,-9.4388,-17.8839,16.3934,-2.6977,-13.5225,7.8316,-5.9456
277.3438,-3.0169,3.7868,0.3531,-11.5126,-11.5104,-11.1259,-16.7438,-20.2987,2.5904,-6.5756,0.5154,1.0527,-10.3098,-14.7777,17.0157,-0.4872,-11.7798,3.5419,-9.0186
281.2500,-6.5498,-5.6890,-6.4111,-15.6346,-11.8388,-15.8037,-19.4781,-23.2933,-1.5081,-12.3885,-2.1079,-2.4360,-10.9849,-11.3585,12.6781,0.6887,-9.7839,-1.3759,-12.2222
285.1562,-7.0690,-14.9699,-12.3821,-18.5113,-11.7134,-17.8286,-19.9789,-24.2767,-5.5921,-15.5142,-3.1204,-5.9811,-11.0150,-7.5719,3.0074,0.6274,-7.3995,-5.9271,-14.5558
289.0625,-6.5206,-21.7414,-16.1615,-19.2619,-11.1103,-18.1056,-19.4181,-22.9146,-9.3333,-17.6791,-2.9086,-9.2009,-10.2594,-3.8795,-10.8385,-0.5680,-4.9169,-9.4143,-15.4095
292.9688,-7.7988,-24.7788,-17.2286,-17.7964,-10.2394,-18.4695,-19.0675,-19.7472,-12.4468,-20.7092,-2.6344,-11.8397,-8.7910,-0.7827,-25.9068,-2.6476,-2.6792,-11.5794,-14.6303
296.8750,-12.7008,-24.0586,-15.8641,-14.5782,-9.1399,-20.2070,-19.2252,-15.5820,-14.5950,-24.9272,-3.5141,-13.7048,-6.7184,1.6352,-38.0014,-5.4692,-0.7226,-12.4364,-12.3652
300.7812,-20.5455,-20.3540,-12.7778,-10.2466,-7.5313,-23.0496,-18.9167,-10.9805,-15.3404,-28.7655,-5.9822,-14.5693,-4.0900,3.7894,-43.0995,-9.0305,1.2634,-11.9905,-8.8833
304.6875,-28.3262,-14.7253,-8.7390,-5.3619,-5.0467,-25.3047,-16.6276,-6.1706,-14.2606,-29.8486,-9.3026,-14.1536,-0.9457,6.2415,-39.1166,-13.1656,3.6333,-10.1076,-4.5279
308.5938,-32.3126,-8.2492,-4.4298,-0.4014,-1.6655,-24.9986,-11.5793,-1.3527,-11.2228,-26.7578,-11.9269,-12.2522,2.5359,9.1874,-27.1302,-17.1752,6.3885,-6.6773,0.2083
312.5000,-30.1455,-2.0338,-0.5234,4.0761,2.0034,-21.2399,-4.6414,2.9318,-6.6796,-20.2239,-12.4250,-8.9647,5.9179,12.1553,-11.2920,-19.8340,9.0027,-1.9723,4.6104
316.4062,-22.1993,2.7163,2.1936,7.3013,4.8384,-14.9165,1.8193,5.7278,-1.7652,-12.9044,-10.4161,-4.8865,8.5137,14.1239,2.7212,-19.9700,10.6067,3.0758,7.8021
320.3125,-11.4594,4.8599,2.8643,8.3802,5.6917,-8.3158,5.1311,6.0097,1.9666,-7.8803,-6.8914,-1.0867,9.5453,13.9816,10.0718,-17.2991,10.4086,6.9668,8.9647
324.2188,-2.0331,3.7549,0.8397,6.6195,3.9577,-3.9401,3.8051,3.2412,3.1367,-6.8751,-3.6864,1.2160,8.3982,11.0477,8.8045,-12.8591,8.0730,8.1649,7.6204
328.1250,2.8441,-0.2785,-3.9372,1.9305,-0.1212,-3.2341,-1.6438,-2.2173,1.2173,-9.3458,-2.4021,1.1898,4.8738,5.3731,0.5536,-8.5692,3.8393,5.8530,3.8367
332.0312,2.2461,-5.8448,-10.6871,-4.9388,-5.5905,-5.9150,-9.0562,-9.1370,-3.0796,-12.9724,-3.4499,-1.1240,-0.6658,-2.2994,-10.4037,-6.0872,-1.6440,0.4942,-1.7521
335.9375,-2.2369,-10.9180,-17.8911,-12.5299,-11.2598,-10.1968,-15.8869,-15.8943,-7.9866,-15.1403,-5.8311,-4.6863,-7.3361,-10.8401,-19.2154,-5.7418,-7.6205,-6.1733,-8.1157
339.8438,-7.5056,-13.6920,-23.7469,-19.1545,-16.2295,-13.7087,-20.5028,-21.1300,-11.4326,-14.4171,-7.7930,-7.8585,-13.9689,-19.1201,-22.5745,-6.3751,-13.4709,-11.8008,-14.1246
343.7500,-10.5621,-13.3817,-26.8013,-23.5267,-20.1762,-14.6077,-22.7079,-24.2398,-12.0250,-11.1438,-7.9364,-9.1956,-19.4897,-26.3138,-19.8997,-6.3085,-18.7987,-14.4726,-18.8724
347.6562,-9.9010,-10.5102,-26.4746,-25.2424,-23.2834,-12.3698,-23.2851,-25.4695,-9.7436,-6.9259,-6.0605,-8.2392,-23.2876,-32.0289,-13.1604,-4.7778,-23.3852,-13.6088,-21.9271
351.5625,-6.0601,-6.5223,-23.2462,-24.8751,-25.9248,-7.9547,-23.0503,-25.6294,-5.9465,-3.5216,-3.2277,-5.8559,-25.4100,-36.2622,-5.6371,-2.7586,-27.1053,-10.2507,-23.4338
355.4688,-1.1637,-2.9863,-18.4362,-23.6470,-28.3291,-3.3229,-22.1930,-25.6391,-2.6659,-1.8992,-1.0638,-3.8821,-26.4704,-39.2340,-0.3489,-2.4825,-29.8779,-6.5685,-24.0245
359.3750,2.2433,-0.8865,-13.6970,-22.8434,-30.4199,-0.5366,-20.3571,-26.1485,-1.5808,-1.9662,-0.8063,-4.2239,-27.2955,-41.1759,1.1199,-5.9028,-31.6629,-4.8375,-24.5373
363.2812,2.4848,-0.4078,-10.4253,-23.2436,-31.8755,-0.8171,-17.2698,-27.3649,-3.2409,-2.9405,-2.7267,-7.8761,-28.4770,-42.1571,-1.0030,-13.1774,-32.4735,-6.3963,-25.6210
367.1875,-0.4388,-1.2320,-9.3032,-24.8038,-32.3081,-3.9515,-13.2904,-29.0614,-6.9448,-3.9499,-6.2210,-14.3831,-30.0537,-42.0189,-5.0808,-22.2720,-32.3718,-11.0842,-27.3718
371.0938,-4.8920,-3.0010,-10.0966,-26.6890,-31.4187,-8.3178,-9.3523,-30.6634,-11.2630,-4.4410,-10.3564,-22.0043,-31.4779,-40.4482,-8.9524,-29.9928,-31.4426,-17.3734,-29.1710
375.0000,-8.4633,-5.5218,-11.7582,-27.6013,-29.0467,-11.5540,-6.3191,-31.3547,-14.8108,-4.2587,-14.3700,-28.4608,-31.8689,-37.1528,-10.9079,-33.7307,-29.7543,-23.0588,-29.8382
378.9062,-9.2131,-8.5504,-12.8045,-26.2647,-25.1462,-11.6139,-4.3096,-30.2354,-16.7842,-3.5339,-17.7476,-31.8451,-30.4068,-32.0515,-10.3956,-32.7159,-27.3241,-26.1326,-28.0799
382.8125,-6.6695,-11.4025,-11.8772,-21.9097,-19.7847,-7.7432,-2.6071,-26.5942,-17.0119,-2.5755,-19.9424,-31.2579,-26.6735,-25.3872,-8.2026,-28.0001,-24.1015,-25.4639,-23.0717
386.7188,-2.0392,-12.8522,-8.3245,-14.6204,-13.2234,-0.9106,-0.3023,-20.2755,-15.6547,-1.8174,-20.1451,-26.9585,-20.8111,-17.7210,-6.0157,-21.3660,-19.9971,-21.0773,-14.9250
390.6250,2.4859,-11.6036,-2.5800,-5.4392,-6.0385,6.5406,2.8112,-11.9753,-12.9152,-1.7226,-17.5024,-20.1018,-13.4862,-9.8313,-5.5105,-14.1314,-14.9767,-14.0356,-4.8227
394.5312,4.9346,-7.1623,3.8628,3.8396,0.8385,11.8799,5.8317,-3.2344,-9.0343,-2.5632,-11.7798,-12.3051,-5.7321,-2.5817,-7.3798,-6.7839,-9.2121,-6.0687,5.2604
398.4375,4.5653,-0.5222,8.9468,11.1707,6.2681,13.1479,7.2368,3.9964,-4.5457,-4.1676,-4.0142,-5.2541,1.2514,3.1986,-10.8317,0.3924,-3.2190,0.8929,13.1554
402.3438,2.0753,5.9168,10.8562,14.9121,9.2306,9.9271,5.9563,8.0895,-0.4852,-5.8668,3.4284,-0.4194,6.3051,6.8204,-13.9255,6.4134,2.1316,5.1706,17.1803
406.2500,-1.0911,9.3381,8.7723,14.3830,9.1943,3.3676,2.2206,8.4108,1.7563,-6.8026,7.6429,1.1656,8.5303,7.8498,-14.6610,9.3887,5.8068,5.7074,16.6426
410.1562,-3.8454,7.9167,3.1986,10.0695,6.3266,-4.4916,-2.5096,5.5364,0.9768,-6.4901,6.4963,-0.8862,7.5105,6.2334,-12.2425,7.4136,6.9855,2.2992,11.9822
414.0625,-6.1823,1.8121,-4.3181,3.3656,1.4281,-11.6950,-6.5369,0.8680,-3.1838,-5.2630,-0.2579,-6.1523,3.4837,2.3907,-7.7297,0.0212,5.4500,-4.3629,4.5376
417.9688,-8.9944,-6.8837,-11.9127,-4.0224,-4.3689,-17.0942,-9.1131,-4.1299,-9.9035,-4.2227,-10.7117,-13.3872,-2.6261,-2.7998,-3.5829,-10.9099,1.7805,-12.8593,-3.9313
421.8750,-13.0802,-15.2265,-18.1630,-10.6989,-9.9652,-20.4759,-10.8920,-8.5941,-17.3937,-4.6153,-21.5339,-20.7472,-9.3778,-8.1611,-2.2773,-21.6077,-2.7886,-21.3769,-11.7537
425.7812,-18.0763,-20.8643,-22.4785,-15.9170,-14.5363,-22.1382,-13.2583,-12.4222,-23.5700,-6.9882,-29.2902,-26.2436,-15.1766,-12.5011,-4.7931,-28.1073,-6.8206,-28.1277,-17.7158
429.6875,-22.1778,-22.9812,-24.9799,-19.5202,-17.5860,-22.3150,-17.0190,-15.8764,-26.8106,-10.6988,-31.6794,-28.3037,-18.7286,-14.9340,-9.9421,-28.1991,-9.2320,-31.7522,-21.2168
433.5938,-23.0170,-22.2604,-26.0729,-21.6388,-18.8903,-20.9164,-21.4871,-18.9873,-26.4371,-14.1640,-28.1791,-26.2652,-19.4437,-15.1382,-15.0095,-22.4408,-9.6945,-31.6374,-22.2540
437.5000,-19.2384,-20.0589,-26.0933,-22.4296,-18.4745,-17.7920,-24.7441,-21.2571,-22.7788,-15.7483,-19.9922,-20.6398,-17.6408,-13.4726,-17.3620,-13.6725,-8.7098,-28.0933,-21.3258
441.4062,-11.7212,-17.4723,-25.2697,-22.0553,-16.6820,-13.2939,-24.9861,-21.9350,-16.9297,-14.7294,-9.5151,-13.0396,-14.4687,-10.9134,-16.0263,-5.4447,-7.3535,-22.3247,-19.3042
445.3125,-3.5046,-14.9215,-23.9360,-20.8569,-14.2488,-8.6341,-21.9916,-20.6767,-10.3972,-11.6928,0.3903,-5.7354,-11.5336,-8.8033,-12.2328,-0.3811,-6.8235,-16.1323,-17.2599
449.2188,1.7335,-12.4019,-22.6766,-19.4707,-12.2157,-5.6136,-17.5721,-18.0659,-4.7501,-8.0757,7.1527,-0.9190,-10.3250,-8.4435,-8.5629,0.6266,-7.9827,-11.3344,-16.1948
453.1250,1.8050,-10.0008,-22.1323,-18.6658,-11.5899,-5.7388,-14.5535,-15.5217,-1.2504,-5.1663,9.2068,0.1214,-11.6235,-10.6189,-7.2283,-1.8233,-11.0487,-9.0530,-16.6963
457.0312,-2.5882,-8.1296,-22.5038,-18.9151,-12.8690,-9.2355,-14.9140,-14.5475,-0.4530,-3.2483,6.5398,-2.4087,-15.1292,-15.2252,-8.5721,-6.4546,-15.5108,-9.1604,-18.6373
460.9375,-8.1509,-7.2303,-23.1298,-19.9851,-15.7059,-14.6551,-18.3629,-15.7814,-1.8934,-1.4949,0.8227,-6.7808,-19.5091,-21.1924,-10.7472,-12.0027,-20.2893,-10.2232,-21.1098
464.8438,-10.9047,-7.2300,-22.5720,-20.8979,-18.9823,-19.4580,-22.3997,-18.5142,-4.1004,1.2990,-5.0971,-10.4064,-22.9052,-26.8246,-10.8045,-17.4096,-24.0971,-10.0940,-22.7215
468.7500,-8.5797,-7.2804,-19.3292,-20.4024,-21.3270,-21.3230,-23.8703,-21.0623,-5.0995,5.6466,-8.2900,-10.9792,-23.7211,-30.4714,-6.5616,-21.6734,-25.8970,-6.9514,-22.1898
472.6562,-2.0055,-6.1206,-12.8191,-17.7241,-21.8229,-19.4067,-20.9902,-21.8061,-3.2873,10.7151,-6.9844,-7.5697,-21.3280,-31.2349,1.8453,-23.7716,-25.2880,-0.2809,-18.9656
476.5625,5.3779,-2.8909,-3.9810,-13.1210,-20.4829,-14.7474,-14.4680,-20.2244,1.7467,14.5862,-1.3098,-1.0837,-16.3288,-29.3335,11.6459,-22.9234,-22.6384,8.7606,-13.5448
480.4688,9.5862,2.1827,4.9818,-7.8512,-18.1947,-9.5441,-6.9977,-17.2316,8.9431,15.3261,6.8893,6.2112,-10.2275,-25.8909,18.5921,-19.0527,-18.8715,17.8436,-7.2602
484.3750,8.4503,7.7725,11.6586,-3.5290,-16.1536,-5.7864,-1.5134,-14.5767,16.2564,12.2174,15.0669,11.8684,-4.6704,-22.2433,19.0334,-13.0397,-14.9824,24.5897,-1.6377
488.2812,2.8325,12.1697,14.6752,-1.2478,-15.1293,-4.1373,0.5690,-13.6934,21.6543,6.3726,21.2030,14.5093,-0.6643,-19.1591,11.8839,-6.4341,-11.5314,27.6973,2.3384
492.1875,-3.9842,14.2645,14.3556,-1.0112,-15.0127,-3.7778,-0.0416,-14.7551,24.0517,0.3217,24.5249,14.4353,1.8104,-16.4409,-0.5010,-0.6935,-8.3994,27.4487,4.6442
496.0938,-8.2682,14.1126,12.3925,-1.8078,-14.9075,-3.2344,-1.3598,-16.5421,23.6484,-3.2136,25.3820,13.2839,3.6125,-13.1531,-13.0223,3.6041,-4.9551,25.3541,6.0939
500.0000,-7.9202,12.7171,10.7637,-2.2551,-13.6849,-1.5407,-1.7095,-17.1921,21.5369,-2.6665,24.5279,12.9774,5.8271,-8.3290,-19.8800,7.0402,-0.5348,23.2018,7.7697
503.9062,-3.4577,11.2217,10.5971,-1.3919,-10.6510,1.0960,-0.8739,-15.3356,18.9149,1.6475,22.4345,14.6112,9.0967,-1.7119,-17.1208,10.8874,5.0558,22.1067,10.3481
507.8125,2.5306,10.1215,11.6785,0.8468,-5.9383,3.5176,-0.0418,-10.9031,16.4442,7.7700,19.1418,17.9076,13.2542,5.9318,-4.5763,16.1232,11.3200,22.0766,13.6977
511.7188,6.9485,9.0452,12.8213,3.7008,-0.4324,4.4491,-0.6972,-5.1379,14.1225,13.0974,14.6641,21.4710,17.4058,13.1102,13.7303,22.5139,17.2545,22.2459,16.9419
515.6250,7.7623,7.2149,12.7532,6.0807,4.6768,3.2581,-3.3432,0.1343,11.6329,15.5476,9.5127,23.5973,20.3634,18.3225,31.0159,28.3602,21.8151,21.5207,18.9103
519.5312,4.7525,4.1966,10.8981,7.1534,8.4463,0.1243,-7.0053,3.4974,8.8215,14.3090,4.8203,23.1265,21.1773,20.7709,40.4990,31.1489,24.3912,19.2045,18.7130
523.4375,-0.7431,0.3696,7.6023,6.7040,10.5545,-4.3506,-9.8312,4.6104,5.9328,9.9119,1.9013,19.9129,19.5356,20.6810,38.3179,28.8423,25.0392,15.2905,16.1545
527.3438,-6.6908,-3.2147,3.7875,5.1413,11.3505,-9.6002,-10.3058,4.2164,3.4789,3.7696,1.5434,14.7791,15.8968,19.1026,25.2692,21.1465,24.3919,10.3732,11.8219
531.2500,-11.2332,-5.4694,0.3731,3.2185,11.5937,-15.1557,-8.2081,3.5624,1.9008,-2.4459,3.5437,9.1049,11.3378,17.3421,6.5100,10.0384,23.3286,5.3395,6.8422
535.1562,-13.2139,-5.9582,-2.1439,1.6401,12.0175,-20.3072,-4.6950,3.6079,1.2933,-7.2827,6.8070,4.3002,7.1711,16.3407,-10.6845,-0.8296,22.5800,1.0305,2.4334
539.0625,-12.3472,-5.1876,-3.7801,0.7293,12.9086,-23.8300,-1.5578,4.4679,1.3575,-9.7574,9.9101,1.3533,4.4483,16.2846,-20.0665,-7.6488,22.4298,-2.0142,-0.5715
542.9688,-9.2013,-4.3409,-4.9193,0.2867,13.8983,-24.2734,-0.2419,5.3685,1.5582,-9.4707,11.7387,0.5539,3.5338,16.5979,-18.9750,-8.1683,22.6135,-3.6995,-2.0314
546.8750,-5.0731,-4.6212,-6.1011,-0.2883,14.1014,-20.8247,-1.2727,5.1243,1.3634,-6.6973,11.8399,1.4484,3.9615,16.3040,-9.1373,-2.7081,22.4594,-4.3737,-2.4880
550.7812,-1.6730,-6.5567,-7.8265,-1.6237,12.6071,-14.1696,-4.3189,2.8856,0.4674,-2.4119,10.4137,3.0729,4.7139,14.6030,4.5476,6.0974,21.2474,-4.6400,-2.8036
554.6875,-0.5340,-9.5991,-10.3420,-3.8879,9.1217,-6.5884,-8.6298,-1.2252,-1.0327,1.9004,8.1226,4.4333,4.8472,11.4177,16.4976,14.6954,18.6690,-4.9891,-3.5852
558.5938,-2.2822,-12.2039,-13.3927,-6.4546,4.4082,-0.9925,-13.3853,-5.9438,-2.5410,4.7495,5.9114,5.0431,4.1390,7.6313,22.9042,20.3586,15.1680,-5.4107,-4.6966
562.5000,-6.1578,-12.4046,-16.0779,-7.9907,0.1833,0.6020,-17.7267,-9.3119,-3.0475,5.3281,4.8437,5.2091,3.3345,4.8242,23.0113,22.2750,11.9163,-5.2485,-5.1863
566.4062,-10.1853,-8.7202,-17.0343,-7.0512,-1.6081,-1.8300,-20.6321,-9.5873,-1.4998,4.0170,5.8196,5.8164,3.7521,4.5395,18.7919,21.3968,10.3204,-3.5033,-3.7674
570.3125,-12.0589,-1.0688,-15.0396,-2.9376,0.1725,-6.4198,-20.9989,-6.1826,2.5804,2.3212,9.1195,7.6632,6.4140,7.3969,13.4390,19.2751,11.2404,0.4908,0.3551
574.2188,-10.3281,8.7612,-9.8045,3.6796,5.1020,-10.6330,-18.1109,-0.1143,8.5354,2.1280,13.9914,10.7491,11.2361,12.5582,9.5983,16.7690,14.3573,6.4088,6.7973
578.1250,-5.1995,17.4690,-2.4507,10.8371,11.2381,-12.7569,-12.2485,6.3528,14.5028,4.6155,18.6713,14.0461,16.8557,17.9420,8.2371,13.5754,18.1439,12.7834,13.9384
582.0312,1.5490,21.4937,4.7628,16.1348,16.0333,-12.6204,-4.9324,10.7454,18.0984,9.4332,21.0665,16.0208,21.2956,21.1873,8.5862,8.8936,20.5785,17.5941,19.6335
585.9375,7.4977,18.7111,9.4749,17.9486,17.6397,-11.1327,1.5674,11.5771,17.6385,14.7011,19.8707,15.6448,23.0945,20.8758,8.9950,2.6601,20.2512,19.3309,22.3356
589.8438,10.7806,9.7269,10.4791,16.2790,15.8304,-9.1459,5.3159,9.0330,13.2265,17.9210,15.4545,13.2175,22.1652,17.2830,8.1234,-3.6860,17.1893,17.8932,21.9431
593.7500,10.8321,-2.0500,8.4213,12.6907,11.9690,-6.6333,5.7602,4.7581,6.9536,17.3257,9.8677,10.3611,19.7812,12.1535,5.8058,-7.6463,12.8309,14.7087,19.8076
597.6562,8.3183,-11.7864,5.4371,9.3515,8.0586,-2.8682,4.0217,0.8872,1.9271,12.8972,5.8019,9.0822,17.6662,7.5961,3.1503,-7.1445,9.1074,11.9367,17.8545
601.5625,4.4618,-15.4492,3.8944,7.7627,5.4960,2.5696,2.1656,-1.0916,0.5945,6.4459,5.0679,10.4622,16.7940,4.7826,1.8522,-2.0373,7.1979,11.2214,17.3582
605.4688,0.3326,-11.6925,5.0047,7.9729,4.3338,8.8396,1.8695,-0.9793,3.3601,0.7015,7.5377,13.8598,16.7243,3.2901,3.1104,5.4863,6.7818,12.7749,18.1566
609.3750,-3.4198,-2.3553,8.1662,8.7336,3.4819,13.8110,3.3566,0.2915,8.3766,-2.0588,11.2466,17.1994,15.9314,1.5116,6.7581,12.0218,6.2953,15.3493,18.8057
613.2812,-6.3642,8.6704,11.4251,8.4246,1.6254,15.1160,5.3125,1.3965,12.6696,-1.0719,13.5992,18.1877,12.8855,-2.1612,11.1405,14.9015,4.0226,17.0623,17.5467
617.1875,-7.9992,17.4631,12.7049,6.0851,-1.8310,11.5924,5.8479,1.3895,13.8831,2.6991,12.8930,15.6500,7.1164,-8.2027,13.8794,13.6583,-0.7312,16.4879,13.4214
621.0938,-7.7943,21.7439,10.9829,1.8795,-6.4369,4.1035,3.8477,0.0285,11.5301,7.2102,9.1864,10.1017,-0.4817,-15.6323,13.1527,9.9892,-7.1825,13.3038,6.8033
625.0000,-5.6164,21.2964,6.6927,-3.2243,-11.1374,-4.8263,-0.2272,-2.4270,6.9909,10.3705,4.0269,3.2232,-8.2789,-22.6822,8.7572,6.2736,-13.6106,8.1620,-0.9523
628.9062,-2.1621,17.1488,1.2023,-8.2263,-15.0664,-12.2833,-4.6384,-5.6459,2.3638,10.8722,-0.6580,-3.3219,-14.9770,-27.9329,2.2817,3.7473,-18.4776,2.0180,-8.4217
632.8125,1.0946,10.3745,-4.1647,-12.7179,-18.0759,-16.2805,-7.5563,-9.4854,-0.9693,8.4701,-3.6855,-8.8505,-20.3277,-31.1007,-3.7810,1.6812,-21.3235,-4.5083,-14.9184
636.7188,2.5898,1.5190,-8.8632,-16.9533,-20.6565,-16.3554,-8.3005,-13.9208,-3.0702,3.7608,-5.0375,-13.7542,-25.0140,-32.9699,-7.4865,-1.8397,-22.8485,-11.2838,-20.6648
640.6250,1.5995,-8.9646,-13.1796,-21.4298,-23.4159,-13.3070,-7.7730,-18.8143,-5.0461,-2.2280,-5.4470,-18.7569,-29.8484,-34.6217,-8.5469,-8.1428,-24.2135,-18.3090,-26.3034
644.5312,-1.2725,-19.7941,-17.6960,-26.3812,-26.5999,-8.5300,-7.7919,-23.8276,-7.9283,-8.3496,-5.6280,-23.9876,-34.9351,-36.6090,-8.3592,-16.5657,-26.1427,-25.2444,-32.1878
648.4375,-4.4901,-28.4454,-22.6353,-31.5802,-30.0395,-3.5253,-9.8058,-28.6122,-11.7098,-13.4833,-5.7919,-28.6135,-39.4328,-38.6996,-8.9091,-24.5289,-28.4917,-31.2523,-37.9921
652.3438,-6.6601,-31.9017,-27.5583,-36.5234,-33.4873,0.2327,-13.8850,-33.1012,-15.2397,-16.6350,-5.7538,-31.3085,-42.0696,-40.3068,-11.2731,-29.0983,-30.5264,-35.2995,-42.8714
656.2500,-7.5254,-28.3045,-31.5586,-40.7432,-36.9506,1.3504,-18.6718,-37.5709,-17.0010,-17.1309,-5.4045,-31.1755,-41.9932,-41.1610,-14.7572,-28.9337,-31.5926,-36.6776,-45.9728
660.1562,-8.0990,-18.4435,-33.7415,-43.9296,-40.6409,-1.1345,-22.2878,-42.3034,-16.1676,-14.8817,-5.0482,-28.4092,-39.3211,-41.6087,-17.3071,-25.2094,-31.5984,-35.3477,-46.8694
664.0625,-9.7545,-5.9593,-33.6392,-45.7767,-44.5239,-7.1109,-23.5392,-47.0503,-13.1823,-10.5416,-5.2790,-24.2128,-35.0181,-42.2648,-16.9520,-20.8245,-30.9445,-31.8793,-45.6247
667.9688,-12.8946,4.1050,-31.3439,-45.7733,-47.8709,-14.9438,-22.5908,-50.7450,-9.4952,-5.3811,-6.5051,-20.0581,-30.2472,-43.3075,-13.3018,-18.4480,-30.0321,-27.0890,-42.5341
671.8750,-16.2165,7.6958,-27.3822,-43.2453,-49.2891,-21.7840,-20.6914,-51.8116,-6.7053,-0.8649,-8.5446,-16.8481,-25.7046,-44.0339,-8.0357,-18.7807,-28.8169,-21.6849,-37.8435
675.7812,-17.2529,3.7275,-22.4919,-37.7432,-47.3722,-24.7502,-19.2106,-48.9912,-5.7156,1.8724,-10.6541,-14.5623,-21.3963,-43.1070,-3.9912,-20.2448,-26.8138,-16.1563,-31.7051
679.6875,-13.9739,-5.4797,-17.4318,-29.5355,-41.6010,-22.4049,-18.6998,-42.1808,-6.4121,2.3817,-11.9838,-12.5591,-16.9352,-39.3872,-3.4208,-20.2804,-23.5473,-10.8895,-24.3724
683.5938,-6.4188,-15.5002,-12.8423,-19.7982,-32.8570,-15.6017,-18.6168,-32.6929,-7.9568,0.9299,-12.0982,-10.2172,-12.0434,-32.7644,-6.5692,-17.2873,-19.0564,-6.2904,-16.3925
687.5000,2.8102,-22.0318,-9.1181,-10.2675,-23.1230,-7.0998,-17.8361,-22.6991,-9.3820,-1.7417,-11.1663,-7.4072,-6.8488,-24.3759,-11.5135,-11.8312,-14.0152,-2.7229,-8.5537
691.4062,9.6758,-22.7923,-6.3018,-2.5022,-14.5028,-0.1396,-15.5134,-14.1779,-10.0657,-4.7472,-9.7083,-4.4915,-1.7935,-16.0339,-15.3604,-6.2919,-9.3550,-0.2903,-1.5721
695.3125,10.8731,-18.1655,-4.0848,2.7875,-8.1774,3.1484,-11.6696,-8.0272,-9.8645,-7.3031,-8.1537,-1.9612,2.6863,-9.2502,-15.9977,-3.2592,-5.6894,1.3177,4.2422
699.2188,5.7310,-10.4986,-1.9850,5.9154,-3.9677,2.5582,-7.1216,-3.8867,-8.9664,-8.8542,-6.5941,-0.0738,6.3915,-4.5167,-13.2738,-3.8331,-3.0041,2.7025,9.0484
703.1250,-3.3292,-2.6902,0.3463,7.8066,-0.7482,-0.5123,-2.8875,-0.7119,-7.6751,-9.1405,-4.9150,1.2125,9.3109,-1.2866,-8.9091,-6.9945,-0.8522,4.3735,13.1875
707.0312,-12.0637,3.0640,2.8727,9.3054,2.6233,-4.1102,0.4520,2.3577,-6.2797,-8.2522,-3.1497,2.0164,11.3806,1.4119,-5.3068,-10.4015,1.1255,6.3616,16.7533
710.9375,-16.6297,5.8170,5.1565,10.6714,6.5141,-6.7175,2.9813,5.4474,-5.0169,-6.6313,-1.7019,2.2799,12.3141,4.2169,-4.0983,-11.9647,2.7936,8.1299,19.3647
714.8438,-15.4510,5.7010,6.6057,11.5550,10.3584,-7.6337,5.1602,8.0267,-4.0540,-4.9307,-1.2024,1.7440,11.6962,7.0465,-5.3250,-11.0702,3.5683,8.8754,20.3336
718.7500,-9.7230,3.4218,6.8080,11.3754,13.1411,-6.7884,7.2900,9.4461,-3.4588,-3.7269,-2.0849,0.1791,9.2859,9.2703,-7.6437,-8.6632,2.8743,8.0179,19.1142
722.6562,-2.4493,-0.1744,5.7021,9.7647,14.0992,-4.4402,9.1473,9.4532,-3.2048,-3.2314,-4.2117,-2.3465,5.2771,10.2078,-9.2732,-6.2740,0.6393,5.5278,15.6967
726.5625,3.2454,-4.2854,3.4703,6.7569,13.1333,-1.1406,10.0270,8.2948,-3.2627,-3.2262,-6.8570,-5.4117,0.2870,9.5423,-9.0226,-4.8145,-2.5791,1.8732,10.6559
730.4688,5.4965,-8.1733,0.2760,2.6602,10.7129,2.0883,9.1281,6.3888,-3.7371,-3.3262,-9.0755,-8.4708,-4.9405,7.3921,-6.8472,-4.0676,-5.9354,-2.3401,4.8301
734.3750,4.1364,-11.1997,-3.8895,-2.1986,7.4512,3.7685,6.0084,3.8989,-4.9161,-3.4096,-10.2011,-11.1837,-9.8959,4.0876,-3.7676,-3.2069,-8.8365,-6.7302,-1.1150
738.2812,0.2432,-12.9594,-9.0732,-7.6055,3.7286,2.4874,0.8503,0.5979,-7.1222,-3.8671,-10.1415,-13.5854,-14.4617,-0.0825,-1.3423,-1.8742,-11.2613,-11.2266,-6.9205
742.1875,-4.6509,-13.4449,-15.0255,-13.3760,-0.3774,-2.2335,-5.5527,-3.8597,-10.4084,-5.3853,-9.3210,-15.9611,-18.7663,-4.9373,-0.9940,-0.9092,-13.6263,-15.8481,-12.6312
746.0938,-9.1441,-13.0935,-20.9635,-19.1860,-4.8854,-9.3207,-12.0212,-9.4846,-14.3108,-8.3268,-8.3858,-18.5402,-22.8739,-10.2745,-3.4101,-2.0739,-16.3224,-20.3992,-18.2915
750.0000,-12.1733,-12.6289,-25.7139,-24.5244,-9.6682,-16.3696,-17.3157,-15.6991,-17.8874,-12.1421,-7.9183,-21.2501,-26.5676,-15.7200,-8.1480,-6.8541,-19.2933,-24.3727,-23.7131
753.9062,-13.0523,-12.7411,-28.2394,-28.8553,-14.3923,-20.7611,-20.4967,-21.5065,-20.0959,-15.3394,-8.3111,-23.7092,-29.3922,-20.7300,-13.5841,-15.1345,-21.9707,-27.1615,-28.4876
757.8125,-11.6064,-13.7554,-28.2355,-31.8727,-18.6560,-21.0630,-21.2627,-25.9813,-20.3098,-16.2128,-9.7539,-25.4278,-30.9019,-24.7571,-17.3592,-24.7041,-23.5946,-28.4104,-32.1948
761.7188,-8.4117,-15.4526,-26.3678,-33.6260,-22.1640,-17.8266,-20.1518,-28.7369,-18.6332,-13.9586,-12.1795,-26.0300,-30.9044,-27.4376,-17.3356,-32.0589,-23.6597,-28.2100,-34.5917
765.6250,-4.8514,-17.1214,-23.9274,-34.3852,-24.7658,-13.2353,-18.4312,-30.0514,-15.7855,-9.4236,-15.1084,-25.3241,-29.5082,-28.6415,-12.7514,-34.1242,-22.1643,-26.9478,-35.6093
769.5312,-2.6802,-17.8089,-22.0696,-34.3275,-26.3401,-9.8048,-17.5689,-30.5816,-12.6142,-4.8586,-17.5213,-23.2109,-26.9555,-28.3619,-4.9570,-29.9001,-19.5188,-24.9136,-35.1770
773.4375,-3.1256,-16.6572,-21.1014,-33.2851,-26.6641,-8.9517,-18.4286,-30.8709,-9.5593,-2.6773,-17.9899,-19.5725,-23.3962,-26.5700,2.8640,-21.0261,-16.2299,-21.9663,-33.0645
777.3438,-5.9953,-13.1964,-20.2716,-30.7662,-25.4282,-10.2996,-20.6051,-30.9751,-6.4292,-3.9396,-15.1681,-14.3007,-18.7995,-23.1932,7.0969,-10.9012,-12.6194,-17.5496,-28.9323
781.2500,-9.4392,-7.5134,-18.2060,-26.2670,-22.4237,-12.0748,-22.3821,-30.4163,-2.6386,-7.5636,-8.4746,-7.4857,-13.0821,-18.2576,5.6076,-2.8635,-8.7627,-11.1023,-22.6055
785.1562,-10.7145,-0.2713,-13.7335,-19.6840,-17.7691,-12.2488,-21.5154,-28.4586,2.2576,-10.8608,1.4112,0.3735,-6.3604,-12.0768,-0.9201,1.5000,-4.6410,-2.6178,-14.3901
789.0625,-7.6723,7.4079,-6.6250,-11.5555,-11.9892,-9.6787,-16.5200,-24.5224,8.0961,-11.1262,12.5757,8.3270,0.8618,-5.3103,-9.1138,2.9309,-0.3472,7.0225,-5.1823
792.9688,-0.1427,14.1787,2.1593,-2.9721,-5.8676,-4.6114,-7.7284,-18.5146,14.0135,-7.2824,22.4728,15.1830,7.7201,1.1932,-14.5746,3.6654,3.8171,16.1961,3.7441
796.8750,9.6615,18.8149,10.8247,4.8059,-0.1548,1.6086,2.5946,-10.9341,18.7968,-0.5039,28.8195,19.8854,13.2378,6.6926,-14.1763,5.7509,7.4097,23.1391,11.1801
800.7812,18.0763,20.6180,17.4974,10.8241,4.6912,7.3165,11.2780,-2.7277,21.4763,6.5808,30.3611,21.8742,16.6820,10.8068,-7.6574,9.5759,10.0146,26.7070,16.4116
804.6875,21.8136,19.7708,21.0101,14.7744,8.5991,11.2940,15.8891,5.0348,21.8248,11.5510,27.2013,21.2659,17.8535,13.5775,2.4172,13.5301,11.4017,26.9044,19.4205
808.5938,19.6693,17.4395,21.3690,17.0562,11.8013,13.1667,16.0343,11.5366,20.4988,13.5820,20.6594,18.8041,17.1796,15.3288,12.2214,15.0041,11.6083,24.9091,20.7875
812.5000,13.1364,15.4396,19.7125,18.5460,14.6550,13.3461,13.5101,16.4862,18.7437,13.6383,12.8272,15.6240,15.5576,16.4316,18.7061,12.1024,10.9260,22.5534,21.3786
816.4062,5.5662,15.4583,17.7697,20.1683,17.4535,12.6528,11.1874,20.1390,17.7990,13.4066,6.0162,12.9050,13.9886,17.1089,20.8316,5.0048,9.7951,21.4799,21.9664
820.3125,0.3657,18.1128,17.0274,22.4306,20.2637,11.8340,11.2896,23.0194,18.2714,13.8008,2.1884,11.4831,13.1285,17.3510,19.3643,-3.8873,8.6189,22.3444,22.9175
824.2188,-0.7406,22.3583,17.9530,25.1069,22.8022,11.1809,14.0978,25.4526,19.7683,14.1582,2.3960,11.5090,12.9402,16.9323,15.6369,-11.1425,7.5412,24.4404,24.0261
828.1250,1.5697,25.7190,19.6578,27.2301,24.4003,10.3988,17.8323,27.1783,20.9919,12.7276,6.3259,12.2898,12.6401,15.4931,10.3577,-14.1424,6.2935,25.9574,24.5467
832.0312,4.8495,25.4221,20.2444,27.4536,24.1449,8.8081,19.7360,27.3296,20.3056,8.1028,12.1779,12.4647,11.0343,12.6739,3.3967,-12.4894,4.2516,24.8086,23.4540
835.9375,6.4106,19.9408,17.7612,24.6712,21.2351,5.8117,17.6729,24.8809,16.5508,0.5537,17.1123,10.5570,7.1536,8.2992,-5.3620,-8.1547,0.7673,19.6720,19.8882
839.8438,4.8183,10.0642,11.3239,18.6157,15.4521,1.3926,11.3045,19.3503,9.7197,-7.7411,18.2766,5.7239,0.8922,2.5723,-14.8993,-4.2957,-4.3344,10.7331,13.6296
843.7500,0.5129,-1.2632,1.7768,10.1082,7.4833,-3.6794,2.2235,11.3160,1.0952,-13.7935,14.0436,-1.6699,-6.7164,-3.8237,-22.7263,-3.4621,-10.3748,-0.2866,5.3573
847.6562,-4.7029,-10.4114,-8.5539,0.7770,-1.1571,-8.1389,-6.9391,2.3525,-7.2871,-15.5405,4.8399,-10.0290,-13.8081,-9.8254,-25.8247,-6.2491,-15.8532,-10.8804,-3.5014
851.5625,-8.8880,-15.0743,-16.9636,-7.6365,-8.6698,-10.9142,-13.8583,-5.6617,-13.6172,-13.0705,-6.9397,-17.1607,-18.4814,-14.3097,-22.3786,-11.1498,-18.9828,-18.9128,-11.3158
855.4688,-11.0894,-15.5891,-21.7327,-14.0030,-13.7249,-11.8063,-17.5651,-11.4738,-17.1853,-8.5356,-17.9652,-21.2722,-19.6633,-16.4973,-13.1477,-15.6064,-18.4988,-23.5462,-16.9179
859.3750,-11.6986,-14.6600,-22.9358,-18.1333,-15.9904,-11.6825,-18.6940,-15.0280,-18.6152,-4.8261,-25.4181,-21.7735,-17.5524,-16.2153,-1.4792,-17.5344,-14.2905,-25.4032,-19.9985
863.2812,-11.9027,-15.5539,-22.1905,-20.5269,-16.0989,-11.9885,-18.8861,-17.2736,-19.2828,-3.8831,-28.0647,-19.4094,-13.3749,-13.8514,8.1823,-16.3607,-7.4666,-25.8814,-20.9897
867.1875,-12.6870,-19.8626,-21.5032,-21.7395,-15.0682,-13.8432,-19.7242,-19.3161,-20.2740,-5.7212,-26.4032,-15.6567,-8.6065,-10.0365,12.4420,-12.9939,0.2041,-26.0713,-20.5287
871.0938,-14.1043,-26.2880,-21.9639,-21.8363,-13.5687,-17.2955,-21.7727,-21.4901,-21.5664,-8.7108,-21.9315,-11.7914,-4.1569,-5.2844,10.4945,-8.8836,7.1476,-25.9878,-18.8989
875.0000,-15.3001,-31.3066,-23.1407,-20.3391,-11.5479,-21.2401,-24.2159,-23.0219,-22.0109,-10.8261,-16.1147,-8.2461,-0.0279,0.1469,4.2028,-4.9151,12.6213,-24.6281,-15.8728
878.9062,-15.2287,-31.3507,-23.5446,-16.7179,-8.4757,-24.0480,-25.2926,-22.5627,-20.1586,-10.9662,-9.7498,-4.6529,4.3627,6.0727,-3.1891,-0.9452,16.7760,-20.8124,-11.0841
882.8125,-13.4947,-25.1242,-21.7971,-11.0678,-4.0247,-24.4796,-23.3346,-19.2565,-15.3916,-9.4894,-3.0554,-0.4797,9.4531,12.0459,-8.7992,3.7288,20.1773,-14.2253,-4.6452
886.7188,-10.6673,-14.5498,-17.6632,-4.4422,1.3316,-22.2788,-17.8810,-13.5964,-8.5722,-7.6916,3.7523,4.2575,14.9412,17.1821,-11.2321,9.3822,23.1670,-5.9242,2.4964
890.6250,-7.8028,-3.7343,-12.2335,1.4703,6.2867,-18.1096,-10.2313,-7.4227,-1.7269,-6.6771,9.9725,8.7606,19.7566,20.3720,-10.5625,15.1778,25.5195,2.0683,8.8153
894.5312,-5.5272,3.3645,-7.1714,5.1808,9.3226,-12.9893,-3.0271,-2.9839,3.0665,-6.4438,14.4721,11.8822,22.6386,20.8251,-7.4865,19.3918,26.6063,7.8473,12.9813
898.4375,-3.4107,5.0639,-3.6086,6.2217,9.6005,-7.7029,1.0385,-1.6327,4.8646,-5.8119,16.2628,12.9054,22.9292,18.6037,-2.4609,20.4794,25.9050,10.6754,14.6426
902.3438,-0.2125,2.5736,-1.4975,5.3986,7.5154,-2.6217,0.7265,-3.0095,4.3381,-3.2393,15.1550,12.0840,21.0298,14.7524,4.4684,18.2320,23.4569,11.3078,14.6465
906.2500,5.0548,-1.1418,0.1405,4.2752,4.5103,2.0377,-2.9219,-5.2734,3.2412,2.0150,11.9797,10.5222,18.1909,10.8517,13.0742,14.1324,19.9290,11.3870,14.4802
910.1562,11.9618,-3.3463,2.3100,4.1952,2.2318,5.8529,-7.0407,-6.2566,3.2539,9.1297,8.2021,9.4536,15.7465,8.1956,22.1620,10.5284,16.2298,12.3197,15.2567
914.0625,18.3325,-3.0046,5.1883,5.4524,1.5476,8.1312,-8.5320,-4.8141,4.9794,15.8610,5.2122,9.4232,14.2769,7.0680,29.3583,9.1004,12.9447,14.3810,16.9074
917.9688,21.1946,-0.8889,7.9598,7.1289,2.0459,8.2522,-5.8983,-1.5101,7.7321,19.5428,3.7867,9.9532,13.2414,6.5637,31.8643,9.6704,9.9780,16.6104,18.1337
921.8750,18.5699,1.4965,9.4296,7.6869,2.3268,6.1503,-0.1725,1.7773,10.1741,18.4200,4.0308,9.9283,11.3210,5.0942,27.8758,10.2439,6.6489,17.5194,17.1785
925.7812,10.9686,3.1995,8.9194,5.9284,0.8979,2.5213,5.6961,3.0520,11.2777,12.6077,5.6964,8.4242,7.2707,1.3080,17.8487,8.3544,2.1886,16.0955,12.9338
929.6875,1.4957,4.3380,6.7567,1.7224,-2.8824,-1.4557,8.6606,1.4149,10.9222,4.1696,8.4847,5.3903,0.7620,-5.0905,4.7759,2.8435,-3.6672,12.4322,5.6875
933.5938,-5.6900,5.5861,4.0012,-3.9244,-8.3765,-4.7100,7.4413,-2.4603,9.7586,-3.7415,12.0230,1.7079,-7.2874,-13.0820,-6.8387,-5.1517,-10.3563,7.6104,-2.9512
937.5000,-7.7223,7.1969,1.6439,-9.4523,-13.9884,-6.7663,3.2096,-6.8421,8.5393,-8.2797,15.5782,-1.4006,-15.0874,-20.7677,-12.8923,-12.7333,-16.6421,2.9814,-10.8712
941.4062,-4.7196,8.4564,-0.0963,-13.5922,-18.0157,-7.8048,-1.3585,-10.0557,7.4821,-8.1805,17.9014,-3.1764,-20.8267,-26.2509,-11.5450,-16.9778,-21.1659,-0.6177,-16.4999
945.3125,0.2992,8.0597,-1.8404,-15.9529,-19.5227,-8.3043,-3.9923,-11.4535,6.1617,-4.3096,17.5728,-3.7672,-23.5133,-28.4854,-4.0827,-16.6965,-23.1031,-3.1942,-19.4437
949.2188,3.2820,5.1382,-4.4424,-17.0427,-18.7544,-8.5869,-4.3595,-11.6470,3.9823,0.7850,13.8138,-4.0056,-23.3493,-27.6665,5.6788,-13.0176,-22.5687,-5.3163,-20.4155
953.1250,1.6378,0.1311,-8.1766,-17.7890,-16.9029,-8.6126,-4.1519,-11.9260,0.8337,4.1204,7.2528,-4.7085,-21.4830,-25.0107,13.1772,-8.4223,-20.5582,-7.4944,-20.5971
957.0312,-4.2162,-5.2032,-12.3453,-18.9109,-15.4152,-8.1346,-5.6882,-13.3222,-2.6060,3.7389,-0.0036,-6.0295,-19.3380,-22.1024,15.2164,-4.9843,-18.4596,-9.7123,-20.9054
960.9375,-11.2062,-8.7104,-15.6200,-20.5439,-15.2620,-7.0304,-10.0705,-15.9650,-5.1782,-0.3338,-5.2635,-7.3511,-17.9342,-20.1862,11.3850,-3.1212,-17.3992,-11.4433,-21.6081
964.8438,-15.5639,-9.0931,-16.8937,-22.3052,-16.5627,-5.5156,-16.2478,-19.1296,-5.9613,-6.1195,-6.6973,-7.8029,-17.5650,-19.7600,4.1041,-1.7580,-17.7668,-12.1069,-22.4406
968.7500,-15.0922,-6.6625,-16.0503,-23.6850,-18.7203,-4.0871,-21.6719,-21.8736,-4.8901,-10.7079,-4.4492,-7.0247,-17.9345,-20.6079,-2.6997,0.2945,-19.1538,-11.5935,-23.0269
972.6562,-10.3089,-3.1147,-14.1099,-24.4473,-20.9090,-3.2807,-24.0556,-23.7624,-2.8358,-11.7497,-0.6296,-5.5885,-18.5636,-22.1554,-5.6159,2.8989,-20.6981,-10.4414,-23.2399
976.5625,-3.8603,-0.5161,-12.6301,-24.7506,-22.5742,-3.4486,-22.9313,-25.1461,-1.0819,-8.6358,1.9140,-4.7220,-19.1370,-23.8678,-3.4411,4.3167,-21.5982,-9.5058,-23.2365
980.4688,1.2456,-0.1645,-12.7410,-24.9123,-23.6305,-4.6816,-19.8676,-26.7923,-0.5448,-2.7382,1.3313,-5.4635,-19.5563,-25.4436,2.3147,2.4371,-21.4753,-9.3337,-23.1759
984.3750,3.3465,-1.9980,-14.4224,-25.0030,-24.2723,-6.8336,-17.2096,-29.1504,-1.2422,3.3967,-2.0790,-7.8106,-19.7151,-26.7344,8.3410,-3.3567,-20.3877,-9.6864,-22.8645
988.2812,2.7240,-4.8086,-16.4679,-24.5850,-24.5754,-9.5305,-16.3140,-31.7925,-2.3319,7.4187,-6.0439,-10.4739,-19.2366,-27.5260,11.3398,-11.1437,-18.5450,-9.5660,-21.6331
992.1875,0.9076,-7.0058,-17.1484,-22.8268,-24.2180,-12.1400,-16.6198,-33.4681,-2.6588,8.3048,-7.7035,-11.4771,-17.4504,-27.4092,9.7410,-17.1925,-15.9792,-7.7773,-18.5886
996.0938,-0.6303,-7.4143,-15.1754,-18.9749,-22.5632,-13.8268,-16.2519,-32.7912,-1.4346,6.6189,-5.3190,-9.2861,-13.7085,-25.8892,4.3955,-18.1283,-12.4476,-3.6893,-13.1320
1000.0000,-1.4177,-5.6929,-10.4140,-12.9149,-19.0942,-13.8318,-13.6816,-29.1358,1.3627,3.8199,0.7726,-3.7805,-7.8675,-22.6913,-2.0833,-13.1006,-7.6598,2.2806,-5.4412
1003.9062,-2.0045,-2.2794,-3.9714,-5.4621,-13.9226,-11.9298,-9.1574,-23.1581,5.0653,1.1477,8.4912,3.5513,-0.6065,-18.0528,-6.8793,-4.4139,-1.6655,8.7760,3.3885
1007.8125,-3.2340,1.9494,2.3435,1.8416,-8.0036,-8.7689,-4.7802,-16.5819,8.7381,-1.1312,15.3068,10.3356,6.6818,-12.7719,-8.4863,3.8788,4.8994,14.1499,11.6669
1011.7188,-5.4181,6.0363,6.8666,7.3583,-2.8479,-5.7447,-3.1163,-11.3545,11.6320,-3.6054,19.5763,14.5285,12.4249,-7.9291,-7.3074,8.4850,10.9291,17.2624,17.7570
1015.6250,-8.0143,9.1681,8.7781,10.0844,0.1572,-4.3212,-5.3427,-8.6690,13.3907,-6.8419,21.0780,15.3962,15.5452,-4.4169,-5.0795,8.7675,15.2913,17.9565,20.7208
1019.5312,-9.9490,10.7764,8.3270,10.0794,0.4384,-5.1431,-10.2890,-8.4261,13.9531,-10.4318,20.5408,13.6994,15.8883,-2.5464,-3.5994,6.7470,17.3293,16.9552,20.6300
1023.4375,-10.2652,10.5955,6.5289,8.3580,-1.4708,-7.5431,-15.0895,-9.4192,13.3183,-12.7487,18.6828,11.0358,14.1710,-1.9624,-3.6179,5.2998,17.1084,15.2894,18.3927
1027.3438,-8.6432,8.7175,4.5501,6.3124,-4.2201,-9.8744,-16.9929,-10.0829,11.4106,-11.7493,15.5656,8.8055,11.5092,-1.9065,-4.5825,5.9116,15.2718,13.6440,15.2081
1031.2500,-5.5345,5.5951,3.1209,4.9877,-6.3437,-10.5510,-15.0615,-9.3382,8.1652,-6.4124,10.7414,7.4605,8.8303,-1.6618,-5.2928,7.6237,12.6339,12.0238,11.9573
1035.1562,-1.9494,1.9166,2.2603,4.5940,-6.9712,-9.1354,-10.6106,-7.0670,3.7539,2.1166,4.0129,6.4536,6.5050,-0.9164,-4.9220,7.8830,9.7965,9.8996,8.8525
1039.0625,0.9135,-1.6572,1.3946,4.4817,-6.1636,-6.7032,-6.1807,-4.0331,-1.2696,10.5396,-3.8690,4.8208,4.3553,0.1389,-3.6669,4.5950,7.0138,6.6750,5.4990
1042.9688,2.0473,-4.7890,-0.2533,3.5446,-4.7394,-5.1714,-3.8729,-1.4017,-6.0810,14.7803,-11.2026,1.9341,1.9442,0.9904,-2.6119,-2.1802,4.3167,2.1307,1.2847
1046.8750,0.9726,-7.6163,-3.2444,0.8090,-3.7565,-6.0060,-4.2392,-0.1873,-9.9436,12.0627,-16.1369,-2.0881,-1.0853,1.1193,-2.9724,-10.1417,1.7215,-3.4332,-4.1548
1050.7812,-2.0334,-10.6266,-7.6753,-4.0827,-3.9709,-9.1973,-6.3919,-0.8930,-12.5979,2.5283,-17.7635,-6.5325,-4.8154,0.2773,-5.2914,-16.3041,-0.6740,-9.3935,-10.6577
1054.6875,-5.9517,-14.2739,-13.1619,-10.6816,-5.5344,-13.2347,-9.0282,-3.4098,-14.4022,-10.5786,-16.7361,-10.6162,-9.0436,-1.3913,-9.1319,-19.0235,-2.7641,-15.1406,-17.5573
1058.5938,-9.4153,-18.5287,-18.9793,-17.8623,-8.0027,-16.1127,-11.4241,-7.0851,-16.0854,-22.3380,-14.9457,-13.9668,-13.3714,-3.3940,-13.4052,-19.0154,-4.5627,-20.2972,-23.9391
1062.5000,-11.4105,-22.6462,-24.2311,-24.1768,-10.5554,-16.6654,-13.6105,-10.8654,-18.2270,-28.4548,-14.4119,-16.7268,-17.2935,-5.0558,-17.0261,-18.6667,-6.2234,-24.6933,-28.9570
1066.4062,-11.9177,-25.3578,-27.9823,-28.2930,-12.2810,-15.2786,-15.7171,-13.5054,-20.7912,-27.2071,-16.0793,-19.2588,-20.2725,-5.7471,-19.4194,-20.1996,-7.9043,-28.1816,-32.0542
1070.3125,-11.9999,-25.4670,-29.3872,-29.3859,-12.4407,-13.4836,-17.2093,-13.8956,-23.0387,-20.0478,-19.2773,-21.7211,-21.8479,-5.1235,-20.5995,-24.0402,-9.5918,-30.4944,-33.0325
1074.2188,-13.1106,-22.5632,-27.8780,-27.3762,-10.6853,-12.7434,-16.8312,-11.4855,-23.9167,-10.6444,-22.1722,-23.8472,-21.8035,-3.3022,-20.8991,-28.5248,-11.0541,-31.2839,-32.0105
1078.1250,-15.9413,-17.4296,-23.4113,-22.9367,-7.2040,-13.3270,-13.4463,-6.6328,-22.7138,-2.9830,-22.9148,-25.0807,-20.3168,-0.8788,-20.6465,-31.0661,-11.9983,-30.3178,-29.3361
1082.0312,-19.5808,-11.8339,-16.6519,-17.2424,-2.7330,-14.0959,-7.1520,-0.6268,-19.5723,0.4156,-20.7702,-24.9403,-17.9545,1.2830,-20.0259,-29.8750,-12.3138,-27.6627,-25.4857
1085.9375,-21.6962,-7.7172,-8.9183,-11.5375,1.6510,-13.3583,0.2945,4.7494,-15.5133,-0.6726,-16.5533,-23.3337,-15.4369,2.4471,-19.1208,-25.0339,-12.1924,-23.6965,-20.9440
1089.8438,-19.8273,-6.1819,-1.8005,-6.6879,4.9356,-10.1689,6.2399,7.9788,-11.9217,-4.5195,-12.1392,-20.6001,-13.2577,2.3994,-17.9673,-18.2849,-11.9953,-18.9264,-16.0698
1093.7500,-13.0708,-6.8532,3.4381,-2.9277,6.6109,-5.1374,8.6874,8.5060,-9.7755,-8.5623,-9.3671,-17.2717,-11.3927,1.5956,-16.4935,-11.8454,-11.9453,-13.7454,-10.9956
1097.6562,-3.0410,-8.0304,6.3851,0.0788,6.8920,-0.1631,7.5718,6.9532,-9.0717,-10.6084,-8.9813,-13.7417,-9.3132,0.9187,-14.4183,-7.1683,-11.8863,-8.3016,-5.6337
1101.5625,6.6461,-7.5965,7.6243,2.9043,6.5599,2.7255,4.8173,4.7072,-8.7897,-9.5894,-10.1960,-10.0682,-6.3409,1.1424,-11.3100,-4.4394,-11.3264,-2.5606,0.1769
1105.4688,12.1845,-4.1962,8.3820,5.9591,6.4806,2.6335,3.0757,3.1128,-7.4232,-5.7004,-11.0947,-6.0266,-2.1389,2.4141,-6.9058,-2.9472,-9.7723,3.5084,6.4442
1109.3750,11.6316,1.9827,9.8387,9.2549,7.0827,0.3283,3.9860,2.7610,-3.7904,-0.0883,-9.6256,-1.3530,2.9749,4.1030,-1.5237,-1.8390,-7.1344,9.7673,12.8510
1113.2812,5.9555,9.2644,12.4743,12.4436,8.1182,-2.2753,7.1421,3.2902,2.3018,5.6375,-4.6669,3.9812,8.1007,5.1468,3.7808,-0.6436,-3.9061,15.8673,18.7580
1117.1875,-1.5465,15.3191,15.7978,15.0506,8.8565,-3.2883,10.4453,3.7752,9.8649,9.8842,3.3615,9.6112,12.1692,4.6986,7.5606,0.6901,-0.9735,21.3183,23.3987
1121.0938,-7.0635,18.2805,18.5924,16.7054,8.5719,-1.9062,11.5419,3.3949,17.0730,11.4767,12.6101,14.7989,14.4248,2.6615,8.7065,2.0234,0.8289,25.5816,26.1569
1125.0000,-8.2144,17.5425,19.5219,17.2139,6.9973,1.2585,9.3164,1.9219,21.9632,9.9614,20.5524,18.6107,14.6867,-0.2473,7.1030,3.1567,1.1257,28.1287,26.7691
1128.9062,-5.0446,13.8837,17.7683,16.4725,4.4507,4.6531,4.4452,-0.2587,23.1840,5.7530,25.0057,20.1973,13.2713,-2.9468,3.7291,3.7371,0.1145,28.4956,25.3528
1132.8125,0.3192,8.9804,13.3954,14.3701,1.5861,6.6528,-1.2504,-2.5372,20.5066,0.0362,24.9556,19.0998,10.6972,-4.6589,0.0938,3.1807,-1.6519,26.4069,22.2881
1136.7188,4.9457,4.6531,7.3067,10.8252,-1.0289,6.2606,-6.0593,-4.5436,14.9232,-5.6012,20.8445,15.4894,7.4142,-5.3478,-2.6235,0.9212,-3.6356,21.9824,18.0637
1140.6250,6.5005,2.2049,0.8750,5.9695,-3.2070,3.3291,-9.3008,-6.3495,8.3005,-9.6986,14.2527,10.2226,3.7229,-5.6599,-4.1235,-3.0226,-5.5777,15.9109,13.1888
1144.5312,4.1185,2.0350,-4.5629,0.3233,-5.1329,-1.6178,-11.3336,-8.3074,2.6993,-11.4002,7.1844,4.6214,-0.1319,-6.4380,-4.8707,-7.5949,-7.5141,9.4062,8.1790
1148.4375,-1.4502,3.5445,-8.1367,-5.2305,-7.1103,-7.6677,-12.8288,-10.6991,-0.4056,-10.6808,1.3280,0.0053,-3.8511,-8.1625,-5.4698,-10.9057,-9.5896,3.8531,3.5417
1152.3438,-8.2553,5.3197,-9.6630,-9.7383,-9.2796,-13.6878,-14.0147,-13.4809,-0.6908,-8.2542,-2.3836,-2.8397,-7.0932,-10.6883,-6.0874,-11.2232,-11.8417,0.2603,-0.3044
1156.2500,-13.8692,5.6139,-9.6030,-12.5882,-11.5046,-18.4039,-14.5279,-16.2908,0.9352,-5.2539,-3.7947,-3.9735,-9.6056,-13.4089,-6.4009,-8.2236,-14.1072,-1.1783,-3.1583
1160.1562,-16.2412,3.1012,-8.7910,-13.7762,-13.4708,-20.5837,-13.9378,-18.6655,2.8222,-2.8509,-3.2541,-4.1877,-11.3491,-15.6727,-6.0732,-3.5933,-16.0825,-1.1254,-5.1132
1164.0625,-14.5176,-2.3296,-8.0418,-13.8420,-14.8811,-19.4378,-12.4285,-20.2696,3.4328,-1.9374,-1.3082,-4.4930,-12.4850,-17.1379,-5.2712,-0.3646,-17.4659,-0.6845,-6.4873
1167.9688,-9.5405,-9.1848,-7.8066,-13.5126,-15.6008,-15.1050,-10.9902,-20.9826,2.1289,-2.9143,1.4363,-5.5000,-13.2223,-17.8483,-4.6814,-1.2028,-18.0831,-0.7657,-7.6216
1171.8750,-3.6722,-14.7914,-8.0383,-13.2985,-15.6834,-8.8897,-10.8803,-20.8409,-0.5470,-5.5798,4.2701,-7.0725,-13.6519,-18.0517,-4.9240,-6.6651,-17.9444,-1.6268,-8.6770
1175.7812,0.1968,-16.5433,-8.3395,-13.3053,-15.3170,-2.9647,-12.7180,-19.9577,-3.2575,-9.1411,6.3359,-8.4724,-13.7109,-17.9623,-5.8482,-14.6005,-17.2352,-2.8566,-9.5792
1179.6875,0.1066,-13.3900,-8.2974,-13.3508,-14.7627,0.4443,-15.8906,-18.5217,-4.6852,-12.4093,6.7858,-8.8813,-13.3030,-17.6561,-6.4015,-21.1837,-16.2486,-3.7606,-10.1540
1183.5938,-3.8349,-6.6506,-7.7870,-13.2410,-14.3092,0.0297,-18.7485,-16.8519,-4.2626,-14.1933,5.1890,-7.9270,-12.4496,-17.1301,-5.3507,-23.0035,-15.2581,-3.8337,-10.3306
1187.5000,-9.4065,0.5040,-7.0234,-12.9513,-14.2006,-3.9811,-19.4996,-15.3877,-2.3638,-13.7799,1.9859,-5.8439,-11.3067,-16.4000,-2.3943,-18.9123,-14.3421,-2.9808,-10.2244
1191.4062,-13.4818,4.7581,-6.3213,-12.5713,-14.5118,-9.9006,-17.2331,-14.5316,0.1202,-11.2603,-1.3660,-3.1796,-10.0002,-15.4984,1.2570,-10.5009,-13.2349,-1.3811,-10.0013
1195.3125,-13.8149,4.5703,-5.7461,-12.0910,-15.0245,-15.3019,-12.4293,-14.4086,2.4706,-7.4741,-2.8146,-0.3079,-8.4123,-14.3641,3.4781,-0.9783,-11.3299,0.8087,-9.6229
1199.2188,-10.2686,1.0695,-4.9529,-11.2642,-15.2311,-17.9960,-6.6832,-14.7335,4.5657,-3.5408,-0.6484,2.8366,-6.1394,-12.7573,2.7735,6.7280,-7.9283,3.5930,-8.7129
1203.1250,-4.6804,-2.7090,-3.4009,-9.7273,-14.5544,-16.7952,-1.8695,-14.9442,6.7291,-0.2248,5.4722,6.5617,-2.7409,-10.3500,-0.3070,11.4037,-2.6779,6.9588,-6.7300
1207.0312,0.5062,-3.7922,-0.8394,-7.3343,-12.7210,-11.7832,0.7298,-14.5691,9.1508,2.4618,13.9791,10.8954,1.8353,-7.0040,-3.0545,13.6978,4.0237,10.5342,-3.4077
1210.9375,3.8371,-1.1483,2.2812,-4.4556,-10.0714,-4.1278,0.8840,-13.5958,11.3849,5.1280,21.7745,15.1671,6.9386,-3.0634,-2.1341,15.1089,10.9433,13.4279,0.8225
1214.8438,5.5114,3.7770,4.8271,-1.9749,-7.5672,4.3286,-0.6802,-12.5624,12.3918,8.3896,25.4859,18.0853,11.2841,0.5778,4.0959,16.6702,16.3844,14.5002,4.7639
1218.7500,6.6806,8.1880,5.5064,-0.9196,-6.4165,11.4810,-2.7668,-12.2686,11.1833,12.1650,23.0582,18.3545,13.4375,2.7525,14.0432,18.2531,18.8819,12.9714,6.8823
1222.6562,8.0091,9.8823,3.6058,-1.9324,-7.4885,15.3291,-4.3112,-13.2749,7.6309,15.3777,14.8828,15.4538,12.4697,2.5286,23.3013,18.8297,17.8525,8.9670,6.0360
1226.5625,8.7082,8.6117,-0.5452,-4.9230,-10.8448,14.3863,-4.8529,-15.5208,2.8143,16.3308,3.8281,10.0396,8.4066,-0.3313,26.9428,17.3161,13.8323,3.5744,2.0859
1230.4688,6.9008,5.9252,-5.7135,-9.1180,-15.6602,8.1820,-4.7319,-18.3149,-1.4325,13.5952,-5.9385,3.6653,2.2183,-5.2219,22.3208,13.3006,8.1693,-1.6951,-3.9897
1234.3750,1.1322,3.7110,-10.4281,-13.4520,-20.5662,-2.2825,-4.9268,-20.6843,-3.5513,6.9112,-10.8247,-2.0226,-4.6220,-10.9314,10.6289,7.2155,2.3761,-5.7171,-10.5468
1238.2812,-8.0914,2.6151,-13.7275,-17.0213,-24.2046,-14.4379,-6.5408,-21.8268,-3.2037,-2.4251,-9.4808,-6.0912,-10.7319,-16.1074,-3.7364,0.0301,-2.4654,-8.2938,-16.0168
1242.1875,-17.9549,1.5759,-15.4977,-19.3211,-25.6839,-24.6875,-10.0942,-21.3705,-1.4870,-11.9307,-3.4343,-8.6170,-15.2454,-19.7043,-15.5490,-7.1301,-5.9350,-10.0625,-19.5065
1246.0938,-24.5749,-1.1706,-16.2220,-20.1927,-24.7565,-29.5790,-14.9744,-19.3337,-0.2625,-18.8790,3.6359,-10.3330,-17.9096,-21.2289,-21.3506,-13.1442,-8.1108,-11.8636,-20.9624
1250.0000,-25.0918,-6.4095,-16.4033,-19.6461,-21.7389,-27.2015,-19.4421,-15.9299,-1.0375,-21.3567,7.6328,-11.9446,-18.9267,-20.7659,-20.7622,-16.9066,-9.2494,-14.0522,-20.9138
1253.9062,-19.2674,-12.9268,-16.1473,-17.7884,-17.3375,-18.1593,-21.3713,-11.4626,-4.1288,-18.9593,5.9355,-13.6337,-18.7360,-18.8725,-15.9754,-17.4928,-9.5990,-16.2681,-20.0597
1257.8125,-9.5931,-18.0055,-15.2360,-14.9449,-12.5079,-5.5677,-19.4346,-6.4242,-8.6167,-12.8759,-1.4484,-15.0770,-17.8810,-16.4307,-10.0767,-14.6243,-9.4536,-17.8148,-18.9857
1261.7188,0.0765,-19.1567,-13.5959,-11.8221,-8.3368,6.0473,-14.0485,-1.6667,-13.0344,-5.4014,-11.9786,-15.8792,-16.9537,-14.4649,-5.4377,-9.1718,-9.3019,-18.3205,-18.1119
1265.6250,6.4198,-15.8667,-11.7203,-9.4623,-5.8478,12.5164,-7.3927,1.6245,-16.2542,0.8863,-21.8001,-16.0042,-16.5102,-13.8890,-3.0619,-3.1828,-9.8171,-18.1272,-17.7501
1269.5312,7.9313,-10.1046,-10.6160,-8.8730,-5.6869,11.6753,-2.3361,2.3062,-17.9638,3.9777,-27.4376,-15.8214,-16.8919,-15.1979,-2.9142,0.8693,-11.5708,-18.0665,-18.0899
1273.4375,5.0295,-5.2078,-11.2232,-10.4913,-7.8048,4.1451,-0.8439,-0.1376,-18.4921,3.0457,-27.1638,-15.7312,-18.0257,-18.2299,-4.5858,1.3292,-14.6225,-18.7684,-19.0575
1277.3438,-0.7328,-3.9006,-13.7104,-13.8418,-11.3650,-7.0826,-2.8838,-5.1806,-18.2514,-1.3597,-21.4921,-15.7171,-19.3767,-22.1702,-7.6313,-1.6867,-18.3067,-20.0502,-20.1900
1281.2500,-7.5997,-6.7660,-17.2065,-17.6823,-15.0347,-18.0097,-6.6066,-11.3537,-17.3146,-7.5945,-12.7233,-15.2526,-20.1740,-25.8721,-11.4352,-6.3582,-21.4583,-20.9052,-20.7303
1285.1562,-14.0960,-12.1157,-20.2517,-20.6182,-17.5777,-25.2739,-9.7336,-16.8878,-15.4738,-13.5740,-3.9010,-13.7188,-19.8426,-28.3752,-14.9970,-10.3269,-23.0162,-20.1797,-20.0058
1289.0625,-19.0185,-17.2107,-21.7210,-21.8341,-18.4323,-27.3258,-11.2112,-20.5492,-12.6879,-17.5294,2.3034,-11.0422,-18.3882,-29.3347,-17.0879,-12.2261,-22.6419,-17.4822,-17.9004
1292.9688,-21.3123,-19.9071,-21.5822,-21.4773,-17.9175,-24.6867,-11.9401,-22.1538,-9.4776,-18.5326,4.3685,-8.0270,-16.4576,-29.0939,-16.8258,-12.4985,-20.9299,-13.6455,-15.0826
1296.8750,-20.1910,-19.6473,-20.9217,-20.4440,-16.9240,-19.3092,-13.9960,-22.4450,-6.8488,-16.5668,2.2144,-6.0230,-14.9801,-28.3449,-14.2342,-12.8831,-19.0305,-10.3368,-12.7491
1300.7812,-15.5020,-17.3037,-21.1587,-19.7144,-16.2831,-13.4725,-18.8439,-22.4428,-5.6999,-12.1867,-2.9283,-6.0586,-14.5740,-27.5949,-10.2652,-14.9048,-17.8974,-9.0073,-11.9611
1304.6875,-8.0143,-14.2124,-22.9529,-19.6837,-16.2250,-8.7920,-25.8323,-22.7166,-6.1059,-6.0695,-8.9363,-8.0044,-15.0895,-26.7974,-6.1745,-18.4644,-17.6451,-9.8738,-12.9549
1308.5938,0.6858,-11.2071,-25.5490,-19.9250,-16.2751,-5.7730,-32.1205,-23.0608,-7.0320,1.1914,-13.3914,-10.3939,-15.6010,-25.4014,-2.6882,-21.5971,-17.4453,-11.6445,-14.8801
1312.5000,8.7007,-8.2896,-27.0381,-19.5081,-15.6347,-4.0003,-34.2153,-22.7406,-6.7752,8.9206,-14.2788,-11.1204,-14.8924,-22.7863,0.3831,-21.6444,-16.0467,-12.2249,-16.1776
1316.4062,14.4376,-5.0006,-25.4075,-17.6214,-13.7602,-2.7221,-30.1261,-21.0698,-3.9341,16.0410,-10.6511,-8.6358,-12.1596,-18.7741,3.7602,-17.0461,-12.5924,-9.9781,-15.4015
1320.3125,17.0043,-1.0471,-19.7284,-14.0557,-10.7339,-1.4275,-20.6698,-17.8768,1.6782,21.0144,-3.0366,-2.9062,-7.5047,-13.8540,7.8458,-8.4940,-7.2090,-4.7336,-12.0004
1324.2188,16.2869,3.3363,-10.7473,-9.2498,-7.1841,-0.0965,-9.0158,-13.5499,8.7700,22.3069,6.6413,4.4943,-1.9157,-8.9490,12.1114,1.3714,-0.9918,2.1009,-6.5883
1328.1250,12.8530,7.5049,-0.5388,-3.9311,-3.8408,0.9546,1.2163,-8.7005,15.1540,19.2180,15.7147,11.2226,3.2587,-4.8753,15.2593,9.4973,4.6018,8.3763,-0.5627
1332.0312,7.8479,10.8056,8.5275,1.3305,-1.0651,1.4517,7.9909,-3.7697,18.8511,12.5282,21.7853,15.4097,7.0184,-1.8642,16.0834,14.1094,8.5599,12.4268,4.6646
1335.9375,2.8592,12.9017,14.8521,6.3076,1.3103,1.4677,11.6466,1.0902,19.0682,4.4129,23.6547,16.5371,9.1745,0.5192,14.3780,15.4187,10.8175,13.8910,8.3344
1339.8438,-0.4371,13.7988,18.0955,10.9273,3.7253,1.4336,13.9888,5.7842,16.4846,-2.4928,21.6963,15.4389,10.2981,2.9943,11.1710,14.9587,12.1480,13.6454,10.5143
1343.7500,-0.9295,13.6218,18.8973,14.9040,6.4190,1.8519,16.4517,9.9295,12.7076,-6.3854,17.4589,13.5073,11.2069,5.9724,8.0613,14.1601,13.5338,12.9637,11.7373
1347.6562,1.2370,12.3715,18.1228,17.5368,9.0826,2.9145,18.7370,12.7430,9.2502,-7.1335,12.7107,11.6777,12.3290,9.1498,6.1267,13.2527,15.4272,12.5155,12.4073
1351.5625,4.4476,9.8528,16.1862,17.8972,10.8944,4.2915,18.9431,13.3307,6.6536,-6.1046,8.4690,9.8670,13.3487,11.5713,5.2082,11.2560,17.3723,11.8800,12.4027
1355.4688,6.2653,5.8057,12.8731,15.3411,10.9356,5.2411,15.0760,11.2287,4.2670,-5.0930,4.5775,7.1904,13.3573,12.1418,4.1046,6.9628,18.2239,9.8725,11.1461
1359.3750,4.7667,0.1416,7.7192,10.0204,8.7374,4.9750,6.8201,6.8221,0.7988,-5.0917,0.0742,2.7519,11.4205,10.2762,1.5391,0.1130,16.8264,5.4335,8.0764
1363.2812,-0.1917,-6.8437,0.6314,3.0369,4.6311,3.0518,-3.7498,1.3224,-4.7032,-5.7594,-5.8909,-3.5538,7.2140,6.2868,-2.8040,-8.1180,12.7386,-1.5203,3.1899
1367.1875,-6.6658,-14.3642,-7.6912,-3.9132,-0.3132,-0.4361,-13.0765,-3.7349,-12.0353,-5.9254,-13.1792,-10.7570,1.3447,1.2713,-7.9152,-15.6253,6.5706,-9.8296,-2.7248
1371.0938,-11.6328,-21.1947,-15.8310,-9.2448,-4.7342,-4.9635,-18.0780,-7.1952,-19.6851,-4.7093,-20.4034,-17.2127,-4.8424,-3.4308,-12.0148,-20.4709,-0.2609,-17.5656,-8.3347
1375.0000,-12.7880,-25.9210,-22.1976,-12.1642,-7.5843,-9.8484,-17.8724,-8.7875,-25.4640,-2.3815,-25.4912,-21.4116,-9.8656,-6.8839,-13.6230,-21.8210,-6.1995,-22.9394,-12.3609
1378.9062,-9.9979,-27.3854,-25.7364,-12.9636,-8.5833,-14.4913,-14.1680,-9.1587,-27.5933,-0.2940,-26.7701,-22.7072,-12.7771,-8.9289,-12.4103,-20.1932,-10.2426,-25.1119,-14.1839
1382.8125,-5.4250,-25.2044,-26.4034,-12.7836,-8.2948,-18.4273,-10.1249,-9.4576,-25.6376,0.0768,-23.9282,-21.5522,-13.5378,-10.0821,-9.2905,-17.0087,-12.2724,-24.4662,-14.1084
1386.7188,-2.1935,-20.1019,-25.1405,-12.9868,-7.7938,-21.2188,-8.4750,-10.7296,-20.7462,-1.7427,-18.2648,-19.1621,-12.9103,-11.0582,-5.7697,-13.8483,-12.8775,-22.2494,-13.1449
1390.6250,-2.4414,-13.7890,-23.3649,-14.4764,-8.0953,-22.3567,-10.0913,-13.4473,-15.0492,-4.7834,-12.0503,-16.8462,-11.9684,-12.2375,-3.0515,-11.8452,-12.8390,-19.8403,-12.4459
1394.5312,-6.0183,-8.3256,-22.2482,-17.2972,-9.6365,-21.3460,-13.8131,-17.3719,-10.5424,-7.2265,-7.3537,-15.3949,-11.5268,-13.4220,-1.4995,-11.4019,-12.6420,-18.0680,-12.7162
1398.4375,-10.6464,-5.2286,-22.1708,-20.6902,-12.0815,-18.0047,-17.4825,-21.7422,-8.1025,-7.6089,-5.0186,-14.8235,-11.8101,-14.0320,-0.7430,-12.1795,-12.3180,-16.9232,-13.9151
1402.3438,-13.3855,-4.8162,-22.6309,-23.5301,-14.5483,-12.8086,-19.4139,-25.6385,-7.2015,-5.7725,-4.3833,-14.5434,-12.5036,-13.6007,-0.2436,-13.2611,-11.6676,-15.7509,-15.3784
1406.2500,-12.4101,-6.1897,-22.6268,-24.8898,-16.1258,-7.0147,-19.3478,-28.3327,-6.4675,-2.8868,-3.8911,-13.7992,-13.0831,-12.2228,0.1514,-13.4861,-10.6388,-13.7541,-16.2446
1410.1562,-7.9830,-7.8648,-21.2644,-24.4295,-16.3731,-2.3807,-18.3682,-29.4866,-4.7129,-0.5604,-2.1893,-12.1030,-13.1617,-10.6198,0.0812,-11.9628,-9.5266,-10.5033,-15.9071
1414.0625,-2.1110,-8.6319,-18.2225,-22.4232,-15.4911,-0.5156,-17.9492,-29.1531,-1.7605,0.2992,0.9800,-9.4411,-12.6155,-9.7235,-0.9513,-8.6119,-8.8040,-6.1795,-14.2297
1417.9688,2.7560,-8.0845,-13.8200,-19.4434,-14.0560,-2.1360,-18.8117,-27.6141,1.4662,0.0705,4.6580,-6.1828,-11.4425,-10.0001,-2.9817,-4.3945,-8.6853,-1.4543,-11.4414
1421.8750,5.0834,-6.5218,-8.7017,-15.9229,-12.4910,-6.6018,-20.3218,-25.1518,3.6310,0.0762,7.3713,-2.7907,-9.5145,-10.9440,-5.2093,-0.9135,-8.7564,2.8933,-7.8390
1425.7812,4.8704,-4.4184,-3.4115,-11.8841,-10.6539,-12.0092,-20.7939,-21.8810,3.9707,1.6086,8.1743,0.4629,-6.4793,-11.1251,-6.1638,0.5512,-8.0073,6.3818,-3.5527
1429.6875,3.3083,-1.9730,1.8175,-7.0255,-7.8700,-15.8671,-18.5016,-17.7475,2.8887,5.0125,7.3159,3.5845,-1.9587,-8.8614,-4.4050,0.0161,-5.3476,9.0167,1.4367
1433.5938,1.8628,0.8671,6.9111,-1.1232,-3.4528,-16.1007,-12.7946,-12.7113,1.7292,9.4044,6.0594,6.6933,4.0392,-3.2021,0.5876,-0.9701,-0.3417,11.1556,7.0342
1437.5000,1.4167,3.9605,11.5967,5.5157,2.6025,-11.9541,-4.6519,-7.0099,1.8644,13.1211,5.7625,9.7132,10.7766,5.3357,7.8381,-0.2033,6.3010,13.1365,12.7345
1441.4062,1.9266,6.5805,15.1837,11.8808,9.2421,-4.3855,3.6769,-1.3104,3.7052,14.5283,6.8406,12.1491,16.8108,14.7463,14.9961,3.5944,12.8425,14.9084,17.5610
1445.3125,2.6498,7.5602,16.7482,16.5500,14.6307,4.2417,9.7748,3.4082,6.3171,12.6951,8.3498,13.1503,20.4852,22.3230,19.2074,9.5214,17.2497,15.9161,20.3715
1449.2188,2.6832,6.0146,15.6708,18.3307,17.0067,11.0621,12.2887,6.2372,7.9212,7.6603,8.5233,11.8937,20.6808,25.8786,18.3687,14.5597,18.1654,15.3421,20.4001
1453.1250,1.4684,2.1345,12.1617,16.8892,15.6367,13.8226,11.5639,6.7879,6.9711,0.3304,5.9440,8.0964,17.4146,24.7506,12.1493,15.1364,15.5660,12.5877,17.7119
1457.0312,-0.9668,-2.6368,7.3377,12.9665,11.2738,11.7240,9.2771,5.4186,3.1137,-7.7983,0.5773,2.3417,11.9087,20.0462,2.2238,9.3167,10.7255,7.7058,13.2529
1460.9375,-4.0846,-6.3385,2.6921,8.0163,5.8044,5.6272,7.2672,3.0626,-2.5797,-14.9813,-6.0500,-4.0316,6.0386,14.0023,-8.4584,-1.7751,5.5106,1.5081,8.4134
1464.8438,-7.1462,-7.7377,-0.7621,3.4569,1.2686,-2.4374,6.2878,0.7337,-8.2347,-19.6487,-11.6778,-9.4770,1.4383,8.8343,-17.0211,-14.3065,1.4225,-4.7425,4.3362
1468.7500,-9.5944,-7.2137,-3.1063,-0.0166,-1.1643,-10.1864,5.5119,-0.9876,-12.2255,-20.9179,-14.6194,-12.9448,-1.2459,5.7178,-21.9242,-23.7311,-1.0678,-9.8856,1.3810
1472.6562,-11.3206,-6.5741,-5.4232,-2.6467,-1.6585,-15.9659,3.1685,-2.1548,-13.9852,-19.0338,-14.6854,-14.3446,-2.5349,4.4333,-23.4691,-27.2223,-2.5463,-13.3415,-0.9286
1476.5625,-12.6722,-7.8303,-8.9962,-5.2458,-1.3773,-19.1956,-2.0571,-3.2269,-14.1069,-15.4243,-13.1274,-14.4897,-3.6523,3.7868,-23.2992,-25.0540,-4.1000,-15.2441,-3.4544
1480.4688,-14.1732,-11.7340,-14.3060,-8.5166,-1.6238,-20.2439,-9.7922,-4.5967,-13.7557,-12.1567,-11.6770,-14.5632,-5.7194,2.4688,-23.2220,-20.1431,-6.5709,-16.1833,-6.7942
1484.3750,-16.1085,-17.1022,-20.5180,-12.5214,-3.0396,-19.9209,-17.8109,-6.2417,-13.8417,-10.9435,-11.3691,-15.4351,-9.1091,-0.1966,-24.0657,-16.1504,-10.0832,-16.7637,-10.8647
1488.2812,-18.2385,-21.4438,-25.8460,-16.6392,-5.3518,-18.9540,-23.1599,-7.7670,-14.4983,-12.2268,-11.9626,-17.2360,-13.3280,-4.0167,-25.2341,-15.4012,-14.0881,-17.2745,-14.9762
1492.1875,-19.8664,-22.4935,-28.5904,-19.9981,-7.7537,-17.7389,-23.9154,-8.8036,-15.1468,-14.9480,-12.3187,-19.4127,-17.4405,-8.2433,-25.1906,-17.8581,-17.8154,-17.6595,-18.3168
1496.0938,-20.2518,-19.6238,-28.1670,-22.0471,-9.5737,-16.4219,-20.4232,-9.4399,-15.0152,-17.2297,-11.4038,-21.1636,-20.6978,-12.1224,-22.5463,-21.5841,-20.7742,-17.7351,-20.4831
1500.0000,-19.1038,-14.1993,-25.4323,-22.8561,-10.7319,-15.1258,-15.1582,-10.3118,-13.7081,-17.5930,-9.1518,-21.9262,-22.9260,-15.2808,-17.0878,-24.1623,-22.9538,-17.4358,-21.6729
1503.9062,-16.7939,-8.6804,-22.0816,-22.9527,-11.6810,-14.0727,-11.2424,-12.2217,-11.4530,-15.9167,-6.5534,-21.5942,-24.4259,-17.7266,-10.1361,-24.0652,-24.6180,-16.8690,-22.4099
1507.8125,-14.1109,-5.1341,-19.5327,-22.8468,-12.9275,-13.4863,-10.5686,-15.5111,-8.9086,-13.4689,-4.9283,-20.3716,-25.4998,-19.5542,-4.0188,-21.2109,-25.8803,-16.1457,-23.0172
1511.7188,-11.7187,-4.1529,-18.0524,-22.6149,-14.5223,-13.3727,-12.7573,-19.6304,-6.7131,-11.9551,-4.9315,-18.4397,-25.9896,-20.6413,-0.9231,-16.6189,-26.4041,-15.1527,-23.2416
1515.6250,-9.7268,-4.8100,-16.7069,-21.8467,-15.9088,-13.3929,-15.6090,-23.2459,-5.0834,-12.2169,-6.0198,-15.7284,-25.2022,-20.5994,-1.7188,-11.6379,-25.4761,-13.4942,-22.3270
1519.5312,-7.7148,-5.5141,-14.1375,-19.9838,-16.2401,-12.9679,-16.6957,-24.8758,-3.6970,-13.4902,-6.7445,-11.9748,-22.3120,-19.0193,-5.3672,-7.3218,-22.4372,-10.7014,-19.5092
1523.4375,-5.2063,-5.0489,-9.6013,-16.7866,-14.9386,-11.5659,-14.9754,-23.6894,-1.8918,-13.7712,-5.6323,-7.0106,-16.9808,-15.8238,-9.2587,-4.2185,-17.1981,-6.5848,-14.5960
1527.3438,-2.2177,-3.0846,-3.5568,-12.5893,-12.1118,-8.9782,-11.3441,-19.9841,0.9573,-11.0863,-2.0236,-1.0422,-9.7569,-11.4587,-10.3920,-2.4554,-10.4875,-1.4676,-8.2220
1531.2500,0.5839,0.0324,2.5830,-8.1638,-8.5499,-5.4017,-7.8238,-15.0559,5.0854,-4.8359,3.6654,5.3047,-1.9507,-6.7748,-6.8789,-1.8558,-3.6378,3.8991,-1.5838
1535.1562,2.2988,3.8370,7.3225,-4.2979,-5.3198,-1.3119,-6.0452,-10.5455,10.1653,3.6765,10.3291,11.2256,4.9727,-2.6626,0.9679,-1.9571,2.0044,8.7186,4.1841
1539.0625,2.5201,8.0836,9.9679,-1.3751,-3.2197,2.7337,-6.1275,-7.6415,15.3778,11.8778,16.8151,16.1044,10.1181,0.3392,10.5974,-2.0108,5.7195,12.5833,8.5925
1542.9688,1.8189,12.6066,10.9467,0.7825,-2.4188,6.1987,-6.7066,-6.5679,19.6954,17.3053,22.3337,19.7653,13.5557,2.2416,18.3932,-1.1204,7.7427,15.6673,11.9652
1546.8750,1.5721,16.9343,11.4063,2.7431,-2.4577,8.5519,-5.9968,-6.5826,22.2743,18.8561,26.4414,22.4577,16.1478,3.5217,21.5545,1.4512,9.0905,18.5355,15.0998
1550.7812,3.1686,20.1383,12.4248,5.1067,-2.5616,9.2603,-3.0538,-6.4251,22.8028,17.1602,28.8074,24.6047,18.9232,4.8284,19.6840,5.9457,10.9748,21.6881,18.6494
1554.6875,7.0775,21.1973,14.3745,8.1764,-2.0621,7.9458,1.6591,-4.9505,21.6377,13.9410,29.1348,26.4821,22.3761,6.6360,15.0982,11.9419,14.1158,25.1313,22.6147
1558.5938,12.3850,19.6825,16.8010,11.8024,-0.7119,4.7015,6.7107,-1.6558,19.6298,10.8730,27.3851,28.0054,26.0906,8.9924,11.5300,18.4408,18.3081,28.2442,26.2384
1562.5000,17.1164,16.2283,18.7907,15.4145,1.2233,0.3532,10.7001,3.0943,17.6788,8.7105,24.0748,28.7109,28.8740,11.4441,11.8612,24.1356,22.4510,30.0158,28.3302
1566.4062,19.1721,12.3461,19.4960,18.1837,3.0956,-3.6190,13.0120,8.2013,16.2290,7.1932,20.2364,27.9094,29.2990,13.1574,16.2312,27.7312,25.0221,29.5067,27.8093
1570.3125,17.3548,9.6058,18.4752,19.2614,4.1573,-5.6098,13.8185,12.2664,14.9983,5.6659,16.8715,24.9395,26.3652,13.2158,21.7673,28.2393,24.7663,26.2796,24.1777
1574.2188,11.9551,8.7026,15.7322,18.0766,3.8989,-4.6597,13.4712,14.1814,13.1440,3.8748,14.2080,19.4605,19.9853,11.0248,24.2411,25.2541,21.2957,20.6051,17.7348
1578.1250,4.6460,9.0499,11.5933,14.6424,2.3389,-1.0277,11.9212,13.6597,9.8289,2.3309,11.3887,11.7270,11.1252,6.6938,20.7150,19.1973,15.3455,13.3935,9.5148
1582.0312,-2.1994,9.2004,6.6275,9.7445,0.1448,3.8213,8.7363,11.4671,4.8853,1.9790,7.0313,2.7595,1.5794,1.2017,11.5300,11.4139,8.5780,5.9364,1.0309
1585.9375,-6.4308,7.8254,1.6642,4.8367,-1.5147,7.8638,3.7457,9.1800,-0.8325,3.4187,0.4631,-5.7238,-6.5367,-3.8140,0.3355,3.9334,3.0020,-0.4281,-6.0810
1589.8438,-6.9128,4.5996,-2.2288,1.5576,-1.4076,9.4555,-2.2430,8.4976,-5.6784,6.2464,-7.2046,-11.7177,-11.4418,-6.6617,-7.9013,-1.1770,0.2151,-4.6457,-10.4704
1593.7500,-3.9207,0.4136,-3.9917,1.0020,1.1667,8.0304,-7.3482,10.3877,-7.9694,9.0205,-13.0897,-13.6449,-12.3118,-6.3743,-9.6679,-2.6733,0.7571,-6.2263,-11.4829
1597.6562,0.9874,-3.2033,-3.0532,3.1018,5.8976,4.2005,-9.4097,14.4979,-6.8810,9.9483,-13.9459,-11.1160,-9.6557,-3.2793,-4.7437,-0.7758,3.8437,-5.4185,-9.4633
1601.5625,5.5930,-5.0394,0.2045,6.5073,11.3872,-0.7255,-7.2594,19.1895,-2.9821,7.9126,-8.2712,-5.3376,-5.2371,0.9951,3.9430,2.8284,7.6249,-3.1902,-5.7760
1605.4688,7.9218,-4.9030,4.3580,9.1334,15.6094,-5.4389,-1.6284,22.2378,1.9175,3.2133,2.2328,1.1590,-1.4696,4.1723,12.1492,5.7251,9.9080,-0.9467,-2.4143
1609.3750,7.0620,-3.6345,7.4326,9.1533,16.7555,-9.1133,4.9877,21.8695,5.5691,-2.4607,12.9928,5.4870,-0.4461,4.3661,16.5230,5.9203,9.0710,-0.0187,-1.2482
1613.2812,3.4956,-2.4675,7.8057,5.9210,14.0730,-11.4577,9.5262,17.5962,6.3422,-6.8541,18.7743,5.6896,-2.9992,0.9895,15.8299,2.7984,4.7728,-1.1004,-3.1956
1617.1875,-1.2507,-2.1839,5.0493,0.3110,8.2641,-12.4444,9.9395,10.4111,4.0070,-8.2969,16.6071,1.7164,-8.2592,-4.9448,10.7527,-2.6086,-1.8747,-3.9029,-7.7240
1621.0938,-5.4464,-2.6126,0.2079,-5.7165,1.2132,-12.0057,6.2234,2.2835,-0.1469,-6.5052,7.6588,-4.4544,-13.9839,-11.2903,2.8933,-8.1481,-8.7724,-7.2241,-12.9882
1625.0000,-7.9705,-2.7743,-4.6835,-10.0661,-4.8328,-9.9457,0.2982,-4.7319,-3.9085,-2.5516,-3.1941,-9.6833,-17.5549,-15.7452,-5.9908,-11.5575,-13.7318,-9.4414,-16.5985
1628.9062,-8.5781,-1.5577,-7.5853,-11.4356,-8.2143,-6.1054,-5.1276,-9.2752,-5.1619,1.9533,-9.9800,-11.1373,-17.1680,-16.8290,-14.0061,-11.4462,-15.3828,-9.2027,-16.6679
1632.8125,-7.4878,1.5024,-7.3893,-9.7379,-8.4653,-0.6298,-7.9791,-10.9958,-2.8363,5.9168,-8.9423,-7.6311,-12.6165,-14.3855,-18.8039,-7.8324,-13.6633,-5.9818,-12.6178
1636.7188,-4.6977,5.8331,-4.2920,-5.8772,-6.3062,5.8639,-7.6733,-10.3672,2.6536,9.3420,-0.5791,-0.1551,-5.2806,-9.4397,-17.7971,-2.0755,-9.6861,-0.2373,-5.3464
1640.6250,0.3048,10.0739,0.5447,-1.1207,-3.1004,12.3309,-4.9907,-8.2467,9.6663,13.0265,10.8068,8.6777,2.6406,-3.5831,-9.3405,3.7091,-5.0911,6.8705,3.2943
1644.5312,8.0497,12.8566,5.7683,3.5105,-0.1215,17.5471,-1.1959,-5.4878,16.1539,17.5929,19.7530,15.9675,9.2154,1.7393,5.7019,7.5293,-1.2416,14.0262,11.3964
1648.4375,18.0890,13.6902,10.5412,7.5204,1.9712,20.4736,2.9108,-2.7628,20.6398,22.5672,22.8503,19.9432,13.6084,5.7069,23.2738,8.3990,1.3374,20.2773,17.7857
1652.3438,28.3355,13.4268,14.7729,10.8522,3.2298,20.6324,7.3530,-0.5475,22.8713,26.2555,20.5870,20.7279,16.2587,8.2345,37.2918,6.8920,3.0439,25.2906,22.3242
1656.2500,35.5154,13.9698,18.8180,13.6272,4.1375,18.3744,12.5581,0.8744,23.8127,26.6571,16.7691,20.0830,18.3934,9.7869,42.4058,5.0551,4.8314,29.2683,25.6472
1660.1562,36.7703,17.2696,22.9123,15.9364,5.1915,14.9020,18.5261,1.4637,24.9691,22.9091,15.9567,20.3016,21.2053,11.0561,36.8544,5.5470,7.6221,32.6177,28.5580
1664.0625,31.5081,24.0637,26.7506,17.7743,6.6046,11.9289,24.2507,1.4717,27.3846,16.2798,20.5288,22.8609,25.1473,12.6348,23.6105,10.2507,11.7996,35.5570,31.4440
1667.9688,22.1864,33.0372,29.4701,19.0557,8.2420,10.9890,27.8813,1.3599,30.8505,9.8953,29.1283,27.5435,29.6719,14.7598,8.9635,19.0038,16.9899,37.8435,34.0049
1671.8750,13.2437,40.9519,30.0225,19.6146,9.7479,12.6343,27.6078,1.5586,33.7861,7.1457,37.3371,32.4716,33.4816,17.1695,-0.7126,29.2196,22.1904,38.7405,35.3801
1675.7812,8.6008,43.8388,27.6877,19.1743,10.7251,15.9396,22.7384,2.1838,33.9091,9.6092,40.0879,35.0112,35.1112,19.1357,-2.1309,36.8115,26.1558,37.2484,34.5626
1679.6875,9.2282,38.7808,22.4361,17.3802,10.8663,18.6958,14.2745,2.9224,29.3875,15.7705,34.3753,33.0650,33.5548,19.7123,3.5700,38.1079,27.8735,32.5302,30.8844
1683.5938,12.4051,25.4305,14.9729,13.9790,10.0200,18.3478,4.5786,3.2109,19.8783,21.4443,20.7939,26.1064,28.6848,18.1588,11.8718,31.7705,26.9472,24.3815,24.3704
1687.5000,13.3002,6.4644,6.4949,9.1024,8.2292,13.2768,-3.7044,2.6309,6.8973,21.8379,3.2157,15.4697,21.3286,14.3699,17.4299,19.6105,23.7489,13.5457,15.8433
1691.4062,7.9950,-13.3227,-1.6825,3.4602,5.7644,3.7387,-8.8451,1.2596,-6.6891,14.1744,-13.0261,3.8068,13.0058,9.0684,16.5653,5.7727,19.2810,1.6983,6.7476
1695.3125,-3.9273,-28.8894,-8.4634,-1.7675,3.1125,-8.1137,-10.6546,-0.2873,-17.7986,-0.6048,-23.3991,-5.9859,5.4288,3.5976,8.5124,-5.2838,14.7913,-8.9656,-1.2574
1699.2188,-18.8880,-36.8915,-13.1875,-5.3851,0.8553,-19.1942,-10.2341,-1.1979,-24.3289,-18.0617,-25.8143,-11.8626,-0.0645,-0.6445,-4.7787,-10.8627,11.2863,-16.4343,-6.8229
1703.1250,-31.2540,-36.7846,-15.7166,-6.7777,-0.5684,-26.9132,-9.1106,-1.0001,-25.8498,-32.3332,-21.0960,-13.2937,-2.9552,-2.8557,-19.6987,-11.0286,9.1409,-19.6040,-9.3855
1707.0312,-36.5046,-30.6461,-16.4164,-6.2936,-1.1191,-30.2675,-8.3843,0.0514,-23.5286,-38.9323,-12.3510,-11.2962,-3.7038,-3.2104,-32.1953,-8.0985,7.9766,-18.7038,-9.4012
1710.9375,-33.6619,-21.9479,-16.0372,-5.1335,-1.2569,-30.0060,-8.4199,1.0144,-19.4228,-36.7771,-3.6868,-7.9055,-3.5496,-2.7414,-38.8399,-5.1138,6.8638,-15.2036,-8.2021
1714.8438,-25.5482,-14.0070,-15.4877,-4.7537,-1.7628,-27.8647,-9.1519,0.7401,-15.5481,-28.4128,1.2191,-5.3471,-4.0018,-2.7784,-37.7727,-4.2864,4.7569,-11.2173,-7.4748
1718.7500,-16.8474,-8.8741,-15.5278,-6.0997,-3.3153,-25.4256,-10.5873,-1.4637,-13.1528,-18.4242,0.3229,-5.2198,-6.2071,-4.2538,-29.4695,-6.2286,0.9653,-8.6496,-8.5436
1722.6562,-11.3012,-7.0454,-16.4716,-9.1089,-6.0434,-23.3155,-12.9699,-5.3788,-12.4427,-11.0033,-6.0754,-7.9472,-10.4509,-7.2563,-16.9366,-10.1330,-4.5459,-8.4614,-11.7696
1726.5625,-9.7949,-7.8631,-18.0397,-12.7725,-9.3420,-21.1583,-16.3953,-9.9113,-12.7508,-8.0109,-15.3426,-12.6591,-16.0119,-11.0613,-4.8429,-14.4871,-11.1380,-10.3715,-16.3654
1730.4688,-10.3874,-10.1466,-19.4663,-15.7173,-12.1181,-18.1670,-20.2113,-13.6172,-12.9766,-8.4874,-23.3683,-17.5470,-21.4537,-14.5847,2.4080,-17.7691,-17.7465,-13.1037,-20.7485
1734.3750,-10.0431,-12.6344,-19.8522,-16.9610,-13.3826,-13.8824,-22.8289,-15.4409,-12.0794,-9.7005,-26.1258,-20.5957,-25.2473,-16.9843,2.8416,-18.8599,-23.2731,-15.0354,-23.2927
1738.2812,-6.8127,-14.1259,-18.6169,-16.4141,-12.8680,-8.5687,-22.3549,-15.2664,-9.4603,-8.9871,-21.4068,-20.4378,-26.4581,-18.0810,-1.9898,-17.2605,-26.9658,-14.9346,-23.1214
1742.1875,-1.0737,-13.5144,-15.8223,-14.8680,-11.2996,-3.0960,-17.8217,-13.9818,-5.1453,-5.2994,-9.9414,-16.9732,-25.1866,-18.4150,-7.8579,-13.2847,-28.6621,-12.4563,-20.5469
1746.0938,4.8238,-9.9873,-12.1931,-13.5212,-10.1259,1.5004,-10.2192,-13.0275,0.2587,0.3570,4.7449,-11.4393,-22.5444,-18.9612,-10.3448,-8.1846,-28.8217,-8.2090,-16.9318
1750.0000,8.1211,-3.4572,-8.8074,-13.3442,-10.8243,4.4496,-2.4855,-13.6734,5.8055,5.7114,17.8090,-5.8424,-20.1561,-20.6912,-7.4871,-3.9465,-28.3432,-3.4100,-14.0422
1753.9062,7.3601,5.0136,-6.6079,-14.6358,-14.1530,5.4505,1.7866,-16.4085,10.5541,8.6713,25.2422,-1.9946,-19.4040,-24.1904,-0.8638,-2.5754,-28.2120,0.6741,-13.2186
1757.8125,3.2169,13.2018,-5.9785,-16.9676,-19.7550,4.6646,0.2917,-20.7497,13.8828,8.5352,25.6069,-0.6447,-20.7678,-29.4562,5.6145,-5.0786,-29.0939,3.2369,-14.7728
1761.7188,-1.9252,18.3813,-6.5839,-19.4732,-26.3101,2.6267,-6.5622,-25.5342,15.6447,6.3025,20.4627,-1.1740,-23.5788,-35.8862,8.4089,-10.7381,-31.0231,4.1878,-17.8814
1765.6250,-5.2868,18.5156,-7.5254,-21.2625,-32.1181,0.1481,-15.6839,-29.4939,16.1210,3.9773,13.3196,-2.0247,-26.3077,-42.3984,6.7071,-17.2392,-33.3279,4.0929,-20.9803
1769.5312,-5.0811,13.4360,-7.7075,-21.7247,-35.7725,-1.8356,-22.8392,-31.7754,15.8370,3.3481,7.7866,-1.5974,-27.2371,-47.6241,2.8424,-21.7301,-34.8495,3.8817,-22.4236
1773.4375,-1.2595,5.3173,-6.2328,-20.6081,-36.5843,-2.5521,-24.8024,-32.1425,15.3583,4.9879,5.9767,0.9121,-25.1831,-50.1564,0.5425,-22.2346,-34.3753,4.4749,-21.0844
1777.3438,4.6448,-1.9838,-2.6869,-17.9333,-34.6172,-1.7659,-20.8529,-30.8240,15.1504,8.0229,7.9516,5.2026,-19.9278,-48.8538,2.2711,-18.5585,-31.1037,6.4656,-16.6723
1781.2500,10.3278,-4.5929,2.7289,-13.8905,-30.4443,-0.0211,-12.8145,-28.1998,15.4840,10.7172,12.2604,10.1802,-12.2081,-43.1734,7.4898,-12.1495,-24.9380,9.9169,-9.7318
1785.1562,13.6698,-0.5695,9.1843,-8.8370,-24.8645,1.4885,-3.7977,-24.5911,16.3171,11.4403,16.9704,14.5896,-3.3559,-33.4486,12.9637,-5.0956,-16.5078,14.2756,-1.4385
1789.0625,13.3907,8.8397,15.3024,-3.3875,-18.7455,1.4682,3.4195,-20.2971,17.1395,9.4176,20.4381,17.5039,5.1588,-20.9775,14.8035,0.9891,-6.9565,18.4018,6.6677
1792.9688,9.2475,19.3934,19.3734,1.5306,-12.9860,-0.7693,7.3668,-15.7864,16.9012,4.8940,21.4721,18.4041,12.0539,-7.8136,10.8359,5.4484,2.3680,20.7547,12.9560
1796.8750,1.8908,25.5675,19.7621,4.8081,-8.4502,-4.8675,7.8307,-11.7974,14.2152,-1.2292,19.1233,16.9545,16.3729,3.7531,1.8138,8.2563,10.1929,19.7825,16.0158
1800.7812,-7.3977,23.0698,15.4842,5.5095,-5.7598,-9.5757,5.1874,-9.1515,7.9225,-7.9064,12.6299,12.8292,17.5342,11.8848,-9.1268,9.3449,15.5263,14.4870,15.0337
1804.6875,-16.9533,10.9547,6.7629,3.3207,-4.9912,-13.4330,-0.1125,-8.3194,-2.1638,-14.2405,1.8154,5.8647,15.4210,15.7914,-18.2284,8.2649,17.8180,4.9845,10.1501
1808.5938,-24.9921,-7.7532,-4.7512,-1.1699,-5.4930,-15.5769,-7.4566,-9.0240,-14.7656,-19.4796,-12.2898,-3.5251,10.5181,15.9611,-22.9533,4.4925,17.0923,-7.2384,2.5977
1812.5000,-29.9883,-27.3086,-16.3575,-6.5788,-6.0440,-16.1682,-15.6053,-10.2153,-27.3219,-22.9449,-27.2001,-14.0501,3.9487,13.8858,-22.9562,-1.9105,14.0012,-19.6270,-5.5738
1816.4062,-31.1598,-41.7910,-25.2641,-11.2494,-5.3840,-16.1724,-22.5137,-10.5406,-36.9313,-24.1678,-39.5622,-23.7431,-2.7544,11.3741,-19.9111,-9.9002,9.6979,-29.4288,-12.1941
1820.3125,-28.8614,-47.6679,-29.7420,-13.9619,-2.8794,-16.6557,-25.9245,-9.0874,-41.6408,-23.2497,-46.4608,-30.6920,-8.1517,9.7651,-16.5137,-17.7128,5.4850,-34.7913,-15.8258
1824.2188,-24.5779,-45.0763,-29.8731,-14.4554,1.0638,-18.0555,-24.5436,-5.9442,-41.3459,-21.1233,-46.7378,-33.9002,-11.4512,9.4239,-15.2033,-23.6125,2.3457,-35.5300,-16.3440
1828.1250,-20.3459,-37.2140,-27.4189,-13.4603,5.1302,-19.8792,-18.9991,-2.1995,-37.7118,-19.3059,-41.4938,-33.6976,-12.7773,9.7599,-17.0646,-26.5605,0.5892,-33.1041,-14.8907
1832.0312,-17.7773,-28.2829,-24.8014,-12.2127,7.7424,-20.9810,-11.7750,0.6519,-33.0987,-19.0525,-33.4155,-31.3899,-12.9595,9.7200,-21.2440,-26.3466,-0.1744,-29.7515,-13.1919
1835.9375,-17.1972,-21.2177,-23.7284,-11.7328,7.8718,-20.2092,-5.9685,1.5282,-29.1311,-20.3498,-25.3294,-28.3649,-12.9544,8.4450,-25.1449,-23.2356,-0.7038,-27.2424,-12.6108
1839.8438,-17.4586,-16.4994,-24.2669,-12.3019,5.5369,-17.0263,-3.5824,0.2897,-25.8297,-21.5082,-18.8831,-25.2828,-13.2865,5.6935,-25.5178,-17.6200,-1.6486,-25.9791,-13.4895
1843.7500,-16.6491,-12.6361,-24.9408,-13.4429,1.6977,-11.7814,-4.4743,-2.3417,-21.8868,-19.8748,-14.1322,-21.9262,-13.8883,1.8115,-20.1777,-10.1137,-3.2408,-24.9882,-15.1649
1847.6562,-13.3328,-7.8374,-23.8162,-14.3868,-2.3701,-5.5628,-6.6831,-5.3655,-15.9075,-13.4636,-10.1628,-17.7912,-14.4288,-2.6624,-9.5613,-2.0086,-5.3413,-22.8029,-16.6077
1851.5625,-7.5588,-1.6774,-19.8974,-14.6867,-5.8111,0.2242,-7.9187,-8.1472,-7.7594,-2.5558,-6.1712,-12.9286,-14.8392,-7.4268,2.8927,4.4978,-7.7569,-18.6509,-17.2295
1855.4688,-0.9422,4.4017,-13.9309,-14.5511,-8.5729,4.3308,-7.1775,-10.6750,0.9342,9.8680,-2.1743,-8.3275,-15.5752,-12.5457,12.1239,6.8858,-10.5242,-13.1516,-17.2920
1859.3750,4.3007,8.0716,-8.0710,-14.6701,-11.2221,6.0365,-5.3623,-13.2940,7.5639,19.3794,1.1216,-5.4674,-17.3477,-18.1868,14.1306,3.6646,-13.8849,-8.0389,-17.6442
1863.2812,6.7679,7.8763,-4.5949,-15.6683,-14.3637,5.3597,-4.4915,-16.1898,10.1055,22.4696,3.0871,-5.3053,-20.4798,-24.1918,8.4743,-4.3254,-17.9416,-5.0778,-18.9886
1867.1875,6.7917,4.5024,-4.4925,-17.5868,-18.0927,3.0855,-6.0847,-19.0721,8.4558,18.6244,3.8889,-7.4418,-24.3920,-29.8548,-1.0637,-13.7287,-22.2776,-4.8940,-21.2254
1871.0938,6.2066,0.6021,-6.8496,-19.7783,-21.8626,0.5766,-9.8892,-21.3362,4.6202,10.7508,4.5428,-10.1336,-27.6801,-34.1462,-8.3755,-20.0816,-25.9129,-6.5118,-23.3706
1875.0000,7.0790,-0.8044,-9.4393,-21.3087,-24.8519,-0.6594,-13.8604,-22.5889,1.5875,3.5731,6.2217,-11.2408,-28.8433,-36.2849,-8.5437,-20.1735,-27.7413,-7.9271,-24.1390
1878.9062,10.2363,1.6752,-10.1336,-21.5891,-26.5506,0.4252,-15.4294,-23.1069,1.5879,0.9268,9.3284,-9.5131,-27.2184,-36.2691,-0.8585,-13.9241,-27.2090,-7.3526,-22.7994
1882.8125,14.5951,6.7609,-8.2174,-20.7876,-27.1354,3.8591,-13.2031,-23.8187,4.8319,3.6232,13.0448,-5.3473,-23.4655,-34.9569,10.6422,-4.4938,-24.7523,-4.3239,-19.6962
1886.7188,17.7591,11.1722,-4.7577,-19.7081,-27.3451,8.4404,-7.9658,-25.7277,9.4920,9.2194,15.7343,-0.4950,-19.2184,-33.5714,19.5714,3.5568,-21.6236,0.0444,-16.0548
1890.6250,17.4998,11.6559,-1.8220,-19.1956,-27.9198,12.0819,-2.3335,-29.1246,12.8796,13.7889,15.9648,3.0797,-16.0803,-32.9143,21.0732,6.9327,-19.1431,3.7905,-13.1839
1894.5312,13.1482,7.0950,-1.0994,-19.4644,-28.9737,12.6616,0.7053,-33.1221,13.0277,14.4850,13.4715,4.4114,-14.6178,-32.8001,14.7232,5.3872,-17.8490,5.3198,-11.6123
1898.4375,6.0092,-0.6633,-2.8445,-19.8250,-29.7406,9.0248,-0.5473,-35.8814,9.7023,11.2047,9.4085,4.0043,-14.0306,-32.1167,4.6181,1.4974,-17.1300,4.3080,-10.7532
1902.3438,-1.4136,-7.8161,-5.8133,-19.0326,-28.8983,1.6389,-5.6062,-35.4628,4.3106,6.3113,5.7038,3.2894,-12.7235,-29.5159,-3.3273,-1.3335,-15.6289,1.7491,-9.3270
1906.2500,-6.8214,-10.8394,-8.1715,-16.0739,-25.3164,-7.4796,-12.1312,-30.8442,-1.0994,2.7169,3.9105,3.4980,-9.4038,-24.3260,-5.0521,-1.2333,-12.1811,-0.8086,-6.2661
1910.1562,-9.2581,-8.5706,-8.7279,-10.9109,-18.7971,-15.5921,-17.2044,-22.5366,-5.0325,1.7165,4.2521,4.7576,-3.9837,-17.1175,-0.6334,1.0174,-6.6808,-2.2821,-1.5045
1914.0625,-9.3659,-2.8876,-7.6808,-4.7059,-10.3716,-20.4490,-18.8108,-12.4584,-7.2178,2.0759,5.4302,6.0143,2.2793,-9.5676,6.1318,2.7740,-0.3044,-2.6639,3.8534
1917.9688,-8.7796,2.3666,-6.4406,0.6368,-1.9636,-21.2911,-16.7588,-3.1448,-8.4762,0.9612,5.3017,5.7872,7.4509,-3.6940,10.3271,1.5624,5.0563,-2.8905,8.0752
1921.8750,-9.1837,3.4962,-6.7157,3.3747,4.4146,-19.1304,-12.6486,3.2956,-10.0287,-3.9843,2.0481,3.1941,9.9374,-0.9018,8.8510,-3.1170,7.7876,-4.1399,9.7007
1925.7812,-11.6047,-1.1699,-9.4855,2.7767,7.5242,-16.1589,-8.9753,5.9751,-12.7544,-12.8646,-4.7859,-1.4495,9.2279,-1.3684,1.8551,-9.4394,7.3641,-7.0642,8.2570
1929.6875,-16.1807,-10.6365,-14.4722,-0.5394,7.3942,-14.5846,-7.8334,5.4398,-16.8011,-23.2456,-13.9171,-6.8178,5.9877,-4.0635,-7.9294,-14.5019,4.5202,-11.4246,4.4156
1933.5938,-22.2640,-22.0057,-20.3378,-4.9453,5.2277,-15.4961,-9.8321,3.2701,-21.6368,-31.5040,-22.8002,-11.3591,1.5729,-7.3282,-17.1451,-16.2085,0.7557,-16.2766,-0.4181
1937.5000,-28.6058,-31.9976,-25.3778,-8.6153,2.7927,-18.3523,-13.7418,1.2986,-26.3656,-34.8792,-28.7392,-14.1316,-2.6576,-9.6593,-23.5623,-14.4765,-2.4667,-20.4993,-4.7838
1941.4062,-33.5497,-38.2904,-28.2644,-10.3827,1.6021,-21.3692,-17.0915,0.8042,-30.0729,-32.9092,-30.1208,-15.1837,-5.8437,-10.3041,-26.6234,-11.0281,-4.3632,-23.3090,-7.7399
1945.3125,-35.3768,-40.0628,-28.4869,-10.2177,2.2602,-22.5951,-17.5010,2.0079,-32.0778,-27.4398,-27.1885,-15.3304,-7.7817,-9.4358,-26.8454,-8.0654,-5.0245,-24.4978,-9.1123
1949.2188,-32.9236,-37.7437,-26.4004,-9.1260,4.2515,-21.0779,-14.1119,4.0548,-32.0866,-21.3726,-21.9590,-15.5665,-8.8135,-7.9195,-24.9403,-6.8614,-5.1805,-24.3622,-9.4125
1953.1250,-26.3017,-32.4149,-22.9954,-8.5592,6.2450,-17.4635,-8.3094,5.4678,-30.2656,-17.0683,-17.2655,-16.5165,-9.6030,-6.8472,-21.4643,-7.2343,-5.7521,-23.4567,-9.5516
1957.0312,-17.2511,-25.3376,-19.5385,-9.6508,6.7615,-13.6638,-3.1904,4.8701,-27.1919,-15.3774,-15.3470,-18.1981,-10.8850,-7.0582,-17.0962,-8.1416,-7.4208,-22.3287,-10.4797
1960.9375,-8.6890,-17.7637,-17.1625,-12.6426,4.8951,-11.7539,-1.9065,1.6548,-23.6264,-15.6942,-16.6761,-20.1175,-13.1846,-8.8152,-12.9619,-8.7934,-10.3511,-21.3184,-12.8272
1964.8438,-3.4531,-10.8775,-16.4557,-16.7606,0.7578,-12.7146,-5.7431,-3.7088,-20.1447,-16.7140,-19.6667,-21.5348,-16.5295,-11.7226,-10.3687,-9.3694,-14.1007,-20.4403,-16.6128
1968.7500,-2.8306,-5.6462,-17.1652,-20.5770,-4.5706,-15.7509,-13.1140,-9.8827,-16.8101,-17.2194,-21.4788,-21.7278,-20.2803,-14.8979,-9.9231,-10.8017,-17.7296,-19.3570,-21.1193
1972.6562,-5.7462,-2.5520,-18.2014,-22.6773,-9.5701,-18.6088,-20.2272,-15.2840,-13.1296,-16.4237,-19.5466,-20.1876,-23.2522,-17.3307,-10.7225,-13.8385,-20.1078,-17.4887,-25.0516
1976.5625,-9.1960,-1.4016,-18.0735,-22.3118,-13.0310,-18.7465,-23.1800,-18.8088,-8.4009,-13.8810,-13.0161,-16.7689,-24.1812,-18.2879,-10.4779,-18.1545,-20.3592,-14.2783,-26.9970
1980.4688,-9.7850,-1.4343,-15.6456,-19.7219,-14.6357,-14.7203,-20.2708,-20.2834,-2.2914,-9.3254,-3.2836,-11.7971,-22.3472,-17.5840,-6.8184,-22.2253,-18.2674,-9.5346,-26.0314
1984.3750,-5.5316,-1.7338,-10.8369,-15.9874,-15.0487,-7.0159,-13.0598,-20.4171,4.7202,-2.7584,6.6858,-6.0666,-17.9884,-15.5728,0.9241,-24.0982,-14.4101,-3.6704,-22.1670
1988.2812,3.0808,-1.6891,-4.8131,-12.4742,-15.4505,2.1188,-5.4332,-20.3078,11.3772,5.2425,13.8791,-0.6399,-12.2083,-12.8597,10.6999,-22.5272,-9.8802,2.3508,-16.3687
1992.1875,13.3659,-1.1780,0.5370,-10.1680,-16.7709,9.7168,-1.2175,-20.7983,16.2013,13.3244,16.7270,3.5425,-6.3874,-9.9003,18.4063,-17.6766,-5.7027,7.3964,-10.0933
1996.0938,21.7864,-0.3613,3.5914,-9.2429,-19.0700,13.4096,-1.8805,-22.0436,18.2553,19.5945,15.7301,6.0733,-1.4600,-6.7447,20.0620,-10.9319,-2.2904,10.6876,-4.6015
2000.0000,25.5755,0.6987,3.8618,-9.0862,-21.4501,12.3292,-5.8370,-23.5069,17.6262,22.2959,12.9218,7.2561,2.4674,-3.1100,14.2393,-4.0109,0.6875,12.1475,-0.4491
2003.9062,23.7636,2.2183,2.1819,-8.7495,-22.5675,7.2141,-9.7929,-24.3356,15.3018,20.5675,10.5644,7.8891,5.9030,1.2542,3.1956,1.9359,3.8996,12.3371,2.5536
2007.8125,17.2259,4.4560,0.0961,-7.5456,-21.4357,-0.1703,-11.1529,-23.8567,12.5236,14.8279,9.8890,8.7347,9.3389,6.1635,-8.1208,6.5917,7.6703,12.0154,4.9407
2011.7188,7.9737,7.2221,-1.1273,-5.4255,-18.0163,-7.8411,-9.7732,-21.8900,10.0585,6.5652,10.5862,9.9917,12.6910,10.8812,-14.6890,9.9976,11.5215,11.6274,7.0779
2015.6250,-1.7416,9.5849,-1.1759,-2.9039,-13.2138,-14.1838,-7.8165,-18.7183,7.8926,-2.2944,11.2342,11.1301,15.2523,14.4347,-14.1173,11.8477,14.3252,11.0950,8.9268
2019.5312,-10.0400,10.1576,-0.6102,-0.5908,-8.2729,-18.1463,-7.8461,-14.7814,5.5488,-10.0362,10.2934,11.2383,16.2196,16.2150,-7.8167,11.2714,15.0301,10.0747,10.2431
2023.4375,-15.6324,7.9314,-0.1318,1.3473,-3.9778,-19.1951,-10.5903,-10.3243,2.7765,-15.5056,7.0322,9.6958,15.4059,16.4643,0.0017,7.4361,13.4824,8.4916,11.0133
2027.3438,-17.8409,3.1466,0.1982,3.4035,-0.1977,-17.3011,-14.0672,-5.2508,0.0741,-18.1413,1.9066,6.7323,13.5783,16.2755,4.8123,0.5835,10.7317,6.9155,11.7244
2031.2500,-16.6505,-2.4641,1.1436,6.4247,3.8936,-13.0601,-14.7865,0.7058,-1.3977,-17.9129,-3.6945,3.4626,12.1054,17.0052,4.1862,-7.3708,8.5215,6.4130,13.1691
2035.1562,-12.8142,-6.3868,3.6910,10.9270,9.0501,-7.7909,-10.2255,7.5809,-0.5310,-15.3569,-8.0861,1.3039,12.0902,19.3982,-1.2649,-13.3766,8.2229,7.8672,15.8463
2039.0625,-7.8277,-6.6880,8.0845,16.4643,15.1516,-3.3279,-0.8279,14.7952,2.8297,-11.6563,-9.9581,1.0882,13.5566,22.9528,-8.7827,-14.8475,9.8894,11.1767,19.3664
2042.9688,-3.5798,-3.2149,13.2431,21.5044,20.9357,-1.3900,9.9178,21.0603,7.4331,-8.5003,-8.8383,2.4258,15.2595,25.9687,-15.3861,-11.3759,12.0778,14.9150,22.3380
2046.8750,-1.6941,2.1666,17.0790,23.9967,24.5009,-2.7450,17.4143,24.7096,11.0036,-7.5328,-5.2647,3.7716,15.2979,26.3313,-19.4701,-5.3378,12.6051,16.8079,22.9321
2050.7812,-2.8443,6.5396,17.6018,22.3851,24.3135,-6.6564,18.5997,24.3661,11.3416,-9.5335,-0.6539,3.2392,12.1831,22.6323,-21.1246,-0.7579,9.8031,14.8804,19.8584
2054.6875,-6.4195,7.5919,14.1188,16.5109,20.1022,-11.0446,13.5387,19.6380,7.5545,-13.8212,3.1406,-0.2626,5.7208,14.9943,-21.2148,-0.9544,3.5032,8.6563,13.1738
2058.5938,-10.7573,4.9706,7.7330,7.8570,13.0749,-13.4133,4.9971,11.4671,0.7096,-18.3825,4.5358,-6.2372,-2.8142,5.1131,-20.1439,-6.4042,-4.8356,-0.3159,4.4013
2062.5000,-13.8554,0.5035,0.7927,-1.0587,5.3111,-12.1071,-3.5304,1.8874,-6.5001,-20.8224,2.9871,-12.6580,-11.2889,-4.5241,-17.3520,-14.2741,-12.8988,-8.9959,-4.1555
2066.4062,-14.2075,-2.8653,-4.3630,-7.8394,-1.2958,-7.2127,-9.8605,-6.7517,-10.9442,-19.6531,-0.5588,-16.9078,-17.7174,-11.8068,-11.9517,-20.0536,-18.6757,-14.2224,-10.5143
2070.3125,-11.3649,-2.7911,-6.5666,-11.2805,-5.9029,-0.5728,-13.8593,-12.7378,-10.4958,-15.1201,-3.8959,-17.1069,-21.0729,-15.8997,-3.9624,-20.3331,-21.3021,-14.2053,-13.8878
2074.2188,-5.9946,1.1278,-6.1969,-11.7637,-8.8848,5.1163,-16.5922,-15.6362,-4.9993,-8.9917,-4.5456,-13.0893,-21.4970,-17.3881,4.9131,-14.9458,-21.1505,-9.3349,-14.8330
2078.1250,0.5151,7.1521,-4.6223,-10.7868,-11.2681,7.6327,-18.7934,-16.2818,3.6985,-3.4148,-1.0911,-6.4728,-19.8909,-17.6481,11.7364,-7.0458,-19.2430,-1.8897,-14.6399
2082.0312,6.6507,12.4161,-3.1829,-9.9549,-13.8612,6.2605,-19.9752,-16.1455,12.6198,0.4109,5.8775,0.2122,-17.2344,-17.8726,13.8789,-1.0349,-16.4734,5.1558,-14.3949
2085.9375,11.2703,14.5028,-2.4298,-10.0693,-16.6766,2.0059,-18.8726,-16.4621,18.9526,2.8318,13.8426,4.8245,-14.0806,-18.3661,10.6926,0.3064,-13.1679,9.5410,-14.3304
2089.8438,13.8160,12.6421,-2.0824,-10.8526,-19.0044,-3.0457,-14.7904,-17.6365,21.1267,5.1980,19.5321,6.5879,-10.4964,-18.5121,4.1486,-2.4239,-9.2109,10.5834,-13.8545
2093.7500,14.2342,7.8841,-1.6192,-11.4184,-20.0355,-6.8182,-8.6878,-19.2511,19.1903,8.5744,20.5632,6.2025,-6.4022,-17.3767,-2.0868,-5.7756,-4.5422,9.1019,-12.1965
2097.6562,12.7357,2.2545,-0.9860,-11.1101,-19.5582,-8.1940,-3.0456,-20.5937,14.4048,12.6442,16.5832,5.0828,-2.0142,-14.5038,-4.6541,-5.8938,0.4037,6.5594,-9.1992
2101.5625,9.5787,-2.5066,-0.8683,-10.1123,-18.2198,-7.3974,-0.5217,-21.2909,8.3683,15.6266,9.2142,4.2522,1.9490,-10.3603,-2.3842,-1.2365,4.6665,4.0147,-5.7058
2105.4688,4.9994,-5.8401,-2.3307,-9.4153,-17.1566,-5.7308,-2.3435,-21.5823,2.1848,15.3176,0.8767,3.6173,4.4612,-6.1370,3.0617,6.2597,7.1781,1.5209,-3.2538
2109.3750,-0.7013,-8.4148,-6.0867,-10.1627,-17.2385,-4.8792,-7.5941,-22.0538,-3.8886,10.5628,-6.6907,2.0836,4.6869,-3.0505,8.1451,12.3316,7.3501,-1.7098,-3.2439
2113.2812,-7.0154,-11.4069,-11.9091,-12.8300,-18.4428,-6.1253,-13.8814,-23.0514,-10.1860,2.1548,-13.2070,-1.5768,2.4844,-1.6188,9.3836,13.0779,5.4410,-6.5443,-6.0857
2117.1875,-13.1787,-15.5439,-18.5737,-16.7922,-19.7889,-9.7762,-18.8736,-24.2396,-16.9911,-7.4622,-19.4245,-7.6873,-1.4063,-1.3980,5.1337,7.4157,2.4539,-13.0872,-10.8534
2121.0938,-18.3116,-20.5355,-24.3693,-20.5775,-19.8998,-14.9921,-21.5983,-24.6692,-23.9504,-15.4874,-25.8950,-15.1615,-5.6399,-1.3567,-3.7131,-2.2634,-0.3864,-20.3070,-15.6785
2125.0000,-21.7265,-25.2142,-27.8628,-22.6538,-17.8505,-20.0838,-22.6486,-23.3516,-29.9440,-20.2119,-31.9223,-21.9010,-8.8933,-0.6394,-14.3517,-11.5895,-2.2786,-26.3805,-18.6766
2128.9062,-23.2480,-28.2422,-28.4914,-22.2596,-13.7792,-23.2176,-23.2892,-19.9619,-33.5370,-21.7179,-35.5894,-25.8913,-10.5129,0.7863,-23.5035,-16.8340,-3.2515,-29.5754,-18.8906
2132.8125,-23.3472,-28.9088,-26.7078,-19.7793,-8.8874,-23.2933,-24.2368,-15.1815,-33.7772,-21.4735,-34.9639,-26.3392,-10.8212,2.0313,-28.8530,-16.9851,-4.1093,-29.1737,-16.7314
2136.7188,-22.9650,-27.5241,-23.6711,-16.4624,-4.8323,-20.6017,-25.0442,-10.4246,-30.8618,-21.1972,-29.6742,-24.1478,-10.8938,1.8064,-29.8285,-14.0632,-5.9543,-25.9100,-13.6891
2140.6250,-23.0632,-25.1954,-20.6983,-13.6958,-2.8749,-16.8498,-24.4818,-7.0996,-26.2282,-21.7693,-21.6834,-21.4170,-11.9168,-0.7616,-27.5137,-11.6316,-9.5434,-21.6606,-11.4971
2144.5312,-24.1079,-23.1530,-18.7397,-12.2817,-3.2718,-14.3788,-21.5396,-5.8673,-21.9330,-22.8237,-14.5529,-20.2472,-14.4824,-5.5354,-23.8939,-12.5463,-14.8165,-18.5315,-11.2267
2148.4375,-25.7494,-22.0417,-18.0720,-12.1286,-5.2378,-14.8614,-16.2644,-6.3472,-19.6047,-23.1297,-11.5016,-21.5417,-18.2266,-11.3650,-20.8454,-17.3284,-20.8364,-17.8136,-12.8015
2152.3438,-26.8832,-21.5828,-18.2762,-12.4775,-7.4588,-18.1789,-9.8468,-7.4332,-19.5462,-21.3955,-13.4383,-24.5067,-22.0226,-16.6786,-19.2876,-24.0213,-26.1724,-19.3539,-15.1636
2156.2500,-26.0973,-20.7817,-18.4770,-12.4681,-8.8395,-22.2383,-3.9800,-7.9959,-20.5324,-16.9889,-18.2516,-27.1309,-24.6148,-20.3091,-18.8223,-29.4365,-29.5411,-21.6741,-16.9542
2160.1562,-22.3251,-18.5470,-17.7605,-11.6827,-9.0631,-24.0258,-0.0178,-7.5386,-20.4834,-10.2742,-21.8937,-27.3522,-25.3153,-22.0700,-18.0245,-30.9270,-30.3911,-22.7774,-17.2973
2164.0625,-15.4273,-14.3873,-15.6297,-10.3722,-8.6858,-21.4202,1.4947,-6.4391,-17.6883,-2.5550,-20.6657,-24.2270,-24.3511,-22.7698,-15.3028,-27.6672,-29.1452,-21.2200,-16.2481
2167.9688,-6.4487,-8.8239,-12.3136,-9.2752,-8.7577,-14.6923,0.7227,-5.6836,-11.8956,4.2551,-13.3510,-18.4364,-22.6637,-23.6893,-9.9504,-20.8436,-26.9735,-16.8814,-14.6774
2171.8750,2.5845,-3.3011,-8.7519,-9.1694,-10.2098,-6.6614,-1.8629,-6.2898,-4.6177,8.1595,-1.9337,-11.8625,-21.2928,-25.8431,-2.8050,-12.8326,-25.1981,-11.0195,-13.6874
2175.7812,9.2926,0.3934,-6.1869,-10.4012,-13.3365,-1.2424,-5.7694,-8.7483,1.5894,7.7872,9.4844,-6.5073,-20.7213,-29.4306,3.9650,-5.9392,-24.6089,-5.5762,-13.9045
2179.6875,11.7979,0.9696,-5.4980,-12.6264,-17.6204,-1.1579,-10.4359,-12.7560,4.5161,3.1466,16.8823,-3.3897,-20.5612,-33.7328,7.9741,-1.3898,-25.0263,-2.1029,-15.0444
2183.5938,9.5012,-1.6320,-6.6062,-14.8728,-21.9499,-6.2224,-15.0131,-17.3317,3.5885,-3.9380,18.3411,-2.0437,-19.7485,-37.4533,8.0563,0.9792,-25.3362,-0.8954,-15.9812
2187.5000,3.4476,-5.9895,-8.3182,-15.9022,-25.0917,-13.3355,-18.3149,-21.2212,0.2989,-10.1630,14.8026,-0.8786,-17.1153,-39.2840,5.1163,2.3016,-24.0043,-0.8218,-15.2814
2191.4062,-3.9354,-9.6432,-8.7952,-14.7240,-26.1804,-18.2687,-19.1461,-23.3929,-2.5184,-12.0253,9.2826,1.8284,-12.0161,-38.4127,1.7397,3.8449,-19.8384,0.0384,-11.9236
2195.3125,-9.7056,-10.1481,-6.4850,-11.0491,-25.0104,-18.1597,-16.8672,-23.4118,-2.2086,-7.6078,5.1381,6.8800,-4.6891,-34.7741,0.6724,6.2257,-12.6399,3.2783,-5.8450
2199.2188,-11.5688,-6.3098,-1.0458,-5.4790,-22.0264,-13.1440,-11.8175,-21.5445,2.2155,2.0919,4.4047,13.6294,3.7928,-28.9933,3.0798,9.0662,-3.4209,9.1831,1.9490
2203.1250,-8.8284,1.0188,6.2747,0.6819,-18.0551,-6.1043,-5.2675,-18.5583,9.4537,13.2385,7.0249,20.2462,11.9126,-22.1030,7.7399,11.2277,5.9330,16.4380,9.7569
2207.0312,-2.6559,9.0932,13.0900,5.9353,-13.9224,-0.7572,1.1104,-15.3093,16.5309,20.8813,11.1936,24.6110,18.2352,-15.1780,11.7688,11.4620,13.4080,22.7099,15.8519
2210.9375,4.4830,14.4585,16.9767,9.1986,-10.1364,0.6319,5.9401,-12.3208,20.3155,21.5214,14.4544,25.3425,21.8478,-9.0212,12.4573,9.1144,17.6656,25.7997,19.1387
2214.8438,9.9746,14.6499,16.6572,10.2132,-6.7697,-1.5738,8.6003,-9.5802,19.1147,15.0587,14.9138,22.4197,22.5732,-3.9977,9.0131,4.5047,18.5187,24.7398,19.5036
2218.7500,12.1884,9.5196,12.6095,9.5379,-3.5695,-4.9762,9.2176,-6.6774,13.4843,4.8811,12.0238,17.1061,20.9165,-0.0483,3.0397,-1.1894,16.8609,20.2361,17.7169
2222.6562,11.0114,1.4057,6.7537,8.1322,-0.2195,-6.9508,8.2967,-3.2119,5.8435,-4.0551,6.6927,11.2651,17.7940,3.1457,-2.5513,-6.4386,14.1093,14.2209,14.9616
2226.5625,7.5573,-6.0381,1.3961,6.7735,3.3965,-6.3535,6.3007,0.7838,-0.8402,-8.0374,0.7858,6.4620,14.1538,5.9309,-5.4217,-9.9524,11.4717,8.7874,12.2349
2230.4688,3.3134,-9.7431,-1.9595,5.6591,7.0702,-4.0015,3.4773,4.7018,-4.5329,-6.5834,-3.7159,3.3224,10.6323,8.4902,-5.1772,-11.0544,9.4335,5.1182,9.9204
2234.3750,-0.6888,-8.7760,-3.2474,4.4272,10.3519,-1.7564,0.0067,7.6309,-4.9739,-2.3903,-5.5507,1.4367,7.3854,10.7771,-3.3365,-9.7387,7.7221,3.0104,7.7339
2238.2812,-4.1573,-4.6379,-3.5831,2.5694,12.7924,-1.0220,-3.7004,8.9077,-3.4806,0.6569,-4.6700,-0.2074,4.1702,12.5913,-2.0280,-6.5211,5.7254,1.2336,5.0448
2242.1875,-7.1672,-0.1729,-4.3227,-0.0520,14.2063,-1.7843,-6.8303,8.5995,-1.9367,0.0818,-2.1746,-2.5498,0.6360,13.7338,-2.4309,-2.2829,3.0762,-1.5315,1.3785
2246.0938,-9.5046,2.1913,-6.0634,-2.9379,14.8017,-2.7984,-8.3125,7.5838,-1.6273,-3.6603,0.2953,-5.9120,-3.3345,14.1376,-4.0733,1.8115,0.0276,-5.7579,-3.1899
2250.0000,-10.3111,1.7548,-8.2221,-5.1266,15.0905,-2.6368,-7.2642,7.1303,-2.6024,-7.6452,1.4369,-9.8352,-7.4283,13.8992,-5.3922,4.4271,-2.6123,-10.6963,-7.9682
2253.9062,-8.4074,-0.3576,-9.4410,-5.7057,15.6202,-0.7248,-3.5119,8.2173,-3.8702,-8.5077,0.9688,-13.3214,-10.9690,13.2078,-5.0040,4.3797,-3.9299,-14.7542,-11.9349
2257.8125,-3.1595,-2.2322,-8.5197,-4.3323,16.6706,2.3766,2.1212,10.9945,-4.1924,-4.6318,-0.2731,-15.2954,-13.2020,12.2440,-2.6725,1.1933,-3.4398,-16.3665,-14.2009
2261.7188,4.6962,-2.5037,-5.2391,-1.4269,18.0891,5.5258,7.9832,14.7160,-2.9140,2.8967,-0.8978,-15.0248,-13.6181,11.1311,0.7024,-4.3594,-1.3521,-14.8143,-14.3747
2265.6250,12.9311,-1.0412,-0.5287,2.0746,19.3605,7.8435,12.2240,18.1670,-0.3009,11.0602,0.1601,-12.3158,-12.1166,9.9696,3.9299,-10.1544,1.5898,-10.5155,-12.6302
2269.5312,18.6701,1.4022,4.1177,5.2423,19.8725,9.1720,13.6293,20.2952,2.7718,16.7375,3.0073,-7.4540,-8.9356,8.9062,6.4335,-13.3452,4.5760,-4.6675,-9.4747
2273.4375,19.8410,4.1423,7.5653,7.6099,19.2260,9.8964,12.2411,20.6543,5.5020,18.3479,6.8222,-1.0025,-4.4433,8.1485,8.4804,-11.5867,7.1771,1.4733,-5.4013
2277.3438,16.4045,7.2496,9.6719,9.2959,17.4137,10.4309,9.3927,19.4274,7.7167,16.3731,10.5206,6.3975,1.0236,7.8723,10.6422,-4.2690,9.4722,7.1943,-0.6669
2281.2500,10.5817,11.3709,11.2193,10.7503,14.7816,10.8939,7.0625,17.0958,9.9316,12.6911,13.5709,14.1288,7.1522,8.0628,13.0597,6.9787,11.7960,12.4598,4.6693
2285.1562,5.8370,16.8437,13.2290,12.3360,11.8202,11.2384,6.8398,14.0515,12.9066,9.4171,16.3559,21.6101,13.5177,8.4081,15.2367,18.9232,14.3158,17.5664,10.5105
2289.0625,5.1124,22.8928,16.1634,14.0381,8.9353,11.6275,9.0618,10.4413,17.0289,8.0715,19.7937,28.2897,19.4895,8.3645,16.5910,28.2621,16.7731,22.6345,16.4941
2292.9688,9.2885,27.6847,19.5711,15.4813,6.3433,12.5958,12.6349,6.3239,21.9524,9.4069,24.4749,33.6826,24.3299,7.4163,17.2808,33.2328,18.5986,27.3271,21.9681
2296.8750,16.7493,29.3488,22.3926,16.2062,4.1299,14.7342,15.6753,1.9625,26.7172,13.6074,29.9573,37.4547,27.4797,5.4138,18.5055,34.3626,19.3316,30.9882,26.2115
2300.7812,24.3017,27.2730,23.6618,15.9833,2.3857,18.0936,16.5957,-2.0260,30.2423,20.3489,34.7783,39.4923,28.8410,2.7909,21.8441,33.8894,19.0338,33.0673,28.7542
2304.6875,28.9098,22.6831,23.0777,14.9356,1.2760,21.8179,14.9727,-4.8383,31.8507,28.5315,37.2508,39.8924,28.8306,0.4922,27.9747,34.1829,18.3703,33.4895,29.5707
2308.5938,29.2378,17.9986,21.0543,13.3994,0.9639,24.3958,11.6595,-5.8908,31.5088,36.0324,36.5323,38.8604,28.1155,-0.4059,35.7031,36.1197,18.2490,32.6827,29.0116
2312.5000,26.1354,15.3596,18.2797,11.6507,1.4381,24.4508,8.1135,-5.1960,29.6910,40.0479,33.2292,36.5741,27.1786,0.7849,42.1294,38.4196,19.2224,31.2441,27.5259
2316.4062,21.8655,15.3583,15.1856,9.7196,2.3977,21.5575,5.4347,-3.4322,27.0396,38.2431,29.0857,33.1071,26.0086,3.9742,44.0328,38.3760,21.0424,29.5004,25.3777
2320.3125,18.6346,16.8695,11.7734,7.4462,3.3300,16.5299,3.7953,-1.6172,24.0814,30.2171,25.9171,28.4673,24.1398,8.2597,39.6858,33.5509,22.6802,27.2994,22.5597
2324.2188,17.3679,18.0551,7.9203,4.7422,3.7813,11.0066,2.6320,-0.5558,21.1493,18.3050,24.4712,22.7207,21.0293,12.2929,29.9542,23.4006,22.8342,24.1894,18.9523
2328.1250,17.4397,17.7412,3.8708,1.8564,3.6604,6.6431,1.3982,-0.3831,18.4573,6.9293,23.9606,16.1118,16.5122,14.8701,17.9624,9.8327,20.6360,19.8525,14.5889
2332.0312,17.3958,16.1185,0.4397,-0.5796,3.3533,4.4367,0.2524,-0.4846,16.1596,0.5685,22.5860,9.0901,11.0159,15.4456,7.5102,-3.6400,16.1379,14.4654,9.8092
2335.9375,16.0610,14.2914,-1.3256,-1.8071,3.5306,4.5143,0.1195,0.1478,14.2919,1.3758,18.7401,2.2313,5.3879,14.3051,1.2048,-13.6154,10.3103,8.7205,5.1750
2339.8438,13.2333,13.1291,-0.8288,-1.3623,4.7342,6.3223,2.0501,2.3176,12.6613,7.8745,12.1573,-3.8818,0.4710,12.3287,-0.6036,-18.3333,4.5814,3.5003,1.2123
2343.7500,9.5481,12.4304,1.5672,0.6073,7.0014,8.9191,6.3556,6.1229,10.8611,15.6247,4.3143,-8.7313,-3.2626,10.5009,0.4455,-18.1365,0.2180,-0.5497,-1.8133
2347.6562,5.7500,11.1302,4.6483,3.3606,9.7808,11.1652,12.1746,10.8388,8.5119,19.5959,-2.1688,-11.8623,-5.7655,9.4520,2.0061,-14.7065,-2.0985,-3.2421,-3.9100
2351.5625,2.0446,8.3907,7.0656,5.9364,12.2179,11.8780,17.8083,15.2517,5.6156,16.9143,-4.8114,-12.8744,-7.1599,9.2748,2.4451,-9.7280,-2.3215,-4.7393,-5.1544
2355.4688,-1.9004,4.6435,8.1735,7.6696,13.6374,10.1615,21.5904,18.2601,2.7444,8.3959,-2.5629,-11.5062,-7.4143,9.6708,1.5631,-3.9659,-0.7941,-5.2564,-5.4531
2359.3750,-6.2959,1.6230,8.3744,8.5262,13.9126,5.9437,22.6818,19.4052,0.8326,-2.0029,3.5619,-7.8371,-6.2489,10.2763,0.3262,2.6391,2.0440,-4.8541,-4.4953
2363.2812,-10.4918,1.2222,8.6945,9.0427,13.4813,0.4075,21.2827,19.0382,0.6144,-9.4327,10.8282,-2.4889,-3.3693,10.9273,-0.0387,10.0505,5.7861,-3.4964,-1.9820
2367.1875,-12.8692,3.9835,9.8957,9.9073,13.0070,-4.1618,18.2355,18.0382,2.0604,-10.7340,15.9617,3.3773,1.1457,11.6909,1.0952,17.2442,9.9947,-1.2903,2.0185
2371.0938,-11.6363,8.4269,11.7979,11.4569,12.9187,-5.3168,14.4367,17.2541,4.2512,-5.8831,16.6305,8.4015,6.6296,12.6770,3.4658,22.2034,14.0929,1.3610,6.8729
2375.0000,-6.0816,11.8605,13.3481,13.4226,13.1380,-1.7985,10.5406,17.0004,5.8748,2.3933,12.5498,11.6153,12.0013,13.8018,6.2757,22.9910,17.3917,3.9039,11.5457
2378.9062,2.6027,12.2022,13.4174,15.0863,13.1575,5.5209,7.0861,16.8971,6.0943,10.3981,5.6735,12.9641,16.2547,14.7021,8.8291,19.2097,19.3053,6.0275,15.0719
2382.8125,11.6139,9.5209,11.7320,15.7331,12.3919,13.8288,4.7408,16.1344,5.2054,15.4519,-0.6593,13.3898,18.9388,14.8845,10.9595,12.7433,19.6262,7.9851,17.0432
2386.7188,17.9005,6.1305,9.2144,15.0866,10.5460,19.7467,4.2412,13.9897,4.5808,16.9549,-3.2645,14.3208,20.2894,14.0123,12.9746,7.0603,18.6474,10.5096,17.7709
2390.6250,19.7852,5.0886,7.4243,13.4329,7.7620,21.1397,5.9165,10.2762,5.8455,16.1130,-0.6034,16.7948,20.9205,12.1337,15.2244,5.3488,17.0104,14.2636,17.9981
2394.5312,17.8191,8.1134,7.4708,11.3707,4.4909,18.2588,9.1607,5.4657,9.7768,14.7838,6.5305,20.7359,21.3029,9.6920,17.6695,8.6313,15.3555,19.1594,18.3522
2398.4375,14.3295,14.3819,9.1870,9.3897,1.2306,13.4997,12.4071,0.4359,15.6588,14.3254,15.5030,24.8803,21.4236,7.3152,19.8054,15.1329,14.0056,24.0727,18.9237
2402.3438,11.9842,21.0518,11.2031,7.6002,-1.6605,9.9473,13.8461,-3.9711,21.5652,15.1252,23.2397,27.4689,20.8793,5.5264,21.0182,21.3928,12.9005,27.2759,19.2757
2406.2500,12.3202,25.1289,11.9067,5.8094,-3.9665,9.6365,12.5163,-7.2987,25.4334,16.8779,27.7478,27.3217,19.3283,4.5592,21.1025,24.4298,11.8148,27.4287,18.8724
2410.1562,15.1333,25.3640,10.6219,3.8730,-5.5022,12.5828,8.9977,-9.5417,26.2578,19.1617,28.8942,24.6138,16.9392,4.3676,20.5225,23.5329,10.6726,24.5188,17.6023
2414.0625,18.9699,22.8912,8.1561,2.0258,-6.0484,17.0653,5.1183,-10.9440,24.6348,21.7647,28.0411,20.8225,14.4564,4.7703,20.1590,20.4834,9.6926,20.0910,15.9841
2417.9688,22.2121,20.2540,6.3012,0.9005,-5.4379,20.8144,2.7796,-11.7142,22.3173,24.5544,26.8655,17.8329,12.7781,5.5852,20.6626,18.0882,9.2182,16.5117,14.8667
2421.8750,23.9358,19.5984,6.6189,1.1662,-3.7411,22.2594,2.6937,-11.8725,21.0871,27.1277,26.1962,16.7481,12.3112,6.6444,21.8578,18.0620,9.3406,15.6432,14.8062
2425.7812,24.0435,21.3218,9.3472,3.0120,-1.3801,21.1121,3.9519,-11.3159,21.6779,28.6664,25.6347,17.1640,12.5614,7.7035,22.6636,19.7305,9.6148,17.7137,15.5556
2429.6875,22.8054,24.0233,13.1722,5.8374,0.9672,18.1318,4.7659,-10.0114,23.4023,28.2305,24.1303,17.3838,12.2858,8.3633,21.6661,20.4246,9.1391,21.0858,16.0470
2433.5938,20.3691,25.6035,15.9951,8.3982,2.6510,14.4548,3.8455,-8.1425,24.6335,25.3133,20.9715,15.4383,10.1578,8.1270,18.0077,17.2584,7.0283,23.0740,14.9166
2437.5000,16.6993,24.5811,16.1394,9.3597,3.3441,11.0162,1.3813,-6.0806,23.7374,20.2243,16.3748,10.2614,5.5440,6.6053,11.9850,9.0541,3.0092,21.3287,11.2522
2441.4062,11.9233,20.6774,13.1871,7.9397,3.1441,8.3279,-1.1178,-4.2018,19.8332,13.9534,11.2030,2.2902,-1.0972,3.7561,4.9117,-2.8524,-2.2652,14.9810,5.0955
2445.3125,6.6355,14.4192,7.9537,4.2665,2.4168,6.5107,-2.0127,-2.6906,12.9819,7.5644,6.0683,-6.8443,-8.4400,-0.0095,-1.6954,-15.3577,-7.4431,4.9451,-2.5933
2449.2188,1.7323,6.3161,1.7532,-0.7358,1.5074,5.3354,-0.8405,-1.4773,3.8681,1.5425,0.6119,-15.2668,-14.9806,-3.9487,-7.0477,-25.2659,-11.1593,-6.6796,-10.4403
2453.1250,-2.1989,-3.5466,-4.4292,-5.8297,0.5387,4.1795,1.2656,-0.3537,-6.6320,-4.4104,-6.3420,-21.7954,-19.7479,-7.2858,-11.4595,-30.7455,-12.7762,-17.6412,-17.2730
2457.0312,-5.4447,-15.0940,-10.2628,-10.0059,-0.5643,2.0508,2.3629,0.8248,-17.6287,-10.9471,-15.7322,-26.2839,-22.6104,-9.5236,-15.8844,-31.7450,-12.7136,-26.3751,-22.4708
2460.9375,-9.1210,-27.3936,-15.7636,-12.7914,-1.8731,-2.1141,1.0838,1.9986,-28.0928,-18.3028,-27.0413,-29.2455,-24.0456,-10.5970,-20.9518,-29.3811,-12.1450,-32.2640,-25.9109
2464.8438,-14.4031,-38.1782,-20.7334,-14.2180,-3.2683,-8.8731,-2.4433,2.9252,-36.6974,-25.7488,-37.8846,-31.1237,-24.5968,-10.8031,-26.2406,-25.0000,-12.2380,-35.3648,-27.6717
2468.7500,-21.5190,-44.3983,-24.4926,-14.5697,-4.4386,-17.7156,-6.8175,3.3399,-41.9543,-31.7151,-44.8880,-31.7828,-24.4171,-10.5772,-30.3719,-19.6550,-13.4137,-35.9567,-27.7872
2472.6562,-29.2646,-43.6903,-26.1702,-14.1251,-5.0733,-26.9215,-10.5034,3.1403,-42.7214,-34.5739,-45.4263,-30.5737,-23.1985,-10.2669,-31.8946,-14.2092,-15.0943,-34.2702,-26.2401
2476.5625,-35.4733,-35.9108,-25.3343,-13.0540,-5.0894,-34.0483,-12.9452,2.4616,-38.8167,-33.6019,-39.1463,-26.8964,-20.4991,-10.0293,-30.3239,-9.6653,-16.1005,-30.5213,-23.1462
2480.4688,-38.1803,-23.7082,-22.4514,-11.4832,-4.7027,-36.8801,-14.7686,1.5903,-31.3175,-29.4933,-28.2822,-20.8334,-16.2112,-9.8876,-26.5510,-7.1578,-15.4494,-25.1149,-18.9153
2484.3750,-36.7014,-11.6285,-18.7863,-9.6296,-4.2857,-34.3816,-16.9541,0.7651,-22.2846,-24.0693,-16.5482,-13.4021,-10.8487,-9.8768,-22.2978,-7.4309,-13.0580,-18.7823,-14.2148
2488.2812,-31.9089,-4.1357,-15.7798,-7.8777,-4.1416,-27.2031,-19.7236,-0.0177,-14.0099,-19.3455,-7.3141,-6.2540,-5.4741,-10.1686,-19.0117,-10.1916,-9.9187,-12.5074,-9.7464
2492.1875,-25.5860,-3.5842,-14.3292,-6.7432,-4.3920,-17.5323,-22.1279,-1.0754,-8.1790,-16.5251,-2.1826,-1.0113,-1.3218,-11.0874,-17.0223,-13.9691,-7.6408,-7.2772,-6.0162
2496.0938,-19.4060,-9.2146,-14.4522,-6.7351,-5.0731,-8.3964,-22.7440,-2.9340,-5.3700,-15.5171,-0.7348,1.3675,0.6585,-12.9923,-15.5793,-16.7843,-7.6282,-3.7974,-3.2752
2500.0000,-14.2843,-17.6593,-15.5071,-8.1754,-6.3322,-2.6967,-20.9454,-6.0785,-5.0742,-15.2277,-1.3864,0.8704,0.1128,-16.0756,-13.7068,-17.2959,-10.3592,-2.3085,-1.6477
2503.9062,-10.4618,-24.6268,-16.7336,-11.0370,-8.4999,-2.2788,-17.6806,-10.6653,-6.1272,-14.3913,-2.6051,-1.7183,-2.6587,-20.1678,-11.1736,-15.6494,-15.1509,-2.5532,-1.2838
2507.8125,-8.0364,-26.8663,-17.6843,-14.8594,-11.8942,-7.2865,-15.0307,-16.3367,-7.2616,-12.4009,-3.6529,-5.2378,-6.8566,-24.6538,-8.7907,-13.3869,-20.4960,-3.8790,-2.3457
2511.7188,-7.3156,-23.4685,-18.2705,-18.8036,-16.4484,-16.0127,-14.7859,-22.2533,-7.5374,-9.6552,-4.5073,-8.5917,-11.4405,-28.5710,-7.7884,-12.4089,-24.7515,-5.4422,-4.7930
2515.6250,-8.5966,-15.9876,-18.4994,-21.8793,-21.4536,-25.3964,-17.1119,-27.3732,-6.5567,-7.2733,-5.2699,-11.0272,-15.3936,-30.8910,-8.7645,-13.6515,-26.8002,-6.4793,-8.1471
2519.5312,-11.5840,-7.4905,-18.2284,-23.3125,-25.6877,-32.1290,-20.3872,-30.8824,-4.4986,-6.4169,-5.6795,-12.2124,-17.9423,-30.8954,-11.0544,-16.3620,-26.3741,-6.5886,-11.4918
2523.4375,-15.0717,-1.1082,-17.2168,-22.9120,-27.9515,-34.0189,-22.4219,-32.5761,-2.0233,-7.6461,-5.1446,-12.1719,-18.7132,-28.4849,-13.0614,-18.4645,-23.9486,-5.9125,-13.8229
2527.3438,-17.3744,1.2028,-15.4528,-21.2352,-27.7200,-30.9913,-22.1828,-32.9712,-0.0588,-10.6517,-3.2235,-11.1689,-17.7991,-24.2573,-13.3388,-17.7979,-20.3447,-5.0994,-14.5830
2531.2500,-17.3553,-0.8066,-13.4530,-19.4018,-25.4779,-25.1247,-20.6887,-33.0426,0.5225,-14.4412,-0.1207,-9.5939,-15.7088,-19.2849,-11.6191,-13.4572,-16.3007,-5.0082,-14.0287
2535.1562,-15.3090,-5.9466,-12.2001,-18.5847,-22.4805,-19.5767,-20.3186,-33.6759,-0.7506,-17.8099,3.1976,-7.8857,-13.1955,-14.6750,-9.0113,-6.4410,-12.2381,-6.2715,-13.1406
2539.0625,-12.9388,-12.3754,-12.6527,-19.4127,-20.0527,-16.9086,-22.9693,-35.1139,-3.7459,-19.8310,5.3413,-6.4905,-11.0179,-11.1265,-7.2104,0.7390,-8.3012,-8.9559,-13.0809
2542.9688,-12.2976,-18.4374,-15.1130,-21.6147,-18.8558,-17.7651,-28.4122,-36.7170,-7.8131,-20.1654,5.0320,-5.8464,-9.7286,-8.7152,-7.3129,5.2196,-4.5815,-12.5315,-14.5184
2546.8750,-14.3791,-23.1552,-18.8962,-24.1281,-18.5806,-20.7184,-34.1165,-37.2119,-12.1434,-19.1309,1.5242,-6.3584,-9.5655,-7.0141,-9.1197,5.0711,-1.3401,-16.1801,-17.2471
2550.7812,-18.3888,-26.2423,-22.5741,-25.6274,-18.2419,-23.3745,-36.7553,-35.3259,-16.1909,-17.5685,-5.2160,-8.3188,-10.4625,-5.4622,-11.4287,0.0804,0.9410,-19.2439,-20.3313
2554.6875,-22.2735,-27.7949,-24.6787,-25.1775,-16.8518,-24.0080,-34.3662,-30.4759,-19.8714,-16.5705,-14.4845,-11.7593,-12.1239,-3.7505,-13.0653,-8.2572,1.7326,-21.5121,-22.6542
2558.5938,-24.1604,-27.9725,-24.4376,-22.6398,-14.0184,-22.6243,-27.6392,-23.1311,-23.3879,-17.1229,-24.8499,-16.2891,-14.0963,-1.9937,-13.8518,-17.4254,0.7612,-23.1557,-23.4905
2562.5000,-23.6470,-26.9043,-22.0908,-18.6247,-10.1090,-20.7434,-19.4260,-14.6526,-26.8085,-19.7219,-34.2465,-21.0387,-15.8208,-0.6113,-14.7752,-24.8798,-1.7533,-24.3771,-22.7419
2566.4062,-21.9752,-24.8250,-18.6275,-14.0767,-5.9438,-20.1010,-12.8511,-6.7144,-29.7211,-24.0748,-40.3342,-24.8221,-16.7119,-0.0333,-17.2192,-28.9212,-5.0991,-25.0572,-20.7534
2570.3125,-20.9542,-22.2322,-15.1621,-9.7958,-2.3058,-21.2296,-9.3964,-0.6376,-31.2677,-29.0367,-41.2267,-26.5274,-16.3170,-0.4541,-21.8123,-29.1493,-8.3571,-24.6955,-17.9362
2574.2188,-21.4600,-19.8292,-12.3734,-6.1982,0.3711,-22.9671,-8.2994,3.0065,-30.5958,-32.8962,-36.3816,-25.5952,-14.5446,-1.7964,-27.7110,-26.3917,-10.8386,-22.7246,-14.5357
2578.1250,-22.6776,-18.2022,-10.3394,-3.4115,1.9687,-23.2621,-7.5981,4.3689,-27.4537,-33.9841,-27.1620,-22.3434,-11.8420,-3.8807,-32.8275,-22.2119,-12.4296,-18.9993,-10.7184
2582.0312,-22.6972,-17.4321,-8.7879,-1.5412,2.4380,-20.7063,-5.9339,3.9816,-22.5217,-31.3896,-16.5956,-17.9362,-9.1655,-6.6335,-34.8686,-18.2441,-13.6295,-14.1129,-6.8511
2585.9375,-20.0418,-16.9594,-7.5019,-0.8301,1.6298,-15.6952,-3.7138,2.3832,-17.2202,-25.4509,-8.2567,-13.9588,-7.6613,-10.1408,-32.5521,-15.6437,-15.2365,-9.2851,-3.6541
2589.8438,-14.9710,-15.8755,-6.5482,-1.5438,-0.6022,-10.3806,-2.7719,-0.0448,-13.0664,-17.7387,-4.7379,-11.7663,-8.1504,-14.4829,-26.2975,-14.8493,-17.8442,-5.8382,-1.9950
2593.7500,-9.5455,-13.5074,-6.1770,-3.6528,-4.1016,-7.4224,-4.8339,-2.9853,-10.9378,-10.4735,-6.4965,-11.9050,-10.6698,-19.4679,-18.0537,-15.6668,-21.4397,-4.5463,-2.3801
2597.6562,-6.3377,-9.9129,-6.5045,-6.5811,-8.1990,-8.3641,-9.9863,-5.9991,-10.6563,-5.6117,-11.6972,-13.8746,-14.3532,-24.4898,-10.4157,-17.5295,-25.3439,-5.2242,-4.4939
2601.5625,-6.6727,-5.9254,-7.2598,-9.2840,-11.8567,-12.6762,-16.3179,-8.4765,-11.1092,-4.0326,-17.1339,-16.3465,-17.7785,-28.6732,-5.5110,-19.7386,-28.5401,-6.7921,-7.1768
2605.4688,-9.6374,-2.6857,-7.8285,-10.7077,-14.1800,-18.0321,-21.0117,-9.8513,-10.8245,-5.2250,-19.7246,-17.7449,-19.6523,-31.2772,-4.1668,-21.5956,-30.2052,-7.7920,-8.9783
2609.3750,-12.5553,-0.9685,-7.6095,-10.4107,-15.0025,-21.5716,-22.0994,-9.9844,-8.6984,-7.6244,-17.8174,-16.9483,-19.4886,-32.1285,-5.6691,-22.4783,-30.1369,-7.1097,-9.0216
2613.2812,-12.6074,-0.7655,-6.4741,-8.9721,-15.1351,-21.3513,-19.6460,-9.4596,-4.5394,-9.4070,-11.7262,-13.8160,-17.9034,-31.7954,-8.1624,-21.9629,-28.8316,-4.5643,-7.6589
2617.1875,-8.5218,-1.4112,-5.0215,-7.8899,-16.0363,-17.1919,-15.5948,-9.5382,0.7899,-9.3117,-3.3777,-9.3078,-16.3328,-31.3389,-9.5029,-20.0044,-27.1690,-1.0988,-6.4591
2621.0938,-1.2704,-2.1360,-4.4266,-8.9473,-19.0230,-10.6077,-12.4769,-11.6973,5.6773,-7.0770,4.6295,-5.1151,-16.2875,-31.7294,-8.2178,-17.0338,-25.8848,1.5358,-7.4476
2625.0000,6.5644,-2.6208,-5.8991,-13.3260,-24.4523,-4.0440,-11.9379,-16.9277,8.4034,-3.3291,10.0700,-2.9221,-18.5190,-33.2365,-4.1663,-13.7987,-25.1253,1.5092,-11.9730
2628.9062,12.2261,-3.1295,-10.0038,-20.9135,-31.3608,0.0963,-14.0347,-25.1434,7.8961,0.9125,11.8425,-3.5948,-22.5393,-35.1535,1.4228,-10.9310,-24.3298,-2.2144,-19.8282
2632.8125,14.0866,-4.1295,-16.1969,-30.1727,-37.8022,0.2531,-17.5995,-35.0296,4.3016,4.7464,10.2231,-6.6853,-26.7659,-36.0539,6.5894,-8.4821,-22.5081,-9.2305,-29.1385
2636.7188,12.1336,-5.7124,-22.8545,-38.6717,-41.7244,-3.8190,-21.1949,-44.4538,-0.9228,7.6094,6.6046,-10.5404,-29.2409,-34.4818,9.6549,-5.7921,-18.7743,-17.6172,-37.1164
2640.6250,7.5953,-7.2964,-27.8465,-44.0366,-41.9166,-10.9232,-23.8871,-51.2654,-5.5380,9.1601,2.8416,-13.0360,-28.5674,-29.7217,10.0557,-1.8967,-12.8714,-24.5645,-41.2997
2644.5312,2.1689,-7.8942,-29.4271,-44.8805,-38.5191,-18.6749,-25.3798,-54.1035,-7.5341,9.0531,0.4404,-12.6158,-24.5793,-22.2195,8.5022,3.7070,-5.4194,-27.5160,-40.6249
2648.4375,-2.6200,-6.8042,-27.0256,-41.2722,-32.8388,-24.1933,-25.6516,-52.8218,-6.1678,6.9078,-0.0758,-9.1000,-18.3939,-13.4048,6.3673,10.4372,2.2518,-25.3184,-35.7845
2652.3438,-5.7085,-4.2453,-21.5277,-34.5445,-26.6034,-25.1519,-24.6038,-48.3453,-2.4468,2.5955,0.6847,-3.8034,-11.8172,-4.9986,4.7111,16.6286,8.6291,-18.7878,-28.7146
2656.2500,-6.5679,-1.4612,-14.8683,-26.5762,-21.0871,-20.8329,-22.0915,-42.0778,1.3028,-3.3461,1.4315,1.1360,-6.4231,1.8084,3.6077,20.2479,12.6648,-10.3476,-21.5322
2660.1562,-5.2751,-0.1574,-9.1128,-18.9429,-16.5918,-12.6417,-18.2598,-35.2151,2.6453,-9.5577,1.0115,3.8560,-2.8134,6.8340,2.2383,19.9096,14.2273,-2.8787,-15.5251
2664.0625,-2.6199,-1.5796,-5.4931,-12.3739,-12.5427,-3.6731,-13.7683,-28.3330,0.3797,-14.2481,-0.8928,3.6728,-0.4648,10.7591,-0.3305,15.5513,14.1071,1.6222,-10.7352
2667.9688,-0.0599,-5.7756,-3.9133,-6.7531,-8.0943,2.6084,-9.5723,-21.4308,-4.7749,-16.0483,-3.6496,1.2811,1.7640,14.4586,-4.2718,8.3664,13.5423,2.8508,-6.3104
2671.8750,0.6761,-11.4694,-3.1934,-1.5808,-2.8529,3.9604,-6.3475,-14.3123,-10.5956,-14.8623,-6.2428,-1.8170,4.7810,18.2377,-8.6956,0.1166,13.4951,2.0544,-1.3479
2675.7812,-1.7048,-16.6077,-1.8962,3.4468,2.7367,0.3799,-4.0223,-6.9988,-14.6408,-12.1293,-8.1185,-4.2449,8.5908,21.4728,-12.1663,-7.6424,14.0734,1.0878,4.3240
2679.6875,-7.3741,-19.2700,0.7547,8.1149,7.5757,-6.0241,-1.8644,0.1160,-15.6191,-10.2043,-9.6733,-5.4463,12.2202,22.9126,-13.6742,-13.9199,14.4501,1.2795,9.9132
2683.5938,-15.1316,-18.4823,4.4024,11.8004,10.5467,-12.2169,0.8589,6.4438,-13.9980,-11.1096,-11.9667,-5.7523,14.2849,21.4625,-13.3512,-18.1553,13.3595,2.7807,14.1049
2687.5000,-22.7926,-14.5884,7.7817,13.8853,11.1902,-15.7900,4.1161,11.5360,-11.5190,-15.3572,-15.8072,-5.8916,13.8304,16.9500,-12.4063,-19.9547,9.8995,4.7065,15.8642
2691.4062,-28.0480,-9.0860,9.4602,14.1511,9.9831,-16.0083,6.8561,15.2978,-10.0025,-21.5708,-20.8758,-6.3818,10.9019,10.3603,-12.3344,-19.1385,4.1547,5.8505,15.0622
2695.3125,-29.3754,-4.0606,8.6112,12.8726,8.0234,-13.8424,7.5351,17.9118,-10.2695,-27.1904,-25.5885,-7.2564,6.4750,3.3581,-13.9762,-16.1617,-2.7652,5.4298,12.5074
2699.2188,-26.5893,-1.4472,5.3638,10.5678,6.3133,-11.1104,5.1155,19.5426,-11.8582,-29.8778,-27.9011,-8.2610,1.8057,-2.6165,-17.0836,-12.4818,-9.3184,3.3978,9.3731
2703.1250,-20.8497,-2.3515,0.5887,7.6213,5.1019,-9.3452,-0.1424,20.0700,-13.6107,-28.7954,-26.5639,-9.2580,-2.3461,-7.1103,-20.6321,-10.3121,-14.3913,0.2434,6.4184
2707.0312,-14.2100,-6.6180,-4.6466,4.0819,3.7264,-9.0630,-6.6535,19.0826,-14.5908,-24.9935,-21.9558,-10.4255,-6.0805,-10.7923,-23.5545,-11.6049,-17.8683,-3.4309,3.5435
2710.9375,-8.9193,-12.7970,-9.5531,-0.2138,1.0754,-9.7566,-12.2830,16.1562,-14.6231,-20.6842,-15.8858,-12.0385,-10.0580,-14.8877,-25.2991,-16.7873,-20.5311,-7.1738,-0.0102
2714.8438,-6.6886,-18.5811,-13.7555,-5.3058,-3.6152,-10.4574,-15.4304,11.2137,-14.1079,-17.8664,-10.4704,-14.0117,-14.7583,-20.2883,-25.8215,-24.1517,-23.3556,-10.6408,-4.9550
2718.7500,-8.0890,-21.6332,-17.1196,-10.8486,-10.1491,-10.4171,-15.7652,4.6923,-13.3791,-17.1458,-6.8595,-15.6305,-19.8493,-26.9140,-25.1297,-30.5106,-26.6917,-13.4100,-11.2445
2722.6562,-12.2495,-20.5260,-19.5310,-16.1527,-17.3471,-9.4964,-14.2380,-2.6113,-12.2217,-17.4490,-4.6995,-15.7959,-24.1554,-33.7080,-22.8808,-32.8856,-29.9054,-14.9584,-17.8665
2726.5625,-17.0368,-15.3897,-20.8619,-20.5155,-23.6350,-8.1180,-12.4731,-9.8967,-10.0136,-16.7645,-2.6853,-13.7140,-26.3014,-39.2178,-18.4769,-30.2181,-31.7481,-14.9313,-23.3080
2730.4688,-19.8015,-7.9249,-21.1416,-23.5943,-27.8583,-6.9230,-11.9722,-16.6414,-6.4059,-13.4254,0.2320,-9.5765,-25.6179,-42.3412,-11.6754,-23.9709,-31.2125,-13.5238,-26.3937
2734.3750,-18.5174,-0.7160,-20.7195,-25.5289,-29.8007,-6.3901,-13.5428,-22.6044,-1.9710,-7.1648,3.8805,-4.7176,-22.6850,-42.7587,-3.2587,-17.1862,-28.2785,-11.6127,-26.9382
2738.2812,-12.8376,3.8634,-20.1925,-26.7174,-30.0915,-6.6198,-17.1097,-27.5877,1.7835,0.6412,6.8527,-1.0501,-19.1029,-40.8373,4.8203,-12.6064,-24.0129,-10.4134,-25.7781
2742.1875,-4.4755,4.6266,-20.0699,-27.4203,-29.6060,-7.3376,-21.8255,-31.2062,3.1785,7.6232,7.4513,-0.0741,-16.5930,-37.1757,10.0837,-11.0967,-19.9258,-10.7924,-24.1724
2746.0938,3.4332,1.9593,-20.4054,-27.5115,-28.7997,-8.0582,-26.3365,-32.9252,1.4383,11.5547,4.9201,-2.0529,-15.9831,-32.1743,10.6942,-11.3755,-17.0028,-12.6786,-22.9849
2750.0000,7.7835,-2.5415,-20.7066,-26.5815,-27.4358,-8.3136,-29.1477,-32.4026,-2.6813,11.3594,0.1027,-5.8579,-16.7153,-25.9364,6.4885,-11.1275,-15.0666,-15.0073,-22.1855
2753.9062,7.0412,-6.9313,-20.2471,-24.3242,-24.8711,-7.8610,-29.0833,-29.8980,-7.1962,7.5243,-4.9112,-9.5603,-17.1834,-18.5143,-0.7369,-8.6364,-12.9078,-16.2953,-20.9746
2757.8125,2.0048,-9.7958,-18.5895,-20.9050,-20.6732,-6.8026,-25.7580,-26.3970,-9.9843,1.8044,-7.8974,-11.3952,-15.6808,-10.2478,-7.8955,-3.7958,-9.1120,-15.5039,-18.4041
2761.7188,-4.6795,-10.7014,-15.9371,-17.0112,-15.1223,-5.5661,-19.8300,-23.2715,-9.9689,-3.5603,-7.6480,-10.5409,-11.3778,-1.9017,-11.9285,2.0930,-3.0474,-12.6385,-14.0583
2765.6250,-9.9845,-10.0663,-13.0251,-13.5160,-9.2479,-4.7220,-12.7980,-21.6179,-7.6382,-6.7269,-4.4869,-7.3358,-4.7673,5.5135,-11.1352,7.4107,4.6177,-8.7009,-8.3604
2769.5312,-12.0883,-8.6368,-10.6000,-10.9759,-4.3769,-4.6838,-6.3260,-21.6710,-4.5969,-6.8758,0.0534,-2.9264,2.6199,11.1076,-5.8938,11.2806,12.1844,-5.0453,-2.3524
2773.4375,-11.1367,-6.9381,-8.8528,-9.3035,-1.4803,-5.4140,-1.4281,-22.6616,-2.4882,-4.3755,4.0863,1.3529,8.9934,14.4162,1.5475,13.8346,17.7935,-2.5738,2.8568
2777.3438,-8.7582,-5.0168,-7.2278,-7.8269,-0.7086,-6.2905,1.9788,-23.2018,-2.0014,-0.4724,6.2241,4.5155,13.0978,15.4802,8.1120,15.6272,20.3514,-1.2789,6.6129
2781.2500,-6.6983,-2.5608,-4.7663,-5.6787,-1.3483,-6.2425,4.8215,-21.9467,-2.5622,3.3382,6.0440,6.1753,14.6290,14.7183,11.3044,16.8232,19.9829,-0.3751,8.9284
2785.1562,-5.4942,0.7491,-0.7592,-2.2499,-2.1719,-4.1390,8.0567,-18.1350,-2.8127,5.9897,4.0919,6.5300,14.1541,12.7357,10.3540,16.9047,17.8062,1.1327,10.3392
2789.0625,-4.0742,4.9175,4.7376,2.5532,-1.9632,0.7086,11.8561,-11.7544,-1.4870,7.2686,1.5777,6.1845,12.6951,10.1843,6.5426,15.1512,15.2403,3.8432,11.5608
2792.9688,-0.5589,9.5337,10.8662,8.3236,0.0224,8.1347,15.3948,-3.3688,1.8848,7.7863,-0.0616,5.8998,11.2360,7.6740,2.5170,11.4670,13.2777,7.6604,13.1382
2796.8750,6.2444,13.9282,16.4071,14.3286,3.8009,16.9786,17.4293,6.1458,6.8049,8.5122,0.3608,6.2947,10.3521,5.6544,0.8802,6.8149,12.0997,11.8947,15.2131
2800.7812,15.6342,17.4615,20.3717,19.6804,8.6365,25.2970,17.2760,15.7425,12.1397,10.1203,3.3202,7.5417,10.0381,4.2391,2.7723,2.8167,11.1542,15.6021,17.4346
2804.6875,24.9238,19.7712,22.3643,23.4544,13.2424,30.8961,15.4825,24.2232,16.6534,12.5325,8.2649,9.1810,9.7390,3.0739,7.2250,0.7415,9.5591,17.9276,19.0204
2808.5938,30.6263,20.8517,22.5471,24.8395,16.1874,32.0441,13.6790,30.3278,19.4343,14.9380,13.6517,10.2180,8.5764,1.4228,11.6983,0.6102,6.5780,18.3241,18.9906
2812.5000,30.2876,20.9562,21.3498,23.4090,16.4411,28.1476,13.6697,33.0567,20.0881,16.2897,17.4688,9.5702,5.7474,-1.4555,13.5326,1.1004,1.9619,16.6635,16.5708
2816.4062,23.9138,20.4075,19.2124,19.4521,13.8829,20.1450,16.3472,32.1551,18.7597,15.9650,18.1252,6.7107,0.9929,-5.7894,11.4754,0.3804,-3.9331,13.3038,11.6549
2820.3125,14.1413,19.4375,16.5442,14.1287,9.5073,10.4017,21.1193,28.4409,16.0787,14.1638,15.2992,2.1555,-5.0690,-10.9569,6.3634,-2.6564,-10.2379,9.1022,5.0924
2824.2188,5.0033,18.1383,13.8341,9.2077,5.1178,2.0348,26.1681,23.6388,13.0413,11.7821,10.2494,-2.5535,-10.9725,-15.6133,0.5557,-7.5708,-15.8183,5.2808,-1.4409
2828.1250,-0.0470,16.5319,11.6877,6.3708,2.5442,-2.1826,29.3200,19.6586,10.7634,9.8538,5.3244,-5.4687,-14.8868,-18.2914,-3.4882,-12.5162,-19.6050,3.0705,-6.0439
2832.0312,0.2282,14.6908,10.6374,6.3906,2.7311,-0.9487,28.9767,17.6555,10.0871,8.9418,2.8562,-5.1889,-15.3873,-18.1564,-4.5470,-15.2610,-20.9159,3.2130,-7.4251
2835.9375,4.4409,12.8152,10.8003,8.6684,5.2067,4.9083,24.6464,17.4303,11.1733,8.8872,4.0000,-1.6308,-12.1365,-15.4491,-3.0568,-14.4721,-19.6561,5.5617,-5.5271
2839.8438,9.5619,11.1964,11.6523,11.4700,8.2891,12.6172,16.9580,17.5756,13.3208,9.0539,8.1456,3.8330,-6.0939,-11.3256,-0.4529,-10.5061,-16.3081,9.0447,-1.5613
2843.7500,12.6718,10.0641,12.1501,12.7925,9.9703,18.5254,7.3440,16.3191,15.1940,8.8499,13.2161,8.9769,0.8851,-7.1816,1.9612,-5.2728,-11.7047,12.0818,2.6006
2847.6562,12.4413,9.3875,11.1961,11.3832,8.9909,19.6305,-2.3744,12.5600,15.4108,8.1186,16.6788,11.7544,6.8539,-3.8909,3.7313,-1.2752,-6.6930,13.2700,5.3356
