Time,Fp1,F3,C3,P3,O1,F7,T3,T5,Fz,Fp2,F4,C4,P4,O2,F8,T4,T6,Cz,Pz
0.0000,-0.3545,2.2516,2.3755,1.0560,1.0614,1.6636,1.4854,-0.1213,0.5534,-1.8045,-1.7005,-3.1623,0.3464,0.1456,-2.7534,-3.7414,-0.3865,2.5314,1.2517
3.9062,-0.2874,3.3028,1.9913,-1.3528,-0.4029,2.1420,1.3203,-1.6252,0.8219,-2.6480,-2.5294,-4.4793,-1.1660,-0.7862,-3.9066,-4.6313,-1.5529,1.0234,-0.6347
7.8125,-0.1882,4.0996,1.6777,-4.2317,-1.8866,2.3860,1.4367,-3.0619,0.9914,-3.4320,-3.3527,-5.7342,-3.7263,-2.1129,-4.8880,-4.9833,-3.0364,-1.6183,-3.8523
11.7188,-0.3408,3.8439,1.2866,-6.7023,-2.8163,2.0107,1.7704,-3.8239,0.7430,-3.7739,-3.9779,-6.4459,-6.9766,-3.5701,-5.1943,-4.3472,-4.3457,-5.0977,-7.9762
15.6250,-0.9498,2.0641,0.4734,-7.9904,-2.8212,0.8395,1.9979,-3.5873,-0.1363,-3.5124,-4.3143,-6.3040,-10.1480,-4.7783,-4.5719,-2.6515,-4.9738,-8.6727,-12.0415
19.5312,-1.9999,-1.0453,-1.1259,-7.8310,-1.9705,-0.9875,1.6511,-2.5316,-1.6089,-2.8535,-4.4002,-5.3292,-12.3403,-5.4081,-3.2046,-0.3141,-4.6894,-11.4012,-14.8788
23.4375,-3.2822,-4.6776,-3.6573,-6.6195,-0.7928,-3.1028,0.3401,-1.2893,-3.3984,-2.2926,-4.3673,-3.8822,-12.9119,-5.3423,-1.6837,1.8898,-3.7038,-12.5381,-15.6201
27.3438,-4.5619,-7.8516,-6.9049,-5.2216,-0.0459,-5.1321,-2.0293,-0.6423,-5.1531,-2.3454,-4.3683,-2.5137,-11.7745,-4.7398,-0.7511,3.1551,-2.5873,-11.8972,-14.1198
31.2500,-5.7384,-9.9497,-10.3420,-4.5465,-0.3413,-6.8829,-5.1497,-1.1299,-6.6431,-3.2437,-4.5058,-1.7323,-9.4286,-3.9576,-0.9271,3.0126,-1.9656,-9.9938,-11.0614
35.1562,-6.8513,-10.9892,-13.3452,-5.1144,-1.8201,-8.3608,-8.3696,-2.7807,-7.8401,-4.7840,-4.7881,-1.8000,-6.7278,-3.3691,-2.2147,1.5480,-2.1748,-7.8746,-7.6875
39.0625,-7.9146,-11.4471,-15.4393,-6.8401,-4.0605,-9.6115,-10.8910,-5.1007,-8.8235,-6.4143,-5.1277,-2.6528,-4.5125,-3.1836,-4.0493,-0.6407,-3.0946,-6.6917,-5.2875
42.9688,-8.7226,-11.7828,-16.4272,-9.1239,-6.2791,-10.5271,-12.0370,-7.3107,-9.5942,-7.5014,-5.3858,-3.9721,-3.3160,-3.3747,-5.5496,-2.7350,-4.2696,-7.2020,-4.6978
46.8750,-8.8239,-12.0273,-16.3545,-11.1740,-7.7300,-10.7962,-11.4990,-8.7003,-9.9620,-7.6204,-5.4498,-5.3574,-3.2744,-3.7570,-5.9657,-4.0891,-5.2372,-9.4173,-6.0376
50.7812,-7.7509,-11.7605,-15.3803,-12.3751,-8.0869,-10.0745,-9.4746,-8.9240,-9.6242,-6.7142,-5.3116,-6.4991,-4.2220,-4.1530,-5.0989,-4.5261,-5.8419,-12.5668,-8.7520
54.6875,-5.3896,-10.5041,-13.6784,-12.5147,-7.5938,-8.2780,-6.6357,-8.1115,-8.4016,-5.0690,-5.0993,-7.2574,-5.8471,-4.5293,-3.4549,-4.3829,-6.3140,-15.3993,-11.8789
58.5938,-2.2318,-8.2327,-11.4433,-11.7768,-6.8882,-5.7874,-3.9106,-6.7625,-6.4602,-3.1581,-5.0252,-7.6185,-7.7813,-5.0010,-2.0175,-4.2838,-7.0548,-16.6991,-14.3790
62.5000,0.7114,-5.5976,-8.9699,-10.5468,-6.5957,-3.3851,-2.1441,-5.4914,-4.3370,-1.4619,-5.2640,-7.5870,-9.6027,-5.6929,-1.7345,-4.7697,-8.2730,-15.7969,-15.4106
66.4062,2.3490,-3.6539,-6.6982,-9.1666,-6.9319,-1.9181,-1.7709,-4.7525,-2.7157,-0.3421,-5.8266,-7.1178,-10.8380,-6.5576,-2.9863,-5.9861,-9.7299,-12.8583,-14.5140
70.3125,2.0745,-3.2438,-5.1351,-7.7957,-7.5652,-1.8671,-2.6608,-4.6703,-2.0846,0.0100,-6.5249,-6.1677,-11.0690,-7.2962,-5.3434,-7.6036,-10.7917,-8.8335,-11.7335
74.2188,0.1229,-4.4540,-4.6638,-6.4491,-7.8410,-3.0805,-4.2232,-5.0498,-2.5015,-0.4205,-7.0747,-4.8460,-10.1482,-7.4748,-7.7721,-9.0089,-10.7849,-5.0988,-7.6768
78.1250,-2.5088,-6.5320,-5.3528,-5.1650,-7.2448,-4.8408,-5.7227,-5.5440,-3.6226,-1.4870,-7.2906,-3.5425,-8.3927,-6.8006,-9.1915,-9.6535,-9.4429,-2.9482,-3.4604
82.0312,-4.5513,-8.3353,-6.8942,-4.1587,-5.8135,-6.2316,-6.6252,-5.8754,-4.9672,-2.9166,-7.2454,-2.8845,-6.5777,-5.3913,-9.0668,-9.3602,-7.1589,-3.1446,-0.4626
85.9375,-5.0946,-9.0183,-8.7223,-3.8161,-4.2116,-6.5924,-6.7734,-5.9691,-6.2220,-4.3819,-7.2634,-3.4671,-5.6438,-3.8441,-7.6892,-8.4171,-4.8673,-5.6915,0.1200
89.8438,-4.0234,-8.5039,-10.2478,-4.4868,-3.3838,-5.8082,-6.3014,-5.9136,-7.3681,-5.6059,-7.7188,-5.4688,-6.2267,-3.0053,-5.9788,-7.4182,-3.5996,-9.8791,-2.2194
93.7500,-2.0325,-7.4390,-11.0718,-6.1832,-3.9684,-4.2898,-5.3820,-5.7765,-8.5542,-6.4599,-8.7537,-8.3927,-8.2733,-3.5248,-4.9355,-6.9502,-3.9614,-14.5455,-6.9633
97.6562,-0.2411,-6.6934,-11.0690,-8.3923,-5.8270,-2.6894,-4.0186,-5.4183,-9.8330,-6.9997,-10.1066,-11.1544,-10.9923,-5.4342,-5.0816,-7.3026,-5.8213,-18.4340,-12.6251
101.5625,0.3755,-6.7617,-10.3277,-10.1760,-8.0058,-1.5386,-2.0600,-4.4696,-10.9811,-7.4063,-11.1956,-12.5474,-13.2045,-8.0094,-6.2329,-8.3460,-8.3797,-20.5299,-17.2462
105.4688,-0.5525,-7.4669,-9.0212,-10.5649,-9.1895,-1.0133,0.5647,-2.5376,-11.5562,-7.8556,-11.4322,-11.8687,-13.9123,-10.0428,-7.7076,-9.6216,-10.5662,-20.3014,-19.1530
109.3750,-2.6404,-8.1318,-7.3121,-9.0577,-8.4082,-0.9254,3.5854,0.4611,-11.1641,-8.3881,-10.5805,-9.3380,-12.7664,-10.4173,-8.7995,-10.5691,-11.5403,-17.8173,-17.6355
113.2812,-4.9526,-8.0573,-5.3367,-5.9328,-5.5880,-0.9046,6.3416,4.0661,-9.7417,-8.8554,-8.9239,-6.0320,-10.1785,-8.6896,-9.1785,-10.7724,-11.0360,-13.7274,-13.2259
117.1875,-6.4438,-6.9622,-3.2490,-2.1682,-1.6282,-0.6349,8.0429,7.3356,-7.6516,-8.9784,-7.1220,-3.3345,-7.0483,-5.3624,-8.9666,-10.1155,-9.3980,-9.1035,-7.4490
121.0938,-6.4316,-5.1116,-1.2633,1.0062,2.0388,-0.0169,8.1897,9.2271,-5.5149,-8.4910,-5.8367,-2.2107,-4.3034,-1.6827,-8.4872,-8.8006,-7.3348,-5.1562,-2.1770
125.0000,-4.9028,-3.1082,0.3453,2.6706,4.1407,0.8023,6.8632,9.0967,-3.8991,-7.2973,-5.3649,-2.7407,-2.5344,0.9382,-7.9182,-7.2430,-5.5501,-2.8862,1.0956
128.9062,-2.5294,-1.5528,1.2799,2.5662,4.1217,1.5059,4.6529,7.0141,-3.0724,-5.5650,-5.5079,-4.1880,-1.8950,1.5791,-7.1327,-5.8849,-4.4484,-2.7810,1.7332
132.8125,-0.3898,-0.8263,1.2727,1.0519,2.2793,1.7226,2.2499,3.6908,-2.9737,-3.7019,-5.7466,-5.5366,-2.2421,0.1987,-5.8404,-4.9955,-4.0371,-4.6765,0.0252
136.7188,0.4889,-1.0948,0.1314,-1.2548,-0.5336,1.1305,-0.0130,0.0626,-3.3820,-2.2171,-5.5953,-6.1313,-3.3416,-2.4290,-3.9019,-4.5305,-4.0329,-7.8481,-3.1133
140.6250,-0.4265,-2.4359,-2.2063,-3.8776,-3.4124,-0.4619,-2.3332,-3.2034,-4.1248,-1.5129,-4.8977,-6.0002,-4.9717,-5.1690,-1.5510,-4.1230,-4.0807,-11.2947,-6.6017
144.5312,-2.9423,-4.8871,-5.5969,-6.6489,-5.8045,-3.0434,-5.1781,-5.9608,-5.1541,-1.6916,-3.8873,-5.6744,-6.8868,-7.1038,0.6652,-3.2415,-3.9609,-14.0825,-9.5807
148.4375,-6.2167,-8.3172,-9.6167,-9.5643,-7.6204,-6.3352,-8.7665,-8.4515,-6.4407,-2.4703,-2.9996,-5.6692,-8.7388,-7.9237,2.1946,-1.4718,-3.6879,-15.5935,-11.5848
152.3438,-9.1109,-12.2120,-13.5535,-12.4825,-9.0649,-9.7702,-12.6745,-10.9130,-7.7936,-3.2654,-2.5782,-6.0192,-10.0871,-7.9453,2.8100,1.2074,-3.4662,-15.5948,-12.4998
156.2500,-10.6446,-15.6038,-16.5270,-14.9380,-10.3547,-12.5713,-15.8793,-13.2256,-8.7840,-3.4368,-2.6619,-6.2052,-10.5371,-7.7930,2.7206,4.3214,-3.5402,-14.1554,-12.4022
160.1562,-10.3486,-17.3158,-17.7420,-16.2351,-11.5118,-13.9586,-17.2543,-14.8582,-8.8772,-2.5951,-2.9616,-5.5187,-9.9222,-7.9556,2.3940,7.0647,-4.0153,-11.5193,-11.4070
164.0625,-8.3767,-16.4774,-16.7824,-15.7742,-12.3294,-13.4397,-16.2085,-15.1506,-7.7195,-0.8174,-3.0084,-3.5941,-8.3887,-8.4776,2.2382,8.6824,-4.7434,-8.0352,-9.6019
167.9688,-5.3686,-13.0370,-13.8016,-13.3873,-12.4884,-11.0663,-13.0534,-13.7315,-5.3980,1.3590,-2.3738,-0.7263,-6.3115,-8.9448,2.3832,8.8628,-5.3355,-4.1621,-7.0766
171.8750,-2.1731,-7.9369,-9.5028,-9.4651,-11.7340,-7.5120,-8.8648,-10.7882,-2.4884,3.1843,-0.8542,2.2515,-4.0917,-8.7518,2.7055,7.9035,-5.3091,-0.4817,-4.0040
175.7812,0.4290,-2.7841,-4.9072,-4.8131,-10.0237,-3.8887,-4.9462,-7.0219,0.1653,4.0697,1.4345,4.4454,-1.9826,-7.4860,3.0318,6.5335,-4.3155,2.3737,-0.7048
179.6875,1.9116,0.8502,-1.0249,-0.3593,-7.5940,-1.3417,-2.2463,-3.3422,1.8248,3.8781,4.0620,5.4104,-0.0583,-5.2104,3.3250,5.4880,-2.3425,3.9014,2.3533
183.5938,2.0850,2.1298,1.4203,3.0992,-4.9298,-0.5895,-1.0724,-0.5099,2.1768,2.9667,6.3863,5.3596,1.6697,-2.4937,3.6883,5.1018,0.2105,3.9375,4.6414
187.5000,1.1070,1.2640,2.1141,5.0121,-2.6345,-1.6244,-1.1992,1.0722,1.4245,1.9585,7.7459,4.9586,3.0996,-0.1754,4.2029,5.1799,2.6350,2.7593,5.7164
191.4062,-0.5572,-0.7283,1.1327,5.0977,-1.2272,-3.7252,-2.1891,1.3636,0.1209,1.3877,7.7096,4.8611,3.9798,1.0133,4.7726,5.2213,4.1617,0.9893,5.3751
195.3125,-2.2395,-2.6349,-1.1405,3.3804,-0.9305,-5.7859,-3.6408,0.5772,-1.1418,1.4408,6.2944,5.2905,3.9958,0.7790,5.1476,4.8306,4.2516,-0.6748,3.7455
199.2188,-3.2570,-3.6677,-4.0908,0.2812,-1.5512,-6.8017,-5.2111,-0.9141,-2.0041,1.9393,4.0257,5.9146,2.9406,-0.6134,5.1385,4.0233,2.8025,-1.7658,1.2661
203.1250,-3.1548,-3.7319,-6.9385,-3.3306,-2.5409,-6.2815,-6.4906,-2.6086,-2.4376,2.5442,1.7580,6.0559,0.8544,-2.4817,4.8421,3.2079,0.1862,-2.2208,-1.4490
207.0312,-1.9075,-3.2434,-8.8494,-6.2757,-3.2410,-4.3994,-6.9550,-3.9069,-2.6519,3.0117,0.2957,5.0860,-1.9486,-4.0492,4.6524,2.8626,-2.8904,-2.3337,-3.8047
210.9375,0.0387,-2.6825,-9.1276,-7.4434,-3.2004,-1.8406,-6.1349,-4.2316,-2.8942,3.3106,-0.0025,2.7840,-4.9535,-4.7810,4.9848,3.1456,-5.6316,-2.5278,-5.3894
214.8438,1.9439,-2.2166,-7.4532,-6.2690,-2.3869,0.5534,-3.9289,-3.2406,-3.2685,3.5362,0.6020,-0.5018,-7.5545,-4.5684,5.8902,3.7278,-7.3995,-3.0818,-6.0357
218.7500,3.1090,-1.6375,-4.0469,-3.0336,-1.1569,2.1522,-0.8061,-1.0209,-3.6600,3.7206,1.4058,-3.9236,-9.1445,-3.6843,6.8683,3.9809,-7.8745,-3.9544,-5.7645
222.6562,3.2037,-0.6120,0.3553,1.2315,0.0032,2.7527,2.3206,1.8897,-3.7815,3.7242,1.7204,-6.3773,-9.1936,-2.5574,7.0875,3.4026,-7.0891,-4.7800,-4.6706
226.5625,2.4139,0.9800,4.7454,5.2220,0.7995,2.5806,4.5387,4.7152,-3.2958,3.3270,1.3410,-6.8313,-7.3616,-1.5088,5.9311,1.9939,-5.3509,-5.0139,-2.8400
230.4688,1.3300,2.8952,8.2047,7.9582,1.3024,2.1186,5.4315,6.7913,-1.9521,2.4657,0.7321,-4.6574,-3.6523,-0.5998,3.5178,0.3360,-3.1019,-4.1485,-0.3597
234.3750,0.6449,4.6817,10.2094,9.1595,1.8533,1.8683,5.2837,7.8513,0.3122,1.4259,0.7894,0.1126,1.4597,0.3384,0.8117,-0.6850,-0.7702,-1.9177,2.5995
238.2812,0.8324,6.0179,10.7439,9.2017,2.7770,2.1495,4.8401,8.0758,3.3263,0.8035,2.2982,6.6927,7.0454,1.5343,-0.8185,-0.3361,1.3399,1.5716,5.7112
242.1875,1.9707,6.9662,10.1957,8.7427,4.1078,3.0017,4.7723,7.8953,6.7006,1.2068,5.4037,13.6803,11.9528,3.0833,-0.3614,1.5891,3.0909,5.8106,8.5203
246.0938,3.7742,7.9309,9.1239,8.2981,5.5259,4.2014,5.2256,7.6919,9.8988,2.8682,9.4081,19.4290,15.1872,4.8486,2.2205,4.6723,4.4801,9.9833,10.5853
250.0000,5.7733,9.3231,8.0321,8.0372,6.5487,5.3757,5.7631,7.5995,12.3588,5.4276,13.0260,22.5532,16.2614,6.5002,5.9138,8.0607,5.5547,13.1760,11.6593
253.9062,7.5148,11.1628,7.2315,7.8699,6.8353,6.1644,5.7428,7.5128,13.6372,8.0556,14.9639,22.3778,15.3229,7.6502,9.1778,10.8142,6.3194,14.6560,11.7864
257.8125,8.6827,12.9125,6.8001,7.6719,6.3873,6.3706,4.8443,7.2574,13.5376,9.8687,14.5160,19.1471,12.9911,8.0019,10.7542,12.2354,6.6913,14.1187,11.2334
261.7188,9.1187,13.6920,6.6050,7.4296,5.5102,6.0360,3.3569,6.7738,12.1718,10.3883,11.8735,13.9134,10.0164,7.4446,10.2803,12.0734,6.5386,11.7947,10.2962
265.6250,8.7957,12.7736,6.3640,7.1981,4.5830,5.4031,2.0129,6.1817,9.9262,9.7624,8.0097,8.1651,6.9805,6.0826,8.3688,10.5703,5.7908,8.3557,9.1165
269.5312,7.8080,10.0595,5.7620,6.9598,3.8173,4.7834,1.4838,5.7034,7.3434,8.6168,4.2283,3.3631,4.2105,4.2212,6.1595,8.3665,4.5582,4.6638,7.6546
273.4375,6.3906,6.2465,4.6278,6.5640,3.1860,4.4026,1.9092,5.5277,4.9668,7.6427,1.6127,0.5570,1.9121,2.3304,4.6552,6.2868,3.1796,1.4948,5.8524
277.3438,4.9252,2.5691,3.1194,5.8473,2.5610,4.3166,2.8026,5.7215,3.2150,7.1897,0.6357,0.1834,0.3630,0.9751,4.2449,5.0448,2.1464,-0.6272,3.8732
281.2500,3.8729,0.2657,1.7983,4.8525,1.9313,4.4481,3.4124,6.2317,2.3278,7.1170,1.0843,2.0509,-0.0315,0.6893,4.6431,4.9502,1.9210,-1.4318,2.2174
285.1562,3.6234,0.0564,1.4770,3.9425,1.5140,4.7122,3.2828,6.9436,2.3820,6.9789,2.2947,5.4647,1.0921,1.7951,5.2038,5.7548,2.7341,-0.8139,1.5768
289.0625,4.3221,1.8900,2.8372,3.6589,1.6517,5.1283,2.6120,7.7271,3.3349,6.4005,3.5508,9.4356,3.7601,4.2269,5.3596,6.7574,4.4667,1.2117,2.4615
292.9688,5.7765,5.0393,5.9776,4.3704,2.5555,5.8214,2.1433,8.4397,5.0451,5.3848,4.4393,12.9337,7.4530,7.4588,4.9227,7.1698,6.6809,4.4292,4.8147
296.8750,7.5166,8.4358,10.1511,5.9429,4.0798,6.8929,2.6489,8.9157,7.2503,4.3484,4.9863,15.1464,11.1607,10.6104,4.1205,6.5779,8.7855,8.2678,7.8754
300.7812,8.9922,11.0472,13.8994,7.6803,5.6978,8.2483,4.3512,8.9872,9.5306,3.8677,5.5217,15.6774,13.7174,12.7220,3.4144,5.2306,10.2522,11.7397,10.4253
304.6875,9.8059,12.1467,15.5893,8.6210,6.7199,9.5185,6.6766,8.5515,11.3196,4.3006,6.3607,14.6198,14.2591,13.0968,3.2464,3.9517,10.7834,13.6254,11.3211
308.5938,9.8486,11.4283,14.1207,8.0339,6.6346,10.1626,8.5197,7.6405,12.0107,5.5256,7.5019,12.4649,12.5734,11.5612,3.8432,3.6837,10.3712,12.9139,10.0320
312.5000,9.2710,9.0146,9.4617,5.8210,5.3767,9.7223,8.8626,6.4319,11.1563,6.9616,8.5390,9.8861,9.1784,8.5308,5.1373,4.9141,9.2495,9.3122,6.8896
316.4062,8.3266,5.4096,2.7438,2.5974,3.3782,8.0848,7.3716,5.1831,8.6886,7.8607,8.8641,7.4971,5.1173,4.8623,6.7945,7.3305,7.7903,3.5390,2.9265
320.3125,7.2084,1.4107,-4.1243,-0.5784,1.3857,5.5932,4.6102,4.1295,5.0519,7.7050,8.0574,5.6922,1.5841,1.5654,8.3197,9.9282,6.3942,-2.8087,-0.5854
324.2188,5.9983,-2.0448,-9.1324,-2.6504,0.1514,2.9323,1.7545,3.4210,1.1558,6.4855,6.2250,4.6234,-0.4568,-0.5102,9.2114,11.5197,5.4005,-7.8048,-2.6331
328.1250,4.7556,-4.1035,-10.8383,-2.9545,0.1495,0.8490,-0.0111,3.1308,-1.8729,4.7122,4.0526,4.2796,-0.5335,-0.9131,9.1366,11.3505,5.0180,-9.9225,-2.7620
332.0312,3.6539,-4.2462,-8.7931,-1.3986,1.4249,-0.1411,-0.0669,3.3038,-3.0660,3.1587,2.5077,4.5847,1.2396,0.3026,8.0711,9.4692,5.2729,-8.6056,-1.0969
335.9375,3.0254,-2.4679,-3.6327,1.5692,3.6054,0.0808,1.3978,3.9710,-1.9791,2.4857,2.3430,5.4428,4.2305,2.6133,6.3386,6.6618,5.9914,-4.4360,1.8200
339.8438,3.2249,0.6956,3.1260,5.1221,6.0408,1.2501,3.5577,5.0893,1.1076,2.9411,3.6892,6.7149,7.4908,5.1939,4.5074,4.0256,6.8424,1.1381,5.2227
343.7500,4.3702,4.3214,9.4962,8.2673,8.0053,2.8636,5.3992,6.4451,5.2426,4.2808,5.9800,8.1691,10.0367,7.1819,3.1679,2.4504,7.4493,6.3496,8.2594
347.6562,6.1323,7.3793,13.5561,10.0819,8.9057,4.3633,6.1833,7.6192,9.1087,5.9265,8.2459,9.4651,11.1382,7.9640,2.6913,2.2824,7.5353,9.6888,10.1082
351.5625,7.7578,9.0342,14.0194,9.9651,8.4436,5.2893,5.7017,8.0903,11.4705,7.2533,9.5914,10.2033,10.5252,7.3806,3.0863,3.2997,7.0351,10.3106,10.1489
355.4688,8.3762,8.8742,10.6955,7.8552,6.6910,5.3814,4.2519,7.4548,11.5999,7.8518,9.5722,10.0335,8.4368,5.7526,4.0297,4.9332,6.1089,8.1970,8.2018
359.3750,7.4496,7.0029,4.6483,4.3084,4.0559,4.6324,2.4056,5.6470,9.5163,7.6425,8.2865,8.7884,5.4968,3.7020,5.0482,6.5663,5.0501,4.0924,4.7229
363.2812,5.1070,3.9845,-2.0980,0.3499,1.1441,3.2883,0.7202,3.0150,5.9570,6.8252,6.1971,6.5957,2.4790,1.8479,5.7496,7.7605,4.1372,-0.7308,0.7802
367.1875,2.1438,0.6679,-7.2795,-2.8902,-1.4341,1.7735,-0.4679,0.1942,2.0947,5.7309,3.8639,3.9214,0.0680,0.5379,5.9824,8.3437,3.5144,-4.8234,-2.2803
371.0938,-0.3341,-2.0616,-9.2793,-4.6076,-3.2407,0.5368,-1.1058,-2.1598,-0.8798,4.6806,1.7724,1.4949,-1.2972,-0.2392,5.8512,8.3754,3.1617,-6.9675,-3.3853
375.0000,-1.4298,-3.5346,-7.7738,-4.6083,-4.1101,-0.1299,-1.3533,-3.6244,-2.1478,3.9148,0.3100,0.0929,-1.4747,-0.7256,5.6011,8.0363,2.9495,-6.5502,-2.2352
378.9062,-0.8463,-3.4788,-3.8046,-3.3073,-4.1498,-0.2057,-1.4421,-4.1205,-1.4877,3.5881,-0.2054,0.2238,-0.6065,-1.1548,5.4505,7.4878,2.7261,-3.7743,0.5269
382.8125,1.0519,-2.0683,0.7720,-1.4608,-3.6613,0.0889,-1.5399,-3.8467,0.7224,3.7776,0.4254,1.8413,0.9191,-1.5741,5.4670,6.7524,2.3756,0.3984,3.6000
386.7188,3.4948,0.1712,4.1704,0.1987,-3.0245,0.4570,-1.6761,-3.1164,3.6938,4.4622,2.1340,4.2633,2.5296,-1.8456,5.5478,5.6801,1.8279,4.5875,5.6326
390.6250,5.6834,2.5608,5.4296,1.2250,-2.5790,0.7194,-1.7563,-2.2145,6.5108,5.4801,4.4604,6.4140,3.5991,-1.8019,5.5048,4.0534,1.0533,7.5007,5.8397
394.5312,7.0554,4.4840,4.6646,1.5164,-2.5253,0.8974,-1.6492,-1.3445,8.4043,6.5177,6.6238,7.3356,3.6661,-1.4137,5.2033,1.8110,0.0822,8.4006,4.3205
398.4375,7.3346,5.5375,2.7559,1.2071,-2.8631,1.1209,-1.3011,-0.6539,8.9402,7.1795,7.8390,6.7190,2.6765,-0.8263,4.6735,-0.7306,-0.9476,7.3295,1.9394
402.3438,6.4370,5.5800,0.7340,0.5137,-3.3932,1.4254,-0.8157,-0.2757,8.0919,7.1319,7.7236,5.1293,1.1004,-0.2346,4.1260,-2.8403,-1.7644,5.0051,-0.1324
406.2500,4.3910,4.6919,-0.7543,-0.3675,-3.8073,1.6009,-0.4544,-0.3339,6.1981,6.2524,6.5209,3.7273,-0.2118,0.2822,3.8485,-3.6306,-2.0258,2.4479,-0.9704
410.1562,1.3734,3.0896,-1.6362,-1.2994,-3.8541,1.2265,-0.5506,-0.9153,3.8240,4.6939,4.9489,3.5878,-0.4452,0.8039,4.0252,-2.5401,-1.4858,0.5207,-0.2952
414.0625,-2.1910,1.0364,-2.2536,-2.2272,-3.5181,-0.1006,-1.3748,-2.0443,1.5574,2.8186,3.7352,4.9919,0.6758,1.4225,4.5774,0.2248,-0.1940,-0.4200,1.4202
417.9688,-5.6115,-1.2297,-3.0542,-3.2168,-3.1047,-2.4821,-3.0105,-3.6859,-0.1984,1.0388,3.1391,7.1399,2.5914,2.0081,5.1352,3.6004,1.4065,-0.6230,3.1362
421.8750,-8.1007,-3.5383,-4.3511,-4.4759,-3.1499,-5.5703,-5.2933,-5.7645,-1.3567,-0.3416,2.8061,8.5103,4.0503,2.1016,5.1925,6.0739,2.5878,-0.7709,3.6356
425.7812,-9.0822,-5.7842,-6.2382,-6.2843,-4.1584,-8.6570,-7.8318,-8.1591,-2.1287,-1.1968,2.0817,7.6954,3.6930,1.0871,4.3938,6.4296,2.6464,-1.6237,1.9894
429.6875,-8.4520,-7.8691,-8.6008,-8.8120,-6.2896,-10.9491,-10.0988,-10.6588,-2.8462,-1.5429,0.5828,4.2357,0.7988,-1.4030,2.7978,4.4299,1.2693,-3.6307,-2.0366
433.5938,-6.6072,-9.6072,-11.1232,-11.9000,-9.1698,-11.8638,-11.5622,-12.9130,-3.7054,-1.4475,-1.3860,-1.0452,-4.2148,-5.1003,0.9473,1.0120,-1.2472,-6.6755,-7.7758
437.5000,-4.2102,-10.6628,-13.2808,-14.9606,-11.9652,-11.1909,-11.8285,-14.4465,-4.5854,-0.9678,-2.9027,-6.4085,-9.8523,-9.0239,-0.3417,-2.1516,-4.0719,-10.0701,-13.7764
441.4062,-1.8417,-10.6047,-14.4054,-17.1143,-13.7118,-9.0797,-10.7700,-14.7801,-5.0717,-0.1564,-2.9892,-10.0509,-14.1698,-11.8387,-0.3891,-3.5107,-6.1943,-12.8159,-18.2642
445.3125,0.2209,-9.1125,-13.9071,-17.5472,-13.7505,-5.9312,-8.6035,-13.6274,-4.7021,0.8909,-1.3091,-10.9429,-15.6657,-12.4935,0.9596,-2.4328,-6.8882,-14.0329,-19.8249
449.2188,1.9643,-6.2581,-11.6100,-15.9143,-12.0409,-2.3071,-5.8786,-11.0641,-3.3016,2.0110,1.4789,-9.1997,-13.9687,-10.7778,3.1995,0.5059,-6.0392,-13.3613,-18.0213
453.1250,3.4066,-2.6833,-8.0032,-12.5584,-9.1849,1.1101,-3.3472,-7.5640,-1.1896,3.0126,3.9934,-5.8428,-9.9648,-7.4566,5.3905,3.8792,-4.1663,-11.1345,-13.6257
457.0312,4.3846,0.4993,-4.1841,-8.4026,-6.1472,3.5655,-1.7265,-3.8597,0.9014,3.7579,4.9006,-2.1708,-5.3104,-3.8847,6.6331,6.1846,-2.1317,-8.2195,-8.2994
460.9375,4.5544,2.1208,-1.4299,-4.5606,-3.8193,4.3812,-1.4353,-0.6912,2.1766,4.2187,3.7160,0.8553,-1.6051,-1.3119,6.5254,6.5821,-0.7040,-5.5940,-3.8337
464.8438,3.6225,1.5135,-0.5862,-1.8735,-2.6526,3.2146,-2.4202,1.4344,2.1973,4.4493,1.1293,2.8940,0.3323,-0.2753,5.3362,5.2100,-0.2075,-3.8818,-1.3324
468.7500,1.6310,-1.0976,-1.6265,-0.6156,-2.5364,0.3021,-4.1713,2.3607,1.1041,4.4900,-1.3679,4.1101,0.7199,-0.4149,3.7981,2.9683,-0.4324,-3.1062,-0.7802
472.6562,-0.9341,-4.6300,-3.6724,-0.5070,-2.9573,-3.4941,-5.9384,2.2469,-0.5063,4.2768,-2.3420,4.8437,0.5014,-0.7939,2.6541,0.9656,-0.8324,-2.8045,-1.2383
476.5625,-3.3195,-7.6398,-5.4941,-0.9894,-3.3341,-6.9472,-7.0518,1.4311,-1.9733,3.6411,-1.2564,5.3103,0.6754,-0.5141,2.2423,-0.0230,-0.8787,-2.4324,-1.5483
480.4688,-4.8708,-9.0337,-6.2071,-1.5840,-3.3382,-8.9588,-7.1891,0.2846,-2.9805,2.4231,1.2008,5.4898,1.6546,0.7345,2.3632,0.1877,-0.3674,-1.8112,-1.1137
484.3750,-5.3571,-8.6066,-5.7548,-2.1281,-3.0384,-9.0454,-6.4567,-0.8778,-3.7137,0.6291,3.4816,5.2039,3.0158,2.4948,2.4921,1.2866,0.4868,-1.3345,-0.2811
488.2812,-5.0545,-7.1068,-4.9000,-2.7763,-2.8077,-7.5510,-5.2656,-1.8239,-4.6775,-1.4801,4.0119,4.2807,3.7729,3.8146,2.1721,2.7718,1.2117,-1.7944,-0.0834
492.1875,-4.5595,-5.8035,-4.7547,-3.7958,-3.0543,-5.4588,-4.0936,-2.3976,-6.3071,-3.4501,2.0210,2.6983,3.0160,3.8069,1.3221,4.2478,1.3950,-3.9159,-1.5081
496.0938,-4.4654,-5.8145,-6.1442,-5.2948,-3.9277,-3.9023,-3.2842,-2.5202,-8.6454,-4.8249,-2.0750,0.6544,0.5492,2.1896,0.2653,5.5552,0.9702,-7.8664,-4.7504
500.0000,-5.0942,-7.5660,-9.1695,-7.0535,-5.1607,-3.6393,-2.9814,-2.2086,-11.2906,-5.3620,-6.9063,-1.4502,-2.8525,-0.4829,-0.5198,6.7099,0.3016,-13.0224,-8.9249
503.9062,-6.3979,-10.6466,-13.1759,-8.5655,-6.1441,-4.7575,-3.1962,-1.5963,-13.6194,-5.1408,-10.8277,-3.1125,-5.7440,-3.0258,-0.7417,7.7421,0.0054,-18.1295,-12.4325
507.8125,-8.0205,-14.0662,-17.0812,-9.2821,-6.2141,-6.7340,-3.9106,-0.9299,-15.1035,-4.4999,-12.6573,-3.8978,-6.7367,-4.1783,-0.4892,8.5672,0.5927,-21.7714,-13.7790
511.7188,-9.4406,-16.7216,-19.8401,-8.9343,-5.0196,-8.7648,-5.1118,-0.5291,-15.4947,-3.8376,-12.1037,-3.6316,-5.2633,-3.2442,-0.1473,8.9749,2.1291,-22.9102,-12.3705
515.6250,-10.1276,-17.8064,-20.8044,-7.7490,-2.7778,-10.1555,-6.7256,-0.7087,-14.7856,-3.3906,-9.7078,-2.5133,-1.9475,-0.4968,-0.0940,8.7409,4.1131,-21.2440,-8.8294
519.5312,-9.6944,-17.0081,-19.8585,-6.4107,-0.2665,-10.5693,-8.5122,-1.6791,-13.0368,-3.1102,-6.3991,-1.0546,1.6547,2.8760,-0.3865,7.7876,5.6660,-17.2493,-4.6624
523.4375,-8.0450,-14.4916,-17.3487,-5.7491,1.4780,-10.0438,-10.0336,-3.4457,-10.2643,-2.6983,-2.9564,0.1729,3.8280,5.2946,-0.6544,6.2902,5.9563,-11.9387,-1.4852
527.3438,-5.4779,-10.7698,-13.9043,-6.2915,1.6319,-8.8364,-10.7637,-5.7459,-6.5133,-1.7837,0.3144,0.8563,3.5719,5.5437,-0.2882,4.6507,4.6396,-6.4873,-0.2517
531.2500,-2.6632,-6.5621,-10.2406,-7.9282,-0.0050,-7.2369,-10.3140,-8.0654,-2.0739,-0.1599,3.5191,1.1213,1.0936,3.3840,1.1738,3.3366,2.0722,-1.8984,-0.9006
535.1562,-0.4432,-2.6726,-6.9957,-9.9052,-2.8745,-5.4731,-8.6592,-9.7668,2.3512,2.0229,6.7971,1.4182,-2.3495,-0.3118,3.6812,2.6602,-0.8307,1.1826,-2.5693
539.0625,0.4863,0.1297,-4.6245,-11.1901,-5.8872,-3.7494,-6.2310,-10.3139,5.7125,4.1995,9.8895,2.1551,-5.1559,-3.9910,6.5471,2.6251,-3.0258,2.4949,-4.1911
542.9688,-0.1442,1.2525,-3.3618,-11.0345,-7.9105,-2.3561,-3.8096,-9.5107,6.9518,5.5191,11.9639,3.3133,-6.2193,-6.2017,8.6576,2.9360,-3.8330,2.0915,-5.0928
546.8750,-2.1057,0.4262,-3.2516,-9.4122,-8.2749,-1.7287,-2.2459,-7.6383,5.4639,5.1498,11.8734,4.3378,-5.4270,-6.3040,8.9314,3.1797,-3.2264,0.2518,-5.2537
550.7812,-4.8458,-2.1930,-4.2058,-7.0661,-7.0518,-2.3607,-2.1331,-5.3917,1.4361,2.6688,8.7685,4.4336,-3.5651,-4.7241,6.8211,3.0743,-1.7803,-2.5698,-5.1218
554.6875,-7.7801,-6.0075,-6.0333,-5.1185,-4.9744,-4.5615,-3.5687,-3.6174,-4.1190,-1.6234,2.7406,3.1141,-1.7462,-2.6299,2.6214,2.6329,-0.3250,-5.7627,-5.1674
558.5938,-10.4917,-10.0724,-8.4036,-4.4664,-3.0659,-8.1698,-6.1064,-2.9636,-9.6629,-6.6436,-4.8973,0.6407,-0.7472,-1.2429,-2.5625,2.1311,0.4769,-8.5948,-5.4989
562.5000,-12.7131,-13.2915,-10.7859,-5.3205,-2.1784,-12.4034,-8.9205,-3.6185,-13.6299,-10.8247,-11.9349,-1.9816,-0.6637,-1.2035,-7.1894,1.8941,0.3960,-10.3255,-5.7989
566.4062,-14.1668,-14.6980,-12.4671,-7.1543,-2.6698,-16.0026,-11.1169,-5.2683,-14.9260,-12.7101,-16.1138,-3.5117,-1.0496,-2.3450,-9.8521,2.0407,-0.3745,-10.4158,-5.6099
570.3125,-14.4741,-13.7683,-12.7416,-9.0711,-4.3425,-17.6834,-12.0710,-7.2851,-13.2648,-11.6076,-16.1121,-3.2079,-1.3878,-3.9549,-9.8173,2.3563,-1.4522,-8.7813,-4.7571
574.2188,-13.2993,-10.6790,-11.2415,-10.3324,-6.6196,-16.7293,-11.6526,-9.0233,-9.2559,-7.9774,-12.1626,-1.3349,-1.5357,-5.2959,-7.3148,2.3879,-2.5408,-5.9564,-3.6035
578.1250,-10.6803,-6.3716,-8.2323,-10.7108,-8.8220,-13.4172,-10.2402,-10.0519,-4.2309,-3.3154,-5.9698,0.8948,-1.8412,-6.0258,-3.4511,1.7080,-3.5734,-3.0301,-2.9384
582.0312,-7.2818,-2.3156,-4.6444,-10.4694,-10.3972,-9.0077,-8.5124,-10.2169,0.1543,0.4684,0.0465,1.9473,-2.8632,-6.2680,0.2254,0.1857,-4.6530,-1.2950,-3.5417
585.9375,-4.2888,0.0191,-1.7339,-10.0355,-11.0237,-5.2326,-7.1118,-9.5513,2.4567,1.9060,3.8019,0.8141,-4.9036,-6.3538,2.3381,-1.8958,-5.8650,-1.7049,-5.6817
589.8438,-2.8809,-0.2061,-0.5023,-9.6352,-10.6060,-3.4974,-6.3493,-8.1549,1.9674,0.6419,4.3707,-2.3949,-7.6734,-6.4774,2.2209,-3.9337,-7.1081,-4.3753,-8.8565
593.7500,-3.5557,-2.7729,-1.1991,-9.1540,-9.2287,-4.2076,-6.1031,-6.1591,-0.9834,-2.4273,2.2124,-6.4373,-10.3176,-6.5313,0.1539,-5.2461,-8.0627,-8.3975,-11.9472
597.6562,-5.7416,-6.4447,-3.2150,-8.2995,-7.1242,-6.5894,-5.9675,-3.7988,-5.1053,-5.6185,-1.2333,-9.4982,-11.7898,-6.2243,-2.8036,-5.3215,-8.3185,-12.1135,-13.7056
601.5625,-8.0121,-9.5056,-5.4424,-6.9129,-4.6531,-9.1150,-5.5536,-1.4948,-8.6322,-7.2921,-4.2969,-10.0166,-11.3548,-5.3557,-5.3014,-3.9767,-7.5801,-13.7726,-13.3086
605.4688,-8.8313,-10.5412,-6.8742,-5.1720,-2.2586,-10.2974,-4.7524,0.1850,-10.0347,-6.6162,-5.7675,-7.3684,-8.9359,-4.0119,-6.2778,-1.3960,-5.8304,-12.2810,-10.6863
609.3750,-7.4022,-9.0535,-7.0556,-3.5197,-0.3643,-9.4106,-3.7848,0.7389,-8.6399,-3.8875,-5.2275,-2.1071,-5.1331,-2.5283,-5.3652,1.9151,-3.3680,-7.6873,-6.4836
613.2812,-4.0959,-5.5855,-6.1246,-2.3651,0.7663,-6.7491,-3.0066,0.0313,-4.8623,-0.2846,-2.9872,4.2906,-0.9376,-1.2550,-2.9519,5.2324,-0.7073,-1.1754,-1.7255
617.1875,-0.2060,-1.3308,-4.4806,-1.7756,1.1379,-3.3266,-2.6037,-1.5138,0.0508,2.7721,0.2158,10.0107,2.6799,-0.3176,0.0888,7.7743,1.5997,5.4166,2.5962
621.0938,2.8006,2.4966,-2.3889,-1.3910,1.0250,-0.2506,-2.3965,-2.9913,4.6027,4.2901,3.5361,13.5481,5.0931,0.4336,2.8267,8.9290,3.1389,10.3037,5.8054
625.0000,4.0546,5.1459,0.1469,-0.6331,0.8440,1.8253,-1.9073,-3.3829,7.6398,4.0716,6.2303,14.1697,6.1271,1.2475,4.6288,8.4956,3.7431,12.3582,7.6067
628.9062,3.6233,6.4312,3.1541,0.9158,0.9485,2.8692,-0.6655,-2.0492,8.6748,2.6456,7.7594,12.0567,5.9595,2.2070,5.2844,6.8201,3.5061,11.3767,7.9923
632.8125,2.2840,6.5070,6.3230,3.2073,1.4558,3.2362,1.4452,0.9165,7.8549,0.8765,7.8512,8.1224,4.9236,3.0872,4.9067,4.6984,2.7128,7.9753,7.1161
636.7188,0.9677,5.5845,8.8623,5.6834,2.2003,3.2718,4.0300,4.6781,5.7082,-0.4890,6.5588,3.6121,3.3435,3.4568,3.7432,3.0307,1.7175,3.2482,5.2274
640.6250,0.2760,3.8382,9.7759,7.5165,2.8396,3.0671,6.3311,8.0076,2.8838,-1.0960,4.2785,-0.3445,1.4754,2.9650,2.0534,2.3742,0.8185,-1.6147,2.6676
644.5312,0.3450,1.5397,8.4313,7.9895,3.0492,2.5195,7.5958,9.8172,0.0272,-0.9849,1.6657,-3.0516,-0.4553,1.6174,0.1163,2.6550,0.1726,-5.6094,-0.1274
648.4375,1.0307,-0.7727,5.0296,6.8070,2.6943,1.6067,7.4435,9.6017,-2.2308,-0.4041,-0.5654,-4.3327,-2.1869,-0.1531,-1.6981,3.2375,-0.2170,-8.0645,-2.6726
652.3438,2.1716,-2.3288,0.6245,4.1952,1.8849,0.6146,6.0212,7.5812,-3.3006,0.3963,-1.8803,-4.3915,-3.4033,-1.6778,-2.9268,3.3403,-0.4408,-8.6862,-4.5271
656.2500,3.6830,-2.4415,-3.3614,0.7786,0.8938,0.1017,3.8841,4.5114,-2.7733,1.2550,-2.0805,-3.5689,-3.8015,-2.3921,-3.1597,2.5479,-0.5870,-7.5489,-5.3939
660.1562,5.4376,-0.9270,-5.8255,-2.6681,0.0020,0.5868,1.7070,1.3022,-0.6370,2.0545,-1.3000,-2.1547,-3.2201,-2.1163,-2.2802,1.0860,-0.6667,-5.0482,-5.1825
664.0625,7.0972,1.6742,-6.4475,-5.4651,-0.6323,2.1643,0.0122,-1.3396,2.5841,2.6346,0.1318,-0.3555,-1.7607,-1.1179,-0.6324,-0.3323,-0.6068,-1.8128,-4.0250
667.9688,8.1120,4.2804,-5.6641,-7.1824,-1.0103,4.3280,-0.9581,-3.0822,5.9219,2.7869,1.8521,1.6042,0.1799,0.0672,1.0437,-0.9903,-0.3166,1.4231,-2.2598
671.8750,7.9632,5.7913,-4.2437,-7.6854,-1.2314,6.1583,-1.2152,-3.9287,8.3108,2.3752,3.5477,3.3718,2.0046,0.9347,1.9319,-0.6517,0.2175,3.9643,-0.3915
675.7812,6.5129,5.6527,-2.7956,-7.1011,-1.3932,6.7960,-0.9292,-4.0542,9.0378,1.5115,4.9403,4.4837,3.1188,1.2590,1.5621,0.2939,0.8774,5.2863,0.9966
679.6875,4.2085,4.1258,-1.5393,-5.7390,-1.5244,5.9330,-0.3518,-3.6525,8.0602,0.6371,5.7513,4.5442,3.1600,1.1605,0.0863,1.1274,1.4462,5.1379,1.4015
683.5938,1.9687,2.1138,-0.4118,-3.9936,-1.5831,4.0236,0.2297,-2.8699,6.0125,0.3935,5.7376,3.4742,2.1522,0.9813,-1.7707,1.3327,1.7202,3.6110,0.6115
687.5000,0.7801,0.6664,0.6728,-2.2380,-1.5040,2.0804,0.5469,-1.8216,3.8955,1.2980,4.8240,1.6585,0.5124,1.0602,-3.0750,0.9868,1.6336,1.1684,-1.1226
691.4062,1.2209,0.4621,1.6710,-0.7293,-1.2458,1.1559,0.4470,-0.6304,2.6109,3.3863,3.2421,-0.1342,-1.0989,1.5388,-3.1595,0.7282,1.3171,-1.4074,-3.0839
695.3125,3.1718,1.5393,2.4794,0.4532,-0.8019,1.7920,-0.0061,0.5706,2.5763,6.0511,1.5455,-1.0505,-2.0225,2.2972,-1.9433,1.3178,1.0416,-3.1883,-4.3188
699.2188,5.8612,3.3682,3.1100,1.4115,-0.1811,3.7365,-0.5135,1.6772,3.5934,8.2215,0.4293,-0.5261,-1.8404,3.0426,0.0689,3.0887,1.0740,-3.3977,-4.0371
703.1250,8.2058,5.1617,3.7588,2.3699,0.6121,6.0759,-0.6666,2.6575,5.0065,8.8418,0.4195,1.4580,-0.5149,3.4885,2.0765,5.6561,1.5249,-1.7403,-1.9902
707.0312,9.2686,6.2306,4.6592,3.5704,1.5692,7.7068,-0.1750,3.5556,6.0436,7.4163,1.6044,4.3668,1.6194,3.5247,3.3728,8.0796,2.2801,1.3994,1.3867
710.9375,8.6280,6.2251,5.8317,5.1617,2.6465,7.8887,0.9399,4.4446,6.1700,4.3227,3.5752,7.3427,3.9999,3.2824,3.6243,9.3674,3.0616,5.0359,5.1666
714.8438,6.5189,5.2083,6.9618,7.1191,3.7450,6.5880,2.3262,5.3588,5.2989,0.7032,5.6215,9.5545,6.0489,3.0577,2.9334,9.0017,3.5841,7.9596,8.3628
718.7500,3.7167,3.5828,7.5548,9.2222,4.7290,4.4461,3.4903,6.2482,3.7848,-2.0314,7.0687,10.5000,7.3682,3.1336,1.7213,7.1785,3.7143,9.2540,10.3586
722.6562,1.2255,1.9250,7.2856,11.0928,5.4752,2.4125,4.0775,6.9783,2.2219,-2.8362,7.5612,10.1417,7.8384,3.5968,0.5441,4.6575,3.5345,8.6850,11.0971
726.5625,-0.1049,0.7764,6.2752,12.2822,5.9106,1.2581,4.0561,7.3619,1.1528,-1.4855,7.1435,8.8452,7.5897,4.2562,-0.0726,2.3606,3.2685,6.7456,10.9414
730.4688,0.1091,0.4491,5.0559,12.3825,6.0009,1.2361,3.6791,7.2001,0.8244,1.3723,6.1270,7.1719,6.8691,4.7177,0.2367,0.9734,3.1124,4.3296,10.3259
734.3750,1.6625,0.9130,4.2188,11.1426,5.6953,2.0521,3.2602,6.3209,1.1037,4.5537,4.8646,5.6271,5.8794,4.5820,1.5589,0.7421,3.0777,2.2333,9.4393
738.2812,3.8808,1.8252,3.9935,8.5621,4.8851,3.1206,2.9361,4.6316,1.5897,6.8794,3.5868,4.4662,4.6806,3.6632,3.6103,1.4987,2.9538,0.7825,8.1443
742.1875,5.9265,2.6999,4.0772,4.9448,3.4427,3.9276,2.5979,2.1986,1.8546,7.6416,2.3802,3.6343,3.2121,2.1036,5.7413,2.8175,2.4283,-0.2057,6.1697
746.0938,7.1474,3.1413,3.8564,0.8853,1.3515,4.2773,2.0414,-0.6665,1.6784,6.8095,1.2736,2.8564,1.4160,0.3194,7.1202,4.1849,1.3029,-1.1448,3.4292
750.0000,7.2992,3.0074,2.8610,-2.8304,-1.1471,4.3001,1.2147,-3.3817,1.1430,4.9332,0.3238,1.8287,-0.6242,-1.1972,7.0815,5.1297,-0.3271,-2.3055,0.2366
753.9062,6.5453,2.4152,1.1151,-5.4116,-3.5150,4.2612,0.3574,-5.2036,0.5354,2.8453,-0.3827,0.4125,-2.6411,-2.1110,5.4874,5.3273,-2.0553,-3.6121,-2.7388
757.8125,5.2698,1.5979,-0.8787,-6.3039,-5.0695,4.3244,-0.0996,-5.4850,0.1284,1.3148,-0.8093,-1.2751,-4.2895,-2.3874,2.8784,4.6951,-3.3406,-4.7344,-4.7667
761.7188,3.8469,0.7298,-2.5023,-5.4070,-5.2895,4.4367,0.1754,-3.9888,-0.0126,0.7844,-1.0487,-2.9196,-5.3471,-2.2751,0.2675,3.4442,-3.7889,-5.3746,-5.4318
765.6250,2.5152,-0.1507,-3.4486,-3.1653,-4.1169,4.3924,1.1387,-1.0880,-0.0625,1.2585,-1.3127,-4.1769,-5.8742,-2.1445,-1.3546,2.0256,-3.3719,-5.5130,-4.8665
769.5312,1.4100,-1.0702,-3.8795,-0.4544,-2.0583,4.0100,2.3217,2.2992,-0.2845,2.3563,-1.8095,-4.8399,-6.1953,-2.2770,-1.5354,0.9445,-2.4403,-5.4157,-3.6980
773.4375,0.6775,-1.9710,-4.1926,1.7352,0.0100,3.2884,3.0765,5.0623,-0.7916,3.4983,-2.5799,-4.9000,-6.6763,-2.7150,-0.5786,0.5157,-1.5094,-5.3969,-2.7238
777.3438,0.5300,-2.6201,-4.5801,2.7053,1.2575,2.4401,2.9792,6.3910,-1.3921,4.1616,-3.4048,-4.4763,-7.4201,-3.2465,0.6825,0.7020,-0.9410,-5.5220,-2.4845
781.2500,1.1573,-2.6735,-4.7317,2.3611,1.3106,1.7922,2.1343,6.1503,-1.6399,4.1029,-3.8705,-3.6885,-8.0919,-3.5217,1.4223,1.1547,-0.7233,-5.4935,-2.9653
785.1562,2.5405,-1.8744,-3.9409,1.2535,0.4217,1.6283,1.1722,4.9232,-1.0855,3.4466,-3.5778,-2.5879,-8.0329,-3.2393,1.3272,1.4467,-0.4996,-4.8337,-3.5956
789.0625,4.3165,-0.2641,-1.5843,0.3023,-0.7054,2.0597,0.9182,3.6811,0.4078,2.5800,-2.3948,-1.2132,-6.6451,-2.3108,0.7382,1.3505,0.1608,-3.2610,-3.5664
792.9688,5.8335,1.7350,2.3296,0.3165,-1.3351,2.9738,1.9149,3.2559,2.4736,1.9032,-0.6082,0.2794,-3.8387,-0.9292,0.3466,0.9672,1.4141,-1.0039,-2.3113
796.8750,6.4171,3.4281,6.9104,1.5564,-1.1168,4.0588,4.0698,3.9019,4.3080,1.5756,1.1266,1.5392,-0.2551,0.4869,0.6578,0.6120,2.9495,1.1813,0.1027
800.7812,5.7125,4.1023,10.6252,3.5706,-0.2625,4.8808,6.6297,5.1857,4.9855,1.4259,2.0402,2.1088,2.9156,1.4499,1.5987,0.5347,4.0948,2.3380,2.9035
804.6875,3.8979,3.3119,11.9206,5.4001,0.6066,5.0054,8.5000,6.2476,3.8868,1.0980,1.6035,1.6682,4.4644,1.5956,2.5419,0.6895,4.1790,1.8057,4.9292
808.5938,1.6283,1.0744,9.9044,6.0430,0.8379,4.1557,8.7392,6.2713,1.0343,0.3501,-0.1861,0.2932,3.7687,0.8334,2.7361,0.7417,2.9423,-0.4018,5.1925
812.5000,-0.2717,-2.0885,4.7532,4.9299,0.1219,2.3727,6.9831,4.8955,-2.8297,-0.6995,-2.7342,-1.4572,1.1368,-0.6088,1.8524,0.3356,0.7443,-3.5564,3.4030
816.4062,-1.2004,-5.2784,-2.3200,2.1747,-1.3435,0.0959,3.6039,2.3615,-6.4722,-1.5671,-5.0504,-2.7198,-2.2992,-2.2617,0.2759,-0.5563,-1.5652,-6.5300,0.1610
820.3125,-1.0410,-7.4824,-9.4798,-1.5030,-2.9739,-1.9243,-0.4475,-0.6414,-8.6207,-1.6744,-6.1448,-2.7022,-5.0836,-3.5816,-1.0617,-1.4682,-3.0457,-8.2798,-3.2912
824.2188,-0.1613,-7.9039,-14.8585,-5.0984,-4.1133,-2.9036,-4.0158,-3.3066,-8.4477,-0.7304,-5.4438,-1.0537,-6.0600,-4.1395,-1.2152,-1.6235,-3.1149,-8.2453,-5.6362
828.1250,0.8319,-6.2602,-17.1002,-7.7001,-4.3611,-2.3874,-6.1550,-5.0232,-5.8899,1.0330,-3.0309,1.9704,-4.8105,-3.7586,0.2012,-0.4014,-1.8028,-6.4807,-6.0661
832.0312,1.4364,-2.9268,-15.7081,-8.7523,-3.7434,-0.5076,-6.4129,-5.5330,-1.6709,2.9477,0.3997,5.6232,-1.7385,-2.5587,2.7461,2.1904,0.3040,-3.5210,-4.5846
835.9375,1.5082,1.1584,-11.1346,-8.1368,-2.6584,2.0376,-4.9031,-4.9089,2.9716,4.2777,3.8435,8.9727,2.1735,-0.9046,5.3440,5.3531,2.3660,-0.1221,-1.9079
839.8438,1.2988,4.8231,-4.6209,-6.1155,-1.6480,4.3039,-2.1780,-3.4295,6.7286,4.6333,6.3834,11.2233,5.7516,0.7075,6.8272,7.7945,3.6573,2.9613,0.9274
843.7500,1.2710,7.0909,2.1676,-3.2131,-1.1185,5.5519,1.0095,-1.4436,8.6438,4.1592,7.4928,11.9088,7.9806,1.7878,6.5242,8.3590,3.8067,5.0831,2.9992
847.6562,1.7981,7.5136,7.6185,-0.0883,-1.1461,5.5717,3.9483,0.7149,8.3602,3.3816,7.1264,10.9285,8.2236,1.9845,4.5890,6.6433,2.8387,5.7410,3.7635
851.5625,2.9090,6.2509,10.6253,2.6075,-1.4503,4.6900,6.1339,2.7619,6.1324,2.8315,5.6116,8.4913,6.3270,1.1910,1.9171,3.2413,1.0593,4.6393,3.0915
855.4688,4.2145,3.8832,10.8670,4.3857,-1.5409,3.4790,7.3240,4.4726,2.6577,2.7137,3.4545,5.0522,2.6555,-0.3935,-0.2873,-0.5329,-1.0959,1.8217,1.1850
859.3750,5.0632,1.0971,8.8084,5.0562,-0.9662,2.3721,7.5041,5.6848,-1.1646,2.8429,1.1817,1.2628,-1.9369,-2.2793,-1.0716,-3.2958,-3.1670,-2.1932,-1.4971
863.2812,4.8574,-1.5657,5.4281,4.7705,0.4510,1.4462,6.8065,6.2975,-4.4537,2.8666,-0.7348,-2.1039,-6.2488,-3.8021,-0.1572,-4.2522,-4.7171,-6.4138,-4.2627
867.1875,3.3751,-3.7794,1.8027,3.9224,2.5038,0.4952,5.4343,6.2653,-6.5171,2.5897,-1.9127,-4.3002,-9.0263,-4.3300,1.9631,-3.4986,-5.3737,-9.6192,-6.2480
871.0938,0.9324,-5.3587,-1.2633,2.9427,4.6715,-0.6887,3.6180,5.5970,-6.9797,2.1510,-2.1163,-4.8084,-9.3658,-3.5000,4.2855,-1.8293,-4.9088,-10.7999,-6.6298
875.0000,-1.7091,-6.1665,-3.4062,2.1047,6.3419,-2.0540,1.6093,4.3745,-5.8745,1.9244,-1.3471,-3.5189,-7.0752,-1.3835,5.7863,-0.1976,-3.3463,-9.5976,-4.9785
878.9062,-3.6537,-6.1158,-4.6351,1.4649,7.0736,-3.2472,-0.3122,2.7879,-3.6535,2.2280,0.1023,-0.7848,-2.8108,1.5061,5.9082,0.8227,-1.0275,-6.4935,-1.5784
882.8125,-4.2548,-5.2621,-5.1207,0.9674,6.7663,-3.8223,-1.8527,1.1494,-1.0664,3.0590,1.7201,2.6864,2.1171,4.3872,4.8038,1.2575,1.4405,-2.6104,2.5326
886.7188,-3.3868,-3.8819,-5.0015,0.6119,5.6548,-3.5496,-2.7637,-0.1602,1.0934,4.0503,2.9851,6.0502,6.2134,6.4946,3.2128,1.5415,3.3699,0.7862,5.9243
890.6250,-1.4854,-2.4321,-4.3337,0.5250,4.1455,-2.6108,-2.9414,-0.8272,2.2770,4.6729,3.6066,8.5467,8.3401,7.3480,2.0343,2.0894,4.2409,2.8162,7.4050
894.5312,0.6442,-1.3892,-3.1989,0.8471,2.6019,-1.5478,-2.5215,-0.7710,2.3462,4.5384,3.6303,9.6420,8.0901,6.8861,1.8258,2.9430,3.8946,3.2435,6.5797
898.4375,2.1424,-1.0705,-1.8677,1.5060,1.2103,-1.0014,-1.8973,-0.2343,1.5096,3.5961,3.3120,9.0744,5.8356,5.4211,2.5097,3.7286,2.5685,2.3414,3.9955
902.3438,2.3908,-1.5594,-0.8637,2.0756,-0.0078,-1.3960,-1.6071,0.2917,0.0670,2.1110,2.8307,6.8502,2.4630,3.4620,3.4524,3.9292,0.7577,0.4978,0.7774
906.2500,1.1893,-2.7615,-0.8268,1.8913,-1.0727,-2.7406,-2.0984,0.3081,-1.8502,0.4648,2.0503,3.2367,-1.0482,1.5069,3.8615,3.2489,-1.0256,-2.1338,-2.0208
910.1562,-1.2124,-4.5027,-2.2001,0.4220,-1.9273,-4.6257,-3.4621,-0.4005,-4.3327,-1.0655,0.5388,-1.2465,-3.9967,-0.0995,3.2456,1.7973,-2.4659,-5.6676,-3.9436
914.0625,-4.2019,-6.5538,-4.9001,-2.3169,-2.4211,-6.3880,-5.2883,-1.5983,-7.4709,-2.4109,-2.1188,-5.8767,-6.1277,-1.2074,1.6508,-0.0360,-3.5289,-10.1697,-5.2216
917.9688,-6.9767,-8.5583,-8.1830,-5.6017,-2.4120,-7.3542,-6.7669,-2.6765,-11.0092,-3.6549,-5.8983,-9.8544,-7.5668,-1.8233,-0.4607,-1.9004,-4.3905,-15.2282,-6.4023
921.8750,-8.7739,-9.9733,-10.8418,-8.2544,-1.9023,-7.0781,-7.0382,-2.9594,-14.1621,-4.8885,-10.1063,-12.4867,-8.5948,-2.0414,-2.5725,-3.7295,-5.2651,-19.7615,-7.8129
925.7812,-9.1190,-10.1729,-11.6979,-9.2098,-1.0902,-5.5103,-5.6457,-2.0734,-15.8056,-6.0846,-13.5425,-13.3578,-9.3961,-1.9790,-4.4337,-5.6965,-6.2373,-22.2844,-9.2322
929.6875,-8.0166,-8.7456,-10.1632,-8.0683,-0.2771,-3.0556,-2.8439,-0.1646,-15.0046,-7.0589,-15.0070,-12.4065,-9.9017,-1.7293,-6.0939,-7.8957,-7.1816,-21.5516,-9.9814
933.5938,-5.9793,-5.8312,-6.5751,-5.2965,0.3163,-0.4808,0.4363,2.1661,-11.5789,-7.5208,-13.8697,-9.8856,-9.7890,-1.3274,-7.6365,-9.9979,-7.8019,-17.2278,-9.3437
937.5000,-3.8315,-2.2342,-2.1019,-1.9542,0.6928,1.3339,2.9876,4.1651,-6.3340,-7.1728,-10.3685,-6.2478,-8.6359,-0.7378,-8.8409,-11.1910,-7.7557,-10.1828,-7.0137
941.4062,-2.3342,0.8477,1.7565,0.8685,1.0623,1.7355,3.8918,5.2807,-0.7737,-5.8252,-5.4742,-2.0365,-6.1630,0.1199,-9.0834,-10.5349,-6.8004,-2.2199,-3.2950
945.3125,-1.8067,2.3837,3.8188,2.5433,1.6556,0.5877,2.9366,5.3540,3.5654,-3.5019,-0.4310,2.1708,-2.4617,1.2970,-7.6250,-7.5597,-4.8989,4.6246,1.0295
949.2188,-1.9613,2.0333,3.6762,3.0308,2.4813,-1.6473,0.6417,4.5504,5.7723,-0.5116,3.7394,5.7842,1.8974,2.7176,-4.1402,-2.7213,-2.2589,8.8325,5.0099
953.1250,-2.0786,0.2925,1.7244,2.6199,3.1943,-4.1116,-2.1144,3.1109,5.8444,2.5614,6.5093,8.2479,5.9478,4.1151,0.8762,2.6276,0.6959,9.8365,7.8039
957.0312,-1.4537,-1.8443,-1.1996,1.5245,3.1888,-5.9563,-4.6270,1.1198,4.4814,4.9955,7.8190,9.1540,8.6023,5.0632,6.1500,6.8050,3.4093,7.9884,8.8009
960.9375,0.1364,-3.4832,-4.3122,-0.3319,1.8902,-6.7377,-6.7180,-1.5330,2.5886,6.1877,7.8834,8.3973,9.0366,5.1203,10.1613,8.6106,5.3199,4.2029,7.6509
964.8438,2.2288,-4.2933,-7.1928,-3.1736,-0.9074,-6.5860,-8.6920,-4.9618,0.8370,5.9313,7.0233,6.2859,7.0356,4.0347,11.8818,7.9156,6.0165,-0.4452,4.3265
968.7500,3.8794,-4.5383,-9.7478,-6.9840,-4.8453,-6.0559,-10.9427,-9.0018,-0.4789,4.5584,5.6166,3.5144,3.1490,1.9094,11.2698,5.6860,5.3873,-4.9582,-0.7347
972.6562,4.1746,-4.7026,-11.9248,-11.1831,-9.0631,-5.7610,-13.4940,-13.0510,-1.2988,2.8293,4.1097,0.9739,-1.4321,-0.7721,9.2179,3.4371,3.7056,-8.4738,-6.5213
976.5625,2.7592,-5.0217,-13.4532,-14.6590,-12.4942,-6.0161,-15.8050,-16.1832,-1.5860,1.5867,2.9672,-0.5425,-5.2582,-3.2908,6.9974,2.4485,1.5874,-10.2899,-11.5658
980.4688,0.0718,-5.2815,-13.8528,-16.2044,-14.2571,-6.6919,-16.9905,-17.5137,-1.2664,1.3422,2.5068,-0.6159,-7.1288,-4.9546,5.5559,3.1811,-0.2006,-9.9951,-14.3790
984.3750,-2.8490,-5.0239,-12.7416,-15.1345,-13.9673,-7.3425,-16.3335,-16.6306,-0.3591,2.0277,2.7125,0.6531,-6.5330,-5.3609,5.0975,5.1803,-1.0335,-7.6945,-14.0694
988.2812,-4.8777,-3.9829,-10.2260,-11.7238,-11.8520,-7.4989,-13.7687,-13.8506,0.8529,3.0598,3.1890,2.6859,-3.8432,-4.5434,5.1609,7.4372,-0.6973,-4.1590,-10.8221
992.1875,-5.3458,-2.4041,-7.0681,-7.1914,-8.6480,-6.9398,-10.0315,-10.1476,1.8127,3.6782,3.3486,4.6366,-0.1812,-2.9427,5.0761,8.9332,0.5030,-0.7016,-5.9298
996.0938,-4.3282,-0.9955,-4.4529,-3.2217,-5.3471,-5.7972,-6.3729,-6.7787,1.9101,3.3561,2.7464,5.6934,3.0020,-1.2234,4.4518,9.0568,1.8728,1.2714,-1.2928
1000.0000,-2.5421,-0.5357,-3.4414,-1.2565,-2.8889,-4.4695,-3.9979,-4.7859,0.8069,2.0452,1.3490,5.3743,4.4729,-0.0232,3.3742,7.7299,2.6471,0.8601,1.3885
1003.9062,-0.9481,-1.4118,-4.4183,-1.9030,-1.8934,-3.4200,-3.5349,-4.6090,-1.3531,0.1341,-0.4509,3.7179,3.6792,0.2655,2.2379,5.2953,2.3472,-1.8861,1.3200
1007.8125,-0.2861,-3.3942,-6.8604,-4.7171,-2.4954,-2.9763,-4.8013,-5.9656,-3.9954,-1.8144,-2.0882,1.2986,0.9552,-0.3922,1.3946,2.3229,0.9953,-5.9356,-1.1232
1011.7188,-0.7880,-5.7737,-9.5667,-8.4182,-4.3121,-3.2136,-6.9513,-8.0199,-6.3847,-3.3578,-3.1687,-0.9569,-2.6082,-1.6918,0.9029,-0.5382,-0.9156,-9.6881,-4.6629
1015.6250,-2.1817,-7.7394,-11.2209,-11.4031,-6.5562,-3.9500,-8.8913,-9.7292,-7.9328,-4.3224,-3.6550,-2.1022,-5.5709,-3.1106,0.5517,-2.6512,-2.6622,-11.6277,-7.7138
1019.5312,-3.9350,-8.7461,-10.9782,-12.3253,-8.2706,-4.8414,-9.7419,-10.2130,-8.3644,-4.7545,-3.7751,-1.5305,-6.6623,-4.0812,0.1014,-3.4881,-3.5991,-10.8962,-8.9840
1023.4375,-5.5656,-8.6761,-8.7831,-10.5339,-8.6290,-5.5384,-9.1482,-9.0152,-7.6956,-4.7649,-3.7383,0.7917,-5.2155,-4.1606,-0.4689,-2.7685,-3.3768,-7.5407,-7.8294
1027.3438,-6.8355,-7.7707,-5.3022,-6.2535,-7.2144,-5.8490,-7.3451,-6.2093,-6.1184,-4.4084,-3.4933,4.3263,-1.3655,-3.1557,-0.9050,-0.5941,-1.9901,-2.3873,-4.3143
1031.2500,-7.7422,-6.4465,-1.5734,-0.4903,-4.1779,-5.8347,-4.9979,-2.3538,-3.9200,-3.6889,-2.7269,8.1940,4.0289,-1.1808,-0.8462,2.5286,0.3052,3.3187,0.9096
1035.1562,-8.3549,-5.1316,1.4094,5.2763,-0.2172,-5.7775,-2.9127,1.6611,-1.4855,-2.6623,-1.1199,11.5089,9.6706,1.3559,-0.0818,5.8349,3.1053,8.2952,6.7668
1039.0625,-8.6429,-4.1766,2.9797,9.5174,3.6283,-6.0119,-1.7348,4.8391,0.6808,-1.5330,1.3180,13.6410,14.1891,3.8381,1.2942,8.5707,5.9231,11.4839,11.9165
1042.9688,-8.4422,-3.8149,2.8791,11.0822,6.2997,-6.7031,-1.7387,6.3383,2.0135,-0.6434,4.0771,14.2926,16.4659,5.5885,2.9307,10.2403,8.2081,12.1719,14.9654
1046.8750,-7.5966,-4.1266,1.1922,9.5188,7.0545,-7.7095,-2.7751,5.7197,2.0562,-0.3372,6.2800,13.4061,15.8597,6.0607,4.4171,10.6994,9.3936,10.0498,14.8005
1050.7812,-6.1727,-5.0096,-1.7522,5.2114,5.7071,-8.6349,-4.3807,3.1173,0.6649,-0.7666,7.0609,11.0371,12.3277,5.0332,5.4824,10.0663,9.0290,5.2813,11.0018
1054.6875,-4.5650,-6.1928,-5.4355,-0.7044,2.6979,-9.0569,-5.9899,-0.7429,-1.8817,-1.7573,5.9854,7.3331,6.4574,2.7406,6.0708,8.5486,6.9773,-1.4178,4.1662
1058.5938,-3.3616,-7.3119,-9.1600,-6.6301,-1.0330,-8.7861,-7.1426,-4.7118,-4.9392,-2.8208,3.2905,2.6480,-0.5981,-0.1297,6.2751,6.3280,3.5679,-8.7771,-4.0794
1062.5000,-3.0047,-8.0153,-12.0847,-10.9319,-4.3395,-7.9699,-7.5914,-7.5520,-7.6906,-3.3313,-0.1680,-2.3185,-7.3138,-2.6197,6.2084,3.5799,-0.4198,-15.1519,-11.4920
1066.4062,-3.4545,-8.0395,-13.3611,-12.4068,-6.2471,-6.9578,-7.2837,-8.3410,-9.3753,-2.8024,-3.2237,-6.5340,-12.1298,-3.8315,5.9148,0.5859,-3.9827,-18.9199,-15.9610
1070.3125,-4.1125,-7.2277,-12.3888,-10.6701,-6.2941,-6.0246,-6.2753,-6.8040,-9.4674,-1.1462,-4.8233,-8.8953,-13.8769,-3.2928,5.3673,-2.1854,-6.2430,-19.0040,-16.2998
1074.2188,-4.1175,-5.5314,-9.1201,-6.3379,-4.7099,-5.1692,-4.6771,-3.4432,-7.7838,1.2162,-4.4009,-8.6579,-12.1547,-1.1920,4.5280,-4.1281,-6.7491,-15.3184,-12.7225
1078.1250,-2.8798,-3.0541,-4.2624,-0.9116,-2.3418,-4.1659,-2.6908,0.6002,-4.5428,3.4788,-2.0695,-5.8037,-7.4921,1.6530,3.4134,-4.6843,-5.5793,-8.9116,-6.7664
1082.0312,-0.5158,-0.1381,0.7809,3.6592,-0.3328,-2.8462,-0.6907,3.9234,-0.3717,4.7957,1.4363,-1.1105,-1.1848,4.1158,2.1303,-3.5648,-3.2168,-1.6820,-0.6673
1085.9375,2.1291,2.5986,4.3041,5.6369,0.3388,-1.3923,0.7651,5.3527,3.7896,4.7136,5.0574,4.1454,5.1516,5.2458,0.8810,-0.8856,-0.2947,4.2754,3.5443
1089.8438,3.9404,4.3956,4.9402,4.1563,-0.7354,-0.3719,1.0900,4.3679,6.9383,3.4695,7.8453,8.7053,10.1243,4.6882,-0.0547,2.8462,2.6335,7.4387,4.8232
1093.7500,4.2122,4.6747,2.2930,-0.3893,-3.2280,-0.4185,-0.0356,1.2966,8.3729,1.9565,9.3511,11.7716,12.9574,2.8246,-0.3719,6.8751,5.1910,7.4071,3.4186
1097.6562,3.1099,3.4077,-2.7556,-6.4433,-6.2354,-1.7366,-2.3886,-2.8075,8.0061,1.3085,9.7696,13.1458,13.5675,0.5546,0.1524,10.3945,7.1428,4.9643,0.5878
1101.5625,1.5958,1.2695,-8.2790,-11.8686,-8.6896,-3.7864,-5.1506,-6.5600,6.4245,2.2811,9.7331,13.0286,12.3255,-1.1774,1.5117,12.7303,8.3113,1.6243,-2.1225
1105.4688,0.8454,-0.5966,-12.0433,-14.7923,-9.8236,-5.4239,-7.1753,-8.7594,4.6065,4.7647,9.8378,11.6705,9.6824,-1.8620,3.3582,13.4742,8.5324,-1.1159,-3.6558
1109.3750,1.5268,-1.1380,-12.4397,-14.3362,-9.4626,-5.4804,-7.4775,-8.8040,3.4226,7.7431,10.1714,9.1406,5.8974,-1.6631,5.0307,12.5551,7.6808,-2.4367,-3.8939
1113.2812,3.4113,0.0375,-9.1673,-10.8973,-8.0098,-3.4439,-5.6873,-6.8418,3.2087,9.7781,10.1567,5.3783,1.0312,-1.2915,5.7807,10.2288,5.7243,-2.4396,-3.5602
1117.1875,5.5614,2.4476,-3.3229,-5.8614,-6.1594,0.1932,-2.2144,-3.6023,3.6775,9.7816,8.8636,0.4729,-4.8138,-1.5861,5.1221,6.9729,2.7572,-1.8813,-3.6584
1121.0938,6.9519,5.0389,3.1459,-0.9132,-4.5085,4.1670,1.9731,-0.0117,4.2157,7.6341,5.6545,-5.0502,-11.1781,-3.0261,3.1186,3.3040,-1.0006,-1.5918,-4.7748
1125.0000,7.0981,6.8309,8.3342,2.6988,-3.2754,7.1286,5.8232,3.2120,4.3544,4.2738,0.7783,-10.1703,-17.0796,-5.4190,0.4155,-0.4007,-5.2013,-1.9331,-6.6423
1128.9062,6.2869,7.4872,11.1606,4.5969,-2.2527,8.3643,8.6555,5.7907,4.0867,1.1907,-4.4863,-13.6184,-21.1334,-7.9156,-2.0439,-3.9660,-9.3288,-2.6039,-8.2056
1132.8125,5.3042,7.4482,11.6650,5.2462,-0.9843,8.1157,10.3602,7.8593,3.8314,-0.3694,-8.2903,-14.3095,-21.9374,-9.3320,-3.4727,-7.2990,-12.6485,-2.8624,-8.1423
1136.7188,4.8976,7.5562,10.7452,5.5572,0.9574,7.3293,11.2713,9.7372,4.1058,-0.0090,-9.0572,-11.7294,-18.5620,-8.6265,-3.5956,-10.1479,-14.2360,-1.9866,-5.5398
1140.6250,5.3585,8.4499,9.5549,6.3767,3.7448,7.0313,11.8439,11.6546,5.1760,1.7592,-6.2377,-6.0867,-10.9383,-5.3242,-2.6840,-11.9174,-13.1783,0.3293,-0.3594
1144.5312,6.4700,10.1442,8.9306,8.1222,7.2075,7.7333,12.3504,13.5906,6.9413,3.9825,-0.5421,1.8030,0.0036,0.2700,-1.2581,-11.7308,-8.9399,3.8608,6.5347
1148.4375,7.7723,12.0589,9.1256,10.6865,10.8847,9.2123,12.7608,15.2894,9.1013,5.9201,6.4651,10.7843,12.4870,7.1311,0.3284,-8.7943,-1.7499,8.0289,13.7455
1152.3438,8.8799,13.4324,9.8977,13.5656,14.1560,10.7379,12.8275,16.4050,11.4179,7.4343,13.1420,19.6233,24.2736,13.8063,2.1261,-2.9043,7.2176,12.1962,19.8653
1156.2500,9.6100,13.8024,10.7932,16.0783,16.3844,11.5384,12.2778,16.6607,13.8249,8.8919,18.4429,27.1718,33.1703,18.8286,4.4794,5.2037,16.0441,15.8708,23.8737
1160.1562,9.8848,13.2211,11.4031,17.5555,17.0433,11.1917,10.9760,15.9253,16.2829,10.7012,22.1171,32.4537,37.5328,21.1201,7.6507,13.9236,22.6367,18.7219,25.2711
1164.0625,9.5765,12.0958,11.4580,17.4574,15.8269,9.7383,8.9755,14.1882,18.5176,12.8545,24.3949,34.7493,36.6504,20.2658,11.4557,21.2949,25.4463,20.4682,23.9970
1167.9688,8.4955,10.8174,10.7805,15.4462,12.7422,7.5276,6.4640,11.4924,19.9006,14.8112,25.4527,33.7145,30.9103,16.5840,15.1834,25.7309,24.0066,20.7843,20.2954
1171.8750,6.5580,9.4617,9.2045,11.4506,8.1532,4.9659,3.6626,7.9059,19.6297,15.7874,25.0613,29.4936,21.6805,10.9806,17.8706,26.5849,19.0421,19.3307,14.6473
1175.7812,3.9798,7.7570,6.5628,5.7198,2.7344,2.3449,0.7418,3.5653,17.1279,15.2250,22.6621,22.7299,10.9228,4.6477,18.7575,24.2754,12.1083,15.8959,7.7682
1179.6875,1.2832,5.2963,2.7597,-1.1683,-2.6826,-0.1849,-2.2052,-1.2457,12.3913,13.0999,17.8033,14.4223,0.6477,-1.2841,17.6258,19.9515,4.9619,10.5462,0.5726
1183.5938,-0.9453,1.8166,-2.1224,-8.3802,-7.3312,-2.5486,-5.1291,-6.0579,6.0426,9.8824,10.6246,5.6715,-7.6019,-6.0140,14.8229,14.9308,-1.0274,3.6875,-5.9769
1187.5000,-2.3934,-2.6302,-7.7513,-14.9722,-10.7075,-4.6846,-7.9486,-10.2751,-0.9369,6.2237,2.0610,-2.5561,-13.0478,-9.1755,11.0011,10.2293,-5.1757,-3.9828,-11.1053
1191.4062,-3.1927,-7.6666,-13.5319,-20.0590,-12.6520,-6.5273,-10.4661,-13.3187,-7.5851,2.6357,-6.3726,-9.5303,-15.6619,-10.7695,6.7924,6.3816,-7.4306,-11.5768,-14.4137
1195.3125,-3.7692,-12.6638,-18.6430,-22.9465,-13.2794,-8.0080,-12.3261,-14.7891,-13.1783,-0.6044,-13.0861,-14.7059,-15.8942,-10.9939,2.6479,3.5337,-8.0934,-18.1052,-15.8889
1199.2188,-4.4635,-16.8133,-22.1148,-23.2064,-12.8062,-9.0270,-13.0631,-14.5602,-17.1769,-3.3022,-16.9245,-17.6197,-14.3198,-10.0743,-1.0893,1.6352,-7.5274,-22.5531,-15.7245
1203.1250,-5.2022,-19.1929,-22.9665,-20.7117,-11.3861,-9.3973,-12.2557,-12.7694,-19.0374,-5.1345,-17.4364,-17.8776,-11.3998,-8.1817,-4.0164,0.5577,-6.0117,-23.9990,-14.0891
1207.0312,-5.4734,-18.9092,-20.4362,-15.6684,-9.0536,-8.8265,-9.7408,-9.7301,-18.1541,-5.6143,-14.8365,-15.3025,-7.4588,-5.4604,-5.6214,0.0941,-3.7665,-21.8309,-11.0276
1210.9375,-4.6436,-15.3841,-14.2908,-8.6481,-5.8087,-7.0103,-5.7850,-5.8352,-14.0962,-4.3236,-9.7853,-10.1693,-2.8299,-2.1234,-5.4624,-0.0763,-1.0613,-16.0255,-6.5865
1214.8438,-2.4042,-8.7231,-5.1137,-0.5841,-1.7860,-3.8385,-1.1023,-1.5073,-7.0418,-1.2773,-3.1759,-3.3518,1.9820,1.4621,-3.4805,-0.3453,1.7147,-7.3612,-1.0736
1218.7500,0.9528,0.0327,5.5930,7.3304,2.6083,0.3865,3.3309,2.8004,1.9012,2.8482,3.9631,3.7783,6.2689,4.7662,-0.2126,-1.0257,4.0873,2.5978,4.7677
1222.6562,4.6032,8.9977,15.6396,13.8675,6.6937,4.8792,6.6031,6.6004,10.7926,6.8256,10.4902,9.7232,9.2725,7.1907,3.2929,-2.1778,5.6165,11.8211,9.8567
1226.5625,7.5456,15.9571,22.7274,18.0672,9.6805,8.5515,8.1941,9.4197,17.4401,9.3220,15.2360,13.3534,10.4451,8.2397,5.8635,-3.5390,6.0310,18.3696,13.1577
1230.4688,9.0199,19.1532,25.2132,19.5064,10.9468,10.4142,8.1464,10.9173,20.2220,9.4665,17.2491,14.2857,9.6747,7.7016,6.6954,-4.6188,5.3077,20.9857,14.1476
1234.3750,8.7755,17.9969,22.7541,18.4126,10.3012,10.0174,7.0067,11.0197,18.7406,7.2457,16.1541,12.9581,7.3559,5.7668,5.6819,-4.9094,3.6753,19.4894,13.0844
1238.2812,7.1108,13.3486,16.5275,15.5565,8.1017,7.6971,5.5737,9.9854,13.9768,3.5310,12.4282,10.3768,4.2751,3.0203,3.4105,-4.0906,1.5596,14.8242,10.8963
1242.1875,4.7337,7.1961,8.8683,11.9598,5.1534,4.4681,4.5728,8.3294,7.8773,-0.2717,7.3709,7.6758,1.3670,0.2868,0.8606,-2.1299,-0.5013,8.7388,8.7350
1246.0938,2.5296,1.8455,2.4188,8.5379,2.4074,1.5825,4.3902,6.6106,2.5835,-2.7848,2.6787,5.7052,-0.5564,-1.6372,-1.0108,0.7367,-1.9612,3.2191,7.4409
1250.0000,1.2812,-1.0205,-0.8809,5.8234,0.5777,-0.0418,4.9510,5.1760,-0.3511,-3.1962,-0.2337,4.8133,-1.0247,-2.2716,-1.5978,4.0867,-2.3909,-0.1461,7.2090
1253.9062,1.3650,-0.9937,-0.5342,3.8716,-0.1527,-0.2411,5.7637,3.9982,-0.4554,-1.5648,-0.8416,4.8605,-0.0293,-1.6441,-0.7856,7.3935,-1.6148,-0.6664,7.6094
1257.8125,2.5059,0.9863,2.3711,2.3569,-0.1942,0.3481,6.1044,2.7098,1.5946,1.2101,0.2789,5.3875,1.9699,-0.2866,1.0783,10.0980,0.1868,1.2385,7.9028
1261.7188,3.7539,3.1554,5.6933,0.7896,-0.3377,0.6486,5.2911,0.8344,4.3138,3.7446,1.7722,5.8206,4.1583,0.9793,3.3106,11.7007,2.4716,4.1977,7.4301
1265.6250,3.8273,3.7875,7.2016,-1.2568,-1.3578,-0.2700,2.9724,-1.8987,6.0050,4.7231,2.1971,5.6319,5.5904,1.3836,5.0733,11.8903,4.4691,6.3868,5.8593
1269.5312,1.7779,1.9868,5.5359,-3.9954,-3.6243,-2.6769,-0.6710,-5.3309,5.4104,3.4458,0.7291,4.4421,5.4795,0.5198,5.6051,10.6671,5.4309,6.2067,3.1975
1273.4375,-2.3316,-1.9538,0.7260,-7.3805,-6.9170,-6.0052,-4.9142,-8.8782,2.1992,0.1452,-2.4903,2.0893,3.4617,-1.5197,4.4861,8.3757,4.9020,2.8984,-0.3547
1277.3438,-7.1850,-6.7725,-5.9368,-11.1429,-10.5376,-9.1098,-8.7196,-11.7740,-2.8910,-4.0839,-6.5028,-1.3144,-0.2731,-4.2410,1.8545,5.5912,2.8880,-3.1496,-4.5503
1281.2500,-10.6893,-10.8907,-12.5605,-14.8564,-13.6510,-10.8194,-11.1473,-13.4263,-8.3359,-7.7332,-10.0408,-5.3538,-5.0493,-7.0087,-1.5562,2.8928,-0.1645,-10.5281,-9.1245
1285.1562,-11.0294,-13.1431,-17.4766,-18.0068,-15.6636,-10.4959,-11.7676,-13.6935,-12.4380,-9.5233,-12.0781,-9.3462,-9.9469,-9.3164,-4.6505,0.6476,-3.5635,-17.3103,-13.7083
1289.0625,-7.7416,-13.2165,-19.8165,-20.0662,-16.4325,-8.3139,-10.8519,-12.9226,-14.0128,-8.9375,-12.1457,-12.4692,-14.1030,-10.9260,-6.4207,-1.0713,-6.6399,-21.7142,-17.7373
1292.9688,-2.1314,-11.6110,-19.6122,-20.5932,-16.2087,-5.1355,-9.2152,-11.7291,-12.8367,-6.3953,-10.3396,-13.9722,-16.9363,-11.8282,-6.4114,-2.3945,-8.9554,-22.6587,-20.4840
1296.8750,3.2974,-9.2160,-17.4761,-19.3600,-15.3816,-2.0704,-7.7682,-10.6483,-9.6487,-2.9958,-7.1494,-13.4173,-18.2134,-12.0975,-4.9420,-3.4766,-10.3645,-20.0318,-21.2650
1300.7812,6.1375,-6.7943,-14.1368,-16.4666,-14.2058,0.0301,-7.0192,-9.8545,-5.7326,0.0064,-3.2978,-10.8703,-17.9787,-11.7672,-2.9482,-4.3625,-10.9354,-14.6369,-19.7449
1304.6875,5.3548,-4.6793,-10.1262,-12.3739,-12.6843,0.8876,-6.8140,-9.1061,-2.3242,1.7089,0.3283,-6.9628,-16.4411,-10.8166,-1.5173,-4.9869,-10.8152,-7.9061,-16.1742
1308.5938,1.7838,-2.8163,-5.7543,-7.8048,-10.6641,0.7955,-6.4718,-7.9345,-0.1627,1.8100,2.7412,-2.7708,-13.9035,-9.2613,-1.3694,-5.2790,-10.1326,-1.5064,-11.4060
1312.5000,-2.4439,-1.0408,-1.2922,-3.5309,-8.0569,0.3525,-5.2435,-5.9630,0.6171,0.5414,3.0515,0.4868,-10.7543,-7.2552,-2.5652,-5.2610,-8.9869,3.0666,-6.6415
1316.4062,-5.1715,0.6403,2.8412,-0.1353,-5.0196,0.1105,-2.8249,-3.1725,0.2782,-1.5882,0.8335,1.8565,-7.4676,-5.1057,-4.5713,-5.0480,-7.4938,4.8488,-3.0002
1320.3125,-5.4022,1.9619,6.0538,2.1256,-1.9747,0.3184,0.3776,0.0209,-0.8340,-4.0420,-3.5189,1.0184,-4.5467,-3.1769,-6.5990,-4.7499,-5.8273,3.6567,-1.1129
1324.2188,-3.7086,2.5295,7.7309,3.2898,0.5360,0.8575,3.3790,2.9047,-2.4909,-6.3712,-8.7292,-1.5533,-2.4038,-1.7475,-7.9957,-4.3717,-4.2077,0.1339,-0.9399
1328.1250,-1.6971,2.0331,7.4518,3.5160,2.0599,1.3477,5.0653,4.7413,-4.5729,-8.2160,-13.0404,-4.7529,-1.2400,-0.9255,-8.4744,-3.8102,-2.8435,-4.4770,-1.9016
1332.0312,-0.9437,0.3866,5.1332,2.8961,2.3824,1.3404,4.7081,5.0422,-6.9302,-9.2910,-14.9637,-7.3029,-1.0113,-0.6770,-8.1073,-2.9623,-1.8720,-8.8099,-3.2486
1335.9375,-2.0896,-2.2692,1.0502,1.3924,1.5519,0.5060,2.2801,3.7375,-9.2724,-9.4293,-13.9836,-8.3195,-1.5125,-0.9296,-7.1584,-1.8554,-1.3440,-11.9175,-4.4608
1339.8438,-4.6008,-5.6323,-4.2191,-1.0451,-0.1863,-1.2322,-1.5614,1.1955,-11.1942,-8.6631,-10.7945,-7.7059,-2.5192,-1.6527,-5.8957,-0.6852,-1.2532,-13.6096,-5.4528
1343.7500,-7.2279,-9.2700,-9.8499,-4.2566,-2.4724,-3.6403,-5.7662,-1.8933,-12.3177,-7.2448,-6.8935,-6.1500,-3.8800,-2.8360,-4.4882,0.2776,-1.5753,-14.3839,-6.4764
1347.6562,-8.7773,-12.5884,-14.8204,-7.7118,-4.8776,-6.2019,-9.2803,-4.7170,-12.4385,-5.5450,-3.7580,-4.7086,-5.4910,-4.3791,-3.0045,0.8367,-2.2750,-14.9655,-7.7951
1351.5625,-8.6961,-14.8280,-18.0211,-10.5557,-6.9291,-8.2389,-11.3491,-6.5681,-11.5717,-3.8691,-2.0985,-4.1975,-7.1860,-5.9949,-1.4693,0.9486,-3.2766,-15.7186,-9.3520
1355.4688,-7.1839,-15.2092,-18.5006,-11.8844,-8.1654,-9.1123,-11.6463,-7.0314,-9.8845,-2.3220,-1.6324,-4.7379,-8.6563,-7.2370,0.0713,0.6676,-4.4377,-16.3059,-10.6637
1359.3750,-4.8918,-13.2469,-15.8218,-11.1281,-8.2554,-8.4499,-10.2443,-6.0810,-7.5918,-0.8371,-1.4813,-5.7323,-9.5050,-7.6789,1.4943,0.0151,-5.5699,-15.8413,-11.0325
1363.2812,-2.4989,-9.0976,-10.3769,-8.3424,-7.1439,-6.3118,-7.5102,-4.0549,-4.9140,0.6366,-0.8951,-6.2872,-9.4365,-7.1525,2.5633,-1.0871,-6.5144,-13.4824,-9.9693
1367.1875,-0.4508,-3.7059,-3.4538,-4.2557,-5.1374,-3.2151,-3.9999,-1.5225,-2.1283,1.9291,0.1830,-5.8247,-8.4625,-5.8870,2.9327,-2.7317,-7.2214,-9.1170,-7.5680
1371.0938,1.0463,1.4045,3.0626,-0.0475,-2.8499,0.0114,-0.3726,0.8988,0.3418,2.6014,1.0595,-4.4984,-6.9663,-4.4368,2.2308,-4.8349,-7.7636,-3.7129,-4.5882
1375.0000,1.8782,4.6527,7.2831,3.0368,-1.0044,2.4907,2.6947,2.6985,1.9085,2.1298,0.7396,-3.1441,-5.5484,-3.4167,0.2286,-7.0063,-8.2521,0.9261,-2.1671
1378.9062,1.9081,4.9975,7.9595,4.0726,-0.1687,3.5812,4.6218,3.5534,1.9455,0.2312,-1.4371,-2.7847,-4.7237,-3.1897,-2.9641,-8.6282,-8.6988,2.9129,-1.2998
1382.8125,1.0086,2.3215,4.9043,2.7188,-0.5447,3.0781,5.0654,3.3358,0.0441,-2.8797,-5.3702,-3.9851,-4.6519,-3.6893,-6.7960,-9.1403,-8.9280,1.1629,-2.3637
1386.7188,-0.7847,-2.5619,-0.9842,-0.6986,-1.9058,1.2716,4.0372,2.0979,-3.7084,-6.4770,-10.1998,-6.4506,-5.0688,-4.4750,-10.3717,-8.3524,-8.6212,-4.0403,-4.9378
1390.6250,-3.1238,-8.2385,-8.0684,-5.2762,-3.6989,-1.1487,1.9292,0.0669,-8.5800,-9.5787,-14.6692,-9.1116,-5.4581,-4.9815,-12.7494,-6.5585,-7.4923,-11.0850,-7.9987
1394.5312,-5.3422,-13.1778,-14.5238,-9.7721,-5.2598,-3.3144,-0.5999,-2.3601,-13.2950,-11.3307,-17.6050,-10.6455,-5.3534,-4.8107,-13.3099,-4.3511,-5.4947,-17.6533,-10.3771
1398.4375,-6.6469,-16.1728,-18.8840,-12.9598,-6.0548,-4.4716,-2.8602,-4.6759,-16.4077,-11.3151,-18.2752,-10.1407,-4.5856,-3.9100,-11.9987,-2.2590,-2.9233,-21.6327,-11.2429
1402.3438,-6.4531,-16.6293,-20.4227,-14.0273,-5.8664,-4.2647,-4.3956,-6.4121,-16.8420,-9.6480,-16.5348,-7.5413,-3.3470,-2.5639,-9.3065,-0.4658,-0.3314,-21.9165,-10.4057
1406.2500,-4.7059,-14.6838,-19.2931,-12.8947,-4.8677,-2.9071,-5.1477,-7.3347,-14.3827,-6.8690,-12.8016,-3.6625,-2.0689,-1.2376,-6.0086,1.1830,1.6987,-18.7746,-8.3369
1410.1562,-2.0126,-11.1559,-16.4112,-10.2935,-3.5612,-1.1355,-5.4205,-7.5673,-9.8720,-3.7260,-7.9390,0.1886,-1.2188,-0.3763,-2.8253,2.8992,2.7995,-13.6765,-5.9529
1414.0625,0.5331,-7.3249,-13.1170,-7.5115,-2.5906,0.0823,-5.6508,-7.5254,-4.9589,-0.9621,-3.0713,2.7627,-1.1365,-0.2569,-0.1984,4.6261,2.9363,-8.6683,-4.2751
1417.9688,1.8115,-4.5293,-10.6958,-5.8604,-2.4805,0.0010,-6.1067,-7.6545,-1.4432,0.8497,0.6882,3.3240,-1.9632,-0.9282,1.7243,5.9379,2.3456,-5.5629,-4.0854
1421.8750,1.2310,-3.6743,-9.9092,-6.0907,-3.4011,-1.4978,-6.6972,-8.1162,-0.4812,1.4371,2.5777,1.8527,-3.6328,-2.2224,2.9566,6.2671,1.3582,-5.2540,-5.6651
1425.7812,-0.9111,-4.8398,-10.7209,-8.0488,-5.0649,-3.7790,-7.0235,-8.6380,-2.0362,0.9284,2.4828,-1.0171,-5.8703,-3.8028,3.5427,5.3060,0.2372,-7.4099,-8.6717
1429.6875,-3.4972,-7.2110,-12.3527,-10.7641,-6.8209,-5.7198,-6.6551,-8.6642,-4.8817,-0.1298,1.0232,-4.2329,-8.1845,-5.2300,3.5387,3.2895,-0.8680,-10.6551,-12.1898
1433.5938,-5.1158,-9.4267,-13.6625,-12.9285,-7.9137,-6.2658,-5.4637,-7.7383,-7.1948,-0.9116,-0.6761,-6.6257,-9.8995,-6.0449,3.0932,0.9437,-1.8467,-13.1557,-14.9702
1437.5000,-4.8016,-10.2104,-13.6714,-13.5032,-7.7856,-4.9925,-3.7885,-5.8646,-7.4561,-0.6310,-1.4639,-7.2097,-10.2873,-5.8689,2.5116,-0.8710,-2.5168,-13.3651,-15.8115
1441.4062,-2.5822,-8.9654,-11.9765,-12.1328,-6.2710,-2.3521,-2.3044,-3.5782,-5.1866,1.0651,-0.6696,-5.4432,-8.8011,-4.5014,2.1935,-1.5781,-2.5913,-10.6222,-13.9780
1445.3125,0.5060,-6.0116,-8.8532,-9.1728,-3.5993,0.5455,-1.6534,-1.6389,-1.1331,3.8338,1.6187,-1.4089,-5.3265,-1.9827,2.4415,-1.0922,-1.7682,-5.3671,-9.4981
1449.2188,2.9767,-2.3471,-5.0343,-5.3867,-0.2395,2.5060,-2.0644,-0.5383,3.1791,6.6897,4.6402,4.1460,-0.3207,1.3978,3.2629,0.2802,0.0969,1.0783,-3.2177
1453.1250,3.7197,0.8968,-1.3369,-1.5504,3.2914,2.8545,-3.2063,-0.1635,6.2452,8.4106,7.3430,9.9627,5.2525,5.1477,4.3173,2.1125,2.8435,7.0294,3.4299
1457.0312,2.6066,2.9730,1.6332,1.7900,6.5381,1.7364,-4.3729,0.1209,7.2738,8.1218,8.8442,14.6097,10.1809,8.6529,5.0744,4.0675,5.9758,11.0126,8.8552
1460.9375,0.5102,3.7247,3.5613,4.3186,9.1069,-0.0378,-4.8843,1.0055,6.4110,5.7582,8.7457,16.9114,13.3534,11.2766,5.0974,5.9058,8.7804,12.1725,11.7862
1464.8438,-1.2711,3.4285,4.3258,5.8158,10.6339,-1.4859,-4.4522,2.6987,4.4433,2.1464,7.1951,16.3089,14.0631,12.4782,4.2769,7.3607,10.5380,10.4135,11.6240
1468.7500,-1.8203,2.4566,3.8744,6.0796,10.8231,-1.9900,-3.2943,4.7064,2.2377,-1.3528,4.7308,13.0094,12.1730,11.9495,2.8706,8.0725,10.7454,6.3083,8.5786
1472.6562,-1.1377,1.0232,2.2120,5.0104,9.5840,-1.5785,-1.9534,6.1065,0.2914,-3.4639,2.0335,7.8705,8.1259,9.7412,1.3367,7.7189,9.2660,0.8751,3.5748
1476.5625,-0.0844,-0.8306,-0.4896,2.7952,7.1814,-0.8303,-0.9683,6.1452,-1.3650,-3.5616,-0.2986,2.0882,2.8313,6.3216,0.0809,6.2732,6.3745,-4.6815,-2.0220
1480.4688,0.2114,-3.0559,-3.7720,0.0122,4.2522,-0.4913,-0.6127,4.7495,-2.9285,-1.9067,-1.8856,-3.1660,-2.5298,2.4988,-0.7163,4.1687,2.6953,-9.2195,-6.7767
1484.3750,-0.9001,-5.3975,-6.8959,-2.4881,1.6108,-1.0340,-0.8328,2.5985,-4.4777,0.5477,-2.6037,-7.0132,-6.7588,-0.8052,-1.1018,2.1708,-0.9438,-11.8791,-9.5593
1488.2812,-3.1527,-7.3427,-9.0217,-3.9112,-0.0905,-2.3874,-1.3587,0.7060,-5.7753,2.6536,-2.5357,-8.9701,-8.9227,-2.8611,-1.2126,0.9802,-3.7113,-12.2470,-9.8310
1492.1875,-5.4820,-8.2614,-9.4888,-3.8762,-0.6523,-3.9568,-1.8607,-0.1985,-6.3363,3.6140,-1.8626,-8.9180,-8.6105,-3.3800,-1.1168,0.8203,-4.9871,-10.4221,-7.7573
1496.0938,-6.6041,-7.6519,-8.0501,-2.5827,-0.3838,-4.9050,-2.0409,-0.0697,-5.6897,3.3134,-0.7445,-7.0208,-6.0681,-2.5776,-0.7472,1.3196,-4.5359,-6.9509,-4.1021
1500.0000,-5.7047,-5.3619,-4.9567,-0.6798,0.1254,-4.5557,-1.6543,0.5242,-3.6588,2.2995,0.7435,-3.6687,-2.1324,-1.0171,0.0385,1.8049,-2.5813,-2.6467,0.0695
1503.9062,-2.8582,-1.6927,-0.8738,1.0840,0.3803,-2.7388,-0.5374,0.8629,-0.5024,1.4477,2.5689,0.5415,2.0464,0.6809,1.3234,1.8174,0.2601,1.6399,3.7703
1507.8125,1.0169,2.6367,3.3133,2.2269,0.2683,0.0782,1.2982,0.5876,3.1325,1.4874,4.6136,4.8375,5.3985,2.1035,3.0156,1.4751,3.1763,5.2115,6.3969
1511.7188,4.6004,6.6484,6.7296,2.7170,0.0881,2.9461,3.5515,-0.0783,6.4030,2.6230,6.5556,8.3799,7.2796,3.1501,4.8187,1.3978,5.4206,7.6271,7.8396
1515.6250,6.7553,9.3591,8.7312,2.9025,0.3202,4.8276,5.6265,-0.5161,8.5210,4.4299,7.8854,10.4582,7.6190,3.9474,6.3047,2.2258,6.5367,8.7207,8.3690
1519.5312,6.9716,10.0832,9.0855,3.2645,1.3024,5.0661,6.8287,-0.1356,8.9863,6.0743,8.1039,10.7152,6.8186,4.6603,7.0568,4.0709,6.4594,8.5771,8.3875
1523.4375,5.4936,8.7002,8.0649,4.1436,3.0190,3.7051,6.7180,1.2634,7.7459,6.7448,7.0139,9.2868,5.4819,5.3328,6.8263,6.3066,5.4624,7.4904,8.1917
1527.3438,3.1224,5.7640,6.3897,5.5731,5.1109,1.4855,5.4158,3.4093,5.2335,6.0759,4.9150,6.7673,4.1246,5.8534,5.6472,7.8732,3.9927,5.9020,7.8664
1531.2500,0.8249,2.3559,4.9875,7.2695,7.0691,-0.4960,3.6416,5.7493,2.2593,4.3402,2.5408,3.9978,3.0127,6.0465,3.8589,7.9069,2.4852,4.2988,7.3401
1535.1562,-0.6543,-0.3004,4.6277,8.7591,8.4685,-1.2998,2.3995,7.7412,-0.2382,2.3036,0.7354,1.7714,2.1822,5.8150,2.0115,6.2717,1.2448,3.0834,6.5377
1539.0625,-1.0132,-1.3106,5.5896,9.5793,9.1152,-0.5562,2.4628,9.0557,-1.5000,0.8195,0.0461,0.5965,1.5861,5.2410,0.6695,3.6425,0.4381,2.4678,5.5200
1542.9688,-0.3783,-0.4383,7.5401,9.4823,9.0635,1.4352,3.9572,9.6191,-1.1932,0.3835,0.4814,0.6166,1.2521,4.5902,0.1856,1.1046,0.1636,2.4531,4.5254
1546.8750,0.8853,1.8676,9.7011,8.5679,8.5451,3.9460,6.2961,9.5523,0.5078,0.8978,1.5791,1.6868,1.3394,4.2210,0.5508,-0.4410,0.5204,2.9062,3.8932
1550.7812,2.3967,4.7374,11.2220,7.2789,7.8730,6.2203,8.5050,9.0982,3.0285,1.7719,2.7235,3.5147,2.0545,4.4409,1.4087,-0.6775,1.5988,3.6739,3.9098
1554.6875,3.8787,7.2670,11.5520,6.2340,7.3510,7.7844,9.7332,8.5711,5.6208,2.2971,3.4874,5.7556,3.4770,5.3625,2.2423,0.1377,3.3778,4.6445,4.6534
1558.5938,5.1329,8.8182,10.6237,5.9486,7.1885,8.5078,9.6466,8.2940,7.5975,2.0715,3.7845,8.0243,5.4066,6.8154,2.6426,1.4954,5.5951,5.7103,5.9152
1562.5000,5.9511,9.1268,8.7902,6.5759,7.4277,8.4541,8.5003,8.4867,8.4992,1.2341,3.7736,9.8765,7.3449,8.3617,2.5140,2.9824,7.7083,6.6829,7.2428
1566.4062,6.1024,8.2597,6.6135,7.8197,7.9223,7.7019,6.9015,9.1421,8.1779,0.3841,3.6461,10.8585,8.6602,9.4430,2.1031,4.4067,9.0339,7.2687,8.1088
1570.3125,5.4615,6.5320,4.6571,9.0918,8.4122,6.3019,5.4554,9.9880,6.8211,0.2419,3.4880,10.6683,8.8802,9.6317,1.8409,5.6817,9.0484,7.1756,8.1496
1574.2188,4.1996,4.4490,3.3662,9.8377,8.6829,4.3834,4.5098,10.6040,4.9173,1.2452,3.3119,9.3551,7.9651,8.8816,2.0928,6.6542,7.7061,6.3022,7.3645
1578.1250,2.8438,2.6312,3.0099,9.8336,8.7184,2.2694,4.0989,10.6541,3.1276,3.2868,3.1780,7.4042,6.3948,7.6304,2.9548,7.0815,5.5696,4.8588,6.1575
1582.0312,2.0620,1.6407,3.6070,9.2643,8.7229,0.4375,4.0378,10.0842,2.0439,5.7143,3.2413,5.5866,4.9799,6.6431,4.1928,6.7979,3.6193,3.2899,5.1615
1585.9375,2.2328,1.7164,4.8282,8.5324,8.9581,-0.7046,4.0504,9.1367,1.8985,7.5745,3.6316,4.6008,4.4598,6.6223,5.3351,5.9140,2.7890,2.0054,4.9035
1589.8438,3.0775,2.5624,5.9771,7.9378,9.4836,-1.0770,3.8580,8.1613,2.3880,7.9931,4.2518,4.6982,5.0944,7.7761,5.8629,4.8409,3.4600,1.1025,5.4859
1593.7500,3.6773,3.3913,6.1787,7.4634,9.9972,-1.0032,3.2340,7.3583,2.7761,6.5424,4.6994,5.5364,6.4942,9.6090,5.4213,4.0752,5.2198,0.3043,6.4896
1597.6562,2.9827,3.3021,4.7903,6.8265,9.9358,-1.0009,2.0744,6.6558,2.3022,3.4678,4.4510,6.3866,7.8182,11.1123,3.9920,3.8915,7.0602,-0.7928,7.1950
1601.5625,0.5627,1.8260,1.8423,5.7525,8.8278,-1.4116,0.4815,5.8170,0.6978,-0.3167,3.2463,6.5939,8.2557,11.2957,1.9771,4.1910,7.9371,-2.3112,7.0204
1605.4688,-2.9079,-0.7024,-1.7951,4.2559,6.6793,-2.1410,-1.2071,4.6923,-1.5234,-3.4962,1.4023,6.0043,7.5118,9.7695,0.1449,4.6372,7.3715,-3.8341,5.9132
1609.3750,-5.8336,-3.2443,-4.7252,2.6965,4.1047,-2.7280,-2.5258,3.4006,-3.2539,-4.8337,-0.2204,5.0689,5.9902,7.0178,-0.6024,4.9764,5.7227,-4.5449,4.4233
1613.2812,-6.5551,-4.6365,-5.7333,1.5490,2.0537,-2.7204,-3.1193,2.2756,-3.4236,-3.7011,-0.6622,4.5378,4.5353,4.1640,0.3899,5.2716,3.9520,-3.7440,3.3718
1617.1875,-4.3940,-4.3188,-4.5048,1.0496,1.2578,-2.0915,-2.9850,1.6021,-1.7153,-0.4291,0.5220,4.9302,3.8765,2.3453,3.1422,5.8367,3.0160,-1.4235,3.3020
1621.0938,-0.2063,-2.7336,-1.8935,0.9942,1.7461,-1.3685,-2.5385,1.3511,1.1099,3.7358,2.8873,6.1277,4.1269,2.0642,6.8714,6.8984,3.2692,1.5132,4.0670
1625.0000,3.9779,-1.1035,0.4888,0.8630,2.7694,-1.3353,-2.4060,1.1469,3.5490,7.1236,5.2555,7.3739,4.6743,2.9157,10.2194,8.2593,4.2596,3.6085,4.8553
1628.9062,6.0667,-0.6909,1.1734,0.2048,3.2244,-2.4824,-3.0318,0.5283,4.2053,8.3958,6.3612,7.7015,4.5616,3.8556,11.8587,9.2692,5.0418,3.6249,4.6755
1632.8125,5.1045,-1.9972,-0.2942,-0.9919,2.3281,-4.5791,-4.3409,-0.6710,2.6444,7.1987,5.6079,6.5274,3.1316,3.8349,11.1978,9.1942,4.7985,1.2841,3.0152
1636.7188,1.8073,-4.4133,-3.0465,-2.2249,0.1118,-6.6895,-5.6975,-2.1130,-0.2904,4.3500,3.4555,4.0466,0.5227,2.4034,8.7754,7.7571,3.3579,-2.4962,0.2438
1640.6250,-1.8922,-6.5483,-5.3583,-2.7818,-2.5959,-7.6612,-6.2314,-3.1093,-2.9251,1.4272,1.1841,1.1816,-2.3182,-0.0796,6.0487,5.4550,1.2798,-6.0315,-2.5222
1644.5312,-3.9816,-7.0289,-5.6296,-2.2345,-4.6904,-6.7950,-5.3593,-3.0658,-3.7062,-0.0389,0.1687,-0.8778,-4.1364,-2.7188,4.6288,3.3843,-0.5244,-7.7257,-4.0336
1648.4375,-3.4600,-5.2782,-3.3193,-0.7872,-5.4757,-4.2775,-3.1895,-1.9263,-2.0742,0.6773,1.1083,-1.2677,-4.0859,-4.6289,5.3763,2.6422,-1.3610,-6.8549,-3.6357
1652.3438,-0.7332,-1.8170,0.7018,0.7666,-5.0633,-1.1051,-0.5471,-0.2987,1.2650,3.2101,3.6707,0.1543,-2.2246,-5.3948,7.9067,3.6780,-1.1357,-3.8548,-1.6571
1656.2500,2.8349,2.0470,4.5692,1.4678,-4.2331,1.4435,1.4137,0.8446,4.8005,6.4235,6.7361,2.7937,0.5056,-5.1859,10.8296,6.0177,-0.3212,-0.0017,0.7703
1660.1562,5.8156,4.9078,6.3686,0.7342,-3.8689,2.4621,1.7976,0.7174,7.0831,9.1130,9.0498,5.6345,2.7865,-4.5195,12.5922,8.5333,0.4139,3.2664,2.3417
1664.0625,7.4301,5.9073,5.0895,-1.3097,-4.3580,1.8204,0.4222,-0.8228,7.4483,10.6353,9.8615,7.6718,3.6000,-3.8869,12.4029,10.0648,0.6278,4.9792,2.2691
1667.9688,7.6898,5.0122,1.1067,-3.9004,-5.3564,0.1234,-2.1066,-3.1878,6.1953,11.0982,9.1859,8.2467,2.6859,-3.4991,10.6540,9.9932,0.2965,4.9080,0.6353
1671.8750,7.0312,2.8609,-4.0175,-6.0327,-6.0581,-1.6888,-4.7184,-5.3794,4.2052,11.0532,7.6006,7.1837,0.5583,-3.2792,8.5865,8.4374,-0.3054,3.4390,-1.7522
1675.7812,5.8526,0.3613,-8.2625,-6.9373,-5.7662,-2.8286,-6.4009,-6.5057,2.3346,10.9647,5.7950,4.7632,-1.8526,-3.0346,7.4423,6.0384,-0.8788,1.2320,-3.8602
1679.6875,4.3341,-1.6985,-10.0340,-6.3797,-4.3762,-2.9722,-6.6330,-6.1904,1.0023,10.8569,4.2042,1.6125,-3.6731,-2.6396,7.6736,3.5613,-1.2899,-1.0897,-4.9556
1683.5938,2.6035,-2.8593,-8.7979,-4.6690,-2.4603,-2.2822,-5.5275,-4.6738,0.1826,10.3748,2.9424,-1.4355,-4.4063,-2.1013,8.7233,1.5993,-1.5506,-3.0775,-4.8708
1687.5000,0.9864,-3.0104,-5.2210,-2.4468,-0.9235,-1.2111,-3.6654,-2.6113,-0.3026,9.1756,1.9961,-3.5289,-3.9957,-1.5074,9.4792,0.5004,-1.6636,-4.4452,-3.9331
1691.4062,0.0145,-2.3068,-0.8103,-0.4162,-0.4818,-0.2495,-1.7677,-0.7388,-0.4900,7.3243,1.4452,-4.0415,-2.7117,-0.9533,9.0539,0.4146,-1.5275,-5.0192,-2.6872
1695.3125,0.1089,-1.0768,2.7466,0.8583,-1.3021,0.2501,-0.4015,0.4044,-0.2278,5.3678,1.4892,-2.8281,-1.0116,-0.5363,7.3438,1.2918,-1.0288,-4.7433,-1.6227
1699.2188,1.1803,0.2567,4.2421,1.0493,-3.0049,0.1337,0.1523,0.5900,0.6119,4.0149,2.2389,-0.3688,0.5410,-0.4102,5.0133,2.7779,-0.2634,-3.7381,-1.0447
1703.1250,2.5119,1.2597,3.3461,0.1032,-4.9725,-0.5736,-0.1349,-0.1260,1.8707,3.6463,3.4569,2.3228,1.3325,-0.8120,2.9722,4.1518,0.3227,-2.3406,-1.0849
1707.0312,3.1045,1.5964,0.6114,-1.7461,-6.7195,-1.7059,-1.1461,-1.4936,3.0413,4.0201,4.5046,4.0541,0.8239,-1.9752,1.7562,4.4976,0.0595,-1.0507,-1.7568
1710.9375,2.3025,1.1410,-2.8612,-4.0019,-8.0794,-2.9911,-2.6976,-3.1591,3.5007,4.4083,4.6231,3.9456,-1.2281,-3.9457,1.2555,3.1476,-1.5595,-0.3737,-2.9744
1714.8438,0.2730,0.0395,-5.9144,-6.0165,-9.1271,-4.0889,-4.5524,-4.7455,2.9000,4.0924,3.4186,1.8333,-4.5505,-6.4209,0.9457,0.1663,-4.4602,-0.6204,-4.5311
1718.7500,-2.0205,-1.3238,-7.7561,-7.2055,-9.9590,-4.6592,-6.4038,-5.9433,1.4413,2.8897,1.2320,-1.6272,-8.3059,-8.7580,0.4081,-3.4853,-7.8415,-1.7642,-6.1042
1722.6562,-3.3640,-2.4573,-8.1595,-7.3002,-10.5308,-4.4623,-7.9037,-6.6063,-0.1666,1.3405,-0.9043,-5.2200,-11.3271,-10.2026,-0.2748,-6.3191,-10.4556,-3.4279,-7.3369
1726.5625,-3.0129,-2.9452,-7.4131,-6.5048,-10.6817,-3.4660,-8.7635,-6.8121,-1.0725,0.4091,-1.7708,-7.6673,-12.5731,-10.2367,-0.5450,-7.0766,-11.1972,-5.0144,-7.9780
1730.4688,-1.1221,-2.6115,-6.1059,-5.4381,-10.2999,-1.9064,-8.8858,-6.8264,-0.7557,0.8693,-0.6644,-8.1277,-11.5829,-8.8448,0.2031,-5.4250,-9.6696,-5.9288,-7.9854
1734.3750,1.3743,-1.5937,-4.8658,-4.8399,-9.4634,-0.2522,-8.4267,-6.9548,0.6784,2.7603,2.1288,-6.4664,-8.6692,-6.5295,2.1000,-2.1364,-6.3954,-5.7979,-7.5021
1738.2812,3.3260,-0.2867,-4.1407,-5.1621,-8.4112,0.9473,-7.7133,-7.3312,2.5554,5.2574,5.4071,-3.2034,-4.7356,-4.0517,4.5498,1.3719,-2.5548,-4.5907,-6.6992
1742.1875,3.9940,0.8345,-4.0547,-6.2537,-7.3449,1.2973,-7.0318,-7.7583,4.0031,7.0514,7.6627,0.7839,-0.8212,-2.0454,6.4276,3.8235,0.5846,-2.5886,-5.5837
1746.0938,3.3703,1.4476,-4.3530,-7.3323,-6.2175,0.7774,-6.4094,-7.7104,4.4197,7.0230,7.8768,4.6204,2.3558,-0.7322,6.6154,4.6672,2.2169,-0.2253,-3.9228
1750.0000,2.0539,1.5601,-4.4620,-7.3036,-4.7092,-0.1784,-5.5489,-6.5428,3.7729,4.8339,6.0355,7.6747,4.5997,0.0985,4.5673,4.1022,2.2423,2.1117,-1.3785
1753.9062,0.8342,1.5235,-3.6941,-5.3102,-2.4659,-0.8318,-4.0017,-3.8432,2.5785,1.1180,3.0749,9.6070,6.0968,0.8482,0.6056,2.6254,1.1384,4.2022,2.1902
1757.8125,0.2694,1.8456,-1.5731,-1.2531,0.5259,-0.4966,-1.5127,0.2368,1.5895,-2.8104,0.3249,10.2742,7.0761,1.7726,-4.1778,0.5365,-0.3935,5.9690,6.4316
1761.7188,0.4794,2.8795,1.8397,3.9892,3.6933,1.0537,1.6690,4.8550,1.3820,-5.5560,-1.1864,9.6223,7.5291,2.7691,-8.3387,-2.1649,-1.7672,7.3382,10.4239
1765.6250,1.1932,4.5579,5.8060,8.7950,5.9821,3.3603,4.7341,8.6719,2.0628,-6.2391,-1.1583,7.6778,7.1893,3.4264,-10.6092,-5.4140,-2.6683,8.1068,12.9291
1769.5312,1.9459,6.3467,9.0998,11.4228,6.3220,5.4063,6.6002,10.3288,3.2380,-4.8171,0.0153,4.6527,5.7785,3.2993,-10.3338,-8.6116,-3.0199,7.9480,12.9052
1773.4375,2.2935,7.4725,10.4983,10.7514,4.2064,6.0848,6.4183,9.0157,4.2369,-2.0222,1.6191,1.0724,3.3321,2.2263,-7.6720,-10.5511,-2.8670,6.5916,10.0354
1777.3438,1.9708,7.3139,9.3459,6.7840,0.0334,4.7788,4.0177,4.8569,4.4555,1.0060,3.0272,-2.2123,0.3593,0.4792,-3.5229,-9.9611,-2.2954,4.0819,4.9854
1781.2500,0.9801,5.7323,5.8798,0.6576,-5.0297,1.7291,0.0266,-1.1021,3.6436,3.2000,3.9071,-4.2139,-2.2975,-1.3645,0.8001,-6.3695,-1.4264,0.9245,-0.7813
1785.1562,-0.3938,3.1437,1.1179,-5.8536,-9.6068,-2.0416,-4.4133,-7.3233,2.0032,3.9528,4.1809,-4.1597,-3.8381,-2.7528,4.0423,-0.6589,-0.4396,-2.0175,-5.5745
1789.0625,-1.6623,0.2967,-3.6349,-11.0931,-12.7754,-5.2257,-8.1710,-12.4172,0.0762,3.2796,3.8997,-1.8463,-3.8902,-3.4863,5.4651,5.1805,0.4422,-3.8671,-8.1666
1792.9688,-2.3163,-2.0962,-7.3653,-14.1478,-14.4362,-6.8724,-10.5844,-15.6591,-1.5064,1.7283,3.1938,2.1975,-2.6755,-3.8257,5.1016,9.0552,1.0263,-4.1348,-8.2581
1796.8750,-2.0631,-3.6429,-9.6778,-15.0410,-15.1746,-6.8098,-11.6021,-17.1136,-2.2854,0.0994,2.3208,6.8535,-0.8652,-4.2971,3.6799,9.9249,1.2317,-2.9429,-6.4954
1800.7812,-0.9971,-4.3177,-10.7132,-14.4377,-15.7262,-5.6188,-11.5763,-17.3286,-2.1348,-0.8984,1.6814,10.8169,0.7769,-5.3089,2.2277,8.3424,1.1145,-0.9374,-4.0564
1804.6875,0.4153,-4.2944,-10.7868,-13.0947,-16.4076,-4.2086,-10.8989,-16.8270,-1.2702,-0.9260,1.6688,13.0754,1.7466,-6.8203,1.5388,5.9998,0.8099,1.0519,-2.0475
1808.5938,1.5565,-3.7340,-10.0533,-11.4145,-16.8860,-3.2780,-9.7497,-15.7425,-0.1210,-0.1212,2.3805,13.2375,1.9597,-8.2873,1.7771,4.5753,0.4362,2.3931,-1.0395
1812.5000,1.9694,-2.7013,-8.4526,-9.3722,-16.4311,-2.9867,-8.1136,-13.8417,0.8616,0.9959,3.4040,11.5755,1.6675,-8.9411,2.4324,4.6572,0.0326,2.8586,-0.9588
1816.4062,1.5721,-1.2582,-5.9492,-6.8137,-14.4693,-2.9981,-6.0040,-10.8981,1.3789,1.7733,3.9140,8.8038,1.2271,-8.2471,2.6545,5.4621,-0.4223,2.5762,-1.3272
1820.3125,0.6464,0.3766,-2.8401,-3.8727,-11.0693,-2.8076,-3.6719,-7.1318,1.3691,1.7215,3.1204,5.7453,0.8881,-6.2688,1.7737,5.5100,-0.9375,1.8182,-1.6497
1824.2188,-0.3740,1.7713,0.1552,-1.1730,-7.0399,-2.1097,-1.6021,-3.3677,0.9805,0.7246,0.8244,3.0619,0.7132,-3.7084,-0.2883,3.7590,-1.4519,0.8066,-1.6969
1828.1250,-1.1550,2.4183,2.1405,0.3651,-3.5806,-0.9754,-0.2710,-0.7506,0.4549,-0.9191,-2.3090,1.1474,0.6372,-1.5858,-2.9440,0.4090,-1.8503,-0.3422,-1.5430
1832.0312,-1.5814,1.9957,2.4826,0.0200,-1.7017,0.2272,0.1606,-0.1615,-0.0126,-2.6363,-5.0105,0.1614,0.5822,-0.7333,-5.2304,-3.1568,-2.0446,-1.5431,-1.3988
1835.9375,-1.6923,0.5784,1.1529,-2.2450,-1.7571,1.0662,-0.0206,-1.6960,-0.3635,-3.8296,-6.0929,0.1096,0.5348,-1.3853,-6.2843,-5.2192,-2.0493,-2.6502,-1.4057
1839.8438,-1.5320,-1.3571,-1.2595,-5.6250,-3.3303,1.2611,-0.2481,-4.5431,-0.6715,-4.1269,-5.1429,0.8861,0.5449,-3.0827,-5.7392,-4.7643,-1.9734,-3.4523,-1.5403
1843.7500,-1.0793,-3.1533,-3.8596,-8.7686,-5.4908,0.7679,-0.0497,-7.3569,-1.0515,-3.5277,-2.7587,2.2676,0.6770,-4.9205,-3.8518,-2.0435,-1.9152,-3.7685,-1.6707
1847.6562,-0.3313,-4.2869,-5.8667,-10.3731,-7.2329,-0.2647,0.6193,-8.9054,-1.5461,-2.3923,-0.1694,3.9077,0.9665,-5.9837,-1.3273,1.6479,-1.8340,-3.5565,-1.6775
1851.5625,0.5336,-4.5936,-6.8776,-9.7544,-7.8590,-1.5882,1.3199,-8.6244,-2.0660,-1.2869,1.5136,5.3904,1.4102,-5.7378,1.0247,4.7505,-1.5078,-2.9385,-1.5249
1855.4688,1.0923,-4.2807,-6.8557,-7.0964,-7.1569,-2.9264,1.4010,-6.7775,-2.4256,-0.7467,1.9127,6.3463,1.9761,-4.1984,2.6206,6.2377,-0.6444,-2.1172,-1.2315
1859.3750,0.8334,-3.7449,-5.9374,-3.2838,-5.3678,-4.0119,0.4353,-4.1832,-2.4531,-1.0494,1.4790,6.5766,2.6025,-1.8472,3.2738,5.9715,0.8989,-1.2535,-0.7923
1863.2812,-0.5152,-3.3202,-4.2629,0.5472,-3.0305,-4.6186,-1.4560,-1.7171,-2.0967,-2.0855,1.0481,6.1119,3.1800,0.6171,3.1690,4.5184,2.9245,-0.4059,-0.1474
1867.1875,-2.7015,-3.1068,-1.9739,3.4749,-0.7873,-4.6103,-3.5944,0.1026,-1.4587,-3.3848,1.2065,5.1672,3.5456,2.5553,2.6893,2.6719,4.8784,0.4231,0.7510
1871.0938,-4.9402,-2.9675,0.6475,5.0532,0.8024,-3.9908,-5.0628,1.2388,-0.7405,-4.3019,1.9141,4.0201,3.5223,3.5869,2.1988,1.0369,6.0582,1.1782,1.8196
1875.0000,-6.2529,-2.6768,3.0617,5.2931,1.4235,-2.9142,-5.1671,1.9621,-0.1490,-4.3019,2.6035,2.8806,3.0046,3.6651,1.8740,-0.1198,5.9510,1.6799,2.7779
1878.9062,-5.9965,-2.1318,4.5339,4.4567,1.1038,-1.6366,-3.7850,2.5454,0.1596,-3.2297,2.6252,1.8187,2.0357,3.0348,1.6499,-0.7851,4.5125,1.6584,3.2129
1882.8125,-4.2703,-1.5048,4.3996,2.8337,0.1963,-0.4360,-1.4216,3.0343,0.0670,-1.4339,1.6822,0.7790,0.8157,2.0978,1.2932,-1.0490,2.2192,0.8814,2.7600
1886.7188,-1.9398,-1.2406,2.3983,0.6348,-0.7843,0.4544,1.0429,3.2219,-0.5482,0.3350,-0.0314,-0.3349,-0.3863,1.2348,0.5632,-1.0201,-0.1443,-0.7062,1.2959
1890.6250,-0.2296,-1.8719,-1.1190,-1.9619,-1.4117,0.8723,2.7720,2.8181,-1.8011,1.2334,-2.0222,-1.5509,-1.3636,0.6489,-0.6248,-0.8156,-1.8475,-2.9122,-0.9685
1894.5312,-0.1000,-3.7160,-5.2401,-4.6828,-1.5545,0.7337,3.3469,1.7000,-3.6993,0.7092,-3.8106,-2.7502,-2.0611,0.3041,-2.1272,-0.5629,-2.5242,-5.3339,-3.5481
1898.4375,-1.7480,-6.5980,-8.7850,-7.0725,-1.4056,0.0571,2.9259,0.0925,-6.0050,-1.2260,-5.1246,-3.6674,-2.5587,-0.0025,-3.6390,-0.3680,-2.2745,-7.4758,-5.8533
1902.3438,-4.5053,-9.7725,-10.7120,-8.5455,-1.3079,-0.9880,2.1272,-1.4338,-8.1895,-3.9841,-5.8892,-3.9962,-2.9706,-0.4694,-4.8684,-0.2828,-1.5323,-8.9015,-7.3865
1906.2500,-7.1808,-12.1434,-10.4727,-8.5901,-1.4907,-2.0589,1.7038,-2.1704,-9.5813,-6.6671,-6.1195,-3.5770,-3.3482,-1.1300,-5.7088,-0.3217,-0.8108,-9.3774,-7.8880
1910.1562,-8.6521,-12.7268,-8.1890,-7.0364,-1.9029,-2.7085,2.1678,-1.6050,-9.6837,-8.4797,-5.8769,-2.5809,-3.6744,-1.8187,-6.2876,-0.5262,-0.4847,-8.9736,-7.4054
1914.0625,-8.3881,-11.1388,-4.6042,-4.2360,-2.2617,-2.5564,3.5462,0.2809,-8.4878,-9.0687,-5.3340,-1.5641,-3.9523,-2.3020,-6.8429,-1.0020,-0.7130,-8.0807,-6.2833
1917.9688,-6.6405,-7.8286,-0.8257,-1.0148,-2.2767,-1.4851,5.3850,2.9251,-6.5593,-8.6071,-4.8372,-1.2931,-4.3006,-2.4852,-7.5013,-1.8522,-1.4902,-7.2972,-5.0668
1921.8750,-4.2335,-3.8936,2.0625,1.6340,-1.8706,0.2680,6.9971,5.3989,-4.7893,-7.5881,-4.8154,-2.3577,-4.9373,-2.5287,-8.1108,-3.0252,-2.7324,-7.1770,-4.3104
1925.7812,-2.0945,-0.5519,3.3897,3.0010,-1.2139,2.2034,7.8186,6.8548,-3.9123,-6.4689,-5.5147,-4.7448,-6.0124,-2.7515,-8.2628,-4.1989,-4.3039,-7.9171,-4.3223
1929.6875,-0.7916,1.4310,3.1340,3.0244,-0.5372,3.7934,7.6714,6.9771,-4.0754,-5.3926,-6.7250,-7.6347,-7.3793,-3.3553,-7.5176,-4.8402,-5.9679,-9.1491,-4.9413
1933.5938,-0.3215,2.0194,1.8826,2.3420,0.1311,4.7064,6.7805,6.1653,-4.7382,-4.1679,-7.7374,-9.6158,-8.4795,-4.1540,-5.7005,-4.4535,-7.3289,-10.0033,-5.4986
1937.5000,-0.2385,1.7319,0.5068,1.9562,1.0718,4.8726,5.5444,5.3026,-4.9935,-2.5148,-7.6432,-9.2958,-8.4809,-4.5334,-3.0747,-2.8764,-7.8596,-9.4898,-5.0610
1941.4062,-0.0250,1.1536,-0.3021,2.6574,2.6958,4.3640,4.2181,5.2095,-4.1269,-0.4033,-5.8398,-6.0292,-6.6554,-3.7324,-0.2634,-0.4057,-7.0557,-7.0466,-2.9106
1945.3125,0.5267,0.4918,-0.3914,4.5165,5.1634,3.2154,2.7377,6.0982,-2.0753,1.7585,-2.4379,-0.3635,-2.8189,-1.3191,2.0430,2.3486,-4.6705,-2.9586,0.9637
1949.2188,1.1543,-0.5091,-0.1897,6.7514,8.0612,1.3669,0.8241,7.3787,0.5008,3.2485,1.6997,6.0792,2.4140,2.4260,3.4177,4.7868,-0.9138,1.6205,5.6519
1953.1250,1.2874,-2.2381,-0.4008,8.0765,10.4004,-1.1905,-1.6940,7.9664,2.5708,3.4198,5.3229,11.2578,7.7283,6.4811,3.8627,6.5806,3.4969,5.1075,9.5693
1957.0312,0.4405,-4.7298,-1.5315,7.3688,11.0119,-4.1726,-4.5714,6.9281,3.2885,2.1272,7.3490,13.5711,11.5415,9.4696,3.7172,7.6885,7.4854,6.1851,11.0962
1960.9375,-1.3975,-7.4042,-3.5477,4.2916,9.1530,-6.8934,-7.1028,4.0763,2.4146,-0.0916,7.2950,12.4714,12.5834,10.2704,3.3879,8.1492,9.9293,4.3911,9.3114
1964.8438,-3.6286,-9.2657,-5.8738,-0.4662,4.9877,-8.4629,-8.4296,0.1431,0.3758,-2.2268,5.3843,8.5463,10.3702,8.5281,3.0874,7.8727,10.0361,0.2992,4.4457
1968.7500,-5.2764,-9.4679,-7.7301,-5.4649,-0.3509,-8.2498,-8.0311,-3.5718,-2.0250,-3.3097,2.3434,3.1076,5.3886,4.8010,2.7462,6.6585,7.6504,-4.7748,-2.1738
1972.6562,-5.4855,-7.8756,-8.5817,-9.1464,-5.1774,-6.3350,-6.0871,-5.8570,-4.0362,-2.9380,-0.9366,-2.4069,-1.0555,0.2959,2.1314,4.4655,3.3784,-9.3490,-8.6450
1976.5625,-4.0220,-5.2390,-8.4137,-10.4918,-7.9538,-3.6300,-3.4538,-6.1524,-5.2634,-1.5010,-3.6917,-6.8715,-7.2417,-3.6418,1.0677,1.7091,-1.5435,-12.3199,-13.2050
1980.4688,-1.4871,-2.8392,-7.6743,-9.3879,-7.9264,-1.5096,-1.2419,-4.7153,-5.7214,0.0420,-5.4430,-9.5937,-11.5485,-6.0242,-0.3993,-0.7202,-5.6282,-13.2410,-14.8071
1984.3750,0.9062,-1.8110,-6.9556,-6.5751,-5.4035,-1.1205,-0.2511,-2.3604,-5.6739,0.7090,-6.0403,-10.2193,-12.9262,-6.4993,-1.9915,-1.8413,-7.6594,-12.2898,-13.3547
1988.2812,1.9026,-2.5475,-6.6454,-3.2699,-1.5668,-2.7570,-0.6078,-0.0031,-5.4146,0.0520,-5.6331,-8.6517,-11.2048,-5.3579,-3.3218,-1.1742,-7.1600,-10.0476,-9.5875
1992.1875,0.8403,-4.5294,-6.7713,-0.6861,2.0627,-5.6803,-1.8191,1.6935,-5.1253,-1.6014,-4.5778,-5.1264,-7.1469,-3.3314,-4.0514,0.8688,-4.5945,-7.2556,-4.7586
1996.0938,-1.9813,-6.6488,-7.1033,0.3380,4.2440,-8.4970,-3.1739,2.4111,-4.8515,-3.3548,-3.2809,-0.3686,-2.2090,-1.2975,-3.9890,3.1078,-1.1776,-4.6392,-0.2621
2000.0000,-5.4024,-7.8085,-7.3968,-0.4908,4.4479,-9.8789,-4.2017,2.0710,-4.5510,-4.2618,-2.0187,4.3869,1.9403,0.0119,-3.1112,4.2119,1.6558,-2.7975,2.6941
2003.9062,-7.9357,-7.4503,-7.5794,-2.9353,2.9454,-9.2101,-4.8831,0.7141,-4.1544,-3.8445,-0.8415,7.6879,3.9925,0.2306,-1.5474,3.4348,2.8810,-2.1105,3.3481
2007.8125,-8.4692,-5.7536,-7.7566,-6.3560,0.5612,-6.8165,-5.5061,-1.5007,-3.6087,-2.3123,0.3495,8.4171,3.4454,-0.5424,0.4268,1.0021,2.3048,-2.6538,1.5656
2011.7188,-6.7867,-3.4600,-8.0556,-9.8896,-1.7502,-3.6971,-6.3109,-4.2054,-2.9123,-0.3811,1.5768,6.3282,0.7402,-1.8044,2.3930,-2.0771,0.5644,-4.1604,-2.0970
2015.6250,-3.6422,-1.4686,-8.4431,-12.6460,-3.2875,-0.9645,-7.2060,-6.7821,-2.1431,1.1652,2.5861,2.2346,-2.9654,-2.8598,3.8471,-4.6091,-1.2733,-6.0799,-6.5057
2019.5312,-0.3560,-0.4268,-8.6572,-13.9010,-3.7731,0.6721,-7.7575,-8.4855,-1.4556,1.8894,2.8741,-2.3046,-6.2756,-3.1064,4.3455,-5.8078,-2.2726,-7.7378,-10.2554
2023.4375,1.8555,-0.4885,-8.3069,-13.2537,-3.2732,1.1267,-7.4491,-8.7084,-1.0172,1.8535,2.0046,-5.6635,-8.0668,-2.2669,3.7040,-5.5257,-2.0335,-8.5416,-12.0990
2027.3438,2.4632,-1.3132,-7.0837,-10.7150,-1.9783,0.8111,-6.0174,-7.2400,-0.8982,1.4596,0.0242,-6.8427,-7.8263,-0.4596,2.1330,-4.0742,-0.7519,-8.1544,-11.3561
2031.2500,1.8155,-2.2730,-4.9674,-6.7072,-0.0330,0.3062,-3.6411,-4.3601,-0.9865,1.1275,-2.3492,-5.8259,-5.7286,1.9060,0.1969,-1.8866,1.0274,-6.5867,-8.1505
2035.1562,0.8452,-2.7689,-2.3196,-1.9840,2.4500,0.0370,-0.8787,-0.7266,-1.0115,1.0387,-3.9915,-3.4530,-2.4903,4.3146,-1.4194,0.6711,2.7474,-4.1967,-3.3877
2039.0625,0.4731,-2.5184,0.1878,2.5066,5.2106,0.1035,1.5741,2.8545,-0.6973,1.0998,-4.0007,-0.9279,0.8898,6.2854,-2.2198,3.2366,4.0433,-1.6077,1.5198
2042.9688,1.0559,-1.6788,1.7954,5.8015,7.6708,0.3067,3.1465,5.6363,0.0397,1.1125,-2.2948,0.7549,3.4147,7.4064,-2.1016,5.3053,4.7403,0.4544,5.0907
2046.8750,2.2058,-0.7341,1.9582,7.1391,8.9815,0.3185,3.5510,7.0476,0.9913,0.9934,0.2576,1.1888,4.3519,7.3137,-1.3301,6.2591,4.7461,1.3924,6.2453
2050.7812,3.0803,-0.1887,0.6108,6.1872,8.3601,-0.0986,2.8144,6.7538,1.7524,0.8706,2.3188,0.6047,3.4447,5.7288,-0.3117,5.6629,3.9961,0.9829,4.6666
2054.6875,2.9600,-0.2376,-1.7350,3.2100,5.5649,-0.9192,1.2382,4.7336,1.9689,0.9896,2.8957,-0.3658,1.0134,2.6063,0.6698,3.6354,2.5231,-0.4819,0.9227
2058.5938,1.7503,-0.6245,-4.1483,-0.9323,1.1943,-1.8083,-0.6661,1.3740,1.5761,1.5052,1.9425,-1.0646,-2.1348,-1.6828,1.5683,0.9643,0.5689,-2.2747,-3.7215
2062.5000,0.0872,-0.8054,-5.6698,-5.0217,-3.4474,-2.2413,-2.2766,-2.5118,0.8539,2.3215,0.3394,-1.1390,-5.0149,-6.3034,2.4758,-1.2206,-1.4141,-3.5608,-7.7733
2066.4062,-1.0222,-0.3367,-5.7729,-7.9128,-6.9225,-1.7625,-3.0286,-5.8621,0.2465,3.1039,-0.7384,-0.6989,-6.8940,-10.1667,3.4072,-2.0622,-2.9419,-3.8331,-10.0970
2070.3125,-0.8050,0.7618,-4.6459,-8.9766,-8.3704,-0.2727,-2.6376,-7.7437,0.0671,3.4646,-0.6152,-0.2423,-7.6279,-12.3513,4.1612,-1.4738,-3.7615,-3.2045,-10.3564
2074.2188,0.8021,1.9373,-3.1050,-8.3260,-7.9270,1.8143,-1.2760,-7.7621,0.2934,3.2020,0.4748,-0.3872,-7.6902,-12.5118,4.3914,-0.1543,-3.9980,-2.3487,-9.0902
2078.1250,3.0955,2.4111,-2.1430,-6.6879,-6.5747,3.6719,0.4293,-6.2568,0.6004,2.4359,1.6218,-1.5345,-7.8422,-11.0182,3.8545,0.9093,-4.0488,-2.0966,-7.3683
2082.0312,4.9912,1.6830,-2.3530,-4.9884,-5.5075,4.4120,1.6396,-4.1251,0.5985,1.5516,1.9090,-3.6334,-8.6239,-8.7233,2.6543,1.1039,-4.2801,-2.9299,-6.2127
2085.9375,5.6067,-0.1037,-3.5769,-3.8952,-5.4089,3.5297,1.6953,-2.3495,0.1022,0.9909,1.0119,-6.1862,-9.9901,-6.4979,1.2812,0.5452,-4.7511,-4.7074,-6.1118
2089.8438,4.6957,-2.2003,-5.0153,-3.5846,-6.1057,1.1977,0.4461,-1.5084,-0.7642,1.0191,-0.6797,-8.5025,-11.3398,-4.8261,0.3862,-0.1203,-5.1894,-6.8103,-6.8997
2093.7500,2.7068,-3.6862,-5.7507,-3.8437,-6.8018,-1.7678,-1.6740,-1.5680,-1.6822,1.6040,-2.4409,-10.0576,-11.9310,-3.7017,0.4167,-0.2937,-5.2467,-8.5936,-8.0320
2097.6562,0.4852,-4.0133,-5.3584,-4.3804,-6.7015,-4.2719,-3.8768,-2.0632,-2.3684,2.4644,-3.7425,-10.7311,-11.3961,-2.8445,1.3469,0.0735,-4.8339,-9.7992,-9.0239
2101.5625,-1.1662,-3.2973,-4.2022,-5.0791,-5.5790,-5.4413,-5.4145,-2.5068,-2.7326,3.2366,-4.5112,-10.7617,-9.9930,-2.0305,2.6824,0.4438,-4.2496,-10.6129,-9.7244
2105.4688,-1.8139,-2.1696,-3.2075,-5.9993,-3.9025,-4.9958,-5.9090,-2.7193,-2.8559,3.6518,-4.9607,-10.4518,-8.4052,-1.2745,3.7356,0.1524,-3.9666,-11.3225,-10.2403
2109.3750,-1.4780,-1.3160,-3.2469,-7.1368,-2.4565,-3.3059,-5.4425,-2.8518,-2.8328,3.6283,-5.2016,-9.8419,-7.2332,-0.7479,3.9993,-0.9978,-4.2182,-11.8609,-10.6162
2113.2812,-0.5059,-1.0409,-4.5326,-8.1748,-1.7594,-1.1454,-4.4048,-3.1221,-2.6343,3.2550,-5.0103,-8.6153,-6.5494,-0.5410,3.3968,-2.4710,-4.7127,-11.6390,-10.5743
2117.1875,0.6336,-1.1564,-6.4148,-8.4802,-1.7049,0.6907,-3.2351,-3.5031,-2.1193,2.7090,-3.9791,-6.3417,-5.8534,-0.5010,2.2816,-3.2853,-4.7373,-9.8738,-9.5834
2121.0938,1.5272,-1.2414,-7.7183,-7.4181,-1.6756,1.6897,-2.2298,-3.6329,-1.1884,2.1753,-1.9288,-2.9058,-4.4764,-0.3026,1.2299,-2.6580,-3.6259,-6.2298,-7.2572
2125.0000,1.9239,-1.0407,-7.4080,-4.8004,-1.0267,1.7250,-1.4979,-3.0342,0.0555,1.8033,0.7728,1.1948,-2.1463,0.2988,0.7711,-0.5533,-1.2737,-1.3135,-3.7925
2128.9062,1.7854,-0.6855,-5.1762,-1.1446,0.4238,0.9769,-1.0280,-1.4841,1.2871,1.6921,3.2840,4.9413,0.7034,1.2481,1.1982,2.2535,1.6822,3.3910,-0.0806
2132.8125,1.2862,-0.5753,-1.6134,2.4774,2.2492,-0.2211,-0.7710,0.7458,2.1149,1.8695,4.7386,7.2686,3.1254,2.2001,2.5058,4.6299,4.1774,6.1904,2.6721
2136.7188,0.7409,-1.0290,2.0997,4.9471,3.6996,-1.5112,-0.6757,2.9700,2.3031,2.2555,4.7554,7.6368,4.2390,2.7712,4.4180,5.7351,5.3334,6.0711,3.6168
2140.6250,0.4544,-1.9908,4.7658,5.6612,4.2012,-2.5830,-0.6854,4.4473,1.8927,2.6400,3.6349,6.3238,3.8060,2.8407,6.4540,5.4335,4.9543,3.2525,2.7943
2144.5312,0.5488,-3.0192,5.6806,4.8024,3.7152,-3.2150,-0.7395,4.7784,1.1365,2.7267,2.1128,4.2415,2.4058,2.6574,8.0274,4.2415,3.5747,-0.9433,1.1546
2148.4375,0.8757,-3.5659,4.8436,3.1699,2.7285,-3.3120,-0.7979,4.0904,0.3099,2.2629,0.8726,2.4038,1.0892,2.6554,8.6049,2.9160,2.0513,-4.8059,0.0252
2152.3438,1.0994,-3.3309,2.8426,1.7098,1.9168,-2.9329,-0.8579,2.9147,-0.4456,1.2090,0.1836,1.4059,0.7439,3.1103,7.9221,2.0123,1.0113,-7.0692,0.3563
2156.2500,0.9231,-2.4362,0.5439,1.0609,1.7364,-2.2698,-0.9228,1.8745,-1.1257,-0.1571,-0.0910,1.2506,1.5914,3.9031,6.1642,1.6978,0.5513,-7.3635,2.2151
2160.1562,0.3080,-1.3109,-1.2362,1.3762,2.2166,-1.5693,-0.9358,1.4014,-1.7328,-1.2975,-0.1820,1.5853,3.1262,4.5810,3.9753,1.8640,0.3670,-6.0904,4.8235
2164.0625,-0.4832,-0.3985,-1.9666,2.4565,3.0505,-1.0277,-0.7492,1.6345,-2.1459,-1.6467,-0.0939,2.1205,4.5036,4.6843,2.2144,2.3560,0.1612,-3.9248,7.0739
2167.9688,-1.0696,0.0915,-1.5104,4.0148,3.8713,-0.7276,-0.1999,2.4993,-2.1292,-0.9177,0.4421,2.8834,5.0925,4.1068,1.5393,3.0893,-0.0164,-1.3563,8.1677
2171.8750,-1.2338,0.2308,-0.1116,5.8415,4.4970,-0.6537,0.7253,3.8356,-1.4957,0.6911,1.7024,4.1201,4.8358,3.2273,2.0406,3.9796,0.2324,1.4264,7.9881
2175.7812,-1.0812,0.2313,1.7273,7.7697,4.9860,-0.7605,1.7532,5.4508,-0.3023,2.5277,3.6204,5.9502,4.2199,2.7143,3.1687,4.8072,1.3313,4.3186,7.0410
2179.6875,-0.9385,0.2653,3.4490,9.5302,5.5025,-1.0242,2.3615,7.0746,1.0891,3.7722,5.6492,8.0765,3.9214,3.1331,4.0274,5.2051,3.3421,7.0185,6.0790
2183.5938,-1.0630,0.3847,4.6550,10.6816,6.1162,-1.4277,2.0285,8.3061,2.1557,3.8342,6.9694,9.8076,4.3825,4.6080,3.8760,4.8452,5.8106,8.9652,5.6827
2187.5000,-1.4040,0.5643,5.2211,10.7256,6.6807,-1.8985,0.5687,8.6612,2.4784,2.6480,6.9153,10.4032,5.5644,6.7382,2.5297,3.7010,7.9506,9.5698,6.0250
2191.4062,-1.6303,0.7811,5.2429,9.3569,6.8621,-2.2730,-1.6748,7.7483,1.9509,0.6978,5.3315,9.4980,6.9816,8.7870,0.4121,2.1615,9.0177,8.5628,6.8733
2195.3125,-1.4255,1.0307,4.8491,6.6789,6.2931,-2.3468,-3.9413,5.4906,0.8026,-1.2351,2.6465,7.3040,7.9461,10.0044,-1.7501,0.8621,8.6131,6.1920,7.7438
2199.2188,-0.8101,1.2791,4.0325,3.2336,4.7694,-1.9919,-5.4239,2.2588,-0.5518,-2.4517,-0.3475,4.4590,7.8678,9.9017,-3.3572,0.3107,6.7533,3.1288,8.0944
2203.1250,-0.1947,1.4332,2.6600,-0.1743,2.4044,-1.2448,-5.6666,-1.1791,-1.7048,-2.6249,-2.8284,1.6523,6.4743,8.3769,-4.1895,0.5645,3.7450,0.1610,7.4991
2207.0312,-0.0670,1.4098,0.6930,-2.7501,-0.3230,-0.2777,-4.7264,-3.8821,-2.3574,-1.8570,-4.1981,-0.6981,3.8948,5.7011,-4.3414,1.1935,0.0332,-2.1159,5.7952
2210.9375,-0.5277,1.2718,-1.5430,-3.9404,-2.6608,0.7432,-3.0136,-5.0426,-2.3083,-0.5209,-4.1823,-2.5121,0.6084,2.4273,-3.9568,1.5734,-3.8483,-3.4406,3.1803
2214.8438,-1.0649,1.2958,-3.2978,-3.5488,-3.8186,1.7962,-0.9638,-4.2569,-1.4275,0.9673,-2.8423,-3.8787,-2.7094,-0.7377,-3.0413,1.3044,-7.2548,-3.8508,0.1925
2218.7500,-0.8225,1.8418,-3.6976,-1.7584,-3.2881,2.9982,1.1818,-1.6728,0.2769,2.2838,-0.5878,-4.8465,-5.4006,-3.0996,-1.5516,0.4590,-9.4757,-3.5838,-2.4771
2222.6562,0.7550,3.0511,-2.2933,0.8971,-1.1229,4.4197,3.3211,2.0227,2.5075,3.1852,1.8174,-5.3699,-7.0346,-4.1759,0.3013,-0.5150,-9.9421,-3.0165,-4.2974
2226.5625,3.3501,4.5751,0.4987,3.6116,1.9749,5.8503,5.2420,5.7764,4.5871,3.4312,3.3654,-5.4327,-7.5285,-3.8735,1.8266,-1.1562,-8.5242,-2.6370,-5.1643
2230.4688,5.7378,5.5901,3.4258,5.4848,4.8588,6.7308,6.4548,8.4720,5.6026,2.7855,3.1259,-5.1891,-7.1111,-2.5430,2.0041,-1.3353,-5.7063,-2.9494,-5.4319
2234.3750,6.4141,5.1940,4.9911,5.8206,6.3873,6.3884,6.3395,9.2943,4.8186,1.1636,0.7138,-4.9296,-6.1390,-0.8441,0.0451,-1.3150,-2.4555,-4.2499,-5.6389
2238.2812,4.5346,3.0030,4.3085,4.4544,5.9191,4.4872,4.5792,8.0338,2.1686,-1.1541,-3.3377,-4.8367,-4.8669,0.5407,-3.9431,-1.4683,0.1997,-6.3547,-6.0814
2242.1875,0.5524,-0.4328,1.6902,1.9229,3.5999,1.4073,1.5770,5.1966,-1.4993,-3.4335,-7.5846,-4.7060,-3.3212,1.1953,-8.6677,-1.8665,1.6469,-8.4799,-6.5241
2246.0938,-3.8908,-3.7243,-1.4429,-0.6875,0.2822,-1.7504,-1.5113,1.8325,-4.6587,-4.6762,-10.1714,-3.8999,-1.3719,1.0988,-12.0435,-2.0674,1.9215,-9.4441,-6.2799
2250.0000,-6.7860,-5.2798,-3.3238,-2.2104,-2.8766,-3.6246,-3.2625,-0.8764,-5.7789,-4.0650,-9.6415,-1.6636,1.0417,0.5266,-12.1614,-1.3130,1.5498,-8.1758,-4.6454
2253.9062,-6.7910,-4.1536,-2.8251,-1.9634,-4.9137,-3.2949,-2.7465,-2.0929,-4.0973,-1.4412,-5.6554,2.3341,3.6927,-0.1898,-8.3225,0.9428,1.1229,-4.2851,-1.4200
2257.8125,-3.8616,-0.6074,-0.0613,-0.0868,-5.3938,-0.8077,-0.0843,-1.6365,-0.0479,2.4859,0.7726,7.5769,6.0319,-0.8689,-1.5317,4.5105,0.9019,1.6271,2.8453
2261.7188,0.8430,3.9645,3.7509,2.5568,-4.4403,2.8141,3.5832,0.0233,4.9126,6.3748,7.6606,12.7148,7.3928,-1.5157,5.8735,8.3223,0.7182,8.1203,7.0489
2265.6250,5.6315,7.7167,7.0508,4.8651,-2.5248,6.1031,6.7227,2.0705,8.9904,8.8474,12.8730,16.0733,7.3245,-2.1917,11.2829,10.8298,0.2030,13.4623,10.0661
2269.5312,9.0574,9.2476,8.7936,6.0640,-0.2047,7.9048,8.2435,3.7567,10.8641,9.1331,14.9519,16.4062,5.8416,-2.8507,12.9917,10.7659,-0.8519,16.2819,11.2613
2273.4375,10.3775,8.2038,8.8736,6.0164,2.0248,7.9081,8.0180,4.6909,10.1827,7.4008,13.5893,13.4761,3.4280,-3.2932,10.8801,7.8485,-2.2781,16.0082,10.6697
2277.3438,9.5742,5.2990,7.9090,5.1188,3.7360,6.6573,6.7875,4.8730,7.5402,4.6041,9.5831,8.1529,0.7992,-3.2877,6.2889,3.0168,-3.6047,12.9344,8.7866
2281.2500,7.1311,1.8212,6.6397,3.9145,4.5358,5.0970,5.5756,4.5132,4.0367,1.9518,4.3967,2.0114,-1.4159,-2.7673,1.2481,-1.9503,-4.3420,7.9775,6.1763
2285.1562,3.8233,-1.0155,5.4225,2.7322,4.1164,3.9891,5.0347,3.8074,0.7510,0.3305,-0.4140,-3.3109,-2.8697,-1.9379,-2.4614,-5.2289,-4.2550,2.3349,3.2141
2289.0625,0.6161,-2.4995,4.1757,1.6008,2.4116,3.5757,5.1509,2.8372,-1.5820,0.0016,-3.6595,-6.6482,-3.4699,-1.1941,-3.9312,-5.7331,-3.4376,-2.7882,0.1328
2292.9688,-1.4486,-2.4693,2.7430,0.4575,-0.2475,3.6463,5.4362,1.6413,-2.6057,0.6928,-4.7529,-7.5167,-3.2048,-0.8765,-3.2129,-3.4888,-2.1660,-6.3434,-2.7259
2296.8750,-1.5277,-1.1000,1.3171,-0.5672,-3.1317,3.8717,5.3926,0.3622,-2.2203,1.9448,-3.7406,-6.0181,-1.9923,-1.0226,-0.9848,0.5444,-0.6729,-7.5674,-4.7285
2300.7812,0.6152,1.3196,0.5334,-1.0540,-5.3318,4.1078,4.8797,-0.6816,-0.4999,3.4359,-1.1986,-2.6179,0.3018,-1.2774,1.9004,5.0344,0.9817,-6.1371,-5.0627
2304.6875,4.3285,4.4455,1.1198,-0.5002,-6.1106,4.4489,4.1493,-1.0878,2.2713,5.0713,1.9597,2.0250,3.6811,-1.0315,4.7204,8.8755,2.8636,-2.3187,-3.1381
2308.5938,8.2108,7.7993,3.3511,1.3115,-5.1998,5.0388,3.5868,-0.5820,5.5343,6.8293,4.7481,7.1241,7.8077,0.2785,6.9639,11.5202,5.0050,3.0089,0.9737
2312.5000,10.7216,10.7204,6.7190,4.0485,-2.8829,5.8399,3.4031,0.7908,8.5166,8.5434,6.4139,11.8047,11.9399,2.8625,8.2860,12.9459,7.2635,8.5510,6.3690
2316.4062,10.9671,12.4941,10.0800,6.8757,0.1651,6.5736,3.5123,2.6268,10.4808,9.8316,6.6967,15.2119,15.0993,6.4113,8.4837,13.3857,9.3010,12.9811,11.5650
2320.3125,9.1730,12.6305,12.1938,8.7996,3.1629,6.8794,3.6431,4.3116,11.0398,10.2510,5.9123,16.7001,16.4017,10.1478,7.5561,13.0508,10.6812,15.3418,15.0590
2324.2188,6.5096,11.1139,12.2966,9.0967,5.4680,6.5526,3.5477,5.2689,10.3148,9.5679,4.7761,16.0103,15.3818,13.0678,5.7846,12.0173,11.0194,15.2647,15.8966
2328.1250,4.3499,8.4243,10.3490,7.5721,6.6769,5.6564,3.1260,5.1721,8.7929,7.9306,4.0093,13.3191,12.1530,14.2757,3.7171,10.2955,10.1074,12.9185,13.9574
2332.0312,3.4277,5.2836,6.8621,4.5319,6.5984,4.4177,2.3947,4.0156,6.9570,5.8047,3.9149,9.1251,7.3407,13.2899,1.9930,7.9743,7.9846,8.7740,9.8569
2335.9375,3.4381,2.2858,2.5096,0.5478,5.1919,3.0051,1.3810,2.0417,4.9506,3.7034,4.1702,4.0579,1.8519,10.2062,1.0681,5.3125,4.9567,3.3829,4.5833
2339.8438,3.3282,-0.3381,-2.1468,-3.7896,2.5567,1.3916,0.0775,-0.4021,2.5471,1.9086,3.9957,-1.2534,-3.3955,5.6574,0.9904,2.7142,1.5639,-2.6730,-0.8949
2343.7500,2.0653,-2.6632,-6.6421,-7.9791,-1.0198,-0.5632,-1.4887,-2.9782,-0.5206,0.3825,2.6468,-6.1793,-7.6709,0.5817,1.3749,0.6229,-1.5184,-8.6681,-5.8565
2347.6562,-0.6301,-4.7834,-10.4123,-11.5710,-5.0174,-2.8639,-3.1443,-5.3946,-4.0966,-1.0662,-0.0352,-10.0178,-10.5138,-4.1026,1.6172,-0.5961,-3.6528,-13.6263,-9.8417
2351.5625,-4.0534,-6.5374,-12.7014,-14.1002,-8.7171,-5.1726,-4.5478,-7.3777,-7.3769,-2.4961,-3.3566,-11.9990,-11.7212,-7.7679,1.2438,-0.7350,-4.4444,-16.4233,-12.5430
2355.4688,-6.9038,-7.4902,-12.7853,-15.1186,-11.3406,-6.8499,-5.3182,-8.6436,-9.1713,-3.6573,-6.0056,-11.4796,-11.2952,-10.1702,0.2065,0.2099,-3.8823,-16.1664,-13.7161
2359.3750,-8.0209,-7.2265,-10.4413,-14.3537,-12.2567,-7.2732,-5.2485,-8.9226,-8.5741,-4.0868,-6.7151,-8.2865,-9.3971,-11.3386,-1.0555,2.0076,-2.3279,-12.7024,-13.1996
2363.2812,-7.0193,-5.7615,-6.3415,-11.8998,-11.1760,-6.2502,-4.4523,-8.0510,-5.6442,-3.4370,-5.0061,-3.0078,-6.3250,-11.3591,-1.8375,4.1866,-0.3371,-6.9481,-11.0348
2367.1875,-4.4830,-3.7598,-2.0143,-8.2992,-8.2599,-4.2473,-3.3340,-6.0873,-1.6264,-1.8191,-1.5690,3.0058,-2.5056,-10.2200,-1.5660,6.1016,1.5893,-0.7714,-7.5896
2371.0938,-1.6694,-2.3502,0.7254,-4.4260,-4.1044,-2.2562,-2.3996,-3.3800,1.5132,0.0959,1.9876,8.0387,1.5332,-7.8329,-0.1559,7.1123,3.1871,3.6302,-3.5720
2375.0000,0.0706,-2.5903,0.6233,-1.2033,0.4084,-1.3462,-2.0299,-0.5210,2.0404,1.3325,3.9311,10.6768,5.2369,-4.2133,1.8802,6.8421,4.4443,4.6260,0.1337
2378.9062,-0.1418,-4.8774,-2.3631,0.7241,4.3557,-2.1503,-2.3498,1.8270,-0.6270,1.1055,3.3182,10.4285,8.1548,0.3304,3.6478,5.3955,5.4749,1.9031,2.7735
2382.8125,-2.3876,-8.6647,-6.9964,1.2162,7.0522,-4.5706,-3.2365,3.1779,-5.5676,-0.7292,0.5058,7.9649,10.0866,5.1676,4.3093,3.3880,6.3676,-3.3122,4.0460
2386.7188,-5.9436,-12.6610,-11.3219,0.6732,8.2604,-7.8454,-4.4146,3.4305,-10.7845,-3.5409,-3.0412,4.8336,11.1711,9.5382,3.5151,1.7179,7.1256,-8.7077,4.2662
2390.6250,-9.5570,-15.4064,-13.5476,-0.1265,8.2371,-10.9050,-5.5483,2.9267,-14.1699,-6.1960,-5.5342,2.7688,11.8379,12.8598,1.5955,1.1617,7.7210,-11.8302,4.2500
2394.5312,-11.8901,-15.8961,-12.7642,-0.3221,7.5757,-12.7986,-6.2935,2.3062,-14.4617,-7.5868,-5.7738,2.9383,12.6014,14.9443,-0.5869,1.9968,8.1824,-11.0923,4.9270
2398.4375,-11.9881,-13.9249,-9.1648,0.7071,6.9051,-12.9825,-6.3375,2.2118,-11.6811,-7.1239,-3.6625,5.4848,13.7691,15.9733,-2.0380,3.8635,8.6040,-6.3882,6.8520
2402.3438,-9.6104,-10.0185,-3.7454,3.1057,6.5937,-11.3877,-5.4693,2.9901,-6.8839,-4.9346,-0.0584,9.5569,15.2173,16.2493,-2.0674,5.9470,9.0451,0.9399,9.8714
2406.2500,-5.2979,-5.0791,2.2437,6.4803,6.6195,-8.3265,-3.6797,4.5449,-1.4672,-1.7005,3.8666,13.7643,16.3818,15.9046,-0.5443,7.3780,9.3962,8.7264,13.1444
2410.1562,-0.1444,-0.0047,7.7449,10.0408,6.6704,-4.3587,-1.2272,6.4192,3.4984,1.7229,7.3026,16.7987,16.5075,14.7819,2.1209,7.6240,9.3459,14.8684,15.5349
2414.0625,4.6221,4.5060,12.0391,12.8870,6.3941,-0.1895,1.3971,8.0438,7.5362,4.6614,10.0733,17.9186,15.0462,12.5752,5.2021,6.6677,8.5176,18.0628,16.1691
2417.9688,8.0480,7.9412,14.6382,14.3150,5.6187,3.4144,3.6111,8.9872,10.5759,6.7677,12.3847,17.1132,11.9868,9.1300,7.9355,4.9113,6.7136,18.1051,14.8480
2421.8750,9.6721,9.8996,15.1391,14.0010,4.3960,5.7524,4.9177,9.0529,12.5720,7.9455,14.3205,14.9442,7.9233,4.6858,9.7210,2.9150,4.1065,15.7128,12.0866
2425.7812,9.5076,10.1128,13.2391,11.9935,2.8580,6.3822,5.0235,8.1850,13.2881,8.1904,15.5231,12.2127,3.8139,-0.1128,10.2129,1.1476,1.2322,12.0625,8.7808
2429.6875,7.8880,8.6060,8.9451,8.5592,1.0275,5.3125,3.8611,6.2979,12.4339,7.5154,15.3413,9.6361,0.5654,-4.4501,9.3504,-0.1206,-1.2311,8.3134,5.7297
2433.5938,5.3342,5.8678,2.8245,4.0189,-1.2347,3.0733,1.5585,3.2121,10.0397,6.0288,13.3559,7.6609,-1.3260,-7.6684,7.3803,-0.7856,-2.7733,5.3136,3.3116
2437.5000,2.5103,2.8388,-3.9268,-1.2975,-4.0768,0.5735,-1.5737,-1.1997,6.7459,4.0784,9.8832,6.4338,-1.8961,-9.4991,4.8586,-0.8347,-3.2678,3.5223,1.4830
2441.4062,0.1995,0.6243,-9.7309,-6.9597,-7.4007,-1.2310,-5.0220,-6.7243,3.7215,2.2948,6.0453,5.8745,-1.5756,-10.0873,2.5618,-0.3265,-2.9787,3.0491,0.0296
2445.3125,-0.8283,0.0335,-13.1360,-12.3221,-10.7183,-1.7148,-8.0812,-12.5963,2.1810,1.4232,3.2898,5.7739,-0.9265,-9.8409,1.2619,0.5669,-2.3798,3.7005,-1.1647
2449.2188,-0.0978,1.1972,-13.3647,-16.5457,-13.2748,-0.8172,-9.9896,-17.5768,2.7629,1.9851,2.6335,5.8726,-0.4265,-9.2242,1.4185,1.5348,-1.9124,4.9987,-2.0496
2453.1250,2.2771,3.4987,-10.6351,-18.8323,-14.4025,0.9860,-10.1975,-20.3729,5.1543,3.9618,4.1117,5.9106,-0.3927,-8.6011,2.9435,2.2042,-1.8133,6.2367,-2.5694
2457.0312,5.5118,5.8787,-6.0893,-18.7749,-13.8897,2.9473,-8.6519,-20.2083,8.2102,6.7109,6.7859,5.6686,-1.0067,-8.1564,5.1968,2.3197,-2.0719,6.6475,-2.8840
2460.9375,8.4235,7.3471,-1.3498,-16.6033,-12.1108,4.3936,-5.9057,-17.2231,10.5128,9.2037,9.2902,5.0106,-2.3288,-7.8674,7.2533,1.9176,-2.4885,5.6840,-3.4164
2464.8438,9.9563,7.4158,2.1039,-13.1272,-9.8182,4.9682,-2.9319,-12.4470,11.0482,10.4751,10.5486,3.9217,-4.2393,-7.5051,8.3118,1.3512,-2.7676,3.2948,-4.6276
2468.7500,9.6568,6.2294,3.4714,-9.3602,-7.7200,4.6636,-0.6981,-7.3303,9.6214,10.0417,10.2137,2.5201,-6.3523,-6.6835,8.0179,1.1069,-2.6096,0.0285,-6.6436
2472.6562,7.8028,4.3682,2.8646,-6.0232,-6.1139,3.6820,0.2723,-3.0817,6.8135,8.0657,8.6045,1.0286,-8.0264,-4.9976,6.5278,1.4977,-1.7983,-3.1342,-8.9996
2476.5625,5.1179,2.4914,1.1671,-3.2273,-4.8013,2.2600,0.1050,-0.1773,3.5738,5.1971,6.2861,-0.2917,-8.5556,-2.2364,4.3106,2.4282,-0.2907,-5.1675,-10.7224
2480.4688,2.2975,1.0523,-0.3947,-0.5397,-3.3145,0.5860,-0.5649,1.7027,0.7380,2.2212,3.6570,-1.2253,-7.4945,1.4229,1.8565,3.3994,1.7168,-5.4233,-10.7553
2484.3750,-0.3036,0.2201,-0.7745,2.6016,-1.2868,-1.1551,-0.9780,3.3055,-1.2461,-0.2682,0.8529,-1.6704,-4.9389,5.3704,-0.5053,3.7765,3.7985,-3.8830,-8.5064
2488.2812,-2.6242,-0.0238,0.4859,6.3826,1.2720,-2.6968,-0.6464,5.2498,-2.2977,-2.0023,-2.0151,-1.6668,-1.5748,8.7389,-2.5886,3.1629,5.4191,-1.1338,-4.2143
2492.1875,-4.5948,0.2370,3.1007,10.3331,3.9436,-3.6924,0.4461,7.6060,-2.5128,-2.9645,-4.5505,-1.3715,1.5731,10.7341,-4.2121,1.6522,6.1343,1.8800,1.0713
2496.0938,-5.8975,0.8791,6.1667,13.4500,6.0870,-3.8569,1.8996,9.8315,-2.0178,-3.2320,-6.0184,-0.9894,3.5757,10.9487,-5.1148,-0.1992,5.7762,4.1809,5.8760
2500.0000,-6.0516,1.6643,8.5001,14.6549,7.1059,-3.1786,3.1181,11.0620,-0.9822,-2.8758,-5.6720,-0.6834,3.9859,9.4871,-5.0361,-1.6535,4.5235,5.0178,8.8545
2503.9062,-4.7960,2.1793,9.0500,13.3275,6.6554,-2.0338,3.5495,10.5707,0.2703,-1.9756,-3.2727,-0.4972,2.9767,6.8464,-3.9123,-2.1478,2.8159,4.0106,9.2565
2507.8125,-2.4618,1.9163,7.2516,9.6295,4.7347,-1.0749,2.8553,8.1512,1.2284,-0.6894,0.5683,-0.3278,1.1847,3.6525,-2.0199,-1.5188,1.1617,1.2142,7.1360
2511.7188,0.0099,0.5075,3.2097,4.4686,1.6871,-0.9118,0.9977,4.2465,1.3556,0.7256,4.5104,0.0306,-0.6199,0.4229,0.0823,0.0013,-0.0596,-2.8591,3.2730
2515.6250,1.4940,-2.0188,-2.3395,-0.8527,-1.8599,-1.7668,-1.7370,-0.2084,0.3938,1.9861,7.0519,0.7753,-1.8429,-2.5189,1.8047,1.9541,-0.7119,-7.2802,-1.1186
2519.5312,1.2885,-5.1520,-8.2738,-5.1180,-5.1195,-3.3404,-4.7857,-4.1401,-1.4103,2.8916,7.2312,1.9553,-2.2195,-4.9866,2.8070,3.8417,-0.9071,-10.8805,-4.7809
2523.4375,-0.5212,-8.0930,-13.4513,-7.5966,-7.3537,-5.0048,-7.4619,-6.7300,-3.3653,3.3632,5.0513,3.3671,-1.8012,-6.8376,3.1034,5.2219,-0.9287,-12.6068,-6.7909
2527.3438,-3.1988,-10.1496,-17.0690,-8.2289,-8.1352,-6.2223,-9.2086,-7.6972,-4.7116,3.3639,1.3971,4.5498,-0.8573,-7.9522,2.9263,5.7252,-1.1146,-11.9692,-6.8342
2531.2500,-5.8829,-11.1027,-18.8742,-7.5668,-7.5493,-6.9130,-9.8537,-7.3657,-5.1023,2.7738,-2.4730,4.9091,0.2159,-8.3001,2.4699,5.0873,-1.7271,-9.3698,-5.2936
2535.1562,-8.0960,-11.3031,-19.1499,-6.5264,-6.1986,-7.5022,-9.7102,-6.4946,-4.8620,1.3631,-5.5283,3.9400,0.9542,-8.0157,1.7364,3.2666,-2.8297,-6.0844,-3.1141
2539.0625,-9.8653,-11.4156,-18.4938,-6.0505,-4.9519,-8.5862,-9.4171,-5.9384,-4.8089,-1.0412,-7.3165,1.4610,0.8928,-7.3849,0.6254,0.5944,-4.2073,-3.8098,-1.4719
2542.9688,-11.3994,-11.9565,-17.5092,-6.7916,-4.5392,-10.4231,-9.5731,-6.2787,-5.7111,-4.2669,-7.9202,-2.2477,-0.3170,-6.7198,-0.8030,-2.1914,-5.3901,-3.9348,-1.3631
2546.8750,-12.6292,-12.9149,-16.5664,-8.9107,-5.2120,-12.6045,-10.3768,-7.5938,-7.7114,-7.5997,-7.6402,-6.4767,-2.7524,-6.1983,-2.1217,-4.1522,-5.8184,-6.8757,-3.2630
2550.7812,-13.0321,-13.7122,-15.7390,-12.0540,-6.6645,-14.1665,-11.5071,-9.4728,-10.1080,-9.8972,-6.6807,-10.2901,-6.0992,-5.7777,-2.6059,-4.5555,-5.1072,-11.8218,-6.9793
2554.6875,-11.9293,-13.5464,-14.9116,-15.5030,-8.2544,-14.1179,-12.3325,-11.2605,-11.6722,-10.0549,-5.0536,-12.8127,-9.6536,-5.2411,-1.5978,-3.2637,-3.2756,-17.0373,-11.7221
2558.5938,-9.0567,-11.9210,-13.9499,-18.4312,-9.3697,-12.0705,-12.3172,-12.3949,-11.3377,-7.6123,-2.7307,-13.4825,-12.4788,-4.3362,1.0492,-0.8367,-0.7888,-20.5734,-16.3301
2562.5000,-4.9670,-9.0326,-12.8063,-20.1560,-9.7070,-8.5674,-11.3504,-12.6519,-8.8476,-3.1385,0.1198,-12.1671,-13.6704,-2.9087,4.7588,1.7635,1.6527,-21.0438,-19.5600
2566.4062,-0.9175,-5.7669,-11.5028,-20.2935,-9.3132,-4.8789,-9.7889,-12.1729,-4.9583,1.8835,3.0215,-9.1269,-12.6368,-0.9587,8.4269,3.7115,3.4722,-18.1075,-20.3749
2570.3125,1.7331,-3.2806,-10.0441,-18.7859,-8.4251,-2.3709,-8.2033,-11.2885,-1.0717,5.6728,5.3104,-4.8821,-9.3005,1.3758,10.9342,4.7509,4.5012,-12.4899,-18.2127
2574.2188,2.2427,-2.4013,-8.3663,-15.8407,-7.2706,-1.8128,-7.0208,-10.2733,1.4824,6.9577,6.4211,-0.0758,-4.1689,3.8501,11.6659,5.2224,4.9926,-5.6130,-13.2047
2578.1250,0.8550,-3.1830,-6.3940,-11.8441,-5.9847,-3.0250,-6.3068,-9.1887,2.0861,5.5345,6.1562,4.6073,1.7385,6.1165,10.7296,5.6626,5.3422,0.9325,-6.2702
2582.0312,-1.3981,-4.8678,-4.1673,-7.2932,-4.6566,-5.0410,-5.7941,-7.8936,1.0403,2.2803,4.7730,8.4799,7.1001,7.7261,8.7677,6.2660,5.7121,5.8396,1.0220
2585.9375,-3.3035,-6.2756,-1.9211,-2.7353,-3.4007,-6.6505,-5.0900,-6.1789,-0.7315,-1.3596,2.8429,10.9087,10.6120,8.1947,6.5263,6.6255,5.8315,8.3414,6.8738
2589.8438,-4.0833,-6.4019,-0.0178,1.3111,-2.3330,-6.9878,-3.8887,-3.9148,-2.2524,-4.0898,0.9775,11.4362,11.3585,7.1637,4.4830,5.9801,5.1369,8.2782,9.8585
2593.7500,-3.6722,-4.9089,1.2525,4.4579,-1.4540,-5.8587,-2.0728,-1.1251,-2.9725,-5.2876,-0.4193,9.9442,9.1196,4.5946,2.7501,3.8264,3.1693,6.0408,9.4517
2597.6562,-2.5712,-2.2633,1.8667,6.5334,-0.5663,-3.6999,0.2816,2.0185,-2.9126,-5.0921,-1.2553,6.7643,4.4825,0.8677,1.2504,0.4528,-0.0493,2.4363,6.2132
2601.5625,-1.4602,0.5199,2.0974,7.5930,0.6357,-1.2876,2.9151,5.2232,-2.4665,-4.1082,-1.6918,2.6319,-1.3330,-3.3167,-0.0346,-3.0256,-3.9344,-1.5129,1.4985
2605.4688,-0.8424,2.3718,2.3275,7.8386,2.3016,0.5992,5.3686,8.0827,-2.0640,-2.9827,-1.9930,-1.5425,-6.8982,-7.2089,-0.9608,-5.2236,-7.6180,-4.8262,-3.1611
2609.3750,-0.8820,2.6456,2.7699,7.4919,4.1644,1.4111,7.0136,10.0896,-1.9334,-2.1195,-2.3801,-4.9918,-11.0764,-10.3033,-1.3372,-5.2995,-10.3969,-6.8241,-6.6774
2613.2812,-1.4277,1.3614,3.3060,6.7069,5.5146,0.9377,7.2302,10.7203,-2.0738,-1.6413,-2.9519,-7.3354,-13.3722,-12.4736,-1.1384,-3.4886,-12.0397,-7.2954,-8.6980
2617.1875,-2.1187,-0.8555,3.5853,5.5756,5.5087,-0.6548,5.7332,9.6276,-2.3777,-1.5117,-3.6783,-8.6146,-13.9681,-13.8750,-0.6145,-0.9894,-12.7566,-6.4956,-9.4689
2621.0938,-2.5037,-3.0724,3.3294,4.2023,3.6637,-2.8321,2.8730,6.8678,-2.7542,-1.6506,-4.4404,-9.1161,-13.4642,-14.7036,-0.1815,0.7325,-12.8910,-4.9815,-9.4418
2625.0000,-2.1785,-4.4308,2.6089,2.7600,0.2192,-4.7873,-0.3441,3.0132,-3.1550,-1.9463,-5.0896,-9.1178,-12.4926,-14.9978,-0.1599,0.7674,-12.5923,-3.3778,-8.9375
2628.9062,-0.9653,-4.4594,1.8511,1.4556,-3.8945,-5.6796,-2.6439,-0.9803,-3.5210,-2.2037,-5.5111,-8.7335,-11.4332,-14.6251,-0.5568,-0.8073,-11.7266,-2.1964,-8.0823
2632.8125,0.9168,-3.2246,1.5248,0.4107,-7.4933,-4.9890,-3.1320,-4.1363,-3.7478,-2.1458,-5.6807,-7.9508,-10.3581,-13.4425,-1.0632,-3.1157,-10.0780,-1.7751,-6.9861
2636.7188,2.8176,-1.2936,1.7048,-0.4489,-9.7171,-2.8289,-1.8241,-5.8774,-3.7429,-1.5401,-5.6928,-6.8009,-9.1705,-11.4836,-1.2807,-5.0914,-7.6562,-2.3000,-5.9329
2640.6250,3.8649,0.4652,1.8457,-1.3894,-10.3895,-0.0105,0.3056,-6.2612,-3.5437,-0.3921,-5.7299,-5.4940,-7.7888,-9.0122,-1.0164,-6.0544,-4.8431,-3.8185,-5.3573
2644.5312,3.3823,1.1836,0.9891,-2.7247,-9.9611,2.2531,1.8380,-5.8878,-3.3840,0.9479,-5.9679,-4.3820,-6.2383,-6.4001,-0.4350,-5.9036,-2.2449,-6.1858,-5.5840
2648.4375,1.3055,0.3123,-1.6703,-4.6188,-9.1249,2.9073,1.6958,-5.5394,-3.6117,1.8885,-6.4538,-3.7539,-4.6229,-3.9394,0.0439,-4.9050,-0.3549,-8.9836,-6.5422
2652.3438,-1.6702,-2.1466,-6.2005,-6.9724,-8.4012,1.5967,-0.2785,-5.7705,-4.4754,1.8945,-7.0325,-3.6238,-3.0594,-1.7514,0.0288,-3.3575,0.7125,-11.5281,-7.7232
2656.2500,-4.3536,-5.5920,-11.7197,-9.4754,-7.9618,-1.1210,-3.3008,-6.6880,-5.9159,0.8096,-7.3920,-3.7004,-1.6740,0.1315,-0.5823,-1.4461,1.2094,-13.0582,-8.4835
2660.1562,-5.6274,-9.0091,-16.7244,-11.7843,-7.7486,-4.0280,-6.1624,-8.0119,-7.5255,-1.0077,-7.2323,-3.6010,-0.6743,1.5930,-1.5462,0.6348,1.4767,-13.0690,-8.5086
2664.0625,-5.0173,-11.3406,-19.7832,-13.6860,-7.7129,-5.8399,-7.9251,-9.3219,-8.7368,-2.8407,-6.4761,-3.1774,-0.4031,2.3380,-2.4588,2.4901,1.6219,-11.6180,-8.0954
2667.9688,-2.9362,-11.9007,-20.1874,-15.1313,-7.9388,-5.8176,-8.3532,-10.2953,-9.1377,-3.9817,-5.3861,-2.7052,-1.2605,1.9925,-3.0420,3.5376,1.4064,-9.3917,-8.0017
2671.8750,-0.4640,-10.6403,-18.1931,-16.1299,-8.5521,-4.0740,-7.8615,-10.7929,-8.7036,-4.0877,-4.4901,-2.7586,-3.4735,0.3485,-3.3233,3.3065,0.4274,-7.4347,-8.9208
2675.7812,1.2162,-8.1262,-14.7584,-16.6189,-9.5218,-1.4349,-7.0956,-10.7993,-7.7793,-3.3116,-4.3168,-3.8117,-6.8354,-2.4263,-3.5771,1.8094,-1.5460,-6.6454,-10.9223
2679.6875,1.4169,-5.2335,-10.9927,-16.4346,-10.5592,1.0335,-6.4788,-10.3296,-6.8064,-2.1376,-5.0701,-5.8211,-10.6084,-5.7857,-4.0652,-0.3476,-4.3430,-7.3037,-13.2561
2683.5938,0.2763,-2.7035,-7.6719,-15.4248,-11.2276,2.5559,-6.0101,-9.4109,-5.9728,-1.0425,-6.4266,-8.0884,-13.7063,-9.0279,-4.7591,-2.2772,-7.4310,-8.9010,-14.6804
2687.5000,-1.3268,-0.8010,-5.0638,-13.6078,-11.1859,2.9636,-5.3753,-8.1410,-5.0284,-0.2021,-7.5889,-9.5310,-15.0996,-11.5885,-5.2473,-3.3591,-10.1801,-10.3764,-14.1180
2691.4062,-2.2065,0.7408,-3.0624,-11.2291,-10.3640,2.6762,-4.2132,-6.7246,-3.4143,0.5747,-7.6000,-9.2194,-14.2293,-13.1937,-4.9172,-3.6104,-12.1382,-10.6318,-11.2277
2695.3125,-1.4334,2.4640,-1.4365,-8.6472,-8.9256,2.4088,-2.3286,-5.3980,-0.6471,1.6567,-5.7804,-6.8569,-11.2042,-13.7836,-3.3223,-3.5721,-13.1231,-9.0475,-6.5462
2699.2188,1.2257,4.7659,0.0122,-6.1242,-7.0619,2.7899,0.2437,-4.2579,3.2715,3.2758,-2.0832,-2.9192,-6.6984,-13.3075,-0.5244,-3.7767,-13.1072,-5.7375,-1.1618
2703.1250,5.1708,7.5669,1.4412,-3.6921,-4.8149,4.0762,3.2758,-3.1300,7.6800,5.2848,2.7988,1.6026,-1.6517,-11.6109,2.7990,-4.2244,-12.0550,-1.4526,3.8121
2707.0312,9.1855,10.2604,3.0105,-1.2170,-2.1119,6.0662,6.3903,-1.6224,11.4443,7.1323,7.6266,5.6557,3.0232,-8.5556,5.5630,-4.3223,-9.9058,2.7669,7.6065
2710.9375,11.9142,11.9803,4.8463,1.3736,0.9954,8.2133,9.0836,0.6122,13.4209,8.0705,11.0293,8.4899,6.5871,-4.3122,6.7103,-3.3912,-6.7508,5.9808,9.8329
2714.8438,12.4050,12.0354,6.9023,3.8791,4.0945,9.8588,10.7929,3.5538,12.9556,7.4884,11.9797,9.7572,8.4868,0.4190,5.6648,-1.3670,-3.0509,7.6063,10.2961
2718.7500,10.4888,10.2701,8.8360,5.8185,6.4252,10.4801,11.0642,6.6622,10.1645,5.2089,10.1577,9.3992,8.3662,4.5021,2.5920,0.8868,0.3417,7.4856,8.8583
2722.6562,6.8278,7.1611,10.0616,6.6682,7.2203,9.8681,9.7830,9.0423,5.8754,1.6171,6.0780,7.5161,6.1790,6.8108,-1.6467,1.9998,2.4774,5.8235,5.5457
2726.5625,2.6157,3.6096,10.0200,6.1976,6.1844,8.1814,7.3193,9.8717,1.2863,-2.4321,0.9372,4.3713,2.3654,6.8008,-5.8126,1.0292,2.7951,3.0801,0.8272
2730.4688,-0.9233,0.5563,8.5335,4.6659,3.7811,5.8739,4.4469,8.8511,-2.4782,-5.8923,-3.7772,0.5084,-2.0791,4.8528,-8.7359,-1.7470,1.4945,-0.1274,-4.2116
2734.3750,-2.9959,-1.3803,6.0031,2.7341,1.0927,3.5304,2.0341,6.4090,-4.7180,-7.8875,-6.7948,-3.2011,-5.8073,2.1433,-9.7101,-4.8117,-0.4795,-3.1244,-8.0616
2738.2812,-3.4555,-2.0819,3.2835,1.1452,-0.6985,1.6721,0.6697,3.5367,-5.3058,-8.0294,-7.5095,-5.7450,-7.5901,0.0879,-8.6974,-6.2758,-1.8810,-5.3021,-9.3598
2742.1875,-2.7147,-1.8796,1.2700,0.3837,-0.8992,0.5987,0.4464,1.3474,-4.6305,-6.5700,-6.1909,-6.3793,-6.8364,-0.3309,-6.2938,-5.0955,-1.7895,-6.2570,-7.5433
2746.0938,-1.4652,-1.3475,0.4323,0.5245,0.3989,0.3127,1.0192,0.6045,-3.4023,-4.3174,-3.8527,-5.0318,-3.8605,1.0250,-3.4881,-1.8100,-0.0514,-5.8990,-3.1837
2750.0000,-0.3849,-1.0602,0.5736,1.3275,2.4792,0.5458,1.8676,1.4534,-2.4006,-2.3288,-1.8073,-2.4155,0.2789,3.5018,-1.3060,1.7390,2.7141,-4.4718,2.2352
2753.9062,0.0401,-1.4066,0.9637,2.4587,4.4802,0.8722,2.5678,3.4538,-2.2266,-1.4861,-1.0851,0.2764,4.2822,6.0836,-0.4565,3.5484,5.5138,-2.4704,6.9877
2757.8125,-0.4261,-2.4935,0.7668,3.6506,5.8651,0.8765,2.9180,5.8423,-3.1071,-2.1256,-1.9766,1.9486,7.1528,7.9068,-1.0931,2.7042,7.5052,-0.4935,9.8346
2761.7188,-1.7494,-4.1235,-0.4787,4.7101,6.5996,0.3311,2.9036,7.8656,-4.7987,-3.8887,-3.9160,2.1150,8.4680,8.5674,-2.7700,-0.0873,8.3234,0.9073,10.4068
2765.6250,-3.5904,-5.8323,-2.5867,5.4368,6.9821,-0.6764,2.6144,9.0410,-6.6429,-5.8698,-5.7673,1.0464,8.2757,8.1099,-4.6176,-3.0129,8.0542,1.3450,9.0874
2769.5312,-5.2959,-6.9895,-4.7797,5.6010,7.3095,-1.7237,2.2198,9.2707,-7.7846,-7.0051,-6.3740,-0.5059,6.7843,6.8044,-5.6810,-4.3268,6.9534,0.6791,6.5752
2773.4375,-6.0228,-6.9729,-6.0241,5.0689,7.6413,-2.1790,1.9935,8.8108,-7.5049,-6.5259,-5.1056,-1.7923,4.1460,4.9222,-5.2994,-3.3810,5.1669,-0.9235,3.4873
2777.3438,-5.0486,-5.3943,-5.4697,4.0055,7.8103,-1.4585,2.2849,8.1259,-5.5406,-4.2740,-2.1400,-2.4237,0.5277,2.6612,-3.3719,-0.8624,2.6684,-2.9596,0.2698
2781.2500,-2.1714,-2.3060,-2.8046,2.9715,7.6307,0.6749,3.3577,7.6820,-2.2421,-0.7482,1.6344,-2.4053,-3.6047,0.2228,-0.3954,1.8264,-0.5563,-4.6451,-2.6021
2785.1562,2.0290,1.7178,1.6033,2.7677,7.1176,3.9074,5.1611,7.7412,1.5223,3.1156,5.0223,-1.8952,-7.2742,-2.0770,2.7410,3.5293,-4.2410,-5.1037,-4.4009
2789.0625,6.2850,5.6970,6.8090,4.0524,6.5486,7.3896,7.2154,8.2439,4.6935,6.3035,7.0194,-0.9322,-9.1346,-3.7877,5.1104,3.9604,-7.7121,-3.6739,-4.2012
2792.9688,9.1205,8.5530,11.5913,6.9356,6.3298,10.0057,8.7647,8.8438,6.4393,8.0603,7.1772,0.6308,-8.0043,-4.4334,6.0881,3.6315,-10.0277,-0.2252,-1.2909
2796.8750,9.5077,9.4984,14.8448,10.8082,6.7621,10.8024,9.1587,9.0941,6.4713,8.0825,5.7011,2.9417,-3.5262,-3.6877,5.5335,3.2644,-10.3305,4.6822,4.2783
2800.7812,7.3538,8.3473,15.9267,14.5323,7.8563,9.3894,8.2237,8.6922,5.1242,6.5425,3.2887,5.8795,3.4614,-1.5098,3.7610,3.2042,-8.2256,9.9160,11.3890
2804.6875,3.5505,5.6045,14.8279,16.9038,9.2927,6.1237,6.3466,7.6377,3.1737,3.9895,0.8190,8.9402,11.1234,1.8233,1.3519,3.2712,-3.9855,14.1581,18.0866
2808.5938,-0.4386,2.2894,12.1017,17.1390,10.5290,1.9907,4.1910,6.2024,1.4974,1.1911,-0.9613,11.4014,17.3442,5.7836,-1.0743,3.0889,1.5120,16.3950,22.3078
2812.5000,-3.2212,-0.4386,8.5860,15.1395,10.9922,-1.7624,2.2428,4.7344,0.7374,-1.0456,-1.6450,12.6738,20.5922,9.7100,-3.0276,2.5468,7.0680,16.2799,22.7589
2816.4062,-4.0177,-1.6976,5.0608,11.4380,10.2744,-4.0745,0.5341,3.4325,1.1031,-2.0642,-1.2174,12.6011,20.4733,12.9327,-4.2136,1.9807,11.5292,14.1935,19.4736
2820.3125,-2.8613,-1.1799,2.0122,6.9111,8.2736,-4.4166,-1.2307,2.2550,2.3634,-1.5437,0.0261,11.5039,17.7030,14.8901,-4.5268,1.9168,14.0924,10.9891,13.7482
2824.2188,-0.4309,0.7787,-0.3927,2.4427,5.2411,-2.9170,-3.2402,1.0245,3.9921,0.3722,1.6408,9.9376,13.5709,15.2391,-4.0226,2.5957,14.4567,7.5695,7.4946
2828.1250,2.3239,3.3693,-2.1545,-1.3063,1.7180,-0.2538,-5.1899,-0.3539,5.3794,3.0748,3.1946,8.3294,9.2471,13.9440,-2.8948,3.6746,12.8107,4.5152,2.3677
2832.0312,4.5570,5.6323,-3.2594,-3.9737,-1.6251,2.6159,-6.2908,-1.7339,6.0221,5.6621,4.3666,6.7316,5.3220,11.3091,-1.4512,4.3654,9.6981,1.9296,-0.8765
2835.9375,5.7532,6.7994,-3.6210,-5.4605,-4.1952,4.7829,-5.7325,-2.7567,5.6434,7.2514,4.9544,4.8377,1.7835,7.9167,-0.0635,3.9269,5.8299,-0.4610,-2.4969
2839.8438,5.7825,6.5229,-3.1877,-5.8580,-5.6406,5.6636,-3.2957,-3.0505,4.2280,7.3095,4.8142,2.2341,-1.6472,4.4744,0.9130,2.1619,1.9069,-3.0450,-3.3680
2843.7500,4.8274,4.9233,-2.1179,-5.3804,-5.8987,5.1503,0.3351,-2.4577,1.9882,5.8498,3.8062,-1.2793,-5.0951,1.6217,1.2211,-0.4357,-1.5041,-6.0471,-4.3498
2847.6562,3.2531,2.4684,-0.8510,-4.3086,-5.1188,3.5918,3.8202,-1.1291,-0.7115,3.3975,1.8150,-5.4832,-8.3011,-0.2321,0.7527,-2.9776,-4.0274,-9.3557,-5.7935
2851.5625,1.4724,-0.2324,0.0304,-2.9391,-3.5336,1.6150,5.8434,0.5680,-3.4411,0.7439,-1.1323,-9.7420,-10.7026,-0.9867,-0.4444,-4.7046,-5.4882,-12.5068,-7.4241
2855.4688,-0.1576,-2.6147,0.0953,-1.5447,-1.3883,-0.1408,5.7884,2.2381,-5.7756,-1.3855,-4.7150,-13.1872,-11.7417,-0.8462,-2.1812,-5.3798,-5.9075,-14.8102,-8.6040
2859.3750,-1.3824,-4.2572,-0.6698,-0.3558,1.0216,-1.2611,3.9879,3.5957,-7.3363,-2.5838,-8.2499,-14.9822,-11.1997,-0.2598,-4.1362,-5.3096,-5.5048,-15.5654,-8.7695
2863.2812,-2.0375,-4.8930,-1.8136,0.4385,3.2571,-1.6556,1.4261,4.4669,-7.8135,-2.8327,-10.8042,-14.5686,-9.3653,0.1664,-5.8607,-5.0286,-4.6944,-14.3045,-7.7749
2867.1875,-2.0153,-4.3931,-2.6517,0.6939,4.7167,-1.4858,-0.8620,4.7052,-6.9967,-2.3929,-11.4909,-11.8370,-6.9533,-0.2041,-6.8224,-4.8993,-4.0307,-10.9930,-5.9670
2871.0938,-1.2682,-2.7874,-2.6530,0.3424,4.7917,-0.9895,-2.2853,4.1442,-4.8371,-1.6087,-9.8320,-7.1989,-4.8202,-1.8563,-6.5357,-4.9037,-4.0623,-6.1209,-3.9858
2875.0000,0.1214,-0.3358,-1.7514,-0.5579,3.1645,-0.3324,-2.8166,2.6772,-1.5348,-0.7451,-6.0058,-1.5392,-3.6123,-4.8984,-4.7682,-4.7337,-5.1049,-0.6314,-2.4341
2878.9062,1.8480,2.4129,-0.3998,-1.7940,0.0795,0.4065,-2.7687,0.4213,2.4008,0.0724,-0.8431,3.9674,-3.4966,-8.8774,-1.7335,-4.0696,-7.0224,4.3183,-1.6028
2882.8125,3.3722,4.6676,0.6619,-3.0346,-3.6159,1.1247,-2.4778,-2.1775,6.1857,0.8171,4.4393,8.1644,-4.0861,-12.7615,1.8613,-2.8262,-9.1461,7.6998,-1.3795
2886.7188,4.0743,5.6005,0.7837,-3.9326,-6.7484,1.5750,-2.1396,-4.4289,8.9325,1.4742,8.6442,10.2695,-4.5941,-15.1842,5.0032,-1.2043,-10.4323,8.9365,-1.3561
2890.6250,3.5436,4.6609,-0.2807,-4.2430,-8.3058,1.3751,-1.8504,-5.6720,9.9249,1.9709,10.9547,10.1443,-4.1662,-14.9215,6.7517,0.4532,-9.8498,8.0743,-1.0562
2894.5312,1.8413,1.8537,-2.2761,-3.8910,-7.8809,0.1950,-1.7201,-5.5932,8.8872,2.1623,11.1156,8.3422,-2.2669,-11.4336,6.6392,1.8677,-6.8538,5.7247,-0.1678
2898.4375,-0.4567,-2.1821,-4.5852,-2.9629,-5.8319,-1.9836,-1.8951,-4.3945,6.1184,1.8807,9.4113,5.8819,1.0389,-5.2150,4.8844,2.9419,-1.7251,2.8064,1.3109
2902.3438,-2.5144,-6.3675,-6.5102,-1.6529,-3.0817,-4.7265,-2.4610,-2.7069,2.4095,1.0304,6.5100,3.8264,5.0404,2.2512,2.2976,3.7303,4.4134,0.2002,3.0540
2906.2500,-3.6609,-9.5820,-7.5557,-0.2258,-0.6799,-7.2666,-3.3407,-1.3051,-1.2300,-0.3067,3.2668,2.8575,8.6160,8.9709,-0.0745,4.3221,9.9541,-1.5350,4.5120
2910.1562,-3.7232,-11.0821,-7.6035,0.9844,0.6336,-8.8553,-4.3245,-0.7884,-3.9201,-1.8088,0.5360,3.0464,10.6673,13.1759,-1.3790,4.7511,13.4057,-2.2793,5.1041
2914.0625,-3.0492,-10.7487,-6.9307,1.5842,0.6659,-9.1454,-5.2386,-1.3827,-5.1821,-2.9535,-1.0119,3.9252,10.5734,14.0054,-1.2502,4.9993,13.9817,-2.2845,4.4388
2917.9688,-2.2220,-9.0664,-6.0824,1.2106,-0.2524,-8.3658,-6.1069,-2.9193,-5.0397,-3.1904,-1.0704,4.8028,8.4627,11.8280,0.1424,5.0698,11.9113,-1.9876,2.4949
2921.8750,-1.6862,-6.8811,-5.6512,-0.2850,-1.4756,-7.1720,-7.1383,-4.9360,-3.9387,-2.2090,0.1666,5.1420,5.1714,8.0511,2.2569,5.0417,8.3261,-1.8100,-0.3143
2925.7812,-1.5633,-5.0748,-6.0399,-2.6517,-2.3112,-6.2691,-8.5099,-6.8244,-2.5568,-0.1798,2.0065,4.7913,1.8996,4.4983,4.4207,5.0364,4.7666,-2.0252,-3.2438
2929.6875,-1.7679,-4.2948,-7.2934,-5.2070,-2.2567,-6.0472,-10.1055,-7.9820,-1.5851,2.1884,3.4678,3.9624,-0.2871,2.6247,6.0321,5.1118,2.5254,-2.7239,-5.4732
2933.5938,-2.2740,-4.8061,-9.0718,-7.0560,-1.1616,-6.4462,-11.4380,-7.9737,-1.5401,3.8751,3.6690,2.9997,-0.8958,2.9161,6.6779,5.1738,2.1222,-3.8505,-6.4298
2937.5000,-3.2497,-6.4589,-10.7794,-7.4931,0.7067,-7.0980,-11.8582,-6.6932,-2.6242,4.0037,2.2367,2.1109,-0.1921,4.7323,6.1952,5.0012,3.1433,-5.2574,-6.0309
2941.4062,-4.8854,-8.7361,-11.7920,-6.3646,2.7289,-7.6048,-10.9287,-4.4511,-4.6477,2.3140,-0.4805,1.2396,0.9410,6.6559,4.7091,4.3972,4.5115,-6.7412,-4.7234
2945.3125,-7.0272,-10.8708,-11.6750,-4.1511,4.1535,-7.7433,-8.6980,-1.8943,-7.0400,-0.6221,-3.5333,0.1602,1.4085,7.1781,2.6316,3.3724,5.0470,-8.0534,-3.2825
2949.2188,-8.9486,-12.0444,-10.2928,-1.6898,4.4243,-7.4759,-5.6726,0.2717,-8.9852,-3.6042,-5.7897,-1.2769,0.4000,5.4038,0.5692,2.2152,4.0419,-8.9114,-2.4584
2953.1250,-9.5496,-11.6522,-7.7865,0.3036,3.4757,-6.8214,-2.5150,1.6403,-9.6816,-5.3599,-6.4382,-2.9255,-2.2318,1.4534,-0.8791,1.3654,1.5667,-9.0424,-2.6411
2957.0312,-7.9688,-9.5580,-4.4776,1.6017,1.8157,-5.7464,0.2975,2.3161,-8.6498,-5.1657,-5.3092,-4.3122,-5.8687,-3.6124,-1.3636,1.1437,-1.6253,-8.2656,-3.7073
2960.9375,-4.2421,-6.2085,-0.7914,2.4770,0.3004,-4.2057,2.5968,2.8047,-5.9585,-3.1851,-2.8586,-4.8363,-9.3455,-8.2850,-0.9316,1.5170,-4.5195,-6.5876,-5.1095
2964.8438,0.4756,-2.5093,2.7570,3.3603,-0.3149,-2.3096,4.3625,3.6017,-2.2416,-0.3343,0.1401,-4.0894,-11.3996,-11.2590,0.0309,2.0805,-6.3335,-4.2557,-6.1420
2968.7500,4.3637,0.5188,5.5565,4.3995,0.1996,-0.4643,5.4451,4.7375,1.5254,2.2395,2.9791,-2.0983,-11.1624,-11.9198,1.0484,2.3076,-6.8106,-1.7221,-6.2335
2972.6562,5.8566,2.1477,6.9675,5.2541,1.4144,0.6804,5.4469,5.6145,4.3955,3.7462,5.2443,0.6611,-8.4839,-10.4511,1.8413,1.9240,-6.1718,0.4893,-5.1271
2976.5625,4.4826,2.2030,6.5150,5.2880,2.4989,0.5074,3.9075,5.3084,5.7918,4.0644,6.7880,3.4918,-3.9517,-7.5613,2.4540,1.1487,-4.8058,1.9687,-2.8977
2980.4688,1.0986,1.0437,4.1458,4.0366,2.7282,-1.2099,0.6879,3.1897,5.6604,3.6254,7.5444,5.8081,1.3923,-4.0307,3.1307,0.6083,-2.9351,2.5764,0.1498
2984.3750,-2.6226,-0.7020,0.3934,1.6174,1.9246,-4.0958,-3.7313,-0.5341,4.3896,2.9972,7.3873,7.3753,6.4917,-0.3521,4.0310,0.9455,-0.4960,2.4900,3.6066
2988.2812,-5.1137,-2.4611,-3.7027,-1.2171,0.5569,-7.2572,-8.2838,-4.7463,2.5748,2.4796,6.1836,8.3252,10.6538,3.3510,5.0052,2.3695,2.6924,2.1114,7.0435
2992.1875,-5.6697,-3.8978,-6.9458,-3.4394,-0.5596,-9.6386,-11.7093,-7.9242,0.7767,1.9805,4.0140,8.9633,13.6854,7.1344,5.6214,4.4634,6.6044,1.8713,10.0418
2996.0938,-4.6149,-4.8731,-8.4535,-4.2955,-0.7664,-10.4523,-13.0780,-8.9365,-0.6178,1.2246,1.3737,9.5025,15.7409,10.9418,5.4477,6.4049,10.7776,2.0163,12.2071
3000.0000,-2.8700,-5.2779,-8.0123,-3.6973,0.0482,-9.4592,-12.1485,-7.6493,-1.4116,0.1032,-0.8664,9.8932,17.0008,14.4236,4.3973,7.4682,14.3675,2.4784,13.2016
3003.9062,-1.2900,-4.9261,-6.1264,-2.2303,1.3991,-6.9807,-9.3794,-4.9602,-1.5561,-1.1174,-1.8069,9.8375,17.3942,16.9836,2.8697,7.4628,16.4757,2.8870,12.7957
3007.8125,-0.2274,-3.6310,-3.7408,-0.8038,2.4962,-3.6890,-5.6468,-2.2514,-1.1214,-1.8947,-1.0155,8.9613,16.5532,18.0144,1.5550,6.7933,16.5587,2.7246,10.9198
3011.7188,0.4568,-1.4219,-1.7975,-0.1808,2.6761,-0.3307,-1.8769,-0.6172,-0.2956,-1.7508,1.1365,7.0366,14.0464,17.1732,1.0130,6.0940,14.6646,1.5701,7.6952
3015.6250,1.0561,1.2874,-0.8509,-0.6568,1.7201,2.4747,1.2112,-0.3422,0.6322,-0.6071,3.5581,4.1422,9.7618,14.5409,1.3144,5.7104,11.3684,-0.6631,3.4534
3019.5312,1.6852,3.7649,-0.9088,-2.0147,-0.0901,4.3148,3.1907,-0.9161,1.3586,1.1296,4.9662,0.7052,4.2018,10.6001,2.0072,5.4322,7.4728,-3.5877,-1.2511
3023.4375,2.2120,5.2874,-1.5187,-3.7024,-2.1556,4.9968,3.9129,-1.5050,1.7134,2.8000,4.5926,-2.5765,-1.5210,6.0664,2.4507,4.7040,3.6786,-6.3732,-5.6482
