Time,Fp1,F3,C3,P3,O1,F7,T3,T5,Fz,Fp2,F4,C4,P4,O2,F8,T4,T6,Cz,Pz
0.0000,-0.6228,-1.5527,-5.0428,-9.9538,-12.4710,-1.4158,-2.9024,-7.0583,-1.2819,1.4736,-0.1081,-3.2171,-11.1947,-13.4675,2.6787,-0.6216,-8.7363,-3.5731,-9.8435
3.9062,-1.6667,-3.0984,-6.5952,-10.7659,-11.0586,-2.2003,-3.1279,-5.9671,-2.5429,0.4527,-0.9805,-4.7508,-12.9031,-13.9774,1.7573,-0.9361,-10.0359,-5.5591,-10.5821
7.8125,-3.1523,-4.8158,-7.4138,-9.9627,-7.3056,-3.2728,-2.7225,-3.4533,-3.9594,-1.2292,-2.3554,-6.1887,-13.7682,-12.9468,0.3695,-1.3746,-10.7567,-7.2901,-9.8303
11.7188,-4.6613,-5.9777,-6.4786,-6.4201,-0.8222,-4.3207,-1.4794,0.6639,-4.9123,-3.0177,-3.7165,-6.5608,-12.3885,-9.4560,-0.9106,-1.5099,-9.9483,-7.5214,-6.5242
15.6250,-5.6685,-6.0857,-3.4047,0.0801,7.8857,-5.0348,0.4650,6.0172,-4.9253,-4.2132,-4.4267,-5.1681,-7.8335,-3.2732,-1.4802,-0.9388,-7.0107,-5.4218,-0.3397
19.5312,-5.8500,-5.2467,1.2034,8.5593,17.4918,-5.3280,2.6731,11.7480,-4.0193,-4.4637,-4.1457,-2.0507,-0.2027,4.9569,-1.1481,0.3978,-2.0489,-1.1657,7.9909
23.4375,-5.3438,-4.1954,5.9415,17.1865,26.3309,-5.4389,4.6074,16.8163,-2.8022,-4.1018,-3.1064,1.9447,9.2922,13.9598,-0.3391,2.1036,4.1204,3.9920,16.8747
27.3438,-4.7715,-3.8955,9.2728,24.0825,33.0425,-5.8229,5.8632,20.4046,-2.1751,-4.0386,-2.0216,5.5875,18.8027,22.3749,0.1347,3.5538,10.3446,8.2750,24.4945
31.2500,-4.9430,-4.9383,10.3002,28.1209,37.0326,-6.8666,6.2937,22.1904,-2.7976,-5.2103,-1.6413,7.9334,26.6320,29.2828,-0.3735,4.3325,15.6819,10.2852,29.5515
35.1562,-6.3732,-7.1232,9.1810,29.2619,38.5201,-8.5975,5.9779,22.3381,-4.6406,-7.8954,-2.2432,8.8202,31.8903,34.4219,-1.8389,4.5647,19.7910,9.7118,31.7137
39.0625,-8.8948,-9.5158,6.9352,28.2602,38.1732,-10.5875,5.0855,21.2336,-6.9384,-11.3572,-3.4161,8.8614,34.6584,38.0010,-3.4854,4.8655,22.9231,7.4128,31.5366
42.9688,-11.6404,-10.9809,4.7675,25.9855,36.5751,-12.1448,3.7481,19.1453,-8.6127,-14.0937,-4.3136,8.9406,35.5988,40.2682,-4.2391,5.8926,25.5275,4.8217,29.9338
46.8750,-13.4638,-10.8768,3.3243,22.8244,33.8395,-12.7023,2.0133,16.0366,-8.9266,-14.6024,-4.2323,9.5386,35.3007,41.1339,-3.4431,7.7976,27.7364,3.0528,27.5326
50.7812,-13.5858,-9.4713,2.3444,18.5442,29.5886,-12.1690,-0.1156,11.6552,-7.9522,-12.2293,-3.1241,10.3448,33.7978,40.0966,-1.3532,9.9803,29.0852,2.2691,24.3084
54.6875,-12.0748,-7.8070,0.9131,12.6693,23.2941,-11.0133,-2.6109,5.8418,-6.5368,-7.5971,-1.6822,10.4118,30.5726,36.5201,0.9443,11.3673,28.6802,1.6918,19.7108
58.5938,-9.8364,-7.0830,-1.8449,5.0841,14.7781,-10.0014,-5.3694,-1.1426,-5.7682,-2.3563,-0.9211,8.7588,25.0374,30.0955,2.1704,11.0690,25.7403,0.2178,13.1976
62.5000,-8.0845,-7.9249,-6.0624,-3.5560,4.5998,-9.7341,-8.1890,-8.4843,-6.2715,1.6023,-1.5166,5.0413,17.1680,21.2182,1.6458,8.9896,20.1898,-2.7711,4.8488
66.4062,-7.5978,-9.9842,-10.8485,-11.8701,-5.8797,-10.2587,-10.7542,-14.9796,-7.7865,3.0297,-3.3363,-0.1236,7.8687,11.0665,-0.2748,5.9667,12.9306,-6.9143,-4.3152
70.3125,-8.2307,-12.1028,-14.6094,-18.2210,-14.8006,-11.0012,-12.6310,-19.4181,-9.2973,1.8308,-5.4660,-5.3638,-1.1851,1.3316,-2.4058,3.3290,5.6032,-10.9771,-12.5213
74.2188,-8.9976,-12.9363,-15.8003,-21.3262,-20.3600,-11.0715,-13.3126,-20.9971,-9.6287,-1.0119,-6.7093,-9.1512,-8.1593,-6.2778,-3.4333,2.1422,-0.0588,-13.4560,-17.8659
78.1250,-8.6918,-11.6648,-13.7007,-20.6879,-21.4020,-9.7697,-12.3627,-19.5724,-8.1314,-3.9887,-6.2405,-10.4523,-11.7910,-10.5468,-2.6670,2.6221,-2.9432,-13.3049,-19.0662
82.0312,-6.6471,-8.3953,-8.7990,-16.6711,-17.8165,-6.9994,-9.6408,-15.6567,-5.0330,-5.7478,-4.0159,-9.1021,-11.8460,-11.0837,-0.3857,4.0670,-2.9748,-10.3830,-15.9724
85.9375,-3.1621,-4.0597,-2.5935,-10.2755,-10.5955,-3.3521,-5.5017,-10.2026,-1.2664,-5.5827,-0.7303,-5.7694,-9.0859,-8.3648,2.3957,5.3227,-1.0361,-5.4422,-9.6012
89.8438,0.6784,0.0855,3.0773,-2.7762,-1.5157,0.1765,-0.8102,-4.2932,2.0795,-3.5602,2.6010,-1.5990,-4.8120,-3.5024,4.5406,5.4622,1.5324,0.2586,-1.6974
93.7500,3.6490,3.0525,6.8294,4.5996,7.4408,2.6648,3.3148,1.1360,4.3212,-0.3405,5.1480,2.2565,-0.2622,2.1602,5.3848,4.2664,3.5786,5.4553,5.9472
97.6562,5.0675,4.4916,8.2671,10.8907,14.7115,3.6701,5.9552,5.4760,5.4214,3.1489,6.5723,5.0199,3.8300,7.4795,4.9764,2.2628,4.6121,9.2663,12.0958
101.5625,5.0830,4.6880,8.0195,15.5279,19.5820,3.3509,6.8176,8.5114,5.8188,6.0258,7.0187,6.4761,7.3436,11.8150,3.8872,0.3682,4.9080,11.3602,16.3432
105.4688,4.4170,4.2582,7.2996,18.3886,22.2508,2.2771,6.3703,10.3877,6.0204,7.6722,6.8767,6.9421,10.5754,15.1073,2.7836,-0.6069,5.2393,11.9272,19.0028
109.3750,3.7819,3.7589,7.2336,19.7654,23.5262,1.0730,5.5790,11.4943,6.2531,7.8451,6.5013,7.0572,13.9113,17.7174,2.0456,-0.3204,6.4066,11.5223,20.7306
113.2812,3.3987,3.4263,8.3011,20.2130,24.3190,0.1084,5.3660,12.2799,6.3842,6.6903,6.0511,7.4675,17.5467,20.1139,1.6363,1.0163,8.8002,10.8331,22.1094
117.1875,2.9367,3.1519,10.1513,20.2889,25.1865,-0.5985,6.0974,13.0481,6.1127,4.6668,5.4931,8.5158,21.3621,22.5619,1.2395,2.8012,12.1895,10.4174,23.3858
121.0938,1.8850,2.6600,11.8552,20.2877,26.1397,-1.2486,7.3979,13.8132,5.2580,2.3972,4.7234,10.0702,24.9541,24.9622,0.5373,4.3369,15.8141,10.4761,24.4383
125.0000,0.0612,1.7536,12.4388,20.1125,26.7648,-2.0100,8.4036,14.3000,3.9373,0.4831,3.7139,11.5874,27.7640,26.9070,-0.5469,5.1279,18.7159,10.7646,24.9218
128.9062,-2.1202,0.4870,11.4039,19.3713,26.5345,-2.8157,8.2947,14.1096,2.5262,-0.6502,2.6012,12.3970,29.2347,27.8999,-1.7641,5.0780,20.1457,10.7150,24.4639
132.8125,-3.8117,-0.8228,8.9716,17.6540,25.0980,-3.3353,6.7896,12.9755,1.4496,-0.8295,1.6708,12.0595,28.9546,27.6029,-2.6458,4.5151,19.8545,9.7439,22.8081
136.7188,-4.2168,-1.7411,5.9373,14.8196,22.3901,-3.1376,4.3123,10.9601,0.9449,-0.1209,1.2281,10.5870,26.7616,25.9669,-2.7474,4.0087,18.1349,7.5902,19.8631
140.6250,-3.0695,-1.9404,3.2372,11.1140,18.5539,-1.9531,1.7514,8.4592,0.9370,1.2323,1.4036,8.3883,22.7905,23.1913,-1.9180,4.0284,15.6061,4.4867,15.6946
144.5312,-0.8028,-1.3890,1.4732,7.0479,13.8020,0.1098,-0.0290,5.9942,1.0791,2.8715,1.9927,5.9749,17.4493,19.5688,-0.4581,4.6038,12.8689,1.0476,10.5154
148.4375,1.6813,-0.4060,0.6505,3.1327,8.3709,2.5203,-0.6326,3.9176,0.9268,4.3712,2.4546,3.6334,11.3271,15.3425,0.9417,5.2019,10.2242,-2.0598,4.7022
152.3438,3.4725,0.4558,0.2572,-0.3302,2.6173,4.4935,-0.2839,2.2350,0.1525,5.2958,2.1316,1.2988,5.0668,10.6813,1.4972,4.9599,7.6097,-4.4487,-1.1856
156.2500,4.0606,0.6557,-0.3777,-3.2550,-2.8404,5.3078,0.3725,0.6792,-1.2935,5.3014,0.6197,-1.2792,-0.7462,5.7810,0.7409,3.1998,4.7792,-6.1338,-6.4347
160.1562,3.4763,-0.0732,-1.6546,-5.5808,-7.1048,4.6308,0.6895,-0.9922,-3.1399,4.2709,-1.9143,-4.1956,-5.6402,1.0027,-1.1760,-0.0654,1.6008,-7.3717,-10.2930
164.0625,2.1496,-1.5728,-3.4377,-7.0511,-9.2118,2.6987,0.4058,-2.6774,-4.8877,2.4158,-4.6960,-7.1301,-9.2512,-3.0748,-3.4939,-3.9793,-1.7205,-8.3493,-12.1494
167.9688,0.6283,-3.3003,-5.0857,-7.1648,-8.5102,0.2547,-0.2072,-3.8297,-6.0055,0.2583,-6.6747,-9.3715,-11.2907,-5.7556,-5.2131,-7.1968,-4.6356,-8.9527,-11.7105
171.8750,-0.6576,-4.5515,-5.7533,-5.3875,-5.0019,-1.7384,-0.5137,-3.6886,-6.1438,-1.5450,-7.0730,-10.1322,-11.5336,-6.4433,-5.6382,-8.5669,-6.4631,-8.7845,-9.0885
175.7812,-1.4899,-4.7627,-4.8013,-1.5151,0.5817,-2.4939,0.0996,-1.7322,-5.2732,-2.4785,-5.8315,-8.9573,-9.8531,-4.8593,-4.7774,-7.7291,-6.6847,-7.4145,-4.7563
179.6875,-1.8356,-3.7545,-2.1148,4.0450,7.0427,-1.7313,1.8253,1.9282,-3.6772,-2.4051,-3.6536,-5.9771,-6.2932,-1.1491,-3.3372,-5.2419,-5.1556,-4.6906,0.6076
183.5938,-1.7854,-1.8051,1.8116,10.2820,13.1900,0.2057,4.2459,6.4771,-1.8082,-1.6335,-1.6023,-1.8667,-1.1409,4.1614,-2.2975,-2.1806,-2.1307,-0.9041,6.3038
187.5000,-1.5135,0.4672,6.0439,15.9117,18.2550,2.4944,6.4706,10.7192,-0.0919,-0.7696,-0.4961,2.4256,5.0435,10.3105,-2.3280,0.4972,1.8616,3.2748,11.7380
191.4062,-1.2498,2.3527,9.5450,19.8593,22.0231,4.1803,7.5549,13.6228,1.2054,-0.4238,-0.4947,6.0005,11.4648,16.4558,-3.4174,2.3724,6.1877,7.0300,16.4443
195.3125,-1.2214,3.3159,11.5367,21.6324,24.6409,4.5776,6.9991,14.7610,1.9854,-0.9278,-1.1337,8.2246,17.2079,21.7843,-4.9459,3.5162,10.2231,9.6501,20.0360
199.2188,-1.5447,3.1817,11.7509,21.3979,26.2682,3.5578,5.0627,14.4036,2.2353,-2.1950,-1.7474,8.8111,21.4159,25.5854,-6.1313,4.0937,13.4015,10.6948,22.1648
203.1250,-2.1195,2.1859,10.4926,19.7607,26.8366,1.6123,2.7008,13.2389,1.9614,-3.7787,-1.9507,7.8341,23.5014,27.3392,-6.5292,4.0116,15.2612,10.0652,22.5607
207.0312,-2.6119,0.8897,8.5047,17.4157,26.0791,-0.3350,1.1197,11.9340,1.2179,-5.0745,-1.8277,5.7328,23.3287,26.8418,-6.2511,2.9423,15.5398,8.0283,21.1569
210.9375,-2.5791,-0.0090,6.6833,14.8839,23.7933,-1.2909,1.1616,10.8203,0.2151,-5.5636,-1.7198,3.2680,21.2831,24.3182,-5.7860,0.7163,14.2906,5.2099,18.2201
214.8438,-1.7042,0.0808,5.7388,12.4410,20.1236,-0.5945,2.8452,9.8676,-0.6178,-4.9969,-1.8283,1.3349,18.1578,20.4196,-5.6002,-2.2723,11.9194,2.5012,14.3677
218.7500,-0.0197,1.4116,5.9173,10.1974,15.6356,1.7974,5.3221,8.8938,-0.7399,-3.4739,-1.9892,0.6059,14.8537,16.0341,-5.8384,-5.0641,9.0498,0.8087,10.3964
222.6562,2.0173,3.7555,6.8923,8.1939,11.1022,5.2583,7.2914,7.8046,0.2150,-1.4143,-1.8271,1.1431,11.9967,11.9450,-6.3335,-6.6471,6.2416,0.6801,6.9680
226.5625,3.6677,6.4308,7.8885,6.4156,7.1345,8.7076,7.6592,6.6735,2.1329,0.5587,-1.1643,2.2418,9.6580,8.4998,-6.8733,-6.6589,3.7123,1.9780,4.3102
230.4688,4.2246,8.5255,8.0175,4.7401,3.9132,11.0215,6.0877,5.6326,4.3295,1.7972,-0.3247,2.7030,7.3514,5.4902,-7.4617,-5.7367,1.2540,3.8421,2.1256
234.3750,3.3518,9.2652,6.7053,2.9318,1.2113,11.4784,3.1460,4.7122,5.8156,1.8357,-0.0248,1.4783,4.3513,2.3507,-8.3272,-5.1764,-1.5639,5.0581,-0.1951
238.2812,1.2774,8.3759,4.0235,0.7735,-1.2941,10.0515,-0.0011,3.8014,5.8237,0.5668,-0.8684,-1.6567,0.1880,-1.4017,-9.6564,-6.0626,-5.0088,4.7010,-3.1383
242.1875,-1.2643,6.2581,0.7527,-1.6955,-3.6323,7.4136,-2.1694,2.7913,4.2931,-1.6908,-2.8033,-5.8339,-4.9517,-5.7265,-11.2814,-8.4574,-8.8584,2.6966,-6.6498
246.0938,-3.3271,3.8545,-1.8921,-3.9925,-5.3445,4.6463,-2.6764,1.7882,1.9864,-4.2878,-4.9802,-9.4607,-10.1610,-9.8881,-12.6151,-11.2469,-12.3596,-0.0634,-9.9976
250.0000,-4.1578,2.2392,-2.7751,-5.2394,-5.6367,2.7830,-1.5473,1.2002,0.1162,-6.4922,-6.1902,-11.0534,-14.1445,-12.6816,-12.9510,-12.8061,-14.5244,-2.1729,-12.0300
253.9062,-3.5267,2.1163,-1.3600,-4.5014,-3.8074,2.3933,0.6491,1.5849,-0.3244,-7.7879,-5.6288,-10.0446,-15.7670,-12.9559,-11.9523,-12.0575,-14.5926,-2.4884,-11.7145
257.8125,-1.8348,3.4828,2.0254,-1.2775,0.3059,3.3929,3.1834,3.3220,0.8712,-8.0825,-3.4632,-7.0608,-14.5133,-10.1558,-9.9741,-9.2017,-12.3829,-0.7665,-8.6638
261.7188,0.0517,5.6366,6.3234,4.1295,6.1301,5.1448,5.5224,6.3283,3.0123,-7.7120,-0.7880,-3.4985,-10.6180,-4.5944,-7.9524,-5.6093,-8.3343,2.2289,-3.3536
265.6250,1.1658,7.5253,10.2183,10.6020,12.5282,6.7751,7.4772,10.0149,4.9185,-7.2412,1.0264,-0.6803,-4.8432,2.6733,-6.8914,-2.9445,-3.2461,5.2012,3.0805
269.5312,0.8386,8.2506,12.6980,16.5950,18.2337,7.5382,9.1068,13.5287,5.5870,-7.1729,1.1578,0.8565,1.9010,10.2792,-7.2716,-2.1259,2.0857,7.0555,9.3294
273.4375,-1.0392,7.4582,13.4133,20.7316,22.3044,7.0675,10.4857,16.1212,4.7004,-7.7290,-0.2273,1.4988,8.8313,17.0252,-8.7775,-2.8229,7.1029,7.4210,14.3939
277.3438,-3.9921,5.4286,12.6640,22.3028,24.3705,5.4390,11.5009,17.4141,2.6900,-8.8108,-2.1973,2.0837,15.3306,22.1881,-10.5258,-3.7999,11.4874,6.6621,17.8127
281.2500,-7.1573,2.8593,11.0676,21.4334,24.6056,3.0701,11.8038,17.4222,0.3713,-10.1311,-3.7472,3.1913,20.8296,25.5584,-11.6379,-3.8216,15.0188,5.4491,19.5847
285.1562,-9.5957,0.5000,9.1506,18.8869,23.5125,0.5405,10.9481,16.3826,-1.5597,-11.3985,-4.4425,4.7156,24.7431,27.2924,-11.7657,-2.4661,17.4694,4.2477,19.9332
289.0625,-10.5817,-1.1468,7.1277,15.6738,21.6913,-1.5866,8.6460,14.5711,-2.8316,-12.4278,-4.5667,5.9957,26.6061,27.7273,-11.2258,-0.3070,18.6584,3.1057,19.1310
292.9688,-9.7782,-1.9260,4.9825,12.6898,19.6978,-2.8995,5.0163,12.2543,-3.5492,-13.1216,-4.7117,6.3717,26.3541,27.2586,-10.6782,1.5994,18.6169,1.8458,17.4911
296.8750,-7.2845,-1.9464,2.7390,10.5221,17.9838,-3.2244,0.6855,9.7755,-3.9107,-13.3860,-5.1734,5.7258,24.5079,26.2667,-10.5998,2.4912,17.6918,0.4495,15.4487
300.7812,-3.5899,-1.4322,0.6735,9.4086,16.8336,-2.6576,-3.3401,7.6200,-3.9597,-13.0939,-5.6462,4.5940,22.0309,25.0233,-10.9343,2.3693,16.4319,-0.7337,13.5512
304.6875,0.5275,-0.6317,-0.7392,9.2495,16.2486,-1.5316,-6.0227,6.3046,-3.5777,-12.1647,-5.4638,3.7607,19.8421,23.5487,-11.1567,1.8508,15.2691,-1.1651,12.2483
308.5938,4.1513,0.1852,-1.1418,9.6060,15.8324,-0.3057,-6.7288,6.0871,-2.7049,-10.7122,-4.2063,3.6260,18.2442,21.4998,-10.6979,1.5706,14.1882,-0.5800,11.5679
312.5000,6.4398,0.7038,-0.6525,9.7306,14.8187,0.5959,-5.5497,6.6867,-1.5814,-9.1320,-2.2019,3.8056,16.6565,18.2307,-9.4244,1.6070,12.6392,0.6237,10.9245
316.4062,6.8792,0.6048,0.0292,8.7354,12.3461,0.9350,-3.3134,7.2742,-0.7773,-8.0097,-0.5156,3.2655,13.8963,13.1059,-7.8362,1.3579,9.8155,1.4095,9.2864
320.3125,5.4967,-0.3029,-0.0809,5.9464,7.9296,0.7277,-1.2348,6.8451,-0.9364,-7.8577,-0.3833,0.9324,8.9116,5.9767,-6.8394,-0.0514,5.1848,0.6051,5.7123
324.2188,2.9134,-1.9282,-1.6767,1.3293,1.9038,0.1990,-0.3394,4.8201,-2.3783,-8.8222,-2.4455,-3.5925,1.5528,-2.4338,-7.2261,-3.1248,-1.0288,-2.3922,-0.0077
328.1250,0.1568,-3.8395,-4.6486,-4.2586,-4.4549,-0.3415,-0.9519,1.5123,-4.8194,-10.5522,-6.2793,-9.6506,-7.0940,-10.5180,-9.1733,-7.5521,-7.7158,-7.1438,-7.0010
332.0312,-1.7284,-5.3783,-7.9795,-9.2217,-9.2937,-0.6233,-2.5342,-1.8784,-7.4100,-12.3350,-10.5293,-15.7000,-15.0478,-16.2554,-12.0589,-12.2423,-13.2214,-12.2429,-13.5204
335.9375,-2.1070,-5.9165,-10.1717,-11.8114,-10.9379,-0.4745,-3.9853,-3.8133,-9.0897,-13.4336,-13.5511,-19.9419,-20.2793,-18.0096,-14.6988,-15.7868,-16.0049,-15.9151,-17.6623
339.8438,-1.0034,-5.1305,-10.0005,-10.9077,-8.6834,0.1850,-4.2549,-3.2316,-9.0725,-13.4265,-14.1793,-21.0624,-21.5980,-15.2713,-15.8790,-17.0596,-15.2868,-16.8215,-18.2287
343.7500,0.9565,-3.1498,-7.1788,-6.5920,-3.2036,1.3600,-2.9318,-0.1622,-7.2076,-12.3562,-12.1993,-18.7307,-19.0984,-8.9508,-14.9092,-15.6349,-11.3652,-14.6396,-15.2673
347.6562,2.8760,-0.5060,-2.5524,-0.1801,3.6838,2.9526,-0.4730,4.2408,-4.0440,-10.6242,-8.3273,-13.6619,-13.9620,-1.0398,-11.9308,-11.8674,-5.4612,-10.1484,-9.9973
351.5625,4.0060,2.0816,2.2917,6.3407,9.8054,4.6970,2.0544,8.2781,-0.5890,-8.7382,-3.7988,-7.2792,-7.7862,6.2130,-7.8507,-6.6847,0.8059,-4.8246,-4.1778
355.4688,4.0282,3.9710,5.7857,11.1906,13.5896,6.1355,3.5684,10.5728,2.1079,-7.0959,0.1592,-1.1652,-1.8481,11.2154,-3.9490,-1.2566,6.0511,-0.1917,0.7207
359.3750,3.0817,4.7979,7.0956,13.5372,14.7019,6.7210,3.5543,10.7287,3.3576,-5.9234,2.7221,3.4667,3.3102,13.5931,-1.3500,3.3198,9.5828,2.7617,4.1017
363.2812,1.5762,4.5478,6.4183,13.7194,14.0396,6.0565,2.3114,9.4217,3.0650,-5.3459,3.6261,6.1069,7.8255,14.1504,-0.5923,6.2590,11.5177,3.8637,6.3107
367.1875,-0.0519,3.5047,4.7387,12.8726,13.1145,4.1586,0.7380,7.9069,1.7183,-5.4589,3.1259,7.0029,12.1150,14.2880,-1.4752,7.2462,12.5488,3.6739,8.2118
371.0938,-1.4877,2.1234,3.2250,12.1995,13.1750,1.5695,-0.1979,7.2592,0.1474,-6.2926,1.8302,6.9315,16.4155,15.1962,-3.2291,6.4992,13.4991,3.1159,10.5536
375.0000,-2.5461,0.8739,2.6122,12.3062,14.5421,-0.8031,0.0072,7.7948,-0.8484,-7.6838,0.4708,6.7823,20.5124,17.2264,-4.9088,4.6931,14.8658,2.9986,13.4763
378.9062,-3.1065,0.0991,2.8956,12.9519,16.4926,-2.0790,1.1460,8.9763,-0.8539,-9.1849,-0.3558,7.1140,23.7605,19.7317,-5.8106,2.7238,16.5474,3.6265,16.3995
382.8125,-3.0803,-0.0808,3.4586,13.3043,17.7151,-1.8327,2.4527,9.8091,-0.0087,-10.1445,-0.4075,7.8841,25.3428,21.4217,-5.7117,1.3679,17.8710,4.6666,18.3159
386.7188,-2.4540,0.2130,3.5143,12.5091,17.0572,-0.3076,3.0480,9.4568,1.0980,-9.9695,0.1266,8.4924,24.6252,21.0378,-4.8317,0.9814,17.9131,5.3413,18.3138
390.6250,-1.3584,0.6908,2.5953,10.2314,14.1553,1.7151,2.4206,7.7177,1.7709,-8.4263,0.7618,8.1398,21.4627,18.0122,-3.5792,1.3929,15.9836,4.8767,16.0615
394.5312,-0.0750,1.0354,0.8238,6.8759,9.6340,3.3242,0.6972,5.1201,1.6132,-5.7831,1.0232,6.3228,16.3461,12.8011,-2.2635,2.0555,12.0509,2.9840,12.0227
398.4375,1.0614,1.0477,-1.1590,3.3980,4.8141,3.9271,-1.4228,2.6331,0.7574,-2.6937,0.7451,3.1922,10.3338,6.7448,-0.9633,2.3789,6.8938,0.1038,7.3069
402.3438,1.8132,0.7213,-2.5381,0.8454,1.1218,3.4923,-3.0121,1.1906,-0.2278,0.1027,0.1628,-0.4422,4.7702,1.5325,0.3751,2.0549,1.8770,-2.7589,3.2305
406.2500,2.1336,0.2116,-2.7383,-0.1034,-0.4799,2.4761,-3.3480,1.2965,-0.7086,2.0700,-0.2825,-3.4759,0.8724,-1.4682,1.7074,1.1973,-1.5685,-4.5497,0.7974
410.1562,2.1334,-0.2713,-1.6800,0.6345,0.2229,1.5196,-2.2118,2.8878,-0.4025,2.9879,-0.2943,-5.0397,-0.6662,-1.7019,2.7309,0.2349,-2.5209,-4.7405,0.3461
414.0625,1.9499,-0.5657,0.2490,2.6368,2.7728,1.1202,0.0845,5.4733,0.4405,2.8787,0.0382,-4.8878,0.1172,0.4754,2.9596,-0.3572,-0.9205,-3.6066,1.5245
417.9688,1.6299,-0.5890,2.4632,5.2851,6.3698,1.4559,2.9268,8.4175,1.2256,1.8784,0.3132,-3.4258,2.5403,4.0944,2.0265,-0.3169,2.4687,-2.0118,3.5842
421.8750,1.1258,-0.2943,4.5171,8.0921,10.2410,2.4088,5.7306,11.2001,1.4529,0.2000,0.1745,-1.3889,5.6179,8.0785,0.0249,0.3011,6.4519,-0.8208,5.8162
425.7812,0.4107,0.3854,6.3031,10.8630,13.8713,3.7034,8.1728,13.5350,1.1092,-1.7901,-0.3096,0.6090,8.4931,11.6806,-2.3675,1.2164,9.9303,-0.3155,7.8782
429.6875,-0.3948,1.5259,8.0015,13.6324,17.0371,5.0331,10.1977,15.3374,0.7262,-3.5077,-0.5653,2.3712,10.7375,14.6490,-4.1190,2.1280,12.2966,-0.0078,9.8422
433.5938,-1.0095,3.1207,9.8341,16.4589,19.7004,6.1165,11.8307,16.6151,1.0441,-4.2520,0.1543,4.0984,12.3907,17.1019,-4.3384,2.8974,13.5310,1.0124,11.9715
437.5000,-1.1345,4.9755,11.8010,19.2322,21.8760,6.7096,12.9677,17.3746,2.4942,-3.4989,2.2164,6.1074,13.7599,19.2524,-2.7516,3.6032,14.0163,3.4143,14.4050
441.4062,-0.6640,6.6943,13.5866,21.6228,23.5516,6.6423,13.3285,17.5936,4.8511,-1.2218,5.2303,8.5038,15.1342,21.1847,0.1322,4.4446,14.2287,7.0858,16.9715
445.3125,0.1979,7.8083,14.7030,23.1929,24.6668,5.8961,12.6343,17.2437,7.2956,1.9995,8.1456,11.0243,16.5882,22.7962,3.2755,5.5640,14.4891,11.0798,19.2479
449.2188,1.0171,7.9915,14.7682,23.5848,25.1181,4.6644,10.8867,16.3185,8.8580,5.2116,9.8095,13.1347,17.9632,23.8840,5.6398,6.9012,14.8705,14.0879,20.7967
453.1250,1.3719,7.2265,13.7279,22.6637,24.7608,3.3100,8.5146,14.8335,8.9525,7.5494,9.6340,14.2981,18.9927,24.2653,6.6695,8.1743,15.2485,15.1402,21.3995
457.0312,1.0982,5.8031,11.8681,20.5484,23.4309,2.1989,6.2270,12.8145,7.6673,8.6389,7.9306,14.2436,19.4667,23.8406,6.4639,9.0080,15.4152,14.0981,21.1317
460.9375,0.3754,4.1495,9.6280,17.5486,21.0313,1.4989,4.6246,10.3159,5.6502,8.6848,5.6953,13.0947,19.3490,22.6006,5.5795,9.1492,15.1953,11.6636,20.2610
464.8438,-0.3976,2.6129,7.3658,14.0869,17.6911,1.0894,3.8280,7.4932,3.7068,8.2148,4.0047,11.3204,18.8164,20.6469,4.6433,8.6443,14.5423,8.9493,19.0906
468.7500,-0.8348,1.3477,5.2607,10.6590,13.9179,0.6743,3.4150,4.6913,2.4017,7.7011,3.4398,9.5624,18.2321,18.2663,4.0459,7.8655,13.6127,6.9139,17.8800
472.6562,-0.7421,0.3754,3.4098,7.8120,10.6008,0.0397,2.7559,2.4572,1.9016,7.3480,3.9048,8.4173,18.0561,15.9970,3.8866,7.3409,12.7832,5.9944,16.8730
476.5625,-0.1390,-0.2610,2.0063,6.0664,8.7585,-0.7263,1.5373,1.4006,2.0930,7.1752,4.8960,8.2365,18.6816,14.5566,4.1271,7.4627,12.5534,6.0812,16.3309
480.4688,0.8425,-0.4076,1.4013,5.7430,9.0732,-1.2360,0.0857,1.9133,2.8025,7.2613,5.9496,8.9839,20.2104,14.5554,4.7648,8.2314,13.3081,6.7443,16.4476
484.3750,2.0608,0.1142,1.9322,6.7519,11.4340,-1.0637,-0.7917,3.8804,3.9055,7.8743,6.9020,10.2028,22.2583,16.0947,5.8520,9.1995,15.0255,7.4997,17.1446
488.2812,3.3726,1.2950,3.6074,8.4989,14.7941,-0.1032,-0.3892,6.5766,5.2539,9.3214,7.7934,11.1421,23.9442,18.5119,7.3446,9.6793,17.1126,7.9629,17.9072
492.1875,4.5639,2.7801,5.8947,10.0486,17.5273,1.2439,1.2917,8.8787,6.5402,11.6148,8.5671,11.0546,24.1767,20.5324,8.9400,9.1222,18.5493,7.8886,17.8780
496.0938,5.3230,3.9433,7.8413,10.5427,18.1934,2.2269,3.3821,9.7521,7.2955,14.2516,8.8933,9.5750,22.1861,20.8647,10.0932,7.4591,18.3561,7.1850,16.2781
500.0000,5.3528,4.2083,8.5380,9.6774,16.3318,2.1940,4.6176,8.7820,7.1041,16.3573,8.3323,6.9903,18.0455,18.9564,10.2696,5.1953,16.1735,5.9634,12.9632
503.9062,4.5948,3.4311,7.6701,7.9490,12.8110,1.0510,4.1687,6.4450,5.9164,17.1619,6.7422,4.2089,12.8411,15.4420,9.2922,3.1861,12.5938,4.5769,8.7441
507.8125,3.4006,2.0706,5.7876,6.4655,9.4603,-0.5915,2.2582,3.9279,4.2093,16.4928,4.5902,2.3731,8.2941,11.9266,7.5334,2.2138,8.9748,3.5475,5.1682
511.7188,2.4710,0.9861,4.0650,6.3717,8.1200,-1.7238,0.0938,2.5462,2.8168,14.9098,2.8513,2.2785,5.9574,10.1440,5.7834,2.6097,6.7612,3.3443,3.7862
515.6250,2.5262,0.9524,3.6502,8.1968,9.6183,-1.5328,-0.8933,3.0608,2.4858,13.3537,2.4854,3.9223,6.4108,10.9493,4.8430,4.1366,6.6796,4.1145,5.2885
519.5312,3.8771,2.1889,4.9875,11.5094,13.2728,0.0816,-0.0127,5.2725,3.4312,12.5433,3.8233,6.4712,8.9404,13.7677,5.0910,6.1828,8.3032,5.5561,9.0455
523.4375,6.1821,4.2123,7.5423,15.1050,17.2360,2.4140,2.1890,8.1335,5.1986,12.5563,6.3058,8.7047,11.9332,16.8779,6.3017,8.1187,10.2963,7.0600,13.3769
527.3438,8.5848,6.1170,10.1075,17.6278,19.5047,4.3625,4.2677,10.3178,6.9441,12.8964,8.7898,9.6937,13.7816,18.3925,7.8238,9.5787,11.2250,8.0604,16.4268
531.2500,10.1842,7.1019,11.5010,18.2604,19.0099,5.0856,4.8517,10.9259,7.9488,12.9757,10.2299,9.3015,13.7630,17.3475,8.9863,10.5006,10.4426,8.3689,17.1328
535.1562,10.5486,6.8984,11.2112,17.0779,16.1448,4.4876,3.5818,9.9221,8.0170,12.6177,10.2695,8.1936,12.3634,14.2290,9.4528,10.9423,8.4823,8.2486,15.7073
539.0625,9.9358,5.8313,9.6007,14.8816,12.4408,3.2182,1.3716,8.0663,7.4878,12.1710,9.3344,7.3457,10.8590,10.6243,9.2992,10.8534,6.6940,8.1639,13.3607
542.9688,9.0637,4.5029,7.5775,12.6577,9.6219,2.1947,-0.1971,6.4090,6.8710,12.1361,8.1920,7.3652,10.4416,8.2393,8.8009,10.0035,6.3483,8.3757,11.4798
546.8750,8.5819,3.3472,5.9889,11.0240,8.6397,1.9712,0.0692,5.6736,6.3916,12.6037,7.3214,8.0643,11.4535,7.9190,8.1213,8.1346,7.7887,8.6772,10.8008
550.7812,8.6007,2.3741,5.1510,10.0000,9.2693,2.3787,2.1885,5.8979,5.7903,12.9740,6.5707,8.5612,13.2058,9.2739,7.1472,5.2276,10.1801,8.4773,11.0834
554.6875,8.6023,1.2700,4.7908,9.1899,10.4571,2.6736,5.0031,6.5272,4.5359,12.2310,5.3421,7.8415,14.4598,11.0915,5.5919,1.6706,12.0168,7.1914,11.4320
558.5938,7.8025,-0.2484,4.3766,8.1911,11.1231,2.0864,6.9372,6.8572,2.2939,9.6218,3.1407,5.4207,14.2250,12.1994,3.2749,-1.8143,12.0541,4.6765,10.9843
562.5000,5.7234,-2.1087,3.5584,6.9136,10.8565,0.3919,6.9687,6.5148,-0.7027,5.2714,0.0568,1.6907,12.3491,12.1804,0.3607,-4.4626,10.0648,1.4106,9.4843
566.4062,2.5950,-3.8386,2.3977,5.6005,10.0597,-1.8881,5.1662,5.6626,-3.6702,0.2801,-3.1912,-2.2530,9.5478,11.4949,-2.6262,-5.7948,6.9494,-1.7149,7.3820
570.3125,-0.6851,-4.8442,1.2586,4.5754,9.5043,-3.7898,2.4865,4.8120,-5.6950,-3.7975,-5.6827,-5.1862,6.9056,10.9931,-5.0301,-5.7855,4.1588,-3.8604,5.4536
574.2188,-3.0168,-4.8182,0.4829,3.9374,9.6593,-4.5172,0.0554,4.3963,-6.2838,-5.7732,-6.8721,-6.3787,5.2056,11.2119,-6.3866,-4.7947,2.8197,-4.6715,4.2445
578.1250,-3.6993,-3.9916,0.1141,3.4462,10.2839,-3.9534,-1.5172,4.4130,-5.6735,-5.4356,-6.9032,-5.9163,4.5153,11.9526,-6.6390,-3.3540,3.1098,-4.4237,3.7204
582.0312,-2.8064,-3.0517,-0.1303,2.6854,10.5648,-2.7381,-2.3294,4.3908,-4.6921,-3.5999,-6.4534,-4.5795,4.2477,12.4076,-6.1344,-1.9711,4.2336,-3.8204,3.3327
585.9375,-1.1206,-2.7711,-0.6341,1.3865,9.6895,-1.8644,-2.8364,3.7153,-4.2623,-1.6153,-6.2515,-3.3915,3.6031,11.7139,-5.4277,-1.0568,4.9567,-3.5883,2.4194
589.8438,0.3167,-3.5726,-1.5834,-0.3123,7.4596,-2.0579,-3.3088,2.1030,-4.8631,-0.6674,-6.6212,-3.1079,2.0864,9.5440,-5.0229,-0.9400,4.3344,-4.1095,0.6663
593.7500,0.7674,-5.2815,-2.8029,-1.8528,4.5314,-3.3269,-3.5559,-0.0930,-6.2734,-1.2674,-7.3485,-3.8965,-0.1980,6.3562,-5.1795,-1.8459,2.2091,-5.2627,-1.6490
597.6562,0.1618,-7.1900,-3.8294,-2.5030,2.1323,-4.9518,-3.1199,-1.9651,-7.7194,-3.1389,-7.9009,-5.3154,-2.5963,3.1821,-5.8422,-3.7630,-0.7554,-6.5067,-3.7476
601.5625,-0.9101,-8.3748,-4.1581,-1.7192,1.4319,-5.8999,-1.7569,-2.4988,-8.2979,-5.4534,-7.7868,-6.5427,-4.2159,1.1157,-6.6836,-6.2672,-3.4448,-7.1217,-4.7003
605.4688,-1.5443,-8.0957,-3.4984,0.5751,2.9405,-5.3995,0.2050,-1.1333,-7.4122,-7.2201,-6.7924,-6.7273,-4.3063,0.8210,-7.2237,-8.4866,-4.8214,-6.4905,-3.8429
609.3750,-1.0093,-6.0933,-1.9002,3.9311,6.2612,-3.3417,1.9398,1.8930,-5.0065,-7.6520,-4.9866,-5.3231,-2.5405,2.3026,-7.0007,-9.3525,-4.3391,-4.3318,-1.0691
613.2812,0.8728,-2.6876,0.2927,7.5501,10.2947,-0.3091,2.6087,5.6199,-1.5429,-6.4226,-2.5916,-2.3079,0.8824,4.9960,-5.7641,-8.0899,-2.1025,-0.8314,3.1107
617.1875,3.6214,1.3285,2.6058,10.5977,13.7547,2.7389,1.9228,8.8281,2.1937,-3.7847,0.1158,1.7777,5.3125,8.0662,-3.6287,-4.6878,1.2347,3.3658,7.7517
621.0938,6.3090,4.9497,4.6214,12.5198,15.7223,4.9229,0.3881,10.6356,5.3430,-0.5201,2.7958,5.9925,9.8597,10.7445,-1.1011,-0.0343,4.7490,7.3276,11.8220
625.0000,7.9889,7.2935,6.1179,13.2387,15.9980,5.8050,-0.9415,10.9050,7.1994,2.3159,5.0114,9.3251,13.6799,12.5808,1.0847,4.4344,7.5969,10.1492,14.5850
628.9062,8.1440,7.9152,7.1241,13.1587,15.1304,5.5110,-1.0489,10.2565,7.4080,3.8173,6.3051,11.0813,16.2550,13.5618,2.2866,7.4104,9.3236,11.3066,15.8639
632.8125,6.9443,6.9902,7.8793,12.9753,14.1376,4.6033,0.4874,9.6938,6.1050,3.6501,6.4173,11.1635,17.5578,14.0819,2.2746,8.3315,10.0207,10.8847,16.0661
636.7188,5.1734,5.2637,8.6997,13.3470,14.0344,3.7942,3.2823,10.0535,3.9321,2.2316,5.5096,10.0915,18.0094,14.7678,1.3586,7.5671,10.2481,9.5407,15.9359
640.6250,3.8354,3.7413,9.7851,14.5538,15.3415,3.6240,6.3680,11.5564,1.8488,0.5114,4.1882,8.7340,18.2173,16.1793,0.2210,6.0745,10.7211,8.1884,16.1374
644.5312,3.6242,3.2249,11.0437,16.2991,17.7727,4.2219,8.6824,13.6776,0.7491,-0.5625,3.2327,7.8695,18.6077,18.4793,-0.4653,4.7682,11.8920,7.5514,16.8742
648.4375,4.5356,3.9086,12.0432,17.7769,20.2642,5.2387,9.5363,15.3801,1.0315,-0.5793,3.1640,7.8045,19.1508,21.2292,-0.4093,4.0169,13.6501,7.8221,17.7580
652.3438,5.8561,5.2659,12.1614,18.0154,21.3927,5.9971,8.8398,15.5958,2.3654,0.1434,3.9297,8.2547,19.3543,23.4629,0.1693,3.5751,15.3314,8.6106,18.0142
656.2500,6.5628,6.3209,10.9021,16.3586,20.0455,5.8223,7.0335,13.7337,3.8295,0.8467,4.9345,8.5470,18.5537,24.0741,0.7240,2.9361,16.0670,9.1998,16.9237
660.1562,5.9261,6.1841,8.2196,12.8483,16.0389,4.4222,4.8211,9.9945,4.3945,0.8957,5.4045,8.0189,16.3440,22.3649,0.7449,1.8069,15.2804,8.9429,14.2528
664.0625,3.9641,4.5599,4.6491,8.2909,10.3449,2.1179,2.8554,5.3555,3.4936,0.2249,4.8419,6.3864,12.8945,18.4723,0.0482,0.3491,13.0334,7.5777,10.4258
667.9688,1.4646,1.9299,1.1268,3.9461,4.7507,-0.2372,1.5067,1.2220,1.3410,-0.6519,3.2702,3.8846,8.9497,13.4096,-1.1867,-0.9662,10.0031,5.3059,6.3445
671.8750,-0.4520,-0.7002,-1.4320,0.9823,1.0751,-1.6552,0.7796,-1.1191,-1.1972,-1.0630,1.1376,1.1328,5.5029,8.6605,-2.6206,-1.7375,7.1050,2.6440,2.9699
675.7812,-0.9710,-2.3420,-2.5616,-0.0168,0.3372,-1.5414,0.3893,-1.0185,-3.0999,-0.7105,-1.0003,-1.1703,3.3321,5.5209,-4.0116,-1.9295,5.0112,0.1810,0.9141
679.6875,-0.0313,-2.5336,-2.4231,0.7618,2.3294,-0.0481,-0.0375,1.2756,-3.7427,0.0797,-2.7576,-2.5388,2.6679,4.5411,-5.3178,-1.8567,3.8722,-1.6142,0.2676
683.5938,1.6838,-1.5225,-1.6197,2.5685,5.8289,1.9750,-0.7204,4.7450,-3.1678,0.5663,-3.9741,-2.8407,3.1725,5.3717,-6.5848,-1.8836,3.3996,-2.4702,0.7218
687.5000,3.1845,-0.0448,-0.7735,4.5481,9.3145,3.4292,-1.5562,8.0693,-1.9402,0.0930,-4.5834,-2.2565,4.2165,7.0764,-7.7415,-2.1003,3.2090,-2.3097,1.8629
691.4062,3.7404,1.1305,-0.1465,6.1715,11.7538,3.5584,-2.1300,10.2128,-0.7332,-1.4869,-4.4874,-1.1259,5.2591,8.7019,-8.5084,-2.2441,3.1469,-1.2343,3.4245
695.3125,3.2134,1.5949,0.4445,7.4007,13.0058,2.3283,-1.9297,10.8383,0.0542,-3.7471,-3.6017,0.2119,6.0984,9.7571,-8.5302,-1.9346,3.3613,0.4792,5.3407
699.2188,1.9843,1.4134,1.3758,8.5258,13.6393,0.3755,-0.6673,10.3411,0.4119,-5.9836,-2.0465,1.5156,6.8605,10.3357,-7.6489,-1.0353,4.0829,2.4078,7.6027
703.1250,0.5932,0.9483,2.8264,9.8173,14.3465,-1.4118,1.4838,9.5027,0.5557,-7.6094,-0.2758,2.6622,7.7781,10.8597,-6.1013,0.1540,5.3136,4.0862,10.0551
707.0312,-0.6025,0.5710,4.5461,11.2411,15.3745,-2.3847,3.9022,8.9844,0.6763,-8.3568,1.0508,3.6202,8.9319,11.6561,-4.4602,1.0390,6.6838,5.1802,12.3072
710.9375,-1.5088,0.4753,5.9652,12.4203,16.3471,-2.3824,5.8110,8.9636,0.8190,-8.2035,1.4420,4.4078,10.1369,12.6692,-3.3277,1.1168,7.6123,5.6399,13.8427
714.8438,-2.1145,0.6839,6.5760,12.8566,16.5630,-1.6309,6.6940,9.1199,0.9616,-7.1815,0.9442,5.0548,11.0373,13.4864,-2.9827,0.3236,7.6621,5.7209,14.2693
718.7500,-2.2815,1.1624,6.3053,12.2519,15.5273,-0.4474,6.5772,8.9434,1.1582,-5.3206,0.1866,5.5716,11.3288,13.6361,-3.2376,-0.9081,6.8382,5.8226,13.5428
722.6562,-1.7634,1.8813,5.5875,10.7105,13.3318,0.9672,5.9827,8.1329,1.5558,-2.8199,-0.0128,5.9245,10.9478,12.9311,-3.6192,-1.9240,5.6069,6.2148,12.0116
726.5625,-0.5051,2.7358,5.0565,8.6906,10.6294,2.4800,5.5663,6.8062,2.2089,-0.2942,0.7309,6.0237,10.0980,11.6144,-3.7567,-2.2547,4.6146,6.8105,10.2350
730.4688,1.0072,3.3959,5.0517,6.7358,8.2417,3.8047,5.6591,5.3878,2.8284,1.1926,1.9513,5.7288,9.1027,10.2135,-3.7058,-1.8770,4.2969,7.1376,8.6724
734.3750,1.6962,3.2672,5.2905,5.1636,6.6823,4.3724,6.0166,4.2793,2.7199,0.4752,2.4562,4.8776,8.1895,9.2095,-3.9734,-1.1743,4.6355,6.5473,7.4291
738.2812,0.3294,1.6938,4.9656,3.9070,5.9148,3.5072,5.9525,3.5633,1.0642,-3.1037,0.9888,3.3366,7.3547,8.7510,-5.2111,-0.6638,5.2119,4.5591,6.2187
742.1875,-3.7296,-1.6493,3.2440,2.6040,5.4770,0.8661,4.7882,2.9616,-2.5591,-9.1857,-2.9589,1.0701,6.4027,8.6026,-7.7681,-0.7033,5.5035,1.1564,4.5738
746.0938,-9.9147,-6.4068,-0.1399,0.8745,4.8529,-3.1585,2.3353,2.0705,-7.7310,-16.3497,-8.6988,-1.7871,5.1306,8.3506,-11.3884,-1.3616,5.2166,-3.1251,2.1891
750.0000,-16.4543,-11.5014,-4.5888,-1.3909,3.8203,-7.4206,-0.9062,0.6914,-13.1721,-22.6230,-14.5648,-4.8806,3.5377,7.7190,-15.2409,-2.4800,4.4470,-7.3645,-0.8083
753.9062,-21.0861,-15.5008,-8.8559,-3.9038,2.5607,-10.4962,-3.9746,-0.9870,-17.2305,-26.3010,-18.6823,-7.6545,1.9155,6.7796,-18.2630,-3.8047,3.5963,-10.5912,-3.8312
757.8125,-22.1453,-17.2308,-11.6525,-6.0779,1.5024,-11.4076,-5.9671,-2.4822,-18.6393,-26.6354,-19.8363,-9.4687,0.7509,5.9206,-19.6141,-5.0596,3.1227,-12.1269,-6.0753
761.7188,-19.4099,-16.2979,-12.2785,-7.2864,1.0473,-10.1378,-6.5269,-3.3036,-17.1005,-24.0387,-17.9515,-9.8066,0.4917,5.6023,-18.9981,-5.9337,3.2925,-11.7874,-6.9000
765.6250,-14.1990,-13.2218,-10.8974,-7.1241,1.3768,-7.5872,-5.9886,-3.2138,-13.3558,-19.7518,-13.9670,-8.5029,1.3038,6.0598,-16.7171,-6.0800,4.0598,-9.8758,-6.1307
769.5312,-8.6672,-9.1157,-8.3135,-5.5434,2.4305,-4.9908,-5.0885,-2.2895,-8.7217,-15.2188,-9.2614,-5.8766,2.9571,7.1378,-13.4843,-5.2284,5.1040,-7.0048,-4.1164
773.4375,-4.7161,-5.1251,-5.4371,-2.8264,4.0034,-3.1846,-4.4314,-0.7755,-4.4053,-11.5301,-5.0189,-2.6760,4.8940,8.3427,-10.1340,-3.4018,5.9659,-3.8492,-1.5281
777.3438,-3.1551,-1.9655,-2.8059,0.5426,5.8380,-2.2085,-4.0676,1.1107,-1.0245,-9.1789,-1.8755,0.1733,6.4409,9.0640,-7.3769,-1.0800,6.2027,-0.9454,0.9617
781.2500,-3.5505,0.2023,-0.4616,4.0125,7.6371,-1.4882,-3.4671,3.2469,1.4161,-8.1408,0.0553,1.9164,7.0525,8.8308,-5.6669,0.8724,5.5152,1.3940,2.9241
785.1562,-4.7488,1.5659,1.7915,7.0542,9.0386,-0.4222,-1.9241,5.5005,3.1759,-8.1080,0.9347,2.2507,6.4899,7.4816,-5.1646,1.5658,3.8363,3.0497,4.2254
789.0625,-5.6621,2.3457,3.9907,9.2176,9.6557,1.0763,0.8617,7.5758,4.3798,-8.6836,0.9720,1.4044,4.8852,5.2026,-5.7426,0.5686,1.3832,4.0097,4.9162
792.9688,-5.8084,2.6215,5.8102,10.2077,9.2448,2.4803,4.4111,9.0007,4.8842,-9.4538,0.3672,-0.0114,2.7022,2.4696,-7.0083,-1.7779,-1.3453,4.3032,5.0939
796.8750,-5.3427,2.3967,6.7126,9.9887,7.9252,3.0457,7.5684,9.3283,4.4847,-9.9946,-0.6126,-1.2850,0.6256,-0.0573,-8.3611,-4.4421,-3.6547,4.0008,4.8663
800.7812,-4.6904,1.7841,6.3455,8.8605,6.2810,2.3877,9.0613,8.4393,3.2600,-9.9168,-1.5646,-1.8693,-0.6011,-1.6614,-9.1232,-6.1736,-4.8316,3.2615,4.4259
804.6875,-4.1405,1.0988,4.8765,7.4163,5.2031,0.7973,8.2072,6.7119,1.7406,-8.9946,-2.0081,-1.5186,-0.3769,-1.7326,-8.7474,-6.1100,-4.3689,2.3666,4.1239
808.5938,-3.7021,0.7343,2.9975,6.3370,5.4878,-0.9347,5.3445,4.8907,0.7252,-7.3140,-1.5642,-0.2786,1.5508,0.0412,-7.0391,-4.1754,-2.1517,1.6756,4.4142
812.5000,-3.2687,0.8935,1.5653,6.0921,7.3980,-2.0472,1.7194,3.7007,0.8401,-5.3128,-0.1426,1.6069,4.9486,3.5106,-4.2871,-1.0546,1.4811,1.4974,5.6392
816.4062,-2.8765,1.3938,1.1092,6.7082,10.4589,-2.2937,-1.1289,3.4495,2.1411,-3.6302,1.9861,3.7941,9.1161,8.0334,-1.2061,2.2109,5.8376,1.9394,7.7793
820.3125,-2.7879,1.7319,1.5392,7.7582,13.6475,-2.0348,-2.1468,3.8878,4.0385,-2.8048,4.2840,5.9056,13.1025,12.6460,1.3234,4.7453,10.0936,2.8335,10.3560
824.2188,-3.3056,1.4045,2.2499,8.6053,15.8934,-1.8897,-1.2760,4.4262,5.6093,-2.9802,6.1460,7.5787,16.0536,16.4001,2.6235,6.1810,13.5408,3.7985,12.6000
828.1250,-4.4699,0.2755,2.5434,8.7683,16.6040,-2.2268,0.5803,4.5527,6.0988,-3.8057,7.1033,8.5232,17.5267,18.7140,2.5219,6.6677,15.7603,4.4189,13.8151
832.0312,-5.9071,-1.2776,2.0814,8.1857,15.9033,-2.8751,2.0980,4.1596,5.2988,-4.6195,6.9454,8.5876,17.6052,19.5476,1.4203,6.6130,16.6652,4.4362,13.7178
835.9375,-6.9876,-2.5630,1.0673,7.2151,14.4502,-3.2605,2.2636,3.5602,3.5859,-4.8323,5.7382,7.7962,16.7478,19.3016,0.0711,6.3571,16.4235,3.8421,12.5388
839.8438,-7.2098,-3.0007,0.0607,6.3733,12.9725,-2.8468,0.8938,3.2100,1.6355,-4.2961,3.7666,6.3239,15.4706,18.5072,-0.8414,5.9849,15.3203,2.8239,10.8256
843.7500,-6.5384,-2.4933,-0.4186,5.9977,11.8275,-1.5508,-1.3154,3.3550,0.0231,-3.4259,1.4354,4.4148,14.0638,17.5016,-1.0901,5.3482,13.6336,1.6143,9.0940
847.6562,-5.4471,-1.4916,-0.2142,6.0562,10.8658,0.1624,-3.2005,3.8687,-1.0404,-2.9841,-0.8476,2.2938,12.5149,16.2898,-1.0353,4.2369,11.5707,0.3523,7.5629
851.5625,-4.6282,-0.7163,0.4211,6.2207,9.6546,1.5507,-3.7499,4.3765,-1.7179,-3.6387,-2.7922,0.1254,10.6575,14.6531,-1.3996,2.5631,9.2690,-0.9586,6.1342
855.4688,-4.5702,-0.7296,1.0456,6.1267,7.8738,2.0213,-2.6006,4.5469,-2.3584,-5.5560,-4.3177,-1.9716,8.3985,12.3965,-2.7967,0.4465,6.8273,-2.3913,4.5841
859.3750,-5.2931,-1.6383,1.3196,5.6157,5.5918,1.4186,-0.1797,4.3102,-3.2693,-8.2738,-5.5674,-3.8948,5.8330,9.5391,-5.2862,-1.8267,4.3277,-4.0014,2.7873
863.2812,-6.4018,-3.1007,1.1514,4.7814,3.2364,0.0173,2.5366,3.8462,-4.5813,-10.9292,-6.8120,-5.5672,3.1554,6.3151,-8.2280,-3.9268,1.8308,-5.7766,0.7968
867.1875,-7.3831,-4.5884,0.6254,3.8041,1.3030,-1.7099,4.4871,3.3739,-6.2309,-12.6902,-8.2618,-6.9860,0.4594,3.0134,-10.5478,-5.6041,-0.6378,-7.6510,-1.2523
871.0938,-7.9079,-5.6938,-0.1751,2.7290,0.0305,-3.3426,4.9755,2.9348,-8.0047,-13.1212,-9.8798,-8.2569,-2.3699,-0.1876,-11.2796,-6.7499,-3.0757,-9.5386,-3.2903
875.0000,-7.9314,-6.2721,-1.2648,1.3929,-0.7155,-4.6126,3.9090,2.3578,-9.5831,-12.2749,-11.3144,-9.5384,-5.5298,-3.2377,-10.0777,-7.3680,-5.4434,-11.3280,-5.3430
878.9062,-7.5670,-6.3640,-2.6718,-0.4135,-1.2757,-5.3468,1.7547,1.4366,-10.5779,-10.5062,-12.0215,-10.8906,-8.9876,-6.0623,-7.4051,-7.4846,-7.5774,-12.8253,-7.3924
882.8125,-6.8904,-6.0123,-4.2428,-2.6482,-1.8815,-5.3844,-0.7248,0.1792,-10.6039,-8.1901,-11.5377,-12.1111,-12.2124,-8.3725,-4.2905,-7.0554,-9.1386,-13.7039,-9.1779
886.7188,-5.8658,-5.1483,-5.5238,-4.8173,-2.4264,-4.5942,-2.8069,-1.0750,-9.4037,-5.5680,-9.7573,-12.6939,-14.1990,-9.6200,-1.8024,-5.9431,-9.6589,-13.5386,-10.1328
890.6250,-4.4526,-3.6432,-5.8663,-6.0577,-2.4902,-2.9973,-4.0577,-1.7736,-6.9828,-2.8027,-7.0375,-11.9928,-13.8560,-9.1788,-0.5399,-4.0036,-8.7032,-11.9507,-9.5667
894.5312,-2.7712,-1.4673,-4.7399,-5.5089,-1.5948,-0.8722,-4.3959,-1.4379,-3.6618,-0.1318,-4.0469,-9.5390,-10.5718,-6.6686,-0.4118,-1.2565,-6.0855,-8.8037,-7.0209
898.4375,-1.1422,1.1834,-2.0706,-2.7820,0.4867,1.2906,-3.9832,0.0669,0.0110,2.0849,-1.4260,-5.3446,-4.6249,-2.2167,-0.7896,1.9605,-2.0292,-4.3371,-2.5837
902.3438,0.0823,3.9036,1.6180,1.7484,3.5666,3.0018,-3.0409,2.4394,3.4560,3.5227,0.5368,-0.0071,2.8242,3.5106,-0.9067,4.9774,2.8301,0.8426,3.0427
906.2500,0.7822,6.2246,5.3657,7.0062,7.1066,4.0209,-1.7283,5.0624,6.2475,4.1512,2.0040,5.4578,10.1693,9.5253,-0.2625,6.9874,7.6224,5.9108,8.7694
910.1562,1.2040,7.7855,8.1587,11.6126,10.4414,4.4555,-0.1577,7.2471,8.1788,4.3559,3.3845,9.9749,15.9813,14.8492,1.1700,7.3992,11.5283,10.0342,13.5124
914.0625,1.8196,8.4220,9.3284,14.4246,13.0157,4.6316,1.4868,8.4699,9.1881,4.7566,4.9536,12.7742,19.4831,18.7798,2.9947,6.1697,14.0393,12.5547,16.5390
917.9688,2.9767,8.1556,8.7773,14.9640,14.5262,4.8290,2.8603,8.5224,9.2482,5.7954,6.5591,13.5991,20.6710,20.9940,4.6231,3.9138,15.0810,13.1167,17.6268
921.8750,4.5946,7.1473,6.9598,13.5649,14.9547,5.0857,3.5264,7.5662,8.3462,7.3852,7.6423,12.7038,20.1071,21.5196,5.5412,1.6810,14.9604,11.7551,17.0297
925.7812,6.1535,5.6848,4.6814,11.2065,14.5406,5.2248,3.2030,6.1086,6.5973,8.9089,7.5961,10.6979,18.5743,20.6664,5.4960,0.4810,14.1871,8.9503,15.3381
929.6875,7.0191,4.1935,2.8296,9.1233,13.7261,5.0801,2.0402,4.8905,4.3881,9.6163,6.2383,8.3339,16.7928,18.9675,4.5507,0.7972,13.2563,5.5968,13.3074
933.5938,6.8817,3.1861,2.1183,8.3396,13.0542,4.7291,0.7048,4.6627,2.3731,9.1501,4.0611,6.3016,15.2699,17.0940,3.0167,2.3535,12.4768,2.8004,11.6672
937.5000,5.9864,3.0820,2.8784,9.2879,12.9883,4.5239,0.1282,5.8723,1.2270,7.8028,2.0345,5.0451,14.2403,15.6764,1.3074,4.2698,11.8858,1.4840,10.8990
941.4062,4.9662,3.9455,4.9188,11.6365,13.6866,4.8603,0.9928,8.3821,1.2472,6.2920,1.0347,4.6197,13.6307,15.0444,-0.2308,5.5185,11.2635,1.9370,11.0256
945.3125,4.3880,5.3146,7.5205,14.4081,14.8552,5.8380,3.2518,11.4020,2.0705,5.2099,1.2512,4.6480,13.0643,15.0198,-1.4439,5.4295,10.2433,3.5698,11.5426
949.2188,4.3446,6.3096,9.6360,16.3731,15.8199,7.0767,6.0209,13.7521,2.7558,4.5740,1.9859,4.4502,11.9833,14.9416,-2.3949,3.9726,8.4998,5.1031,11.6142
953.1250,4.4027,6.0512,10.2963,16.5849,15.8502,7.8626,7.9846,14.3902,2.2738,3.8503,2.0333,3.3596,9.9223,13.9957,-3.2721,1.6875,5.9564,5.1941,10.5185
957.0312,3.9584,4.1946,9.0808,14.8206,14.5827,7.5701,8.1294,12.9406,0.1532,2.4516,0.4482,1.1019,6.8337,11.7114,-4.2275,-0.6621,2.9174,3.2049,8.1229
960.9375,2.7418,1.2439,6.3988,11.6921,12.2783,6.0913,6.3647,9.9105,-3.1203,0.3272,-2.7820,-1.9765,3.2468,8.3252,-5.2480,-2.4941,0.0241,-0.3481,5.0746
964.8438,1.0934,-1.6031,3.3640,8.3352,9.7111,3.9774,3.6208,6.4310,-6.2511,-1.8446,-6.6129,-5.0098,0.0934,4.7489,-6.1518,-3.6489,-1.9944,-3.9884,2.5128
968.7500,-0.2045,-3.0524,1.2593,5.8180,7.7192,2.1715,1.3240,3.6541,-7.7923,-3.0586,-9.4824,-7.0321,-1.7661,2.1157,-6.7210,-4.3634,-2.6795,-6.0682,1.4154
972.6562,-0.4268,-2.4231,0.8552,4.5965,6.7023,1.4852,0.5560,2.1654,-6.9431,-2.7068,-10.1928,-7.4862,-2.0396,1.1666,-6.8789,-5.0337,-2.1090,-5.7029,1.9761
976.5625,0.6221,-0.0371,1.9862,4.3497,6.4144,2.1483,1.4267,1.7775,-4.0009,-1.0726,-8.5784,-6.5009,-1.1772,1.8673,-6.7707,-5.9236,-0.8801,-3.2754,3.4449
980.4688,2.4997,2.9704,3.6739,4.3102,6.2258,3.7121,3.0675,1.8280,-0.1842,0.8103,-5.5388,-4.7486,-0.0546,3.5135,-6.6690,-6.9818,0.2303,-0.1768,4.5935
984.3750,4.4454,5.3110,4.7566,3.8911,5.6899,5.3601,4.2468,1.7710,3.0609,1.8596,-2.4400,-2.9702,0.6641,5.2503,-6.7594,-7.8491,0.7572,2.0673,4.5454
988.2812,5.8779,6.2650,4.6498,3.1990,5.0146,6.4121,4.2014,1.6522,4.8348,1.6910,-0.2984,-1.4909,1.0601,6.6556,-6.9667,-8.0344,0.8890,2.7309,3.4313
992.1875,6.7025,6.0180,3.7503,3.0731,5.0673,6.6968,3.1348,2.1315,5.1672,0.8399,0.7147,-0.0599,1.9975,7.9859,-6.9729,-7.1608,1.4124,2.2888,2.4082
996.0938,7.2190,5.4208,3.2077,4.5859,6.8545,6.5686,2.0628,4.0267,4.8121,0.2845,1.1620,1.8754,4.5824,9.9239,-6.4373,-5.1616,3.2509,2.0362,2.9871
1000.0000,7.7408,5.3626,4.1883,8.3041,10.7925,6.5924,2.1246,7.6768,4.6429,0.6380,1.7697,4.6652,9.3681,13.0096,-5.2666,-2.3368,6.8532,3.1952,6.0748
1003.9062,8.2510,6.1857,7.0950,13.7841,16.2621,7.1280,3.8237,12.5551,5.0817,1.6470,2.8528,8.0920,15.8213,17.1543,-3.7232,0.7567,11.8072,6.1008,11.3440
1007.8125,8.3847,7.5189,11.2416,19.6493,21.7808,8.0942,6.6928,17.4051,5.9292,2.4050,4.1464,11.4103,22.4242,21.5678,-2.2671,3.5310,16.9351,9.9861,17.3387
1011.7188,7.7556,8.6008,15.1914,24.2299,25.7248,9.0464,9.5741,20.8350,6.6527,2.1276,5.1208,13.7653,27.3770,25.1414,-1.2307,5.6025,20.8328,13.4733,22.2504
1015.6250,6.3643,8.8317,17.5421,26.3870,27.1672,9.4836,11.2998,22.0142,6.8706,0.8866,5.4847,14.6897,29.4810,27.0206,-0.5687,6.9181,22.5427,15.4143,24.8695
1019.5312,4.7499,8.1570,17.6651,26.0265,26.3179,9.1610,11.3230,21.0568,6.6547,-0.2994,5.4527,14.3302,28.6739,26.9971,0.1060,7.7026,21.9729,15.5212,25.1280
1023.4375,3.7348,7.0329,15.9515,24.0095,24.3071,8.2052,9.9209,18.8771,6.4375,-0.1363,5.5639,13.2617,25.9223,25.4985,1.1995,8.2550,19.8409,14.4029,23.9336
1027.3438,3.9174,6.0330,13.4535,21.5476,22.4714,6.9825,7.9074,16.6298,6.6179,1.9758,6.1973,12.0472,22.5847,23.2375,2.7480,8.7094,17.2136,13.0427,22.4623
1031.2500,5.2658,5.4030,11.1907,19.4843,21.5989,5.8392,6.1012,15.0826,7.1770,5.3909,7.1787,10.8740,19.6685,20.7932,4.2630,8.9108,14.9428,12.1056,21.3977
1035.1562,7.0943,4.8868,9.5779,17.9004,21.5796,4.8998,4.9074,14.2812,7.5994,8.5157,7.8009,9.5152,17.4165,18.3950,4.9577,8.4915,13.3155,11.5375,20.5911
1039.0625,8.4383,3.9355,8.3083,16.2409,21.6158,4.0432,4.2374,13.6617,7.1640,9.7780,7.2663,7.6128,15.4041,15.9977,4.2330,7.1107,12.0714,10.6827,19.2992
1042.9688,8.5745,2.1343,6.7076,13.8170,20.7946,3.0433,3.7345,12.4880,5.4032,8.6082,5.2406,5.0403,12.9998,13.5235,2.1033,4.7117,10.7055,8.7892,16.7794
1046.8750,7.3572,-0.4580,4.2776,10.3195,18.6345,1.7592,3.0906,10.3239,2.4222,5.7712,2.1220,2.0698,9.8510,11.0545,-0.7328,1.6341,8.8369,5.5456,12.8282
1050.7812,5.2001,-3.2850,1.0718,6.0256,15.2982,0.2506,2.2375,7.2653,-1.1200,2.8511,-1.1518,-0.7629,6.1171,8.8432,-3.2368,-1.4939,6.4379,1.3163,7.9442
1054.6875,2.7852,-5.5796,-2.3020,1.6243,11.4190,-1.2331,1.3311,3.8445,-4.3281,1.2726,-3.6100,-2.9598,2.3804,7.1696,-4.5677,-4.0132,3.8507,-3.0209,3.0779
1058.5938,0.7337,-6.7540,-4.9913,-2.1491,7.7351,-2.3540,0.6076,0.7231,-6.4639,1.5198,-4.7144,-4.2857,-0.6278,6.1893,-4.4737,-5.4818,1.6429,-6.4810,-0.8114
1062.5000,-0.5658,-6.6403,-6.2876,-4.7871,4.7915,-2.8055,0.2503,-1.6027,-7.1830,3.0213,-4.4993,-4.7573,-2.2896,5.8995,-3.3114,-5.7707,0.4029,-8.3564,-3.0984
1066.4062,-0.9502,-5.4623,-5.8637,-6.0278,2.8670,-2.3998,0.3483,-2.9093,-6.5300,4.6755,-3.3658,-4.4501,-2.2326,6.2313,-1.7325,-4.9846,0.5539,-8.3891,-3.5727
1070.3125,-0.4141,-3.6140,-3.7815,-5.6803,2.0881,-1.1162,0.9346,-3.1469,-4.7811,5.5828,-1.7506,-3.3237,-0.3477,7.1700,-0.2859,-3.3108,2.2167,-6.7182,-2.3031
1074.2188,0.9002,-1.4311,-0.3541,-3.4762,2.5780,0.8796,2.0311,-2.2602,-2.2951,5.4899,0.0665,-1.2441,3.2321,8.7874,0.7953,-0.9367,5.1417,-3.7192,0.5399
1078.1250,2.6605,0.8975,3.9946,0.8636,4.4959,3.2502,3.6492,-0.1002,0.5363,4.7419,1.9233,1.8014,8.1372,11.1545,1.5321,1.9010,8.7431,0.1279,4.7487
1082.0312,4.3646,3.2670,8.7909,7.3449,7.9354,5.5584,5.7511,3.4856,3.2758,3.9045,3.6258,5.4810,13.7790,14.2078,1.9901,4.8104,12.2659,4.2945,10.0104
1085.9375,5.5177,5.5483,13.5157,15.3975,12.7618,7.4027,8.2128,8.4362,5.4745,3.3992,4.8956,9.1051,19.4314,17.6830,2.1409,7.2285,15.0564,8.2270,15.8125
1089.8438,5.9120,7.5508,17.6294,23.8060,18.5060,8.5713,10.8165,14.2906,6.8056,3.3803,5.5020,11.8923,24.3925,21.1721,1.9166,8.5905,16.8282,11.4101,21.4483
1093.7500,5.8098,9.0829,20.6545,30.9963,24.3891,9.1230,13.2662,20.1813,7.2351,3.8301,5.4729,13.3640,28.1606,24.2596,1.3899,8.6266,17.7664,13.4845,26.1659
1097.6562,5.8376,10.0395,22.2802,35.5644,29.4687,9.3209,15.2059,25.0474,7.0838,4.6812,5.1744,13.5960,30.5177,26.6290,0.8825,7.5870,18.3778,14.3611,29.3776
1101.5625,6.5846,10.4193,22.4073,36.7658,32.8419,9.4285,16.2382,27.9662,6.8829,5.8116,5.1352,13.1332,31.4605,28.0614,0.8560,6.1992,19.1337,14.2374,30.7928
1105.4688,8.1384,10.2487,21.0949,34.6972,33.8364,9.4852,15.9764,28.4317,7.0656,6.9425,5.7042,12.6047,31.0237,28.3425,1.6185,5.3149,20.1028,13.4757,30.3875
1109.3750,9.8872,9.4860,18.4571,30.0923,32.1438,9.2166,14.1557,26.4430,7.6819,7.5982,6.7861,12.2851,29.1298,27.1870,3.0533,5.4251,20.8081,12.3934,28.2493
1113.2812,10.7759,8.0112,14.6077,23.8885,27.8818,8.1666,10.7789,22.3933,8.3318,7.2596,7.8610,11.9022,25.5969,24.2905,4.5935,6.3482,20.4285,11.0870,24.4357
1117.1875,9.8992,5.7430,9.7187,16.8411,21.5831,5.9956,6.2172,16.8644,8.3876,5.6622,8.2966,10.8289,20.3324,19.5298,5.5036,7.3154,18.2618,9.4043,18.9798
1121.0938,7.0682,2.8099,4.1530,9.3994,14.1081,2.7650,1.1707,10.4687,7.3802,3.0391,7.7378,8.5436,13.6009,13.2066,5.3081,7.4340,14.1897,7.0950,12.0643
1125.0000,2.9815,-0.3650,-1.4536,1.8556,6.4839,-0.9791,-3.5327,3.8127,5.3142,0.1079,6.3059,5.0618,6.1727,6.1575,4.0852,6.2560,8.8648,4.0570,4.2386
1128.9062,-1.1121,-3.1578,-6.2764,-5.4070,-0.3055,-4.3881,-7.2220,-2.4566,2.7135,-2.2311,4.4810,1.0548,-0.7948,-0.3990,2.4225,4.0882,3.4862,0.5296,-3.5148
1132.8125,-4.0388,-4.9846,-9.5554,-11.7867,-5.5293,-6.6591,-9.5971,-7.6332,0.3763,-3.3181,2.7815,-2.4306,-6.1427,-5.2619,1.0593,1.8373,-0.7301,-2.8927,-9.9862
1136.7188,-5.2166,-5.5437,-10.8863,-16.5654,-8.8500,-7.3488,-10.7480,-11.0492,-1.0043,-3.0256,1.4885,-4.4915,-9.1840,-7.7168,0.4530,0.4775,-3.1030,-5.4570,-14.1604
1140.6250,-4.7745,-4.9076,-10.3661,-19.1633,-10.3403,-6.4926,-10.9692,-12.2734,-1.1317,-1.7625,0.6057,-4.8211,-10.0091,-7.8251,0.5535,0.4739,-3.7578,-6.5651,-15.6305
1144.5312,-3.2824,-3.4234,-8.4910,-19.3633,-10.3652,-4.5076,-10.4929,-11.2996,-0.1680,-0.2258,0.0396,-3.8391,-9.4265,-6.3598,0.9230,1.5228,-3.4723,-6.0459,-14.7481
1148.4375,-1.3603,-1.5186,-5.8724,-17.3526,-9.3726,-1.9928,-9.3177,-8.5944,1.4129,0.9195,-0.1969,-2.4409,-8.5384,-4.4016,1.0927,2.7587,-3.1942,-4.2434,-12.3974
1152.3438,0.5299,0.4358,-2.9637,-13.5775,-7.6851,0.4339,-7.2489,-4.9464,3.0443,1.2482,0.0390,-1.5261,-8.1575,-2.7998,0.8901,3.2774,-3.5030,-1.8794,-9.5104
1156.2500,2.0162,2.1221,0.0228,-8.5404,-5.3904,2.2069,-4.1270,-1.1825,4.2212,0.6044,0.8231,-1.5751,-8.3765,-1.7897,0.5025,2.6354,-4.3165,0.2375,-6.6121
1160.1562,2.6400,3.1918,2.9720,-2.6918,-2.3829,2.8484,-0.0897,2.1076,4.5521,-0.9797,1.9184,-2.4847,-8.5323,-0.9692,0.2409,1.0274,-4.9902,1.5146,-3.6691
1164.0625,1.8447,3.2507,5.6453,3.5319,1.4626,2.0664,4.3120,4.7079,3.7734,-3.3580,2.7212,-3.7085,-7.5885,0.3688,0.1951,-0.9184,-4.7339,1.7575,-0.3126
1167.9688,-0.7454,2.0138,7.5949,9.6101,6.0860,-0.0733,8.2406,6.7312,1.8102,-6.2727,2.5152,-4.5736,-4.7261,2.7590,0.0542,-2.5434,-3.0894,1.1775,3.7376
1171.8750,-4.9146,-0.4294,8.3331,14.9218,11.1242,-3.0111,10.8864,8.4468,-1.1091,-9.3197,0.9138,-4.5833,0.1855,6.2267,-0.7456,-3.4742,-0.1933,0.2547,8.3480
1175.7812,-9.6532,-3.4426,7.6627,18.8790,15.9579,-5.7626,11.8002,10.0841,-4.3796,-11.9615,-1.8040,-3.5633,6.4888,10.2760,-2.6225,-3.6813,3.3125,-0.4622,12.9569
1179.6875,-13.4243,-5.9700,5.9219,21.1377,19.9010,-7.2682,11.0580,11.6933,-7.1144,-13.6466,-4.7211,-1.6406,13.0377,14.1717,-5.4648,-3.3188,6.6425,-0.5432,16.8507
1183.5938,-14.8485,-6.9880,3.9152,21.7237,22.4219,-6.9005,9.1672,13.0954,-8.4457,-14.0102,-6.7071,0.8632,18.6925,17.3039,-8.5428,-2.5340,9.2617,0.1904,19.5061
1187.5000,-13.4392,-6.0674,2.5069,20.9548,23.2750,-4.8537,6.7739,13.9176,-7.9229,-13.0582,-7.0113,3.5245,22.7162,19.3928,-10.8107,-1.4141,11.0647,1.6032,20.7505
1191.4062,-9.9277,-3.6991,2.1039,19.1956,22.4841,-2.1444,4.3391,13.7012,-5.7900,-11.2245,-5.6712,5.8651,24.8758,20.4307,-11.4416,-0.0808,12.2523,3.2647,20.6588
1195.3125,-5.9449,-1.1322,2.3711,16.6232,20.2321,-0.1643,1.9737,12.0714,-2.9527,-9.2458,-3.4906,7.3982,25.2678,20.4645,-10.2753,1.2011,13.0224,4.5670,19.3293
1199.2188,-3.2167,0.2398,2.4056,13.1926,16.7712,0.0054,-0.4802,8.9333,-0.6053,-7.8865,-1.6005,7.7328,24.0654,19.4347,-7.9087,2.0540,13.3190,4.9362,16.7708
1203.1250,-2.7307,-0.3813,1.3018,8.8452,12.4333,-1.8595,-3.1776,4.6163,0.3138,-7.6268,-0.8630,6.7367,21.4034,17.2288,-5.3779,2.1781,12.8342,4.0836,13.0253
1207.0312,-4.3398,-2.7642,-1.2295,3.8071,7.7084,-5.0276,-5.9901,-0.1317,-0.4451,-8.4549,-1.4592,4.6677,17.4678,13.9126,-3.6331,1.5652,11.2662,2.1810,8.4163
1210.9375,-6.9857,-5.7778,-4.5857,-1.2722,3.2641,-8.2097,-8.4120,-4.3546,-2.3529,-9.8747,-2.8744,2.1518,12.6682,9.9313,-3.1186,0.5434,8.6378,-0.1559,3.6680
1214.8438,-9.3508,-8.0102,-7.5413,-5.5021,-0.2093,-10.2145,-9.7414,-7.2500,-4.3983,-11.1462,-4.2559,-0.0488,7.6824,6.0603,-3.6833,-0.4212,5.4206,-2.1144,-0.2998
1218.7500,-10.5263,-8.5119,-8.9173,-8.1845,-2.3078,-10.4888,-9.4590,-8.5150,-5.6077,-11.6564,-4.9114,-1.3939,3.2556,3.0586,-4.8204,-1.0514,2.3348,-3.0704,-2.8408
1222.6562,-10.3391,-7.2394,-8.2528,-9.2298,-3.1989,-9.2682,-7.5859,-8.4821,-5.5109,-11.2380,-4.6657,-1.8556,-0.1584,1.2227,-6.0335,-1.4734,-0.0661,-2.9123,-4.0102
1226.5625,-9.2363,-4.9772,-6.0746,-9.2616,-3.6453,-7.3130,-4.7908,-7.9398,-4.3190,-10.2521,-3.8992,-1.9507,-2.6673,0.1585,-7.0799,-2.1439,-1.7446,-2.1108,-4.6150
1230.4688,-7.8979,-2.8358,-3.6067,-9.2951,-4.6538,-5.4423,-2.1478,-7.7119,-2.7512,-9.3708,-3.2827,-2.4593,-4.8903,-1.0158,-7.9647,-3.5166,-3.1981,-1.4692,-5.7721
1234.3750,-6.8590,-1.6556,-2.1027,-10.1512,-6.8821,-4.1539,-0.6463,-8.2139,-1.6293,-9.1702,-3.3803,-3.9693,-7.5563,-3.1014,-8.7556,-5.6708,-5.0970,-1.6766,-8.2054
1238.2812,-6.3360,-1.6561,-2.1951,-11.9438,-10.1343,-3.5131,-0.7120,-9.2267,-1.4670,-9.7737,-4.3413,-6.5007,-10.9613,-6.2177,-9.4071,-8.1670,-7.7543,-2.9131,-11.7167
1242.1875,-6.2739,-2.4764,-3.6201,-13.9423,-13.2798,-3.3026,-2.0040,-10.0060,-2.2551,-10.7765,-5.8286,-9.4307,-14.6208,-9.5569,-9.7463,-10.2329,-10.7725,-4.7319,-15.1755
1246.0938,-6.4973,-3.5051,-5.4265,-14.8909,-14.7012,-3.2757,-3.6011,-9.6554,-3.5239,-11.5169,-7.1970,-11.7633,-17.3557,-11.6826,-9.6184,-11.1563,-13.1147,-6.2831,-17.0476
1250.0000,-6.8341,-4.2510,-6.4999,-13.6006,-13.0550,-3.3350,-4.4721,-7.5543,-4.6147,-11.5264,-7.8114,-12.5857,-17.7926,-11.2222,-9.0525,-10.6201,-13.5819,-6.7444,-16.1390
1253.9062,-7.1600,-4.5394,-6.0812,-9.4983,-7.9313,-3.5474,-3.9676,-3.6268,-5.0036,-10.8632,-7.3378,-11.4586,-15.0135,-7.5594,-8.2837,-8.7777,-11.4214,-5.7096,-12.1224
1257.8125,-7.3937,-4.4739,-4.0262,-2.8706,-0.0500,-4.0273,-2.0765,1.6509,-4.5175,-10.0874,-5.8742,-8.5464,-9.0070,-1.1340,-7.5942,-6.0704,-6.7130,-3.3323,-5.5860
1261.7188,-7.4907,-4.2572,-0.7444,5.2621,9.0820,-4.7879,0.6593,7.4554,-3.3603,-9.8795,-3.8792,-4.4709,-0.7017,6.7856,-7.0909,-2.9687,-0.3336,-0.1854,2.3260
1265.6250,-7.4531,-4.0288,3.0550,13.5193,17.8157,-5.6622,3.4760,12.8970,-1.9738,-10.5481,-1.9604,-0.0281,8.3900,14.6799,-6.6127,0.1513,6.4387,3.0335,10.3841
1269.5312,-7.3347,-3.8198,6.6225,20.5741,24.9203,-6.3375,5.7487,17.2446,-0.8373,-11.7734,-0.6426,4.0456,16.6932,21.3393,-5.8748,2.9376,12.4143,5.7522,17.5613
1273.4375,-7.2279,-3.6231,9.3139,25.4445,29.7856,-6.4872,7.1884,20.0345,-0.3149,-12.7816,-0.2301,7.1569,22.9917,26.1138,-4.7764,4.9243,16.8026,7.6004,23.0614
1277.3438,-7.2416,-3.4950,10.6329,27.6137,32.2635,-5.9407,7.8121,21.0767,-0.6104,-12.8597,-0.8027,8.8292,26.6005,28.7985,-3.6489,5.5280,19.2343,8.3328,26.2330
1281.2500,-7.4971,-3.5962,10.2571,27.0208,32.3794,-4.8105,7.7764,20.4084,-1.7991,-11.8728,-2.2997,8.6898,27.3201,29.3474,-3.2270,4.2717,19.5963,7.7299,26.5790
1285.1562,-8.1317,-4.1262,8.1177,23.9928,30.1822,-3.5004,7.2221,18.2405,-3.8572,-10.4228,-4.5906,6.5666,25.3110,27.6894,-4.2903,1.1262,17.8881,5.6194,23.9411
1289.0625,-9.2645,-5.1776,4.5183,19.1646,25.8399,-2.5551,6.2369,14.9214,-6.6168,-9.5107,-7.4569,2.6752,21.0139,23.7954,-7.1505,-3.2765,14.2396,2.0486,18.7380
1292.9688,-10.8779,-6.5862,0.1966,13.3914,19.8620,-2.3857,4.9286,10.9204,-9.6582,-9.8836,-10.4917,-2.2392,15.1415,17.9296,-11.2862,-7.7531,9.0668,-2.4981,12.0362
1296.8750,-12.6497,-7.8699,-3.7751,7.6354,13.2079,-2.9944,3.5132,6.8141,-12.2402,-11.4662,-13.0196,-6.9606,8.6633,10.8565,-15.3781,-10.9970,3.1943,-7.0274,5.3138
1300.7812,-13.8621,-8.3240,-6.2832,2.8050,7.1108,-3.8629,2.3116,3.2376,-13.4013,-13.2419,-14.1652,-10.1290,2.6825,3.7912,-17.7818,-12.1055,-2.2287,-10.2491,-0.0223
1304.6875,-13.5440,-7.2788,-6.5834,-0.4496,2.6487,-4.1248,1.6175,0.7596,-12.2868,-13.6896,-13.1308,-10.7427,-1.8263,-1.9543,-17.2319,-10.9184,-6.0620,-11.0566,-3.1434
1308.5938,-10.8863,-4.4408,-4.6588,-1.9495,0.2792,-2.9910,1.5013,-0.3256,-8.6009,-11.5605,-9.6009,-8.6173,-4.3356,-5.4672,-13.4367,-8.0075,-7.6195,-9.0785,-4.0832
1312.5000,-5.7713,-0.1583,-1.3417,-2.1236,-0.3921,-0.2290,1.6792,-0.2161,-2.9467,-6.5793,-4.0632,-4.5592,-4.9779,-6.6034,-7.2675,-4.3620,-6.9819,-5.0070,-3.6730
1316.4062,0.8978,4.5550,1.9105,-1.9627,-0.4570,3.5845,1.5614,0.3158,3.1999,0.3008,2.1799,-0.1175,-4.5069,-6.0124,-0.4475,-0.9785,-4.9755,-0.4684,-3.1691
1320.3125,7.3475,8.3251,3.5531,-2.7130,-1.2145,7.2292,0.5089,0.1195,7.9755,7.2250,7.4051,3.0228,-3.9707,-4.7845,5.1209,1.4381,-2.7917,2.5894,-3.7321
1324.2188,11.5971,9.9669,2.6118,-5.3464,-3.5632,9.3870,-1.8005,-1.8414,9.9025,12.1820,10.1396,3.7593,-4.2160,-3.8939,8.0867,2.5788,-1.4206,2.7561,-5.9496
1328.1250,12.3494,9.0294,-0.8265,-9.9971,-7.5504,9.2893,-5.0817,-5.8846,8.5772,13.8117,9.7991,2.0672,-5.4567,-3.7195,8.1219,2.4886,-1.1864,-0.1427,-9.5589
1332.0312,9.6324,6.0433,-5.5504,-15.6549,-12.2693,7.1022,-8.4143,-11.2215,4.8848,11.9130,6.9543,-0.9862,-7.1324,-3.8864,5.9466,1.4799,-1.6282,-4.8844,-13.4695
1335.9375,4.8173,2.2983,-9.6751,-20.3570,-16.1457,3.8198,-10.5555,-16.0763,0.5899,7.4569,3.0626,-3.7426,-8.1560,-3.4981,2.9236,0.0495,-1.7874,-9.3570,-16.1053
1339.8438,-0.0220,-0.7633,-11.4412,-21.8955,-17.4910,0.7251,-10.4893,-18.3547,-2.5073,2.1456,-0.2160,-4.7430,-7.4395,-1.6228,0.4303,-1.2196,-0.7449,-11.5157,-15.9796
1343.7500,-3.0655,-2.2219,-9.9938,-18.7621,-15.1035,-1.2641,-7.9501,-16.5768,-3.3988,-2.2490,-1.7638,-3.4096,-4.4297,2.2272,-0.6964,-1.8077,1.8855,-10.3150,-12.2955
1347.6562,-3.5040,-2.0481,-5.7443,-10.8694,-8.6895,-1.9832,-3.6241,-10.5883,-2.2393,-4.4797,-1.4253,-0.2617,0.6318,7.8659,-0.3991,-1.4324,5.7721,-6.1333,-5.3056
1351.5625,-1.7241,-0.9652,-0.1174,0.3406,1.0377,-1.9380,1.1263,-1.6533,-0.0844,-4.1387,0.0980,3.4475,6.8589,14.5437,0.7534,-0.1572,10.0758,-0.4803,3.7634
1355.4688,1.0997,0.0884,5.1850,12.4773,12.5887,-1.8472,4.9081,8.1283,1.8008,-1.6400,1.7685,6.4606,13.1737,21.2901,1.9859,1.6546,13.9087,4.8277,13.2052
1359.3750,3.6914,0.5448,8.9921,23.1649,24.1382,-2.1297,6.9727,16.7439,2.6269,2.0399,2.8154,8.1796,18.7763,27.2671,2.7481,3.5382,16.7584,8.5398,21.4954
1363.2812,5.2259,0.4730,11.0957,30.8794,33.9909,-2.6668,7.5301,23.0154,2.3658,5.7120,3.0640,8.8746,23.3522,31.9361,2.9251,5.1584,18.6250,10.4079,27.7640
1367.1875,5.5006,0.3804,12.0823,35.2508,40.9207,-2.9630,7.5060,26.7949,1.5310,8.2945,2.8423,9.3283,26.9230,34.9997,2.7439,6.4211,19.8181,10.9917,31.8432
1371.0938,4.7611,0.7212,12.7208,36.7720,44.3242,-2.5640,7.8832,28.6020,0.6783,9.0576,2.5918,10.1685,29.4996,36.2396,2.4942,7.3886,20.5804,11.0368,33.9400
1375.0000,3.4166,1.4745,13.3307,36.2041,44.2193,-1.4295,9.0351,29.0333,0.0044,7.7969,2.4880,11.3398,30.8257,35.4376,2.2821,8.0737,20.8162,10.8771,34.2271
1378.9062,1.8649,2.0950,13.5527,34.1023,41.1518,-0.0141,10.4778,28.3606,-0.6949,4.9228,2.3311,12.0726,30.4234,32.4745,1.9958,8.2882,20.1183,10.2559,32.6729
1382.8125,0.4798,1.8733,12.6594,30.7173,36.0405,0.9855,11.1958,26.5339,-1.7305,1.4103,1.7558,11.3733,27.9156,27.5339,1.4832,7.6895,18.0690,8.6452,29.2158
1386.7188,-0.3537,0.4542,10.1730,26.2201,29.9540,1.0397,10.3257,23.4786,-3.1527,-1.4575,0.5782,8.7129,23.3815,21.2227,0.7854,6.0266,14.5983,5.7933,24.0938
1390.6250,-0.2975,-1.8460,6.3496,20.9626,23.8214,0.0911,7.7425,19.3845,-4.6065,-2.5374,-0.9894,4.4585,17.4704,14.4597,0.2180,3.4247,10.1414,2.0864,18.0054
1394.5312,0.7669,-4.1448,2.1881,15.5130,18.1532,-1.4192,4.1675,14.7341,-5.5162,-1.3126,-2.4118,-0.2295,11.1729,8.1512,0.2175,0.4973,5.4913,-1.5385,11.9109
1398.4375,2.5833,-5.4568,-1.0542,10.4242,12.9184,-2.7939,0.7438,10.0658,-5.4516,1.8305,-3.1336,-3.9623,5.4029,2.8527,1.0501,-1.8298,1.4543,-4.0689,6.5871
1402.3438,4.5534,-5.2194,-2.5255,5.9412,7.6950,-3.4253,-1.6166,5.6869,-4.3973,5.7354,-2.8889,-5.7851,0.6794,-1.3526,2.6002,-2.7155,-1.4526,-4.9519,2.2707
1406.2500,6.0108,-3.5548,-2.1985,1.9121,2.0722,-3.0466,-2.6768,1.5870,-2.7301,9.0164,-1.8024,-5.5393,-2.8937,-4.6711,4.4070,-1.8058,-3.0839,-4.3396,-1.3192
1410.1562,6.6022,-1.1267,-0.7966,-1.9876,-3.9046,-1.7741,-2.8458,-2.3746,-0.9316,10.7511,-0.2264,-3.7584,-5.3890,-7.2493,5.9393,0.5870,-3.5321,-2.9051,-4.5763
1414.0625,6.5345,1.2911,0.6979,-5.8627,-9.5317,0.0394,-2.7535,-6.1607,0.7465,10.9423,1.5490,-1.2360,-6.7932,-8.9246,6.9249,3.6335,-2.9414,-1.3828,-7.5263
1417.9688,6.5016,3.2520,1.6279,-9.3207,-13.6628,2.0237,-2.7696,-9.3787,2.4218,10.4707,3.4949,1.4153,-6.9512,-9.2728,7.5063,6.3863,-1.4417,-0.1439,-9.6464
1421.8750,7.3100,4.8218,1.9919,-11.5232,-15.2522,3.9561,-2.7980,-11.3842,4.4402,10.5515,5.8111,3.9573,-5.7497,-7.9189,8.1163,8.2175,0.7712,0.9473,-10.1356
1425.7812,9.4118,6.4329,2.3669,-11.5487,-13.9024,5.7991,-2.4434,-11.5994,7.0728,12.0135,8.6956,6.4340,-3.3465,-4.8677,9.1678,9.0718,3.3440,2.3586,-8.4352
1429.6875,12.6202,8.5325,3.5267,-8.8473,-10.0639,7.6213,-1.3646,-9.8280,10.2712,14.8248,12.0906,8.9538,-0.1986,-0.5897,10.7706,9.4171,5.8282,4.5601,-4.6045
1433.5938,16.1702,11.2505,6.0011,-3.5246,-4.7562,9.4635,0.4702,-6.3649,13.6421,18.1363,15.5861,11.5391,3.1904,4.2164,12.6596,9.9311,7.9230,7.7504,0.7230
1437.5000,19.0799,14.2714,9.7955,3.6736,0.9914,11.2319,2.7833,-1.8597,16.6335,20.7877,18.5494,14.1203,6.6248,9.0067,14.3593,11.0979,9.7304,11.7576,6.7386
1441.4062,20.6060,16.9588,14.3528,11.6105,6.5946,12.6770,5.1705,2.9404,18.7864,21.9486,20.3991,16.6018,10.3635,13.6222,15.4532,12.9264,11.7804,16.0953,12.8708
1445.3125,20.5509,18.6398,18.7184,19.0796,11.9654,13.4760,7.2668,7.4009,19.8919,21.5146,20.8576,18.8808,14.8846,18.1867,15.7774,14.9370,14.7180,20.0874,18.8793
1449.2188,19.2857,18.8942,21.8203,25.0615,17.1752,13.3810,8.7637,11.0814,19.9865,20.0593,20.0489,20.7850,20.3898,22.7581,15.4419,16.4225,18.8073,23.0035,24.5859
1453.1250,17.5088,17.7139,22.7967,28.8903,22.0390,12.3611,9.3371,13.7309,19.2442,18.4283,18.4080,22.0133,26.4082,27.0271,14.7102,16.8390,23.5904,24.2094,29.5261
1457.0312,15.8840,15.4774,21.3050,30.3571,25.9835,10.6519,8.6606,15.2888,17.8687,17.2460,16.4705,22.1965,31.8318,30.3252,13.8491,16.1078,27.9785,23.3491,32.8900
1460.9375,14.7372,12.7691,17.7182,29.7546,28.3231,8.6714,6.6045,15.9146,16.0469,16.6094,14.6518,21.0983,35.4149,31.9680,13.0328,14.6522,30.7702,20.5176,33.8834
1464.8438,13.9446,10.1319,13.0819,27.8003,28.7266,6.8298,3.5065,15.9795,13.9453,16.0893,13.1059,18.8341,36.4246,31.6812,12.3133,13.1462,31.2836,16.3146,32.2685
1468.7500,13.0491,7.8645,8.7603,25.3779,27.4866,5.3359,0.2502,15.9326,11.6958,14.9851,11.7063,15.9229,34.9960,29.7784,11.6173,12.1234,29.6848,11.6820,28.6427
1472.6562,11.5434,5.9441,5.8528,23.1393,25.3418,4.1176,-2.0448,16.0479,9.3497,12.6826,10.1426,13.0749,31.9449,26.9371,10.7424,11.6834,26.7954,7.5398,24.1741
1476.5625,9.1803,4.1068,4.6452,21.1523,22.9557,2.9153,-2.6299,16.1938,6.8436,8.9627,8.0924,10.8092,28.1736,23.7279,9.3858,11.4713,23.5168,4.3822,19.9153
1480.4688,6.1544,2.0402,4.4168,18.8275,20.4426,1.4966,-1.6614,15.8122,4.0401,4.1613,5.4025,9.1385,24.0983,20.2483,7.2472,10.9277,20.2741,2.0656,16.1655
1484.3750,3.0475,-0.4055,3.7859,15.2373,17.3211,-0.1416,-0.2447,14.1907,0.8573,-0.8770,2.1990,7.5430,19.5017,16.1409,4.2042,9.6327,16.8556,-0.0624,12.3529
1488.2812,0.5530,-3.0941,1.4747,9.7047,12.9628,-1.7192,0.1415,10.9101,-2.5804,-5.0628,-1.1342,5.2848,13.8993,10.9904,0.4671,7.5183,12.7328,-2.7347,7.5580
1492.1875,-0.8757,-5.6233,-2.9042,2.3388,7.2247,-2.8074,-1.4531,6.2006,-5.8805,-7.4813,-4.1084,1.8919,7.1369,4.8081,-3.4079,4.8341,7.6089,-6.2631,1.3342
1496.0938,-1.2457,-7.4719,-8.4939,-5.8083,0.7953,-3.0647,-4.7894,0.9660,-8.4750,-7.8076,-6.3369,-2.4673,-0.2243,-1.7537,-6.7050,1.9388,1.7957,-10.2454,-5.7403
1500.0000,-0.9666,-8.1940,-13.5136,-13.0874,-5.0201,-2.4171,-8.4758,-3.5730,-9.8309,-6.4994,-7.6735,-6.9425,-7.0104,-7.6196,-8.8578,-0.8931,-3.8354,-13.6513,-12.1733
1503.9062,-0.5397,-7.5716,-16.1089,-17.9290,-8.9512,-1.0693,-10.7262,-6.4225,-9.6651,-4.6092,-8.1992,-10.3273,-11.9601,-11.7957,-9.7037,-3.5021,-8.2762,-15.2588,-16.2781
1507.8125,-0.1919,-5.6765,-15.2762,-19.4898,-10.4187,0.6430,-10.3845,-7.2422,-8.0457,-3.2579,-8.0755,-11.5926,-14.3275,-13.8248,-9.5287,-5.7278,-10.8852,-14.2276,-17.0522
1511.7188,0.2882,-2.8428,-11.3591,-17.9367,-9.7656,2.4383,-7.5807,-6.4223,-5.3462,-3.0368,-7.3871,-10.3702,-14.1983,-13.9159,-8.8766,-7.3096,-11.6559,-10.5342,-14.6823
1515.6250,1.3815,0.4135,-5.8536,-14.2540,-7.9438,4.1737,-3.6175,-4.7993,-2.1060,-3.7020,-6.1084,-7.1645,-12.3715,-12.7087,-8.2524,-7.9576,-11.1271,-5.0642,-10.4044
1519.5312,3.4321,3.5042,-0.6509,-9.7200,-5.9054,5.7853,-0.1805,-3.1966,1.1106,-4.3740,-4.2343,-3.1961,-9.9309,-10.8693,-7.9084,-7.5883,-10.0434,0.6870,-5.8553
1523.4375,6.2813,5.8952,2.8611,-5.3481,-4.1138,7.1671,1.6196,-2.0492,3.8052,-4.1438,-1.9737,0.0644,-7.7725,-8.7791,-7.8274,-6.5344,-8.9934,5.1847,-2.3151
1527.3438,9.2086,7.2395,4.3655,-1.5555,-2.4559,8.1254,1.7912,-1.2827,5.5954,-2.7041,0.1702,1.4872,-6.3049,-6.4595,-7.8729,-5.5041,-8.2019,7.4566,-0.2391
1531.2500,11.2462,7.4755,4.5916,1.8298,-0.5265,8.4736,1.3117,-0.4568,6.2622,-0.5940,1.5403,0.7547,-5.3932,-3.6987,-7.9730,-5.2321,-7.5172,7.4603,0.7529
1535.1562,11.6729,6.8295,4.7622,5.2831,1.9806,8.2002,1.4434,0.9428,5.8004,1.1028,1.6322,-1.5083,-4.4945,-0.2477,-8.2071,-6.0204,-6.5374,6.0345,1.5162
1539.0625,10.3622,5.6866,5.8402,9.1837,5.0494,7.5482,2.9699,3.2157,4.4290,1.3943,0.3669,-4.0340,-2.9104,4.0186,-8.7636,-7.5002,-4.8041,4.4320,2.8817
1542.9688,7.7679,4.3745,7.9718,13.4860,8.3757,6.8934,5.7892,6.2709,2.5142,-0.0767,-1.8627,-5.5301,-0.0983,8.9937,-9.8251,-8.8278,-2.0213,3.6436,5.2411
1546.8750,4.5853,2.9826,10.3977,17.6015,11.5470,6.4705,9.0275,9.6143,0.4156,-2.9223,-4.4120,-5.3247,4.0254,14.2713,-11.4642,-9.2182,1.7428,3.8611,8.3579
1550.7812,1.3532,1.3504,11.8543,20.5569,14.1956,6.1458,11.5232,12.4948,-1.6557,-6.3432,-6.7171,-3.6901,8.9132,19.1438,-13.5858,-8.4546,5.9573,4.3890,11.4535
1554.6875,-1.7168,-0.7404,11.2489,21.3884,16.0523,5.4492,12.3703,14.1713,-3.6630,-9.6080,-8.5049,-1.6471,13.4859,22.7414,-15.9035,-7.0040,9.7360,4.0918,13.5387
1558.5938,-4.5962,-3.2797,8.2695,19.6217,16.9560,3.9093,11.2577,14.2151,-5.6266,-12.3230,-9.7566,-0.3451,16.5500,24.3445,-17.9449,-5.6467,12.1782,2.1439,13.8783
1562.5000,-7.1509,-5.8603,3.6192,15.6077,16.9062,1.4956,8.5131,12.7252,-7.4505,-14.3576,-10.5011,-0.3779,17.3798,23.7620,-19.1234,-4.8930,12.8134,-1.3561,12.3892
1566.4062,-8.9943,-7.7822,-1.2456,10.5074,16.1529,-1.1544,4.9170,10.3372,-8.8502,-15.5970,-10.6580,-1.4562,16.1434,21.5426,-18.9273,-4.6316,11.8893,-5.3036,9.7550
1570.3125,-9.6485,-8.4116,-4.7588,5.8677,15.2053,-2.9465,1.4125,7.9804,-9.4717,-15.8294,-10.0944,-2.6411,13.8707,18.8060,-17.2037,-4.2823,10.2812,-8.1258,7.1402
1574.2188,-8.9133,-7.5769,-5.9531,2.9505,14.6476,-2.9189,-1.1854,6.4704,-9.1420,-14.9193,-8.8585,-2.9853,11.9095,16.6954,-14.3913,-3.3411,9.0113,-8.6419,5.6083
1578.1250,-7.1478,-5.7284,-4.8800,2.1517,14.7945,-0.8658,-2.4151,6.1305,-8.0627,-13.1187,-7.3627,-2.1577,11.1514,15.7254,-11.4970,-1.8928,8.6395,-6.7300,5.5471
1582.0312,-5.1993,-3.7212,-2.5298,2.8332,15.3944,2.4188,-2.2832,6.6476,-6.7674,-11.1828,-6.2920,-0.6486,11.4946,15.4381,-9.7117,-0.6786,8.9076,-3.3938,6.4489
1585.9375,-3.9683,-2.3345,-0.2978,3.6883,15.6317,5.4791,-1.2297,7.2501,-5.8269,-10.0682,-6.2211,0.5611,11.8967,14.6292,-9.7951,-0.6409,8.8854,-0.1956,7.2004
1589.8438,-3.8780,-1.8331,0.7162,3.4571,14.5147,6.9534,0.0645,7.1191,-5.4839,-10.3349,-7.1860,0.6156,11.0001,12.0603,-11.5795,-2.2671,7.5408,1.5874,6.7263
1593.7500,-4.6131,-1.8612,0.2102,1.6055,11.4731,6.3061,0.9734,5.8162,-5.4799,-11.6690,-8.5521,-0.7339,7.9508,7.2406,-13.9488,-5.2160,4.3767,1.5736,4.6029
1597.6562,-5.3244,-1.7376,-1.2562,-1.3978,6.8039,4.0959,1.2026,3.5066,-5.2253,-12.9382,-9.3439,-3.0731,2.9120,0.8024,-15.4003,-8.5013,-0.2641,0.3279,1.2804
1601.5625,-5.1774,-0.9463,-2.6259,-4.3364,1.6682,1.6250,0.9144,0.8818,-4.2192,-12.8440,-8.8634,-5.6604,-3.0090,-5.7535,-14.9105,-11.0884,-5.3879,-1.1009,-2.1867
1605.4688,-3.8845,0.5175,-2.9020,-5.8637,-2.3955,0.2000,0.6341,-1.1533,-2.4362,-10.7919,-7.1848,-7.8551,-8.3199,-10.7641,-12.5836,-12.4653,-9.8634,-1.8053,-4.6878
1609.3750,-1.8775,2.1731,-1.6005,-5.1343,-4.1740,0.4544,0.9770,-1.8596,-0.4041,-7.3876,-5.1565,-9.3286,-11.8069,-13.1190,-9.6458,-12.7896,-12.8984,-1.4199,-5.5324
1613.2812,-0.0273,3.4124,1.0961,-2.1391,-3.3026,2.1158,2.3281,-0.9406,1.0956,-4.1805,-3.8781,-9.9745,-12.9210,-12.5826,-7.7460,-12.5582,-14.2042,-0.1318,-4.6092
1617.1875,0.8817,3.9132,4.4837,2.3661,-0.3412,4.2939,4.6278,1.3741,1.5084,-2.7664,-3.9907,-9.7013,-11.7577,-9.6273,-7.9740,-12.1145,-13.8414,1.5785,-2.2417
1621.0938,0.5701,3.8096,7.6438,7.2297,3.5895,6.0441,7.3602,4.4353,0.8425,-3.8072,-5.2683,-8.3669,-8.7781,-5.0008,-10.2081,-11.4075,-11.9707,3.2121,1.0572
1625.0000,-0.6721,3.5139,9.7545,11.3529,7.3616,6.8351,9.7474,7.4128,-0.3604,-6.5986,-6.7899,-5.9512,-4.5377,0.6266,-13.1963,-10.1774,-8.7528,4.3729,4.7386
1628.9062,-2.2640,3.3505,10.3158,14.0311,10.2760,6.6692,11.0630,9.5823,-1.3848,-9.4656,-7.5653,-2.8022,0.4254,6.7416,-15.3080,-8.3686,-4.4508,4.7644,8.2510
1632.8125,-3.7238,3.2934,9.2747,15.1012,12.1989,5.8681,10.9305,10.5724,-1.7743,-10.7366,-7.1705,0.3261,5.5810,12.8601,-15.4659,-6.3723,0.4283,4.2069,11.0712
1636.7188,-4.9045,3.0037,7.0446,14.8981,13.4130,4.7462,9.4745,10.4788,-1.5516,-9.6874,-5.9571,2.5799,10.4150,18.4174,-13.6789,-4.8408,5.1660,2.7546,12.8378
1640.6250,-5.9563,2.1214,4.3876,14.0548,14.3317,3.4124,7.2472,9.7809,-1.1101,-6.8972,-4.7229,3.4980,14.5264,22.8364,-10.8901,-4.1847,9.0959,0.8265,13.5390
1644.5312,-7.1011,0.5713,2.1348,13.1974,15.2303,1.7994,4.9473,9.0672,-0.8983,-3.8474,-4.1166,3.3257,17.7355,25.7326,-8.3099,-4.1641,11.9191,-0.8427,13.5642
1648.4375,-8.4131,-1.3623,0.8022,12.6185,16.0908,-0.1634,3.0582,8.6833,-1.1446,-2.0593,-4.2232,2.8633,20.0587,27.0564,-6.7147,-3.9537,13.8028,-1.5315,13.4686
1652.3438,-9.7583,-3.2409,0.2781,12.0665,16.5813,-2.3997,1.5957,8.4948,-1.7981,-2.3011,-4.6134,2.8911,21.5034,27.0112,-6.1520,-2.7187,15.1325,-1.0088,13.5206
1656.2500,-10.9019,-4.7853,-0.1957,10.7938,16.1636,-4.6669,0.1283,7.9281,-2.6771,-4.2896,-4.7795,3.5463,21.8174,25.7807,-6.1667,-0.3282,16.0635,0.1652,13.3321
1660.1562,-11.6763,-6.0357,-1.6439,7.9181,14.3110,-6.6518,-1.9004,6.3109,-3.6568,-6.9754,-4.5947,4.1095,20.4271,23.2883,-6.3000,2.3230,16.2095,0.7988,11.9073
1664.0625,-12.0789,-7.2253,-4.7115,2.9781,10.7840,-8.0807,-4.7071,3.3449,-4.7268,-9.1642,-4.4374,3.3997,16.7026,19.2216,-6.4620,3.6800,14.7460,-0.2972,8.1998
1667.9688,-12.2413,-8.4658,-9.1018,-3.5951,5.8637,-8.7647,-7.8387,-0.5655,-5.8816,-10.0931,-4.8870,0.5575,10.4441,13.3618,-6.9252,2.4149,10.9230,-3.5337,1.9015
1671.8750,-12.3101,-9.5055,-13.4738,-10.3886,0.4111,-8.5816,-10.2171,-4.3510,-6.9626,-9.6775,-6.2242,-4.2841,2.2800,6.0086,-7.9882,-1.6987,4.6783,-8.1107,-6.0360
1675.7812,-12.3236,-9.7755,-15.9484,-15.4309,-4.3288,-7.4649,-10.5941,-6.6982,-7.6186,-8.3749,-8.1120,-9.8875,-6.3275,-1.8248,-9.5952,-7.4799,-3.0560,-12.2516,-13.5460
1679.6875,-12.1610,-8.7308,-15.0146,-16.9828,-7.1403,-5.4534,-8.2009,-6.6473,-7.4539,-6.8202,-9.6934,-14.4413,-13.5451,-8.6414,-11.2059,-12.8121,-10.5834,-14.0341,-18.2623
1683.5938,-11.5865,-6.2642,-10.3604,-14.3231,-7.3014,-2.7811,-3.2317,-4.0511,-6.2794,-5.4693,-10.0481,-16.4185,-17.8711,-13.0368,-12.0149,-15.6367,-16.1032,-12.3758,-18.5929
1687.5000,-10.3690,-2.9028,-3.1580,-8.1321,-4.8807,0.0833,3.1236,0.3409,-4.2858,-4.4330,-8.7090,-15.2653,-18.6969,-14.3000,-11.3751,-14.9143,-18.4346,-7.6208,-14.4679
1691.4062,-8.4293,0.3680,4.3807,-0.2650,-0.7200,2.5240,9.1351,5.1988,-2.0051,-3.5468,-5.9192,-11.5620,-16.4341,-12.6932,-9.1561,-11.0496,-17.4231,-1.4005,-7.3625
1695.3125,-5.9535,2.5647,9.9638,6.9848,3.8954,3.9912,13.2425,9.1501,-0.0663,-2.5875,-2.4924,-6.6382,-12.1840,-9.2549,-5.8263,-5.6014,-13.8537,4.1513,0.3919
1699.2188,-3.4081,3.1827,12.2078,11.7853,7.7277,4.2356,14.6567,11.2756,1.1110,-1.4780,0.6095,-1.9136,-7.1806,-5.2571,-2.2303,-0.4857,-8.9816,7.4019,6.6246
1703.1250,-1.4122,2.4208,11.1764,13.4265,10.0285,3.4300,13.5843,11.3660,1.5084,-0.3438,2.7279,1.6745,-2.3144,-1.6252,0.7986,2.8953,-3.9652,7.9261,10.1646
1707.0312,-0.4840,1.0476,8.2451,12.4722,10.7606,2.1006,11.0241,9.8851,1.4896,0.6115,3.7597,3.9262,2.0624,1.3788,2.7847,4.1878,0.5238,6.5908,11.1482
1710.9375,-0.7658,0.0085,5.4088,10.3831,10.5309,0.8959,8.2931,7.7162,1.6003,1.3158,4.1240,5.2877,6.0438,4.0937,3.7609,4.0860,4.3857,5.0284,10.7411
1714.8438,-1.8876,-0.0048,4.3848,8.8108,10.2738,0.3108,6.5150,5.8151,2.3033,1.9566,4.5037,6.5309,9.9185,7.1062,4.1824,3.8613,7.9074,4.7970,10.4700
1718.7500,-3.0932,1.1751,5.9044,8.8750,10.8091,0.4916,6.2464,4.8827,3.7706,2.8979,5.5006,8.3544,13.9004,10.8244,4.6678,4.6769,11.4427,6.6359,11.4778
1722.6562,-3.6126,3.1659,9.4517,10.7138,12.4398,1.1977,7.3154,5.1388,5.8037,4.4013,7.3418,11.0367,17.9354,15.1878,5.6887,7.0078,15.1113,10.1401,13.9966
1726.5625,-3.0959,5.2222,13.5125,13.4710,14.7602,1.9187,8.8835,6.2562,7.8907,6.3275,9.7407,14.2487,21.6246,19.6272,7.3374,10.4184,18.6388,13.9687,17.2305
1730.4688,-1.8442,6.5331,16.2084,15.7107,16.7835,2.0893,9.7270,7.4920,9.3739,8.0504,11.9708,17.1143,24.2993,23.2712,9.2677,13.7869,21.4128,16.4672,19.7034
1734.3750,-0.6591,6.5296,16.0747,16.0811,17.3777,1.3269,8.7031,7.9962,9.6857,8.7087,13.1464,18.5514,25.2608,25.3033,10.8363,15.8648,22.7486,16.4202,19.9542
1738.2812,-0.3632,5.1079,12.6923,13.9438,15.8348,-0.3878,5.2848,7.1957,8.5855,7.6917,12.6238,17.7932,24.1314,25.3183,11.3928,15.8953,22.2603,13.6023,17.2939
1742.1875,-1.2656,2.6995,6.9185,9.6904,12.2949,-2.6541,-0.0598,5.0858,6.3081,5.0713,10.3502,14.8488,21.1565,23.5225,10.5885,13.9780,20.1480,8.8862,12.2551
1746.0938,-2.9150,0.1375,0.5934,4.5958,7.7763,-4.7635,-5.8879,2.2735,3.5335,1.6774,6.9712,10.6217,17.2483,20.6660,8.5568,10.9872,17.2061,3.8595,6.4547
1750.0000,-4.3213,-1.6585,-4.1934,0.2700,3.7482,-5.9695,-10.2969,-0.2710,1.1471,-1.2743,3.5979,6.5486,13.6537,17.7052,5.8689,8.0932,14.4874,0.1282,1.8714
1753.9062,-4.5338,-2.0746,-5.9761,-2.0315,1.4464,-5.8212,-11.7586,-1.6434,-0.1308,-2.8068,1.3128,3.8960,11.3518,15.3335,3.2838,6.1594,12.7612,-1.3667,-0.1207
1757.8125,-3.2263,-1.0915,-4.5271,-1.9090,1.2970,-4.4047,-9.8589,-1.4020,-0.0759,-2.6855,0.6592,3.0949,10.5041,13.6202,1.4230,5.3577,12.0689,-0.7023,0.5691
1761.7188,-0.9193,0.6886,-0.9067,0.1082,2.7741,-2.3492,-5.5212,0.2696,0.9297,-1.4919,1.3951,3.5201,10.3224,11.9806,0.5401,5.2108,11.6749,1.1562,2.7661
1765.6250,1.3091,2.3170,3.0838,2.9235,4.7694,-0.5563,-0.5509,2.7012,2.0871,-0.2383,2.6555,3.8792,9.5068,9.5426,0.4967,5.0020,10.4946,2.8744,4.7576
1769.5312,2.4513,2.9531,5.7725,5.4568,6.2458,0.2279,3.2643,5.0827,2.5805,0.2195,3.4336,3.0080,7.0556,5.7460,0.9306,4.2746,7.7881,3.3801,5.3074
1773.4375,2.1502,2.2652,6.3650,7.1351,6.7841,-0.2252,4.9948,6.8268,1.9784,-0.3983,3.1037,0.6060,2.9812,0.8453,1.4944,3.1062,3.7156,2.3049,4.3489
1777.3438,0.8803,0.5654,5.2007,8.0514,6.7104,-1.5384,4.8813,7.7709,0.4214,-1.7703,1.6969,-2.5316,-1.5229,-4.0003,2.0154,2.0117,-0.5990,0.0619,2.9431
1781.2500,-0.3707,-1.3834,3.4264,8.7523,6.7658,-2.9678,3.9808,8.1457,-1.4873,-3.2914,-0.1981,-4.9271,-4.6072,-7.1552,2.5001,1.5771,-3.5639,-2.4178,2.5554
1785.1562,-0.7101,-2.7714,2.3063,9.8112,7.5586,-3.8296,3.4144,8.3580,-3.0082,-4.4665,-1.8088,-5.2360,-4.7122,-7.2677,3.0160,2.0822,-3.9144,-4.1201,4.1192
1789.0625,0.1373,-3.1319,2.5552,11.4321,9.1522,-3.8611,3.6963,8.7128,-3.6128,-5.1155,-2.5795,-2.9944,-1.4058,-3.9704,3.5633,3.3455,-1.3650,-4.3552,7.4660
1792.9688,1.7015,-2.5195,4.0260,13.2850,11.0211,-3.3065,4.5218,9.2061,-3.1766,-5.3013,-2.3764,1.1145,4.3553,1.8610,4.0396,4.8500,3.2320,-2.9988,11.4323
1796.8750,3.0906,-1.4139,5.8610,14.6335,12.3623,-2.6966,5.0701,9.4837,-1.9515,-5.1126,-1.4266,5.5952,10.6698,8.4406,4.3228,6.0277,8.2866,-0.5177,14.5217
1800.7812,3.5522,-0.4332,6.9733,14.6798,12.5445,-2.4780,4.5664,8.9952,-0.3818,-4.5119,-0.0940,8.8632,15.5734,13.8344,4.4040,6.5121,12.1885,2.2043,15.6799
1804.6875,2.9306,-0.0244,6.5935,12.9607,11.4281,-2.7343,2.7429,7.2931,1.1082,-3.3720,1.3360,9.9625,17.8766,16.7621,4.4602,6.2331,13.9599,4.1891,14.7415
1808.5938,1.7557,-0.2780,4.6302,9.6227,9.4071,-3.1668,-0.0284,4.3539,2.2482,-1.6466,2.7344,8.9269,17.5435,17.0418,4.7903,5.3580,13.5393,4.7448,12.3616
1812.5000,0.9222,-0.9340,1.7103,5.4509,7.1956,-3.3287,-2.9285,0.7534,2.9463,0.4792,4.0643,6.6487,15.4866,15.4824,5.6308,4.1628,11.6206,3.7654,9.5719
1816.4062,1.1527,-1.5504,-1.0936,1.6176,5.5008,-2.9492,-5.0461,-2.4422,3.2352,2.5893,5.2600,4.3665,12.9572,13.3235,6.9515,2.9195,9.1958,1.7986,7.2622
1820.3125,2.5532,-1.7457,-2.7295,-0.7705,4.7438,-2.1388,-5.7145,-4.0848,3.1937,4.1857,6.1537,3.0429,10.8895,11.5510,8.3656,1.8266,7.0631,-0.2006,5.8473
1824.2188,4.5124,-1.4071,-2.6393,-1.1443,4.9280,-1.3516,-4.7342,-3.4893,2.8835,4.8829,6.5030,2.9251,9.5174,10.4531,9.2390,0.9716,5.5302,-1.3575,5.2051
1828.1250,6.0041,-0.7686,-1.0384,0.2568,5.6828,-1.1307,-2.4542,-0.8337,2.3205,4.5392,6.0988,3.4785,8.4094,9.6246,8.9767,0.3181,4.4120,-1.3660,4.8263
1832.0312,6.1385,-0.3112,1.1417,2.4773,6.4519,-1.7862,0.3026,2.8430,1.4866,3.2889,4.8918,3.7123,6.8483,8.3720,7.3550,-0.2640,3.2811,-0.6861,4.0751
1835.9375,4.6710,-0.5098,2.6672,4.2934,6.7579,-3.1834,2.4909,6.1001,0.3830,1.5148,3.0699,2.7386,4.3344,6.2531,4.7165,-0.9079,1.8177,-0.2917,2.4779
1839.8438,2.1951,-1.5365,2.6102,4.8134,6.4390,-4.7570,3.2456,7.7941,-0.8960,-0.2075,1.0436,0.2959,0.9545,3.4286,1.8947,-1.6309,0.0783,-1.0744,-0.0254
1843.7500,-0.0979,-3.0831,0.8559,3.9175,5.7457,-5.7497,2.2935,7.6325,-2.1125,-1.2116,-0.6653,-3.0319,-2.5656,0.6273,-0.1327,-2.2618,-1.4585,-3.2411,-2.9578
1847.6562,-0.9888,-4.4364,-1.7814,2.2842,5.2230,-5.5700,0.1472,6.2557,-2.9157,-0.9384,-1.6026,-6.0331,-5.1510,-1.2394,-0.7058,-2.4885,-2.1009,-6.0836,-5.4107
1851.5625,0.1470,-4.8170,-3.9472,0.9772,5.4079,-4.1064,-2.0977,4.7911,-2.9755,0.7841,-1.5630,-7.4343,-5.8739,-1.5749,0.1787,-2.0236,-1.3092,-8.2926,-6.4048
1855.4688,2.9803,-3.8312,-4.4695,0.8211,6.4891,-1.8494,-3.3266,4.1478,-2.1760,3.5123,-0.6929,-6.5346,-4.4067,-0.4076,1.8486,-0.7928,0.9737,-8.6584,-5.3798
1859.3750,6.3244,-1.7796,-3.0297,1.9292,8.1327,0.2569,-3.0429,4.4804,-0.7573,6.2015,0.5502,-3.5739,-1.1999,1.6610,3.2856,0.9783,4.2189,-6.7562,-2.5528
1863.2812,8.6553,0.3926,-0.3878,3.6592,9.6080,1.1952,-1.6833,5.1419,0.7076,7.5749,1.5812,0.3674,2.7184,3.8267,3.6372,2.8444,7.5106,-3.2121,1.1024
1867.1875,8.8102,1.5321,1.9942,5.0136,10.1743,0.3361,-0.3768,5.1391,1.5382,6.7317,1.9413,3.8822,6.2191,5.5337,2.6300,4.3362,9.9542,0.6054,4.3084
1871.0938,6.5302,0.8979,2.7452,5.2375,9.5204,-2.2288,-0.2569,3.7931,1.2873,3.6821,1.4981,5.8882,8.5761,6.7360,0.6605,5.1459,11.0734,3.2883,6.1486
1875.0000,2.5878,-1.3744,1.3567,4.2585,7.9964,-5.6558,-1.7433,1.2000,0.0183,-0.5379,0.4910,6.0737,9.7361,7.8264,-1.4732,5.1977,10.9787,4.0923,6.5621
1878.9062,-1.5541,-4.2440,-1.4939,2.7237,6.4883,-8.6628,-4.2459,-1.7685,-1.6499,-4.3033,-0.5984,4.9341,10.2300,9.3083,-3.0248,4.5976,10.2253,3.2690,6.3617
1882.8125,-4.3773,-6.2170,-4.2450,1.6457,5.9947,-10.0586,-6.4821,-3.8920,-2.7873,-6.1900,-1.2741,3.4293,10.8057,11.4305,-3.6633,3.5434,9.4630,1.8839,6.7538
1886.7188,-4.9376,-6.0576,-5.2051,1.8871,7.1372,-9.2407,-7.1978,-4.1824,-2.5831,-5.6819,-1.2329,2.4855,12.0019,14.0099,-3.5508,2.2749,9.0916,1.2543,8.6419
1890.6250,-3.2047,-3.3901,-3.3590,3.7751,9.8618,-6.4247,-5.8354,-2.2998,-0.7507,-3.3881,-0.4625,2.5975,13.8806,16.5206,-3.1345,1.0679,9.1072,2.3094,12.1149
1894.5312,0.0110,1.1143,1.1712,7.0175,13.4650,-2.5049,-2.7553,1.3725,2.2978,-0.6545,0.7809,3.6811,16.0172,18.3577,-2.8304,0.1976,9.1854,5.1662,16.3907
1898.4375,3.4739,6.0386,7.1943,10.8956,16.8991,1.3605,1.0654,5.9564,5.5944,1.1845,2.0667,5.1677,17.6951,19.0935,-2.8239,-0.1854,8.9043,9.0781,20.1977
1902.3438,6.0575,9.8336,12.9575,14.5674,19.1802,4.2108,4.5931,10.4346,8.0055,1.4665,2.9018,6.2425,18.1791,18.5901,-3.0926,-0.2221,7.9545,12.7338,22.3378
1906.2500,7.1499,11.4288,16.8204,17.3117,19.7179,5.5683,7.1763,13.9541,8.6854,0.4087,2.8432,6.1245,16.9583,16.9589,-3.5846,-0.4061,6.2435,14.7627,22.1251
1910.1562,6.7708,10.5723,17.8034,18.6368,18.4616,5.4533,8.6354,15.9937,7.3923,-1.1954,1.6245,4.3333,13.9143,14.4559,-4.3684,-1.4076,3.8951,14.2516,19.5364
1914.0625,5.3938,7.7989,15.8317,18.2918,15.8559,4.1988,9.0646,16.4046,4.5451,-2.5431,-0.7129,0.9036,9.4039,11.4111,-5.6153,-3.6791,1.2045,11.0927,15.1023
1917.9688,3.6124,4.1129,11.6488,16.2622,12.6522,2.2299,8.5927,15.3713,1.0215,-3.2755,-3.7409,-3.5214,4.2315,8.2078,-7.4158,-7.0597,-1.4112,6.0403,9.6808
1921.8750,1.8422,0.5735,6.4901,12.7904,9.6439,-0.0551,7.3141,13.3193,-2.1958,-3.5678,-6.7058,-7.8033,-0.5311,5.2607,-9.5785,-10.6658,-3.4852,0.4523,4.2311
1925.7812,0.2109,-2.0410,1.6571,8.3930,7.3987,-2.2821,5.3999,10.7776,-4.3701,-3.8636,-8.7643,-10.6689,-3.8802,2.9317,-11.5836,-13.2155,-4.6261,-4.1981,-0.3799
1929.6875,-1.3405,-3.3953,-1.8667,3.8080,6.0771,-4.0612,3.2210,8.2175,-5.2242,-4.4806,-9.3190,-11.2191,-5.2694,1.4039,-12.7579,-13.6561,-4.6780,-6.8539,-3.5537
1933.5938,-2.8453,-3.5858,-3.6539,-0.1640,5.4185,-5.0165,1.3030,5.9187,-4.9501,-5.3564,-8.2827,-9.3572,-4.8569,0.6050,-12.5774,-11.7319,-3.8217,-7.2312,-5.1033
1937.5000,-4.1539,-3.0092,-3.8676,-2.8918,4.9267,-4.9180,0.0911,3.9284,-4.0366,-6.0751,-6.1076,-5.8827,-3.4283,0.2750,-10.9155,-8.1301,-2.5103,-5.8522,-5.2905
1941.4062,-4.9504,-2.1769,-3.1060,-4.1222,4.1792,-3.8410,-0.3172,2.1324,-3.0094,-6.1246,-3.5414,-2.1434,-1.9738,0.1727,-8.0892,-4.0960,-1.2203,-3.7487,-4.6850
1945.3125,-4.9391,-1.5331,-2.1276,-4.0608,3.0986,-2.2188,-0.2631,0.3961,-2.2029,-5.2022,-1.2449,0.6121,-1.1184,0.3005,-4.6941,-0.7468,-0.1428,-1.9817,-3.8619
1949.2188,-4.0719,-1.3131,-1.5640,-3.2658,2.0220,-0.7047,-0.3508,-1.3128,-1.6577,-3.3899,0.5024,1.8481,-0.7318,0.9759,-1.3453,1.4919,0.9807,-1.1933,-3.0829
1953.1250,-2.6451,-1.4739,-1.7100,-2.3806,1.5155,0.1272,-1.1055,-2.8808,-1.1666,-1.1194,1.8394,1.9821,0.0240,2.6715,1.5225,2.9910,2.7294,-1.3721,-2.1489
1957.0312,-1.1726,-1.7077,-2.4372,-1.8102,2.0459,0.0966,-2.6726,-4.0856,-0.4184,1.0326,3.1141,2.1147,2.2072,5.6964,3.7103,4.5370,5.6199,-1.8981,-0.5302
1960.9375,-0.0921,-1.5384,-3.2287,-1.4862,3.7163,-0.4344,-4.7201,-4.6578,0.8487,2.5992,4.5960,3.4022,6.4367,9.9195,5.1960,6.7422,9.6887,-1.8148,2.2917
1964.8438,0.5098,-0.4786,-3.3175,-0.8494,6.2321,-0.6850,-6.5610,-4.3226,2.7542,3.4080,6.3161,6.4168,12.4402,14.7167,6.0461,9.6269,14.3103,-0.2118,6.4707
1968.7500,0.9610,1.7880,-1.9171,0.9047,9.0951,0.1823,-7.3938,-2.8272,5.2536,3.6209,8.1162,10.8256,19.0616,19.1797,6.3692,12.5980,18.3870,3.4010,11.6332
1972.6562,1.7874,5.2427,1.4734,4.3933,11.8676,2.6274,-6.5439,-0.0059,8.1488,3.6190,9.8115,15.5187,24.7063,22.4553,6.3050,14.7683,20.8114,8.8268,16.9740
1976.5625,3.3333,9.4391,6.7581,9.6174,14.3092,6.4420,-3.6612,4.0884,11.0826,3.7863,11.2872,19.0734,27.9576,24.0132,5.9994,15.3698,20.9362,15.1044,21.5226
1980.4688,5.4510,13.5342,13.0620,15.7665,16.3084,10.7556,1.1193,9.0387,13.5242,4.2858,12.4236,20.2998,28.0493,23.7124,5.5329,14.0197,18.7952,20.6829,24.4176
1984.3750,7.4688,16.4750,18.8382,21.4046,17.7127,14.3552,7.0727,14.0267,14.8052,4.9345,12.9259,18.6365,25.0226,21.6995,4.8400,10.7722,14.9941,23.8615,25.0842
1988.2812,8.4804,17.3244,22.3371,25.0079,18.2469,16.1797,12.9266,18.0094,14.2776,5.2539,12.2607,14.2968,19.6033,18.2788,3.7053,6.0494,10.3990,23.4007,23.3208
1992.1875,7.8043,15.6326,22.3164,25.6190,17.6379,15.7649,17.1572,20.0892,11.5970,4.6960,9.8632,8.1908,12.9564,13.8804,1.8954,0.5804,5.8431,19.0880,19.3596
1996.0938,5.3590,11.7020,18.6810,23.2893,15.8712,13.4311,18.5250,19.9074,7.0183,2.9541,5.5643,1.6965,6.4411,9.1192,-0.6153,-4.6340,1.9946,11.9848,13.9173
2000.0000,1.7459,6.5893,12.6811,19.0537,13.3618,10.1269,16.6434,17.8215,1.5131,0.2010,-0.0263,-3.6712,1.3721,4.8121,-3.4610,-8.4324,-0.6369,4.1649,8.1509
2003.9062,-1.9971,1.7791,6.4712,14.4231,10.8429,7.0036,12.2480,14.7230,-3.4429,-2.8899,-5.5063,-6.6659,-1.2740,1.8161,-5.9010,-9.7841,-1.6964,-2.0284,3.3998
2007.8125,-4.8380,-1.3789,2.1627,10.6417,8.9776,4.9233,6.9333,11.5659,-6.4055,-5.3867,-9.1701,-6.7219,-1.2026,0.6814,-7.0907,-8.2179,-1.0874,-4.9262,0.7030
2011.7188,-6.1655,-2.2378,0.8193,8.1020,7.9219,4.1302,2.4146,8.8681,-6.6084,-6.5086,-9.8110,-4.2311,0.9482,1.2964,-6.5019,-4.1665,0.8546,-4.2507,0.2743
2015.6250,-5.9928,-1.1459,1.9350,6.2350,7.1533,4.2274,-0.3012,6.4891,-4.3885,-5.9996,-7.3963,-0.5075,3.6711,2.7836,-4.2648,1.0425,3.2924,-1.2438,1.2573
2019.5312,-4.8855,0.7084,3.7119,3.9334,5.7313,4.4465,-1.3473,3.8283,-1.1185,-4.2638,-3.1896,2.6548,5.0964,3.8046,-1.2123,5.6548,5.0862,1.8966,2.0125
2023.4375,-3.6746,1.8588,4.0305,0.2736,2.8766,4.0571,-1.7551,0.3274,1.3870,-2.1758,0.8091,3.7222,3.8155,3.1909,1.4403,8.2399,5.2637,3.0377,0.9082
2027.3438,-3.0911,1.2750,1.6075,-4.8621,-1.4707,2.7115,-2.6819,-4.0360,1.7351,-0.6562,2.8359,2.1480,-0.3511,0.5918,2.6421,8.3293,3.5450,1.1254,-2.7440
2031.2500,-3.4673,-1.1252,-3.2812,-10.5980,-6.4652,0.5745,-4.6033,-8.5745,-0.3444,-0.2385,2.2224,-1.2981,-6.0797,-3.2309,2.0011,6.5730,0.6047,-3.2929,-8.1401
2035.1562,-4.6137,-4.4285,-8.9056,-15.4046,-10.6741,-1.7897,-6.9925,-12.1536,-3.8409,-0.8600,-0.3301,-4.8297,-10.9955,-6.6641,-0.0384,4.3128,-2.1436,-8.2935,-13.1958
2039.0625,-5.9169,-7.1733,-12.9535,-17.7778,-12.7271,-3.6822,-8.6895,-13.7389,-6.9529,-1.9823,-3.1949,-6.4857,-12.7046,-7.9651,-2.4271,2.8196,-3.1910,-11.4625,-15.4908
2042.9688,-6.6250,-8.0679,-13.6921,-16.9046,-11.9353,-4.5459,-8.6985,-12.9086,-7.9875,-2.9521,-4.7107,-5.1168,-9.9199,-6.0886,-4.0251,2.6402,-1.6915,-11.0372,-13.4824
2046.8750,-6.2068,-6.6132,-10.7979,-12.9906,-8.5535,-4.1397,-6.8668,-10.0407,-6.2042,-3.3742,-4.0157,-0.9964,-3.1122,-1.2000,-4.1264,3.4235,2.0776,-6.7674,-7.3363
2050.7812,-4.6200,-3.3185,-5.4404,-7.1193,-3.5798,-2.5717,-3.9852,-6.0839,-2.1666,-3.2733,-1.3879,4.2854,5.6559,5.3830,-2.7325,4.2833,6.8143,-0.0807,1.0914
2054.6875,-2.3463,0.5831,0.3816,-0.7441,1.7535,-0.2187,-1.2522,-2.0615,2.5698,-2.9653,2.0288,8.6132,13.6386,11.7766,-0.4709,4.4275,10.8114,6.5462,9.1250
2058.5938,-0.1542,3.7530,4.8552,4.9206,6.5067,2.4094,0.5205,1.4049,6.2473,-2.7555,4.8879,10.4058,18.6011,16.3415,1.7504,3.6421,12.7712,10.7254,14.5279
2062.5000,1.2960,5.3655,7.1700,9.3231,10.3261,4.8076,1.4143,4.3009,7.7408,-2.6952,6.2863,9.3755,19.7157,18.3232,3.1430,2.3466,12.3871,11.2632,16.4824
2066.4062,1.7858,5.4111,7.7344,12.6383,13.4107,6.5847,2.2738,7.0682,7.0068,-2.5780,6.0628,6.5831,17.7468,18.0382,3.2986,1.2393,10.4010,8.6868,15.7943
2070.3125,1.6108,4.5541,7.7385,15.4736,16.2261,7.5279,4.0332,10.2074,4.9460,-2.1756,4.6688,3.7812,14.4917,16.5664,2.2364,0.8103,8.1362,4.9228,14.2672
2074.2188,1.3435,3.6594,8.3520,18.3816,19.1315,7.6148,6.9508,13.8600,2.8128,-1.5257,2.7822,2.4327,11.8089,15.1416,0.2963,1.0540,6.7775,2.2816,13.6298
2078.1250,1.4370,3.2731,10.0135,21.4203,22.0829,6.9749,10.2703,17.5864,1.5305,-1.0305,0.9405,2.9595,10.7408,14.5508,-2.0130,1.5446,6.7863,2.2647,14.6059
2082.0312,1.9299,3.3460,12.1757,23.9810,24.5252,5.8215,12.5426,20.4482,1.2860,-1.2480,-0.6126,4.6157,11.1396,14.8064,-4.1383,1.7706,7.7374,4.8079,16.5879
2085.9375,2.4487,3.3341,13.6101,24.9780,25.5192,4.3840,12.4228,21.3550,1.5837,-2.4931,-1.8547,6.0084,11.9131,15.2048,-5.5844,1.4654,8.6197,8.3489,18.0210
2089.8438,2.5051,2.5885,13.0772,23.3307,24.0794,2.8714,9.4607,19.5252,1.6607,-4.5237,-2.8181,5.9219,11.6922,14.7038,-6.0315,0.7044,8.4041,10.6670,17.2379
2093.7500,1.8773,0.7930,10.0012,18.5247,19.6230,1.4707,4.4184,14.8652,0.9855,-6.5639,-3.4862,3.9622,9.5399,12.4274,-5.4641,-0.2593,6.5642,10.0410,13.2941
2097.6562,0.8061,-1.8051,4.8126,10.9849,12.3594,0.3569,-1.0633,8.1044,-0.4498,-7.6924,-3.8140,0.6920,5.3571,8.0855,-4.2342,-1.2473,3.2991,6.1169,6.4164
2101.5625,-0.1354,-4.4879,-1.1915,2.0660,3.4249,-0.3160,-5.2467,0.6202,-2.1683,-7.3671,-3.8166,-2.7495,-0.1497,2.1548,-2.9638,-2.2706,-0.6070,0.0637,-2.0831
2105.4688,-0.4085,-6.4153,-6.3781,-6.3646,-5.3590,-0.4559,-7.0879,-5.9923,-3.5056,-5.7378,-3.6129,-5.2558,-5.8313,-4.2271,-2.2690,-3.4114,-4.1627,-6.0124,-10.3173
2109.3750,0.1447,-7.0204,-9.4334,-12.5788,-12.0631,-0.0803,-6.6231,-10.4430,-3.9590,-3.5322,-3.3660,-6.2273,-10.5376,-9.5966,-2.4255,-4.5847,-6.5563,-10.0455,-16.4824
2113.2812,1.2136,-6.2444,-9.8434,-15.5788,-15.3349,0.6687,-4.7896,-12.1497,-3.3977,-1.5869,-3.1578,-5.6876,-13.4114,-12.6038,-3.1867,-5.4120,-7.3692,-10.8727,-19.3896
2117.1875,2.2431,-4.5095,-8.0060,-15.3563,-14.8674,1.5646,-2.8299,-11.3515,-2.0599,-0.3458,-2.9097,-4.0732,-13.9557,-12.4062,-3.9087,-5.3646,-6.5619,-8.5974,-18.7022
2121.0938,2.7978,-2.4801,-4.9612,-12.7118,-11.4118,2.3783,-1.6343,-8.8859,-0.3931,0.3288,-2.4316,-1.9035,-11.9593,-8.8917,-3.9498,-4.1195,-4.3169,-4.3663,-14.8605
2125.0000,2.8093,-0.7618,-1.8936,-8.7496,-6.3213,2.9517,-1.3656,-5.7404,1.1428,0.9159,-1.5855,0.4495,-7.4342,-2.6660,-3.1099,-1.8717,-0.8833,0.2450,-8.7940
2128.9062,2.5418,0.3125,0.3571,-4.3295,-0.8734,3.2258,-1.5273,-2.6034,2.2141,1.7603,-0.4444,2.8015,-0.6564,5.1734,-1.8095,0.6634,3.4758,3.9047,-1.5709
2132.8125,2.3290,0.7362,1.5718,0.2356,4.2578,3.2224,-1.3837,0.3624,2.6692,2.7331,0.6829,5.0665,7.7250,13.3793,-0.8594,2.6229,8.4295,5.9715,5.8764
2136.7188,2.2943,0.7449,2.1190,5.0954,9.0985,3.0135,-0.4577,3.4181,2.5402,3.2939,1.4079,7.1592,16.6413,20.8732,-0.9423,3.5252,13.5015,6.5860,12.8684
2140.6250,2.2713,0.6725,2.6641,10.4789,14.0272,2.7149,1.1830,6.9011,2.0218,2.9167,1.5076,8.9610,24.7369,26.9250,-2.1467,3.5857,18.0663,6.4396,18.9408
2144.5312,1.9773,0.8184,3.7800,16.2739,19.2347,2.5004,3.0008,10.8508,1.4263,1.5623,1.0902,10.3368,30.6880,31.1553,-3.8777,3.5610,21.4611,6.3633,23.7289
2148.4375,1.2991,1.3622,5.6502,21.8453,24.3600,2.5949,4.3567,14.8423,1.0951,-0.1729,0.5471,11.1488,33.5834,33.4185,-5.2267,4.1835,23.1712,6.9139,26.8851
2152.3438,0.4666,2.3268,7.9982,26.2184,28.5395,3.2023,4.9319,18.1335,1.2677,-1.3688,0.3045,11.2440,33.1907,33.6799,-5.5603,5.5575,22.9956,8.1188,28.1126
2156.2500,-0.0285,3.5810,10.2560,28.5232,30.8355,4.3835,4.9390,20.0322,1.9538,-1.3538,0.5303,10.4596,29.9843,31.9819,-4.9268,6.9572,21.1066,9.4800,27.3104
2160.1562,0.2777,4.8808,11.8666,28.4310,30.7561,5.9575,4.9880,20.2535,2.8921,-0.1387,1.0048,8.6992,24.9348,28.5094,-3.9931,7.2173,17.9764,10.2349,24.7293
2164.0625,1.5210,5.9484,12.5476,26.3137,28.5239,7.5243,5.6923,19.0411,3.6473,1.6005,1.2603,6.0706,19.1707,23.6749,-3.5514,5.5038,14.2116,9.7568,21.0012
2167.9688,3.4016,6.5712,12.3766,23.0226,24.9160,8.6365,7.2581,16.9800,3.8228,2.9833,0.9171,2.9894,13.6516,18.1082,-3.9359,1.9629,10.3705,7.8957,16.9604
2171.8750,5.3426,6.6811,11.6659,19.4158,20.7815,9.0423,9.3184,14.6249,3.2820,3.5103,-0.0085,0.1217,8.9499,12.4929,-4.7611,-2.2097,6.8274,5.0719,13.3035
2175.7812,6.8015,6.3697,10.7159,15.9129,16.5507,8.8450,11.1135,12.1875,2.2403,3.3648,-1.0466,-1.8756,5.1658,7.3044,-5.1707,-5.3724,3.7135,2.0551,10.2619
2179.6875,7.5301,5.8181,9.6045,12.3342,12.0514,8.4489,11.9041,9.4792,1.1526,3.2266,-1.5391,-2.7091,1.9585,2.5968,-4.4340,-6.3631,0.9283,-0.4584,7.4806
2183.5938,7.6200,5.1695,8.1372,8.1065,6.7418,8.2942,11.3561,6.1337,0.4383,3.7324,-1.0828,-2.6879,-1.3195,-2.0107,-2.4888,-5.1723,-1.7954,-2.2340,4.2040
2187.5000,7.3238,4.4109,5.9779,2.6970,0.2054,8.5297,9.6630,1.9483,0.1920,4.9631,0.1285,-2.6596,-5.3880,-7.0955,-0.0686,-2.9390,-4.7842,-3.6239,-0.3084
2191.4062,6.7906,3.3386,2.8732,-3.9794,-7.4058,8.8388,7.3542,-2.8838,0.0597,6.3089,1.3043,-3.6243,-10.7238,-13.0309,1.6681,-1.2755,-8.2824,-5.3471,-6.3417
2195.3125,5.9101,1.6447,-1.1605,-11.3934,-15.2415,8.5572,4.9471,-7.7898,-0.6191,6.8082,1.4424,-6.2016,-17.2418,-19.6194,1.7643,-1.3401,-12.2948,-8.0428,-13.4815
2199.2188,4.3805,-0.8943,-5.7759,-18.5262,-21.9904,7.0409,2.6937,-12.0413,-2.4469,5.7403,-0.0995,-10.2320,-24.1087,-25.9482,-0.0353,-3.2193,-16.4598,-11.8430,-20.6673
2203.1250,1.9691,-4.2092,-10.3589,-24.1734,-26.3226,4.0850,0.5853,-15.0140,-5.5599,3.1000,-3.1698,-14.7309,-29.8198,-30.5587,-3.1843,-5.9544,-20.0222,-16.1899,-26.4875
2207.0312,-1.1977,-7.8137,-14.1586,-27.2528,-27.2885,0.1429,-1.4211,-16.3142,-9.4022,-0.3285,-6.7932,-18.2315,-32.5846,-31.8746,-6.6391,-8.1423,-21.9605,-19.9846,-29.5623
2210.9375,-4.5101,-10.8533,-16.4246,-27.0099,-24.5113,-3.7888,-3.1611,-15.7352,-12.8332,-3.3291,-9.5871,-19.3552,-30.9205,-28.7315,-9.3451,-8.7091,-21.2769,-21.9836,-28.8754
2214.8438,-7.0265,-12.3509,-16.5424,-23.1234,-18.1766,-6.5721,-4.2200,-13.1579,-14.5583,-4.8254,-10.4155,-17.3521,-24.2343,-20.8139,-10.6294,-7.4084,-17.3708,-21.2579,-23.9989
2218.7500,-7.8578,-11.5810,-14.1898,-15.7785,-8.9370,-7.4083,-4.1486,-8.5523,-13.7016,-4.3575,-8.9354,-12.3891,-13.1467,-8.8547,-10.3450,-4.8196,-10.3552,-17.5353,-15.2250
2222.6562,-6.6003,-8.4253,-9.5073,-5.7372,2.1658,-6.1619,-2.7941,-2.1337,-10.2472,-2.2424,-5.7470,-5.4930,0.5935,5.4725,-8.7886,-1.9380,-1.1583,-11.3198,-3.6090
2226.5625,-3.5873,-3.5324,-3.2078,5.6600,13.7672,-3.3866,-0.4984,5.4392,-5.1184,0.6216,-2.0772,1.8057,14.5919,19.9462,-6.5097,0.3507,8.6744,-3.7669,9.1290
2230.4688,0.1923,1.8348,3.4956,16.6708,24.3295,-0.0686,1.9981,13.0308,0.1682,3.1748,0.8281,7.9845,26.5093,32.3651,-4.1186,1.6287,17.4372,3.6373,20.9160
2234.3750,3.4941,6.2453,9.2060,25.5537,32.4454,2.7724,3.9118,19.2899,4.1275,4.6356,2.2758,12.0130,34.7196,41.1210,-2.1287,2.0154,23.8030,9.5066,29.8507
2238.2812,5.3483,8.6608,12.8286,31.0879,37.2304,4.4444,4.8064,23.1350,5.9185,4.7788,2.3693,13.6410,38.6842,45.5749,-0.8305,1.9984,27.2129,12.9664,34.7843
2242.1875,5.4559,8.8466,14.0043,32.9731,38.6071,4.7731,4.7789,24.2038,5.6452,3.9583,1.8229,13.3805,38.9203,46.0866,-0.2168,2.1557,27.9343,13.9001,35.6892
2246.0938,4.2482,7.4188,13.2452,31.8756,37.2786,4.0737,4.3370,22.9806,4.2071,2.8865,1.4777,12.1817,36.6030,43.6795,-0.0116,2.8867,26.7712,12.9168,33.5881
2250.0000,2.5921,5.4908,11.6581,29.0568,34.3446,2.9445,4.0718,20.4971,2.7870,2.2766,1.8073,10.9370,32.9831,39.4930,0.1651,4.2223,24.5834,11.0351,30.0224
2253.9062,1.3159,4.1044,10.3772,25.7530,30.7439,1.9827,4.3447,17.7672,2.2551,2.5083,2.6887,10.0505,28.8780,34.2943,0.5543,5.7651,21.8756,9.2152,26.3090
2257.8125,0.8264,3.7515,10.0062,22.6325,26.8386,1.5416,5.1624,15.2960,2.8007,3.4737,3.5499,9.3022,24.4535,28.3013,1.0825,6.8027,18.6710,7.9730,22.9775
2261.7188,1.0178,4.2395,10.3767,19.6146,22.3942,1.6278,6.2588,12.9540,3.9687,4.6785,3.7858,8.0969,19.3856,21.3988,1.3944,6.6012,14.7187,7.2718,19.6948
2265.6250,1.4893,4.9474,10.7439,16.1301,16.9633,1.9755,7.2671,10.2698,5.0392,5.5447,3.1821,5.9602,13.3020,13.5932,1.1126,4.7875,9.8817,6.7316,15.6982
2269.5312,1.8930,5.2807,10.2814,11.6433,10.4241,2.2488,7.8471,6.9212,5.5033,5.7434,2.0892,2.9812,6.2609,5.3987,0.1681,1.6357,4.4517,6.0000,10.4611
2273.4375,2.1697,5.0306,8.5739,6.1199,3.3187,2.2548,7.7248,3.0832,5.3451,5.3628,1.2393,-0.0964,-1.0056,-2.1205,-1.0364,-1.9391,-0.8159,5.0322,4.1839
2277.3438,2.5209,4.4207,5.8305,0.1745,-3.2356,2.0375,6.7109,-0.5938,4.9762,4.8073,1.3142,-2.2240,-7.2426,-7.7145,-1.7905,-4.7463,-4.9772,4.0968,-2.1720
2281.2500,3.1580,3.8476,2.7304,-5.1652,-8.0195,1.7955,4.7755,-3.3475,4.8889,4.4898,2.5165,-2.6479,-11.1634,-10.5198,-1.5067,-5.8924,-7.3237,3.5231,-7.3049
2285.1562,4.0246,3.5232,0.0343,-8.9223,-10.2857,1.6787,2.1696,-4.7504,5.2612,4.5151,4.3963,-1.3921,-12.0347,-10.4983,-0.1577,-5.2496,-7.7098,3.3858,-10.1821
2289.0625,4.7068,3.2793,-1.7953,-10.5959,-10.0984,1.6094,-0.5268,-4.9406,5.7708,4.5638,6.0352,0.6906,-10.0445,-8.4763,1.5814,-3.5291,-6.6001,3.3693,-10.4930
2292.9688,4.6124,2.6677,-2.7634,-10.3253,-8.2555,1.2720,-2.5539,-4.4947,5.7359,4.0619,6.4879,2.3511,-6.2494,-5.7542,2.6197,-1.8867,-4.8264,2.9201,-8.7245
2296.8750,3.3202,1.2815,-3.2448,-8.7345,-5.8597,0.3067,-3.3138,-4.0394,4.5032,2.5383,5.2407,2.6104,-2.1148,-3.5091,2.0315,-1.2770,-3.2004,1.5967,-5.8650
2300.7812,0.8848,-0.9231,-3.7075,-6.5637,-3.7907,-1.4019,-2.7208,-3.8594,1.8579,-0.0444,2.4503,1.2711,1.1177,-2.3176,-0.4000,-1.9362,-2.1931,-0.6132,-2.9299
2304.6875,-2.0917,-3.5146,-4.4152,-4.2946,-2.3549,-3.5351,-1.3068,-3.7421,-1.7759,-3.1878,-1.1419,-1.0182,2.9212,-2.0309,-3.9993,-3.3024,-1.8213,-3.2126,-0.5518
2308.5938,-4.6688,-5.7511,-5.2495,-1.9642,-1.2604,-5.4016,0.0504,-3.1385,-5.4566,-6.0435,-4.5483,-3.1554,3.5966,-2.0178,-7.4886,-4.4103,-1.7567,-5.4008,1.1926
2312.5000,-5.9514,-6.9168,-5.7323,0.7428,0.1145,-6.2501,0.6490,-1.5253,-8.1099,-7.7821,-6.9380,-4.1852,3.9765,-1.5902,-9.5961,-4.5032,-1.5581,-6.4416,2.6803
2316.4062,-5.4615,-6.6439,-5.2485,4.1751,2.3213,-5.6693,0.4058,1.2467,-8.9871,-7.9519,-7.9141,-3.7624,4.8943,-0.3683,-9.6506,-3.4833,-0.8998,-5.9936,4.4344
2320.3125,-3.3351,-5.0670,-3.3943,8.3387,5.5058,-3.8397,-0.1001,4.8050,-7.9851,-6.6546,-7.5709,-2.2552,6.7020,1.5805,-7.8597,-1.9367,0.2975,-4.2487,6.7580
2324.2188,-0.2758,-2.7631,-0.2993,12.6800,9.2753,-1.4830,-0.0419,8.3692,-5.6882,-4.4764,-6.3556,-0.4854,9.0750,3.8421,-5.1502,-0.7452,1.8580,-1.8469,9.4736
2328.1250,2.7048,-0.5316,3.2584,16.1775,12.8166,0.4746,1.0414,11.0533,-3.1169,-2.2282,-4.8376,0.7042,11.1879,5.8931,-2.6838,-0.5480,3.4425,0.3656,11.9066
2332.0312,4.6627,0.8909,6.0686,17.7370,15.2110,1.3404,2.8586,12.2065,-1.2983,-0.6184,-3.4928,0.8207,12.1528,7.3370,-1.3081,-1.3854,4.6931,1.6290,13.1537
2335.9375,5.0805,1.0883,7.0024,16.7067,15.8088,0.9566,4.4863,11.6410,-0.8428,0.0091,-2.5737,-0.1264,11.4790,8.0401,-1.2098,-2.7237,5.3752,1.5176,12.5334
2339.8438,4.0756,0.1135,5.5847,13.2245,14.4926,-0.2861,4.9292,9.6532,-1.7141,-0.2244,-2.0888,-1.7172,9.3090,8.1238,-1.9195,-3.8155,5.4533,0.0719,9.9797
2343.7500,2.3508,-1.5339,2.2875,8.1745,11.6867,-1.7115,3.7331,6.8363,-3.3001,-0.8348,-1.8827,-3.3785,6.2980,7.8288,-2.6412,-4.1640,5.0537,-2.2372,6.1230
2347.6562,0.8647,-3.1316,-1.6901,2.7374,8.0891,-2.7380,1.2228,3.7706,-4.7609,-1.2479,-1.7858,-4.6866,3.2000,7.3084,-2.7351,-3.8156,4.3144,-4.7268,1.9519
2351.5625,0.3341,-4.1002,-5.0920,-2.2206,4.2658,-3.1716,-1.7926,0.7460,-5.4938,-1.1312,-1.7765,-5.5901,0.3955,6.4529,-2.1048,-3.3291,3.2024,-6.8377,-1.7871
2355.4688,0.8056,-4.3486,-7.3445,-6.5499,0.3529,-3.2675,-4.6138,-2.3331,-5.4747,-0.6232,-2.0690,-6.4536,-2.3516,4.8597,-1.2849,-3.4537,1.4354,-8.4332,-5.0734
2359.3750,1.5550,-4.3876,-8.8774,-10.7378,-3.9135,-3.5508,-7.0897,-5.7849,-5.2819,-0.3150,-3.0528,-7.8771,-5.7256,2.0249,-1.1589,-4.7019,-1.3826,-9.8726,-8.6159
2363.2812,1.4354,-5.0808,-10.7599,-15.3686,-8.8171,-4.5013,-9.5616,-9.7984,-5.7578,-0.9508,-5.0666,-10.3375,-10.3326,-2.2853,-2.4318,-7.0430,-5.4279,-11.7620,-13.2868
2367.1875,-0.4591,-7.1071,-13.8326,-20.4568,-14.1533,-6.2687,-12.3538,-14.0915,-7.4731,-2.9780,-8.0979,-13.8086,-16.1046,-7.6644,-5.1323,-9.8697,-10.3045,-14.4779,-19.2934
2371.0938,-4.1734,-10.4211,-17.8903,-25.1023,-18.9574,-8.5553,-15.2111,-17.8088,-10.2877,-6.1967,-11.5850,-17.5754,-22.0074,-12.9475,-8.4429,-12.2508,-14.9297,-17.7371,-25.6347
2375.0000,-8.7038,-14.0621,-21.5000,-27.7391,-21.7322,-10.7185,-17.1503,-19.7778,-13.2800,-9.7392,-14.4856,-20.3988,-26.2922,-16.5110,-11.0059,-13.3417,-17.8268,-20.5168,-30.2828
2378.9062,-12.4113,-16.4965,-22.6564,-26.8819,-21.1354,-12.0407,-16.9071,-19.0326,-15.1204,-12.4329,-15.6492,-21.0127,-27.2234,-16.9295,-11.5885,-12.7501,-17.7533,-21.4436,-31.0905
2382.8125,-13.8401,-16.3608,-19.9233,-21.9432,-16.7585,-12.0335,-13.7225,-15.3293,-14.7105,-13.3666,-14.3423,-18.7199,-23.9169,-13.6857,-9.7535,-10.6773,-14.3515,-19.4768,-26.9388
2386.7188,-12.4777,-13.1967,-13.3537,-13.6316,-9.5094,-10.6349,-7.9413,-9.3500,-11.7432,-12.3336,-10.6450,-13.7616,-16.8198,-7.5308,-6.1395,-7.7703,-8.4308,-14.4962,-18.4304
2390.6250,-8.9989,-7.7400,-4.5888,-3.6889,-1.3075,-8.2070,-0.9909,-2.4511,-6.8699,-9.8901,-5.4731,-7.2304,-7.5470,-0.2444,-2.1476,-4.7697,-1.6661,-7.4310,-7.6775
2394.5312,-4.8512,-1.5767,3.9455,5.8733,5.7866,-5.3532,5.2811,3.9214,-1.3857,-6.9986,-0.1775,-0.5605,1.8478,6.1306,0.8154,-2.1490,4.1632,0.1600,2.7147
2398.4375,-1.4471,3.6331,10.2508,13.5890,10.5242,-2.6589,9.5038,8.8259,3.3832,-4.4918,4.0735,5.1159,9.7546,10.1862,2.1027,0.0551,7.9787,6.8080,10.8652
2402.3438,0.5275,6.9037,13.6313,18.9587,12.9526,-0.4997,11.3553,12.1030,6.6433,-2.6967,6.7845,9.3749,15.5597,11.6987,2.1373,2.1382,9.7922,11.7229,16.3177
2406.2500,1.2776,8.2236,14.7370,22.3075,14.1628,0.9978,11.4820,14.2068,8.3544,-1.4365,8.2230,12.4612,19.5997,11.5440,2.0676,4.4315,10.4758,14.9286,19.8571
2410.1562,1.4974,8.2914,14.8439,24.2721,15.4856,1.8595,10.8781,15.7385,9.0399,-0.3599,9.0831,14.8857,22.6273,11.0725,2.9780,7.0160,11.0905,16.9349,22.6526
2414.0625,1.7410,7.9362,14.9245,25.2970,17.6507,2.1368,10.1835,16.9964,9.3633,0.6732,9.9663,16.9708,25.1827,11.3382,5.1557,9.6374,12.2244,18.2370,25.3450
2417.9688,2.0314,7.6371,15.1360,25.4465,20.4112,1.8604,9.3711,17.8168,9.7573,1.4374,11.0198,18.6540,27.2687,12.6293,7.8824,11.8673,13.7512,19.0034,27.6692
2421.8750,1.9588,7.4232,14.9935,24.5698,22.8077,1.1034,7.9861,17.7702,10.3041,1.5176,11.9448,19.6395,28.4767,14.5135,9.8859,13.3841,15.1111,19.1248,28.7883
2425.7812,1.1329,7.1248,13.9872,22.6108,23.8331,0.0746,5.6999,16.5373,10.8595,0.6536,12.3130,19.7225,28.3900,16.2717,10.1525,14.1552,15.8502,18.5004,28.0139
2429.6875,-0.4102,6.6878,12.1096,19.7882,23.0319,-0.8862,2.7387,14.1919,11.2478,-1.0290,11.9175,18.9870,26.9222,17.3722,8.5634,14.3789,15.9891,17.2612,25.3554
2433.5938,-2.1941,6.2542,9.8872,16.5115,20.6718,-1.4716,-0.1373,11.2036,11.3409,-3.0901,10.8755,17.7039,24.3472,17.6771,5.9350,14.2229,15.9448,15.7100,21.5153
2437.5000,-3.6990,5.9420,7.9247,13.1206,17.4446,-1.6549,-2.0874,8.1770,10.9747,-5.0941,9.4160,16.0128,21.0427,17.3133,3.4420,13.5686,16.0841,14.0188,17.3794
2441.4062,-4.8388,5.5359,6.3567,9.6671,13.9737,-1.8368,-2.7477,5.5186,9.8282,-6.9176,7.5513,13.6786,17.1936,16.3968,1.8200,11.9867,16.2765,11.9556,13.4132
2445.3125,-6.0968,4.4096,4.6639,5.9154,10.4913,-2.7235,-2.4979,3.2530,7.4533,-8.7886,4.9467,10.1779,12.7176,14.8780,0.8924,9.0194,15.8305,8.9277,9.4183
2449.2188,-8.1456,1.8394,2.0313,1.5714,6.8796,-4.9308,-2.2486,1.0965,3.5347,-11.0011,1.1651,5.1323,7.4850,12.6436,-0.2483,4.6119,13.9158,4.3998,4.8197
2453.1250,-11.1925,-2.4384,-1.9935,-3.4100,2.9925,-8.5134,-2.8884,-1.2764,-1.7419,-13.5126,-3.8359,-1.1861,1.6585,9.7727,-2.5224,-0.6042,10.2060,-1.5583,-0.7356
2457.0312,-14.5466,-7.8036,-7.0074,-8.6355,-1.0173,-12.7244,-4.7422,-3.9508,-7.4786,-15.7455,-9.3213,-7.6584,-4.1264,6.7069,-6.0924,-5.4136,5.2843,-7.9873,-6.8989
2460.9375,-16.8041,-12.8084,-11.7858,-13.3154,-4.6096,-16.2158,-7.3693,-6.6409,-12.2364,-16.7916,-13.8593,-12.6497,-8.9037,4.1502,-10.0731,-8.5100,0.4916,-13.2793,-12.5934
2464.8438,-16.6233,-15.7695,-14.8435,-16.5054,-7.0614,-17.6407,-9.7976,-8.7726,-14.5923,-15.9336,-15.9277,-14.7402,-11.7693,2.7286,-12.9443,-9.1207,-2.7287,-15.8711,-16.4522
2468.7500,-13.6222,-15.6018,-15.1776,-17.4250,-7.8090,-16.3485,-11.0229,-9.7186,-13.8199,-13.1536,-14.7326,-13.4478,-12.2666,2.6361,-13.4238,-7.3951,-3.5875,-15.0090,-17.4394
2472.6562,-8.7875,-12.4151,-12.7460,-15.7142,-6.7034,-12.7771,-10.4729,-9.0547,-10.3077,-9.2759,-10.7311,-9.5013,-10.5248,3.5231,-11.2512,-4.3166,-2.3291,-11.1353,-15.2841
2476.5625,-4.0669,-7.5122,-8.4293,-11.5502,-4.0411,-8.2877,-8.1999,-6.7251,-5.4430,-5.6120,-5.4902,-4.4857,-7.0947,4.7160,-7.3847,-1.1808,-0.0016,-5.6658,-10.5227
2480.4688,-1.3423,-2.7758,-3.5547,-5.6137,-0.3997,-4.5125,-4.7612,-3.0644,-0.9869,-3.3018,-0.9231,-0.0588,-2.6435,5.6219,-3.4870,1.0499,2.2070,-0.2996,-4.2072
2484.3750,-1.4005,0.2227,0.7023,1.0665,3.5843,-2.5665,-0.9224,1.3063,1.7303,-2.7447,1.6576,2.8027,2.2571,6.0379,-1.0248,2.1384,3.6191,3.7321,2.4884
2488.2812,-3.5324,0.9059,3.7073,7.3522,7.3641,-2.5591,2.6228,5.6522,2.3583,-3.4623,2.1068,4.1071,7.1261,6.1632,-0.5333,2.5031,4.2942,6.0643,8.5469
2492.1875,-6.0005,-0.1772,5.4065,12.2663,10.5207,-3.6585,5.3968,9.3084,1.5339,-4.4554,1.3152,4.5727,11.4332,6.3260,-1.4694,2.7733,4.7342,7.0788,13.2078
2496.0938,-7.0645,-1.7853,6.0997,15.2285,12.7492,-4.6355,7.1482,11.8234,0.3864,-4.8105,0.5148,5.0055,14.5286,6.6509,-2.6880,3.2890,5.3344,7.4305,15.9750
2500.0000,-5.9264,-2.6976,6.1579,16.1773,13.8635,-4.5443,7.8106,13.0318,-0.1376,-4.1690,0.5006,5.7505,15.7922,6.9210,-3.1896,3.8754,6.0024,7.5714,16.6515
2503.9062,-3.0427,-2.2966,5.8548,15.5218,13.8384,-3.1498,7.4847,13.0439,0.2710,-2.7939,1.2670,6.5498,14.9591,6.7406,-2.6558,4.0263,6.2183,7.5649,15.4261
2507.8125,0.3135,-0.7392,5.3536,13.9335,12.8412,-0.8991,6.4437,12.1617,1.2757,-1.2485,2.2334,6.8471,12.3988,5.8705,-1.4801,3.3456,5.4736,7.2457,12.9210
2511.7188,2.8829,1.2993,4.7741,12.0643,11.1939,1.4701,5.1067,10.7549,2.2629,0.0433,2.8197,6.2830,9.1069,4.4780,-0.3558,1.9260,3.7505,6.5312,10.0729
2515.6250,4.0856,3.0914,4.2345,10.3122,9.2559,3.3896,3.9255,9.1422,2.7950,1.0357,2.9092,5.0181,6.3343,3.1063,0.2351,0.3911,1.6748,5.6090,7.8177
2519.5312,4.1383,4.2310,3.8224,8.7337,7.2871,4.6919,3.2015,7.5146,2.8408,1.9513,2.8650,3.6629,5.0227,2.3727,0.2762,-0.4440,0.2142,4.8493,6.6972
2523.4375,3.6476,4.7226,3.5231,7.1185,5.3768,5.5133,2.9262,5.9176,2.6681,2.9439,3.1228,2.8732,5.3584,2.6028,0.0824,-0.0804,0.1139,4.5122,6.6046
2527.3438,3.0474,4.7970,3.1811,5.1686,3.4819,6.0030,2.7604,4.2855,2.5284,3.8217,3.7132,2.8944,6.7026,3.6517,-0.0602,1.3220,1.4417,4.4884,6.8396
2531.2500,2.3044,4.6308,2.5472,2.6855,1.5459,6.0947,2.2003,2.5086,2.4004,4.0725,4.1110,3.3675,7.9356,5.0257,-0.1679,2.9922,3.5369,4.2892,6.4755
2535.1562,1.0747,4.1860,1.4088,-0.3084,-0.3802,5.5267,0.8665,0.5171,1.9907,3.2017,3.5581,3.5273,8.0170,6.2033,-0.5356,3.9694,5.3833,3.3285,4.8571
2539.0625,-0.8511,3.2754,-0.2580,-3.5370,-2.0880,4.0961,-1.2409,-1.6327,0.9893,1.1533,1.6364,2.6656,6.4536,6.9280,-1.4442,3.6394,6.1609,1.3251,1.9600
2542.9688,-3.1796,1.7917,-2.1973,-6.5126,-3.2528,1.9476,-3.6740,-3.6952,-0.6170,-1.5005,-1.3297,0.5679,3.4533,7.2826,-2.8412,2.0617,5.6350,-1.4420,-1.5776
2546.8750,-5.1182,-0.0791,-3.9048,-8.6290,-3.5301,-0.3402,-5.7112,-5.2290,-2.4121,-3.7720,-4.3541,-2.3394,-0.2567,7.5281,-4.2566,-0.1035,4.1813,-4.1997,-4.7557
2550.7812,-5.7717,-1.8298,-4.7862,-9.2915,-2.6579,-1.9686,-6.6809,-5.6842,-3.7107,-4.7707,-6.3184,-5.1982,-3.7874,7.8615,-5.0360,-2.0037,2.4874,-6.0387,-6.6638
2554.6875,-4.6719,-2.8304,-4.3813,-8.0693,-0.5340,-2.3234,-6.2538,-4.5834,-3.9128,-4.1971,-6.6010,-7.1362,-6.4019,8.2842,-4.7412,-3.0744,1.1603,-6.3431,-6.8308
2558.5938,-2.0894,-2.6388,-2.5518,-4.8378,2.7406,-1.3141,-4.5422,-1.7427,-2.8232,-2.4941,-5.3840,-7.6340,-7.6493,8.6693,-3.4418,-3.2932,0.4831,-5.0359,-5.3043
2562.5000,1.0816,-1.2266,0.4621,0.1428,6.8497,0.5768,-1.9686,2.5726,-0.7303,-0.5473,-3.4459,-6.6526,-7.3237,8.9498,-1.6977,-3.0710,0.4248,-2.5137,-2.4647
2566.4062,3.7985,1.0238,4.1493,6.2623,11.2995,2.5770,0.9888,7.6597,1.7954,0.8795,-1.6031,-4.5009,-5.3611,9.2560,-0.2373,-2.8770,0.8273,0.6482,1.2657
2570.3125,5.4208,3.5458,7.9471,12.7127,15.5232,4.0693,3.9965,12.5877,4.2374,1.6088,-0.1932,-1.5864,-1.7889,9.8786,0.4624,-2.8609,1.6008,4.0042,5.6164
2574.2188,6.0108,5.8876,11.4512,18.7019,19.0396,4.9203,6.8930,16.5271,6.3793,2.1124,1.0561,1.7670,3.2262,11.0690,0.4367,-2.7256,2.7918,7.3611,10.4529
2578.1250,6.2254,7.8886,14.4974,23.6278,21.5984,5.4921,9.5594,19.0377,8.3098,3.1321,2.7098,5.3356,9.2793,12.8189,0.1865,-1.9316,4.5007,10.6648,15.5926
2582.0312,6.8730,9.6250,17.0732,27.1343,23.2157,6.3371,11.7657,20.1572,10.2017,5.1044,5.1022,8.8837,15.6707,14.7705,0.3653,-0.1009,6.7294,13.7739,20.6066
2585.9375,8.3993,11.1792,19.1209,29.0366,24.0459,7.7750,13.1416,20.2366,12.0306,7.7640,7.9745,12.0516,21.4634,16.3168,1.3897,2.6433,9.2637,16.3118,24.7690
2589.8438,10.5853,12.4105,20.3747,29.1911,24.1434,9.6199,13.3115,19.6179,13.4333,10.1844,10.5112,14.3575,25.6632,16.8262,3.1850,5.6247,11.6618,17.7226,27.2132
2593.7500,12.6174,12.9065,20.3608,27.4235,23.2707,11.2262,12.1038,18.3563,13.8119,11.2390,11.7462,15.3358,27.4695,15.8651,5.1894,7.8982,13.3529,17.5037,27.2263
2597.6562,13.4897,12.1748,18.5963,23.5947,20.9273,11.8227,9.6785,16.1749,12.6398,10.2103,11.0828,14.7365,26.5108,13.3299,6.6057,8.7186,13.8119,15.4736,24.5343
2601.5625,12.5304,9.9676,14.8976,17.7936,16.6553,10.9374,6.4770,12.7066,9.8022,7.1955,8.6289,12.6704,22.9822,9.4789,6.7802,7.9319,12.7590,11.9132,19.4460
2605.4688,9.7872,6.5369,9.6280,10.5441,10.4886,8.6716,3.0347,7.8896,5.7812,3.0946,5.1808,9.6200,17.6350,4.9070,5.5382,6.0723,10.3237,7.5108,12.8057
2609.3750,6.0745,2.6444,3.7283,2.8740,3.2661,5.6813,-0.2047,2.2677,1.5714,-0.7854,1.8936,6.3115,11.6097,0.4805,3.3250,4.1101,7.1029,3.1535,5.7943
2613.2812,2.6513,-0.7055,-1.5273,-3.8578,-3.4464,2.8919,-2.9488,-3.0267,-1.6586,-3.2758,-0.1843,3.5007,6.1494,-2.7968,1.0690,2.9845,4.0502,-0.3322,-0.3436
2617.1875,0.6712,-2.6865,-4.9684,-8.3564,-7.8827,1.1005,-4.9855,-6.6581,-3.0253,-3.7654,-0.5078,1.7487,2.2708,-4.0293,-0.2040,3.1611,2.1807,-2.3957,-4.5775
2621.0938,0.6698,-3.0061,-5.9778,-9.8554,-8.8295,0.6632,-6.0992,-7.6694,-2.3095,-2.3302,0.7793,1.2544,0.4910,-2.7539,0.1437,4.4334,2.1723,-2.8900,-6.3276
2625.0000,2.3400,-2.0160,-4.7455,-8.4288,-6.2107,1.3944,-6.1010,-5.9526,-0.0784,0.4159,2.9185,1.7917,0.7011,0.7920,2.0099,6.0518,4.0327,-2.0979,-5.6148
2628.9062,4.7160,-0.5189,-2.1977,-4.9740,-1.1613,2.7023,-4.9903,-2.3356,2.5318,3.6168,4.8407,2.7815,2.2339,5.6373,4.5404,7.0990,7.0167,-0.6444,-3.0689
2632.8125,6.6768,0.6305,0.3975,-0.8381,4.4817,3.8816,-3.1101,1.7836,4.3060,6.4698,5.6030,3.4966,4.1054,10.3720,6.5148,6.9175,9.8807,0.7166,0.2576
2636.7188,7.5107,0.9352,1.9913,2.7525,9.0139,4.4353,-1.1151,5.0778,4.5076,8.4306,4.8019,3.3483,5.3454,13.6798,6.9654,5.3844,11.3875,1.4079,3.2509
2640.6250,7.2370,0.4773,2.2302,5.1849,11.5763,4.2917,0.3098,6.8650,3.2361,9.3057,2.7822,2.1466,5.3060,14.8545,5.7009,2.9280,10.8274,1.3141,5.1527
2644.5312,6.5132,-0.1555,1.6054,6.6226,12.3755,3.8241,0.8374,7.3163,1.3851,9.2440,0.5107,0.2083,3.8487,14.0280,3.4252,0.3106,8.3000,0.8787,5.8394
2648.4375,6.1833,-0.2023,1.1723,7.7546,12.3305,3.6548,0.7124,7.2006,0.1904,8.6396,-0.8714,-1.7599,1.3665,11.9961,1.3549,-1.6875,4.6276,0.9015,5.8020
2652.3438,6.7376,0.8453,1.9512,9.2757,12.3991,4.3186,0.5940,7.3372,0.5785,7.9659,-0.6201,-2.9672,-1.3485,9.7606,0.5440,-2.5279,0.9730,2.0813,5.8155
2656.2500,8.0038,2.9429,4.3129,11.3990,13.0004,5.9395,1.0832,8.0848,2.6596,7.5849,1.2179,-2.8834,-3.3345,8.0653,1.3156,-2.0247,-1.6162,4.5398,6.4732
2660.1562,9.2562,5.4811,7.6949,13.6894,13.8570,8.0950,2.2508,9.1618,5.6528,7.6069,3.8302,-1.4448,-3.7228,7.1767,3.1404,-0.3106,-2.5131,7.6267,7.8589
2664.0625,9.6690,7.5772,10.8402,15.3139,14.2967,9.9679,3.5311,9.8819,8.2975,7.8715,6.0903,0.9798,-1.9759,6.9754,5.0229,2.2619,-1.5707,10.1779,9.5535
2667.9688,8.8286,8.5193,12.4584,15.5537,13.7718,10.7371,4.1107,9.6364,9.5244,8.0611,7.1828,3.8196,1.9420,7.2143,6.1266,5.2082,0.9933,11.1233,10.9585
2671.8750,6.9822,8.1164,11.9404,14.2525,12.2382,10.0116,3.5770,8.3128,8.9959,7.8793,7.0212,6.5684,7.4984,7.7191,6.2233,7.9628,4.7352,10.0912,11.7015
2675.7812,4.8663,6.7544,9.6971,11.9150,10.1605,8.0628,2.3529,6.3861,7.2027,7.1828,6.2014,8.9215,13.6558,8.3923,5.6874,9.9377,9.0421,7.6266,11.8322
2679.6875,3.2332,5.1250,6.8990,9.3888,8.1682,5.7068,1.5466,4.6359,5.0752,5.9915,5.5237,10.7231,19.0774,9.0649,5.0794,10.6365,13.1288,4.8607,11.6620
2683.5938,2.3832,3.7969,4.7586,7.3344,6.6145,3.8901,2.2375,3.6711,3.3695,4.3931,5.4017,11.8091,22.4464,9.3709,4.6463,9.8211,16.0843,2.8218,11.3707
2687.5000,2.0070,2.9009,3.7996,5.8301,5.3447,3.2132,4.6479,3.5661,2.2263,2.4394,5.5497,11.9031,22.8278,8.8019,4.1059,7.6473,17.0616,1.8255,10.6940
2691.4062,1.4368,2.1269,3.5801,4.3784,3.8344,3.6698,7.7908,3.8361,1.1747,0.1350,5.1552,10.6749,19.9627,6.9574,2.8646,4.6544,15.5799,1.3357,8.9747
2695.3125,0.1368,1.0310,3.0602,2.3219,1.6199,4.7429,9.9105,3.7675,-0.4424,-2.4638,3.4158,7.9418,14.3881,3.8448,0.4935,1.5604,11.7882,0.3899,5.6156
2699.2188,-1.8933,-0.5652,1.3800,-0.5937,-1.2477,5.7756,9.5072,2.9018,-2.9258,-5.1266,0.0859,3.8732,7.3188,0.0300,-2.8928,-1.0615,6.5087,-1.6978,0.6648
2703.1250,-4.0689,-2.3638,-1.4592,-3.8760,-4.0158,6.3636,6.3145,1.3753,-5.9317,-7.4346,-4.3166,-0.9523,0.3124,-3.4784,-6.6295,-3.0417,0.9882,-4.8176,-4.8751
2707.0312,-5.5576,-3.7257,-4.4711,-6.3986,-5.4549,6.5225,1.5890,-0.0915,-8.6303,-8.9318,-8.7582,-5.6948,-5.1787,-5.5717,-9.8682,-4.6353,-3.5502,-8.0681,-9.2921
2710.9375,-5.7848,-4.0691,-6.2151,-6.9287,-4.4064,6.5513,-2.5084,-0.5553,-10.1963,-9.3760,-12.2077,-9.5292,-8.2175,-5.4477,-12.0498,-6.2695,-6.3338,-10.2687,-10.9031
2714.8438,-4.7830,-3.2621,-5.6526,-4.7710,-0.3853,6.7278,-4.0794,0.6413,-10.3009,-8.9194,-14.0926,-11.9029,-8.6113,-2.9021,-13.1584,-8.1671,-7.2395,-10.6386,-8.8967
2718.7500,-3.1663,-1.7361,-2.7864,-0.1682,6.0703,7.0729,-2.4925,3.4979,-9.2820,-8.0756,-14.4405,-12.6549,-6.8876,1.5983,-13.6034,-10.1039,-6.6916,-9.2090,-3.7997
2722.6562,-1.7564,-0.2356,1.3185,5.7571,13.4919,7.3525,1.3673,7.3152,-7.8970,-7.4604,-13.6898,-11.9763,-4.0403,7.0599,-13.8480,-11.4842,-5.3524,-6.7348,2.7139
2726.5625,-1.1024,0.6346,5.1292,11.4633,19.9869,7.2934,5.7033,10.9917,-6.8371,-7.4534,-12.3551,-10.2799,-1.1543,12.2519,-14.0640,-11.7129,-3.7985,-4.2073,8.5723
2730.4688,-1.1933,0.7650,7.4691,15.5914,23.9329,6.8279,8.8350,13.4864,-6.3255,-7.9909,-10.7807,-8.0589,0.9478,16.0502,-14.0456,-10.6221,-2.3437,-2.3063,12.2021
2734.3750,-1.5239,0.5693,8.0624,17.4066,24.5522,6.1709,9.9991,14.2066,-6.0431,-8.6243,-9.0893,-5.7744,1.9188,17.7509,-13.4039,-8.6456,-1.0520,-1.1285,13.1016
2738.2812,-1.4474,0.6760,7.5028,16.9139,22.1199,5.6656,9.4932,13.1526,-5.3982,-8.8034,-7.2694,-3.7577,1.9098,17.2690,-11.8683,-6.5909,0.1379,-0.3052,11.8385
2742.1875,-0.5800,1.4960,6.7340,14.6797,17.7424,5.5173,8.1989,10.8005,-3.9343,-8.2022,-5.2703,-2.1189,1.4318,15.1549,-9.4718,-5.1314,1.2965,0.6378,9.5627
2746.0938,0.9834,2.9477,6.4215,11.5238,12.8436,5.6193,6.9062,7.8387,-1.6148,-6.8838,-3.0293,-0.6924,1.1333,12.3926,-6.5195,-4.3583,2.4712,1.9499,7.3731
2750.0000,2.7457,4.5058,6.6157,8.2512,8.6141,5.6056,5.9087,4.9153,1.1699,-5.2209,-0.4718,0.9095,1.5802,10.0315,-3.4158,-3.7183,3.7187,3.5523,5.8961
2753.9062,4.0916,5.5195,6.8659,5.4963,5.6674,5.0954,5.0663,2.4969,3.8308,-3.6520,2.4291,3.1006,3.0945,8.7888,-0.5107,-2.4141,5.1289,5.1661,5.2342
2757.8125,4.5926,5.5876,6.6345,3.6572,4.0093,3.9557,4.1613,0.8432,5.8673,-2.4500,5.5144,6.0435,5.6740,8.7982,1.9293,-0.0202,6.7806,6.5225,5.1955
2761.7188,4.1700,4.7620,5.6948,2.8613,3.2637,2.3969,3.1980,0.0317,7.0409,-1.6433,8.3252,9.4424,8.9909,9.6227,3.6587,3.1117,8.6413,7.4871,5.5664
2765.6250,3.0698,3.4804,4.2563,2.9490,2.9808,0.8432,2.4045,-0.0230,7.3732,-1.1046,10.1662,12.5631,12.4622,10.5183,4.4231,5.9652,10.4883,8.0379,6.2323
2769.5312,1.7168,2.3022,2.7887,3.5134,2.8601,-0.3246,1.9813,0.4436,7.0306,-0.7001,10.4035,14.5174,15.3865,10.8049,4.0524,7.4595,11.9355,8.1644,7.1128
2773.4375,0.5509,1.6157,1.7159,4.0408,2.8092,-0.9758,1.8577,1.0998,6.2083,-0.3736,8.8654,14.6823,17.1294,10.1561,2.6394,7.1595,12.5829,7.8041,8.0328
2777.3438,-0.0892,1.4758,1.2058,4.1318,2.8769,-1.2587,1.6993,1.6441,5.0819,-0.1134,6.0794,13.0152,17.3144,8.6835,0.6570,5.6088,12.2179,6.8787,8.6852
2781.2500,-0.0370,1.6292,1.1661,3.7044,3.1562,-1.4549,1.1814,1.9676,3.8176,0.1368,3.1291,10.0734,15.9509,6.8169,-1.1279,4.0270,10.9435,5.3953,8.7458
2785.1562,0.6543,1.6862,1.3938,3.0514,3.7297,-1.7773,0.3084,2.2487,2.5850,0.5160,1.1455,6.7209,13.4353,5.0862,-1.9555,3.5255,9.1417,3.5217,8.0674
2789.0625,1.6902,1.3388,1.7314,2.6908,4.6652,-2.2465,-0.4978,2.8763,1.5353,1.1773,0.7115,3.7027,10.4049,3.9272,-1.4409,4.3430,7.2788,1.5705,6.8044
2792.9688,2.5849,0.5275,2.1200,3.0718,6.0108,-2.7080,-0.6456,4.1980,0.7589,2.1550,1.5552,1.3476,7.4976,3.5814,0.2104,5.6161,5.6644,-0.1001,5.3645
2796.8750,2.8178,-0.5112,2.5475,4.2990,7.7508,-2.9520,0.2069,6.2175,0.2664,3.2816,2.7489,-0.4320,5.1256,4.0789,2.2804,5.8822,4.3160,-1.2037,4.2069
2800.7812,2.0675,-1.3373,2.9755,6.0392,9.7301,-2.8444,1.8650,8.4386,0.0180,4.2410,3.3060,-1.8799,3.3730,5.2602,3.8837,4.0319,3.0196,-1.5967,3.6131
2804.6875,0.4106,-1.5166,3.3217,7.6682,11.6088,-2.3977,3.6653,9.9970,-0.0243,4.7423,2.7984,-3.0860,2.0617,6.8085,4.3918,0.1192,1.5530,-1.2922,3.5679
2808.5938,-1.6474,-0.8688,3.5025,8.5684,12.9059,-1.7660,4.8560,10.0492,0.1239,4.6971,1.5907,-3.8593,0.9357,8.3007,3.7129,-4.4988,-0.0744,-0.4481,3.8067
2812.5000,-3.3713,0.3647,3.4693,8.3964,13.1365,-1.1952,5.0217,8.2140,0.4287,4.2705,0.5444,-3.8788,-0.1553,9.2964,2.2931,-7.8217,-1.5329,0.6404,3.9711
2816.4062,-4.1449,1.5411,3.1836,7.1709,11.9858,-0.9602,4.2544,4.8008,0.7630,3.7566,0.3957,-3.0055,-1.1855,9.4560,0.8623,-8.2920,-2.3168,1.5526,3.7574
2820.3125,-3.7856,1.8598,2.5451,5.1556,9.4332,-1.2966,2.9669,0.6729,0.8738,3.3604,1.2310,-1.5225,-2.0268,8.6468,0.0747,-5.6658,-2.0465,1.8064,2.9779
2824.2188,-2.6395,0.7431,1.3596,2.6499,5.7718,-2.3231,1.5144,-3.1811,0.4509,3.0395,2.4078,-0.1042,-2.5974,6.9844,0.2218,-1.1534,-0.7455,1.0047,1.5452
2828.1250,-1.3973,-1.8329,-0.5752,-0.1488,1.5333,-3.9656,-0.0727,-6.1107,-0.7130,2.5266,2.9664,0.4984,-2.9587,4.7926,1.1377,3.2464,1.0981,-0.9679,-0.5415
2832.0312,-0.7342,-5.2439,-3.2782,-3.1171,-2.6329,-5.9233,-2.0363,-8.0192,-2.5582,1.5317,2.2469,-0.1220,-3.2736,2.5099,2.3103,5.8116,2.7466,-3.8024,-3.1468
2835.9375,-0.9792,-8.4378,-6.4101,-6.0545,-6.0781,-7.7211,-4.5624,-9.2174,-4.7007,-0.0037,0.3051,-1.7629,-3.6400,0.5896,3.1288,5.9390,3.5990,-6.7871,-5.9078
2839.8438,-1.9929,-10.3747,-9.2716,-8.5568,-8.2565,-8.8567,-7.4424,-10.0422,-6.5408,-1.7696,-2.1249,-3.6707,-3.9200,-0.5792,3.1543,4.3052,3.5208,-9.0366,-8.2033
2843.7500,-3.2931,-10.4679,-11.0397,-10.0535,-8.8244,-8.9908,-10.0045,-10.5184,-7.4966,-3.1720,-4.0672,-4.9040,-3.7088,-0.7378,2.3063,2.3155,2.9180,-9.8488,-9.2883
2847.6562,-4.3288,-8.8037,-11.1472,-10.0314,-7.7326,-8.0889,-11.4009,-10.3017,-7.2475,-3.6072,-4.8364,-4.8001,-2.5102,0.1723,0.8929,1.2278,2.4995,-9.0198,-8.5925
2851.5625,-4.7339,-6.0466,-9.5867,-8.3206,-5.2761,-6.4394,-11.0698,-8.9345,-5.8659,-2.7797,-4.3379,-3.2918,-0.0451,1.9484,-0.5281,1.4833,2.8607,-6.9454,-6.0451
2855.4688,-4.4419,-3.1069,-6.9388,-5.2538,-2.0418,-4.5351,-9.0585,-6.2223,-3.7795,-0.8936,-3.0007,-0.9142,3.4862,4.1290,-1.4067,2.5964,4.1284,-4.4418,-2.2210
2859.3750,-3.6467,-0.7584,-4.0823,-1.5717,1.2672,-2.8785,-5.9870,-2.4580,-1.5971,1.3868,-1.4525,1.4799,7.3695,6.1084,-1.4665,3.5867,5.8726,-2.3626,1.8288
2863.2812,-2.6765,0.6111,-1.7484,1.8913,4.0760,-1.8001,-2.6900,1.6646,0.1150,3.1904,-0.1873,3.1313,10.6293,7.3577,-0.8522,3.6212,7.3322,-1.2049,5.0179
2867.1875,-1.8616,1.0387,-0.1863,4.5639,6.1341,-1.3673,0.2058,5.3827,1.0132,3.7900,0.5858,3.6945,12.4599,7.6563,-0.0737,2.4718,7.8229,-0.9049,6.7142
2871.0938,-1.4322,0.8579,0.8577,6.3281,7.5511,-1.4021,2.4790,8.2070,1.0635,2.8979,0.8922,3.3272,12.6051,7.1980,0.2452,0.5646,7.0981,-0.9257,7.0012
2875.0000,-1.4427,0.5071,1.8515,7.4389,8.6436,-1.5830,4.1824,10.0481,0.5281,0.7866,0.8625,2.5388,11.4732,6.4871,-0.3023,-1.3194,5.4704,-0.5836,6.5594
2878.9062,-1.7245,0.3699,3.0819,8.2426,9.6821,-1.5783,5.3332,11.0679,-0.1313,-1.8075,0.6586,1.9078,9.9157,6.0631,-1.6654,-2.4508,3.6453,0.5611,6.2368
2882.8125,-1.8969,0.6846,4.4260,8.8901,10.6889,-1.1657,5.7089,11.4049,-0.4086,-3.9536,0.4864,1.8201,8.7880,6.2076,-3.3173,-2.4283,2.3727,2.4601,6.5676
2886.7188,-1.4812,1.5129,5.4369,9.2303,11.4068,-0.3039,4.9424,11.0008,0.0694,-4.8640,0.6164,2.3413,8.5348,6.8080,-4.4811,-1.2361,2.1052,4.6016,7.5201
2890.6250,-0.1145,2.7523,5.6761,8.9421,11.4510,0.8630,2.8639,9.6692,1.3942,-4.1663,1.3159,3.2506,9.0200,7.4565,-4.4890,0.8451,2.8300,6.2852,8.6012
2894.5312,2.2249,4.1801,5.0503,7.7999,10.5396,2.0715,-0.1752,7.3426,3.3210,-2.0056,2.6887,4.1880,9.6763,7.7133,-3.0937,3.3496,4.1288,6.9898,9.2173
2898.4375,5.1158,5.5269,3.9135,5.8829,8.6578,3.0534,-3.2795,4.2917,5.3515,1.0623,4.5277,4.8216,9.8615,7.3602,-0.5808,5.6980,5.4068,6.6360,9.0408
2902.3438,7.8182,6.5580,2.8615,3.5857,6.0654,3.6482,-5.3674,1.1201,6.9365,4.3295,6.3178,4.9610,9.1993,6.4868,2.3594,7.2648,6.1528,5.6033,8.1511
2906.2500,9.5893,7.1301,2.3619,1.4293,3.1607,3.8581,-5.7136,-1.4929,7.7108,7.2177,7.4358,4.5834,7.7112,5.3705,4.9155,7.5113,6.1085,4.5046,6.8928
2910.1562,10.0312,7.1966,2.4771,-0.1945,0.3030,3.8131,-4.3269,-3.1371,7.6395,9.4417,7.4507,3.7869,5.6959,4.2524,6.4445,6.1866,5.2859,3.8535,5.5879
2914.0625,9.2686,6.7707,2.8678,-1.1749,-2.2923,3.6714,-1.9105,-3.8624,6.9923,10.9801,6.3435,2.7150,3.4741,3.1701,6.6426,3.5005,3.8646,3.8100,4.3268
2917.9688,7.8470,5.8877,3.0685,-1.6411,-4.5342,3.5211,0.5748,-4.0766,6.1585,11.8947,4.5049,1.4976,1.1975,1.9606,5.5569,0.1291,2.0564,4.1380,2.9871
2921.8750,6.4177,4.6076,2.8341,-1.7756,-6.3483,3.3522,2.4586,-4.2144,5.4137,12.1378,2.5154,0.2298,-1.1430,0.4248,3.4906,-3.0124,0.0280,4.3786,1.4487
2925.7812,5.4058,3.0572,2.3135,-1.6265,-7.5697,3.1104,3.6612,-4.4087,4.7779,11.4949,0.8512,-1.0122,-3.5262,-1.4600,0.8841,-5.1448,-2.0775,4.1241,-0.1698
2929.6875,4.8537,1.4627,1.9317,-1.0589,-7.9235,2.7794,4.5703,-4.3954,4.0496,9.7251,-0.3037,-2.1401,-5.6868,-3.4187,-1.7728,-5.9508,-4.0560,3.2309,-1.4490
2933.5938,4.5066,0.1130,2.0670,0.1226,-7.1192,2.4110,5.6075,-3.7231,2.9856,6.8162,-1.0445,-3.0308,-7.0681,-4.9283,-4.0012,-5.6600,-5.5780,1.8676,-1.8494
2937.5000,4.0402,-0.7582,2.7507,1.9633,-5.0184,2.0650,6.8111,-2.1285,1.5071,3.1761,-1.5774,-3.5299,-7.0229,-5.4196,-5.4040,-4.8411,-6.2260,0.3964,-1.0301
2941.4062,3.2592,-1.1125,3.5971,4.2107,-1.7859,1.7081,7.7322,0.1815,-0.2041,-0.4014,-2.0359,-3.4849,-5.1694,-4.5321,-5.7673,-4.0299,-5.6494,-0.8201,0.8994
2945.3125,2.1491,-1.1650,4.0075,6.3345,2.0616,1.1715,7.7150,2.5397,-1.7789,-3.0277,-2.4045,-2.8015,-1.6859,-2.3040,-5.1597,-3.4231,-3.7639,-1.5754,3.3603
2949.2188,0.7997,-1.2980,3.5091,7.7110,5.7545,0.2451,6.3521,4.1268,-2.8585,-4.1305,-2.5826,-1.5095,2.6562,0.7883,-3.9577,-2.8266,-0.8771,-1.8770,5.5370
2953.1250,-0.6872,-1.8571,2.0059,7.8681,8.4908,-1.1263,3.7945,4.3919,-3.2966,-3.7534,-2.5174,0.1845,6.7686,3.9606,-2.7435,-1.8812,2.3564,-1.9156,6.7241
2957.0312,-2.2023,-2.9487,-0.2086,6.6511,9.6916,-2.6778,0.6983,3.3249,-3.2498,-2.5585,-2.3057,1.8820,9.6851,6.3746,-2.0883,-0.4161,5.1536,-1.9922,6.5898
2960.9375,-3.5578,-4.3704,-2.6614,4.2348,9.1809,-3.8452,-2.1492,1.4218,-3.1108,-1.5111,-2.1965,3.0456,10.9193,7.4204,-2.3181,1.3032,6.8888,-2.4438,5.2245
2964.8438,-4.4445,-5.7264,-4.9726,1.0012,7.2098,-4.0178,-4.2658,-0.6219,-3.3270,-1.4092,-2.5016,3.1304,10.5487,6.9173,-3.3844,2.6030,7.3012,-3.5653,2.9876
2968.7500,-4.5251,-6.6590,-7.0083,-2.6165,4.3241,-2.9083,-5.6827,-2.2881,-4.1942,-2.5074,-3.4616,1.7765,9.0179,5.1567,-4.9128,2.7147,6.5210,-5.5135,0.2851
2972.6562,-3.6557,-7.0479,-8.8286,-6.2253,1.1548,-0.8099,-6.7995,-3.4499,-5.7211,-4.4326,-5.1273,-0.9998,6.8247,2.7699,-6.4016,1.2105,4.9308,-8.1965,-2.5674
2976.5625,-2.0920,-7.0508,-10.4927,-9.4639,-1.7547,1.4491,-8.0029,-4.3082,-7.6106,-6.4153,-7.2918,-4.7060,4.3117,0.4888,-7.4521,-1.6777,2.9695,-11.2022,-5.3254
2980.4688,-0.4968,-6.9616,-11.8734,-11.9459,-4.0090,2.8744,-9.3161,-5.1180,-9.3566,-7.6931,-9.4976,-8.4393,1.6824,-1.0941,-7.9013,-5.0473,1.0068,-13.8352,-7.6944
2984.3750,0.3312,-6.9820,-12.6133,-13.2450,-5.3220,2.8131,-10.3125,-5.9047,-10.4130,-7.8620,-11.1321,-11.1390,-0.8262,-1.6659,-7.7982,-7.6594,-0.6666,-15.2962,-9.2420
2988.2812,-0.1086,-7.0552,-12.2570,-12.9794,-5.4683,1.3130,-10.3430,-6.3641,-10.3741,-7.0052,-11.6086,-11.9518,-2.8080,-1.2046,-7.2714,-8.4741,-1.7913,-14.9568,-9.4583
2992.1875,-1.6759,-6.8664,-10.4767,-10.9742,-4.3147,-0.8748,-8.9287,-6.0162,-9.1056,-5.5701,-10.5899,-10.5684,-3.7590,0.0913,-6.4037,-7.1331,-2.1432,-12.6116,-7.9736
2996.0938,-3.5739,-6.0113,-7.2650,-7.4053,-1.9400,-2.6610,-6.0759,-4.5091,-6.7834,-4.1029,-8.1665,-7.3802,-3.3612,1.8788,-5.2114,-4.1451,-1.6449,-8.5838,-4.8217
3000.0000,-4.7183,-4.2363,-2.9938,-2.8182,1.2512,-3.1488,-2.3319,-1.8783,-3.8303,-3.0057,-4.8883,-3.3705,-1.8004,3.7091,-3.7357,-0.6729,-0.5249,-3.6323,-0.5782
3003.9062,-4.3077,-1.6216,1.6773,2.0188,4.5559,-2.0547,1.4402,1.4064,-0.7853,-2.4359,-1.6062,0.2239,0.1328,5.0567,-2.1647,1.9782,0.6194,1.2898,3.7465
3007.8125,-2.2855,1.3817,5.9900,6.3706,7.1995,0.1838,4.4369,4.6353,1.8355,-2.3651,0.8256,2.3423,1.2959,5.4063,-0.8742,2.9126,0.9764,5.3065,7.0481
3011.7188,0.5692,4.0712,9.2866,9.7708,8.6798,2.6317,6.2428,7.1768,3.6292,-2.7169,1.8486,2.4435,0.7221,4.4322,-0.3286,1.9645,-0.1199,7.8124,8.5587
3015.6250,2.9735,5.7150,11.1506,12.1161,9.0284,4.2675,6.9541,8.7307,4.3311,-3.4762,1.3579,0.6392,-1.8479,2.2139,-0.8825,-0.3573,-2.7907,8.5450,8.1542
3019.5312,3.7199,5.7839,11.4550,13.5778,8.8085,4.3754,7.0505,9.3835,3.8065,-4.6999,-0.3410,-2.4063,-5.7313,-0.6444,-2.5950,-3.2197,-6.4090,7.5712,6.3846
3023.4375,2.2002,4.1148,10.3259,14.3979,8.8162,2.7645,7.0851,9.4608,2.0589,-6.4385,-2.7225,-5.7312,-9.5123,-3.1166,-5.1632,-5.8732,-9.7409,5.2382,4.2075
