Time,Fp1,F3,C3,P3,O1,F7,T3,T5,Fz,Fp2,F4,C4,P4,O2,F8,T4,T6,Cz,Pz
0.0000,-0.7134,-5.2915,-7.1786,-8.7480,-3.3249,-1.7529,-0.9508,-8.3581,-3.9260,-1.6911,-2.9994,-7.3865,-3.9135,-1.9646,-0.1968,-4.2461,-2.4483,-6.2634,-4.7490
3.9062,0.8423,-3.4566,-3.6752,-6.3143,-5.0740,-1.2201,-0.8154,-8.9310,0.1551,0.6410,1.7714,-3.7051,-3.0598,-3.1044,5.0557,-0.5550,-1.8165,-1.8997,-2.6801
7.8125,3.0359,-0.1336,1.6813,-2.0965,-6.8976,0.5217,0.3451,-8.5244,4.9161,3.7746,7.1045,1.0713,-1.9258,-4.6666,10.1697,3.3842,-1.0862,3.5009,0.4450
11.7188,5.5507,4.4411,7.9468,3.5977,-7.7888,3.5689,2.5541,-6.4513,9.1737,7.0631,11.4947,5.9990,-0.3893,-6.0216,13.7052,6.6136,-0.2499,8.6465,4.3266
15.6250,7.8941,9.4313,13.7265,9.9630,-6.9392,7.3364,4.9549,-2.5267,12.1611,9.7013,13.8731,10.2330,1.7619,-6.3866,15.0099,8.6311,0.7896,12.5728,8.3945
19.5312,9.5344,13.6657,17.7908,15.9580,-4.2223,10.6635,6.2353,2.7416,13.9189,11.0310,14.1146,13.4533,4.7070,-5.2084,14.2370,9.5661,2.1856,15.1648,11.9901
23.4375,10.0615,16.1279,19.6099,20.6159,-0.3466,12.2772,5.5195,8.2754,15.1149,10.7643,13.0067,15.9093,8.3877,-2.4998,11.9541,9.9412,4.0390,17.0575,14.5855
27.3438,9.3095,16.4033,19.4880,23.2436,3.4153,11.3973,3.0628,12.7993,16.3998,9.0227,11.7141,18.0300,12.3287,1.0541,8.7903,10.2013,6.2487,18.9549,15.9107
31.2500,7.3942,14.8167,18.2192,23.4596,5.7636,8.1525,0.1620,15.2778,17.7534,6.2092,11.0687,19.8618,15.6113,4.2976,5.3948,10.3416,8.4069,20.8495,15.9141
35.1562,4.6580,12.1692,16.4922,21.1475,5.8808,3.5625,-1.7247,15.2285,18.3071,2.8269,11.0992,20.7560,17.0891,6.0355,2.5689,9.8981,9.8374,21.7382,14.6031
39.0625,1.5502,9.2428,14.4463,16.4595,3.6870,-0.9262,-2.0038,12.8185,16.8189,-0.6452,11.0589,19.5979,15.8184,5.5062,1.2040,8.3161,9.8232,20.1181,11.9214
42.9688,-1.5098,6.3913,11.6867,9.9228,-0.2118,-4.1131,-1.3077,8.7684,12.5240,-3.7916,9.9181,15.5103,11.5407,2.6946,1.8434,5.4580,7.9590,15.0041,7.8134
46.8750,-4.2376,3.4786,7.7639,2.5628,-4.7687,-5.5681,-0.8709,4.1478,5.8095,-6.2680,7.0330,8.6160,4.9768,-1.6419,4.1332,1.9004,4.4500,6.8140,2.4873
50.7812,-6.5250,0.1884,2.7853,-4.1367,-8.7899,-5.7390,-1.4028,0.1288,-1.7514,-7.8453,2.6185,0.3484,-2.2703,-6.2358,6.6971,-1.2116,0.1622,-2.4916,-3.3021
54.6875,-8.4095,-3.5261,-2.2910,-8.5634,-11.2043,-5.6028,-2.3942,-2.2753,-8.0615,-8.4859,-2.2323,-6.9615,-8.2298,-9.7506,7.7604,-2.7212,-3.6684,-10.1727,-8.2254
58.5938,-9.9814,-7.1796,-5.9515,-9.5372,-11.3089,-6.0749,-2.4961,-2.4650,-11.4722,-8.3727,-5.9926,-11.0523,-11.3063,-11.2292,6.2615,-2.1291,-5.9555,-13.9593,-10.7664
62.5000,-11.2696,-9.8715,-6.8912,-6.8451,-8.9882,-7.5063,-0.7426,-0.4445,-11.4947,-7.8112,-7.3824,-10.7359,-10.9091,-10.3866,2.7008,0.0301,-6.2433,-13.0706,-9.9154
66.4062,-12.1573,-10.7161,-4.7827,-1.4334,-4.8245,-9.5293,2.3605,3.1490,-8.8599,-7.0260,-5.9406,-6.3867,-7.6503,-7.6455,-0.9665,2.3808,-4.8675,-8.4437,-5.7924
70.3125,-12.3866,-9.3106,-0.5423,4.9137,0.0226,-11.3044,4.8597,7.2452,-4.9588,-5.9875,-2.2080,0.3270,-3.0054,-3.9148,-2.4589,3.4294,-2.6982,-2.1081,0.2215
74.2188,-11.6729,-5.9521,4.1202,10.2982,4.2174,-12.0008,4.6424,10.7283,-1.0612,-4.4358,2.5516,7.2676,1.3902,-0.2104,-0.6237,2.4508,-0.6222,3.8598,6.0169
78.1250,-9.8927,-1.4980,7.6123,13.4737,6.7967,-11.2315,1.1035,12.8523,2.2038,-2.1410,6.9237,12.7139,4.4363,2.7175,3.7661,0.0154,0.9080,8.1844,9.7195
82.0312,-7.2495,3.0087,9.2607,14.2500,7.5820,-9.2214,-4.1183,13.4695,4.8511,0.7549,9.9001,15.8493,5.9005,4.5899,8.4425,-2.2174,1.9785,10.6337,10.5483
85.9375,-4.3040,6.7052,9.4900,13.3347,7.1928,-6.6562,-8.0438,12.9508,7.1385,3.5868,11.1542,16.7041,6.2541,5.5615,11.0253,-2.4063,2.9332,11.6731,9.0637
89.8438,-1.8149,9.0839,9.2805,11.7427,6.6148,-4.3408,-8.3869,11.8527,9.1143,5.3944,10.9524,15.7567,6.1704,5.9855,10.4369,0.3365,3.9399,11.8853,6.6681
93.7500,-0.4417,9.9648,9.3004,10.1545,6.5677,-2.8721,-5.2815,10.5442,10.4516,5.4588,9.8420,13.5559,6.0251,6.1309,7.4502,5.2685,4.7385,11.5684,4.6916
97.6562,-0.4573,9.3909,9.3379,8.6169,7.0672,-2.4837,-1.3782,9.0284,10.6605,3.8209,8.3536,10.6030,5.7027,6.0192,4.1060,10.2798,4.7718,10.7129,3.6533
101.5625,-1.6350,7.5745,8.4509,6.7361,7.4613,-3.0839,-0.1222,7.0560,9.4907,1.4012,6.8881,7.4592,4.7921,5.4679,2.4906,13.0360,3.6104,9.2620,3.1492
105.4688,-3.3828,4.9139,5.7400,4.1845,6.9120,-4.3950,-3.3684,4.4265,7.2173,-0.4324,5.7716,4.8427,2.9962,4.2918,3.6965,12.3695,1.3611,7.3885,2.3798
109.3750,-5.0519,1.9878,1.1937,1.1406,4.9916,-6.0737,-10.0279,1.2471,4.5945,-0.6324,5.3189,3.5059,0.4653,2.5153,7.5104,9.0616,-1.2552,5.5621,0.8946
113.2812,-6.2356,-0.5666,-4.0203,-1.6590,1.9950,-7.7570,-16.7451,-2.0399,2.5042,0.9016,5.7589,3.9051,-2.1653,0.4416,12.7872,5.4648,-3.2354,4.3634,-0.9923
117.1875,-6.8812,-2.2783,-8.0630,-3.2967,-1.2278,-9.0684,-20.1477,-4.8708,1.5231,3.2576,7.0321,5.8914,-4.0398,-1.4707,18.0557,4.1179,-3.8309,4.1827,-2.3953
121.0938,-7.1620,-3.0301,-9.4180,-3.2152,-3.7786,-9.6579,-19.0684,-6.8445,1.6775,5.0738,8.6400,8.6960,-4.4715,-2.8444,21.9334,6.1655,-2.9387,5.0034,-2.4893
125.0000,-7.2196,-3.0542,-7.7085,-1.5479,-5.1986,-9.3046,-15.1480,-7.8579,2.5196,5.3786,9.7520,11.2903,-3.2279,-3.5751,23.2788,10.5784,-1.1025,6.4025,-1.0988
128.9062,-6.9717,-2.7013,-3.8026,0.9903,-5.6200,-8.0276,-11.4107,-7.9984,3.4538,4.1659,9.6056,12.9240,-0.5811,-3.8530,21.3048,14.7098,0.8491,7.7588,1.1800
132.8125,-6.1347,-2.1317,0.8218,3.5630,-5.5270,-6.1102,-9.8867,-7.3020,4.0924,2.3385,7.9884,13.4932,2.8465,-4.0049,15.8464,15.8946,2.2672,8.5494,3.3901
136.7188,-4.4532,-1.1644,4.9614,5.6887,-5.3471,-3.9857,-10.0570,-5.6072,4.4255,1.0799,5.4667,13.4862,6.3105,-4.2657,7.6901,13.1161,2.9513,8.5745,4.8268
140.6250,-1.9781,0.5663,8.1867,7.3955,-5.1849,-2.0377,-9.2994,-2.6748,4.7181,1.0892,3.1443,13.5426,9.1273,-4.6311,-1.3662,7.6900,3.0905,8.0027,5.3988
144.5312,0.8062,3.2223,10.6518,8.9598,-4.8627,-0.4482,-5.0454,1.4715,5.2269,2.1836,2.0455,13.9310,10.7747,-4.8784,-8.9751,2.5186,2.9843,7.2228,5.4977
148.4375,3.1151,6.4147,12.4682,10.4560,-4.1813,0.8002,2.9195,6.2323,5.9369,3.5001,2.4940,14.3122,10.9488,-4.7311,-13.1173,0.3584,2.7788,6.5934,5.5280
152.3438,4.2003,9.1906,13.2396,11.4945,-3.1560,1.7772,11.7339,10.4390,6.4994,4.1107,3.8994,13.9540,9.6189,-4.0528,-12.9406,2.1692,2.3990,6.2345,5.5015
156.2500,3.7082,10.4463,12.2203,11.3967,-2.0307,2.4479,16.9644,12.7881,6.4246,3.6103,5.1114,12.2499,7.0687,-2.9482,-9.0760,6.5535,1.6818,5.9882,5.0301
160.1562,1.8700,9.5647,9.0331,9.7245,-1.0739,2.6600,15.4157,12.5141,5.4162,2.2986,5.1239,9.1850,3.8634,-1.7218,-3.2658,10.6133,0.5685,5.5791,3.7164
164.0625,-0.5673,6.8831,4.3769,6.7860,-0.3438,2.3134,7.3791,9.9071,3.6398,0.8963,3.6792,5.4322,0.7018,-0.7341,2.4352,11.6782,-0.8023,4.8739,1.6156
167.9688,-2.6278,3.6564,0.0695,3.7118,0.3665,1.5793,-3.2339,6.3180,1.7396,0.0548,1.3923,2.0185,-1.8133,-0.2479,6.4182,8.8551,-2.1528,4.0586,-0.6289
171.8750,-3.4751,1.4713,-1.7784,1.9664,1.3460,0.9541,-11.0466,3.5799,0.5622,0.0195,-0.6554,-0.2110,-3.3739,-0.3436,7.9096,3.4993,-3.2039,3.5852,-2.1180
175.7812,-2.7193,1.4115,-0.0069,2.5546,2.6854,1.0288,-12.3329,3.1279,0.7207,0.6345,-1.5572,-0.9802,-4.0213,-0.9242,6.9818,-1.6088,-3.7776,3.8880,-2.2722
179.6875,-0.5597,3.4573,4.7713,5.4200,4.1225,2.0811,-7.1355,5.3042,2.2444,1.5983,-1.0341,-0.5876,-4.0179,-1.7766,4.3856,-3.8337,-3.8053,5.0477,-1.2127
183.5938,2.2764,6.4905,10.3949,9.4418,5.1483,3.7807,0.9322,9.2390,4.5286,2.7093,0.5555,0.4371,-3.6162,-2.6397,1.3641,-2.0717,-3.2774,6.6530,0.3552
187.5000,4.7869,8.9301,14.3660,13.0538,5.3156,5.2783,7.0320,13.3665,6.6361,3.9032,2.5796,1.7634,-2.8712,-3.2477,-0.5894,2.7928,-2.2085,8.0059,1.6945
191.4062,6.0740,9.6411,15.2981,15.1044,4.5365,5.7042,8.0870,16.2598,7.7934,5.0969,4.5607,3.4745,-1.6175,-3.3550,-0.1651,8.5134,-0.6555,8.5778,2.6154
195.3125,5.7215,8.5864,13.6597,15.4190,3.1660,4.7839,4.5331,17.3001,7.7990,6.0322,6.3624,5.9229,0.3729,-2.7665,3.1443,12.7333,1.2374,8.4160,3.6331
199.2188,4.0043,6.8244,11.3285,14.7258,1.8118,3.1355,-0.2018,16.8172,7.0984,6.3100,8.0446,9.3295,3.1492,-1.3940,8.5194,14.1201,3.2273,8.1843,5.5408
203.1250,1.7926,5.8405,10.2684,14.0304,0.9942,1.9755,-2.0742,15.6803,6.4696,5.6259,9.5545,13.3988,6.4020,0.6688,13.8027,12.8080,5.0159,8.7442,8.6699
207.0312,0.1384,6.5973,11.2251,13.8787,0.8665,2.3520,0.9096,14.6467,6.4997,4.0299,10.5270,17.2143,9.4579,3.0885,16.2242,10.0261,6.3183,10.5042,12.3621
210.9375,-0.2861,8.8735,13.2977,13.9983,1.1559,4.3838,7.4265,13.8957,7.1638,1.9813,10.3655,19.5120,11.4617,5.3009,13.6498,7.2515,6.9052,12.9686,15.0712
214.8438,0.3998,11.2984,14.6253,13.5360,1.3404,7.0321,13.7123,13.0188,7.7703,0.1196,8.5621,19.2092,11.6743,6.6268,5.7372,5.4308,6.6109,14.8310,15.1079
218.7500,1.2895,12.0890,13.6708,11.7008,0.9447,8.6175,15.9433,11.4245,7.3199,-1.1088,5.0462,15.9258,9.7631,6.4914,-5.6547,4.6826,5.3532,14.6221,11.6069
222.6562,1.1639,10.0709,10.2151,8.3733,-0.2028,7.8035,12.5659,8.8564,5.0874,-1.7050,0.3394,10.2307,5.9751,4.6858,-17.0954,4.5496,3.2101,11.5540,5.1330
226.5625,-0.7886,5.3954,5.4330,4.2864,-1.8666,4.4367,5.1223,5.6719,1.1001,-2.0656,-4.5763,3.4924,1.1315,1.5563,-24.9833,4.5331,0.5362,6.0514,-2.4494
230.4688,-4.4141,-0.4648,1.0865,0.6867,-3.4793,-0.2943,-2.8537,2.7102,-3.7527,-2.6588,-8.6003,-2.6005,-3.5618,-1.9991,-27.0446,4.5051,-1.9882,-0.3537,-8.7715
234.3750,-8.5399,-5.4316,-1.5374,-1.2844,-4.3479,-4.4881,-8.0423,0.8480,-8.0356,-3.6523,-10.8868,-6.6257,-6.8333,-4.7853,-23.2290,4.7314,-3.4859,-5.6991,-11.9672
238.2812,-11.4911,-7.8238,-2.2152,-1.1094,-3.9131,-6.5483,-9.1733,0.5311,-10.3436,-4.7503,-11.0797,-7.8591,-7.7063,-5.7505,-15.6178,5.5347,-3.2036,-8.4358,-11.3507
242.1875,-11.9042,-7.0768,-1.5811,0.9601,-1.9777,-5.9559,-7.3722,1.5611,-9.8483,-5.3405,-9.3347,-6.3832,-5.7929,-4.4321,-7.4269,6.8871,-0.8874,-7.9705,-7.4702
246.0938,-9.3851,-3.8079,-0.4034,4.1397,1.1721,-3.3518,-4.9650,3.2386,-6.5749,-4.8429,-6.1619,-2.8685,-1.4250,-1.1859,-1.5684,8.2696,3.0104,-4.6793,-1.6307
250.0000,-4.6545,0.7228,1.0486,7.5273,4.8076,0.0452,-3.7160,4.7478,-1.3251,-3.0294,-2.1954,1.8088,4.4239,2.9388,0.6021,8.9372,7.4493,0.4879,4.7455
253.9062,0.8675,5.3517,3.0797,10.4441,7.9766,3.2337,-3.7554,5.5444,4.6641,-0.1361,1.9921,6.8865,10.4102,6.6392,-0.1989,8.4174,11.2087,6.4776,10.5515
257.8125,5.7620,9.4745,6.0978,12.5659,9.8386,5.9006,-3.8381,5.5476,10.1447,3.2518,5.9556,11.8169,15.2011,8.9012,-1.6656,6.8752,13.3728,12.3919,15.0835
261.7188,9.1858,13.0032,10.0307,13.8710,9.9894,8.3062,-2.5657,5.0784,14.1975,6.4235,9.3293,16.1497,17.8455,9.3698,-1.2182,5.0461,13.6312,17.4900,17.9136
265.6250,11.0320,15.9615,14.1270,14.5121,8.6231,10.7579,0.4620,4.6324,16.3953,8.7309,11.7410,19.3601,18.0204,8.3738,2.4479,3.7450,12.2611,21.1033,18.7862
269.5312,11.6727,18.1048,17.3098,14.7030,6.4374,13.1149,4.4350,4.6346,16.7877,9.6887,12.7958,20.8190,16.0759,6.6261,8.3969,3.2816,9.8646,22.6671,17.6749
273.4375,11.5299,18.8907,18.8112,14.6329,4.3113,14.7058,8.1175,5.2852,15.7576,9.0287,12.1900,20.0018,12.8659,4.8030,13.7018,3.2187,7.0619,21.9145,14.9253
277.3438,10.7849,17.8322,18.6050,14.3923,2.9056,14.7127,10.8797,6.5264,13.8207,6.7765,9.9155,16.8354,9.4200,3.2481,14.9263,2.6838,4.3206,19.0822,11.2875
281.2500,9.3879,14.9539,17.3255,13.9198,2.3879,12.7394,13.0680,8.0950,11.4435,3.3436,6.4165,11.9500,6.5738,1.9401,10.1150,1.0457,1.9544,14.9224,7.7042
285.1562,7.3036,10.9847,15.7627,13.0231,2.4240,9.1631,15.3992,9.6244,8.9429,-0.4555,2.5538,6.6136,4.7005,0.6880,0.1472,-1.5203,0.1935,10.4498,4.9298
289.0625,4.7691,7.1071,14.3396,11.5214,2.4367,5.0404,17.9260,10.7702,6.5000,-3.5652,-0.6664,2.3115,3.6636,-0.6155,-11.4312,-4.0104,-0.7952,6.5615,3.2243
292.9688,2.3532,4.4046,12.9672,9.4662,1.9866,1.6388,19.5293,11.3433,4.2679,-5.0299,-2.4833,0.1577,3.0160,-1.8504,-20.1204,-5.1646,-0.9631,3.7734,2.3540
296.8750,0.7596,3.3628,11.3510,7.2985,1.0599,-0.1118,18.4990,11.4072,2.4885,-4.3799,-2.6709,0.4529,2.3462,-2.7026,-22.7827,-4.2575,-0.4343,2.2269,1.9173
300.7812,0.4919,3.7313,9.4554,5.7817,0.1009,0.0499,13.8626,11.2734,1.5163,-1.8549,-1.5511,2.6285,1.5794,-2.8186,-19.2034,-1.5551,0.5376,1.8964,1.7580
304.6875,1.5833,4.7942,7.7089,5.6612,-0.2360,1.7192,6.4350,11.3503,1.6869,1.6747,0.2677,5.5928,1.0465,-1.9709,-11.9831,1.8812,1.7127,2.7708,2.1380
308.5938,3.5477,5.8204,6.7424,7.1985,0.5221,4.0731,-1.3202,11.8837,3.0774,5.0632,2.2420,8.2685,1.2628,-0.1539,-4.8881,4.8943,3.0030,4.8125,3.5008
312.5000,5.5716,6.3823,6.8446,9.8611,2.3518,6.1813,-6.6604,12.7220,5.3070,7.3396,4.0960,10.0208,2.5437,2.4046,-0.7331,6.9255,4.4789,7.7160,5.9783
316.4062,6.8413,6.3788,7.5711,12.4180,4.6813,7.2528,-8.2427,13.2773,7.5441,8.0309,5.7651,10.7812,4.7091,5.2899,-0.0840,8.2112,6.2170,10.7072,9.0228
320.3125,6.8478,5.8484,7.8691,13.4723,6.6441,6.8003,-6.8938,12.7703,8.7937,7.2331,7.1813,10.8772,7.0894,7.9831,-1.4406,9.3787,8.1027,12.6581,11.5028
324.2188,5.5521,4.8081,6.7089,12.1824,7.5086,4.7623,-4.8901,10.6771,8.3674,5.4622,8.1287,10.7379,8.8573,9.9800,-2.5587,10.7869,9.7564,12.5805,12.2813
328.1250,3.3769,3.2873,3.8293,8.7668,7.0436,1.5822,-4.2665,7.1370,6.2974,3.4185,8.3285,10.6684,9.4810,10.9337,-1.9114,12.1430,10.6681,10.2494,10.9221
332.0312,1.0602,1.5174,0.0804,4.4744,5.6087,-1.8233,-5.4024,3.0515,3.4445,1.7930,7.7075,10.7752,8.9957,10.7697,0.6237,12.6927,10.4605,6.5315,8.0270
335.9375,-0.5667,0.0663,-2.9111,0.9950,3.9147,-4.2929,-6.9117,-0.2452,1.1900,1.1490,6.6126,11.0012,7.9026,9.6956,4.0837,11.8251,9.0938,3.1135,4.9242
339.8438,-0.8223,-0.2842,-3.5866,-0.3781,2.5959,-4.8350,-6.8680,-1.6125,0.8244,1.8333,5.7445,11.1795,6.7685,8.0702,7.2683,9.6135,6.8679,1.6913,2.8748
343.7500,0.6012,1.0795,-1.3057,0.6365,1.8618,-3.0723,-4.3821,-0.6857,2.9235,3.8700,5.7859,11.0692,5.8193,6.1985,9.4131,6.8655,4.2411,3.0547,2.3248
347.6562,3.4866,4.1814,3.3062,3.2679,1.4511,0.5205,-0.3066,1.9326,7.0272,6.8647,6.9536,10.4141,4.8411,4.1970,10.3093,4.6431,1.6261,6.6194,2.7237
351.5625,7.0804,8.2920,8.6998,6.2386,0.9220,4.7567,3.4503,5.0112,11.7936,10.0222,8.7991,9.0762,3.4755,2.0566,10.0213,3.6229,-0.6723,10.7195,3.0478
355.4688,10.2844,12.1764,13.1970,8.5564,0.0891,8.2335,5.4184,7.3755,15.5649,12.3645,10.4313,7.2208,1.6968,-0.1188,8.6222,3.7758,-2.3569,13.5170,2.6604
359.3750,12.0401,14.6486,15.7582,10.0648,-0.6962,9.9500,5.6602,8.5355,17.0835,13.1213,11.0428,5.4293,0.0924,-1.8803,6.2167,4.5837,-3.0177,14.0073,1.8895
363.2812,11.7906,15.1227,16.3159,11.4234,-0.6411,9.7284,5.5854,8.8748,16.0305,12.1188,10.4011,4.6006,-0.3125,-2.4457,3.1529,5.5863,-2.1712,12.5374,1.8858
367.1875,9.8045,13.8568,15.5783,13.5464,1.0428,8.2132,6.6366,9.2886,13.1510,9.9356,8.9940,5.6080,1.3784,-1.0468,0.1220,6.8043,0.4970,10.5512,3.8403
371.0938,7.1522,11.7741,14.5208,16.8761,4.6027,6.4624,8.9041,10.5087,9.9244,7.6872,7.7548,8.8569,5.3384,2.5510,-2.0331,8.6983,4.8391,9.7416,8.0998
375.0000,5.2661,9.9934,13.9090,20.9687,9.4625,5.3658,10.8115,12.5580,7.9338,6.5079,7.5707,13.9909,10.8085,7.7051,-2.6720,11.7056,10.1426,11.1236,13.8066
378.9062,5.2455,9.3386,14.0825,24.6698,14.3925,5.2219,10.1993,14.6980,8.2102,6.9942,8.8817,19.9455,16.4323,13.0225,-1.5762,15.7312,15.3464,14.5490,19.3193
382.8125,7.2549,10.0635,15.0043,26.7717,18.0484,5.6955,6.0422,15.9097,10.8236,8.9176,11.5637,25.3476,20.9165,16.9606,1.1250,20.0028,19.4623,18.8865,23.1232
386.7188,10.3725,11.8676,16.4218,26.7279,19.5652,6.1522,-0.4799,15.5919,14.8785,11.3743,15.0614,29.0460,23.5737,18.5668,5.1817,23.4124,21.9216,22.6806,24.6006
390.6250,13.0315,14.1170,17.9877,24.9586,18.8623,6.1416,-6.4070,14.0119,18.9017,13.2848,18.6027,30.4807,24.3983,17.8874,10.3046,25.0936,22.6076,24.8562,24.1531
394.5312,13.8544,16.1164,19.3023,22.5413,16.5101,5.7173,-8.6940,12.1917,21.4441,13.9541,21.3549,29.7089,23.6786,15.7688,15.9659,24.8138,21.5857,25.0722,22.6443
398.4375,12.4159,17.3096,19.9486,20.4857,13.2888,5.3900,-6.0514,11.2858,21.6353,13.3701,22.5331,27.1335,21.4950,13.1858,21.1334,22.9206,18.7913,23.6000,20.6207
402.3438,9.4783,17.3719,19.5900,19.0655,9.7498,5.7374,0.2869,11.8385,19.4580,12.0896,21.5578,23.1640,17.5381,10.5635,24.3334,19.9329,13.9912,20.9156,17.9048
406.2500,6.5367,16.2202,18.1107,17.6508,6.0533,6.9168,7.3256,13.3984,15.6492,10.8119,18.3012,18.0611,11.4285,7.5765,24.2318,16.1316,7.1175,17.3390,13.8526
410.1562,4.9353,13.9842,15.6962,15.1597,2.1390,8.4047,12.0295,14.7432,11.3104,9.9259,13.3048,12.0527,3.3219,3.5702,20.4551,11.4848,-1.2505,12.9683,8.0634
414.0625,5.0942,10.9627,12.7609,10.8463,-1.9471,9.1627,12.8680,14.5822,7.4400,9.3112,7.7559,5.5975,-5.6719,-1.7029,14.0456,5.9631,-9.6666,7.9080,0.9940
417.9688,6.3238,7.5723,9.7450,4.9254,-5.8342,8.1813,10.2945,12.3103,4.6116,8.4947,3.1068,-0.4518,-13.6387,-7.5769,7.0866,-0.0215,-16.1443,2.5733,-5.9951
421.8750,7.3297,4.2868,6.9204,-1.3618,-8.8789,5.1066,6.0693,8.3673,2.9161,7.0318,0.4579,-4.9783,-18.5809,-12.5915,1.6141,-5.4320,-18.9495,-2.2032,-11.2167
425.7812,7.0635,1.5676,4.3575,-6.2818,-10.4421,0.5829,2.0779,4.0128,2.1265,4.8468,0.0407,-7.0143,-19.3165,-15.1954,-1.4967,-8.8904,-17.4277,-5.3938,-13.4737
429.6875,5.3633,-0.2128,2.0908,-8.4173,-10.1936,-3.9175,-0.5300,0.6849,1.9327,2.3148,1.1304,-6.2243,-16.0195,-14.5849,-2.8849,-9.3104,-12.3601,-6.2263,-12.5832
433.5938,2.9860,-0.8485,0.3499,-7.2868,-8.2543,-6.7233,-1.4728,-0.6698,2.0975,0.0532,2.4734,-3.1623,-10.0847,-11.1373,-4.0184,-6.5046,-5.6104,-4.5961,-9.3117
437.5000,1.0582,-0.3608,-0.3624,-3.4668,-5.1218,-6.7310,-0.9454,0.0609,2.4782,-1.4134,2.9937,0.8885,-3.4256,-6.1876,-5.9468,-1.3857,0.7378,-1.1782,-4.8445
441.4062,0.3550,0.9870,0.5223,1.7655,-1.4789,-3.9121,0.7683,2.2497,2.9727,-1.8817,2.3586,4.4536,2.3541,-1.3355,-8.3920,4.3821,5.2502,2.8456,-0.2063
445.3125,0.9006,2.7524,3.2169,6.9854,1.9707,0.6918,3.3159,4.9125,3.4879,-1.4555,1.0859,6.5208,6.4449,2.2501,-9.8416,9.1040,7.5427,6.3022,3.9880
449.2188,2.1163,4.4512,7.2063,11.0473,4.5776,5.4561,6.0171,7.1124,3.9789,-0.3424,0.1668,6.9652,8.7799,4.1312,-8.5813,11.7576,8.0717,8.5002,7.3830
453.1250,3.3369,5.7184,11.2144,13.2389,5.7885,8.8622,7.7377,8.1982,4.5100,1.3502,0.4703,6.5084,9.6233,4.4398,-3.9321,12.3122,7.5617,9.4111,9.5889
457.0312,4.2756,6.4130,13.6304,13.2445,5.2586,10.0435,7.2366,7.8635,5.2461,3.6358,2.2844,6.2296,9.1817,3.5193,3.1642,11.5270,6.5048,9.4884,10.0955
460.9375,5.1040,6.6086,13.2330,11.1017,3.0558,8.9723,3.9101,6.1362,6.3297,6.4665,5.2178,6.8995,7.5261,1.7058,10.5814,10.3829,5.0385,9.2694,8.5402
464.8438,6.1419,6.4832,9.8502,7.2545,-0.1615,6.2950,-1.5488,3.3934,7.7112,9.5038,8.4433,8.5221,4.8307,-0.6098,16.1322,9.4997,3.1906,9.0239,5.1545
468.7500,7.4575,6.1939,4.5834,2.6259,-3.1807,2.9884,-7.1345,0.3793,9.0682,12.0690,11.0951,10.3595,1.6634,-2.7957,18.6380,8.8743,1.2107,8.6608,1.0100
472.6562,8.7224,5.8270,-0.5625,-1.4649,-4.5935,0.0274,-10.3506,-1.8806,9.9226,13.3878,12.6055,11.4342,-0.9771,-3.9569,18.3338,8.0729,-0.3260,7.9290,-2.2206
476.5625,9.4317,5.4504,-3.4961,-3.6452,-3.3782,-1.8408,-9.5025,-2.3546,9.9193,13.0198,12.8630,11.2051,-1.9950,-3.2335,16.4965,6.7180,-0.7523,6.7529,-2.9565
480.4688,9.2893,5.1958,-2.9265,-2.9981,0.5758,-2.2280,-4.7143,-0.4117,9.0970,11.1898,12.1778,9.9838,-0.7313,-0.2893,14.6411,4.9240,0.2841,5.4551,-0.4971
484.3750,8.4253,5.2648,1.0915,0.5192,6.3103,-1.1831,1.9916,3.8312,7.9429,8.7561,11.0989,8.7939,2.6390,4.3416,13.7622,3.3538,2.5390,4.6923,4.5555
488.2812,7.2615,5.8073,7.1947,6.0015,12.1368,0.7989,7.6888,9.4344,7.1493,6.7623,10.1455,8.7207,7.1116,9.3328,13.9297,2.8171,5.2256,5.1129,10.5110
492.1875,6.1399,6.7438,13.2893,11.9335,16.3253,2.8997,10.0980,14.9201,7.1864,5.8122,9.5379,10.1378,11.2762,13.0810,14.3005,3.6510,7.3787,6.9299,15.3471
496.0938,5.0290,7.6789,17.3845,16.7679,17.7922,4.2638,8.8017,18.7994,7.9528,5.6570,9.0454,12.3183,13.9167,14.3835,13.4838,5.3121,8.2917,9.6689,17.6028
500.0000,3.5604,8.0180,18.3027,19.4463,16.4447,4.3590,5.3857,20.0946,8.7403,5.2941,8.0651,13.7293,14.4501,12.9045,10.1716,6.5151,7.7647,12.2663,16.9350
503.9062,1.3698,7.2567,15.9783,19.6300,13.0466,3.2171,2.3914,18.6195,8.5697,3.5650,5.9527,12.8911,12.9968,9.2056,3.8878,5.9159,6.0458,13.4949,14.0784
507.8125,-1.5335,5.2717,11.2775,17.6073,8.7449,1.3789,1.6878,14.9302,6.7229,-0.0825,2.4676,9.3053,10.1166,4.3988,-4.4407,2.9603,3.5710,12.5157,10.2942
511.7188,-4.6709,2.4192,5.5028,14.0282,4.5623,-0.4621,3.2539,10.0324,3.1728,-5.1315,-1.9202,3.8813,6.4416,-0.3273,-12.4865,-1.6298,0.7252,9.2768,6.6711
515.6250,-7.3488,-0.6315,-0.1282,9.6603,1.1212,-1.9004,5.1495,5.0208,-1.3307,-10.1313,-6.0900,-1.4275,2.4593,-4.0492,-17.3325,-6.0679,-2.2062,4.5657,3.6910
519.5312,-9.0562,-3.2153,-4.7792,5.2694,-1.3274,-3.0338,4.7424,0.8030,-5.5607,-13.3710,-8.7213,-4.5925,-1.4572,-6.2233,-16.8648,-8.3206,-4.9029,-0.3035,1.2697
523.4375,-9.6915,-4.9256,-7.9875,1.5826,-2.7013,-4.2702,0.4728,-2.0389,-8.3312,-13.7118,-8.9179,-4.5343,-4.8783,-6.6462,-11.0302,-7.0738,-6.8645,-4.0074,-0.8282
527.3438,-9.4623,-5.6571,-9.4781,-0.7661,-2.9230,-5.8379,-6.9324,-3.2725,-8.9667,-11.1128,-6.6562,-1.6259,-7.2210,-5.3905,-2.1357,-2.3146,-7.4506,-5.6907,-2.5343
531.2500,-8.5880,-5.4600,-9.0224,-1.3615,-1.9253,-7.3637,-14.5846,-2.9737,-7.5141,-6.5889,-2.8039,2.5805,-7.8733,-2.7776,6.1620,4.7282,-6.1580,-5.2065,-3.3259
535.1562,-7.1014,-4.3792,-6.5034,-0.1496,0.2059,-7.8900,-18.8819,-1.4421,-4.6415,-1.6796,1.2935,6.2051,-6.4990,0.6511,10.7024,12.1539,-2.9858,-3.0547,-2.5022
539.0625,-4.9456,-2.4419,-2.1562,2.5130,3.1001,-6.4224,-17.4558,0.9168,-1.3195,2.2329,4.4128,7.9723,-3.3153,4.2318,10.4326,18.0913,1.3762,-0.0960,0.2893
542.9688,-2.2791,0.1955,3.2252,5.9733,6.1217,-2.7009,-10.4815,3.7199,1.5513,4.3942,5.9255,7.7396,0.8871,7.3466,6.8035,21.2101,5.7325,2.8030,4.6477
546.8750,0.3199,3.1024,8.3563,9.5182,8.5620,2.3373,-0.6069,6.6876,3.4242,4.7724,5.9464,6.4202,5.0536,9.5814,2.7455,20.9597,8.9016,5.0505,9.4445
550.7812,2.0139,5.6211,11.8912,12.6069,9.8973,6.8061,8.4116,9.6334,4.2292,3.8573,5.1690,5.4371,8.3537,10.7807,0.9327,17.6480,10.2993,6.4601,13.3165
554.6875,2.1998,7.1551,13.0371,14.9788,9.9631,8.7879,13.5401,12.3708,4.3282,2.3747,4.5344,6.0378,10.5526,10.9798,2.4507,12.4422,10.2274,7.2331,15.3427
558.5938,0.9888,7.5256,12.0018,16.6088,8.9556,7.4113,13.7457,14.6225,4.3372,1.0714,4.8837,8.7790,12.0243,10.2959,6.5969,7.2043,9.6624,7.8342,15.4846
562.5000,-0.7291,7.1281,9.9623,17.5754,7.2901,3.4151,10.1300,16.0329,4.8740,0.5824,6.6723,13.3347,13.3889,8.8819,11.6899,3.9848,9.6436,8.8066,14.5066
566.4062,-1.7724,6.7232,8.5027,17.9480,5.4262,-1.2000,5.0355,16.3174,6.3055,1.2958,9.7774,18.6261,15.0042,6.9755,16.1197,4.1719,10.6223,10.5636,13.4329
570.3125,-1.4213,6.9605,8.7974,17.7533,3.7585,-4.2687,0.7767,15.4657,8.5816,3.1835,13.4533,23.1930,16.6526,4.9698,18.8932,7.6477,12.1820,13.1954,12.9045
574.2188,0.0780,7.9413,10.9882,17.0105,2.5989,-4.6594,-1.3084,13.8434,11.2209,5.6851,16.5167,25.6996,17.6427,3.3889,19.5304,12.5325,13.3202,16.3556,12.8602
578.1250,1.6354,9.1269,14.1124,15.7855,2.1974,-2.8498,-1.1414,12.0860,13.4681,7.8079,17.7865,25.4372,17.2804,2.7261,17.7724,15.9134,13.1293,19.2971,12.7380
582.0312,2.0065,9.6670,16.6223,14.2273,2.7323,-0.5386,0.3863,10.8152,14.5686,8.5093,16.6424,22.6416,15.4102,3.2279,13.6444,15.3651,11.4488,21.0957,12.0257
585.9375,0.5828,8.9350,17.1999,12.5850,4.2471,0.4400,1.9606,10.3519,14.0542,7.2221,13.4128,18.4478,12.6662,4.7739,7.9160,10.4546,9.0670,21.0131,10.7489
589.8438,-2.2557,6.9141,15.4145,11.2119,6.5765,-0.7933,2.3877,10.6146,11.9272,4.2156,9.3137,14.4249,10.2441,6.9461,2.4173,3.2502,7.3230,18.8559,9.5326
593.7500,-5.4514,4.1885,11.8890,10.5357,9.3275,-3.7322,1.0274,11.2697,8.6711,0.5208,5.8856,11.8588,9.2966,9.2331,-0.4218,-2.6317,7.3341,15.1444,9.1858
597.6562,-7.9860,1.5744,7.9329,10.9524,11.9513,-6.9272,-1.9247,12.0141,5.0883,-2.5932,4.2032,11.1407,10.2932,11.2122,1.1405,-4.0019,9.3063,10.9674,10.0971
601.5625,-9.4714,-0.3384,4.8864,12.6326,13.8795,-8.9514,-5.4054,12.7692,2.0318,-4.2988,4.3212,11.6240,12.7121,12.5777,6.7970,0.0604,12.3374,7.5514,11.8699
605.4688,-10.2015,-1.4272,3.5387,15.3144,14.6661,-9.2345,-7.8368,13.6329,0.1309,-4.6095,5.3145,12.0678,15.2440,13.0349,13.8340,7.6366,14.8254,5.7390,13.4588
609.3750,-10.6748,-1.9374,3.8862,18.2284,14.0853,-8.2515,-7.8522,14.6324,-0.3860,-4.2304,5.9040,11.4297,16.4025,12.2213,18.3209,15.0340,15.2464,5.6480,13.7292
613.2812,-10.9991,-2.1667,5.2894,20.2811,12.1743,-7.0242,-5.1006,15.4898,0.2932,-3.9583,5.2793,9.5254,15.2212,9.8117,17.3040,18.8226,12.8783,6.7007,12.0852
617.1875,-10.6692,-2.1898,6.8851,20.4838,9.2356,-6.3495,-0.6341,15.6253,1.7172,-4.0526,3.5970,7.1389,11.6919,5.8067,10.6420,17.5937,8.1070,8.0110,8.7847
621.0938,-8.9146,-1.8157,8.0246,18.4342,5.8008,-6.3108,3.4821,14.4502,3.4221,-4.0304,1.8563,5.5108,6.7491,0.7960,1.2245,12.4335,2.2072,8.9053,4.7788
625.0000,-5.3699,-0.7790,8.5393,14.5721,2.5358,-6.3776,5.2369,11.7724,5.1553,-3.0447,1.2604,5.5404,1.8399,-4.0663,-6.6486,5.9858,-3.2402,9.2668,1.2160
628.9062,-0.5690,0.9978,8.7360,10.0226,0.0682,-5.9546,3.8180,8.0271,6.9467,-0.5859,2.4942,7.2214,-1.6949,-7.4823,-9.7035,0.8574,-6.9831,9.4999,-1.0741
632.8125,4.1293,3.2669,9.1508,6.0813,-1.2300,-4.9235,0.0939,4.1448,8.9734,3.0012,5.3595,9.6668,-3.1396,-8.6380,-7.3702,-1.5874,-8.5059,10.1499,-1.8450
636.7188,7.1802,5.5276,10.1882,3.6266,-1.4048,-3.7578,-3.9233,1.1161,11.2947,6.5746,8.9389,11.6782,-2.6068,-7.6520,-1.6808,-1.4324,-8.0790,11.4376,-1.3656
640.6250,7.6670,7.2524,11.8280,2.8047,-0.9091,-3.1255,-6.3066,-0.4742,13.6299,8.8164,12.1077,12.4574,-0.8649,-5.5192,4.3804,0.4257,-6.4857,13.0247,-0.1413
644.5312,5.7871,8.1263,13.5632,3.1578,-0.3763,-3.2867,-6.3204,-0.6532,15.3581,9.0114,14.0438,11.9950,1.0997,-3.5350,8.8106,3.0746,-4.5854,14.1769,1.3770
648.4375,2.7299,8.1780,14.6308,4.0745,-0.2713,-3.7574,-4.6656,0.1007,15.7898,7.4589,14.4616,10.9183,2.5652,-2.5446,11.4514,5.9393,-2.9149,14.2245,2.9504
652.3438,0.0495,7.7547,14.4345,5.2287,-0.6197,-3.5246,-2.7434,1.2306,14.5780,5.2527,13.5383,9.9670,3.3642,-2.4998,13.3193,8.5905,-1.5042,13.0161,4.5412
656.2500,-1.0805,7.3670,12.9302,6.6960,-0.9979,-1.7087,-1.5254,2.4076,12.0128,3.5919,11.6907,9.4941,3.8449,-2.6125,15.1075,10.4114,0.0121,11.0616,6.1895
660.1562,-0.3286,7.4702,10.7305,8.6876,-0.8154,1.7606,-0.8828,3.5701,8.9858,3.0972,9.3928,9.3296,4.5411,-1.9935,16.1453,10.5970,2.0433,9.2616,7.8665
664.0625,1.7969,8.2596,8.8322,11.1325,0.2778,5.9200,0.1399,4.7302,6.6041,3.5658,7.1065,9.0498,5.7535,-0.3276,14.6944,8.6082,4.6483,8.3991,9.3866
667.9688,4.3141,9.5638,8.1021,13.4644,2.1231,9.1847,2.3571,5.7623,5.6634,4.2699,5.2714,8.4069,7.3014,1.8823,9.3955,4.7378,7.3472,8.7209,10.4312
671.8750,6.2427,10.9014,8.8228,14.8243,4.1126,10.1760,5.5605,6.3927,6.2878,4.5299,4.2639,7.5771,8.6081,3.6648,0.7683,0.2801,9.2957,9.8680,10.6933
675.7812,6.9554,11.7052,10.5743,14.5761,5.5443,8.4788,8.4423,6.4197,7.9425,4.1387,4.2972,7.0510,9.0667,4.2659,-8.4301,-2.9413,9.7591,11.1703,10.0805
679.6875,6.3128,11.6226,12.5125,12.7779,6.0341,4.8889,9.4215,5.9784,9.7803,3.3798,5.3169,7.2581,8.4431,3.6781,-14.4097,-3.4600,8.6034,12.0746,8.8494
683.5938,4.6134,10.7220,13.8405,10.2452,5.7058,1.0157,7.7838,5.5908,11.0734,2.7016,6.9634,8.2032,7.0333,2.6416,-14.4440,-0.9286,6.4615,12.4020,7.5398
687.5000,2.4326,9.4509,14.1523,8.1108,5.0337,-1.5204,4.2891,5.8933,11.4536,2.3484,8.6320,9.3718,5.4527,2.1199,-8.5466,3.7039,4.4126,12.2741,6.6826
691.4062,0.4068,8.3306,13.4432,7.1372,4.4640,-1.8543,0.7761,7.1845,10.8517,2.2260,9.6053,9.9650,4.1971,2.6284,0.3562,8.6664,3.3362,11.8041,6.4220
695.3125,-1.0028,7.5569,11.8479,7.2310,4.0982,-0.2183,-0.9945,9.1128,9.2624,2.0507,9.2199,9.3135,3.2927,3.8842,7.9062,12.1690,3.3530,10.8240,6.3168
699.2188,-1.7073,6.7851,9.3756,7.4981,3.6713,2.2632,-0.4769,10.7602,6.5847,1.5989,7.0465,7.2182,2.3012,5.0125,10.5871,13.0842,3.7443,8.8884,5.5262
703.1250,-2.0570,5.2900,5.9015,6.8272,2.8309,4.1665,1.3069,11.1230,2.6980,0.8209,3.0671,4.0375,0.6967,5.1481,7.4745,11.2256,3.4328,5.5819,3.3473
707.0312,-2.6993,2.4589,1.4407,4.6375,1.4956,4.4271,2.4320,9.7101,-2.2761,-0.2528,-2.2074,0.5036,-1.6567,4.0067,0.5017,7.2351,1.7197,0.9207,-0.2072
710.9375,-4.2408,-1.6745,-3.5290,1.3109,0.0090,2.7685,1.3168,6.8781,-7.7571,-1.6757,-7.7761,-2.5979,-4.2870,2.0392,-6.8150,2.2721,-1.2213,-4.4432,-4.2062
714.8438,-6.8543,-6.2166,-8.0131,-1.9710,-1.0425,-0.2404,-2.2355,3.6829,-12.7503,-3.6023,-12.4103,-4.7056,-6.3438,0.0939,-11.3722,-2.3222,-4.4301,-9.3852,-7.1913
718.7500,-10.0481,-9.7090,-10.8470,-3.8819,-1.2205,-3.4674,-6.8312,1.3340,-16.1816,-6.0759,-15.0857,-5.5944,-7.1304,-1.1491,-12.0292,-5.3238,-6.7546,-12.7560,-7.9840
722.6562,-12.7619,-10.8028,-11.2664,-3.6848,-0.5504,-5.6862,-10.2175,0.5823,-17.3316,-8.7402,-15.3877,-5.3173,-6.5587,-1.5686,-9.9037,-5.9036,-7.5270,-13.8522,-6.4087
726.5625,-13.7911,-8.9352,-9.3254,-1.6020,0.4731,-6.0472,-10.5072,1.4019,-16.0996,-10.7516,-13.6531,-4.0634,-5.1899,-1.5737,-7.3883,-3.8623,-6.8574,-12.6456,-3.4355
730.4688,-12.3455,-4.6211,-5.8659,1.3772,1.1968,-4.3837,-7.2067,3.1164,-12.9500,-11.0673,-10.7397,-2.0472,-3.8275,-1.7247,-6.5897,0.2722,-5.3887,-9.6819,-0.6110
734.3750,-8.4574,0.7926,-2.0478,4.0864,1.2116,-1.2529,-1.5034,4.8419,-8.6209,-9.0073,-7.5499,0.5013,-2.9671,-2.3121,-8.1425,5.3776,-3.7660,-5.7721,0.8699
738.2812,-3.0196,5.7459,1.2438,5.7808,0.5682,2.3028,4.3124,5.9471,-3.8223,-4.7487,-4.6051,3.2676,-2.5157,-3.1993,-11.0145,10.0871,-2.2666,-1.6915,0.8383
742.1875,2.5717,9.0969,3.7221,6.3955,-0.3277,5.1852,7.9699,6.2711,0.8861,0.5979,-1.9371,5.7927,-1.9863,-4.0041,-13.2736,13.2145,-0.8574,1.9636,0.1320
746.0938,6.9821,10.4512,5.5757,6.3684,-1.0350,6.6822,8.2999,6.0341,5.0272,5.4334,0.6639,7.5269,-0.9996,-4.4322,-13.2357,14.0761,0.4444,4.7748,-0.0762
750.0000,9.4263,10.0916,7.0481,6.2153,-1.3624,6.7214,5.7289,5.5735,8.1071,8.4022,3.2643,8.0260,0.3191,-4.4766,-10.2988,12.6165,1.3074,6.4697,0.8879
753.9062,9.8510,8.6464,8.0776,6.1660,-1.4257,5.8083,1.9500,5.1129,9.6558,8.9875,5.5722,7.2077,1.3797,-4.3340,-5.0885,9.3681,1.2338,6.9533,2.7799
757.8125,8.7688,6.7346,8.2732,6.0753,-1.4779,4.6818,-1.0348,4.6911,9.4303,7.6391,7.0568,5.4996,1.5870,-4.1389,0.9718,5.3261,0.0527,6.3812,4.6759
761.7188,6.8902,4.7652,7.2340,5.6068,-1.6853,3.8784,-1.9584,4.2388,7.6296,5.4038,7.3000,3.7359,0.8515,-3.7800,6.2692,1.7639,-1.6747,5.1648,5.6352
765.6250,4.7850,2.9282,4.9536,4.5162,-2.0412,3.4582,-0.8330,3.6996,4.9202,3.3297,6.3049,2.7960,-0.2751,-2.9941,9.4579,-0.0613,-2.7819,3.8339,5.2752
769.5312,2.7472,1.3045,2.0047,2.8449,-2.4605,3.0569,1.2939,3.1017,2.1995,2.0119,4.5360,3.1590,-0.9845,-1.6902,9.7224,0.6697,-2.2119,2.8058,3.8824
773.4375,0.8861,-0.0007,-0.6252,0.9446,-2.9252,2.2316,3.1694,2.5654,0.2315,1.5009,2.6889,4.6421,-0.8356,-0.2246,7.0057,3.9110,0.1379,2.2243,2.0809
777.3438,-0.6812,-0.7699,-1.9276,-0.6161,-3.5010,0.8781,4.1735,2.2880,-0.6094,1.5294,1.3863,6.5115,-0.1203,0.6644,2.2681,8.5846,3.1049,2.0077,0.4136
781.2500,-1.7047,-0.6633,-1.2474,-1.1743,-4.1698,-0.5592,4.5961,2.5381,-0.3250,1.8303,1.0166,7.9300,0.3603,0.3177,-2.4400,12.8957,4.8425,2.0872,-0.8034
785.1562,-1.8396,0.6924,1.5406,-0.0957,-4.6158,-1.2417,5.1981,3.6329,0.9331,2.3211,1.7645,8.4730,-0.0147,-1.2649,-4.4589,15.0979,4.0114,2.6453,-1.3019
789.0625,-0.8171,3.5190,6.0634,3.0599,-4.1990,-0.3896,6.4344,5.8437,3.0832,3.0818,3.6982,8.3791,-1.0425,-3.1661,-1.6746,14.3470,0.7945,4.1219,-0.6381
792.9688,1.3806,7.6637,11.5783,8.2984,-2.2396,2.2284,7.9771,9.2166,6.1235,4.2155,6.7456,8.3599,-1.6277,-3.9016,6.0969,11.1451,-3.0143,6.9164,1.7317
796.8750,4.4575,12.4613,17.1041,14.9560,1.5034,6.0618,8.9408,13.3895,9.9183,5.7284,10.5389,9.0899,-0.4246,-2.2616,16.3828,7.0712,-4.9993,10.9599,6.0125
800.7812,7.8796,16.8152,21.5635,21.6495,6.4744,9.9499,8.6428,17.5499,13.9598,7.4936,14.2973,10.7192,3.2074,1.8532,24.7431,3.9322,-3.5920,15.4817,11.5831
804.6875,11.0179,19.5367,23.9995,26.5804,11.3809,12.6097,7.2647,20.6333,17.3558,9.2661,16.9565,12.7419,8.6003,7.1713,26.8377,2.8363,0.9403,19.2081,16.9265
808.5938,13.2585,19.8179,23.8682,28.1736,14.7205,13.1749,5.8190,21.7200,19.1354,10.6871,17.5775,14.3048,13.9874,11.6157,20.8420,3.7351,6.6478,20.9420,20.1940
812.5000,14.0492,17.5908,21.2814,25.7840,15.5069,11.5058,5.3684,20.4398,18.7128,11.2824,15.8237,14.7382,17.4427,13.4139,8.7242,5.6521,11.0896,20.1891,20.1497
816.4062,12.9422,13.5526,17.0175,20.0789,13.7664,8.1444,6.0844,17.1518,16.2072,10.5320,12.1785,13.9416,17.9552,12.0904,-4.5752,7.3694,12.7663,17.4237,16.9020
820.3125,9.7264,8.8285,12.2228,12.8245,10.4930,3.9968,6.9359,12.7766,12.3950,8.0848,7.7284,12.3775,15.9488,8.7130,-13.7355,8.0900,11.8680,13.8068,11.9090
824.2188,4.6606,4.4726,7.9344,6.1334,7.0837,-0.0342,6.3620,8.3685,8.3239,4.0698,3.6371,10.7178,12.9280,5.2260,-15.9033,7.7044,9.9072,10.5317,7.2137
828.1250,-1.3237,1.1099,4.7021,1.5662,4.5975,-3.2655,3.5022,4.6714,4.8483,-0.6828,0.6596,9.4273,10.5163,3.2810,-12.0273,6.6303,8.5745,8.2254,4.3781
832.0312,-6.6609,-1.0843,2.5405,-0.4197,3.2835,-5.2412,-0.9454,1.9101,2.3773,-4.7335,-1.0024,8.5847,9.5349,3.3039,-5.8640,5.4759,8.6389,6.7881,3.7803
835.9375,-9.5712,-2.1242,1.2139,-0.3870,2.6362,-5.6360,-4.9605,-0.0899,0.9523,-6.5226,-1.4779,8.0308,9.6953,4.3760,-1.3675,4.7979,9.6019,5.7382,4.6710
839.8438,-8.7753,-1.9330,0.6158,0.6844,1.8927,-4.2221,-6.4540,-1.5766,0.5115,-5.0859,-0.8972,7.6662,10.0261,4.9664,-0.2329,5.0148,10.2376,4.7746,5.8607
843.7500,-4.1784,-0.3008,0.9403,2.0902,0.6177,-0.9876,-4.6670,-2.5836,1.0816,-0.6283,0.7288,7.6170,9.6571,4.0029,-1.1972,6.3428,9.5359,4.1203,6.5156
847.6562,2.8786,2.8653,2.5146,3.7343,-1.0047,3.6644,-0.6915,-2.8753,2.7246,5.4039,3.3200,8.1138,8.3920,1.5659,-1.4373,8.6294,7.3586,4.3879,6.5380
851.5625,10.0320,7.2038,5.4326,5.9298,-2.3319,8.8181,3.2767,-2.1425,5.2996,10.8708,6.4336,9.1874,6.7129,-1.2265,1.0593,11.1662,4.4073,6.0656,6.3640
855.4688,14.8450,11.7809,9.2901,8.8801,-2.7363,13.2125,5.3980,-0.2884,8.2721,13.8699,9.1938,10.4529,5.3010,-3.0184,5.8827,12.7397,1.6375,9.0091,6.4353
859.3750,15.8458,15.3560,13.2403,12.2569,-2.0621,15.6694,5.2856,2.4051,10.7852,13.5787,10.6083,11.2036,4.4869,-3.1274,10.4499,12.0961,-0.3843,12.3239,6.7793
863.2812,13.1194,16.9172,16.3406,15.1945,-0.7763,15.5899,3.9705,5.3392,12.0074,10.5629,10.1050,10.7955,4.0441,-1.9562,11.8406,8.6738,-1.7169,14.7508,6.9814
867.1875,8.1498,16.1606,17.9423,16.6958,0.2619,13.2334,2.8625,7.8319,11.5507,6.3929,7.9096,9.0714,3.4415,-0.6661,8.8454,3.1449,-2.7755,15.3155,6.4991
871.0938,3.0212,13.6104,17.8648,16.1544,0.2532,9.5978,2.5938,9.3560,9.6853,2.7998,4.9653,6.5215,2.3209,-0.3816,2.7940,-2.6912,-3.8403,13.8304,5.0413
875.0000,-0.5657,10.3145,16.2895,13.6429,-1.1397,5.9456,2.6662,9.6474,7.2061,0.8489,2.4285,4.0576,0.8209,-1.4847,-3.3168,-6.7282,-4.7475,10.9512,2.7469
878.9062,-1.9350,7.3266,13.5385,9.8162,-3.6445,3.2447,2.1143,8.6730,5.0437,0.5781,1.0811,2.5452,-0.4850,-3.4457,-6.6701,-7.6286,-4.9777,7.7942,0.1052
882.8125,-1.4508,5.3012,9.9688,5.5682,-6.5227,1.8438,0.5475,6.5631,3.8653,1.2537,1.0560,2.3983,-0.9665,-5.2336,-6.1389,-5.4593,-4.0378,5.3943,-2.2486
886.7188,-0.0062,4.4051,6.0665,1.7219,-8.8848,1.5425,-1.3599,3.6186,3.8872,2.0285,2.0155,3.4811,-0.3349,-5.9630,-2.5376,-1.4552,-1.8319,4.3336,-3.6996
890.6250,1.6233,4.5035,2.5903,-1.0651,-10.0042,1.9538,-2.3633,0.3945,4.9444,2.5567,3.5774,5.3332,1.2182,-5.3267,2.3227,2.9008,1.2312,4.6939,-3.7348
894.5312,3.1531,5.3954,0.5165,-2.2361,-9.5152,2.8571,-1.7022,-2.2626,6.6875,3.1763,5.6127,7.5170,3.2054,-3.5828,6.9138,6.7922,4.4315,6.2391,-2.0244
898.4375,4.7175,6.8908,0.6709,-1.3286,-7.4692,4.2737,0.2016,-3.3733,8.7299,4.5589,8.1754,9.8260,5.1748,-1.2167,10.6622,10.2936,7.0662,8.6007,1.4197
902.3438,6.4927,8.7055,3.2139,1.8201,-4.2903,6.2173,2.0259,-2.2091,10.6673,7.0748,11.1510,12.2263,6.9233,1.3923,13.6837,13.7687,8.7013,11.3154,6.0550
906.2500,8.3425,10.3364,7.3393,6.7399,-0.6661,8.3512,2.6046,1.2645,12.0438,10.3117,13.9570,14.6149,8.4543,4.0435,16.0054,16.9770,9.2437,13.7556,10.7678
910.1562,9.7570,11.1182,11.4833,12.1696,2.6152,9.8839,1.8801,6.1689,12.3969,13.0942,15.6045,16.6153,9.7605,6.5373,17.0356,18.7002,8.8741,15.1367,14.1408
914.0625,10.1275,10.5181,14.0231,16.3515,4.8808,9.8853,0.9432,10.9373,11.4421,14.0385,15.1603,17.6012,10.6533,8.4905,15.7655,17.3328,7.9425,14.7461,15.0047
917.9688,9.1572,8.5103,14.1017,17.7766,5.8075,7.8818,1.1072,13.9628,9.3065,12.3358,12.3374,16.9797,10.8159,9.3947,11.5759,12.1188,6.8867,12.3445,13.0283
921.8750,7.1187,5.7579,12.0856,16.0189,5.5829,4.3346,2.7768,14.3727,6.6245,8.2966,7.8249,14.5769,10.0651,8.9443,5.0476,4.1400,6.1593,8.4928,9.0018
925.7812,4.7756,3.4138,9.3557,12.1289,4.8864,0.6122,5.0611,12.5046,4.3604,3.3106,3.1142,10.8865,8.6177,7.3957,-1.8433,-3.7760,6.1222,4.5169,4.6014
929.6875,3.0056,2.5806,7.5324,8.2466,4.6403,-1.6333,6.4642,9.7813,3.3894,-0.7841,-0.1228,6.9935,7.1239,5.6354,-6.3860,-8.3579,6.9158,2.0054,1.6950
933.5938,2.3486,3.7021,7.5710,6.5478,5.6013,-1.3714,6.0847,8.0005,4.0432,-2.5879,-0.7929,4.1560,6.3769,4.8053,-6.3745,-7.6699,8.3703,2.0321,1.5113
937.5000,2.7412,6.2307,9.2434,8.0720,7.9699,1.1602,4.3173,8.3931,5.8836,-1.7960,1.0975,3.2214,6.8438,5.6568,-1.3125,-2.2444,10.0333,4.5177,4.0758
941.4062,3.5827,8.7947,11.2843,12.1073,11.2226,4.4989,2.4628,10.9535,7.8607,0.7229,4.4139,4.1733,8.3128,8.0305,7.0534,5.1877,11.3253,8.1326,8.1896
945.3125,4.0821,9.8274,12.1101,16.5147,14.2779,6.7095,1.5762,14.4103,8.8045,3.4465,7.3870,6.0817,9.9111,10.8187,15.2358,11.2335,11.7479,10.8791,11.9628
949.2188,3.6927,8.3716,10.7117,18.8446,15.9402,6.4325,1.5468,16.8653,8.0186,5.0122,8.4356,7.5551,10.5298,12.4820,19.4501,13.6954,11.0389,11.1121,13.6652
953.1250,2.4056,4.6602,7.2562,17.6341,15.4144,3.6254,1.2349,16.7641,5.6808,4.8851,6.9744,7.5173,9.4340,11.8385,17.4302,12.6188,9.2126,8.4796,12.5157
957.0312,0.7657,0.1538,3.0906,13.1745,12.6403,-0.4242,-0.3985,13.6858,2.8443,3.5509,3.8249,5.9110,6.7075,8.6761,9.7430,9.9521,6.5051,4.2535,9.0593
960.9375,-0.3854,-3.0417,0.1438,7.3396,8.2916,-3.8017,-3.1120,8.5462,1.0146,2.1817,0.9576,3.8873,3.2640,3.8451,-0.1879,8.1294,3.2926,0.8088,4.9445
964.8438,-0.3105,-3.1548,-0.0030,2.5915,3.4582,-4.9706,-5.2130,3.1280,1.4692,1.9850,0.5742,3.2733,0.4043,-1.1916,-7.5906,8.5247,0.0335,0.4503,2.1660
968.7500,1.2554,0.3185,3.0567,0.7224,-0.8088,-3.5289,-4.6846,-0.7923,4.6119,3.5728,3.8975,5.5165,-0.8376,-5.0652,-8.7818,10.7222,-2.7756,4.1586,2.0940
972.6562,3.9242,6.2073,8.2331,2.0023,-3.8599,-0.3487,-0.8217,-2.2548,9.6560,6.6339,10.2946,10.6745,-0.2019,-7.0657,-3.2623,12.9507,-4.6736,10.9186,4.7472
976.5625,6.7349,12.0515,13.3259,5.1537,-5.5661,2.9025,4.9043,-1.4594,14.8203,10.0279,17.3070,17.0822,1.7067,-7.2951,5.8094,13.2878,-5.3585,18.0347,8.7052
980.4688,8.4774,15.1747,15.9962,8.1119,-6.1904,4.5579,9.5272,0.4920,18.0054,12.2389,21.7262,22.0013,3.7677,-6.4103,13.2222,10.8183,-4.8147,22.3371,11.7655
984.3750,8.1510,13.9599,14.8939,9.1262,-6.1394,3.6628,10.4314,2.2648,17.6961,11.9986,21.2356,22.9798,4.9166,-5.1798,14.6057,6.0723,-3.3596,21.7052,12.0539
988.2812,5.3940,8.6846,10.3753,7.6112,-5.7530,0.3178,7.0731,2.9815,13.6850,8.8421,15.7159,19.1776,4.6194,-4.1319,8.9329,0.6006,-1.5523,16.1278,9.0104
992.1875,0.7088,1.4441,4.3914,4.3288,-5.2309,-4.4199,1.3359,2.5684,7.2495,3.3754,7.4089,11.8770,3.0170,-3.4569,-0.9180,-3.9166,0.0095,7.7350,3.6950
996.0938,-4.6383,-4.8430,-0.4576,0.8605,-4.6821,-8.9745,-3.7397,1.6164,0.6443,-2.8748,-0.2294,3.8497,0.7213,-3.1297,-9.9203,-6.4248,0.9044,-0.2302,-1.7835
1000.0000,-9.0418,-7.8517,-2.2391,-1.2942,-4.2095,-11.8399,-5.9393,0.8987,-3.8874,-8.0100,-4.3522,-2.0559,-1.5610,-3.0986,-13.8693,-6.7189,1.0067,-4.9641,-5.3959
1003.9062,-11.1610,-6.9350,-0.6561,-1.4819,-3.9334,-12.1195,-5.1749,0.8665,-5.1061,-10.5086,-4.1398,-4.2725,-3.3327,-3.3756,-11.6754,-5.1621,0.4686,-5.3550,-6.2182
1007.8125,-10.4487,-3.2924,2.8952,-0.1152,-3.9279,-9.8425,-3.2493,1.4299,-3.2602,-9.8502,-0.9745,-3.0371,-4.3830,-3.9750,-5.5674,-2.2518,-0.3894,-2.2923,-4.7521
1011.7188,-7.3589,0.8438,6.2259,1.7288,-4.1148,-5.9367,-2.3680,2.1249,0.1892,-6.7049,2.6722,0.1414,-4.6585,-4.7671,0.7650,1.6001,-1.1970,2.0697,-2.3828
1015.6250,-3.1223,3.5058,7.6803,3.0537,-4.2079,-1.8401,-3.5390,2.5221,3.4342,-2.5727,4.8584,3.6153,-4.0840,-5.3826,4.6819,5.9600,-1.6054,5.6055,-0.3721
1019.5312,0.8086,4.0044,7.0765,3.5640,-3.7739,1.1109,-5.9864,2.5810,5.2707,0.9555,5.2271,6.5334,-2.5054,-5.2689,5.9937,10.1407,-1.3196,7.2899,0.9316
1023.4375,3.3653,3.0937,5.6822,3.7839,-2.4142,2.2501,-7.8776,2.7029,5.5847,2.9183,4.8632,8.9986,0.1806,-3.9025,6.4005,13.1731,-0.1377,7.4614,2.1484
1027.3438,4.2143,2.2566,5.2458,4.6137,0.0063,1.8210,-7.7121,3.4407,5.1289,3.2945,5.1654,11.4667,3.7961,-1.0625,7.5936,14.1496,1.9733,7.2211,4.1872
1031.2500,3.6986,2.6216,6.7182,6.6205,3.1971,0.7483,-5.3231,5.0599,4.7942,2.7589,6.6092,13.9455,7.7276,2.9813,9.5881,12.7776,4.7951,7.4530,7.3353
1035.1562,2.4586,4.2183,9.5021,9.5267,6.4502,0.0664,-1.8492,7.2540,4.9019,2.0843,8.2977,15.6588,10.9942,7.4728,10.5866,9.7411,7.8320,8.1497,10.7795
1039.0625,1.0059,6.0233,11.7392,12.2432,8.8533,0.3309,1.1649,9.2247,5.0081,1.6110,8.5938,15.4518,12.5587,11.3839,8.4475,6.5129,10.3940,8.4776,12.9211
1042.9688,-0.4713,6.7185,11.4769,13.4522,9.6494,1.3595,2.7908,10.1079,4.3436,1.1347,6.3489,12.6385,11.7523,13.7524,2.5853,4.6031,11.7784,7.4928,12.3082
1046.8750,-1.9807,5.6289,7.9885,12.3952,8.5925,2.4381,3.1445,9.4936,2.5596,0.2545,1.8430,7.6591,8.6080,13.9974,-5.1891,4.6485,11.4851,4.9781,8.5928
1050.7812,-3.4290,3.2185,2.4092,9.3853,6.1233,2.8341,3.0305,7.7163,0.2139,-1.1203,-3.2178,2.0502,3.9303,12.0857,-11.5686,5.9460,9.3865,1.8025,2.8971
1054.6875,-4.4428,0.8335,-2.7328,5.7254,3.2434,2.2694,3.1893,5.7231,-1.4013,-2.5217,-6.6365,-2.2781,-0.9473,8.4975,-13.7784,6.8175,5.7989,-0.4644,-2.6486
1058.5938,-4.4991,-0.1202,-4.8416,3.0688,1.1060,1.0557,3.7326,4.5803,-1.0390,-3.1573,-6.9713,-3.9912,-4.6162,4.0378,-11.3061,5.6801,1.4451,-0.4523,-5.9319
1062.5000,-3.3154,0.9681,-2.6776,2.5869,0.4939,-0.1608,4.1181,4.9007,1.6091,-2.4805,-4.3107,-2.9122,-6.0704,-0.4050,-6.1515,2.1903,-2.6847,2.1636,-5.8590
1066.4062,-1.2083,3.5584,2.9235,4.4021,1.4468,-0.8356,3.5846,6.5192,5.5191,-0.6754,-0.1496,0.0730,-5.0167,-4.0562,-1.4815,-2.2999,-5.5636,6.3947,-2.7979
1070.3125,0.8936,6.2942,9.4219,7.5717,3.2464,-0.8374,1.6945,8.5931,8.7591,1.3351,3.4847,3.6367,-1.9139,-6.3699,0.3555,-5.3592,-6.4271,10.4075,1.7186
1074.2188,1.8846,7.7848,13.8093,10.5848,4.7902,-0.4511,-1.3566,10.0518,9.5258,2.4174,5.0940,6.7031,2.2449,-7.0832,-0.8451,-4.8809,-5.0689,12.4413,5.7983
1078.1250,1.1421,7.3455,14.0389,12.0689,5.1632,-0.1244,-4.7922,10.1251,7.1763,1.9616,4.3750,8.8033,6.2942,-6.2472,-3.2300,-0.4499,-2.0087,11.6474,8.0398
1082.0312,-1.0140,5.2716,9.9282,11.3435,4.0968,-0.1751,-7.5883,8.6597,2.6263,0.3153,2.2074,9.9822,9.2506,-4.2440,-4.1747,6.1930,1.5976,8.4141,8.0161
1085.9375,-3.4024,2.5455,3.1407,8.5957,2.0544,-0.6576,-8.9124,6.0817,-2.1345,-1.4032,0.0735,10.4599,10.5415,-1.7474,-1.8824,11.9315,4.3455,4.0679,6.2322
1089.8438,-4.6119,0.2212,-3.6613,4.6798,-0.0939,-1.4290,-8.4926,3.0836,-5.1121,-2.0166,-0.7344,10.3521,10.0579,0.4179,3.6190,13.8909,5.1435,0.1855,3.6829
1093.7500,-3.8242,-1.1095,-8.0229,0.7077,-1.6066,-2.2966,-6.7686,0.2563,-5.3257,-1.0647,0.2677,9.6154,8.0571,1.5177,10.4936,10.9636,3.6882,-2.0945,1.2984
1097.6562,-1.3200,-1.4756,-8.6875,-2.3660,-2.2877,-3.0953,-4.7229,-2.1146,-3.1986,0.8705,2.5548,8.1642,4.9869,1.1644,15.9483,4.3734,0.5869,-2.4476,-0.4479
1101.5625,1.6570,-1.2908,-5.9738,-4.0249,-2.5445,-3.6517,-3.4052,-4.0124,-0.1594,2.5122,4.8649,5.9895,1.3099,-0.5418,17.4242,-3.0120,-2.9717,-1.3377,-1.6279
1105.4688,3.6056,-0.9564,-1.4624,-4.2900,-3.0715,-3.7261,-3.3450,-5.4951,2.2279,2.6897,5.8106,3.1752,-2.6116,-3.0781,13.6500,-8.1804,-5.8407,0.2999,-2.6706
1109.3750,3.6123,-0.5990,2.7850,-3.6392,-4.3775,-3.0574,-4.1969,-6.5144,3.0492,1.0802,4.5654,-0.1518,-6.5417,-5.7477,5.2313,-9.4198,-7.4842,1.4702,-4.0364
1113.2812,1.8274,-0.1015,5.0919,-2.7778,-6.4459,-1.5411,-4.9079,-6.8748,2.3158,-1.5766,1.3070,-3.8138,-10.3043,-7.9731,-5.4059,-6.9527,-8.1526,1.4641,-5.9208
1117.1875,-0.6917,0.6490,4.7656,-2.3176,-8.7129,0.5800,-4.3915,-6.3432,0.6784,-3.9119,-2.8189,-7.4664,-13.6552,-9.4618,-14.7781,-2.5250,-8.5560,0.0614,-8.1094
1121.0938,-2.6385,1.5246,2.2311,-2.4695,-10.3374,2.6887,-2.3120,-4.8076,-1.1196,-4.7309,-6.2327,-10.4626,-16.1555,-10.1539,-19.6513,1.6945,-9.2363,-2.4244,-10.0230
1125.0000,-3.1927,2.1367,-1.2828,-2.8925,-10.5749,4.0192,0.5785,-2.3675,-2.6485,-3.6880,-7.6955,-11.8777,-17.1358,-10.0178,-18.4236,4.2455,-10.0420,-5.2482,-10.9139
1128.9062,-2.4002,2.0633,-4.3206,-2.8133,-9.0545,4.0359,2.8595,0.6974,-3.8385,-1.4458,-6.9041,-10.8012,-15.8312,-8.8740,-11.9103,4.9664,-10.0674,-7.4637,-10.1340
1132.8125,-1.0220,1.1583,-5.7817,-1.4109,-5.8663,2.7402,3.3883,4.0316,-4.7427,0.7476,-4.5634,-6.8130,-11.7039,-6.4172,-3.0224,4.8350,-8.1409,-8.2310,-7.3853
1136.7188,-0.0075,-0.2891,-5.2804,1.6919,-1.5025,0.6980,2.1120,7.2869,-5.2818,1.7822,-1.8986,-0.3854,-4.8512,-2.4703,4.6205,5.2412,-3.6077,-7.1087,-2.8832
1140.6250,0.0566,-1.6725,-3.1746,6.0904,3.2540,-1.2377,0.1248,10.1241,-5.1992,1.2847,0.0799,7.0650,3.7061,2.6803,8.4373,7.1034,3.0489,-4.2164,2.6164
1144.5312,-0.7873,-2.3925,-0.2981,10.6266,7.4482,-2.3423,-1.1133,12.1646,-4.2477,-0.2284,1.0918,13.5825,12.0769,8.1113,8.0062,10.2593,10.1420,-0.1912,7.9519
1148.4375,-1.9803,-2.1669,2.4608,13.8231,10.1122,-2.3253,-0.8299,12.9895,-2.4293,-1.6881,1.5774,17.3892,17.9973,12.4332,4.9187,13.4156,15.3678,4.0496,11.8511
1152.3438,-2.8037,-1.1221,4.5376,14.5366,10.5132,-1.3691,0.5401,12.2659,-0.0756,-2.0769,2.2224,17.5832,19.6458,14.2892,1.5355,14.7069,16.7865,7.6334,13.3271
1156.2500,-2.7462,0.3750,5.8704,12.5123,8.4596,0.0746,1.7846,9.9800,2.3041,-0.9551,3.3876,14.4844,16.4357,12.9606,-0.4855,12.6467,13.7154,9.9981,12.0514
1160.1562,-1.7028,1.9913,6.8130,8.5570,4.5219,1.5578,1.9573,6.6419,4.2867,1.3542,4.8441,9.4667,9.3831,8.7632,-0.9220,7.0399,7.0874,10.9906,8.5414
1164.0625,0.0356,3.5854,7.8403,4.2387,-0.0058,2.8004,1.1815,3.2909,5.7036,3.9771,5.9634,4.3628,0.8085,3.0097,-0.6134,-0.6358,-0.9054,10.7873,4.0364
1167.9688,1.9299,5.1311,9.2009,1.2577,-3.4807,3.6801,0.5260,1.2128,6.5924,5.9448,6.1673,0.7234,-6.5424,-2.4701,-0.4368,-7.6826,-7.7114,9.7169,0.0669
1171.8750,3.3826,6.4945,10.7003,0.7828,-4.5053,4.1186,1.0090,1.4461,6.9957,6.6328,5.2864,-0.7358,-10.5634,-6.0325,-0.5273,-11.3591,-11.4367,8.1036,-2.1166
1175.7812,3.9100,7.2893,11.7416,3.0446,-2.4774,3.9988,2.5409,4.3047,6.8014,5.9749,3.5947,-0.2670,-10.5314,-6.8223,-0.3510,-10.2240,-11.5103,6.2098,-1.9913
1179.6875,3.2827,6.9944,11.6158,7.3292,2.1747,3.1947,3.7340,9.1661,5.7896,4.3902,1.5683,1.2242,-7.1878,-5.0116,0.5211,-4.9004,-8.7240,4.2797,0.1304
1183.5938,1.6215,5.3064,9.9002,12.3209,8.1810,1.6904,2.8601,14.6563,3.8771,2.5227,-0.3775,2.7538,-2.1806,-1.6002,1.7011,2.2325,-4.6821,2.6078,3.3654
1187.5000,-0.5868,2.4894,6.7485,16.6028,13.9299,-0.3113,-0.7061,19.1532,1.3711,0.9659,-1.9580,3.7889,2.7795,2.0852,2.0608,8.3009,-0.9771,1.5465,6.7164
1191.4062,-2.6031,-0.5741,2.9032,19.0961,18.0201,-2.3893,-5.7009,21.3696,-0.9974,0.1042,-2.9047,4.4470,6.5788,4.9320,0.6534,11.4299,1.4832,1.4052,9.4441
1195.3125,-3.6842,-2.7412,-0.5898,19.2965,19.6212,-4.0338,-9.5688,20.7481,-2.3509,0.0919,-2.8677,5.2697,8.8724,6.3790,-2.2257,11.5651,2.6849,2.2844,11.1636
1199.2188,-3.3888,-3.2014,-2.8171,17.2893,18.5449,-4.8442,-10.1278,17.5281,-2.1127,0.8964,-1.5268,6.7178,9.8003,6.4349,-4.7702,10.1308,3.2095,3.9495,11.6956
1203.1250,-1.7985,-1.9282,-3.3469,13.6187,15.1031,-4.6882,-7.1207,12.5262,-0.3419,2.3244,1.1174,8.7192,9.5525,5.4399,-4.5898,8.8013,3.6633,5.8558,10.8794
1207.0312,0.4843,0.3255,-2.3088,9.1124,9.9091,-3.7378,-2.4652,6.8042,2.2827,4.0205,4.5202,10.5848,8.1410,3.7586,-0.3225,8.2662,4.2081,7.3632,8.5744
1210.9375,2.5975,2.5114,-0.1893,4.7230,3.7471,-2.3634,1.0609,1.3995,4.8442,5.5040,7.7021,11.3918,5.5351,1.6046,7.1789,7.8753,4.4870,8.0593,4.8944
1214.8438,3.8327,3.9417,2.5019,1.3881,-2.4767,-0.9406,1.7917,-2.8110,6.7057,6.3124,9.7225,10.6231,2.0249,-0.9060,15.0004,6.4203,3.9807,8.0146,0.4926
1218.7500,3.9885,4.6794,5.4688,-0.1250,-7.7716,0.3281,0.3634,-5.1647,7.8340,6.2277,10.2344,8.6492,-1.5159,-3.5363,19.6940,3.4638,2.5475,7.7966,-3.3924
1222.6562,3.4602,5.3940,8.6266,0.6004,-11.1713,1.4757,-0.7777,-5.2728,8.7183,5.4507,9.7170,6.6964,-3.7477,-5.7323,19.2538,0.1808,0.7659,8.1796,-5.2945
1226.5625,2.9966,6.7798,11.8945,3.4710,-11.9323,2.6715,0.7709,-3.1228,9.9407,4.5614,9.1700,6.2491,-3.3920,-6.6455,14.2796,-1.0392,-0.1997,9.6759,-4.1680
1230.4688,3.2452,8.9445,14.9633,7.8379,-9.7625,4.0081,5.4826,0.8384,11.6843,4.2203,9.4368,8.2028,0.0944,-5.4397,7.5825,1.8848,0.8073,12.1508,0.0276
1234.3750,4.3417,11.2012,17.2399,12.6422,-4.9751,5.3086,11.3445,5.7454,13.5136,4.7572,10.6138,12.2758,6.0957,-1.7541,2.5018,9.0353,4.2028,14.7792,6.1808
1238.2812,5.7929,12.4308,18.0489,16.7439,1.5202,6.1032,15.0421,10.5314,14.5866,5.9164,11.9699,17.0568,12.9532,3.9477,1.0179,17.8361,9.2418,16.4283,12.4588
1242.1875,6.7371,11.7872,16.9898,19.3174,8.4144,5.8426,14.0602,14.2554,14.1769,6.9644,12.4492,20.6883,18.6117,10.3921,2.8193,24.0348,14.2090,16.2876,17.1115
1246.0938,6.4436,9.2823,14.2323,20.1252,14.3360,4.2577,8.2664,16.3838,12.1763,7.1314,11.4188,21.7980,21.4861,15.9336,5.8128,23.9083,17.1770,14.3842,19.2135
1250.0000,4.7577,5.8573,10.5562,19.5227,18.2194,1.6409,-0.0407,16.8812,9.2536,6.1101,9.1455,20.1440,21.1022,19.2177,7.6281,16.4482,16.9426,11.6469,18.9455
1253.9062,2.2234,2.8868,7.0833,18.1787,19.5708,-1.1749,-7.5370,16.0746,6.5568,4.2666,6.6758,16.6281,18.1875,19.7120,7.1007,4.2114,13.6293,9.4316,17.2882
1257.8125,-0.1924,1.4258,4.8256,16.6582,18.5281,-3.1956,-11.7019,14.3954,5.1233,2.4046,5.2087,12.7224,14.1849,17.8068,4.8373,-7.7391,8.6189,8.7540,15.3447
1261.7188,-1.6040,1.6668,4.2732,15.1014,15.6875,-3.8141,-11.8928,12.1634,5.3454,1.2378,5.3851,9.6858,10.4766,14.4371,2.6282,-14.2842,3.8488,9.6814,13.7006
1265.6250,-1.6365,2.9260,5.2214,13.1886,11.7799,-3.1766,-9.1570,9.5327,6.7928,0.9482,6.9504,8.0242,7.7481,10.4804,2.2014,-12.7795,0.8677,11.2685,12.1806
1269.5312,-0.5375,4.1315,6.9096,10.4164,7.3615,-2.0887,-5.1845,6.5953,8.4783,1.1438,8.9608,7.4435,5.8241,6.3230,4.1381,-4.3210,0.1587,12.1028,10.1054
1273.4375,1.0527,4.4857,8.3946,6.5304,2.6873,-1.4661,-1.2818,3.5332,9.3865,1.2364,10.3422,7.2196,4.0217,1.8706,7.5661,6.8864,1.0674,11.1462,6.8633
1277.3438,2.4830,3.8956,8.9774,1.8572,-2.1677,-1.6624,1.9941,0.6924,8.9534,0.9357,10.4138,6.6926,1.7691,-3.0328,10.7102,15.6708,2.3161,8.3636,2.4470
1281.2500,3.3648,2.9415,8.4889,-2.6694,-7.0297,-2.1369,4.5490,-1.4744,7.2456,0.4714,9.0856,5.5907,-0.9091,-8.1040,11.8917,18.3933,2.7693,4.7554,-2.3564
1285.1562,3.6013,2.4548,7.3122,-5.8305,-11.3972,-1.7397,6.3065,-2.5566,4.7966,0.3703,6.7144,4.0646,-3.3357,-12.4342,10.3982,14.5400,2.0159,1.7755,-6.2336
1289.0625,3.2410,2.9938,6.1403,-6.6446,-14.4553,0.5126,7.0774,-2.3325,2.2643,0.9765,3.8274,2.5124,-4.5755,-14.8026,6.8066,6.6805,0.4878,0.4999,-7.9342
1292.9688,2.3484,4.5306,5.5884,-4.8343,-15.3715,4.6515,6.7894,-0.8437,0.1497,2.1113,0.9474,1.3651,-4.0180,-14.3219,2.6782,-1.0613,-0.8770,1.0622,-6.8763
1296.8750,1.0262,6.4992,5.8545,-1.0003,-13.7162,9.4948,5.7328,1.6154,-1.2769,3.1671,-1.4141,0.9550,-1.7708,-10.9978,-0.1706,-5.1462,-1.1817,2.6883,-3.4535
1300.7812,-0.4577,8.1329,6.6126,3.5930,-9.7427,13.1292,4.4756,4.5630,-1.8701,3.5714,-2.7156,1.4797,1.3883,-5.8170,-0.4912,-4.2452,-0.0124,4.2839,1.1270
1304.6875,-1.6237,8.8751,7.2116,7.5357,-4.3354,13.8837,3.4614,7.4236,-1.4784,3.2504,-2.4609,3.0071,4.4629,-0.2826,1.8080,0.4216,2.4203,5.1809,5.4063
1308.5938,-1.9629,8.6413,7.0947,9.8638,1.3609,11.2187,2.6574,9.6471,0.0643,2.6995,-0.4263,5.4725,6.7994,4.3240,5.5407,6.0903,5.4445,5.5639,8.3536
1312.5000,-1.2914,7.8227,6.2076,10.4514,6.4039,6.0039,1.6284,10.8516,2.8021,2.5830,3.1054,8.6644,8.3918,7.4892,8.6849,10.1413,8.2526,6.3153,9.8078
1316.4062,-0.0130,7.0592,5.1369,10.0084,10.3330,0.0457,0.0332,10.9552,6.4846,3.1695,7.3158,12.2287,9.7386,9.4967,9.2835,11.4890,10.2109,8.3837,10.4326
1320.3125,0.9799,6.9080,4.8406,9.6610,13.1188,-4.8183,-1.8781,10.2211,10.5077,4.0682,11.1185,15.6995,11.3565,10.9636,6.4659,10.9192,11.0346,12.0650,11.2015
1324.2188,0.8083,7.5580,6.0692,10.3017,14.8745,-7.5118,-3.2550,9.1529,14.0387,4.5076,13.5977,18.5402,13.2829,12.2347,1.0889,10.2723,10.8029,16.6269,12.6982
1328.1250,-0.7744,8.7073,8.7889,12.0328,15.5792,-7.9858,-3.2322,8.2552,16.2635,3.9628,14.3511,20.1811,14.9080,13.0643,-4.4392,11.0560,9.8496,20.4975,14.6471
1332.0312,-3.0860,9.6608,11.9764,14.0184,15.0365,-6.9159,-1.6838,7.7803,16.6252,2.6401,13.5251,20.0760,15.2622,12.7999,-7.2344,13.3868,8.5922,21.9227,15.9759
1335.9375,-4.8141,9.6210,13.9896,14.8794,13.0970,-5.1288,0.5049,7.6206,14.9510,1.4088,11.5501,17.8285,13.5925,10.9241,-5.4732,15.9154,7.3644,19.7648,15.4130
1339.8438,-4.7783,8.0751,13.3931,13.4710,9.9590,-3.1512,1.9713,7.4322,11.4672,1.1967,8.8050,13.3990,9.8773,7.5638,0.4284,16.7352,6.3128,14.0675,12.2957
1343.7500,-2.6708,5.1173,9.8218,9.6387,6.2882,-1.1008,1.8937,6.9227,6.7715,2.2929,5.4819,7.3138,4.9681,3.6049,7.7561,14.6410,5.4017,6.1461,7.1182
1347.6562,0.7377,1.5462,4.3800,4.5051,3.0194,1.1320,0.7173,6.1025,1.8044,4.1043,1.7532,0.7184,0.2728,0.3157,12.7548,9.9014,4.5222,-1.8160,1.4718
1351.5625,4.0887,-1.3525,-0.7161,0.0614,0.9352,3.6322,-0.0462,5.3116,-2.2257,5.5779,-1.9213,-4.8522,-2.8416,-1.2882,12.6152,4.0708,3.6440,-7.4941,-2.6255
1355.4688,6.2963,-2.2857,-3.1347,-1.7725,0.2861,6.3255,1.0954,4.9825,-4.0634,5.9921,-4.6512,-7.9626,-3.6059,-0.9485,7.0836,-0.9665,2.9042,-9.1952,-3.6672
1359.3750,7.1829,-0.5049,-1.5690,-0.1233,0.7044,8.9956,4.3953,5.3037,-2.8104,5.5209,-5.3499,-7.8159,-2.0949,0.7576,-1.2774,-4.0249,2.5583,-6.4051,-1.3583
1363.2812,7.4495,3.8278,3.5948,4.3800,1.4766,11.3596,8.4531,6.0426,1.6185,5.1319,-3.2756,-4.5555,0.9205,2.7869,-8.3928,-5.0298,2.8071,0.0769,3.2918
1367.1875,8.0254,9.6476,10.4623,9.9478,2.0071,13.1073,11.0107,6.6896,8.2479,5.8675,1.4465,0.8498,4.3910,4.2057,-10.8175,-4.6249,3.6166,8.4550,8.5157
1371.0938,9.2847,15.3812,16.5805,14.5817,2.1847,13.9007,10.4831,6.8527,15.2404,8.0268,7.6897,7.0666,7.4441,4.6360,-7.4901,-3.3946,4.6747,16.5786,12.6552
1375.0000,10.7091,19.5429,20.1316,17.0832,2.4290,13.4164,7.1634,6.6255,20.5462,10.8372,13.7163,12.9213,9.6630,4.3500,-0.1299,-1.3810,5.5473,22.6525,14.8754
1378.9062,11.2347,21.2499,20.7110,17.5382,3.3934,11.4824,3.2062,6.6355,22.7250,12.8532,17.8908,17.6786,11.0924,4.0107,7.8311,1.7117,5.9445,25.7334,15.3657
1382.8125,10.0139,20.4292,19.2794,17.0249,5.5062,8.2624,1.3233,7.6838,21.5043,12.7988,19.3039,20.9633,12.0144,4.2472,13.0267,5.8345,5.9072,25.8301,14.9728
1386.7188,7.0323,17.6652,17.3721,16.7780,8.6146,4.3440,3.0241,10.1742,17.7652,10.2845,17.9709,22.4883,12.6387,5.3034,13.5874,10.0780,5.7557,23.6242,14.5301
1390.6250,3.1480,13.8327,16.0850,17.3613,11.9303,0.6161,7.5755,13.7036,12.9822,5.9585,14.5736,21.9003,12.8821,6.9183,9.5798,12.8869,5.8121,20.0135,14.2957
1394.5312,-0.4360,9.7455,15.4687,18.3553,14.3072,-2.0518,12.3778,17.1077,8.4748,1.0822,10.0134,18.9451,12.3655,8.4584,2.5566,12.9905,6.0872,15.7448,13.8252
1398.4375,-2.8488,5.9889,14.6749,18.7053,14.7120,-3.1643,14.5122,18.9731,4.9236,-3.1054,5.1246,13.8686,10.6455,9.2033,-5.1815,10.4171,6.1858,11.3071,12.3305
1402.3438,-3.8970,2.9500,12.7054,17.4445,12.6675,-2.7887,12.4544,18.3294,2.3858,-5.8104,0.6847,7.7186,7.5680,8.6494,-11.1119,6.7813,5.5435,7.0563,9.2893
1406.2500,-3.8944,0.9169,9.2281,14.3017,8.4739,-1.4709,6.8871,15.1219,0.6851,-6.7261,-2.4412,2.2093,3.5398,6.7180,-12.8070,4.4905,3.8721,3.3880,4.9203
1410.1562,-3.2122,0.0990,4.9049,9.8359,3.1228,0.0570,0.1845,10.2137,-0.2017,-5.8565,-3.3388,-0.9140,-0.4721,3.8103,-8.4289,5.2972,1.5068,0.7623,0.2252
1414.0625,-1.9714,0.5189,1.0237,5.0938,-2.0434,1.1990,-4.9923,4.9587,-0.0864,-3.4013,-1.4260,-0.7033,-3.2734,0.7051,2.3665,9.1562,-0.6151,-0.4677,-3.4407
1417.9688,-0.1372,1.8669,-1.2919,1.0905,-5.7738,1.6745,-7.0529,0.6309,1.1355,0.1741,3.0068,2.4739,-3.9675,-1.6646,17.4922,14.2062,-1.3842,-0.2904,-5.0220
1421.8750,2.1082,3.4792,-1.7413,-1.5335,-7.2723,1.4999,-6.0122,-1.9732,3.1234,4.0255,8.5380,7.0848,-2.3942,-2.4928,32.3238,17.9456,-0.1120,0.8750,-4.2554
1425.7812,4.0967,4.5351,-0.9311,-2.5308,-6.3561,0.8434,-3.0639,-2.6155,5.0307,7.0227,13.0000,11.2050,0.7796,-1.3613,41.0901,18.8338,3.0775,2.3515,-1.7190
1429.6875,4.8314,4.4152,0.1452,-1.8679,-3.3944,-0.1237,0.3245,-1.4620,5.8800,8.1508,14.4551,13.4714,4.3912,1.5948,39.4887,17.2276,7.2984,3.5551,1.5646
1433.5938,3.5390,3.0269,0.8354,0.3999,0.8886,-1.2905,3.1265,1.1063,5.1584,7.0260,12.2475,13.6541,7.3502,5.6744,27.1964,15.0161,11.3441,4.2930,4.6976
1437.5000,0.2483,0.8946,1.2392,4.0541,5.6199,-2.5775,4.9202,4.5786,3.2057,4.1711,7.4544,12.5389,9.1096,9.7689,8.6205,14.2210,14.2199,4.7983,7.2760
1441.4062,-4.0463,-1.0622,2.0248,8.5323,9.9174,-3.8648,5.6300,8.3146,1.0808,0.8066,2.3703,11.2508,9.7644,12.6623,-8.9171,15.5500,15.4418,5.4744,9.3468
1445.3125,-7.8009,-1.9519,3.8144,12.8791,12.9718,-4.9356,5.2640,11.5857,-0.0480,-1.7603,-0.7349,10.4918,9.7532,13.3985,-18.7898,17.9071,14.9782,6.5323,11.0382
1449.2188,-9.6823,-1.3114,6.6084,15.9908,14.1460,-5.4754,3.9427,13.7462,0.3958,-2.7799,-0.8543,10.1731,9.3997,11.6029,-18.4375,19.1658,12.9808,7.7807,12.1851
1453.1250,-9.1998,0.7182,9.6702,17.0788,13.1363,-5.1452,2.1428,14.4772,2.0653,-2.3455,1.2795,9.6228,8.6327,7.6369,-10.4717,17.6190,9.5825,8.7151,12.2668
1457.0312,-6.8417,3.4975,11.9394,16.0567,10.1452,-3.7261,0.7992,13.9278,3.9362,-1.1816,3.7541,8.1572,7.0836,2.5014,-0.8447,13.0692,4.9414,8.8339,10.7307
1460.9375,-3.6879,6.1792,12.6544,13.5640,5.9302,-1.2980,0.9711,12.6084,4.9500,-0.1284,4.6924,5.5976,4.4791,-2.5079,4.7393,6.8346,-0.5339,7.9473,7.4721
1464.8438,-0.8015,8.0143,11.7377,10.5726,1.6081,1.6360,3.1494,11.0575,4.6256,0.3208,3.3442,2.4068,1.0289,-6.2759,3.9274,0.7643,-6.0223,6.2686,3.0980
1468.7500,1.2194,8.5499,9.7072,7.8266,-1.7674,4.1973,6.6685,9.4921,3.2656,0.1743,0.4077,-0.5823,-2.4931,-8.2715,-1.4854,-3.9375,-10.4146,4.2486,-1.2529
1472.6562,2.3241,7.7004,7.2535,5.5003,-3.6597,5.4165,9.7413,7.6992,1.6824,-0.2127,-2.5268,-2.6065,-5.0613,-8.6860,-7.2896,-7.1970,-12.7274,2.3082,-4.4459
1476.5625,2.7934,5.7356,4.8542,3.3069,-4.2656,4.6869,10.2818,5.2740,0.6817,-0.4120,-3.9624,-3.2770,-5.9144,-8.2313,-9.7285,-9.5794,-12.5709,0.6759,-5.8885
1480.4688,2.9528,3.2274,2.7161,0.9624,-4.3335,2.1616,7.1273,2.0602,0.6532,-0.1247,-3.2615,-2.6092,-4.9493,-7.7057,-7.5601,-11.3180,-10.3637,-0.5699,-5.7162
1484.3750,3.0006,0.9406,1.0183,-1.3665,-4.6650,-1.1751,0.9147,-1.5230,1.4796,0.7447,-0.7888,-0.8562,-2.7539,-7.5689,-2.1812,-11.7408,-7.1386,-1.3395,-4.5277
1488.2812,2.9883,-0.3678,0.1542,-2.9933,-5.6013,-3.8929,-6.0034,-4.5318,2.7329,2.0752,2.5055,1.6625,-0.2777,-7.7649,3.8551,-9.6437,-4.0484,-1.4307,-2.9006
1492.1875,2.8746,-0.2195,0.6692,-3.1081,-6.8236,-4.8131,-10.6610,-5.9424,3.9620,3.5242,5.6713,4.6131,1.6420,-7.8727,8.5963,-4.3805,-1.8656,-0.6045,-1.0568
1496.0938,2.5817,1.3550,2.8720,-1.3642,-7.5923,-3.6373,-11.0050,-5.2239,4.8893,4.5728,8.1285,7.6177,2.6316,-7.4572,11.4850,3.1867,-0.7432,1.2154,1.0986
1500.0000,2.0515,3.7869,6.4257,1.7830,-7.2566,-1.1105,-6.9616,-2.6664,5.4648,4.7099,9.7032,10.2662,2.8574,-6.3668,12.9298,10.7161,-0.3112,3.7946,3.6545
1503.9062,1.3333,6.2163,10.3087,5.2625,-5.6816,1.4223,-0.4144,0.7628,5.8340,3.7433,10.4776,12.2442,2.8533,-4.7824,13.3623,15.5443,0.0246,6.6400,6.3998
1507.8125,0.6761,7.9253,13.2786,7.9996,-3.3106,2.8208,5.8673,3.9472,6.2792,2.0575,10.6562,13.4974,3.2335,-3.0187,12.7200,16.2713,0.7846,9.2342,8.8286
1511.7188,0.5236,8.7095,14.5677,9.5284,-0.8528,2.8179,9.6767,6.1926,7.1246,0.5648,10.5125,14.2635,4.4150,-1.2700,10.7097,13.6774,2.2393,11.2735,10.4374
1515.6250,1.3203,8.9381,14.3082,10.1651,1.1435,2.1186,10.3304,7.4711,8.5644,0.2536,10.3221,14.8668,6.4120,0.4691,7.4193,10.2625,4.3377,12.7143,11.0447
1519.5312,3.1762,9.2319,13.3403,10.6033,2.5048,1.8651,8.6349,8.1994,10.4420,1.5486,10.1954,15.3665,8.7334,2.2335,3.5602,8.6210,6.6753,13.5852,10.8302
1523.4375,5.6108,9.9467,12.5082,11.2207,3.3014,2.8223,6.0217,8.7365,12.1269,3.9175,9.8892,15.3213,10.4327,3.8184,0.0580,9.6859,8.5002,13.7352,10.0410
1527.3438,7.6265,10.8111,11.9586,11.6195,3.5302,4.8327,3.5231,8.9791,12.6643,6.0732,8.8114,13.9181,10.3844,4.6820,-2.6090,12.0185,8.8528,12.7694,8.6297
1531.2500,8.1811,11.0026,10.9942,10.7853,2.9347,6.9027,1.2922,8.3629,11.2407,6.7337,6.3695,10.4918,7.7852,4.1849,-4.6357,12.6707,6.9241,10.3082,6.2029
1535.1562,6.8280,9.6675,8.6502,7.8234,1.1743,7.8554,-1.0833,6.2923,7.7601,5.4721,2.5332,5.1664,2.7160,2.0692,-6.3995,9.1322,2.5592,6.4418,2.4339
1539.0625,4.1020,6.5819,4.6136,2.8018,-1.7447,7.1023,-3.8190,2.7094,3.1653,3.0583,-1.7785,-0.8117,-3.5500,-1.1537,-7.6968,1.1573,-3.3633,2.0502,-2.3112
1542.9688,1.3278,2.5148,-0.1901,-2.8976,-5.1262,5.0194,-6.3830,-1.5985,-0.7994,1.0022,-4.8779,-5.3602,-8.7911,-4.2406,-7.5124,-8.6901,-9.0022,-1.3228,-6.6582
1546.8750,-0.1058,-0.9977,-3.8386,-7.0482,-7.6770,2.6911,-7.6296,-5.2061,-2.3663,0.5641,-5.1113,-6.4338,-10.6813,-5.7567,-4.7309,-16.1717,-12.2065,-2.0955,-8.6177
1550.7812,0.4208,-2.4031,-4.4218,-7.6807,-8.0951,1.2218,-6.5593,-6.6987,-0.6860,1.8979,-1.8731,-3.0810,-7.9146,-4.8498,0.6603,-17.5895,-11.5175,0.5068,-6.6174
1554.6875,2.3666,-1.0050,-1.2206,-4.2093,-5.8402,1.0815,-3.1581,-5.4105,3.6116,3.9336,3.8189,3.8786,-1.0313,-1.7882,6.9146,-11.8515,-6.9991,5.8593,-0.5932
1558.5938,4.3595,2.5526,4.6929,2.0841,-1.5880,1.9035,1.3219,-1.8298,8.6020,5.0930,9.6324,11.9664,7.5699,2.0941,11.1821,-1.2426,-0.3774,11.9813,7.5891
1562.5000,5.0509,6.4981,10.8385,8.5319,2.9720,2.8163,4.9024,2.5635,11.9375,4.3482,13.0173,17.9640,14.5520,5.0451,11.2435,9.5308,5.6744,16.2674,14.7736
1566.4062,3.9348,8.7637,14.4977,12.3065,5.9313,3.0425,5.9347,5.9514,11.9459,1.8886,12.4717,19.2441,17.0939,5.7661,7.1292,15.5438,8.7739,16.5901,17.9516
1570.3125,1.5958,8.0020,14.0150,11.7568,6.1053,2.3503,4.0127,6.9890,8.3723,-1.0540,8.2386,14.9053,14.1530,4.0084,1.3345,14.0013,7.9330,12.2516,15.7212
1574.2188,-0.7545,4.2531,9.5346,7.1666,3.5874,1.0923,0.1750,5.3775,2.4065,-3.0670,2.0518,6.1916,6.8895,0.5873,-2.7132,5.5792,3.9321,4.3363,8.9438
1578.1250,-2.1052,-1.0820,2.8357,0.5756,-0.3758,-0.1342,-3.7019,1.9513,-3.9455,-3.4795,-3.8474,-3.9894,-1.9418,-3.1301,-2.9668,-5.8837,-1.2040,-4.6935,0.2461
1582.0312,-2.2591,-5.9345,-3.5613,-5.2062,-4.0633,-0.9293,-5.9194,-1.7206,-8.7559,-2.7071,-7.7912,-12.2328,-9.2822,-5.9069,-0.2058,-15.1877,-5.2859,-11.9692,-7.3087
1585.9375,-1.8324,-8.5579,-7.5129,-7.8642,-6.0853,-1.3339,-5.7717,-4.0039,-10.8783,-1.8271,-9.2560,-15.9765,-13.0578,-7.1011,2.4862,-18.2138,-6.9734,-15.3262,-11.6106
1589.8438,-1.6988,-8.3159,-8.0671,-6.5156,-5.8808,-1.7456,-3.7494,-3.8402,-10.2001,-1.7477,-8.7281,-14.4536,-12.8564,-6.7296,1.9151,-13.8446,-6.2077,-14.0959,-12.2232
1593.7500,-2.3207,-5.8967,-5.6861,-1.9246,-3.7294,-2.6045,-1.1290,-1.1120,-7.4691,-2.5933,-7.1353,-8.8821,-9.7701,-5.2336,-2.8949,-4.4477,-3.9481,-9.2743,-10.1676
1597.6562,-3.4567,-2.8893,-1.8895,4.0086,-0.4129,-4.0703,0.7167,3.3700,-3.9000,-3.7190,-5.3118,-1.8577,-5.6372,-3.1901,-9.9031,5.3128,-1.5016,-3.0335,-7.0663
1601.5625,-4.4267,-0.9669,1.4554,9.1592,3.1785,-5.8843,0.8965,8.2144,-0.7648,-4.2791,-3.7926,3.7526,-2.1646,-1.1562,-15.3579,10.7552,0.1053,2.1959,-4.2393
1605.4688,-4.6867,-1.0936,2.8976,12.0343,6.2718,-7.4697,-0.7461,11.9692,0.9383,-3.8814,-2.8942,5.9275,-0.3578,0.3496,-16.2689,9.4182,0.4078,4.6806,-2.2512
1609.3750,-4.2546,-3.1249,1.9496,12.2158,8.2491,-8.1964,-3.6876,13.6165,0.7333,-2.8402,-2.8173,4.1687,-0.4104,0.8587,-12.2862,2.1458,-0.5694,3.9851,-1.0277
1613.2812,-3.6602,-5.9573,-0.7648,10.2777,8.6341,-7.6687,-6.9630,12.8640,-1.1752,-1.8755,-3.5701,-0.4834,-1.9278,0.0640,-5.6998,-7.4909,-2.5235,0.9882,-0.2935
1617.1875,-3.4712,-8.1071,-3.8187,7.3194,7.1642,-5.9113,-9.4927,10.1473,-3.9043,-1.5232,-4.7661,-6.0101,-4.2388,-1.9915,0.3402,-15.0622,-5.0096,-2.6448,0.0567
1621.0938,-3.7705,-8.4070,-5.6327,4.4025,3.9503,-3.3813,-10.4513,6.3735,-6.1362,-1.7056,-5.5517,-10.2396,-6.6135,-4.8001,4.0099,-17.4064,-7.4524,-5.2467,-0.0975
1625.0000,-3.9931,-6.4802,-5.1918,2.1677,-0.4072,-0.7938,-9.6021,2.5439,-6.5908,-1.7596,-4.8739,-11.5758,-8.3627,-7.4873,5.8037,-13.9107,-9.1542,-5.8024,-0.8678
1628.9062,-3.2615,-2.7922,-2.4906,0.7677,-4.8924,1.1810,-7.4364,-0.5668,-4.5600,-0.8747,-2.0338,-9.3955,-8.8981,-9.1252,7.6761,-6.3978,-9.4388,-4.1844,-2.0638
1632.8125,-0.9899,1.6859,1.5260,0.0676,-8.3728,2.2291,-4.9570,-2.5456,-0.2391,1.3770,2.7996,-4.0749,-7.8290,-9.1053,11.0715,2.1159,-7.9289,-0.9338,-3.0958
1636.7188,2.6627,5.9833,5.4977,-0.0692,-9.9947,2.5550,-3.1153,-3.2799,5.3415,4.7564,8.4931,3.2489,-5.0837,-7.3611,15.3870,8.9566,-4.7890,3.1960,-3.1683
1640.6250,6.8032,9.5204,8.3625,0.3927,-9.4742,2.7790,-2.1871,-2.8011,10.7731,8.4560,13.4082,11.0397,-0.9716,-4.3242,18.0639,12.7862,-0.7231,7.6194,-1.6623
1644.5312,10.2644,12.2053,9.8463,1.6235,-7.1371,3.5845,-1.5216,-1.1767,14.8748,11.4677,16.1916,17.7555,3.8890,-0.6670,16.2912,13.7086,3.3355,12.0093,1.5236
1648.4375,12.2060,14.2410,10.4634,3.7310,-3.7099,5.2903,0.0639,1.4690,17.1200,12.9905,16.4339,22.2202,8.7696,2.9961,9.1151,12.7265,6.6834,16.1218,5.8723
1652.3438,12.4796,15.8144,11.0645,6.5633,0.0032,7.6113,3.3998,4.8458,17.6720,12.6898,14.7973,23.9150,13.0574,6.2863,-1.5563,11.0694,9.1616,19.5665,10.4489
1656.2500,11.5682,16.8800,12.2431,9.6680,3.3888,9.7871,8.1618,8.4261,17.0633,10.7571,12.5427,23.0869,16.3890,9.0632,-11.8042,9.7647,11.1092,21.7581,14.2906
1660.1562,10.2005,17.1666,13.9678,12.4560,6.1355,11.0346,12.7705,11.5264,15.7668,7.8054,10.7557,20.5885,18.6361,11.3186,-17.8765,9.4696,12.9816,22.1276,16.7819
1664.0625,8.9261,16.3787,15.6389,14.4725,8.1916,11.0478,15.1920,13.5460,13.9471,4.6636,9.7532,17.4724,19.7863,13.0693,-18.2711,10.3727,14.9016,20.4605,17.8271
1667.9688,7.9088,14.4442,16.4828,15.5993,9.6472,10.2052,14.1981,14.2350,11.5292,2.1135,9.0240,14.5207,19.8318,14.3100,-14.3875,12.0607,16.4645,17.1178,17.7596
1671.8750,7.0033,11.6470,16.0045,16.0519,10.6187,9.3144,10.2459,13.8145,8.4861,0.6293,7.7129,11.9714,18.7525,15.0150,-9.3892,13.4982,16.9502,12.9660,17.0662
1675.7812,5.9880,8.5639,14.2272,16.1718,11.1737,9.0438,5.3205,12.8460,5.1008,0.2141,5.3184,9.6122,16.6016,15.1430,-6.0990,13.3642,15.8096,9.0365,16.1015
1679.6875,4.7632,5.8504,11.6236,16.1544,11.2960,9.4269,1.7670,11.9083,1.9895,0.4420,2.1460,7.1765,13.6122,14.6287,-5.3471,10.7650,13.0959,6.1126,14.9458
1683.5938,3.4091,3.9976,8.8428,15.8983,10.8824,9.8071,0.8511,11.2715,-0.1445,0.7267,-0.7795,4.7546,10.2258,13.3906,-5.8209,5.9516,9.5453,4.4811,13.4606
1687.5000,2.1318,3.1826,6.4341,15.0838,9.7789,9.2983,2.0167,10.7714,-0.8597,0.7000,-2.2942,2.9019,7.0010,11.3905,-5.4114,0.4836,6.2441,3.9660,11.4760
1691.4062,1.1930,3.2695,4.7113,13.4329,7.8653,7.4703,3.3476,9.9658,-0.1861,0.4745,-1.8029,2.3332,4.4444,8.7339,-3.0313,-3.4563,4.0945,4.1801,8.9794
1695.3125,0.8780,3.9348,3.7785,10.9790,5.1768,4.7813,2.9204,8.4737,1.4388,0.6030,0.3393,3.4054,2.8626,5.7433,0.4196,-4.2870,3.4084,4.8078,6.1962
1699.2188,1.4651,4.8394,3.6307,8.1666,2.0039,2.4270,0.1207,6.2836,3.4517,1.7235,3.0261,5.7708,2.3093,2.9211,2.6490,-2.0020,3.8566,5.7436,3.5396
1703.1250,3.1264,5.7633,4.2282,5.7038,-1.1018,1.6614,-3.9547,3.8387,5.4501,4.0942,5.0595,8.4834,2.6289,0.7840,1.7213,1.8325,4.7544,7.0260,1.4737
1707.0312,5.7537,6.6447,5.4902,4.2456,-3.4622,3.0127,-7.2366,1.8466,7.2800,7.3098,5.8441,10.5095,3.5330,-0.3596,-2.2980,5.1302,5.4560,8.6395,0.3607
1710.9375,8.8139,7.5126,7.2236,4.0824,-4.5180,5.9014,-8.0088,0.9299,8.8784,10.3935,5.6486,11.2850,4.6460,-0.5609,-7.0522,6.6747,5.6047,10.3287,0.3341
1714.8438,11.3905,8.3529,9.0465,4.9987,-4.0796,8.9144,-5.9192,1.3169,10.0228,12.2195,5.2534,10.9142,5.5120,-0.2137,-9.3067,6.8285,5.1287,11.5503,1.2170
1718.7500,12.4831,8.9861,10.3747,6.3668,-2.4510,10.5654,-2.0711,2.7371,10.2252,12.0269,5.2254,9.8773,5.6267,0.1281,-7.2050,7.0061,4.0738,11.6124,2.5063
1722.6562,11.4616,9.0491,10.5280,7.4150,-0.3448,10.0702,1.7341,4.5546,8.9199,9.7441,5.3517,8.4978,4.5606,0.0016,-1.8200,8.2898,2.4637,9.9626,3.4687
1726.5625,8.4269,8.1330,8.9667,7.5401,1.3944,7.6824,3.9989,6.0475,5.8708,5.9868,4.6880,6.6279,2.1722,-0.7797,3.1974,10.2663,0.3135,6.5137,3.3826
1730.4688,4.2425,6.0428,5.5966,6.5309,2.1340,4.4419,4.1376,6.6833,1.5375,1.7901,2.2659,3.8491,-1.1969,-2.0848,3.8372,11.0658,-2.2308,1.8570,1.8815
1734.3750,0.1815,3.0437,1.0019,4.6308,1.7017,1.5547,2.4598,6.2734,-2.8902,-1.7467,-1.9907,0.0711,-4.6957,-3.5621,-1.5199,8.7043,-4.7768,-2.7758,-0.7576
1738.2812,-2.6299,-0.0803,-3.5714,2.4344,0.4191,-0.1893,-0.2290,4.9742,-5.8958,-3.7465,-6.8088,-3.9452,-7.1977,-4.7989,-10.6499,2.8137,-6.7284,-5.8611,-3.5839
1742.1875,-3.6639,-2.2627,-6.5789,0.6664,-1.0875,-0.6525,-3.0074,3.1737,-6.3116,-3.7269,-9.9933,-6.6300,-7.7325,-5.4611,-18.4282,-4.5484,-7.4952,-6.1647,-5.3127
1746.0938,-3.1017,-2.6263,-6.8026,-0.0780,-2.1915,-0.2011,-5.0077,1.3373,-3.9059,-1.6943,-9.5876,-6.3235,-5.9143,-5.3665,-19.7433,-9.7354,-6.7478,-3.3206,-4.9312
1750.0000,-1.5927,-0.9590,-3.9578,0.4584,-2.5250,0.6275,-5.5006,-0.1266,0.4587,1.8161,-5.0899,-2.2860,-2.1357,-4.4955,-12.6312,-9.5731,-4.5590,1.8871,-2.2614
1753.9062,0.1388,2.0917,1.0664,2.1154,-2.0680,1.3976,-4.1059,-0.9493,5.1998,5.8006,2.0606,4.6520,2.5837,-2.9618,0.3426,-3.3297,-1.3588,7.7447,1.8640
1757.8125,1.5835,5.2677,6.5334,4.4018,-1.0485,1.8665,-1.1271,-1.0267,8.7296,9.0217,9.0933,12.2706,7.0199,-0.9665,13.3733,6.7068,2.2470,12.2917,5.9655
1761.7188,2.5057,7.2979,10.6371,6.7145,0.2584,1.9459,2.2904,-0.3946,10.1261,10.4188,13.2969,17.9307,10.2128,1.2524,20.6222,16.4261,5.6728,14.1589,8.6453
1765.6250,2.8343,7.5213,12.3332,8.5882,1.6973,1.6501,4.5088,0.8248,9.4228,9.5488,13.3776,19.8008,11.7547,3.4662,19.3996,22.0946,8.4727,13.1311,9.2708
1769.5312,2.5593,6.1706,11.7572,9.8503,3.2677,1.0878,4.2487,2.4791,7.4088,6.8185,9.9993,17.6524,11.7948,5.4845,11.4427,22.1851,10.3782,10.1322,8.2170
1773.4375,1.7441,4.1404,9.9953,10.6034,5.0263,0.4566,1.4694,4.4139,5.1064,3.3266,5.2388,12.8231,10.8254,7.1583,1.6437,17.8088,11.2991,6.6443,6.5494
1777.3438,0.6111,2.3860,8.3587,11.0578,6.9405,-0.0304,-2.3751,6.4645,3.2422,0.3439,1.3527,7.4402,9.4047,8.3673,-4.8489,11.6880,11.3195,3.9049,5.3739
1781.2500,-0.4486,1.3374,7.6128,11.3288,8.7997,-0.2808,-5.0314,8.4222,1.9833,-1.3115,-0.3737,3.3905,7.9566,9.0107,-5.3494,6.4916,10.6617,2.3442,5.2636
1785.1562,-1.0391,0.7061,7.6209,11.3321,10.2437,-0.4175,-4.7614,10.0123,1.0244,-1.6492,-0.0653,1.5785,6.6861,9.0216,-0.6578,3.5874,9.5757,1.5603,6.0753
1789.0625,-1.0301,-0.1960,7.5791,10.8417,10.8891,-0.7211,-1.4528,10.9203,-0.0895,-1.4087,1.1438,1.7621,5.5798,8.4010,5.9502,2.7989,8.1753,0.7860,7.1834
1792.9688,-0.7229,-1.8525,6.6414,9.6619,10.4774,-1.4133,3.2356,10.8740,-1.6196,-1.5388,1.9734,2.9117,4.4478,7.2424,10.8927,3.0247,6.3321,-0.4945,7.8963
1796.8750,-0.7299,-4.0763,4.5067,7.7931,8.9730,-2.4299,6.8259,9.7532,-3.4495,-2.5694,1.7465,3.8148,3.0077,5.7190,12.2200,3.1303,3.7597,-2.1843,7.7704
1800.7812,-1.5867,-6.0132,1.6118,5.4818,6.5830,-3.3756,7.4593,7.6736,-5.1277,-4.2536,0.6422,3.6288,1.0311,4.0350,10.3238,2.5569,0.3073,-3.6644,6.6896
1804.6875,-3.3403,-6.6338,-1.1435,3.1319,3.7124,-3.7461,4.8930,4.9979,-6.0819,-5.6988,-0.5675,2.1990,-1.4699,2.3697,7.2960,1.4585,-3.6973,-4.2244,4.7834
1808.5938,-5.4234,-5.3977,-2.9159,1.1451,0.8797,-3.2932,0.4574,2.2562,-5.8874,-5.9029,-1.0283,0.0801,-4.1141,0.8531,5.5544,0.4906,-7.3293,-3.5152,2.3401
1812.5000,-6.9530,-2.6592,-3.3484,-0.2129,-1.3978,-2.2739,-3.8954,-0.0071,-4.4732,-4.3752,-0.2533,-1.7226,-6.2099,-0.4219,6.5678,0.4592,-9.3603,-1.7360,-0.2175
1816.4062,-7.2864,0.4521,-2.6911,-0.8687,-2.7474,-1.3788,-6.7476,-1.4071,-2.1853,-1.4775,1.6637,-2.2160,-7.0449,-1.3853,10.2332,1.9400,-8.8849,0.5150,-2.3699
1820.3125,-6.4663,2.5978,-1.6118,-0.9320,-3.0866,-1.3542,-7.8339,-1.8551,0.3104,1.7076,4.0842,-0.9316,-6.2907,-2.0119,15.0214,4.9247,-5.9276,2.5668,-3.6606
1824.2188,-5.2304,2.8960,-0.8628,-0.6605,-2.6999,-2.5577,-7.8559,-1.5959,2.2522,3.8964,6.0486,1.7470,-4.2801,-2.3813,18.6942,8.6179,-1.6112,3.9391,-3.9631
1828.1250,-4.5551,1.3007,-0.9790,-0.4069,-2.1608,-4.7436,-7.7970,-1.1114,3.0498,4.2224,6.6265,4.6597,-1.9351,-2.7115,19.2832,11.5907,2.3084,4.4091,-3.6619
1832.0312,-5.0237,-1.4748,-2.0966,-0.5126,-2.0732,-7.2076,-8.2852,-0.8951,2.4956,2.6327,5.3213,6.3987,-0.3180,-3.2912,16.0029,12.3883,4.3309,3.9331,-3.5198
1835.9375,-6.4308,-4.3666,-3.8898,-1.1252,-2.7184,-9.1687,-9.3481,-1.1730,0.8438,-0.1133,2.3969,6.0752,-0.0238,-4.2909,9.7577,10.3803,4.0152,2.5863,-4.1896
1839.8438,-7.8786,-6.4048,-5.6064,-1.9943,-3.7975,-10.1113,-10.5156,-1.6972,-1.2620,-2.7960,-1.0601,3.9102,-0.7697,-5.5429,2.9604,6.3387,2.2023,0.6314,-5.6290
1843.7500,-8.2854,-6.9547,-6.2214,-2.3923,-4.4556,-9.8775,-11.0150,-1.7527,-2.9657,-4.2383,-3.4664,1.2731,-1.4511,-6.4530,-1.4062,2.2572,0.5109,-1.3342,-6.8424
1847.6562,-6.9761,-5.7173,-4.7371,-1.3025,-3.6441,-8.5228,-9.9127,-0.4377,-3.4147,-3.7238,-3.3945,0.0781,-0.6697,-6.1718,-1.1678,0.3542,0.4102,-2.3357,-6.2421
1851.5625,-4.0007,-2.6425,-0.5887,2.1120,-0.6749,-6.1344,-6.3059,2.8619,-1.9649,-1.1941,-0.2624,1.8294,2.5351,-4.0048,3.8702,1.7966,2.4280,-1.2505,-2.5211
1855.4688,-0.0463,2.0780,5.9968,7.9575,4.3197,-2.8144,0.2638,8.0280,1.6374,2.7904,5.3116,6.8263,8.1380,0.1344,11.6362,5.9628,5.9401,2.6989,4.4472
1859.3750,3.9349,7.9066,13.8942,15.3003,10.2931,1.1560,9.2426,14.0588,7.1039,7.2556,11.7150,13.9596,15.0380,5.4979,18.6603,10.7818,9.5999,9.4114,13.2577
1863.2812,7.1198,13.8872,21.3551,22.3593,15.6420,5.1575,18.7399,19.3586,13.5378,11.1028,17.0283,21.1884,21.4518,10.6818,21.7358,13.9720,12.0796,17.6606,21.4446
1867.1875,9.0404,18.7843,26.5995,27.1868,18.8545,8.3013,25.9074,22.3864,19.5529,13.4230,19.8443,26.4201,25.5818,14.1691,19.5307,14.3752,12.6629,25.3642,26.5467
1871.0938,9.6117,21.4773,28.4704,28.5208,19.1293,9.7731,28.0954,22.3560,23.6463,13.7821,19.8076,28.3369,26.2629,14.9781,13.2960,12.5114,11.4094,30.3318,27.1805
1875.0000,9.0533,21.4384,26.8418,26.3477,16.6669,9.2518,24.2470,19.6128,24.7639,12.3947,17.6456,26.8107,23.3552,13.0901,6.2900,10.0332,8.9332,31.1769,23.5525
1878.9062,7.7856,19.0031,22.5927,21.8545,12.5195,7.0967,15.6525,15.4664,22.8161,10.0817,14.7399,22.8073,17.7833,9.4396,2.2097,8.5318,6.0524,27.9493,17.2084
1882.8125,6.3069,15.2288,17.1856,16.8046,8.1137,4.1356,5.4619,11.5543,18.8266,7.9551,12.4907,17.9220,11.2415,5.4900,3.3955,8.5607,3.5474,22.1468,10.2618
1886.7188,5.0224,11.3884,12.0813,12.7014,4.6977,1.1864,-2.8615,9.0815,14.5281,6.9079,11.7569,13.7821,5.6543,2.6191,9.6436,9.5085,2.0669,16.0638,4.5725
1890.6250,4.0562,8.3832,8.2664,10.2130,2.9574,-1.3492,-7.2247,8.3495,11.5257,7.1400,12.5565,11.5146,2.5311,1.6109,18.1470,10.2810,2.0611,11.7686,1.2447
1894.5312,3.1662,6.4154,6.0656,9.1271,2.9136,-3.5244,-7.6756,8.8068,10.4587,8.0028,14.0854,11.3985,2.4142,2.4564,24.6015,10.1713,3.6291,10.1954,0.5277
1898.4375,1.8863,5.0898,5.2391,8.7633,4.0701,-5.5138,-5.8404,9.5377,10.6667,8.3187,15.0336,12.7834,4.6468,4.4930,25.0513,9.2478,6.3301,10.7946,1.9642
1902.3438,-0.1192,3.8367,5.2397,8.5010,5.6940,-7.2022,-3.5348,9.8546,10.6123,7.0558,14.1228,14.3296,7.6281,6.7629,17.7439,8.0545,9.1592,11.9120,4.6110
1906.2500,-2.6924,2.3547,5.4829,8.0812,7.1041,-8.0605,-1.6021,9.6301,8.8547,3.9875,10.7061,14.5533,9.5247,8.4131,4.1814,6.9908,10.8501,11.7033,7.2838
1910.1562,-5.0921,0.7963,5.5443,7.5624,7.8827,-7.4504,0.2289,9.2069,5.0008,-0.0838,5.1888,12.5121,9.1543,8.9860,-11.2215,5.9497,10.4533,9.1252,8.8848
1914.0625,-6.3179,-0.3795,5.2653,7.0803,7.9656,-5.1452,2.5206,9.0112,0.0416,-3.7218,-0.9807,8.3287,6.5974,8.5232,-22.9065,4.5111,7.8858,4.5075,8.8162
1917.9688,-5.7030,-0.7343,4.7792,6.6630,7.5912,-1.6606,5.1564,9.1721,-4.1461,-5.6687,-5.8404,3.2469,3.1700,7.4677,-26.6721,2.4763,4.0851,-0.5778,7.3088
1921.8750,-3.3999,-0.1145,4.4480,6.2423,7.1187,1.8878,7.1145,9.4044,-5.8330,-5.5748,-7.7742,-0.8858,0.7091,6.4054,-21.6802,0.2416,0.5980,-4.0795,5.4017
1925.7812,-0.4117,1.2927,4.6979,5.7857,6.7778,4.3298,7.2108,9.2016,-4.3755,-4.1687,-6.2683,-2.4969,0.5227,5.7386,-10.8210,-1.3379,-1.2177,-4.4795,4.4324
1929.6875,1.8950,3.0825,5.7678,5.3568,6.4654,5.0119,5.1759,8.1642,-0.5141,-2.7435,-2.1363,-1.0789,2.5866,5.4252,0.8862,-1.5044,-0.9323,-1.5576,5.2203
1933.5938,2.5057,4.7875,7.4665,4.9937,5.7204,4.0030,2.1005,6.2199,4.0864,-2.2915,2.9249,2.5427,5.4657,4.9266,9.0088,-0.1326,0.7122,3.4560,7.4176
1937.5000,1.2521,5.9560,9.0849,4.5033,3.9389,1.8330,-0.2364,3.6107,7.7093,-2.8699,7.1787,6.6167,7.0477,3.4417,11.9180,2.1598,2.2126,8.4035,9.5016
1941.4062,-1.2072,6.1689,9.5852,3.4075,0.7614,-0.9751,-0.7083,0.7140,9.3261,-3.6323,9.5810,9.3204,5.7036,0.3640,11.1320,4.3835,2.1471,11.1418,9.5393
1945.3125,-3.8549,5.1013,8.0526,1.1970,-3.5684,-4.1773,0.2050,-2.1224,8.8365,-3.5029,10.0005,9.5939,1.2422,-4.2483,9.6276,5.7189,-0.0151,10.4661,6.3431
1949.2188,-5.8818,2.6886,4.2224,-2.2077,-8.1023,-7.6769,0.6871,-4.6001,6.8161,-2.0218,8.9027,7.5278,-4.8795,-9.4648,9.3642,5.8475,-3.5773,6.6022,0.3272
1953.1250,-6.9833,-0.6847,-1.2138,-6.1293,-11.4731,-11.1506,-1.0206,-6.3836,4.0662,0.2389,6.8390,4.1581,-10.2178,-13.7239,9.8369,4.9206,-6.9306,1.0585,-6.5161
1957.0312,-7.2718,-4.1633,-6.7574,-9.2728,-12.4864,-13.8282,-5.1151,-7.0669,1.2789,1.9891,4.1507,0.8465,-12.5399,-15.4854,8.7306,3.3254,-8.3599,-4.0794,-11.5841
1960.9375,-6.9857,-6.6980,-10.7171,-10.3700,-10.7410,-14.7177,-9.8036,-6.3236,-1.0724,2.0571,1.0475,-1.3893,-10.9392,-14.0036,4.1572,1.5074,-6.9392,-7.0890,-13.0504
1964.8438,-6.2859,-7.5426,-12.0071,-8.9735,-6.9403,-13.1930,-12.3749,-4.1955,-2.7205,0.1775,-2.1387,-2.2679,-6.3000,-9.8132,-3.2978,-0.0438,-3.0707,-7.3560,-10.8560
1968.7500,-5.2809,-6.6827,-10.6910,-5.8515,-2.6744,-9.5166,-11.0651,-1.2932,-3.6133,-2.8010,-4.8624,-2.2210,-0.8773,-4.6141,-10.4210,-0.7715,1.6126,-5.5799,-6.7033
1972.6562,-4.1699,-4.8775,-7.9196,-2.6299,0.2768,-4.8531,-6.3723,1.3291,-3.9582,-5.4121,-6.5934,-2.0309,2.7968,-0.5416,-13.3913,-0.1828,4.9710,-3.3383,-3.0436
1976.5625,-3.2727,-3.2206,-5.2499,-0.8181,0.8007,-0.6778,-0.8315,2.6611,-4.1786,-6.4227,-7.1801,-2.3407,3.1405,0.8474,-10.5318,1.8505,5.3940,-2.2161,-1.6507
1980.4688,-2.8359,-2.4562,-3.7191,-0.8207,-0.9745,2.0544,2.6287,2.3379,-4.6808,-5.4781,-6.9797,-3.2764,0.2727,-0.6512,-3.6667,4.8388,2.6441,-2.9389,-2.6237
1984.3750,-2.7594,-2.5018,-3.2439,-1.6190,-3.7237,3.3975,2.5882,0.9476,-5.5145,-3.1655,-6.5549,-4.3556,-4.0947,-3.7937,3.0786,7.7399,-1.9531,-4.9706,-4.4018
1988.2812,-2.5262,-2.5230,-2.7513,-1.4136,-5.6142,4.1967,-0.0441,-0.2334,-6.1838,-0.5388,-6.1276,-4.7345,-7.5781,-6.5644,6.2551,9.4029,-6.1422,-6.8147,-4.7767
1992.1875,-1.5006,-1.5464,-0.9972,1.1192,-5.3101,5.3106,-2.8339,0.0041,-5.8399,1.5101,-5.2571,-3.6914,-8.3962,-7.2858,5.6264,9.1430,-7.9251,-6.8751,-2.3042
1996.0938,0.5538,0.7965,2.4395,5.7628,-2.7555,6.8418,-3.6056,1.9990,-3.8266,2.6209,-3.0992,-1.1075,-6.3246,-5.5577,4.2706,7.0725,-6.6739,-4.4026,2.7116
2000.0000,3.1204,3.9154,6.6583,10.6257,0.7169,7.9576,-1.8848,4.9054,-0.2434,2.9166,0.8472,2.3325,-2.8049,-2.4838,6.0508,3.9802,-3.5083,0.0189,8.2344
2003.9062,5.0757,6.5713,9.8205,13.1105,3.0630,7.4632,1.0081,7.1278,3.8988,2.6992,6.0448,5.3821,-0.1205,-0.0337,12.2971,0.8857,-0.6516,4.7443,11.5167
2007.8125,5.3178,7.6553,10.2248,11.4377,2.6532,4.7323,3.1714,7.2830,7.1138,2.1836,10.8616,6.8365,-0.0818,0.1147,20.2494,-1.3986,-0.0880,7.9416,10.5607
2011.7188,3.4801,6.8979,7.4004,5.7896,-0.7714,0.3240,3.6336,5.0927,8.2345,1.4453,13.3224,6.1712,-2.9642,-2.4162,24.5814,-2.4497,-2.3155,8.5497,5.2159
2015.6250,0.2186,5.0031,2.4935,-1.6514,-5.8701,-4.1881,2.9836,1.6198,7.0480,0.5267,12.2296,3.8309,-7.3265,-6.4447,21.0475,-2.1851,-5.9901,6.7525,-2.6777
2019.5312,-3.1639,3.1056,-2.3356,-7.8172,-10.3626,-7.0962,2.6814,-1.3322,4.3402,-0.4814,7.9069,0.9687,-10.8270,-9.8862,9.6585,-0.8026,-8.7300,3.7176,-10.1610
2023.4375,-5.5156,1.9405,-5.1316,-10.3545,-12.2242,-7.5718,3.6634,-2.2879,1.3354,-1.4958,2.0489,-1.2097,-11.5532,-10.9411,-4.9375,1.1597,-8.6023,0.8256,-14.5508
2027.3438,-6.4973,1.3375,-5.1922,-8.7609,-10.7389,-6.1321,5.4031,-0.9567,-1.0547,-2.5603,-3.2199,-2.0763,-9.0641,-9.0989,-16.2114,2.7685,-5.3460,-1.0815,-14.6108
2031.2500,-6.6389,0.4253,-3.2815,-4.4217,-6.8042,-4.2468,6.2212,1.6698,-2.6344,-3.8519,-6.4363,-1.7811,-4.5259,-5.3580,-19.7497,2.9286,-0.5293,-1.9583,-10.9166
2035.1562,-6.7679,-1.5839,-0.9183,0.3890,-2.3330,-3.3491,4.6400,4.0213,-3.7331,-5.4861,-7.3406,-0.9256,0.0993,-1.5479,-15.7532,1.0001,3.4635,-2.2380,-5.3141
2039.0625,-7.2551,-4.6027,0.7171,3.8635,0.8644,-3.9050,0.7327,4.9700,-4.6447,-7.2447,-6.6215,-0.0030,3.2479,0.7937,-8.4360,-2.5179,4.9398,-2.2683,0.1344
2042.9688,-7.6618,-7.4828,1.4858,5.5367,2.0326,-5.1428,-3.6276,4.4872,-5.2016,-8.4890,-5.1967,0.9410,4.5522,1.2704,-2.9401,-5.8299,3.8920,-1.9816,4.0876
2046.8750,-7.0661,-8.6349,2.1486,6.2228,1.7036,-5.6018,-5.9042,3.5261,-4.8603,-8.4298,-3.6324,2.1617,4.7600,0.6795,-2.0368,-6.6059,1.8289,-1.0520,6.2764
2050.7812,-4.8356,-7.0786,3.5581,7.1768,1.1315,-4.1298,-4.6549,3.2527,-3.2311,-6.6506,-2.0765,3.7289,4.9176,0.2875,-4.8222,-3.4167,0.5996,0.6273,7.2050
2054.6875,-1.2604,-3.2078,5.8390,9.1016,1.3552,-0.6880,-0.6393,4.1838,-0.5965,-3.5303,-0.5881,5.1524,5.4459,0.8547,-8.0091,3.0342,1.0509,2.5932,7.5298
2058.5938,2.4433,1.2866,8.1845,11.6437,2.5147,3.5329,3.5690,5.8218,2.0616,-0.2094,0.5780,5.5122,5.7843,2.0866,-8.5631,9.8299,2.4502,3.9492,7.5715
2062.5000,4.8047,4.3470,9.4092,13.6355,3.8364,6.7457,5.2488,7.0116,3.6269,1.9726,1.0687,4.0930,4.8372,2.8692,-5.6871,13.2133,3.0482,3.9643,7.2349
2066.4062,4.9991,4.7635,8.8241,13.8490,4.2307,7.5558,3.3427,6.7364,3.6259,2.2547,0.8340,1.0821,1.8814,2.1015,-0.9283,10.7258,1.3605,2.7070,6.2821
2070.3125,3.3677,2.9045,6.7696,11.7397,3.0525,5.7248,-0.8385,4.7936,2.6324,0.9447,0.4114,-2.2293,-2.7263,-0.4688,3.2843,2.8027,-2.7289,1.2069,4.6723
2074.2188,1.2118,0.4935,4.4199,7.7409,0.5108,2.2896,-4.5009,1.9065,1.9588,-0.7255,0.7264,-3.9943,-7.5423,-3.9798,5.3132,-7.2397,-7.7761,0.9405,2.6913
2078.1250,0.0087,-0.4242,3.0215,3.0038,-2.5007,-1.0019,-5.2257,-0.7560,2.8136,-1.3159,2.4571,-2.8242,-10.7357,-6.9298,4.9794,-14.8981,-11.5830,2.9282,0.8040
2082.0312,0.5703,1.3207,3.1319,-1.1815,-4.9739,-2.5935,-2.5311,-2.2860,5.4983,-0.0184,5.4339,1.3740,-11.0275,-8.0518,3.0468,-16.8531,-12.4284,7.0315,-0.6090
2085.9375,2.6637,5.3849,4.3858,-3.9114,-6.3359,-1.8623,1.8853,-2.4869,9.1973,2.9032,8.5912,7.2884,-8.2867,-7.0053,0.3149,-12.6011,-9.9353,11.9362,-1.4039
2089.8438,5.2771,10.1805,5.8949,-4.8869,-6.6261,0.6807,5.3222,-1.8135,12.4914,6.3235,10.5942,12.8928,-3.4698,-4.4578,-2.7681,-4.4424,-5.1050,15.8537,-1.6107
2093.7500,7.2902,13.8240,6.9257,-4.3013,-6.2505,3.7903,5.8171,-0.9176,14.2234,8.9438,10.7257,16.4869,1.9646,-1.5660,-5.7651,4.0152,0.3650,17.5020,-1.2450
2097.6562,8.0900,15.1563,7.3463,-2.5624,-5.5554,6.2210,3.2941,-0.1627,14.1300,9.9971,9.3806,17.4439,6.7476,0.7491,-7.7803,9.8127,4.9581,16.7591,-0.1830
2101.5625,7.7769,14.2481,7.5715,-0.0451,-4.5506,7.3694,-0.5541,0.5646,12.8590,9.5522,7.7890,16.2738,10.2052,2.2480,-7.5981,11.9009,7.8833,14.6224,1.7774
2105.4688,6.9199,12.1755,8.1434,3.0122,-2.9573,7.4809,-3.4315,1.6720,11.4403,8.2991,7.1568,14.0916,12.2522,3.3044,-4.5471,11.1475,9.1002,12.5606,4.7125
2109.3750,6.0995,10.2979,9.3194,6.4711,-0.5084,7.3437,-3.7865,3.4956,10.6233,7.0320,7.8486,11.9244,13.1191,4.4512,0.6022,9.3494,8.9968,11.6982,8.3824
2113.2812,5.5580,9.5116,10.9544,10.1772,2.7387,7.6895,-1.4986,6.0254,10.5108,6.1881,9.1874,10.2838,13.0549,5.9024,5.6128,8.0078,8.0327,12.2982,12.1916
2117.1875,5.1418,9.8744,12.6622,13.8343,6.2872,8.6763,2.3647,8.8780,10.6409,5.6919,9.9694,9.1416,12.1634,7.3672,7.9181,7.5589,6.5456,13.7509,15.3196
2121.0938,4.4991,10.7174,14.0223,16.9303,9.3482,9.7611,6.3325,11.4771,10.3475,5.1151,9.2701,8.1480,10.3861,8.2325,6.2370,7.3359,4.7163,14.9551,16.9343
2125.0000,3.3560,11.0796,14.6374,18.7730,11.1476,10.0284,9.2179,13.2860,9.1110,3.9840,6.9557,6.8589,7.5860,7.9489,1.4899,6.1201,2.6012,14.8195,16.3974
2128.9062,1.6968,10.1963,14.0836,18.6847,11.2339,8.7639,10.3409,13.9654,6.7292,2.0425,3.6080,4.8880,3.7038,6.3674,-3.7333,2.9503,0.1938,12.6683,13.4413
2132.8125,-0.2218,7.8332,11.9708,16.3338,9.6604,5.9293,9.4018,13.4362,3.3454,-0.6205,0.0494,2.0646,-1.0213,3.8653,-6.8458,-2.1479,-2.4445,8.4862,8.3430
2136.7188,-1.9845,4.3947,8.2490,12.0687,6.9889,2.2619,6.3865,11.8950,-0.5469,-3.5696,-3.0796,-1.3304,-5.8344,1.2398,-6.9046,-7.8101,-4.9773,3.0165,2.0629
2140.6250,-3.1744,0.8194,3.6053,7.0329,4.1165,-1.0449,1.7275,9.8033,-4.0948,-6.1123,-5.3818,-4.3689,-9.4250,-0.5553,-5.0646,-11.6079,-6.6415,-2.3127,-3.7880
2144.5312,-3.5078,-1.6991,-0.4370,2.8845,1.9620,-2.8888,-3.4556,7.8072,-6.1878,-7.4727,-6.4893,-5.5920,-10.2449,-0.7408,-3.5625,-11.0304,-6.3688,-5.7204,-7.3174
2148.4375,-2.9131,-2.1211,-2.0086,1.1440,1.1003,-2.7331,-7.4418,6.5369,-5.7966,-7.0510,-5.9295,-3.6115,-7.1908,0.9643,-4.0163,-4.8835,-3.2874,-5.6880,-7.0651
2152.3438,-1.5446,0.0010,0.1392,2.4563,1.4911,-0.7776,-8.5450,6.3256,-2.4974,-4.7076,-3.3370,1.9894,-0.3644,4.1253,-6.2737,5.5976,2.5890,-1.6862,-2.7873
2156.2500,0.2762,4.2344,5.7517,6.1894,2.4693,2.2174,-6.0398,7.0067,3.1039,-0.9290,1.0907,9.9962,8.5725,7.6113,-8.5745,16.7390,9.9375,5.3543,4.1561
2160.1562,2.1796,9.3224,12.9153,10.6726,3.0734,5.3212,-0.7495,7.9679,9.3912,3.2723,6.3092,17.7104,16.8176,9.9474,-8.8117,23.8754,16.3897,13.1915,11.1816
2164.0625,3.8852,13.6477,18.8775,14.0197,2.5980,7.8240,5.2242,8.4969,14.3301,6.7461,10.6803,22.0438,21.5685,9.9436,-5.9401,23.7073,19.5228,19.1127,15.5957
2167.9688,5.2867,15.9367,21.4382,15.1042,1.0717,9.4547,9.5862,8.2373,16.3769,8.7101,12.7328,21.0657,21.3434,7.3333,-0.5873,16.2647,18.1027,21.1192,15.9157
2171.8750,6.4297,15.8431,20.0730,14.1138,-0.6613,10.3626,11.0892,7.4452,15.1955,9.0828,11.9696,15.1119,16.7331,3.0494,5.4083,5.1695,12.8364,18.8349,12.6446
2175.7812,7.3923,14.0611,16.0751,12.3312,-1.3768,10.9091,10.1025,6.8323,11.7423,8.4318,9.1568,6.7367,10.1006,-1.1060,10.0671,-4.1793,6.1071,13.6216,7.9914
2179.6875,8.1517,11.8746,11.6382,11.2659,-0.2113,11.3878,8.1251,7.0621,7.6725,7.5634,5.8678,-0.5349,4.3545,-3.3093,12.1894,-7.5483,0.7715,7.8297,4.6371
2183.5938,8.5437,10.3964,8.5022,11.6787,2.7392,11.8130,6.6159,8.2326,4.4514,7.0237,3.5768,-3.9520,1.4867,-2.6400,11.6581,-4.1693,-1.3002,3.6221,4.2431
2187.5000,8.3652,9.9680,7.0613,13.1224,6.3689,11.8851,6.0011,9.7228,2.7269,6.8444,2.9126,-2.7752,1.7130,0.4558,9.1814,3.0420,-0.0828,2.0443,6.5852
2191.4062,7.5607,10.0929,6.4740,14.2870,9.1357,11.1643,5.5636,10.5444,2.3005,6.6868,3.5349,1.6585,3.6716,4.4601,5.8422,9.4626,2.8308,2.8149,9.8184
2195.3125,6.3542,9.9184,5.5970,13.9146,9.9284,9.3755,4.2252,9.9791,2.5972,6.2449,4.6261,6.9522,5.4762,7.6696,2.7491,11.6167,5.3409,4.8327,11.6801
2199.2188,5.2015,8.9089,3.9992,11.6690,8.6914,6.6747,1.5516,8.0662,3.2071,5.5712,5.5510,11.0181,5.9212,9.1319,0.8104,9.0646,6.1072,6.9602,10.8694
2203.1250,4.5581,7.2255,2.3084,8.3883,6.4192,3.6931,-1.8331,5.5960,4.0797,5.0573,6.1804,12.9557,5.1052,9.0601,0.5065,4.2127,5.2050,8.5514,7.7630
2207.0312,4.5973,5.5525,1.6766,5.5651,4.5438,1.2851,-4.7210,3.6163,5.2883,5.0749,6.7012,13.0388,4.1692,8.5025,1.6536,0.3910,3.8529,9.4711,4.0832
2210.9375,5.0758,4.5240,2.8135,4.4148,4.1168,0.0897,-6.2427,2.7995,6.6430,5.5695,7.1773,12.0485,4.4179,8.5267,3.3611,-0.3391,3.4938,9.7571,1.7972
2214.8438,5.4651,4.2048,5.3363,5.1526,5.2951,0.1638,-6.4324,3.1087,7.5595,5.9577,7.3067,10.5676,6.4351,9.4763,4.3979,1.8288,4.8625,9.3187,1.9711
2218.7500,5.2906,4.0305,7.9237,6.9315,7.3938,0.9406,-5.9557,3.9629,7.3581,5.4661,6.6171,8.7338,9.7206,10.7707,3.9001,5.1227,7.5824,7.9593,4.2589
2222.6562,4.4589,3.2641,9.1513,8.4402,9.3877,1.5690,-5.2669,4.7332,5.7956,3.7023,4.9349,6.5047,12.9877,11.3275,1.9954,7.7595,10.4371,5.6872,7.2478
2226.5625,3.3416,1.6182,8.3964,8.7273,10.4780,1.4367,-3.9983,5.1699,3.3974,1.0430,2.7039,4.0739,14.8514,10.2806,-0.1624,9.1188,12.0497,3.0002,9.3499
2230.4688,2.5309,-0.4419,6.1796,7.7091,10.3780,0.5286,-1.2337,5.4511,1.2752,-1.4791,0.8365,2.0142,14.4728,7.5073,-1.1001,9.7392,11.5473,0.8237,9.6481
2234.3750,2.4173,-1.9655,3.7422,6.0766,9.2319,-0.6292,3.4372,5.8623,0.4917,-2.7578,0.1607,1.0060,11.8476,3.6638,-0.0470,10.3811,8.8988,0.0547,8.2271
2238.2812,2.8813,-2.1712,2.2103,4.7380,7.3516,-1.4022,8.9466,6.4156,1.3895,-2.2887,0.8714,1.3801,7.6963,-0.2198,2.4759,11.1044,4.8629,0.9937,5.9017
2242.1875,3.3398,-1.0065,1.9496,4.2211,5.0287,-1.5434,12.8136,6.7500,3.3563,-0.4723,2.4121,2.8594,3.1194,-3.2666,5.0102,11.1660,0.6608,3.0737,3.6195
2246.0938,3.1480,0.8054,2.5218,4.4265,2.5351,-1.3794,12.4854,6.4113,5.2035,1.6680,3.8903,4.7191,-0.7753,-5.0688,6.2716,9.7606,-2.4621,5.1168,1.9482
2250.0000,2.0957,2.2657,3.1847,4.8355,0.2199,-1.5391,7.1603,5.2821,5.9050,3.1559,4.7130,6.2435,-3.1533,-5.6689,6.2030,6.8957,-3.6552,5.9852,0.9225
2253.9062,0.6393,2.7700,3.5041,4.9581,-1.4786,-2.4176,-1.2278,3.7965,5.1959,3.6461,4.9570,7.1362,-3.6177,-5.3250,6.0969,3.6143,-2.7534,5.2209,0.2586
2257.8125,-0.3319,2.4552,3.6231,4.6837,-2.1842,-3.7786,-8.7426,2.7338,3.6395,3.5195,5.1928,7.5887,-2.2645,-4.2833,7.5577,1.3620,-0.3335,3.2721,-0.2748
2261.7188,-0.0696,1.9890,4.0464,4.3211,-1.7970,-4.8054,-11.6038,2.7204,2.1652,3.4495,5.9075,7.9903,0.3840,-2.7002,10.9784,1.0157,2.5366,1.1906,-0.5878
2265.6250,1.5014,2.0010,5.1739,4.3613,-0.5805,-4.5834,-8.4304,3.8055,1.4439,3.7951,6.9909,8.5329,3.5769,-0.7002,14.6945,2.3340,4.7949,0.0266,-0.2654
2269.5312,3.6860,2.6209,6.9712,5.1649,0.9784,-2.6782,-1.0795,5.4261,1.5595,4.3036,7.7111,9.0281,6.6148,1.5469,15.6341,4.2060,5.9039,0.3179,1.1820
2273.4375,5.4613,3.4790,9.0048,6.7705,2.4451,0.5889,6.4984,6.7821,2.1739,4.3677,7.2427,9.0716,9.0886,3.8160,11.2720,5.4213,6.0859,1.9579,3.9580
2277.3438,6.1801,4.1356,10.7570,8.8824,3.6337,4.3367,10.6390,7.3315,2.9973,3.6492,5.3852,8.4193,10.9447,5.8781,1.7037,5.3431,6.0970,4.4328,7.7142
2281.2500,6.0466,4.5494,11.9286,10.9745,4.5710,7.6150,10.0198,7.0435,4.1443,2.5740,2.9393,7.2834,12.3352,7.5426,-9.6086,4.0620,6.6528,7.1835,11.5389
2285.1562,6.0033,5.1679,12.4936,12.4240,5.2764,9.8298,6.1134,6.2553,6.0611,2.2668,1.4227,6.3266,13.3627,8.6474,-17.1494,2.1236,7.8747,9.8160,14.2516
2289.0625,7.0699,6.5407,12.5166,12.6586,5.5733,10.8425,1.8937,5.3023,9.0646,3.8841,2.2490,6.3472,13.9137,9.0311,-16.1797,0.2337,9.1546,12.0728,14.9016
2292.9688,9.5699,8.7669,11.9592,11.3455,5.1332,10.7703,-0.1917,4.2572,12.8611,7.7633,5.8615,7.8540,13.7175,8.5574,-5.5194,-0.7949,9.5621,13.6961,13.2455
2296.8750,12.7831,11.2480,10.6994,8.6039,3.7557,9.7419,0.4062,2.9968,16.4594,12.9798,11.3618,10.7827,12.6000,7.2168,11.3796,-0.0066,8.5306,14.3937,9.9455
2300.7812,15.2850,12.9880,8.7720,5.1169,1.6654,7.8425,2.4023,1.5121,18.6147,17.6663,16.8719,14.4928,10.7373,5.2331,27.8133,3.4463,6.3359,13.9933,6.3368
2304.6875,15.7650,13.2404,6.5989,1.9860,-0.4475,5.2567,3.8917,0.1512,18.5386,19.9502,20.4238,18.0134,8.6877,3.0630,37.0067,9.6460,3.9987,12.6588,3.8249
2308.5938,13.7850,12.0068,4.9296,0.2844,-1.7399,2.4009,3.6979,-0.4749,16.3885,18.9441,20.8748,20.3919,7.1309,1.2332,35.4123,17.2577,2.6511,10.9383,3.1991
2312.5000,9.9878,9.9887,4.4272,0.5001,-1.6971,-0.1644,1.9294,0.0981,13.1755,15.1853,18.3536,20.9946,6.4602,0.0975,24.3682,23.5872,2.7957,9.5146,4.2337
2316.4062,5.6494,8.0246,5.1509,2.2176,-0.4462,-2.0335,-0.4494,1.7788,10.1317,10.2711,14.0433,19.6747,6.5065,-0.3189,9.2712,25.6999,3.9777,8.7789,5.8301
2320.3125,1.9202,6.4602,6.3454,4.3176,1.3439,-3.2103,-2.4783,3.8750,7.9590,5.9507,9.4866,16.7878,6.6100,-0.2599,-3.2325,22.1363,5.1047,8.5331,6.6568
2324.2188,-0.7208,4.9658,6.7931,5.6528,2.9213,-4.0470,-3.7395,5.5152,6.4703,3.2497,5.8317,13.0634,6.0279,0.0078,-8.5098,14.0983,5.1846,8.0861,5.9435
2328.1250,-2.4738,2.9571,5.5852,5.8011,3.9440,-4.8417,-4.2500,6.2548,4.8599,2.1265,3.4118,9.3510,4.4272,0.4403,-5.9747,5.1065,3.9619,6.7358,3.9653
2332.0312,-3.7805,0.2733,2.8155,5.3650,4.6472,-5.4051,-4.0035,6.3986,2.3954,1.7723,1.8128,6.2908,2.1345,1.2541,1.0445,-0.9100,2.0150,4.3227,1.9051
2335.9375,-4.8485,-2.4735,-0.3313,5.5356,5.5550,-5.0132,-2.7438,6.7401,-0.9763,1.2545,0.2955,4.0274,-0.0424,2.6948,7.3600,-1.9805,0.2779,1.4350,1.1403
2339.8438,-5.5216,-4.2317,-2.2592,7.1417,6.9471,-2.9131,-0.2732,7.8555,-4.5442,0.0444,-1.7226,2.1206,-1.3287,4.6890,8.6923,0.6616,-0.6412,-0.9385,2.3511
2343.7500,-5.5642,-4.3319,-2.0331,9.8145,8.4769,0.9095,2.9568,9.4607,-7.3290,-1.8564,-4.3913,-0.2362,-1.5096,6.6555,3.6963,3.3801,-0.8448,-2.1139,4.9802
2347.6562,-5.0678,-3.1670,-0.1356,11.9033,9.2412,5.2908,5.5741,10.3565,-8.7865,-4.1418,-7.4431,-3.7303,-1.1234,7.6709,-5.6852,2.5404,-0.9828,-2.2816,7.3918
2351.5625,-4.5901,-2.1402,1.6634,11.3278,8.2867,8.2326,5.7565,9.1003,-9.1972,-6.4940,-10.4004,-8.4039,-1.1773,6.9449,-15.5083,-3.0511,-1.6973,-2.4848,7.6823
2355.4688,-4.8533,-2.8031,1.3434,6.9087,5.2314,7.9584,2.2881,5.0160,-9.4394,-8.6814,-12.7911,-13.3945,-2.5397,4.3319,-21.8976,-11.2909,-3.1062,-3.9426,4.7132
2359.3750,-6.2014,-5.7317,-2.0291,-0.6586,0.5978,4.0585,-4.4707,-1.1321,-10.2944,-10.4341,-14.2477,-17.1608,-5.3722,0.5454,-22.7612,-18.0524,-4.6935,-7.1286,-1.2054
2363.2812,-8.2325,-9.9413,-7.5247,-8.8677,-4.3549,-2.0547,-12.4141,-7.3026,-11.7816,-11.2968,-14.4978,-18.1488,-8.9434,-3.0917,-18.3720,-19.7024,-5.6530,-11.2395,-8.3622
2367.1875,-9.9166,-13.3167,-12.6918,-14.5542,-8.1934,-7.7611,-18.5476,-11.1468,-13.0157,-10.6910,-13.3476,-15.5842,-11.9382,-5.2432,-10.7585,-15.1972,-5.3995,-14.4741,-14.4020
2371.0938,-10.1624,-13.8363,-14.8694,-15.4973,-9.9330,-10.6011,-20.4233,-11.2215,-12.7244,-8.2380,-10.7511,-9.9554,-13.0835,-5.1760,-2.4784,-6.4835,-3.8775,-15.0141,-17.3803
2375.0000,-8.4694,-10.8061,-12.6906,-11.5316,-9.3858,-9.5678,-17.3182,-7.7166,-10.0994,-4.1408,-6.9503,-2.8894,-11.7360,-3.0643,4.4526,2.8605,-1.4913,-12.1092,-16.5601
2378.9062,-5.2371,-5.2912,-6.8548,-4.5275,-7.1023,-5.5339,-10.4919,-2.2744,-5.4146,0.6801,-2.5667,3.5495,-8.1223,0.1559,8.9835,9.6777,1.2169,-6.5691,-12.5636
2382.8125,-1.5441,0.5296,0.2998,2.7021,-4.0168,-0.5898,-2.4321,2.9514,0.0096,4.8708,1.4879,7.7810,-3.1462,3.2604,10.8229,12.6382,3.8508,-0.3366,-6.8747
2386.7188,1.4381,4.6422,6.1351,7.8780,-1.0336,3.2326,4.4055,6.4009,4.4841,7.2433,4.3109,9.3603,2.0757,5.2655,10.0195,12.3214,6.2025,4.5917,-1.0372
2390.6250,3.0154,6.2695,9.1149,10.2448,1.2485,5.0235,8.6276,7.7373,6.8439,7.3530,5.3920,9.0290,6.6646,5.7569,6.7680,10.2912,8.0968,7.2100,3.9810
2394.5312,3.2071,6.0813,9.4295,10.5807,2.6140,5.2295,10.2018,7.7095,7.0029,5.7095,4.8668,8.1761,10.1960,4.9231,1.5824,8.0542,9.2598,7.8738,7.9516
2398.4375,2.5753,5.5028,8.5444,10.3673,3.1664,5.0337,10.0141,7.4510,5.8583,3.4888,3.4765,8.0499,12.6413,3.3594,-4.4026,6.5846,9.4016,7.8220,11.0951
2402.3438,1.8323,5.6689,8.0774,10.7373,3.2063,5.4001,9.0965,7.7150,4.6606,1.9127,2.2347,9.1625,14.1585,1.7853,-9.4143,6.4359,8.4767,8.2316,13.6225
2406.2500,1.4865,6.7487,8.7874,11.8493,3.0936,6.4388,8.0386,8.5003,4.2850,1.6508,1.9721,11.1743,14.8969,0.7889,-11.5480,7.9479,6.8849,9.4566,15.4468
2410.1562,1.6912,8.0290,10.2931,12.9756,3.1015,7.4444,6.8798,9.2007,4.8504,2.5671,2.9986,13.2307,14.9097,0.6450,-9.6482,11.1181,5.3631,10.9230,16.2249
2414.0625,2.2939,8.5915,11.5827,13.1110,3.2826,7.4753,5.4190,9.0802,5.8630,3.9184,5.0407,14.4815,14.1553,1.2231,-4.0699,15.2159,4.5549,11.6685,15.6373
2417.9688,2.9865,8.0381,11.8422,11.6447,3.4143,6.0168,3.6252,7.7308,6.7029,4.8548,7.4502,14.4662,12.5296,2.0096,3.2105,18.6516,4.5257,11.0950,13.6599
2421.8750,3.4575,6.7590,10.9887,8.7077,3.0974,3.3027,1.8193,5.2762,7.0864,4.9180,9.5367,13.2124,9.9079,2.2848,9.3455,19.5364,4.6082,9.4057,10.6387
2425.7812,3.5022,5.6143,9.5947,5.0910,2.0132,0.1573,0.5044,2.2903,7.2024,4.2597,10.8450,11.1084,6.2387,1.4491,11.9326,16.7994,3.7786,7.4733,7.1574
2429.6875,3.0814,5.3167,8.3723,1.8885,0.2248,-2.4654,-0.0032,-0.4348,7.4820,3.4721,11.2640,8.7205,1.7187,-0.6089,10.2165,11.1410,1.3875,6.2877,3.8482
2433.5938,2.3115,5.9660,7.6698,0.0965,-1.6739,-3.9345,0.1631,-2.1306,8.2031,3.1449,10.9613,6.6677,-3.0192,-3.3038,5.4921,5.0189,-2.2230,6.3829,1.2907
2437.5000,1.3757,7.0199,7.3454,0.3075,-2.7170,-4.1572,0.4963,-2.2469,9.2145,3.4191,10.2168,5.5245,-6.8816,-5.4839,0.4235,1.4431,-5.6834,7.5883,0.0046
2441.4062,0.3923,7.6590,7.0227,2.5197,-2.0247,-3.5093,0.5121,-0.6117,9.9511,3.8185,9.2424,5.6538,-8.6175,-5.9298,-2.3932,2.1995,-7.2616,9.1825,0.3970
2445.3125,-0.6651,7.2560,6.4304,6.0540,0.6517,-2.5832,0.1794,2.4419,9.7158,3.4996,8.0621,6.9526,-7.4255,-4.0169,-1.8365,6.6158,-5.8885,10.2713,2.5429
2449.2188,-1.8995,5.6554,5.5104,9.6304,4.6114,-1.8982,0.0244,6.0512,8.0522,1.8177,6.5016,8.6587,-3.5804,-0.1869,1.1821,11.7284,-1.9262,10.1385,5.8614
2453.1250,-3.2832,3.1541,4.2459,11.6912,8.3481,-1.6926,0.7470,9.0018,5.0073,-1.1096,4.3111,9.4600,1.3504,4.0817,4.3633,13.8498,2.8316,8.4354,8.9600
2457.0312,-4.4644,0.2855,2.4525,10.9669,10.1527,-1.8654,2.5578,10.1290,1.1699,-4.2151,1.3952,8.0228,4.9943,6.8683,5.5171,10.6445,5.9961,5.2343,9.9452
2460.9375,-4.7939,-2.4022,-0.1692,7.0975,8.9058,-2.0841,4.7208,8.8144,-2.5162,-5.8762,-1.9527,3.7677,5.2590,6.7067,4.0135,2.4922,5.8197,1.0294,7.2431
2464.8438,-3.6599,-4.4565,-3.6629,0.9785,4.6580,-2.0096,5.7363,5.3325,-5.0742,-4.7601,-4.9704,-2.5490,1.4860,3.3244,1.2594,-7.6412,2.1427,-3.2972,0.5777
2468.7500,-0.9692,-5.5348,-7.4095,-5.4413,-1.3199,-1.5250,4.1926,0.8286,-5.8341,-0.6716,-6.6315,-8.8908,-5.0118,-2.1823,-0.1643,-15.7122,-3.4881,-6.6211,-8.4949
2472.6562,2.5627,-5.4156,-10.0980,-9.9133,-7.0623,-0.8235,-0.1959,-3.1149,-4.6736,5.1207,-6.1152,-12.7631,-11.4370,-7.8420,1.7637,-18.5991,-8.5955,-7.8975,-16.9672
2476.5625,5.5985,-4.0673,-10.2665,-10.8631,-10.7544,-0.2764,-6.0869,-5.1344,-2.0703,10.3600,-3.3265,-12.4405,-14.8455,-11.7138,6.9823,-15.5063,-11.0154,-6.5901,-21.6412
2480.4688,6.8292,-1.7396,-7.1705,-8.0826,-11.4730,-0.1478,-10.9992,-4.6420,1.0690,12.8874,0.8618,-7.9232,-13.6297,-12.7236,13.0752,-8.1160,-9.9315,-2.9886,-20.6622
2484.3750,5.7218,1.0229,-1.4170,-2.7664,-9.4675,-0.3520,-12.6090,-2.0121,3.7592,11.7509,4.8787,-1.0254,-8.3122,-11.0131,16.5523,0.4396,-6.1728,1.8185,-14.4646
2488.2812,2.8768,3.5184,5.1240,3.1159,-5.8827,-0.4577,-10.0779,1.6711,5.3309,7.6878,7.1828,5.5131,-1.2018,-7.6731,14.9903,7.1254,-1.6661,6.3752,-5.5546
2492.1875,-0.2780,5.1494,10.1778,7.7460,-2.1257,0.0218,-4.5439,5.1389,5.6865,2.6827,7.0755,9.4120,4.8698,-4.0795,8.6986,10.2599,1.6040,9.4914,2.7738
2496.0938,-2.2930,5.6796,12.2104,10.1682,0.7541,1.2320,1.5726,7.4506,5.2784,-1.1375,5.1088,9.9319,7.9717,-1.2424,0.7727,9.9469,2.5482,10.7221,8.0439
2500.0000,-2.4893,5.3341,11.1636,10.4424,2.3550,2.7751,5.9979,8.2523,4.8064,-2.6079,2.7835,8.0360,7.8503,0.4881,-4.6326,7.6311,1.3556,10.4121,9.6003
2503.9062,-1.2344,4.6678,8.3267,9.2561,2.7978,3.8925,7.8176,7.7150,4.7905,-1.9794,1.6651,5.5837,5.6906,1.2738,-4.8227,5.1328,-0.8253,9.3043,8.4903
2507.8125,0.4481,4.2608,5.4539,7.3306,2.3576,3.9496,7.6830,6.2633,5.2633,-0.5054,2.4301,4.1086,3.1393,1.3907,-0.2897,3.6945,-2.6495,7.9921,6.4244
2511.7188,1.6254,4.4033,3.7196,5.0281,1.1494,2.8968,6.9570,4.2930,5.7695,0.5030,4.4452,3.9640,1.2819,0.8959,5.5189,3.4798,-3.3187,6.5922,4.5806
2515.6250,2.0290,4.9527,3.1825,2.3770,-0.9127,1.3624,6.5061,2.0394,5.6857,0.5111,6.1755,4.3453,0.2069,-0.4142,8.3421,3.7021,-2.8988,4.8460,3.0426
2519.5312,2.0896,5.4471,3.0538,-0.5796,-3.8788,0.2781,6.0687,-0.3658,4.6731,-0.0280,6.1954,4.1045,-0.6706,-2.7570,5.8549,3.2488,-2.0952,2.5488,1.1638
2523.4375,2.4741,5.4170,2.5128,-3.4240,-7.4475,0.2724,4.6564,-2.7302,2.9851,-0.1413,4.1745,2.7522,-1.8739,-6.0254,-0.7346,1.4386,-1.6855,-0.0252,-1.5158
2527.3438,3.5136,4.7074,1.4619,-5.2930,-10.8315,1.2484,1.6301,-4.6692,1.4214,0.9035,1.1955,0.9409,-3.3003,-9.6141,-7.3268,-1.5050,-1.9944,-2.0389,-4.5359
2531.2500,4.9381,3.6116,0.6902,-5.1866,-12.9370,2.4431,-2.4272,-5.6157,0.9285,3.0732,-0.8313,0.0906,-4.2202,-12.5468,-9.4721,-4.5246,-2.7291,-2.4488,-6.5334
2535.1562,6.0673,2.7203,1.3491,-2.4874,-12.7855,2.9328,-5.7572,-4.9917,2.0597,5.5879,-0.3244,1.4037,-3.7988,-13.8463,-5.2307,-6.3047,-3.2497,-0.6017,-6.0166
2539.0625,6.2629,2.5689,4.1163,2.6257,-9.9407,2.2400,-6.4072,-2.4669,4.6062,7.3970,2.9501,4.9338,-1.7284,-12.9438,3.4850,-6.0244,-3.0636,3.3004,-2.3549
2542.9688,5.2987,3.2993,8.6142,9.1229,-4.7083,0.6357,-3.4547,1.8249,7.6297,7.7570,7.6388,9.3494,1.4889,-9.9094,11.9806,-3.8361,-2.1969,8.1724,3.7017
2546.8750,3.4267,4.5568,13.4641,15.4742,1.9825,-1.0491,2.3689,7.2267,9.9030,6.5627,11.5103,12.5953,4.7987,-5.3983,15.6217,-0.7728,-1.1835,12.5005,10.3262
2550.7812,1.1768,5.6984,16.9272,20.2219,8.9189,-1.9548,9.0384,12.7022,10.5322,4.3080,12.7028,13.0737,7.2008,-0.3685,12.6669,1.8749,-0.6723,15.0363,15.5353
2554.6875,-0.9028,6.1790,17.7323,22.4777,14.9656,-1.7119,14.2530,17.1314,9.4168,1.7930,10.7668,10.6263,8.2854,4.2680,5.3026,3.3310,-0.9168,15.3500,18.1246
2558.5938,-2.3953,5.8597,15.6141,22.1123,19.2834,-0.6342,16.4051,19.6372,7.2803,-0.2161,6.8821,6.6926,8.3530,7.8877,-1.7678,3.7645,-1.5112,13.9406,18.0524
2562.5000,-3.0495,5.0266,11.3106,19.5925,21.3696,0.4894,14.9729,19.8121,5.2388,-1.2375,3.1245,3.5104,8.0652,10.2080,-4.2860,4.0831,-1.5889,11.8538,16.1092
2566.4062,-2.8103,4.1122,6.1097,15.6198,21.0067,0.8365,10.3432,17.7682,4.1399,-1.2097,1.2260,2.8019,7.8810,11.1802,-1.0937,5.2049,-0.4022,10.0368,13.1947
2570.3125,-1.9067,3.3292,1.2638,10.8127,18.2363,-0.0379,3.4640,14.0251,4.0529,-0.5241,1.5685,4.7151,7.6623,10.8379,5.1572,7.2722,2.0719,8.8033,9.7394
2574.2188,-0.9135,2.5026,-2.4117,5.6123,13.4025,-2.0116,-4.3273,9.3171,4.2254,0.0723,3.0061,7.6636,6.7103,9.2204,9.6426,9.3461,4.9128,7.7215,5.6504
2578.1250,-0.6249,1.2475,-4.6206,0.4168,7.2122,-4.4643,-11.3445,4.4172,3.5627,-0.2484,3.6164,9.2003,4.2217,6.4266,8.3152,9.8428,6.6303,5.9961,0.7521
2582.0312,-1.6811,-0.6172,-5.4275,-4.2140,0.7064,-6.5305,-15.7942,0.0293,1.3782,-1.9804,1.9344,7.4586,-0.0980,2.7567,0.3675,7.5051,5.9731,3.1229,-4.6545
2585.9375,-4.1156,-2.7229,-5.0382,-7.4929,-4.9202,-7.4246,-16.4196,-3.2609,-2.0269,-4.9139,-2.0601,2.3462,-5.6239,-1.1770,-11.2215,2.3355,2.7229,-0.5804,-9.5592
2589.8438,-7.1399,-4.1625,-3.6574,-8.5899,-8.6223,-6.7361,-13.2736,-5.0235,-5.3263,-8.0683,-6.7842,-4.2052,-10.8616,-4.4961,-21.2932,-4.1096,-2.0143,-3.9155,-12.5363
2593.7500,-9.3967,-3.9142,-1.4544,-6.9982,-9.8139,-4.6026,-7.9889,-5.0400,-6.7572,-10.0709,-9.8288,-9.1196,-13.9797,-6.3061,-25.2585,-9.3246,-6.2495,-5.3079,-12.4081
2597.6562,-9.6172,-1.4474,1.4108,-2.8683,-8.5553,-1.6771,-3.0849,-3.3671,-5.0504,-9.8444,-9.2446,-9.7376,-13.6051,-6.0746,-21.4076,-11.0864,-8.0913,-3.6343,-8.8805
2601.5625,-7.3169,2.8649,4.7492,2.9052,-5.5368,1.1342,-0.5324,-0.3618,-0.1985,-7.2224,-4.6275,-5.2259,-9.5131,-3.9523,-11.5854,-8.6500,-6.7499,1.0802,-2.7867
2605.4688,-3.1018,7.7931,8.3007,8.9259,-1.8627,3.0719,-0.4790,3.3698,6.3804,-3.0981,2.5883,2.9218,-2.8695,-0.8312,-0.0400,-3.2240,-3.0004,7.5000,4.1880
2609.3750,1.6169,11.7475,11.6781,13.7573,1.2929,3.8571,-1.1139,7.0955,12.4070,1.0203,9.7795,11.5559,4.1383,1.9574,8.7628,2.5757,1.1795,13.4791,10.1356
2613.2812,5.3231,13.4506,14.3262,16.3810,3.0534,3.7536,0.0569,10.1124,15.7585,3.7887,14.3656,17.3530,9.1680,3.2178,12.1509,6.0281,3.6329,16.9806,13.5993
2617.1875,7.0915,12.4361,15.5739,16.4555,3.1210,3.3028,4.2934,11.8859,15.4219,4.6631,14.9777,18.3333,10.7250,2.4750,10.1498,5.6712,3.1756,16.9501,14.0116
2621.0938,6.8967,9.1640,14.8494,14.3153,1.8777,2.9041,10.4125,12.1490,11.9050,4.0213,11.9853,14.6645,8.8399,0.2600,5.0396,1.9984,0.2609,13.7125,11.7817
2625.0000,5.4331,4.7693,12.0222,10.7850,0.2500,2.5440,15.2500,10.9628,6.9268,2.7547,7.1720,8.4131,5.0699,-2.0903,-0.0025,-2.8651,-3.2068,8.7348,8.0729
2628.9062,3.6430,0.6276,7.6931,6.9327,-0.6458,1.8881,15.6152,8.7340,2.5812,1.6662,2.7960,2.4599,1.7806,-3.0563,-2.4236,-6.2922,-4.8281,3.9282,4.3900
2632.8125,2.2673,-2.0712,3.1896,3.8324,0.0333,0.6741,10.4624,6.1609,0.4129,1.0915,0.5471,-0.8221,1.0173,-1.6834,-1.3145,-6.4492,-2.9460,0.8633,2.1010
2636.7188,1.6290,-2.6331,0.1337,2.3342,2.4747,-0.9060,1.7793,4.0734,0.8409,0.9442,0.9020,-0.4924,3.5065,1.9335,2.4117,-3.0680,2.4703,0.2481,2.0009
2640.6250,1.6597,-1.0326,-0.2930,2.8319,6.0994,-2.1764,-6.4579,3.1715,3.1471,1.0390,3.1207,2.7862,8.2931,6.6855,6.6423,2.6465,9.7523,1.8283,4.0308
2644.5312,2.0488,2.0676,1.9873,5.0882,9.8043,-2.3817,-10.5950,3.7466,5.9580,1.3616,5.7899,7.2850,13.2181,10.9924,9.1639,8.8081,16.3053,4.6518,7.2735
2648.4375,2.4086,5.4943,5.7820,8.2424,12.4628,-1.2591,-9.3541,5.5307,7.9341,2.0486,7.5788,11.1016,16.0081,13.5610,8.7565,13.8118,19.8345,7.5167,10.2896
2652.3438,2.4212,7.9596,9.1490,11.0939,13.4362,0.6657,-4.3357,7.7843,8.3334,3.1220,7.8286,12.9672,15.4227,13.9556,5.7977,16.9181,19.3998,9.4141,11.7235
2656.2500,1.9715,8.5844,10.3867,12.5994,12.8211,2.3307,1.2261,9.6170,7.2219,4.2504,6.7331,12.6441,11.8579,12.6911,2.0674,18.2217,15.7718,9.8344,10.9330
2660.1562,1.2274,7.3150,8.9476,12.3425,11.2994,2.8057,4.4891,10.3832,5.2918,4.7952,5.0894,10.8165,7.0890,10.8264,-0.2069,18.1710,10.9307,8.8702,8.3181
2664.0625,0.5837,4.9743,5.7204,10.6881,9.6806,1.9089,4.4459,9.9368,3.4221,4.1642,3.7980,8.5984,3.2953,9.3143,0.3810,17.0545,6.9969,7.0919,5.1267
2667.9688,0.4308,2.8426,2.4817,8.4949,8.4150,0.3089,1.9952,8.6018,2.2196,2.2338,3.3826,6.9265,1.9026,8.4865,3.5227,14.8169,5.1753,5.2402,2.7888
2671.8750,0.8478,1.9493,0.8341,6.5442,7.3712,-0.9817,-1.1074,6.8998,1.7635,-0.4725,3.7676,6.1262,2.8782,7.9558,7.2507,11.2868,5.2702,3.8569,2.1257
2675.7812,1.4380,2.4751,1.2805,5.0606,6.0053,-1.3595,-3.4721,5.2283,1.6665,-2.9990,4.3993,5.8488,4.8562,6.9633,9.0074,6.5939,6.0005,3.0366,2.8956
2679.6875,1.4856,3.6392,3.0033,3.6563,3.8068,-1.0654,-4.6233,3.7051,1.3899,-4.4446,4.6146,5.3826,6.0023,4.9439,7.1637,1.4303,5.8928,2.4437,3.9678
2683.5938,0.3949,4.1682,4.4606,1.7444,0.7255,-0.9670,-4.7328,2.2554,0.6098,-4.4244,4.0249,4.1506,5.1066,1.9589,2.0702,-3.0714,4.2156,1.5942,4.0393
2687.5000,-1.8661,3.0676,4.3786,-0.8819,-2.6944,-1.8448,-4.0634,0.8313,-0.5986,-3.2486,2.6815,2.0921,2.2721,-1.2599,-4.0662,-5.8053,1.4124,0.2197,2.4580
2691.4062,-4.6597,0.2201,2.4796,-3.7448,-5.5611,-3.7253,-2.7492,-0.4448,-1.8794,-1.7522,0.9318,-0.3017,-1.1863,-3.6760,-8.4727,-6.2323,-1.1949,-1.5426,-0.3684
2695.3125,-7.0424,-3.5621,-0.5020,-5.9095,-7.1072,-5.7821,-1.0589,-1.3440,-2.9279,-0.9082,-0.9147,-2.3144,-3.5451,-4.5019,-9.4876,-4.6688,-2.2215,-3.2792,-3.2406
2699.2188,-8.3816,-7.0392,-3.4500,-6.6072,-7.0926,-6.9041,0.2775,-1.7494,-3.7882,-1.4276,-2.8444,-3.4611,-3.6814,-3.6111,-7.5364,-2.1413,-1.0459,-4.6538,-4.9373
2703.1250,-8.7848,-9.2562,-5.6372,-5.8094,-5.9021,-6.5263,0.2151,-1.8304,-4.8661,-3.4972,-5.1014,-3.7531,-1.6870,-1.5791,-4.7445,0.1260,1.8420,-5.6969,-4.9802
2707.0312,-8.9978,-10.0040,-7.0741,-4.3159,-4.2958,-5.1030,-1.8906,-1.9935,-6.6026,-6.7077,-7.8447,-3.5848,1.2481,0.6516,-3.4233,1.3174,5.1425,-6.7692,-3.8954
2710.9375,-9.8055,-9.7618,-8.2278,-3.2639,-2.9892,-3.8539,-5.5200,-2.6040,-9.0104,-10.1679,-10.7515,-3.3422,3.5616,2.2602,-4.4516,1.3983,7.4690,-8.1884,-2.8180
2714.8438,-11.3518,-9.2164,-9.3947,-3.3827,-2.3206,-3.9320,-8.9093,-3.6719,-11.4220,-12.7771,-12.9104,-3.0602,4.1772,2.8930,-6.6698,1.0527,8.0257,-9.7964,-2.7278
2718.7500,-12.8833,-8.7180,-10.2631,-4.5131,-2.1817,-5.5815,-9.9465,-4.7523,-12.6958,-13.6047,-13.1895,-2.4250,2.9785,2.6858,-7.7218,1.2204,6.8564,-10.8460,-3.8363
2722.6562,-13.1411,-8.0399,-10.0310,-5.7265,-2.2032,-7.8656,-7.5559,-5.1667,-11.8230,-12.2570,-10.9195,-1.1401,0.6768,2.0073,-5.7708,2.4970,4.5915,-10.3754,-5.5152
2726.5625,-11.1601,-6.5706,-7.9965,-5.9509,-2.0307,-9.1548,-2.5941,-4.4182,-8.5771,-9.0598,-6.4568,0.6502,-1.7463,1.1463,-0.8877,4.7480,1.9490,-7.8622,-6.7623
2730.4688,-6.9426,-3.7770,-4.1605,-4.6597,-1.5064,-8.0639,2.4881,-2.5173,-3.7730,-4.9279,-1.1968,2.2807,-3.5968,0.1787,4.8702,7.1754,-0.6379,-3.6933,-6.8418
2734.3750,-1.5575,0.3750,0.6280,-2.1572,-0.6734,-4.2569,5.1079,0.0095,1.0726,-0.9513,3.0619,2.9904,-4.6750,-0.9103,8.7606,8.8133,-3.0465,0.9278,-5.6557
2738.2812,3.3850,5.2855,5.1012,0.6963,0.3397,1.3387,4.1903,2.4330,4.4977,2.0821,5.0586,2.5846,-5.0888,-1.9868,9.1366,9.1484,-5.2130,4.6254,-3.6457
2742.1875,6.5214,9.9117,8.2548,3.0721,1.4240,6.9732,0.8491,4.2360,5.8062,3.9436,4.7315,1.8018,-4.9257,-2.6530,6.4784,8.4586,-6.8819,6.6203,-1.3858
2746.0938,7.2936,13.1481,9.7925,4.6373,2.5010,10.8635,-2.3821,5.3494,5.3040,4.8557,3.1668,1.9900,-4.1049,-2.4041,2.9924,7.6194,-7.6058,7.0886,0.7785
2750.0000,6.0069,14.2043,10.0523,5.6002,3.4635,11.8971,-3.2409,6.0751,3.9519,5.1383,1.8691,4.1954,-2.5271,-0.9873,1.1136,7.4808,-7.0193,6.8667,2.7850
2753.9062,3.4796,12.8517,9.5579,6.3831,4.1418,9.9653,-1.1704,6.7927,2.7171,4.9119,1.8417,8.2632,-0.3549,1.2979,1.9924,8.2368,-5.1719,6.7451,4.6374
2757.8125,0.6116,9.4983,8.6098,7.2322,4.3703,5.8875,2.4826,7.6833,2.0711,4.1095,3.0765,12.6457,1.8783,3.6161,4.9909,9.2587,-2.6358,6.8980,6.1775
2761.7188,-1.8604,5.0917,7.2476,8.0682,4.1224,1.0641,5.5814,8.6510,1.9277,2.7712,4.7483,15.1809,3.4921,4.9832,8.4191,9.5609,-0.2661,6.8728,7.0927
2765.6250,-3.3994,0.8560,5.5498,8.6394,3.5940,-2.9853,6.7542,9.4474,1.9590,1.3268,5.8970,14.4059,4.0865,4.8054,10.8270,8.5995,1.2484,6.1125,7.1607
2769.5312,-3.6664,-2.1110,3.9147,8.7811,3.1283,-5.0944,6.2382,9.8499,1.9612,0.5323,6.0582,10.5320,3.8316,3.2212,11.8223,6.8023,1.7383,4.5502,6.4923
2773.4375,-2.6318,-3.2695,2.9718,8.5292,2.9929,-4.8485,5.4278,9.7419,1.9529,0.9950,5.3946,5.3739,3.3534,1.0065,11.8501,5.3562,1.5733,2.7593,5.5086
2777.3438,-0.7439,-2.9008,3.1120,8.0024,3.1558,-2.7781,5.5370,9.0743,1.9653,2.6020,4.3084,1.2310,3.2552,-0.9003,11.2622,5.3090,1.3440,1.5116,4.6199
2781.2500,1.0703,-2.0013,4.0197,7.2035,3.2468,-0.1976,6.4598,7.8127,1.7784,4.3376,2.9387,-0.5369,3.6244,-1.9332,9.6033,6.6022,1.4463,1.0989,3.8618
2785.1562,1.7475,-1.7683,4.6742,5.9699,2.7799,1.3580,6.7563,5.9840,0.9225,4.7659,1.0245,-0.2564,3.9266,-2.1345,5.8603,7.8198,1.8625,1.0043,2.8334
2789.0625,0.6845,-2.8878,3.9645,4.1622,1.5177,0.9163,4.8260,3.8081,-0.9623,2.9654,-1.7152,0.5056,3.4151,-1.9501,-0.4077,7.0038,2.2777,0.2566,1.0644
2792.9688,-1.7679,-5.0278,1.5462,1.9368,-0.2735,-1.3292,0.3916,1.7678,-3.6544,-0.6955,-5.0040,0.2426,1.7847,-1.7666,-7.9737,3.1071,2.4156,-1.7468,-1.4323
2796.8750,-4.3098,-6.8959,-1.7069,-0.1638,-1.8894,-3.9995,-4.8806,0.4664,-6.1827,-4.5435,-7.7769,-1.2926,-0.4271,-1.5571,-13.9313,-2.9214,2.3233,-4.5765,-3.8803
2800.7812,-5.3130,-6.9244,-4.0878,-1.4508,-2.5775,-5.2220,-8.2167,0.2878,-7.2056,-6.4779,-8.6135,-2.8737,-2.0359,-0.9159,-15.0966,-8.3158,2.3840,-6.8354,-5.0470
2804.6875,-3.7584,-4.2430,-4.1143,-1.5238,-2.0200,-3.7220,-7.5539,1.0728,-5.7843,-5.2517,-6.6367,-2.7324,-1.9229,0.5422,-10.0642,-10.0329,3.0480,-6.9909,-4.0180
2808.5938,0.0713,0.6415,-1.5580,-0.5764,-0.5855,0.3105,-3.0965,2.0890,-2.0593,-1.3345,-2.2571,0.0424,0.2089,2.7269,-0.5175,-6.7590,4.4826,-4.4290,-0.9233
2812.5000,4.6125,5.9291,2.3082,0.6971,0.8437,5.1530,2.5485,2.4011,2.6647,3.2421,2.8254,4.6684,3.5687,4.9288,9.2607,-0.0332,6.3923,0.0284,2.9456
2816.4062,7.8026,9.4184,5.4813,1.5658,1.3848,8.4200,5.8744,1.4582,6.5542,6.0194,6.4696,9.0195,6.7058,6.1389,14.5850,6.4003,8.1347,4.5453,5.7945
2820.3125,8.2023,9.7404,6.5308,1.7757,0.6880,8.4249,4.6992,-0.4908,8.2492,5.5467,7.2964,10.9378,8.3514,5.6405,12.9978,8.7540,9.0477,7.3723,6.3805
2824.2188,5.8094,7.2096,5.5348,1.7227,-0.8503,5.2349,-0.3590,-2.4713,7.6108,2.2377,5.4768,9.6007,8.1120,3.4812,5.6859,5.5576,8.7748,7.8783,4.7632
2828.1250,2.0887,3.7447,3.9810,2.1351,-2.3367,0.7472,-6.1719,-3.3507,5.7398,-1.8670,2.5880,6.0139,6.5706,0.4988,-3.2361,-1.3224,7.4003,6.8196,2.2370
2832.0312,-0.8111,1.8441,3.6859,3.4788,-2.9307,-2.3254,-9.0178,-2.5543,4.2625,-4.2661,0.6360,2.3297,4.7823,-2.1224,-9.1382,-7.7261,5.3543,5.6947,0.4796
2835.9375,-1.2116,3.1712,5.4808,5.5161,-2.3472,-2.0025,-6.8986,-0.4589,4.3413,-3.3787,0.8841,0.5007,3.5599,-3.4843,-9.4711,-9.6898,3.1905,5.6769,0.4945
2839.8438,1.2043,7.5665,8.5863,7.3540,-1.0096,1.7925,-0.7642,1.8036,6.0305,0.6575,3.2233,1.1889,3.0543,-3.4040,-4.9612,-5.8135,1.3797,6.8768,2.0551
2843.7500,5.2482,13.0734,11.1135,7.9677,0.2203,7.1484,6.1193,3.0110,8.3454,6.1663,6.4212,3.6011,2.8668,-2.4038,1.2307,1.9819,0.2041,8.4107,3.9938
2847.6562,8.8880,16.9780,11.3431,6.8539,0.5403,11.2408,10.1972,2.5523,9.9502,10.9003,8.9998,6.2343,2.5270,-1.3188,5.6976,9.7299,-0.2636,9.1534,5.0852
2851.5625,10.3435,17.2747,8.9004,4.3754,-0.3673,11.9343,9.7087,0.7290,9.9945,13.1894,10.1207,7.9144,1.9227,-0.8022,6.8355,13.8374,-0.1484,8.5864,4.8801
2855.4688,9.0187,13.7256,5.0358,1.5839,-2.2083,8.9635,5.5235,-1.4977,8.5815,12.6477,9.9310,8.3986,1.3620,-1.0244,5.4819,13.0747,0.2494,7.1379,3.9279
2859.3750,5.7729,7.9361,1.8490,-0.3435,-4.2622,4.0071,0.3296,-3.0951,6.6263,10.1402,9.2460,8.2288,1.2646,-1.6920,3.8972,8.9466,0.5202,5.8263,3.2942
2863.2812,2.3964,2.4471,1.0089,-0.6828,-5.7276,-0.3539,-3.1386,-3.4786,5.2538,7.1399,8.8844,8.0915,1.7766,-2.3023,3.9438,4.3837,0.2886,5.5258,3.7778
2867.1875,0.5889,-0.5996,2.8165,0.5817,-6.0320,-2.1318,-3.6034,-2.6604,5.1380,4.8995,9.1386,8.2477,2.6345,-2.4342,5.7662,1.7662,-0.5932,6.4061,5.4032
2871.0938,1.0151,-0.4726,6.1700,2.9136,-4.9841,-0.9753,-1.5952,-1.0202,6.1697,3.8856,9.6867,8.4469,3.3813,-1.9193,7.8254,1.6125,-1.9096,7.9131,7.5078
2875.0000,2.9724,1.9680,9.3551,5.6161,-2.7680,1.8190,1.3317,1.0536,7.5978,3.7223,9.9139,8.3013,3.7458,-0.8524,8.1629,2.6720,-3.1176,9.2359,9.2865
2878.9062,4.8596,4.9101,11.0672,8.1759,0.1640,4.2437,3.7455,3.3658,8.5056,3.6028,9.3607,7.7371,3.8694,0.4962,5.9548,3.1540,-3.5828,9.8666,10.3398
2882.8125,5.1743,6.5968,11.0003,10.3734,3.2383,4.8093,4.9786,5.8486,8.3177,2.8899,8.0023,7.1182,4.1923,1.7894,2.2768,2.1140,-2.9115,9.8444,10.8241
2886.7188,3.4442,6.1204,9.7207,12.1643,5.9114,3.2933,4.9704,8.3470,7.0583,1.5527,6.2310,6.9359,5.0766,2.7103,-0.4263,0.0458,-1.1941,9.5495,11.1325
2890.6250,0.5253,3.6439,8.0460,13.4763,7.7959,0.6204,3.7243,10.4797,5.2503,0.1896,4.6109,7.3171,6.4379,3.0279,0.1780,-1.6145,0.9861,9.2487,11.3941
2894.5312,-1.9256,0.0765,6.4306,14.0750,8.7172,-1.9210,1.0513,11.7119,3.5420,-0.3749,3.5661,7.7471,7.6459,2.6403,4.8007,-1.6025,2.7889,8.7533,11.1877
2898.4375,-2.4899,-3.4898,4.7570,13.5732,8.6697,-3.5223,-3.0975,11.5936,2.2871,0.3204,3.1454,7.2400,7.7653,1.5850,11.8916,0.2601,3.4688,7.4358,9.6862
2902.3438,-0.8997,-6.2357,2.5838,11.5645,7.6953,-4.2018,-8.0481,9.9864,1.3153,1.9666,2.9443,4.8742,5.9977,0.0054,18.2325,2.9317,2.6659,4.5950,6.1360
2906.2500,1.7500,-7.7928,-0.4100,7.8258,5.7827,-4.5187,-12.2497,7.1277,0.0315,3.5471,2.2237,0.3683,2.0899,-1.9054,20.4350,4.8051,0.5181,-0.0666,0.3673
2910.1562,3.6307,-8.1876,-4.1107,2.5245,2.8982,-4.9736,-13.9215,3.5172,-2.1888,3.8818,0.2266,-5.6324,-3.4688,-3.9347,16.5713,4.6661,-2.4077,-6.1274,-6.9527
2914.0625,3.2744,-7.6918,-7.9494,-3.6379,-0.8280,-5.5876,-12.1756,-0.2606,-5.5121,2.3539,-3.3783,-11.7011,-9.5178,-5.8259,7.1494,2.3690,-5.2958,-12.4557,-14.4313
2917.9688,0.4728,-6.6809,-11.1090,-9.4347,-4.8804,-5.9418,-7.7710,-3.6481,-9.3433,-0.6240,-8.1125,-16.1127,-14.5227,-7.2329,-5.0033,-1.1064,-7.3009,-17.5234,-20.3372
2921.8750,-3.5528,-5.5032,-12.7836,-13.3503,-8.3094,-5.5661,-2.8161,-6.1263,-12.4192,-3.7240,-12.6159,-17.4400,-17.0165,-7.7358,-15.8787,-4.1604,-7.7757,-19.8841,-23.0930
2925.7812,-6.7904,-4.3368,-12.3701,-14.0418,-9.9960,-4.3064,0.5099,-7.2032,-13.3080,-5.3644,-15.0563,-15.0368,-16.0807,-6.9790,-21.9438,-5.3243,-6.4890,-18.6358,-21.7248
2929.6875,-7.4921,-3.0682,-9.5884,-10.8818,-9.1616,-2.3691,1.3527,-6.4880,-11.0903,-4.5449,-13.9382,-9.2660,-11.7185,-4.8933,-21.5971,-3.8928,-3.7769,-13.7203,-16.1738
2933.5938,-5.0395,-1.2984,-4.5841,-4.3285,-5.8428,-0.0507,0.6697,-3.8722,-5.8622,-1.3658,-8.9317,-1.4156,-4.9481,-1.8587,-15.7798,-0.1958,-0.5189,-5.9685,-7.3934
2937.5000,-0.1770,1.4406,1.9877,4.1014,-1.0112,2.5564,0.4177,0.2774,1.2246,3.0592,-1.2327,6.6811,2.5005,1.3470,-7.4469,4.5614,2.1417,3.1265,2.8402
2941.4062,5.4362,5.3178,8.9876,12.3110,3.7974,5.5767,2.0263,5.0713,8.4225,7.2101,6.8419,13.2249,8.8246,3.8481,-0.1135,8.8071,3.2858,11.8367,12.4101
2945.3125,10.0328,9.8945,15.0190,18.3590,7.1665,9.0412,5.3008,9.2945,14.0985,9.8938,12.8813,17.0424,12.8475,5.0767,3.8326,11.2614,2.6924,18.6773,19.5082
2949.2188,12.4516,14.1231,18.8416,21.1126,8.4008,12.5255,8.5790,11.8020,17.3099,10.6838,15.4851,17.9466,14.4047,5.0363,4.1898,11.4688,1.0111,22.7526,23.1871
2953.1250,12.4410,16.7344,19.8014,20.5219,7.6977,15.0987,9.9979,11.9441,17.9614,9.8787,14.8107,16.6825,14.1854,4.2431,2.7802,9.9513,-0.5415,23.8512,23.5432
2957.0312,10.5118,16.8422,18.0468,17.4342,5.8252,15.7244,8.8679,9.8155,16.5425,8.1189,12.2532,14.4596,13.1268,3.3726,2.1307,7.8801,-0.8495,22.3024,21.4340
2960.9375,7.5269,14.4104,14.4030,13.1134,3.5675,13.8852,6.0813,6.2113,13.6999,5.9794,9.4847,12.3029,11.7621,2.8412,3.7501,6.4127,0.4400,18.7320,17.9072
2964.8438,4.2908,10.2909,9.9829,8.7459,1.3329,9.9893,3.2718,2.3081,9.9671,3.7909,7.4808,10.5809,9.9734,2.5985,7.0516,6.0491,2.6785,13.8822,13.7011
2968.7500,1.3272,5.7998,5.7681,5.1494,-0.8406,5.2401,1.4590,-0.7804,5.7984,1.7203,6.1442,8.9782,7.3193,2.2550,9.6320,6.3791,4.5884,8.5664,9.1240
2972.6562,-1.1141,2.0984,2.3919,2.7269,-2.9648,1.0261,0.3343,-2.3830,1.7851,-0.0541,4.7132,6.9126,3.6869,1.4286,8.7971,6.3734,5.0424,3.6877,4.3380
2976.5625,-2.9013,-0.2408,0.1828,1.5647,-4.7879,-1.7619,-1.1946,-2.4332,-1.2311,-1.2649,2.6044,4.1164,-0.2521,0.0499,3.4086,5.0386,3.7634,0.1764,-0.2282
2980.4688,-3.8597,-1.2569,-0.6662,1.5422,-5.7799,-3.0354,-3.6523,-1.3660,-2.3542,-1.6410,0.0579,0.9898,-3.1845,-1.5860,-5.1238,2.0317,1.4881,-1.2343,-3.7183
2984.3750,-3.7289,-1.2789,-0.0143,2.4026,-5.4509,-3.2712,-6.0348,0.1838,-1.0811,-1.0702,-1.8825,-1.5147,-3.8756,-3.0268,-13.3869,-2.1268,-0.5211,-0.3133,-5.1316
2988.2812,-2.2877,-0.5565,2.1226,3.8120,-3.7493,-2.9690,-6.1965,1.7249,2.2957,0.3027,-2.0381,-2.4169,-1.9976,-3.9435,-17.7593,-6.3322,-1.2941,2.4823,-3.8976
2992.1875,0.4153,0.8726,5.3726,5.4475,-1.2087,-2.2439,-2.4730,3.1212,6.6593,2.1116,0.0612,-1.3162,1.5280,-4.2653,-16.3762,-9.4517,-0.7561,6.1184,-0.3410
2996.0938,3.8778,3.0163,8.9304,7.0931,1.3005,-0.8516,4.6510,4.5644,10.5142,3.8977,3.7499,1.2951,4.9591,-4.0941,-10.0784,-10.8135,0.2890,9.3902,4.3199
3000.0000,7.1724,5.6522,11.7592,8.6697,3.0528,1.4130,12.2204,6.3278,12.6832,5.2421,7.5122,4.2065,6.6974,-3.5161,-1.8177,-10.3952,0.7731,11.4192,8.4892
3003.9062,9.2568,8.2150,13.0211,10.1486,3.8416,4.3035,16.3183,8.4535,12.8388,5.8522,9.7942,6.0599,6.1707,-2.5037,5.0324,-8.7032,0.1476,11.9577,10.9195
3007.8125,9.4534,9.9811,12.4880,11.3935,3.9855,7.0507,14.5139,10.5763,11.5447,5.6175,9.8226,6.0039,4.0714,-1.0035,8.3847,-6.4937,-1.2055,11.3371,11.2046
3011.7188,7.8403,10.4336,10.6504,12.0646,3.9916,8.7143,7.5607,12.0149,9.7971,4.6671,7.9319,4.0963,1.8228,0.8758,8.1812,-4.4854,-2.2113,10.1235,9.7654
3015.6250,5.2871,9.5430,8.4210,11.6979,4.1490,8.7070,-0.9159,12.0994,8.3739,3.3975,5.2474,1.2678,0.6566,2.7719,5.9046,-3.1217,-1.8203,8.7308,7.4033
3019.5312,3.0492,7.7547,6.5926,9.9543,4.3578,7.1143,-6.6245,10.5455,7.4103,2.3940,2.9764,-1.1198,0.9128,4.1952,3.3781,-2.3924,0.2835,7.2358,4.7657
3023.4375,2.1062,5.6962,5.3894,6.8884,4.2972,4.5983,-7.2461,7.6432,6.4403,2.1924,1.7642,-1.9053,1.9714,4.8113,1.7181,-1.7770,3.4497,5.4759,2.0781
3027.3438,2.6168,3.8183,4.3971,3.0421,3.7621,1.9800,-3.7283,4.1413,4.8282,2.9581,1.4705,-0.6679,2.7771,4.6612,1.0246,-0.4301,6.4290,3.3074,-0.7352
3031.2500,3.8275,2.2230,2.9210,-0.7261,2.8838,-0.1889,0.6008,0.9010,2.2723,4.2833,1.4246,2.0651,2.5439,4.1360,0.7873,2.3404,8.0708,0.8120,-3.7041
3035.1562,4.5156,0.7790,0.5451,-3.5878,2.0607,-1.7844,2.4141,-1.4617,-0.9398,5.3011,0.9392,5.0531,1.1792,3.7053,0.5217,6.4792,7.8921,-1.6760,-6.5376
3039.0625,3.7228,-0.5907,-2.4619,-5.0525,1.6710,-2.9442,0.5872,-2.7383,-4.0416,5.1385,-0.2378,6.9402,-0.7658,3.6051,0.1315,10.8712,6.1987,-3.6927,-8.6207
3042.9688,1.3546,-1.6792,-5.1532,-5.0621,1.8038,-3.7548,-3.2482,-3.0398,-6.1377,3.4895,-1.7587,6.9623,-2.4712,3.7259,-0.1632,13.6744,3.7738,-4.7871,-9.2684
3046.8750,-1.6987,-1.9996,-6.3274,-3.8564,2.2128,-4.0430,-6.0493,-2.5918,-6.5547,0.9446,-2.8382,5.4066,-3.2412,3.7863,-0.1219,13.2937,1.4174,-4.5894,-8.0526
3050.7812,-3.9864,-1.0272,-5.1361,-1.7605,2.5002,-3.4111,-5.5485,-1.6036,-5.0313,-1.1895,-2.6341,3.5361,-2.7025,3.6355,0.3087,9.4831,-0.3490,-2.8294,-5.0071
3054.6875,-4.2293,1.4712,-1.5426,0.9224,2.3621,-1.4742,-1.7410,-0.3087,-1.7419,-1.5495,-0.6699,2.9426,-0.8137,3.4182,1.0038,3.8193,-1.2976,0.5921,-0.6325
3058.5938,-1.9763,5.2165,3.6006,3.8572,1.7087,1.8586,3.2520,0.9143,2.7526,0.4928,2.8678,4.6259,2.1728,3.4448,1.7775,-0.9340,-1.3516,5.4352,4.2536
3062.5000,2.1283,9.4224,8.8789,6.5742,0.6176,6.2073,6.6823,1.5368,7.5697,4.3694,7.0872,8.3166,5.7142,3.8682,2.4346,-2.3353,-0.4962,10.9575,8.7305
3066.4062,6.5717,13.0225,12.8726,8.4999,-0.7609,10.7204,6.9029,1.1133,11.6282,8.4851,10.6596,12.4908,9.0089,4.4534,2.7373,0.2479,1.1629,15.9534,11.9971
