Time,Fp1,F3,C3,P3,O1,F7,T3,T5,Fz,Fp2,F4,C4,P4,O2,F8,T4,T6,Cz,Pz
0.0000,-2.2502,-10.4508,-16.4513,-19.5515,-5.3504,1.0501,-1.2501,-15.1512,-11.6509,-5.6504,-10.4508,-17.7514,-10.1508,-4.3503,-6.1505,-13.4510,-6.9505,-16.8513,-12.3509
3.9062,0.5500,-7.9506,-11.9509,-16.6513,-7.6506,1.5501,-0.6500,-16.8513,-4.9504,-1.5501,-2.5502,-11.9509,-8.0506,-5.6504,1.5501,-7.4506,-5.3504,-10.3508,-9.0507
7.8125,2.6502,-4.7504,-6.1505,-11.9509,-9.8508,2.1502,0.2500,-16.5513,0.2500,1.6501,3.4503,-6.6505,-6.7505,-7.0505,8.3506,-2.0502,-4.3503,-4.0503,-5.4504
11.7188,4.2503,-0.9501,-0.0500,-5.8504,-10.7508,2.9502,1.7501,-14.2511,3.6503,4.1503,6.7505,-2.5502,-5.4504,-8.1506,12.1509,0.9501,-3.5503,0.7501,-1.5501
15.6250,5.6504,2.9502,5.4504,0.8501,-9.7507,3.6503,3.3503,-10.0508,5.4504,6.1505,7.4506,0.2500,-3.1502,-8.0506,12.3509,1.7501,-2.4502,4.1503,2.5502
19.5312,6.6505,6.3505,9.4507,7.3506,-6.9505,3.9503,4.1503,-4.7504,6.5505,7.2506,6.4505,2.6502,0.2500,-6.2505,10.0508,1.6501,-0.5500,6.5505,6.5505
23.4375,7.0505,8.4506,11.3509,12.3509,-2.9502,3.7503,3.2502,0.5500,7.6506,7.0505,5.1504,5.1504,4.5503,-3.0502,6.9505,2.2502,1.8501,8.7507,9.7507
27.3438,6.5505,8.9507,11.3509,15.0511,0.6500,3.2502,1.0501,4.9504,9.3507,5.5504,4.5503,7.8506,8.6507,0.4500,4.2503,3.5503,4.2503,10.9508,11.3509
31.2500,5.1504,8.0506,10.0508,14.8511,2.9502,2.4502,-1.2501,7.4506,11.3509,3.0502,4.8504,10.3508,11.5509,3.2502,2.1502,4.4503,6.0505,13.0510,10.9508
35.1562,3.0502,6.3505,8.3506,11.8509,3.0502,1.6501,-2.6502,7.5506,12.3509,-0.1500,5.7504,11.6509,12.2509,4.1503,0.3500,3.8503,6.6505,13.6510,8.7507
39.0625,0.4500,4.2503,6.2505,6.4505,0.8501,0.5500,-2.5502,5.2504,11.1509,-3.5503,6.0505,10.7508,10.2508,2.9502,-0.8501,1.3501,5.9505,11.6509,5.3504
42.9688,-2.1502,1.8501,3.5503,-0.3500,-2.8502,-0.9501,-1.6501,1.2501,6.9505,-6.6505,5.0504,6.7505,5.8504,-0.0500,-0.9501,-1.9501,3.8503,6.2505,0.9501
46.8750,-4.9504,-1.1501,-0.3500,-7.5506,-7.3506,-3.2502,-1.2501,-3.2502,0.1500,-9.0507,2.0502,0.0500,-0.3500,-4.1503,0.6500,-5.3504,0.6500,-1.7501,-3.9503
50.7812,-7.6506,-5.0504,-5.3504,-13.7510,-11.4509,-5.8504,-2.0502,-7.4506,-7.5506,-10.6508,-2.5502,-8.3506,-7.0505,-8.2506,3.0502,-7.8506,-3.0502,-10.7508,-9.2507
54.6875,-10.0508,-9.5507,-10.4508,-17.6513,-13.9511,-8.2506,-3.4503,-10.0508,-14.1511,-11.4509,-7.8506,-16.0512,-12.7510,-11.3509,4.5503,-8.8507,-6.5505,-18.2514,-13.7510
58.5938,-12.1509,-13.6510,-14.1511,-18.4514,-14.1511,-10.3508,-3.8503,-10.2508,-17.8514,-11.5509,-12.1509,-20.6516,-15.8512,-12.6510,3.3503,-8.3506,-8.7507,-22.0517,-16.2512
62.5000,-13.5510,-16.4513,-15.0511,-15.7512,-11.8509,-12.0509,-2.1502,-8.0506,-18.0514,-11.1509,-13.8511,-20.6516,-15.5512,-11.8509,-0.0500,-6.7505,-9.1507,-21.2516,-15.4512
66.4062,-14.3511,-17.1513,-12.8510,-10.2508,-7.5506,-13.9511,0.8501,-4.3503,-15.4512,-10.4508,-12.4509,-16.2512,-12.2509,-9.0507,-4.1503,-4.8504,-7.8506,-16.6513,-11.2509
70.3125,-14.5511,-15.8512,-8.5507,-3.7503,-2.5502,-16.0512,3.2502,-0.2500,-11.5509,-9.3507,-8.6507,-9.4507,-7.2506,-5.1504,-6.2505,-3.8503,-5.3504,-10.2508,-5.0504
74.2188,-14.0511,-12.9510,-3.9503,1.7501,1.5501,-18.1514,2.7502,3.0502,-7.8506,-7.8506,-4.1503,-2.5502,-2.5502,-1.1501,-4.7504,-4.3503,-2.9502,-4.1503,1.0501
78.1250,-12.8510,-9.0507,-0.5500,5.3504,3.9503,-19.5515,-1.1501,5.0504,-4.8504,-5.6504,-0.2500,2.4502,0.6500,2.0502,-0.3500,-6.2505,-1.1501,0.1500,5.0504
82.0312,-10.6508,-5.0504,0.9501,6.4505,4.6504,-19.5515,-6.5505,5.6504,-2.5502,-2.9502,2.0502,5.1504,2.1502,4.2503,4.5503,-8.4506,0.0500,2.7502,6.0505
85.9375,-7.9506,-1.5501,1.3501,5.7504,4.3503,-17.7514,-10.4508,5.2504,-0.3500,-0.1500,3.1502,5.7504,2.5502,5.3504,7.4506,-9.1507,0.9501,3.8503,4.6504
89.8438,-5.1504,1.0501,1.3501,4.0503,3.9503,-14.5511,-10.5508,4.3503,1.7501,1.5501,3.2502,4.9504,2.5502,5.6504,6.9505,-6.8505,2.0502,4.1503,2.2502
93.7500,-3.2502,2.5502,1.4501,2.0502,3.9503,-10.8508,-7.4506,3.0502,3.4503,1.7501,2.7502,3.2502,2.3502,5.4504,3.8503,-1.9501,2.6502,3.6503,0.0500
97.6562,-2.7502,2.6502,1.2501,0.0500,4.3503,-7.8506,-3.4503,1.3501,4.0503,0.3500,1.8501,0.8501,1.5501,4.8504,0.1500,3.4503,2.2502,2.5502,-1.4501
101.5625,-3.5503,1.3501,0.1500,-2.3502,4.6504,-6.4505,-1.8501,-0.6500,3.0502,-1.6501,0.7501,-1.8501,0.1500,3.9503,-1.3501,6.7505,0.6500,0.9501,-2.4502
105.4688,-5.2504,-1.0501,-2.4502,-4.9504,4.0503,-7.1505,-4.3503,-3.2502,0.9501,-3.3503,-0.2500,-4.4503,-1.7501,2.6502,0.1500,6.2505,-1.7501,-0.7501,-3.3503
109.3750,-7.0505,-4.2503,-6.8505,-7.6506,2.2502,-9.9508,-10.7508,-6.2505,-1.6501,-3.7503,-0.8501,-6.0505,-4.0503,1.0501,4.5503,2.4502,-4.0503,-2.3502,-4.5503
113.2812,-8.6507,-7.3506,-11.8509,-9.9508,-0.5500,-13.7510,-17.9514,-9.4507,-4.0503,-2.5502,-0.7501,-6.0505,-6.2505,-0.5500,10.0508,-1.6501,-5.6504,-3.4503,-5.9505
117.1875,-9.7507,-9.7507,-15.9512,-11.3509,-3.8503,-17.0513,-22.5517,-12.3509,-5.4504,-0.4500,0.0500,-4.3503,-7.7506,-2.1502,14.7511,-3.0502,-5.9505,-3.7503,-7.0505
121.0938,-10.2508,-10.7508,-17.4513,-11.2509,-6.5505,-18.6514,-22.1517,-14.5511,-5.5504,1.2501,1.2501,-1.6501,-8.2506,-3.4503,17.8514,-0.5500,-5.0504,-3.0502,-7.0505
125.0000,-10.2508,-10.6508,-15.9512,-9.6507,-8.1506,-17.8514,-17.7514,-15.6512,-4.7504,1.8501,2.2502,0.9501,-7.1505,-4.2503,18.6514,4.2503,-3.3503,-1.6501,-5.8504
128.9062,-9.6507,-9.8508,-12.0509,-7.2506,-8.4506,-15.2512,-12.9510,-15.6512,-3.4503,0.9501,2.4502,2.8502,-4.6504,-4.6504,17.0513,8.3506,-1.5501,-0.1500,-3.8503
132.8125,-8.5507,-8.8507,-7.1505,-4.7504,-8.1506,-11.9509,-10.7508,-14.7511,-2.4502,-0.8501,1.3501,3.6503,-1.2501,-4.9504,12.5510,9.2507,-0.0500,0.7501,-1.6501
136.7188,-6.6505,-7.6506,-2.7502,-2.7502,-7.8506,-8.8507,-11.2509,-12.9510,-1.8501,-2.3502,-0.6500,3.8503,2.1502,-5.4504,5.1504,6.2505,0.4500,0.7501,-0.1500
140.6250,-4.1503,-5.8504,0.3500,-1.3501,-7.8506,-6.3505,-11.1509,-10.1508,-1.6501,-2.3502,-2.8502,4.0503,4.8504,-6.0505,-3.9503,0.7501,0.3500,0.0500,0.1500
144.5312,-1.0501,-2.9502,2.5502,-0.0500,-7.6506,-3.8503,-7.0505,-6.1505,-1.1501,-1.0501,-3.9503,4.5503,6.1505,-6.5505,-12.3509,-4.1503,-0.0500,-1.0501,-0.0500
148.4375,1.5501,0.6500,4.2503,1.1501,-7.0505,-0.9501,1.5501,-1.3501,-0.2500,0.5500,-3.3503,5.2504,6.0505,-6.5505,-17.0513,-6.1505,-0.5500,-1.7501,-0.3500
152.3438,3.0502,4.0503,5.1504,2.0502,-5.8504,1.8501,11.4509,2.9502,0.7501,1.5501,-1.4501,5.2504,4.6504,-6.0505,-16.6513,-4.1503,-0.9501,-1.9501,-0.6500
156.2500,2.7502,5.6504,4.3503,1.9501,-4.5503,3.3503,17.1513,5.4504,0.9501,0.9501,0.1500,3.7503,2.1502,-5.0504,-11.8509,0.1500,-1.5501,-1.9501,-0.9501
160.1562,0.5500,4.3503,1.2501,0.4500,-3.5503,2.3502,15.0511,5.2504,-0.0500,-0.6500,0.1500,0.4500,-0.8501,-3.7503,-5.3504,4.0503,-2.5502,-2.3502,-2.0502
164.0625,-2.4502,0.7501,-3.4503,-2.0502,-3.0502,-0.9501,5.8504,2.4502,-2.5502,-2.4502,-1.9501,-3.8503,-3.8503,-2.3502,0.0500,4.7504,-3.7503,-3.1502,-3.7503
167.9688,-5.3504,-3.5503,-7.9506,-4.6504,-2.4502,-5.5504,-5.7504,-1.2501,-5.2504,-3.5503,-5.5504,-8.0506,-5.9505,-1.2501,2.9502,1.8501,-4.7504,-4.0503,-5.5504
171.8750,-6.7505,-6.5505,-9.9508,-5.7504,-1.5501,-9.3507,-13.9511,-4.1503,-6.9505,-3.5503,-8.5507,-10.8508,-7.0505,-0.6500,3.2502,-3.0502,-5.2504,-4.3503,-6.6505
175.7812,-6.2505,-6.8505,-8.0506,-4.7504,-0.0500,-10.4508,-14.9511,-4.4503,-6.7505,-2.9502,-9.7507,-11.6509,-7.2506,-0.8501,2.0502,-7.7506,-5.2504,-3.7503,-6.4505
179.6875,-3.9503,-4.4503,-3.0502,-1.8501,1.5501,-8.4506,-9.0507,-2.1502,-4.8504,-2.0502,-8.7507,-11.0508,-7.2506,-1.8501,0.1500,-10.1508,-5.2504,-2.4502,-5.3504
183.5938,-0.6500,-0.7501,2.5502,1.5501,2.5502,-4.1503,-0.5500,1.8501,-2.2502,-0.9501,-6.3505,-9.7507,-7.3506,-3.2502,-1.7501,-8.9507,-5.2504,-0.9501,-4.0503
187.5000,2.4502,2.3502,6.5505,4.4503,2.6502,0.3500,5.4504,5.9505,0.1500,0.4500,-3.5503,-7.9506,-7.2506,-4.6504,-3.0502,-4.3503,-5.0504,0.0500,-3.4503
191.4062,4.5503,3.8503,7.3506,5.9505,1.7501,3.7503,6.4505,8.7507,1.6501,2.0502,-0.9501,-5.5504,-6.4505,-5.2504,-2.7502,1.7501,-4.0503,0.3500,-3.1502
195.3125,4.7504,3.5503,5.6504,5.8504,0.3500,5.2504,3.3503,9.8508,2.1502,3.4503,1.2501,-2.4502,-4.6504,-4.9504,-0.0500,6.6505,-2.2502,0.1500,-2.5502
199.2188,3.4503,2.4502,3.3503,4.9504,-0.7501,5.6504,-0.4500,9.4507,1.8501,3.8503,3.3503,1.2501,-1.9501,-3.7503,4.9504,8.1506,-0.2500,0.0500,-0.8501
203.1250,1.3501,1.8501,2.3502,4.0503,-1.4501,5.9505,-1.4501,8.4506,1.5501,3.1502,5.3504,5.4504,1.0501,-1.9501,10.6508,6.3505,1.3501,0.6500,2.1502
207.0312,-0.1500,2.7502,3.4503,3.8503,-1.6501,6.9505,1.6501,7.4506,1.6501,1.4501,6.6505,9.2507,3.9503,0.1500,14.0511,3.0502,2.3502,2.3502,5.8504
210.9375,-0.7501,4.7504,5.5504,3.9503,-1.4501,8.1506,7.5506,6.6505,2.0502,-0.5500,6.3505,11.5509,5.9505,2.4502,12.1509,0.3500,2.8502,4.7504,8.6507
214.8438,-0.4500,6.4505,6.8505,3.8503,-1.4501,8.2506,12.7510,5.6504,2.2502,-2.5502,3.9503,10.9508,6.5505,4.2503,3.9503,-0.8501,2.8502,6.6505,8.9507
218.7500,-0.2500,6.2505,5.6504,2.6502,-1.7501,6.1505,14.1511,3.9503,1.2501,-4.0503,-0.5500,7.0505,5.1504,4.8504,-8.7507,-1.3501,2.3502,6.5505,5.8504
222.6562,-1.1501,3.4503,2.1502,0.0500,-2.8502,2.2502,10.7508,1.3501,-1.3501,-4.9504,-6.3505,0.6500,1.8501,3.6503,-21.5516,-1.7501,0.8501,3.6503,0.0500
226.5625,-3.4503,-1.4501,-2.4502,-3.6503,-4.4503,-2.2502,3.7503,-1.6501,-5.5504,-5.4504,-11.5509,-6.4505,-2.6502,0.7501,-29.7523,-2.2502,-1.5501,-1.6501,-7.2506
230.4688,-6.7505,-6.9505,-6.5505,-7.5506,-6.0505,-5.5504,-3.7503,-4.5503,-10.1508,-5.9505,-15.0511,-12.3509,-7.6506,-3.0502,-30.5523,-2.4502,-4.4503,-8.0506,-13.6510
234.3750,-10.1508,-11.0508,-9.2507,-10.2508,-6.9505,-6.3505,-8.7507,-6.4505,-13.9511,-6.6505,-16.1512,-15.5512,-11.4509,-6.5505,-25.0519,-1.9501,-6.6505,-13.5510,-17.3513
238.2812,-12.1509,-12.3509,-10.0508,-10.9508,-6.6505,-4.2503,-9.8508,-6.8505,-15.6512,-7.3506,-15.2512,-15.7512,-13.0510,-8.3506,-16.8513,-0.5500,-7.0505,-16.6513,-17.6513
242.1875,-11.7509,-10.6508,-9.5507,-9.5507,-4.6504,-0.1500,-7.7506,-5.7504,-14.5511,-7.5506,-12.8510,-13.6510,-11.5509,-7.6506,-9.4507,0.8501,-5.1504,-16.3512,-14.5511
246.0938,-8.8507,-6.7505,-8.3506,-6.5505,-1.3501,4.4503,-4.5503,-3.9503,-10.9508,-6.9505,-9.5507,-10.0508,-7.3506,-4.5503,-4.8504,1.9501,-1.3501,-13.0510,-8.9507
250.0000,-4.1503,-2.1502,-6.7505,-2.9502,2.3502,7.9506,-2.6502,-2.3502,-5.6504,-5.1504,-5.6504,-5.5504,-1.3501,-0.3500,-2.9502,2.2502,3.1502,-7.7506,-2.3502
253.9062,0.9501,2.0502,-4.5503,0.1500,5.5504,9.6507,-2.5502,-1.5501,0.0500,-2.3502,-1.5501,-0.6500,4.7504,3.5503,-2.6502,1.6501,7.0505,-1.6501,3.8503
257.8125,5.4504,5.6504,-1.5501,2.4502,7.2506,10.3508,-3.3503,-1.6501,5.2504,0.7501,2.2502,4.1503,9.6507,5.9505,-2.7502,0.4500,9.3507,4.2503,8.6507
261.7188,8.6507,8.7507,2.1502,3.9503,7.2506,11.3509,-2.9502,-2.2502,9.0507,3.9503,5.4504,8.5507,12.4509,6.6505,-2.0502,-0.9501,9.6507,9.3507,11.5509
265.6250,10.5508,11.5509,6.2505,4.6504,5.9505,13.5510,-0.4500,-2.6502,11.2509,6.2505,7.5506,11.5509,12.7510,5.7504,0.1500,-2.3502,8.4506,12.9510,12.2509
269.5312,11.2509,13.8511,9.4507,4.9504,3.9503,16.1512,3.8503,-2.5502,11.7509,7.2506,8.2506,12.7510,10.8508,4.1503,4.5503,-3.1502,6.2505,14.5511,11.1509
273.4375,11.0508,14.6511,11.0508,5.0504,1.8501,17.5513,8.2506,-1.8501,10.6508,6.4505,7.4506,11.6509,7.7506,2.3502,9.5507,-3.5503,3.5503,13.8511,8.6507
277.3438,9.8508,13.2510,10.9508,4.9504,0.3500,16.2512,11.2509,-0.6500,8.4506,4.0503,5.1504,8.4506,4.4503,0.9501,12.0509,-4.0503,0.8501,11.0508,5.3504
281.2500,7.9506,9.8508,9.6507,4.7504,-0.2500,12.2509,12.7510,0.7501,5.7504,0.4500,1.5501,3.5503,1.7501,-0.0500,8.5507,-5.2504,-1.3501,7.0505,2.1502
285.1562,5.6504,5.3504,7.9506,4.1503,-0.2500,7.0505,14.0511,2.3502,3.0502,-3.2502,-2.5502,-1.8501,0.0500,-1.0501,-1.3501,-7.5506,-2.9502,2.6502,-0.5500
289.0625,3.2502,1.3501,6.5505,2.6502,-0.2500,2.9502,16.2512,3.5503,0.6500,-6.4505,-6.0505,-6.3505,-0.8501,-2.3502,-14.2511,-10.1508,-3.7503,-1.2501,-2.4502
292.9688,1.4501,-0.6500,5.1504,0.2500,-0.5500,1.6501,18.5514,4.1503,-1.1501,-7.7506,-7.7506,-8.5507,-1.7501,-3.8503,-24.1518,-11.6509,-4.1503,-4.2503,-3.6503
296.8750,0.3500,-0.7501,3.6503,-2.3502,-1.3501,3.0502,18.6514,4.2503,-2.5502,-6.9505,-7.2506,-7.8506,-2.8502,-5.2504,-26.5520,-11.0508,-4.0503,-5.9505,-4.4503
300.7812,0.4500,0.3500,1.7501,-4.4503,-2.4502,5.9505,14.7511,4.0503,-3.2502,-4.2503,-5.2504,-4.8504,-4.0503,-5.8504,-21.5516,-8.1506,-3.6503,-6.2505,-4.8504
304.6875,1.6501,1.7501,0.0500,-4.7504,-2.8502,8.6507,7.2506,4.2503,-2.8502,-0.4500,-2.7502,-1.2501,-4.7504,-5.2504,-13.1510,-4.2503,-2.6502,-5.3504,-4.6504
308.5938,3.6503,2.5502,-0.9501,-3.1502,-2.0502,10.5508,-0.9501,4.8504,-1.3501,2.9502,-0.7501,1.3501,-4.4503,-3.3503,-5.9505,-0.9501,-1.2501,-3.1502,-3.2502
312.5000,5.6504,2.6502,-0.8501,-0.1500,-0.1500,11.2509,-6.7505,5.6504,0.6500,5.1504,0.4500,2.6502,-2.9502,-0.5500,-2.7502,0.7501,0.4500,-0.3500,-0.7501
316.4062,6.7505,2.3502,-0.1500,2.5502,2.1502,11.0508,-8.4506,6.1505,2.6502,5.6504,1.5501,2.7502,-0.5500,2.5502,-3.0502,1.6501,2.4502,2.5502,2.3502
320.3125,6.4505,1.6501,0.0500,3.7503,4.1503,9.7507,-7.0505,5.5504,3.7503,4.6504,2.6502,2.6502,1.8501,5.4504,-4.8504,2.7502,4.4503,4.4503,5.1504
324.2188,4.7504,0.5500,-0.9501,2.5502,4.9504,7.3506,-4.9504,3.4503,3.1502,2.7502,3.6503,2.7502,3.6503,7.5506,-5.5504,4.3503,6.0505,4.5503,6.2505
328.1250,2.4502,-0.9501,-3.7503,-0.6500,4.4503,3.7503,-4.2503,0.0500,1.0501,0.8501,4.0503,2.9502,4.4503,8.5507,-4.1503,5.9505,7.0505,2.4502,4.9504
332.0312,0.1500,-3.0502,-7.5506,-4.8504,3.0502,-0.0500,-5.5504,-3.9503,-1.7501,-0.6500,3.4503,3.0502,4.0503,8.4506,-1.1501,6.6505,7.0505,-1.1501,2.0502
335.9375,-1.3501,-4.7504,-10.5508,-8.2506,1.3501,-3.4503,-7.4506,-7.3506,-4.0503,-1.3501,2.0502,2.8502,3.0502,7.4506,2.0502,5.6504,5.7504,-4.7504,-1.0501
339.8438,-1.7501,-5.4504,-11.3509,-9.5507,0.0500,-5.0504,-7.8506,-8.8507,-4.6504,-0.8501,0.6500,2.4502,1.9501,6.0505,4.3503,3.1502,3.6503,-6.3505,-3.0502
343.7500,-0.6500,-4.2503,-9.0507,-8.3506,-0.6500,-4.3503,-5.6504,-7.9506,-2.7502,0.8501,0.2500,2.1502,1.1501,4.4503,5.7504,0.2500,1.0501,-4.9504,-3.3503
347.6562,1.7501,-1.2501,-4.3503,-5.4504,-1.1501,-1.5501,-1.2501,-5.2504,1.0501,3.7503,1.3501,1.6501,0.3500,2.5502,6.5505,-1.7501,-1.2501,-1.1501,-2.6502
351.5625,5.0504,2.6502,1.1501,-2.1502,-1.6501,1.9501,2.6502,-2.0502,5.8504,7.0505,3.2502,0.4500,-0.7501,0.5500,6.9505,-2.6502,-3.4503,3.1502,-2.0502
355.4688,8.3506,6.3505,5.6504,0.1500,-2.5502,5.1504,4.6504,0.2500,9.6507,9.5507,4.9504,-1.3501,-2.5502,-1.5501,6.2505,-2.3502,-5.0504,6.0505,-2.4502
359.3750,10.5508,8.9507,8.1506,1.4501,-3.2502,7.4506,4.5503,1.3501,11.3509,10.3508,5.6504,-3.3503,-4.3503,-3.4503,3.9503,-1.6501,-5.8504,6.3505,-3.4503
363.2812,10.7508,9.8508,8.5507,2.3502,-3.1502,8.9507,4.4503,1.7501,10.4508,9.3507,5.2504,-4.1503,-5.0504,-4.3503,0.4500,-0.7501,-5.3504,4.5503,-3.9503
367.1875,9.2507,9.3507,7.8506,4.0503,-1.4501,10.0508,5.9505,2.1502,7.9506,7.2506,4.3503,-2.6502,-3.6503,-3.4503,-2.9502,0.3500,-3.0502,2.4502,-2.3502
371.0938,6.7505,8.0506,6.9505,7.1505,2.0502,10.5508,8.9507,3.4503,5.0504,5.1504,3.7503,1.2501,0.0500,-0.1500,-5.0504,2.3502,0.9501,1.7501,1.7501
375.0000,4.7504,6.3505,6.4505,11.2509,6.9505,9.8508,11.2509,5.5504,3.1502,4.1503,3.7503,6.7505,5.5504,4.9504,-5.3504,5.5504,6.3505,3.3503,7.5506
378.9062,4.4503,5.0504,6.5505,15.3512,11.8509,7.5506,10.2508,7.6506,3.1502,4.5503,4.6504,12.3509,11.4509,10.6508,-3.8503,9.5507,11.8509,6.8505,13.3510
382.8125,5.8504,4.6504,7.3506,18.0514,15.4512,4.0503,5.2504,8.8507,5.1504,6.2505,6.3505,16.7513,16.3512,15.2512,-1.0501,13.7510,16.5513,11.2509,17.6513
386.7188,8.4506,5.3504,8.7507,18.5514,17.0513,0.8501,-2.1502,8.4506,8.6507,8.3506,8.9507,19.5515,19.5515,17.4513,2.5502,17.1513,19.4515,14.9511,19.6515
390.6250,10.7508,7.3506,10.3508,17.0513,16.3512,-0.4500,-8.5507,6.8505,12.4509,9.9508,12.0509,20.7516,20.5516,17.0513,6.8505,18.7514,20.2515,17.1513,19.3515
394.5312,11.5509,9.8508,11.7509,14.4511,13.9511,0.5500,-10.5508,4.9504,15.2512,10.5508,15.0511,20.4516,19.7515,14.6511,11.8509,18.4514,19.1515,17.4513,17.7514
398.4375,10.5508,11.9509,12.4509,11.9509,10.6508,3.4503,-6.9505,4.1503,15.8512,10.3508,17.0513,18.7514,17.0513,11.5509,17.2513,16.5513,15.9512,16.0512,15.3512
402.3438,8.2506,12.7510,12.0509,10.0508,7.1505,6.5505,0.1500,4.8504,14.0511,9.5507,16.8513,15.2512,12.7510,8.4506,21.6517,13.6510,10.7508,13.3510,12.2509
406.2500,5.7504,11.5509,10.5508,8.5507,3.5503,8.0506,7.2506,6.4505,10.4508,8.4506,13.8511,10.0508,6.5505,5.4504,22.6517,10.0508,3.7503,9.6507,8.0506
410.1562,3.9503,8.6507,8.1506,6.3505,-0.2500,7.2506,11.2509,7.7506,5.8504,7.3506,8.3506,3.3503,-1.1501,1.7501,18.6514,5.3504,-4.2503,5.1504,2.4502
414.0625,3.2502,4.7504,5.1504,2.5502,-4.4503,4.5503,11.0508,7.4506,1.3501,6.1505,1.7501,-3.6503,-9.7507,-2.8502,10.8508,-0.2500,-12.2509,0.1500,-4.0503
417.9688,3.6503,0.8501,2.1502,-2.8502,-8.4506,1.3501,7.9506,5.0504,-1.8501,4.9504,-3.5503,-9.9508,-17.4513,-8.4506,2.5502,-6.4505,-18.3514,-4.9504,-10.6508
421.8750,4.5503,-2.1502,-0.5500,-9.1507,-11.5509,-0.9501,4.2503,1.1501,-3.5503,3.5503,-6.1505,-14.1511,-22.4517,-13.5510,-2.7502,-11.8509,-21.2516,-9.5507,-15.8512
425.7812,5.1504,-4.0503,-3.1502,-14.5511,-13.0510,-2.1502,1.3501,-2.9502,-3.7503,2.0502,-5.5504,-15.5512,-23.5518,-16.6513,-4.4503,-15.1512,-20.1515,-12.8510,-18.5514
429.6875,4.7504,-4.6504,-5.3504,-17.5513,-12.6510,-2.3502,-0.2500,-6.1505,-3.1502,0.0500,-3.1502,-14.1511,-20.8516,-16.7513,-4.4503,-15.3512,-15.6512,-13.8511,-18.3514
433.5938,3.1502,-4.5503,-7.1505,-17.0513,-10.5508,-2.0502,-1.1501,-7.5506,-2.4502,-1.9501,-0.9501,-10.6508,-15.3512,-13.8511,-5.2504,-12.5510,-9.4507,-12.5510,-15.7512
437.5000,1.1501,-3.9503,-7.9506,-13.4510,-7.5506,-1.6501,-1.1501,-6.9505,-2.0502,-3.7503,-0.5500,-6.5505,-8.8507,-9.1507,-8.1506,-7.5506,-3.2502,-9.2507,-11.4509
441.4062,-0.2500,-3.1502,-7.0505,-7.7506,-4.0503,-1.2501,0.0500,-4.8504,-2.0502,-4.6504,-2.0502,-3.2502,-2.7502,-3.8503,-11.7509,-1.8501,1.5501,-5.0504,-6.4505
445.3125,-0.7501,-2.3502,-4.2503,-1.6501,-0.6500,-0.4500,2.2502,-2.1502,-2.1502,-4.4503,-4.2503,-1.7501,1.8501,0.3500,-13.5510,2.8502,4.4503,-1.2501,-1.4501
449.2188,-0.1500,-1.6501,-0.1500,3.1502,1.9501,0.6500,4.9504,0.1500,-2.1502,-3.3503,-5.8504,-1.9501,4.8504,3.0502,-11.8509,5.5504,5.7504,1.1501,2.6502
453.1250,0.8501,-0.9501,3.7503,5.7504,3.3503,2.1502,6.5505,1.2501,-1.8501,-1.5501,-5.8504,-2.8502,6.0505,3.8503,-6.5505,6.0505,5.5504,2.1502,5.2504
457.0312,1.9501,-0.3500,6.1505,5.6504,2.8502,3.1502,5.6504,0.8501,-1.0501,0.5500,-4.0503,-3.3503,5.5504,2.8502,0.5500,5.2504,4.4503,2.1502,5.6504
460.9375,2.9502,0.0500,5.6504,3.0502,0.5500,3.2502,1.9501,-0.9501,0.0500,3.2502,-0.9501,-2.4502,3.6503,0.6500,7.4506,4.2503,2.6502,1.6501,3.6503
464.8438,4.1503,0.4500,2.3502,-1.0501,-2.7502,2.2502,-3.5503,-3.7503,1.6501,6.2505,2.4502,-0.3500,0.5500,-1.9501,12.4509,3.4503,0.4500,1.3501,0.0500
468.7500,5.6504,0.7501,-2.8502,-5.7504,-5.8504,0.4500,-8.5507,-6.7505,3.3503,8.9507,5.4504,1.8501,-2.6502,-4.4503,14.9511,2.7502,-1.6501,1.1501,-4.2503
472.6562,7.1505,0.7501,-7.9506,-9.8508,-7.1505,-1.4501,-10.9508,-8.7507,4.3503,10.6508,7.4506,3.1502,-5.3504,-5.6504,15.2512,1.7501,-3.1502,0.5500,-7.4506
476.5625,8.1506,0.4500,-10.8508,-12.1509,-5.7504,-2.6502,-9.5507,-9.1507,4.5503,10.5508,8.0506,2.9502,-6.3505,-4.8504,14.1511,0.3500,-3.5503,-0.6500,-8.2506
480.4688,8.2506,0.2500,-10.3508,-11.7509,-1.7501,-2.3502,-4.9504,-7.2506,3.7503,8.7507,7.4506,1.7501,-5.2504,-2.0502,12.5510,-1.2501,-2.7502,-2.1502,-5.9505
484.3750,7.6506,0.4500,-6.4505,-8.6507,3.8503,-0.3500,1.1501,-3.1502,2.6502,6.1505,6.4505,0.6500,-2.1502,2.1502,11.4509,-2.6502,-0.8501,-3.1502,-1.2501
488.2812,6.6505,1.4501,-0.2500,-3.3503,9.5507,2.7502,6.7505,2.3502,2.1502,4.0503,5.7504,0.9501,2.0502,6.8505,11.2509,-2.9502,1.5501,-2.7502,4.3503
492.1875,5.5504,2.8502,5.8504,2.5502,13.7510,5.7504,9.5507,7.9506,2.3502,3.2502,5.4504,2.7502,6.1505,10.4508,11.4509,-2.2502,3.7503,-0.7501,9.1507
496.0938,4.3503,3.7503,10.0508,7.7506,15.3512,6.8505,8.9507,12.0509,3.1502,3.2502,4.9504,4.8504,9.0507,12.0509,10.6508,-1.0501,4.9504,2.1502,11.7509
500.0000,2.4502,3.4503,11.0508,10.7508,14.0511,5.0504,5.5504,13.3510,3.5503,2.8502,3.4503,5.7504,9.9508,11.0508,7.5506,-0.0500,4.7504,4.8504,11.5509
503.9062,-0.2500,1.5501,8.5507,11.3509,10.6508,0.5500,1.6501,11.7509,2.7502,0.8501,0.4500,4.0503,8.8507,7.8506,1.2501,-0.4500,3.3503,6.0505,9.0507
507.8125,-3.7503,-1.3501,3.7503,9.7507,6.2505,-4.6504,-0.2500,7.8506,0.3500,-3.1502,-3.7503,0.0500,6.2505,3.4503,-7.1505,-2.8502,1.1501,4.9504,5.5504
511.7188,-7.2506,-4.5503,-1.9501,6.4505,1.9501,-8.3506,0.6500,2.8502,-3.2502,-8.5507,-8.5507,-5.5504,2.7502,-1.0501,-15.6512,-7.1505,-1.3501,1.8501,2.1502
515.6250,-9.9508,-7.2506,-7.4506,2.1502,-1.4501,-9.1507,2.9502,-1.9501,-7.5506,-13.5510,-12.5510,-10.5508,-1.1501,-4.8504,-21.0516,-11.9509,-4.2503,-2.6502,-0.7501
519.5312,-11.3509,-9.1507,-12.0509,-2.3502,-3.8503,-7.9506,3.4503,-6.0505,-11.5509,-16.5513,-14.7511,-13.4510,-5.2504,-7.2506,-20.7516,-14.9511,-7.1505,-7.4506,-3.3503
523.4375,-11.5509,-10.4508,-15.3512,-6.4505,-5.1504,-6.8505,-0.1500,-8.8507,-14.1511,-16.4513,-14.4511,-13.2510,-8.9507,-7.9506,-14.4511,-13.9511,-9.4507,-11.3509,-5.7504
527.3438,-10.9508,-11.0508,-16.8513,-9.2507,-5.3504,-7.4506,-7.5506,-10.1508,-14.6511,-13.7510,-11.9509,-10.2508,-11.5509,-6.9505,-4.6504,-8.6507,-10.3508,-13.1510,-7.7506
531.2500,-9.9508,-10.9508,-16.4513,-9.8508,-4.3503,-9.5507,-15.6512,-9.9508,-13.1510,-9.2507,-7.9506,-5.8504,-12.2509,-4.3503,4.1503,-0.7501,-9.0507,-12.8510,-8.5507
535.1562,-8.6507,-10.0508,-13.8511,-8.4506,-2.2502,-11.3509,-20.4516,-8.3506,-10.2508,-4.6504,-4.0503,-2.1502,-10.6508,-0.7501,8.3506,6.9505,-5.6504,-10.5508,-7.6506
539.0625,-6.9505,-8.3506,-9.4507,-5.3504,0.5500,-11.0508,-19.1515,-6.0505,-7.1505,-0.8501,-1.3501,-0.6500,-7.2506,2.9502,6.9505,12.2509,-0.9501,-7.3506,-4.5503
542.9688,-4.7504,-5.9505,-4.0503,-1.5501,3.5503,-8.1506,-12.1509,-3.1502,-4.5503,1.1501,-0.3500,-1.3501,-2.8502,6.3505,2.5502,14.3511,3.4503,-4.3503,0.0500
546.8750,-2.2502,-3.3503,0.9501,2.0502,6.0505,-3.6503,-2.0502,-0.1500,-2.9502,1.5501,-0.5500,-3.0502,1.3501,8.8507,-1.1501,13.8511,6.7505,-2.1502,5.0504
550.7812,-0.5500,-1.0501,4.5503,5.0504,7.4506,0.1500,6.9505,2.6502,-2.1502,0.7501,-1.2501,-3.9503,4.7504,10.1508,-1.9501,11.3509,8.1506,-0.8501,8.9507
554.6875,-0.1500,0.4500,5.7504,7.4506,7.5506,1.9501,11.9509,5.4504,-1.9501,-0.5500,-1.6501,-3.0502,6.9505,10.2508,0.1500,7.2506,8.1506,-0.0500,10.9508
558.5938,-1.1501,1.1501,4.7504,8.9507,6.5505,1.1501,11.8509,7.7506,-1.7501,-1.9501,-1.0501,0.0500,8.3506,9.4507,3.9503,2.1502,7.5506,0.5500,10.9508
562.5000,-2.6502,1.2501,2.6502,9.7507,4.7504,-1.0501,8.3506,9.1507,-0.8501,-2.5502,0.8501,4.6504,9.4507,7.6506,8.1506,-1.9501,7.2506,1.5501,9.6507
566.4062,-3.3503,1.5501,1.1501,9.6507,2.8502,-2.8502,3.8503,9.4507,0.7501,-1.6501,4.4503,10.1508,10.6508,5.2504,12.2509,-2.8502,7.7506,3.2502,8.1506
570.3125,-2.4502,2.6502,1.4501,8.8507,1.2501,-2.5502,0.5500,8.6507,3.4503,0.5500,8.8507,15.1512,11.8509,2.7502,15.8512,0.5500,8.7507,5.6504,7.1505
574.2188,-0.1500,4.3503,3.7503,7.5506,0.2500,-0.1500,-0.6500,7.1505,6.6505,3.5503,12.9510,18.4514,12.5510,0.7501,17.8514,6.5505,9.5507,8.6507,6.7505
578.1250,1.8501,5.9505,6.9505,6.1505,0.0500,2.7502,-0.4500,5.4504,9.1507,5.9505,14.7511,18.8514,12.0509,0.0500,16.7513,11.0508,9.3507,11.6509,6.5505
582.0312,2.0502,6.1505,9.4507,4.8504,0.3500,3.6503,0.3500,4.1503,10.1508,6.5505,13.2510,15.8512,10.3508,0.5500,11.9509,10.4508,7.8506,13.5510,5.8504
585.9375,-0.1500,4.3503,9.8508,3.8503,1.7501,0.8501,1.0501,3.5503,9.0507,4.6504,8.8507,10.6508,8.0506,2.6502,4.7504,4.3503,5.9505,13.5510,5.0504
589.8438,-4.4503,0.8501,8.0506,3.3503,3.9503,-5.4504,0.6500,3.6503,5.9505,0.8501,3.1502,5.2504,6.2505,5.6504,-1.5501,-3.8503,4.7504,11.5509,4.6504
593.7500,-8.8507,-3.0502,4.5503,3.6503,6.7505,-13.0510,-1.1501,4.3503,1.8501,-3.1502,-1.3501,1.8501,6.0505,8.9507,-4.3503,-9.6507,5.5504,8.0506,5.2504
597.6562,-11.7509,-6.3505,0.7501,4.5503,9.5507,-18.6514,-4.2503,5.1504,-1.9501,-6.1505,-3.2502,1.1501,7.4506,11.5509,-2.1502,-9.9508,8.0506,4.0503,6.7505
601.5625,-12.7510,-8.0506,-2.1502,6.1505,11.5509,-20.1515,-7.7506,5.9505,-4.8504,-7.4506,-2.8502,2.0502,9.9508,12.8510,3.7503,-4.9504,11.1509,0.6500,8.4506
605.4688,-12.6510,-8.3506,-3.6503,8.2506,12.2509,-17.6513,-9.8508,6.8505,-6.2505,-7.5506,-1.2501,2.9502,11.9509,12.6510,10.6508,2.4502,13.1510,-1.2501,9.3507
609.3750,-12.5510,-8.0506,-3.4503,10.4508,11.5509,-13.2510,-9.5507,7.7506,-6.2505,-7.3506,-0.0500,2.5502,12.5510,11.0508,14.7511,8.8507,12.8510,-1.6501,8.9507
613.2812,-12.8510,-7.6506,-2.1502,12.0509,9.5507,-9.6507,-6.5505,8.5507,-5.3504,-7.1505,-0.2500,0.7501,10.9508,8.1506,13.8511,11.8509,10.0508,-0.6500,6.8505
617.1875,-12.6510,-7.5506,-0.3500,12.3509,6.7505,-8.7507,-1.7501,8.8507,-3.9503,-7.1505,-1.8501,-1.4501,7.4506,4.2503,7.5506,10.8508,5.2504,0.6500,3.7503
621.0938,-10.9508,-7.4506,0.9501,10.7508,3.4503,-10.0508,2.3502,7.7506,-2.3502,-6.8505,-3.6503,-2.9502,2.8502,-0.2500,-1.3501,6.6505,-0.1500,1.7501,0.1500
625.0000,-7.2506,-6.7505,1.5501,7.0505,0.2500,-11.3509,4.1503,5.1504,-0.6500,-5.6504,-4.3503,-2.8502,-1.7501,-4.8504,-9.2507,0.8501,-5.3504,2.2502,-3.1502
628.9062,-2.1502,-4.8504,1.6501,2.2502,-2.2502,-10.4508,2.6502,1.2501,1.1501,-3.1502,-3.0502,-1.1501,-5.4504,-8.5507,-12.6510,-4.3503,-9.2507,2.3502,-5.7504
632.8125,2.7502,-1.9501,1.7501,-2.2502,-3.7503,-6.6505,-0.9501,-2.6502,3.5503,0.1500,0.1500,1.3501,-7.4506,-10.3508,-10.4508,-7.7506,-11.3509,2.7502,-7.1505
636.7188,6.3505,1.3501,2.7502,-5.4504,-3.9503,-1.4501,-4.5503,-5.6504,6.4505,3.8503,4.6504,3.8503,-7.5506,-10.1508,-4.4503,-8.1506,-11.6509,3.8503,-7.3506
640.6250,7.5506,4.1503,4.6504,-6.7505,-3.3503,2.6502,-6.1505,-7.1505,9.3507,6.4505,8.7507,5.4504,-6.2505,-8.5507,2.2502,-6.0505,-10.4508,5.4504,-6.5505
644.5312,6.1505,5.5504,6.6505,-6.4505,-2.6502,3.8503,-5.5504,-7.1505,11.3509,7.1505,11.3509,5.6504,-4.2503,-6.5505,7.3506,-2.5502,-8.6507,6.6505,-4.9504
648.4375,3.0502,5.2504,7.7506,-5.3504,-2.4502,2.0502,-3.8503,-6.3505,11.6509,5.7504,11.5509,4.5503,-2.5502,-5.2504,9.8508,0.7501,-6.6505,6.8505,-3.1502
652.3438,-0.1500,3.8503,7.2506,-3.7503,-2.8502,-0.6500,-2.5502,-5.3504,9.9508,3.2502,9.6507,2.8502,-1.3501,-4.7504,10.9508,3.1502,-4.8504,5.5504,-1.2501
656.2500,-2.1502,2.4502,5.5504,-1.8501,-3.4503,-2.1502,-2.2502,-4.3503,6.7505,0.9501,6.8505,1.4501,-0.5500,-4.5503,12.0509,4.4503,-2.9502,3.6503,0.6500
660.1562,-2.1502,1.9501,3.3503,0.5500,-3.4503,-1.0501,-2.3502,-3.2502,3.3503,0.0500,3.8503,0.6500,0.2500,-3.5503,13.0510,4.1503,-0.6500,1.9501,2.7502
664.0625,-0.2500,2.6502,1.7501,3.3503,-2.2502,2.1502,-1.4501,-2.0502,0.9501,0.3500,1.5501,0.4500,1.7501,-1.6501,11.9509,2.2502,2.0502,1.2501,4.6504
667.9688,2.3502,4.0503,1.2501,5.8504,-0.1500,5.3504,1.0501,-0.8501,0.0500,1.4501,-0.0500,0.0500,3.4503,0.6500,6.8505,-1.1501,4.8504,1.6501,5.8504
671.8750,4.5503,5.3504,1.8501,7.1505,1.8501,6.5505,4.6504,-0.1500,0.6500,1.9501,-1.0501,-0.5500,4.8504,2.6502,-2.0502,-5.2504,6.9505,2.8502,6.0505
675.7812,5.3504,6.0505,3.4503,6.8505,3.2502,4.8504,7.6506,-0.2500,2.2502,1.5501,-1.2501,-1.2501,5.2504,3.2502,-11.7509,-8.4506,7.4506,4.0503,5.3504
679.6875,4.5503,5.8504,5.1504,4.8504,3.5503,1.1501,8.2506,-0.7501,4.0503,0.5500,-0.3500,-1.3501,4.5503,2.4502,-17.7514,-9.2507,6.2505,4.8504,4.0503
683.5938,2.7502,5.1504,6.5505,2.2502,3.1502,-2.1502,6.2505,-1.2501,5.4504,-0.3500,1.4501,-0.3500,2.9502,1.1501,-17.2513,-7.1505,3.8503,5.1504,2.5502
687.5000,0.8501,4.4503,7.1505,-0.0500,2.5502,-3.1502,2.9502,-0.7501,6.1505,-0.5500,3.7503,1.1501,1.0501,0.2500,-10.8508,-2.5502,1.4501,5.0504,1.5501
691.4062,-0.4500,4.1503,6.5505,-1.3501,2.1502,-0.7501,0.2500,0.6500,6.0505,-0.2500,5.4504,2.5502,-0.3500,0.5500,-1.7501,2.6502,0.0500,4.5503,0.9501
695.3125,-1.0501,4.1503,4.9504,-1.7501,1.9501,3.8503,-0.4500,2.6502,4.8504,0.0500,5.7504,2.5502,-1.5501,1.5501,5.5504,6.6505,-0.1500,3.5503,0.4500
699.2188,-1.3501,3.8503,2.2502,-1.9501,1.4501,8.4506,0.4500,4.3503,2.4502,-0.1500,3.9503,0.7501,-2.7502,2.3502,8.2506,7.7506,0.0500,1.4501,-0.6500
703.1250,-1.7501,2.2502,-1.3501,-2.8502,0.4500,10.5508,1.9501,4.5503,-1.4501,-1.0501,-0.0500,-2.5502,-4.5503,2.1502,5.3504,5.5504,-0.3500,-1.9501,-3.0502
707.0312,-2.8502,-0.8501,-5.7504,-4.7504,-0.9501,9.2507,2.3502,3.0502,-6.6505,-2.5502,-5.6504,-6.5505,-6.8505,1.0501,-1.3501,1.1501,-2.0502,-6.6505,-6.4505
710.9375,-4.8504,-5.5504,-10.5508,-7.5506,-2.4502,5.2504,0.6500,0.2500,-12.3509,-4.1503,-11.6509,-10.0508,-9.2507,-0.5500,-8.7507,-3.8503,-4.8504,-11.8509,-10.0508
714.8438,-7.7506,-10.5508,-14.8511,-10.3508,-3.3503,0.2500,-2.8502,-2.7502,-17.6513,-6.1505,-16.7513,-12.2509,-10.8508,-1.8501,-13.6510,-8.1506,-7.6506,-16.5513,-12.5510
718.7500,-11.1509,-14.3511,-17.7514,-11.9509,-3.4503,-4.0503,-7.1505,-5.1504,-21.2516,-8.5507,-19.6515,-13.1510,-11.2509,-2.6502,-14.7511,-10.9508,-9.5507,-19.7515,-13.0510
722.6562,-14.0511,-15.7512,-18.3514,-11.7509,-2.7502,-6.8505,-10.5508,-5.9505,-22.5517,-11.1509,-20.2515,-13.0510,-10.5508,-2.9502,-12.9510,-11.5509,-10.0508,-20.9516,-11.3509
726.5625,-15.2512,-14.1511,-16.5513,-9.7507,-1.9501,-7.9506,-11.3509,-5.2504,-21.5516,-13.3510,-18.7514,-12.1509,-9.2507,-3.0502,-10.3508,-9.6507,-9.3507,-19.8515,-8.4506
730.4688,-14.0511,-10.0508,-12.9510,-6.5505,-1.3501,-7.3506,-8.6507,-3.6503,-18.5514,-13.8511,-16.1512,-10.4508,-7.9506,-3.3503,-9.2507,-5.6504,-8.0506,-16.9513,-5.5504
734.3750,-10.3508,-4.8504,-9.0507,-3.5503,-1.2501,-5.4504,-3.2502,-1.7501,-14.2511,-12.0509,-13.0510,-8.1506,-6.9505,-3.6503,-10.8508,-0.4500,-6.3505,-12.8510,-3.8503
738.2812,-5.0504,-0.0500,-5.6504,-1.5501,-1.7501,-2.5502,2.7502,-0.5500,-9.4507,-7.7506,-10.2508,-5.2504,-6.2505,-4.1503,-13.8511,4.1503,-4.6504,-8.5507,-3.6503
742.1875,0.5500,3.3503,-3.1502,-0.9501,-2.5502,0.6500,6.9505,-0.2500,-4.7504,-2.2502,-7.4506,-2.4502,-5.5504,-4.8504,-16.2512,7.3506,-3.0502,-4.8504,-4.2503
746.0938,5.2504,5.0504,-1.4501,-1.3501,-3.3503,3.6503,7.5506,-0.5500,-0.4500,2.7502,-4.5503,-0.4500,-4.7504,-5.5504,-16.2512,8.2506,-1.8501,-2.2502,-4.7504
750.0000,8.2506,5.2504,-0.0500,-2.0502,-3.7503,5.8504,5.0504,-1.0501,2.7502,5.9505,-1.5501,0.1500,-3.8503,-6.1505,-13.1510,6.9505,-1.3501,-0.7501,-4.2503
753.9062,9.0507,4.3503,0.9501,-2.4502,-3.8503,6.9505,1.2501,-1.4501,4.7504,6.6505,1.1501,-0.4500,-3.2502,-6.5505,-7.6506,3.7503,-1.9501,-0.4500,-2.7502
757.8125,8.2506,2.8502,1.3501,-2.6502,-3.8503,7.0505,-1.5501,-1.7501,4.8504,5.2504,3.0502,-1.8501,-3.2502,-6.5505,-1.2501,-0.3500,-3.4503,-0.8501,-1.0501
761.7188,6.4505,1.0501,0.3500,-3.0502,-3.9503,6.6505,-2.0502,-2.1502,3.2502,3.0502,3.6503,-3.3503,-3.9503,-6.1505,4.3503,-4.0503,-5.1504,-1.9501,-0.0500
765.6250,4.3503,-0.7501,-1.8501,-4.1503,-4.2503,6.2505,-0.6500,-2.7502,0.4500,1.0501,2.7502,-4.0503,-4.8504,-5.1504,7.6506,-6.0505,-6.1505,-3.2502,-0.3500
769.5312,2.2502,-2.4502,-4.9504,-5.9505,-4.7504,5.9505,1.4501,-3.3503,-2.3502,-0.1500,0.8501,-3.7503,-5.5504,-3.9503,7.5506,-5.1504,-5.4504,-4.4503,-1.7501
773.4375,0.4500,-3.7503,-7.7506,-7.9506,-5.2504,5.2504,3.1502,-3.9503,-4.4503,-0.6500,-1.2501,-2.4502,-5.5504,-2.5502,4.2503,-1.6501,-3.0502,-5.1504,-3.6503
777.3438,-1.0501,-4.5503,-8.9507,-9.4507,-5.8504,3.8503,3.8503,-4.1503,-5.2504,-0.6500,-2.6502,-0.7501,-4.9504,-1.7501,-0.5500,3.1502,-0.2500,-5.3504,-5.3504
781.2500,-2.2502,-4.6504,-8.1506,-9.7507,-6.4505,1.4501,4.1503,-3.8503,-4.9504,-0.4500,-3.0502,0.5500,-4.3503,-1.9501,-4.7504,7.3506,1.4501,-5.0504,-6.3505
785.1562,-2.8502,-3.7503,-5.2504,-8.2506,-6.9505,-1.2501,4.6504,-2.8502,-3.8503,-0.1500,-2.4502,0.9501,-4.3503,-3.1502,-6.2505,9.2507,0.9501,-4.3503,-6.5505
789.0625,-2.4502,-1.6501,-0.7501,-4.5503,-6.5505,-3.3503,5.5504,-0.6500,-2.1502,0.2500,-1.1501,0.4500,-4.8504,-4.4503,-3.6503,8.2506,-1.7501,-2.7502,-5.3504
792.9688,-0.8501,1.6501,4.5503,0.9501,-4.5503,-3.1502,6.6505,2.6502,0.2500,1.1501,0.9501,0.0500,-5.1504,-4.7504,2.9502,5.1504,-5.0504,0.0500,-2.5502
796.8750,1.9501,6.1505,10.0508,7.8506,-0.8501,-0.2500,7.1505,6.8505,3.7503,2.7502,4.2503,0.2500,-3.8503,-2.8502,12.3509,1.4501,-6.8505,3.9503,1.7501
800.7812,5.7504,10.7508,14.6511,14.4511,4.1503,4.4503,6.8505,11.0508,8.0506,4.7504,8.1506,1.9501,-0.2500,1.0501,20.8516,-1.3501,-5.5504,8.5507,7.3506
804.6875,9.4507,14.1511,17.1513,19.0515,9.0507,9.0507,5.9505,14.1511,11.9509,6.6505,11.6509,4.4503,4.7504,5.9505,24.1518,-2.6502,-1.4501,12.3509,12.3509
808.5938,11.9509,14.9511,17.0513,20.3516,12.3509,11.5509,5.1504,15.2512,14.1511,8.0506,13.0510,6.5505,9.8508,9.9508,19.1515,-2.2502,3.7503,14.0511,15.2512
812.5000,12.7510,12.9510,14.4511,17.7514,13.1510,10.7508,4.8504,13.9511,13.7510,8.5507,11.4509,7.2506,13.2510,11.6509,6.9505,-0.4500,8.1506,13.2510,15.0511
816.4062,11.4509,8.6507,10.0508,12.0509,11.4509,6.7505,5.2504,10.7508,10.9508,7.7506,7.3506,6.2505,13.8511,10.5508,-7.3506,1.4501,10.0508,10.3508,11.8509
820.3125,8.0506,3.4503,5.2504,5.1504,8.2506,0.9501,5.6504,6.3505,6.8505,5.4504,2.2502,4.2503,12.1509,7.5506,-17.4513,2.6502,9.6507,6.7505,7.2506
824.2188,2.8502,-1.1501,1.0501,-1.1501,4.8504,-4.3503,4.8504,1.8501,2.6502,1.4501,-2.0502,2.2502,9.3507,4.3503,-19.6515,2.4502,7.8506,3.6503,2.8502
828.1250,-3.1502,-4.5503,-2.0502,-5.6504,2.2502,-7.8506,2.1502,-1.7501,-0.6500,-3.2502,-4.8504,1.0501,6.9505,2.2502,-14.8511,1.0501,6.3505,1.4501,0.0500
832.0312,-8.3506,-6.4505,-4.2503,-7.9506,0.8501,-8.5507,-1.8501,-4.5503,-2.9502,-7.5506,-6.0505,0.5500,5.6504,1.9501,-7.7506,-0.4500,6.0505,0.0500,-0.8501
835.9375,-11.0508,-6.9505,-5.6504,-8.3506,0.2500,-7.0505,-5.6504,-6.5505,-4.1503,-9.3507,-6.0505,0.3500,5.4504,2.6502,-3.2502,-1.2501,6.6505,-1.2501,-0.3500
839.8438,-9.9508,-6.4505,-6.3505,-7.5506,-0.3500,-4.3503,-7.1505,-7.9506,-4.4503,-7.7506,-5.3504,0.2500,5.7504,3.1502,-2.7502,-0.7501,7.3506,-2.3502,0.5500
843.7500,-5.2504,-4.8504,-5.9505,-5.9505,-1.5501,-1.3501,-5.5504,-8.9507,-3.9503,-3.0502,-3.9503,0.0500,5.5504,2.4502,-4.4503,0.8501,6.9505,-2.9502,1.4501
847.6562,1.5501,-2.1502,-4.2503,-3.8503,-3.2502,1.4501,-1.7501,-9.2507,-2.5502,3.0502,-1.7501,0.1500,4.6504,0.3500,-4.8504,3.3503,5.0504,-2.4502,1.9501
851.5625,8.2506,1.6501,-1.2501,-1.2501,-4.6504,4.6504,2.0502,-8.5507,-0.1500,8.3506,0.9501,0.9501,3.1502,-2.2502,-1.9501,5.6504,2.1502,-0.6500,2.0502
855.4688,12.8510,6.0505,2.4502,1.5501,-5.1504,8.6507,4.2503,-6.7505,2.6502,10.9508,3.7503,2.1502,1.5501,-4.1503,3.4503,6.8505,-0.7501,2.2502,2.0502
859.3750,14.1511,10.2508,6.3505,4.4503,-4.4503,13.1510,4.4503,-4.0503,5.5504,10.6508,5.7504,3.3503,0.3500,-4.7504,8.5507,6.1505,-3.1502,5.3504,1.8501
863.2812,12.2509,12.8510,9.4507,6.7505,-3.0502,16.8513,3.5503,-0.9501,7.3506,8.0506,6.1505,3.6503,-0.4500,-4.0503,9.9508,2.9502,-4.8504,7.6506,1.4501
867.1875,8.2506,13.0510,11.1509,7.8506,-1.8501,18.0514,2.8502,1.5501,7.4506,4.4503,4.6504,2.5502,-1.2501,-3.0502,6.4505,-2.2502,-6.1505,8.1506,0.6500
871.0938,3.4503,10.9508,11.1509,7.1505,-1.8501,15.8512,2.8502,3.1502,5.7504,1.1501,1.9501,0.1500,-2.5502,-3.0502,0.0500,-7.9506,-7.3506,6.7505,-0.8501
875.0000,-0.3500,7.3506,9.6507,4.7504,-3.3503,11.3509,3.1502,3.4503,3.1502,-0.8501,-0.7501,-2.3502,-4.0503,-4.1503,-5.8504,-12.2509,-8.3506,3.8503,-3.0502
878.9062,-2.3502,3.7503,6.7505,1.0501,-6.0505,6.5505,2.5502,2.3502,0.6500,-1.6501,-2.4502,-4.2503,-5.3504,-6.0505,-8.4506,-13.3510,-8.5507,0.6500,-5.5504
882.8125,-2.2502,1.3501,3.0502,-2.9502,-8.8507,3.4503,0.5500,0.1500,-0.6500,-1.2501,-2.7502,-4.7504,-5.6504,-7.5506,-7.3506,-11.1509,-7.4506,-1.6501,-7.8506
886.7188,-0.8501,0.2500,-0.7501,-6.5505,-11.1509,2.3502,-1.9501,-2.6502,-0.7501,-0.4500,-1.9501,-3.7503,-4.7504,-7.9506,-4.0503,-7.0505,-4.8504,-2.6502,-9.1507
890.6250,0.7501,0.2500,-4.1503,-9.0507,-12.1509,2.2502,-3.4503,-5.8504,0.1500,0.1500,-0.6500,-1.9501,-2.8502,-6.9505,-0.3500,-2.6502,-1.4501,-2.2502,-8.8507
894.5312,2.0502,0.7501,-6.1505,-9.8508,-11.6509,1.9501,-2.6502,-8.5507,1.6501,0.9501,0.7501,0.0500,-0.5500,-4.9504,3.1502,1.2501,1.9501,-0.5500,-6.6505
898.4375,3.1502,1.6501,-5.9505,-8.7507,-9.7507,1.3501,-0.5500,-9.6507,3.3503,2.0502,2.8502,1.8501,1.4501,-2.3502,6.9505,4.7504,4.7504,1.8501,-2.9502
902.3438,4.4503,3.0502,-3.5503,-5.4504,-6.6505,1.6501,1.1501,-8.6507,5.1504,4.2503,5.7504,3.9503,3.1502,0.1500,11.0508,8.2506,6.3505,4.5503,1.6501
906.2500,6.3505,4.8504,0.4500,-0.7501,-3.0502,4.2503,1.4501,-5.1504,6.6505,7.3506,8.8507,6.4505,4.5503,2.7502,14.4511,11.3509,6.7505,6.9505,6.0505
910.1562,8.4506,6.3505,4.6504,4.3503,0.2500,8.3506,0.7501,-0.1500,7.3506,10.4508,11.0508,9.0507,5.7504,4.9504,15.5512,13.0510,6.1505,8.2506,9.1507
914.0625,9.5507,6.6505,7.3506,8.2506,2.7502,11.5509,0.2500,4.7504,6.9505,11.8509,11.2509,10.6508,6.4505,6.6505,13.2510,11.6509,5.0504,7.8506,9.7507
917.9688,8.9507,5.0504,7.5506,9.4507,3.7503,11.1509,0.9501,7.8506,4.9504,10.3508,8.5507,10.2508,6.4505,7.3506,8.1506,6.5505,3.8503,5.4504,7.7506
921.8750,6.5505,1.8501,5.4504,7.7506,3.4503,6.2505,2.8502,8.1506,2.0502,6.1505,3.7503,7.5506,5.6504,6.8505,1.6501,-1.1501,3.0502,1.5501,3.7503
925.7812,3.3503,-1.3501,2.6502,4.2503,2.5502,-0.7501,4.6504,6.1505,-0.6500,0.7501,-1.4501,3.2502,4.4503,5.6504,-4.1503,-9.1507,3.3503,-2.3502,-0.2500
929.6875,0.8501,-3.1502,0.6500,0.9501,2.1502,-6.6505,5.1504,3.3503,-2.1502,-3.6503,-5.4504,-1.2501,3.4503,4.5503,-7.9506,-13.9511,4.6504,-4.7504,-2.7502
933.5938,-0.0500,-2.5502,0.7501,-0.0500,3.2502,-8.5507,4.0503,1.6501,-1.8501,-5.6504,-6.7505,-4.4503,3.1502,4.2503,-8.3506,-13.4510,6.5505,-4.5503,-2.5502
937.5000,0.3500,0.0500,2.6502,1.5501,5.7504,-5.8504,2.1502,2.1502,0.0500,-4.7504,-5.0504,-5.3504,3.8503,5.3504,-4.6504,-8.0506,8.3506,-1.9501,0.2500
941.4062,1.5501,3.0502,4.7504,5.2504,9.1507,-0.5500,0.8501,4.7504,2.2502,-2.0502,-1.2501,-4.0503,5.0504,7.3506,2.7502,-0.3500,9.4507,1.5501,4.1503
945.3125,2.5502,4.7504,5.5504,9.0507,12.1509,4.2503,0.7501,8.1506,3.6503,0.8501,2.3502,-1.5501,6.1505,9.5507,11.4509,5.9505,9.3507,4.1503,7.5506
949.2188,2.5502,3.8503,3.9503,10.8508,13.6510,5.8504,1.2501,10.5508,3.1502,2.5502,4.0503,0.1500,6.3505,10.6508,17.2513,8.4506,8.2506,4.2503,8.7507
953.1250,1.2501,0.2500,0.4500,9.6507,12.9510,3.3503,0.8501,10.4508,0.8501,2.5502,2.7502,0.0500,5.1504,9.9508,16.2512,7.0505,6.3505,1.5501,7.3506
957.0312,-0.4500,-4.4503,-3.6503,5.5504,10.2508,-1.7501,-1.3501,7.4506,-2.1502,1.0501,-0.7501,-1.6501,2.6502,7.1505,8.1506,4.1503,3.7503,-2.4502,4.0503
960.9375,-1.8501,-8.0506,-6.4505,0.0500,6.1505,-6.4505,-4.5503,2.3502,-4.1503,-0.3500,-4.0503,-3.8503,-0.3500,2.6502,-2.9502,2.3502,0.8501,-5.8504,0.3500
964.8438,-1.8501,-8.2506,-6.4505,-4.6504,1.4501,-7.7506,-6.4505,-2.9502,-3.6503,-0.6500,-4.4503,-4.3503,-3.1502,-2.2502,-11.3509,3.1502,-2.1502,-6.1505,-2.1502
968.7500,0.0500,-4.3503,-3.4503,-6.9505,-2.8502,-4.7504,-5.2504,-6.9505,-0.2500,0.9501,-0.6500,-1.8501,-4.7504,-6.5505,-12.2509,5.6504,-5.2504,-2.5502,-2.4502
972.6562,3.0502,2.1502,1.4501,-6.2505,-6.1505,0.8501,-0.7501,-8.5507,5.0504,4.3503,6.3505,3.6503,-4.5503,-9.1507,-5.4504,7.6506,-7.6506,3.9503,-0.4500
976.5625,6.2505,8.4506,6.5505,-3.2502,-8.0506,5.5504,4.8504,-7.7506,10.3508,8.0506,13.6510,10.1508,-2.9502,-9.6507,4.5503,7.6506,-8.7507,11.0508,3.0502
980.4688,7.8506,11.3509,9.3507,0.0500,-8.5507,5.9505,9.0507,-5.6504,13.4510,10.1508,17.7514,14.8511,-0.6500,-8.4506,11.8509,4.9504,-7.9506,15.5512,6.3505
984.3750,6.7505,9.0507,8.3506,1.8501,-8.2506,1.1501,9.1507,-3.8503,12.6510,9.4507,16.3512,15.3512,1.2501,-6.3505,12.0509,0.4500,-5.7504,15.1512,7.5506
988.2812,2.8502,2.3502,3.9503,1.1501,-7.7506,-7.0505,5.1504,-3.1502,7.9506,5.6504,9.7507,10.8508,1.7501,-4.4503,5.0504,-4.5503,-3.0502,9.7507,5.4504
992.1875,-2.5502,-5.8504,-2.1502,-1.5501,-7.3506,-15.2512,-0.8501,-3.6503,0.8501,-0.0500,0.5500,2.8502,0.4500,-3.2502,-5.1504,-9.0507,-1.0501,1.3501,0.6500
996.0938,-8.0506,-12.2509,-7.1505,-5.0504,-7.0505,-20.1515,-6.1505,-4.8504,-5.8504,-6.2505,-7.2506,-5.4504,-1.8501,-2.9502,-13.6510,-11.9509,-0.2500,-6.6505,-4.9504
1000.0000,-11.8509,-14.4511,-9.0507,-7.6506,-6.7505,-20.3516,-8.0506,-5.5504,-10.0508,-10.8508,-10.8508,-11.0508,-4.6504,-3.4503,-16.5513,-12.6510,-0.6500,-11.4509,-9.1507
1003.9062,-12.9510,-12.2509,-7.2506,-8.5507,-6.3505,-16.2512,-6.5505,-5.3504,-10.5508,-12.9510,-9.5507,-12.4509,-6.9505,-4.4503,-13.7510,-11.0508,-1.7501,-11.8509,-10.6508
1007.8125,-11.2509,-7.3506,-3.5503,-7.8506,-6.0505,-9.3507,-3.7503,-4.5503,-7.8506,-12.1509,-5.0504,-10.0508,-8.4506,-5.6504,-7.6506,-7.5506,-3.2502,-8.9507,-9.7507
1011.7188,-7.4506,-2.2502,-0.1500,-6.7505,-5.9505,-1.7501,-2.0502,-3.7503,-3.6503,-8.9507,-0.2500,-5.9505,-9.1507,-7.1505,-1.5501,-3.2502,-4.4503,-4.7504,-7.8506
1015.6250,-2.7502,0.8501,1.1501,-5.9505,-6.1505,4.5503,-2.9502,-3.4503,-0.1500,-4.6504,2.3502,-2.1502,-8.9507,-8.2506,2.3502,0.9501,-5.2504,-1.3501,-6.1505
1019.5312,1.0501,1.3501,0.3500,-5.4504,-6.0505,7.4506,-5.5504,-3.6503,1.4501,-0.7501,2.4502,0.4500,-7.5506,-8.1506,4.0503,4.5503,-5.0504,0.1500,-5.0504
1023.4375,3.1502,-0.1500,-0.9501,-4.6504,-4.8504,5.7504,-7.9506,-3.5503,1.2501,1.1501,1.2501,2.1502,-4.5503,-6.3505,4.5503,7.2506,-3.5503,0.5500,-3.5503
1027.3438,2.9502,-2.3502,-1.2501,-2.7502,-2.3502,0.0500,-8.4506,-2.6502,0.0500,1.0501,0.3500,3.7503,-0.0500,-2.4502,5.4504,8.4506,-0.5500,0.6500,-0.5500
1031.2500,1.1501,-3.5503,0.2500,0.2500,1.0501,-6.6505,-6.9505,-0.9501,-0.8501,-0.1500,0.6500,5.5504,4.7504,2.6502,6.8505,7.6506,3.1502,1.2501,3.6503
1035.1562,-0.8501,-3.1502,3.0502,3.8503,4.4503,-11.1509,-4.2503,1.1501,-1.3501,-1.5501,1.6501,6.8505,8.6507,7.7506,7.1505,4.8504,6.8505,1.9501,7.8506
1039.0625,-2.3502,-1.3501,5.2504,6.4505,6.7505,-10.8508,-1.5501,2.9502,-1.3501,-1.9501,1.8501,6.5505,10.1508,11.6509,4.6504,1.2501,9.3507,2.1502,9.9508
1042.9688,-3.0502,0.2500,4.8504,7.0505,7.3506,-6.4505,0.5500,3.7503,-1.6501,-1.8501,0.0500,3.9503,8.6507,13.3510,-0.9501,-1.2501,10.1508,0.9501,8.6507
1046.8750,-3.6503,0.5500,1.3501,5.2504,6.1505,-0.7501,1.9501,3.2502,-2.7502,-2.0502,-3.4503,-0.4500,4.8504,12.8510,-8.1506,-1.3501,9.1507,-1.5501,4.0503
1050.7812,-4.4503,-0.9501,-4.0503,1.7501,3.7503,2.4502,2.7502,1.6501,-4.5503,-3.1502,-7.7506,-5.3504,-0.0500,10.4508,-13.8511,0.3500,6.6505,-4.7504,-2.0502
1054.6875,-5.5504,-3.4503,-9.1507,-1.7501,1.1501,1.6501,2.8502,-0.1500,-6.0505,-4.8504,-10.8508,-9.3507,-4.7504,6.9505,-15.6512,1.9501,3.2502,-6.9505,-7.3506
1058.5938,-6.2505,-5.4504,-11.2509,-3.9503,-0.8501,-2.6502,2.5502,-1.4501,-6.1505,-6.1505,-11.6509,-11.3509,-8.0506,2.9502,-13.5510,0.9501,-0.6500,-6.9505,-10.0508
1062.5000,-5.8504,-5.4504,-9.1507,-3.8503,-1.5501,-7.8506,1.9501,-1.2501,-4.1503,-5.7504,-10.1508,-11.1509,-9.0507,-0.7501,-9.2507,-3.0502,-4.3503,-4.2503,-9.4507
1066.4062,-4.3503,-3.5503,-3.6503,-1.4501,-0.8501,-11.1509,0.8501,0.1500,-0.7501,-3.8503,-7.0505,-9.0507,-7.7506,-3.9503,-5.4504,-8.3506,-6.8505,0.0500,-6.0505
1070.3125,-2.2502,-0.6500,2.8502,1.7501,0.7501,-11.1509,-0.6500,2.3502,2.3502,-1.5501,-3.6503,-5.7504,-4.5503,-6.2505,-3.7503,-11.4509,-7.6506,4.1503,-1.5501
1074.2188,-0.6500,1.6501,7.3506,4.3503,2.4502,-7.9506,-2.9502,3.9503,3.6503,-0.2500,-1.1501,-1.9501,-0.6500,-7.4506,-4.0503,-10.3508,-6.5505,6.2505,2.0502
1078.1250,-0.3500,2.5502,7.6506,4.9504,3.0502,-2.6502,-5.4504,4.1503,2.2502,-0.5500,-0.2500,1.4501,2.7502,-7.4506,-5.1504,-5.1504,-4.2503,5.2504,3.6503
1082.0312,-1.2501,1.9501,3.5503,2.9502,2.1502,3.2502,-7.4506,2.7502,-1.3501,-1.9501,-0.6500,3.9503,4.7504,-6.5505,-5.2504,1.4501,-1.6501,1.6501,2.7502
1085.9375,-2.5502,0.5500,-3.2502,-0.6500,0.0500,7.9506,-8.1506,0.1500,-5.3504,-3.2502,-1.7501,5.2504,5.2504,-5.0504,-3.1502,6.7505,0.1500,-2.9502,0.0500
1089.8438,-3.2502,-0.9501,-10.1508,-4.9504,-2.1502,9.6507,-7.4506,-2.7502,-8.0506,-3.3503,-2.3502,5.1504,4.4503,-3.2502,1.6501,8.1506,0.6500,-6.9505,-3.0502
1093.7500,-2.6502,-2.5502,-14.5511,-8.6507,-3.7503,7.6506,-5.7504,-5.6504,-8.4506,-2.2502,-1.8501,4.0503,2.7502,-1.8501,8.1506,5.1504,-0.3500,-9.0507,-5.2504
1097.6562,-1.0501,-4.0503,-15.1512,-10.9508,-4.5503,2.5502,-4.0503,-8.0506,-6.9505,-0.6500,-0.3500,1.9501,0.2500,-1.4501,14.0511,-0.9501,-2.7502,-9.1507,-6.2505
1101.5625,0.7501,-5.2504,-12.2509,-11.7509,-4.7504,-3.1502,-3.4503,-10.0508,-4.6504,0.2500,1.0501,-0.7501,-2.6502,-2.3502,16.0512,-7.8506,-5.7504,-7.8506,-6.4505
1105.4688,1.9501,-5.9505,-7.7506,-11.4509,-5.1504,-6.8505,-4.1503,-11.4509,-2.8502,-0.0500,1.2501,-4.0503,-6.2505,-4.3503,12.0509,-12.8510,-8.2506,-6.1505,-6.8505
1109.3750,1.7501,-6.0505,-3.6503,-10.4508,-6.3505,-7.3506,-5.6504,-12.4509,-2.1502,-1.7501,-0.4500,-7.7506,-10.0508,-6.6505,2.5502,-14.5511,-9.7507,-5.0504,-8.1506
1113.2812,0.1500,-5.3504,-1.4501,-9.6507,-8.5507,-5.2504,-6.6505,-12.8510,-2.8502,-4.2503,-3.9503,-11.6509,-13.7510,-8.9507,-8.9507,-12.7510,-10.2508,-4.9504,-10.2508
1117.1875,-2.2502,-4.4503,-1.7501,-9.2507,-10.9508,-2.7502,-5.8504,-12.4509,-4.3503,-6.3505,-8.0506,-15.3512,-17.0513,-10.4508,-18.3514,-8.5507,-10.5508,-6.3505,-12.4509
1121.0938,-4.4503,-3.6503,-4.0503,-9.3507,-12.6510,-1.3501,-3.3503,-10.9508,-6.3505,-7.1505,-11.4509,-18.3514,-19.4515,-11.1509,-22.4517,-3.8503,-11.1509,-8.7507,-14.1511
1125.0000,-5.4504,-3.4503,-7.5506,-9.4507,-12.8510,-1.9501,-0.3500,-8.4506,-8.2506,-6.3505,-13.1510,-19.8515,-20.3516,-10.7508,-20.5516,-0.5500,-11.9509,-11.4509,-14.6511
1128.9062,-5.0504,-4.1503,-10.6508,-9.0507,-11.2509,-3.4503,1.3501,-5.2504,-9.6507,-4.4503,-12.6510,-18.8514,-18.8514,-9.2507,-14.1511,0.3500,-11.8509,-13.7510,-13.6510
1132.8125,-3.4503,-5.0504,-12.2509,-7.6506,-7.8506,-4.5503,1.2501,-1.8501,-10.3508,-2.3502,-10.3508,-14.9511,-14.7511,-6.7505,-5.9505,-0.1500,-9.8508,-14.5511,-11.0508
1136.7188,-1.8501,-5.8504,-11.7509,-4.9504,-3.4503,-3.9503,0.1500,1.2501,-10.4508,-1.0501,-7.2506,-8.2506,-8.0506,-3.2502,1.1501,-0.5500,-5.4504,-13.4510,-6.9505
1140.6250,-0.9501,-6.0505,-9.5507,-1.2501,1.0501,-1.9501,-0.8501,4.1503,-9.7507,-0.9501,-4.3503,-0.2500,0.0500,1.1501,5.3504,0.9501,0.6500,-10.6508,-2.0502
1144.5312,-1.1501,-5.6504,-6.5505,2.5502,5.1504,0.2500,-0.8501,6.1505,-8.4506,-2.0502,-2.4502,6.9505,7.7506,5.9505,5.9505,4.7504,7.1505,-6.7505,2.7502
1148.4375,-2.2502,-5.0504,-3.7503,5.4504,7.8506,1.6501,-0.0500,7.0505,-6.5505,-3.4503,-1.4501,11.2509,13.3510,9.9508,3.5503,8.8507,11.9509,-2.5502,6.4505
1152.3438,-3.2502,-4.4503,-1.8501,6.5505,8.4506,1.3501,0.6500,6.4505,-4.2503,-4.1503,-1.1501,11.3509,15.2512,12.1509,0.0500,10.3508,13.5510,0.9501,8.1506
1156.2500,-3.7503,-4.0503,-0.5500,5.1504,6.5505,-0.2500,0.9501,4.2503,-2.2502,-3.4503,-0.7501,7.6506,12.5510,11.4509,-2.7502,7.6506,11.0508,3.4503,7.3506
1160.1562,-3.3503,-3.3503,0.4500,1.8501,2.5502,-2.4502,0.2500,0.7501,-0.6500,-1.3501,-0.1500,1.7501,6.1505,7.8506,-3.9503,1.1501,5.1504,4.7504,4.4503
1164.0625,-2.2502,-2.3502,1.5501,-2.0502,-2.1502,-3.9503,-0.7501,-2.7502,0.2500,1.1501,0.2500,-3.8503,-2.0502,2.5502,-3.8503,-6.6505,-2.3502,4.6504,0.3500
1167.9688,-0.5500,-0.8501,2.9502,-4.9504,-5.8504,-3.9503,-1.1501,-4.9504,0.8501,3.2502,0.1500,-7.6506,-9.4507,-2.8502,-3.5503,-13.1510,-9.2507,3.5503,-3.4503
1171.8750,0.9501,0.7501,4.4503,-5.6504,-6.8505,-2.2502,-0.2500,-4.6504,1.2501,3.9503,-0.4500,-8.8507,-13.7510,-6.6505,-3.4503,-16.0512,-13.3510,1.8501,-5.8504
1175.7812,2.0502,2.1502,5.3504,-3.7503,-4.6504,0.2500,1.5501,-1.5501,1.5501,3.3503,-1.5501,-7.8506,-14.0511,-7.8506,-2.9502,-14.8511,-13.7510,-0.1500,-6.1505
1179.6875,2.2502,2.6502,5.2504,0.0500,0.2500,2.7502,3.0502,3.4503,1.2501,2.0502,-2.5502,-5.6504,-10.9508,-6.4505,-1.6501,-9.9508,-11.2509,-2.1502,-4.4503
1183.5938,1.3501,1.7501,3.6503,4.5503,6.3505,4.1503,2.4502,8.9507,0.0500,0.3500,-3.5503,-3.4503,-6.2505,-3.5503,0.0500,-3.2502,-7.4506,-3.8503,-1.6501
1187.5000,-0.4500,-0.3500,0.5500,8.3506,11.9509,3.9503,-0.6500,13.3510,-2.2502,-0.8501,-4.7504,-2.2502,-1.5501,-0.3500,0.3500,2.6502,-4.1503,-4.9504,1.2501
1191.4062,-2.5502,-3.2502,-3.3503,10.6508,15.7512,2.4502,-5.4504,15.3512,-4.8504,-1.6501,-5.8504,-1.6501,1.8501,2.2502,-1.4501,6.0505,-2.0502,-5.2504,3.8503
1195.3125,-3.8503,-5.5504,-6.8505,10.9508,17.2513,0.2500,-9.1507,14.8511,-6.4505,-1.7501,-6.2505,-1.0501,4.1503,3.8503,-4.7504,6.5505,-0.8501,-4.4503,5.6504
1199.2188,-3.7503,-6.3505,-9.1507,9.2507,16.4513,-1.3501,-9.7507,11.7509,-6.2505,-0.9501,-4.9504,0.3500,5.3504,4.2503,-6.9505,5.4504,0.0500,-2.6502,6.4505
1203.1250,-2.0502,-5.2504,-9.6507,5.8504,13.2510,-1.6501,-6.9505,6.9505,-4.2503,0.3500,-1.9501,2.6502,5.4504,3.4503,-5.8504,4.0503,0.7501,-0.5500,5.8504
1207.0312,0.3500,-2.9502,-8.4506,1.2501,8.1506,-0.5500,-2.5502,1.1501,-1.3501,2.0502,1.7501,4.7504,4.0503,1.6501,-1.2501,3.2502,1.3501,0.9501,3.4503
1210.9375,2.6502,-0.4500,-6.3505,-3.4503,1.7501,1.4501,0.8501,-4.3503,1.1501,3.5503,4.8504,5.4504,1.1501,-0.7501,5.4504,2.3502,1.2501,1.5501,-0.4500
1214.8438,3.7503,1.0501,-3.7503,-6.9505,-4.7504,3.3503,1.7501,-8.7507,2.7502,4.3503,6.4505,4.2503,-2.6502,-3.5503,12.2509,0.6500,0.4500,1.3501,-5.0504
1218.7500,3.7503,1.7501,-0.8501,-8.3506,-10.1508,4.1503,0.6500,-11.1509,3.6503,4.3503,6.6505,2.0502,-6.1505,-5.9505,16.7513,-1.8501,-0.8501,1.1501,-8.8507
1222.6562,2.9502,2.0502,2.3502,-7.1505,-13.2510,3.9503,-0.4500,-11.0508,4.5503,3.6503,6.1505,0.2500,-7.9506,-7.7506,17.2513,-4.4503,-2.1502,1.6501,-10.3508
1226.5625,2.2502,2.9502,5.7504,-3.8503,-13.7510,3.5503,0.6500,-8.6507,5.7504,2.5502,5.7504,0.0500,-7.1505,-8.1506,13.2510,-5.3504,-2.6502,3.4503,-8.7507
1230.4688,2.3502,4.7504,8.8507,0.6500,-11.5509,3.6503,4.8504,-4.7504,7.4506,1.9501,5.8504,1.8501,-3.4503,-6.8505,6.3505,-2.8502,-1.5501,5.9505,-4.3503
1234.3750,3.3503,6.8505,11.0508,5.3504,-7.0505,4.3503,10.2508,-0.0500,9.0507,2.2502,6.4505,5.3504,2.3502,-3.3503,0.0500,3.2502,1.5501,8.4506,1.5501
1238.2812,4.6504,8.1506,11.7509,9.3507,-0.7501,5.1504,14.0511,4.4503,9.8508,3.4503,7.3506,9.6507,8.9507,2.1502,-2.5502,11.7509,6.4505,9.9508,7.6506
1242.1875,5.5504,7.5506,10.7508,12.0509,6.0505,4.8504,13.3510,8.2506,9.3507,4.7504,7.7506,13.2510,14.6511,8.8507,-0.4500,18.5514,11.6509,9.8508,12.4509
1246.0938,5.1504,4.9504,8.0506,13.1510,12.2509,2.7502,7.8506,10.6508,7.4506,5.0504,7.0505,14.7511,17.9514,14.7511,3.7503,19.5515,14.9511,8.1506,14.9511
1250.0000,3.3503,1.2501,4.4503,12.7510,16.3512,-0.3500,-0.4500,11.3509,4.6504,3.9503,5.0504,13.5510,17.8514,18.2514,6.3505,12.3509,14.9511,5.5504,14.9511
1253.9062,0.8501,-1.7501,0.9501,11.3509,17.7514,-3.3503,-8.4506,10.4508,1.9501,1.7501,2.5502,9.9508,14.8511,18.5514,5.3504,-0.5500,11.4509,3.3503,13.1510
1257.8125,-1.2501,-3.0502,-1.3501,9.4507,16.4513,-4.5503,-12.8510,8.5507,0.5500,-0.1500,0.8501,5.6504,10.4508,16.2512,2.0502,-13.6510,6.0505,2.4502,10.7508
1261.7188,-2.3502,-2.2502,-1.9501,7.5506,13.4510,-3.3503,-12.7510,6.2505,0.9501,-1.0501,1.1501,2.5502,6.2505,12.4509,-0.4500,-20.4516,0.8501,3.1502,8.6507
1265.6250,-2.0502,-0.2500,-0.9501,5.3504,9.5507,-0.6500,-9.2507,3.6503,2.6502,-0.9501,3.3503,1.3501,3.4503,8.3506,-0.2500,-18.0514,-2.1502,4.7504,7.0505
1269.5312,-0.6500,1.2501,0.7501,2.4502,5.3504,1.8501,-4.6504,0.9501,4.6504,-0.4500,6.0505,1.5501,1.5501,4.1503,2.6502,-8.5507,-2.8502,5.7504,5.0504
1273.4375,0.8501,1.6501,2.3502,-1.2501,0.7501,2.6502,-0.6500,-1.9501,5.6504,-0.4500,7.6506,1.7501,-0.0500,-0.1500,6.4505,2.8502,-1.8501,4.8504,1.8501
1277.3438,2.1502,0.6500,2.8502,-5.9505,-3.9503,1.4501,2.0502,-4.8504,5.1504,-1.0501,7.4506,0.8501,-2.3502,-5.1504,9.1507,10.8508,-0.6500,2.0502,-2.5502
1281.2500,2.9502,-0.6500,2.3502,-10.3508,-9.0507,-0.4500,4.0503,-7.1505,3.1502,-1.7501,5.4504,-0.8501,-5.0504,-10.1508,9.6507,12.6510,-0.2500,-1.6501,-7.4506
1285.1562,2.9502,-1.4501,1.1501,-13.2510,-13.5510,-1.3501,5.5504,-8.4506,0.4500,-1.9501,2.6502,-2.9502,-7.4506,-14.3511,7.7506,8.5507,-0.8501,-4.6504,-11.1509
1289.0625,2.3502,-0.9501,0.0500,-13.9511,-16.6513,0.2500,6.3505,-8.1506,-2.1502,-1.1501,-0.2500,-4.5503,-8.4506,-16.4513,4.3503,1.3501,-2.1502,-5.8504,-12.5510
1292.9688,1.3501,0.6500,-0.5500,-12.0509,-17.4513,4.7504,6.4505,-6.5505,-4.2503,0.1500,-2.9502,-5.2504,-7.7506,-15.8512,0.5500,-5.4504,-3.3503,-5.1504,-11.3509
1296.8750,0.1500,2.9502,-0.2500,-8.4506,-15.6512,11.0508,5.8504,-3.9503,-5.4504,1.2501,-4.8504,-5.0504,-5.5504,-12.6510,-1.9501,-9.2507,-3.7503,-3.4503,-8.0506
1300.7812,-0.6500,5.0504,0.5500,-4.1503,-11.6509,16.5513,4.8504,-0.9501,-5.7504,1.6501,-5.7504,-4.2503,-2.7502,-7.8506,-2.1502,-8.9507,-2.9502,-2.0502,-3.9503
1304.6875,-1.4501,6.0505,1.1501,-0.4500,-6.2505,18.3514,3.6503,1.8501,-5.0504,1.3501,-5.2504,-2.8502,0.0500,-2.7502,0.0500,-5.0504,-0.8501,-1.2501,0.0500
1308.5938,-1.8501,5.6504,1.0501,1.8501,-0.6500,14.7511,2.3502,3.9503,-3.6503,0.7501,-3.5503,-0.8501,2.3502,1.8501,3.6503,0.1500,2.0502,-0.9501,2.9502
1312.5000,-2.0502,4.0503,0.0500,3.0502,4.2503,6.4505,0.8501,5.0504,-1.4501,0.4500,-0.7501,1.7501,4.3503,5.6504,6.4505,4.7504,5.4504,0.0500,5.0504
1316.4062,-1.8501,2.1502,-0.9501,3.4503,8.1506,-3.5503,-1.0501,5.1504,1.4501,0.7501,2.4502,4.9504,6.4505,8.5507,6.5505,6.9505,8.2506,2.2502,6.5505
1320.3125,-1.6501,1.1501,-1.2501,3.7503,11.0508,-11.6509,-3.1502,4.5503,5.0504,1.4501,5.5504,8.1506,8.7507,10.8508,3.4503,6.7505,9.7507,6.2505,7.9506
1324.2188,-1.7501,1.4501,0.0500,4.6504,12.9510,-15.2512,-4.7504,3.5503,8.4506,1.7501,7.8506,10.8508,10.8508,12.2509,-1.7501,5.6504,9.6507,10.8508,9.5507
1328.1250,-2.7502,3.0502,2.7502,6.0505,13.6510,-14.2511,-4.8504,2.5502,11.0508,1.2501,8.9507,12.3509,12.0509,12.5510,-6.9505,5.5504,8.2506,14.5511,11.0508
1332.0312,-4.4503,4.7504,5.9505,7.3506,12.9510,-10.3508,-3.2502,2.0502,11.8509,0.0500,8.7507,12.5510,11.7509,11.5509,-9.6507,7.4506,6.2505,15.7512,11.7509
1335.9375,-5.8504,5.5504,7.9506,7.6506,10.9508,-5.6504,-0.4500,1.8501,10.5508,-0.8501,7.4506,10.8508,9.6507,9.1507,-7.8506,10.4508,4.5503,13.4510,10.8508
1339.8438,-5.6504,4.4503,7.2506,6.0505,7.8506,-2.1502,1.6501,1.7501,7.2506,-0.8501,5.1504,6.9505,5.9505,5.8504,-1.9501,12.2509,3.6503,7.8506,7.6506
1343.7500,-3.6503,1.4501,3.7503,2.4502,4.2503,-0.4500,1.8501,1.3501,2.4502,0.2500,1.7501,1.1501,1.3501,2.1502,5.4504,10.5508,3.1502,0.0500,2.6502
1347.6562,-0.3500,-2.6502,-1.5501,-2.2502,1.1501,0.0500,0.3500,0.5500,-2.6502,2.0502,-2.3502,-5.7504,-2.9502,-0.7501,10.6508,5.3504,2.4502,-7.7506,-2.7502
1351.5625,2.7502,-6.1505,-6.6505,-6.4505,-0.9501,0.7501,-0.9501,-0.2500,-6.9505,3.2502,-6.4505,-11.9509,-6.1505,-2.3502,10.4508,-1.3501,1.5501,-13.5510,-6.6505
1355.4688,4.8504,-7.1505,-9.1507,-8.4506,-1.7501,2.9502,-0.2500,-0.6500,-8.8507,3.4503,-9.4507,-15.4512,-7.1505,-2.2502,4.6504,-6.7505,0.4500,-15.3512,-7.8506
1359.3750,5.8504,-4.9504,-7.6506,-7.0505,-1.4501,6.8505,3.1502,-0.4500,-7.4506,3.0502,-9.7507,-15.0511,-5.8504,-0.7501,-3.7503,-9.4507,0.0500,-12.6510,-5.6504
1363.2812,6.5505,0.0500,-2.4502,-2.8502,-0.6500,11.7509,7.8506,0.3500,-2.5502,2.9502,-7.0505,-11.0508,-2.8502,1.1501,-10.7508,-9.5507,0.2500,-6.0505,-1.2501
1367.1875,7.5506,6.5505,4.4503,2.4502,0.0500,15.9512,11.1509,1.1501,4.3503,4.0503,-1.6501,-4.8504,0.5500,2.4502,-12.7510,-8.7507,1.0501,2.3502,3.6503
1371.0938,9.2507,12.6510,10.6508,6.8505,0.3500,18.1514,11.0508,1.4501,11.5509,6.4505,4.8504,1.5501,3.4503,2.6502,-9.1507,-7.9506,1.8501,10.4508,7.6506
1375.0000,10.8508,16.8513,14.2511,9.2507,0.5500,17.8514,7.7506,1.1501,16.9513,9.2507,10.9508,7.1505,5.3504,1.9501,-1.7501,-6.6505,2.3502,16.3512,9.6507
1378.9062,11.3509,18.4514,14.7511,9.6507,1.4501,15.4512,3.4503,1.1501,19.0515,11.0508,14.9511,11.6509,6.5505,1.4501,6.0505,-3.8503,2.4502,19.2515,10.1508
1382.8125,9.9508,17.4513,13.2510,9.1507,3.4503,11.8509,1.0501,2.1502,17.8514,10.7508,16.3512,14.8511,7.5506,1.7501,11.2509,0.6500,2.5502,19.4515,9.7507
1386.7188,6.7505,14.7511,11.3509,9.0507,6.5505,7.8506,2.6502,4.5503,14.1511,8.2506,15.0511,16.6513,8.4506,3.1502,11.9509,5.5504,2.7502,17.4513,9.4507
1390.6250,2.8502,10.9508,10.1508,9.7507,9.9508,3.9503,7.5506,8.1506,9.2507,4.1503,11.6509,16.2512,8.9507,5.0504,7.8506,8.5507,3.1502,13.9511,9.3507
1394.5312,-0.7501,6.6505,9.5507,10.8508,12.4509,0.7501,12.8510,11.6509,4.5503,-0.4500,6.8505,13.1510,8.5507,6.6505,0.4500,8.3506,3.4503,9.6507,9.0507
1398.4375,-3.3503,2.5502,8.7507,11.4509,12.8510,-1.4501,14.9511,13.5510,0.7501,-4.8504,1.5501,7.6506,6.7505,7.3506,-7.4506,5.2504,3.4503,5.0504,7.6506
1402.3438,-4.6504,-0.8501,6.8505,10.3508,10.6508,-2.6502,12.1509,12.8510,-1.7501,-7.9506,-3.1502,1.0501,3.6503,6.8505,-13.3510,1.4501,2.7502,0.8501,4.7504
1406.2500,-4.9504,-3.3503,3.2502,7.4506,6.4505,-2.8502,5.5504,9.5507,-3.6503,-9.2507,-6.5505,-4.6504,-0.1500,5.1504,-14.6511,-0.5500,1.2501,-2.6502,0.5500
1410.1562,-4.6504,-4.4503,-1.0501,3.1502,1.0501,-2.4502,-1.4501,4.5503,-4.7504,-8.4506,-7.6506,-7.8506,-3.8503,2.6502,-10.3508,0.5500,-0.6500,-5.1504,-3.8503
1414.0625,-3.6503,-4.2503,-4.9504,-1.3501,-4.0503,-2.0502,-6.2505,-0.6500,-4.8504,-5.7504,-5.9505,-7.6506,-6.3505,-0.0500,-0.0500,4.5503,-2.3502,-6.3505,-7.3506
1417.9688,-1.8501,-2.8502,-7.2506,-5.2504,-7.7506,-1.8501,-7.5506,-4.9504,-3.7503,-1.8501,-1.7501,-4.4503,-6.9505,-2.3502,14.3511,9.4507,-3.0502,-6.1505,-8.8507
1421.8750,0.4500,-1.3501,-7.5506,-7.7506,-9.1507,-2.1502,-6.3505,-7.4506,-1.7501,1.8501,3.6503,0.0500,-5.4504,-3.3503,29.2522,12.9510,-1.9501,-5.0504,-7.9506
1425.7812,2.5502,-0.3500,-6.7505,-8.7507,-8.3506,-3.1502,-4.0503,-8.0506,0.1500,4.5503,8.1506,3.8503,-2.3502,-2.3502,38.6530,13.7510,0.9501,-3.5503,-5.4504
1429.6875,3.0502,-0.7501,-5.7504,-8.0506,-5.4504,-4.8504,-1.6501,-7.0505,1.0501,5.3504,9.5507,5.9505,1.1501,0.6500,37.5529,12.1509,5.2504,-2.3502,-2.1502
1433.5938,1.4501,-2.4502,-5.1504,-5.7504,-1.1501,-6.8505,0.7501,-4.5503,0.1500,4.1503,7.2506,6.1505,4.2503,5.0504,25.0519,10.1508,9.5507,-1.5501,0.9501
1437.5000,-2.0502,-4.6504,-4.7504,-1.8501,3.5503,-8.9507,3.1502,-1.0501,-1.9501,1.5501,2.1502,5.1504,6.4505,9.4507,5.7504,9.4507,12.8510,-0.9501,3.8503
1441.4062,-6.4505,-6.6505,-3.8503,2.8502,7.9506,-10.7508,4.6504,2.6502,-4.2503,-1.5501,-3.1502,3.7503,7.3506,12.5510,-12.3509,10.7508,14.3511,-0.1500,6.1505
1445.3125,-10.2508,-7.7506,-1.9501,7.4506,11.0508,-12.5510,4.2503,6.1505,-5.5504,-4.1503,-6.5505,2.7502,7.3506,13.3510,-22.3517,13.0510,13.8511,0.8501,8.0506
1449.2188,-12.3509,-7.5506,0.8501,10.7508,12.1509,-14.2511,2.0502,8.2506,-5.2504,-5.6504,-6.9505,1.9501,6.9505,11.5509,-21.4516,14.1511,11.6509,2.0502,9.3507
1453.1250,-12.0509,-5.9505,3.7503,11.8509,11.0508,-15.2512,-0.7501,8.8507,-3.6503,-5.6504,-4.9504,1.1501,6.1505,7.6506,-12.9510,12.6510,8.2506,3.0502,9.3507
1457.0312,-9.9508,-3.2502,5.9505,10.8508,8.0506,-14.2511,-2.3502,8.2506,-1.7501,-4.4503,-2.4502,-0.1500,4.6504,2.6502,-3.2502,8.0506,3.8503,3.2502,7.8506
1460.9375,-6.5505,-0.0500,6.7505,8.1506,3.8503,-10.3508,-1.2501,6.9505,-0.5500,-2.9502,-1.1501,-2.2502,2.1502,-2.3502,1.6501,1.9501,-1.4501,2.3502,4.4503
1464.8438,-2.9502,2.7502,5.9505,4.7504,-0.2500,-4.0503,2.1502,5.5504,-0.4500,-1.9501,-1.8501,-4.8504,-1.4501,-6.5505,0.5500,-4.0503,-7.2506,0.5500,-0.2500
1468.7500,0.0500,4.3503,3.9503,1.3501,-3.6503,2.4502,6.6505,4.0503,-1.3501,-1.7501,-3.9503,-7.2506,-5.6504,-9.3507,-4.4503,-8.6507,-12.4509,-1.5501,-5.1504
1472.6562,1.8501,4.3503,1.4501,-1.5501,-5.6504,7.0505,9.8508,2.3502,-2.3502,-2.1502,-6.0505,-8.8507,-8.9507,-10.5508,-9.3507,-11.9509,-15.5512,-3.7503,-8.9507
1476.5625,2.6502,2.7502,-0.9501,-4.2503,-6.2505,7.9506,9.8508,-0.0500,-2.9502,-2.4502,-6.9505,-9.2507,-10.2508,-10.5508,-10.8508,-14.3511,-15.8512,-5.5504,-10.8508
1480.4688,2.7502,0.2500,-3.1502,-6.6505,-6.2505,5.3504,6.4505,-3.3503,-2.8502,-2.1502,-6.0505,-8.3506,-9.2507,-9.9508,-8.5507,-16.1512,-13.4510,-6.6505,-10.8508
1484.3750,2.6502,-2.1502,-4.8504,-8.8507,-6.5505,1.3501,0.5500,-6.9505,-2.1502,-1.1501,-3.6503,-6.5505,-6.6505,-9.4507,-3.8503,-16.6513,-9.8508,-7.3506,-9.4507
1488.2812,2.4502,-3.5503,-5.6504,-10.1508,-7.4506,-2.0502,-5.7504,-9.9508,-1.1501,0.3500,-0.7501,-4.1503,-3.8503,-9.4507,1.2501,-14.4511,-6.4505,-7.3506,-7.4506
1492.1875,2.2502,-3.6503,-5.0504,-10.0508,-8.7507,-3.7503,-10.2508,-11.3509,-0.1500,1.8501,1.9501,-1.5501,-1.8501,-9.4507,5.8504,-9.0507,-4.2503,-6.5505,-5.3504
1496.0938,1.7501,-2.4502,-2.8502,-8.0506,-9.5507,-3.8503,-11.1509,-10.5508,0.5500,2.6502,4.1503,1.0501,-0.9501,-8.9507,9.2507,-1.3501,-3.2502,-4.7504,-3.0502
1500.0000,0.6500,-0.6500,0.6500,-4.6504,-9.2507,-3.5503,-8.1506,-8.0506,0.9501,2.2502,5.3504,3.3503,-0.6500,-7.5506,11.1509,6.0505,-2.6502,-2.0502,-0.3500
1503.9062,-0.5500,0.9501,4.4503,-0.7501,-7.6506,-3.6503,-2.4502,-4.6504,1.0501,0.9501,5.6504,5.0504,-0.2500,-5.5504,11.4509,10.5508,-1.8501,0.8501,2.6502
1507.8125,-1.7501,2.1502,7.4506,2.2502,-5.2504,-4.4503,3.5503,-1.5501,1.1501,-0.7501,5.3504,6.0505,0.6500,-3.2502,10.0508,11.1509,-0.4500,3.6503,5.4504
1511.7188,-2.1502,2.7502,8.7507,4.1503,-2.7502,-5.4504,7.9506,0.5500,1.7501,-2.0502,4.8504,6.5505,2.2502,-1.2501,7.3506,8.7507,1.2501,5.7504,7.5506
1515.6250,-1.0501,3.2502,8.6507,4.8504,-0.8501,-5.5504,9.2507,1.9501,3.1502,-2.1502,4.5503,7.1505,4.1503,0.4500,3.9503,5.6504,3.2502,7.1505,8.2506
1519.5312,1.1501,3.9503,7.6506,5.0504,0.4500,-3.9503,7.6506,2.8502,5.2504,-0.7501,4.8504,7.8506,6.0505,1.8501,0.6500,4.1503,5.1504,7.9506,7.6506
1523.4375,4.0503,5.2504,6.7505,5.0504,1.3501,-0.4500,4.8504,3.4503,7.4506,1.4501,5.2504,8.3506,7.0505,2.8502,-2.0502,5.0504,6.3505,7.9506,6.1505
1527.3438,6.5505,6.7505,6.1505,4.7504,1.6501,4.1503,2.2502,3.6503,8.5507,3.6503,5.0504,7.5506,6.6505,3.1502,-4.2503,7.0505,6.3505,6.8505,4.1503
1531.2500,7.5506,7.5506,5.1504,3.5503,1.0501,8.0506,0.3500,2.9502,7.4506,4.5503,3.1502,4.5503,4.0503,2.3502,-6.3505,7.6506,4.3503,4.3503,1.5501
1535.1562,6.2505,6.3505,2.9502,0.7501,-0.6500,9.1507,-1.2501,0.8501,3.9503,3.6503,-0.6500,-0.7501,-0.7501,0.3500,-8.4506,4.2503,0.0500,0.5500,-1.9501
1539.0625,3.2502,2.8502,-0.9501,-3.6503,-3.6503,6.5505,-3.7503,-2.6502,-1.0501,1.3501,-5.6504,-7.1505,-6.7505,-2.3502,-10.1508,-3.3503,-5.4504,-3.6503,-6.2505
1542.9688,-0.1500,-2.0502,-5.8504,-8.8507,-7.1505,1.6501,-6.7505,-6.8505,-5.5504,-0.9501,-9.6507,-12.3509,-11.8509,-4.9504,-10.2508,-13.0510,-10.7508,-6.9505,-10.2508
1546.8750,-2.1502,-6.2505,-9.6507,-12.8510,-9.6507,-2.7502,-9.0507,-10.5508,-7.4506,-2.0502,-10.3508,-13.7510,-13.6510,-6.3505,-7.4506,-20.7516,-13.9511,-7.8506,-12.1509
1550.7812,-1.6501,-7.6506,-10.2508,-13.7510,-10.0508,-3.7503,-8.5507,-12.0509,-5.5504,-1.0501,-6.7505,-10.2508,-11.0508,-5.6504,-1.7501,-22.5517,-13.4510,-5.2504,-10.3508
1554.6875,1.0501,-5.2504,-6.9505,-10.8508,-7.6506,-0.6500,-4.6504,-10.8508,-0.5500,1.4501,-0.0500,-2.5502,-4.3503,-3.1502,5.0504,-16.9513,-9.2507,0.0500,-4.6504
1558.5938,4.1503,-0.4500,-0.8501,-5.0504,-3.3503,4.0503,1.0501,-7.1505,5.0504,3.4503,6.7505,6.2505,3.9503,0.2500,9.7507,-6.0505,-2.9502,6.1505,3.0502
1562.5000,5.3504,4.1503,5.2504,1.2501,1.0501,7.1505,5.8504,-2.6502,8.5507,3.2502,10.4508,12.5510,10.7508,3.0502,9.6507,5.0504,2.9502,10.4508,10.0508
1566.4062,3.6503,5.8504,8.8507,5.2504,3.9503,5.7504,6.7505,0.7501,8.1506,0.3500,9.2507,13.4510,13.2510,3.9503,4.7504,11.2509,6.1505,10.7508,13.3510
1570.3125,0.1500,3.6503,8.1506,5.3504,4.1503,0.3500,3.3503,1.6501,3.7503,-3.4503,3.7503,8.2506,10.6508,2.8502,-1.5501,9.5507,5.6504,6.3505,11.6509
1574.2188,-3.2502,-1.4501,3.7503,1.4501,1.6501,-5.7504,-2.1502,0.0500,-2.7502,-6.1505,-3.3503,-1.2501,4.0503,0.0500,-5.5504,0.6500,2.2502,-1.3501,5.5504
1578.1250,-4.9504,-7.3506,-2.7502,-4.5503,-2.1502,-9.5507,-6.6505,-3.4503,-9.2507,-6.5505,-9.5507,-11.8509,-4.1503,-3.0502,-5.2504,-10.9508,-2.2502,-10.1508,-2.4502
1582.0312,-4.5503,-11.7509,-9.0507,-10.3508,-5.9505,-9.1507,-8.0506,-7.1505,-13.8511,-5.1504,-13.1510,-19.8515,-11.3509,-5.8504,-2.2502,-20.1515,-6.2505,-17.2513,-10.0508
1585.9375,-3.4503,-13.3510,-13.0510,-13.5510,-8.0506,-6.0505,-6.4505,-9.3507,-15.5512,-3.7503,-13.9511,-22.9518,-15.6512,-7.5506,0.0500,-22.8517,-8.3506,-20.7516,-14.9511
1589.8438,-2.7502,-12.2509,-13.8511,-12.9510,-7.9506,-2.7502,-3.5503,-9.1507,-14.6511,-3.6503,-12.8510,-20.8516,-16.2512,-7.9506,-1.0501,-18.1514,-8.3506,-19.8515,-16.3512
1593.7500,-3.2502,-9.4507,-11.5509,-8.8507,-5.6504,-1.6501,-1.2501,-6.3505,-11.6509,-4.7504,-10.9508,-14.9511,-13.6510,-6.9505,-5.7504,-8.7507,-6.6505,-15.2512,-14.6511
1597.6562,-4.4503,-6.5505,-7.5506,-2.8502,-2.1502,-3.6503,-0.2500,-1.7501,-7.8506,-6.1505,-8.9507,-7.9506,-9.3507,-4.8504,-12.0509,0.6500,-4.1503,-8.9507,-11.4509
1601.5625,-5.5504,-5.0504,-3.9503,2.7502,1.4501,-7.6506,-0.6500,2.9502,-4.8504,-6.5505,-7.5506,-2.6502,-5.3504,-2.3502,-16.7513,5.7504,-2.0502,-3.4503,-8.0506
1605.4688,-6.0505,-5.7504,-2.5502,6.1505,4.3503,-11.4509,-2.1502,6.6505,-3.4503,-5.9505,-7.1505,-0.9501,-3.0502,-0.3500,-17.7514,4.3503,-1.1501,-0.7501,-5.7504
1609.3750,-5.9505,-8.0506,-3.6503,6.5505,6.2505,-13.1510,-4.5503,8.2506,-4.0503,-4.8504,-7.5506,-2.8502,-3.0502,0.2500,-14.5511,-2.5502,-2.0502,-1.4501,-4.4503
1613.2812,-5.3504,-10.6508,-6.6505,4.3503,6.6505,-11.4509,-7.4506,7.5506,-5.9505,-4.0503,-8.3506,-7.2506,-4.9504,-0.6500,-8.8507,-11.7509,-4.2503,-4.6504,-3.9503
1617.1875,-4.7504,-12.0509,-9.5507,0.7501,5.2504,-6.8505,-9.7507,4.9504,-8.2506,-3.8503,-8.9507,-12.2509,-7.7506,-3.2502,-2.8502,-19.1515,-7.3506,-8.4506,-4.0503
1621.0938,-4.3503,-11.5509,-11.1509,-2.6502,2.2502,-1.1501,-10.8508,1.2501,-9.8508,-3.8503,-8.7507,-16.0512,-10.4508,-6.6505,1.7501,-21.9517,-10.2508,-11.1509,-4.5503
1625.0000,-4.0503,-9.1507,-10.5508,-5.0504,-2.1502,2.6502,-10.1508,-2.5502,-9.9508,-3.5503,-7.4506,-17.1513,-12.2509,-9.6507,4.8504,-18.9514,-12.0509,-11.6509,-5.5504
1628.9062,-3.4503,-5.8504,-7.9506,-6.1505,-6.7505,2.9502,-8.0506,-5.7504,-8.0506,-2.4502,-4.8504,-15.1512,-12.4509,-10.9508,7.0505,-11.5509,-11.9509,-9.8508,-6.5505
1632.8125,-2.0502,-2.4502,-4.1503,-6.1505,-10.3508,0.0500,-5.6504,-7.8506,-4.4503,-0.4500,-1.1501,-10.4508,-10.9508,-10.1508,9.3507,-2.5502,-9.8508,-6.4505,-7.0505
1636.7188,0.4500,0.5500,-0.2500,-5.5504,-11.9509,-3.7503,-3.9503,-8.6507,0.2500,2.3502,3.1502,-3.8503,-7.6506,-7.6506,12.0509,4.8504,-6.1505,-2.2502,-6.3505
1640.6250,4.0503,3.6503,2.6502,-4.7504,-11.3509,-5.3504,-3.4503,-8.0506,5.3504,5.5504,7.5506,3.4503,-3.3503,-4.2503,13.9511,8.7507,-1.8501,2.1502,-4.4503
1644.5312,7.8506,6.8505,4.4503,-3.7503,-8.9507,-2.8502,-3.2502,-6.3505,9.7507,8.6507,10.8508,10.3508,1.2501,-0.9501,13.0510,9.1507,1.8501,6.4505,-1.4501
1648.4375,10.9508,10.0508,5.0504,-2.4502,-5.5504,3.1502,-1.5501,-3.6503,12.8510,10.7508,12.3509,15.6512,5.6504,1.8501,7.4506,7.5506,4.6504,10.5508,2.0502
1652.3438,12.4509,12.9510,5.5504,-0.5500,-1.8501,10.3508,2.6502,-0.3500,14.3511,11.1509,12.1509,18.3514,9.3507,4.2503,-2.0502,5.8504,6.4505,13.8511,5.7504
1656.2500,12.2509,14.9511,6.6505,1.9501,1.5501,15.8512,8.8507,3.2502,14.2511,9.6507,10.7508,18.3514,12.1509,6.5505,-12.4509,5.1504,7.9506,15.9512,9.0507
1660.1562,10.9508,15.5512,8.3506,4.6504,4.3503,18.1514,14.4511,6.4505,12.8510,6.5505,8.9507,15.9512,14.2511,8.6507,-19.6515,5.6504,9.6507,16.2512,11.4509
1664.0625,9.1507,14.4511,10.0508,6.8505,6.4505,17.2513,16.6513,8.5507,10.7508,3.0502,7.4506,12.5510,15.4512,10.6508,-20.8516,6.6505,11.6509,14.4511,12.8510
1667.9688,7.8506,12.1509,11.0508,8.2506,7.8506,15.0511,14.4511,9.2507,8.1506,0.2500,6.3505,9.2507,15.6512,12.0509,-16.7513,7.6506,13.3510,11.1509,12.9510
1671.8750,7.0505,9.2507,10.5508,8.6507,8.7507,13.8511,9.6507,8.7507,5.2504,-0.9501,5.2504,6.6505,14.7511,12.7510,-10.5508,8.2506,13.9511,7.1505,12.1509
1675.7812,6.6505,6.5505,8.7507,8.5507,9.4507,14.8511,5.0504,7.7506,2.2502,-1.0501,3.4503,4.6504,12.4509,12.5510,-6.2505,8.0506,12.6510,3.2502,10.8508
1679.6875,5.9505,4.5503,6.1505,8.1506,9.5507,17.3513,2.8502,6.8505,-0.4500,-0.5500,0.8501,2.7502,9.1507,11.7509,-5.6504,6.2505,9.6507,0.2500,9.4507
1683.5938,4.5503,2.9502,3.3503,7.7506,9.1507,19.0515,2.9502,6.2505,-2.6502,-0.3500,-1.9501,0.5500,5.5504,10.3508,-7.1505,2.3502,5.8504,-1.4501,7.9506
1687.5000,2.7502,1.7501,0.8501,7.2506,7.9506,17.2513,3.7503,5.8504,-3.7503,-0.7501,-4.0503,-1.5501,2.4502,8.6507,-7.7506,-3.0502,2.7502,-2.0502,6.2505
1691.4062,0.8501,0.6500,-0.7501,6.2505,6.0505,11.3509,3.4503,4.9504,-3.7503,-1.3501,-4.7504,-3.0502,0.4500,6.7505,-5.5504,-7.9506,1.2501,-1.6501,4.2503
1695.3125,-0.2500,-0.0500,-1.7501,4.7504,3.3503,3.1502,1.2501,3.3503,-2.7502,-1.5501,-3.7503,-3.0502,-0.2500,4.5503,-1.5501,-9.7507,1.3501,-0.7501,2.2502
1699.2188,-0.3500,-0.2500,-1.7501,2.6502,0.1500,-3.5503,-2.1502,1.0501,-1.1501,-0.5500,-1.7501,-1.3501,-0.1500,2.4502,1.0501,-7.4506,2.4502,0.3500,0.2500
1703.1250,0.9501,0.1500,-1.1501,0.5500,-2.8502,-5.8504,-5.6504,-1.3501,0.5500,1.7501,0.0500,1.1501,0.2500,0.5500,-0.0500,-2.6502,3.5503,1.8501,-1.3501
1707.0312,3.7503,1.4501,0.0500,-1.0501,-5.3504,-2.9502,-7.8506,-3.3503,2.4502,4.9504,0.9501,3.6503,0.9501,-0.6500,-4.8504,1.5501,4.0503,3.3503,-2.6502
1710.9375,7.2506,3.2502,1.6501,-1.8501,-6.4505,3.3503,-8.1506,-4.1503,4.4503,8.0506,1.3501,5.0504,1.6501,-1.4501,-10.2508,3.0502,3.7503,4.8504,-3.2502
1714.8438,10.5508,5.0504,3.4503,-1.6501,-5.9505,9.8508,-6.3505,-3.7503,6.0505,10.1508,1.6501,5.0504,2.0502,-1.6501,-12.2509,2.2502,2.7502,5.8504,-3.0502
1718.7500,12.2509,6.2505,4.9504,-0.6500,-4.1503,13.4510,-2.7502,-2.2502,6.7505,10.3508,2.2502,4.2503,1.8501,-1.8501,-8.9507,1.5501,1.3501,5.8504,-2.1502
1722.6562,11.4509,6.3505,5.2504,0.3500,-2.0502,13.1510,1.0501,-0.4500,5.6504,8.2506,2.7502,2.9502,0.7501,-2.0502,-2.5502,2.9502,-0.2500,4.2503,-1.1501
1726.5625,8.2506,5.1504,3.6503,0.7501,-0.3500,9.6507,3.9503,0.9501,2.4502,4.3503,1.9501,1.0501,-1.4501,-2.6502,2.3502,5.9505,-2.3502,0.9501,-0.9501
1730.4688,3.6503,2.7502,0.1500,0.0500,0.2500,5.2504,4.5503,1.6501,-2.1502,0.0500,-0.8501,-1.6501,-4.6504,-3.6503,2.0502,7.6506,-4.6504,-3.5503,-2.2502
1734.3750,-0.4500,-0.1500,-4.4503,-1.9501,-0.1500,2.7502,2.8502,1.2501,-6.6505,-3.6503,-5.2504,-5.3504,-8.1506,-5.0504,-4.0503,5.1504,-7.1505,-8.3506,-4.9504
1738.2812,-2.8502,-2.6502,-9.1507,-4.6504,-1.3501,3.4503,0.0500,0.0500,-9.3507,-5.5504,-9.6507,-9.2507,-11.0508,-6.7505,-13.0510,-1.7501,-9.4507,-11.6509,-8.2506
1742.1875,-3.0502,-3.7503,-12.0509,-7.1505,-2.7502,6.7505,-2.7502,-1.7501,-9.1507,-5.0504,-11.8509,-11.4509,-12.1509,-8.1506,-19.8515,-9.9508,-10.8508,-12.1509,-10.6508
1746.0938,-1.5501,-3.2502,-12.0509,-8.4506,-3.8503,10.4508,-4.3503,-3.5503,-6.0505,-2.5502,-10.4508,-10.5508,-10.7508,-8.7507,-20.1515,-15.0511,-10.6508,-9.2507,-10.7508
1750.0000,0.0500,-1.4501,-9.1507,-7.8506,-4.2503,11.5509,-4.1503,-5.0504,-1.5501,0.9501,-5.6504,-6.1505,-6.9505,-7.9506,-12.7510,-13.7510,-8.5507,-3.9503,-8.0506
1753.9062,1.0501,0.6500,-4.2503,-5.5504,-3.8503,8.9507,-2.6502,-5.8504,2.6502,4.6504,0.6500,0.4500,-1.7501,-5.7504,-0.5500,-6.5505,-4.7504,2.0502,-3.2502
1757.8125,1.1501,2.2502,1.0501,-2.2502,-2.8502,3.6503,-0.5500,-5.9505,5.1504,7.2506,6.1505,7.0505,3.4503,-2.5502,11.3509,3.2502,-0.1500,6.7505,1.6501
1761.7188,0.7501,2.7502,5.0504,0.9501,-1.5501,-1.8501,1.3501,-5.4504,5.5504,8.0506,8.7507,11.3509,7.4506,0.6500,17.7514,11.7509,4.0503,8.7507,5.1504
1765.6250,0.4500,2.1502,6.8505,3.4503,-0.0500,-5.2504,2.3502,-4.2503,4.3503,6.9505,7.9506,12.3509,9.3507,3.3503,16.3512,16.4513,7.2506,7.7506,6.3505
1769.5312,0.3500,0.8501,6.5505,4.6504,1.4501,-5.5504,1.9501,-2.6502,2.5502,4.3503,4.7504,10.2508,9.3507,5.1504,8.7507,16.7513,9.0507,4.8504,5.2504
1773.4375,0.2500,-0.3500,4.8504,4.9504,3.1502,-3.2502,0.0500,-0.6500,0.7501,1.2501,0.9501,6.2505,8.0506,6.2505,-0.2500,13.6510,9.5507,1.3501,3.1502
1777.3438,0.0500,-1.0501,3.0502,4.7504,5.1504,0.0500,-2.3502,1.4501,-0.3500,-1.3501,-1.7501,1.9501,6.1505,6.9505,-6.2505,8.5507,9.0507,-1.3501,1.4501
1781.2500,-0.5500,-1.3501,2.1502,4.5503,7.0505,2.4502,-4.2503,3.5503,-1.3501,-2.9502,-2.9502,-1.5501,4.3503,7.2506,-6.7505,2.9502,8.1506,-3.1502,0.8501
1785.1562,-1.3501,-1.9501,2.1502,4.4503,8.5507,2.6502,-4.3503,5.1504,-2.4502,-3.4503,-2.8502,-3.6503,2.9502,7.2506,-2.5502,-1.1501,6.9505,-4.1503,1.5501
1789.0625,-1.8501,-3.4503,2.1502,4.2503,9.1507,0.2500,-2.1502,5.9505,-3.9503,-3.3503,-2.3502,-4.2503,2.0502,6.8505,3.4503,-2.7502,5.7504,-4.8504,2.9502
1792.9688,-2.0502,-5.9505,1.3501,3.7503,8.6507,-3.6503,1.6501,5.8504,-5.8504,-3.6503,-2.2502,-3.7503,1.4501,6.1505,8.2506,-2.1502,4.3503,-5.9505,4.2503
1796.8750,-2.5502,-8.9507,-0.6500,2.4502,7.1505,-7.6506,5.1504,4.6504,-7.9506,-4.7504,-2.9502,-2.9502,0.4500,5.1504,9.9508,-0.8501,2.2502,-7.3506,4.6504
1800.7812,-3.4503,-11.1509,-3.5503,0.3500,4.7504,-9.7507,6.2505,2.6502,-9.7507,-6.4505,-4.0503,-2.9502,-1.2501,3.7503,8.4506,-0.7501,-0.8501,-8.6507,3.8503
1804.6875,-5.0504,-11.4509,-6.4505,-2.1502,1.9501,-8.8507,4.2503,0.0500,-10.5508,-7.9506,-4.9504,-4.1503,-3.9503,1.9501,5.4504,-2.3502,-5.0504,-9.3507,1.6501
1808.5938,-6.7505,-9.4507,-8.4506,-4.7504,-0.8501,-5.5504,-0.0500,-2.6502,-10.1508,-8.1506,-5.0504,-6.1505,-7.1505,0.0500,3.3503,-4.3503,-9.2507,-8.9507,-1.2501
1812.5000,-7.9506,-6.0505,-8.8507,-6.6505,-3.1502,-1.7501,-4.5503,-4.9504,-8.3506,-6.4505,-3.8503,-7.7506,-9.6507,-1.8501,3.9503,-4.8504,-11.7509,-7.3506,-4.3503
1816.4062,-7.9506,-2.6502,-7.9506,-7.4506,-4.5503,0.0500,-7.5506,-6.3505,-5.8504,-3.2502,-1.6501,-8.0506,-10.5508,-3.1502,7.7506,-2.8502,-11.3509,-5.0504,-6.6505
1820.3125,-7.1505,-0.8501,-6.6505,-7.1505,-4.8504,-1.4501,-8.6507,-6.8505,-3.4503,0.0500,0.6500,-6.7505,-9.4507,-3.4503,13.0510,0.9501,-8.0506,-2.7502,-7.5506
1824.2188,-6.4505,-1.3501,-5.9505,-6.2505,-4.4503,-5.9505,-8.7507,-6.5505,-1.8501,1.9501,2.0502,-4.3503,-6.9505,-3.1502,17.0513,5.0504,-3.1502,-1.1501,-7.2506
1828.1250,-6.5505,-3.9503,-6.2505,-5.3504,-3.9503,-11.5509,-8.8507,-6.0505,-1.6501,1.8501,1.7501,-2.0502,-4.2503,-2.8502,17.4513,7.5506,1.0501,-0.6500,-6.4505
1832.0312,-7.6506,-7.2506,-7.6506,-5.2504,-3.8503,-15.6512,-9.7507,-5.8504,-2.6502,-0.1500,-0.0500,-0.8501,-2.4502,-3.0502,13.4510,7.6506,3.2502,-1.1501,-6.1505
1835.9375,-9.1507,-9.9508,-9.3507,-6.0505,-4.5503,-16.8513,-11.2509,-6.1505,-4.2503,-2.8502,-3.0502,-1.2501,-2.2502,-4.2503,6.5505,5.4504,2.9502,-2.6502,-6.9505
1839.8438,-9.9508,-11.2509,-10.8508,-7.3506,-5.5504,-15.1512,-12.3509,-6.7505,-5.9505,-5.1504,-5.9505,-3.0502,-3.3503,-6.0505,-0.2500,1.6501,0.8501,-4.6504,-8.7507
1843.7500,-9.5507,-11.0508,-11.2509,-8.1506,-6.2505,-12.4509,-12.4509,-6.7505,-7.1505,-6.1505,-7.6506,-5.0504,-4.2503,-7.4506,-4.0503,-1.8501,-1.1501,-6.5505,-10.3508
1847.6562,-7.7506,-9.4507,-9.7507,-7.1505,-5.4504,-10.1508,-10.6508,-5.3504,-7.2506,-5.4504,-7.1505,-5.8504,-3.6503,-7.3506,-2.9502,-3.6503,-1.5501,-7.5506,-9.8508
1851.5625,-5.0504,-6.7505,-5.8504,-3.5503,-2.3502,-8.7507,-6.6505,-1.9501,-5.9505,-3.1502,-3.9503,-4.0503,-0.2500,-4.8504,2.5502,-2.3502,0.4500,-6.3505,-5.9505
1855.4688,-1.8501,-2.5502,0.5500,2.5502,2.5502,-7.3506,-0.3500,3.1502,-2.7502,0.3500,1.0501,0.4500,5.4504,-0.2500,10.0508,1.6501,4.3503,-2.4502,1.2501
1859.3750,1.5501,2.7502,8.4506,10.1508,8.5507,-4.8504,7.7506,9.1507,2.2502,4.6504,6.8505,7.1505,12.6510,5.2504,16.0512,6.3505,8.4506,4.1503,10.3508
1863.2812,4.7504,8.7507,16.1512,17.2513,13.8511,-0.9501,16.6513,14.3511,8.6507,8.6507,11.8509,14.0511,19.0515,10.3508,18.2514,9.4507,10.9508,12.4509,18.4514
1867.1875,7.3506,14.1511,21.5516,21.8517,17.0513,3.4503,24.0518,17.3513,15.0511,11.3509,14.9511,19.5515,23.0518,13.5510,16.0512,9.7507,11.2509,20.1515,23.3518
1871.0938,8.6507,17.4513,23.4518,22.8517,17.3513,7.1505,27.1521,17.4513,19.6515,11.9509,15.7512,22.1517,23.4518,14.0511,11.0508,8.0506,9.4507,25.2519,23.7518
1875.0000,8.4506,17.9514,21.6517,20.3516,14.9511,8.7507,24.2519,14.8511,21.1516,10.6508,14.4511,21.3516,20.2515,11.8509,5.4504,6.0505,6.7505,26.0520,19.8515
1878.9062,7.0505,15.7512,17.2513,15.6512,10.8508,7.6506,15.8512,10.7508,19.2515,8.1506,11.9509,17.6513,14.5511,8.1506,1.7501,4.8504,3.8503,22.6517,13.3510
1882.8125,5.1504,11.7509,11.8509,10.6508,6.4505,3.9503,5.0504,6.7505,14.9511,5.8504,9.2507,12.2509,8.0506,4.2503,1.6501,4.5503,1.5501,16.7513,6.3505
1886.7188,3.4503,7.2506,6.8505,6.9505,2.9502,-1.3501,-4.1503,4.1503,10.2508,4.7504,7.4506,7.2506,2.7502,1.6501,6.2505,4.7504,0.3500,10.6508,0.9501
1890.6250,2.1502,3.4503,3.1502,5.0504,1.1501,-7.0505,-9.1507,3.3503,6.8505,4.9504,7.2506,4.4503,0.0500,1.1501,14.1511,5.2504,0.6500,6.6505,-1.7501
1894.5312,0.9501,0.8501,1.0501,4.5503,1.0501,-11.8509,-9.7507,3.8503,5.5504,5.7504,8.5507,4.1503,0.4500,2.5502,21.6517,5.5504,2.6502,5.3504,-1.9501
1898.4375,-0.4500,-0.6500,0.1500,4.3503,2.3502,-14.6511,-7.5506,4.6504,5.7504,5.8504,9.8508,5.8504,2.8502,4.8504,23.5518,5.4504,5.5504,6.0505,-0.2500
1902.3438,-2.5502,-1.5501,0.0500,3.8503,3.9503,-14.7511,-4.8504,5.0504,5.8504,4.4503,9.4507,7.7506,5.5504,6.8505,16.6513,4.6504,8.1506,7.0505,2.0502
1906.2500,-4.6504,-2.2502,0.1500,2.6502,5.4504,-12.1509,-2.4502,4.8504,4.4503,1.5501,6.5505,8.2506,6.8505,7.8506,2.1502,3.0502,9.3507,6.4505,4.0503
1910.1562,-6.2505,-2.7502,0.2500,1.4501,6.1505,-7.8506,-0.4500,4.3503,1.0501,-2.0502,1.3501,6.4505,5.9505,7.6506,-14.3511,1.0501,8.4506,3.6503,4.9504
1914.0625,-6.6505,-3.2502,0.1500,0.6500,6.2505,-3.4503,1.8501,4.1503,-3.4503,-5.2504,-4.3503,2.5502,3.1502,6.8505,-26.1520,-0.6500,5.4504,-0.8501,4.6504
1917.9688,-5.9505,-3.7503,-0.1500,0.4500,5.8504,-0.7501,4.4503,4.3503,-7.6506,-7.1505,-9.1507,-2.2502,-0.0500,5.9505,-28.8522,-2.0502,1.7501,-5.7504,3.3503
1921.8750,-4.3503,-3.9503,-0.5500,0.6500,5.3504,-0.3500,6.4505,4.6504,-9.6507,-7.4506,-11.3509,-6.5505,-2.0502,5.4504,-22.7517,-3.3503,-1.2501,-9.0507,2.0502
1925.7812,-2.4502,-3.6503,-0.4500,0.8501,5.0504,-1.5501,6.3505,4.4503,-8.8507,-6.5505,-10.4508,-8.7507,-1.7501,5.5504,-11.7509,-4.5503,-2.4502,-9.4507,1.6501
1929.6875,-0.8501,-2.4502,0.4500,0.6500,4.8504,-2.8502,3.8503,3.3503,-5.4504,-5.4504,-7.1505,-7.9506,0.4500,5.5504,-1.1501,-5.4504,-1.8501,-6.5505,2.6502
1933.5938,0.0500,-0.5500,2.2502,0.1500,4.0503,-3.0502,0.2500,1.3501,-0.7501,-4.8504,-2.3502,-4.6504,3.2502,4.8504,5.5504,-5.0504,-0.2500,-1.6501,4.6504
1937.5000,-0.3500,1.4501,3.9503,-0.8501,2.1502,-2.1502,-1.9501,-1.2501,3.2502,-4.9504,2.3502,-0.1500,4.4503,2.7502,8.1506,-3.1502,0.6500,3.2502,6.2505
1941.4062,-1.8501,2.7502,4.6504,-2.4502,-1.0501,-1.7501,-1.7501,-4.1503,5.5504,-5.2504,5.7504,3.4503,2.6502,-0.8501,8.3506,-0.1500,0.0500,6.0505,5.8504
1945.3125,-4.1503,2.1502,3.0502,-4.9504,-5.3504,-3.3503,0.0500,-6.8505,5.4504,-5.0504,7.1505,4.4503,-1.9501,-5.7504,8.4506,2.1502,-2.3502,5.3504,2.4502
1949.2188,-6.6505,-0.5500,-0.8501,-8.2506,-9.7507,-7.6506,0.7501,-9.2507,3.3503,-3.8503,6.1505,2.4502,-7.9506,-10.7508,9.0507,2.7502,-5.6504,1.4501,-3.3503
1953.1250,-8.4506,-4.6504,-6.3505,-11.7509,-12.9510,-13.1510,-1.2501,-11.0508,0.1500,-1.9501,3.4503,-1.5501,-13.0510,-14.5511,8.8507,1.1501,-8.6507,-4.0503,-9.9508
1957.0312,-8.9507,-8.5507,-11.9509,-14.6511,-14.0511,-17.2513,-6.1505,-11.7509,-2.9502,-0.2500,-0.0500,-5.5504,-15.1512,-16.1512,6.1505,-1.4501,-9.8508,-9.2507,-14.8511
1960.9375,-8.3506,-10.8508,-15.8512,-15.8512,-12.5510,-17.6513,-11.2509,-11.1509,-5.3504,0.0500,-3.5503,-7.9506,-13.7510,-14.8511,0.4500,-3.7503,-8.6507,-12.2509,-16.4513
1964.8438,-6.9505,-10.8508,-17.0513,-14.9511,-8.8507,-13.7510,-13.4510,-9.0507,-6.5505,-1.4501,-6.0505,-8.1506,-9.4507,-11.1509,-6.4505,-4.7504,-5.2504,-12.5510,-14.6511
1968.7500,-5.2504,-9.1507,-15.6512,-12.3509,-4.4503,-6.8505,-11.1509,-6.0505,-6.7505,-4.1503,-7.3506,-7.0505,-4.3503,-6.4505,-11.8509,-4.3503,-0.9501,-10.7508,-10.9508
1972.6562,-3.8503,-6.7505,-12.8510,-9.4507,-1.2501,0.0500,-5.4504,-3.2502,-6.5505,-6.7505,-8.0506,-6.1505,-0.8501,-2.6502,-13.2510,-3.1502,2.1502,-8.5507,-7.4506
1976.5625,-3.1502,-5.2504,-10.2508,-7.5506,-0.5500,4.2503,0.2500,-1.7501,-6.8505,-7.9506,-8.6507,-6.6505,-0.4500,-1.1501,-10.3508,-1.6501,2.7502,-7.5506,-6.0505
1980.4688,-3.2502,-5.1504,-8.8507,-7.2506,-2.4502,4.8504,2.9502,-2.1502,-7.9506,-7.2506,-9.6507,-8.4506,-3.2502,-2.3502,-5.1504,0.1500,0.2500,-8.2506,-6.7505
1984.3750,-3.7503,-6.0505,-8.4506,-7.4506,-5.5504,2.4502,1.4501,-3.8503,-9.5507,-5.0504,-10.6508,-10.5508,-7.2506,-5.0504,-0.3500,2.4502,-3.9503,-10.2508,-8.2506
1988.2812,-4.0503,-6.9505,-7.8506,-6.7505,-7.6506,-0.2500,-1.9501,-5.2504,-10.6508,-2.4502,-11.0508,-11.3509,-10.2508,-7.2506,2.2502,4.6504,-7.8506,-11.8509,-8.0506
1992.1875,-3.2502,-6.2505,-5.9505,-3.8503,-7.1505,-0.4500,-4.5503,-4.8504,-10.2508,-0.4500,-9.8508,-10.0508,-10.6508,-7.6506,2.9502,5.5504,-9.2507,-11.7509,-5.1504
1996.0938,-0.9501,-3.5503,-2.3502,0.7501,-4.2503,2.5502,-4.2503,-2.5502,-7.7506,0.4500,-6.7505,-6.8505,-8.5507,-5.9505,3.5503,4.0503,-7.9506,-9.1507,-0.0500
2000.0000,2.0502,0.4500,1.7501,4.9504,-0.5500,7.4506,-1.5501,0.4500,-3.6503,0.8501,-1.9501,-2.8502,-5.5504,-3.4503,5.9505,0.3500,-5.2504,-4.9504,4.8504
2003.9062,4.8504,4.0503,4.7504,6.6505,1.5501,10.7508,1.3501,2.6502,0.6500,1.0501,3.5503,0.2500,-3.7503,-1.8501,11.1509,-3.7503,-3.1502,-0.5500,7.2506
2007.8125,5.5504,5.6504,4.9504,4.4503,0.7501,9.6507,3.0502,2.5502,3.9503,0.8501,8.2506,1.7501,-4.1503,-2.2502,17.4513,-6.4505,-3.1502,2.3502,5.7504
2011.7188,3.5503,4.7504,2.2502,-0.9501,-2.7502,4.0503,3.1502,0.2500,5.0504,0.2500,10.4508,1.1501,-6.7505,-4.5503,21.3516,-6.9505,-5.1504,3.1502,0.5500
2015.6250,-0.1500,2.0502,-2.3502,-7.6506,-7.5506,-3.5503,2.4502,-3.0502,3.7503,-0.9501,9.2507,-1.2501,-10.3508,-7.8506,18.8514,-5.7504,-8.1506,1.7501,-6.4505
2019.5312,-4.2503,-0.6500,-7.0505,-13.1510,-11.7509,-9.4507,2.3502,-5.8504,0.7501,-2.4502,4.6504,-4.4503,-13.2510,-10.5508,8.8507,-4.1503,-10.2508,-0.9501,-13.1510
2023.4375,-7.0505,-2.2502,-9.9508,-15.4512,-13.5510,-10.9508,3.3503,-6.7505,-2.5502,-3.7503,-1.4501,-7.0505,-13.9511,-11.4509,-5.2504,-2.5502,-9.9508,-4.0503,-17.4513
2027.3438,-7.8506,-2.6502,-10.2508,-14.3511,-12.3509,-8.0506,4.8504,-5.5504,-5.0504,-4.6504,-6.9505,-8.0506,-11.9509,-10.0508,-17.6513,-1.6501,-7.1505,-6.2505,-18.0514
2031.2500,-7.2506,-2.5502,-8.5507,-10.6508,-8.7507,-2.9502,5.6504,-3.0502,-6.3505,-5.4504,-9.8508,-7.3506,-8.0506,-7.0505,-22.6517,-1.7501,-2.9502,-7.3506,-15.1512
2035.1562,-6.5505,-3.5503,-6.0505,-6.3505,-4.2503,0.9501,4.3503,-0.6500,-6.8505,-6.6505,-9.9508,-5.7504,-3.7503,-3.7503,-18.8514,-3.4503,0.5500,-7.5506,-9.9508
2039.0625,-6.5505,-6.0505,-4.1503,-3.0502,-0.6500,1.9501,1.0501,0.3500,-7.0505,-8.3506,-8.3506,-4.1503,-0.4500,-1.4501,-10.2508,-6.3505,2.0502,-7.3506,-4.4503
2042.9688,-7.1505,-9.1507,-3.1502,-1.1501,0.6500,0.0500,-2.8502,0.0500,-7.5506,-9.7507,-6.6505,-3.1502,1.0501,-0.7501,-3.2502,-9.3507,1.2501,-7.0505,-0.1500
2046.8750,-7.2506,-11.2509,-2.5502,0.0500,0.3500,-2.9502,-5.2504,-0.8501,-7.8506,-10.0508,-5.7504,-2.6502,1.5501,-0.9501,-1.9501,-10.2508,-0.4500,-6.1505,2.3502
2050.7812,-5.9505,-10.7508,-1.4501,1.4501,-0.4500,-5.0504,-4.8504,-1.2501,-7.0505,-8.6507,-5.4504,-1.9501,1.9501,-0.8501,-6.0505,-7.4506,-1.3501,-4.5503,3.6503
2054.6875,-3.0502,-7.6506,0.5500,3.9503,-0.5500,-4.9504,-1.9501,-0.5500,-5.1504,-5.6504,-5.2504,-1.2501,2.7502,0.1500,-11.0508,-1.3501,-0.4500,-2.4502,4.3503
2058.5938,0.2500,-3.5503,3.0502,6.9505,0.5500,-2.9502,1.3501,1.0501,-2.6502,-2.3502,-4.5503,-1.1501,3.4503,1.9501,-12.4509,5.2504,1.1501,-0.8501,4.7504
2062.5000,2.8502,-0.5500,4.5503,9.0507,2.1502,-0.1500,3.1502,2.2502,-0.7501,-0.1500,-3.8503,-2.4502,2.8502,2.8502,-8.8507,8.9507,2.0502,-0.6500,4.6504
2066.4062,3.3503,0.0500,4.2503,9.1507,2.8502,1.8501,2.0502,2.1502,-0.4500,0.0500,-3.4503,-5.1504,-0.0500,1.9501,-2.7502,6.8505,0.3500,-1.9501,3.7503
2070.3125,1.9501,-1.3501,2.0502,6.5505,1.6501,2.2502,-1.1501,0.2500,-1.2501,-1.1501,-3.2502,-8.1506,-5.0504,-1.0501,2.2502,-0.7501,-4.0503,-3.6503,1.7501
2074.2188,-0.0500,-3.2502,-0.5500,2.1502,-1.1501,0.9501,-4.6504,-2.5502,-1.9501,-2.7502,-2.7502,-9.6507,-10.4508,-5.0504,4.0503,-10.9508,-9.6507,-4.1503,-0.6500
2078.1250,-1.0501,-3.6503,-2.1502,-2.6502,-4.3503,-1.1501,-5.8504,-5.2504,-1.0501,-3.1502,-0.9501,-8.2506,-13.9511,-8.2506,2.9502,-19.0515,-13.7510,-2.1502,-2.9502
2082.0312,-0.1500,-1.7501,-1.9501,-6.9505,-6.7505,-2.7502,-3.5503,-6.9505,1.8501,-1.5501,1.9501,-4.0503,-14.1511,-9.2507,0.4500,-21.3516,-14.5511,2.0502,-4.4503
2085.9375,2.0502,2.1502,-0.4500,-9.6507,-7.9506,-2.3502,0.8501,-7.1505,5.8504,1.3501,5.2504,1.8501,-11.1509,-8.1506,-2.2502,-17.0513,-11.8509,7.0505,-5.0504
2089.8438,4.7504,6.9505,1.2501,-10.6508,-8.0506,0.3500,4.9504,-6.3505,9.2507,4.6504,7.5506,7.5506,-6.2505,-5.6504,-4.7504,-8.3506,-6.9505,10.9508,-5.0504
2093.7500,6.7505,10.7508,2.2502,-10.2508,-7.6506,4.5503,6.1505,-5.3504,10.9508,7.1505,7.9506,11.3509,-0.9501,-2.9502,-6.9505,0.4500,-1.6501,12.4509,-4.8504
2097.6562,7.5506,12.4509,2.4502,-8.6507,-7.1505,8.3506,3.7503,-4.5503,10.7508,8.2506,6.8505,12.5510,3.4503,-0.8501,-8.5507,6.3505,2.5502,11.6509,-4.0503
2101.5625,7.3506,11.7509,2.5502,-6.0505,-6.3505,9.8508,-0.5500,-3.8503,9.5507,8.0506,5.1504,11.4509,6.7505,0.5500,-8.6507,8.0506,5.4504,9.5507,-2.2502
2105.4688,6.3505,9.3507,3.1502,-2.7502,-4.6504,8.2506,-4.2503,-2.8502,8.0506,6.8505,4.1503,8.9507,9.0507,1.9501,-6.4505,6.7505,6.9505,7.6506,0.8501
2109.3750,5.1504,6.6505,4.4503,0.9501,-2.0502,5.0504,-5.1504,-1.1501,6.9505,5.3504,4.0503,6.1505,10.4508,3.6503,-2.2502,4.7504,7.3506,6.8505,4.9504
2113.2812,3.9503,4.9504,6.1505,5.1504,1.1501,2.6502,-2.7502,1.3501,6.4505,4.0503,4.7504,3.9503,10.8508,5.4504,2.4502,3.7503,6.7505,7.4506,9.3507
2117.1875,3.2502,5.0504,7.9506,9.0507,4.7504,3.1502,1.4501,4.3503,6.3505,3.3503,5.5504,2.8502,10.0508,7.0505,5.5504,3.9503,5.3504,8.9507,12.7510
2121.0938,2.9502,6.5505,9.3507,12.0509,7.7506,6.3505,5.8504,7.0505,6.2505,2.9502,5.4504,2.3502,8.0506,7.6506,5.0504,4.0503,3.3503,10.2508,14.1511
2125.0000,2.4502,8.0506,9.8508,13.3510,9.5507,9.9508,8.8507,8.9507,5.5504,2.3502,3.9503,1.7501,4.6504,6.8505,0.8501,2.5502,0.6500,10.0508,12.9510
2128.9062,1.4501,7.9506,9.0507,12.5510,9.5507,11.4509,9.9508,9.5507,3.6503,0.7501,1.1501,0.1500,0.2500,4.7504,-4.9504,-1.3501,-2.1502,7.6506,9.2507
2132.8125,-0.0500,5.6504,6.9505,9.7507,8.0506,9.5507,9.1507,8.8507,0.4500,-1.8501,-2.3502,-2.6502,-4.6504,1.8501,-9.2507,-6.9505,-5.1504,3.2502,3.8503
2136.7188,-1.8501,1.9501,3.3503,5.5504,5.4504,5.2504,6.4505,7.3506,-3.3503,-5.0504,-5.6504,-6.2505,-9.2507,-0.6500,-9.7507,-12.1509,-7.5506,-2.1502,-2.1502
2140.6250,-3.4503,-1.8501,-0.9501,0.9501,2.6502,0.7501,1.9501,5.3504,-7.1505,-7.7506,-8.0506,-9.3507,-12.4509,-2.1502,-7.0505,-15.0511,-8.8507,-7.2506,-7.4506
2144.5312,-4.1503,-4.6504,-4.8504,-2.5502,0.4500,-2.1502,-3.2502,3.5503,-9.5507,-9.1507,-9.1507,-10.4508,-13.0510,-1.9501,-4.2503,-14.0511,-8.2506,-10.4508,-10.6508
2148.4375,-3.8503,-5.1504,-6.7505,-4.1503,-0.4500,-2.9502,-7.7506,2.2502,-9.3507,-8.7507,-8.8507,-8.6507,-9.9508,-0.0500,-4.2503,-8.3506,-5.0504,-10.4508,-10.4508
2152.3438,-2.5502,-3.2502,-4.9504,-3.0502,-0.1500,-1.5501,-9.3507,1.8501,-6.1505,-6.3505,-6.6505,-3.3503,-3.3503,3.0502,-7.5506,1.1501,0.6500,-6.5505,-6.3505
2156.2500,-0.5500,0.7501,0.5500,0.3500,0.7501,1.0501,-7.0505,2.4502,-0.4500,-2.5502,-2.4502,4.3503,5.4504,6.4505,-11.4509,11.9509,7.8506,0.2500,0.3500
2160.1562,1.3501,5.7504,8.1506,4.9504,1.4501,4.1503,-1.5501,3.3503,5.8504,1.4501,2.6502,12.0509,13.9511,8.7507,-12.2509,19.5515,14.4511,8.2506,7.6506
2164.0625,3.0502,10.2508,14.4511,8.6507,1.1501,6.7505,4.7504,4.0503,10.8508,4.9504,7.3506,16.6513,19.0515,8.9507,-8.4506,20.2515,17.8514,14.3511,12.4509
2167.9688,4.3503,12.5510,17.0513,10.0508,-0.3500,8.2506,9.3507,3.9503,12.8510,6.8505,9.5507,15.8512,18.9514,6.4505,-1.6501,13.1510,16.5513,16.5513,12.9510
2171.8750,5.2504,12.4509,15.3512,9.0507,-2.2502,8.8507,10.7508,3.1502,11.4509,7.2506,8.7507,9.8508,14.1511,2.2502,5.0504,1.6501,11.2509,14.1511,9.5507
2175.7812,6.2505,10.6508,10.9508,6.8505,-3.0502,9.6507,9.4507,2.4502,8.0506,6.7505,5.8504,1.3501,7.1505,-2.0502,9.0507,-8.4506,4.2503,8.7507,4.4503
2179.6875,7.4506,8.7507,6.5505,5.3504,-1.8501,11.4509,7.3506,2.5502,4.2503,6.0505,2.6502,-5.8504,1.0501,-4.6504,9.8508,-12.1509,-1.4501,2.7502,0.7501
2183.5938,8.5507,7.9506,3.7503,5.3504,1.1501,14.5511,6.2505,3.7503,1.5501,5.6504,0.9501,-8.8507,-1.8501,-4.5503,8.6507,-8.3506,-3.8503,-1.4501,0.0500
2187.5000,9.0507,8.3506,2.6502,6.5505,4.9504,17.4513,6.5505,5.3504,0.3500,5.5504,1.1501,-6.9505,-1.7501,-1.7501,6.9505,-0.5500,-2.7502,-2.9502,2.3502
2191.4062,8.3506,9.0507,2.1502,7.7506,7.7506,18.2514,6.8505,6.3505,0.0500,5.5504,2.3502,-2.0502,0.1500,2.1502,5.2504,6.2505,0.0500,-2.0502,5.5504
2195.3125,6.8505,8.6507,0.8501,7.4506,8.4506,15.6512,5.4504,5.8504,0.1500,5.1504,3.3503,3.1502,1.8501,5.5504,3.1502,8.1506,2.6502,-0.0500,7.3506
2199.2188,5.1504,6.9505,-0.9501,5.3504,7.1505,10.6508,1.8501,3.8503,0.3500,4.3503,3.6503,6.6505,2.3502,7.2506,0.6500,5.1504,3.5503,1.8501,6.5505
2203.1250,4.1503,4.5503,-2.7502,2.2502,4.7504,5.3504,-2.3502,1.1501,0.9501,3.6503,3.4503,8.0506,1.6501,7.4506,-1.1501,-0.0500,2.7502,3.4503,3.6503
2207.0312,4.1503,2.5502,-3.0502,-0.3500,2.9502,2.0502,-5.4504,-0.8501,2.0502,3.5503,3.6503,7.8506,0.9501,6.9505,-1.4501,-3.8503,1.5501,4.5503,0.2500
2210.9375,4.8504,1.8501,-1.6501,-1.3501,2.6502,1.4501,-6.5505,-1.6501,3.5503,3.9503,4.2503,7.0505,1.5501,7.0505,0.3500,-4.2503,1.3501,4.9504,-1.7501
2214.8438,5.3504,1.8501,0.9501,-0.5500,3.8503,2.3502,-6.0505,-1.1501,4.6504,4.4503,4.8504,5.9505,3.6503,8.0506,2.8502,-1.6501,2.9502,4.6504,-1.5501
2218.7500,4.9504,1.5501,3.3503,1.2501,5.9505,2.8502,-5.4504,-0.1500,4.3503,3.9503,4.3503,4.1503,6.8505,9.4507,3.7503,1.7501,5.6504,3.2502,0.6500
2222.6562,3.5503,0.2500,4.2503,2.9502,7.8506,1.6501,-5.4504,0.4500,2.3502,2.1502,2.1502,1.5501,9.9508,10.1508,1.7501,4.1503,8.4506,0.8501,3.6503
2226.5625,1.9501,-2.1502,3.4503,3.4503,8.8507,-1.0501,-5.2504,0.7501,-0.4500,-0.6500,-0.9501,-1.5501,11.9509,9.3507,-1.8501,5.0504,10.1508,-1.8501,6.0505
2230.4688,0.8501,-4.8504,1.3501,2.8502,8.6507,-4.3503,-3.0502,0.9501,-2.8502,-3.5503,-3.6503,-4.1503,12.0509,7.0505,-4.5503,5.3504,10.0508,-3.9503,6.7505
2234.3750,0.7501,-6.6505,-0.7501,1.5501,7.6506,-6.4505,1.7501,1.3501,-3.6503,-4.9504,-4.5503,-5.2504,9.9508,3.4503,-3.9503,6.1505,7.9506,-4.4503,5.7504
2238.2812,1.4501,-6.4505,-2.1502,0.2500,5.9505,-6.0505,8.1506,2.0502,-2.5502,-4.3503,-3.2502,-4.5503,5.9505,-0.4500,-0.1500,7.4506,3.9503,-3.3503,3.4503
2242.1875,2.2502,-4.4503,-2.5502,-0.6500,3.6503,-3.2502,12.7510,2.5502,-0.1500,-2.2502,-0.7501,-2.3502,0.7501,-3.9503,4.1503,7.9506,-0.6500,-1.3501,0.6500
2246.0938,2.6502,-1.4501,-2.2502,-1.4501,0.9501,0.8501,12.7510,2.2502,2.1502,0.2500,1.6501,0.1500,-4.0503,-6.6505,6.3505,6.3505,-4.8504,0.1500,-1.8501
2250.0000,2.4502,0.8501,-1.7501,-1.9501,-1.3501,4.6504,7.4506,1.0501,3.3503,2.1502,3.2502,2.3502,-7.2506,-8.0506,5.8504,2.9502,-6.8505,0.7501,-3.7503
2253.9062,1.7501,1.9501,-1.2501,-2.2502,-3.0502,6.0505,-0.7501,-0.4500,3.1502,2.8502,3.8503,3.5503,-7.8506,-8.1506,4.4503,-0.5500,-6.1505,0.0500,-4.7504
2257.8125,0.9501,1.5501,-0.9501,-2.2502,-3.6503,4.1503,-8.0506,-1.5501,1.6501,2.5502,3.9503,3.8503,-6.0505,-6.8505,5.0504,-2.7502,-3.2502,-1.6501,-5.0504
2261.7188,0.4500,0.1500,-0.2500,-1.7501,-3.1502,-0.4500,-10.8508,-1.5501,-0.2500,2.1502,3.9503,3.6503,-2.6502,-4.5503,8.7507,-2.7502,0.2500,-3.5503,-4.5503
2265.6250,0.5500,-1.1501,0.7501,-0.6500,-1.9501,-5.7504,-8.3506,-0.3500,-1.9501,2.0502,3.8503,3.3503,1.1501,-1.5501,13.4510,-0.9501,3.2502,-4.5503,-3.2502
2269.5312,1.3501,-2.0502,2.2502,0.8501,-0.5500,-8.9507,-2.2502,1.1501,-2.8502,2.1502,3.4503,3.0502,4.5503,1.4501,14.9511,0.8501,4.8504,-4.1503,-1.1501
2273.4375,2.5502,-2.0502,4.1503,2.8502,0.6500,-8.6507,4.0503,2.4502,-2.7502,2.0502,2.0502,2.4502,7.2506,4.2503,9.7507,1.6501,5.3504,-2.5502,1.8501
2277.3438,3.5503,-1.5501,5.9505,5.0504,1.9501,-5.1504,7.9506,2.8502,-1.8501,1.3501,-0.0500,1.6501,9.2507,6.3505,-1.3501,1.0501,5.4504,0.0500,5.6504
2281.2500,3.9503,-0.7501,7.3506,6.9505,3.0502,-0.4500,7.9506,2.5502,-0.2500,0.2500,-2.2502,0.5500,10.7508,7.7506,-13.6510,-0.2500,6.0505,2.7502,9.3507
2285.1562,4.2503,0.4500,8.1506,8.2506,3.8503,3.3503,4.9504,1.8501,1.9501,0.0500,-3.2502,0.0500,11.7509,8.6507,-20.8516,-1.8501,7.1505,5.5504,12.0509
2289.0625,5.1504,2.0502,8.1506,8.4506,4.1503,4.9504,1.0501,1.0501,4.9504,1.6501,-2.0502,0.2500,12.1509,8.9507,-18.3514,-3.2502,8.2506,7.7506,12.6510
2292.9688,7.2506,4.1503,7.3506,7.1505,3.5503,4.3503,-1.4501,0.0500,8.4506,5.6504,1.4501,1.8501,11.7509,8.5507,-6.3505,-4.0503,8.6507,9.2507,10.9508
2296.8750,10.3508,6.3505,5.8504,4.4503,2.0502,2.7502,-1.4501,-1.2501,11.9509,10.9508,6.8505,4.7504,10.5508,7.3506,10.3508,-3.5503,7.5506,9.9508,7.6506
2300.7812,13.3510,8.2506,4.0503,0.6500,0.0500,1.8501,0.3500,-2.8502,14.3511,15.6512,12.4509,8.4506,8.6507,5.1504,25.6520,-0.5500,5.2504,9.4507,3.7503
2304.6875,14.7511,9.4507,2.0502,-2.9502,-1.8501,2.5502,2.7502,-4.2503,14.9511,18.0514,16.6513,12.3509,6.3505,2.2502,33.8526,5.3504,2.5502,8.0506,0.7501
2308.5938,13.8511,9.6507,0.5500,-5.4504,-3.1502,4.6504,3.9503,-4.7504,13.6510,17.4513,18.2514,15.5512,4.1503,-0.3500,32.3525,13.1510,0.4500,6.2505,-0.4500
2312.5000,10.8508,9.0507,0.0500,-6.0505,-3.1502,6.8505,3.3503,-3.9503,11.0508,14.1511,17.0513,17.2513,2.8502,-2.2502,22.8517,20.0515,0.0500,4.7504,-0.1500
2316.4062,6.8505,7.8506,0.6500,-4.8504,-1.8501,7.7506,1.1501,-2.1502,8.3506,9.6507,13.7510,16.7513,2.4502,-3.1502,9.6507,22.6517,0.6500,3.8503,0.9501
2320.3125,2.9502,6.1505,1.7501,-2.7502,-0.0500,6.5505,-1.3501,-0.0500,6.1505,5.3504,9.2507,13.9511,2.4502,-3.0502,-2.0502,19.0515,1.8501,3.4503,1.7501
2324.2188,0.0500,3.8503,2.0502,-1.0501,1.4501,3.0502,-3.3503,1.3501,4.2503,2.2502,4.7504,9.5507,2.1502,-2.3502,-8.5507,10.4508,2.1502,3.0502,1.3501
2328.1250,-2.2502,0.8501,0.9501,-0.2500,2.4502,-1.3501,-4.3503,1.9501,2.1502,0.7501,1.1501,4.7504,1.0501,-1.4501,-8.3506,0.8501,1.4501,1.8501,-0.0500
2332.0312,-4.0503,-2.5502,-1.5501,-0.0500,3.1502,-4.9504,-4.1503,2.1502,-0.6500,0.2500,-1.3501,1.0501,-0.6500,-0.0500,-2.6502,-5.2504,0.0500,-0.2500,-1.6501
2335.9375,-5.6504,-5.6504,-4.6504,0.4500,4.1503,-6.2505,-2.8502,2.6502,-4.2503,-0.3500,-3.0502,-1.1501,-2.4502,1.7501,4.4503,-5.7504,-1.2501,-2.9502,-1.9501
2339.8438,-6.7505,-7.5506,-6.6505,2.2502,5.5504,-4.7504,-0.6500,3.7503,-8.0506,-1.6501,-4.8504,-2.8502,-3.6503,3.9503,7.8506,-2.4502,-2.0502,-5.3504,-0.4500
2343.7500,-7.0505,-7.9506,-6.6505,5.0504,6.9505,-1.6501,1.9501,5.3504,-11.0508,-3.6503,-7.5506,-5.2504,-3.8503,6.1505,3.9503,0.4500,-2.2502,-6.6505,2.1502
2347.6562,-6.8505,-7.4506,-4.8504,7.3506,7.6506,0.7501,3.9503,6.0505,-12.8510,-6.1505,-11.3509,-9.3507,-3.3503,7.3506,-6.5505,-0.9501,-2.2502,-6.8505,4.7504
2351.5625,-6.6505,-7.1505,-2.9502,7.2506,6.7505,0.9501,3.8503,4.7504,-13.5510,-8.6507,-15.3512,-14.9511,-3.1502,6.9505,-18.8514,-7.4506,-2.6502,-6.9505,5.3504
2355.4688,-7.3506,-8.4506,-3.0502,3.3503,3.6503,-2.0502,0.2500,0.6500,-14.1511,-11.0508,-18.5514,-20.5516,-3.9503,4.8504,-26.8520,-15.9512,-3.5503,-8.0506,2.8502
2359.3750,-9.1507,-11.7509,-6.3505,-3.7503,-0.8501,-7.6506,-6.5505,-5.3504,-15.1512,-12.9510,-20.1515,-24.2519,-6.2505,1.4501,-26.9521,-22.0517,-4.6504,-11.0508,-2.5502
2363.2812,-11.3509,-15.8512,-11.8509,-12.0509,-5.8504,-13.3510,-14.5511,-11.5509,-16.6513,-13.8511,-19.9515,-24.7519,-9.8508,-2.0502,-20.3516,-22.7517,-5.5504,-15.2512,-9.6507
2367.1875,-12.6510,-18.5514,-17.2513,-18.2514,-9.7507,-16.3512,-20.4516,-15.3512,-17.6513,-13.0510,-17.9514,-21.6517,-13.3510,-4.7504,-11.0508,-17.9514,-5.8504,-18.7514,-16.1512
2371.0938,-11.8509,-17.8514,-19.5515,-20.0515,-11.4509,-14.4511,-21.7517,-15.4512,-16.6513,-10.1508,-14.4511,-15.4512,-15.4512,-5.6504,-3.0502,-9.9508,-5.2504,-19.5515,-20.0515
2375.0000,-8.7507,-13.3510,-17.2513,-17.1513,-10.8508,-7.8506,-17.6513,-11.8509,-13.1510,-5.4504,-9.6507,-7.7506,-14.9511,-4.5503,2.1502,-1.4501,-3.8503,-16.8513,-20.3516
2378.9062,-4.1503,-6.3505,-11.2509,-11.0508,-8.5507,1.2501,-9.7507,-6.3505,-7.4506,-0.1500,-4.1503,-0.4500,-11.8509,-2.2502,5.8504,5.1504,-1.6501,-11.3509,-17.1513
2382.8125,0.0500,0.3500,-3.9503,-4.3503,-5.3504,9.2507,-0.8501,-0.9501,-1.4501,4.1503,0.8501,4.6504,-7.0505,0.3500,8.7507,8.8507,0.6500,-5.1504,-11.7509
2386.7188,2.8502,4.5503,1.8501,0.9501,-2.3502,13.0510,6.0505,2.4502,2.9502,6.4505,4.1503,6.6505,-1.6501,2.4502,10.0508,9.4507,3.1502,-0.1500,-5.7504
2390.6250,3.4503,5.1504,4.6504,3.9503,-0.0500,11.4509,9.5507,3.7503,4.6504,6.3505,4.5503,5.7504,3.1502,3.6503,7.8506,7.6506,5.4504,2.4502,-0.0500
2394.5312,2.4502,3.3503,4.8504,5.2504,1.0501,5.9505,9.7507,3.6503,3.7503,4.2503,2.2502,3.5503,7.2506,3.7503,1.3501,4.7504,7.2506,3.1502,4.5503
2398.4375,0.7501,1.0501,3.9503,6.0505,1.6501,-0.3500,8.2506,3.2502,1.6501,1.5501,-0.9501,1.9501,10.4508,3.1502,-7.1505,2.3502,8.1506,3.3503,8.4506
2402.3438,-0.6500,0.0500,3.6503,7.2506,1.6501,-4.4503,6.8505,3.4503,0.0500,-0.3500,-3.4503,2.1502,12.7510,2.2502,-13.8511,1.8501,8.0506,4.1503,11.7509
2406.2500,-1.2501,0.8501,4.5503,8.6507,1.6501,-4.9504,5.9505,4.2503,-0.3500,-0.8501,-3.7503,4.2503,13.9511,1.6501,-15.6512,3.8503,6.8505,5.5504,14.0511
2410.1562,-1.0501,2.5502,6.0505,9.6507,1.6501,-2.4502,5.1504,5.0504,0.2500,0.0500,-2.0502,6.8505,13.8511,1.3501,-11.9509,7.9506,5.2504,6.9505,14.7511
2414.0625,-0.0500,3.8503,7.1505,9.2507,1.7501,0.4500,3.9503,4.9504,1.5501,1.7501,0.7501,8.7507,12.5510,1.4501,-4.8504,12.4509,3.9503,7.4506,13.7510
2417.9688,1.2501,4.0503,7.2506,7.1505,1.9501,2.1502,2.2502,3.5503,2.7502,3.0502,3.7503,9.0507,10.3508,1.6501,2.3502,15.4512,3.2502,6.6505,11.0508
2421.8750,2.4502,3.4503,6.4505,3.7503,1.6501,1.9501,0.8501,1.1501,3.6503,3.3503,6.1505,7.9506,7.2506,1.4501,7.4506,15.5512,2.8502,4.8504,7.4506
2425.7812,3.1502,2.8502,5.2504,-0.1500,0.5500,0.5500,0.1500,-1.6501,4.1503,2.8502,7.8506,6.0505,3.3503,0.1500,9.1507,12.3509,1.7501,2.9502,3.6503
2429.6875,3.1502,3.0502,4.1503,-3.6503,-1.1501,-0.4500,0.2500,-4.4503,4.8504,2.1502,8.8507,4.2503,-1.1501,-2.1502,7.6506,7.0505,-0.6500,1.8501,0.2500
2433.5938,2.4502,4.1503,3.4503,-5.7504,-3.0502,-0.3500,0.7501,-6.1505,5.7504,1.8501,9.1507,2.7502,-5.9505,-5.0504,4.0503,1.8501,-4.3503,1.9501,-2.3502
2437.5000,1.5501,5.5504,2.9502,-5.6504,-4.1503,0.6500,0.9501,-6.2505,6.8505,2.2502,8.8507,1.9501,-10.0508,-7.3506,0.1500,-1.1501,-8.0506,2.9502,-3.8503
2441.4062,0.6500,6.2505,2.5502,-3.5503,-3.3503,2.0502,0.8501,-4.5503,7.5506,2.8502,7.8506,2.0502,-12.0509,-7.8506,-2.2502,-0.7501,-9.8508,4.4503,-3.6503
2445.3125,-0.1500,5.9505,1.9501,-0.0500,-0.6500,3.0502,0.6500,-1.4501,7.3506,2.5502,6.5505,3.0502,-10.9508,-6.0505,-2.4502,2.7502,-8.6507,5.4504,-1.6501
2449.2188,-1.2501,4.2503,1.1501,3.4503,3.1502,3.5503,0.6500,2.1502,5.7504,0.8501,4.8504,4.6504,-7.1505,-2.3502,-0.4500,7.3506,-4.6504,5.4504,1.5501
2453.1250,-2.6502,1.7501,0.0500,5.5504,6.9505,3.6503,1.4501,5.0504,2.8502,-2.1502,2.6502,5.5504,-2.0502,1.8501,2.0502,9.8508,0.1500,3.8503,4.7504
2457.0312,-3.9503,-1.0501,-1.7501,4.9504,8.7507,3.2502,3.1502,6.1505,-0.9501,-5.3504,-0.0500,4.3503,1.7501,4.8504,3.6503,7.4506,3.6503,0.7501,6.0505
2460.9375,-4.6504,-4.0503,-4.4503,1.2501,7.5506,1.9501,5.0504,4.8504,-4.9504,-7.0505,-3.5503,0.0500,2.2502,5.0504,3.2502,-0.1500,3.6503,-3.4503,3.5503
2464.8438,-4.0503,-6.7505,-8.1506,-4.3503,3.3503,0.0500,5.7504,1.3501,-7.9506,-6.0505,-7.1505,-6.6505,-1.2501,2.0502,1.1501,-10.6508,0.1500,-7.8506,-2.7502
2468.7500,-1.8501,-8.6507,-11.8509,-10.3508,-2.6502,-2.3502,3.6503,-3.0502,-9.1507,-2.1502,-9.6507,-13.8511,-7.5506,-3.0502,-0.8501,-19.5515,-5.2504,-11.1509,-11.6509
2472.6562,1.1501,-9.2507,-14.4511,-14.4511,-8.5507,-4.3503,-1.2501,-7.1505,-8.4506,3.3503,-9.9508,-18.4514,-13.8511,-8.4506,-0.5500,-22.8517,-10.0508,-12.2509,-19.8515
2476.5625,3.9503,-8.3506,-14.4511,-15.0511,-12.3509,-5.7504,-7.5506,-9.2507,-5.9505,8.3506,-7.6506,-18.3514,-16.8513,-12.0509,3.3503,-19.5515,-12.0509,-10.7508,-24.0518
2480.4688,4.9504,-6.2505,-11.3509,-11.9509,-12.9510,-6.7505,-12.4509,-8.7507,-2.8502,10.8508,-3.5503,-13.7510,-15.2512,-12.6510,9.7507,-11.4509,-10.5508,-6.9505,-22.6517
2484.3750,3.6503,-3.6503,-5.6504,-6.4505,-10.8508,-7.3506,-14.0511,-6.0505,-0.2500,9.6507,0.5500,-6.6505,-9.6507,-10.6508,14.6511,-2.4502,-6.6505,-2.1502,-16.2512
2488.2812,0.6500,-1.1501,0.6500,-0.6500,-7.1505,-7.3506,-11.5509,-2.3502,1.1501,5.6504,2.9502,-0.1500,-2.5502,-7.3506,14.0511,3.9503,-2.2502,2.2502,-7.4506
2492.1875,-2.3502,0.5500,5.7504,3.7503,-3.5503,-6.2505,-6.0505,1.0501,1.4501,0.6500,2.7502,3.4503,3.0502,-4.0503,7.4506,6.5505,0.6500,5.1504,0.4500
2496.0938,-4.1503,1.3501,7.8506,6.0505,-0.7501,-4.0503,0.0500,3.4503,1.2501,-3.0502,0.7501,3.9503,5.7504,-1.5501,-1.7501,5.8504,1.3501,6.4505,5.5504
2500.0000,-3.9503,1.4501,7.0505,6.1505,0.7501,-1.5501,4.7504,4.2503,1.0501,-4.4503,-1.2501,2.3502,5.6504,0.0500,-7.9506,3.7503,0.1500,6.2505,7.0505
2503.9062,-2.4502,0.9501,4.2503,4.9504,1.3501,0.2500,6.9505,3.7503,1.3501,-3.7503,-1.9501,0.3500,3.7503,0.8501,-7.6506,1.7501,-1.8501,5.2504,6.0505
2507.8125,-0.7501,0.6500,1.1501,2.9502,1.0501,0.6500,6.9505,2.2502,1.9501,-2.2502,-0.8501,-0.7501,1.3501,1.0501,-1.8501,0.6500,-3.6503,3.9503,4.0503
2511.7188,0.3500,0.8501,-0.6500,0.4500,-0.0500,0.1500,6.1505,0.2500,2.3502,-1.1501,1.1501,-0.9501,-0.6500,0.4500,4.6504,0.2500,-4.5503,2.3502,1.9501
2515.6250,0.8501,1.6501,-1.2501,-2.3502,-2.2502,-0.1500,5.7504,-1.8501,2.1502,-1.1501,2.9502,-0.7501,-2.2502,-1.1501,7.3506,0.1500,-4.5503,0.3500,0.0500
2519.5312,1.4501,2.7502,-1.2501,-5.6504,-5.4504,0.6500,5.6504,-4.2503,1.4501,-1.4501,3.3503,-0.7501,-3.6503,-4.0503,4.0503,-0.4500,-4.0503,-1.9501,-2.2502
2523.4375,2.4502,3.4503,-1.5501,-8.9507,-8.9507,3.1502,4.7504,-6.5505,0.3500,-1.3501,1.9501,-1.5501,-5.0504,-7.7506,-2.8502,-2.2502,-3.9503,-4.4503,-5.1504
2527.3438,4.1503,3.4503,-2.5502,-11.1509,-12.1509,6.3505,2.2502,-8.5507,-0.5500,-0.0500,-0.1500,-2.6502,-6.4505,-11.5509,-8.9507,-4.9504,-4.3503,-6.3505,-8.3506
2531.2500,5.7504,2.5502,-3.5503,-11.2509,-14.1511,8.5507,-1.5501,-9.4507,-0.8501,2.1502,-1.8501,-3.0502,-7.2506,-14.5511,-10.3508,-7.7506,-5.1504,-6.8505,-10.4508
2535.1562,6.6505,1.5501,-3.0502,-8.5507,-13.9511,8.7507,-5.1504,-8.8507,-0.0500,4.6504,-1.5501,-1.9501,-6.9505,-15.7512,-5.6504,-9.4507,-5.7504,-5.1504,-10.0508
2539.0625,6.4505,0.9501,-0.2500,-3.1502,-11.2509,6.8505,-6.0505,-6.2505,2.0502,6.3505,1.2501,1.0501,-5.0504,-14.8511,2.8502,-9.2507,-5.5504,-1.3501,-6.3505
2542.9688,5.1504,1.3501,4.3503,3.5503,-6.1505,3.8503,-3.2502,-1.9501,4.8504,6.5505,5.5504,5.0504,-1.7501,-11.6509,10.7508,-7.3506,-4.5503,3.5503,-0.0500
2546.8750,3.2502,2.4502,9.4507,10.1508,0.4500,1.0501,2.4502,3.3503,7.2506,5.2504,9.2507,8.2506,1.7501,-6.9505,13.9511,-4.4503,-3.3503,8.1506,6.8505
2550.7812,0.9501,3.4503,12.9510,15.0511,7.5506,-0.4500,8.9507,8.8507,7.9506,3.0502,10.4508,8.8507,4.5503,-1.6501,10.8508,-1.6501,-2.4502,10.8508,12.3509
2554.6875,-1.1501,3.7503,13.5510,17.4513,13.7510,-0.9501,13.9511,13.2510,6.7505,0.4500,8.3506,6.4505,5.9505,3.2502,3.6503,-0.0500,-2.5502,11.2509,15.0511
2558.5938,-2.9502,3.0502,11.1509,17.1513,18.0514,-0.7501,15.9512,15.7512,4.3503,-1.5501,4.1503,2.2502,6.0505,6.9505,-3.2502,0.5500,-3.1502,9.6507,14.9511
2562.5000,-3.9503,1.9501,6.9505,14.7511,20.0515,-0.2500,14.5511,15.9512,1.9501,-2.7502,0.1500,-1.2501,5.5504,9.2507,-5.6504,0.8501,-3.2502,7.4506,13.0510
2566.4062,-3.8503,1.0501,1.9501,10.8508,19.5515,-0.1500,9.9508,13.9511,0.7501,-2.8502,-1.7501,-2.1502,5.2504,10.2508,-2.4502,1.8501,-2.0502,5.6504,10.1508
2570.3125,-2.8502,0.3500,-2.6502,6.1505,16.7513,-1.0501,3.0502,10.1508,0.8501,-2.1502,-1.3501,-0.1500,5.1504,9.8508,3.5503,3.7503,0.4500,4.5503,6.8505
2574.2188,-1.6501,-0.2500,-6.4505,0.8501,11.9509,-2.7502,-4.9504,5.4504,1.2501,-1.3501,0.0500,2.9502,4.3503,8.3506,7.7506,5.6504,3.3503,3.6503,2.8502
2578.1250,-1.0501,-1.4501,-8.8507,-4.3503,5.9505,-4.7504,-12.0509,0.5500,0.7501,-1.5501,0.8501,4.8504,1.9501,5.5504,6.3505,6.3505,5.1504,1.9501,-2.1502
2582.0312,-2.0502,-3.2502,-9.7507,-9.2507,-0.4500,-6.0505,-16.1512,-3.7503,-1.3501,-3.2502,-0.5500,3.1502,-2.4502,1.7501,-1.3501,4.2503,4.3503,-1.0501,-7.8506
2585.9375,-4.4503,-5.2504,-9.3507,-12.6510,-6.1505,-6.0505,-16.2512,-7.0505,-4.8504,-6.2505,-4.3503,-1.8501,-8.3506,-2.4502,-12.4509,-0.6500,0.7501,-5.0504,-12.9510
2589.8438,-7.5506,-6.3505,-7.7506,-13.9511,-10.0508,-4.5503,-12.8510,-8.8507,-8.2506,-9.4507,-8.9507,-8.5507,-13.8511,-6.0505,-22.2517,-7.3506,-4.1503,-8.4506,-16.0512
2593.7500,-9.7507,-5.9505,-5.4504,-12.2509,-11.3509,-2.3502,-7.9506,-8.8507,-9.5507,-11.4509,-12.0509,-13.4510,-16.9513,-7.8506,-26.2520,-12.8510,-8.3506,-9.6507,-15.7512
2597.6562,-10.0508,-3.6503,-2.5502,-7.8506,-9.9508,-0.5500,-3.6503,-7.1505,-7.7506,-11.1509,-11.7509,-14.0511,-16.2512,-7.2506,-22.9518,-14.7511,-9.8508,-7.7506,-11.9509
2601.5625,-7.8506,0.0500,0.5500,-1.6501,-6.7505,0.2500,-1.4501,-4.1503,-2.9502,-8.4506,-7.4506,-9.6507,-11.6509,-4.6504,-13.6510,-12.1509,-8.1506,-2.8502,-5.5504
2605.4688,-3.9503,4.2503,4.0503,4.5503,-3.0502,0.2500,-1.2501,-0.3500,3.1502,-4.5503,-0.6500,-1.8501,-4.7504,-1.2501,-2.2502,-6.4505,-4.1503,3.4503,1.4501
2609.3750,0.1500,7.7506,7.4506,9.4507,0.0500,-0.1500,-1.6501,3.1502,8.7507,-0.7501,6.1505,6.2505,2.1502,1.5501,6.7505,-0.4500,0.0500,9.2507,7.6506
2613.2812,3.4503,9.4507,10.1508,12.2509,1.5501,-0.7501,-0.6500,6.1505,11.8509,1.6501,10.5508,11.8509,7.1505,2.8502,10.5508,2.7502,2.4502,12.7510,11.2509
2617.1875,5.1504,8.5507,11.5509,12.5510,1.5501,-1.3501,2.8502,8.0506,11.5509,2.6502,11.0508,12.8510,8.7507,2.2502,8.6507,2.0502,2.1502,12.9510,11.8509
2621.0938,5.2504,5.3504,10.9508,10.5508,0.4500,-2.0502,8.6507,8.3506,8.2506,2.3502,8.0506,9.3507,7.1505,0.1500,3.0502,-1.5501,-0.4500,9.8508,9.7507
2625.0000,4.0503,0.7501,7.9506,7.0505,-0.9501,-2.8502,13.6510,7.2506,3.4503,1.1501,3.2502,3.0502,3.5503,-1.9501,-2.4502,-6.3505,-3.9503,4.9504,5.9505
2628.9062,2.1502,-3.6503,3.4503,3.0502,-1.8501,-3.7503,14.5511,4.8504,-0.9501,0.0500,-1.1501,-2.8502,0.1500,-3.0502,-5.1504,-9.5507,-5.6504,0.0500,2.1502
2632.8125,0.5500,-6.3505,-1.0501,-0.2500,-1.2501,-4.4503,9.7507,2.2502,-3.4503,-0.8501,-3.3503,-6.2505,-0.7501,-1.8501,-3.5503,-9.6507,-3.9503,-3.2502,-0.1500
2636.7188,-0.0500,-6.5505,-4.0503,-1.8501,0.9501,-4.7504,0.9501,0.1500,-2.9502,-1.1501,-2.7502,-5.7504,1.4501,1.4501,0.8501,-6.3505,1.2501,-3.9503,-0.3500
2640.6250,0.2500,-4.1503,-4.2503,-1.4501,4.6504,-4.3503,-7.4506,-0.5500,-0.2500,-0.7501,-0.0500,-2.1502,6.1505,6.0505,5.5504,-0.6500,8.5507,-2.2502,1.4501
2644.5312,1.2501,-0.5500,-1.8501,0.6500,8.4506,-3.3503,-11.5509,0.0500,2.9502,0.0500,2.8502,2.6502,10.9508,10.2508,7.7506,5.3504,14.9511,0.6500,4.5503
2648.4375,1.9501,2.7502,1.7501,3.6503,11.2509,-1.8501,-10.0508,1.8501,5.1504,0.9501,4.7504,6.6505,13.7510,12.7510,6.7505,10.3508,18.3514,3.5503,7.4506
2652.3438,1.8501,4.8504,4.9504,6.4505,12.2509,-0.6500,-4.6504,4.0503,5.4504,1.8501,4.9504,8.3506,13.1510,13.2510,3.4503,13.5510,17.8514,5.3504,8.8507
2656.2500,0.8501,5.0504,6.1505,8.1506,11.5509,-0.1500,0.8501,5.7504,3.8503,2.5502,3.5503,7.8506,9.7507,12.0509,0.0500,15.0511,14.3511,5.7504,8.2506
2660.1562,-0.3500,3.5503,4.8504,8.1506,9.8508,-0.6500,3.7503,6.5505,1.6501,2.7502,1.6501,5.7504,5.1504,10.3508,-1.6501,15.0511,9.8508,4.7504,5.9505
2664.0625,-1.0501,1.4501,1.7501,6.6505,8.2506,-1.7501,3.2502,6.1505,-0.1500,2.2502,0.2500,3.4503,1.3501,8.9507,-0.8501,13.8511,6.0505,3.0502,2.8502
2667.9688,-0.7501,-0.2500,-1.3501,4.3503,7.0505,-2.3502,0.7501,4.9504,-1.0501,0.7501,0.0500,1.9501,-0.0500,7.9506,1.8501,11.3509,4.0503,1.2501,0.2500
2671.8750,0.3500,-0.5500,-3.1502,1.9501,6.1505,-1.2501,-1.6501,3.2502,-1.0501,-1.4501,0.9501,1.6501,0.4500,7.1505,5.2504,7.7506,3.6503,-0.0500,-0.7501
2675.7812,1.6501,0.3500,-2.8502,-0.1500,4.8504,1.2501,-3.1502,1.5501,-0.6500,-3.9503,2.4502,2.0502,2.0502,5.5504,7.2506,3.2502,3.8503,-1.1501,-0.4500
2679.6875,1.9501,2.0502,-1.1501,-2.0502,2.5502,3.6503,-3.8503,0.0500,-0.7501,-5.5504,3.3503,1.9501,2.9502,3.1502,6.0505,-1.5501,3.5503,-1.8501,0.1500
2683.5938,0.5500,2.6502,0.3500,-3.8503,-0.5500,3.4503,-4.1503,-1.4501,-1.6501,-5.7504,2.6502,0.6500,2.1502,0.0500,1.3501,-6.0505,1.9501,-2.7502,0.3500
2687.5000,-2.3502,0.9501,0.4500,-5.8504,-4.0503,-0.3500,-4.2503,-2.8502,-3.3503,-4.6504,0.3500,-2.0502,-0.2500,-2.5502,-5.0504,-8.9507,-0.2500,-4.0503,-0.6500
2691.4062,-6.0505,-3.0502,-1.3501,-7.7506,-6.9505,-7.2506,-3.9503,-4.1503,-5.3504,-3.2502,-2.6502,-5.4504,-3.1502,-4.0503,-10.3508,-9.7507,-2.2502,-5.4504,-2.7502
2695.3125,-9.3507,-8.3506,-4.4503,-8.9507,-8.4506,-14.1511,-3.0502,-5.0504,-7.0505,-2.7502,-5.7504,-8.3506,-4.8504,-3.9503,-12.1509,-8.2506,-2.6502,-6.9505,-4.7504
2699.2188,-11.1509,-12.8510,-7.5506,-9.2507,-8.3506,-18.0514,-1.9501,-5.5504,-8.2506,-3.5503,-8.1506,-9.7507,-4.5503,-2.4502,-10.3508,-5.5504,-1.0501,-8.1506,-6.0505
2703.1250,-11.4509,-14.9511,-9.7507,-8.6507,-7.1505,-17.0513,-1.8501,-5.6504,-9.2507,-5.8504,-10.0508,-9.8508,-2.5502,-0.6500,-7.2506,-2.9502,1.7501,-9.3507,-6.1505
2707.0312,-11.0508,-14.5511,-11.1509,-7.9506,-5.6504,-11.9509,-3.2502,-5.8504,-10.5508,-8.8507,-11.9509,-9.0507,-0.0500,0.7501,-5.5504,-1.6501,4.6504,-10.6508,-5.7504
2710.9375,-10.9508,-12.7510,-12.1509,-7.6506,-4.4503,-5.7504,-6.1505,-6.3505,-12.2509,-11.8509,-13.8511,-8.0506,1.4501,1.4501,-6.1505,-1.8501,6.2505,-12.2509,-5.5504
2714.8438,-11.6509,-11.0508,-13.2510,-8.3506,-3.6503,-1.8501,-8.9507,-7.2506,-14.0511,-13.9511,-15.2512,-7.2506,1.4501,1.5501,-8.0506,-2.4502,6.1505,-13.9511,-5.9505
2718.7500,-12.8510,-10.3508,-14.1511,-9.5507,-3.3503,-2.3502,-9.9508,-8.2506,-15.0511,-14.4511,-15.1512,-6.3505,0.0500,1.2501,-8.8507,-2.2502,4.7504,-14.9511,-7.1505
2722.6562,-13.2510,-10.2508,-14.0511,-10.5508,-3.3503,-6.1505,-7.7506,-8.7507,-14.2511,-13.2510,-12.9510,-5.0504,-1.8501,0.9501,-6.9505,-0.6500,2.6502,-14.3511,-8.5507
2726.5625,-11.7509,-9.5507,-12.0509,-10.5508,-3.2502,-10.0508,-3.0502,-8.0506,-11.4509,-10.4508,-8.9507,-3.5503,-3.9503,0.3500,-2.3502,1.8501,0.4500,-11.8509,-9.5507
2730.4688,-7.9506,-7.1505,-8.1506,-9.0507,-2.8502,-10.6508,1.9501,-6.2505,-6.9505,-6.6505,-4.2503,-2.2502,-5.5504,-0.4500,2.8502,4.2503,-1.7501,-7.6506,-9.4507
2734.3750,-2.7502,-2.7502,-3.2502,-6.4505,-2.0502,-6.5505,4.6504,-3.7503,-2.1502,-2.6502,-0.1500,-1.8501,-6.6505,-1.6501,6.7505,5.5504,-4.1503,-3.0502,-8.2506
2738.2812,2.3502,2.5502,1.1501,-3.6503,-0.9501,0.3500,3.6503,-1.1501,1.3501,0.5500,1.9501,-2.2502,-7.3506,-2.8502,7.4506,5.5504,-6.6505,0.5500,-6.3505
2742.1875,5.8504,7.4506,4.3503,-1.3501,0.1500,7.0505,0.1500,0.6500,2.9502,2.7502,2.0502,-2.6502,-7.3506,-3.4503,5.3504,4.9504,-8.5507,2.6502,-4.1503
2746.0938,6.7505,10.5508,5.8504,0.1500,1.3501,10.7508,-3.0502,1.8501,2.5502,3.7503,0.6500,-2.1502,-6.4505,-3.1502,1.8501,4.5503,-9.2507,3.1502,-1.9501
2750.0000,5.3504,11.1509,6.1505,1.1501,2.2502,10.5508,-3.7503,2.4502,1.0501,3.8503,-0.6500,0.0500,-4.6504,-1.6501,-0.4500,4.7504,-8.3506,3.0502,0.1500
2753.9062,2.5502,9.5507,5.6504,2.0502,2.8502,7.4506,-1.5501,3.1502,-0.3500,3.2502,-1.1501,3.6503,-2.2502,0.6500,-0.1500,5.4504,-6.2505,2.8502,2.0502
2757.8125,-0.5500,6.1505,4.6504,3.0502,3.0502,3.1502,1.9501,3.9503,-1.1501,2.3502,-0.2500,7.7506,0.0500,2.9502,2.6502,5.8504,-3.7503,2.9502,3.6503
2761.7188,-3.1502,2.0502,3.2502,3.9503,2.7502,-0.9501,4.8504,4.9504,-1.3501,1.0501,1.3501,10.2508,1.3501,4.3503,6.7505,5.7504,-1.5501,2.8502,4.5503
2765.6250,-4.4503,-1.8501,1.6501,4.3503,2.3502,-4.0503,5.8504,5.9505,-1.1501,0.0500,2.9502,9.7507,1.7501,4.1503,9.7507,5.0504,-0.2500,2.1502,4.5503
2769.5312,-4.2503,-4.6504,0.0500,4.3503,1.9501,-5.2504,5.5504,6.3505,-0.8501,-0.5500,3.6503,6.4505,1.5501,2.4502,10.8508,4.0503,0.1500,0.6500,3.8503
2773.4375,-2.7502,-5.6504,-0.7501,3.8503,1.8501,-4.1503,5.2504,6.2505,-0.5500,-0.0500,3.3503,1.5501,1.0501,0.0500,10.3508,2.9502,0.0500,-1.0501,2.6502
2777.3438,-0.7501,-5.1504,-0.7501,3.0502,1.9501,-1.1501,5.8504,5.5504,-0.3500,1.3501,2.3502,-2.4502,0.8501,-2.1502,9.4507,2.4502,-0.3500,-2.4502,1.4501
2781.2500,1.0501,-3.8503,0.0500,2.0502,1.9501,2.5502,6.9505,4.1503,-0.5500,3.0502,0.9501,-4.4503,0.9501,-3.5503,7.9506,2.9502,-0.5500,-3.0502,0.3500
2785.1562,1.6501,-3.2502,0.5500,0.6500,1.4501,5.1504,7.0505,2.3502,-1.4501,3.5503,-0.8501,-4.1503,0.9501,-3.9503,4.7504,3.9503,-0.3500,-3.2502,-0.7501
2789.0625,0.6500,-4.2503,0.0500,-0.9501,0.2500,4.7504,4.8504,0.3500,-3.3503,2.0502,-3.4503,-3.1502,0.4500,-3.5503,-1.0501,3.7503,0.0500,-3.9503,-2.2502
2792.9688,-1.7501,-6.7505,-2.0502,-2.8502,-1.3501,1.0501,0.1500,-1.5501,-6.0505,-1.5501,-6.7505,-3.3503,-0.7501,-2.8502,-8.7507,0.6500,0.6500,-5.6504,-4.3503
2796.8750,-4.7504,-9.5507,-5.3504,-4.4503,-2.9502,-4.5503,-5.3504,-2.9502,-8.8507,-5.6504,-10.1508,-5.2504,-2.4502,-2.1502,-15.3512,-5.2504,1.0501,-8.2506,-6.4505
2800.7812,-6.5505,-10.7508,-7.9506,-5.3504,-3.8503,-9.2507,-8.9507,-3.3503,-10.3508,-8.1506,-11.9509,-7.6506,-3.7503,-1.1501,-17.3513,-11.4509,1.4501,-10.5508,-7.3506
2804.6875,-5.7504,-8.7507,-8.2506,-5.0504,-3.4503,-10.4508,-8.7507,-2.7502,-9.5507,-7.3506,-10.9508,-8.3506,-3.3503,0.4500,-12.7510,-13.9511,2.3502,-10.7508,-6.0505
2808.5938,-2.2502,-3.8503,-5.6504,-3.8503,-2.0502,-7.1505,-4.6504,-1.6501,-6.1505,-3.4503,-6.8505,-5.8504,-1.1501,2.8502,-2.9502,-10.5508,3.9503,-8.2506,-2.6502
2812.5000,2.4502,1.8501,-1.4501,-2.5502,-0.3500,-1.1501,0.8501,-1.1501,-1.2501,1.3501,-1.3501,-0.7501,2.1502,5.2504,7.4506,-3.1502,5.8504,-3.6503,1.3501
2816.4062,6.3505,5.9505,1.8501,-1.9501,0.2500,4.1503,4.4503,-1.9501,3.0502,4.5503,3.0502,4.2503,5.1504,6.2505,13.3510,3.8503,7.4506,0.8501,4.0503
2820.3125,7.3506,6.6505,2.9502,-2.1502,-0.3500,6.3505,3.8503,-3.8503,5.3504,4.3503,4.5503,6.6505,6.4505,5.3504,11.5509,6.2505,7.9506,3.7503,4.0503
2824.2188,5.3504,4.3503,1.6501,-2.7502,-2.1502,4.6504,-0.5500,-6.0505,5.0504,0.9501,2.9502,5.4504,5.9505,2.5502,3.7503,2.5502,7.2506,4.1503,1.8501
2828.1250,1.5501,1.1501,-0.0500,-2.6502,-3.7503,1.0501,-6.0505,-7.0505,3.1502,-3.2502,0.0500,1.7501,4.1503,-0.7501,-5.2504,-4.9504,5.6504,2.8502,-0.8501
2832.0312,-1.2501,-0.3500,-0.3500,-1.2501,-4.2503,-1.4501,-9.0507,-6.1505,1.5501,-5.7504,-1.7501,-1.8501,2.3502,-3.4503,-10.7508,-11.4509,3.6503,1.5501,-2.5502
2835.9375,-1.6501,1.2501,1.6501,0.8501,-3.4503,-0.6500,-7.2506,-3.8503,1.5501,-4.6504,-1.3501,-3.5503,1.1501,-4.5503,-10.4508,-12.9510,1.5501,1.6501,-2.3502
2839.8438,0.8501,5.6504,5.0504,2.8502,-2.0502,3.4503,-1.1501,-1.4501,3.4503,-0.2500,1.1501,-2.5502,0.6500,-4.3503,-5.6504,-8.3506,-0.1500,3.0502,-0.6500
2843.7500,5.0504,11.0508,7.5506,3.4503,-0.8501,8.8507,5.9505,-0.3500,6.0505,5.2504,4.5503,0.0500,0.4500,-3.3503,0.1500,-0.2500,-1.4501,4.6504,1.0501
2847.6562,8.8507,14.7511,7.5506,2.0502,-0.7501,12.7510,10.3508,-0.9501,7.7506,9.8508,7.0505,2.5502,0.0500,-2.5502,4.0503,6.9505,-2.1502,5.3504,1.9501
2851.5625,10.2508,15.0511,4.9504,-0.5500,-1.7501,13.3510,9.9508,-2.8502,7.6506,11.9509,8.0506,3.9503,-0.5500,-2.2502,5.0504,10.2508,-2.0502,4.6504,1.6501
2855.4688,8.8507,11.7509,0.9501,-3.3503,-3.4503,10.7508,5.6504,-5.0504,6.0505,11.3509,7.7506,4.3503,-1.1501,-2.4502,4.0503,9.1507,-1.5501,3.0502,0.7501
2859.3750,5.5504,6.3505,-1.9501,-5.1504,-5.3504,6.6505,0.2500,-6.4505,4.0503,8.9507,7.2506,4.4503,-1.3501,-3.0502,2.9502,5.5504,-1.2501,1.7501,0.2500
2863.2812,2.3502,1.0501,-2.5502,-5.5504,-6.7505,3.3503,-3.0502,-6.7505,2.9502,6.2505,7.3506,4.7504,-0.9501,-3.6503,3.2502,1.9501,-1.5501,1.5501,0.6500
2867.1875,1.0501,-1.6501,-0.6500,-4.5503,-7.1505,2.7502,-3.1502,-5.9505,3.3503,4.2503,8.0506,5.3504,-0.1500,-3.9503,4.9504,-0.1500,-2.7502,2.5502,2.0502
2871.0938,1.9501,-1.3501,2.4502,-2.5502,-6.1505,5.1504,-0.7501,-4.3503,4.7504,3.3503,8.9507,5.6504,0.3500,-3.8503,6.8505,-0.9501,-4.4503,4.0503,3.7503
2875.0000,4.2503,1.3501,5.4504,-0.2500,-4.0503,9.1507,2.4502,-2.3502,6.2505,3.1502,9.3507,5.4504,0.4500,-3.2502,7.2506,-0.9501,-5.8504,5.1504,5.1504
2878.9062,6.0505,4.6504,7.0505,2.0502,-1.0501,12.4509,4.9504,-0.0500,6.9505,2.8502,8.7507,4.8504,0.4500,-2.1502,5.2504,-0.9501,-6.3505,5.5504,6.0505
2882.8125,6.1505,6.5505,7.1505,4.4503,2.1502,13.2510,6.1505,2.4502,6.6505,2.1502,7.4506,4.4503,0.7501,-0.6500,1.6501,-1.2501,-5.5504,5.4504,6.7505
2886.7188,4.2503,5.9505,6.1505,6.5505,4.9504,11.1509,5.9505,5.1504,5.4504,0.8501,5.7504,4.4503,1.8501,0.6500,-0.9501,-2.1502,-3.6503,5.4504,7.4506
2890.6250,1.2501,3.0502,4.6504,8.2506,6.7505,7.1505,4.4503,7.3506,3.7503,-0.2500,3.9503,4.7504,3.4503,1.2501,-0.4500,-3.3503,-1.3501,5.4504,7.8506
2894.5312,-1.1501,-1.0501,2.8502,8.8507,7.5506,3.0502,1.4501,8.4506,1.9501,-0.8501,2.5502,4.7504,4.8504,0.9501,3.9503,-4.1503,0.4500,4.9504,7.6506
2898.4375,-1.9501,-5.0504,0.8501,8.3506,7.3506,0.2500,-2.7502,8.1506,0.3500,-0.4500,1.7501,3.7503,4.9504,-0.1500,10.9508,-3.4503,1.2501,3.5503,6.1505
2902.3438,-0.7501,-7.9506,-1.4501,6.4505,6.4505,-1.2501,-7.6506,6.4505,-0.9501,0.6500,1.0501,1.0501,3.2502,-1.6501,16.9513,-1.2501,0.6500,0.4500,2.6502
2906.2500,1.2501,-9.6507,-4.2503,3.0502,4.6504,-2.6502,-12.0509,3.6503,-2.6502,2.1502,0.0500,-3.4503,-0.3500,-3.2502,18.8514,1.3501,-1.0501,-4.1503,-2.5502
2910.1562,2.7502,-10.5508,-7.6506,-1.5501,1.8501,-5.2504,-14.2511,0.2500,-5.0504,2.5502,-2.2502,-9.5507,-5.5504,-4.6504,14.9511,2.4502,-3.6503,-9.8508,-9.3507
2914.0625,1.9501,-10.9508,-11.3509,-7.0505,-1.8501,-9.1507,-13.3510,-3.4503,-8.5507,1.0501,-6.4505,-16.0512,-11.0508,-5.7504,5.5504,0.6500,-6.1505,-15.8512,-16.2512
2917.9688,-1.3501,-11.1509,-14.6511,-12.3509,-6.1505,-13.2510,-9.6507,-7.0505,-12.8510,-2.0502,-12.1509,-21.3516,-15.6512,-6.6505,-6.6505,-3.6503,-7.7506,-20.7516,-21.8517
2921.8750,-5.9505,-10.7508,-16.6513,-16.0512,-9.7507,-15.4512,-4.9504,-9.7507,-16.4513,-5.7504,-17.4513,-23.4518,-17.8514,-7.0505,-18.1514,-8.0506,-7.9506,-23.2518,-24.4519
2925.7812,-9.4507,-9.6507,-16.3512,-16.7513,-11.3509,-14.5511,-1.3501,-10.9508,-17.6513,-7.7506,-20.1515,-21.2516,-16.9513,-6.3505,-24.7519,-9.6507,-6.4505,-22.2517,-22.9518
2929.6875,-9.9508,-7.6506,-13.4510,-13.8511,-10.3508,-10.4508,-0.0500,-10.0508,-15.2512,-6.8505,-18.5514,-14.8511,-12.8510,-4.4503,-24.3519,-7.4506,-3.9503,-17.3513,-17.4513
2933.5938,-6.8505,-4.8504,-8.1506,-7.5506,-6.8505,-4.8504,-0.4500,-7.1505,-9.3507,-3.0502,-12.4509,-6.0505,-6.3505,-1.7501,-17.8514,-2.3502,-1.0501,-9.4507,-9.0507
2937.5000,-1.1501,-1.3501,-1.3501,0.3500,-2.0502,0.6500,-0.4500,-2.8502,-1.5501,1.9501,-3.8503,2.6502,0.7501,1.0501,-8.7507,2.8502,1.0501,-0.2500,0.6500
2941.4062,4.9504,2.7502,5.4504,8.2506,2.5502,5.1504,1.2501,1.7501,5.9505,6.3505,4.4503,9.2507,6.8505,3.2502,-1.0501,6.3505,1.8501,8.2506,9.8508
2945.3125,9.5507,7.1505,11.2509,14.1511,5.8504,8.1506,4.7504,5.8504,11.4509,8.6507,10.2508,12.6510,10.7508,4.2503,2.4502,7.5506,1.2501,14.9511,16.8513
2949.2188,11.4509,10.9508,14.9511,17.0513,7.1505,10.1508,8.0506,8.2506,14.2511,8.9507,12.3509,13.2510,12.4509,4.3503,2.2502,7.2506,-0.1500,18.9514,20.7516
2953.1250,10.9508,13.3510,15.9512,16.7513,6.5505,11.3509,9.3507,8.4506,14.5511,8.0506,11.3509,11.9509,12.4509,3.8503,0.5500,6.4505,-1.3501,20.1515,21.4516
2957.0312,8.9507,13.5510,14.4511,13.9511,4.7504,11.9509,8.0506,6.5505,13.2510,6.5505,9.0507,10.0508,11.5509,3.2502,0.1500,5.6504,-1.6501,18.7514,19.5515
2960.9375,6.4505,11.5509,11.0508,9.5507,2.5502,11.5509,5.2504,3.0502,10.8508,4.8504,6.7505,8.2506,10.1508,2.6502,2.2502,4.7504,-0.4500,15.3512,15.8512
2964.8438,3.8503,7.8506,6.5505,4.7504,0.1500,9.8508,2.5502,-0.8501,7.5506,2.8502,5.1504,6.6505,8.0506,1.9501,6.0505,3.6503,1.2501,10.3508,11.2509
2968.7500,1.2501,3.6503,2.0502,0.5500,-2.0502,6.5505,1.0501,-4.1503,3.4503,0.6500,4.0503,5.0504,4.9504,1.1501,8.6507,2.7502,2.8502,4.7504,6.1505
2972.6562,-1.3501,-0.0500,-1.4501,-1.9501,-4.2503,2.2502,0.3500,-5.9505,-0.6500,-1.3501,2.4502,2.8502,1.1501,0.0500,7.3506,2.2502,3.3503,-0.1500,1.2501
2976.5625,-3.6503,-2.7502,-3.6503,-2.7502,-5.9505,-2.2502,-1.1501,-5.8504,-4.0503,-2.7502,0.0500,0.0500,-2.4502,-0.8501,1.5501,1.6501,2.3502,-3.6503,-2.8502
2980.4688,-5.2504,-4.3503,-4.2503,-2.0502,-6.8505,-6.2505,-4.1503,-4.5503,-5.5504,-3.1502,-2.9502,-3.2502,-4.7504,-1.8501,-7.1505,-0.2500,0.6500,-4.7504,-5.6504
2984.3750,-5.5504,-5.0504,-3.3503,-0.4500,-6.4505,-8.9507,-7.4506,-2.9502,-4.4503,-2.5502,-5.4504,-6.1505,-4.9504,-2.6502,-15.2512,-3.9503,-0.8501,-3.5503,-6.5505
2988.2812,-4.1503,-4.8504,-1.2501,1.0501,-4.8504,-10.0508,-8.2506,-1.5501,-1.1501,-1.2501,-6.0505,-7.5506,-2.9502,-3.3503,-19.5515,-8.7507,-1.5501,-0.7501,-5.2504
2992.1875,-1.3501,-3.4503,1.6501,2.3502,-2.5502,-8.8507,-4.3503,-0.3500,3.0502,0.3500,-4.0503,-6.7505,0.2500,-3.9503,-18.1514,-12.9510,-1.3501,2.6502,-1.9501
2996.0938,2.3502,-0.6500,5.0504,3.4503,-0.0500,-5.4504,3.5503,0.9501,7.1505,2.1502,0.0500,-3.7503,3.2502,-4.3503,-12.0509,-14.8511,-0.6500,5.7504,2.1502
3000.0000,6.1505,2.8502,8.0506,4.6504,1.8501,-0.1500,12.1509,2.9502,9.7507,3.7503,4.7504,-0.0500,4.6504,-4.2503,-3.6503,-13.8511,-0.4500,7.7506,6.0505
3003.9062,8.9507,6.3505,9.5507,5.8504,2.8502,5.4504,16.7513,5.3504,10.4508,4.7504,7.9506,2.6502,4.0503,-3.5503,3.5503,-11.0508,-1.2501,8.3506,8.3506
3007.8125,9.5507,8.5507,9.1507,6.9505,3.1502,9.9508,14.6511,7.6506,9.5507,4.8504,8.4506,3.0502,1.8501,-2.1502,7.3506,-8.2506,-2.7502,7.7506,8.4506
3011.7188,8.0506,8.9507,7.1505,7.4506,2.9502,12.0509,7.2506,8.8507,7.8506,3.9503,6.4505,0.8501,-0.5500,-0.3500,7.2506,-6.7505,-4.0503,6.4505,6.7505
3015.6250,5.3504,7.8506,4.7504,6.9505,2.8502,11.5509,-1.2501,8.7507,6.2505,2.4502,3.3503,-2.3502,-1.9501,1.3501,4.8504,-6.4505,-3.8503,4.9504,4.1503
3019.5312,2.9502,5.9505,2.8502,5.1504,3.0502,9.2507,-6.5505,7.1505,5.1504,1.2501,0.9501,-4.9504,-1.7501,2.8502,2.2502,-6.2505,-1.6501,3.3503,1.5501
