Time,Fp1,F3,C3,P3,O1,F7,T3,T5,Fz,Fp2,F4,C4,P4,O2,F8,T4,T6,Cz,Pz
0.0000,-5.7544,-4.8657,-2.3921,-2.2397,-1.9061,-4.6165,-3.1078,-2.1738,-5.5089,-5.4671,-5.3943,-5.1310,-2.8733,-3.4542,-5.0235,-5.0986,-4.3670,-5.3897,-2.3575
3.9062,-6.8077,-3.9593,-1.4687,-0.1618,-0.6663,-3.7587,-2.1063,-0.6255,-6.2197,-5.3939,-5.5035,-5.6097,-1.6981,-1.6599,-4.9164,-5.8318,-3.0324,-5.6691,-0.6042
7.8125,-7.2248,-3.0929,-0.5025,2.4439,0.7971,-2.8961,-0.6871,1.4491,-7.1525,-5.0720,-6.0108,-6.1860,-0.1978,0.9640,-4.9074,-6.0629,-1.0357,-5.5974,1.4683
11.7188,-7.0469,-2.4786,0.1558,4.6803,1.8782,-2.2875,0.8640,3.5004,-7.8519,-4.6068,-6.6380,-6.8516,0.7953,3.5875,-5.0002,-5.4721,0.9406,-4.9971,2.9763
15.6250,-6.4787,-2.0847,0.2072,5.5084,1.8991,-2.0243,2.0971,4.7852,-7.7193,-4.0169,-6.7742,-7.5419,0.3372,5.0775,-4.9855,-4.1453,1.9786,-3.8725,3.0146
19.5312,-5.6552,-1.6721,-0.5126,4.1917,0.4276,-2.0114,2.5393,4.6426,-6.3044,-3.1674,-5.7881,-8.0564,-2.0689,4.5428,-4.5009,-2.5576,1.4068,-2.4112,1.1130
23.4375,-4.5559,-1.0283,-2.0341,0.6357,-2.4954,-2.0994,1.8644,2.7664,-3.6152,-1.8854,-3.4637,-8.0723,-6.0661,1.8241,-3.2660,-1.3195,-0.7870,-0.9102,-2.4891
27.3438,-3.1452,-0.2315,-4.2921,-4.5465,-6.3498,-2.2569,0.0203,-0.6538,-0.2662,-0.1962,-0.2849,-7.3009,-10.4837,-2.3692,-1.3658,-0.8544,-3.8810,0.3223,-6.9167
31.2500,-1.6033,0.2756,-7.1256,-10.2575,-10.3509,-2.6290,-2.7372,-4.9869,2.6663,1.5097,2.6514,-5.7171,-13.8533,-6.7705,0.6246,-1.2128,-6.7561,1.0460,-11.0435
35.1562,-0.4101,-0.0902,-10.2055,-15.2958,-13.7444,-3.4087,-5.9081,-9.3725,4.0676,2.5507,4.1091,-3.6962,-15.1235,-10.1389,1.8182,-2.1227,-8.4512,1.1384,-13.9608
39.0625,-0.1487,-1.6410,-12.9549,-18.7046,-16.0123,-4.6069,-8.8728,-12.9845,3.3059,2.2831,3.3385,-1.9129,-14.1511,-11.7764,1.4541,-3.2025,-8.6078,0.6251,-15.2734
42.9688,-1.1335,-4.0907,-14.5877,-19.9676,-16.9098,-5.9085,-11.0344,-15.2396,0.5805,0.4971,0.5001,-1.0070,-11.6836,-11.7034,-0.6373,-4.1646,-7.5497,-0.3106,-15.0913
46.8750,-3.1384,-6.5711,-14.3522,-19.0421,-16.3914,-6.7660,-11.9495,-15.8973,-3.1197,-2.3855,-3.3777,-1.2053,-8.8709,-10.4523,-3.8399,-4.8769,-5.9918,-1.3705,-13.7949
50.7812,-5.4570,-8.0440,-11.9213,-16.3000,-14.5571,-6.7162,-11.4366,-15.0630,-6.4664,-5.4745,-6.9091,-2.1609,-6.6389,-8.6745,-6.9908,-5.2879,-4.6003,-2.2601,-11.7793
54.6875,-7.2932,-7.8922,-7.7249,-12.4357,-11.6900,-5.7228,-9.6477,-13.1260,-8.4409,-7.8593,-9.0551,-3.1599,-5.3185,-6.8365,-8.9556,-5.3372,-3.6977,-2.8596,-9.3567
58.5938,-8.2227,-6.3287,-2.9778,-8.3448,-8.3281,-4.2982,-7.0731,-10.6566,-8.8317,-9.0762,-9.6246,-3.5956,-4.7140,-5.1609,-9.2215,-4.9680,-3.2615,-3.3499,-6.8351
62.5000,-8.3999,-4.3446,0.7077,-4.9386,-5.2277,-3.2782,-4.4366,-8.2620,-8.2931,-9.3009,-9.2890,-3.4060,-4.4819,-3.7609,-8.1534,-4.2431,-3.1416,-4.1784,-4.6358
66.4062,-8.3599,-3.1868,1.9962,-2.8944,-3.1350,-3.3513,-2.4774,-6.4153,-7.9113,-9.1516,-9.1047,-3.1543,-4.4952,-2.7817,-6.7497,-3.4422,-3.2781,-5.8198,-3.2799
70.3125,-8.5572,-3.6493,0.4579,-2.4278,-2.4487,-4.6209,-1.6788,-5.3079,-8.5142,-9.2326,-9.8249,-3.6601,-4.9219,-2.4023,-6.0342,-2.9978,-3.7418,-8.4282,-3.1894
74.2188,-8.9725,-5.5869,-3.1992,-3.2190,-2.9967,-6.4745,-2.0654,-4.8087,-10.1227,-9.7098,-11.3998,-5.3939,-5.9966,-2.7037,-6.4400,-3.2486,-4.5925,-11.5886,-4.4243
78.1250,-9.0688,-7.9409,-7.4459,-4.5766,-4.1275,-7.8591,-3.1907,-4.5787,-11.8752,-10.1780,-12.9540,-8.0389,-7.7004,-3.5485,-7.5479,-4.1524,-5.7075,-14.3627,-6.5573
82.0312,-8.1231,-9.2707,-10.6399,-5.7830,-5.1131,-7.8121,-4.3522,-4.3036,-12.4828,-9.8897,-13.2525,-10.5341,-9.6233,-4.6088,-8.3201,-5.1763,-6.7499,-15.6649,-8.8141
85.9375,-5.7045,-8.4996,-11.7440,-6.4311,-5.6143,-5.9516,-4.9390,-3.9100,-10.9591,-8.1957,-11.3865,-11.6067,-11.1210,-5.5462,-7.6828,-5.4959,-7.3198,-14.7876,-10.4190
89.8438,-1.9816,-5.4677,-10.6744,-6.5448,-5.8734,-2.6633,-4.7230,-3.6151,-7.2011,-4.9386,-7.2976,-10.4740,-11.6449,-6.2016,-5.1159,-4.4292,-7.1726,-11.7747,-10.9302
93.7500,2.3164,-1.0060,-8.1294,-6.4109,-6.4608,1.0957,-3.9237,-3.7529,-2.0872,-0.5919,-1.8574,-7.2806,-11.0036,-6.6294,-0.9361,-1.8594,-6.3362,-7.4089,-10.3544
97.6562,6.2209,3.4789,-5.0623,-6.2470,-7.7309,4.2406,-3.0047,-4.4779,2.9495,3.9071,3.5167,-3.0141,-9.3866,-6.9381,3.8423,1.6154,-5.0475,-2.8135,-8.9885
101.5625,8.9011,6.6583,-2.1579,-5.9587,-9.3846,6.0020,-2.3359,-5.5564,6.6027,7.5162,7.4796,1.0182,-7.1826,-7.0752,7.9475,4.9076,-3.5839,1.0822,-7.1406
105.4688,9.8869,7.8178,0.3690,-5.1862,-10.5025,6.1587,-1.9491,-6.4229,8.2293,9.4556,9.2693,3.8000,-4.7725,-6.7608,10.3382,6.9161,-2.1412,3.8795,-4.9609
109.3750,9.0819,7.0205,2.5784,-3.6283,-10.0923,4.9924,-1.5588,-6.5045,7.9569,9.4315,8.8715,4.9391,-2.4626,-5.6674,10.5194,6.9888,-0.8550,5.6549,-2.5141
113.2812,6.6654,4.8758,4.4163,-1.4175,-7.8049,3.0489,-0.8406,-5.6150,6.3753,7.6621,6.8217,4.5929,-0.5638,-3.7335,8.6105,5.1423,0.0906,6.5985,-0.0118
117.1875,3.0166,2.1128,5.4612,0.7558,-4.3109,0.8665,0.2283,-4.1384,4.0775,4.7447,3.8376,3.1471,0.5317,-1.3574,5.2204,1.9763,0.4172,6.6508,2.0298
121.0938,-1.2876,-0.7589,5.0331,1.9160,-1.0236,-1.1902,1.2248,-2.8382,1.3841,1.4521,0.5334,0.9464,0.4357,0.7220,1.2414,-1.6084,-0.1190,5.4437,2.9040
125.0000,-5.4706,-3.5171,2.6269,1.3495,0.6981,-2.9433,1.4713,-2.3795,-1.5941,-1.4612,-2.6439,-1.7312,-0.9827,1.8297,-2.3671,-4.7124,-1.4807,2.6224,2.0917
128.9062,-8.6553,-6.0407,-1.6074,-0.9096,0.3626,-4.3080,0.4720,-2.8672,-4.6648,-3.4033,-5.3073,-4.5130,-3.3534,1.7817,-4.7888,-6.6473,-3.1828,-1.6723,-0.3353
132.8125,-10.1012,-8.0680,-6.6793,-3.9848,-1.3659,-5.1914,-1.6840,-3.7218,-7.3224,-4.0348,-7.0348,-6.8147,-5.8051,1.0263,-5.5543,-7.0440,-4.3953,-6.5359,-3.5888
136.7188,-9.4968,-9.1304,-11.0462,-6.5498,-3.0969,-5.4688,-4.2392,-4.0066,-8.8189,-3.3201,-7.4392,-7.9640,-7.2981,0.3755,-4.6969,-5.9102,-4.3288,-10.5089,-6.4633
140.6250,-7.1484,-8.7586,-13.2685,-7.4984,-3.5754,-5.0600,-6.1016,-3.0217,-8.5427,-1.5425,-6.3990,-7.5427,-7.1353,0.4923,-2.7794,-3.6527,-2.6892,-12.2122,-7.9167
144.5312,-3.9370,-6.8445,-12.6904,-6.5004,-2.4084,-4.0507,-6.4241,-0.7845,-6.4608,0.7374,-4.2715,-5.7015,-5.3346,1.4823,-0.7192,-1.0141,0.1022,-11.0572,-7.5864
148.4375,-1.0265,-3.8919,-9.7729,-4.1234,-0.2022,-2.7564,-5.0829,1.9178,-3.2944,2.8097,-1.8731,-3.1721,-2.6085,2.8682,0.5658,1.1391,3.1024,-7.5927,-5.9163
152.3438,0.5661,-0.9254,-5.8842,-1.4694,1.9231,-1.6470,-2.7587,3.9484,-0.2482,4.0346,-0.1421,-0.8929,0.0562,3.9526,0.5605,2.1619,5.3600,-3.2529,-3.8210
156.2500,0.3601,0.9688,-2.6487,0.4347,3.0626,-1.1331,-0.5630,4.4499,1.5947,4.0963,0.3677,0.5451,1.9525,4.2963,-0.5886,1.9635,6.4310,0.3719,-2.1157
160.1562,-1.4042,1.2349,-1.1860,1.1264,2.9972,-1.3188,0.5654,3.2898,1.8640,3.1788,-0.1389,1.2698,2.9884,3.9662,-2.1022,1.1237,6.5669,2.3279,-1.0813
164.0625,-3.8674,0.2138,-1.6195,0.8249,2.1390,-1.8800,0.3340,1.0665,1.1180,1.9428,-0.7279,2.0459,3.6028,3.3902,-2.8938,0.6638,6.4624,2.7121,-0.4229
167.9688,-5.9071,-0.9766,-3.0784,0.1734,1.0885,-2.1789,-0.8236,-1.2845,0.5378,1.2626,-0.2068,3.7682,4.3513,2.9557,-2.0502,1.5378,6.7449,2.4966,0.3982
171.8750,-6.6100,-1.0193,-4.1566,-0.1711,0.1944,-1.5863,-2.0659,-2.9904,1.2704,1.8138,2.1991,6.8452,5.4699,2.6832,0.7487,4.0970,7.5534,2.9034,1.7306
175.7812,-5.6636,0.8815,-3.5772,0.1680,-0.5501,0.1585,-2.6222,-3.7202,3.7952,3.7156,6.3487,10.8647,6.7172,2.2412,5.0554,7.8316,8.4813,4.7078,3.5040
179.6875,-3.4832,4.5547,-0.7434,1.2450,-1.2477,2.7746,-2.1261,-3.5076,7.6626,6.4317,11.1597,14.7508,7.5868,1.3009,9.7913,11.5555,8.8997,7.8514,5.3373
183.5938,-1.0014,8.9482,4.0450,2.9400,-1.7514,5.5743,-0.6365,-2.4553,11.7232,9.0073,15.0808,17.3040,7.7122,-0.0423,13.6252,13.9506,8.4217,11.5259,6.8558
187.5000,0.7921,12.6793,9.7447,5.1177,-1.5700,7.8354,1.5822,-0.5057,14.6848,10.5263,16.8038,17.7871,7.1662,-1.1255,15.4413,14.1804,7.1906,14.6140,7.9512
191.4062,1.3301,14.7061,14.9676,7.6525,-0.1486,9.1760,4.2955,2.5123,15.6758,10.5372,15.8400,16.2216,6.4442,-1.0096,14.7246,12.2500,5.8128,16.2038,8.7862
195.3125,0.7110,14.7344,18.4344,10.3240,2.6654,9.6909,7.3532,6.5894,14.5416,9.2181,12.6820,13.2736,6.1514,0.9497,11.7383,8.9418,4.9998,15.9180,9.5660
199.2188,-0.4245,13.1697,19.3312,12.7138,6.3298,9.7697,10.5469,11.2359,11.7864,7.2135,8.5237,9.8649,6.6185,4.6181,7.4387,5.4007,5.1657,13.9548,10.2823
203.1250,-1.2991,10.7345,17.4978,14.2472,9.7412,9.7450,13.4405,15.4520,8.2763,5.2769,4.7299,6.7809,7.7021,9.0157,3.1565,2.6209,6.2294,10.9123,10.6543
207.0312,-1.4265,8.0551,13.4414,14.4121,11.7479,9.6415,15.3817,18.0630,4.9026,3.9476,2.3356,4.4809,8.8903,12.7372,0.1470,1.1048,7.7142,7.5446,10.3265
210.9375,-0.7962,5.4908,8.1951,13.0350,11.7327,9.2208,15.7633,18.2563,2.3557,3.4295,1.7726,3.1380,9.6245,14.6231,-0.8329,0.8257,9.0469,4.5608,9.1726
214.8438,0.2779,3.2500,3.0427,10.4299,9.9079,8.2912,14.3903,16.0012,1.0418,3.6719,2.8676,2.7767,9.6192,14.2978,0.2406,1.4390,9.8545,2.4966,7.4603
218.7500,1.5049,1.6116,-0.8444,7.2993,7.1604,7.0319,11.6900,12.0889,1.0823,4.5197,5.0303,3.3547,8.9850,12.2859,2.7126,2.5625,10.0954,1.6291,5.7342
222.6562,2.8803,1.0011,-2.7672,4.4293,4.5746,6.0496,8.5767,7.7651,2.3328,5.7912,7.5099,4.7298,8.1022,9.6738,5.5728,3.9497,9.9871,1.9189,4.4841
226.5625,4.6583,1.8086,-2.7220,2.3537,2.9334,6.0655,6.0090,4.1690,4.4066,7.2553,9.6317,6.5772,7.3536,7.5415,7.8988,5.4896,9.8133,3.0028,3.8353
230.4688,7.0464,4.0581,-1.3724,1.1833,2.4651,7.4104,4.4991,1.8964,6.7332,8.5932,10.9636,8.3736,6.8932,6.4819,9.2069,7.0893,9.7401,4.2857,3.4897
234.3750,9.8567,7.1807,0.2489,0.6843,2.9085,9.6712,3.8799,0.8990,8.6812,9.4503,11.3844,9.5111,6.5838,6.4330,9.5424,8.5593,9.7327,5.1345,2.9660
238.2812,12.3964,10.0953,1.1911,0.5279,3.7703,11.7677,3.4791,0.7127,9.7193,9.5860,11.0380,9.5051,6.1184,6.8474,9.2882,9.5988,9.5931,5.1106,1.9720
242.1875,13.7217,11.6050,0.9804,0.5293,4.5778,12.4628,2.5865,0.8214,9.5532,9.0103,10.1858,8.1871,5.2329,7.0492,8.8300,9.8946,9.0779,4.1287,0.6443
246.0938,13.1285,10.9132,-0.2309,0.7227,5.0023,11.0262,0.9170,0.9225,8.1798,7.9782,9.0290,5.7846,3.8795,6.5693,8.2957,9.2701,8.0329,2.4617,-0.5147
250.0000,10.5832,7.9894,-1.8178,1.2434,4.8591,7.6622,-1.2122,0.9743,5.8554,6.8174,7.6069,2.8562,2.2682,5.3101,7.5320,7.7938,6.4854,0.5945,-0.9610
253.9062,6.8270,3.6116,-3.0298,2.1274,4.0734,3.4538,-3.0731,1.0674,3.0230,5.7212,5.8553,0.1215,0.7688,3.5070,6.3195,5.7837,4.6583,-0.9795,-0.4710
257.8125,3.0930,-0.9123,-3.3259,3.1908,2.6804,-0.1302,-3.9356,1.2662,0.2510,4.6878,3.8027,-1.7448,-0.2644,1.5579,4.6663,3.7070,2.8973,-1.9048,0.7009
261.7188,0.6003,-4.1917,-2.5292,4.0851,0.8579,-1.8745,-3.4258,1.5430,-1.8181,3.6809,1.7681,-2.2934,-0.6482,-0.1698,2.9642,2.0234,1.5352,-1.9952,1.9701
265.6250,0.0999,-5.1851,-0.7645,4.4977,-1.0673,-1.2659,-1.6391,1.8282,-2.5543,2.8838,0.3847,-1.4191,-0.4314,-1.4617,1.8743,1.0411,0.7540,-1.1845,2.7667
269.5312,1.6735,-3.4869,1.7116,4.3605,-2.6824,1.4304,1.0026,2.1047,-1.5088,2.8005,0.3644,0.6044,0.1618,-2.2686,1.9879,0.8378,0.5149,0.5170,2.8556
273.4375,4.8186,0.5747,4.6384,3.9262,-3.6042,5.4115,3.9999,2.4533,1.3620,4.0343,2.0939,3.1930,0.8701,-2.6265,3.4595,1.2652,0.6006,2.9958,2.4409
277.3438,8.7017,6.0243,7.7539,3.6594,-3.5835,9.6950,6.9536,3.0148,5.5316,6.8262,5.2984,5.6215,1.5389,-2.5415,5.8383,2.0210,0.7545,5.9581,2.0195
281.2500,12.4234,11.4898,10.7170,4.0054,-2.5411,13.3983,9.5918,3.9037,9.9384,10.6609,9.0065,7.2539,2.1952,-1.9147,8.2126,2.7574,0.8425,8.8898,2.1037
285.1562,15.1998,15.5744,13.0678,5.1707,-0.5392,15.8691,11.7004,5.1448,13.2839,14.2721,11.8937,7.7499,3.0163,-0.5558,9.6006,3.1876,0.9402,11.1377,2.9858
289.0625,16.4579,17.2669,14.3188,7.0306,2.2631,16.7191,13.0696,6.6663,14.5064,16.1402,12.8490,7.1589,4.2114,1.7075,9.3820,3.1661,1.2914,12.1202,4.6561
292.9688,15.8918,16.2556,14.1587,9.1949,5.6122,15.8425,13.5288,8.3326,13.2172,15.2414,11.4699,5.8604,5.8821,4.8785,7.5494,2.7234,2.1607,11.5740,6.8658
296.8750,13.5148,13.0163,12.6471,11.1776,9.1220,13.4514,13.0418,9.9705,9.8767,11.6063,8.2248,4.3882,7.9370,8.6805,4.6706,2.0510,3.6683,9.7033,9.2511
300.7812,9.6984,8.6228,10.2670,12.5791,12.2537,10.0800,11.7769,11.3679,5.6150,6.3460,4.2162,3.2366,10.1029,12.5614,1.6121,1.4389,5.7035,7.1432,11.4355
304.6875,5.1578,4.3566,7.7847,13.2069,14.3900,6.4946,10.0835,12.2764,1.7864,1.1326,0.6999,2.7403,12.0262,15.8288,-0.8108,1.1809,7.9629,4.7513,13.0933
308.5938,0.8510,1.2891,5.9850,13.1146,15.0261,3.4958,8.3813,12.4639,-0.5198,-2.5454,-1.3769,3.0596,13.4098,17.8678,-2.0847,1.4716,10.0795,3.3303,14.0055
312.5000,-2.2194,0.0068,5.4157,12.5696,14.0096,1.6792,7.0291,11.8343,-0.7932,-3.9302,-1.6107,4.2245,14.1199,18.3474,-2.0642,2.3309,11.7635,3.4022,14.1318
316.4062,-3.2690,0.5550,6.2487,11.9708,11.7002,1.2606,6.2382,10.5520,0.8541,-3.0947,-0.1127,6.1640,14.2167,17.3280,-0.8828,3.5867,12.8789,5.0950,13.6697
320.3125,-1.9968,2.5559,8.2796,11.7270,8.9278,2.0425,6.0500,9.0726,3.8540,-0.6612,2.6743,8.6824,13.9019,15.2326,1.1863,4.9288,13.4331,8.1345,13.0302
324.2188,1.2433,5.3848,11.0110,12.1104,6.7215,3.5255,6.3476,8.0057,7.4162,2.5873,6.1583,11.4122,13.4100,12.7012,3.8235,6.0210,13.5063,11.8975,12.6838
328.1250,5.4610,8.3217,13.7610,13.1216,5.9044,5.1036,6.8761,7.8430,10.7138,5.9505,9.6978,13.8135,12.8908,10.3916,6.6799,6.6256,13.1763,15.5054,12.9182
332.0312,9.2939,10.6628,15.7814,14.4307,6.7368,6.2601,7.2785,8.6862,13.0001,8.8534,12.6447,15.2738,12.3338,8.7954,9.3554,6.6851,12.4765,17.9817,13.6343
335.9375,11.4683,11.8368,16.4106,15.4481,8.7881,6.6995,7.1816,10.1423,13.7081,10.8175,14.4076,15.2929,11.5707,8.1193,11.4112,6.3241,11.4009,18.4954,14.3256
339.8438,11.2883,11.5480,15.2700,15.5338,11.1174,6.3928,6.3372,11.4741,12.5802,11.5134,14.5804,13.6754,10.3687,8.2577,12.4526,5.7710,9.9419,16.6573,14.2932
343.7500,8.9231,9.9040,12.4494,14.2747,12.6958,5.5399,4.7643,11.9475,9.8014,10.9096,13.0968,10.6387,8.5861,8.8612,12.2620,5.2446,8.1413,12.7539,13.0127
347.6562,5.3254,7.4405,8.5706,11.7053,12.8763,4.4705,2.7989,11.1970,6.0440,9.3765,10.3157,6.7872,6.3226,9.4793,10.9084,4.8656,6.1346,7.7744,10.4577
351.5625,1.7964,4.9773,4.6436,8.3565,11.6851,3.5197,0.9874,9.4105,2.3369,7.5897,6.9600,2.9645,3.9767,9.7389,8.7602,4.6382,4.1682,3.1500,7.1930
355.4688,-0.5890,3.3368,1.7322,5.0905,9.7905,2.9206,-0.1396,7.2366,-0.2386,6.2236,3.9081,0.0405,2.1508,9.4935,6.3776,4.5031,2.5679,0.2688,4.1679
359.3750,-1.3907,3.0467,0.5635,2.7830,8.1619,2.7598,-0.2888,5.4713,-0.9136,5.6150,1.9238,-1.3057,1.4193,8.8787,4.3290,4.4203,1.6549,-0.0386,2.3092
363.2812,-0.8374,4.1702,1.2734,1.9912,7.5905,3.0118,0.5155,4.6956,0.5117,5.6331,1.4400,-0.7603,2.0602,8.2417,3.0234,4.4265,1.6297,2.1916,2.1209
367.1875,0.4956,6.3435,3.4102,2.7525,8.3090,3.6274,2.0308,5.0455,3.6414,5.8644,2.4825,1.5295,3.8951,7.9639,2.6393,4.6323,2.4792,6.0991,3.4911
371.0938,2.1315,8.9816,6.1795,4.5954,9.8935,4.6169,3.9924,6.2030,7.6888,5.9863,4.7418,4.9734,6.3411,8.2555,3.1704,5.1657,3.9661,10.3688,5.7862
375.0000,3.9689,11.5369,8.7843,6.7458,11.4800,6.0646,6.2499,7.5755,11.7991,6.0611,7.7389,8.6908,8.6605,9.0190,4.5317,6.0985,5.7192,13.7491,8.1574
378.9062,6.2346,13.6809,10.6812,8.4275,12.1671,8.0601,8.7470,8.5479,15.3272,6.5331,10.9955,11.7755,10.2763,9.8506,6.6319,7.3944,7.3827,15.4878,9.8856
382.8125,9.1856,15.3475,11.6516,9.1254,11.3951,10.5860,11.3720,8.6854,17.9568,7.9272,14.1353,13.5828,10.9687,10.1826,9.3454,8.8944,8.7340,15.5114,10.5954
386.7188,12.7892,16.6504,11.7123,8.7056,9.1262,13.4371,13.8178,7.8258,19.6478,10.4578,16.8858,13.9125,10.8451,9.5017,12.3983,10.3318,9.6938,14.3129,10.2622
390.6250,16.6038,17.7393,10.9732,7.3635,5.7779,16.2286,15.5905,6.0630,20.4848,13.8109,19.0064,12.9907,10.1177,7.5486,15.2689,11.3636,10.2258,12.6332,9.0600
394.5312,19.9210,18.6648,9.5496,5.4443,1.9860,18.4955,16.1893,3.6661,20.5322,17.2219,20.2124,11.2615,8.8581,4.4185,17.2222,11.6228,10.2090,11.0968,7.1724
398.4375,22.0581,19.3021,7.5612,3.2409,-1.6535,19.8334,15.3485,0.9748,19.7723,19.7774,20.1711,9.1153,6.9142,0.5330,17.5349,10.8053,9.4000,9.9505,4.6885
402.3438,22.6107,19.3601,5.1761,0.8750,-4.7468,20.0099,13.1777,-1.6986,18.1385,20.7420,18.6130,6.7229,4.0629,-3.4933,15.8355,8.7944,7.5490,9.0009,1.6350
406.2500,21.5441,18.4783,2.6295,-1.6811,-7.1293,19.0021,10.1042,-4.1429,15.6073,19.7570,15.5189,4.0746,0.2976,-7.0338,12.3798,5.7803,4.6179,7.7584,-1.8956
410.1562,19.1226,16.3828,0.1803,-4.4644,-8.7961,16.9613,6.6613,-6.2781,12.2862,16.8824,11.2736,1.1747,-3.9584,-9.6131,8.0710,2.2997,0.9555,5.7184,-5.6205
414.0625,15.7708,13.0404,-1.9742,-7.3583,-9.8051,14.1347,3.2631,-8.1268,8.4474,12.5553,6.6559,-1.7740,-7.8939,-11.0044,4.1503,-0.8753,-2.7161,2.6524,-9.0437
417.9688,11.9549,8.7316,-3.7730,-10.0206,-10.2031,10.7871,0.0992,-9.7364,4.4851,7.5272,2.6103,-4.3539,-10.6199,-11.2333,1.6745,-2.9950,-5.5428,-1.2213,-11.5737
421.8750,8.1136,3.9935,-5.3041,-11.9658,-9.9911,7.1509,-2.8135,-11.0864,0.8168,2.7634,-0.1223,-6.1155,-11.5805,-10.4984,1.0420,-3.6347,-6.8968,-5.2718,-12.7347
425.7812,4.6177,-0.5465,-6.7444,-12.7692,-9.1275,3.4221,-5.4941,-12.0372,-2.2219,-0.7555,-1.3195,-6.8261,-10.8120,-9.0439,1.8331,-2.8831,-6.6500,-8.6770,-12.3638
429.6875,1.7343,-4.3574,-8.2461,-12.2764,-7.5628,-0.2013,-7.8798,-12.3570,-4.4347,-2.3341,-1.3378,-6.5862,-8.8859,-7.0460,3.0737,-1.2902,-5.1977,-10.7210,-10.6825
433.5938,-0.3920,-7.1042,-9.8163,-10.6883,-5.3038,-3.4575,-9.7895,-11.8204,-5.7428,-1.8480,-0.8545,-5.7060,-6.5648,-4.5723,3.7903,0.4187,-3.2155,-11.0192,-8.1942
437.5000,-1.7201,-8.6214,-11.2412,-8.4644,-2.4887,-5.9811,-10.9615,-10.3294,-6.1094,0.1704,-0.4270,-4.4208,-4.3844,-1.6393,3.5448,1.7146,-1.2977,-9.5746,-5.4566
441.4062,-2.2633,-8.8168,-12.1011,-6.1012,0.5651,-7.3414,-11.1220,-7.9914,-5.4748,2.7517,-0.1426,-2.6662,-2.4178,1.6600,2.6432,2.5063,0.3049,-6.6779,-2.8538
445.3125,-2.0565,-7.6238,-11.8996,-3.9234,3.3860,-7.1804,-10.0643,-5.1141,-3.7746,4.9370,0.4028,-0.1154,-0.3606,5.0390,1.8929,3.1076,1.7006,-2.7619,-0.4972
449.2188,-1.1848,-5.0768,-10.2818,-2.0139,5.4665,-5.4115,-7.7409,-2.1227,-1.0549,6.2016,1.7651,3.5023,2.1334,7.9992,2.0569,3.9595,3.1433,1.6782,1.6911
453.1250,0.1425,-1.4698,-7.2562,-0.3076,6.4388,-2.3668,-4.3623,0.5597,2.3822,6.6031,4.1656,8.0034,5.0916,9.9572,3.3379,5.2939,4.7564,6.0672,3.7762
457.0312,1.5551,2.5489,-3.2997,1.2389,6.2297,1.2258,-0.4485,2.6197,5.9250,6.5738,7.1872,12.5666,8.0770,10.4779,5.2090,6.9633,6.3894,9.7199,5.6352
460.9375,2.6080,6.0852,0.7458,2.5397,5.1104,4.4807,3.2487,3.9189,8.7821,6.5215,9.8819,15.9507,10.3508,9.5043,6.7002,8.5479,7.6994,11.9224,6.9423
464.8438,2.9876,8.3226,3.9745,3.4137,3.6023,6.7149,5.9853,4.5033,10.2788,6.5264,11.2501,17.0393,11.2461,7.4485,6.9716,9.6527,8.3861,12.1661,7.3415
468.7500,2.7172,8.8988,5.7800,3.7221,2.2700,7.7382,7.3381,4.5553,10.1748,6.3448,10.8024,15.4163,10.5181,5.0685,5.8279,10.1756,8.3966,10.4324,6.6933
472.6562,2.1942,8.0937,6.0819,3.4815,1.4862,7.8920,7.4092,4.2945,8.8109,5.6934,8.8503,11.6294,8.4605,3.1586,3.8640,10.3489,7.9454,7.3230,5.2168
476.5625,1.9836,6.6791,5.2776,2.8430,1.2673,7.7963,6.7562,3.8509,6.9620,4.5812,6.3392,6.9726,5.7225,2.1860,2.1516,10.5203,7.3259,3.8791,3.3983
480.4688,2.4617,5.4853,3.9400,1.9367,1.2490,7.9505,6.0455,3.1636,5.4455,3.4187,4.3286,2.8991,2.9432,2.0553,1.6447,10.8339,6.6499,1.1190,1.6995
484.3750,3.5360,4.9365,2.4498,0.7077,0.8217,8.4309,5.6237,1.9751,4.6917,2.8007,3.4365,0.3831,0.4302,2.1337,2.6452,11.0497,5.7104,-0.4694,0.2506
488.2812,4.6378,4.8356,0.8030,-1.0971,-0.6100,8.8722,5.2948,-0.0357,4.5196,3.0991,3.5709,-0.4400,-1.9244,1.5555,4.6197,10.6473,4.0898,-1.1712,-1.2477
492.1875,5.0087,4.5260,-1.2793,-3.7287,-3.3258,8.7283,4.4715,-3.0146,4.2551,4.1432,4.0676,-0.2008,-4.4439,-0.3188,6.4570,9.1552,1.4686,-1.8439,-3.3037
496.0938,4.1021,3.3184,-4.0126,-7.1262,-7.0656,7.6276,2.6209,-6.7077,3.1232,5.2128,4.1057,0.1237,-7.3095,-3.5032,7.0079,6.4854,-2.0528,-3.3635,-6.2044
500.0000,1.8482,0.9129,-7.2254,-10.7123,-10.9997,5.5853,-0.2972,-10.4051,0.6949,5.3676,3.1294,-0.2719,-10.2710,-7.2576,5.6172,3.0437,-5.8325,-6.0373,-9.6446
503.9062,-1.3593,-2.4284,-10.2870,-13.4837,-13.9584,2.9559,-3.7092,-13.1406,-2.8564,3.9283,1.0575,-1.6604,-12.6156,-10.3254,2.3906,-0.4586,-8.8683,-9.3381,-12.6843
507.8125,-4.8940,-6.0200,-12.3583,-14.4062,-14.8732,0.1999,-6.7161,-14.0879,-6.8059,0.8429,-1.7632,-3.7082,-13.4413,-11.4588,-1.8950,-3.3610,-10.2034,-12.1244,-14.1192
511.7188,-8.1478,-9.0683,-12.8121,-12.9231,-13.2520,-2.3351,-8.5911,-12.9531,-10.1755,-3.2461,-4.7462,-5.6683,-12.1019,-9.9963,-6.1397,-5.3388,-9.3453,-13.2173,-13.0848
515.6250,-10.6365,-10.9484,-11.5471,-9.2839,-9.4479,-4.4617,-9.1356,-10.1313,-12.0992,-7.2441,-7.2438,-6.7109,-8.5858,-6.2066,-9.3309,-6.4414,-6.4795,-11.9968,-9.5528
519.5312,-11.9581,-11.3088,-8.9936,-4.4802,-4.5460,-6.0290,-8.6518,-6.5083,-12.0782,-10.0188,-8.6502,-6.2465,-3.6141,-1.2079,-10.8365,-6.8933,-2.3764,-8.6837,-4.4166
523.4375,-11.7437,-10.0249,-5.8150,0.1979,0.1192,-6.7852,-7.5804,-3.0004,-10.0552,-10.7958,-8.4716,-4.1336,1.6133,3.5227,-10.5058,-6.8318,1.9451,-4.1783,0.9042
527.3438,-9.7432,-7.1325,-2.5146,3.7568,3.5820,-6.3968,-6.1027,-0.0918,-6.3490,-9.3946,-6.4377,-0.7213,5.9033,6.8168,-8.6110,-6.1872,5.6136,0.4152,5.1279
531.2500,-6.0381,-2.8436,0.7876,5.9228,5.6634,-4.6614,-4.0268,2.3544,-1.5401,-6.2536,-2.6628,3.2670,8.5427,8.3168,-5.7138,-4.7911,8.1742,4.2886,7.6745
535.1562,-1.2187,2.3638,4.2725,7.1723,6.9406,-1.7696,-1.0480,4.8970,3.6339,-2.2690,2.2406,6.9665,9.5172,8.5487,-2.5216,-2.6150,9.6305,7.1945,8.8251
539.0625,3.6693,7.7016,8.1101,8.3671,8.2817,1.6032,2.8223,8.0526,8.3772,1.4832,7.2241,9.6373,9.3775,8.5225,0.2479,0.0548,10.2872,9.3796,9.4135
542.9688,7.4589,12.1885,12.1465,10.2029,10.2203,4.4999,7.0098,11.8535,11.9648,4.0632,11.0965,10.8719,8.8397,9.0838,2.0082,2.6563,10.5058,11.2764,10.2493
546.8750,9.3216,14.9386,15.8041,12.7672,12.5505,6.1033,10.5301,15.6971,13.9056,4.9362,12.9520,10.6703,8.3557,10.3775,2.4476,4.5950,10.4996,13.1484,11.6094
550.7812,9.0921,15.4945,18.2586,15.4222,14.3853,6.1349,12.4655,18.5692,14.0868,4.1190,12.5327,9.3660,7.8886,11.7259,1.6403,5.5376,10.2465,14.8686,13.0652
554.6875,7.2799,14.0236,18.7769,17.0556,14.6323,4.9878,12.4425,19.4974,12.8168,2.1519,10.3301,7.4541,7.0061,11.9863,0.0546,5.5622,9.5352,15.9225,13.7076
558.5938,4.7921,11.2582,17.0166,16.5625,12.5900,3.5147,10.7898,17.9689,10.7187,-0.1005,7.3647,5.4102,5.2181,10.1842,-1.5817,5.0733,8.1048,15.6209,12.6186
562.5000,2.5621,8.2039,13.1413,13.3334,8.3120,2.5981,8.2812,14.1004,8.5030,-1.7574,4.7466,3.5774,2.3495,6.0686,-2.5428,4.5423,5.8145,13.4315,9.3343
566.4062,1.2841,5.7597,7.7395,7.5463,2.5615,2.7483,5.6629,8.5237,6.7186,-2.2300,3.2318,2.1390,-1.2695,0.2958,-2.3964,4.2407,2.7760,9.2952,4.0888
570.3125,1.3207,4.4214,1.6378,0.1622,-3.5605,3.9256,3.2926,2.1203,5.5890,-1.4176,2.9695,1.1425,-4.8975,-5.8353,-1.1958,4.1180,-0.6112,3.7890,-2.2387
574.2188,2.7040,4.1722,-4.2807,-7.3555,-9.0511,5.6288,1.1062,-4.2164,4.9901,0.2788,3.5250,0.5251,-7.6995,-10.9272,0.5277,3.8763,-3.7520,-1.9686,-8.4108
578.1250,5.1200,4.5573,-9.2118,-13.4834,-13.2684,7.1396,-1.1251,-9.6959,4.5478,2.1262,4.1288,0.1196,-9.1115,-14.0171,1.9827,3.1686,-6.0575,-6.6792,-13.2230
582.0312,7.8731,4.8705,-12.5451,-17.0921,-15.9523,7.7722,-3.4852,-13.6634,3.7910,3.3400,4.0129,-0.3370,-9.0691,-14.8540,2.4496,1.7963,-7.1810,-9.3798,-15.8619
585.9375,9.9468,4.3725,-13.9955,-17.7694,-17.1117,7.0344,-5.7919,-15.6578,2.2936,3.3647,2.6918,-1.1514,-8.0042,-13.8477,1.5769,-0.1925,-7.1745,-9.8849,-16.1368
589.8438,10.2803,2.4987,-13.7256,-15.9152,-16.9283,4.7076,-7.7261,-15.5461,-0.2135,2.0441,0.1035,-2.5644,-6.6420,-11.7852,-0.4942,-2.5240,-6.4695,-8.9180,-14.5242
593.7500,8.2293,-0.9586,-12.3691,-12.5807,-15.7372,0.8944,-9.0721,-13.6677,-3.7547,-0.3740,-3.4040,-4.6209,-5.7095,-9.4891,-3.2216,-4.7973,-5.6692,-7.8093,-12.0069
597.6562,3.9905,-5.7163,-10.8615,-9.0980,-14.0120,-3.9441,-9.8584,-10.8367,-8.0358,-3.3780,-7.1957,-7.0868,-5.6792,-7.5589,-5.9030,-6.6030,-5.2416,-7.8578,-9.7332
601.5625,-1.2985,-10.9671,-10.0817,-6.6171,-12.2519,-9.0052,-10.2884,-8.1002,-12.4152,-6.3898,-10.5232,-9.4712,-6.6251,-6.2486,-7.9353,-7.6250,-5.2786,-9.6474,-8.5893
605.4688,-5.9306,-15.5098,-10.4396,-5.7113,-10.7614,-13.2799,-10.5348,-6.3087,-15.9730,-8.9168,-12.6992,-11.1651,-8.2118,-5.4635,-8.9722,-7.7200,-5.4609,-12.6752,-8.8399
609.3750,-8.3369,-18.0718,-11.6340,-6.1996,-9.4570,-15.8230,-10.5763,-5.7141,-17.7262,-10.6094,-13.2485,-11.6504,-9.8003,-4.8452,-8.9403,-6.9697,-5.2584,-15.5135,-9.9990
613.2812,-7.7840,-17.7562,-12.7542,-7.2657,-7.8793,-16.0860,-10.2164,-5.8476,-16.9654,-11.2509,-12.0273,-10.7021,-10.6398,-3.9224,-7.9665,-5.6881,-4.2530,-16.4624,-11.0216
617.1875,-4.6974,-14.4571,-12.7270,-7.8341,-5.4762,-14.1669,-9.2705,-5.7873,-13.6040,-10.7638,-9.2997,-8.5040,-10.1029,-2.3003,-6.3038,-4.3544,-2.3901,-14.3876,-10.7595
621.0938,-0.4572,-9.0424,-10.9009,-7.0491,-2.0109,-10.8464,-7.7730,-4.6911,-8.3706,-9.2834,-5.7428,-5.6210,-7.8971,0.1676,-4.3111,-3.4599,-0.0003,-9.3234,-8.4850
625.0000,3.2043,-3.1635,-7.4471,-4.6394,2.1787,-7.3582,-6.0359,-2.2893,-2.6969,-7.2610,-2.3302,-2.8152,-4.1742,3.3085,-2.4549,-3.3024,2.4239,-2.5284,-4.2289
628.9062,4.8974,1.3012,-3.3262,-0.9944,6.2880,-4.9634,-4.5044,0.9646,1.7310,-5.4644,-0.0672,-0.7462,0.5253,6.7167,-1.2534,-3.8120,4.5556,4.0507,1.2404
632.8125,4.0627,2.9800,0.1985,3.0816,9.4906,-4.4851,-3.4986,4.1770,3.6235,-4.7610,0.3826,0.3402,5.4830,9.9652,-1.1066,-4.5044,6.4446,8.6529,6.7882
636.7188,1.1025,1.6069,2.2491,6.8012,11.4400,-5.9855,-3.0144,6.5556,2.6681,-5.6981,-0.9567,0.7859,10.0729,12.8150,-2.0595,-4.6226,8.4620,10.4897,11.4354
640.6250,-2.8296,-1.8097,2.8266,9.7624,12.4719,-8.7216,-2.7150,7.8557,-0.2520,-8.0846,-3.2473,1.4275,13.9444,15.2705,-3.6418,-3.4452,10.9921,10.0572,14.7473
644.5312,-6.2655,-5.3752,2.7974,12.0368,13.3333,-11.4133,-2.1276,8.4431,-3.3612,-10.8631,-5.0753,3.2125,17.0157,17.4207,-4.9410,-0.6423,14.0579,8.8218,16.8818
648.4375,-7.9470,-7.1186,3.3478,13.9214,14.5918,-12.7395,-0.9332,8.9297,-4.7334,-12.4583,-5.0273,6.6598,19.2891,19.1656,-4.9506,3.4858,17.1305,8.4342,18.2886
652.3438,-7.2886,-5.8644,5.2029,15.5205,16.1215,-11.8748,0.8101,9.6293,-3.1535,-11.5078,-2.3705,11.4380,20.6291,20.0414,-3.0553,8.0339,19.2741,9.8630,19.2565
656.2500,-4.6228,-1.7527,8.0773,16.4472,17.0404,-8.8433,2.6348,10.2115,1.3154,-7.6067,2.5147,16.3253,20.6838,19.3320,0.6091,11.8102,19.5840,12.8822,19.6029
660.1562,-1.0973,3.8471,10.7146,15.8899,16.1933,-4.5244,3.8460,9.8155,7.3470,-1.6229,8.2230,19.6493,19.0422,16.4698,5.1530,13.8311,17.6837,16.1683,18.7126
664.0625,1.7937,8.9805,11.5342,13.0613,12.9042,-0.2921,3.8383,7.5915,12.9507,4.6485,12.9389,20.0293,15.5533,11.5126,9.3274,13.7565,13.9936,17.9563,15.9235
667.9688,2.8745,11.9771,9.5360,7.7945,7.5304,2.5573,2.4012,3.3474,16.3495,9.3360,15.2746,17.0458,10.5939,5.3726,12.1134,12.0321,9.5942,16.9189,11.0372
671.8750,1.8285,12.1091,4.9402,0.9135,1.4480,3.3239,-0.1392,-2.1114,16.6920,11.3733,14.8750,11.4642,5.0743,-0.4134,13.1732,9.6380,5.7326,12.8232,4.6416
675.7812,-0.6929,9.7447,-0.8217,-5.8955,-3.5511,2.1287,-3.0199,-7.1966,14.2638,10.9146,12.4591,4.8771,0.1220,-4.3201,12.9084,7.5632,3.2302,6.6461,-1.9720
679.6875,-3.4755,5.9935,-5.7709,-10.7079,-6.1168,-0.2397,-5.3521,-10.2251,10.1552,9.0729,9.2987,-1.0336,-3.4059,-5.5506,12.1099,6.2927,2.1147,0.1186,-7.2861
683.5938,-5.4372,2.1085,-8.3264,-12.1800,-5.9678,-2.7433,-6.4960,-10.2131,5.6405,7.1879,6.4781,-5.1999,-5.2980,-4.4292,11.4424,5.6125,1.6800,-5.0368,-10.1900
687.5000,-6.1913,-1.0094,-8.0059,-10.1373,-3.9518,-4.5360,-6.3112,-7.3449,1.6449,6.0986,4.3937,-7.4568,-6.0230,-2.2273,11.0934,4.8542,0.9401,-7.7774,-10.4353
691.4062,-6.1390,-2.9879,-5.5237,-5.6262,-1.5407,-5.2144,-5.1532,-2.8665,-1.4480,5.8410,2.7685,-8.3177,-6.3981,-0.5075,10.7906,3.4316,-0.7825,-8.0184,-8.6821
695.3125,-6.0592,-3.8631,-2.2986,-0.4237,-0.0761,-4.8100,-3.6278,1.5163,-3.6498,5.8761,1.0990,-8.4527,-7.0943,-0.3464,10.1306,1.3197,-3.4684,-6.4563,-6.1310
699.2188,-6.5019,-3.8521,0.2871,3.7174,-0.1852,-3.6148,-2.2618,4.3973,-5.0972,5.6063,-0.8287,-8.2480,-8.2808,-1.8608,8.9526,-0.8488,-6.4279,-4.1208,-3.9582
703.1250,-7.4101,-3.2133,1.4455,5.7015,-1.6442,-2.0020,-1.2923,5.1920,-5.8936,4.7961,-2.7323,-7.7107,-9.6112,-4.2748,7.4856,-2.1586,-8.7140,-1.9330,-2.8550
707.0312,-8.2128,-2.2441,1.1108,5.3333,-3.6859,-0.3427,-0.6856,4.2010,-6.1446,3.6495,-4.0548,-6.7086,-10.5306,-6.4470,6.1766,-2.0266,-9.6686,-0.4633,-2.8847
710.9375,-8.2889,-1.3197,-0.3084,3.1479,-5.5108,1.0015,-0.3319,2.2605,-6.0715,2.5768,-4.4111,-5.2942,-10.6797,-7.5278,5.3521,-0.6501,-9.2765,0.0861,-3.6665
714.8438,-7.4396,-0.8353,-2.2831,0.0165,-6.6914,1.7042,-0.2305,0.2379,-6.0177,1.8920,-3.8971,-3.8273,-10.1300,-7.3774,4.9812,1.0281,-8.1303,-0.2145,-4.7186
718.7500,-6.0288,-1.0215,-4.3699,-3.2246,-7.2757,1.5831,-0.5005,-1.3395,-6.2695,1.6744,-3.0227,-2.7971,-9.3174,-6.5430,4.7187,1.8446,-7.0472,-1.1105,-5.7341
722.6562,-4.7090,-1.7452,-6.1980,-5.9668,-7.5947,0.7465,-1.1985,-2.3663,-6.8015,1.8465,-2.3287,-2.4878,-8.7475,-5.8595,4.1888,1.1094,-6.5866,-2.2094,-6.6494
726.5625,-3.9563,-2.4704,-7.3626,-7.8389,-7.9395,-0.3490,-2.1000,-2.9863,-7.1664,2.3364,-1.9874,-2.7524,-8.6828,-5.9300,3.2895,-0.9682,-6.7625,-3.0301,-7.5144
730.4688,-3.7579,-2.4635,-7.4079,-8.6269,-8.3167,-1.0310,-2.6522,-3.3324,-6.6714,3.1471,-1.6906,-3.0679,-9.0007,-6.7733,2.2863,-3.3906,-7.1015,-3.1110,-8.2924
734.3750,-3.6534,-1.1556,-5.9658,-8.2014,-8.4066,-0.7082,-2.1928,-3.3549,-4.7691,4.2782,-0.8957,-2.8224,-9.2718,-7.7996,1.6364,-4.9363,-6.9728,-2.1550,-8.7336
738.2812,-3.0632,1.5551,-2.9573,-6.4912,-7.7204,0.8253,-0.3205,-2.8205,-1.4105,5.6021,0.7747,-1.6161,-8.9580,-8.0916,1.6892,-4.8121,-5.9516,-0.1227,-8.3913
742.1875,-1.6434,5.2515,1.3164,-3.4907,-5.8478,3.2756,2.8331,-1.4508,2.8934,6.8532,3.2922,0.6316,-7.5868,-6.8254,2.4978,-2.9906,-3.9822,2.8057,-6.7592
746.0938,0.5704,9.2275,6.2817,0.7169,-2.6600,6.0079,6.6297,0.8965,7.3595,7.7858,6.3087,3.7993,-4.8288,-3.6308,3.8733,-0.0672,-1.2713,6.3849,-3.4533
750.0000,3.2746,12.8429,11.3286,5.9204,1.6152,8.3906,10.2467,4.1034,11.3715,8.3934,9.4674,7.7494,-0.5211,1.2535,5.6139,3.2045,1.9626,10.4506,1.6250
753.9062,6.1180,15.7751,15.9974,11.7216,6.4522,10.1078,13.0782,7.7700,14.7607,8.9960,12.6564,12.3791,5.2746,7.0646,7.6924,6.3490,5.6549,14.9224,8.1793
757.8125,8.8337,18.0251,19.9886,17.4862,11.1669,11.2478,14.9452,11.2956,17.7332,10.0814,15.9788,17.4704,12.1487,12.7799,10.2262,9.2901,9.8306,19.6364,15.4763
761.7188,11.2064,19.7144,23.0245,22.3703,15.0656,12.1240,15.9925,14.0288,20.5116,11.9680,19.4597,22.4765,19.2417,17.4393,13.2347,12.1295,14.3500,24.1355,22.4057
765.6250,12.9613,20.8481,24.7280,25.4845,17.5665,12.9635,16.3879,15.4437,22.9763,14.5101,22.7462,26.4855,25.3122,20.4021,16.3812,14.8054,18.6751,27.6246,27.6801
769.5312,13.7306,21.2245,24.6806,26.1784,18.2917,13.6817,16.0822,15.2924,24.5954,17.0581,25.0871,28.4985,29.0578,21.4586,18.9390,16.9206,21.8825,29.2087,30.1796
773.4375,13.1783,20.5494,22.6694,24.3293,17.1418,13.8943,14.8285,13.6880,24.7151,18.7283,25.6726,27.9205,29.6027,20.7840,20.0663,17.8797,22.9951,28.3340,29.3516
777.3438,11.2151,18.6640,18.9491,20.4670,14.3518,13.1576,12.4460,11.0773,23.0131,18.8321,24.1242,24.9614,26.9144,18.7917,19.2440,17.2343,21.4780,25.1667,25.4898
781.2500,8.1444,15.7196,14.2918,15.6219,10.4896,11.2815,9.1091,8.1017,19.7848,17.2143,20.7842,20.6440,21.8911,15.9697,16.5871,14.9801,17.6042,20.6349,19.7119
785.1562,4.6162,12.1802,9.7156,10.9294,6.3519,8.5167,5.4160,5.3864,15.8479,14.3097,16.5693,16.3436,16.0186,12.7669,12.8085,11.5975,12.4401,16.0419,13.5701
789.0625,1.3957,8.6529,6.0152,7.1712,2.7471,5.5035,2.1559,3.3384,12.1141,10.9016,12.4626,13.0852,10.7393,9.5471,8.8407,7.8115,7.4151,12.4317,8.4304
792.9688,-0.9285,5.6511,3.3784,4.4893,0.2249,3.0096,-0.0787,2.0388,9.1119,7.7356,8.9764,11.0097,6.8550,6.5775,5.3570,4.2424,3.6915,10.0678,4.9136
796.8750,-2.1449,3.4176,1.3460,2.4235,-1.1252,1.5971,-1.1695,1.2727,6.7704,5.2015,5.9515,9.3390,4.2809,4.0142,2.4955,1.1753,1.6761,8.3428,2.6997
800.7812,-2.4477,1.8859,-0.8382,0.2511,-1.6863,1.3885,-1.4580,0.6770,4.5926,3.2371,2.8264,6.8846,2.2723,1.8774,-0.0477,-1.4295,0.9380,6.1937,0.8247
804.6875,-2.3097,0.7757,-3.6890,-2.5591,-2.1013,2.0360,-1.4692,-0.0670,2.0872,1.4738,-0.8140,2.8157,-0.0222,0.0508,-2.6469,-3.7318,0.5606,2.7947,-1.6793
808.5938,-2.2795,-0.2405,-7.0842,-6.0208,-2.9259,2.8956,-1.5802,-1.0915,-0.8330,-0.4732,-4.7907,-2.7522,-3.0083,-1.6552,-5.3640,-5.7823,-0.2917,-1.8659,-5.1541
812.5000,-2.7806,-1.3737,-10.2520,-9.5980,-4.3293,3.3191,-1.8557,-2.3099,-3.7313,-2.7258,-8.2908,-8.6844,-6.4048,-3.3819,-7.8149,-7.4221,-1.9200,-6.8574,-9.0588
816.4062,-3.9664,-2.6171,-12.1509,-12.4717,-6.0192,2.9296,-2.1268,-3.5029,-5.8624,-5.0111,-10.2650,-13.3093,-9.4261,-5.1065,-9.3621,-8.3553,-3.9891,-10.7075,-12.2424
820.3125,-5.6657,-3.7386,-12.0208,-13.9503,-7.4373,1.7675,-2.2062,-4.4642,-6.5698,-6.7450,-10.0106,-15.1926,-11.2486,-6.6195,-9.4900,-8.3175,-5.7928,-12.1224,-13.5892
824.2188,-7.4441,-4.3745,-9.7956,-13.8043,-8.1110,0.2511,-2.0529,-5.1217,-5.6292,-7.3005,-7.5820,-13.7926,-11.4665,-7.6296,-8.1130,-7.2176,-6.6865,-10.6482,-12.6619
828.1250,-8.7767,-4.1955,-6.1646,-12.3522,-7.9399,-1.0222,-1.7711,-5.5608,-3.3642,-6.3391,-3.7979,-9.6779,-10.2696,-7.9403,-5.6305,-5.1761,-6.4142,-6.9369,-9.9648
832.0312,-9.2759,-3.0835,-2.2721,-10.2613,-7.2351,-1.5392,-1.4726,-5.9314,-0.5060,-4.0377,0.1304,-4.2363,-8.2651,-7.5751,-2.7244,-2.4688,-5.1577,-2.4851,-6.6787
835.9375,-8.8610,-1.2311,0.7721,-8.1809,-6.4865,-1.0759,-1.1414,-6.2920,2.1050,-1.0737,3.1195,0.9322,-6.0895,-6.7583,-0.0474,0.5582,-3.3343,1.0186,-4.0329
839.8438,-7.7654,0.9004,2.3282,-6.4164,-6.0208,0.2452,-0.6168,-6.4942,3.8287,1.6512,4.6105,4.6147,-4.0783,-5.7641,2.0059,3.5413,-1.3301,2.4225,-2.6888
843.7500,-6.3614,2.7671,2.4215,-4.8323,-5.7870,2.0603,0.2924,-6.2025,4.4328,3.4245,4.6801,6.3080,-2.2054,-4.7531,3.3449,6.1104,0.6320,1.5769,-2.4900
847.6562,-4.9076,3.9908,1.6428,-3.0434,-5.4266,3.9622,1.6541,-5.0755,4.1408,4.0515,3.8793,6.1796,-0.3148,-3.7349,4.0754,7.8960,2.4172,-0.6636,-2.6991
851.5625,-3.3912,4.5414,0.8323,-0.7799,-4.5830,5.6749,3.3334,-3.0226,3.5213,3.9117,2.9336,4.7846,1.5426,-2.6919,4.3536,8.5804,3.8033,-2.8784,-2.5407
855.4688,-1.5869,4.7440,0.7006,1.8052,-3.2303,7.1168,5.0310,-0.3785,3.2537,3.7051,2.4529,2.7533,2.9332,-1.7528,4.3033,8.0008,4.4023,-3.7358,-1.6980
859.3750,0.6973,5.0965,1.5438,4.0990,-1.7781,8.3324,6.4020,2.1462,3.8443,4.0349,2.7458,0.6194,3.1950,-1.2405,4.0197,6.2630,3.8063,-2.5593,-0.4591
863.2812,3.3580,5.9803,3.1539,5.3201,-0.8528,9.3590,7.1760,3.7598,5.3909,5.0709,3.7627,-1.1840,1.8641,-1.4938,3.6091,3.7892,1.9036,0.4320,0.5474
867.1875,5.9180,7.4130,4.9390,4.9775,-0.8885,10.1211,7.2274,3.9914,7.4966,6.4774,5.1480,-2.2681,-0.8923,-2.5565,3.1940,1.2368,-0.8603,4.2742,0.8238
871.0938,7.7091,8.9719,6.1845,3.2135,-1.8046,10.4235,6.5929,2.9647,9.3879,7.6196,6.3690,-2.3131,-4.1505,-3.9681,2.8605,-0.7173,-3.5142,7.6849,0.3524
875.0000,8.2118,9.9351,6.3362,0.7894,-3.0056,10.0428,5.4562,1.3583,10.2044,7.8960,6.8847,-1.2227,-6.5634,-4.8736,2.5796,-1.6527,-4.9578,9.5473,-0.4066
878.9062,7.3360,9.5869,5.1907,-1.3052,-3.7254,8.8600,4.1071,0.0456,9.3446,6.9971,6.3096,0.6835,-7.0178,-4.4609,2.1732,-1.6151,-4.5405,9.2587,-0.8542
882.8125,5.4683,7.5547,2.9294,-2.3967,-3.5035,6.9582,2.8610,-0.3881,6.7205,4.9781,4.5277,2.6222,-5.2597,-2.4855,1.3678,-1.1335,-2.4769,6.8518,-0.6886
886.7188,3.2699,4.0328,0.0106,-2.4902,-2.4808,4.6368,1.9419,0.0391,2.8129,2.1758,1.7240,3.5679,-2.1076,0.4681,-0.0690,-0.9961,0.1879,2.9126,-0.1426
890.6250,1.3708,-0.2144,-3.0111,-2.2257,-1.3206,2.3387,1.3750,0.7470,-1.4858,-0.9181,-1.6642,2.7017,0.8971,3.2007,-2.1732,-1.8629,2.0905,-1.6297,0.1309
894.5312,0.1521,-4.0873,-5.6531,-2.4625,-0.8056,0.5246,0.9631,0.9598,-5.1661,-3.7402,-5.0464,-0.1343,2.2319,4.4981,-4.6910,-3.8973,2.2595,-5.7670,-0.5595
898.4375,-0.2822,-6.5408,-7.6045,-3.7604,-1.3750,-0.4578,0.3925,0.1597,-7.4120,-5.7067,-7.7938,-4.2529,1.1207,3.7655,-7.1038,-6.6180,0.6064,-8.6808,-2.5433
902.3438,0.0150,-6.9682,-8.7413,-6.0723,-2.8930,-0.4658,-0.5645,-1.6500,-7.8185,-6.3013,-9.3475,-8.3509,-2.1417,1.3139,-8.7765,-9.0748,-2.0926,-9.9607,-5.6036
906.2500,0.9709,-5.4057,-9.0747,-8.7958,-4.7665,0.4163,-1.8661,-4.0022,-6.4574,-5.2347,-9.3208,-11.0601,-6.4062,-1.8550,-9.1742,-10.2786,-4.6909,-9.6978,-9.0755
910.1562,2.5384,-2.4583,-8.6634,-11.0846,-6.2911,1.9323,-3.1512,-6.2467,-3.7908,-2.6151,-7.5949,-11.5281,-10.2485,-4.5908,-8.0609,-9.6679,-6.3112,-8.3806,-12.1060
914.0625,4.6401,1.0128,-7.5248,-12.1744,-6.9656,3.7666,-3.8660,-7.8247,-0.4814,0.9998,-4.3900,-9.7239,-12.5504,-6.1024,-5.5982,-7.3672,-6.7245,-6.6057,-13.8885
917.9688,7.0818,4.2693,-5.5921,-11.5410,-6.5805,5.6589,-3.4961,-8.3612,2.8212,4.7514,-0.2738,-6.3362,-12.7872,-6.1415,-2.3083,-4.1099,-6.2651,-4.7366,-13.7733
921.8750,9.5191,6.9267,-2.7578,-8.8988,-5.0888,7.4582,-1.7803,-7.5884,5.6305,7.7842,3.9225,-2.3818,-10.9705,-4.8421,1.0791,-0.8925,-5.4101,-2.7238,-11.3113
925.7812,11.5046,8.9152,0.9817,-4.1977,-2.4516,9.0793,1.1895,-5.2757,7.6539,9.5407,7.2800,1.2110,-7.4222,-2.4436,3.8280,1.4344,-4.3731,-0.2424,-6.3601
929.6875,12.5863,10.2324,5.3370,2.2502,1.3439,10.3896,4.9892,-1.3323,8.7140,9.8808,9.0166,3.8234,-2.6173,0.8323,5.3746,2.4277,-3.0169,2.9017,0.6995
933.5938,12.4128,10.6999,9.6146,9.5738,6.0640,11.1182,8.9531,3.9299,8.6464,8.9845,8.6981,5.1410,2.8085,4.6679,5.4432,2.0838,-1.1227,6.3640,8.7665
937.5000,10.8296,9.9495,12.8178,16.3079,10.9967,10.8888,12.2878,9.5937,7.2879,7.1524,6.3815,5.0679,7.9950,8.4637,4.0976,0.7133,1.2349,9.1865,16.0856
941.4062,7.9698,7.7012,14.0014,20.7353,14.9791,9.4124,14.2193,14.2581,4.6159,4.6793,2.6542,3.7269,11.9333,11.3435,1.7451,-1.2002,3.5430,10.2117,20.7280
945.3125,4.3242,4.1636,12.7562,21.5788,16.8074,6.7555,14.2076,16.5626,0.9744,1.8884,-1.4522,1.5722,13.7740,12.4713,-0.9090,-3.0780,5.0868,8.8049,21.3766
949.2188,0.7295,0.2453,9.5627,18.7089,15.8671,3.5135,12.2045,15.8835,-2.7926,-0.7495,-4.6873,-0.5419,13.2357,11.5265,-2.9891,-4.2973,5.4113,5.4300,18.0271
953.1250,-1.7996,-2.6592,5.7531,13.4060,12.6020,0.7254,8.8285,12.7800,-5.4840,-2.5928,-5.9360,-1.5371,10.8346,9.0045,-3.6873,-4.3156,4.6552,1.6384,12.1586
957.0312,-2.4042,-3.2866,3.0032,7.9114,8.4677,-0.5041,5.2827,8.8476,-6.0021,-3.0250,-4.6293,-0.5804,7.7156,6.0732,-2.5772,-2.9024,3.4844,-0.6353,6.1689
960.9375,-0.7738,-1.2091,2.5496,4.4156,5.3035,0.4673,2.9343,5.9782,-3.9463,-1.8099,-1.0612,2.3620,5.1124,4.0109,0.1160,-0.3746,2.6444,-0.1236,2.2936
964.8438,2.6006,2.7983,4.5315,4.0093,4.4275,3.4091,2.6833,5.4094,0.0029,0.6227,3.5693,6.2542,3.7320,3.5443,3.4643,2.3619,2.4487,3.0000,1.5677
968.7500,6.4921,6.9989,7.8396,6.1814,5.9625,7.1731,4.4437,7.1019,4.2049,3.2068,7.5049,9.2808,3.4380,4.4989,6.1123,4.0983,2.5785,7.1213,3.4026
972.6562,9.3602,9.4671,10.6008,9.1482,8.7931,10.0931,7.0732,9.8065,6.7256,4.6556,9.0991,9.6540,3.4282,5.9759,6.8297,3.8683,2.3517,10.0058,6.0087
976.5625,9.9733,8.9987,11.0751,10.8135,11.1799,10.6804,8.8746,11.7706,6.2561,4.0800,7.5414,6.5460,2.7892,6.9248,5.1021,1.4756,1.2691,9.9761,7.4068
980.4688,7.9489,5.6708,8.4997,9.8127,11.6760,8.2991,8.4494,11.6625,2.7969,1.4743,3.2795,0.6183,1.0676,6.7379,1.4454,-2.3220,-0.5598,6.7696,6.4385
984.3750,3.9467,0.7599,3.4375,6.0843,9.8210,3.4940,5.4443,9.1939,-2.2908,-2.2203,-2.1163,-6.1891,-1.4937,5.5017,-2.7633,-6.1239,-2.4299,1.6001,3.2270
988.2812,-0.5888,-3.9159,-2.5385,0.7369,6.2519,-2.2011,0.7565,5.1407,-6.9290,-5.5267,-6.6286,-11.5315,-4.1687,3.7982,-5.8956,-8.5498,-3.4914,-3.5603,-1.0976
992.1875,-4.0290,-6.8574,-7.6283,-4.6169,2.2347,-6.9021,-3.9332,0.8315,-9.3289,-7.1086,-8.6914,-13.7355,-6.2248,2.2480,-6.8196,-8.8877,-3.3189,-7.0154,-5.1501
996.0938,-5.2376,-7.5008,-10.6261,-8.6316,-1.0482,-9.1754,-7.0367,-2.5419,-8.8214,-6.3631,-7.8575,-12.5055,-7.3294,1.1259,-5.3946,-7.3633,-2.1979,-8.0991,-8.0203
1000.0000,-4.0260,-6.3146,-11.3624,-10.7152,-3.0286,-8.6323,-7.8421,-4.4116,-6.0792,-3.6462,-4.8976,-8.9128,-7.6389,0.2838,-2.4531,-4.9022,-0.9300,-7.2866,-9.5768
1003.9062,-1.1920,-4.3981,-10.5867,-11.0746,-3.8481,-6.0440,-6.7740,-4.9254,-2.6477,-0.0521,-1.3060,-4.7325,-7.5672,-0.6262,0.6933,-2.5645,-0.3038,-5.7147,-10.2617
1007.8125,1.8694,-2.8515,-9.4225,-10.4167,-4.0628,-2.9227,-5.0234,-4.7028,-0.0862,3.1083,1.4888,-1.5369,-7.4396,-1.8294,2.9262,-1.0060,-0.5983,-4.4749,-10.6143
1011.7188,3.8100,-2.2554,-8.7242,-9.5277,-4.2165,-0.7736,-3.8099,-4.4604,0.7943,4.8653,2.7707,-0.0362,-7.2838,-3.2395,3.7920,-0.2633,-1.4482,-4.0926,-10.8728
1015.6250,3.9357,-2.4922,-8.6769,-8.9263,-4.5556,-0.3854,-3.7254,-4.7019,0.2060,4.9385,2.7181,0.0397,-6.8690,-4.5001,3.5498,0.0774,-2.1284,-4.4088,-10.8768
1019.5312,2.4928,-2.9428,-8.8098,-8.6895,-5.0022,-1.5128,-4.5130,-5.5598,-0.9114,3.7551,2.0912,-0.4426,-5.9200,-5.1869,2.8423,0.5066,-2.0327,-4.8212,-10.2553
1023.4375,0.4909,-2.9071,-8.3678,-8.4730,-5.3121,-3.1071,-5.3469,-6.7851,-1.5241,2.1693,1.6748,-0.6139,-4.3268,-5.0172,2.2482,1.2806,-1.0147,-4.6789,-8.7176
1027.3438,-0.8551,-2.0153,-6.8097,-7.7028,-5.2562,-3.9590,-5.3847,-7.8508,-1.0916,1.0356,1.8285,-0.0554,-2.2162,-3.9510,1.9997,2.3430,0.6047,-3.6181,-6.2497
1031.2500,-0.7742,-0.4235,-4.1600,-5.8809,-4.7087,-3.3874,-4.2471,-8.1468,0.2060,0.8305,2.3841,1.0922,0.1265,-2.1680,1.9961,3.4624,2.3121,-1.7185,-3.1359
1035.1562,0.6756,1.2978,-1.0340,-2.8923,-3.6371,-1.5780,-2.1682,-7.2312,1.6803,1.4904,2.8931,2.3522,2.3972,0.0198,2.0318,4.4362,3.7306,0.5441,0.1546
1039.0625,2.7103,2.5176,1.6743,0.8410,-2.0648,0.6187,0.2130,-5.0536,2.6209,2.5274,3.0199,3.2812,4.3763,2.2643,2.0371,5.2098,4.7833,2.5110,3.1269
1042.9688,4.3515,2.9501,3.2709,4.4784,-0.0689,2.2933,2.2474,-2.0325,2.7607,3.3550,2.8204,3.7605,5.9635,4.2625,2.1597,5.8608,5.6294,3.6443,5.4002
1046.8750,5.0612,2.8782,3.6470,7.1328,2.1926,3.0918,3.6101,1.0916,2.4577,3.6481,2.7419,4.0598,7.1694,5.8288,2.6551,6.5025,6.4777,3.8048,6.8066
1050.7812,5.0739,3.0386,3.3479,8.3114,4.4718,3.4309,4.3972,3.5865,2.4956,3.5357,3.3597,4.6605,8.0953,6.9440,3.6850,7.1979,7.4330,3.3647,7.4348
1054.6875,5.2016,4.1949,3.2663,8.1638,6.4824,4.1614,4.9649,5.0673,3.6155,3.5105,5.0141,5.9452,8.8930,7.7478,5.1695,7.9270,8.4602,3.0556,7.5925
1058.5938,6.2255,6.6148,4.1115,7.3670,7.9917,5.8951,5.6356,5.6411,6.0306,4.1011,7.5504,7.9224,9.6821,8.4465,6.7741,8.5984,9.4341,3.5841,7.6676
1062.5000,8.2749,9.7648,5.9520,6.7071,8.8936,8.4509,6.4562,5.7656,9.1951,5.4938,10.3041,10.1365,10.4346,9.1719,8.0238,9.0683,10.1970,5.2023,7.9248
1066.4062,10.6187,12.4435,8.1063,6.6189,9.2155,10.8206,7.1493,5.9159,11.9752,7.3375,12.3453,11.8244,10.9028,9.8773,8.4705,9.1653,10.5813,7.4904,8.3422
1070.3125,12.0410,13.3410,9.4702,6.9776,9.0671,11.7220,7.2855,6.2866,13.1639,8.8638,12.8754,12.2633,10.6849,10.3572,7.8474,8.7443,10.4294,9.5176,8.6079
1074.2188,11.5861,11.7472,9.1142,7.2643,8.5814,10.4145,6.5719,6.7259,12.0933,9.2779,11.6014,11.1464,9.4508,10.3922,6.1740,7.7836,9.6609,10.3253,8.3121
1078.1250,9.2093,8.0194,6.8195,6.9724,7.8965,7.2584,5.0885,6.9274,9.0329,8.2136,8.9210,8.8003,7.2265,9.9207,3.8020,6.4862,8.3822,9.4681,7.2388
1082.0312,5.9150,3.5250,3.2469,5.9636,7.1692,3.6446,3.3207,6.7161,5.1562,6.0031,5.8278,6.1184,4.5472,9.1033,1.3823,5.3022,6.9551,7.2957,5.5737
1085.9375,3.2830,0.0670,-0.3459,4.5456,6.5728,1.3092,1.9569,6.2026,2.0746,3.6091,3.5630,4.2285,2.3354,8.2167,-0.2722,4.8118,5.9274,4.8180,3.8797
1089.8438,2.6601,-0.9168,-2.6688,3.2546,6.2387,1.4361,1.5525,5.6914,1.1605,2.2373,3.1500,4.0446,1.5217,7.4508,-0.4278,5.4897,5.8129,3.2424,2.8430
1093.7500,4.4877,1.0345,-2.9256,2.5395,6.1664,4.0713,2.2533,5.4264,2.9839,2.8081,5.0020,5.9133,2.6050,6.7709,1.2850,7.4674,6.8301,3.4532,2.9463
1097.6562,8.1335,5.2758,-1.0426,2.5808,6.1814,8.1712,3.7396,5.3885,7.1190,5.5301,8.7642,9.5122,5.4119,5.9767,4.6699,10.4311,8.7696,5.6958,4.2715
1101.5625,12.2756,10.4291,2.4553,3.3411,6.0115,12.2119,5.4248,5.3164,12.3766,9.7666,13.4521,14.0195,9.1988,4.9370,8.9652,13.7269,11.0932,9.5613,6.5342
1105.4688,15.5785,15.0184,6.7699,4.7423,5.4705,14.9671,6.7843,4.9463,17.3105,14.2576,17.8188,18.4440,13.0259,3.8282,13.0882,16.6176,13.2141,14.1901,9.2853
1109.3750,17.2722,18.0337,11.1352,6.7774,4.6342,16.0082,7.6133,4.2843,20.7453,17.6109,20.7930,21.9454,16.1677,3.1698,16.0301,18.5490,14.7802,18.5420,12.1107
1113.2812,17.3606,19.1832,14.9649,9.4414,3.8686,15.7032,8.0601,3.6878,22.1086,18.8576,21.8163,24.0192,18.3156,3.5768,17.2236,19.2894,15.7760,21.6394,14.6945
1117.1875,16.4286,18.8009,17.8562,12.5478,3.6479,14.8131,8.4320,3.6669,21.4892,17.8358,20.9663,24.5165,19.4950,5.3511,16.7071,18.8999,16.3934,22.7784,16.7522
1121.0938,15.2314,17.5415,19.5536,15.6107,4.2488,13.9978,8.9186,4.5261,19.4720,15.2262,18.8486,23.5579,19.8174,8.1787,15.0229,17.6060,16.7875,21.7250,17.9581
1125.0000,14.3134,16.0522,19.9526,17.9342,5.5167,13.5251,9.4228,6.0921,16.8632,12.2121,16.3239,21.4244,19.2877,11.1570,12.9235,15.6811,16.9101,18.8412,17.9912
1128.9062,13.8265,14.7536,19.1252,18.8844,6.8763,13.2857,9.6078,7.7266,14.4097,9.9166,14.1795,18.4801,17.8141,13.1816,11.0504,13.4133,16.5467,15.0239,16.7047
1132.8125,13.5762,13.7668,17.2943,18.1732,7.6144,13.0057,9.1157,8.6325,12.5782,8.8927,12.8595,15.1293,15.3923,13.4902,9.7349,11.1314,15.5217,11.3826,14.2894
1136.7188,13.2135,12.9582,14.7201,15.9657,7.2784,12.4621,7.8026,8.2717,11.4369,8.9262,12.3392,11.7838,12.2927,12.0502,8.9806,9.2112,13.9034,8.7489,11.2729
1140.6250,12.4501,12.0569,11.5629,12.7556,5.9449,11.5691,5.8377,6.6414,10.6779,9.2525,12.1895,8.8210,9.0756,9.5630,8.5835,7.9979,12.0450,7.2764,8.3096
1144.5312,11.2021,10.8049,7.8480,9.1175,4.1838,10.3408,3.6195,4.2579,9.7922,9.0539,11.8100,6.5340,6.3882,7.0824,8.2921,7.6638,10.4162,6.4017,5.8741
1148.4375,9.6169,9.0992,3.6066,5.5095,2.7339,8.8240,1.5865,1.8801,8.3519,7.9411,10.7431,5.0854,4.6625,5.4681,7.9240,8.0897,9.3411,5.2380,4.0613
1152.3438,7.9896,7.0744,-0.8821,2.2309,2.0859,7.0869,0.0539,0.1538,6.2773,6.1369,8.9260,4.4748,3.9053,4.9765,7.4092,8.8681,8.8197,3.1820,2.6228
1156.2500,6.6170,5.0765,-4.9410,-0.5048,2.2272,5.2635,-0.8365,-0.6273,3.9370,4.2727,6.7484,4.5250,3.7104,5.2009,6.7756,9.4561,8.5500,0.3439,1.2053
1160.1562,5.6581,3.5224,-7.6171,-2.5064,2.6937,3.5895,-1.0664,-0.5472,1.9951,2.9539,4.8627,4.8952,3.4812,5.3648,6.1049,9.4084,8.1262,-2.4941,-0.3857
1164.0625,5.0671,2.7025,-8.0869,-3.6387,2.8777,2.3578,-0.6733,0.0765,1.0599,2.3946,3.8296,5.1407,2.7244,4.7806,5.4834,8.5656,7.2725,-4.3705,-2.0738
1167.9688,4.6296,2.6301,-6.1426,-3.9265,2.3882,1.7960,0.2603,0.8799,1.3239,2.3506,3.7896,4.8326,1.2595,3.2140,4.9579,7.0980,5.9673,-4.7563,-3.6018
1171.8750,4.0789,3.0253,-2.4540,-3.6172,1.2431,1.9320,1.5576,1.5716,2.4127,2.3675,4.3589,3.7162,-0.7441,0.9670,4.5154,5.3894,4.4013,-3.8718,-4.7217
1175.7812,3.2303,3.4483,1.5994,-3.1111,-0.2073,2.5409,2.9056,1.9469,3.5535,2.1399,4.8327,1.8472,-2.8795,-1.3407,4.1016,3.8404,2.8326,-2.5060,-5.3271
1179.6875,2.0695,3.5138,4.4856,-2.7821,-1.5480,3.2189,3.8915,1.8454,3.9846,1.7243,4.5968,-0.3776,-4.6798,-3.1461,3.6826,2.7042,1.4530,-1.4858,-5.4455
1183.5938,0.7658,3.0736,5.1876,-2.8066,-2.5734,3.5561,4.1342,1.1254,3.3760,1.4720,3.5135,-2.3380,-5.7737,-4.2505,3.3197,2.0402,0.3489,-1.1724,-5.1382
1187.5000,-0.3753,2.2811,3.6320,-3.1212,-3.3913,3.3247,3.4497,-0.2994,2.0224,1.7641,2.0469,-3.4247,-5.9754,-4.8829,3.2024,1.7826,-0.4485,-1.3115,-4.4291
1191.4062,-0.9897,1.5207,0.6666,-3.5239,-4.3062,2.5922,1.9545,-2.3733,0.6995,2.7587,1.0423,-3.2797,-5.3043,-5.4869,3.5934,1.8593,-0.8925,-1.2885,-3.3325
1195.3125,-0.7474,1.2509,-2.3711,-3.8229,-5.5688,1.7086,0.0465,-4.8213,0.2714,4.3240,1.2772,-1.9211,-3.9458,-6.3606,4.6932,2.2685,-0.9002,-0.5605,-1.9417
1199.2188,0.5398,1.8310,-4.2479,-3.9061,-7.1561,1.1693,-1.7299,-7.1463,1.2654,6.1664,3.0397,0.3073,-2.1693,-7.3743,6.4933,3.0614,-0.3983,1.0490,-0.4647
1203.1250,2.8019,3.3856,-4.2952,-3.6905,-8.7182,1.4030,-2.8630,-8.7334,3.6292,8.0146,5.9672,2.9168,-0.2282,-7.9554,8.7129,4.2493,0.6054,3.3436,0.8630
1207.0312,5.6333,5.7328,-2.5600,-3.0309,-9.7191,2.5639,-3.0236,-9.0405,6.7656,9.7021,9.2206,5.4656,1.7165,-7.3790,10.8759,5.7047,1.9851,5.9486,1.9379
1210.9375,8.3261,8.3851,0.3476,-1.7134,-9.6921,4.4116,-2.1401,-7.8052,9.7869,11.1019,11.8721,7.6502,3.6027,-5.2165,12.4944,7.1348,3.5214,8.4864,2.8790
1214.8438,10.0609,10.6386,3.5648,0.4054,-8.4700,6.3439,-0.4030,-5.1773,11.8420,12.0121,13.2785,9.2704,5.3921,-1.6791,13.2531,8.1598,4.9696,10.5975,3.9351
1218.7500,10.2111,11.7533,6.2792,3.1930,-6.2780,7.5967,1.7824,-1.7112,12.3714,12.1318,13.2508,10.1359,6.9559,2.3629,13.0858,8.4633,6.1220,11.8614,5.2393
1222.6562,8.6261,11.1970,7.9183,6.1294,-3.6545,7.5480,3.8816,1.7937,11.2242,11.1868,11.9752,10.0245,8.0089,5.7268,12.1079,7.9337,6.8348,11.7995,6.5829
1226.5625,5.7335,8.8749,8.2117,8.4156,-1.2487,6.0027,5.3547,4.5463,8.6462,9.1235,9.7991,8.7557,8.1654,7.4557,10.4753,6.7153,7.0216,10.0765,7.4013
1230.4688,2.3861,5.2390,7.1697,9.2800,0.4058,3.3177,5.8074,6.0092,5.1896,6.2214,7.0512,6.3469,7.1195,7.2546,8.2936,5.1433,6.6458,6.8156,7.0366
1234.3750,-0.4786,1.1977,5.0278,8.3242,1.0524,0.2872,5.1294,6.0420,1.5852,3.0309,4.0042,3.1403,4.8580,5.5869,5.6576,3.5994,5.7367,2.7808,5.1358
1238.2812,-2.1903,-2.1699,2.1905,5.7138,0.7578,-2.1770,3.5559,4.8970,-1.4104,0.1690,0.9602,-0.2105,1.7726,3.3933,2.7889,2.3681,4.4227,-0.7912,1.9344
1242.1875,-2.5399,-3.9964,-0.8251,2.1143,-0.1530,-3.4249,1.6026,3.0913,-3.1876,-1.8939,-1.6639,-2.9305,-1.4226,1.6067,0.1376,1.5632,2.9457,-2.7057,-1.7736
1246.0938,-1.7569,-3.9509,-3.4594,-1.5758,-1.2326,-3.3275,-0.1258,1.2232,-3.4584,-2.9439,-3.3791,-4.4185,-3.9562,0.7366,-1.6893,1.1398,1.6161,-2.4110,-4.9808
1250.0000,-0.3452,-2.3667,-5.2116,-4.5480,-2.0682,-2.2936,-1.1773,-0.2012,-2.3791,-3.0140,-3.8243,-4.5070,-5.3232,0.7240,-2.1987,0.9559,0.7030,-0.3324,-6.9306
1253.9062,1.0978,-0.1191,-5.7718,-6.3169,-2.4145,-1.0521,-1.4367,-0.8917,-0.5571,-2.3318,-3.0226,-3.5572,-5.5047,1.0891,-1.3468,0.8282,0.3024,2.2791,-7.4394
1257.8125,2.0015,1.6992,-5.1516,-6.8060,-2.2689,-0.3228,-1.1582,-0.8427,1.1051,-1.2905,-1.5171,-2.3323,-4.9722,1.2289,0.2876,0.5565,0.2537,3.9158,-6.9155
1261.7188,1.9029,2.1798,-3.7472,-6.3083,-1.8702,-0.5425,-0.8300,-0.3427,1.7112,-0.4283,-0.2456,-1.6973,-4.4746,0.6758,1.6600,-0.0644,0.1692,3.5003,-6.0990
1265.6250,0.5491,0.9263,-2.2632,-5.3703,-1.6169,-1.7582,-0.9346,0.0907,0.7235,-0.3319,-0.1578,-2.2675,-4.7112,-0.7910,1.7280,-1.2063,-0.4178,0.8469,-5.6927
1269.5312,-1.9728,-1.8091,-1.4786,-4.6293,-1.9214,-3.6947,-1.7251,-0.1321,-1.7793,-1.4145,-1.7429,-4.1518,-6.0391,-3.1620,-0.0005,-2.9282,-1.8397,-3.2946,-6.0744
1273.4375,-5.1638,-5.2333,-1.9263,-4.6150,-3.0433,-5.9195,-3.1210,-1.4431,-5.0796,-3.6482,-4.7226,-6.8946,-8.3297,-6.2509,-3.1544,-5.0963,-4.1144,-7.5801,-7.1965
1277.3438,-8.2186,-8.3258,-3.6409,-5.5517,-4.9601,-8.0027,-4.7674,-3.8907,-8.0858,-6.4400,-8.1114,-9.6452,-11.0169,-9.7098,-6.6308,-7.3693,-6.8911,-10.6093,-8.6614
1281.2500,-10.3395,-10.2453,-6.1305,-7.2397,-7.3300,-9.6143,-6.2171,-7.0365,-9.8008,-8.8186,-10.6558,-11.4912,-13.3003,-13.0184,-9.1320,-9.2929,-9.5529,-11.4378,-9.8999
1285.1562,-11.1268,-10.6644,-8.6193,-9.1017,-9.5706,-10.5646,-7.1408,-10.0609,-9.7871,-9.9062,-11.4506,-11.8222,-14.4223,-15.5168,-9.8229,-10.4760,-11.4358,-9.9050,-10.3750
1289.0625,-10.8127,-9.8871,-10.4463,-10.4125,-11.0314,-10.8199,-7.4601,-12.0672,-8.3914,-9.4316,-10.4074,-10.5764,-13.9237,-16.5406,-8.7464,-10.7531,-12.0667,-6.6952,-9.7631
1292.9688,-10.1631,-8.6865,-11.3877,-10.6228,-11.2009,-10.5156,-7.3479,-12.4553,-6.5913,-7.9507,-8.3102,-8.2625,-11.8015,-15.6389,-6.7661,-10.2382,-11.3207,-3.1166,-8.0768
1296.8750,-10.0708,-7.9316,-11.7033,-9.6113,-9.8755,-9.9479,-7.1089,-11.1808,-5.5182,-6.5872,-6.4129,-5.7512,-8.5211,-12.7776,-5.0785,-9.2373,-9.4424,-0.6402,-5.6899
1300.7812,-11.0720,-8.1816,-11.8778,-7.7250,-7.2371,-9.5079,-7.0124,-8.7626,-5.8981,-6.4110,-5.7939,-3.9280,-4.8782,-8.4145,-4.5834,-8.0834,-6.9412,-0.3320,-3.2328
1304.6875,-13.0814,-9.4506,-12.2350,-5.5930,-3.8168,-9.5489,-7.1699,-6.0400,-7.7063,-7.8211,-6.8204,-3.3612,-1.7476,-3.3914,-5.4615,-7.0018,-4.4150,-2.3918,-1.3702
1308.5938,-15.4947,-11.2593,-12.6976,-3.8300,-0.3584,-10.2305,-7.5198,-3.8114,-10.2240,-10.3196,-9.0148,-4.1223,0.2001,1.3216,-7.1715,-6.0802,-2.3730,-6.0287,-0.5449
1312.5000,-17.5714,-12.9319,-12.8669,-2.8050,2.3824,-11.4252,-7.9152,-2.5428,-12.4536,-12.8187,-11.3747,-5.8148,0.7152,4.9219,-8.8210,-5.3328,-1.1033,-9.7826,-0.8058
1316.4062,-18.8343,-13.9634,-12.3706,-2.5832,3.8536,-12.7568,-8.2537,-2.2720,-13.6490,-14.2808,-12.9370,-7.7730,0.0346,6.9974,-9.6648,-4.7754,-0.6105,-12.1851,-1.8156
1320.3125,-19.2433,-14.2484,-11.2247,-3.0252,3.8768,-13.7723,-8.5627,-2.7126,-13.6605,-14.2867,-13.2531,-9.3266,-1.2384,7.6007,-9.4473,-4.4334,-0.6372,-12.4517,-3.0372
1324.2188,-19.0861,-14.0589,-9.9344,-3.9318,2.7080,-14.1644,-8.9845,-3.4558,-12.9248,-13.1921,-12.5265,-10.0290,-2.4037,7.1614,-8.4391,-4.2826,-0.7722,-10.8511,-4.0002
1328.1250,-18.7221,-13.8127,-9.2392,-5.1269,0.9473,-13.9210,-9.6681,-4.1466,-12.1509,-11.8190,-11.3899,-9.7869,-2.9797,6.2761,-7.2137,-4.1996,-0.6339,-8.5529,-4.5101
1332.0312,-18.3848,-13.7961,-9.6609,-6.4531,-0.6940,-13.3108,-10.6341,-4.5692,-11.9199,-10.9214,-10.5126,-8.8740,-2.9304,5.4520,-6.3387,-4.0059,-0.0729,-7.0368,-4.7032
1335.9375,-18.1485,-14.0096,-11.1614,-7.7400,-1.6901,-12.7115,-11.7000,-4.6528,-12.4296,-10.7776,-10.2857,-7.8362,-2.6935,4.9001,-6.1527,-3.6084,0.7012,-7.3738,-4.9379
1339.8438,-18.0089,-14.2067,-13.1417,-8.8146,-1.9250,-12.3794,-12.5156,-4.4504,-13.4804,-11.1285,-10.7293,-7.3013,-2.9719,4.4681,-6.6938,-3.1369,1.1651,-9.7375,-5.5926
1343.7500,-17.9425,-14.0657,-14.7746,-9.5624,-1.7251,-12.2983,-12.6980,-4.1177,-14.6343,-11.4310,-11.5863,-7.7240,-4.3609,3.7545,-7.7436,-2.9417,0.7238,-13.3497,-6.8623
1347.6562,-17.8713,-13.3612,-15.4340,-9.9747,-1.6626,-12.1952,-11.9924,-3.8789,-15.3998,-11.2056,-12.4652,-9.1375,-6.9724,2.3681,-8.9095,-3.3971,-0.9399,-16.8264,-8.6236
1351.5625,-17.5871,-12.0327,-14.9348,-10.1129,-2.2198,-11.7057,-10.3776,-3.9472,-15.3432,-10.2525,-12.9277,-11.0272,-10.2462,0.2076,-9.7144,-4.6080,-3.5944,-18.7173,-10.4090
1355.4688,-16.7618,-10.1431,-13.4542,-9.9917,-3.4972,-10.5838,-8.0657,-4.4035,-14.1402,-8.6522,-12.5332,-12.4342,-13.0762,-2.3937,-9.7113,-6.2202,-6.4458,-18.0050,-11.5078
1359.3750,-15.1085,-7.8033,-11.2536,-9.4756,-5.1346,-8.8293,-5.4087,-5.0945,-11.6421,-6.6347,-10.9294,-12.3122,-14.2348,-4.7592,-8.6417,-7.5051,-8.4404,-14.4183,-11.1937
1363.2812,-12.6118,-5.1480,-8.4634,-8.3046,-6.4995,-6.6716,-2.7715,-5.6349,-7.9937,-4.4561,-8.0355,-10.0230,-12.9250,-6.1677,-6.5916,-7.7148,-8.7511,-8.5237,-9.0378
1367.1875,-9.6473,-2.3827,-5.1195,-6.2842,-7.0380,-4.4429,-0.4399,-5.5562,-3.7316,-2.3598,-4.2313,-5.7392,-9.2015,-6.2050,-4.0398,-6.5136,-7.1957,-1.6132,-5.2005
1371.0938,-6.8550,0.1598,-1.4199,-3.5400,-6.5848,-2.4379,1.4016,-4.5535,0.2650,-0.5848,-0.3719,-0.5203,-4.0430,-4.9761,-1.7043,-4.2106,-4.3485,4.5944,-0.5486
1375.0000,-4.8110,2.0429,2.0390,-0.6523,-5.4527,-0.8474,2.6361,-2.7022,3.0440,0.6601,2.4945,4.0340,0.9806,-3.0590,-0.2087,-1.6287,-1.2785,8.4121,3.5234
1378.9062,-3.7022,2.8650,4.3057,1.4737,-4.2589,0.2203,3.1717,-0.5115,3.9861,1.2902,3.6286,6.4299,4.3066,-1.2357,0.2694,0.3290,0.9394,8.7245,5.5678
1382.8125,-3.2333,2.4598,4.4634,1.9880,-3.5992,0.6892,2.9369,1.2429,3.1300,1.4404,3.0437,5.9302,4.9712,-0.1564,0.1418,1.1551,1.6732,5.4386,4.6826
1386.7188,-2.8417,1.0354,2.1728,0.5429,-3.7621,0.5098,1.9282,1.8438,1.1975,1.4585,1.5758,2.8892,2.9394,-0.1125,0.2079,0.9669,0.9158,-0.3628,0.9598
1390.6250,-2.0792,-0.8484,-1.9805,-2.4468,-4.6275,-0.2785,0.2798,0.9614,-0.7336,1.7434,0.4645,-1.3984,-0.9464,-1.0043,1.1780,0.3611,-0.8458,-6.6998,-4.4575
1394.5312,-0.9003,-2.4804,-6.5931,-5.8997,-5.7716,-1.4706,-1.6992,-1.1738,-1.7476,2.5006,0.6477,-5.2581,-5.3322,-2.4635,3.1883,0.0034,-2.9376,-11.3627,-9.7678
1398.4375,0.3319,-3.2814,-10.0016,-8.5006,-6.6816,-2.6945,-3.5660,-3.8419,-1.5073,3.5705,2.1929,-7.3367,-8.8435,-4.0197,5.6162,0.2236,-4.7765,-12.7262,-13.1941
1402.3438,1.1124,-3.0311,-11.0119,-9.2652,-6.9517,-3.5295,-4.8694,-6.1191,-0.3402,4.4653,4.2367,-7.1174,-10.5065,-5.2232,7.3494,0.8597,-5.9869,-10.3748,-13.6513
1406.2500,1.1390,-1.9283,-9.4159,-7.9657,-6.3827,-3.7007,-5.3130,-7.2495,1.0277,4.6196,5.4952,-5.0431,-9.9819,-5.7139,7.3843,1.4183,-6.3746,-5.2654,-11.1169
1410.1562,0.5032,-0.4731,-6.0370,-5.2159,-4.9934,-3.2303,-4.8764,-6.9394,1.9014,3.7208,5.0388,-2.2366,-7.5982,-5.2840,5.4179,1.4125,-5.8740,0.6440,-6.5752
1414.0625,-0.3770,0.7601,-2.3097,-2.1851,-2.9912,-2.4340,-3.8263,-5.4474,1.9474,1.9205,2.8515,0.0144,-4.2200,-3.9628,2.0782,0.6492,-4.5649,5.1509,-1.6023
1417.9688,-1.0037,1.3466,0.3675,-0.0795,-0.7328,-1.7437,-2.5989,-3.4315,1.2673,-0.2011,-0.1631,0.7727,-0.9936,-2.0870,-1.3544,-0.6993,-2.7449,6.6462,2.2156
1421.8750,-1.0431,1.1557,1.1904,0.3764,1.3384,-1.4492,-1.6022,-1.6253,0.2463,-1.8963,-2.7021,-0.2220,0.9957,-0.2651,-3.5804,-2.2395,-0.9467,4.7154,3.8144
1425.7812,-0.4185,0.3889,0.1976,-0.7606,2.8065,-1.5137,-1.0329,-0.4923,-0.6593,-2.5808,-3.7539,-2.4975,1.0948,0.8176,-3.9053,-3.5785,0.1998,0.2893,2.9757
1429.6875,0.7650,-0.4730,-1.8290,-2.6908,3.4336,-1.5731,-0.8005,-0.0256,-1.0452,-2.0481,-3.0234,-5.0395,-0.6322,0.7057,-2.5035,-4.4657,0.2495,-4.7023,0.3660
1433.5938,2.3643,-0.7954,-3.7085,-4.2233,3.2758,-1.1226,-0.5964,0.2030,-0.5700,-0.4652,-0.8778,-6.6403,-3.3504,-0.5615,-0.1939,-4.7853,-0.7783,-8.0470,-2.7105
1437.5000,4.2873,0.0216,-4.2902,-4.2909,2.6747,0.2167,-0.0688,0.7637,1.0457,1.8083,2.0573,-6.2994,-5.7180,-2.3973,2.1034,-4.4581,-2.3161,-8.0801,-4.7785
1441.4062,6.4697,2.3108,-2.8396,-2.4091,2.0956,2.4939,0.9879,2.0041,3.9224,4.4325,5.3007,-3.5707,-6.4147,-3.8937,3.8833,-3.3771,-3.4552,-4.3270,-4.7392
1445.3125,8.7777,5.9228,0.7075,1.1178,1.8864,5.3798,2.5260,3.8053,7.8289,7.1840,8.6191,1.2358,-4.7245,-4.2352,5.2340,-1.4624,-3.3689,2.2913,-2.3003
1449.2188,10.9263,10.1383,5.6806,5.3351,2.0985,8.2796,4.2663,5.6081,12.0380,9.8877,11.8080,7.0735,-0.8909,-3.0880,6.5950,1.1845,-1.7351,9.7843,1.8964
1453.1250,12.4886,13.8128,10.8427,9.0558,2.4867,10.5399,5.8288,6.7140,15.4115,12.2648,14.3979,12.4255,3.9488,-0.7574,8.2817,4.1447,1.0733,15.8414,6.5376
1457.0312,13.0172,15.7727,14.7831,11.3645,2.6941,11.6679,6.8991,6.6968,16.7883,13.8526,15.6088,15.7749,8.2438,1.9694,10.1056,6.6979,4.1344,18.7135,10.1957
1460.9375,12.2370,15.3357,16.4326,11.9708,2.5012,11.4959,7.3519,5.6859,15.5344,14.1124,14.6863,16.1422,10.7003,4.2075,11.3560,8.0423,6.3854,17.8735,11.9315
1464.8438,10.2316,12.7090,15.5086,11.2567,1.9826,10.2541,7.2825,4.3404,11.9676,12.7142,11.4431,13.4984,10.8230,5.3855,11.1777,7.6445,7.0902,14.1861,11.6555
1468.7500,7.5252,9.0218,12.6723,10.0189,1.4754,8.5235,6.9436,3.5171,7.3748,9.8409,6.6330,8.8676,9.0785,5.4829,9.1263,5.5477,6.1498,9.5297,10.0820
1472.6562,4.9830,5.9030,9.2841,9.0625,1.3951,7.0598,6.6259,3.8156,3.5472,6.2950,1.8425,4.0321,6.6314,4.9937,5.5591,2.4605,4.1287,6.0406,8.3273
1476.5625,3.5111,4.7619,6.8353,8.8619,2.0275,6.5164,6.5340,5.2650,2.0212,3.2745,-1.1289,0.9085,4.8066,4.6548,1.6053,-0.4577,2.0101,5.3009,7.3828
1480.4688,3.6465,6.1240,6.3151,9.4437,3.4208,7.1650,6.7091,7.3314,3.3967,1.8713,-1.0980,0.8197,4.5420,5.0833,-1.3026,-2.0437,0.7975,7.7873,7.7320
1484.3750,5.2278,9.3790,7.8250,10.5058,5.4126,8.7491,7.0303,9.2315,7.0796,2.5350,1.9181,3.9649,6.0603,6.4926,-2.0975,-1.6130,1.1272,12.7722,9.2627
1488.2812,7.3626,13.0985,10.6306,11.6547,7.7299,10.5777,7.2954,10.3597,11.5781,4.8085,6.6924,9.3293,8.8628,8.6097,-0.5831,0.7550,3.0388,18.6704,11.4450
1492.1875,8.7931,15.7633,13.6024,12.6031,10.0678,11.8517,7.3455,10.5743,15.1980,7.5227,11.3702,15.0951,11.9940,10.8184,2.4986,4.2714,5.9814,23.6662,13.6162
1496.0938,8.5379,16.5090,15.7896,13.2316,12.1091,12.0678,7.1713,10.1936,16.7871,9.3834,14.3329,19.3853,14.4368,12.4490,5.8705,7.8074,9.0480,26.3670,15.2136
1500.0000,6.4799,15.4843,16.8121,13.5249,13.5227,11.2783,6.9342,9.7333,16.1733,9.6467,14.8988,21.0113,15.4722,13.0711,8.3641,10.3908,11.3372,26.2491,15.8873
1503.9062,3.5357,13.6497,16.8872,13.4797,14.0132,10.0473,6.8791,9.5701,14.1230,8.5074,13.5290,19.8890,14.8850,12.6477,9.4502,11.5798,12.2885,23.7573,15.5253
1507.8125,1.2421,12.1729,16.5360,13.0742,13.4420,9.1221,7.1804,9.7398,11.8945,6.9731,11.4829,16.9547,12.9698,11.4813,9.3840,11.5415,11.8477,20.0518,14.2515
1511.7188,0.9384,11.7984,16.1972,12.3225,11.9564,9.0187,7.8146,9.9731,10.6466,6.2949,10.1517,13.6617,10.3672,10.0002,8.9263,10.8319,10.4024,16.5291,12.4180
1515.6250,3.0037,12.5549,15.9998,11.3554,10.0141,9.7752,8.5534,9.9170,10.9914,7.2816,10.4257,11.3350,7.8166,8.5221,8.8448,10.0434,8.5451,14.3152,10.5538
1519.5312,6.6107,13.9213,15.8061,10.4382,8.2403,11.0147,9.0997,9.3829,12.8616,9.8882,12.3854,10.6997,5.9295,7.1469,9.5043,9.5351,6.8100,13.9309,9.2290
1523.4375,10.1714,15.2794,15.4430,9.8842,7.1646,12.2541,9.2900,8.4705,15.6790,13.2962,15.4027,11.7651,5.0642,5.8391,10.7620,9.3810,5.5259,15.2304,8.8543
1527.3438,12.2218,16.3218,14.9194,9.9015,6.9797,13.2295,9.2270,7.5086,18.6716,16.4023,18.5255,14.0281,5.3191,4.6270,12.1757,9.5051,4.8322,17.5913,9.5050
1531.2500,12.2198,17.1540,14.4643,10.4706,7.4679,14.0151,9.2391,6.8726,21.1579,18.3990,20.9092,16.8002,6.5991,3.7516,13.3339,9.8504,4.7869,20.2201,10.8782
1535.1562,10.7756,18.0667,14.3645,11.3400,8.1399,14.8624,9.6691,6.7936,22.6915,19.1008,22.0859,19.4484,8.6808,3.6245,14.0716,10.4254,5.4361,22.4154,12.4231
1539.0625,9.1923,19.1808,14.7329,12.1475,8.4989,15.8953,10.6195,7.2588,23.0665,18.8608,21.9956,21.4600,11.2265,4.5843,14.4489,11.1995,6.7650,23.6909,13.5799
1542.9688,8.6214,20.2355,15.3785,12.5946,8.2688,16.8934,11.8194,8.0307,22.2586,18.1896,20.8429,22.3972,13.7635,6.6031,14.5541,11.9573,8.5706,23.7682,13.9927
1546.8750,9.3650,20.6673,15.8697,12.5594,7.4664,17.3321,12.7113,8.7497,20.3762,17.3629,18.9148,21.8815,15.6979,9.1539,14.3202,12.2806,10.3876,22.5230,13.5823
1550.7812,10.7411,19.9168,15.7398,12.0807,6.3046,16.6647,12.7133,9.0607,17.6438,16.2785,16.4746,19.6920,16.4233,11.3694,13.5157,11.7345,11.5887,19.9676,12.4612
1554.6875,11.5634,17.7523,14.6939,11.2386,5.0276,14.6628,11.5051,8.7212,14.3904,14.6271,13.7560,15.9388,15.5223,12.4324,11.9299,10.1645,11.6538,16.2894,10.7797
1558.5938,10.9063,14.4119,12.6986,10.0354,3.7976,11.5971,9.1732,7.6719,11.0078,12.2287,11.0077,11.1705,12.9728,11.9794,9.6112,7.8966,10.4632,11.8919,8.6240
1562.5000,8.6808,10.5026,9.9388,8.3841,2.6959,8.1487,6.1559,6.0633,7.8768,9.2799,8.5075,6.2921,9.2364,10.2751,6.9715,5.6587,8.4182,7.3676,6.0426
1566.4062,5.6922,6.7504,6.7193,6.2316,1.7991,5.1129,3.0527,4.2298,5.2974,6.3394,6.5111,2.2831,5.1510,8.0543,4.6532,4.2237,6.2829,3.3725,3.1677
1570.3125,3.1820,3.7593,3.4034,3.7297,1.2423,3.0720,0.4286,2.5967,3.4595,4.0622,5.1647,-0.1600,1.6533,6.1294,3.2253,3.9710,4.8151,0.4489,0.3227
1574.2188,2.1515,1.8826,0.4090,1.3083,1.1979,2.2083,-1.2937,1.5367,2.4596,2.8575,4.4485,-0.8741,-0.5511,4.9991,2.8900,4.6472,4.3960,-1.1247,-1.9921
1578.1250,2.8561,1.2099,-1.8027,-0.4478,1.7758,2.3195,-1.8588,1.2221,2.3229,2.6864,4.2003,-0.2479,-1.2210,4.6689,3.3829,5.4941,4.8681,-1.3869,-3.2710
1582.0312,4.7229,1.6055,-2.8246,-1.0880,2.9136,2.9828,-1.1901,1.5496,2.9888,3.1150,4.2090,0.9906,-0.6261,4.7477,4.1266,5.6836,5.6639,-0.6432,-3.2538
1585.9375,6.6898,2.7476,-2.4886,-0.5831,4.3396,3.7527,0.5619,2.1919,4.2594,3.5761,4.3175,2.0998,0.5956,4.7161,4.5402,4.7972,6.1274,0.6501,-2.1134
1589.8438,7.7453,4.1767,-1.0332,0.5897,5.6443,4.3015,2.9670,2.7658,5.7649,3.6734,4.4704,2.6121,1.6951,4.1922,4.3256,3.0594,5.8372,2.0164,-0.4512
1593.7500,7.3831,5.3905,0.8944,1.6579,6.4323,4.4748,5.3524,3.0331,7.0189,3.3569,4.6869,2.4762,2.0847,3.0717,3.5808,1.1906,4.7672,3.0738,0.9365
1597.6562,5.7700,5.9964,2.4675,1.9691,6.4834,4.2840,6.9917,3.0190,7.5820,2.8918,4.9950,2.0244,1.5465,1.5285,2.7002,-0.0131,3.2453,3.6200,1.4293
1601.5625,3.5939,5.8645,3.0562,1.3687,5.8513,3.8680,7.3995,2.9731,7.2701,2.6684,5.3872,1.8014,0.3197,-0.0571,2.1457,-0.1082,1.7837,3.6775,0.9086
1605.4688,1.7129,5.1877,2.5418,0.3004,4.8582,3.4408,6.5713,3.1910,6.2777,2.9806,5.8281,2.3201,-0.9632,-1.1861,2.2213,0.8096,0.8922,3.4707,-0.1442
1609.3750,0.7937,4.3931,1.3740,-0.4490,3.9854,3.2302,5.0047,3.8082,5.1183,3.8939,6.2952,3.8205,-1.4970,-1.3403,2.9562,2.2349,0.9368,3.3207,-0.8592
1613.2812,1.0914,3.9372,0.3214,-0.2118,3.6947,3.4122,3.4557,4.6971,4.3851,5.2504,6.8004,6.1167,-0.6343,-0.1260,4.1298,3.5757,2.0497,3.4820,-0.4186
1617.1875,2.4301,4.0975,0.0557,1.1718,4.2380,4.0599,2.5568,5.5368,4.4551,6.7746,7.3609,8.6049,1.7924,2.5412,5.3951,4.4499,4.0743,3.9989,1.4912
1621.0938,4.3378,4.8711,0.8113,3.2746,5.5278,5.1221,2.5201,6.0096,5.3016,8.1975,7.9363,10.4652,5.3092,6.2894,6.4288,4.7912,6.5568,4.6701,4.4601
1625.0000,6.2379,6.0180,2.3054,5.3439,7.1270,6.4357,3.0991,5.9927,6.5205,9.3254,8.3892,11.0001,8.9171,10.2973,7.0389,4.7523,8.8299,5.1562,7.5064
1628.9062,7.6099,7.1900,3.9325,6.7161,8.3850,7.7583,3.8119,5.6141,7.5428,10.0362,8.5169,9.9634,11.4732,13.5194,7.1925,4.5188,10.2068,5.1737,9.5348
1632.8125,8.0884,8.0524,5.0852,7.1167,8.6825,8.8095,4.2595,5.1356,7.9018,10.2361,8.1514,7.7073,12.1746,15.0647,6.9666,4.1802,10.2370,4.6543,9.8633
1636.7188,7.5199,8.3426,5.4036,6.6790,7.6900,9.3240,4.3265,4.7492,7.4082,9.8309,7.2643,5.0490,10.9042,14.5512,6.4582,3.7279,8.9050,3.7681,8.5318
1640.6250,6.0077,7.8845,4.8440,5.7275,5.5274,9.1227,4.1554,4.4355,6.1672,8.7489,6.0044,2.9098,8.2580,12.2500,5.7085,3.1437,6.6565,2.8062,6.2335
1644.5312,3.9299,6.6192,3.5948,4.5286,2.7458,8.1958,3.9536,3.9947,4.4792,7.0067,4.6369,1.9128,5.2431,8.9420,4.6915,2.4862,4.2219,2.0154,3.9235
1648.4375,1.8818,4.6744,1.9530,3.2003,0.1329,6.7592,3.8044,3.2336,2.7140,4.7717,3.4215,2.1508,2.8199,5.5720,3.3780,1.9024,2.3233,1.5061,2.3418
1652.3438,0.4957,2.4225,0.2517,1.8139,-1.5792,5.2289,3.6223,2.1731,1.2223,2.3701,2.5021,3.2246,1.5266,2.8858,1.8313,1.5591,1.4142,1.2762,1.7150
1656.2500,0.1695,0.4319,-1.1671,0.5443,-1.9860,4.0858,3.2640,1.1100,0.2767,0.2122,1.8672,4.4868,1.3520,1.2188,0.2575,1.5479,1.5643,1.2876,1.7641
1660.1562,0.8316,-0.7330,-2.0028,-0.3207,-1.1654,3.6718,2.6809,0.4587,0.0012,-1.3426,1.3836,5.3159,1.8561,0.4854,-1.0513,1.8256,2.5054,1.4835,1.9503
1664.0625,1.9027,-0.7985,-2.1161,-0.5758,0.3341,4.0155,1.9766,0.4552,0.2826,-2.1232,0.8651,5.2684,2.4116,0.3075,-1.8696,2.2183,3.7652,1.7001,1.7622
1667.9688,2.5366,0.0144,-1.6683,-0.3624,1.6622,4.7985,1.3250,0.9200,0.7271,-2.2180,0.1326,4.0906,2.4219,0.1760,-2.1946,2.4803,4.8061,1.5548,0.8793
1671.8750,2.0543,1.0260,-1.1564,-0.2591,1.9477,5.4995,0.8273,1.2662,0.7530,-1.9372,-0.9402,1.6939,1.4606,-0.4121,-2.2840,2.3781,5.1374,0.4726,-0.8194
1675.7812,0.3398,1.4087,-1.2432,-1.0451,0.6178,5.6528,0.4380,0.7897,-0.1539,-1.6732,-2.3780,-1.7929,-0.6348,-1.8283,-2.5145,1.7757,4.4281,-2.0501,-3.2992
1679.6875,-2.0526,0.6286,-2.4142,-3.2148,-2.3379,5.0808,0.0319,-0.9015,-2.1213,-1.7156,-4.0443,-5.8899,-3.6650,-4.1730,-3.1254,0.7031,2.6373,-6.0311,-6.3509
1683.5938,-4.1712,-1.2313,-4.6362,-6.5370,-6.2690,3.9710,-0.4388,-3.5764,-4.7038,-2.1092,-5.6084,-9.6916,-6.9991,-7.1461,-4.0111,-0.6144,0.1179,-10.6967,-9.5004
1687.5000,-5.1794,-3.4674,-7.2399,-9.9771,-10.0133,2.7607,-0.8304,-6.3960,-6.9889,-2.6265,-6.6019,-12.0238,-9.6358,-10.0228,-4.7273,-1.7958,-2.4050,-14.5610,-11.9628
1691.4062,-4.8060,-5.0955,-9.1474,-12.0959,-12.2926,1.9043,-0.8454,-8.2767,-8.0003,-2.8830,-6.5954,-11.8759,-10.4865,-11.8263,-4.7447,-2.4280,-4.0533,-15.9709,-12.7899
1695.3125,-3.4572,-5.3538,-9.3621,-11.7409,-12.2288,1.6604,-0.2174,-8.4199,-7.2017,-2.5494,-5.4346,-8.9385,-8.8345,-11.6934,-3.8139,-2.2447,-4.1648,-13.9016,-11.2385
1699.2188,-1.9292,-4.0892,-7.4717,-8.6449,-9.7564,2.0101,1.0750,-6.7161,-4.8128,-1.5563,-3.4009,-3.9293,-4.7614,-9.2890,-2.2019,-1.2826,-2.6353,-8.5788,-7.2052
1703.1250,-0.9095,-1.8167,-3.8910,-3.5943,-5.7130,2.7266,2.7189,-3.8002,-1.7351,-0.1789,-1.1620,1.5448,0.7227,-5.0463,-0.6194,0.0820,-0.0252,-1.5497,-1.4641
1707.0312,-0.5866,0.5707,0.2889,1.9211,-1.5223,3.5307,4.1740,-0.7319,0.8861,1.0648,0.5064,5.5974,5.9853,-0.0740,0.1488,1.2623,2.6644,4.8901,4.4899
1710.9375,-0.6052,2.2623,3.7651,6.3615,1.4017,4.2273,4.9246,1.5169,2.2163,1.6655,1.0949,6.8580,9.4072,4.2554,-0.3058,1.7128,4.4431,8.6460,8.9699
1714.8438,-0.3701,2.8985,5.5591,8.7335,2.2435,4.7546,4.7286,2.4844,2.0866,1.3946,0.6081,5.0380,10.0336,6.8368,-1.7712,1.1745,4.7614,8.6719,10.7483
1718.7500,0.5189,2.6556,5.3677,8.8455,1.0743,5.1430,3.7251,2.3357,0.9593,0.4375,-0.4793,0.9727,7.9053,7.2206,-3.5474,-0.2205,3.6839,5.3058,9.5038
1722.6562,1.9886,2.0334,3.5910,7.1707,-1.2907,5.4317,2.3491,1.6452,-0.4354,-0.7053,-1.5424,-3.8544,3.9201,5.6822,-4.8778,-2.0435,1.7370,-0.0217,5.8537
1726.5625,3.5346,1.5020,1.0743,4.4867,-3.7571,5.6064,1.1123,1.0019,-1.5419,-1.5056,-2.2005,-8.0099,-0.6492,2.9915,-5.4036,-3.7990,-0.4310,-5.4879,1.0036
1730.4688,4.5343,1.2335,-1.2777,1.5309,-5.4629,5.5933,0.3728,0.6816,-2.2238,-1.7176,-2.5233,-10.6447,-4.6832,0.0492,-5.3427,-5.1474,-2.3415,-9.5990,-3.7563
1734.3750,4.6190,1.0670,-2.8313,-1.1711,-6.0708,5.3050,0.2045,0.5615,-2.6936,-1.5153,-2.9103,-11.6264,-7.5199,-2.4078,-5.2756,-5.9911,-3.7702,-11.6086,-7.4474
1738.2812,3.8763,0.7032,-3.3855,-3.3088,-5.7350,4.7056,0.4126,0.2967,-3.2286,-1.3637,-3.7291,-11.3052,-8.9592,-3.9350,-5.6874,-6.3997,-4.6417,-11.5393,-9.5539
1742.1875,2.7818,-0.0275,-3.1448,-4.7214,-4.8451,3.8533,0.6655,-0.3815,-3.9056,-1.7008,-4.9732,-10.1572,-9.0947,-4.3728,-6.5828,-6.4588,-4.8960,-9.9349,-9.9748
1746.0938,1.9219,-1.0137,-2.5579,-5.3610,-3.7532,2.8915,0.6686,-1.4408,-4.5460,-2.6386,-6.1946,-8.5608,-8.1694,-3.8037,-7.4462,-6.1744,-4.4764,-7.5553,-8.9142
1750.0000,1.6829,-1.9343,-2.1059,-5.2992,-2.6476,1.9858,0.2990,-2.5302,-4.8898,-3.8839,-6.7755,-6.7987,-6.5489,-2.5341,-7.5846,-5.5054,-3.4548,-5.1598,-6.8143
1753.9062,2.0756,-2.4963,-2.1140,-4.7255,-1.5934,1.2400,-0.3506,-3.1662,-4.8411,-4.9308,-6.3596,-5.1777,-4.7494,-1.0697,-6.6251,-4.4816,-2.1536,-3.3913,-4.3177
1757.8125,2.7767,-2.6620,-2.6408,-3.8884,-0.6339,0.6429,-1.0263,-2.9986,-4.5758,-5.3880,-5.1346,-4.0704,-3.3760,-0.0031,-4.8242,-3.2895,-1.0991,-2.6859,-2.1697
1761.7188,3.3490,-2.6812,-3.4680,-2.9905,0.1663,0.0943,-1.4326,-1.9957,-4.4100,-5.2049,-3.7461,-3.7724,-2.9020,0.2141,-2.9586,-2.2210,-0.7637,-3.1580,-0.9983
1765.6250,3.5171,-2.8789,-4.1889,-2.1036,0.7748,-0.4872,-1.3541,-0.4500,-4.5111,-4.6366,-2.8743,-4.2494,-3.3829,-0.4698,-1.8477,-1.4934,-1.2383,-4.4940,-1.0337
1769.5312,3.3482,-3.3301,-4.3612,-1.1684,1.2690,-1.0345,-0.7263,1.1793,-4.6708,-3.9838,-2.7481,-4.9833,-4.3167,-1.5871,-1.8110,-1.0663,-2.0786,-5.9610,-1.9281
1773.4375,3.2335,-3.6639,-3.6769,-0.0834,1.8366,-1.2816,0.3663,2.4814,-4.3362,-3.3152,-2.9352,-5.1003,-4.8092,-2.3013,-2.4216,-0.6098,-2.4790,-6.6129,-2.8373
1777.3438,3.6615,-3.1883,-2.0899,1.1786,2.6605,-0.8669,1.7429,3.2430,-2.9295,-2.4064,-2.5820,-3.7879,-4.0192,-1.8091,-2.7429,0.3084,-1.7184,-5.6689,-2.7899
1781.2500,4.8884,-1.3230,0.1362,2.5085,3.7576,0.4276,3.1799,3.4687,-0.2830,-0.9611,-0.9807,-0.7954,-1.6524,0.2038,-1.9211,1.9074,0.3814,-2.9117,-1.1863
1785.1562,6.6885,1.9005,2.4787,3.6928,4.8960,2.4299,4.4314,3.2930,3.0919,1.0378,1.8876,3.2829,1.7965,3.3205,0.2295,3.9545,3.2787,1.1058,1.8351
1789.0625,8.3554,5.6101,4.2955,4.5106,5.6693,4.5019,5.2280,2.8653,6.1080,3.1271,5.1943,7.1561,5.2199,6.5311,3.0258,5.7855,5.9457,5.1910,5.3860
1792.9688,9.0012,8.3530,5.0224,4.8265,5.7001,5.7388,5.3018,2.2812,7.5736,4.5032,7.6253,9.3903,7.4190,8.7023,5.2487,6.6181,7.3933,7.9665,8.2072
1796.8750,8.0271,8.7767,4.3754,4.6257,4.8463,5.3899,4.4769,1.5854,6.7956,4.4570,8.0785,9.1027,7.6873,9.1257,5.8292,5.9966,7.1828,8.4623,9.2572
1800.7812,5.5080,6.3782,2.4874,3.9858,3.2828,3.2862,2.8029,0.8116,3.9841,2.8351,6.2967,6.4271,6.1393,7.8392,4.4847,4.1028,5.6352,6.5665,8.2086
1804.6875,2.2503,1.8868,-0.0913,3.0231,1.4145,0.0175,0.6411,0.0082,0.2181,0.2145,3.0620,2.4884,3.6165,5.5483,1.9219,1.7282,3.6313,3.1044,5.5927
1808.5938,-0.5477,-2.9798,-2.5625,1.8578,-0.3168,-3.2743,-1.3965,-0.7772,-3.0269,-2.3471,-0.1727,-1.1171,1.2420,3.2128,-0.5180,-0.1026,2.1372,-0.5081,2.5166
1812.5000,-1.8650,-6.2923,-4.1810,0.6074,-1.6099,-5.4061,-2.6830,-1.5345,-4.5468,-3.8441,-2.0120,-3.0738,-0.1271,1.5501,-1.5707,-0.6569,1.7247,-2.8859,0.1075
1816.4062,-1.3455,-6.8160,-4.5687,-0.6093,-2.3757,-5.7014,-2.8883,-2.3043,-3.9306,-3.8229,-1.8062,-2.9421,-0.2676,0.7386,-0.7072,0.1250,2.3341,-3.2729,-1.0222
1820.3125,0.5644,-4.5675,-3.8852,-1.6861,-2.6947,-4.2843,-2.1823,-3.1406,-1.6815,-2.5593,0.0720,-1.2949,0.3810,0.4596,1.6216,1.6084,3.3685,-1.8328,-1.0121
1824.2188,2.8839,-0.7434,-2.7527,-2.5635,-2.7183,-1.9752,-1.1797,-4.0413,1.0911,-0.8448,2.4851,0.6532,1.0042,0.2059,4.2644,2.8099,4.0300,0.4965,-0.5856
1828.1250,4.5889,2.9021,-1.9530,-3.2586,-2.5848,0.1267,-0.6226,-4.8992,3.2108,0.4520,4.1509,1.7046,0.8463,-0.3632,5.9834,2.9143,3.7096,2.4903,-0.5906
1832.0312,5.0360,4.8716,-2.0501,-3.8609,-2.3819,1.1327,-0.9745,-5.5218,3.9211,0.7764,4.2705,1.2635,-0.4246,-1.2361,6.0459,1.6843,2.2531,3.2051,-1.5144
1835.9375,4.1181,4.5122,-3.1401,-4.4849,-2.1436,0.6793,-2.1719,-5.7222,3.1033,0.0465,2.8442,-0.4449,-2.5775,-2.1114,4.4992,-0.4410,0.0092,2.3474,-3.2398
1839.8438,2.1519,2.1453,-4.8589,-5.2015,-1.8548,-1.0362,-3.6913,-5.4280,1.1919,-1.4229,0.5619,-2.5902,-4.9439,-2.6267,2.0447,-2.5787,-2.3245,0.2986,-5.1559
1843.7500,-0.3367,-1.2198,-6.6196,-5.9859,-1.4598,-3.4314,-4.8850,-4.7340,-1.0903,-3.1005,-1.6029,-4.2113,-6.7273,-2.5823,-0.3420,-3.8157,-3.9783,-2.1534,-6.5272
1847.6562,-2.7632,-4.3520,-7.9127,-6.7073,-0.8881,-5.7746,-5.3567,-3.8581,-3.0028,-4.3938,-2.8342,-4.6599,-7.3477,-2.0225,-1.8041,-3.5838,-4.3964,-4.1821,-6.8863
1851.5625,-4.5264,-6.1994,-8.4795,-7.1651,-0.1079,-7.3660,-5.1285,-3.0227,-3.9569,-4.7469,-2.7278,-3.7910,-6.6674,-1.1583,-1.8375,-1.8350,-3.4328,-5.1940,-6.2248
1855.4688,-5.0442,-6.1162,-8.2829,-7.1551,0.8138,-7.6535,-4.5034,-2.3388,-3.5875,-3.7434,-1.2988,-1.8722,-5.0140,-0.2200,-0.3417,1.0161,-1.3932,-4.9219,-4.9078
1859.3750,-3.8990,-3.9518,-7.3614,-6.5453,1.6890,-6.3414,-3.7526,-1.7719,-1.7963,-1.2598,1.1573,0.6425,-3.0105,0.6416,2.4253,4.2971,1.0884,-3.3935,-3.4163
1863.2812,-1.0890,-0.0817,-5.7407,-5.3453,2.2564,-3.5261,-2.8891,-1.2164,1.1862,2.3765,4.1981,3.2835,-1.3103,1.3477,5.9038,7.3067,3.2861,-0.8859,-2.1148
1867.1875,2.7779,4.6023,-3.5118,-3.7474,2.2856,0.2015,-1.7175,-0.6306,4.7556,6.3609,7.2833,5.5960,-0.3643,1.8122,9.2998,9.4791,4.6329,2.0793,-1.1832
1871.0938,6.5525,8.8198,-1.0181,-2.1135,1.6808,3.8066,-0.1291,-0.1361,7.9960,9.6256,9.7838,7.0993,-0.3112,1.8843,11.7297,10.4669,4.8851,4.7560,-0.7030
1875.0000,8.9525,11.2259,1.0507,-0.8842,0.5239,6.0994,1.6013,-0.0016,9.9161,11.2579,11.0604,7.3240,-1.0035,1.3807,12.4850,10.1712,4.1443,6.3138,-0.7606
1878.9062,9.1512,10.8998,1.8420,-0.4146,-0.9624,6.2062,2.7964,-0.4978,9.8216,10.9299,10.6745,6.0042,-2.1141,0.2053,11.3471,8.7475,2.7527,6.1409,-1.4303
1882.8125,7.2288,7.8089,0.7965,-0.7937,-2.4965,4.0151,2.7292,-1.6948,7.6676,9.0874,8.6564,3.3428,-3.2485,-1.5257,8.7810,6.5862,1.1351,4.2019,-2.6234
1886.7188,4.2039,2.9825,-1.8696,-1.7418,-3.8104,0.3418,1.1566,-3.3216,4.1962,6.7634,5.6567,0.1418,-4.0242,-3.4489,5.8404,4.2412,-0.3304,1.2286,-3.9404
1890.6250,1.5923,-1.7774,-5.0058,-2.6689,-4.6838,-3.3297,-1.3335,-4.7904,0.7349,5.0932,2.8143,-2.3791,-4.1279,-5.0568,3.7591,2.2930,-1.3753,-1.4484,-4.7029
1894.5312,0.7096,-4.5921,-6.9060,-2.9058,-4.9574,-5.4564,-3.4620,-5.4051,-1.3037,4.7849,1.3276,-3.0690,-3.3837,-5.9020,3.3990,1.1754,-1.8511,-2.4369,-4.2339
1898.4375,2.0807,-4.3146,-6.1151,-2.0184,-4.5651,-5.1216,-3.8825,-4.6773,-1.0226,5.8200,1.9046,-1.4111,-1.8331,-5.7988,4.8399,1.0338,-1.7290,-0.9577,-2.2575
1902.3438,5.2403,-1.0601,-2.2496,-0.0478,-3.5925,-2.4563,-1.9602,-2.5997,1.5320,7.5190,4.3806,2.1541,0.2161,-4.9148,7.3429,1.6859,-1.1090,2.7005,0.8368
1906.2500,8.9850,3.8168,3.6534,2.4616,-2.3175,1.4169,1.7688,0.2703,5.3289,8.9029,7.7287,6.3593,2.2369,-3.7010,9.7156,2.7101,-0.2218,7.2249,4.0742
1910.1562,11.9072,8.3028,9.5087,4.6776,-1.1657,4.8921,5.7697,2.9846,8.7441,9.1394,10.4890,9.6528,3.6471,-2.6903,10.8806,3.6242,0.6163,10.8382,6.3183
1914.0625,12.9428,10.5928,13.1200,5.8387,-0.5526,6.5884,8.2555,4.5785,10.2344,7.8656,11.4114,10.8744,4.0354,-2.2607,10.3465,4.0694,1.1078,12.1030,6.8126
1917.9688,11.7183,9.8386,13.1891,5.5742,-0.6757,5.9190,8.0960,4.4818,9.0084,5.2799,9.9979,9.7179,3.3350,-2.4729,8.3519,3.9203,1.1009,10.5630,5.5232
1921.8750,8.6188,6.4462,9.8652,4.0300,-1.3816,3.2682,5.3775,2.7706,5.3923,2.0276,6.6881,6.7752,1.8492,-3.0553,5.6567,3.2869,0.6661,6.9055,3.0955
1925.7812,4.6147,1.8223,4.5716,1.7546,-2.2132,-0.2666,1.3038,0.1303,0.7171,-1.0284,2.6294,3.1968,0.1131,-3.5361,3.1446,2.4352,0.0686,2.5925,0.4768
1929.6875,0.9342,-2.2750,-0.7424,-0.5672,-2.6382,-3.4035,-2.4781,-2.4555,-3.2415,-3.0636,-0.8232,0.1915,-1.3242,-3.4572,1.4667,1.6787,-0.3561,-0.8163,-1.5402
1933.5938,-1.3287,-4.4689,-4.4822,-2.3814,-2.3341,-5.2071,-4.7201,-4.1401,-5.0302,-3.5210,-2.6333,-1.3841,-2.0803,-2.5724,0.8807,1.2885,-0.3538,-2.3018,-2.5891
1937.5000,-1.5788,-4.2690,-5.9690,-3.4096,-1.3556,-5.3946,-5.1115,-4.5528,-4.1505,-2.2853,-2.4222,-1.2180,-2.0079,-0.9458,1.2895,1.4279,0.1552,-1.7051,-2.7087
1941.4062,0.0503,-2.1761,-5.4736,-3.6396,-0.0799,-4.3338,-4.2568,-3.8842,-1.2653,0.2375,-0.5338,0.4666,-1.1646,1.0808,2.3747,2.1014,1.0828,0.3483,-2.1357
1945.3125,2.7079,0.6026,-3.8353,-3.2234,1.0334,-2.7988,-3.1847,-2.6941,2.1176,3.1818,2.1383,3.0274,0.2439,3.0230,3.7112,3.1160,2.2483,2.8058,-1.1137
1949.2188,5.1203,2.6741,-1.9639,-2.3688,1.7063,-1.6355,-2.7299,-1.5731,4.3325,5.4527,4.4657,5.5634,1.8913,4.4235,4.8266,4.0827,3.4552,4.6220,0.1494
1953.1250,6.0872,2.9984,-0.4938,-1.2783,1.9639,-1.4739,-3.1502,-0.8514,4.2913,6.0828,5.4419,7.1256,3.3420,4.9889,5.2512,4.5067,4.5171,5.1000,1.4068
1957.0312,4.9802,1.2603,0.3176,-0.1289,2.0489,-2.5579,-4.1368,-0.5035,1.9240,4.6031,4.5030,6.9935,4.1119,4.6545,4.6225,3.9786,5.2440,4.0658,2.3272
1960.9375,2.0096,-2.0376,0.5204,0.9441,2.2102,-4.6958,-5.1178,-0.2649,-1.8565,1.2771,1.7380,4.9728,3.8244,3.5811,2.8525,2.4087,5.4448,1.8756,2.5905
1964.8438,-1.8736,-5.7743,0.3570,1.8733,2.5241,-7.3126,-5.6105,0.1429,-5.6121,-2.9237,-2.0846,1.5748,2.4163,2.1064,0.2783,0.1781,4.9901,-0.7136,2.0938
1968.7500,-5.3945,-8.6268,0.1576,2.6730,2.8651,-9.5966,-5.4117,0.8262,-8.0099,-6.6241,-5.7249,-2.0725,0.2686,0.6722,-2.3241,-1.9172,3.9213,-2.7825,1.1039
1972.6562,-7.4845,-9.5602,0.2290,3.4034,3.0234,-10.7367,-4.5822,1.6701,-8.3257,-8.5377,-7.8856,-4.6187,-1.8643,-0.2715,-3.9418,-2.9641,2.5231,-3.5530,0.1945
1976.5625,-7.6703,-8.2156,0.7131,4.0806,2.8626,-10.2135,-3.3275,2.4195,-6.6219,-7.9621,-7.7028,-5.0504,-3.1411,-0.3847,-3.7065,-2.3611,1.2763,-2.6731,-0.0441
1980.4688,-6.1639,-5.0426,1.4638,4.5898,2.3985,-8.0432,-1.9059,2.8180,-3.5854,-5.0709,-5.1081,-3.1429,-3.0100,0.4415,-1.3061,-0.1608,0.6738,-0.3669,0.6441
1984.3750,-3.6583,-1.1096,2.0552,4.6841,1.7597,-4.8427,-0.6111,2.7198,-0.1624,-0.8629,-0.8843,0.4399,-1.4642,2.0122,2.7797,2.8797,0.9830,2.6450,2.0063
1988.2812,-0.9774,2.3422,1.9902,4.1098,1.0895,-1.6294,0.2330,2.1391,2.8168,3.2371,3.6354,4.4591,0.9727,3.8639,7.3685,5.6077,2.0963,5.4476,3.4172
1992.1875,1.2341,4.4131,1.0453,2.8092,0.4871,0.5976,0.3497,1.2484,4.8764,5.9683,7.1043,7.6618,3.5223,5.4287,10.9992,7.0071,3.5701,7.3277,4.2494
1996.0938,2.6582,4.8918,-0.4632,1.0655,0.0290,1.3086,-0.3335,0.3451,5.9491,6.7533,8.6922,9.2922,5.5200,6.2714,12.5299,6.6798,4.8465,8.0615,4.2371
2000.0000,3.2749,4.2675,-1.7088,-0.5372,-0.1725,0.6823,-1.5512,-0.2137,6.2783,5.8945,8.3680,9.3065,6.6606,6.2829,11.6416,5.0157,5.5312,7.9374,3.5972
2003.9062,3.2326,3.4039,-1.7447,-1.3641,0.0357,-0.5171,-2.7294,-0.1224,6.2388,4.3406,6.8169,8.2286,7.0033,5.7124,8.9919,2.9594,5.5659,7.5059,2.8376
2007.8125,2.7128,3.0478,-0.0628,-1.0711,0.7548,-1.3779,-3.2264,0.7275,6.1524,3.1401,5.0553,6.7860,6.7823,5.0068,5.9175,1.5073,5.1983,7.2091,2.3962
2011.7188,1.8552,3.4351,3.0153,0.1713,1.8997,-1.3505,-2.6744,2.1350,6.1570,2.8761,3.9413,5.5540,6.1917,4.5428,3.8005,1.2146,4.7849,7.1176,2.3616
2015.6250,0.7498,4.2020,6.3927,1.7313,3.1423,-0.5341,-1.2085,3.6041,6.1708,3.3967,3.8117,4.7817,5.3010,4.4148,3.4042,1.9763,4.5624,6.9317,2.4582
2019.5312,-0.5324,4.6374,8.7107,2.8453,4.0231,0.4266,0.5874,4.5305,5.9646,3.9921,4.3959,4.4300,4.1393,4.4172,4.5197,3.1763,4.5361,6.2322,2.2911
2023.4375,-1.9097,4.1209,9.0376,3.0428,4.1958,0.7668,2.0075,4.4998,5.3119,3.8996,5.0222,4.3318,2.8486,4.2333,6.1188,4.0877,4.5421,4.8107,1.6705
2027.3438,-3.2813,2.4944,7.3344,2.4077,3.6534,0.0833,2.6258,3.5315,4.1439,2.8217,4.9996,4.3422,1.7547,3.7010,6.9408,4.2773,4.4201,2.8625,0.7899
2031.2500,-4.5356,0.1693,4.4284,1.5068,2.7630,-1.4162,2.5100,2.1000,2.6304,1.1382,3.9935,4.4018,1.2679,2.9632,6.1978,3.7924,4.1584,0.9227,0.1389
2035.1562,-5.5593,-2.0686,1.5372,1.0224,2.0501,-3.0314,2.1088,0.8845,1.1413,-0.3095,2.2245,4.5128,1.6563,2.3835,4.0083,3.0534,3.9008,-0.4025,0.2050
2039.0625,-6.2313,-3.4208,-0.3492,1.3174,1.8479,-3.9585,1.8995,0.3767,0.1117,-0.7075,0.4009,4.6782,2.8356,2.2701,1.3185,2.5498,3.8080,-0.7328,1.1524
2042.9688,-6.4092,-3.3996,-0.8602,2.2100,2.0440,-3.6984,2.0531,0.5924,-0.1116,0.2823,-0.5896,4.8570,4.3220,2.5975,-0.6351,2.5342,3.8771,-0.0578,2.6746
2046.8750,-5.9325,-1.9596,-0.2268,3.1082,2.1174,-2.2471,2.3604,1.0883,0.6336,2.3833,-0.0942,4.9580,5.4010,2.9370,-1.0055,2.8841,3.8614,1.3366,4.1135
2050.7812,-4.6685,0.5807,1.0553,3.4206,1.4777,0.0041,2.4721,1.2947,2.3116,4.9182,1.9735,4.8711,5.4460,2.6797,0.2302,3.1902,3.3732,3.0784,4.7857
2054.6875,-2.6006,3.7269,2.6032,2.9823,-0.0863,2.5441,2.2704,0.9583,4.7237,7.1957,5.0476,4.5231,4.2311,1.4377,2.3135,3.0027,2.1299,4.8960,4.3480
2058.5938,0.0800,6.9780,4.3108,2.2157,-2.1402,4.9915,2.0819,0.3943,7.5377,8.8043,8.1248,3.9369,2.0894,-0.6265,4.1657,2.0951,0.2028,6.6629,3.0098
2062.5000,2.9473,9.9032,6.2365,1.9140,-3.7190,7.1692,2.5440,0.3566,10.2981,9.6606,10.1879,3.2683,-0.1655,-2.7685,4.9726,0.6127,-1.8944,8.3013,1.4782
2066.4062,5.4293,12.1449,8.3576,2.7691,-3.7961,9.0090,4.1808,1.5794,12.4589,9.8581,10.6407,2.7893,-1.5310,-3.9805,4.5598,-0.9571,-3.3564,9.6558,0.6487
2070.3125,7.0053,13.4185,10.4111,4.9332,-1.8536,10.4075,6.9634,4.2689,13.4977,9.4935,9.5429,2.7997,-1.2074,-3.4953,3.3796,-1.9707,-3.4226,10.4662,1.1811
2074.2188,7.4260,13.5610,11.9522,7.8825,1.7736,11.1758,10.1679,7.8719,13.1134,8.6233,7.5379,3.4954,1.0655,-1.1902,2.1798,-1.8840,-1.7346,10.4866,3.1680
2078.1250,6.8368,12.6140,12.5881,10.6682,5.9921,11.1323,12.6613,11.2863,11.4188,7.3522,5.5254,4.8565,4.8707,2.3375,1.5870,-0.4713,1.4686,9.6800,6.0653
2082.0312,5.7153,10.8782,12.2160,12.4077,9.4413,10.2674,13.4771,13.4022,8.9899,5.9262,4.2535,6.6284,9.2409,6.0585,1.8385,2.0763,5.4179,8.3415,8.9346
2085.9375,4.6340,8.8688,11.0984,12.7205,11.1170,8.8451,12.3413,13.6587,6.6828,4.6933,4.0344,8.4155,13.0073,8.9899,2.7593,5.2049,9.1073,7.0335,10.8771
2089.8438,3.9638,7.1606,9.7239,11.8601,10.7911,7.3438,9.8328,12.2915,5.2667,3.9230,4.6933,9.8341,15.2228,10.5949,3.9201,8.1715,11.6647,6.3293,11.4322
2093.7500,3.6836,6.1792,8.5408,10.4771,9.0179,6.2483,7.0762,10.1422,5.0564,3.6168,5.7289,10.6255,15.4689,10.9047,4.8415,10.2626,12.6256,6.4934,10.7233
2097.6562,3.4100,6.0384,7.7246,9.1805,6.7612,5.8128,5.1474,8.1664,5.7616,3.4837,6.5681,10.6632,13.9170,10.3481,5.1434,10.9804,12.0051,7.2848,9.2801
2101.5625,2.6456,6.5115,7.1135,8.1803,4.8845,5.9404,4.5376,6.9469,6.6624,3.1383,6.7847,9.8781,11.1439,9.4419,4.6268,10.1458,10.1837,8.0255,7.6662
2105.4688,1.1154,7.1571,6.3446,7.2368,3.8031,6.2648,4.9780,6.4934,7.0270,2.4052,6.2186,8.2049,7.8378,8.5528,3.3214,7.9185,7.7115,7.9335,6.1615
2109.3750,-0.9925,7.5448,5.1126,5.9425,3.4669,6.3934,5.7037,6.4118,6.5359,1.5083,4.9971,5.6441,4.5770,7.8533,1.5129,4.7607,5.1517,6.5716,4.7105
2113.2812,-3.0268,7.4685,3.4107,4.1393,3.6204,6.1681,5.9744,6.2906,5.4619,0.9852,3.4913,2.4309,1.7873,7.4371,-0.2912,1.3656,3.0127,4.1697,3.1560
2117.1875,-4.1372,7.0338,1.6149,2.1812,4.1138,5.7774,5.5256,6.0293,4.4973,1.3536,2.2161,-0.8250,-0.1647,7.4474,-1.5048,-1.4599,1.7330,1.6185,1.5665
2121.0938,-3.6920,6.5680,0.3489,0.8380,5.0224,5.6373,4.6842,5.8913,4.3278,2.7385,1.6673,-3.2038,-0.8982,8.0720,-1.7056,-2.9774,1.6381,0.0877,0.3838
2125.0000,-1.6459,6.3957,0.1733,0.8656,6.4900,6.0978,4.0981,6.2568,5.2031,4.7092,2.1150,-3.8112,-0.1008,9.3827,-0.8640,-2.7524,2.8289,0.4262,0.2377
2128.9062,1.3369,6.6091,1.2534,2.4968,8.4218,7.1580,4.2670,7.2555,6.7537,6.4517,3.4316,-2.2498,2.2371,11.1359,0.5926,-0.8641,5.0480,2.6518,1.5218
2132.8125,4.1046,6.9818,3.1933,5.1835,10.2825,8.3877,5.1824,8.5413,8.1639,7.1846,5.0760,1.0564,5.6074,12.7173,1.9664,2.0372,7.6425,5.8326,4.0236
2136.7188,5.5160,7.1009,5.1668,7.7878,11.2029,9.1394,6.3064,9.3807,8.6093,6.5790,6.3046,4.9383,9.0054,13.3387,2.6558,4.9186,9.7186,8.4802,6.8980
2140.6250,4.9964,6.6535,6.3105,9.1468,10.3893,8.9463,6.9007,9.0282,7.7185,4.9401,6.5486,7.9892,11.2770,12.4237,2.4965,6.7715,10.4757,9.2976,9.0544
2144.5312,2.8636,5.6897,6.1797,8.6909,7.6078,7.8590,6.4905,7.1685,5.8069,3.0534,5.7579,9.2528,11.6521,9.9694,1.8564,7.0623,9.5755,7.8922,9.7384
2148.4375,0.2200,4.6654,4.9934,6.7428,3.4284,6.4756,5.1610,4.1554,3.7478,1.7868,4.4819,8.6943,10.1551,6.6438,1.4037,5.9842,7.3376,5.0431,8.9376
2152.3438,-1.5833,4.1978,3.4966,4.3081,-0.9598,5.6056,3.4958,0.8894,2.5381,1.6662,3.5909,7.1632,7.6156,3.5163,1.6778,4.3445,4.6240,2.3276,7.3401
2156.2500,-1.6529,4.6619,2.5040,2.4844,-4.2858,5.7507,2.2006,-1.6052,2.7832,2.6388,3.7708,5.8655,5.2331,1.5420,2.7333,3.1260,2.4457,1.2812,5.8761
2160.1562,-0.0435,5.8913,2.4075,1.8565,-5.7816,6.7451,1.6703,-2.6636,4.3757,4.1310,5.0988,5.6682,3.9379,1.0882,4.0944,2.9625,1.4909,2.5532,5.1481
2164.0625,2.2714,7.2149,2.9746,2.2509,-5.4692,7.8218,1.7906,-2.2480,6.5512,5.3586,6.9853,6.6602,3.9303,1.7833,5.0636,3.8340,1.8335,5.5538,5.1307
2167.9688,3.9594,7.8454,3.5790,2.9820,-3.9967,8.1015,2.1024,-0.8648,8.3005,5.7264,8.5407,8.2136,4.6728,2.7848,5.1905,5.1565,2.9753,8.8071,5.3187
2171.8750,4.1005,7.3859,3.6988,3.3929,-2.1591,7.1970,2.1966,0.7831,8.9121,5.1197,9.1328,9.4567,5.3171,3.3000,4.5912,6.1946,4.1796,10.7983,5.1867
2175.7812,2.6981,6.1044,3.3122,3.3017,-0.4389,5.5155,2.0405,2.1689,8.3304,3.9380,8.7570,9.8114,5.2691,3.0354,3.8908,6.5155,4.8833,10.7980,4.6055
2179.6875,0.6010,4.7596,2.8791,3.0443,1.1307,4.0168,1.9803,3.1071,7.1106,2.8497,7.9547,9.2413,4.5218,2.2947,3.8051,6.1903,4.9402,9.1630,3.9092
2183.5938,-1.1107,4.0657,2.9049,3.1029,2.7219,3.5581,2.4079,3.6460,5.9948,2.3934,7.3334,8.0918,3.5585,1.6773,4.6183,5.6275,4.5731,6.9588,3.5765
2187.5000,-1.8623,4.1603,3.4114,3.6140,4.3090,4.2631,3.3397,3.8213,5.3797,2.6446,7.0392,6.7054,2.9299,1.5914,5.9035,5.1841,4.1039,5.1885,3.7788
2191.4062,-1.9351,4.4641,3.7536,4.1432,5.4432,5.3699,4.2458,3.4983,5.0355,3.1544,6.5863,5.1381,2.8187,1.9181,6.6926,4.8517,3.6684,4.1625,4.1509
2195.3125,-2.1870,4.0673,2.9868,3.9193,5.4138,5.6961,4.3047,2.4458,4.2828,3.2203,5.2072,3.1941,2.8938,2.0578,6.0248,4.2501,3.1153,3.4181,3.9756
2199.2188,-3.3448,2.3962,0.5787,2.3815,3.7121,4.4308,2.9485,0.5896,2.5254,2.3446,2.4981,0.7261,2.5377,1.3297,3.5524,2.9346,2.1479,2.2058,2.6658
2203.1250,-5.3874,-0.3125,-3.0436,-0.3493,0.4794,1.7111,0.3267,-1.7658,-0.2263,0.5990,-1.1089,-2.0683,1.2740,-0.5460,-0.1739,0.7889,0.5968,0.1557,0.2079
2207.0312,-7.4872,-3.0906,-6.5587,-3.4294,-3.3992,-1.4276,-2.6587,-3.9555,-3.2304,-1.3614,-4.4342,-4.6241,-0.8987,-3.2066,-3.9385,-1.7882,-1.3772,-2.3713,-2.7519
2210.9375,-8.5757,-4.8535,-8.4698,-5.7368,-6.6627,-3.7103,-4.8181,-5.2535,-5.4210,-2.6807,-6.2113,-6.3133,-3.4798,-5.8107,-6.4963,-4.0511,-3.2982,-4.5033,-5.2459
2214.8438,-8.1366,-5.1367,-8.0448,-6.5194,-8.3058,-4.4441,-5.3618,-5.2765,-6.1048,-2.8616,-5.9122,-6.8626,-5.7421,-7.5015,-7.2448,-5.3284,-4.6113,-5.4772,-6.5265
2218.7500,-6.6430,-4.4314,-5.8457,-5.8174,-8.0916,-3.9384,-4.3675,-4.2227,-5.4724,-2.1378,-4.1766,-6.5697,-7.1213,-7.8755,-6.5344,-5.4171,-4.9955,-5.2012,-6.4567
2222.6562,-5.2975,-3.8641,-3.4613,-4.3906,-6.6372,-3.2396,-2.7208,-2.7723,-4.5448,-1.3865,-2.5165,-6.1366,-7.4850,-7.1758,-5.4308,-4.6935,-4.5637,-4.3462,-5.5175
2226.5625,-5.2341,-4.4273,-2.5830,-3.2203,-5.0356,-3.3803,-1.5741,-1.7043,-4.5505,-1.5997,-2.4414,-6.2255,-7.1540,-6.1176,-5.0763,-3.8786,-3.8291,-3.9043,-4.4662
2230.4688,-6.7393,-6.2973,-4.0116,-2.9402,-4.2598,-4.6778,-1.6810,-1.4800,-6.1303,-3.2384,-4.5493,-7.0493,-6.7069,-5.4831,-6.0351,-3.6273,-3.4587,-4.5348,-3.9041
2234.3750,-9.0487,-8.7227,-7.2285,-3.5656,-4.7033,-6.5679,-3.0305,-2.0563,-8.9087,-5.8916,-8.1679,-8.2948,-6.7045,-5.7402,-8.0103,-4.2089,-3.9501,-6.1631,-4.0331
2238.2812,-10.8683,-10.5625,-10.7820,-4.6563,-6.0900,-8.0641,-4.9755,-3.0277,-11.7310,-8.4845,-11.7755,-9.4273,-7.4683,-6.8778,-10.0816,-5.4610,-5.3979,-8.1000,-4.7112
2242.1875,-11.2556,-11.0924,-13.1971,-5.7315,-7.7383,-8.4856,-6.7130,-3.9613,-13.4123,-9.9174,-13.9262,-10.1450,-8.9803,-8.4875,-11.2936,-6.9958,-7.4561,-9.5644,-5.6871
2246.0938,-10.2469,-10.5024,-13.7973,-6.6060,-8.9639,-7.9230,-7.7594,-4.6763,-13.4876,-9.7338,-14.0798,-10.6304,-10.9006,-9.9817,-11.2152,-8.4726,-9.4947,-10.2125,-6.7945
2250.0000,-8.8061,-9.7352,-12.9373,-7.4155,-9.3780,-7.1237,-8.1211,-5.2834,-12.4557,-8.3862,-12.8204,-11.3950,-12.6752,-10.8058,-10.1361,-9.7382,-10.8630,-10.2952,-7.9615
2253.9062,-8.1590,-9.7865,-11.5824,-8.3681,-8.9626,-6.9101,-8.1175,-6.0003,-11.3692,-6.9378,-11.3642,-12.8165,-13.7104,-10.5796,-8.8131,-10.7628,-11.1385,-10.3605,-9.0799
2257.8125,-8.9920,-10.9687,-10.6056,-9.4667,-7.9713,-7.5739,-8.0611,-6.9204,-11.0779,-6.3985,-10.7238,-14.7108,-13.5853,-9.1831,-7.9676,-11.4727,-10.2692,-10.7572,-9.9094
2261.7188,-11.0518,-12.6563,-10.3036,-10.4478,-6.7813,-8.6769,-8.0595,-7.9268,-11.6619,-7.1234,-11.0898,-16.2771,-12.2427,-6.8197,-7.8681,-11.6523,-8.5694,-11.3242,-10.1558
2265.6250,-13.3647,-13.6806,-10.4011,-10.9828,-5.7830,-9.3716,-8.0543,-8.8015,-12.4293,-8.6344,-11.8050,-16.5026,-10.0642,-4.0348,-8.2451,-11.0255,-6.5868,-11.4908,-9.6973
2269.5312,-14.8512,-13.0801,-10.4247,-10.9573,-5.3029,-8.9757,-7.9896,-9.4117,-12.4367,-9.9336,-11.8825,-14.7825,-7.7562,-1.6147,-8.5381,-9.4677,-4.8949,-10.6914,-8.7723
2273.4375,-14.8822,-10.6829,-10.0847,-10.5774,-5.5102,-7.3773,-7.9086,-9.7952,-11.1252,-10.0672,-10.6670,-11.3443,-6.0546,-0.3226,-8.2613,-7.1826,-3.8826,-8.7714,-7.9250
2277.3438,-13.4422,-7.1406,-9.3706,-10.1891,-6.2980,-5.0074,-7.8647,-10.0642,-8.6182,-8.5792,-8.1877,-7.1765,-5.3713,-0.5413,-7.2293,-4.6849,-3.6121,-6.0845,-7.6740
2281.2500,-10.9058,-3.4385,-8.3496,-9.9413,-7.2158,-2.4548,-7.7322,-10.2104,-5.5136,-5.6216,-5.0119,-3.4861,-5.5679,-2.0070,-5.5270,-2.5614,-3.7972,-3.2294,-8.0949
2285.1562,-7.7100,-0.2658,-6.9169,-9.5637,-7.5588,-0.0482,-7.1196,-9.9938,-2.3886,-1.7474,-1.7794,-1.0238,-5.9989,-3.8311,-3.3146,-1.1480,-3.9195,-0.6447,-8.6197
2289.0625,-4.2097,2.3069,-4.7710,-8.4639,-6.6460,2.2810,-5.5304,-9.0379,0.5653,2.3978,1.2028,0.2936,-5.8263,-4.8669,-0.6748,-0.3358,-3.4471,1.6265,-8.2568
2292.9688,-0.7755,4.6532,-1.6781,-6.1176,-4.1820,4.7857,-2.7109,-7.0922,3.5018,6.2662,4.0118,1.2272,-4.4552,-4.2663,2.3527,0.3533,-2.0759,3.8351,-6.1613
2296.8750,2.0631,7.1030,2.1781,-2.4989,-0.4998,7.5421,1.0487,-4.2773,6.5406,9.4178,6.8110,2.6386,-1.8612,-1.9288,5.5860,1.4507,0.1087,6.1849,-2.2317
2300.7812,3.6683,9.5374,6.0627,1.7493,3.4879,10.2420,4.9029,-1.1253,9.4001,11.4574,9.4806,4.8744,1.3636,1.4223,8.5538,3.1797,2.6353,8.5250,2.6567
2304.6875,3.5940,11.3765,8.9315,5.5407,6.6481,12.3044,7.7878,1.6375,11.3836,12.0548,11.5043,7.5101,4.2721,4.5973,10.5725,5.2820,4.8310,10.3229,6.9727
2308.5938,1.9332,11.9625,9.9347,7.8506,8.1281,13.2251,8.9283,3.4347,11.7831,11.0987,12.2368,9.6127,5.9986,6.5410,11.0709,7.1545,6.1220,10.9530,9.2657
2312.5000,-0.5838,11.0569,8.8732,8.2058,7.7395,12.9145,8.2179,4.1011,10.4231,8.8820,11.3785,10.3416,6.1534,6.8469,9.9795,8.2210,6.3177,10.1106,8.9083
2316.4062,-2.8817,9.0921,6.3241,6.8900,6.0270,11.7938,6.2519,3.9146,7.9356,6.1401,9.3117,9.4975,4.9916,5.9162,7.9083,8.3075,5.7330,8.0730,6.4215
2320.3125,-4.0765,7.0029,3.3666,4.7721,3.9997,10.5987,4.0180,3.4080,5.5281,3.8408,7.0273,7.6713,3.2865,4.6993,5.9419,7.7771,5.0689,5.6309,3.1944
2324.2188,-3.9108,5.7479,1.0846,2.8835,2.6788,10.0264,2.4417,3.1018,4.3598,2.7916,5.6462,5.9069,1.9764,4.1890,5.1213,7.3293,5.0848,3.7265,0.7654
2328.1250,-2.8072,5.8260,0.1297,1.9800,2.6881,10.4359,2.0416,3.3136,4.9160,3.2741,5.8164,5.0970,1.7509,4.9432,5.8956,7.5757,6.2130,3.0081,0.0745
2332.0312,-1.5177,7.0742,0.5516,2.2896,4.0622,11.7476,2.8351,4.1094,6.7779,4.9212,7.3638,5.4894,2.7587,6.8661,7.8755,8.6582,8.3128,3.5480,1.0940
2335.9375,-0.6215,8.8373,1.9162,3.5153,6.3122,13.5469,4.4702,5.3564,8.9214,6.9200,9.4160,6.5984,4.5658,9.3119,10.0507,10.1523,10.7090,4.8588,2.9976
2339.8438,-0.2015,10.3720,3.5833,5.0340,8.6703,15.2986,6.4465,6.7952,10.3409,8.4352,10.9279,7.5554,6.3748,11.4124,11.3606,11.3248,12.5121,6.1739,4.7150
2343.7500,0.1230,11.2324,4.9780,6.1705,10.3850,16.5583,8.2967,8.0873,10.6034,9.0223,11.2850,7.6663,7.4036,12.4492,11.2917,11.5898,13.0607,6.8276,5.5146
2347.6562,0.8884,11.4324,5.7576,6.4400,10.9572,17.1070,9.6798,8.8616,10.0104,8.8162,10.6224,6.8272,7.2394,12.1092,10.1575,10.8724,12.2451,6.5399,5.2904
2351.5625,2.4464,11.3356,5.8609,5.6919,10.2629,16.9897,10.4106,8.8039,9.3146,8.4046,9.6790,5.5553,5.9987,10.5450,8.9006,9.6486,10.5288,5.4860,4.4462
2355.4688,4.8059,11.3820,5.4749,4.1354,8.5525,16.4622,10.4703,7.7867,9.2052,8.4728,9.2928,4.6362,4.2187,8.2553,8.5313,8.6320,8.6553,4.1445,3.5229
2359.3750,7.7004,11.8230,4.9494,2.2500,6.3439,15.8678,10.0019,5.9739,9.8909,9.4124,9.8574,4.6198,2.5490,5.8585,9.5251,8.3110,7.2194,3.0291,2.8477
2363.2812,10.7686,12.6045,4.6696,0.6130,4.2433,15.4800,9.2724,3.8139,11.0110,11.1006,11.0687,5.4791,1.4244,3.8593,11.5183,8.6352,6.3609,2.4487,2.4205
2367.1875,13.6960,13.4306,4.9102,-0.2978,2.7454,15.3754,8.5831,1.8909,11.8866,12.9577,12.1056,6.6286,0.9005,2.4950,13.4703,9.0530,5.7662,2.4155,2.0618
2371.0938,16.2561,13.9416,5.7147,-0.2576,2.0802,15.4016,8.1549,0.6932,11.9305,14.2459,12.1244,7.2771,0.7311,1.7076,14.1997,8.8729,4.9576,2.7239,1.6621
2375.0000,18.2870,13.8905,6.8561,0.6509,2.1605,15.2652,8.0374,0.4165,10.9664,14.4513,10.7620,6.8870,0.6052,1.2377,12.9999,7.7074,3.6676,3.1288,1.3205
2378.9062,19.6793,13.2243,7.9077,2.0881,2.6509,14.6927,8.0899,0.8999,9.2894,13.5452,8.3505,5.4624,0.3665,0.7799,10.0041,5.7128,2.0365,3.4910,1.2614
2382.8125,20.3967,12.0446,8.3985,3.5784,3.1211,13.5705,8.0397,1.7147,7.4625,11.9842,5.7266,3.5097,0.0636,0.1222,6.1119,3.4804,0.5016,3.7912,1.5973
2386.7188,20.4951,10.5039,7.9864,4.6493,3.2149,11.9833,7.5930,2.3512,5.9902,10.4485,3.7654,1.7171,-0.1844,-0.7913,2.5341,1.6667,-0.5379,4.0157,2.1311
2390.6250,20.0966,8.7271,6.5840,4.9524,2.7676,10.1455,6.5555,2.4154,5.0645,9.4659,2.9236,0.5671,-0.3740,-1.8780,0.2126,0.6175,-1.0309,4.0228,2.3724
2394.5312,19.3321,6.8212,4.4014,4.3575,1.8367,8.2958,4.9319,1.7718,4.5258,9.1387,3.0575,0.1164,-0.6835,-2.9765,-0.5717,0.2242,-1.3275,3.5283,1.7990
2398.4375,18.3110,4.9560,1.9055,3.0119,0.6556,6.6329,2.9710,0.6003,4.0428,9.1363,3.5974,0.0540,-1.3407,-3.8981,-0.2142,0.0780,-1.9222,2.2696,0.2119
2402.3438,17.1555,3.4231,-0.2943,1.3378,-0.4614,5.3189,1.1251,-0.6492,3.3834,8.9498,3.9406,-0.0358,-2.3832,-4.4562,0.5421,-0.2167,-3.0623,0.2573,-2.0503
2406.2500,16.0579,2.5745,-1.6219,-0.0751,-1.2325,4.4917,-0.0961,-1.4109,2.5903,8.2420,3.7960,-0.3984,-3.5113,-4.4980,1.0515,-0.8014,-4.5069,-2.0763,-4.2036
2410.1562,15.2664,2.6221,-1.7453,-0.6911,-1.5132,4.2193,-0.3523,-1.2468,1.9344,7.0543,3.2681,-1.0022,-4.1844,-3.9680,1.0552,-1.5470,-5.6239,-3.9933,-5.3984
2414.0625,14.9454,3.4059,-0.7545,-0.2979,-1.3681,4.3887,0.3172,-0.1015,1.6696,5.7317,2.6548,-1.6456,-3.9446,-2.9929,0.6676,-2.2356,-5.7843,-4.8213,-5.1838
2417.9688,14.9792,4.3119,0.7956,0.8136,-1.0714,4.6240,1.4309,1.5682,1.7581,4.6196,2.1300,-2.1730,-2.7628,-1.9214,0.1216,-2.7720,-4.7968,-4.3771,-3.7859
2421.8750,14.8900,4.4708,2.0509,1.8970,-1.0129,4.3575,2.2375,2.9101,1.7809,3.7570,1.5578,-2.6221,-1.1593,-1.2471,-0.5070,-3.2519,-3.0877,-3.1599,-2.0302
2425.7812,14.0127,3.1949,2.2105,2.0573,-1.5236,3.0921,2.0784,3.0471,1.1384,2.8072,0.5833,-3.1881,0.0189,-1.3997,-1.3759,-3.8400,-1.4921,-2.1468,-0.9390
2429.6875,11.8931,0.4282,0.9156,0.6949,-2.6900,0.7375,0.7550,1.5456,-0.5494,1.3059,-1.0556,-4.0306,0.0541,-2.4974,-2.6946,-4.5716,-0.7813,-2.2700,-1.2205
2433.5938,8.6801,-3.0821,-1.5367,-2.1459,-4.2605,-2.2026,-1.3230,-1.2831,-3.0959,-0.9266,-3.2179,-5.0726,-1.2278,-4.2114,-4.4238,-5.2482,-1.2220,-3.8735,-2.9247
2437.5000,5.2212,-6.0541,-4.2990,-5.7289,-5.7173,-4.7671,-3.3260,-4.4554,-5.7052,-3.4980,-5.2844,-5.9530,-3.3450,-5.8581,-6.1024,-5.5302,-2.4424,-6.4785,-5.4383
2441.4062,2.7286,-7.2792,-6.3666,-8.9280,-6.5051,-5.9791,-4.4388,-6.7689,-7.3074,-5.5147,-6.4005,-6.1895,-5.4178,-6.7058,-6.9716,-5.1692,-3.6774,-9.0064,-7.8039
2445.3125,2.1623,-6.2427,-7.0500,-10.7269,-6.3062,-5.3602,-4.2850,-7.4000,-7.1003,-6.0112,-5.9077,-5.4621,-6.6357,-6.3409,-6.3602,-4.2160,-4.2224,-10.3266,-9.1736
2449.2188,3.6963,-3.3955,-6.2626,-10.6544,-5.2132,-3.2055,-3.0849,-6.3049,-4.9763,-4.4943,-3.7055,-3.8327,-6.6485,-4.8854,-4.1035,-3.0464,-3.8116,-9.8073,-9.1622
2453.1250,6.6007,0.0911,-4.4717,-8.9339,-3.6968,-0.4396,-1.4597,-4.1874,-1.5790,-1.2724,-0.3297,-1.7533,-5.6679,-2.9381,-0.7211,-2.1734,-2.7038,-7.5670,-7.9398
2457.0312,9.6239,2.9401,-2.3709,-6.2974,-2.3770,1.8680,-0.0305,-2.0641,2.0365,2.6349,3.2902,0.1529,-4.2566,-1.2723,2.7761,-1.9596,-1.4596,-4.3305,-6.0601
2460.9375,11.6327,4.3896,-0.4982,-3.5987,-1.7215,3.0338,0.9164,-0.7011,4.9150,5.9500,6.2358,1.4075,-2.9724,-0.4646,5.3492,-2.4108,-0.5836,-1.0297,-4.1500
2464.8438,12.1201,4.4667,0.9678,-1.4445,-1.8284,3.0258,1.4920,-0.2624,6.5716,7.6838,7.9347,1.8993,-2.0918,-0.6524,6.3965,-3.1741,-0.2593,1.5904,-2.6290
2468.7500,11.2994,3.7961,2.1413,-0.0188,-2.3999,2.3327,1.9935,-0.3513,7.0331,7.4789,8.2666,1.8885,-1.5464,-1.5236,5.9613,-3.7339,-0.3155,3.1697,-1.5807
2472.6562,9.7930,3.1181,3.1913,0.8629,-2.9007,1.5669,2.6116,-0.3656,6.6032,5.6117,7.4513,1.8054,-1.0559,-2.4996,4.5952,-3.6806,-0.3992,3.7083,-0.7979
2476.5625,8.1801,2.8473,4.1344,1.5543,-2.8050,1.0828,3.2815,0.0997,5.5810,2.7363,5.8557,1.9831,-0.3299,-2.9809,3.0035,-2.8999,-0.2086,3.4355,0.0568
2480.4688,6.7131,2.9319,4.8056,2.3667,-1.8070,0.8448,3.7697,1.0577,4.1500,-0.4224,3.8687,2.4899,0.7904,-2.5376,1.7067,-1.5938,0.3614,2.6973,1.2687
2484.3750,5.3421,3.0422,5.0096,3.4417,0.0834,0.5828,3.8999,2.2224,2.4807,-3.2539,1.8887,3.1500,2.3006,-0.9979,0.9038,-0.1466,1.2270,1.9054,2.9440
2488.2812,3.9483,2.8980,4.7142,4.7329,2.5721,0.0757,3.7185,3.2668,0.8951,-5.3017,0.3527,3.7162,4.0797,1.5360,0.5551,1.0738,2.2282,1.4904,4.9747
2492.1875,2.5588,2.4851,4.1326,6.0685,5.1949,-0.6577,3.4711,4.0371,-0.1119,-6.2520,-0.3031,4.0635,5.9505,4.7078,0.5621,1.8748,3.2480,1.7971,7.0881
2496.0938,1.3808,2.0335,3.6302,7.2466,7.4631,-1.3784,3.4170,4.5931,-0.0750,-5.9715,0.2053,4.2770,7.7186,7.9615,0.8837,2.2956,4.2570,2.9315,8.9492
2500.0000,0.6630,1.8189,3.5267,8.1269,8.9995,-1.8077,3.6430,5.0965,1.1364,-4.5956,1.8240,4.5829,9.1943,10.6596,1.5190,2.5525,5.2721,4.6584,10.2747
2503.9062,0.5283,1.9683,3.9324,8.6909,9.6427,-1.8131,4.0235,5.6760,3.1437,-2.5682,4.0824,5.1803,10.2188,12.2711,2.4086,2.9125,6.2779,6.4546,10.9157
2507.8125,0.9151,2.4117,4.7190,9.0483,9.4934,-1.4654,4.3502,6.3808,5.1802,-0.5337,6.2233,6.0873,10.6971,12.5727,3.3728,3.5538,7.1765,7.7350,10.8873
2511.7188,1.6452,2.9871,5.6272,9.3834,8.8846,-0.9530,4.5146,7.2288,6.4660,0.9140,7.5113,7.0997,10.6212,11.7566,4.1616,4.4717,7.8038,8.1401,10.3428
2515.6250,2.5283,3.5831,6.4217,9.8558,8.2673,-0.4464,4.5888,8.2618,6.6114,1.4921,7.5688,7.8884,10.0669,10.3659,4.5945,5.4734,8.0089,7.7172,9.5149
2519.5312,3.4027,4.1890,6.9879,10.5032,8.0464,-0.0241,4.7426,9.5196,5.7961,1.3324,6.5516,8.1766,9.1727,9.0702,4.6838,6.2681,7.7527,6.8789,8.6553
2523.4375,4.1066,4.8213,7.3250,11.2015,8.4296,0.3008,5.0684,10.9351,4.6204,0.8538,5.0667,7.8999,8.1238,8.3964,4.6445,6.6156,7.1714,6.1681,7.9942
2527.3438,4.4626,5.4115,7.4672,11.7116,9.3622,0.5078,5.4627,12.2444,3.7428,0.4923,3.8759,7.2635,7.1539,8.5596,4.7693,6.4587,6.5608,5.9748,7.7148
2531.2500,4.3527,5.7772,7.4117,11.7944,10.5756,0.5364,5.6643,13.0236,3.5424,0.4727,3.5462,6.6684,6.5405,9.4669,5.2453,5.9609,6.2715,6.3741,7.9285
2535.1562,3.8587,5.7268,7.1133,11.3359,11.7227,0.3342,5.4312,12.8780,3.9996,0.7657,4.2207,6.5401,6.5535,10.8550,6.0272,5.4197,6.5499,7.1633,8.6384
2539.0625,3.3320,5.2277,6.5489,10.4156,12.5213,-0.0604,4.7311,11.6852,4.8194,1.2239,5.6040,7.1325,7.3432,12.4372,6.8436,5.0936,7.3977,8.0407,9.7054
2542.9688,3.2676,4.4956,5.7965,9.2852,12.8326,-0.4881,3.8139,9.7332,5.6606,1.7561,7.1345,8.3910,8.8136,13.9588,7.3294,5.0456,8.5311,8.7859,10.8516
2546.8750,3.9930,3.9082,5.0594,8.2701,12.6440,-0.7421,3.1129,7.6424,6.2946,2.3781,8.2331,9.9298,10.5715,15.1532,7.2070,5.1018,9.4824,9.3239,11.7249
2550.7812,5.3633,3.7739,4.5936,7.6376,11.9893,-0.7116,3.0293,6.0906,6.6113,3.1042,8.5099,11.1458,12.0220,15.6890,6.4190,4.9631,9.8149,9.6520,12.0155
2554.6875,6.7061,4.1049,4.5640,7.4837,10.8750,-0.4901,3.7169,5.4868,6.5302,3.7925,7.8610,11.4353,12.5968,15.2105,5.1556,4.4110,9.3474,9.7150,11.5710
2558.5938,7.1317,4.5635,4.9109,7.6799,9.2688,-0.3542,4.9714,5.7763,5.9445,4.1175,6.4564,10.4473,12.0072,13.4980,3.7754,3.4869,8.2630,9.3502,10.4469
2562.5000,6.0659,4.6429,5.3203,7.9052,7.1646,-0.6056,6.2732,6.4835,4.7781,3.7445,4.6582,8.2726,10.3813,10.6616,2.6657,2.5324,7.0319,8.3679,8.8671
2566.4062,3.6753,3.9873,5.3517,7.7703,4.6799,-1.3665,6.9680,6.9652,3.1203,2.6045,2.9128,5.4840,8.2069,7.2291,2.1043,2.0582,6.1817,6.7323,7.1234
2570.3125,0.8757,2.6472,4.6805,7.0013,2.1185,-2.4678,6.5225,6.7342,1.3117,1.0526,1.6392,2.9802,6.1156,4.0338,2.1716,2.5052,6.0401,4.7208,5.4854
2574.2188,-1.1338,1.0954,3.3272,5.6136,-0.0588,-3.5159,4.7666,5.6848,-0.1274,-0.2536,1.1221,1.6687,4.6369,1.9304,2.7403,4.0189,6.5954,2.9320,4.1726
2578.1250,-1.5529,-0.0281,1.7195,3.9739,-1.3656,-4.1130,2.0168,4.1120,-0.7246,-0.7221,1.4236,2.0980,4.0487,1.4714,3.5406,6.3509,7.5445,2.0861,3.3821
2582.0312,-0.4609,-0.2985,0.5075,2.6796,-1.4796,-4.1002,-0.9955,2.5340,-0.3168,-0.2107,2.3431,4.1939,4.3662,2.7024,4.2747,8.9281,8.4840,2.6859,3.3072
2585.9375,1.2137,0.2195,0.2039,2.2738,-0.4085,-3.6700,-3.3982,1.4203,0.8226,0.8454,3.4573,7.2323,5.4190,5.1632,4.7328,11.0535,9.1163,4.7060,4.0834
2589.8438,2.2249,0.9840,0.8513,2.9275,1.4569,-3.2673,-4.5546,0.9728,2.0874,1.6733,4.2524,10.0873,6.9245,8.0706,4.8612,12.1504,9.3504,7.4935,5.6616
2593.7500,1.7173,1.2841,1.9398,4.2778,3.4460,-3.3300,-4.3548,1.0663,2.8306,1.6303,4.3146,11.6696,8.5161,10.5831,4.7501,11.9548,9.2617,9.9773,7.6947
2597.6562,-0.3200,0.6666,2.6695,5.5544,4.8466,-4.0195,-3.2536,1.3649,2.6838,0.5932,3.5059,11.3699,9.7611,12.0363,4.5507,10.5955,8.9737,11.1220,9.5532
2601.5625,-3.1088,-0.7752,2.4305,5.9605,5.1803,-5.1087,-2.0104,1.5360,1.7260,-0.9889,2.0372,9.3077,10.2350,12.0865,4.3683,8.5403,8.5645,10.4176,10.5264
2605.4688,-5.5774,-2.4338,1.2102,5.1101,4.3872,-6.1012,-1.2728,1.4300,0.4118,-2.4045,0.3915,6.2657,9.6695,10.7532,4.1914,6.4312,8.0576,8.1472,10.1415
2609.3750,-6.9650,-3.5341,-0.3511,3.2547,2.8234,-6.5237,-1.2523,1.1208,-0.6907,-3.1321,-0.8839,3.3376,8.1058,8.3775,3.8989,4.8594,7.4744,5.2687,8.4232
2613.2812,-7.1707,-3.5964,-1.3293,1.1466,1.0642,-6.2201,-1.6959,0.7887,-1.1972,-3.1246,-1.4223,1.4535,5.9319,5.5120,3.3379,4.1573,6.8727,2.9483,5.9218
2617.1875,-6.6828,-2.7410,-1.1091,-0.3976,-0.3889,-5.4776,-2.1622,0.5285,-1.0792,-2.7547,-1.2019,1.0047,3.7348,2.7594,2.4244,4.2801,6.3151,1.9769,3.4563
2621.0938,-6.2003,-1.6528,0.1665,-0.9793,-1.3437,-4.9018,-2.4058,0.2203,-0.6331,-2.4945,-0.5449,1.7327,2.0199,0.5936,1.2057,4.8314,5.7892,2.3789,1.6944
2625.0000,-6.2296,-1.2198,1.5860,-0.8535,-1.9697,-5.1073,-2.5965,-0.4420,-0.2917,-2.5874,0.0459,2.9090,0.9578,-0.7789,-0.1522,5.2309,5.1590,3.4250,0.8037
2628.9062,-6.8979,-2.0543,1.9310,-0.7773,-2.6497,-6.3907,-3.2134,-1.7709,-0.4044,-2.9466,0.1258,3.6942,0.3184,-1.4566,-1.4410,4.9603,4.2184,4.0357,0.3811
2632.8125,-8.0315,-4.1659,0.3464,-1.5703,-3.7260,-8.5611,-4.6869,-3.8678,-1.1047,-3.3219,-0.5014,3.4882,-0.3620,-1.7568,-2.5042,3.7848,2.8348,3.3509,-0.2964
2636.7188,-9.3608,-6.9588,-3.1684,-3.6500,-5.2986,-11.0086,-7.0385,-6.5121,-2.3088,-3.5625,-1.7288,2.1208,-1.4902,-2.0494,-3.2941,1.8485,1.0843,1.1572,-1.8450
2640.6250,-10.6580,-9.5325,-7.7195,-6.8064,-7.1883,-12.9642,-9.7674,-9.2344,-3.7971,-3.7396,-3.2317,-0.1663,-3.1915,-2.6004,-3.8614,-0.3962,-0.7421,-2.0373,-4.4203
2644.5312,-11.7216,-11.0997,-11.9287,-10.3154,-9.0675,-13.8097,-12.0633,-11.5275,-5.2961,-4.0282,-4.6226,-2.8844,-5.2861,-3.5064,-4.2901,-2.3919,-2.2949,-5.2822,-7.6335
2648.4375,-12.2881,-11.2947,-14.5402,-13.2887,-10.6568,-13.2953,-13.2030,-13.0622,-6.5137,-4.4567,-5.5828,-5.4944,-7.4523,-4.7364,-4.6205,-3.7112,-3.3998,-7.6326,-10.7632
2652.3438,-12.0257,-10.2421,-14.8994,-15.0451,-11.8522,-11.5926,-12.8831,-13.7765,-7.1502,-4.7645,-5.9228,-7.5456,-9.4304,-6.2254,-4.8095,-4.2163,-4.1982,-8.5256,-13.1168
2656.2500,-10.7004,-8.4101,-13.1054,-15.3181,-12.7074,-9.1995,-11.3092,-13.8058,-6.9501,-4.5264,-5.5833,-8.7303,-11.1081,-7.9315,-4.7554,-4.0729,-5.0690,-7.9241,-14.3231
2660.1562,-8.4310,-6.3794,-9.8453,-14.2467,-13.3050,-6.7676,-9.0344,-13.3287,-5.8247,-3.4880,-4.6268,-8.8884,-12.4350,-9.8056,-4.3733,-3.6243,-6.3509,-6.2231,-14.4040
2664.0625,-5.8280,-4.6600,-6.0717,-12.2210,-13.6273,-4.9183,-6.6913,-12.4548,-3.9862,-1.8580,-3.2419,-8.0031,-13.2669,-11.7065,-3.6754,-3.2001,-8.0352,-4.0236,-13.6325
2667.9688,-3.8395,-3.6028,-2.6964,-9.7060,-13.5301,-4.0808,-4.7805,-11.2287,-1.9742,-0.3016,-1.7404,-6.2050,-13.3057,-13.3478,-2.8039,-2.9561,-9.6534,-1.9047,-12.3106
2671.8750,-3.3119,-3.3690,-0.3871,-7.1286,-12.8491,-4.3672,-3.5887,-9.7260,-0.4816,0.4214,-0.4950,-3.7642,-12.2329,-14.3589,-1.9862,-2.8267,-10.4770,-0.2683,-10.6328
2675.7812,-4.4902,-3.9009,0.5306,-4.8408,-11.5647,-5.5096,-3.1984,-8.1430,-0.0176,-0.0405,0.1976,-1.0494,-9.9769,-14.4610,-1.4318,-2.6054,-9.9474,0.7293,-8.7120
2679.6875,-6.7712,-4.8890,0.0991,-3.1238,-9.9118,-6.9010,-3.5172,-6.7924,-0.5869,-1.3322,0.2727,1.5467,-6.9271,-13.6644,-1.2258,-2.1073,-8.0875,1.1727,-6.7129
2683.5938,-8.9045,-5.7946,-1.3154,-2.1924,-8.3475,-7.7709,-4.2978,-5.9973,-1.6071,-2.5325,-0.0319,3.6845,-3.9101,-12.3529,-1.2863,-1.3208,-5.6224,1.3200,-4.9551
2687.5000,-9.5766,-5.9903,-3.1480,-2.1800,-7.3809,-7.4685,-5.1826,-5.9529,-2.1721,-2.6773,-0.2713,5.1245,-1.8860,-11.1715,-1.4152,-0.4623,-3.6973,1.4750,-3.8699
2691.4062,-8.0717,-5.0101,-4.8277,-3.1039,-7.3518,-5.7480,-5.8125,-6.6475,-1.5510,-1.3426,-0.0311,5.7335,-1.5099,-10.7468,-1.4147,0.1019,-3.3169,1.8313,-3.8067
2695.3125,-4.6476,-2.8005,-5.9644,-4.8254,-8.2761,-2.9164,-5.9767,-7.8811,0.3642,1.0864,0.8234,5.4744,-2.8048,-11.3817,-1.1985,0.0330,-4.8109,2.3549,-4.8045
2699.2188,-0.4284,0.1753,-6.4391,-7.0259,-9.8354,0.2504,-5.7128,-9.3486,2.9461,3.6316,2.0448,4.4105,-5.1426,-12.8915,-0.8261,-0.7946,-7.6295,2.7795,-6.4923
2703.1250,3.1101,3.0698,-6.3535,-9.2270,-11.5104,2.8066,-5.2713,-10.7218,5.1462,5.2795,3.1275,2.7279,-7.5466,-14.6773,-0.4410,-2.1999,-10.5924,2.7405,-8.2101
2707.0312,4.7701,4.9811,-5.8892,-10.8813,-12.7839,4.0158,-4.9482,-11.6902,6.0532,5.5222,3.5882,0.7466,-9.1432,-15.9960,-0.1602,-3.7441,-12.4547,1.9850,-9.3052
2710.9375,4.0628,5.3246,-5.1824,-11.5272,-13.3101,3.6339,-4.8891,-11.9750,5.3603,4.5561,3.2303,-1.1220,-9.5103,-16.2727,0.0043,-4.9007,-12.4777,0.5402,-9.4344
2714.8438,1.2808,4.0662,-4.2975,-10.9497,-12.9756,1.9713,-4.9994,-11.3573,3.4684,3.0567,2.2276,-2.4828,-8.7462,-15.2910,0.1352,-5.2608,-10.7011,-1.2631,-8.6857
2718.7500,-2.7332,1.7183,-3.2876,-9.2601,-11.8441,-0.2675,-5.0174,-9.7368,1.1956,1.7224,0.9928,-3.0868,-7.2625,-13.1783,0.3225,-4.6773,-7.7974,-2.9248,-7.4440
2722.6562,-6.9348,-0.8725,-2.2524,-6.8309,-10.0413,-2.2653,-4.6844,-7.1931,-0.6831,0.9035,-0.0640,-2.9155,-5.4699,-10.2418,0.5726,-3.2937,-4.6382,-3.9864,-6.0904
2726.5625,-10.3704,-2.8283,-1.3148,-4.1116,-7.6687,-3.3547,-3.8756,-3.9956,-1.7635,0.5332,-0.7167,-2.1664,-3.5696,-6.7961,0.7932,-1.4643,-1.8523,-4.1970,-4.7448
2730.4688,-12.3494,-3.5019,-0.5217,-1.4347,-4.8068,-3.1687,-2.6033,-0.5399,-2.0372,0.3454,-0.9396,-1.1508,-1.5730,-3.1043,0.8789,0.3784,0.3707,-3.5600,-3.2336
2734.3750,-12.5264,-2.6238,0.2322,1.0576,-1.6019,-1.6664,-0.9214,2.7579,-1.6763,0.1752,-0.7899,-0.1681,0.5024,0.5559,0.8404,1.8530,2.1619,-2.2697,-1.3150
2738.2812,-10.9393,-0.3293,1.1618,3.3237,1.6437,0.9236,1.1527,5.5509,-0.8006,0.1151,-0.2821,0.5758,2.4383,3.8057,0.8781,2.7244,3.6855,-0.6057,1.0048
2742.1875,-7.9973,2.9105,2.4331,5.2591,4.4805,4.1903,3.6045,7.6016,0.5847,0.4378,0.6328,0.9837,3.8078,6.1988,1.3292,2.9612,4.9239,1.1546,3.3139
2746.0938,-4.3808,6.4248,4.0074,6.6249,6.4678,7.6329,6.2999,8.7935,2.4661,1.3731,1.9748,1.0519,4.2049,7.4224,2.5006,2.7562,5.7041,2.7907,4.9590
2750.0000,-0.8397,9.5275,5.6315,7.1746,7.4213,10.7561,8.9001,9.1609,4.6661,2.9165,3.6261,0.8734,3.5804,7.5595,4.4776,2.4897,5.9321,4.1846,5.4688
2753.9062,2.0389,11.7118,7.0119,6.9175,7.5993,13.1661,10.9364,8.9454,6.8245,4.7940,5.3175,0.6685,2.4452,7.2055,7.0233,2.6165,5.8309,5.3625,4.9625
2757.8125,3.9750,12.7913,8.0517,6.3082,7.6718,14.6469,12.0401,8.6182,8.5538,6.5851,6.7402,0.7885,1.7476,7.2777,9.6310,3.4809,5.9544,6.4997,4.2334
2761.7188,4.9754,12.9232,8.9545,6.1544,8.4258,15.1906,12.1798,8.7774,9.6456,7.9018,7.7023,1.6233,2.4279,8.5489,11.7104,5.1306,6.9066,7.8384,4.3801
2765.6250,5.1879,12.4943,10.0819,7.2152,10.3349,14.9744,11.7204,9.8972,10.1536,8.5196,8.2106,3.4066,4.8759,11.1496,12.8183,7.2345,8.9216,9.5215,6.1622
2769.5312,4.7662,11.9263,11.6490,9.7094,13.2379,14.2980,11.2303,12.0324,10.2871,8.4215,8.4189,6.0120,8.6238,14.3701,12.8344,9.1903,11.6022,11.4303,9.4751
2773.4375,3.8621,11.5067,13.4899,13.0721,16.3515,13.5131,11.1520,14.6775,10.2181,7.7823,8.5003,8.8937,12.5059,16.9547,12.0141,10.4073,14.0418,13.1585,13.3101
2777.3438,2.7386,11.3351,15.1010,16.1816,18.6553,12.9591,11.5616,16.9351,9.9803,6.9310,8.5574,11.2719,15.2467,17.7848,10.9062,10.6330,15.3159,14.1985,16.2810
2781.2500,1.8592,11.3924,15.9680,17.9749,19.4552,12.8988,12.1891,17.9688,9.5575,6.2926,8.6479,12.5136,16.1613,16.5742,10.1651,10.1335,15.0616,14.2709,17.4326
2785.1562,1.7960,11.6586,15.9567,18.0880,18.7967,13.4496,12.6788,17.5010,9.0786,6.2791,8.8861,12.5068,15.5540,14.1426,10.3167,9.5964,13.7678,13.6009,16.8400
2789.0625,2.9414,12.1778,15.4731,17.1065,17.4679,14.5257,12.8932,16.0436,8.9233,7.1328,9.5023,11.7878,14.5507,12.0543,11.5537,9.7786,12.5546,12.9328,15.6119
2792.9688,5.2061,13.0268,15.2506,16.2401,16.5717,15.8444,13.0330,14.6745,9.5983,8.7887,10.7658,11.3059,14.4440,11.7915,13.6437,11.0837,12.5359,13.2172,15.2686
2796.8750,7.9698,14.2290,15.8918,16.6073,16.9157,17.0350,13.4870,14.4587,11.4343,10.8624,12.7961,11.9302,15.9301,13.9278,16.0051,13.3123,14.1437,15.1159,16.8575
2800.7812,10.4107,15.7030,17.4780,18.5688,18.5776,17.8333,14.5329,15.8443,14.3199,12.8168,15.3997,13.9747,18.6994,17.7885,17.9462,15.7404,16.8358,18.6042,20.3327
2804.6875,12.0545,17.2980,19.5181,21.5194,20.8958,18.2612,16.1165,18.4003,17.6881,14.2405,18.0769,17.0204,21.6242,21.7980,18.9711,17.4898,19.3805,22.9129,24.5604
2808.5938,13.1616,18.8828,21.2640,24.2459,22.8620,18.6591,17.8700,21.0502,20.7845,15.0655,20.2268,20.1362,23.4184,24.3037,18.9973,17.9772,20.5523,26.8504,27.9276
2812.5000,14.6130,20.3934,22.1581,25.6041,23.6557,19.5015,19.3442,22.6477,23.0303,15.5600,21.4237,22.3515,23.3516,24.3872,18.3524,17.1809,19.8087,29.3186,29.1717
2816.4062,17.2759,21.7732,22.0957,25.0932,22.9976,21.0595,20.2678,22.5403,24.2148,16.0743,21.5756,23.0924,21.5822,22.2084,17.5343,15.5767,17.5383,29.7338,27.9488
2820.3125,21.2274,22.8356,21.3375,23.0057,21.1481,23.1045,20.6406,20.8036,24.3932,16.7011,20.8571,22.3314,18.9360,18.7376,16.8652,13.7959,14.7469,28.1404,24.8522
2824.2188,25.3903,23.1745,20.1766,20.1296,18.6231,24.8616,20.6051,18.0636,23.6074,17.0983,19.4803,20.4076,16.3185,15.1089,16.2556,12.2266,12.4079,25.0111,20.9461
2828.1250,27.9227,22.2450,18.6391,17.2474,15.8635,25.2973,20.2164,15.0854,21.7005,16.6340,17.4934,17.6885,14.1706,12.0268,15.2409,10.8058,10.9029,20.9108,17.1538
2832.0312,27.2163,19.6276,16.4552,14.7547,13.0792,23.6233,19.3084,12.4127,18.4169,14.7880,14.7743,14.3302,12.3099,9.5652,13.2866,9.1239,9.8947,16.2480,13.8703
2835.9375,22.9123,15.3410,13.3176,12.5897,10.3208,19.7479,17.5725,10.2442,13.7362,11.5532,11.2307,10.2974,10.2128,7.3995,10.1776,6.7655,8.6728,11.2398,10.9708
2839.8438,16.2711,9.9953,9.2185,10.4353,7.6540,14.4078,14.8009,8.5324,8.1664,7.5503,7.0458,5.6011,7.4897,5.2268,6.2422,3.6651,6.7035,6.0509,8.1185
2843.7500,9.6031,4.6451,4.6023,8.0074,5.2514,8.8847,11.1165,7.1473,2.7129,3.7525,2.7597,0.5530,4.1986,3.0436,2.2558,0.2456,4.0043,0.9551,5.1068
2847.6562,5.0626,0.3770,0.2064,5.2386,3.3099,4.4455,7.0191,5.9544,-1.5331,0.9791,-0.9095,-4.1765,0.7936,1.1028,-0.9263,-2.7533,1.1086,-3.6239,2.0084
2851.5625,3.5200,-2.1619,-3.3073,2.2841,1.8689,1.7991,3.2004,4.7901,-3.9527,-0.5185,-3.4095,-7.7727,-2.2153,-0.3658,-2.7882,-4.6648,-1.3184,-7.2369,-0.9233
2855.4688,4.1882,-3.0377,-5.6870,-0.5979,0.6964,0.8504,0.2368,3.4300,-4.7321,-1.1146,-4.6385,-9.6494,-4.6068,-1.4153,-3.3776,-5.2709,-2.9225,-9.6205,-3.4762
2859.3750,5.2105,-2.9560,-7.1817,-3.1822,-0.6235,0.8575,-1.6578,1.6596,-4.7335,-1.4856,-4.9823,-9.7574,-6.5347,-2.3969,-3.2167,-4.9389,-3.8520,-10.8585,-5.6337
2863.2812,4.8213,-2.8792,-8.3432,-5.3466,-2.4239,0.8825,-2.6805,-0.5592,-4.9743,-2.1347,-5.0779,-8.6377,-8.3021,-3.7021,-2.9771,-4.4263,-4.5797,-11.3818,-7.5436
2867.1875,2.3674,-3.5409,-9.6726,-7.0561,-4.6715,0.2817,-3.2720,-2.9431,-6.0427,-3.0832,-5.4542,-7.1788,-10.0102,-5.4139,-3.1241,-4.4563,-5.5020,-11.7818,-9.3325
2871.0938,-1.3934,-5.1019,-11.3148,-8.2897,-6.8637,-1.0104,-3.8388,-4.9096,-7.8045,-3.9159,-6.2662,-6.2070,-11.3628,-7.1283,-3.7296,-5.3050,-6.6059,-12.5137,-10.9063
2875.0000,-4.8271,-7.1025,-12.9534,-8.9591,-8.1991,-2.5200,-4.5178,-5.8034,-9.5486,-4.1185,-7.2588,-6.1219,-11.7887,-8.0939,-4.5253,-6.6407,-7.4408,-13.6296,-11.8907
2878.9062,-6.4060,-8.7112,-13.9392,-8.8682,-7.9480,-3.5394,-5.1025,-5.2126,-10.4320,-3.4538,-7.9492,-6.7612,-10.8123,-7.6057,-5.1235,-7.7182,-7.4172,-14.6885,-11.7755
2882.8125,-5.5422,-9.1375,-13.5794,-7.7565,-5.8255,-3.5245,-5.1642,-3.1850,-9.9319,-2.1261,-7.8989,-7.5465,-8.4239,-5.4226,-5.2588,-7.8249,-6.2315,-14.9195,-10.2009
2886.7188,-2.8341,-8.0145,-11.4701,-5.4387,-2.1678,-2.3868,-4.3037,-0.2109,-8.0651,-0.6479,-6.9324,-7.8217,-5.1986,-1.9596,-4.9226,-6.7218,-4.1374,-13.5988,-7.2299
2890.6250,0.3310,-5.5887,-7.7435,-1.9984,2.1757,-0.5465,-2.4101,3.0077,-5.3205,0.4660,-5.2189,-7.2030,-2.0765,1.8562,-4.3462,-4.8174,-1.8818,-10.4780,-3.4459
2894.5312,2.5242,-2.6377,-3.1296,2.0662,6.1702,1.2659,0.2058,5.8461,-2.4184,0.9619,-3.2129,-5.7663,0.0656,4.9833,-3.8639,-2.9614,-0.3358,-6.0381,0.2043
2898.4375,2.9576,-0.1443,1.2238,5.8688,8.9717,2.3615,2.8814,7.9311,-0.0507,0.9188,-1.4910,-3.9849,0.8056,6.6979,-3.7314,-1.9692,-0.0387,-1.4020,2.7696
2902.3438,1.7910,1.1364,4.1406,8.3880,10.1751,2.4279,4.8563,9.1261,1.3138,0.6344,-0.5366,-2.4623,0.3212,6.8431,-3.9799,-2.1564,-0.9184,2.1011,3.6873
2906.2500,-0.0156,1.0241,4.8776,8.8662,9.8411,1.6813,5.5926,9.3919,1.5474,0.4456,-0.5342,-1.6102,-0.7658,5.7938,-4.3723,-3.1614,-2.3439,3.5233,3.0096
2910.1562,-1.1809,-0.0022,3.4457,7.1556,8.3282,0.7503,4.9960,8.6651,0.9086,0.6051,-1.2545,-1.4467,-1.7335,4.1950,-4.4939,-4.1663,-3.4715,2.7351,1.3367
2914.0625,-0.6873,-1.0481,0.6140,3.8061,6.0525,0.3408,3.4183,6.8585,-0.0200,1.2427,-2.1096,-1.6262,-2.1005,2.6351,-3.9567,-4.3816,-3.6831,0.4707,-0.5112
2917.9688,1.7659,-1.2704,-2.4327,-0.1765,3.3182,0.8519,1.4460,3.9826,-0.5370,2.3643,-2.3987,-1.6739,-1.8019,1.4234,-2.6277,-3.4986,-2.8763,-2.0508,-1.9038
2921.8750,5.6156,-0.3231,-4.6166,-3.7760,0.3018,2.1557,-0.3951,0.2891,-0.1326,3.8326,-1.6526,-1.2805,-1.1414,0.5592,-0.7494,-1.8346,-1.4588,-3.7132,-2.6609
2925.7812,9.6670,1.4706,-5.3949,-6.3633,-2.8328,3.6722,-1.8360,-3.6848,1.2436,5.3487,0.1053,-0.4752,-0.5743,-0.1396,1.1443,-0.0944,-0.0763,-3.9795,-3.0192
2929.6875,12.6233,3.3328,-4.8763,-7.8317,-5.8021,4.7083,-2.8573,-7.2290,3.1359,6.5039,2.3500,0.4275,-0.4486,-0.8592,2.5017,1.0842,0.7541,-3.0159,-3.3529
2933.5938,13.6861,4.5077,-3.6063,-8.4431,-8.1859,4.8643,-3.5203,-9.6944,4.8260,6.9440,4.3321,1.0592,-0.8334,-1.6817,3.0672,1.5005,0.8889,-1.4541,-3.8529
2937.5000,12.9262,4.7081,-2.2032,-8.5440,-9.5804,4.2639,-3.7985,-10.7409,5.7426,6.5831,5.4836,1.2439,-1.5190,-2.5955,3.0297,1.4424,0.5516,0.0062,-4.3968
2941.4062,11.2104,4.2489,-1.0894,-8.3717,-9.8473,3.4652,-3.5606,-10.4815,5.7706,5.7173,5.6976,1.0850,-2.1790,-3.5859,2.8886,1.4079,0.1040,0.9000,-4.6985
2945.3125,9.7010,3.7884,-0.4478,-8.0577,-9.2854,3.1078,-2.7281,-9.4493,5.2489,4.9119,5.3045,0.8370,-2.6006,-4.7064,3.1064,1.7081,-0.2398,1.0671,-4.6192
2949.2188,9.2005,3.8594,-0.3399,-7.7532,-8.5652,3.5230,-1.4716,-8.3891,4.6617,4.6816,4.7752,0.6659,-2.8426,-6.0542,3.7778,2.2347,-0.5635,0.5468,-4.3848
2953.1250,9.7305,4.5176,-0.8064,-7.6946,-8.4064,4.5527,-0.2545,-7.9497,4.2632,5.1501,4.3795,0.4910,-3.2113,-7.6511,4.5524,2.5511,-1.1620,-0.5419,-4.5153
2957.0312,10.5990,5.3452,-1.8272,-8.0985,-9.1582,5.6875,0.3623,-8.4050,3.9303,5.9322,4.0562,0.0422,-4.0483,-9.3201,4.8764,2.2315,-2.2822,-2.0136,-5.4785
2960.9375,10.9045,5.7984,-3.1812,-8.9460,-10.5457,6.4174,0.0545,-9.5346,3.3601,6.3552,3.5824,-0.8927,-5.4484,-10.6698,4.3874,1.2004,-3.8704,-3.5511,-7.2965
2964.8438,10.1377,5.6326,-4.3813,-9.8529,-11.7723,6.5536,-1.0237,-10.7342,2.4496,5.9040,2.8889,-2.2126,-7.0883,-11.2349,3.1813,-0.1716,-5.5083,-4.6904,-9.3969
2968.7500,8.4803,5.0920,-4.8250,-10.1897,-11.9536,6.3087,-2.2845,-11.3184,1.5323,4.6002,2.2442,-3.4424,-8.2970,-10.7041,1.7587,-1.2792,-6.5911,-4.9565,-10.8431
2972.6562,6.6181,4.7225,-4.1225,-9.4272,-10.6297,6.0992,-3.0351,-10.8689,1.2416,3.0456,2.1299,-3.9420,-8.3566,-9.0868,0.7019,-1.6464,-6.6397,-4.1080,-10.8204
2976.5625,5.2276,4.9508,-2.3852,-7.4884,-8.0324,6.2253,-2.8837,-9.4388,2.0645,2.0742,2.8755,-3.2677,-6.8717,-6.6936,0.3260,-1.1881,-5.5456,-2.3214,-9.0742
2980.4688,4.5174,5.7465,-0.2372,-4.8472,-4.9300,6.6633,-1.9505,-7.4931,3.9111,2.2285,4.3342,-1.4522,-3.9944,-3.9304,0.5544,-0.1968,-3.5981,-0.1516,-6.0251
2984.3750,4.1473,6.6215,1.5055,-2.2808,-2.1536,7.1088,-0.7454,-5.6173,6.0433,3.4019,5.8689,0.9786,-0.3764,-1.0495,1.0648,0.9069,-1.2934,1.7412,-2.5142
2988.2812,3.5540,6.9699,2.2998,-0.4292,-0.1260,7.2221,0.1883,-4.1753,7.4551,4.8859,6.6985,3.2600,3.1103,1.9485,1.5227,1.8554,0.9263,2.9274,0.6264
2992.1875,2.4079,6.4942,2.1676,0.5365,1.2861,6.8804,0.6041,-3.1372,7.4630,5.7909,6.3774,4.7442,5.7101,5.1673,1.6618,2.6340,2.8207,3.3778,2.8880
2996.0938,0.8417,5.4040,1.6130,0.9115,2.5084,6.2463,0.6295,-2.1874,6.1001,5.5622,5.0684,5.1425,6.9982,8.5145,1.1369,3.3410,4.3095,3.3571,4.1214
3000.0000,-0.7153,4.2449,1.2283,1.1445,3.7960,5.6091,0.5635,-1.0319,4.0470,4.2640,3.4151,4.5446,6.9038,11.4853,-0.6554,3.9502,5.3204,3.1420,4.3628
3003.9062,-1.9419,3.4936,1.2818,1.4623,4.9297,5.1296,0.5819,0.3198,2.1675,2.4713,2.1116,3.2695,5.6172,13.2474,-4.4825,4.2017,5.6986,2.8013,3.6696
3007.8125,-2.9235,3.2272,1.5828,1.7185,5.3174,4.6967,0.5940,1.5108,0.9935,0.8776,1.4833,1.7008,3.5042,13.0483,-10.7809,3.7475,5.2909,2.2170,2.1371
3011.7188,-4.0867,3.1103,1.7063,1.5695,4.4434,4.0159,0.3615,2.0727,0.5124,-0.1012,1.3726,0.2147,1.0848,10.7195,-18.9994,2.4686,4.1595,1.3205,0.0680
3015.6250,-5.8073,2.6986,1.3814,0.8219,2.3384,2.8713,-0.2313,1.7782,0.3627,-0.4791,1.3795,-0.8168,-0.9847,6.9373,-27.2888,0.7175,2.7362,0.3278,-1.9119
3019.5312,-8.0049,1.8163,0.7310,-0.3336,-0.2909,1.3644,-0.9962,0.8507,0.2272,-0.5521,1.2376,-1.0551,-2.0389,3.0103,-32.9490,-0.7423,1.7347,-0.2645,-2.9968
3023.4375,-10.0661,0.7168,0.1768,-1.3962,-2.3988,-0.0629,-1.5186,-0.1334,0.0914,-0.6035,1.0193,-0.3303,-1.6706,0.2588,-33.5876,-1.1230,1.7970,0.0287,-2.6040
3027.3438,-11.1950,-0.0952,0.0939,-1.8842,-3.2016,-0.8618,-1.4556,-0.5940,0.1763,-0.6913,1.0214,1.1782,-0.0160,-0.6702,-28.4059,-0.1077,3.0668,1.2954,-0.7976
3031.2500,-10.9561,-0.2384,0.4991,-1.6655,-2.6381,-0.7202,-0.8254,-0.3082,0.6423,-0.6513,1.4496,2.8822,2.1646,-0.1322,-18.8158,1.8796,4.9826,3.0509,1.5960
3035.1562,-9.6119,0.2615,1.0259,-1.0328,-1.3771,0.2173,-0.0488,0.4699,1.3496,-0.2757,2.1844,3.9818,3.7556,0.7591,-7.9098,3.8445,6.4811,4.4518,3.3432
3039.0625,-7.9874,0.9933,1.2129,-0.4631,-0.3650,1.4107,0.3187,1.2160,1.9046,0.4937,2.8350,3.8807,3.8348,0.8166,1.0101,4.7669,6.5480,4.7959,3.4765
3042.9688,-6.9391,1.4635,0.8790,-0.2440,-0.2190,2.2358,-0.0131,1.5180,1.9661,1.5020,3.0458,2.5816,2.2074,-0.5067,6.0251,4.2015,4.8107,3.9790,1.8845
3046.8750,-6.7971,1.4443,0.2883,-0.2517,-0.8654,2.3412,-0.8278,1.3619,1.5538,2.4736,2.7967,0.7763,-0.4176,-2.8041,7.3859,2.5552,1.8107,2.5797,-0.5669
