Time,Fp1,F3,C3,P3,O1,F7,T3,T5,Fz,Fp2,F4,C4,P4,O2,F8,T4,T6,Cz,Pz
0.0000,-0.4183,0.9518,0.3868,3.9324,4.2344,2.5539,2.8243,3.6865,-0.0457,-2.6503,-2.9661,-5.0797,1.9082,2.6295,-8.5462,-5.2545,-2.4074,-0.9045,4.3031
3.9062,-0.0318,0.3534,-0.9798,0.7890,2.3078,1.2852,2.4158,1.9652,0.1578,-1.1247,-2.4141,-3.2882,1.6148,1.5367,-5.2867,-6.3916,-2.4643,-2.4861,2.1043
7.8125,0.7241,-0.0653,-1.8152,-3.1409,-0.9817,-0.8684,1.6363,-0.8239,0.9111,1.5326,-0.6236,0.5920,1.4695,-0.4373,0.3676,-5.6672,-2.1017,-3.0791,-0.5223
11.7188,1.9813,0.1718,-1.2877,-6.4724,-4.9385,-3.3804,0.6776,-4.0562,2.3992,5.0668,2.7008,6.2611,1.7057,-2.8335,7.6405,-1.9223,-1.1069,-1.6515,-2.6154
15.6250,3.7350,1.3329,0.9443,-7.7480,-8.2398,-5.3670,-0.1039,-6.6454,4.5143,8.7984,7.3174,12.7548,2.5433,-4.7426,15.1569,4.8577,0.7103,2.1267,-3.2203
19.5312,5.6940,3.1446,4.3510,-6.2804,-9.5787,-6.0992,-0.4535,-7.5714,6.6983,11.7474,12.2595,18.7059,3.9740,-5.3029,21.3225,13.1427,3.3542,7.4381,-1.9953
23.4375,7.2776,4.7439,7.6171,-2.6818,-8.4272,-5.4880,-0.4547,-6.4665,8.0312,12.9311,16.0039,22.7127,5.5817,-4.2757,24.7373,20.2584,6.4618,12.4298,0.4290
27.3438,7.8535,5.0648,9.2379,1.3127,-5.4127,-4.1671,-0.5172,-3.8781,7.6366,11.7746,17.0708,23.7272,6.5876,-2.2809,24.5953,23.5165,9.2814,14.9564,2.6408
31.2500,7.1348,3.5089,8.3221,3.6929,-2.0212,-3.0558,-1.0694,-1.0142,5.2519,8.4783,14.8429,21.4033,6.1919,-0.4677,21.0302,21.5463,10.9313,13.6417,3.1566
35.1562,5.4837,0.4811,5.1085,3.2100,0.2256,-2.6758,-2.1609,0.8889,1.6091,4.1375,10.1400,16.3121,4.0633,0.2071,15.2677,15.1038,10.8672,8.6834,1.2598
39.0625,3.8564,-2.6347,0.8356,-0.0280,0.6004,-2.7255,-3.3027,1.1753,-1.7096,0.4584,5.0995,9.8829,0.6655,-0.3838,9.3862,6.8551,9.2843,1.8824,-2.5637
42.9688,3.3213,-4.1713,-2.9993,-4.7675,-0.5295,-2.2774,-3.7407,-0.0236,-3.0015,-0.8975,2.2521,3.9672,-2.8552,-1.4425,5.6052,0.1777,7.1455,-4.2114,-6.9016
46.8750,4.3865,-3.2020,-5.5391,-9.4569,-2.1074,-0.5261,-3.0372,-2.0774,-1.4210,0.9145,3.1943,0.1103,-5.2389,-1.7933,5.3184,-2.4213,5.7233,-7.6154,-10.2597
50.7812,6.5663,-0.2484,-7.0280,-13.1457,-3.1882,2.4199,-1.5570,-4.3856,2.3835,5.4291,7.6031,-1.1458,-5.8314,-0.7209,8.3740,-0.4354,5.8686,-7.9381,-11.9393
54.6875,8.5335,2.8491,-8.5005,-15.8315,-3.5597,5.3063,-0.4444,-6.7395,6.4449,10.9685,13.2434,-0.5098,-5.0000,1.4692,13.0987,4.5538,7.4524,-6.4804,-12.3680
58.5938,8.8523,3.9304,-10.8708,-18.0588,-3.7580,6.3265,-0.9933,-9.2595,8.4771,15.3563,17.0798,0.4958,-3.9384,3.5597,17.1782,9.8384,9.3645,-5.3219,-12.6560
62.5000,6.8854,1.8381,-14.0227,-20.1175,-4.5055,4.2360,-3.7503,-11.9913,7.1770,16.9221,16.9242,0.4824,-3.9359,4.1382,18.9454,13.0209,10.1242,-5.9288,-13.6751
66.4062,3.2987,-2.7488,-16.5413,-21.4726,-6.0181,-0.7147,-7.9379,-14.5134,3.0532,15.2739,12.6737,-0.8928,-5.5423,2.4599,18.2852,13.1167,8.7532,-8.1440,-15.2899
70.3125,-0.2082,-7.5292,-16.3412,-20.8849,-7.7066,-6.6654,-11.6418,-15.9038,-1.7603,11.4219,6.3911,-2.6385,-8.1499,-1.0881,16.5416,10.7649,5.3755,-10.2019,-16.2793
74.2188,-1.8372,-9.7727,-11.8623,-17.1741,-8.4899,-10.9874,-12.7366,-15.1467,-4.6437,7.1877,1.1570,-2.9949,-10.2571,-5.1732,15.4531,7.5501,1.1742,-9.7775,-15.0274
78.1250,-0.7465,-7.8098,-3.1191,-10.1027,-7.4771,-11.6128,-10.0347,-11.7246,-3.9344,4.2420,-0.6316,-0.5340,-10.2523,-8.1835,15.8240,4.9554,-2.2491,-5.4299,-10.5419
82.0312,2.4267,-1.9460,8.0515,-0.7637,-4.5205,-8.0802,-3.9701,-5.9978,0.1810,3.3103,1.4858,4.8964,-7.2381,-8.9345,16.8692,3.6216,-3.6914,2.4436,-3.1455
85.9375,5.9120,5.7204,18.7212,8.8061,-0.2601,-1.7122,3.5975,0.8829,5.8410,3.9659,5.9419,11.9911,-1.4275,-7.0404,16.7362,3.3086,-2.8397,11.7118,5.5952
89.8438,7.8136,12.4320,26.1695,16.5435,4.3224,5.1197,10.3311,7.4701,10.6113,5.0673,10.2028,18.6845,6.0538,-2.8563,13.8933,3.4456,-0.1939,19.5819,13.6319
93.7500,7.1671,16.1585,29.0205,21.2249,8.4676,10.1607,14.5400,12.6030,12.8248,5.5244,12.2862,23.2763,13.7469,2.8150,8.4364,3.7750,3.4184,23.9719,19.3883
97.6562,4.4196,16.4418,27.6184,22.7818,11.8999,12.2067,15.8283,15.7423,12.3658,4.9267,11.8156,25.2746,20.4185,8.9962,2.3749,4.5820,7.3297,24.3858,22.3264
101.5625,1.0842,14.2984,23.5226,21.9694,14.6405,11.3720,14.9606,16.9309,10.4917,3.6998,10.0352,25.4596,25.3029,14.6726,-1.3684,6.3567,11.1864,21.8609,22.8543
105.4688,-1.1638,11.3656,18.5177,19.7178,16.6007,8.6982,13.1385,16.5101,8.8967,2.7677,8.8739,25.1880,28.0153,18.8677,-0.6373,9.1852,14.7480,18.1457,21.7554
109.3750,-1.3723,8.8957,13.7577,16.6420,17.3512,5.4633,11.2135,14.8486,8.6493,2.9755,9.6968,25.4238,28.3601,20.7923,4.6687,12.3854,17.6049,14.6917,19.5992
113.2812,0.3198,7.1960,9.4937,12.9803,16.3011,2.6084,9.3229,12.2527,9.6390,4.6161,12.4935,26.1044,26.2738,20.0849,12.5092,14.7349,19.1380,12.0534,16.5271
117.1875,2.9594,5.7555,5.4189,8.8698,13.1677,0.5174,7.0934,9.0391,10.7874,7.2873,15.9195,26.1896,21.9578,17.0029,19.8380,15.1897,18.8176,9.9439,12.4793
121.0938,5.4218,3.8512,1.2815,4.6296,8.3585,-0.8788,4.1679,5.6119,10.7964,10.0945,18.0710,24.3113,16.0409,12.3803,24.2035,13.6047,16.6223,7.7545,7.5942
125.0000,6.9755,1.1765,-2.6977,0.7707,2.9280,-1.8485,0.6401,2.4146,8.9292,12.0481,17.4911,19.6204,9.5489,7.3074,24.8254,10.9140,13.2220,5.1132,2.4124
128.9062,7.4662,-1.8958,-5.8731,-2.2796,-1.9147,-2.6250,-2.8945,-0.2384,5.3854,12.4570,13.8527,12.3703,3.5979,2.6900,22.5806,8.5849,9.7164,2.1296,-2.3010
132.8125,7.1272,-4.5246,-7.6197,-4.4994,-5.4336,-3.2722,-5.6660,-2.3167,1.1321,11.1690,8.0265,3.9564,-1.0458,-1.0454,19.0799,7.6666,7.0548,-0.7520,-5.9912
136.7188,6.2599,-5.8995,-7.8437,-6.3583,-7.7041,-3.6620,-7.1763,-4.0779,-2.6226,8.5980,1.5986,-3.5949,-4.2709,-3.9367,15.5588,8.0708,5.5153,-3.1079,-8.6790
140.6250,5.0484,-5.7102,-7.1946,-8.5639,-9.4388,-3.5530,-7.4630,-5.8972,-4.9819,5.5489,-3.8423,-8.4616,-6.5920,-6.2231,12.3090,8.5975,4.6056,-4.8316,-10.9745
144.5312,3.5979,-4.3323,-6.8133,-11.6240,-11.4375,-2.7585,-7.0321,-8.0318,-5.6711,2.9071,-7.2854,-9.8287,-8.8005,-8.0645,8.9085,7.7249,3.4546,-6.1944,-13.7007
148.4375,2.0830,-2.6531,-7.7402,-15.5058,-14.0404,-1.3407,-6.5341,-10.4686,-5.0199,1.3050,-8.5215,-8.2923,-11.5105,-9.4608,4.9427,4.6620,1.4232,-7.6679,-17.3547
152.3438,0.8205,-1.6430,-10.3098,-19.5987,-16.9359,0.2875,-6.4013,-12.9349,-3.6990,0.9035,-7.9864,-5.6276,-14.8580,-10.3949,0.6300,-0.0360,-1.4823,-9.6280,-21.7400
156.2500,0.1720,-1.8827,-13.8819,-22.9817,-19.4008,1.4716,-6.6490,-15.0328,-2.3751,1.3983,-6.3744,-3.9491,-18.4871,-11.0234,-3.0748,-4.7050,-4.6581,-12.0997,-25.9930
160.1562,0.3457,-3.2699,-17.0751,-24.8240,-20.7605,1.6436,-6.9247,-16.3959,-1.4407,2.2555,-4.2537,-4.6208,-21.7666,-11.6984,-4.9258,-7.5168,-7.3377,-14.6627,-28.9829
164.0625,1.2517,-5.0584,-18.4146,-24.7126,-20.7445,0.6998,-6.7505,-16.7943,-0.9249,3.0440,-1.8851,-7.4894,-24.0662,-12.7527,-4.0538,-7.5205,-9.0776,-16.5751,-29.8566
167.9688,2.5220,-6.2440,-17.0785,-22.7860,-19.5409,-0.8424,-5.8227,-16.1857,-0.6136,3.6516,0.6761,-10.9334,-24.9421,-14.2005,-0.4529,-5.1270,-9.9476,-17.0896,-28.4355
171.8750,3.6706,-6.1386,-13.3663,-19.6748,-17.5900,-2.0921,-4.2253,-14.7492,-0.3195,4.2318,3.2822,-12.7979,-24.1939,-15.6020,4.9439,-1.7730,-10.3264,-15.8474,-25.2736
175.7812,4.2751,-4.8447,-8.6354,-16.3036,-15.3216,-2.3545,-2.4632,-12.9053,-0.1499,4.9134,5.4242,-11.7241,-21.8520,-16.2400,10.5790,0.9564,-10.4969,-13.1573,-21.3757
179.6875,4.0681,-3.3305,-4.7053,-13.6077,-13.0182,-1.6735,-1.2870,-11.2662,-0.5889,5.4945,6.2325,-8.0590,-18.1654,-15.5216,14.7907,2.1481,-10.3746,-9.9694,-17.7378
183.5938,2.9318,-2.9808,-3.0012,-12.2138,-10.8348,-0.9386,-1.3664,-10.4569,-2.2753,5.3901,4.8395,-3.7114,-13.6008,-13.3471,16.3393,1.8366,-9.5775,-7.4734,-14.9385
187.5000,0.8760,-4.7936,-3.8572,-12.1689,-8.8739,-1.3912,-2.9409,-10.8287,-5.5414,3.9428,0.9551,-0.9732,-8.8040,-10.1998,14.7948,0.6707,-7.7770,-6.4749,-12.9612
191.4062,-1.9245,-8.6515,-6.3419,-12.8508,-7.1977,-3.7727,-5.6192,-12.2024,-9.9658,0.9312,-4.6985,-1.0308,-4.4784,-6.9056,10.6886,-0.6786,-5.0537,-6.8859,-11.3111
195.3125,-5.0484,-13.1320,-8.7137,-13.1721,-5.7652,-7.6569,-8.4590,-13.8283,-14.2664,-3.0800,-10.4369,-3.1543,-1.1969,-4.2243,5.3612,-1.9037,-1.9821,-7.6762,-9.3467
199.2188,-7.8157,-16.0665,-9.2897,-12.0601,-4.3859,-11.4619,-10.3336,-14.6542,-16.7122,-6.8516,-14.2428,-5.1418,0.7730,-2.5242,0.5032,-3.0142,0.6336,-7.3960,-6.6541
203.1250,-9.4496,-15.6175,-7.2801,-9.0073,-2.7890,-13.2293,-10.4310,-13.8022,-15.9245,-9.0542,-14.7008,-4.7510,1.5440,-1.6955,-2.4856,-4.0025,2.2038,-5.0241,-3.2742
207.0312,-9.4004,-11.3006,-3.1487,-4.3854,-0.7987,-11.7534,-8.6240,-10.9938,-11.6502,-8.9955,-11.7126,-1.1592,1.5559,-1.2837,-3.0494,-4.5743,2.6919,-0.6466,0.3312
210.9375,-7.6648,-4.3470,1.6897,0.6972,1.5049,-7.3693,-5.4995,-6.6672,-5.0377,-7.0239,-6.5405,4.5421,1.4302,-0.7075,-1.6515,-4.2025,2.6414,4.4808,3.5490
214.8438,-4.8831,2.8411,5.6586,4.9540,3.7803,-1.8820,-2.0152,-1.7082,1.8108,-4.3214,-1.1055,10.1411,1.7996,0.5573,0.5638,-2.4651,2.8900,8.5748,5.9581
218.7500,-2.0966,7.8644,7.8462,7.5789,5.6026,2.3605,1.0157,3.0312,6.8109,-2.1942,3.0618,13.8049,3.1490,2.8443,2.4623,0.6108,4.1461,10.3117,7.5385
222.6562,-0.2603,9.4724,8.3997,8.6021,6.7022,3.7137,3.2991,7.1150,8.8603,-1.3123,5.5771,15.2141,5.6705,6.1639,3.5650,4.4703,6.6470,9.5614,8.6044
226.5625,0.2234,8.0473,8.2786,8.7163,7.0787,2.0634,5.0661,10.5638,8.2542,-1.3857,7.1879,15.5417,9.1347,10.0612,4.2455,8.2593,10.0327,7.4101,9.4950
230.4688,-0.3212,5.1916,8.5366,8.6915,6.8965,-1.2355,6.7269,13.5535,6.3314,-1.4752,9.0085,16.3359,12.8276,13.5587,5.3486,11.1642,13.4432,5.4596,10.2205
234.3750,-1.0657,2.7218,9.5820,8.7737,6.2443,-4.2251,8.4234,16.0127,4.5998,-0.7027,11.5277,18.1578,15.6449,15.3311,7.4758,12.6145,15.7725,4.8453,10.3127
238.2812,-1.1592,1.6893,10.8697,8.4780,4.9675,-5.4517,9.8063,17.4310,3.8832,1.1321,14.0775,19.9874,16.4028,14.1664,10.4215,12.2783,16.0032,5.5839,9.0221
242.1875,-0.1860,1.9731,11.2058,6.9184,2.7413,-4.6539,10.1962,17.0383,3.9882,3.4381,15.1620,19.8460,14.3052,9.5692,13.1552,9.9959,13.5640,6.6333,5.7797
246.0938,1.6501,2.5896,9.4669,3.4510,-0.6379,-2.6901,9.0160,14.2467,4.0269,5.2662,13.4613,16.2014,9.3694,2.1898,14.3908,5.8554,8.6276,6.5895,0.6519
250.0000,3.6818,2.4269,5.2857,-1.8097,-4.9538,-0.8632,6.1789,9.0526,3.1250,5.9563,8.8585,9.1764,2.5595,-6.2229,13.3869,0.4343,2.2243,4.5581,-5.5138
253.9062,5.1428,0.9136,-0.7056,-7.9546,-9.5192,-0.1439,2.1513,2.1189,1.0350,5.5415,2.7901,0.7312,-4.5158,-13.4215,10.4641,-5.0224,-3.9623,0.6725,-11.3900
257.8125,5.5214,-1.7375,-7.1944,-13.7463,-13.4650,-0.7678,-2.3544,-5.5228,-1.6998,4.6579,-2.3562,-6.2967,-10.2517,-17.5734,6.9057,-8.7974,-8.1477,-4.0027,-15.7777
261.7188,4.7433,-4.7371,-12.8314,-18.2712,-16.2068,-2.3543,-6.8161,-12.9417,-4.0626,4.0794,-4.4560,-9.6611,-13.7323,-18.0351,4.3042,-9.3623,-9.1823,-8.0499,-18.1784
265.6250,3.1597,-7.1357,-16.7784,-21.3369,-17.7667,-4.3176,-11.1221,-19.6180,-5.0925,4.2471,-2.7404,-8.7723,-15.0816,-15.5830,3.7623,-6.2137,-7.1322,-10.3592,-18.9790
269.5312,1.4181,-8.1607,-18.8396,-23.3552,-18.6976,-6.1901,-15.3860,-25.3806,-4.2875,5.1298,1.8872,-4.7797,-15.2691,-11.9769,5.4211,-0.3458,-3.3605,-10.5006,-19.1219
273.4375,0.2956,-7.3520,-19.1696,-24.8083,-19.6239,-7.6404,-19.4852,-30.0324,-1.7016,6.4594,7.4582,0.2490,-15.4634,-9.0871,8.5481,6.0507,0.0273,-8.6816,-19.4441
277.3438,0.5138,-4.5779,-17.8481,-25.6825,-20.6936,-8.2789,-22.6972,-32.9756,2.2002,8.0899,12.0417,4.4587,-16.2966,-8.0404,12.0533,10.6054,1.1581,-5.4423,-20.0835
281.2500,2.5117,-0.0812,-14.6960,-25.2850,-21.3312,-7.5564,-23.7873,-33.1842,6.7302,10.1370,14.6396,6.9784,-17.4650,-8.8023,15.0588,11.9444,-0.6993,-1.3650,-20.3282
285.1562,6.1941,5.4098,-9.5088,-22.6088,-20.5059,-4.9861,-21.6045,-29.6565,11.0670,12.7543,15.3661,7.9968,-17.9113,-10.3622,17.1764,10.3136,-4.7869,3.0147,-19.0256
289.0625,10.7634,10.6386,-2.5486,-17.0504,-17.3887,-0.6193,-15.8642,-22.1405,14.2692,15.7166,14.9167,8.2595,-16.4931,-11.3663,18.3960,7.2597,-9.2808,7.1087,-15.3324
292.9688,14.7967,14.0361,5.0975,-9.0365,-11.9998,4.5797,-7.6064,-11.6834,15.3596,18.1771,13.7933,8.3861,-12.7599,-10.8366,18.7661,4.5846,-12.2616,10.1588,-9.3720
296.8750,16.6597,14.2485,11.6412,-0.1496,-5.4247,8.8519,1.0314,-0.5914,13.5854,18.8733,11.8666,8.4080,-7.3856,-8.6165,18.1583,3.2523,-12.6912,11.2889,-2.4044
300.7812,15.1614,10.7803,15.2449,7.3836,0.5736,10.3514,7.6771,8.3102,8.7969,16.7472,8.5666,7.7330,-1.9934,-5.3629,16.2996,2.9337,-10.8573,9.7823,3.6151
304.6875,10.1644,4.3938,14.8810,11.6075,4.3488,8.1164,10.7659,12.8082,1.7273,11.6259,3.5208,5.5135,1.5563,-2.1503,13.0335,2.4238,-8.0654,5.4767,6.8751
308.5938,2.8117,-3.0327,10.9019,11.6945,5.1341,2.7189,10.1763,12.2570,-6.0546,4.5234,-2.8491,1.2312,2.0485,0.0694,8.5948,0.5909,-5.7992,-0.9400,6.5150
312.5000,-4.8161,-9.2024,4.9649,8.3043,3.3586,-3.8664,7.1160,7.8454,-12.5870,-2.6696,-9.2195,-4.7736,-0.4874,0.8746,3.6863,-2.7972,-4.8669,-7.9285,3.0023
316.4062,-10.5042,-12.3374,-0.6775,3.2696,0.3666,-9.1764,3.3639,2.0178,-16.1884,-7.9715,-13.8472,-11.0999,-4.7647,0.4784,-0.7085,-6.8701,-5.0202,-13.4609,-2.0831
320.3125,-12.8006,-11.8827,-4.1432,-1.2249,-2.2741,-11.4622,0.3466,-2.6543,-16.0554,-10.1489,-15.3496,-15.5935,-8.8033,-0.4715,-3.6637,-10.1215,-5.2218,-15.6521,-6.7178
324.2188,-11.5645,-8.6222,-4.6387,-3.5628,-3.4920,-10.4810,-1.4199,-4.5677,-12.5096,-9.1635,-13.3198,-16.1358,-10.7818,-1.2571,-4.6107,-11.1741,-4.3453,-13.4330,-9.2273
328.1250,-7.9077,-4.1800,-2.6021,-3.2903,-3.1116,-7.4275,-2.2717,-3.6168,-6.8041,-6.0230,-8.4489,-11.6148,-9.7704,-1.4272,-3.4646,-9.3707,-1.8631,-6.9976,-8.8622
332.0312,-3.5819,-0.2097,0.7106,-1.1518,-1.7958,-4.0913,-2.8744,-0.9588,-0.6161,-2.1729,-2.1503,-2.6017,-6.0344,-0.9662,-0.5694,-4.9421,1.8614,2.1678,-5.9751
335.9375,-0.1537,2.2927,3.8865,1.3820,-0.6363,-1.8031,-3.6511,1.7623,4.5330,1.2016,4.0443,8.6758,-0.8313,-0.2549,3.4518,1.1762,5.7881,11.7122,-1.8051
339.8438,1.6166,3.2333,5.8929,2.8198,-0.6318,-0.8313,-4.5364,3.2562,7.7028,3.5981,8.9843,19.1348,4.1423,0.1230,7.8512,7.6489,8.7330,19.1562,1.9877
343.7500,1.9155,3.1858,6.2840,2.2529,-2.2848,-0.5488,-5.1541,3.0564,8.6929,5.1818,12.1050,26.0431,7.3780,-0.3693,11.8888,13.0142,9.8910,22.6632,3.8672
347.6562,1.5387,2.8921,5.1106,-0.3743,-5.4378,-0.1624,-5.2110,1.4661,7.9408,6.4292,13.3647,28.0167,8.0148,-2.0004,14.9656,15.9536,9.0947,21.5571,2.9006
351.5625,1.3173,2.8074,2.7168,-4.3685,-9.3581,0.5606,-4.7870,-0.8583,6.2402,7.6880,13.0588,25.3155,6.0149,-4.6344,16.7654,15.6458,6.7578,16.4138,-0.9339
355.4688,1.6320,2.9048,-0.4195,-8.6484,-13.0103,1.0835,-4.3204,-3.3568,4.3877,8.9103,11.6435,19.3806,2.0740,-7.7145,17.3532,12.1626,3.6261,8.7384,-6.7007
359.3750,2.2502,2.7722,-3.7668,-12.1730,-15.4228,0.5160,-4.3334,-5.7876,2.8703,9.6758,9.6072,11.9989,-2.6443,-10.3904,17.1409,6.6711,0.5104,0.4017,-12.7732
363.2812,2.5199,1.8844,-6.8105,-14.2784,-16.0411,-1.6854,-5.1190,-8.1656,1.7054,9.4550,7.3624,4.6378,-6.8551,-11.7917,16.6760,1.1685,-1.8981,-6.9247,-17.3799
367.1875,1.7789,-0.1160,-9.1719,-14.8402,-14.9418,-5.2563,-6.6044,-10.5540,0.5067,7.9431,5.1501,-1.7418,-9.5078,-11.3866,16.3255,-2.2939,-3.1373,-12.1496,-19.2644
371.0938,-0.2491,-3.2478,-10.7423,-14.2502,-12.8079,-9.2243,-8.4498,-12.8992,-1.2314,5.2817,3.0002,-6.4949,-10.0824,-9.2925,16.0273,-2.5767,-3.0561,-14.8903,-18.1869
375.0000,-3.2631,-7.1637,-11.7256,-13.2359,-10.6436,-12.4715,-10.2719,-15.0113,-3.7578,2.0547,0.8033,-9.0970,-8.7493,-6.3631,15.2828,-0.0617,-1.8834,-15.3886,-15.0160
378.9062,-6.4742,-11.2444,-12.5085,-12.5778,-9.3349,-14.3455,-11.8220,-16.6578,-6.8013,-0.9371,-1.5145,-9.2341,-6.3164,-3.9375,13.4352,3.5109,-0.2274,-14.2975,-11.3278
382.8125,-8.9207,-14.7627,-13.4010,-12.8048,-9.2624,-14.9010,-13.0228,-17.6677,-9.5934,-3.0125,-3.8219,-7.1367,-3.9447,-3.2969,10.1003,5.9484,1.0657,-12.4202,-8.6831
386.7188,-9.8586,-17.0698,-14.4008,-13.9718,-10.1694,-14.6543,-13.8923,-17.9675,-11.2013,-3.8902,-5.7525,-3.8157,-2.7144,-5.0584,5.5057,5.7583,1.2001,-10.4561,-7.9436
390.6250,-9.0551,-17.7537,-15.1428,-15.6214,-11.3579,-14.0889,-14.4506,-17.5573,-11.0034,-3.7701,-6.8692,-0.8612,-3.2158,-8.8213,0.5290,2.8819,-0.2363,-8.8096,-8.9763
394.5312,-6.8583,-16.7239,-15.0822,-16.9677,-12.0964,-13.3026,-14.6783,-16.4809,-9.0336,-3.1706,-6.9334,0.2201,-5.3529,-13.2884,-3.6031,-1.3909,-3.0581,-7.5170,-10.8807
398.4375,-4.0203,-14.1951,-13.7986,-17.2403,-11.9984,-12.0379,-14.5203,-14.8334,-5.9772,-2.6063,-6.0857,-1.2231,-8.4507,-16.8414,-5.8038,-5.2140,-6.5194,-6.3309,-12.5710
402.3438,-1.3597,-10.5826,-11.2324,-16.0319,-11.1566,-10.0260,-13.8912,-12.7866,-2.8091,-2.2837,-4.7904,-4.5936,-11.6011,-18.2895,-5.5520,-7.1572,-9.6060,-4.9325,-13.3529
406.2500,0.5776,-6.3643,-7.7192,-13.4747,-9.9824,-7.3389,-12.6641,-10.5803,-0.2850,-1.9917,-3.5514,-8.2980,-14.0507,-17.3968,-3.0579,-6.7837,-11.4499,-3.1676,-13.1657
410.1562,1.7016,-1.9754,-3.8271,-10.1559,-8.8921,-4.4624,-10.6847,-8.4551,1.4124,-1.2573,-2.5833,-10.5017,-15.4253,-14.9109,0.8789,-4.5845,-11.6643,-1.1666,-12.3992
414.0625,2.3254,2.2225,-0.1269,-6.8271,-8.0651,-2.0350,-7.8630,-6.5632,2.6686,0.3199,-1.6673,-9.9403,-15.6989,-12.0967,5.2077,-1.4560,-10.4452,0.7317,-11.4690
417.9688,2.9175,5.9127,2.9656,-4.0754,-7.4258,-0.4563,-4.3290,-4.9341,4.0910,2.7524,-0.3095,-6.3644,-14.9808,-10.0520,8.9860,1.8447,-8.4073,2.2054,-10.4725
421.8750,3.7942,8.7935,5.2246,-2.1357,-6.8199,0.3446,-0.5468,-3.5351,6.0495,5.5611,1.8879,-0.4803,-13.3034,-9.1896,11.6158,4.9242,-6.2567,3.1699,-9.1512
425.7812,4.9159,10.5983,6.5809,-0.9199,-6.2138,0.8239,2.7447,-2.3828,8.3830,7.9554,4.8791,6.4419,-10.5727,-9.1414,12.9080,7.6178,-4.4663,3.8298,-7.1531
429.6875,5.8895,11.1744,7.1063,-0.1944,-5.7427,1.5017,4.8062,-1.6037,10.4388,9.1974,8.0808,13.0067,-6.7078,-9.0810,13.0035,9.7323,-3.1039,4.5172,-4.3738
433.5938,6.1719,10.5747,7.0428,0.2449,-5.5641,2.6390,5.2690,-1.3634,11.4106,8.9491,10.6033,18.0143,-1.8557,-8.2306,12.2217,10.9445,-1.8705,5.4271,-1.1131
437.5000,5.3665,9.0934,6.8114,0.5188,-5.6384,4.1139,4.3732,-1.6924,10.7731,7.4152,11.6763,20.6828,3.4979,-6.2535,10.9037,10.9519,-0.3092,6.4487,2.0632
441.4062,3.4612,7.2023,6.9137,0.7328,-5.6307,5.5302,2.8880,-2.3416,8.5799,5.2202,11.0266,20.8437,8.6217,-3.3462,9.3028,9.7389,1.9283,7.2274,4.6487
445.3125,0.8869,5.4022,7.7072,1.0525,-5.0420,6.4287,1.7146,-2.8146,5.4748,3.1044,8.9983,19.0729,12.7957,-0.0493,7.5507,7.7240,4.8869,7.4194,6.4649
449.2188,-1.6422,4.0455,9.1534,1.6677,-3.5146,6.4416,1.3845,-2.6172,2.4165,1.6044,6.3604,16.5866,15.5706,3.0565,5.7032,5.6512,8.2697,6.9458,7.6756
453.1250,-3.4413,3.2075,10.7058,2.6179,-1.1185,5.3294,1.7557,-1.6000,0.2478,0.8632,3.9098,14.7715,16.8673,5.5762,3.8287,4.2819,11.5674,6.0399,8.5391
457.0312,-4.1850,2.6568,11.4547,3.5999,1.5754,2.9657,2.0954,-0.1690,-0.6976,0.6279,2.0832,14.4683,16.8648,7.3495,2.0752,4.0770,14.2793,5.0294,9.0782
460.9375,-4.0944,1.9431,10.5026,3.9366,3.6993,-0.6254,1.5082,0.8171,-0.7661,0.4038,0.7762,15.3994,15.7716,8.3537,0.6594,5.0370,16.1073,4.0102,8.9172
464.8438,-3.8690,0.5811,7.3986,2.8166,4.4684,-5.1555,-0.5450,0.4586,-0.8320,-0.3142,-0.5329,16.1838,13.6566,8.5698,-0.2290,6.7441,17.0141,2.6777,7.4285
468.7500,-4.3589,-1.7210,2.4126,-0.2637,3.5371,-9.9750,-3.9307,-1.6673,-1.8534,-1.8089,-2.4041,15.0752,10.4701,7.9250,-0.5441,8.5298,17.1235,0.4923,4.1301
472.6562,-6.1023,-4.8706,-3.4965,-5.0894,1.1572,-14.1305,-7.8882,-5.1822,-4.3171,-3.9748,-4.9893,11.0779,6.2437,6.3524,-0.4261,9.6718,16.5380,-2.8819,-0.8918
476.5625,-8.9473,-8.3264,-9.0072,-10.6135,-1.9181,-16.6354,-11.3802,-8.9845,-7.8503,-6.2754,-7.7654,4.7630,1.3276,3.9309,-0.1165,9.5769,15.2143,-7.1509,-6.7974
480.4688,-11.9784,-11.2276,-12.9108,-15.2704,-4.7201,-16.8611,-13.5362,-11.7209,-11.2454,-7.8718,-9.6394,-1.7913,-3.5255,1.0088,0.2133,7.9572,13.0076,-11.3023,-12.1831
484.3750,-13.8397,-12.7044,-14.5304,-17.6062,-6.4090,-14.8442,-13.9710,-12.4174,-12.9620,-7.9188,-9.4408,-5.9934,-7.3320,-1.7889,0.6032,4.9906,9.8768,-13.9862,-15.5905
488.2812,-13.3468,-12.2585,-13.9235,-16.9288,-6.5573,-11.3241,-12.8632,-10.9449,-11.9027,-5.9425,-6.5928,-6.1293,-9.2525,-3.7195,1.3019,1.3868,6.1138,-14.1891,-16.1069
492.1875,-10.1022,-10.0314,-11.8045,-13.6440,-5.2925,-7.4632,-10.8168,-8.0805,-8.0620,-2.1335,-1.5972,-2.3312,-8.9905,-4.2186,2.6021,-1.7554,2.4026,-11.8106,-13.7832
496.0938,-4.7858,-6.7986,-9.2371,-9.1090,-3.2721,-4.3785,-8.6031,-5.1417,-2.6642,2.6153,3.9849,3.4492,-7.0058,-3.2096,4.6081,-3.3357,-0.4042,-7.7852,-9.6765
500.0000,1.0599,-3.6612,-7.2259,-5.0787,-1.4925,-2.7082,-6.8872,-3.3888,2.3377,6.9945,8.1252,8.4278,-4.4268,-1.2675,7.0868,-2.7671,-1.7188,-3.6615,-5.4999
503.9062,5.6718,-1.5755,-6.3724,-3.0256,-0.9728,-2.4180,-6.0165,-3.4963,5.1585,9.7831,9.2229,10.3319,-2.6912,0.4903,9.4953,-0.3630,-1.6241,-0.8817,-3.0278
507.8125,7.8179,-0.9686,-6.7329,-3.6479,-2.4007,-2.9178,-5.9236,-5.3379,4.9878,10.3305,6.8214,8.3359,-3.0600,0.7950,11.1657,2.6548,-0.9718,-0.1759,-3.4997
511.7188,7.2787,-1.6512,-7.9266,-6.7509,-5.8575,-3.4137,-6.1862,-8.1549,2.2665,8.7731,1.7494,3.1508,-6.1872,-1.2427,11.5370,4.6028,-1.0437,-1.3961,-7.2387
515.6250,4.8295,-3.0557,-9.4234,-11.4700,-10.7381,-3.3159,-6.2424,-10.9797,-1.6826,5.8857,-4.3713,-3.6158,-11.8744,-5.6938,10.3262,4.0696,-2.8991,-3.8135,-13.5842
519.5312,1.7757,-4.6267,-10.8358,-16.6451,-15.9087,-2.5105,-5.6929,-13.0711,-5.3962,2.6803,-9.9203,-10.3050,-19.0615,-11.6797,7.6028,0.5903,-6.7459,-6.6158,-21.1062
523.4375,-0.6731,-6.0940,-12.0357,-21.1331,-20.0483,-1.3731,-4.5442,-14.1427,-7.9077,-0.0031,-13.8741,-15.7309,-26.0419,-17.6219,3.7997,-5.0661,-11.6972,-9.2482,-27.9762
527.3438,-1.8549,-7.4499,-13.0225,-23.9561,-22.0385,-0.5246,-3.2424,-14.2974,-8.9336,-1.6985,-15.8865,-19.1999,-30.8577,-21.7671,-0.3095,-11.1403,-16.0839,-11.4038,-32.3721
531.2500,-1.7440,-8.6763,-13.6439,-24.3325,-21.2561,-0.4564,-2.4433,-13.7591,-8.6057,-2.2610,-15.9322,-20.2458,-31.8098,-22.7610,-3.6984,-15.5417,-18.1897,-12.7580,-32.8469
535.1562,-0.7326,-9.4596,-13.3995,-21.7191,-17.6842,-1.2248,-2.6243,-12.5990,-7.0658,-1.6924,-13.9213,-18.4676,-27.9791,-20.0450,-5.3085,-16.6311,-17.0345,-12.7458,-28.6458
539.0625,0.6820,-9.1624,-11.5358,-15.9557,-11.8486,-2.3941,-3.7646,-10.6454,-4.2921,-0.0409,-9.6796,-13.6882,-19.6014,-13.9603,-4.4108,-13.8054,-12.8014,-10.6484,-19.9509
542.9688,2.0945,-7.1440,-7.4567,-7.4746,-4.6458,-3.2782,-5.3042,-7.6435,-0.2942,2.5310,-3.3564,-6.3173,-8.1253,-5.5869,-0.9780,-7.6786,-6.6984,-6.0100,-7.9809
546.8750,3.2122,-3.2596,-1.2344,2.5743,2.8601,-3.3566,-6.4314,-3.5640,4.5188,5.5887,4.0963,2.4360,4.1469,3.5742,4.1626,0.1743,-0.3575,0.8733,5.1667
550.7812,3.7927,1.8019,6.1162,12.4433,9.6296,-2.6145,-6.5397,1.1440,9.1632,8.3689,10.8758,10.7884,14.7690,11.9606,9.5732,7.7846,4.8931,8.7642,16.9957
554.6875,3.6418,6.6231,12.8492,20.2000,14.8170,-1.5758,-5.5743,5.5443,12.3361,9.9633,14.9523,17.0268,21.9541,18.2784,13.7965,13.4515,8.5038,15.8071,25.3282
558.5938,2.7209,9.6300,17.1523,24.3110,17.9081,-0.9777,-4.0511,8.5083,13.0161,9.7027,15.0948,20.2235,25.1226,21.7660,15.9939,16.2608,10.7193,20.2554,29.0010
562.5000,1.2764,9.8491,17.9447,24.1549,18.8041,-1.2731,-2.7309,9.1969,11.0352,7.5253,11.6513,20.5750,24.9337,22.3482,16.2421,16.2803,12.1992,21.2152,28.2177
566.4062,-0.1635,7.4244,15.3741,20.2322,17.8180,-2.2873,-2.1477,7.4976,7.2341,4.0778,6.5000,19.1354,22.7843,20.6233,15.2880,14.3645,13.5096,18.9821,24.3480
570.3125,-1.0029,3.5767,10.7307,13.9708,15.5723,-3.2862,-2.2813,4.1870,3.0671,0.4479,2.0890,17.0996,20.0447,17.6443,13.9159,11.6633,14.7895,14.7767,19.2410
574.2188,-0.9195,-0.0011,5.8195,7.2130,12.8175,-3.4520,-2.5682,0.7078,-0.1208,-2.3443,0.0898,15.0856,17.4335,14.5388,12.3665,9.0616,15.7498,10.0466,14.3894
578.1250,-0.1205,-1.9988,2.1307,1.5957,10.2249,-2.4772,-2.2452,-1.3735,-1.7246,-3.8072,0.4831,12.8615,14.8471,12.0975,10.2273,6.8249,15.9451,5.7505,10.3703
582.0312,0.6831,-2.1341,0.2406,-1.9423,8.2065,-0.8777,-0.8217,-1.0165,-2.0733,-4.1310,1.6479,9.6669,11.6782,10.5102,6.8904,4.6274,15.1030,2.0290,6.8338
585.9375,0.6181,-1.2469,-0.2830,-3.3729,6.8034,0.2219,1.5841,1.8076,-2.1282,-3.9660,1.4035,4.8888,7.3725,9.3644,2.2491,1.9317,13.2853,-1.5933,2.9871
589.8438,-0.8610,-0.7981,-0.4867,-3.4762,5.6687,-0.2603,4.2293,6.0129,-2.9082,-3.9856,-1.6404,-1.3644,1.8602,7.8991,-2.8940,-1.5167,10.7920,-5.6565,-1.7595
593.7500,-3.6155,-2.0519,-1.4098,-3.4861,4.1672,-2.6641,6.0595,9.7574,-4.9755,-4.5098,-7.2348,-8.1567,-4.3779,5.3794,-7.0569,-5.3935,7.9044,-10.2399,-7.3755
597.6562,-6.8154,-5.3701,-3.5635,-4.6046,1.6014,-6.2805,6.1987,11.1535,-8.2095,-5.3924,-13.6119,-14.1284,-10.5832,1.4189,-8.8482,-8.8921,4.6734,-14.7804,-13.2292
601.5625,-9.2976,-9.9773,-6.7319,-7.5306,-2.4725,-9.6487,4.3781,9.0639,-11.9044,-6.1922,-18.4410,-18.1227,-16.0855,-3.8693,-7.7801,-11.1590,0.9283,-18.3153,-18.4551
605.4688,-10.1008,-14.3006,-10.1216,-12.1537,-7.9437,-11.2942,1.1022,3.6428,-15.0701,-6.4718,-20.0147,-19.6398,-20.4984,-9.9064,-4.5777,-11.7849,-3.4764,-19.9699,-22.3811
609.3750,-8.8929,-16.6967,-12.7375,-17.5414,-14.0191,-10.4806,-2.5355,-3.6461,-16.7880,-6.0199,-18.0066,-18.8883,-23.6501,-15.8080,-0.7672,-11.0309,-8.3386,-19.3992,-24.7468
613.2812,-6.0806,-16.2001,-13.8050,-22.2668,-19.3931,-7.5497,-5.3144,-10.5914,-16.5106,-4.8850,-13.4662,-16.4995,-25.3857,-20.5954,2.1826,-9.6349,-12.9497,-16.9597,-25.6418
617.1875,-2.5739,-12.9388,-13.0839,-24.9839,-22.7095,-3.6874,-6.4251,-15.1586,-14.2494,-3.2576,-8.1775,-13.1771,-25.4724,-23.4177,3.6051,-8.3280,-16.2600,-13.5674,-25.3009
621.0938,0.6416,-8.0454,-10.9821,-25.0194,-23.1341,-0.2933,-5.8325,-16.3590,-10.6012,-1.3336,-3.8091,-9.5264,-23.7395,-23.7645,3.8138,-7.3846,-17.3275,-10.3553,-23.9612
625.0000,2.8912,-3.1462,-8.4390,-22.6939,-20.7569,1.6646,-4.2786,-14.6356,-6.5823,0.7259,-1.2902,-6.0957,-20.3688,-21.6332,3.6691,-6.5089,-15.8159,-8.2988,-21.8790
628.9062,3.9770,0.2972,-6.6085,-19.1848,-16.5926,1.9703,-2.9150,-11.5676,-3.2923,2.7255,-0.6336,-3.4557,-16.0901,-17.5857,3.9052,-5.1269,-12.2446,-7.9357,-19.4306
632.8125,4.0833,1.4774,-6.4417,-15.9738,-12.1571,1.0434,-2.7454,-9.0474,-1.5286,4.3477,-1.1707,-2.1195,-12.0678,-12.6302,4.6985,-2.8740,-7.8200,-9.2362,-17.1391
636.7188,3.5220,0.3701,-8.3213,-14.1559,-8.8329,-0.4665,-4.1730,-8.3670,-1.5342,5.1616,-2.0022,-2.2804,-9.4712,-7.9286,5.7250,0.0662,-3.9143,-11.6341,-15.5306
640.6250,2.4907,-2.4803,-11.9004,-13.9800,-7.3533,-2.0978,-6.8881,-9.6959,-3.0105,4.7737,-2.4432,-3.5650,-8.9509,-4.4289,6.5655,3.0059,-1.4715,-14.2111,-14.8919
644.5312,0.9860,-6.3218,-16.2228,-14.8617,-7.6516,-3.7741,-10.1347,-12.1906,-5.3725,3.0574,-2.2913,-5.0624,-10.3270,-2.5812,7.0796,5.1456,-0.6633,-16.0053,-15.1031
648.4375,-1.0855,-10.4638,-20.0681,-15.8268,-9.0929,-5.7051,-13.1566,-14.6040,-8.0584,0.3233,-1.8331,-5.7164,-12.6753,-2.2684,7.4487,6.0365,-0.9705,-16.3559,-15.6862
652.3438,-3.6773,-14.3160,-22.3533,-16.0856,-10.8843,-8.0852,-15.5200,-15.9818,-10.6725,-2.6928,-1.5979,-4.8817,-14.7503,-2.9659,7.8942,5.7951,-1.6086,-15.1370,-16.0495
656.2500,-6.4071,-17.2509,-22.4044,-15.3739,-12.3962,-10.7726,-17.1059,-16.0280,-12.8800,-5.0495,-1.9704,-2.6766,-15.5005,-4.0260,8.3570,4.9413,-2.0197,-12.7457,-15.7584
660.1562,-8.5394,-18.4797,-20.0082,-13.8773,-13.2475,-13.1329,-17.8167,-14.9799,-14.1876,-5.9424,-2.8590,0.1336,-14.4094,-4.9282,8.4509,4.0063,-2.1329,-9.8163,-14.6499
664.0625,-9.2028,-17.1385,-15.2994,-11.8534,-13.2072,-14.1553,-17.2699,-13.1736,-13.8712,-5.0091,-3.6222,2.6634,-11.5468,-5.3866,7.7680,3.2143,-2.2606,-6.8032,-12.7385
667.9688,-7.7675,-12.6383,-8.6357,-9.2820,-12.0941,-12.8341,-14.7875,-10.6722,-11.2257,-2.4618,-3.3386,4.4798,-7.4008,-5.3142,6.3031,2.4728,-2.7362,-3.6938,-10.0388
671.8750,-4.2083,-5.1306,-0.5890,-5.8423,-9.8169,-8.6853,-9.7894,-7.2464,-6.0606,1.0061,-1.3155,5.8111,-2.6582,-4.7308,4.6382,1.6489,-3.5563,-0.0702,-6.5025
675.7812,0.7378,4.1891,7.9480,-1.2683,-6.5385,-2.1724,-2.3852,-2.7103,0.8743,4.4772,2.4350,7.2406,1.9465,-3.7094,3.6851,0.8791,-4.2739,4.4654,-2.1670
679.6875,5.7279,13.1855,15.6789,4.1647,-2.8030,5.2009,6.2397,2.6609,7.8764,7.1077,7.0349,9.1163,5.7041,-2.3939,4.1128,0.6186,-4.2153,9.7417,2.5764
683.5938,9.2455,19.3597,21.0249,9.4046,0.5387,11.2693,13.9901,7.9722,12.8182,8.3425,11.0191,11.1251,7.9937,-1.0466,5.8441,1.3360,-2.8885,14.7224,6.8292
687.5000,10.1402,20.7143,22.5293,12.8826,2.6334,13.9814,18.6058,11.9743,14.0035,7.9969,12.9327,12.3620,8.3890,-0.0527,7.9902,3.0521,-0.3360,17.7328,9.3477
691.4062,8.0528,16.5571,19.4364,13.1964,3.0026,12.2714,18.6494,13.6196,10.9218,6.2285,11.9562,11.8656,6.7820,0.1577,9.3146,5.0825,2.7756,17.1852,9.0213
695.3125,3.5595,7.8873,12.1745,9.8517,1.7619,6.6079,14.2111,12.5745,4.5096,3.4670,8.2640,9.2534,3.4460,-0.7511,8.9577,6.2438,5.3810,12.4552,5.4413
699.2188,-2.0115,-2.8345,2.4562,3.6291,-0.4637,-1.0941,6.9350,9.3786,-3.1999,0.3473,2.9783,5.0293,-1.0155,-2.8788,6.9743,5.4741,6.4455,4.4246,-0.7615
703.1250,-7.0070,-12.4730,-7.1419,-3.6564,-2.8781,-8.2165,-0.6673,5.1656,-9.8373,-2.3617,-2.2253,0.3779,-5.8095,-6.0054,4.3418,2.5113,5.3969,-4.6515,-8.0272
707.0312,-9.9575,-18.2729,-14.0090,-9.8906,-4.8947,-12.5118,-6.2645,1.1287,-13.4991,-3.8827,-5.6739,-3.3822,-10.1028,-9.5944,2.4329,-1.8057,2.3794,-11.9407,-14.3993
710.9375,-10.0034,-18.7770,-16.4081,-13.5063,-6.3323,-12.9907,-8.5912,-1.9614,-13.2714,-3.6314,-6.2178,-5.3167,-13.1192,-12.8819,2.2747,-5.8354,-1.7558,-15.1283,-18.2237
714.8438,-7.1163,-14.2524,-14.0647,-14.0184,-7.3330,-10.1912,-7.7683,-3.9423,-9.3499,-1.4463,-3.5686,-5.0810,-14.1991,-15.0351,4.0367,-7.8828,-5.7050,-13.2892,-18.6859
718.7500,-2.0663,-6.4643,-8.1715,-12.0227,-8.0959,-5.7271,-4.9801,-5.1112,-2.8190,2.2776,1.6297,-2.7974,-12.8886,-15.3568,7.0314,-6.9793,-8.1154,-7.1477,-15.9697
722.6562,3.8448,2.0951,-0.8145,-8.7391,-8.6308,-1.3979,-1.7588,-5.8944,4.7600,6.6676,8.0244,1.1811,-9.1010,-13.4949,10.1808,-3.2682,-8.0119,1.3422,-11.0323
726.5625,9.2010,9.1863,5.8984,-5.3998,-8.7047,1.6449,0.7197,-6.5567,11.8059,10.6841,14.0233,6.3942,-3.2927,-9.5917,12.6270,2.1650,-5.1178,9.8251,-5.1743
730.4688,12.9036,13.5836,10.5873,-2.8099,-8.0084,3.2465,2.0004,-7.1003,17.1096,13.5312,18.3529,12.2302,3.4831,-4.3029,14.1004,7.8449,0.0328,16.3584,0.3646
734.3750,14.4654,15.2962,12.8911,-1.2498,-6.4228,3.9970,2.2759,-7.3607,20.0660,14.9447,20.4620,17.8456,9.7643,1.3511,14.8475,12.4842,6.2400,19.8683,4.6331
738.2812,14.0563,15.1938,13.2215,-0.6641,-4.2007,4.6079,2.0149,-7.1933,20.6749,15.1796,20.5553,22.2189,14.0997,6.2716,15.2194,15.3029,12.0076,20.1507,7.0118
742.1875,12.2909,14.2826,12.2017,-0.9271,-1.9309,5.3333,1.5567,-6.6110,19.3143,14.6999,19.2297,24.3820,15.5383,9.6049,15.2456,16.0355,16.0166,17.5717,7.1785
746.0938,9.8734,13.0566,10.1792,-1.9715,-0.2855,5.7810,0.9083,-5.7842,16.4131,13.7753,16.9425,23.7129,13.9586,10.9788,14.5107,14.7840,17.5279,12.7408,5.1111
750.0000,7.2890,11.2950,7.1298,-3.7006,0.3261,5.1925,-0.1631,-4.9083,12.2360,12.2685,13.6910,20.1337,10.0843,10.5661,12.4387,11.9064,16.5640,6.3676,1.1739
753.9062,4.7028,8.4082,2.9959,-5.7715,0.0122,2.9911,-1.8250,-4.0219,6.9491,9.7875,9.1770,14.1529,5.2022,8.9642,8.8001,8.0011,13.8090,-0.6739,-3.7821
757.8125,2.0996,4.0956,-1.8063,-7.4505,-0.5846,-0.7458,-3.8634,-2.8946,0.9371,6.1210,3.3878,6.8122,0.7339,6.9507,4.0954,3.8908,10.2900,-7.2257,-8.4380
761.7188,-0.4559,-1.1187,-6.1223,-7.7141,-0.5490,-5.1619,-5.5718,-1.0817,-4.8790,1.6597,-2.8226,-0.3933,-2.1512,5.2078,-0.4650,0.4787,6.9929,-11.8842,-11.2546
765.6250,-2.6390,-5.8519,-8.3231,-5.6313,0.8626,-8.9111,-5.9596,1.8394,-9.0533,-2.5262,-7.6627,-5.6639,-2.7786,4.1016,-3.4146,-1.5307,4.5678,-13.3125,-10.9424
769.5312,-3.9130,-8.4076,-7.0458,-0.8802,3.7914,-10.7025,-4.2202,5.9386,-10.1076,-5.0796,-9.0666,-7.2526,-1.0679,3.5778,-3.6730,-1.8957,3.2172,-10.7536,-7.0032
773.4375,-3.7989,-7.6251,-2.0233,5.8690,7.5716,-9.8337,-0.2377,10.6779,-7.3181,-5.0340,-5.8115,-4.0926,2.4657,3.2067,-1.0232,-0.8908,2.7585,-4.4973,-0.0943
777.3438,-2.2016,-3.5571,5.5007,12.9479,10.8838,-6.4764,5.1510,14.9032,-1.3313,-2.3781,1.5721,3.5036,6.7952,2.3756,3.8176,0.9186,2.7883,3.9799,8.0031
781.2500,0.4237,2.4202,13.0816,18.1500,12.2320,-1.6096,10.3332,17.1589,5.8449,1.8487,10.7272,13.5108,10.5867,0.5744,9.5257,3.0332,2.8639,12.3561,14.8749
785.1562,3.1931,8.1499,18.0247,19.5107,10.5543,3.3462,13.5195,16.2339,11.5946,6.0166,18.3950,22.6357,12.5463,-2.3370,14.6760,5.2504,2.6464,18.2060,18.2770
789.0625,5.1598,11.6214,18.5229,16.0903,5.6912,7.0393,13.5157,11.7120,13.8534,8.6704,21.8955,27.5614,11.8404,-6.0156,18.1651,7.5932,1.9853,19.8485,16.9340
792.9688,5.7344,11.8193,14.4230,8.4138,-1.5045,8.6527,10.2973,4.2577,12.0558,9.1744,20.3600,26.4678,8.4197,-9.7605,19.4188,10.0044,0.9413,16.9403,11.0064
796.8750,4.9410,9.0902,7.2565,-1.6362,-9.4632,8.1651,5.0870,-4.5141,7.3471,7.8987,15.0497,19.9893,3.0714,-12.8384,18.4197,12.0772,-0.2592,10.5621,2.0329
800.7812,3.3858,4.8882,-0.4416,-11.4382,-16.4559,6.3182,-0.1290,-12.5479,1.9559,5.8967,8.6214,10.9738,-2.8636,-14.8407,15.6599,13.0921,-1.3353,2.7812,-7.6120
804.6875,1.9667,1.0648,-6.1701,-18.5097,-21.1580,4.2928,-3.4301,-18.0227,-1.9071,4.3082,3.7868,3.0745,-7.9875,-15.8585,12.0587,12.4027,-2.0985,-4.1055,-15.5097
808.5938,1.4725,-0.9440,-8.3774,-21.3046,-22.9923,3.2006,-3.7526,-19.9224,-3.0235,3.8384,2.0901,-1.0764,-11.3159,-16.3558,8.7801,9.9235,-2.5688,-8.3315,-19.9313
812.5000,2.2480,-0.6747,-6.9119,-19.6496,-22.1579,3.5841,-1.2880,-18.3038,-1.5466,4.5524,3.3828,-1.0713,-12.5072,-16.8069,6.8828,6.3515,-2.9814,-9.1540,-20.2717
816.4062,4.0544,1.2680,-2.9154,-14.7056,-19.4099,5.1445,2.6618,-14.2110,1.3080,6.0037,6.1417,1.3697,-11.7885,-17.3263,6.8688,2.9063,-3.6502,-6.9555,-17.0915
820.3125,6.1665,3.5702,1.7012,-8.5115,-15.7330,6.8509,6.2631,-9.3109,3.9902,7.5356,8.3535,3.6785,-9.6944,-17.5373,8.3734,0.7104,-4.7406,-2.9831,-11.8159
824.2188,7.6695,4.8416,4.9608,-3.2892,-12.0479,7.4217,7.8790,-5.3827,5.3469,8.5647,8.4957,4.0738,-6.8070,-16.7783,10.2708,0.2018,-6.0768,1.1438,-6.2280
828.1250,7.8519,4.2461,5.4765,-0.7321,-9.0173,5.9768,6.6430,-3.7946,5.0404,8.7484,6.1995,2.5508,-3.6292,-14.5246,11.2603,0.9684,-7.1215,3.9915,-1.9190
832.0312,6.5490,1.8711,2.8932,-1.4869,-6.9595,2.5414,2.6921,-5.0888,3.5620,8.0445,2.3847,0.6837,-0.5915,-10.7594,10.6590,2.1097,-7.1850,4.7770,0.1518
835.9375,4.2811,-1.3193,-1.9944,-4.9888,-5.8552,-1.8807,-2.9644,-8.7907,1.9302,6.7108,-1.1406,0.4600,1.9050,-6.0646,8.9026,2.8650,-5.7817,3.5967,-0.1367
839.8438,2.0811,-3.9319,-7.5003,-9.7151,-5.4352,-5.7396,-8.8318,-13.5353,1.2325,5.2489,-2.4609,2.9260,3.5004,-1.3807,7.3616,3.0641,-2.9487,1.3258,-2.1578
843.7500,1.0358,-4.7977,-11.6424,-13.7875,-5.3279,-7.6796,-13.4171,-17.5218,2.1629,4.2587,-0.4408,7.4677,3.9584,2.4093,7.5028,3.0956,0.6705,-0.8028,-4.8861
847.6562,1.7259,-3.5323,-12.8976,-15.7038,-5.2150,-7.2050,-15.6686,-19.1666,4.6877,4.1974,4.6372,12.0972,3.2582,4.8307,9.8940,3.4461,4.0593,-1.7899,-7.3545
851.5625,3.8522,-0.7263,-10.8266,-14.8930,-4.9183,-4.9077,-15.2585,-17.6915,7.9689,5.1234,11.0130,14.5053,1.6235,5.9339,13.7158,4.1811,6.2830,-1.3635,-9.0063
855.4688,6.2887,2.3371,-6.2736,-11.8347,-4.3655,-2.1325,-12.6352,-13.3721,10.6262,6.5811,16.0960,13.2498,-0.5301,6.1687,17.1488,4.7757,6.9340,-0.1033,-9.7754
859.3750,7.5922,4.2968,-1.0089,-7.6831,-3.4655,-0.2699,-8.8288,-7.3121,11.2945,7.7389,17.5981,8.4538,-2.6944,6.1354,18.4223,4.4453,6.3189,0.9016,-9.8810
863.2812,6.7284,4.3443,3.0554,-3.6011,-2.0030,-0.0790,-5.0626,-0.8690,9.2570,7.7543,14.6202,1.7153,-4.3664,6.3511,16.8436,2.7444,5.2756,0.7053,-9.5006
867.1875,3.6158,2.5389,4.7080,-0.1806,0.3217,-1.4134,-2.3058,4.9454,4.8326,6.1779,8.0990,-4.6514,-5.1313,7.1028,13.1240,-0.0033,4.7096,-0.9027,-8.5595
871.0938,-0.8336,-0.3378,3.9248,2.7133,3.6757,-3.4692,-0.9504,9.7477,-0.7258,3.1597,0.3306,-8.6338,-4.7413,8.3811,8.8008,-2.7787,5.1055,-3.2265,-6.7946
875.0000,-5.2103,-3.2706,1.7549,5.5929,7.8137,-5.3602,-0.7584,13.6130,-5.8058,-0.6583,-6.1883,-9.3208,-3.1950,9.8743,5.1890,-4.4274,6.2866,-5.0410,-4.0441
878.9062,-8.3429,-5.5366,-0.3169,8.7317,11.9383,-6.6423,-1.1093,16.6147,-9.1762,-4.4788,-9.9379,-7.1461,-0.7753,11.0317,2.6190,-4.3461,7.5554,-5.3000,-0.5462
882.8125,-9.8247,-6.9627,-1.1792,11.7016,14.8577,-7.4703,-1.4177,18.4297,-10.4721,-7.6809,-10.8949,-3.5019,2.0060,11.2222,0.4919,-2.8375,8.1245,-3.7427,2.9945
886.7188,-10.0272,-7.8064,-0.6449,13.3986,15.4239,-8.3331,-1.4946,18.3185,-10.1559,-9.9448,-10.1405,0.0570,4.5670,9.9698,-1.9302,-0.8992,7.5760,-1.0220,5.6518
890.6250,-9.6366,-8.3970,0.5305,12.5795,13.0403,-9.5840,-1.6418,15.5284,-9.0302,-11.1415,-8.8948,2.5936,6.4410,7.1722,-4.6315,0.4136,6.0733,1.7084,6.6913
894.5312,-9.0705,-8.8175,1.1338,8.6001,7.9606,-11.1028,-2.4224,9.8682,-7.6652,-11.1545,-7.6752,4.1242,7.3698,3.1681,-6.5588,0.6335,4.2048,3.4622,5.8851
898.4375,-8.1989,-8.8521,0.1923,1.9054,1.2067,-12.3141,-4.2370,2.0709,-6.1418,-9.8393,-6.1387,5.3190,7.2445,-1.4099,-6.2072,0.1216,2.5738,3.8983,3.5334
902.3438,-6.5574,-8.2166,-2.4946,-6.0320,-5.8438,-12.5354,-6.9634,-6.3218,-4.2552,-7.1918,-3.6527,6.7651,5.9609,-5.9232,-2.6809,-0.2254,1.4101,3.3230,0.2161
906.2500,-3.8767,-6.8780,-6.2456,-13.2902,-11.9648,-11.4166,-9.8873,-13.5194,-1.9708,-3.5795,-0.0979,8.3086,3.3562,-9.9718,3.5290,0.4146,0.4650,2.2784,-3.5158
910.1562,-0.5029,-5.2030,-9.8191,-18.2598,-16.4187,-9.1808,-11.9852,-18.1845,0.2722,0.2140,3.7536,8.9939,-0.6421,-13.4314,10.6341,2.2759,-0.7375,1.0767,-7.2722
914.0625,2.6412,-3.7952,-11.9588,-20.1792,-19.0016,-6.5240,-12.4113,-19.8995,1.7016,3.2739,6.6181,7.7439,-5.7004,-16.2720,16.4834,4.9067,-2.4624,-0.3438,-10.7136
917.9688,4.5758,-3.1088,-11.8791,-19.2153,-19.8671,-4.2457,-10.9152,-19.1807,1.7429,5.0499,7.5931,4.3798,-10.8360,-18.3224,19.7406,7.5157,-4.4453,-2.1353,-13.3516
921.8750,4.9173,-3.0984,-9.4871,-16.1551,-19.3150,-2.8410,-7.9584,-17.0911,0.5620,5.7337,6.9150,0.2412,-14.5245,-19.1956,20.5381,9.4947,-5.9355,-4.0818,-14.5073
925.7812,4.1920,-3.1667,-5.3151,-11.9782,-17.6891,-2.2881,-4.4750,-14.7153,-0.8171,6.2032,5.9877,-2.1766,-15.2487,-18.4711,20.2050,10.7551,-6.1045,-5.3900,-13.5608
929.6875,3.5459,-2.4885,-0.2791,-7.5693,-15.3880,-2.1314,-1.4305,-12.7775,-0.9930,7.4866,6.5779,-0.5269,-12.2659,-16.0128,20.2862,11.6641,-4.5737,-4.9935,-10.3743
933.5938,4.0002,-0.5456,4.5827,-3.6503,-12.8754,-1.7934,0.5648,-11.5412,0.9717,10.0419,9.6530,5.8679,-6.1441,-12.1708,21.5098,12.6552,-1.7155,-2.2489,-5.5903
937.5000,5.7314,2.4517,8.3022,-0.8179,-10.5864,-0.9332,1.3896,-10.9362,4.8690,13.3249,14.6090,15.2753,1.3168,-7.6762,23.3515,13.8111,1.4884,2.4369,-0.5320
941.4062,7.8669,5.5369,10.1183,0.4822,-8.7387,0.3386,1.2679,-10.7490,9.2842,15.9712,19.4187,24.1787,7.8239,-3.2701,24.4215,14.7258,3.9665,7.5343,3.3180
945.3125,8.9668,7.4146,9.6122,0.1040,-7.1865,1.4921,0.4984,-10.7420,12.2545,16.5374,21.6667,29.0109,11.6159,0.6721,23.3775,14.7539,5.1367,11.0314,4.9952
949.2188,7.9163,7.1343,6.8577,-1.6338,-5.4722,1.8465,-0.7393,-10.6758,12.3042,14.3698,19.8899,27.9979,12.1962,4.2322,19.7839,13.4778,5.1791,11.4690,4.4880
953.1250,4.6812,4.6395,2.5090,-3.9506,-3.1098,0.9496,-2.3816,-10.3039,9.2709,10.0658,14.4500,22.0068,10.3600,7.6624,14.4279,11.0678,4.8272,8.7577,2.6638
957.0312,0.4531,0.8753,-2.2891,-5.8633,0.0419,-1.1115,-4.3213,-9.4129,4.4459,5.2335,7.4372,13.9082,7.5411,10.9247,8.9636,8.2728,4.8150,4.2574,0.7349
960.9375,-2.9171,-2.6257,-6.2243,-6.6024,3.5600,-3.6385,-6.2484,-7.9086,-0.0571,1.6861,1.6529,6.8984,4.9217,13.4226,5.1258,6.0254,5.3477,0.0476,-0.4047
964.8438,-3.8741,-4.4706,-8.2772,-5.9410,6.5696,-5.5606,-7.6383,-5.8755,-2.3596,0.5471,-0.7744,2.8530,2.8736,14.1864,3.9400,4.9047,5.9508,-2.1876,-0.5717
968.7500,-1.9624,-4.0601,-8.0984,-4.2236,8.1667,-5.9080,-7.9209,-3.5317,-1.7319,1.7699,0.5914,1.6830,1.0398,12.4568,5.2912,4.8020,5.8065,-1.9970,-0.2088
972.6562,1.9485,-1.8244,-6.0819,-2.0741,7.9197,-4.3011,-6.7300,-1.0805,1.1057,4.2975,4.3510,1.9451,-1.0827,8.3023,8.0083,5.0083,4.3619,-0.2450,0.0697
976.5625,6.1063,1.0701,-3.0759,0.0143,6.1457,-1.1899,-4.0814,1.4378,4.4186,6.6961,8.0383,2.1257,-3.5312,2.8375,10.3854,4.6728,1.8050,1.5564,-0.0347
980.4688,8.7123,3.3619,0.0971,1.9190,3.7741,2.3190,-0.3862,4.1593,6.3616,7.8562,9.3685,1.6550,-5.6983,-2.1701,10.9100,3.3435,-0.9193,2.2111,-0.3159
984.3750,8.7151,4.3241,3.0076,3.7905,1.8513,4.9886,3.6787,7.2131,5.8713,7.3926,7.3263,1.0208,-6.7115,-5.1245,8.9054,1.2543,-2.5900,1.4939,-0.2826
988.2812,6.2037,4.0479,5.6410,5.7000,0.9659,6.0549,7.3463,10.4341,3.1155,5.6269,2.5758,1.0608,-6.0903,-5.3976,4.8361,-0.8090,-2.4044,0.1393,0.3878
992.1875,2.2831,3.2689,8.0882,7.3188,0.9273,5.5651,9.8976,13.1773,-0.6658,3.2986,-2.9434,2.0958,-4.1957,-3.6323,0.1495,-1.9608,-0.4602,-0.7465,1.4953
996.0938,-1.4355,2.8824,10.1725,7.9142,0.8976,4.2554,10.7551,14.4278,-3.7826,1.2488,-6.9606,3.6051,-2.1272,-1.3772,-3.2933,-1.6934,2.2747,-0.4086,2.3302
1000.0000,-3.4703,3.4548,11.3475,6.7362,-0.0910,3.0569,9.5857,13.2381,-4.8382,0.2242,-7.8529,4.6672,-1.1067,-0.2609,-3.9679,-0.0974,4.4920,1.1724,2.0769
1003.9062,-2.9853,4.9953,11.0028,3.5800,-2.5239,2.5536,6.4454,9.2952,-3.2552,0.7760,-5.2107,4.7729,-1.7352,-1.1654,-1.2988,2.2707,5.2537,3.4257,0.3668
1007.8125,-0.0390,7.0604,8.9930,-0.8564,-6.0528,2.7357,1.9082,3.2870,0.5884,3.1440,0.1766,4.3333,-3.6055,-3.8353,4.1218,4.7336,4.4657,5.6776,-2.3781
1011.7188,4.4672,9.0515,5.9784,-5.1141,-9.6176,3.1755,-2.9508,-3.2070,5.5796,7.0791,6.7662,4.4431,-5.5275,-7.0953,10.7779,6.8005,2.8425,7.5780,-5.0649
1015.6250,9.0935,10.4774,3.2381,-7.6182,-11.9853,3.4482,-6.8200,-8.3243,10.2762,11.7087,12.8231,6.0310,-6.2390,-9.5181,16.7953,8.2546,1.4089,9.1546,-6.4918
1019.5312,12.3187,11.0263,1.9683,-7.5012,-12.4083,3.4501,-8.6265,-10.7510,13.3219,15.6304,16.8493,9.0034,-5.1761,-10.1657,20.5668,9.0295,0.8559,10.4923,-6.0564
1023.4375,13.0197,10.4692,2.4690,-5.1394,-11.0300,3.3642,-8.0159,-10.3340,13.7684,17.3343,17.8289,12.0289,-2.8447,-9.0258,21.2123,9.0422,1.1409,11.3353,-4.1932
1027.3438,10.8352,8.5561,3.7806,-2.0670,-8.8062,3.3195,-5.5684,-8.1237,11.2886,15.8418,15.3955,13.1869,-0.5777,-6.9479,18.7713,8.1639,1.5639,10.9753,-2.2529
1031.2500,6.2937,5.0671,4.0967,-0.2751,-6.9815,3.0563,-2.5874,-5.8081,6.2859,11.2529,10.0044,11.1201,0.1804,-5.1480,14.1438,6.3737,1.2546,8.5846,-1.8384
1035.1562,0.6555,0.0466,1.7941,-1.2432,-6.4186,1.9394,-0.5261,-4.8426,-0.1307,4.8718,3.0284,5.9720,-1.3419,-4.5562,8.8346,3.9654,-0.2404,3.8204,-3.9343
1039.0625,-4.4877,-5.9290,-3.5097,-5.2049,-7.1571,-0.5993,-0.3301,-5.7547,-6.3628,-1.2294,-3.4369,-0.4981,-4.8172,-5.3422,4.5358,1.6030,-2.6289,-2.7011,-8.3076
1042.9688,-7.7247,-11.6773,-10.5281,-11.0155,-8.4450,-4.4631,-2.0307,-7.9870,-10.7531,-5.0454,-7.2085,-5.7335,-8.9648,-6.8539,2.5906,0.1077,-5.0019,-9.4138,-13.5270
1046.8750,-8.2746,-15.6751,-16.8068,-16.6673,-9.2084,-8.5955,-4.7839,-10.3177,-12.1347,-5.4819,-6.9511,-7.6780,-12.1667,-7.9915,3.4645,0.0539,-6.3382,-14.3566,-17.6095
1050.7812,-6.2210,-16.6073,-19.8957,-20.1672,-8.6711,-11.2981,-7.3064,-11.5657,-10.2856,-2.7991,-2.9557,-5.8128,-13.2103,-7.8124,6.4510,1.4122,-6.0801,-15.9984,-18.9519
1054.6875,-2.4519,-13.9478,-18.5262,-20.3334,-6.7616,-11.0636,-8.4557,-11.1579,-6.0494,1.5531,2.7748,-1.3494,-11.7715,-6.0389,9.8446,3.4823,-4.4356,-13.8836,-17.0415
1058.5938,1.6783,-8.2620,-13.1411,-17.1563,-4.0831,-7.4492,-7.6639,-9.2665,-1.0024,5.6116,7.3643,3.5052,-8.4219,-3.1883,11.6345,5.1980,-2.2276,-8.7594,-12.5811
1062.5000,4.8512,-1.0422,-5.5277,-11.6235,-1.4973,-1.4360,-5.0575,-6.5240,3.2215,7.7585,8.5069,6.7679,-4.2107,-0.2479,10.4694,5.6579,-0.3836,-2.1539,-7.0057
1066.4062,6.2740,5.8689,2.1595,-5.1794,0.4025,4.9789,-1.2856,-3.5731,5.6361,7.3697,5.7436,7.6751,-0.1010,1.9147,6.4089,4.5900,0.6272,4.3200,-1.7161
1070.3125,5.9655,10.9910,8.3803,0.8659,1.5998,9.7365,2.7861,-0.7633,6.2788,4.9895,0.7923,6.9084,3.4139,3.0560,1.0084,2.4849,1.0680,9.5426,2.5105
1074.2188,4.7044,13.7088,12.6606,5.7035,2.5680,11.6511,6.3477,1.8516,6.0579,1.9951,-3.3464,5.9693,6.3219,3.6615,-3.3864,0.3275,1.7493,13.0830,5.6278
1078.1250,3.6373,14.3279,15.3593,9.0600,3.8635,10.7987,8.7971,4.2908,6.1514,-0.0672,-4.0547,6.1246,8.7848,4.5765,-4.7974,-0.9187,3.4900,15.0107,7.9648
1082.0312,3.6988,13.6921,17.0241,10.9808,5.6685,8.1944,9.7837,6.4146,7.2897,-0.1731,-0.5861,7.5785,10.7597,6.3846,-2.6004,-0.7848,6.5419,15.5429,9.7148
1085.9375,5.1105,12.5995,17.8092,11.5523,7.5743,5.0465,9.2043,7.8667,9.3145,1.7524,5.4967,9.3674,11.8291,8.9276,2.2059,0.5163,10.3257,14.7920,10.6364
1089.8438,7.2220,11.3486,17.3191,10.7419,8.7423,2.0957,7.1917,8.2182,11.2493,4.8387,11.1868,10.0114,11.3721,11.2858,7.5703,2.2563,13.6441,12.7520,10.1573
1093.7500,8.8007,9.6562,14.9214,8.4337,8.3491,-0.5750,4.0972,7.1902,11.8287,7.6877,13.6750,8.4905,8.9775,12.2573,11.4325,3.5755,15.2618,9.4657,7.7818
1097.6562,8.6507,6.9700,10.2794,4.6092,6.0606,-3.2377,0.4399,4.8008,10.1881,9.0095,11.8031,4.9199,4.8286,11.0585,12.6310,3.8528,14.5265,5.1975,3.5115
1101.5625,6.2453,2.9657,3.7459,-0.4578,2.2669,-6.0311,-3.1892,1.3597,6.3349,8.1861,6.5229,0.5054,-0.2042,7.8261,11.2107,2.8778,11.6899,0.4575,-2.0008
1105.4688,2.0357,-2.0786,-3.6200,-6.1301,-2.0514,-8.6706,-6.2552,-2.6492,1.1627,5.5051,0.1894,-3.1769,-4.8556,3.6126,8.0833,0.7992,7.7634,-4.1495,-7.6547
1109.3750,-2.7385,-7.2684,-10.4131,-11.5247,-5.7553,-10.5488,-8.4028,-6.7026,-3.9773,1.9677,-4.7910,-5.1044,-8.0007,-0.1244,4.3818,-2.0359,4.0124,-8.1498,-12.3289
1113.2812,-6.6367,-11.4584,-15.4145,-15.7848,-8.0513,-11.1211,-9.5367,-10.3257,-7.9005,-1.2154,-7.1287,-5.3505,-9.1463,-2.2421,0.9586,-5.1978,1.3814,-11.3537,-15.2916
1117.1875,-8.6861,-13.7935,-18.0248,-18.3833,-8.8171,-10.2825,-9.8340,-13.1427,-10.0780,-3.1725,-7.0206,-4.9214,-8.6184,-2.4356,-1.7303,-8.1786,0.1508,-13.8487,-16.4033
1121.0938,-8.7752,-14.1148,-18.4064,-19.3134,-8.5943,-8.4817,-9.6749,-14.9304,-10.7558,-3.6883,-5.6626,-5.0262,-7.3621,-1.3016,-3.4447,-10.3554,-0.0396,-15.8537,-16.0674
1125.0000,-7.5855,-12.9976,-17.3041,-19.0680,-8.2696,-6.5145,-9.4979,-15.6834,-10.6814,-3.1629,-4.3480,-6.2669,-6.4824,0.0436,-3.9759,-11.0545,0.1181,-17.5366,-15.0134
1128.9062,-6.1368,-11.4048,-15.6621,-18.4124,-8.6148,-5.1440,-9.6141,-15.6466,-10.6211,-2.2844,-3.7542,-8.2620,-6.7687,0.5349,-3.1791,-9.7910,-0.0237,-18.9025,-14.0333
1132.8125,-5.2242,-10.1631,-14.2308,-18.0521,-9.9199,-4.7681,-10.0533,-15.2454,-10.9438,-1.6384,-3.7844,-9.9123,-8.4215,-0.3949,-1.1933,-6.5978,-0.8227,-19.8038,-13.7517
1136.7188,-5.0555,-9.5666,-13.3354,-18.3453,-11.8890,-5.2856,-10.5266,-14.9074,-11.4862,-1.4674,-3.9161,-10.1057,-11.0574,-2.6801,1.3949,-2.2165,-2.2982,-20.0434,-14.4561
1140.6250,-5.2540,-9.3244,-12.8796,-19.1809,-13.8256,-6.1845,-10.5607,-14.8510,-11.7420,-1.6685,-3.7135,-8.4030,-13.9234,-5.7739,3.6774,2.0608,-4.2156,-19.4967,-15.9997
1144.5312,-5.1798,-8.8601,-12.5372,-20.0576,-14.9818,-6.7812,-9.7666,-14.9666,-11.2354,-1.9597,-3.1337,-5.2989,-16.1822,-8.9241,4.8496,4.9188,-6.1910,-18.1810,-17.8098
1148.4375,-4.3612,-7.7561,-12.0005,-20.3063,-14.8792,-6.5127,-8.1139,-14.8749,-9.8483,-2.0706,-2.4769,-1.9403,-17.1509,-11.4071,4.6743,5.6668,-7.7650,-16.2412,-19.0419
1152.3438,-2.8037,-6.0688,-11.1428,-19.3504,-13.4469,-5.1967,-6.0420,-14.1370,-7.9141,-1.8517,-2.0965,0.4912,-16.4516,-12.6570,3.6430,4.6178,-8.4735,-13.8772,-18.8729
1156.2500,-1.0281,-4.3292,-10.0254,-16.9087,-10.9542,-3.1723,-4.3099,-12.4958,-6.0432,-1.2959,-2.1195,1.3635,-14.0860,-12.3318,2.6670,2.9147,-7.9763,-11.2673,-16.8437
1160.1562,0.1633,-3.2482,-8.7854,-13.0915,-7.8325,-1.2408,-3.6331,-10.0127,-4.8026,-0.5286,-2.3783,0.8454,-10.4530,-10.3852,2.4656,1.8474,-6.2348,-8.5429,-13.1017
1164.0625,0.0747,-3.3183,-7.5127,-8.3914,-4.5258,-0.3663,-4.2974,-7.0387,-4.4533,0.1951,-2.5736,-0.2620,-6.2983,-7.1458,3.0528,2.0527,-3.6430,-5.8372,-8.4120
1167.9688,-1.5213,-4.5508,-6.2203,-3.5827,-1.4431,-1.2157,-5.9756,-4.0607,-4.8929,0.5136,-2.5351,-0.9851,-2.5678,-3.3276,3.6926,3.1037,-0.9766,-3.3742,-3.9121
1171.8750,-4.2141,-6.4892,-4.9258,0.4523,1.0194,-3.7507,-7.8667,-1.5272,-5.8113,0.0635,-2.3936,-0.6853,-0.1663,0.1160,3.3920,3.7851,0.8868,-1.5282,-0.7123
1175.7812,-7.0737,-8.4659,-3.7660,2.9492,2.4831,-7.1277,-9.0938,0.2607,-6.9311,-1.3295,-2.5500,0.6160,0.3207,2.2975,1.6262,2.9095,1.3710,-0.7782,0.4802
1179.6875,-9.0309,-9.9356,-3.0281,3.4887,2.6802,-10.0410,-9.1412,1.1713,-8.1572,-3.4670,-3.4563,2.2323,-1.1675,2.7389,-1.1901,0.1628,0.5000,-1.5329,-0.4424
1183.5938,-9.3652,-10.6911,-3.0369,2.1409,1.5941,-11.3774,-8.0933,1.2094,-9.5386,-5.7512,-5.3274,3.1294,-4.1352,1.5608,-3.8335,-3.5835,-1.1055,-3.8837,-3.0267
1187.5000,-8.0631,-10.8617,-3.9501,-0.5554,-0.4743,-10.8244,-6.5572,0.4697,-11.0832,-7.3981,-7.9401,2.4410,-7.7056,-0.6124,-4.9646,-6.7198,-2.5681,-7.4151,-6.4756
1191.4062,-5.8411,-10.7250,-5.5993,-3.8006,-3.0130,-9.0435,-5.3366,-0.9047,-12.5743,-7.8107,-10.6310,-0.0453,-10.9339,-3.0024,-3.9632,-7.8404,-3.2451,-11.2061,-9.9293
1195.3125,-3.7819,-10.4696,-7.5043,-6.8531,-5.5510,-7.2589,-5.0491,-2.7630,-13.5392,-6.8922,-12.5138,-3.6818,-13.1270,-5.0857,-1.3658,-6.5860,-3.0770,-14.0821,-12.7046
1199.2188,-2.7503,-10.0568,-9.0812,-9.3039,-7.8971,-6.4890,-5.8828,-4.9795,-13.4229,-5.0870,-12.8360,-7.1857,-14.0338,-6.8165,1.4008,-3.8532,-2.5801,-15.0462,-14.4343
1203.1250,-2.9108,-9.2611,-9.9329,-11.1673,-10.1847,-6.8993,-7.5802,-7.4576,-11.8782,-3.1050,-11.3235,-9.2390,-13.8446,-8.5249,2.8544,-1.2522,-2.4875,-13.7077,-15.1008
1207.0312,-3.6413,-7.8565,-10.0461,-12.7416,-12.6613,-7.7062,-9.6046,-10.0845,-9.0079,-1.5118,-8.3570,-9.1823,-13.0317,-10.5610,2.3521,-0.1752,-3.2728,-10.5003,-14.9827
1210.9375,-3.9220,-5.8330,-9.7672,-14.3338,-15.3569,-7.7098,-11.3638,-12.6542,-5.4090,-0.4660,-4.8808,-7.4193,-12.1289,-12.9228,0.4798,-1.0634,-4.8560,-6.5652,-14.5358
1214.8438,-2.9818,-3.5056,-9.5651,-16.0137,-17.8728,-6.1131,-12.3825,-14.8214,-1.9810,0.2159,-2.0613,-5.2644,-11.5491,-15.1262,-1.3195,-3.2950,-6.6680,-3.3245,-14.2312
1218.7500,-0.8114,-1.4370,-9.7165,-17.5348,-19.4711,-3.0908,-12.3812,-16.1457,0.4198,0.7398,-0.8285,-4.2687,-11.4886,-16.4144,-1.6603,-5.6931,-8.0120,-1.9142,-14.3831
1222.6562,1.7887,-0.1964,-10.0951,-18.4406,-19.4342,0.2692,-11.2813,-16.2327,1.3237,1.0349,-1.4973,-5.3656,-11.9052,-16.1820,-0.1011,-7.2645,-8.4714,-2.7081,-15.0093
1226.5625,3.6668,-0.0717,-10.1855,-18.2621,-17.4626,2.6037,-9.1821,-14.8995,0.8390,0.7458,-3.6384,-8.3101,-12.5324,-14.3383,2.5535,-7.6886,-8.1027,-5.1269,-15.7748
1230.4688,4.0071,-0.8885,-9.3136,-16.6816,-13.8428,3.0689,-6.3313,-12.2595,-0.3857,-0.4411,-6.2573,-11.7305,-12.9115,-11.3752,4.7316,-7.3040,-7.3103,-7.8138,-16.0528
1234.3750,2.8175,-2.0456,-6.9814,-13.6023,-9.2804,1.7805,-3.0907,-8.6747,-1.4110,-2.3791,-8.2012,-13.7710,-12.4693,-8.0999,5.0579,-6.6965,-6.5219,-9.1237,-15.1099
1238.2812,0.9173,-2.7662,-3.1482,-9.1595,-4.5348,-0.3463,0.1140,-4.6179,-1.3745,-4.3049,-8.6068,-12.9805,-10.6795,-5.2168,3.2047,-6.2308,-5.9029,-7.7612,-12.3835
1242.1875,-0.5531,-2.4488,1.6612,-3.7444,-0.1335,-2.1967,2.8543,-0.5565,0.1608,-5.1436,-7.1985,-8.9944,-7.3055,-3.0356,0.1079,-5.8405,-5.3049,-3.3431,-7.7750
1246.0938,-0.7852,-0.9504,6.4616,1.9431,3.6446,-3.0707,4.7594,3.0626,3.0102,-4.1359,-4.3236,-2.6997,-2.6358,-1.4826,-2.5703,-5.1674,-4.4618,3.3325,-1.8487
1250.0000,0.2770,1.3375,10.0917,6.8938,6.5557,-2.9388,5.5646,5.7553,6.4062,-1.3855,-0.7444,4.1345,2.4351,-0.3673,-3.3880,-3.8946,-3.2731,10.4505,4.1795
1253.9062,1.9696,3.6492,11.5819,9.9594,8.1943,-2.2581,5.1525,6.9912,9.2726,2.0717,2.6868,9.5444,6.6024,0.3243,-1.8961,-2.0255,-1.9527,15.7691,8.7324
1257.8125,3.3196,5.1574,10.4923,10.2311,8.0542,-1.5745,3.5920,6.3401,10.6341,4.7770,5.3125,12.0720,8.6183,0.3537,1.2041,0.0633,-0.9221,17.4510,10.4026
1261.7188,3.5524,5.2937,7.1071,7.4967,5.8735,-1.2271,1.1696,3.7515,9.9972,5.6487,6.8079,11.2470,7.8567,-0.5584,4.5565,1.7999,-0.5067,14.8166,8.5492
1265.6250,2.4123,3.9493,2.4070,2.5234,2.0235,-1.3161,-1.6196,-0.2105,7.5413,4.5797,7.1578,7.7350,4.6954,-2.3878,6.9403,2.7069,-0.6374,8.6898,3.6974
1269.5312,0.1834,1.5011,-2.1931,-3.0630,-2.3966,-1.8497,-4.1541,-4.3953,4.0423,2.4545,6.5418,3.1308,0.4817,-4.6059,7.8523,2.6496,-0.7691,1.1520,-2.4966
1273.4375,-2.5075,-1.3203,-5.2742,-7.3335,-5.9279,-2.8574,-5.8470,-7.4414,0.5697,0.5839,5.2222,-0.5643,-2.9611,-6.3140,7.5715,1.9355,-0.1049,-5.2192,-7.7812
1277.3438,-4.9430,-3.6621,-5.8717,-8.8263,-7.4326,-4.3436,-6.3397,-8.3558,-1.8997,-0.0825,3.4884,-1.6626,-4.0875,-6.6799,6.7584,1.2227,1.9719,-8.3130,-10.1717
1281.2500,-6.5141,-4.8162,-3.8023,-7.1607,-6.6844,-6.1478,-5.6440,-6.9819,-2.7912,0.5230,1.6533,0.5222,-2.2908,-5.4197,5.9308,1.2561,5.4865,-7.2381,-8.7708
1285.1562,-6.8591,-4.4607,0.2592,-3.1881,-4.4943,-7.8976,-4.1545,-4.0760,-2.0662,1.6288,0.0492,5.3187,1.8427,-3.0241,5.1840,2.5150,9.7175,-2.5652,-4.1661
1289.0625,-5.9764,-2.8068,4.9800,1.3834,-2.2790,-9.1704,-2.5087,-0.9339,-0.1744,2.1644,-1.0205,10.9087,6.7961,-0.5697,4.3045,4.9196,13.4085,3.9872,1.7946
1292.9688,-4.2939,-0.5830,8.7715,4.6894,-1.3329,-9.7729,-1.3464,1.2151,2.1072,1.4385,-1.3735,15.0904,10.7510,0.7858,3.1286,7.7641,15.2708,10.2224,6.7498
1296.8750,-2.6089,1.1785,10.2560,5.3902,-2.2355,-9.9054,-1.0734,1.7046,3.8776,-0.4572,-1.0370,16.2625,12.2693,0.3460,1.8392,9.9749,14.5453,14.1741,8.7453
1300.7812,-1.8298,1.5079,8.6536,3.0566,-4.7090,-10.0303,-1.7309,0.5694,4.3163,-2.7281,-0.2741,14.1198,10.7336,-1.8319,0.9679,10.6184,11.3526,14.6019,6.9205
1304.6875,-2.5691,-0.1170,3.9887,-1.8244,-7.9272,-10.5002,-3.0192,-1.6713,2.8800,-4.3546,0.4796,9.6641,6.4163,-5.0176,1.1003,9.4022,6.6542,11.1887,1.6979
1308.5938,-4.7901,-3.5425,-2.9187,-8.1165,-11.0048,-11.2196,-4.4523,-4.3660,-0.5242,-4.6679,0.7439,4.5269,0.2462,-8.1721,2.4942,6.8639,1.8427,4.5041,-5.5236
1312.5000,-7.7389,-7.9771,-10.6529,-14.3973,-13.3383,-11.6276,-5.5641,-6.9667,-5.4395,-3.7037,0.1365,0.0247,-6.5431,-10.3760,4.8696,4.0929,-1.8405,-4.1610,-12.9515
1316.4062,-10.2608,-12.2769,-17.5341,-19.2902,-14.6482,-11.0608,-6.0712,-9.0496,-10.8997,-2.1644,-1.5149,-3.4527,-12.7186,-11.1176,7.4981,2.1226,-3.7681,-13.0350,-18.9716
1320.3125,-11.3556,-15.3306,-22.0087,-21.7310,-14.8175,-9.2481,-5.9325,-10.2219,-15.6434,-1.0307,-4.1053,-6.3415,-17.2429,-10.3582,9.5163,1.3608,-4.0520,-20.1909,-22.5068
1324.2188,-10.6551,-16.3641,-23.0183,-21.1823,-13.7527,-6.5610,-5.2953,-10.1048,-18.4567,-1.0328,-7.2288,-9.1929,-19.3892,-8.4215,10.2662,1.4267,-3.3006,-23.9637,-23.1250
1328.1250,-8.5368,-15.0649,-20.2717,-17.7757,-11.4177,-3.8050,-4.3758,-8.4893,-18.5311,-2.2397,-10.2090,-11.8873,-18.8311,-5.8122,9.4857,1.4932,-2.1830,-23.3922,-20.9757
1332.0312,-5.8184,-11.5601,-14.3533,-12.3173,-8.0031,-1.6905,-3.3458,-5.5732,-15.7041,-3.9702,-12.2171,-13.3758,-15.7194,-3.0553,7.3077,0.8908,-1.0796,-18.5364,-16.6637
1335.9375,-3.2513,-6.3553,-6.6209,-6.0926,-4.0513,-0.3801,-2.2877,-2.0694,-10.5070,-5.0807,-12.4994,-12.2035,-10.7021,-0.5886,4.1507,-0.4542,-0.0209,-10.5181,-11.1132
1339.8438,-1.1541,-0.3053,1.1086,-0.4912,-0.3762,0.5290,-1.2350,0.9703,-4.0237,-4.5154,-10.6756,-7.5244,-4.8312,1.2887,0.6117,-2.0401,1.0824,-1.2321,-5.4183
1343.7500,0.5893,5.4214,7.0265,3.4147,2.2228,1.5585,-0.2591,2.5788,2.3707,-1.8659,-6.9845,0.0497,0.6535,2.4232,-2.5925,-3.2152,2.1192,7.1776,-0.6566
1347.6562,2.2165,9.5020,9.8349,5.1582,3.2901,2.7843,0.4693,2.3158,7.3200,2.3470,-2.3214,8.3638,4.6152,2.7746,-4.6888,-3.6512,2.6371,12.8822,2.3248
1351.5625,3.7290,10.8136,9.1247,4.9105,2.8819,3.6164,0.7069,0.4660,9.7954,6.8460,2.0231,14.5411,6.2962,2.3592,-4.9873,-3.4888,2.0243,14.7888,3.0991
1355.4688,4.7849,8.9006,5.4949,3.2797,1.4770,3.1482,0.2572,-2.1275,9.3680,10.1779,4.8589,16.3026,5.5045,1.2061,-3.1082,-3.0542,-0.0754,12.7327,1.7614
1359.3750,4.9356,4.3237,0.3558,1.0188,-0.2965,0.8687,-0.8811,-4.4845,6.3894,11.4257,5.6068,13.0748,2.6688,-0.6342,0.8008,-2.4057,-3.3892,7.4610,-1.0934
1363.2812,4.0364,-1.3603,-4.5224,-1.1909,-1.9388,-2.7713,-2.4348,-5.9099,1.9928,10.6732,4.5662,6.3038,-1.2427,-3.0201,6.0046,-1.1213,-6.9649,0.4730,-4.5034
1367.1875,2.5187,-6.0772,-7.5492,-2.8016,-3.2061,-6.3815,-3.9163,-6.1851,-2.1621,8.9559,2.7879,-1.1529,-4.9297,-5.6344,11.3648,1.4442,-9.5290,-6.2484,-7.3440
1371.0938,1.2940,-8.0085,-7.7490,-3.3608,-4.0569,-8.2933,-4.8111,-5.4710,-4.3897,7.7053,1.6101,-6.2060,-7.0715,-7.9613,15.7201,5.5813,-10.0740,-10.6238,-8.5619
1375.0000,1.3071,-6.3173,-4.9564,-2.4949,-4.5023,-7.4701,-4.8005,-4.0472,-3.5817,7.9823,2.0871,-6.7013,-6.6875,-9.3840,18.2860,10.7615,-8.3358,-10.9785,-7.4116
1378.9062,2.9866,-1.4873,0.2425,-0.0040,-4.4887,-4.1031,-3.8938,-2.0974,0.3289,9.9192,4.5779,-2.0931,-3.4519,-9.3846,18.8790,15.6741,-4.8813,-6.5712,-3.6669
1382.8125,5.9185,4.8670,6.7345,3.9583,-3.8899,0.4610,-2.3985,0.3247,6.2704,12.6623,8.6463,6.5396,2.1575,-7.7584,17.8660,18.8099,-0.7662,2.0378,2.2411
1386.7188,8.9375,10.6083,13.1493,8.7433,-2.6035,4.3874,-0.7539,3.1541,12.3828,14.8193,13.2542,16.9900,8.9616,-4.7306,15.9011,19.2418,3.0138,12.9787,9.2257
1390.6250,10.5996,13.8232,18.1007,13.2392,-0.6857,6.1924,0.6605,6.1285,16.6870,15.1412,17.1136,26.6503,15.4216,-0.9124,13.6169,17.1051,5.9434,23.5188,15.7396
1394.5312,9.8023,13.4191,20.4029,16.1241,1.5508,5.2950,1.6270,8.7021,17.7896,13.0691,19.0555,33.2188,20.0990,2.8787,11.4358,13.4775,8.0516,30.8512,20.1529
1398.4375,6.2647,9.3947,19.2900,16.2621,3.5321,2.0662,2.0501,10.1331,15.3260,8.9011,18.3386,35.2419,22.0494,5.8486,9.5568,9.7585,9.6381,32.9441,21.2167
1402.3438,0.6659,2.7540,14.6293,13.0814,4.5336,-2.5121,1.8367,9.7100,9.9768,3.5728,14.8624,32.4165,21.0050,7.4133,8.0532,6.9530,10.8888,29.1208,18.4503
1406.2500,-5.5917,-4.8650,7.0450,6.7850,3.8994,-7.2952,0.8122,7.0163,3.1003,-1.7616,9.2462,25.5952,17.3089,7.2998,6.9622,5.2779,11.6577,20.1643,12.2972
1410.1562,-10.8828,-11.7242,-2.1583,-1.6768,1.3167,-11.3061,-1.2310,2.1265,-3.8160,-6.1180,2.7026,16.4624,11.6886,5.5671,6.2936,4.2577,11.5457,7.9587,3.9813
1414.0625,-13.9232,-16.5260,-11.3102,-10.8398,-2.9585,-13.8971,-4.3547,-4.3328,-9.6332,-8.9046,-3.3275,6.9428,5.0073,2.5723,5.9755,3.1570,10.1975,-5.1351,-4.8804
1417.9688,-14.1955,-18.7850,-18.8347,-19.0788,-8.0557,-14.8160,-8.2719,-11.2801,-13.7952,-9.9756,-7.6929,-1.4516,-1.9063,-1.1097,5.8158,1.4395,7.5965,-16.9025,-12.7554
1421.8750,-12.0916,-18.8833,-23.6604,-24.9790,-12.7091,-14.2299,-12.2715,-17.4129,-16.2868,-9.5847,-9.9741,-8.0452,-8.3318,-4.8198,5.5331,-0.9912,4.1559,-25.7040,-18.5835
1425.7812,-8.7277,-17.7679,-25.4019,-27.6517,-15.7057,-12.6739,-15.3649,-21.5306,-17.4116,-8.2910,-10.5944,-12.9711,-13.6912,-7.9920,4.8454,-3.8205,0.5573,-30.6575,-21.9556
1429.6875,-5.5063,-16.4209,-24.2702,-26.9329,-16.3811,-10.8563,-16.6289,-22.8623,-17.5371,-6.8220,-10.4912,-16.7078,-17.5956,-10.3172,3.5487,-6.5164,-2.5496,-31.6296,-23.0638
1433.5938,-3.5922,-15.3711,-20.8293,-23.4161,-14.9098,-9.3430,-15.5969,-21.3012,-16.9267,-5.8778,-10.5111,-19.4674,-19.9050,-11.8095,1.5470,-8.5554,-4.7979,-29.1250,-22.4902
1437.5000,-3.5039,-14.5118,-15.7829,-18.2834,-12.2122,-8.2788,-12.5046,-17.4509,-15.7021,-5.8997,-10.8859,-20.8442,-20.7452,-12.7149,-1.1364,-9.5993,-6.1691,-24.1175,-20.9383
1441.4062,-4.9682,-13.3123,-9.8989,-12.9542,-9.4972,-7.3429,-8.2495,-12.4477,-13.8964,-6.8836,-11.1226,-19.9931,-20.4250,-13.2912,-4.2920,-9.5973,-6.8676,-17.8253,-18.9973
1445.3125,-7.0735,-11.2673,-4.0213,-8.6430,-7.6711,-6.0131,-4.0625,-7.6062,-11.5276,-8.3323,-10.3777,-16.2685,-19.2648,-13.5828,-7.3853,-8.7866,-7.1088,-11.4328,-16.9912
1449.2188,-8.6355,-8.2766,0.9713,-5.9872,-6.9347,-3.9870,-1.0324,-4.0142,-8.6340,-9.3978,-8.0592,-9.9203,-17.4206,-13.3377,-9.4536,-7.5618,-6.9609,-5.8139,-14.9351
1453.1250,-8.6221,-4.7130,4.3601,-4.9025,-6.7863,-1.4714,0.3016,-2.2260,-5.2725,-9.1758,-4.2530,-2.3572,-14.8256,-12.1423,-9.2329,-6.2354,-6.3264,-1.3622,-12.6073
1457.0312,-6.4931,-1.1681,5.8674,-4.7375,-6.4110,0.8801,0.1001,-2.1637,-1.5200,-7.0493,0.2999,4.2856,-11.3081,-9.7120,-5.6334,-4.8116,-5.0580,1.9805,-9.7227
1460.9375,-2.3697,1.9029,5.8295,-4.6527,-5.2091,2.3589,-0.9361,-3.2385,2.4792,-2.9568,4.6223,8.1083,-6.8376,-6.1611,1.5613,-2.9571,-3.1308,4.5021,-6.1570
1464.8438,2.9915,4.3670,5.0850,-4.0285,-3.1406,2.6583,-1.9381,-4.6170,6.4331,2.5121,7.9971,8.4148,-1.7456,-2.0691,11.1565,-0.2643,-0.7659,6.4299,-2.1217
1468.7500,8.4074,6.3218,4.5866,-2.6888,-0.6896,2.0803,-2.2518,-5.5069,9.8659,8.2396,10.2079,6.1234,3.2428,1.7262,20.6173,3.3076,1.5734,7.7640,1.8264
1472.6562,12.6221,7.8617,4.9549,-0.8320,1.5050,1.3587,-1.6437,-5.3540,12.2167,12.9096,11.4250,3.3557,7.2387,4.5116,26.9315,7.1274,3.3295,8.3646,5.0003
1476.5625,14.7280,8.9484,6.2560,1.2611,3.0999,1.2346,-0.2580,-3.9105,13.0981,15.4644,11.9255,2.4116,9.5959,6.0465,27.9683,10.0253,4.0920,8.2538,6.9576
1480.4688,14.5210,9.5261,8.1406,3.5302,4.2830,2.0779,1.5951,-1.2024,12.6063,15.5354,11.9338,4.6888,10.2837,6.6731,23.6313,10.9029,3.8262,7.9196,7.8388
1484.3750,12.6238,9.7756,10.2185,6.2265,5.6409,3.7811,3.6514,2.5345,11.4800,13.6546,11.7094,10.1135,9.9966,7.1182,16.0914,9.4914,2.9699,8.3585,8.4331
1488.2812,10.2699,10.2400,12.3712,9.7045,7.7347,5.9291,5.7661,6.8954,10.9285,11.0995,11.7340,17.3313,9.8876,8.0899,8.8452,6.7370,2.3205,10.7159,9.8488
1492.1875,8.7849,11.6233,14.7585,14.0305,10.6436,8.0609,7.8275,11.3157,12.1162,9.3721,12.7118,24.4641,11.0127,9.8858,5.0287,4.4660,2.7240,15.6465,12.8914
1496.0938,8.9841,14.3272,17.5228,18.6699,13.7571,9.8243,9.6247,15.0940,15.5221,9.5150,15.2301,29.9524,13.7474,12.2191,5.9049,4.4340,4.6836,22.7354,17.4704
1500.0000,10.7871,18.0414,20.4420,22.4951,15.9566,10.9703,10.8132,17.4865,20.5252,11.6019,19.2420,33.0261,17.4839,14.3442,10.3784,7.3085,8.0657,30.3600,22.4013
1503.9062,13.2698,21.7170,22.8317,24.1753,16.1082,11.2933,11.0479,17.8922,25.5018,14.6875,23.7590,33.6443,20.8036,15.4064,15.7897,12.2219,12.0588,36.1675,25.7926
1507.8125,15.1418,24.0085,23.8065,22.7730,13.6155,10.6566,10.2047,16.0798,28.4583,17.2760,27.0792,32.0905,22.0732,14.8227,19.4719,17.1959,15.4286,37.9979,25.8763
1511.7188,15.3964,23.9281,22.7304,18.2255,8.7477,9.1225,8.5248,12.3481,27.9102,18.0674,27.5338,28.5948,20.1887,12.5074,20.1177,20.1770,16.9753,34.8066,21.8615
1515.6250,13.7836,21.3037,19.5346,11.4376,2.5747,7.0656,6.5487,7.5127,23.5615,16.5791,24.3522,23.2629,15.0891,8.8468,18.1821,20.0445,15.9923,27.1074,14.3443
1519.5312,10.8669,16.7658,14.6877,3.9217,-3.4553,5.1203,4.8549,2.6823,16.4320,13.3150,18.1239,16.3235,7.7791,4.4733,15.2114,17.0051,12.5310,16.7089,5.0422
1523.4375,7.6754,11.3301,8.8761,-2.8205,-8.0861,3.9325,3.7634,-1.1032,8.3813,9.4277,10.5641,8.4484,-0.1464,-0.0159,12.6745,12.2323,7.3645,5.8983,-3.9944
1527.3438,5.1838,5.9045,2.6669,-7.8504,-10.6982,3.8555,3.2037,-3.2230,1.3020,6.1158,3.7202,0.8303,-7.2069,-4.2380,11.1172,7.1022,1.6850,-3.4790,-11.2461
1531.2500,3.9081,1.0475,-3.5840,-11.0085,-11.4367,4.7857,2.8328,-3.6543,-3.5999,4.1125,-0.9143,-5.1361,-12.5873,-8.0231,10.1354,2.5776,-3.3178,-10.5732,-16.1993
1535.1562,3.7859,-2.9490,-9.5447,-12.7348,-10.9975,6.2341,2.3118,-2.9085,-6.1140,3.5029,-2.9091,-8.4406,-16.2541,-11.2734,9.0280,-0.9216,-6.8203,-15.4919,-19.2257
1539.0625,4.3149,-5.8551,-14.6636,-13.6559,-10.2190,7.5515,1.5350,-1.7675,-6.8601,3.8650,-2.8403,-8.9694,-18.6251,-13.8039,7.5246,-3.2480,-8.5376,-18.7995,-21.0304
1542.9688,4.8064,-7.4472,-18.1502,-14.2006,-9.6956,8.1371,0.6520,-0.9573,-6.8239,4.5421,-1.8254,-7.6007,-20.0455,-15.2919,6.0075,-4.2314,-8.6701,-20.9214,-22.0640
1546.8750,4.6203,-7.6815,-19.2785,-14.4428,-9.5883,7.5307,-0.1151,-0.9018,-6.8692,4.8629,-0.9770,-5.7637,-20.4290,-15.3815,5.1030,-3.6801,-7.6844,-21.8243,-22.2623
1550.7812,3.3407,-6.9090,-17.8287,-14.1991,-9.6782,5.4420,-0.6897,-1.6385,-7.4269,4.2645,-1.0284,-4.6710,-19.2945,-13.8864,5.0336,-1.6704,-6.0508,-21.1202,-21.2191
1554.6875,0.9162,-5.8511,-14.3349,-13.2626,-9.5802,1.8496,-1.2043,-2.8888,-8.4231,2.4084,-2.1833,-4.6553,-16.1695,-10.9679,5.3020,1.1877,-4.0656,-18.4736,-18.6113
1558.5938,-2.2370,-5.2371,-9.9224,-11.6039,-8.9760,-2.7991,-1.8469,-4.2144,-9.3933,-0.6357,-4.1161,-5.0210,-11.0872,-7.1718,4.9993,3.8389,-1.8346,-14.0201,-14.5644
1562.5000,-5.2431,-5.3160,-5.8115,-9.4347,-7.7553,-7.4453,-2.6165,-5.1850,-9.7021,-4.2091,-6.0643,-4.5348,-4.8446,-3.2899,3.5237,5.2738,0.5926,-8.5318,-9.7312
1566.4062,-6.9803,-5.6245,-2.7975,-7.1323,-6.0307,-10.5856,-3.2017,-5.5093,-8.7974,-7.0835,-7.0353,-2.2888,1.1666,-0.1029,1.1618,5.1157,3.0381,-3.2257,-5.0683
1570.3125,-6.4972,-5.2465,-1.0198,-5.0934,-4.0618,-10.8432,-3.1139,-5.1088,-6.4349,-7.8354,-6.1570,1.5942,5.4906,1.8803,-0.9275,3.8671,5.1021,0.6931,-1.4681
1574.2188,-3.4698,-3.4292,-0.1025,-3.5922,-2.1499,-7.7169,-2.0036,-4.1251,-2.7956,-5.4965,-3.0858,5.8928,7.2267,2.5771,-1.3503,2.6021,6.2574,2.5386,0.5561
1578.1250,1.5616,-0.1234,0.5154,-2.6881,-0.5408,-2.0338,0.0670,-2.8528,1.5746,-0.1502,1.7518,8.9657,6.4211,2.3258,0.6883,2.2869,6.1169,2.4719,1.0198
1582.0312,7.3567,3.9598,1.3271,-2.1990,0.6448,4.2879,2.6063,-1.6130,5.9997,6.9230,7.2916,9.8039,4.0458,1.7303,4.9078,3.1935,4.7245,1.4963,0.4433
1585.9375,12.4934,7.8255,2.7091,-1.7516,1.4455,9.1480,4.9638,-0.6097,9.9730,13.7233,12.3376,8.7861,1.5883,1.4158,10.1233,4.8048,2.6678,1.0897,-0.3029
1589.8438,15.9637,10.8425,4.9743,-0.9151,2.0400,11.3416,6.6985,0.1527,13.3358,18.4183,16.1556,7.5912,0.4510,1.7790,14.9047,6.2504,0.8886,2.5891,-0.2535
1593.7500,17.5070,13.0596,8.3227,0.6063,2.6598,11.1246,7.7854,0.8376,16.2059,20.1420,18.7543,8.2186,1.4143,2.8217,18.2608,6.9325,0.2420,6.5593,1.3211
1597.6562,17.5107,14.9472,12.6134,2.7940,3.4540,9.8837,8.5128,1.6339,18.6860,19.2457,20.6365,11.6607,4.3642,4.1394,19.9363,6.8773,1.0384,12.4250,4.5785
1601.5625,16.5900,16.7795,17.1141,5.2476,4.3680,9.1234,9.1596,2.5856,20.5565,16.8847,22.1841,17.0603,8.3617,5.0921,20.2243,6.5785,2.8464,18.5723,8.9059
1605.4688,15.1612,18.1750,20.5138,7.2942,5.1163,9.4604,9.7048,3.5060,21.2006,14.2466,23.1385,21.9527,12.0041,5.1075,19.5374,6.4924,4.7093,22.9294,13.0161
1609.3750,13.2897,18.1966,21.3527,8.2378,5.2873,10.3061,9.7909,4.0365,19.8643,11.9305,22.6084,23.5380,13.9387,3.9843,18.0951,6.6066,5.6748,23.7928,15.3830
1613.2812,10.8659,15.9808,18.7154,7.6253,4.5369,10.4232,8.9682,3.8185,16.1210,9.8383,19.6601,20.2636,13.3392,2.0280,15.9228,6.4379,5.3349,20.5153,14.8666
1617.1875,7.9142,11.4312,12.7770,5.3828,2.7603,8.9135,7.0275,2.6646,10.2414,7.5563,14.1025,12.7612,10.1758,-0.0871,13.0901,5.4727,4.0454,13.7210,11.2209
1621.0938,4.7527,5.4453,4.8236,1.7623,0.1335,5.8982,4.1712,0.6204,3.2115,4.8742,6.8937,3.5526,5.1785,-1.6902,9.9339,3.7101,2.6825,4.9591,5.2016
1625.0000,1.8662,-0.5190,-3.3112,-2.8306,-2.9974,2.4107,0.9014,-2.1054,-3.6355,2.0356,-0.1681,-4.2979,-0.4817,-2.5273,7.0560,1.8639,2.0789,-3.9823,-1.7999
1628.9062,-0.4013,-5.2332,-10.0610,-7.9803,-6.2967,-0.3754,-2.2732,-5.2678,-9.1524,-0.4396,-5.3136,-8.7541,-5.6485,-2.9549,5.0745,1.0116,2.4898,-11.7092,-8.3845
1632.8125,-2.0788,-8.2806,-14.6887,-13.2676,-9.5549,-1.9678,-5.0762,-8.6525,-12.7598,-2.1787,-7.6789,-9.6563,-9.5614,-3.7596,4.2976,1.8823,3.4204,-17.4822,-13.6675
1636.7188,-3.5255,-10.0345,-17.2791,-18.1610,-12.6543,-2.8040,-7.4688,-12.0302,-14.4805,-3.2661,-7.6338,-8.3937,-11.9940,-5.6648,4.5366,4.2592,3.9264,-21.0586,-17.4085
1640.6250,-5.1328,-11.1070,-18.2519,-21.9342,-15.4182,-3.7708,-9.4442,-15.0499,-14.6792,-4.1847,-6.3852,-6.7190,-13.1171,-8.7986,5.1795,6.9386,3.2059,-22.3476,-19.7349
1644.5312,-6.9927,-11.7316,-17.8170,-23.7613,-17.4800,-5.4081,-10.8135,-17.1966,-13.7390,-5.4242,-5.1641,-5.5434,-13.2067,-12.4524,5.4851,8.3393,1.1226,-21.2038,-20.7204
1648.4375,-8.7792,-11.5732,-15.8060,-23.0146,-18.3116,-7.4373,-11.2010,-17.9081,-11.9077,-7.0495,-4.5497,-4.4987,-12.4024,-15.3126,4.9414,7.4265,-1.6494,-17.5330,-20.1612
1652.3438,-9.9320,-10.1010,-12.0013,-19.6267,-17.4477,-8.9787,-10.3015,-16.8312,-9.3726,-8.5489,-4.3319,-2.4801,-10.6733,-16.0710,3.5115,4.3886,-3.9463,-11.6157,-17.7348
1656.2500,-10.0069,-7.2136,-6.6916,-14.2929,-14.7956,-9.2691,-8.2288,-14.0796,-6.4382,-9.0894,-3.9099,1.2838,-8.0033,-14.0920,1.6550,0.6262,-4.7164,-4.3689,-13.4304
1660.1562,-8.9536,-3.6107,-0.9942,-8.3564,-10.8366,-8.3050,-5.6809,-10.3239,-3.6181,-8.0260,-2.8751,6.4032,-4.6545,-9.7727,0.1075,-1.9765,-3.5711,2.7018,-7.9321
1664.0625,-7.1497,-0.6001,3.3647,-3.3969,-6.5662,-6.9063,-3.7456,-6.6284,-1.5448,-5.3502,-1.3643,11.2957,-1.3038,-4.4081,-0.4907,-2.0947,-0.9980,7.8930,-2.6397
1667.9688,-5.2059,0.5526,4.7479,-0.7044,-3.1622,-6.1575,-3.4077,-4.0873,-0.7564,-1.8060,0.0122,13.9468,1.0808,0.3554,0.0482,0.2835,1.8607,9.8496,0.7632
1671.8750,-3.6966,-0.6993,2.3962,-0.8690,-1.5255,-6.6564,-5.0309,-3.4223,-1.4999,1.3956,0.5485,12.9613,1.6017,3.1883,1.3069,3.8312,3.7374,7.9971,1.0066
1675.7812,-2.9752,-3.9036,-3.1424,-3.6296,-1.9144,-8.1309,-8.1189,-4.7179,-3.6539,3.1174,-0.1531,8.2790,-0.1399,3.5517,2.4327,6.5963,3.8059,2.6971,-2.1566
1679.6875,-3.1237,-7.8610,-10.1698,-7.9882,-3.8458,-9.6759,-11.5024,-7.3943,-6.7652,2.8221,-1.9827,1.2052,-3.7724,1.8006,2.5876,7.0409,2.0216,-4.8678,-7.7391
1683.5938,-3.9777,-11.1957,-16.4808,-12.5017,-6.3022,-10.3900,-13.8517,-10.4098,-10.1345,0.8401,-4.3773,-6.1647,-8.1936,-1.0596,1.4562,4.8120,-0.9100,-12.9664,-13.8164
1687.5000,-5.1554,-12.8882,-20.1553,-15.6545,-8.1427,-9.9190,-14.2406,-12.6044,-12.9120,-1.7418,-6.5369,-11.7533,-11.9271,-3.8027,-0.4964,0.8351,-3.8944,-19.6583,-18.2035
1691.4062,-6.0959,-12.5247,-20.1555,-16.2494,-8.5331,-8.5381,-12.4877,-13.0687,-14.2317,-3.5280,-7.6808,-14.1566,-13.6513,-5.4088,-2.2159,-3.2719,-5.9538,-23.1835,-19.2311
1695.3125,-6.1748,-10.2514,-16.5391,-13.7578,-7.2201,-6.7925,-9.1477,-11.4278,-13.4286,-3.4160,-7.2727,-12.9474,-12.6804,-5.3574,-2.6311,-6.0702,-6.6265,-22.3972,-16.3191
1699.2188,-4.9329,-6.5845,-10.2967,-8.5374,-4.5555,-5.0489,-5.2126,-7.9565,-10.3001,-1.0904,-5.1798,-8.6358,-9.1960,-3.7300,-1.2759,-6.9353,-6.0768,-17.1637,-10.1435
1703.1250,-2.3361,-2.2149,-2.9502,-1.7912,-1.2878,-3.3219,-1.7028,-3.4806,-5.2713,2.8294,-1.7212,-2.3979,-4.1419,-1.1164,1.4423,-6.1334,-4.8827,-8.5187,-2.3496
1707.0312,1.1145,2.1492,3.9223,4.7925,1.7702,-1.4650,0.6679,0.9160,0.6935,7.0870,2.4465,4.3141,1.1634,1.6379,4.5210,-4.3941,-3.6407,1.5691,5.0636
1710.9375,4.5553,5.9304,9.0948,9.6302,4.0414,0.5041,1.6491,4.2727,6.4525,10.4107,6.6002,10.1806,5.5197,3.7622,7.0152,-2.3456,-2.6274,10.8244,10.4403
1714.8438,7.1732,8.8098,11.9341,11.8110,5.3231,2.2637,1.4237,6.0615,11.1406,12.1419,10.2539,14.3300,8.2250,4.8401,8.6235,-0.2143,-1.7173,17.4220,12.9616
1718.7500,8.6175,10.7584,12.4211,11.3526,5.7186,3.3649,0.4453,6.2813,14.4306,12.5096,13.2939,16.4454,9.1900,4.9109,9.7943,2.0510,-0.5914,20.4973,12.7428
1722.6562,9.1304,11.9038,10.9769,9.0114,5.4310,3.5640,-0.7764,5.3036,16.4256,12.3712,15.8256,16.6253,8.7717,4.3388,11.2783,4.4013,0.9185,20.1706,10.5327
1726.5625,9.2853,12.2868,8.2012,5.7760,4.5635,3.0154,-1.8646,3.5847,17.2750,12.5599,17.8156,15.1071,7.4587,3.5274,13.4500,6.4148,2.6036,17.1528,7.2186
1730.4688,9.5029,11.6944,4.6698,2.3710,3.0670,2.1574,-2.6726,1.4379,16.8358,13.2481,18.8117,12.0704,5.6103,2.6624,15.8998,7.3938,3.9468,12.2668,3.4344
1734.3750,9.6909,9.7564,0.8928,-0.9250,0.8729,1.3915,-3.2610,-0.9887,14.6918,13.7576,18.0254,7.6946,3.3971,1.6545,17.6053,6.7983,4.4604,6.2305,-0.5145
1738.2812,9.2779,6.3057,-2.5997,-4.0801,-1.8866,0.8259,-3.7739,-3.5459,10.5733,12.9743,14.8154,2.4314,0.9413,0.3230,17.5696,4.7070,4.0632,-0.2112,-4.4293
1742.1875,7.6384,1.7591,-5.1903,-6.9491,-4.7505,0.2825,-4.2912,-5.9007,4.8782,10.1243,9.2859,-2.7701,-1.4917,-1.3205,15.4705,1.9428,3.2199,-6.0465,-7.9331
1746.0938,4.6075,-2.8167,-6.2787,-9.0916,-7.0319,-0.4684,-4.7487,-7.5372,-1.1467,5.4022,2.5536,-6.5848,-3.4384,-2.9145,11.8641,-0.2788,2.7132,-10.0102,-10.4091
1750.0000,0.7179,-6.1154,-5.5743,-9.9598,-8.1347,-1.4781,-4.9844,-8.0046,-5.8074,0.0227,-3.5908,-7.8543,-4.4115,-3.8727,7.8204,-0.9916,3.1717,-11.0172,-11.2740
1753.9062,-3.0192,-7.2849,-3.4082,-9.3432,-7.9061,-2.5993,-4.8819,-7.2659,-7.7775,-4.3680,-7.4935,-6.2721,-4.2105,-3.7393,4.2868,-0.0125,4.6575,-8.8065,-10.4214
1757.8125,-5.6409,-6.4560,-0.8078,-7.7206,-6.7885,-3.6755,-4.5137,-5.8853,-6.8245,-6.5538,-8.4383,-2.7377,-3.1559,-2.5481,1.6528,1.9685,6.5917,-4.3309,-8.4975
1761.7188,-6.7101,-4.7121,0.8171,-6.2025,-5.6389,-4.7369,-4.1732,-4.8586,-3.9631,-6.3510,-6.9328,0.9465,-2.0524,-0.9232,-0.2065,3.7915,8.0735,0.4725,-6.7419
1765.6250,-6.4492,-3.4754,0.2813,-6.0224,-5.2976,-5.9924,-4.2547,-5.1300,-0.9159,-4.5990,-4.3181,2.9354,-1.8556,0.1771,-1.5341,4.4589,8.3837,3.4986,-6.4178
1769.5312,-5.5003,-3.7017,-2.7942,-7.8683,-6.1526,-7.6033,-5.0412,-7.0648,0.7724,-2.6087,-2.0014,2.2538,-3.2184,-0.0605,-2.3482,3.6047,7.3445,3.4238,-8.1548
1773.4375,-4.5419,-5.4259,-7.7653,-11.4798,-7.9625,-9.4430,-6.5264,-10.2058,0.4070,-1.4662,-0.8378,-0.8077,-6.1751,-1.8867,-2.4879,1.5471,5.3165,0.2250,-11.6164
1777.3438,-4.0421,-7.9435,-13.2479,-15.7666,-10.0315,-11.0860,-8.3780,-13.4786,-1.7718,-1.6264,-1.0180,-5.0377,-10.1376,-4.8747,-2.0088,-1.0460,2.8764,-5.0095,-15.7023
1781.2500,-4.2525,-10.4404,-17.7285,-19.3632,-11.6096,-12.0739,-10.0597,-15.7247,-5.0271,-2.9547,-2.3905,-9.1005,-14.1748,-8.1518,-1.5293,-3.6077,0.4367,-10.7775,-19.1399
1785.1562,-5.3086,-12.5493,-20.1441,-21.2545,-12.2537,-12.2456,-11.0344,-16.2429,-8.6603,-5.0388,-4.8115,-12.1989,-17.3775,-10.8119,-2.0928,-5.9332,-1.9144,-15.8524,-21.0714
1789.0625,-7.2219,-14.3870,-20.1267,-21.1019,-11.9424,-11.8284,-10.9365,-15.0313,-12.2192,-7.4405,-8.1467,-14.1684,-19.0997,-12.2617,-4.4769,-8.1113,-4.2617,-19.5310,-21.2773
1792.9688,-9.6964,-16.0680,-17.8659,-19.1437,-10.9225,-11.1750,-9.6484,-12.6333,-15.2873,-9.7063,-11.9203,-15.0444,-19.0005,-12.3439,-8.3751,-10.2274,-6.5612,-21.4050,-19.9673
1796.8750,-11.9485,-17.1476,-13.7983,-15.8493,-9.4540,-10.3515,-7.2923,-9.7476,-17.1625,-11.2352,-15.0021,-14.5697,-16.9781,-11.2509,-12.1124,-12.0838,-8.4677,-21.0128,-17.3909
1800.7812,-12.8135,-16.5527,-8.4095,-11.6428,-7.6666,-8.9615,-4.1971,-6.8815,-16.8545,-11.2749,-15.7896,-12.1440,-13.1514,-9.3607,-13.2878,-13.1536,-9.4678,-17.8062,-13.6253
1804.6875,-11.2589,-13.2012,-2.2765,-6.8892,-5.6199,-6.4439,-0.8750,-4.2463,-13.5739,-9.2174,-12.9900,-7.3324,-7.9509,-7.1209,-10.1117,-12.8120,-9.2466,-11.5626,-8.7195
1808.5938,-7.0831,-6.9437,3.7704,-2.0733,-3.4798,-2.6890,2.0195,-1.8907,-7.4374,-5.0689,-6.5774,-0.5422,-2.2192,-5.0019,-2.6518,-10.7088,-8.0126,-2.9461,-3.0465
1812.5000,-1.3302,0.8753,8.6246,2.0786,-1.6212,1.5074,3.8097,0.0991,0.1558,0.2616,1.7659,6.7235,2.8591,-3.4510,6.8581,-7.0563,-6.5064,6.2920,2.4832
1816.4062,3.9674,7.7621,11.1838,4.7382,-0.5249,4.6027,4.0172,1.5200,6.8790,5.1668,9.1793,12.3631,6.0930,-2.7823,14.9606,-2.6628,-5.6294,13.7826,6.6158
1820.3125,6.7069,11.2438,10.8417,5.3507,-0.5114,5.1142,2.6054,2.1512,10.4863,8.0310,12.9540,14.6961,6.7732,-3.0272,18.6906,1.3201,-5.9052,17.5145,8.3096
1824.2188,5.8130,10.1864,7.8787,3.9885,-1.5019,2.5969,0.0915,1.9341,9.9144,8.0308,11.9168,13.3571,5.0322,-3.8587,17.0622,3.8208,-7.1252,16.7615,7.3029
1828.1250,1.8516,5.4206,3.4368,1.3974,-3.0008,-1.8959,-2.6017,1.0677,5.8030,5.5424,7.0156,9.4623,1.8162,-4.6991,11.4441,4.2499,-8.4288,12.3850,4.2894
1832.0312,-3.2516,-0.7437,-0.9843,-1.3597,-4.3515,-6.2713,-4.5423,-0.0729,0.0979,1.8850,0.7337,4.9289,-1.5710,-5.0072,4.6333,2.7141,-8.7910,6.3192,0.5436
1835.9375,-7.2488,-5.8165,-4.2517,-3.4633,-5.1162,-8.5578,-5.2495,-1.1455,-5.0152,-1.4373,-4.3087,1.3971,-4.1132,-4.6004,-0.7469,-0.0403,-7.6217,0.5621,-2.7855
1839.8438,-8.7448,-8.4228,-6.1062,-4.7472,-5.3338,-8.0469,-4.9509,-2.0304,-8.1920,-3.5060,-6.7028,-0.5495,-5.5334,-3.8030,-3.5131,-2.9134,-5.1064,-3.7129,-5.2585
1843.7500,-7.8152,-8.8121,-7.1334,-5.6861,-5.4739,-5.6676,-4.4548,-2.8631,-9.3944,-4.2965,-6.7624,-1.4101,-6.2795,-3.2942,-4.1278,-4.8433,-2.0790,-6.4378,-7.2345
1847.6562,-5.7458,-8.3481,-8.2184,-6.9699,-6.1065,-3.3474,-4.6790,-3.8857,-9.5464,-4.3939,-5.9836,-2.1211,-7.0693,-3.7108,-3.8684,-5.1489,0.4830,-8.2582,-9.4271
1851.5625,-4.1333,-8.4194,-9.8482,-8.9501,-7.4892,-2.7909,-6.0989,-5.2197,-9.7095,-4.3997,-5.9113,-3.2545,-8.3033,-5.2233,-3.6597,-3.7075,2.0213,-9.8312,-12.2487
1855.4688,-3.9548,-9.5370,-11.7270,-11.3245,-9.3376,-4.4838,-8.4486,-6.7162,-10.3666,-4.4921,-7.1806,-4.6198,-9.7375,-7.3459,-3.4319,-0.9325,2.6700,-11.3134,-15.3958
1859.3750,-5.1612,-11.1761,-12.9653,-13.2723,-10.9326,-7.5479,-10.8654,-7.9902,-11.2485,-4.4356,-9.2900,-5.4924,-10.6335,-9.1206,-2.4062,2.4067,3.0813,-12.3387,-17.9532
1863.2812,-6.9436,-12.3516,-12.7209,-13.9547,-11.5149,-10.4641,-12.3966,-8.6328,-11.7141,-3.9625,-11.1176,-5.2425,-10.2831,-9.6024,-0.0057,5.4319,3.9289,-12.4175,-18.9443
1867.1875,-8.3740,-12.4218,-10.8622,-13.0699,-10.7450,-12.1040,-12.5543,-8.4819,-11.3279,-3.1618,-11.7224,-3.8959,-8.5656,-8.3953,3.3646,7.3894,5.4076,-11.4245,-17.9674
1871.0938,-8.9458,-11.5240,-8.2053,-11.1211,-8.9619,-12.3464,-11.5787,-7.7912,-10.2020,-2.5322,-10.8786,-2.2512,-6.1737,-5.9371,6.3018,7.8157,7.0402,-9.8277,-15.5200
1875.0000,-8.7061,-10.3889,-6.1512,-9.2333,-7.0845,-11.9194,-10.2553,-7.1806,-8.9066,-2.6459,-9.0804,-1.5003,-4.3510,-3.3569,7.1984,6.6189,7.9124,-8.5249,-12.8174
1878.9062,-8.0215,-9.7616,-5.9365,-8.6135,-6.1877,-11.6867,-9.4228,-7.3625,-8.0844,-3.6959,-7.1555,-2.5947,-4.2793,-1.9471,5.2807,4.0712,7.1961,-8.4089,-11.2194
1882.8125,-7.2635,-9.9157,-7.9557,-9.9384,-6.9565,-11.9723,-9.4985,-8.7580,-8.0896,-5.3052,-5.8423,-5.7171,-6.4489,-2.5057,1.1451,0.7164,4.6566,-9.9203,-11.5818
1886.7188,-6.6733,-10.6120,-11.5543,-12.9779,-9.2890,-12.4244,-10.3105,-11.1947,-8.8871,-6.7708,-5.5896,-10.1094,-10.3439,-4.8874,-3.5880,-2.7829,0.8539,-12.8130,-13.8565
1890.6250,-6.4359,-11.4591,-15.3837,-16.6258,-12.2532,-12.4642,-11.3047,-13.8603,-10.2066,-7.5665,-6.5730,-14.3144,-14.5927,-8.0129,-7.2418,-5.8063,-3.0695,-16.2088,-17.0989
1894.5312,-6.7762,-12.3070,-18.0595,-19.3131,-14.4374,-11.9009,-11.9345,-15.5768,-11.7469,-7.7099,-8.7297,-16.7079,-17.5003,-10.3526,-8.9812,-7.8746,-5.8891,-18.8842,-19.8359
1898.4375,-7.8744,-13.3018,-18.7137,-19.6112,-14.5493,-11.1800,-11.9388,-15.2951,-13.2266,-7.6853,-11.6618,-16.1125,-17.7095,-10.6501,-9.0311,-8.6512,-6.8116,-19.6614,-20.6108
1902.3438,-9.5974,-14.5335,-17.1564,-16.7752,-11.9953,-11.0345,-11.3294,-12.5835,-14.2589,-7.9488,-14.4781,-12.2620,-14.7149,-8.5141,-8.1381,-7.8842,-5.7438,-17.7812,-18.4962
1906.2500,-11.2707,-15.5852,-13.6650,-11.0262,-7.1723,-11.7899,-10.1527,-7.8609,-14.2283,-8.3848,-15.8222,-5.9353,-9.0401,-4.5707,-6.7656,-5.3971,-3.2170,-13.1614,-13.4206
1910.1562,-11.7665,-15.4211,-8.6640,-3.4868,-1.3335,-12.8680,-8.2718,-2.2511,-12.3855,-8.1589,-14.2878,1.3167,-2.0417,-0.1091,-4.6935,-1.2182,-0.0664,-6.4728,-6.2279
1914.0625,-9.9924,-12.8304,-2.5811,4.1789,3.9130,-12.9217,-5.3981,2.8730,-8.2208,-6.1587,-9.1377,7.7606,4.5643,3.5675,-1.3490,4.1778,2.9198,1.0025,1.5447
1917.9688,-5.5562,-7.2243,4.0396,10.2818,7.2403,-10.5915,-1.3917,6.4189,-1.9266,-1.7949,-0.9470,12.1328,9.2722,5.7142,3.4030,9.6955,5.1985,7.7137,8.1185
1921.8750,0.8069,0.7320,10.3477,13.6052,8.0879,-5.4287,3.3887,7.9216,5.3762,4.3605,8.2957,14.0422,11.2537,6.3409,8.6744,13.7469,6.4730,12.2939,12.0370
1925.7812,7.3728,9.1240,15.1993,13.7367,6.7930,1.6167,7.9915,7.5765,11.8881,10.5729,15.8413,13.9325,10.5704,5.9783,12.7271,14.7841,6.5986,13.9766,12.6593
1929.6875,12.1334,15.5284,17.5108,11.1537,4.3518,8.4887,11.1874,6.0160,15.8200,14.6774,19.3544,12.6619,8.0715,5.2289,13.8969,12.0667,5.5393,12.8245,10.3903
1933.5938,13.7177,18.1144,16.8048,7.0527,1.9645,12.9595,12.0617,4.0114,16.1944,15.1746,18.0189,10.9933,5.0291,4.4261,11.6875,6.2470,3.4415,9.6851,6.5323
1937.5000,12.0295,16.4920,13.5907,2.9767,0.5916,13.6842,10.5296,2.2624,13.3274,12.0644,12.9650,9.3178,2.6586,3.6057,7.2700,-0.6504,0.7512,5.8875,2.7899
1941.4062,8.2561,11.8390,9.2692,0.3374,0.6962,10.7945,7.4356,1.3120,8.7101,6.9156,6.7613,7.7451,1.7063,2.7418,2.9961,-5.9861,-1.7774,2.7929,0.6199
1945.3125,4.2567,6.2693,5.5388,-0.0366,2.2153,5.7435,4.1415,1.5055,4.3383,2.1057,2.2279,6.4008,2.2495,1.9982,1.1856,-7.6891,-3.2868,1.3533,0.7013
1949.2188,1.6733,1.8319,3.6129,1.8154,4.6902,0.5423,1.8351,2.9032,1.8338,-0.3577,1.1911,5.6143,3.7602,1.7513,2.9278,-5.2445,-3.1826,1.8287,2.7457
1953.1250,1.2301,-0.3016,3.7022,4.9877,7.4475,-3.1593,0.9656,5.1601,1.8052,0.2151,3.7996,5.7825,5.3780,2.3382,7.6092,0.0780,-1.4604,3.7518,5.7138
1957.0312,2.5472,-0.0890,5.0549,8.0337,9.7634,-4.6734,1.1285,7.4969,3.7385,2.9857,8.6747,6.9893,6.2639,3.7236,13.3839,5.9012,1.2312,6.1479,8.3067
1960.9375,4.4996,1.6969,6.4977,9.5254,11.0031,-4.3162,1.4342,8.8923,6.4105,6.1904,13.7105,8.7060,5.8993,5.3691,18.2087,9.9348,3.8755,7.9303,9.4916
1964.8438,5.8802,4.0445,7.1156,8.6356,10.7514,-2.9788,1.1030,8.4918,8.5513,8.1748,17.0348,9.8887,4.2333,6.4528,20.7712,11.0135,5.5879,8.3240,8.8309
1968.7500,6.0066,6.1738,6.6615,5.4838,8.9264,-1.5370,-0.0857,6.0428,9.3993,8.2577,17.6632,9.5067,1.6543,6.3259,20.8213,9.4318,6.0492,7.1558,6.5184
1972.6562,4.9891,7.7028,5.5076,1.0769,5.8301,-0.4362,-1.7293,2.0918,8.9103,6.9586,15.6409,7.1989,-1.1741,4.9046,18.8833,6.4958,5.6160,4.8986,3.1809
1976.5625,3.5728,8.5543,4.2683,-3.1366,2.0890,0.3759,-3.1055,-2.2137,7.6061,5.5145,11.7799,3.6161,-3.5338,2.7310,15.7207,3.6756,5.0518,2.4637,-0.3921
1980.4688,2.6783,8.7874,3.4117,-5.8750,-1.5103,1.2073,-3.6067,-5.6270,6.2250,5.0284,7.2557,0.1936,-4.8456,0.6657,11.9793,1.9136,5.0524,0.8438,-3.4450
1984.3750,2.8889,8.5027,3.1103,-6.4910,-4.2300,2.2707,-3.0341,-7.3239,5.3874,5.7827,3.2729,-1.5272,-4.7819,-0.5690,8.1732,1.4325,5.8622,0.7635,-5.3351
1988.2812,4.1378,7.8371,3.3521,-5.0848,-5.5495,3.4493,-1.6182,-7.1480,5.4029,7.1136,0.8405,-0.6228,-3.2905,-0.6947,4.8498,1.9875,7.1973,2.4618,-5.5569
1992.1875,5.7358,6.9630,4.1217,-2.2693,-5.2509,4.3083,0.1782,-5.4864,6.2258,7.8873,0.5816,2.8433,-0.5686,0.1285,2.6435,3.2334,8.4829,5.6453,-3.8192
1996.0938,6.7162,6.0280,5.4430,1.2045,-3.4420,4.3340,1.9022,-2.9351,7.5001,7.2491,2.5293,7.9390,2.9658,1.5306,2.0792,4.8942,9.2134,9.5700,-0.2129
2000.0000,6.3233,5.0661,7.2333,4.7010,-0.5641,3.2571,3.2521,-0.0332,8.6492,5.1743,5.9879,13.2880,6.6813,3.1424,3.2522,6.6874,9.1888,13.1962,4.6085
2003.9062,4.4050,3.9843,9.1198,7.7089,2.6077,1.2768,4.0824,2.7633,9.0211,2.4938,9.6196,17.5053,9.7564,4.6137,5.6559,8.1961,8.4994,15.3952,9.3985
2007.8125,1.5239,2.6874,10.4291,9.6964,5.0371,-0.9397,4.3410,4.9390,8.1087,0.4041,11.8575,19.4688,11.2866,5.4786,8.3343,8.9179,7.3227,15.2261,12.5757
2011.7188,-1.2661,1.2779,10.4400,10.0472,5.6579,-2.4934,4.0300,5.8516,5.8103,-0.2170,11.5424,18.4739,10.5257,5.0896,10.2903,8.5205,5.7211,12.2695,12.7602
2015.6250,-2.8658,0.1673,8.7773,8.2487,3.7718,-2.6196,3.2236,4.9316,2.6063,0.7264,8.4860,14.4058,7.2161,2.8166,10.8952,7.1026,3.6061,6.9190,9.3943
2019.5312,-2.5913,-0.0450,5.6979,4.2903,-0.5276,-1.0147,2.1088,2.1018,-0.4998,2.5596,3.6343,7.9487,1.8622,-1.5173,10.0589,5.2046,0.8919,0.4574,3.1429
2023.4375,-0.4491,1.0929,2.0723,-0.9962,-6.1570,2.0182,0.9854,-1.8849,-2.3319,4.2720,-1.3085,0.6560,-4.2427,-7.2446,8.1156,3.5020,-2.2929,-5.2228,-4.1763
2027.3438,2.8775,3.5301,-0.9425,-5.9692,-11.2798,5.6665,0.1956,-5.5200,-2.0691,5.0830,-4.6277,-5.3531,-9.3458,-12.8530,5.5742,2.3835,-5.5101,-8.2329,-10.1755
2031.2500,6.3033,6.5948,-2.3563,-8.7107,-13.9807,8.8984,0.0086,-7.1295,0.3188,4.8055,-5.3277,-8.1085,-11.8469,-16.5103,2.9372,1.7371,-8.1248,-7.4074,-12.7797
2035.1562,8.7527,9.2427,-1.6959,-7.8701,-13.1044,10.8266,0.5184,-5.7165,3.9940,3.8422,-3.4631,-6.6322,-10.9393,-16.9005,0.6709,1.1231,-9.5687,-2.7880,-11.0292
2039.0625,9.5530,10.5627,0.8802,-3.3880,-8.8375,11.0035,1.6017,-1.5730,7.6218,2.8892,0.0663,-1.4297,-6.9607,-13.9024,-0.7494,0.2095,-9.5924,4.3790,-5.4477
2042.9688,8.6734,10.2393,4.6822,3.3229,-2.6921,9.5459,2.9478,3.7420,10.0134,2.5685,4.0750,5.7114,-1.2598,-8.6937,-0.8633,-0.8783,-8.3561,12.1352,2.1785
2046.8750,6.7276,8.6838,8.6925,9.8896,3.1419,7.0539,4.1417,8.0966,10.6825,3.1943,7.6393,12.5465,4.3722,-3.1907,0.6249,-1.5860,-6.3174,18.5300,9.4925
2050.7812,4.7225,6.7438,11.7906,13.9590,6.7637,4.3607,4.7743,9.7913,9.9904,4.7310,10.3251,17.3495,8.4202,0.8684,3.6467,-1.3403,-4.0006,22.2062,14.4104
2054.6875,3.6236,5.1757,12.9832,14.1671,7.3513,2.2104,4.5615,8.3285,8.7951,6.8640,12.0383,19.4676,10.1596,2.6788,7.6712,-0.0335,-1.7890,22.6148,15.7670
2058.5938,3.8958,4.2179,11.6629,10.6341,5.3832,0.9896,3.4497,4.5539,7.8324,9.0756,12.7001,19.1871,9.7411,2.5689,11.7951,1.8015,0.1531,19.8771,13.5471
2062.5000,5.2350,3.5303,7.8608,4.7851,2.2231,0.6280,1.6761,0.1451,7.2296,10.7011,12.0490,17.1236,7.8767,1.5943,14.9865,3.2852,1.8186,14.5244,8.6945
2066.4062,6.6695,2.5267,2.3781,-1.3530,-0.6550,0.7173,-0.2581,-3.2212,6.4709,11.0340,9.7496,13.6637,5.3670,0.8288,16.3665,3.7616,3.2282,7.3482,2.6614
2070.3125,7.0463,0.8707,-3.3398,-5.9981,-2.3596,0.7996,-1.7237,-4.5729,4.8462,9.5577,5.7456,8.8922,2.7540,0.7818,15.4344,3.2351,4.3252,-0.5730,-3.0817
2074.2188,5.7015,-1.1927,-7.6263,-8.2141,-2.8530,0.6771,-2.1816,-3.9100,2.0906,6.2730,0.6011,3.0221,0.2547,1.2383,12.2158,2.3562,4.9546,-7.8210,-7.4102
2078.1250,2.9540,-2.8844,-9.1852,-8.0625,-2.7351,0.5627,-1.4035,-2.0102,-1.2114,1.9443,-4.4468,-3.0912,-2.0780,1.5312,7.3489,1.9664,4.9279,-12.7843,-9.7215
2082.0312,0.0984,-3.2941,-7.5957,-6.3425,-2.7476,0.9590,0.4068,0.0324,-3.7528,-1.9580,-7.8326,-7.8679,-4.1455,1.0224,2.0709,2.5290,4.1334,-14.0916,-9.9495
2085.9375,-1.1789,-1.8991,-3.4890,-4.1225,-3.3123,2.3054,2.6582,1.2782,-4.1310,-3.7220,-8.2758,-9.5698,-5.7078,-0.4915,-1.9922,3.8490,2.6458,-11.1843,-8.4686
2089.8438,0.3050,1.0945,1.6963,-2.2946,-4.3333,4.5892,4.5786,1.2496,-1.6328,-2.1328,-5.3673,-7.2288,-6.4417,-2.6289,-3.3047,5.2650,0.7932,-4.7023,-5.9317
2093.7500,4.5070,4.7739,6.2664,-1.3052,-5.3047,7.1682,5.4994,0.0274,3.2764,2.8569,0.1685,-1.3342,-6.0684,-4.5473,-1.0698,6.1556,-0.8523,3.5947,-3.0663
2097.6562,10.0393,7.8811,8.8857,-1.1090,-5.6045,8.9593,5.1001,-1.8377,9.0461,9.8955,6.6790,6.2232,-4.4453,-5.2500,4.2498,6.3905,-1.5866,11.4088,-0.4655
2101.5625,14.7579,9.3272,9.0008,-1.3099,-4.8060,8.9339,3.5130,-3.5542,13.6818,16.6227,12.1734,12.9894,-1.5900,-3.9595,10.8936,6.4097,-0.7939,16.7351,1.5636
2105.4688,16.7591,8.6154,6.9340,-1.4129,-2.8827,6.6666,1.2512,-4.4044,15.6001,20.5521,15.0427,17.0939,2.3072,-0.4570,16.4072,6.8867,1.7733,18.5419,3.0253
2109.3750,15.2483,5.9979,3.6541,-1.0921,-0.2600,2.6263,-1.0014,-4.0547,14.2647,20.0613,14.6008,18.0285,6.8179,4.7051,18.6748,8.2100,5.7601,16.9875,4.1029
2113.2812,10.8319,2.3271,0.3449,-0.3700,2.2879,-1.9704,-2.6468,-2.7280,10.3131,15.0410,11.2316,16.6136,11.1788,10.2182,16.8628,10.1213,10.1573,13.1207,4.9245
2117.1875,5.1210,-1.3121,-2.0526,0.3752,3.8732,-5.6801,-3.3700,-1.1222,5.1610,6.9250,6.1065,14.2267,14.2945,14.3331,11.7471,11.7321,13.5265,8.2819,5.3596
2121.0938,-0.0784,-4.0240,-3.1595,0.5973,3.8167,-7.4559,-3.2028,-0.0691,0.3274,-1.8894,0.6306,11.8234,14.9755,15.4470,5.2367,11.9048,14.4795,3.5396,4.9917
2125.0000,-3.5300,-5.4144,-3.2255,-0.1117,1.9576,-7.0579,-2.4432,-0.0896,-3.1768,-8.9541,-4.1131,9.3811,12.4180,12.7728,-0.6175,9.7908,12.2456,-0.5844,3.3271
2128.9062,-4.9250,-5.6786,-2.9279,-1.7586,-1.1959,-5.0721,-1.4851,-1.1016,-5.1358,-12.6271,-7.6672,6.0991,6.7244,6.7870,-4.5377,5.2685,7.0757,-4.0499,0.1507
2132.8125,-4.7539,-5.4473,-2.9964,-3.8951,-4.5997,-2.5818,-0.6571,-2.4796,-6.0220,-12.5452,-10.1381,1.1900,-0.8572,-0.8170,-6.3439,-0.8966,0.2660,-7.0320,-4.1785
2136.7188,-3.8808,-5.4641,-3.8526,-5.8367,-7.0926,-0.6980,-0.1526,-3.4600,-6.6136,-9.5767,-11.8527,-5.2754,-8.2180,-7.7364,-6.5862,-7.2178,-6.2579,-9.6603,-8.7066
2140.6250,-3.1017,-6.2367,-5.4473,-7.0513,-7.9297,-0.1756,-0.0712,-3.6549,-7.5519,-5.3292,-12.9647,-12.0341,-13.1628,-11.9957,-5.8306,-11.9226,-10.6459,-11.9058,-12.2114
2144.5312,-2.8810,-7.8145,-7.3790,-7.4852,-7.1471,-1.2329,-0.5094,-3.3376,-9.0388,-1.4528,-13.2616,-17.0498,-14.3343,-12.7709,-4.1456,-13.5277,-11.8148,-13.6263,-13.7421
2148.4375,-3.2940,-9.7852,-9.2016,-7.6071,-5.5269,-3.5640,-1.6020,-3.2892,-10.7822,0.9687,-12.2957,-18.4701,-11.8071,-10.6766,-1.1491,-11.3847,-9.8205,-14.6824,-13.0797
2152.3438,-4.1033,-11.4843,-10.7060,-8.1063,-4.1461,-6.4682,-3.4466,-4.2726,-12.1803,1.7034,-9.7607,-15.5878,-7.0175,-7.3573,3.4417,-6.0029,-5.7525,-15.0170,-10.8461
2156.2500,-4.8897,-12.3099,-11.9765,-9.4113,-3.7564,-9.0400,-5.9412,-6.4591,-12.6423,1.2474,-5.8775,-9.2781,-2.0569,-4.5989,9.1787,1.0109,-1.2208,-14.6532,-8.1776
2160.1562,-5.2127,-11.9914,-13.1804,-11.3311,-4.3666,-10.4120,-8.6575,-9.1914,-11.8964,0.3929,-1.5318,-1.6819,1.2870,-3.4441,14.6586,7.4415,2.3078,-13.6409,-6.1424
2164.0625,-4.7900,-10.6892,-14.2553,-13.0723,-5.2963,-10.0357,-10.8785,-11.2669,-10.1444,-0.2673,1.9629,4.6855,2.2275,-3.7898,17.9406,11.2470,4.0202,-12.0191,-5.2396
2167.9688,-3.6478,-8.8873,-14.7471,-13.6603,-5.6709,-7.9220,-11.8440,-11.6030,-7.9852,-0.6280,3.3944,7.9401,1.0812,-4.6603,17.4378,11.3317,3.9170,-9.8388,-5.2676
2171.8750,-2.1491,-7.1399,-13.9645,-12.5258,-5.0419,-4.7093,-11.1016,-9.8842,-6.1302,-0.9994,2.2265,7.4808,-1.1888,-4.9513,12.8145,7.9718,2.6157,-7.2278,-5.6120
2175.7812,-0.8336,-5.8003,-11.3886,-9.8922,-3.7154,-1.4554,-8.7657,-6.7929,-5.0406,-1.7312,-1.0621,4.0533,-3.6291,-4.1642,5.3935,2.6876,0.9586,-4.4340,-5.7344
2179.6875,-0.1187,-4.8618,-7.0846,-6.7074,-2.5637,0.8060,-5.5210,-3.6680,-4.6690,-2.7875,-5.0527,-0.6921,-5.7244,-2.6778,-2.1840,-2.3895,-0.3521,-1.7909,-5.5227
2183.5938,-0.0328,-3.9892,-1.8424,-4.1464,-2.4347,1.5356,-2.3516,-1.7911,-4.4604,-3.5713,-7.8673,-4.8616,-7.3813,-1.4069,-6.9418,-5.3698,-0.9402,0.3950,-5.2770
2187.5000,-0.1749,-2.7351,3.0615,-2.9883,-3.5512,0.9141,-0.1438,-1.7268,-3.6426,-3.1602,-7.8783,-6.9042,-8.5829,-1.0980,-6.7820,-5.2999,-0.7395,1.9659,-5.3724
2191.4062,0.0324,-0.8463,6.3452,-3.2531,-5.3133,-0.3357,0.6172,-3.1054,-1.6812,-0.8582,-4.3799,-5.9766,-9.0568,-1.7472,-1.3999,-2.4194,0.1348,2.9522,-5.8747
2195.3125,0.9317,1.4857,7.1805,-4.3174,-6.6488,-1.4366,-0.0865,-4.9563,1.3354,3.2542,2.0372,-2.1002,-8.2637,-2.5496,7.5056,2.0754,1.5044,3.4851,-6.4151
2199.2188,2.3307,3.5756,5.4137,-5.4059,-6.6973,-2.0538,-1.9514,-6.3583,4.6050,8.1248,9.5699,3.8256,-5.7586,-2.4328,16.8439,6.5935,3.1654,3.6328,-6.4364
2203.1250,3.5340,4.4653,1.5142,-6.1148,-5.3826,-2.4676,-4.5559,-6.9853,6.8969,12.0601,15.7538,10.1505,-1.6807,-0.8372,23.3243,9.7590,4.8547,3.2798,-5.6439
2207.0312,3.7190,3.3604,-3.6232,-6.6085,-3.4987,-3.2965,-7.4628,-7.2101,7.0999,13.4539,18.3265,14.8183,2.9968,1.7818,24.7329,10.8279,6.2144,2.1643,-4.3255
2210.9375,2.4301,0.0963,-8.8780,-7.3702,-2.2495,-4.9482,-10.1865,-7.7242,4.7721,11.5472,16.1031,15.9725,6.6952,4.0913,20.7505,9.7962,6.8217,0.0864,-3.2848
2214.8438,-0.1173,-4.6114,-13.0669,-8.7024,-2.5318,-7.1786,-12.1384,-8.9459,0.4134,6.8219,9.5171,12.7028,7.8792,4.6123,12.9700,7.2350,6.3032,-2.8315,-3.3957
2218.7500,-3.1177,-9.3156,-15.1417,-10.3558,-4.4081,-9.0897,-12.7010,-10.6233,-4.6827,0.8221,0.5623,5.6095,5.7944,2.6086,4.1372,3.9784,4.4932,-6.0202,-5.0521
2222.6562,-5.5901,-12.3921,-14.4886,-11.5724,-7.0805,-9.6165,-11.4803,-11.9047,-8.9423,-4.5035,-7.9074,-3.1851,0.8897,-1.4214,-3.0156,0.8115,1.5609,-8.6092,-7.8769
2226.5625,-6.8704,-12.7795,-11.2594,-11.5408,-9.3532,-8.2237,-8.6091,-11.8402,-11.1562,-7.6138,-13.2788,-10.7473,-5.3127,-5.9668,-6.8112,-1.7349,-1.9644,-9.8154,-10.8820
2230.4688,-6.9020,-10.5455,-6.5251,-9.9621,-10.2784,-5.3687,-4.8744,-9.9980,-10.9704,-7.9641,-14.2299,-14.5483,-10.8396,-9.3088,-7.1188,-3.4491,-5.3028,-9.3740,-12.9847
2234.3750,-6.1859,-6.9542,-2.0375,-7.3355,-9.5981,-2.4060,-1.5060,-6.7953,-9.0090,-6.1326,-11.2528,-13.6171,-14.0691,-10.4202,-5.1611,-4.3894,-7.6473,-7.7514,-13.5587
2238.2812,-5.4632,-3.9319,0.4198,-4.7511,-7.7609,-0.9358,0.3340,-3.3293,-6.5836,-3.4749,-6.3906,-9.0049,-14.3342,-9.4238,-2.8143,-4.7854,-8.4334,-5.9771,-12.6910
2242.1875,-5.3291,-3.1420,-0.1617,-3.3015,-5.5737,-1.9340,0.1075,-0.8010,-5.1104,-1.4952,-2.2817,-3.2520,-12.0748,-7.3715,-1.7543,-4.9401,-7.5558,-5.1499,-11.0267
2246.0938,-5.9711,-5.1118,-3.4730,-3.4766,-3.7532,-5.1466,-1.8124,0.1182,-5.4769,-1.2095,-0.9450,0.9097,-8.5251,-5.5385,-2.7901,-5.1543,-5.4384,-5.8684,-9.3413
2250.0000,-7.1159,-8.8745,-7.9464,-4.9141,-2.6502,-9.0977,-4.3042,-0.3988,-7.6185,-2.7474,-2.8686,1.9340,-5.1325,-4.7079,-5.5931,-5.6540,-2.9083,-7.8961,-8.1341
2253.9062,-8.1636,-12.3557,-11.4409,-6.6453,-2.2589,-11.7411,-6.0393,-1.5143,-10.4924,-5.3317,-6.8292,0.1618,-2.9881,-4.8802,-8.8713,-6.5043,-0.9005,-10.2476,-7.4753
2257.8125,-8.4340,-13.3622,-12.2303,-7.6653,-2.4135,-11.4464,-6.1205,-2.2657,-12.4919,-7.6319,-10.5192,-2.5343,-2.4946,-5.5179,-10.9133,-7.5281,-0.1012,-11.6525,-7.1435
2261.7188,-7.4530,-10.7054,-9.7949,-7.4700,-2.9784,-7.8448,-4.4897,-2.1286,-12.1574,-8.3591,-11.6777,-3.9389,-3.3577,-6.0712,-10.3285,-8.2941,-0.6801,-11.1568,-6.8969
2265.6250,-5.2057,-4.8932,-5.0266,-6.2531,-3.8853,-2.1164,-1.9188,-1.2672,-8.8999,-6.8649,-9.1882,-2.8150,-4.8359,-6.3716,-6.7237,-8.2381,-2.2300,-8.5632,-6.6640
2269.5312,-2.2623,1.9828,0.2241,-4.6929,-5.0219,3.4358,0.3754,-0.3532,-3.4026,-3.4893,-3.6367,0.4039,-6.0997,-6.6223,-1.0199,-6.9161,-3.9438,-4.5164,-6.5359
2273.4375,0.3222,7.1459,3.9987,-3.5101,-6.1021,6.3574,1.2802,-0.0987,2.5278,0.5228,2.9137,3.9241,-6.5401,-7.0397,4.8081,-4.2848,-4.9478,-0.2269,-6.6065
2277.3438,1.3776,8.4047,5.0513,-3.0861,-6.6637,5.1392,0.2439,-0.8084,6.6521,3.5335,7.8129,5.6772,-5.9314,-7.4692,8.5450,-0.8380,-4.6421,3.0058,-6.8146
2281.2500,0.1605,5.1894,3.2825,-3.3475,-6.2417,-0.0512,-2.5285,-2.2148,7.2607,4.2432,8.9672,4.5154,-4.4323,-7.3144,8.7698,2.5247,-2.9108,4.2554,-6.9269
2285.1562,-3.1741,-1.1457,-0.3393,-3.9224,-4.6318,-7.3493,-6.1697,-3.6670,3.9724,2.3031,5.7354,0.8210,-2.4763,-5.8847,5.5862,4.8756,-0.1372,3.2480,-6.6790
2289.0625,-7.4507,-7.8923,-4.2561,-4.4153,-2.0795,-13.9253,-9.4598,-4.5212,-2.0156,-1.4934,-0.7881,-3.7772,-0.6211,-2.9429,0.6218,5.6927,2.9499,0.4006,-5.9710
2292.9688,-10.8492,-12.1559,-6.9430,-4.6101,0.7408,-17.1649,-11.2272,-4.4857,-8.3645,-5.5394,-8.1852,-7.3438,0.5969,0.9336,-3.7496,5.0982,5.5176,-3.3464,-4.9691
2296.8750,-11.6645,-12.0722,-7.4269,-4.5056,2.9733,-15.7769,-10.7242,-3.7275,-12.5250,-8.1005,-13.6173,-8.6264,0.7947,4.4726,-5.5510,3.7526,6.8786,-6.8170,-4.0297
2300.7812,-9.1026,-7.5345,-5.5506,-4.2220,3.9388,-10.3214,-7.8795,-2.7189,-12.7427,-8.0209,-14.8421,-7.5203,-0.1388,6.2933,-4.0728,2.4663,6.6918,-8.9228,-3.4895
2304.6875,-3.7033,-0.1504,-1.9493,-3.8910,3.4224,-2.9179,-3.3584,-1.9553,-8.6982,-5.1255,-10.9704,-4.8122,-1.9578,5.6408,-0.0045,1.7751,5.0782,-8.9505,-3.4577
2308.5938,2.8415,7.4880,2.2044,-3.6121,1.7377,3.7179,1.6058,-1.7267,-1.5451,-0.1780,-2.7336,-1.4796,-4.0642,2.8337,5.1651,1.7446,2.6149,-6.7574,-3.7522
2312.5000,8.4023,12.8555,5.5958,-3.4766,-0.4583,7.4408,5.5880,-2.0541,6.6055,5.5130,7.7760,1.9243,-5.6602,-0.8498,10.0231,2.1031,0.1794,-2.8255,-4.0243
2316.4062,11.3137,14.4246,7.1963,-3.5891,-2.4989,7.5053,7.4555,-2.7755,13.4856,10.6011,17.7642,5.3904,-6.0404,-3.7976,13.8136,2.5739,-1.3433,1.8590,-3.9924
2320.3125,11.0411,12.1483,6.6204,-4.0203,-4.0017,4.7160,6.7991,-3.6751,17.4265,14.0990,24.5838,9.0598,-4.9154,-4.8587,16.4354,3.1390,-1.3993,6.0909,-3.6224
2324.2188,8.3266,7.3836,4.3037,-4.7005,-4.9661,0.9122,4.1373,-4.5524,17.8262,15.5623,26.5361,12.6879,-2.5904,-3.8749,18.0213,4.0373,0.0024,8.8278,-3.1252
2328.1250,4.7893,2.3432,1.4159,-5.3361,-5.6341,-1.8945,0.7767,-5.2056,15.2302,15.0866,23.4059,15.4418,0.1370,-1.6776,18.5424,5.5049,2.2979,9.5410,-2.7656
2332.0312,2.1948,-0.7182,-0.5217,-5.4541,-6.2206,-2.3104,-1.6596,-5.3941,11.0468,13.1944,16.5516,16.2556,2.3479,0.4127,17.7819,7.4748,4.6396,8.3922,-2.6150
2335.9375,1.7188,-0.3321,-0.2326,-4.6093,-6.7026,0.0169,-1.8840,-4.8695,7.0048,10.6624,8.4742,14.5390,3.4485,1.2856,15.6638,9.4810,6.2930,6.1400,-2.4405
2339.8438,3.4967,3.6014,2.7110,-2.6712,-6.8178,4.4086,0.4818,-3.5051,4.5146,8.3028,1.9523,10.7343,3.4263,0.5505,12.5950,10.8622,6.9366,3.7967,-1.8411
2343.7500,6.6177,9.6992,7.5623,-0.0182,-6.2792,9.4816,4.6759,-1.4544,4.1492,6.7188,-0.9718,6.2778,2.7490,-1.3884,9.4661,11.1295,6.6920,2.1833,-0.5685
2347.6562,9.5489,15.5622,12.5799,2.5219,-5.0525,13.6186,9.0564,0.7958,5.4620,6.1135,0.2524,2.9133,1.9736,-3.6752,7.2452,10.2390,5.8898,1.6045,1.1902
2351.5625,10.8195,18.7232,15.7336,4.0183,-3.4838,15.4497,11.7856,2.5728,7.2607,6.2570,4.5363,1.7602,1.3384,-5.5164,6.4484,8.5790,4.7584,1.8198,2.7984
2355.4688,9.6866,17.7272,15.6587,3.9207,-2.1522,14.2612,11.6557,3.3323,8.2498,6.6634,9.7097,2.7340,0.6383,-6.5518,6.8854,6.6961,3.2780,2.3206,3.4953
2359.3750,6.4880,12.8407,12.3778,2.4073,-1.5205,10.2451,8.6569,2.9710,7.7275,6.9014,13.5254,4.6952,-0.5180,-6.8907,7.8590,4.9702,1.3144,2.7331,2.8830
2363.2812,2.4960,5.9783,7.3446,0.3512,-1.6202,4.4846,3.9818,1.9208,5.9426,6.8475,14.6140,6.2181,-2.2575,-6.8518,8.6443,3.4713,-1.0742,3.0662,1.2424
2367.1875,-0.6924,-0.2017,2.6996,-1.1431,-2.0164,-1.3870,-0.5730,0.9144,3.8713,6.7035,12.9132,6.4569,-4.1618,-6.6294,8.8680,2.0786,-3.4208,3.6117,-0.5830
2371.0938,-1.9492,-3.6182,0.0942,-1.4105,-2.1172,-5.7828,-3.5100,0.5196,2.5214,6.7487,9.4039,5.5393,-5.4164,-6.1338,8.5282,0.7309,-4.9447,4.5439,-1.7157
2375.0000,-1.1797,-3.7953,-0.2455,-0.7059,-1.6428,-7.7704,-4.3522,0.7203,2.1995,7.0006,5.3834,4.2697,-5.3427,-5.1181,7.7164,-0.4121,-4.9562,5.5140,-1.8607
2378.9062,0.6684,-1.9962,0.3839,-0.1562,-0.9207,-7.3856,-3.7683,0.8416,2.2446,7.0517,1.7581,3.4156,-3.9536,-3.4862,6.3601,-1.0378,-3.3245,5.5930,-1.5743
2382.8125,2.1825,-0.3585,0.0215,-1.1310,-0.7610,-5.4684,-3.0329,-0.0684,1.4553,6.2544,-1.2297,3.1262,-2.1067,-1.5458,4.2606,-0.9172,-0.6734,3.7215,-1.9488
2386.7188,2.3297,-0.5330,-2.6340,-4.3544,-1.9426,-3.1125,-3.1531,-2.5896,-1.0262,4.1776,-3.7564,2.8965,-1.0818,0.0035,1.4156,-0.1109,1.8697,-0.5390,-3.8730
2390.6250,1.0680,-2.6581,-7.2660,-9.2937,-4.6311,-1.0667,-4.2158,-6.4122,-4.9582,1.0366,-5.9265,2.0619,-1.8139,0.3762,-1.6717,1.0344,3.2500,-6.4348,-7.3512
2394.5312,-0.6606,-5.3153,-11.9926,-14.2511,-8.1356,0.5348,-5.3788,-10.3228,-8.9198,-2.2296,-7.4537,0.4137,-4.2802,-0.8712,-4.0269,2.1088,3.0329,-12.0802,-11.3612
2398.4375,-1.5636,-6.5000,-14.4431,-17.1817,-11.2100,1.9596,-5.5169,-12.7777,-11.0307,-4.3524,-7.7567,-1.5419,-7.4626,-3.5515,-4.6429,2.9077,1.5770,-15.2421,-14.3911
2402.3438,-0.8697,-4.9856,-13.1980,-16.7970,-12.7422,3.3700,-4.0921,-12.7615,-10.0542,-4.3959,-6.3780,-2.8622,-9.9242,-6.8753,-3.0485,3.5333,-0.2628,-14.4602,-15.3182
2406.2500,1.1214,-1.1941,-8.6748,-13.2960,-12.3898,4.4306,-1.6556,-10.4084,-6.1791,-2.2880,-3.3829,-2.7516,-10.6158,-9.7738,0.4025,4.2441,-1.6827,-9.8457,-14.0431
2410.1562,3.1820,2.9984,-2.8889,-8.2586,-10.7381,4.3702,0.3894,-6.9686,-0.9589,1.1248,0.5806,-1.0100,-9.3800,-11.3226,4.7338,5.1712,-2.3519,-3.0524,-11.4455
2414.0625,3.9239,5.4026,1.7438,-3.7435,-8.8643,2.5041,0.6434,-4.0989,3.5680,4.5439,4.6071,1.9487,-6.8470,-11.0393,8.8900,6.1329,-2.4437,3.5802,-8.7036
2417.9688,2.7160,4.8690,3.7752,-1.1400,-7.5992,-1.1287,-1.3566,-2.8949,6.0161,6.9151,7.9918,5.4393,-3.8599,-8.9431,12.2241,6.7051,-2.3104,8.1925,-6.4753
2421.8750,0.1592,1.9842,3.3910,-0.4847,-6.9904,-5.4926,-4.7438,-3.2698,6.3255,7.9165,10.4719,8.8670,-0.8999,-5.4340,14.5956,6.5041,-2.0933,10.1673,-4.5391
2425.7812,-2.2093,-1.3210,2.0037,-0.6575,-6.3374,-8.9109,-7.7454,-4.0821,5.5629,7.9405,12.0859,11.8041,2.0521,-1.1360,16.0677,5.4629,-1.5935,10.0711,-2.1599
2429.6875,-2.8333,-2.9839,1.1331,-0.2928,-4.7727,-9.9036,-8.6819,-3.9336,5.0344,7.6109,12.7996,13.7786,5.1417,3.1918,16.4963,3.8763,-0.5088,8.9133,1.1013
2433.5938,-1.1304,-2.0636,1.3843,1.2201,-1.9803,-8.0209,-6.9267,-2.1195,5.3325,7.1850,12.2467,14.0750,8.0996,6.7018,15.3700,2.1668,1.1558,7.3116,4.7556
2437.5000,2.0457,0.7334,2.2004,3.3241,1.4571,-4.1578,-3.2463,0.8876,5.9545,6.2597,9.8515,11.8781,10.0281,8.5684,12.0501,0.5514,2.8571,5.1654,7.4496
2441.4062,4.7779,3.5341,2.4783,4.7281,4.3358,-0.1371,0.6680,3.7324,5.7128,4.0027,5.3039,6.8006,9.7750,8.2326,6.2521,-1.1157,3.6996,2.0263,7.7446
2445.3125,5.1031,4.4387,1.5301,4.3704,5.5556,2.2118,3.1610,5.0451,3.6233,-0.2200,-0.9404,-0.5363,6.7003,5.7066,-1.5488,-3.1705,2.9713,-2.1768,5.1058
2449.2188,2.1132,2.6058,-0.3276,2.2322,4.8036,1.9604,3.4771,4.3055,-0.3363,-6.2113,-7.5261,-8.3534,1.3065,1.7406,-10.0384,-5.7349,0.6832,-6.6603,0.4173
2453.1250,-3.4728,-1.3268,-1.9554,-0.5623,2.7417,-0.5162,2.0413,2.1413,-5.0844,-12.7154,-12.6008,-14.2505,-4.7497,-2.3349,-17.3462,-8.3872,-2.2780,-9.9647,-4.3609
2457.0312,-9.5795,-5.6481,-2.1706,-2.4317,0.5801,-3.8242,0.0588,-0.1112,-8.9632,-17.7810,-14.5757,-16.2252,-9.3532,-5.1052,-21.5567,-10.1968,-4.5434,-10.7054,-7.2065
2460.9375,-13.7409,-8.4897,-0.5514,-2.3462,-0.6693,-6.3194,-1.2549,-1.2653,-10.5786,-19.5632,-12.8291,-13.6140,-10.9480,-5.6925,-21.2740,-10.1731,-5.0009,-8.3940,-7.0955
2464.8438,-14.2515,-8.7116,2.2727,-0.4895,-0.7671,-6.9236,-1.3322,-0.9872,-9.4428,-17.1672,-7.9673,-7.4085,-9.2719,-4.1682,-16.1012,-7.8769,-3.4379,-3.7771,-4.4717
2468.7500,-10.9219,-6.3351,4.9865,1.8495,-0.2892,-5.5824,-0.4510,0.0929,-6.1045,-11.1072,-1.5313,0.2240,-5.3899,-1.5067,-6.9223,-3.7909,-0.6827,1.5167,-0.8894
2472.6562,-5.0916,-2.4091,6.3126,3.0679,-0.1471,-3.1880,0.5574,0.8848,-1.7907,-3.1496,4.6587,6.9121,-1.0485,0.9189,4.1559,0.8242,1.8584,5.7641,1.8902
2476.5625,1.0532,1.5167,5.6164,2.2045,-0.9267,-1.0720,0.8457,0.5829,2.1578,4.3856,9.1636,10.9941,2.2232,2.0331,14.3181,4.5384,3.0050,7.8691,2.7775
2480.4688,5.4700,4.0202,3.0874,-0.5250,-2.4784,-0.3517,0.0024,-0.8418,4.7462,9.5318,11.3037,11.9469,3.7451,1.5715,20.9615,6.4651,2.4760,7.6348,1.7411
2484.3750,7.0646,4.2946,-0.4842,-3.8937,-3.9945,-1.4350,-1.7915,-2.6752,5.5301,11.3696,11.1680,10.2563,3.7610,0.1505,22.6917,6.6423,1.0414,5.5636,-0.4008
2488.2812,5.9579,2.3695,-4.0920,-6.3653,-4.4889,-3.8793,-3.9089,-3.9304,4.5965,10.2063,9.3638,6.9730,3.0376,-1.1161,19.8789,5.8598,0.0723,2.4590,-2.5305
2492.1875,3.1722,-0.9618,-6.8230,-6.8787,-3.3598,-6.6339,-5.5848,-3.9070,2.4343,7.2000,6.6873,3.2664,2.3226,-1.2199,14.3823,5.0724,0.7529,-0.8605,-3.7575
2496.0938,-0.0203,-4.4723,-8.0274,-5.2906,-0.7127,-8.5411,-6.2169,-2.5031,-0.2344,3.6639,3.8515,0.1400,1.9903,0.2415,8.5110,4.7982,3.4011,-3.6414,-3.6880
2500.0000,-2.7114,-6.9871,-7.4214,-2.3172,2.6931,-8.8690,-5.5524,-0.1680,-2.6572,0.4388,1.3266,-1.7255,2.0021,2.8963,3.8042,4.8905,7.2631,-5.2117,-2.4324
2503.9062,-4.6365,-7.8568,-5.1842,0.8828,5.7863,-7.6394,-3.7356,2.3750,-4.2907,-2.3399,-0.7083,-2.0924,2.0904,5.8025,0.4052,4.7979,10.8755,-5.1203,-0.4727
2507.8125,-6.0389,-7.2062,-1.9955,3.2061,7.5977,-5.5906,-1.2396,4.4115,-5.0051,-4.9871,-2.3123,-1.2459,1.9803,7.8827,-2.5502,4.0912,12.7778,-3.4064,1.5080
2511.7188,-7.2680,-5.8156,1.1096,3.9610,7.5645,-3.7847,1.2841,5.3953,-5.1279,-7.7219,-3.6431,0.0801,1.5261,8.3756,-5.8085,2.8621,12.1931,-0.7810,2.8201
2515.6250,-8.3827,-4.6587,3.1114,3.0132,5.6535,-3.0446,3.2024,5.0059,-5.2364,-10.2051,-4.7736,1.0186,0.7514,7.1164,-8.9764,1.7114,9.3384,1.5404,3.0022
2519.5312,-8.9922,-4.3306,3.4569,0.7590,2.3267,-3.5124,4.0899,3.2004,-5.7621,-11.4882,-5.5520,1.0372,-0.1620,4.5580,-10.4196,1.3410,5.2406,2.3979,2.0392
2523.4375,-8.4171,-4.6919,2.3225,-2.0210,-1.6029,-4.5733,3.8456,0.2903,-6.6238,-10.4470,-5.5957,0.2911,-0.9146,1.5453,-8.2614,2.0458,1.1942,1.3575,0.4245
2527.3438,-6.0765,-4.9610,0.4867,-4.4127,-5.2008,-5.2037,2.6845,-3.0436,-7.1513,-6.4679,-4.4597,-0.4192,-1.1884,-1.0582,-1.8373,3.4592,-1.8405,-0.9559,-1.0502
2531.2500,-1.8947,-4.2268,-1.1466,-5.7008,-7.7047,-4.5589,1.0063,-5.9163,-6.4152,0.0207,-1.9164,-0.1390,-0.8238,-2.7448,7.4320,4.7234,-3.6036,-3.1575,-1.7397
2535.1562,3.4775,-2.0904,-2.0880,-5.6935,-8.8151,-2.4761,-0.7939,-7.5992,-3.8294,7.5049,1.7948,1.5595,-0.0166,-3.5843,16.4420,4.9621,-4.5193,-3.9214,-1.5905
2539.0625,8.7453,0.9543,-2.5191,-4.8773,-8.8558,0.3950,-2.4707,-7.9087,0.3132,13.8858,5.8891,4.1390,0.6031,-4.1875,21.9048,3.7429,-5.3559,-2.8357,-1.2868
2542.9688,12.3433,3.6559,-3.1053,-4.2624,-8.6787,2.9092,-3.9591,-7.3657,4.7243,17.2697,9.1967,6.2247,0.1345,-5.4082,22.0123,1.2513,-6.7687,-0.7398,-1.9445
2546.8750,12.9720,4.6094,-4.4993,-4.9217,-9.2888,4.0126,-5.2896,-6.9603,7.5642,16.6528,10.5132,6.2816,-2.1880,-7.9013,17.2193,-1.8853,-8.9567,0.7067,-4.4788
2550.7812,10.1049,3.0054,-6.8681,-7.4182,-11.3264,3.2728,-6.4626,-7.6021,7.2740,12.1940,9.0152,3.4726,-6.5216,-11.7392,9.7214,-4.9520,-11.5758,-0.0085,-9.0020
2554.6875,4.2677,-0.8875,-9.7434,-11.4252,-14.6614,1.0710,-7.3758,-9.5615,3.3835,5.0304,4.5923,-1.7910,-12.1425,-16.2741,2.0871,-7.4287,-13.9049,-3.3193,-14.6138
2558.5938,-3.0396,-5.7731,-12.2618,-15.7683,-18.3365,-1.6248,-7.8591,-12.2516,-3.1344,-3.1776,-2.0158,-7.9284,-17.5718,-20.3258,-3.9992,-9.0549,-15.1497,-8.2434,-19.7218
2562.5000,-9.7874,-9.8875,-13.6132,-18.8996,-20.9271,-3.7562,-7.7917,-14.5030,-10.1738,-10.7121,-9.3349,-12.8564,-21.0985,-22.6147,-8.1273,-9.7259,-14.7393,-12.8321,-22.7198
2566.4062,-14.0918,-11.7760,-13.4131,-19.5700,-21.1646,-4.6620,-7.2188,-15.1810,-15.3426,-16.1177,-15.5210,-14.8963,-21.4734,-22.2487,-10.6491,-9.3929,-12.5155,-15.1375,-22.6571
2570.3125,-14.8665,-10.9002,-11.8059,-17.3615,-18.5181,-4.3145,-6.3804,-13.7795,-16.9460,-18.3880,-18.8964,-13.4667,-18.4439,-19.0556,-11.8671,-8.0930,-8.7829,-14.1531,-19.5717
2574.2188,-12.1818,-7.7934,-9.3053,-12.8275,-13.4487,-3.2190,-5.6182,-10.6503,-14.6388,-17.1084,-18.5023,-9.2524,-12.8747,-13.6426,-11.6360,-6.0813,-4.2400,-10.2316,-14.3782
2578.1250,-7.1660,-3.7230,-6.5182,-7.2107,-7.2237,-2.0720,-5.2042,-6.7616,-9.4553,-12.5878,-14.4601,-3.8162,-6.3979,-7.1914,-9.6315,-3.9003,0.1845,-4.8130,-8.4450
2582.0312,-1.4900,-0.0642,-3.9219,-1.9203,-1.4023,-1.3823,-5.1874,-3.1718,-3.2410,-5.8893,-7.9611,1.1241,-0.7626,-1.0915,-5.9330,-2.2360,3.5697,0.3286,-3.1060
2585.9375,3.3265,2.2911,-1.7752,1.9645,2.7484,-1.2480,-5.3509,-0.5508,2.1985,1.3789,-0.8369,4.4081,2.8214,3.4527,-1.3173,-1.5709,5.2824,3.8909,0.6901
2589.8438,6.4599,3.2106,-0.1453,3.9647,4.6458,-1.3836,-5.3156,0.9924,5.7989,7.5480,5.1388,5.8236,4.0692,5.7329,3.0636,-1.8341,5.2242,5.5054,2.5278
2593.7500,7.9358,3.1852,1.0137,4.1954,4.4630,-1.3575,-4.7416,1.7436,7.4730,11.4825,8.9080,6.0330,3.5945,5.7005,6.3877,-2.3104,3.9324,5.6860,2.5111
2597.6562,8.3600,2.9027,1.7801,3.1662,2.9147,-0.8971,-3.5213,2.0588,7.8374,12.9772,10.4309,6.1029,2.5180,3.9472,8.6717,-1.9399,2.4385,5.3693,1.1528
2601.5625,8.4217,2.7971,2.2045,1.5239,0.9074,-0.0908,-1.8590,2.1229,7.6577,12.7056,10.4891,6.8854,1.9082,1.5041,10.6395,0.1107,1.8848,5.3362,-0.7964
2605.4688,8.4642,2.8290,2.2828,-0.1583,-0.7789,0.6282,-0.1883,1.9219,7.3683,11.7161,10.1122,8.5647,2.3111,-0.4982,13.0198,3.9230,3.0323,5.8178,-2.5645
2609.3750,8.3510,2.6050,1.9755,-1.4994,-1.6783,0.7194,1.0258,1.3866,6.9277,10.7634,9.9594,10.5961,3.5742,-1.2041,15.8081,8.6706,5.8891,6.4612,-3.5854
2613.2812,7.6625,1.7340,1.2759,-2.3409,-1.6779,-0.1280,1.4917,0.5482,6.0362,9.8869,10.0014,12.0514,5.0267,-0.3066,18.0724,12.9491,9.6625,6.6303,-3.6580
2617.1875,6.0674,0.1793,0.2854,-2.7137,-0.9524,-1.7468,1.1913,-0.4257,4.5175,8.5091,9.6675,12.1653,5.9033,1.8955,18.4797,15.4250,13.0876,5.8471,-2.9597
2621.0938,3.6330,-1.6236,-0.7655,-2.7652,0.1544,-3.4873,0.3331,-1.3294,2.5805,5.9958,8.3418,10.7697,5.7851,4.6768,16.1859,15.4496,14.9855,4.1216,-1.8943
2625.0000,0.9022,-2.9585,-1.5953,-2.6761,1.2579,-4.4900,-0.7895,-2.0507,0.7898,2.3103,5.8962,8.3823,4.8236,7.2068,11.4784,13.3103,14.7690,1.9927,-0.8505
2628.9062,-1.2895,-3.2067,-2.0133,-2.5902,2.0458,-4.1097,-1.9289,-2.6146,-0.2185,-1.6837,2.9348,5.9366,3.6368,8.8529,5.7519,10.0104,12.6422,0.2673,-0.0059
2632.8125,-2.1495,-2.1776,-2.0254,-2.5806,2.3560,-2.2690,-2.9170,-3.0997,-0.0733,-4.5051,0.5979,4.3423,2.9472,9.3274,0.8658,6.7331,9.4058,-0.3866,0.7168
2636.7188,-1.2559,-0.2009,-1.8069,-2.6528,2.1989,0.4561,-3.6033,-3.4977,1.1583,-4.7954,0.0261,4.1309,3.1695,8.6462,-1.6875,4.2956,6.0007,0.2332,1.5235
2640.6250,1.2497,2.0461,-1.5432,-2.7690,1.7169,3.0736,-3.7820,-3.6413,3.0412,-2.0963,1.7659,5.3230,4.1751,6.9801,-1.3303,2.8683,3.0560,1.7817,2.5427
2644.5312,4.6609,3.8438,-1.2511,-2.8698,1.0995,4.6130,-3.2107,-3.2766,4.9970,2.7885,5.4218,7.4859,5.3493,4.5233,1.5375,2.0524,0.6841,3.5493,3.6715
2648.4375,7.8895,4.6825,-0.7324,-2.8806,0.4980,4.5387,-1.7467,-2.2432,6.5124,8.0628,9.7316,9.8576,5.8930,1.4635,5.8393,1.2141,-1.3970,4.7800,4.5710
2652.3438,9.7849,4.3562,0.2770,-2.7093,-0.0121,2.9357,0.4794,-0.6387,7.2181,11.7036,13.0295,11.4727,5.2015,-1.9537,10.2214,-0.1314,-3.5249,4.9514,4.8208
2656.2500,9.5086,2.9280,1.8569,-2.2510,-0.4001,0.4093,2.9964,1.1628,6.8573,12.3239,13.8900,11.3490,3.1392,-5.3459,13.3775,-2.0727,-5.7586,3.9052,4.1554
2660.1562,6.8522,0.6719,3.7444,-1.4112,-0.6045,-2.2088,5.1255,2.6702,5.2623,9.7087,11.6706,8.8267,0.1133,-8.1820,14.3000,-4.2678,-7.7428,1.8280,2.6661
2664.0625,2.3738,-1.9447,5.4123,-0.1395,-0.4766,-4.1733,6.2743,3.5247,2.4299,4.8007,6.7371,4.0153,-3.0489,-9.8679,12.5238,-6.0910,-8.8319,-0.8404,0.8619
2667.9688,-2.7353,-4.2732,6.3542,1.5374,0.1988,-5.0179,6.2257,3.6812,-1.3288,-0.7918,0.3044,-1.8994,-5.3505,-9.8981,8.3443,-6.8711,-8.3918,-3.5027,-0.4597
2671.8750,-7.0395,-5.5899,6.3831,3.4975,1.5899,-4.5948,5.2330,3.4044,-5.2993,-5.4749,-6.0031,-6.8198,-5.9261,-8.0138,2.8652,-6.1337,-6.1148,-5.5008,-0.5060
2675.7812,-9.3625,-5.3377,5.7250,5.5195,3.6635,-3.0202,3.8476,3.0794,-8.4712,-8.2044,-10.6662,-8.5049,-4.3298,-4.3220,-2.2672,-3.7808,-2.2024,-6.2509,1.1561
2679.6875,-9.1947,-3.4173,4.8375,7.2933,6.0842,-0.6109,2.5830,2.9615,-9.8615,-8.6764,-12.6621,-5.6789,-0.7452,0.6520,-5.4216,-0.1682,2.6501,-5.4310,4.3327
2683.5938,-6.8226,-0.3415,4.0898,8.4511,8.2488,2.1530,1.6313,3.0294,-8.9198,-7.1854,-11.6355,1.1148,3.9680,5.9995,-5.6028,3.9489,7.4426,-3.1579,8.1617
2687.5000,-3.1426,2.8951,3.5408,8.6300,9.4710,4.6665,0.8179,3.0345,-5.8064,-4.3213,-7.8834,9.4919,8.4590,10.5764,-2.8266,7.6019,11.1513,-0.0406,11.3540
2691.4062,0.7229,5.2078,2.9706,7.5701,9.2446,6.2872,-0.1850,2.7075,-1.3939,-0.7158,-2.2502,16.1846,11.2961,13.2769,1.9258,9.8854,13.0067,2.9688,12.6420
2695.3125,3.8012,5.8691,2.1141,5.2219,7.4579,6.4888,-1.5473,1.9708,3.0078,3.0397,3.9956,18.5333,11.4718,13.3797,7.1124,10.2336,12.6912,4.8926,11.2487
2699.2188,5.4773,4.7557,0.8914,1.8165,4.4522,5.0338,-3.0979,1.0058,6.0682,6.3369,9.3246,15.6999,8.7862,10.8456,11.1580,8.5917,10.4065,5.0712,7.1700
2703.1250,5.5063,2.2683,-0.5547,-2.1489,0.8936,2.0867,-4.4021,0.1237,6.8228,8.4931,12.2259,8.9305,3.9160,6.4079,12.8796,5.4156,6.7997,3.3662,1.1497
2707.0312,3.9228,-0.9809,-2.0274,-6.0217,-2.4724,-1.7956,-5.0441,-0.4684,4.9160,8.8349,11.6299,0.7625,-1.8714,1.3662,11.7269,1.5141,2.7778,0.1451,-5.6133
2710.9375,0.9707,-4.4693,-3.4837,-9.1660,-5.0618,-5.8069,-4.9148,-0.8357,0.6750,6.9543,7.3613,-6.2956,-7.2098,-2.8653,7.8840,-2.1863,-0.7305,-3.9023,-11.8579
2714.8438,-2.8967,-7.8531,-5.0778,-11.1313,-6.5852,-9.1188,-4.3070,-1.2916,-4.9647,3.0149,0.3840,-10.8178,-11.0816,-5.2619,2.2755,-4.8585,-2.9894,-7.9876,-16.5762
2718.7500,-7.0022,-10.8379,-6.9820,-11.7640,-7.0478,-11.1159,-3.7598,-2.1915,-10.6656,-2.1040,-7.3817,-12.7043,-13.0211,-5.5110,-3.5728,-5.9221,-3.5966,-11.3856,-19.1602
2722.6562,-10.5121,-13.0169,-9.1331,-11.2397,-6.6665,-11.5654,-3.7632,-3.6852,-15.0199,-6.9893,-13.6993,-12.6493,-13.0494,-4.0164,-7.9110,-5.1363,-2.5333,-13.5227,-19.4206
2726.5625,-12.6285,-13.8882,-11.1309,-10.0179,-5.7809,-10.6651,-4.5186,-5.6023,-16.9577,-10.1906,-16.8652,-11.3491,-11.4790,-1.6208,-9.3703,-2.6708,-0.1449,-14.0466,-17.5679
2730.4688,-12.8433,-13.1037,-12.4070,-8.7280,-4.7965,-8.9492,-5.8832,-7.5467,-16.1085,-10.8171,-16.3555,-9.0438,-8.7618,0.7718,-7.5710,0.8495,2.9265,-12.9138,-14.2001
2734.3750,-11.1175,-10.7749,-12.5534,-7.9840,-4.1354,-7.0689,-7.4875,-9.1231,-12.9423,-8.9201,-12.9284,-5.6414,-5.4513,2.4825,-3.3795,4.4018,5.8581,-10.4519,-10.2399
2738.2812,-7.8833,-7.5673,-11.5572,-8.1456,-4.1415,-5.5177,-8.9026,-10.1204,-8.5756,-5.4348,-8.1374,-1.2048,-2.2025,3.1624,1.4302,6.8081,7.8262,-7.3021,-6.7314
2742.1875,-3.8638,-4.4384,-9.7476,-9.0967,-4.9324,-4.4145,-9.7374,-10.5185,-4.2931,-1.6921,-3.5419,3.6637,0.3220,2.7647,5.0208,7.1656,8.2432,-4.1923,-4.4822
2746.0938,0.1821,-2.1349,-7.4913,-10.1649,-6.2627,-3.4610,-9.6462,-10.3292,-1.0054,1.2432,-0.0586,7.8831,1.6786,1.4904,6.4052,5.3081,6.9843,-1.6187,-3.6939
2750.0000,3.6630,-0.7709,-4.8893,-10.2995,-7.5201,-2.1220,-8.3287,-9.4278,1.0760,3.0419,2.2285,10.3749,1.8841,-0.2390,5.8969,2.0356,4.4864,0.3791,-3.8145
2753.9062,6.2405,0.2144,-1.7436,-8.5150,-7.9304,0.0377,-5.6182,-7.5553,2.3824,4.1383,3.7924,10.6276,1.4680,-1.8248,4.8185,-1.1069,1.6137,2.1851,-3.7787
2757.8125,7.8184,1.6638,2.1460,-4.4356,-6.9240,3.0332,-1.6588,-4.5436,3.6126,5.3259,5.1907,8.9709,1.2209,-2.6375,4.6495,-2.4992,-0.7031,4.3038,-2.5754
2761.7188,8.5022,4.1135,6.5717,1.3506,-4.4841,6.3421,2.9437,-0.6251,5.2810,7.1798,6.7229,6.4036,1.7362,-2.2827,6.1394,-1.2698,-1.9028,6.9661,0.1521
2765.6250,8.5577,7.3811,10.7337,7.3757,-1.2589,9.0775,7.1555,3.4191,7.4498,9.6501,8.3740,4.1173,3.0243,-0.8683,8.9152,2.1756,-2.0663,9.8993,3.8373
2769.5312,8.3388,10.5849,13.4799,11.8516,1.6734,10.3707,9.8034,6.4474,9.7517,12.0455,9.9522,3.0011,4.4702,0.9219,11.7707,6.2712,-1.8401,12.4174,7.2437
2773.4375,8.1444,12.5620,13.8614,13.4515,3.2975,9.7557,10.0236,7.4415,11.6084,13.3851,11.2129,3.3554,5.1940,2.0745,13.3916,9.0532,-2.0209,13.7664,9.1084
2777.3438,8.0321,12.4131,11.6493,11.8975,3.1508,7.3461,7.6508,6.0287,12.4542,12.8975,11.8450,4.8637,4.5959,1.7453,13.0361,9.1748,-3.0271,13.4904,8.7911
2781.2500,7.7071,9.8684,7.4718,8.0201,1.5309,3.7319,3.3330,2.7274,11.8453,10.3960,11.3939,6.7429,2.7266,-0.2513,10.7955,6.5978,-4.5871,11.5859,6.5356
2785.1562,6.6261,5.3304,2.4878,3.2612,-0.7005,-0.3037,-1.6985,-1.2523,9.4905,6.3708,9.3148,7.9759,0.2350,-3.2651,7.3854,2.5532,-5.8627,8.3830,3.2078
2789.0625,4.3439,-0.3239,-2.1671,-1.0724,-2.5984,-4.0516,-6.0889,-4.5539,5.3314,1.8043,5.2653,7.5968,-2.0647,-6.0897,3.7153,-1.2037,-5.9614,4.3040,-0.2799
2792.9688,0.9421,-5.9934,-5.7890,-4.3522,-3.6086,-6.9834,-8.8206,-6.2637,-0.2622,-2.1630,-0.4755,5.0207,-3.7005,-7.5704,0.5472,-3.3881,-4.5355,-0.2760,-3.4501
2796.8750,-2.7463,-10.5322,-8.1377,-6.6661,-3.7628,-8.7060,-9.4748,-6.2288,-6.2929,-4.5719,-6.7622,0.3572,-4.7736,-7.2029,-1.6102,-3.8224,-2.0863,-4.9558,-6.3310
2800.7812,-5.3433,-12.8843,-9.1607,-8.3963,-3.5066,-8.8981,-8.2259,-4.9711,-11.1651,-4.8974,-11.7810,-5.4411,-5.7619,-5.3817,-2.4466,-3.3491,0.2405,-9.1226,-9.1058
2804.6875,-5.5454,-12.2765,-8.7097,-9.6885,-3.3136,-7.3672,-5.6477,-3.3059,-13.1138,-3.1759,-13.7095,-10.7518,-7.0551,-3.1600,-1.8092,-3.1173,1.2706,-11.8904,-11.6453
2808.5938,-2.8469,-8.5053,-6.5333,-10.2152,-3.3553,-4.2338,-2.4727,-1.9217,-10.9478,0.0106,-11.5421,-13.8055,-8.5633,-1.6667,0.2356,-3.7362,0.4704,-12.3342,-13.3108
2812.5000,2.0664,-2.1950,-2.5802,-9.4042,-3.4356,-0.0970,0.5884,-1.1408,-4.7537,3.7047,-5.6392,-13.3876,-9.6816,-1.5115,3.3044,-4.8508,-1.7251,-9.9637,-13.2217
2816.4062,7.5328,5.1898,2.6249,-6.9545,-3.2004,4.0073,2.9478,-0.9282,3.8765,6.8765,2.3111,-9.4013,-9.6387,-2.4938,6.7029,-5.3944,-4.1174,-5.1586,-10.8437
2820.3125,11.6631,11.7085,7.8736,-3.2523,-2.4428,6.9235,4.2029,-1.0524,12.3174,8.7661,9.9104,-3.0018,-7.9923,-3.7453,9.6043,-4.3247,-5.3602,0.7522,-6.5047
2824.2188,13.2034,15.5975,11.6021,0.6344,-1.2849,7.8361,4.1937,-1.2546,17.9171,9.1154,14.9277,3.7925,-4.9482,-4.2008,11.3161,-1.3503,-4.6347,5.8994,-1.4687
2828.1250,12.0136,15.9083,12.5240,3.4050,-0.1228,6.6016,3.0421,-1.3407,19.0438,8.1642,16.0248,8.8510,-1.3134,-3.1477,11.4738,2.8070,-2.0282,8.6061,2.5326
2832.0312,8.9036,12.7967,10.2086,4.1417,0.5971,3.7400,1.1232,-1.2113,15.6442,6.4031,13.0564,10.7147,1.8637,-0.5938,10.0583,6.7484,1.5471,8.0695,4.0707
2835.9375,4.9822,7.3229,5.2688,2.7102,0.5972,0.0910,-1.0624,-0.8833,9.0657,4.2370,6.9324,9.0869,3.7353,2.6909,7.2875,9.0953,4.8006,4.6466,2.6699
2839.8438,0.9853,0.9075,-0.9359,-0.2702,-0.1550,-3.6320,-3.0781,-0.5230,1.3188,1.7828,-0.7763,4.8532,3.9408,5.4599,3.5266,9.1266,6.6145,-0.3783,-1.0091
2843.7500,-2.9631,-5.2161,-6.8825,-3.8170,-1.5220,-7.0825,-4.7063,-0.4477,-5.7610,-1.0486,-8.2766,-0.3340,2.6382,6.4825,-0.6870,7.0301,6.4425,-5.3752,-5.5205
2847.6562,-7.0238,-10.2539,-11.4080,-7.0481,-3.3119,-10.1665,-5.9739,-1.0348,-11.0105,-4.2414,-13.9226,-4.7092,0.3430,5.0510,-4.5654,3.7115,4.4251,-8.9787,-9.2935
2851.5625,-11.0366,-13.7437,-13.9213,-9.4436,-5.3157,-12.6937,-7.0251,-2.5397,-13.9437,-7.3706,-16.5085,-7.0195,-2.2915,1.3079,-7.1186,0.3460,1.2453,-10.4496,-11.2472
2855.4688,-14.1355,-15.2854,-14.2849,-10.8143,-7.2503,-14.1085,-7.9157,-4.9079,-14.4514,-9.5687,-15.5066,-6.8943,-4.6540,-3.7535,-7.4580,-2.0714,-2.1657,-9.7045,-11.0853
2859.3750,-14.9469,-14.4059,-12.5646,-11.1076,-8.7024,-13.5759,-8.4675,-7.7031,-12.5366,-9.8617,-11.2166,-4.8430,-6.2931,-8.6415,-5.2715,-3.0060,-4.9500,-7.1198,-9.2119
2863.2812,-12.3308,-10.7322,-8.8904,-10.2615,-9.1980,-10.4464,-8.2938,-10.2204,-8.3204,-7.7120,-4.7419,-1.9171,-6.9964,-11.9484,-1.1785,-2.4654,-6.5806,-3.2954,-6.4063
2867.1875,-6.2245,-4.3924,-3.5413,-8.2344,-8.4242,-4.8277,-7.0108,-11.7423,-2.2782,-3.4368,2.2690,0.7915,-6.8299,-12.9184,3.3480,-0.9316,-6.9931,1.0934,-3.4701
2871.0938,1.9638,3.6376,2.8375,-5.1673,-6.4898,2.1286,-4.5305,-11.8090,4.5458,1.7819,8.0774,2.5792,-6.1084,-11.7341,6.5714,0.8098,-6.5568,5.3419,-1.0052
2875.0000,9.7232,11.5349,9.0997,-1.5253,-4.0315,8.4760,-1.2635,-10.3787,10.6078,6.3393,11.3503,3.2934,-5.2720,-9.3821,7.3235,1.9246,-5.8873,8.7307,0.6412
2878.9062,14.4328,17.0866,13.7330,1.9193,-2.0393,12.1880,1.9088,-7.8251,14.2831,8.8704,11.5077,3.1844,-4.7086,-7.1656,5.5913,1.8251,-5.5671,10.5865,1.3202
2882.8125,14.4740,18.4530,15.2909,4.2841,-1.4450,11.9898,3.9250,-4.8093,14.4549,8.7747,8.7991,2.5787,-4.6175,-6.1145,2.4748,0.4088,-5.8911,10.4105,0.9991
2886.7188,9.8982,14.9078,12.9658,4.8648,-2.6780,7.8878,3.9914,-2.0938,10.9714,6.3492,4.1156,1.6071,-4.9952,-6.5853,-0.4901,-1.8906,-6.7585,8.0418,-0.2860
2890.6250,2.3479,7.2240,7.0431,3.3876,-5.4289,1.1625,1.9824,-0.3458,4.7421,2.5271,-1.3408,0.1774,-5.7356,-8.2132,-2.2301,-4.3001,-7.7534,3.7899,-2.4247
2894.5312,-5.6642,-2.4724,-0.9977,0.1384,-8.7511,-6.1243,-1.4106,0.0546,-2.5532,-1.5612,-6.3805,-1.7928,-6.7395,-10.1717,-2.6779,-6.0655,-8.3519,-1.5266,-5.1842
2898.4375,-11.7184,-11.3395,-8.8330,-4.0593,-11.4397,-11.8393,-4.8875,-0.8267,-8.9836,-4.9406,-10.0400,-4.0583,-7.9119,-11.5439,-2.6118,-6.7687,-8.1247,-6.6782,-8.1500
2902.3438,-14.2553,-16.7258,-14.0169,-8.0192,-12.4956,-14.4100,-7.0483,-2.4271,-12.8984,-6.9241,-11.6719,-5.9011,-9.0318,-11.6107,-2.9113,-6.4133,-6.8336,-10.2830,-10.7074
2906.2500,-12.9003,-17.0363,-14.8364,-10.5035,-11.4636,-13.2070,-6.9942,-3.8366,-13.3175,-7.0908,-10.9650,-6.3225,-9.6190,-9.9824,-3.7591,-5.2484,-4.4235,-11.1955,-12.1225
2910.1562,-8.3611,-12.2705,-10.9862,-10.6270,-8.5376,-8.6497,-4.7454,-4.1626,-10.1376,-5.2658,-7.9648,-4.5199,-8.9843,-6.6353,-4.3669,-3.4908,-0.9951,-8.9308,-11.7531
2914.0625,-2.0701,-4.0409,-3.7765,-8.2299,-4.4447,-2.0765,-1.2626,-2.9817,-4.1613,-1.6057,-3.1227,-0.3969,-6.5445,-1.9408,-3.4560,-1.1827,3.1568,-3.9531,-9.3459
2917.9688,4.2498,4.9575,4.2661,-4.0392,-0.1946,4.5958,1.9692,-0.6271,3.0574,3.2694,2.6659,5.2040,-2.2669,3.3102,-0.1983,1.6952,7.4618,2.3467,-5.2784
2921.8750,9.0079,11.8747,10.3167,0.5386,3.2207,9.4052,3.6222,1.9107,9.5778,8.2632,8.1258,10.7273,3.0556,7.9910,5.0140,4.9555,11.0746,8.0711,-0.5711
2925.7812,11.1326,14.7135,12.3647,3.9853,5.1188,10.9880,3.1547,3.4886,13.6336,12.0470,11.8601,14.5245,7.9694,10.9362,10.5262,8.0360,13.0857,11.5273,3.4349
2929.6875,10.3772,13.0395,10.0589,5.3671,5.3549,9.1216,1.0759,3.4716,14.2523,13.5289,12.8035,15.5825,10.9829,11.4154,14.2001,10.1378,12.9283,11.9403,5.6515
2933.5938,7.4342,8.0944,4.8814,4.7896,4.4055,4.8903,-1.3008,2.1484,11.6789,12.3398,10.7322,13.9988,11.3387,9.5596,14.5738,10.6447,10.7750,9.8112,5.7981
2937.5000,3.7352,2.2420,-0.4895,3.3178,3.2232,0.2967,-2.5076,0.6100,7.3526,9.0634,6.5676,10.9494,9.4694,6.4399,11.6981,9.5561,7.6296,6.6953,4.5967
2941.4062,0.9207,-2.0378,-3.3902,2.3525,2.8474,-2.5935,-1.6569,0.1168,3.3512,5.0499,2.2151,8.1366,6.8022,3.6431,7.1378,7.6074,4.9481,4.4544,3.4209
2945.3125,0.1509,-3.1790,-2.4151,2.7923,3.8906,-2.5975,1.1106,1.3171,1.4930,1.8708,-0.1392,6.9589,4.9656,2.4856,3.1363,5.9351,3.9124,4.3292,3.5163
2949.2188,1.5757,-1.1353,1.9134,4.4731,6.1473,0.0332,4.6913,3.8004,2.5055,0.6639,0.9586,7.8012,4.8373,3.2786,1.4506,5.4565,4.7503,6.3020,5.2067
2953.1250,4.2599,2.6985,7.3984,6.2379,8.5729,3.7645,7.5610,6.2781,5.6807,1.6780,5.3976,9.8101,6.0123,5.0903,2.5363,6.3452,6.5364,9.0924,7.5757
2957.0312,6.6520,6.1937,11.2502,6.6217,9.7202,6.5718,8.5108,7.2960,9.2194,4.2183,11.3544,11.3047,7.0433,6.1972,5.5110,7.9358,7.6594,10.8097,8.8881
2960.9375,7.3828,7.4862,11.4668,4.7547,8.4665,6.9475,7.2031,6.0498,11.1112,6.9991,16.0372,10.6649,6.3397,5.0179,8.8266,9.1203,6.7370,9.9382,7.5836
2964.8438,5.9805,5.8074,7.8210,0.9477,4.6604,4.5955,4.2800,2.8223,10.1187,8.7233,17.0296,7.2684,3.2035,1.0181,11.1722,8.9840,3.4567,6.1575,3.3000
2968.7500,3.1089,1.7920,1.9545,-3.3896,-0.6814,0.4776,0.9997,-1.1955,6.3776,8.6267,13.5525,1.9809,-1.6244,-4.9233,12.0535,7.2929,-1.1626,0.5830,-2.6962
