Time,Fp1,F3,C3,P3,O1,F7,T3,T5,Fz,Fp2,F4,C4,P4,O2,F8,T4,T6,Cz,Pz
0.0000,7.5341,5.0498,0.9818,-0.1224,-1.8801,1.5068,5.5745,0.3516,1.5180,7.7569,1.2164,-0.1541,0.3099,-0.5664,2.7784,2.1204,-0.5249,2.5510,1.1143
3.9062,4.9046,2.9010,-0.5499,-3.2840,-3.9997,0.6254,5.4625,-3.6006,-0.1051,2.3128,6.3238,-0.6165,-0.9963,-1.8369,-0.4353,0.6181,-1.5460,0.9222,0.3418
7.8125,2.1806,1.7799,-1.1653,-5.6228,-5.1776,1.7428,3.6722,-6.6495,0.2633,-4.2530,10.8394,0.6954,-0.7477,-3.2016,-3.6541,-0.8776,-2.4525,0.9127,0.3773
11.7188,1.2853,3.1673,-1.2301,-6.4709,-5.1608,5.3299,0.4335,-7.2181,3.5015,-8.0621,13.1157,3.5238,1.1515,-4.2734,-4.5692,-1.7150,-2.5627,2.9336,0.9152
15.6250,3.0499,7.1982,-1.4342,-6.1594,-4.6730,10.2946,-3.2149,-5.4206,8.9140,-6.4402,13.2184,6.7344,3.5452,-4.8389,-1.9855,-1.6212,-1.7736,6.2064,1.1121
19.5312,6.5080,12.3649,-2.1638,-5.6656,-4.8452,14.4350,-5.7622,-2.9790,14.4964,0.2574,12.9347,9.0715,4.6778,-4.9534,3.1908,-0.8596,-0.7773,9.2153,0.1176
23.4375,9.5959,16.3595,-3.1039,-5.7675,-6.2255,15.7695,-5.8872,-1.8813,18.1282,8.8672,14.4013,9.9475,3.3746,-4.8318,8.4404,-0.0152,-0.5815,10.6606,-2.3025
27.3438,10.7637,17.4923,-3.3859,-6.3721,-8.1428,13.8414,-3.1660,-2.7929,18.8768,15.4944,18.3101,9.6586,-0.0839,-4.6225,11.2979,0.4291,-1.6389,10.2193,-5.4727
31.2500,10.1908,15.6771,-2.1972,-6.5594,-8.9871,10.0300,1.5571,-4.4807,17.4669,17.8892,23.0673,8.8945,-4.0538,-4.2487,10.9581,0.4159,-3.2908,8.5722,-8.0694
35.1562,9.5489,12.3028,0.5688,-5.3228,-7.2948,6.5915,6.4199,-4.7444,15.5709,16.4277,25.6564,7.9917,-6.5611,-3.4584,8.6057,0.3007,-4.0619,6.7313,-8.8095
39.0625,10.4361,9.1543,4.0881,-2.4277,-2.8791,5.0989,9.3876,-2.1653,14.4688,13.1669,23.7084,6.6074,-6.5464,-2.0555,6.2537,0.5294,-2.6941,5.2492,-7.1512
42.9688,12.7575,7.2420,6.9912,1.2981,2.8507,5.4293,9.2974,2.6897,14.1225,9.9469,17.3445,4.1413,-4.4295,-0.1242,5.0743,1.2636,0.8360,3.9606,-3.5756
46.8750,14.4811,6.4015,8.1417,4.4905,7.6765,6.0495,6.5090,7.5728,13.3922,7.1440,9.4416,0.5829,-1.6079,1.9491,4.6047,2.2487,5.1404,2.4360,0.7200
50.7812,13.1253,5.8495,7.3257,6.1941,9.9482,5.3667,2.7372,10.1575,11.2144,3.9778,4.0426,-2.9641,0.6858,3.6997,3.4717,3.0255,8.3038,0.7043,4.5110
54.6875,7.8728,5.1020,5.4068,6.4908,9.5751,3.0793,0.1035,9.6997,7.7643,-0.1181,3.9195,-4.6511,2.2631,4.8868,0.9766,3.3122,9.2106,-0.4575,7.1715
58.5938,0.5680,4.4144,3.8197,6.3201,7.9272,0.4549,-0.0578,7.4656,4.5907,-4.4382,8.8813,-3.0392,3.9134,5.6271,-1.8895,3.2473,8.3002,-0.0208,8.8455
62.5000,-5.3575,4.3796,3.6769,6.6362,6.7386,-0.7037,2.0781,5.6066,3.5107,-7.2868,15.8983,1.7398,6.4726,6.2313,-2.9948,3.2870,7.1439,2.3416,10.0894
66.4062,-7.3327,5.0995,5.0285,7.5790,6.8374,0.4021,5.0136,5.3963,5.0766,-7.3793,20.9093,7.7206,9.8143,6.8672,-0.8554,3.8257,7.1549,5.6399,11.2731
70.3125,-5.5753,5.7563,6.7594,8.3289,7.6413,2.7562,6.8869,6.2440,7.8630,-5.0943,21.1283,12.0699,12.6380,7.3315,3.7996,4.8357,8.4516,7.9092,12.1960
74.2188,-2.9067,5.0809,7.2564,7.7720,7.7619,4.1461,6.5779,6.2724,9.2690,-2.3869,16.4599,12.7383,13.3110,7.1554,8.1072,5.8261,9.7967,7.4121,12.2171
78.1250,-2.4862,2.4248,5.4926,5.4561,6.2187,2.8040,4.2719,3.9785,7.3746,-1.3222,9.3053,9.7170,11.1649,6.0016,8.9612,6.1826,9.6831,3.8895,10.8215
82.0312,-5.1983,-1.4492,1.8591,2.0695,3.3092,-1.1565,1.1806,-0.3816,2.5054,-2.4147,3.0571,5.0336,7.2308,4.0481,5.3821,5.6482,7.6948,-1.0830,8.1975
85.9375,-8.7995,-4.6025,-1.8597,-0.9628,0.4588,-5.6230,-1.3125,-4.8290,-2.7282,-4.1963,0.2696,1.4577,3.7606,2.0225,-0.4863,4.5705,5.0103,-4.9793,5.3504
89.8438,-9.6072,-5.1392,-3.4785,-2.4796,-0.8358,-7.8328,-2.4767,-7.1217,-5.0760,-4.4428,1.5071,0.7647,2.7770,0.7909,-4.6591,3.6943,3.5726,-5.8912,3.5786
93.7500,-5.5012,-2.5466,-1.8414,-2.4228,-0.1646,-6.2386,-2.5154,-6.4869,-2.8711,-2.0822,5.3501,2.7015,4.6487,0.7618,-4.0530,3.6135,4.5287,-3.7018,3.6062
97.6562,2.1089,1.8643,2.2291,-1.8645,1.4218,-1.5512,-2.2134,-4.2345,2.7564,1.8062,9.3778,5.3105,7.7291,1.5443,1.2916,4.2746,7.1693,-0.0476,4.9709
101.5625,8.9676,5.7930,6.1879,-2.1865,2.1159,3.7687,-2.2831,-2.7406,8.5782,4.7786,11.5109,6.3416,9.3668,2.1497,8.1606,4.9208,9.2629,2.8724,6.1599
105.4688,10.8951,7.4638,7.2175,-4.0212,0.6296,7.1676,-2.8735,-3.5807,11.4038,4.9889,11.0170,4.7702,7.6326,1.6371,12.3432,4.5675,8.6095,3.7612,5.5027
109.3750,6.7736,6.7061,4.0325,-6.7408,-2.8732,7.5924,-3.5184,-6.2727,10.1398,2.7049,8.7108,1.4181,2.6006,-0.2358,11.4474,2.7127,4.6762,2.9163,2.2890
113.2812,-0.6605,4.8226,-2.1502,-8.8662,-6.8378,5.9225,-3.4707,-8.6121,6.3220,0.0888,6.2874,-1.6793,-3.6649,-2.8139,6.3370,-0.2122,-0.9190,1.7170,-2.6388
117.1875,-6.8099,3.4083,-8.2039,-9.0820,-9.2993,4.0404,-2.1611,-8.3359,2.8065,-0.6306,5.1800,-2.6629,-8.3706,-4.9366,0.2501,-2.9952,-5.4507,1.3842,-7.2640
121.0938,-8.4696,3.0775,-10.9606,-7.1086,-9.0769,3.3367,0.4698,-4.8218,1.6402,0.8909,5.6238,-1.0419,-9.6363,-5.6394,-3.6066,-4.3376,-6.8933,1.9972,-9.5512
125.0000,-5.9053,3.0898,-9.1625,-3.8224,-6.3805,3.7804,3.8781,0.4759,2.6871,2.6705,6.5554,2.0666,-7.4614,-4.6815,-4.1503,-3.6497,-5.1789,2.5052,-8.6410
128.9062,-2.2938,2.1249,-4.1864,-0.5931,-2.5060,4.1726,7.0524,5.1366,3.9553,1.8998,6.4873,4.7201,-3.4914,-2.5746,-2.7561,-1.4282,-2.0464,1.6599,-5.2998
132.8125,-1.1223,-0.4626,0.9623,1.6278,1.0599,3.2728,8.8331,7.5147,3.2702,-2.7566,4.8065,5.3641,0.1197,-0.1733,-1.8143,1.0290,0.3053,-0.9075,-1.3402
136.7188,-3.6394,-3.9465,3.6872,2.7954,3.4539,0.8679,8.3626,7.7468,-0.0371,-9.8903,2.5134,3.6697,1.9255,1.8197,-2.8013,2.3776,0.7035,-4.3256,1.5684
140.6250,-8.2470,-6.6638,3.4407,3.5454,4.6709,-2.0175,5.5435,7.3059,-4.6840,-16.1402,1.6802,0.5338,1.7542,3.0902,-5.3458,1.9636,-0.4265,-7.0993,2.8694
144.5312,-12.0778,-7.2502,1.8284,4.5195,5.2153,-3.8641,1.2796,7.5694,-8.4788,-18.4667,3.8113,-2.6264,0.4486,3.6272,-7.8222,0.0986,-1.6721,-8.1912,3.2312
148.4375,-13.2857,-5.7066,1.1678,5.8209,5.5746,-3.7319,-2.7348,8.6368,-9.9477,-16.1846,8.2566,-4.7206,-0.8403,3.5312,-8.7621,-2.2342,-1.7948,-7.7010,3.8065
152.3438,-12.1735,-3.4624,2.6270,7.0164,5.9543,-1.8619,-4.7149,9.3699,-9.2635,-11.2610,12.0407,-5.4191,-1.2528,2.9697,-7.8631,-3.9873,-0.5069,-6.6277,5.2569
156.2500,-10.4146,-2.3751,5.3614,7.6252,6.3969,0.5698,-3.6812,8.5815,-7.8210,-6.7707,11.5984,-4.9981,-0.4154,2.3136,-5.9012,-4.5633,1.6189,-5.9390,7.2943
160.1562,-9.2738,-3.4172,7.2814,7.6422,7.0520,2.2708,-0.0278,6.3236,-6.9134,-4.7971,5.4332,-3.8649,1.6723,2.2300,-3.8680,-3.9758,3.8242,-5.7268,9.0481
164.0625,-8.4944,-6.0181,6.8226,7.6332,8.2572,2.5805,4.6461,4.1373,-6.6506,-5.3746,-4.2350,-2.2071,4.7719,3.4832,-2.2458,-2.6821,5.7291,-5.1463,9.9016
167.9688,-6.8068,-8.5161,4.3098,8.3090,10.3099,1.6643,8.4064,3.9776,-6.0027,-7.0990,-12.3190,-0.0304,8.3981,6.4543,-1.0384,-1.3047,7.3291,-3.1944,10.0802
171.8750,-3.5049,-9.3452,1.8169,9.9180,13.1214,0.1556,10.0303,6.6359,-3.8822,-8.6484,-13.9794,2.5167,11.7727,10.7131,-0.3545,-0.4330,8.5789,0.2987,10.4873
175.7812,0.4321,-8.0720,1.5947,11.9480,16.0873,-1.3561,9.5507,10.9370,-0.3133,-9.8130,-7.9754,4.8882,13.9614,15.0445,-0.7803,-0.5227,9.1117,4.2860,11.9036
179.6875,2.7874,-5.5615,4.2569,13.3838,18.3349,-2.5773,7.9621,14.4117,3.3342,-11.2132,2.2249,6.2531,14.2653,18.0380,-3.0059,-1.7890,8.4740,7.0824,14.1926
183.5938,1.8294,-3.2281,8.1254,13.3370,19.1952,-3.4047,6.3533,14.9888,5.2883,-13.1293,10.6121,5.9628,12.6486,18.8900,-6.9593,-4.0385,6.6942,7.5093,16.1720
187.5000,-2.1606,-1.9832,10.2683,11.5789,18.5425,-3.6968,5.1392,12.4356,4.7542,-14.6735,12.7298,4.0430,9.8497,17.8368,-11.2945,-6.5544,4.5979,5.7466,16.2986
191.4062,-6.9266,-1.6531,8.4908,8.6011,16.7491,-3.2290,3.9487,8.4488,2.6042,-14.2171,8.7804,1.3108,6.9968,15.8686,-13.8989,-8.2384,3.4325,3.2296,13.6853
195.3125,-9.9028,-1.2443,2.8371,5.1985,14.3138,-1.9067,2.1746,5.3341,0.7827,-10.8234,3.3853,-1.0295,4.9257,13.9199,-13.2233,-8.0931,3.9770,1.6323,8.7090
199.2188,-10.1606,0.1965,-4.4560,1.9323,11.4929,-0.0269,-0.3418,4.2954,0.8536,-5.4582,2.0523,-2.0775,3.6762,12.1719,-9.4532,-5.8337,5.8375,1.6688,2.7883
203.1250,-9.0062,2.7707,-10.4510,-1.1077,8.2504,1.7094,-3.0969,4.6429,2.8128,-0.8080,6.9061,-1.7475,2.5619,10.0385,-4.5373,-2.2165,7.5821,2.5906,-2.4716
207.0312,-8.7065,5.5247,-13.3204,-4.0851,4.5653,2.5310,-5.3460,4.5035,5.0957,0.3698,14.8972,-0.7403,0.8013,6.8659,-0.9426,1.2399,7.7243,2.7559,-6.1164
210.9375,-10.4044,6.9690,-13.2071,-6.9683,0.8070,2.0688,-6.7408,2.4462,5.7869,-2.7870,19.9304,0.0056,-1.7442,2.7658,-0.0297,3.0701,5.8440,0.8689,-8.0961
214.8438,-13.0013,5.9678,-11.6646,-9.2629,-2.2022,0.6134,-7.5618,-1.2608,4.0989,-8.4615,17.4022,-0.0098,-4.2955,-1.1581,-1.2748,2.7221,2.9515,-2.9993,-8.8671
218.7500,-14.0047,2.4542,-10.2738,-10.1879,-3.5821,-1.0530,-8.2901,-4.7481,0.9871,-13.2147,7.7689,-0.5291,-5.5998,-3.4737,-2.9087,0.8675,0.7569,-7.3373,-8.7844
222.6562,-11.6862,-2.4275,-9.5517,-9.1977,-3.0106,-2.1423,-8.8966,-5.9264,-1.5571,-14.1662,-3.5643,-0.7954,-4.8119,-3.5142,-3.4172,-1.0915,0.3718,-10.1186,-7.8292
226.5625,-6.7476,-6.8065,-8.8922,-6.4636,-1.0969,-2.3207,-8.5582,-4.0935,-1.9715,-10.7586,-9.9903,-0.1793,-2.1801,-2.0259,-2.6738,-1.9927,1.4558,-10.0796,-5.8618
230.4688,-2.0358,-8.9366,-7.3964,-2.9340,0.8252,-1.8274,-6.2040,-0.5426,-0.2183,-4.9158,-8.3036,1.3059,0.9876,-0.7702,-1.8184,-1.6650,2.4987,-7.4786,-3.0943
234.3750,-0.4257,-8.0016,-4.7938,0.1090,1.4183,-1.2034,-1.5682,2.2896,2.3022,0.3823,-0.7518,2.9904,3.0975,-1.2815,-2.0561,-0.9037,2.0447,-3.8494,-0.2812
238.2812,-2.5280,-4.5064,-1.7091,1.7184,0.1279,-0.8647,4.1158,2.5010,3.8993,2.9759,6.9063,4.0397,3.2663,-3.6857,-3.4490,-0.6968,-0.0919,-0.9684,1.6221
242.1875,-6.0936,-0.0702,0.8358,1.7418,-2.4867,-0.8499,8.4863,0.0049,3.8730,2.5443,9.7532,4.0711,1.8541,-6.5060,-4.7583,-1.3186,-2.5830,0.2349,2.0998
246.0938,-7.6775,3.3058,2.1618,0.7905,-5.1001,-0.9047,9.3982,-3.4903,2.9415,0.2574,7.1375,3.4218,0.1669,-7.6673,-4.4883,-2.0310,-3.5350,0.1110,1.4872
250.0000,-5.3264,4.1746,2.2807,-0.2199,-6.4171,-0.8025,6.3312,-5.7292,2.5286,-2.3886,2.6711,2.8642,-0.4529,-5.9954,-2.2491,-1.6700,-1.9210,-0.1503,0.7842
253.9062,-0.2085,2.3288,1.6503,-0.6261,-5.8969,-0.6226,0.7956,-5.4498,3.5199,-4.5248,1.0092,2.9982,0.4888,-2.1011,0.7380,0.3238,1.5882,0.5468,0.9714
257.8125,4.1053,-1.1370,0.6810,-0.3156,-3.9709,-0.7641,-4.6326,-3.1383,5.4810,-6.0247,4.0651,3.7942,2.3744,2.0117,2.4697,3.2684,5.0238,2.4483,2.3362
261.7188,4.1966,-4.4553,-0.4970,0.3624,-1.6798,-1.6815,-7.9792,-0.5547,6.9337,-6.9777,9.6040,4.6452,3.9727,4.3175,1.6999,5.5758,6.4513,4.8435,4.3069
265.6250,-0.7129,-6.1766,-1.8315,0.9299,-0.0336,-3.5327,-9.0182,0.5235,6.4473,-7.2259,13.1705,4.8830,4.3060,4.0949,-1.0369,5.8871,5.2542,6.6006,5.8925
269.5312,-8.1596,-5.9486,-3.0121,1.0789,0.4755,-5.9831,-9.0673,-0.5927,3.6952,-6.4577,11.6775,4.3504,3.2663,2.2436,-3.7397,4.1677,2.4622,6.9100,6.3615
273.4375,-14.0900,-4.6043,-3.4623,0.7478,-0.0406,-8.2914,-9.6565,-3.2574,-0.3035,-4.7034,5.7930,3.5688,1.5838,0.4319,-4.3510,1.8841,-0.0528,5.7296,5.6380
277.3438,-15.4814,-3.5077,-2.7981,-0.0074,-1.1247,-9.6207,-11.1720,-6.1234,-3.8793,-2.6280,-0.6450,3.3540,0.2335,-0.2034,-2.1695,1.0382,-0.8715,3.6919,4.1649
281.2500,-12.0546,-3.5953,-1.3876,-1.1828,-2.3201,-9.4035,-12.5762,-8.0818,-5.7752,-1.1922,-3.5531,4.1596,-0.2568,0.2038,1.7911,2.7113,0.1112,1.6202,2.4223
285.1562,-6.0386,-4.7688,-0.4411,-2.8793,-3.3803,-7.5892,-12.4159,-8.8374,-5.8002,-0.8902,-1.4844,5.6464,-0.1127,0.5629,5.6828,6.1859,1.7833,0.0251,0.5375
289.0625,-0.4478,-6.0597,-1.3875,-5.2149,-4.2953,-4.6922,-10.2669,-8.8406,-4.6970,-1.2598,3.6878,6.8176,-0.0752,-0.1756,8.1585,9.3317,2.6742,-1.1051,-1.7082
292.9688,2.6976,-6.4433,-4.9011,-8.1888,-5.2304,-1.6461,-7.3901,-8.8023,-3.4686,-1.2123,8.5609,6.6478,-0.8514,-2.2088,9.0976,10.0209,1.8928,-2.1548,-4.5442
296.8750,3.0185,-5.7040,-10.3060,-11.6090,-6.4628,0.4820,-5.9939,-9.2334,-2.7606,-0.0265,10.8109,4.7731,-2.6667,-4.8743,9.2495,7.5741,-0.4624,-3.5386,-7.8831
300.7812,1.1962,-4.7027,-15.8628,-15.1062,-8.2955,0.8503,-7.6210,-10.2849,-2.7182,1.8075,10.5175,1.7719,-5.1854,-7.3286,9.2539,3.2043,-3.5463,-5.4065,-11.2836
304.6875,-1.9671,-4.8209,-19.7732,-18.1823,-10.8724,-0.8178,-11.8936,-11.8332,-3.2641,2.7074,9.3729,-1.1446,-7.7648,-9.2119,8.9811,-0.8365,-6.3240,-7.5414,-14.1956
308.5938,-5.9197,-6.9504,-21.1731,-20.2464,-13.9142,-4.0412,-16.5967,-13.5806,-4.3918,1.1644,8.7486,-2.8137,-9.7873,-10.6827,7.7790,-2.7621,-8.0015,-9.4493,-16.2203
312.5000,-10.0051,-10.7457,-20.3951,-20.6732,-16.5610,-7.6647,-19.0582,-15.0469,-6.1431,-2.8662,8.4202,-2.7339,-10.8414,-11.8440,5.3690,-2.3207,-8.1491,-10.5593,-17.1515
316.4062,-13.0345,-14.6848,-18.3710,-18.9659,-17.5625,-10.2715,-17.8156,-15.5575,-8.3199,-7.4913,6.9944,-1.2601,-10.7245,-12.1998,2.5213,-0.7123,-6.6538,-10.4517,-16.8231
320.3125,-13.5426,-16.9290,-15.7438,-15.0422,-15.8754,-10.8058,-13.3911,-14.4246,-10.2996,-9.8761,3.5076,0.6704,-9.4080,-10.7978,0.8013,0.4762,-3.7280,-9.0571,-15.0222
324.2188,-10.7822,-16.4222,-12.4663,-9.5060,-11.3945,-9.1247,-7.7279,-11.3495,-11.2620,-8.1596,-1.3356,2.0510,-7.0960,-7.0839,1.4696,0.4454,-0.0150,-6.7702,-11.6776
328.1250,-5.6807,-13.5184,-8.2189,-3.6631,-5.3216,-6.1566,-2.8473,-6.7997,-10.7501,-2.9603,-5.4256,2.2468,-4.3356,-1.7727,4.3727,-0.4085,3.4023,-4.3979,-7.2264
332.0312,-0.7963,-9.7586,-3.2353,0.8751,0.2038,-3.5069,0.2261,-2.0094,-9.1100,2.6835,-6.7795,1.1737,-1.9872,3.1305,7.7534,-1.0638,5.3034,-2.8870,-2.7852
335.9375,0.9861,-6.9836,1.2731,2.8953,3.1347,-2.6539,1.5850,1.5336,-7.3747,5.0461,-4.9981,-0.7829,-0.9147,5.4025,9.2388,-0.8616,4.9124,-2.8891,0.1992
339.8438,-1.7492,-6.3653,3.6085,2.2181,2.6350,-4.1514,1.7625,2.8566,-6.5695,2.0464,-1.4025,-2.9882,-1.4875,4.0998,7.3692,-0.0646,2.4278,-4.3694,0.7438
343.7500,-7.9343,-7.9152,2.7335,-0.1636,-0.4322,-7.3085,1.0098,2.0180,-6.9259,-5.3530,2.2034,-4.7966,-3.2231,0.3473,2.6034,0.4447,-0.9141,-6.5184,-0.9463
347.6562,-14.5728,-10.6568,-0.8022,-2.6070,-4.0147,-10.5729,-0.8289,-0.0089,-7.6333,-13.6149,5.0009,-5.7410,-4.8990,-3.2758,-2.9008,0.0291,-3.3937,-8.0993,-3.4176
351.5625,-18.5396,-13.2261,-4.9586,-3.7370,-6.0886,-12.4291,-3.8428,-2.0214,-7.3909,-18.6709,7.5401,-5.6459,-5.1787,-4.4018,-6.5675,-1.0386,-3.7109,-8.0961,-4.7517
355.4688,-18.4072,-14.4837,-7.3857,-3.1927,-5.8013,-12.2819,-7.5529,-3.3511,-5.4004,-18.2413,10.7300,-4.6378,-3.4092,-2.4106,-6.8815,-1.6921,-1.6914,-6.2892,-3.7374
359.3750,-15.0931,-13.8491,-6.9004,-1.7118,-3.7961,-10.7727,-10.9473,-4.1554,-2.0610,-13.0135,14.4011,-3.0377,-0.0576,1.2861,-4.1347,-0.9010,1.6532,-3.3813,-0.6280
363.2812,-11.0005,-11.3393,-4.1937,-0.4927,-1.5464,-9.3090,-13.0787,-5.0458,1.1927,-6.0532,16.8320,-1.1733,3.5531,4.3982,-0.0737,1.4461,4.7552,-0.5578,3.0795
367.1875,-8.3797,-7.4645,-1.2374,-0.2774,-0.2178,-9.0928,-13.6907,-6.3734,2.8391,-0.9439,15.8295,0.7793,6.0782,5.4445,3.1899,4.3162,6.4136,1.2540,5.7078
371.0938,-8.0719,-3.1057,0.1817,-0.8057,0.1078,-10.2785,-13.2814,-7.7584,2.3328,0.1516,10.5896,2.8103,7.0030,4.6878,4.2692,6.1656,6.4418,1.9392,6.5400
375.0000,-9.3743,0.6444,-0.2784,-1.0371,0.3121,-11.8312,-12.5157,-8.2521,0.5021,-2.5856,2.8138,4.9234,6.9156,3.6599,3.0048,5.9718,5.6636,2.1796,6.2074
378.9062,-10.8788,2.7636,-1.3872,0.0085,1.3748,-12.2063,-11.5046,-7.0274,-1.0235,-7.0762,-3.9491,6.9353,6.9924,3.7387,0.2654,3.9106,5.2971,2.8739,6.0492
382.8125,-11.5109,2.6961,-1.4231,2.3969,3.4619,-10.4140,-9.6314,-4.0745,-0.9534,-10.6948,-6.3995,8.4121,8.0481,4.9708,-2.6649,1.2098,6.1330,4.3968,6.9496
386.7188,-11.0378,0.6725,0.3652,5.0474,5.6832,-6.7519,-6.1492,-0.3731,0.7674,-11.6613,-3.5620,8.8475,9.8348,6.0814,-4.7109,-0.6711,8.0077,6.2257,8.5482
390.6250,-9.8726,-2.3031,3.0279,6.3287,6.7031,-2.6909,-1.0833,2.6068,2.9271,-9.7666,2.6295,7.9922,11.1143,5.6244,-5.3893,-0.9274,9.8756,7.2175,9.4370
394.5312,-8.5583,-4.9037,4.4902,5.1103,5.7371,0.0293,4.3512,3.7369,3.8810,-6.2301,8.6005,6.0988,10.4920,3.2935,-4.8960,0.2278,10.4227,6.3644,8.2104
398.4375,-7.4281,-6.1695,3.0427,1.5684,3.1840,0.4890,8.2636,2.8447,2.6489,-2.9564,11.3137,3.8723,7.4449,0.3054,-3.9478,1.8720,8.8581,3.5221,4.5945
402.3438,-6.6293,-6.0196,-1.3157,-2.7948,0.4257,-0.8818,9.2361,0.7450,-0.4684,-1.6520,9.8662,2.1235,2.8258,-1.4657,-3.4465,3.0204,5.4227,-0.3794,-0.1726
406.2500,-6.3101,-5.2299,-6.6530,-5.9410,-1.0523,-2.6936,7.2723,-1.2663,-4.1212,-3.1763,5.5814,1.3420,-1.5340,-0.9096,-4.0559,3.1212,1.3151,-3.7884,-3.9928
410.1562,-6.6723,-4.8596,-10.1868,-6.3988,-0.5870,-3.6217,3.8285,-2.0905,-6.7672,-7.2894,0.7955,1.4750,-3.8820,1.4660,-5.8540,2.1361,-1.9398,-5.3555,-5.1407
414.0625,-7.8072,-5.4978,-9.9647,-4.0104,1.3145,-3.3269,0.8919,-1.2850,-7.5485,-12.7882,-2.6481,2.0440,-3.5771,3.8967,-8.2534,0.3183,-3.3281,-4.6199,-3.2538
417.9688,-9.5143,-6.8510,-6.0384,0.0848,3.3847,-2.6124,-0.2326,0.8645,-6.6566,-17.9410,-4.2175,2.4853,-1.4307,4.6209,-10.2920,-2.0074,-2.8993,-2.1691,0.5327
421.8750,-11.3415,-7.9725,-0.3873,4.1455,4.4170,-2.7153,0.4101,3.5766,-5.0511,-21.0939,-4.5251,2.4511,0.8399,3.0537,-11.1734,-4.4718,-1.6884,0.7627,4.3128
425.7812,-12.8583,-7.9800,4.3111,6.7404,3.9279,-4.2662,1.6903,5.9255,-3.8179,-21.2806,-4.5807,1.8851,1.6636,0.0330,-10.7418,-6.5759,-1.0361,2.9627,6.4675
429.6875,-13.9222,-6.7513,6.2365,7.3599,2.2900,-6.7038,2.2885,7.1754,-3.6023,-18.6253,-5.0966,0.8907,0.4909,-2.9264,-9.5778,-7.7203,-1.7228,3.7771,6.4034
433.5938,-14.6814,-5.0865,5.3288,6.4601,0.3707,-8.6017,1.5330,7.0348,-4.4063,-14.3487,-6.2074,-0.4206,-2.0267,-4.6883,-8.6354,-7.4666,-3.4807,3.2715,4.6255
437.5000,-15.3110,-4.1977,3.0429,5.0226,-0.9993,-8.6957,-0.3390,5.7703,-5.7524,-10.3141,-7.5732,-1.9414,-4.5864,-5.0504,-8.6484,-5.8843,-5.2228,2.0259,2.2498
441.4062,-15.7504,-4.8716,1.2260,3.9421,-1.4033,-6.8704,-2.5181,4.0880,-7.0225,-8.2537,-8.6536,-3.4614,-6.0878,-4.5236,-9.6906,-3.6793,-5.8460,0.7551,0.3397
445.3125,-15.7319,-6.8944,0.9112,3.5682,-0.9449,-4.3718,-4.1764,2.7453,-7.7579,-8.9980,-8.9971,-4.6082,-6.2224,-3.7204,-11.1578,-1.9070,-5.0480,-0.0234,-0.5677
449.2188,-15.1068,-9.1555,1.7956,3.5938,-0.1517,-3.0557,-4.8400,2.0469,-7.8100,-12.0764,-8.4840,-4.9791,-5.4715,-2.9667,-12.1479,-1.3874,-3.5575,-0.1515,-0.5838
453.1250,-14.1543,-10.3716,2.6548,3.2948,0.2282,-4.1610,-4.4624,1.5580,-7.3331,-15.9095,-7.4397,-4.4082,-4.6067,-2.3959,-11.9689,-2.1956,-2.5788,0.1927,-0.2785
457.0312,-13.5119,-9.9316,2.3169,1.9854,-0.4900,-7.4414,-3.3355,0.3331,-6.6628,-18.5380,-6.4778,-3.1426,-4.0966,-2.2370,-10.4703,-3.5889,-2.8351,0.6517,-0.3217
460.9375,-13.6838,-8.2811,0.4903,-0.5306,-2.5773,-11.2403,-1.9969,-2.3677,-6.1300,-18.5573,-6.0415,-1.7289,-3.8310,-2.8224,-8.0618,-4.4463,-3.9288,0.9021,-1.1101
464.8438,-14.5009,-6.5850,-2.0959,-3.7437,-5.5971,-13.4613,-1.1222,-6.3320,-5.8814,-15.8034,-5.8999,-0.6472,-3.3152,-4.1838,-5.4873,-3.9465,-4.5472,0.8340,-2.5311
468.7500,-15.0437,-5.9184,-4.2717,-6.6124,-8.4113,-12.8000,-1.3024,-10.2275,-5.7997,-11.4418,-5.0661,0.0207,-2.1553,-5.6400,-3.5148,-2.0547,-3.4285,0.6039,-3.9980
472.6562,-14.2191,-6.5546,-5.2708,-8.0964,-9.6529,-9.4725,-2.7175,-12.3041,-5.5907,-7.3998,-2.4270,0.5846,-0.4758,-5.9471,-2.6626,0.4692,-0.4138,0.5044,-4.7905
476.5625,-11.6355,-7.8421,-5.2369,-7.7985,-8.5301,-5.0438,-4.9328,-11.5981,-5.0141,-5.4194,2.1937,1.3566,1.0227,-4.1421,-3.0127,2.5121,3.2109,0.6982,-4.5625
480.4688,-8.1044,-8.7331,-5.0668,-6.3269,-5.4810,-1.5398,-7.0794,-8.7894,-4.1130,-6.2065,7.3432,2.1889,1.4117,-0.5163,-4.1460,3.2033,5.4043,0.9810,-3.7057
484.3750,-5.3034,-8.5681,-5.7456,-5.0829,-2.1477,-0.4208,-8.4151,-5.9710,-3.2634,-9.1075,10.3755,2.3676,0.0738,3.1562,-5.2649,2.3235,4.6694,0.7714,-3.2645
488.2812,-4.7537,-7.5512,-7.6673,-5.5021,-0.5159,-1.9785,-8.8862,-5.3355,-2.9696,-12.4727,9.0114,1.0533,-2.8898,4.5595,-5.5355,0.3444,1.0799,-0.5936,-4.3489
492.1875,-6.8085,-6.5878,-10.4044,-8.1525,-1.6734,-5.3808,-9.1908,-7.6271,-3.5212,-14.5061,3.0602,-1.9948,-6.6257,2.4354,-4.5461,-1.8577,-3.6836,-3.3920,-7.3552
496.0938,-10.3857,-6.6165,-13.0283,-12.2608,-5.0186,-9.1999,-10.1758,-11.5008,-4.7553,-14.1586,-5.0181,-5.9735,-9.8850,-2.3261,-2.6204,-3.4225,-7.3196,-7.1845,-11.5176
500.0000,-13.6505,-7.9249,-14.6888,-16.0267,-8.5424,-12.0734,-11.9748,-14.3546,-6.1156,-11.6104,-11.3451,-9.2931,-11.5755,-7.0461,-0.7226,-3.8602,-8.2428,-10.8896,-15.1642
503.9062,-15.1677,-9.9362,-15.0192,-17.5982,-10.0900,-13.2018,-13.6216,-14.1293,-6.9891,-8.1225,-12.9784,-10.4675,-11.2209,-8.9714,0.0786,-3.2089,-6.3883,-13.2932,-16.5987
507.8125,-14.7218,-11.6129,-14.1347,-16.1257,-8.7788,-12.5583,-13.5975,-10.7921,-7.0920,-5.3716,-9.7694,-9.0598,-9.1124,-7.1761,-0.7185,-1.9624,-3.0226,-13.7153,-15.0804
511.7188,-13.2783,-12.1804,-12.3563,-12.2309,-5.5755,-10.8220,-11.0358,-6.3867,-6.6318,-4.6305,-4.3570,-6.0156,-6.1189,-3.2423,-2.7168,-0.8173,0.1930,-12.4159,-11.2725
515.6250,-12.2045,-11.6557,-9.9905,-7.5926,-2.5964,-9.0842,-6.6799,-3.5631,-6.1417,-6.2038,-0.2650,-3.1183,-3.2979,-0.1573,-4.9097,-0.3524,2.1636,-10.4665,-6.8666
519.5312,-12.3677,-10.8103,-7.3825,-3.9338,-1.6177,-8.3997,-2.7416,-3.6505,-6.1249,-9.3640,0.4971,-1.9248,-1.5190,-0.1882,-6.4201,-0.7866,2.7201,-9.1512,-3.6422
523.4375,-13.7293,-10.6013,-5.1282,-2.0853,-2.8658,-9.3072,-1.5792,-5.7148,-6.7683,-12.7646,-1.4405,-2.8969,-1.2472,-3.2840,-7.1355,-1.9371,2.2837,-9.2685,-2.5732
527.3438,-15.6003,-11.4729,-4.1040,-1.7150,-4.9597,-11.5250,-4.0564,-7.3178,-7.9008,-15.0877,-3.7201,-5.2837,-2.5048,-7.1746,-7.7181,-3.3891,1.2693,-10.7538,-3.5060
531.2500,-17.2245,-13.0191,-5.0843,-1.8294,-6.0184,-14.0237,-8.7921,-6.4081,-9.1610,-15.6004,-4.3640,-7.7519,-4.9313,-9.0675,-8.9388,-4.7519,-0.2237,-12.8151,-5.4978
535.1562,-18.1930,-14.2472,-8.1075,-1.6123,-5.0771,-15.5164,-12.9362,-2.9030,-10.1959,-14.3759,-3.3275,-9.2470,-7.8647,-7.6527,-10.8467,-5.8152,-2.2250,-14.4403,-7.4611
539.0625,-18.4526,-14.2716,-12.0949,-0.9755,-2.7463,-15.1561,-14.0005,1.2423,-10.7447,-12.1219,-2.2817,-9.4798,-10.4433,-3.9322,-12.4812,-6.4987,-4.4827,-14.9311,-8.6488
542.9688,-18.0590,-12.9736,-15.1779,-0.4611,-0.6447,-13.0472,-11.4723,3.5169,-10.6230,-9.7505,-2.9233,-8.8000,-11.7914,-0.3207,-12.4507,-6.6793,-6.2931,-14.1680,-8.7560
546.8750,-17.0134,-11.1815,-15.7061,-0.6462,-0.0818,-10.2448,-7.0718,2.7318,-9.7365,-7.9404,-5.3375,-7.7136,-11.3109,1.2178,-10.0158,-6.1117,-6.8090,-12.5361,-7.7698
550.7812,-15.3530,-10.2296,-13.3320,-1.5630,-1.0278,-8.2032,-3.4977,-0.1473,-8.1979,-6.9257,-7.8447,-6.5170,-8.9875,0.5494,-5.8520,-4.6043,-5.6181,-10.6571,-5.8469
554.6875,-13.3613,-11.1495,-9.3804,-2.5976,-2.1541,-7.9867,-2.5905,-2.8165,-6.4524,-6.6014,-8.4459,-5.3212,-5.5120,-0.7342,-1.8404,-2.3675,-3.1170,-9.1270,-3.3512
558.5938,-11.6165,-13.9831,-6.1241,-2.9372,-1.8898,-9.7091,-4.2179,-3.4189,-5.2142,-6.8380,-6.5742,-4.3280,-2.0643,-0.7175,0.0588,-0.2227,-0.3467,-8.3632,-0.9243
562.5000,-10.7451,-17.6412,-5.3692,-2.2159,0.3347,-12.5222,-6.5960,-1.8888,-5.1245,-7.7547,-3.5943,-3.9847,0.2016,1.2920,-0.9259,0.6330,1.6129,-8.5434,0.6340
566.4062,-11.0466,-20.4120,-7.3055,-0.8687,3.5957,-15.1202,-7.6919,0.1511,-6.3018,-9.7135,-1.5965,-4.7834,0.6990,4.2549,-3.8900,-0.7002,2.2399,-9.5806,0.7212
570.3125,-12.2992,-20.8467,-10.4548,0.0632,6.0709,-16.4191,-6.6350,0.7758,-8.1355,-12.9788,-1.5569,-6.8377,-0.3624,6.2292,-6.9158,-4.1180,1.7221,-11.1360,-0.7076
574.2188,-13.9063,-18.5297,-12.7792,-0.4615,6.2405,-16.0065,-4.1769,-0.7311,-9.5729,-17.2465,-2.5273,-9.6306,-2.2253,5.8035,-8.3978,-8.3278,0.6011,-12.7185,-3.0957
578.1250,-15.2372,-14.3045,-13.1541,-2.8679,3.8172,-14.1533,-2.0232,-3.4326,-9.7852,-21.3942,-2.6296,-12.2147,-4.1393,3.0167,-8.0515,-11.4535,-0.7403,-13.8802,-5.6525
582.0312,-15.8551,-9.8352,-12.1181,-6.7065,-0.1896,-11.4834,-1.6507,-5.6257,-8.7557,-23.7353,-1.0046,-13.7670,-5.8128,-0.8436,-6.8790,-12.1221,-2.2901,-14.4157,-7.8684
585.9375,-15.4690,-6.7536,-11.3414,-10.8548,-4.1830,-8.5791,-3.4538,-6.2406,-7.3142,-22.7568,1.0689,-14.0738,-7.4161,-4.2463,-6.1762,-10.3047,-4.1474,-14.4199,-9.7435
589.8438,-13.7775,-5.8716,-12.2205,-14.0092,-6.8548,-5.7758,-6.6663,-5.5685,-6.5309,-17.9849,1.0341,-13.5602,-9.1401,-6.3475,-6.3975,-7.2811,-6.0618,-14.1434,-11.5169
593.7500,-10.5343,-6.8902,-14.6800,-15.1903,-7.6436,-3.2145,-9.9051,-4.7687,-6.8957,-10.4703,-2.6807,-12.8548,-10.7021,-7.1721,-6.7878,-4.7147,-7.2583,-13.7526,-13.1330
597.6562,-5.9708,-8.7367,-17.1149,-14.0635,-6.6435,-1.0391,-11.8641,-4.6673,-7.9365,-2.5477,-8.9088,-12.2794,-11.2840,-7.0954,-6.0781,-3.5103,-6.8258,-13.2129,-13.9697
601.5625,-1.2685,-10.2876,-17.5398,-11.0159,-4.2810,0.4482,-11.7957,-4.9482,-8.6280,3.0752,-14.1604,-11.7154,-10.0764,-6.2568,-3.6956,-3.3308,-4.4647,-12.4264,-13.1865
605.4688,1.4878,-11.0137,-15.0848,-7.0146,-1.1364,0.7980,-9.7124,-4.4582,-8.3124,4.4610,-15.1168,-10.9523,-7.0831,-4.4968,-0.5213,-3.1625,-1.0219,-11.5194,-10.5146
609.3750,0.2097,-11.1520,-10.7067,-3.2846,2.0233,-0.3968,-6.3921,-2.3473,-7.3889,1.2518,-11.3005,-10.1682,-3.5232,-1.8324,1.4547,-2.4665,1.7014,-10.9860,-6.8412
613.2812,-5.7730,-11.3326,-6.5729,-0.8610,4.2657,-3.2220,-3.1889,0.9933,-7.1344,-5.2225,-5.6942,-10.0295,-1.3609,1.0798,0.4156,-1.9252,1.8985,-11.4495,-3.9770
617.1875,-14.7014,-11.9586,-4.5712,-0.1493,4.8237,-7.2116,-1.5551,4.0772,-8.6800,-12.5243,-2.6206,-11.2021,-2.1094,3.0736,-3.9225,-3.0439,-1.0759,-13.1101,-3.5815
621.0938,-22.7040,-12.8028,-5.0421,-0.7042,3.6378,-11.3113,-2.3130,5.4993,-11.8860,-18.0492,-4.4144,-13.6108,-5.6683,3.2363,-9.8247,-6.7813,-6.0934,-15.2822,-5.9340
625.0000,-25.5969,-13.1276,-6.6403,-1.4160,1.6510,-14.1304,-5.0268,5.1558,-15.0496,-19.9212,-9.4938,-16.0924,-10.0757,1.7162,-14.3052,-12.2583,-10.6757,-16.4807,-9.4912
628.9062,-21.2680,-12.2519,-7.3786,-1.1003,0.4357,-14.4673,-7.9937,4.4190,-15.8348,-17.5646,-13.4391,-16.8728,-12.5108,-0.1698,-14.7215,-16.7007,-12.2895,-15.1816,-11.6971
632.8125,-11.1656,-10.1480,-6.0564,0.7886,1.2100,-11.9216,-9.1045,5.0142,-12.8855,-11.8556,-12.3479,-14.6737,-11.0206,-0.7687,-10.2619,-16.9394,-9.7825,-10.8616,-10.6095
636.7188,0.1907,-7.6044,-3.0484,3.7447,3.8648,-7.2731,-7.1873,7.4584,-6.9861,-4.8611,-5.9121,-9.7057,-5.8636,0.6636,-2.4777,-11.5832,-4.1094,-4.6076,-6.2558
640.6250,7.5593,-5.7898,0.0354,6.4016,6.7709,-2.3313,-2.9414,10.3610,-0.8539,0.8082,2.1684,-3.7909,0.4667,3.2396,5.4164,-2.3274,2.0928,1.2261,-0.7447
644.5312,7.8461,-5.4911,1.4750,7.2655,7.6576,0.8093,1.3132,11.2614,2.4215,2.9378,6.7812,0.5706,4.6356,4.8610,10.0813,6.6766,5.8494,4.2261,2.9928
648.4375,1.7565,-6.5665,0.5042,5.5669,5.0750,0.8034,3.0627,8.4515,1.2968,0.6870,5.0490,1.6247,4.4198,3.5804,9.6382,11.1443,5.3646,3.2835,2.9982
652.3438,-6.7705,-8.0288,-2.3801,1.7003,-0.5457,-2.1800,1.2839,2.4013,-3.2432,-4.8416,-1.6847,-0.6570,-0.0295,-1.0119,4.5284,9.1982,0.8886,-0.7623,-0.5942
656.2500,-12.9581,-8.7386,-5.9346,-3.0235,-7.0068,-6.4604,-2.8282,-4.3523,-8.3149,-10.8772,-8.9116,-4.6748,-6.3999,-7.3503,-2.7408,2.4230,-5.4896,-5.6380,-5.8293
660.1562,-13.9057,-8.2334,-9.0169,-7.1448,-11.6081,-9.7043,-6.6736,-8.8322,-10.9462,-14.1939,-12.1138,-8.2624,-11.7096,-12.7365,-8.8269,-5.2665,-10.9513,-8.9863,-10.3271
664.0625,-9.9860,-7.0960,-11.1525,-9.8409,-12.7281,-10.1972,-8.0562,-9.5787,-9.8486,-12.7839,-9.6134,-9.9597,-14.0490,-14.9156,-11.1678,-10.1455,-13.3270,-9.6805,-12.7794
667.9688,-4.2062,-6.5663,-12.5411,-11.2406,-10.6730,-7.7899,-6.6747,-7.4991,-6.0079,-7.0822,-3.1658,-9.6619,-13.4481,-13.3570,-9.1906,-10.8534,-12.0275,-8.2824,-13.5350
671.8750,-0.1159,-7.6371,-13.6656,-12.1081,-7.2724,-3.9417,-4.2098,-5.0211,-1.8111,0.0821,3.7812,-8.3189,-11.4179,-9.4385,-4.4894,-8.7997,-8.1048,-6.4250,-13.9785
675.7812,0.3261,-10.2538,-14.8678,-13.1565,-4.5778,-0.8338,-2.9859,-4.2471,0.5768,4.9528,8.5303,-7.0385,-9.6366,-5.4793,0.1452,-6.6906,-3.5091,-5.6167,-15.2733
679.6875,-2.3553,-13.1903,-16.1367,-14.4672,-3.5928,-0.1019,-4.2593,-5.5142,0.4442,4.9725,10.4074,-6.3055,-8.7789,-3.2980,2.3304,-6.3805,-0.0065,-6.2979,-17.4156
683.5938,-5.8729,-14.7226,-17.1165,-15.3841,-3.8539,-1.9626,-7.4182,-7.3857,-1.3672,0.2830,10.2360,-5.8327,-8.2674,-3.2072,1.4092,-7.6401,1.6464,-7.7258,-19.2233
687.5000,-7.8622,-13.6737,-17.2221,-14.9199,-4.0147,-5.2290,-10.6086,-7.9549,-3.3708,-6.3913,8.9276,-5.0226,-6.9899,-4.0118,-1.3197,-8.6372,1.8722,-8.6493,-19.1613
691.4062,-7.3807,-10.1529,-15.8140,-12.3937,-2.8965,-8.1288,-12.1622,-6.3608,-4.5607,-11.4716,6.6307,-3.5797,-4.3350,-3.9140,-3.6101,-7.6097,1.7758,-8.2227,-16.3516
695.3125,-5.3430,-5.5139,-12.4658,-7.9046,-0.2441,-9.3529,-11.6343,-3.3457,-4.9382,-12.7789,3.0941,-1.7746,-0.7476,-1.7082,-3.8506,-4.3706,2.3293,-6.5241,-11.0921
699.2188,-3.7620,-1.5748,-7.3038,-2.3773,3.2451,-8.6797,-9.6984,-0.5119,-5.1847,-10.8250,-1.3650,-0.2100,2.5585,2.4593,-2.1408,-0.5097,3.7386,-4.4012,-4.6462
703.1250,-4.3824,0.3892,-1.2255,2.8273,6.4821,-6.8672,-7.1713,1.0248,-5.8819,-8.2569,-5.4456,0.6583,4.4443,7.1707,-0.1004,1.7867,5.3524,-2.8487,1.4286
707.0312,-7.5672,0.2550,4.2737,6.5166,8.6438,-4.9993,-4.1739,1.4736,-6.9469,-7.8198,-7.5455,0.8366,4.5861,10.5533,0.4563,1.3330,6.1346,-2.3863,5.9299
710.9375,-12.0468,-1.0656,7.7464,8.1763,9.4937,-3.7773,-0.2397,2.0702,-7.6842,-10.2505,-6.9522,0.7231,3.5995,11.3283,-1.0014,-1.2533,5.3839,-2.8176,8.3173
714.8438,-15.6067,-2.3203,8.6083,8.1405,9.2788,-3.1988,4.7425,3.9554,-7.3350,-13.6048,-4.4011,0.7568,2.5275,9.4876,-3.2222,-4.0890,3.2368,-3.4424,8.6705
718.7500,-16.2863,-2.6972,7.5635,7.3470,8.4190,-2.7411,9.6967,7.1707,-5.6529,-14.5541,-1.4207,1.0887,2.1177,6.2293,-4.0869,-5.4161,0.6328,-3.5116,7.4894
722.6562,-13.4354,-2.2062,6.2348,6.8035,7.2644,-1.8372,12.5732,10.5577,-3.0866,-10.8054,0.9708,1.5166,2.4004,3.2101,-2.2913,-4.7779,-1.2468,-2.6320,5.4969
726.5625,-8.0853,-1.4798,6.1332,7.0444,6.0257,-0.2967,11.6633,12.5887,-0.4971,-2.9670,3.0037,1.6880,2.7978,1.5707,1.4792,-3.1611,-1.7175,-0.9330,3.4697
730.4688,-2.4505,-1.1964,7.6394,7.8787,4.8131,1.5704,7.0632,12.4385,1.3295,5.4890,5.6059,1.3837,2.6057,1.3305,4.8376,-2.1077,-1.0383,1.0333,2.0520
734.3750,1.1881,-1.5426,9.7462,8.5855,3.6744,3.1491,1.0656,10.4809,2.0334,10.2332,9.0549,0.6725,1.4765,1.5288,5.3206,-2.5427,-0.2668,2.5718,1.5671
738.2812,1.6451,-2.0689,10.7970,8.4514,2.6150,3.8770,-3.0005,7.9052,1.7324,8.7629,12.1433,-0.1380,-0.3885,1.0177,2.1917,-4.1740,-0.5867,3.1734,1.9261
742.1875,-0.5753,-2.0183,9.7039,7.3043,1.6447,3.5551,-2.7832,5.8399,0.8458,1.9846,12.7955,-0.6790,-2.3864,-0.6360,-2.9266,-5.8143,-2.5114,2.7556,2.7213
746.0938,-3.5868,-0.9066,6.7342,5.6643,0.8577,2.4623,1.6072,4.6836,-0.1349,-6.3474,9.7701,-0.7037,-3.8407,-2.7802,-7.1030,-6.2766,-5.4656,1.6908,3.4559
750.0000,-5.1759,1.0207,3.2546,4.3626,0.4583,1.2271,7.6603,4.0860,-0.8116,-11.9351,3.9977,-0.1992,-4.3106,-4.1382,-8.0974,-5.1575,-8.0302,0.5702,3.7451
753.9062,-4.0168,2.7668,0.6299,3.8574,0.6363,0.5176,11.9925,3.4559,-0.9794,-12.4374,-1.7386,0.5858,-3.7636,-3.7995,-5.8686,-3.0129,-8.7372,-0.2032,3.3467
757.8125,-0.3582,3.0570,-0.8530,3.7405,1.3247,0.6876,12.2678,2.4924,-0.6917,-8.5605,-4.7225,1.1919,-2.5920,-2.0217,-2.5078,-0.9347,-6.9497,-0.7532,2.0471
761.7188,4.1954,1.0750,-2.1671,2.8511,2.0386,1.5594,8.2939,1.3086,-0.2711,-3.1681,-4.3392,1.0865,-1.4907,-0.2050,-0.6877,0.0846,-3.2940,-1.7353,-0.4115
765.6250,7.6243,-2.9549,-4.6699,0.0074,2.0106,2.4791,1.7809,0.1316,-0.2029,0.7875,-2.5125,-0.1159,-1.2174,0.0170,-1.7928,-0.4182,0.6329,-3.9234,-4.2018
769.5312,8.5474,-7.7143,-8.8606,-5.1002,0.6365,2.6514,-4.8110,-1.0661,-0.9021,1.9938,-2.0794,-2.4287,-2.2822,-2.0418,-5.0823,-2.3059,3.1169,-7.5989,-9.1233
773.4375,6.7586,-11.3738,-13.7743,-11.4871,-2.0398,1.5943,-9.4619,-2.6205,-2.4634,1.0478,-4.3719,-5.4045,-4.6827,-5.5311,-8.4155,-5.0163,3.2339,-12.1669,-14.4145
777.3438,3.0289,-12.5441,-17.5243,-17.2727,-5.1850,-0.5499,-11.2061,-4.8385,-4.5736,-0.6719,-8.0157,-8.2968,-7.8353,-8.5384,-9.8970,-7.8012,1.2769,-16.3396,-18.9171
781.2500,-1.5264,-11.0689,-18.5919,-20.6798,-7.5611,-3.0458,-10.1385,-7.5545,-6.6827,-2.4309,-10.0251,-10.4353,-10.7939,-9.3255,-9.1780,-9.9459,-1.5271,-18.8460,-21.5912
785.1562,-5.9690,-8.1660,-16.8655,-20.9822,-8.2282,-4.9372,-7.1464,-9.9737,-8.3389,-4.6416,-8.3761,-11.6045,-12.6749,-7.4504,-7.5073,-10.9844,-3.7912,-19.2218,-22.0611
789.0625,-9.6173,-5.7725,-13.6291,-18.7688,-7.0838,-5.5369,-3.6024,-10.9883,-9.4501,-8.0811,-3.9539,-12.1595,-13.0616,-3.9740,-6.6316,-10.9001,-4.7235,-18.1130,-20.7833
792.9688,-11.8169,-5.4370,-10.5425,-15.3870,-4.8486,-4.7437,-0.9747,-9.7999,-10.2706,-12.5891,-0.1970,-12.7649,-12.1487,-0.6296,-7.4809,-10.1918,-4.4055,-16.8343,-18.6767
796.8750,-11.8477,-7.4119,-8.4490,-12.0112,-2.5196,-3.0238,-0.2492,-6.4562,-11.1271,-16.5053,-0.6007,-13.9010,-10.5494,1.3906,-9.6239,-9.6687,-3.4918,-16.4608,-16.4740
800.7812,-9.2778,-10.5194,-6.9556,-9.0273,-0.7182,-1.1262,-1.3393,-1.9626,-12.1084,-17.5339,-5.9998,-15.4732,-8.9154,2.1195,-11.7787,-9.9966,-2.6266,-17.0940,-14.2912
804.6875,-4.5877,-12.8932,-5.0740,-6.1360,0.5701,0.2455,-2.9523,2.1141,-12.9754,-14.5229,-13.7828,-16.8131,-7.6319,2.5009,-12.8286,-11.2441,-2.0344,-17.8410,-11.7549
808.5938,0.5221,-13.1463,-2.3297,-2.9977,1.7054,0.6273,-3.2632,4.3453,-13.3663,-8.7666,-19.6784,-17.0937,-6.7663,3.4084,-12.4999,-12.7662,-1.5573,-17.5229,-8.5748
812.5000,3.6496,-11.2235,0.6249,0.1772,2.8573,-0.1585,-1.1620,4.0934,-13.1179,-3.6345,-20.7342,-15.8863,-6.2358,4.8293,-11.2667,-13.5706,-1.0295,-15.5848,-5.0697
816.4062,2.9573,-8.3979,2.4253,2.6082,3.7250,-1.9846,2.7588,1.8015,-12.4279,-2.5329,-17.2014,-13.4781,-5.9976,5.8674,-9.7529,-12.9608,-0.6103,-12.5229,-2.1675
820.3125,-1.5781,-6.4256,2.0991,3.5125,3.7787,-4.3562,6.3265,-1.2160,-11.7184,-6.5319,-11.9728,-10.7337,-6.0855,5.5144,-8.2683,-11.0094,-0.7474,-9.5212,-0.8286
824.2188,-7.8814,-6.4196,-0.0699,2.7783,2.8079,-6.3931,7.1328,-3.3973,-11.3215,-13.4059,-8.1833,-8.5994,-6.4882,3.5082,-6.8755,-8.5110,-1.7773,-7.5934,-1.3288
828.1250,-12.8580,-8.1733,-2.6601,1.1609,1.2619,-7.0382,4.2379,-3.6872,-11.2626,-18.9308,-6.9684,-7.5893,-7.0294,0.5526,-5.7985,-6.4418,-3.5090,-6.9038,-2.9898
832.0312,-14.2634,-10.3464,-4.1487,-0.1924,0.0237,-5.5543,-1.0369,-2.0541,-11.3258,-19.6648,-7.0974,-7.5808,-7.4140,-2.2576,-5.6178,-5.3314,-5.1940,-6.7794,-4.6121
835.9375,-12.1224,-11.3503,-4.0433,-0.5353,-0.2575,-2.0844,-5.9061,0.5128,-11.3261,-15.2879,-6.5538,-8.0184,-7.4422,-4.2776,-6.9020,-5.0132,-5.9858,-6.3708,-5.3041
839.8438,-8.6568,-10.3310,-3.1971,-0.0202,0.2640,2.1474,-7.9871,2.5517,-11.3189,-8.8063,-4.5500,-8.3468,-7.2116,-5.6831,-9.5123,-4.9167,-5.5712,-5.4096,-5.0744
843.7500,-6.6835,-7.6300,-3.0516,0.4710,0.6638,5.2952,-6.8534,2.9307,-11.5214,-4.4177,-2.2262,-8.3632,-7.1030,-7.0693,-12.2432,-4.6272,-4.4642,-4.4436,-4.7324
847.6562,-7.5703,-4.4839,-4.4210,0.0037,-0.0868,5.8816,-4.1013,1.4368,-11.9902,-4.5360,-1.5224,-8.2735,-7.5142,-8.6790,-13.3027,-4.2388,-3.6756,-4.3705,-5.1900
851.5625,-10.2249,-2.2224,-6.7973,-1.7705,-2.3221,3.7431,-1.9207,-1.2116,-12.3528,-8.1164,-3.3065,-8.4535,-8.5327,-10.0060,-11.4657,-4.2171,-3.9638,-5.6524,-6.7317
855.4688,-11.9035,-1.5037,-8.7354,-4.4862,-5.3889,0.2642,-1.3501,-3.9180,-11.8958,-11.5005,-6.4336,-9.1122,-9.8185,-10.1895,-7.1007,-4.9124,-5.2409,-7.8552,-8.8307
859.3750,-10.3102,-2.0376,-9.0027,-7.4713,-8.1038,-2.3533,-1.6364,-5.9327,-10.0404,-11.1718,-8.5467,-10.0867,-10.8208,-8.8896,-2.2284,-6.1636,-6.6291,-9.8881,-10.6320
863.2812,-5.4688,-2.8937,-7.5718,-10.2740,-9.6043,-2.3880,-1.1846,-7.2327,-6.8873,-6.4126,-7.9059,-10.8957,-11.1780,-6.8447,0.5759,-7.3489,-7.1666,-10.7646,-11.6712
867.1875,0.0458,-3.1374,-5.6656,-12.8395,-9.9138,0.3604,0.7537,-8.3043,-3.3904,0.0672,-4.6865,-11.0088,-10.9844,-5.5175,-0.2351,-7.8519,-6.6208,-10.3005,-12.2144
871.0938,2.7704,-2.3872,-4.8277,-15.2207,-9.7748,4.4674,3.1440,-9.5416,-0.9482,3.9761,-0.7017,-10.1703,-10.6951,-5.9990,-4.1964,-7.5474,-5.7337,-9.2222,-12.9307
875.0000,0.7667,-0.9983,-5.7561,-17.1479,-9.9097,7.7640,3.8531,-10.7745,-0.6260,2.4044,2.1020,-8.5906,-10.7245,-8.0307,-9.1335,-6.8866,-5.6386,-8.6228,-14.1775
878.9062,-4.9497,0.1787,-7.8104,-17.9251,-10.3364,8.5897,1.4536,-11.3285,-2.5224,-4.2188,3.0151,-6.8883,-11.0490,-10.0009,-12.5373,-6.5000,-6.8588,-9.1919,-15.5150
882.8125,-11.0269,0.2854,-9.5463,-16.8205,-10.3143,6.6017,-3.3391,-10.5705,-5.7199,-12.5078,2.6541,-5.7924,-11.1418,-10.0362,-13.0534,-6.6533,-8.6854,-10.7809,-15.8865
886.7188,-14.0367,-1.0831,-9.8241,-13.6601,-8.9632,2.7062,-7.8483,-8.4738,-8.8562,-18.4405,1.8490,-5.7429,-10.3129,-7.4035,-11.0964,-7.0220,-9.5002,-12.5777,-14.3570
890.6250,-12.7741,-3.6732,-8.6050,-9.1063,-6.0343,-1.6757,-9.2059,-5.7022,-10.9210,-19.8659,0.5122,-6.6052,-8.2168,-3.1307,-8.2759,-6.9835,-7.8933,-13.6938,-10.8406
894.5312,-8.9620,-6.7128,-6.8338,-4.3344,-2.1857,-5.3899,-6.3959,-3.1197,-11.7336,-17.4537,-2.3309,-7.6884,-5.1473,0.6865,-6.1717,-6.1818,-3.7716,-13.7023,-6.2384
898.4375,-5.8810,-9.3103,-5.5506,-0.3198,1.4674,-7.8764,-1.0129,-1.1309,-11.8126,-13.6307,-7.2877,-8.1038,-1.8973,2.3978,-5.3808,-4.8763,1.4043,-12.7657,-1.8714
902.3438,-5.9488,-10.8921,-4.9767,2.7143,4.1485,-9.0114,3.8284,0.5708,-11.7954,-10.5599,-13.2819,-7.2878,0.7190,1.9825,-5.4408,-3.7602,5.5025,-11.3538,1.3676
906.2500,-9.0137,-11.4252,-4.3177,5.2508,5.8999,-8.8284,5.5847,2.6073,-11.8723,-8.8020,-17.5464,-5.3704,2.3415,0.9962,-5.5165,-3.3820,7.1242,-9.8417,3.5122
910.1562,-12.5800,-11.2906,-2.4393,7.8901,7.3608,-7.4680,3.8245,5.2026,-11.6531,-7.5660,-17.2463,-3.1169,3.2189,1.3355,-5.1956,-3.6517,6.5133,-8.3035,5.3335
914.0625,-13.7468,-10.8893,1.1231,10.7224,9.0540,-5.3481,0.1872,7.7983,-10.5303,-6.0754,-11.6040,-1.4270,3.9722,3.7933,-4.7687,-3.8567,5.3004,-6.5909,7.6599
917.9688,-11.4042,-10.2634,5.6179,13.1958,10.8158,-3.2342,-3.0120,9.3945,-8.2304,-4.6974,-2.8091,-0.6932,5.1706,7.5191,-4.8680,-3.1990,5.2774,-4.5498,10.7455
921.8750,-7.0734,-9.0324,9.4277,14.5841,11.8767,-1.9394,-4.3442,9.3892,-5.1238,-4.7856,5.1704,-0.4645,7.0186,10.7579,-5.8634,-1.4277,7.1198,-2.1669,14.1356
925.7812,-3.8041,-6.7375,11.0693,14.6385,11.5508,-1.7842,-3.8762,8.2030,-2.0679,-7.3673,9.1276,0.2968,9.3232,12.2311,-7.5446,0.9449,9.9979,0.4295,17.0475
929.6875,-3.9698,-3.3648,10.1170,13.8361,9.9600,-2.2870,-2.6173,7.0881,0.0905,-11.8542,8.6483,2.4815,11.6854,12.0526,-9.3021,3.0164,12.3266,3.0270,18.9009
933.5938,-7.5704,0.3646,7.3983,12.9792,8.1633,-2.4790,-1.5149,7.1729,0.9910,-15.9891,6.1153,6.1029,13.7256,11.5006,-10.5766,4.1485,13.0327,5.3335,19.5752
937.5000,-12.2371,3.2322,4.3591,12.4657,7.5291,-1.7207,-0.8899,8.4740,0.8929,-17.2295,4.7085,10.0997,15.1931,11.9100,-11.1559,4.3640,12.3473,6.9344,19.2647
941.4062,-14.8767,4.1976,2.0871,11.8652,8.7939,-0.3813,-0.6118,9.7189,0.4093,-14.5619,5.9502,12.8663,15.9496,13.6277,-11.1069,4.1745,11.5315,7.3298,18.1540
945.3125,-13.7380,3.0598,0.6926,10.2106,11.5048,0.2752,-0.5833,9.2203,0.0611,-9.3282,8.6583,13.1987,15.9210,15.8446,-10.4956,4.0096,11.7906,6.1471,16.2490
949.2188,-9.4611,0.6034,-0.5563,6.8208,14.2533,-0.9349,-0.9241,6.1873,-0.0327,-4.3787,10.0392,11.0324,15.0945,17.3360,-9.2432,3.7616,13.2518,3.4484,13.5031
953.1250,-4.4781,-1.9153,-2.5049,2.0035,15.5112,-3.9746,-1.6961,1.4464,-0.1389,-2.1591,7.9983,7.4720,13.5459,17.3953,-7.2991,2.8662,14.8016,-0.1078,10.0727
957.0312,-1.3214,-3.5870,-5.3585,-2.9634,14.4613,-7.2513,-2.5914,-3.0438,-0.6211,-3.1491,2.8612,4.0956,11.4283,16.1535,-4.9622,0.8817,14.8887,-3.4603,6.4078
960.9375,-1.0833,-4.3623,-8.4470,-6.6149,11.2876,-8.5244,-3.0750,-5.5622,-1.6078,-5.7692,-2.7714,2.0147,8.8954,14.0927,-2.9771,-1.9155,12.6532,-5.6590,3.0431
964.8438,-3.0169,-4.8728,-10.6503,-8.2732,6.8439,-6.5099,-2.9650,-5.8348,-2.8529,-7.7189,-5.8491,1.3165,6.0243,11.3160,-2.1889,-4.4544,8.5299,-6.3950,0.2504
968.7500,-5.3464,-5.7253,-11.1556,-8.4648,2.0728,-1.9742,-2.8549,-5.1370,-3.8727,-7.6411,-4.9593,1.2199,2.8359,7.3519,-2.9338,-5.4608,3.9167,-6.1735,-2.1330
972.6562,-6.5232,-6.8708,-10.0006,-8.4511,-2.3656,2.6163,-3.7848,-5.2039,-4.2599,-5.8585,-1.1712,0.7597,-0.5710,1.7582,-4.6455,-4.3252,0.2301,-5.9763,-4.5167
976.5625,-6.0003,-7.6008,-8.0360,-9.2314,-6.0849,4.7634,-6.2417,-6.8108,-3.9595,-3.7590,2.8516,-0.5304,-3.8811,-4.9972,-6.0652,-1.6105,-1.9113,-6.6167,-7.1328
980.4688,-4.1472,-7.1931,-6.3552,-10.7860,-8.7822,3.7314,-9.3236,-9.1527,-3.3266,-2.5062,4.6904,-2.3973,-6.5800,-11.2537,-6.0052,1.2026,-2.8164,-8.2170,-9.7218
984.3750,-1.6494,-5.6556,-5.6012,-12.1343,-10.1845,1.0910,-10.9759,-10.5134,-2.9248,-2.2060,3.6195,-4.1796,-8.1826,-14.9157,-4.1654,2.5874,-3.1952,-10.1465,-11.6055
988.2812,0.9552,-3.8820,-5.6250,-12.1439,-10.2344,-0.4675,-9.3975,-9.6812,-3.1795,-2.1566,0.7810,-5.3265,-8.5386,-14.8090,-1.4041,1.8744,-3.5016,-11.4348,-12.1220
992.1875,3.2533,-3.0015,-5.7050,-10.4482,-9.3096,0.7982,-4.6357,-6.9732,-4.0949,-1.8171,-1.8002,-5.7000,-7.9765,-11.6062,0.7700,-0.4070,-3.6836,-11.3506,-11.1027
996.0938,4.6699,-3.4066,-5.1417,-7.7690,-8.1761,4.3026,0.9801,-4.0533,-5.2066,-1.5193,-2.5159,-5.4840,-7.1322,-7.5306,1.1540,-2.9330,-3.4590,-9.7614,-9.0322
1000.0000,4.4377,-4.2882,-3.7885,-5.4138,-7.5985,7.5267,4.1417,-2.7008,-5.8102,-2.2242,-0.9410,-4.8708,-6.5485,-4.9654,-0.3994,-4.4111,-2.7664,-7.0913,-6.7713
1003.9062,2.0785,-4.1619,-2.1429,-4.3601,-7.8700,7.9192,2.7951,-3.5167,-5.3425,-4.5197,2.2169,-3.8595,-6.3298,-4.9606,-2.9463,-4.2697,-1.9400,-3.9947,-5.0517
1007.8125,-1.9221,-2.0614,-0.9485,-4.6271,-8.6518,4.8690,-2.3568,-5.5748,-3.7013,-7.7806,5.6817,-2.3538,-6.1265,-6.7344,-5.1178,-2.8244,-1.4555,-1.0274,-4.1062
1011.7188,-5.9223,1.5300,-0.6248,-5.3806,-9.2916,0.2371,-8.2866,-7.2442,-1.3202,-10.3265,8.2015,-0.4471,-5.4824,-8.5048,-5.9869,-0.9315,-1.5188,1.4763,-3.6703
1015.6250,-7.8340,4.8187,-0.9673,-5.6375,-9.3854,-2.9672,-11.7389,-7.4703,1.0358,-10.5706,8.9042,1.3998,-4.2908,-8.9598,-5.5365,0.5447,-1.9096,3.3226,-3.3064
1019.5312,-6.4429,5.9022,-1.3630,-5.0045,-9.1208,-2.7675,-11.4017,-6.4846,2.6259,-8.2751,7.4445,2.4926,-3.0017,-8.2077,-4.4646,1.0998,-2.2454,4.3315,-2.7789
1023.4375,-2.4325,4.1457,-1.3676,-3.9095,-9.1000,0.3757,-8.5034,-5.4313,3.0312,-4.8666,4.0642,2.2765,-2.4002,-7.5054,-3.5632,0.6573,-2.4226,4.3074,-2.2220
1027.3438,1.7468,0.6454,-1.1925,-3.2174,-9.7701,3.9526,-5.4706,-5.3104,2.2423,-2.4840,-0.4306,0.6587,-3.0983,-8.0663,-3.1749,-0.5634,-2.8063,3.1156,-2.0281
1031.2500,3.2682,-2.6352,-1.6812,-3.5820,-10.9373,5.2232,-3.8576,-6.1617,0.5357,-2.4563,-4.8743,-1.9666,-5.1128,-9.9760,-3.1038,-2.2005,-3.9477,0.7647,-2.5901
1035.1562,0.7362,-4.4087,-3.7288,-5.0370,-11.7971,3.0694,-3.3071,-7.1490,-1.7354,-4.3915,-8.1540,-4.9937,-7.8361,-12.1152,-2.9589,-3.8424,-6.0380,-2.5895,-4.0911
1039.0625,-4.8336,-5.0571,-7.5318,-7.0739,-11.5013,-1.4527,-2.3675,-7.3982,-4.2860,-6.5892,-9.6561,-7.9367,-10.4151,-13.1234,-2.5823,-5.0983,-8.5696,-6.6998,-6.4404
1042.9688,-10.6061,-6.2462,-12.2409,-9.0630,-9.8359,-6.1207,-0.3469,-6.8097,-6.9171,-7.4400,-9.4790,-10.5544,-12.2523,-12.5675,-2.2037,-5.7083,-10.5367,-11.2539,-9.3265
1046.8750,-13.7457,-9.4273,-16.3330,-10.6421,-7.4718,-9.1937,1.5400,-6.1259,-9.4581,-6.6855,-8.2757,-12.7122,-13.2702,-11.3170,-2.2319,-5.6635,-11.0652,-15.8285,-12.3065
1050.7812,-13.2233,-14.4220,-18.5043,-11.8038,-5.5698,-10.4077,0.8833,-6.2217,-11.7255,-5.5307,-6.8575,-14.1764,-13.7854,-10.8006,-2.8998,-5.2264,-9.9949,-19.8418,-14.8948
1054.6875,-10.3576,-19.2741,-18.4752,-12.6995,-5.0199,-10.6843,-3.8373,-7.2751,-13.5395,-5.5301,-5.8394,-14.5934,-14.1400,-11.7581,-4.0653,-4.7752,-7.9582,-22.6303,-16.6718
1058.5938,-7.7271,-21.5691,-17.1236,-13.3976,-5.8702,-11.0047,-11.5526,-8.5738,-14.7561,-7.1654,-5.5137,-13.7217,-14.4052,-13.5313,-5.2967,-4.5394,-5.8980,-23.6886,-17.4171
1062.5000,-7.2599,-20.2430,-15.8277,-13.8114,-7.3429,-11.5008,-18.8443,-9.1399,-15.2553,-9.2872,-5.8953,-11.7208,-14.3692,-14.5011,-6.1174,-4.4136,-4.4112,-22.9442,-17.2054
1066.4062,-8.8864,-16.4634,-15.4801,-13.8127,-8.3853,-11.4962,-22.1165,-8.6173,-14.8881,-9.9122,-6.7537,-9.2008,-13.7697,-13.3387,-6.1814,-4.0086,-3.4306,-20.8489,-16.3637
1070.3125,-10.7088,-12.8525,-15.8867,-13.3722,-8.3231,-10.3323,-20.0672,-7.6223,-13.4686,-7.7773,-7.5593,-6.9136,-12.5359,-10.0733,-5.2793,-2.9337,-2.4653,-18.1631,-15.2610
1074.2188,-10.5123,-11.6060,-15.9890,-12.5776,-7.1660,-8.1433,-14.5134,-7.2208,-10.8921,-3.4350,-7.4969,-5.2757,-10.8293,-6.1211,-3.2813,-1.1177,-1.1564,-15.5406,-14.0492
1078.1250,-7.4708,-12.9281,-14.7364,-11.5320,-5.4358,-5.8488,-8.9245,-7.9710,-7.3444,0.9933,-5.7616,-4.0912,-8.8770,-3.2580,-0.1964,1.0638,0.3349,-13.1999,-12.5546
1082.0312,-2.7834,-14.9598,-11.9495,-10.2724,-3.7523,-4.3869,-5.8512,-9.3759,-3.4312,3.2568,-2.1145,-2.7234,-6.7830,-2.3577,3.6193,2.9518,1.4264,-10.9266,-10.4481
1085.9375,1.1914,-15.2235,-8.5234,-8.8226,-2.5338,-3.9036,-5.2961,-10.2591,-0.0447,2.5431,2.6769,-0.6191,-4.5120,-2.8826,7.3051,3.9480,1.6013,-8.4066,-7.6057
1089.8438,2.6173,-12.4506,-5.8231,-7.3377,-1.9747,-3.6516,-5.2387,-9.7784,2.0456,0.0041,6.9832,2.1984,-2.0688,-3.4910,9.6663,3.8156,0.8643,-5.6222,-4.3916
1093.7500,1.4101,-7.4166,-4.7306,-6.1660,-2.1769,-2.7077,-3.7227,-8.2125,2.6485,-2.1392,9.1622,5.0484,0.3038,-3.2214,9.7347,2.7678,-0.2110,-2.9871,-1.6113
1097.6562,-0.8659,-2.2367,-5.0605,-5.6995,-3.1953,-0.8733,-0.6571,-6.8091,2.3073,-2.2302,8.6367,6.9949,2.1190,-2.2735,7.4325,1.3315,-0.8728,-1.1059,-0.1131
1101.5625,-2.2845,1.2122,-5.7651,-6.0793,-4.9093,1.0546,2.1815,-6.7702,1.9710,-0.3304,6.3949,7.4332,2.8828,-1.7664,3.8447,0.1033,-0.7034,-0.3527,-0.2959
1105.4688,-2.0002,2.4611,-5.7479,-6.9973,-6.8804,1.9123,2.8500,-8.2043,2.3412,1.9378,4.4100,6.4297,2.4030,-2.7080,0.7828,-0.4710,0.1319,-0.6199,-1.8805
1109.3750,-0.7512,2.3646,-4.6569,-7.8117,-8.4349,1.1775,1.0698,-9.9575,3.3448,2.6980,4.2638,4.5807,0.9165,-5.0509,-0.2007,-0.2360,1.0455,-1.4461,-4.1200
1113.2812,-0.0952,2.0056,-3.0744,-7.9590,-9.0295,-0.5109,-1.4702,-10.5279,4.1533,1.2697,5.9500,2.5422,-1.0785,-7.6283,1.2528,0.6192,1.4185,-2.4096,-6.2943
1117.1875,-1.0400,1.6445,-2.0010,-7.3767,-8.6587,-1.7895,-2.6217,-9.3515,3.8026,-1.3198,7.8138,0.6207,-3.1541,-9.0309,4.0646,1.6011,0.9138,-3.4385,-8.1105
1121.0938,-3.1744,0.6456,-2.0636,-6.5890,-7.9384,-1.6241,-1.7552,-7.3781,2.0021,-3.1232,7.7866,-1.2586,-5.1713,-8.7146,6.3750,2.0837,-0.4571,-4.7498,-9.7040
1125.0000,-4.9755,-1.5990,-3.0487,-6.3322,-7.7037,-0.1187,-0.4111,-6.3838,-0.4697,-2.7527,5.0615,-3.2224,-7.1997,-7.4318,6.6876,1.6082,-2.4410,-6.4498,-11.2567
1128.9062,-5.0280,-4.6401,-4.0793,-6.9528,-8.3537,1.5783,-0.9580,-7.4877,-2.1345,-0.4538,0.9372,-5.0827,-9.2142,-6.6203,4.7375,0.1853,-4.6396,-8.1472,-12.5733
1132.8125,-3.1814,-6.8524,-4.2531,-8.0306,-9.4370,2.1742,-4.3411,-10.0417,-1.7561,2.0068,-1.8964,-6.2838,-10.8538,-7.2207,1.5179,-1.6174,-6.5220,-8.9681,-13.0053
1136.7188,-0.7348,-6.4730,-3.2490,-8.5533,-9.8537,1.1907,-8.8753,-11.8465,0.7789,2.5469,-1.2042,-6.2510,-11.5047,-8.8576,-1.5002,-2.9554,-7.4669,-8.0653,-11.8510
1140.6250,0.4895,-3.0368,-1.4894,-7.5856,-8.6064,-0.7801,-11.2380,-10.6544,4.2712,0.1956,3.1208,-4.8810,-10.7133,-10.0532,-3.3516,-3.2590,-6.9878,-5.3017,-8.9643
1144.5312,-0.5339,1.9635,0.1826,-4.9912,-5.5940,-2.6586,-9.0011,-5.9006,6.8699,-4.2549,8.7830,-2.7733,-8.6395,-9.3453,-4.0543,-2.6994,-5.1093,-1.5897,-5.1038
1148.4375,-3.3188,5.8041,1.0166,-1.6863,-1.8602,-3.7387,-2.7110,0.6361,7.1558,-8.7837,12.4387,-0.9804,-6.1743,-6.4801,-4.2944,-2.1728,-2.6191,1.4389,-1.7009
1152.3438,-6.2622,6.1957,0.7000,0.7986,0.9293,-4.0844,4.1892,5.7965,4.9293,-11.4266,11.7505,-0.4128,-4.5538,-2.7777,-4.6496,-2.7006,-0.8768,2.2934,-0.1371
1156.2500,-7.7992,2.7063,-0.6181,1.2001,1.4623,-4.1953,7.6265,7.0056,1.2143,-11.3837,6.7468,-1.2997,-4.6667,-0.3646,-5.0131,-4.5997,-1.1284,0.4876,-0.9779
1160.1562,-7.4272,-3.0514,-2.5197,-0.7189,-0.4397,-4.3522,5.6741,3.8853,-2.4533,-9.2314,-0.3495,-3.0732,-6.4986,-0.7909,-4.6846,-7.0438,-3.6897,-3.1596,-3.6668
1164.0625,-5.8795,-8.5318,-4.5285,-4.0329,-3.7478,-4.3247,-0.2091,-1.5819,-4.9176,-6.2304,-6.5635,-4.7477,-9.1000,-3.9872,-3.0377,-8.4463,-7.5718,-6.9874,-6.8799
1167.9688,-4.4331,-11.8050,-6.2306,-7.2255,-6.8754,-3.7395,-6.2978,-6.3987,-5.8841,-3.3877,-9.8069,-5.5321,-11.1306,-8.2668,-0.2136,-7.5216,-10.9052,-9.4265,-9.3042
1171.8750,-3.9834,-12.4564,-7.3423,-9.0936,-8.5894,-2.7315,-9.1188,-8.4314,-5.7745,-1.0397,-9.6817,-5.2731,-11.6480,-11.3568,2.7290,-4.3229,-11.9882,-9.8194,-10.3418
1175.7812,-4.6073,-11.3495,-7.7845,-9.3954,-8.5890,-2.1649,-7.4918,-7.5435,-5.2032,0.7886,-7.1603,-4.4698,-10.6520,-11.7553,4.3478,-0.4665,-10.3139,-8.6467,-10.3180
1179.6875,-5.8392,-9.6494,-7.7381,-8.8466,-7.4449,-3.0567,-2.8001,-5.3210,-4.5407,1.7058,-3.6638,-3.8956,-9.0512,-9.5442,3.6558,1.7364,-6.8937,-7.0863,-10.1197
1183.5938,-7.2657,-7.9704,-7.5785,-8.5129,-6.0539,-5.5921,2.3302,-3.7471,-3.8580,0.7346,-0.3152,-4.1001,-8.0951,-6.1950,0.6808,0.7367,-3.6493,-6.2455,-10.5507
1187.5000,-8.8301,-6.2526,-7.6511,-9.0427,-5.0563,-8.6119,5.6746,-3.8534,-3.1774,-3.0458,2.2374,-5.0979,-8.6324,-3.5792,-3.5993,-3.1901,-2.2699,-6.5634,-11.8353
1191.4062,-10.5949,-4.2931,-8.0189,-10.2642,-4.5987,-10.1835,6.2062,-5.2588,-2.7127,-9.3901,3.6113,-6.3978,-10.6419,-2.8660,-7.8235,-8.0384,-3.2745,-7.7122,-13.5505
1195.3125,-12.2809,-2.3365,-8.4101,-11.3961,-4.5026,-8.9971,3.8788,-6.7582,-2.8437,-16.2755,3.5421,-7.3079,-13.2807,-3.9797,-10.8807,-11.3028,-5.8461,-8.9728,-14.9666
1199.2188,-13.1625,-1.1760,-8.4753,-11.6836,-4.5945,-5.5518,-0.8719,-7.3613,-3.8450,-20.5680,2.0239,-7.3190,-15.3708,-5.8618,-12.2295,-11.5184,-8.4494,-9.7767,-15.5255
1203.1250,-12.5790,-1.6950,-8.1891,-10.9847,-4.8802,-2.1093,-7.1902,-6.9487,-5.6231,-19.8234,-0.4591,-6.3629,-16.0080,-7.2603,-11.8452,-9.0728,-9.7442,-10.0493,-15.1426
1207.0312,-10.6981,-4.2492,-8.0369,-9.8798,-5.4429,-1.2622,-13.4880,-6.1240,-7.7003,-14.0877,-2.9700,-4.8352,-14.9455,-7.4875,-10.0182,-5.7731,-9.1883,-10.1616,-14.1695
1210.9375,-8.8029,-8.3634,-8.7289,-9.2239,-6.1982,-4.0592,-17.4921,-5.5125,-9.4624,-6.3136,-4.5521,-3.3920,-12.5825,-6.6895,-7.2389,-3.5392,-7.0460,-10.5668,-13.0848
1214.8438,-8.6494,-12.9072,-10.5658,-9.4693,-6.7631,-9.0682,-17.1912,-5.1598,-10.4639,-0.8233,-4.7744,-2.6208,-9.6337,-5.5389,-4.1937,-3.1722,-3.9690,-11.3854,-12.1409
1218.7500,-11.1934,-16.5468,-12.9349,-10.2569,-6.5932,-13.1559,-12.2768,-4.5346,-10.5608,-0.6457,-3.9382,-2.7361,-6.7182,-4.6370,-1.6978,-4.0239,-0.5648,-12.2185,-11.1959
1222.6562,-15.6130,-18.1612,-14.4246,-10.5952,-5.3116,-13.5157,-4.8925,-3.1021,-9.8164,-5.5034,-2.7476,-3.4467,-4.1129,-4.0607,-0.4290,-4.6806,2.7493,-12.3170,-9.8330
1226.5625,-19.4777,-17.0851,-13.6247,-9.5286,-2.9973,-9.5443,1.2572,-0.9576,-8.3316,-11.9257,-1.7033,-4.0789,-1.7782,-3.3468,-0.5621,-4.0518,5.6252,-11.0131,-7.6842
1230.4688,-20.1262,-13.2537,-10.1210,-6.8376,-0.2161,-3.2379,3.1564,1.0433,-6.1867,-15.5305,-0.7283,-3.9181,0.4144,-1.8912,-1.5982,-2.0453,7.6502,-8.1579,-4.7517
1234.3750,-16.3796,-7.3309,-4.9547,-3.2678,2.2434,2.1596,0.5693,1.8179,-3.5408,-13.9275,0.6590,-2.6035,2.4414,0.5389,-2.6065,0.5730,8.4163,-4.2935,-1.5158
1238.2812,-9.3816,-0.7239,-0.1311,-0.1012,3.7681,4.2869,-3.6652,0.8781,-0.7433,-8.1848,2.7826,-0.3553,4.0462,3.5455,-2.7829,2.8723,7.7751,-0.4360,1.2605
1242.1875,-1.9354,4.7322,2.5582,1.6547,4.2084,3.0805,-5.5413,-1.1848,1.7141,-1.8082,5.3520,2.1173,4.8767,6.2780,-1.9341,4.3743,6.0522,2.4209,2.9322
1246.0938,3.2130,7.4789,2.6108,1.9053,3.8944,0.5498,-2.7174,-2.9574,3.4283,1.9620,7.5199,3.9908,4.7411,7.9277,-0.5133,5.1408,3.9969,3.7970,3.3441
1250.0000,4.9244,7.0267,1.0346,1.4857,3.3902,-0.8233,3.7834,-3.0753,4.3214,2.4567,8.4266,4.7670,3.8004,8.1983,0.8199,5.3959,2.4476,3.9172,2.9338
1253.9062,3.9858,4.3008,-0.4244,1.5426,3.1538,0.1420,10.2552,-1.1242,4.6624,1.7123,7.8039,4.5079,2.5478,7.4276,1.7395,5.1339,1.9157,3.4914,2.4812
1257.8125,2.0921,1.1798,-0.4783,2.7134,3.3060,2.6085,12.8437,2.0547,4.8230,2.3821,6.1744,3.7236,1.5676,6.2851,2.4242,4.1109,2.3544,3.2331,2.6403
1261.7188,0.3964,-0.5897,0.9323,4.6797,3.6324,4.4601,10.0506,4.8761,4.9537,5.1743,4.5246,3.0015,1.2154,5.2756,3.2082,2.2051,3.2407,3.4336,3.5402
1265.6250,-1.1919,-0.4264,2.7804,6.3981,3.7869,3.8668,3.4491,5.9961,4.8590,7.9968,3.7292,2.6370,1.4247,4.4223,4.0416,-0.2436,3.8881,3.8612,4.7121
1269.5312,-3.4615,0.8137,3.7991,6.8240,3.5464,0.5485,-3.6993,5.1002,4.1958,7.6342,4.1372,2.5115,1.7665,3.3681,4.3056,-2.4947,3.7860,4.0211,5.3897
1273.4375,-6.6732,1.5182,3.3425,5.5997,2.9437,-4.0693,-8.6708,2.9744,2.8365,2.6768,5.5249,2.2745,1.7251,1.8055,3.2529,-3.8792,2.7933,3.5590,4.9897
1277.3438,-9.8037,0.4613,1.6577,3.2291,2.1970,-7.7964,-10.6446,0.8510,1.0812,-4.7403,7.3069,1.6677,1.0136,-0.1209,0.7807,-4.2852,1.1390,2.5053,3.4583
1281.2500,-11.0207,-2.4032,-0.5002,0.6615,1.5043,-9.0060,-10.4263,-0.4668,-0.4865,-10.0192,8.7700,0.7360,-0.2718,-1.7946,-2.1279,-4.2160,-0.7115,1.2018,1.2718
1285.1562,-9.1028,-6.0125,-2.4698,-1.3590,0.8698,-7.4980,-9.1622,-1.0622,-1.4070,-9.4037,9.2230,-0.2202,-1.7389,-2.5487,-3.7831,-4.3305,-2.2441,0.0068,-0.8784
1289.0625,-4.6622,-8.9780,-3.9848,-2.6794,0.1154,-4.4634,-7.3600,-1.6385,-1.6853,-3.0101,8.1404,-0.8932,-2.9498,-2.2177,-2.8452,-4.8446,-3.0827,-0.9593,-2.4755
1292.9688,-0.0933,-10.4333,-5.0305,-3.6100,-0.9136,-1.7055,-4.9967,-2.7847,-1.7775,4.8946,5.3930,-1.2035,-3.6576,-1.3637,0.6769,-5.3205,-3.1334,-1.8233,-3.3803
1296.8750,1.8680,-10.3536,-5.5468,-4.4620,-2.1040,-0.6540,-2.3300,-4.3809,-2.2201,8.8023,1.4709,-1.3367,-3.8868,-0.9347,5.2600,-5.0637,-2.6302,-2.7407,-3.7512
1300.7812,-0.0169,-9.2557,-5.3731,-5.1851,-3.0150,-1.6988,-0.3545,-5.6358,-3.1974,5.9793,-2.5570,-1.5624,-3.8426,-1.5554,8.7253,-3.8200,-2.0299,-3.6656,-3.8080
1304.6875,-4.6173,-7.6889,-4.5175,-5.4226,-3.1108,-4.0958,-0.2512,-5.7406,-4.3930,-1.4815,-5.4927,-1.9954,-3.7471,-2.9746,9.5383,-2.1741,-1.7697,-4.3279,-3.6633
1308.5938,-9.1951,-5.9917,-3.4367,-4.9202,-2.1710,-6.3923,-2.2570,-4.6139,-5.2357,-8.2188,-6.6618,-2.4975,-3.7269,-4.1329,7.6280,-1.2606,-2.0075,-4.4492,-3.3490
1312.5000,-11.2501,-4.4271,-2.9272,-3.9039,-0.5800,-7.1251,-5.0694,-3.1126,-5.3252,-9.6407,-6.2856,-2.8052,-3.8022,-3.8728,4.1780,-1.9567,-2.5185,-4.0083,-2.9711
1316.4062,-10.0889,-3.3883,-3.5808,-3.0576,0.7718,-5.4958,-6.5357,-2.4855,-4.6912,-5.3458,-5.2081,-2.7814,-3.9389,-1.8137,0.6374,-4.1719,-2.8464,-3.3180,-2.8018
1320.3125,-7.0037,-3.3159,-5.2191,-3.0689,0.9927,-1.7577,-5.2262,-3.4498,-3.7007,0.7240,-4.1235,-2.5921,-4.0927,1.2556,-2.2250,-6.8159,-2.6324,-2.8307,-3.1751
1324.2188,-4.0327,-4.3125,-6.8535,-4.0902,-0.1971,2.8530,-1.6197,-5.5960,-2.7386,3.5004,-2.9428,-2.6592,-4.2162,3.8012,-4.5161,-8.5077,-1.8975,-2.8295,-4.2376
1328.1250,-2.3496,-5.8395,-7.3283,-5.5591,-2.1757,6.6443,2.1516,-7.6069,-1.9639,0.8191,-0.9261,-3.4048,-4.2579,4.5275,-6.6331,-8.5095,-1.0667,-3.2542,-5.7567
1332.0312,-1.5542,-6.9008,-6.2007,-6.5453,-3.7120,8.2413,3.8667,-8.1511,-1.3395,-4.9316,2.4048,-4.9508,-4.1946,3.2353,-8.5361,-7.1878,-0.7024,-3.7941,-7.1702
1335.9375,-0.3564,-6.6982,-4.1269,-6.3688,-3.7056,7.2387,2.8366,-6.7856,-0.8543,-8.8287,6.3102,-6.9654,-4.0851,0.9353,-9.5952,-5.6692,-1.1342,-4.1430,-7.8772
1339.8438,1.9925,-5.2514,-2.3672,-5.0176,-1.9024,4.3832,0.2582,-4.1839,-0.6662,-7.4516,8.7840,-8.7570,-4.0797,-0.8721,-9.1692,-4.9783,-2.2513,-4.1776,-7.5762
1343.7500,4.7557,-3.4124,-1.7538,-3.0628,0.9043,1.1693,-1.9415,-1.5421,-0.9809,-1.6816,7.7445,-9.5634,-4.3349,-1.2389,-7.3668,-5.3275,-3.5966,-3.9152,-6.4151
1347.6562,6.0731,-2.1833,-1.9766,-1.1867,3.3469,-0.9360,-2.7185,0.3317,-1.7648,3.9763,2.7346,-8.8883,-4.8660,-0.3879,-5.2316,-6.0739,-4.6692,-3.3367,-4.8610
1351.5625,4.3770,-1.8891,-1.8443,0.2569,4.3234,-1.2121,-2.5602,1.4940,-2.6002,4.9739,-4.2153,-6.7284,-5.4590,0.5243,-4.0750,-6.3223,-5.1955,-2.3071,-3.4138
1355.4688,-0.2519,-1.9558,-0.3868,1.2892,3.6424,0.0389,-2.6454,2.5332,-2.9085,0.3034,-9.4721,-3.6018,-5.7494,0.3070,-4.4576,-5.6557,-5.1784,-0.7379,-2.3862
1359.3750,-5.8766,-1.5603,2.0976,1.9782,2.0524,1.7685,-3.3647,3.7532,-2.4289,-6.7763,-10.0606,-0.3737,-5.4578,-1.3585,-5.6918,-4.4211,-4.7392,1.1306,-1.8869
1363.2812,-9.8570,-0.6113,3.9995,2.1100,0.6757,2.8017,-3.6723,4.6356,-1.5535,-11.3800,-5.7537,2.0531,-4.6183,-3.6485,-6.3611,-3.3852,-3.9349,2.6348,-1.9423
1367.1875,-10.5440,-0.1210,3.5448,1.2505,0.2788,2.4338,-2.0085,4.1338,-1.1547,-10.7968,0.6201,3.0792,-3.6012,-5.1218,-5.4920,-3.0837,-2.7274,2.9984,-2.5735
1371.0938,-8.3015,-1.4585,0.3090,-0.7716,0.8914,0.7171,1.9414,1.6381,-1.9333,-6.3748,5.0496,2.6546,-2.8624,-4.6410,-3.4228,-3.3962,-1.1179,1.9180,-3.7047
1375.0000,-5.1619,-4.9607,-4.1288,-3.3650,1.9881,-1.6386,6.2868,-2.1764,-3.7500,-2.0795,5.1505,1.3203,-2.5724,-2.0507,-1.6046,-3.6592,0.7099,-0.0104,-4.9794
1378.9062,-3.4196,-9.0858,-7.0372,-5.1772,3.0115,-3.6302,7.8763,-5.4145,-5.5022,-1.0766,1.8647,-0.0005,-2.4118,1.7997,-1.4349,-3.1848,2.4071,-1.4460,-5.7044
1382.8125,-4.1816,-11.0367,-6.3727,-4.7754,3.7792,-4.3999,4.6452,-6.0540,-5.7474,-3.2596,-1.2579,-0.4013,-1.7361,5.6124,-3.0484,-1.7580,3.6502,-1.0601,-5.0917
1386.7188,-6.8255,-8.6519,-2.2597,-1.6236,4.4621,-3.5856,-2.4577,-3.3422,-3.6909,-5.7239,-0.7215,0.5922,-0.0421,8.3356,-5.0761,0.2483,4.3477,1.5695,-2.7324
1390.6250,-9.5998,-2.2265,3.0328,3.3462,5.2025,-1.4823,-9.6577,1.5475,0.1667,-5.6201,4.2590,2.7952,2.5820,9.5505,-5.6190,2.1666,4.6753,5.5742,1.0020
1394.5312,-10.8142,5.2316,6.6459,8.0597,5.7575,1.0490,-12.7501,6.1466,4.2298,-2.8000,11.0901,5.4545,5.3800,9.4139,-3.6928,3.4607,4.9078,9.2494,4.9565
1398.4375,-9.7870,9.7407,7.0695,10.4027,5.5347,2.9262,-10.0095,8.2114,6.7526,0.0851,15.6181,7.6207,7.3348,8.3533,-0.0006,3.9694,5.2065,11.0722,7.6860
1402.3438,-7.0442,8.9753,5.0231,9.4062,4.0552,3.3452,-3.4075,7.0605,6.8750,0.0894,15.0727,8.6030,7.8168,6.8182,3.5777,3.8588,5.5677,10.5757,8.1964
1406.2500,-3.8540,3.8921,2.6659,5.7430,1.4981,2.2040,2.8190,3.8049,5.0376,-3.1954,9.9509,8.2679,7.0275,5.2330,5.3487,3.4194,5.9802,8.4729,6.4887
1410.1562,-1.5477,-1.8984,1.8196,1.2355,-1.1329,0.1966,5.1711,0.3884,2.5309,-7.0912,3.4993,7.0333,5.9108,4.0548,4.9221,2.9085,6.6201,5.9902,3.5666
1414.0625,-1.0278,-4.6209,2.6272,-2.2450,-2.4353,-1.5375,3.1924,-1.7684,0.5707,-8.1896,-0.7217,5.5936,5.5677,3.7469,3.2198,2.5193,7.8371,3.9702,0.8988
1417.9688,-2.5567,-2.8912,3.6640,-3.7314,-1.4025,-2.0500,-0.6056,-2.5041,-0.4010,-5.6034,-1.3048,4.5521,6.5640,4.5979,1.4730,2.3964,9.8576,2.4455,-0.3299
1421.8750,-5.7124,1.4985,3.3196,-3.3965,1.9248,-1.1299,-2.9797,-2.5886,-0.7355,-2.1517,0.3084,4.1652,8.5962,6.5134,0.1432,2.5943,12.4136,0.9710,0.2597
1425.7812,-9.4311,5.0626,1.2472,-2.0636,6.3962,0.5958,-2.4903,-2.7656,-1.0270,-2.1619,1.2742,4.3048,10.7281,8.9872,-1.2724,2.9883,14.6466,-0.6509,2.2049
1429.6875,-12.2244,5.1727,-1.3278,-0.4904,10.3384,2.0791,-0.3603,-3.0537,-1.5237,-7.5127,-0.3145,4.6079,12.0091,11.3283,-3.4147,3.2596,15.4746,-1.9409,4.5903
1433.5938,-12.6889,1.7519,-2.6663,1.0167,12.4320,2.5021,0.8617,-2.8762,-1.9879,-15.2830,-4.0141,4.6934,12.0385,13.0061,-6.0213,3.0483,14.2466,-2.0419,6.5676
1437.5000,-10.2065,-3.0375,-2.0175,2.4663,12.3470,1.7172,-0.4247,-1.8144,-2.0487,-19.3131,-7.5031,4.3283,11.1107,13.8661,-7.7138,2.2013,11.2323,-0.5274,7.7003
1441.4062,-5.4549,-6.6582,-0.2797,3.7925,10.7859,0.2017,-3.5744,-0.2218,-1.6619,-14.8467,-8.4023,3.4866,9.8955,14.0681,-6.9624,0.9109,7.5566,1.9815,8.0044
1445.3125,-0.2954,-8.0201,0.7435,4.6529,8.9660,-1.3769,-6.3556,0.9166,-1.2244,-2.7280,-5.9548,2.3131,8.9359,13.8332,-3.5112,-0.4101,4.5744,3.9959,7.7635
1449.2188,3.0684,-7.8691,-0.1369,4.6215,7.9004,-2.6053,-6.8786,0.7928,-1.2378,10.3320,-1.3689,1.0313,8.3304,13.2351,0.9571,-1.4494,3.0967,4.1071,7.2930
1453.1250,3.2570,-7.6464,-2.4872,3.5908,7.9019,-3.4335,-5.1091,-0.4694,-1.8382,16.0057,3.2119,-0.1607,7.7898,12.2174,3.6265,-2.2433,3.0020,2.0217,6.7876
1457.0312,0.5018,-7.9779,-4.6152,1.9887,8.5474,-3.9211,-2.7396,-1.8247,-2.6400,10.1620,6.1101,-1.1704,6.9622,10.7973,2.3759,-3.1127,3.4787,-1.1353,6.2859
1460.9375,-3.4730,-8.1477,-5.0113,0.5750,9.0450,-3.9187,-1.6333,-2.1393,-3.0554,-4.0697,6.8055,-2.0267,5.7477,9.2336,-2.6810,-4.3052,3.6787,-3.5351,5.7159
1464.8438,-6.4314,-6.9347,-3.6427,-0.0458,8.7444,-3.0429,-2.2394,-1.1622,-2.8118,-18.3297,5.6289,-2.8055,4.3821,7.9574,-9.1050,-5.6441,3.2752,-3.8809,4.9801
1468.7500,-6.8637,-3.9483,-1.9810,0.1954,7.5001,-1.0260,-3.3209,0.2188,-2.1880,-24.6923,3.0777,-3.4886,3.2743,7.2830,-13.5958,-6.5251,2.5441,-2.2453,4.0584
1472.6562,-4.7296,-0.1831,-1.6939,0.8708,5.7284,1.8426,-3.1693,0.7087,-1.7237,-20.8174,-0.4262,-3.8419,2.7635,7.1384,-13.9802,-6.3240,1.9908,0.1159,3.0964
1476.5625,-1.3112,2.7453,-3.0743,1.4701,4.1720,4.6076,-1.2165,-0.2479,-1.6287,-10.9336,-4.1356,-3.4314,2.9740,7.0739,-10.3586,-4.9163,1.8967,1.8092,2.4196
1480.4688,1.6299,3.9909,-4.5613,1.8367,3.5140,6.0679,1.3343,-1.8782,-1.4280,-2.2235,-6.5350,-1.8322,3.8214,6.5917,-4.7373,-2.8634,2.1674,2.3806,2.4183
1484.3750,2.8049,4.1974,-3.8564,2.2548,4.0318,5.4906,2.3781,-2.5946,-0.2255,0.4177,-5.6572,1.0453,5.0864,5.5539,0.4021,-1.0649,2.5460,2.5824,3.3127
1488.2812,1.9126,4.8216,0.1647,3.1144,5.4414,3.1112,0.5521,-1.2507,2.5326,-2.6784,-0.3100,4.7112,6.4541,4.3212,3.4797,-0.1221,2.9148,3.6315,4.9202
1492.1875,-0.4552,6.5980,6.2483,4.4387,7.0003,0.0249,-3.6641,1.8633,6.3729,-7.1749,8.5825,8.1377,7.5079,3.4669,4.2792,0.0691,3.3464,6.0604,6.5932
1496.0938,-3.2919,8.5273,11.2955,5.6779,7.8220,-2.4840,-8.2142,5.1120,9.7817,-8.6655,17.7089,10.1437,7.7670,3.2574,3.4757,0.1363,3.8477,9.0836,7.4328
1500.0000,-5.6703,8.4128,12.3421,5.9680,7.2674,-3.7131,-10.8292,6.6553,10.9904,-5.9898,22.7411,9.9534,6.8472,3.3158,1.8978,0.5918,4.0811,11.0033,6.7105
1503.9062,-7.0208,4.6688,8.5784,4.6854,5.2368,-3.8761,-10.4365,5.7585,9.0802,-1.4865,20.7178,7.6151,4.7067,2.7914,0.1749,1.2799,3.4389,10.3775,4.2768
1507.8125,-7.1844,-2.0419,1.9401,1.9081,2.2343,-3.7944,-7.6644,3.2608,4.6460,1.5435,11.9425,4.0170,1.8109,0.9843,-1.1522,1.4279,1.5407,7.0883,0.7123
1511.7188,-6.3586,-8.7811,-4.1493,-1.5350,-0.8179,-4.2166,-4.2597,0.8773,-0.4618,1.6813,0.0866,0.4709,-0.9505,-1.9962,-1.5059,0.3253,-1.2001,2.5264,-2.8836
1515.6250,-5.0157,-12.1385,-6.9653,-4.4437,-2.9219,-5.2838,-1.9892,-0.0618,-4.1728,0.1219,-9.6659,-1.8979,-2.6104,-5.0426,-0.5329,-1.9024,-3.4806,-1.2376,-5.3533
1519.5312,-3.7887,-10.5992,-6.0580,-5.7940,-3.3523,-6.5109,-1.7685,0.5719,-5.3411,-1.0551,-13.3066,-2.5978,-2.5569,-6.5377,1.3790,-4.1078,-3.7275,-2.7012,-5.9397
1523.4375,-3.3042,-5.6837,-3.2008,-5.1343,-1.8819,-7.2411,-3.3843,1.9103,-4.2767,-1.2276,-9.8981,-1.8190,-0.7892,-5.2598,2.9226,-4.7792,-1.1140,-1.7412,-4.5144
1527.3438,-3.9964,-0.9538,-0.9126,-2.6673,1.1691,-7.1840,-5.7181,3.0140,-2.3839,-1.9179,-1.6601,-0.1150,2.1576,-1.1376,2.4876,-3.1104,3.7428,0.5039,-1.5047
1531.2500,-5.9867,0.4072,-0.7217,0.9307,5.0471,-6.6318,-7.2208,3.6549,-1.2126,-5.1705,7.5602,2.0155,5.5507,4.6351,-0.6594,0.3364,8.9774,2.5042,2.3750
1535.1562,-9.0707,-2.3299,-2.3712,4.7913,8.7950,-6.2252,-6.5180,4.2973,-1.5616,-11.1335,14.3043,4.3504,8.8162,10.2081,-5.5045,3.9341,12.5288,3.3058,6.4060
1539.0625,-12.7654,-7.1725,-4.3486,8.1140,11.5441,-6.4893,-3.1013,5.3863,-3.1515,-17.1481,16.8208,6.8516,11.6795,14.0267,-9.5518,6.0866,13.3669,2.9708,10.0305
1542.9688,-16.3478,-11.0029,-5.1445,10.3630,12.7964,-7.4918,2.1170,6.6860,-4.9641,-19.3785,15.2080,9.3920,14.0386,15.5503,-10.2548,6.3074,12.0438,2.3055,12.8792
1546.8750,-18.8971,-11.7390,-4.2490,11.3879,12.5965,-8.8402,6.8354,7.3401,-5.9282,-15.7995,10.7408,11.5640,15.7278,15.3343,-6.6955,5.4514,10.1799,2.1790,14.7200
1550.7812,-19.4659,-9.4794,-2.2752,11.4186,11.4903,-9.9622,8.3139,6.6371,-5.5023,-8.0970,5.0958,12.7565,16.4083,14.4880,-0.2954,4.9180,9.2639,2.9311,15.4036
1554.6875,-17.4735,-5.9917,-0.3419,10.8843,10.2416,-10.4382,4.9701,4.7683,-3.8649,-0.8281,-0.0824,12.4694,15.7035,13.8909,6.0042,5.4450,9.6317,4.2055,14.8430
1558.5938,-13.2011,-3.2121,0.6721,10.1019,9.4147,-10.1775,-2.3393,2.8195,-1.7123,1.6362,-3.3353,10.6491,13.4928,13.6601,9.5360,6.4514,10.3457,5.2126,13.0336
1562.5000,-8.0275,-2.0425,0.4781,9.0215,9.0564,-9.3860,-10.4018,1.9075,0.1340,-1.9043,-3.5921,7.8091,10.1322,13.1660,9.4098,6.4688,10.0178,5.1919,10.1081
1566.4062,-4.0441,-2.2471,-0.7282,7.2553,8.6934,-8.4124,-15.3550,2.1761,1.0811,-8.7760,-0.5623,4.8488,6.4138,11.5454,6.7260,4.3531,7.9346,3.8085,6.4087
1570.3125,-3.0474,-3.2025,-2.5228,4.4524,7.6894,-7.5842,-15.0439,2.5767,0.9527,-14.4246,4.9144,2.6792,3.2555,8.3790,3.5093,0.3465,4.6493,1.3338,2.5291
1574.2188,-5.4267,-4.5892,-4.3755,0.7977,5.7550,-7.0914,-10.3942,1.7352,-0.0044,-15.4944,10.9655,1.8650,1.3017,4.1189,1.2909,-3.8474,1.6321,-1.4274,-0.7487
1578.1250,-9.7230,-6.3652,-5.6471,-2.7651,3.2631,-6.9242,-4.7121,-0.7504,-1.2516,-11.7476,15.3933,2.4457,0.6699,0.0079,0.3896,-6.0829,0.2698,-3.4318,-2.6733
1582.0312,-13.3238,-8.2049,-5.6867,-4.8687,1.1176,-6.8813,-1.3223,-3.6953,-2.1703,-5.6845,16.6907,3.9656,0.9749,-2.4910,0.2382,-5.1799,0.9516,-3.8376,-2.8531
1585.9375,-14.0009,-9.1821,-4.1494,-4.5032,0.2213,-6.6753,-1.2640,-5.0303,-2.2937,-0.5432,14.7600,5.6438,1.5807,-2.4629,0.2195,-1.7384,2.8634,-2.4359,-1.5251
1589.8438,-11.3215,-8.2523,-1.3483,-1.7500,0.8829,-6.1228,-2.7938,-3.3716,-1.4878,1.6212,10.8657,6.5989,1.9109,-0.0920,0.1789,2.1841,4.5724,0.1475,0.4420
1593.7500,-6.9303,-5.2509,1.7196,2.0860,2.5767,-5.3157,-3.0647,0.7717,-0.0079,0.5416,6.8407,6.0964,1.6528,3.3335,0.2422,4.2825,4.9370,2.6562,1.9016
1597.6562,-3.4338,-1.4763,3.8408,5.1317,4.2431,-4.6251,-0.6173,5.1865,1.6005,-2.8921,4.0536,3.8021,0.7963,6.0163,0.3049,3.2861,3.7208,3.7936,2.0031
1601.5625,-2.6290,0.8743,4.2906,6.0160,4.9407,-4.4722,3.3626,7.4907,2.7248,-7.4934,2.7799,-0.0148,-0.4430,6.5602,-0.1344,-0.4542,1.5799,2.9092,0.6599
1605.4688,-4.3420,0.1985,3.2502,4.6490,4.4041,-4.9882,6.0684,6.8602,2.9426,-12.0605,2.3244,-4.4454,-1.7329,4.6992,-1.5252,-5.3005,-0.4457,0.3687,-1.4001
1609.3750,-6.7279,-3.1922,1.5792,2.1732,3.1246,-5.8255,5.5286,4.5798,2.2046,-15.2009,1.7368,-8.1788,-2.7185,1.4130,-3.6197,-9.2247,-1.5210,-2.6566,-3.0718
1613.2812,-7.7936,-7.0565,0.0987,0.1204,1.9110,-6.3203,2.3989,2.9441,0.8709,-15.4484,0.5994,-9.9863,-3.1117,-1.6680,-5.3487,-10.6822,-1.3344,-4.8764,-3.5471
1617.1875,-6.9618,-8.6814,-1.0301,-0.6248,1.2619,-5.9497,-0.5151,3.3523,-0.4256,-12.0798,-0.6375,-9.2510,-2.7903,-3.2267,-5.5084,-9.0776,-0.0726,-5.6096,-2.7987
1621.0938,-5.4465,-6.8038,-2.2996,-0.3296,1.0092,-4.7597,-0.7130,5.1138,-1.0495,-6.0893,-0.9728,-6.2552,-1.8835,-3.0016,-3.7696,-4.7987,1.7796,-5.0839,-1.5638
1625.0000,-5.1355,-2.5472,-4.2172,-0.0635,0.4847,-3.4049,1.5991,5.9521,-0.6756,-0.2418,0.4007,-2.0450,-0.7784,-1.8407,-1.1141,0.9955,3.6215,-4.1422,-0.8503
1628.9062,-6.8700,1.3608,-6.5976,-0.8102,-0.9315,-2.7071,3.3007,3.8555,0.4987,2.3231,3.4165,2.0607,0.0011,-1.0485,0.7930,6.6911,4.8463,-3.6119,-1.3116
1632.8125,-9.5286,2.5226,-8.4580,-2.7318,-3.2997,-3.0257,0.7575,-1.1703,1.7811,0.1867,6.9742,5.0282,0.0140,-1.4863,0.8743,10.6320,4.9551,-3.8134,-2.9058
1636.7188,-10.7212,0.5115,-8.6999,-5.1201,-6.0287,-3.9256,-6.9516,-6.8547,2.3053,-5.1443,9.4455,6.4110,-0.8924,-3.0551,-0.4822,11.6353,3.7296,-4.5317,-5.0339
1640.6250,-8.6253,-2.9572,-7.0652,-7.0160,-8.2651,-4.4369,-16.6180,-10.1769,1.5314,-10.0531,9.5898,6.2781,-2.5214,-4.9108,-1.7146,9.4673,1.3928,-5.3856,-7.0060
1644.5312,-3.5504,-5.3536,-4.5445,-7.9611,-9.4698,-3.7559,-22.6602,-9.5284,-0.3506,-11.2322,7.3406,4.9140,-4.4567,-6.2142,-1.3571,5.0058,-1.4027,-6.2216,-8.4704
1648.4375,2.0338,-5.0728,-2.7962,-8.2769,-9.7544,-1.8679,-20.9452,-5.8950,-2.4060,-7.9407,3.9483,2.5832,-6.3050,-6.8191,0.7572,-0.1091,-3.8377,-7.1820,-9.5149
1652.3438,5.1102,-2.3098,-2.9418,-8.6759,-9.7330,0.3910,-11.8532,-2.1615,-3.4310,-2.3588,1.3143,-0.4610,-7.8893,-7.3484,3.3751,-4.2226,-5.3326,-8.4218,-10.4255
1656.2500,4.1970,1.4021,-4.6689,-9.5568,-10.0065,1.8970,-0.2172,-1.0573,-2.6931,2.2141,0.8502,-3.7987,-9.2636,-8.5884,4.8840,-6.4022,-5.8348,-9.7806,-11.3481
1660.1562,0.3425,4.3861,-6.4061,-10.5881,-10.6592,2.0049,7.9046,-3.2641,-0.4810,3.8317,2.5561,-6.7543,-10.5451,-10.6841,4.6237,-6.7202,-5.7776,-10.7665,-12.1383
1664.0625,-3.7063,5.6976,-6.5177,-10.9352,-11.1410,0.9352,9.2631,-7.0426,1.9397,3.0361,4.9468,-8.5970,-11.7027,-12.8061,3.2953,-5.9461,-5.7281,-10.9284,-12.4976
1667.9688,-5.5133,5.1165,-4.6359,-9.9572,-10.6315,-0.4920,5.2972,-9.5816,3.0052,1.8176,5.9550,-8.9624,-12.4778,-13.6153,2.1180,-4.9272,-5.9725,-10.3176,-12.2495
1671.8750,-4.6110,2.5963,-2.0824,-7.8105,-8.6471,-1.5282,0.5592,-9.0159,1.7706,1.4460,4.2841,-8.1743,-12.5232,-12.2255,1.5288,-4.1259,-6.3433,-9.6100,-11.5087
1675.7812,-2.5935,-2.0126,-0.9975,-5.4587,-5.4817,-2.0084,-0.9802,-5.6494,-1.5292,1.1906,0.3180,-7.1492,-11.6762,-8.9420,0.6740,-3.5934,-6.4089,-9.7037,-10.6097
1679.6875,-1.6670,-8.5272,-2.7891,-4.0537,-2.1731,-2.2958,1.1280,-1.5924,-5.6490,-0.8629,-4.0709,-6.8517,-10.1651,-5.1798,-1.7437,-3.2667,-5.8679,-11.0460,-9.8710
1683.5938,-2.8678,-15.7004,-7.0564,-4.1427,0.0118,-2.7510,3.8084,0.7902,-9.1106,-5.6058,-6.7415,-7.6451,-8.5690,-2.5714,-5.9614,-3.2139,-4.8373,-13.2065,-9.4004
1687.5000,-5.3503,-21.1078,-11.7946,-5.2921,0.2771,-3.2309,3.2463,0.4337,-11.0452,-11.3680,-6.7230,-9.0197,-7.5164,-1.8953,-10.4054,-3.5615,-3.8069,-15.0696,-9.0853
1691.4062,-7.2431,-22.1773,-14.7224,-6.4038,-1.2295,-3.1083,-1.8128,-1.9160,-11.5340,-14.6515,-4.8593,-9.9478,-7.3010,-2.6143,-12.5658,-4.1980,-3.2950,-15.5541,-8.7414
1695.3125,-7.3013,-17.8764,-14.7395,-6.4767,-3.4527,-1.8485,-8.8202,-4.4222,-11.2777,-12.7982,-3.1754,-9.6499,-7.6753,-3.3611,-10.9634,-4.6221,-3.4705,-14.3503,-8.2613
1699.2188,-5.9728,-9.8079,-12.4672,-5.2537,-4.9650,0.3306,-13.1455,-5.4238,-10.9244,-6.4569,-3.3930,-8.2137,-7.9856,-2.9942,-6.6002,-4.2159,-4.0307,-12.1273,-7.6372
1703.1250,-5.0182,-1.6874,-9.5668,-3.3000,-4.7025,2.3168,-11.4016,-4.3153,-10.6136,0.3365,-5.6518,-6.5814,-7.5812,-1.4127,-2.5458,-2.8222,-4.4285,-10.0509,-6.8737
1707.0312,-6.0179,2.6897,-7.4597,-1.5073,-2.4894,2.7096,-3.8863,-1.5614,-10.0607,2.8039,-8.3650,-5.8727,-6.2394,0.4802,-1.7821,-1.1456,-4.2756,-8.9721,-5.9218
1710.9375,-9.0047,1.6957,-6.4584,-0.4308,0.9406,0.7992,5.5711,1.9234,-9.0319,-1.1284,-9.3164,-6.5266,-4.3159,1.6076,-4.9370,-0.5274,-3.6153,-8.8880,-4.7357
1714.8438,-12.3421,-3.2377,-5.8937,0.0416,4.4184,-2.7938,12.1115,5.4116,-7.7298,-9.2766,-7.2102,-7.9115,-2.5140,1.6600,-9.7551,-2.1085,-2.8594,-9.0616,-3.4094
1718.7500,-13.9523,-8.7263,-4.9780,0.4761,7.0129,-6.3287,12.8390,8.5560,-6.7144,-16.8050,-2.5693,-8.7240,-1.4247,1.3794,-12.8243,-5.9211,-2.4346,-8.6797,-2.2380
1722.6562,-12.9044,-11.7441,-3.5876,1.3468,8.4792,-7.9150,8.3093,11.1592,-6.4155,-19.7420,2.6088,-7.9114,-1.1583,1.9455,-12.2268,-10.6087,-2.4057,-7.5264,-1.5859
1726.5625,-10.0944,-11.4777,-2.3115,2.5977,9.2093,-6.6129,1.7652,12.8916,-6.6887,-17.6372,6.1124,-5.4503,-1.3260,3.9400,-8.9675,-14.0734,-2.3710,-6.1620,-1.6277
1730.4688,-7.4820,-9.4573,-1.8086,3.6423,9.7378,-2.9495,-3.0623,13.2939,-6.8599,-13.3230,6.7396,-2.4094,-1.3858,6.7128,-5.9887,-14.6786,-1.7369,-5.4918,-2.1761
1734.3750,-6.5118,-8.0161,-2.1245,3.7794,10.1727,1.4353,-4.0260,12.0703,-6.2922,-10.1425,4.6727,-0.2541,-1.1001,8.6773,-5.5742,-12.2031,-0.2016,-6.0783,-2.7862
1738.2812,-6.9878,-8.3602,-2.6166,2.7021,9.9869,4.7178,-1.3617,9.3850,-5.0221,-9.0770,0.9310,0.0930,-0.7644,8.3472,-7.3249,-7.9056,1.8876,-7.7208,-3.1030
1742.1875,-7.3026,-9.7294,-2.5546,0.7303,8.3723,5.7780,2.8960,5.8738,-3.8899,-8.2125,-3.4517,-1.2388,-1.0248,5.3630,-8.4657,-3.6899,3.5908,-9.5958,-3.1819
1746.0938,-5.8342,-10.1963,-1.8267,-1.3753,4.9434,4.5667,6.1977,2.3414,-3.9552,-4.9315,-7.7762,-3.3107,-2.3988,0.7638,-6.3054,-0.9885,3.8678,-10.8108,-3.4798
1750.0000,-2.3905,-8.3561,-1.0639,-2.8571,0.2825,1.8956,6.6677,-0.6171,-5.5824,1.1605,-11.3582,-5.1128,-4.8326,-3.6687,-0.8094,-0.1242,2.2362,-10.9296,-4.4525
1753.9062,1.4693,-4.5147,-1.0132,-3.3481,-4.1289,-1.0517,3.7822,-2.7880,-7.9066,7.2437,-13.0518,-6.1926,-7.6187,-6.4923,4.9559,-0.4865,-0.8242,-10.0937,-6.0339
1757.8125,3.5341,-0.4590,-1.6923,-2.9711,-6.6506,-3.1505,-1.5016,-4.2230,-9.1676,9.2723,-11.3444,-6.7176,-9.7483,-7.3451,7.0529,-1.2367,-4.0191,-8.7134,-7.4399
1761.7188,2.6485,1.9533,-2.1195,-2.1503,-6.4668,-3.5749,-7.0968,-5.0017,-7.7691,5.4048,-5.2507,-7.0124,-10.4765,-6.8974,3.8793,-1.9236,-5.9121,-7.0406,-7.5503
1765.6250,-0.2834,2.2311,-0.9748,-1.3216,-4.1603,-1.9336,-10.5825,-5.1204,-3.3586,-2.0133,4.5630,-7.0462,-9.7341,-6.1826,-2.2680,-2.5746,-5.7520,-4.9986,-5.6887
1769.5312,-2.8093,1.5906,2.2514,-0.7534,-1.4524,1.5922,-10.2977,-4.6028,2.8234,-7.7504,15.3971,-6.3623,-8.1319,-5.8977,-6.6773,-3.3295,-3.9492,-2.4009,-2.2666
1773.4375,-2.6470,1.9582,6.5456,-0.5535,-0.2293,6.1569,-6.2920,-3.7029,8.5756,-7.4575,23.4548,-4.5293,-6.5831,-6.1730,-5.7346,-4.0559,-1.8788,0.6490,1.2256
1777.3438,0.6026,4.4226,9.7584,-0.7795,-1.4626,10.3769,-0.5193,-2.9647,11.9263,-1.0131,25.7130,-1.7191,-5.8071,-6.8498,0.2434,-4.3329,-1.0878,3.5381,2.9746
1781.2500,4.9952,8.3042,9.9138,-1.5122,-4.7119,12.7780,4.0601,-3.0156,12.1086,7.2248,21.5743,1.1290,-6.0220,-7.8692,7.1111,-3.8053,-2.3691,5.3291,1.9043
1785.1562,7.4184,11.5106,6.5229,-2.8157,-8.5035,12.4233,5.1098,-4.1954,9.7587,11.5486,13.1906,2.7757,-6.9605,-9.3499,9.9239,-2.5507,-5.2664,5.2526,-1.6527
1789.0625,5.6523,11.9021,0.9389,-4.6274,-11.2855,9.3829,2.3076,-6.2820,6.3443,9.0671,4.2196,2.4780,-8.1151,-11.2836,6.6075,-1.0941,-8.3176,3.1752,-6.1296
1792.9688,-0.0516,8.7096,-4.5019,-6.6873,-12.2989,4.7414,-2.4605,-8.5274,3.3087,1.7644,-2.1529,0.5186,-8.9949,-13.1887,-0.5180,-0.0300,-9.8827,-0.2759,-9.6316
1796.8750,-6.9336,3.0833,-7.9051,-8.5822,-11.8114,0.1133,-6.3032,-10.0157,1.4864,-5.0338,-4.6326,-1.9413,-9.2402,-14.1438,-6.4692,0.4272,-9.0365,-3.9990,-10.9704
1800.7812,-11.2814,-2.5136,-8.7765,-9.8845,-10.6562,-3.0591,-7.1365,-10.1393,1.0190,-6.5302,-3.8629,-3.5852,-8.6084,-13.2986,-7.2055,0.5805,-5.9875,-6.9103,-10.1622
1804.6875,-10.6114,-5.6195,-7.9053,-10.3011,-9.5064,-4.0404,-4.8689,-8.9115,1.6092,-1.7316,-1.3146,-3.7084,-6.9575,-10.5107,-2.3837,0.9640,-1.8191,-8.3380,-8.1373
1808.5938,-5.1290,-4.9998,-6.4267,-9.7496,-8.4523,-2.9385,-1.1827,-6.9421,2.7982,6.1626,1.9740,-2.4954,-4.3246,-6.5847,4.6806,1.8917,2.1969,-8.1366,-5.9689
1812.5000,2.4066,-1.1580,-4.9181,-8.3533,-7.1491,-0.4878,1.8227,-5.1028,4.0998,12.2488,5.8371,-0.6826,-1.0595,-2.8644,9.5810,3.2221,5.2219,-6.5644,-4.2249
1816.4062,8.2929,4.0231,-3.2480,-6.3967,-5.3326,2.3132,3.0510,-4.0795,5.0617,13.2097,10.4078,1.0478,2.1419,-0.4373,9.8257,4.5093,7.0324,-4.1021,-2.8765
1820.3125,9.9776,8.2316,-1.1749,-4.2887,-3.2289,4.5249,2.8638,-4.0567,5.3943,9.0416,15.2073,2.4405,4.4231,0.4657,6.1093,5.3646,7.7675,-1.3493,-1.7139
1824.2188,7.3970,9.7803,0.9710,-2.5246,-1.5063,5.5109,2.3715,-4.6896,5.1660,2.3691,18.8281,3.5723,5.1364,0.4325,1.2404,5.6901,7.5683,1.0183,-0.8252
1828.1250,2.8243,8.3129,2.2417,-1.5983,-0.8196,5.1321,2.2819,-5.3569,4.8769,-3.6172,19.6146,4.4921,4.1865,0.2520,-2.0728,5.6066,6.4598,2.3493,-0.6824
1832.0312,-0.6003,4.8816,1.7726,-1.8394,-1.3293,3.8625,2.2966,-5.5380,5.2294,-6.8260,16.8702,5.0071,2.1140,0.2277,-2.7605,5.2073,4.5444,2.2406,-1.7500
1835.9375,-0.7314,1.3682,-0.3722,-3.2299,-2.5872,2.6945,1.4920,-5.0978,6.6496,-6.5815,11.6248,4.8425,-0.1707,-0.0267,-1.3432,4.4312,2.2480,0.7926,-3.9629
1839.8438,2.4306,-0.4997,-3.0116,-5.3223,-3.8732,2.7307,-0.7322,-4.3188,8.8791,-3.0407,6.2742,4.0047,-1.8638,-1.1638,1.1449,3.1981,0.2805,-1.3199,-6.5619
1843.7500,6.9176,-0.0608,-4.5958,-7.3659,-4.7014,4.5680,-3.9943,-3.6741,10.9904,3.1959,3.2397,2.9393,-2.6713,-3.4209,3.9998,1.6431,-0.7777,-3.1114,-8.4956
1847.6562,10.1035,1.9469,-4.3613,-8.6301,-5.0944,7.8132,-7.0968,-3.4950,11.9008,10.7892,3.5424,2.2406,-2.8996,-6.2568,6.7553,0.1411,-0.9703,-3.8119,-9.1308
1851.5625,10.2933,3.8682,-2.9564,-8.7649,-5.4316,11.1048,-8.8181,-3.7538,11.0693,17.2995,6.2699,2.0985,-3.1943,-8.6130,8.5984,-0.9978,-1.0850,-3.3484,-8.7286
1855.4688,7.6346,4.1846,-1.9760,-7.9834,-6.0281,12.7441,-8.6332,-4.1103,8.8821,19.7613,9.2828,1.9795,-4.1067,-9.5964,8.3014,-1.9117,-2.1763,-2.4394,-8.2848
1859.3750,3.8684,2.4972,-2.7147,-6.9317,-6.8096,11.6228,-6.8213,-4.1846,6.4331,16.3722,10.6456,0.9170,-5.7580,-9.0469,5.1022,-3.2160,-4.7443,-2.1746,-8.8054
1863.2812,1.1704,-0.2130,-5.1104,-6.3096,-7.3481,7.8839,-4.0199,-3.8572,4.8453,8.1648,9.7967,-1.7103,-7.7891,-7.5635,-0.1715,-5.4878,-8.1744,-3.3057,-10.5326
1867.1875,0.8577,-2.2460,-7.7395,-6.4698,-7.2165,2.8874,-0.7594,-3.3718,4.6121,-0.9386,7.7185,-5.5007,-9.5950,-6.0096,-4.9793,-8.5304,-10.9355,-5.7044,-12.7022
1871.0938,2.7403,-2.3290,-8.9006,-7.2477,-6.3593,-1.5006,2.5703,-3.1609,5.4038,-6.2639,6.0941,-9.0560,-10.6800,-4.9208,-6.4968,-11.0808,-11.5089,-8.3710,-14.0396
1875.0000,5.4203,-0.4579,-7.9446,-8.1163,-5.1741,-3.8410,5.3993,-3.5222,6.4135,-5.4766,6.1088,-10.8164,-10.9205,-4.2775,-3.7332,-11.4119,-9.4498,-10.0304,-13.6578
1878.9062,7.2286,2.1426,-5.7906,-8.5444,-4.2404,-3.7163,6.8066,-4.3860,6.9196,-0.3312,7.7090,-10.1560,-10.5993,-3.7578,1.3819,-8.5841,-5.8119,-9.9481,-11.7131
1882.8125,7.1495,3.8797,-4.2025,-8.3025,-3.9107,-1.7121,5.8964,-5.3376,6.6278,4.4608,9.7296,-7.9199,-10.2122,-3.1782,5.0667,-3.4609,-2.5715,-8.4346,-9.3375
1886.7188,5.2013,3.8174,-4.3910,-7.5173,-4.0753,1.0609,2.5492,-5.8601,5.5985,4.6314,10.6820,-5.9475,-10.1651,-2.6953,4.3460,1.4153,-1.3935,-6.6969,-7.8825
1890.6250,2.1721,2.1282,-6.0533,-6.4767,-4.2611,3.5039,-2.1172,-5.6030,3.9326,-0.4434,9.6122,-5.8691,-10.5253,-2.5937,-0.6768,3.2449,-2.5721,-6.1270,-8.0083
1894.5312,-0.9726,-0.2876,-7.6226,-5.3745,-3.9659,4.8302,-6.1410,-4.4919,1.5669,-7.2202,6.5060,-8.0213,-10.9593,-2.8841,-6.7838,0.8427,-4.8774,-7.4875,-9.2603
1898.4375,-3.5752,-2.6151,-7.5419,-4.2177,-2.9756,4.6245,-7.8535,-2.6618,-1.6180,-10.6363,2.1079,-11.2586,-10.8995,-3.1206,-10.0098,-4.3750,-6.4102,-10.5117,-10.4268
1902.3438,-5.4277,-4.6704,-5.5591,-2.9678,-1.4638,2.8489,-6.9621,-0.3500,-5.4970,-7.9718,-2.5892,-13.7784,-9.8689,-2.6630,-8.6437,-9.1217,-5.8641,-14.1441,-10.4152
1906.2500,-6.6319,-6.7688,-3.0231,-1.7767,0.1386,-0.0887,-4.7141,2.1052,-9.5268,-0.9823,-6.8008,-14.3366,-7.8019,-1.2096,-4.5116,-10.3354,-3.3331,-17.2177,-9.0246
1910.1562,-7.4011,-9.1207,-1.9463,-1.0811,1.3591,-3.3146,-2.9564,4.1812,-12.9171,5.3277,-10.1270,-12.9772,-5.1815,0.8395,-1.4970,-7.2452,-0.1621,-19.0957,-7.0757
1914.0625,-7.9571,-11.3761,-3.5544,-1.4174,1.8382,-5.7337,-2.7987,5.1772,-15.0537,6.3360,-12.4737,-10.8044,-2.8834,2.5178,-2.4450,-1.9443,1.9756,-19.8795,-5.8250
1917.9688,-8.5031,-12.7865,-7.4228,-3.0482,1.3870,-6.5756,-3.9338,4.4687,-15.8422,1.0654,-13.8896,-9.0648,-1.7745,2.8628,-6.9026,1.9926,2.0873,-20.1149,-6.0842
1921.8750,-9.1666,-12.8687,-11.8100,-5.6648,0.0162,-5.9406,-5.1350,1.9460,-15.6815,-7.3332,-14.4556,-8.2872,-2.2631,1.5103,-11.4916,1.9311,0.2998,-20.2721,-7.6578
1925.7812,-9.8896,-11.9583,-14.8635,-8.4096,-2.0079,-4.8847,-5.4685,-1.6784,-15.0795,-14.0694,-14.2391,-8.1011,-4.0523,-1.1187,-12.6058,-2.0323,-2.4357,-20.3858,-9.4682
1929.6875,-10.3770,-11.0784,-15.7435,-10.2527,-4.1268,-4.8189,-5.1442,-5.0242,-14.2207,-16.1089,-13.2590,-7.7637,-6.2555,-4.1378,-9.2723,-7.1499,-5.0106,-20.0737,-10.2559
1933.5938,-10.2410,-11.1324,-14.8637,-10.5079,-5.5933,-6.5219,-5.2392,-6.7115,-12.8439,-13.8797,-11.4457,-6.8691,-7.8278,-6.7360,-3.9077,-9.8998,-6.6615,-18.8547,-9.3672
1937.5000,-9.3259,-12.0648,-13.2160,-9.1789,-5.7695,-9.4608,-6.5208,-6.1796,-10.5419,-10.2224,-8.6663,-5.6353,-8.0823,-8.5219,-0.4136,-8.3443,-7.0503,-16.5035,-7.1135
1941.4062,-7.9834,-12.7519,-11.4709,-6.9378,-4.5098,-12.0021,-8.4313,-4.0966,-7.2524,-7.7627,-4.8879,-4.5870,-7.0054,-9.4750,-1.1736,-3.3609,-6.0814,-13.2049,-4.5127
1945.3125,-7.0172,-11.8399,-9.6365,-4.7777,-2.3751,-12.4849,-9.2381,-2.0136,-3.5436,-6.9997,-0.4365,-3.9896,-5.2050,-9.6621,-5.3345,2.0275,-3.8091,-9.4604,-2.6342
1949.2188,-7.2185,-8.9391,-7.4836,-3.5569,-0.4649,-10.4410,-7.3881,-1.4285,-0.4421,-6.5548,3.8417,-3.5773,-3.5431,-9.0537,-9.6472,4.6779,-0.5903,-5.8645,-1.9999
1953.1250,-8.7470,-5.1984,-5.2231,-3.6672,0.1258,-7.0483,-3.0237,-2.8650,1.1201,-5.0566,6.7376,-2.8244,-2.6754,-7.6208,-11.0661,3.2953,2.7221,-2.9000,-2.3936
1957.0312,-10.8090,-2.6845,-3.6923,-4.9304,-1.0547,-4.3982,1.6561,-5.5796,0.8885,-2.7665,7.2065,-1.5008,-2.7527,-5.5773,-8.9687,-0.9179,4.9145,-0.8111,-3.1202
1960.9375,-11.9516,-2.9135,-3.7624,-6.6886,-3.4740,-4.0296,3.6825,-8.0739,-0.4857,-1.4189,5.0269,0.0090,-3.4195,-3.4555,-5.3015,-5.2199,5.0020,0.4615,-3.4696
1964.8438,-10.8861,-5.6145,-5.4289,-8.0108,-5.8235,-5.7740,1.4275,-9.0217,-1.7305,-2.4610,1.1557,0.9374,-4.0720,-1.8465,-2.7410,-7.1270,2.9411,1.2940,-3.0671
1968.7500,-7.3586,-8.7208,-7.4207,-7.9753,-6.7012,-7.7931,-4.0326,-7.9646,-1.6146,-5.3834,-2.5641,0.7397,-4.2166,-0.9768,-2.5482,-5.8554,-0.1257,2.2827,-1.9431
1972.6562,-2.4992,-9.7120,-7.8181,-6.0117,-5.3929,-7.8481,-9.4158,-5.3585,0.3668,-7.7957,-4.3114,-0.4445,-3.7410,-0.5051,-3.9003,-2.6028,-2.4500,3.9752,-0.3805
1976.5625,1.6206,-7.3942,-5.3466,-2.2210,-2.2974,-4.9309,-11.3516,-2.0773,3.6396,-7.3518,-3.3362,-1.8861,-2.9787,0.2117,-5.0933,0.3149,-2.8216,6.4958,1.2795
1980.4688,3.0076,-2.8222,-0.3989,2.5055,1.2630,-0.0946,-8.6453,1.1494,6.7364,-3.9132,-0.4877,-2.8580,-2.5388,1.5419,-5.3745,0.8052,-1.4865,9.2958,2.7418
1984.3750,0.7839,1.3443,5.0466,6.7466,3.7522,4.1362,-3.0673,3.9400,7.9694,-0.0005,2.1922,-3.2324,-2.9679,3.1652,-5.6784,-1.9659,-0.0867,11.2915,3.7733
1988.2812,-4.3123,2.6270,8.6370,9.1855,4.2551,5.3853,1.8939,6.0795,6.3012,1.0467,2.6497,-3.5697,-4.3886,4.2259,-7.5926,-7.2786,-0.5185,11.4389,4.2196
1992.1875,-10.2035,0.3897,9.1468,9.3227,2.9705,2.9630,3.4143,7.2898,1.9789,-2.1874,0.0786,-4.6038,-6.2990,4.0056,-11.5116,-13.2711,-3.4436,9.4489,4.0747
1996.0938,-14.3690,-3.8000,7.1838,7.8082,1.0838,-1.7190,1.1633,7.2899,-3.4533,-7.8175,-4.5489,-6.5332,-7.6845,2.5999,-15.7207,-17.7412,-7.5471,6.1342,3.5489
2000.0000,-14.9388,-7.3352,4.5970,6.0873,0.0847,-6.1017,-2.6583,6.1369,-7.8669,-11.9023,-9.0551,-8.7032,-7.4595,1.0092,-17.3953,-18.9894,-10.1899,3.0453,3.0257
2003.9062,-11.5291,-8.3914,3.0595,5.4910,0.9047,-8.1098,-4.9970,4.4786,-9.6782,-11.4524,-11.3932,-9.9576,-5.0577,0.4822,-14.8368,-16.4416,-9.1181,1.5298,2.8697
2007.8125,-5.4837,-7.0990,2.9069,6.3317,3.3593,-7.3537,-4.0904,3.3424,-8.7607,-6.8463,-10.8881,-9.4063,-0.8391,1.5677,-9.1202,-10.8759,-4.0693,1.8259,3.1867
2011.7188,0.5994,-5.2825,3.0861,7.6505,6.2234,-5.1572,-0.5915,3.4792,-6.5368,-1.6870,-8.5775,-7.0243,3.9775,3.6243,-3.6874,-4.1529,2.8899,2.8684,3.7260
2015.6250,3.9386,-5.0338,2.1993,7.8626,7.9183,-3.5014,2.9959,4.7303,-5.0967,-0.1314,-6.4525,-3.6451,7.8935,5.2307,-2.0322,1.5086,8.6039,3.0297,4.0406
2019.5312,2.8474,-7.1920,-0.2156,5.9133,7.4287,-3.6717,4.0588,5.9820,-5.8374,-3.7386,-6.1392,-0.3843,9.9165,5.2424,-5.1772,4.4456,10.8204,1.3301,3.8264
2023.4375,-2.3518,-10.7873,-3.1839,2.1424,4.9117,-5.5062,1.5579,5.8593,-8.5069,-10.2831,-7.9218,2.0381,10.0641,3.6945,-10.8701,4.2315,9.5442,-1.7518,3.1967
2027.3438,-9.3194,-13.7573,-4.9664,-1.8004,1.6150,-7.6571,-3.3981,3.7052,-11.3485,-15.4471,-10.7230,3.5823,9.2382,1.8206,-15.1355,1.7572,6.8008,-4.5073,2.6622
2031.2500,-14.7618,-14.3410,-4.3858,-3.9941,-0.8684,-8.5839,-8.3172,0.1042,-12.3106,-16.0514,-12.9609,4.6377,8.5372,1.1233,-15.0360,-1.3382,5.0092,-5.1619,2.7913
2035.1562,-16.1315,-12.1646,-1.7966,-3.5468,-1.5592,-7.5715,-10.8144,-3.4880,-10.5164,-12.3227,-13.5941,5.5260,8.4826,2.1867,-10.6181,-3.5481,5.1847,-3.1615,3.7789
2039.0625,-13.0543,-8.3573,1.0315,-1.2437,-0.6525,-5.1463,-9.8902,-5.7588,-6.9448,-7.5031,-12.6102,6.2019,8.7176,4.1625,-4.6928,-4.1716,6.3092,0.3570,5.2450
2042.9688,-7.5929,-4.7673,2.0241,0.9360,0.6938,-2.7074,-6.3378,-6.4263,-3.8044,-5.2239,-10.7044,6.3631,8.4015,5.3680,-0.7536,-3.4289,6.3245,3.2715,6.4287
2046.8750,-3.0864,-2.9127,0.0980,1.1085,1.2095,-1.6819,-2.2029,-6.3189,-3.0284,-6.7726,-8.5438,5.8048,6.9903,4.5743,-0.6488,-2.0652,3.9678,3.8424,6.6503
2050.7812,-2.1989,-3.3409,-4.2554,-1.3128,0.4212,-2.7389,0.2999,-6.6003,-4.9865,-10.3591,-6.2961,4.6495,4.7738,2.0028,-3.6468,-0.8151,0.0078,1.7471,5.7057
2054.6875,-5.3707,-5.6554,-9.4307,-5.3171,-1.0250,-5.4895,-0.1637,-7.7763,-8.3592,-12.8143,-3.8099,3.2283,2.7057,-0.7602,-7.3577,-0.1061,-3.1237,-1.9434,3.9055
2058.5938,-10.6602,-8.9829,-13.7825,-9.0508,-1.8705,-8.7721,-3.4890,-9.2763,-11.2431,-12.2281,-1.2317,1.7284,1.6165,-1.9065,-9.5915,-0.1014,-3.0980,-5.7465,1.7559
2062.5000,-15.0592,-12.4549,-16.5049,-11.0272,-1.2314,-11.3031,-8.2550,-9.9205,-12.6081,-9.3754,0.5697,-0.0536,1.4271,-0.7667,-9.7058,-0.8755,0.4485,-8.8790,-0.4394
2066.4062,-16.3864,-15.4366,-17.7509,-10.9210,0.6588,-12.3102,-12.4302,-8.8574,-12.9610,-6.8722,0.2639,-2.5934,1.0425,1.6385,-8.6054,-2.4460,5.3886,-11.6140,-2.7156
2070.3125,-14.4950,-17.5263,-18.0558,-9.4563,2.5248,-11.8202,-14.3253,-6.1988,-13.7077,-6.8763,-3.0736,-6.2161,-0.8855,3.2869,-7.6841,-4.6042,8.3961,-14.6523,-5.2065
2074.2188,-11.0563,-18.5058,-17.6380,-7.6132,2.9338,-10.4916,-13.3399,-2.8714,-15.7554,-9.2848,-9.1095,-10.6983,-4.8332,2.5952,-7.7120,-6.7573,7.1947,-18.1042,-7.7500
2078.1250,-8.2082,-18.3549,-16.1721,-5.8585,1.3662,-9.1333,-10.1340,0.1142,-18.5213,-11.8899,-16.1008,-15.2188,-9.7777,-0.4356,-8.4993,-8.0552,2.1687,-21.0057,-9.7217
2082.0312,-7.1242,-17.2838,-13.1952,-4.0057,-1.3242,-8.2191,-6.1480,2.3030,-20.2000,-12.2984,-21.6422,-18.7144,-13.6256,-4.1876,-9.3799,-7.8372,-3.8308,-21.8504,-10.3201
2085.9375,-7.5094,-15.6736,-8.7814,-1.7339,-3.4407,-7.6918,-2.7700,3.8043,-19.1295,-9.9839,-23.8615,-20.3914,-14.4932,-6.5082,-9.9057,-6.1078,-7.3585,-19.7659,-9.1527
2089.8438,-8.2363,-13.9092,-3.9093,0.7558,-3.6261,-7.1572,-0.6683,4.7437,-15.1874,-6.7630,-22.3004,-20.0598,-11.9655,-6.1198,-10.1139,-3.6395,-6.6040,-15.3966,-6.6831
2093.7500,-8.4513,-12.2261,-0.1812,2.5650,-1.8579,-6.3089,0.3131,4.7624,-10.0907,-5.3128,-17.9722,-18.1220,-7.4264,-3.3823,-10.2437,-1.5480,-2.4265,-10.7413,-4.1412
2097.6562,-8.1984,-10.7035,0.9713,2.5966,0.4736,-5.2642,0.7011,3.1335,-6.3193,-6.9472,-12.6797,-15.3163,-3.1973,0.0507,-10.3099,-0.6026,2.4593,-7.9946,-2.8759
2101.5625,-8.1151,-9.4019,-0.9057,0.3490,1.4878,-4.5576,0.7868,-0.5192,-5.4621,-10.4738,-8.1302,-12.4342,-1.0778,2.3452,-10.0066,-0.7774,5.4547,-8.2151,-3.5528
2105.4688,-8.5936,-8.4856,-4.9749,-3.6265,0.0962,-4.7835,0.3642,-5.5280,-7.2352,-13.0800,-5.3794,-10.1497,-1.3130,2.5544,-9.0387,-1.3887,5.7297,-10.7751,-5.7508
2109.3750,-9.2493,-8.1645,-9.4793,-7.9742,-3.2557,-6.1520,-0.9978,-10.2224,-9.8874,-12.5718,-4.7534,-8.9244,-2.6797,0.9679,-7.5371,-1.7058,4.4095,-13.9466,-8.2477
2113.2812,-9.2333,-8.4715,-12.5836,-11.3049,-6.8986,-8.2918,-3.4149,-12.8332,-11.6204,-9.2059,-6.0197,-8.8912,-3.5539,-1.3408,-6.1286,-1.5423,3.3103,-16.1258,-9.8005
2117.1875,-8.1274,-9.0939,-13.2257,-12.9232,-9.0567,-10.4529,-6.3717,-12.6296,-11.8877,-5.6566,-8.5266,-9.7199,-3.1152,-3.3018,-5.5540,-1.3502,3.3271,-16.7724,-9.8765
2121.0938,-6.5837,-9.4915,-11.5581,-13.0181,-8.9654,-11.9547,-8.9286,-10.3853,-11.5916,-5.0903,-11.2767,-10.6216,-1.8050,-4.3802,-6.1323,-1.7467,3.7700,-16.4450,-8.8486
2125.0000,-6.0254,-9.3025,-8.8019,-12.2729,-7.2226,-12.5350,-10.2933,-7.7487,-12.1125,-8.7662,-13.1333,-10.6415,-0.7740,-4.5878,-7.4967,-2.8760,3.1282,-16.0591,-7.5770
2128.9062,-7.5161,-8.7383,-6.6267,-11.2834,-5.1938,-12.3464,-10.2804,-5.9830,-14.0248,-14.9433,-13.2805,-9.1841,-0.8426,-4.1543,-8.7867,-4.1484,0.5790,-16.0647,-6.7420
2132.8125,-10.6753,-8.5792,-6.3706,-10.2567,-3.9742,-11.6424,-9.2838,-5.0811,-16.5402,-19.9113,-11.7239,-6.4517,-1.8312,-3.2446,-9.1173,-4.5927,-3.0326,-16.1928,-6.4388
2136.7188,-13.6010,-9.6470,-8.4514,-9.1545,-3.6873,-10.4623,-7.8291,-3.9888,-18.0728,-20.4226,-9.3758,-3.4330,-2.7643,-1.9486,-7.9814,-3.5525,-5.5905,-15.8639,-6.2874
2140.6250,-14.0260,-12.0676,-12.2180,-8.0403,-3.5855,-8.6197,-6.1473,-1.7620,-17.4040,-15.8229,-7.4637,-1.3379,-2.7198,-0.4567,-5.3827,-1.1775,-5.2218,-14.7861,-5.8856
2144.5312,-10.9481,-14.8954,-16.2824,-7.2426,-2.7876,-6.0254,-4.1840,1.3126,-14.4981,-8.4411,-6.5526,-0.7979,-1.5888,0.8492,-1.7580,1.6658,-1.7697,-13.1776,-5.1778
2148.4375,-5.5169,-16.4908,-19.1596,-7.1486,-1.0312,-3.0488,-2.0146,3.6208,-10.3903,-2.0428,-5.9447,-1.3910,-0.1225,1.5552,2.1447,3.9721,2.9322,-11.4599,-4.4286
2152.3438,-0.4395,-15.4971,-19.8943,-7.8124,1.1331,-0.5400,-0.1981,3.3269,-6.3682,0.5394,-4.0978,-1.8811,0.7434,1.5226,5.3745,5.1916,6.2390,-9.7802,-3.8582
2156.2500,1.7563,-11.7703,-18.3695,-8.7452,2.8055,0.6131,0.4142,-0.1355,-3.1949,-0.9733,0.0406,-1.0674,0.6968,1.0685,6.9848,5.4011,6.4754,-7.8612,-3.3046
2160.1562,0.4015,-6.5712,-15.1709,-9.1124,3.4414,0.1177,-0.5935,-5.3714,-0.9713,-4.3940,5.7275,1.3258,0.3027,0.8263,6.4259,4.9947,4.0179,-5.3405,-2.2539
2164.0625,-2.8839,-1.8340,-11.1397,-8.2170,3.2296,-1.3988,-2.5320,-9.7368,0.4140,-6.6470,10.2959,4.3536,0.4919,1.3496,3.9834,4.2375,0.9064,-2.2675,-0.2609
2167.9688,-5.3175,0.9945,-6.9256,-5.9095,2.8727,-2.6931,-3.7178,-10.9862,0.8193,-5.7056,10.6149,6.3842,1.7123,2.7407,0.9008,3.0964,-0.6865,0.7444,2.5758
2171.8750,-4.8509,1.7077,-2.8218,-2.6353,2.9845,-2.7051,-2.5423,-8.6648,-0.1152,-1.6866,5.3259,6.1092,3.4495,4.5646,-1.0921,1.4595,0.0201,2.9016,5.4962
2175.7812,-1.5345,1.1528,1.0602,0.8680,3.6051,-1.3139,1.1694,-4.2579,-2.4668,3.4265,-3.7304,3.3483,4.5261,6.0936,-0.7202,-0.5259,1.9883,3.8277,7.4637
2179.6875,2.5394,0.2972,4.4814,3.9476,4.2071,0.5031,5.6058,-0.0586,-5.6099,7.0601,-12.1113,-0.8730,3.9545,6.6894,1.9892,-2.3780,3.2641,3.8200,7.7973
2183.5938,4.6052,-0.6675,6.9448,6.2077,4.1606,1.2663,7.8792,2.3481,-8.3939,7.4428,-15.2461,-4.9662,1.6844,6.0698,5.5830,-3.5849,2.4651,3.5020,6.5917
2187.5000,2.9490,-2.4269,7.9065,7.4350,3.2660,-0.0338,5.9764,2.8850,-9.8870,4.3386,-11.2490,-7.6536,-1.3220,4.3463,7.9760,-4.0177,-0.2581,3.1743,4.6256
2191.4062,-2.1074,-5.7491,7.2004,7.4777,1.9372,-3.2348,0.4109,2.6073,-10.0797,-1.1084,-2.1744,-8.4875,-3.7172,1.9091,7.7000,-4.0374,-3.4209,2.4937,2.8492
2195.3125,-8.4758,-10.4532,5.3354,6.2909,0.9091,-7.0415,-5.7330,2.6189,-9.8942,-7.1080,7.1784,-7.7611,-4.5995,-0.6893,4.7763,-4.1401,-5.3019,0.8576,1.8472
2199.2188,-13.5103,-15.0542,3.3756,4.1440,0.7165,-9.7690,-8.6110,3.2109,-10.4071,-12.0052,12.1343,-6.0271,-3.9331,-2.7921,0.6264,-4.4271,-5.0582,-1.7760,1.6549
2203.1250,-15.3483,-17.5027,2.4066,1.7486,1.3438,-10.3011,-6.1596,3.8375,-11.8875,-14.7375,10.7851,-3.6727,-2.3204,-3.7168,-2.8804,-4.4022,-3.0769,-4.3809,1.9888
2207.0312,-13.6508,-16.5494,2.9178,0.0620,2.2871,-8.6644,0.3976,3.7873,-13.4650,-14.9199,4.7431,-0.8566,-0.4085,-2.9585,-4.5333,-3.3580,-0.4480,-5.2562,2.6192
2210.9375,-9.4977,-12.7038,4.5277,-0.2112,2.9424,-5.9096,7.2116,2.8702,-13.7475,-12.7361,-2.2743,2.2523,1.5421,-0.4907,-4.2779,-1.0863,1.8935,-3.1807,3.5365
2214.8438,-4.6801,-7.9840,6.2602,0.9124,3.0081,-3.4363,10.2624,1.5381,-11.9104,-8.8214,-6.8464,5.2536,3.6054,3.0360,-2.8721,1.7044,3.6512,1.5225,4.7902
2218.7500,-0.8542,-4.5574,7.1966,2.6557,2.6200,-2.2051,7.9471,0.4389,-8.3626,-4.1762,-7.5630,7.5808,5.7870,6.4238,-1.1291,3.7109,4.9918,6.9300,6.2066
2222.6562,1.0624,-3.2445,7.0553,3.9805,2.1749,-2.2833,2.0273,-0.0968,-4.4303,-0.0189,-5.1279,8.8307,7.7039,8.4296,0.5638,3.9480,6.0120,10.6696,7.3113
2226.5625,1.0862,-3.0186,6.3030,4.3096,2.0308,-2.9220,-3.6747,-0.1438,-1.3220,2.5136,-1.2128,9.0739,8.6830,8.3970,2.1067,2.5527,6.4145,11.5175,7.5978
2230.4688,-0.0237,-1.9110,5.7418,3.9364,2.3257,-3.0599,-5.8553,0.1747,0.7548,2.7674,2.7916,8.8560,8.2258,6.6238,3.2016,0.7816,5.7094,10.2500,6.9483
2234.3750,-1.2094,1.3431,5.8872,3.7836,3.0106,-1.9540,-3.7612,1.0443,2.5868,0.8870,6.2270,8.8498,6.4483,4.1958,3.1370,0.1015,3.7486,9.0557,5.8297
2238.2812,-1.6155,6.1734,6.5932,4.6630,3.9984,0.3828,0.6653,2.8694,5.0875,-2.1693,8.8336,9.4073,4.1116,2.3547,1.2094,1.0248,1.0838,9.8965,5.0413
2242.1875,-0.9291,10.4514,7.1792,6.5798,5.2488,3.1476,4.4472,5.7407,8.3429,-4.9873,10.3400,10.3469,2.1928,1.7906,-2.4801,2.6207,-1.2216,13.0299,5.1586
2246.0938,0.5996,12.0027,6.9400,8.6157,6.7035,5.1401,5.6898,8.9544,11.4204,-6.2891,10.5868,11.1268,1.3207,2.3082,-6.5715,3.1606,-2.2295,16.8059,6.0984
2250.0000,2.4479,10.2280,5.6478,9.4950,8.1487,5.4043,4.6091,11.1258,13.1285,-5.4725,10.0544,11.2609,1.4960,3.0699,-8.8983,1.4742,-1.7290,18.8919,7.1731
2253.9062,4.2156,6.6048,3.6833,8.4296,9.1751,3.7967,2.8729,10.9599,13.0755,-2.8302,10.0743,10.6628,2.2715,3.2318,-7.7222,-2.0108,-0.3290,17.9905,7.6256
2257.8125,5.8382,3.6753,1.7261,5.6367,9.3288,1.1457,1.9745,8.1475,12.0950,0.6422,12.1681,9.6774,3.1889,2.5386,-2.9429,-5.3844,1.0282,14.7551,7.2427
2261.7188,7.4651,3.2701,0.2633,2.1818,8.3842,-1.1401,2.0174,3.6741,11.6297,3.7279,16.7897,8.8084,4.0887,1.4932,3.6262,-6.5039,1.7551,11.2469,6.5549
2265.6250,9.1208,5.2837,-0.7050,-0.6959,6.5410,-1.8413,1.8411,-0.7476,12.5587,5.5128,22.4811,8.3612,5.0557,1.0123,9.2120,-4.4764,1.9826,9.3966,6.4366
2269.5312,10.4670,7.8856,-1.5511,-2.2694,4.3805,-0.6295,0.2700,-3.7183,14.4479,5.7245,26.3491,8.2509,6.1024,1.8174,11.6793,-0.2818,2.3430,9.6656,7.3908
2273.4375,10.9156,8.9561,-2.6006,-2.5658,2.5766,1.7505,-2.6301,-4.8881,15.8647,4.7835,25.7960,8.0742,6.9228,3.9520,10.7022,3.9090,3.3686,10.8828,9.0628
2277.3438,10.0511,7.6325,-3.7425,-2.0921,1.5379,3.9564,-5.3740,-4.8711,15.5154,3.5899,20.3549,7.3601,6.9780,6.7112,7.7379,6.1852,4.9827,11.2850,10.3732
2281.2500,8.0252,4.8204,-4.3769,-1.3574,1.2089,4.8805,-6.1271,-4.5009,13.2693,3.1401,12.2319,5.8275,5.8778,8.9950,4.8916,6.0297,6.4666,9.8777,10.2017
2285.1562,5.5699,2.3621,-3.7610,-0.5899,1.1553,4.2772,-4.1662,-4.1106,10.2384,4.0880,5.0370,3.5260,3.7497,9.8622,3.5311,4.3615,6.9191,7.0699,8.1406
2289.0625,3.5630,1.5922,-1.5291,0.1944,0.8655,2.7749,-0.5428,-3.4368,7.8706,6.3794,1.5515,0.8345,1.2840,8.9754,3.6222,2.5984,5.8708,4.1824,4.7884
2292.9688,2.4621,2.4288,1.9647,0.9411,0.0686,1.3175,2.6141,-2.1598,6.8371,9.1204,2.1350,-1.6451,-0.6103,6.7253,4.1508,1.5899,3.6327,2.3363,1.3893
2296.8750,2.0536,3.6563,5.7158,1.4269,-1.1313,0.5024,3.6430,-0.5096,6.6344,10.8212,4.8862,-3.2666,-1.3004,4.0048,4.1684,1.2650,1.1666,1.6493,-0.9121
2300.7812,1.7278,4.0738,8.5208,1.3895,-2.3651,0.3223,2.5525,0.6797,6.1884,10.0331,7.3081,-3.5715,-0.7365,1.7666,3.5796,1.1488,-0.4202,1.3229,-1.6918
2304.6875,1.0474,3.5057,9.5513,0.7850,-3.2573,0.4396,0.9415,0.5737,4.8835,6.1596,8.0911,-2.5211,0.6046,0.5863,3.0814,1.1216,-0.4470,0.4358,-1.3671
2308.5938,0.1283,2.8377,8.7275,-0.0951,-3.6524,0.6530,0.6780,-0.9177,3.1004,0.0186,7.6303,-0.6185,2.0414,0.4277,3.3942,1.6244,0.9974,-1.2792,-0.8144
2312.5000,-0.5019,3.0781,6.7058,-0.7857,-3.6746,1.0594,2.3382,-2.9367,1.8037,-6.2614,7.0261,1.2078,3.0114,0.7111,4.4949,3.0732,3.0768,-3.2901,-0.8047
2316.4062,-0.4444,4.2765,4.5207,-0.9631,-3.6086,1.7360,4.6125,-4.2483,1.5797,-10.1198,6.6148,1.9854,3.2017,0.6414,5.5321,5.0484,4.5507,-4.7749,-1.6258
2320.3125,0.1178,5.2613,3.0941,-0.6431,-3.7036,2.2854,5.1807,-4.1382,2.0136,-9.8432,5.4438,1.1958,2.4932,-0.3771,5.5087,6.1303,4.2821,-5.2659,-3.0567
2324.2188,0.4937,4.4971,2.8650,-0.0907,-4.0337,1.8205,2.4609,-2.8889,2.0053,-5.5341,2.2381,-0.8870,0.8784,-2.4591,4.1622,4.7553,1.7215,-4.8681,-4.6006
2328.1250,0.0830,1.4325,3.6864,0.4609,-4.4879,-0.3652,-3.0236,-1.4309,0.7906,0.8599,-2.9687,-3.2565,-1.5170,-5.2382,2.2855,0.5453,-2.8148,-3.9399,-5.7628
2332.0312,-0.9779,-2.7391,4.9828,1.0102,-4.8705,-3.8571,-8.6812,-0.4815,-1.2126,6.5613,-8.0579,-4.6549,-4.3367,-8.1300,1.1719,-4.9846,-8.1986,-2.6235,-6.2289
2335.9375,-1.6964,-5.5803,6.0388,1.7050,-5.0244,-6.7535,-11.3307,0.0593,-2.5031,9.4599,-9.8100,-4.2374,-6.9715,-10.6699,1.5860,-9.0879,-12.8925,-0.7214,-5.9309
2339.8438,-0.8148,-4.9112,6.2701,2.5485,-4.8990,-6.4503,-9.1604,0.9058,-1.5376,9.1841,-6.1016,-2.0434,-8.7300,-12.6937,3.0832,-9.5226,-15.5599,1.9463,-5.0528
2343.7500,2.2729,-0.2816,5.3840,3.1854,-4.5410,-1.2935,-2.8732,2.5391,2.0774,7.0795,2.3253,1.0051,-9.1488,-14.2468,4.2674,-6.1490,-15.6081,5.0514,-3.9885
2347.6562,6.9516,6.6229,3.4204,3.0203,-4.0448,7.9861,4.7135,4.4822,7.1806,5.1359,11.9707,3.5866,-8.2465,-15.3186,3.8574,-1.1567,-13.3986,7.6416,-3.2129
2351.5625,11.6026,12.9292,0.7205,1.6443,-3.5173,18.1999,10.3155,5.4055,11.7506,4.6069,18.6298,4.6761,-6.5294,-15.6471,1.7715,2.3497,-10.0205,8.6048,-3.0601
2355.4688,14.4754,16.2359,-2.1399,-0.7478,-3.0757,25.2749,11.9899,4.0849,14.1594,5.2677,19.9742,4.0682,-4.7286,-14.7928,-0.6352,2.4369,-6.7671,7.4079,-3.5093
2359.3750,14.6272,15.8889,-4.4507,-3.3083,-2.8506,26.5647,9.9917,0.4758,14.0536,5.7995,16.8313,2.4483,-3.4393,-12.4729,-1.4413,-0.4101,-4.6102,4.5462,-4.1497
2363.2812,12.3410,13.1067,-5.5242,-4.9527,-2.9504,22.3738,6.2669,-3.9967,12.2972,4.9909,12.3114,0.9867,-2.8887,-8.9143,0.4435,-3.7919,-3.9242,1.3404,-4.4127
2367.1875,8.8522,10.0057,-4.9071,-4.9775,-3.3810,15.6458,3.0691,-7.2438,10.1807,2.8639,9.5350,0.6777,-2.9550,-4.9338,4.3803,-5.2531,-4.5220,-0.7866,-3.9616
2371.0938,5.6756,8.2700,-2.5825,-3.4514,-3.9746,10.0465,1.6741,-7.8527,8.6074,0.8823,9.6727,1.7753,-3.3741,-1.6289,8.3111,-4.0846,-5.8758,-1.0496,-2.9667
2375.0000,3.9890,8.3290,0.9467,-1.1189,-4.4088,7.7882,1.9529,-5.9605,7.8334,1.0479,11.6331,3.6143,-3.9622,0.1513,10.1107,-1.7289,-7.3480,0.4042,-2.0397
2378.9062,4.3197,9.4398,4.7741,1.0762,-4.3569,8.6685,2.8868,-3.0275,7.7460,4.4738,13.3791,4.9158,-4.7182,0.2039,9.0285,-0.5354,-8.3585,2.7323,-1.8452
2382.8125,6.4803,10.4264,7.8881,2.4696,-3.7117,10.8245,3.4660,-0.7391,8.2004,10.4013,13.6399,4.4335,-5.7834,-1.0232,6.1645,-1.8760,-8.5270,4.8766,-2.6744
2386.7188,9.5998,10.4650,9.5169,2.8314,-2.7453,12.4208,3.2734,0.0794,9.0045,16.3438,12.6502,1.6210,-7.3307,-2.8043,3.6164,-5.0859,-7.8275,5.9310,-4.3163
2390.6250,12.2456,9.4195,9.3433,2.1714,-2.0680,12.8815,2.4262,-0.2645,9.6291,19.3138,11.4947,-3.0279,-9.4542,-4.5929,2.9217,-8.0107,-6.6836,5.2765,-6.3316
2394.5312,12.8001,7.6455,7.4940,0.4754,-2.3541,12.7968,1.1088,-0.9485,9.1202,17.4101,10.8249,-8.1594,-12.0797,-6.2244,3.9575,-8.6791,-5.8500,2.6341,-8.4878
2398.4375,10.1611,5.5555,4.3555,-2.3149,-3.9579,12.8093,-0.7736,-1.4896,6.5640,10.8447,10.1488,-12.1825,-14.8897,-7.7463,5.1265,-6.7737,-6.0179,-1.7919,-10.9541
2402.3438,4.4952,3.3243,0.3910,-6.0208,-6.6345,12.6200,-3.4671,-2.0567,1.8927,1.8608,8.2927,-14.0070,-17.2955,-9.0647,4.6843,-3.7865,-7.3152,-7.1292,-14.0306
2406.2500,-2.5017,0.9184,-3.8983,-9.9148,-9.5485,11.0818,-6.8853,-3.0225,-3.6466,-6.3543,4.5690,-13.4899,-18.5323,-9.7470,2.1770,-1.8106,-9.0595,-11.8795,-17.5931
2410.1562,-8.2358,-1.6443,-7.8732,-12.7482,-11.6000,7.3219,-10.2505,-4.2642,-7.9274,-11.1312,-0.4111,-11.3533,-17.9226,-9.1965,-1.1425,-1.9715,-10.0407,-14.4037,-20.7368
2414.0625,-10.5479,-4.0556,-10.6949,-13.2626,-11.9150,1.8758,-12.2885,-4.9641,-9.1630,-11.4090,-4.9979,-8.6586,-15.2315,-7.0994,-3.2679,-3.7150,-9.2579,-13.7214,-22.0192
2417.9688,-8.9520,-5.7115,-11.4999,-10.9339,-10.2552,-3.2644,-11.9684,-4.2031,-7.0907,-7.9902,-7.6081,-6.1943,-10.9128,-3.8084,-3.0267,-5.4276,-6.6530,-10.1497,-20.2709
2421.8750,-4.8975,-5.9804,-9.8390,-6.4555,-7.1426,-5.8814,-9.2944,-1.8824,-3.2096,-2.9529,-7.7460,-4.1712,-6.0450,-0.3437,-1.0393,-5.7927,-3.2956,-5.2863,-15.4616
2425.7812,-0.7836,-4.6042,-6.1425,-1.5750,-3.6514,-5.1217,-5.5311,0.8667,0.1744,1.4030,-6.1251,-2.3745,-1.9233,2.0382,0.7532,-4.7582,-0.8126,-1.2375,-8.9833
2429.6875,1.6266,-1.9906,-1.8335,1.6986,-0.9742,-2.1499,-2.5933,2.2603,1.4373,3.5569,-3.8747,-0.5837,0.4944,2.4546,0.6661,-3.3872,-0.4059,0.4829,-3.0650
2433.5938,2.2493,0.8179,1.1480,2.0880,0.0424,0.7140,-1.9309,1.0892,0.5804,3.2903,-1.5843,1.1168,0.9695,0.8095,-1.2840,-2.8182,-2.1309,-0.3007,0.3711
2437.5000,2.4027,2.5661,1.2758,-0.3219,-0.7881,1.7166,-3.6385,-2.3285,-1.0231,1.5640,0.9803,2.3985,-0.0224,-2.2090,-3.2605,-3.2693,-4.9457,-2.4828,0.6976
2441.4062,3.4434,2.4397,-1.6793,-4.1549,-2.9290,0.8828,-6.4061,-6.2310,-1.7977,-0.1260,4.2936,3.0495,-1.6438,-5.4909,-2.9908,-3.9205,-7.4710,-4.4397,-1.2023
2445.3125,5.4215,0.6040,-6.3898,-7.4457,-5.3247,-0.2503,-8.3666,-8.5086,-1.0992,-0.5605,8.2011,3.2913,-3.1347,-7.9697,0.3772,-3.7284,-8.8730,-4.9576,-3.5827
2449.2188,6.8749,-1.7489,-10.5854,-8.5686,-6.8087,-0.1224,-8.2831,-8.0126,0.5223,0.6269,11.5899,3.7157,-4.0665,-8.9550,5.4166,-2.4363,-9.2133,-3.7602,-4.8753
2453.1250,5.9847,-2.9925,-12.2447,-6.9268,-6.5850,1.4101,-6.2819,-5.1387,1.9915,2.8719,12.9455,4.8185,-4.3271,-8.2590,9.3085,-0.9020,-9.0697,-1.4362,-4.4456
2457.0312,2.1932,-2.0436,-10.6712,-3.1210,-4.5973,2.9136,-3.6652,-1.3511,2.6189,5.0796,11.3746,6.4717,-3.9760,-6.1893,9.8652,-0.4611,-8.8359,1.0106,-2.6687
2460.9375,-3.0462,0.8532,-6.7966,1.4032,-1.6006,2.6506,-1.9728,1.8714,2.4635,6.2222,7.2810,7.7880,-3.1681,-3.4792,7.1500,-1.8609,-8.3541,2.6140,-0.4345
2464.8438,-7.0739,4.1061,-2.5373,5.0163,1.1560,0.2080,-1.9620,3.8193,1.9451,5.7797,2.1752,7.5741,-2.2113,-1.1318,3.4205,-4.6439,-7.2071,2.6969,1.4599
2468.7500,-7.8431,5.6532,0.3648,6.5832,2.5310,-2.9359,-3.1907,4.5637,1.2153,3.8244,-2.2015,5.1184,-1.6202,-0.1060,1.4025,-7.4711,-5.3762,0.9860,2.6152
2472.6562,-5.3722,4.2548,1.2638,5.8979,2.0838,-4.4713,-4.4267,4.4099,-0.0189,0.8222,-4.7626,0.7617,-1.9843,-0.8788,2.2191,-9.0899,-3.5998,-2.2746,2.9514
2476.5625,-1.6960,0.3573,0.7379,3.7122,0.3116,-3.1430,-4.5326,3.4400,-2.0212,-2.6070,-5.3842,-4.1840,-3.6286,-3.1024,4.5924,-9.1466,-2.9966,-6.2320,2.4786
2480.4688,0.6592,-4.1090,-0.0703,1.3364,-1.6492,0.0795,-3.1858,1.5943,-4.4015,-5.7858,-4.5867,-8.1537,-6.2916,-5.6500,5.9460,-8.2189,-4.1708,-9.5652,1.1936
2484.3750,0.5032,-6.9273,-0.3635,-0.0327,-2.7101,2.5754,-0.9822,-0.8645,-6.0645,-7.9704,-3.0244,-10.2092,-9.1232,-7.1620,4.5346,-7.1304,-6.5451,-11.0068,-0.8266
2488.2812,-1.2933,-6.9981,-0.1844,0.0611,-2.4840,2.0298,1.0493,-3.0905,-5.9550,-8.4439,-1.2349,-10.4868,-11.1133,-6.8468,0.8974,-6.2083,-8.5699,-10.0730,-3.3019
2492.1875,-2.6938,-4.9705,-0.1882,1.0978,-1.4656,-1.7259,2.0989,-4.0097,-4.0364,-6.8453,0.2880,-9.9337,-11.7056,-5.0137,-2.5359,-5.1458,-8.7683,-7.5126,-5.7880
2496.0938,-2.2488,-2.6510,-0.9380,1.9198,-0.5922,-6.4535,1.9329,-3.0888,-1.5947,-3.5920,1.0092,-9.5630,-11.1452,-2.9009,-3.3905,-3.5570,-6.8428,-5.0246,-7.8835
2500.0000,-0.2892,-1.6344,-2.3137,1.4995,-0.4702,-9.0784,0.7999,-0.8356,-0.4418,-0.0166,0.5494,-9.7703,-10.2434,-1.8091,-1.2904,-1.6635,-3.9273,-4.2597,-9.4025
2503.9062,1.3671,-2.1876,-3.5085,-0.3114,-0.8173,-7.9188,-0.9062,1.5121,-1.5347,2.0825,-0.9212,-10.1650,-9.6739,-2.0831,1.7616,-0.4097,-1.7005,-5.7007,-10.3129
2507.8125,0.9123,-3.2257,-3.6174,-2.5483,-0.5547,-3.8833,-2.8816,2.9582,-4.1277,1.3752,-2.5160,-9.9568,-9.3116,-2.6849,2.8971,-0.7954,-1.0014,-8.2288,-10.4689
2511.7188,-1.9884,-3.3731,-2.3692,-3.6340,1.4578,0.2474,-4.8824,3.5818,-6.2419,-2.1292,-3.0348,-8.5480,-8.1586,-1.7613,0.6102,-2.9263,-1.0613,-9.7801,-9.4141
2515.6250,-5.9291,-2.2380,-0.4443,-2.3602,5.5235,1.8675,-6.5622,4.4530,-6.1875,-6.9251,-1.7831,-5.8940,-5.0024,2.0793,-4.0447,-5.6034,-0.0405,-8.7224,-6.5416
2519.5312,-8.8525,-0.8422,0.8650,1.2532,10.6839,0.3503,-7.4545,6.5832,-3.9553,-10.8012,0.8014,-2.4384,0.6077,8.6228,-8.2077,-6.9003,3.4589,-5.0116,-1.6163
2523.4375,-9.5660,-0.8087,0.4224,5.7974,15.1078,-2.7117,-7.2275,9.7409,-1.3121,-12.1416,3.3001,1.2250,7.7646,15.8666,-9.3046,-5.3978,9.0589,-0.2852,4.7044
2527.3438,-8.4598,-2.9205,-2.0763,9.1699,17.0852,-4.8971,-6.0369,12.1966,-0.4349,-10.8683,4.2510,4.6494,14.4674,21.0134,-6.8365,-1.1887,14.5410,3.2055,10.8296
2531.2500,-6.9221,-6.2217,-5.9352,9.7330,15.9880,-4.8121,-4.6239,11.7890,-2.1223,-8.3542,3.2143,7.5964,18.6296,22.0425,-2.5298,4.1084,17.2005,4.0854,14.8706
2535.1562,-6.0434,-8.4633,-9.8463,7.2314,12.5744,-2.9752,-3.9515,7.6074,-5.0256,-6.3596,1.1319,9.9203,19.1880,18.8380,1.1447,8.3555,15.6700,2.7160,15.6401
2539.0625,-5.7582,-7.6609,-12.5205,2.9110,8.4573,-1.1526,-4.5453,0.9769,-6.5778,-5.7768,-0.3421,11.4818,16.5946,13.1413,2.8100,10.1984,10.8659,0.8379,13.3682
2542.9688,-5.1455,-3.6231,-13.1699,-1.2155,5.1192,-0.8059,-6.0110,-5.1347,-4.9539,-6.1193,-0.0486,12.2162,12.4086,7.3964,2.9170,9.7429,5.3546,0.2947,9.6110
2546.8750,-3.5762,1.7311,-11.6435,-3.4760,3.1414,-1.9532,-7.1568,-7.9757,-0.5419,-6.1245,1.8682,12.2769,8.3300,3.3098,2.9258,8.1886,1.6216,1.7823,6.3641
2550.7812,-1.6412,5.5726,-8.2986,-3.3338,2.1262,-3.3176,-6.7349,-6.7978,4.2412,-4.9605,4.1788,12.0579,5.3554,1.0983,3.7900,6.7981,0.5408,4.4974,4.9541
2554.6875,-0.9627,6.0367,-3.8121,-1.4317,1.2816,-3.5493,-4.3279,-3.2282,6.6745,-3.0432,5.6076,11.9884,3.5731,-0.1435,5.1137,6.0360,1.1402,6.8620,5.4358
2558.5938,-2.9369,3.4116,0.9555,1.0470,0.1810,-2.4593,-0.7323,0.0533,5.6846,-1.7667,5.8317,12.2198,2.5950,-1.3564,5.6653,5.4969,1.7324,7.7158,6.8578
2562.5000,-7.3956,-0.2143,5.0967,3.2022,-0.8723,-1.2505,2.4875,1.3041,2.5497,-2.3385,5.6315,12.4636,2.1568,-2.6068,4.6953,4.5635,1.4276,7.0850,8.1264
2566.4062,-12.3262,-2.5406,7.8957,4.8654,-1.1157,-1.5788,3.9998,0.8330,-0.1306,-4.6606,6.1133,12.1530,2.3672,-3.0606,2.7914,3.1570,0.8059,6.0230,8.7944
2570.3125,-15.0040,-2.6642,9.1347,6.4240,0.0048,-4.2109,3.5426,0.4017,-0.3552,-7.2141,7.6986,10.8460,3.4414,-1.8214,1.4420,1.9209,1.2547,5.7326,9.2061
2574.2188,-13.7907,-1.5216,9.2575,8.2326,2.2896,-8.3327,1.9645,1.4566,1.9368,-8.1230,9.7489,8.5799,5.2208,1.0773,1.6694,1.6904,3.5726,6.6745,9.9630
2578.1250,-9.3036,-0.9048,9.1683,10.1011,4.7760,-12.0207,0.4286,3.6766,5.0396,-6.6096,11.1203,5.9146,6.9689,4.3700,2.9790,2.7144,7.0273,8.3009,11.2049
2582.0312,-4.0893,-1.8876,9.6729,11.2723,6.2819,-13.4964,-0.5994,5.0689,6.8946,-3.6809,11.1336,3.6404,7.7044,6.2606,3.6545,4.3028,9.6752,9.5366,12.3248
2585.9375,-1.0070,-3.9183,10.8862,10.9280,6.1314,-12.2370,-1.7453,3.5874,6.5719,-1.4395,10.0923,2.3788,6.8759,5.6586,2.2646,5.2241,9.7325,9.5878,12.3696
2589.8438,-1.4348,-5.2696,12.0506,8.8637,4.5785,-9.1972,-4.1140,-1.0076,4.7261,-1.4830,8.9023,2.3571,4.8680,3.0363,-0.8730,4.5721,6.9493,8.4819,10.8160
2593.7500,-4.4939,-4.4618,11.9790,5.8213,2.6578,-6.0877,-8.0901,-6.5784,2.8429,-3.6107,8.1581,3.4542,2.9110,0.2349,-3.5980,2.4479,2.9232,7.0000,8.1051
2597.6562,-7.7365,-1.5250,9.8848,3.1808,1.5720,-4.3022,-12.5243,-9.8790,2.0319,-5.8712,7.5523,5.3781,2.3841,-0.7025,-3.4351,-0.0558,0.1026,6.1115,5.4866
2601.5625,-8.7476,1.8845,6.0190,2.1467,2.0040,-4.2197,-15.0955,-8.7837,2.3457,-5.9825,6.1856,7.7603,3.9494,1.1191,0.3841,-1.5539,0.2018,6.3286,4.2497
2605.4688,-6.5786,3.6023,1.6162,2.9421,3.7574,-5.2359,-13.7882,-3.8272,3.0319,-3.0877,3.5450,10.1020,7.0943,4.8510,6.0326,-1.2454,3.1571,7.3869,4.8762
2609.3750,-2.1639,2.4617,-1.8703,4.5638,5.9084,-6.3346,-8.5017,2.0947,3.3161,1.4819,0.2732,11.7288,10.4004,8.4700,10.1405,0.6348,7.3094,8.4061,6.7150
2613.2812,2.3873,-0.9214,-3.7190,5.3250,7.3437,-6.7272,-1.5459,5.6452,2.9687,5.0440,-2.0285,11.9602,12.3713,10.1118,10.0820,3.0491,10.5885,8.3981,8.4038
2617.1875,5.0457,-4.6152,-4.3735,3.8934,7.3581,-6.1796,3.5422,5.1881,2.2493,5.4122,-1.9197,10.5074,12.2937,9.2468,5.7989,4.8533,11.8032,6.8284,8.7346
2621.0938,4.8783,-6.6893,-5.0120,0.1792,5.9854,-4.9589,4.2221,1.6483,1.4514,2.4071,0.7058,7.8238,10.5918,6.9110,-0.1939,5.4546,11.1654,3.9434,7.3737
2625.0000,2.3320,-6.3996,-6.5535,-4.5179,3.9090,-3.5676,0.7108,-2.4082,0.5953,-2.0648,4.3802,5.0479,8.4784,4.8804,-4.5805,5.0297,9.8119,0.6996,4.9790
2628.9062,-1.2083,-4.4416,-8.8485,-8.2317,2.0354,-2.4730,-4.0365,-4.6659,-0.4306,-5.3887,7.0225,3.4224,7.1531,4.4050,-5.4258,4.2465,8.8105,-1.6901,2.6977
2632.8125,-4.2164,-2.2191,-10.6850,-9.4760,0.9967,-1.9298,-6.2578,-4.4952,-1.5002,-6.0371,7.3883,3.5023,7.0695,5.3837,-3.1795,3.7490,8.4178,-2.3915,1.4384
2636.7188,-5.7286,-0.7796,-10.6304,-8.0688,0.8700,-1.9098,-3.9742,-2.9798,-2.1318,-4.4752,5.8699,4.7181,7.7250,6.5183,0.0742,3.7512,8.0636,-1.4354,1.4164
2640.6250,-5.6550,-0.2282,-8.0877,-5.0892,1.2670,-2.1387,1.5832,-1.7136,-1.8436,-2.5811,4.0190,5.6847,8.0746,6.2820,2.3275,3.9503,6.9581,0.2560,2.2213
2644.5312,-4.6266,0.0317,-3.7656,-2.0168,1.7160,-2.2527,6.7918,-1.4229,-0.6833,-2.1053,3.1947,5.1182,7.2771,4.0028,2.9055,3.7456,4.7988,1.3884,3.2699
2648.4375,-3.5182,0.5448,0.7892,0.3266,2.0636,-2.0373,8.2017,-1.4675,0.6236,-3.3730,3.4539,2.7343,5.2740,0.3259,2.4178,2.6035,2.0602,1.1049,4.2545
2652.3438,-2.9171,1.2103,4.2330,2.2614,2.5987,-1.6106,5.0550,-0.4922,1.1637,-5.1849,3.5942,-0.5381,2.8256,-3.2083,1.7341,0.3795,-0.2983,-0.4250,5.2549
2656.2500,-2.8374,1.3289,6.2348,4.8092,3.7835,-1.3863,-0.0730,2.3950,0.6173,-5.9144,2.3072,-3.2130,0.9859,-5.1267,1.0742,-2.5374,-1.4618,-2.0716,6.4725
2660.1562,-2.8500,0.2300,7.4540,8.6576,5.7701,-1.7720,-3.0344,6.8572,-0.3653,-4.8923,-0.5232,-4.2980,0.3790,-4.8528,0.0361,-5.3181,-1.2873,-2.4947,7.8460
2664.0625,-2.5421,-2.0439,8.7538,13.3373,8.0791,-2.7837,-1.0615,11.4958,-0.6123,-2.9831,-3.4708,-3.9380,0.7864,-2.8824,-1.5938,-7.0003,-0.3898,-1.0979,8.9014
2667.9688,-1.9709,-4.5546,10.3318,17.2844,9.7496,-3.8886,5.1961,14.7199,0.5888,-1.9104,-4.4933,-3.1495,1.3579,-0.2744,-3.1794,-6.8958,0.2683,1.4972,9.0052
2671.8750,-1.7291,-5.9691,11.4982,18.8175,9.9431,-4.2760,12.0280,15.6270,2.7874,-2.8558,-2.4347,-2.8475,1.3249,2.1133,-3.5056,-4.9115,0.0377,3.8456,7.8705
2675.7812,-2.5004,-5.4251,11.2814,17.3432,8.6082,-3.4382,15.1722,14.3181,4.5972,-5.4123,2.0544,-2.9502,0.7097,4.0848,-1.8543,-1.6102,-0.9044,4.6996,5.9347
2679.6875,-4.3958,-3.1723,9.3367,13.8791,6.6819,-1.6595,12.6783,11.5801,4.7462,-7.7139,6.8683,-2.3219,0.4659,5.9810,1.0878,2.0412,-1.5392,3.9079,4.2657
2683.5938,-6.6183,-0.5444,6.3599,10.4408,5.5718,-0.0070,6.0865,8.3134,3.1159,-7.6977,9.7729,0.3201,1.8446,8.1293,3.4342,5.1017,-0.5769,2.4920,3.9596
2687.5000,-7.8385,0.7560,3.6058,8.6734,6.1851,0.2530,-0.8578,5.1384,0.8890,-4.6281,9.7079,5.1869,5.3522,10.3287,3.4380,7.0171,2.6495,1.8041,5.3694
2691.4062,-7.1349,-0.3613,1.8688,8.7003,8.1695,-1.5391,-4.9217,2.3396,-0.3717,0.1932,7.1789,10.8473,10.0397,11.7886,0.9471,7.7157,7.5075,2.3952,7.6913
2695.3125,-4.8425,-3.7219,0.7700,9.0475,9.9766,-4.9616,-5.4957,-0.0021,0.0120,4.0555,3.6272,14.8443,13.7423,11.5910,-2.2718,7.4426,12.1199,3.4891,9.2684
2699.2188,-2.5999,-7.9648,-0.9991,7.7365,9.8140,-8.7189,-4.5947,-1.9071,1.2623,4.4279,0.4208,15.1661,14.2738,9.3603,-3.7429,6.5199,14.2838,3.5193,8.5210
2703.1250,-2.4050,-11.3262,-4.5931,3.7741,6.8959,-11.4114,-4.8990,-3.4871,1.7563,0.4968,-1.7513,11.5792,10.8735,5.6595,-2.1758,5.2407,12.8038,1.3582,4.9610
2707.0312,-5.2470,-12.6727,-9.9175,-2.0470,2.1047,-12.3550,-7.4666,-4.9212,0.3283,-6.3147,-2.8029,5.8711,4.9087,1.8067,1.4325,3.9326,8.3989,-2.7095,-0.3867
2710.9375,-10.2830,-12.1625,-15.4298,-7.6341,-2.4679,-11.9117,-10.9268,-6.3244,-2.8053,-13.1409,-2.8515,0.7903,-0.7555,-0.8071,4.4073,3.0292,3.4793,-7.0584,-5.4984
2714.8438,-15.2214,-11.1168,-19.0818,-11.0232,-4.8483,-11.1442,-12.7308,-7.5767,-6.2548,-17.2543,-2.0407,-1.6239,-3.4332,-1.4787,4.3151,2.9492,0.7733,-9.8340,-8.5398
2718.7500,-17.7291,-11.1544,-19.7462,-11.7061,-4.4708,-11.0710,-11.3792,-8.3035,-8.6028,-17.4563,-0.7527,-1.2120,-2.2852,-0.5492,0.7539,3.7729,1.6015,-10.2788,-8.9726
2722.6562,-16.9199,-13.1169,-18.0470,-10.8872,-2.5025,-12.0340,-7.7797,-8.1137,-9.5090,-14.4888,0.1424,0.3849,1.1497,0.8681,-4.3432,4.9603,4.9509,-9.2537,-7.8262
2726.5625,-13.8892,-16.4810,-15.9262,-10.4945,-0.9547,-13.5647,-4.6097,-6.9608,-9.8441,-10.3432,-0.5196,0.9375,3.9661,1.6095,-8.1135,5.4291,8.0584,-8.5471,-6.9201
2730.4688,-10.9309,-19.6691,-15.2334,-11.6922,-1.2148,-14.7600,-4.1886,-5.3294,-10.7720,-7.0183,-3.4980,-0.8909,3.7981,1.1655,-8.8089,4.0899,8.2011,-9.4958,-7.5475
2734.3750,-10.0083,-21.0876,-16.3799,-14.0005,-3.0771,-14.8627,-6.5815,-4.0343,-12.6044,-5.5448,-8.4533,-4.7771,0.3383,-0.0754,-6.9615,0.5582,4.5139,-11.9769,-9.5413
2738.2812,-11.5520,-20.2051,-18.0671,-15.6586,-4.9798,-13.6656,-9.4957,-3.7204,-14.4470,-5.8019,-13.9132,-9.1094,-4.5622,-1.1765,-4.8624,-4.4557,-1.4225,-14.5289,-11.3981
2742.1875,-14.3628,-17.9083,-18.2824,-14.9312,-5.2511,-11.5421,-10.0956,-4.4114,-14.9574,-7.0525,-18.0704,-12.1263,-8.2478,-1.3373,-4.8194,-9.4172,-6.6417,-15.4754,-11.3875
2746.0938,-16.5601,-15.8433,-15.8003,-11.3698,-3.4016,-9.1640,-7.3073,-5.4473,-13.5505,-8.6461,-19.8594,-12.9853,-9.0828,-0.4450,-7.5023,-12.7803,-8.7525,-14.1520,-8.8490
2750.0000,-16.7986,-15.1664,-11.0555,-6.1029,-0.4679,-7.1259,-2.7519,-5.8628,-10.9739,-10.3117,-19.4531,-12.0773,-7.4513,0.8678,-11.5162,-13.8151,-7.4119,-11.2921,-4.7163
2753.9062,-14.9000,-15.5970,-5.7629,-0.9865,1.8410,-5.6866,0.4936,-4.9359,-8.7091,-11.8853,-17.7697,-10.5025,-5.2674,1.6704,-14.3756,-12.8918,-4.3086,-8.3251,-0.8708
2757.8125,-11.6090,-15.5115,-1.6342,2.6935,2.5049,-4.7263,0.3727,-2.5384,-7.6876,-12.8402,-15.4436,-9.2093,-4.4323,1.3622,-14.0877,-11.0616,-1.7671,-6.2125,1.2025
2761.7188,-7.8795,-13.1069,0.7824,4.9716,1.9679,-3.9038,-2.3936,0.8793,-7.4518,-12.1945,-12.2318,-8.4503,-5.4257,0.0520,-10.2737,-9.2918,-1.0891,-4.7888,1.4425
2765.6250,-4.3602,-7.8723,2.2526,6.8676,1.6987,-2.9192,-4.7200,4.5436,-6.5586,-9.0764,-7.4820,-7.8792,-7.0706,-1.5426,-4.2470,-7.9386,-1.8652,-3.1238,1.1391
2769.5312,-1.4273,-1.3204,3.9367,9.2851,2.8862,-1.7552,-3.5131,7.6061,-3.9680,-3.6332,-1.3126,-7.0892,-7.5833,-2.5642,1.7703,-6.7960,-2.6646,-0.5675,1.8138
2773.4375,0.4627,3.6262,6.1880,12.0512,5.3319,-0.7575,1.8022,9.2749,-0.2602,2.4507,4.6213,-6.0830,-6.0377,-2.5010,5.6747,-5.5639,-2.4074,2.4308,3.9262
2777.3438,0.6226,4.2897,8.0692,13.8839,7.4798,-0.4698,8.5572,8.9417,2.4275,6.4284,7.7168,-5.2794,-3.0840,-1.3656,6.2282,-4.2460,-1.2364,4.4513,6.4377
2781.2500,-1.5157,-0.0920,7.9974,13.3407,7.6261,-1.2660,12.5614,6.4578,1.8525,5.9016,6.2063,-5.0713,-0.3723,0.4969,3.3665,-3.1119,-0.1945,4.1311,7.6086
2785.1562,-5.7755,-7.7513,5.0330,10.0393,5.3856,-2.9827,11.0682,2.4868,-2.5371,0.3681,0.8175,-5.3291,0.8353,2.7521,-1.8337,-2.3039,-0.0633,1.3062,6.4402
2789.0625,-10.8992,-15.2294,-0.1846,5.2067,2.2261,-4.8256,4.8138,-1.4086,-8.8741,-8.1438,-5.1810,-5.2938,0.7435,5.2671,-7.4553,-1.5368,-0.4411,-2.6322,3.6313
2792.9688,-14.9114,-19.1499,-5.5884,1.0966,0.5556,-5.7034,-2.3819,-3.2849,-13.8611,-15.9148,-7.9286,-4.0033,0.9124,8.0079,-11.3358,-0.2707,0.0683,-5.4812,1.2529
2796.8750,-16.0649,-17.8690,-8.8515,-0.3697,1.9640,-4.8632,-6.1871,-1.8733,-14.8314,-19.4660,-5.6846,-0.9779,3.0118,10.7699,-11.9175,1.7201,2.6393,-5.5652,1.3108
2800.7812,-13.7904,-12.1056,-8.7647,1.1757,5.9215,-2.4383,-4.6615,2.4244,-11.4187,-17.4425,-0.2647,3.3282,7.3913,13.0266,-9.0421,3.8985,6.9819,-2.7466,4.2375
2804.6875,-9.0455,-4.3426,-5.9033,4.2866,9.9518,0.4981,0.5556,7.3886,-5.6710,-11.3011,4.0743,7.6597,12.5821,14.0852,-4.1902,5.1465,11.1687,1.5479,8.4456
2808.5938,-3.8645,2.5035,-2.1923,6.5648,11.2337,2.4925,5.5457,10.0338,-0.6064,-4.4065,3.6863,10.6227,16.1533,13.4788,0.1556,4.5824,12.8053,5.2275,11.3127
2812.5000,-0.4148,6.3558,0.2681,6.0776,8.5180,2.5792,6.8926,8.3719,1.6834,-0.1454,-1.6642,11.4534,16.3254,11.3093,1.8077,2.4119,10.7331,6.7069,10.9121
2816.4062,-0.0903,6.6235,0.3364,2.4403,3.0034,0.8959,3.9538,2.7674,1.0588,-0.2279,-8.4211,10.3925,13.1787,8.2636,0.0929,0.0557,5.9792,5.6092,7.2625
2820.3125,-3.0262,4.1065,-1.7140,-3.0435,-2.4420,-1.3821,-0.9007,-4.1065,-1.0661,-4.1056,-11.7064,8.4351,8.5908,5.2649,-3.7962,-0.7117,1.1984,2.6949,2.2360
2824.2188,-8.1119,0.4093,-4.5360,-8.1697,-5.1430,-2.7685,-4.0967,-8.8086,-3.0142,-9.6352,-8.8997,6.6501,4.9702,2.9928,-7.5788,0.9226,-1.0256,-0.7507,-1.7494
2828.1250,-13.3824,-2.7960,-6.4999,-10.9952,-4.2526,-2.3815,-3.3243,-9.2061,-3.9465,-14.3607,-1.6511,5.5389,3.7029,1.6016,-9.2957,4.0325,0.1832,-3.5826,-3.2732
2832.0312,-16.6679,-4.3956,-6.4487,-10.7000,-1.0794,-0.4456,1.0501,-5.6993,-4.0458,-16.5879,5.2456,4.8488,4.3887,0.8023,-8.4300,6.3920,3.5458,-5.1625,-2.6163
2835.9375,-16.4119,-4.1926,-4.1102,-7.7627,1.9960,1.9252,6.4692,-0.7690,-3.9028,-15.8040,7.3336,3.9146,5.3218,0.1935,-6.0482,5.9228,6.5967,-5.3995,-1.2370
2839.8438,-12.4588,-2.8921,-0.1095,-3.5094,3.1394,3.4734,10.0467,2.7979,-3.8302,-12.5434,3.7255,2.2295,4.7786,-0.4470,-3.9721,2.1413,7.2953,-4.6339,-0.5419
2843.7500,-6.4176,-1.6811,4.3278,0.6039,2.0738,3.5475,10.4293,3.7241,-3.7242,-8.0565,-2.3610,-0.1893,2.1571,-1.1276,-3.6186,-3.4574,5.1492,-3.4974,-0.9145
2847.6562,-1.1923,-1.5452,7.8699,3.5837,-0.0939,2.3812,8.4464,2.8327,-3.4695,-3.9778,-6.1701,-2.8914,-1.7771,-1.8291,-5.2672,-8.3811,1.2064,-2.7356,-1.6591
2851.5625,0.3595,-2.6734,9.6287,5.1503,-1.8966,0.7976,6.2794,2.0938,-3.3472,-1.9105,-5.0987,-5.4225,-5.5802,-2.6764,-8.1033,-10.7785,-2.8578,-2.9343,-1.7608
2855.4688,-2.9457,-4.3420,9.5482,5.6407,-2.5138,-0.3795,5.8725,2.9460,-3.9421,-2.8099,-0.6670,-7.7203,-8.1442,-3.8794,-10.8256,-10.5500,-5.7736,-4.2138,-0.7767
2859.3750,-9.7031,-5.4231,8.3806,5.6863,-2.0722,-0.7892,7.6805,5.1974,-5.5774,-6.3522,2.7478,-10.1374,-9.2944,-5.4592,-12.3290,-9.1671,-7.1509,-6.1003,0.8190
2863.2812,-16.4685,-5.2255,7.1608,5.8256,-1.2124,-0.6230,10.4775,7.2823,-7.8193,-10.7793,1.4179,-13.0565,-9.6383,-7.0139,-12.0979,-8.4218,-7.2864,-7.7532,2.0075
2867.1875,-19.6375,-4.0726,6.4235,6.2057,-0.4531,-0.3873,12.1933,7.5696,-9.5856,-13.6119,-4.7213,-16.3974,-9.9161,-7.7994,-10.2649,-9.1014,-6.6927,-8.4870,1.9262
2871.0938,-17.5636,-3.1484,5.6903,6.4996,0.0816,-0.5681,11.1493,5.6337,-9.8751,-13.0402,-11.8981,-19.4185,-10.4090,-7.1606,-7.4725,-10.5611,-5.7879,-8.2567,0.3444
2875.0000,-11.5343,-3.6586,3.6850,6.0917,0.4511,-1.4022,6.9530,2.5056,-8.5490,-9.1542,-15.3086,-21.0097,-10.8132,-5.0372,-4.6412,-11.4056,-4.8586,-7.7338,-2.3509
2878.9062,-4.9199,-5.8994,-0.7326,4.4631,0.5530,-2.8140,0.6324,-0.2116,-6.4985,-4.0649,-12.7257,-20.3122,-10.5730,-2.1465,-2.6378,-10.6353,-4.0999,-7.8699,-5.4936
2882.8125,-1.0478,-8.9512,-7.5024,1.5723,0.0780,-4.4691,-5.9375,-1.5809,-5.0174,-0.6418,-6.1345,-17.2535,-9.3373,0.3545,-1.8704,-8.3280,-3.5349,-9.2362,-8.4468
2886.7188,-1.2467,-11.2680,-14.9749,-2.0118,-1.1569,-5.8950,-10.9248,-1.9194,-4.8610,-0.6161,-0.1639,-12.6437,-7.1977,1.5382,-2.0115,-5.4033,-2.8798,-11.6195,-10.6883
2890.6250,-4.3552,-11.7435,-20.6121,-5.3474,-2.8425,-6.6584,-13.2837,-2.3282,-5.7481,-3.3912,1.4267,-7.7850,-4.6055,1.2469,-2.1335,-2.7990,-1.6100,-14.1774,-11.7806
2894.5312,-7.8966,-10.4383,-22.4143,-7.6144,-4.2153,-6.5765,-13.0359,-3.6380,-6.6946,-6.4921,-1.5277,-3.8647,-2.1251,0.1163,-1.3371,-0.8185,0.6459,-16.0284,-11.4472
2898.4375,-9.9172,-8.4093,-20.1212,-8.5579,-4.5772,-5.8612,-11.0372,-5.6831,-6.8803,-7.3946,-5.7242,-1.5058,-0.2341,-0.9278,0.4716,0.8332,3.6207,-16.8151,-9.8009
2902.3438,-10.0876,-6.7981,-15.3342,-8.5775,-3.8986,-5.0565,-8.4280,-7.4810,-6.3126,-5.3982,-7.1765,-0.6790,0.7507,-1.3165,2.2663,2.4715,6.2889,-16.8142,-7.5040
2906.2500,-9.3682,-5.9450,-10.4589,-8.3905,-2.9470,-4.7268,-6.0983,-8.1040,-5.7408,-2.1135,-4.4037,-0.9099,0.6988,-1.1438,2.4482,3.9233,7.3772,-16.5389,-5.5811
2910.1562,-8.7339,-5.2724,-7.2327,-8.5007,-2.7319,-5.0584,-4.4559,-7.4604,-5.9200,-0.1680,0.4876,-1.5576,-0.2676,-0.9212,0.0201,4.5922,6.2515,-16.1977,-4.8726
2914.0625,-8.1703,-4.0353,-5.8938,-8.8630,-3.6462,-5.6689,-3.5695,-6.3261,-6.8712,-1.1219,3.6217,-2.0007,-1.7009,-1.0152,-4.4424,4.0346,3.5243,-15.4808,-5.4805
2917.9688,-6.8202,-2.2726,-5.5275,-9.0010,-5.0091,-5.8250,-3.4910,-5.6375,-7.7831,-4.2289,2.5691,-1.7448,-2.8948,-1.2486,-8.8469,2.4888,0.8293,-13.8673,-6.6757
2921.8750,-4.0877,-1.0793,-5.1973,-8.5013,-5.4638,-4.9669,-4.4320,-5.6946,-7.6472,-7.0273,-1.6268,-0.5573,-3.1880,-1.0130,-10.7982,0.8276,-0.1910,-11.2047,-7.4367
2925.7812,-0.6293,-1.8569,-4.8686,-7.5056,-4.0191,-3.1622,-6.5879,-5.9765,-6.1012,-7.2970,-5.2219,1.3454,-2.3954,0.1797,-9.1934,-0.0794,0.9982,-8.0695,-7.2762
2929.6875,1.7686,-5.0788,-5.3590,-6.7970,-0.9667,-1.1156,-9.7232,-5.7200,-3.7828,-4.8194,-4.7263,3.2110,-1.0798,2.1472,-5.0311,-0.0639,3.4212,-5.5769,-6.7201
2933.5938,1.4562,-9.5928,-7.3956,-7.3535,2.0726,0.3103,-12.8986,-4.7356,-1.9026,-1.5287,0.2874,3.9710,-0.3977,3.9439,-0.7810,0.1947,5.2194,-4.7313,-7.0025
2937.5000,-1.6734,-13.1365,-10.6353,-9.6414,3.0988,0.7036,-14.6977,-3.7199,-1.3808,0.0634,6.7267,2.7978,-1.5124,4.3388,1.2814,-0.2733,4.8589,-5.7682,-9.1306
2941.4062,-5.8511,-13.7955,-13.5461,-13.1373,1.0491,0.3440,-13.9544,-3.7548,-2.2247,-1.1095,10.2365,-0.2786,-4.8843,2.5434,0.5694,-1.9124,2.0488,-7.9493,-12.9888
2945.3125,-8.5476,-11.3397,-14.3261,-16.4424,-3.4480,-0.1326,-10.5394,-5.3834,-3.5953,-3.8349,8.4422,-4.1442,-9.8825,-1.3174,-1.5752,-4.2351,-2.2362,-9.9413,-17.1703
2949.2188,-8.2238,-7.3940,-12.1506,-17.9617,-8.4219,-0.3596,-5.6061,-8.0285,-4.4458,-5.6381,2.7166,-7.0451,-14.9905,-6.2914,-3.0208,-6.1445,-6.5240,-10.5087,-19.7110
2953.1250,-5.3477,-4.2642,-7.7450,-16.7366,-11.7570,-0.5873,-1.0097,-10.2595,-4.1896,-4.8010,-2.8271,-7.5382,-18.5101,-11.1280,-2.4415,-6.7039,-9.7296,-9.0710,-19.2398
2957.0312,-1.8890,-3.2777,-2.8298,-12.9246,-12.3971,-1.3909,1.7856,-10.7255,-2.9071,-1.7291,-4.3063,-5.3770,-19.3581,-14.8404,-0.1534,-5.7322,-11.4984,-5.8338,-15.7615
2960.9375,0.2666,-3.8996,1.0834,-7.6597,-10.7589,-2.9497,2.5613,-9.0493,-1.0453,1.4266,-0.7707,-1.7245,-17.5081,-16.9362,2.3570,-3.8011,-11.9028,-1.5291,-10.5751
2964.8438,0.6689,-4.2970,3.5495,-2.4375,-8.1750,-4.5477,2.3180,-6.0217,1.0157,2.5302,5.3026,1.4950,-13.8712,-17.2769,3.6987,-1.7439,-10.9580,2.9638,-5.4609
2968.7500,0.3333,-2.9099,5.0436,1.5600,-5.8792,-4.8595,2.3535,-3.0074,3.1118,1.1156,9.9362,2.7061,-9.7538,-15.8315,3.5456,-0.1593,-8.5132,6.8611,-1.7486
