Time,Fp1,F3,C3,P3,O1,F7,T3,T5,Fz,Fp2,F4,C4,P4,O2,F8,T4,T6,Cz,Pz
0.0000,1.7756,5.2816,9.7825,8.1653,1.7939,-0.2656,-1.3126,5.9071,8.6132,0.2878,8.5156,8.9157,8.3422,2.8480,-2.2495,6.1384,4.3451,10.3408,8.3359
3.9062,3.7629,5.1207,8.7903,7.0543,0.8230,0.1860,0.2940,4.0579,9.0109,0.4753,5.5803,10.3637,8.6521,4.9678,-1.3555,6.2167,5.3670,12.0604,9.0319
7.8125,6.3755,5.7674,7.0592,4.8656,-1.0110,1.5862,3.3834,1.5910,9.0412,2.4249,0.4773,11.0345,8.3092,6.1072,2.1229,4.6161,6.0443,13.2700,8.7293
11.7188,8.9686,7.1312,5.4246,2.3848,-3.1715,4.0131,7.0626,-0.5623,8.9122,5.6263,-4.6123,10.3773,7.2996,5.5567,7.6425,2.1228,5.8964,13.5430,7.5593
15.6250,10.9722,8.6502,4.8264,0.7170,-4.9001,7.0499,10.0405,-1.7027,9.0847,8.8552,-6.9779,8.6809,6.0674,3.5971,13.8588,0.0035,4.9708,12.9930,6.2741
19.5312,12.1588,9.5963,5.6612,0.6528,-5.5696,9.9493,11.3647,-1.7089,9.8981,11.0171,-5.1091,6.9380,5.2643,1.3971,19.3579,-0.8070,3.8588,12.1287,5.8046
23.4375,12.6250,9.4897,7.4609,2.2120,-4.9694,11.9835,10.9068,-0.9401,11.2153,11.8077,0.2141,6.1905,5.3208,0.2983,23.1277,-0.1636,3.2882,11.4701,6.6699
27.3438,12.5528,8.3666,9.1708,4.6767,-3.3704,12.7503,9.2842,0.1689,12.4030,11.6975,6.3115,6.8271,6.1567,0.9802,24.5554,1.4454,3.5886,11.2419,8.6461
31.2500,11.9983,6.7514,9.8605,7.0817,-1.3414,12.2625,7.3523,1.4585,12.7235,11.3269,10.2681,8.3496,7.2561,3.0976,23.2523,3.4064,4.4480,11.3633,10.9233
35.1562,10.9181,5.3764,9.3606,8.8135,0.5788,10.8332,5.7101,3.0602,11.8755,10.8858,10.7257,9.7651,8.0554,5.6314,19.1477,5.3427,5.1612,11.6775,12.6379
39.0625,9.4005,4.8199,8.3502,9.9043,2.1728,8.9041,4.5926,5.1091,10.2597,10.0270,8.5380,10.2853,8.3477,7.6648,12.9154,7.0641,5.1900,12.1566,13.4060
42.9688,7.8590,5.2511,7.8187,10.8443,3.6370,6.9551,4.1331,7.4510,8.7289,8.3694,5.8660,9.8035,8.3912,8.9967,6.2806,8.2820,4.6010,12.8668,13.4951
46.8750,6.9451,6.3809,8.2999,12.0887,5.4159,5.4947,4.6300,9.6301,7.9778,6.1075,4.4569,8.8263,8.6472,10.1511,1.6380,8.5070,4.0337,13.7286,13.5396
50.7812,7.1782,7.6068,9.4494,13.6386,7.8552,5.0084,6.4462,11.1746,8.0365,4.1308,4.4399,7.9842,9.3650,11.8184,0.9087,7.3442,4.2140,14.3396,14.0234
54.6875,8.5579,8.2714,10.2789,14.9886,10.8575,5.7757,9.5427,11.9120,8.2760,3.4735,4.5252,7.5520,10.3453,14.1824,4.2952,4.9550,5.3779,14.1037,14.9010
58.5938,10.4864,7.9278,9.8601,15.4467,13.7451,7.6209,13.0619,12.0082,7.9374,4.5063,3.3551,7.3503,11.0582,16.6420,9.9053,2.2057,7.0380,12.6429,15.6021
62.5000,12.1053,6.5164,7.9610,14.5644,15.4529,9.8119,15.4561,11.6768,6.7738,6.5442,0.8473,7.0387,11.0001,18.1099,14.7222,0.2313,8.2621,10.1825,15.3929
66.4062,12.8235,4.3873,5.1545,12.3776,15.0067,11.2909,15.2679,10.8325,5.2830,8.2368,-1.5994,6.4822,10.0013,17.6462,16.4088,-0.3266,8.2589,7.5537,13.8367
70.3125,12.6451,2.1568,2.3634,9.3386,12.0728,11.1984,12.1108,9.0571,4.3308,8.4889,-2.2105,5.8526,8.2604,14.9847,14.7177,0.2098,6.8594,5.7378,11.0706
74.2188,12.0578,0.4519,0.2424,6.0591,7.2834,9.3993,7.1205,5.9985,4.4588,7.2168,-0.3387,5.4054,6.1396,10.6553,11.4659,0.8354,4.5948,5.2488,7.7620
78.1250,11.5872,-0.3385,-1.1196,3.0832,2.1130,6.6405,2.4423,1.9192,5.4380,5.3683,2.8894,5.1853,3.9414,5.7239,9.0610,0.7402,2.3729,5.8137,4.8133
82.0312,11.3842,-0.1937,-1.9998,0.8082,-1.7014,4.1736,-0.0039,-2.1030,6.4356,4.1955,5.3391,4.9679,1.8672,1.3881,8.6655,0.0840,1.0129,6.6015,2.9886
85.9375,11.1661,0.5767,-2.6064,-0.5024,-2.9445,3.0316,0.3264,-4.6155,6.6556,4.3412,5.4472,4.4977,0.1408,-1.3545,9.3843,-0.0287,0.9193,6.8233,2.6277
89.8438,10.5288,1.4880,-2.8533,-0.7475,-1.5131,3.4060,2.3332,-4.6735,5.9192,5.4143,3.3398,3.7761,-0.9095,-1.9184,9.0915,1.5430,2.0108,6.2359,3.5297
93.7500,9.3366,2.0518,-2.5608,-0.1020,1.5241,4.5320,4.0825,-2.5573,4.6989,6.3306,0.5943,3.0851,-0.9896,-0.2861,6.2498,4.8587,3.8307,5.1707,5.0231
97.6562,7.8528,1.8912,-1.8736,0.9020,4.4564,5.1681,4.1298,0.2493,3.5913,6.1151,-1.1394,2.6786,-0.1464,2.8872,1.3003,8.4919,5.7127,4.1088,6.2021
101.5625,6.5197,0.8095,-1.4385,1.4991,5.7825,4.3724,2.4353,1.8991,2.7090,4.5612,-1.4994,2.4223,1.0332,6.3454,-3.4690,10.2725,6.9533,3.2079,6.2767
105.4688,5.6173,-1.1367,-2.0628,1.0549,4.9241,2.0957,0.2650,1.3203,1.5643,2.3184,-1.6148,1.7656,1.5989,8.6147,-5.4948,8.7176,7.0180,2.2117,4.9193
109.3750,5.1254,-3.5525,-4.0454,-0.5224,2.4218,-0.7601,-0.7918,-1.1249,-0.3993,0.4426,-2.9758,0.1698,0.7726,8.6395,-3.7611,4.1205,5.7753,0.8234,2.4445
113.2812,4.9080,-5.6986,-6.7325,-2.6348,-0.4595,-2.8285,0.0554,-3.9226,-3.0596,-0.2025,-5.9227,-2.3111,-1.4961,6.3551,0.4924,-1.5208,3.6422,-0.8073,-0.3069
117.1875,5.0090,-6.6859,-8.7525,-4.2838,-2.4395,-3.0091,2.3190,-5.4356,-5.3453,0.6976,-9.0528,-4.8092,-4.3836,2.8051,4.6750,-5.7061,1.4822,-1.9664,-2.3614
121.0938,5.7121,-5.8877,-8.8710,-4.6577,-2.8128,-1.0386,4.6641,-4.9540,-5.8004,2.8987,-10.1206,-6.0621,-6.6175,-0.3484,6.6420,-6.9062,0.2203,-1.8117,-3.0809
125.0000,7.2204,-3.3847,-6.8734,-3.6242,-1.6048,2.3728,5.8594,-3.0462,-3.6633,5.7723,-7.7852,-5.2407,-7.2108,-1.6655,6.0397,-5.2875,0.3637,-0.0539,-2.4244
128.9062,9.1998,-0.1254,-3.7849,-1.7661,0.7027,5.8672,5.5467,-1.0154,0.3549,8.4712,-2.8310,-2.5785,-5.9937,-0.5996,4.2696,-2.2759,1.7478,2.6791,-0.8404
132.8125,10.6468,2.4189,-1.2030,0.0767,3.5963,8.0488,4.3486,0.0927,4.2669,10.0706,2.1409,0.7047,-3.5841,2.4056,3.2258,0.5802,3.7111,5.1483,1.1191
136.7188,10.3580,3.0167,-0.2038,1.4197,6.7708,8.1052,3.3503,0.1875,5.9605,9.8081,4.3827,3.1637,-0.8671,6.3735,3.8445,2.5413,5.5853,6.2926,3.1602
140.6250,7.7919,1.4288,-0.6421,2.4239,10.0430,6.1850,3.3945,0.0593,4.5448,7.4711,2.8156,4.0157,1.5692,10.3923,5.5435,3.7887,7.1249,5.9059,5.3002
144.5312,3.7129,-1.3564,-1.3893,3.6257,13.0887,3.3630,4.6504,0.6516,0.9359,3.7426,-1.3267,3.4940,3.5970,13.8931,6.8550,4.8323,8.5236,4.6669,7.5732
148.4375,0.0531,-3.6373,-1.3332,5.3093,15.2972,1.1743,6.6217,2.2648,-2.7468,0.1710,-5.4346,2.4362,5.2344,16.4851,6.6484,5.8629,9.9953,3.4993,9.6482
152.3438,-1.0543,-3.9945,-0.3524,7.0295,15.9393,0.8838,8.4530,4.2834,-4.5495,-1.4108,-7.2762,1.4886,6.2037,17.6488,4.9724,6.6205,11.2792,2.7848,10.7255
156.2500,1.5028,-2.1439,0.5192,7.7124,14.5777,2.8284,9.2926,5.5922,-3.8539,0.2037,-6.2760,0.6010,5.8310,16.7187,2.9587,6.7915,11.5366,2.0804,9.8824
160.1562,7.1557,0.9264,-0.1011,6.3312,11.4265,6.2057,8.5853,5.3351,-1.5612,4.8985,-3.5051,-0.7816,3.4584,13.3040,1.9890,6.4471,9.8238,0.5816,6.6845
164.0625,14.0150,3.6373,-2.7732,2.7051,7.3727,9.4926,6.2969,3.4620,0.7453,11.2435,-0.6064,-3.0284,-0.9288,7.8361,2.8257,6.0334,5.8430,-2.0462,1.6311
167.9688,20.0029,4.8609,-6.6120,-2.1693,3.6017,11.3185,3.0592,0.7176,1.9679,17.2533,1.3774,-5.7590,-6.3895,1.7186,5.2999,5.9063,0.3990,-5.1679,-3.9244
171.8750,23.9712,4.6101,-9.7265,-6.5366,1.0519,11.2885,0.1062,-1.8437,2.1286,21.4189,2.4058,-7.9236,-11.3521,-3.1932,8.6241,5.8830,-4.8437,-7.4595,-8.3847
175.7812,26.0583,3.9145,-10.4298,-8.8188,0.0386,10.2140,-1.1445,-3.4323,2.0879,23.3429,2.9638,-8.4986,-14.4048,-5.5227,11.9343,5.3119,-8.2036,-7.7974,-10.6843
179.6875,27.1274,3.9966,-8.3511,-8.4712,0.2591,9.5458,0.1847,-3.8213,2.6848,23.6014,3.3264,-7.2427,-15.0100,-5.0761,14.6173,3.6801,-8.8659,-6.0866,-10.7512
183.5938,27.8029,5.3487,-4.6669,-6.2251,1.1135,10.3399,3.7657,-3.2748,4.0232,23.0264,3.2809,-4.9059,-13.6564,-2.8106,16.2958,1.2344,-7.2129,-3.3974,-9.4014
187.5000,27.8836,7.3598,-1.3314,-3.6015,2.0804,12.4493,7.9587,-2.2830,5.4287,22.0017,2.4821,-2.7369,-11.4003,-0.1003,16.6839,-0.9999,-4.4197,-1.3059,-7.7970
191.4062,26.5682,8.7298,0.0959,-2.0505,2.8976,14.5287,10.5145,-1.3400,6.0151,20.2987,0.9889,-1.6965,-9.1976,2.1297,15.5804,-1.9272,-1.6666,-0.9371,-6.8531
195.3125,23.2696,8.3491,-0.7939,-2.2601,3.4964,14.9000,9.8001,-0.8537,5.3459,17.5169,-0.6162,-1.9911,-7.5284,3.7603,13.0462,-1.2789,0.4413,-2.3926,-6.9287
199.2188,18.3402,6.0236,-3.3361,-3.9897,3.8416,12.7081,5.8137,-1.1100,3.6745,13.7089,-1.6753,-3.2171,-6.5012,5.1290,9.5568,0.0824,1.8982,-4.9015,-7.8729
203.1250,13.1099,2.5783,-6.4622,-6.3978,3.8691,8.5636,0.2874,-2.1828,1.6579,9.6459,-2.0386,-4.8713,-6.1877,6.3743,5.9081,0.7931,2.8988,-7.4635,-9.2487
207.0312,9.1817,-0.6678,-9.3434,-8.5499,3.5757,4.2055,-4.2655,-3.8120,-0.1315,6.4860,-2.1891,-6.7071,-6.7726,7.1069,2.8732,0.1026,3.4672,-9.4304,-10.5230
210.9375,7.4873,-2.6534,-11.5590,-9.7863,3.1387,1.4078,-5.9863,-5.3978,-1.4778,5.0843,-2.7427,-8.6359,-8.3372,6.7205,0.8509,-1.4447,3.4580,-10.6342,-11.1646
214.8438,7.7677,-3.0657,-12.8542,-9.8362,2.8929,0.8895,-4.6644,-6.2304,-2.4284,5.4520,-3.7757,-10.3675,-10.5121,5.0539,-0.2280,-2.3870,2.8633,-11.1283,-10.7508
218.7500,8.8161,-2.3372,-12.9191,-8.7767,3.1243,1.9740,-1.6626,-5.8869,-3.0417,6.7446,-4.6537,-11.2777,-12.4233,2.7664,-0.6846,-1.5531,2.0421,-10.9307,-9.1695
222.6562,9.2711,-1.2688,-11.5387,-6.9760,3.8304,3.1925,1.1044,-4.5384,-3.2847,7.7658,-4.6077,-10.7807,-13.1294,1.0136,-0.7676,0.8566,1.5534,-10.0775,-6.8296
226.5625,8.4053,-0.5891,-9.0124,-5.0486,4.6700,3.3482,2.3800,-2.9117,-3.1786,7.6288,-3.5972,-8.9555,-12.2831,0.6250,-0.4868,3.2433,1.6797,-8.8979,-4.6550
230.4688,6.4297,-0.6935,-6.3779,-3.7323,5.1903,2.2615,2.1339,-1.8799,-2.9853,6.1664,-2.6430,-6.8158,-10.4679,1.4680,0.2914,3.7569,2.0810,-8.1261,-3.7118
234.3750,4.2125,-1.6056,-5.0499,-3.6249,5.1827,0.7059,1.1945,-1.9372,-3.1543,3.8994,-3.1933,-5.8108,-8.8523,2.5780,1.6124,1.7728,1.9817,-8.5606,-4.5985
238.2812,2.6909,-3.0584,-5.9786,-4.8719,4.8814,-0.3265,0.3608,-2.9279,-3.9785,1.6724,-5.9184,-6.7920,-8.3521,3.0051,3.2772,-1.4726,0.8375,-10.4247,-6.9938
242.1875,2.3671,-4.6032,-8.9178,-7.0214,4.8120,-0.4099,-0.2519,-4.2202,-5.2399,0.2155,-9.9131,-9.2326,-8.9359,2.6892,4.8643,-3.6574,-1.0534,-12.9574,-9.7342
246.0938,3.1223,-5.7438,-12.4287,-9.2136,5.3738,0.0727,-1.1478,-5.1880,-6.2202,-0.1493,-13.0704,-11.4200,-9.6592,2.5878,5.8657,-3.0446,-2.5851,-14.7018,-11.4606
250.0000,4.3426,-6.1256,-14.7305,-10.6439,6.4713,0.3489,-2.8034,-5.6298,-6.1797,0.4188,-13.4880,-11.6278,-9.4547,3.8665,5.8205,0.1853,-2.6370,-14.4314,-11.4377
253.9062,5.2114,-5.7352,-14.8479,-11.0105,7.5017,-0.0646,-5.0385,-5.8133,-4.9849,1.4010,-10.8959,-9.4528,-8.0766,6.7632,4.4217,3.9526,-1.0718,-12.0835,-9.9789
257.8125,5.0394,-4.9714,-13.2185,-10.6332,7.7448,-0.9901,-6.9567,-6.1365,-3.3623,2.1687,-6.9864,-6.2670,-6.4276,10.0806,1.6610,5.6592,0.8968,-8.9517,-8.1652
261.7188,3.5575,-4.4673,-11.2986,-10.1489,6.8816,-1.7899,-7.5140,-6.7017,-2.4916,2.2814,-4.3212,-4.3445,-5.9498,11.8283,-1.9757,3.9376,1.3987,-6.8880,-7.0601
265.6250,1.1012,-4.7136,-10.4552,-10.0094,5.2512,-1.9261,-6.2640,-7.1596,-3.1767,1.7155,-4.5860,-5.2458,-7.5103,10.6250,-5.4244,-0.4817,-0.7291,-7.0335,-7.0051
269.5312,-1.4340,-5.7237,-10.9877,-10.1637,3.6380,-1.4009,-3.7079,-6.9590,-5.2158,0.8825,-7.4820,-8.6645,-10.6458,6.8128,-7.3131,-5.3544,-4.9094,-9.0132,-7.5195
273.4375,-2.9552,-7.0142,-12.0269,-10.1731,2.7370,-0.7435,-1.0127,-5.8038,-7.4949,0.3706,-11.0653,-12.6409,-13.7908,2.3818,-6.6463,-8.4631,-8.9834,-11.2422,-7.8530
277.3438,-2.7695,-7.9710,-12.3766,-9.6687,2.6907,-0.6066,0.6473,-3.9569,-8.7942,0.5190,-13.2387,-15.0122,-15.3609,-0.3200,-3.5807,-8.9824,-10.5781,-12.1623,-7.7302
281.2500,-1.1057,-8.3626,-11.6212,-8.7860,3.0351,-1.3343,0.6394,-2.1500,-8.7294,1.1009,-13.2435,-15.0080,-14.8889,-0.1784,0.2903,-7.7549,-8.7674,-11.4980,-7.6703
285.1562,0.8280,-8.6025,-10.6089,-8.2103,3.0842,-2.8277,-1.0054,-1.1677,-8.1043,1.3819,-12.0464,-13.7669,-13.3558,1.9671,2.5516,-6.4293,-4.8184,-10.5639,-8.6110
289.0625,1.4237,-9.5064,-10.8956,-8.7593,2.4542,-4.7323,-3.8250,-1.4110,-8.3722,0.5801,-11.4190,-13.3824,-12.4627,4.0130,1.2922,-6.2141,-1.4273,-11.3389,-11.1201
292.9688,-0.3616,-11.6632,-13.5452,-10.7824,1.3391,-6.6984,-7.1946,-2.7343,-10.5670,-1.5565,-12.5049,-15.2232,-13.3933,4.1725,-3.6492,-7.1737,-0.9367,-14.9509,-14.8190
296.8750,-4.2471,-14.8635,-18.1829,-13.8119,0.3572,-8.4618,-10.4057,-4.6207,-14.4774,-4.4820,-14.9995,-18.8307,-15.9849,2.2652,-10.4085,-8.4733,-3.7816,-20.6747,-18.4834
300.7812,-8.6252,-18.0355,-23.0306,-16.7331,0.1080,-9.7366,-12.6305,-6.5087,-18.6657,-7.1286,-17.5026,-22.2373,-18.8925,-0.2299,-16.0914,-9.2376,-8.2564,-26.1978,-20.7673
304.6875,-11.4131,-19.8039,-25.9320,-18.3804,0.7775,-10.1448,-13.0331,-8.0185,-21.3285,-8.5575,-18.6554,-23.4379,-20.5738,-1.3648,-18.4470,-9.2917,-11.7394,-29.0041,-21.0239
308.5938,-11.2762,-19.3323,-25.6672,-18.1780,2.0492,-9.3876,-11.1612,-8.9707,-21.4018,-8.5160,-18.1179,-21.8732,-20.3342,-0.2334,-17.0986,-9.2495,-12.4755,-27.9367,-19.6431
312.5000,-8.4460,-16.8879,-22.6699,-16.4299,3.3274,-7.5887,-7.4106,-9.2943,-19.1710,-7.4866,-16.6760,-18.8077,-18.6939,2.3231,-13.5054,-9.9640,-10.6518,-23.8952,-17.7057
316.4062,-4.5909,-13.7363,-18.7071,-14.1094,4.0616,-5.4814,-3.1322,-8.9921,-16.0289,-6.2179,-15.5282,-16.3699,-16.9007,4.3102,-9.7601,-11.8129,-8.0691,-19.2430,-16.2633
320.3125,-1.8139,-11.4283,-15.7986,-12.3212,3.9452,-4.1407,-0.1115,-8.2188,-13.6136,-5.1383,-15.4234,-16.0400,-16.0457,3.9917,-7.1799,-14.3412,-6.7451,-16.3748,-15.7810
324.2188,-1.4238,-10.9396,-15.1201,-11.7765,2.9242,-4.3174,0.3818,-7.3539,-12.9248,-4.1462,-16.3179,-17.7319,-16.4550,1.0711,-5.7508,-16.4672,-7.5152,-16.3960,-16.0830
328.1250,-3.2602,-12.2010,-16.5459,-12.5544,1.1182,-5.8295,-1.6285,-6.9021,-13.9368,-2.9323,-17.6799,-20.0748,-17.7104,-3.1760,-4.7374,-17.0664,-9.6040,-18.6982,-16.7158
332.0312,-5.9524,-14.2688,-18.9921,-14.2088,-1.2200,-7.5374,-4.8083,-7.2028,-15.8267,-1.5130,-19.0179,-21.5497,-19.1274,-6.8299,-3.7911,-15.5608,-11.3609,-21.5585,-17.3522
335.9375,-7.8643,-15.9608,-21.1959,-16.0808,-3.6955,-8.0489,-7.3460,-8.1472,-17.5438,-0.4454,-20.1191,-21.5324,-20.2170,-8.5818,-3.4908,-12.2093,-11.5081,-23.2546,-17.9142
339.8438,-8.0666,-16.5223,-22.3869,-17.6176,-5.8195,-6.7247,-8.1047,-9.1734,-18.3325,-0.4604,-20.8787,-20.4902,-20.8012,-8.4274,-4.7845,-8.0099,-9.9636,-22.9733,-18.4069
343.7500,-6.7354,-15.9364,-22.5026,-18.5612,-7.1946,-4.2458,-7.2949,-9.6322,-17.9731,-1.7826,-21.0495,-19.3395,-20.8388,-7.4092,-7.8197,-4.3004,-7.7295,-21.0530,-18.7218
347.6562,-4.8300,-14.7732,-21.9673,-18.9710,-7.7595,-2.2559,-6.1867,-9.3006,-16.7417,-3.7407,-20.3037,-18.6308,-20.2747,-6.7300,-11.2832,-2.2383,-6.0732,-18.5829,-18.6532
351.5625,-3.3812,-13.7609,-21.2945,-19.1094,-7.8793,-2.2572,-6.0757,-8.6358,-15.2173,-5.0990,-18.6237,-18.2663,-19.1345,-6.9480,-13.0235,-2.3586,-5.6993,-16.7156,-18.1247
355.4688,-2.9100,-13.3742,-20.7814,-19.2471,-8.1242,-4.5248,-7.2643,-8.4986,-14.0366,-4.9492,-16.6139,-17.8938,-17.7617,-7.7926,-11.6452,-4.3933,-6.4917,-16.1032,-17.3764
359.3750,-3.3006,-13.6460,-20.4116,-19.4610,-8.8182,-7.8422,-8.8121,-9.4718,-13.6443,-3.4901,-15.3029,-17.5013,-16.8745,-8.6014,-7.8359,-7.4515,-7.8728,-16.6838,-16.8815
363.2812,-4.0908,-14.2371,-19.9381,-19.5284,-9.6847,-10.2871,-9.2374,-11.2621,-14.0885,-2.0278,-15.4490,-17.5876,-17.2375,-8.9354,-4.2331,-10.4950,-9.3491,-17.8298,-17.0074
367.1875,-4.8809,-14.6711,-19.0692,-19.0114,-9.9219,-10.5289,-7.6513,-12.6952,-14.9692,-2.1061,-16.8892,-18.7185,-19.1049,-8.8758,-3.7217,-12.8515,-10.7581,-18.7315,-17.7005
371.0938,-5.5695,-14.6037,-17.6860,-17.5396,-8.7568,-8.7143,-4.4885,-12.4180,-15.6403,-4.3769,-18.5527,-20.8765,-21.8706,-8.8391,-7.3272,-14.4460,-12.0860,-18.8323,-18.4884
375.0000,-6.3221,-14.0195,-16.0107,-15.1547,-6.1323,-6.3153,-1.2992,-9.8877,-15.6211,-8.0706,-19.2581,-23.2348,-24.2762,-9.1459,-13.3112,-15.5930,-13.1379,-18.1301,-18.8300
378.9062,-7.3742,-13.2771,-14.6202,-12.4799,-3.0042,-5.0736,0.2501,-5.9451,-14.9804,-11.4986,-18.7134,-24.6311,-25.1155,-9.7328,-18.2427,-16.5130,-13.4562,-17.1857,-18.5361
382.8125,-8.8361,-12.9596,-14.2248,-10.5265,-0.9347,-5.8221,-0.5424,-2.4940,-14.3874,-13.2234,-17.8608,-24.3943,-23.9642,-10.2298,-19.3322,-16.9809,-12.6204,-16.7951,-17.8988
386.7188,-10.5912,-13.5622,-15.2597,-10.1760,-1.1651,-8.0206,-2.9981,-1.4118,-14.7080,-13.0090,-18.1696,-22.8412,-21.4084,-10.2981,-16.3206,-16.4362,-10.6788,-17.4664,-17.4094
390.6250,-12.2961,-15.1551,-17.5117,-11.6220,-3.7640,-10.2817,-5.5700,-3.3758,-16.3548,-11.8316,-20.3444,-21.0027,-18.6030,-9.9227,-11.5257,-14.5164,-8.3021,-19.0070,-17.3002
394.5312,-13.4599,-17.2298,-20.0638,-14.1533,-7.4538,-11.4305,-6.8941,-7.3956,-18.8422,-10.9782,-23.4811,-19.7809,-16.4951,-9.4104,-8.0396,-11.5748,-6.4557,-20.5185,-17.3100
398.4375,-13.6013,-18.8796,-21.6891,-16.4782,-10.2871,-11.2850,-6.6483,-11.3852,-20.9161,-10.9762,-25.4460,-19.2192,-15.2813,-9.0968,-7.4695,-8.6833,-5.7857,-20.8699,-16.8893
402.3438,-12.4740,-19.2736,-21.5226,-17.4396,-10.7613,-10.6195,-5.6592,-13.4152,-21.2493,-11.2166,-24.3239,-18.4978,-14.4671,-9.0031,-8.9224,-6.9998,-6.1745,-19.3883,-15.6791
406.2500,-10.2765,-18.1616,-19.5970,-16.6826,-8.6566,-10.4217,-5.2343,-12.8256,-19.2754,-10.5561,-19.8967,-16.6766,-13.4145,-8.7271,-9.9307,-6.9335,-6.8152,-16.3184,-13.8535
410.1562,-7.6989,-16.0762,-16.8659,-14.8368,-5.0762,-11.0750,-6.2139,-10.4943,-15.5988,-8.3849,-14.0072,-13.5957,-11.9103,-7.6880,-8.5039,-7.7929,-6.7755,-12.7250,-12.0218
414.0625,-5.6856,-14.0589,-14.6625,-13.0892,-1.7145,-12.0982,-8.3840,-8.1388,-11.6900,-5.2720,-9.4652,-10.1995,-10.3175,-5.5822,-4.6731,-8.2924,-5.6546,-9.8876,-10.7690
417.9688,-4.9717,-13.0510,-13.9299,-12.4324,0.1202,-12.5930,-10.6128,-7.1765,-9.0578,-2.6477,-8.2482,-7.9980,-9.2458,-2.7442,-0.3802,-7.6051,-3.8662,-8.5914,-10.2275
421.8750,-5.6408,-13.3335,-14.7288,-13.0893,0.0957,-11.9951,-11.5844,-7.9171,-8.4399,-1.7676,-10.2909,-8.0553,-9.0615,-0.1391,2.0764,-6.1364,-2.3583,-8.7880,-10.0529
425.7812,-7.0155,-14.3849,-16.3230,-14.4808,-1.2344,-10.5167,-10.6312,-9.5721,-9.5111,-2.7773,-13.7124,-10.2558,-9.6470,1.0712,1.7174,-5.3191,-1.9792,-9.8130,-9.8189
429.6875,-8.0113,-15.2443,-17.7312,-15.7082,-2.9995,-8.9531,-8.1387,-10.9641,-11.2274,-4.6109,-16.2426,-13.3807,-10.5651,0.1750,-0.6363,-6.4728,-2.9328,-10.9378,-9.4687
433.5938,-7.7740,-15.1234,-18.3156,-16.1726,-4.5718,-8.0427,-5.2931,-11.3622,-12.5005,-5.7895,-16.7448,-15.9104,-11.4310,-2.6003,-3.3243,-9.5637,-4.6780,-11.8099,-9.3945
437.5000,-6.1945,-13.8474,-18.0056,-15.8891,-5.7427,-7.9030,-3.3577,-10.8554,-12.7333,-5.4841,-15.7348,-16.9471,-12.1436,-6.0763,-5.3014,-12.8921,-6.2994,-12.4802,-10.0427
441.4062,-3.9489,-11.8559,-17.0807,-15.3170,-6.5068,-7.9762,-2.9401,-10.0819,-11.9341,-4.0323,-14.6331,-16.6171,-12.7962,-8.6462,-6.8015,-14.0940,-7.0659,-13.0828,-11.3774
445.3125,-2.0273,-9.8215,-15.7899,-14.9018,-6.7593,-7.4989,-3.6916,-9.6188,-10.4675,-2.5575,-14.4666,-15.7452,-13.3963,-9.0741,-8.6915,-11.8221,-6.8014,-13.5155,-12.7019
449.2188,-1.0770,-8.2073,-14.1769,-14.7191,-6.2264,-6.1105,-4.6018,-9.5470,-8.7316,-2.0475,-15.0802,-15.1332,-13.6967,-7.1177,-11.1889,-6.8645,-5.8593,-13.4385,-13.0628
453.1250,-1.0195,-7.0836,-12.2473,-14.4921,-4.6934,-4.1351,-4.6834,-9.5075,-7.0043,-2.6313,-15.4192,-15.0109,-13.3264,-3.6069,-13.1865,-1.7934,-4.7772,-12.5923,-11.9636
457.0312,-1.2000,-6.2843,-10.2730,-13.9306,-2.3062,-2.3502,-3.6136,-9.1435,-5.4880,-3.5752,-14.5367,-15.0157,-12.1230,0.0756,-12.9061,0.6955,-3.8842,-11.1346,-9.8154
460.9375,-0.9414,-5.7078,-8.8865,-13.0791,0.3513,-1.4533,-1.9400,-8.5191,-4.3965,-3.9221,-12.4404,-14.6202,-10.3685,2.7873,-9.4162,-0.4100,-3.1281,-9.6607,-7.7268
464.8438,-0.0839,-5.4814,-8.7948,-12.3644,2.5123,-1.6373,-0.7376,-8.1496,-3.9350,-3.2190,-10.1011,-13.6144,-8.7007,4.1936,-3.7311,-3.8006,-2.2123,-8.8482,-6.7571
468.7500,0.8825,-5.8578,-10.2912,-12.2960,3.6385,-2.5628,-0.9459,-8.6074,-4.1797,-1.7792,-8.6857,-12.2811,-7.7434,4.7646,1.5384,-6.8450,-0.9175,-9.0008,-7.2052
472.6562,1.1746,-6.9579,-12.9580,-13.0592,3.6825,-3.6869,-2.8050,-10.0234,-4.9940,-0.3592,-8.7020,-11.1887,-7.7382,5.2447,3.8553,-7.4845,0.6280,-9.8715,-8.4922
476.5625,0.2863,-8.6004,-15.8346,-14.3357,3.0114,-4.6462,-5.7267,-11.8927,-6.1012,0.4075,-9.7480,-10.8159,-8.4586,5.9998,2.5138,-5.6263,1.9200,-10.9129,-9.7196
480.4688,-1.6444,-10.3692,-17.9628,-15.5041,2.0698,-5.3937,-8.6384,-13.3640,-7.2763,0.3518,-10.9974,-11.2950,-9.4519,6.7176,-0.8923,-3.0456,2.3195,-11.7389,-10.4320
484.3750,-3.9168,-11.8568,-18.9158,-16.0695,1.0553,-6.0261,-10.5462,-13.8161,-8.4928,-0.3164,-11.9325,-12.4099,-10.3926,6.6592,-3.6888,-1.9428,1.4170,-12.4002,-10.9477
488.2812,-5.7123,-12.8748,-18.9250,-15.9934,-0.1560,-6.5071,-10.9549,-13.3018,-9.8769,-1.3316,-12.6787,-13.7769,-11.2622,5.2458,-4.1118,-3.2983,-0.7030,-13.2399,-11.9833
492.1875,-6.5738,-13.4694,-18.5412,-15.6790,-1.8055,-6.5710,-9.9425,-12.5278,-11.4977,-2.5881,-13.6988,-15.0426,-12.2431,2.5220,-2.5434,-6.2545,-3.4675,-14.4671,-13.9031
496.0938,-6.6058,-13.7663,-18.1413,-15.6378,-3.9604,-5.9237,-7.9549,-12.3791,-13.1748,-4.0709,-15.1885,-15.9906,-13.4657,-0.8492,-1.0586,-8.9166,-6.0960,-15.8510,-16.2511
500.0000,-6.3124,-13.8210,-17.7015,-16.1122,-6.3730,-4.5869,-5.5605,-13.3207,-14.4980,-5.6350,-16.7549,-16.5621,-14.8563,-4.0278,-1.6736,-9.8614,-7.9969,-16.8415,-18.0023
503.9062,-6.2425,-13.6317,-17.0157,-16.9432,-8.5887,-3.0801,-3.3489,-15.0912,-15.0816,-6.9155,-17.6857,-16.8460,-16.2128,-6.5069,-4.6876,-9.1527,-9.0438,-17.0536,-18.3633
507.8125,-6.7052,-13.2962,-16.1427,-17.7678,-10.2013,-2.2292,-1.9461,-16.8871,-14.8771,-7.5120,-17.5740,-17.0611,-17.4113,-8.2922,-8.4106,-8.1191,-9.5657,-16.7100,-17.4716
511.7188,-7.7055,-13.1360,-15.6469,-18.3602,-11.0546,-2.6738,-1.9593,-17.8914,-14.2935,-7.3104,-16.7429,-17.4921,-18.5206,-9.6480,-10.4643,-8.1525,-10.0665,-16.6234,-16.3889
515.6250,-9.0603,-13.6068,-16.3527,-18.8232,-11.2581,-4.4031,-3.7233,-17.7725,-14.0110,-6.6526,-16.0814,-18.3543,-19.6918,-10.6749,-9.6114,-9.5338,-10.8604,-17.6584,-16.3430
519.5312,-10.5435,-14.9992,-18.7359,-19.4678,-11.0431,-6.6703,-6.9521,-16.8327,-14.5906,-6.1780,-16.4015,-19.6339,-20.9136,-11.1231,-6.6850,-11.2117,-11.8669,-20.0398,-17.7834
523.4375,-11.9431,-17.1409,-22.4022,-20.4815,-10.5970,-8.3966,-10.6037,-15.7451,-16.1341,-6.4352,-17.8209,-21.0131,-21.8685,-10.6297,-3.9185,-11.6680,-12.6972,-23.0420,-19.9922
527.3438,-13.0434,-19.3568,-26.0907,-21.6634,-9.9965,-8.8237,-13.2034,-15.1007,-18.2080,-7.5519,-19.6553,-21.9713,-22.0615,-9.1833,-3.2245,-10.1482,-12.9614,-25.3313,-21.5674
531.2500,-13.6240,-20.7779,-28.2728,-22.4611,-9.2531,-7.9702,-13.5555,-15.0802,-20.0656,-9.1886,-20.8869,-22.0342,-21.1619,-7.3881,-4.7597,-7.2895,-12.5703,-25.7570,-21.4160
535.1562,-13.5405,-20.8208,-27.9834,-22.3053,-8.3867,-6.5645,-11.4229,-15.4372,-21.0207,-10.7685,-20.8404,-21.0343,-19.3015,-6.2327,-6.8542,-4.6866,-11.8092,-24.0521,-19.5053
539.0625,-12.8446,-19.5181,-25.3470,-21.0083,-7.4453,-5.4828,-7.6917,-15.7393,-20.7593,-11.7770,-19.5737,-19.2226,-17.0796,-6.4654,-7.3192,-3.7631,-11.1296,-20.9734,-16.8210
542.9688,-11.8256,-17.4699,-21.4728,-18.9327,-6.4664,-5.0939,-3.8535,-15.6560,-19.4499,-11.9312,-17.7525,-17.1622,-15.2453,-8.0283,-5.1195,-4.8134,-10.8123,-17.8189,-14.6118
546.8750,-10.8882,-15.4573,-17.8215,-16.8098,-5.4489,-4.9992,-1.1326,-15.1013,-17.6330,-11.1851,-16.1750,-15.4697,-14.2741,-10.0032,-1.1740,-6.8954,-10.7557,-15.6877,-13.5436
550.7812,-10.3102,-13.9978,-15.4801,-15.3376,-4.3990,-4.3842,0.1325,-14.1935,-15.9691,-9.6818,-15.3175,-14.5529,-14.1404,-11.1651,2.2562,-8.5869,-10.5531,-14.9810,-13.4109
554.6875,-10.0367,-13.1442,-14.7820,-14.8424,-3.4260,-2.7399,0.4277,-13.1382,-14.9563,-7.7470,-15.1767,-14.4760,-14.4342,-10.7809,3.0925,-8.9997,-9.8141,-15.4098,-13.5697
558.5938,-9.6751,-12.6307,-15.4175,-15.2176,-2.7916,-0.4022,0.4165,-12.1600,-14.7258,-5.8828,-15.4086,-14.9965,-14.7104,-9.0945,0.7743,-8.3230,-8.4976,-16.3942,-13.6604
562.5000,-8.7349,-12.2087,-16.8398,-16.1352,-2.8220,1.5465,0.2659,-11.5073,-15.0059,-4.6394,-15.5820,-15.7293,-14.7989,-7.1507,-3.4694,-7.5711,-7.0125,-17.4986,-13.9803
566.4062,-6.9863,-11.8885,-18.6198,-17.3301,-3.6955,2.0053,-0.4851,-11.4504,-15.2933,-4.3403,-15.3729,-16.3509,-14.8589,-6.0806,-7.4814,-7.7849,-6.0021,-18.6064,-15.1930
570.3125,-4.7084,-11.9072,-20.5353,-18.7273,-5.2441,0.7054,-2.4056,-12.1840,-15.1725,-4.8286,-14.6606,-16.7517,-15.1737,-6.3464,-9.4920,-9.2710,-5.9521,-19.7946,-17.6366
574.2188,-2.6410,-12.4739,-22.4327,-20.3435,-6.9355,-1.4772,-5.4589,-13.6590,-14.6118,-5.4893,-13.5681,-17.0698,-15.8795,-7.4625,-9.0205,-11.3631,-6.8893,-21.0957,-20.8404
578.1250,-1.6206,-13.5192,-24.0746,-22.0872,-8.1056,-3.0480,-8.7448,-15.4824,-14.0283,-5.6340,-12.4539,-17.5813,-16.8466,-8.3649,-6.9024,-12.8083,-8.3714,-22.3703,-23.6905
582.0312,-2.0789,-14.6620,-25.1516,-23.6661,-8.3341,-2.9339,-10.9858,-17.0315,-14.0286,-5.0183,-11.7956,-18.4861,-17.7856,-8.1586,-4.6016,-12.5018,-9.7710,-23.3650,-25.1460
585.9375,-3.6941,-15.4280,-25.4586,-24.7083,-7.7281,-1.2791,-11.4077,-17.7769,-14.9588,-4.0727,-11.9387,-19.7078,-18.4651,-6.7287,-3.3375,-10.1405,-10.6537,-23.8714,-24.9541
589.8438,-5.4327,-15.5553,-25.0693,-25.0092,-6.8997,0.6377,-10.2951,-17.6188,-16.5772,-3.5896,-12.8285,-20.8508,-18.8500,-4.8192,-3.5159,-6.4575,-10.9950,-23.8429,-23.8001
593.7500,-6.0262,-15.1609,-24.3383,-24.6904,-6.6034,1.3590,-8.7274,-16.9767,-18.1296,-4.0411,-13.9460,-21.3921,-19.0524,-3.5398,-4.6446,-2.9267,-11.0972,-23.4051,-22.7706
597.6562,-4.6691,-14.6479,-23.6935,-24.1183,-7.2300,0.3926,-7.6766,-16.5120,-18.8344,-5.0581,-14.5872,-21.0226,-19.1500,-3.6312,-5.6347,-1.0705,-11.2793,-22.7861,-22.5423
601.5625,-1.5614,-14.4265,-23.3550,-23.6186,-8.4768,-1.3442,-7.2084,-16.6394,-18.4523,-5.5520,-14.3499,-19.9124,-19.0373,-4.9527,-5.2944,-1.6849,-11.5689,-22.2310,-22.9145
605.4688,2.0502,-14.6461,-23.1828,-23.2077,-9.4442,-2.1791,-6.4866,-17.1757,-17.5026,-4.4818,-13.4713,-18.6753,-18.4491,-6.5166,-2.8550,-4.3732,-11.6311,-21.9258,-23.0236
609.3750,4.4337,-15.1167,-22.7709,-22.5690,-9.1537,-0.9968,-4.6262,-17.4188,-16.9111,-1.7203,-12.6977,-17.9990,-17.1632,-7.0621,1.6080,-7.6804,-11.0055,-21.9305,-22.0571
613.2812,4.2855,-15.4575,-21.7408,-21.3254,-7.2023,1.7847,-1.6969,-16.6512,-17.3145,1.6715,-12.7194,-18.1717,-15.2480,-5.8438,7.0245,-9.8434,-9.5130,-22.1371,-19.9205
617.1875,1.4987,-15.3573,-20.0502,-19.4206,-4.1395,4.3783,1.0195,-14.7310,-18.5453,4.0482,-13.5855,-18.8595,-13.1782,-3.1732,11.6074,-9.7963,-7.5531,-22.3086,-17.3740
621.0938,-2.6871,-14.7693,-18.1148,-17.3133,-1.2877,4.8983,1.8551,-12.3243,-19.7277,4.2600,-14.5919,-19.3472,-11.7145,-0.3691,13.5592,-7.8314,-6.0584,-22.2320,-15.5719
625.0000,-6.2973,-13.9193,-16.6479,-15.8047,-0.0564,2.8363,0.0968,-10.5592,-19.9537,2.4142,-14.7947,-19.1066,-11.5865,0.9042,11.9345,-5.4399,-6.0689,-21.9202,-15.3615
628.9062,-7.6814,-13.1365,-16.2893,-15.5826,-1.1407,-0.3813,-3.2321,-10.3015,-19.0283,-0.2560,-13.7754,-18.2752,-13.1402,-0.4336,7.1960,-4.3442,-8.1433,-21.6985,-16.8305
632.8125,-6.4065,-12.6267,-17.2219,-16.7847,-4.0999,-2.2449,-5.8757,-11.5518,-17.6776,-2.2970,-12.0328,-17.6421,-16.1442,-4.2237,1.0927,-5.3118,-11.9581,-22.0389,-19.3606
636.7188,-3.4421,-12.3408,-19.0030,-18.8872,-7.6040,-0.8736,-5.8755,-13.4112,-17.0080,-2.9958,-10.6338,-18.0941,-19.8663,-9.1118,-4.1323,-7.5776,-16.3713,-23.1880,-22.0663
640.6250,-0.5264,-12.0263,-20.7347,-21.0050,-10.2139,3.6236,-3.0196,-14.6716,-17.6078,-2.6631,-10.3628,-19.9011,-23.3911,-13.3062,-6.7727,-9.3524,-19.9591,-24.8436,-24.2670
644.5312,0.8837,-11.4347,-21.5151,-22.3992,-11.2049,9.1237,0.9163,-14.6269,-19.0090,-2.0911,-11.0603,-22.3902,-26.0060,-15.6022,-6.3343,-9.1346,-21.7359,-26.1799,-25.6951
648.4375,0.4134,-10.5507,-20.9367,-22.8472,-10.9014,12.8251,3.3833,-13.5303,-19.9833,-1.7331,-11.7313,-24.3020,-27.4454,-16.0137,-3.5086,-6.9063,-21.6247,-26.3082,-26.3973
652.3438,-1.1623,-9.6836,-19.3430,-22.6393,-10.3137,12.9951,2.8632,-12.3636,-19.4949,-1.3616,-11.3832,-24.6097,-27.8620,-15.5840,0.4288,-4.2919,-20.3850,-24.9117,-26.5090
656.2500,-2.5668,-9.3332,-17.6620,-22.2438,-10.3453,9.9238,-0.0785,-12.0892,-17.5820,-0.5026,-9.9197,-23.2148,-27.5679,-15.5057,4.3131,-3.4601,-19.0442,-22.5893,-26.1165
660.1562,-2.8997,-9.8823,-16.8806,-21.9158,-11.1361,5.5086,-3.2770,-12.9323,-15.4445,0.7916,-8.3147,-21.0008,-26.7441,-16.1791,7.4244,-5.4927,-18.2105,-20.5903,-25.2845
664.0625,-2.1472,-11.3005,-17.4592,-21.5487,-12.0028,1.9022,-4.6077,-14.2201,-14.6126,1.6254,-7.8618,-19.2051,-25.3385,-16.9082,9.3767,-9.4071,-17.7287,-20.0486,-24.1556
667.9688,-1.0368,-13.0660,-19.0523,-20.8582,-12.0002,0.2657,-3.5238,-14.8925,-15.7962,0.8299,-9.0749,-18.5817,-23.2343,-16.4700,9.8572,-12.6285,-16.9081,-21.2306,-22.9806
671.8750,-0.4315,-14.3995,-20.7307,-19.7278,-10.6722,0.4427,-1.3396,-14.2988,-18.3052,-1.9527,-11.1693,-18.9772,-20.5546,-14.1315,8.6010,-12.6770,-15.1490,-23.3504,-22.0266
675.7812,-0.7572,-14.7017,-21.5820,-18.4232,-8.4292,1.5670,-0.0952,-12.6903,-20.5176,-5.6028,-12.6231,-19.6064,-17.8371,-10.3284,5.6994,-8.9295,-12.5073,-25.1213,-21.4373
679.6875,-1.8515,-13.9283,-21.3025,-17.4958,-6.2842,2.9092,-0.9314,-11.0532,-21.0708,-7.9852,-12.4303,-19.7609,-15.8865,-6.4664,1.9514,-3.1972,-9.7811,-25.6606,-21.1744
683.5938,-3.2470,-12.6423,-20.3799,-17.4455,-5.1685,4.2244,-3.2412,-10.4186,-19.8789,-7.3714,-11.0324,-19.3617,-15.3520,-3.9934,-1.1797,1.3328,-8.0515,-25.0852,-21.0980
687.5000,-4.5594,-11.6774,-19.7339,-18.3961,-5.3559,5.4487,-5.2087,-11.1616,-18.1938,-3.8066,-10.1011,-18.9235,-16.3124,-3.4695,-2.1825,2.1004,-8.0068,-24.3513,-21.1243
691.4062,-5.6331,-11.6071,-20.0537,-20.0162,-6.4073,6.2411,-5.2460,-12.7855,-17.6524,0.6827,-11.2445,-19.0017,-18.1809,-4.3588,-0.3856,-1.2325,-9.5280,-24.4590,-21.3240
695.3125,-6.3774,-12.3669,-21.2892,-21.7191,-7.6085,5.9923,-3.1688,-14.3045,-19.0248,3.3334,-14.6141,-19.6200,-20.0237,-5.6575,3.4894,-6.6458,-11.8049,-25.6321,-21.8646
699.2188,-6.5522,-13.2941,-22.6534,-22.9666,-8.4823,4.4117,-0.2318,-14.8993,-21.6062,2.5186,-18.5468,-20.1768,-21.0763,-6.7640,7.5759,-11.1034,-13.8490,-27.1007,-22.8170
703.1250,-5.8145,-13.5728,-23.1397,-23.4529,-8.9315,2.1490,1.9072,-14.3576,-23.6977,-1.1109,-20.6162,-19.9157,-21.0834,-7.7918,9.8464,-12.3994,-14.9969,-27.6553,-23.9594
707.0312,-4.0767,-12.7872,-22.1944,-23.0800,-8.9412,0.7285,2.3950,-13.0303,-23.8020,-5.0867,-19.3578,-18.5637,-20.2339,-9.0386,9.2424,-10.2742,-15.0583,-26.5486,-24.7388
710.9375,-1.8639,-11.2018,-20.0798,-21.8293,-8.2027,1.6088,1.6141,-11.4297,-21.6390,-6.8691,-15.3678,-16.5976,-18.7942,-10.1311,6.2275,-6.1846,-14.0978,-24.0618,-24.4641
714.8438,-0.2578,-9.5703,-17.6871,-19.7098,-6.1253,4.9881,0.6053,-9.8499,-18.2617,-5.6033,-10.9129,-14.9124,-16.7983,-9.7592,2.4257,-2.0916,-12.1535,-21.3176,-22.6607
718.7500,-0.2969,-8.6051,-15.9413,-16.8586,-2.3595,9.3539,0.1006,-8.3071,-15.2509,-2.6046,-8.3221,-14.1559,-14.0996,-6.4791,-0.3742,0.7597,-9.2182,-19.4951,-19.3975
722.6562,-2.1816,-8.4831,-15.2204,-13.6826,2.5658,12.3090,0.0417,-6.7789,-13.6391,-0.2556,-8.3633,-14.2660,-10.7527,-0.1056,-1.1627,2.2519,-5.5197,-19.0374,-15.3757
726.5625,-4.8989,-8.7353,-15.1755,-10.8484,7.1170,12.2056,-0.0516,-5.4542,-13.3493,-0.1822,-9.8147,-14.5705,-7.3607,7.4650,-0.0144,2.9107,-1.7999,-19.4148,-11.6822
730.4688,-6.6716,-8.6009,-15.0468,-9.0321,9.4432,9.3921,-0.3114,-4.7169,-13.4830,-2.0819,-10.5140,-14.3442,-4.9906,12.9085,2.3222,3.1157,0.7827,-19.5676,-9.2989
734.3750,-6.0502,-7.5924,-14.2252,-8.5631,8.5184,6.0576,-0.1660,-4.8562,-13.1326,-4.0384,-9.0425,-13.3616,-4.5945,13.4069,5.1100,2.7283,1.2092,-18.6555,-8.6271
738.2812,-2.9426,-5.8767,-12.6684,-9.2311,4.9113,4.6867,1.1721,-5.7747,-12.0545,-4.0238,-5.7549,-12.0147,-6.3238,8.5640,8.0016,1.3953,-0.7295,-16.5693,-9.3126
742.1875,1.1653,-4.2083,-10.9089,-10.4338,0.5153,6.2278,3.7657,-6.9912,-10.7393,-1.4320,-2.4236,-10.9478,-9.2894,0.8317,10.8600,-0.8325,-4.1794,-13.8997,-10.4990
746.0938,4.0246,-3.4615,-9.6832,-11.5819,-2.6833,9.3594,6.4549,-7.9830,-9.9308,2.4670,-0.8566,-10.5463,-12.0332,-6.0133,13.2884,-3.1961,-7.6637,-11.4803,-11.3691
750.0000,3.9761,-4.0771,-9.4504,-12.4492,-3.9498,11.4438,7.4132,-8.5885,-10.0509,5.4124,-1.6023,-10.7003,-13.4235,-9.3227,14.4114,-4.5762,-9.9669,-9.8899,-11.6250
753.9062,0.9532,-5.7796,-10.1053,-13.1782,-4.2364,10.4779,5.4869,-9.0998,-10.9696,5.6673,-3.6990,-10.9869,-13.3186,-9.1714,13.2593,-4.2643,-10.8316,-9.2360,-11.5751
757.8125,-3.5199,-7.7301,-11.0330,-13.9285,-5.3189,6.5839,1.3022,-9.9174,-12.2116,3.0840,-5.5519,-11.0533,-12.4876,-7.9025,9.5746,-2.5463,-10.9435,-9.2634,-11.7542
761.7188,-7.2940,-8.9954,-11.4427,-14.4736,-8.2388,1.9298,-2.8253,-11.0276,-13.3298,-0.9299,-6.1479,-10.8458,-11.8551,-8.0008,4.4230,-0.6070,-11.2206,-9.5983,-12.3523
765.6250,-8.8443,-9.0345,-10.7763,-14.1432,-12.2465,-0.8310,-4.2739,-11.7696,-14.1167,-4.3726,-5.6509,-10.5257,-11.6896,-9.9850,0.0044,0.2190,-11.9821,-9.9281,-12.9037
769.5312,-7.9906,-7.9326,-8.9916,-12.2550,-15.1195,-0.3994,-1.8667,-11.1759,-14.5487,-5.7938,-5.0166,-10.2270,-11.4192,-12.0026,-1.4254,-0.6704,-12.6799,-10.0685,-12.5325
773.4375,-5.7173,-6.2902,-6.6061,-8.7656,-14.7077,2.4158,3.2891,-8.7128,-14.6379,-4.9149,-5.0931,-9.9505,-10.2487,-11.4493,1.0578,-2.7575,-12.4274,-9.9987,-10.6395
777.3438,-3.3685,-4.8796,-4.4997,-4.6235,-10.5908,5.5094,8.5193,-4.8817,-14.4128,-2.5115,-6.0175,-9.7152,-8.0615,-7.2926,6.2580,-4.7724,-10.8884,-9.9195,-7.5392
781.2500,-1.8568,-4.2793,-3.5564,-1.4550,-4.5871,7.1250,11.3532,-1.1676,-14.0567,0.1617,-7.3543,-9.7787,-5.8058,-1.1791,11.2960,-5.5379,-8.7583,-10.2550,-4.5171
785.1562,-1.3772,-4.6581,-4.2774,-0.6899,0.3213,7.0223,11.0643,0.7245,-13.9965,1.9675,-8.7054,-10.6119,-4.9426,3.6303,13.1421,-4.6927,-7.3675,-11.4687,-3.1559
789.0625,-1.6440,-5.7700,-6.5207,-2.6782,1.9040,6.3242,8.8962,-0.1247,-14.7244,2.2564,-10.1148,-12.5103,-6.3093,4.6904,10.3757,-2.8158,-7.6566,-13.6954,-4.3187
792.9688,-2.2832,-7.1105,-9.4993,-6.4183,0.0583,6.3053,6.8945,-3.2904,-16.3798,1.0093,-11.8418,-15.1069,-9.2950,2.2242,4.0901,-0.9215,-9.3318,-16.4145,-7.4906
796.8750,-3.0177,-8.1388,-12.0770,-10.1247,-3.3315,7.1993,6.3030,-7.2858,-18.4108,-1.1762,-13.7340,-17.2515,-12.0526,-1.1130,-2.6570,0.2694,-10.9313,-18.4848,-10.9846
800.7812,-3.5916,-8.4724,-13.2584,-12.2751,-5.8897,8.0096,6.7482,-10.4934,-19.6780,-3.2671,-14.8850,-17.5207,-12.6950,-2.3866,-6.5572,0.7532,-10.8445,-18.6711,-12.9376
804.6875,-3.6839,-8.0000,-12.6453,-12.4396,-6.4427,7.4187,6.7637,-12.1013,-19.0713,-4.1986,-14.0716,-15.1301,-10.6272,-0.7213,-5.9084,1.0891,-8.5497,-16.4184,-12.4495
808.5938,-3.0521,-6.8909,-10.6178,-11.3507,-5.6541,4.9808,5.1463,-12.4206,-16.2878,-3.4177,-10.7637,-10.6258,-7.0073,2.0762,-1.4970,1.8182,-5.1124,-12.3615,-10.0927
812.5000,-1.8505,-5.5156,-8.1346,-10.2199,-5.2040,1.5831,2.0346,-12.4249,-12.2156,-1.2677,-5.8990,-5.7938,-3.9596,3.1204,4.0031,2.9049,-2.5094,-8.1497,-7.4508
816.4062,-0.7876,-4.3151,-6.2540,-9.8321,-6.2408,-1.1950,-1.1201,-12.9076,-8.5809,1.1176,-1.6631,-2.7441,-3.1061,0.9698,7.7020,3.6200,-2.2384,-5.6062,-6.0214
820.3125,-0.8254,-3.6708,-5.6394,-10.0647,-8.3540,-2.2776,-2.6141,-13.8824,-7.0191,2.4607,-0.2473,-2.7253,-4.5015,-3.0083,8.1732,2.9727,-4.2379,-5.7199,-6.2577
824.2188,-2.5060,-3.8127,-6.3115,-10.1273,-9.8528,-1.8649,-1.7229,-14.6210,-8.1531,2.1514,-2.3988,-5.4506,-6.7378,-5.5841,6.1140,0.4143,-6.9259,-8.1239,-7.3958
828.1250,-5.3885,-4.7817,-7.7500,-9.2726,-9.0856,-1.1870,0.8289,-14.2291,-11.2746,0.6324,-6.8390,-9.3697,-8.0845,-4.2009,3.6463,-3.6542,-8.3300,-11.3996,-8.1303
832.0312,-8.1200,-6.4307,-9.2419,-7.4097,-5.7421,-1.4840,3.4466,-12.2959,-14.8203,-0.9719,-11.0444,-12.6684,-7.7571,0.9178,2.7876,-7.9265,-7.4663,-13.9839,-7.6004
835.9375,-9.2376,-8.4475,-10.2488,-5.1834,-1.1425,-3.0527,4.7719,-9.1660,-17.2968,-1.7394,-12.8822,-14.2909,-6.3623,6.7836,4.1284,-10.7999,-4.9580,-15.0588,-5.9686
839.8438,-8.1976,-10.3983,-10.5980,-3.5169,2.6525,-5.0795,4.4665,-5.7141,-18.0386,-1.6602,-11.9374,-14.3247,-5.2586,9.7798,6.5578,-11.2024,-2.4882,-14.8514,-4.2238
843.7500,-5.8640,-11.8035,-10.4370,-3.0070,4.1793,-6.3082,3.1691,-2.8638,-17.3488,-1.5757,-9.5855,-13.5919,-5.4224,8.2438,8.1502,-9.1496,-1.5611,-14.2231,-3.4245
847.6562,-4.0050,-12.2541,-10.0340,-3.6133,3.3520,-5.9405,1.8116,-1.2038,-16.0333,-2.3600,-7.7965,-12.8587,-6.7417,3.5017,7.5528,-5.6977,-2.5229,-13.9228,-3.9715
851.5625,-4.0746,-11.5420,-9.5687,-4.8009,1.2006,-4.0749,0.9316,-0.8869,-14.7427,-4.0080,-7.5954,-12.2832,-8.2387,-1.3612,4.9091,-2.3252,-4.5255,-14.0684,-5.4065
855.4688,-6.1306,-9.7511,-9.0257,-5.9377,-1.0734,-1.4559,0.5005,-1.7358,-13.6004,-5.4392,-8.3403,-11.4590,-8.9393,-3.9114,1.7145,-0.1222,-6.3415,-14.1831,-6.7972
859.3750,-8.7050,-7.2606,-8.2286,-6.6121,-2.9005,1.1151,0.2757,-3.3684,-12.3269,-5.2777,-8.3330,-9.9190,-8.6133,-4.0081,-0.2475,0.7210,-7.3050,-13.6790,-7.3539
863.2812,-9.7788,-4.6491,-6.9865,-6.6861,-4.4203,3.1635,0.2392,-5.2470,-10.6800,-3.0531,-6.2642,-7.6482,-7.8024,-3.4560,-0.1108,0.8347,-7.6354,-12.3748,-6.8309
867.1875,-8.2005,-2.5337,-5.2761,-6.1708,-5.9269,4.4879,0.6786,-6.7317,-8.8301,0.1638,-2.3764,-5.2099,-7.2023,-4.1260,1.5734,1.0859,-7.9749,-10.6735,-5.5143
871.0938,-4.5425,-1.4033,-3.3659,-5.1392,-7.2980,4.9029,1.8521,-7.2575,-7.3752,2.3131,1.5395,-3.4331,-7.0161,-6.2122,3.3674,1.8962,-8.6273,-9.3172,-3.9323
875.0000,-0.7798,-1.4894,-1.7888,-3.7813,-7.9545,4.1815,3.5857,-6.6195,-6.9894,1.7870,3.3165,-2.9285,-6.8581,-8.0772,4.0922,2.9178,-9.1925,-8.9367,-2.5707
878.9062,0.9835,-2.6962,-1.1299,-2.4907,-7.3574,2.3237,5.2152,-5.1639,-7.9594,-1.2943,1.8971,-3.7725,-6.2496,-7.7292,3.7313,3.2736,-8.8989,-9.7082,-1.7535
882.8125,-0.1548,-4.6073,-1.7002,-1.7826,-5.5440,-0.1444,5.9693,-3.6642,-9.9273,-4.9937,-1.9247,-5.5130,-5.1895,-4.5993,3.4200,2.1883,-7.3155,-11.2917,-1.6391
886.7188,-3.4072,-6.5895,-3.2777,-1.9901,-3.1794,-2.2675,5.4883,-2.8696,-12.0125,-6.8239,-6.0049,-7.4160,-4.2258,-0.0879,4.5113,-0.4180,-4.8041,-13.0207,-2.1934
890.6250,-6.9212,-8.0004,-5.1158,-2.9408,-1.0630,-3.2472,4.0505,-2.9996,-13.2474,-5.5002,-8.2058,-8.7639,-3.9293,3.5488,7.3943,-3.7690,-2.3090,-14.1973,-3.1101
894.5312,-9.0026,-8.4527,-6.2843,-3.9218,0.4584,-3.1000,2.3315,-3.5677,-13.0784,-1.8989,-7.6645,-9.0759,-4.2539,4.9770,10.9467,-6.6074,-0.6639,-14.3554,-3.8092
898.4375,-9.0691,-8.0073,-6.1893,-4.0665,1.6285,-2.7745,0.9179,-3.7123,-11.6535,1.5103,-5.1595,-8.2273,-4.4129,4.6993,13.0800,-7.8632,-0.0076,-13.4282,-3.6544
902.3438,-7.7517,-7.1537,-4.9420,-2.9457,2.8436,-3.4831,-0.0144,-2.8317,-9.7335,2.3700,-2.4317,-6.4846,-3.4693,4.3672,12.0671,-7.2045,0.1978,-11.7835,-2.3418
906.2500,-6.2253,-6.5286,-3.3027,-0.9228,4.0603,-5.6710,-0.6198,-1.0576,-8.2630,0.0548,-1.0086,-4.4275,-1.1796,5.1548,7.7715,-5.1564,0.5762,-10.0909,-0.1914
910.1562,-5.3550,-6.4994,-2.1848,1.0447,4.6474,-8.4427,-1.0383,0.8041,-7.8260,-3.9406,-1.3317,-2.7202,1.6460,6.6543,1.9284,-2.7586,1.1982,-9.0190,1.9461
914.0625,-5.2601,-6.8802,-2.0329,2.0633,3.9000,-10.0062,-1.1440,1.8412,-8.2908,-7.0752,-2.6814,-1.7772,3.6457,7.2729,-2.7440,-1.0024,1.4645,-8.8645,3.1951
917.9688,-5.4771,-7.0107,-2.5127,1.9496,1.8188,-8.9145,-0.6358,1.6905,-8.8721,-7.4712,-3.8186,-1.5046,3.9250,5.7766,-4.0425,-0.3845,0.6364,-9.3304,3.2525
921.8750,-5.4434,-6.2073,-2.7566,1.3589,-0.5574,-5.2100,0.6256,0.7845,-8.6119,-5.0396,-3.8292,-1.3315,2.7725,2.6027,-1.4288,-0.8008,-1.4222,-9.6496,2.6187
925.7812,-4.8750,-4.3101,-2.0131,1.2693,-1.6741,-0.5720,2.3758,0.0032,-7.0196,-1.3089,-2.6276,-0.5920,1.4549,-0.2683,3.8630,-1.7804,-3.9335,-9.0566,2.2363
929.6875,-3.8277,-1.9335,-0.2323,2.1953,-0.5501,2.7116,4.0614,0.0097,-4.4753,1.7650,-0.8839,0.9526,1.2125,-0.8617,9.7244,-2.8620,-5.6387,-7.3401,2.7643
933.5938,-2.5539,-0.1913,1.8524,3.7335,2.3788,3.2264,5.2325,0.7830,-2.1057,3.0421,0.4732,2.8236,2.2430,1.0814,14.3693,-3.8594,-5.6836,-5.0881,4.0291
937.5000,-1.3906,-0.0318,3.2173,4.8064,5.3616,1.2807,5.8465,1.6952,-1.1602,2.6246,0.8115,4.0305,3.5025,3.6878,16.9973,-4.8520,-4.2815,-3.3987,5.0963
941.4062,-0.7676,-1.6252,3.2545,4.4371,6.3923,-1.4910,6.1703,2.0417,-2.2553,1.3270,0.0943,3.6927,3.5125,4.2607,17.5783,-5.9188,-2.6167,-3.2044,4.9448
945.3125,-1.1980,-4.2401,2.1613,2.4786,4.5085,-3.4334,6.3329,1.5843,-4.9742,-0.2048,-1.1875,1.6694,1.5550,1.3376,16.1419,-6.8177,-2.0214,-4.6598,3.2559
949.2188,-3.0738,-6.7154,0.7282,-0.2447,0.4069,-4.0673,5.9498,0.6859,-8.0995,-1.9413,-2.3493,-1.2573,-1.6769,-4.1036,12.3463,-6.8844,-3.0142,-7.0340,0.7213
953.1250,-6.2980,-8.1999,-0.2895,-2.4768,-4.0433,-4.2794,4.2558,-0.0331,-10.3364,-4.1720,-2.9077,-3.8036,-4.4774,-9.2282,5.8503,-5.3266,-4.8979,-9.1940,-1.3663
957.0312,-10.0481,-8.6264,-0.7089,-3.3341,-7.0086,-5.4157,0.7806,-0.1976,-11.0477,-6.8325,-2.8443,-4.9374,-5.2641,-11.2690,-2.7284,-1.8386,-6.2125,-10.3349,-1.9428
960.9375,-12.9868,-8.5903,-0.9452,-2.7877,-7.7524,-8.0418,-3.9194,0.0755,-10.5137,-9.1418,-2.6187,-4.4558,-3.5914,-9.3374,-11.1204,2.8262,-5.7258,-10.4267,-0.8209
964.8438,-13.9363,-8.7540,-1.5293,-1.5219,-6.8623,-11.3589,-8.1377,0.3522,-9.5753,-9.9520,-2.9186,-3.0105,-0.3248,-4.8374,-15.8385,6.7980,-3.2736,-10.0759,1.2800
968.7500,-12.6253,-9.2644,-2.5440,-0.3617,-5.6223,-13.7191,-9.8033,0.2720,-8.9593,-8.5850,-4.2494,-1.6090,3.0535,-0.3272,-13.8635,7.8174,0.1103,-9.9498,3.2751
972.6562,-9.9576,-9.6508,-3.4723,0.2427,-5.1095,-13.8168,-7.7864,-0.2166,-8.7977,-5.5003,-6.5575,-0.9716,5.3934,2.1795,-4.7106,4.5211,2.8322,-10.2397,4.3784
976.5625,-7.5305,-9.2791,-3.6037,0.3040,-5.6817,-11.6394,-2.8444,-0.9642,-8.6740,-2.2324,-9.1108,-1.1793,6.3659,2.2113,8.5274,-2.4286,3.6923,-10.5756,4.4153
980.4688,-6.6717,-7.9784,-2.6680,-0.0045,-7.0923,-8.4881,2.5448,-1.9155,-8.1078,-0.5821,-10.7629,-1.7857,6.2553,0.5984,20.1428,-10.2001,2.5374,-10.4193,3.6608
984.3750,-7.6441,-6.3085,-1.1545,-0.6693,-8.9350,-6.1086,5.5040,-3.2428,-7.0510,-1.5889,-10.5324,-2.2192,5.4185,-1.5221,24.5698,-15.0007,0.2395,-9.5690,2.4693
988.2812,-9.5765,-5.2187,-0.0123,-1.8293,-10.9318,-5.6069,4.4605,-5.1229,-5.9798,-4.9544,-8.2106,-2.1419,3.9830,-3.5017,19.4792,-14.1437,-1.9175,-8.3375,1.0747
992.1875,-11.1478,-5.3434,0.0651,-3.4378,-12.8456,-6.8984,0.1371,-7.3258,-5.5112,-9.2457,-4.6329,-1.5432,2.0317,-5.2141,7.3474,-7.7820,-3.0091,-7.2606,-0.3000
996.0938,-11.4996,-6.4860,-0.7856,-4.9415,-14.2281,-8.9605,-4.8390,-9.0297,-5.8641,-12.6770,-1.3865,-0.5979,-0.0010,-6.5572,-5.5974,0.8862,-2.9258,-6.6024,-1.2248
1000.0000,-10.7013,-7.7112,-1.6343,-5.3622,-14.3954,-10.5683,-7.4880,-9.1495,-6.6104,-13.9442,-0.0374,0.5179,-1.2234,-7.0999,-12.5979,7.2810,-2.2808,-6.0927,-1.0626
1003.9062,-9.4733,-7.9877,-1.4051,-3.8404,-12.7904,-10.9364,-6.2140,-7.0446,-6.9230,-12.6622,-1.2699,1.7005,-0.7053,-6.2967,-9.9546,8.1015,-1.8897,-5.1279,0.6997
1007.8125,-8.4624,-6.8948,0.3473,-0.2858,-9.4804,-9.9120,-1.6545,-3.0958,-6.1281,-9.2970,-4.4340,2.8868,1.8613,-4.0480,1.1043,3.3386,-2.1799,-3.2664,4.0158
1011.7188,-7.7025,-4.8578,3.1141,4.3694,-5.3422,-7.7827,3.8238,1.3357,-4.1328,-4.8032,-7.8003,4.0237,5.8153,-1.0002,15.3304,-3.7145,-2.9013,-0.6007,8.1235
1015.6250,-6.6964,-2.7559,5.7913,8.5551,-1.7035,-5.0074,7.5809,4.6214,-1.4146,-0.2520,-9.4218,5.1023,9.8255,1.7792,26.5186,-8.5548,-3.3147,2.3002,11.8541
1019.5312,-5.0110,-1.2399,7.4253,10.8593,0.3399,-2.0883,8.1539,5.7797,1.3795,3.4085,-8.1410,6.1951,12.6322,3.4936,30.8273,-8.3487,-2.7381,4.8116,14.2122
1023.4375,-2.8348,-0.3040,7.7758,10.7033,0.4331,0.4529,5.8523,4.9419,3.8733,5.4959,-4.1791,7.3888,13.6585,4.0428,28.3971,-3.6999,-1.1083,6.6664,14.8008
1027.3438,-0.9845,0.5728,7.3066,8.4735,-1.0567,2.1682,2.2707,3.0485,6.0886,5.7196,1.0184,8.6067,13.0508,3.7962,22.4779,1.8847,0.8244,8.0145,13.8026
1031.2500,-0.3188,1.8769,6.6896,5.1065,-3.4878,2.8947,-0.8207,1.0525,8.1952,4.2824,5.5706,9.4781,11.2225,2.9791,16.8806,4.4642,1.8522,9.1090,11.6131
1035.1562,-1.0380,3.5859,6.2756,1.5171,-6.3695,2.9167,-2.4450,-0.7203,10.1482,1.8583,8.1147,9.4479,8.4153,1.3608,13.5636,2.3720,1.0620,9.9414,8.5229
1039.0625,-2.4606,5.1626,5.9609,-1.6958,-9.3788,2.8481,-2.7048,-2.5516,11.5634,-0.6244,8.3835,8.1568,4.7398,-1.3275,11.9095,-2.6890,-1.4635,10.1933,4.7719
1042.9688,-3.4876,6.0009,5.5024,-4.1401,-12.0196,3.2156,-2.3630,-4.7178,11.9633,-2.3361,7.1261,5.8611,0.6561,-4.5685,9.9826,-6.8820,-4.4795,9.5799,0.9051
1046.8750,-3.3997,5.9296,4.9403,-5.3749,-13.3751,4.0274,-2.1333,-6.8645,11.1963,-2.8542,5.5037,3.5402,-2.6479,-6.7012,6.6618,-6.8976,-6.1513,8.2836,-1.9964
1050.7812,-2.3540,5.3448,4.7073,-4.8883,-12.3882,4.7067,-2.1929,-7.9837,9.6656,-2.2641,4.3888,2.4973,-3.5432,-5.6582,2.9775,-2.1784,-5.0981,7.0522,-2.6141
1054.6875,-1.1898,4.8732,5.2959,-2.4377,-8.6299,4.5211,-2.1827,-7.1054,8.1542,-1.0255,3.9993,3.6222,-0.9268,-0.4969,1.6064,4.7881,-1.2903,6.7891,-0.1832
1058.5938,-0.7164,4.8719,6.7606,1.5108,-2.9810,3.2188,-1.6002,-4.1899,7.3558,0.2780,4.0238,6.7770,4.7793,7.4317,4.8393,10.2091,3.7969,7.9013,4.7625
1062.5000,-1.0685,5.1985,8.4986,5.6895,2.4506,1.3599,-0.2560,-0.4665,7.4660,1.1537,4.0510,10.7375,11.4492,14.8003,12.4810,11.4673,7.9364,9.9125,10.3487
1066.4062,-1.6423,5.4349,9.5413,8.5180,5.3551,0.0238,1.5202,2.1588,8.1329,1.3163,3.9388,13.7762,16.2367,18.1976,21.2704,8.6358,9.3927,11.6862,14.2418
1070.3125,-1.6356,5.3466,9.1738,8.9507,4.6209,0.0640,3.0372,2.2880,8.7826,0.7413,3.8567,14.5439,17.1912,16.4014,26.4224,4.1136,7.8956,12.1405,14.9770
1074.2188,-0.7206,5.1473,7.4257,7.1271,1.1335,1.4705,3.6444,-0.0202,9.0462,-0.2960,4.0178,12.7160,14.4287,11.3558,24.4548,0.8153,4.7362,10.9511,12.8471
1078.1250,0.7084,5.3171,5.0720,4.3462,-2.6764,3.3518,3.1319,-3.2385,8.9576,-1.2317,4.3603,9.0484,10.0160,6.9895,15.5279,0.2738,1.9320,8.7366,9.7003
1082.0312,1.8891,6.1187,3.1509,2.3349,-4.3262,4.5741,1.9010,-5.3273,8.8053,-1.3754,4.4703,4.8886,6.6184,6.5764,3.7395,1.9047,1.0047,6.6080,7.7421
1085.9375,2.3131,7.2467,2.3619,2.2735,-2.8362,4.5805,0.8104,-4.9950,8.8064,-0.2557,3.8360,1.5110,5.8342,10.4781,-4.9404,3.7387,2.1406,5.4390,8.1515
1089.8438,2.0740,7.9537,2.7587,4.2048,0.7181,3.7618,0.7697,-2.3992,8.9009,1.9940,2.2600,-0.3320,7.3481,15.9005,-5.9431,3.9124,4.2222,5.3953,10.4547
1093.7500,1.6668,7.6034,3.8968,7.1689,4.0306,3.1139,2.2805,1.1348,8.8380,4.4970,0.1214,-0.4841,9.4185,18.8649,1.3465,1.8342,5.6360,6.0278,13.0487
1097.6562,1.4635,6.2273,5.2439,9.9042,5.1701,3.4734,5.1554,4.0831,8.4620,5.9601,-1.7211,0.7956,10.2543,16.9904,13.2621,-1.6428,5.2886,6.7823,14.4352
1101.5625,1.3720,4.6235,6.5127,11.5998,3.8401,4.9408,8.5748,5.6386,7.9335,5.3880,-2.3445,3.0434,9.2537,11.1232,23.9186,-4.9315,3.1998,7.4796,14.2465
1105.4688,1.0035,3.8792,7.7015,12.2251,1.4587,6.9133,11.4688,5.9685,7.6799,2.7783,-1.2462,5.7123,7.2728,4.7210,28.4142,-6.6714,0.3832,8.3900,13.3552
1109.3750,0.1870,4.6445,8.9007,12.3170,0.0882,8.6278,13.0358,5.7777,8.0950,-0.7067,1.3861,8.2395,5.8600,1.5349,25.2996,-6.3328,-1.7982,9.8885,13.0776
1113.2812,-0.6847,6.6802,10.0934,12.4863,1.0457,9.7125,13.1187,5.6540,9.2172,-3.3161,4.7498,10.1501,6.1232,3.2789,16.9643,-4.2665,-2.3459,12.0136,14.1412
1117.1875,-0.8752,8.9950,11.1233,13.0291,4.1696,10.2835,12.2208,5.7410,10.6301,-3.7547,7.7666,11.1966,8.0558,8.8431,7.8976,-1.3839,-1.0171,14.3028,16.1959
1121.0938,0.0211,10.4489,11.8080,13.8542,8.1545,10.5629,11.1503,5.9069,11.6623,-2.0346,9.4924,11.4286,10.6997,15.3769,2.0255,1.2542,1.7160,16.0239,18.1683
1125.0000,1.5320,10.3829,12.0396,14.6564,11.5681,10.4371,10.5052,6.1102,11.7442,0.4774,9.4222,11.0945,12.8721,20.2407,0.7676,2.8001,4.9848,16.5987,19.0908
1128.9062,2.4551,8.8676,11.7567,15.1132,13.7276,9.4315,10.3193,6.5292,10.6871,1.9247,7.6207,10.4209,13.8483,22.3796,2.8548,2.9118,7.8853,15.8882,18.7193
1132.8125,1.7280,6.4876,10.8362,14.9539,14.8310,7.1908,10.0916,7.2971,8.7321,1.2165,4.6874,9.4461,13.5642,22.3250,5.7677,1.9212,9.7381,14.1587,17.4937
1136.7188,-0.5952,3.9183,9.0664,13.9369,15.3847,4.0597,9.1737,8.1135,6.3904,-1.1673,1.5802,8.0660,12.3550,21.1553,7.6572,0.7311,10.2217,11.8273,15.9676
1140.6250,-3.0833,1.6341,6.3020,11.8724,15.5017,1.1959,7.2587,8.1762,4.2107,-3.4083,-0.6832,6.2686,10.5802,19.4384,8.4293,0.3518,9.4052,9.2385,14.2524
1144.5312,-3.7352,-0.1068,2.7205,8.7624,14.6859,-0.0198,4.6427,6.6254,2.6079,-3.5227,-1.3942,4.3461,8.4577,16.9782,9.3698,1.2497,7.6880,6.6446,11.9695
1148.4375,-1.3855,-1.1261,-1.0399,4.9667,12.2673,1.0725,2.0890,3.2306,1.7927,-0.7249,-0.4556,2.8571,6.1516,13.3863,11.7371,2.9379,5.6388,4.3414,8.7413
1152.3438,3.2928,-1.2680,-4.0349,1.2184,8.1194,3.8071,0.3902,-1.2233,1.7630,3.9347,1.5539,2.3126,3.9110,8.8236,15.4411,4.1950,3.7803,2.7540,4.7871
1156.2500,7.9873,-0.5182,-5.4221,-1.6019,3.0664,6.4416,-0.0773,-5.2171,2.3133,8.1156,3.6443,2.8039,2.0587,4.2115,18.8069,3.8825,2.4182,2.3167,1.0866
1160.1562,10.1037,0.8245,-4.8888,-2.8398,-1.3597,7.1654,0.4842,-7.3168,3.0631,9.5884,4.9009,3.8736,0.8252,0.7556,19.6022,1.8218,1.6110,3.1944,-1.0838
1164.0625,8.3866,2.1407,-2.8279,-2.3602,-3.6719,5.2157,1.5017,-6.9747,3.5412,7.5831,4.9149,4.7529,0.1976,-0.7876,16.5879,-0.9608,1.2751,5.0604,-0.9403
1167.9688,3.6879,2.7403,-0.1599,-0.5808,-3.1978,1.3516,2.4421,-4.7586,3.3357,3.2097,3.8865,4.8023,-0.0628,-0.5039,10.4769,-2.9056,1.3117,7.1371,1.2578
1171.8750,-1.6345,2.2347,2.0811,1.7601,-0.3911,-2.6204,3.1334,-1.8814,2.2618,-1.3082,2.3459,3.8368,-0.2488,0.8776,3.6008,-3.0701,1.6307,8.5244,4.3004
1175.7812,-5.2320,0.7734,3.1600,3.9352,3.4679,-4.9264,3.7852,0.5886,0.4659,-4.0487,0.7234,2.1252,-0.5363,2.5413,-1.4988,-1.8768,2.0685,8.6331,6.7120
1179.6875,-6.1165,-1.0245,2.8707,5.4706,6.9559,-4.7960,4.7248,2.2579,-1.5930,-4.5048,-0.8845,0.1323,-0.9389,4.0460,-3.5904,-0.8107,2.3333,7.4677,7.5802
1183.5938,-4.9536,-2.3924,1.5409,6.2171,9.1697,-2.7414,6.0673,3.3630,-3.2836,-3.6794,-2.5693,-1.7340,-1.3677,5.4049,-3.3505,-1.2281,2.1263,5.6063,7.0093
1187.5000,-3.2268,-2.7759,-0.1276,6.3054,10.0398,-0.0754,7.5731,4.3039,-4.0149,-3.1665,-4.2373,-3.1717,-1.6777,6.8486,-2.6684,-3.1861,1.4185,3.9088,5.9512
1191.4062,-2.0222,-2.0283,-1.3113,6.0672,10.1956,1.9163,8.7976,5.2083,-3.4579,-3.9184,-5.3869,-3.8795,-1.6406,8.5299,-3.1941,-5.2691,0.6546,3.1201,5.5696
1195.3125,-1.3808,-0.3971,-1.3715,5.9438,10.5083,2.5982,9.4126,5.8723,-1.7139,-5.5869,-5.3222,-3.5312,-0.9357,10.3677,-5.1719,-5.6427,0.6144,3.5531,6.5487
1199.2188,-0.6345,1.6037,-0.1495,6.3350,11.5513,2.0971,9.4522,6.0461,0.6348,-6.8821,-3.7153,-1.9865,0.6979,12.0337,-7.3606,-3.5714,1.8914,4.9687,8.7302
1203.1250,0.6761,3.3353,1.8791,7.3761,13.2359,0.9821,9.2849,5.7279,2.6628,-6.6469,-1.0728,0.3898,3.1556,13.0077,-8.0360,-0.1946,4.3026,6.6842,11.2309
1207.0312,2.1432,4.1787,3.7443,8.7521,14.8009,-0.1726,9.3201,5.1595,3.4463,-4.8264,1.3519,2.6489,5.7408,12.6908,-6.2979,2.1373,6.7186,7.8725,12.9199
1210.9375,2.6729,3.7296,4.4439,9.7299,15.1979,-1.0622,9.6520,4.5374,2.5193,-2.6031,2.2701,3.6604,7.3244,10.6535,-2.7239,1.5518,7.5957,7.9485,12.9823
1214.8438,1.3684,2.0226,3.5197,9.4984,13.7184,-1.6841,9.9076,3.7486,0.2088,-1.5835,1.2443,2.8427,6.9528,7.0108,1.0722,-1.8901,5.9801,6.8782,11.2945
1218.7500,-1.6173,-0.3598,1.3790,7.6774,10.5356,-2.2166,9.4354,2.4385,-2.4059,-2.6285,-0.9256,0.6945,4.5665,2.7102,3.5909,-6.1140,2.3211,5.2271,8.4548
1222.6562,-4.9776,-2.4676,-0.9190,4.6589,6.8086,-2.8668,7.7379,0.4006,-3.9979,-5.1873,-2.6895,-1.3719,1.2665,-0.6045,4.4172,-8.4490,-1.5572,3.8603,5.4711
1226.5625,-7.0271,-3.4614,-2.3444,1.4833,4.1900,-3.7453,4.8790,-2.0522,-3.7491,-7.6362,-2.8406,-1.9251,-1.2150,-1.2998,4.2911,-7.5139,-3.4502,3.4085,3.2578
1230.4688,-6.7966,-3.1337,-2.6100,-0.7478,3.9403,-4.7756,1.5881,-4.1208,-1.9088,-8.3964,-1.4420,-0.5643,-1.6099,1.2610,4.2695,-4.1686,-2.1562,3.8120,2.1862
1234.3750,-4.6422,-2.0927,-2.3888,-1.5650,6.1556,-5.6656,-1.0361,-5.0176,0.2557,-7.0401,0.1276,1.6639,-0.0446,6.0897,4.6693,-0.8300,1.6745,4.2774,1.9237
1238.2812,-1.9421,-1.4007,-2.8264,-1.4378,9.6225,-5.9971,-2.0776,-4.5687,1.1756,-4.5989,0.1158,2.8822,1.9165,10.8562,4.6420,0.3112,5.8495,3.7515,1.6624
1242.1875,-0.1402,-1.8485,-4.6582,-1.4327,12.4650,-5.4528,-1.3035,-3.4142,-0.0382,-2.8634,-2.3107,1.6695,2.2535,13.0726,2.7396,-1.1762,7.9526,1.6558,0.6252
1246.0938,0.1458,-3.3674,-7.5756,-2.4279,13.2283,-4.0848,0.6734,-2.5837,-2.9826,-3.1762,-6.3531,-1.8904,-0.1249,11.5116,-1.9232,-3.7964,6.8196,-1.6149,-1.4398
1250.0000,-0.6639,-5.0341,-10.3385,-4.4303,11.7290,-2.4326,2.6726,-2.7300,-6.1581,-5.5599,-9.9926,-6.1854,-4.5709,6.9503,-8.7658,-5.3706,3.2049,-4.8170,-4.0754
1253.9062,-1.6377,-5.7091,-11.5868,-6.5032,9.1199,-1.3401,3.5291,-3.6146,-7.8782,-8.7537,-11.2696,-9.1297,-9.0600,1.7290,-15.7669,-4.6791,-0.7708,-6.5798,-6.3591
1257.8125,-2.1114,-4.8591,-10.7635,-7.3750,7.1333,-1.5050,2.6864,-4.2734,-7.3001,-11.0714,-9.5450,-9.5429,-11.4886,-1.5930,-20.4251,-2.2628,-2.9726,-6.2534,-7.4138
1261.7188,-2.1014,-2.9382,-8.4600,-6.3048,7.0094,-3.0145,0.5057,-3.7642,-4.8843,-11.4387,-5.8798,-7.8522,-10.9827,-1.6148,-21.0195,0.1363,-2.4822,-4.2877,-6.8541
1265.6250,-2.0935,-1.0245,-5.9267,-3.5835,8.8172,-5.1797,-1.8626,-1.9241,-1.9894,-9.9087,-2.3033,-5.6319,-8.3029,1.3345,-17.3828,0.9424,0.0542,-1.8652,-4.8960
1269.5312,-2.4639,0.0187,-4.1395,-0.3220,11.5676,-6.8277,-2.9890,0.4615,0.0810,-7.4006,-0.5185,-4.3726,-5.1253,5.6587,-10.8023,-0.1762,3.0577,-0.0560,-2.1116
1273.4375,-3.0625,0.1967,-3.1560,2.2940,13.9574,-6.9137,-1.8343,2.2200,0.8833,-4.9822,-0.9400,-4.4380,-2.8120,9.5200,-3.2814,-2.2804,5.0729,0.8736,0.9360
1277.3438,-3.3061,0.3243,-2.2598,3.7183,15.1650,-5.1018,1.7189,2.6493,0.9331,-3.2835,-2.6532,-4.9813,-1.6221,11.6924,3.2619,-4.0490,5.5063,1.4829,3.8845
1281.2500,-2.6880,1.2858,-0.7514,4.2188,15.1588,-1.9692,6.7170,2.0021,1.0855,-2.4126,-4.1974,-4.8154,-0.8932,11.8067,7.4213,-4.7610,4.6593,2.5125,6.4849
1285.1562,-1.2698,3.1991,1.2829,4.4403,14.4049,1.2811,11.4641,1.2283,1.7240,-2.2765,-4.5413,-3.4908,0.0778,10.1003,8.3535,-4.6034,3.2266,4.1028,8.3928
1289.0625,0.2534,5.1736,2.8855,4.7591,13.3244,3.4221,14.2231,1.1990,2.4072,-2.8848,-3.5968,-1.7079,1.2666,7.0975,5.7756,-4.1979,1.7555,5.5249,9.1189
1292.9688,0.9747,5.8931,2.9314,4.9656,11.9879,3.7823,13.9997,2.0399,2.2394,-4.3067,-2.0519,-0.7570,1.9207,3.5042,0.1477,-3.9083,0.4533,5.6748,8.2760
1296.8750,0.3723,4.6083,1.0776,4.5171,10.2629,2.5080,11.0432,3.0949,0.6605,-6.3361,-0.8023,-1.4671,1.2925,0.2275,-7.0888,-3.5929,-0.6482,3.9723,5.9685
1300.7812,-1.3449,1.7820,-1.8099,3.1192,8.2046,0.4173,6.7841,3.5179,-1.9788,-8.2544,-0.4483,-3.5161,-0.5650,-1.7758,-13.6327,-2.9686,-1.4532,0.9631,2.9790
1304.6875,-3.3569,-1.1177,-4.1311,1.1266,6.2643,-1.4411,3.1821,2.9846,-4.5154,-9.0405,-1.1276,-5.6368,-2.6616,-1.9319,-17.0874,-2.1465,-1.7592,-1.8786,0.5011
1308.5938,-4.6915,-2.5412,-4.6061,-0.5922,5.0744,-2.2899,1.7723,1.9417,-5.6872,-7.9927,-2.6189,-6.5295,-3.7507,-0.4880,-16.1413,-1.7394,-1.4300,-3.0537,-0.4961
1312.5000,-4.6977,-1.8270,-3.1290,-1.2355,4.9662,-1.9539,2.9023,1.2124,-4.9380,-5.3186,-4.4925,-5.7536,-3.2804,1.4930,-11.4580,-2.3693,-0.5772,-2.0123,0.1329
1316.4062,-3.2702,0.4651,-0.7903,-0.6334,5.6529,-0.8798,5.5987,1.3199,-2.7437,-2.1887,-6.1892,-3.9358,-1.8299,2.7504,-5.5652,-4.0095,0.4516,0.4960,1.5897
1320.3125,-0.7899,3.0405,0.9329,0.6567,6.3997,0.1612,8.1763,2.1089,-0.2613,-0.1175,-7.1098,-2.2111,-0.6610,2.6900,-1.6088,-5.8155,1.2732,2.9387,2.6251
1324.2188,2.0786,4.7588,1.2023,1.8039,6.5927,0.5470,9.2609,2.9726,1.4025,-0.0528,-6.8392,-1.4019,-0.7451,1.8178,-1.6275,-6.7036,1.6645,4.0014,2.3441
1328.1250,4.5802,5.2604,0.3146,2.3436,6.2561,0.2022,8.6187,3.4660,1.7713,-1.8083,-5.4518,-1.5815,-2.0504,1.3124,-5.4118,-6.2564,1.5762,3.3687,0.7763
1332.0312,6.0292,4.9437,-0.6449,2.4965,6.0665,-0.3328,7.2655,3.7530,1.0763,-4.2374,-3.6429,-2.2757,-3.6533,1.9894,-10.6914,-5.1821,0.9883,1.7815,-1.1798
1335.9375,5.9920,4.4375,-0.6642,2.9194,6.8084,-0.2601,6.7598,4.4791,-0.1127,-6.0049,-2.4494,-3.0146,-4.5501,3.4644,-14.5313,-4.8577,-0.1924,0.4121,-2.3946
1339.8438,4.4998,4.0624,0.4837,4.0953,8.6797,0.8639,8.1124,6.1646,-1.3408,-6.3892,-2.6266,-3.7010,-4.4755,4.2600,-15.0160,-6.2416,-2.0214,0.0602,-2.2722
1343.7500,2.1646,3.6906,2.1597,5.8548,11.0133,2.6604,11.0205,8.6336,-2.4640,-5.5642,-4.0915,-4.5065,-4.0480,2.8890,-12.1442,-9.0024,-4.2561,0.7251,-1.1124
1347.6562,0.0215,3.0185,3.3695,7.4098,12.6761,3.9917,13.9557,10.9866,-3.5254,-4.2481,-5.9032,-5.4707,-4.1438,-0.8649,-7.4538,-11.6009,-6.2168,1.7610,0.1546
1351.5625,-0.9447,1.9239,3.4102,7.8741,12.8696,3.6351,15.0860,12.1755,-4.5262,-3.0840,-6.8903,-6.2547,-5.0559,-5.4949,-2.7975,-12.3300,-7.0109,2.3877,0.6336
1355.4688,-0.3700,0.5753,2.1843,6.8691,11.7206,1.1966,13.4550,11.7344,-5.3452,-2.2714,-6.5120,-6.3336,-6.1725,-8.6010,0.7729,-10.5491,-6.0693,2.1352,0.0361
1359.3750,1.2021,-0.7465,0.0627,4.7652,10.1952,-2.3677,9.6452,10.0788,-5.8644,-1.6775,-5.2821,-5.4822,-6.4664,-8.4712,3.2581,-7.1730,-3.6332,0.9629,-1.2254
1363.2812,2.5854,-1.8706,-2.4507,2.4047,9.3908,-5.0983,5.4737,8.1376,-6.1286,-1.2204,-4.3630,-4.0967,-5.3914,-5.2638,5.0893,-4.0348,-0.7698,-0.8916,-2.4289
1367.1875,2.6847,-2.7403,-4.9168,0.5535,9.7494,-5.1640,2.9018,6.6283,-6.3272,-1.0951,-4.5803,-3.0035,-3.4231,-0.8919,6.3076,-2.6053,1.1972,-3.0881,-3.0751
1371.0938,1.2492,-3.2068,-6.9190,-0.4989,10.7952,-2.1098,2.8584,5.5787,-6.5717,-1.6075,-5.6206,-2.8431,-1.7564,2.3320,6.3151,-3.0246,1.5185,-5.2186,-3.1552
1375.0000,-0.8763,-2.8847,-7.9697,-0.9305,11.5831,2.6431,4.7355,4.4777,-6.6703,-2.7799,-6.1059,-3.5101,-1.3696,3.2960,4.4296,-4.1305,0.5378,-6.7595,-2.9919
1378.9062,-2.2261,-1.3357,-7.6190,-1.0637,11.4781,6.4883,6.8615,2.9008,-6.1582,-4.1413,-4.5948,-4.1345,-2.2015,2.7557,0.7601,-4.3885,-0.4889,-7.1390,-2.8457
1382.8125,-1.6419,1.4635,-5.7941,-1.0552,10.6297,7.1812,7.6147,1.0396,-4.6409,-4.9635,-0.8112,-3.6791,-3.1282,2.5983,-3.3878,-2.9742,-0.1891,-6.0155,-2.6458
1386.7188,0.9514,4.7538,-3.1009,-0.8694,9.7671,4.2789,6.4288,-0.3582,-2.2208,-4.7935,3.8507,-1.7355,-2.8025,4.2902,-6.0159,-0.2193,2.0423,-3.6215,-2.0810
1390.6250,4.4456,7.1395,-0.7470,-0.5160,9.5009,-0.4931,4.0464,-0.6288,0.3483,-3.8289,7.0194,1.0794,-0.7326,7.6851,-5.5771,2.8045,5.6522,-0.8722,-0.9738
1394.5312,7.1989,7.3031,0.0005,-0.2838,9.7283,-4.2455,1.9001,0.1137,1.9704,-2.7761,6.8324,3.4401,2.2304,11.0645,-1.9679,5.1202,9.2636,0.9567,0.3864
1398.4375,7.9984,4.8566,-1.4769,-0.7021,9.6538,-4.6972,1.0788,0.8463,1.8242,-2.2701,3.1949,4.1310,4.3859,12.3381,3.3280,6.4095,11.4738,0.8669,1.2525
1402.3438,6.7028,0.7000,-4.7636,-2.2114,8.4269,-1.5894,1.5879,0.2553,-0.1264,-2.3365,-2.0836,2.7970,4.3047,10.4899,8.0413,6.9421,11.5763,-1.2956,0.8121
1406.2500,4.1773,-3.4451,-8.6447,-4.8030,5.8796,3.1613,2.3764,-2.3227,-3.0908,-2.3785,-6.3912,0.1207,1.7606,6.2244,10.3158,7.0661,9.7850,-4.7371,-1.2983
1410.1562,1.6365,-6.0592,-11.8256,-7.9417,2.7442,6.6552,2.0817,-6.3546,-5.9218,-1.7393,-7.8997,-2.6535,-2.1881,1.4151,9.5453,6.7788,6.9183,-8.1698,-4.7271
1414.0625,-0.1013,-6.7015,-13.6443,-10.8673,0.1484,6.7685,-0.0234,-10.3970,-7.7731,-0.3784,-6.5764,-4.4844,-5.9835,-2.1638,6.4315,5.7344,3.8502,-10.5404,-8.5862
1417.9688,-0.9429,-6.1205,-14.3042,-13.0527,-1.2200,3.3756,-3.4923,-13.0183,-8.4997,0.9450,-4.0014,-5.0718,-8.6035,-3.8828,2.4074,3.6192,1.1105,-11.5589,-11.9518
1421.8750,-1.2873,-5.5440,-14.5107,-14.4539,-1.5932,-1.6767,-6.8989,-13.6687,-8.5586,1.2004,-2.2152,-4.8655,-10.0932,-4.3934,-1.0845,0.5134,-1.1782,-11.7003,-14.3324
1425.7812,-1.5117,-5.7063,-14.8313,-15.3493,-1.8345,-5.7415,-8.6210,-12.8606,-8.5367,-0.0587,-2.4366,-4.6259,-11.2556,-4.8841,-3.0560,-3.0664,-3.1054,-11.7171,-15.7828
1429.6875,-1.6291,-6.3498,-15.2636,-15.9113,-2.5889,-6.9002,-7.7307,-11.5736,-8.6840,-2.2262,-4.4636,-4.8834,-12.8078,-6.0893,-3.1195,-6.4225,-4.7381,-12.0277,-16.6115
1433.5938,-1.3701,-6.5542,-15.3021,-15.8878,-3.5726,-4.9296,-4.4884,-10.4047,-8.7890,-4.0057,-7.0132,-5.6368,-14.6827,-7.7698,-1.4957,-8.9527,-6.0091,-12.4065,-16.9399
1437.5000,-0.5606,-5.5900,-14.4011,-14.7060,-3.6338,-1.2230,-0.1975,-9.1640,-8.4451,-4.3754,-8.6115,-6.4224,-16.0039,-8.9649,0.9956,-10.2322,-6.7498,-12.1689,-16.4845
1441.4062,0.5793,-3.5968,-12.4535,-11.9680,-1.6272,2.1515,3.4582,-7.2285,-7.4597,-3.4000,-8.3944,-6.6450,-15.7310,-8.7522,3.0670,-9.9497,-6.7910,-10.7035,-14.7670
1445.3125,1.5087,-1.5426,-9.9333,-7.9633,2.5266,3.6153,5.2181,-4.3246,-6.0691,-2.2034,-6.3951,-5.9443,-13.4777,-6.9534,3.4046,-7.9342,-6.0625,-7.9804,-11.6150
1449.2188,1.7696,-0.5028,-7.6256,-3.7611,7.4413,2.8078,4.7791,-1.0496,-4.7967,-2.0670,-3.3299,-4.4039,-9.8958,-4.3317,1.3734,-4.3846,-4.6612,-4.6938,-7.5649
1453.1250,1.3808,-0.8357,-6.1619,-0.7281,10.9335,0.5727,2.8265,1.3601,-4.0760,-3.3434,-0.1728,-2.5141,-6.3502,-2.1940,-2.4257,-0.1091,-2.8772,-1.9407,-3.7981
1457.0312,0.8687,-1.8992,-5.6794,0.2529,11.3838,-1.6623,0.5912,1.8878,-3.9326,-5.0674,2.2117,-0.9216,-4.1112,-1.6608,-6.2715,3.5856,-1.1400,-0.6226,-1.5575
1460.9375,0.8772,-2.5247,-5.7942,-0.6614,8.8609,-2.6923,-0.8037,0.5671,-3.9641,-5.6335,3.3011,-0.0857,-3.6098,-3.0129,-8.2646,5.4955,0.1416,-0.9215,-1.3815
1464.8438,1.6533,-1.8730,-5.8529,-2.3431,5.1903,-2.1011,-0.8585,-1.3906,-3.6315,-4.0604,3.0514,-0.0216,-4.2373,-5.4565,-7.5964,5.2861,0.7969,-2.1609,-2.6821
1468.7500,2.8323,-0.0239,-5.2825,-3.3649,2.8615,-0.3505,0.1881,-2.3316,-2.6500,-0.8673,1.9341,-0.2907,-4.7946,-7.4442,-5.2422,3.8080,1.0187,-3.1488,-4.0173
1472.6562,3.7167,2.1210,-3.8531,-2.8451,3.4753,1.5830,1.6776,-1.2598,-1.2135,2.1526,0.7729,-0.2908,-4.2862,-7.4428,-3.4365,2.5627,1.2502,-2.8368,-3.9608
1476.5625,3.8471,3.5073,-1.7631,-0.9221,6.7610,2.7892,3.0607,1.4860,0.0941,3.1380,0.3308,0.2958,-2.5569,-4.8100,-4.1473,2.5744,1.8393,-0.9402,-2.0381
1480.4688,3.4045,3.6418,0.4518,1.4199,10.8071,2.9072,4.2798,4.4679,0.6333,1.4612,0.8078,1.1875,-0.3916,-0.3161,-7.5888,3.4964,2.6803,1.8399,0.8973
1484.3750,3.0946,2.8361,2.1334,3.0212,13.3303,2.2549,5.7314,6.1308,0.0775,-1.8438,1.5986,1.5870,0.9627,4.0665,-11.9216,3.7373,3.1531,4.1560,3.1471
1488.2812,3.5684,1.8603,2.7692,3.2520,13.1286,1.5428,7.8176,5.8364,-1.3984,-4.8407,1.5857,0.6880,0.5579,6.1399,-14.4950,1.6706,2.4999,4.7615,3.2437
1492.1875,4.8185,1.3301,2.2149,2.3123,10.7815,1.3455,10.4015,4.2395,-3.2027,-6.0556,-0.1189,-1.6990,-1.6671,4.7725,-13.8114,-2.9071,0.4399,3.2519,0.9298
1496.0938,6.0473,1.3063,0.7595,0.9905,8.1946,1.6701,12.6034,2.7820,-4.6257,-5.4352,-3.4599,-4.8547,-4.8121,0.7449,-10.7538,-8.2347,-2.4274,0.3424,-2.6226
1500.0000,6.1653,1.3607,-1.0281,0.0990,7.3465,1.9215,13.1796,2.6919,-5.1888,-4.2272,-7.3115,-7.4761,-7.5047,-3.4843,-8.0689,-11.5366,-4.8064,-2.5266,-5.5303
1503.9062,4.5956,0.9826,-2.6126,-0.0261,9.0635,1.3235,11.3227,4.1799,-4.8727,-3.9453,-10.1183,-8.4692,-8.6682,-5.1120,-8.3761,-10.9166,-5.4493,-4.0512,-6.4020
1507.8125,1.7965,-0.0339,-3.7820,0.3329,12.5603,-0.4684,7.3662,6.3388,-4.1238,-5.2426,-10.9097,-7.6856,-8.1217,-2.7022,-12.1406,-6.8364,-3.9888,-3.8658,-5.2293
1511.7188,-0.9091,-1.5066,-4.7124,0.5240,15.9489,-2.9956,2.8587,7.7491,-3.6394,-7.5199,-9.9641,-6.0577,-6.6511,2.8015,-17.1625,-2.0116,-1.2555,-2.7557,-3.3612
1515.6250,-2.1209,-3.0862,-5.7476,-0.0348,17.3326,-5.1756,-0.1598,7.3494,-4.0326,-9.4745,-8.6093,-4.9860,-5.5034,8.4878,-20.0528,0.3218,1.1921,-2.1129,-2.5700
1519.5312,-1.2418,-4.5421,-7.0458,-1.4954,15.8190,-5.9691,-0.3017,5.0272,-5.5274,-10.0769,-8.2778,-5.3766,-5.6092,11.1414,-18.6662,-1.4104,2.0369,-2.9731,-3.8369
1523.4375,1.1472,-5.8661,-8.3654,-3.4776,11.9254,-5.1041,2.3163,1.6308,-7.8272,-9.2068,-9.5012,-7.0076,-7.0139,9.1395,-13.6883,-6.0582,0.9998,-5.2730,-6.6773
1527.3438,3.6643,-7.1384,-9.1729,-5.2406,7.2504,-3.3384,6.0911,-1.5152,-10.2210,-7.5366,-11.5813,-8.6869,-8.8731,3.3701,-8.1654,-10.5869,-1.0902,-7.8370,-9.4552
1531.2500,4.9849,-8.3138,-9.0115,-6.0196,3.6700,-2.0306,8.8545,-3.2621,-11.8828,-5.8810,-13.1564,-9.0945,-10.0098,-3.3985,-5.3062,-12.2021,-2.9683,-9.1182,-10.4590
1535.1562,4.6033,-9.1382,-7.8526,-5.3691,2.4952,-2.2682,9.1319,-3.1168,-12.2238,-4.6154,-13.2011,-7.7029,-9.6617,-8.2362,-6.2036,-10.2079,-3.8209,-8.1966,-9.0016
1539.0625,3.0262,-9.2752,-6.1570,-3.3779,3.9630,-4.1330,6.9419,-1.3772,-11.1315,-3.6085,-11.6857,-5.1176,-7.9307,-9.6943,-9.1979,-6.2722,-3.7231,-5.3678,-5.8178
1542.9688,1.3440,-8.5349,-4.5904,-0.6717,7.2279,-6.6128,3.6500,1.0627,-8.9903,-2.6194,-9.4337,-2.6235,-5.6571,-8.3332,-11.3483,-2.9987,-3.3507,-1.9442,-2.5336
1546.8750,0.5325,-7.0213,-3.6163,1.8088,10.8001,-8.2381,1.0183,3.1091,-6.4891,-1.7122,-7.3703,-1.3042,-3.8394,-5.9322,-10.8531,-1.9726,-3.2724,0.5621,-0.6231
1550.7812,0.9527,-5.0912,-3.2750,3.1844,13.2119,-8.0205,0.1167,3.9100,-4.3221,-1.2759,-5.8302,-1.3920,-3.0230,-4.0919,-8.5191,-2.7812,-3.4424,1.2991,-0.5726
1554.6875,2.3009,-3.1761,-3.2960,3.0168,13.6264,-6.0699,0.8039,3.1862,-2.9277,-1.6421,-4.4881,-2.2846,-3.0732,-3.2747,-7.1157,-3.6800,-3.3102,0.4212,-1.7716
1558.5938,3.9189,-1.6075,-3.4075,1.5130,12.1340,-3.4941,2.0476,1.3301,-2.3707,-2.6795,-2.9120,-3.1342,-3.4390,-2.8785,-9.0948,-3.2575,-2.4216,-1.2274,-3.1016
1562.5000,5.1759,-0.5556,-3.5513,-0.5631,9.6191,-1.6826,2.7643,-0.7885,-2.3946,-3.7759,-1.1923,-3.5005,-3.6535,-2.1049,-14.4460,-1.6883,-0.9593,-2.7762,-3.7267
1566.4062,5.6885,-0.0751,-3.8241,-2.2482,7.2754,-1.4730,2.5406,-2.2382,-2.5972,-4.2677,-0.0444,-3.5687,-3.6641,-0.8156,-20.3823,-0.5556,0.2746,-3.8294,-3.5238
1570.3125,5.3530,-0.1723,-4.2358,-2.8342,6.0222,-2.7421,1.7614,-2.4692,-2.6465,-3.9628,-0.2590,-3.8333,-3.7621,0.3159,-23.1599,-1.4181,0.4530,-4.5076,-2.9342
1574.2188,4.3106,-0.8179,-4.5659,-2.1875,6.1227,-4.6333,1.1465,-1.5453,-2.4484,-3.2994,-1.9665,-4.5824,-4.2195,0.4146,-20.7092,-4.3311,-0.5886,-5.1236,-2.4720
1578.1250,2.9347,-1.9125,-4.5159,-0.7746,7.1799,-6.1966,1.1200,-0.0394,-2.2003,-2.9814,-4.3803,-5.6366,-4.9751,-0.7930,-14.1272,-7.5723,-2.1593,-5.8465,-2.3389
1582.0312,1.7922,-3.2717,-4.0629,0.5987,8.4646,-6.9801,1.4991,1.3296,-2.3005,-3.3819,-6.2921,-6.5332,-5.6472,-2.6685,-6.9418,-8.8462,-3.1992,-6.6383,-2.4259
1585.9375,1.4597,-4.6795,-3.6806,1.1761,9.3378,-7.2083,1.6806,2.0746,-3.1395,-4.2165,-6.9533,-6.9467,-5.8579,-4.0879,-2.7150,-7.0412,-3.0717,-7.4457,-2.6138
1589.8438,2.1800,-5.9868,-4.1411,0.5611,9.5117,-7.5044,1.1096,2.0975,-4.8583,-4.7757,-6.6159,-6.9477,-5.5755,-4.2437,-2.7566,-3.1463,-2.0216,-8.3834,-3.0291
1593.7500,3.5523,-7.1718,-5.9542,-1.1800,9.0350,-8.4098,-0.3639,1.5629,-7.2000,-4.5407,-6.2643,-6.8745,-5.1646,-3.1812,-5.5572,0.4174,-0.9273,-9.6715,-3.9830
1597.6562,4.5472,-8.3003,-8.8489,-3.6241,8.0938,-10.0293,-2.4832,0.6435,-9.5554,-3.6768,-6.7354,-6.9535,-5.0812,-1.6791,-8.2124,1.5597,-0.5504,-11.3504,-5.6354
1601.5625,3.9930,-9.4053,-11.7564,-6.2095,6.8256,-11.9835,-4.8539,-0.6315,-11.2098,-2.9817,-7.9510,-7.0354,-5.4677,-0.6212,-8.6415,0.0323,-0.9029,-13.0533,-7.7053
1605.4688,1.3351,-10.3784,-13.4103,-8.4557,5.2838,-13.6225,-7.1953,-2.3073,-11.6764,-3.2934,-8.9195,-6.7099,-6.0047,-0.3801,-6.9200,-2.4618,-1.2558,-14.1141,-9.5372
1609.3750,-2.8014,-10.9672,-13.1896,-10.1112,3.5362,-14.3205,-9.3502,-4.3036,-10.9320,-4.7955,-8.5430,-5.7214,-6.1741,-0.6707,-4.8477,-3.6252,-0.7900,-14.0105,-10.5357
1613.2812,-6.6922,-10.8953,-11.5871,-11.2014,1.7618,-13.6882,-11.0940,-6.2990,-9.4132,-6.7509,-6.5899,-4.3291,-5.7417,-0.9177,-4.2751,-2.3418,0.6387,-12.8228,-10.6464
1617.1875,-8.3117,-10.0343,-9.9153,-11.9673,0.2255,-11.6561,-11.9898,-7.8409,-7.7716,-7.8804,-4.0292,-3.2763,-5.0583,-0.7853,-5.6013,0.4754,2.2486,-11.3116,-10.4716
1621.0938,-6.4418,-8.5172,-9.4157,-12.7063,-0.8614,-8.4677,-11.5112,-8.6151,-6.5387,-7.1370,-2.4159,-3.3471,-4.8993,-0.4479,-7.5947,2.5684,2.8115,-10.4753,-10.8698
1625.0000,-1.4355,-6.7249,-10.4025,-13.5619,-1.4745,-4.6393,-9.4093,-8.6522,-5.9030,-4.3571,-2.7771,-4.8257,-5.9219,-0.4415,-8.5594,1.9950,1.5028,-10.8648,-12.2989
1628.9062,4.8511,-5.1525,-12.0607,-14.3652,-1.7786,-0.8926,-6.0486,-8.2774,-5.7211,-0.3845,-4.8607,-7.2606,-8.1360,-1.2813,-7.8125,-1.4919,-1.5247,-12.1534,-14.3905
1632.8125,9.9453,-4.2256,-13.0492,-14.6470,-1.9839,1.9693,-2.4120,-7.8237,-5.7186,3.3633,-7.3299,-9.7068,-10.7989,-3.1553,-6.2635,-6.3300,-5.2534,-13.3107,-16.1033
1636.7188,11.9620,-4.1482,-12.4580,-13.8674,-2.1691,3.2608,0.3106,-7.3360,-5.7111,5.5769,-8.7437,-11.2624,-12.8333,-5.8617,-5.6740,-10.2916,-8.4707,-13.2861,-16.3775
1640.6250,10.4541,-4.8358,-10.4232,-11.7681,-2.2098,2.6509,1.3213,-6.5253,-5.6857,5.5891,-8.5547,-11.5228,-13.4730,-8.9138,-7.2367,-11.9650,-10.4548,-11.7277,-14.8333
1644.5312,6.4839,-5.9546,-7.9767,-8.6340,-1.8634,0.3458,0.6221,-5.0338,-5.7112,3.5416,-7.3664,-10.6757,-12.6755,-11.6465,-10.6046,-11.4882,-11.1834,-9.2241,-12.0143
1648.4375,1.9578,-7.0531,-6.2911,-5.2646,-0.9374,-2.8836,-1.0261,-2.8149,-5.7900,0.2136,-6.3097,-9.2543,-11.0270,-13.2690,-14.0879,-10.1072,-11.0047,-6.9094,-9.0131
1652.3438,-1.3482,-7.7509,-5.9158,-2.6235,0.5848,-5.8968,-2.5571,-0.3174,-5.8132,-3.3224,-6.1012,-7.8017,-9.2601,-12.9818,-15.8097,-9.0449,-10.1522,-5.7364,-6.7711
1656.2500,-2.5562,-7.9150,-6.5552,-1.3621,2.5312,-7.5846,-3.1741,1.6963,-5.6794,-6.0704,-6.5721,-6.6966,-7.7879,-10.2849,-14.9307,-8.6249,-8.5709,-5.9461,-5.5744
1660.1562,-1.9289,-7.7390,-7.4875,-1.5222,4.6080,-7.3540,-2.7123,2.5829,-5.4857,-7.4282,-7.0234,-6.1926,-6.6077,-5.4035,-12.1003,-8.2860,-6.1947,-7.0847,-5.0933
1664.0625,-0.5752,-7.6624,-8.2244,-2.6190,6.4642,-5.4872,-1.6314,2.1862,-5.6047,-7.3993,-7.0488,-6.5183,-5.6012,0.4764,-8.9504,-7.3513,-3.3797,-8.4890,-4.8794
1667.9688,0.1667,-8.1412,-8.8694,-4.0422,7.7202,-3.1458,-0.7085,0.8712,-6.5257,-6.6055,-7.0662,-7.8543,-4.9135,5.4769,-7.1245,-5.8265,-1.0294,-9.8157,-4.8796
1671.8750,-0.6246,-9.3778,-9.9165,-5.4778,8.0065,-1.9071,-0.6417,-0.7791,-8.5150,-6.0186,-8.0463,-10.1558,-5.0284,7.8197,-7.5272,-4.5292,-0.1957,-11.1940,-5.5272
1675.7812,-3.0274,-11.1607,-11.7014,-7.0324,7.0814,-2.9580,-1.7501,-2.3487,-11.3108,-6.4557,-10.6187,-12.9783,-6.4173,6.7468,-10.1285,-4.4457,-1.3953,-12.9099,-7.3191
1679.6875,-6.2299,-12.9211,-13.9754,-8.9662,5.0149,-6.3296,-3.8577,-3.7463,-14.0880,-8.0727,-14.2930,-15.5041,-9.0172,2.9879,-14.1765,-5.8523,-4.1548,-14.9166,-10.2189
1683.5938,-8.8968,-13.9906,-15.9421,-11.2497,2.3176,-10.6508,-6.3580,-5.0326,-15.7717,-10.1781,-17.4881,-16.8334,-11.9772,-1.5742,-18.4768,-7.9301,-7.1610,-16.6010,-13.3825
1687.5000,-9.8263,-13.9188,-16.7123,-13.3132,-0.1387,-13.6931,-8.4304,-6.0972,-15.5539,-11.5587,-18.4431,-16.3928,-13.9499,-4.8745,-21.6013,-9.2092,-8.9520,-17.0323,-15.4825
1691.4062,-8.6030,-12.6757,-15.8196,-14.2295,-1.4432,-13.5316,-9.3575,-6.5007,-13.3195,-11.1841,-16.3759,-14.2120,-13.8002,-5.6710,-22.1758,-8.5358,-8.6878,-15.5358,-15.4529
1695.3125,-5.8863,-10.6355,-13.4387,-13.2500,-1.0640,-9.7012,-8.8495,-5.6645,-9.7319,-8.8756,-12.0405,-10.8999,-11.2771,-3.9733,-19.4096,-5.8628,-6.4979,-12.1841,-13.1519
1699.2188,-3.1072,-8.3752,-10.2186,-10.3337,0.8893,-3.6187,-7.2199,-3.3006,-5.9227,-5.4949,-7.2718,-7.3464,-7.1929,-0.7062,-13.7073,-2.3053,-3.2323,-7.8555,-9.4817
1703.1250,-1.6744,-6.4217,-6.9313,-6.2912,3.7312,2.0897,-5.2712,0.2393,-2.9662,-2.4952,-3.8637,-4.3388,-2.9814,3.0464,-6.8735,0.5612,0.1321,-3.8165,-5.8793
1707.0312,-2.1306,-5.0833,-4.2122,-2.4254,6.5514,5.0391,-3.8890,3.9824,-1.4306,-1.0939,-2.5944,-2.3044,0.0715,6.6233,-1.4877,1.6596,2.9839,-1.1150,-3.5279
1710.9375,-3.8000,-4.4221,-2.5013,0.1067,8.6178,4.4533,-3.5448,6.7480,-1.2343,-1.5793,-3.0490,-1.2780,1.4269,9.8204,0.4310,0.9904,5.1753,-0.1611,-2.8066
1714.8438,-5.2030,-4.3272,-2.0766,0.8077,9.5871,1.5760,-4.0222,7.7027,-1.8400,-3.1759,-4.2433,-1.0487,1.3747,12.4888,-1.2911,-0.5005,6.7788,-0.7089,-3.2943
1718.7500,-5.0139,-4.6103,-3.0171,-0.0605,9.4476,-1.1619,-4.5792,6.7138,-2.6283,-4.5269,-5.4508,-1.3546,0.6224,14.1623,-4.6726,-1.6052,7.7944,-2.1599,-4.2397
1722.6562,-2.9419,-5.0696,-5.0704,-1.7834,8.3291,-1.6905,-4.4719,4.3093,-3.2140,-4.4693,-6.5618,-2.0098,-0.2587,14.1196,-6.6298,-1.5985,8.0688,-3.9234,-5.1028
1726.5625,0.0667,-5.5252,-7.5843,-3.6422,6.3855,0.4512,-3.4902,1.3213,-3.5426,-2.6271,-7.7667,-2.9160,-1.1368,11.8828,-4.8353,-0.5821,7.4478,-5.6017,-5.7868
1730.4688,2.4627,-5.8471,-9.6801,-5.2067,3.8380,3.9773,-2.1170,-1.5289,-3.7632,0.4812,-8.9632,-3.9868,-2.2128,7.7439,0.8060,0.7205,5.9767,-6.9603,-6.4656
1734.3750,3.1319,-5.9857,-10.6591,-6.3565,1.0756,6.8648,-1.1790,-3.8694,-4.0132,3.8028,-9.5137,-5.0558,-3.6661,2.8443,8.0679,1.5133,3.9446,-7.8180,-7.2345
1738.2812,2.1127,-5.9809,-10.3988,-7.1378,-1.3708,7.7585,-1.2380,-5.6674,-4.2794,6.3019,-8.6459,-5.8524,-5.3741,-1.3394,13.7760,1.4425,1.7378,-8.0212,-7.9207
1742.1875,0.4980,-5.9281,-9.4321,-7.6423,-3.0493,6.7743,-2.1813,-7.0686,-4.4251,7.3875,-6.1915,-6.0932,-6.9311,-3.7825,15.7094,0.7725,-0.3568,-7.5468,-8.2138
1746.0938,-0.3894,-5.9101,-8.6045,-7.9977,-3.8644,5.1842,-3.3299,-8.2286,-4.3367,7.0538,-3.0033,-5.6690,-7.9338,-4.4293,13.7575,0.1608,-2.2302,-6.6272,-7.9860
1750.0000,0.0652,-5.9421,-8.5203,-8.4016,-4.1657,4.3027,-3.9848,-9.2149,-4.0615,5.7605,-0.5974,-4.8174,-8.2907,-4.0842,9.6314,0.2021,-3.8713,-5.7403,-7.4983
1753.9062,1.3953,-5.9721,-9.1655,-9.0711,-4.5214,4.4681,-3.9820,-9.9767,-3.8177,4.1819,-0.1896,-4.1251,-8.3030,-3.7786,5.4823,1.0293,-5.2367,-5.4075,-7.2821
1757.8125,2.4833,-5.9372,-9.9764,-10.0838,-5.3125,4.8895,-3.8073,-10.3588,-3.8557,2.9477,-1.8185,-4.2722,-8.4477,-4.0824,2.5179,2.2073,-6.2072,-5.8952,-7.7570
1761.7188,2.4370,-5.8289,-10.2912,-11.2376,-6.4624,4.4295,-4.1679,-10.1687,-4.2698,2.4428,-4.2468,-5.6006,-9.0220,-4.8339,0.5944,2.9880,-6.6602,-7.0192,-8.8768
1765.6250,1.2389,-5.7122,-9.8407,-12.0988,-7.5419,2.6593,-5.3533,-9.3159,-4.9052,2.7025,-5.7729,-7.7676,-9.9082,-5.4251,-1.0666,2.7860,-6.5676,-8.2020,-10.0916
1769.5312,-0.2957,-5.6858,-8.9200,-12.2760,-8.1902,0.3304,-6.9068,-7.9800,-5.4434,3.4336,-5.3932,-9.7720,-10.6258,-5.3697,-2.7644,1.5970,-6.0068,-8.7759,-10.6840
1773.4375,-1.1742,-5.8192,-8.1408,-11.7445,-8.5081,-1.1148,-7.8919,-6.6822,-5.6231,4.1740,-3.4701,-10.4408,-10.6341,-4.7059,-3.7906,0.0912,-5.0787,-8.3584,-10.2454
1777.3438,-0.9624,-6.1139,-7.9766,-10.9485,-9.0639,-0.6014,-7.5683,-6.1271,-5.4404,4.5386,-1.4167,-9.1372,-9.6760,-3.9543,-2.9301,-0.7110,-3.8350,-7.0712,-8.9487
1781.2500,-0.0405,-6.5010,-8.4449,-10.5406,-10.4419,1.7893,-5.9504,-6.8188,-5.1710,4.4317,-0.6333,-6.2297,-7.9348,-3.6996,0.4250,-0.0206,-2.3116,-5.4620,-7.4140
1785.1562,0.7761,-6.8485,-9.1245,-10.8956,-12.6530,4.9136,-3.8007,-8.6528,-5.1730,4.0958,-1.4852,-2.9517,-5.9083,-4.1295,5.4735,2.2254,-0.6432,-4.1715,-6.2656
1789.0625,0.9102,-6.9506,-9.4420,-11.7496,-14.8867,7.4481,-2.0465,-10.7871,-5.5946,3.9569,-3.0666,-0.6742,-4.0964,-4.8621,10.2035,5.2760,0.8831,-3.5495,-5.6993
1792.9688,0.4482,-6.5261,-8.9860,-12.2681,-15.8722,8.8453,-1.0731,-11.9688,-6.1998,4.3568,-3.9012,-0.0499,-2.7149,-5.1614,12.5178,7.9632,1.9510,-3.4606,-5.3694
1796.8750,0.0063,-5.2895,-7.6561,-11.5530,-14.6611,9.6062,-0.4548,-11.1991,-6.4694,5.3451,-3.0421,-0.6285,-1.6235,-4.3817,11.5212,9.3499,2.4631,-3.4100,-4.6703
1800.7812,0.1818,-3.1352,-5.6334,-9.2652,-11.3014,10.6742,0.6457,-8.3432,-5.9512,6.6592,-0.7593,-1.2459,-0.5089,-2.3572,8.0932,9.2205,2.6975,-2.9188,-3.2059
1804.6875,1.0440,-0.3610,-3.2977,-5.9288,-6.9113,12.4686,2.7099,-4.2749,-4.6421,7.8882,1.6569,-0.9360,0.8070,0.4739,4.3875,8.1128,3.1742,-1.9179,-1.1198
1808.5938,2.0556,2.2388,-1.1882,-2.6870,-3.0668,14.3626,5.3216,-0.4244,-3.1330,8.6913,2.7875,0.2936,2.1482,3.2565,2.6206,6.9001,4.2609,-0.8969,0.9343
1812.5000,2.4565,3.5730,0.0295,-0.6652,-0.9049,15.0469,7.2905,2.0018,-2.3762,8.9254,1.9966,1.4103,3.0197,5.1061,3.9166,6.2357,5.8028,-0.6892,2.1468
1816.4062,1.7896,2.7416,-0.2938,-0.3690,-0.5358,13.5059,7.3752,2.6275,-3.1751,8.6287,-0.2673,1.0994,2.8923,5.5180,7.8369,6.2344,7.1113,-1.9972,1.9877
1820.3125,0.1806,-0.4201,-2.5020,-1.5109,-1.1404,9.8375,5.0905,1.9550,-5.6932,7.9251,-2.9116,-1.2250,1.5644,4.6166,12.7237,6.5574,7.4006,-4.9425,0.4533
1824.2188,-1.7897,-5.0865,-6.3461,-3.3445,-1.6468,5.2761,1.0284,0.8597,-9.2867,6.9583,-4.9712,-4.8893,-0.6435,3.1179,16.5298,6.7535,6.3845,-8.9245,-1.9990
1828.1250,-3.4636,-9.7119,-10.9403,-5.2272,-1.5012,1.4064,-3.5112,-0.0803,-12.7775,5.9028,-6.1158,-8.3159,-3.0174,1.9786,17.6672,6.5430,4.5613,-12.8927,-4.7413
1832.0312,-4.4316,-12.7460,-15.0918,-6.9990,-1.0228,-0.8132,-7.2789,-0.9399,-15.0230,5.0016,-6.5901,-10.0295,-4.8504,1.8576,15.5607,5.8415,2.9034,-15.8771,-7.2866
1835.9375,-4.6207,-13.4133,-17.8634,-8.9322,-1.1464,-1.4780,-9.6748,-2.2600,-15.4609,4.5408,-6.7637,-9.5984,-5.8740,2.6619,10.8175,4.5876,2.1284,-17.4534,-9.4464
1839.8438,-4.1867,-12.0936,-19.0179,-11.3429,-2.7678,-1.3465,-10.8139,-4.4993,-14.3419,4.7266,-6.7498,-7.8604,-6.4322,3.4797,5.0311,2.6290,2.0966,-17.8658,-11.2888
1843.7500,-3.3914,-10.0660,-19.0365,-14.1926,-6.1317,-1.0306,-11.1195,-7.5571,-12.5528,5.5314,-6.4204,-6.3100,-7.2588,3.0295,0.2537,-0.1480,1.8350,-17.7594,-12.9745
1847.6562,-2.5737,-8.7735,-18.6954,-16.9865,-10.6230,-0.4820,-10.8450,-10.7233,-11.1693,6.6336,-5.7494,-6.1265,-8.9772,0.4371,-1.7785,-3.5266,0.2334,-17.7304,-14.5942
1851.5625,-2.1605,-9.0598,-18.5108,-19.0284,-15.0377,0.7945,-9.9173,-13.0723,-10.9925,7.5240,-5.1056,-7.5296,-11.6399,-4.1145,-0.4215,-6.7991,-3.0718,-18.0059,-16.0877
1855.4688,-2.5774,-10.8274,-18.4540,-19.8256,-18.1345,3.0120,-8.1795,-13.9962,-12.2856,7.7418,-5.1606,-9.8468,-14.6146,-9.3115,3.4941,-8.9817,-7.2910,-18.4462,-17.2542
1859.3750,-4.0213,-13.2693,-18.1252,-19.3440,-19.1521,5.5318,-5.7643,-13.4945,-14.7731,7.1024,-6.4282,-12.1200,-16.8999,-13.3208,7.9980,-9.3422,-10.8751,-18.8058,-17.8214
1863.2812,-6.2392,-15.4537,-17.2078,-17.9515,-18.0524,7.0189,-3.2380,-12.0496,-17.8267,5.7849,-8.8019,-13.7196,-17.6690,-14.7350,10.9817,-7.8671,-12.4321,-19.0027,-17.5351
1867.1875,-8.5408,-16.8464,-15.8178,-16.1319,-15.4208,6.2906,-1.3711,-10.2365,-20.7086,4.2282,-11.4970,-14.5302,-16.6876,-13.2496,11.3487,-5.2804,-11.5008,-19.1631,-16.2526
1871.0938,-10.1304,-17.4630,-14.4638,-14.2067,-12.1276,3.2324,-0.7111,-8.3901,-22.7787,2.9027,-13.4923,-14.6876,-14.3615,-9.6511,9.5922,-2.5464,-8.6499,-19.4170,-14.0296
1875.0000,-10.5781,-17.6348,-13.6694,-12.2712,-8.9513,-0.9519,-1.2934,-6.5675,-23.6363,2.0857,-14.1534,-14.2273,-11.4384,-5.1956,7.3749,-0.2221,-4.9233,-19.6481,-11.1773
1878.9062,-10.0872,-17.6375,-13.5858,-10.3619,-6.3611,-4.3947,-2.6931,-4.7850,-23.1935,1.7577,-13.5618,-13.0174,-8.6269,-0.8962,6.3460,1.8135,-1.1585,-19.4555,-8.2550
1882.8125,-9.3201,-17.4688,-13.9181,-8.6859,-4.5538,-5.6747,-4.3411,-3.2836,-21.6698,1.6698,-12.3043,-11.0296,-6.4062,2.7416,6.9936,4.0042,2.2550,-18.4117,-5.9681
1886.7188,-8.8667,-16.8969,-14.2058,-7.6903,-3.6730,-4.5827,-5.8277,-2.5647,-19.4888,1.5470,-10.9186,-8.6475,-5.0911,5.4303,8.3561,6.4104,5.0657,-16.4382,-4.9719
1890.6250,-8.7419,-15.6752,-14.1905,-7.8687,-3.9969,-2.0225,-6.9735,-3.1259,-17.0882,1.3252,-9.4749,-6.6447,-4.9648,6.6725,8.8226,8.2781,6.7294,-13.9826,-5.6297
1894.5312,-8.3108,-13.7265,-13.9355,-9.4032,-5.8717,0.7973,-7.6792,-5.0695,-14.7224,1.2821,-7.6540,-5.7555,-6.2351,5.7656,7.4553,8.3517,6.4326,-11.8060,-7.8140
1898.4375,-6.7444,-11.1749,-13.6011,-11.8831,-9.3530,3.1984,-7.7694,-7.8723,-12.3725,1.9480,-5.2522,-6.1438,-8.7624,2.4058,4.8449,5.8148,3.7216,-10.4878,-10.8495
1902.3438,-3.7024,-8.2651,-13.1071,-14.3282,-13.7941,5.2480,-7.0345,-10.5102,-9.8396,3.7867,-2.6549,-7.2201,-11.8015,-2.5815,2.8178,1.1753,-0.7503,-10.0053,-13.6714
1906.2500,0.2538,-5.2885,-12.0430,-15.5786,-17.7835,7.2662,-5.4670,-11.9067,-6.9865,6.7910,-0.8057,-8.0051,-14.1030,-7.1668,3.1465,-3.6571,-5.1171,-9.7245,-15.1885
1910.1562,3.8468,-2.5843,-9.9824,-14.8816,-19.6833,9.1501,-3.4758,-11.4667,-3.9717,10.2588,-0.6001,-7.8019,-14.4990,-9.0915,6.1663,-6.3193,-7.1953,-8.8485,-14.7376
1914.0625,5.7733,-0.5566,-6.9804,-12.3589,-18.5888,10.1870,-1.8330,-9.3986,-1.2978,12.9773,-2.1279,-6.6691,-12.6786,-7.4209,10.3154,-5.4078,-5.9168,-7.0159,-12.4273
1917.9688,5.4497,0.4017,-3.8117,-9.0568,-15.1054,9.5948,-1.3081,-6.6402,0.4012,13.8225,-4.3837,-5.3229,-9.5845,-3.5362,12.9840,-1.3897,-2.2544,-4.6053,-9.1676
1921.8750,3.3295,0.1131,-1.6565,-6.4948,-11.2917,7.3632,-2.2043,-4.4178,0.7327,12.4670,-5.7589,-4.5377,-7.0116,-0.6091,12.1427,3.6542,1.1959,-2.5041,-6.3044
1925.7812,0.6071,-1.1748,-1.3708,-5.9105,-9.5948,4.6397,-4.1179,-3.6641,-0.1571,9.7239,-5.0514,-4.5157,-6.5323,-1.6299,7.6766,7.3048,1.8722,-1.4975,-4.9923
1929.6875,-1.4618,-2.7695,-2.8528,-7.6070,-11.3394,3.2077,-6.1062,-4.5895,-1.5777,7.2018,-2.3040,-4.7226,-8.4206,-7.2327,1.5575,8.2168,-0.9435,-1.7287,-5.6182
1933.5938,-2.1776,-3.8039,-5.0041,-10.7815,-15.7807,4.3210,-7.1651,-6.6290,-2.6255,6.3839,1.1388,-4.3247,-11.3622,-14.9330,-3.2264,6.7123,-5.5002,-2.6310,-7.6108
1937.5000,-1.6002,-3.6798,-6.3769,-13.9563,-20.4711,7.7274,-6.7162,-8.7862,-2.6738,7.6870,3.4357,-2.8851,-13.2486,-20.5358,-4.2717,4.2269,-8.6983,-3.3765,-9.7692
1941.4062,-0.3041,-2.4008,-6.0737,-15.7685,-22.8173,11.6569,-4.8184,-10.1819,-1.7155,10.1591,3.3897,-0.7661,-12.5798,-20.9160,-0.9247,2.1321,-8.2471,-3.4832,-10.9306
1945.3125,1.0672,-0.5436,-4.2585,-15.6489,-21.8051,13.8770,-2.0321,-10.4955,-0.3262,12.0937,1.1731,1.0897,-9.4995,-16.2532,5.5698,0.8714,-4.3312,-3.1033,-10.5707
1949.2188,2.1327,1.1389,-1.9115,-13.9816,-18.6569,13.1265,0.9101,-10.0391,0.7466,12.1971,-1.8184,1.8484,-5.6970,-10.0446,12.8286,0.0154,0.4514,-2.7718,-8.9652
1953.1250,2.8321,2.2189,-0.0249,-11.6796,-15.8965,9.9364,3.3925,-9.4279,1.1109,10.5001,-3.8386,1.4238,-3.2032,-6.7510,18.4177,-0.9494,2.8813,-2.8354,-6.8375
1957.0312,3.2702,2.8346,1.1367,-9.4995,-15.4575,6.2614,5.0386,-9.0678,1.0168,8.3312,-3.7909,0.5747,-2.9412,-8.6788,20.6891,-1.8788,1.3668,-3.0529,-4.7809
1960.9375,3.5269,3.4864,2.1423,-7.5913,-17.2250,4.1910,5.7014,-8.8170,1.1887,7.3238,-1.7450,0.3668,-4.1011,-14.3341,19.1414,-1.9764,-2.9688,-2.7307,-2.8954
1964.8438,3.5743,4.5330,3.7946,-5.5847,-19.1198,4.6440,5.4368,-8.0714,2.2874,8.1572,1.2531,1.3848,-4.8130,-19.4673,14.4127,-0.5650,-7.1322,-1.3228,-0.9008
1968.7500,3.3193,5.7734,6.3116,-3.1038,-18.6888,6.9237,4.5169,-6.2360,4.3566,9.9756,3.8329,3.2649,-3.6154,-20.0701,8.0815,2.0624,-8.3788,0.9826,1.4006
1972.6562,2.6999,6.4609,8.9602,-0.2702,-15.0096,9.3614,3.4240,-3.2514,6.6487,10.9569,4.9566,4.9016,-0.5986,-15.1424,2.2923,4.5297,-6.0381,3.2051,3.7353
1976.5625,1.7553,5.7835,10.4690,2.2330,-9.4527,10.5054,2.7274,0.2158,7.9985,9.6538,4.2556,5.1973,2.6570,-7.2332,-0.8782,5.2316,-1.7497,4.1700,5.4163
1980.4688,0.6401,3.4896,9.9399,3.6045,-4.7123,9.9844,2.8353,3.0894,7.5382,6.1204,2.0135,3.8398,4.2962,-0.4411,-0.2540,3.5607,1.9468,3.3617,5.8496
1984.3750,-0.4111,0.2002,7.5678,3.5221,-2.8576,8.4979,3.7473,4.5054,5.2943,1.9751,-1.0393,1.5615,3.6019,2.5310,3.7691,0.5232,3.4964,1.3826,5.0843
1988.2812,-1.1559,-2.8548,4.5963,2.3934,-3.9138,7.0717,4.9956,4.2992,2.2410,-0.6706,-3.9723,-0.3123,1.4863,2.0240,9.2164,-1.8303,3.2319,-0.3906,3.9071
1992.1875,-1.4476,-4.5412,2.5001,1.0241,-6.0571,6.2311,5.8613,3.0041,-0.2679,-0.6352,-5.9149,-0.7402,-0.3291,0.6120,13.4195,-1.8243,2.6934,-0.7658,3.3155
1996.0938,-1.3407,-4.5079,1.9685,-0.0466,-7.2137,5.7193,5.7611,1.3685,-1.3452,1.5982,-6.3542,0.3166,-0.7784,0.6442,14.4372,0.6097,3.0483,0.3627,3.7237
2000.0000,-1.1332,-3.3950,2.4330,-0.9920,-6.7408,4.8967,4.5658,-0.2240,-1.1342,4.3362,-5.3949,1.8230,-0.3521,2.2224,12.1749,3.8415,3.9855,1.8585,4.5376
2003.9062,-1.2763,-2.4131,2.4971,-2.5153,-5.8227,3.4164,2.6453,-1.9672,-0.6880,5.9156,-3.7940,2.3212,-0.6580,3.2822,8.4254,5.7096,4.0174,2.1045,4.5212
2007.8125,-2.1510,-2.5709,0.9742,-5.1295,-6.2877,1.5923,0.6188,-4.2985,-1.2172,5.7590,-2.6206,0.9074,-2.9441,1.6700,5.7117,5.1093,1.9262,0.1830,2.7704
2011.7188,-3.8178,-4.0535,-2.2000,-8.4664,-8.8612,0.1775,-1.0102,-7.2870,-3.1974,4.4848,-2.6378,-2.0896,-6.7713,-2.5715,5.6483,2.8230,-1.8817,-3.3608,-0.4104
2015.6250,-5.9022,-6.1473,-5.8275,-11.2220,-12.3467,-0.2390,-2.0911,-10.2660,-5.9486,3.1108,-3.7772,-5.1818,-9.9738,-6.7197,7.9328,0.9686,-5.3105,-6.7389,-3.4527
2019.5312,-7.7230,-7.7290,-8.1796,-11.8906,-14.4675,0.2876,-2.8042,-12.0730,-7.9964,2.1112,-5.1099,-6.5375,-10.0735,-7.2498,10.6795,1.4643,-5.9686,-8.0076,-4.4458
2023.4375,-8.6153,-7.9703,-8.0934,-9.8199,-13.7176,1.0779,-3.4390,-11.7958,-7.9945,1.1457,-5.4247,-5.0577,-6.1506,-2.6768,11.8649,4.6332,-2.9973,-6.2891,-2.4518
2027.3438,-8.2634,-6.7953,-5.6972,-5.8156,-10.7124,1.3182,-4.1598,-9.4977,-5.6009,-0.3547,-4.0715,-1.0582,0.2476,4.9146,10.8352,8.9470,2.0915,-2.3035,1.7216
2031.2500,-6.8460,-4.8306,-2.3103,-1.8106,-7.8986,0.6306,-4.9209,-6.3640,-1.7275,-2.3366,-1.4790,3.8649,5.9119,10.9881,8.7640,12.0533,6.2753,2.1210,5.8916
2035.1562,-4.9214,-2.9471,0.3609,0.2205,-7.8044,-0.6978,-5.5537,-4.1021,1.9916,-3.8512,1.0554,7.6963,7.9664,11.6044,7.7182,12.3019,7.0005,5.1814,7.8058
2039.0625,-3.1513,-1.7473,1.1657,-0.6318,-11.1948,-1.9553,-5.9138,-3.9697,4.1385,-3.7002,2.1872,9.0534,5.6380,6.1510,9.0327,9.6803,3.8527,6.0792,6.4963
2042.9688,-2.0422,-1.3372,-0.0002,-3.8234,-16.5744,-2.4873,-5.9539,-6.0753,4.2304,-1.5129,1.3778,7.7907,0.5587,-2.2919,12.2296,5.5767,-1.2724,5.2205,2.7608
2046.8750,-1.8241,-1.4728,-2.3757,-7.8863,-21.3869,-2.0462,-5.6749,-9.4024,2.7840,1.6789,-0.8379,4.8372,-4.5350,-9.1939,15.3183,1.6824,-5.5641,3.6127,-1.5129
2050.7812,-2.4552,-1.8915,-4.9404,-11.4151,-23.9000,-0.7940,-5.0271,-12.4901,0.7724,3.9524,-3.3420,1.4640,-7.6657,-11.6953,16.2662,-1.0688,-7.1837,2.0038,-4.6310
2054.6875,-3.6684,-2.5318,-6.9761,-13.7687,-24.2493,0.9544,-3.8785,-14.2686,-1.0677,3.7935,-5.2763,-1.4717,-8.6605,-10.2680,14.5268,-2.7742,-6.2828,0.4356,-6.0451
2058.5938,-5.0107,-3.4777,-8.2496,-15.0555,-23.8693,2.9735,-2.1080,-14.4970,-2.5744,1.1975,-6.5727,-3.8052,-8.7217,-7.7912,11.4466,-3.9921,-4.5247,-1.5092,-6.3498
2062.5000,-5.9281,-4.7139,-8.8271,-15.5771,-23.9062,5.1430,0.2257,-13.6086,-3.9669,-2.3149,-7.7760,-5.7697,-9.0480,-6.9519,9.2189,-4.9402,-3.6281,-4.0565,-6.4699
2066.4062,-5.9644,-5.9388,-8.7939,-15.3223,-24.0483,7.2675,2.7681,-12.2130,-5.3731,-4.8155,-9.3533,-7.4705,-9.7229,-8.1155,9.1693,-5.1927,-4.1140,-6.7778,-6.7764
2070.3125,-5.0429,-6.6366,-8.1542,-13.9873,-22.8166,8.9233,4.9081,-10.6991,-6.5225,-5.3569,-11.0989,-8.6139,-9.7639,-9.3048,10.6944,-4.1164,-5.1520,-8.7262,-6.8477
2074.2188,-3.6409,-6.3888,-6.9619,-11.4764,-19.0701,9.5436,5.9858,-9.2007,-6.8762,-4.5412,-12.1575,-8.7195,-8.1970,-8.1458,11.7071,-1.6333,-5.4670,-9.0742,-6.0039
2078.1250,-2.6379,-5.1995,-5.4992,-8.3755,-13.3994,8.7395,5.5727,-7.8276,-6.0717,-3.8318,-11.6635,-7.6092,-5.1564,-4.0582,10.2980,1.3934,-4.4586,-7.7448,-4.0908
2082.0312,-2.7999,-3.5708,-4.2764,-5.8793,-8.1294,6.6327,3.6827,-6.8423,-4.2919,-4.1953,-9.4695,-5.7123,-2.0109,1.1417,6.3767,3.5468,-2.6235,-5.5301,-1.8049
2085.9375,-4.1638,-2.2383,-3.7907,-5.1167,-5.7999,3.9266,0.8044,-6.5631,-2.2249,-5.2070,-6.3513,-3.8682,-0.3733,4.6781,2.0245,3.7783,-1.0318,-3.5919,-0.2666
2089.8438,-5.7711,-1.7237,-4.2090,-6.3567,-7.2912,1.6145,-2.2651,-7.0739,-0.6208,-5.3748,-3.5021,-2.7434,-0.8112,5.0410,0.2167,2.1799,-0.3992,-2.7174,-0.1879
2093.7500,-6.0575,-2.0036,-5.2252,-8.7318,-11.1081,0.4890,-4.7105,-8.0388,0.2138,-3.4275,-1.7125,-2.3295,-2.3531,3.1357,2.7784,0.0058,-0.5706,-2.8757,-1.3241
2097.6562,-3.7803,-2.5214,-6.2187,-10.7404,-14.4328,0.7642,-5.9814,-8.8453,0.5860,0.4974,-0.8922,-1.9655,-3.2341,1.4297,9.0195,-1.1079,-0.8065,-3.3728,-2.6543
2101.5625,1.0662,-2.5370,-6.6113,-11.1866,-15.1383,2.0524,-5.9440,-9.0050,1.1181,4.7693,-0.3052,-0.9160,-2.3012,1.8517,16.0296,-0.1994,-0.5515,-3.4429,-3.1368
2105.4688,6.9862,-1.5881,-6.1769,-9.8757,-13.1940,3.6849,-4.8425,-8.4910,2.2166,7.3957,0.6930,0.9323,0.0518,4.2004,20.4396,2.3953,0.0202,-2.8077,-2.4294
2109.3750,11.6444,0.2248,-5.1075,-7.5847,-10.4121,5.1387,-3.1081,-7.7209,3.7188,7.4754,2.0334,2.8231,2.1700,6.3552,20.4363,5.2429,0.1476,-1.8060,-1.0278
2113.2812,13.1125,2.2841,-3.8355,-5.3995,-8.8412,6.2713,-1.1354,-7.1930,4.9794,5.8026,2.9354,3.5715,2.4043,6.0608,16.6871,6.6649,-0.8455,-1.0640,0.2245
2117.1875,10.9393,3.7730,-2.7849,-3.9811,-9.1772,7.2206,0.8400,-7.0886,5.3102,4.1235,2.5147,2.3910,0.3378,2.7738,11.6389,5.6770,-2.9550,-1.0199,0.7925
2121.0938,6.3596,4.0573,-2.2373,-3.3198,-10.4694,8.0807,2.6975,-7.1908,4.4267,3.6460,0.4913,-0.5154,-2.9893,-1.9344,7.7951,2.4686,-5.4905,-1.6803,0.7268
2125.0000,1.5195,2.9305,-2.3538,-3.0818,-11.2496,8.6234,4.2759,-7.1934,2.5837,4.0196,-2.5703,-4.0504,-5.9773,-5.6814,6.2075,-1.7752,-7.6317,-2.7408,0.3897
2128.9062,-1.7659,0.6408,-3.2427,-3.1472,-11.0111,8.3061,5.2505,-7.1191,0.3468,3.6358,-5.6480,-6.9270,-7.7017,-7.1304,6.1438,-5.5060,-9.0365,-3.8884,-0.0395
2132.8125,-2.9190,-2.2483,-4.9336,-3.8103,-10.7008,6.5949,5.1833,-7.4402,-1.7707,1.0306,-7.9239,-8.4435,-8.4657,-6.8506,5.9786,-7.5064,-9.9708,-4.9866,-0.7792
2136.7188,-2.6461,-5.0623,-7.2432,-5.4543,-11.7914,3.4001,3.7627,-8.7407,-3.5177,-3.7331,-9.1813,-8.7635,-9.2674,-6.5323,4.5179,-7.3282,-10.8757,-6.0076,-2.1682
2140.6250,-2.2059,-7.2070,-9.6749,-8.0096,-14.7579,-0.6799,1.0966,-11.1592,-4.8526,-8.8385,-9.6809,-8.5551,-10.7049,-7.3273,1.7861,-5.3648,-11.8018,-6.8429,-4.1658
2144.5312,-2.4877,-8.3229,-11.5218,-10.7247,-18.3288,-4.5070,-2.1529,-14.0863,-5.7636,-11.8748,-9.7304,-8.3565,-12.3011,-8.7882,-1.1627,-2.6178,-12.2549,-7.2455,-6.1336
2148.4375,-3.5274,-8.3818,-12.1926,-12.5197,-20.2418,-6.8952,-4.9382,-16.4208,-6.1830,-11.5258,-9.4029,-8.2119,-12.8418,-9.3145,-3.0928,-0.2851,-11.6206,-7.0148,-7.1723
2152.3438,-4.6969,-7.6891,-11.5708,-12.6857,-18.9504,-7.1744,-6.2496,-17.2472,-6.0859,-8.5053,-8.6583,-7.8405,-11.4446,-7.6833,-3.3753,0.6962,-9.8081,-6.2695,-6.7842
2156.2500,-5.2944,-6.7528,-10.1340,-11.3749,-14.8948,-5.4955,-5.5756,-16.4380,-5.6451,-5.0381,-7.6894,-7.1136,-8.4406,-4.3017,-2.1987,0.0093,-7.5306,-5.5139,-5.3111
2160.1562,-5.0333,-6.0438,-8.6971,-9.4747,-10.2737,-2.7011,-3.1392,-14.7157,-5.2352,-3.2967,-7.0580,-6.3523,-5.3077,-1.0641,-0.2244,-1.9261,-5.9344,-5.3526,-3.7472
2164.0625,-4.1043,-5.7626,-7.9230,-7.9588,-7.4670,0.1430,0.2167,-13.1195,-5.2134,-3.9699,-7.3745,-6.1448,-3.6810,0.0980,1.8825,-4.1672,-5.8386,-6.0243,-3.0387
2167.9688,-2.8793,-5.7632,-7.9365,-7.2300,-7.3507,2.2561,3.4147,-12.2842,-5.6367,-5.9885,-8.7347,-6.8386,-4.2260,-1.2314,3.6498,-5.7207,-7.1822,-7.1385,-3.4189
2171.8750,-1.5936,-5.7088,-8.3259,-6.9619,-8.8112,3.3865,5.5736,-12.0813,-6.1800,-7.5097,-10.4453,-8.1756,-6.2553,-3.5925,4.6990,-6.0365,-9.1081,-7.8901,-4.3107
2175.7812,-0.2908,-5.3678,-8.5297,-6.5224,-9.7755,3.6893,6.2713,-11.8694,-6.3777,-7.3274,-11.3944,-9.4249,-8.3405,-4.7747,4.6454,-5.2365,-10.5890,-7.6527,-4.8579
2179.6875,0.9800,-4.8416,-8.3086,-5.5832,-8.8536,3.3970,5.5718,-11.1121,-6.0267,-5.6367,-10.8797,-9.9219,-9.3654,-3.4875,3.2632,-3.9433,-11.0728,-6.5122,-4.6265
2183.5938,1.9667,-4.5372,-7.9322,-4.3905,-6.2629,2.5768,3.8875,-9.8409,-5.4132,-3.6733,-9.2416,-9.5462,-9.1613,-0.2215,0.8446,-2.8400,-10.6534,-5.2951,-3.8901
2187.5000,2.2636,-4.8805,-7.9304,-3.4977,-3.3756,1.1710,1.8038,-8.5986,-5.1370,-2.6517,-7.7163,-8.7180,-8.2900,3.3334,-1.6259,-2.2785,-9.7164,-5.0105,-3.2866
2191.4062,1.5998,-5.9732,-8.6130,-3.2388,-1.4038,-0.7360,-0.0684,-7.9491,-5.6353,-2.9072,-7.5238,-7.9231,-7.3000,5.7297,-2.8139,-2.1994,-8.4663,-6.0986,-3.1909
2195.3125,0.1163,-7.4622,-9.7548,-3.4408,-0.4127,-2.6922,-1.2292,-8.0008,-6.7838,-3.8682,-8.8720,-7.2262,-6.2043,6.8045,-1.8146,-2.3728,-6.8065,-8.0634,-3.3881
2199.2188,-1.6403,-8.7463,-10.7216,-3.6376,0.5194,-3.9558,-1.4370,-8.3595,-7.9335,-4.7444,-10.7049,-6.2607,-4.6621,7.4921,1.1423,-2.7015,-4.6699,-9.8044,-3.3562
2203.1250,-3.0421,-9.3853,-10.9567,-3.5807,2.2233,-3.9009,-0.8282,-8.5335,-8.3985,-5.2478,-11.4824,-4.7532,-2.6486,8.6841,4.6416,-3.2948,-2.4312,-10.4264,-2.8966
2207.0312,-3.7747,-9.4072,-10.4425,-3.5505,4.4767,-2.4872,0.0967,-8.4096,-8.0279,-5.7185,-10.4324,-3.1081,-0.9030,10.2356,6.8461,-4.2395,-0.9152,-9.9172,-2.5083
2210.9375,-3.9814,-9.2638,-9.7491,-4.1373,6.0599,-0.4233,0.6902,-8.3531,-7.3828,-6.6107,-8.2758,-2.4361,-0.6168,11.0323,6.6260,-5.3003,-0.8732,-9.1635,-3.0899
2214.8438,-4.0423,-9.4526,-9.6022,-5.6390,5.8020,1.1608,0.5065,-8.8178,-7.3271,-7.8706,-6.7761,-3.8402,-2.5147,10.0439,4.2853,-5.8871,-2.3238,-9.2688,-5.1483
2218.7500,-4.1865,-10.0862,-10.2884,-7.6010,3.6893,1.3610,-0.4221,-9.8048,-8.3130,-8.8195,-7.3857,-7.4412,-6.0893,7.3744,1.3578,-5.4217,-4.3657,-10.6822,-8.1710
2222.6562,-4.2850,-10.7500,-11.3686,-8.9547,1.0265,0.0386,-1.5917,-10.6748,-9.9207,-8.6888,-10.0184,-11.9544,-9.7116,4.3057,-0.4040,-3.8651,-5.7371,-12.7981,-10.7562
2226.5625,-4.0179,-10.7777,-11.9465,-8.7270,-0.5454,-2.1215,-2.3465,-10.5426,-11.0511,-7.3543,-12.9445,-15.2881,-11.6531,2.2350,-0.1465,-1.9494,-5.7604,-14.3376,-11.5020
2230.4688,-3.2680,-9.7516,-11.3071,-6.7905,-0.3654,-4.0666,-2.3110,-8.9807,-10.6775,-5.6145,-13.9632,-15.8422,-11.2752,1.4258,1.6257,-0.8206,-4.9245,-14.2275,-10.0119
2234.3750,-2.3734,-7.8481,-9.4438,-4.0394,0.7219,-5.0094,-1.6214,-6.4565,-8.6081,-4.7120,-12.0068,-13.5736,-9.4482,0.7246,3.5224,-1.2498,-4.5692,-12.3223,-7.2207
2238.2812,-1.9596,-5.7561,-7.0637,-1.8009,1.1108,-4.7864,-0.7705,-4.0983,-5.6792,-5.4292,-7.9601,-10.0044,-7.8405,-1.4070,4.2737,-2.9753,-5.8361,-9.4466,-4.7458
2242.1875,-2.4273,-4.2176,-5.0628,-0.9023,-0.1533,-3.7287,-0.1684,-2.9134,-3.2109,-7.4572,-4.0600,-7.1279,-7.6164,-5.3547,3.5214,-4.7333,-8.6735,-6.7650,-3.7338
2246.0938,-3.5006,-3.5315,-3.8760,-1.1089,-2.4816,-2.2292,0.2399,-3.0499,-2.1224,-9.5493,-2.3219,-6.0319,-8.5684,-9.6424,1.8700,-5.0741,-11.7091,-4.9889,-4.0835
2250.0000,-4.2514,-3.3955,-3.2102,-1.3754,-4.1527,-0.4202,0.9790,-3.6942,-2.3618,-10.3668,-3.1810,-6.2891,-9.3676,-11.7752,0.2604,-3.4510,-13.1651,-4.0197,-4.6447
2253.9062,-3.6740,-3.1988,-2.3683,-0.7267,-3.7359,1.7537,2.6238,-3.7259,-3.0648,-9.3937,-5.3497,-6.5663,-8.7230,-10.0991,-0.7748,-0.7870,-12.1791,-3.2554,-4.2259
2257.8125,-1.4330,-2.5324,-0.9058,0.9146,-1.3767,4.1663,5.2531,-2.6458,-3.2932,-7.2488,-6.9344,-5.9244,-6.5130,-5.2521,-1.3899,0.9776,-9.5384,-2.2526,-2.6065
2261.7188,1.7798,-1.5144,0.9112,2.6030,1.1274,6.2465,8.2103,-1.0530,-2.7646,-5.1858,-6.8898,-4.7207,-3.9775,-0.0205,-2.0737,0.1424,-7.2434,-1.1729,-0.7497
2265.6250,4.6021,-0.6776,2.2341,3.0575,1.5875,7.1726,10.4105,-0.2633,-2.0062,-4.1739,-5.6711,-4.3437,-2.8116,2.3920,-3.0234,-3.5189,-7.1770,-0.6448,-0.0431
2269.5312,5.8759,-0.5119,2.2763,1.6542,-0.9125,6.4745,11.0275,-1.3145,-1.8324,-4.2438,-4.6311,-5.9676,-3.8647,0.4690,-3.7957,-8.4229,-9.8146,-1.1645,-1.1596
2273.4375,5.4332,-1.0309,0.9916,-1.0155,-5.2096,4.5741,10.0869,-4.0863,-2.5836,-4.5513,-4.7311,-9.3430,-6.4416,-4.6279,-3.5414,-12.0351,-13.8724,-2.5396,-3.4212
2277.3438,4.2107,-1.7185,-0.7557,-3.4327,-8.7290,2.7303,8.5062,-7.2102,-3.7524,-4.0756,-5.6620,-12.6564,-8.7180,-9.8291,-1.6483,-12.3922,-17.0989,-3.8535,-5.1578
2281.2500,3.5702,-1.9186,-1.7046,-4.0873,-9.1463,2.2586,7.4939,-8.8803,-4.3176,-2.4255,-6.1056,-13.6684,-8.9320,-12.0621,1.6989,-9.2868,-17.6231,-4.0225,-4.8023
2285.1562,4.2786,-1.3810,-1.0695,-2.4196,-5.8674,3.4907,7.6777,-8.0268,-3.5467,-0.1859,-4.9132,-11.3203,-6.4768,-9.9509,5.4582,-4.3358,-14.9502,-2.5556,-1.9367
2289.0625,5.8687,-0.5445,0.8435,0.8440,-0.3440,5.2538,8.5618,-5.0462,-1.6560,1.4069,-2.2218,-6.5978,-2.1757,-4.2833,8.2017,0.0868,-10.0460,0.0328,2.4211
2292.9688,6.8590,-0.3211,2.7267,4.1287,4.8907,5.3870,8.7300,-1.5902,0.1918,1.2142,0.4285,-1.9764,2.3220,2.7921,8.7899,2.3083,-4.6280,2.4601,6.4276
2296.8750,5.7243,-1.5082,3.0433,5.8940,7.7242,2.1012,6.7332,0.4417,0.5828,-1.1248,1.1209,0.1677,5.4880,9.0457,6.8298,2.2307,-0.2602,3.4084,8.4531
2300.7812,1.9806,-4.2277,0.9889,5.4096,7.5185,-4.6575,2.1341,0.0366,-1.2339,-4.9807,-1.0303,-0.9594,6.5619,13.0445,2.7276,1.0966,2.1902,2.2716,7.8815
2304.6875,-3.3446,-7.7751,-2.9729,3.0234,5.1738,-12.7905,-3.9530,-2.3899,-4.8404,-9.0638,-5.1559,-4.2172,5.6365,14.3153,-2.5547,0.4062,2.5909,-0.5366,5.2693
2308.5938,-8.1845,-10.9777,-7.3344,-0.1257,2.3618,-18.9590,-9.2142,-5.3436,-8.8833,-12.0590,-9.1412,-7.4704,3.3754,13.0969,-7.7925,0.8022,1.3193,-3.8551,1.9273
2312.5000,-10.5618,-12.8207,-10.3702,-2.7118,0.5315,-20.3482,-11.2370,-7.2091,-11.8613,-13.2046,-10.9964,-9.0493,0.7068,10.1281,-11.7148,1.6949,-0.9271,-6.4021,-0.7235
2316.4062,-9.6738,-12.9441,-11.0513,-3.8168,0.2549,-16.2335,-8.7780,-7.1874,-12.9331,-12.5445,-10.1051,-8.6715,-1.3699,6.5744,-13.2065,1.8234,-3.2288,-7.3698,-1.6901
2320.3125,-6.2800,-11.7286,-9.5153,-3.2794,1.1382,-8.4084,-2.5032,-5.6599,-12.2461,-10.7834,-7.5005,-7.2743,-1.9854,3.8297,-11.6210,0.2825,-4.6145,-6.6950,-0.7075
2324.2188,-2.1991,-9.9768,-6.8707,-1.6973,2.1909,-0.2367,5.2088,-3.8260,-10.6489,-8.8683,-5.0513,-6.0606,-0.7390,2.9766,-7.1615,-2.7377,-4.4243,-4.9490,1.6947
2328.1250,0.7299,-8.4369,-4.5134,-0.1043,2.4080,5.0798,11.3135,-2.9038,-9.0601,-7.5156,-4.1960,-5.5839,1.9537,4.1083,-1.0709,-5.9926,-2.7192,-2.9875,4.3568
2332.0312,1.5798,-7.4680,-3.3887,0.5528,1.3240,6.0147,13.4712,-3.4022,-7.9373,-6.9081,-5.1020,-5.5314,4.8508,6.0725,4.6680,-7.9237,-0.3900,-1.5605,5.9124
2335.9375,0.6429,-7.0004,-3.6028,-0.0853,-0.6753,3.2204,11.0630,-4.8711,-7.1574,-6.6920,-6.7434,-5.2285,6.4361,7.0411,8.1521,-7.5611,1.2586,-1.0385,5.4082
2339.8438,-0.9725,-6.7367,-4.5413,-1.5770,-2.4589,-1.1255,5.3728,-6.2309,-6.3058,-6.2654,-7.7231,-4.3353,5.8131,5.6855,8.5181,-5.0114,1.2802,-1.3330,2.8508
2343.7500,-2.1242,-6.4160,-5.3552,-2.9215,-2.7161,-4.6412,-1.1164,-6.4487,-5.1200,-5.1996,-7.2176,-3.1498,3.3341,2.1634,6.4375,-1.3020,-0.2985,-2.0227,-0.6900
2347.6562,-2.2845,-5.9770,-5.4989,-3.1687,-0.7522,-5.9607,-5.9252,-5.1578,-3.7754,-3.5591,-5.4459,-2.3418,0.4310,-1.8577,3.7344,2.2094,-2.4855,-2.6336,-3.6125
2351.5625,-1.7061,-5.5625,-5.0151,-2.0443,2.9614,-5.2497,-7.6617,-2.8681,-2.8432,-1.9289,-3.4552,-2.4186,-1.3282,-4.2279,2.2664,4.4357,-3.9853,-2.9393,-4.7102
2355.4688,-1.0941,-5.4090,-4.4359,-0.1613,6.9306,-3.8534,-6.4673,-0.6535,-2.9624,-1.1210,-2.4513,-3.3747,-1.2980,-3.6717,2.7420,4.8634,-4.0429,-3.1075,-3.9003
2359.3750,-1.0704,-5.7034,-4.3905,1.3761,9.5134,-3.3488,-3.6583,0.4950,-4.4273,-1.7225,-3.1042,-4.7417,-0.1160,-0.4796,4.2708,3.5317,-2.8518,-3.5670,-2.2101
2363.2812,-1.7925,-6.4726,-5.1699,1.7422,10.0085,-4.5355,-0.8332,0.2681,-6.9299,-3.7466,-5.1941,-5.9041,0.9359,3.9272,5.0024,0.8712,-1.2519,-4.6449,-0.9776
2367.1875,-2.9348,-7.5399,-6.5111,0.9993,9.1751,-6.9004,1.0173,-0.7815,-9.6175,-6.5879,-7.7355,-6.3918,1.0654,8.1268,3.4731,-2.4298,-0.0045,-6.2107,-0.8301
2371.0938,-3.9817,-8.5664,-7.7355,0.0775,8.7271,-8.8636,1.9026,-1.6001,-11.4703,-9.3010,-9.4962,-5.9958,0.6602,11.5701,-0.2395,-5.5185,0.7477,-7.6196,-1.2241
2375.0000,-4.5995,-9.1801,-8.1595,0.1007,10.0849,-8.7228,2.5544,-1.3220,-11.8325,-11.0401,-9.6653,-4.7742,0.9225,14.5344,-4.3858,-7.5389,1.4145,-8.0744,-0.9384
2378.9062,-4.8375,-9.1575,-7.5320,1.5240,13.2740,-5.8138,3.7218,0.1517,-10.8193,-11.4277,-8.3432,-3.0786,2.7074,17.3278,-6.5968,-7.9169,2.3966,-7.2154,0.8253
2382.8125,-5.0556,-8.5763,-6.2256,3.7227,16.8211,-1.1947,5.5230,2.0715,-9.3397,-10.6902,-6.5666,-1.5868,5.5288,19.5679,-5.4689,-6.6573,3.5581,-5.5205,3.5986
2386.7188,-5.6567,-7.8375,-5.0540,5.3599,18.7670,2.6750,7.2784,3.3260,-8.6554,-9.5303,-5.7726,-1.1723,7.6279,20.2631,-1.6159,-4.4248,4.2260,-4.1658,5.7727
2390.6250,-6.8154,-7.5008,-4.8170,5.2924,18.0613,3.2426,7.9224,3.1828,-9.6681,-8.8181,-6.9302,-2.4959,7.1752,18.6703,2.5645,-2.2644,3.7398,-4.3475,5.6785
2394.5312,-8.3667,-7.9900,-5.8449,3.3740,15.2868,-0.5179,6.7173,1.7883,-12.3360,-9.2251,-9.8444,-5.4806,3.7350,15.1674,4.3265,-1.0601,2.0867,-6.4718,2.8447
2398.4375,-9.9030,-9.3275,-7.8108,0.5870,12.1785,-7.1891,3.8078,0.0848,-15.6030,-10.9193,-13.1400,-9.0756,-1.1668,11.3079,2.3087,-1.0560,0.0658,-9.7720,-1.5196
2402.3438,-10.9957,-11.0700,-9.9110,-1.5748,10.3446,-13.4163,0.2628,-0.7993,-17.9442,-13.4350,-15.0504,-11.6408,-4.8882,8.9010,-2.5661,-1.7659,-1.1916,-12.6635,-5.2199
2406.2500,-11.4062,-12.5163,-11.2870,-2.0242,10.2033,-15.7107,-2.4297,-0.2696,-18.2401,-15.8060,-14.5742,-11.8576,-5.3812,8.8019,-7.6359,-2.3484,-0.9851,-13.6578,-6.4717
2410.1562,-11.1757,-13.0852,-11.4405,-0.6779,10.9266,-12.5358,-3.1310,1.3822,-16.4453,-16.9724,-12.2127,-9.6066,-2.5379,10.3628,-10.1489,-2.2010,0.5014,-12.2602,-5.0072
2414.0625,-10.5736,-12.6436,-10.4304,1.6042,11.3292,-5.3622,-1.6580,3.2021,-13.6164,-16.3203,-9.7001,-6.1591,1.7839,11.9715,-8.9518,-1.3638,2.3892,-9.2747,-2.1358
2417.9688,-9.9497,-11.5798,-8.8003,3.5970,10.8739,2.0587,1.0895,4.1797,-11.2635,-14.0734,-8.8159,-3.4502,5.0341,12.2178,-5.1216,-0.4580,3.7491,-6.3287,0.2133
2421.8750,-9.5695,-10.5717,-7.3307,4.3544,9.9396,5.8297,3.5441,3.8073,-10.4412,-11.2519,-10.0805,-2.8702,5.5802,10.7560,-1.1543,-0.2219,4.1712,-4.9393,0.7236
2425.7812,-9.4967,-10.1882,-6.7506,3.5448,9.2088,4.1480,4.2228,2.2539,-11.1684,-9.1292,-12.3016,-4.4047,3.5284,8.2506,0.7190,-0.9911,3.8451,-5.7114,-0.6621
2429.6875,-9.5597,-10.5679,-7.4946,1.4152,8.8360,-1.7416,2.4625,0.1287,-12.5406,-8.4550,-13.3832,-6.7347,0.3029,5.5994,-0.0478,-2.4879,3.1832,-8.1233,-3.0103
2433.5938,-9.4173,-11.3648,-9.5274,-1.4201,8.2409,-8.4305,-1.2078,-1.9143,-13.4131,-8.9417,-11.8736,-8.2179,-2.5213,3.2087,-2.0929,-4.0378,2.3971,-10.9377,-5.2107
2437.5000,-8.7115,-11.9753,-12.2681,-4.1661,6.7598,-12.4279,-5.2532,-3.4363,-13.1534,-9.4141,-8.1241,-8.0239,-4.1784,0.9517,-3.2209,-5.0055,1.4243,-12.8990,-6.6477
2441.4062,-7.2600,-11.8868,-14.6859,-5.9977,4.5332,-12.0753,-7.8316,-4.2391,-11.9418,-8.6021,-4.1532,-6.6020,-4.8364,-1.2599,-1.9987,-5.1049,0.2276,-13.2821,-7.2993
2445.3125,-5.1982,-10.9246,-15.6315,-6.2872,2.7131,-8.1546,-7.7088,-4.2738,-10.4618,-6.0809,-2.2452,-5.1858,-5.0182,-2.9595,1.2384,-4.3800,-0.8828,-12.0551,-7.3860
2449.2188,-2.9747,-9.2619,-14.3482,-4.9306,2.6375,-3.0015,-4.9416,-3.6067,-9.2755,-2.6877,-3.2736,-4.7751,-4.9862,-3.2701,4.6422,-2.9502,-1.2904,-9.7090,-7.0302
2453.1250,-1.1598,-7.2271,-10.9298,-2.5748,4.5917,1.0881,-0.9248,-2.4796,-8.3917,-0.0517,-5.9960,-5.4034,-4.6407,-1.6574,6.1630,-0.8172,-0.5148,-6.9680,-6.2599
2457.0312,-0.1397,-5.0739,-6.4214,-0.4564,7.2700,3.0544,2.3062,-1.3296,-7.3518,0.5041,-7.8783,-6.2292,-3.9102,1.3984,4.9948,2.0383,1.3082,-4.5523,-5.2664
2460.9375,0.1341,-2.8876,-2.3989,0.2203,8.5659,3.2381,3.2105,-0.6276,-5.7335,-1.0539,-6.8855,-6.3156,-3.1278,4.5060,2.1715,5.3242,3.3599,-3.0205,-4.5405
2464.8438,0.1601,-0.6787,-0.1908,-0.9509,7.1986,2.6917,1.6849,-0.5738,-3.6429,-3.3275,-2.9531,-5.4365,-2.9360,6.2618,-0.0656,8.1854,4.6097,-2.6470,-4.6331
2468.7500,0.6160,1.4358,-0.1819,-3.2201,3.8765,2.3359,-0.7884,-0.8849,-1.7812,-4.3517,1.9204,-4.2669,-3.7587,6.2246,0.3184,9.3616,4.4856,-3.3276,-5.6924
2472.6562,1.9336,3.1369,-1.6515,-5.0872,0.9496,2.5568,-1.9722,-0.9137,-1.0084,-2.9161,5.0125,-3.8380,-5.3437,5.1168,3.8818,7.7961,3.2134,-4.5917,-7.2147
2476.5625,3.9805,4.0051,-3.2786,-5.2842,0.6892,3.3230,-0.2544,-0.0994,-1.7237,0.5558,4.6811,-4.7212,-6.8568,4.0594,9.3413,3.3659,1.5624,-5.7937,-8.3173
2480.4688,6.0709,3.7732,-3.9974,-3.6667,3.5024,4.4660,4.2523,1.5554,-3.5286,4.1923,1.3736,-6.5861,-7.5139,3.5136,14.2426,-2.7731,0.2229,-6.4333,-8.3850
2484.3750,7.3255,2.5528,-3.6342,-1.3404,7.5326,5.7629,9.6207,3.3777,-5.4334,5.8147,-2.7926,-8.4503,-7.2203,2.9035,16.1748,-8.5497,-0.6532,-6.4241,-7.5685
2488.2812,7.1717,0.8479,-2.9046,0.1142,10.0377,6.8066,13.1557,4.4369,-6.4740,4.2779,-5.4877,-9.3930,-6.6413,1.3045,13.8297,-11.9297,-1.3856,-6.1206,-6.6849
2492.1875,5.6691,-0.6935,-2.8045,-0.2299,9.4970,6.9607,12.9728,4.2185,-6.3158,0.1354,-5.6076,-9.1796,-6.6085,-1.4000,7.4606,-11.9381,-2.2787,-6.0738,-6.5582
2496.0938,3.4598,-1.6492,-3.8618,-2.0068,6.7701,5.6494,9.1370,3.0486,-5.4432,-4.7543,-3.7744,-8.3672,-7.3668,-3.9911,-1.2729,-9.1508,-3.1965,-6.6859,-7.3324
2500.0000,1.3915,-2.0690,-5.7929,-3.8885,4.3667,2.8697,3.6496,1.9115,-4.8261,-8.3488,-1.7284,-7.8759,-8.3291,-4.6305,-9.8321,-5.3598,-3.6068,-8.0068,-8.3415
2503.9062,0.0715,-2.4125,-7.7758,-4.6197,4.4132,-0.5059,-0.6964,1.7564,-5.3020,-9.5065,-1.1792,-8.3781,-8.5751,-2.3329,-15.5012,-2.6035,-3.0581,-9.7900,-8.6674
2507.8125,-0.3671,-3.2006,-9.0731,-3.9365,6.9712,-3.0089,-1.8631,2.8036,-7.0709,-8.3980,-2.9006,-9.9109,-7.6664,2.0489,-16.2088,-2.1168,-1.6347,-11.7053,-7.9191
2511.7188,-0.1811,-4.6020,-9.4868,-2.6580,10.0719,-3.3795,0.4316,4.3818,-9.5899,-6.1366,-6.5006,-11.8903,-6.0485,6.2718,-11.3994,-3.7739,0.0627,-13.4879,-6.5584
2515.6250,0.2538,-6.2416,-9.3085,-1.9107,11.4076,-1.3833,4.7909,5.4269,-11.8851,-4.0299,-10.7654,-13.4276,-4.6645,8.3418,-2.6507,-6.2816,1.4262,-14.8997,-5.4742
2519.5312,0.6656,-7.3730,-8.8710,-2.1579,10.2448,1.9509,9.1124,5.2532,-13.0609,-2.9810,-14.2057,-13.7325,-4.1115,8.0279,6.4736,-7.9573,2.3751,-15.5992,-5.1642
2523.4375,0.9091,-7.3183,-8.1522,-2.8531,7.9439,4.8700,11.7450,3.9984,-12.7190,-3.3052,-15.5365,-12.4407,-4.1119,6.9312,11.6654,-7.6363,3.3765,-15.1468,-5.2549
2527.3438,0.8452,-5.8911,-6.8231,-3.0103,6.6522,5.8610,12.1277,2.4090,-11.0953,-4.8516,-14.0620,-9.8002,-3.8227,6.9491,9.9136,-5.2407,4.8616,-13.2701,-4.8276
2531.2500,0.2661,-3.5292,-4.7243,-2.2006,7.3014,4.4067,10.6716,1.1748,-8.8940,-7.1587,-9.9993,-6.6673,-2.7558,8.3771,1.3317,-1.7660,6.5336,-10.2391,-3.3241
2535.1562,-0.9953,-1.0623,-2.3365,-1.1050,8.6557,1.1047,8.1838,0.3800,-6.9331,-9.5107,-4.6219,-4.2473,-1.4784,9.3190,-10.4462,1.2562,7.2605,-7.0084,-1.2577
2539.0625,-2.8247,0.7252,-0.7567,-1.1004,8.2972,-2.7979,5.3501,-0.4724,-5.7761,-11.0043,0.0387,-3.5747,-1.3755,7.0880,-19.8647,2.5244,5.8160,-4.8742,-0.0530
2542.9688,-4.6772,1.4530,-1.0694,-3.1567,4.7854,-6.0334,2.5957,-1.9016,-5.5076,-10.8050,2.0376,-4.9241,-3.5316,0.6129,-22.3717,1.5898,1.9813,-4.7565,-1.0327
2546.8750,-5.7208,1.2294,-3.5238,-6.9239,-0.8180,-7.7134,0.2500,-3.8597,-5.7500,-8.5835,0.5793,-7.5140,-7.6089,-8.1047,-16.9914,-0.9563,-2.8990,-6.5667,-4.3104
2550.7812,-5.2612,0.4686,-7.1601,-10.7842,-5.4193,-7.4207,-1.2954,-5.6491,-5.9123,-4.8521,-3.3733,-9.8116,-11.7207,-14.8376,-6.8820,-3.8214,-6.5049,-9.1574,-8.4983
2554.6875,-3.1942,-0.3816,-10.2497,-12.8986,-6.1058,-5.1867,-1.6675,-6.4554,-5.5484,-0.8653,-7.4930,-10.3889,-13.5712,-15.8668,2.5973,-5.7167,-6.9963,-10.9805,-11.5503
2558.5938,-0.1592,-1.0103,-11.3150,-12.4869,-2.3900,-1.5311,-0.7805,-6.0637,-4.6250,1.9909,-9.3966,-8.8408,-12.0919,-10.6281,7.1514,-6.0653,-4.3147,-11.0597,-12.1633
2562.5000,2.7535,-1.2528,-10.0390,-10.3721,3.3127,2.5066,0.9645,-5.1368,-3.5274,2.9797,-8.0723,-6.1132,-8.3226,-2.2452,6.0307,-5.3106,-0.3203,-9.6100,-10.6920
2566.4062,4.5789,-1.0271,-7.4220,-8.3738,7.4010,5.5722,2.7627,-4.7712,-2.7816,2.4217,-4.4351,-3.9189,-4.7882,4.5287,2.0791,-4.6038,2.4254,-7.8505,-8.8714
2570.3125,4.9685,-0.3243,-5.0790,-8.0093,7.6839,6.5347,3.7447,-5.6424,-2.6678,1.3975,-0.5819,-3.5709,-3.7661,6.4750,-0.6471,-5.0080,2.3922,-7.1309,-8.5407
2574.2188,4.2798,0.7161,-4.1906,-9.4676,4.8550,5.0974,3.3468,-7.4180,-3.0020,0.9240,1.7338,-5.0465,-5.7119,3.8628,0.0155,-6.6896,0.0701,-7.9922,-10.3184
2578.1250,3.2353,1.7426,-4.8464,-11.5848,1.7443,2.0205,1.4905,-8.9328,-3.2684,1.2053,2.2744,-6.9996,-9.0138,-0.1697,2.7464,-8.6526,-2.5032,-9.8319,-13.1967
2582.0312,2.4168,2.2733,-6.1983,-12.7658,1.0149,-1.3078,-1.4608,-9.0260,-3.0378,1.5364,2.2532,-7.7662,-11.2365,-2.1826,3.8310,-9.2779,-3.2963,-11.3903,-15.3077
2585.9375,1.9569,1.9422,-7.2203,-12.1066,3.1610,-3.7102,-4.8304,-7.4039,-2.3660,0.9577,3.1011,-6.6426,-10.8824,-0.8999,0.1596,-7.4129,-1.7331,-11.6660,-15.2358
2589.8438,1.6137,0.7675,-7.4470,-9.8870,6.3428,-4.8436,-7.7172,-4.8573,-1.8444,-0.8320,5.0688,-4.4632,-8.3427,2.2633,-8.0564,-3.3233,1.0327,-10.5733,-12.8919
2593.7500,1.1180,-0.7688,-7.1437,-7.1603,8.0716,-5.1104,-9.0808,-2.6653,-2.2051,-3.0310,6.8262,-3.0027,-5.3879,4.8082,-16.8945,1.1819,3.1457,-8.8798,-9.3793
2597.6562,0.4931,-1.9399,-6.8601,-4.8745,7.2807,-4.9510,-7.9825,-1.6512,-3.7307,-4.1558,6.4427,-3.6268,-3.7100,5.3946,-21.0621,3.6559,3.4996,-7.5405,-6.0849
2601.5625,0.0975,-2.1820,-6.8196,-3.2631,5.0923,-4.1851,-4.0469,-1.6252,-5.9069,-3.0739,3.0169,-6.2196,-3.7223,4.8225,-17.4103,2.4658,2.4479,-6.9896,-3.7812
2605.4688,0.3763,-1.4298,-6.6941,-1.9368,3.7261,-2.0850,2.0595,-1.6314,-7.6272,0.1020,-2.3439,-9.2312,-4.5318,5.0167,-7.1920,-2.1246,1.2628,-6.9437,-2.4062
2609.3750,1.5310,-0.1485,-5.9529,-0.4922,4.5367,1.7607,8.5307,-0.7815,-7.8664,3.9433,-7.0380,-10.8343,-4.9883,6.9954,4.5144,-7.9840,0.8688,-6.8207,-1.5549
2613.2812,3.3566,0.9597,-4.4690,0.9510,6.8316,6.5183,12.9932,0.9942,-6.3824,6.5557,-8.6722,-10.3065,-4.8344,9.6380,11.8367,-12.3028,0.9544,-6.3714,-1.1317
2617.1875,5.3425,1.3682,-2.8293,1.7537,8.4214,10.0675,13.6038,2.8571,-3.9401,6.7733,-6.7082,-8.5647,-4.9517,10.3673,11.5502,-13.2199,0.2273,-5.9653,-1.5412
2621.0938,6.9325,0.9800,-2.0368,1.2751,7.4007,10.1790,10.0857,3.6737,-1.8711,4.8523,-2.8168,-7.4240,-6.5040,7.2389,4.6794,-10.8540,-2.3891,-6.2829,-3.2644
2625.0000,7.7448,0.0762,-2.7955,-0.5602,3.6870,6.2015,4.0155,2.8315,-1.2491,2.1846,0.3275,-8.1506,-9.7318,0.7372,-4.6395,-7.0936,-6.6173,-7.6746,-6.2323
2628.9062,7.6351,-0.9522,-4.9327,-3.1288,-0.9030,-0.0625,-1.9243,0.6356,-2.2449,0.2574,0.9063,-10.4349,-13.4568,-6.2092,-12.0403,-4.3215,-10.7186,-9.7359,-9.5967
2632.8125,6.6387,-1.8623,-7.4304,-5.5070,-4.0254,-5.1780,-5.3506,-1.9691,-4.0962,-0.3674,-0.9081,-12.5931,-15.7649,-10.0687,-15.4826,-3.9513,-12.5722,-11.4810,-12.1469
2636.7188,4.9102,-2.6231,-9.0774,-7.0601,-4.4728,-6.2427,-5.4031,-4.0650,-5.6904,-0.3186,-3.3313,-12.8533,-15.3592,-9.0249,-15.8426,-5.7328,-11.1431,-12.0106,-13.0686
2640.6250,2.7326,-3.2873,-9.2736,-7.7541,-2.8229,-2.9224,-3.0413,-5.2733,-6.3235,-0.7581,-4.4848,-10.7405,-12.5187,-4.0576,-15.4357,-8.2107,-7.2239,-11.1716,-12.4491
2644.5312,0.5445,-3.8292,-8.4010,-7.9893,-0.6825,2.1854,-0.2742,-5.7592,-6.0959,-2.3263,-3.8377,-7.5024,-8.9088,1.9250,-15.8253,-9.9082,-2.8926,-9.6971,-11.1430
2648.4375,-1.1222,-4.1134,-7.5021,-8.1625,0.7082,5.2552,1.1280,-5.8402,-5.6970,-4.5008,-2.4846,-5.2525,-6.4063,6.1215,-16.6230,-10.3425,-0.1166,-8.7172,-10.1336
2652.3438,-1.8317,-4.0153,-7.5207,-8.3605,1.3013,3.8678,0.5928,-5.6223,-5.7934,-5.8722,-2.1247,-5.4819,-5.8611,7.4660,-16.0717,-10.1754,0.4460,-8.9991,-9.9087
2656.2500,-1.4614,-3.5682,-8.6684,-8.4259,1.8824,-1.3093,-1.1816,-5.0070,-6.5043,-5.1529,-3.6131,-8.0436,-6.7259,6.7526,-12.7946,-10.4785,-0.4044,-10.4684,-10.3150
2660.1562,-0.2750,-2.9822,-10.3526,-8.2826,2.9680,-7.0228,-2.9517,-4.0262,-7.3481,-2.1873,-6.2391,-11.3256,-7.7559,5.4212,-7.2583,-11.7452,-1.3118,-12.3260,-10.9294
2664.0625,1.2344,-2.5027,-11.6689,-8.1798,4.0196,-9.7449,-3.8557,-3.1313,-7.6556,1.7849,-8.2656,-13.4197,-8.1376,4.1697,-1.8005,-13.4188,-1.5299,-13.6276,-11.5641
2667.9688,2.6424,-2.2278,-12.0507,-8.6063,3.7058,-8.0943,-3.8956,-3.0835,-7.0911,4.8375,-8.2621,-13.3866,-8.1169,2.5287,0.7990,-14.2778,-1.4222,-13.8779,-12.4530
2671.8750,3.8138,-2.0457,-11.5953,-9.9283,1.0050,-3.6233,-3.7350,-4.4483,-5.8702,5.5716,-6.1786,-11.7155,-8.6607,-0.3950,-0.8455,-13.3569,-1.9704,-13.2352,-13.9793
2675.7812,4.8795,-1.7530,-10.8705,-12.0597,-3.7951,0.5116,-4.0790,-7.0801,-4.5311,4.0113,-3.3581,-9.7514,-10.4990,-4.7977,-5.7795,-10.7015,-3.7764,-12.2559,-16.2079
2679.6875,5.9988,-1.2501,-10.4097,-14.4452,-9.0638,1.8972,-5.1362,-10.0513,-3.4820,1.5664,-1.5289,-8.6284,-13.3682,-9.7111,-11.2656,-7.4118,-6.4204,-11.4448,-18.6471
2683.5938,7.1164,-0.6392,-10.3099,-16.3751,-12.8179,0.4500,-6.5087,-12.1547,-2.7081,0.0906,-1.5727,-8.5444,-16.0718,-13.5826,-14.4071,-4.9738,-8.7038,-10.9665,-20.4500
2687.5000,7.9363,-0.1354,-10.2229,-17.3786,-13.9627,-1.8464,-7.4878,-12.6482,-1.8690,0.6701,-2.9715,-8.8441,-17.2827,-15.3698,-13.7469,-4.3782,-9.5552,-10.6796,-20.8970
2691.4062,8.1483,0.1331,-9.7033,-17.3959,-12.8359,-2.6738,-7.4737,-11.6987,-0.6833,2.9498,-4.2708,-8.7073,-16.4288,-15.2039,-9.8912,-5.6201,-8.8411,-10.3765,-19.7803
2695.3125,7.7173,0.2544,-8.6055,-16.6359,-10.6961,-1.1366,-6.2403,-10.1893,0.7366,5.4269,-4.1441,-7.8140,-13.9813,-14.0801,-4.9353,-7.8374,-7.4124,-9.9770,-17.4232
2699.2188,6.9731,0.4689,-7.2196,-15.2887,-8.6416,1.7680,-3.9717,-9.0379,1.8897,6.4857,-2.2687,-6.4758,-10.9850,-12.8770,-1.2187,-9.8797,-6.3546,-9.5223,-14.3785
2703.1250,6.3940,0.9556,-6.0603,-13.3690,-6.8485,4.1466,-1.1729,-8.5423,2.2369,5.4657,0.5399,-5.2319,-8.2743,-11.5676,-0.2159,-10.8609,-6.0561,-9.0276,-11.0960
2707.0312,6.2403,1.6481,-5.4966,-10.8241,-4.6910,4.7011,1.4346,-8.2393,1.6198,3.0599,2.9175,-4.3443,-6.0228,-9.3072,-2.0993,-10.3893,-5.8685,-8.3774,-7.8235
2710.9375,6.3462,2.2416,-5.5082,-7.7930,-1.5662,3.4875,3.0423,-7.3633,0.4207,0.8151,3.7804,-3.6519,-3.9362,-5.3511,-5.9896,-8.5015,-4.6651,-7.3864,-4.7576
2714.8438,6.2677,2.4009,-5.7308,-4.7622,2.2989,1.4837,2.9928,-5.5335,-0.6594,0.1081,2.8675,-2.8679,-1.8469,-0.0603,-10.5382,-5.5466,-1.8912,-5.9779,-2.2298
2718.7500,5.6969,2.0127,-5.7218,-2.4450,5.7161,-0.4371,1.1270,-3.1367,-1.0268,1.3001,0.7677,-1.9950,-0.1455,4.8431,-14.4508,-2.1926,1.7132,-4.3064,-0.6936
2722.6562,4.8092,1.2948,-5.2276,-1.4343,7.1819,-2.1034,-1.9428,-1.1183,-0.5066,3.6088,-1.4441,-1.4324,0.3497,7.0649,-16.7744,0.5358,4.3305,-2.6969,-0.4774
2726.5625,4.2305,0.6886,-4.2699,-1.8638,5.8205,-3.7190,-4.9009,-0.3441,0.6671,5.7274,-2.6964,-1.6469,-0.9962,5.1028,-16.9976,1.4423,4.1603,-1.4338,-1.5019
2730.4688,4.5940,0.6229,-3.0374,-3.3122,1.9696,-5.0722,-6.2610,-1.0102,2.1228,6.7090,-2.3342,-2.6829,-4.0234,-0.7034,-15.0888,-0.3116,0.6792,-0.5716,-3.2158
2734.3750,5.9951,1.3087,-1.7233,-5.0177,-2.9446,-5.2237,-5.1641,-2.5265,3.6263,6.4940,-0.3776,-3.9587,-7.6565,-8.1352,-11.5223,-4.5607,-4.8098,0.0754,-4.8463
2738.2812,7.7676,2.6642,-0.4661,-6.2717,-7.1127,-3.1729,-1.9798,-3.9417,5.1270,5.7481,2.4247,-4.5768,-10.4031,-14.1348,-7.2426,-9.8641,-9.7668,0.7487,-5.8141
2742.1875,8.7947,4.3544,0.5702,-6.7658,-9.1877,0.9784,1.7241,-4.5970,6.5684,5.1943,4.8216,-3.9503,-11.1572,-16.3394,-3.4800,-13.9842,-11.8277,1.5121,-6.0362
2746.0938,8.1803,5.8736,1.0862,-6.7173,-8.8434,5.4736,3.9299,-4.5495,7.6692,4.9819,5.5861,-2.2694,-9.7951,-14.2600,-1.3988,-15.0145,-10.1780,2.1489,-5.9238
2750.0000,5.8283,6.6405,0.6658,-6.7298,-6.8437,7.7125,3.2632,-4.4911,7.9261,4.5831,4.1732,-0.4341,-7.2140,-9.4719,-1.6617,-12.5287,-6.0345,2.2671,-6.0892
2753.9062,2.5324,6.1464,-1.0173,-7.4646,-4.6527,6.0558,-0.2003,-5.2394,6.8978,3.2934,1.1407,0.5222,-4.8221,-4.7341,-4.0819,-7.9762,-1.9345,1.5363,-6.9594
2757.8125,-0.4839,4.1817,-3.9124,-9.2715,-3.7641,1.2878,-4.9165,-7.1519,4.5869,0.9374,-2.0184,0.1104,-3.8055,-2.5193,-7.5597,-3.9523,-0.2644,-0.1041,-8.5226
2761.7188,-2.2587,1.0595,-7.4347,-11.9386,-4.9989,-3.5466,-8.6899,-9.8384,1.6120,-1.7909,-3.6649,-1.3182,-4.5737,-3.7455,-10.4364,-2.7029,-1.9145,-2.3858,-10.3277
2765.6250,-2.5627,-2.3480,-10.6004,-14.6963,-8.0662,-5.0737,-9.8774,-12.3412,-1.0074,-3.6668,-3.0027,-2.8528,-6.6388,-7.3939,-11.2193,-4.7742,-5.8534,-4.8113,-11.7082
2769.5312,-1.8830,-4.9004,-12.4349,-16.5198,-11.6410,-2.0430,-8.2958,-13.6597,-2.3628,-3.7524,-0.6196,-3.6550,-8.9362,-11.2199,-9.3977,-8.6856,-9.8348,-6.8330,-12.1035
2773.4375,-1.0035,-5.7317,-12.4421,-16.6325,-14.0147,3.4974,-5.3115,-13.3034,-2.1465,-2.1055,1.8494,-3.4816,-10.3872,-13.1362,-5.8885,-11.8660,-11.7621,-8.0222,-11.3292
2777.3438,-0.5130,-4.7359,-10.8564,-14.9600,-14.0391,7.3051,-3.0524,-11.5591,-0.8001,0.1650,2.7789,-2.7471,-10.4162,-12.4345,-2.7181,-12.2668,-10.8574,-8.1803,-9.6782
2781.2500,-0.5586,-2.6441,-8.5117,-12.2510,-11.8196,5.7250,-3.1734,-9.3268,0.7755,1.5941,1.6437,-2.1271,-9.1774,-10.0796,-1.9268,-9.6217,-7.9481,-7.3837,-7.7968
2785.1562,-0.9320,-0.5852,-6.3923,-9.7279,-8.6776,-1.7009,-5.8632,-7.6224,1.7563,1.3418,-0.6167,-2.0314,-7.3893,-7.8985,-4.2285,-5.5549,-4.7708,-5.9596,-6.3719
2789.0625,-1.3349,0.6055,-5.1320,-8.4208,-6.3320,-11.6087,-9.6596,-7.0252,1.8319,-0.2373,-2.2371,-2.3382,-5.8774,-7.2291,-8.2909,-2.5030,-2.8187,-4.3856,-5.7680
2792.9688,-1.5963,0.8437,-4.7576,-8.5766,-5.8063,-18.6706,-12.2082,-7.3794,1.2762,-1.8737,-1.8462,-2.5605,-5.0915,-8.0006,-11.2956,-2.1809,-2.5126,-3.1260,-5.8218
2796.8750,-1.7222,0.6851,-4.8170,-9.5386,-6.8094,-18.7725,-11.5776,-7.9222,0.6429,-2.3392,0.5710,-2.2893,-4.8934,-8.9256,-10.6610,-4.5793,-3.1992,-2.4690,-5.9463
2800.7812,-1.8170,0.7367,-4.7819,-10.1967,-8.0379,-11.4872,-7.4086,-7.7639,0.3229,-1.3961,3.6273,-1.5618,-4.7534,-8.6642,-5.9283,-8.0866,-3.8776,-2.4546,-5.5206
2804.6875,-1.9943,1.0698,-4.4410,-9.7210,-8.1800,-0.3230,-1.2270,-6.4379,0.2717,-0.0262,5.4172,-0.8793,-4.2219,-7.0500,0.5253,-10.5728,-4.0484,-2.9419,-4.3312
2808.5938,-2.3360,1.1278,-4.0202,-8.0763,-6.8679,9.3142,4.3018,-4.1811,0.0801,0.2770,4.7132,-0.8609,-3.3334,-5.3667,4.6827,-10.6825,-4.0388,-3.7654,-2.7539
2812.5000,-2.8752,0.2288,-3.9661,-5.9712,-4.8651,13.1114,6.7939,-1.7726,-0.6855,-1.3233,1.6757,-1.7920,-2.6277,-5.3785,3.4517,-8.5275,-4.5930,-4.8530,-1.5207
2816.4062,-3.5544,-1.7429,-4.5694,-4.3071,-3.3782,9.9969,5.4389,-0.0386,-2.1284,-4.2333,-2.3406,-3.3961,-2.7504,-7.8264,-3.0403,-5.4379,-6.1061,-6.2056,-1.2140
2820.3125,-4.1808,-4.0568,-5.7097,-3.5592,-3.0716,2.3325,1.4040,0.6416,-3.9065,-6.6735,-5.6742,-5.0015,-3.9253,-11.6108,-11.1150,-3.0549,-8.1568,-7.7577,-1.8580
2824.2188,-4.4612,-5.5607,-6.9043,-3.5500,-3.5880,-5.7169,-2.8861,0.4969,-5.4387,-6.8546,-7.3025,-5.9892,-5.7184,-14.4111,-15.6751,-2.4105,-9.7464,-9.2586,-2.9282
2828.1250,-4.1668,-5.5279,-7.6119,-3.7451,-3.9349,-10.5027,-5.1445,0.1004,-6.2833,-4.3016,-7.2630,-6.2024,-7.3019,-14.3625,-13.5700,-3.5348,-10.0689,-10.3184,-3.7800
2832.0312,-3.3500,-4.2502,-7.5550,-3.7727,-3.3691,-10.5726,-4.4304,-0.0996,-6.4190,-0.3701,-6.3874,-6.0135,-8.0309,-11.4988,-5.9359,-5.7017,-9.1788,-10.6250,-4.1544
2835.9375,-2.4319,-2.8574,-6.8264,-3.7057,-2.0004,-6.9561,-1.4618,-0.0881,-6.2214,2.4895,-5.6408,-5.9841,-7.8738,-7.7618,2.2422,-8.0106,-7.9774,-10.1709,-4.3337
2839.8438,-2.0260,-2.4448,-5.7275,-3.8685,-0.6043,-2.1765,2.0631,-0.1967,-6.1446,2.2973,-5.5398,-6.3531,-7.3400,-5.4770,5.2683,-9.8646,-7.4813,-9.2827,-4.7977
2843.7500,-2.5621,-3.1775,-4.5094,-4.3717,0.1585,1.2565,4.5785,-0.7174,-6.3360,-1.0996,-5.9639,-6.7397,-6.9604,-5.4583,0.5668,-11.0931,-7.9434,-8.3895,-5.6648
2847.6562,-3.9658,-4.1159,-3.2547,-4.8347,0.3780,2.0168,5.4161,-1.5630,-6.4814,-5.8320,-6.3694,-6.3349,-6.7720,-6.3014,-9.4165,-11.7676,-8.5667,-7.6989,-6.4286
2851.5625,-5.6665,-3.9694,-2.0044,-4.6145,0.7682,0.2972,4.7957,-2.2933,-6.0349,-9.1658,-6.1935,-4.5152,-6.2862,-5.5498,-18.6535,-11.9520,-8.1159,-7.0624,-6.2937
2855.4688,-6.9790,-2.2386,-0.9960,-3.4080,1.8496,-2.6593,3.2437,-2.5168,-4.7109,-9.2797,-5.2077,-1.4817,-5.0238,-1.9106,-21.4396,-11.5965,-6.0001,-6.1907,-4.9136
2859.3750,-7.6037,0.1579,-0.7458,-1.7194,3.1813,-5.4092,1.0569,-2.3350,-2.8973,-6.4789,-3.6815,1.5621,-3.1842,3.2443,-16.1578,-10.6106,-2.9704,-5.0781,-2.9282
2863.2812,-7.8594,1.3383,-1.8113,-0.7247,3.4228,-7.0312,-1.7065,-2.4081,-1.6488,-3.0214,-2.3221,2.9254,-1.8222,6.4233,-6.3506,-9.0076,-0.8063,-4.2712,-1.7724
2867.1875,-8.4374,-0.2592,-4.3457,-1.5202,1.3332,-7.4076,-4.7770,-3.4997,-2.1722,-1.6586,-2.0127,1.4096,-2.2477,4.3920,1.6099,-6.9914,-1.1258,-4.6738,-2.7545
2871.0938,-9.8367,-4.6786,-7.7801,-4.2644,-3.0307,-7.0597,-7.3110,-5.7901,-5.0702,-3.8584,-3.4108,-2.8443,-4.9981,-3.3117,2.6309,-4.9394,-4.1604,-6.9269,-6.0194
2875.0000,-11.9125,-10.2412,-10.9478,-7.8800,-7.9419,-6.7611,-8.1365,-8.5057,-9.8264,-8.8793,-6.5498,-8.2273,-9.1665,-13.6422,-3.9936,-3.3174,-8.4284,-10.7852,-10.1967
2878.9062,-13.9144,-14.5339,-12.6689,-10.6146,-10.9148,-7.1797,-6.5825,-10.2374,-14.9151,-14.2767,-10.6585,-12.4300,-12.7018,-21.7568,-14.4569,-2.5702,-11.6072,-15.0028,-13.1011
2882.8125,-15.0137,-15.9199,-12.4534,-11.1271,-10.3546,-8.6666,-3.2575,-9.8252,-18.5395,-17.4506,-14.3835,-13.6999,-13.6031,-24.0310,-23.1480,-2.9941,-12.0190,-17.9310,-13.0903
2886.7188,-14.9215,-14.5171,-10.8351,-9.3522,-6.7459,-11.1486,-0.0228,-7.2223,-19.5809,-17.1747,-16.3969,-11.8277,-11.2286,-20.2604,-26.1481,-4.5860,-9.6794,-18.4978,-10.1583
2890.6250,-14.1008,-11.9791,-9.0601,-6.5300,-2.4562,-14.0567,1.0453,-3.6949,-18.1656,-14.1281,-16.0969,-8.2304,-6.7730,-13.5370,-23.1429,-6.9250,-6.1724,-16.8994,-5.9787
2894.5312,-13.3766,-10.2827,-8.2899,-4.3779,-0.2273,-16.3378,-0.9170,-1.1411,-15.4820,-10.1886,-13.9655,-5.0536,-2.5217,-7.9881,-16.7318,-9.2039,-3.4796,-14.4711,-2.8325
2898.4375,-13.2353,-10.4065,-8.8372,-3.9841,-1.4055,-16.7075,-4.7937,-0.9331,-12.9635,-7.0999,-11.2970,-3.8484,-0.3604,-6.0760,-10.0468,-10.5012,-2.6388,-12.7664,-2.1404
2902.3438,-13.3750,-11.8079,-9.9529,-5.1792,-5.1496,-14.2323,-8.0601,-3.0469,-11.3838,-5.4840,-9.4123,-4.6576,-0.5733,-7.3336,-4.6546,-10.2314,-3.1879,-12.4607,-3.5961
2906.2500,-12.9038,-12.9724,-10.3182,-6.7692,-9.1185,-9.0425,-8.4021,-6.0693,-10.4696,-4.8188,-8.8511,-6.0814,-1.7593,-9.2265,-0.2053,-8.5249,-3.7166,-12.8634,-5.4571
2910.1562,-11.0764,-12.5458,-8.9151,-7.3989,-11.0640,-2.6932,-5.2738,-8.0790,-9.2789,-4.2409,-9.0922,-6.2552,-1.8946,-9.2440,4.2476,-6.2444,-3.0213,-12.4170,-5.7406
2914.0625,-8.0203,-10.2149,-5.6937,-6.4087,-10.1597,2.2839,-0.2666,-7.8099,-7.0522,-3.4483,-9.0079,-4.0880,0.2415,-6.5678,8.6262,-4.5301,-0.9641,-9.8541,-3.4786
2917.9688,-4.8689,-6.7858,-1.6052,-4.1304,-7.2016,3.6344,3.9950,-5.3373,-3.9102,-2.9834,-7.7353,0.0373,4.2845,-2.2252,11.3684,-4.0932,1.5570,-5.1938,0.7857
2921.8750,-3.1443,-3.5405,1.9901,-1.5158,-3.7234,0.7846,5.6223,-1.8839,-0.8810,-3.7246,-5.3328,4.5233,8.6409,2.0744,10.5009,-4.7139,3.3934,0.1456,5.4858
2925.7812,-3.7926,-1.4238,4.1203,0.5435,-0.8362,-4.5800,4.6081,1.0458,0.7763,-6.0475,-2.7413,7.5648,11.6423,5.2687,5.3237,-5.3289,4.0066,4.2187,9.0623
