Time,Fp1,F3,C3,P3,O1,F7,T3,T5,Fz,Fp2,F4,C4,P4,O2,F8,T4,T6,Cz,Pz
0.0000,1.8082,2.5709,1.8257,-1.9312,0.3780,2.0507,2.1566,1.3867,0.9326,1.3444,0.0877,-3.0083,-2.2994,-1.0596,1.7691,-3.1709,-2.4862,-1.2202,-1.8029
3.9062,-0.3763,1.6592,-0.3737,-3.0204,-1.4917,1.4582,1.7949,0.0200,-1.1095,-1.4403,-1.1096,-4.4326,-3.8384,-2.1825,1.3954,-4.7377,-3.4622,-3.6290,-2.3979
7.8125,-2.9514,-0.8191,-4.3395,-4.7048,-4.3063,0.0337,-0.1062,-2.1671,-4.0990,-4.1756,-2.8493,-6.2951,-6.1461,-4.0547,0.1494,-5.8603,-4.6015,-6.9939,-4.0459
11.7188,-4.6655,-4.2695,-8.3488,-6.1442,-6.4246,-1.9407,-2.6397,-4.2222,-6.6118,-5.5850,-4.1159,-7.5121,-7.6123,-5.6422,-1.1916,-5.9228,-4.8883,-9.6029,-5.3890
15.6250,-4.5736,-7.2088,-10.5259,-6.4272,-6.3748,-3.8190,-3.9738,-5.0106,-7.2140,-5.0627,-4.0105,-7.0578,-6.8445,-5.8636,-1.5588,-4.5538,-3.6919,-9.9550,-4.9957
19.5312,-2.7736,-8.1543,-10.1538,-5.1593,-3.9416,-5.0190,-2.8945,-3.9562,-5.5151,-3.0920,-2.5387,-4.7033,-3.6937,-4.3043,-0.4947,-1.8549,-1.3171,-7.8241,-2.5150
23.4375,-0.5014,-6.6676,-8.1815,-2.7454,-0.4268,-5.4018,-0.0457,-1.4947,-2.5963,-0.9707,-0.8144,-1.3117,0.5532,-1.5197,1.2961,1.5008,1.0996,-4.4904,0.9133
27.3438,0.5692,-3.7701,-6.5048,-0.1493,2.1785,-5.2933,2.3179,1.1353,-0.4231,-0.0136,-0.4114,1.5881,3.9906,1.3017,2.2728,4.4184,2.3247,-1.9265,3.3951
31.2500,-0.6033,-1.3604,-6.5337,1.7125,2.5561,-5.1430,2.0506,2.6707,-0.5978,-0.7618,-2.2567,2.7139,5.3367,3.0917,1.1228,5.8029,1.8766,-1.4992,3.6663
35.1562,-3.7195,-0.9946,-8.1241,2.5192,0.9796,-5.1298,-1.0279,2.6486,-3.3149,-2.7161,-5.8687,1.8257,4.6986,3.5507,-2.1987,5.0989,0.3640,-3.1135,2.0759
39.0625,-7.2951,-2.8865,-9.6907,2.6588,-0.8912,-5.0703,-4.7385,1.6787,-7.2524,-4.7378,-9.5477,-0.1468,3.3356,3.2553,-6.2630,2.6630,-0.9393,-5.3905,0.3794
42.9688,-9.5849,-5.8381,-9.4137,2.8507,-1.2022,-4.7063,-6.0947,0.9499,-10.4531,-5.8029,-11.4309,-1.7302,2.6595,3.1778,-9.0145,-0.2938,-0.9654,-6.6971,0.4625
46.8750,-9.6314,-8.1258,-6.6215,3.5819,0.7815,-4.0849,-3.6614,1.3185,-11.5404,-5.5801,-10.6688,-1.8441,3.2656,3.9853,-9.0900,-2.2407,0.4741,-6.2326,2.9434
50.7812,-7.7270,-8.6642,-2.3066,4.7730,4.1804,-3.6340,1.1876,2.6534,-10.4096,-4.4733,-7.8804,-0.4030,4.6970,5.6071,-6.6613,-2.0961,2.6827,-4.3902,6.7130
54.6875,-5.0259,-7.5936,1.5883,5.8922,7.1464,-3.7973,5.2090,3.9282,-7.9839,-3.1764,-4.5863,1.7898,6.0227,7.3359,-3.2057,0.1878,4.6886,-2.2203,9.7483
58.5938,-2.6628,-5.9166,3.5420,6.3837,8.1341,-4.5168,5.7477,3.9940,-5.3455,-2.1268,-2.0916,3.7037,6.6673,8.3314,-0.4136,3.5730,5.9518,-0.5185,10.5606
62.5000,-1.0593,-4.5569,3.4449,6.0522,6.8509,-5.0589,2.7505,2.4458,-2.9789,-1.2684,-0.6744,4.7643,6.7877,8.1320,0.9244,6.4699,6.6209,0.6975,9.1737
66.4062,0.1051,-3.6309,2.5075,5.1168,4.2355,-4.4442,-1.3046,-0.0766,-0.6860,-0.2632,0.3470,5.0742,6.9317,6.8333,1.2447,7.5749,7.1846,1.9499,6.9262
70.3125,1.3284,-2.5051,2.2288,3.9354,1.5739,-2.2367,-3.5041,-2.3794,1.8654,1.0696,1.8153,5.0878,7.3417,4.8756,1.5909,6.5498,7.8656,3.5896,5.3224
74.2188,2.6523,-0.5405,3.2488,2.6683,-0.5031,0.9249,-2.8697,-3.6093,4.5156,2.4633,3.9048,5.0909,7.5540,2.6762,2.6238,4.1748,8.2944,5.2840,4.8718
78.1250,3.4988,2.1348,4.9220,1.1814,-2.3656,3.5466,-1.0194,-3.8549,6.4839,3.3053,5.9366,4.9470,6.6712,0.4146,4.0723,1.9077,7.7459,6.1738,4.8049
82.0312,3.1082,4.4973,5.8516,-0.7270,-4.8528,4.1909,-0.5695,-3.9885,6.8618,3.0643,6.9438,4.3042,4.1005,-1.8908,5.0285,1.1062,5.7517,5.5765,3.8233
85.9375,1.2187,5.2838,4.9160,-2.9767,-8.3363,2.4586,-2.6563,-4.8801,5.3240,1.7252,6.4817,3.0526,0.1582,-4.1364,4.7847,2.3374,2.5902,3.6365,1.2323
89.8438,-1.5557,3.9383,2.0374,-5.0434,-12.1438,-0.6864,-5.7343,-6.6108,2.4867,-0.0827,5.0149,1.6076,-3.9518,-5.9669,3.4971,5.1230,-0.7376,1.3610,-2.4395
93.7500,-3.9488,1.1226,-1.7685,-6.1557,-14.8050,-3.5121,-6.7504,-8.3167,-0.3596,-1.3667,3.6021,0.7483,-6.7745,-6.8612,2.1440,8.2235,-3.0322,-0.0141,-5.7628
97.6562,-4.7173,-1.6002,-4.9746,-5.7413,-14.9456,-4.6089,-3.7692,-8.8029,-1.9278,-1.2843,3.1798,1.1091,-7.3845,-6.4298,1.8375,10.2785,-3.5379,0.1614,-7.3517
101.5625,-3.3055,-2.6826,-6.3024,-3.8179,-12.1857,-3.6914,2.1583,-7.4685,-1.5422,0.4187,4.0223,2.7077,-5.7820,-4.7089,3.0491,10.4571,-2.2721,1.5769,-6.6877
105.4688,-0.0928,-1.4679,-5.2359,-1.0556,-7.4265,-1.5666,7.5233,-4.8366,0.6737,3.2834,5.7386,4.8699,-2.7238,-2.2383,5.3287,8.7984,0.1115,3.2727,-4.2747
109.3750,3.8603,1.5355,-2.1465,1.5390,-2.3655,0.6175,8.9434,-2.2807,4.0097,6.3630,7.6778,6.6101,0.7624,0.1456,7.6663,6.1078,2.7341,4.3418,-1.1594
113.2812,7.3367,5.0742,1.8854,3.1221,1.3976,2.2018,5.7344,-1.1422,7.5106,8.6481,9.3200,7.2062,3.7898,1.6861,9.1536,3.5185,4.8554,4.4621,1.7052
117.1875,9.4339,7.8938,5.4364,3.4093,3.0951,3.2877,0.3814,-1.8698,10.2201,9.4815,10.3543,6.5905,5.7616,2.0490,9.4461,1.9816,6.0170,3.9077,3.7955
121.0938,9.8044,9.3054,7.2466,2.7756,2.9889,4.3297,-3.4551,-3.7740,11.3383,8.7966,10.5305,5.3424,6.3734,1.4618,8.7758,1.9488,6.0364,3.1591,4.9792
125.0000,8.6798,9.3110,6.7898,2.0491,2.0469,5.4975,-3.7350,-5.5170,10.4371,7.1173,9.6148,4.3404,5.6787,0.6014,7.6519,3.3485,5.0193,2.5324,5.3639
128.9062,6.7627,8.3684,4.6601,2.1281,1.3902,6.4075,-1.3596,-5.9450,7.7563,5.3362,7.6317,4.3136,4.2312,0.2884,6.5669,5.7617,3.4304,2.1403,5.2792
132.8125,5.0124,7.0579,2.4373,3.5916,1.8221,6.4506,0.9658,-4.6889,4.3495,4.3457,5.1822,5.5217,3.0708,1.1160,5.8901,8.6046,2.0714,2.1106,5.3385
136.7188,4.2984,5.8463,1.8909,6.4309,3.5814,5.3890,1.2145,-2.2084,1.7742,4.6409,3.4065,7.6616,3.3210,3.1547,5.8676,11.1958,1.7955,2.7142,6.3085
140.6250,4.9752,4.9737,3.8630,9.9860,6.3047,3.6542,-0.3406,0.6088,1.2995,6.0542,3.3825,9.9811,5.4882,5.8614,6.5526,12.7580,3.0037,4.1491,8.6469
144.5312,6.5864,4.4114,7.5524,13.1321,9.1435,2.0564,-1.7405,2.9191,3.0488,7.7683,5.2849,11.5429,8.9230,8.2585,7.6468,12.5291,5.2455,6.1246,11.9630
148.4375,7.9704,3.8862,10.8248,14.6934,11.0271,1.1515,-1.5315,4.1647,5.7263,8.6630,7.9869,11.5811,11.9517,9.3473,8.4520,10.0866,7.2936,7.6842,14.9078
152.3438,7.8516,3.0310,11.5150,13.9585,11.0565,0.8264,-0.4471,4.0725,7.2775,7.8735,9.5828,9.8515,12.7654,8.5849,8.1452,5.7614,7.7841,7.5973,15.7955
156.2500,5.6506,1.6560,8.9085,11.0577,8.9199,0.4750,-0.9232,2.6059,6.1787,5.2881,8.6187,6.8156,10.5606,6.1806,6.3203,0.8091,6.0684,5.1740,13.6767
160.1562,1.9922,-0.0136,4.3216,6.9650,5.1139,-0.3953,-4.7485,0.0189,2.5003,1.6952,5.1800,3.4917,6.1343,3.0216,3.4218,-2.9581,2.6946,0.9138,9.1102
164.0625,-1.5114,-1.3674,0.2581,3.0547,0.7872,-1.6775,-10.9263,-3.0580,-2.0522,-1.5466,0.9706,0.9642,1.4539,0.2316,0.6506,-4.0429,-0.8648,-3.5916,3.9741
167.9688,-3.1666,-1.7913,-1.3335,0.4136,-2.7739,-2.7467,-15.8166,-5.7117,-5.2260,-3.1679,-1.7819,-0.2166,-1.5552,-1.4040,-0.7233,-2.1766,-3.0934,-6.5576,0.3319
171.8750,-2.2522,-1.1797,-0.4409,-0.6923,-4.7459,-3.0445,-15.7466,-7.1201,-5.7090,-2.6205,-1.8517,-0.3556,-2.1662,-1.8044,-0.2108,1.3620,-3.3229,-7.1240,-0.8755
175.7812,0.4951,-0.1594,1.0612,-0.8555,-5.0919,-2.6279,-10.0844,-7.0287,-3.9519,-0.3223,0.1576,-0.3848,-1.1405,-1.5239,1.5248,4.3757,-2.0173,-5.8729,-0.3423
179.6875,3.3327,0.2541,0.9008,-1.0297,-4.4144,-2.1593,-2.1695,-5.9627,-1.7280,2.6167,2.3193,-1.1758,0.0190,-1.2998,3.1148,5.0521,-0.2808,-4.3370,0.2867
183.5938,4.6296,-0.5879,-1.7792,-1.8269,-3.4653,-2.3062,2.8959,-4.9340,-0.7689,5.0104,2.8523,-2.8517,0.2471,-1.5277,3.4651,3.1285,0.9999,-3.8489,-0.2301
187.5000,3.8938,-2.3609,-5.7025,-3.0941,-2.6761,-3.0809,2.0166,-4.7738,-1.5162,6.1767,1.4256,-4.6180,-0.3744,-2.0245,2.5421,0.0970,1.7164,-4.5982,-1.7711
191.4062,1.9999,-3.8561,-8.4341,-4.0672,-2.0286,-3.7490,-3.5302,-5.5544,-2.9294,6.1519,-0.6929,-5.2939,-0.8730,-2.2314,1.3471,-1.7759,2.4048,-5.6129,-3.0439
195.3125,0.4693,-3.8299,-8.3186,-3.9872,-1.3032,-3.4644,-9.0920,-6.5451,-3.4698,5.4563,-1.7328,-4.1996,-0.3311,-1.6900,1.0875,-1.0062,3.5901,-5.6628,-2.7565
199.2188,0.3242,-2.0419,-5.8588,-2.7184,-0.4425,-2.1264,-10.2892,-6.7648,-2.4641,4.6171,-0.8745,-1.7506,1.2830,-0.4300,2.1856,2.0416,5.1896,-4.3583,-0.7937
203.1250,1.3337,0.3366,-3.4089,-0.9026,0.3026,-0.6863,-6.4338,-5.7263,-0.7648,3.7860,1.0881,0.7163,3.0639,1.0235,3.9000,5.3551,6.4860,-2.5658,1.5900
207.0312,2.1749,1.3694,-3.3683,0.4779,0.5711,-0.5385,-0.9727,-3.7982,-0.1789,2.6909,2.3683,1.8028,3.9057,2.0259,4.8515,6.6374,6.6906,-1.7987,2.7434
210.9375,1.3773,-0.3044,-6.2607,0.8138,0.2553,-2.3989,1.4157,-1.9022,-2.1013,0.9207,1.5590,0.9868,3.3989,2.2912,4.0253,4.8862,5.6251,-3.0540,1.9765
214.8438,-1.6266,-4.3907,-10.2090,0.3361,-0.2993,-5.5682,-1.2731,-0.7837,-6.4044,-1.6818,-1.3445,-1.0440,2.1601,2.1203,1.4633,1.0736,3.9527,-5.9943,0.1857
218.7500,-6.0640,-8.9628,-12.2481,-0.0084,-0.4488,-8.2430,-6.6429,-0.4401,-11.4219,-4.7970,-5.0434,-2.9050,1.3595,2.2159,-1.8620,-2.5503,2.7585,-9.1072,-0.7862
222.6562,-10.2639,-11.6500,-10.4874,0.8136,0.3420,-8.7263,-9.7896,-0.1620,-15.0257,-7.7243,-7.9944,-3.4800,1.8580,3.2216,-4.8240,-4.0083,2.8066,-10.7126,0.4384
226.5625,-12.6439,-11.1888,-5.4755,3.2310,2.1537,-6.6533,-7.3260,0.8497,-15.9767,-9.7340,-9.5143,-2.6219,3.6435,5.3062,-6.8933,-2.8833,4.0481,-10.0561,3.7101
230.4688,-12.5789,-8.2357,0.2501,6.7847,4.5852,-3.2903,-0.3004,2.7968,-14.5774,-10.4539,-10.0495,-1.1039,5.9554,8.0542,-8.2732,-0.4537,5.7321,-7.6999,7.4772
234.3750,-10.6357,-4.8700,4.0286,10.4100,7.0394,-0.6673,6.3831,5.0844,-12.2342,-10.0630,-10.4815,0.0724,7.9022,10.6927,-9.3981,1.3323,6.9791,-4.9922,9.9670
238.2812,-8.1176,-3.1733,4.8841,13.0441,9.0664,-0.2021,7.6610,6.7647,-10.3672,-9.1880,-11.1585,0.4222,9.0081,12.4606,-10.3300,1.2165,7.3285,-3.0955,10.4550
242.1875,-6.2889,-3.9205,3.9128,14.1360,10.4949,-1.8482,2.2682,7.2561,-9.5287,-8.5692,-11.5311,0.1984,9.2756,12.8845,-10.6417,-0.6698,6.8513,-2.3216,9.6156
246.0938,-5.7678,-6.2807,3.0630,13.7681,11.2955,-4.3480,-6.1209,6.7528,-9.3177,-8.6768,-10.6971,-0.0104,8.8307,11.8570,-9.8944,-3.1689,5.8277,-2.1942,8.7377
250.0000,-6.3723,-8.6232,3.4038,12.4186,11.3753,-6.2866,-11.4587,6.0093,-8.9872,-9.4743,-8.3421,0.1142,7.6020,9.5817,-8.2377,-5.0838,4.3700,-2.0450,8.5344
253.9062,-7.3824,-9.7095,4.3276,10.6285,10.5593,-7.0435,-9.6461,5.7052,-8.1283,-10.4401,-5.2072,0.3693,5.4078,6.5074,-6.5140,-5.9426,2.3857,-1.5638,8.5799
257.8125,-7.9723,-9.3564,4.2991,8.8199,8.8216,-6.9159,-1.3779,5.9297,-6.8605,-10.8375,-2.6317,0.3375,2.3887,3.2892,-5.6827,-6.0003,-0.0851,-0.8614,7.8421
261.7188,-7.5776,-8.1822,2.4519,7.3031,6.5517,-6.4550,8.5001,6.2015,-5.4797,-10.1088,-1.5331,-0.0711,-0.6758,0.6942,-6.0187,-5.6578,-2.5159,-0.0997,5.8147
265.6250,-6.0879,-6.8295,-0.3729,6.3239,4.5453,-5.7375,14.4641,5.9663,-4.0140,-8.2059,-1.6964,-0.3869,-2.5919,-0.6343,-6.8077,-4.9575,-3.9606,0.8643,3.2271
269.5312,-3.8753,-5.4295,-2.0835,6.0015,3.6016,-4.3067,13.9334,5.1097,-2.1818,-5.6910,-1.9945,0.0688,-2.4821,-0.5059,-6.8881,-3.6621,-3.6284,2.4115,1.6569
273.4375,-1.6878,-3.7598,-0.9738,6.1839,3.9568,-1.8514,8.4801,4.0320,0.1744,-3.5302,-1.3753,1.5237,-0.4931,0.6069,-5.6606,-1.7961,-1.5714,4.6990,2.3063
277.3438,-0.4129,-1.8555,2.7760,6.4056,4.9960,1.0426,2.0724,3.2369,2.6110,-2.6499,0.2149,3.3849,2.1340,1.7082,-3.7276,-0.0285,1.1051,7.2434,4.9395
281.2500,-0.7323,-0.3902,6.9842,6.1024,5.5468,2.8864,-1.9847,2.8384,4.0985,-3.4592,1.7616,4.5654,3.7972,1.7978,-2.5595,0.6268,2.8057,9.0153,7.8885
285.1562,-2.7690,-0.3421,8.9069,5.0182,4.6460,2.2273,-3.0220,2.4688,3.6687,-5.5912,2.0465,4.3260,3.6010,0.5063,-3.3613,-0.3297,2.4817,9.0919,9.1910
289.0625,-5.9092,-2.1408,7.1734,3.5109,2.2773,-1.1256,-2.6546,1.7085,1.2509,-8.0282,0.7343,2.9691,1.9829,-1.5774,-6.0068,-2.1973,0.4198,7.4058,8.0029
292.9688,-8.9582,-5.0296,2.7598,2.4596,-0.4689,-5.6173,-2.8143,0.6565,-2.0026,-9.5820,-1.2305,1.7654,0.4143,-3.1695,-8.9251,-3.2885,-1.8320,4.9698,5.1981
296.8750,-10.6328,-7.3009,-1.7166,2.7391,-2.0003,-8.7365,-4.0088,0.0756,-4.2772,-9.4901,-2.2739,2.0791,0.3718,-3.0521,-10.1104,-2.0727,-2.4247,3.3139,2.6976
300.7812,-10.1762,-7.3728,-3.8293,4.5723,-1.2411,-8.6219,-5.1853,0.8710,-4.2443,-7.8014,-1.3882,4.3142,2.3161,-0.8700,-8.5396,1.5578,-0.4282,3.4719,2.0599
304.6875,-7.7698,-4.9442,-2.9281,7.2309,1.6083,-5.3329,-5.0648,3.2518,-1.9998,-5.3284,1.0748,7.5040,5.4023,2.5684,-4.9276,5.9430,3.5280,5.2376,3.4105
308.5938,-4.4881,-1.3171,-0.3607,9.3540,5.0990,-0.8320,-3.5891,6.2728,0.9173,-3.1898,3.6354,9.9039,8.0925,5.7187,-1.2398,8.6477,7.6425,7.2448,5.4788
312.5000,-1.7901,1.4279,1.7123,9.7298,7.3630,2.3279,-2.1489,8.2362,2.4941,-2.2184,4.7473,10.1824,9.1854,7.2049,0.6733,8.1498,10.0871,7.8415,6.6303
316.4062,-0.8079,1.8297,1.9188,8.0366,7.2176,2.6444,-2.4083,7.7721,1.5535,-2.5874,3.8485,8.3255,8.5179,6.6213,0.2868,4.9637,10.1212,6.1507,6.0371
320.3125,-1.8153,-0.0207,0.4878,5.0385,4.8384,0.4559,-4.7632,4.8381,-1.5028,-3.8621,1.6143,5.5799,6.8929,4.7132,-1.4292,1.2966,8.4354,2.5921,4.1111
324.2188,-4.1629,-2.7044,-1.2210,2.0982,1.5868,-2.6091,-7.7721,0.8647,-5.0218,-5.3982,-0.7085,3.4911,5.3841,2.8409,-2.9440,-0.5498,6.5498,-1.4619,1.9733
328.1250,-6.6985,-4.6483,-1.9532,0.3418,-0.8597,-4.9770,-9.0803,-2.1277,-7.2443,-6.7785,-2.2805,2.7817,4.5898,2.1068,-3.4149,0.1682,5.7475,-4.5983,0.5023
332.0312,-8.4156,-5.3036,-1.5195,0.0407,-1.4903,-6.1693,-7.1539,-2.8369,-7.4448,-7.9733,-3.1657,2.9215,4.3611,2.7375,-3.2607,2.2000,6.2997,-6.1808,-0.2423
335.9375,-8.9514,-5.4015,-0.7704,0.6049,-0.4399,-6.7823,-2.5129,-1.4746,-6.2813,-9.1308,-4.0067,2.6820,4.1102,4.1011,-3.6471,3.4011,7.4707,-6.5358,-0.8241
339.8438,-8.6531,-6.1130,-0.7181,1.1386,1.2810,-7.5724,2.4500,0.5151,-5.1589,-10.2004,-5.2429,1.2030,3.3689,5.2844,-5.3548,2.4793,8.2025,-6.4687,-1.7439
343.7500,-8.2035,-7.8350,-1.6002,1.1196,2.5479,-8.5348,4.9279,1.5783,-5.1120,-10.7345,-6.5840,-1.2801,2.1477,5.7739,-7.9755,-0.0135,7.9197,-6.5465,-2.9115
347.6562,-8.0674,-9.6324,-2.6531,0.7194,2.8334,-8.8054,3.4243,1.1578,-6.0273,-10.0892,-7.1917,-3.6030,0.8763,5.7494,-10.0915,-2.2249,6.8739,-6.6938,-3.7155
351.5625,-8.1365,-9.8440,-2.7407,0.5751,2.4224,-7.4669,-1.3768,-0.0255,-6.7466,-7.9294,-6.3950,-4.5711,0.0568,5.8198,-10.3007,-2.6050,5.8377,-6.3524,-3.5707
355.4688,-7.8191,-7.4171,-1.2934,1.2398,2.0624,-4.5388,-7.0727,-0.6696,-5.9442,-4.6687,-4.3206,-3.8634,-0.0587,6.4484,-8.2855,-1.2299,5.4478,-5.0164,-2.4209
359.3750,-6.5220,-2.9216,1.1955,2.7479,2.3619,-1.2592,-10.9500,0.0308,-3.1319,-1.4619,-1.9024,-2.2428,0.4547,7.5309,-5.1052,0.2632,5.7210,-2.6976,-0.7590
363.2812,-4.1917,1.5960,3.4813,4.6063,3.3796,0.6461,-11.4416,1.7765,0.9242,0.3431,-0.2575,-0.9391,1.3473,8.4505,-2.5048,0.0912,6.0911,0.0209,0.8198
367.1875,-1.5160,3.8844,4.4156,6.1767,4.6625,0.1707,-8.8240,3.4672,4.6552,-0.0086,0.0784,-0.7170,2.3981,8.5614,-1.7648,-2.0790,5.9071,2.3540,2.1037
371.0938,0.3994,2.9851,3.6844,7.1267,5.6510,-2.2332,-4.8631,4.1212,6.6797,-2.1698,-0.5255,-1.3560,3.5091,7.7254,-2.9245,-4.6997,4.9912,3.8063,3.3549
375.0000,0.6984,-0.1331,1.9224,7.6016,6.1196,-4.9646,-1.7059,3.6522,6.6437,-4.8376,-1.1219,-1.9154,4.6666,6.4889,-4.8780,-5.4919,3.8336,4.4296,4.9487
378.9062,-0.6591,-3.2668,0.1893,8.0125,6.3218,-6.3927,-0.6773,2.8935,5.3468,-6.5045,-0.8741,-1.5336,5.8554,5.7544,-6.1919,-3.2938,3.2780,4.6863,6.9060
382.8125,-2.8408,-4.4932,-0.7613,8.6343,6.7468,-5.9361,-1.6505,2.8875,4.0983,-6.3515,0.4102,-0.1230,7.0074,6.1697,-6.0150,0.8692,3.9239,5.0475,8.7500
386.7188,-4.6591,-3.4249,-0.9002,9.3389,7.6825,-4.3245,-3.3329,4.0316,3.7735,-4.7059,2.2328,1.5614,8.0001,7.6642,-4.4810,4.3896,5.6679,5.6229,9.8140
390.6250,-5.3222,-1.3407,-0.7952,9.6676,8.9204,-2.9254,-4.2933,5.7616,4.2337,-2.7729,3.7846,2.4946,8.6748,9.4597,-2.4464,4.9355,7.7093,6.0749,9.7343
394.5312,-4.8958,-0.1593,-1.1053,9.1800,9.8326,-2.7208,-4.0850,6.9957,4.5021,-1.8356,4.4202,2.1389,8.8709,10.5533,-0.8750,2.1512,9.0253,5.8617,8.7150
398.4375,-4.1608,-1.0397,-2.0859,7.8193,9.7867,-3.7136,-3.6804,6.9657,3.5536,-2.4679,3.9234,0.8307,8.5051,10.3562,-0.3375,-2.0862,9.0112,4.6417,7.3710
402.3438,-3.9905,-3.6031,-3.4238,6.0330,8.6171,-5.1259,-4.7997,5.7813,1.1465,-4.2687,2.4996,-0.4360,7.6975,9.0714,-0.8878,-5.0212,7.8734,2.5798,6.3195
406.2500,-4.7265,-6.2726,-4.4593,4.5718,6.8206,-6.1080,-8.4638,4.3196,-1.9012,-6.2437,0.6251,-0.6245,6.8588,7.5789,-2.2418,-4.9239,6.5234,0.3641,5.8725
410.1562,-6.0148,-7.4095,-4.6034,4.1044,5.3194,-6.3376,-13.7573,3.5675,-4.1966,-7.5097,-1.1032,0.7786,6.6069,6.9106,-4.0007,-2.1203,6.0414,-1.0863,6.0378
414.0625,-7.1875,-6.4013,-3.6771,4.8818,4.9209,-6.0740,-17.8335,3.9375,-4.6820,-7.8060,-2.0982,3.5737,7.4636,7.6445,-5.7377,1.5278,7.0391,-1.0659,6.7237
417.9688,-7.8365,-3.9617,-1.9825,6.6242,5.8106,-5.7384,-17.4408,5.0457,-3.3296,-7.4849,-1.9478,7.0563,9.4717,9.5701,-6.9761,4.1479,9.3087,0.5600,7.8701
421.8750,-8.0815,-1.5170,-0.0925,8.6554,7.4022,-5.4642,-11.1290,6.0472,-1.1313,-7.0685,-0.6117,10.3935,12.0069,11.7926,-7.2143,5.1307,11.9491,3.2798,9.3487
425.7812,-8.3080,-0.1944,1.4953,10.1860,8.6474,-5.0095,-0.6242,6.2191,0.6039,-6.7667,1.4777,12.9181,13.9953,13.1838,-6.0954,5.2198,13.8683,6.1863,10.7640
429.6875,-8.6292,-0.1506,2.6304,10.6140,8.6199,-4.0613,9.7583,5.3627,1.1361,-6.3441,3.5571,14.2489,14.4731,12.9213,-3.6513,5.5165,14.3390,8.4201,11.4455
433.5938,-8.5923,-0.6630,3.5392,9.7414,7.0234,-2.6095,15.4973,3.8104,0.7268,-5.4084,4.9049,14.2975,13.1541,10.8450,-0.4324,6.3610,13.2857,9.5640,10.7770
437.5000,-7.4660,-0.8300,4.5864,7.8548,4.3299,-1.0492,14.5492,2.1404,0.3203,-3.8500,5.2281,13.2532,10.6086,7.4931,2.6204,7.0569,11.1858,9.7763,8.6746
441.4062,-4.9408,-0.3068,5.9177,5.6394,1.4905,0.0641,8.5030,0.8644,0.7418,-2.0454,4.7836,11.5536,7.9146,3.8434,4.5406,6.6076,8.7206,9.6060,5.8142
445.3125,-1.6588,0.4674,7.2398,3.9304,-0.5839,0.3765,1.3766,0.2675,2.0361,-0.6481,4.1344,9.7821,6.0142,0.9043,4.7587,4.7497,6.4441,9.6224,3.3463
449.2188,0.9525,0.6863,7.9354,3.3606,-1.4598,-0.0835,-3.1074,0.3899,3.4590,-0.1304,3.7274,8.4677,5.2252,-0.6676,3.3620,2.3398,4.6652,10.0952,2.2302
453.1250,1.5439,-0.1063,7.4932,4.0459,-1.3116,-1.0035,-3.8279,1.0408,4.1192,-0.4477,3.6304,7.8661,5.2229,-0.7801,1.0573,0.7417,3.5311,10.9090,2.6513
457.0312,-0.1824,-1.5550,5.9770,5.4822,-0.7223,-2.0176,-2.5436,1.8076,3.7538,-1.0942,3.6276,7.8599,5.4393,0.1180,-1.1445,0.7372,3.1386,11.7246,3.9536
460.9375,-3.1455,-2.6403,4.1648,6.7573,-0.3242,-2.8448,-2.0668,2.1367,3.0077,-1.5016,3.5591,8.0560,5.5111,1.2773,-2.3764,1.8927,3.5123,12.2331,5.1292
464.8438,-5.5220,-2.3502,3.1673,7.0093,-0.4948,-3.2652,-3.8315,1.5670,2.9698,-1.4602,3.5725,8.0215,5.4213,1.9986,-2.2929,2.9163,4.4559,12.3104,5.4814
468.7500,-5.9346,-0.4078,3.7114,5.8977,-1.2433,-3.0579,-6.7604,0.0461,4.3143,-1.2263,4.0300,7.5007,5.2812,1.9437,-1.2018,2.7039,5.4579,11.9872,4.9666
472.6562,-4.3359,2.4605,5.5673,3.8077,-2.2791,-2.0645,-8.2535,-1.8991,6.7207,-1.2439,5.1363,6.4918,5.0391,1.2620,0.1253,1.2069,5.8440,11.3156,4.0134
476.5625,-1.9347,4.9212,7.5766,1.6514,-3.1668,-0.3786,-6.4251,-3.3477,9.0479,-1.7221,6.6257,5.1830,4.4537,0.4748,0.8823,-0.5794,5.1715,10.2922,3.0598
480.4688,-0.2358,5.8462,8.3427,0.3720,-3.4750,1.5287,-1.7421,-3.4963,10.1489,-2.4256,7.8273,3.8468,3.4027,0.1822,0.6773,-1.4599,3.6196,8.9269,2.2540
484.3750,0.0577,5.0049,7.1604,0.4468,-2.8895,2.9451,3.2610,-2.1833,9.7021,-2.8568,8.1024,2.7807,2.2309,0.7506,-0.2668,-0.9970,2.0401,7.3901,1.5612
488.2812,-0.5639,3.1739,4.5333,1.6841,-1.3057,3.3054,5.9373,-0.0402,8.4101,-2.6859,7.3123,2.2796,1.7388,2.1447,-1.3045,0.1925,1.5241,6.0644,1.1048
492.1875,-1.0020,1.5989,1.8807,3.4061,1.0930,2.5675,5.5501,1.8820,7.4100,-2.0725,5.9160,2.5602,2.6878,3.9755,-1.8466,0.9972,2.6965,5.3824,1.3236
496.0938,-0.5977,1.1764,0.6043,4.8647,3.8098,1.2631,3.7161,2.7679,7.3618,-1.6040,4.6024,3.6092,5.1400,5.7046,-1.8024,0.7159,5.2039,5.5144,2.6907
500.0000,0.2353,1.9106,1.1619,5.6005,6.1243,0.1415,2.9213,2.5040,7.9395,-1.8762,3.7598,5.0528,8.1778,6.8660,-1.6463,-0.4361,7.7983,6.1343,5.1735
503.9062,0.3268,2.9962,2.8008,5.5428,7.3159,-0.3450,4.3339,1.6184,8.1297,-3.0292,3.2395,6.2159,10.3219,7.1904,-2.0230,-1.5769,9.0339,6.4849,7.9287
507.8125,-1.2350,3.4396,4.1308,4.8567,6.9563,-0.3168,6.7196,0.7679,7.0984,-4.5937,2.6150,6.4402,10.4328,6.6114,-3.1608,-1.8745,8.1542,5.7749,9.6096
511.7188,-4.2185,2.7579,4.0983,3.7276,5.1295,-0.2870,7.3803,0.2010,4.9324,-5.7710,1.6992,5.5089,8.4668,5.2204,-4.5596,-1.1025,5.5810,3.6854,9.1708
515.6250,-7.2297,1.2689,2.6492,2.2788,2.4509,-0.6783,4.4075,-0.3619,2.6598,-5.9434,0.8333,3.8763,5.5154,3.2469,-5.2542,0.3668,2.6590,0.6546,6.6067
519.5312,-8.6092,-0.1984,0.6291,0.6617,-0.1589,-1.4367,-1.5338,-1.3498,1.5290,-5.0456,0.6497,2.4681,3.0736,1.0690,-4.5216,1.9963,0.8189,-2.2748,3.0320
523.4375,-7.5636,-0.9096,-0.9327,-0.8176,-1.8567,-2.0654,-7.3457,-2.8096,2.1116,-3.5430,1.4797,2.1179,2.0625,-0.8165,-2.5135,3.4611,0.7203,-3.9786,-0.0097
527.3438,-4.6747,-0.6770,-1.5576,-1.7208,-2.2419,-2.0428,-9.5446,-4.2102,3.9198,-2.0624,2.9293,2.9997,2.3170,-1.9325,-0.2845,4.6229,1.9389,-3.8362,-1.5284
531.2500,-1.4310,0.1554,-1.5097,-1.7029,-1.5271,-1.2730,-6.7437,-4.7946,5.8078,-0.9686,4.0478,4.4714,2.8791,-2.0434,0.8918,5.2283,3.3712,-2.0372,-1.6380
535.1562,0.8117,1.1106,-1.3694,-0.7958,-0.4268,-0.1912,-0.7601,-4.2204,6.8032,-0.1965,4.0205,5.4737,2.8197,-1.3285,0.4612,4.7711,4.0240,0.5460,-1.2858
539.0625,1.6232,1.9733,-1.4254,0.4846,0.1914,0.5577,4.4471,-2.9572,6.6970,0.5687,2.8419,5.2182,1.9236,-0.3523,-0.9305,2.8156,3.6182,2.8011,-1.4105
542.9688,1.4945,2.8296,-1.4445,1.3476,-0.2666,0.5931,5.2545,-2.0692,5.9646,1.5356,1.3870,3.6713,0.7280,0.2082,-1.8397,-0.4227,2.6191,3.8572,-2.2170
546.8750,1.1663,3.7426,-1.0164,1.1555,-1.8178,0.0388,0.5753,-2.4976,5.1617,2.5657,0.7620,1.4889,-0.0442,-0.0558,-1.0770,-3.8077,1.7513,3.3618,-3.1266
550.7812,0.9456,4.4112,-0.1356,-0.1982,-3.8762,-0.6415,-7.6040,-4.3654,4.3741,3.2294,1.4231,-0.5214,-0.1296,-1.0371,1.3517,-5.7461,1.4247,1.4888,-3.3876
554.6875,0.6005,4.2099,0.5541,-2.2198,-5.5310,-1.0373,-15.5239,-6.8333,3.2156,3.1049,2.7779,-1.9686,0.1078,-2.1765,4.1459,-5.1993,1.5104,-1.2223,-2.7866
558.5938,-0.1467,2.6809,0.1594,-4.1014,-6.0030,-1.0594,-19.7831,-8.6237,1.3652,2.0886,3.6271,-3.0239,0.0999,-2.8108,5.5793,-2.5179,1.5859,-4.0562,-1.8379
562.5000,-1.0654,0.1063,-1.6847,-5.1649,-5.0463,-0.8767,-18.9461,-8.8239,-0.8700,0.4945,3.1241,-4.0535,-0.3157,-2.5770,4.7270,0.6213,1.3870,-6.2790,-1.2968
566.4062,-1.3981,-2.3805,-4.3047,-5.1698,-3.0755,-0.6368,-13.8504,-7.3881,-2.5333,-1.1212,1.4828,-5.0927,-0.6667,-1.6010,2.1362,2.2501,1.0630,-7.2916,-1.4349
570.3125,-0.4771,-3.3933,-6.2519,-4.3124,-0.9295,-0.2808,-6.7722,-5.0133,-2.6616,-2.2789,-0.1632,-5.6624,-0.2279,-0.3520,-0.5815,1.4189,1.0276,-6.8192,-1.7308
574.2188,1.5354,-2.2791,-6.2513,-2.9766,0.6069,0.3395,-0.1946,-2.5546,-1.1285,-2.8271,-0.6751,-5.1498,1.2931,0.7168,-1.9521,-1.1927,1.5507,-5.0880,-1.2816
578.1250,3.4811,0.2295,-4.1703,-1.4611,1.2526,1.1494,4.1258,-0.4673,1.0105,-2.9819,0.1136,-3.4705,3.3602,1.4687,-1.7399,-3.8392,2.4554,-2.8579,0.3880
582.0312,3.8767,2.2761,-1.2512,0.1195,1.3777,1.6793,5.5418,1.3244,2.0316,-3.1532,1.1533,-1.4314,4.8798,2.1160,-1.1096,-5.0203,3.1899,-1.1980,2.8079
585.9375,1.9836,2.0131,0.6421,1.7408,1.7499,1.2803,4.4775,3.1208,0.6244,-3.6805,0.9049,-0.3862,4.9712,2.9815,-1.7089,-4.5280,3.2304,-1.0301,4.8140
589.8438,-1.5495,-1.1180,0.2810,3.3290,3.0269,-0.3679,2.1582,5.0441,-3.2084,-4.6324,-1.4849,-1.3213,3.6454,4.1962,-4.3482,-3.4275,2.4967,-2.6481,5.4192
593.7500,-5.0175,-5.8735,-2.0540,4.7353,5.3075,-2.8579,0.1649,6.9035,-8.0852,-5.7691,-5.4509,-4.0158,1.8541,5.5651,-8.2664,-3.0278,1.4460,-5.4917,4.6199
597.6562,-6.7689,-9.8969,-4.7275,5.8453,8.0201,-5.1459,-0.1866,8.3976,-12.0735,-6.6753,-9.2909,-6.9551,0.8524,6.6896,-11.5460,-3.7129,0.7653,-8.3534,3.4706
601.5625,-6.2899,-11.2048,-5.8446,6.6892,10.2165,-6.1532,1.5141,9.3961,-13.8418,-6.9920,-11.2719,-8.1784,1.3479,7.2213,-12.3975,-4.6077,0.8934,-9.9567,3.3216
605.4688,-4.4669,-9.4726,-4.5296,7.4026,11.0842,-5.4793,4.4649,9.9887,-13.3600,-6.6285,-10.7616,-6.5530,3.0604,7.0389,-10.3939,-4.3646,1.7298,-9.6130,4.7845
609.3750,-2.8586,-6.2325,-1.5014,8.0322,10.3626,-3.6938,6.9925,10.2424,-11.7248,-5.8389,-8.5845,-2.6027,4.9886,6.2307,-6.7819,-2.4193,2.7338,-7.5919,7.2241
613.2812,-2.5558,-3.8421,1.4377,8.3638,8.4310,-1.9698,7.4891,9.9343,-10.3148,-5.1050,-6.3889,1.7236,6.1383,4.9478,-3.6663,0.3464,3.3209,-4.9806,9.1839
617.1875,-3.4840,-3.9356,2.6160,7.9807,6.0534,-1.3045,5.4369,8.5988,-9.8998,-4.8621,-5.5238,4.2376,6.1522,3.3035,-2.6591,2.1373,3.2521,-3.0928,9.4311
621.0938,-4.6188,-6.4106,1.5616,6.5902,3.9717,-1.8818,1.8380,5.9565,-10.2861,-5.2140,-6.2299,3.8780,5.4079,1.4233,-3.9295,1.6122,2.7432,-2.7422,7.8373
625.0000,-4.8623,-9.6027,-0.7800,4.3984,2.5916,-3.0178,-1.3142,2.4010,-10.6379,-5.8197,-7.6531,1.3457,4.5923,-0.4240,-6.2612,-0.9817,2.2499,-3.7905,5.4386
628.9062,-3.8581,-11.4576,-2.7665,2.2010,1.9024,-3.6874,-2.2519,-0.9288,-10.1538,-6.0597,-8.5691,-1.4031,4.1439,-1.8055,-7.9923,-3.8325,2.1187,-5.2319,3.6530
632.8125,-2.1485,-10.8523,-3.1659,1.0160,1.6029,-3.2188,-0.5680,-2.6952,-8.6036,-5.4205,-8.2314,-2.4435,3.9914,-2.3311,-8.1284,-4.7957,2.3634,-5.7787,3.2617
636.7188,-0.6506,-8.1839,-1.8898,1.4331,1.3037,-1.6683,2.4925,-2.2256,-6.4162,-3.8653,-6.7621,-1.0768,3.7251,-1.9921,-6.8685,-2.9416,2.7020,-4.6222,3.9076
640.6250,0.0441,-4.9250,0.0859,3.1217,0.6891,0.3264,4.8042,-0.0678,-4.3530,-1.9309,-4.9052,1.8377,2.9856,-1.3543,-5.2615,0.7324,2.7815,-1.9268,4.4459
644.5312,-0.0183,-2.5705,1.4684,4.8977,-0.3973,2.0175,4.7119,2.2411,-3.0381,-0.4414,-3.4252,4.5663,1.7314,-1.3661,-4.3325,3.9685,2.4084,1.2426,3.8303
648.4375,-0.3946,-1.7481,1.4970,5.3866,-1.9196,2.9607,2.0898,3.1094,-2.6268,0.0107,-2.6115,5.6794,0.2145,-2.8123,-4.3382,4.8144,1.6342,3.5337,1.8549
652.3438,-0.7113,-2.0380,0.3384,3.8810,-3.6517,3.1217,-1.5730,1.9057,-2.7488,-0.5187,-2.1818,4.9206,-1.2349,-5.7461,-4.6487,2.9660,0.6877,4.1070,-0.7664
656.2500,-0.8959,-2.4791,-1.1539,0.8155,-5.2358,2.7187,-4.1079,-0.6674,-2.7012,-1.3099,-1.5545,3.2413,-2.3817,-9.3196,-4.2712,-0.0478,-0.1536,3.1380,-2.9618
660.1562,-0.9993,-2.2862,-2.0553,-2.4804,-6.3185,2.0251,-4.0237,-3.1120,-1.7912,-1.4109,-0.2475,2.0715,-3.0886,-12.2019,-2.5931,-1.9202,-0.6560,1.7060,-4.0235
664.0625,-0.8691,-1.2654,-1.9051,-4.5970,-6.7280,1.2987,-1.4303,-4.1955,0.2977,-0.2524,1.8405,2.3788,-3.2214,-13.3565,0.1745,-1.0815,-0.6638,1.1266,-3.9508
667.9688,-0.0927,0.2508,-0.8464,-4.8726,-6.5845,0.8018,2.0354,-3.7609,3.2575,1.9584,4.3600,4.1354,-2.6304,-12.6685,3.1197,2.3601,-0.1188,2.1383,-3.2348
671.8750,1.6376,1.7494,0.6222,-3.6819,-6.2431,0.7663,4.2170,-2.7213,6.1732,4.3313,6.6271,6.4661,-1.2795,-10.9795,5.1842,6.8040,0.9004,4.4576,-2.3513
675.7812,4.0303,2.8302,2.0236,-2.0277,-6.0701,1.2393,3.7442,-2.2888,7.8799,5.8177,7.8634,8.2825,0.5946,-9.4929,5.7607,10.2236,2.1456,6.9860,-1.4090
679.6875,6.0756,3.2771,3.1286,-0.7756,-6.1928,1.9383,0.8327,-3.0488,7.5525,5.8222,7.5061,8.9392,2.4915,-8.9564,4.9617,11.3357,3.2425,8.5320,-0.2057
683.5938,6.5477,2.9938,3.9356,-0.1032,-6.4074,2.3216,-2.8916,-4.5681,5.2253,4.5069,5.5067,8.5174,3.8951,-9.1927,3.4476,10.1569,3.8381,8.5741,1.4298
687.5000,4.8507,1.9880,4.5119,0.4665,-6.3324,1.9283,-5.4023,-5.7847,1.8889,2.6167,2.4728,7.6442,4.6056,-9.2993,1.9814,7.7449,3.7923,7.5660,3.3572
691.4062,1.5681,0.4663,4.8773,1.5361,-5.7064,0.7761,-5.4610,-5.8306,-0.9795,0.9761,-0.4974,7.0467,4.8816,-8.3562,1.0145,5.4518,3.2824,6.5975,5.1646
695.3125,-1.7714,-1.0935,5.0199,3.2622,-4.6056,-0.5279,-3.2441,-4.6409,-2.2330,0.0075,-2.3027,7.1430,5.2400,-6.1250,0.5361,4.2123,2.7233,6.6512,6.4802
699.2188,-3.6293,-2.0724,4.9782,5.1866,-3.4039,-1.1373,-0.0652,-2.9227,-1.7208,-0.4291,-2.4375,7.8688,6.0342,-3.2403,0.2144,4.2102,2.5236,7.9574,7.2615
703.1250,-3.4532,-2.0573,4.8625,6.5735,-2.4990,-0.5858,2.5389,-1.5737,-0.3543,-0.8212,-1.3387,8.7603,7.1354,-0.7753,-0.3224,4.9480,2.8246,9.8642,7.7962
707.0312,-2.0057,-1.1831,4.7581,6.9550,-2.0174,0.7845,3.6868,-1.0448,0.4940,-1.6065,-0.2033,9.1892,7.9838,0.4879,-1.2697,5.5515,3.3989,11.2797,8.4057
710.9375,-0.7743,-0.1716,4.5925,6.4500,-1.7377,1.9604,3.4112,-1.1258,-0.1285,-2.8751,-0.3142,8.6315,7.9981,0.5629,-2.6027,5.1415,3.7908,11.3644,9.1171
714.8438,-0.8881,0.0448,4.1206,5.6295,-1.2981,1.9227,2.2343,-1.2531,-2.1806,-4.3363,-2.2521,6.8893,7.0405,0.2059,-4.1651,3.1883,3.6178,10.0149,9.6056
718.7500,-2.3325,-1.0926,3.0989,5.0725,-0.5186,0.3761,0.5378,-1.0239,-4.7290,-5.5214,-5.4919,4.2110,5.5807,0.3793,-5.7611,-0.2131,2.8417,7.8550,9.4868
722.6562,-4.0216,-3.3790,1.5488,4.9797,0.4314,-2.0050,-1.6573,-0.4877,-6.6155,-6.0534,-8.6604,1.2541,4.4217,1.6285,-7.1601,-4.2608,1.8265,5.7935,8.7303
726.5625,-4.6474,-5.9438,-0.1144,5.1277,1.1669,-4.0210,-4.3025,-0.0229,-7.2002,-5.8182,-10.3150,-1.1452,4.1788,3.7818,-8.0436,-7.6804,1.1351,4.4738,7.8373
730.4688,-3.6578,-7.7866,-1.2505,5.1443,1.4187,-4.7624,-6.7407,0.0323,-6.6789,-4.9756,-9.7683,-2.3464,4.8802,6.1189,-8.0182,-9.2612,1.1813,3.9586,7.5864
734.3750,-1.6530,-8.3790,-1.4056,4.8361,1.2838,-4.1933,-7.6361,-0.3516,-5.8204,-3.8556,-7.4618,-2.2587,5.9580,7.8254,-6.7894,-8.4591,1.9475,3.7988,8.4885
738.2812,0.0595,-7.9155,-0.6844,4.2958,1.1789,-3.0775,-5.7468,-0.9324,-5.3896,-2.8231,-4.6884,-1.4512,6.6074,8.4055,-4.4378,-5.7087,2.9429,3.3792,10.3432
742.1875,0.3899,-7.0589,0.2324,3.7438,1.5187,-2.3304,-1.0848,-1.4503,-5.6946,-2.1681,-2.8609,-0.8907,6.2456,7.8230,-1.5902,-2.2122,3.4390,2.3040,12.2506
746.0938,-0.8029,-6.4022,0.5138,3.2975,2.3752,-2.3174,4.5272,-1.8264,-6.5272,-2.0366,-2.7727,-1.3975,4.7755,6.3709,0.7255,0.6913,2.8557,0.6154,13.1191
750.0000,-2.6626,-6.0614,-0.2052,2.8993,3.3939,-2.6377,8.2342,-2.1235,-7.4320,-2.4004,-4.2481,-3.1251,2.5371,4.4392,1.5641,2.1806,1.0821,-1.2239,12.3507
753.9062,-3.9472,-5.6905,-1.4716,2.4577,4.0325,-2.5321,7.9894,-2.3390,-8.0216,-3.0743,-6.3231,-5.4088,0.0562,2.3470,0.6326,2.2113,-1.4508,-2.5404,10.2361
757.8125,-3.8348,-4.8711,-2.2497,2.0292,3.9271,-1.5601,4.1897,-2.2795,-8.1146,-3.7859,-7.7984,-7.1246,-2.2063,0.2939,-1.4439,1.2605,-3.9922,-2.7542,7.7788
761.7188,-2.3871,-3.5477,-1.6547,1.8248,3.0941,0.0028,-0.2733,-1.6902,-7.6936,-4.2781,-7.8518,-7.3678,-3.9701,-1.6230,-3.4089,-0.1776,-5.8643,-1.6697,6.0553
765.6250,-0.4292,-2.1603,0.3105,1.9983,1.8291,1.3484,-1.8862,-0.5568,-6.8384,-4.3945,-6.4109,-6.0205,-5.1237,-3.3859,-4.0992,-1.9088,-6.7997,0.3570,5.5408
769.5312,0.9913,-1.3721,2.5891,2.4114,0.4305,1.7282,0.8615,0.7105,-5.7499,-4.1047,-4.1377,-3.8223,-5.6692,-5.0224,-3.1554,-3.9228,-7.0204,2.4812,5.8580
773.4375,1.1789,-1.6052,3.6859,2.6379,-0.9791,0.9797,6.0656,1.4377,-4.7975,-3.4711,-2.0583,-1.8780,-5.6780,-6.5235,-1.2283,-5.9977,-7.0125,3.7044,6.1151
777.3438,0.0776,-2.7321,2.6968,2.2774,-2.3712,-0.4091,9.4879,1.1353,-4.4352,-2.6040,-1.0309,-0.9261,-5.2459,-7.7212,0.4841,-7.4468,-7.1373,3.3760,5.5942
781.2500,-1.8087,-4.1487,0.0266,1.3512,-3.5714,-1.7012,7.5896,-0.1024,-4.9323,-1.6564,-1.3175,-0.8724,-4.4223,-8.2206,1.0564,-7.3399,-7.3379,1.6063,4.3033
785.1562,-3.7272,-5.1698,-2.7830,0.4187,-4.1440,-2.4300,0.3743,-1.5959,-6.0959,-0.8509,-2.4904,-0.9178,-3.1443,-7.4988,0.4268,-5.1281,-7.1486,-0.6986,3.0022
789.0625,-5.0202,-5.4694,-4.0753,0.2346,-3.5969,-2.6427,-8.1851,-2.5323,-7.2666,-0.4793,-3.7373,-0.1955,-1.2567,-5.1842,-0.6646,-1.2196,-6.0192,-2.2853,2.6743
792.9688,-5.3673,-5.2696,-3.2643,1.1486,-1.8039,-2.7373,-12.6928,-2.5509,-7.7066,-0.8109,-4.3955,1.5391,1.3375,-1.3684,-1.3278,2.9914,-3.7482,-2.2819,3.8133
796.8750,-4.8804,-5.1724,-1.3136,2.7170,0.7103,-3.0970,-10.1510,-2.0048,-7.1612,-1.9285,-4.3815,3.6689,4.4762,3.2823,-1.2461,5.7789,-0.7226,-0.7614,6.0311
800.7812,-4.0468,-5.7617,-0.0955,3.8974,2.9414,-3.8394,-2.2493,-1.6669,-6.1508,-3.6006,-4.2121,5.1138,7.6589,7.7505,-0.9004,6.0513,2.2227,1.2629,8.2823
804.6875,-3.5296,-7.2305,-1.0251,3.7701,4.0097,-4.8366,5.6832,-2.0859,-5.6820,-5.3173,-4.5757,5.0928,10.2182,11.1411,-1.1164,3.9970,4.2600,2.4668,9.5719
808.5938,-3.8674,-9.2423,-3.9354,2.2851,3.7914,-5.8942,8.4155,-3.0918,-6.4987,-6.5209,-5.7383,3.7041,11.6857,13.1195,-2.3118,0.9635,5.0463,2.0940,9.6606
812.5000,-5.1856,-11.0769,-7.0442,0.4480,3.0758,-6.8635,4.5237,-3.8587,-8.4073,-6.9112,-7.2328,1.9016,12.1072,14.0288,-4.0710,-1.3602,4.9005,0.4959,9.2633
816.4062,-7.0749,-11.9588,-8.1057,-0.2701,3.0573,-7.5838,-2.7061,-3.5122,-10.2323,-6.6193,-8.1075,0.8753,12.0477,14.6038,-5.4242,-1.9233,4.5533,-1.0567,9.5720
820.3125,-8.7431,-11.3954,-5.9757,1.0605,4.4767,-7.7735,-7.8755,-1.8356,-10.5271,-6.1128,-7.6025,1.2712,12.2230,15.4711,-5.6286,-0.8360,4.6391,-1.1949,11.4006
824.2188,-9.3936,-9.3827,-1.4838,4.1123,7.0293,-7.0810,-7.5983,0.4642,-8.5831,-5.8728,-5.7654,2.7965,12.9835,16.7636,-4.8149,0.8452,5.2739,0.6369,14.5315
828.1250,-8.6320,-6.4098,3.0280,7.4087,9.5007,-5.3498,-2.9951,2.1548,-5.0000,-6.0597,-3.5131,4.4689,14.0173,18.0793,-3.9379,1.8515,6.0044,3.7935,17.7241
832.0312,-6.6632,-3.2746,5.2018,9.2139,10.5599,-2.9068,1.3568,2.2668,-1.3635,-6.3986,-2.0304,5.3060,14.5095,18.7669,-4.0174,1.4373,6.1417,6.8226,19.4059
835.9375,-4.1608,-0.7841,4.1567,8.6026,9.6466,-0.5696,1.1826,0.7107,0.7756,-6.3677,-1.9138,4.9509,13.6690,18.3064,-5.2493,-0.3186,5.2263,8.3615,18.6035
839.8438,-1.8989,0.5496,0.9567,5.9807,7.3058,0.7482,-3.9741,-1.7053,0.9018,-5.5571,-2.6985,3.8100,11.2609,16.5361,-6.7188,-2.7219,3.2921,7.9338,15.5074
843.7500,-0.3770,0.6968,-2.2269,2.7346,4.7458,0.6209,-10.2585,-3.8365,-0.1999,-3.9494,-3.1622,2.6618,7.7758,13.6357,-7.0037,-4.9197,0.7705,6.1451,11.3177
847.6562,0.3479,0.0949,-3.6071,0.3085,2.9796,-0.5462,-12.4588,-4.9094,-1.0783,-1.9381,-2.2174,2.0848,4.1314,9.9726,-5.2570,-6.2603,-1.8446,4.2233,7.5114
851.5625,0.5650,-0.5698,-2.8541,-0.6137,2.2149,-1.7220,-8.1322,-4.8758,-0.6542,-0.0928,0.2585,2.1442,1.1474,5.9830,-1.9426,-6.3952,-4.2769,3.2767,5.0452
855.4688,0.6644,-0.6860,-1.0469,-0.2898,1.9319,-1.9133,0.3154,-4.2240,1.1059,1.1510,3.2846,2.5284,-0.8267,2.1597,1.3752,-5.2176,-6.4733,3.7705,4.0115
859.3750,0.9216,0.0103,0.3366,0.5523,1.5232,-0.8337,7.2460,-3.4803,3.3281,1.6752,5.4461,2.9449,-1.9023,-0.9367,3.0783,-2.8381,-8.3634,5.4738,3.8974
863.2812,1.4230,1.3418,0.5473,1.3695,0.9200,0.9091,7.9070,-2.8412,4.9862,1.6492,5.8711,3.3879,-2.3489,-2.7784,2.6161,0.3221,-9.6294,7.7565,4.1525
867.1875,2.1118,2.8056,-0.0469,2.1008,0.6573,2.2471,1.9239,-2.2074,5.6274,1.3601,4.7761,4.0331,-2.3049,-3.1129,0.8620,3.4438,-9.7466,9.9151,4.5781
871.0938,2.8619,3.8143,-0.5203,2.9253,1.3196,2.3859,-6.4650,-1.5216,5.5123,1.0447,3.1828,4.8697,-1.7518,-2.1979,-0.5723,5.4394,-8.3312,11.3088,5.2548
875.0000,3.5092,3.9298,-0.3516,3.7825,2.8480,1.2988,-11.5749,-1.0455,5.1390,0.8203,2.0574,5.4462,-0.7340,-0.8087,-0.5513,5.3824,-5.5475,11.3609,6.1398
878.9062,3.8509,2.9933,0.0480,4.1521,4.3376,-0.3587,-10.4186,-1.2790,4.6385,0.7077,1.5804,5.0415,0.4344,0.0848,0.7546,3.0591,-2.2253,9.6399,6.7626
882.8125,3.6760,1.1383,-0.3236,3.3518,4.5656,-1.7957,-4.7319,-2.5540,3.6143,0.6809,1.1339,3.2255,1.2355,-0.1689,2.0487,-0.7103,0.4867,6.1302,6.3700
886.7188,2.8573,-1.2643,-2.1440,1.1380,2.8849,-2.6367,0.5371,-4.6491,1.5855,0.6962,0.0054,0.4000,1.2977,-1.5183,1.9605,-4.2678,1.7603,1.5323,4.4801
890.6250,1.4626,-3.6832,-5.0558,-1.9051,-0.2197,-3.0507,1.0114,-6.7950,-1.3529,0.7088,-1.7923,-2.1524,0.7580,-3.2271,0.1759,-5.8232,1.6007,-2.7448,1.4133
894.5312,-0.2075,-5.5258,-7.7757,-4.5801,-3.3927,-3.4117,-3.9527,-8.1373,-4.2631,0.7055,-3.2969,-2.8732,0.2978,-4.3128,-2.2049,-4.3290,0.8587,-5.0967,-1.6878
898.4375,-1.7135,-6.2882,-8.9814,-5.8116,-5.3315,-3.8345,-11.0123,-8.3424,-5.8039,0.7423,-3.2118,-0.8639,0.7434,-4.1352,-3.3584,-0.0451,0.6966,-4.5636,-3.4800
902.3438,-2.6681,-5.7507,-8.2992,-5.3913,-5.6895,-4.0216,-15.5070,-7.8751,-5.1122,0.9371,-0.9178,3.4582,2.4752,-2.7536,-1.9844,5.5395,1.8451,-1.4848,-3.3007
906.2500,-2.9153,-4.1380,-6.6162,-4.1637,-5.2630,-3.5643,-14.9068,-7.7027,-2.4722,1.3779,2.9139,8.4588,5.0807,-0.8277,1.7789,10.3995,4.1422,2.5326,-1.6657
910.1562,-2.5889,-2.1222,-5.4565,-3.4805,-5.3110,-2.4345,-10.4623,-8.6083,0.7574,1.9949,6.6272,12.1316,7.5399,0.8470,6.4032,12.9159,6.6587,5.4188,0.0358
914.0625,-2.0209,-0.5939,-5.8777,-4.2860,-6.5320,-1.2100,-5.9791,-10.6112,2.9470,2.5115,8.6317,13.1831,8.8482,1.8401,9.9254,12.5772,8.3088,5.7819,0.4907
917.9688,-1.5673,-0.2684,-7.7190,-6.4767,-8.4930,-0.7808,-4.8271,-12.9248,3.1748,2.5675,8.4438,11.6920,8.6428,2.2862,11.1359,10.1007,8.5172,3.6724,-0.6048
921.8750,-1.4552,-1.3235,-9.7582,-8.9803,-9.9589,-1.7161,-7.5076,-14.4897,1.7058,1.9743,6.9575,8.9588,7.3873,2.6838,10.2139,6.9659,7.4990,0.4823,-2.3199
925.7812,-1.7231,-3.2909,-10.6495,-10.4800,-9.8635,-3.7738,-11.5151,-14.6860,-0.3241,0.9272,5.7540,6.6818,5.9862,3.4752,8.4520,4.6490,6.0028,-1.9474,-3.1724
929.6875,-2.2516,-5.2947,-9.9238,-10.2569,-8.1560,-5.9623,-13.4249,-13.6988,-1.7324,-0.0189,5.9679,5.9959,5.1278,4.7244,7.3396,3.9700,4.7533,-2.4184,-2.2453
933.5938,-2.8356,-6.5201,-8.3052,-8.5716,-5.8498,-7.1496,-11.5254,-12.2836,-2.0063,-0.2478,7.5377,6.9422,4.8470,6.1101,7.6558,4.8492,4.0210,-0.9709,0.0845
937.5000,-3.2513,-6.6384,-7.1234,-6.3680,-4.2286,-6.7943,-7.0507,-11.1391,-1.4393,0.5204,9.3545,8.6120,4.6242,7.2006,9.1299,6.5207,3.6040,1.3419,2.3678
941.4062,-3.3093,-5.9345,-7.2839,-4.5770,-3.8340,-5.2734,-3.2178,-10.3938,-0.6951,2.0163,10.1383,9.7813,3.9120,7.7780,10.7834,8.0154,3.1688,3.2574,3.1247
945.3125,-2.9121,-5.0644,-8.5756,-3.5521,-4.0431,-3.5791,-2.8845,-9.6088,-0.2235,3.5651,9.3534,9.6042,2.6576,7.9611,11.6226,8.6257,2.6166,4.0893,1.9530
949.2188,-2.1145,-4.6087,-9.8234,-3.0095,-3.5890,-2.6235,-6.5365,-8.2765,0.0009,4.5013,7.4979,7.9837,1.3942,8.0522,11.1912,8.1334,2.1527,3.9902,-0.1216
953.1250,-1.1560,-4.7139,-9.7514,-2.4323,-1.6343,-2.6648,-11.9488,-6.3919,0.2734,4.5611,5.6185,5.5019,0.8249,8.2440,9.6846,6.7604,2.0079,3.6140,-1.3380
957.0312,-0.4124,-5.0468,-7.9040,-1.5557,1.4446,-3.2468,-15.6317,-4.5987,0.7450,3.9735,4.4944,3.0524,1.2327,8.4265,7.6683,4.9568,2.0818,3.5334,-0.4443
960.9375,-0.2500,-5.0681,-4.9501,-0.5374,4.2046,-3.6435,-15.0014,-3.7515,1.2077,3.2039,4.1414,1.4260,2.2016,8.2467,5.6871,3.1987,1.8660,3.8800,2.4115
964.8438,-0.8340,-4.4169,-2.1724,0.2849,5.1444,-3.4285,-9.8611,-4.2086,1.2815,2.5721,3.9809,1.0401,2.8997,7.3825,4.0424,1.8980,0.7886,4.4315,5.8061
968.7500,-1.9928,-3.1375,-0.5459,0.7988,3.8358,-2.7354,-2.3643,-5.4179,0.8325,2.0544,3.4680,1.8717,2.7380,5.8282,2.8237,1.4014,-1.2454,4.9876,8.0874
972.6562,-3.2348,-1.6019,-0.0911,1.3100,1.3143,-2.0494,4.3517,-6.1685,0.2405,1.4126,2.6246,3.5514,1.9002,3.9810,2.0672,1.9772,-3.5585,5.6637,8.5693
976.5625,-3.9379,-0.2085,0.0469,2.3391,-0.5905,-1.7449,7.9047,-5.3822,0.2447,0.5123,2.0350,5.5484,1.3154,2.4547,1.8476,3.7108,-4.9554,6.8403,7.9807
980.4688,-3.6301,0.9059,0.8902,4.1776,-0.5169,-1.7607,7.7383,-2.8921,1.4485,-0.4631,2.3273,7.3803,2.0448,1.7330,2.2126,6.3412,-4.4335,8.8147,7.8407
984.3750,-2.2213,1.9226,2.8430,6.5645,1.4908,-1.6650,5.0130,0.3679,3.8500,-1.1035,3.5888,8.7821,4.5038,1.8846,3.0328,9.1780,-1.8797,11.4571,9.2309
988.2812,-0.0600,3.1283,5.4054,8.7597,4.0498,-1.0361,1.5775,2.9286,6.7657,-1.0973,5.2140,9.7688,8.0839,2.5176,3.9359,11.2405,1.7613,14.1639,11.8972
992.1875,2.2155,4.5990,7.5687,9.9829,5.4499,0.1601,-1.2119,3.7270,9.2195,-0.5151,6.3256,10.5554,11.4643,2.9981,4.4334,11.6379,5.0130,16.1617,14.3640
996.0938,3.9514,6.0328,8.5584,9.9054,4.8591,1.4954,-3.0606,2.7662,10.5201,0.1968,6.4401,11.3707,13.4105,2.7958,4.1921,10.0324,6.7532,16.9386,14.9809
1000.0000,4.7337,6.8759,8.3526,8.8420,2.8476,2.3565,-4.4165,1.0429,10.6134,0.5183,5.8435,12.2783,13.5031,1.7535,3.2605,6.9152,6.8512,16.4957,13.1212
1003.9062,4.4996,6.6721,7.6002,7.5164,0.8803,2.3525,-5.6195,-0.1772,9.9805,0.2092,5.3666,13.1274,12.2935,0.1365,2.0671,3.4869,6.1126,15.2638,9.6387
1007.8125,3.4713,5.3979,7.0297,6.5845,0.1935,1.5507,-6.2514,-0.1990,9.1954,-0.5693,5.7231,13.6759,10.8084,-1.5414,1.1537,1.1463,5.5929,13.7894,6.2480
1011.7188,1.9848,3.5374,6.8282,6.2570,0.9105,0.3860,-5.2605,0.7388,8.5033,-1.4482,6.9225,13.7975,9.7895,-2.7948,0.8133,0.8302,5.8039,12.4430,4.3052
1015.6250,0.3358,1.8328,6.4826,6.2611,2.0354,-0.6536,-1.8452,1.7846,7.7346,-2.1757,8.2224,13.6116,9.2355,-3.3873,0.8920,2.5613,6.4053,11.3415,3.9017
1019.5312,-1.2701,0.8634,5.2120,6.1159,2.2852,-1.3168,3.5546,2.1717,6.5896,-2.7860,8.6713,13.4239,8.5563,-3.3906,0.9187,5.4610,6.5927,10.4705,3.9316
1023.4375,-2.6671,0.7324,2.6629,5.4810,1.0903,-1.6516,8.9966,1.7389,5.0296,-3.4759,7.8349,13.5076,7.1777,-3.0844,0.4829,8.2200,5.8479,9.8367,3.0438
1027.3438,-3.6629,1.0620,-0.6675,4.3309,-1.0027,-1.8406,11.8865,0.9059,3.4370,-4.3165,6.1489,13.8853,5.0949,-2.7764,-0.4181,9.7578,4.4357,9.4893,0.7266
1031.2500,-4.0499,1.2873,-3.6202,2.8818,-2.8062,-1.9755,10.5026,0.1962,2.3995,-5.0796,4.6223,14.2802,2.9371,-2.6490,-1.3468,9.7014,3.2406,9.4067,-2.3015
1035.1562,-3.7132,1.0350,-5.0610,1.4003,-3.4381,-1.9703,5.1670,-0.2443,2.2796,-5.3540,4.1059,14.2802,1.5030,-2.6935,-1.7609,8.4334,3.0704,9.3952,-4.6640
1039.0625,-2.7580,0.3232,-4.5827,0.0779,-2.9816,-1.6770,-1.8129,-0.7139,2.9110,-4.8720,4.6772,13.5963,1.1513,-2.7450,-1.4708,6.7265,3.9920,9.1446,-5.3834
1042.9688,-1.5389,-0.5424,-2.7315,-0.9537,-2.3453,-1.0996,-7.4791,-1.5677,3.6687,-3.7727,5.6039,12.2241,1.5393,-2.5840,-0.8472,5.2218,5.2503,8.4368,-4.5864
1046.8750,-0.5298,-1.2762,-0.6166,-1.5538,-2.4501,-0.5190,-9.9408,-2.7392,3.8754,-2.5764,5.9091,10.3964,1.9191,-2.0583,-0.5725,4.0735,5.8542,7.3371,-3.3271
1050.7812,-0.0937,-1.8786,0.7985,-1.5871,-3.4068,-0.4061,-9.2838,-3.6281,3.2457,-1.8855,5.1000,8.3857,1.7487,-1.1777,-1.0944,2.9598,5.3665,6.1804,-2.6988
1054.6875,-0.2983,-2.6463,1.2127,-1.0577,-4.3542,-1.1538,-7.0812,-3.5089,2.0410,-2.0455,3.5009,6.3304,1.1215,-0.1379,-2.2111,1.4144,4.2539,5.3224,-2.9596
1058.5938,-0.9107,-3.9110,0.9853,-0.2360,-4.1101,-2.7918,-4.9787,-2.1602,0.8264,-3.0151,1.9413,4.2336,0.6706,0.7551,-3.1588,-0.7551,3.4970,4.8391,-3.3618
1062.5000,-1.5790,-5.7018,0.6905,0.3931,-2.1429,-4.8745,-3.5179,-0.1916,0.0234,-4.4927,1.0577,2.1260,1.0291,1.2452,-3.1876,-3.2319,3.7666,4.4288,-2.8006
1066.4062,-2.0765,-7.6030,0.6219,0.4025,0.8955,-6.6387,-2.1052,1.2528,-0.4015,-6.1348,0.7715,0.2286,2.2945,1.2976,-2.1990,-5.2837,4.8412,3.6285,-0.7476
1070.3125,-2.4366,-8.9492,0.6305,-0.2565,3.5138,-7.3722,-0.0402,1.2496,-0.8862,-7.6606,0.3656,-1.0681,3.9315,1.1653,-0.9114,-6.1268,5.7624,2.1924,2.2730
1074.2188,-2.8887,-9.2592,0.3670,-1.1565,4.3706,-6.8066,2.4011,-0.2364,-1.9195,-8.8065,-0.9005,-1.4499,5.1872,1.2714,-0.3653,-5.3503,5.6263,0.3207,5.0242
1078.1250,-3.6564,-8.6151,-0.3355,-1.6614,3.1880,-5.3139,3.8739,-2.2882,-3.6742,-9.2850,-3.1386,-0.9919,5.6612,1.9341,-1.1151,-3.1675,4.3682,-1.4784,6.4183
1082.0312,-4.7799,-7.7023,-1.2966,-1.4092,0.9146,-3.7734,3.0319,-3.6475,-5.9101,-8.9160,-5.6896,-0.2785,5.5508,3.0987,-2.7590,-0.3624,2.8757,-2.8134,6.2182
1085.9375,-6.0922,-7.4400,-2.1725,-0.6441,-0.9667,-3.1434,-0.1487,-3.5619,-8.1991,-7.8942,-7.6309,-0.1733,5.3738,4.2837,-4.2355,2.0374,2.2989,-3.7801,5.0602
1089.8438,-7.3550,-8.4127,-2.7928,-0.0963,-1.4593,-3.9485,-4.0058,-2.2496,-10.2613,-6.9322,-8.5349,-1.3213,5.4282,4.8384,-4.7040,3.1964,3.0987,-4.9387,3.8560
1093.7500,-8.4317,-10.4770,-3.3109,-0.4376,-0.6454,-5.9706,-6.2465,-0.6573,-12.1205,-7.0148,-8.8463,-3.6877,5.4863,4.3875,-4.3051,2.8106,4.6200,-6.8562,3.1119
1097.6562,-9.3613,-12.8222,-4.0072,-1.7047,0.5483,-8.3475,-5.6550,0.2753,-13.9570,-8.7944,-9.5310,-6.4633,5.0214,3.1571,-4.1278,1.2009,5.5825,-9.5460,2.7148
1101.5625,-10.2903,-14.4743,-4.9253,-3.1656,1.1666,-10.0588,-3.0488,0.2632,-15.8122,-12.0157,-11.2439,-8.4597,3.7843,1.8970,-5.3165,-0.8678,5.1234,-12.2774,2.2834
1105.4688,-11.3349,-14.9235,-5.7131,-3.8072,0.9443,-10.5244,-0.6281,-0.2446,-17.4372,-15.4586,-13.6921,-8.7982,2.1968,1.3688,-7.9892,-2.5517,3.5426,-13.9832,1.6724
1109.3750,-12.4900,-14.4499,-5.8857,-3.1344,0.3642,-9.9353,-0.1904,-0.5679,-18.4559,-17.5751,-15.7594,-7.4790,1.1346,1.7109,-10.8814,-3.3070,2.0976,-14.0274,1.1112
1113.2812,-13.6301,-13.9044,-5.3347,-1.6720,0.0519,-9.0753,-1.6769,-0.4273,-18.7168,-17.4605,-16.3628,-5.4517,1.1840,2.1542,-12.1266,-3.1144,1.9538,-12.7586,0.8261
1117.1875,-14.5594,-14.0697,-4.6200,-0.7188,0.0592,-8.7189,-3.2897,-0.1718,-18.5016,-15.4715,-15.3838,-4.1007,1.9635,1.3863,-10.6767,-2.4539,3.1209,-11.3706,0.5285
1121.0938,-15.0380,-15.0316,-4.6824,-1.4417,-0.3221,-9.0083,-3.1128,-0.4188,-18.3391,-12.9938,-13.8913,-4.4292,2.1511,-1.5798,-7.2744,-2.0439,4.2806,-11.0866,-0.6559
1125.0000,-14.7786,-16.0153,-6.0831,-3.9348,-2.0060,-9.2700,-0.8665,-1.4283,-18.5059,-11.4677,-13.3832,-6.4352,0.3491,-6.5880,-4.1355,-2.4659,3.7402,-12.2220,-3.5883
1128.9062,-13.4892,-15.8450,-8.3381,-6.9620,-5.2397,-8.4632,1.7466,-2.7615,-18.6138,-11.3650,-14.5662,-9.0801,-3.7754,-12.1793,-3.4537,-3.8510,0.8335,-13.8416,-8.2394
1132.8125,-11.0291,-13.7541,-9.9599,-8.6586,-9.1328,-5.9963,2.4716,-3.5424,-17.7009,-11.8826,-16.6265,-10.8930,-8.9579,-16.3032,-5.7857,-5.7773,-3.3353,-14.3381,-13.2837
1136.7188,-7.6270,-10.0011,-9.3406,-7.7641,-12.0369,-2.3361,0.5297,-3.1416,-14.8821,-11.6026,-17.6398,-10.8525,-12.9280,-17.5086,-9.5451,-7.4350,-6.4623,-12.5833,-16.6517
1140.6250,-3.9786,-5.8449,-5.9351,-4.5324,-12.5728,1.0844,-2.5302,-1.7308,-10.1452,-9.6285,-15.9125,-9.0004,-13.8208,-15.8419,-12.0458,-7.9895,-6.5946,-8.8372,-16.7999
1144.5312,-1.0534,-2.8477,-0.8709,-0.6531,-10.5784,2.6883,-3.9950,-0.2397,-4.6687,-6.3337,-11.2883,-6.3961,-11.4429,-12.8250,-11.3635,-6.9759,-3.5369,-4.7213,-13.8265
1148.4375,0.3743,-1.9430,3.5629,1.7978,-7.2754,1.7963,-2.2854,0.2846,-0.3122,-3.1465,-5.4114,-4.4364,-7.4621,-10.4923,-7.6491,-4.5373,0.9455,-2.2146,-9.5682
1152.3438,0.2016,-2.8853,5.2973,1.6614,-4.5084,-0.8421,1.5490,-0.5644,1.4704,-1.5363,-0.6881,-3.9725,-4.3365,-10.1179,-2.9276,-1.3909,4.3099,-2.3491,-6.5085
1156.2500,-0.8767,-4.4600,3.8094,-0.6410,-3.5874,-3.4522,4.5055,-2.2647,0.5680,-1.9780,1.3237,-4.7896,-3.7123,-11.4840,0.4221,1.4679,4.9471,-4.5219,-6.2063
1160.1562,-1.7570,-5.3124,0.4448,-3.5114,-4.5402,-4.3556,4.0550,-3.7735,-1.6897,-3.6714,0.9025,-5.7827,-5.4095,-13.1646,1.3199,3.1805,3.1732,-6.9152,-8.3394
1164.0625,-1.6281,-4.8233,-2.5173,-5.3020,-6.2584,-3.0623,0.3634,-4.3079,-3.3975,-5.1927,-0.2095,-5.7022,-7.6832,-13.5763,0.5202,3.3625,0.8164,-7.7245,-11.0282
1167.9688,-0.5108,-3.4301,-3.3965,-5.3305,-7.3574,-0.5673,-3.6002,-3.8897,-3.3227,-5.5375,-0.2432,-3.9718,-8.5091,-12.0291,-0.2972,2.2081,-0.2239,-6.3197,-12.1734
1171.8750,0.7710,-2.1847,-2.1470,-4.0902,-7.0796,1.3703,-4.3024,-3.2354,-1.6555,-4.7471,1.2174,-1.0431,-6.9271,-9.0486,-0.0560,0.3343,0.6824,-3.5397,-10.8181
1175.7812,1.1968,-1.8943,-0.1751,-2.6101,-5.6127,1.4699,-0.5128,-3.0980,0.2692,-3.6884,2.9841,1.9288,-3.4976,-5.8168,0.8488,-1.5272,2.6411,-0.9707,-7.5756
1179.6875,0.3076,-2.4848,0.8672,-1.5564,-3.6965,-0.1876,5.5261,-3.6023,1.0543,-3.2490,3.3293,3.8419,0.3462,-3.2327,1.0303,-2.8110,4.1563,0.2033,-3.9130
1183.5938,-1.4474,-3.0575,0.3664,-0.8007,-1.9411,-2.2605,9.6496,-4.1140,0.3077,-3.6418,1.5093,4.3136,3.4297,-1.3338,-0.5214,-3.2350,4.4097,-0.0762,-0.9488
1187.5000,-3.0366,-2.5878,-0.8579,0.2541,-0.4399,-3.1428,8.8774,-3.7521,-1.1022,-4.3571,-1.4793,3.8225,5.5399,0.5170,-3.3782,-2.7393,3.8509,-0.9196,1.2625
1191.4062,-3.5923,-0.7348,-1.3035,1.9452,1.0608,-2.1190,3.6346,-2.1370,-1.7688,-4.7145,-3.5337,3.2771,7.2195,2.9034,-5.8515,-1.3611,3.6741,-1.3315,3.4493
1195.3125,-2.9975,1.8507,-0.0493,3.8814,2.6757,0.1660,-2.6649,0.2210,-0.8660,-4.4720,-2.9961,3.3568,8.9562,5.7235,-6.2890,0.8094,4.6832,-1.0038,6.1705
1199.2188,-1.8669,3.9512,2.4674,5.1494,4.0768,2.2432,-6.3041,2.2071,1.2120,-3.9484,0.0840,4.0956,10.5369,8.1739,-4.4181,3.5317,6.5270,-0.4540,9.0490
1203.1250,-0.9644,4.6221,4.7505,5.0148,4.6716,2.9327,-6.0342,2.8491,3.1731,-3.5916,3.9628,4.9629,11.1383,9.3363,-1.6060,6.2648,7.9396,-0.4715,10.8579
1207.0312,-0.5557,3.8216,5.3578,3.5127,4.1111,2.1888,-3.7242,1.9619,3.8349,-3.4367,6.4818,5.3170,10.0497,8.8595,0.2089,8.1533,7.7696,-1.3941,10.3972
1210.9375,-0.2399,2.3780,3.9507,1.4181,2.6555,1.0554,-2.4603,0.2173,3.0151,-2.9935,6.6227,4.8563,7.3681,7.1702,0.0592,8.2845,5.9246,-2.8329,7.4426
1214.8438,0.6062,1.3473,1.4907,-0.3853,1.0355,0.8007,-3.7595,-1.3852,1.6106,-1.7047,5.1483,3.7423,4.0322,5.0643,-1.2931,6.1644,3.4446,-4.0497,2.9920
1218.7500,2.1615,1.2645,-0.5218,-1.6024,-0.1150,1.9151,-6.2539,-2.2229,0.8280,0.4214,3.8676,2.3587,1.1372,3.0564,-2.0077,2.1498,1.6499,-4.6303,-1.3876
1222.6562,3.8647,1.8416,-1.1452,-2.6930,-0.7866,3.7380,-6.9303,-2.4033,1.1974,2.5958,4.1380,0.9497,-0.8989,1.0571,-0.7073,-2.4896,1.0736,-4.8582,-4.5931
1226.5625,4.7731,2.2946,-0.6023,-4.3598,-1.6124,4.9732,-3.8643,-2.5431,2.1583,3.7100,5.7842,-0.5502,-2.6063,-1.3536,2.3343,-6.0362,1.0611,-5.4629,-6.5995
1230.4688,4.3107,1.9961,0.0040,-6.7908,-3.3175,4.6701,1.8542,-3.1958,2.5370,3.1531,7.2540,-2.3755,-4.9272,-4.3188,5.3133,-7.1481,0.3609,-6.9546,-8.2241
1234.3750,2.7852,0.9333,-0.4293,-9.3155,-6.0242,2.9146,6.6286,-4.3947,1.5296,1.3357,6.8546,-4.6182,-8.3035,-7.3282,6.2312,-5.5929,-1.7810,-9.1029,-10.2935
1238.2812,1.2319,-0.3441,-2.2206,-10.8013,-8.9884,0.7299,6.9223,-5.6417,-0.5857,-0.5189,4.0959,-7.0115,-12.1437,-9.4482,4.3943,-2.4255,-4.9113,-10.9930,-12.9068
1242.1875,0.6842,-1.1737,-4.7488,-10.4995,-11.0212,-0.6855,1.8546,-6.3052,-2.5530,-1.1746,0.1344,-8.9781,-15.1197,-10.0095,0.9213,0.5599,-7.6147,-11.6149,-15.3515
1246.0938,1.4480,-1.2160,-6.9298,-8.6628,-11.3064,-0.7666,-6.1762,-6.0867,-2.9716,-0.1645,-2.9636,-9.8936,-16.0746,-9.1889,-2.0826,1.8235,-8.5146,-10.5164,-16.6609
1250.0000,2.9543,-0.5445,-7.8903,-6.4221,-9.9978,0.1600,-13.2240,-5.2110,-1.2296,2.0165,-3.5418,-9.3739,-14.8312,-7.9803,-2.9960,0.9302,-7.2470,-8.0355,-16.3118
1253.9062,4.2766,0.5964,-7.3642,-5.0082,-8.1405,1.2897,-16.4265,-4.2474,2.1209,4.3890,-1.3002,-7.4194,-12.2909,-7.5391,-1.6675,-1.2761,-4.6827,-5.0003,-14.5184
1257.8125,4.8547,2.0498,-5.6645,-4.9298,-6.9792,2.0101,-15.5262,-3.7544,5.7495,6.1914,2.7068,-4.3985,-9.7866,-8.4017,0.7380,-3.2833,-2.2827,-2.2138,-11.9856
1261.7188,4.8091,3.7311,-3.4190,-5.7456,-7.1743,2.2628,-12.3444,-4.0212,8.3405,7.2394,6.8509,-0.9525,-8.2274,-10.1878,2.7612,-3.9068,-1.1317,-0.1542,-9.4342
1265.6250,4.6159,5.3646,-1.3420,-6.5718,-8.4925,2.3500,-8.9713,-5.0357,9.2179,7.7387,9.8227,2.1126,-7.6803,-11.9978,3.6460,-3.0049,-1.3681,0.9535,-7.3243
1269.5312,4.4884,6.3041,-0.1150,-6.8617,-10.1373,2.4458,-6.3230,-6.5942,8.4614,7.8403,11.0587,3.9813,-7.6178,-13.1450,3.5837,-1.4468,-2.3418,0.9237,-5.9171
1273.4375,4.0808,5.7581,-0.2563,-6.7890,-11.3888,2.3159,-4.1299,-8.3880,6.6036,7.4218,10.6179,4.0904,-7.5054,-13.6054,3.1899,-0.3802,-3.2358,-0.3956,-5.4444
1277.3438,2.8357,3.3804,-1.8738,-6.9339,-12.0275,1.5358,-2.0189,-10.0076,4.2646,6.3030,8.8554,2.4492,-7.1806,-13.8297,2.8257,-0.3473,-3.5955,-2.8280,-6.0662
1281.2500,0.6896,-0.2155,-4.4226,-7.5852,-12.2578,0.0203,-0.4239,-10.9598,1.9879,4.6433,6.2559,-0.1895,-6.7497,-14.1331,2.3869,-0.8988,-3.4067,-5.5747,-7.5775
1285.1562,-1.5349,-3.5298,-6.7534,-8.3151,-12.2979,-1.6439,-0.3796,-10.8223,0.2516,3.0557,3.4668,-2.5354,-6.2123,-14.2478,1.6520,-0.9932,-2.8210,-7.3501,-9.1843
1289.0625,-2.5152,-4.9537,-7.6123,-8.2459,-12.0688,-2.4429,-2.4399,-9.5146,-0.5521,2.2306,1.2861,-3.3650,-5.2682,-13.4777,0.7332,0.1192,-1.9097,-7.0577,-9.7253
1292.9688,-1.3979,-3.7926,-6.3804,-6.8120,-11.2700,-1.6491,-5.8503,-7.4785,-0.2855,2.3545,0.3984,-2.2156,-3.5529,-11.3461,0.1125,2.2052,-0.7011,-4.5966,-8.3508
1296.8750,1.4013,-0.7952,-3.5409,-4.3515,-9.7408,0.5347,-8.8790,-5.5390,0.7514,2.8734,0.9722,0.3037,-1.0835,-8.1529,0.2046,4.1027,0.6066,-1.1291,-5.1940
1300.7812,4.2799,2.2653,-0.4519,-1.9582,-7.7149,2.9487,-10.0908,-4.4308,1.8775,2.9083,2.4792,2.8746,1.5603,-4.8905,0.8928,4.5253,1.5941,1.5523,-1.4304
1304.6875,5.4635,3.7255,1.5135,-0.6382,-5.6726,4.1590,-9.4180,-4.2718,2.4173,2.0460,3.9883,4.3275,3.5921,-2.5047,1.5472,3.0454,1.9136,2.2300,1.4660
1308.5938,4.2404,3.0927,1.8799,-0.4322,-3.8841,3.3891,-8.0227,-4.3876,2.1861,0.8302,4.7839,4.4089,4.6742,-1.0885,1.5750,0.5084,1.7131,1.1745,2.7927
1312.5000,1.4757,1.2615,1.3464,-0.2616,-2.0743,1.0247,-7.0570,-3.6967,1.6704,0.4439,4.8231,3.8738,5.2815,0.2672,1.0084,-1.4783,1.7456,0.0143,3.1733
1316.4062,-1.0143,-0.2597,1.1864,1.2862,0.4056,-1.6740,-6.4798,-1.4571,1.6858,1.7347,4.6291,3.7865,6.3541,2.7336,0.5316,-1.6672,2.9025,0.5513,4.0670
1320.3125,-1.7653,-0.5148,2.2071,4.7868,3.9421,-3.4216,-5.0830,2.1318,2.7170,4.3414,4.6871,4.5304,8.4079,6.6259,0.8327,-0.1092,5.4219,3.3418,6.5134
1324.2188,-0.6543,0.2370,4.0784,9.3317,8.0509,-3.6861,-1.7745,5.9272,4.4537,6.7002,4.8714,5.3073,10.8041,10.8053,1.8213,1.7886,8.4020,7.1174,10.0670
1328.1250,1.1626,0.8494,5.5740,12.9628,11.3626,-2.8538,3.0465,8.4881,5.9296,7.0551,4.4525,4.5896,11.8622,13.1717,2.4673,2.1746,10.1284,9.5446,12.8303
1332.0312,2.2606,0.3146,5.5502,13.9220,12.3485,-1.7416,7.3691,8.9435,6.2028,4.7686,2.7521,1.2695,9.8853,11.9975,1.5414,0.0210,9.1239,8.8225,12.6920
1335.9375,2.0581,-1.3548,3.8868,11.8128,10.3354,-0.9155,8.9752,7.4821,5.0581,0.9122,-0.0890,-4.3236,4.4244,7.1683,-1.2651,-4.1341,5.2146,4.9616,8.9178
1339.8438,1.1380,-3.1000,1.6248,7.8229,6.0614,-0.3708,7.2288,5.1287,3.1596,-2.3866,-2.9362,-10.3411,-3.1653,0.4101,-4.7914,-8.4936,-0.2003,-0.2026,2.8825
1343.7500,0.5668,-3.6608,0.1681,3.8665,1.3146,0.2242,3.6585,2.9953,1.5120,-3.4107,-4.3470,-14.4131,-10.3505,-5.6983,-7.0146,-11.1381,-4.9490,-4.2646,-2.6789
1347.6562,0.8398,-2.6049,0.1750,1.3171,-2.1341,1.0123,0.7213,1.5692,0.6591,-2.0424,-3.6509,-15.0704,-14.8416,-9.2412,-6.4739,-11.1961,-7.4269,-5.8317,-5.4226
1351.5625,1.3799,-0.7090,1.0295,0.2767,-3.5511,1.6650,-0.2546,0.5564,0.2841,0.2351,-1.5588,-12.5977,-15.8247,-9.9515,-3.4455,-9.2473,-7.5180,-5.2691,-4.8862
1355.4688,1.0350,0.6149,1.3336,-0.1297,-3.4873,1.6082,-0.1518,-0.6465,-0.4398,1.5261,0.2597,-8.7264,-14.1648,-9.0298,0.0971,-6.7321,-6.4388,-4.1168,-2.6291
1359.3750,-0.8367,0.3911,0.0520,-0.7671,-3.1164,0.5634,-1.1497,-2.2620,-2.0267,0.9818,0.3811,-5.4200,-11.5226,-8.0378,1.8013,-4.8571,-5.6573,-3.7192,-0.9441
1363.2812,-3.6197,-1.1957,-2.5893,-1.6612,-3.2172,-1.0806,-4.5433,-3.7980,-4.0753,-0.5985,-1.2897,-3.6484,-9.1210,-7.7573,0.5885,-3.8184,-5.7377,-4.1867,-1.1346
1367.1875,-5.6990,-2.9744,-5.1640,-2.0012,-3.6081,-2.4247,-9.2157,-4.3483,-5.4288,-1.4773,-3.4246,-3.0104,-7.0950,-7.8424,-2.5961,-2.8821,-5.9892,-4.4873,-2.6594
1371.0938,-5.5750,-3.6943,-6.0358,-0.9343,-3.4513,-2.6634,-12.2201,-3.3045,-5.0229,-0.4208,-4.2720,-2.3808,-4.8287,-7.4097,-5.5004,-1.1933,-5.1515,-3.5232,-3.7467
1375.0000,-2.9855,-2.9353,-4.5328,1.5421,-2.1329,-1.6726,-11.1251,-0.9167,-2.7710,2.2690,-2.9992,-0.9848,-1.8702,-5.9783,-6.1966,1.3587,-2.5306,-1.2547,-2.9349
1378.9062,0.8322,-1.3315,-1.4334,4.3566,0.0391,-0.1176,-6.1746,1.7467,0.2293,4.9406,-0.3392,0.9685,1.4093,-3.9599,-4.3948,3.9018,1.3270,1.0849,-0.2998
1382.8125,3.9334,0.0002,1.5630,6.0199,1.9195,1.0060,-0.3520,3.4380,2.3664,5.8374,1.9529,2.5449,3.9699,-2.3423,-1.4925,5.1507,4.9430,1.8736,2.5773
1386.7188,4.9036,0.3123,2.9449,5.6544,2.3430,1.0436,2.8337,3.5095,2.5719,4.4223,2.3984,2.9398,4.9080,-1.9027,0.5847,4.3416,6.9265,0.3694,3.8332
1390.6250,3.6375,-0.3271,2.2511,3.5892,1.0172,0.0642,2.0428,2.2691,0.9762,1.7639,0.8376,2.1786,4.1976,-2.6413,0.7894,1.8221,6.8933,-2.6676,2.7322
1394.5312,1.1740,-1.2778,0.1261,1.0623,-1.2412,-1.2957,-1.0086,0.6708,-1.3000,-0.2806,-1.5582,1.0847,2.7237,-3.8916,-0.4614,-1.1318,5.5929,-5.5074,0.1524
1398.4375,-1.1503,-1.9564,-2.3370,-0.7207,-3.1329,-2.3405,-3.2583,-0.4080,-3.0064,-0.4210,-3.2449,0.5848,1.5787,-4.9521,-1.8546,-3.1134,4.2120,-6.7156,-2.1942
1402.3438,-2.5050,-2.2600,-4.3598,-1.4298,-3.8725,-2.7472,-3.1398,-0.7582,-3.5775,1.2112,-3.4232,0.9662,1.2160,-5.6506,-2.3164,-3.4025,3.4660,-6.1520,-3.1323
1406.2500,-2.7738,-2.4427,-5.7706,-1.7191,-3.7569,-2.6101,-2.0355,-0.8778,-3.3014,3.3112,-2.4422,1.7170,1.1693,-6.3467,-1.7510,-2.2402,3.2048,-4.9350,-2.8742
1410.1562,-2.1986,-2.6334,-6.7220,-2.5593,-3.8488,-2.1514,-2.9563,-1.4678,-2.8088,4.4752,-1.2604,2.0568,0.5627,-7.3971,-0.8596,-0.4527,2.7835,-4.4398,-2.6958
1414.0625,-0.9601,-2.5165,-7.2280,-4.3580,-5.0267,-1.4277,-7.4937,-2.7995,-2.4036,4.2193,-0.5217,1.6679,-1.0364,-8.6018,-0.3413,1.1964,1.8040,-5.1630,-3.7528
1417.9688,0.8574,-1.5367,-7.0114,-6.5671,-7.1684,-0.3268,-13.7327,-4.4413,-1.8359,3.1786,-0.0757,0.9761,-3.1520,-9.1702,-0.2628,2.3957,0.5531,-6.3645,-6.0312
1421.8750,2.9360,0.5135,-5.8073,-8.0628,-9.1326,1.1584,-17.1673,-5.5425,-0.6901,2.4159,0.6708,0.7268,-4.7243,-8.2938,-0.1545,3.1713,-0.2349,-6.7464,-8.2871
1425.7812,4.4794,3.0588,-3.8135,-7.9713,-9.5695,2.6677,-14.1556,-5.4398,1.0061,2.4701,1.9448,1.2291,-4.9615,-5.8643,0.3180,3.4811,-0.0622,-5.5900,-9.0067
1429.6875,4.4699,4.9178,-1.8170,-6.2879,-7.9292,3.5301,-5.1658,-4.1223,2.5468,2.9243,3.1247,1.9386,-4.0083,-2.7125,0.7971,2.9695,0.8190,-3.4180,-7.5964
1433.5938,2.3738,5.0473,-0.7980,-3.8306,-4.8756,3.1627,4.9980,-2.2115,2.9609,2.8090,3.0885,1.7876,-2.8656,-0.1139,0.3799,1.1728,1.5347,-1.6465,-4.8410
1437.5000,-1.2457,3.3153,-1.2663,-1.6057,-1.7813,1.5248,10.4506,-0.4908,1.7760,1.4771,1.1636,0.0399,-2.6066,1.0968,-1.5824,-1.9583,1.2819,-1.5029,-2.2748
1441.4062,-4.7866,0.6887,-2.8390,-0.0967,0.3023,-0.7396,8.5346,0.6499,-0.4872,-0.7571,-2.1020,-3.0047,-3.5054,1.1222,-4.6964,-5.6699,0.0267,-3.0575,-0.9776
1445.3125,-6.4318,-1.3355,-4.3996,0.9928,1.3950,-2.6089,1.7593,1.4406,-2.5228,-2.7008,-5.0308,-6.0382,-4.7702,1.0397,-7.4591,-8.5456,-1.3728,-5.1107,-0.7504
1449.2188,-5.2194,-1.6510,-4.7468,2.3971,2.4816,-3.2318,-4.2420,2.4747,-3.0276,-3.0063,-5.7840,-7.5183,-5.0912,1.9972,-8.0647,-9.1757,-1.7404,-6.0034,-0.3006
1453.1250,-1.6061,-0.1466,-3.2860,4.6551,4.6419,-2.3384,-5.1431,4.1777,-1.4992,-1.0016,-3.5304,-6.6235,-3.5810,4.3735,-5.5367,-6.9420,-0.4245,-4.7291,1.7316
1457.0312,2.8662,2.3948,-0.3171,7.6764,8.1005,-0.2686,-1.1817,6.4059,1.5207,2.9216,1.0166,-3.6992,-0.3952,7.5219,-0.3780,-2.3945,2.2266,-1.5404,5.7104
1460.9375,6.5254,4.9361,3.2070,10.7981,11.9323,2.3152,3.3768,8.4719,4.8744,7.5436,6.0423,0.0816,3.4061,10.2511,5.6944,3.0190,5.0989,2.3292,10.6969
1464.8438,8.4421,6.8147,6.2191,13.2355,14.6451,4.7580,4.0662,9.5800,7.5083,11.4316,9.6815,3.5175,6.6046,11.6391,10.6845,7.6669,7.0540,5.5374,15.0768
1468.7500,8.6516,7.9082,8.0088,14.5649,15.1946,6.5554,0.1152,9.3607,8.9460,13.5208,10.9276,6.0120,8.5890,11.5670,13.2461,10.4223,7.6174,7.4264,17.6041
1472.6562,7.7216,8.3385,8.4105,14.9073,13.6773,7.3241,-4.8662,8.1308,9.2579,13.3949,9.8660,7.6325,9.5933,10.6263,13.0575,10.9533,7.1403,8.2116,18.0863
1476.5625,6.1557,8.1127,7.7351,14.7408,11.2154,6.7892,-5.9932,6.7038,8.7061,11.2666,7.2738,8.6907,10.3105,9.5615,10.6026,9.5842,6.3938,8.5528,17.2845
1480.4688,4.1590,7.0942,6.5980,14.5311,9.1624,4.9295,-1.3857,5.8826,7.4673,7.8141,4.0562,9.3119,11.2535,8.7328,6.7386,6.9849,5.9675,8.9340,16.2213
1484.3750,1.8718,5.3227,5.7349,14.4496,8.2375,2.1899,6.0212,5.9728,5.6679,3.9891,0.9630,9.3808,12.3731,7.9933,2.4366,3.9645,5.9319,9.3363,15.4860
1488.2812,-0.2875,3.3163,5.7851,14.3334,8.1950,-0.5011,10.7331,6.6248,3.6145,0.8010,-1.3677,8.8514,13.1729,6.9900,-1.2614,1.4148,5.9531,9.3808,15.0190
1492.1875,-1.6177,1.9636,7.0167,13.8540,8.1888,-2.0822,9.1959,7.0902,1.8914,-0.9532,-2.3335,8.0501,13.1527,5.5619,-3.3292,0.2315,5.6779,8.7405,14.4111
1496.0938,-1.5677,1.9784,9.0941,12.7515,7.4745,-1.9493,2.7824,6.7114,1.1324,-0.9597,-1.5360,7.6153,12.1902,3.8863,-3.0992,1.0409,5.0406,7.4703,13.3547
1500.0000,-0.2449,3.3265,11.0926,10.9974,5.8989,-0.3845,-3.2769,5.3293,1.6097,0.4902,0.8648,8.0698,10.5898,2.2970,-0.7272,3.7983,4.2692,6.0362,11.8512
1503.9062,1.4949,5.1328,11.8874,8.8214,3.8605,1.5406,-4.1857,3.3626,3.0009,2.6419,3.9735,9.3876,8.8294,0.9919,2.6406,7.5654,3.6568,5.0785,10.0722
1507.8125,2.5426,6.2163,10.7800,6.6093,1.8692,2.5966,0.4582,1.5266,4.5765,4.6369,6.4668,10.9517,7.2613,-0.0844,5.3126,10.7634,3.3375,5.0966,8.1038
1511.7188,2.2753,5.8818,7.9843,4.7117,0.1188,2.1568,6.3601,0.3792,5.6885,5.8755,7.3010,11.9717,5.9975,-1.1020,5.9632,11.8949,3.2553,6.2187,5.8703
1515.6250,0.9583,4.3577,4.5966,3.2422,-1.5868,0.5511,8.1711,-0.0206,6.1646,6.1652,6.3447,12.0250,5.0033,-2.1179,4.4228,10.3457,3.3056,8.1121,3.3186
1519.5312,-0.5151,2.5353,1.9972,1.9761,-3.5383,-1.2435,4.0514,-0.1307,6.2786,5.6047,4.4424,11.2792,4.2473,-2.9962,1.7600,6.7483,3.4808,10.0371,0.6638
1523.4375,-1.3359,1.2323,1.0388,0.4577,-5.7352,-2.3397,-2.6860,-0.6006,6.3362,4.3641,2.8208,10.2333,3.7579,-3.5375,-0.4486,2.6418,3.8774,11.0605,-1.5749
1527.3438,-1.3639,0.5880,1.5694,-1.6700,-7.7276,-2.5487,-6.2863,-1.7931,6.2683,2.5830,2.2649,9.2472,3.5761,-3.6506,-1.1501,-0.3592,4.5810,10.4391,-2.8258
1531.2500,-1.1265,0.0823,2.6250,-4.2642,-8.7857,-2.4215,-3.4042,-3.4392,5.6344,0.4684,2.6766,8.3102,3.7207,-3.3459,-0.4050,-1.3402,5.5764,8.0760,-2.8029
1535.1562,-1.2699,-0.8652,3.1540,-6.4906,-8.2406,-2.7291,3.9580,-4.6579,4.0830,-1.5467,3.3286,7.2665,4.2465,-2.5189,0.8648,-0.3288,6.7919,4.7942,-1.6388
1539.0625,-1.9549,-2.2570,2.7506,-7.0685,-5.7537,-3.8222,9.9405,-4.3733,1.8814,-2.8161,3.5711,6.2639,5.3400,-0.7527,1.7131,2.0526,8.2360,2.1423,0.3042
1542.9688,-2.7135,-3.4164,1.8784,-4.9303,-1.3907,-5.3757,9.5906,-1.9324,0.0052,-2.7639,3.3971,5.9388,7.2969,2.5718,1.8968,5.1454,10.0632,1.6716,2.7683
1546.8750,-2.8705,-3.5362,1.4450,0.0499,4.4382,-6.6862,2.9830,2.4180,-0.4038,-1.2879,3.4099,7.0449,10.2994,7.8012,1.9305,8.5417,12.4434,4.0045,5.7617
1550.7812,-2.1492,-2.4226,2.0723,6.7417,11.0456,-7.2405,-4.7516,7.4936,1.1269,1.0263,4.2368,9.7447,14.1116,14.4754,2.4851,11.9189,15.2952,8.2809,9.3825
1554.6875,-0.9365,-0.7844,3.6099,13.1572,17.5082,-7.0712,-7.5815,11.6541,3.9062,3.1020,5.8950,13.1613,17.9552,21.2008,3.6873,14.6898,18.1044,12.4459,13.4588
1558.5938,0.0107,0.2229,5.2403,17.4194,22.7822,-6.6282,-3.5236,13.5859,6.3670,3.9135,7.6447,15.6814,20.7614,26.1792,4.9362,15.9284,20.0374,14.3367,17.3578
1562.5000,0.1551,-0.1287,6.0700,18.7502,25.9896,-6.3148,3.7098,12.9683,7.0135,3.0483,8.4728,15.9337,21.7234,28.1591,5.3938,14.8067,20.3530,12.9569,20.2119
1566.4062,-0.4319,-1.5384,5.7608,17.8550,26.8109,-6.1126,7.7807,10.6354,5.3980,0.9295,7.8378,13.7844,20.8068,27.1941,4.7274,11.2918,18.8698,9.1209,21.4596
1570.3125,-1.1832,-2.8419,4.7545,16.4298,25.7305,-5.6241,5.0286,8.1112,2.4451,-1.4361,6.1121,10.5855,18.8431,24.6490,3.4659,6.5330,16.1597,5.0055,21.2984
1574.2188,-1.5172,-2.8342,3.9626,16.0832,23.8738,-4.4848,-2.3614,6.7598,-0.1081,-3.0091,4.3944,8.4070,17.0814,22.3747,2.6562,2.5042,13.2953,2.8613,20.6537
1578.1250,-1.2580,-1.1256,4.1732,17.3516,22.4213,-2.7757,-7.9981,7.0397,-0.7735,-3.2159,3.8418,8.7322,16.4572,21.5616,3.0869,1.0013,11.2803,3.7028,20.6153
1582.0312,-0.6654,1.6100,5.5865,19.4339,21.9181,-1.0652,-6.4708,8.3050,0.8409,-2.1202,5.0017,11.5180,17.0528,22.0346,4.7000,2.6124,10.5152,6.8154,21.7059
1585.9375,-0.1107,4.1496,7.7547,20.7968,21.9501,-0.0306,2.1190,9.2768,3.9267,-0.2370,7.5683,15.2718,18.1080,22.4624,6.6548,6.3718,10.6368,10.3548,23.5056
1589.8438,0.2584,5.5661,9.8971,20.2294,21.4606,0.0316,12.0105,8.8897,7.1070,1.8220,10.6483,18.0693,18.5699,21.3296,7.9705,10.3610,10.8206,12.5800,24.9168
1593.7500,0.5589,5.7562,11.3364,17.6471,19.5349,-0.5920,16.2223,6.9778,9.3057,3.6244,13.2696,18.7640,17.7964,18.0008,8.2204,12.8561,10.3324,12.8713,24.8871
1597.6562,0.9207,5.3032,11.7787,14.1348,16.1187,-1.2725,12.0460,4.3627,10.2648,4.9860,14.7775,17.5497,15.9403,13.1604,7.7296,13.2365,8.9631,11.8973,23.0786
1601.5625,1.2373,4.8751,11.3231,11.2386,12.1386,-1.5090,3.1736,2.2943,10.4313,5.8694,14.9379,15.5570,13.7759,8.3663,7.1541,12.0662,7.0831,10.9302,20.0192
1605.4688,1.2007,4.6934,10.2780,10.0007,8.9103,-1.2391,-3.2768,1.6197,10.4063,6.2478,13.8245,13.8901,12.1205,5.0629,6.8281,10.3790,5.3186,10.8759,16.6676
1609.3750,0.6124,4.4818,8.9522,10.3649,7.2380,-0.7603,-2.4712,2.2373,10.4160,6.0519,11.6795,12.8687,11.2734,3.7344,6.4430,8.7818,4.1018,11.7097,13.7515
1613.2812,-0.3302,3.8616,7.5448,11.2974,6.8566,-0.3762,4.2641,3.1950,10.1792,5.2295,8.8636,11.9977,10.8494,3.7298,5.3356,7.0806,3.4093,12.6293,11.3749
1617.1875,-1.0844,2.7860,6.1543,11.4826,6.6244,-0.1123,10.5023,3.3533,9.2110,3.8650,5.8535,10.5701,10.0893,3.7972,3.1534,4.6824,2.8474,12.7020,9.1454
1621.0938,-1.1599,1.6186,4.8388,10.1064,5.3258,0.2393,9.8676,2.1445,7.2892,2.2666,3.1807,8.3346,8.3989,2.9021,0.3478,1.3904,1.9947,11.4788,6.6482
1625.0000,-0.5433,0.8021,3.6450,7.2338,2.4912,0.7974,1.1706,-0.0936,4.7192,0.9392,1.2709,5.6808,5.7326,0.7773,-1.9398,-2.1090,0.7349,9.1674,3.8391
1628.9062,0.2320,0.4348,2.5693,3.6039,-1.3595,1.3085,-10.5419,-2.4273,2.2066,0.4090,0.2651,3.2517,2.5784,-2.0905,-2.5727,-4.5196,-0.6638,6.3441,1.0328
1632.8125,0.4607,0.1381,1.4820,0.0563,-5.1944,1.2025,-17.8309,-4.0312,0.4246,0.9429,-0.0492,1.3765,-0.4047,-4.9180,-1.2233,-4.8124,-1.7720,3.5136,-1.4676
1636.7188,-0.2080,-0.6663,0.0957,-2.9857,-8.2543,-0.0088,-16.5432,-4.7643,-0.4329,2.2954,-0.1405,-0.1684,-2.8119,-7.1429,1.2853,-3.0481,-2.3466,0.8614,-3.7365
1640.6250,-1.5319,-2.3086,-1.9414,-5.6399,-10.5091,-2.2989,-8.8640,-5.1990,-0.8196,3.6579,-0.5259,-1.8870,-4.6758,-8.6540,3.3698,-0.4958,-2.5245,-1.6847,-6.2125
1644.5312,-2.9210,-4.6256,-4.8209,-8.2677,-12.4309,-5.0307,-1.4301,-6.0932,-1.6092,3.9241,-1.5737,-4.0509,-6.3014,-9.6476,3.5801,1.0927,-2.6970,-4.2340,-9.2608
1648.4375,-3.9535,-7.1043,-8.3230,-11.0131,-14.3014,-7.3224,-0.0967,-7.7154,-3.5942,2.2103,-3.4006,-6.4157,-7.9052,-10.2947,1.4367,0.5719,-3.1446,-6.7862,-12.6517
1652.3438,-4.7220,-9.2693,-11.7310,-13.5329,-15.6670,-8.6292,-5.5264,-9.5392,-7.0040,-1.6312,-5.8773,-8.4179,-9.3486,-10.4962,-2.3122,-1.8938,-3.7144,-9.2635,-15.4274
1656.2500,-5.7272,-10.9840,-14.0664,-15.1115,-15.4580,-9.1135,-12.9998,-10.5501,-11.3336,-6.8279,-8.7049,-9.6707,-10.1768,-9.8897,-6.1682,-4.9820,-3.8234,-11.6264,-16.3678
1660.1562,-7.4307,-12.4407,-14.6100,-15.0757,-12.7530,-9.5192,-16.4411,-9.9440,-15.5947,-11.9982,-11.5307,-10.3142,-9.9397,-8.0695,-8.7881,-7.0830,-2.8399,-13.9049,-14.7978
1664.0625,-9.8567,-13.8891,-13.4268,-13.2124,-7.6188,-10.6283,-13.3473,-7.7027,-18.8434,-15.8115,-14.0747,-10.8909,-8.5498,-4.8486,-9.7506,-7.2720,-0.5944,-16.0723,-11.1601
1667.9688,-12.5574,-15.3550,-11.4968,-9.9021,-1.3394,-12.6775,-6.7045,-4.6206,-20.6488,-17.5983,-16.2176,-11.8285,-6.3923,-0.3961,-9.7085,-5.7450,2.3718,-17.8673,-6.8799
1671.8750,-14.9158,-16.5702,-10.2284,-5.8909,4.2229,-15.1303,-2.4571,-1.7716,-21.1981,-17.5314,-17.9764,-12.9532,-4.0812,4.7991,-9.8347,-3.5029,5.0627,-18.7522,-3.5328
1675.7812,-16.4758,-17.1258,-10.5455,-1.8823,7.7240,-16.9458,-4.6344,0.1754,-20.9738,-16.2998,-19.3403,-13.4593,-2.0300,10.0784,-10.9198,-1.5963,6.6585,-18.1144,-1.8467
1679.6875,-17.0280,-16.6934,-12.1270,1.7470,9.1022,-17.1581,-12.0276,1.2782,-20.2589,-14.5645,-20.0607,-12.4089,-0.1727,14.7693,-12.7213,-0.4965,7.0727,-15.6297,-1.2417
1683.5938,-16.4796,-15.1580,-13.4113,4.9113,9.4362,-15.4133,-19.0204,2.0556,-18.8806,-12.6312,-19.5996,-9.4266,1.9103,18.2890,-14.0327,0.0135,6.9861,-11.5703,-0.2786
1687.5000,-14.7800,-12.6433,-12.5332,7.5266,9.9948,-12.1808,-19.8906,2.8758,-16.4401,-10.5646,-17.3958,-5.0909,4.5099,20.1999,-13.4856,0.4511,7.2708,-6.8447,2.2444
1691.4062,-12.1000,-9.5150,-8.6796,9.2477,11.1945,-8.5691,-13.2359,3.5152,-12.8884,-8.5677,-13.3777,-0.7405,7.3036,20.2675,-10.5923,1.1132,8.2004,-2.7086,6.2903
1695.3125,-9.1182,-6.3988,-2.9300,9.5107,12.2665,-5.8735,-3.1503,3.2736,-8.9669,-7.1958,-8.3720,2.1850,9.2944,18.5396,-6.3066,1.8202,9.0750,-0.2648,10.3995
1699.2188,-7.0159,-4.1223,2.1333,7.9186,11.9030,-5.0576,3.6868,1.5843,-6.0489,-7.1101,-3.9959,2.8530,9.3349,15.4136,-2.6370,2.0674,8.6348,0.0163,12.5140
1703.1250,-6.9250,-3.4521,3.9566,4.7082,9.3977,-6.3562,2.7752,-1.3589,-5.3355,-8.5007,-1.9033,1.3921,6.9561,11.6157,-1.4585,1.4226,6.0488,-1.4646,11.3086
1707.0312,-9.0735,-4.6497,1.7395,0.9025,5.3977,-9.1348,-5.1012,-4.4871,-6.9083,-10.6758,-2.7512,-1.2502,2.9226,8.0359,-3.2635,-0.1347,1.7622,-3.5597,7.1501
1710.9375,-12.2979,-7.1148,-2.8622,-2.0649,1.6518,-12.0838,-14.5707,-6.4194,-9.3809,-12.2714,-5.5876,-3.7864,-0.9649,5.4470,-6.7185,-2.1442,-2.5011,-4.8358,2.0289
1714.8438,-14.4902,-9.4668,-6.6604,-3.0941,-0.1071,-13.7333,-19.4695,-6.3473,-10.5664,-12.0693,-8.2115,-5.1153,-2.8130,4.2259,-9.4154,-3.8649,-4.7150,-4.2067,-1.5306
1718.7500,-13.8892,-10.1920,-6.9799,-2.0602,0.6547,-13.1187,-16.8971,-4.6064,-8.8598,-9.8792,-8.4334,-4.6765,-1.7695,4.2336,-9.3942,-4.5924,-3.8891,-1.4759,-1.8998
1722.6562,-10.3855,-8.5574,-3.4736,0.1041,2.8961,-10.2957,-8.7496,-2.4946,-4.4364,-6.7935,-5.4882,-2.5691,1.4129,4.9448,-6.4347,-3.9236,-0.8044,2.4807,0.7795
1726.5625,-5.8346,-5.1998,1.5626,1.9847,4.7256,-6.3949,0.0365,-1.4258,0.6243,-4.5408,-0.6366,0.5253,4.8143,5.7731,-2.2137,-1.8906,2.4510,6.0329,4.7973
1730.4688,-2.9973,-1.9149,4.6471,2.5570,4.7099,-3.1192,4.9631,-1.9934,3.4911,-4.3442,3.5286,3.5646,6.5375,6.4009,0.8151,1.0372,3.8884,7.5192,7.9662
1734.3750,-3.7510,-0.6838,3.3822,1.7635,2.8283,-1.9086,4.6431,-3.5976,2.3152,-6.1078,4.6762,5.4777,5.8669,6.8980,1.0648,4.0598,2.9824,6.0437,8.8659
1738.2812,-7.8293,-2.5222,-2.0037,0.4103,0.4063,-3.2389,1.0458,-4.8912,-2.6085,-8.5403,2.1794,5.5417,3.6076,7.5423,-1.1653,6.2585,0.9892,1.9223,7.4668
1742.1875,-13.0252,-6.9012,-8.8721,-0.5135,-0.8847,-6.4617,-2.4257,-4.7191,-9.0433,-10.1222,-2.5601,3.6699,1.3923,8.4691,-3.9995,6.8953,-0.0373,-3.4796,4.8373
1746.0938,-16.7245,-12.1121,-13.9427,-0.5686,-0.1980,-10.2586,-3.3753,-2.8821,-14.2265,-10.1798,-7.1051,0.4595,0.4833,9.4253,-5.3827,5.7187,1.1808,-8.4396,2.2672
1750.0000,-17.6345,-16.3002,-15.3413,-0.0938,1.9982,-13.3865,-1.6969,-0.1974,-16.5103,-9.2564,-9.5671,-3.0615,0.9536,9.8595,-4.5343,3.1337,4.1598,-11.6961,0.4805
1753.9062,-16.4356,-18.4468,-13.5251,0.2232,4.4226,-15.2204,0.8661,2.1531,-16.1190,-8.5380,-9.6764,-5.8749,1.8356,9.3407,-2.4167,0.1140,7.0093,-12.9204,-0.5454
1757.8125,-14.9403,-18.6766,-10.5565,0.0644,6.0322,-15.7908,2.2141,3.4851,-14.5979,-8.8426,-8.6531,-7.3624,2.0764,8.0194,-0.9193,-2.1521,7.8707,-12.6055,-1.1468
1761.7188,-14.5084,-17.8022,-8.4025,-0.1217,6.7949,-15.4115,1.2660,4.0458,-13.4862,-10.0063,-8.0885,-7.4399,1.5206,6.7512,-1.4131,-2.7395,6.3454,-11.5306,-1.3771
1765.6250,-15.0187,-16.5740,-7.5772,0.5897,7.6046,-14.2832,-1.5626,4.7149,-13.2544,-11.1388,-8.7322,-6.4092,1.1197,6.6933,-3.7601,-1.3679,3.8170,-10.2255,-0.7811
1769.5312,-15.1893,-15.2407,-7.0812,2.8057,9.4375,-12.4196,-4.7923,6.2120,-13.2452,-11.4808,-10.0649,-4.6901,2.1760,8.5596,-6.4735,1.4841,2.4068,-8.8055,1.2623
1773.4375,-13.8993,-13.6828,-5.5465,6.1364,12.4290,-9.9162,-6.7340,8.4103,-12.5216,-11.0959,-10.8735,-2.6434,5.1989,12.0251,-7.8368,4.7641,3.3499,-7.2180,4.9049
1777.3438,-11.3395,-11.8679,-2.5933,9.2083,15.5969,-7.2489,-6.2685,10.2761,-10.8337,-10.7900,-10.2880,-0.5747,9.2831,15.7396,-7.1043,7.2354,6.0315,-5.6077,9.4283
1781.2500,-8.9850,-10.1305,0.6937,10.4513,17.4300,-5.2418,-3.3055,10.5018,-8.8917,-11.3323,-8.4556,1.1772,12.5440,18.0349,-4.9196,7.9151,8.4172,-4.4185,13.4404
1785.1562,-8.3966,-8.9865,2.5181,9.1471,16.9109,-4.6259,1.1380,8.4037,-7.7628,-12.6657,-6.3919,2.2407,13.3411,17.9221,-2.7444,6.4294,8.5546,-4.0993,15.5922
1789.0625,-9.8597,-8.6513,1.7419,5.9932,14.2280,-5.4897,5.2756,4.4707,-7.9382,-13.8186,-5.2100,2.3790,11.4080,15.7279,-1.8265,3.1912,6.0118,-4.6414,15.3461
1792.9688,-12.0233,-8.7228,-1.1921,2.7532,10.6802,-7.0699,7.3006,0.1874,-8.8650,-13.6304,-5.3594,1.7125,8.0561,12.9166,-2.4834,-0.6688,2.1850,-5.3636,13.2769
1796.8750,-12.8783,-8.3642,-4.4713,1.2044,7.8715,-8.1138,6.3198,-2.7602,-9.3180,-11.6954,-6.4019,0.7860,5.2989,11.1792,-4.1122,-3.6502,-0.7171,-5.2014,10.7083
1800.7812,-11.2941,-6.8917,-6.0763,2.0818,6.7787,-7.6116,2.9636,-3.3943,-8.2903,-8.7196,-7.3807,0.3496,4.5347,11.3757,-5.7248,-4.4537,-1.2167,-3.3634,8.9317
1804.6875,-7.8695,-4.3053,-5.0367,4.7106,7.3095,-5.4066,-0.8436,-1.9193,-5.6842,-5.9740,-7.4137,0.9432,5.7213,13.0259,-6.4831,-2.5788,0.5108,0.0953,8.5170
1808.5938,-4.4187,-1.3350,-1.9202,7.5202,8.5659,-2.2666,-3.0093,0.4888,-2.2958,-4.2976,-6.0939,2.5455,7.5829,14.6720,-5.8924,1.3482,2.9537,4.2084,9.1209
1812.5000,-2.5366,1.0398,1.6861,9.0332,9.5221,0.6106,-2.6588,2.3944,0.8080,-3.5070,-3.5527,4.5303,8.6093,14.8451,-3.7480,5.7504,4.4705,7.6138,9.8453
1816.4062,-2.4321,2.2093,4.2193,8.6483,9.5955,2.2866,-0.7824,2.8580,2.9534,-2.7277,-0.3344,5.9694,8.0625,12.9696,-0.1644,8.7760,4.4064,9.3006,9.8428
1820.3125,-2.9614,2.2100,4.9400,6.7581,8.7674,2.5002,0.4677,1.8107,4.0407,-1.3674,2.7248,6.0950,6.2821,9.6198,4.1882,9.1619,3.3058,9.0808,8.7675
1824.2188,-2.7735,1.4838,4.0264,4.2567,7.3029,1.5982,-0.5355,-0.0949,4.2061,0.1362,4.6130,4.6456,4.1796,6.0216,7.9208,6.8181,2.1870,7.5013,6.8411
1828.1250,-1.5583,0.3852,2.0928,1.8975,5.4081,0.1432,-3.4454,-1.9762,3.3977,0.5104,4.4063,1.9369,2.4372,3.2156,9.2756,2.8047,1.5839,5.3336,4.6000
1832.0312,-0.3319,-1.1020,-0.3487,-0.0292,3.1306,-1.4367,-5.9350,-3.2139,1.3389,-1.2899,1.7405,-1.3085,1.0845,1.4826,7.0767,-1.2657,1.1691,3.0730,2.5713
1835.9375,-0.5349,-3.1920,-3.0452,-1.5594,0.5374,-2.9178,-5.3277,-3.6719,-2.0576,-5.0021,-2.7428,-4.2185,-0.2619,0.3802,1.7503,-4.0146,0.2167,0.8203,1.0938
1839.8438,-2.7343,-5.8486,-5.7622,-2.7062,-2.0627,-4.1271,-0.7602,-3.5898,-6.2348,-8.9116,-7.3928,-5.9937,-1.7986,-0.7407,-4.4335,-4.8094,-1.5715,-1.4330,0.3203
1843.7500,-6.0422,-8.5109,-8.0028,-3.2701,-4.1187,-4.8233,5.7880,-3.2991,-10.0047,-10.8857,-10.2248,-6.0860,-3.1680,-2.1933,-8.3671,-3.7722,-3.6369,-3.4383,0.2803
1847.6562,-8.7448,-10.3023,-9.0544,-2.9826,-5.1150,-4.7990,10.5418,-2.9860,-12.1524,-9.8720,-10.0149,-4.3745,-3.6799,-3.7968,-7.9321,-1.4352,-4.9236,-4.6252,0.8749
1851.5625,-9.6091,-10.6152,-8.4090,-1.8332,-4.9278,-4.1282,10.4515,-2.6412,-12.2200,-6.7180,-7.1319,-1.3121,-2.9448,-5.1523,-3.4695,1.5995,-4.7256,-4.4499,1.8022
1855.4688,-8.7783,-9.6035,-6.2297,-0.2586,-3.9736,-3.2882,5.3753,-2.1807,-10.8480,-3.6430,-3.4670,2.0909,-1.3583,-6.0561,2.2161,4.7434,-3.3012,-2.8912,2.5331
1859.3750,-7.5379,-8.1542,-3.4405,1.0135,-3.0118,-2.9508,-1.7556,-1.6060,-9.3640,-2.7166,-1.3823,4.5805,0.0207,-6.6728,5.4900,7.3135,-1.7306,-0.6640,2.4601
1863.2812,-7.1985,-7.3044,-1.2855,1.3833,-2.7229,-3.5256,-7.0112,-1.0616,-8.9037,-4.4642,-2.2997,5.2241,0.1643,-7.3302,4.1566,8.5210,-1.1239,1.0926,1.1998
1867.1875,-8.0634,-7.5228,-0.6097,0.7603,-3.3419,-4.7965,-8.2799,-0.7407,-9.7164,-7.6180,-5.8575,3.9425,-1.1761,-8.1361,-1.1611,7.7671,-1.8151,1.4891,-1.1255
1871.0938,-9.3298,-8.3990,-1.3511,-0.3701,-4.5688,-5.9788,-6.6945,-0.7113,-11.1545,-10.1512,-10.1990,1.6307,-3.2504,-8.7703,-7.4887,5.1202,-3.1744,0.4598,-3.8470
1875.0000,-9.9344,-8.9829,-2.6004,-1.2372,-5.7733,-6.2219,-5.5405,-0.7970,-12.2895,-10.7645,-13.1824,-0.3097,-4.8106,-8.6536,-11.4871,1.5633,-4.1494,-1.1867,-6.0347
1878.9062,-9.5449,-8.5169,-3.1985,-1.2258,-6.3263,-5.2211,-7.4412,-0.6173,-12.6159,-9.7037,-13.6724,-0.8139,-4.9700,-7.3829,-11.5734,-1.3431,-4.0645,-2.2974,-6.9693
1882.8125,-8.8086,-7.0141,-2.4724,-0.1819,-5.8553,-3.4812,-11.9908,0.2131,-12.2886,-8.3617,-12.0669,0.1550,-3.7923,-5.0931,-8.7382,-2.3196,-3.0405,-2.1312,-6.5198
1886.7188,-8.6646,-5.2574,-0.6294,1.5728,-4.3292,-2.0109,-15.7301,1.8394,-11.7819,-8.0824,-9.7972,1.5546,-2.1989,-2.4637,-5.5972,-1.2200,-1.7574,-0.8235,-5.1819
1890.6250,-9.3752,-4.2417,1.4233,3.4628,-2.0158,-1.6458,-14.6008,4.0242,-11.3546,-9.1542,-8.2693,1.9374,-1.2949,-0.3557,-4.4782,0.7677,-0.8453,0.7451,-3.7545
1894.5312,-10.1897,-4.4848,2.6763,4.9336,0.6031,-2.4854,-7.0977,6.2025,-10.8377,-10.7440,-8.0351,0.4256,-1.6306,0.6566,-5.9508,1.8158,-0.4635,1.5650,-2.8634
1898.4375,-9.9821,-5.6998,2.6166,5.6261,2.9228,-3.8451,4.2543,7.7134,-9.9168,-11.7160,-8.7022,-2.6760,-2.9192,0.5386,-8.7633,0.6405,-0.4025,1.1607,-2.6415
1902.3438,-8.3220,-7.0278,1.4456,5.4166,4.3465,-4.7514,14.2592,8.0827,-8.6003,-11.5894,-9.4837,-6.0586,-4.3545,-0.3081,-11.0379,-2.6385,-0.5391,-0.1394,-2.7586
1906.2500,-6.0075,-7.6173,-0.1767,4.3866,4.4791,-4.6097,18.3085,7.2119,-7.3779,-10.8491,-9.8520,-8.2600,-5.2278,-1.3737,-11.6933,-6.5873,-1.1507,-1.4712,-2.7470
1910.1562,-4.5258,-7.1242,-1.6324,2.7861,3.3232,-3.5649,15.2103,5.3887,-6.8594,-10.4222,-9.7953,-8.5870,-5.3633,-2.3257,-11.0280,-9.4424,-2.7269,-2.0154,-2.3705
1914.0625,-4.8328,-5.8170,-2.7155,0.9925,1.3498,-2.3205,7.6338,3.1424,-7.1835,-10.8276,-9.5869,-7.4667,-5.0886,-3.0663,-10.1634,-10.2691,-5.4019,-1.4823,-1.7647
1917.9688,-6.4707,-4.2898,-3.6235,-0.5704,-0.6570,-1.5850,0.0162,1.0394,-7.7457,-11.7317,-9.3827,-6.0023,-4.8376,-3.5915,-9.9521,-9.4411,-8.5195,-0.2039,-1.2578
1921.8750,-7.8145,-3.0475,-4.6169,-1.5615,-1.9406,-1.5709,-4.3825,-0.4836,-7.5560,-12.2498,-9.0346,-5.0923,-4.7444,-3.8353,-10.2842,-8.1179,-10.7916,1.1703,-1.0218
1925.7812,-7.3192,-2.2594,-5.6432,-1.8439,-2.1199,-1.9076,-5.1291,-1.2046,-6.0031,-11.6901,-8.2467,-4.7776,-4.5450,-3.6637,-10.2954,-7.1775,-11.0382,2.1169,-0.8394
1929.6875,-4.7949,-1.8027,-6.2489,-1.5193,-1.3436,-2.0002,-4.0015,-1.1313,-3.4153,-10.1039,-6.8805,-4.2928,-3.8306,-3.0173,-9.2019,-6.4912,-8.9953,2.5134,-0.1942
1933.5938,-1.6746,-1.4913,-5.8849,-0.8450,-0.1654,-1.5418,-2.9538,-0.4800,-0.9355,-8.2151,-5.1140,-2.7601,-2.4207,-2.0535,-7.0144,-5.1392,-5.5659,2.5970,1.3461
1937.5000,-0.0258,-1.2839,-4.3975,-0.0924,0.7602,-0.7878,-2.4928,0.3758,0.2328,-6.8494,-3.3375,0.0155,-0.5616,-1.1306,-4.5598,-2.3921,-2.2866,2.6930,3.7147
1941.4062,-1.0465,-1.3226,-2.3178,0.5574,0.9685,-0.3923,-1.7305,1.0016,-0.3568,-6.3662,-1.9159,3.2616,1.1904,-0.6154,-2.8508,1.3745,-0.3717,2.9395,6.2138
1945.3125,-4.1872,-1.7948,-0.6702,1.0194,0.3127,-0.9252,0.1824,1.0438,-2.1304,-6.5285,-1.0327,5.6852,2.2994,-0.6559,-2.3537,4.6508,-0.0126,3.2022,7.8108
1949.2188,-7.5293,-2.7266,-0.3517,1.2458,-1.0807,-2.4140,2.7303,0.3715,-3.9504,-6.8227,-0.6950,6.3326,2.5582,-1.1000,-2.7214,5.7807,-0.4084,3.2140,7.7152
1953.1250,-9.0827,-3.8475,-1.4766,1.1851,-2.9245,-4.2306,4.1386,-0.8653,-4.8901,-6.8703,-0.8010,5.2460,2.1827,-1.6290,-3.1226,4.2600,-0.4511,2.8190,5.8782
1957.0312,-8.0084,-4.6224,-3.1644,0.8102,-4.8583,-5.4131,2.8879,-2.3168,-4.7117,-6.5712,-1.1329,3.4569,1.6615,-2.0025,-2.8270,1.3238,0.4751,2.1408,3.0822
1960.9375,-4.9301,-4.4617,-3.9896,0.1872,-6.5007,-5.2273,-0.7267,-3.6255,-3.7420,-5.9404,-1.2947,2.3324,1.4752,-2.2219,-1.5813,-0.7118,2.1526,1.5625,0.5340
1964.8438,-1.2725,-3.0325,-2.8594,-0.4998,-7.5299,-3.6210,-4.4936,-4.6120,-2.3751,-4.9083,-0.7583,2.7343,1.8548,-2.4865,0.4178,0.0372,3.8212,1.5325,-0.7969
1968.7500,1.7198,-0.5169,0.2461,-1.0180,-7.8176,-1.2873,-5.9245,-5.3272,-0.7205,-3.3619,0.8578,4.5484,2.6961,-2.9805,2.7774,3.7173,4.7983,2.3206,-0.6854
1972.6562,3.5300,2.3546,4.1863,-1.2100,-7.5423,0.7109,-4.3575,-5.9295,1.2871,-1.4028,3.4003,6.8533,3.6544,-3.6636,5.0864,8.5804,4.9279,3.8678,0.3134
1976.5625,4.2439,4.5829,7.3192,-1.0712,-7.1508,1.5439,-1.6976,-6.4851,3.4928,0.4890,6.0256,8.5592,4.3597,-4.2341,6.9073,12.0999,4.5688,5.8152,1.3061
1980.4688,4.1186,5.4073,8.4900,-0.7138,-7.1161,1.0930,-0.9848,-6.8547,5.3267,1.6648,7.5541,9.0656,4.6387,-4.3033,7.7496,12.5744,4.2242,7.6902,1.6766
1984.3750,3.3694,4.7698,7.6950,-0.2512,-7.6154,0.0149,-3.7846,-6.7809,6.1243,1.8154,7.2336,8.5352,4.6209,-3.6610,7.2439,10.1157,4.1619,9.1407,1.4594
1988.2812,2.3284,3.4239,5.9832,0.2835,-8.3672,-0.6546,-8.5100,-6.1270,5.7570,1.3529,5.4043,7.6793,4.6528,-2.4468,5.4998,6.4012,4.3081,10.0834,1.2331
1992.1875,1.6437,2.5461,4.6903,0.9025,-8.7994,-0.1290,-11.2044,-5.0784,4.9840,1.2462,3.4956,7.2597,5.0438,-1.1036,3.3290,3.4654,4.4202,10.6844,1.6241
1996.0938,2.0885,3.0288,4.5552,1.5420,-8.4701,1.6474,-8.4192,-4.1154,5.0777,2.3102,3.1967,7.6370,5.7890,-0.1373,1.9871,2.4367,4.3213,11.1900,2.7800
2000.0000,3.9609,4.8839,5.3259,1.9904,-7.4367,3.9610,-0.0752,-3.7206,6.8669,4.4561,5.2764,8.5953,6.4660,0.1715,2.4319,3.0577,3.9913,11.7130,4.1870
2003.9062,6.5630,7.1644,6.0830,1.9775,-6.2543,5.7546,9.9599,-3.9977,9.9068,6.5368,8.8771,9.4704,6.4264,-0.0655,4.5505,4.1684,3.4939,12.1124,4.9640
2007.8125,8.3467,8.4921,5.9805,1.3969,-5.5487,6.2386,16.2036,-4.4884,12.5036,7.0202,11.8593,9.4566,5.2074,-0.3986,6.9750,4.6390,2.8806,12.0427,4.4348
2011.7188,7.8201,7.8694,4.8321,0.4816,-5.4645,5.2933,15.2149,-4.3731,12.7105,5.0602,12.0517,7.9383,2.9021,-0.2867,7.7682,4.0173,2.1957,11.1477,2.5903
2015.6250,4.6255,5.2498,3.1335,-0.2514,-5.4443,3.4195,7.9167,-2.9871,9.6453,1.1696,8.6019,4.7438,0.2067,0.5904,5.6273,2.5160,1.5540,9.2785,0.1300
2019.5312,-0.0587,1.5083,1.5776,-0.3126,-4.5843,1.3212,-1.1267,-0.3356,4.1674,-3.0532,2.5178,0.2667,-1.9424,2.1186,0.8074,0.5424,1.1524,6.6093,-1.9402
2023.4375,-4.1935,-2.1226,0.4999,0.3947,-2.3660,-0.5391,-6.9321,2.7515,-1.6036,-5.9799,-3.9445,-4.5775,-2.9252,3.7580,-4.9091,-1.7044,1.1361,3.5890,-2.8775
2027.3438,-6.1868,-4.7238,-0.2890,1.4461,0.7887,-2.0788,-7.4245,4.9875,-5.5872,-7.0105,-8.5907,-8.5852,-2.7939,4.7942,-9.2293,-4.2124,1.4218,0.7774,-2.5639
2031.2500,-5.8631,-6.0182,-1.1819,2.1565,3.6313,-3.3661,-4.4456,5.3441,-6.9162,-6.8384,-10.3935,-10.6552,-2.1473,4.7237,-10.6849,-6.8022,1.6833,-1.3325,-1.4413
2035.1562,-4.3685,-6.2187,-2.2742,2.0831,4.8873,-4.2835,-1.8304,3.6907,-6.1777,-6.7415,-9.7214,-10.2106,-1.5941,3.5740,-9.3941,-8.8553,1.5971,-2.4243,-0.1037
2039.0625,-3.1400,-5.6486,-3.1447,1.4081,4.2104,-4.4505,-2.1614,0.9500,-4.6723,-7.4803,-7.7155,-7.4646,-1.2107,1.9587,-6.7810,-9.4707,1.1902,-2.3971,1.1341
2042.9688,-2.8151,-4.5240,-3.1345,0.8779,2.5573,-3.5424,-4.7557,-1.3620,-3.3917,-8.6936,-5.4361,-3.3775,-0.4499,0.7877,-4.5381,-8.0133,0.9671,-1.3827,2.3751
2046.8750,-2.9775,-3.0690,-1.9196,1.2862,1.6106,-1.7671,-6.3993,-1.9688,-2.5542,-9.2721,-3.4468,0.7016,1.3726,0.7533,-3.6210,-4.6573,1.6071,0.2316,3.8962
2050.7812,-2.8844,-1.7685,0.0911,2.8403,2.5757,-0.0434,-4.1733,-0.5556,-1.9688,-8.4001,-2.0139,3.5516,4.3497,1.8802,-3.9597,-0.5001,3.3788,1.8195,5.7264
2054.6875,-2.4496,-1.3824,1.8905,4.8820,5.1913,0.4082,1.8984,2.0447,-1.7337,-6.3996,-1.5203,4.5163,7.6024,3.4341,-4.9548,2.8813,5.7207,2.6625,7.4025
2058.5938,-2.5198,-2.5394,2.4947,6.2160,7.7217,-1.1129,8.4823,4.3162,-2.4817,-4.6581,-2.5269,3.6798,9.6363,4.2988,-6.2121,4.1673,7.4023,2.2566,8.1396
2062.5000,-4.1045,-5.1454,1.6303,5.8713,8.0315,-4.1292,11.1772,4.9077,-4.8285,-4.6396,-5.2953,1.7437,9.2802,3.6315,-7.8378,2.8924,7.2692,0.6633,7.3517
2066.4062,-7.1949,-8.1142,-0.0087,3.7850,5.0533,-7.0530,7.7024,3.3705,-8.4682,-6.7201,-9.1658,-0.2934,6.5656,1.3977,-10.0602,-0.4058,5.0857,-1.3371,5.1674
2070.3125,-10.2743,-9.7795,-1.1408,0.9170,-0.3807,-8.0695,-0.3293,0.3656,-11.8060,-9.7580,-12.4447,-1.5061,2.8644,-1.5807,-12.5735,-4.4887,1.8218,-2.4901,2.5331
2074.2188,-11.1343,-8.8511,-0.6863,-1.3293,-5.9683,-6.3085,-8.3437,-2.7684,-12.6694,-11.7718,-13.1304,-1.3477,0.0852,-4.1358,-14.2904,-7.9544,-0.9148,-1.6931,0.7415
2078.1250,-8.5200,-5.3035,1.5311,-2.0230,-9.3836,-2.4982,-11.7530,-4.8184,-9.7560,-11.2716,-10.1303,0.1733,-0.5837,-5.5186,-13.8781,-9.7498,-1.9690,1.3029,0.6162
2082.0312,-3.3357,-0.5454,4.6050,-1.3572,-9.7708,1.4006,-8.8369,-5.3972,-3.7651,-8.2980,-4.1416,2.4825,0.4813,-5.9172,-10.7777,-9.5010,-1.4731,5.5613,1.8738
2085.9375,1.6525,3.3221,6.9892,-0.5932,-8.2654,3.3777,-1.6353,-5.1334,2.7380,-4.4303,2.5064,4.6239,1.5381,-6.3579,-5.9174,-7.6003,-0.7779,9.2893,3.1295
2089.8438,3.5644,4.7058,7.2956,-1.3134,-7.1994,2.5860,5.5755,-5.2561,6.7835,-1.7647,7.0620,5.6228,0.6343,-8.0260,-1.4526,-5.0341,-1.4758,10.7258,2.6329
2093.7500,1.3915,3.3858,4.9967,-4.4535,-8.5541,-0.2355,8.9967,-6.8333,6.8247,-1.5779,7.8785,4.9145,-3.0512,-11.4375,0.4498,-2.9737,-4.1979,9.1015,-0.6714
2097.6562,-3.2556,0.4888,0.6708,-9.7165,-12.7211,-3.3784,7.3415,-10.1213,3.6438,-3.5711,5.2763,2.6332,-8.6094,-16.0170,-0.9843,-2.2475,-8.0724,5.0780,-6.4235
2101.5625,-7.2352,-2.3541,-4.3048,-15.7192,-18.3692,-5.3329,2.0285,-14.4047,-0.3118,-6.1489,1.1993,-0.4334,-13.9647,-20.3729,-4.5352,-2.9406,-11.2652,0.3687,-12.9597
2105.4688,-8.0231,-4.0292,-8.4237,-20.7466,-23.4088,-5.6575,-4.2411,-18.3989,-2.6602,-7.4699,-2.0608,-3.2479,-17.2029,-23.0918,-7.6835,-4.3826,-12.2264,-3.2454,-18.2222
2109.3750,-5.3521,-4.4374,-10.7284,-23.6290,-26.2983,-4.9819,-9.2816,-20.9523,-2.6138,-6.5391,-3.1907,-5.0790,-17.7333,-23.5212,-8.1873,-5.5920,-10.7350,-4.8894,-20.8983
2113.2812,-1.1767,-4.2122,-11.1630,-24.2151,-26.7754,-4.2582,-12.3632,-21.6133,-1.2277,-3.6714,-2.3855,-5.8602,-16.4871,-22.0260,-5.4917,-5.9286,-7.9784,-4.9456,-21.0484
2117.1875,1.9227,-4.0027,-10.4408,-23.2117,-25.6050,-3.9278,-13.9066,-20.7349,-0.2902,-0.1377,-0.8360,-6.0999,-15.0562,-19.5786,-1.0120,-5.4977,-5.6265,-4.5876,-19.8168
2121.0938,2.6201,-3.9408,-9.5224,-21.5727,-23.6885,-3.6696,-14.4959,-19.0970,-0.7921,2.6628,0.3413,-6.3916,-14.4390,-17.0106,2.8844,-4.9813,-4.6040,-4.8509,-18.4552
2125.0000,1.5915,-3.6879,-9.0119,-19.8728,-21.3054,-2.8712,-14.1289,-17.3295,-2.1744,3.9418,0.9162,-6.8729,-14.3184,-14.4790,4.4638,-4.9915,-4.4836,-5.8972,-17.3730
2128.9062,0.6632,-2.9322,-8.8302,-18.0605,-18.0670,-1.3581,-12.2518,-15.5328,-2.8856,3.7682,1.5492,-7.0528,-13.3881,-11.5263,3.6634,-5.4496,-3.9354,-6.9694,-15.9103
2132.8125,1.1552,-1.8438,-8.3687,-15.6940,-13.5401,0.2775,-8.4299,-13.3342,-1.7391,2.7928,3.0630,-6.1781,-10.4594,-7.6614,1.8905,-5.5385,-1.8671,-7.0329,-13.0025
2136.7188,2.7933,-1.0646,-7.0243,-12.4403,-7.9632,1.0498,-3.0437,-10.3153,1.0342,1.7256,5.5814,-3.9050,-5.5160,-3.0026,0.8009,-4.3532,1.6256,-5.6165,-8.2351
2140.6250,4.0283,-1.2362,-4.7509,-8.4713,-2.4275,0.3514,2.5455,-6.4912,3.8491,0.9142,8.1936,-0.7763,0.0683,1.5285,1.0067,-1.7887,5.2175,-3.2415,-2.4754
2144.5312,3.4249,-2.4787,-2.2307,-4.4902,1.6476,-1.5218,6.4865,-2.4980,4.8573,0.2340,9.3967,1.8987,4.3158,4.6414,1.6744,1.0700,7.2484,-1.1436,2.4442
2148.4375,0.9329,-4.2746,-0.5094,-1.3868,3.3515,-3.5411,7.2778,0.6533,3.2000,-0.7092,8.0140,2.7578,5.8754,5.4591,1.2825,2.4818,6.8789,-0.4995,4.8182
2152.3438,-2.0118,-5.8661,-0.3254,0.2396,2.8025,-4.6899,4.4818,2.1021,-0.5043,-2.2242,3.9715,1.2472,4.8393,4.1033,-1.0719,1.2282,4.6610,-1.7015,4.1748
2156.2500,-3.6221,-6.8305,-1.5998,0.3886,0.9883,-4.6901,-1.0309,1.6115,-4.7086,-4.2355,-1.5666,-1.9518,2.6019,1.6678,-4.8280,-2.4010,2.1344,-4.1541,1.5988
2160.1562,-3.1863,-7.3448,-3.4618,-0.3768,-0.9086,-4.1316,-7.3848,-0.3007,-7.9915,-6.2029,-6.7662,-5.2391,0.9065,-0.4116,-8.2270,-6.5891,0.7808,-6.6740,-0.9693
2164.0625,-1.6176,-7.9068,-4.8016,-1.2548,-2.1767,-3.9090,-12.4014,-2.6355,-9.7781,-7.3190,-10.0177,-6.9646,0.7729,-1.1709,-9.4921,-9.0428,1.1069,-8.1658,-1.9600
2167.9688,-0.6808,-8.7448,-4.9554,-1.6069,-2.7810,-4.4286,-14.4227,-4.4111,-10.2673,-6.9077,-10.6201,-6.2945,2.0224,-0.5875,-8.0490,-8.4106,2.4780,-8.1163,-1.0626
2171.8750,-1.5237,-9.4267,-4.0315,-1.2094,-3.0662,-5.2286,-12.9491,-5.0934,-9.8106,-4.8292,-8.9075,-3.5449,3.6389,0.5656,-4.8947,-5.0822,3.7282,-6.6568,0.8103
2175.7812,-3.6893,-9.0362,-2.6711,-0.2604,-3.3089,-5.3156,-8.8301,-4.7466,-8.4046,-1.6539,-5.8482,0.1592,4.6005,1.3232,-1.8726,-0.8300,4.0193,-4.2865,2.3636
2179.6875,-5.3965,-6.8332,-1.4780,0.7996,-3.5225,-3.9487,-3.8939,-3.8787,-5.7688,1.5399,-2.4474,3.5956,4.5348,1.1418,-0.4150,2.3939,3.3061,-1.5545,2.8654
2183.5938,-4.8719,-2.9128,-0.5980,1.5060,-3.6300,-1.2525,-0.1425,-3.1204,-1.8945,3.6886,0.6659,6.0264,3.7657,0.1233,-0.6693,3.6016,2.1400,1.0717,2.4849
2187.5000,-1.7025,1.6561,0.2214,1.5120,-3.7592,1.8118,1.1272,-2.9318,2.5079,4.3145,3.2828,7.3261,2.8291,-1.2387,-1.5909,3.0755,1.0788,3.1623,1.8469
2191.4062,2.8146,5.3537,1.1809,0.6331,-4.3072,4.0780,-0.1624,-3.4623,6.1572,3.8006,5.3825,7.7043,1.9277,-2.5296,-1.8424,1.7623,0.2318,4.2913,1.2708
2195.3125,6.5609,7.0532,2.0190,-1.1576,-5.6592,4.9157,-2.9812,-4.5826,7.9089,3.1688,6.8765,7.3436,0.7830,-3.7270,-0.7757,0.3835,-0.7089,4.1536,0.3905
2199.2188,8.0228,6.6100,2.0385,-3.7320,-7.7976,4.5378,-5.8416,-6.0229,7.4771,3.4578,7.5426,6.2551,-1.0288,-5.1452,1.2117,-0.9785,-2.0474,2.7722,-1.5155
2203.1250,7.2002,4.8182,0.5911,-6.8111,-10.1805,3.7045,-7.5861,-7.5257,5.5818,5.0678,7.1804,4.4113,-3.5826,-7.1028,3.1123,-2.5617,-3.6872,0.5880,-4.7835
2207.0312,5.3949,2.8162,-2.3617,-10.0041,-12.0623,3.1228,-7.8554,-8.9428,3.4012,7.4849,5.8455,1.9704,-6.3929,-9.6013,4.1015,-4.2926,-5.1230,-1.7195,-8.8789
2210.9375,4.1470,1.3969,-6.0757,-12.9031,-13.0295,3.0285,-7.0167,-10.2393,1.7861,9.5759,3.9724,-0.6381,-8.6709,-12.2579,4.0563,-5.5147,-5.8188,-3.5959,-12.6159
2214.8438,4.1804,0.6930,-9.3898,-15.1895,-13.3039,3.2272,-5.6946,-11.4145,0.8735,10.2836,2.2873,-2.8402,-9.8334,-14.5101,3.4789,-5.3827,-5.6279,-4.8811,-14.9221
2218.7500,5.1112,0.3856,-11.3456,-16.6796,-13.5212,3.4610,-4.2825,-12.3886,0.3724,9.2866,1.5527,-4.1363,-9.8374,-15.9035,3.0147,-3.5814,-4.8741,-5.7478,-15.5129
2222.6562,6.0097,0.1849,-11.5906,-17.2729,-14.1313,3.7198,-2.7679,-12.9385,0.1880,7.2027,2.2736,-4.2445,-9.0703,-16.2457,3.0279,-0.6980,-4.0176,-6.3424,-14.9075
2226.5625,6.2498,0.1632,-10.3134,-16.8571,-14.9161,4.2191,-0.9392,-12.7532,0.7461,5.2081,4.4849,-3.1112,-7.9098,-15.5598,3.5332,2.1323,-3.2071,-6.4409,-13.7891
2230.4688,5.9422,0.6910,-7.8771,-15.2787,-15.0673,5.1063,1.2333,-11.6094,2.6489,4.3183,7.6878,-0.8755,-6.3548,-13.9575,4.4001,4.0323,-2.1340,-5.4640,-12.2952
2234.3750,5.6779,2.0703,-4.5553,-12.4478,-13.8223,6.2121,3.3554,-9.5706,5.9275,4.7976,10.9535,2.1121,-4.0693,-11.5959,5.5087,4.9416,-0.3579,-2.9145,-9.9005
2238.2812,5.9077,4.2013,-0.6082,-8.5218,-11.1690,7.1245,4.7001,-7.0629,9.5950,6.0735,13.1983,5.2450,-0.8164,-8.7594,6.6690,5.4357,2.1541,1.0839,-6.0393
2242.1875,6.5530,6.5737,3.4581,-4.0071,-8.0146,7.5505,4.5944,-4.7250,12.0406,7.1976,13.5990,7.7422,3.0994,-5.9347,7.4552,5.9869,4.7556,5.6176,-0.9265
2246.0938,7.1770,8.5948,6.8523,0.3630,-5.6028,7.6454,2.8751,-3.0822,12.1208,7.5312,12.0296,8.9648,6.8137,-3.7031,7.2794,6.3889,6.4287,9.4215,4.2098
2250.0000,7.5206,9.9891,8.9011,3.9612,-4.5689,7.9839,0.1412,-2.2354,10.1466,7.1866,9.2918,8.8518,9.4089,-2.4228,5.8304,5.9497,6.5140,11.6823,7.8272
2253.9062,7.8686,10.9469,9.6478,6.6094,-4.3658,9.1353,-2.3672,-1.7877,7.9187,6.9192,6.9102,8.1503,10.5944,-1.9018,3.5763,4.3495,5.3215,12.6247,9.2347
2257.8125,8.8666,11.9033,10.0775,8.6718,-3.5627,11.1576,-3.2543,-1.0902,7.6216,7.5435,6.4482,8.1437,11.0090,-1.3610,1.8051,2.3714,4.1014,13.3918,9.2743
2261.7188,10.9007,13.1236,11.5836,10.7817,-0.8699,13.4261,-1.6183,0.3293,10.2825,9.2783,8.6237,9.9090,11.8397,0.1691,1.9441,1.6930,4.2986,15.2332,9.8557
2265.6250,13.5676,14.4282,14.9061,13.3491,3.8387,14.9721,2.4471,2.4397,14.9210,11.4896,12.7475,13.5382,13.9695,3.2002,4.5069,3.6835,6.5706,18.5509,12.5683
2269.5312,15.7329,15.2788,19.3204,16.1881,9.2792,15.1057,7.7871,4.7141,19.0818,13.0390,16.9306,17.8973,17.2627,7.3197,8.4657,8.0829,10.2687,22.5033,17.3869
2273.4375,16.2149,15.1694,22.8125,18.5508,13.5094,13.8647,12.6565,6.4740,20.4416,13.0201,19.0721,21.1994,20.5424,11.2853,11.6717,12.7242,13.7890,25.4924,22.5067
2277.3438,14.6105,14.0249,23.2922,19.5833,15.1633,11.9547,15.5272,7.3334,18.3663,11.3832,18.0900,22.0930,22.3175,13.7027,12.1947,14.7595,15.5812,26.2155,25.5179
2281.2500,11.6272,12.3025,20.0497,18.9023,14.2835,10.2349,15.7985,7.4271,14.2975,8.9989,14.5988,20.5416,21.7601,13.8778,9.6765,12.6488,15.1180,24.5425,25.0851
2285.1562,8.6417,10.7153,14.3719,16.8849,12.1664,9.1477,13.9819,7.2663,10.6987,7.0931,10.5295,17.8541,19.2316,12.2636,5.6609,7.4381,13.1487,21.5975,21.8605
2289.0625,6.7996,9.7810,8.7874,14.4488,10.3624,8.5180,11.2334,7.3379,9.3498,6.4350,7.8903,15.8000,15.9842,10.1628,2.5616,2.2562,11.0782,19.0020,17.9215
2292.9688,6.3218,9.5263,5.4338,12.4632,9.5911,7.8433,8.5442,7.7457,10.2415,6.8531,7.5001,15.4115,13.2757,8.8572,1.9744,0.2590,9.9461,17.8319,15.1637
2296.8750,6.5246,9.5507,4.7347,11.2035,9.3630,6.8057,6.1637,8.1516,11.8406,7.4321,8.5897,16.3233,11.5625,8.7516,3.5970,2.4700,9.7580,18.0157,13.9072
2300.7812,6.5014,9.3740,5.3588,10.2341,8.5395,5.5765,3.6752,8.0377,12.4389,7.2520,9.5574,17.1236,10.3563,9.1322,5.5965,7.1093,9.6372,18.5446,12.8136
2304.6875,5.8994,8.7828,5.4460,8.8018,6.3495,4.6670,0.6545,7.0757,11.4944,6.1213,9.3064,16.4493,8.8053,8.7179,6.1473,10.9199,8.6392,18.2649,10.1784
2308.5938,5.1654,7.9082,4.1054,6.4525,3.0681,4.4592,-2.6429,5.3311,9.9277,4.7447,8.1235,14.0116,6.5099,6.6216,4.9200,11.4981,6.5768,16.6472,5.5599
2312.5000,5.0751,6.9999,2.0024,3.4317,-0.1441,4.8145,-5.1903,3.1804,9.2011,4.1827,7.3977,10.8010,3.9230,3.0447,3.3179,8.8861,4.2202,14.0228,0.4204
2316.4062,5.9489,6.1197,0.6165,0.5924,-2.0725,5.1002,-5.8590,1.0547,9.9771,5.0046,8.3783,8.3490,2.0366,-0.7844,3.2506,5.2862,2.7297,11.2293,-2.7806
2320.3125,7.2273,5.0468,0.8475,-1.1134,-2.2862,4.6371,-4.3705,-0.7626,11.4761,6.7889,10.9658,7.6268,1.6284,-3.3777,5.4353,3.2219,2.7779,9.0297,-2.3757
2324.2188,7.7962,3.5078,2.1723,-1.2015,-1.3474,3.2366,-1.7291,-2.1387,12.0691,8.3778,13.5504,8.4126,2.6809,-3.9159,8.6312,3.6485,4.0495,7.7511,1.2127
2328.1250,6.8480,1.5543,3.0760,0.0923,-0.2800,1.4120,0.3287,-2.9490,10.6355,8.7150,14.1180,9.5713,4.4270,-2.6915,10.4920,5.4745,5.5074,7.3187,5.6811
2332.0312,4.6040,-0.2462,2.3969,2.0074,0.2452,0.0872,0.5574,-2.9820,7.5884,7.6324,11.8211,9.9818,5.9676,-0.7891,9.4068,6.7628,6.2128,7.5172,8.4229
2335.9375,2.2976,-1.0283,0.4382,3.7258,0.3596,0.0029,-0.8239,-2.0342,4.7268,5.9737,7.7858,9.3785,6.9503,0.7236,5.8666,6.5209,6.0598,8.1832,8.3014
2339.8438,1.3731,-0.1583,-1.1202,4.7900,0.7562,1.2357,-2.2430,-0.1495,3.9947,4.9535,4.4684,8.4844,7.7646,1.4880,2.2313,5.5630,5.8477,9.1949,6.3152
2343.7500,2.4706,2.2951,-0.4870,5.2312,1.9910,3.1600,-2.0011,2.2059,6.0937,5.2494,3.9898,8.3928,9.1110,1.9458,1.0339,5.7473,6.6311,10.3727,4.7198
2347.6562,4.9595,5.5146,2.8132,5.4002,3.9014,4.8590,0.2742,4.2331,10.0048,6.5415,6.6871,9.7262,11.3043,2.8125,3.1251,8.2685,8.8393,11.4916,5.3256
2351.5625,7.3807,8.3847,7.5097,5.6743,5.6086,5.6820,3.1243,5.1630,13.7610,7.8532,10.9711,12.2172,13.8815,4.3758,7.0970,12.4625,11.8411,12.4451,8.2528
2355.4688,8.4755,10.1382,11.5016,6.2476,6.0998,5.5701,4.2283,4.6823,15.8411,8.3946,14.5667,14.9725,15.8360,6.1721,10.3969,16.1390,14.2956,13.3853,11.9936
2359.3750,8.0314,10.7385,13.3684,7.0951,4.9535,4.9713,2.2262,3.1399,16.1081,8.1939,16.1393,17.1270,16.3015,7.2867,11.2099,17.1841,15.0435,14.6210,14.6024
2363.2812,6.9214,10.7350,13.2562,8.0666,2.6776,4.4602,-1.9759,1.3856,15.6203,7.9767,16.0397,18.3383,15.1631,7.0453,9.6173,15.1288,13.8929,16.2731,15.0290
2367.1875,6.3382,10.7306,12.4699,9.0010,0.4293,4.3631,-5.5129,0.3295,15.5630,8.3913,15.6487,18.7772,13.1375,5.5672,7.1876,11.4272,11.7395,17.9667,13.6232
2371.0938,6.8402,10.8990,12.1900,9.7858,-0.6712,4.6320,-5.4165,0.4867,16.2288,9.2598,15.9604,18.7311,11.2770,3.7621,5.4713,8.2643,9.9447,18.8994,11.5819
2375.0000,7.9601,10.9371,12.4479,10.3529,-0.1699,4.9970,-0.7547,1.7558,16.8784,9.5594,16.6471,18.2441,10.2768,2.7609,4.7407,6.9074,9.4272,18.3506,9.9305
2378.9062,8.6635,10.4709,12.2274,10.6466,1.5321,5.2256,6.5034,3.5183,16.5409,8.2518,16.4082,17.1228,10.0801,3.1827,4.0354,6.9397,10.0981,16.2928,8.8875
2382.8125,8.2685,9.5491,10.5636,10.5954,3.4905,5.2795,12.5973,4.9636,15.0199,5.3331,14.2813,15.2550,10.0199,4.7468,2.3945,6.9279,10.9992,13.5858,8.0210
2386.7188,7.0704,8.7685,7.6316,10.1069,4.7854,5.2837,14.3390,5.4554,13.2050,2.2076,10.7393,12.8830,9.3346,6.4871,0.1003,5.8509,10.9942,11.4944,6.8984
2390.6250,6.1575,8.8730,4.8219,9.0969,4.9923,5.3844,11.1031,4.7872,12.3890,0.9424,7.5470,10.5198,7.6611,7.3973,-1.2662,4.0128,9.5061,10.8012,5.5751
2394.5312,6.5497,10.1176,3.6780,7.5602,4.3264,5.6385,5.0814,3.2545,13.1413,2.8372,6.3991,8.5445,5.1946,7.0612,-0.1178,2.6540,6.8163,11.1665,4.5073
2398.4375,8.3417,11.9177,4.5725,5.6630,3.4468,6.0084,-0.3179,1.5346,14.6900,7.3427,7.4426,6.8439,2.4953,5.8595,3.5590,2.6461,3.7956,11.2752,4.0488
2402.3438,10.5338,13.1123,6.2662,3.7900,3.0757,6.4194,-2.7522,0.4042,15.3706,12.1856,8.9635,4.8699,0.1648,4.6642,7.7428,3.4800,1.3333,9.7361,4.0638
2406.2500,11.6969,12.6980,6.7807,2.4655,3.6378,6.7791,-2.3292,0.3736,13.8340,14.7044,8.6122,2.1317,-1.3653,4.2726,9.5876,3.5255,-0.1133,6.1050,4.0458
2410.1562,10.9695,10.5007,4.9205,2.1282,5.0800,6.9249,-1.2336,1.3902,10.0740,13.5026,5.2671,-1.2584,-1.8651,4.9726,7.4754,1.4418,-0.5863,1.2693,3.6392
2414.0625,8.6279,7.2795,1.2241,2.8618,6.9368,6.5705,-1.9988,2.7957,5.4618,9.2733,0.0476,-4.4635,-1.2610,6.4851,2.3272,-2.4300,-0.3670,-3.1098,3.0667
2417.9688,5.8182,4.1819,-2.4258,4.2667,8.5984,5.3704,-5.6934,3.6359,1.7544,4.2471,-4.3907,-6.3896,0.3561,8.2492,-2.8987,-5.9431,0.3388,-5.6868,3.0351
2421.8750,3.6876,1.9640,-4.2164,5.6167,9.6421,3.1326,-11.2100,3.2141,-0.1480,0.7052,-5.7934,-6.4274,2.6684,9.7924,-5.2037,-6.5523,1.5128,-6.2409,4.1562
2425.7812,2.6018,0.5604,-3.7083,6.2590,10.0402,0.0624,-15.9753,1.5764,-0.7361,-0.3702,-3.9910,-4.9088,5.1308,10.9300,-3.5615,-3.2509,3.1898,-5.6269,6.3592
2429.6875,2.0320,-0.6971,-2.0146,6.0182,10.1154,-3.1683,-17.4596,-0.4170,-1.3390,0.3856,-1.0160,-2.9155,7.1368,11.7129,0.5278,2.4763,5.2412,-4.9708,8.8077
2433.5938,1.1354,-2.4255,-0.7784,5.3159,10.2661,-5.6521,-14.4907,-1.5463,-2.9681,1.5072,0.4418,-1.5701,8.3014,12.2428,4.2775,7.4978,7.2963,-4.7950,10.4259
2437.5000,-0.4871,-4.6383,-0.8360,4.8907,10.6565,-6.6916,-7.7099,-0.9648,-5.4957,1.8691,-0.9637,-1.3293,8.6708,12.5500,5.6202,9.1257,8.8903,-4.7706,10.6362
2441.4062,-2.4826,-6.7182,-1.6531,5.2900,11.1133,-6.1920,0.8505,1.2714,-7.7959,1.3410,-4.3135,-1.7852,8.6802,12.6270,4.4564,6.9312,9.7379,-4.2371,9.7365
2445.3125,-4.1052,-7.8970,-1.9257,6.4920,11.3259,-4.7242,8.6397,4.2537,-8.6834,0.5465,-7.2443,-2.0751,8.8574,12.5490,2.3193,2.9582,9.9259,-2.9807,8.6356
2449.2188,-4.8990,-7.8244,-0.7631,7.9327,11.1945,-3.1882,13.4583,6.8259,-7.8589,0.0929,-7.8043,-1.5457,9.4718,12.5202,0.9176,0.2158,9.8723,-1.5565,8.1706
2453.1250,-5.1034,-6.7752,1.5612,8.9154,11.0089,-2.2862,14.0980,8.3070,-6.1100,-0.0008,-5.8687,-0.1632,10.3773,12.7520,0.8217,0.5960,10.0646,-0.8552,8.5327
2457.0312,-5.4287,-5.3780,3.8756,9.0832,11.2396,-2.1547,10.7016,8.7987,-4.6537,-0.2188,-3.0661,1.5923,11.1580,13.2402,1.2942,3.7304,10.7467,-1.2827,9.2104
2460.9375,-6.3900,-4.1470,5.0870,8.5950,12.0461,-2.3987,4.7752,8.8626,-4.1990,-0.9694,-1.3804,3.1862,11.4567,13.6374,1.2324,7.5277,11.7592,-2.2794,9.4380
2464.8438,-7.7641,-3.2215,5.0007,7.8895,12.9073,-2.4784,-1.2626,8.8580,-4.4896,-2.0906,-1.6088,4.4416,11.2406,13.3820,0.2919,9.8539,12.6461,-2.6353,8.7778
2468.7500,-8.6425,-2.4786,4.3235,7.2633,12.7709,-2.1415,-4.9992,8.5143,-4.6394,-2.9021,-2.8698,5.5988,10.8257,12.0643,-0.7829,10.0311,12.9665,-1.3874,7.4209
2472.6562,-8.0684,-1.8256,3.9461,6.6430,10.7524,-1.5707,-5.1069,7.1328,-3.9047,-2.7521,-3.4346,7.0428,10.6708,9.8063,-0.8242,9.0872,12.6176,1.4204,6.0576
2476.5625,-5.7749,-1.3289,4.2050,5.7495,6.9296,-1.1475,-2.0210,4.2865,-2.2195,-1.5658,-2.1017,8.9714,11.1067,7.3637,0.7518,8.7169,11.9506,4.7437,5.4752
2480.4688,-2.4549,-1.0402,4.7646,4.4996,2.5912,-1.0423,2.2578,0.4383,-0.0900,0.0810,0.9986,11.2631,12.1759,5.8144,3.4750,9.8661,11.5773,7.3105,6.1660
2484.3750,0.6412,-0.7251,5.1325,3.2587,-0.3841,-0.9850,5.2368,-3.0945,1.9614,1.4120,4.6919,13.5788,13.6354,5.9703,6.2182,12.0368,11.9593,8.5324,8.1236
2488.2812,2.4721,0.1456,5.2242,2.6646,-0.6966,-0.4298,5.3048,-4.9080,3.8288,2.0155,7.7263,15.5310,15.0637,7.8736,8.0216,13.7432,13.0268,8.8113,10.8427
2492.1875,2.7746,2.0011,5.3875,3.1235,1.4693,0.9889,2.5889,-4.4819,5.7173,2.0417,9.5258,16.7521,15.9863,10.7205,8.5990,13.6540,14.0961,9.0117,13.4649
2496.0938,2.0592,4.6431,5.8617,4.3950,4.5119,3.0647,-1.2251,-2.6028,7.6206,1.8994,10.1755,16.8717,15.9987,13.3003,8.1698,11.5019,14.1947,9.5703,15.0506
2500.0000,1.1075,7.0766,6.2505,5.6658,6.4913,5.0168,-3.9752,-0.8590,8.9296,1.7704,9.8534,15.5514,14.9086,14.6952,6.9328,8.1410,12.6446,10.0200,14.9626
2503.9062,0.4022,7.9789,5.6348,6.1269,6.4842,5.9197,-4.3161,-0.5263,8.6378,1.4086,8.4023,12.6775,12.8788,14.7934,4.8012,4.8416,9.5530,9.3488,13.2495
2507.8125,-0.0919,6.5669,3.3670,5.6276,5.2200,5.2783,-2.4400,-1.6556,6.0799,0.4105,5.5182,8.6040,10.4704,14.2813,1.6995,2.4484,5.8696,6.9050,10.7823
2511.7188,-0.6966,3.2317,-0.1076,4.8651,4.4937,3.3463,0.1505,-3.0506,1.6253,-1.3018,1.3565,4.1915,8.4701,14.1173,-1.9114,1.0151,2.9186,3.0804,8.9225
2515.6250,-1.5967,-0.5898,-3.2072,4.8955,5.7670,0.9744,1.6062,-3.1664,-3.2886,-3.2463,-3.1077,0.4832,7.5097,14.8457,-4.9114,0.0619,1.6561,-0.8218,8.7710
2519.5312,-2.5880,-3.2759,-4.1608,6.2982,8.9983,-0.8850,0.8262,-1.2656,-6.8999,-4.6398,-6.4439,-1.8461,7.6733,16.2116,-6.0985,-0.8785,2.1149,-3.4601,10.4128
2523.4375,-3.1747,-4.0009,-2.2980,8.6304,12.5927,-1.6553,-1.9131,2.0233,-8.1335,-4.9478,-7.6535,-2.8830,8.3723,17.3251,-5.0763,-1.8944,3.4042,-4.3747,12.7094
2527.3438,-2.9012,-3.1057,1.3432,10.6262,14.5148,-1.2910,-5.0823,5.1403,-7.1399,-4.2585,-6.8491,-3.3779,8.6357,17.2409,-2.6765,-2.7267,4.2741,-4.2227,13.9034
2531.2500,-1.6461,-1.6047,4.6467,11.0257,13.7172,-0.0791,-6.6743,6.6687,-4.9935,-3.1612,-5.1139,-4.1761,7.6739,15.5359,-0.4530,-3.0666,3.8727,-4.1546,12.7264
2535.1562,0.3149,-0.2667,5.8600,9.4305,10.8047,1.6718,-5.2477,6.2361,-2.8411,-2.2425,-3.6249,-5.5799,5.3525,12.4985,0.4317,-2.8277,2.1915,-4.8613,9.2630
2539.0625,2.4701,0.9497,4.7555,6.5527,7.4618,3.7747,-0.7559,4.6079,-1.1930,-1.6435,-2.7777,-7.1344,2.2485,8.8441,0.0386,-2.2086,-0.0764,-6.0678,4.9227
2542.9688,4.3069,2.6416,2.6259,3.6911,5.1455,6.0588,5.2540,2.9867,0.1269,-1.0468,-2.0613,-8.0163,-0.7442,5.2238,-0.5021,-1.5755,-2.1132,-6.8606,1.4913
2546.8750,5.4860,5.1379,1.1600,1.8605,4.0984,8.1884,10.2497,2.1209,1.4509,-0.0698,-0.7702,-7.7234,-2.9575,1.9141,-0.0252,-1.2991,-3.5312,-6.5331,-0.0693
2550.7812,5.9187,7.8706,1.1363,1.2337,3.4360,9.6602,11.9307,1.9073,2.7197,1.3275,1.1170,-6.5126,-4.2396,-1.1040,1.6288,-1.6280,-4.4936,-5.2225,-0.1800
2554.6875,5.7814,9.5670,1.9778,1.2680,2.1588,10.0574,9.4731,1.7097,3.4466,2.8076,2.7304,-5.2249,-4.8176,-3.8120,3.4662,-2.5904,-5.3590,-3.8144,-0.1469
2558.5938,5.4721,9.1889,2.4577,1.3139,0.1734,9.3755,4.0764,1.0235,3.2177,4.0120,3.0162,-4.6350,-4.9179,-5.9156,4.2286,-3.9099,-6.1968,-3.2277,-1.0148
2562.5000,5.4702,6.8650,1.8760,1.1387,-1.5735,8.1169,-1.6220,-0.1176,2.2329,4.9424,1.7542,-4.8559,-4.5288,-6.9618,3.5532,-5.0120,-6.6229,-3.7090,-2.6997
2566.4062,6.0905,3.9946,0.6647,0.9312,-1.9732,7.0080,-5.0360,-1.3021,1.3304,5.9607,-0.0522,-5.2887,-3.5374,-6.7481,2.3757,-5.2283,-6.1249,-4.7270,-4.1128
2570.3125,7.2410,2.3400,-0.0839,0.8560,-0.8758,6.5117,-5.1510,-2.2468,1.3932,7.3649,-0.8479,-5.1561,-2.1047,-5.6752,2.1799,-4.1869,-4.6095,-5.5196,-4.1752
2574.2188,8.3838,2.7656,0.2912,0.6470,0.5543,6.5114,-3.0690,-3.1198,2.6168,8.9368,0.2392,-4.1747,-0.8796,-4.6889,3.7072,-2.1650,-2.6807,-5.7797,-2.8807
2578.1250,8.8185,4.6153,1.3108,-0.3055,0.6376,6.4437,-1.1515,-4.3504,4.2864,9.9482,2.6440,-2.8039,-0.7485,-4.7674,6.2431,-0.0884,-1.3469,-5.8671,-1.4902
2582.0312,8.1720,6.2461,1.6920,-2.3865,-1.4680,5.8044,-1.2963,-6.0899,5.3089,9.7325,4.7779,-1.8667,-2.2243,-6.2902,8.1423,0.9532,-1.3252,-6.3763,-1.6383
2585.9375,6.7537,6.3127,0.4588,-5.2135,-4.9883,4.6339,-3.5482,-7.8534,5.0882,8.3802,5.3130,-1.8702,-4.9491,-8.7694,8.1955,0.4296,-2.4798,-7.4831,-4.0362
2589.8438,5.4557,4.7750,-2.1454,-7.6803,-8.0435,3.5659,-6.0618,-8.7487,4.0051,6.9047,4.2665,-2.6088,-7.7877,-11.1860,6.6858,-1.1825,-3.8793,-8.6997,-7.8306
2593.7500,5.1704,2.8155,-4.7773,-8.6914,-9.1258,3.3523,-6.4811,-8.1908,3.0598,6.5956,2.9382,-3.3943,-9.5531,-12.7224,5.1983,-2.6330,-4.4911,-9.3073,-11.1912
2597.6562,6.0967,1.7401,-6.0943,-8.0704,-8.3904,4.2050,-3.7460,-6.5281,2.9447,7.9602,2.7171,-3.7171,-9.8788,-13.3591,5.2822,-2.7458,-4.0102,-9.1078,-12.7155
2601.5625,7.4606,1.7844,-5.9185,-6.8872,-7.6766,5.4810,1.0101,-5.0046,3.3313,10.1000,3.7636,-3.7613,-9.5539,-13.8750,7.0629,-1.3067,-3.1646,-8.8037,-12.5556
2605.4688,7.9375,1.8443,-5.4491,-6.8317,-9.1458,6.0091,5.1452,-4.9781,3.0250,11.1296,4.7323,-4.3020,-9.9911,-15.2254,8.9997,0.6899,-3.2070,-9.5856,-12.3437
2609.3750,6.5524,0.4034,-6.2849,-9.0024,-13.5228,4.8763,6.2784,-6.9268,0.9392,9.4706,3.8531,-6.0326,-12.1512,-17.7397,9.0605,1.6922,-4.9287,-12.1762,-13.9207
2613.2812,3.4412,-3.0766,-9.0265,-12.9875,-19.2909,2.1187,3.8458,-9.9960,-2.8666,5.1132,0.5209,-8.8676,-15.7063,-20.7377,6.4034,0.7200,-7.9341,-16.0904,-17.8159
2617.1875,-0.1030,-7.4542,-12.6136,-16.9636,-23.5059,-1.2016,-0.6551,-12.4613,-6.9589,-0.1374,-3.9526,-11.8247,-19.0997,-22.8629,2.1830,-1.8589,-10.7556,-19.7606,-22.6490
2621.0938,-2.3910,-10.5402,-14.9836,-18.8016,-23.6777,-3.6251,-4.8190,-12.8052,-9.3832,-3.7176,-7.1413,-13.6410,-20.5152,-22.9104,-1.2287,-4.5242,-11.7822,-21.5191,-25.9403
2625.0000,-2.4140,-10.6435,-14.5658,-17.4134,-19.3681,-4.2120,-6.9432,-10.6375,-9.0178,-3.9855,-7.3101,-13.6747,-19.0851,-20.5665,-2.0395,-5.6773,-10.3531,-20.7302,-25.7458
2628.9062,-0.5031,-7.8602,-11.4468,-13.3782,-12.3807,-3.1226,-6.9105,-6.8225,-6.4222,-1.3444,-4.8101,-12.3879,-15.4691,-16.5452,-0.4446,-4.8183,-7.2272,-18.2117,-21.9272
2632.8125,1.8804,-4.0954,-7.3010,-8.4255,-5.4781,-1.4775,-5.8412,-2.7801,-3.5276,2.0027,-1.9249,-11.0078,-11.3855,-12.0569,1.4818,-2.9318,-4.0813,-15.6131,-16.1559
2636.7188,3.0630,-1.7736,-4.1669,-4.1976,-0.6288,-0.6171,-4.9954,0.4643,-2.3813,3.5050,-1.2387,-10.5988,-8.4451,-8.0195,1.3491,-1.7560,-2.3945,-14.2158,-10.7116
2640.6250,2.1486,-2.1930,-3.0442,-1.2295,1.9541,-1.2806,-4.8962,2.7715,-3.8526,1.9064,-3.7696,-11.2442,-7.1330,-4.5824,-1.7420,-2.4537,-2.5138,-14.0636,-7.0047
2644.5312,-0.5654,-4.7375,-3.3831,1.1292,3.4168,-3.2354,-5.2813,4.6296,-7.2052,-2.0477,-8.2982,-11.9665,-6.6513,-1.2693,-6.5332,-4.6820,-3.5486,-14.0629,-4.8797
2648.4375,-3.9447,-7.4785,-3.7726,3.8762,5.0034,-5.5400,-5.6835,6.4619,-10.7599,-6.2609,-12.3677,-11.4588,-5.6786,2.4271,-10.5717,-6.7886,-4.1252,-12.9367,-3.1040
2652.3438,-6.8058,-8.6393,-3.1790,7.3296,7.0072,-7.1882,-5.9308,8.1310,-13.0674,-8.7552,-14.1229,-9.0920,-3.4366,6.4824,-12.0269,-7.0310,-3.4207,-10.2649,-0.5433
2656.2500,-8.5447,-7.7817,-1.7043,10.7430,8.7150,-7.6694,-6.0756,9.0456,-13.6988,-8.8970,-13.5377,-5.4565,-0.2687,10.2360,-10.9665,-4.9348,-1.7266,-6.8087,2.9222
2660.1562,-9.2271,-5.8709,-0.3113,12.8523,9.2508,-7.1150,-5.9388,8.7424,-13.1544,-7.5814,-12.1313,-2.0419,2.6547,12.8022,-9.1606,-1.7679,-0.1702,-3.8980,6.3877
2664.0625,-9.2070,-4.2939,0.1517,12.8946,8.5107,-6.0308,-4.9069,7.4098,-12.1177,-6.3703,-11.5060,-0.2804,4.2260,13.6749,-8.6312,0.2699,0.1563,-2.3918,8.7223
2667.9688,-8.6766,-3.7023,-0.2609,11.2752,7.3807,-4.8882,-2.3875,5.8823,-10.7648,-6.2954,-11.9504,-0.6153,4.1949,13.0808,-10.0855,-0.3935,-0.9937,-2.0276,9.4779
2671.8750,-7.5317,-3.6093,-0.6597,9.3481,7.0812,-3.8809,1.3903,5.0821,-8.7075,-7.1867,-12.2290,-2.2155,3.3015,11.8437,-12.3858,-3.4970,-2.8411,-1.6515,9.2081
2675.7812,-5.6269,-2.9914,-0.1491,8.4686,8.2077,-2.9709,5.0334,5.3441,-5.5673,-7.9269,-10.6744,-3.5010,2.7014,10.8782,-13.3868,-6.9820,-4.1246,-0.1336,9.0066
2679.6875,-3.1627,-1.3247,1.3175,9.0326,10.2522,-2.1158,6.6402,6.1574,-1.6412,-7.3611,-6.6594,-3.1188,3.1461,10.6666,-11.4825,-8.3021,-3.9577,2.7301,9.6750
2683.5938,-0.8462,0.8310,2.7903,10.2182,11.9614,-1.4651,5.1273,6.5239,1.9465,-5.1864,-1.2749,-0.7563,4.5078,11.0522,-6.7680,-6.1474,-2.4072,5.9914,11.1579
2687.5000,0.3526,2.1716,3.0143,10.6121,12.2134,-1.3658,1.1965,5.6610,3.7874,-2.2326,3.2869,2.6723,5.9452,11.4419,-1.0825,-1.4149,-0.4280,8.1430,12.6228
2691.4062,-0.2777,1.6207,1.4012,9.2608,10.7391,-2.1697,-2.9448,3.5355,3.0586,0.0105,5.1351,5.5352,6.5403,11.2540,3.0171,3.2533,0.7686,8.1013,13.0748
2695.3125,-2.7105,-0.8374,-1.4766,6.3996,8.2086,-3.9632,-5.0272,0.8750,0.1092,0.2933,3.8324,6.3778,5.9472,10.3260,3.6669,5.0970,0.4879,5.9102,12.0521
2699.2188,-6.0484,-4.0884,-4.2228,3.3668,5.7360,-6.3834,-4.2466,-1.2943,-3.6333,-1.6144,0.5502,4.7200,4.6423,9.0544,0.6869,2.9929,-1.0099,2.7383,9.9574
2703.1250,-8.8411,-6.5930,-5.4973,1.7865,4.2507,-8.6431,-1.6578,-2.2204,-6.3617,-4.7128,-2.7297,1.3548,3.6581,8.2107,-4.3167,-1.7853,-2.6481,0.2246,7.8629
2707.0312,-9.7257,-7.3135,-4.7901,2.5786,4.1574,-9.7990,0.8731,-1.7387,-6.7622,-7.2597,-4.3127,-2.0006,4.0001,8.5353,-8.7188,-6.2902,-3.1462,-0.3928,6.9490
2710.9375,-8.0944,-6.2241,-2.6034,5.4231,5.3706,-9.1810,2.2439,-0.2080,-4.5906,-7.7204,-3.5031,-3.5451,6.0870,10.3150,-10.1287,-7.6566,-1.7506,1.1302,7.8988
2714.8438,-4.4691,-4.1470,-0.0361,8.9737,7.5023,-6.7949,2.8452,1.7759,-0.7207,-5.6821,-0.6888,-2.3238,9.4992,13.1570,-7.5725,-4.8062,1.3172,4.0017,10.5446
2718.7500,-0.3623,-2.1560,1.8516,11.6397,9.9804,-3.4605,3.8097,3.6502,3.2788,-2.2042,2.9993,1.2358,13.1472,16.1017,-2.0635,0.9336,4.9367,6.8537,13.9208
2722.6562,2.3810,-1.0092,2.4921,12.4471,12.0974,-0.5273,5.5022,5.0217,5.8167,0.6827,6.1469,5.5093,15.7759,18.0647,3.7881,6.6449,7.6582,8.4390,16.7054
2726.5625,2.4968,-0.9069,1.9344,11.5004,13.1620,0.7793,6.7289,5.7087,5.9495,1.1491,7.5118,8.5451,16.5767,18.4147,7.0669,9.5439,8.4706,8.2328,17.8644
2730.4688,0.0169,-1.5589,0.7349,9.8342,12.8304,0.0632,5.5817,5.7722,3.8229,-1.2282,6.4948,9.1676,15.6129,17.3636,6.1682,8.5594,7.3518,6.6779,17.1943
2734.3750,-3.6513,-2.3649,-0.2484,8.7824,11.4278,-1.9173,1.3487,5.5303,0.6942,-5.0122,3.5392,7.6603,13.8158,15.8923,1.8222,4.8423,5.2775,4.9615,15.4492
2738.2812,-6.4127,-2.5886,-0.1303,9.2310,9.9262,-3.5878,-4.1986,5.4701,-1.5578,-7.6251,0.1642,5.5736,12.5013,15.1811,-3.2088,0.9543,3.6577,4.4091,13.9233
2742.1875,-6.6194,-1.5635,1.6411,11.1525,9.4373,-3.4460,-7.5229,6.0162,-1.3141,-6.9257,-1.6397,4.7307,12.6299,15.8512,-5.7494,-0.7124,3.5123,5.7740,13.6773
2746.0938,-3.9993,1.0071,4.9296,13.6618,10.4884,-0.9925,-5.8074,7.2630,1.9031,-2.6810,-0.5216,6.0484,14.2299,17.5082,-4.2222,0.6946,4.8818,8.7968,14.8771
2750.0000,0.2076,4.7511,8.8044,15.5526,12.6199,2.9010,0.6498,8.8734,7.0554,3.0990,3.2575,8.9530,16.3654,18.9444,0.2789,4.1255,6.8461,12.3106,16.7042
2753.9062,4.0207,8.5903,11.8891,16.0094,14.6679,6.4780,8.1849,10.2687,12.0304,7.3132,7.7581,11.7942,17.7085,18.9271,4.6746,7.4143,8.1396,14.8708,17.9448
2757.8125,5.9119,11.1573,13.0755,15.0724,15.5761,8.1693,12.1543,11.0011,14.7350,7.7413,10.4535,12.9752,17.3687,17.0635,5.9754,8.6517,7.9479,15.5545,17.8671
2761.7188,5.6392,11.5413,12.1767,13.5614,15.1199,7.5604,10.3076,11.0253,14.2246,4.5217,9.8626,12.0050,15.4174,14.1172,3.3407,7.2677,6.3414,14.4341,16.7356
2765.6250,4.1862,9.9008,10.0253,12.4864,13.9541,5.6046,4.5354,10.6355,11.1661,0.0791,6.5864,9.7336,12.7356,11.5022,-1.3508,4.1936,4.0637,12.4196,15.5386
2769.5312,2.9095,7.4561,7.8752,12.3186,12.9302,3.9282,-0.5015,10.1059,7.3370,-2.5047,2.9234,7.6281,10.2963,10.2672,-4.8646,1.0962,1.8678,10.5867,15.0968
2773.4375,2.5547,5.7540,6.5001,12.6187,12.2530,3.6988,-0.9330,9.3462,4.4916,-1.5723,1.2504,6.6511,8.4235,10.2976,-4.9329,-0.7472,-0.0643,9.4643,15.2458
2777.3438,2.8550,5.6376,5.6608,12.3066,11.2203,4.8358,3.2973,7.9078,3.3442,2.0286,2.3090,6.5821,6.6059,10.3454,-1.8424,-1.1933,-2.1580,8.7796,14.7901
2781.2500,2.9466,6.6360,4.3737,10.4212,8.8290,6.1004,8.3603,5.4013,3.3085,5.6132,4.6667,6.2677,4.0160,8.9123,1.8606,-1.1692,-4.9197,7.8095,12.3608
2785.1562,2.1875,7.2483,1.7931,6.8570,4.7885,5.9871,9.5577,2.0133,3.0858,6.5640,5.7691,4.5704,0.3246,5.3689,3.2760,-1.9271,-8.3008,6.0400,7.5761
2789.0625,0.6882,5.9756,-1.9804,2.5498,0.0797,3.7906,5.1046,-1.3296,1.6188,4.0852,3.8061,1.2719,-3.8597,0.4867,1.2008,-4.1579,-11.5126,3.6144,1.5979
2792.9688,-0.8483,2.4092,-5.8172,-1.0429,-3.4917,0.1213,-2.3082,-3.3739,-1.2567,-0.4162,-0.9910,-2.7453,-7.3125,-4.0272,-3.1899,-7.5289,-13.4998,1.2463,-3.4251
2796.8750,-1.7690,-2.3856,-8.2872,-2.8217,-4.4947,-3.4500,-7.4523,-3.2988,-4.8223,-4.4864,-6.5477,-6.1277,-9.0550,-6.6651,-7.4259,-10.8872,-13.7256,-0.2965,-5.6967
2800.7812,-1.9887,-6.4652,-8.6345,-2.6795,-2.9222,-5.3422,-6.5332,-1.2904,-7.9995,-6.3539,-10.4123,-7.9663,-9.0775,-7.0947,-9.6115,-12.9322,-12.6306,-0.7102,-4.9420
2804.6875,-1.9221,-8.1837,-7.2464,-1.4713,-0.2514,-4.8635,-0.1177,1.5073,-9.9304,-5.9335,-11.3378,-8.3001,-8.3349,-6.2711,-9.5828,-12.9215,-11.3562,-0.2863,-2.5427
2808.5938,-1.9326,-7.1647,-5.2781,-0.3911,1.5695,-2.5136,7.2507,3.6530,-10.2573,-4.4800,-9.8405,-7.8936,-8.0012,-5.6370,-8.5513,-11.0241,-10.9094,0.3825,-0.5471
2812.5000,-1.8650,-4.4575,-3.7791,-0.2420,1.4443,0.4147,10.4225,4.2169,-9.0853,-3.3635,-7.4787,-7.5624,-8.5754,-6.0538,-7.7342,-8.1960,-11.4191,0.8204,-0.3005
2816.4062,-1.1730,-1.8331,-3.0405,-1.1128,-0.2535,2.5977,7.3739,3.1787,-6.8512,-3.0585,-5.5968,-7.6317,-9.5628,-7.2791,-7.2688,-5.7102,-12.0878,0.8540,-1.7053
2820.3125,0.4069,-0.7307,-2.6497,-2.6079,-2.2140,3.3091,0.4637,1.1902,-4.2707,-3.1253,-4.5799,-7.9119,-9.9842,-8.3478,-6.3490,-4.5980,-11.8957,0.4824,-3.5880
2824.2188,2.2511,-1.5249,-2.1130,-4.3233,-3.3911,2.6082,-5.6176,-1.0314,-2.2895,-3.0262,-4.0854,-8.0851,-9.2769,-8.4816,-4.3691,-5.2303,-10.4885,-0.3367,-4.7761
2828.1250,2.9739,-3.4980,-1.4362,-6.1121,-3.8565,1.1016,-7.4685,-3.1624,-1.8363,-2.8989,-3.8209,-8.0585,-7.8136,-7.7480,-1.9256,-7.1750,-8.5102,-1.6851,-4.9658
2832.0312,1.3635,-5.4202,-1.1335,-7.9302,-4.6061,-0.4749,-5.3171,-5.2452,-3.3372,-3.5068,-4.0132,-7.9389,-6.5789,-6.9297,-0.6454,-9.3721,-7.0775,-3.4231,-4.7128
2835.9375,-2.5348,-6.3046,-1.6818,-9.4856,-6.5054,-1.6027,-2.3956,-7.2891,-6.2755,-5.3937,-5.1027,-7.7011,-6.2607,-6.7423,-1.8692,-10.5797,-6.8074,-4.9537,-4.6632
2839.8438,-7.1081,-5.8886,-2.9543,-10.1238,-9.2980,-2.1328,-2.0685,-8.9316,-9.2262,-8.0589,-7.0015,-6.9568,-6.5413,-7.0972,-5.3027,-9.9385,-7.2067,-5.3682,-4.7862
2843.7500,-10.0436,-4.6421,-4.1889,-9.1797,-11.5587,-2.2538,-5.1221,-9.5280,-10.5393,-10.0127,-8.7206,-5.1519,-6.2435,-7.0757,-8.8766,-7.4050,-6.9753,-4.0243,-4.3365
2847.6562,-9.8519,-3.3930,-4.5645,-6.5713,-11.6892,-2.3377,-9.3136,-8.6331,-9.3357,-9.8216,-8.8645,-2.1035,-4.2836,-5.6788,-10.0958,-3.8041,-5.0341,-1.1701,-2.5957
2851.5625,-6.9354,-2.8331,-3.8918,-3.1154,-9.1726,-2.7232,-11.3390,-6.4622,-6.1271,-7.3369,-6.6884,1.5976,-0.6793,-2.7496,-7.8866,-0.4143,-1.4746,1.9429,0.2813
2855.4688,-3.3578,-3.1664,-2.8017,-0.1939,-5.0600,-3.5089,-9.4733,-3.9005,-2.5485,-4.0408,-2.8360,4.7522,3.2515,0.7223,-3.4704,1.7221,2.3587,3.6994,3.1222
2859.3750,-1.4334,-4.0501,-2.2359,1.0884,-1.2698,-4.4592,-4.7626,-1.9911,-0.3091,-2.1028,0.9326,6.2696,5.7462,3.2231,0.4735,2.3542,4.7727,3.1629,4.5205
2863.2812,-2.1656,-4.8348,-2.6649,0.6546,0.7625,-5.1125,0.0116,-1.2760,-0.0878,-2.8056,2.8926,5.9152,5.8928,3.8189,1.7246,2.0728,4.9468,0.7747,3.9470
2867.1875,-4.6860,-4.9746,-3.7055,-0.4861,1.0235,-5.0716,2.5452,-1.5040,-1.1804,-5.5682,2.5091,4.4806,4.3469,2.8704,0.0272,1.7986,3.5189,-1.8667,2.2588
2871.0938,-7.0696,-4.3822,-4.4744,-0.9714,0.7295,-4.3071,2.5400,-1.9313,-2.1574,-8.3685,0.6970,3.2012,2.8636,1.7645,-2.9554,2.0538,2.0682,-3.0649,1.1171
2875.0000,-7.8383,-3.5092,-4.3686,-0.0901,1.2045,-3.2413,1.4564,-1.9569,-2.0069,-9.2649,-0.9798,2.8588,2.9626,1.8352,-5.1019,2.5495,1.8888,-2.1854,1.7236
2878.9062,-6.9630,-3.0647,-3.5845,1.7044,2.7685,-2.5016,0.9590,-1.5660,-0.8593,-7.8257,-1.4776,3.2872,4.7460,3.3002,-5.4509,2.4186,3.0113,-0.0599,3.8679
2882.8125,-5.6376,-3.5159,-2.9137,3.1713,4.5324,-2.4828,1.5216,-1.2274,0.2655,-5.3521,-0.8585,3.6742,6.7963,5.0458,-4.6727,0.9499,4.2300,1.6763,6.0643
2886.7188,-5.1202,-4.7027,-2.9933,3.2595,5.2216,-3.0429,2.3165,-1.3612,0.4397,-3.7519,0.0992,3.3920,7.2455,5.4431,-4.1238,-1.7221,4.0948,1.8187,6.6891
2890.6250,-5.6738,-5.8750,-3.6881,1.9205,4.2948,-3.5959,2.2693,-1.8678,-0.3134,-4.0110,0.7979,2.6244,5.1916,3.5683,-4.4326,-4.5230,2.0649,0.4613,5.2184
2894.5312,-6.4922,-6.1952,-4.1834,0.1165,2.4006,-3.5728,1.1651,-2.1544,-1.0355,-5.5069,1.3454,2.2216,1.3631,-0.1087,-4.9166,-6.0707,-1.0899,-1.1584,2.5799
2898.4375,-6.6082,-5.3890,-3.7455,-0.9750,0.7968,-2.9098,-0.2200,-1.6650,-0.7298,-6.6844,2.2313,2.8701,-2.4693,-4.0919,-4.3430,-5.6097,-3.9347,-1.6995,0.3471
2902.3438,-5.9198,-4.0587,-2.4938,-0.9180,0.2407,-2.1630,-0.9883,-0.4630,0.6259,-6.4710,3.5114,4.2857,-4.8515,-6.9747,-2.3135,-3.5688,-5.5068,-0.8160,-0.5582
2906.2500,-5.3772,-3.3587,-1.4728,-0.3659,0.3097,-2.1163,-1.0755,0.6633,1.8596,-5.2041,4.3653,5.1799,-5.6913,-8.4294,0.0386,-1.3112,-6.0114,0.5508,-0.5986
2910.1562,-6.1196,-4.1943,-1.8828,-0.5179,-0.2538,-3.1558,-1.3389,0.7250,1.4566,-4.2811,3.5855,4.1382,-6.1819,-9.3111,0.7727,-0.2351,-6.5198,0.9157,-1.2000
2914.0625,-8.3007,-6.4953,-4.0594,-2.1175,-2.4463,-4.9018,-2.6799,-0.6903,-1.1443,-4.8412,0.6870,0.7810,-7.6943,-10.8324,-1.2344,-0.8653,-7.9458,-0.5570,-3.5316
2917.9688,-10.6633,-9.1293,-7.0478,-4.7997,-6.0677,-6.4154,-5.0250,-3.0152,-4.8714,-6.6324,-3.3337,-3.7289,-10.5509,-13.4934,-5.1322,-2.5847,-10.1656,-3.3422,-7.4823
2921.8750,-11.3304,-10.5876,-9.1731,-7.3173,-9.7422,-6.8515,-7.1387,-5.0337,-7.5862,-8.0779,-6.3853,-7.3120,-13.6704,-16.6242,-8.4721,-4.1766,-12.0234,-5.8807,-11.6597
2925.7812,-9.2468,-10.0031,-9.2035,-8.4826,-11.9112,-6.0692,-7.4905,-5.7394,-7.5585,-7.5516,-6.6870,-8.3395,-15.3637,-18.8929,-8.9360,-4.7458,-12.2305,-6.6971,-14.4011
2929.6875,-5.1147,-7.7843,-7.2181,-8.0936,-12.0132,-4.7260,-5.4531,-5.0840,-4.7651,-4.8305,-4.1530,-6.7492,-14.6418,-19.3568,-6.0934,-4.3146,-10.4296,-5.4668,-14.9778
2933.5938,-1.0258,-5.3919,-4.5143,-7.1250,-10.9076,-3.7829,-1.8262,-4.0419,-1.0125,-1.4949,-0.6212,-4.0691,-11.9986,-18.2128,-1.7818,-3.6622,-7.5501,-3.2471,-14.0451
2937.5000,0.9695,-4.3953,-2.6540,-7.0321,-10.2015,-3.8119,1.7168,-3.9274,1.2420,0.1323,1.3599,-2.3185,-9.0630,-16.6532,1.2282,-3.5700,-5.1542,-1.7294,-13.0196
2941.4062,0.2546,-5.4685,-2.4094,-8.6941,-11.0138,-4.6477,3.7317,-5.4643,0.5183,-1.2750,0.3237,-2.5951,-7.4069,-15.9441,1.2565,-4.0912,-4.2804,-2.0900,-12.9334
2945.3125,-2.0737,-8.0192,-3.4023,-11.7785,-13.1465,-5.6352,3.7285,-8.2833,-2.7875,-4.9880,-3.1017,-4.3850,-7.4455,-16.4520,-1.1392,-4.4441,-4.6978,-4.2694,-13.7007
2949.2188,-4.2137,-10.6759,-4.6350,-14.9739,-15.2894,-6.2355,2.0399,-11.1897,-6.8437,-8.6983,-6.7454,-6.0685,-8.2620,-17.3740,-3.7530,-3.6337,-5.1516,-7.1453,-14.3543
2953.1250,-5.1002,-12.2387,-5.3881,-16.8777,-16.0613,-6.4661,-0.8130,-12.9676,-9.7624,-10.1884,-8.5776,-6.2032,-8.4457,-17.3722,-4.5382,-1.3358,-4.3968,-9.3900,-13.9976
2957.0312,-5.1055,-12.3958,-5.7234,-16.8733,-15.0438,-6.8096,-4.4921,-13.1193,-10.8515,-8.9265,-8.2119,-4.6059,-7.2471,-15.6178,-3.1821,1.6433,-2.2014,-10.3496,-12.6461
2960.9375,-5.4730,-11.7370,-6.2259,-15.3913,-13.0127,-7.6839,-8.5793,-12.0401,-10.8467,-6.3816,-7.0695,-2.4546,-5.1467,-12.4522,-1.2368,3.7274,0.4584,-10.3424,-11.2541
2964.8438,-7.0166,-11.1438,-7.2960,-13.4522,-11.2354,-8.9505,-12.0927,-10.5868,-11.0626,-4.8511,-7.1143,-1.3851,-3.4308,-9.1778,-0.7729,3.5458,2.1418,-10.2530,-10.9125
2968.7500,-9.2223,-11.0804,-8.6632,-11.9057,-10.4397,-9.9072,-13.5581,-9.4388,-12.2191,-5.7268,-9.1887,-2.2885,-3.1545,-7.1533,-2.6763,0.8720,2.0306,-10.8031,-11.8873
2972.6562,-10.5345,-11.3187,-9.5601,-10.9418,-10.2792,-9.7997,-11.9271,-8.7410,-13.8790,-8.5123,-12.2695,-4.6830,-4.3244,-6.8693,-5.9296,-3.1246,0.5212,-12.0420,-13.2879
2976.5625,-9.6104,-11.2450,-9.3911,-10.1653,-9.6879,-8.4451,-7.7041,-8.2252,-14.8837,-11.2819,-14.2173,-7.0642,-5.9189,-7.6613,-8.3856,-6.4997,-1.1034,-13.3677,-13.6506
2980.4688,-6.5134,-10.4408,-8.3011,-9.0762,-7.7967,-6.4488,-3.1749,-7.6122,-14.3707,-12.1591,-13.4175,-7.9256,-6.6858,-8.2254,-8.3721,-7.6402,-1.6316,-13.9870,-11.9964
2984.3750,-2.8549,-9.0641,-7.1405,-7.5270,-4.6682,-4.8258,-1.1901,-6.9058,-12.5339,-10.6619,-10.0456,-6.7179,-6.0677,-7.5235,-5.8818,-6.1575,-0.7619,-13.4525,-8.5689
2988.2812,-0.7364,-7.7637,-6.8475,-5.8225,-1.2872,-4.3181,-3.1766,-6.3467,-10.5465,-7.9473,-6.0106,-4.1341,-4.5460,-5.4263,-2.5101,-3.0354,0.7875,-11.9284,-4.7118
2992.1875,-1.2970,-7.2382,-7.7526,-4.4467,1.1498,-4.9382,-7.8926,-6.1126,-9.7370,-5.8701,-3.6564,-1.6207,-3.1803,-2.6837,-0.2956,0.0184,1.9202,-10.0658,-1.9975
2996.0938,-3.9684,-7.7917,-9.3506,-3.6797,2.0794,-6.0683,-12.0639,-6.0638,-10.6682,-5.6473,-4.2059,-0.5061,-2.7451,-0.3184,-0.3932,1.5732,2.0171,-8.6082,-1.2366
3000.0000,-6.9628,-9.1845,-10.6832,-3.3989,1.9227,-6.9907,-12.6198,-5.7681,-12.7857,-7.1237,-7.0507,-1.3016,-3.1431,1.0795,-2.5031,1.2128,1.3514,-7.9717,-2.0391
3003.9062,-8.5649,-10.8206,-10.9876,-3.1749,1.7281,-7.3953,-8.9092,-4.7870,-14.8407,-9.0861,-10.3061,-3.5256,-3.5254,1.6613,-5.3087,-0.3966,0.7940,-8.0200,-3.1624
3007.8125,-8.2328,-12.0895,-10.1107,-2.5497,2.4199,-7.4764,-3.1665,-2.9860,-15.7255,-10.2654,-12.1288,-6.0512,-2.9939,2.0690,-7.4387,-2.0738,1.0869,-8.1425,-3.3418
3011.7188,-6.7452,-12.6382,-8.4490,-1.2963,4.2060,-7.6122,1.1826,-0.6342,-15.1251,-10.2145,-11.8383,-7.7188,-1.3327,2.8599,-8.2178,-2.9099,2.2555,-7.6068,-2.0356
3015.6250,-5.4192,-12.4624,-6.5818,0.4747,6.5147,-7.9673,2.0769,1.7561,-13.5894,-9.4566,-10.1398,-7.8889,0.7757,4.0387,-7.7972,-2.7711,3.5801,-6.0218,0.3452
3019.5312,-5.1030,-11.8394,-4.9506,2.3728,8.4218,-8.3825,0.2227,3.6994,-12.0652,-8.9111,-8.4453,-6.7012,2.1980,5.0154,-6.7798,-2.2316,4.1087,-3.6600,2.7765
3023.4375,-5.7082,-11.1694,-3.7840,3.8913,9.2146,-8.6113,-1.7428,4.9246,-11.2607,-9.1196,-7.8653,-4.9458,2.1328,4.9999,-5.7488,-2.0383,3.3194,-1.4085,4.2519
