Time,Fp1,F3,C3,P3,O1,F7,T3,T5,Fz,Fp2,F4,C4,P4,O2,F8,T4,T6,Cz,Pz
0.0000,-5.6342,0.3618,2.4773,0.7224,-4.8602,-2.6017,-0.1515,-2.2607,1.3835,-1.4212,0.5591,4.1543,2.0754,-2.7698,1.3640,1.8526,-0.2746,3.6162,3.2879
3.9062,-4.8164,-1.0412,1.7234,1.1114,-3.4587,-2.3507,-0.2322,-2.1249,1.5365,-0.2222,0.3779,4.6349,3.1052,-1.6964,1.1985,1.1874,0.1810,3.5105,2.9167
7.8125,-2.2350,-3.1300,0.3615,0.9616,-1.9576,-1.3050,-0.6816,-2.2623,1.2618,2.6360,0.0388,4.1569,3.6437,-0.7627,1.3959,0.0174,0.6017,2.4416,1.8767
11.7188,2.7630,-5.2124,-1.5095,0.2623,-0.8319,0.2380,-1.3951,-2.2733,0.3660,6.1119,-0.8408,2.2010,3.0807,-0.1768,2.1973,-1.6249,0.7741,0.3720,0.0762
15.6250,9.5776,-6.3178,-3.4050,-0.5746,-0.0985,1.6948,-1.9947,-1.6285,-0.8485,8.5217,-2.4195,-1.0543,1.3556,0.2724,3.3528,-3.4930,0.6435,-2.0809,-2.0923
19.5312,16.0253,-5.7217,-4.6541,-0.9987,0.6438,2.4751,-2.0434,-0.1147,-1.7775,8.4948,-4.5006,-4.7529,-0.9707,0.9954,4.1367,-5.2321,0.2873,-3.9765,-3.9234
23.4375,19.1766,-3.4401,-4.8084,-0.7415,1.7887,2.2680,-1.3704,1.8955,-1.9982,5.7854,-6.6370,-7.8070,-3.0687,2.1583,3.7738,-6.5488,-0.2023,-4.6827,-4.8572
27.3438,17.0920,-0.3701,-3.9817,-0.0458,3.2747,1.1857,-0.2686,3.6084,-1.6530,1.4109,-8.3760,-9.4822,-4.3697,3.4037,1.9966,-7.3345,-0.8002,-4.3460,-4.8998
31.2500,10.3343,2.0581,-2.8458,0.4904,4.5323,-0.3022,0.6243,4.3404,-1.4015,-2.9508,-9.4678,-9.7517,-4.8802,4.0218,-0.6977,-7.6765,-1.5162,-3.8273,-4.6708
35.1562,2.0367,2.5711,-2.2370,0.3578,4.9240,-1.6025,0.7317,4.0388,-1.9502,-5.8810,-9.9302,-9.2186,-5.0585,3.4970,-3.3196,-7.7765,-2.2835,-4.1142,-4.9924
39.0625,-3.8033,0.7130,-2.6223,-0.4629,4.3505,-2.2804,-0.0337,3.3802,-3.5191,-6.8676,-9.9861,-8.6960,-5.3670,2.0204,-5.0127,-7.8481,-2.8897,-5.6269,-6.2858
42.9688,-4.8121,-2.8942,-3.8076,-1.4515,3.4970,-2.2517,-1.1455,3.3251,-5.6663,-6.3373,-9.9585,-8.7350,-5.8631,0.5321,-5.5636,-8.0398,-3.0389,-7.9240,-8.2089
46.8750,-1.7812,-6.8442,-5.1055,-1.9028,3.4430,-1.7914,-1.7827,4.4165,-7.6052,-5.1794,-10.1705,-9.3735,-6.1510,0.1886,-5.4046,-8.3829,-2.5200,-10.0169,-9.8208
50.7812,1.9466,-9.6327,-5.8415,-1.4235,4.8606,-1.3507,-1.4036,6.3338,-8.7489,-4.1741,-10.8363,-10.1995,-5.7226,1.5976,-5.1201,-8.7454,-1.3560,-11.0411,-10.1780
54.6875,2.9378,-10.3570,-5.8128,-0.2029,7.4061,-1.2718,-0.1686,8.0518,-9.0375,-3.6937,-11.9296,-10.6248,-4.3983,4.3693,-4.8758,-8.8134,0.1893,-10.7726,-8.9470
58.5938,0.2492,-9.0560,-5.3499,1.1420,9.8229,-1.5541,1.1251,8.5239,-8.8047,-3.7510,-13.0930,-10.1791,-2.5001,7.3336,-4.2595,-8.1619,1.7646,-9.6258,-6.5952
62.5000,-3.7987,-6.5440,-4.9497,2.0207,10.7595,-1.8175,1.5889,7.4138,-8.3412,-4.1881,-13.7142,-8.6924,-0.6123,9.2881,-2.6881,-6.4543,3.1313,-8.1996,-4.0306
66.4062,-5.3181,-3.8917,-4.8014,2.2677,9.7368,-1.5211,0.8885,5.3468,-7.5818,-4.7705,-13.2266,-6.3341,0.8702,9.7532,-0.0561,-3.7051,4.2626,-6.7912,-1.9694
70.3125,-1.8459,-1.8961,-4.6246,2.1827,7.5342,-0.3422,-0.4931,3.4884,-6.2257,-5.1496,-11.5097,-3.5492,2.0210,9.1994,2.9316,-0.4376,5.2706,-5.2949,-0.5094
74.2188,5.5732,-0.8432,-3.9800,2.1950,5.6599,1.5004,-1.5985,2.7440,-4.2030,-4.8694,-9.1084,-0.9313,3.2408,8.6026,5.0698,2.4286,6.2222,-3.5381,0.7776
78.1250,12.8118,-0.6420,-2.8026,2.4355,5.2569,3.2127,-1.7101,3.1486,-2.0503,-3.5847,-7.0334,0.9457,4.7947,8.6691,5.4321,3.9716,6.9908,-1.7119,2.3265
82.0312,15.3675,-1.1466,-1.6757,2.5722,6.2450,3.7716,-0.8987,3.8819,-0.7877,-1.4289,-6.1782,1.7103,6.4118,9.3053,4.0489,3.7480,7.2616,-0.4546,4.0593
85.9375,11.4334,-2.3754,-1.5385,2.0546,7.3560,2.5093,0.0253,3.8886,-1.2876,0.7778,-6.7109,1.3257,7.3095,9.7034,1.9657,2.0587,6.6955,-0.4463,5.2947
89.8438,3.1392,-4.4407,-2.9740,0.5816,7.0622,-0.3978,0.1407,2.6514,-3.5826,1.7902,-7.8984,0.0941,6.6807,8.9552,0.6101,-0.1936,5.1471,-1.8235,5.1831
93.7500,-4.8924,-7.2570,-5.6227,-1.5871,4.7223,-3.8698,-0.8538,0.5581,-6.6835,0.6632,-8.5749,-1.4942,4.3037,6.7271,0.9052,-1.9901,2.8000,-3.9241,3.3460
97.6562,-8.5842,-10.2939,-8.2415,-3.7468,1.0845,-6.4102,-2.3897,-1.3920,-9.1252,-2.4773,-7.9946,-3.0010,0.8061,3.5083,2.7380,-2.7238,0.1350,-5.6508,0.2242
101.5625,-6.8688,-12.6398,-9.4746,-5.2340,-2.2404,-6.9127,-3.4811,-2.3197,-9.9051,-6.2041,-6.4778,-4.2328,-2.6514,0.2806,5.1101,-2.4457,-2.2515,-6.2366,-3.1545
105.4688,-1.9503,-13.4256,-8.8343,-5.9266,-3.9500,-5.3296,-3.5434,-2.0993,-9.1408,-8.4093,-5.3346,-5.2704,-5.0731,-2.1207,6.8024,-1.7016,-3.8889,-5.8356,-5.8377
109.3750,2.5822,-12.3673,-7.1559,-6.3630,-3.9822,-2.7715,-2.9244,-1.4413,-7.9544,-7.5176,-6.0316,-6.3292,-6.2142,-3.4831,7.0590,-1.1220,-4.6189,-5.4475,-7.5529
113.2812,4.2384,-10.0546,-6.1191,-7.3539,-3.4986,-0.9267,-2.6843,-1.3687,-7.6575,-3.5547,-9.1312,-7.5526,-6.6291,-4.2139,5.8617,-1.0660,-4.6409,-6.1798,-8.7970
117.1875,2.9275,-7.7345,-7.0971,-9.3373,-3.9231,-1.1070,-3.7437,-2.4665,-8.8270,1.6676,-13.7431,-8.8820,-7.1511,-4.9033,3.7242,-1.5350,-4.3891,-8.3750,-10.3301
121.0938,0.3980,-6.6666,-10.1274,-11.9424,-5.7626,-3.4820,-6.0425,-4.4346,-10.9376,5.4639,-17.9196,-10.0782,-8.1953,-5.8088,1.2772,-2.3330,-4.2867,-11.2627,-12.4516
125.0000,-1.4168,-7.4279,-13.7622,-14.1028,-8.1161,-6.9758,-8.3978,-6.2517,-12.7884,5.7850,-19.7820,-10.8579,-9.4099,-6.6394,-1.0228,-3.2679,-4.4921,-13.4248,-14.6168
128.9062,-1.7203,-9.6000,-15.9609,-14.6850,-9.2707,-9.9016,-9.2505,-6.8325,-13.3677,2.3958,-18.6518,-11.0423,-9.9382,-6.7812,-2.9262,-4.2072,-4.7781,-13.7513,-15.7222
132.8125,-0.9598,-12.0409,-15.4388,-13.2332,-7.9671,-10.9575,-7.8034,-5.7251,-12.5056,-3.0210,-15.4401,-10.6294,-9.0991,-5.7832,-4.2813,-4.9846,-4.6427,-12.1989,-14.8954
136.7188,0.0222,-13.5639,-12.5454,-10.3317,-4.4048,-9.9725,-4.7160,-3.3890,-10.8681,-7.8982,-12.0499,-9.7745,-6.9765,-3.7526,-4.9752,-5.3199,-3.6224,-9.8116,-12.2388
140.6250,0.7993,-13.5895,-9.0575,-7.3303,-0.2310,-7.9498,-1.8016,-0.8920,-9.3767,-10.2880,-10.2047,-8.7211,-4.4746,-1.3842,-4.9854,-4.9098,-1.6382,-8.0104,-8.9714
144.5312,1.4004,-12.3738,-7.0329,-5.5942,2.5045,-6.3940,-0.8873,0.7480,-8.5559,-9.8878,-10.4766,-7.7290,-2.7846,0.3952,-4.4428,-3.6696,0.8555,-7.6842,-6.8144
148.4375,1.7292,-10.7163,-7.5127,-5.7444,2.6978,-6.3534,-2.6159,1.1374,-8.3074,-7.9775,-12.1122,-7.0108,-2.6367,0.9438,-3.5835,-1.9200,3.0573,-8.7233,-6.9855
152.3438,1.1738,-9.3914,-9.9396,-7.3496,0.8965,-7.7783,-6.0235,0.6487,-8.2130,-6.3910,-13.6907,-6.6715,-3.8577,0.2657,-2.6020,-0.3097,4.2587,-10.2644,-9.4484
156.2500,-0.9875,-8.7012,-12.6331,-9.2334,-1.1183,-9.5810,-9.1769,0.0896,-8.0296,-6.2575,-14.1038,-6.6632,-5.5300,-0.9945,-1.5552,0.5355,4.2612,-11.3839,-12.9073
160.1562,-4.6337,-8.4150,-13.9228,-10.1750,-1.5527,-10.3413,-10.4051,0.1576,-7.9148,-7.3521,-13.1932,-6.7949,-6.6165,-1.9150,-0.4416,0.4027,3.4754,-11.6819,-15.5533
164.0625,-8.2429,-8.0638,-13.1399,-9.5659,0.2323,-9.2005,-9.2688,1.0384,-8.1922,-8.4333,-11.6764,-6.8317,-6.6095,-1.8121,0.6055,-0.3880,2.6065,-11.3610,-16.0881
167.9688,-9.4902,-7.3295,-10.8438,-7.6614,3.3811,-6.3926,-6.6481,2.3653,-8.8928,-8.2612,-10.5055,-6.6518,-5.7753,-0.6248,1.2294,-1.2476,2.1288,-10.8451,-14.4011
171.8750,-6.8016,-6.2500,-8.2584,-5.3474,6.1814,-3.1074,-3.9914,3.4951,-9.5171,-6.5485,-10.1592,-6.3590,-4.8821,1.0369,1.0337,-1.7788,1.9274,-10.3381,-11.5233
175.7812,-0.7289,-5.1479,-6.4305,-3.6349,7.1613,-0.7960,-2.3440,3.8749,-9.2891,-4.1842,-10.3566,-6.2521,-4.6586,2.2030,-0.0451,-2.0650,1.3844,-9.7150,-8.9588
179.6875,6.0413,-4.3982,-5.7227,-3.2017,5.8741,-0.3609,-1.8525,3.2668,-7.7508,-2.6012,-10.3449,-6.6384,-5.3786,2.0446,-1.4945,-2.5470,-0.1289,-8.8036,-7.8540
183.5938,10.2477,-4.2328,-5.8986,-4.1941,2.9224,-1.7078,-1.9990,1.7513,-5.2370,-2.7511,-9.5102,-7.6052,-6.8180,0.2997,-2.4017,-3.5742,-2.7063,-7.7515,-8.4970
187.5000,10.1393,-4.6808,-6.5651,-6.2886,-0.6366,-3.8890,-2.2449,-0.4008,-2.8180,-4.4073,-7.8679,-8.9134,-8.5238,-2.5992,-2.0188,-4.9985,-5.7157,-7.0945,-10.3629
191.4062,6.5512,-5.6008,-7.5095,-8.8704,-3.9504,-5.7016,-2.4993,-2.8350,-1.6843,-6.2721,-6.0962,-10.1028,-10.1231,-5.7467,-0.3285,-6.1649,-8.1250,-7.4000,-12.5465
195.3125,2.1608,-6.6985,-8.6534,-11.1892,-6.6106,-6.3447,-3.0529,-5.1235,-2.3711,-6.8089,-5.1007,-10.7444,-11.4242,-8.1941,1.8546,-6.3465,-9.1233,-8.7433,-14.2337
199.2188,-0.4886,-7.5046,-9.7437,-12.4729,-8.4150,-5.7488,-4.1064,-6.7376,-4.3565,-5.2371,-5.4033,-10.6597,-12.2875,-9.3364,3.3871,-5.3088,-8.5969,-10.4506,-14.9350
203.1250,-0.6605,-7.4068,-10.1677,-12.0739,-9.0170,-4.4223,-5.3607,-7.1069,-6.3268,-2.0343,-6.7617,-9.9595,-12.4605,-9.0621,3.5625,-3.5634,-7.1293,-11.3748,-14.4574
207.0312,0.4680,-5.8515,-9.1737,-9.7023,-7.8942,-2.9763,-6.0649,-5.8265,-6.9470,1.3665,-8.2699,-8.8951,-11.5981,-7.6393,2.5545,-2.0943,-5.5491,-10.5692,-12.7876
210.9375,1.2421,-2.6929,-6.4072,-5.6701,-4.7415,-1.6738,-5.5097,-2.9268,-5.6425,3.4617,-8.8884,-7.6634,-9.5101,-5.4792,1.1898,-1.7341,-4.3801,-7.9137,-10.0699
214.8438,1.2275,1.5202,-2.3472,-0.9577,0.0323,-0.3061,-3.5779,0.9853,-2.9045,3.5650,-8.0718,-6.3271,-6.4453,-2.9672,0.2461,-2.6325,-3.5924,-4.2547,-6.6948
218.7500,1.6927,5.5921,1.7633,3.0564,5.1868,1.5384,-0.9035,4.8745,0.0483,2.1486,-6.0918,-4.8920,-3.1405,-0.4457,-0.1258,-4.1837,-2.7955,-0.9464,-3.3455
222.6562,4.4261,8.1671,4.5427,5.1710,9.1399,4.0225,1.4988,7.7032,2.0133,0.4781,-3.8385,-3.4334,-0.5156,1.7217,-0.3561,-5.4378,-1.6668,0.9140,-0.8368
226.5625,9.8557,8.4428,5.2726,4.9695,10.8158,6.7599,2.8621,8.9242,2.4835,-0.1700,-2.2228,-2.1268,0.8244,3.1524,-0.8303,-5.6824,-0.2492,1.0686,0.2476
230.4688,16.0886,6.6754,4.3217,3.0897,10.2783,8.9069,3.1023,8.7464,1.8661,0.8054,-1.5803,-1.1381,0.9374,3.5890,-1.2690,-4.7991,1.0995,0.1437,-0.0985
234.3750,19.8142,4.1024,2.8798,0.9281,8.6760,9.6158,2.7720,7.9908,1.1420,3.1224,-1.4966,-0.4875,0.4723,3.0967,-0.7493,-3.2153,2.0140,-0.8380,-1.2519
238.2812,18.5412,2.2583,2.1639,-0.1075,7.5002,8.5671,2.6127,7.6001,1.1963,5.9144,-1.1937,-0.0456,0.1988,2.1298,1.5184,-1.5778,2.3921,-1.1401,-2.3104
242.1875,12.5335,2.0802,2.6326,0.6187,7.6492,6.2230,3.0535,8.0895,2.2310,8.2452,-0.2131,0.2977,0.4623,1.3478,5.2382,-0.4307,2.3983,-0.7532,-2.6592
246.0938,4.9494,3.3699,3.7377,2.6355,8.9417,3.6138,3.9958,9.2762,3.6056,9.4906,1.1218,0.4383,0.9630,1.2621,8.7467,-0.0839,2.2393,-0.3342,-2.3667
250.0000,-0.0139,4.9730,4.3697,4.7043,10.4019,1.7729,4.9697,10.4560,4.2052,9.4197,1.8552,0.0588,1.0373,1.9555,9.8121,-0.6390,1.9610,-0.7089,-2.1045
253.9062,0.2853,5.5606,3.6729,5.6309,11.0852,1.1793,5.4848,10.9094,3.1307,8.0746,1.1167,-1.0980,0.2445,3.0941,7.0859,-2.0159,1.4870,-2.2652,-2.6083
257.8125,5.3736,4.4895,1.6669,5.0309,10.8272,1.5644,5.3119,10.4043,0.3097,5.6631,-1.0995,-2.8657,-1.1801,4.2332,1.1925,-3.8965,0.8631,-4.6256,-4.0475
261.7188,12.1315,2.1666,-0.7428,3.5446,10.3642,2.2001,4.5450,9.3598,-3.3482,2.5847,-3.7146,-4.5383,-2.3786,5.1732,-5.3949,-5.6786,0.4397,-6.8122,-5.7775
265.6250,16.8420,-0.3088,-2.3565,2.3580,10.7407,2.4544,3.4843,8.5588,-6.3825,-0.4956,-5.1696,-5.2100,-2.4403,6.0661,-9.7098,-6.6136,0.7347,-7.8219,-6.7058
269.5312,17.3470,-1.9445,-2.4651,2.3555,12.4477,2.2229,2.4708,8.5959,-7.5810,-2.7182,-4.5036,-4.4209,-1.1081,7.1698,-10.0114,-6.1689,2.0018,-7.2714,-6.0612
273.4375,13.9380,-2.5101,-1.3011,3.4912,14.9387,1.9383,1.7748,9.4360,-6.6794,-3.3435,-2.1392,-2.6479,0.9006,8.4608,-6.7326,-4.4201,3.8395,-5.7011,-4.0282
277.3438,8.6482,-2.5810,0.1305,4.8226,16.9042,2.1717,1.5412,10.3934,-4.5164,-2.1718,0.2620,-1.1942,2.2426,9.4735,-2.0687,-2.1520,5.2347,-4.3077,-1.7516
281.2500,3.7283,-2.9560,0.7211,5.1963,17.1422,3.1374,1.7613,10.5726,-2.5156,0.2311,0.8770,-1.4214,1.7936,9.5815,1.4393,-0.4964,5.1356,-4.2126,-0.6352
285.1562,0.4802,-3.9017,-0.0176,4.1122,15.4227,4.4757,2.2663,9.4907,-1.7941,2.7368,-0.9690,-3.7826,-0.5551,8.5625,2.3391,-0.2707,3.2100,-5.6935,-1.3682
289.0625,-0.9024,-4.8129,-1.6400,2.1467,12.7317,5.4750,2.7819,7.4661,-2.4642,4.2337,-4.2031,-7.3423,-3.7005,6.9869,0.8413,-1.4513,0.2230,-7.8838,-3.3543
292.9688,-0.7258,-4.5858,-3.0618,0.6095,10.6860,5.5601,3.0560,5.4816,-3.5972,4.2424,-6.6079,-10.2069,-5.9107,6.0279,-1.6557,-3.1742,-2.3216,-9.2016,-4.9929
296.8750,0.8126,-2.4741,-3.2755,0.6352,10.4767,4.6750,2.9953,4.5730,-3.8869,3.1535,-6.2825,-10.6681,-5.8534,6.6977,-3.5739,-4.3010,-3.1105,-8.3150,-4.6956
300.7812,3.6662,1.1788,-2.0336,2.3265,12.0218,3.2799,2.6998,5.1147,-2.5766,1.9188,-2.9764,-8.3312,-3.4290,8.9978,-3.9697,-4.1794,-1.9031,-5.0632,-2.0000
304.6875,7.4911,4.8978,-0.0698,4.5560,13.8910,1.9890,2.3447,6.4799,-0.0186,1.4021,1.6385,-4.4547,0.1212,11.6351,-2.7642,-3.0704,0.2659,-0.7178,1.9720
308.5938,11.2831,6.8377,1.2949,5.6041,14.0808,1.1480,1.9941,7.3375,2.5250,1.8477,4.9715,-1.2387,2.9066,12.6231,-0.5082,-1.9491,1.7399,2.6535,5.0593
312.5000,13.6050,5.8973,0.9312,4.2428,11.1842,0.6849,1.5137,6.4490,3.7056,2.8309,5.1249,-0.5086,3.4520,10.4713,1.9546,-1.8347,1.3191,3.3725,5.3088
316.4062,13.3704,2.4592,-1.3978,0.5564,5.2624,0.3201,0.6889,3.4851,2.9693,3.6951,2.0369,-2.6516,1.4875,5.1967,3.7113,-3.1318,-0.9713,1.1507,2.1487
320.3125,10.6218,-1.7667,-4.8454,-4.0464,-2.0919,-0.0814,-0.5274,-0.6658,0.8923,4.1061,-2.5739,-6.4802,-1.9890,-1.5468,3.9572,-5.4268,-3.9449,-2.7503,-3.2517
324.2188,6.6690,-4.7371,-7.9221,-7.6491,-8.5229,-0.3563,-1.8590,-4.3280,-1.2455,4.2674,-6.3546,-10.0563,-5.3662,-7.3592,2.2773,-7.8302,-6.0777,-6.3081,-8.6560
328.1250,3.3999,-5.2898,-9.3154,-8.9453,-12.0601,-0.2417,-2.8209,-5.9738,-2.3292,4.6100,-7.7290,-11.8768,-7.3528,-10.4439,-1.0254,-9.5616,-6.5022,-7.9645,-12.0346
332.0312,2.1847,-3.7960,-8.6027,-7.9459,-12.0081,0.2469,-3.0605,-5.0932,-2.1108,5.2050,-6.6548,-11.6394,-7.6221,-10.5435,-4.8536,-10.3463,-5.4959,-7.4859,-12.6399
335.9375,3.0950,-1.8271,-6.4430,-5.8489,-9.1284,0.6287,-2.6635,-2.4528,-1.2827,5.4070,-4.3430,-10.1624,-6.8344,-8.8771,-7.7466,-10.3899,-4.1774,-5.9279,-11.2539
339.8438,4.9452,-1.0626,-4.1571,-4.2060,-5.0888,0.2090,-2.1422,0.4154,-0.9241,4.1107,-2.2935,-8.6450,-6.1024,-7.1865,-8.6941,-10.0510,-3.6860,-4.8031,-9.5308
343.7500,6.1063,-2.1747,-2.9774,-3.9669,-1.5584,-1.3567,-2.0661,2.1565,-1.7504,0.5494,-1.3915,-7.8625,-6.2841,-6.5865,-7.7995,-9.5319,-4.4403,-5.0773,-8.9265
347.6562,5.5437,-4.4361,-3.4293,-5.0168,0.5304,-3.6208,-2.6023,2.3475,-3.6877,-4.8817,-1.6260,-7.8330,-7.5281,-6.9933,-6.2364,-8.8322,-5.9511,-6.6811,-9.9059
351.5625,3.4203,-6.2980,-5.1852,-6.4488,1.1962,-5.4390,-3.3520,1.5877,-6.0103,-10.4087,-2.4469,-8.0729,-9.2837,-7.4369,-5.4212,-7.9399,-7.2321,-8.7862,-11.8648
355.4688,0.9256,-6.5162,-7.4007,-7.2990,1.0902,-5.6387,-3.6552,0.9084,-7.8608,-13.5591,-3.3272,-8.1209,-10.6857,-6.9237,-5.9548,-7.0213,-7.4510,-10.5178,-13.6965
359.3750,-0.5088,-5.0244,-9.2404,-7.1905,0.9410,-3.8320,-3.1469,0.9609,-8.7419,-12.4477,-4.0579,-7.8801,-11.0329,-5.1685,-7.1452,-6.3946,-6.3679,-11.5037,-14.5367
363.2812,-0.0864,-2.9448,-10.2331,-6.4536,1.1420,-0.7756,-2.1072,1.5808,-8.6633,-6.9368,-4.6373,-7.5608,-10.0893,-2.6947,-7.5294,-6.2844,-4.3372,-11.8778,-14.1883
367.1875,1.9238,-1.7463,-10.2872,-5.7060,1.6991,2.0375,-1.2768,2.0315,-7.9405,1.0537,-4.9893,-7.3625,-8.1006,-0.3204,-6.0376,-6.5764,-1.9829,-11.8574,-13.0291
371.0938,4.4336,-2.1736,-9.4835,-5.2753,2.4722,3.3134,-1.2432,1.7148,-6.8990,8.3430,-4.8550,-7.2288,-5.5999,1.4942,-2.9063,-6.8095,0.1541,-11.3731,-11.5897
375.0000,6.2645,-3.7322,-7.9155,-4.9282,3.4508,2.7745,-1.8886,0.7720,-5.7467,12.0033,-3.9849,-6.9026,-3.1619,2.9179,0.3902,-6.4543,1.7725,-10.1452,-10.1790
378.9062,6.8738,-5.0959,-5.7428,-4.1075,4.8102,1.2769,-2.3897,0.0797,-4.6687,10.7811,-2.4538,-6.2197,-1.2349,4.4677,2.1612,-5.2876,2.7562,-8.1538,-8.8188
382.8125,6.6077,-5.1205,-3.3751,-2.4682,6.7015,0.1516,-1.8372,0.6058,-3.9648,5.6594,-0.7894,-5.3656,-0.0785,6.4578,1.6877,-3.5842,3.0608,-6.0400,-7.4556
386.7188,6.3228,-3.6975,-1.5278,-0.2725,8.9639,0.2626,-0.0178,2.6013,-4.0154,-0.7182,0.2393,-4.8486,0.2325,8.6495,-0.3340,-1.9791,2.6842,-4.9590,-6.1940
390.6250,6.6471,-1.8081,-0.9595,1.6892,11.0311,1.4756,2.2852,5.2663,-5.0282,-5.4194,0.0469,-5.1753,-0.2079,10.3792,-2.4029,-1.0965,1.7345,-5.8465,-5.3069
394.5312,7.4211,-0.7499,-1.9836,2.6138,12.1716,2.9023,3.7747,7.1996,-6.7574,-6.6352,-1.4233,-6.4622,-1.1523,11.0394,-3.3448,-1.2017,0.4869,-8.5917,-4.9970
398.4375,7.7682,-1.1405,-4.1053,2.2571,11.9383,3.6840,3.5870,7.3479,-8.4659,-4.4025,-3.6584,-8.2740,-2.2411,10.5156,-3.0471,-2.0970,-0.6738,-11.7986,-5.1220
402.3438,6.8140,-2.4693,-6.1327,1.1260,10.5070,3.6781,1.9731,5.7709,-9.2519,-0.3232,-5.8374,-9.8195,-3.0953,9.2372,-2.2622,-3.2922,-1.4253,-13.4523,-5.1557
406.2500,4.5650,-3.5369,-6.8102,0.1315,8.6267,3.5057,0.1486,3.6335,-8.5805,3.4761,-7.2060,-10.3864,-3.4497,7.8244,-1.7523,-4.3012,-1.6799,-12.1434,-4.4866
410.1562,2.2507,-3.4287,-5.6120,-0.0582,7.1600,3.9487,-0.6177,2.3965,-6.6734,5.5087,-7.3582,-9.7376,-3.2726,6.6244,-1.5863,-4.8653,-1.6323,-8.0381,-2.8825
414.0625,1.7323,-2.2427,-3.1520,0.5095,6.5027,5.2050,0.0144,2.7762,-4.4657,5.5647,-6.3381,-8.2328,-2.8019,5.4986,-1.2159,-4.9985,-1.6473,-2.8985,-0.7899
417.9688,4.2427,-0.9916,-0.8705,1.1224,6.2917,6.6228,1.1873,4.2387,-3.1082,4.5174,-4.5909,-6.6209,-2.4620,3.9968,-0.2252,-4.8903,-2.0622,0.9109,0.7862
421.8750,9.2913,-0.7533,-0.1513,0.9502,5.6377,7.1470,1.5346,5.4107,-3.3011,3.5010,-2.8169,-5.6449,-2.6826,1.7523,0.9819,-4.7675,-3.0290,1.7896,0.8001
425.7812,14.5905,-1.7592,-1.4382,-0.3114,3.7581,6.1314,0.3144,5.1125,-4.8698,3.0310,-1.7477,-5.6826,-3.6963,-1.2212,1.2604,-4.7960,-4.4712,-0.2486,-1.2149
429.6875,17.2307,-3.1669,-3.9601,-2.1697,0.5899,3.8773,-1.9088,3.2467,-6.8521,2.6551,-1.8560,-6.5947,-5.4082,-4.5330,-0.4045,-5.0334,-6.1464,-3.7558,-4.8097
433.5938,15.4469,-3.7285,-6.2632,-3.6415,-3.0473,1.4652,-3.6058,0.8793,-8.0538,1.3719,-3.0924,-7.8202,-7.3991,-7.6633,-3.9359,-5.4116,-7.7411,-6.8554,-8.7847
437.5000,9.8190,-2.8299,-7.1865,-3.9210,-5.8673,0.0062,-3.4278,-0.5442,-7.7368,-1.4577,-4.8183,-8.6387,-9.0648,-10.2145,-7.9599,-5.7464,-8.9396,-8.3369,-11.7659
441.4062,3.0445,-1.0581,-6.5990,-2.9303,-6.8452,-0.1117,-1.2840,-0.2555,-6.0249,-5.3396,-6.0617,-8.4677,-9.8304,-11.9649,-10.6052,-5.7925,-9.4508,-8.1253,-12.8536
445.3125,-1.6313,0.2013,-5.3834,-1.3584,-5.7727,0.5893,1.4963,1.3038,-3.7840,-8.6085,-6.0275,-7.0726,-9.3496,-12.7329,-10.7267,-5.3512,-9.0264,-6.9349,-11.9800
449.2188,-2.3060,-0.1412,-4.6970,-0.1675,-3.2877,1.1761,3.0846,2.8680,-2.0561,-9.2694,-4.5720,-4.6282,-7.6133,-12.2488,-8.6067,-4.3833,-7.5060,-5.5134,-9.8065
453.1250,0.6171,-1.9432,-5.0606,0.0739,-0.3956,1.0766,2.4902,3.3436,-1.4024,-6.2762,-2.3104,-1.6329,-4.9411,-10.2327,-5.6152,-3.0505,-4.8949,-4.1127,-7.2808
457.0312,4.9860,-3.8221,-5.9501,-0.4485,2.1514,0.5125,0.3137,2.6475,-1.5744,-0.4454,-0.2390,1.2651,-1.8785,-6.6840,-3.1593,-1.6448,-1.4436,-2.5514,-5.1540
460.9375,8.4799,-4.1384,-6.1972,-0.9841,4.1827,0.2692,-1.6561,1.7479,-1.7312,5.6559,0.8897,3.4495,0.9470,-2.1630,-1.8064,-0.4467,2.3213,-0.7120,-3.7387
464.8438,10.0290,-2.2553,-4.9147,-0.8023,5.9630,1.0044,-1.7143,1.8871,-1.0800,8.9244,0.9971,4.4614,2.9692,2.2154,-1.2592,0.3824,5.6627,1.0258,-2.9916
468.7500,10.0940,0.8804,-2.2747,0.2628,7.7509,2.6516,0.5437,3.5904,0.4710,7.4144,0.5913,4.0528,3.7989,5.1804,-1.0773,0.7969,7.8109,1.8280,-2.7817
472.6562,9.7631,3.2993,0.4360,1.6963,9.4493,4.3806,3.9289,6.2174,2.0960,1.5306,0.2315,2.1978,3.3078,5.9146,-1.3850,0.7725,8.2184,0.9211,-3.1065
476.5625,9.5419,3.3168,1.5496,2.6766,10.6242,5.1359,6.4648,8.3884,2.4655,-6.0287,-0.0257,-0.8958,1.6659,4.5071,-2.8403,0.2301,6.7984,-1.8215,-4.0904
480.4688,8.8949,0.6441,0.0584,2.6460,10.8567,4.3432,6.6805,8.9444,0.5842,-11.6135,-0.7276,-4.7707,-0.6883,1.9470,-5.8460,-0.9233,4.0216,-5.6806,-5.7864
484.3750,6.9154,-3.4741,-3.7253,1.6588,10.1235,2.2771,4.4788,7.7121,-3.4599,-12.5212,-2.5474,-8.7412,-3.1587,-0.3627,-9.7303,-2.6439,0.7793,-9.4389,-7.9549
488.2812,3.5120,-7.1215,-8.3121,0.2797,8.8886,-0.1300,1.0449,5.5239,-8.3305,-8.3789,-5.5642,-12.0097,-5.1653,-1.2896,-12.7366,-4.6169,-1.9646,-12.0185,-10.0126
492.1875,0.0254,-8.8785,-11.8575,-0.8512,7.8278,-1.8421,-2.0247,3.5296,-12.0185,-1.2357,-8.8682,-13.8838,-6.3145,-0.4580,-13.0125,-6.2830,-3.5799,-12.9575,-11.2215
496.0938,-1.3812,-8.4475,-13.1164,-1.4370,7.3967,-2.2268,-3.6801,2.3678,-12.8462,5.6493,-10.8559,-14.0171,-6.4924,1.7141,-9.9121,-7.0612,-4.0134,-12.4292,-11.0211
500.0000,0.7901,-6.4022,-11.9488,-1.6243,7.5608,-1.2219,-3.8249,1.8260,-10.3125,9.5851,-10.0907,-12.5455,-5.8393,4.3779,-4.5846,-6.6489,-3.7249,-10.8765,-9.3025
503.9062,6.1243,-3.4418,-9.1493,-1.7591,7.8566,0.8206,-3.0342,1.1880,-5.2864,9.7633,-6.1897,-10.0284,-4.6364,6.7317,0.6739,-5.2033,-3.3552,-8.6072,-6.4687
507.8125,12.3022,0.1237,-5.8307,-2.0459,7.6918,3.3803,-1.9612,-0.0809,0.5204,7.4081,-0.1591,-7.2116,-3.1855,8.3066,3.8637,-3.2795,-3.3429,-5.6817,-3.2598
511.7188,16.4630,4.2345,-2.8343,-2.4107,6.6352,5.8977,-0.9503,-1.8967,5.4295,4.7856,6.0348,-4.7369,-1.7522,8.9445,4.4530,-1.5630,-3.7407,-2.1445,-0.4594
515.6250,16.9918,8.5111,-0.5208,-2.6637,4.5151,7.7905,-0.0844,-3.6944,8.4704,3.7526,10.3891,-2.9478,-0.5785,8.5967,3.4359,-0.5664,-4.3262,1.6490,1.3543
519.5312,14.4646,11.9059,1.0490,-2.7842,1.3562,8.5142,0.5259,-4.9612,9.5158,4.7323,11.7419,-1.8692,0.0992,7.1829,2.3239,-0.4570,-4.8798,4.9415,1.9189
523.4375,11.0992,13.0539,1.8265,-3.0291,-2.6702,7.7726,0.5897,-5.6588,8.9488,6.6662,10.1603,-1.3230,0.0965,4.6615,1.9338,-1.0732,-5.3785,6.8574,1.2717
527.3438,9.1562,11.1708,1.6855,-3.7216,-7.1649,5.7763,-0.1846,-6.1542,7.2354,7.8593,6.7352,-1.0769,-0.6074,1.2420,1.9237,-2.0581,-5.9399,6.8923,-0.3153
531.2500,9.4635,6.8026,0.6051,-4.8724,-11.3730,3.2985,-1.7307,-6.7351,4.7492,7.1139,3.0007,-0.9433,-1.7800,-2.4791,1.3493,-3.0058,-6.5857,5.2551,-2.3954
535.1562,11.0776,1.7521,-1.0839,-5.9798,-14.2403,1.3678,-3.4472,-7.1740,1.8971,4.4419,0.3063,-0.8181,-2.9802,-5.6524,-0.3324,-3.5657,-7.0726,2.7981,-4.4179
539.0625,12.1942,-1.8896,-2.6853,-6.2546,-14.7983,0.7109,-4.4329,-6.7894,-0.7039,0.9762,-0.6220,-0.6986,-3.7672,-7.5645,-2.6990,-3.5266,-7.0000,0.5515,-5.8636
542.9688,11.5158,-2.9664,-3.4745,-5.1873,-12.7407,1.3089,-4.0247,-5.0227,-2.2963,-1.7752,0.1535,-0.7020,-3.9696,-8.0465,-4.6780,-2.8996,-6.1614,-0.8437,-6.4504
546.8750,9.0411,-1.8608,-3.1934,-3.0588,-8.8067,2.4043,-2.2602,-2.0778,-2.3513,-2.8126,1.8804,-1.0541,-3.8295,-7.6059,-5.4056,-1.9677,-4.8542,-1.4426,-6.3189
550.7812,5.8045,-0.0542,-2.3281,-0.9679,-4.6112,2.9963,0.0812,0.9475,-0.9772,-2.1289,3.4395,-1.9994,-3.8920,-7.1491,-4.8644,-1.2193,-3.8407,-1.8582,-6.0493
554.6875,2.9473,0.9998,-1.8952,-0.2623,-1.9002,2.4990,1.9084,2.6410,0.9959,-0.5706,3.8143,-3.6420,-4.6801,-7.4433,-3.7958,-1.1361,-3.9011,-2.7864,-6.4205
558.5938,0.9646,0.8281,-2.8036,-1.6981,-1.6338,1.1001,2.4337,2.2006,2.4006,0.7448,2.5415,-5.8120,-6.3601,-8.6629,-3.0485,-1.9255,-5.2695,-4.5138,-7.9870
562.5000,-0.2995,0.0299,-5.1893,-4.8939,-3.4807,-0.4263,1.5773,0.0232,2.3693,1.0378,-0.0797,-8.0800,-8.6248,-10.3211,-2.9910,-3.3784,-7.3874,-6.7185,-10.7020
566.4062,-1.0481,-0.4763,-8.1951,-8.4817,-6.0698,-1.3004,-0.0659,-2.5105,0.7880,0.1525,-3.1694,-9.9573,-10.8745,-11.6263,-3.4775,-4.9830,-9.2115,-8.6717,-13.8416
570.3125,-0.9969,-0.3754,-10.4010,-10.8867,-7.8405,-1.2738,-1.6226,-3.9310,-1.7403,-1.5577,-5.7722,-11.1727,-12.5625,-12.0059,-4.2839,-6.2442,-9.8912,-9.6929,-16.3212
574.2188,0.5060,-0.2711,-10.6725,-11.2305,-7.9230,-0.7376,-2.4197,-3.6174,-4.3665,-3.5519,-7.3873,-11.8294,-13.4563,-11.4228,-5.4828,-6.9866,-9.3206,-9.5653,-17.2507
578.1250,3.7393,-1.1484,-8.8919,-9.7620,-6.4744,-0.3574,-2.2686,-2.1045,-6.5265,-5.3554,-8.1781,-12.3099,-13.6417,-10.2721,-7.3251,-7.4074,-8.1443,-8.6640,-16.4036
582.0312,7.8937,-3.4423,-6.0814,-7.5537,-4.3065,-0.5426,-1.4535,-0.5682,-8.1472,-6.6142,-8.7250,-12.9812,-13.3123,-8.9615,-9.7353,-7.8341,-7.2066,-7.7350,-14.3133
585.9375,11.1040,-6.4981,-3.8156,-5.7165,-2.1559,-1.1583,-0.5029,0.0901,-9.4353,-7.0370,-9.5139,-13.9176,-12.5534,-7.5205,-11.9796,-8.3860,-6.8790,-7.4735,-11.9420
589.8438,11.3959,-8.8886,-3.2841,-4.7025,-0.1742,-1.6728,0.0985,-0.1448,-10.5016,-6.4149,-10.5495,-14.8555,-11.3222,-5.5602,-12.9717,-8.8338,-6.8048,-8.1507,-10.1336
593.7500,7.9716,-9.3689,-4.5978,-4.1660,1.9991,-1.5907,0.1270,-0.5276,-11.1794,-4.8071,-11.3807,-15.4152,-9.6336,-2.6323,-12.0848,-8.8007,-6.2706,-9.4885,-9.1916
597.6562,1.9182,-7.7473,-6.7694,-3.4158,4.7088,-0.8259,-0.2957,-0.2619,-11.1921,-2.7642,-11.4913,-15.4048,-7.7580,1.2833,-9.7897,-8.1496,-4.8991,-10.8304,-8.8179
601.5625,-4.2274,-5.0205,-8.3575,-2.0627,7.7800,0.2517,-0.7687,0.8051,-10.4907,-1.3235,-10.7242,-14.9474,-6.2031,5.5518,-7.4762,-7.2204,-3.0864,-11.4903,-8.4016
605.4688,-7.8380,-2.6916,-8.3389,-0.3575,10.4751,1.0884,-0.8117,2.0567,-9.4273,-1.6097,-9.3948,-14.3208,-5.4296,9.1205,-6.4761,-6.6692,-1.8016,-11.0855,-7.4369
609.3750,-7.6193,-1.7903,-6.6611,1.0092,11.9512,1.3057,-0.1343,2.6226,-8.5748,-4.1676,-8.0282,-13.6543,-5.5076,11.0761,-7.0353,-6.9857,-1.8904,-9.6953,-5.8046
613.2812,-4.2067,-2.2985,-4.1681,1.4438,11.8376,0.8920,1.1533,2.0906,-8.3279,-8.4320,-6.9737,-12.7683,-6.0188,11.1276,-8.1200,-8.0592,-3.4412,-7.7975,-3.7965
617.1875,0.3673,-3.3364,-2.0228,0.8778,10.4658,0.1419,2.5316,0.8305,-8.6253,-12.7580,-6.2402,-11.3399,-6.3472,9.6718,-8.2994,-9.1687,-5.7350,-6.0425,-1.9419
621.0938,3.8923,-3.8873,-1.0443,-0.2356,8.5788,-0.5487,3.3184,-0.3215,-9.0314,-15.1319,-5.6707,-9.2870,-6.1792,7.4156,-7.0286,-9.4618,-7.8244,-4.9859,-0.7870
625.0000,5.0721,-3.4935,-1.3688,-1.3098,6.7858,-0.8631,3.0597,-0.7341,-9.1067,-14.2247,-5.2488,-7.0387,-5.8131,4.8692,-5.2469,-8.5870,-9.2567,-4.8808,-0.7298
628.9062,3.8937,-2.4541,-2.5602,-2.0415,5.2301,-0.6345,1.8246,-0.4430,-8.7375,-10.1672,-5.1936,-5.3945,-5.9742,2.1205,-4.7139,-6.9867,-10.3220,-5.5870,-1.9051
632.8125,1.2631,-1.4757,-3.9776,-2.5020,3.7402,0.1572,0.1962,-0.0208,-8.1369,-4.5437,-5.6980,-4.9903,-7.1964,-0.9347,-6.5398,-5.5914,-11.5986,-6.6074,-4.0774
636.7188,-1.6369,-1.1110,-5.0874,-2.8513,2.3001,1.3925,-1.0562,0.0239,-7.5317,0.4300,-6.5235,-5.7347,-9.2104,-4.1156,-10.0891,-5.1154,-13.1710,-7.2407,-6.5640
640.6250,-3.7806,-1.3971,-5.5439,-2.9644,1.3774,2.8184,-1.4078,-0.2002,-6.8412,3.0571,-6.8617,-6.6752,-10.8469,-6.6740,-13.2038,-5.4853,-14.2172,-6.8226,-8.3111
644.5312,-4.3955,-1.8814,-5.1051,-2.3498,1.7445,4.1113,-0.8204,0.0449,-5.6769,2.9468,-5.6977,-6.4898,-10.6379,-7.5263,-13.6655,-5.8523,-13.4066,-4.9948,-8.2298
648.4375,-2.9580,-1.9303,-3.5915,-0.4958,3.8608,5.0297,0.3547,1.5462,-3.7023,0.9995,-2.4939,-4.3365,-7.7825,-5.9222,-10.8035,-5.2066,-9.8964,-1.9050,-5.7343
652.3438,0.6268,-1.0810,-1.0115,2.5998,7.2917,5.5793,1.6996,4.4095,-1.0507,-1.3103,2.3075,-0.4969,-2.8264,-2.0968,-6.0101,-3.1468,-4.1863,1.7731,-1.2102
656.2500,5.6857,0.7419,2.2361,6.1620,10.6830,6.0390,2.9994,7.7731,1.5938,-2.8165,7.3897,3.6557,2.4599,2.6031,-1.7651,-0.2279,1.8766,5.0514,3.9372
660.1562,10.6504,3.1807,5.3151,8.9180,12.4213,6.7660,4.2469,10.2374,3.3779,-3.1324,11.2584,6.3865,5.9903,6.2982,0.0714,2.3723,6.0511,7.0114,7.8134
664.0625,13.5336,5.5368,7.2244,9.7960,11.5825,7.8811,5.4235,10.7366,3.8519,-2.5014,13.0618,6.5691,6.5060,7.5515,-0.6029,3.6214,6.9985,7.1837,8.9393
667.9688,12.9714,6.9863,7.2993,8.5765,8.5181,9.0791,6.3044,9.2297,3.2675,-1.2932,12.9597,4.2758,4.2203,6.1300,-2.3653,3.2693,5.0332,5.7250,7.0220
671.8750,9.2404,6.9067,5.6308,6.0273,4.6574,9.7653,6.5289,6.7148,2.3409,0.3669,11.8174,0.6370,0.5729,3.0719,-3.5657,1.9117,1.8136,3.2909,3.1065
675.7812,4.4438,5.2237,3.0858,3.4192,1.6553,9.4708,5.9226,4.5662,1.6655,2.5291,10.5152,-2.8838,-2.7063,0.0288,-3.5859,0.4825,-0.7807,0.6826,-1.0222
679.6875,1.4848,2.5761,0.8603,1.7609,0.4723,8.2482,4.7977,3.6818,1.2635,5.0271,9.4314,-5.2876,-4.5775,-1.6734,-3.0912,-0.4018,-1.7776,-1.5177,-3.8264
683.5938,2.2847,0.1043,-0.1724,1.2898,0.9970,6.7112,3.9120,4.0436,0.6626,7.1822,8.4627,-6.4095,-5.0922,-1.6580,-3.2046,-0.7509,-1.4891,-3.1070,-4.7725
687.5000,6.3753,-1.1238,0.0979,1.5491,2.4034,5.6283,4.0164,4.9526,-0.5568,7.9633,7.4703,-6.7104,-5.0346,-0.4574,-4.4155,-0.9802,-0.9634,-4.1495,-4.3934
691.4062,10.9269,-0.7430,1.0709,1.9328,3.9021,5.3460,5.2794,5.6948,-2.2168,6.5834,6.6863,-6.7459,-5.1479,1.0701,-6.1669,-1.4030,-1.0160,-4.7199,-3.6754
695.3125,12.3984,0.6617,1.9192,2.2426,5.2950,5.4936,7.0375,6.0911,-3.4936,3.1236,6.6822,-6.7340,-5.5330,2.4058,-7.3947,-1.8769,-1.5869,-4.7210,-3.2493
699.2188,8.8605,1.9281,2.1510,2.8154,6.9463,5.2442,8.1271,6.5216,-3.4623,-1.3046,7.9113,-6.4917,-5.6134,3.6565,-7.4471,-1.8842,-1.8560,-3.9292,-2.9758
703.1250,1.4552,2.1132,1.8678,4.1378,9.2551,3.9782,7.6239,7.4514,-1.8222,-5.0416,10.2378,-5.6941,-4.6208,5.3164,-6.5342,-0.9522,-0.9463,-2.2284,-2.1942
707.0312,-6.0826,1.1611,1.5725,6.2773,12.0938,1.8484,5.4836,8.8767,0.7867,-6.7293,12.8907,-4.1859,-2.2019,7.7373,-5.3479,0.9459,1.3630,0.1648,-0.3982
710.9375,-9.6490,-0.0665,1.7156,8.6041,14.6702,-0.2195,2.6150,10.1638,3.1672,-5.9783,14.9290,-2.0996,1.2869,10.7139,-4.2858,3.3265,4.4294,2.6903,2.2129
714.8438,-7.3252,-0.4536,2.3360,10.0605,15.9290,-1.1466,0.3147,10.4324,4.3782,-3.4414,15.8640,0.2650,4.9557,13.4726,-3.0622,5.4956,7.1329,4.6973,4.7449
718.7500,-0.5612,0.4978,3.0514,9.8113,15.1951,-0.4981,-0.5385,9.2070,4.3648,-0.3034,15.9501,2.6486,7.8515,15.0479,-1.1080,6.9548,8.5152,5.8087,6.1789
722.6562,6.8086,2.2637,3.3791,7.8221,12.5985,1.1532,0.0392,6.8472,3.9293,2.4084,15.9260,4.9385,9.3860,14.7827,1.6151,7.6062,8.2204,6.1458,6.0678
726.5625,11.0305,3.7005,3.1251,4.9536,9.0019,2.6105,1.3016,4.4259,4.0850,4.2215,16.4342,7.1069,9.4822,12.6449,4.1886,7.6467,6.5152,6.2497,4.8328
730.4688,10.6772,3.9600,2.5512,2.5014,5.5142,2.9252,2.4120,3.1210,5.3076,5.1356,17.5842,9.0712,8.4389,9.2106,5.2022,7.3059,4.0021,6.7372,3.4448
734.3750,7.1782,3.1950,2.2132,1.4878,2.9417,2.1112,3.0473,3.5299,7.2457,5.2660,18.9645,10.6200,6.6868,5.3828,3.8160,6.6789,1.3068,7.9106,2.7408
738.2812,3.4090,2.4699,2.5990,2.1577,1.5221,1.1467,3.5252,5.3572,9.0575,4.6047,20.0119,11.4764,4.6240,2.0409,0.5533,5.7783,-1.0695,9.5662,2.8874
742.1875,1.5115,2.9154,3.8230,3.9632,1.0469,1.2424,4.4082,7.6571,10.0471,3.1281,20.3775,11.4493,2.5914,-0.2023,-2.8755,4.7084,-2.7482,11.1111,3.3756
746.0938,1.5941,4.7843,5.5636,5.9865,1.2079,2.9124,5.9469,9.4403,10.0814,1.1247,19.9986,10.5614,0.9205,-1.0762,-4.6378,3.7530,-3.4535,11.9053,3.5159
750.0000,2.1800,7.1800,7.2557,7.4879,1.8847,5.5431,7.8220,10.2336,9.5164,-0.6332,18.9194,9.0764,-0.0499,-0.6090,-3.9254,3.2593,-3.0609,11.6166,3.0290
753.9062,1.8589,8.7188,8.3957,8.2398,3.1807,7.7834,9.3718,10.2519,8.8016,-1.1663,17.1492,7.4223,-0.0433,0.9482,-1.3242,3.4021,-1.6701,10.3954,2.2755
757.8125,0.6737,8.6299,8.7756,8.4974,5.2121,8.4663,10.0870,10.1202,8.1648,0.0638,14.7776,6.0582,1.0272,3.1742,1.7917,4.0309,0.3944,8.7904,1.9600
761.7188,0.0636,7.4136,8.5428,8.6963,7.8180,7.3831,9.9558,10.3729,7.6350,2.5744,12.2385,5.3280,2.9437,5.5107,4.2512,4.7447,2.6805,7.4706,2.5466
765.6250,1.4453,6.4819,8.0843,9.1051,10.4008,5.3604,9.3920,11.0692,7.2829,4.8514,10.3657,5.3260,5.1483,7.3148,5.6342,5.1403,4.7273,6.8972,3.8331
769.5312,4.6965,7.0016,7.8083,9.6370,12.0265,3.6283,8.8416,11.7530,7.3345,5.0753,9.9919,5.8091,6.8322,7.9679,6.0406,5.0391,6.1171,7.0926,4.9982
773.4375,7.9270,8.8210,7.9225,9.8942,11.7819,2.9811,8.4219,11.7523,7.9505,2.2337,11.2610,6.2161,7.1656,7.0488,5.4909,4.5207,6.4727,7.6039,5.0875
777.3438,8.8489,10.3632,8.2971,9.3943,9.2462,3.3466,7.8958,10.6124,8.8443,-3.0746,13.1955,5.8501,5.6295,4.5287,3.6793,3.7648,5.5108,7.6869,3.6005
781.2500,6.6630,9.6714,8.4849,7.8553,4.8542,4.0161,6.9747,8.3974,9.1588,-8.7324,13.9973,4.1997,2.3326,0.8996,0.3968,2.8658,3.2293,6.6506,0.7954
785.1562,2.8430,5.9057,7.9210,5.4064,-0.0752,4.2708,5.6586,5.6943,7.8741,-12.1661,12.0547,1.2560,-1.8673,-2.8641,-3.7959,1.7961,0.1348,4.2245,-2.4499
789.0625,0.0327,0.1924,6.2377,2.6240,-3.7518,3.8715,4.2981,3.3287,4.5550,-11.8192,7.0314,-2.3725,-5.5864,-5.5640,-7.4217,0.5448,-2.7263,0.7689,-5.0857
792.9688,-0.1547,-4.8609,3.5401,0.3497,-4.6592,3.0636,3.3203,1.9601,-0.1247,-8.1573,0.2497,-5.6648,-7.4676,-6.2005,-8.8417,-0.7080,-4.1143,-2.8118,-6.3512
796.8750,1.3756,-6.7334,0.4617,-0.6579,-2.2960,2.1880,2.8684,1.7755,-4.5723,-3.5332,-5.9785,-7.6374,-6.8189,-4.3860,-7.4452,-1.5667,-3.2225,-5.4513,-6.0063
800.7812,1.7909,-4.6058,-2.0827,-0.0909,2.4971,1.3181,2.6882,2.4408,-7.1561,-0.8931,-9.6649,-7.7902,-3.9712,-0.5307,-4.2886,-1.6046,-0.2014,-6.4181,-4.2870
804.6875,-1.2770,0.0790,-3.3455,1.7187,7.8732,0.2760,2.3801,3.3177,-7.1842,-2.0216,-10.2098,-6.2841,-0.0968,4.3292,-1.5190,-0.6337,3.8322,-5.6482,-1.7026
808.5938,-7.3822,4.4990,-3.1387,3.9202,11.8578,-1.0007,1.8039,3.8104,-5.2663,-6.3648,-8.5069,-3.7584,3.4449,8.9922,-0.8816,1.1399,7.3944,-3.7106,1.1713
812.5000,-12.9542,6.1919,-1.9174,5.5426,13.3053,-2.1226,1.2663,3.6397,-2.7817,-11.1933,-6.0899,-0.9376,5.8367,12.5897,-2.4236,3.1918,9.4776,-1.4266,3.8232
816.4062,-13.5459,4.5062,-0.4929,5.9575,12.3774,-2.3355,1.2877,2.8954,-0.8672,-13.1033,-4.0249,1.6901,7.1283,14.8373,-4.4416,4.9224,10.0484,0.5964,5.8670
820.3125,-7.1285,0.8444,0.4377,5.1368,10.2655,-1.0608,2.1057,1.8666,0.2883,-10.0341,-2.3875,3.9213,7.9394,15.9098,-4.7768,5.8903,9.8281,2.1939,7.0723
824.2188,4.0458,-2.3884,0.6264,3.5599,8.3538,1.5130,3.3267,0.7919,1.3072,-2.6155,-0.6462,5.6393,8.7722,16.0749,-2.4841,5.8939,9.5312,3.4860,7.3739
828.1250,14.5557,-3.3740,0.2632,1.8508,7.3793,4.3122,4.0592,-0.2822,2.7984,6.0045,1.4673,6.5890,9.4638,15.3801,1.4211,4.9111,9.1722,4.4849,6.8432
832.0312,19.2415,-1.9569,-0.3289,0.4066,7.1220,5.9356,3.4891,-1.4429,4.5694,11.8150,3.3955,6.3596,9.2230,13.6405,4.7138,3.0185,8.0235,4.8219,5.6224
835.9375,16.5192,0.4369,-1.0164,-0.7389,6.7716,5.5536,1.4929,-2.7207,5.5733,12.1389,4.0034,4.6245,7.2516,10.7270,5.6027,0.4022,5.2963,3.8749,3.8641
839.8438,9.1850,1.8867,-1.9185,-1.7609,5.6390,3.4956,-1.1857,-3.9466,4.6845,7.0740,2.4513,1.4656,3.4885,6.9037,3.9721,-2.5588,1.0107,1.2620,1.7241
843.7500,2.1845,1.2790,-3.1701,-2.7691,3.6713,1.0505,-3.3626,-4.8008,1.6923,-0.6791,-1.0237,-2.4818,-1.1165,2.9097,1.2940,-5.2665,-3.6788,-2.6595,-0.5873
847.6562,-0.9113,-1.0372,-4.6116,-3.6555,1.4313,-0.4246,-4.1584,-5.0345,-2.3142,-7.4649,-5.0712,-6.2127,-5.0579,-0.3288,-0.6278,-7.0533,-7.0473,-6.7209,-2.7638
851.5625,-0.0785,-3.6205,-5.7224,-4.1852,-0.3609,-0.4549,-3.5355,-4.6866,-5.5417,-10.7507,-8.0087,-8.7832,-7.1686,-2.1719,-1.0116,-7.4802,-7.8969,-9.4588,-4.4493
855.4688,1.8427,-5.0139,-5.9231,-4.2301,-1.3043,0.2502,-2.2482,-4.0991,-6.6678,-10.3483,-8.8602,-9.7368,-7.3127,-2.5781,-0.4838,-6.6077,-6.3790,-9.9477,-5.3843
859.3750,1.9225,-4.7684,-5.0490,-3.9219,-1.4378,0.3876,-1.2660,-3.6826,-5.7244,-8.0884,-7.9074,-9.2767,-6.3730,-2.0222,-0.3015,-5.0328,-3.8995,-8.3968,-5.5612
863.2812,-0.3449,-3.7246,-3.6095,-3.5784,-0.9794,-0.8857,-1.1108,-3.6008,-4.0219,-6.2965,-6.3944,-8.1032,-5.5497,-1.0861,-1.1807,-3.6260,-2.1462,-6.0706,-5.2549
867.1875,-2.8139,-3.3787,-2.5706,-3.4617,-0.0011,-3.2338,-1.5903,-3.6304,-3.1741,-6.1801,-5.6479,-7.0307,-5.5017,-0.0533,-2.7534,-3.1039,-1.9490,-4.5377,-4.8699
871.0938,-2.8263,-4.7714,-2.7501,-3.5783,1.6084,-5.3262,-2.0867,-3.3376,-3.9550,-7.2239,-6.2609,-6.6065,-5.9670,1.1750,-4.0478,-3.6869,-2.8096,-4.7191,-4.6890
875.0000,0.1627,-7.6545,-4.2432,-3.7015,3.8434,-5.8236,-2.1347,-2.4572,-5.8231,-7.9112,-7.8647,-6.9118,-6.1174,2.7860,-4.4681,-5.0417,-3.4255,-6.3645,-4.7083
878.9062,3.7440,-10.5160,-6.3161,-3.5967,6.2518,-4.4445,-1.8193,-1.1716,-7.4184,-7.1297,-9.5499,-7.6118,-5.3312,4.6555,-4.3444,-6.5182,-2.7701,-8.2976,-4.6973
882.8125,4.2952,-11.4940,-7.8850,-3.2475,7.9730,-2.2990,-1.6947,-0.0408,-7.6119,-5.1587,-10.5515,-8.1924,-3.7588,6.2144,-4.5695,-7.5203,-0.8853,-9.2479,-4.4545
886.7188,-0.0363,-9.6182,-8.2673,-2.8786,8.2438,-1.1940,-2.3132,0.4005,-6.3097,-3.5013,-10.7185,-8.2608,-2.2405,6.7493,-5.6902,-7.7885,1.2015,-8.6938,-4.0618
890.6250,-7.5072,-5.5780,-7.6708,-2.7518,7.0312,-2.3660,-3.7535,0.0757,-4.4598,-3.7169,-10.5191,-7.7654,-1.6583,5.9396,-7.3149,-7.4630,2.3235,-7.1563,-3.9163
894.5312,-13.6390,-1.4815,-7.0544,-2.9192,5.2561,-5.5372,-5.5172,-0.5268,-3.3304,-6.1582,-10.6693,-7.0256,-2.2441,4.2137,-8.3950,-6.9341,2.0881,-5.7759,-4.4704
898.4375,-14.2050,0.3072,-7.4414,-3.1631,4.3275,-8.9845,-6.8580,-0.6969,-3.6384,-9.5691,-11.6593,-6.5328,-3.3801,2.6108,-8.1323,-6.5967,1.1442,-5.4984,-5.8364
902.3438,-8.1425,-1.4319,-9.1546,-3.1801,5.2430,-10.5997,-7.2695,-0.0507,-5.1356,-11.8384,-13.4241,-6.5995,-4.0233,2.2025,-6.6864,-6.6407,0.6371,-6.4302,-7.5387
906.2500,1.7308,-5.9941,-11.5071,-2.8357,7.8992,-9.2266,-6.7561,1.1501,-6.8564,-11.3518,-15.2819,-7.0496,-3.3993,3.4653,-5.0404,-6.9637,1.3227,-7.7713,-8.6224
910.1562,10.6201,-11.0819,-13.1621,-2.2381,11.1461,-5.3682,-5.7083,2.1914,-7.7486,-7.9778,-16.1589,-7.1805,-1.4376,6.0424,-4.1438,-7.2297,3.0485,-8.3260,-8.0971
914.0625,14.7774,-14.0551,-12.9217,-1.5432,13.5743,-0.8108,-4.5298,2.4910,-7.2234,-3.0506,-15.0582,-6.1052,1.3303,9.0403,-4.1113,-7.0458,4.9652,-7.2273,-5.4732
917.9688,13.4751,-13.3465,-10.4358,-0.6751,14.4511,2.5355,-3.3482,2.1165,-5.3371,1.5307,-11.6400,-3.3464,4.2324,11.6113,-4.2018,-6.1860,6.2261,-4.4282,-1.0847
921.8750,8.7659,-9.2162,-6.4022,0.7239,14.0946,3.7687,-2.0423,1.7927,-2.6445,4.3681,-6.6456,0.6714,6.8415,13.3797,-3.5865,-4.7564,6.5672,-0.7170,3.9795
925.7812,3.6171,-3.4677,-2.1862,2.9701,13.4156,3.3651,-0.5304,2.3383,0.0517,5.0827,-1.8401,4.6014,8.9745,14.4280,-2.1866,-3.2015,6.3150,2.6739,8.2888
929.6875,0.0745,1.5991,0.8557,5.8463,13.0197,2.6290,0.9647,3.9410,1.9049,4.0985,0.6841,6.7480,10.3915,14.9284,-0.7849,-2.1139,5.8899,4.6022,10.6128
933.5938,-1.2756,4.3039,1.9401,8.3755,12.6191,2.7055,1.9408,5.8481,2.2002,2.0902,-0.3959,5.9636,10.5750,14.7853,-0.2859,-1.9249,5.2958,4.4277,10.3490
937.5000,-0.6109,4.1513,1.0460,9.1797,11.2574,3.8739,1.9478,6.7726,0.5859,-0.3593,-4.7523,2.3354,8.9050,13.6182,-0.8026,-2.6588,4.0759,2.1822,7.6865
941.4062,1.9455,1.6827,-1.2611,7.3019,8.1754,5.5482,0.9665,5.7660,-2.6764,-2.6904,-10.3812,-2.7932,5.1710,11.1091,-1.4567,-3.9191,1.7796,-1.4928,3.4840
945.3125,6.2858,-2.0750,-4.1682,2.9567,3.6116,6.8514,-0.4891,2.9286,-6.6438,-4.1769,-14.6154,-7.5209,0.0064,7.4113,-1.1582,-5.1443,-1.4706,-5.5763,-1.0633
949.2188,11.5283,-6.0969,-6.9039,-2.3770,-1.1485,7.2422,-1.6639,-0.5832,-9.9930,-4.0517,-15.6503,-10.3945,-5.1859,3.2569,0.2795,-5.9718,-4.8276,-9.0022,-4.8482
953.1250,15.5459,-9.5370,-8.8908,-6.6862,-4.5614,6.7366,-2.0533,-3.2831,-11.6424,-2.0453,-13.6210,-11.1018,-8.8803,-0.3639,1.7202,-6.4561,-7.1571,-11.0270,-7.2276
957.0312,15.7579,-11.7014,-9.7946,-8.5506,-5.8625,5.6662,-1.7251,-4.2956,-11.3513,1.0778,-10.4750,-10.4474,-10.2486,-2.7287,1.4755,-6.9702,-7.7487,-11.5092,-8.2087
960.9375,10.9706,-12.0872,-9.5428,-7.9151,-5.5397,4.3079,-1.2215,-3.8355,-9.8762,3.5887,-8.6682,-9.6851,-9.5829,-3.7283,-1.2702,-7.8499,-6.7561,-10.9528,-8.3489
964.8438,2.8694,-10.6079,-8.3362,-5.9847,-4.8717,2.7664,-1.1108,-2.9063,-8.5161,3.6871,-9.5364,-9.6906,-8.0151,-3.7934,-5.5565,-9.0476,-5.0395,-10.2405,-8.3965
968.7500,-4.3048,-7.8331,-6.6217,-4.3396,-4.8969,1.1899,-1.5339,-2.4894,-8.3002,0.7360,-12.4484,-10.5144,-6.7439,-3.4958,-9.0954,-10.0746,-3.5531,-10.1526,-8.8445
972.6562,-6.1106,-4.9275,-4.9921,-3.9190,-5.6300,0.0292,-2.1042,-2.8628,-9.3515,-4.0600,-15.3079,-11.5361,-6.3270,-3.1582,-9.8212,-10.3072,-2.7593,-10.9272,-9.6566
976.5625,-0.8568,-3.1582,-4.0193,-4.5850,-6.1370,-0.0319,-2.2429,-3.5421,-10.8526,-8.1663,-16.0274,-12.0116,-6.5226,-2.7635,-7.3586,-9.4507,-2.4876,-12.1389,-10.3483
980.4688,8.9687,-3.2007,-4.0730,-5.5034,-5.3795,1.4464,-1.6869,-3.8141,-11.6251,-9.2136,-13.9261,-11.5783,-6.7184,-2.1772,-3.2556,-7.8174,-2.2743,-12.9885,-10.3831
984.3750,17.9854,-4.7144,-5.1843,-5.9466,-3.1222,4.1221,-0.7553,-3.3667,-10.9110,-6.4986,-10.1058,-10.3958,-6.5407,-1.4280,0.1942,-6.1931,-1.8412,-12.8303,-9.6155
988.2812,21.2029,-6.5286,-6.9957,-5.8361,-0.1546,6.7924,-0.1345,-2.4753,-8.8281,-1.4227,-6.6309,-8.9276,-6.1410,-0.7643,1.5816,-5.3692,-1.3087,-11.5907,-8.4537
992.1875,17.1088,-7.3601,-8.8223,-5.6122,2.3491,8.0045,-0.3182,-1.6223,-6.2310,3.4723,-5.1807,-7.6193,-5.9614,-0.4246,1.1720,-5.6610,-1.0114,-9.7987,-7.5963
996.0938,8.4802,-6.5863,-9.8394,-5.6127,3.7956,7.0290,-1.1305,-0.9309,-4.1375,6.1905,-6.1340,-6.7341,-6.2319,-0.3414,0.3005,-6.7468,-1.1358,-8.2171,-7.5102
1000.0000,0.4385,-4.5527,-9.3831,-5.5631,4.6575,4.4895,-1.7330,0.0395,-3.1448,6.4722,-8.6142,-6.3902,-6.6655,-0.0778,-0.0088,-7.9248,-1.5262,-7.3406,-8.0320
1003.9062,-2.8301,-2.2386,-7.2812,-4.6758,6.0628,2.0893,-1.1745,1.9043,-3.1989,5.6449,-11.2692,-6.6456,-6.6300,0.8960,0.0401,-8.5790,-1.8202,-7.1117,-8.4073
1007.8125,-0.4517,-0.5733,-4.0484,-2.3198,8.8140,1.5122,0.8759,4.7799,-3.7773,5.3133,-13.0837,-7.4617,-5.6530,2.7824,-0.6529,-8.5137,-1.7615,-7.0377,-7.7714
1011.7188,5.1024,0.0861,-0.7740,1.2990,12.6354,3.2301,3.7480,7.9250,-4.2654,5.9476,-13.6618,-8.5540,-3.8249,5.2443,-2.8402,-7.9421,-1.3820,-6.5896,-5.7376
1015.6250,10.0595,-0.0093,1.3446,5.0646,16.2737,6.1034,6.0691,10.0822,-4.2404,6.4983,-12.9738,-9.3164,-1.7423,7.6082,-5.9151,-7.1922,-0.8836,-5.5705,-2.6610
1019.5312,11.8627,-0.3602,1.6422,7.6269,18.3930,8.1416,6.5992,10.3346,-3.5356,5.3546,-11.0143,-8.9996,-0.0207,9.3565,-8.0809,-6.4009,-0.3447,-4.1836,0.6206
1023.4375,10.4904,-0.5947,0.4404,8.3496,18.5628,7.9332,5.0652,8.8318,-2.1573,1.9022,-7.7957,-7.1158,1.2225,10.5276,-7.6175,-5.4429,0.4480,-2.7736,3.3761
1027.3438,7.9709,-0.5484,-1.0145,7.7894,17.5542,5.7163,2.4175,6.7847,-0.2032,-2.5648,-3.6654,-3.8078,2.4714,11.6883,-4.1991,-4.1238,1.8409,-1.4734,5.4515
1031.2500,6.7630,-0.0723,-1.1879,7.2959,16.7041,3.2671,0.2990,5.6704,2.1473,-5.3677,0.4711,0.1193,4.3864,13.4612,0.8411,-2.4418,3.9319,-0.0493,7.2639
1035.1562,8.2411,1.1317,0.8494,7.9985,16.8392,2.6334,0.0419,6.2036,4.6206,-4.1293,3.4183,3.5916,7.1680,15.9445,5.5111,-0.6737,6.2938,1.9198,9.3279
1039.0625,12.1382,3.3787,4.8025,9.9314,17.5919,4.6081,1.8349,7.8338,6.8969,1.5309,4.4041,5.8566,10.2235,18.4642,8.5676,0.7993,8.0854,4.6593,11.6948
1042.9688,16.9700,6.6281,9.2224,11.9585,17.6346,8.0709,4.6024,9.1457,8.7204,9.4939,3.7134,6.8773,12.4375,19.8745,10.1604,1.7840,8.5295,7.9014,13.7598
1046.8750,20.8878,10.2218,12.2637,12.5584,15.6520,10.7164,6.6716,8.8592,9.9865,16.2216,2.6623,7.2630,12.8877,19.2242,11.2429,2.4400,7.4321,10.9040,14.6138
1050.7812,22.4153,13.0619,12.6871,10.8893,11.3259,10.6664,6.7925,6.6916,10.7197,18.7450,2.7979,7.7957,11.5010,16.3488,12.3823,3.1707,5.3588,12.7920,13.6934
1054.6875,20.8806,14.2057,10.4989,7.3573,5.6287,7.8035,4.8583,3.4701,10.9623,16.3099,4.8308,8.8930,9.1688,12.0023,13.1189,4.3150,3.3289,13.0050,11.2405
1058.5938,16.6182,13.4621,6.8502,3.3088,0.2575,3.8534,1.8863,0.4750,10.6927,10.7045,8.0810,10.3674,7.2208,7.4632,12.5023,5.8729,2.2359,11.5768,8.2158
1062.5000,10.9687,11.5093,3.2992,0.1221,-3.3442,1.1636,-0.6795,-1.4388,9.8782,5.1672,10.8826,11.6114,6.6118,3.8901,10.3223,7.4746,2.3891,9.0966,5.7120
1066.4062,5.9410,9.4073,0.9377,-1.6157,-4.6946,1.0821,-1.8589,-2.2800,8.6369,2.6132,11.6957,12.0332,7.3645,1.8269,7.8433,8.6155,3.4541,6.4123,4.2833
1070.3125,3.4513,7.8756,-0.0715,-2.2877,-4.3137,3.1188,-1.6408,-2.6581,7.3481,4.2140,10.1460,11.4237,8.6236,1.1054,7.2045,8.9840,4.7682,4.2740,3.6630
1074.2188,4.3761,6.9144,-0.3194,-2.7497,-3.2050,5.4609,-0.8246,-3.1299,6.5539,9.0117,7.2656,10.0343,9.2480,1.1112,9.8003,8.6517,5.7570,3.1002,3.0526
1078.1250,7.9780,6.0713,-0.5541,-3.6170,-2.2356,6.3994,-0.3732,-3.7300,6.6550,14.5955,4.7887,8.3761,8.5259,1.1810,14.9236,8.0029,6.1718,2.9290,1.7489
1082.0312,12.1974,5.0945,-1.1305,-4.8803,-1.8073,5.5613,-0.7537,-4.0420,7.5917,18.3477,4.0200,6.9223,6.5534,0.8921,19.8798,7.4690,6.0558,3.4954,-0.3495
1085.9375,14.7751,4.3567,-1.8761,-6.0615,-1.8921,4.0405,-1.6997,-3.6724,8.7618,18.6135,5.0541,5.9048,4.0819,0.1499,21.6610,7.2586,5.5659,4.3433,-2.6977
1089.8438,14.5482,4.6053,-2.3934,-6.6746,-2.2257,3.3952,-2.4953,-2.6555,9.2822,15.3261,6.8154,5.2756,1.9940,-0.8776,19.0037,7.2518,4.8374,4.9335,-4.5143
1093.7500,12.0641,6.1879,-2.4958,-6.5665,-2.4427,4.3486,-2.5231,-1.4217,8.4583,9.9176,7.8018,4.7843,0.7778,-1.8821,13.2866,7.1066,3.9723,4.7694,-5.3186
1097.6562,9.0926,8.4201,-2.4116,-5.8987,-2.1261,6.2180,-1.6711,-0.3784,6.1675,4.6120,6.9777,4.0973,0.3154,-2.5426,7.5837,6.4892,3.0837,3.5606,-5.2135
1101.5625,7.3943,9.7391,-2.6062,-4.8852,-0.9034,7.4909,-0.3448,0.4816,2.9196,1.3980,4.2680,2.9273,0.0609,-2.6543,4.5881,5.2804,2.2896,1.3758,-4.7563
1105.4688,7.6106,8.6834,-3.3875,-3.5993,1.3330,7.0473,0.8592,1.5564,-0.4260,1.1092,0.4566,1.1661,-0.5610,-2.2411,4.9491,3.6494,1.6359,-1.3223,-4.5619
1109.3750,9.0069,5.0219,-4.6232,-2.0484,4.2058,5.0384,1.5353,3.1868,-3.0913,3.0511,-3.3129,-1.0169,-1.8048,-1.5875,7.1771,1.9693,1.0403,-3.8430,-4.9469
1113.2812,10.1342,0.1259,-5.7986,-0.4137,6.8830,2.7294,1.6338,5.1841,-4.6992,5.4109,-6.0791,-3.1945,-3.4928,-1.1224,9.0138,0.6279,0.3534,-5.5968,-5.8369
1117.1875,9.8321,-3.8112,-6.3718,0.8412,8.4773,1.4617,1.3419,6.7925,-5.3419,6.2952,-7.3950,-4.8697,-5.1556,-1.1685,9.0826,-0.1653,-0.4768,-6.4117,-6.9300
1121.0938,7.8604,-5.2245,-6.1520,1.1898,8.6236,1.5852,0.8489,7.1948,-5.4280,4.8331,-7.3967,-5.7603,-6.2940,-1.6886,7.5638,-0.4805,-1.2752,-6.6216,-7.9226
1125.0000,4.8490,-4.2431,-5.4097,0.4816,7.8206,2.2226,0.2249,6.1962,-5.4416,1.6717,-6.6706,-5.9841,-6.5865,-2.2088,5.5605,-0.6130,-1.6818,-6.8284,-8.6028
1128.9062,1.8083,-2.5493,-4.6346,-0.7525,7.2218,2.0484,-0.4909,4.5266,-5.7297,-1.4841,-5.9836,-5.9649,-5.9378,-2.0085,3.9106,-0.8845,-1.3655,-7.4508,-8.7729
1132.8125,-0.3331,-2.0935,-4.1196,-1.4362,7.9434,0.4485,-1.1065,3.4688,-6.3662,-3.0106,-5.9297,-6.0679,-4.3869,-0.4917,2.5523,-1.3967,-0.2491,-8.3455,-8.1319
1136.7188,-0.9113,-3.6086,-3.6848,-0.5123,10.3432,-1.8752,-1.2175,4.0419,-7.1018,-2.4163,-6.6039,-6.2135,-1.9840,2.4781,0.9286,-1.8917,1.4425,-8.7778,-6.2958
1140.6250,0.4532,-6.0366,-2.7568,2.4106,13.7784,-3.3466,-0.3874,6.3259,-7.4305,-0.5654,-7.4864,-5.8011,1.2372,6.4813,-1.0689,-1.8433,3.3524,-7.8144,-3.0143
1144.5312,3.7509,-7.3048,-0.7681,6.7642,17.0138,-2.6698,1.5258,9.4160,-6.7966,1.0897,-7.6819,-4.0851,5.1504,10.7248,-2.5963,-0.7789,5.2259,-4.9304,1.5375
1148.4375,8.3644,-5.8643,2.3884,11.2780,18.9757,0.1928,4.1536,12.0222,-4.9039,1.6921,-6.4602,-0.7990,9.3658,14.3676,-2.3482,1.3347,6.9893,-0.4505,6.6109
1152.3438,13.0053,-1.8358,6.1639,14.6138,19.3017,3.9575,6.7139,13.2569,-1.9695,1.6647,-3.7929,3.4200,13.1552,16.7866,0.3230,3.8946,8.5949,4.4834,11.0419
1156.2500,16.0900,3.0790,9.5619,15.9701,18.3278,6.8951,8.4015,13.0538,1.2715,2.3299,-0.4981,7.1784,15.6031,17.6706,4.6236,5.8365,9.7875,8.4419,13.6906
1160.1562,16.4915,6.8127,11.6340,15.3174,16.6115,7.9544,8.8179,11.9791,3.8891,4.7107,2.1765,9.0302,15.9744,16.9809,8.5891,6.1460,10.0615,10.4367,13.9494
1164.0625,14.1939,8.3233,11.9575,13.2098,14.4389,7.2994,8.1385,10.6732,5.2579,8.4262,3.3145,8.3126,14.1169,14.8945,10.2683,4.4382,8.9411,10.4094,12.0401
1167.9688,10.3320,8.1233,10.8022,10.3851,11.7306,5.9252,6.8990,9.3965,5.4109,11.5989,2.9305,5.5538,10.6406,11.7981,8.9362,1.2569,6.4247,9.1793,8.9177
1171.8750,6.5267,7.6144,8.8998,7.4402,8.3814,4.7542,5.5722,8.0013,4.9772,11.9746,1.9728,2.1701,6.7085,8.2865,5.4515,-2.1198,3.2307,7.8933,5.8114
1175.7812,3.9907,7.8296,6.9849,4.7282,4.6773,3.9811,4.2656,6.2653,4.7167,8.5461,1.6944,-0.3480,3.5068,5.0620,1.5733,-4.2886,0.5641,7.3353,3.6385
1179.6875,3.0675,8.6002,5.4147,2.4285,1.3686,3.1676,2.7780,4.2400,4.9666,2.5252,2.7996,-1.2251,1.6836,2.7068,-1.1597,-4.4165,-0.5297,7.5302,2.6066
1183.5938,3.4755,8.7820,4.1072,0.6454,-0.7190,1.9249,0.9623,2.3083,5.4106,-3.1009,4.9416,-0.6783,1.0955,1.4356,-2.1479,-2.6395,0.1869,7.8664,2.2206
1187.5000,4.8884,7.3059,2.8001,-0.5611,-1.2376,0.5201,-0.9200,0.9320,5.3485,-5.2454,6.8976,0.4151,1.0178,1.0097,-1.6680,0.0405,1.9627,7.6074,1.6847
1191.4062,7.1840,4.1835,1.4062,-1.1982,-0.5769,-0.1799,-2.1842,0.3380,4.2661,-2.5878,7.2906,1.1441,0.6749,0.9094,-0.3269,2.2768,3.5111,6.4125,0.4528
1195.3125,10.0625,0.6592,0.1770,-1.3528,0.3970,0.5674,-2.1255,0.4122,2.2629,3.5595,5.3849,1.0302,-0.2676,0.6744,1.3615,3.0150,3.8084,4.5156,-1.4103
1199.2188,12.4599,-1.6024,-0.4630,-1.1550,0.9282,2.5845,-0.5756,0.8572,0.0036,9.9302,1.4858,0.0890,-1.5683,0.1800,2.9574,1.9227,2.6925,2.4813,-3.2834
1203.1250,12.5761,-1.6644,-0.2844,-0.7253,0.8265,4.6212,1.8157,1.4324,-1.7642,13.0953,-3.2235,-1.4100,-2.6922,-0.3484,3.8569,-0.5615,0.8578,0.7691,-4.4228
1207.0312,8.9256,0.0574,0.4751,-0.1531,0.4576,5.0816,3.8407,2.0568,-2.7355,11.2757,-7.2318,-3.1884,-3.2642,-0.5838,3.3062,-3.5167,-0.7099,-0.5452,-4.4822
1210.9375,1.8382,2.1189,1.1847,0.4875,0.3270,3.1587,4.4219,2.7206,-3.1941,5.1578,-9.3087,-5.0053,-3.3404,-0.4049,0.8620,-5.9747,-1.4154,-1.6936,-3.7611
1214.8438,-5.8596,3.0337,1.2286,1.1216,0.6434,-0.4623,3.2813,3.3504,-3.6722,-2.6329,-8.9191,-6.5549,-3.2998,-0.0097,-3.0342,-7.2913,-1.3525,-2.8845,-3.0011
1218.7500,-9.9415,2.1938,0.4683,1.6940,1.2313,-3.9075,1.1286,3.8090,-4.4228,-8.9563,-6.3618,-7.4287,-3.4656,0.2567,-6.9505,-7.3133,-1.0432,-4.0178,-2.8629
1222.6562,-7.3361,0.1284,-0.6030,2.2054,1.8322,-5.2705,-0.7836,4.0448,-5.1601,-11.6265,-2.6539,-7.2768,-3.7776,0.2187,-9.1012,-6.3184,-0.8825,-4.6998,-3.4516
1226.5625,1.4869,-1.9634,-1.1703,2.7134,2.4819,-3.8442,-1.4477,4.2253,-5.2992,-10.2082,0.8055,-6.0694,-3.7873,0.0714,-8.3770,-4.7933,-0.7615,-4.5538,-4.2345
1230.4688,12.1517,-2.9802,-0.6827,3.2754,3.5897,-0.5762,-0.7054,4.6697,-4.4953,-5.9096,2.7483,-4.2060,-2.9831,0.2982,-5.0377,-3.1712,-0.1646,-3.5619,-4.4112
1234.3750,18.6581,-2.4602,0.7089,3.8870,5.6208,2.5601,0.7306,5.5875,-3.0160,-0.8134,2.5842,-2.3101,-1.1832,1.3691,-0.5454,-1.6564,1.3630,-2.1387,-3.4684
1238.2812,17.0442,-0.6554,2.2092,4.4971,8.6509,3.8353,1.8297,6.8436,-1.6012,3.0921,0.7262,-0.8189,1.3236,3.4540,3.3348,-0.2160,3.7807,-0.8440,-1.5058
1242.1875,8.0171,1.7395,2.9309,5.1147,12.1936,2.8169,1.9681,7.9933,-0.8891,4.6716,-1.5528,0.3151,3.9969,6.3578,5.4955,1.2696,6.5071,0.0519,0.9040
1246.0938,-3.3117,3.9282,2.5585,5.9078,15.4686,0.5396,1.3238,8.6099,-0.8628,3.9600,-2.7517,1.5481,6.4410,9.6890,5.8531,2.8115,8.7906,0.7997,3.1967
1250.0000,-10.5062,5.2593,1.6289,7.1451,17.8946,-1.2452,0.6912,8.6416,-0.7871,1.9950,-1.9500,3.3273,8.6427,13.0800,4.9949,4.2183,10.1842,1.9887,5.2433
1253.9062,-9.6736,5.3997,1.1839,8.9420,19.3848,-1.1831,0.8747,8.4627,0.2733,0.2669,0.6993,5.6578,10.8493,16.2584,3.5576,5.1931,10.7460,4.0632,7.3630
1257.8125,-1.5700,4.4930,2.0131,10.9688,20.1890,0.9281,2.1002,8.5205,2.7249,0.0164,4.1242,8.0132,13.1833,18.9321,1.9084,5.5623,10.8339,6.9000,9.8960
1261.7188,9.3125,3.2381,4.0224,12.3937,20.4308,4.1427,3.8371,8.8450,6.0659,1.6870,7.0394,9.6790,15.3234,20.6520,0.3083,5.4597,10.7043,9.7800,12.6814
1265.6250,17.8145,2.7147,6.2015,12.2255,19.7715,6.9996,5.1219,8.8661,9.1553,4.7982,8.7147,10.2628,16.5472,20.8615,-0.7748,5.2931,10.2788,11.7955,14.8940
1269.5312,21.0888,3.8800,7.2458,9.9190,17.5482,8.3128,5.1384,7.7702,10.9415,8.2986,9.2802,9.9591,16.1523,19.1790,-0.6731,5.4765,9.2750,12.4006,15.4397
1273.4375,19.5701,6.9367,6.4118,5.8469,13.3292,7.6640,3.6736,5.1824,11.1145,11.1779,9.4002,9.3542,13.9662,15.7292,1.0359,6.1022,7.5730,11.7017,13.6686
1277.3438,15.6748,10.9929,4.0087,1.2509,7.4516,5.4343,1.1976,1.6367,10.2127,12.9403,9.6291,8.9316,10.5605,11.2411,4.0228,6.8137,5.4781,10.2837,9.8923
1281.2500,11.6211,14.3501,1.1810,-2.3809,1.0798,2.5075,-1.4192,-1.5943,9.1374,13.6372,9.9792,8.6868,6.9928,6.7766,7.1623,7.0119,3.6239,8.7259,5.3010
1285.1562,8.1592,15.3558,-0.8576,-4.1302,-4.3111,-0.1166,-3.3308,-3.2536,8.4654,13.4902,10.0127,8.1655,4.2394,3.2394,9.1106,6.2787,2.5691,7.1968,1.3122
1289.0625,4.9714,13.3281,-1.5911,-4.0961,-7.6609,-1.6383,-4.0347,-2.8971,8.0728,12.4651,9.3153,6.8923,2.7114,1.0024,9.1006,4.7140,2.4132,5.4426,-1.1958
1292.9688,2.0071,8.9496,-1.4343,-3.1431,-8.7266,-1.6646,-3.4644,-1.1185,7.3237,10.2171,7.8996,4.8318,2.1756,-0.0841,7.3290,2.9141,2.7523,3.1660,-2.2267
1296.8750,0.2988,3.8628,-1.2910,-2.1371,-7.8958,-0.3086,-1.8878,0.9846,5.6424,6.5274,6.1912,2.5058,2.0978,-0.3366,4.6404,1.5825,3.0270,0.4753,-2.3738
1300.7812,1.3992,-0.2491,-1.7871,-1.2526,-5.6374,1.8544,0.2751,2.6862,3.0285,1.9004,4.6474,0.6725,2.1175,0.1516,1.8242,1.0455,2.9846,-1.9785,-2.1723
1304.6875,5.8940,-2.4739,-2.7514,0.0963,-2.1087,4.0165,2.6133,4.1409,0.1470,-2.2427,3.3994,-0.1742,2.2800,1.5854,-0.8332,1.0373,2.8774,-3.3214,-1.6402
1308.5938,12.3298,-2.8760,-3.3270,2.6278,2.7114,5.4997,4.8144,6.1027,-2.0456,-4.1214,2.2628,-0.1041,2.8549,4.1396,-3.3707,0.9244,3.2187,-3.0267,-0.3921
1312.5000,17.6164,-2.0869,-2.6379,6.3444,8.4795,6.0655,6.6699,9.0702,-2.8644,-2.6933,1.0903,0.3510,3.9012,7.4914,-5.6035,0.2015,4.2755,-1.3340,1.7689
1316.4062,18.7706,-0.7220,-0.5363,10.1510,14.0567,5.9550,8.0053,12.5664,-2.2843,1.4203,0.0817,0.5730,4.9468,10.6329,-6.8546,-1.1201,5.7015,0.7845,4.2831
1320.3125,14.7733,0.8859,2.1004,12.3010,17.6949,5.5978,8.5826,15.1876,-0.9463,5.9187,-0.3211,0.1936,5.0804,12.2114,-6.3730,-2.5308,6.6245,2.0987,5.8188
1324.2188,7.2027,2.5067,3.7581,11.4246,17.8790,5.1861,8.0648,15.4627,0.1790,7.9201,0.0756,-0.8244,3.4625,11.2520,-4.1548,-3.4212,6.1702,1.7403,4.9394
1328.1250,-0.7621,3.6968,3.1435,7.4449,14.3143,4.4606,6.1377,12.9134,0.2613,5.6197,0.7959,-2.3236,-0.0558,7.8049,-1.3745,-3.5382,4.0758,-0.3945,1.0611
1332.0312,-6.1838,3.7839,-0.0055,1.7552,8.3502,2.9307,2.7909,8.5165,-1.0067,-0.5055,0.8336,-4.0907,-4.6202,3.0719,0.1580,-3.1331,0.9717,-3.6466,-4.9524
1335.9375,-7.7581,2.2887,-4.6446,-3.4663,2.4600,0.4119,-1.3949,4.1963,-3.2581,-7.7516,-0.6069,-5.8482,-8.6207,-1.1093,-0.7225,-2.6941,-1.8725,-6.9304,-11.0090
1339.8438,-5.9632,-0.5405,-8.8603,-6.3512,-0.9676,-2.5449,-5.2139,1.6919,-5.5773,-12.5542,-3.3061,-7.1673,-10.4128,-3.1260,-3.5024,-2.5011,-3.1850,-9.1853,-14.7508
1343.7500,-2.1877,-3.5979,-10.7957,-6.1759,-0.8083,-4.7496,-7.2319,1.5871,-6.8669,-12.3907,-5.8815,-7.5106,-9.1328,-2.2993,-6.1473,-2.3837,-2.3313,-9.7341,-14.7126
1347.6562,2.2649,-5.4368,-9.5785,-3.5096,2.3477,-5.0514,-6.5165,3.1389,-6.3372,-7.1075,-6.5752,-6.5136,-5.1597,0.9300,-6.5056,-1.8925,0.3979,-8.4601,-11.0135
1351.5625,6.5514,-5.1402,-5.7678,0.2637,6.6821,-3.1794,-3.3001,4.9323,-3.9141,1.0729,-4.4961,-4.3435,0.0392,5.3595,-3.9530,-0.7403,3.9649,-5.8035,-5.2226
1355.4688,10.0260,-2.9078,-1.0851,3.6502,10.1997,-0.1130,0.9090,5.8173,-0.3401,8.7983,-0.3805,-1.8054,4.6016,9.6377,0.0381,0.8635,7.0804,-2.6008,0.4691
1359.3750,11.9251,0.1087,2.4422,5.5807,11.6833,2.3832,3.9822,5.4673,3.1476,13.2924,3.7836,0.0135,7.1386,12.7702,2.9486,2.2827,8.7369,0.2144,4.2735
1363.2812,11.5374,2.6229,3.4937,5.6333,11.0585,2.8373,4.3104,4.2848,5.4367,13.5440,6.0740,0.4089,7.3211,14.3191,3.1314,2.8950,8.5472,1.9856,5.4968
1367.1875,8.8075,4.0611,2.0992,4.0370,9.1123,1.0483,1.7539,2.8997,6.1114,10.4196,5.9366,-0.4351,5.8915,14.3267,1.0902,2.5569,6.7983,2.6267,4.6231
1371.0938,4.7726,4.7863,-0.4356,1.5769,6.8867,-1.7436,-2.2336,1.7473,5.6081,5.8350,4.4731,-1.5243,4.1282,13.1313,-0.9385,1.7155,4.2562,2.6450,2.8650
1375.0000,1.2616,5.5463,-2.2942,-0.6001,5.1597,-3.6654,-5.4498,1.0155,4.8313,1.6257,3.4773,-1.7368,3.0889,11.2066,-0.8209,1.0684,1.8279,2.8102,1.4870
1378.9062,-0.1144,6.6270,-2.1867,-1.3540,4.2415,-3.4704,-6.2528,0.8517,4.4783,-1.2064,3.9615,-0.6459,3.0742,9.0539,1.6732,1.0356,0.2036,3.6240,1.2465
1382.8125,1.0012,7.4438,-0.0680,-0.0543,4.0607,-1.3725,-4.4949,1.4942,4.5511,-2.5704,5.3337,1.1369,3.6049,7.1066,4.5722,1.4555,-0.3912,4.9296,2.1696
1386.7188,3.4423,6.9433,2.8897,3.0297,4.3672,1.1356,-1.4743,3.1191,4.4139,-2.8610,5.8883,2.3928,3.8859,5.6299,5.1969,1.7369,-0.2300,5.9720,3.6972
1390.6250,5.2805,4.5146,5.0488,6.7584,4.9019,2.3504,1.0267,5.5333,3.3611,-2.4622,4.2360,2.2087,3.4248,4.6577,2.2986,1.3340,0.1251,5.9246,5.0725
1394.5312,5.0972,0.6626,5.3101,9.6626,5.4732,1.5427,1.9245,8.0450,1.2603,-1.5311,0.5436,0.6929,2.3807,4.0160,-2.8455,0.1676,0.1779,4.5395,5.7508
1398.4375,2.8761,-3.1429,3.7295,10.7110,5.9516,-0.5826,1.4099,9.7207,-1.2356,-0.1247,-3.4107,-1.0623,1.4074,3.4292,-7.2530,-1.3256,-0.2076,2.4297,5.6174
1402.3438,-0.0801,-5.3827,1.3629,9.7948,6.2099,-2.4596,0.5575,9.8895,-3.0960,1.5359,-5.4420,-1.7666,1.1073,2.6358,-8.3432,-2.5250,-0.7712,0.7132,4.9034
1406.2500,-2.0749,-5.4905,-0.5276,7.5843,6.0435,-2.8166,0.3268,8.5088,-3.6478,2.9361,-4.5198,-0.8922,1.4933,1.4437,-5.7115,-3.0543,-1.1174,0.2165,3.8726
1410.1562,-2.0842,-4.1852,-1.3389,4.8785,5.1346,-1.5624,0.7458,6.1021,-3.0796,3.4115,-1.5099,0.9040,1.8652,-0.2766,-1.2634,-2.9789,-1.0952,0.8024,2.5060
1414.0625,-0.2546,-2.8926,-1.4667,1.9775,3.1381,0.2181,0.9013,3.3329,-2.3221,2.4900,1.4364,2.2024,1.2238,-2.5839,2.2798,-2.6616,-1.0052,1.3555,0.4377
1417.9688,2.3790,-2.7198,-1.9080,-1.3975,-0.0885,1.1011,-0.2786,0.5909,-2.3855,0.2139,2.3594,1.7731,-1.0366,-5.3845,3.2557,-2.4518,-1.4407,0.5086,-2.7621
1421.8750,4.6087,-3.7684,-3.4499,-5.5617,-4.2193,0.3363,-3.0694,-2.0615,-3.6505,-2.7650,0.7338,-0.6305,-4.6340,-8.3161,1.8920,-2.4832,-2.8382,-2.3652,-7.1220
1425.7812,5.6544,-5.2681,-6.0522,-10.1739,-8.3676,-1.7036,-6.5715,-4.5756,-5.6404,-5.3968,-2.3708,-4.1722,-8.4606,-10.7318,-0.3670,-2.7150,-5.0539,-6.6052,-11.9638
1429.6875,5.3371,-6.3434,-8.8625,-14.0463,-11.3311,-3.8991,-9.2064,-6.5835,-7.4279,-6.6630,-5.2027,-7.5306,-11.1814,-11.8927,-2.2656,-3.1075,-7.3053,-10.5951,-16.0430
1433.5938,3.9029,-6.7418,-10.8198,-15.7356,-12.1230,-5.2224,-9.7300,-7.4322,-8.3447,-6.0259,-6.5405,-9.7131,-11.9823,-11.3252,-3.6123,-3.7120,-8.5690,-12.7860,-18.1325
1437.5000,1.7841,-6.9355,-11.3718,-14.5469,-10.4935,-5.3710,-8.0282,-6.6395,-8.4487,-3.6856,-6.3266,-10.5187,-10.9781,-9.1258,-4.9857,-4.5663,-8.1951,-12.7143,-17.7110
1441.4062,-0.5185,-7.5721,-10.7835,-11.1781,-7.0810,-4.7716,-5.1480,-4.4095,-8.4115,-0.5221,-5.4039,-10.4205,-9.0334,-5.9733,-6.7270,-5.5139,-6.3120,-11.3009,-15.2978
1445.3125,-2.4716,-8.7948,-9.8530,-7.4354,-3.0409,-4.0642,-2.5898,-1.7189,-8.9483,2.2606,-4.7430,-10.0818,-7.1580,-2.7840,-8.2837,-6.1694,-3.7397,-10.2158,-12.1779
1449.2188,-3.6064,-10.0377,-9.3083,-5.1355,0.6330,-3.5734,-1.4020,0.2046,-10.2457,3.6302,-4.8253,-9.9273,-5.9123,-0.2107,-8.5670,-6.1412,-1.4727,-10.7439,-9.6670
1453.1250,-3.7058,-10.4648,-9.3560,-4.9449,3.6338,-3.2016,-1.6928,0.6839,-11.8098,3.1404,-5.5578,-10.0304,-5.2111,1.6737,-6.9928,-5.3611,-0.1108,-12.9282,-8.3861
1457.0312,-2.9389,-9.6507,-9.6775,-5.9887,6.3435,-2.7550,-2.8057,0.0693,-12.8090,1.0797,-6.5719,-10.2600,-4.5955,3.2797,-4.2003,-4.2307,0.3684,-15.5519,-8.0069
1460.9375,-1.7656,-7.8968,-9.7776,-6.5058,9.3215,-2.3102,-3.8977,-0.5029,-12.6123,-1.6986,-7.4924,-10.4388,-3.7002,5.0676,-1.7111,-3.3983,0.3751,-16.9285,-7.5991
1464.8438,-0.6186,-5.9107,-9.3335,-5.0621,12.6836,-2.2111,-4.4343,0.0793,-11.1253,-4.1625,-7.9453,-10.3549,-2.5392,7.1077,-0.7527,-3.2904,0.2523,-15.9351,-6.2994
1468.7500,0.4137,-4.1480,-8.2668,-1.4538,15.8603,-2.6599,-4.2875,2.1208,-8.7325,-5.5040,-7.4547,-9.7045,-1.4168,8.9718,-1.2606,-3.7562,-0.0037,-12.6139,-3.8328
1472.6562,1.6324,-2.4302,-6.5655,3.2880,17.9232,-3.2921,-3.5103,4.9409,-5.9779,-5.3802,-5.5437,-8.1601,-0.5948,10.0272,-1.9572,-4.1389,-0.6298,-8.0262,-0.5814
1476.5625,3.4292,-0.2179,-4.1375,7.6744,18.2122,-3.2092,-2.1135,7.3946,-3.2780,-3.9220,-2.1275,-5.6346,-0.0348,9.8856,-1.4814,-3.7613,-1.7213,-3.5657,2.7433
1480.4688,5.8594,2.6742,-0.9261,10.6521,16.7524,-1.5810,-0.0954,8.6532,-0.8564,-1.5747,2.1116,-2.5558,0.5481,8.6393,0.3986,-2.4703,-2.9663,-0.2477,5.5001
1484.3750,8.4227,5.5698,2.7757,11.9597,14.1285,1.5918,2.3288,8.6326,1.1442,1.1044,5.8131,0.1505,1.3640,6.7098,2.5526,-0.8069,-3.7702,1.6001,7.2866
1488.2812,10.2437,7.1654,6.1396,11.8211,10.9448,5.1930,4.5805,7.7905,2.5658,3.5936,7.6241,1.4957,2.2431,4.4656,3.4617,0.3584,-3.7078,2.1848,7.8440
1492.1875,10.5480,6.4370,8.0450,10.4126,7.3535,7.5243,5.8891,6.5569,3.2856,5.4786,7.0813,1.0542,2.6342,1.9694,2.5589,0.4620,-2.9301,1.8921,6.9216
1496.0938,9.1187,3.5489,7.7028,7.6662,3.0876,7.3771,5.7234,4.9451,3.3552,6.4885,5.0150,-0.6753,1.9559,-0.9076,0.7604,-0.3318,-2.1437,1.0435,4.3421
1500.0000,6.4541,0.0067,5.2465,3.5871,-2.0081,4.9002,4.1683,2.6919,3.0556,6.5271,3.0848,-2.5002,0.0570,-4.1038,-0.3018,-1.2549,-2.1148,-0.1126,0.2766
1503.9062,3.5588,-2.1672,1.8053,-1.2728,-7.4144,1.6076,1.9292,-0.2286,2.7634,5.6866,2.7126,-3.2601,-2.5677,-7.0927,0.3008,-1.5124,-3.0538,-1.2981,-4.5308
1507.8125,1.5104,-1.7058,-1.0853,-5.7347,-11.8982,-0.5330,-0.0699,-3.2364,2.7102,4.2082,4.1770,-2.5641,-5.0002,-9.0380,1.9570,-0.8690,-4.3834,-2.1890,-8.8888
1511.7188,1.0137,1.0823,-2.3835,-8.5300,-14.1567,-0.3252,-1.2132,-5.3319,2.8340,2.3860,6.5350,-1.0121,-6.4332,-9.3429,3.0078,0.2014,-5.1238,-2.5548,-11.6865
1515.6250,2.0997,4.5316,-2.1329,-9.1118,-13.7254,1.9491,-1.4677,-5.7615,2.8589,0.4724,8.4038,0.2556,-6.6574,-8.1839,2.1562,0.8992,-4.6450,-2.4371,-12.5199
1519.5312,4.0567,6.7018,-1.3289,-8.0886,-11.4392,4.7961,-1.2401,-4.6318,2.5321,-1.3370,8.9679,0.3403,-6.1647,-6.5491,-0.4270,0.6970,-3.2091,-2.1852,-11.9608
1523.4375,5.6565,6.5362,-1.1662,-6.8706,-9.0095,6.5097,-0.9779,-2.9306,1.8102,-2.8242,8.4311,-0.8724,-5.7949,-5.6495,-3.2763,-0.3148,-1.8493,-2.2758,-11.2167
1527.3438,5.6879,4.3110,-2.2214,-6.7257,-7.9345,6.1879,-0.8541,-1.8644,0.8326,-3.6686,7.6211,-2.7735,-6.1678,-6.0700,-4.9398,-1.5761,-1.6253,-3.0307,-11.3589
1531.2500,3.6532,1.1813,-4.1443,-7.9273,-8.4995,4.1186,-0.7608,-1.9903,-0.2721,-3.5057,7.1624,-4.5796,-7.2861,-7.2925,-5.2720,-2.5370,-2.7946,-4.4311,-12.6314
1535.1562,0.2676,-1.6952,-6.0251,-9.6224,-9.6093,1.4026,-0.5430,-2.8135,-1.5324,-2.1812,6.9629,-5.8979,-8.5662,-8.0004,-5.5436,-3.0598,-4.5447,-6.1520,-14.3212
1539.0625,-2.6670,-3.7399,-7.0939,-10.5046,-9.6063,-0.7835,-0.2097,-3.1803,-3.0603,-0.0696,6.4321,-6.8694,-9.2597,-7.0037,-7.2307,-3.4313,-5.5273,-7.7673,-15.2814
1542.9688,-3.1707,-4.8942,-7.1991,-9.7640,-7.4958,-1.7343,0.0895,-2.1737,-4.8036,1.8184,5.1813,-7.8423,-8.9690,-4.1351,-10.5327,-4.0200,-4.8317,-8.9625,-14.7375
1546.8750,-0.3866,-5.1794,-6.7491,-7.6048,-3.6881,-1.3098,0.2803,0.1737,-6.3801,2.1609,3.5201,-8.9173,-7.9075,-0.4472,-13.9633,-4.9078,-2.6781,-9.6226,-12.8103
1550.7812,4.5634,-4.4452,-6.2570,-4.9911,0.2890,0.2683,0.5285,2.8943,-7.2219,0.0363,2.2610,-9.7891,-6.7404,2.4647,-15.4689,-5.8207,-0.3008,-9.7903,-10.4092
1554.6875,8.9270,-2.6243,-5.9230,-2.8931,2.8856,2.5902,1.1470,4.8013,-6.9986,-4.3536,1.9888,-10.0190,-6.1259,3.5433,-14.1845,-6.4023,0.9059,-9.5899,-8.6017
1558.5938,9.9114,-0.2399,-5.5949,-1.6532,3.6191,5.0537,2.2925,5.3420,-5.9929,-9.4587,2.4691,-9.4761,-6.2692,2.9702,-11.3070,-6.5672,0.3517,-9.1969,-7.9244
1562.5000,6.6224,1.4428,-5.0705,-0.9291,3.3544,6.8502,3.7284,4.9422,-5.0591,-12.9452,2.7854,-8.5329,-6.7865,1.9753,-9.2402,-6.5992,-1.3879,-8.8353,-8.1074
1566.4062,1.0068,1.0066,-4.3987,-0.1605,3.5840,7.2008,4.9210,4.6139,-5.0812,-12.8596,2.1573,-7.8111,-6.9662,1.8990,-9.6193,-6.8925,-3.0663,-8.7200,-8.3555
1570.3125,-3.0514,-2.0548,-3.8605,0.9074,5.2613,5.8633,5.4555,5.1702,-6.2683,-8.7567,0.7531,-7.6727,-6.2497,3.2042,-11.8387,-7.5525,-3.7163,-8.9109,-7.9350
1574.2188,-2.1150,-6.6025,-3.6351,2.0888,8.0611,3.5557,5.4506,6.6653,-7.8300,-2.0860,-0.2530,-7.8841,-4.6138,5.1600,-13.3832,-8.2109,-3.3216,-9.1682,-6.6324
1578.1250,4.4258,-10.1684,-3.4831,3.0626,10.6030,1.8323,5.5882,8.4529,-8.3616,4.4765,0.4747,-7.7528,-2.5989,6.4140,-11.8102,-8.2422,-2.7041,-8.9698,-4.7983
1582.0312,13.6251,-10.3186,-2.7991,3.7683,11.4496,2.2743,6.6446,9.7432,-6.7587,8.4147,3.3165,-6.6502,-0.9669,6.0030,-6.8338,-7.2312,-2.7499,-7.7717,-3.0180
1585.9375,20.5444,-6.2365,-1.0758,4.4777,10.1285,5.4189,8.8246,10.1676,-3.0482,8.6710,7.2280,-4.5161,-0.2180,4.0407,-0.7914,-5.3293,-3.6190,-5.3997,-1.7062
1589.8438,21.2130,0.5820,1.5617,5.4567,7.4273,10.1822,11.4115,9.9086,1.4744,6.0873,10.3518,-1.9551,-0.2994,1.5821,2.9730,-3.2138,-4.5919,-2.3043,-0.9289
1593.7500,15.1003,7.0849,4.2107,6.5303,4.7713,14.3008,13.0611,9.3489,4.9525,2.7535,11.2798,0.1367,-0.7088,-0.2078,2.5991,-1.6768,-4.6941,0.5468,-0.5374
1597.6562,5.4999,10.4319,5.6210,6.9895,3.1681,15.6260,12.6074,8.5998,6.0714,0.7171,9.9872,1.1143,-0.9245,-0.9382,-0.8779,-1.1497,-3.6010,2.1341,-0.4522
1601.5625,-2.4107,9.6122,4.9422,5.9966,2.5036,13.4574,9.8438,7.3412,4.8169,0.8791,7.7153,0.8914,-0.8501,-1.2611,-4.3206,-1.5031,-2.0751,1.9397,-0.8333
1605.4688,-4.5646,5.8486,2.2642,3.2162,1.6962,9.0031,5.7295,5.1192,2.3859,2.7192,5.9249,-0.1655,-0.9347,-2.3320,-4.8797,-2.2279,-1.5277,0.2260,-1.9889
1609.3750,-0.1845,1.5836,-1.4338,-0.8257,-0.4187,4.6256,1.8580,1.8489,0.3389,4.9015,5.1929,-1.5905,-1.8465,-4.8689,-2.1144,-2.8110,-2.9755,-2.1501,-4.0900
1613.2812,8.0777,-1.1779,-4.8782,-4.9561,-4.1244,2.3711,-0.4640,-1.9047,-0.3973,6.2374,4.9429,-3.0886,-3.9060,-8.5078,1.7918,-3.0083,-6.1605,-4.2575,-6.9127
1617.1875,15.8931,-2.0032,-7.2053,-8.0064,-8.4664,2.7683,-0.9160,-5.1176,-0.0001,6.3254,4.1875,-4.5246,-6.6899,-11.9210,3.8361,-2.8520,-9.5229,-5.5888,-9.8147
1621.0938,19.6484,-1.9354,-8.3021,-9.4269,-11.7516,4.6697,-0.2079,-6.8515,0.5713,5.5127,2.5955,-5.7285,-9.1301,-13.6111,2.5570,-2.4723,-11.1084,-6.2104,-11.9907
1625.0000,18.0636,-2.3884,-8.6154,-9.4433,-12.5539,6.1582,0.5034,-6.7686,0.3864,4.3607,0.9267,-6.3886,-10.0967,-12.8237,-0.9004,-1.9510,-9.8084,-6.5097,-12.8610
1628.9062,12.3463,-3.9502,-8.6665,-8.7028,-10.5521,5.8277,0.3821,-5.2765,-0.7739,3.1261,0.4261,-6.2023,-9.0987,-9.9661,-3.7809,-1.3356,-6.0746,-6.7837,-12.3585
1632.8125,5.1620,-5.9845,-8.6807,-7.7460,-6.6681,3.5679,-0.6463,-3.2390,-2.3313,1.6653,1.6709,-5.1764,-6.6198,-6.2873,-3.9042,-0.7524,-1.6206,-7.0072,-10.9397
1636.7188,-0.7672,-7.2478,-8.5810,-6.7223,-2.4646,0.4278,-2.0127,-1.4867,-3.4225,-0.2363,3.8668,-3.7842,-3.8397,-3.0865,-1.2866,-0.4382,1.6652,-6.9536,-9.3147
1640.6250,-3.7211,-6.9670,-8.2648,-5.5151,0.7615,-2.1973,-3.0141,-0.4477,-3.5870,-2.4726,5.2479,-2.7722,-1.9193,-1.0022,2.0128,-0.5965,2.8365,-6.5394,-8.0600
1644.5312,-3.4309,-5.5271,-7.8669,-4.0825,2.6017,-3.4105,-3.3165,-0.0801,-3.1224,-4.5460,4.3228,-2.7110,-1.3354,0.1765,3.5734,-1.1811,2.2953,-6.0778,-7.3459
1648.4375,-0.9867,-4.2717,-7.7649,-2.6623,3.5262,-3.1708,-3.1282,-0.0595,-2.8791,-5.8890,0.9893,-3.6303,-1.7133,1.1302,2.4076,-1.8282,1.2906,-6.1946,-6.9354
1652.3438,1.6578,-4.6044,-8.3334,-1.6509,4.3422,-2.0969,-2.9895,-0.0395,-3.6752,-6.2875,-3.3884,-5.0401,-2.2378,2.3957,-0.5178,-2.0633,0.9494,-7.4276,-6.4390
1656.2500,2.4963,-7.0591,-9.6639,-1.2798,5.5471,-1.0227,-3.3804,0.1717,-5.7534,-6.0191,-7.0205,-6.3280,-2.3000,3.9664,-3.2949,-1.6641,1.5607,-9.7934,-5.6425
1660.1562,0.4192,-10.9653,-11.4738,-1.3966,7.0225,-0.6488,-4.4148,0.5654,-8.6259,-5.5754,-9.0216,-7.2068,-1.8838,5.3545,-4.6524,-0.8860,2.5753,-12.6486,-4.6774
1664.0625,-4.0944,-14.8634,-13.2537,-1.5649,8.2253,-1.3888,-5.7827,0.9733,-11.3657,-5.2155,-9.9656,-7.8358,-1.4249,6.0188,-4.7779,-0.3254,3.2162,-14.9783,-3.9118
1667.9688,-9.0255,-17.3219,-14.5192,-1.4100,8.6765,-3.2921,-6.9277,1.1472,-13.1131,-4.7671,-11.2214,-8.5196,-1.3058,5.8195,-4.8190,-0.4774,3.1666,-15.9391,-3.6398
1671.8750,-11.7887,-17.6127,-14.9884,-0.9252,8.3547,-5.9441,-7.3341,0.8621,-13.4772,-3.8860,-13.6218,-9.2660,-1.4402,5.1711,-5.6401,-1.3168,2.7988,-15.3093,-3.8074
1675.7812,-10.7090,-15.9031,-14.6161,-0.4852,7.7066,-8.4414,-6.7821,0.0320,-12.6287,-2.5651,-16.5619,-9.6218,-1.3122,4.7930,-6.9796,-2.2477,2.8108,-13.5592,-3.9968
1679.6875,-6.1129,-12.9869,-13.5404,-0.5588,7.2837,-9.6456,-5.4698,-1.2076,-11.0986,-1.4201,-18.2898,-8.9827,-0.4459,5.2308,-7.7073,-2.4997,3.5996,-11.5145,-3.7104
1683.5938,-0.2553,-9.8237,-12.0265,-1.3555,7.2912,-8.7579,-3.9569,-2.5221,-9.4510,-1.4109,-17.1991,-7.1472,1.0930,6.4694,-6.8785,-1.6871,4.8806,-9.8476,-2.7571
1687.5000,3.9719,-7.1629,-10.4221,-2.6775,7.3953,-5.9205,-2.9367,-3.5334,-8.0233,-3.1187,-13.1279,-4.6404,2.6114,7.8871,-4.6081,-0.1033,5.8445,-8.7287,-1.4436
1691.4062,4.7512,-5.3718,-9.0753,-4.0701,6.9365,-2.3671,-2.9152,-4.0375,-6.8421,-6.1146,-7.6493,-2.4795,3.2337,8.5830,-1.9961,1.4865,5.7194,-7.8399,-0.4001
1695.3125,2.3442,-4.4439,-8.1950,-5.1273,5.3997,0.1415,-3.9427,-4.1393,-5.7142,-8.9692,-3.1135,-1.5059,2.5485,7.8769,-0.2067,2.3944,4.3125,-6.7094,-0.1477
1699.2188,-1.2573,-4.1191,-7.7344,-5.7162,2.7978,0.3471,-5.5588,-4.1916,-4.4131,-10.0132,-1.1480,-1.7892,0.9402,5.6857,0.4578,2.4720,2.1416,-5.1213,-0.7316
1703.1250,-3.7270,-4.0678,-7.4252,-5.9809,-0.3072,-1.6831,-7.0131,-4.5612,-2.8638,-8.3811,-1.7118,-2.5920,-0.6832,2.5605,0.6660,2.1209,0.0849,-3.3256,-1.7149
1707.0312,-3.8338,-4.0847,-6.9947,-6.1786,-3.1596,-4.5576,-7.6614,-5.3753,-1.2421,-4.6131,-3.3488,-2.9546,-1.5753,-0.6232,1.2754,1.8610,-1.1825,-1.9197,-2.5568
1710.9375,-1.9600,-4.1995,-6.4261,-6.5046,-5.2800,-6.4459,-7.3013,-6.4287,0.0572,-0.3673,-4.3747,-2.4582,-1.7188,-3.1267,2.3838,1.8249,-1.5741,-1.4835,-3.0810
1714.8438,0.4960,-4.6101,-6.0273,-7.0189,-6.7071,-6.2542,-6.2277,-7.3135,0.5805,2.5794,-4.0742,-1.5584,-1.8218,-4.6856,3.0910,1.6163,-1.5656,-2.2050,-3.6419
1718.7500,2.2248,-5.4376,-6.1900,-7.6656,-7.8427,-4.2611,-4.9736,-7.6713,0.0414,3.3583,-3.0514,-1.2023,-2.7314,-5.5344,2.2329,0.6673,-1.8201,-3.7265,-4.8163
1722.6562,2.7586,-6.4630,-6.9817,-8.3045,-9.0265,-1.7753,-3.9247,-7.3843,-1.4842,2.3779,-2.5684,-2.0127,-4.7120,-6.1307,-0.5073,-1.1867,-2.7382,-5.3046,-6.8307
1726.5625,2.4463,-7.0803,-7.9058,-8.7081,-10.1676,-0.1132,-3.0904,-6.5819,-3.4976,0.8438,-3.4561,-3.6800,-7.1423,-6.7709,-4.0598,-3.3972,-4.2093,-6.1826,-9.1787
1730.4688,1.9061,-6.5851,-8.0884,-8.5671,-10.7153,0.3037,-2.1932,-5.4870,-5.2014,-0.1562,-5.4322,-5.0600,-8.8607,-7.3473,-6.5074,-4.9487,-5.6728,-5.9543,-10.7740
1734.3750,1.5418,-4.6601,-6.8313,-7.5725,-9.9921,0.0691,-0.9857,-4.2419,-5.7802,-0.3156,-7.2829,-4.9329,-8.8896,-7.3916,-6.3401,-5.0133,-6.4034,-4.7080,-10.5818
1738.2812,1.4784,-1.7133,-4.1460,-5.5728,-7.6494,0.1103,0.4733,-2.8427,-4.7331,-0.0922,-7.7019,-2.8653,-7.0015,-6.3656,-3.4855,-3.5357,-5.8405,-2.8884,-8.2907
1742.1875,1.7665,1.2268,-0.8404,-2.7061,-3.9198,0.8267,1.8153,-1.2095,-2.1179,-0.1251,-6.1485,0.4682,-3.7438,-4.0048,0.6462,-1.3039,-3.8138,-0.9887,-4.5300
1746.0938,2.4602,3.0544,1.9563,0.6135,0.4963,1.7733,2.6349,0.6881,1.4067,-0.6079,-3.1567,3.7340,0.0150,-0.5057,4.1012,0.5550,-0.6025,0.7127,-0.4685
1750.0000,3.4037,3.2200,3.5110,3.8691,4.8043,2.1179,2.8051,2.7497,4.7871,-1.1127,0.0261,5.8110,3.6084,3.5400,5.5827,1.2926,3.1623,2.2029,2.9014
1753.9062,4.0051,2.0074,3.9109,6.6585,8.4745,1.4306,2.5676,4.7480,6.9680,-0.9601,2.1539,6.4412,6.7655,7.4042,5.0690,0.9627,6.7130,3.5710,5.2661
1757.8125,3.4275,0.2587,3.8737,8.7976,11.3598,0.0915,2.3139,6.3914,7.3260,0.1936,2.5868,6.2241,9.4205,10.5150,3.5272,0.2867,9.4233,4.7872,6.9391
1761.7188,1.2587,-1.2360,4.0955,10.2518,13.5592,-1.0514,2.2399,7.3997,5.9473,2.0113,1.5014,6.0390,11.4309,12.6377,2.0931,0.1152,11.0559,5.6272,8.3701
1765.6250,-1.8502,-2.2085,4.6596,10.9952,15.1984,-1.4715,2.1643,7.5826,3.5957,3.6011,-0.2973,6.3907,12.5468,13.8883,1.3931,0.9076,11.8645,5.8217,9.6696
1769.5312,-4.2784,-2.8982,4.9716,10.9594,16.3205,-1.4902,1.6691,6.9268,1.3519,3.9872,-1.7871,7.1665,12.6839,14.6142,1.4266,2.5749,12.4586,5.3174,10.5491
1773.4375,-4.4640,-3.6130,4.2638,10.1345,16.9333,-2.0455,0.4522,5.6665,0.0783,2.6043,-2.1797,7.9037,12.2050,15.2164,1.8964,4.6994,13.4545,4.4179,10.6855
1777.3438,-2.2181,-4.2903,2.2432,8.7158,17.0981,-3.8571,-1.3991,4.2637,-0.0128,-0.4380,-1.2766,8.2438,11.8394,15.9731,2.5537,6.8564,15.0743,3.6382,10.1261
1781.2500,0.7734,-4.4764,-0.6416,7.1080,16.9183,-6.6909,-3.4325,3.2369,0.5633,-4.3674,0.3800,8.1472,12.1732,16.9054,3.2491,8.7459,16.9306,3.3313,9.3157
1785.1562,1.9022,-3.7782,-3.5156,5.7141,16.4127,-9.3765,-5.1273,2.8825,0.9028,-7.9550,1.6694,7.7159,13.0661,17.7274,3.7618,10.0846,18.1591,3.3543,8.6783
1789.0625,-0.4530,-2.4025,-5.6857,4.6451,15.4120,-10.6189,-6.2121,3.0583,0.2802,-9.8553,1.3981,6.8637,13.5230,17.9245,3.7275,10.4746,17.8625,3.0643,8.1270
1792.9688,-5.4629,-1.2745,-7.0273,3.6097,13.6333,-9.9744,-6.7508,3.2213,-1.4000,-9.0803,-1.0181,5.2278,12.2557,16.9695,2.8583,9.5028,15.6255,1.7241,6.9981
1796.8750,-10.0974,-1.5323,-7.8517,2.1339,10.9358,-8.1972,-6.9569,2.7621,-3.5501,-5.5414,-5.0595,2.4884,8.6222,14.6024,1.2985,7.0894,11.7949,-0.9166,4.5723
1800.7812,-11.1277,-3.7119,-8.4275,-0.0164,7.5650,-6.6602,-6.9365,1.4453,-5.2759,-0.4022,-9.1676,-1.1452,3.2624,11.0245,-0.2618,3.8098,7.3450,-4.2765,0.8123
1804.6875,-7.5080,-7.2243,-8.6329,-2.5407,4.1469,-6.3073,-6.6095,-0.3653,-5.9301,4.1218,-11.4656,-4.7439,-2.1104,6.8634,-0.9379,0.8347,3.3992,-7.1326,-3.3194
1808.5938,-1.3168,-10.5598,-8.0822,-4.7147,1.3622,-6.9775,-5.8825,-1.9034,-5.4833,5.6842,-10.7980,-7.0441,-5.7024,2.8882,-0.2759,-0.6187,0.6837,-8.2889,-6.3355
1812.5000,3.5863,-12.1263,-6.6180,-5.8696,-0.4923,-7.6376,-4.8940,-2.5179,-4.4820,3.1263,-7.4700,-7.2260,-6.7607,-0.3733,1.3353,-0.0317,-0.7740,-7.3172,-7.2328
1816.4062,4.3043,-11.1665,-4.6913,-5.8886,-1.7119,-7.3092,-4.0629,-2.1400,-3.6568,-2.5814,-3.1797,-5.5370,-6.0253,-2.8690,2.8429,1.9916,-1.5464,-4.8729,-6.2916
1820.3125,1.0216,-8.1508,-3.2140,-5.3149,-2.9569,-5.9151,-3.8344,-1.3326,-3.4681,-8.5346,-0.1198,-3.2547,-5.1755,-4.9423,3.2197,3.9801,-2.3946,-2.3496,-4.9997
1824.2188,-3.1383,-4.4326,-2.9256,-4.9540,-4.7138,-4.3451,-4.2985,-0.8537,-3.8914,-11.3710,0.2342,-1.9440,-5.6564,-6.9804,2.1562,4.4313,-3.8013,-1.0698,-5.0651
1828.1250,-4.4646,-1.4704,-3.7782,-5.2548,-6.8393,-3.7021,-5.0120,-1.0576,-4.5398,-9.2776,-2.0920,-2.4872,-7.7121,-9.0375,0.2226,2.7018,-5.7087,-1.5241,-7.1932
1832.0312,-1.4746,-0.1594,-4.8888,-5.9520,-8.5515,-4.3698,-5.2210,-1.6044,-4.9757,-3.2674,-5.6840,-4.5534,-10.2868,-10.7097,-1.6179,-0.6330,-7.5773,-3.1395,-10.5248
1835.9375,3.9384,-0.6267,-5.1631,-6.2574,-8.9118,-5.6815,-4.3650,-1.7252,-4.9623,3.2141,-8.6377,-6.8714,-11.8084,-11.3601,-2.7401,-4.1805,-8.6926,-4.6986,-13.1686
1839.8438,7.8971,-2.4402,-4.1229,-5.4560,-7.4589,-6.4571,-2.4922,-0.8472,-4.5030,6.2571,-9.6467,-8.0949,-11.2513,-10.5358,-3.2367,-6.5980,-8.5305,-5.1087,-13.4555
1843.7500,7.4165,-4.9104,-2.2594,-3.4404,-4.5336,-5.9456,-0.2551,0.9245,-3.7183,3.8501,-8.6114,-7.6427,-8.7269,-8.2773,-3.6548,-7.3289,-6.9978,-4.0151,-11.0111
1847.6562,2.5992,-7.2409,-0.6029,-0.7700,-1.0587,-4.3805,1.5244,2.8663,-2.7300,-2.8738,-6.4770,-5.9503,-5.2642,-5.1066,-4.3442,-6.7434,-4.4628,-1.9012,-6.9040
1851.5625,-3.4578,-8.5715,0.1458,1.7594,2.0413,-2.6975,2.3976,4.2005,-1.6669,-10.3283,-4.5267,-4.0284,-2.0593,-1.7349,-5.0065,-5.6744,-1.6033,0.3121,-2.8384
1855.4688,-6.8909,-8.1467,0.1861,3.6574,4.3334,-1.6825,2.5249,4.6983,-0.7529,-14.6482,-3.6592,-2.7242,0.1937,1.2695,-4.8747,-4.7668,0.8344,1.8375,-0.0598
1859.3750,-5.7023,-5.7178,0.3788,4.9384,5.9272,-1.2987,2.4393,4.8093,-0.3294,-13.9275,-4.0821,-2.2502,1.4390,3.6041,-3.4145,-4.1360,2.2655,2.3761,1.2143
1863.2812,-0.8818,-1.9566,1.3736,5.8470,7.1085,-0.7818,2.5516,5.1933,-0.7139,-9.1145,-5.4826,-2.2754,1.9047,5.1104,-0.9721,-3.5342,2.4219,2.0853,1.5190
1867.1875,4.6344,1.5460,2.8544,6.4086,7.9207,0.5807,2.8147,6.0478,-1.9635,-3.1140,-7.3965,-2.4056,1.6843,5.5996,1.2216,-2.7933,1.4062,1.2887,1.3997
1871.0938,8.1545,2.9386,3.6148,6.2692,8.0874,2.6743,2.8293,6.8329,-3.7297,1.1547,-9.4366,-2.5947,0.6619,4.8653,1.8042,-2.1101,-0.3564,0.2142,0.9126
1875.0000,8.8265,1.1769,2.5107,5.0306,7.3470,4.4973,2.2969,6.6882,-5.3556,2.4018,-11.2543,-3.1300,-1.1777,2.9384,0.3049,-1.9042,-2.2496,-1.0380,-0.2198
1878.9062,7.5751,-3.1718,-0.4296,2.8160,5.8857,4.9256,1.4257,5.2480,-6.1845,1.3389,-12.3915,-4.2275,-3.3991,0.3674,-2.3140,-2.3686,-3.6486,-2.3238,-2.0136
1882.8125,5.7610,-8.0201,-3.6820,0.5316,4.4321,3.6973,0.9178,3.1718,-5.8840,-0.2264,-12.2867,-5.6166,-5.1255,-1.7960,-4.0596,-3.1261,-4.1072,-3.2878,-3.8240
1886.7188,3.9170,-10.8378,-5.0850,-0.5234,3.8431,1.7739,1.4936,1.8675,-4.5756,-0.7463,-10.5534,-6.5203,-5.5000,-2.4466,-3.0783,-3.3428,-3.4941,-3.4084,-4.6100
1890.6250,1.6582,-10.1114,-3.3489,0.4807,4.4509,0.7074,3.2943,2.5087,-2.7202,0.2121,-7.3708,-6.1169,-4.2869,-1.0983,1.1241,-2.2912,-2.0363,-2.2840,-3.7298
1894.5312,-1.3148,-6.2658,0.8844,3.1865,5.6969,1.4521,5.6271,5.0527,-0.8854,2.0202,-3.6673,-4.1711,-2.1421,1.6806,7.1951,0.0297,-0.2529,0.0171,-1.6150
1898.4375,-4.2238,-1.4333,5.2745,6.0682,6.3979,3.5439,7.2815,8.0413,0.4253,3.6538,-0.8602,-1.3577,-0.3087,4.4384,12.5172,2.7059,1.2074,2.8055,0.3041
1902.3438,-5.3267,1.7928,7.2214,7.2706,5.5195,5.3342,7.2346,9.4307,0.8213,4.3565,-0.2059,1.0026,0.0812,5.5948,14.5463,4.3529,1.7755,4.9740,0.4743
1906.2500,-3.2096,1.8352,5.5321,5.7391,2.9102,5.1592,5.2729,7.9166,0.0440,3.8968,-2.1075,1.6640,-1.3696,4.3341,12.1542,3.9405,1.1566,5.4939,-1.7093
1910.1562,1.7951,-1.0630,1.1509,1.8714,-0.5498,2.5890,2.1209,3.8210,-1.9221,2.4585,-5.8022,0.1771,-4.1701,1.0571,6.2328,1.4554,-0.5596,3.9488,-5.4430
1914.0625,7.3485,-5.1336,-3.5332,-2.7559,-3.5138,-1.1870,-0.9954,-1.1007,-4.6684,0.4491,-9.6620,-2.8469,-7.3048,-2.9054,-0.7477,-2.0507,-2.9180,0.8059,-9.0278
1917.9688,10.4041,-8.2000,-6.2760,-6.3740,-5.0425,-4.1500,-3.0440,-4.7961,-7.3097,-1.5937,-11.9788,-6.0814,-9.8089,-6.1148,-5.9693,-5.0620,-5.2513,-2.7472,-10.9840
1921.8750,9.1901,-8.8879,-6.3329,-8.0287,-5.1501,-4.8501,-3.6966,-6.1765,-8.7587,-3.0784,-11.8212,-8.2046,-11.1663,-7.8223,-7.6302,-6.4531,-6.9167,-5.3438,-10.9468
1925.7812,4.3944,-7.2564,-4.6912,-7.9439,-4.6423,-3.3963,-3.3697,-5.6245,-8.3023,-3.5833,-9.4957,-8.5512,-11.3439,-8.2235,-5.7496,-6.0545,-7.5237,-6.0930,-9.7146
1929.6875,-1.3466,-4.6086,-3.1430,-7.0884,-4.4022,-1.3286,-2.8381,-4.4596,-6.1436,-3.1929,-6.3664,-7.3471,-10.5708,-8.0607,-2.0279,-4.6090,-7.0557,-5.0083,-8.4886
1933.5938,-5.2591,-2.7131,-2.9709,-6.3619,-4.6907,-0.4876,-2.7135,-3.8452,-3.4740,-2.6468,-4.1451,-5.4623,-9.1180,-7.9309,1.1294,-3.2208,-5.8343,-2.9753,-7.9468
1937.5000,-6.1674,-2.8961,-4.1929,-6.0292,-4.9923,-1.7088,-3.1102,-3.9902,-1.8890,-3.0084,-4.0436,-3.9020,-7.2427,-7.8339,1.8946,-2.7053,-4.3515,-1.2616,-7.8645
1941.4062,-4.9025,-5.4100,-5.7921,-5.7601,-4.4992,-4.2644,-3.6562,-4.2002,-2.4369,-4.9170,-6.2334,-3.3460,-5.2554,-7.2737,-0.0784,-3.2470,-3.0581,-0.8249,-7.5075
1945.3125,-3.2188,-9.2937,-6.6050,-5.1255,-2.8324,-6.4094,-3.7836,-3.6356,-4.9212,-7.9289,-9.8627,-3.9453,-3.5487,-5.7847,-3.6056,-4.5001,-2.2142,-1.8027,-6.3911
1949.2188,-2.2113,-12.7508,-6.1273,-4.0756,-0.4254,-6.6039,-3.0992,-2.1023,-7.9797,-10.5384,-13.5605,-5.3922,-2.4864,-3.4376,-6.7789,-5.9490,-1.8579,-3.4773,-4.7438
1953.1250,-1.5355,-13.9252,-4.6895,-3.0045,1.7281,-4.5490,-1.6304,-0.2337,-9.9423,-11.0381,-16.1096,-7.1387,-2.2166,-0.9167,-8.1356,-7.2179,-1.8761,-4.7382,-3.3046
1957.0312,0.0051,-11.8006,-3.0166,-2.3866,2.7685,-1.3589,0.1633,1.0448,-9.9019,-8.7053,-16.9225,-8.6188,-2.5715,0.8944,-7.4818,-8.1356,-2.1066,-4.7587,-2.6656
1960.9375,3.0844,-6.8241,-1.6345,-2.3241,2.5840,1.1794,1.6068,1.2883,-8.2490,-4.4512,-16.1185,-9.4009,-3.1586,1.5079,-5.8722,-8.6071,-2.4020,-3.4669,-2.7412
1964.8438,6.8938,-0.8634,-0.6035,-2.3918,1.8937,1.7154,2.1472,0.9013,-6.2910,-0.3770,-14.2574,-9.2672,-3.5878,1.1681,-4.7874,-8.4925,-2.6362,-1.5174,-2.8160
1968.7500,9.4262,3.6168,0.3030,-1.9076,1.7537,0.0900,1.6520,0.8175,-5.2521,1.5273,-11.9617,-8.2467,-3.6660,0.6918,-5.0725,-7.6537,-2.6916,0.1979,-2.1291
1972.6562,8.8212,4.8149,1.2387,-0.4119,2.8506,-2.6774,0.5096,1.7741,-5.4019,0.6363,-9.6701,-6.6048,-3.4264,0.9345,-6.3635,-6.1390,-2.4762,1.1552,-0.5050
1976.5625,4.7590,2.5874,2.1059,2.0014,5.0775,-5.0649,-0.5429,3.7682,-5.9540,-1.9974,-7.6126,-4.7701,-3.0067,2.2565,-7.3910,-4.3228,-1.9840,1.4985,1.4838
1980.4688,-1.1195,-1.4677,2.6898,4.7311,7.6480,-5.9047,-0.7954,6.1062,-5.7756,-4.4631,-5.9279,-3.1909,-2.5066,4.3341,-6.9414,-2.8258,-1.3503,1.8429,2.9490
1984.3750,-6.0428,-4.9488,2.9372,7.0284,9.6221,-4.9161,0.0563,7.9589,-4.3227,-5.2859,-4.7581,-2.1553,-1.9418,6.4029,-4.7859,-2.2097,-0.8314,2.7526,3.3630
1988.2812,-7.5866,-6.0396,3.0913,8.4091,10.4542,-2.6854,1.7599,8.9455,-2.0569,-4.2206,-4.2171,-1.6511,-1.2959,7.7372,-1.9070,-2.6323,-0.6754,4.3041,2.9545
1992.1875,-4.8449,-4.4396,3.5525,8.8582,10.2184,-0.2120,3.6855,9.2892,-0.0275,-2.0391,-4.2640,-1.3460,-0.5660,8.0497,0.1517,-3.7033,-0.9356,6.0654,2.5398
1996.0938,1.3042,-1.2425,4.5863,8.7432,9.4289,1.6503,5.2195,9.4688,1.0232,0.3537,-4.6054,-0.7206,0.2768,7.5969,0.3533,-4.6591,-1.3458,7.4911,2.9495
2000.0000,8.7634,2.0697,6.1209,8.5410,8.6499,2.5481,6.1047,9.7106,1.2902,2.6193,-4.7401,0.6861,1.3729,6.9838,-1.1047,-4.7607,-1.3691,8.3975,4.4911
2003.9062,15.0950,4.6994,7.7822,8.5632,8.1815,2.6437,6.4909,9.7680,1.7476,4.8966,-4.1510,3.0228,2.9738,6.8280,-2.9226,-3.6743,-0.4404,9.1132,6.8087
2007.8125,18.2508,6.8446,9.1068,8.8180,7.9959,2.3653,6.6760,9.1672,3.3155,7.0973,-2.5422,5.9913,5.2690,7.4740,-3.5935,-1.6144,1.7069,10.1633,9.1687
2011.7188,17.0348,9.0700,9.7554,9.0472,7.8910,2.0871,6.7641,7.6957,6.0169,8.3730,0.0105,8.9126,8.1211,8.8714,-2.4270,0.8036,4.8112,11.7313,10.8975
2015.6250,11.4176,11.3567,9.5997,8.8955,7.6978,1.9310,6.5352,5.7089,8.8106,7.4332,3.0714,10.9873,10.9273,10.6240,0.0087,2.8809,8.1069,13.3496,11.6546
2019.5312,2.7352,12.7389,8.6974,8.1267,7.3866,1.7764,5.6528,3.9847,10.2650,3.6203,5.9993,11.6426,12.7912,12.1547,2.3129,4.1270,10.6207,14.1118,11.4279
2023.4375,-6.4311,11.9426,7.2505,6.7860,7.0305,1.4286,4.0474,3.2273,9.5788,-2.1211,8.1669,10.7972,12.9721,12.9175,3.2238,4.3916,11.6036,13.2966,10.3708
2027.3438,-12.9454,8.5646,5.5922,5.2157,6.6936,0.8061,2.1420,3.5926,7.1873,-7.3141,9.1616,8.8999,11.3404,12.5894,2.4517,3.8311,10.8725,10.9464,8.6762
2031.2500,-14.3173,3.7827,4.1506,3.8868,6.3479,0.0155,0.6869,4.5844,4.5032,-9.2393,8.9153,6.7085,8.5135,11.1808,0.8260,2.7922,8.8770,7.9480,6.5684
2035.1562,-9.8862,-0.1152,3.3124,3.1172,5.8798,-0.7213,0.2788,5.3802,2.9947,-6.6294,7.7302,4.9175,5.5395,9.0178,-0.2995,1.6954,6.4570,5.5186,4.3337
2039.0625,-1.2688,-1.1713,3.2171,2.8518,5.1772,-1.2069,0.9198,5.3425,3.2773,-0.5445,6.1815,3.8382,3.3162,6.5977,0.0564,0.9400,4.4293,4.4481,2.2780
2042.9688,8.3198,0.8850,3.6372,2.6840,4.2374,-1.3499,1.9775,4.3711,4.8514,6.2431,4.9076,3.3099,2.1289,4.3854,1.9009,0.8108,3.2309,4.6403,0.6027
2046.8750,15.5748,4.4360,4.0987,2.1612,3.2286,-1.1224,2.6208,2.9082,6.6065,10.9260,4.3569,2.8911,1.6143,2.6595,4.3089,1.3778,2.8031,5.2805,-0.6825
2050.7812,18.5855,7.1536,4.2247,1.1937,2.4626,-0.4553,2.4324,1.6612,7.6558,12.1946,4.6163,2.2059,1.1505,1.4902,6.0177,2.4351,2.7545,5.4927,-1.6919
2054.6875,17.4472,7.6973,4.0677,0.2612,2.2780,0.7932,1.7384,1.2583,7.8786,10.5944,5.4346,1.2265,0.3750,0.8421,6.1630,3.5501,2.6749,4.9973,-2.4631
2058.5938,13.7390,6.6325,4.1443,0.2027,2.8791,2.7096,1.3858,2.0198,7.8273,7.6375,6.4424,0.3150,-0.5421,0.7028,4.7188,4.2465,2.3985,4.2891,-2.7964
2062.5000,9.3506,5.8567,5.0762,1.6629,4.2074,5.1092,2.1129,3.8897,8.1640,4.5494,7.4234,-0.0002,-1.0469,1.1261,2.4441,4.2508,2.0623,4.2271,-2.3152
2066.4062,5.5029,6.9833,7.0587,4.5529,5.9181,7.4301,3.9680,6.4714,9.1047,1.7008,8.4220,0.6329,-0.6362,2.1444,0.4365,3.6583,1.9471,5.3541,-0.7594
2070.3125,2.5455,9.9651,9.5525,7.9267,7.4880,8.9062,6.2127,9.1154,10.2734,-0.9554,9.5781,2.1413,0.7434,3.6193,-0.4276,2.8990,2.2244,7.4423,1.6828
2074.2188,0.4648,13.0528,11.4720,10.4163,8.4094,8.9894,7.7848,11.0691,11.0081,-3.0689,10.7967,4.0179,2.6003,5.1565,0.1113,2.4949,2.7832,9.5692,4.2759
2078.1250,-0.4971,14.1238,11.7850,10.9702,8.3682,7.7601,7.9913,11.7069,10.8246,-3.6640,11.5454,5.5457,4.1405,6.1752,1.6183,2.7421,3.2476,10.6388,5.9935
2082.0312,0.2738,12.3329,10.1233,9.4082,7.3164,6.0003,6.9331,10.7867,9.6891,-1.8751,11.0299,6.1170,4.6622,6.1132,3.2082,3.5089,3.1674,9.9744,6.0031
2085.9375,3.2413,8.7788,6.9852,6.4224,5.4148,4.7994,5.3798,8.5918,7.9593,1.9668,8.7311,5.4760,3.8588,4.6603,3.9960,4.2830,2.2581,7.6166,4.0852
2089.8438,8.0044,5.6739,3.4063,3.0531,2.9094,4.8970,4.2147,5.8265,6.1214,5.9930,4.9589,3.7861,1.8980,1.8933,3.5598,4.4496,0.5467,4.2124,0.7328
2093.7500,13.0536,4.6881,0.3603,0.0376,0.0368,6.1979,3.8737,3.2767,4.5605,7.7901,0.9732,1.5294,-0.6983,-1.7434,2.1982,3.6440,-1.6485,0.6566,-3.1008
2097.6562,16.3506,5.7728,-1.6813,-2.4996,-2.9876,7.8221,4.1672,1.4217,3.4916,6.1641,-1.5433,-0.6788,-3.2626,-5.5795,0.8258,1.9774,-3.8692,-2.2539,-6.4319
2101.5625,16.4679,7.3536,-2.7726,-4.8404,-5.9235,8.6951,4.5621,0.2463,3.0102,2.3031,-1.4157,-2.2778,-5.1873,-8.9068,0.5070,0.0093,-5.6969,-4.0056,-8.6089
2105.4688,13.5543,7.6750,-3.1883,-7.1851,-8.4793,8.2919,4.6575,-0.6220,3.1328,-0.7544,1.2771,-2.9044,-6.0939,-11.1504,1.8405,-1.5144,-6.8691,-4.4124,-9.4628
2109.3750,9.4267,6.1830,-3.1180,-9.3203,-10.3618,7.0161,4.4729,-1.5592,3.7690,-0.1870,5.1752,-2.4810,-5.9524,-12.0011,4.5354,-2.0152,-7.3036,-3.6184,-9.2581
2113.2812,6.6122,3.8583,-2.6238,-10.7250,-11.3828,5.9320,4.3511,-2.6436,4.6802,4.4333,8.4052,-1.2430,-5.1110,-11.5003,7.4664,-1.3469,-7.0711,-2.0892,-8.5351
2117.1875,6.8601,2.3092,-1.8407,-11.0152,-11.5507,6.0208,4.5964,-3.6321,5.5181,10.5287,9.6614,0.3097,-4.1842,-10.0550,9.2334,0.1470,-6.3679,-0.5316,-7.9248
2121.0938,10.0297,2.4335,-1.1524,-10.3395,-11.0793,7.4679,5.1633,-4.2162,5.9543,14.0731,8.8811,1.5430,-3.8061,-8.3443,8.9294,1.7938,-5.5055,0.3254,-7.9571
2125.0000,14.0913,3.7546,-1.0934,-9.3757,-10.3095,9.4741,5.6523,-4.3341,5.8129,12.3251,7.0699,1.8772,-4.3541,-7.1079,6.6590,2.8792,-4.8802,0.0377,-8.8814
2128.9062,16.3108,4.9212,-1.9869,-8.9011,-9.5939,10.7183,5.6126,-4.2692,5.0973,5.8143,5.4407,0.9713,-5.7976,-6.8730,3.4770,2.9265,-4.8764,-1.3312,-10.5558
2132.8125,14.9435,4.8744,-3.6001,-9.2539,-9.1957,10.1642,4.9125,-4.4347,3.9086,-1.8594,4.5189,-1.1618,-7.7629,-7.7356,0.7733,1.8548,-5.7044,-3.2418,-12.4837
2136.7188,10.3950,3.6724,-5.1371,-10.0855,-9.2106,7.6902,3.8902,-5.0057,2.3590,-6.3007,3.8762,-4.1463,-9.7542,-9.3076,-0.5070,-0.0288,-7.2429,-4.9722,-14.0178
2140.6250,5.0814,2.3143,-5.6446,-10.5781,-9.4970,4.1655,3.1711,-5.6924,0.5906,-5.0965,2.6597,-7.3298,-11.3598,-10.8596,-0.3165,-2.1769,-8.9948,-5.9913,-14.6354
2144.5312,2.0080,1.7922,-4.5776,-9.9531,-9.6328,0.9723,3.2771,-5.8545,-1.1164,0.7811,0.4721,-9.9310,-12.3014,-11.5910,0.6357,-4.0064,-10.2222,-6.1629,-14.1202
2148.4375,2.9077,2.2431,-2.1337,-7.9086,-8.9709,-0.6985,4.2980,-4.9008,-2.2932,7.7854,-2.1140,-11.2206,-12.3384,-10.9014,1.4803,-5.0771,-10.2309,-5.6683,-12.5466
2152.3438,7.1122,2.9342,0.8750,-4.7197,-6.8696,-0.3669,5.8383,-2.6964,-2.4334,12.1057,-3.8376,-10.7194,-11.1881,-8.5644,1.7973,-5.1870,-8.6755,-4.7541,-10.1172
2156.2500,11.9089,3.0483,3.5031,-1.0154,-3.0613,1.6325,7.2555,0.3086,-1.3212,11.8397,-3.6341,-8.3818,-8.6192,-4.7729,1.8124,-4.3809,-5.7269,-3.5405,-7.0247
2160.1562,14.1987,2.5147,5.1609,2.5434,2.0278,4.4179,8.0219,3.3167,0.6908,7.6936,-1.4533,-4.6956,-4.7092,-0.0845,2.0702,-2.9035,-2.0145,-2.0452,-3.4771
2164.0625,12.4062,2.1058,5.7945,5.4561,7.2641,6.9801,7.9740,5.6141,2.7212,2.0467,1.6262,-0.6088,-0.0593,4.7027,2.8640,-1.1351,1.6270,-0.3681,0.1502
2167.9688,7.4065,2.6905,5.7070,7.3959,11.2197,8.5313,7.3126,6.8966,3.7876,-2.6892,4.0937,2.7568,4.2779,8.7295,3.8767,0.4792,4.4705,1.1739,3.2270
2171.8750,1.8702,4.3143,5.2277,8.1575,12.8523,8.6834,6.3882,7.2878,3.3893,-5.2372,5.0151,4.5278,7.2152,11.3012,4.3295,1.5172,6.1129,2.1352,5.0220
2175.7812,-1.5001,5.9705,4.5006,7.6683,12.0503,7.4706,5.4381,7.0839,1.8459,-5.5946,4.6117,4.4449,8.1681,12.1007,3.5493,1.6949,6.5120,2.2137,5.0729
2179.6875,-1.6222,6.3398,3.5084,6.0630,9.6612,5.2814,4.4614,6.4483,0.1227,-4.4418,3.9918,2.9600,7.3465,11.2889,1.5447,0.9808,5.8686,1.4861,3.5162
2183.5938,0.5323,4.9188,2.2309,3.7066,6.9393,2.7410,3.3088,5.2976,-0.7734,-2.5214,4.2427,0.9804,5.5660,9.4071,-0.8511,-0.3559,4.4598,0.3846,1.0855
2187.5000,2.9324,2.5657,0.7557,1.0748,4.7591,0.5577,1.9077,3.4516,-0.4249,-0.4170,5.5542,-0.6190,3.6899,7.1015,-2.4197,-1.8248,2.5299,-0.5996,-1.2921
2191.4062,4.0788,0.9361,-0.7487,-1.4548,3.1403,-0.6533,0.4427,0.9158,0.7633,1.3671,7.0131,-1.4407,2.0910,4.8158,-2.3153,-2.9229,0.2802,-1.2640,-3.0489
2195.3125,3.9686,1.2067,-2.1309,-3.7321,1.4298,-0.5392,-0.6683,-1.9355,1.8753,2.4005,7.2113,-1.7020,0.5246,2.6479,-0.6343,-3.3776,-2.0822,-1.8143,-4.2682
2199.2188,3.7553,3.1080,-3.2962,-5.7606,-0.9931,0.8765,-1.0209,-4.4307,2.0967,2.5566,5.2326,-1.9962,-1.5046,0.4662,1.6056,-3.2808,-4.3109,-2.6525,-5.4777
2203.1250,4.4893,5.0807,-4.1469,-7.4759,-4.0317,3.1740,-0.5388,-5.8971,1.1983,2.2484,1.3368,-2.8430,-4.1761,-1.8043,3.0951,-3.0131,-6.1504,-4.0008,-7.0925
2207.0312,6.0590,5.4664,-4.5135,-8.5929,-6.7580,5.6325,0.3796,-5.9964,-0.4097,2.3015,-3.1078,-4.3275,-7.0426,-3.9568,3.0705,-2.9862,-7.4174,-5.6700,-8.9508
2210.9375,7.2659,3.7975,-4.2079,-8.7104,-7.9995,7.4373,1.0295,-4.8912,-2.0195,3.3964,-6.3721,-6.0550,-9.2328,-5.5358,1.8060,-3.3651,-8.0730,-7.1590,-10.3398
2214.8438,6.9904,1.1588,-3.2118,-7.6428,-7.2078,7.9611,0.8163,-3.1524,-3.0671,5.4671,-7.2962,-7.4273,-10.0303,-6.1301,0.4140,-3.9636,-8.2293,-8.0054,-10.5253
2218.7500,5.4311,-0.6654,-1.8550,-5.7216,-4.9445,7.0262,-0.3479,-1.4755,-3.3715,7.5909,-5.8454,-8.0384,-9.3943,-5.7103,0.0615,-4.4004,-8.0851,-8.0981,-9.3824
2222.6562,4.2550,-0.5676,-0.7878,-3.7753,-2.5798,5.0174,-1.9599,-0.3813,-3.0880,8.5544,-3.0262,-7.9225,-8.0254,-4.7299,1.1066,-4.4186,-7.8326,-7.7074,-7.6103
2226.5625,5.3482,1.0763,-0.6819,-2.7142,-1.3857,2.7376,-3.2475,-0.0500,-2.5194,7.7049,-0.3017,-7.5103,-6.9189,-3.8730,2.7366,-4.1365,-7.5930,-7.2261,-6.3154
2230.4688,9.0642,2.7793,-1.8169,-2.9626,-1.6692,1.0214,-3.6927,-0.3373,-1.9775,5.4141,1.1102,-7.3442,-6.7187,-3.5959,3.3861,-4.0231,-7.4039,-6.8552,-6.2366
2234.3750,13.4287,3.1433,-3.8324,-4.1314,-2.5745,0.2916,-3.3775,-0.9083,-1.7515,2.7689,0.7038,-7.7457,-7.3210,-3.7906,1.7157,-4.5821,-7.2373,-6.4940,-7.1826
2238.2812,15.1524,1.8941,-5.8389,-5.1856,-2.6943,0.3334,-2.8787,-1.3873,-2.0813,0.7466,-1.2242,-8.6295,-7.9707,-3.8234,-2.4466,-5.9437,-7.0064,-5.9030,-8.1082
2242.1875,11.9218,-0.0497,-6.8448,-5.0212,-1.0391,0.4707,-2.7705,-1.4562,-3.0277,-0.4307,-3.7954,-9.5378,-7.7466,-2.9426,-7.8023,-7.6615,-6.5496,-4.9619,-7.7889
2246.0938,4.3448,-1.4388,-6.2426,-3.0860,2.3248,0.0652,-3.1176,-0.9047,-4.2899,-1.2220,-5.9157,-9.8457,-6.0814,-0.7737,-12.1470,-8.8907,-5.6277,-3.7722,-5.6123
2250.0000,-3.9805,-1.6924,-4.0720,0.3358,6.3806,-0.9908,-3.3785,0.3282,-5.1654,-2.0676,-6.6482,-9.0163,-3.0049,2.4383,-13.5012,-8.8648,-3.9889,-2.5119,-1.9392
2253.9062,-8.5120,-1.1833,-0.9467,4.3094,9.8623,-2.1602,-2.8408,2.1049,-4.8170,-2.7181,-5.5018,-6.8045,0.9611,5.9922,-11.1549,-7.3701,-1.5135,-1.1932,2.1772
2257.8125,-6.6148,-0.6313,2.2585,7.7334,11.9962,-2.6413,-1.2756,4.0701,-2.7707,-2.2404,-2.5788,-3.3550,5.0920,9.1588,-6.0243,-4.8955,1.6262,0.4205,5.6572
2261.7188,0.7340,-0.2204,4.7553,9.8049,12.7766,-1.9829,0.7230,5.7234,0.6792,0.2436,1.4653,0.8195,8.7096,11.5528,-0.1326,-2.3464,4.9137,2.6165,7.9520
2265.6250,9.5611,0.7060,6.0721,10.2437,12.6876,-0.4608,2.0433,6.6002,4.4973,4.6866,5.6564,4.9748,11.2980,13.2057,4.4519,-0.5055,7.6283,5.3939,9.1472
2269.5312,15.3781,3.0486,6.1379,9.2592,12.2065,1.1042,1.8435,6.4935,7.4352,9.8739,9.0555,8.3570,12.5408,14.3403,6.5884,0.3997,9.1478,8.2806,9.6515
2273.4375,15.8090,6.9531,5.2592,7.3853,11.5259,1.9706,0.2381,5.5818,8.7447,14.0621,11.0881,10.4381,12.3763,15.0761,6.4127,0.7391,9.2570,10.5018,9.7931
2277.3438,11.6564,11.3143,4.0158,5.2955,10.6507,2.0541,-1.6796,4.3558,8.5840,16.0210,11.7018,11.0662,11.0668,15.3163,4.9479,1.1197,8.2647,11.4142,9.6428
2281.2500,5.9121,14.3042,3.0604,3.6176,9.6677,1.9680,-2.5672,3.3552,7.8206,15.6696,11.2934,10.4560,9.1791,14.8868,3.3186,1.8914,6.8328,10.8967,9.1220
2285.1562,1.6686,14.5947,2.8406,2.7331,8.8471,2.4562,-1.8127,2.8638,7.3753,13.8586,10.4694,9.0330,7.3879,13.7806,2.1137,2.8722,5.6041,9.4075,8.2075
2289.0625,0.4818,12.3321,3.3577,2.6083,8.4471,3.6629,-0.0252,2.7657,7.5974,11.5772,9.7782,7.2370,6.1606,12.2738,1.2777,3.4826,4.8615,7.6831,7.0105
2292.9688,2.1235,9.0785,4.1394,2.7866,8.4210,4.8674,1.3690,2.6709,8.1320,9.3182,9.5356,5.4096,5.5236,10.8043,0.5066,3.1816,4.4419,6.3212,5.6806
2296.8750,5.4604,6.7399,4.5170,2.6375,8.3616,4.9678,1.1607,2.2405,8.3490,7.1127,9.7855,3.8129,5.0997,9.7090,-0.2295,1.8854,3.9615,5.5571,4.2836
2300.7812,9.4165,6.2989,4.0843,1.7804,7.8176,3.3862,-0.7377,1.4857,7.9596,5.0660,10.3597,2.6985,4.4251,9.0367,-0.4853,0.0688,3.1843,5.3434,2.8160
2304.6875,13.2014,7.3082,3.0373,0.4186,6.7500,0.6662,-3.1987,0.8193,7.3053,3.7217,10.9815,2.2958,3.3302,8.5850,0.3545,-1.5163,2.2605,5.5743,1.3580
2308.5938,15.9000,8.4720,2.1152,-0.6942,5.7120,-1.7715,-4.6713,0.8031,7.0823,3.7424,11.3761,2.6640,2.1010,8.1189,2.4782,-2.2999,1.6504,6.1949,0.1917
2312.5000,16.2251,8.7812,2.1270,-0.7000,5.5180,-2.5995,-4.2589,1.7547,7.7351,5.1090,11.3723,3.5105,1.2917,7.5803,5.2247,-2.2096,1.7812,7.0891,-0.2896
2316.4062,13.0753,8.2624,3.3690,0.7706,6.5993,-1.5501,-2.2770,3.4917,9.0283,6.6373,10.9707,4.1778,1.3220,7.1145,7.2275,-1.6383,2.6939,7.8987,0.1387
2320.3125,6.6545,7.7760,5.3549,3.2804,8.5501,0.3987,0.0947,5.4021,10.1605,6.4920,10.3385,3.9205,2.1624,6.9015,7.1359,-1.1145,3.9537,8.0403,1.2862
2324.2188,-0.8609,8.1078,7.0809,5.7955,10.2752,1.7968,1.7407,6.7987,10.3426,3.5477,9.7097,2.3715,3.3415,6.9490,4.5059,-0.9310,4.9113,7.0211,2.5764
2328.1250,-6.0115,9.1675,7.6564,7.3026,10.6941,1.8589,2.3591,7.3118,9.3789,-1.4146,9.2315,-0.1117,4.2585,7.0324,0.2695,-0.9940,5.1358,4.8558,3.3800
2332.0312,-5.9739,9.9754,6.8488,7.4039,9.5025,1.0475,2.4630,7.0498,7.7881,-5.7745,8.8552,-2.5206,4.5570,6.8398,-3.5975,-0.9769,4.7010,2.2164,3.4145
2335.9375,-0.4703,9.4303,5.1550,6.4785,7.4133,0.6110,2.7071,6.4355,6.3753,-6.6243,8.3643,-3.7351,4.2837,6.2066,-5.1008,-0.6339,4.1069,0.1015,2.8948
2339.8438,7.8024,7.2009,3.3730,5.3264,5.6803,1.4394,3.1775,5.8684,5.6096,-2.8161,7.5417,-3.2251,3.7447,5.2481,-3.3751,-0.0235,3.8873,-0.8080,2.3088
2343.7500,14.7178,4.0075,2.0296,4.5951,5.2547,3.1905,3.2907,5.4822,5.3081,4.0201,6.3652,-1.4407,3.2110,4.2841,0.7495,0.5241,4.1909,-0.6428,2.0050
2347.6562,17.2545,1.0983,1.1103,4.4238,6.1998,4.4475,2.4006,5.1709,4.8685,10.3536,5.0854,0.4166,2.7269,3.6171,5.1451,0.6604,4.6525,-0.2814,1.9387
2351.5625,15.2186,-0.6070,0.2703,4.5277,7.7755,3.8385,0.5713,4.8251,3.8357,12.9855,4.1163,1.1363,2.1605,3.3423,7.5554,0.2912,4.6549,-0.7260,1.7851
2355.4688,10.9117,-0.9993,-0.7007,4.5749,9.0766,1.2271,-1.2117,4.5448,2.3252,11.0333,3.8131,0.2710,1.4177,3.3296,6.8501,-0.3329,3.7949,-2.3561,1.3072
2359.3750,7.0624,-0.5620,-1.5932,4.4919,9.6919,-2.0199,-1.6674,4.6193,0.9518,6.2344,4.2934,-1.5894,0.6125,3.3806,3.6097,-0.7726,2.2133,-4.6233,0.6384
2363.2812,4.6888,0.2427,-1.9362,4.4428,9.8774,-3.9676,-0.2390,5.2705,0.3288,1.4317,5.4121,-3.2416,0.0357,3.4236,-0.3106,-0.6822,0.5495,-6.4336,0.2119
2367.1875,2.6087,1.3546,-1.4731,4.5477,10.1612,-3.5500,2.3253,6.3751,0.5487,-1.4952,6.8639,-3.7014,-0.0463,3.5919,-2.9513,-0.0215,-0.4430,-6.9425,0.3851
2371.0938,-1.0236,2.8980,-0.5340,4.6492,10.7676,-1.3728,4.3688,7.4210,1.0641,-2.6215,8.2851,-2.8712,0.4104,4.1262,-3.4111,0.9345,-0.3448,-6.1729,1.0871
2375.0000,-6.4613,4.6073,0.0459,4.3786,11.3669,0.7703,4.4716,7.7821,1.0515,-3.2327,9.2603,-1.5883,1.1941,5.1795,-2.2785,1.7672,0.7163,-5.0049,1.8144
2378.9062,-11.3729,5.5266,-0.5516,3.4805,11.3544,1.2887,2.4954,7.1334,-0.0408,-4.1770,9.2877,-1.0410,1.9784,6.6626,-1.1017,2.1314,2.1992,-4.5636,1.9985
2382.8125,-12.1658,4.4241,-2.5502,2.0927,10.3987,-0.0204,-0.2893,5.7007,-2.1827,-4.9085,7.8592,-1.9761,2.4998,8.2292,-1.2969,1.8811,3.4864,-5.4814,1.4370
2386.7188,-6.8081,0.7228,-5.3910,0.6936,8.7714,-1.9403,-2.1210,4.1435,-4.8877,-4.1613,4.7485,-4.2419,2.6212,9.3998,-3.2417,1.0618,4.1671,-7.5656,0.4065
2390.6250,3.0072,-4.7842,-8.0859,-0.2789,7.1691,-2.9528,-2.0284,3.1413,-7.6085,-1.6738,0.3816,-6.9456,2.2583,9.7488,-6.1375,-0.1680,4.1020,-10.0563,-0.6525
2394.5312,12.2151,-10.1153,-9.8469,-0.8174,6.1739,-2.5537,-0.5099,2.9718,-10.0454,0.7063,-4.0322,-9.0626,1.2844,9.0681,-8.6723,-1.6004,3.3115,-12.2012,-1.6028
2398.4375,15.3135,-13.2030,-10.5342,-1.3852,5.8101,-1.6516,0.8903,3.3749,-12.1383,-0.1521,-6.8766,-10.0507,-0.4454,7.4560,-9.9655,-2.9951,1.8652,-13.6723,-2.7951
2402.3438,9.9655,-13.2001,-10.6257,-2.5253,5.5701,-1.7108,0.7639,3.7795,-13.8258,-6.2053,-6.9561,-10.0696,-2.9250,5.3156,-10.1184,-4.0948,-0.0933,-14.5530,-4.7573
2406.2500,-1.2832,-11.0356,-10.7880,-4.3400,4.8876,-3.3673,-1.1323,3.7093,-14.8682,-16.0091,-4.3145,-9.7295,-5.8171,3.2566,-10.0135,-4.6936,-2.2261,-15.0178,-7.6108
2410.1562,-12.4813,-8.7738,-11.4048,-6.2825,3.6581,-5.7163,-3.7553,3.0738,-14.9533,-24.7424,-0.4459,-9.6161,-8.4424,1.9081,-10.5709,-4.7505,-3.9574,-15.0702,-10.7095
2414.0625,-18.0004,-8.2030,-12.3915,-7.4720,2.3730,-6.9303,-5.5922,2.1652,-14.0114,-26.9420,2.3977,-9.9416,-10.0101,1.6803,-12.0412,-4.4604,-4.6477,-14.5945,-12.8648
2417.9688,-15.9591,-9.6543,-13.3537,-7.3117,1.7537,-5.7482,-5.7318,1.4135,-12.4382,-20.2657,2.4967,-10.5169,-9.9830,2.5691,-13.8543,-4.1899,-3.9384,-13.6384,-13.0578
2421.8750,-9.0175,-11.8830,-13.8826,-5.9267,2.1868,-2.6088,-4.3750,1.1116,-10.9603,-7.5636,-0.2368,-10.9778,-8.3552,4.1180,-15.0939,-4.2732,-2.0410,-12.5965,-11.1324
2425.7812,-2.1181,-13.0574,-13.7389,-4.0652,3.4201,0.5566,-2.4697,1.3030,-10.1820,4.4636,-4.1116,-11.0463,-5.6751,5.5983,-15.1976,-4.7887,0.2702,-12.0364,-7.9422
2429.6875,1.0767,-12.0965,-12.8534,-2.5368,4.7588,1.7776,-0.8727,1.8591,-10.1414,9.3416,-6.6394,-10.6474,-2.8067,6.3462,-14.3350,-5.4830,2.0149,-12.2488,-4.8251
2433.5938,0.4540,-9.3801,-11.2657,-1.6356,5.5973,0.6093,0.2339,2.6240,-10.2372,4.9201,-6.0555,-9.8581,-0.5742,6.0863,-13.1936,-5.9211,2.5160,-12.8943,-2.7877
2437.5000,-1.0985,-6.3577,-9.1416,-1.0060,5.8565,-1.4663,1.2307,3.4875,-9.6126,-5.3308,-2.3831,-8.7889,0.5306,5.0552,-12.3668,-5.7737,1.7433,-13.0952,-1.9863
2441.4062,-0.4373,-4.4143,-6.8578,-0.0443,5.9879,-2.1721,2.4464,4.3496,-7.7223,-14.6985,2.6678,-7.5074,0.4773,3.8533,-11.8384,-5.0297,0.2852,-11.9752,-1.8385
2445.3125,3.1298,-3.8683,-4.9847,1.5092,6.5558,-0.2383,3.6583,5.0567,-4.6682,-17.5769,6.8810,-6.0304,-0.3360,3.1129,-10.9638,-3.9647,-1.0104,-9.2744,-1.6004
2449.2188,7.2828,-3.8294,-4.0436,3.2797,7.7326,3.5454,4.1878,5.4065,-1.0818,-12.7730,8.9564,-4.3504,-1.2313,3.1825,-8.9556,-2.8814,-1.4747,-5.5742,-0.9177
2453.1250,8.6670,-2.9687,-4.1383,4.5009,9.0916,6.8735,3.5170,5.2317,2.3041,-3.6503,9.1823,-2.4660,-1.4827,3.9969,-5.5080,-1.8316,-0.8735,-1.9587,0.0574
2457.0312,5.8131,-0.5874,-4.7621,4.5799,9.8335,7.6548,1.8642,4.4799,5.0241,4.6603,8.9290,-0.4269,-0.6032,5.1712,-1.1099,-0.5696,0.6107,0.6321,0.9785
2460.9375,0.6614,2.8053,-5.0337,3.5159,9.2662,5.5847,0.1644,3.2080,6.9203,8.7357,9.4065,1.5908,1.3914,6.2193,3.1496,1.1837,2.5608,1.8789,1.6852
2464.8438,-2.5913,5.7979,-4.2957,1.8444,7.2002,2.3463,-0.5962,1.4995,7.9103,8.5474,10.6569,3.2232,3.8813,6.7521,6.1212,3.3492,4.4933,2.0766,2.2763
2468.7500,-0.5521,7.0084,-2.6675,0.1850,4.0311,0.3103,-0.1773,-0.5938,7.8017,6.4875,11.5560,3.9694,5.8345,6.5692,7.1180,5.3033,5.9248,1.7345,2.8350
2472.6562,6.6635,5.9731,-1.0922,-1.2100,0.5185,0.7668,0.6493,-3.0046,6.4141,4.9341,10.8105,3.4133,6.2759,5.6553,6.1463,6.1207,6.4005,1.1674,3.1195
2476.5625,15.1511,3.4049,-0.7503,-2.5345,-2.5510,3.0421,0.6252,-5.5281,3.9492,4.4758,8.1650,1.5398,4.8153,4.1453,3.8170,5.1579,5.5954,0.4123,2.5906
2480.4688,19.6779,0.7046,-2.2132,-4.1044,-4.6268,5.1193,-1.0550,-7.7673,1.2429,4.0926,4.8561,-1.0755,1.9087,2.2916,1.0932,2.5975,3.5040,-0.5315,0.8356
2484.3750,17.1916,-0.8957,-4.9613,-5.9489,-5.5136,5.1964,-4.1058,-9.2635,-0.4562,2.8074,2.9068,-3.4120,-1.3526,0.4160,-0.9751,-0.4691,0.5829,-1.4445,-1.9473
2488.2812,8.9009,-0.9875,-7.6683,-7.6930,-5.3734,2.9445,-7.3060,-9.7709,-0.1720,1.1163,3.7288,-4.4951,-3.8405,-1.1833,-1.5057,-2.5598,-2.3295,-1.9184,-4.8606
2492.1875,-0.5371,-0.0678,-9.0874,-8.8345,-4.6522,-0.4404,-9.3236,-9.4660,2.0915,0.8159,7.0409,-3.9721,-5.0078,-2.3520,-0.0706,-2.6455,-4.3637,-1.6871,-6.7855
2496.0938,-6.1204,0.9224,-8.8960,-9.1591,-3.9249,-3.2873,-9.5784,-8.8806,5.1875,3.3439,10.9098,-2.3832,-5.1185,-3.1456,3.0271,-0.7800,-5.0646,-0.9470,-7.1144
2500.0000,-5.6923,1.2499,-7.8614,-8.9102,-3.6562,-4.6590,-8.5098,-8.5400,7.4402,8.1233,12.9254,-0.8887,-4.9374,-3.7647,6.6811,1.9141,-4.6368,-0.3155,-6.1745
2503.9062,-1.0228,0.8153,-7.1906,-8.5473,-3.9493,-4.7674,-7.1008,-8.5466,7.6890,12.4790,11.7192,-0.5711,-5.1007,-4.3699,9.3181,3.9206,-3.7896,-0.3820,-4.9754
2507.8125,3.8379,0.1274,-7.5542,-8.2934,-4.4354,-4.4051,-6.0827,-8.4423,6.0516,13.4070,7.8036,-1.7427,-5.6194,-4.8934,9.6282,4.2358,-3.2558,-1.1827,-4.4363
2511.7188,5.5964,-0.1049,-8.5295,-7.8709,-4.4308,-4.0372,-5.4554,-7.5129,3.8415,9.8904,3.1955,-3.7171,-5.8680,-5.0029,7.3354,2.9216,-3.3005,-2.0573,-4.6745
2515.6250,3.8979,0.5186,-8.8954,-6.6843,-3.3284,-3.4159,-4.6576,-5.3526,2.6682,3.9012,0.1321,-5.2074,-5.0578,-4.2797,3.4978,0.9689,-3.5622,-2.0661,-4.9165
2519.5312,1.1700,1.7981,-7.5614,-4.3327,-1.0068,-2.0218,-3.1891,-2.2794,3.3470,-0.8168,-0.2339,-5.0912,-2.8446,-2.5208,0.0344,-0.3988,-3.3379,-0.6882,-4.1232
2523.4375,0.4427,3.0333,-4.4339,-1.0555,2.0115,0.1517,-1.1449,0.7402,5.3895,-1.3576,1.6670,-3.0476,0.3629,0.0357,-1.3247,-0.4826,-2.1111,1.7389,-1.8641
2527.3438,2.9310,3.4485,-0.5806,2.2517,4.7759,2.2798,0.7655,2.6407,7.4255,2.2908,4.3382,0.3218,3.5981,2.7293,-0.0288,0.5703,0.0518,4.2025,1.2251
2531.2500,7.2233,2.6859,2.4179,4.4903,6.3709,3.2317,1.7033,2.9048,8.2199,7.3055,6.2702,3.9098,5.8781,4.7527,3.0172,2.0356,2.5125,5.7025,3.7689
2535.1562,10.5903,1.0580,3.4452,4.9728,6.3394,2.5300,1.2898,1.8426,7.5254,10.1630,6.7691,6.7320,6.7174,5.5294,6.0844,3.2048,4.4573,5.9239,4.5431
2539.0625,11.2684,-0.6124,2.4719,3.7913,4.8306,0.8895,-0.1451,0.3138,6.1577,9.2323,6.0789,8.3536,6.3026,4.9782,7.7251,3.8383,5.3949,5.3833,3.3035
2542.9688,9.8636,-1.4816,0.4469,1.7349,2.4469,-0.2109,-1.7956,-0.8759,5.2804,5.8787,4.8841,8.9053,5.2837,3.5243,7.5851,4.1770,5.4134,4.9595,0.9781
2546.8750,8.7750,-1.1960,-1.3720,-0.1324,-0.0403,0.3494,-2.8605,-1.4338,5.4749,3.2857,3.6899,8.7908,4.3868,1.8774,6.3861,4.5766,5.0472,5.1955,-0.8891
2550.7812,10.1327,-0.0886,-2.1258,-0.9375,-1.9141,2.4170,-2.9006,-1.5639,6.3049,3.9298,2.5601,8.3605,4.1018,0.7114,5.1729,5.1106,4.8747,5.9223,-1.0502
2554.6875,13.9222,1.0827,-1.6528,-0.2758,-2.6202,4.6383,-1.8749,-1.5462,6.6797,7.6376,1.3231,7.7690,4.5680,0.4007,4.4593,5.4783,5.1378,6.4643,0.7679
2558.5938,17.8117,1.6754,-0.3138,1.7415,-1.8465,5.5202,0.0440,-1.3171,5.7100,11.6678,-0.0377,7.0313,5.6062,0.9040,3.9509,5.2779,5.6207,6.2109,3.7894
2562.5000,18.8503,1.5981,1.3730,4.5705,0.3400,4.6450,2.6188,-0.4466,3.3926,12.7198,-1.2022,6.1390,6.7943,1.8110,3.0278,4.3962,5.8324,5.0639,6.6698
2566.4062,15.7297,1.3109,2.9567,7.3673,3.3569,3.0463,5.5132,1.4426,0.6254,9.3493,-1.7082,5.1066,7.5535,2.5191,1.5336,3.1722,5.3380,3.4186,8.1737
2570.3125,9.8460,1.3787,4.0452,9.1845,6.1573,2.4003,8.1658,4.1619,-1.4255,3.0284,-1.3528,3.9352,7.2963,2.4896,0.1580,2.1804,4.0190,1.7513,7.6685
2574.2188,4.3260,1.9091,4.2282,9.2655,7.5952,3.6410,9.8018,6.8123,-2.1145,-2.8690,-0.4581,2.5791,5.6661,1.5046,0.0215,1.7890,2.1234,0.2097,5.2610
2578.1250,1.7509,2.3236,3.1418,7.3724,6.9945,6.0970,9.7073,8.1953,-1.6947,-5.3597,0.2245,0.9797,2.7741,-0.1845,1.7343,1.8372,0.1103,-1.4368,1.6334
2582.0312,2.3118,1.6851,0.6951,3.9594,4.5757,7.8652,7.6414,7.5253,-1.0682,-3.7707,-0.0878,-0.8632,-0.7477,-1.9241,4.6688,1.6904,-1.5977,-3.4800,-2.2616
2585.9375,3.7878,-0.6107,-2.7379,0.0181,1.4022,7.1796,4.0873,4.9355,-1.1556,-0.0065,-1.7867,-2.8694,-3.9923,-2.9571,7.0789,0.6527,-2.8144,-5.9061,-5.5174
2589.8438,3.3365,-4.2766,-6.3803,-3.3759,-1.1923,3.7515,0.1172,1.4129,-2.3601,2.8828,-4.6915,-4.9368,-6.2233,-2.8247,7.0853,-1.5484,-3.6460,-8.3260,-7.5311
2593.7500,-0.2820,-8.1439,-9.3840,-5.5531,-2.3532,-0.9344,-3.0888,-1.7775,-4.4537,2.7207,-8.1733,-7.0064,-7.2388,-1.6344,3.8868,-4.5367,-4.3825,-10.2549,-8.1505
2597.6562,-5.7166,-10.7900,-11.2086,-6.4522,-2.1220,-4.5979,-4.7776,-3.7585,-6.8518,-0.5683,-11.4471,-9.0273,-7.3844,-0.0021,-1.6366,-7.4618,-5.2806,-11.4654,-7.6531
2601.5625,-9.9630,-11.3793,-11.7729,-6.4190,-1.2375,-5.6920,-4.8843,-4.3532,-8.9805,-5.2047,-13.8329,-10.8141,-7.2005,1.3230,-7.3481,-9.4406,-6.3518,-12.0800,-6.5491
2605.4688,-10.4606,-10.1458,-11.3011,-5.8064,-0.4961,-4.3708,-3.8998,-3.9176,-10.4584,-8.8864,-14.8931,-11.9411,-6.9742,1.9093,-11.0161,-9.9778,-7.2897,-12.3296,-5.3018
2609.3750,-6.7740,-8.1848,-10.0476,-4.7415,-0.1810,-2.2284,-2.4956,-2.9407,-11.0559,-10.1682,-14.4831,-11.8572,-6.5643,1.8509,-11.4467,-9.1310,-7.6125,-12.2392,-4.1463
2613.2812,-0.7067,-6.7020,-8.1738,-3.2624,-0.0071,-1.0637,-1.1867,-1.7844,-10.6056,-9.0170,-12.7873,-10.2483,-5.6480,1.5752,-8.9053,-7.3852,-6.9749,-11.5887,-3.1358
2617.1875,5.0566,-6.2405,-5.8774,-1.6704,0.4053,-1.6094,-0.2222,-0.7276,-9.0437,-6.3893,-10.3309,-7.4192,-4.1845,1.3986,-4.6884,-5.3764,-5.4652,-10.2301,-2.3685
2621.0938,8.6183,-6.4030,-3.6010,-0.6955,0.9632,-3.1261,0.3256,-0.1480,-6.5716,-3.3764,-7.8750,-4.3535,-2.6772,1.1915,-0.2761,-3.6472,-3.6671,-8.4677,-2.1672
2625.0000,9.6196,-6.2235,-2.0303,-1.1905,0.9743,-4.0797,0.4396,-0.5316,-3.7495,-0.6225,-6.1378,-2.2782,-1.9510,0.4495,3.3203,-2.5259,-2.3828,-7.0793,-2.9893
2628.9062,8.7378,-4.8980,-1.7688,-3.4853,-0.3650,-3.3297,0.1407,-2.1785,-1.3462,1.6566,-5.4385,-1.9441,-2.5646,-1.2479,5.6814,-2.1116,-2.1509,-6.8356,-5.0571
2632.8125,6.6398,-2.3657,-2.8955,-6.9056,-3.2202,-0.9456,-0.4424,-4.8102,0.0209,3.2797,-5.5025,-3.1199,-4.3126,-3.7464,6.7030,-2.3032,-2.8762,-7.8521,-7.9814
2636.7188,3.4383,0.6179,-4.7924,-9.9368,-6.7297,1.8896,-1.0450,-7.4673,0.2089,3.8311,-5.6332,-4.7315,-6.2631,-6.2193,6.3168,-2.8501,-3.8652,-9.3431,-10.7423
2640.6250,-0.9113,2.9096,-6.4661,-11.0604,-9.3624,3.7406,-1.3770,-8.9142,-0.4295,2.8327,-5.2238,-5.6275,-7.3774,-7.6161,4.4933,-3.4477,-4.3032,-10.1005,-12.1706
2644.5312,-5.7931,3.5896,-7.1939,-9.7341,-9.8381,3.8815,-1.3208,-8.3642,-1.3662,0.2355,-4.2945,-5.4562,-7.2849,-7.3793,1.4766,-3.8830,-3.8721,-9.4242,-11.6789
2648.4375,-9.6522,2.3821,-7.0200,-6.7965,-7.9669,2.6999,-1.0505,-6.0235,-2.3155,-3.2147,-3.6425,-4.9781,-6.6119,-5.9023,-2.0521,-4.1706,-3.0605,-7.7906,-9.7278
2652.3438,-10.7451,-0.2957,-6.6894,-3.9484,-4.7896,1.3357,-0.9363,-3.0243,-3.4061,-6.1347,-4.4020,-5.5164,-6.5651,-4.3504,-5.1302,-4.5710,-2.8951,-6.6525,-7.6324
2656.2500,-8.4266,-3.5863,-7.0301,-2.6410,-1.9057,0.8825,-1.2692,-0.7436,-4.9533,-7.2007,-7.2207,-7.8909,-8.0352,-3.9234,-6.9536,-5.4342,-4.2300,-7.4087,-6.7676
2660.1562,-3.8806,-6.5444,-8.2405,-3.1632,-0.4703,1.7204,-2.0012,0.0352,-7.0150,-5.9745,-11.5936,-11.6309,-10.8795,-5.0651,-7.2988,-6.9361,-7.0808,-10.2676,-7.6926
2664.0625,0.4620,-8.4236,-9.6533,-4.5860,-0.5672,3.3814,-2.7144,-0.4700,-9.1198,-3.2955,-15.8687,-15.1086,-13.9381,-7.1809,-6.6144,-8.8871,-10.4960,-13.8976,-9.8109
2667.9688,2.5220,-8.8484,-10.1969,-5.5737,-1.3596,4.9480,-2.8724,-1.3331,-10.4459,-0.9057,-18.0457,-16.5781,-15.8014,-9.0597,-5.7090,-10.7683,-13.0924,-16.2149,-11.8199
2671.8750,1.9982,-7.8843,-9.2258,-5.4127,-1.8262,5.6541,-2.1950,-1.6599,-10.3702,-0.4561,-16.9464,-15.4020,-15.7701,-9.6776,-5.2560,-12.0045,-13.8941,-15.8002,-12.6238
2675.7812,0.4822,-6.0066,-7.0828,-4.4626,-1.4817,5.2900,-0.8931,-1.2045,-8.9836,-2.4665,-13.0345,-12.5586,-14.2928,-8.7894,-5.4439,-12.2995,-12.8830,-12.9153,-12.0416
2679.6875,0.1209,-3.9401,-4.9347,-3.7093,-0.5588,4.2059,0.4095,-0.4177,-7.1457,-5.8943,-8.3172,-10.0152,-12.5503,-6.9010,-5.9658,-11.7959,-10.8741,-9.3487,-10.7966
2683.5938,1.8531,-2.3765,-3.9723,-3.8266,0.3977,2.9870,1.0232,0.0519,-5.9759,-8.6476,-5.3091,-9.3796,-11.5042,-4.7054,-6.2914,-10.9407,-8.8330,-7.1775,-9.8235
2687.5000,4.6182,-1.6808,-4.5601,-4.5355,1.1109,2.0566,0.5860,-0.0421,-6.1088,-8.8143,-5.6319,-10.7859,-11.1338,-2.4793,-6.0046,-10.1533,-7.1697,-7.3402,-9.4499
2691.4062,6.1744,-1.7596,-5.9644,-4.7902,1.8163,1.4614,-0.7451,-0.3336,-7.2463,-5.9084,-9.0718,-12.8135,-10.4475,0.0614,-5.0127,-9.5459,-5.5478,-9.0526,-9.0956
2695.3125,4.8777,-2.1971,-6.8601,-3.6341,2.9946,0.9425,-2.4027,-0.1725,-8.3484,-1.3552,-13.6672,-13.4891,-8.2646,3.3465,-3.5743,-8.9065,-3.3310,-10.4566,-7.7239
2699.2188,0.9976,-2.5833,-6.2320,-1.0156,4.8675,0.2105,-3.7198,0.8132,-8.3466,2.1710,-16.7814,-11.6436,-4.1812,7.3513,-2.1991,-7.9533,-0.2821,-9.9729,-4.6924
2703.1250,-3.4704,-2.7927,-4.0092,2.1136,7.1239,-0.7739,-4.2376,2.4017,-6.8800,2.2642,-16.5408,-7.6615,1.0081,11.3505,-1.4761,-6.6476,3.0748,-7.3373,-0.3386
2707.0312,-6.3077,-2.9883,-0.9988,4.5075,9.1248,-1.6976,-3.8370,3.9658,-4.5288,-1.6943,-12.8087,-3.1302,5.7532,14.2788,-1.8420,-5.3010,5.7431,-3.5996,4.1578
2710.9375,-6.6330,-3.3268,1.7800,5.5749,10.4091,-2.0369,-2.6658,4.9899,-2.3798,-7.9571,-7.1628,0.2936,8.7372,15.4490,-3.3107,-4.3696,6.9804,-0.1910,7.5379
2714.8438,-5.2544,-3.6025,3.8213,5.8007,11.0563,-1.3530,-0.9644,5.4702,-1.2385,-13.2175,-1.9341,1.9566,9.6944,15.0633,-5.2822,-4.0799,6.8795,2.1452,9.2818
2718.7500,-3.5953,-3.1608,5.3814,6.3024,11.5809,0.4428,1.0650,5.8590,-1.0533,-14.4276,1.1013,2.4837,9.4805,14.0859,-6.6227,-4.1799,6.3229,3.7317,9.8746
2722.6562,-2.2231,-1.2367,7.1087,7.8754,12.4374,3.0133,3.2643,6.6111,-0.9627,-10.5966,1.6171,3.1483,9.3678,13.5378,-6.1253,-4.0387,6.3138,5.4278,10.3355
2726.5625,-0.3607,2.4551,9.3929,10.2904,13.5525,5.7423,5.4298,7.7271,0.0654,-3.4814,0.7374,4.8776,10.0909,13.7323,-3.2104,-3.0636,7.1875,7.7128,11.3748
2730.4688,3.0924,7.2928,11.9531,12.3980,14.2949,7.9937,7.2345,8.6965,2.4475,3.3043,0.1958,7.6207,11.3230,14.0338,1.5390,-1.1575,8.3168,10.1690,12.8069
2734.3750,7.8897,11.8415,13.9633,12.9558,13.9393,9.3211,8.2647,8.9042,5.5897,6.2891,1.1872,10.4560,11.9303,13.3399,6.4277,1.1106,8.5541,11.7677,13.6447
2738.2812,11.7104,14.4871,14.5890,11.5326,12.2692,9.5320,8.1949,8.1675,8.1473,4.0890,3.5943,12.2426,10.7963,10.9371,9.3991,2.7663,7.0928,11.6793,12.7968
2742.1875,11.3352,14.2500,13.5172,8.8035,9.8319,8.6407,7.0132,6.9500,8.7678,-1.8581,6.0256,12.2800,7.6286,7.0950,9.1176,2.9713,4.1035,9.9130,9.8667
2746.0938,5.1293,11.2752,11.1092,6.0388,7.6208,6.8252,5.1458,6.0514,6.8417,-8.2018,6.6174,10.5474,3.2079,2.9562,5.7165,1.5002,0.6731,7.2719,5.4977
2750.0000,-5.0311,6.7034,8.1210,4.2117,6.4000,4.4511,3.3545,6.0011,2.8145,-11.6735,4.1159,7.4907,-1.0544,-0.1999,0.6916,-1.1489,-1.9062,4.6996,1.0411
2753.9062,-14.1149,2.0378,5.2495,3.4070,6.1750,2.1062,2.4080,6.6371,-2.0857,-10.9589,-1.3827,3.6603,-3.9281,-1.7828,-4.0328,-4.0680,-2.9762,2.5941,-2.2150
2757.8125,-16.7379,-1.5641,2.8443,2.9399,6.2075,0.5080,2.6812,7.2148,-6.4840,-7.3391,-8.4330,-0.4834,-5.0168,-2.2132,-7.2569,-6.4580,-2.8820,0.6583,-3.7504
2761.7188,-10.6944,-3.6476,0.9428,2.0243,5.5725,0.2226,3.9264,6.9799,-9.4571,-3.7643,-14.9367,-4.5245,-4.8741,-2.5280,-9.0899,-8.0156,-2.6411,-1.6207,-4.0203
2765.6250,1.2412,-4.3421,-0.4888,0.4344,3.8542,1.3153,5.3901,5.7661,-10.7773,-2.9757,-19.1078,-7.9878,-4.5725,-3.5753,-10.5649,-8.9650,-3.1908,-4.3087,-4.0805
2769.5312,12.6597,-3.9916,-1.3631,-1.3437,1.4793,3.1933,6.2464,4.1499,-10.7545,-5.8402,-20.1703,-10.3865,-5.0351,-5.3903,-12.5812,-9.7581,-4.7653,-6.7721,-4.8973
2773.4375,17.2825,-2.8965,-1.5053,-2.5384,-0.5505,4.8359,6.0879,3.0288,-9.8825,-10.8849,-18.4787,-11.4364,-6.5332,-7.1878,-14.9795,-10.6821,-6.8088,-8.0743,-6.7730
2777.3438,12.7142,-1.3598,-0.8804,-2.7225,-1.3359,5.3469,5.1398,2.9314,-8.5685,-15.2606,-15.1250,-11.2427,-8.5978,-7.9500,-16.4796,-11.6453,-8.4087,-7.7098,-9.2062
2781.2500,1.7277,0.0881,0.1901,-2.1544,-0.6931,4.4852,4.0187,3.5749,-7.1072,-16.5011,-11.3787,-10.2581,-10.3252,-7.1640,-15.5827,-12.2603,-8.8796,-6.0792,-11.2261
2785.1562,-9.6820,0.6040,1.0232,-1.5960,0.7161,2.7865,3.1854,4.0103,-5.8372,-14.0033,-8.3021,-9.0048,-10.8522,-5.1720,-11.8094,-12.1314,-8.0773,-4.3105,-11.9685
2789.0625,-16.0632,-0.6873,0.8386,-1.7743,1.8257,1.1472,2.4981,3.2665,-5.2689,-9.3641,-6.6551,-7.7758,-9.7321,-2.8940,-6.3518,-11.1203,-6.2902,-3.5491,-11.1453
2792.9688,-15.5571,-4.1429,-0.8394,-2.8855,1.8812,0.1492,1.2539,1.0488,-5.9940,-5.4167,-6.9330,-6.5639,-7.0489,-1.1325,-1.5927,-9.4145,-3.8858,-4.2463,-9.1444
2796.8750,-10.3711,-9.1559,-3.8670,-4.4593,0.9637,-0.3697,-1.2258,-1.9871,-8.3652,-4.5729,-9.3115,-5.2697,-3.2819,0.0330,0.2528,-7.3801,-1.0427,-5.9600,-6.7325
2800.7812,-4.6952,-14.2080,-7.4427,-5.6273,-0.0202,-1.1463,-4.8494,-4.5627,-12.1425,-7.4536,-13.4443,-3.9921,0.9369,1.3197,-1.5152,-5.3467,2.2265,-7.7692,-4.5704
2804.6875,-1.7753,-17.5105,-10.3979,-5.5866,0.1162,-2.8270,-8.4391,-5.4818,-16.3894,-12.5795,-18.3099,-3.1205,5.0101,3.7057,-5.6589,-3.5009,5.8166,-8.9509,-2.8630
2808.5938,-2.1820,-17.9150,-11.7002,-3.9917,2.0895,-5.3113,-10.2076,-4.2620,-19.7811,-17.2538,-22.3966,-3.1212,8.4245,7.6274,-9.7929,-1.9570,9.2832,-9.4075,-1.3704
2812.5000,-4.1990,-15.5496,-10.9413,-1.1060,5.6449,-7.6416,-8.8354,-1.3288,-21.2232,-19.0755,-24.3072,-4.1775,10.7126,12.4502,-11.8450,-0.9090,11.8375,-9.5755,0.2405
2816.4062,-5.6420,-11.7652,-8.5608,2.3024,9.6170,-8.5758,-4.4609,2.2864,-20.4380,-17.1961,-23.5060,-5.9840,11.4526,16.5985,-11.2116,-0.6835,12.6303,-9.9569,1.9755
2820.3125,-5.5387,-8.3967,-5.6630,5.2508,12.5331,-7.4438,1.1522,5.5033,-18.1372,-12.6357,-20.7027,-7.8725,10.4031,18.3250,-8.8745,-1.5866,11.1694,-10.6733,3.3637
2824.2188,-4.4893,-6.7714,-3.4793,6.9159,13.4127,-4.6512,5.5081,7.6607,-15.6251,-7.5647,-17.5127,-9.1794,7.7327,16.6878,-6.4986,-3.6157,7.6281,-11.3698,3.7388
2828.1250,-3.7286,-7.0543,-2.7380,6.9725,12.2958,-1.4392,6.8315,8.6716,-14.0426,-4.0706,-15.5111,-9.5745,4.1685,12.1527,-5.2268,-6.2587,2.8695,-11.4989,2.7817
2832.0312,-3.8990,-8.3039,-3.2909,5.7519,10.1815,0.9239,5.1363,8.8663,-13.7221,-3.1685,-15.2678,-9.1289,0.8644,6.4347,-5.0464,-8.5950,-1.8421,-10.7365,0.9138
2835.9375,-4.5951,-9.1643,-4.2413,4.1051,8.4158,1.9144,2.1657,8.6928,-14.0859,-4.5704,-16.0459,-8.1378,-1.0578,1.6429,-5.1177,-9.7213,-5.3202,-9.2319,-0.8139
2839.8438,-4.9243,-8.7379,-4.5267,2.9787,7.9092,1.9242,0.2081,8.4723,-14.1683,-7.1790,-16.4251,-6.9136,-1.0939,-0.7858,-4.7152,-9.2745,-6.9145,-7.5572,-1.3456
2843.7500,-4.4303,-7.0983,-3.6147,2.9024,8.6742,1.7521,0.5784,8.3118,-13.4030,-9.8176,-15.4456,-5.7445,0.2969,-0.7403,-3.9801,-7.7023,-6.7421,-6.4314,-0.3640
2847.6562,-3.4841,-5.1616,-1.8652,3.6950,9.9631,1.8690,2.8020,8.1598,-12.1061,-11.6622,-13.4434,-5.0001,1.8760,0.6982,-3.8553,-6.0499,-5.5659,-6.4013,1.3967
2851.5625,-2.8214,-4.0485,-0.3070,4.6020,10.8795,2.0656,5.0554,7.9154,-11.2745,-12.1992,-11.9129,-5.1720,2.3152,2.0600,-5.2349,-5.3414,-4.3580,-7.6238,2.5561
2855.4688,-2.7225,-4.3718,0.0337,4.7994,11.0114,1.7451,5.5252,7.5097,-11.8065,-10.9977,-12.4219,-6.6674,1.0047,2.4243,-7.9975,-5.9289,-3.7589,-9.8035,1.9873
2859.3750,-2.6667,-5.8956,-1.2011,3.9258,10.6229,0.5692,3.6996,6.9200,-13.7015,-7.7394,-15.3262,-9.4228,-1.5476,1.8800,-10.7348,-7.2469,-3.7373,-12.2797,-0.4058
2863.2812,-1.8487,-7.7418,-3.5032,2.2621,10.2772,-1.1308,0.6662,6.1344,-15.8557,-2.6613,-19.2417,-12.6577,-4.0321,1.2368,-11.4960,-8.1643,-3.6766,-14.2470,-3.6070
2867.1875,-0.1196,-8.9660,-5.8990,0.4287,10.2018,-2.5567,-1.7707,5.1085,-16.6793,2.9471,-21.7423,-15.0802,-5.2002,1.2406,-9.1042,-7.7272,-2.8644,-15.0682,-6.1883
2871.0938,1.5454,-9.1105,-7.6438,-1.1563,9.9301,-3.1061,-2.4746,3.7600,-15.1615,6.8173,-20.8777,-15.5485,-4.7092,1.8929,-4.1250,-5.8037,-1.0812,-14.5728,-7.3012
2875.0000,1.6198,-8.3979,-8.6899,-2.6148,8.5574,-2.9244,-1.8240,2.0188,-11.6488,6.6786,-16.4909,-13.8027,-3.3590,2.3952,1.2574,-3.1891,1.1298,-13.1736,-7.2307
2878.9062,-0.6898,-7.4884,-9.5827,-4.4521,5.4760,-2.8467,-1.3960,-0.0861,-7.7554,1.7469,-10.4148,-10.7389,-2.5349,1.7696,4.4657,-1.0945,2.7438,-11.6842,-7.0973
2882.8125,-4.4787,-7.0092,-10.8878,-7.0129,1.0416,-3.7307,-2.7315,-2.3577,-5.4158,-6.2707,-5.3957,-7.9662,-3.2295,-0.3070,4.0872,-0.3689,2.9400,-10.8885,-7.9303
2886.7188,-7.4178,-7.1813,-12.6175,-9.9962,-3.3803,-5.7061,-6.1101,-4.4426,-5.6956,-13.5863,-3.4717,-6.8875,-5.3306,-3.1013,0.7306,-0.9949,1.7212,-11.1083,-9.8195
2890.6250,-7.2694,-7.7668,-14.1335,-12.4579,-6.1155,-7.9676,-10.2497,-5.9462,-8.1623,-16.2426,-4.8951,-7.9052,-7.6860,-5.1977,-3.4046,-2.1971,-0.0040,-12.0593,-11.8006
2894.5312,-3.6167,-8.3193,-14.6232,-13.3652,-6.1953,-9.3236,-13.1549,-6.6106,-11.2345,-12.5097,-8.2640,-10.2806,-8.9014,-5.4179,-5.9610,-3.0601,-0.9867,-13.1109,-12.5713
2898.4375,1.5253,-8.5250,-13.7843,-12.3203,-3.9863,-9.0961,-13.4946,-6.4589,-13.2459,-4.2061,-11.6591,-12.7104,-8.3032,-3.6332,-5.9004,-3.1870,-0.4834,-13.7672,-11.4956
2902.3438,4.8316,-8.3937,-12.1653,-9.9114,-0.9860,-7.6691,-11.5101,-5.8134,-13.4751,4.0963,-13.8976,-14.1754,-6.3778,-0.8756,-4.0443,-2.9136,1.2166,-14.0062,-9.1274
2906.2500,3.8680,-8.1926,-10.8633,-7.4126,1.0786,-6.2303,-8.8165,-5.1609,-12.4531,7.6762,-15.0246,-14.4566,-4.3946,1.3405,-2.3564,-2.9421,2.9772,-14.2110,-6.8537
2910.1562,-1.1433,-8.2138,-10.7758,-6.0331,1.2241,-5.8820,-7.2710,-4.9360,-11.4009,4.5040,-15.8070,-14.0101,-3.5157,1.9963,-2.5076,-3.7061,3.5874,-14.7506,-5.9314
2914.0625,-7.2896,-8.5600,-11.9618,-6.2502,-0.3905,-6.7891,-7.7405,-5.3407,-11.2716,-3.5188,-16.7652,-13.4054,-4.0597,1.1418,-4.7323,-4.9802,2.5581,-15.5652,-6.6530
2917.9688,-10.7721,-9.0940,-13.5987,-7.6739,-2.8337,-8.0187,-9.6279,-6.2934,-12.1067,-11.7581,-17.5827,-12.8424,-5.4381,-0.3234,-7.7403,-6.0505,0.3641,-16.1263,-8.2583
2921.8750,-9.3462,-9.5539,-14.5722,-9.4748,-5.1644,-8.2029,-11.4312,-7.5113,-13.1296,-15.7054,-17.3628,-12.1385,-6.7554,-1.4508,-9.6846,-6.3132,-2.0178,-15.8449,-9.6225
2925.7812,-3.7293,-9.7196,-14.2610,-10.9907,-6.9752,-6.5397,-11.8585,-8.6485,-13.4209,-13.6168,-15.4805,-11.1354,-7.5609,-1.9852,-9.4534,-5.8192,-3.8840,-14.6149,-10.1505
2929.6875,2.9709,-9.5062,-12.9376,-12.0422,-8.3584,-3.4055,-10.6707,-9.4037,-12.6147,-7.2516,-12.2921,-10.1004,-8.1539,-2.4878,-7.3737,-5.3113,-5.2701,-13.0327,-10.1738
2933.5938,7.3602,-8.9458,-11.5112,-12.7811,-9.4566,-0.1542,-8.6931,-9.5633,-11.0996,-0.3798,-9.0836,-9.6992,-9.2266,-3.7801,-4.8775,-5.6911,-6.7579,-12.0630,-10.5676
2937.5000,7.8938,-8.1182,-10.8405,-13.3023,-10.1012,1.7289,-7.0857,-9.0202,-9.6399,3.7573,-7.2586,-10.5023,-11.1705,-6.1914,-3.4415,-7.3029,-8.8191,-12.3649,-11.9348
2941.4062,5.5924,-7.1138,-11.1522,-13.4286,-9.9201,1.5182,-6.4912,-7.8200,-8.7809,4.2467,-7.3811,-12.4216,-13.6401,-9.2255,-3.5961,-9.5911,-11.2757,-13.7860,-14.0430
2945.3125,2.9594,-6.0569,-11.9840,-12.8852,-8.8334,-0.3934,-6.6958,-6.2286,-8.5216,2.4793,-8.8066,-14.5882,-15.7509,-11.9148,-4.6940,-11.4171,-13.3549,-15.4334,-15.9738
2949.2188,2.0195,-5.1374,-12.6385,-11.7007,-7.4532,-2.8289,-6.9899,-4.7455,-8.4714,0.6226,-10.1832,-15.8573,-16.7672,-13.5642,-5.5305,-11.8317,-14.3132,-16.2947,-16.8620
2953.1250,2.9572,-4.5817,-12.7456,-10.4375,-6.9263,-4.5500,-6.8629,-3.9800,-8.2925,-0.0616,-10.4356,-15.6169,-16.7289,-14.2779,-5.2947,-10.7470,-14.1097,-15.9505,-16.6203
2957.0312,4.2847,-4.5556,-12.4839,-9.9764,-8.2154,-4.8845,-6.4484,-4.3923,-8.0242,0.2005,-9.4937,-14.2913,-16.4952,-14.8431,-4.1367,-9.0138,-13.5408,-14.8467,-16.0608
2960.9375,4.2640,-5.0699,-12.3309,-10.9592,-11.3231,-3.9373,-6.3858,-6.0268,-8.0292,0.4305,-8.2456,-13.1151,-17.1352,-16.0654,-2.9758,-7.8413,-13.6724,-13.9316,-16.3065
2964.8438,2.3820,-5.9805,-12.6069,-13.3043,-15.0940,-2.3895,-7.2516,-8.4198,-8.6485,0.0820,-7.7977,-13.2870,-19.1099,-18.0874,-2.7591,-7.9730,-14.9883,-13.9549,-17.9455
2968.7500,-0.2884,-7.1014,-13.2289,-16.1863,-17.8365,-1.1075,-9.0452,-10.7822,-9.8894,-0.4519,-8.6350,-15.0871,-21.8603,-20.2310,-3.7602,-9.1977,-16.9312,-14.9674,-20.5741
2972.6562,-2.0728,-8.3417,-13.8698,-18.5167,-18.3790,-0.7785,-11.1381,-12.3819,-11.4123,-0.4099,-10.3010,-17.5926,-24.1188,-21.4761,-5.4187,-10.5216,-18.2256,-16.3724,-23.0600
2976.5625,-2.1775,-9.7399,-14.3410,-19.5764,-16.8119,-1.6708,-12.7021,-12.8981,-12.7937,0.3217,-11.7816,-19.2091,-24.7150,-21.1895,-6.7791,-10.8500,-17.7635,-17.4251,-24.2979
2980.4688,-1.4327,-11.3378,-14.8036,-19.3340,-14.3706,-3.5252,-13.2529,-12.5192,-13.7971,0.8046,-12.2358,-18.6591,-23.2885,-19.5351,-7.1447,-9.6855,-15.3857,-17.7328,-23.8754
2984.3750,-1.6553,-12.9821,-15.5675,-18.2478,-12.5416,-5.6030,-12.8785,-11.7213,-14.4009,-0.2389,-11.4974,-15.7550,-20.4089,-17.2742,-6.4567,-7.3801,-11.9664,-17.3573,-22.1781
2988.2812,-4.0939,-14.2304,-16.6254,-16.7607,-12.0459,-6.9420,-12.0088,-10.8865,-14.5845,-3.1445,-10.0147,-11.4596,-17.0666,-15.1570,-5.1754,-4.8268,-8.7561,-16.4979,-19.9281
2992.1875,-8.1709,-14.4935,-17.3551,-14.9321,-12.4289,-6.8015,-10.9663,-10.0363,-14.1284,-6.6205,-8.3730,-7.2442,-13.9648,-13.4131,-3.8404,-2.8673,-6.5075,-15.1175,-17.5868
2996.0938,-11.5554,-13.3734,-16.7499,-12.5094,-12.5178,-5.1120,-9.7075,-8.8738,-12.6917,-8.4201,-6.8513,-4.2244,-11.1608,-11.7331,-2.6940,-1.8391,-5.0613,-12.9128,-15.1146
3000.0000,-11.6227,-10.9923,-14.1181,-9.3606,-11.3621,-2.6327,-7.9803,-7.1024,-10.1764,-7.0042,-5.3754,-2.6516,-8.2947,-9.7081,-1.6384,-1.5203,-3.6785,-9.7054,-12.2434
3003.9062,-7.3191,-8.0729,-9.7680,-5.8755,-8.9452,-0.6214,-5.7536,-4.7792,-7.0808,-2.9030,-3.8445,-2.0295,-5.1700,-7.3209,-0.4856,-1.4160,-1.8084,-5.9110,-8.9831
3007.8125,-0.1217,-5.6722,-5.1150,-2.9627,-6.1802,-0.1321,-3.5172,-2.4311,-4.4761,1.4077,-2.4705,-1.6677,-2.1751,-5.0656,0.7660,-1.1182,0.3510,-2.6132,-5.8931
