Time,Fp1,F3,C3,P3,O1,F7,T3,T5,Fz,Fp2,F4,C4,P4,O2,F8,T4,T6,Cz,Pz
0.0000,3.9826,14.2512,15.4599,-5.1903,-2.2242,13.1063,14.0579,2.7213,14.0551,-3.9215,15.2728,14.3945,2.5188,-8.9575,15.1057,14.2905,1.6959,-2.3811,14.0104
3.9062,2.5372,12.8690,11.5768,-4.8734,-2.5490,12.7652,11.0916,-1.4813,12.7690,-1.7427,13.4985,13.3895,-0.6787,-6.2687,13.6660,13.6417,-1.6192,-2.1663,10.9865
7.8125,1.0741,10.9132,6.2804,-3.6636,-2.1052,12.1803,7.0859,-6.5301,10.9991,1.3465,11.0229,11.7430,-4.4474,-1.4935,11.4324,12.1275,-6.2487,-1.2464,6.8074
11.7188,-0.4356,8.5318,0.6141,-1.6466,-1.4387,11.1145,2.6251,-10.9295,9.1977,4.5313,8.0824,9.3903,-8.2396,4.3482,8.5650,9.8820,-11.6409,0.1647,2.2075
15.6250,-2.3002,6.1275,-4.3049,0.7982,-1.5501,9.5915,-1.6315,-13.5470,7.6698,7.0338,4.8358,6.6517,-11.6724,9.6298,5.2711,7.5417,-16.9432,1.6063,-2.0506
19.5312,-4.8687,4.2307,-7.8217,3.2421,-3.2899,8.0104,-5.1022,-14.1409,6.3382,8.6434,1.2656,4.1411,-14.6278,12.9903,1.7135,5.8708,-21.2503,2.6401,-5.5501
23.4375,-8.2060,3.2171,-9.9855,5.4517,-6.7790,6.9736,-7.3735,-13.3740,4.7634,9.8742,-2.7334,2.4066,-17.1931,14.1167,-1.9774,5.2015,-23.9171,3.1063,-8.3466
27.3438,-11.9520,3.0384,-11.3810,7.4543,-11.2542,6.8975,-8.3066,-12.3930,2.4093,11.5772,-7.1479,1.5421,-19.5186,13.9249,-5.6261,5.1174,-24.8056,3.2019,-10.7892
31.2500,-15.5134,3.1697,-12.7142,9.3858,-15.4569,7.6549,-8.1953,-12.2945,-1.0267,14.2291,-11.7011,1.0791,-21.7060,13.9956,-8.9863,4.6833,-24.3324,3.3384,-13.1956
35.1562,-18.4698,2.8602,-14.4567,11.2545,-18.3177,8.5207,-7.8768,-13.7727,-5.4355,17.4116,-15.9220,0.2838,-23.7831,15.6012,-11.8469,3.1226,-23.2642,3.8763,-15.6393
39.0625,-20.8710,1.5610,-16.7602,12.8176,-19.5019,8.5091,-8.5998,-17.0314,-10.3682,19.9258,-19.4106,-1.3245,-25.7454,18.9257,-14.2154,0.4736,-22.3437,4.9055,-18.0011
42.9688,-23.1387,-0.7355,-19.6114,13.6757,-19.4924,6.9326,-11.5359,-21.8329,-15.2768,20.5636,-22.1099,-3.6111,-27.5938,22.9487,-16.4114,-2.2887,-21.9402,6.1946,-20.2278
46.8750,-25.5779,-3.4788,-23.0073,13.5192,-19.2066,3.8461,-17.0745,-27.5321,-19.7438,19.0583,-24.3551,-5.9090,-29.3203,26.0339,-18.9224,-3.8246,-21.9225,7.3188,-22.5650
50.7812,-27.8464,-5.8905,-26.9475,12.3419,-19.4313,0.0930,-24.3058,-33.0873,-23.5565,16.5301,-26.6247,-7.5164,-30.8520,26.8282,-22.0487,-3.3487,-21.8310,7.8717,-25.5402
54.6875,-28.8411,-7.4319,-31.2468,10.4696,-20.4210,-3.0937,-31.1299,-37.1850,-26.6324,15.0139,-29.1570,-8.2570,-32.0125,24.9351,-25.5709,-1.2700,-21.2393,7.6423,-29.6553
58.5938,-27.2229,-8.1105,-35.3792,8.4007,-21.8363,-4.7161,-35.1299,-38.5997,-28.9150,16.2672,-31.7299,-8.6831,-32.5518,21.0310,-28.7298,0.9095,-20.0760,6.6842,-34.9736
62.5000,-22.3340,-8.4366,-38.5908,6.5982,-22.9586,-4.5172,-34.8557,-36.7096,-30.3654,20.5851,-33.8161,-9.7515,-32.2413,16.4729,-30.6400,1.3949,-18.6991,5.2773,-40.8917
66.4062,-14.9075,-9.0842,-40.3084,5.3922,-22.9852,-3.1042,-30.7949,-31.8762,-31.0626,26.4220,-35.0454,-12.1802,-30.9701,12.7213,-30.9376,-0.9140,-17.6708,3.8290,-46.2840
70.3125,-7.0072,-10.4973,-40.5894,5.0357,-21.2590,-1.6496,-25.3691,-25.3803,-31.2999,31.1380,-35.6433,-15.9295,-28.7698,10.9010,-30.2295,-5.8601,-17.3694,2.7668,-49.9717
74.2188,-1.0959,-12.6861,-40.2411,5.8016,-17.4160,-1.3473,-21.8058,-18.8513,-31.5369,32.4686,-36.4707,-20.1580,-25.7391,11.6132,-29.9576,-12.1809,-17.6726,2.4460,-51.2513
78.1250,1.2775,-15.3023,-40.4177,7.9645,-11.5065,-2.8981,-22.4344,-13.4830,-32.1737,29.8276,-38.5391,-23.6655,-21.9221,14.9022,-31.6394,-18.1805,-17.8918,3.0794,-50.1733
82.0312,0.3646,-17.8817,-41.8844,11.6043,-4.0937,-6.2470,-27.3785,-9.5279,-33.2699,24.6427,-42.2613,-25.5100,-17.2405,20.2438,-35.8832,-22.4466,-16.9914,4.6945,-47.4227
85.9375,-1.9146,-20.0662,-44.4319,16.3509,3.7642,-10.6545,-34.4596,-6.4130,-34.4147,19.5290,-46.9431,-25.4058,-11.5633,26.5550,-41.8020,-24.2314,-13.9849,7.1240,-43.9036
89.8438,-3.0947,-21.6875,-46.8939,21.2905,10.7596,-15.0448,-40.4330,-3.4057,-34.8858,16.8260,-50.9310,-23.7179,-4.9066,32.3603,-47.2728,-23.4547,-8.3420,10.0345,-40.3012
93.7500,-1.6118,-22.7400,-47.8338,25.1919,15.7901,-18.4737,-42.8582,-0.3531,-34.0465,17.3844,-52.4248,-21.1692,2.3463,36.2154,-49.9826,-20.5602,-0.2744,12.9837,-36.8847
97.6562,2.3123,-23.3464,-46.4880,26.9999,18.4180,-20.5296,-41.4812,2.0639,-31.7577,20.2794,-50.5050,-18.5383,9.3639,37.2801,-48.6897,-16.4415,9.1704,15.4876,-33.6263
101.5625,6.8821,-23.7711,-43.3220,26.3371,19.0481,-21.4989,-38.2772,2.7963,-28.5461,23.5083,-45.7318,-16.5332,15.0346,35.7224,-43.9442,-12.4256,18.2490,17.0873,-30.4901
105.4688,9.8791,-24.4236,-39.7755,23.7096,18.6681,-22.2055,-36.1121,1.3233,-25.4077,25.1494,-39.9013,-15.7938,18.3579,32.6341,-37.8108,-10.0967,24.9157,17.4236,-27.6407
109.3750,10.0139,-25.7466,-37.3163,20.2687,18.2726,-23.5709,-36.8519,-1.6614,-23.3451,24.2674,-35.0650,-16.8384,18.8900,29.4157,-32.7324,-10.8097,27.4426,16.3276,-25.3987
113.2812,7.6473,-27.9640,-36.4222,17.2469,18.3190,-26.0880,-40.0994,-4.3272,-22.8942,21.1279,-32.3947,-19.8397,17.0080,26.9693,-30.2036,-15.0325,25.1168,13.9180,-23.9742
117.1875,4.4837,-30.8267,-36.1924,15.3890,18.5713,-29.4895,-43.3592,-4.6089,-23.8930,16.7777,-31.5799,-24.3432,13.8311,25.2256,-30.0326,-21.9273,18.7330,10.6537,-23.1866
121.0938,2.4978,-33.5790,-34.8918,14.6940,18.4328,-32.8313,-43.5351,-1.4204,-25.5903,12.3985,-31.1138,-29.2052,10.8067,23.3567,-30.5986,-29.5472,10.5656,7.2807,-22.4029
125.0000,2.8018,-35.2707,-31.0911,14.5861,17.5391,-34.9966,-38.8302,4.5888,-26.9967,8.8515,-29.2580,-32.9457,9.1558,20.5585,-29.8953,-35.6599,3.6737,4.6410,-20.7856
128.9062,5.1322,-35.3033,-24.6496,14.3714,16.1961,-35.3668,-29.8737,11.2602,-27.2756,6.5619,-25.0682,-34.4253,9.4469,16.8618,-26.6960,-38.7722,0.7208,3.3872,-17.7190
132.8125,8.1872,-33.8788,-16.8803,13.6746,15.3484,-34.2586,-19.3977,16.0529,-25.9985,5.6083,-18.8618,-33.4676,11.4911,13.3640,-21.1529,-38.7503,2.8153,3.7191,-13.1569
136.7188,10.5020,-32.0159,-9.7892,12.5981,16.0733,-32.8262,-10.7029,17.4241,-23.2100,5.7962,-11.9112,-31.0077,14.5641,11.6492,-14.5521,-36.6860,8.9682,5.2700,-7.6740
140.6250,11.2644,-31.0467,-4.9076,11.5403,18.9100,-32.4339,-5.8877,15.6492,-19.3541,6.6347,-5.6518,-28.6147,17.7855,12.7352,-8.4864,-34.1524,16.5109,7.2203,-2.1952
144.5312,10.5934,-31.8499,-2.4995,10.8372,23.4389,-33.8447,-4.9141,12.6151,-15.1428,7.3296,-0.9671,-27.6386,20.4333,16.2516,-4.0313,-32.3715,22.3257,8.6016,2.4196
148.4375,9.2084,-34.2867,-1.6411,10.4859,28.3634,-36.7120,-5.9919,10.7374,-11.3993,6.9630,2.0178,-28.4896,22.0584,20.4383,-1.4129,-31.7949,24.2834,8.6686,5.6816
152.3438,7.8071,-37.2057,-1.0525,10.1324,32.0446,-39.7016,-6.9036,11.6596,-8.8616,4.8861,3.6179,-30.4774,22.4296,23.0172,-0.2573,-32.2323,22.1477,7.1757,7.5162
156.2500,6.6052,-39.0325,-0.0431,9.3120,33.1912,-41.1846,-6.3395,15.4668,-7.9435,1.1254,4.1034,-32.2789,21.4429,22.4026,-0.1046,-33.2535,17.4833,4.4425,8.0840
160.1562,5.3163,-38.5952,1.1054,7.7612,31.3506,-40.0960,-4.4091,20.7924,-8.5293,-3.4895,3.4793,-32.7120,19.1109,18.4865,-0.7418,-34.4639,12.6577,1.1852,7.5689
164.0625,3.5151,-35.6932,1.5551,5.5758,26.9939,-36.4549,-2.1359,25.6458,-9.9347,-7.6462,1.6936,-31.3366,15.6357,12.5231,-2.1246,-35.4742,9.5160,-1.8111,6.1114
167.9688,1.0788,-31.1014,0.7601,3.1097,21.2170,-31.2710,-0.4577,28.4116,-11.1337,-10.1929,-0.9446,-28.5564,11.4584,6.2423,-4.0293,-35.7320,8.4659,-4.0360,3.9179
171.8750,-1.6241,-26.0661,-0.9302,0.6945,15.2550,-25.9491,0.4668,28.4623,-11.2073,-10.7537,-3.5528,-25.2413,7.1793,0.8169,-5.8082,-34.5252,8.4408,-5.4613,1.4095
175.7812,-3.9225,-21.6496,-2.3907,-1.6123,10.0535,-21.5928,1.1647,26.1413,-9.8056,-9.9447,-4.9406,-22.1689,3.3519,-3.6381,-6.5435,-31.2977,7.6955,-6.5153,-0.7778
179.6875,-5.2728,-18.3202,-2.4914,-4.0620,6.0580,-18.6144,2.1344,22.2801,-7.3510,-9.0553,-4.2513,-19.6426,0.2717,-7.7745,-5.5649,-26.0798,4.9274,-7.8291,-2.0161
183.5938,-5.6304,-15.9674,-0.9500,-7.0010,3.2496,-16.8074,3.1611,17.6361,-4.8294,-9.3781,-1.5573,-17.4714,-2.0925,-12.2328,-2.9764,-19.6633,0.0699,-9.8771,-2.0205
187.5000,-5.5157,-14.2226,1.3692,-10.5661,1.3303,-15.7142,3.2710,12.5873,-3.2583,-11.5649,2.0288,-15.2525,-3.9811,-16.9977,0.2250,-13.3063,-5.6745,-12.7040,-1.0671
191.4062,-5.7273,-12.7986,2.9424,-14.5153,-0.0855,-14.9692,1.4101,7.1760,-3.1397,-15.3488,4.8561,-12.7365,-5.6481,-21.3600,2.5962,-8.1272,-10.5461,-15.8985,0.0800
195.3125,-6.8836,-11.6187,2.5263,-18.3324,-1.3800,-14.3874,-2.6525,1.3542,-4.2313,-19.7328,5.5649,-10.0562,-7.2578,-24.4700,3.0197,-4.6220,-13.2530,-18.8439,0.5199
199.2188,-9.0746,-10.7118,-0.1053,-21.5322,-2.9500,-13.8179,-7.9025,-4.7927,-5.7759,-23.4812,3.7362,-7.7134,-8.9558,-26.0177,1.3129,-2.6573,-13.7227,-21.0937,-0.3618
203.1250,-11.8284,-10.0305,-4.1124,-23.9303,-5.2418,-12.9786,-12.5064,-10.9829,-7.0278,-25.6224,-0.0171,-6.3555,-11.0154,-26.4890,-1.7233,-1.9089,-13.1554,-22.6211,-2.6446
207.0312,-14.3981,-9.3789,-8.2079,-25.6526,-8.6779,-11.4846,-14.8286,-16.8153,-7.7152,-25.7288,-4.5173,-6.4594,-13.8571,-26.7757,-4.8441,-2.3417,-13.3474,-23.7503,-5.9240
210.9375,-16.1799,-8.5118,-11.4511,-26.8513,-13.4313,-9.0983,-14.3490,-21.8821,-8.1248,-23.9151,-8.6933,-8.0639,-17.8126,-27.4226,-7.1236,-4.2802,-15.6571,-24.7859,-9.5777
214.8438,-17.0137,-7.3146,-13.6489,-27.3472,-19.1517,-6.0128,-11.8705,-25.8390,-8.7669,-20.6554,-12.0188,-10.6669,-22.7409,-28.0850,-8.4396,-7.9612,-20.1916,-25.5936,-13.0427
218.7500,-17.2091,-5.9056,-15.1421,-26.5171,-24.8682,-2.9151,-8.9281,-28.4397,-9.8832,-16.5712,-14.5068,-13.3494,-27.8006,-27.6396,-9.3876,-12.9196,-25.6857,-25.4653,-15.9369
222.6562,-17.3275,-4.5749,-16.2523,-23.6041,-29.2527,-0.7144,-6.8759,-29.5931,-11.1775,-12.2838,-16.3885,-15.1005,-31.6647,-24.9215,-10.7377,-17.7616,-30.1686,-23.4436,-18.0207
226.5625,-17.8911,-3.6020,-16.9098,-18.3073,-31.2210,-0.0648,-6.3037,-29.4609,-11.9907,-8.3296,-17.8086,-15.2199,-33.1872,-19.5935,-12.8526,-20.6283,-32.0731,-18.9652,-19.1279
230.4688,-19.2024,-3.0891,-16.7977,-11.2479,-30.5773,-0.9773,-7.1130,-28.5278,-11.8101,-5.0904,-18.7859,-13.6132,-32.1627,-12.5329,-15.4787,-20.1438,-31.1603,-12.4141,-19.2002
234.3750,-21.3389,-2.9217,-15.8788,-3.9141,-28.2760,-2.7812,-9.0343,-27.5303,-10.7423,-2.7110,-19.4169,-10.8233,-29.6564,-5.4324,-18.0240,-16.2405,-28.7104,-5.1734,-18.4219
238.2812,-24.2393,-2.8737,-14.8100,1.9921,-26.0352,-4.4770,-12.0395,-27.1920,-9.5868,-1.0421,-20.0718,-7.7709,-27.5786,0.1491,-20.0694,-10.2985,-26.8238,0.9440,-17.3120
242.1875,-27.7435,-2.7704,-14.7941,5.4604,-25.4231,-5.2699,-16.2509,-27.8551,-9.4208,0.3213,-21.3314,-5.3360,-27.6536,3.6626,-21.7024,-4.4785,-27.2031,4.5918,-16.6142
246.0938,-31.5241,-2.5981,-16.8548,6.7488,-26.9227,-4.9651,-21.4362,-29.2164,-10.9557,1.8685,-23.6392,-4.0079,-30.3750,5.7893,-23.4154,-0.6597,-30.1132,5.5699,-16.9693
250.0000,-34.9938,-2.5012,-21.0179,7.2155,-29.5727,-3.9990,-26.5960,-30.3694,-14.0996,3.9178,-26.9138,-3.7816,-34.6201,7.8629,-25.6582,0.3741,-34.1533,4.8547,-18.5529
253.9062,-37.3487,-2.6871,-26.0419,8.4615,-31.4679,-3.1184,-30.1387,-30.2020,-18.0196,6.4085,-30.4450,-4.3194,-38.2201,10.8899,-28.4033,-0.9318,-37.0083,3.9540,-20.9416
257.8125,-37.8356,-3.3110,-30.0001,11.3152,-30.8609,-2.9290,-30.6857,-27.9825,-21.6546,8.8766,-33.2187,-5.2344,-39.1787,14.8315,-31.0763,-3.4181,-36.7607,4.0001,-23.3503
261.7188,-36.1412,-4.4040,-31.4150,15.3194,-27.1947,-3.5934,-28.0101,-23.8256,-24.3206,10.6691,-34.4995,-6.3018,-36.8002,18.6268,-32.9256,-5.9621,-32.9924,5.1612,-25.1236
265.6250,-32.6475,-5.8679,-30.2044,19.0571,-21.4144,-4.8345,-23.4156,-18.7681,-26.0004,11.3106,-34.2880,-7.4889,-32.0301,20.9253,-33.5658,-7.9980,-27.0116,6.7212,-26.1635
269.5312,-28.3200,-7.5175,-27.7807,21.0912,-15.3706,-6.1916,-19.2003,-14.3778,-27.1530,10.8245,-33.3318,-8.8415,-26.8139,21.0193,-33.2878,-9.5815,-21.0719,7.7214,-26.9896
273.4375,-24.2193,-9.1422,-26.1968,20.8753,-10.7223,-7.3266,-17.4776,-12.0713,-28.2236,9.8124,-32.6682,-10.3557,-22.9065,19.3423,-32.8922,-11.0940,-17.0610,7.6931,-28.3710
277.3438,-20.9089,-10.5622,-26.8900,19.0334,-8.0648,-8.1760,-19.0880,-12.4724,-29.2343,9.2132,-33.0001,-11.9359,-20.8958,17.2068,-33.1512,-12.8448,-15.4607,6.9779,-30.7741
281.2500,-18.1521,-11.6708,-29.8556,16.8572,-6.8209,-8.8752,-23.2866,-15.1215,-29.7537,9.8483,-34.3177,-13.4426,-20.0299,15.9784,-34.2808,-14.7971,-15.1981,6.4562,-34.0095
285.1562,-15.1398,-12.4546,-33.7868,15.4210,-5.8850,-9.5542,-28.3599,-18.6654,-29.2460,11.9969,-36.0074,-14.7562,-18.8883,16.2565,-35.8078,-16.5058,-14.4432,6.9184,-37.3350
289.0625,-11.1351,-12.9898,-37.0517,14.9552,-4.4916,-10.1820,-32.7087,-21.4218,-27.5235,15.2416,-37.3454,-15.7947,-16.3969,17.6014,-36.9329,-17.2591,-11.8209,8.5389,-39.9479
292.9688,-6.1092,-13.4151,-38.8061,14.8986,-2.6730,-10.5911,-35.6670,-22.0451,-24.9650,18.6764,-38.0151,-16.5010,-12.5058,18.9567,-37.1343,-16.3837,-7.2698,10.7949,-41.5211
296.8750,-0.9153,-13.8939,-39.4680,14.5233,-1.0228,-10.6637,-37.5720,-19.9994,-22.3484,21.3548,-38.2823,-16.8596,-8.1323,19.4376,-36.5716,-13.6437,-2.0327,12.8338,-42.3959
300.7812,3.1601,-14.5771,-40.2495,13.6162,-0.0218,-10.5296,-39.1593,-15.6603,-20.4280,22.7178,-38.7155,-16.9694,-4.4797,18.9253,-35.9866,-9.5831,2.1703,13.9903,-43.2796
304.6875,5.1959,-15.5702,-42.1045,12.6823,0.5056,-10.5995,-40.7972,-10.0512,-19.5522,22.7670,-39.6561,-17.1054,-2.2381,18.0813,-36.1484,-5.5859,4.2283,14.1010,-44.6416
308.5938,5.2512,-16.8989,-44.8558,12.5300,1.3721,-11.3686,-42.1137,-4.3752,-19.5549,21.9167,-40.8163,-17.6564,-1.1895,17.8218,-37.2171,-3.4723,4.2981,13.4610,-46.2200
312.5000,4.3707,-18.4744,-47.1212,13.5778,3.4749,-13.0953,-42.2223,0.4304,-19.9435,20.6671,-41.2929,-18.9027,-0.4187,18.6654,-38.4717,-4.6958,3.6563,12.5409,-46.9889
316.4062,3.9620,-20.0806,-47.0979,15.4355,7.1496,-15.5728,-40.3173,3.9430,-20.2058,19.3291,-40.0077,-20.7490,1.0801,20.4278,-38.6183,-9.5135,3.8876,11.7120,-45.6397
320.3125,4.9565,-21.4249,-43.6801,17.0903,11.9276,-18.1791,-36.1991,6.2475,-20.0237,17.9654,-36.3100,-22.6345,3.8333,22.4446,-36.5081,-16.6510,5.9505,11.1513,-41.3013
324.2188,7.3070,-22.2702,-37.1785,17.5667,16.8591,-20.2176,-30.4096,7.7462,-19.3057,16.5291,-30.3822,-23.7711,7.6886,24.1023,-31.8289,-23.7821,9.6905,10.9038,-34.0782
328.1250,10.1346,-22.6052,-29.1941,16.5700,21.1244,-21.3539,-23.9687,8.9215,-18.1041,15.0385,-23.2182,-23.6374,12.0282,25.2394,-25.3430,-28.6558,14.0418,10.9587,-25.0997
332.0312,12.3841,-22.7478,-21.7624,14.6477,24.4529,-21.8608,-17.9358,10.1741,-16.5457,13.6237,-16.2037,-22.4215,16.1649,26.1057,-18.5305,-30.2484,17.7184,11.2333,-16.0723
335.9375,13.5151,-23.2684,-16.3247,12.7702,27.0613,-22.4755,-13.0498,11.7767,-14.8328,12.4128,-10.5417,-21.0721,19.6320,26.9372,-12.8590,-29.2305,19.9184,11.5059,-8.5914
339.8438,13.7650,-24.7149,-13.1357,11.6616,29.2246,-23.9209,-9.5634,13.8964,-13.2532,11.3833,-6.8228,-20.8388,22.2253,27.5233,-9.1083,-27.4352,20.6253,11.4315,-3.5709
343.7500,13.8545,-27.2553,-11.3825,11.3677,30.8880,-26.3753,-7.2462,16.6062,-12.1054,10.3434,-4.9194,-22.5321,23.8724,27.1683,-7.1177,-26.6565,20.3952,10.7194,-1.0329
347.6562,14.4022,-30.4573,-9.8356,11.3430,31.6658,-29.2446,-5.4963,19.8426,-11.5243,9.0973,-4.1939,-25.9667,24.5158,25.1449,-6.0434,-27.5474,19.8633,9.3847,-0.2819
351.5625,15.4874,-33.3814,-7.5726,10.9306,31.2244,-31.4190,-3.5462,23.3440,-11.3236,7.6669,-3.8561,-29.9697,24.1336,21.3321,-4.9184,-29.3198,19.3423,7.8584,-0.3061
355.4688,16.6457,-34.9953,-4.3724,9.8362,29.6991,-31.8918,-0.7697,26.6468,-11.0155,6.3599,-3.2825,-32.9824,22.8604,16.5388,-3.1657,-30.4076,18.7619,6.7958,-0.1948
359.3750,17.2362,-34.6993,-0.6552,8.2409,27.7450,-30.3647,2.9822,29.2003,-10.0686,5.5650,-2.1814,-33.8972,21.0557,12.1936,-0.8034,-29.6112,17.9229,6.6377,0.5815
363.2812,16.8594,-32.6552,2.8615,6.5179,26.1170,-27.4524,7.1879,30.5688,-8.2743,5.3802,-0.6011,-32.6103,19.1971,9.5283,1.6981,-26.9491,16.8118,7.2040,2.0714
367.1875,15.5182,-29.7029,5.5217,4.8357,25.0788,-24.3413,10.7857,30.6146,-5.9723,5.3527,1.1568,-29.9671,17.6280,8.7749,3.7424,-23.6699,15.7062,7.6384,3.9037
371.0938,13.4585,-26.8954,6.9265,2.9996,24.1243,-22.1048,12.6497,29.5438,-3.9400,4.5852,2.6564,-27.1742,16.3311,8.9394,4.8981,-21.4551,14.9856,6.8212,5.4638
375.0000,10.8908,-24.9261,6.9740,0.6649,22.2867,-21.1037,12.1965,27.7776,-2.9656,2.2198,3.4619,-25.0811,14.9209,8.3588,5.0254,-21.3536,14.8034,4.0391,6.1479
378.9062,7.8695,-23.7866,5.8462,-2.2684,18.8651,-20.8419,9.7684,25.7298,-3.3568,-1.9776,3.2910,-23.7756,12.9049,5.7155,4.2515,-23.1136,14.8845,-0.5071,5.6384
382.8125,4.4314,-22.8489,4.0123,-5.4313,14.0459,-20.3487,6.5354,23.6301,-4.7047,-7.3340,2.1720,-22.6870,10.0627,0.8596,2.8955,-25.2782,14.6244,-5.7130,4.1063
386.7188,0.8438,-21.2924,2.2039,-8.1502,8.9306,-18.8156,3.9455,21.4953,-6.0740,-12.5253,0.5342,-21.0518,6.6795,-5.1015,1.4120,-25.9336,13.4329,-10.1350,2.2280
390.6250,-2.3101,-18.5958,1.2612,-9.9044,4.8954,-16.0688,3.0334,19.2288,-6.5188,-16.2552,-0.8649,-18.3978,3.4449,-10.5027,0.3404,-23.6593,11.0837,-12.7832,0.9483
394.5312,-4.3627,-14.8044,1.8145,-10.7354,2.6983,-12.5923,3.9765,16.7319,-5.6122,-17.9416,-1.2140,-14.7695,1.0488,-14.1368,0.1929,-18.1931,7.8234,-13.6537,1.0477
398.4375,-4.9946,-10.4622,3.9120,-11.2806,1.9636,-9.1438,6.1049,13.9067,-3.6726,-17.9693,-0.0477,-10.6366,-0.2720,-15.9053,1.2558,-10.5410,4.1751,-13.6677,2.6992
402.3438,-4.5559,-6.3215,6.8186,-12.3798,1.4248,-6.2758,8.2826,10.5484,-1.5692,-17.3487,2.4262,-6.6367,-0.9255,-16.6881,3.3806,-2.5523,0.5959,-14.0562,5.2621
406.2500,-4.0053,-3.0484,9.1728,-14.5175,-0.2211,-4.1064,9.3879,6.2496,-0.2480,-17.0220,5.2851,-3.3469,-1.7443,-17.5597,5.9123,3.8078,-2.7502,-15.5778,7.4682
410.1562,-4.4514,-1.0766,9.5070,-17.4921,-3.4359,-2.4646,8.6495,0.4813,-0.2703,-17.2867,7.2237,-1.1758,-3.4821,-18.9317,7.8659,7.1834,-5.9533,-18.0560,7.9595
414.0625,-6.5656,-0.6040,6.9102,-20.5366,-7.5529,-1.2364,5.7720,-7.0959,-1.6110,-17.7093,7.1350,-0.3361,-6.3591,-20.2387,8.3140,7.2766,-9.1211,-20.5123,5.9225
417.9688,-10.2353,-1.6122,1.4936,-22.7898,-11.2815,-0.5871,0.9417,-16.2307,-3.7721,-17.5464,4.6434,-0.8170,-9.9652,-20.3807,6.7986,4.8552,-12.1805,-21.7937,1.4865
421.8750,-14.6636,-3.8220,-5.6022,-23.7743,-13.6445,-0.8465,-5.1946,-25.8606,-6.0822,-16.3288,0.2905,-2.3352,-13.5843,-18.5867,3.5351,1.3269,-14.9118,-21.2866,-4.3399
425.7812,-18.8233,-6.6196,-12.6814,-23.5489,-14.6796,-2.1303,-11.5946,-34.3015,-7.9751,-14.1706,-4.7410,-4.3289,-16.6985,-15.0567,-0.7112,-1.9195,-17.1970,-19.2671,-10.1580
429.6875,-21.9560,-9.0942,-18.2092,-22.4617,-15.4000,-4.0078,-17.0308,-39.8506,-9.1169,-11.5946,-9.2066,-6.0736,-19.3016,-10.8969,-4.9965,-4.0721,-19.2483,-16.6795,-14.8172
433.5938,-23.8189,-10.2875,-21.4049,-20.7284,-17.0403,-5.5276,-20.4792,-41.5384,-9.3904,-9.0419,-12.3447,-6.9162,-21.7877,-7.3819,-8.5916,-5.0602,-21.5587,-14.4972,-17.8440
437.5000,-24.5993,-9.5973,-22.4271,-18.1894,-20.1233,-5.6673,-21.5510,-39.6262,-8.8341,-6.4787,-14.0879,-6.5254,-24.5052,-5.0721,-11.1798,-5.2630,-24.5288,-13.0866,-19.4478
441.4062,-24.6537,-7.1151,-22.1013,-14.4511,-24.0271,-3.9509,-20.7009,-35.5487,-7.6308,-3.4316,-14.8684,-5.0172,-27.3354,-3.4392,-12.7981,-5.0030,-28.0198,-11.9838,-20.1646
445.3125,-24.3096,-3.6562,-21.3919,-9.3166,-27.3825,-0.8234,-19.0250,-31.2926,-6.1473,0.5523,-15.2141,-2.8850,-29.6559,-1.2930,-13.6437,-4.2200,-31.2151,-10.2317,-20.4210
449.2188,-23.8535,-0.4098,-20.9341,-3.1749,-29.0378,2.4972,-17.7147,-28.5156,-4.9462,5.3726,-15.4404,-0.7765,-30.7631,2.2767,-13.9353,-2.5899,-33.0010,-7.0588,-20.3257
453.1250,-23.6220,1.6211,-20.8672,2.9782,-28.9088,4.6344,-17.4911,-27.8565,-4.6828,10.2027,-15.6303,0.7606,-30.4585,7.1199,-13.9269,-0.0018,-32.6871,-2.4639,-19.7977
457.0312,-24.0116,2.0650,-21.0000,7.9645,-28.0840,4.7675,-18.3748,-28.7804,-5.8763,13.8622,-15.8479,1.4436,-29.3297,11.9942,-14.0048,3.0073,-30.5738,2.6802,-18.8804
460.9375,-25.2995,1.2522,-21.1397,11.0499,-28.0623,3.0117,-19.9213,-30.0029,-8.6547,15.5118,-16.3422,1.2864,-28.4481,15.3416,-14.6964,5.2753,-27.8999,7.0789,-17.9463
464.8438,-27.3647,-0.1127,-21.3389,12.3658,-29.6182,0.2482,-21.7045,-30.2310,-12.6251,15.1943,-17.5190,0.5207,-28.6264,16.3508,-16.4833,5.5824,-26.1026,9.7438,-17.5902
468.7500,-29.5457,-1.4399,-21.9011,12.8313,-32.0840,-2.4559,-23.6518,-28.8057,-16.9781,13.8267,-19.6681,-0.5372,-29.7479,15.5562,-19.4974,3.4120,-25.8331,10.5349,-18.2610
472.6562,-30.8180,-2.5799,-23.1640,13.6025,-33.5933,-4.4491,-25.9618,-25.9166,-20.8047,12.6298,-22.6601,-1.6243,-30.6837,14.5292,-23.3212,-0.6417,-26.4169,10.1781,-19.9115
476.5625,-30.2625,-3.7882,-25.2265,15.3900,-32.1880,-5.7480,-28.6872,-22.3228,-23.4736,12.3852,-25.8885,-2.6363,-29.9321,14.8542,-27.1000,-5.1496,-26.1996,9.7672,-21.9623
480.4688,-27.5563,-5.3941,-27.8122,18.0779,-27.0924,-6.8281,-31.3632,-18.7979,-24.8619,13.0316,-28.5589,-3.6587,-26.5917,17.0918,-29.9627,-8.6491,-23.6244,10.0951,-23.6549
484.3750,-23.1659,-7.4356,-30.3591,20.8825,-19.3084,-8.1482,-33.0603,-15.6632,-25.3115,13.8746,-30.1598,-4.8953,-21.0081,20.4532,-31.5137,-10.4246,-18.3402,11.2611,-24.5742
488.2812,-18.0926,-9.5299,-32.2803,22.9316,-11.1123,-9.7615,-32.9224,-12.7010,-25.3377,14.2349,-30.7830,-6.5036,-14.6225,23.4120,-32.0638,-10.7437,-11.5632,12.7878,-24.9637
492.1875,-13.3215,-11.0699,-33.2368,23.8696,-4.7528,-11.2700,-30.8504,-9.4851,-25.2767,14.0416,-31.0485,-8.4188,-9.0958,24.8186,-32.4199,-10.4433,-5.3896,14.1170,-25.5814
496.0938,-9.3284,-11.6002,-33.2742,24.0784,-1.1825,-12.1227,-27.8152,-5.8887,-25.0946,13.9203,-31.6672,-10.2888,-5.2905,24.7233,-33.3480,-10.2388,-1.4767,15.0900,-27.1610
500.0000,-5.9602,-11.1119,-32.7647,24.3741,0.3646,-12.0240,-25.4927,-2.3862,-24.4805,14.7001,-32.9380,-11.6010,-2.8061,24.3243,-35.0591,-10.2985,0.0257,16.0490,-29.8393
503.9062,-2.7423,-10.0588,-32.2041,25.3998,1.7007,-11.1641,-25.3640,0.1197,-23.1516,16.7079,-34.5318,-11.9587,-0.3811,25.0786,-37.0637,-10.3544,0.5560,17.5004,-32.9524
507.8125,0.6334,-9.0978,-31.9755,27.1448,4.3915,-10.1249,-27.8168,0.9047,-21.1490,19.3918,-35.7078,-11.3468,3.1326,27.6148,-38.4885,-10.1591,2.1549,19.6185,-35.3618
511.7188,4.0031,-8.7356,-32.1828,28.9278,8.7110,-9.5443,-31.8222,0.0886,-18.9022,21.5872,-35.8029,-10.2024,7.9074,31.2209,-38.6374,-9.8301,6.0647,21.9949,-36.1096
515.6250,6.8265,-9.1086,-32.6119,29.8525,13.5180,-9.7762,-35.4207,-1.1356,-16.9987,22.2711,-34.6506,-9.2262,12.9797,34.2647,-37.4148,-9.7725,11.8486,23.8422,-34.9721
519.5312,8.5995,-10.0145,-32.8221,29.4074,17.0831,-10.7613,-36.7548,-0.9899,-15.8156,21.2722,-32.6504,-9.0450,16.8729,35.2411,-35.3384,-10.2885,17.6120,24.5041,-32.5559
523.4375,9.2646,-11.1414,-32.3332,27.7789,18.2649,-12.1662,-35.0487,1.8579,-15.2804,19.4159,-30.4695,-9.9404,18.5388,33.7047,-33.1605,-11.2814,21.1638,23.8769,-29.8909
527.3438,9.3036,-12.3172,-30.8419,25.6601,17.2327,-13.6615,-30.9768,7.3218,-14.9522,17.9727,-28.6085,-11.8043,17.9657,30.4538,-31.3771,-12.3763,21.3419,22.4144,-27.8070
531.2500,9.4414,-13.6139,-28.3793,23.7078,15.2916,-15.1347,-26.2293,13.6627,-14.3791,17.7815,-27.1267,-14.3072,16.0785,26.8884,-29.9520,-13.3683,18.6559,20.7161,-26.5010
535.1562,10.1806,-15.2536,-25.3217,22.0662,14.0005,-16.6965,-22.5446,18.2873,-13.4696,18.6652,-25.6787,-17.1150,14.0851,24.0523,-28.4085,-14.5620,14.8947,19.0370,-25.5368
539.0625,11.5163,-17.3996,-22.2149,20.3290,14.2360,-18.4977,-20.7602,19.2224,-12.5858,19.5604,-23.7817,-19.9800,12.7848,22.0646,-26.1759,-16.6045,12.0372,17.1277,-24.2170
542.9688,13.0399,-19.9848,-19.4731,17.9806,15.8277,-20.5061,-20.3924,16.3990,-12.2547,19.2794,-21.1030,-22.6771,12.3155,20.3123,-22.9305,-19.8633,11.2087,14.5533,-22.0282
546.8750,14.3435,-22.6899,-17.1111,14.9791,17.9375,-22.4165,-19.9461,11.8904,-12.6896,17.3725,-17.5910,-24.9161,12.4262,18.1889,-18.7197,-23.8608,12.3021,11.2435,-18.8676
550.7812,15.3986,-25.0848,-14.6948,12.0103,19.8153,-23.7707,-17.7645,8.8409,-13.4835,14.4831,-13.4310,-26.3898,12.9509,15.7599,-13.8502,-27.3347,14.3693,7.8106,-14.9567
554.6875,16.5998,-26.8376,-11.5924,10.1574,21.3357,-24.2166,-12.9581,9.6545,-13.7441,11.9473,-8.9260,-26.9804,14.0430,13.8191,-8.6846,-29.0252,16.3795,5.3230,-10.5864
558.5938,18.4174,-27.8632,-7.4232,10.1651,22.9446,-23.7392,-5.9324,14.5399,-12.6335,10.9211,-4.4148,-26.9538,15.9753,13.2897,-3.5212,-28.6520,17.7836,4.6360,-5.9330
562.5000,20.9146,-28.3239,-2.4392,11.8044,25.1161,-22.7067,1.7492,21.3463,-9.9622,11.6413,-0.2500,-26.9165,18.7018,14.4356,1.3842,-27.2802,18.5774,5.7461,-1.0869
566.4062,23.5119,-28.4847,2.4333,13.8199,27.7858,-21.6872,8.0867,26.8328,-6.4130,13.3160,3.2220,-27.4644,21.5904,16.4994,5.7324,-26.6611,18.9716,7.6604,3.7602
570.3125,25.2203,-28.5162,5.9845,14.5629,30.2135,-21.1364,11.5721,28.5973,-3.2011,14.6838,5.7380,-28.7188,23.6071,18.0585,9.1610,-27.9297,19.0355,8.9228,8.1603
574.2188,25.2216,-28.3637,7.3617,12.9367,31.3811,-21.1368,11.8490,26.4539,-1.3619,14.8182,7.2287,-30.0978,23.8675,17.8566,11.3487,-30.6162,18.6118,8.4651,11.4545
578.1250,23.4055,-27.7641,6.5874,9.0489,30.6228,-21.3459,9.7719,22.4068,-1.1310,13.6130,7.8765,-30.5594,22.1685,15.5213,12.1823,-32.7846,17.5155,6.2086,13.0320
582.0312,20.4733,-26.4028,4.6215,4.1447,28.0283,-21.1862,6.8655,19.2868,-1.8320,11.6527,8.0465,-29.2179,19.1097,11.6840,11.8568,-32.3027,15.7799,3.0162,12.6562
585.9375,17.5087,-24.1207,2.8920,-0.1304,24.3495,-20.1709,4.5113,18.9764,-2.3491,9.6296,8.1105,-25.9383,15.7098,7.4679,10.8220,-28.3675,13.7025,0.0517,10.6509
589.8438,15.2881,-21.0484,2.5460,-2.6582,20.5153,-18.1798,3.3275,21.3704,-1.8657,7.7768,8.2699,-21.4830,12.7892,3.7608,9.5920,-22.1554,11.6465,-1.9860,7.8230
593.7500,13.7950,-17.5880,3.8548,-3.3833,17.1282,-15.5275,3.0707,24.6673,-0.3771,5.7251,8.4874,-17.0811,10.5462,0.7997,8.5278,-16.0803,9.7816,-3.2313,5.1537
597.6562,12.2723,-14.2482,6.1185,-3.1724,14.2875,-12.7911,3.0595,26.6681,1.3518,2.8430,8.5548,-13.7045,8.5977,-1.6976,7.7139,-12.1700,8.0038,-4.4107,3.4154
601.5625,9.7811,-11.4278,8.1151,-3.1717,11.8021,-10.5018,2.7962,26.1175,2.3255,-1.2460,8.2291,-11.5486,6.4065,-4.0591,6.9818,-10.7448,6.1117,-6.2275,2.9032
605.4688,5.8893,-9.2678,8.8136,-4.1362,9.5576,-8.8809,2.3655,23.1989,1.9734,-6.3655,7.3403,-10.0664,3.7508,-6.2903,6.0528,-10.3590,4.0833,-8.8432,3.3932
609.3750,1.0267,-7.6470,7.9285,-6.1519,7.7024,-7.7661,2.3602,18.9791,0.4833,-11.8959,5.8301,-8.4957,0.8903,-8.1213,4.7177,-9.0173,2.1977,-11.8082,4.3211
613.2812,-3.7289,-6.3112,6.0114,-8.8318,6.4927,-6.7580,3.4137,14.3778,-1.3764,-17.1404,3.7536,-6.4632,-1.6703,-9.3913,2.9697,-5.7283,0.8608,-14.4270,5.0709
617.1875,-7.2904,-5.0484,4.0623,-11.7238,5.9301,-5.4897,5.6700,9.5147,-2.7872,-21.6234,1.2884,-4.2222,-3.6137,-10.3886,1.0335,-1.2302,0.2419,-16.2337,5.2237
621.0938,-9.2100,-3.8115,2.9213,-14.5672,5.5083,-3.8582,8.5436,3.9109,-3.3885,-25.1070,-1.2571,-2.3864,-5.1027,-11.7816,-0.7267,2.6089,0.0068,-17.2157,4.6584
625.0000,-9.9314,-2.7338,2.7943,-17.2285,4.3291,-2.0944,10.9073,-2.7099,-3.4417,-27.3908,-3.5044,-1.4198,-6.7121,-14.1178,-1.9934,4.1942,-0.6135,-17.6622,3.4779
628.9062,-10.5122,-2.0539,3.1596,-19.4550,1.5779,-0.6488,11.5744,-9.7627,-3.5862,-28.1651,-5.1717,-1.3128,-9.0488,-17.2466,-2.7003,3.3098,-2.4113,-17.8204,1.8360
632.8125,-12.0152,-2.0046,3.0673,-20.7450,-2.9202,0.0282,9.7896,-15.9082,-4.3929,-27.1313,-6.2823,-1.6832,-12.3279,-20.1379,-3.1422,1.1198,-5.7040,-17.6639,-0.2094
636.7188,-14.9520,-2.7162,1.6379,-20.5229,-8.4420,-0.3088,5.4956,-19.9137,-6.0186,-24.3344,-7.2517,-2.1741,-16.2009,-21.3118,-3.8953,-0.8389,-10.0894,-16.9513,-2.7164
640.6250,-19.0847,-4.1534,-1.5082,-18.5267,-13.6205,-1.5975,-0.6846,-21.6139,-8.1616,-20.4127,-8.7184,-2.7687,-19.9535,-19.6559,-5.5448,-1.7969,-14.6393,-15.4933,-5.7422
644.5312,-23.6496,-6.0810,-6.0915,-15.0963,-17.1157,-3.4871,-7.6589,-22.1795,-10.3008,-16.4671,-11.1601,-3.7312,-22.9469,-15.1083,-8.3446,-2.1132,-18.4276,-13.3793,-9.1860
648.4375,-27.8140,-8.0692,-11.3294,-11.0925,-18.3373,-5.4464,-14.1515,-23.3922,-12.0342,-13.5339,-14.5291,-5.2250,-25.0184,-8.7544,-12.0179,-2.6412,-21.0602,-10.9686,-12.7256
652.3438,-31.0810,-9.5668,-16.2997,-7.4439,-17.7952,-6.9124,-19.0010,-26.3795,-13.3025,-11.9763,-18.1939,-6.9614,-26.5812,-2.2693,-15.8551,-3.7260,-22.8716,-8.6562,-15.9212
656.2500,-33.4367,-10.0665,-20.3186,-4.6176,-16.8493,-7.4474,-21.4606,-30.7169,-14.3849,-11.2404,-21.2890,-8.2339,-28.3485,2.9375,-19.0907,-4.7533,-24.6670,-6.6118,-18.4322
660.1562,-35.2127,-9.3268,-23.1562,-2.3935,-16.9709,-6.8797,-21.4563,-34.5868,-15.6994,-10.1985,-23.2768,-8.3791,-30.8387,6.3458,-21.3419,-4.6766,-27.1797,-4.7034,-20.1949
664.0625,-36.7886,-7.5490,-25.0059,-0.1227,-18.9237,-5.3948,-19.6872,-35.9517,-17.5415,-7.8944,-24.3297,-7.3267,-33.9609,8.3722,-22.8207,-3.0937,-30.5852,-2.6612,-21.4248
667.9688,-38.3120,-5.3780,-26.2630,2.6986,-22.3365,-3.5205,-17.4408,-33.9640,-19.9052,-4.1929,-25.2315,-5.7865,-36.9497,9.8879,-24.1636,-0.9341,-34.3687,-0.3468,-22.4390
671.8750,-39.5699,-3.6708,-27.2640,5.9470,-25.9333,-1.9690,-16.1137,-29.6431,-22.4741,0.1182,-26.8292,-4.8721,-38.7271,11.5695,-25.9778,-0.0855,-37.6058,2.0823,-23.4392
675.7812,-40.0533,-3.1108,-28.1505,8.8366,-28.2983,-1.3631,-16.6254,-25.3417,-24.7760,3.8536,-29.4101,-5.3948,-38.5098,13.4981,-28.4106,-2.1299,-39.4610,4.2322,-24.4362
679.6875,-39.1780,-3.8694,-28.9230,10.3824,-28.7192,-1.9622,-19.0303,-23.3415,-26.4135,6.2198,-32.4567,-7.3302,-36.3052,15.2051,-31.0401,-7.1029,-39.5846,5.7100,-25.3736
683.5938,-36.5656,-5.5218,-29.6082,10.0637,-27.5770,-3.5430,-22.5645,-24.4986,-27.2455,7.3199,-34.9667,-9.8464,-32.9667,16.0634,-33.1633,-13.2345,-38.1777,6.3737,-26.3283
687.5000,-32.2692,-7.2883,-30.3714,8.2481,-26.0175,-5.5346,-26.1172,-27.7992,-27.4165,8.0293,-36.1110,-11.8653,-29.7240,15.7354,-34.2749,-17.9298,-35.7224,6.4458,-27.5684
691.4062,-26.8356,-8.4754,-31.4489,6.0875,-25.0952,-7.3606,-28.8504,-31.0534,-27.2195,9.3434,-35.7523,-12.7381,-27.4342,14.4071,-34.3974,-19.3305,-32.5940,6.4386,-29.3558
695.3125,-21.1526,-8.8543,-32.9330,4.9392,-24.9547,-8.7935,-30.6025,-32.2168,-26.8773,11.6683,-34.4599,-12.5515,-26.0198,12.7080,-34.0399,-17.3798,-28.8391,6.9500,-31.6205
699.2188,-16.1169,-8.7478,-34.5959,5.6592,-24.6300,-10.0866,-31.8562,-30.4817,-26.3932,14.5500,-33.0471,-11.8923,-24.4884,11.4002,-33.8393,-13.6837,-24.2703,8.4212,-33.8060
703.1250,-12.2602,-8.7818,-35.9605,8.1767,-22.6581,-11.7674,-33.3395,-26.5207,-25.5861,17.0193,-32.0220,-11.3200,-21.5820,11.0184,-34.1616,-10.3429,-18.7931,10.9379,-35.1238
707.0312,-9.5186,-9.4725,-36.6472,11.5704,-18.1499,-14.1972,-35.5427,-21.8766,-24.2983,18.2918,-31.3837,-11.0011,-16.6781,11.6327,-34.9442,-8.6357,-12.7061,14.1280,-35.1410
710.9375,-7.2841,-10.9224,-36.7796,14.5659,-11.6008,-17.1855,-38.4442,-18.0118,-22.6317,18.3272,-30.8881,-10.7833,-10.3522,12.8300,-35.8518,-8.4640,-6.7236,17.2041,-34.2996
714.8438,-4.7432,-12.8152,-37.1020,16.1535,-4.8423,-19.9492,-41.5619,-15.6356,-21.0204,17.8598,-30.5061,-10.5944,-4.1890,13.9160,-36.5792,-8.8457,-1.6689,19.1847,-33.8966
718.7500,-1.3535,-14.6896,-38.6012,16.0053,-0.0836,-21.5076,-44.2214,-14.6124,-20.0486,17.8840,-30.6289,-10.7683,0.0893,14.2502,-37.0425,-8.9644,1.9590,19.2632,-35.3703
722.6562,2.7826,-16.2846,-41.7818,14.5221,1.3856,-21.3100,-45.8403,-14.3153,-20.1085,18.9462,-31.7942,-11.9641,1.6311,13.5700,-37.3298,-8.9362,4.2257,17.1893,-39.2585
726.5625,6.8552,-17.7122,-46.0650,12.5475,-0.0091,-19.6994,-46.0848,-14.0583,-21.1309,20.7136,-34.1288,-14.6976,0.9313,12.1372,-37.5040,-9.7497,5.6088,13.4546,-44.5331
730.4688,9.6581,-19.3444,-49.8038,10.9336,-2.3722,-17.8755,-44.8907,-13.3345,-22.5925,22.0986,-36.9826,-18.8521,-0.5567,10.6116,-37.4646,-12.4901,6.5408,9.1293,-48.8796
734.3750,10.1531,-21.5038,-51.0444,10.1665,-3.4817,-17.3080,-42.4212,-11.8484,-23.8157,21.8652,-39.1166,-23.5854,-1.4096,9.6884,-37.0028,-17.4636,6.9931,5.3798,-49.8941
738.2812,8.0308,-24.1778,-48.6370,10.1967,-2.0907,-18.9087,-39.0111,-9.5049,-24.3585,19.3506,-39.3789,-27.7539,-1.1356,9.6871,-35.9824,-23.8457,6.4605,2.9173,-46.5118
742.1875,3.9974,-26.9501,-42.9804,10.5189,1.4489,-22.4541,-35.0828,-6.4587,-24.2173,14.8836,-37.3981,-30.5658,-0.3555,10.3375,-34.4496,-30.0463,4.4350,1.7044,-39.7349
746.0938,-0.3780,-29.1904,-35.8543,10.4511,5.5979,-26.6292,-31.0050,-3.1492,-23.7007,9.6739,-33.7741,-31.9923,-0.1480,10.9160,-32.5381,-34.4954,1.0671,1.1123,-32.1236
750.0000,-3.2264,-30.3806,-29.3792,9.4917,8.7333,-29.7042,-26.9347,-0.1506,-23.0872,5.2522,-29.6120,-32.6466,-1.0552,10.6699,-30.2391,-36.3412,-2.4984,0.4243,-26.3167
753.9062,-3.1352,-30.3821,-24.7613,7.5990,10.1576,-30.4674,-22.7620,2.1978,-22.3528,2.7732,-25.7464,-33.2518,-2.5069,9.2803,-27.2699,-35.7192,-4.4779,-0.6546,-23.5190
757.8125,0.2364,-29.5078,-21.6722,5.2465,10.3650,-28.8796,-18.2597,4.1552,-21.2011,2.5432,-22.2421,-34.1264,-3.1218,7.0686,-23.2293,-33.5776,-3.3996,-1.8347,-22.9343
761.7188,5.9811,-28.3851,-18.7032,3.2033,10.4850,-26.0773,-13.3954,6.5801,-19.3806,3.9857,-18.5408,-35.0744,-1.6936,4.8183,-17.9893,-31.2603,0.9119,-2.5297,-22.4940
765.6250,12.3237,-27.7010,-14.5818,2.1227,11.4045,-23.7382,-8.5999,10.3912,-17.0218,6.0205,-14.1148,-35.7234,1.8536,3.3296,-12.0289,-30.0492,7.0011,-2.3695,-20.3557
769.5312,17.4071,-27.9454,-9.2765,2.1557,13.2295,-23.1883,-4.7367,15.7367,-14.6821,7.6210,-9.0870,-35.9796,6.2612,2.9982,-6.3894,-30.7510,12.4226,-1.5441,-16.1312
773.4375,20.1145,-29.2346,-4.1675,2.8269,15.4096,-24.7493,-2.6928,21.4634,-13.0030,8.2533,-4.3041,-36.1774,9.6758,3.6731,-2.1801,-33.3646,15.0526,-0.7098,-11.0250
777.3438,20.5090,-31.2484,-1.1182,3.2825,17.3058,-27.6513,-2.7838,25.4223,-12.2043,7.9894,-0.7835,-36.7647,10.8349,4.8401,0.0817,-36.9352,14.2777,-0.5201,-6.8484
781.2500,19.6561,-33.2906,-1.0877,2.7965,18.6731,-30.4874,-4.3679,25.6283,-11.8144,7.2870,1.0381,-37.7679,9.8709,5.9570,0.8334,-39.7675,11.2948,-1.1359,-4.6622
785.1562,18.9261,-34.4769,-3.2912,1.2354,19.6725,-31.9055,-5.9914,21.6413,-10.9020,6.6086,1.6571,-38.5009,8.1664,6.6913,1.2278,-40.0778,8.3041,-2.0961,-4.0348
789.0625,19.1700,-34.0299,-5.5593,-0.8296,20.4788,-31.1586,-6.0723,15.2250,-8.7140,6.1243,2.1533,-37.8250,7.3673,6.9319,2.3960,-36.8796,7.1067,-2.6663,-3.4251
792.9688,20.2391,-31.6008,-5.7003,-2.4683,20.9059,-28.2916,-3.7606,9.6846,-5.3006,5.6530,3.3794,-34.8473,8.2557,6.6461,4.6865,-30.6354,8.0201,-2.4274,-1.3742
796.8750,21.1156,-27.4771,-2.9446,-3.0034,20.4459,-23.9770,0.5470,8.1175,-1.6649,4.8308,5.2951,-29.5863,10.2659,5.7702,7.4019,-23.1984,9.8126,-1.6697,2.3812
800.7812,20.5549,-22.5410,1.5374,-2.4956,18.7288,-19.1732,5.3763,11.5949,0.7252,3.3474,6.9572,-23.1118,11.9534,4.2627,9.2300,-16.9389,10.6668,-1.2911,6.6792
804.6875,17.8376,-17.9375,5.4190,-1.7626,16.0063,-14.7904,8.9579,18.4464,0.7916,1.0781,7.1946,-17.0177,12.0452,2.2698,9.0973,-13.4767,9.4830,-2.2429,9.7380
808.5938,13.1873,-14.5757,6.7731,-1.8837,13.1932,-11.4546,10.1688,25.1772,-1.4701,-1.9459,5.4914,-12.5499,10.3116,0.2248,6.8850,-12.7732,6.6195,-4.8915,10.4037
812.5000,7.6411,-12.7111,5.3364,-3.4919,11.3410,-9.3803,9.0839,28.4919,-4.9179,-5.6367,2.4437,-9.9562,7.6633,-1.2702,3.5455,-13.1840,3.5827,-8.7247,8.9543
816.4062,2.5032,-11.8464,2.6301,-6.3177,10.9015,-8.3415,6.8311,27.1457,-7.8561,-9.8688,-0.5336,-8.4714,5.4583,-1.7512,0.5629,-12.4871,1.9263,-12.5976,6.9117
820.3125,-1.2627,-11.0311,0.8816,-9.3043,11.3531,-7.7684,4.8683,22.4381,-8.9222,-14.3619,-2.0466,-6.9165,4.5597,-1.1851,-0.8765,-9.2680,2.1689,-15.3484,6.0252
824.2188,-3.3737,-9.4079,1.5133,-11.2364,11.5209,-6.9911,4.1348,17.0639,-7.7391,-18.5371,-1.5345,-4.4869,4.8168,-0.0204,-0.4810,-3.7851,3.4957,-16.3827,7.1489
828.1250,-4.1973,-6.7015,4.2286,-11.4747,10.3944,-5.5776,4.5744,13.1504,-4.9764,-21.5452,0.4683,-1.2116,5.2935,1.0698,1.1087,2.2303,4.4226,-15.8735,9.7690
832.0312,-4.4792,-3.3651,7.2778,-10.3033,7.8454,-3.6053,5.2792,10.8507,-1.8519,-22.5775,2.7391,2.1755,5.0062,1.5919,2.7864,6.6879,3.8975,-14.4974,12.4463
835.9375,-5.0374,-0.3018,8.6630,-8.6567,4.7052,-1.6730,5.1223,8.4513,0.5727,-21.3358,4.1173,4.7957,3.5951,1.5105,3.6033,8.4188,2.0102,-12.9308,13.8016
839.8438,-6.5388,1.6720,7.4244,-7.4209,2.1365,-0.5769,3.4736,3.8689,1.8800,-18.3411,4.0881,6.1933,1.4508,1.2131,3.1672,7.7852,-0.2089,-11.4551,13.3370
843.7500,-9.3335,2.2986,4.1542,-6.8030,0.7657,-0.7912,0.5694,-3.5806,2.3375,-14.7819,2.8731,6.5310,-0.7393,1.1989,1.6529,6.2540,-1.7346,-9.9037,11.5592
847.6562,-13.2890,2.0113,0.4605,-6.2245,0.2199,-2.0637,-2.6667,-12.4507,2.5576,-11.8795,1.0747,6.3372,-2.6320,1.7218,-0.4678,5.2782,-2.5065,-7.9301,9.3976
851.5625,-17.6635,1.6632,-2.1747,-4.8220,-0.6033,-3.4167,-5.2219,-20.0281,3.0403,-10.1063,-0.7975,6.0470,-4.5521,2.6313,-2.7294,5.2848,-3.6535,-5.3707,7.3996
855.4688,-21.1803,2.0323,-3.3369,-2.2014,-2.7602,-3.6108,-6.6361,-24.1908,3.8745,-8.7757,-2.5767,5.7030,-7.2640,3.5008,-4.8185,5.4654,-6.7661,-2.4391,5.2998
859.3750,-22.4378,3.4076,-3.8220,1.1119,-6.5752,-1.8231,-7.2908,-24.9220,4.7275,-6.3456,-4.3517,5.0272,-11.3811,3.9242,-6.5435,4.4957,-12.7039,0.3660,2.2580
863.2812,-20.5804,5.4899,-4.9663,3.8893,-11.5333,1.8721,-8.1614,-24.3609,5.0728,-1.3328,-6.1938,3.7810,-16.8579,3.7666,-7.7445,1.6594,-20.7850,2.5600,-2.4324
867.1875,-15.8949,7.6353,-7.6841,4.9848,-16.7721,6.5250,-10.1765,-25.2972,4.4979,6.6960,-7.9573,2.1170,-22.9296,3.2185,-8.2779,-2.4263,-28.9644,3.9679,-8.6852
871.0938,-9.9124,9.2589,-11.8655,4.1749,-21.7250,10.8201,-13.5725,-29.1278,2.9269,16.6877,-9.3163,0.6316,-28.5223,2.6639,-8.1074,-6.0153,-34.9310,4.8282,-15.4837
875.0000,-4.8191,10.1362,-16.4775,2.4657,-26.3815,13.7465,-17.6500,-34.7024,0.6620,26.5263,-9.9926,0.0489,-32.8238,2.4866,-7.4237,-7.2669,-37.4164,5.6479,-21.3661
878.9062,-2.4078,10.4324,-20.2179,1.6116,-30.9685,15.0134,-21.0982,-38.8967,-1.7609,34.0771,-9.9871,0.7375,-35.6154,2.9426,-6.6741,-5.4404,-36.8549,6.9071,-25.2142
882.8125,-3.1510,10.4811,-22.2456,3.1087,-35.3468,14.9866,-22.7036,-38.5804,-3.8265,38.2069,-9.6353,2.3922,-37.1642,4.1270,-6.4374,-1.4595,-34.9657,8.7935,-26.8316
886.7188,-5.9689,10.4914,-22.5407,7.2836,-38.6646,14.2609,-22.0170,-32.6986,-5.2826,39.1674,-9.4509,4.1194,-37.8018,5.9894,-7.1894,2.5441,-33.5455,11.1167,-26.9541
890.6250,-8.8708,10.3888,-21.7556,13.0473,-39.6192,13.2078,-19.5808,-23.1105,-6.2510,38.1600,-9.8705,4.8998,-37.5289,8.3424,-9.0822,4.4387,-33.2743,13.4371,-26.7138
894.5312,-10.1000,9.8800,-20.7583,18.4663,-37.2088,11.8093,-16.6087,-13.6545,-7.1483,36.4385,-11.0721,4.1538,-35.9452,10.8742,-11.8706,3.2981,-33.3088,15.3196,-26.9340
898.4375,-9.0895,8.6653,-20.2145,21.7890,-31.4617,9.8357,-14.3621,-8.0563,-8.4546,34.5797,-12.9723,2.0551,-32.5570,13.2185,-15.0389,-0.1414,-31.9064,16.5553,-27.7164
902.3438,-6.6563,6.6289,-20.4394,22.3042,-23.6240,7.1610,-13.6372,-7.9978,-10.4582,32.3779,-15.3758,-0.6081,-27.2437,15.1000,-18.0707,-4.0329,-27.6466,17.2220,-28.5673
906.2500,-4.3593,3.8733,-21.5106,20.5503,-15.6457,3.9324,-14.6484,-12.4727,-13.1231,29.3470,-18.1498,-2.9397,-20.5532,16.4855,-20.7145,-6.5903,-20.4517,17.5614,-28.9323
910.1562,-3.4762,0.5988,-23.4522,17.8285,-9.2767,0.4704,-17.2677,-18.6726,-16.1481,25.3880,-21.2899,-4.4861,-13.6100,17.6139,-23.0846,-7.1155,-11.7651,17.7649,-28.7360
914.0625,-4.2618,-3.0469,-26.2973,15.4027,-5.3144,-2.9765,-21.3146,-23.6862,-19.1636,21.0978,-24.8350,-5.4767,-7.6691,18.8411,-25.5283,-6.2441,-3.8011,17.8228,-28.5256
917.9688,-5.9223,-7.0068,-29.9812,13.9058,-3.4079,-6.3776,-26.5925,-25.8962,-21.9193,17.4929,-28.7008,-6.5998,-3.5672,20.3693,-28.3301,-5.3249,1.6386,17.5450,-29.1063
921.8750,-7.2380,-11.1987,-34.1772,13.2689,-2.4501,-9.8155,-32.6413,-25.3100,-24.3367,15.3660,-32.5730,-8.4690,-1.3785,22.0518,-31.4433,-5.4245,4.0539,16.7473,-30.9155
925.7812,-7.3666,-15.3501,-38.2469,13.1023,-1.2492,-13.2229,-38.4810,-22.8555,-26.4093,14.7529,-35.9649,-11.1421,-0.4540,23.4377,-34.4424,-6.6727,4.3422,15.4731,-33.5843
929.6875,-6.2971,-18.9524,-41.3895,13.1715,0.9143,-16.2163,-42.6977,-19.3294,-28.0584,14.8925,-38.4332,-14.0259,0.2019,24.0569,-36.7531,-8.3772,4.1203,14.0849,-36.0182
933.5938,-4.7195,-21.4304,-42.9294,13.6052,4.0829,-18.2236,-43.9757,-14.7976,-29.0847,14.6980,-39.8184,-16.2404,1.4399,23.7561,-38.0230,-9.7530,4.7508,13.1343,-36.9794
937.5000,-3.4848,-22.4558,-42.5725,14.7181,7.7637,-18.8626,-41.7953,-8.8044,-29.2730,13.4038,-40.3353,-17.1989,3.6240,22.8369,-38.3641,-10.6593,6.6794,13.0667,-35.7993
941.4062,-3.0652,-22.1986,-40.4801,16.6328,11.2562,-18.2922,-36.8067,-1.1267,-28.5710,10.9581,-40.4174,-17.0076,6.5901,21.8813,-38.2633,-11.7388,9.4278,13.9388,-32.7519
945.3125,-3.3547,-21.3177,-37.1260,19.0203,13.9928,-17.2356,-30.5615,7.5629,-27.1922,7.9375,-40.3857,-16.4027,9.8713,21.3791,-38.1795,-13.8258,12.1485,15.3327,-28.8371
949.2188,-3.8730,-20.6541,-33.0383,21.1741,15.7849,-16.6069,-24.7265,15.6495,-25.5422,5.1037,-40.1550,-16.2677,13.0154,21.4335,-38.0992,-17.0724,14.3067,16.5341,-25.1265
953.1250,-4.1554,-20.8021,-28.5929,22.3713,16.9141,-16.9777,-20.2875,21.2233,-24.0071,2.9392,-39.2038,-17.0655,15.7939,21.7596,-37.3986,-20.5124,16.0263,16.8793,-22.1191
957.0312,-4.0356,-21.8312,-23.9731,22.2686,18.0324,-18.2659,-17.2640,23.0287,-22.7554,1.4639,-36.8748,-18.5881,18.2025,21.9683,-35.1784,-22.5025,17.9038,16.0673,-19.5357
960.9375,-3.6520,-23.3472,-19.2847,21.0613,19.8660,-19.8801,-15.0696,21.1445,-21.6957,0.3884,-32.8484,-20.1984,20.3028,21.9019,-30.8997,-21.8379,20.4619,14.2648,-16.6641
964.8438,-3.2276,-24.8449,-14.7062,19.3119,22.8185,-21.2179,-13.1672,17.0150,-20.6136,-0.5823,-27.4795,-21.3852,22.0569,21.7452,-24.8947,-18.7904,23.6454,11.9633,-12.9729
968.7500,-2.8215,-26.1017,-10.5344,17.5870,26.6720,-22.1404,-11.4661,12.8398,-19.3696,-1.5553,-21.7441,-22.2160,23.2942,21.8176,-18.3617,-15.2861,26.7120,9.6992,-8.5347
972.6562,-2.2369,-27.3230,-7.0699,16.1638,30.5998,-23.0610,-10.1617,10.6768,-18.0007,-2.4920,-16.7869,-23.3345,23.8413,22.2205,-12.7881,-13.9687,28.6016,7.8131,-3.9604
976.5625,-1.1457,-28.9271,-4.4176,15.0001,33.5545,-24.5700,-9.2110,11.7143,-16.6518,-3.3941,-13.3306,-25.4737,23.7140,22.6444,-9.1461,-16.6589,28.5533,6.3738,0.0789
980.4688,0.6600,-31.1192,-2.3529,13.9573,34.8468,-26.8789,-7.9782,16.0117,-15.4078,-4.4257,-11.3167,-28.8099,23.2163,22.5282,-7.3886,-23.1659,26.5899,5.2673,3.3541
984.3750,3.0550,-33.5664,-0.3765,13.0768,34.5615,-29.5091,-5.4549,22.7242,-14.1730,-5.8254,-10.0080,-32.6188,22.8457,21.4823,-6.5797,-31.2245,23.5800,4.3553,6.2111
988.2812,5.5427,-35.4324,2.0428,12.6680,33.5170,-31.4795,-0.9753,30.5877,-12.7034,-7.6550,-8.4721,-35.5092,23.0406,19.6527,-5.5596,-37.6291,20.8427,3.5810,9.2303
992.1875,7.4334,-35.7809,5.1681,13.1017,32.7579,-31.8751,5.1195,38.3642,-10.7694,-9.5925,-6.1245,-36.1226,23.9135,17.7166,-3.6742,-39.8812,19.5194,2.9657,12.6802
996.0938,8.1566,-34.1021,8.8171,14.4253,32.8932,-30.3985,11.4465,45.0529,-8.3260,-10.9765,-2.9865,-33.8805,25.1342,16.4577,-1.0755,-37.3714,20.0400,2.5195,16.1884
1000.0000,7.5529,-30.6202,12.4120,16.0699,33.7130,-27.5181,16.2982,49.8668,-5.5691,-11.1381,0.4616,-29.3211,26.0341,16.1931,1.5661,-31.4551,21.9298,2.1439,18.8912
1003.9062,5.9779,-26.1824,15.2254,16.9020,34.3317,-24.1223,18.6433,52.1301,-2.8541,-9.8372,3.6605,-23.8360,25.8715,16.4575,3.6624,-24.4981,24.0137,1.5954,19.9548
1007.8125,4.1387,-21.8035,16.6744,15.6694,33.7446,-20.9439,18.6806,51.2831,-0.5521,-7.5147,6.2791,-18.9806,24.1187,16.1948,5.1338,-18.5733,24.8905,0.5360,19.0856
1011.7188,2.7219,-18.1614,16.5077,11.6353,31.4048,-18.1679,17.5259,47.0616,1.0588,-5.1659,8.2472,-15.7702,20.6408,14.3505,6.3525,-14.5956,23.4721,-1.3502,16.6657
1015.6250,2.0067,-15.3517,14.8188,5.0343,27.4407,-15.4797,16.2667,39.7429,1.8288,-3.8772,9.5722,-14.3288,15.7176,10.4753,7.6981,-12.2833,19.3957,-4.2242,13.4407
1019.5312,1.6941,-13.0242,11.9342,-2.9515,22.4165,-12.4799,15.1093,30.2422,1.7376,-4.2930,10.1722,-14.0137,9.9402,4.9391,9.1352,-10.7584,13.1820,-8.0000,10.0248
1023.4375,1.0771,-10.7675,8.2813,-10.7361,16.8765,-9.1309,13.2795,19.8990,0.9090,-6.3326,9.9233,-13.8616,4.0410,-1.3749,10.1881,-9.2532,6.0811,-12.3391,6.6010
1027.3438,-0.5289,-8.4611,4.3067,-17.1134,11.0394,-5.9005,9.7563,9.9929,-0.3664,-9.3214,8.8876,-13.0747,-1.3026,-7.6552,10.3414,-7.4663,-0.3753,-16.7477,3.0158
1031.2500,-3.3503,-6.3666,0.4403,-21.8241,4.8521,-3.5079,4.2730,1.2484,-1.6646,-12.4347,7.4869,-11.3209,-5.6620,-13.6010,9.5254,-5.4789,-4.9956,-20.7434,-0.8573
1035.1562,-6.9990,-4.9249,-2.9476,-25.5419,-1.6973,-2.4670,-2.1949,-6.3499,-2.5665,-15.1506,6.3858,-8.7793,-9.0042,-19.4030,8.2522,-3.4727,-7.4860,-24.0086,-4.8172
1039.0625,-10.7002,-4.4254,-5.6188,-29.2511,-8.3079,-2.7514,-7.8471,-13.2747,-2.8551,-17.4189,6.0840,-5.9913,-11.7074,-25.2959,7.2523,-1.5597,-8.6528,-26.4355,-8.3493
1042.9688,-13.7576,-4.7815,-7.5307,-33.3791,-14.3767,-3.8008,-11.0902,-19.8667,-2.6414,-19.4562,6.4940,-3.6140,-14.3757,-31.0297,6.8760,0.1679,-10.0548,-28.0236,-10.9352
1046.8750,-15.9362,-5.5543,-8.8200,-37.2414,-19.2866,-4.8386,-11.4472,-25.8446,-2.2980,-21.3444,6.8600,-2.1596,-17.4822,-35.6765,6.7474,1.5052,-13.1743,-28.6964,-12.3848
1050.7812,-17.5069,-6.1918,-9.6817,-39.2106,-22.7336,-5.2744,-9.7259,-30.3001,-2.2172,-22.7515,6.1584,-1.7834,-21.0108,-37.9637,5.9843,2.1336,-18.4943,-28.1877,-12.9108
1054.6875,-18.9415,-6.3197,-10.2188,-37.5931,-24.8476,-4.9414,-7.3943,-32.2532,-2.5558,-23.0071,3.7542,-2.1981,-24.3432,-36.9600,3.8561,1.8168,-25.0238,-26.1363,-12.8971
1058.5938,-20.5123,-5.9053,-10.3889,-31.7301,-26.0444,-4.0635,-5.6787,-31.4332,-3.1716,-21.5112,-0.1451,-2.7843,-26.5434,-32.6833,0.3849,0.6400,-30.6520,-22.3882,-12.5818
1062.5000,-22.1162,-5.2151,-10.1228,-22.6457,-26.7716,-3.0299,-5.0318,-28.7358,-3.8199,-18.2028,-4.5932,-2.9000,-26.9514,-26.2303,-3.5916,-0.9407,-33.2567,-17.3264,-11.9584
1066.4062,-23.4610,-4.6215,-9.5513,-12.7873,-27.3628,-2.1545,-5.2562,-25.9700,-4.4649,-13.7547,-8.5302,-2.2626,-25.7455,-19.3144,-6.9824,-2.3384,-31.9916,-11.9594,-10.9996
1070.3125,-24.4511,-4.3905,-9.1561,-4.9311,-28.0699,-1.5630,-6.0379,-24.9686,-5.4403,-9.3255,-11.4997,-1.1839,-24.0727,-13.4621,-9.2322,-3.2162,-27.9746,-7.6046,-10.0072
1074.2188,-25.4288,-4.5758,-9.6725,-0.8491,-29.1444,-1.2350,-7.3718,-26.5882,-7.2852,-5.9935,-13.9302,-0.4675,-23.5612,-9.3274,-10.7445,-3.7212,-23.8683,-5.2675,-9.7317
1078.1250,-27.0230,-5.0571,-11.7340,-0.5019,-30.7853,-1.1283,-9.5393,-30.2389,-10.3332,-4.2096,-16.7542,-0.9697,-25.4271,-6.5053,-12.5966,-4.3672,-22.4928,-5.0628,-11.0521
1082.0312,-29.6660,-5.6712,-15.4554,-2.2226,-32.9252,-1.2794,-12.7262,-34.2579,-14.3596,-3.5991,-20.6226,-3.0490,-29.6943,-3.9280,-15.7270,-5.6247,-25.2296,-6.0729,-14.3658
1085.9375,-33.1286,-6.3334,-20.2411,-3.7580,-35.0460,-1.8118,-16.6793,-36.8893,-18.5884,-3.2200,-25.2863,-6.2484,-35.0458,-0.5876,-20.1804,-7.5042,-31.1705,-6.8033,-19.1238
1089.8438,-36.4571,-7.0665,-24.9937,-3.5197,-36.2826,-2.8501,-20.7321,-37.2311,-22.1130,-2.1046,-29.6233,-9.4452,-39.4602,3.8453,-24.9670,-9.4433,-37.5582,-6.0145,-23.9233
1093.7500,-38.4231,-7.9250,-28.6369,-1.2996,-35.8734,-4.3891,-24.1826,-35.5566,-24.4590,0.2407,-32.3319,-11.4196,-41.2891,8.8521,-28.6621,-10.6001,-41.2870,-3.4335,-27.2038
1097.6562,-38.2203,-8.8774,-30.6464,1.9220,-33.7005,-6.1979,-26.6916,-32.8658,-25.8769,3.6404,-32.8252,-11.5206,-40.1192,13.4107,-30.3364,-10.3699,-40.5794,0.1078,-28.1492
1101.5625,-35.9329,-9.7439,-31.2540,4.8491,-30.4896,-7.8311,-28.3687,-30.0668,-27.1173,7.4119,-31.6945,-10.0260,-36.8822,16.6159,-30.1676,-8.7913,-35.8450,3.2114,-27.1997
1105.4688,-32.4430,-10.2562,-31.2048,6.7794,-27.4152,-8.7830,-29.5049,-27.4138,-28.8194,10.7312,-30.3916,-7.9801,-33.1519,18.1930,-29.3117,-6.5840,-29.2471,4.7906,-25.7983
1109.3750,-28.8325,-10.2240,-31.2418,7.9419,-25.2918,-8.7435,-30.2292,-24.5961,-30.9440,12.9821,-30.3192,-6.6073,-30.0997,18.6097,-29.1289,-4.8073,-23.3162,4.7257,-25.5009
1113.2812,-25.6986,-9.7039,-31.6721,9.1020,-23.9026,-7.8296,-30.4227,-21.3435,-32.6789,13.9462,-31.9346,-6.6623,-27.7983,18.7519,-30.3076,-4.3564,-19.5169,3.8872,-27.0209
1117.1875,-22.8558,-9.0446,-32.2979,10.8048,-22.0080,-6.6358,-29.9761,-18.0050,-32.9196,13.8228,-34.4725,-8.0871,-25.3190,19.3910,-32.4828,-5.5823,-17.6390,3.5432,-29.8345
1121.0938,-19.6187,-8.7387,-32.7259,12.8683,-18.1312,-6.0084,-29.1383,-15.5680,-31.0107,13.1413,-36.4774,-10.1402,-21.5199,20.7789,-34.5859,-8.2036,-16.2942,4.5717,-32.6005
1125.0000,-15.4327,-9.1402,-32.7961,14.5249,-11.6441,-6.6101,-28.5962,-15.0197,-27.2385,12.6130,-36.7905,-11.8657,-15.9585,22.6001,-35.6515,-11.4875,-14.0655,6.9995,-34.0955
1128.9062,-10.3795,-10.2144,-32.7944,15.0975,-3.3960,-8.5032,-29.1352,-16.4853,-22.7283,12.9258,-35.3294,-12.5954,-9.2933,24.2673,-35.5026,-14.5522,-10.4766,10.1342,-34.0233
1132.8125,-5.1872,-11.4941,-33.2763,14.6806,4.6041,-11.0250,-31.0939,-18.8048,-18.8148,14.4922,-33.1389,-12.2058,-2.9098,25.3304,-34.8392,-16.6368,-6.1590,13.1282,-33.1500
1136.7188,-0.7517,-12.3089,-34.6214,14.2660,10.2927,-13.0908,-34.0320,-19.9541,-16.3097,17.2329,-31.6760,-11.0477,1.9467,25.7216,-34.6809,-17.2781,-2.2047,15.5345,-32.6924
1140.6250,2.4691,-12.1739,-36.6381,15.1524,12.7188,-13.7988,-36.8920,-18.1344,-15.1448,20.5358,-31.7974,-9.6693,4.9200,25.6948,-35.5609,-16.4070,0.7372,17.4651,-33.3952
1144.5312,4.7391,-11.1104,-38.5168,18.0093,12.4878,-12.9934,-38.5685,-12.8707,-14.5882,23.4879,-33.1155,-8.5447,6.6626,25.5473,-37.0359,-14.3931,2.9255,19.2893,-34.9417
1148.4375,6.8061,-9.6908,-39.1960,22.2518,11.2068,-11.4268,-38.4939,-5.4051,-13.8338,25.3128,-34.1549,-7.9556,8.2744,25.3534,-37.8625,-12.0150,5.2312,21.1565,-36.1021
1152.3438,9.3276,-8.7676,-37.9311,26.2011,10.3631,-10.3879,-36.8546,1.8982,-12.5408,25.7751,-33.2312,-8.0376,10.4771,24.9121,-36.7446,-10.3039,8.3339,22.7361,-35.5200
1156.2500,12.3823,-9.0430,-34.7201,27.9831,10.4564,-10.9950,-34.3363,6.8014,-10.9803,25.2756,-29.5164,-8.8880,13.1108,23.9338,-33.1776,-10.2374,12.0383,23.3787,-32.6087
1160.1562,15.4158,-10.7321,-30.3294,26.6137,10.9773,-13.5691,-31.6367,8.3524,-9.7559,24.5369,-23.6333,-10.6179,15.2851,22.3041,-27.8480,-12.3573,15.2404,22.5691,-27.9630
1164.0625,17.6466,-13.5072,-25.9017,22.5795,11.1671,-17.4591,-29.1009,7.2895,-9.3496,24.0627,-17.4027,-13.2963,16.0506,20.2143,-22.3210,-16.4757,16.5979,20.3259,-23.0221
1167.9688,18.6294,-16.7213,-22.3770,17.5535,10.9001,-21.4101,-26.6754,5.5003,-9.8237,23.7471,-12.8809,-16.8305,15.1037,18.0586,-18.1951,-21.6497,15.4504,17.2532,-19.2136
1171.8750,18.5721,-19.7456,-20.0484,13.4403,10.9542,-24.2406,-24.1101,4.9099,-10.8400,22.9376,-11.2454,-20.8824,13.0383,16.1860,-16.2322,-26.5033,12.3554,14.2111,-17.1330
1175.7812,18.1939,-22.2143,-18.4885,11.3606,12.4332,-25.4284,-21.1891,6.4674,-11.9151,20.9482,-12.1762,-24.9082,10.9927,14.7086,-15.9842,-29.8057,8.8609,11.8409,-16.2732
1179.6875,18.2375,-24.0751,-16.8690,11.1784,15.7839,-25.3010,-17.8414,9.7745,-12.6896,17.6757,-14.0759,-28.3381,9.9551,13.5066,-16.1272,-31.0530,6.6524,10.2610,-15.4486
1183.5938,18.9856,-25.4876,-14.4818,11.7873,20.1941,-24.7822,-14.1523,13.4826,-13.0323,13.8570,-14.9785,-30.8242,10.2010,12.4058,-15.2813,-30.7480,6.6153,9.1024,-13.6119
1187.5000,20.1089,-26.6906,-11.1761,11.8849,23.8917,-24.8896,-10.3747,16.1433,-12.9664,10.7315,-13.6039,-32.4189,11.2120,11.3565,-12.8061,-30.1779,8.4021,7.8086,-10.5357
1191.4062,20.9299,-27.9168,-7.4742,10.7041,25.1919,-26.2600,-6.9609,17.0018,-12.5367,9.2879,-9.9582,-33.5530,12.0838,10.4465,-9.0964,-30.7283,10.7467,5.9760,-6.9380
1195.3125,20.8979,-29.3393,-4.3051,8.2869,23.5712,-28.8956,-4.4995,16.3271,-11.7477,9.5915,-5.1828,-34.7776,12.1157,9.7338,-5.2367,-33.0413,12.2943,3.5319,-4.0063
1199.2188,19.9408,-30.9898,-2.5005,5.2431,20.0056,-32.1733,-3.4513,15.1741,-10.6069,10.6681,-0.8158,-36.3750,11.1916,9.0552,-2.2799,-36.4760,12.4005,0.7034,-2.6486
1203.1250,18.4625,-32.6451,-2.3297,2.2655,16.3320,-35.0590,-3.7624,14.7690,-9.2061,11.0500,2.0415,-38.0637,9.7454,8.0082,-0.6417,-39.2464,11.4075,-2.1333,-2.9520
1207.0312,17.0136,-33.7752,-3.3380,-0.2452,14.0811,-36.4469,-4.6535,15.8577,-7.7505,9.6413,3.1595,-39.0236,8.3874,6.1673,0.0118,-39.2826,10.2580,-4.6055,-4.1719
1210.9375,15.8822,-33.6777,-4.5905,-2.2660,13.5842,-35.5476,-4.8823,18.3246,-6.5067,6.3369,3.0294,-38.3015,7.4702,3.3878,0.3589,-35.4364,9.7330,-6.4521,-5.2300
1214.8438,14.8944,-31.8164,-5.1910,-4.0169,13.9261,-32.2250,-3.4693,21.2316,-5.7102,1.9997,2.3344,-35.4170,6.8692,-0.0526,0.8336,-28.3630,9.8259,-7.6109,-5.3808
1218.7500,13.5577,-28.1975,-4.7729,-5.7939,13.7038,-27.1365,-0.4613,23.2389,-5.4954,-2.1572,1.4652,-30.7982,6.0796,-3.6225,1.3007,-20.4857,9.6659,-8.2989,-4.6218
1222.6562,11.4355,-23.5177,-3.6618,-7.8921,12.0039,-21.5501,2.8670,23.2168,-5.8712,-5.3426,0.4096,-25.7183,4.5367,-6.9173,1.2245,-14.9109,8.0526,-9.0307,-3.6053
1226.5625,8.4856,-18.9076,-2.6030,-10.5776,8.9237,-16.8388,4.6770,20.7765,-6.7194,-7.5948,-0.9727,-21.6782,1.9538,-9.9586,0.1914,-13.7844,4.2762,-10.4793,-3.1303
1230.4688,5.1277,-15.3573,-2.2222,-13.9968,5.3535,-13.8596,3.7786,16.4731,-7.7902,-9.5898,-2.5701,-19.5536,-1.4967,-13.1460,-1.6257,-17.0030,-1.2849,-13.1528,-3.5564
1234.3750,1.9942,-13.1681,-2.5739,-17.9929,2.2833,-12.5546,0.5860,11.5572,-8.7115,-12.0416,-3.8811,-19.0354,-5.2259,-16.8488,-3.4299,-22.0905,-7.1796,-17.0177,-4.5187
1238.2812,-0.4581,-11.8053,-3.0845,-21.9611,0.1845,-12.0395,-2.9333,7.3600,-9.0612,-15.1458,-4.2536,-18.7691,-8.4528,-20.9200,-4.2468,-25.4250,-11.5457,-21.3141,-5.1253
1242.1875,-2.2090,-10.2937,-2.9448,-24.9373,-1.1213,-11.1692,-4.4188,4.5946,-8.5228,-18.4488,-3.3340,-17.1720,-10.5047,-24.5232,-3.5479,-24.1889,-13.0672,-24.7626,-4.5130
1246.0938,-3.6338,-7.9196,-1.6973,-25.9939,-2.1223,-9.2519,-2.6794,2.9443,-7.0685,-21.1850,-1.3802,-13.4508,-11.0803,-26.4720,-1.6090,-17.9174,-11.6905,-26.1377,-2.4155
1250.0000,-5.2010,-4.7676,0.3835,-24.7642,-3.1618,-6.4626,1.4120,1.1990,-5.0461,-22.7916,0.8126,-8.1612,-10.3816,-25.9141,0.6551,-8.7049,-8.6814,-24.9225,0.6066
1253.9062,-7.1332,-1.7064,2.3883,-21.7536,-4.2483,-3.6807,5.3728,-2.0750,-3.0694,-23.2078,2.3432,-2.9177,-9.0601,-22.9135,2.2626,0.0791,-5.9748,-21.6459,3.4161
1257.8125,-9.2752,0.1862,3.2995,-18.1652,-5.2255,-1.8631,6.6723,-7.6606,-1.7310,-22.7603,2.7042,0.5937,-7.9787,-18.5120,2.7430,5.7808,-5.1692,-17.6556,4.8847
1261.7188,-11.2574,0.3745,2.6012,-15.2732,-6.0765,-1.3827,4.3687,-15.0991,-1.2830,-21.7610,2.0153,1.6679,-7.8682,-14.1844,2.3294,7.9135,-6.7240,-14.4150,4.4716
1265.6250,-12.8221,-0.7330,0.5685,-13.7023,-7.0404,-1.7898,-0.2972,-22.7548,-1.4865,-20.1557,0.8557,1.0089,-9.0226,-11.0133,1.6637,8.1567,-9.7996,-12.7192,2.4693
1269.5312,-14.0569,-2.0171,-1.9496,-13.0774,-8.4178,-2.1540,-4.7580,-28.5590,-1.7422,-17.5164,-0.1598,0.2453,-11.1836,-9.1104,1.2581,8.9305,-12.8094,-12.2926,-0.2038
1273.4375,-15.3525,-2.3610,-4.0879,-12.2886,-10.2408,-1.7325,-6.8325,-31.0551,-1.4426,-13.4059,-0.7563,0.8591,-13.6894,-7.6503,1.1127,11.5178,-14.3511,-12.0050,-2.5217
1277.3438,-17.1110,-1.3489,-5.4761,-10.2103,-12.1293,-0.4809,-6.1165,-30.1681,-0.3465,-7.8608,-1.0930,3.2430,-15.8296,-5.4775,0.7426,15.0200,-13.9808,-10.5675,-3.8680
1281.2500,-19.4302,0.5262,-6.3659,-6.4094,-13.5140,0.9537,-4.1300,-27.2461,1.2434,-1.6362,-1.5703,6.5042,-17.2247,-1.8787,-0.4442,16.8904,-12.4148,-7.2850,-4.2741
1285.1562,-22.0125,2.2696,-7.3256,-1.3875,-14.0962,1.7385,-3.1802,-24.3310,2.5971,4.0011,-2.5383,9.1175,-18.0249,2.9716,-2.7206,14.7286,-11.0898,-2.4342,-4.2826
1289.0625,-24.3764,3.0971,-8.7596,3.7761,-14.1887,1.4838,-4.7785,-23.0584,2.8982,7.8499,-4.1280,9.9533,-18.8115,8.1412,-5.8721,8.1533,-11.3759,2.9184,-4.5689
1292.9688,-26.2103,2.9424,-10.6164,8.1016,-14.6273,0.5363,-8.6985,-23.8096,1.6221,9.3970,-6.2795,8.9793,-20.2465,12.5092,-9.3659,-0.5304,-13.8936,7.5015,-5.5705
1296.8750,-27.5828,2.4161,-12.4808,11.2361,-16.2453,-0.2663,-13.2490,-25.5926,-1.2346,9.1110,-8.8722,7.1891,-22.6556,15.3827,-12.6898,-7.3912,-18.2686,10.4614,-7.3290
1300.7812,-28.8301,2.2762,-13.9520,13.4949,-19.2342,-0.1951,-16.4721,-26.7038,-5.1616,8.2178,-11.7994,5.8622,-25.7661,16.7898,-15.5936,-9.0665,-23.3718,11.6852,-9.5867
1304.6875,-30.1930,2.8121,-14.9987,15.4490,-22.8332,0.8431,-17.3860,-25.7673,-9.3490,8.0625,-14.9226,5.7010,-28.7403,17.3368,-18.0887,-4.7494,-27.8312,11.7092,-12.0170
1308.5938,-31.4927,3.5883,-16.0181,17.4030,-25.5983,2.2134,-16.4672,-22.5431,-13.0007,9.4022,-17.9846,6.4293,-30.4959,17.7920,-20.2705,3.2604,-30.5167,11.3374,-14.4093
1312.5000,-32.1243,3.7185,-17.5630,19.1556,-26.1327,2.9404,-15.1716,-18.0529,-15.6216,12.0229,-20.6222,7.0718,-30.1646,18.6855,-22.1581,10.7799,-30.8071,11.2266,-16.7049
1316.4062,-31.4129,2.4634,-19.9486,20.1942,-23.8566,2.2999,-14.9555,-13.9897,-17.1765,14.8944,-22.5355,6.6517,-27.4812,20.1251,-23.6941,13.9918,-28.6248,11.6436,-18.9092
1320.3125,-29.0864,-0.2623,-23.0304,20.1457,-19.3590,0.2298,-16.4974,-11.7930,-18.0633,16.7847,-23.7123,4.7929,-22.9297,21.8516,-24.8761,11.3829,-24.3447,12.4652,-20.9982
1324.2188,-25.5003,-3.8051,-26.2971,19.1327,-14.1201,-2.6695,-19.5496,-11.9311,-18.8996,16.9895,-24.5207,1.8478,-17.5757,23.4186,-25.8675,4.2932,-18.6743,13.3517,-22.9149
1328.1250,-21.4215,-7.1354,-29.1853,17.7773,-9.7622,-5.4888,-23.3317,-13.7660,-20.1949,15.7640,-25.5497,-1.4506,-12.6501,24.3778,-26.9503,-4.1076,-12.5246,13.9739,-24.6515
1332.0312,-17.5108,-9.3944,-31.3677,16.8661,-7.2433,-7.4576,-27.0447,-15.9940,-22.0513,14.1980,-27.2660,-4.4811,-9.0519,24.4216,-28.3350,-10.6685,-6.8313,14.1908,-26.3198
1335.9375,-13.8900,-10.2773,-32.8205,16.9282,-6.4298,-8.2260,-30.1351,-17.3318,-24.0553,13.5955,-29.7060,-7.0013,-6.9869,23.4932,-29.9790,-13.7892,-2.3179,14.1244,-28.1069
1339.8438,-10.1399,-10.0586,-33.6653,18.0096,-6.2538,-7.8837,-32.2578,-17.0280,-25.4498,14.7133,-32.4218,-9.0519,-5.9102,21.8612,-31.5761,-13.8301,0.7316,14.1157,-30.1097
1343.7500,-5.7503,-9.3180,-33.9615,19.7586,-5.3427,-6.8043,-33.1639,-14.9665,-25.5300,17.3085,-34.7255,-10.6701,-4.8102,20.1039,-32.7443,-12.3729,2.5651,14.5733,-32.1600
1347.6562,-0.6897,-8.5993,-33.6428,21.7061,-2.7663,-5.4720,-32.7433,-11.4342,-24.0593,20.2744,-36.0684,-11.7116,-2.7152,18.9454,-33.2748,-10.9900,3.8397,15.7583,-33.7978
1351.5625,4.3581,-8.2198,-32.6504,23.5109,1.4926,-4.3844,-31.2180,-6.8227,-21.4620,22.2916,-36.2984,-11.9519,0.8208,18.9570,-33.2483,-10.3566,5.3160,17.5919,-34.4621
1355.4688,8.3128,-8.2946,-31.1324,25.0111,6.5728,-4.0101,-29.2550,-1.5138,-18.6623,22.5995,-35.6393,-11.3743,5.4906,20.2560,-32.9261,-10.1774,7.5100,19.5908,-33.8121
1359.3750,10.3736,-8.8770,-29.5080,26.0947,11.2218,-4.7282,-27.7701,4.0184,-16.6483,21.4077,-34.4415,-10.3811,10.3762,22.3823,-32.5072,-9.7959,10.4710,21.0019,-31.9738
1363.2812,10.5711,-10.0572,-28.2934,26.5488,14.4484,-6.7109,-27.4390,9.0686,-16.0091,19.6858,-32.9178,-9.7148,14.3770,24.4608,-31.9448,-8.9400,13.7798,21.1061,-29.5257
1367.1875,9.7789,-11.9325,-27.7814,26.0430,15.9793,-9.8039,-28.2141,12.7631,-16.7093,18.4645,-31.0653,-10.1085,16.6934,25.5877,-30.9742,-8.0620,16.7422,19.5567,-27.1978
1371.0938,9.1591,-14.4837,-27.7924,24.2910,16.2899,-13.5012,-29.2173,14.4019,-18.2015,18.1057,-28.8076,-11.8972,17.1278,25.2385,-29.3294,-8.0862,18.6793,16.5684,-25.4534
1375.0000,9.4362,-17.4720,-27.6860,21.2866,16.2397,-17.0783,-29.1506,13.9110,-19.7653,18.0310,-26.2061,-14.8555,16.0890,23.4737,-26.9695,-9.7980,19.1945,12.8433,-24.2129
1378.9062,10.5238,-20.4578,-26.6496,17.4513,16.5665,-19.8484,-27.0083,12.0863,-20.8296,17.1100,-23.5276,-18.3613,14.3602,20.8493,-24.1259,-13.3127,18.3421,9.2608,-22.8989
1382.8125,11.7654,-22.9524,-24.0949,13.5768,17.5604,-21.4217,-22.6457,10.3860,-21.0955,14.4783,-21.0758,-21.7513,12.7983,18.1118,-21.1180,-17.9562,16.6503,6.4990,-20.7768
1386.7188,12.5825,-24.6227,-19.9330,10.5641,19.0837,-21.8414,-16.8450,10.2999,-20.4534,10.2557,-18.9012,-24.6164,12.1024,15.8696,-18.0767,-22.5943,14.9813,4.7896,-17.3809
1390.6250,13.0136,-25.4335,-14.5897,9.0686,20.8553,-21.5307,-10.8500,12.6096,-18.8500,5.6791,-16.6314,-26.8627,12.6891,14.4046,-14.8029,-26.1785,14.2353,3.9266,-12.7760
1394.5312,13.7065,-25.6452,-8.7967,9.2097,22.7314,-21.0852,-5.6921,16.9629,-16.2736,2.5151,-13.6122,-28.5578,14.6215,13.6669,-10.9038,-28.1907,14.9715,3.4859,-7.5237
1398.4375,15.3510,-25.6668,-3.3123,10.4804,24.7460,-21.0115,-1.7398,22.0289,-12.8852,2.0766,-9.3307,-29.7374,17.5495,13.3861,-6.1477,-28.7767,17.0960,3.0985,-2.4173
1402.3438,17.9847,-25.8388,1.2767,11.9172,26.8843,-21.5240,1.2780,26.1715,-9.1514,4.4199,-3.8731,-30.3423,20.7013,13.2006,-0.8016,-28.5505,19.8010,2.6077,1.8289
1406.2500,20.7263,-26.2546,4.6264,12.4813,28.8104,-22.4756,3.8618,28.2735,-5.7928,8.2077,1.9052,-30.3178,23.0278,12.7537,4.3053,-28.2098,21.8543,2.0397,4.7719
1410.1562,22.1962,-26.7086,6.6352,11.5045,29.8354,-23.4364,6.2768,28.2585,-3.4869,11.3330,6.6689,-29.7506,23.5501,11.7696,8.0875,-28.1597,22.1539,1.4505,6.2756
1414.0625,21.3718,-26.7937,7.4429,8.9946,29.2427,-23.8780,8.3637,27.0357,-2.4807,11.9599,9.2382,-28.8824,21.8055,10.1299,9.7396,-28.3084,20.2804,0.7868,6.4668
1417.9688,18.2897,-26.0977,7.4362,5.6309,26.7861,-23.3853,9.7246,25.9233,-2.3889,9.4121,9.2221,-27.9506,18.1502,7.9331,9.1974,-28.1152,16.7341,-0.1292,5.7037
1421.8750,14.0878,-24.3981,7.1938,2.4202,22.9912,-21.8092,10.1131,25.8948,-2.3668,4.4454,7.2701,-26.9640,13.6868,5.4808,7.2404,-26.8718,12.6993,-1.4842,4.5635
1425.7812,10.3370,-21.7606,7.3113,0.1709,18.9772,-19.3007,9.7242,27.0671,-1.6003,-1.2054,4.7714,-25.6084,9.7819,3.1574,5.1498,-24.1002,9.4549,-3.3148,3.7677
1429.6875,8.1070,-18.4973,8.1385,-0.9308,15.8494,-16.2205,9.1690,28.6847,0.1848,-5.7230,3.1529,-23.3969,7.4076,1.2396,4.0934,-19.8799,7.7664,-5.4253,3.9727
1433.5938,7.3917,-15.0227,9.5729,-1.3921,14.0475,-12.9780,9.1463,29.5631,2.5332,-8.0682,3.1735,-20.0035,6.6864,-0.2539,4.5735,-14.9243,7.6022,-7.4500,5.4673
1437.5000,7.2597,-11.6924,11.0708,-2.0814,13.1089,-9.8865,10.0246,28.7071,4.5286,-8.3874,4.6154,-15.5677,6.9160,-1.5752,6.2444,-10.3244,8.2941,-9.0296,7.9511
1441.4062,6.5889,-8.7105,11.9250,-3.6949,12.0395,-7.0997,11.6041,25.7596,5.3558,-7.8185,6.5355,-10.7469,7.0521,-3.1047,8.1924,-7.0552,8.9777,-10.0039,10.5867
1445.3125,4.8512,-6.1347,11.6769,-6.3548,10.0531,-4.6424,13.2067,21.0689,4.7916,-7.8473,7.9049,-6.4495,6.3280,-5.1391,9.5054,-5.4949,8.9929,-10.5042,12.3758
1449.2188,2.4117,-3.9420,10.4136,-9.5857,7.1565,-2.4854,14.0408,15.4009,3.3170,-9.5526,8.2289,-3.3851,4.6166,-7.7369,9.7917,-5.2318,8.0140,-10.8874,12.6869
1453.1250,0.1784,-2.0891,8.7456,-12.6555,4.1527,-0.6021,13.6320,9.5137,1.8009,-13.0844,7.7732,-1.7013,2.3346,-10.6934,9.3422,-5.2892,5.9260,-11.5338,11.6212
1457.0312,-1.1033,-0.5277,7.4555,-15.0219,2.0437,1.0248,12.0776,3.8534,0.9910,-17.5814,7.2775,-0.9279,0.0219,-13.6251,8.8559,-4.6545,2.6695,-12.6072,9.9658
1460.9375,-1.3903,0.8118,7.0260,-16.5689,1.2548,2.4227,9.9858,-1.4859,1.1460,-21.5330,7.3725,-0.2708,-2.0588,-16.0831,8.9187,-2.8138,-1.7328,-13.9046,8.7289
1464.8438,-1.3501,2.0184,7.3437,-17.4995,1.2411,3.6282,8.1349,-6.5782,2.0082,-23.4154,8.0982,0.9152,-4.0107,-17.6375,9.5759,0.0086,-6.9602,-14.8903,8.5242
1468.7500,-1.8760,3.1487,7.7645,-18.0187,0.7693,4.6459,7.0313,-11.4303,3.0632,-22.3340,8.8409,2.7498,-6.0645,-17.9384,10.2743,3.0173,-12.2170,-14.9276,9.1786
1472.6562,-3.4893,4.1524,7.4926,-18.0952,-1.3108,5.4019,6.6040,-15.8696,3.8506,-18.4112,8.7158,4.7621,-8.2639,-16.8007,10.2002,5.2794,-16.3640,-13.6137,9.8075
1476.5625,-6.0557,4.8450,6.0239,-17.5016,-5.3304,5.7515,6.2084,-19.6159,4.1166,-12.7539,7.1263,6.1671,-10.3772,-14.3128,8.7816,6.1491,-18.4232,-11.0458,9.3061
1480.4688,-8.9812,4.9843,3.3804,-16.0790,-10.5923,5.5742,4.9574,-22.4534,3.7688,-7.0072,4.1211,6.3219,-12.1272,-10.9008,6.0213,5.4666,-18.1962,-7.8534,6.9576
1484.3750,-11.6912,4.4357,0.0194,-13.9679,-15.7974,4.9081,2.2272,-24.3522,2.7721,-2.6755,0.3272,5.1008,-13.5408,-7.2443,2.4533,3.5086,-16.5655,-4.9344,2.8028
1488.2812,-14.0124,3.3295,-3.4771,-11.5691,-19.7860,4.0264,-1.9265,-25.4407,1.1388,-0.5105,-3.4633,2.9866,-15.0870,-4.0200,-1.2183,0.8293,-15.1825,-3.0022,-2.4093
1492.1875,-16.1828,2.0918,-6.6970,-9.2352,-22.1006,3.3701,-6.6853,-25.8589,-0.9625,-0.2497,-6.7442,0.8376,-17.4251,-1.5909,-4.5272,-1.8622,-15.6331,-2.1857,-7.6138
1496.0938,-18.5195,1.2951,-9.4986,-6.9520,-23.0572,3.3463,-10.8028,-25.6278,-3.1193,-0.8284,-9.4757,-0.5355,-20.9058,0.1556,-7.4141,-3.7726,-18.5498,-1.9348,-11.9065
1500.0000,-21.0365,1.3859,-11.9087,-4.3167,-23.3829,4.0982,-13.2176,-24.6633,-4.7784,-0.9568,-11.9066,-0.7490,-25.1982,1.6805,-10.0703,-4.1543,-23.2230,-1.3250,-14.8523
1503.9062,-23.3250,2.4386,-13.9657,-0.8975,-23.7460,5.3916,-13.6265,-22.9444,-5.5585,0.2414,-14.2191,0.0084,-29.3620,3.4306,-12.6187,-2.5806,-27.9790,0.3823,-16.5247
1507.8125,-24.7935,4.0790,-15.6641,3.2749,-24.4883,6.6990,-12.6830,-20.7065,-5.5851,2.8593,-16.2969,1.1254,-32.3608,5.4893,-14.9103,0.7161,-31.1052,3.2566,-17.3403
1511.7188,-25.0788,5.6337,-17.0323,7.4953,-25.6333,7.4432,-11.6688,-18.4767,-5.5672,6.2831,-17.7988,1.9114,-33.6667,7.5078,-16.6102,4.7019,-31.7558,6.6066,-17.8333
1515.6250,-24.3046,6.4329,-18.2251,10.6973,-27.0132,7.2652,-11.7825,-16.8682,-6.4716,9.6300,-18.4648,1.9411,-33.5155,8.9958,-17.5001,7.8343,-30.2897,9.3718,-18.4727
1519.5312,-22.9830,6.1100,-19.4867,12.1405,-28.3217,6.1730,-13.4345,-16.2298,-8.9349,12.2603,-18.3969,1.2236,-32.6146,9.7698,-17.7391,8.7721,-27.8735,10.7776,-19.5493
1523.4375,-21.6280,4.7508,-20.9561,11.9937,-29.0662,4.5088,-15.9735,-16.3863,-12.7769,14.0585,-18.0745,0.1277,-31.5210,10.2061,-17.8476,7.1405,-25.6579,10.8392,-21.1100
1527.3438,-20.3673,2.8282,-22.4622,11.3497,-28.5726,2.7729,-18.0479,-16.6808,-16.9648,15.3454,-18.0800,-0.8682,-30.1659,11.0628,-18.3944,3.8388,-24.0838,10.3793,-22.9431
1531.2500,-18.8437,0.9670,-23.5227,11.5906,-26.1970,1.4100,-18.4327,-16.3377,-20.1010,16.5404,-18.7395,-1.4500,-27.9039,12.9531,-19.6138,0.5922,-22.7445,10.5269,-24.6449
1535.1562,-16.4806,-0.3402,-23.6362,13.4992,-21.7084,0.6492,-16.8534,-14.9401,-21.1593,17.8396,-19.9503,-1.6130,-24.0706,15.8443,-21.2504,-1.0654,-20.8218,12.0134,-25.7882
1539.0625,-12.9182,-0.9341,-22.7180,16.7301,-15.5819,0.4430,-14.3054,-12.7087,-20.0162,19.1367,-21.3197,-1.6171,-18.6301,18.9815,-22.7655,-0.7612,-17.7348,14.7293,-26.1425
1542.9688,-8.3069,-1.0244,-21.3641,20.0289,-8.9149,0.4986,-12.6364,-10.3810,-17.4558,20.2070,-22.4908,-1.7975,-12.4034,21.3498,-23.7596,0.4529,-13.5354,17.8344,-25.8242
1546.8750,-3.2563,-1.0556,-20.6818,22.0657,-2.9222,0.3812,-13.5966,-8.7499,-14.6685,20.9691,-23.3943,-2.3536,-6.6672,22.3789,-24.2908,0.7757,-8.8123,20.3418,-25.2636
1550.7812,1.5047,-1.4726,-21.7075,22.3064,1.7027,-0.3342,-17.8773,-8.1535,-12.5912,21.5906,-24.2267,-3.2392,-2.3818,22.3813,-24.8343,-1.1329,-4.2376,21.7660,-24.9768
1554.6875,5.4991,-2.5014,-24.7413,21.3200,5.1060,-1.8943,-24.6827,-8.2437,-11.5044,22.3402,-25.1874,-4.2093,0.3987,22.3633,-25.8985,-5.2015,-0.1323,22.3819,-25.2699
1558.5938,8.6424,-4.0516,-29.0402,20.3197,8.0070,-4.2414,-32.0637,-8.1794,-11.0964,23.3186,-26.2030,-4.9853,2.4933,23.2938,-27.5795,-9.9135,3.6221,22.9201,-26.0632
1562.5000,11.0900,-5.7884,-33.1133,20.2861,11.0024,-7.0003,-37.8084,-7.1056,-10.8649,24.3121,-26.8792,-5.4370,4.9463,25.3251,-29.3909,-13.2309,7.2894,23.9286,-26.9565
1566.4062,12.9575,-7.3332,-35.4716,21.3064,13.9548,-9.6149,-40.3853,-4.6068,-10.5238,24.9279,-26.7392,-5.6731,8.2263,27.5395,-30.5083,-13.8648,10.8669,25.2772,-27.4868
1570.3125,14.1739,-8.4801,-35.3770,22.5843,15.9660,-11.5893,-39.4560,-0.8686,-10.1305,24.9312,-25.5694,-5.9894,11.8525,28.4540,-30.2647,-12.0380,13.9104,26.1849,-27.3958
1574.2188,14.5975,-9.3007,-33.1269,23.0765,16.0305,-12.7139,-35.7744,3.4973,-9.9041,24.5086,-23.6041,-6.7051,14.7292,26.9858,-28.5473,-9.2467,15.7691,25.7654,-26.7158
1578.1250,14.2905,-10.0790,-29.7225,22.2598,13.9436,-13.1459,-30.6523,7.7811,-9.9409,24.2003,-21.3951,-7.9848,15.9489,23.2357,-25.8241,-7.2278,16.0814,23.7052,-25.6239
1582.0312,13.6893,-11.1238,-26.1875,20.4617,10.7862,-13.2955,-25.3661,11.4140,-10.0891,24.4871,-19.4569,-9.7512,15.4868,18.5457,-22.8012,-6.8847,15.1694,20.5718,-24.1970
1585.9375,13.4700,-12.5877,-23.0151,18.5385,8.5460,-13.5920,-20.8018,14.0017,-10.0796,25.3106,-17.9446,-11.7444,14.2759,14.7622,-19.9725,-7.9149,14.0117,17.5056,-22.2835
1589.8438,14.1468,-14.4165,-20.0996,17.1735,9.0196,-14.2832,-17.3961,15.2435,-9.7828,25.9123,-16.6001,-13.6942,13.6017,13.1725,-17.3848,-9.3482,13.7573,15.4893,-19.6227
1593.7500,15.6757,-16.4557,-17.1244,16.3402,12.6753,-15.3901,-15.2282,14.9219,-9.3545,25.1859,-14.9919,-15.5037,14.2386,13.7962,-14.7610,-10.5250,15.0607,14.7002,-16.1427
1597.6562,17.3778,-18.6252,-14.0473,15.3293,18.2386,-16.8239,-14.0905,13.0603,-9.1337,22.3630,-12.8587,-17.3264,15.9385,15.4669,-11.8508,-11.7396,17.6593,14.4021,-12.2051
1601.5625,18.2903,-21.0157,-11.2696,13.3057,23.3299,-18.5486,-13.5021,10.1508,-9.3681,17.5734,-10.2989,-19.4797,17.6263,16.6116,-8.7179,-14.0423,20.4702,13.4565,-8.5708
1605.4688,17.7465,-23.8194,-9.3475,9.9708,25.7929,-20.6452,-12.7720,7.2175,-9.9958,11.8631,-7.6801,-22.2345,18.1581,16.1877,-5.7445,-18.3409,22.1580,11.0948,-6.0454
1609.3750,15.7968,-27.1323,-8.4861,5.8409,24.8970,-23.2166,-11.2218,5.5471,-10.6732,6.6089,-5.3627,-25.6022,17.1050,14.1803,-3.3642,-24.4771,21.8332,7.4132,-5.0025
1613.2812,13.1732,-30.7734,-8.2433,1.9492,21.6675,-26.2066,-8.5289,6.1461,-11.0418,2.7050,-3.4696,-29.2499,15.0226,11.4022,-1.7452,-30.9874,19.4719,3.2575,-5.1046
1617.1875,10.8055,-34.2652,-7.7283,-0.8005,18.1626,-29.2827,-4.9850,9.2125,-11.0317,0.0743,-1.8847,-32.6021,13.0379,8.8232,-0.6834,-35.7722,15.8431,-0.3965,-5.4415
1621.0938,9.2139,-37.0129,-6.2008,-2.1678,16.1860,-31.8945,-1.4454,13.9530,-10.9595,-2.1573,-0.4751,-35.0765,12.0642,6.9397,0.2075,-37.2526,12.0393,-3.1029,-5.0431
1625.0000,8.1886,-38.5771,-3.6491,-2.6449,16.2586,-33.4927,1.0779,18.8871,-11.3292,-4.9574,0.6544,-36.3217,12.1998,5.5993,1.1502,-35.2605,8.9320,-5.1746,-3.4646
1628.9062,6.9706,-38.8681,-0.9100,-3.0605,17.4612,-33.7744,1.9697,22.4837,-12.4703,-8.6698,1.0940,-36.3281,12.7086,4.3213,1.9712,-31.0967,6.8679,-7.3382,-1.0728
1632.8125,4.7953,-38.1445,0.8030,-4.0407,18.1713,-32.8025,1.3676,23.7819,-14.2720,-12.8041,0.3400,-35.3623,12.5625,2.7881,2.1740,-26.7617,5.7151,-10.1026,1.1634
1636.7188,1.4172,-36.8272,0.6765,-5.7099,17.1478,-30.9298,0.0839,22.6826,-16.2061,-16.4689,-1.8391,-33.7872,11.1345,1.0914,1.2916,-23.8834,5.1257,-13.3330,2.2621
1640.6250,-2.7358,-35.2598,-1.1367,-7.7965,14.2453,-28.5896,-0.8594,19.8255,-17.6231,-19.1006,-5.1239,-31.8853,8.5561,-0.4535,-0.7150,-22.9974,4.7716,-16.3544,1.8327
1644.5312,-6.8536,-33.5595,-3.5498,-9.9972,10.3473,-26.0878,-0.7819,16.2021,-18.1196,-20.9128,-8.6583,-29.7843,5.5206,-1.7510,-3.2886,-23.5268,4.3999,-18.5015,0.3152
1648.4375,-10.2402,-31.6242,-5.1655,-12.2772,6.6517,-23.5115,0.3570,12.7480,-17.7344,-22.7090,-11.3828,-27.4987,2.7187,-3.2337,-5.4767,-24.3279,3.7443,-19.6888,-1.2987
1652.3438,-12.6556,-29.2586,-5.1017,-14.8756,3.8581,-20.7798,2.0468,10.0645,-16.8668,-25.1945,-12.5167,-25.0286,0.3394,-5.7334,-6.4019,-24.3579,2.4616,-20.5530,-2.0869
1656.2500,-14.2903,-26.3218,-3.5048,-18.0402,1.8114,-17.7791,3.5621,8.2760,-16.0006,-28.3206,-11.9258,-22.4298,-2.0057,-9.9398,-5.7292,-23.0672,0.2309,-22.0391,-1.7684
1660.1562,-15.4535,-22.8271,-1.4557,-21.7321,-0.2068,-14.4943,4.2703,6.9644,-15.4330,-31.1917,-10.1754,-19.8165,-4.9066,-15.7981,-3.8542,-20.4149,-3.0215,-24.7178,-0.8696
1664.0625,-16.2678,-18.9763,-0.3570,-25.5517,-2.8125,-11.0804,3.7330,5.1924,-15.1703,-32.6465,-8.2423,-17.3142,-8.6318,-22.2795,-1.7001,-16.6808,-6.9542,-28.3304,-0.3922
1667.9688,-16.6300,-15.1470,-1.1925,-28.9489,-5.9986,-7.8604,1.6525,1.7216,-15.0184,-32.1074,-7.0375,-15.0184,-12.8520,-27.7380,-0.2441,-12.3116,-10.8868,-31.8950,-1.2016
1671.8750,-16.4609,-11.8380,-4.0814,-31.5410,-9.1341,-5.2604,-2.1356,-4.4971,-14.7611,-30.0669,-6.9912,-12.9887,-16.8077,-30.6824,-0.0437,-7.8824,-14.1278,-34.3045,-3.5223
1675.7812,-16.0118,-9.5521,-8.3246,-33.2755,-11.4677,-3.6934,-7.4915,-13.6749,-14.2943,-27.8172,-7.9084,-11.2685,-19.7858,-30.5151,-1.0279,-4.0724,-16.3508,-34.9912,-6.8386
1679.6875,-15.9310,-8.6144,-12.8360,-34.3022,-12.7431,-3.4117,-13.7169,-24.7240,-13.6462,-26.5843,-9.1587,-9.8916,-21.5497,-27.7911,-2.6520,-1.5206,-17.7414,-34.1920,-10.2286
1683.5938,-16.9742,-8.9847,-16.6579,-34.6581,-13.4575,-4.3699,-19.4951,-35.3716,-12.9156,-26.6659,-10.0864,-8.8590,-22.4235,-23.8493,-4.2981,-0.5649,-18.7826,-32.6461,-12.8895
1687.5000,-19.5260,-10.1795,-19.2858,-34.0392,-14.5521,-6.1705,-23.2490,-42.9801,-12.2044,-27.1982,-10.4106,-8.1084,-22.9982,-20.0471,-5.6671,-1.0396,-19.8252,-30.9742,-14.5165
1691.4062,-23.2792,-11.4028,-20.6964,-31.8836,-16.7397,-8.1511,-23.8495,-45.7499,-11.5978,-26.7366,-10.3907,-7.5199,-23.7102,-17.0605,-6.9256,-2.3289,-20.7819,-29.2105,-15.3281
1695.3125,-27.3328,-11.8678,-21.1643,-27.7556,-19.9427,-9.6064,-21.2901,-43.6449,-11.1832,-24.2638,-10.6653,-6.9744,-24.6181,-14.6485,-8.5358,-3.6997,-21.2237,-26.8343,-15.7815
1699.2188,-30.6836,-11.1536,-21.0368,-21.7711,-23.2613,-10.0512,-16.8596,-38.4387,-11.0620,-19.9263,-11.8618,-6.4273,-25.5306,-11.9756,-10.8960,-4.7071,-20.8587,-23.2645,-16.2176
1703.1250,-32.7998,-9.3839,-20.5943,-14.7346,-25.5267,-9.3872,-12.6024,-32.7676,-11.3226,-14.9841,-14.2058,-5.9292,-26.3463,-8.2504,-14.0342,-5.3725,-20.0460,-18.4320,-16.6839
1707.0312,-33.8872,-7.1062,-20.0213,-7.8342,-26.0839,-7.8839,-10.3078,-28.7083,-11.9877,-10.9951,-17.3638,-5.5594,-27.2920,-3.2721,-17.5494,-5.9800,-19.8952,-12.9867,-17.0190
1710.9375,-34.6589,-4.9425,-19.4351,-2.0544,-25.2715,-5.9969,-10.6090,-26.7432,-12.9790,-8.7846,-20.6086,-5.3099,-28.8166,2.4202,-20.8239,-6.6369,-21.7460,-7.9655,-17.0806
1714.8438,-35.7594,-3.2416,-18.9104,2.3153,-24.2437,-4.1489,-12.7435,-25.7653,-14.1364,-7.8926,-23.2000,-5.0175,-31.1790,7.8329,-23.3536,-6.9547,-26.2635,-4.1522,-16.9086
1718.7500,-37.2321,-1.9644,-18.4813,5.7328,-24.2182,-2.6094,-15.1337,-24.1110,-15.2862,-6.8747,-24.7485,-4.4283,-34.0316,12.0145,-24.9777,-6.1599,-32.7262,-1.5898,-16.6955
1722.6562,-38.4013,-0.8668,-18.1466,8.9649,-25.6215,-1.5207,-16.4276,-20.9238,-16.3208,-4.2616,-25.3531,-3.3805,-36.3577,14.4594,-25.8780,-3.6455,-39.0516,0.3977,-16.6118
1726.5625,-38.2559,0.1764,-17.9090,12.4478,-27.6976,-0.9963,-16.3539,-16.9166,-17.2419,0.4451,-25.4610,-1.9937,-36.8977,15.2269,-26.3891,0.3779,-42.6795,2.6830,-16.6613
1730.4688,-36.0892,0.9654,-17.8408,15.8937,-28.8642,-1.1686,-15.8582,-13.9952,-18.1434,6.3802,-25.5736,-0.7168,-34.8531,14.7944,-26.7846,4.6063,-41.8750,5.6827,-16.7118
1734.3750,-31.9771,1.0587,-18.1268,18.4365,-27.6263,-2.1210,-16.4461,-13.9764,-19.1407,11.7698,-25.9982,-0.1676,-30.4299,13.8047,-27.1917,7.0309,-36.6976,9.0353,-16.6895
1738.2812,-26.7862,0.0913,-19.0259,19.2354,-23.4988,-3.7577,-19.1470,-17.2564,-20.2798,14.9441,-26.7787,-0.8369,-24.8450,12.8664,-27.6616,5.8664,-29.0315,11.8339,-16.7728
1742.1875,-21.7163,-1.9094,-20.7385,18.1283,-17.3774,-5.7473,-23.7470,-22.3408,-21.4706,15.2798,-27.7927,-2.8284,-19.7457,12.4548,-28.2841,0.5348,-21.6241,13.2456,-17.3932
1746.0938,-17.6771,-4.4544,-23.2361,15.8716,-11.1299,-7.6296,-28.7696,-26.5800,-22.4840,13.5088,-28.8951,-5.7940,-16.3640,12.8540,-29.2106,-7.8638,-16.6741,13.0823,-18.9948
1750.0000,-14.8867,-6.8343,-26.1677,13.7722,-6.6522,-9.0483,-32.2389,-27.6642,-23.0326,11.2366,-29.9942,-9.0969,-14.9049,14.0781,-30.5441,-16.8973,-14.7794,11.9315,-21.6972
1753.9062,-12.9111,-8.5089,-28.9405,12.9384,-4.9324,-9.9509,-32.8017,-24.9328,-22.9131,9.9974,-31.0410,-12.0932,-14.5223,15.7997,-32.1966,-23.8207,-14.8175,10.7754,-25.1134
1757.8125,-11.0612,-9.3783,-30.9833,13.6438,-5.6325,-10.5986,-30.5702,-19.6835,-22.1419,10.4380,-31.9936,-14.3588,-13.8715,17.3990,-33.8634,-26.7602,-14.7618,10.3797,-28.4826
1761.7188,-8.8452,-9.7606,-32.0698,15.2289,-7.3619,-11.3579,-27.1937,-14.3164,-20.9910,12.1117,-32.8248,-15.7520,-11.8829,18.2169,-35.1754,-25.4680,-12.8901,10.8775,-31.0604
1765.6250,-6.1774,-10.1192,-32.4979,16.6041,-8.4233,-12.4154,-25.0744,-10.8779,-19.8712,13.9659,-33.5583,-16.3294,-8.2935,17.9461,-35.9263,-21.2923,-8.6690,11.8145,-32.5118
1769.5312,-3.2522,-10.7511,-32.9619,17.0034,-7.5868,-13.6218,-26.1083,-9.9075,-19.0974,15.1659,-34.2572,-16.2247,-3.6635,16.9280,-36.1817,-16.4164,-2.8641,12.5797,-33.0346
1773.4375,-0.2467,-11.6489,-34.1198,16.4757,-4.5167,-14.5858,-30.5964,-10.2495,-18.6730,15.6955,-34.9103,-15.5944,1.0580,16.0967,-36.1513,-12.7822,3.0658,12.8843,-33.1221
1777.3438,2.8758,-12.5950,-36.0753,15.7855,0.2678,-14.9527,-36.9191,-9.8633,-18.2541,16.3333,-35.2754,-14.6415,5.0873,16.4943,-35.8990,-11.2412,7.8226,12.9370,-33.1288
1781.2500,6.2908,-13.3700,-38.1068,15.8120,5.7500,-14.6613,-42.1900,-7.0810,-17.3578,18.0219,-34.8325,-13.6414,8.1307,18.5784,-35.1324,-11.3344,10.8442,13.2092,-32.9509
1785.1562,10.0344,-13.8917,-38.8883,16.8712,10.8374,-13.9931,-43.6015,-1.5659,-15.7116,21.0613,-32.9660,-12.8901,10.3317,21.7526,-33.2884,-11.7641,12.3415,13.9905,-32.0586
1789.0625,13.7680,-14.1973,-37.1633,18.4333,14.6697,-13.3847,-39.7959,5.5186,-13.5100,24.6928,-29.3340,-12.5774,11.9715,24.4897,-29.9151,-11.2720,12.9208,15.0837,-29.8689
1792.9688,16.8228,-14.3301,-32.5224,19.4201,16.7821,-13.1565,-31.5547,12.1207,-11.3696,27.3990,-24.1929,-12.6789,13.1955,25.0802,-25.1004,-9.4450,13.1468,15.8774,-26.2027
1796.8750,18.5502,-14.2765,-25.7986,18.8754,17.1833,-13.3658,-21.4368,16.2835,-9.9626,27.7712,-18.4130,-12.9767,13.9759,22.6267,-19.6049,-7.0270,13.3436,15.7523,-21.5028
1800.7812,18.7602,-14.0343,-18.7721,16.5622,16.3804,-13.8846,-12.5543,16.9866,-9.5510,25.4006,-13.0939,-13.2301,14.3046,17.6876,-14.5388,-5.5798,13.6823,14.5286,-16.6457
1804.6875,17.9313,-13.7529,-13.2809,13.1172,15.3041,-14.6114,-7.1271,14.5093,-9.7490,21.2010,-8.9780,-13.3918,14.4183,12.1331,-10.7469,-6.6835,14.3653,12.6335,-12.4593
1808.5938,17.0097,-13.7875,-10.2279,9.6990,15.0565,-15.6178,-5.5654,10.2657,-9.7160,16.9271,-6.0411,-13.7030,14.8280,8.2328,-8.3077,-11.0964,15.6671,10.8671,-9.2615
1812.5000,16.8976,-14.5570,-9.0860,7.3884,16.4900,-17.0813,-6.5064,6.2737,-8.6889,14.1740,-3.5583,-14.5698,16.0789,7.4710,-6.5028,-18.3030,17.7541,9.9240,-6.7201
1816.4062,17.9563,-16.2557,-8.2277,6.7097,19.7763,-19.0435,-7.6918,4.4866,-6.4958,13.4976,-0.6284,-16.2726,18.3826,9.7708,-4.3016,-26.6518,20.4302,9.9959,-4.1252
1820.3125,19.8527,-18.6143,-5.8997,7.5106,24.2116,-21.1927,-7.1359,6.1833,-3.6781,14.2156,3.1942,-18.6941,21.3840,13.5731,-1.0371,-33.9733,23.0615,10.7089,-0.8897
1824.2188,21.8431,-20.9105,-1.2579,9.1771,28.4359,-22.8786,-3.9551,11.5668,-1.1043,14.9931,7.5988,-21.2561,24.2584,16.7061,3.1867,-38.3464,24.8226,11.4112,3.0460
1828.1250,23.2844,-22.2737,5.1640,10.9755,31.0215,-23.4055,1.4773,19.6793,0.6653,14.7900,11.7580,-23.1326,26.1104,17.5170,7.6243,-38.6746,25.1610,11.5869,7.1576
1832.0312,24.0047,-22.1207,11.8075,12.3032,31.1484,-22.4317,7.9539,28.6882,1.7981,13.5136,14.9211,-23.6285,26.4353,15.6130,11.4272,-34.9027,24.1722,11.1025,10.6434
1835.9375,24.2754,-20.4545,16.9971,12.7684,28.9906,-20.2059,14.0526,36.4886,3.0544,11.9448,16.9060,-22.5146,25.3424,11.8372,14.1742,-27.9254,22.5868,10.1376,12.8770
1839.8438,24.4230,-17.8410,19.8041,12.1620,25.5806,-17.4626,18.5951,41.4199,5.1524,11.0274,18.1169,-20.1361,23.3892,7.5854,15.9999,-19.3346,21.3075,8.8893,13.7087
1843.7500,24.3896,-15.0844,20.3472,10.4286,22.2137,-15.0281,20.8332,42.8070,8.0752,11.0510,19.0761,-17.2509,21.1381,3.9489,17.2547,-11.1048,20.7505,7.3026,13.4411
1847.6562,23.6008,-12.8164,19.4315,7.6777,19.7391,-13.3825,20.4853,41.0809,10.8482,11.3216,19.8522,-14.6965,18.7446,1.2077,18.0083,-5.1957,20.4311,5.0493,12.5332
1851.5625,21.2760,-11.2433,17.8741,4.1878,18.1524,-12.4471,17.7858,37.4217,12.0175,10.5454,19.8668,-13.0527,15.8758,-1.0866,17.8406,-3.0288,19.1233,1.7795,11.2705
1855.4688,16.9959,-10.1704,16.0316,0.3379,16.7249,-11.7071,13.5533,33.1084,10.5682,7.6501,18.2887,-12.4370,12.0387,-3.5946,16.1444,-4.9202,15.5832,-2.5404,9.6428
1859.3750,11.1364,-9.2254,13.8278,-3.5359,14.5681,-10.5586,9.1197,28.9112,6.6827,2.4751,14.7676,-12.4910,7.1010,-6.6445,12.7473,-9.7386,9.4361,-7.4666,7.5114
1863.2812,4.8503,-8.0964,11.1661,-7.2719,11.2673,-8.6440,5.9661,24.8292,1.8082,-4.1139,9.9611,-12.5380,1.6291,-10.0170,8.3704,-15.1124,1.6726,-12.2296,4.9247
1867.1875,-0.4301,-6.6395,8.3250,-10.8993,7.1820,-5.9871,5.1213,20.2797,-2.0620,-10.7071,5.4111,-11.8524,-3.2380,-13.1489,4.5059,-18.2996,-5.6221,-16.1135,2.3215
1871.0938,-3.6828,-4.8460,5.9740,-14.5079,3.2327,-2.9072,6.6251,14.6016,-3.4667,-16.0566,2.7655,-9.9605,-6.3601,-15.5525,2.6915,-17.4259,-10.2297,-18.8054,0.4291
1875.0000,-4.7735,-2.7755,4.7774,-18.0517,0.3279,0.1638,9.4198,7.5756,-2.2480,-19.5359,2.8174,-6.8719,-7.2737,-17.1287,3.6031,-12.4631,-10.9441,-20.4737,-0.1216
1878.9062,-4.4533,-0.5534,4.8955,-21.2289,-1.1943,2.8144,11.8203,-0.3206,0.4525,-21.1345,4.9934,-3.1356,-6.5320,-18.1606,6.5642,-5.3269,-8.2427,-21.5239,0.7751
1882.8125,-3.9123,1.5675,5.7867,-23.5356,-1.7559,4.6910,12.3473,-8.0491,2.9383,-21.1321,7.6472,0.3417,-5.4526,-19.0165,9.8317,1.0805,-4.0784,-22.2117,2.5268
1886.7188,-4.1742,3.1880,6.4879,-24.4740,-2.2570,5.5091,10.4580,-14.4556,3.9501,-19.7944,8.9854,2.6772,-5.3964,-19.7900,11.5179,4.4228,-0.8958,-22.3982,4.0825
1890.6250,-5.6712,3.8870,6.1878,-23.7933,-3.5249,5.1332,6.7539,-18.7850,3.2879,-17.3320,8.0404,3.4277,-7.0185,-20.1373,10.5950,4.1900,-0.4323,-21.6345,4.4706
1894.5312,-8.1883,3.4757,4.6880,-21.6143,-5.8507,3.7246,2.5710,-21.0031,1.7340,-14.0771,5.0917,2.8164,-9.9643,-19.4279,7.3685,1.8946,-2.9767,-19.5249,3.3165
1898.4375,-11.1286,2.2244,2.4372,-18.3682,-8.8898,1.8381,-0.7679,-21.7626,0.4104,-10.6221,1.3163,1.6194,-13.1989,-17.1158,3.1563,0.0606,-7.4651,-16.1105,1.0152
1902.3438,-13.8918,0.8649,0.1462,-14.5869,-11.9425,0.3178,-2.5862,-22.0292,0.0434,-7.6953,-2.0396,0.7528,-15.7357,-13.0972,-0.5848,0.6241,-12.2756,-11.9819,-1.5460
1906.2500,-16.1474,0.2929,-1.7065,-10.6683,-14.3878,-0.0424,-3.0442,-22.5567,0.5992,-5.7926,-4.3947,0.7912,-17.2669,-7.8336,-3.1034,3.7548,-16.1792,-8.0138,-3.5291
1910.1562,-17.8949,1.0975,-3.1162,-6.7436,-15.9771,1.0817,-2.8737,-23.4898,1.4524,-4.8260,-6.0102,1.7084,-18.2731,-2.1673,-4.6460,7.8421,-18.8655,-4.8749,-4.5952
1914.0625,-19.3469,3.1990,-4.4024,-2.7128,-16.8357,3.3106,-2.9040,-24.3195,1.8802,-4.0828,-7.5722,2.9950,-19.5629,3.0594,-6.0687,10.6275,-20.7984,-2.6408,-4.9864
1917.9688,-20.7452,5.8385,-5.8456,1.5780,-17.2466,5.7051,-3.6850,-24.2360,1.4984,-2.5839,-9.5414,4.0628,-21.5972,7.3554,-8.0910,10.7083,-22.6153,-0.7840,-5.2262
1921.8750,-22.2210,7.9588,-7.4403,6.1158,-17.4367,7.2508,-5.3687,-22.7002,0.3645,0.3564,-11.7655,4.6483,-24.1004,10.7060,-10.7345,8.4043,-24.5624,1.4332,-5.6965
1925.7812,-23.7525,8.7599,-8.9726,10.5844,-17.5348,7.4035,-7.8091,-19.9071,-1.2499,4.7146,-13.6161,4.9383,-26.2448,13.4163,-13.3235,5.4285,-26.3629,4.4126,-6.4135
1929.6875,-25.2090,8.0960,-10.3362,14.4023,-17.6901,6.3558,-10.7354,-16.8510,-3.1728,9.7362,-14.5188,5.3402,-27.2611,15.7892,-15.0179,3.6314,-27.5533,7.8877,-7.1538
1933.5938,-26.4287,6.4762,-11.7857,16.9432,-18.1787,4.8476,-13.8788,-14.9132,-5.4635,14.2981,-14.4592,6.0854,-27.0083,17.8498,-15.4754,3.7155,-27.9536,11.0375,-7.7914
1937.5000,-27.2721,4.6893,-13.8595,17.8374,-19.3234,3.6486,-17.0252,-15.1800,-8.2677,17.4223,-14.0796,6.9712,-26.0623,19.2931,-15.1569,4.8185,-27.8582,12.9827,-8.5397
1941.4062,-27.6129,3.3094,-16.9796,17.1871,-21.2227,3.0624,-20.0230,-17.8739,-11.5337,18.6572,-14.2875,7.4460,-25.2450,19.6847,-15.0518,5.2278,-27.7690,13.3422,-9.8701
1945.3125,-27.2810,2.4005,-21.0204,15.5537,-23.4857,2.7847,-22.7700,-22.2242,-14.8456,18.1770,-15.6551,6.9757,-24.9484,18.7855,-16.0115,3.6870,-27.8830,12.4783,-12.1515
1949.2188,-26.0207,1.5853,-25.2127,13.6969,-25.2302,2.1980,-25.1789,-26.8474,-17.5402,16.6277,-18.0422,5.4178,-24.7789,16.7891,-18.1670,0.3393,-27.7649,11.2703,-15.3058
1953.1250,-23.5453,0.3875,-28.5220,12.2109,-25.4427,0.8744,-27.1297,-30.3936,-19.0624,14.8536,-20.7177,3.1186,-23.8183,14.3220,-20.8517,-3.3708,-26.5187,10.5737,-18.7843
1957.0312,-19.7188,-1.4120,-30.2859,11.2893,-23.5284,-1.0905,-28.4554,-32.0715,-19.3234,13.6235,-22.8965,0.6640,-21.3269,12.2065,-23.0994,-5.7555,-23.3945,10.7349,-21.9249
1960.9375,-14.7917,-3.6443,-30.6643,10.7858,-19.6945,-3.1570,-29.0155,-31.7693,-18.8037,13.4119,-24.3056,-1.5200,-17.3617,11.1340,-24.3740,-6.1191,-18.4059,11.4890,-24.4257
1964.8438,-9.5186,-5.9001,-30.5548,10.5303,-14.8764,-4.7701,-28.8444,-29.7809,-18.2994,14.2611,-25.3660,-3.4033,-12.8177,11.4338,-25.0040,-5.2582,-12.4822,12.2937,-26.5422
1968.7500,-4.9996,-7.8023,-30.9841,10.6587,-10.2114,-5.8026,-28.2616,-26.4126,-18.4487,15.7696,-26.8413,-5.2391,-8.8233,13.0402,-25.9811,-4.8439,-6.9852,12.8424,-28.8047
1972.6562,-2.2214,-9.1862,-32.3685,11.6641,-6.3879,-6.6561,-27.7966,-21.7934,-19.3298,17.2581,-29.1917,-7.2026,-5.9230,15.6142,-28.2252,-6.1261,-2.8867,13.3644,-31.4370
1976.5625,-1.4987,-10.0724,-34.1589,14.0626,-3.3088,-7.9166,-27.8900,-16.0184,-20.3921,18.0974,-32.1002,-9.0909,-3.6720,18.6884,-31.8056,-8.9099,-0.1752,14.4723,-33.9419
1980.4688,-2.1505,-10.5099,-35.1437,17.8642,-0.3086,-9.8040,-28.5288,-9.4650,-20.7807,18.0600,-34.5399,-10.3675,-0.9928,21.7307,-35.6789,-11.5887,2.0646,16.6407,-35.2486
1984.3750,-2.6828,-10.4725,-34.2395,22.2444,3.2230,-11.8419,-29.1040,-2.9606,-19.8677,17.4809,-35.3810,-10.5718,2.9201,24.1436,-38.1741,-12.2675,4.9208,19.6834,-34.4139
1988.2812,-1.4771,-9.9330,-31.2542,25.7361,7.2604,-13.0440,-28.6877,2.4246,-17.6700,17.0769,-34.1448,-9.8062,7.8052,25.3078,-37.9537,-10.2166,8.7660,22.6272,-31.4148
1992.1875,2.3467,-9.0643,-27.1013,26.9237,11.0373,-12.5534,-26.6375,5.8950,-14.8973,17.4832,-31.3753,-8.9041,12.2750,24.7654,-34.8364,-6.6133,12.8489,24.1261,-27.4177
1996.0938,8.3825,-8.3664,-23.2999,25.2468,13.5253,-10.3219,-23.1426,7.4269,-12.5972,18.7786,-28.3385,-9.0734,14.6205,22.5004,-29.9359,-3.9860,15.6951,23.1963,-24.2258
2000.0000,15.0562,-8.5390,-21.0605,21.3836,14.1773,-7.3424,-19.2731,7.8783,-11.6050,20.3272,-26.2125,-11.1799,13.9753,19.1294,-25.0096,-4.6622,16.0887,19.8189,-23.1796
2003.9062,20.3826,-10.1037,-20.5380,16.9229,13.4129,-5.2127,-16.3879,8.5751,-12.1167,21.0889,-25.2990,-15.1263,11.0398,15.7951,-21.4300,-9.2284,13.9870,15.0235,-24.2216
2007.8125,22.9547,-13.0011,-20.7251,13.4968,12.4788,-5.2545,-15.2186,10.5913,-13.6153,20.2450,-24.7957,-19.7655,7.8236,13.7149,-19.4351,-16.0413,10.7375,10.3922,-25.7911
2011.7188,22.6164,-16.4649,-20.0487,11.9223,12.7500,-7.7272,-15.2457,14.1563,-15.1583,17.7580,-23.2995,-23.4625,6.5304,13.5804,-18.1134,-22.1505,8.4177,7.2845,-25.6813
2015.6250,20.4687,-19.3247,-17.2865,11.9003,14.9275,-11.6426,-14.8632,18.5592,-15.8270,14.4969,-19.7145,-24.9874,8.2978,15.1640,-16.0880,-25.0572,8.6985,6.2470,-22.3438
2019.5312,18.2529,-20.6061,-12.2325,12.4372,18.6666,-15.3188,-12.3194,22.6040,-15.0716,11.8256,-13.9529,-24.1899,12.6137,17.4101,-12.4095,-24.1754,11.9456,6.9313,-15.8012
2023.4375,17.4941,-20.0722,-5.7318,12.6537,22.8720,-17.3392,-6.8706,25.3225,-12.8015,10.8838,-6.9666,-22.0278,17.7715,19.0065,-7.0775,-21.0614,17.1051,8.4961,-7.5889
2027.3438,18.8670,-18.3583,0.8768,12.3860,26.4323,-17.3258,0.6133,26.5006,-9.2537,11.9816,-0.1130,-19.9386,22.0183,19.1100,-0.9099,-18.2913,22.3995,10.1752,0.2039
2031.2500,22.0484,-16.5981,6.5017,12.1609,28.8710,-16.0597,8.0245,26.7073,-4.8084,14.4494,5.6723,-18.9566,24.6012,17.7797,5.0523,-17.7487,26.3461,11.6263,6.1273
2035.1562,26.0128,-15.7650,10.7406,12.6032,30.4661,-14.9026,13.1627,26.8428,0.0999,16.9992,10.3056,-19.1348,26.0219,15.8417,10.1282,-19.4466,28.4429,12.8797,10.0131
2039.0625,29.5169,-16.1337,13.7924,13.7548,31.7893,-14.9098,14.9240,27.5180,4.9589,18.3639,14.3028,-19.6148,27.3912,14.2793,14.1695,-21.6217,29.1469,14.0091,12.7047
2042.9688,31.5132,-17.1823,15.9965,14.8481,33.0410,-16.2009,13.7885,28.6609,9.1531,17.8473,18.0809,-19.2602,29.4060,13.5535,17.2869,-21.9862,29.2663,14.8357,15.1670
2046.8750,31.3746,-17.9661,17.4038,14.7219,33.7023,-17.9591,11.3501,29.5808,12.0621,15.5154,21.3833,-17.4166,31.7033,13.3045,19.4426,-19.2782,29.2595,14.9132,17.6732
2050.7812,28.9545,-17.6996,17.7243,12.5911,32.7931,-19.0135,9.2736,29.4295,13.2909,11.9922,23.3092,-14.3095,33.0399,12.6197,20.2986,-14.1036,28.9263,13.8029,19.6495
2054.6875,24.5578,-16.1774,16.6818,8.6093,29.5712,-18.5962,8.4037,27.7641,12.8956,8.0336,22.9624,-10.8593,32.1367,10.6670,19.4669,-8.5654,27.6438,11.4117,20.2340
2058.5938,18.8527,-13.8038,14.4774,3.8199,24.1786,-16.7844,8.5644,24.8721,11.4175,4.1380,20.2480,-8.0816,28.5640,7.2539,16.9557,-4.9806,24.9020,8.1160,19.0677
2062.5000,12.7067,-11.2692,11.9522,-0.4677,17.7558,-14.3786,9.0457,21.6681,9.6474,0.3834,16.2000,-6.4902,23.0485,2.9392,13.4213,-4.5284,20.7204,4.5638,16.6898
2066.4062,6.9498,-9.1283,10.2516,-3.4400,11.9160,-12.3467,9.2923,19.2196,8.2317,-3.4714,12.5342,-5.8773,17.0259,-1.3512,9.9724,-6.6518,15.6701,1.2913,14.2339
2070.3125,2.1346,-7.5531,10.1581,-5.1647,7.9083,-11.2281,9.2407,18.1573,7.3607,-7.7210,10.6781,-5.5618,11.7968,-4.9132,7.6092,-9.4899,10.5498,-1.5671,12.6667
2074.2188,-1.5930,-6.3773,11.5354,-6.3835,6.0152,-10.8843,9.1117,18.2843,6.7420,-12.4551,10.9148,-4.8903,7.8863,-7.6451,6.6705,-10.9774,5.9953,-4.2705,12.1488
2078.1250,-4.4457,-5.3427,13.2977,-7.9109,5.5575,-10.7184,8.9417,18.5994,5.8664,-17.4506,12.2221,-3.6389,5.0006,-9.9776,6.6690,-9.9018,2.2915,-7.1870,11.9973
2082.0312,-6.8086,-4.3418,13.9845,-10.0857,5.4558,-10.1675,8.3456,17.7427,4.3781,-22.2631,12.9191,-2.0783,2.5074,-12.4412,6.6295,-6.3571,-0.5580,-10.4570,11.2678
2085.9375,-9.0380,-3.4941,12.6185,-12.6224,4.9317,-9.1067,6.7783,14.6631,2.2942,-26.4492,11.6900,-0.7165,0.0032,-15.1994,5.6977,-1.4823,-2.6636,-13.8539,9.5132
2089.8438,-11.3545,-3.0305,9.3094,-14.8878,3.8728,-7.8921,4.1043,9.1860,-0.0558,-29.7700,8.3223,0.0592,-2.4680,-17.8724,3.6191,3.2024,-4.1771,-16.9281,7.1536
2093.7500,-13.8438,-3.0949,5.2105,-16.3324,2.6638,-7.0420,0.9715,2.1857,-2.2871,-32.2372,3.7187,0.1920,-4.6449,-19.7421,0.8002,6.4219,-5.3586,-19.2959,5.1882
2097.6562,-16.4932,-3.6084,1.8369,-16.7508,1.6907,-6.8086,-1.4123,-4.7568,-4.1966,-33.9633,-0.7534,-0.0887,-6.4524,-20.1576,-2.0335,7.4678,-6.6433,-20.8329,4.4654
2101.5625,-19.1909,-4.2832,0.1623,-16.2435,0.9383,-6.9616,-2.0451,-10.0782,-5.8037,-34.9205,-4.0929,-0.4821,-8.1799,-18.8514,-4.3133,6.2280,-8.5387,-21.6232,5.0424
2105.4688,-21.7021,-4.7711,0.0459,-15.0039,-0.0062,-6.9438,-0.9263,-13.0009,-7.1993,-34.8013,-6.1353,-0.8188,-10.2632,-15.9821,-5.9176,3.0903,-11.3415,-21.7310,6.0863
2109.3750,-23.7107,-4.8551,0.3282,-13.1681,-1.5838,-6.2880,0.7251,-13.9494,-8.3701,-33.1278,-7.4366,-1.1177,-12.8654,-11.9515,-7.1347,-1.1596,-14.8718,-21.0208,6.3697
2113.2812,-24.9881,-4.5743,-0.4839,-10.8564,-3.8675,-4.9893,1.0690,-14.3727,-9.1788,-29.5889,-8.7568,-1.4923,-15.6539,-7.1976,-8.3888,-5.4644,-18.4820,-19.2184,4.9996
2117.1875,-25.6237,-4.2161,-3.3762,-8.3263,-6.4997,-3.5554,-1.2775,-16.0197,-9.5329,-24.3996,-10.5612,-2.0147,-18.0236,-2.1402,-9.9573,-8.7275,-21.4165,-16.2068,1.8802
2121.0938,-26.1358,-4.1713,-8.3220,-6.0342,-9.0410,-2.6790,-6.3730,-20.0040,-9.5906,-18.4154,-12.8566,-2.6482,-19.6382,2.7245,-11.8552,-10.1514,-23.3118,-12.3297,-2.3681
2125.0000,-27.3029,-4.7187,-14.3620,-4.4735,-11.4497,-2.7499,-12.8666,-26.1290,-9.7980,-12.8629,-15.3784,-3.2843,-20.8533,6.7416,-13.9117,-9.5349,-24.4626,-8.4271,-6.9089
2128.9062,-29.7366,-5.8459,-20.1504,-3.8595,-14.2646,-3.5481,-18.7424,-32.8378,-10.6781,-8.8022,-17.8953,-3.8306,-22.6248,9.2054,-15.9319,-7.3351,-25.6152,-5.4982,-11.2113
2132.8125,-33.4344,-7.2117,-24.5967,-3.8958,-18.2643,-4.3462,-22.3911,-37.8493,-12.5027,-6.6302,-20.3674,-4.2706,-25.8785,9.6717,-17.8145,-4.4177,-27.3963,-4.1660,-15.2292
2136.7188,-37.6262,-8.2966,-27.2486,-3.8376,-23.7882,-4.3718,-23.3298,-39.2013,-15.0998,-5.9346,-22.8747,-4.6597,-30.7570,8.2870,-19.5726,-1.6347,-29.7954,-4.2964,-19.1702
2140.6250,-41.0682,-8.6834,-28.2818,-2.8712,-30.2103,-3.3261,-22.1819,-36.2053,-17.9636,-5.7863,-25.4404,-5.0831,-36.3114,5.8738,-21.2846,0.5023,-32.1187,-5.0534,-23.1051
2144.5312,-42.6417,-8.3185,-28.2265,-0.5941,-36.0110,-1.6088,-20.0661,-29.8496,-20.6026,-5.2761,-27.9360,-5.6238,-40.9225,3.6389,-23.0352,1.8631,-33.4891,-5.3862,-26.7634
2148.4375,-41.8956,-7.5871,-27.6684,2.7101,-39.4883,-0.0943,-17.9179,-22.4447,-22.8626,-3.9586,-30.1475,-6.3522,-43.2137,2.6225,-24.8745,2.4899,-33.5311,-4.6440,-29.6813
2152.3438,-39.2053,-7.1283,-27.0939,6.1914,-39.6830,0.3840,-16.2203,-16.6622,-24.9623,-1.9595,-31.9197,-7.3123,-42.8336,3.2029,-26.7900,2.3726,-32.6891,-2.9153,-31.5656
2156.2500,-35.4860,-7.4797,-26.8783,8.8867,-36.9014,-0.5079,-15.2216,-14.4116,-27.2036,0.2430,-33.2310,-8.4756,-40.5520,4.9628,-28.6890,1.4304,-31.8685,-0.8724,-32.5557
2160.1562,-31.6980,-8.7686,-27.3048,10.2293,-32.4687,-2.5091,-15.3045,-16.0720,-29.5859,2.1421,-34.1384,-9.6858,-37.6002,7.0000,-30.4127,-0.2909,-31.6103,0.7533,-33.1521
2164.0625,-28.4846,-10.6592,-28.5254,10.3087,-27.8768,-5.0617,-17.0665,-20.4263,-31.6583,3.3986,-34.6799,-10.6675,-34.7396,8.4872,-31.8131,-2.4297,-31.4224,1.6859,-33.8552
2167.9688,-26.1186,-12.6035,-30.4846,9.7371,-23.9148,-7.7479,-20.9611,-25.3034,-32.7788,3.8512,-34.8713,-11.1562,-31.7605,9.1305,-32.8760,-4.3919,-29.8522,2.2421,-34.8092
2171.8750,-24.6525,-14.2324,-32.9106,9.2274,-20.3800,-10.5169,-26.7706,-28.5955,-32.6225,3.4716,-34.8433,-11.1134,-27.7951,9.2566,-33.8104,-5.7434,-25.3824,3.0046,-35.7537
2175.7812,-24.0123,-15.6079,-35.4443,9.1623,-16.5386,-13.5260,-33.3923,-29.1388,-31.5518,2.4286,-34.9926,-10.8830,-22.2179,9.5126,-35.0023,-6.6352,-17.6066,4.2891,-36.3446
2179.6875,-23.8819,-17.1392,-37.8487,9.4222,-11.9523,-16.7357,-39.2211,-27.0406,-30.5105,1.2557,-35.9428,-11.1275,-15.4393,10.4118,-36.7981,-7.8545,-7.8520,5.8152,-36.5897
2183.5938,-23.4971,-19.2056,-40.1382,9.5686,-7.0198,-19.6139,-42.9471,-23.3399,-30.4372,0.9244,-38.2173,-12.4961,-8.9378,12.0345,-39.2121,-10.3161,1.2746,6.8503,-37.0122
2187.5000,-21.6526,-21.7473,-42.4911,9.2432,-2.7973,-21.2438,-44.2273,-19.2564,-31.5655,2.5938,-41.7675,-15.1763,-4.4266,14.0589,-41.7425,-14.2504,7.2337,6.7440,-38.3310
2191.4062,-17.1321,-24.1376,-44.9666,8.5105,-0.2214,-20.8314,-43.7305,-15.4876,-33.1150,7.0267,-45.6837,-18.6159,-2.7026,16.0527,-43.4584,-18.6796,8.9764,5.4767,-40.8252
2195.3125,-9.4278,-25.4620,-47.2236,7.9020,0.6741,-18.2818,-42.5027,-11.9541,-33.6530,13.9829,-48.3771,-21.6564,-3.0091,17.7806,-43.3668,-21.6933,7.5269,3.8131,-43.8419
2199.2188,0.7006,-25.0485,-48.4853,8.1142,0.9201,-14.4177,-41.1116,-8.0912,-31.9515,22.0429,-48.2490,-23.0836,-3.4237,19.2956,-40.8892,-21.5227,5.3330,2.9135,-45.8830
2203.1250,11.2922,-22.9035,-47.8491,9.5390,1.9719,-10.6369,-39.2220,-3.4393,-27.8037,29.1182,-44.5190,-22.3175,-2.0694,20.7588,-36.1846,-17.8057,4.7884,3.6351,-45.3382
2207.0312,19.9837,-19.7597,-44.7920,11.9246,4.6878,-8.1914,-35.9428,1.8860,-22.2493,33.4521,-37.7243,-19.8265,1.6526,22.1436,-30.1257,-12.1766,6.8612,5.9753,-41.4596
2210.9375,25.1393,-16.7029,-39.5505,14.4057,8.6576,-7.5529,-30.6986,7.1542,-17.0320,34.5242,-29.5500,-16.9766,6.6577,23.0683,-23.9294,-7.6602,10.6691,9.0281,-34.9429
2214.8438,26.6349,-14.6197,-33.0963,15.9143,12.3930,-8.2790,-23.9567,11.4119,-13.6132,33.2627,-22.0381,-15.3560,10.8957,22.9116,-18.6377,-7.1020,14.2076,11.4861,-27.6759
2218.7500,25.7925,-13.8162,-26.6805,15.7456,14.2866,-9.4517,-17.2088,14.0167,-12.3640,31.3848,-16.6043,-15.9460,12.7179,21.1645,-14.7151,-11.5444,15.6969,12.3661,-21.7404
2222.6562,24.5021,-14.0190,-21.2104,13.9389,13.6987,-10.3632,-12.1499,14.9535,-12.4397,30.2748,-13.4156,-18.6173,11.9684,17.7979,-11.9509,-19.5577,14.6671,11.5060,-18.2592
2226.5625,24.0946,-14.6985,-16.8471,11.2405,11.4278,-10.9618,-9.6057,14.7529,-12.3907,30.1386,-11.4671,-22.2430,10.0693,13.4071,-9.6769,-27.9711,12.1430,9.5456,-16.8127
2230.4688,24.6862,-15.4560,-13.0752,8.6689,9.2450,-11.7636,-8.9805,14.1272,-11.0893,29.9997,-9.2785,-25.3492,9.0579,9.0229,-7.1513,-33.5712,9.9128,7.4538,-15.8007
2234.3750,25.3755,-16.2120,-9.1839,6.9489,8.8121,-13.3336,-8.6485,13.6086,-8.3708,28.5186,-5.7776,-26.9099,10.2437,5.6821,-3.9081,-34.7379,9.4303,5.9395,-13.5170
2238.2812,25.0856,-17.1188,-4.8307,6.1530,10.7065,-15.7514,-7.0395,13.4207,-5.0092,25.0421,-0.8645,-26.8279,13.3848,3.9803,0.0741,-32.0647,11.0538,5.1197,-9.2485
2242.1875,23.4249,-18.3267,-0.3158,5.7427,14.1664,-18.4685,-3.6670,13.5862,-2.1139,20.1294,4.6194,-25.8635,16.8992,3.8272,4.4136,-27.6979,14.0100,4.6031,-3.7057
2246.0938,20.9664,-19.8128,3.5935,4.9380,17.6511,-20.6570,0.6095,14.0865,-0.4007,15.1808,9.4218,-25.1104,18.9119,4.5026,8.5094,-23.9388,16.9766,3.8557,1.4513
2250.0000,18.7862,-21.3887,6.1387,3.1533,19.7674,-21.7742,4.2465,14.8932,0.1675,11.4442,12.5409,-25.3653,18.4000,4.9612,11.7611,-22.0406,18.8235,2.5550,4.6397
2253.9062,17.6355,-22.8343,7.0111,0.2380,19.9303,-21.9092,6.1007,15.8707,0.1787,9.1219,13.6364,-26.7472,15.6949,4.2353,13.7422,-21.8770,19.0672,0.7013,5.2500
2257.8125,17.3593,-24.0084,6.4810,-3.5608,18.3960,-21.6532,6.1620,16.7241,0.2271,7.2270,13.0214,-28.7198,12.0937,1.7824,14.2892,-22.4914,17.8684,-1.5222,3.8706
2261.7188,16.9794,-24.8322,5.1794,-7.7951,15.7942,-21.5987,5.4460,17.1539,0.4657,4.3039,11.3526,-30.4202,8.9473,-2.3281,13.5139,-22.9600,15.7247,-3.9641,1.7867
2265.6250,15.3775,-25.1783,3.7348,-11.9860,12.6150,-21.8524,5.1872,17.1611,0.5838,-0.4928,9.2860,-31.0535,6.8932,-7.4336,11.7671,-22.9064,13.1434,-6.5886,0.1725
2269.5312,12.0961,-24.8004,2.5315,-15.6789,9.0488,-21.9272,5.9601,17.2162,0.1896,-6.7200,7.3151,-30.1477,5.7084,-12.4962,9.5738,-22.3967,10.4894,-9.3732,-0.4637
2273.4375,7.6986,-23.4101,1.7107,-18.4607,5.2177,-21.0940,7.3567,18.0083,-0.7374,-12.8478,5.8104,-27.6112,4.7604,-16.4721,7.5447,-21.4710,8.0080,-12.1498,-0.2820
2277.3438,3.4406,-20.8811,1.3215,-20.0679,1.4922,-18.9264,8.3988,19.7921,-1.7080,-17.2121,5.1077,-23.6655,3.6110,-18.7265,6.2554,-19.8231,5.8909,-14.5815,0.3069
2281.2500,0.4677,-17.4324,1.4218,-20.6054,-1.4769,-15.6411,8.3154,21.7598,-2.0396,-19.0806,5.4684,-18.7594,2.2887,-19.3325,6.0900,-16.9493,4.2701,-16.3568,1.0682
2285.1562,-0.9318,-13.6372,2.0108,-20.7076,-3.1084,-11.9951,7.0917,22.0217,-1.4033,-19.1301,6.8763,-13.5094,1.0733,-19.0910,7.0800,-12.6504,3.1345,-17.4801,2.0411
2289.0625,-1.5312,-10.2187,2.8666,-21.4071,-3.3635,-8.8298,5.4249,18.4780,-0.1862,-19.0375,8.8228,-8.6330,0.0499,-19.1987,8.8105,-7.4450,2.2586,-18.4163,3.2912
2292.9688,-2.6881,-7.7481,3.4909,-23.6300,-2.9250,-6.5953,4.1950,10.2221,0.6401,-20.4650,10.3104,-4.8211,-1.1311,-20.6638,10.4810,-2.5073,1.2386,-19.9115,4.6084
2296.8750,-5.4790,-6.4270,3.3063,-27.5431,-2.8628,-5.1798,3.8942,-1.4056,0.1033,-24.0834,10.1961,-2.5500,-3.0425,-23.7348,11.1607,0.8929,-0.3522,-22.5378,5.4809
2300.7812,-9.9838,-6.0708,2.0384,-32.1874,-3.9590,-4.1230,4.4237,-12.9681,-2.1057,-29.2101,7.7615,-1.9059,-5.9612,-27.6509,10.1783,2.0820,-2.7633,-26.2334,5.4266
2304.6875,-15.1622,-6.2669,0.0215,-35.7454,-6.1564,-3.0147,5.3228,-20.4639,-5.3426,-34.2179,3.1947,-2.5226,-9.4634,-30.8943,7.4748,1.3377,-5.9309,-30.1579,4.4376
2308.5938,-19.4110,-6.5760,-1.8439,-36.4052,-8.5474,-1.7687,6.1603,-21.4885,-8.3046,-37.4049,-2.3421,-3.6872,-12.5024,-31.8586,3.7146,-0.3176,-9.4728,-33.0065,3.1543
2312.5000,-21.4727,-6.6526,-2.5382,-33.3516,-9.9549,-0.5929,6.7434,-16.7255,-9.7400,-37.7945,-7.1745,-4.5859,-13.9881,-29.6140,0.0406,-1.7155,-12.8117,-33.6344,2.5596
2316.4062,-21.1563,-6.2593,-1.5369,-27.2626,-9.7340,0.2773,7.0221,-9.7524,-9.1247,-35.4550,-9.9035,-4.5860,-13.5032,-24.3733,-2.4514,-2.1244,-15.3745,-31.6305,3.3411
2320.3125,-19.4386,-5.2463,0.7982,-19.9595,-8.2524,0.8357,6.8601,-5.1415,-6.8951,-31.2623,-10.0973,-3.4411,-11.6648,-17.4195,-3.2627,-1.4742,-16.7967,-27.5006,5.3420
2324.2188,-17.8863,-3.5771,3.3297,-13.4102,-6.7170,1.3388,5.9522,-5.9287,-4.1250,-26.3454,-8.4896,-1.3450,-9.8618,-10.5375,-2.7572,-0.1733,-17.0711,-22.3637,7.5004
2328.1250,-17.7521,-1.4037,4.7219,-8.7126,-6.4531,2.0933,4.0083,-11.9653,-1.8938,-21.5614,-6.5605,1.1753,-9.5184,-5.2502,-1.9724,1.2583,-16.5945,-17.3650,8.3645
2332.0312,-19.2943,0.8980,4.1400,-5.7039,-8.1100,3.1814,1.0565,-20.1487,-0.7618,-17.2459,-5.7316,3.4781,-11.3443,-2.2309,-2.0592,2.4519,-16.0804,-13.1680,6.8887
2335.9375,-21.7272,2.8287,1.6514,-3.3967,-11.3036,4.3553,-2.4181,-26.3569,-0.6461,-13.2780,-6.6337,5.0582,-15.0338,-1.1389,-3.6612,3.2217,-16.3407,-9.8053,3.0280
2339.8438,-23.8078,4.0048,-1.8953,-0.8753,-14.9042,5.2028,-5.6568,-27.8615,-1.0913,-9.3373,-8.8490,5.7382,-19.5581,-0.8898,-6.5864,3.4484,-17.9893,-6.9091,-2.2249
2343.7500,-24.6528,4.4112,-5.3952,2.0190,-17.7482,5.4728,-8.0254,-24.7514,-1.6706,-5.1795,-11.2473,5.7249,-23.8082,-0.1777,-9.9538,2.9990,-21.1738,-4.0968,-7.3615
2347.6562,-24.2385,4.4887,-8.0603,4.6909,-19.2945,5.3193,-9.3333,-19.5861,-2.2171,-0.8027,-12.6792,5.5002,-27.1387,1.9956,-12.7070,1.7869,-25.4522,-1.2186,-11.1045
2351.5625,-23.2574,4.9558,-9.6881,6.4288,-19.8158,5.2733,-9.8411,-15.6404,-2.7660,3.5433,-12.6024,5.5889,-29.4758,5.9678,-14.1758,-0.0728,-29.8845,1.6809,-12.9433
2355.4688,-22.4537,6.4334,-10.5204,7.1502,-20.0474,5.9390,-9.9789,-14.9314,-3.3305,7.4907,-11.2859,6.3172,-30.9868,11.3203,-14.3506,-2.1495,-33.3199,4.5981,-13.1882
2359.3750,-21.9303,9.0793,-10.8687,7.6592,-20.5723,7.6037,-10.0270,-17.2289,-3.7512,10.7647,-9.5204,7.6891,-31.6159,17.0362,-13.7374,-3.7267,-34.7690,7.7605,-12.5852
2363.2812,-20.9508,12.4535,-10.8200,9.1966,-21.3655,10.0105,-10.0238,-20.5132,-3.7646,13.3756,-8.0657,9.4489,-30.8707,21.8622,-12.9319,-3.9842,-33.7173,11.5695,-11.7826
2367.1875,-18.4120,15.6931,-10.2413,12.5978,-21.7800,12.4368,-9.9561,-22.4070,-3.2345,15.6786,-7.2092,11.2768,-28.0447,24.7809,-12.2260,-2.2644,-30.2638,16.2985,-10.9877
2371.0938,-13.6810,17.8945,-9.0556,17.6602,-20.9504,14.0251,-10.0328,-21.5897,-2.3430,18.2265,-6.7048,12.9702,-22.7408,25.4365,-11.5106,1.6452,-25.0494,21.7520,-9.9921
2375.0000,-7.2095,18.4781,-7.5535,23.1671,-18.3275,14.1652,-10.7622,-18.3707,-1.5653,21.4433,-6.1034,14.4691,-15.3336,24.3202,-10.5265,7.2753,-19.0164,27.1530,-8.5048
2378.9062,-0.4680,17.3494,-6.4760,27.5459,-14.0088,12.7134,-12.7070,-14.2399,-1.4251,25.2730,-5.2273,15.7016,-7.0354,22.5735,-9.2671,13.3712,-13.0979,31.3899,-6.5518
2382.8125,4.8008,14.8139,-6.7568,29.7129,-8.6929,9.9651,-16.0592,-10.8484,-2.2021,29.0320,-4.4568,16.3874,0.5228,21.4474,-8.2264,18.0558,-7.9462,33.5187,-4.6762
2386.7188,7.5378,11.3606,-9.0460,29.5671,-3.3328,6.4492,-20.3427,-9.1054,-3.7943,31.6232,-4.6225,16.0000,5.9795,21.6660,-8.2847,19.3641,-3.7892,33.2365,-3.7992
2390.6250,7.9197,7.4796,-13.2922,27.8837,1.2728,2.7079,-24.4870,-8.8596,-5.8150,32.0784,-6.5505,13.9982,8.8176,23.0587,-10.2622,16.0660,-0.4572,31.0477,-4.8003
2394.5312,7.1625,3.6055,-18.6400,25.7679,4.7245,-0.8180,-27.2780,-9.2009,-7.8224,30.1628,-10.5309,10.2257,9.5127,24.7088,-14.3947,8.4297,2.4352,28.0254,-8.0350
2398.4375,6.7369,0.1451,-23.7327,24.0759,7.0255,-3.7930,-27.9503,-9.0833,-9.4992,26.6768,-16.0322,5.1990,9.1939,25.5600,-20.0582,-1.5718,5.2359,25.3021,-13.0554
2402.3438,7.5230,-2.5295,-27.2829,23.1324,8.4277,-5.9739,-26.6031,-7.8939,-10.6732,23.2057,-21.8447,0.0226,9.0288,25.1105,-25.9319,-10.9236,8.0482,23.5734,-18.7023
2406.2500,9.4302,-4.2010,-28.6248,22.8058,9.2714,-7.2717,-24.2232,-5.7166,-11.2288,21.3748,-26.5834,-4.1089,9.6787,23.7291,-30.5375,-16.9240,10.6784,22.8664,-23.5434
2410.1562,11.6530,-4.9900,-27.9605,22.7571,9.9126,-7.8768,-22.2922,-3.2197,-11.0603,21.9810,-29.2727,-6.5576,11.0982,22.3639,-32.8664,-18.5350,12.7690,22.6605,-26.4454
2414.0625,13.3061,-5.4413,-26.1676,22.6491,10.7177,-8.3256,-22.1330,-1.2385,-10.1674,24.4985,-29.6945,-7.6186,12.7367,21.8261,-32.7558,-16.8832,14.0465,22.2536,-26.9878
2417.9688,13.9778,-6.3669,-24.2650,22.2369,12.0392,-9.3642,-24.2484,-0.2232,-8.8272,27.2827,-28.3279,-8.3356,13.9731,22.1576,-30.8176,-14.4956,14.5368,21.1568,-25.5115
2421.8750,13.8749,-8.4478,-22.8269,21.4064,14.1109,-11.5865,-27.9259,0.1944,-7.6544,28.4100,-25.9526,-9.8275,14.5112,22.5601,-27.9908,-13.6582,14.6091,19.3237,-22.8007
2425.7812,13.5665,-11.7926,-21.6752,20.2366,16.9046,-15.0139,-31.3257,1.2369,-7.3919,26.7097,-23.1806,-12.5426,14.5218,21.9808,-24.9970,-14.9291,14.8048,17.1332,-19.6105
2429.6875,13.5965,-15.7416,-20.0391,19.0522,20.0608,-18.8989,-32.1218,4.4646,-8.4747,22.4127,-20.2002,-15.9450,14.4919,19.9632,-22.0243,-16.8344,15.5426,15.1722,-16.3242
2433.5938,14.2526,-19.1065,-17.0990,18.3418,22.9933,-21.9658,-28.5214,10.8413,-10.6252,17.0444,-16.8584,-18.8710,14.9123,17.1382,-18.8014,-17.0326,16.8739,13.9421,-12.9247
2437.5000,15.5790,-20.7770,-12.5882,18.4777,25.1549,-23.0464,-20.2335,19.8535,-12.7979,12.6181,-12.9811,-20.3393,16.0089,14.9450,-14.9702,-14.2148,18.4436,13.6211,-9.2449
2441.4062,17.5024,-20.3693,-7.0721,19.3585,26.3233,-21.7829,-8.8615,29.2789,-13.6073,10.5830,-8.6760,-20.2757,17.6624,14.7050,-10.4840,-9.4272,19.6911,13.9717,-5.2793
2445.3125,19.8842,-18.5176,-1.7034,20.2452,26.7223,-18.9602,2.6029,35.9427,-12.0621,11.1074,-4.3966,-19.6408,19.5271,16.6547,-5.7556,-5.8057,20.1775,14.4215,-1.3221
2449.2188,22.4393,-16.5906,2.4075,20.0081,26.8808,-16.1994,11.0409,37.2251,-8.1865,13.0715,-0.7247,-19.8469,21.2336,19.6232,-1.4718,-6.7578,19.8460,14.2858,2.1512
2453.1250,24.6444,-15.9591,4.8071,17.7316,27.2971,-15.1283,14.6036,32.5392,-3.1343,14.7256,1.9618,-21.8290,22.5318,21.6264,1.7825,-13.7127,19.0549,13.0500,4.7469
2457.0312,25.8086,-17.2320,5.8865,13.3320,28.1119,-16.4890,13.4760,23.8766,1.3189,14.6116,3.6932,-25.3814,23.3006,21.0308,3.8216,-24.9209,18.3608,10.5992,6.3482
2460.9375,25.3539,-19.9180,6.5144,7.7571,28.9987,-19.7219,9.5716,14.9859,3.6474,12.2363,4.8389,-29.1988,23.4609,17.5366,4.8873,-36.1442,18.1764,7.2894,7.1095
2464.8438,23.1588,-22.7178,7.3764,2.5706,29.3446,-23.2852,5.3707,9.5556,3.3290,8.1791,5.8274,-31.5969,22.9041,12.3388,5.4219,-42.8540,18.5067,3.8115,7.2925
2468.7500,19.7162,-24.2606,8.5003,-0.8708,28.6051,-25.5123,2.6464,9.4123,1.0665,3.6588,6.8702,-31.4437,21.5228,7.3711,5.7829,-42.5793,18.9193,0.8949,7.1128
2472.6562,15.9581,-23.8286,9.3209,-2.1404,26.6067,-25.4718,1.8585,13.7645,-1.6234,-0.1305,7.8904,-28.7183,19.3332,4.1477,6.1167,-35.9912,18.7690,-1.0165,6.7331
2476.5625,12.8192,-21.6366,9.2419,-1.9083,23.6104,-23.3112,2.4855,19.8876,-3.2022,-2.5378,8.6866,-24.3889,16.5837,2.9590,6.4512,-26.1753,17.5469,-1.9565,6.3761
2480.4688,10.7949,-18.5395,8.2571,-1.4574,20.1184,-19.9301,3.8864,24.7631,-2.8425,-3.6071,9.1729,-19.7594,13.7303,2.9000,6.8755,-16.7144,15.1554,-2.3948,6.3921
2484.3750,9.7521,-15.4193,7.1244,-1.8896,16.5744,-16.2786,5.9300,26.6301,-0.7373,-3.8818,9.4763,-15.7575,11.2433,2.6252,7.5959,-9.8767,11.9564,-2.9875,7.1309
2488.2812,9.0835,-12.6865,6.8953,-3.5547,13.1709,-12.8057,8.8818,25.5486,2.1140,-4.0593,9.7999,-12.6073,9.3469,1.2492,8.7739,-5.9551,8.5787,-4.2557,8.6498
2492.1875,8.0768,-10.2107,8.1034,-6.0482,9.8842,-9.4199,12.6897,22.7813,4.4646,-4.7119,10.1716,-10.0116,7.8683,-1.2233,10.2700,-3.9016,5.6079,-6.3667,10.4847
2496.0938,6.2685,-7.6649,10.2163,-8.7068,6.6827,-5.9123,16.3557,19.5784,5.4042,-6.1757,10.3140,-7.6016,6.3265,-4.1555,11.5423,-2.5318,3.3400,-9.1232,11.7413
2500.0000,3.6010,-4.9678,11.8137,-11.1829,3.7295,-2.4417,18.0646,16.2711,4.6984,-8.5727,9.7954,-5.2759,4.2382,-6.9273,11.8703,-1.3410,1.7232,-12.1362,11.5604
2503.9062,0.3577,-2.4655,11.4513,-13.6581,1.4044,0.3504,16.1640,12.2615,2.7798,-11.8596,8.3896,-3.2009,1.4590,-9.4199,10.8173,-0.4659,0.4831,-15.0509,9.7075
2507.8125,-3.0244,-0.7155,8.6488,-16.5476,0.1070,1.7132,10.3796,6.8074,0.4681,-15.8231,6.3693,-1.5543,-1.6736,-11.9649,8.6121,-0.0733,-0.6875,-17.6751,6.8718
2511.7188,-6.1396,-0.0558,4.3082,-19.9453,-0.0326,1.3650,2.3707,-0.0578,-1.4072,-20.0322,4.4661,-0.2904,-4.5109,-14.8333,6.1271,0.1302,-2.0076,-19.9439,4.3896
2515.6250,-8.7252,-0.3064,0.2302,-23.2529,0.6656,-0.1890,-4.8802,-7.1862,-2.3126,-23.8241,3.4528,0.8407,-6.4917,-17.7158,4.3894,0.7862,-3.6101,-21.7729,3.4854
2519.5312,-10.7048,-0.8462,-1.9778,-25.3087,1.4948,-1.8748,-8.5603,-12.8237,-2.1451,-26.4011,3.6030,2.0344,-7.5177,-19.6548,3.9121,2.2913,-5.6059,-22.9338,4.4823
2523.4375,-12.1827,-1.0126,-1.8817,-24.9690,1.6479,-2.6740,-7.5046,-15.6261,-1.1840,-27.0530,4.4139,3.1740,-8.0545,-19.5426,4.3111,4.3011,-8.1004,-23.0671,6.5085
2527.3438,-13.3972,-0.5258,-0.4368,-21.7808,0.5645,-2.2090,-2.7606,-15.5027,0.0836,-25.4273,4.8321,3.8337,-8.8798,-16.8587,4.5133,5.8451,-11.1087,-21.8454,7.9336
2531.2500,-14.6273,0.3781,0.6832,-16.3136,-1.8582,-0.8721,3.0540,-13.7358,1.1760,-21.7188,3.8763,3.5935,-10.6328,-12.1216,3.4568,6.0420,-14.4349,-19.1921,7.2933
2535.1562,-16.0728,1.1934,0.1666,-9.9425,-5.2928,0.5734,7.1369,-12.3000,1.7796,-16.6621,1.2604,2.4489,-13.4492,-6.7109,0.8196,4.8628,-17.6522,-15.4089,4.1285
2539.0625,-17.7679,1.5676,-2.1798,-4.2180,-9.2074,1.5934,7.7797,-12.7992,1.8058,-11.2949,-2.4049,0.9825,-16.9081,-2.1497,-2.7354,3.2972,-20.2699,-11.1173,-0.7809
2542.9688,-19.5896,1.5731,-5.4610,-0.1928,-13.1367,2.2232,4.8816,-15.6383,1.3389,-6.5744,-5.9765,0.1154,-20.3062,0.6962,-5.9862,2.7182,-22.0188,-7.0333,-5.9134
2546.8750,-21.3676,1.6232,-8.4144,1.9349,-16.8471,2.9047,-0.3891,-19.8767,0.5175,-3.0151,-8.4729,0.5561,-23.0642,1.9967,-7.9642,3.8759,-23.0545,-3.6940,-9.8852
2550.7812,-23.0177,2.1130,-10.2649,2.7212,-20.3252,3.9854,-6.3810,-23.7989,-0.5764,-0.5300,-9.6406,2.3080,-24.9974,2.6974,-8.5883,6.2790,-23.8859,-1.2837,-12.1473
2554.6875,-24.5933,3.0741,-11.1323,3.0490,-23.6348,5.3087,-11.6726,-25.8552,-1.9642,1.4305,-10.0357,4.5810,-26.3028,3.8292,-8.6837,8.4608,-25.0207,0.3604,-13.0993
2558.5938,-26.2016,4.1151,-11.7841,3.6543,-26.7536,6.2433,-15.4279,-25.4579,-3.7371,3.5012,-10.6018,6.2013,-27.3185,5.8519,-9.3854,8.9784,-26.5480,1.5926,-13.6368
2562.5000,-27.8415,4.6937,-12.9985,4.8553,-29.4869,6.1420,-17.4301,-23.2303,-5.9724,5.9837,-12.0592,6.2739,-28.2543,8.4395,-11.3651,7.4305,-27.9758,2.7610,-14.5064
2566.4062,-29.2912,4.5044,-15.0329,6.5709,-31.4934,4.8678,-17.9662,-20.6140,-8.6532,8.6300,-14.5134,4.6899,-29.0762,10.7965,-14.4273,4.7503,-28.4958,4.0829,-15.9073
2570.3125,-30.1498,3.6844,-17.5384,8.5367,-32.3854,2.9606,-17.6676,-19.0686,-11.6325,10.7710,-17.4995,2.1646,-29.5809,12.2494,-17.7325,2.5461,-27.5379,5.6352,-17.5417
2574.2188,-30.0227,2.6823,-19.8923,10.5438,-31.8411,1.2930,-17.2931,-19.3032,-14.6536,11.7361,-20.3587,-0.1972,-29.5479,12.7065,-20.4393,1.9568,-25.2303,7.4204,-18.9741
2578.1250,-28.7276,1.8973,-21.6353,12.5529,-29.6805,0.4647,-17.4444,-20.9522,-17.4095,11.3241,-22.6418,-1.5238,-28.8218,12.7036,-22.2644,2.8431,-22.3996,9.4242,-19.9772
2582.0312,-26.3799,1.3707,-22.6951,14.6441,-25.9021,0.3893,-18.3225,-22.8584,-19.6124,10.0309,-24.2687,-1.6039,-27.2777,13.0412,-23.5570,3.8932,-20.0521,11.6123,-20.6216
2585.9375,-23.3040,0.7656,-23.3008,16.8733,-20.6984,0.3884,-19.7006,-23.7797,-21.0528,8.8707,-25.4065,-0.8898,-24.7495,14.2770,-24.8807,3.5708,-18.6636,13.8826,-21.1097
2589.8438,-19.8485,-0.3517,-23.7459,19.1585,-14.4630,-0.2826,-21.1865,-23.0827,-21.6347,8.8682,-26.2380,-0.1266,-21.0500,16.4091,-26.4784,1.2339,-17.7829,16.0458,-21.5551
2593.7500,-16.2434,-2.1422,-24.2217,21.2877,-7.7736,-1.8760,-22.6052,-20.9905,-21.3844,10.5062,-26.8407,0.1205,-16.1188,18.9336,-28.0687,-2.3615,-16.2650,17.8871,-21.9121
2597.6562,-12.5907,-4.3166,-24.8178,23.0497,-1.3182,-3.9816,-24.1871,-18.2432,-20.4316,13.4556,-27.2502,-0.2573,-10.1969,21.2112,-29.1376,-5.5269,-13.0092,19.2950,-22.0958
2601.5625,-8.9635,-6.2849,-25.6061,24.3949,4.2478,-5.8670,-26.3598,-15.4310,-18.9719,16.7469,-27.5964,-0.9712,-3.8641,22.8814,-29.4719,-6.7617,-7.7103,20.3634,-22.1506
2605.4688,-5.5021,-7.5312,-26.6641,25.4923,8.4779,-7.0584,-29.2642,-12.5076,-17.2277,19.2810,-28.1306,-1.6414,2.1384,24.0452,-29.4711,-5.7764,-1.1091,21.3631,-22.2893
2609.3750,-2.4133,-7.9529,-27.9900,26.6057,11.2604,-7.7166,-32.3972,-8.8855,-15.4268,20.3773,-29.0688,-2.1254,7.2036,25.0946,-29.9363,-3.7387,5.4161,22.5564,-22.7487
2613.2812,0.1294,-7.9357,-29.4043,27.8370,12.8171,-8.5183,-34.7391,-4.0921,-13.8012,20.0493,-30.3611,-2.6528,11.0611,26.3082,-31.4499,-2.5857,10.6077,23.9490,-23.5829
2617.1875,2.0935,-8.1174,-30.5740,28.9014,13.5583,-10.1287,-35.3650,1.4924,-12.5875,18.8796,-31.5910,-3.6985,13.7327,27.4933,-33.8044,-3.8418,13.8985,25.1495,-24.5803
2621.0938,3.6076,-9.0039,-31.1884,29.1254,13.8706,-12.6565,-34.1143,6.4330,-11.9968,17.6110,-32.1338,-5.6855,15.2890,27.9452,-35.9391,-7.6811,15.4396,25.4734,-25.3915
2625.0000,4.8747,-10.6840,-31.1536,27.7454,13.9660,-15.4954,-31.7856,8.8763,-12.1414,16.7230,-31.4974,-8.7043,15.6384,26.7983,-36.4909,-12.7934,15.6735,24.2804,-25.7708
2628.9062,6.0534,-12.8089,-30.6273,24.3855,13.8873,-17.6761,-29.6366,7.7237,-12.9457,16.2360,-29.6165,-12.4057,14.5797,23.5840,-34.6143,-17.1043,14.8878,21.3721,-25.7278
2632.8125,7.2039,-14.8291,-29.8285,19.4350,13.6535,-18.4883,-28.4995,3.5844,-14.1071,15.8132,-26.8802,-16.1188,12.1360,18.6496,-30.5142,-18.9022,13.1522,17.2041,-25.4495
2636.7188,8.3335,-16.3218,-28.7562,14.0504,13.4158,-17.9473,-28.1430,-1.2103,-15.1627,15.0429,-23.8633,-19.1241,8.9165,13.1384,-25.3246,-17.7202,10.6700,12.7539,-25.0421
2640.6250,9.4818,-17.2098,-27.0549,9.7020,13.4719,-16.7945,-27.3566,-3.6842,-15.6586,13.6958,-20.9452,-20.9423,6.1511,8.4917,-20.4161,-14.5156,8.1625,9.0868,-24.3077
2644.5312,10.7496,-17.7555,-24.1788,7.4638,14.0851,-16.0446,-24.7159,-1.8130,-15.3448,11.8123,-18.0885,-21.5103,5.2270,5.7357,-16.6061,-11.1160,6.8266,6.8557,-22.7664
2648.4375,12.2273,-18.3593,-19.7730,7.4406,15.2248,-16.3876,-19.4987,4.3275,-14.2820,9.6117,-14.9363,-21.1800,6.9302,4.9785,-13.7923,-9.3005,7.7350,6.0225,-19.9579
2652.3438,13.8752,-19.3044,-14.0133,8.6817,16.4435,-17.8308,-12.1436,12.5818,-12.7866,7.3322,-11.1558,-20.5625,10.8710,5.4313,-11.2195,-10.0299,11.0479,5.9616,-15.8316
2656.2500,15.4635,-20.6041,-7.6481,9.6652,17.0526,-19.7831,-4.0061,19.9077,-11.2404,5.1294,-6.7809,-20.2979,15.5374,5.9464,-8.1445,-13.1854,15.6523,5.8713,-10.9347
2660.1562,16.6421,-22.0361,-1.6960,9.1028,16.5514,-21.4903,3.3284,24.0104,-9.8827,3.0857,-2.3067,-20.8420,19.0361,5.7270,-4.4110,-17.8511,19.6098,5.2310,-6.2255
2664.0625,17.1078,-23.3248,3.0103,6.6147,15.0451,-22.5134,8.6751,24.4441,-8.7185,1.2853,1.5346,-22.3359,20.1124,4.7537,-0.5489,-22.8791,21.2194,4.0242,-2.5895
2667.9688,16.7559,-24.3416,6.1412,2.9000,13.3357,-22.9455,11.4955,22.5852,-7.5988,-0.1411,4.1659,-24.5789,18.8144,3.6582,2.6278,-27.3813,20.0171,2.6106,-0.3564
2671.8750,15.7113,-25.1831,7.8731,-0.6793,12.5457,-23.2501,11.8047,20.6067,-6.4108,-1.0650,5.4658,-27.0903,16.3718,3.1583,4.5947,-30.9084,17.0226,1.3627,0.8673
2675.7812,14.2245,-26.0656,8.6295,-2.8482,13.4542,-23.8547,10.0242,20.1665,-5.2337,-1.4839,5.7902,-29.2355,14.3661,3.4598,5.4496,-33.3140,14.0482,0.3298,1.9282
2679.6875,12.5178,-27.1006,8.7783,-3.0769,15.9530,-24.7750,6.9589,21.5919,-4.3418,-1.6288,5.7197,-30.3882,13.7360,4.0496,5.7907,-34.4927,12.5376,-0.8362,3.5791
2683.5938,10.6944,-28.1053,8.4896,-1.8117,18.9999,-25.5186,3.7939,23.9348,-4.0396,-1.9549,5.7147,-30.1008,14.2613,4.0144,6.2739,-34.2209,12.7283,-2.6474,5.9964
2687.5000,8.7624,-28.5988,7.8030,-0.2023,21.1332,-25.3302,1.8539,25.7045,-4.4367,-2.9782,5.9057,-28.2416,14.8267,2.6413,7.1901,-32.2135,13.6796,-5.4037,8.6591
2691.4062,6.7298,-28.0157,6.7865,0.4712,21.2351,-23.6315,2.0483,25.7385,-5.3151,-5.0218,6.1341,-25.0457,14.2355,-0.1379,8.3535,-28.3388,14.0759,-8.9312,10.6556
2695.3125,4.6738,-26.0255,5.6296,-0.6518,19.0563,-20.3921,4.2945,23.7248,-6.1852,-8.0060,6.1824,-21.0450,11.9883,-3.7718,9.3384,-22.8263,13.1717,-12.6160,11.2196
2699.2188,2.7233,-22.7516,4.5977,-3.7406,15.1763,-16.2048,7.4033,20.1985,-6.5081,-11.4209,6.0088,-16.8863,8.5119,-7.5401,9.8430,-16.3219,11.1897,-15.7189,10.1613
2703.1250,0.9703,-18.7413,3.9047,-8.3441,10.4745,-12.0157,9.6781,16.1509,-5.9620,-14.5347,5.8095,-13.1127,4.7380,-11.0761,9.8908,-9.7539,8.9382,-17.7793,7.9433
2707.0312,-0.6102,-14.6934,3.6136,-13.6925,5.5288,-8.6619,9.9475,12.5207,-4.6098,-16.7595,5.8620,-10.0129,1.3920,-14.5659,9.7325,-4.0903,7.0164,-18.8651,5.3808
2710.9375,-2.1656,-11.1199,3.6317,-19.0360,0.3908,-6.4838,8.3335,9.7838,-2.8883,-17.9885,6.2616,-7.6147,-1.4778,-18.4840,9.5546,-0.1018,5.2638,-19.5233,3.1727
2714.8438,-3.8912,-8.1651,3.7784,-23.8635,-5.1241,-5.2334,6.1593,7.7540,-1.4345,-18.7010,6.7461,-5.8094,-4.4176,-23.0807,9.2495,1.7967,2.8858,-20.4644,1.5592
2718.7500,-5.9298,-5.6908,3.8584,-27.9395,-10.9096,-4.3167,4.9909,5.6454,-0.8336,-19.7336,6.7583,-4.5067,-8.0350,-28.0124,8.4478,1.6220,-0.8582,-22.1594,0.3003
2722.6562,-8.3089,-3.5409,3.6996,-31.1922,-16.2778,-3.2070,5.4721,2.4098,-1.3890,-21.7990,5.7438,-3.6964,-12.4313,-32.3868,6.8082,-0.1652,-5.9528,-24.5619,-1.0371
2726.5625,-10.9389,-1.7649,3.1713,-33.5443,-20.2030,-1.7622,6.8050,-2.7228,-2.9912,-24.9945,3.5241,-3.3654,-17.0060,-35.1789,4.3568,-2.7188,-11.4555,-27.0893,-2.6888
2730.4688,-13.6488,-0.6161,2.2142,-34.7904,-21.9659,-0.2562,7.2819,-9.7158,-5.1248,-28.5889,0.5102,-3.3411,-20.7512,-35.7111,1.6184,-4.9770,-15.9925,-28.8602,-4.4548
2734.3750,-16.2288,-0.3221,0.8787,-34.6036,-21.7171,0.8721,5.4978,-17.5262,-7.0229,-31.2511,-2.4032,-3.2117,-22.8089,-33.8837,-0.5826,-5.9563,-18.5601,-29.0659,-5.7674
2738.2812,-18.4737,-0.8169,-0.6745,-32.6890,-20.4999,1.3580,1.3696,-24.4550,-7.9387,-31.6484,-4.2474,-2.4441,-22.9219,-30.0674,-1.5517,-5.0966,-19.0737,-27.3089,-6.0293
2742.1875,-20.2429,-1.6640,-2.2493,-29.0210,-19.6571,1.2988,-3.7577,-28.9626,-7.4566,-29.1198,-4.4915,-0.6798,-21.5273,-24.8333,-1.1316,-2.4972,-18.3225,-23.7696,-5.0222
2746.0938,-21.5395,-2.2630,-3.7337,-24.0300,-20.0204,1.0677,-7.9558,-30.5241,-5.7196,-24.0605,-3.3742,1.9635,-19.5101,-18.7770,0.1583,1.1089,-17.4329,-19.1460,-3.1458
2750.0000,-22.5673,-2.2048,-5.1738,-18.5966,-21.4678,1.0378,-9.8770,-29.9779,-3.4477,-17.7891,-1.8573,4.8078,-17.8323,-12.5414,1.3299,4.6712,-17.2600,-14.4003,-1.3435
2753.9062,-23.6994,-1.5184,-6.7311,-13.7957,-23.1815,1.3311,-9.4437,-29.0842,-1.6930,-11.9460,-1.2037,6.8598,-17.2608,-6.9043,1.3670,7.2815,-18.1021,-10.4243,-0.7416
2757.8125,-25.3258,-0.6232,-8.5439,-10.4790,-24.4210,1.7749,-7.7042,-29.5125,-1.4065,-7.7320,-2.3914,7.2904,-18.2683,-2.7048,-0.3374,8.5307,-19.8280,-7.7556,-2.1828
2761.7188,-27.6333,-0.0225,-10.6117,-8.9074,-25.2200,2.0823,-6.1203,-31.8822,-3.0123,-5.3912,-5.6656,5.8846,-21.0273,-0.5238,-3.7521,8.5743,-22.1869,-6.4527,-5.8790
2765.6250,-30.4383,0.0307,-12.8142,-8.6516,-26.4554,2.0990,-5.8693,-35.4776,-6.2062,-4.2077,-10.4493,3.1875,-25.3869,-0.3039,-8.2639,7.9034,-24.9883,-6.1638,-11.3376
2769.5312,-33.1908,-0.3467,-15.0599,-8.8421,-29.1875,1.9182,-7.5516,-38.8101,-10.0983,-3.0023,-15.6297,0.2491,-30.8129,-1.2375,-12.9481,6.9972,-28.0270,-6.3365,-17.5722
2773.4375,-35.1735,-0.8319,-17.4236,-8.6418,-33.7229,1.7814,-11.2448,-40.6219,-13.6310,-0.8391,-20.0455,-1.8937,-36.3846,-2.1191,-16.9069,6.0832,-30.8978,-6.4600,-23.4722
2777.3438,-35.7965,-1.1824,-20.1098,-7.6683,-39.0895,1.8605,-16.5827,-40.6314,-16.0524,2.4530,-22.9185,-2.7014,-40.9611,-2.0136,-19.5412,5.1174,-32.9607,-6.2287,-28.1571
2781.2500,-34.8256,-1.3990,-23.2170,-6.1142,-43.3507,2.1089,-22.6850,-39.5280,-17.1936,6.2253,-24.0496,-2.3219,-43.5179,-0.8052,-20.6863,3.9229,-33.5865,-5.5717,-31.1777
2785.1562,-32.4249,-1.6373,-26.4761,-4.5022,-44.6079,2.3029,-28.1191,-38.2815,-17.4228,9.4310,-23.7548,-1.4173,-43.5168,0.7855,-20.6088,2.3313,-32.5490,-4.5715,-32.5283
2789.0625,-29.0167,-1.9673,-29.2178,-3.2469,-42.0567,2.2300,-31.2370,-37.3230,-17.3366,11.2664,-22.6479,-0.7727,-41.1031,1.7807,-19.8939,0.2248,-30.2653,-3.3458,-32.5227
2792.9688,-25.0665,-2.2208,-30.6881,-2.3174,-36.4124,1.8525,-30.9540,-36.2108,-17.3984,11.6536,-21.4070,-0.9314,-37.0055,1.7391,-19.2564,-2.4878,-27.6525,-1.9681,-31.6279
2796.8750,-20.9258,-2.0927,-30.5500,-1.2238,-29.4435,1.3024,-27.5395,-33.9982,-17.7306,11.2913,-20.6029,-2.0356,-32.1816,1.1947,-19.3139,-5.8394,-25.6320,-0.4549,-30.3248
2800.7812,-16.7976,-1.4404,-29.2112,0.6693,-22.9335,0.7132,-22.7572,-29.9853,-18.1505,11.2490,-20.5923,-3.8892,-27.3994,1.3894,-20.3791,-9.6578,-24.5729,1.2001,-29.0189
2804.6875,-12.7911,-0.5247,-27.6850,3.7162,-17.7483,0.0497,-19.0260,-24.2735,-18.3734,12.3502,-21.4520,-6.1286,-22.9727,3.4518,-22.3464,-13.4000,-24.0261,2.9901,-27.9882
2808.5938,-8.9832,0.0478,-27.0094,7.7314,-13.5691,-0.8912,-18.0136,-17.7364,-18.2190,14.7093,-22.9664,-8.3675,-18.7679,7.5830,-24.7379,-16.1705,-22.9326,4.8806,-27.3549
2812.5000,-5.4301,-0.3061,-27.6006,12.0576,-9.3880,-2.2800,-19.6156,-11.4884,-17.6911,17.6948,-24.7112,-10.2664,-14.4422,12.8288,-26.9164,-17.0519,-20.1927,6.8126,-27.0859
2816.4062,-2.1412,-1.7184,-29.0100,15.9002,-4.3719,-4.0129,-22.1200,-6.3001,-16.9168,20.3312,-26.2503,-11.5676,-9.7564,17.6111,-28.3858,-15.6469,-15.2729,8.7014,-27.0406
2820.3125,0.9337,-3.7212,-30.2860,18.7016,1.4892,-5.6574,-23.5227,-2.3824,-16.0362,21.8848,-27.3765,-12.1586,-4.7883,20.6582,-29.0322,-12.5008,-8.5139,10.4241,-27.0623
