Time,Fp1,F3,C3,P3,O1,F7,T3,T5,Fz,Fp2,F4,C4,P4,O2,F8,T4,T6,Cz,Pz
0.0000,-1.1486,1.2303,4.9138,0.8240,-6.8788,5.3832,4.0689,-1.3361,-0.8783,3.3027,2.8863,0.5454,-8.3740,1.7446,-0.6483,0.9393,-8.9110,-2.3923,3.0664
3.9062,-1.7043,6.8693,5.5830,2.5819,-6.2026,8.3715,3.5598,-1.5790,-10.8166,-2.9789,2.3990,3.5407,-7.2759,3.5930,-6.3202,4.3039,-7.2649,-0.9630,3.2430
7.8125,-3.7404,12.1683,4.5876,3.0672,-5.9875,10.4912,1.9758,-1.6448,-18.4798,-9.9110,0.7446,5.5316,-6.5047,4.2419,-11.9058,5.9710,-5.2168,-0.4791,1.4501
11.7188,-6.0931,15.3847,2.2438,2.5682,-6.6928,10.8711,0.1467,-1.4722,-21.6760,-14.1702,-0.3103,5.9526,-6.4785,3.6982,-14.3990,5.3170,-3.7733,-0.5081,-1.6633
15.6250,-7.3274,16.0226,-0.5802,1.9564,-8.1483,9.4776,-1.2832,-1.2271,-20.6943,-13.8330,0.5915,5.2977,-7.0582,2.6310,-12.8377,3.2886,-3.6402,-0.1907,-4.8833
19.5312,-6.7463,15.0357,-3.1255,2.0411,-9.5173,7.2393,-2.3723,-1.1850,-17.9156,-9.6677,3.0865,4.7078,-7.5541,1.8405,-9.2301,1.7077,-4.7341,1.0580,-7.3596
23.4375,-4.8770,14.0185,-5.2191,3.0667,-9.8167,5.5947,-3.7308,-1.4698,-16.2283,-4.5417,5.0591,5.0919,-7.1978,1.7256,-7.2289,1.8824,-6.2805,3.0987,-9.1547
27.3438,-3.0561,13.9760,-7.2355,4.6839,-8.6485,5.6418,-5.8814,-1.8712,-17.3417,-1.3509,4.0003,6.4441,-5.7412,2.1430,-9.4526,3.5761,-7.4067,5.2035,-10.9957
31.2500,-2.4247,14.5853,-9.6414,6.3219,-6.5638,7.3828,-8.7473,-1.9358,-21.0406,-1.0269,-1.2153,7.8694,-3.6929,2.7028,-15.4813,5.1625,-7.7338,6.6197,-13.4784
35.1562,-3.0928,14.5011,-12.5428,7.5940,-4.7185,9.5872,-11.7403,-1.3094,-25.6932,-2.1377,-9.4342,8.2847,-1.9535,3.1926,-22.1001,4.9005,-7.4776,7.0699,-16.4216
39.0625,-4.1022,12.4706,-15.6059,8.4234,-4.0266,10.4592,-14.3454,-0.0715,-29.4826,-2.3534,-17.8308,7.2431,-1.0948,3.7569,-25.6365,2.3721,-7.0029,6.7947,-18.9230
42.9688,-4.2007,8.4000,-18.3761,8.8780,-4.4452,8.7580,-16.6122,1.2406,-31.4653,-0.5624,-23.5367,5.2431,-0.8539,4.7088,-24.6085,-1.0510,-6.2613,6.1723,-20.0619
46.8750,-2.8124,3.5448,-20.6830,8.9652,-4.9649,4.6474,-19.0314,1.9962,-31.8499,2.1180,-25.1409,3.2937,-0.2853,6.1810,-20.6694,-3.1377,-4.6668,5.3133,-19.6455
50.7812,-0.4512,-0.3383,-22.7630,8.6241,-4.3471,-0.3425,-21.8626,1.9723,-31.5155,3.3095,-23.1465,2.0854,1.4978,7.9443,-17.1897,-2.4764,-1.5910,4.0234,-18.3708
54.6875,1.7344,-2.2311,-24.9875,7.9108,-2.0553,-4.2850,-24.5393,1.5847,-31.2660,1.5683,-19.3105,1.4274,4.5644,9.5501,-16.6612,0.3618,2.9065,2.1670,-17.2689
58.5938,2.9177,-2.5269,-27.4123,7.1446,1.3480,-6.1286,-25.7885,1.6226,-31.3448,-2.0142,-15.5277,0.3980,8.0179,10.6575,-18.9629,3.0954,7.7697,0.0785,-16.8994
62.5000,3.3011,-2.6012,-29.5073,6.8114,4.6535,-6.3695,-24.4954,2.6574,-31.4065,-4.2387,-13.0072,-1.8930,10.6358,11.2525,-21.7416,3.3011,11.4325,-1.3873,-16.9488
66.4062,4.0307,-3.6027,-30.2771,7.2641,6.9510,-6.6050,-20.6401,4.5901,-30.7919,-2.1016,-12.0296,-5.5075,11.8343,11.5901,-22.4286,0.1505,12.8317,-1.2726,-16.5254
70.3125,6.3887,-5.4138,-28.7025,8.4858,8.3123,-8.2442,-15.4811,6.7272,-28.8456,4.7313,-12.0783,-9.4538,12.1966,11.9471,-20.1718,-4.9614,12.1994,0.9028,-14.8618
74.2188,10.8745,-6.6263,-24.2361,10.1532,9.6692,-11.3019,-10.7387,8.3600,-25.1394,13.2464,-12.0565,-12.2204,13.1095,12.4306,-16.1789,-9.3646,10.9885,4.8399,-11.8295
78.1250,16.8398,-5.6084,-17.0958,11.9634,12.0003,-14.1924,-7.3879,9.3911,-19.6241,18.8716,-10.5685,-12.6993,15.7454,13.0024,-12.3879,-10.9453,10.9205,9.6532,-7.8860
82.0312,22.8942,-1.8743,-8.2515,13.9202,15.5050,-14.7415,-5.0466,10.4777,-12.7405,18.5344,-6.4448,-10.8603,20.1632,13.6481,-9.7530,-9.5295,12.8281,14.3712,-3.5934
85.9375,27.7286,3.3133,0.8537,16.2863,19.4467,-11.7376,-2.4792,12.5272,-5.4125,12.7846,0.5096,-7.7298,25.2326,14.4737,-7.6299,-6.8460,16.1450,18.3515,0.8061
89.8438,30.7475,7.6341,8.7444,19.2027,22.7819,-5.9158,1.2029,15.9157,1.2017,5.4382,8.9899,-4.7231,29.4508,15.5937,-4.6751,-5.1652,19.4108,21.3480,5.3797
93.7500,32.1325,9.2502,14.3889,22.3092,25.0261,0.3563,5.6767,20.0517,6.1884,1.0183,16.4846,-2.8090,32.0123,16.9033,-0.3305,-5.6682,21.3838,23.3022,10.1251
97.6562,32.4320,8.0704,17.5499,24.7429,26.6011,4.4946,9.6354,23.6579,9.3341,1.8523,20.5269,-2.0540,33.2826,17.9771,4.4866,-7.7401,21.8945,24.1410,14.6382
101.5625,32.0995,5.7771,18.8144,25.5835,28.3439,5.2363,11.9139,25.5676,11.2009,6.8429,20.2306,-1.7883,34.2986,18.2410,8.0828,-9.6255,21.7970,23.7787,18.1858
105.4688,31.3269,4.5493,19.1929,24.4075,30.5831,3.2406,12.5025,25.4109,12.6725,12.5924,16.9841,-1.2068,35.7048,17.3074,9.4043,-9.8534,22.1035,22.2499,20.1333
109.3750,30.1793,5.3989,19.4260,21.4860,32.5917,0.3873,12.5108,23.6551,14.2273,15.8200,13.6151,0.0353,37.0064,15.1883,8.8833,-8.3101,23.0317,19.7432,20.3317
113.2812,28.7599,7.3586,19.4136,17.4524,32.9506,-1.6536,13.0663,21.0066,15.4835,15.2115,12.4693,1.6104,36.7860,12.1864,7.9859,-6.1952,23.7512,16.4285,19.1057
117.1875,27.1778,8.1623,18.2399,12.7383,30.6127,-2.5229,14.1312,17.7269,15.4401,11.5201,13.7871,2.7694,33.7678,8.5646,7.9231,-4.9977,23.0395,12.2502,16.8841
121.0938,25.3782,5.9642,14.9313,7.3045,25.8445,-3.1829,14.3767,13.4906,13.3363,6.2469,15.6690,2.8446,27.9222,4.3215,8.7150,-5.3597,20.3201,6.9841,13.8801
125.0000,23.1233,0.8569,9.5113,0.9454,20.2633,-4.9110,12.3734,7.9308,9.5242,0.2880,15.7307,1.6754,20.7414,-0.6695,9.4243,-6.7000,16.2461,0.6485,10.1875
128.9062,20.3064,-4.9363,3.5443,-6.0927,15.8672,-8.0861,8.1475,1.3876,5.6420,-6.2669,13.1761,-0.2760,14.4319,-6.2424,9.2706,-7.8029,12.3518,-6.0364,6.2215
132.8125,17.4133,-8.3791,-0.4387,-12.7859,13.7469,-11.6840,3.6842,-4.8653,3.8260,-13.2031,9.5975,-2.1460,10.5947,-11.6386,8.5221,-7.8043,10.0249,-11.6369,3.0005
136.7188,15.6456,-7.5509,-0.4717,-17.7157,13.4316,-13.8467,1.7307,-9.2424,5.4116,-19.2385,7.7902,-3.0825,9.3401,-15.6936,8.2985,-6.7556,9.5783,-14.6729,1.8031
140.6250,16.3545,-2.8531,3.3341,-19.9686,13.3479,-13.1025,3.6795,-10.9106,10.0096,-22.2302,9.4918,-2.6305,9.4406,-17.4875,9.4664,-5.3630,10.1076,-14.6138,3.2756
144.5312,19.9741,3.3172,8.4647,-19.8372,12.0251,-9.3851,8.2218,-10.4451,15.6377,-20.6216,13.9014,-0.9117,9.3417,-16.9897,11.6968,-4.2141,10.2133,-12.4445,6.6748
148.4375,25.1967,8.1474,11.3310,-18.6736,9.1329,-4.1701,11.9987,-9.4778,19.8639,-14.9978,18.2453,1.4747,8.2376,-15.1420,13.6331,-3.2089,9.0181,-10.2250,10.0124
152.3438,29.1818,10.1095,9.5351,-17.8953,5.6062,0.3384,11.9374,-9.5202,21.1976,-8.3107,19.9761,3.7789,6.4459,-13.2214,14.0768,-1.6859,6.7294,-9.7871,11.2436
156.2500,28.9706,9.6400,3.5611,-17.8739,2.8343,2.4382,7.5565,-10.8382,19.7959,-4.2873,18.7925,5.4961,4.9064,-11.9212,13.1009,0.8870,4.3813,-11.4426,9.7544
160.1562,23.3570,8.4576,-3.3588,-17.6196,1.5947,1.8400,1.4325,-12.2700,17.0628,-5.0064,16.7669,6.6255,4.3040,-10.8739,11.9995,4.2866,3.0169,-13.6825,6.9996
164.0625,13.9594,8.1685,-7.2288,-15.5869,1.5459,-0.2312,-2.6040,-12.1636,14.5171,-9.4130,16.4394,7.6444,4.5337,-9.0432,12.0360,7.5405,2.9490,-14.1815,5.6513
167.9688,4.5988,9.2438,-5.8213,-11.0258,1.5957,-1.7477,-2.2085,-9.7244,12.7961,-13.9556,18.4820,9.1939,4.8691,-5.7208,13.1142,9.5907,3.6077,-11.4406,7.7241
171.8750,-0.8130,11.0518,-0.0190,-4.8089,0.7731,-0.9873,1.8843,-5.7199,11.4744,-14.9849,20.9718,11.6446,4.5953,-1.3417,13.6705,10.0735,4.0042,-5.8860,13.0003
175.7812,-0.5897,12.7442,6.9360,0.9690,-1.1065,2.5361,6.5983,-1.9828,9.7053,-11.2301,20.9851,14.7967,3.5255,2.5774,12.0314,9.5642,3.3995,0.3757,18.9531
179.6875,3.7461,14.1374,11.6839,4.3596,-3.4435,7.7794,8.9383,-0.0996,7.0592,-4.5940,17.2256,17.8982,1.9923,4.3970,8.0906,9.0765,1.6934,4.9380,22.2975
183.5938,8.5203,15.8072,12.8293,4.8537,-5.4101,12.6641,8.1559,-0.3058,3.8488,1.2567,11.4116,19.9747,0.3935,3.5035,3.7327,9.2229,-0.6657,6.5574,21.0806
187.5000,10.3328,18.3279,11.4072,3.5949,-6.5445,15.1374,5.9962,-1.4290,0.7203,3.4346,7.0961,20.2761,-1.2468,0.7624,1.4353,9.7272,-3.0791,5.6436,15.8103
191.4062,8.2206,21.3509,9.5574,2.3710,-6.9274,14.2802,4.9546,-1.8757,-2.0627,1.6735,6.7449,18.5904,-3.2884,-2.0849,2.1286,9.6891,-5.1561,3.5400,8.8591
195.3125,4.0985,23.4012,8.5823,2.2154,-6.9066,10.8548,6.0690,-0.8442,-4.9555,-1.7612,9.4765,15.2923,-6.0445,-3.6110,4.1983,8.3894,-6.8084,1.3272,2.6887
199.2188,1.2272,22.7148,7.9561,2.7486,-6.7103,6.9235,8.0691,1.1861,-8.7355,-3.8720,11.4728,11.1717,-9.2908,-3.5628,4.6741,5.9767,-8.1019,-0.8089,-1.7067
203.1250,1.8340,18.5806,5.9954,2.7525,-6.3088,4.6727,8.5125,2.9983,-13.6679,-3.0295,8.9366,7.1940,-12.1555,-2.7613,1.7597,3.4770,-9.0547,-3.1808,-5.0033
207.0312,5.5830,12.1679,1.5329,1.4369,-5.5821,5.0951,5.8726,3.6812,-18.9516,0.1159,1.3111,4.3031,-13.5163,-2.2006,-3.4356,2.1097,-9.5436,-5.6727,-8.4059
210.9375,9.9348,6.1208,-4.8537,-0.7173,-4.5445,7.3610,0.8043,3.2752,-22.9902,3.4106,-7.8955,3.2533,-12.6313,-2.1394,-7.6027,2.4437,-9.3497,-7.2654,-12.2430
214.8438,12.0526,3.0732,-11.0908,-2.2763,-3.3625,9.3451,-4.4307,2.5353,-24.3929,4.9153,-13.5176,4.3978,-9.5711,-1.9397,-7.9900,4.0400,-8.2742,-6.5926,-15.5234
218.7500,10.8195,4.0483,-15.1272,-2.0684,-2.1564,9.0318,-7.8258,2.1078,-22.9991,4.2466,-12.6194,7.4412,-5.1975,-0.7433,-4.9641,5.8219,-6.2554,-3.1384,-16.8067
222.6562,7.5132,7.8313,-16.4728,-0.2528,-0.8426,5.8834,-9.1794,1.9057,-20.1380,2.6477,-6.8398,11.3200,-0.7662,1.6394,-2.0853,6.8414,-3.4660,1.9746,-15.5982
226.5625,4.7248,11.7507,-16.5062,1.6992,0.7522,1.2176,-10.0655,1.2394,-17.8624,1.9044,-1.3032,14.4275,2.5597,4.4217,-3.3731,6.8300,-0.3689,6.4229,-13.0344
230.4688,4.4120,13.3411,-17.3129,2.1385,2.5669,-2.7080,-12.3290,-0.4453,-17.6483,3.0091,-0.8663,15.2405,4.0566,6.3864,-9.8559,6.1493,2.3315,8.1665,-11.2186
234.3750,6.5668,11.7810,-19.9924,0.5715,4.1132,-4.2751,-16.4354,-2.9191,-19.4535,5.5331,-6.5512,13.1011,3.6024,6.8197,-18.2907,5.2759,3.9155,6.8869,-11.6972
238.2812,9.4500,8.2001,-23.7639,-1.9073,4.7181,-3.6091,-21.0451,-5.2141,-21.7841,8.0464,-14.8585,8.6878,1.7253,6.0401,-23.3226,4.3251,4.0235,4.2355,-14.2816
242.1875,11.1256,4.7555,-26.5213,-3.4351,4.1222,-2.3836,-24.0757,-6.3254,-22.7026,9.1741,-20.3960,3.8008,-0.4518,5.0949,-21.5362,3.0351,2.9831,2.6560,-17.1399
246.0938,11.0624,3.1949,-26.3354,-2.7688,2.9640,-2.4624,-24.2527,-5.9262,-21.0610,8.5177,-19.7199,0.4807,-1.4679,4.9244,-14.1738,1.1916,1.8206,3.6755,-18.0635
250.0000,10.5611,3.8804,-22.7159,-0.1016,2.6559,-4.4045,-21.8250,-4.4491,-17.1269,6.8659,-13.4732,-0.0641,-0.0451,5.7355,-6.2294,-0.9383,1.8363,6.9793,-15.9078
253.9062,11.7015,5.8267,-16.7461,3.3222,4.5934,-6.9911,-17.9629,-2.4754,-12.2412,5.6455,-5.3878,1.9275,4.2801,7.1072,-2.5274,-2.6155,3.9246,10.9365,-11.1470
257.8125,15.6366,7.5559,-10.1655,6.3859,9.2035,-8.1727,-13.5592,-0.0493,-7.8469,6.0190,0.7776,4.9916,10.7932,8.6582,-3.9082,-3.1437,8.0641,14.0510,-5.2612
261.7188,21.5441,8.0581,-4.2703,8.9946,15.5521,-6.7448,-8.6369,3.3654,-4.6264,8.1789,3.8058,7.3375,17.8396,10.5798,-6.6530,-2.4845,13.3408,16.0767,0.3921
265.6250,27.0288,7.1969,0.5055,11.8831,21.8540,-3.4711,-2.9034,8.1484,-2.3321,11.2146,5.1840,7.8221,23.6394,13.4520,-5.6910,-1.4321,18.5147,17.8654,5.2602
269.5312,29.6811,5.4041,4.1785,15.5187,26.5460,-0.7571,3.1691,13.6436,-0.3276,13.5889,7.0703,6.3925,27.2027,17.4442,0.9838,-1.1298,22.7304,20.1406,9.3860
273.4375,28.6544,3.0527,6.5749,19.1249,29.1285,-1.0525,7.9314,18.0337,1.6680,13.9530,10.0395,3.8044,28.7203,21.6366,10.3282,-2.2471,25.8549,22.3448,12.6980
277.3438,25.1438,0.0812,7.1800,20.8061,30.1646,-5.1150,9.4383,19.3052,3.2502,11.8555,12.5800,0.9461,29.1417,24.2060,16.4199,-4.4396,28.2133,22.6825,14.6025
281.2500,21.4765,-3.8329,5.6430,18.8300,30.5083,-11.3836,7.0184,16.6882,3.6696,7.9515,12.6539,-1.6736,29.2618,23.5247,15.1190,-6.5298,29.9875,19.4634,14.3263
285.1562,19.5124,-8.7252,2.4108,13.0927,30.4601,-16.9059,2.1647,11.4321,2.5616,3.5681,9.8162,-3.9373,29.0436,19.3978,7.4715,-7.3072,30.8299,12.6942,11.7058
289.0625,19.4897,-13.9049,-1.2046,5.5310,29.5844,-19.1631,-2.1797,6.1730,0.4732,-0.1325,5.9523,-5.7592,27.7410,13.4285,-0.9378,-6.3675,30.0773,4.5517,7.6551
292.9688,20.0580,-18.0337,-3.7181,-0.9789,27.3306,-17.5453,-3.5434,3.2271,-1.2643,-2.8709,3.9506,-6.8012,24.7379,8.1034,-4.2261,-4.3782,27.4265,-1.8060,3.7982
296.8750,19.3709,-19.7558,-4.4088,-4.5011,23.8667,-13.5490,-1.5815,3.0327,-1.2927,-5.3414,5.4200,-6.6121,20.3955,5.1858,-0.6803,-2.5836,23.4941,-4.3126,1.4840
300.7812,16.4136,-18.5066,-3.7237,-5.3111,20.3103,-9.6952,1.8635,3.9233,0.8728,-8.5636,9.3678,-5.1153,16.1292,4.5826,6.1036,-1.9318,19.7017,-3.4203,0.9592
304.6875,11.6769,-14.9835,-2.8052,-5.6027,18.0368,-7.9914,4.3396,3.4273,4.4204,-12.9272,12.9107,-2.9961,13.5312,4.5265,10.2836,-2.4659,17.4478,-1.7908,1.3603
308.5938,6.8286,-10.9438,-2.5425,-7.8483,17.5744,-8.9225,4.6908,0.1228,7.6247,-17.6543,13.3994,-1.5476,13.1605,2.9286,8.5353,-3.4028,17.1303,-2.4446,1.5021
312.5000,3.7129,-8.3932,-2.9389,-13.0210,18.0351,-11.4513,3.7322,-5.3393,8.8458,-21.1710,10.2398,-1.9499,13.9798,-1.1158,2.6930,-3.7959,17.7881,-6.7009,0.7935
316.4062,3.3610,-8.5831,-3.2771,-19.9305,17.6742,-13.8033,3.2123,-10.7655,7.5513,-22.2051,5.0707,-4.4518,13.9929,-6.7539,-1.7944,-3.2619,17.7148,-13.3443,-0.4403
320.3125,5.5505,-11.3560,-2.8422,-26.0387,15.2573,-14.4246,4.0683,-14.0160,4.7304,-20.8118,0.3822,-8.0724,11.7087,-12.0604,-0.2793,-2.2367,15.6638,-19.5034,-1.3860
324.2188,9.0248,-15.2023,-1.4911,-29.0435,11.1862,-12.6099,5.5741,-14.4032,2.4170,-18.4798,-2.1404,-11.1036,7.3604,-15.3511,7.3517,-1.6060,11.7778,-22.4910,-1.4324
328.1250,12.1161,-18.0201,0.4378,-28.0849,7.4259,-8.6542,6.1540,-12.8773,2.5697,-17.1216,-2.2659,-12.1019,2.9158,-16.1107,16.5301,-2.0136,7.5430,-21.2814,-0.4774
332.0312,13.4218,-18.1918,2.6935,-23.8878,6.1613,-3.6496,5.1018,-11.0192,5.9409,-17.6360,-0.6455,-10.6866,0.7859,-14.9547,21.4232,-3.3571,4.7750,-16.7478,1.3341
335.9375,12.2966,-15.4082,5.4801,-18.0367,8.1254,0.9270,3.5668,-9.7913,11.5876,-19.1595,2.1107,-7.6001,2.1274,-12.8784,19.1348,-4.8064,4.3653,-10.7853,4.0233
339.8438,9.0557,-10.7908,9.1154,-12.1257,11.8586,3.7602,3.7576,-9.0821,17.3147,-19.6749,5.7228,-4.0426,5.9661,-10.5531,11.4861,-5.2966,5.6918,-5.1707,7.7641
343.7500,4.8424,-6.2346,13.2134,-7.3662,14.5045,4.2718,6.9081,-8.2985,20.8061,-17.6074,9.7577,-0.8283,9.7766,-8.2275,3.2831,-4.1399,7.0984,-0.9540,12.3325
347.6562,1.1465,-3.3418,16.2203,-4.6363,13.6086,2.9746,11.7593,-7.3252,20.8006,-13.2096,13.1484,1.9956,11.0951,-6.1279,-1.2380,-1.3736,7.0586,1.4662,16.5586
351.5625,-0.9171,-2.5663,15.9923,-4.5362,8.6433,1.3016,15.0314,-6.8901,17.6477,-8.6065,14.5314,4.8335,9.0085,-4.7753,-0.9196,2.3220,5.1702,2.0183,18.5034
355.4688,-1.2512,-3.0793,11.2338,-7.1477,1.2070,0.8421,13.7408,-7.9709,12.9439,-6.3684,13.3275,7.8747,4.5140,-4.7713,2.5093,6.0202,2.3037,0.8604,16.5372
359.3750,-0.9218,-3.4310,2.7462,-11.6868,-6.1512,2.3568,7.5956,-10.7833,8.5027,-7.6435,10.5568,10.6897,-0.3787,-6.2003,6.5909,8.9917,-0.1059,-1.4551,10.6382
363.2812,-1.5687,-2.5760,-6.6211,-16.5433,-11.5391,5.2331,-0.5112,-14.3065,5.2989,-11.2827,8.3887,12.4594,-4.0288,-8.2662,10.0707,10.9622,-1.0337,-3.9264,2.8380
367.1875,-4.3093,-0.5859,-13.5119,-19.9558,-14.5947,7.8493,-6.4429,-16.8468,3.0302,-14.6663,8.5087,12.6511,-6.0030,-9.6462,13.0125,12.0985,-0.4000,-5.4732,-3.7496
371.0938,-8.8017,1.4290,-16.0889,-20.9678,-16.1247,8.6914,-7.7605,-17.2234,0.5276,-15.6143,10.5878,11.5543,-6.8870,-9.3999,15.4285,12.7848,1.1138,-5.5865,-6.7922
375.0000,-13.1737,2.1358,-15.0542,-19.9256,-16.9950,7.4491,-5.3797,-15.5963,-3.2963,-13.8988,12.2993,10.1873,-7.4261,-7.6966,16.1679,13.3306,2.6828,-4.7113,-6.1823
378.9062,-15.0314,0.9668,-12.8773,-18.0423,-17.2678,5.2560,-2.6543,-13.2357,-8.6112,-11.1745,11.1223,9.5927,-7.8096,-5.6859,13.4409,13.7619,3.8465,-3.9299,-3.9672
382.8125,-13.0030,-1.4129,-11.8305,-16.3039,-16.2580,3.8400,-2.6538,-11.4375,-14.5026,-9.4119,6.5579,10.0583,-7.6646,-4.5318,6.6214,13.8018,4.5669,-4.0895,-2.7835
386.7188,-7.8036,-3.4995,-12.3766,-14.6016,-13.3513,4.2030,-5.8316,-10.5083,-19.5654,-9.1394,0.8179,10.8854,-6.6451,-4.3857,-2.4519,13.0608,4.9376,-5.0594,-3.9704
390.6250,-2.0207,-3.9425,-13.1601,-11.8565,-8.8012,5.8591,-9.9167,-9.6705,-22.8337,-8.9767,-2.8336,10.9124,-4.9943,-4.1965,-10.1933,11.3428,4.9125,-5.7748,-6.7863
394.5312,1.3515,-2.4513,-12.5368,-7.0954,-3.7932,7.2531,-12.0094,-7.9189,-24.3984,-6.8977,-2.8984,9.4046,-3.5296,-2.5904,-13.7406,8.8773,4.3273,-5.0993,-9.2694
398.4375,0.7193,0.0128,-10.2943,-0.5940,0.2738,7.0487,-11.0736,-5.0284,-25.2904,-2.2149,-1.2552,6.6329,-3.0532,0.8726,-13.2080,6.2922,3.1507,-2.8169,-9.9769
402.3438,-3.1610,1.8917,-8.0593,5.9403,2.6860,5.2540,-8.7559,-1.7917,-26.7185,3.3887,-1.9734,3.6985,-3.7063,5.1385,-11.7111,4.2895,1.6681,0.1014,-9.1596
406.2500,-7.7407,2.0767,-7.9925,10.4270,3.7732,3.2560,-7.9143,0.7282,-29.1967,6.7639,-7.9962,1.7503,-4.8314,8.3429,-12.9329,3.1997,0.3749,2.2414,-8.4387
410.1562,-10.3642,0.6310,-10.8419,11.9468,4.4917,2.6993,-10.1575,2.2400,-32.1622,5.5813,-18.2791,1.1971,-5.4557,9.2437,-18.1058,2.7290,-0.3497,2.9200,-9.3106
414.0625,-9.9309,-1.2934,-15.0254,11.5112,5.6350,4.0935,-14.4791,3.5739,-34.3416,0.2705,-27.8701,1.5046,-4.9804,8.2363,-24.8900,2.1303,-0.4886,2.8034,-11.7769
417.9688,-7.4155,-2.2709,-17.6095,11.3689,7.3212,6.2760,-18.0905,5.9452,-34.6067,-5.9551,-31.2097,1.6963,-3.5134,7.0684,-29.1348,0.7393,-0.3206,3.3987,-14.2629
421.8750,-4.9471,-1.5945,-16.4921,13.3057,9.1023,7.1945,-18.6923,9.7281,-32.7327,-9.1464,-26.2974,1.1389,-1.6159,7.4297,-28.1348,-1.4772,-0.0982,5.7859,-14.8884
425.7812,-4.1589,0.2027,-12.0630,17.2393,10.4868,5.4211,-16.2557,13.8353,-29.5536,-7.3024,-16.4786,0.0052,0.2559,9.5466,-22.7353,-3.7846,0.2247,9.6276,-13.0077
429.6875,-4.9884,1.6156,-6.9847,21.2252,11.3647,1.2355,-12.8731,16.3518,-26.4264,-1.7187,-8.2880,-0.9051,2.1059,11.9611,-16.5869,-5.1163,0.9570,13.3106,-9.7209
433.5938,-5.7411,1.0387,-4.2239,22.9074,12.0016,-3.5389,-10.9132,16.0089,-24.3783,4.0102,-6.8141,-0.7984,4.2746,12.7275,-13.2081,-4.8214,2.3560,15.1685,-6.9313
437.5000,-4.3140,-2.2959,-4.8693,21.3090,12.7082,-6.7803,-11.1225,13.3164,-23.5013,6.6120,-12.0361,0.5343,7.0145,11.0867,-13.3082,-3.1955,4.3421,14.8223,-5.7575
441.4062,0.3067,-7.8504,-7.4402,17.5855,13.5729,-7.4263,-12.2685,10.3659,-22.9767,5.4556,-18.9239,2.6046,10.1969,8.2431,-14.5484,-1.3772,6.5351,13.5422,-5.6467
445.3125,7.2798,-14.0211,-9.1958,14.1721,14.5136,-5.9740,-12.5161,9.3652,-21.6836,2.8779,-21.2342,4.5869,13.4162,6.5571,-13.8290,-0.6412,8.5986,13.2900,-4.9389
449.2188,14.3163,-18.9269,-8.3641,12.9919,15.5285,-3.9019,-11.2187,11.0039,-18.9776,2.3085,-16.1212,5.8160,16.3503,7.7400,-10.0802,-1.5673,10.5679,15.1573,-2.4031
453.1250,18.9088,-21.3185,-5.5194,14.0947,16.7966,-2.6233,-9.4985,13.9271,-15.1408,5.5941,-6.1041,6.0452,18.9796,11.4643,-5.1787,-3.6757,12.8122,18.4196,1.5550
457.0312,19.5782,-21.1492,-3.0652,15.7174,18.4429,-2.8117,-9.1224,15.7395,-11.2361,11.4791,2.9847,5.3629,21.4244,15.5019,-2.2709,-5.7850,15.6099,20.9555,5.0454
460.9375,16.4552,-19.5311,-3.3084,15.6510,20.1862,-4.4489,-10.7178,14.7702,-8.4751,16.3312,6.3643,3.9617,23.5694,17.3124,-3.0104,-6.8226,18.7059,20.7334,6.1082
464.8438,11.0297,-18.1069,-6.6796,12.8420,21.3072,-7.2484,-12.9682,11.2554,-7.4952,16.5799,3.6195,2.0265,24.9128,15.8702,-6.0983,-6.4957,21.3096,17.2552,4.2570
468.7500,5.3845,-18.1518,-11.4394,8.0699,21.1472,-10.8544,-13.5587,7.0882,-7.9717,11.1530,-1.4176,-0.1875,24.9046,12.3454,-8.3406,-5.3630,22.6422,11.9090,0.9152
472.6562,1.3863,-19.8715,-14.9638,3.3216,19.8192,-14.6112,-11.0882,4.4181,-8.7755,2.2517,-3.8575,-2.2584,23.5550,9.1612,-7.2597,-4.3151,22.6341,7.0295,-1.5808
476.5625,0.1410,-22.2828,-15.4827,0.4500,18.4745,-17.3042,-6.3006,4.2221,-8.5752,-6.0032,-1.3834,-3.6979,21.7375,8.1922,-3.0105,-3.9074,22.1499,4.4059,-1.6061
480.4688,1.7785,-23.7690,-12.9407,0.1193,18.7070,-17.4480,-1.5585,5.8827,-6.5449,-10.0880,4.4029,-4.2554,20.7699,9.4746,1.9707,-4.0524,22.4281,4.3024,0.7538
484.3750,5.5126,-23.0169,-8.5147,1.6655,21.3706,-14.2052,0.9998,7.9222,-2.8000,-9.0954,9.6413,-4.1789,21.4525,11.3292,5.1540,-4.2449,24.0717,5.5733,4.0114
488.2812,9.9352,-19.7906,-3.4531,3.7475,25.6904,-8.2929,1.0625,9.1483,1.6613,-5.0323,11.2522,-4.1450,23.2985,11.6784,5.9570,-4.0595,26.3712,6.6161,6.5114
492.1875,13.5153,-15.0694,1.6744,5.1635,29.4754,-1.9902,0.1843,9.2731,5.4697,-1.3625,8.8972,-4.8197,24.6698,9.4850,5.8839,-3.4780,27.5863,6.3823,7.5506
496.0938,15.1747,-10.4547,6.7951,5.2920,30.4638,2.0512,0.3184,8.6614,7.5800,-0.8576,4.5914,-6.3480,23.8781,5.2734,6.7696,-2.8125,26.1042,4.7918,7.5711
500.0000,14.6814,-7.2262,11.6490,4.0715,27.9025,2.4919,2.1829,7.6526,7.7909,-4.1355,0.7271,-8.1911,20.5003,0.5075,8.8345,-2.3667,21.6725,2.4665,7.4690
503.9062,12.6125,-5.6538,15.4779,1.7965,23.1653,0.2252,4.8822,6.1886,6.8243,-9.6925,-1.5974,-9.4811,15.8792,-3.5305,10.3853,-2.1886,15.7595,0.1853,7.7557
507.8125,9.8772,-4.9947,17.5107,-1.0089,18.8496,-2.2646,7.0211,4.0648,5.9303,-15.2072,-2.6535,-9.6409,12.3228,-6.4561,9.4584,-2.1354,10.6982,-1.4855,8.2947
511.7188,7.1159,-4.1190,17.7891,-3.6510,16.9397,-2.7106,8.1859,1.4504,6.2317,-19.1156,-2.8925,-8.7688,11.5122,-8.6694,5.8920,-2.1310,8.1760,-2.2484,8.7016
515.6250,4.4222,-2.2830,17.4343,-5.4407,17.3823,-0.6718,9.3429,-0.9522,8.1554,-21.3814,-1.9463,-7.4549,13.2847,-10.7045,1.8706,-2.2891,8.1565,-1.9986,8.8745
519.5312,1.6085,0.4874,17.8961,-6.0303,18.1618,2.3246,11.7348,-2.3762,11.2434,-23.0184,1.0681,-6.1737,15.7343,-12.6883,0.3238,-2.7090,9.0225,-0.8268,9.0746
523.4375,-1.2234,3.5882,19.6933,-5.6893,16.8401,4.2130,15.2945,-2.6978,14.4177,-24.8275,6.2270,-4.7845,16.5808,-14.3153,2.5069,-3.1084,8.8204,0.9002,9.4993
527.3438,-3.3617,6.3296,21.7357,-5.2064,12.4011,4.1979,18.1427,-2.6929,16.5187,-26.3774,11.8574,-2.6220,14.7833,-15.2185,6.8890,-2.7052,6.6713,2.5645,9.8434
531.2500,-3.8324,8.2673,21.9434,-5.3739,5.9985,3.4071,17.8338,-3.5130,16.8029,-26.1012,15.1289,0.8225,11.1742,-15.3065,10.3844,-0.6199,3.3005,3.5371,9.3834
535.1562,-2.2930,9.1405,18.8018,-6.4093,0.0566,3.8011,13.4252,-5.7551,15.1393,-22.5696,13.9510,5.1667,7.6593,-14.7737,10.8987,3.3851,0.3362,3.5022,7.5970
539.0625,0.2035,8.6155,12.6312,-7.8044,-3.5495,6.2427,6.5797,-8.9162,11.8582,-16.0643,8.6566,9.0157,5.6487,-13.8678,8.9679,8.3993,-1.0309,2.5873,4.7589
542.9688,1.3208,6.2565,5.4987,-8.7710,-4.8049,9.4045,0.5985,-11.7306,7.4287,-9.1826,1.9688,10.6889,4.9831,-12.7232,7.0230,12.6076,-0.9662,1.1669,1.8964
546.8750,-1.3757,1.9275,-0.2191,-8.9218,-5.3600,10.5658,-1.9911,-13.1350,2.2208,-5.7370,-2.8783,9.3500,4.2028,-11.4269,6.9236,14.2753,-0.7888,-0.4755,0.0454
550.7812,-8.7870,-3.6522,-3.4906,-8.5695,-7.0364,7.7750,-1.3690,-13.0518,-3.4923,-8.4006,-4.4292,5.7097,1.9208,-10.1755,8.0035,12.8634,-1.8432,-2.2767,-0.5779
554.6875,-19.3023,-8.7814,-5.1650,-8.3354,-10.2609,1.6422,-0.2402,-12.3284,-9.3518,-16.6021,-3.8665,1.7194,-1.8323,-9.2466,7.5117,9.4669,-4.3496,-4.1512,-0.7290
558.5938,-29.2805,-11.4407,-6.9746,-8.3923,-13.6777,-4.7847,-1.6053,-11.9118,-14.7656,-26.2687,-3.7552,-0.5956,-5.4004,-8.7192,3.2302,6.1991,-7.1334,-5.6168,-1.4128
562.5000,-34.8738,-10.4761,-9.8713,-8.0687,-15.2233,-8.1014,-6.2649,-12.0060,-18.9960,-31.9154,-5.7441,-0.3603,-6.6347,-8.2127,-3.9918,4.9025,-8.4361,-5.7514,-2.8956
566.4062,-34.1452,-6.4810,-13.1252,-6.2821,-13.7762,-7.0141,-12.1129,-11.9605,-21.4951,-29.9478,-9.1613,1.7304,-4.5017,-7.0047,-10.2009,6.0681,-7.1812,-3.7167,-4.3661
570.3125,-28.1665,-1.6158,-14.9538,-2.5292,-10.0610,-3.2353,-15.8211,-10.9634,-22.2831,-21.0295,-11.6809,4.0691,0.0801,-4.5752,-11.2008,8.6986,-3.7515,0.4630,-4.6420
574.2188,-20.4023,1.6829,-14.1374,2.4299,-6.1118,-0.0676,-15.5450,-8.8639,-22.0735,-9.8146,-11.4738,5.3392,4.8160,-1.1736,-6.1668,11.1546,0.2651,5.5488,-3.3729
578.1250,-14.7673,2.2847,-11.2115,6.9118,-3.7557,0.2159,-12.4191,-6.3281,-21.9806,-2.0744,-8.9867,5.3559,7.5815,2.1467,1.0365,12.3057,3.1260,9.6413,-1.6628
582.0312,-13.5625,1.0993,-8.1773,9.5483,-3.3283,-1.9021,-9.6125,-4.1568,-22.9216,-1.0953,-6.7899,4.9535,7.7782,4.1986,4.2367,12.1405,3.9960,11.4062,-1.4329
585.9375,-16.4916,0.3650,-6.9301,10.4504,-3.5955,-3.7369,-9.7381,-2.4131,-25.0642,-5.8064,-7.5629,5.0953,6.5349,4.5818,-0.5235,11.4628,3.3074,11.0886,-3.9093
589.8438,-21.2004,1.9480,-7.7246,11.2407,-2.8682,-2.7721,-12.7702,-0.2487,-27.6975,-11.9027,-11.8681,5.9731,5.7019,4.0820,-11.7616,11.0358,2.2743,10.4363,-8.4477
593.7500,-24.8154,5.8750,-8.9945,13.7609,-0.3658,1.1061,-16.1820,3.2858,-29.6645,-15.0720,-17.5775,6.8266,6.4721,4.1201,-23.2517,10.9264,2.0165,11.4291,-12.7553
597.6562,-25.4427,10.1841,-8.7213,18.4029,3.2399,5.3623,-17.1494,8.1035,-30.1315,-13.9129,-21.4731,6.5960,8.6591,5.6093,-28.3062,10.5643,2.9341,14.6876,-14.4850
601.5625,-22.8066,12.2214,-6.2329,23.4659,6.4495,6.7906,-14.9497,12.6942,-29.2073,-10.4210,-21.7533,4.8373,11.0605,8.1412,-24.5075,9.3883,4.6782,18.8034,-13.0217
605.4688,-17.8918,10.4501,-2.9226,26.2250,8.1366,4.1215,-11.5496,15.0146,-27.9669,-7.8379,-19.4190,2.1348,12.4894,10.2394,-15.3531,7.4602,6.5786,21.2258,-10.0323
609.3750,-12.0842,5.4818,-1.2509,25.0200,8.3332,-0.8753,-9.9205,14.0731,-27.7837,-7.7109,-17.4101,-0.3196,12.6203,10.5612,-7.6121,5.4907,8.1186,20.1493,-8.2714
613.2812,-6.4586,-0.3424,-2.8008,20.7398,8.0361,-4.7270,-11.5207,10.9159,-29.3373,-8.5887,-18.1628,-1.6160,12.0719,9.0963,-6.4244,4.2570,9.1408,16.0095,-9.5049
617.1875,-1.5543,-4.4243,-6.9353,16.4338,8.3095,-4.9894,-15.0467,8.0860,-31.9341,-7.3951,-21.5169,-1.7474,11.8183,7.3298,-11.8029,3.9389,9.7686,11.4091,-13.1361
621.0938,2.4688,-5.3308,-11.1192,15.2088,9.4943,-2.1807,-17.4553,7.8454,-33.6539,-2.2868,-24.6122,-1.4647,12.5124,7.1462,-18.9940,3.9674,10.2460,9.4507,-16.5865
625.0000,5.6210,-3.2501,-12.6320,17.9690,11.1518,0.6563,-16.3491,10.5189,-32.3455,5.4616,-23.8551,-1.5177,14.2484,9.3087,-22.1653,3.5352,10.8654,11.6691,-17.1156
628.9062,8.0333,0.6009,-10.3291,22.7621,12.6796,0.4465,-11.7351,14.3087,-26.9324,12.2214,-17.4671,-1.9412,16.8156,12.7689,-18.4798,2.3314,11.9661,17.0754,-13.6690
632.8125,10.0139,4.9280,-5.1513,26.2867,13.9666,-3.3434,-5.7742,16.7718,-18.2190,14.8780,-6.7599,-1.9945,20.0659,15.4352,-9.5991,0.8599,13.8718,22.9883,-7.3880
636.7188,12.0185,8.8911,0.8441,26.4205,15.4817,-8.1120,-0.8793,16.7885,-8.6338,13.4236,4.6857,-0.8085,24.0002,15.8324,0.1381,0.0463,16.7057,26.9748,-0.5290
640.6250,14.4347,11.9998,6.0052,23.8054,17.7495,-10.0205,2.1286,15.4138,-0.9829,11.0209,13.2058,1.8014,28.5292,14.3103,7.0643,0.4489,20.2099,28.4232,5.2122
644.5312,17.3073,13.8046,9.9273,21.2607,20.7378,-6.9436,4.2714,14.9108,3.0678,11.3471,17.0110,5.0381,33.2225,12.7811,10.3633,1.7380,23.7685,28.6221,9.6110
648.4375,20.2424,13.9327,13.1129,21.5048,23.7553,-0.2015,7.0142,16.7771,3.8467,15.3582,16.7099,7.6003,37.3787,13.1547,11.6757,2.8955,26.7084,29.4183,13.4645
652.3438,22.6164,12.5327,16.0010,24.9960,25.9732,6.2557,10.6167,20.4277,3.3214,20.2441,14.3678,8.5617,40.4163,15.7341,12.9438,2.9930,28.6938,31.6011,17.3738
656.2500,23.9636,10.6102,18.3671,29.5725,27.1013,8.6031,13.7895,23.6548,3.7573,21.6290,12.0502,7.9642,42.2416,18.8918,14.5873,1.9231,29.9052,34.2773,20.9424
660.1562,24.2513,9.6787,19.6093,32.1104,27.5880,5.7795,14.9597,24.4764,6.2556,17.3508,10.8909,6.6767,43.2265,20.3114,15.5022,0.4945,30.8232,35.6273,23.0994
664.0625,23.8220,10.7425,19.5226,30.8250,28.1308,0.0917,13.9346,22.7886,10.1214,9.6679,11.0511,5.6679,43.7702,18.7791,14.5992,-0.1840,31.7565,34.3215,23.1806
667.9688,23.0426,13.3559,18.6939,26.3949,28.9183,-4.5750,12.3494,20.3800,13.4533,3.8425,12.1836,5.2849,43.8251,15.0494,12.2553,0.4682,32.4872,30.4314,21.7017
671.8750,21.9506,15.6573,18.0546,21.1189,29.3010,-5.5451,12.3684,19.2646,14.5236,3.9715,13.8048,5.0890,42.8388,11.0785,10.2639,2.1081,32.3506,25.1894,20.0489
675.7812,20.2041,15.5883,17.9897,16.9385,28.2474,-3.0980,14.7196,19.7556,12.9895,9.3376,15.3460,4.3173,40.2314,8.2934,10.3241,3.7870,30.7304,19.9454,19.3228
679.6875,17.4187,12.4970,17.9029,14.0159,25.2619,-0.0007,17.8375,19.9863,10.1137,14.3933,16.1136,2.5496,36.0404,6.3862,12.4735,4.6861,27.6114,15.2745,19.3792
683.5938,13.6551,7.8517,16.7589,10.9895,20.9951,0.6913,18.9970,17.3925,7.8786,12.7321,15.4828,0.0447,31.1766,3.6813,14.9225,4.6737,23.7544,10.9456,18.9791
687.5000,9.6673,4.3691,14.1959,6.5538,16.9816,-2.1066,16.5828,10.9870,7.6536,2.1626,13.3164,-2.4623,27.0131,-1.2148,15.4995,4.2835,20.3315,6.6391,16.9844
691.4062,6.6495,4.0998,11.1789,0.9073,14.6332,-6.7712,11.5770,2.5133,9.3650,-13.0901,10.2448,-4.2537,24.5686,-7.8911,13.4879,4.2083,18.2634,2.6503,13.5665
695.3125,5.5669,6.9267,9.4778,-4.2092,14.2477,-10.1624,6.9263,-4.5750,11.7270,-24.9849,7.4614,-4.9760,23.8941,-14.0838,10.2810,4.7722,17.7215,-0.1093,10.3190
699.2188,6.4788,10.7058,10.2835,-6.8932,14.8168,-9.7928,5.2360,-7.5748,13.3126,-27.2996,6.0831,-4.6088,24.1267,-17.2343,8.2896,5.7960,18.1274,-0.8167,9.0756
703.1250,8.3348,13.0128,13.1219,-6.6458,14.8061,-5.4560,6.7106,-6.4771,13.6429,-20.0949,6.5322,-3.2092,24.1524,-16.4286,9.0231,6.8913,18.6060,0.5157,10.3806
707.0312,9.4677,13.1401,16.0902,-4.7439,13.3112,0.7144,9.1161,-3.8122,13.4911,-9.5858,8.4079,-0.7747,23.3500,-13.1300,11.9415,7.8622,18.5301,2.9539,12.9261
710.9375,8.5615,12.7172,17.3536,-3.0998,10.6920,5.6679,9.8533,-2.5224,14.2005,-3.4804,10.8998,2.5983,21.8553,-10.0794,15.0014,8.8511,17.7739,5.3182,14.5100
714.8438,5.5264,14.3807,16.7070,-2.6164,8.2018,7.3313,8.3918,-3.6076,16.5429,-5.3187,13.3424,6.4412,20.2028,-9.2270,16.3844,10.1485,16.5574,7.0312,13.7907
718.7500,1.6956,19.4965,15.8305,-2.4869,6.9127,5.7738,6.9298,-5.4732,19.9715,-12.0984,15.4306,9.8849,18.7146,-10.3519,15.9332,11.8894,15.0891,8.3917,11.3972
722.6562,-0.8697,26.7573,16.8906,-1.0630,6.7941,3.0022,8.5764,-5.4964,22.8114,-16.9083,16.9850,12.0547,17.1818,-11.4525,15.1206,13.9275,13.3348,10.0453,9.4376
726.5625,-0.6221,32.8416,20.5439,2.4637,6.6652,1.6142,14.4728,-2.4746,23.2450,-14.4197,17.6184,12.6505,15.0935,-10.5408,15.6395,15.9614,11.0902,12.1517,9.7551
730.4688,2.4270,34.7031,25.0111,7.0520,5.0626,3.1800,22.2679,2.1176,20.3974,-4.9528,16.7583,12.2288,12.1814,-7.3404,17.8421,17.7382,8.2584,14.0284,12.3373
734.3750,6.5595,31.7508,27.1147,10.4065,1.3585,7.3121,27.3731,5.1477,14.8019,5.9405,14.1203,11.8717,8.7811,-3.5117,20.3415,19.1180,5.0729,14.6325,15.1952
738.2812,9.2804,26.2443,24.5995,10.7365,-3.7061,11.9404,26.1873,4.3069,8.0033,11.8708,10.2241,12.4223,5.6862,-1.2741,21.0787,19.9824,2.0712,13.4849,15.8508
742.1875,8.8196,21.6253,17.9526,8.2223,-8.4513,14.6070,18.8283,0.0137,1.6585,10.4322,6.4048,13.8660,3.6162,-1.6163,18.9516,20.1780,-0.1587,11.2255,13.2599
746.0938,5.2742,20.1065,10.2470,4.9476,-11.3154,14.0028,9.2050,-4.8333,-3.2304,4.7351,4.1472,15.3735,2.7460,-3.5796,14.6793,19.6624,-1.2646,9.2793,8.6378
750.0000,0.6339,21.3680,5.0492,3.3256,-11.7783,10.8178,2.3107,-7.0627,-6.5175,0.6710,4.1652,16.0073,2.6729,-5.1502,10.2472,18.7645,-1.2585,8.8718,4.5268
753.9062,-2.3736,23.2556,3.9505,4.3005,-10.5434,7.3559,0.7771,-5.6031,-8.5880,2.3020,5.9248,15.5318,2.8124,-4.9404,7.4398,18.2420,-0.4414,10.1951,2.8523
757.8125,-1.9009,23.7564,5.5801,6.7799,-8.9392,6.1085,3.2733,-2.1209,-9.8944,9.0666,7.9968,14.6431,2.8577,-3.2175,6.6468,18.8973,0.7761,12.3948,3.4953
761.7188,1.9788,22.5700,6.8018,8.7151,-8.0243,8.1581,5.8603,0.5285,-10.7308,16.8106,8.9785,14.3877,2.9199,-1.4539,6.8286,20.9127,2.0256,14.3468,4.4687
765.6250,7.4592,21.0508,5.1094,8.8759,-8.0105,12.4407,5.1159,0.6957,-11.3151,21.4607,8.2910,15.2174,3.2763,-0.8745,6.5486,23.4312,3.0552,15.5263,3.4992
769.5312,12.2237,20.7326,0.3690,7.8254,-8.3068,16.3851,0.5690,-0.8104,-11.9542,22.1305,6.3031,16.4696,4.0086,-1.3188,5.1677,24.8704,3.7584,16.2272,-0.2566
773.4375,14.8041,21.8216,-5.3321,7.3205,-8.0447,17.5341,-5.3238,-1.5936,-13.0316,21.1582,3.8188,16.7596,4.8821,-1.4234,3.2576,23.9273,4.1913,16.9980,-5.6588
777.3438,15.1439,22.9842,-9.4431,8.7141,-6.6714,15.0703,-9.4040,0.1411,-14.7810,21.3190,1.4544,15.0304,5.5679,0.0528,1.9902,20.6024,4.5549,17.8764,-10.5080
781.2500,14.0924,22.5595,-10.8238,11.7554,-4.2598,10.2101,-10.3087,3.9585,-17.0624,22.8659,-0.5873,11.4401,5.9647,2.9569,2.0726,16.3980,5.0893,18.1827,-13.1244
785.1562,12.4005,20.0617,-10.3090,14.7968,-1.4284,5.2264,-9.2738,7.4852,-19.3938,23.1147,-2.3062,7.3413,6.2855,5.6776,3.0885,13.3782,5.8916,17.1132,-13.3541
789.0625,10.1481,16.6056,-9.7131,16.1802,0.9978,1.8449,-8.7951,8.3451,-21.2712,19.0088,-3.6537,4.3080,6.7982,6.3966,3.7214,12.6719,6.7783,14.6120,-12.3668
792.9688,7.1033,13.8777,-10.2767,15.5749,2.3759,0.2034,-10.4391,6.1039,-22.5336,10.4385,-4.6084,2.9369,7.4618,4.6083,2.6473,13.5431,7.3425,11.6891,-11.6042
796.8750,3.6360,12.5971,-11.8664,14.1214,2.5190,-0.8940,-13.6418,2.6158,-23.4529,1.3193,-5.4898,2.3707,7.8305,1.6074,-0.5578,13.8372,7.2348,9.7983,-11.8103
800.7812,1.2314,11.8923,-13.4387,13.3094,1.7740,-2.7132,-16.3553,0.5340,-24.4411,-2.7702,-7.0262,0.9572,7.3781,-0.4948,-5.0838,11.5894,6.5028,9.7224,-12.8180
804.6875,1.8930,10.2114,-14.1513,13.6283,0.8790,-5.3888,-16.8175,1.2591,-25.5913,1.2860,-9.8221,-2.4272,6.0083,-0.4152,-9.2792,6.6265,5.7129,10.9080,-14.0189
808.5938,6.6664,6.9823,-14.0337,14.2046,0.6416,-7.7763,-14.8869,4.0076,-26.4360,11.5065,-13.4952,-7.3944,4.3084,1.3620,-11.4821,0.8948,5.6986,11.8774,-14.9079
812.5000,14.4055,3.4903,-13.6746,13.7404,1.5620,-8.4689,-11.9134,6.6843,-26.1570,21.8696,-16.2905,-12.1703,3.2860,3.1186,-10.8190,-2.8431,7.0518,11.4533,-15.2098
816.4062,21.9351,2.0351,-13.3645,11.8893,3.5951,-7.1136,-9.4486,7.7173,-24.1271,26.4068,-15.8269,-14.7649,3.7483,3.4284,-7.5858,-3.0339,9.7060,9.8074,-14.6438
820.3125,25.8096,3.9234,-12.6415,9.7895,6.2134,-4.8998,-8.0334,7.2727,-20.3939,23.2939,-10.7568,-14.3359,5.7938,2.3647,-3.0577,-0.5516,12.9333,8.4231,-12.7989
824.2188,24.5853,7.9640,-10.7587,9.1978,8.7546,-3.7750,-7.0849,6.8729,-15.7429,15.8991,-2.1895,-11.7631,8.7999,1.3708,1.1767,1.8703,15.7862,8.9215,-9.4406
828.1250,19.9463,10.8718,-7.6542,10.9127,10.8302,-4.9999,-5.8265,7.8535,-11.2907,10.0882,6.3903,-9.0539,11.8833,1.9191,4.0499,1.6241,17.6723,11.6489,-5.0346
832.0312,15.7081,9.4917,-4.4454,13.8518,12.4962,-8.2191,-4.2693,10.0600,-7.8962,9.9170,11.0068,-8.0509,14.4297,4.1190,5.5802,-1.8424,18.6333,15.1699,-0.9003
835.9375,15.2504,3.2285,-2.8317,15.6550,14.0489,-11.8001,-3.2840,11.9239,-5.7856,14.9388,9.7663,-9.3715,16.2688,6.4665,6.7956,-6.6134,19.1270,17.1323,1.3787
839.8438,19.1642,-5.2184,-3.7758,14.4166,15.6130,-14.1387,-3.7051,11.8233,-4.5896,20.9658,4.2844,-12.2468,17.4236,6.9606,8.9673,-9.7268,19.5050,15.8952,0.9964
843.7500,24.8481,-11.4736,-6.5528,10.1779,16.8906,-14.8208,-5.3335,9.5233,-3.6765,23.4331,-1.2030,-15.2205,17.7685,4.6662,12.5790,-9.3512,19.6387,11.7067,-1.3794
847.6562,28.4122,-12.3236,-9.0431,4.9641,17.3369,-14.6688,-6.8022,6.4461,-2.4853,20.6618,-2.5651,-17.0801,17.0100,0.4442,16.7567,-6.0742,19.0292,6.5566,-3.9008
851.5625,27.5309,-7.7166,-9.1329,1.3144,16.6757,-14.6725,-6.4861,4.5445,-0.6568,14.6533,1.5466,-17.3615,15.0774,-3.7164,19.6953,-2.3625,17.3380,2.8424,-4.7080
855.4688,23.1500,-0.5413,-6.1511,0.4605,15.3311,-14.7936,-3.6967,4.7431,2.0025,9.1425,8.9764,-16.2272,12.5579,-6.1803,19.9391,-0.6664,14.9008,1.8493,-3.1256
859.3750,18.7801,5.4910,-1.2254,1.5623,14.3430,-13.7743,0.8446,6.2411,5.5293,6.7115,15.7673,-14.0464,10.6694,-6.7524,17.6515,-1.6470,12.7515,3.1098,0.0224
863.2812,17.9053,8.1802,3.6680,2.5215,14.7064,-10.2320,5.6016,7.2037,9.6741,7.2408,18.9597,-11.1447,10.5983,-6.5641,14.8407,-3.8489,12.0453,4.9713,3.1888
867.1875,21.4384,7.7288,7.1130,1.6292,16.5600,-4.1712,9.3041,6.1944,13.7473,8.6322,18.3922,-7.8982,12.6023,-6.9881,14.1619,-4.9682,13.2498,5.7968,5.2932
871.0938,27.0905,5.8349,8.9590,-1.2958,18.8583,2.4113,11.5617,3.1401,16.7014,8.8470,16.2835,-4.9279,15.5835,-8.5752,17.0048,-3.6436,15.6972,4.8716,6.3371
875.0000,31.0508,4.0530,9.8524,-5.0884,19.8738,6.4979,12.5787,-0.8853,17.5886,7.4115,15.1590,-3.0246,17.5865,-10.8713,22.2653,-0.3695,17.8745,2.4871,6.9930
878.9062,30.6484,2.8822,10.2025,-8.3990,18.2764,6.0013,12.4339,-4.7063,16.2106,5.2682,15.9260,-2.7063,16.9955,-13.1165,26.8600,3.0878,18.3067,-0.5940,7.6472
882.8125,26.0060,2.1710,9.6735,-10.7256,14.0768,1.2508,10.8009,-7.8961,13.5086,3.4077,17.6191,-3.7250,13.6338,-15.0461,27.7996,5.1790,16.4634,-3.6682,7.8643
886.7188,19.5818,2.1396,7.7467,-12.4460,8.7603,-5.1275,7.5145,-10.6922,11.2965,1.7349,18.8083,-4.9970,8.9667,-16.9944,24.3963,5.7149,13.0867,-6.1954,6.8538
890.6250,14.1709,3.7885,4.8080,-13.9606,4.4804,-9.8695,3.4528,-13.1855,11.3416,-0.7299,19.2197,-5.1477,5.2201,-19.2303,18.9344,5.7933,9.7338,-7.6029,4.5557
894.5312,11.0565,8.1162,2.5930,-14.8790,2.8290,-11.0315,0.7200,-14.7023,14.2806,-4.5170,19.9896,-3.3649,3.9947,-21.2394,15.1828,6.6832,7.8454,-7.2511,2.2922
898.4375,9.7066,14.8003,3.2836,-14.1173,3.9793,-8.8400,1.5967,-14.1169,19.0629,-8.5320,22.2696,0.0429,5.3099,-21.7657,15.7400,8.6726,7.9335,-4.8215,2.1888
902.3438,9.0082,21.6500,7.7668,-10.8976,6.7107,-4.9564,6.8347,-10.9235,23.3472,-10.2503,25.4854,3.8095,7.6873,-19.7383,20.1425,10.8355,9.3596,-0.8584,5.6008
906.2500,8.7238,25.6012,14.4652,-5.7571,9.2068,-0.9418,14.6394,-6.0942,24.6942,-7.3491,27.0166,6.4962,9.1386,-15.3419,25.1594,11.8532,10.7627,3.1203,11.7339
910.1562,9.7403,24.7098,19.8957,-0.5881,10.0384,2.7458,21.3449,-1.8203,21.8721,0.3896,23.9307,7.3454,8.3343,-10.2482,27.0803,11.1435,10.8165,5.2808,17.6785
914.0625,12.8302,19.6511,20.7969,2.4642,8.7228,6.4690,23.5297,-0.1633,15.5067,10.3765,15.5810,6.6210,5.1990,-6.6700,24.3077,9.3487,8.8618,4.5826,20.0604
917.9688,17.0747,13.4854,16.3523,2.4170,5.6504,10.2816,20.1306,-1.6263,7.7048,18.3345,4.9122,5.2661,0.6744,-5.8963,18.3478,7.8183,5.1272,1.5401,17.2345
921.8750,19.5625,9.7547,8.8214,0.0435,1.6256,13.1490,13.0174,-4.8179,0.9077,20.5660,-2.8738,4.2127,-4.0120,-7.4554,12.5364,7.5752,0.5216,-2.0121,10.4302
925.7812,17.0182,10.2629,2.0390,-2.8250,-2.5574,13.4014,5.6180,-7.5285,-3.3311,15.9425,-3.6148,3.8802,-7.9930,-9.5803,9.5535,8.6318,-3.8115,-4.0703,2.9740
929.6875,8.3715,14.1245,-1.1422,-4.6839,-6.2704,10.1810,0.6606,-8.3695,-4.9618,6.4690,2.8754,4.1632,-10.9555,-10.5948,9.6419,10.1611,-6.9493,-3.7302,-1.8766
933.5938,-3.7043,18.6613,-0.5818,-5.2724,-9.0192,4.6696,-1.2706,-7.6543,-5.1887,-3.7402,12.4493,4.7714,-12.9448,-10.0899,10.7961,11.2737,-8.4871,-1.6517,-2.9324
937.5000,-13.7164,21.3341,1.4568,-5.3151,-10.4431,-0.0859,-1.4068,-6.8319,-5.6185,-10.3440,19.2217,5.5327,-14.0902,-8.9601,10.5977,11.6760,-8.6023,0.5891,-1.5178
941.4062,-16.4329,21.2252,2.2740,-5.4292,-10.4432,-0.8863,-1.2029,-7.0120,-7.3654,-10.5268,19.3078,6.3911,-14.4909,-8.3458,8.1284,11.6716,-7.8778,1.7187,-0.1744
945.3125,-10.1690,19.1273,0.7414,-5.2708,-9.3090,3.4792,-0.9811,-7.8843,-10.5927,-3.9725,13.0687,7.1825,-14.2460,-8.4519,4.4627,11.6129,-6.9551,1.6112,-0.7145
949.2188,1.9545,16.4975,-2.1764,-3.7511,-7.6359,11.2107,0.0116,-7.9812,-14.6305,7.0940,4.3878,7.5142,-13.4603,-8.2909,1.4984,11.4078,-6.1714,1.1695,-3.0902
953.1250,13.7015,14.3529,-4.6168,-0.1584,-6.0005,18.4028,2.2791,-6.0509,-18.4639,18.6831,-2.2757,6.9753,-12.1447,-6.5669,0.2445,10.6009,-5.3821,1.4604,-5.7897
957.0312,19.3060,12.9904,-5.5703,4.8566,-4.6046,21.3335,4.8147,-2.3192,-21.2449,26.4503,-4.7728,5.5591,-10.1308,-2.9101,0.0410,8.9714,-4.1007,2.8892,-7.2427
960.9375,16.6792,12.4834,-5.6717,9.4274,-3.1888,18.6322,5.2389,1.5165,-22.5765,27.4283,-4.0746,3.9109,-7.1758,1.6498,-0.7043,7.0524,-1.8953,5.0775,-7.0240
964.8438,8.3130,13.1618,-6.4371,11.7830,-1.3130,11.9524,1.4686,3.6326,-22.5280,21.4802,-2.7577,3.0867,-3.2677,5.4184,-2.9953,5.9897,1.2131,7.4376,-5.9595
968.7500,-0.4652,15.3986,-8.7178,11.6909,1.2058,4.8345,-6.3497,3.6508,-21.4980,11.6754,-2.6836,3.8981,1.1111,7.3702,-6.3004,6.7222,4.6484,9.8167,-5.2280
972.6562,-4.5895,18.8547,-11.7757,10.7798,4.0651,0.6197,-15.3032,3.0644,-20.0560,3.0799,-3.7939,6.2926,5.0584,7.9291,-8.9750,9.1079,7.5820,12.5689,-5.3400
976.5625,-1.7812,22.0490,-13.7939,11.3522,6.6570,0.7491,-21.2327,4.0706,-18.8114,0.2918,-4.7667,9.2588,7.7254,8.5077,-9.6306,11.7561,9.4489,15.9838,-5.8511
980.4688,6.7607,22.9738,-13.3624,14.5583,8.5139,4.3412,-21.3534,7.7085,-18.2707,4.9710,-4.6346,11.3859,8.8803,10.1928,-8.2293,12.8176,10.3015,19.6491,-5.9333
984.3750,17.4906,20.5352,-10.6430,19.3961,9.6440,9.0216,-16.0938,12.8371,-18.6505,14.8657,-3.7507,11.7150,9.1127,12.7228,-5.9788,11.2166,10.7303,22.4362,-5.1801
988.2812,26.4742,15.6923,-7.2206,23.3945,10.4835,12.2865,-8.7960,16.8568,-19.6979,25.0650,-3.2384,10.2948,9.4604,14.6751,-4.1913,7.4222,11.4070,23.2604,-3.8923
992.1875,31.0437,11.1878,-4.7983,24.4925,11.5281,12.5952,-3.4953,17.6699,-20.6510,30.8086,-3.5405,8.0602,10.7077,14.7473,-3.1760,3.1661,12.6127,22.0361,-2.6434
996.0938,30.5469,9.8068,-3.8728,22.6417,12.9888,9.7811,-2.3822,15.3481,-20.4592,30.1285,-3.5536,6.1507,12.8946,13.0488,-2.1633,0.2967,14.1265,19.9794,-1.6092
1000.0000,26.2152,12.3569,-3.5058,19.8516,14.7729,4.8383,-4.6998,12.1763,-18.2495,24.6853,-1.3216,5.1707,15.4301,11.2605,-0.2851,-0.4112,15.5541,18.8828,-0.3369
1003.9062,20.4833,16.9423,-2.3239,18.6326,16.7720,-0.6358,-7.6746,11.0143,-13.8401,18.3881,4.1668,4.9005,17.7027,11.4426,2.3493,0.3371,16.7929,19.8359,1.8131
1007.8125,16.0609,20.2077,0.1794,20.0674,19.1229,-5.0800,-8.5908,13.2385,-8.0006,14.8635,11.6218,4.6073,19.6542,14.4109,4.5494,0.9619,18.1995,22.3814,4.9760
1011.7188,14.9706,19.7060,3.1924,23.0292,22.1195,-7.5141,-6.4378,17.8272,-2.2372,15.5021,17.8505,3.6703,21.7993,18.9993,5.0932,0.1329,20.2664,24.8096,8.5113
1015.6250,17.8021,15.6266,5.3446,25.1354,25.7911,-7.8363,-2.1146,22.2277,1.8729,19.2109,19.8171,2.0524,24.6545,22.8326,4.0169,-2.3872,23.0575,25.4197,11.4417
1019.5312,23.5020,10.5853,5.9629,24.6412,29.5348,-6.7449,2.6142,24.2506,3.4813,23.6724,16.8615,0.3183,28.0751,24.0177,2.9176,-5.6905,25.9061,23.7907,13.2292
1023.4375,29.8952,7.6655,5.6869,21.7593,32.2315,-5.2951,6.3674,23.5024,2.9544,26.9139,11.3413,-0.7535,31.1212,22.4228,3.8451,-8.3737,27.7118,21.0789,14.1881
1027.3438,34.7513,8.2443,5.9028,18.3909,32.8983,-4.3261,8.6780,21.3344,1.7240,28.0452,7.1351,-0.6600,32.6460,19.5637,7.6065,-9.3683,27.6913,19.1061,15.1404
1031.2500,36.8213,11.2432,7.5190,16.5449,31.4322,-4.1201,9.7020,19.5090,1.5370,26.9548,7.0818,0.5475,32.1660,17.2529,12.9223,-8.4256,26.0179,18.9466,16.6057
1035.1562,36.2333,14.2561,10.1852,16.7380,28.8281,-4.5065,9.7089,18.7584,3.5049,23.6838,11.2220,2.3158,30.2858,16.1482,17.2536,-6.0772,23.8130,20.0982,18.2519
1039.0625,34.0581,15.5153,12.6432,17.6266,26.6038,-5.2630,8.9544,18.3716,7.5027,18.3213,17.0420,3.8853,28.2801,15.3685,18.7421,-3.2483,22.4247,20.8543,19.1280
1042.9688,31.4459,15.0675,13.8671,17.0925,25.7926,-6.4055,7.9388,17.0160,12.2708,11.5387,21.3787,4.6437,27.1321,13.4210,17.7074,-0.8227,22.4992,19.5517,18.5112
1046.8750,29.0132,14.2982,13.9378,13.8617,26.2534,-8.0550,7.5237,13.9907,16.1508,5.0381,22.4641,4.3861,26.8069,9.6024,16.4153,0.6465,23.5452,15.7284,16.6344
1050.7812,26.8712,14.3719,13.8439,8.3845,26.8458,-10.0043,8.4863,9.8428,17.9992,1.0853,20.6736,3.3948,26.3687,4.6817,17.2025,1.0476,24.3304,10.3471,14.6261
1054.6875,25.0863,15.0383,14.3931,2.3701,26.3452,-11.4800,10.7293,5.9009,17.7265,1.0901,17.6975,2.3102,24.8497,0.3145,20.4204,0.6724,23.8073,5.0081,13.6554
1058.5938,23.9740,14.8664,15.2606,-2.5470,24.3782,-11.5212,12.9043,3.2028,16.1760,4.2324,15.0782,1.8155,22.1330,-2.2876,23.8901,0.0373,21.8467,0.8331,13.9681
1062.5000,23.8286,12.6768,15.1159,-5.9124,21.6329,-9.8434,13.0405,1.7388,14.4856,7.4115,13.3512,2.2469,19.0767,-3.3123,24.4191,-0.4053,19.2207,-2.1310,14.6274
1066.4062,24.3044,8.8748,12.8084,-8.5231,19.1906,-7.4830,9.9452,0.5828,13.3963,6.9527,12.2762,3.3399,16.7515,-4.1452,20.2847,-0.5331,16.8852,-4.6357,14.2074
1070.3125,24.1354,5.4497,8.5895,-11.5415,17.5582,-6.4835,4.3571,-1.2938,12.9477,1.0958,11.6145,4.3201,15.4428,-6.2044,12.7822,-0.5910,15.1844,-7.4379,11.9058
1074.2188,21.7058,4.5471,4.2287,-15.4502,16.2385,-8.5620,-1.1718,-4.2440,12.6929,-8.5153,11.5219,4.3755,14.3160,-9.7702,5.6073,-0.8911,13.6514,-10.6758,8.1939
1078.1250,16.2539,6.7587,1.7904,-19.6566,14.2211,-13.6071,-3.7895,-7.7864,12.1944,-17.5921,12.1698,3.2648,12.1117,-13.7320,2.4823,-1.3467,11.5689,-13.8426,4.5041
1082.0312,8.8053,10.5530,2.0218,-22.9464,10.9882,-19.2247,-2.2535,-11.0624,11.4003,-21.8606,13.0913,1.6401,8.3398,-16.3965,4.7607,-1.2381,8.7916,-16.2355,2.2304
1085.9375,1.9447,13.3555,3.7168,-24.3151,7.1505,-21.9391,2.1744,-13.4156,10.6352,-19.8225,13.0982,0.7700,3.9422,-16.6698,10.7154,0.4597,6.0853,-17.4083,1.8424
1089.8438,-1.6499,13.4415,4.6602,-23.5221,4.1070,-19.4225,6.5587,-14.6229,10.2515,-13.6515,11.0802,1.7484,0.7567,-14.7083,16.9114,4.2757,4.6140,-17.2790,2.7591
1093.7500,-0.9771,11.1487,3.4266,-21.0709,2.9302,-12.2224,8.2645,-14.7276,10.2307,-7.5823,7.0732,4.6834,0.0857,-11.6414,20.5218,9.5228,4.9343,-15.9565,3.9690
1097.6562,2.5122,8.4838,0.5439,-17.8195,3.3692,-3.6563,6.6178,-13.8115,10.0365,-4.9799,2.5701,8.4684,1.4731,-8.7285,20.8680,14.3126,6.3110,-13.6170,4.7899
1101.5625,5.7879,7.5056,-1.9780,-14.6210,3.8372,2.1876,3.0644,-12.0141,8.8288,-6.2252,-0.3970,11.3804,2.7392,-6.6677,19.2216,16.5069,6.9860,-10.6348,5.1396
1105.4688,6.1983,8.8144,-2.3936,-12.1844,2.4934,2.9998,-0.1769,-9.7484,5.9078,-8.8922,-0.7842,12.1656,1.3923,-5.4993,17.3114,15.0792,5.3023,-7.7912,5.2046
1109.3750,3.1229,11.3179,-0.7819,-11.0213,-1.3564,-0.4369,-1.8143,-7.7636,1.1276,-9.9305,0.5978,10.8791,-3.5492,-4.9629,15.8833,10.9267,0.9047,-6.1755,4.9590
1113.2812,-1.8459,13.3410,0.9262,-11.2756,-6.6159,-5.0543,-2.1890,-6.8044,-4.9360,-8.0808,1.7076,8.8662,-10.6780,-4.8260,14.4125,6.4458,-4.8723,-6.6101,4.0801
1117.1875,-6.2339,14.0502,0.5266,-12.4774,-11.0325,-7.7387,-2.5340,-7.0489,-11.1447,-4.6686,0.9756,7.8650,-16.9643,-4.8730,11.9741,4.0440,-9.7422,-8.9297,2.3681
1121.0938,-8.4373,13.9816,-2.5655,-13.5292,-12.6672,-7.2969,-3.5566,-7.8317,-16.2250,-2.2765,-1.3239,8.8400,-19.6684,-4.7006,8.3243,4.5829,-11.8299,-11.7505,0.2230
1125.0000,-8.5702,14.2992,-6.7144,-13.1754,-11.1251,-4.7689,-4.6440,-8.0199,-19.3081,-2.4884,-3.2732,11.3547,-18.0582,-3.7173,4.1887,6.8682,-10.7336,-13.1255,-1.3905
1128.9062,-7.8906,15.5220,-9.3174,-10.7979,-7.6853,-2.0834,-4.4132,-6.8602,-20.3660,-4.5940,-3.0498,13.9080,-13.7580,-1.5319,0.5729,8.5810,-7.6119,-11.7952,-1.6199
1132.8125,-7.4657,16.8968,-8.9333,-6.9774,-4.3212,-0.3463,-2.1372,-4.6363,-20.3150,-6.3002,-0.7981,14.9671,-9.5615,1.5505,-2.1799,7.9851,-4.3469,-8.1674,-0.5389
1136.7188,-7.2869,16.9978,-6.5462,-3.2860,-2.4128,0.7818,1.2092,-2.5333,-20.6361,-5.8326,1.0318,13.9570,-7.6259,4.4517,-4.6576,5.1648,-2.4423,-4.2102,0.6343
1140.6250,-6.5504,15.0431,-4.9000,-1.3131,-2.0942,2.2242,3.2675,-1.7273,-22.5903,-3.6461,-0.6128,11.5478,-8.3009,5.9104,-7.7016,1.8986,-2.3797,-2.1869,0.2315
1144.5312,-4.7316,11.7708,-6.4046,-1.5721,-2.5867,4.0853,1.8475,-2.3974,-26.3927,-2.2522,-6.8451,9.1195,-10.2699,5.3972,-11.4046,0.3088,-3.6980,-3.0634,-2.7014
1148.4375,-2.3723,9.0583,-11.2794,-3.1278,-3.0720,5.1246,-3.4449,-3.4977,-30.8783,-4.1838,-15.5028,7.8639,-11.6859,3.6308,-14.7453,1.3297,-5.5061,-5.7544,-7.6518
1152.3438,-0.7774,8.5218,-17.4083,-4.2925,-3.3161,3.7122,-10.7726,-3.5498,-34.0198,-9.6487,-22.2713,8.1586,-11.3718,2.1969,-16.2799,4.1315,-6.9399,-7.8286,-12.9197
1156.2500,-0.8386,10.1975,-21.9852,-3.9097,-3.5942,-0.5106,-17.1890,-1.8650,-34.1515,-15.7759,-23.6229,9.5546,-9.3000,2.4689,-15.3714,6.8563,-7.3149,-7.2235,-16.7495
1160.1562,-2.0571,12.3825,-23.5979,-2.2406,-4.1382,-5.7877,-20.4988,0.7974,-31.1975,-18.2106,-19.4246,11.2262,-6.2536,4.6301,-12.9109,8.0093,-6.1191,-3.7458,-18.4618
1164.0625,-2.7425,12.8037,-23.0875,-0.7433,-4.7250,-9.1541,-20.5099,2.7198,-27.0255,-14.0443,-13.1838,12.4539,-3.1611,7.5675,-10.8507,7.4017,-3.1262,0.7446,-18.7352
1167.9688,-1.3644,10.2444,-22.5756,-0.8971,-4.8173,-8.5609,-18.8374,2.5249,-24.4969,-4.0162,-9.6310,12.8236,-0.6667,9.7385,-10.8386,5.9844,1.3241,3.6104,-18.8753
1171.8750,2.0207,5.4066,-23.5564,-2.9878,-4.0932,-4.5746,-17.5293,0.2656,-25.6570,7.6171,-11.3634,12.1562,0.9078,10.3291,-13.0069,4.8374,6.1681,3.2463,-19.7021
1175.7812,5.5274,0.3904,-25.6689,-5.8190,-2.7997,-0.2144,-17.6064,-2.5650,-30.2174,15.5117,-17.0127,10.4149,1.4632,9.7934,-15.8834,4.2270,9.9370,0.1220,-20.9526
1179.6875,6.7364,-2.7816,-27.1203,-7.5767,-1.5239,1.0802,-18.5491,-4.1128,-35.4491,16.3420,-22.2692,7.7666,1.1718,9.3706,-17.5113,3.5008,11.5525,-3.6448,-21.6170
1183.5938,4.6010,-3.4928,-26.3143,-7.1590,-0.5446,-2.1340,-18.9535,-3.4627,-37.7379,10.5534,-22.9612,4.7158,0.6435,10.0193,-16.9003,1.8275,11.1082,-5.7940,-20.8393
1187.5000,0.4652,-2.7989,-23.2517,-4.9221,0.6226,-8.3315,-17.7059,-1.1351,-34.8855,1.7497,-17.8976,2.0679,0.8890,11.6669,-14.6715,-0.9274,9.9842,-5.3620,-18.5832
1191.4062,-2.6744,-2.5511,-19.5235,-2.2857,2.9800,-14.2023,-14.7543,1.5579,-27.6189,-5.6563,-9.4628,0.5901,2.8526,13.3757,-12.4110,-3.9741,10.0395,-3.0539,-15.5330
1195.3125,-2.1656,-4.1012,-16.9540,-0.5653,7.2029,-17.0343,-11.0097,3.6817,-19.2113,-8.8423,-1.7135,0.5421,6.7155,14.2297,-11.2811,-6.2064,12.3339,-0.4173,-12.4039
1199.2188,2.5198,-7.4996,-16.0950,-0.0082,12.8726,-16.4485,-7.6232,5.3442,-13.3925,-7.5537,2.4325,1.4448,11.5258,14.1369,-11.0222,-7.0986,16.2873,1.4141,-9.3484
1203.1250,9.5183,-11.6165,-15.8564,0.2062,18.4893,-14.2451,-5.2822,7.3071,-11.9415,-3.3820,2.8208,2.3305,15.5936,13.8376,-10.1499,-7.1127,19.9591,2.4100,-6.0138
1207.0312,15.9198,-14.9223,-14.5457,1.0662,22.3590,-12.6708,-3.9934,9.9393,-13.6173,1.7272,1.5163,2.3542,17.5190,14.1254,-7.1916,-7.2721,21.3364,3.3273,-2.1740
1210.9375,19.6094,-16.2943,-11.3754,2.7356,23.7162,-12.6369,-3.3337,12.5104,-15.1522,6.4853,0.8505,1.3361,17.1480,14.9923,-1.9796,-8.2805,19.7403,4.7937,1.7059
1214.8438,20.2349,-15.3792,-7.1243,4.3284,23.1999,-13.3188,-2.8118,13.5420,-13.5724,10.2212,1.7745,-0.1632,15.7013,15.4916,4.0262,-9.9360,16.3224,6.6383,4.5814
1218.7500,18.7768,-12.4807,-3.4081,4.6276,22.2932,-13.2971,-2.0394,12.0055,-8.1780,12.2418,3.7172,-1.2764,14.9098,14.4891,8.6530,-11.3103,13.2686,8.0239,5.6153
1222.6562,16.3827,-8.2647,-1.2365,3.1215,22.1679,-12.0724,-0.7092,8.3640,-0.8136,11.5342,5.7306,-1.4197,15.7665,11.6825,10.4892,-11.5049,12.2889,8.2081,4.9881
1226.5625,13.6266,-3.5510,-0.1419,0.4638,22.8602,-10.5311,1.4093,4.5024,5.6495,7.3300,7.6394,-0.5964,17.8411,7.9938,9.8227,-10.3241,13.5012,7.2240,3.9734
1230.4688,10.7764,0.7782,1.3512,-2.0390,23.4225,-9.9472,4.3331,2.4726,9.3964,0.1217,10.0741,0.7616,19.6816,4.9425,8.3747,-8.3306,15.5083,5.8633,4.0988
1234.3750,8.5735,3.8976,4.3333,-3.4845,22.8824,-10.4701,7.7063,2.9756,10.7487,-7.8791,13.4311,2.1925,19.9717,3.4670,8.0563,-6.3161,16.5531,4.9664,5.9960
1238.2812,8.4619,5.2729,8.4219,-4.0974,21.1669,-10.5690,10.8554,4.7796,11.5305,-13.5622,16.8780,3.4583,18.5176,3.1545,9.6671,-4.7184,15.8314,4.6331,8.8632
1242.1875,11.7037,4.8992,11.9466,-5.0221,19.1921,-8.1083,13.1249,5.5782,13.3588,-14.7309,18.5343,4.4672,16.2880,2.5363,12.4423,-3.5036,13.9667,4.0483,11.0168
1246.0938,17.9536,3.3338,13.2703,-7.3683,18.0424,-2.2803,14.2669,3.6652,16.2870,-11.6872,16.8895,5.0385,14.5253,0.2459,14.6966,-2.5421,12.3454,2.1125,11.1442
1250.0000,24.6123,1.4336,12.1236,-11.2892,17.9514,5.2291,14.5386,-0.8402,18.8667,-7.3196,12.3186,4.8584,13.7013,-3.8680,15.0344,-2.0176,11.9050,-1.6050,9.2902
1253.9062,27.8682,-0.0550,9.8134,-15.8191,17.9849,10.9589,14.3881,-6.1313,19.5032,-5.3884,7.3060,3.7727,13.2028,-8.5527,13.2561,-2.3724,12.3636,-6.3462,6.8085
1257.8125,25.0065,-0.7757,8.1327,-19.5512,16.7418,11.9077,13.9885,-10.0606,17.9360,-8.0287,4.9693,2.1781,11.9908,-12.0241,10.3851,-3.7607,12.4791,-10.5079,5.3305
1261.7188,16.3975,-0.7462,7.9120,-21.5630,13.5212,7.6543,13.0632,-11.6266,15.6046,-14.1860,6.8907,1.0697,9.6386,-13.1996,7.8994,-5.5220,11.0824,-12.6059,5.5764
1265.6250,5.5915,-0.1380,8.4494,-21.8593,8.9896,0.7536,11.2180,-11.4802,14.5870,-20.1682,11.9193,1.5305,6.8277,-12.3390,6.7719,-6.2730,8.0315,-12.1601,6.9312
1269.5312,-2.7425,0.8988,8.2872,-21.0670,4.7674,-4.9137,8.5219,-11.1574,15.9575,-22.0624,16.9145,3.9464,4.8413,-10.6554,6.9753,-4.7296,4.3320,-9.8911,8.0682
1273.4375,-5.6860,2.1977,6.6316,-19.7651,2.2384,-6.6175,5.7858,-11.7493,18.8651,-18.4180,18.9022,7.5638,4.4609,-9.2936,7.7118,-0.7056,1.3640,-7.1612,8.0547
1277.3438,-3.7506,3.4084,4.1540,-18.0867,1.5202,-4.2959,4.1804,-13.1013,21.0526,-11.3389,17.0125,10.8403,5.1942,-8.5401,8.1065,4.5215,-0.1442,-5.1346,7.0230
1281.2500,-0.2396,3.9581,2.4569,-15.9099,1.4078,-0.1416,4.3941,-14.1204,20.4027,-5.1859,12.7790,12.4343,5.5157,-7.8571,7.8293,8.8626,-0.5947,-4.2572,5.8986
1285.1562,1.1328,3.3133,2.6535,-13.3614,0.3191,3.2133,5.9930,-13.8332,16.3399,-3.7489,8.7054,12.1281,3.9670,-6.6076,7.2196,10.6832,-1.1235,-4.3131,5.4863
1289.0625,-1.4308,1.4274,4.3061,-11.0595,-2.5167,4.4249,7.5791,-12.2594,10.0971,-7.8277,6.3581,10.9589,0.2559,-4.7719,6.8701,9.7767,-2.6923,-4.8376,5.7325
1292.9688,-7.1299,-0.9805,5.6849,-9.7702,-6.5424,3.8651,7.7355,-10.3896,3.7773,-14.8711,5.5192,10.4151,-4.5062,-3.0238,7.0056,7.3470,-5.3881,-5.4525,5.7962
1296.8750,-13.7292,-2.6287,5.1831,-9.7326,-10.3673,2.7245,6.0864,-9.3479,-0.9761,-20.8665,4.9424,11.2995,-8.5936,-2.1324,7.1246,5.0662,-8.4183,-5.8806,4.8449
1300.7812,-19.3529,-2.3400,2.7109,-10.2765,-12.8016,1.8161,3.6285,-9.4891,-3.7225,-23.0783,3.8629,13.1489,-10.8350,-2.2527,6.1956,3.9745,-10.7187,-5.7735,2.8649
1304.6875,-23.4007,0.2147,-0.1358,-10.1633,-13.5931,1.1619,2.0108,-10.1822,-5.0168,-21.6697,2.8136,14.6720,-11.2605,-2.7449,3.3251,4.0441,-11.6561,-4.6812,0.7639
1308.5938,-26.0512,4.1940,-1.3389,-8.4727,-13.3581,0.5600,2.2579,-10.4136,-5.6791,-19.1088,2.9802,14.8414,-10.8068,-2.6839,-1.5220,4.6248,-11.3296,-2.3316,-0.3558
1312.5000,-27.1605,7.9354,-0.1586,-5.3490,-12.9029,0.3587,3.8965,-9.6523,-6.2779,-17.9233,4.6952,13.7331,-10.4416,-1.6127,-7.2597,5.2473,-10.3650,0.9747,-0.1704
1316.4062,-25.8685,9.7872,2.1165,-1.9793,-12.5953,1.4887,5.1679,-8.2390,-7.1789,-18.5888,6.5169,12.4096,-10.4834,0.1037,-12.1493,6.0105,-9.4786,4.2529,0.4489
1320.3125,-21.4760,8.9269,3.0117,0.2318,-12.2923,4.5684,4.1933,-7.0130,-8.8638,-19.2074,5.9164,11.9408,-10.6242,1.6131,-14.8131,7.2295,-9.1623,6.2461,-0.0580
1324.2188,-14.8221,5.6994,0.6687,0.6716,-11.7631,8.8796,0.2403,-6.5463,-11.9524,-17.2308,1.2135,12.3962,-10.4891,2.2889,-15.1959,8.7417,-9.6116,6.1709,-2.8653
1328.1250,-8.7159,1.3386,-4.7844,-0.0643,-11.0959,12.2938,-5.8145,-6.6598,-16.7052,-11.8685,-6.7681,12.6905,-10.1104,2.2111,-14.8003,9.6178,-10.7636,4.2837,-7.9068
1332.0312,-6.6188,-2.6926,-11.3272,-0.6616,-10.6507,12.4956,-12.1012,-6.6089,-22.4170,-5.2214,-14.7940,11.4651,-9.8456,2.0267,-15.8969,8.6781,-12.2834,1.8174,-13.8411
1335.9375,-10.2727,-5.3383,-16.4680,-0.0766,-10.6150,8.6999,-16.9214,-5.7325,-27.3897,-1.0977,-19.2166,8.3027,-9.8591,2.3531,-20.0640,5.4624,-13.5311,0.2773,-18.8202
1339.8438,-18.0592,-6.2587,-18.8505,1.7546,-10.6514,2.4962,-19.5950,-3.9814,-29.7756,-2.2411,-18.4910,4.2514,-9.7478,3.2629,-26.9378,0.8241,-13.6989,0.5617,-21.4934
1343.7500,-25.5516,-5.7644,-18.8543,4.0079,-10.0674,-2.9867,-20.4697,-1.8944,-28.8088,-8.0148,-14.3137,1.1659,-8.7771,4.2848,-34.0569,-3.4483,-12.2167,2.5040,-21.6019
1347.6562,-28.1380,-4.5315,-17.8817,5.7151,-8.4325,-5.1059,-20.2778,-0.0940,-25.4748,-14.3899,-10.4624,0.3400,-6.5974,4.8786,-38.0706,-5.7865,-9.2272,5.1209,-19.8929
1351.5625,-23.9641,-3.2971,-17.0771,6.5057,-6.0894,-3.4545,-19.4878,1.2152,-21.9867,-16.4650,-10.1377,1.5085,-3.7851,4.9312,-36.6949,-5.9021,-5.7217,7.3328,-17.5680
1355.4688,-15.0900,-2.6532,-16.5725,6.7494,-4.0237,-0.0202,-18.1710,2.3078,-20.3384,-11.8499,-13.7470,3.0284,-1.6125,4.8295,-30.2191,-4.9015,-3.0768,8.6095,-15.6931
1359.3750,-6.0185,-2.9476,-15.7772,7.0534,-3.1021,2.3644,-16.3548,3.5496,-20.9798,-2.4954,-18.7318,3.1125,-1.1027,5.0716,-21.5449,-4.3477,-2.1936,9.1065,-14.8600
1363.2812,-0.6853,-4.2581,-14.2832,7.6228,-3.2894,2.0932,-14.3898,4.9653,-22.6216,6.4365,-21.5024,1.1400,-2.1021,5.7952,-14.6277,-5.0207,-2.8382,9.2910,-15.1138
1367.1875,-0.1046,-6.4177,-12.4682,8.0768,-3.5537,-0.1881,-12.8850,6.1866,-23.3247,9.9722,-19.9948,-1.9853,-3.2005,6.6640,-12.2329,-6.3809,-3.7404,9.4398,-16.0197
1371.0938,-2.2875,-9.0938,-11.2329,7.8789,-2.6260,-2.3310,-12.2296,6.8364,-22.0125,6.6403,-14.9830,-4.6810,-2.6797,7.2089,-14.4023,-7.1640,-3.4706,9.4322,-16.8067
1375.0000,-4.2711,-11.9104,-11.1465,6.9654,-0.0337,-2.5535,-12.1558,6.9780,-19.2181,-0.6521,-9.2963,-6.0123,0.1912,7.2920,-18.5921,-6.6012,-1.4831,8.9625,-16.6372
1378.9062,-4.5242,-14.5816,-11.8216,5.9711,3.4621,-0.9400,-11.8071,7.1796,-16.5004,-6.8112,-5.6761,-6.4039,4.5509,7.2459,-21.3562,-5.2269,1.4841,7.9245,-15.0095
1382.8125,-3.8454,-16.9984,-12.1331,5.7891,6.4397,0.5792,-10.3421,8.0813,-15.0581,-8.2406,-4.9302,-7.1760,8.5606,7.5438,-20.4513,-4.5725,4.0038,6.5976,-12.1205
1386.7188,-4.2019,-19.2326,-11.1248,6.8023,7.9627,-0.2960,-7.6092,9.8092,-14.7147,-5.3536,-5.6724,-9.3239,10.7851,8.2935,-16.0179,-5.9599,5.1163,5.4685,-8.8901
1390.6250,-6.6463,-21.4473,-8.8210,8.4372,8.3373,-4.4697,-4.3326,11.7513,-14.1253,-2.0990,-5.6498,-12.5794,11.2393,9.0334,-10.1780,-9.3643,5.1256,4.8573,-6.4980
1394.5312,-10.1421,-23.7474,-6.2341,9.4621,8.8055,-10.7226,-1.6330,12.9253,-12.0178,-2.8683,-3.5109,-15.5366,11.2505,9.0498,-5.4843,-13.2739,5.3633,4.6866,-5.6484
1398.4375,-12.2939,-26.0298,-4.5502,8.8488,10.3918,-16.5019,-0.2574,12.6767,-8.4018,-9.0745,0.3087,-16.7294,12.2502,7.9681,-3.3713,-15.6868,7.0662,4.5919,-6.0703
1402.3438,-11.3593,-27.9165,-4.1904,6.5423,12.8752,-19.5639,-0.1214,11.1571,-4.6953,-17.9422,4.0867,-15.7650,14.5021,6.1058,-3.6106,-15.4783,10.2598,4.2612,-6.6792
1406.2500,-7.8473,-28.8496,-4.5340,3.5329,14.8118,-19.2598,-0.4903,9.2020,-2.6194,-24.4284,6.1323,-13.5934,16.8365,4.2599,-4.9396,-13.0978,13.5829,3.6888,-6.3569
1410.1562,-4.3435,-28.3608,-4.5067,1.1567,14.6751,-16.6517,-0.5919,7.7058,-2.7567,-24.8891,5.8607,-11.7263,17.6298,3.0813,-6.1748,-10.1052,15.2616,3.1100,-4.7964
1414.0625,-3.6483,-26.4123,-3.4896,0.1428,12.2126,-13.5794,-0.1268,6.9825,-3.9740,-19.8105,3.9400,-11.0848,16.2179,2.5471,-6.8787,-7.9760,14.4961,2.6796,-2.7472
1417.9688,-6.6747,-23.6001,-1.7562,0.1075,8.8619,-11.5017,0.7046,6.5855,-4.2237,-13.5902,1.6298,-11.4214,13.5518,1.9688,-7.1616,-7.1331,12.1479,2.1984,-1.4278
1421.8750,-11.7416,-21.0176,-0.1010,-0.1518,6.7816,-10.9088,1.5742,5.6786,-2.1109,-11.4985,-0.0211,-11.7348,11.5137,0.5266,-6.9881,-6.9084,10.1308,1.1686,-1.5302
1425.7812,-15.7916,-19.7563,0.9448,-1.8068,7.1905,-11.4981,2.3669,3.6278,2.0199,-15.9961,-0.5442,-11.2452,11.4267,-2.1120,-5.7742,-6.3435,9.9366,-0.8187,-2.6070
1429.6875,-16.5748,-20.2853,1.5582,-5.2078,9.3278,-12.6970,3.1465,0.3715,6.3428,-25.0418,0.0696,-10.0565,12.9779,-5.5824,-2.7595,-5.0825,11.4427,-3.6624,-3.3600
1433.5938,-14.1440,-22.1102,2.3236,-9.6699,10.9134,-13.9983,3.8289,-3.6304,8.9376,-33.5699,1.6214,-8.9560,14.4522,-9.1467,2.1067,-3.6166,12.9635,-6.6530,-2.6414
1437.5000,-10.6201,-24.0013,3.4946,-13.9096,9.8202,-14.9442,3.9813,-7.7130,9.1988,-37.0282,3.7553,-8.5916,14.1045,-12.2294,7.5739,-2.7486,12.5417,-8.8245,-0.3873
1441.4062,-8.5442,-24.7166,4.5622,-16.7707,5.6952,-15.0230,3.0801,-11.2817,8.1648,-34.4236,5.8401,-8.8109,11.5581,-14.6981,11.4669,-2.8171,9.4940,-9.5371,2.2688
1445.3125,-9.1563,-23.7712,4.6117,-17.7677,0.2794,-13.8097,1.0977,-13.8872,7.5612,-28.7422,6.9875,-8.7813,8.0909,-16.6967,11.9520,-3.3765,5.0067,-8.8902,3.8179
1449.2188,-11.8507,-21.7164,3.2097,-17.1872,-3.8239,-11.3442,-1.1202,-15.2025,8.3714,-24.5612,6.4117,-7.7903,5.5789,-18.2641,8.8387,-3.5893,1.3086,-7.6804,3.4946
1453.1250,-15.0306,-19.7103,1.0130,-15.8052,-4.9889,-8.3723,-2.1626,-15.0946,10.0844,-24.6824,3.9515,-5.9902,4.9668,-19.1530,3.9085,-2.9485,0.0521,-6.9396,1.8145
1457.0312,-17.4946,-18.6732,-0.5426,-14.4587,-3.6298,-6.0779,-0.9801,-13.8163,11.1717,-28.2511,0.3164,-4.3799,5.5157,-19.0421,-0.0997,-1.6823,1.1355,-7.3608,0.1122
1460.9375,-19.2051,-18.6526,-0.3363,-13.6884,-1.7428,-5.3559,2.2208,-12.1103,10.3374,-31.6471,-3.2376,-3.9814,5.4327,-17.9249,-1.2278,-0.5054,2.8422,-8.9540,-0.5336
1464.8438,-20.9442,-18.8754,1.4333,-13.5526,-1.3708,-6.1448,5.8656,-10.9770,7.5084,-31.3796,-5.6338,-4.9008,3.3611,-16.2561,0.4368,0.0351,3.1480,-11.0900,-0.1173
1468.7500,-23.3388,-18.4367,3.2266,-13.6387,-3.2112,-7.4038,7.8953,-11.1224,3.8078,-26.7913,-6.5692,-6.1036,-0.4830,-14.6481,2.8849,0.0276,1.1726,-12.8389,0.3785
1472.6562,-26.2001,-17.0641,3.2573,-13.2778,-6.3695,-7.8458,7.0793,-12.4398,0.6229,-20.5990,-6.5225,-6.1515,-4.4336,-13.3494,3.6305,0.0801,-2.2969,-13.3868,-0.1309
1476.5625,-28.7375,-15.3300,0.8963,-11.9213,-9.2910,-6.9074,3.8135,-13.9728,-1.4213,-16.9343,-6.2040,-4.3229,-6.6374,-11.9971,1.4620,0.7582,-5.5192,-12.3472,-1.8949
1480.4688,-30.3779,-14.1332,-2.7432,-9.5244,-10.9940,-5.1789,-0.1919,-14.4955,-2.7792,-18.3628,-5.9477,-1.1927,-6.4329,-9.9346,-2.7396,2.0971,-7.1063,-9.8937,-4.1092
1484.3750,-31.3840,-13.8842,-5.5600,-6.6815,-11.6083,-3.9097,-3.0966,-13.3528,-4.4435,-24.0395,-5.5798,1.8173,-4.7709,-6.8832,-6.6797,3.6191,-6.9086,-6.7088,-5.5741
1488.2812,-32.6673,-14.0943,-6.0158,-4.3309,-11.9120,-3.9539,-4.0990,-10.9358,-7.0942,-30.2655,-4.8533,3.5459,-3.4058,-3.3833,-8.3123,4.8048,-5.8877,-3.7531,-5.6621
1492.1875,-34.9287,-13.7487,-4.2821,-3.1253,-12.4231,-5.0148,-3.7516,-8.3996,-10.6530,-32.9726,-4.0011,3.9370,-3.5557,-0.5554,-7.2784,5.5568,-5.2268,-1.8813,-4.7904
1496.0938,-37.8691,-12.1805,-2.0825,-2.8758,-12.9051,-5.8486,-3.2861,-6.8084,-14.5099,-30.3506,-3.8219,3.9293,-5.0912,0.7103,-5.1093,6.2133,-5.4681,-1.4226,-4.0270
1500.0000,-40.1775,-9.7163,-1.3648,-2.5360,-12.6831,-5.3076,-3.5838,-6.3647,-18.0817,-23.8512,-5.1195,4.5193,-6.8067,0.4973,-4.0962,7.1061,-6.3189,-1.9441,-4.1943
1503.9062,-40.3583,-7.5217,-2.8619,-0.8646,-11.3970,-3.3829,-4.6405,-6.3327,-21.1454,-17.0303,-7.9377,5.8289,-7.4368,-0.1065,-5.6847,8.0986,-7.1267,-2.4111,-5.2381
1507.8125,-37.7740,-6.7325,-5.6741,2.6238,-9.4427,-1.3428,-5.8841,-5.7133,-23.7090,-13.1872,-11.2977,6.9915,-6.5433,0.2120,-9.5529,8.5786,-7.4818,-1.7556,-6.3838
1511.7188,-33.1048,-7.5718,-8.1619,7.1267,-7.6726,-0.7627,-6.9482,-4.1083,-25.6877,-13.4448,-13.7920,6.9520,-4.6234,1.9959,-13.9904,7.9664,-7.3979,0.4349,-6.9199
1515.6250,-27.9058,-9.1833,-9.3803,10.9334,-6.6338,-2.1702,-8.1336,-2.0498,-26.8385,-16.4258,-14.6641,5.4670,-2.5006,4.6198,-17.2275,6.3033,-6.9993,3.5602,-6.9164
1519.5312,-23.6438,-10.3270,-9.8616,12.5535,-6.0546,-4.4179,-10.1158,-0.5070,-27.0882,-19.4725,-14.5143,3.4091,-0.6338,6.8416,-18.6987,4.3647,-6.1337,6.2933,-7.2443
1523.4375,-20.9521,-10.3454,-11.1090,11.8138,-5.0711,-5.3930,-13.1618,0.0126,-26.9046,-20.3728,-14.9746,2.0761,1.0680,7.8683,-19.3202,3.1323,-4.3768,7.3999,-8.8604
1527.3438,-19.5840,-9.5748,-14.2245,10.0732,-3.0124,-3.6274,-16.5947,-0.0133,-27.2081,-18.4313,-17.4766,2.0846,2.8719,8.0421,-20.6261,3.0301,-1.4853,6.5753,-11.9434
1531.2500,-18.9477,-8.8534,-18.7987,9.3131,-0.0527,0.4018,-19.0556,0.5369,-28.7102,-14.4006,-21.9935,2.8077,4.7543,8.5330,-23.4505,3.5748,2.1235,4.7110,-15.5990
1535.1562,-18.6669,-8.5852,-22.9773,10.7139,2.8509,4.3469,-19.4237,2.4578,-31.1688,-9.6553,-26.7525,2.8749,6.3267,10.2501,-27.1564,3.7725,5.3688,3.3593,-18.3928
1539.0625,-18.6942,-8.2456,-24.6834,13.7714,4.6859,5.5029,-17.6700,5.4189,-33.2786,-5.3765,-29.2405,1.3354,7.2037,12.8714,-29.9872,2.9551,7.0889,3.7302,-19.3069
1542.9688,-18.9684,-6.8586,-23.0679,16.6477,5.1488,2.7103,-14.9319,8.0530,-33.4809,-2.2538,-27.8600,-1.5048,7.4061,14.8567,-30.2851,1.3496,6.7922,5.9036,-18.3907
1546.8750,-19.0351,-4.1022,-19.1041,17.5298,4.7973,-2.7563,-12.7206,8.9425,-31.1716,-0.6286,-23.0650,-4.3070,7.3674,14.5370,-27.6903,-0.1324,4.9863,8.8066,-16.6395
1550.7812,-18.0668,-1.0527,-14.9128,15.9900,4.5023,-8.0092,-11.8702,7.7673,-27.3261,-0.6522,-17.1366,-5.8210,7.5286,11.4815,-23.4521,-0.7419,2.8282,10.9677,-15.2373
1554.6875,-15.3399,0.2375,-12.3531,13.3186,4.7330,-10.5096,-12.0372,5.6864,-23.9027,-2.1676,-12.7160,-5.9543,7.9449,7.0577,-19.6195,-0.6613,1.3959,11.5085,-14.7584
1558.5938,-10.8077,-1.8060,-11.8982,11.5750,5.3302,-9.7426,-12.0967,4.5954,-22.3557,-4.4516,-11.0929,-5.8510,8.3442,3.6798,-17.6683,-0.9993,1.1648,10.6817,-14.8837
1562.5000,-5.3063,-6.8652,-12.5236,12.0846,5.9369,-7.3881,-11.0637,5.7714,-22.3973,-6.2345,-11.4219,-6.8715,8.6189,3.2445,-17.5220,-2.9341,2.0397,9.6104,-14.7483
1566.4062,-0.2227,-12.5575,-12.5561,14.5193,6.6103,-5.9034,-8.7957,8.9242,-22.0824,-6.2484,-11.3918,-9.3176,9.2406,5.8865,-17.6514,-6.6547,3.7680,9.4613,-13.5751
1570.3125,3.1445,-15.8376,-10.7986,17.2315,7.9464,-6.6294,-5.9782,12.3776,-19.3018,-4.0701,-8.8809,-12.0132,11.0638,9.9478,-16.2013,-10.9724,6.2358,10.6583,-11.1291
1574.2188,4.1141,-15.0690,-7.1892,18.5289,10.5043,-8.8715,-3.5177,14.2563,-13.6078,-0.6422,-3.4912,-13.1706,14.5270,13.1394,-12.3859,-13.9884,9.3261,12.6581,-7.7711
1578.1250,2.7860,-11.2504,-2.6976,17.8727,14.0305,-10.6311,-1.9096,13.7959,-6.9117,2.0498,3.0314,-11.8925,18.9051,14.0106,-7.1987,-14.3724,12.5302,14.3682,-4.2179
1582.0312,-0.1104,-7.4277,1.2988,16.0974,17.2725,-10.3670,-1.0643,11.8176,-2.3732,2.1007,7.7435,-9.0769,22.4009,12.6809,-2.9247,-12.3066,14.8462,14.8437,-1.2535
1585.9375,-3.4715,-6.6500,3.6977,14.5644,18.7302,-8.3633,-0.5975,10.0603,-2.1844,-1.0633,8.2194,-6.9158,23.2483,10.4261,-1.7308,-9.3754,15.2979,13.7795,0.4900
1589.8438,-6.0595,-9.9182,4.0905,14.0097,17.8480,-6.5930,-0.1949,9.9089,-5.8725,-6.1802,4.0041,-7.2943,21.1041,8.5861,-4.2284,-7.4759,13.7954,11.5455,0.7214
1593.7500,-6.7940,-15.5869,2.8568,14.0281,15.6553,-7.1554,0.3087,11.4645,-10.4359,-10.8326,-3.0234,-10.3068,17.5901,7.6887,-8.9495,-7.5518,11.5886,8.8643,-0.3073
1597.6562,-5.1801,-20.5869,1.0065,13.5578,14.1973,-10.5112,1.1022,13.5758,-12.2920,-12.9555,-9.5667,-14.0630,15.3754,7.3707,-13.1072,-9.0595,10.7224,6.4220,-1.7120
1601.5625,-1.7404,-22.5105,-0.1831,11.8768,15.0682,-14.9258,2.4768,14.7073,-9.6585,-12.2025,-12.6003,-15.9793,16.3159,6.9618,-14.1939,-10.4957,12.6766,4.6285,-2.2235
1605.4688,1.9108,-21.0399,0.2951,9.2318,18.1525,-17.6178,4.5618,13.9411,-3.6639,-10.2349,-10.9359,-14.6061,20.0107,6.1024,-11.4281,-10.5219,17.1330,3.5507,-0.8268
1609.3750,3.6570,-17.8007,2.6265,6.5781,21.6141,-16.7805,6.9033,11.4148,2.5652,-9.6822,-5.8455,-10.6359,23.9432,4.8691,-6.1472,-8.8341,21.8990,2.9278,2.5180
1613.2812,2.0014,-14.9580,5.9319,4.7019,23.2208,-12.9496,8.3931,8.0099,6.1044,-12.4101,-0.4042,-6.3746,25.2164,3.4240,-0.9201,-6.2023,24.2260,2.2343,6.6215
1617.1875,-2.9168,-13.7402,8.6260,3.5161,22.0107,-8.6629,7.8628,4.6636,6.0936,-18.2317,2.1353,-4.1239,22.6383,1.6530,2.0257,-3.7816,22.6735,0.8471,9.6239
1621.0938,-9.1780,-13.9539,9.3167,2.1542,18.9849,-6.6555,5.0519,1.8585,3.9936,-24.9394,0.0977,-4.6974,17.5784,-0.7830,2.0359,-2.3103,18.1462,-1.6423,10.1394
1625.0000,-14.0867,-14.6285,7.7301,-0.2291,16.2590,-7.9410,1.1594,-0.4262,2.2329,-29.6835,-5.6883,-7.1045,12.9178,-4.0159,0.1533,-1.7918,13.2672,-5.0930,8.2198
1628.9062,-15.7832,-15.0316,4.9772,-3.6557,15.3375,-11.1998,-1.6600,-2.4394,2.4009,-30.8200,-12.3457,-9.4927,10.8769,-7.6116,-1.8639,-1.7813,10.4887,-8.7219,5.3785
1632.8125,-14.3861,-15.1469,2.8533,-7.2252,15.8910,-13.8766,-1.7055,-4.3912,4.3355,-29.0038,-16.5801,-10.5117,11.3860,-10.7034,-2.8678,-1.9033,10.3377,-11.4392,3.5480
1636.7188,-11.8221,-15.3344,2.5748,-9.8060,16.0274,-14.0867,0.9388,-6.3898,6.6113,-26.7594,-16.5632,-10.0615,12.2441,-12.5784,-3.0195,-2.1152,11.1330,-12.4946,3.6773
1640.6250,-10.4134,-15.6793,3.8642,-10.9127,13.8418,-11.8567,4.2514,-8.4990,7.8222,-26.7579,-12.9404,-8.9932,10.9166,-13.2132,-3.3825,-2.5384,10.4001,-12.0055,5.0294
1644.5312,-11.2330,-15.7565,5.1303,-11.0105,9.0000,-8.8115,5.5929,-10.7216,7.5476,-29.9095,-8.3277,-8.1839,6.5491,-13.2478,-4.7776,-3.0971,6.8922,-10.9267,5.7755
1648.4375,-13.4542,-15.0503,4.6954,-10.9922,3.0797,-6.6771,3.6231,-12.8585,6.3289,-34.5676,-5.6098,-7.8149,0.6298,-13.3689,-6.8359,-3.3598,1.6450,-10.3868,4.4878
1652.3438,-15.1986,-13.5630,2.1798,-11.3037,-1.5964,-5.8819,-0.6371,-14.4181,4.8936,-37.4574,-6.1341,-7.3771,-4.1777,-13.6271,-8.0576,-2.7650,-2.7659,-10.8197,1.3930
1656.2500,-15.2269,-11.9199,-1.0413,-11.5033,-3.6940,-5.3918,-4.4899,-14.7926,3.4487,-35.8084,-8.9790,-6.2537,-6.0671,-13.3282,-6.9098,-1.0451,-4.1948,-11.5527,-1.6337
1660.1562,-14.1216,-10.7633,-2.7354,-10.6626,-3.7854,-3.8417,-5.5513,-13.6790,1.6702,-29.3200,-11.7512,-4.2824,-5.3784,-11.6603,-3.1695,1.5151,-2.5936,-11.2257,-2.4016
1664.0625,-13.9614,-9.9694,-1.4445,-8.2653,-3.7563,-0.9333,-3.5449,-11.4371,-0.7120,-20.6163,-12.3231,-1.8292,-4.1740,-8.5540,1.5441,4.1989,-0.0844,-8.8017,-0.0818
1667.9688,-16.6528,-8.5148,2.3724,-4.8101,-5.2257,2.1485,-0.4900,-9.0222,-3.3966,-13.7903,-10.2880,0.5889,-4.5171,-4.9990,4.5555,6.2503,0.6187,-4.4373,4.0691
1671.8750,-22.1836,-5.3085,6.5715,-1.5596,-8.2699,3.7000,0.8896,-7.4362,-5.6366,-11.9050,-7.1448,2.6889,-6.8655,-2.4542,3.7759,7.2281,-1.7796,0.4575,7.5275
1675.7812,-28.2160,-0.4048,8.7701,0.3835,-11.4415,3.0403,-0.7066,-7.0605,-6.9393,-15.0678,-5.1569,4.4390,-9.8364,-1.7608,-0.9302,7.0931,-6.2336,4.0510,8.2628
1679.6875,-31.4736,4.4828,7.9112,0.8945,-12.9955,1.2791,-4.1844,-7.4046,-7.6861,-20.3755,-5.7676,5.7486,-11.4486,-2.4489,-7.6370,6.0587,-10.1872,5.2185,6.0991
1683.5938,-30.0025,6.8157,4.7805,0.8356,-12.2777,0.5552,-7.0249,-7.5151,-9.0338,-23.8076,-8.7199,6.2304,-10.7739,-3.0676,-13.5986,4.4230,-11.4727,4.1506,2.6510
1687.5000,-24.6580,4.9820,1.1505,1.2455,-10.1651,2.2683,-7.4211,-6.7596,-12.0678,-22.8260,-12.4442,5.3730,-8.6607,-2.3374,-16.9643,2.5398,-9.8289,2.0329,-0.0721
1691.4062,-18.6696,-0.3248,-1.6915,2.4173,-8.2794,5.7398,-5.8538,-5.3512,-16.8612,-17.9379,-15.3127,3.0424,-7.0071,-0.2088,-17.7644,0.8772,-6.9499,0.1150,-1.2595
1695.3125,-15.5252,-6.2570,-3.8290,3.6865,-7.6928,8.4866,-4.8170,-4.1592,-22.2285,-12.1757,-16.7619,-0.1457,-7.2358,2.0708,-17.5363,-0.0263,-5.1324,-1.0688,-1.8283
1699.2188,-16.6524,-9.5479,-6.3502,4.1376,-8.1935,8.0376,-6.8891,-3.9252,-26.4259,-8.8861,-17.4683,-3.0006,-9.2122,2.9947,-17.9764,0.1916,-5.6136,-1.7479,-3.5018
1703.1250,-20.5342,-8.6554,-10.1209,3.6164,-8.6298,3.9357,-12.6743,-4.5272,-28.2848,-9.3967,-18.5531,-4.4456,-11.4108,2.1289,-19.6933,1.4133,-7.8181,-2.3046,-7.2213
1707.0312,-23.8535,-4.7564,-14.7873,3.1227,-7.9299,-1.6788,-20.2392,-4.9349,-27.9135,-12.2029,-20.5343,-4.2147,-12.0967,0.6352,-21.9753,2.9708,-9.9459,-2.6339,-12.1952
1710.9375,-23.8044,-0.8565,-18.8709,4.1499,-5.8942,-5.4690,-26.4599,-3.9519,-26.4650,-14.2100,-22.8779,-2.9886,-10.5275,0.4925,-23.6268,3.9719,-10.3131,-2.0969,-16.3528
1714.8438,-19.9131,0.3266,-20.8733,7.4462,-3.1552,-5.3052,-29.1795,-1.1777,-25.2219,-13.0796,-24.4603,-1.8371,-7.2768,2.9752,-24.0783,3.8618,-8.4037,-0.1287,-17.8327
1718.7500,-14.1447,-1.8451,-20.4516,12.2185,-0.4801,-1.8544,-28.4816,2.5989,-24.7597,-8.9377,-24.5119,-1.4011,-3.5788,7.5743,-23.8091,2.8138,-4.9598,3.0636,-16.3187
1722.6562,-9.3552,-5.7131,-18.6696,16.5045,1.8637,1.8853,-26.1771,5.9333,-24.8094,-4.1994,-23.2559,-1.4724,-0.3683,12.2397,-23.7575,1.6179,-1.2519,6.4033,-13.1929
1726.5625,-7.3097,-8.7034,-17.1182,18.5034,4.1105,2.7916,-24.0855,7.7901,-24.7951,-1.6810,-21.7400,-1.2970,2.1840,14.7939,-24.2862,1.1044,1.7790,8.6432,-10.4396
1730.4688,-7.6783,-9.1588,-16.6451,17.8530,6.4582,-0.0954,-22.6262,8.2936,-24.4604,-2.4503,-21.0120,-0.3266,4.3956,14.4509,-24.6668,1.5139,3.8915,9.3395,-9.2134
1734.3750,-8.5918,-7.2563,-16.7517,15.8474,8.6129,-4.9340,-20.8656,8.5511,-23.9914,-5.0451,-21.2846,1.2268,6.4905,12.2931,-23.6100,2.2907,5.3444,9.2726,-9.1856
1738.2812,-8.1664,-4.4884,-16.1368,14.4194,9.9465,-8.5526,-17.8463,9.6859,-23.5789,-6.6374,-21.7092,2.4955,8.3414,10.3823,-20.4527,2.4595,6.5059,9.8891,-9.0883
1742.1875,-5.7945,-2.3381,-13.8999,14.6981,10.1673,-8.8723,-13.9061,11.8683,-22.9222,-5.2329,-20.9054,2.6137,9.7466,10.2355,-16.0007,1.3027,7.6667,12.1387,-7.8973
1746.0938,-2.3280,-1.3072,-10.3765,16.2797,9.8451,-6.4178,-10.7305,14.1450,-21.2552,-1.2087,-17.8603,1.3607,10.8708,11.8408,-12.2364,-1.1628,9.1039,15.6226,-5.6390
1750.0000,0.7968,-0.9921,-6.9118,17.7555,10.1867,-3.7937,-10.0268,15.2183,-17.9783,2.9920,-12.6113,-0.7465,12.2911,13.9026,-11.0022,-4.2319,11.1349,18.7741,-3.2123
1753.9062,2.6886,-0.9192,-4.7868,18.0052,12.1257,-3.5929,-11.9569,14.5440,-13.3695,4.7665,-6.3253,-2.9520,14.4963,15.0045,-12.6282,-6.9891,13.9382,19.9845,-1.4940
1757.8125,3.5300,-1.2262,-4.2151,17.1574,15.4704,-6.3949,-14.7270,12.8492,-8.6812,3.3889,-0.7866,-4.8801,17.2761,14.6923,-15.5748,-8.8275,17.2495,18.8180,-0.5718
1761.7188,4.2436,-2.5204,-4.2420,16.4220,18.9111,-10.3771,-15.7779,11.6341,-5.4050,0.6013,2.3957,-6.7201,19.6433,13.6423,-17.4016,-9.6542,20.2897,16.3566,0.2307
1765.6250,5.7132,-5.0817,-3.5961,16.9632,21.0016,-12.7652,-13.6528,12.0488,-4.2103,-0.7036,2.4867,-8.8344,20.5065,12.8905,-16.3540,-9.7416,22.1516,14.3857,1.6203
1769.5312,8.2092,-8.2360,-1.7454,18.7816,21.3624,-11.9265,-9.0265,14.0299,-4.4121,1.2802,-0.0456,-11.1835,19.6063,12.8717,-12.3965,-9.4606,22.4468,14.0445,3.6023
1773.4375,11.3529,-10.5967,0.7280,20.5599,21.0738,-8.4834,-4.0685,16.3611,-4.4540,5.8005,-3.6940,-13.1380,17.8961,13.0972,-6.9863,-9.1455,21.6908,14.9823,5.4305
1777.3438,14.4543,-11.0785,2.7049,20.6109,21.8316,-4.6782,-0.7075,17.5662,-3.0815,9.9339,-6.5411,-13.9003,16.9345,12.6832,-1.8865,-9.1109,21.0264,15.6587,6.2800
1781.2500,16.8304,-9.8347,3.5090,18.1491,24.4741,-2.6158,0.7382,16.8973,-0.2929,10.5272,-7.1424,-13.1941,17.6865,11.1856,1.9631,-9.6352,21.4137,14.5262,6.0203
1785.1562,17.9030,-8.2542,3.4321,13.8532,28.0832,-2.8285,1.4540,14.6619,2.6996,6.2617,-5.2709,-11.6002,19.6931,8.9641,4.6444,-10.7700,22.8988,11.1651,5.3780
1789.0625,17.2132,-7.9140,3.3863,9.2897,30.4728,-4.2246,2.7432,11.7302,4.4808,-1.6196,-2.0746,-10.1914,21.3494,6.7622,6.5164,-12.0922,24.5730,6.5240,5.3328
1792.9688,14.6013,-9.2901,4.0526,5.7126,29.7831,-5.2929,4.6746,8.7510,4.6108,-10.3201,0.5658,-9.7221,21.1449,4.9219,7.3495,-12.7183,25.2931,2.1604,6.2870
1796.8750,10.5526,-11.2876,5.3171,3.2383,25.9625,-5.4320,6.0202,5.7864,4.0146,-17.3573,1.2027,-10.0413,18.9024,2.9879,6.2473,-11.7702,24.5919,-0.8581,7.7589
1800.7812,6.3626,-12.0259,6.4918,1.0321,20.9499,-5.2749,5.5620,2.6300,4.2603,-21.8725,-0.1982,-10.2444,15.9876,0.1048,2.5292,-9.0820,23.0150,-2.5323,8.8771
1804.6875,3.7395,-10.2900,7.0738,-1.7387,17.3549,-5.8156,3.5643,-0.5907,6.2985,-24.5405,-2.1862,-9.4675,14.2635,-4.1125,-3.1765,-5.5978,21.5816,-3.6328,9.2158
1808.5938,3.8590,-6.5077,7.2949,-5.0573,16.6182,-7.1984,1.9732,-3.2008,9.6723,-26.3846,-2.8289,-7.6782,14.5863,-9.0124,-8.6893,-3.0025,20.8123,-4.9011,9.1856
1812.5000,6.4436,-2.4783,7.9055,-8.0551,18.0490,-8.3028,2.9765,-4.4553,12.8261,-27.6148,-1.1690,-5.7918,16.0493,-13.1895,-11.3221,-2.6783,20.1696,-6.4734,9.5806
1816.4062,9.6221,-0.0773,9.3586,-9.8159,19.4470,-7.5453,7.0356,-4.3245,14.2599,-27.4611,1.9219,-4.9904,16.6115,-15.4428,-9.5915,-4.6778,18.4410,-7.9642,10.6674
1820.3125,10.8899,0.0330,11.1542,-10.2418,18.7836,-4.2473,12.1063,-3.8336,13.6058,-25.0671,4.2096,-5.7836,14.6444,-15.6398,-4.3375,-7.5313,14.8038,-9.0177,11.6711
1824.2188,8.6768,-1.3005,12.0227,-10.1883,15.6169,0.6026,14.8928,-4.5098,11.7938,-20.6042,3.6536,-7.5764,10.1835,-14.7734,1.6532,-9.1648,9.6938,-9.7370,11.2293
1828.1250,3.4705,-2.5690,10.9004,-10.7361,11.1883,4.8872,13.3054,-7.2507,10.2165,-15.5966,-0.0447,-9.0968,4.8959,-14.1602,5.3336,-8.3497,4.7067,-10.5660,8.5409
1832.0312,-2.3661,-2.8261,7.9118,-12.2353,7.2353,6.8307,8.1976,-11.4951,9.6073,-12.1116,-5.0839,-9.3368,0.7933,-14.4403,5.2275,-5.6129,1.5226,-11.7462,4.2663
1835.9375,-6.0652,-2.2670,4.4871,-13.9624,4.5660,6.2545,2.9118,-15.4251,9.5371,-11.4033,-8.7314,-8.2433,-1.2811,-15.1910,2.1365,-2.8680,0.6611,-12.8937,0.3396
1839.8438,-6.2507,-1.7544,2.4269,-14.6935,2.5617,4.6352,0.8715,-17.1406,8.9023,-13.0480,-9.1967,-6.6206,-2.1966,-15.4342,-1.6886,-1.9740,1.0606,-13.1438,-1.2898
1843.7500,-3.8145,-1.7960,2.6119,-13.6981,-0.0524,3.9353,3.0446,-15.9502,6.9535,-15.2361,-6.8104,-5.3633,-3.6988,-14.5610,-4.1971,-3.2957,0.8487,-11.7997,-0.0600
1847.6562,-1.2498,-1.9362,4.3962,-11.2907,-3.8847,5.1402,7.2693,-12.7933,3.9948,-16.0071,-3.6177,-4.6871,-6.8852,-12.8647,-4.7679,-5.3959,-1.2643,-8.9429,2.7739
1851.5625,-0.9148,-1.1258,6.1869,-8.4796,-8.1513,7.6349,9.9918,-9.4732,1.1797,-14.5254,-1.7194,-3.9971,-11.2141,-11.2441,-4.2178,-6.1458,-5.0370,-5.4681,5.0694
1855.4688,-3.4504,1.2490,6.7408,-6.0532,-11.1576,9.8479,9.0560,-7.3260,-0.4142,-11.5023,-1.6762,-2.4759,-14.8251,-10.3747,-3.7894,-4.4209,-8.9151,-2.4836,5.3904
1859.3750,-7.4365,4.6074,6.1139,-3.9458,-11.5900,10.5782,5.3487,-6.3816,-0.6637,-8.5260,-2.2332,0.1414,-15.9065,-10.1140,-4.0533,-1.0450,-11.2234,-0.5630,4.0178
1863.2812,-10.4525,7.4194,5.4870,-1.4652,-9.5659,9.9160,2.0151,-5.6507,-0.5168,-6.8470,-1.5482,3.2811,-14.0396,-9.6820,-4.5859,1.8097,-11.3940,0.5488,2.5873
1867.1875,-10.7145,8.3437,6.0338,1.8225,-6.6140,9.0603,1.8976,-4.2277,-1.2571,-6.4994,1.1197,5.9758,-10.5080,-8.4603,-4.5440,2.3458,-10.2979,1.5638,2.6588
1871.0938,-8.1201,7.3553,7.7997,5.3814,-4.6291,9.2487,5.2425,-2.2305,-3.5051,-6.3359,4.6800,7.6457,-7.3864,-6.6786,-3.5145,0.6484,-9.4812,2.9761,4.3824
1875.0000,-4.0617,5.9041,9.5394,7.8838,-4.6320,10.7114,9.4742,-0.7573,-6.7383,-4.8854,7.0581,8.5358,-6.1386,-5.3334,-1.8822,-1.2510,-9.9519,4.6750,6.3299
1878.9062,-0.3062,5.8848,9.6492,8.2187,-6.2456,12.4817,11.1576,-0.8986,-9.6875,-1.4062,6.9170,9.4256,-6.7574,-5.3504,-0.4721,-0.8776,-11.4630,6.1510,6.6098
1882.8125,2.1339,8.1573,7.4037,6.5025,-8.1708,13.1634,8.5484,-2.6633,-11.2825,3.5568,4.7974,10.8641,-7.9842,-6.6859,0.1248,2.7310,-12.7845,7.0463,4.3454
1886.7188,3.3369,11.7539,3.4658,4.1894,-9.1683,11.9931,2.7243,-4.7755,-11.4258,8.4283,2.6847,12.5920,-8.3146,-8.1627,-0.0882,8.1356,-12.6640,7.5019,0.3261
1890.6250,3.9307,14.4192,-0.7271,3.1021,-8.7605,9.3543,-3.4981,-5.5676,-11.0366,11.4711,2.3223,13.6654,-6.9814,-8.2454,-0.7323,12.4065,-10.6927,7.9661,-3.6526
1894.5312,4.2715,14.1297,-4.1411,4.1246,-7.2310,6.4013,-7.8670,-4.2617,-11.3818,11.7359,3.6678,13.1987,-4.2674,-6.1653,-1.5512,13.1968,-7.4656,8.6584,-6.1760
1898.4375,4.0849,10.4967,-6.8640,6.6187,-5.1314,4.1755,-10.3055,-1.5744,-13.2155,9.5640,4.8121,11.1151,-1.0921,-2.4922,-2.6569,10.4321,-4.0437,9.2305,-7.1791
1902.3438,2.8360,5.0415,-9.7773,9.0497,-2.8428,2.9455,-12.5797,0.8723,-16.3348,6.3962,3.4962,8.2765,1.6586,1.3147,-4.2873,6.3466,-1.2435,9.0042,-7.7571
1906.2500,0.4502,0.1623,-13.5201,10.2940,-0.5432,2.2342,-16.4167,1.8650,-19.8010,4.0083,-0.9779,5.8693,3.5444,4.0075,-6.3535,3.8437,0.7020,7.6173,-9.0644
1910.1562,-2.2873,-2.4509,-17.7062,10.5178,1.5475,1.3854,-21.7194,1.5545,-22.5922,3.5832,-7.0084,4.5354,4.5610,5.4093,-8.2782,4.4202,1.9910,5.4875,-11.2840
1914.0625,-4.0461,-2.8389,-21.1158,10.8774,3.0510,0.1154,-26.3854,1.2608,-24.2015,5.1122,-11.7682,3.9444,4.9242,6.3562,-9.3431,7.1985,2.9225,3.6104,-13.5206
1917.9688,-3.7811,-2.5695,-22.7007,12.3087,3.6726,-1.4059,-27.8719,2.2937,-24.8110,7.4563,-13.2594,3.1422,4.9444,7.8325,-9.2407,9.7456,3.7649,2.7883,-14.6335
1921.8750,-1.4596,-3.5312,-22.5018,14.4806,3.6007,-2.9228,-25.2128,4.7832,-25.0105,9.0482,-11.7062,1.3816,5.0573,10.0776,-8.2886,10.0006,4.8896,2.9320,-14.2133
1925.7812,1.8587,-6.6116,-21.6311,15.8824,3.6160,-4.4899,-19.8587,7.5136,-25.3161,8.8388,-9.1834,-1.2354,5.8318,12.4361,-7.0640,7.8256,6.8884,3.0823,-12.8325
1929.6875,4.6561,-11.1518,-21.2979,15.0493,4.6751,-6.4927,-14.6947,8.9188,-25.8150,6.9122,-7.8166,-3.8130,7.7741,14.0510,-5.7895,5.0350,10.3775,2.2096,-11.3896
1933.5938,5.8645,-15.4698,-21.7232,11.9195,7.2176,-9.2765,-12.0516,8.4218,-26.1194,4.3697,-8.0587,-5.3623,10.9869,14.7407,-4.1025,3.9397,15.5169,0.1508,-10.2068
1937.5000,5.4484,-18.0161,-21.9288,8.1262,10.7577,-12.7481,-12.2613,6.9895,-25.6153,2.5472,-8.4627,-5.5962,14.9632,15.2316,-1.5254,5.5489,21.6314,-2.1380,-8.7623
1941.4062,4.3242,-18.3626,-20.6392,5.8732,14.1430,-16.3410,-13.7821,6.4107,-23.8466,2.0980,-7.1144,-5.2155,18.7504,16.4824,1.7342,8.7731,27.3350,-3.2981,-6.3456
1945.3125,3.7276,-17.4124,-17.5434,6.2307,16.3181,-19.3948,-14.6330,7.8516,-20.8341,2.5937,-3.4967,-5.4815,21.4271,18.6625,4.4493,11.1741,31.1832,-2.7099,-3.0415
1949.2188,4.4613,-16.7672,-13.7909,8.2333,16.9937,-21.6117,-13.9014,10.8510,-17.1630,2.9357,0.8096,-7.3945,22.5596,20.7094,5.0116,10.6543,32.4311,-1.0952,-0.0726
1953.1250,6.4634,-17.7034,-11.2097,9.5700,16.6942,-23.1783,-12.1834,13.5780,-13.7626,2.2689,3.2223,-11.0365,22.3131,20.9529,2.7057,6.8517,31.3517,-0.0098,0.9602
1957.0312,8.8918,-20.3938,-10.8323,8.3805,16.1831,-24.4517,-10.7936,14.1660,-11.4504,0.6895,2.1887,-15.4698,21.1927,18.3982,-1.3932,1.3085,28.9143,-0.5738,-0.5779
1960.9375,10.6252,-23.8053,-11.9661,4.7497,15.8025,-25.5151,-10.5682,12.0810,-10.4630,-0.8225,-1.5013,-19.1865,19.6965,13.6573,-4.7749,-3.5813,26.1279,-2.4693,-3.5524
1964.8438,10.8903,-26.2890,-12.6478,0.6981,15.3194,-26.0422,-11.2889,8.4677,-10.2672,-1.2114,-5.2023,-20.7907,18.1996,8.7274,-5.0300,-6.0113,23.5899,-4.0838,-5.5852
1968.7500,9.7016,-26.4933,-11.1868,-1.3570,14.3968,-25.6305,-12.0818,5.2368,-9.8292,-0.2626,-6.3290,-19.5599,17.1021,5.7038,-1.4901,-5.6140,21.5358,-3.7711,-4.6457
1972.6562,7.8987,-24.0760,-7.5554,-0.4748,13.2152,-24.3138,-12.2737,3.6419,-8.2374,1.1164,-4.1842,-15.6884,16.9585,5.3616,4.3112,-3.2979,20.1928,-1.2660,-0.5303
1976.5625,6.7463,-19.8242,-3.4633,2.0589,12.5953,-22.7550,-11.8701,3.4483,-5.3001,1.5006,-0.2853,-10.2020,18.2811,6.6673,9.7768,-0.3978,19.9582,1.8978,4.9370
1980.4688,7.2680,-15.1309,-1.0074,3.6738,13.4083,-21.8544,-11.2776,3.2778,-1.6910,-0.0153,2.9868,-4.6088,21.0461,7.5711,13.1333,2.1492,21.1244,3.3664,9.1845
1984.3750,9.6573,-11.1539,-0.9747,2.3924,15.7278,-22.0175,-10.6445,1.7718,1.5062,-3.1554,4.2509,-0.3729,24.3234,6.4633,14.5822,4.0815,23.3754,1.6400,10.6972
1988.2812,13.1270,-8.1756,-2.1855,-1.8090,18.4892,-22.6731,-9.5355,-1.3770,3.5640,-6.6771,3.9893,1.6525,26.5085,3.2091,15.8030,5.5332,25.6043,-2.8202,9.9731
1992.1875,16.3561,-5.5712,-2.4316,-7.1360,20.0651,-22.4957,-7.2937,-5.2820,4.6356,-9.2557,3.8041,1.5986,26.2057,-0.9422,18.2516,6.5915,26.4071,-7.8900,8.9381
1996.0938,18.3228,-2.3997,-0.2534,-11.3856,19.4022,-20.2525,-3.7455,-8.6002,5.6258,-10.3150,4.8174,0.5196,23.2261,-4.3831,21.7142,7.0962,25.0100,-11.2332,9.3450
2000.0000,19.0053,1.7915,3.8949,-13.4463,16.8398,-15.6774,0.4570,-10.4729,7.4814,-10.1748,6.6490,-0.1653,18.9199,-6.2433,24.3782,6.7986,21.9142,-11.7931,11.4576
2003.9062,19.4351,6.5361,8.0408,-13.7524,13.9170,-9.7132,4.2493,-10.9328,10.4396,-9.5026,7.8458,0.5390,15.4532,-6.7483,24.3972,5.6794,18.6499,-10.2376,14.0341
2007.8125,20.9786,10.7333,10.3158,-13.4953,12.2608,-3.9242,7.0036,-10.5783,13.8253,-8.6434,7.3514,2.6705,14.4241,-6.7065,21.6165,4.1335,16.7063,-8.1417,15.5295
2011.7188,24.2798,13.4728,10.4590,-13.4077,12.3917,0.4925,9.0484,-9.9333,16.5739,-7.4361,5.6864,5.4101,15.7799,-6.6917,17.9303,2.8723,16.4101,-6.6691,15.4552
2015.6250,28.6064,14.7859,9.9699,-13.1872,13.3809,3.3614,11.3395,-9.0860,18.0632,-5.6068,4.7464,7.7633,17.8512,-6.6368,15.8718,2.6102,16.6487,-5.8225,14.7568
2019.5312,32.1375,15.7161,10.8007,-11.9685,13.6245,5.3892,14.5105,-7.8469,18.5737,-3.2427,6.3036,9.3187,18.5251,-6.0990,16.5683,3.7217,15.7183,-4.7614,14.9419
2023.4375,33.0856,17.5869,13.6893,-9.3068,12.1190,7.3982,18.1172,-6.1541,18.9835,-0.7780,10.4343,10.4935,16.7226,-4.8326,18.8171,6.0436,12.6806,-2.7709,16.7496
2027.3438,30.9165,20.9722,17.5134,-5.7294,9.2270,9.5814,20.7792,-4.2671,19.9325,1.5505,15.2110,12.0674,13.1049,-3.0806,20.1474,8.9074,8.1687,0.0255,19.5164
2031.2500,26.8003,25.1645,20.1813,-2.3601,6.3440,11.3855,21.1733,-2.5647,21.1560,4.1881,18.0017,14.3959,9.5128,-1.3235,19.0400,11.4047,3.9856,2.7980,21.7655
2035.1562,22.9248,28.6083,20.2948,0.0087,4.7638,12.0920,19.0870,-1.1975,21.5714,8.0103,17.4135,16.9954,7.5998,0.2261,16.4017,12.8099,1.7861,4.7878,22.4877
2039.0625,21.1133,30.0441,18.1948,1.5256,4.6634,11.5840,15.6441,-0.0058,20.0974,13.3138,14.3724,18.9111,7.7069,1.8440,14.9202,12.9956,1.8669,5.9679,21.9887
2042.9688,21.6949,29.5186,15.5451,3.0071,5.0051,10.6216,12.4813,1.1707,16.5587,18.8830,11.4926,19.6069,8.7891,3.9742,16.7023,12.6096,3.0094,6.9772,21.5581
2046.8750,23.4126,28.4578,13.8520,5.0375,4.3919,10.3483,10.5317,2.1015,11.9318,22.1954,11.2079,19.6086,9.3629,6.6489,21.1556,12.8272,3.4817,8.4103,22.2364
2050.7812,24.4205,28.6732,13.2008,7.2837,2.1636,11.3908,9.4117,2.1556,7.6995,21.0512,14.0699,20.2523,8.6634,9.2248,25.0461,14.7056,2.3865,10.1420,23.7408
2054.6875,23.6540,30.9968,12.2860,8.6867,-1.1273,13.2842,7.9155,0.8132,4.8164,15.6349,18.4418,22.6023,7.1070,10.7581,24.9494,18.4650,0.2889,11.3368,24.5001
2058.5938,21.6188,34.5676,9.6923,8.4008,-4.1786,14.7362,5.1952,-1.6952,3.1093,9.3244,21.7208,26.3591,5.7759,10.7604,20.2499,23.1726,-1.3332,11.1673,22.8222
2062.5000,20.0794,37.3471,5.3132,6.6552,-5.9048,14.6002,1.6254,-4.2379,1.5905,7.2000,22.0964,29.7159,5.4371,9.6866,14.1686,27.1351,-1.3204,9.6136,18.2633
2066.4062,20.8987,37.5279,0.6617,4.7382,-6.1273,12.8443,-1.3952,-5.3994,-0.5962,12.8793,19.5628,30.4618,5.9386,8.6797,11.6959,28.8529,0.2765,7.6226,12.0803
2070.3125,24.8190,34.8179,-2.2420,4.0560,-5.5102,10.7496,-2.5653,-4.4792,-3.3996,25.7672,15.5917,27.6300,6.4436,8.7224,15.7644,27.9506,2.3380,6.4566,6.3898
2074.2188,30.9448,30.6593,-2.5161,5.0352,-4.9097,10.1116,-1.8065,-2.0718,-5.9061,40.8245,11.9229,22.4521,6.2348,9.8761,24.5641,25.4361,3.6689,6.7738,2.7013
2078.1250,37.1705,27.2324,-1.2346,6.8117,-4.7323,11.9596,-0.4510,0.3165,-7.1579,51.3222,9.4851,17.7911,5.3686,11.2604,32.2424,23.0571,3.9746,8.2165,0.9846
2082.0312,41.2153,25.9884,-0.7037,7.9908,-4.7898,15.7025,-0.3003,1.3990,-7.0296,52.8885,8.1683,16.3244,4.6322,11.8165,32.7333,22.1584,4.0128,9.8375,-0.0297
2085.9375,41.6550,26.7826,-2.7303,7.8462,-4.6424,19.3434,-2.2740,1.1116,-6.3991,46.1080,7.3701,18.7232,4.8759,11.2269,24.0301,22.8253,4.8334,10.9560,-1.6331
2089.8438,38.4690,28.1835,-7.2277,6.9301,-4.0256,20.6650,-5.7016,0.6527,-6.4556,35.8800,6.6481,23.1421,6.3027,10.1977,9.7595,23.9073,6.7814,11.6655,-4.0398
2093.7500,32.9531,28.6311,-12.2398,6.5595,-2.9721,18.6019,-8.7978,1.4735,-7.7374,28.0305,5.8944,26.4159,8.2958,9.8333,-3.1463,23.8766,9.1020,12.5472,-6.2914
2097.6562,27.1268,27.5113,-15.3429,7.6143,-1.6128,13.8798,-9.9411,4.0121,-9.7297,25.6114,5.0231,26.1248,9.8777,10.6067,-9.0116,21.8650,10.4555,13.8840,-7.1767
2101.5625,22.8955,25.3599,-15.3290,9.6914,0.0396,8.5126,-8.7728,7.2234,-11.3643,27.4366,3.6699,22.0791,10.3882,11.8152,-6.9277,18.1232,9.8975,15.1560,-6.3347
2105.4688,21.2673,23.1574,-12.9048,11.3801,2.0486,4.5346,-6.3176,9.3491,-11.9619,29.6530,1.3704,16.2375,9.8562,12.0441,-0.7836,13.6303,7.5440,15.3702,-4.5868
2109.3750,21.9385,21.4023,-9.9585,11.4661,4.3134,2.8465,-4.1060,9.3560,-11.7520,28.8951,-1.8363,11.2384,8.8716,10.3335,3.9757,9.2619,4.4643,14.0201,-3.2236
2113.2812,23.4992,19.7703,-8.0545,10.0553,6.4600,2.9183,-3.0203,7.8800,-11.4746,24.5647,-4.9360,8.6930,8.1934,7.1228,4.2925,5.2439,1.9955,11.8330,-2.8664
2117.1875,24.2659,17.6122,-7.3416,8.6291,8.0962,3.4458,-2.7288,6.8643,-11.4161,18.6994,-6.1676,8.4429,8.4640,4.1659,1.2465,1.3195,1.0756,10.5489,-2.8783
2121.0938,23.3533,14.7975,-6.6438,8.9192,9.2662,3.3840,-2.0593,8.1086,-10.8056,13.9043,-3.9872,9.1447,10.1541,3.3946,-1.4280,-2.5984,2.0319,11.7449,-1.8364
2125.0000,21.3166,12.1047,-4.5403,11.4776,10.6312,2.5687,0.0505,11.8416,-8.2618,11.2595,1.8306,9.5201,13.5413,5.5394,-0.6010,-5.9646,4.7624,15.5626,1.2994
2128.9062,19.8260,10.7456,-0.5280,15.1104,13.0459,1.5234,3.7561,16.4443,-3.0614,9.8888,9.7567,9.2123,18.4888,9.5307,3.8605,-7.8466,8.9100,20.3728,6.2515
2132.8125,20.4473,11.3698,4.5909,17.6606,16.7378,0.7160,8.1875,19.5654,3.8171,8.2951,17.1245,8.6621,24.1040,13.1289,9.2805,-7.7462,13.7716,23.7394,11.4573
2136.7188,23.3208,13.3723,9.2754,17.5474,20.7694,-0.0440,11.9974,19.7836,9.8996,6.0598,21.4677,8.3123,28.6912,14.3237,12.4993,-6.2897,18.1337,24.0317,15.0382
2140.6250,26.7690,15.1356,12.2373,14.8642,23.3837,-1.5150,14.1382,17.5492,12.7563,4.3180,21.7562,7.9832,30.3645,12.5061,12.2889,-5.0851,20.4790,21.5036,15.9692
2144.5312,28.3081,15.0948,13.1282,11.2068,23.1711,-4.2787,14.3834,14.7206,11.8126,4.6341,18.8073,7.0221,28.1731,8.6460,9.9737,-5.6881,19.7451,18.0427,14.6199
2148.4375,26.4806,12.8442,12.5514,8.4204,20.2494,-7.9564,13.3724,13.1078,8.9931,7.3696,14.7076,5.0683,23.0100,4.4717,8.0020,-8.3887,16.2183,15.7981,12.3710
2152.3438,22.1560,9.4372,11.5682,7.2846,16.4752,-11.0966,12.2608,13.1771,7.5388,11.0587,11.6807,2.6791,17.4858,1.3407,7.8811,-11.7851,11.7836,15.7223,10.6975
2156.2500,18.1665,6.6398,11.1290,7.1331,14.3531,-11.9607,12.1952,13.8785,9.7375,13.3523,11.0750,1.1606,14.5724,-0.4082,9.2333,-13.5879,9.0602,17.0714,10.4031
2160.1562,17.3216,5.7042,11.7334,6.5945,15.3202,-9.7279,13.8082,13.6258,15.2259,12.6638,12.9379,1.6413,15.7598,-1.3136,10.5920,-12.1703,9.7951,18.1281,11.4369
2164.0625,20.1609,6.5828,13.3418,4.7410,18.6658,-5.2497,16.8882,11.5695,21.1830,9.0575,16.2347,4.1192,19.9880,-2.1716,11.0156,-7.7706,13.5954,17.4897,13.2071
2167.9688,24.1910,8.1404,15.4276,1.6902,21.9561,-0.7405,20.3732,8.1529,24.3389,3.6853,19.4532,7.2921,24.2084,-3.5021,10.9746,-2.4568,18.0029,14.9268,15.0039
2171.8750,25.3824,9.1357,17.1372,-1.7389,22.7285,1.4770,22.7750,4.6020,23.3299,-2.5300,21.2662,9.3679,25.3105,-5.4309,11.7401,1.1501,20.0060,11.2717,16.2323
2175.7812,21.0096,9.1593,17.6232,-4.8788,20.2259,0.3672,22.9481,1.8843,19.6373,-9.5629,21.0101,9.2583,22.1275,-7.8773,13.9052,1.4967,17.9925,7.6063,16.4691
2179.6875,11.7838,8.7946,16.5248,-7.7521,15.8736,-3.2142,20.8306,0.0345,16.4082,-17.5837,18.8592,7.2431,16.1156,-10.7175,16.4592,-1.0611,12.7544,4.5027,15.5312
2183.5938,1.6140,8.9290,14.3312,-10.8404,12.1410,-7.1022,17.6494,-1.6499,16.0714,-25.6211,15.6580,4.6170,10.2287,-13.7434,17.3332,-4.7198,6.8165,1.8815,13.6217
2187.5000,-4.9638,9.8387,12.2672,-14.3699,10.6646,-9.1758,15.3081,-3.8185,18.5652,-31.1642,12.4709,2.6445,6.8171,-16.5520,15.0188,-7.5624,2.6068,-0.5659,11.3793
2191.4062,-5.8721,10.8502,11.5885,-17.8413,11.0684,-8.5656,15.2215,-6.4288,21.5064,-31.5894,10.0473,1.6731,6.0753,-18.6218,9.8965,-8.7576,0.8429,-2.9108,9.6105
2195.3125,-2.8266,10.8933,12.6746,-20.2853,11.3595,-5.9550,17.3428,-8.7975,22.1150,-26.5613,8.4949,1.0778,6.1282,-19.6365,4.1277,-8.8169,0.3067,-4.9292,8.7498
2199.2188,0.0613,9.5126,14.6086,-21.0338,9.5415,-2.8888,20.1185,-10.2305,19.3776,-19.3081,7.3809,0.0045,4.6013,-19.7954,0.1612,-8.8750,-0.9274,-6.4288,8.4374
2203.1250,-0.6608,7.4942,15.7002,-20.2993,5.1620,-0.6792,21.5106,-10.6205,14.7919,-15.1986,6.2108,-1.7670,0.4398,-19.7619,-0.9514,-9.6631,-3.8626,-7.5308,7.6576
2207.0312,-5.3987,6.5288,14.7055,-19.0120,-0.3934,0.3042,20.4244,-10.4807,11.1708,-18.1571,4.9333,-3.5672,-5.3785,-20.1789,-0.1152,-10.9748,-7.8500,-8.5437,5.4924
2210.9375,-11.5612,8.0705,11.8613,-18.0329,-5.0226,0.5560,17.5031,-10.4353,10.4853,-27.4644,4.0511,-4.3657,-10.6834,-21.0959,0.7251,-11.9311,-11.2665,-9.5107,1.9933
2214.8438,-15.8863,12.2013,8.8633,-17.4364,-7.4930,0.7889,14.6537,-10.6820,12.4093,-37.6250,4.1951,-3.5992,-13.7609,-21.8156,0.1329,-11.7038,-12.9423,-9.9062,-1.5540
2218.7500,-17.1108,17.3524,7.6714,-16.5157,-8.2326,1.3122,13.6067,-10.9376,14.6238,-41.8545,5.4684,-1.5896,-14.5146,-21.3702,-1.9134,-10.0704,-13.1091,-8.8882,-3.3249
2222.6562,-16.8368,21.1473,8.9725,-14.5230,-8.7618,1.9005,14.5764,-10.8836,14.5522,-36.8912,7.1181,0.7637,-14.3134,-19.3037,-4.3637,-7.4218,-13.1006,-6.0121,-2.2192
2226.5625,-17.9600,21.8233,11.5026,-11.4935,-10.3179,2.1480,16.0598,-10.6358,11.1505,-25.5661,7.8887,2.7044,-14.7661,-16.1240,-6.1945,-4.3574,-14.1154,-1.8334,1.2210
2230.4688,-22.0261,19.2737,12.8418,-8.4012,-12.8381,1.9081,15.9578,-10.7222,5.4401,-15.0343,6.8688,4.1041,-16.4673,-13.0116,-7.1982,-1.3068,-16.1354,2.1762,4.9793
2234.3750,-27.7450,15.0154,11.1533,-6.4734,-15.1090,1.4049,13.1765,-11.5341,-0.4822,-11.7989,4.1848,5.3116,-18.6863,-10.9803,-7.8199,1.5014,-17.9300,4.4442,6.7727
2238.2812,-31.9257,11.1303,6.5498,-6.2378,-15.8992,0.9468,8.4701,-12.7594,-5.0599,-17.1517,0.9423,6.5539,-20.1516,-10.1653,-8.3708,3.7934,-18.1336,4.2720,5.4486
2242.1875,-32.0822,8.9270,0.9991,-7.1265,-15.0911,0.5445,3.8622,-13.4024,-8.2485,-26.4199,-1.6113,7.4818,-20.2046,-9.8395,-8.5417,5.0804,-16.4710,2.2264,1.5608
2246.0938,-28.5665,8.2287,-3.1874,-7.9860,-13.8700,-0.1865,1.0935,-12.5027,-11.2018,-32.5430,-3.0732,7.3268,-19.3608,-9.1498,-7.8059,4.8321,-14.0821,-0.3435,-3.2557
2250.0000,-24.4488,7.7316,-5.1072,-8.0439,-13.8246,-1.7233,0.3088,-10.0098,-15.0762,-31.2277,-4.1992,5.5835,-18.8518,-7.9324,-6.3558,2.9106,-12.6627,-2.2510,-7.5551
2253.9062,-23.1918,6.1338,-5.8648,-7.4710,-15.7023,-4.1808,0.0099,-7.0358,-19.9763,-23.7879,-6.2226,2.6415,-19.5604,-6.8685,-5.5678,-0.1060,-13.1233,-3.1115,-10.9658
2257.8125,-25.9620,3.2190,-7.5308,-7.0361,-18.8030,-7.0871,-1.7013,-5.1621,-24.8332,-15.6605,-9.6804,-0.2156,-21.2182,-6.7946,-7.2952,-3.0439,-14.8591,-3.2138,-14.0290
2261.7188,-30.7239,0.1360,-11.3025,-7.1713,-21.4559,-9.5752,-5.5765,-5.2661,-28.1962,-11.9717,-13.7193,-1.5275,-22.4898,-7.7450,-12.3466,-4.6859,-16.2061,-2.8495,-17.2382
2265.6250,-33.8250,-1.3274,-16.3707,-7.3280,-22.1586,-10.8370,-10.5870,-6.7939,-29.2381,-13.7258,-16.5443,-0.5909,-21.8624,-8.6041,-19.3899,-4.4053,-15.6895,-1.8001,-20.2039
2269.5312,-32.7864,0.0049,-20.4404,-6.2842,-20.5003,-10.4970,-14.6770,-8.1076,-28.2215,-17.5106,-16.7578,2.0803,-18.6733,-7.7887,-25.3808,-2.4597,-13.0612,0.4876,-21.7462
2273.4375,-28.0912,3.7570,-21.5118,-3.2205,-17.2433,-8.6823,-16.2858,-7.6908,-26.1944,-18.6932,-14.5523,5.1056,-13.5583,-4.5036,-27.4536,0.2176,-9.3491,4.1806,-20.8879
2277.3438,-22.6238,8.0192,-19.4936,1.3522,-13.6405,-5.8528,-15.4453,-5.2841,-24.2783,-15.3212,-11.7304,7.1212,-8.0714,0.4465,-24.9582,2.5456,-5.9792,8.4948,-17.8938
2281.2500,-19.3317,10.3625,-16.3363,5.6929,-10.6072,-2.6313,-13.6374,-2.0487,-23.1125,-9.5482,-10.4044,7.5474,-3.7979,5.0356,-20.0488,3.7904,-3.7480,11.9265,-14.3955
2285.1562,-19.0594,9.2503,-14.5628,8.0077,-8.3478,0.2193,-12.6031,0.3774,-22.7487,-5.5767,-11.3150,6.7258,-1.5520,7.4001,-16.2483,3.7779,-2.4528,13.2352,-12.3687
2289.0625,-20.2524,4.9732,-15.3653,7.8110,-6.5569,1.7787,-13.0882,1.1785,-22.8799,-6.0007,-13.1172,5.4245,-1.0929,7.1937,-15.9688,2.8153,-1.3549,12.4185,-12.7110
2292.9688,-20.6028,-0.4969,-17.7784,6.3452,-4.8510,1.1530,-14.4839,0.9773,-23.1084,-9.6423,-13.3215,4.1588,-1.4104,5.8283,-18.8175,1.4640,0.0520,10.8167,-14.5567
2296.8750,-19.1122,-4.6811,-19.5607,5.6465,-3.0179,-2.0586,-15.5284,1.2848,-23.0894,-12.6121,-10.2939,2.8464,-1.3246,5.3568,-21.9566,0.2870,1.6746,10.1438,-15.9234
2300.7812,-16.7933,-6.0928,-19.0311,6.9524,-0.9783,-7.2727,-15.3769,3.2453,-22.6025,-11.5912,-4.8042,0.9832,-0.0688,6.8380,-22.2230,-0.3855,3.1074,11.1438,-15.2221
2304.6875,-15.4861,-5.1248,-16.3618,9.7194,1.3156,-12.8612,-14.1233,6.6903,-21.6494,-6.5443,0.1687,-1.8794,2.3876,9.4701,-18.3927,-0.6478,4.2020,12.9546,-12.4527
2308.5938,-15.9210,-3.7421,-13.3103,12.0607,3.8094,-16.7801,-12.4130,10.2464,-20.5221,-0.6568,1.4055,-5.7462,5.3735,11.2029,-11.9157,-1.0594,5.3125,13.7572,-9.1398
2312.5000,-16.8005,-4.1470,-11.6735,12.2687,6.1529,-17.6465,-10.6124,12.3740,-19.6697,2.3327,-2.1562,-10.1187,7.8921,10.3732,-5.6834,-2.3963,6.9700,12.2641,-7.0725
2316.4062,-15.7645,-7.2662,-11.7800,10.1938,7.6777,-15.5967,-8.3712,12.4777,-19.3140,1.0978,-8.3734,-14.2190,9.1895,7.0797,-1.8969,-5.1241,9.3109,8.8809,-6.8704
2320.3125,-11.4550,-12.0621,-12.2710,7.3564,7.7515,-12.2904,-5.0269,11.2127,-19.0676,-2.4563,-13.0787,-17.2941,9.2353,3.1950,-0.7112,-8.8780,11.8365,5.5771,-7.5338
2324.2188,-4.9139,-16.1595,-11.3193,5.6903,6.3269,-9.9636,-0.5023,9.8021,-17.9656,-5.0735,-12.7666,-18.8478,8.7943,0.9713,-0.5878,-12.3862,13.7701,4.4890,-7.3340
2328.1250,0.9241,-17.4015,-8.2439,5.9405,4.1973,-10.0988,4.1510,8.9884,-15.0878,-5.0157,-6.9426,-18.7828,8.9425,1.3061,0.1169,-14.0734,14.6961,6.2917,-5.3082
2332.0312,3.2985,-15.2934,-4.1639,7.0209,2.6055,-12.5769,7.1633,8.4971,-10.4263,-3.4710,1.5152,-17.4841,10.2533,3.0071,1.7219,-13.0880,14.8782,9.5882,-2.1410
2335.9375,1.6068,-11.3281,-1.1527,6.8620,2.3811,-15.8533,7.2199,7.4171,-5.2837,-3.3851,8.2326,-15.7930,12.2033,3.6285,3.0823,-10.0641,14.9314,11.8076,0.2887
2339.8438,-2.2637,-7.9456,-0.5969,4.0739,3.2677,-17.9913,4.5207,5.1209,-1.6950,-6.8112,10.1362,-14.7577,13.3239,1.2480,2.7220,-6.9665,15.1386,10.9565,0.3376
2343.7500,-5.4650,-6.8437,-2.1055,-0.9050,4.0659,-17.8148,0.8645,1.9183,-1.0930,-13.0703,7.2483,-15.1475,12.1503,-4.1459,0.1860,-5.9566,15.0706,6.9341,-2.1233
2347.6562,-6.2921,-7.8533,-3.8391,-6.0795,3.5996,-15.4301,-1.3870,-1.1024,-3.1434,-19.2520,2.3298,-16.9547,8.3859,-10.6578,-3.5241,-7.9676,13.9323,1.4780,-5.5765
2351.5625,-5.1911,-9.2125,-3.9638,-9.3592,1.7873,-11.8819,-0.7605,-2.8916,-5.7232,-22.5766,-1.2238,-19.2566,3.4047,-15.8142,-6.7138,-12.0006,11.3862,-3.1447,-7.9471
2355.4688,-3.9988,-9.0602,-2.0388,-10.0553,-0.0951,-8.3370,2.4801,-3.2278,-6.2492,-22.6133,-1.6526,-20.6735,-0.4222,-18.1903,-8.2336,-15.7194,8.1125,-5.6793,-8.0496
2359.3750,-4.2274,-7.0340,0.7480,-9.2755,-0.2947,-5.4434,6.6471,-2.8428,-3.5011,-21.5466,0.2944,-20.2374,-1.2461,-18.1713,-8.1507,-16.9984,5.5160,-6.5448,-6.2992
2363.2812,-5.9125,-4.7271,2.6134,-8.9829,1.9988,-3.2490,9.8104,-2.8166,1.4071,-22.3558,2.3152,-18.1129,0.9370,-17.4124,-7.4001,-15.3376,4.7148,-7.2460,-4.2242
2367.1875,-7.9098,-4.5664,2.5865,-10.5150,5.8260,-1.5614,10.9774,-3.7558,5.7199,-26.4515,2.4317,-15.6060,4.1742,-17.5362,-6.8624,-12.1222,5.6181,-9.1128,-3.2547
2371.0938,-9.1774,-7.8738,1.1635,-13.6964,8.9801,-0.3118,10.4973,-5.3948,6.9733,-32.6365,0.3238,-14.3589,5.8452,-19.0735,-6.7317,-9.5411,6.9135,-12.3584,-3.7591
2375.0000,-9.7343,-13.5619,-0.2321,-17.1181,9.5848,0.4080,9.5607,-6.8723,4.7643,-38.0602,-2.7703,-15.2379,4.4843,-21.3312,-6.6559,-8.9870,7.0662,-16.0792,-4.9972
2378.9062,-10.3821,-18.5326,-0.4375,-19.2187,7.5409,0.5889,9.2934,-7.3943,1.0256,-40.2294,-5.2931,-17.7003,0.8032,-23.0991,-6.3549,-10.1381,5.5615,-19.0314,-5.8808
2382.8125,-11.5229,-19.6262,0.6201,-19.2650,4.6656,0.5013,10.1108,-6.7563,-1.4090,-38.4733,-6.6129,-20.1228,-2.8797,-23.5355,-6.0047,-11.3713,3.3542,-20.4816,-5.8332
2386.7188,-12.3467,-15.7874,2.0601,-17.5693,3.3221,0.5856,11.6560,-5.3981,-0.8557,-33.9563,-7.2595,-20.8751,-4.4152,-22.5899,-5.9805,-11.1124,2.0934,-20.5098,-5.0809
2390.6250,-11.3856,-8.8799,2.9003,-14.9982,4.5331,1.0978,13.1544,-4.0739,2.1045,-28.6264,-8.0622,-19.3699,-3.4839,-20.8131,-6.2606,-9.0210,2.7042,-19.6894,-4.2789
2394.5312,-8.1412,-2.5085,2.8116,-12.3584,7.0340,1.8388,13.8071,-3.4652,5.2385,-24.1906,-9.0456,-16.3466,-1.8797,-18.8836,-6.1977,-6.0980,4.4852,-18.5679,-3.9277
2398.4375,-4.3271,0.3491,2.1493,-10.1744,8.0477,2.2459,13.0007,-3.9772,6.4247,-21.8040,-9.1393,-13.2357,-2.1833,-17.2747,-5.0478,-3.7194,5.5128,-17.4162,-4.1206
2402.3438,-3.3401,-0.7815,1.3445,-8.8582,5.2520,1.8110,10.4011,-5.7056,5.1151,-22.2078,-7.0567,-11.1408,-5.8171,-16.2145,-2.8664,-2.4768,4.0953,-16.3582,-4.7587
2406.2500,-7.9606,-3.8162,0.3153,-8.8541,-1.5162,0.4944,6.0986,-8.4235,2.3694,-25.5876,-2.6780,-10.2170,-11.9420,-15.7702,-0.8924,-1.8138,0.1436,-15.6000,-5.8945
2410.1562,-17.8826,-5.8621,-1.5056,-10.4241,-10.0849,-1.1951,0.7895,-11.5454,-0.4344,-30.9226,2.2447,-9.8433,-18.0093,-15.8476,-0.8603,-0.7257,-4.6454,-15.4274,-7.7717
2414.0625,-29.1065,-5.4215,-4.5409,-13.2143,-17.4027,-2.4969,-4.2423,-14.2027,-3.0012,-35.5214,4.8080,-9.3195,-21.5216,-16.1028,-3.6150,1.1534,-7.9720,-15.9312,-10.4766
2417.9688,-36.0001,-3.3842,-8.4367,-16.1015,-21.5102,-2.8109,-7.5595,-15.5742,-6.3624,-35.7376,2.7776,-8.4277,-21.6702,-15.9671,-8.1471,3.0857,-8.5749,-16.7499,-13.5552
2421.8750,-34.8180,-2.0889,-12.0527,-17.6628,-22.5747,-1.9097,-8.3120,-15.3660,-11.7285,-29.0241,-3.7202,-7.3974,-19.6686,-14.9208,-11.9991,3.8489,-7.0640,-17.1427,-16.0513
2425.7812,-26.2404,-3.2225,-14.1474,-17.0411,-22.3207,0.1247,-6.8183,-14.0813,-18.9564,-16.1310,-11.8936,-6.3970,-17.6407,-12.8773,-12.9427,2.9235,-5.3293,-16.4083,-17.0589
2429.6875,-15.0717,-6.2173,-14.2066,-14.5217,-22.4397,3.0504,-4.4950,-12.7470,-26.0282,-1.6248,-17.7150,-5.1229,-17.0025,-10.3287,-10.7220,1.1848,-5.0352,-14.3215,-16.3885
2433.5938,-7.2385,-8.4233,-12.7236,-11.2723,-23.2841,6.4752,-3.0541,-12.1634,-30.1280,8.1958,-18.2327,-2.9554,-17.5710,-8.0373,-7.4453,0.4081,-6.3973,-11.2106,-14.7744
2437.5000,-6.1471,-6.9673,-10.7203,-8.3722,-23.8169,9.7389,-3.4523,-12.2021,-29.5593,9.0079,-13.2793,0.4002,-17.9623,-6.4429,-6.1689,1.8990,-8.1510,-7.6080,-13.3879
2441.4062,-10.8532,-0.9172,-8.9498,-5.9138,-22.7145,11.9322,-5.3254,-11.7692,-25.0024,1.3714,-5.4816,4.3806,-16.8082,-5.2743,-8.6349,5.3533,-8.6362,-3.7952,-12.9996
2445.3125,-17.1182,7.8712,-7.4791,-2.9725,-19.6173,12.2793,-7.3337,-9.5945,-19.0928,-9.3022,1.3877,7.7151,-13.7603,-3.7503,-13.8707,8.9329,-7.0572,0.3370,-13.4492
2449.2188,-20.3696,15.8585,-5.9742,1.4572,-15.4879,10.7518,-8.1790,-5.3196,-14.6311,-15.9007,4.6043,9.2713,-9.5608,-1.2760,-18.7767,10.5811,-3.9350,4.9752,-13.8516
2453.1250,-18.4015,20.0680,-4.3540,7.3154,-11.8438,8.4210,-7.5530,-0.0139,-12.8099,-13.8557,3.8364,8.9666,-5.2991,1.9283,-20.3259,9.5708,-0.5104,9.9186,-13.3698
2457.0312,-12.1265,19.8585,-3.1372,13.1462,-9.5725,7.0756,-6.3263,4.3975,-12.7848,-3.6806,0.9069,7.9653,-1.6058,4.8504,-17.7408,7.0493,2.2703,14.4382,-11.9167
2460.9375,-4.2898,17.0282,-3.0934,16.9864,-8.3283,8.1487,-5.8713,6.4656,-12.7870,9.7564,-1.6694,7.9076,1.5469,6.4372,-13.0056,5.1286,4.3021,17.6768,-10.2145
2464.8438,2.5383,14.3260,-4.4684,17.8563,-6.9654,11.6275,-7.0479,6.3161,-11.7369,20.4907,-2.2749,9.7049,4.4126,6.5118,-9.3366,5.2436,6.0289,19.3151,-9.1758
2468.7500,7.1893,13.5752,-6.4958,16.6514,-4.5706,15.8211,-9.5918,5.6168,-9.9922,24.9106,-0.8808,12.8370,6.9642,6.0779,-8.7877,7.0988,7.7330,19.9433,-9.1268
2472.6562,9.8011,14.7678,-7.7047,15.6394,-1.1976,18.3441,-12.2856,6.3638,-8.6953,23.2504,1.4253,15.7305,8.8793,6.6723,-10.8008,9.0398,9.1687,20.7643,-9.5073
2476.5625,11.0107,16.6142,-6.8568,16.8617,2.2818,17.7597,-13.6903,9.3838,-8.4255,18.6190,3.5161,16.9499,10.0313,9.2041,-12.7478,9.5185,9.9106,22.7914,-9.2701
2480.4688,11.4111,17.8938,-3.7794,20.6505,5.0070,14.7155,-12.8657,13.7188,-8.4449,14.7481,5.0392,16.2696,10.9449,13.1858,-11.9754,8.4171,10.0496,26.1372,-7.6281
2484.3750,11.6628,18.4340,0.5873,25.4259,6.8695,11.6515,-9.6471,17.3947,-7.2522,14.1329,6.4555,14.7768,12.6470,17.0060,-7.7631,7.1173,10.4799,29.9524,-4.5463
2488.2812,12.8000,18.9969,4.9593,28.9353,8.5244,11.1637,-4.4885,18.9752,-3.9549,17.4109,8.4542,13.9281,15.9022,19.0796,-1.7648,7.2445,12.3586,33.0675,-0.6394
2492.1875,16.0162,20.3261,8.6374,29.9488,10.7001,14.1413,1.7996,18.6628,0.7955,23.6686,11.3317,14.3289,20.4544,18.9929,3.2755,9.1314,16.1014,34.8323,3.3486
2496.0938,21.7965,22.2718,11.8170,29.0659,13.4560,19.0388,8.1616,18.0591,5.2065,30.9167,14.8234,15.2281,24.9989,17.7418,5.4559,11.3062,20.7947,35.4971,6.9890
2500.0000,29.0840,23.7598,15.0504,28.0264,16.0611,22.8635,13.3334,18.7835,7.8023,36.4608,18.4103,15.1430,28.0414,16.8779,4.8560,11.4994,24.6437,35.8564,10.1917
2503.9062,35.3961,23.5895,18.3931,28.1453,17.6079,23.2001,16.0872,21.0813,8.6785,37.5469,21.7135,13.1054,29.0166,17.2596,3.1895,8.4278,26.2320,36.4799,12.8981
2507.8125,38.1335,21.3472,21.0540,29.1967,17.8177,19.8230,15.7936,23.5708,9.4040,32.6186,24.5787,9.5201,28.7387,18.4211,2.4485,2.9640,25.6247,37.1759,14.8454
2511.7188,36.2837,17.6676,21.9279,29.6708,17.3332,14.7560,12.9924,24.3516,11.5671,22.7085,26.8158,5.9387,28.7481,19.0603,3.6607,-2.2521,24.3897,37.1255,15.6992
2515.6250,31.2355,13.6927,20.5930,28.1650,17.2374,10.7970,9.4286,22.5775,15.1760,11.7606,27.9332,3.9296,30.0291,18.2224,6.5782,-4.5078,24.4402,35.5633,15.4475
2519.5312,25.9879,10.2642,17.8954,24.7101,18.2089,9.6430,7.2742,19.2120,18.3412,5.0036,27.2498,3.9417,32.1403,16.1753,10.2379,-2.7820,26.5642,32.4410,14.6377
2523.4375,23.2485,7.5641,15.5495,20.8896,20.0261,10.9761,7.8937,16.3388,18.6525,5.9041,24.4210,5.0455,33.5119,14.2343,13.6917,1.6771,29.7944,28.5403,14.1376
2527.3438,23.7940,5.4475,15.0032,18.6182,21.8176,13.0662,10.9933,15.5732,15.2213,13.6522,19.9847,5.7190,32.7241,13.6651,16.2873,6.2960,32.1315,24.9578,14.5449
2531.2500,26.2739,4.0387,16.4561,18.5749,22.8090,14.2800,14.8512,16.8380,9.7158,23.1974,15.4098,5.0222,29.7484,14.5646,17.5009,8.8651,32.0617,22.3822,15.7374
2535.1562,28.5132,3.9217,18.8209,19.5835,22.9042,14.2633,17.5598,18.4587,5.4440,28.2246,12.4593,3.2382,26.1171,15.6461,16.8224,8.7532,29.6782,20.7122,16.9930
2539.0625,29.2142,5.6485,20.6458,19.4652,22.6142,13.9418,18.3937,18.4627,5.0923,25.2226,12.2163,1.5347,23.8301,15.1231,14.0869,6.9191,26.5431,19.2570,17.6255
2542.9688,28.7187,8.9791,21.2238,16.6860,22.4388,14.4904,18.2439,16.0238,8.8394,15.7653,14.4368,0.9967,23.8323,12.0025,10.0579,4.9473,24.4363,17.2966,17.5994
2546.8750,28.3179,12.6050,20.9828,11.4953,22.2947,16.2174,18.7314,11.9323,14.3068,5.2760,17.7034,1.8383,25.2716,6.7848,6.5941,3.9750,24.0126,14.5468,17.5549
2550.7812,28.8107,14.7619,20.8827,5.6886,21.5365,18.2829,20.6756,7.8159,18.3770,-0.8742,20.2909,3.3777,26.1403,1.0728,5.9118,4.2548,24.4232,11.2303,18.1711
2554.6875,29.5867,14.3744,21.4063,1.2498,19.5762,19.4085,23.1734,4.8458,19.4432,-1.0472,21.1462,4.6858,24.8090,-3.5373,9.2005,5.4399,24.1477,7.8159,19.4040
2558.5938,29.0180,11.8555,22.0658,-0.9998,16.5537,18.9138,24.1277,3.0102,18.3495,1.9186,20.3229,5.2923,21.2540,-6.3836,15.5428,7.0999,22.3069,4.7237,20.3162
2562.5000,25.8181,8.8789,21.8717,-1.7070,13.4360,17.2074,21.9197,1.4717,17.3642,3.3400,18.6415,5.3686,17.0319,-7.8178,22.0720,8.9426,19.3759,2.2241,19.7515
2566.4062,20.2204,7.2384,20.3356,-2.1265,11.3913,15.3855,16.9345,-0.4316,18.1126,0.5220,16.9252,5.3307,14.0527,-8.5239,25.4819,10.6603,16.7531,0.5003,17.3644
2570.3125,13.9944,7.6443,18.0778,-2.9293,10.9170,14.3547,11.6486,-2.4919,20.1886,-5.2332,15.4348,5.3221,13.1385,-8.7717,23.9836,11.7514,15.5883,-0.3251,14.1272
2574.2188,9.2804,9.3729,16.4343,-3.7101,11.4294,14.2376,9.0529,-3.8515,21.5448,-9.9097,13.8960,5.0920,13.4827,-8.2677,18.3944,11.6758,15.8495,-0.3132,11.7861
2578.1250,7.1684,10.9960,16.3394,-3.5413,11.6690,14.4971,10.4994,-3.8836,20.2733,-10.1426,11.9966,4.3635,13.3738,-6.6622,11.6043,10.2997,16.3659,0.1444,11.5875
2582.0312,7.1061,11.5501,17.4343,-1.9920,10.6115,14.5526,14.6009,-2.8833,16.2587,-5.8552,9.8500,3.2924,11.5494,-4.1600,6.7921,8.2029,15.7628,0.3947,13.2525
2585.9375,7.5088,11.1751,18.2145,0.3401,8.1688,14.2743,18.0861,-1.9066,11.3293,-0.0972,7.9880,2.5196,8.1003,-1.6047,5.6112,6.4592,13.4970,-0.1061,15.0615
2589.8438,6.9935,10.7350,17.1677,2.2506,5.1446,13.9297,18.0523,-1.8834,7.7971,3.5944,6.8834,2.7031,4.2769,0.0829,7.5066,5.9580,10.1819,-1.3522,15.0714
2593.7500,5.2441,10.8202,13.9961,2.9013,2.5198,13.7250,13.9778,-2.8115,6.5953,3.9771,6.4314,3.9286,1.4561,0.6151,10.4544,6.7916,7.0153,-2.6696,12.5683
2597.6562,2.9290,11.0616,9.9049,2.4551,0.6799,13.4702,8.0127,-3.7782,6.5320,2.7197,5.8787,5.5568,0.1531,0.5436,12.4288,8.2453,4.8504,-3.1216,8.6278
2601.5625,0.9127,10.4102,6.6936,1.8210,-0.7905,12.7582,3.3593,-3.8206,5.2492,2.5106,4.3310,6.7040,-0.1705,0.7511,12.5272,9.4345,3.6762,-2.2051,5.3236
2605.4688,-0.4708,8.1766,5.3843,1.7735,-2.6118,11.5106,1.9879,-2.8539,1.1067,4.4745,1.4847,6.9820,-0.4636,1.6718,11.1206,10.0616,2.8582,-0.2998,4.1839
2609.3750,-1.4936,4.9256,5.5125,2.2837,-5.0586,10.3347,3.3989,-1.8032,-5.4923,7.2269,-1.9825,6.8516,-1.2408,2.9422,9.1991,10.6304,1.8330,1.5483,5.0875
2613.2812,-2.5187,2.3863,5.6519,2.6913,-7.5904,10.2471,5.2899,-1.7573,-12.3240,8.3559,-4.6941,7.2450,-2.2445,3.8117,7.5859,11.9093,0.6175,2.4138,6.4455
2617.1875,-3.4686,2.3348,4.7027,2.5544,-9.1597,11.8867,5.5030,-2.8514,-16.8740,6.9232,-5.3739,8.7435,-2.8077,3.9487,6.5833,14.1075,-0.2718,2.2651,6.4894
2621.0938,-3.8009,5.2815,2.8247,2.3537,-8.9386,14.8563,3.6757,-3.8913,-17.9712,4.6563,-3.6320,11.0077,-2.4959,3.8986,6.0928,16.5171,-0.3400,2.0803,4.6228
2625.0000,-2.9896,10.0041,1.2122,3.3106,-6.8844,17.8124,1.3291,-3.1462,-16.3572,4.6685,-0.2310,12.9806,-1.4264,4.7285,5.8580,17.9994,0.4409,3.1478,1.7741
2628.9062,-1.0255,14.3242,0.9081,6.3674,-3.7372,19.3349,0.4155,0.2577,-13.9328,8.7590,3.3050,13.7317,-0.0320,7.1138,5.5226,17.9487,1.6592,6.0459,-0.4787
2632.8125,1.5485,16.5448,1.7047,11.1775,-0.5143,18.9418,1.5713,5.4744,-12.4129,15.6653,5.4572,13.2468,1.4209,10.6458,4.5528,16.9002,2.8949,10.0961,-1.2493
2636.7188,4.0972,16.4561,2.1313,16.0423,2.0637,17.4350,3.5067,10.3612,-12.4162,21.8748,5.3884,12.4756,3.0467,13.9976,2.3243,16.1895,4.1175,13.7534,-1.0430
2640.6250,6.3994,15.1779,0.6090,18.9810,3.8025,16.2665,4.0038,12.9169,-13.4966,24.3987,3.2114,12.5582,5.0701,15.8655,-1.4641,16.8646,5.6631,15.6766,-1.2713
2644.5312,8.7094,14.0535,-3.1638,19.1499,4.8587,16.3973,1.6919,12.6315,-14.8246,23.1774,-0.1808,13.8491,7.3640,15.9302,-6.2884,18.7218,7.8105,15.6736,-3.0213
2648.4375,11.3118,13.5389,-7.7771,17.4675,5.4339,17.5405,-2.8349,10.7084,-15.8316,21.0481,-3.5363,15.5589,9.3066,15.0375,-10.6990,20.3090,10.3578,14.7959,-6.1122
2652.3438,14.0079,12.9798,-11.0489,15.9073,5.6527,18.3857,-7.4248,9.0319,-16.3792,21.2708,-5.7047,16.3386,10.1874,14.4496,-12.9041,19.9780,12.6112,14.5101,-9.1944
2656.2500,16.0706,11.3898,-11.6210,15.9963,5.6866,17.6157,-9.9373,8.7531,-16.5527,24.7102,-6.0136,15.3502,9.8557,14.8084,-11.7791,17.1914,13.8333,15.5871,-10.7693
2660.1562,16.7897,8.5094,-9.9307,17.7192,5.9031,14.9041,-9.7168,9.6312,-16.4722,29.0830,-4.4926,12.9450,9.0163,15.6986,-7.6230,13.0317,13.7895,17.5608,-10.2710
2664.0625,16.1617,5.2217,-7.7712,19.6960,6.7926,11.1134,-7.8565,10.5832,-16.3290,30.9196,-1.8706,10.3793,8.8282,16.1750,-2.0797,9.4611,12.9417,19.1516,-8.3530
2667.9688,15.0836,2.9674,-6.8104,20.4457,8.6612,7.5723,-6.1583,10.8663,-16.4736,28.5541,0.7212,8.7876,10.0594,15.7678,2.7698,7.8794,12.1392,19.2904,-6.2304
2671.8750,14.7892,2.6422,-7.2933,19.6484,11.3462,5.0433,-5.7197,10.8067,-17.2567,23.5652,2.2889,8.2524,12.4703,15.0431,5.5274,8.1035,12.0693,17.9321,-4.7054
2675.7812,15.9222,3.8714,-7.9892,18.3366,14.2362,3.2132,-6.2926,11.4349,-18.6127,19.4301,2.5124,7.7388,14.9582,15.1707,6.0481,8.5727,12.9012,16.0423,-3.7110
2679.6875,18.0032,5.2231,-7.4001,17.8705,16.6262,1.0860,-6.8306,13.3731,-19.7805,18.5711,1.9224,5.9542,16.3777,16.8316,5.1521,7.6102,14.3480,14.8162,-2.6889
2683.5938,19.7798,5.1570,-5.1915,18.6054,18.1356,-2.0795,-6.6256,16.0048,-19.6008,20.3792,1.5224,2.4349,16.3853,19.4183,3.8307,4.7336,15.9989,14.7728,-1.3652
2687.5000,20.2373,2.9544,-2.6188,19.4380,18.8499,-6.0611,-5.9899,17.7287,-17.3691,21.9548,2.0278,-2.0257,15.6223,21.2884,2.6295,0.9835,17.5761,15.4247,-0.1610
2691.4062,19.4777,-1.0238,-1.5687,18.6787,19.0910,-9.7546,-5.9083,17.1616,-13.6262,20.9137,3.2336,-5.9472,15.0990,20.9569,1.6372,-1.9630,18.9159,15.7203,0.1527
2695.3125,18.7245,-5.8077,-2.9984,15.5505,19.0572,-11.9666,-7.0208,14.3069,-10.1255,17.7493,4.0245,-8.2608,15.3150,18.2834,0.9227,-3.1499,19.7890,14.8457,-0.7666
2699.2188,19.3787,-10.5062,-6.0694,11.0354,18.6852,-12.2998,-8.8868,10.6796,-8.7737,15.5609,3.1266,-9.0496,15.8647,14.6560,0.8729,-3.0724,19.8540,12.7355,-2.3636
2703.1250,21.8143,-14.6433,-8.7131,7.2849,17.8674,-11.4743,-10.2196,8.2198,-10.2131,17.2360,0.1411,-9.3606,15.8579,11.9642,2.0269,-3.2109,18.8878,9.9455,-3.5063
2707.0312,24.8523,-17.9994,-9.1893,5.9881,16.7885,-10.8831,-9.9166,7.8296,-13.1539,22.4779,-3.8964,-10.2877,14.7735,11.1519,4.5254,-4.7719,17.1106,7.0889,-3.3714
2710.9375,26.3840,-20.2994,-7.3883,6.9818,15.9939,-11.7234,-7.9971,8.6971,-15.1101,27.3655,-6.9293,-12.0990,12.9888,11.5071,7.7145,-7.6609,15.2495,4.3638,-2.1422
2714.8438,24.7707,-21.1760,-4.8413,8.2421,16.0241,-14.2843,-5.6235,8.9493,-14.1177,27.0925,-7.1004,-14.1028,11.4987,11.2628,10.3604,-10.4965,14.1590,1.5578,-0.8931
2718.7500,20.0594,-20.4848,-3.4530,7.3217,16.8741,-17.7882,-4.1658,7.1129,-10.1716,19.8068,-4.0006,-15.2986,11.0518,9.0212,11.4110,-11.6290,14.2257,-1.5403,-0.7157
2722.6562,14.1603,-18.6235,-3.9886,3.1547,17.7824,-20.7888,-4.0908,3.2332,-5.2384,8.3934,0.9294,-15.2127,11.4498,4.8513,10.7391,-10.3421,15.0382,-4.7416,-1.7989
2726.5625,9.8319,-16.4396,-5.5053,-3.1374,17.6493,-21.8416,-4.6135,-1.1930,-1.7672,-1.4114,5.1853,-14.2026,11.6510,0.1954,9.2723,-7.3227,15.6593,-7.4460,-3.2255
2730.4688,9.1114,-14.6845,-6.1220,-9.0195,15.8644,-20.1214,-4.3970,-4.3543,-0.8105,-5.2164,6.7158,-13.0129,10.6377,-3.2915,8.3928,-4.0956,15.3478,-9.0235,-3.6544
2734.3750,12.1676,-13.4349,-4.4440,-12.2686,12.9130,-15.7771,-2.6879,-5.3909,-1.2155,-3.1839,5.1958,-12.0175,8.3465,-4.9877,9.0708,-1.9279,14.1709,-9.2400,-2.3169
2738.2812,17.2488,-12.0061,-0.4980,-12.3418,10.2201,-9.9333,0.0953,-4.8237,-0.5345,0.3291,2.2332,-10.8390,5.8649,-5.6239,11.3756,-1.0527,12.9801,-8.3592,0.4916
2742.1875,21.7048,-9.4922,4.4900,-10.4448,9.2433,-4.3084,2.8192,-3.9166,3.0458,0.4265,0.3784,-8.6830,4.6828,-6.4768,14.6510,-0.7260,12.7156,-6.8613,3.7909
2746.0938,23.4406,-5.5187,9.1524,-8.4091,10.4458,-0.5126,4.7154,-3.5977,9.2640,-4.3024,1.5812,-5.0907,5.5610,-8.1819,18.0732,0.0552,13.5750,-5.0645,6.7791
2750.0000,21.9741,-0.5853,12.9167,-7.3588,12.9212,0.7343,6.0992,-3.8414,15.9466,-10.6177,6.0588,-0.4552,7.9097,-10.1924,21.0521,1.8060,14.7309,-3.0057,9.3942
2753.9062,18.5547,4.2838,16.0662,-7.1743,14.9851,0.0545,8.0417,-3.9341,20.6129,-13.2414,12.2326,4.1424,10.1694,-11.3148,23.1862,4.3117,14.8766,-0.6657,12.0872
2757.8125,15.3433,8.2619,18.9997,-7.0036,15.3064,-0.8375,11.2314,-3.2758,22.2281,-9.1352,17.6919,7.6290,10.8924,-10.8095,23.9979,6.9341,13.2031,1.7135,15.0506
2761.7188,14.1360,11.1717,21.4657,-6.2161,13.7301,-0.0945,15.0170,-1.9738,21.7323,-0.0335,20.5361,9.5833,9.6713,-9.0785,22.9259,9.0800,10.0401,3.5729,17.6589
2765.6250,15.3223,13.2846,22.5260,-4.9452,11.1800,3.0865,17.5390,-0.7580,20.9962,8.7299,20.2935,10.3201,7.2158,-7.3494,19.7823,10.4312,6.6260,4.3529,18.7091
2769.5312,17.6259,14.7087,21.3083,-3.8493,8.7516,7.8299,16.9761,-0.3815,21.1232,12.0908,17.9520,10.4231,4.5819,-6.6626,15.3233,10.8659,4.1597,3.9278,17.3363
2773.4375,18.7744,15.0154,17.8705,-3.4478,6.7403,11.9931,12.9602,-1.0916,21.5076,8.7516,15.1984,10.2052,2.2402,-7.0622,11.2886,10.3230,2.8676,2.7602,13.8388
2777.3438,16.7608,13.5556,13.3759,-3.7049,4.3903,13.4496,7.0027,-2.6056,20.3898,1.6906,13.3878,9.5968,-0.2403,-7.6906,9.5842,8.8620,1.8279,1.5961,9.6596
2781.2500,11.0226,10.2510,9.3670,-4.2103,0.5686,11.4318,1.5172,-4.5092,16.4041,-4.4349,12.8416,8.5166,-3.6568,-7.6585,11.0236,6.8779,-0.2868,0.9265,6.4502
2785.1562,2.8748,6.1144,6.7135,-4.6935,-5.1674,7.0319,-1.8456,-6.6064,9.8206,-6.7005,12.8157,7.2959,-8.2702,-6.8702,14.5644,5.1715,-4.1050,0.6611,4.9251
2789.0625,-5.0791,2.8847,5.1000,-5.2949,-11.9516,2.5235,-3.2550,-8.8626,2.4746,-5.4397,12.0852,6.6592,-13.3143,-6.0346,17.7582,4.6351,-8.9297,0.2994,4.4330
2792.9688,-10.2480,1.8983,3.4668,-6.2873,-17.9254,-0.0074,-4.3212,-11.0462,-3.5275,-2.9900,9.7689,7.1863,-17.3411,-5.8440,18.2543,5.6767,-13.0667,-0.5435,3.6079
2796.8750,-11.3269,3.0610,1.0133,-7.5193,-21.2640,0.2271,-6.6013,-12.5298,-7.2574,-1.1310,5.9170,8.7204,-19.1356,-6.0895,15.3352,7.8303,-14.8704,-1.7088,1.5814
2800.7812,-8.8138,4.8345,-2.0915,-8.1753,-21.1720,2.5638,-10.2169,-12.5809,-9.4264,0.3879,1.5346,10.3240,-18.4832,-5.5801,10.3410,9.9536,-13.7541,-2.5406,-1.2351
2804.6875,-4.5210,5.3898,-4.8737,-7.1967,-18.1890,5.6436,-13.7201,-10.9752,-11.5640,3.0377,-1.9749,10.9550,-16.2169,-3.0413,5.6419,10.9702,-10.4816,-2.3708,-3.4459
2808.5938,-0.4655,4.0967,-6.4243,-4.0952,-13.6986,8.3816,-15.3213,-8.3630,-14.6551,7.4001,-3.6312,10.3751,-13.5627,1.7265,2.9262,10.6402,-6.6117,-1.0241,-3.8136
2812.5000,2.1216,2.1386,-6.7091,0.5233,-9.1031,10.4181,-14.4681,-5.9541,-18.3535,11.9295,-3.4808,9.5055,-11.3349,7.4427,2.1121,9.7453,-3.5599,1.0905,-2.3229
2816.4062,3.0995,1.6654,-6.6334,5.2197,-5.2669,11.8584,-12.4595,-4.6645,-21.3491,13.9316,-2.6076,9.8147,-9.5921,12.1167,1.6931,9.4935,-1.9337,3.3594,-0.3046
2820.3125,3.0116,4.0586,-7.3282,8.6169,-2.4956,12.7354,-11.5512,-4.4074,-22.5072,12.0187,-2.5151,12.1153,-7.9266,14.4245,0.1706,10.5645,-1.4956,5.4456,0.4809
2824.2188,2.4427,8.6557,-9.2854,10.2300,-0.8388,12.7978,-13.2312,-4.1695,-21.8205,7.8217,-4.2408,15.7070,-6.0425,14.5827,-2.6415,12.5254,-1.6125,7.4067,-0.9271
2828.1250,1.6788,12.9948,-12.0636,10.5814,-0.3051,11.8216,-17.0341,-2.8830,-20.4529,5.2129,-7.7492,18.6250,-4.0901,14.0108,-5.5313,14.0857,-1.7542,9.3363,-4.0944
2832.0312,0.8416,14.4744,-14.7604,10.5582,-0.7784,10.0698,-20.8447,-0.3939,-19.9281,7.3784,-11.9879,18.9302,-2.5098,14.0829,-7.0742,14.0122,-1.6947,10.8951,-7.6350
2835.9375,0.2053,12.1991,-16.7789,10.6172,-1.7999,8.3361,-22.4634,2.3223,-21.1570,14.0143,-15.5623,16.1260,-1.5890,15.0426,-7.0492,12.0117,-1.3937,11.2677,-10.2618
2839.8438,0.2678,7.6098,-18.1919,10.5458,-2.5554,7.3949,-21.2132,3.9510,-24.0036,21.0314,-17.5745,11.6198,-1.1663,15.9952,-6.8214,8.9204,-0.7878,9.7372,-11.5811
2843.7500,1.4367,3.4250,-19.4147,9.9605,-2.2193,7.2949,-18.3493,4.0137,-27.5549,23.2596,-18.0725,7.8197,-0.7440,15.9489,-8.2646,6.0788,0.2795,6.4837,-12.0575
2847.6562,3.6254,1.7221,-20.5416,9.0218,-0.4449,7.1834,-15.9928,3.4190,-30.7050,18.2461,-17.8376,6.4885,0.1241,14.9397,-12.0434,4.3955,1.9562,2.8921,-12.3097
2851.5625,6.2079,2.6159,-21.0131,8.6234,2.4023,5.9541,-15.4647,3.8423,-32.5602,8.2865,-17.7102,7.5516,1.5385,14.1815,-16.6755,3.8070,4.2460,0.9465,-12.4261
2855.4688,8.4770,4.4708,-19.9640,9.7765,5.4945,3.2741,-16.3229,6.3690,-32.5125,-0.8976,-17.9606,9.2313,3.3042,15.0330,-19.2451,3.4932,6.9678,2.0028,-11.8943
2859.3750,10.2567,5.3537,-16.9681,12.6782,8.1028,0.1109,-16.8010,10.5080,-30.2152,-3.9040,-18.1444,9.3853,5.2322,17.6455,-17.3485,2.6067,9.8126,5.8073,-10.1457
2863.2812,12.0953,4.5055,-12.5038,16.3176,10.0309,-1.7984,-15.2264,14.4493,-25.7266,0.8945,-17.5030,7.0446,7.3593,20.5163,-10.8467,0.9131,12.4047,10.5490,-7.1682
2867.1875,14.7739,2.6995,-7.7017,19.0798,11.5902,-1.2448,-11.2658,16.4381,-19.7626,10.5948,-15.5741,3.0249,9.8444,21.4646,-2.1021,-1.1276,14.3236,13.9999,-3.6187
2871.0938,18.4808,1.3378,-3.5709,19.9441,13.1819,1.3809,-6.0703,16.1925,-13.6989,20.0443,-12.5625,-0.7775,12.6386,19.3400,5.4981,-2.8189,15.1579,14.9561,-0.3507
2875.0000,22.3745,1.1586,-0.3829,19.2968,14.8860,4.1460,-1.3191,15.1874,-9.0552,25.2978,-9.2375,-2.8109,15.2797,15.0865,9.6521,-3.7926,14.6895,13.9252,2.1918
2878.9062,25.0171,1.6587,2.2460,18.6139,16.4319,4.8157,1.9796,15.5138,-6.6568,25.7318,-6.4787,-2.9243,17.0885,11.2300,10.3762,-4.2246,13.1656,12.5546,4.1651
2882.8125,25.4349,1.6422,4.6741,19.1894,17.5619,2.3780,3.9745,18.1782,-6.0760,23.5441,-4.8049,-2.3110,17.6777,10.1044,9.5623,-4.5899,11.4348,12.2603,5.9640
2886.7188,23.9658,0.3275,6.6297,20.9208,18.4211,-2.2943,5.4665,22.1979,-5.8744,21.4102,-4.1629,-2.4712,17.3581,12.1664,9.3336,-5.2264,10.7036,13.1322,7.6958
2890.6250,22.1329,-1.9721,7.3219,22.1963,19.5618,-7.1229,6.9768,25.2394,-4.5774,20.2999,-4.0261,-4.0352,17.0463,15.7019,10.5013,-6.0890,11.9117,13.9653,9.0307
2894.5312,21.5474,-4.1378,6.2611,21.0714,21.4926,-10.2609,8.2511,25.3227,-1.6892,19.0573,-3.6638,-6.3175,17.6604,18.1274,12.2193,-6.8489,15.0678,13.3592,9.5908
2898.4375,22.6849,-5.1681,4.0703,16.8513,24.1334,-11.1384,8.6058,22.2599,2.0410,15.8007,-2.4278,-7.8633,19.4288,17.8311,12.9359,-7.1831,19.0352,10.9712,9.4994
2902.3438,24.5608,-4.8874,2.4616,10.8058,26.6743,-10.3603,7.7440,17.7094,5.3227,9.8264,0.0109,-7.5061,21.6518,15.1114,11.7766,-6.9728,22.0222,7.8831,9.5043
2906.2500,25.6359,-3.8562,3.1936,5.3798,28.0274,-8.7165,6.2573,13.8373,7.4221,2.4942,3.4863,-5.1494,23.1325,11.5552,9.2828,-6.2787,22.5438,5.7659,10.4531
2910.1562,25.2374,-2.6601,6.7232,2.4546,27.5635,-6.3219,5.3219,11.6716,8.7407,-3.4786,7.2837,-1.7735,22.9733,8.4891,7.0485,-5.2051,20.2389,5.5072,12.5125
2914.0625,24.2687,-1.3082,11.6404,1.9914,25.5537,-2.7350,5.8226,10.4448,10.3845,-5.6710,10.3320,1.2284,21.1488,5.8610,6.6602,-3.8506,15.9863,6.4160,14.8349
2917.9688,24.5035,0.6816,15.4531,2.1166,22.9542,2.0461,7.6480,8.3897,13.0953,-3.3589,11.6867,2.8586,18.4445,2.4777,8.7737,-2.4037,11.2552,6.6739,16.0638
2921.8750,26.9422,3.6133,16.2391,0.5897,20.6981,6.7175,9.7668,4.2858,16.4781,2.1562,11.1200,2.9536,15.8518,-2.6642,12.9041,-1.2247,7.1856,4.7054,15.3592
2925.7812,30.5942,7.0377,13.9589,-3.4767,19.0657,8.9564,11.0327,-1.5010,19.2284,8.2815,9.4265,2.0938,13.9223,-9.1480,17.8818,-0.7130,4.0836,0.4108,13.1316
2929.6875,32.8329,9.8718,10.4293,-8.9521,17.6405,6.9302,11.0491,-7.2644,20.2070,12.3299,8.1156,1.1872,12.5796,-15.1016,22.4984,-0.9590,1.6667,-4.6937,10.8463
2933.5938,31.2480,11.1668,7.9809,-13.5365,15.8621,0.9392,10.3850,-11.2054,19.4627,12.5487,8.5414,1.0389,11.4747,-18.4219,25.9071,-1.4488,-0.2243,-8.5230,9.9968
2937.5000,25.6307,10.8604,7.8353,-15.4106,13.6795,-6.2296,9.9854,-12.6291,18.3033,8.6700,10.9838,2.0918,10.5130,-18.2615,27.7013,-1.1528,-1.1184,-9.8354,11.0392
