Time,Fp1,F3,C3,P3,O1,F7,T3,T5,Fz,Fp2,F4,C4,P4,O2,F8,T4,T6,Cz,Pz
0.0000,-10.1119,-1.2280,0.3823,-5.4013,-5.6427,-2.9412,4.8154,-5.2991,-2.2762,-6.1616,1.7550,0.4407,-7.1104,-11.7557,4.6895,1.2095,-4.8087,-1.9674,-6.6573
3.9062,-2.8811,-2.2712,-2.7613,-6.8312,-9.0814,1.1200,-2.6804,-7.6891,-0.3953,1.5212,2.9906,-1.6779,-7.3865,-14.6208,8.4554,0.0120,-5.1910,-2.3811,-7.6873
7.8125,6.1934,-1.1282,-4.5546,-7.8236,-12.7400,6.5877,-8.6478,-10.7511,3.1745,9.1628,5.2753,-3.7274,-6.4959,-15.3727,12.0831,5.1144,-4.4914,-2.0817,-6.8045
11.7188,15.1121,2.6612,-2.4815,-5.7007,-13.4456,11.6542,-9.3713,-11.0892,8.9039,15.5729,9.2408,-3.5731,-2.0934,-10.1095,15.9399,16.4990,0.0913,0.9227,-2.3219
15.6250,22.0878,7.9913,3.9618,0.8260,-9.3387,14.7128,-4.2223,-6.3298,15.9882,20.5384,14.5836,0.1332,6.9288,2.2388,20.5794,29.3956,9.6077,7.2845,5.7584
19.5312,26.1845,12.7812,12.3969,10.1801,-1.6936,15.4538,3.7611,2.6734,22.2515,24.3799,19.8524,6.8970,19.0355,18.2076,25.7039,36.8419,21.6857,15.3059,15.2597
23.4375,27.3762,15.1263,18.6532,18.4346,5.5058,14.9329,9.8453,11.8870,25.0847,27.1466,22.9822,14.3531,30.3289,31.2829,29.6280,34.3069,31.2913,21.5528,22.7868
27.3438,26.0989,14.1782,19.2088,21.6431,8.1476,14.4836,10.7061,16.5926,22.8865,28.1685,22.2664,19.2952,36.5287,35.8531,29.9062,23.0834,33.6988,22.8026,25.5753
31.2500,22.7847,10.2934,13.3729,18.4194,4.9049,14.4140,6.4575,14.6172,16.0747,26.4477,17.2361,19.2192,35.4114,30.9167,24.9398,9.8034,27.6567,18.0457,23.0350
35.1562,17.8810,4.6585,3.7637,10.9614,-1.7020,13.7377,0.2673,7.9441,7.0314,21.7304,9.0493,13.6451,28.1201,20.8477,15.5226,2.1777,16.4281,9.2261,17.0170
39.0625,12.3810,-1.1014,-5.1800,3.8077,-6.9131,11.3312,-3.9590,1.5099,-0.9339,15.4721,0.2662,4.6243,18.5412,12.6082,5.0982,3.8798,5.8888,0.2799,10.7264
42.9688,8.2660,-5.1279,-9.6153,1.1962,-6.8202,7.5252,-4.0392,0.0435,-4.9623,10.7704,-5.9309,-3.8612,11.2368,11.3666,-1.7837,12.2088,1.0097,-4.8647,7.0632
46.8750,8.0805,-5.6502,-8.1240,4.7609,-0.7027,4.5015,-0.4680,5.1711,-3.6851,10.9024,-6.9214,-7.5341,9.2382,17.5550,-2.0951,20.1764,3.1602,-4.1379,7.3843
50.7812,13.4454,-1.7772,-2.0285,12.9023,8.9279,4.7242,4.4613,14.6805,2.3739,17.1147,-1.9305,-3.9696,12.8625,27.1973,3.5824,21.4483,9.9231,1.8717,11.2004
54.6875,23.3433,5.4696,5.6491,21.9260,18.2874,8.4447,8.3379,24.1738,10.9723,27.1097,7.1511,5.7205,19.8890,34.8890,11.0161,14.5602,17.1675,10.3344,16.6528
58.5938,33.6311,12.8044,11.6886,27.9744,24.5687,12.5218,9.7750,29.6978,18.7746,35.5689,16.0894,16.7746,26.6644,37.0462,14.6432,3.5116,21.5920,17.4072,21.2897
62.5000,38.7368,15.8770,13.8013,28.5891,26.8601,12.1265,8.4714,29.5441,22.4095,36.9117,20.0748,22.7973,29.5021,33.2602,11.0076,-5.3790,21.9705,19.7245,22.8204
66.4062,34.9828,11.8372,11.1261,23.3498,25.4883,4.5946,4.7009,24.3691,19.8643,28.8906,16.3468,19.2451,25.9792,25.3853,1.1828,-7.7819,18.7138,15.7257,19.8246
70.3125,23.4763,1.7195,4.3168,13.7430,20.9199,-7.4619,-0.9314,16.1511,11.7356,14.6939,6.2165,6.5051,15.9537,15.7410,-9.4851,-3.6774,12.7826,6.4589,12.4241
74.2188,10.3008,-9.3153,-4.5635,2.6392,13.5122,-16.6960,-7.2298,7.1171,1.5090,1.8070,-5.0384,-9.5551,2.0231,6.0997,-14.3564,3.6371,5.2229,-4.5349,2.6434
78.1250,3.2970,-14.6470,-12.4408,-6.4874,4.2855,-15.6048,-12.2275,-0.7026,-5.7552,-2.1510,-10.8298,-20.4250,-11.0368,-2.0731,-9.4777,10.5345,-2.4295,-12.5184,-6.0146
82.0312,7.1444,-10.3833,-16.1505,-10.6695,-4.3727,-2.2099,-13.8030,-5.5472,-6.0219,5.7663,-7.1524,-19.8342,-18.0904,-7.0756,3.8960,15.4056,-7.8042,-13.7542,-9.9746
85.9375,19.9791,1.7896,-13.7811,-8.7365,-9.3158,17.5165,-11.0426,-6.2646,1.2270,21.5491,4.7313,-7.6846,-16.1763,-7.3179,19.8555,18.6636,-8.4555,-7.5809,-7.4501
89.8438,34.0968,15.3633,-5.7952,-2.1448,-8.5973,32.8641,-5.3394,-3.0623,12.3286,36.2715,18.7725,9.7045,-6.3918,-2.6437,31.1668,20.9357,-3.6250,2.9610,0.3619
93.7500,40.6123,23.1597,4.8925,5.4285,-3.3351,35.4541,-0.0695,1.9888,21.3624,41.4451,27.7353,23.4660,6.2821,4.6387,33.3227,21.5246,4.4137,12.6511,9.7151
97.6562,35.1115,22.0689,14.1871,9.8957,2.3113,25.1547,1.3286,5.5498,23.6627,34.3105,27.6475,27.7264,15.5290,10.4361,26.8297,18.8065,10.9845,17.0859,16.3482
101.5625,20.4477,14.9155,18.8192,9.0817,3.5471,10.2716,-2.3351,4.7860,18.6423,19.5192,20.0914,23.0463,17.2922,11.3307,16.4160,12.2720,11.7555,15.2972,17.9123
105.4688,4.7155,8.0097,17.8695,4.0445,-1.7440,1.5340,-9.0609,-0.7287,9.9425,5.9885,10.7368,15.3565,12.1305,7.1535,7.8356,4.2015,5.8500,10.1690,15.1784
109.3750,-4.1863,6.1996,12.8691,-1.6397,-11.2314,4.1699,-14.9559,-8.4428,2.7624,1.0136,5.1784,11.2079,4.6864,1.5107,4.4152,-0.9402,-3.1084,6.2653,11.1960
113.2812,-3.5618,9.2284,6.5429,-4.2491,-19.3968,14.0694,-16.9031,-14.2423,0.3000,5.6606,5.1100,12.8882,0.5606,-0.4951,5.5117,0.5984,-9.1294,6.5709,9.0483
117.1875,2.9818,12.2603,1.2122,-2.2877,-21.0528,21.1177,-14.5816,-14.9959,1.9335,14.5738,7.6135,17.0797,2.7559,4.1475,7.6638,8.7808,-7.8469,10.5399,9.8860
121.0938,8.9019,10.1808,-1.9908,2.8743,-14.6008,17.3025,-10.2637,-10.4246,4.4486,20.2000,8.0001,18.0375,10.1799,14.1820,7.4273,19.1328,0.5409,14.9210,12.6679
125.0000,9.8393,2.2324,-2.7539,8.5049,-2.7037,3.3694,-6.5974,-2.9469,5.2264,18.2982,3.9493,12.7559,19.1395,25.0642,3.8876,25.4135,11.6303,16.6962,15.6540
128.9062,6.5958,-6.8365,-0.7677,12.8671,9.9306,-11.2782,-4.2602,4.2834,4.7204,10.7631,-2.2975,3.9754,26.4708,32.3663,-0.7778,23.8838,20.1995,15.7582,18.2687
132.8125,3.8790,-10.2296,4.4660,16.4369,19.7492,-15.6066,-1.5223,9.5209,6.0979,3.8549,-5.4398,-1.5013,31.7295,34.8863,-2.9114,16.0279,23.9610,15.0870,21.6534
136.7188,6.0438,-4.5858,12.7874,20.9415,26.0218,-5.6376,3.8313,13.0617,12.2308,3.3350,-1.2287,1.9497,36.7129,34.9654,0.0231,7.5766,24.7123,18.1580,27.3462
140.6250,13.3236,6.8595,22.2312,27.0537,29.9134,11.9496,11.8170,16.0134,22.4876,10.2085,9.9243,13.9940,42.8459,35.8246,7.5738,4.4146,26.0313,25.6168,35.1762
144.5312,21.5165,16.1190,28.9048,32.8333,32.1562,24.2830,19.2010,18.4754,32.1229,20.1691,22.6080,27.8403,48.8086,38.2465,16.3052,8.3342,29.5164,34.0059,42.2717
148.4375,25.2727,16.1261,28.6223,34.5154,31.6513,21.6493,21.2637,18.9106,35.1149,26.9622,29.6964,34.6478,50.6653,39.5198,21.6162,15.7658,32.8182,37.8324,44.3324
152.3438,22.2954,6.0168,19.5887,29.3237,26.4010,4.7397,15.2627,15.4256,28.5328,26.9793,26.9578,29.6976,44.7086,35.6834,20.2819,20.4191,31.2761,33.6121,38.5146
156.2500,15.1451,-8.0107,4.3007,18.1674,15.9889,-15.6730,2.9421,7.9254,15.1304,21.6442,15.7822,15.7734,30.8779,25.2735,12.3110,17.8686,21.9743,22.8252,25.8586
160.1562,9.3236,-16.9745,-10.9894,5.9142,3.2915,-26.3837,-10.0162,-0.8127,2.0314,16.0007,2.2425,1.2494,13.9030,11.3747,1.1480,8.7146,6.9046,11.3726,11.3121
164.0625,9.2417,-15.3651,-19.3618,-1.3292,-6.4197,-21.0091,-17.4352,-6.3575,-3.7510,14.8281,-6.7025,-5.6827,0.9202,0.0415,-7.8921,-1.9338,-7.5327,5.7280,1.0684
167.9688,15.2012,-4.7909,-17.1427,-0.1634,-8.6838,-4.0569,-16.5726,-5.4845,0.1773,19.3030,-7.2201,-2.4089,-2.9780,-3.8947,-10.2339,-8.1624,-14.6139,8.5178,-1.0960
171.8750,23.5246,7.5178,-6.1475,7.7723,-3.0346,12.9044,-9.7109,1.4157,10.2323,26.5352,-0.3387,6.8967,1.9065,-0.3998,-4.4621,-7.3742,-11.9937,16.7600,3.9840
175.7812,29.4081,13.9815,7.2896,16.8341,6.3607,19.7351,-2.3104,10.2870,19.5046,31.9455,9.3027,14.8054,10.1038,5.6726,6.6816,-1.8911,-3.4359,24.0279,11.5913
179.6875,30.0863,11.6846,15.9758,21.0763,13.2698,14.3998,0.8278,15.8915,22.3927,32.4033,16.4391,15.9919,14.6738,8.1336,17.4042,2.9406,3.8081,24.9012,16.2047
183.5938,26.0060,3.6005,15.9311,17.9917,13.3880,3.1716,-1.4382,15.1018,17.9177,27.8228,17.8680,10.4177,11.7529,3.9503,21.7566,2.5898,4.0631,18.4565,14.7933
187.5000,19.6020,-4.3888,8.3677,9.7259,6.8994,-5.0931,-6.4583,8.6924,9.6251,20.4652,13.4956,2.3380,2.7909,-4.7348,16.9473,-3.6704,-2.9928,8.4176,8.2191
191.4062,13.2084,-7.9559,-1.4966,1.1447,-2.1185,-5.6870,-10.2936,0.4903,2.5975,13.0400,5.7099,-3.5471,-6.8937,-12.4740,5.2030,-12.5828,-12.5070,0.1735,0.1107
195.3125,7.9826,-6.7948,-7.8231,-3.5846,-8.7814,-0.6258,-10.7147,-5.3074,0.0495,7.3142,-2.0724,-5.4785,-11.9259,-14.6485,-7.1589,-19.3732,-18.2234,-2.8875,-5.6816
199.2188,4.3843,-3.6134,-7.4936,-3.3678,-10.5652,4.3387,-8.4354,-6.6319,1.8789,4.0193,-6.8226,-5.0246,-10.2046,-10.5943,-13.2485,-20.9233,-16.8602,-1.0583,-7.1902
203.1250,3.1149,-1.0787,-1.4361,-0.0577,-8.3401,5.1665,-5.9330,-4.2311,5.7245,3.4614,-6.8992,-4.6328,-3.5606,-3.4594,-9.7979,-17.4685,-9.8942,2.8589,-4.7803
207.0312,5.0918,0.4422,6.5568,3.6067,-4.8931,2.7331,-5.1431,-0.4432,9.1610,5.7326,-2.5666,-4.8199,4.2788,2.7488,0.6197,-11.9269,-1.7507,6.1966,-0.1041
210.9375,10.2617,2.5837,12.4215,6.1173,-2.4549,1.4138,-6.0227,2.6865,11.1525,10.1977,4.0755,-3.5452,10.5243,6.3120,11.0199,-7.6541,3.8309,8.2642,5.3029
214.8438,16.6039,6.7870,14.0664,7.8029,-1.2371,4.7400,-7.0138,4.5023,11.9571,15.0754,9.9506,1.7556,14.8066,8.6397,14.4600,-6.3179,6.3196,10.1313,10.7062
218.7500,20.8763,12.4665,12.0277,9.8412,0.1386,12.1283,-6.7559,5.5397,12.1717,18.1537,12.5435,11.3567,18.5327,12.4057,8.7228,-7.2044,8.0541,12.9779,15.9121
222.6562,21.1202,17.2683,8.4885,12.8692,3.0613,19.4502,-5.4258,6.6220,12.1540,18.5900,11.3955,22.1935,23.0688,18.8342,-1.9884,-8.1227,11.7021,16.7341,20.6500
226.5625,18.9680,19.1044,5.5950,16.4554,7.6916,22.6999,-4.5722,8.1881,12.3166,18.3270,8.5030,29.5999,28.4066,26.4941,-9.7303,-7.0596,17.7958,20.2024,24.3204
230.4688,19.3417,18.0019,4.2178,19.6683,12.9575,21.3575,-5.7045,10.2439,13.6302,21.4071,7.0684,30.5056,33.2443,32.4573,-8.2536,-3.4781,24.2797,22.3321,26.3044
234.3750,26.9756,16.0132,3.8010,21.9260,17.4608,18.4788,-8.9438,12.5982,17.3369,30.9794,9.2331,25.5559,36.0962,34.5944,2.5128,1.3939,28.1824,23.2484,26.4383
238.2812,42.0278,15.2700,3.1650,23.2076,20.2929,17.5738,-12.8896,14.8825,23.7332,45.9750,14.3819,18.5231,36.3011,32.9525,16.1673,5.2620,27.8458,23.9788,25.1409
242.1875,58.4185,16.0147,1.6098,23.5400,21.1318,19.2243,-15.7245,16.3464,31.0941,60.3404,19.4252,13.5657,34.1604,29.1929,24.1218,5.9725,23.9310,25.1842,23.0844
246.0938,66.9407,16.5021,-0.4009,22.5357,19.8858,20.5908,-16.5261,15.9341,36.0870,66.2031,21.0575,12.5353,30.3924,24.9044,21.5548,2.6419,18.6529,26.2543,20.7714
250.0000,61.5188,14.9385,-1.3672,19.7378,16.6000,18.3165,-15.6812,13.0145,35.8973,59.2805,18.3807,14.3174,25.6629,20.5288,10.7963,-3.7667,14.1712,25.8346,18.4355
253.9062,44.1211,11.6671,0.3800,15.5948,11.8843,12.1933,-14.1936,8.3685,30.6286,42.6249,13.7989,16.4198,20.6605,15.8436,-0.3666,-10.7069,11.5218,23.4368,16.2940
257.8125,24.2735,9.4126,5.5373,11.9880,7.2979,6.1161,-12.6689,4.4172,23.8851,25.4744,11.2980,17.2206,16.4072,11.2689,-4.3312,-15.1561,10.6911,20.5677,14.7593
261.7188,12.9314,11.0366,13.0492,11.3530,4.8677,5.1285,-10.9626,3.9817,20.6059,17.4003,13.2880,16.9489,14.1061,8.3437,0.7835,-15.1686,11.2877,20.0096,14.2229
265.6250,14.8687,16.5627,20.2060,14.6718,5.6643,10.8532,-8.7460,8.0859,23.4403,21.6617,18.4673,16.7621,14.2828,8.5108,9.7685,-11.1020,12.8665,23.4784,14.4916
269.5312,25.2354,22.1679,23.7334,19.9127,8.4720,19.2729,-6.3105,14.4483,30.4086,32.6963,22.5373,17.0141,15.8651,11.1542,14.2008,-5.7026,14.5966,29.5322,14.4471
273.4375,33.0945,22.4442,21.4427,22.5789,9.9478,23.1273,-4.6825,18.2254,35.9175,39.9228,21.4259,16.4737,16.2548,12.9298,8.7917,-2.7509,14.9130,33.7634,12.4809
277.3438,29.5423,14.5315,13.5939,18.5495,6.6920,17.4109,-4.7972,15.0283,34.7062,35.3725,14.6269,13.3228,12.8156,9.6179,-4.4282,-4.8594,12.0168,31.6368,7.6471
281.2500,14.4150,0.9362,3.1318,7.4071,-2.0080,3.7009,-6.4510,4.3167,25.8940,19.6281,6.0083,7.0934,4.9544,-0.4807,-17.2039,-11.7204,5.2745,22.0734,0.7464
285.1562,-3.4994,-11.4323,-5.5197,-6.3590,-12.9086,-10.3093,-8.0943,-9.4225,13.9794,1.5976,1.2835,-0.2352,-4.8183,-14.2876,-20.7203,-20.0140,-3.5410,8.9463,-5.6251
289.0625,-12.9678,-15.6675,-8.6110,-15.6236,-20.3654,-16.0394,-7.8616,-18.9829,5.8194,-7.8361,3.9016,-5.1445,-11.9659,-25.0653,-11.7983,-25.2241,-10.5124,-1.0218,-8.3839
292.9688,-8.6300,-9.6445,-5.0468,-15.1670,-19.9614,-10.1896,-5.1246,-18.9723,5.7008,-3.6391,12.4029,-4.9866,-12.7018,-26.6390,4.8076,-24.3325,-11.6794,-2.7524,-5.9151
296.8750,5.1776,2.3579,2.9318,-5.3700,-11.6948,2.8431,-1.2686,-9.4896,12.1834,9.8842,21.2547,-0.0757,-6.6046,-17.8279,19.6228,-17.6814,-5.7488,3.5074,0.6614
300.7812,17.9387,12.4677,10.8119,7.7027,-0.2899,14.1791,1.0812,3.7468,19.1398,22.4932,24.6033,6.2271,2.8793,-3.6735,24.8415,-8.7666,4.6096,12.1299,7.9024
304.6875,21.0014,14.4672,14.0834,16.0997,7.7793,16.8757,-0.0810,13.0465,20.2487,25.6501,20.2133,9.6179,10.5503,7.7320,19.3580,-2.0849,14.0931,15.8968,11.9892
308.5938,13.8944,7.7027,10.4916,15.0927,8.4929,10.7004,-4.5977,13.6648,13.5666,18.5759,10.7740,7.6513,12.7645,10.6745,8.9924,-0.4726,18.0243,10.9737,10.9662
312.5000,4.1081,-3.0503,1.0630,6.0270,2.6979,1.7484,-10.1351,6.5696,2.7604,8.2115,1.7514,1.2180,9.6013,5.5374,1.9710,-3.6925,15.2976,-0.5167,5.7879
316.4062,0.7088,-11.4232,-10.5783,-5.0189,-4.9428,-2.6000,-13.7477,-2.7533,-5.8250,3.3212,-2.4986,-6.3033,4.3913,-1.9446,3.0430,-9.1054,8.8843,-12.1476,-0.4918
320.3125,6.9644,-13.9721,-20.1193,-11.6442,-9.5178,0.6381,-13.8417,-8.3577,-7.9085,7.4670,-1.4885,-11.4846,1.0714,-5.2759,10.4020,-13.7900,3.5310,-17.7676,-4.7656
324.2188,17.8201,-12.0575,-24.5846,-11.3247,-9.1754,8.0747,-11.0785,-7.6881,-4.1739,16.3304,1.6239,-13.0272,1.4047,-2.1014,17.3904,-16.5072,2.3660,-15.6049,-5.7235
328.1250,24.1119,-9.9608,-23.4246,-6.4641,-5.7804,13.0164,-7.6272,-2.5644,0.7641,21.3521,2.8027,-12.1521,4.0858,4.2861,17.5058,-18.1429,4.9110,-8.9823,-4.2995
332.0312,20.0272,-11.0057,-18.2526,-1.8595,-2.7406,10.9753,-5.4631,2.9979,2.2982,16.6896,0.2134,-11.1112,6.2094,7.8393,9.0249,-20.4668,7.8710,-3.3674,-2.5711
335.9375,7.7977,-14.8237,-11.6096,-0.8142,-2.0372,3.2553,-5.0731,6.0572,-0.5603,3.9566,-4.6317,-11.1439,5.7601,4.6522,-3.9375,-24.2970,7.9361,-2.1979,-2.0528
339.8438,-4.0947,-17.8069,-5.6105,-2.9368,-2.9263,-4.1025,-5.4837,6.4777,-4.7134,-8.9467,-8.2989,-11.5223,3.1078,-3.9897,-14.4263,-28.5232,4.3557,-4.6625,-2.6640
343.7500,-7.6890,-16.2084,-1.2352,-5.1029,-3.1832,-5.0602,-5.4073,6.0521,-5.8542,-13.9103,-8.1574,-10.3867,0.4301,-12.6629,-17.3728,-30.7101,-0.6511,-6.9188,-3.0512
347.6562,-1.8181,-9.3404,1.5003,-4.4790,-1.5529,1.7418,-4.4517,6.1922,-2.2198,-8.7739,-4.3304,-6.6319,-0.2958,-15.9522,-12.7188,-28.7846,-3.8022,-5.5243,-1.8992
351.5625,7.1472,-0.3667,2.8600,-0.9927,0.8722,11.9511,-3.4204,6.4239,3.8646,1.2433,0.4481,-1.2775,1.0134,-12.3503,-4.9656,-22.5324,-3.3322,-0.2575,0.8351
355.4688,10.6561,5.8764,2.8477,2.7152,1.5722,18.8074,-3.5769,5.0001,7.8712,7.8716,2.8105,2.8623,2.5574,-4.9642,0.2494,-13.8518,-0.1864,5.8231,3.7182
359.3750,5.1288,6.3317,1.2649,3.6487,-1.0332,18.1949,-5.5950,0.9555,6.8169,6.4011,1.0944,3.1039,2.2942,1.2548,0.0132,-5.6660,3.0040,8.9502,4.8187
363.2812,-4.8447,1.8722,-1.7107,1.0572,-5.9088,11.6376,-9.0651,-4.3872,1.8297,-0.6306,-3.5133,-0.9308,-0.1961,3.3342,-4.1596,-0.3400,4.1916,7.6830,3.1480
367.1875,-9.8730,-3.3675,-4.9882,-2.8823,-9.9537,5.0885,-12.8516,-7.9611,-2.5395,-5.5220,-7.6724,-6.5313,-3.1853,2.1098,-7.7191,1.3321,3.5238,3.9989,-0.4838
371.0938,-3.1370,-4.9110,-6.6972,-4.8047,-10.3808,4.5098,-15.8652,-7.2329,-1.7514,-1.5956,-7.9019,-9.2684,-4.0583,0.8434,-6.4111,0.0574,3.0270,1.6734,-3.8319
375.0000,13.9472,-0.9960,-5.1629,-2.8425,-6.9367,11.5098,-17.5754,-2.3391,5.1875,11.3216,-2.6932,-5.8047,-1.3663,2.0650,0.7438,-2.7852,4.7182,3.3108,-4.5874
378.9062,32.1776,6.3081,-0.1968,1.9184,-2.0976,22.1100,-17.9748,3.7607,14.7819,26.3364,6.4360,3.6437,3.9419,5.3812,10.6883,-5.9697,8.7555,8.3600,-1.8549
382.8125,40.8448,12.5466,6.2456,6.3268,0.9181,29.3830,-17.2691,7.3427,21.3834,34.2660,15.5043,14.9113,9.0703,7.9938,18.1245,-8.7010,13.1514,13.5801,3.2370
386.7188,35.1651,13.7778,10.7416,7.6173,0.6573,28.0144,-15.7490,6.6014,21.0434,30.1726,19.9958,22.0390,11.2950,7.3251,18.6509,-10.3995,15.2725,15.4968,8.2004
390.6250,19.4425,8.9781,10.2563,5.4677,-1.6006,17.6816,-13.9659,2.8562,14.0869,16.8688,17.2456,20.8077,9.8309,3.4425,11.3504,-10.4721,13.9129,12.9360,10.7055
394.5312,3.8510,0.5094,4.1072,2.1186,-3.1338,3.1517,-12.8633,-0.6219,4.6829,2.9796,8.0645,11.4790,6.3155,-0.7478,-0.5950,-8.4612,10.3031,7.7790,9.9807
398.4375,-2.5454,-7.4491,-5.3088,0.5865,-2.1484,-8.7169,-13.4471,-1.1676,-2.0744,-2.8489,-3.3672,-1.0811,3.6374,-1.6542,-11.5008,-4.4977,7.2805,3.5107,7.2059
402.3438,2.6005,-11.3667,-13.6873,2.4357,0.7961,-12.9660,-16.0344,1.3677,-3.3730,2.6033,-11.4924,-10.1301,4.0150,2.2831,-16.0402,0.4035,7.2794,2.7467,4.6700
406.2500,14.4094,-10.1966,-17.2880,6.7732,3.4350,-9.0428,-19.6759,4.7595,-0.0155,15.6541,-12.3268,-11.0195,7.6684,9.4566,-11.8439,4.6152,10.6571,5.5513,4.2690
410.1562,25.0948,-5.6096,-15.1316,11.0652,3.8441,-0.5368,-22.4206,6.3200,4.7350,28.7648,-5.7022,-3.9102,12.8901,16.3138,-0.5491,6.6869,15.5523,9.6301,6.3411
414.0625,29.4471,-0.6933,-9.4417,12.9755,2.0459,7.3296,-22.4937,4.9348,7.6354,35.5400,4.6377,6.5309,17.2887,19.8406,13.1380,6.1398,19.2721,12.0755,9.5890
417.9688,27.4888,1.9540,-4.0201,11.7982,-0.1966,10.7164,-19.6404,1.6442,7.4002,34.1651,13.2901,14.2590,19.2371,19.3503,23.7920,3.6909,20.1003,11.3243,12.0769
421.8750,22.9552,1.5799,-1.7049,8.5655,-1.1460,8.9318,-15.5739,-1.5037,4.9398,27.3870,16.4434,15.7123,18.5689,16.3695,27.7855,0.7382,18.2111,8.0140,12.5502
425.7812,19.5405,-0.6225,-2.7135,5.0179,-0.7975,4.1860,-13.0227,-3.1974,2.1362,19.7962,14.0081,11.8113,16.2264,13.0169,24.7157,-1.5152,15.1529,4.3356,11.1258
429.6875,18.1839,-2.5818,-5.0016,2.3905,-0.9932,-0.1824,-13.9295,-3.7280,0.3471,14.7928,9.2032,6.7932,13.3054,10.3583,17.1216,-2.6712,12.4560,2.5107,8.9029
433.5938,17.2778,-2.8127,-6.2332,0.8873,-3.8219,-1.7691,-18.0737,-4.3937,-0.2575,13.2341,5.9439,4.8160,10.2715,8.0007,8.8073,-3.1030,10.4984,3.4685,6.8772
437.5000,15.0007,-1.3393,-5.7420,-0.0058,-9.6917,-0.2849,-23.1548,-6.1442,-0.3008,14.0479,5.9688,6.8410,6.8625,4.9849,2.8062,-3.4229,8.4512,6.4759,5.0808
441.4062,11.3349,0.4531,-4.9195,-0.8807,-16.7492,2.6257,-26.3194,-8.7254,-0.3650,15.6302,7.8157,10.0658,2.6294,0.9661,0.1078,-3.9643,5.2278,9.7460,2.6754
445.3125,7.9610,0.8508,-5.7787,-2.0388,-22.1696,4.5834,-26.0458,-11.0176,-0.5248,16.7040,8.3303,10.2637,-2.3876,-3.4049,-0.2861,-4.7031,0.6108,11.4841,-1.0761
449.2188,6.3450,-1.0232,-8.9568,-3.5689,-24.2572,3.8700,-23.0521,-12.1438,-0.5531,16.3152,5.4284,5.2105,-7.4021,-7.1236,-0.2427,-5.6047,-4.3561,10.7224,-5.8026
453.1250,6.0122,-4.7005,-12.9161,-5.5778,-23.6348,0.2586,-19.6501,-12.2752,-0.4557,13.6384,-0.1225,-3.4277,-11.2658,-9.7685,-1.1635,-6.9735,-8.0117,7.5957,-9.9366
457.0312,4.7709,-8.7981,-15.1232,-8.2071,-22.6005,-5.0278,-18.1114,-12.4085,-0.7392,8.3333,-5.3090,-11.1852,-13.2409,-11.8054,-3.2596,-9.3731,-9.2649,3.0922,-11.7832
460.9375,0.8086,-11.9944,-14.3063,-11.3892,-23.2627,-10.0214,-19.2698,-13.3644,-2.1159,1.3484,-7.3223,-14.0309,-13.6154,-13.9932,-5.7342,-13.0836,-8.4315,-1.4581,-10.9903
464.8438,-5.2053,-13.8019,-11.8856,-14.6404,-26.0104,-12.9045,-22.2726,-14.9614,-4.8845,-4.7494,-5.8201,-11.2857,-13.6803,-16.4909,-7.5357,-17.5404,-7.0905,-4.8968,-9.1961
468.7500,-10.0182,-14.6154,-11.2219,-17.1939,-29.4816,-12.6920,-25.4592,-16.1311,-8.5155,-6.7374,-3.1495,-6.0370,-14.9854,-18.5418,-8.0637,-21.3153,-7.0351,-6.5982,-9.1441
472.6562,-10.0547,-15.1256,-15.0591,-18.4428,-31.8551,-9.5393,-27.5424,-15.8677,-11.8177,-2.7547,-2.3848,-2.7952,-18.2775,-19.0711,-7.3969,-22.8340,-9.0373,-6.6148,-12.7221
476.5625,-4.3538,-15.6766,-23.0729,-18.3210,-32.2221,-4.7096,-28.2131,-14.1404,-13.6064,5.9741,-4.8378,-4.2260,-22.8000,-17.6803,-6.0615,-21.4226,-12.2751,-5.5911,-19.3134
480.4688,4.2055,-16.1242,-31.5174,-17.2543,-30.8771,-0.2441,-27.9012,-11.9320,-13.4229,15.1810,-9.1050,-9.4132,-26.4804,-15.1344,-4.6766,-17.9273,-14.8220,-4.4671,-25.7673
484.3750,10.5188,-16.2460,-35.4355,-15.6835,-28.4658,1.6728,-27.1289,-10.3510,-11.8293,19.7116,-12.3954,-14.8383,-27.0115,-12.8535,-3.7782,-14.3706,-14.8839,-4.0644,-28.1858
488.2812,10.6271,-16.2282,-31.9431,-13.5658,-24.9873,-0.3943,-26.0980,-9.5946,-10.1042,16.5711,-12.9704,-17.1599,-23.2287,-11.7711,-3.8387,-12.7669,-11.9665,-4.7222,-24.3857
492.1875,4.3756,-16.6786,-22.2308,-10.3246,-19.7266,-6.2664,-24.7791,-8.6834,-9.5488,6.8488,-11.6190,-15.5872,-15.9237,-11.4855,-5.2583,-13.8502,-7.2070,-6.1547,-15.3491
496.0938,-4.5645,-18.0685,-10.8482,-5.3587,-12.2322,-13.8243,-23.2322,-6.2281,-10.8169,-4.8232,-10.9487,-12.1274,-7.5176,-10.4183,-8.1429,-16.5888,-2.6552,-7.6073,-4.6609
500.0000,-11.2294,-20.0876,-2.8214,1.2721,-3.3750,-19.6643,-21.7112,-1.6013,-13.6147,-12.9552,-13.1268,-9.7372,-0.7225,-6.8997,-11.9617,-18.8532,0.0201,-8.2322,3.6572
503.9062,-12.5152,-21.5665,-0.6705,8.5575,4.6622,-20.6752,-20.3977,4.4518,-16.8703,-14.2704,-17.9849,-9.9817,3.0042,-0.3771,-15.4259,-18.8217,0.5562,-7.4845,7.4243
507.8125,-8.7233,-21.1832,-3.3193,14.9341,9.6964,-15.8071,-19.0611,10.2539,-19.2358,-9.2381,-23.0369,-11.9944,4.2347,8.1313,-16.8878,-16.1901,0.1995,-5.3421,7.2214
511.7188,-2.6727,-18.4799,-7.3757,19.1187,11.1671,-6.9538,-17.0859,14.3011,-19.6683,-1.3065,-25.3281,-13.3445,5.0677,16.6169,-15.1997,-12.3846,0.8474,-2.2702,5.5408
515.6250,2.5776,-14.3815,-9.5730,20.7698,10.6598,1.7644,-13.9818,16.1349,-17.8627,5.3649,-23.5459,-11.9250,7.6647,23.2066,-10.5556,-9.6433,3.8032,0.9882,4.9671
519.5312,5.5123,-10.7475,-8.5782,20.4913,10.7391,6.0903,-10.0106,16.3315,-14.4012,8.0618,-18.7421,-7.3878,12.7544,27.0094,-4.7020,-9.5818,8.9333,3.6354,6.6839
523.4375,6.2964,-9.2498,-5.1844,19.2005,12.9010,3.9374,-6.3590,15.7364,-10.5807,6.3581,-13.2981,-1.2639,19.0394,28.1730,-0.2124,-12.1711,14.7068,4.9387,10.1158
527.3438,5.6574,-10.4064,-1.2656,17.3750,16.2607,-3.4608,-4.5910,14.6837,-7.9573,1.5874,-9.2292,3.9805,23.8436,27.2943,0.8923,-15.7575,19.0149,4.2736,13.5811
531.2500,3.8809,-13.4453,1.3923,14.7747,18.0839,-12.2459,-5.6705,12.8857,-7.7247,-4.2224,-7.2751,6.0956,24.5738,24.7846,-1.6026,-18.0657,20.2148,1.2212,15.2558
535.1562,0.9182,-16.9773,1.6276,10.8595,15.8287,-18.0126,-9.2171,10.0353,-10.1312,-9.1002,-7.2582,3.8048,20.1282,20.7209,-5.7981,-17.5327,17.8084,-4.1772,13.8695
539.0625,-2.6722,-19.8243,-1.0572,5.5645,9.1551,-18.0031,-13.5281,6.5140,-14.1995,-11.3999,-8.9194,-2.8162,11.5058,15.2312,-8.6482,-14.1768,12.4946,-11.0929,9.0617
542.9688,-5.1819,-21.3502,-6.3714,-0.2055,0.3606,-12.2216,-16.3935,3.4935,-17.9756,-10.0198,-12.1100,-12.1029,1.3766,8.9811,-7.7604,-9.5477,5.7392,-17.7901,1.6095
546.8750,-4.5530,-21.2275,-12.8563,-4.8181,-7.0914,-3.0853,-16.2285,2.2393,-19.3325,-4.9443,-16.1136,-20.8483,-7.0862,3.2408,-3.0010,-5.8630,-0.8059,-22.0175,-6.4766
550.7812,-0.1534,-19.1646,-17.8324,-6.8188,-10.8403,5.8843,-12.8940,3.1187,-17.0463,2.1667,-19.0548,-25.1515,-11.5348,-0.6460,3.1327,-4.8547,-5.7891,-21.9404,-12.3450
554.6875,5.9989,-15.1086,-18.3860,-5.9137,-11.0368,11.4915,-7.8010,5.1038,-11.5926,8.1233,-18.5293,-22.2658,-11.3764,-2.0668,6.7694,-6.9266,-8.4861,-17.2101,-13.4739
558.5938,9.9636,-9.8098,-13.2655,-3.3311,-9.9532,11.8796,-3.2838,6.2268,-5.1171,9.5983,-13.4272,-12.6264,-7.9515,-1.6240,4.9646,-10.9945,-8.9761,-9.4759,-9.2534
562.5000,8.4881,-5.0272,-4.4063,-1.2263,-10.2193,7.0662,-1.5320,4.7561,-0.4076,5.2757,-5.4654,-0.4608,-3.8735,-0.8692,-2.2850,-15.0322,-8.1068,-1.8115,-1.9075
566.4062,1.7469,-2.7553,3.4494,-1.4223,-13.0356,-0.9092,-3.5164,0.3456,0.6850,-2.6725,1.2905,8.1240,-1.7596,-1.3627,-11.6417,-17.0439,-7.1463,2.8320,4.2727
570.3125,-6.0007,-3.7411,5.3842,-4.2480,-17.5670,-8.3685,-8.3677,-5.5782,-1.5508,-9.1548,3.1231,8.8793,-2.8958,-3.6264,-18.1032,-16.0297,-7.1538,3.2930,5.3429
574.2188,-8.7367,-6.4738,-0.3444,-8.2425,-21.7298,-11.2118,-13.5819,-10.4429,-4.7312,-8.9154,-0.3214,2.4910,-6.5420,-6.7032,-17.9356,-12.5157,-8.3741,0.8619,0.3358
578.1250,-2.6884,-7.8157,-10.7335,-10.9844,-23.5975,-6.8924,-16.1471,-11.8201,-5.8380,0.0296,-5.3548,-5.5930,-10.3752,-8.6962,-11.1104,-8.3713,-10.0836,-1.6601,-7.8540
582.0312,10.7279,-5.2562,-19.7441,-10.5814,-22.3843,3.7255,-14.1970,-8.6796,-3.2819,14.5702,-6.9648,-9.0215,-11.9446,-8.0177,-1.6129,-5.9372,-11.0947,-2.0093,-14.2602
585.9375,25.2426,0.7503,-22.3401,-6.8734,-18.4801,16.0102,-8.3069,-1.9532,1.8252,27.7880,-3.0974,-5.5353,-10.2833,-4.5376,4.7966,-6.8310,-10.6183,-0.2098,-15.2459
589.8438,33.3672,6.4005,-17.9191,-1.5210,-12.7809,23.5664,-1.4880,5.8822,6.2347,32.8363,3.0610,0.8456,-6.5474,0.2126,4.1378,-11.0365,-8.8178,1.3495,-11.0256
593.7500,31.0206,6.9348,-10.4212,3.1540,-5.9722,21.9256,2.4320,12.0196,6.8017,27.0753,5.1897,2.6676,-3.0932,4.0532,-3.1397,-16.8133,-6.5394,-0.2223,-5.2689
597.6562,20.0943,0.4215,-4.9031,5.8304,1.7224,11.7367,1.2509,14.7490,2.9579,13.7945,-0.8020,-4.7278,-1.5340,5.7887,-12.2192,-21.5559,-4.3693,-5.7438,-1.9404
601.5625,7.2725,-9.9226,-3.2668,7.1731,10.2666,-0.9234,-3.9408,14.3463,-2.4293,0.3545,-12.3480,-18.3361,-1.2337,6.2904,-16.8203,-23.1623,-1.8392,-12.6490,-1.8334
605.4688,-0.0575,-17.0679,-2.7176,9.3274,19.3073,-7.8609,-9.2283,12.8623,-4.7065,-6.1013,-20.8102,-28.3051,0.4195,8.0867,-13.1809,-21.1175,2.3606,-16.2113,-1.7280
609.3750,1.8859,-14.7689,1.5355,14.1300,27.8082,-3.9127,-10.4727,12.8048,-0.7165,-2.6585,-17.4840,-24.6800,5.8713,13.5074,-2.5512,-16.6315,9.0689,-12.7676,2.8403
613.2812,11.4108,-2.3691,11.3423,21.2478,34.0642,9.4397,-6.4052,15.3989,8.5194,8.0632,-0.9004,-5.5023,14.8663,22.5672,9.4649,-11.7700,17.1988,-2.7654,13.2028
617.1875,22.8098,13.8298,22.5781,27.6905,36.1734,24.6317,0.0580,19.5203,17.7935,19.8931,20.3855,20.0288,23.6051,32.1931,16.3218,-8.1894,23.5108,8.7178,25.1862
621.0938,29.8720,24.0720,26.9798,29.3084,32.8782,32.6430,3.5081,22.1462,20.7214,26.8652,32.4329,36.4803,26.6633,37.6514,14.4745,-6.3486,24.2455,14.7221,31.1141
625.0000,29.1233,21.4327,18.0308,23.4876,24.4658,28.6988,-0.1921,20.2466,13.9339,26.3080,25.3113,32.3692,20.6718,35.4899,5.3124,-5.7014,17.7711,10.8107,25.1792
628.9062,21.0504,6.5606,-3.4054,11.2469,13.1985,15.1891,-10.6982,12.9929,-0.4104,19.5815,0.5832,8.4674,7.1765,26.0623,-6.0440,-5.6158,6.3206,-1.8445,8.2885
632.8125,9.1093,-12.5672,-28.2703,-2.8433,2.7626,-0.1587,-22.9959,2.7396,-15.6679,10.4873,-28.8873,-22.0429,-7.6456,13.7469,-14.0858,-6.1986,-4.7700,-16.9521,-11.5386
636.7188,-2.3889,-25.8383,-44.4952,-13.1081,-3.3255,-9.4872,-30.6034,-6.0957,-24.7712,2.7746,-47.1268,-42.1074,-16.6092,4.4526,-16.0735,-8.2784,-10.1984,-26.9931,-24.0038
640.6250,-10.1752,-27.5505,-44.7813,-16.0992,-3.6533,-9.7118,-29.9833,-9.7132,-24.6252,-1.6442,-45.6081,-42.1504,-16.1528,1.9490,-13.0433,-12.5010,-8.1954,-27.9309,-23.3780
644.5312,-12.9998,-19.7494,-31.3881,-12.6079,0.0435,-3.8224,-22.9388,-7.4261,-17.8613,-3.0318,-28.6327,-26.1262,-8.6875,5.5330,-8.3734,-18.2781,-1.8254,-21.5273,-12.3898
648.4375,-11.7444,-10.1646,-14.3711,-6.9664,3.6830,1.9656,-15.1606,-2.1866,-10.7983,-3.0759,-9.7386,-7.9655,-0.8483,10.7163,-5.3030,-23.5593,3.0700,-13.7374,-0.1822
652.3438,-8.9717,-6.4694,-4.5197,-4.0847,3.3154,2.7861,-11.9615,1.3559,-9.1033,-3.8655,-1.9267,-1.1715,1.2139,12.4934,-5.2652,-25.8315,1.9959,-10.4226,4.2693
656.2500,-8.0145,-11.1262,-6.1608,-6.2426,-2.1867,-1.9761,-14.4089,0.0130,-14.1942,-7.1059,-8.9440,-9.3098,-3.8700,8.8639,-7.9319,-23.7720,-4.9483,-13.4707,-1.5402
660.1562,-11.5769,-20.3835,-14.9982,-11.8049,-10.1121,-9.2323,-18.8070,-5.7572,-22.7717,-13.5538,-23.8045,-24.2860,-11.9283,2.0785,-12.3896,-18.3555,-13.1343,-19.9793,-12.2414
664.0625,-20.1629,-27.7344,-22.2542,-16.6433,-15.5001,-15.1790,-19.9110,-12.1863,-29.5421,-22.5229,-35.0906,-33.3031,-16.5456,-3.2304,-18.0960,-12.4862,-16.8130,-24.8309,-19.0071
667.9688,-31.1982,-28.8801,-21.6327,-17.1303,-14.4426,-18.0306,-15.3359,-14.8180,-30.9606,-31.6659,-35.7867,-28.8872,-13.9032,-3.5435,-24.7602,-9.2529,-13.3627,-24.5437,-16.3189
671.8750,-39.7885,-24.4236,-13.6996,-12.5352,-6.8470,-18.4382,-7.6594,-11.5370,-27.3017,-37.5458,-27.8729,-14.3166,-5.5210,1.0966,-31.4886,-9.9518,-5.1897,-19.5281,-5.9301
675.7812,-41.2266,-18.5935,-4.5815,-5.2162,3.3664,-17.7615,-2.5058,-3.8758,-21.8280,-37.2266,-19.6168,-0.6128,3.0869,7.4687,-36.3211,-13.2701,2.1504,-13.2894,4.8491
679.6875,-34.0055,-15.4596,-0.4638,1.3025,10.8771,-16.1962,-4.0727,4.2287,-18.0451,-30.2357,-18.3064,2.1737,6.6815,11.9220,-36.9448,-16.2440,4.1555,-9.4965,8.9945
683.5938,-21.2999,-15.8468,-2.5548,4.7774,12.5529,-12.6564,-11.6221,9.1840,-17.2838,-19.5354,-24.4633,-7.5340,4.1378,13.1843,-32.2242,-16.3352,0.6627,-9.3270,5.0864
687.5000,-9.5196,-17.2419,-6.5136,5.4078,9.4107,-6.4814,-19.7489,9.9401,-18.2976,-10.3922,-31.9359,-22.1464,-1.0540,12.9699,-23.2942,-13.1601,-4.2881,-11.0312,-1.9558
691.4062,-4.4602,-16.3851,-6.5281,5.0539,5.5384,0.8201,-22.3014,8.1498,-18.8080,-7.3890,-33.3167,-31.1011,-3.8408,13.9956,-13.1801,-8.6645,-5.8368,-11.7596,-5.0737
695.3125,-7.4742,-12.1405,-0.4584,5.3846,4.8507,5.7538,-16.9609,6.4344,-17.4645,-11.3711,-25.9667,-28.7674,-1.6614,17.1787,-5.0956,-5.6835,-2.2193,-9.9512,-0.7199
699.2188,-14.4247,-6.2868,8.2379,6.5373,8.1752,5.2148,-6.9636,6.2844,-14.6343,-18.5733,-13.8335,-17.9648,3.7117,20.4691,-0.7280,-5.9892,3.8674,-6.3532,8.4896
703.1250,-18.4531,-1.8249,13.2727,7.2792,12.8521,-0.7800,1.3300,7.2211,-11.6536,-22.9142,-3.9867,-6.8449,7.8622,20.3942,0.1328,-9.2463,7.4760,-3.0637,16.0224
707.0312,-14.8606,-0.4900,10.5668,6.3418,15.0381,-8.4385,3.1070,7.6739,-9.5170,-20.1777,-1.1081,-2.1892,7.4089,15.0979,-1.5886,-13.5421,5.3752,-1.6583,16.5696
710.9375,-4.6833,-1.6448,1.3870,3.6809,12.8085,-12.5199,-1.5683,6.6253,-8.2882,-11.2023,-4.5163,-4.6706,2.6226,6.3347,-5.7904,-16.9467,-1.4054,-2.0783,9.9406
714.8438,5.7521,-3.3311,-8.8646,0.5969,7.6106,-10.0736,-8.2098,4.5645,-7.6339,-1.6260,-9.8092,-9.5478,-3.0548,-1.3442,-13.4922,-18.8302,-8.4352,-3.1066,0.8004
718.7500,9.1966,-4.3053,-14.9918,-1.2997,3.0181,-2.6950,-11.6070,3.0151,-7.7090,1.9136,-13.1976,-11.5936,-6.0156,-3.7160,-25.3672,-19.9556,-11.3846,-3.7802,-5.2247
722.6562,2.7645,-5.0933,-15.7590,-1.3166,1.9123,4.5889,-9.7702,3.1653,-9.2795,-3.4248,-14.5297,-9.7383,-5.4059,0.0782,-39.6700,-21.4136,-9.3284,-4.3057,-5.7429
726.5625,-9.6913,-7.0987,-14.0257,-0.0513,4.3972,7.0790,-5.1075,4.8415,-12.7660,-14.3561,-16.4807,-7.5359,-3.5442,6.9738,-51.5879,-23.3928,-5.2464,-5.6017,-2.7940
730.4688,-19.9403,-10.6430,-13.4159,1.3345,8.0420,3.9604,-2.1288,6.6877,-17.0764,-23.4257,-20.9513,-9.3559,-3.6022,12.3403,-55.1822,-24.8647,-3.4256,-7.9435,-0.4004
734.3750,-20.8740,-13.8385,-14.6108,2.2203,10.0915,-1.0910,-3.6977,7.3358,-19.5187,-23.9862,-26.2016,-15.8532,-6.6117,13.4094,-47.0386,-24.4515,-5.9421,-10.0738,-0.8139
738.2812,-11.2307,-13.5105,-14.5739,3.0188,9.7317,-2.7111,-8.8373,6.5345,-17.2689,-14.6693,-27.5346,-22.7522,-10.3703,11.1263,-29.1130,-21.7282,-11.0507,-9.7772,-2.6737
742.1875,3.8134,-7.5817,-9.4032,4.6690,8.5868,2.1130,-13.6706,5.3149,-9.4661,-0.1540,-21.1260,-24.0438,-11.1673,9.0975,-8.4544,-17.8265,-14.6769,-5.5963,-2.4781
746.0938,16.4988,3.0034,1.6887,7.6507,9.1897,11.8440,-14.5181,5.1387,1.7376,12.2516,-7.7314,-16.9220,-6.8637,10.6199,6.4391,-14.7740,-13.6866,1.7273,2.0863
750.0000,21.8416,14.4614,14.7970,11.4378,12.8325,21.5974,-10.5787,6.8094,12.1934,17.6183,7.0346,-4.3469,1.2435,16.2026,10.4167,-14.0469,-8.2664,9.3912,9.8944
753.9062,20.5392,22.4303,23.6940,14.8560,18.5823,26.6491,-4.1822,10.0143,18.2545,16.2923,16.3219,6.8784,9.2839,23.4191,4.4344,-15.4859,-1.6053,14.2821,17.0952
757.8125,17.4434,24.6227,24.3578,16.9692,24.1171,25.4843,1.3000,13.7205,18.9391,12.6909,16.7723,10.9572,13.6315,28.9311,-5.5746,-17.4599,2.6654,15.0176,20.0941
761.7188,17.0482,21.9143,18.0004,17.6478,27.4590,20.2102,3.9633,16.8995,16.1406,11.1952,10.6082,7.0325,13.3341,30.8169,-12.8597,-18.1711,3.0694,12.6797,18.2347
765.6250,19.6725,17.2097,10.1018,17.3197,28.0416,14.3833,4.2717,18.8959,12.7954,12.5202,3.5063,-0.7453,10.2465,29.3158,-14.1044,-17.0706,0.8673,9.6961,13.9705
769.5312,21.3580,13.1781,6.1915,16.2137,26.3440,10.2912,3.8832,19.2582,10.5454,13.4331,0.0946,-6.7741,6.9638,25.6722,-10.8989,-15.2501,-1.5997,7.8305,10.5280
773.4375,17.4967,10.7071,7.7482,13.9284,22.7402,7.8941,3.7222,17.4754,8.7935,9.9343,0.7433,-8.1470,4.4881,20.4834,-7.6936,-14.4835,-3.1510,6.9449,9.1711
777.3438,7.2206,9.1227,11.4619,9.8678,16.9292,5.9873,3.1237,13.1635,5.8478,1.2071,2.0910,-6.1724,1.6838,13.3004,-8.0340,-15.6738,-4.5811,5.5018,8.4220
781.2500,-5.0428,7.6443,12.3408,4.2224,8.6532,4.1900,0.7561,6.7058,1.0636,-8.9783,0.5801,-4.4324,-3.0849,3.9166,-11.9473,-17.9588,-7.4295,2.2879,5.8221
785.1562,-12.2463,6.5544,8.0422,-1.4647,-0.9834,3.7672,-3.6472,-0.2912,-3.9639,-14.6729,-4.1506,-5.3658,-9.7038,-5.9721,-16.2541,-19.2372,-11.9585,-2.1794,0.5986
789.0625,-9.7162,6.9715,0.8797,-4.8915,-9.0861,6.4845,-8.4548,-5.4283,-6.3037,-12.1699,-8.8752,-8.3259,-15.5864,-12.6288,-17.2759,-17.7705,-16.2946,-5.8082,-5.1614
792.9688,1.2891,9.4894,-4.0770,-4.5206,-12.2957,12.5531,-11.0921,-6.8382,-4.0391,-2.9873,-9.6097,-10.5317,-17.3074,-12.3397,-13.6978,-13.6607,-17.6442,-6.5499,-7.9246
796.8750,14.1720,13.0343,-3.1979,-0.8971,-9.1388,19.6178,-10.0567,-4.5299,1.8829,6.9583,-5.1605,-9.7941,-13.3434,-4.3389,-7.4549,-9.0525,-14.6242,-4.1276,-5.5727
800.7812,21.3521,15.1422,2.6523,3.3981,-1.5217,23.8896,-6.2716,-0.6294,7.9278,11.4174,1.6291,-6.5244,-5.6292,7.8076,-2.1854,-6.8381,-8.6988,-0.4228,0.6816
804.6875,19.2298,13.6142,8.6538,5.3303,6.0960,22.6881,-2.5581,1.8909,10.3064,8.0651,5.9503,-3.3607,1.4757,17.8352,-0.6335,-8.7402,-3.3989,1.8260,6.9577
808.5938,10.2314,8.2596,9.7030,3.4696,9.5394,16.4120,-1.5718,1.2152,7.6118,-0.1848,4.6694,-2.9039,4.1222,20.6104,-2.9913,-14.1083,-1.8411,0.9770,9.4639
812.5000,0.6590,1.2726,4.2832,-0.9980,7.7494,8.3527,-3.8326,-2.0323,1.7259,-7.6304,-1.4242,-5.6149,1.5584,15.5000,-7.2266,-20.2587,-4.5058,-2.4421,7.1696
816.4062,-3.8566,-4.1428,-4.4679,-5.1019,3.4172,2.4679,-7.4123,-5.2268,-3.6881,-9.9655,-8.4650,-9.6303,-3.6122,6.7744,-10.8485,-24.1115,-9.0425,-6.3210,2.3180
820.3125,-1.9216,-5.8898,-11.2146,-6.1727,0.8568,0.8135,-9.4918,-5.6260,-5.8951,-7.0058,-12.5854,-12.4947,-7.6209,0.6612,-12.6040,-24.0238,-12.2232,-8.6427,-1.5215
824.2188,3.4228,-4.2507,-12.3842,-3.6495,2.7092,2.5256,-8.5078,-2.3143,-4.8964,-2.1036,-12.6513,-13.1944,-8.3742,1.1309,-12.9102,-20.6512,-12.4355,-8.8723,-2.2203
828.1250,7.6030,-1.4232,-8.5744,0.6851,8.0119,4.9466,-5.1997,3.2162,-3.0241,0.9368,-10.5787,-12.7552,-6.7281,7.4110,-12.9846,-16.3825,-10.7256,-8.0324,-0.4897
832.0312,8.0394,0.2152,-3.7191,4.1164,13.1027,5.8277,-1.8304,8.2136,-2.8023,0.8054,-9.2712,-13.0325,-5.3385,14.8916,-13.6098,-13.8278,-9.6477,-7.5831,1.0570
835.9375,5.6610,-0.2569,-1.8874,4.9138,14.5830,4.8503,-0.3392,10.5965,-4.8761,-0.7608,-10.1043,-14.8886,-6.2009,18.5732,-14.5465,-14.3548,-10.9781,-8.1606,0.2470
839.8438,3.5862,-1.9179,-4.2861,3.3307,11.9610,3.4473,-0.9636,10.2092,-7.6231,-0.9416,-12.0212,-17.3730,-8.9566,16.4476,-14.8843,-17.4974,-14.2111,-9.2026,-2.8671
843.7500,4.3737,-2.9517,-8.6503,1.0901,7.9055,3.3488,-2.3538,8.5745,-8.6115,1.5983,-12.7505,-18.5324,-11.2779,10.4704,-13.8316,-21.4206,-17.0152,-9.6200,-6.1398
847.6562,8.1347,-2.0281,-11.2256,-0.0501,5.9962,5.1849,-2.9166,7.5374,-6.5909,5.7483,-10.8615,-17.0396,-10.8787,4.7254,-11.2409,-24.0058,-17.1679,-8.7845,-7.1172
851.5625,12.8196,0.9270,-9.6237,0.5345,7.8357,8.1974,-2.1688,7.9624,-2.3965,9.2451,-6.8597,-13.2163,-7.4171,2.4205,-7.5867,-23.8912,-14.3238,-6.9460,-4.9452
855.4688,16.1109,4.9397,-4.4187,2.2162,11.8221,11.0333,-1.0069,9.4200,1.8266,10.8677,-2.5752,-8.6843,-2.7740,3.9600,-3.6495,-20.9882,-10.2142,-4.8397,-0.9298
859.3750,17.1619,8.7220,1.4539,3.8754,14.4603,12.7219,-0.8074,10.8538,4.2628,11.4717,0.3552,-5.1207,0.3933,7.2379,-0.2970,-16.3701,-7.2437,-3.0209,2.5155
863.2812,16.7920,11.2316,4.7403,4.7143,13.0542,12.9924,-2.2420,11.4428,4.5151,12.9295,1.4673,-3.2755,0.5441,9.5304,1.5584,-11.7158,-6.7345,-1.6418,3.5405
867.1875,16.2237,11.7668,3.7475,4.4646,7.6169,11.8803,-4.8216,10.9013,3.3679,15.9814,1.1865,-2.9907,-1.8982,9.3536,1.0909,-8.5961,-8.2178,-0.8367,1.8437
871.0938,15.6931,9.8777,-1.0827,3.0460,0.6198,9.2797,-7.4442,9.1712,1.6767,19.0349,-0.1477,-3.9303,-5.2321,7.0293,-2.0002,-7.8610,-10.1684,-1.1766,-1.5763
875.0000,14.2517,5.5056,-7.8849,0.2822,-4.9895,5.0547,-9.3368,6.1023,-0.4568,19.1630,-2.7745,-6.1013,-7.9017,3.9355,-6.9491,-9.3273,-11.3527,-3.5146,-5.3980
878.9062,10.9093,-0.6420,-14.5194,-3.8603,-7.7652,-0.3721,-10.5228,1.6735,-3.4632,14.6203,-6.9551,-9.5846,-9.4060,1.3766,-11.8372,-11.8925,-11.5820,-8.1539,-8.7454
882.8125,6.0147,-6.9419,-19.3574,-8.7094,-8.2225,-5.6611,-11.4765,-3.3847,-7.3548,6.7666,-11.9913,-13.8176,-10.0918,0.0082,-14.3485,-14.0647,-11.3565,-14.0537,-11.2437
886.7188,1.5289,-11.3879,-21.5295,-12.7009,-7.6971,-9.0252,-12.4140,-7.3160,-11.0978,-0.3669,-16.0050,-17.3401,-10.3007,-0.0146,-13.0978,-14.7038,-10.9609,-18.9762,-12.6416
890.6250,-0.1972,-12.6867,-20.9476,-14.0598,-6.8610,-9.3585,-12.9649,-8.0402,-13.0763,-2.7600,-17.0234,-18.5371,-9.8469,1.3190,-8.6481,-13.6058,-10.0181,-20.7703,-12.6340
894.5312,1.7870,-11.1650,-18.3477,-12.0460,-5.2772,-7.1267,-12.5510,-4.5952,-12.3701,0.6554,-14.6164,-16.9136,-8.3375,3.9040,-3.3709,-11.5897,-7.9695,-18.9568,-11.1653
898.4375,6.1489,-8.6850,-15.2140,-7.7902,-2.2750,-4.1756,-11.0805,1.7595,-9.7222,7.1053,-10.6138,-13.7685,-5.9268,7.2310,-0.0650,-9.9981,-4.9782,-15.3237,-8.8550
902.3438,10.0881,-7.4461,-13.2769,-3.8762,1.8346,-2.4571,-9.2422,7.8501,-7.2230,11.9077,-8.0418,-11.4897,-3.6226,10.2520,-0.1972,-9.8831,-2.2729,-12.8730,-6.9446
906.2500,11.2918,-8.4573,-13.6105,-2.7536,5.4734,-2.6149,-8.0518,10.3894,-6.8034,11.8241,-8.9086,-11.8404,-2.6860,11.7631,-2.9884,-11.3687,-1.4405,-13.7371,-6.5822
910.1562,9.5654,-10.8138,-15.8697,-5.0592,6.8139,-3.5574,-8.0164,8.1185,-8.6932,7.3278,-12.5617,-14.5478,-3.5781,11.1077,-5.9960,-13.5835,-3.1721,-17.5802,-7.9510
914.0625,6.9254,-12.3563,-18.3428,-9.1250,5.2323,-3.3746,-8.6722,2.7132,-11.1278,2.1402,-16.0191,-17.3857,-5.4310,8.5893,-6.7651,-15.1966,-6.5574,-21.7283,-10.0204
917.9688,6.1259,-11.2375,-18.9808,-12.1166,1.8867,-0.8640,-8.9468,-2.3015,-11.6181,0.4689,-16.1337,-17.7808,-6.6255,5.1785,-4.3586,-15.2049,-9.6246,-22.9954,-11.2458
921.8750,8.7399,-7.2193,-16.7719,-12.0023,-1.1370,3.5627,-8.0609,-3.9046,-8.8331,4.0558,-11.9516,-14.7308,-6.0791,1.7434,0.2680,-13.4740,-10.7628,-19.8784,-10.7238
925.7812,14.1622,-1.7607,-12.4532,-8.8989,-2.4073,8.2761,-6.1888,-1.5005,-3.6342,11.1455,-5.4311,-9.5453,-4.1566,-1.4892,5.1647,-10.7312,-9.8663,-13.5262,-8.8660
929.6875,20.1228,3.0768,-7.9911,-4.8224,-2.1143,11.7173,-4.2935,2.9501,1.5269,17.9157,0.0138,-4.8566,-2.3808,-4.7291,8.7404,-8.0784,-8.2438,-6.8455,-7.0136
933.5938,24.1740,5.9747,-5.2050,-2.1079,-1.6264,13.4518,-3.2801,6.5687,4.3336,21.0866,1.9601,-2.7193,-2.1357,-7.8869,10.5394,-6.3807,-7.3737,-2.5190,-6.2989
937.5000,25.0294,6.9174,-4.5936,-1.7620,-2.0916,14.1416,-3.2194,7.6216,4.0918,19.7494,0.4959,-3.2917,-3.4512,-10.0979,11.0154,-5.9001,-7.5809,-1.4500,-6.7106
941.4062,22.9403,6.6771,-5.2453,-2.9846,-3.3604,14.5873,-3.3374,6.4472,1.8933,15.3166,-2.2626,-5.0383,-4.9246,-10.1298,10.7406,-6.3215,-7.7777,-2.6678,-7.1513
945.3125,19.1290,5.8470,-5.8178,-4.0932,-4.1858,14.8128,-2.7842,4.7098,-0.5112,10.0455,-4.0858,-6.1258,-4.8723,-7.4718,9.8696,-7.0525,-6.4918,-4.5016,-6.4260
949.2188,14.9309,4.3553,-5.7049,-3.9655,-3.4787,14.0818,-1.4879,3.8120,-2.0870,5.5342,-4.3118,-5.7795,-2.7444,-3.1464,8.3002,-7.5557,-3.2805,-5.8903,-4.2994
953.1250,11.2885,1.8544,-5.4017,-2.7833,-1.4312,11.8333,-0.3037,3.8770,-3.0229,2.2787,-3.9832,-4.5525,0.4123,0.6460,6.2410,-7.5433,0.7161,-6.7846,-1.7051
957.0312,8.7336,-1.4855,-5.8181,-1.5546,0.5662,8.6233,-0.2792,4.0768,-4.1063,0.2510,-4.5300,-3.4827,2.8442,2.0008,4.4913,-7.0156,3.5909,-7.5337,0.0663
960.9375,7.5412,-4.6416,-7.2187,-0.9643,1.1859,6.0917,-1.6491,3.8341,-5.6901,-0.4027,-6.3007,-3.0458,3.5718,0.8132,4.0307,-6.2143,4.1804,-8.0634,0.4807
964.8438,7.7187,-6.2998,-8.7847,-0.6443,0.4690,5.8281,-3.4483,3.6730,-7.2492,0.6510,-8.2564,-2.8601,3.1795,-0.9788,5.2194,-5.5444,2.9836,-7.7419,0.1944
968.7500,8.8514,-5.8873,-9.2257,0.4766,-0.0583,8.0388,-4.1377,4.8678,-7.8952,3.3169,-9.0095,-2.2995,3.2280,-0.7796,7.3541,-5.4505,1.7031,-6.0734,0.4264
972.6562,10.1197,-4.1416,-7.9166,3.0755,1.3317,11.1972,-2.7795,8.1751,-7.2968,6.6087,-8.1698,-1.3033,4.7963,2.6266,9.0856,-6.2283,1.7959,-3.4953,1.8221
976.5625,10.7059,-2.6230,-5.5456,6.5978,4.9372,13.0917,0.1828,12.8158,-6.0812,9.0231,-6.7262,-0.5325,7.4286,7.9993,9.4490,-7.8266,3.2687,-1.3894,3.8131
980.4688,10.3923,-2.4845,-3.6628,9.4646,9.0878,12.4982,3.1832,16.7007,-5.2982,9.5999,-6.1136,-0.7017,9.4306,12.4596,8.6677,-9.7716,4.7394,-1.1209,5.0535
984.3750,9.8426,-3.5135,-3.4684,10.2043,11.2637,10.1246,4.6318,17.8289,-5.4194,8.7621,-6.8328,-1.7499,9.2996,13.6406,8.0101,-11.3255,4.7024,-2.8553,4.5705
988.2812,10.2067,-4.2962,-4.8584,8.5778,10.0303,8.0207,3.9867,15.7474,-5.8188,8.0942,-7.9107,-2.7037,7.0833,11.4966,8.7437,-11.8505,2.9065,-5.2108,2.6422
992.1875,12.2277,-3.4402,-6.5439,5.7644,6.2097,7.8999,1.9808,11.8663,-5.2742,9.0918,-7.7332,-2.4486,4.4869,8.3211,11.0174,-11.1779,0.6621,-6.1666,0.6346
996.0938,15.5062,-0.8744,-7.1522,3.4559,2.2989,9.7290,-0.1025,8.3586,-3.1132,11.8549,-5.5465,-0.7522,3.5875,6.9400,13.6134,-9.7385,-0.1945,-4.5893,-0.0766
1000.0000,18.5436,1.8787,-6.3785,2.6083,0.5849,11.7373,-1.4487,6.5486,-0.0037,14.8316,-2.2946,1.4069,5.1825,8.5132,14.8259,-8.3364,1.1863,-1.1650,0.8085
1003.9062,19.6196,2.7551,-5.2049,2.8550,1.4825,11.8358,-2.1890,6.0951,2.3584,15.8980,-0.0114,2.5698,8.1271,11.6940,13.7907,-7.6840,3.9456,2.0382,2.3348
1007.8125,17.9026,0.7404,-5.0001,3.0018,3.4306,9.2870,-3.0151,5.5819,2.4907,13.9500,-0.2296,1.9972,10.2108,13.7952,11.1947,-7.9843,6.1884,3.0680,3.1558
1011.7188,13.9928,-3.2548,-6.2652,2.1249,4.3735,5.2749,-4.3584,3.9385,0.3106,9.7435,-2.7235,0.3001,9.8754,12.9925,8.7753,-8.8211,6.4959,1.4831,2.6907
1015.6250,9.5304,-6.9435,-8.1065,0.3319,3.5457,1.9480,-5.8951,1.4434,-2.7028,5.3328,-5.6323,-1.0684,7.4072,9.7747,8.0044,-9.4208,5.0470,-1.4117,1.5860
1019.5312,6.2104,-8.2273,-8.9040,-1.4057,2.0544,0.7602,-6.8057,-0.5254,-4.5182,2.6123,-6.8526,-1.0338,4.6828,6.4940,9.0179,-9.1084,3.4601,-3.6079,1.0990
1023.4375,4.9563,-6.5840,-7.6402,-2.1265,1.8071,1.4750,-6.5302,-0.7273,-3.9311,2.1701,-5.5496,0.2259,3.7204,5.4203,10.6530,-7.6737,3.5153,-3.8321,1.9451
1027.3438,5.7868,-3.2579,-4.7923,-1.6699,3.7313,2.5981,-5.3305,0.8219,-1.2476,3.3310,-2.5865,1.5177,5.2015,6.8919,11.5463,-5.4431,5.7909,-2.2694,3.6027
1031.2500,8.2847,-0.1981,-2.0422,-0.7273,6.8279,2.7939,-4.1519,2.8220,2.1806,5.1918,0.3742,1.7627,8.0817,9.0332,11.3726,-3.0534,9.2553,-0.1281,4.6739
1035.1562,12.0957,1.3547,-1.0279,-0.1767,8.8691,2.0447,-3.8904,3.7594,5.0694,7.5958,2.2377,1.0065,10.4809,9.2211,11.1886,-1.0997,12.0438,1.4365,4.0032
1039.0625,16.9639,1.5368,-2.1341,-0.3303,8.1678,1.5770,-4.6813,3.1433,6.9944,11.1057,3.1400,0.3962,11.0591,6.1090,12.5757,0.1268,12.7395,2.0862,1.6322
1042.9688,22.3412,1.3752,-4.2682,-0.7410,4.9491,2.6547,-5.7948,1.8587,8.2750,16.0071,3.9342,1.1281,9.8070,0.6478,16.2637,0.6860,11.1879,2.2060,-1.1856
1046.8750,27.0952,1.6837,-5.7601,-0.6770,1.2111,5.2976,-6.2159,1.3693,9.2196,21.3434,5.0986,3.2912,7.7750,-4.5901,21.3489,0.8430,8.3621,2.2237,-2.8970
1050.7812,29.8051,2.3205,-5.6279,0.2143,-0.7828,8.0345,-5.4271,2.4829,9.5568,25.0452,6.1354,5.6464,6.1429,-7.1536,25.7598,0.8552,5.5771,2.0939,-2.7392
1054.6875,29.5927,2.3933,-4.2126,1.6504,-0.1349,8.9216,-3.7794,4.7236,8.6477,25.2788,6.0315,6.5737,5.4607,-6.1801,27.6415,0.8260,3.7492,1.4420,-1.1615
1058.5938,26.8540,1.1588,-2.7428,3.0397,2.2106,7.0085,-2.2008,6.7851,6.2844,21.9888,4.3432,5.3977,5.5774,-2.6298,26.6130,0.6989,3.1700,0.1616,0.6733
1062.5000,23.2022,-1.2011,-2.2690,4.0228,4.4200,3.0838,-1.5188,7.6017,3.2730,17.2804,1.8720,2.9603,6.1027,1.6276,23.9633,0.3689,3.7189,-1.2100,1.8175
1066.4062,20.5025,-3.5953,-2.8699,4.7008,5.2626,-0.8684,-1.9369,7.0933,1.1327,14.1352,0.2435,0.9521,6.8369,5.0056,21.6728,-0.1744,5.1130,-1.7985,2.1257
1070.3125,19.6415,-4.8068,-3.7361,5.3661,4.9048,-3.0416,-3.0148,6.0053,1.0271,14.3254,0.6704,0.5704,7.7794,6.8386,21.0269,-0.7767,6.9432,-1.1633,2.1075
1074.2188,19.9668,-4.3953,-3.9799,6.0560,4.4687,-2.9471,-4.0791,5.1030,2.7821,17.1289,2.9254,1.6323,8.8430,7.2960,21.8441,-1.1815,8.6242,0.1883,2.3006
1078.1250,19.8660,-3.0099,-3.4398,6.4175,4.8976,-1.5288,-4.6960,4.5236,4.8659,19.8991,5.4069,2.8492,9.7087,6.9985,22.8208,-1.1987,9.5574,1.0871,2.7788
1082.0312,18.0701,-1.9156,-2.8124,6.0559,6.1964,-0.3069,-4.8694,3.8659,5.4474,20.0911,6.2832,2.9645,10.0709,6.7831,22.6366,-0.8668,9.5602,0.6204,3.1991
1085.9375,14.6727,-2.1441,-3.0404,5.0283,7.6637,-0.3146,-4.9082,2.8538,3.7508,17.1754,4.8167,1.7515,10.0487,7.6203,20.9454,-0.4748,9.2156,-1.0942,3.2571
1089.8438,11.0664,-3.8983,-4.4957,3.9616,8.7752,-1.6096,-5.1461,1.8480,0.6403,12.9470,1.8471,0.0610,10.2815,10.3549,18.5481,-0.3779,9.6897,-2.9758,3.0682
1093.7500,8.8601,-6.5520,-6.6273,3.5970,9.7889,-3.5579,-5.7284,1.6408,-2.0280,10.0299,-0.8786,-1.0065,11.4739,15.1151,16.7202,-0.6943,11.9508,-3.8639,3.1055
1097.6562,8.6661,-9.0983,-8.3285,4.1301,11.4445,-5.4608,-6.5508,2.6826,-2.7668,9.8288,-1.9258,-0.9788,13.7022,20.7634,16.2835,-1.0912,15.8978,-3.4639,3.7725
1101.5625,9.7465,-10.6458,-8.7022,4.9679,14.0234,-6.9446,-7.3083,4.4892,-1.4549,11.6014,-0.9827,-0.1614,16.1132,25.0392,17.1267,-0.8660,20.1342,-2.5186,5.0234
1105.4688,10.7934,-10.6826,-7.6376,5.2035,16.6901,-7.9022,-7.6106,5.8765,0.7696,13.3682,1.2468,0.9574,17.3876,25.6582,18.4567,0.6502,22.7108,-2.0530,6.3773
1109.3750,11.1612,-9.1314,-5.8161,4.4516,17.8471,-8.2512,-7.1653,5.9181,2.5441,13.8251,3.7776,2.3264,16.6856,21.8124,19.4923,3.5805,22.3940,-2.3773,7.2856
1113.2812,11.4755,-6.3605,-4.2279,3.2992,16.3367,-7.8875,-6.0074,4.8074,3.3345,13.5824,5.9764,4.2598,14.3213,14.9729,20.0277,7.2358,19.5253,-2.7749,7.4982
1117.1875,13.0496,-3.1982,-3.5976,2.8896,12.5170,-6.9081,-4.6432,3.7942,3.6561,14.6192,7.6186,6.7072,11.5694,8.2266,20.4706,10.3406,15.7860,-2.1975,7.1119
1121.0938,16.5545,-0.7905,-4.0852,3.9034,8.2441,-5.7968,-3.9142,4.1415,4.3717,18.3671,8.5327,8.6707,9.7135,4.4350,21.3997,11.6830,13.0093,-0.3600,6.3269
1125.0000,21.0736,-0.1508,-5.3471,5.7901,5.6520,-5.2267,-4.5222,5.9373,5.7638,24.0476,8.3831,8.5757,9.0982,4.4681,23.0289,10.8043,11.9365,1.7987,5.2236
1128.9062,24.4310,-1.5319,-6.7885,6.9893,5.6305,-5.5087,-6.4558,7.8209,7.2273,28.7643,6.9261,5.5526,8.9723,6.8110,24.9796,8.2702,11.8603,2.8107,3.8236
1132.8125,24.6822,-4.0507,-7.8054,6.0985,7.2006,-6.1416,-8.7662,7.9706,7.8368,29.4553,4.5005,0.6046,8.2616,8.8401,26.4907,5.3200,11.3921,2.0209,2.3586
1136.7188,21.6708,-5.9835,-7.9451,3.1129,8.3120,-5.9603,-9.9994,5.6263,7.2561,25.2668,2.1698,-3.5170,6.6103,8.7950,26.8773,3.1157,9.6957,0.4039,1.4002
1140.6250,17.4070,-5.7135,-7.0248,-0.2955,7.4630,-3.9272,-9.1263,1.8985,6.1619,18.4759,1.1904,-3.9723,4.7901,6.9435,25.9116,2.1020,7.1890,0.0342,1.5827
1144.5312,14.8604,-2.7743,-5.2252,-1.7983,4.8886,-0.0252,-6.3481,-0.8757,5.7928,13.1449,2.1250,0.0577,4.0975,5.0998,23.8987,1.9085,5.1791,2.4946,3.0598
1148.4375,15.9640,1.7598,-3.0775,-0.0442,2.3930,4.4781,-3.1276,-0.8107,6.9970,12.4195,4.3403,6.4679,5.2227,4.9749,21.4422,1.8256,4.7826,7.4687,5.1692
1152.3438,20.2615,5.8910,-1.2562,4.3066,1.9621,7.7022,-1.3062,2.0983,9.5810,16.4266,6.3946,11.4083,7.5454,6.7333,19.0778,1.4553,6.0350,12.7166,6.7042
1156.2500,25.1915,7.9510,-0.2281,8.9498,4.2266,8.3416,-1.8753,5.9200,12.4770,22.2785,7.0786,11.8385,9.4777,8.9026,16.9999,1.0145,7.8914,15.5671,6.7026
1160.1562,27.8182,7.6239,0.0227,11.4622,7.9443,6.5131,-4.2974,8.1688,14.5466,26.1168,6.2840,7.6099,9.6184,9.6388,15.0313,1.0569,9.0647,14.8224,5.1785
1164.0625,26.7757,6.0182,-0.0385,10.8840,10.8767,3.6362,-6.9066,7.5742,15.3239,25.6643,4.9738,1.5092,7.8165,8.2640,12.8423,1.8623,8.9881,11.5956,3.1881
1167.9688,23.0773,4.7681,0.1418,8.2455,11.3957,1.4508,-8.1008,4.9156,15.1231,21.4943,4.2812,-2.7682,5.3120,5.8387,10.2937,3.0295,8.1518,8.4251,2.1211
1171.8750,19.3048,4.8631,0.7706,5.7445,9.6447,0.9198,-7.4153,2.3628,14.5359,16.2980,4.5198,-3.1755,3.8680,4.3771,7.6959,3.6631,7.6310,7.3763,2.7393
1175.7812,17.8525,6.0751,1.5491,5.2596,7.4464,1.8095,-5.6663,1.9089,13.8725,12.9177,4.9774,-0.4967,4.5823,5.4034,5.7951,3.0563,8.2612,8.6256,4.7093
1179.6875,19.4984,7.3479,1.9306,7.2734,7.0603,3.1623,-4.1141,4.0982,13.0742,12.6690,4.6780,2.6181,7.2583,8.9830,5.4217,1.3314,10.1148,10.5953,6.9723
1183.5938,23.2039,7.7536,1.5892,10.8421,9.6638,4.1755,-3.3983,7.8937,12.1076,15.0113,3.4213,3.8436,10.7008,13.8461,6.9421,-0.5205,12.5768,11.4238,8.6016
1187.5000,27.0735,7.2121,0.6987,14.4104,14.5484,4.7349,-3.1571,11.5779,11.3427,18.4490,2.1236,2.8020,13.5648,18.2970,9.8284,-1.3169,14.7993,10.4976,9.4047
1191.4062,29.6126,6.4296,-0.2292,16.7335,19.4911,5.2319,-2.6191,13.8480,11.4239,21.6801,2.0775,0.9280,15.0478,21.0819,12.6734,-0.6041,16.0940,8.8001,9.7844
1195.3125,30.3759,6.1918,-0.8152,17.2891,22.0017,5.9391,-1.5757,14.3061,12.6601,24.0815,3.7251,-0.0904,15.0007,21.6507,13.7713,0.8984,16.0422,7.8882,10.0590
1199.2188,29.7394,6.6731,-1.1681,16.1361,20.6742,6.5889,-0.7808,13.2084,14.5127,25.4318,6.0479,0.1778,13.6156,19.9440,12.0371,1.7419,14.4622,8.4744,9.9400
1203.1250,28.2498,7.3617,-1.7760,13.6255,15.8954,6.5701,-1.3318,10.9717,15.7790,25.5006,7.2234,0.7395,11.1710,16.2313,7.7628,0.8160,11.4906,9.8731,8.7252
1207.0312,26.2282,7.6297,-2.9816,10.3304,9.5980,5.5610,-3.5322,7.9896,15.4825,24.1225,6.1188,0.3826,8.1082,11.2860,2.7083,-1.7417,7.7869,10.7558,6.0907
1210.9375,23.9024,7.3988,-4.4776,7.1523,4.2657,3.9840,-6.2966,4.8292,13.7843,21.7065,3.4012,-0.9503,5.2460,6.5964,-0.6487,-4.5178,4.5695,10.4809,2.7537
1214.8438,21.7495,7.2719,-5.2983,5.2487,1.7499,2.7942,-7.7760,2.3929,12.0710,19.5016,1.2486,-1.9366,3.6988,4.0610,-0.3896,-5.7702,3.2015,9.7579,0.3086
1218.7500,20.5154,7.9722,-4.4044,5.5571,2.5018,2.6989,-6.8293,1.6387,11.9847,19.0290,1.7452,-1.0468,4.3343,5.0435,3.7179,-4.6935,4.4378,10.0095,0.2263
1222.6562,20.7252,9.5702,-1.4633,8.1527,5.5814,3.4489,-4.1355,2.9458,14.0704,20.8783,5.1663,1.9315,7.1258,9.3945,9.9098,-2.0543,7.8708,11.9825,2.7710
1226.5625,22.0858,11.2027,2.7822,11.9964,9.3865,3.8656,-1.8967,5.6886,17.1534,23.8499,9.5511,5.4374,11.0068,15.3402,15.1975,0.3263,12.1065,14.8737,6.7517
1230.4688,23.4236,11.6191,6.8809,15.4462,12.6484,2.7056,-2.1921,8.5229,19.0748,25.4053,12.0207,7.2714,14.5071,20.5733,16.8891,0.9186,15.6713,16.8354,10.3876
1234.3750,23.4256,10.1885,9.5492,17.2932,15.0812,-0.2358,-5.2166,10.2925,18.3375,23.4284,10.9287,6.4495,16.7744,23.8485,14.0747,-0.3140,18.0052,16.5303,12.6374
1238.2812,21.7276,7.5690,10.4307,17.5772,17.2809,-3.6625,-8.8776,10.8547,15.4020,18.1129,7.2185,4.2083,18.1678,25.8045,8.2415,-1.7806,19.7251,14.4315,13.9109
1242.1875,19.4501,5.4327,10.1915,17.5079,19.9741,-5.4325,-10.2249,11.0945,12.5371,12.4110,3.8969,3.2270,19.8717,28.2301,2.6000,-1.3640,21.8866,12.6877,15.5545
1246.0938,18.5719,5.3376,9.8961,18.4784,23.1865,-3.9987,-7.7177,12.0465,12.1979,10.3660,3.9238,5.5753,22.7667,32.2670,0.3806,1.9784,24.8207,13.5168,18.5070
1250.0000,20.4080,7.5148,10.1384,20.8978,26.0003,0.3184,-2.5670,13.8366,15.0809,14.2433,8.0098,10.9637,26.4595,37.0380,2.9664,7.2594,27.5526,17.3428,22.2446
1253.9062,24.2552,10.4592,10.5662,23.7559,27.1470,5.1486,1.9744,15.3828,19.3333,22.4676,13.9027,16.6769,29.3126,39.9754,8.9021,11.8731,28.3900,22.1794,24.9303
1257.8125,27.3193,11.6859,10.1324,25.2938,26.0256,7.2209,2.9224,15.2019,21.5909,30.0228,17.6809,19.2749,29.5378,38.7596,14.4366,13.1503,26.2921,24.8340,24.7188
1261.7188,26.2040,9.2105,7.8851,24.2877,23.3420,4.2124,-0.2637,12.7214,19.1712,31.3221,16.1709,16.8109,26.5410,33.3634,15.4476,10.0273,21.9072,23.0878,21.2089
1265.6250,19.1020,2.8110,3.7432,20.9754,20.7922,-3.8089,-5.3222,9.0024,11.8847,23.7630,8.8827,9.9862,21.4656,26.4573,9.7802,3.7170,17.3532,17.2350,15.8954
1269.5312,7.2256,-5.7296,-1.2499,16.9352,19.9452,-14.2310,-8.9313,6.1983,2.2093,9.5770,-1.7287,1.5421,16.4998,21.6861,-1.3150,-3.0393,14.8172,9.8620,11.2555
1273.4375,-5.5590,-13.5364,-5.3491,14.0421,21.1484,-23.1474,-9.2010,6.0902,-6.2415,-5.3267,-11.6929,-5.4901,13.4874,21.0869,-13.5647,-7.5979,15.0469,4.0910,9.1767
1277.3438,-14.7480,-18.1329,-6.9500,13.3116,23.3227,-27.3076,-6.9803,8.8190,-10.8376,-14.8011,-17.6271,-9.3562,12.9027,23.7135,-21.8037,-8.8247,16.9460,1.6337,9.9111
1281.2500,-17.6100,-18.6218,-5.3932,14.4531,24.8397,-25.6804,-4.9913,12.8031,-11.2082,-15.9380,-18.2437,-10.0148,13.9012,26.6100,-22.7300,-7.4236,18.6015,2.0390,12.2601
1285.1562,-14.4938,-15.9299,-1.3366,16.3410,24.7948,-19.8000,-5.5176,15.8972,-8.9733,-10.3883,-14.5764,-8.4956,15.2548,27.3479,-16.7101,-5.1123,18.8817,3.5059,14.6860
1289.0625,-8.3100,-12.0901,3.4680,17.8998,23.6432,-12.7803,-8.4963,16.8645,-6.3653,-2.8647,-9.0924,-5.9862,16.2955,26.0014,-7.5434,-3.3516,18.2570,4.4414,16.3668
1292.9688,-2.6770,-9.0783,6.9029,18.6765,22.6697,-7.6219,-11.5148,16.0315,-4.8529,1.9494,-4.3994,-3.3781,17.1018,24.8666,-0.2977,-2.5424,18.1544,4.5005,17.3921
1296.8750,-0.0133,-7.8958,7.4252,18.7683,22.7421,-5.7912,-11.6906,14.7035,-4.6537,1.9618,-2.2347,-1.3507,17.9195,26.1316,1.4961,-2.1571,19.4245,4.4350,18.1320
1300.7812,-0.7160,-8.3493,4.8169,18.3740,23.4343,-6.8267,-7.9393,13.9419,-5.2019,-1.8024,-3.0497,-0.5197,18.5180,29.5085,-2.4002,-1.5358,21.2995,5.1087,18.5263
1304.6875,-3.6827,-9.5247,0.3612,17.5122,23.3231,-9.0801,-1.8752,13.7674,-5.9308,-6.6621,-6.1425,-1.2441,18.1990,31.9742,-9.2377,-0.6308,21.8312,6.6435,18.0265
1308.5938,-7.5093,-10.5534,-3.7277,16.1751,21.2653,-11.0092,3.3134,13.4007,-6.6679,-10.3769,-10.1368,-3.2227,16.5009,30.0533,-15.3313,-0.1086,19.5313,8.3904,16.2298
1312.5000,-11.3825,-11.1531,-5.4188,14.6818,17.5696,-12.1386,5.1062,12.2143,-7.4470,-12.3520,-13.5993,-5.4049,13.9072,22.8781,-18.4292,-0.7751,14.8389,9.6114,13.5362
1316.4062,-15.1201,-11.6168,-3.9512,13.7506,13.9929,-13.0691,3.3155,10.4718,-8.1056,-13.3434,-15.5923,-6.5415,11.7829,13.4577,-18.8381,-2.8242,10.1004,10.1553,11.1091
1320.3125,-18.5685,-12.3077,-0.2294,14.0825,12.4480,-14.6013,0.0213,9.1785,-8.1619,-14.2430,-15.9436,-6.0631,11.4350,6.9120,-18.6526,-5.5143,7.9449,10.5098,10.0718
1324.2188,-21.0451,-13.0577,3.7816,15.7623,13.4396,-16.6809,-2.0160,9.2064,-7.1159,-15.0831,-15.0874,-4.5326,13.0409,6.8749,-19.7723,-7.5239,9.3040,11.2547,10.6311
1328.1250,-21.3856,-12.9639,6.3381,18.0506,15.5655,-18.0323,-1.1845,10.5194,-4.8728,-15.0106,-13.5640,-3.1684,15.4118,12.8239,-22.2052,-7.7217,12.6870,12.4978,11.9542
1332.0312,-18.6129,-10.8389,7.0349,19.8505,16.5953,-16.8662,2.1928,12.2157,-1.8749,-13.1028,-11.5315,-2.7351,16.9001,20.4443,-23.9060,-5.8121,15.3400,13.8411,12.9761
1335.9375,-12.7317,-6.1127,6.9612,20.5340,15.3084,-12.2427,6.4549,13.3429,1.1728,-9.2563,-8.6997,-2.7441,16.7524,24.7640,-22.2691,-2.4538,15.3783,14.8667,13.4357
1339.8438,-5.0606,0.4015,7.7393,20.4272,12.5685,-5.1031,9.8774,13.7212,3.7087,-4.4375,-4.8053,-1.7561,15.7411,23.6141,-16.2019,1.1528,13.1673,15.6089,14.1551
1343.7500,2.1612,6.5057,10.1214,20.4911,10.6659,1.8883,11.5995,14.0013,5.4810,-0.1682,-0.2713,1.3313,15.4612,18.7747,-7.2811,3.8807,10.8433,16.4856,16.1975
1347.6562,6.6909,9.5833,13.2121,21.4120,11.3933,5.7642,11.6983,14.8955,6.3833,2.3076,3.5715,6.0407,16.8212,14.0818,0.8831,5.1204,10.4069,17.7126,19.5794
1351.5625,7.2485,8.0925,14.9765,22.8703,14.4265,5.0846,10.6952,16.3106,6.2418,2.5977,5.0791,10.2480,19.0278,12.2257,4.7205,4.8934,12.0139,18.7837,22.7333
1355.4688,4.0876,2.6805,13.7416,23.6678,17.4164,0.9426,9.1343,17.2444,4.9002,1.2122,3.4445,11.5277,20.0357,12.9121,2.8865,3.7178,13.9099,18.6237,23.3993
1359.3750,-1.0443,-3.8808,9.5958,22.6856,17.8131,-3.6084,7.5533,16.6298,2.6235,-0.7669,-0.4170,8.9598,18.2196,13.7683,-2.8484,2.3936,14.0540,16.4379,20.4049
1363.2812,-5.5298,-8.0620,4.5868,19.9123,14.9734,-5.4062,6.6185,14.4181,0.4162,-2.1022,-4.0404,3.9680,13.9227,12.9708,-8.5755,1.7794,12.0278,12.5944,14.9133
1367.1875,-6.8794,-7.5131,1.4747,16.6543,10.7868,-3.1155,6.9870,11.8933,-0.2204,-1.7426,-4.7384,-0.5499,9.5190,11.1329,-10.4814,2.5347,9.5554,8.7239,9.9759
1371.0938,-3.7684,-2.3903,1.8871,14.6789,8.2215,2.0327,8.8147,10.8225,1.8566,0.8884,-1.2988,-2.1959,7.7839,10.7236,-6.9794,4.8265,9.1260,6.7978,8.5215
1375.0000,3.3133,4.7923,5.2201,14.9328,8.9199,7.1770,11.3555,12.0707,6.5110,5.6309,5.1295,-0.6411,9.7886,13.5453,0.5123,8.1395,11.8364,7.8044,11.2302
1378.9062,12.1742,10.7288,9.1121,16.8667,11.8177,9.7799,13.2090,14.8418,12.1175,11.4952,11.6683,2.4170,14.0217,18.5986,8.5372,11.4040,16.2867,11.0464,15.9675
1382.8125,19.8862,13.3171,11.1548,18.9351,13.9850,9.2729,13.2698,17.2482,16.4107,16.9561,15.5173,4.8289,17.5272,22.4161,13.6665,13.5139,19.5356,14.6515,19.3200
1386.7188,24.2195,12.8007,10.5801,19.8725,13.0646,7.3141,11.7156,17.8008,17.9236,20.6633,15.7334,5.7924,18.2276,21.8155,14.4148,14.0069,19.4156,16.9384,19.1359
1390.6250,24.7771,11.3427,8.6809,19.6925,9.3204,6.5580,10.1396,16.5980,16.9947,22.2178,13.7539,6.4118,16.5903,16.8194,11.9120,13.4505,16.3435,17.5861,16.1307
1394.5312,23.1010,11.3720,7.6894,19.5696,5.5588,8.8281,10.4993,15.1916,15.5364,22.4561,12.3102,8.5910,15.2585,11.1503,9.0090,13.1803,13.1117,17.6967,13.2954
1398.4375,21.5940,13.8617,8.9989,20.6910,4.8981,13.9221,13.5366,15.2036,15.6497,22.9150,13.5113,13.2167,16.8801,9.6095,8.4187,14.4557,12.7635,18.7327,13.5423
1402.3438,21.9030,17.7103,12.0885,23.0451,8.1521,19.7694,17.8976,16.8432,18.0713,24.7428,17.4441,19.1621,21.8381,14.2708,11.0360,17.5625,16.2121,21.2086,17.4057
1406.2500,23.8541,20.6025,14.9372,25.1979,12.9781,23.7328,20.7824,18.6006,21.6227,27.8179,22.2331,23.9542,27.7141,22.5420,15.4486,21.5098,21.4880,24.2081,22.5781
1410.1562,25.7244,20.6926,15.5620,25.3057,15.5574,24.1418,19.8092,18.4369,24.1086,30.7858,25.4380,25.5689,30.9670,28.7837,18.9160,24.6053,25.2072,26.1043,25.6283
1414.0625,25.6993,17.9090,13.4793,22.5819,13.5259,21.1183,14.7722,15.5183,24.0102,32.0767,25.7403,23.9003,29.5488,28.3625,19.1954,25.5592,25.0885,25.8772,24.5515
1417.9688,23.4585,13.9900,9.9992,18.0282,7.8299,16.3117,7.9470,11.0457,21.6906,31.1850,23.7378,20.7445,24.4301,21.0403,16.0551,24.3530,21.5516,23.9431,20.1846
1421.8750,20.6630,11.2829,7.2028,13.8140,2.0182,11.8716,2.6381,7.4412,19.1852,29.2141,21.3789,18.3641,18.8648,11.0954,11.4970,22.2372,17.2085,21.8336,15.4556
1425.7812,19.8860,11.1953,6.4534,11.7757,-0.4725,9.3559,0.9940,6.5095,18.7258,28.1944,20.5562,17.8437,16.0021,4.1421,8.5203,20.8497,14.7637,21.0129,13.1490
1429.6875,22.7113,13.3829,7.5886,12.2179,1.1307,9.1642,2.6879,8.0666,21.1174,29.6242,21.9127,18.5503,16.7246,3.1813,9.2083,21.0912,15.0598,21.8169,13.9773
1433.5938,28.4142,16.1839,9.3347,13.9410,4.5619,10.6547,5.4136,10.1681,25.1914,33.3226,24.6483,19.0432,19.3492,6.9138,13.3881,22.5818,16.7805,23.3645,16.4115
1437.5000,34.2683,17.9020,10.5026,15.4135,6.5537,12.7081,6.7656,10.7650,28.7227,37.4897,27.3181,18.5592,21.2955,11.4130,18.7501,24.0710,17.8971,24.4592,18.2433
1441.4062,37.3199,17.9727,10.9545,16.0792,5.5727,14.3420,6.0393,9.4310,30.0732,39.9533,28.9153,17.7596,21.2696,13.5359,22.3391,24.4470,17.5197,24.6761,18.4844
1445.3125,36.3450,17.1929,11.5893,16.7084,3.0060,15.0798,4.5991,7.7331,29.2931,39.6549,29.4218,18.1086,20.1776,13.1796,22.3912,23.5405,16.5703,24.6983,18.0301
1449.2188,32.5389,16.9193,13.4325,18.5320,1.8661,14.9746,4.6099,7.9247,27.8663,37.2363,29.5114,20.4468,20.1003,12.6618,19.2646,22.1093,16.7704,25.6260,18.6276
1453.1250,28.4432,17.8938,16.6280,21.9325,4.1440,14.3691,7.1899,11.0231,27.3644,34.3073,29.7605,24.0166,22.2891,14.0491,14.8744,21.0642,18.9006,27.8644,21.1303
1457.0312,25.9627,19.5930,20.1699,25.8497,9.0493,13.5621,11.4480,15.8471,28.1111,32.0290,30.0513,26.8166,25.9256,16.9864,11.1302,20.6176,21.9019,30.5671,24.5860
1460.9375,25.0182,20.5775,22.5726,28.4625,13.6263,12.5712,15.1182,19.8196,28.9169,30.1944,29.6319,27.0403,28.7123,19.0399,8.5849,20.0908,23.6449,32.1521,26.9567
1464.8438,23.8567,19.5658,22.9287,28.6258,15.2490,11.1327,16.2458,20.9116,28.0720,27.5651,27.7490,24.4480,28.8048,18.2506,6.3014,18.5612,22.7526,31.5106,26.8617
1468.7500,20.7204,16.4371,21.5185,26.8776,13.9175,8.9548,14.5965,19.1826,24.7920,23.1734,24.3297,20.5678,26.4567,15.5313,2.9657,15.8096,19.9263,28.9335,24.8510
1472.6562,15.4980,12.4325,19.5335,25.1374,12.4050,6.0747,11.7405,16.7032,19.9677,17.4747,20.1777,17.5695,23.9596,14.5364,-1.7106,12.7364,17.5909,25.9802,23.0899
1476.5625,10.0122,9.4155,18.1784,25.2651,14.0399,3.0646,9.8275,15.9362,15.6307,12.3276,16.5338,16.7065,23.8462,18.7639,-6.4870,10.8173,18.0389,24.3511,23.6463
1480.4688,6.7048,8.7192,17.8700,27.5792,19.8498,0.8810,10.0457,17.8594,13.5496,9.7306,14.3262,17.5248,26.7551,28.1367,-9.4495,10.9518,21.5006,24.6201,26.7352
1484.3750,6.7774,10.3759,18.1068,30.5047,27.3593,0.3790,11.9165,21.2742,14.0280,10.2878,13.6390,18.3828,30.6703,38.0185,-9.5680,12.6025,25.6842,25.8039,30.3451
1488.2812,9.2849,13.2263,18.0214,31.6565,32.0771,1.7741,13.8487,23.7704,15.7948,12.6526,13.7563,17.7884,32.2043,41.8621,-7.6813,13.9643,27.2206,26.1013,31.5906
1492.1875,11.9065,15.7689,17.1090,29.5594,30.6256,4.4300,14.4033,23.5312,17.0243,14.4611,13.7192,15.4766,29.0135,35.7923,-6.0423,13.1431,23.9936,24.2431,28.7902
1496.0938,12.7737,17.1164,15.5596,24.7257,23.1938,7.1619,13.2604,20.5780,16.6812,14.0851,12.9976,12.4587,21.5684,21.7373,-6.6845,9.5294,16.6673,20.4426,22.7144
1500.0000,11.8922,17.4006,14.0028,19.3120,13.5203,8.8951,11.2349,16.5926,15.1855,11.8647,11.8226,10.1434,12.9856,6.6435,-9.8383,4.3607,8.3352,16.2684,16.1055
1503.9062,11.0342,17.4093,12.9548,15.6562,6.4649,9.2441,9.4834,13.6057,13.9535,9.8541,10.9838,9.3247,7.0688,-1.8215,-13.6473,0.0210,2.5906,13.5727,11.8763
1507.8125,12.2116,17.8030,12.4462,14.7955,4.9662,8.6226,8.6317,12.6585,14.2313,10.2597,11.2524,9.8134,5.9749,-0.0672,-15.4678,-1.4591,1.4075,13.2818,11.3258
1511.7188,15.9630,18.5317,12.0939,16.0061,8.5024,7.8288,8.4872,13.4169,16.1264,13.7484,12.8239,10.8614,9.0954,9.4718,-13.8138,0.3297,4.2387,14.8916,13.5895
1515.6250,20.8051,18.8763,11.4896,17.5810,13.9386,7.4306,8.4394,14.8467,18.5338,18.8924,15.1344,11.8650,13.7765,20.4371,-9.5024,3.9915,8.7665,16.9422,16.5403
1519.5312,24.2481,18.0486,10.5432,18.1481,17.8885,7.4107,8.0952,16.2136,19.9427,23.1285,17.1501,12.7036,17.1878,26.9622,-5.1455,7.2945,12.5792,18.0374,18.3132
1523.4375,24.5432,15.8689,9.5198,17.5253,18.7904,7.3067,7.5893,17.5373,19.4763,24.4694,17.9325,13.5045,17.9712,27.1737,-3.3754,8.5742,14.5373,17.6624,18.3236
1527.3438,21.8084,13.0083,8.8037,16.5824,17.3743,6.6902,7.3755,19.2295,17.4114,22.6978,17.1303,14.1923,16.6610,23.5179,-5.1172,7.6162,15.0192,16.3055,17.2095
1531.2500,17.7449,10.6199,8.6429,16.3804,15.5486,5.5731,7.7710,21.3996,14.8744,19.2466,15.1220,14.3503,14.8626,20.1690,-9.1296,5.5170,15.1449,14.9456,16.0126
1535.1562,14.2978,9.6390,9.0895,17.3554,14.8320,4.4209,8.6922,23.5542,13.0258,16.0081,12.7598,13.5774,13.9989,19.8158,-13.0429,3.7647,15.7428,14.3772,15.3879
1539.0625,12.3869,10.2428,10.1214,19.1456,15.5266,3.7841,9.7811,24.9827,12.3547,14.0663,10.8987,11.9986,14.5296,22.2123,-15.0230,3.2604,16.8237,14.8384,15.3991
1542.9688,11.6403,11.8122,11.7500,21.0544,16.9951,3.8682,10.7443,25.4422,12.5298,13.2628,9.9901,10.3913,15.9904,25.1709,-14.8260,3.9143,17.7809,16.0705,15.8355
1546.8750,11.1505,13.3581,13.9436,22.6343,18.4774,4.3881,11.5452,25.4539,12.7879,12.7422,9.9383,9.7062,17.5399,26.7109,-13.5968,4.9399,17.9645,17.5995,16.5573
1550.7812,10.4411,14.0690,16.4117,23.8644,19.6142,4.7991,12.2654,25.8671,12.4814,11.8486,10.2446,10.3165,18.4596,26.4204,-12.7715,5.4814,17.1052,18.9476,17.4851
1554.6875,9.7792,13.6218,18.4802,24.8349,20.3286,4.6902,12.7858,27.0166,11.3878,10.5907,10.3052,11.6234,18.3058,25.0951,-13.0473,5.0839,15.3251,19.6722,18.3125
1558.5938,9.6600,12.1387,19.2611,25.3191,20.3996,4.0223,12.6279,28.2052,9.6654,9.4013,9.6893,12.3984,16.8299,23.3579,-14.1652,3.7721,12.8711,19.3552,18.3602
1562.5000,10.0779,9.9540,18.0909,24.7109,19.3144,3.0570,11.1635,28.0141,7.6286,8.5810,8.2874,11.6558,13.9615,20.7762,-15.4762,1.8526,9.8940,17.7157,16.8766
1566.4062,10.3599,7.4368,14.9645,22.4514,16.6298,2.0902,8.0727,25.2763,5.5894,8.0366,6.3186,9.3977,9.9685,16.3728,-16.6324,-0.2941,6.4715,14.8464,13.6364
1570.3125,9.7625,4.9778,10.6437,18.6075,12.5114,1.2424,3.6946,19.9926,3.8507,7.5496,4.2409,6.6535,5.6128,10.0191,-17.7627,-2.2875,2.8105,11.3749,9.3324
1574.2188,8.2667,3.0333,6.3299,14.0825,7.8940,0.4621,-1.0262,13.4873,2.7387,7.2291,2.6083,4.7759,2.0236,3.3090,-19.0635,-3.7514,-0.5991,8.3210,5.3506
1578.1250,6.7677,2.0530,3.0900,10.2095,4.0301,-0.3162,-4.9914,7.6769,2.5218,7.5932,1.8964,4.5295,0.2293,-1.0776,-20.3088,-4.3832,-3.0496,6.6276,3.0034
1582.0312,6.3885,2.2557,1.3953,7.9714,1.7412,-1.0428,-7.4963,3.9801,3.2162,9.0885,2.3268,5.6474,0.6147,-1.1733,-20.8354,-4.1040,-3.8837,6.6276,2.7576
1585.9375,7.4750,3.4175,1.0360,7.4092,0.9634,-1.5736,-8.5125,2.6315,4.4535,11.4586,3.7613,7.1535,2.6975,2.7396,-20.0755,-3.1436,-2.8041,7.8192,4.0287
1589.8438,9.1935,4.9064,1.4086,7.6563,0.9297,-1.7924,-8.5571,2.8108,5.6010,13.6297,5.7420,8.1509,5.4128,8.1573,-18.1552,-1.9159,-0.0482,9.1575,5.6732
1593.7500,10.1797,6.0221,1.9279,7.5819,0.7988,-1.6870,-8.2930,3.3830,6.1308,14.3906,7.6981,8.4509,7.7199,12.0121,-15.9720,-0.7231,3.6562,9.7137,6.7771
1597.6562,9.7550,6.4336,2.2878,6.5764,0.1960,-1.3035,-8.1551,3.6437,5.9971,13.4120,9.2234,8.5829,9.1134,12.7105,-14.6115,0.4747,7.3283,9.2757,7.1318
1601.5625,8.6466,6.3738,2.4523,4.9210,-0.7326,-0.6537,-8.2191,3.5638,5.7082,11.7257,10.2525,9.2292,9.7142,10.9972,-14.5588,1.9873,10.0731,8.4712,7.0947
1605.4688,8.4854,6.4078,2.4769,3.4994,-1.6870,0.2815,-8.3186,3.4774,5.9803,11.1065,11.0005,10.5647,9.9472,9.0440,-15.3689,4.0249,11.3993,8.3005,7.0477
1609.3750,10.3765,6.9265,2.3566,3.0891,-2.5781,1.4179,-8.2512,3.5850,7.1770,12.6857,11.6978,12.0168,10.1106,8.5703,-16.0826,6.3233,11.3886,9.3720,6.9741
1613.2812,13.7068,7.7716,2.0195,3.7615,-3.5223,2.4452,-7.9105,3.7160,8.9443,15.8521,12.3161,12.6160,10.1671,9.5278,-16.0381,8.1198,10.6183,11.3537,6.5132
1617.1875,16.2868,8.3247,1.4381,4.8231,-4.5016,2.9143,-7.2911,3.5172,10.3443,18.4178,12.5189,11.6651,9.8689,10.3558,-15.3885,8.5867,9.8403,13.0398,5.3968
1621.0938,15.9062,8.0324,0.7262,5.3299,-5.0768,2.5644,-6.4291,2.8647,10.4498,18.1150,11.9168,9.2471,9.0507,9.5084,-14.8953,7.4401,9.5627,13.0418,3.8299
1625.0000,12.1968,6.9679,0.1264,4.8036,-4.5164,1.6666,-5.3636,2.1292,9.0132,14.4108,10.4669,6.2411,7.8287,6.9424,-15.1904,5.2520,9.7807,10.6990,2.4426
1628.9062,7.3184,5.9528,-0.1019,3.6365,-2.3202,1.0466,-4.1506,2.0581,6.7475,9.2572,8.7062,3.8648,6.5634,4.3262,-16.1581,3.1780,10.0432,6.6341,1.8394
1632.8125,4.7837,6.0780,0.1975,2.8908,1.2757,1.6480,-2.8958,3.3329,4.9971,6.0778,7.5940,3.0545,5.6534,3.7932,-16.9740,2.2570,9.8303,2.5673,2.1430
1636.7188,7.1372,7.9324,1.0315,3.6052,5.2620,3.8725,-1.7631,6.0884,4.9881,7.5727,8.0053,4.0431,5.3381,6.2281,-16.7649,2.7828,8.9859,0.4479,2.9382
1640.6250,14.1246,11.1048,2.2872,6.0595,8.3776,7.1799,-0.9465,9.7018,7.1230,13.8417,10.1859,6.3314,5.6356,10.4287,-15.3212,4.2069,7.8842,1.3882,3.6664
1644.5312,22.6961,14.3531,3.7781,9.4840,9.8282,10.3091,-0.6242,12.9941,10.7565,22.1673,13.5380,9.0060,6.4048,13.7975,-13.2579,5.6247,7.1945,5.0296,4.1190
1648.4375,28.8903,16.3474,5.2592,12.4307,9.6799,12.0343,-0.9119,14.7545,14.5734,28.6567,16.8990,11.1983,7.4407,14.0544,-11.5076,6.4494,7.4128,9.7302,4.5897
1652.3438,30.2999,16.4699,6.4279,13.6003,8.6689,11.9405,-1.8184,14.3340,17.3151,30.6429,19.1501,12.4526,8.5342,10.7392,-10.5953,6.7502,8.5200,13.4737,5.5430
1656.2500,27.4389,15.1165,6.9710,12.6167,7.6199,10.6521,-3.2067,12.0028,18.4109,28.2316,19.7753,12.8485,9.5043,5.4830,-10.3116,7.0255,10.0298,14.9586,7.0909
1660.1562,23.1488,13.3175,6.6852,10.2506,6.9239,9.3384,-4.7911,8.8658,18.1614,24.0047,19.0365,12.8459,10.2370,0.9428,-10.0312,7.6484,11.3749,14.2148,8.7419
1664.0625,20.5640,11.9898,5.6145,7.9227,6.4143,8.8651,-6.2072,6.3298,17.4128,21.1716,17.6951,12.9431,10.7223,-0.8066,-9.3563,8.4789,12.3061,12.3891,9.6621
1667.9688,21.0836,11.3683,4.0893,6.7768,5.6222,9.2234,-7.1550,5.3649,16.9578,21.4681,16.4953,13.3275,11.0300,0.6293,-8.5111,8.9644,12.9701,10.8669,9.2464
1671.8750,23.6512,10.9813,2.5938,6.9094,4.1243,9.6416,-7.5404,5.9584,17.0263,24.1657,15.7396,13.7163,11.1934,3.9605,-8.1648,8.6236,13.6135,10.3190,7.5300
1675.7812,25.6465,10.1037,1.5054,7.2730,1.7220,9.2452,-7.5098,7.1125,17.1444,26.7073,15.1831,13.4960,11.0700,7.1236,-8.8834,7.4727,14.1891,10.2954,5.1060
1679.6875,24.6196,8.2881,0.8644,6.3501,-1.5719,7.7205,-7.3288,7.4417,16.4153,26.3957,14.2455,12.0958,10.3165,8.4233,-10.7217,6.0122,14.2341,9.6143,2.6334
1683.5938,19.6926,5.5864,0.3364,3.1841,-5.5744,5.4790,-7.1814,6.0458,14.0467,21.9813,12.3673,9.3732,8.5662,7.2427,-13.2928,4.7793,13.1612,7.2552,0.3630
1687.5000,11.8720,2.3764,-0.5876,-1.9063,-9.8799,3.2497,-7.0522,3.1046,9.8327,14.2330,9.3000,5.7521,5.7243,4.0652,-16.1825,3.8567,10.7369,3.1294,-1.9249
1691.4062,3.3198,-0.9715,-2.2693,-7.4171,-13.7961,1.4915,-6.8108,-0.2150,4.3315,5.3470,5.2132,2.0067,2.1623,-0.0081,-19.2478,2.7814,7.3458,-1.7996,-4.5406
1695.3125,-3.7847,-4.2737,-4.6854,-11.5119,-16.4630,0.1216,-6.4495,-2.5024,-1.3495,-2.2482,0.6188,-1.1747,-1.3793,-3.8623,-22.4738,0.9622,3.8044,-6.1110,-7.4235
1699.2188,-8.1111,-7.4411,-7.4181,-13.0767,-17.2204,-1.2526,-6.2653,-2.9963,-6.0417,-6.9220,-3.8111,-3.5412,-4.1542,-6.7700,-25.5282,-1.7172,0.8692,-8.8008,-10.0159
1703.1250,-9.4486,-10.2670,-9.8656,-12.2777,-16.0112,-2.8494,-6.7782,-2.0039,-9.0076,-8.2406,-7.4430,-5.2929,-5.7861,-8.4661,-27.5126,-4.6088,-1.1531,-9.8189,-11.5913
1707.0312,-8.4611,-12.3464,-11.5196,-10.2698,-13.4755,-4.4180,-8.3692,-0.5600,-10.1712,-6.7473,-9.8256,-6.7475,-6.3659,-8.9560,-27.2939,-6.5872,-2.3802,-9.9131,-11.7477
1710.9375,-6.1967,-13.2414,-12.1361,-8.3065,-10.5724,-5.3758,-10.8763,0.3933,-9.9820,-3.4591,-10.7432,-7.9264,-6.1958,-8.2401,-24.2875,-6.7262,-2.9746,-9.9389,-10.6427
1714.8438,-3.6066,-12.7677,-11.7309,-6.9146,-7.9663,-5.2317,-13.4886,0.6716,-9.0355,0.5812,-10.1900,-8.4050,-5.4139,-6.1691,-19.0963,-4.8782,-2.8052,-10.1777,-8.7865
1718.7500,-1.2386,-11.1651,-10.4685,-5.7242,-5.6672,-3.9252,-15.1082,0.8513,-7.7320,4.5326,-8.3275,-7.5910,-3.8660,-2.5826,-13.4285,-1.7596,-1.5241,-10.1822,-6.6137
1722.6562,0.8032,-9.0133,-8.5786,-4.0316,-3.2586,-1.8265,-15.0084,1.6424,-6.2054,7.7905,-5.4938,-5.2623,-1.3927,2.3017,-9.2484,1.4787,0.9425,-9.2551,-4.2544
1726.5625,2.6280,-6.9644,-6.3662,-1.6092,-0.5602,0.5354,-13.3529,3.1661,-4.5413,9.9361,-2.2756,-1.9648,1.6820,7.5108,-7.7259,3.8522,3.9195,-7.1761,-1.7242
1730.4688,4.2012,-5.4899,-4.2627,0.9046,1.8543,2.7306,-11.1828,4.7443,-3.0495,10.7010,0.4618,1.0731,4.3321,11.3352,-8.7183,4.9156,6.0362,-4.5944,0.6681
1734.3750,5.1404,-4.7859,-2.7943,2.3670,2.8150,4.4724,-9.8215,5.3769,-2.2929,10.0032,1.7420,2.5383,5.2179,11.9640,-11.1009,4.7536,5.9458,-2.7479,2.1553
1738.2812,4.8985,-4.8173,-2.4041,1.9709,1.3916,5.5104,-10.0660,4.5141,-2.7592,8.0544,0.9052,1.8022,3.5455,8.5377,-13.5984,3.7448,3.2850,-2.6791,1.8785
1742.1875,3.2896,-5.3846,-3.2069,-0.0987,-2.2056,5.6119,-11.7047,2.4825,-4.3883,5.4582,-1.8834,-0.6368,-0.1956,1.9929,-15.4388,2.3546,-0.8503,-4.5099,-0.4095
1746.0938,0.9559,-6.1461,-4.8617,-2.7318,-6.4393,4.7523,-13.6970,0.2180,-6.3668,3.1659,-5.4245,-3.3639,-4.2480,-4.9903,-16.4020,1.0690,-4.3745,-7.3136,-3.8831
1750.0000,-0.7188,-6.6566,-6.7081,-4.6614,-9.2646,3.3462,-14.8949,-1.4630,-7.4779,2.1751,-7.9012,-4.8336,-6.5134,-9.1662,-16.4355,0.3554,-5.4307,-9.7014,-6.9219
1753.9062,-0.4029,-6.5246,-8.1316,-5.3619,-9.4604,2.2013,-14.8111,-2.4412,-6.8860,3.0221,-7.8703,-4.2833,-5.8665,-8.4932,-15.3888,0.4986,-3.5812,-10.7201,-8.0768
1757.8125,2.1275,-5.6728,-8.9327,-5.3864,-7.5048,2.0583,-13.9159,-3.2476,-4.8424,5.3309,-5.2941,-2.2213,-2.9607,-3.4326,-13.2356,1.3365,-0.1452,-10.4312,-7.0838
1761.7188,5.4824,-4.5179,-9.4342,-5.8786,-5.2974,2.9904,-13.2779,-4.4624,-2.7411,7.7770,-1.8667,-0.1753,0.0980,3.1398,-10.5782,2.1392,2.5854,-9.7681,-5.1438
1765.6250,7.2649,-3.8502,-10.2212,-7.6304,-4.8683,4.1747,-13.8208,-6.1044,-2.3576,8.6437,-0.2258,0.1721,1.0668,7.4952,-8.8168,1.8763,2.7562,-9.7927,-4.1747
1769.5312,5.5553,-4.3898,-11.6788,-10.4133,-6.9891,4.3533,-15.7149,-7.5575,-4.7018,6.7566,-2.3830,-2.0373,-0.9909,7.1888,-9.5568,-0.1652,0.0563,-10.9052,-5.5050
1773.4375,0.2857,-6.2863,-13.6588,-13.1060,-10.6954,2.7491,-18.2995,-8.1074,-9.2725,2.2348,-8.3507,-6.3271,-5.1288,2.4314,-13.5011,-3.8004,-4.1925,-12.5852,-8.9374
1777.3438,-6.5596,-8.9540,-15.5353,-14.5259,-14.0508,-0.2486,-20.5477,-7.6181,-14.2941,-3.4894,-15.9619,-11.1564,-9.2137,-4.1855,-19.6666,-7.8807,-7.9783,-13.8443,-12.8781
1781.2500,-12.1944,-11.4342,-16.6293,-14.3249,-15.5523,-3.2348,-21.7222,-6.7409,-17.8426,-8.4884,-22.1358,-14.8149,-11.3981,-9.4031,-25.6771,-10.9129,-9.8997,-14.0386,-15.4489
1785.1562,-14.9111,-13.0632,-16.6978,-13.2520,-15.1124,-4.7671,-21.7692,-6.4404,-19.1005,-11.5039,-24.8153,-16.4011,-11.3223,-11.2844,-29.1173,-12.0070,-9.9509,-13.4154,-15.7658
1789.0625,-15.2013,-13.9359,-16.1124,-12.5667,-13.9107,-4.4633,-21.2185,-7.2120,-18.8309,-12.6591,-24.2388,-16.2747,-10.1998,-10.1607,-29.0537,-11.4866,-9.3179,-12.9609,-14.4428
1792.9688,-15.2237,-14.7586,-15.5741,-13.0380,-13.3019,-3.3347,-20.7062,-8.6430,-18.6964,-13.1861,-22.6070,-15.6993,-9.7631,-7.9870,-26.5901,-10.6699,-9.3998,-13.6341,-12.9736
1796.8750,-16.9619,-16.1565,-15.5640,-14.2896,-13.6784,-3.0152,-20.4805,-9.6936,-19.8958,-14.3390,-22.3411,-15.9065,-10.8798,-6.6832,-23.9905,-10.9201,-10.7729,-15.5406,-12.5023
1800.7812,-20.4706,-17.9720,-15.9469,-15.0019,-14.1815,-4.4274,-20.2329,-9.4735,-22.1340,-16.2871,-24.1942,-17.2062,-12.8782,-6.7151,-22.9908,-12.6263,-12.7979,-17.6781,-12.9460
1804.6875,-23.6208,-19.1647,-16.0462,-13.8446,-13.4540,-6.9334,-19.3506,-7.8818,-23.7373,-17.8530,-26.6416,-18.7548,-14.0778,-6.9186,-23.5737,-14.8723,-14.0994,-18.4912,-13.1418
1808.5938,-23.6461,-18.4917,-15.1557,-10.4731,-10.8039,-8.7004,-17.4020,-5.6034,-22.8905,-17.3611,-27.0583,-19.1633,-13.1142,-5.6124,-24.1504,-16.0692,-13.5524,-16.9006,-11.8733
1812.5000,-19.3923,-15.5138,-13.1070,-5.8696,-6.8535,-8.0793,-14.5207,-3.5119,-19.1161,-14.0279,-23.8427,-17.5424,-10.0515,-2.0894,-23.0015,-15.1185,-11.0988,-13.1088,-8.9454
1816.4062,-12.5522,-11.1526,-10.4545,-1.7847,-3.1803,-4.9614,-11.4336,-2.0218,-13.8801,-8.8645,-17.8810,-14.2495,-6.4372,2.6646,-19.8377,-12.2655,-7.8568,-8.6097,-5.4419
1820.3125,-6.8548,-7.3000,-8.1219,0.3268,-1.2502,-1.0410,-9.1102,-0.9465,-9.8085,-4.3506,-12.1868,-10.7786,-4.2448,6.5649,-16.2285,-9.0153,-5.4618,-5.3613,-2.9530
1824.2188,-5.6763,-5.6773,-6.7732,0.1405,-1.4675,1.2849,-8.2497,0.0567,-8.9995,-2.9982,-9.8974,-8.8224,-4.4785,7.8752,-14.5242,-7.1614,-5.0677,-4.6452,-2.3766
1828.1250,-9.7274,-6.7337,-6.3922,-1.4804,-3.0318,0.5978,-8.9162,0.9144,-11.5990,-5.7253,-12.0590,-9.1345,-6.4674,6.4224,-16.0721,-7.6150,-6.6422,-6.3529,-3.2359
1832.0312,-16.4573,-9.3775,-6.4028,-3.1912,-4.6461,-2.5223,-10.5395,1.0135,-15.6471,-11.1413,-16.8276,-11.0000,-8.3677,3.6701,-20.0871,-9.8483,-8.9984,-9.1442,-4.0621
1835.9375,-21.6019,-11.7427,-6.2326,-4.1060,-5.4905,-5.8975,-12.2751,-0.3051,-18.3205,-16.2529,-20.6952,-12.7116,-8.5094,1.5957,-24.0467,-12.3062,-10.5403,-11.3381,-3.5626
1839.8438,-21.8166,-12.4359,-5.8645,-4.3206,-5.7365,-7.2693,-13.4940,-3.0530,-17.7220,-18.1669,-20.8694,-12.7440,-6.6134,1.1893,-25.3387,-13.4465,-10.2622,-11.9252,-1.6846
1843.7500,-16.6385,-11.3752,-5.9129,-4.7030,-6.2817,-5.8198,-14.0986,-6.3430,-14.0119,-15.7276,-17.1112,-10.8106,-4.0081,1.6702,-22.9720,-12.6662,-8.3753,-11.0512,0.2470
1847.6562,-8.5758,-9.6647,-7.1305,-6.1577,-7.9817,-2.6238,-14.4699,-8.8802,-9.1709,-10.1021,-11.7668,-8.0613,-2.7072,1.0027,-18.1532,-10.5179,-6.1667,-9.7206,0.4387
1851.5625,-1.4400,-8.6749,-9.7139,-8.9050,-10.9781,0.2072,-15.0964,-9.8485,-5.6395,-4.0234,-8.0599,-6.2936,-4.0176,-2.6294,-13.3968,-8.1740,-5.1723,-9.0098,-2.0737
1855.4688,1.8678,-9.0583,-12.9611,-12.2636,-14.5724,0.9822,-16.1466,-9.4751,-4.8104,-0.2181,-7.9335,-6.7452,-7.6585,-9.4090,-10.8720,-6.6107,-6.1880,-9.3684,-6.6822
1859.3750,0.7437,-10.4052,-15.5901,-15.0455,-17.6539,-0.5673,-17.2900,-8.7821,-6.3497,0.0317,-10.9434,-9.3146,-11.9760,-17.5140,-11.1498,-6.1004,-8.7582,-10.4539,-11.5456
1863.2812,-3.1929,-11.6956,-16.5226,-16.2623,-19.3214,-3.3459,-17.9035,-8.7062,-8.6649,-2.5750,-14.8364,-12.7124,-15.0480,-24.0599,-13.1033,-6.2798,-11.4776,-11.5142,-14.7496
1867.1875,-7.2824,-12.0988,-15.5740,-15.6731,-19.2913,-5.7897,-17.5232,-9.3122,-10.0431,-5.9018,-17.2020,-15.3594,-15.8747,-26.7456,-14.8492,-6.6033,-12.9083,-11.9465,-15.4575
1871.0938,-9.2362,-11.4746,-13.5408,-13.8508,-17.9138,-6.8365,-16.2168,-9.7682,-9.6239,-7.5854,-16.9294,-16.3422,-14.8439,-25.1289,-14.9517,-6.7566,-12.4951,-11.6008,-14.2734
1875.0000,-8.0377,-10.2561,-11.6226,-11.7801,-15.8998,-6.3240,-14.5951,-9.1229,-7.6348,-6.2242,-14.5287,-15.7692,-13.2280,-20.7283,-13.0941,-6.7308,-10.8598,-10.6650,-12.6362
1878.9062,-4.1084,-8.9333,-10.6001,-10.2852,-13.9759,-4.7340,-13.4364,-7.2388,-4.9231,-1.9695,-11.3391,-14.3853,-12.1570,-15.9367,-9.9361,-6.6009,-9.2815,-9.3263,-11.7439
1882.8125,1.0806,-7.6388,-10.3647,-9.6414,-12.6234,-2.6942,-13.1822,-5.0750,-2.2755,3.6920,-8.4296,-12.8601,-11.8382,-12.5129,-6.4637,-6.2899,-8.7457,-7.5585,-11.7813
1886.7188,5.6749,-6.1746,-10.1094,-9.5627,-11.9497,-0.6895,-13.6687,-4.0334,-0.0322,8.7820,-6.0460,-11.3432,-11.5418,-10.6566,-3.3727,-5.5691,-9.2497,-5.2176,-11.9417
1890.6250,8.1873,-4.3775,-8.9997,-9.5012,-11.6930,0.9176,-14.2889,-4.8575,1.8531,11.8510,-3.8544,-9.5718,-10.2832,-9.2355,-0.8411,-4.2903,-9.8648,-2.3243,-11.1358
1894.5312,8.1495,-2.4174,-6.8010,-9.0196,-11.3717,1.8031,-14.4592,-6.9693,3.5256,12.6646,-1.5571,-7.3206,-7.6437,-6.9234,1.3089,-2.6172,-9.4961,0.7801,-8.8275
1898.4375,6.3885,-0.7119,-4.0127,-8.0004,-10.5670,1.7890,-14.0333,-8.7980,5.0334,12.2141,0.7360,-4.7300,-4.1272,-3.3871,3.2867,-1.0164,-7.7640,3.6015,-5.4172
1902.3438,4.6617,0.4828,-1.4550,-6.5970,-9.2219,1.0977,-13.3449,-8.8732,6.3542,12.0421,2.6397,-2.2183,-0.8341,0.3451,5.0712,0.0235,-5.3383,5.8776,-1.9642
1906.2500,4.6774,1.4177,0.3386,-5.0149,-7.7471,0.4398,-12.8509,-6.8404,7.5221,13.2518,3.8821,-0.1006,1.2655,2.6010,6.3220,0.3346,-3.4683,7.8403,0.5005
1910.1562,6.9988,2.7733,1.4622,-3.3086,-6.7812,0.6924,-12.6677,-3.6286,8.6598,15.7813,4.5184,1.6889,1.9248,2.3454,6.4885,0.1998,-3.0578,10.0743,1.5896
1914.0625,10.5827,5.1552,2.4896,-1.3472,-6.6844,2.2958,-12.3927,-0.6779,9.8574,18.4126,4.7901,3.4805,1.7007,0.0831,5.1033,0.1608,-3.9775,13.0149,1.7380
1917.9688,13.3994,8.5343,3.9913,1.0308,-7.1095,4.8294,-11.3899,1.1274,11.0276,19.5559,4.8399,5.4516,1.5304,-2.2986,2.1803,0.6407,-5.1257,16.4552,1.8935
1921.8750,13.8304,12.0808,6.0865,3.7917,-7.0331,7.1669,-9.3577,1.9785,11.9039,18.3376,4.6173,7.3010,2.1456,-2.6790,-1.4918,1.6592,-5.1868,19.4764,2.9565
1925.7812,11.8781,14.5497,8.3252,6.5858,-5.3497,8.1730,-6.7460,2.7578,12.2064,15.2704,4.0710,8.3513,3.7135,-0.0614,-4.4455,2.8355,-3.5231,20.9187,5.2972
1929.6875,9.2344,14.9606,9.9294,8.8427,-1.6866,7.4397,-4.6707,4.1376,11.8186,12.0128,3.3720,8.0393,5.8702,4.8084,-5.1610,3.6519,-0.5594,20.0920,8.5804
1933.5938,8.0435,13.1088,10.1956,10.0508,3.1535,5.4929,-4.3138,5.9500,10.8029,10.3168,2.8458,6.3910,8.0275,9.9817,-3.0013,3.7644,2.5757,17.2164,11.9405
1937.5000,9.2127,9.5942,8.8171,10.0551,7.5347,3.3108,-6.1762,7.3415,9.2388,10.8397,2.5891,4.0617,9.6926,13.5992,1.1244,3.1417,4.8318,13.2708,14.3901
1941.4062,11.5621,5.4198,6.0060,9.1776,9.9728,1.5615,-9.6744,7.5512,7.0640,12.6314,2.1365,1.8757,10.6130,15.0010,4.9449,1.9688,5.8389,9.3606,15.2635
1945.3125,12.5524,1.4887,2.4284,8.0590,10.1056,0.1944,-13.3645,6.6247,4.1229,13.6833,0.6104,0.2275,10.7345,14.8756,5.9586,0.4418,5.9214,6.0785,14.4917
1949.2188,10.1511,-1.6809,-0.9892,7.2980,8.9239,-1.2892,-15.6784,5.4466,0.4377,12.2129,-2.6006,-1.1615,10.0851,14.4067,2.9270,-1.3579,5.6007,3.3120,12.5763
1953.1250,4.4818,-3.9351,-3.3482,7.0966,8.0328,-3.1510,-15.7374,5.0514,-3.5209,7.8529,-7.1178,-2.9269,8.6966,14.1291,-3.2384,-3.4168,5.0470,0.5969,10.2665
1957.0312,-2.0015,-5.3084,-4.1183,7.1378,8.4289,-4.9477,-13.7737,5.7772,-6.8498,1.9725,-11.4628,-5.4495,6.5915,13.4093,-9.8658,-5.6401,3.9291,-2.3133,8.1063
1960.9375,-6.0078,-5.8897,-3.4125,6.7820,9.6852,-5.7310,-10.9387,6.9574,-8.5988,-3.0622,-13.8139,-8.4562,3.8026,10.9687,-14.0285,-7.7656,1.7509,-5.1333,6.1282
1964.8438,-5.5225,-5.7979,-2.0043,5.4806,10.1876,-4.7845,-8.6381,7.4075,-8.2937,-5.1923,-13.1729,-11.1570,0.4045,6.0464,-14.2087,-9.4460,-1.6382,-7.2209,3.9156
1968.7500,-1.0359,-5.1884,-0.9693,3.1621,8.3155,-2.2831,-7.7773,6.3349,-6.2125,-3.7120,-10.0701,-12.7871,-3.4266,-0.7105,-11.0185,-10.4508,-5.7784,-8.0566,1.0374
1972.6562,4.9481,-4.2011,-1.0656,0.3596,3.7488,0.7076,-8.3199,3.9717,-3.1895,0.5352,-6.2112,-13.0870,-7.3148,-7.3448,-6.5322,-10.8211,-9.7743,-7.6031,-2.4157
1976.5625,9.6836,-2.8714,-2.2139,-2.0052,-2.0551,2.9381,-9.3673,1.4624,-0.0826,5.8135,-3.2718,-12.3307,-10.6117,-11.6450,-2.7709,-10.8267,-12.7380,-6.2458,-5.5950
1980.4688,11.9039,-1.1202,-3.4751,-3.0671,-6.6097,3.8483,-9.6940,0.1066,2.6948,10.4932,-1.7363,-10.9239,-12.4721,-12.4119,-0.4595,-10.7280,-14.1583,-4.3973,-7.2078
1984.3750,12.3053,1.1061,-3.6336,-2.4528,-7.9059,3.9159,-8.4537,0.5166,5.2306,13.7584,-0.6808,-8.9782,-12.1581,-10.0521,1.0923,-10.5157,-13.9731,-2.1490,-6.2653
1988.2812,12.6163,3.6361,-2.0600,-0.4789,-5.6676,4.2107,-5.6943,2.2643,7.7566,15.6945,1.3257,-6.2806,-9.4821,-6.1452,3.0267,-9.8479,-12.4102,0.6836,-2.8058
1992.1875,14.1207,6.0045,0.7412,1.9799,-1.5166,5.5201,-2.4069,4.1973,10.2159,16.8690,4.9155,-2.7049,-5.1291,-2.3966,5.7528,-8.2792,-9.8305,4.1389,1.9205
1996.0938,16.7919,7.6354,3.3351,3.8800,2.0464,7.7399,-0.0600,5.1429,12.1492,17.8002,9.2518,1.3169,-0.5723,0.2182,8.5149,-5.6548,-6.7295,7.6870,6.0024
2000.0000,19.5719,8.1793,4.2323,4.4651,3.1475,9.9821,0.1658,4.5238,13.0067,18.6638,12.5331,4.7467,2.4963,1.5696,10.0259,-2.3908,-3.8135,10.2448,7.8657
2003.9062,21.3762,7.7383,2.8570,3.5872,1.5528,11.2585,-1.9649,2.5632,12.6142,19.3430,13.2755,6.4592,2.9793,1.8658,9.6001,0.5998,-1.9248,10.7296,7.1043
2007.8125,21.9089,6.7678,-0.0747,1.7625,-1.3968,11.1575,-5.5762,0.0777,11.3690,19.6725,11.3677,5.9763,0.9714,1.1303,7.8276,2.3492,-1.7013,8.7987,4.6223
2011.7188,21.6682,5.7012,-3.0418,-0.0541,-3.7736,9.9882,-9.1411,-1.9322,9.9640,19.6460,8.0932,3.8365,-2.2452,-0.8026,6.2236,2.3921,-3.1308,5.2106,2.0124
2015.6250,21.2833,4.5925,-4.7218,-0.8808,-4.2528,8.3527,-11.3271,-2.6716,8.8482,19.4390,5.1481,1.2756,-4.8468,-3.7947,6.1243,1.0737,-5.3551,1.4818,0.6002
2019.5312,20.8653,3.0892,-4.7910,-0.1407,-2.7519,6.5820,-11.7201,-1.8193,7.8750,19.2567,3.4584,-0.5676,-5.3951,-6.9592,7.6986,-0.6215,-6.9763,-0.9737,0.7789
2023.4375,19.9475,0.7867,-3.9744,2.0679,-0.2356,4.5415,-10.9657,0.3519,6.4548,19.1241,2.7079,-1.3243,-3.5049,-8.8220,9.8376,-1.6374,-6.7657,-1.6394,2.0208
2027.3438,17.9962,-2.3116,-3.3745,4.9911,2.0344,1.9444,-10.2274,3.0318,4.1107,18.7632,1.8592,-1.4482,0.1139,-8.1278,10.9785,-1.4578,-4.3450,-1.0746,3.4614
2031.2500,14.9590,-5.6204,-3.6364,7.5354,3.2340,-1.1586,-10.3257,5.1497,0.9848,17.6535,0.1489,-1.6509,4.2034,-4.7099,10.2078,-0.3619,-0.3812,-0.3763,4.5724
2035.1562,11.3322,-8.2622,-4.5842,8.7450,3.2657,-4.1886,-11.1597,5.8302,-2.1397,15.2818,-2.2908,-2.2133,7.6934,0.2991,7.8157,0.8360,3.8415,-0.3441,5.4323
2039.0625,7.7192,-9.6259,-5.5465,8.2116,2.5534,-6.3453,-11.8288,4.8313,-4.3523,11.4814,-4.6402,-2.7460,10.1558,5.1631,4.9561,1.3749,7.1719,-0.9669,6.4533
2042.9688,4.3472,-9.7619,-6.0260,6.2043,1.6122,-7.1564,-11.3759,2.6843,-5.2748,6.6816,-6.1560,-2.5785,11.7527,8.6537,2.7640,1.0487,9.1449,-1.5795,7.8423
2046.8750,1.0356,-9.3037,-6.1263,3.4580,0.7242,-6.7948,-9.6077,0.3871,-5.3422,1.8825,-6.7739,-1.4235,12.8211,10.7200,1.6468,0.2847,9.9950,-1.5159,9.2539
2050.7812,-2.3403,-8.9766,-6.3940,0.7550,-0.1259,-5.8955,-7.3665,-1.2026,-5.4679,-1.7073,-7.0411,0.2620,13.4648,12.2037,1.2420,-0.2289,10.2099,-0.7202,9.9199
2054.6875,-5.3578,-9.0827,-7.2495,-1.4373,-1.1108,-5.0368,-6.0170,-1.8778,-6.3431,-3.2304,-7.4963,1.5399,13.4658,13.8694,0.9500,-0.0658,10.0413,0.1656,9.1649
2058.5938,-7.0766,-9.3595,-8.5207,-3.0527,-2.3720,-4.3393,-6.4877,-2.1230,-7.9038,-2.6307,-8.1058,1.6743,12.5500,15.5987,0.5169,0.6547,9.3750,0.2963,6.9337
2062.5000,-6.6890,-9.2973,-9.4872,-4.2089,-3.8915,-3.5180,-8.5583,-2.6427,-9.3665,-0.6998,-8.2838,0.6852,10.7652,16.4639,0.1819,1.4101,8.0295,-0.6933,3.9566
2066.4062,-4.2974,-8.6262,-9.3963,-4.8857,-5.4477,-2.3196,-10.9251,-3.7232,-9.7873,1.3506,-7.4750,-0.6720,8.6532,15.6337,0.3326,1.6930,6.1714,-2.3438,1.4373
2070.3125,-1.1195,-7.5621,-8.0162,-4.7789,-6.6406,-0.9267,-12.0227,-4.9262,-8.7062,2.5505,-5.7539,-1.4749,7.0573,13.3133,1.0391,1.3560,4.4393,-3.6298,0.4645
2074.2188,1.1772,-6.6152,-5.7777,-3.4850,-6.9912,0.0648,-11.0340,-5.3655,-6.4021,2.6591,-3.8702,-1.2920,6.6719,10.8401,1.9097,0.6244,3.6155,-3.6329,1.4956
2078.1250,1.6030,-6.1392,-3.4191,-0.9069,-6.1274,0.1205,-8.3870,-4.3715,-3.6141,2.1803,-2.6630,-0.4211,7.6299,9.7461,2.3959,-0.1829,4.0818,-2.1478,4.1792
2082.0312,0.6042,-6.0048,-1.4651,2.4362,-4.0081,-0.6830,-5.4152,-2.0308,-1.0036,1.9331,-2.3377,0.4439,9.3993,10.5167,2.2744,-0.9304,5.5061,0.1919,7.5626
2085.9375,-0.1624,-5.6708,0.0171,5.4879,-1.0574,-1.5133,-3.4530,0.8219,1.2036,2.5068,-2.2476,0.8069,11.0656,12.1217,1.8863,-1.6717,7.0466,2.3267,10.5284
2089.8438,1.0645,-4.5942,1.2202,7.1618,1.9320,-1.2239,-3.0204,3.1599,3.1488,3.9746,-1.4121,0.7292,11.8346,12.8177,1.9205,-2.3799,7.9527,3.4101,12.2348
2093.7500,4.9265,-2.6569,2.1934,6.9833,4.1442,0.8822,-3.6412,4.4410,4.9717,6.0010,0.6228,0.6783,11.4576,11.6627,2.9046,-2.6971,8.1121,3.2436,12.3833
2097.6562,10.4564,-0.2936,2.6453,5.4305,5.1643,4.4973,-4.3490,4.8917,6.5020,8.1638,3.2803,1.0214,10.3285,9.4973,4.7880,-2.0280,8.1059,2.2529,11.2409
2101.5625,15.6510,1.7484,2.1598,3.6963,5.2079,8.3601,-4.4495,5.2033,7.2926,10.1804,5.2338,1.6019,9.2003,8.4783,6.9209,-0.0180,8.7029,1.0902,9.4433
2105.4688,18.6888,2.8240,0.6374,2.9828,4.9686,10.9087,-3.9682,5.9115,6.9673,11.8859,5.2890,1.7608,8.6933,10.3902,8.4320,2.9269,10.1604,0.1758,7.6802
2109.3750,18.9744,2.7059,-1.4484,3.7795,5.1579,11.1451,-3.5059,6.9702,5.5939,13.0924,3.2190,0.8051,8.8992,15.0171,8.7403,5.5679,11.8790,-0.5030,6.4036
2113.2812,17.3795,1.6584,-3.2419,5.6142,6.0393,9.2056,-3.6793,7.8508,3.7770,13.5887,-0.0389,-1.4206,9.3306,19.9420,7.8819,6.4223,12.7130,-1.2363,5.7022
2117.1875,15.6262,0.3109,-4.0231,7.4517,7.2899,6.3252,-4.6055,8.0634,2.3915,13.3770,-2.9296,-4.2777,9.2636,22.0916,6.4851,4.7145,11.7583,-2.2318,5.4004
2121.0938,15.2829,-0.5570,-3.6448,8.4557,8.2913,4.2297,-5.8018,7.6472,2.1385,12.9343,-4.1526,-6.5887,8.2614,19.9567,5.4401,1.0231,9.0603,-3.3382,5.3082
2125.0000,16.9733,-0.2626,-2.5515,8.5604,8.6307,4.2728,-6.5296,7.2064,3.2068,13.1387,-3.2936,-7.2538,6.5311,14.7900,5.4517,-2.9207,5.7086,-4.0652,5.4285
2128.9062,20.1520,1.5019,-1.3992,8.4268,8.4249,6.7376,-6.2949,7.4387,5.2057,14.7161,-0.9036,-5.8665,4.8460,9.7825,6.6774,-5.2522,3.2013,-3.9101,5.9433
2132.8125,23.4324,4.4128,-0.6188,8.8146,8.2072,10.6365,-5.1486,8.5182,7.3502,17.5157,1.8786,-2.9812,4.0473,7.7579,8.6097,-5.1618,2.4863,-2.7767,6.9629
2136.7188,25.2256,7.4556,-0.2759,9.8505,8.4606,14.1317,-3.6227,9.8243,8.7623,20.2202,3.8545,0.1074,4.4411,9.1113,10.2748,-3.4138,3.3369,-1.1877,8.2334
2140.6250,24.4220,9.2565,-0.2727,10.7779,9.1621,15.4275,-2.4023,10.2569,8.7750,20.9156,4.2012,1.9700,5.5252,11.5928,10.7071,-1.7874,4.5095,-0.0916,9.0924
2144.5312,20.9043,8.7913,-0.6169,10.4291,9.7154,13.7327,-1.9727,8.9437,7.1848,18.3310,2.7519,1.7545,6.2827,12.1412,9.5123,-1.7963,4.5977,-0.3143,8.8026
2148.4375,15.7191,6.1170,-1.4384,8.1094,9.3441,9.7887,-2.4342,5.8521,4.4082,12.9493,0.1220,-0.3320,5.8854,9.3661,7.2086,-3.5835,3.0017,-1.9633,7.0931
2152.3438,10.7687,2.5920,-2.7260,4.2294,7.6534,5.6005,-3.5262,1.8813,1.4410,7.1081,-2.3948,-3.0365,4.3164,4.7261,5.0771,-5.7878,0.3423,-4.1933,4.4957
2156.2500,8.0334,0.2629,-4.0845,0.1601,4.9152,3.4151,-4.7885,-1.6334,-0.4764,3.8172,-3.2801,-4.6383,2.4279,1.4270,4.4981,-6.4959,-1.9774,-5.5761,2.1399
2160.1562,8.6023,0.6499,-4.8610,-2.6602,1.8441,4.4575,-5.7682,-3.6828,-0.4464,4.9306,-1.5491,-3.8761,1.3289,1.8400,6.1080,-4.6121,-2.7643,-4.9533,1.0371
2164.0625,12.0183,3.6769,-4.6565,-3.7532,-0.9623,8.1683,-6.2100,-4.1312,1.5179,9.8698,2.5406,-0.7551,1.5064,5.4425,9.3183,-0.6783,-1.8825,-2.2840,1.3124
2167.9688,16.3953,7.5302,-3.8208,-3.9918,-3.4519,12.4579,-6.1759,-3.7172,4.3321,15.8214,7.3479,3.2723,2.3377,8.9512,12.5831,3.4270,-0.3515,1.0956,1.9751
2171.8750,19.3587,9.6721,-3.4214,-4.9912,-6.0325,14.8862,-6.0312,-3.5261,6.3129,19.3719,10.5548,5.9749,2.4213,8.6618,14.3228,5.6835,0.3876,3.0844,1.4947
2175.7812,19.3210,8.4238,-4.5498,-7.8611,-9.0018,14.0615,-6.2512,-4.2652,6.1024,18.5465,10.4281,5.5694,0.5643,3.2938,13.9169,5.1749,-0.4837,2.0309,-1.1335
2179.6875,16.3165,4.0653,-7.4130,-12.1958,-11.9515,10.3817,-7.1073,-5.7782,3.4907,13.9209,6.8550,1.7903,-3.2621,-4.8141,12.0672,2.5444,-2.5631,-2.1844,-5.5683
2183.5938,11.8550,-1.3351,-10.9526,-16.0810,-13.6997,5.6568,-8.4161,-7.0962,-0.4427,8.0957,1.4069,-3.9124,-7.7353,-11.1288,10.2359,-0.5870,-4.5268,-7.9467,-10.1868
2187.5000,7.8913,-5.2840,-13.4228,-17.2281,-12.9460,1.9042,-9.5702,-7.0203,-4.0348,3.9362,-3.6852,-9.2495,-10.9809,-11.9982,9.5371,-2.7620,-5.1290,-12.8160,-13.0761
2191.4062,5.6125,-6.4945,-13.6263,-14.5380,-9.2764,0.1565,-9.9152,-4.9250,-6.1571,2.7944,-6.9605,-12.5169,-11.8459,-7.1721,9.8969,-3.5666,-4.1788,-15.0389,-13.3100
2195.3125,4.8533,-5.6561,-11.9145,-9.0354,-3.7921,0.0638,-9.2732,-1.3180,-6.9732,3.8732,-8.5422,-13.6145,-10.7367,0.0382,10.1321,-3.6956,-2.7579,-14.6795,-11.6091
2199.2188,4.4844,-4.8237,-10.1277,-3.4765,1.1959,0.4651,-8.2307,2.2188,-7.7646,5.0497,-9.7481,-13.9383,-9.3757,5.0417,8.9169,-4.2636,-2.4830,-13.5712,-9.8755
2203.1250,3.4047,-5.8868,-10.3928,-0.8002,3.3568,0.4011,-7.8964,3.7694,-9.9106,4.4655,-11.8224,-15.2022,-9.5965,5.0200,5.9102,-5.9380,-4.3143,-14.0458,-9.8832
2207.0312,1.3641,-9.2227,-13.5739,-2.3743,1.7175,-0.2256,-9.1858,2.1605,-13.7344,1.7366,-14.7994,-18.0339,-12.0115,0.5958,2.1521,-8.5115,-7.7737,-17.2501,-12.0259
2210.9375,-0.9672,-13.4636,-18.5041,-7.1557,-2.6663,-0.7830,-12.0749,-2.2308,-18.0653,-1.9813,-17.4106,-21.3793,-15.5085,-4.9431,-0.6279,-11.1418,-11.1623,-22.1909,-15.0042
2214.8438,-2.6442,-16.4810,-22.6088,-12.3045,-7.2334,-0.6199,-15.3752,-7.4719,-20.8749,-4.9686,-18.1136,-23.1819,-17.9503,-8.1210,-1.3038,-12.9882,-12.6502,-26.2056,-16.6851
2218.7500,-3.2122,-16.8239,-23.5357,-14.8608,-9.3565,0.3012,-17.2901,-10.9851,-20.5726,-6.1434,-16.4089,-21.8556,-17.5875,-7.5591,-0.2561,-13.7381,-11.4736,-26.5987,-15.5361
2222.6562,-2.9498,-14.5826,-20.6634,-13.4330,-7.8184,1.3825,-16.4718,-10.9221,-17.0630,-5.6222,-13.3570,-17.4736,-14.1893,-4.4838,0.8597,-13.6757,-8.3876,-22.3831,-11.6462
2226.5625,-2.4254,-11.1421,-15.4472,-8.8778,-3.4227,1.9638,-12.9061,-7.2109,-11.8267,-4.3434,-10.8366,-11.7927,-9.1211,-1.3198,0.3744,-13.3281,-5.0699,-14.9760,-6.6537
2230.4688,-1.8018,-8.1171,-10.4008,-3.6365,1.5923,1.9699,-8.0076,-1.6237,-6.9852,-3.1755,-10.0992,-7.1008,-4.3813,0.3421,-2.0207,-13.0162,-2.9412,-7.4003,-2.6849
2234.3750,-0.5493,-6.3121,-7.4793,-0.2373,4.9040,2.0566,-3.8115,3.2111,-4.0218,-2.2610,-10.7686,-4.7473,-1.3487,0.7758,-4.8447,-12.6524,-2.2819,-2.5380,-1.0783
2238.2812,2.1160,-5.4268,-7.0030,0.0665,5.3431,3.1123,-1.7718,5.2609,-3.0403,-1.0799,-11.1107,-4.4267,-0.1399,1.4532,-5.7441,-11.8934,-2.2758,-1.5823,-1.7602
2242.1875,6.3803,-4.5997,-7.7939,-2.2581,3.2948,5.5116,-1.9596,4.1171,-3.0132,0.8948,-9.4045,-4.6886,0.0485,3.3831,-3.1577,-10.4813,-1.8792,-3.6411,-3.6091
2246.0938,11.2805,-3.2588,-8.2851,-5.6166,0.1463,8.7190,-3.1937,0.9916,-2.7392,3.5364,-5.3683,-4.2068,0.0128,5.9209,2.4534,-8.4993,-0.7847,-6.6204,-5.4288
2250.0000,14.9967,-1.5958,-7.7032,-8.4003,-2.7233,11.5560,-3.9954,-2.2395,-1.7530,5.9677,-0.5326,-2.7981,-0.1679,7.0686,8.7206,-6.3673,0.3072,-8.6742,-6.7650
2253.9062,15.8968,-0.3547,-6.4826,-9.8688,-4.7001,12.9196,-3.6880,-4.2547,-0.5423,7.1250,2.7466,-1.4372,-1.0699,5.0493,12.7964,-4.6088,0.3186,-9.2226,-8.0090
2257.8125,13.6256,-0.1887,-5.7322,-10.3280,-6.0207,12.4121,-2.8678,-4.9609,-0.0010,6.5479,2.8978,-1.3380,-3.2117,-0.1009,13.1289,-3.5660,-1.1976,-8.9612,-9.8178
2261.7188,9.4308,-1.1346,-6.2828,-10.6501,-7.2839,10.4568,-2.9258,-5.2571,-0.6301,4.7645,0.1709,-2.8974,-6.3477,-6.2143,10.3675,-3.2451,-3.5152,-9.0402,-12.3853
2265.6250,5.4313,-2.5975,-8.0733,-11.5689,-8.8595,7.8988,-4.9705,-6.1797,-2.1330,2.9425,-3.6359,-5.3517,-9.3995,-10.2618,6.8041,-3.3665,-5.1372,-10.1197,-15.1521
2269.5312,3.2985,-3.7934,-10.2665,-13.2262,-10.6358,5.4687,-8.9220,-8.1109,-3.6828,2.0402,-6.4892,-7.3744,-11.1076,-10.3168,4.7808,-3.5566,-4.8633,-11.9589,-17.1440
2273.4375,3.2750,-4.2592,-11.8852,-15.1720,-12.2107,3.5151,-13.4215,-10.5918,-4.5776,2.0963,-7.4500,-8.0719,-10.8791,-6.7995,5.1919,-3.5514,-2.6948,-13.6998,-17.6333
2277.3438,4.2262,-4.0382,-12.4134,-16.7002,-13.2743,2.1139,-16.6256,-12.7663,-4.7099,2.2326,-7.0499,-7.5440,-9.1456,-2.1186,7.0978,-3.2968,0.1480,-14.4833,-16.5947
2281.2500,4.6769,-3.4645,-11.9439,-17.2371,-13.8299,1.3307,-17.3380,-14.0132,-4.4739,1.4179,-6.5368,-6.5860,-6.9488,0.9996,8.6385,-2.9074,2.1317,-13.8885,-14.6340
2285.1562,4.0469,-2.7939,-10.8815,-16.5630,-14.0900,1.3238,-15.7045,-14.2561,-4.2348,-0.5586,-6.6838,-5.8479,-5.1038,1.2938,8.5130,-2.5349,2.5507,-11.9572,-12.4926
2289.0625,3.1306,-2.0206,-9.5511,-14.8258,-14.1852,2.1825,-13.0117,-13.7823,-3.8675,-2.6863,-7.1425,-5.2145,-3.6273,-0.3633,6.9276,-2.2482,2.0180,-8.9615,-10.5432
2292.9688,3.4133,-1.0160,-8.0465,-12.4275,-13.9714,3.6804,-10.7556,-12.8303,-2.8175,-3.3316,-6.8273,-3.9578,-1.8898,-1.7898,5.3442,-2.0168,1.9229,-5.2429,-8.6526
2296.8750,5.7005,0.1668,-6.3705,-9.8819,-13.1177,5.2214,-9.6428,-11.3649,-0.6876,-1.5177,-4.9769,-1.5336,0.6521,-1.1382,5.2633,-1.8122,3.2730,-1.2814,-6.4720
2300.7812,9.1138,1.1226,-4.6452,-7.6739,-11.4020,6.0898,-9.2177,-9.2348,2.1287,2.0268,-2.0138,1.6793,3.7667,1.8288,6.9710,-1.7444,5.8194,2.1666,-3.8806
2304.6875,11.3196,1.2448,-3.1513,-6.1185,-8.9591,5.8446,-8.3521,-6.5197,4.3476,4.9399,0.5060,4.3784,6.3941,5.6769,9.1998,-2.0983,8.1424,4.1588,-1.2165
2308.5938,9.9895,0.1145,-2.1614,-5.2416,-6.2577,4.5692,-6.2194,-3.6891,4.4405,4.5859,0.8477,5.1583,7.3116,8.3996,9.9722,-3.1863,8.6410,3.9993,0.8810
2312.5000,4.5444,-2.1510,-1.7437,-4.7536,-3.8049,2.8006,-3.0291,-1.3599,1.6493,-0.0904,-1.7209,3.5476,6.0174,8.8466,8.0319,-5.0770,6.6834,1.7676,1.8884
2316.4062,-3.0899,-4.8588,-1.7282,-4.1769,-1.7958,1.2156,0.0293,0.1783,-3.3430,-7.5123,-6.3590,0.4484,3.1549,7.4862,3.8324,-7.3955,3.0699,-1.4979,1.7601
2320.3125,-9.3907,-7.0629,-1.8555,-3.1007,0.0191,0.3090,1.6176,1.2577,-8.6174,-14.1134,-11.0744,-2.3995,0.1439,6.0297,-0.6446,-9.4047,-0.5072,-4.2260,0.9801
2324.2188,-11.3359,-8.0561,-1.9476,-1.4279,2.1336,0.2593,1.2664,2.6446,-12.0389,-16.4350,-13.8366,-3.5586,-1.7118,6.2273,-3.1407,-10.4029,-2.5791,-5.1679,0.2754
2328.1250,-8.3122,-7.7281,-1.9442,0.5443,4.8808,0.9916,-0.1754,4.9594,-12.4480,-13.3523,-13.6499,-2.8133,-1.9975,8.6624,-2.5863,-10.2240,-2.7779,-4.1336,0.1853
2332.0312,-2.4941,-6.5806,-1.8077,2.2802,8.0992,2.3070,-1.0368,8.1355,-10.2459,-6.8741,-10.9524,-1.2149,-1.3155,12.3208,0.2293,-9.4801,-1.8964,-2.0824,0.7581
2335.9375,2.6287,-5.4089,-1.4577,3.3063,11.1063,3.9539,0.0238,11.3489,-7.0100,-0.8606,-7.1941,-0.2619,-0.7415,15.1814,3.2318,-9.2937,-1.1852,-0.4704,1.5421
2339.8438,4.5818,-4.8592,-0.8638,3.4679,13.0142,5.6329,3.0014,13.5000,-4.4407,1.5325,-3.9619,-0.8476,-1.0549,15.4415,4.4588,-10.6082,-1.4698,-0.2927,1.8599
2343.7500,3.4459,-5.1287,-0.2346,2.9794,13.2060,7.0129,6.4066,13.9050,-3.3820,-0.0883,-2.2211,-2.7318,-2.2977,12.6258,3.2955,-13.4957,-2.7132,-1.4779,1.2025
2347.6562,1.4889,-5.9652,-0.0763,2.2545,11.6964,7.8060,8.1672,12.7000,-3.5564,-3.2821,-2.0692,-4.8520,-3.9030,7.9294,0.7143,-16.9587,-4.2343,-3.0464,-0.4692
2351.5625,1.1688,-6.9264,-0.9510,1.6500,9.1662,7.8531,7.0001,10.6892,-4.1063,-4.7574,-3.0110,-6.1633,-5.1990,3.5960,-1.5817,-19.4266,-5.2916,-3.8856,-2.6705
2355.4688,3.0277,-7.7006,-3.0315,1.2993,6.6459,7.1363,3.3160,8.7918,-4.4431,-2.9509,-4.4583,-6.3525,-5.8623,1.6870,-2.4254,-19.6746,-5.5429,-3.5633,-4.6244
2359.3750,5.1333,-8.2717,-5.7919,1.1267,5.0150,5.7062,-0.9922,7.5148,-4.7194,0.7467,-6.0837,-5.9429,-6.0158,2.9327,-1.9161,-17.5708,-5.0953,-2.5974,-5.6684
2363.2812,4.5854,-8.8325,-8.1565,0.9883,4.5794,3.6216,-3.7658,6.8030,-5.5769,3.0802,-7.8359,-5.8060,-5.9919,6.3187,-1.1134,-14.1421,-4.2364,-2.0195,-5.6271
2367.1875,-0.0051,-9.5405,-9.1051,0.8042,4.9529,1.0026,-3.9827,6.2873,-7.4166,1.5346,-9.6854,-6.5103,-6.0227,9.6573,-1.0009,-10.9072,-3.1609,-2.5935,-4.9287
2371.0938,-7.0038,-10.3261,-8.3495,0.5791,5.3076,-1.8273,-2.3791,5.6471,-9.8262,-3.5470,-11.3581,-7.9823,-6.1104,10.8398,-1.5758,-8.9341,-1.9147,-4.2750,-4.3642
2375.0000,-12.5254,-10.9224,-6.5815,0.3172,4.8617,-4.2879,-0.8643,4.7804,-11.6828,-9.0205,-12.3068,-9.6494,-6.1209,9.0559,-1.7989,-8.2601,-0.5250,-6.2868,-4.5963
2378.9062,-13.1030,-11.1079,-5.0678,-0.0671,3.3341,-5.7421,-1.1488,3.7059,-11.9116,-11.2129,-11.9965,-10.8637,-5.9535,5.2606,-0.4477,-8.0430,0.8905,-7.7091,-5.7100
2382.8125,-8.3411,-10.9640,-4.8503,-0.7387,1.1033,-5.9042,-3.5569,2.3867,-10.3421,-8.7125,-10.3305,-11.2588,-5.6114,1.5900,2.8066,-7.2832,2.1760,-8.1162,-7.1154
2386.7188,-1.5014,-10.9075,-6.1084,-1.8159,-1.0261,-5.1537,-6.8436,0.7236,-7.9808,-3.5224,-7.9043,-10.8269,-5.1385,0.0642,6.9613,-5.5665,3.2877,-7.7922,-7.9074
2390.6250,2.5893,-11.4095,-8.1188,-3.2114,-2.3034,-4.4219,-9.1028,-1.2324,-6.4285,0.3674,-5.8372,-9.7639,-4.5233,1.3746,10.2559,-3.3065,4.3551,-7.4047,-7.4772
2394.5312,0.9224,-12.5692,-9.7910,-4.5604,-2.4516,-4.5933,-9.0695,-3.0526,-6.8028,-0.0489,-5.1931,-8.2774,-3.6849,4.5261,11.3391,-1.3654,5.5491,-7.4229,-5.9532
2398.4375,-5.4492,-13.8655,-10.3354,-5.3071,-1.7517,-5.7860,-6.8750,-3.9646,-8.9223,-4.5301,-6.3052,-6.5070,-2.5487,7.5661,10.1582,-0.3930,6.8620,-7.7297,-4.1289
2402.3438,-11.9891,-14.3232,-9.5727,-4.9192,-0.7458,-7.0667,-3.7624,-3.2284,-11.3406,-9.7560,-8.4464,-4.5466,-1.1118,8.9182,7.9247,-0.3884,8.0288,-7.6971,-2.8816
2406.2500,-13.7165,-13.0393,-7.7377,-3.1273,0.2121,-6.9161,-1.0661,-0.6339,-12.2222,-11.7804,-10.1170,-2.4669,0.5859,8.4213,6.2299,-0.7719,8.7105,-6.6328,-2.4771
2410.1562,-8.5348,-9.7303,-5.0645,-0.0736,1.2114,-4.2003,0.7185,3.2527,-10.4522,-8.8632,-9.8348,-0.2792,2.5551,7.3608,6.0221,-0.8497,8.8136,-4.2469,-2.2874
2414.0625,1.5323,-4.9131,-1.5938,3.7023,2.6450,1.0246,2.0825,7.3208,-6.2240,-2.5134,-6.9568,2.1081,4.8903,7.4714,7.2037,-0.2847,8.6590,-0.8165,-1.1897
2417.9688,12.0113,0.4115,2.6120,7.4348,4.7865,7.4843,3.8342,10.5087,-0.7504,3.9808,-2.0138,4.8370,7.6592,9.6148,9.0529,0.7559,8.8062,3.0168,1.5825
2421.8750,19.2108,5.3340,7.0815,10.3959,7.4360,13.4800,6.2268,12.3716,4.6086,8.2639,3.6489,7.9278,10.7079,13.0769,10.9916,1.8096,9.6298,6.6042,5.7367
2425.7812,22.5599,9.4313,10.8162,12.1462,9.9530,17.9134,8.6242,13.2388,9.1140,10.6425,8.6592,11.0957,13.5645,15.9986,12.9840,2.4542,10.9826,9.5157,9.9095
2429.6875,24.3775,12.6937,12.6796,12.6659,11.6862,20.7646,9.9660,13.8683,12.7634,13.4492,12.2835,13.7220,15.5774,16.6459,15.2422,2.4982,12.2422,11.5036,12.4209
2433.5938,27.4231,15.0918,12.0748,12.2965,12.4647,22.6865,9.6238,14.8468,15.7653,18.6159,14.5393,15.0581,16.2376,14.6166,17.5816,1.9411,12.7327,12.3208,12.3022
2437.5000,32.2840,16.2115,9.3920,11.5085,12.7234,24.1093,7.9266,16.1509,17.9045,25.5144,15.7663,14.5723,15.4571,11.1188,19.1220,0.8363,12.1955,11.6339,9.8793
2441.4062,36.7078,15.3582,5.8312,10.6103,13.1049,24.6665,5.9254,17.1513,18.4119,30.9357,16.0852,12.2335,13.5791,8.1208,18.7442,-0.7618,10.9267,9.1790,6.4921
2445.3125,37.3980,12.1387,2.6823,9.5706,13.8194,23.4930,4.6080,17.0360,16.5206,31.3554,15.2381,8.5604,11.1004,6.9825,16.0186,-2.7132,9.4686,5.0826,3.5484
2449.2188,32.8229,7.0868,0.5808,8.0809,14.2988,20.1899,4.2212,15.3603,12.2980,25.7668,12.9561,4.4145,8.3278,7.5418,11.8280,-4.6911,8.1190,0.0828,1.5985
2453.1250,24.7864,1.7633,-0.7175,5.8415,13.4978,15.6240,4.2434,12.3762,7.0510,16.8392,9.5224,0.6650,5.2545,8.2875,8.0625,-6.2222,6.6844,-4.5899,0.0962
2457.0312,17.4838,-1.9039,-1.9099,2.8867,10.6938,11.7724,3.9783,8.9494,2.8693,9.4105,5.9807,-2.1042,1.7603,7.4621,6.4839,-6.8957,4.7039,-7.7003,-2.0064
2460.9375,14.7076,-2.7013,-3.4563,-0.2957,6.1846,10.5538,3.2136,6.1228,1.4967,7.3551,3.6942,-3.7422,-2.0482,4.2860,7.5651,-6.5968,1.9642,-8.6234,-5.3102
2464.8438,17.2742,-0.9170,-5.2007,-2.9785,1.2882,12.4362,2.3506,4.5773,3.2545,11.0948,3.4861,-4.5236,-5.6796,-0.5442,10.1894,-5.5737,-1.1378,-7.7176,-9.4002
2468.7500,22.5405,1.7545,-6.5886,-4.6301,-2.4534,15.8974,1.9037,4.2832,6.7641,17.5121,4.9881,-5.0146,-8.4632,-5.3631,12.4671,-4.2773,-3.7209,-6.1866,-13.0846
2472.6562,26.2935,3.2038,-7.2384,-5.2659,-4.3201,18.2541,1.8540,4.5343,9.7106,22.2196,6.7472,-5.8360,-9.9757,-8.6005,13.0608,-3.1021,-4.9699,-5.4464,-15.2315
2476.5625,25.5836,2.1894,-7.3182,-5.4245,-4.9017,17.3810,1.5044,4.3648,10.2017,22.4667,7.1171,-7.3511,-10.3269,-9.6057,12.0240,-2.2308,-4.6856,-6.3106,-15.5335
2480.4688,20.5091,-0.9049,-7.3622,-5.7307,-5.5877,13.1524,0.0565,3.1468,7.8828,18.6546,5.3744,-9.3782,-10.0271,-8.7125,10.5549,-1.6823,-3.3951,-8.4420,-14.6014
2484.3750,13.8632,-4.3137,-7.6743,-6.3332,-7.3838,7.5985,-2.5335,1.0409,4.1328,13.6142,2.2920,-11.1058,-9.5090,-6.6566,9.9320,-1.4730,-1.9334,-10.4088,-13.3377
2488.2812,9.1342,-5.9597,-7.8781,-6.6571,-9.9560,3.6513,-5.1894,-0.9938,1.2448,10.4577,-0.2622,-11.3700,-8.6998,-3.9331,10.5171,-1.7066,-0.8392,-10.3773,-12.1266
2492.1875,8.3753,-4.6738,-7.0934,-5.7318,-11.7021,3.3236,-6.2776,-1.7120,1.1065,10.6598,-0.4826,-9.2720,-7.0497,-0.6433,11.5959,-2.4907,-0.0551,-7.1237,-10.5364
2496.0938,11.2866,-0.8464,-4.7039,-2.9488,-10.9019,6.5076,-4.7830,-0.3766,4.1432,13.5571,2.1899,-4.8449,-4.0708,3.1110,12.0913,-3.7657,0.8372,-0.8436,-7.8108
2500.0000,15.7943,3.8032,-1.1290,1.2627,-7.1413,11.1103,-1.2189,2.6352,9.0823,17.2230,6.6005,0.6596,0.0050,6.7323,11.4704,-5.2363,2.0667,6.7023,-3.7734
2503.9062,19.3995,7.1208,2.0836,5.3746,-1.9158,14.3343,2.4904,5.8489,13.5993,19.7506,10.4213,5.1641,4.0121,9.0767,10.0598,-6.5135,3.2967,12.8545,0.6131
2507.8125,20.3198,7.5402,3.0573,7.4675,2.1319,14.2277,4.1655,7.4206,15.4540,20.0015,11.3656,6.7340,6.3548,9.0071,8.5611,-7.3768,3.7659,15.2488,3.5687
2511.7188,17.9395,4.7329,0.7947,6.3209,2.8808,10.5943,2.7744,6.1897,13.5249,17.6268,8.3754,4.6132,5.9605,6.1723,7.2818,-7.9264,2.8563,12.9486,3.5656
2515.6250,12.7215,-0.3427,-4.0667,2.1870,0.1372,4.8707,-0.9350,2.3982,8.2711,12.8290,2.1403,-0.3094,3.0240,1.3980,5.8375,-8.4688,0.6332,6.9093,0.4057
2519.5312,5.9520,-5.9224,-9.5372,-3.2878,-4.2511,-0.7704,-5.0246,-2.4226,1.4509,6.3380,-5.2779,-5.9320,-1.0201,-3.6547,3.6262,-9.2041,-2.0892,-0.4926,-4.4983
2523.4375,-0.5526,-10.1978,-13.4523,-7.9775,-7.6721,-4.4904,-7.7230,-6.3629,-4.7272,-0.4576,-11.4582,-10.0466,-4.3233,-7.3528,0.6364,-9.9770,-4.2277,-6.6278,-8.8934
2527.3438,-4.9230,-12.0510,-14.7437,-10.4439,-8.5070,-5.5018,-8.5356,-8.2554,-8.6069,-5.6931,-14.7232,-11.4534,-5.6965,-8.8784,-2.1951,-10.3257,-5.0950,-9.8401,-11.0061
2531.2500,-5.9654,-11.4819,-13.9360,-10.6013,-7.1078,-4.2092,-8.3278,-8.2523,-9.7633,-7.7989,-14.7973,-10.4094,-5.1963,-8.4268,-3.4989,-9.8269,-4.7573,-10.0577,-10.5082
2535.1562,-3.8250,-9.5302,-12.5609,-9.4854,-5.3269,-1.8420,-8.4147,-7.4828,-9.0325,-6.4818,-12.7406,-8.1857,-3.8578,-6.7863,-2.5063,-8.4726,-3.8489,-8.4899,-8.4901
2539.0625,-0.0403,-7.6883,-11.9628,-8.3554,-5.0117,0.2029,-9.4418,-7.0808,-7.8854,-3.1011,-10.2470,-6.1001,-2.8282,-4.7252,0.2620,-6.7656,-3.0423,-6.6656,-6.5261
2542.9688,3.2624,-7.0601,-12.3770,-7.8090,-6.6214,1.0314,-10.9413,-7.3298,-7.5033,0.0670,-8.7001,-4.7156,-2.5770,-2.6824,3.2758,-5.4276,-2.6123,-5.4623,-5.5544
2546.8750,4.6182,-7.7242,-12.9186,-7.5312,-8.9845,0.6509,-11.8497,-7.5735,-8.1002,1.2997,-8.4958,-3.7229,-2.7392,-0.8991,5.0744,-4.9234,-2.4030,-4.7378,-5.3804
2550.7812,4.0350,-8.7196,-12.4171,-6.7898,-10.3097,-0.1225,-11.4867,-6.9328,-8.9124,0.5434,-8.9986,-2.4959,-2.6219,0.3076,5.2842,-5.1572,-2.1366,-3.7352,-5.0885
2554.6875,2.7169,-8.7210,-10.4184,-5.2190,-9.6131,-0.2510,-10.1577,-5.2263,-8.8587,-0.7437,-9.1383,-0.8187,-1.8829,0.5450,4.7427,-5.5662,-1.7188,-1.8906,-3.9515
2558.5938,1.8928,-7.0036,-7.5893,-3.2407,-7.4437,0.7507,-8.8996,-3.3150,-7.4167,-0.9528,-8.2635,0.8089,-0.7960,-0.2828,4.6400,-5.5313,-1.2479,0.5906,-2.0757
2562.5000,1.7039,-4.0433,-5.2455,-1.7817,-5.3835,2.3620,-8.6179,-2.5398,-5.0891,0.2037,-6.6798,1.5205,0.0972,-1.5840,5.4162,-4.7893,-0.7468,2.8191,-0.2845
2566.4062,1.1072,-1.2969,-4.3853,-1.5219,-4.7625,3.3050,-9.3510,-3.6518,-3.1019,1.3530,-5.4851,0.7921,0.6048,-2.1691,6.3639,-3.5565,0.0739,3.8840,0.6211
2570.3125,-1.0854,-0.2705,-4.9640,-2.2879,-5.6183,2.4094,-10.2578,-6.0763,-2.5365,0.5868,-5.7865,-1.0654,1.1936,-0.9614,6.2758,-2.3139,1.7195,3.5617,0.5846
2574.2188,-4.9090,-1.5155,-5.9316,-3.0951,-6.6919,-0.4791,-10.3065,-8.1364,-3.5286,-2.8549,-7.8395,-3.0347,2.6689,2.1220,4.5759,-1.4635,4.4913,2.5073,0.3890
2578.1250,-8.8507,-4.2671,-5.9841,-2.8308,-6.4171,-4.2352,-9.0761,-8.1357,-5.1459,-7.7598,-10.7438,-4.0568,5.4534,5.8695,1.9444,-1.1173,8.0872,1.7681,1.0397
2582.0312,-10.7962,-6.9819,-4.4659,-1.0576,-4.0915,-7.1017,-7.0279,-5.5274,-6.0548,-11.7100,-12.9547,-3.7236,9.0696,8.4678,-0.1210,-1.1272,11.6194,1.9918,2.9395
2585.9375,-9.6019,-8.3580,-1.7839,1.6906,-0.3207,-7.8262,-5.0765,-1.3026,-5.4753,-12.8320,-13.2657,-2.4687,12.3120,8.8253,-0.4427,-1.2463,14.1304,2.9554,5.5390
2589.8438,-5.9846,-8.0740,0.9311,4.3552,3.5595,-6.4565,-3.8692,2.6985,-3.6928,-11.0856,-11.5503,-1.1172,14.0543,7.5531,0.9744,-1.2429,15.2600,3.7993,7.7722
2593.7500,-1.9501,-6.7317,2.6338,6.1994,6.5665,-4.1910,-3.3793,5.0411,-1.7317,-8.0297,-8.7182,-0.1633,14.1068,6.7411,3.0940,-0.8995,15.5330,3.7941,8.9478
2597.6562,0.7870,-5.1471,3.0587,7.3888,8.7745,-2.4147,-3.1022,5.5915,-0.4691,-5.3215,-5.9484,0.6404,13.4427,8.5235,4.8574,0.0070,15.9838,3.0290,9.3842
2601.5625,2.0488,-3.6490,2.8240,8.8354,11.0979,-1.6967,-2.6136,5.4146,0.0705,-3.3062,-3.8338,2.0365,13.5614,13.4003,6.1232,1.6097,17.3493,2.4423,10.2476
2605.4688,3.0253,-1.9996,2.9097,11.4060,14.3677,-1.5557,-1.9664,5.8042,0.6351,-0.9783,-2.1370,4.5402,15.4085,19.6007,7.6563,3.7455,19.4265,3.1128,12.6632
2609.3750,4.8451,0.0317,3.9034,15.0952,18.4684,-1.1441,-1.5983,7.2189,1.9272,2.6384,-0.3377,7.8155,18.6385,24.0967,10.1322,5.8232,21.1110,5.3305,16.7498
2613.2812,7.1939,2.0295,5.5522,18.8188,22.2337,-0.2121,-1.8796,8.9398,3.7416,6.9733,1.5452,10.6879,21.7847,24.6570,13.0571,6.9717,21.1367,8.1853,21.3227
2617.1875,8.3232,2.9197,6.9297,21.0291,24.1946,0.5481,-2.7408,9.6813,4.8574,9.7698,2.6549,11.8591,23.2529,21.4781,14.6765,6.4824,19.0024,10.0665,24.5475
2621.0938,6.6084,1.7500,7.1043,20.7449,23.6145,0.1449,-3.7129,8.6510,3.9046,8.7065,1.9130,10.8503,22.4543,17.1546,13.1642,4.2922,15.4099,9.7862,25.1314
2625.0000,2.3889,-1.3086,5.8552,18.2689,21.0487,-1.6049,-4.3082,6.2336,0.6128,3.5748,-0.8590,8.4881,20.2837,14.9329,8.2531,1.1495,11.8873,7.5357,23.2365
2628.9062,-1.5950,-4.6211,3.9472,15.0736,18.0328,-3.5131,-4.3614,3.7852,-3.5536,-2.8568,-4.2599,6.5415,18.6034,16.4710,1.9641,-1.7143,9.8617,4.9503,20.4682
2632.8125,-1.8030,-5.8621,2.7528,12.9185,16.1403,-3.6274,-4.0124,2.7155,-5.9958,-6.2555,-5.7931,6.7042,19.0790,20.7248,-2.3245,-3.2337,9.8374,4.1639,18.9218
2636.7188,3.5325,-3.4893,3.4239,12.7853,16.0539,-0.6686,-3.3910,3.5456,-4.5319,-3.5705,-3.3707,9.5765,22.1365,24.7561,-1.9478,-3.0636,11.2283,6.4498,19.8938
2640.6250,12.8634,2.1160,6.1119,14.3186,17.2245,4.8125,-2.3735,5.6058,1.1322,4.7757,3.1649,14.2963,26.6913,25.8327,3.2839,-1.6831,12.8946,11.3521,23.0737
2644.5312,22.1277,8.7118,9.7307,16.0933,18.2534,10.5444,-0.7316,7.5259,9.0524,15.0422,11.6384,19.0240,30.7610,23.2453,10.9178,-0.0165,13.9248,16.8779,26.6930
2648.4375,27.3943,13.4831,12.4467,16.4784,17.6785,13.9341,1.4148,8.1049,16.0875,22.5995,18.6541,21.9218,32.5165,18.5273,17.4056,1.1295,14.0805,20.6086,28.4979
2652.3438,27.3622,14.6799,12.6475,14.5239,14.6906,13.7436,3.2941,6.9369,19.6350,24.8251,21.5239,21.9991,31.1199,14.0278,20.2349,1.4294,13.6497,20.9947,26.9348
2656.2500,23.8238,12.4866,9.8405,10.3665,9.4548,10.7773,3.7495,4.4444,18.9158,22.3467,19.7128,19.3674,26.9380,11.0509,19.1515,1.0256,12.9468,18.0431,21.8854
2660.1562,19.8322,8.5962,4.9529,5.0236,2.9974,7.0792,2.0249,1.4379,15.0477,17.8791,14.8572,14.9036,21.1630,9.0568,15.7571,0.2682,11.9586,13.0743,14.6255
2664.0625,17.1586,4.9218,-0.1482,-0.1760,-3.1974,4.3209,-1.5022,-1.3765,10.0438,13.8029,9.4626,9.6912,15.1975,6.5057,12.0203,-0.5225,10.4594,7.8552,7.1434
2667.9688,15.1531,2.4472,-3.6385,-4.1411,-7.7022,2.6837,-5.3038,-3.6003,5.5767,10.5339,5.3073,4.6408,10.1713,2.5630,8.9648,-1.1072,8.4680,3.7395,1.2523
2671.8750,11.8882,0.9960,-4.6412,-6.2997,-9.6329,1.0933,-7.5680,-5.0389,2.3588,6.9138,2.6870,0.4246,6.7355,-1.8238,6.4660,-1.2625,6.5823,1.2961,-2.0700
2675.7812,6.4993,-0.1025,-3.5382,-6.6103,-8.9689,-1.4815,-7.4036,-5.5319,0.3685,2.0610,0.8807,-2.4478,5.0521,-4.4452,4.0571,-0.7854,5.7935,0.4556,-2.8830
2679.6875,0.5948,-1.1570,-1.5515,-5.4354,-6.5639,-4.8357,-5.4829,-4.9538,-0.5379,-3.1163,-0.7550,-3.6552,4.8429,-3.5885,1.8221,0.3529,6.8102,0.8571,-2.0511
2683.5938,-2.6076,-1.8233,0.0829,-3.3863,-3.7690,-7.4962,-3.5800,-3.3842,-0.2987,-6.1932,-2.0707,-3.2461,5.4614,0.3886,0.5070,1.8358,9.3756,2.0560,-0.7507
2687.5000,-0.7998,-1.5442,0.7955,-1.1488,-1.7824,-7.8897,-3.2886,-1.2391,1.1322,-5.1195,-2.3541,-1.7778,6.0648,5.0136,0.7946,3.0371,12.1558,3.5299,0.0591
2691.4062,5.3445,-0.2238,0.8129,0.7338,-1.0499,-5.7038,-4.8644,0.8373,3.3433,-0.0932,-1.1953,-0.1624,5.9378,7.3476,2.4988,3.3433,13.4090,4.6746,0.0113
2695.3125,12.3754,1.5451,0.7415,2.0745,-1.0874,-2.2529,-7.0770,2.2982,5.3782,6.2796,0.8760,0.8062,4.8700,6.1353,4.5149,2.5689,12.0658,4.9923,-0.5750
2699.2188,16.5262,2.9344,0.9863,3.1228,-0.8668,0.5027,-8.1927,2.9982,6.2511,10.8006,2.6192,0.9585,3.3596,2.8103,5.6570,1.1334,8.4984,4.4284,-0.9082
2703.1250,16.5057,3.6050,1.4656,4.4026,0.4674,1.4819,-7.3243,3.2224,5.7133,12.0408,3.0322,0.8888,2.4487,0.5427,5.6661,-0.1878,4.4160,3.5713,-0.1498
2707.0312,14.3523,4.0277,1.8082,6.3531,3.0296,1.2709,-5.0943,3.4037,4.5967,11.2958,2.2115,1.5517,3.2101,1.9869,5.4603,-0.7848,1.8956,3.4369,2.1504
2710.9375,13.6165,5.0704,1.8227,8.9848,6.1599,1.5049,-3.0935,3.7532,4.3329,11.3173,1.3549,3.5467,6.1473,7.3703,6.3261,-0.6142,2.1564,4.8647,5.8246
2714.8438,16.3174,7.1783,1.8023,11.7976,8.9188,3.3621,-2.5823,4.1013,5.9111,13.8451,1.8383,6.5951,10.8569,14.3046,8.6857,-0.1634,4.8696,7.8947,10.1665
2718.7500,21.1445,9.8535,2.3652,14.0356,10.7076,6.4450,-3.4847,4.0750,9.0461,17.9794,4.0777,9.6041,16.1590,19.4105,11.4986,-0.0149,8.4377,11.5942,14.2479
2722.6562,24.3825,11.9060,3.9147,15.1141,11.5359,9.0017,-4.4922,3.4483,12.2263,20.7594,7.0835,11.2963,20.6139,20.5348,12.8710,-0.3831,11.0295,14.5174,17.2700
2726.5625,22.8291,12.2999,6.1399,14.9163,11.7616,9.3101,-4.1969,2.3610,13.6596,19.4956,9.0743,10.9612,23.1251,17.9769,11.4540,-1.0126,11.6629,15.5325,18.7657
2730.4688,16.3554,10.9087,7.9957,13.7557,11.5776,7.0621,-2.3355,1.2104,12.4423,13.9605,8.6841,8.8081,23.3059,13.9605,7.5334,-1.5074,10.6387,14.4605,18.6084
2734.3750,8.0582,8.5683,8.2653,12.0625,10.7245,3.5928,-0.1185,0.3036,9.1023,6.6592,5.8605,5.7154,21.4710,10.8974,2.9388,-1.7651,9.1069,12.0970,16.9277
2738.2812,1.9148,6.4072,6.3656,10.0643,8.7127,0.7817,0.6515,-0.4296,5.1567,0.9800,1.8320,2.6283,18.3502,9.7939,-0.1661,-2.0906,8.1465,9.6315,14.0641
2742.1875,-0.1355,5.0308,2.8375,7.7287,5.3786,-0.4232,-0.9990,-1.4009,2.0716,-1.2484,-1.7345,0.0916,14.7481,9.8934,-0.6677,-2.8467,8.0412,7.9002,10.5898
2746.0938,0.6573,4.2345,-0.8544,5.0041,1.2914,-0.6010,-4.3741,-3.0016,0.4336,-0.8271,-3.6879,-1.7687,11.3340,9.6237,0.9740,-3.9474,8.2368,7.0031,7.2906
2750.0000,1.3172,3.4370,-3.1224,2.1341,-2.3803,-1.0951,-7.5269,-5.1858,-0.0942,-0.0957,-3.7927,-2.9180,8.5976,7.9710,3.3640,-4.6929,7.9422,6.5004,4.9891
2753.9062,-0.0860,2.3961,-3.1529,-0.2589,-4.4959,-2.5975,-8.6334,-7.3386,-0.1276,-0.6925,-2.4503,-3.1371,6.8804,5.2201,5.3347,-4.1977,6.8714,5.9565,4.2180
2757.8125,-2.6980,1.5335,-1.3248,-1.4478,-4.6079,-4.3594,-7.2783,-8.5667,0.1380,-2.0951,-0.1727,-2.1195,6.3752,2.6220,6.6485,-2.1416,5.5470,5.3616,4.9261
2761.7188,-3.6083,1.5687,1.0997,-1.0611,-3.1675,-4.7652,-4.6850,-8.2360,1.0661,-2.1565,2.6698,0.1179,7.0588,1.3989,7.7454,0.7624,4.9323,5.1052,6.4521
2765.6250,-0.4070,2.7931,2.7792,0.6188,-1.1394,-2.8057,-2.7428,-6.3881,3.0805,0.8624,5.6897,2.9135,8.6158,1.9034,8.9134,3.0387,5.6688,5.5700,7.8488
2769.5312,6.5768,4.6609,3.0550,2.7691,0.6403,0.8372,-2.6039,-3.7414,6.0219,6.5287,8.2397,5.1170,10.4466,3.4874,9.7401,3.3447,7.4882,6.7236,8.3888
2773.4375,14.2214,6.1053,2.2047,4.5071,1.8675,4.1032,-3.9185,-1.2682,8.9795,12.2731,9.5026,5.7238,11.8096,5.0312,9.3922,1.3566,9.2488,8.0659,7.9305
2777.3438,18.8005,6.3465,1.0967,5.4112,2.6897,5.1005,-5.2430,0.3725,10.7929,15.2318,8.9702,4.5518,12.0722,5.6518,7.4659,-2.0286,9.6063,8.9744,6.9067
2781.2500,18.6437,5.4967,0.5469,5.7230,3.3384,3.6393,-5.2395,1.1782,10.8269,14.3808,6.9108,2.4122,10.9730,5.1338,4.5872,-5.3402,7.8800,9.1481,5.9713
2785.1562,15.1529,4.4123,0.8285,6.0950,3.8872,1.4440,-3.7075,1.7082,9.3712,11.2023,4.3337,0.5772,8.7765,3.9507,2.1285,-7.5377,4.5402,8.7692,5.5777
2789.0625,11.4344,3.8861,1.6110,7.0727,4.3614,0.7860,-1.6758,2.6321,7.3276,8.3490,2.3499,-0.1054,6.2243,3.0123,1.1857,-8.6042,0.9911,8.2452,5.7850
2792.9688,9.7484,3.8686,2.2783,8.6742,5.0125,2.5916,-0.5540,4.2238,5.4530,7.4394,1.3819,0.2038,4.2602,3.3010,1.6595,-9.3002,-1.2127,7.7551,6.3690
2796.8750,9.8828,3.4281,2.3390,10.3414,6.3416,5.5639,-1.0606,6.1256,3.8112,7.8303,0.8764,0.5015,3.6105,5.4409,2.2577,-10.3296,-1.2276,6.9995,7.0584
2800.7812,9.7247,1.5631,1.6488,11.2693,8.6709,7.0925,-2.7606,7.5273,1.9146,7.3882,-0.1840,-0.2590,4.4012,9.2474,1.5026,-11.6325,0.6556,5.4039,7.6447
2804.6875,7.4582,-1.7606,0.3703,10.8720,11.5487,5.3029,-4.5061,7.6420,-0.5567,4.6036,-2.3352,-2.3353,6.0262,13.4699,-1.0256,-12.3900,3.2457,2.6576,7.8883
2808.5938,3.4915,-5.2226,-1.1962,9.0909,13.5820,0.6672,-5.3509,6.1884,-3.0863,0.2595,-5.0012,-4.9511,7.3970,16.0681,-4.2104,-11.7146,5.1521,-0.8170,7.4001
2812.5000,0.4774,-6.8173,-2.7250,6.3957,13.0762,-4.0971,-5.1793,3.5890,-4.3331,-2.7931,-6.7197,-6.7931,7.5025,15.1584,-6.0959,-9.4251,5.5127,-3.8498,5.7507
2816.4062,1.3726,-5.1566,-3.8537,3.5371,9.2045,-5.8067,-4.5910,0.7695,-2.9219,-1.6629,-6.0862,-6.8466,5.9972,10.2506,-5.2367,-6.2480,4.3421,-5.0375,2.8557
2820.3125,7.0784,-0.4594,-4.1506,1.2300,2.8729,-2.9691,-4.2230,-1.3217,1.5311,4.3150,-2.7161,-4.9451,3.4556,2.9519,-1.6737,-3.2870,2.3620,-3.4911,-0.6474
2824.2188,15.5202,5.5074,-3.2117,-0.0805,-3.4970,3.2390,-4.1386,-2.1927,7.9264,12.8538,2.4825,-1.6989,1.0867,-3.5738,3.1682,-1.2294,0.4844,0.6401,-3.4480
2828.1250,22.8633,10.4861,-0.9187,-0.3214,-7.3109,9.8033,-3.8083,-2.0119,14.1241,20.1085,7.8729,2.0120,0.0247,-6.3315,7.4881,0.0240,-0.7171,6.1681,-4.2083
2832.0312,25.8989,13.0007,2.2973,0.2160,-7.4229,13.8059,-2.6773,-1.4315,18.0365,23.1192,11.9895,5.4796,0.6153,-4.4066,10.1648,1.0006,-1.2584,11.3612,-2.4864
2835.9375,23.8118,12.9518,5.4327,0.9721,-4.8605,14.0393,-0.8019,-1.1526,18.6298,21.4671,14.0855,8.2054,2.1663,0.2920,11.0568,1.9140,-1.6219,14.6304,0.7313
2839.8438,18.1504,11.2184,7.2644,1.3131,-2.0505,11.2756,1.0206,-1.5068,16.2066,16.9985,14.0331,9.6433,3.3684,4.1557,10.4651,2.2377,-2.3764,15.0656,3.4144
2843.7500,11.2940,8.7362,6.9579,0.8118,-1.0414,7.2702,1.7842,-2.3018,11.9093,12.0285,11.8897,9.0937,3.1507,4.2649,8.4135,1.0401,-3.7728,12.6440,3.7039
2847.6562,4.8174,5.8706,4.5914,-0.4771,-2.0092,3.4755,1.0635,-2.9940,6.9475,7.5956,7.7105,6.0626,1.4262,0.4336,4.5285,-2.1433,-5.5359,8.1427,1.2144
2851.5625,-0.9574,2.5694,1.2409,-1.9176,-3.1748,0.4594,-0.5734,-3.0402,2.1597,3.1850,1.8760,0.9159,-0.7761,-4.5789,-1.2987,-6.6270,-6.9564,2.8876,-2.5110
2855.4688,-6.0760,-0.9443,-1.4917,-2.5021,-2.2223,-1.7339,-1.8842,-2.1796,-1.8646,-1.9573,-4.3993,-4.7594,-1.9039,-6.9257,-8.0699,-10.7256,-7.2327,-1.5716,-4.8241
2859.3750,-9.7645,-3.6706,-2.2892,-1.3412,1.8357,-2.8777,-1.8008,-0.4849,-4.4130,-7.1694,-9.0317,-8.6045,-0.8288,-4.3240,-13.5464,-12.7256,-5.8887,-3.8415,-3.6244
2863.2812,-10.1981,-4.1076,-0.8172,1.8019,7.7618,-2.3187,-0.1923,1.7863,-4.5582,-9.9447,-9.8614,-8.6850,2.4606,2.3855,-15.2069,-11.9982,-3.0525,-3.1068,1.2411
2867.1875,-5.6151,-1.2258,2.0964,6.2559,12.8659,0.5181,2.0113,4.3584,-1.6000,-7.3198,-5.9164,-4.7195,6.8545,9.8826,-11.7782,-9.4086,0.5598,0.5193,7.8009
2871.0938,4.0474,4.5710,4.9154,10.6643,14.8783,5.3405,3.4203,6.9681,4.2394,1.8379,1.7395,1.5536,10.7803,14.7012,-4.2543,-6.6956,3.9601,5.9067,13.1580
2875.0000,16.3679,11.2991,6.2239,13.6078,13.5248,10.6950,3.0837,9.2616,11.4744,15.3886,10.3101,7.2504,13.0698,15.5126,4.4211,-5.2719,6.3425,11.2331,15.2639
2878.9062,27.3038,16.3066,5.4566,14.2896,10.6332,14.5625,1.0677,10.7291,17.7956,28.5659,16.6762,9.9705,13.4799,13.7094,10.9119,-5.3264,7.4250,14.6680,14.0708
2882.8125,33.2709,17.7164,3.1272,12.8873,8.7233,15.5053,-1.6452,10.8436,21.1527,36.4648,19.0454,9.1241,12.5880,11.9757,13.2989,-5.8641,7.4791,15.1301,11.3119
2886.7188,33.0711,15.4639,0.4595,10.3728,9.1690,13.5489,-3.8099,9.3905,20.8168,36.7779,17.7577,6.0764,11.2243,12.0593,11.9662,-5.5905,7.0362,12.7304,9.1401
2890.6250,28.3785,11.2494,-1.3249,7.9216,11.3024,10.1566,-4.6472,6.7610,17.7106,30.9662,14.7486,3.0527,9.8860,13.4953,9.0410,-3.9345,6.4664,8.6532,8.6360
2894.5312,22.5020,7.4605,-1.6254,6.2833,13.0737,7.3150,-4.1807,3.9263,13.7727,23.1202,12.1201,1.6135,8.5295,14.2007,6.8576,-1.4488,5.7217,4.5369,9.2334
2898.4375,18.3225,5.7932,-0.6443,5.4882,12.6843,6.3742,-3.0320,2.0099,10.7893,17.3412,10.8644,1.7750,6.8194,12.3471,6.5331,0.6435,4.4278,1.7026,9.3936
2902.3438,16.7979,6.4517,0.9193,5.0369,9.9213,7.4084,-1.9010,1.6858,9.4799,15.4214,10.5882,2.3255,4.5818,7.9511,7.5600,1.3386,2.2672,0.6537,7.9403
2906.2500,16.9348,8.3636,2.4159,4.4085,6.2242,9.4431,-1.1170,2.8109,9.4141,16.2942,10.2793,1.9945,2.0946,2.9245,8.5408,0.4870,-0.6263,1.0815,5.0278
2910.1562,17.0536,10.1540,3.6595,3.5284,3.5352,11.2781,-0.5269,4.5731,9.7135,17.4257,9.3914,0.5312,0.0084,-0.3830,8.4014,-1.2365,-3.5706,2.2950,2.0496
2914.0625,16.3072,11.1550,4.9605,2.8833,2.8921,12.2895,0.2874,6.0753,9.9377,16.9841,8.3651,-1.1083,-1.0250,-0.9210,7.1796,-2.8896,-5.6501,3.7450,0.6165
2917.9688,15.3412,11.7827,6.7974,3.2134,3.8341,12.7018,1.6763,6.9391,10.4596,15.1864,8.2329,-1.5373,-0.7394,0.4357,5.8944,-3.8450,-6.2526,5.3051,1.4123
2921.8750,15.6793,13.0903,9.3859,4.9965,4.9827,13.2487,3.7073,7.4889,12.0664,13.9271,9.7057,-0.0204,0.6056,1.7989,5.7022,-3.9876,-5.4612,7.1723,3.7760
2925.7812,18.3565,15.8678,12.4528,8.0721,5.2326,14.5363,6.1623,8.3915,15.1304,15.0892,12.5118,2.9833,2.4064,1.8919,7.0094,-3.5078,-4.0077,9.5273,6.2740
2929.6875,22.8436,19.9237,15.3619,11.6640,4.5867,16.5541,8.6781,10.0472,19.0328,18.8730,15.5003,6.1883,4.0810,1.0389,9.1670,-2.6085,-2.7957,12.2376,7.7836
2933.5938,27.0796,24.0316,17.4876,14.7972,4.0431,18.6222,10.8987,12.2263,22.3292,23.4149,17.3894,8.4147,5.3838,0.7597,10.9040,-1.4278,-2.3122,14.8286,8.2634
2937.5000,28.6470,26.5733,18.5693,16.8418,4.7328,19.7733,12.5599,14.2398,23.5909,25.9866,17.5621,9.3419,6.4873,2.3843,11.1498,-0.1913,-2.3377,16.7298,8.6692
2941.4062,26.3318,26.4731,18.8034,17.8275,7.0536,19.3306,13.5130,15.4975,22.3399,24.9039,16.3406,9.5418,7.8021,5.8740,9.6835,0.6684,-2.1632,17.6062,10.1327
2945.3125,21.0283,23.8469,18.6293,18.3203,10.4475,17.3570,13.7360,15.9828,19.4113,20.7636,14.6282,9.8530,9.6525,9.8040,7.2261,0.6721,-1.1548,17.5324,13.0446
2949.2188,15.3600,19.9714,18.3778,18.9449,13.8849,14.7184,13.3509,16.2376,16.4725,16.1155,13.2828,10.6561,12.0004,12.4723,4.9846,-0.3138,0.7474,16.8959,16.7122
2953.1250,12.2145,16.5878,18.0413,19.8855,16.5660,12.6918,12.6073,16.8613,15.0123,13.8033,12.7071,11.6291,14.3820,13.1936,3.9823,-1.7825,2.9680,16.1120,19.8032
2957.0312,13.0964,14.9460,17.3162,20.7260,18.2723,12.2908,11.7875,17.9394,15.4682,15.1418,12.8675,12.1207,16.1073,12.7462,4.5854,-2.7234,4.7207,15.3636,21.2158
2960.9375,17.3182,15.1376,15.8649,20.7579,19.1919,13.6638,11.0469,18.8994,17.0442,19.1884,13.5635,11.7700,16.6302,12.6762,6.4525,-2.2000,5.6020,14.5395,20.7477
2964.8438,22.5087,16.0926,13.5874,19.5505,19.5116,15.9341,10.2818,18.9436,18.2852,23.5511,14.6082,10.8245,15.8800,14.0867,8.8476,0.0003,5.9022,13.3889,19.1234
