Time,Fp1,F3,C3,P3,O1,F7,T3,T5,Fz,Fp2,F4,C4,P4,O2,F8,T4,T6,Cz,Pz
0.0000,-3.9784,-4.3516,2.6771,2.6121,2.2523,-2.1722,1.9259,0.5157,-1.6549,-2.8662,-0.9843,5.7886,8.1829,6.3683,-0.7319,5.7773,6.4361,3.2492,5.7726
3.9062,-4.2954,-1.4391,2.4899,0.4989,-0.0217,-6.3110,-1.4389,-0.6971,-0.3647,-2.8549,1.0985,6.2997,4.0887,3.2848,-3.7030,3.8398,3.2524,3.6436,1.9694
7.8125,-4.2074,1.3146,1.5640,-2.3297,-2.7117,-10.1677,-5.8502,-2.2116,0.6933,-2.4641,3.7152,5.4522,-0.7069,-0.8961,-5.7731,0.9961,-0.4938,2.9035,-2.7836
11.7188,-3.8923,3.8640,1.5682,-3.9870,-4.4314,-10.7817,-8.1683,-2.6525,2.1760,-1.1732,7.1147,3.8460,-4.1479,-4.5892,-4.2395,-1.3358,-3.0745,1.8304,-6.0710
15.6250,-3.5786,6.4077,3.6492,-3.2351,-4.5199,-6.8099,-6.0808,-1.3114,4.3451,0.9818,10.7904,2.4904,-5.4076,-6.6960,1.4650,-2.3382,-3.8590,1.3985,-6.4495
19.5312,-3.0243,8.9945,7.6535,-0.2731,-3.2732,0.4147,0.2741,1.4488,6.8287,3.4237,13.5588,2.0844,-5.2871,-7.1722,9.0334,-2.3133,-3.6443,2.1920,-4.2807
23.4375,-1.3942,11.2943,12.3661,3.5373,-1.3776,7.6843,8.3026,4.6346,8.9987,5.4989,14.3355,2.5906,-5.2562,-6.7704,14.7023,-2.2713,-3.7873,4.2042,-1.2033
27.3438,2.1413,12.7465,16.4046,6.6753,0.8188,11.9931,14.5072,7.4059,10.5285,6.9573,12.9472,3.3594,-6.0581,-6.2964,15.7906,-3.0156,-4.9535,6.9777,1.1741
31.2500,7.4536,12.9764,18.9493,8.3481,3.4680,12.3594,16.4682,9.4765,11.5556,8.0187,10.2471,3.6342,-7.1334,-6.0451,12.4334,-4.5275,-6.5814,9.8352,2.2359
35.1562,12.9972,12.1422,19.7926,8.6422,6.6779,10.1145,13.9599,10.8553,12.3055,8.9898,7.4045,3.0231,-7.3296,-5.8115,7.2303,-6.1218,-7.4879,12.0254,2.2972
39.0625,16.4416,10.9228,18.9071,8.0136,9.8508,7.5894,8.6506,11.3246,12.6030,9.8159,4.9886,1.6201,-6.1796,-5.3117,3.1808,-7.1366,-7.0091,12.8248,1.8031
42.9688,16.1199,10.1275,16.1495,6.7127,11.6577,6.3217,2.8376,10.2985,11.8360,10.0107,2.6657,-0.2258,-4.5148,-4.5289,1.5802,-7.4816,-5.6152,11.7273,0.6814
46.8750,12.2401,10.1908,11.4820,4.6722,10.8438,6.1561,-1.8168,7.3004,9.4965,9.0609,-0.2170,-2.2344,-3.7934,-3.6667,1.4737,-7.5625,-4.4424,8.7186,-1.5125
50.7812,6.8446,10.9019,5.4638,1.8579,7.2590,5.7978,-4.8147,2.6349,5.8269,6.9603,-3.7018,-4.3265,-4.7164,-2.8489,0.9273,-7.7163,-4.1892,4.4288,-4.8512
54.6875,2.4446,11.5520,-0.5998,-1.3665,2.2103,4.2030,-6.5385,-2.4423,1.9285,4.3963,-6.8256,-6.4783,-6.4019,-1.9660,-1.0826,-7.7535,-4.4159,-0.0483,-8.4923
58.5938,0.3511,11.4038,-5.1879,-4.2829,-2.2612,1.6118,-7.5958,-6.3485,-0.8580,2.4047,-8.1795,-8.4532,-6.9460,-0.8893,-3.7564,-7.0856,-3.9326,-3.6335,-10.9688
62.5000,0.0366,10.1820,-7.4423,-6.2431,-4.6830,-0.5701,-8.3002,-8.1533,-1.8117,1.7554,-6.9833,-9.6627,-4.9812,0.1652,-5.2097,-5.3471,-1.9691,-5.7175,-11.1576
66.4062,0.0433,8.2901,-7.6451,-7.0522,-5.0212,-0.8451,-8.5261,-8.0975,-1.1863,2.5494,-3.7425,-9.3140,-0.9236,0.5693,-4.1311,-2.9226,0.9222,-6.2540,-9.1101
70.3125,-0.3665,6.6361,-6.8275,-6.9359,-4.4452,1.2651,-7.8708,-7.1948,0.2543,4.3047,0.1121,-6.8002,3.1983,-0.2728,-0.9141,-0.8404,3.0955,-5.4527,-6.0039
74.2188,-0.3129,6.1812,-5.7940,-6.1424,-4.2169,4.9247,-5.9504,-6.2579,2.0757,6.3949,3.3165,-2.1193,5.2596,-2.2745,2.6556,-0.0461,3.0703,-3.4077,-3.2298
78.1250,1.9438,7.4626,-4.4120,-4.6186,-4.6493,8.6241,-2.6925,-5.2127,4.5700,8.4435,5.6588,3.9262,4.6710,-4.4162,4.8316,-0.6443,0.7986,-0.0726,-1.3850
82.0312,7.1381,10.3307,-1.8275,-2.1337,-4.9764,11.1515,1.4687,-3.3215,8.2742,10.3827,7.8897,9.8947,2.7757,-5.2527,5.2290,-1.7652,-2.1435,4.3443,-0.0172
85.9375,13.6623,14.0049,2.5365,1.2385,-4.1722,12.1365,5.6039,-0.1049,13.0159,12.2260,10.7443,14.1952,1.6800,-3.8967,4.9701,-2.2103,-3.6586,8.9531,1.7070
89.8438,18.1219,17.3936,8.0760,4.7910,-1.9406,11.8759,8.5910,3.9088,17.4180,13.8429,13.9629,15.6944,2.4990,-0.7262,5.6063,-1.3757,-2.6742,12.2576,4.0503
93.7500,17.6291,19.5179,13.0598,7.4528,1.0116,10.7741,9.6373,7.3692,19.4936,14.9629,16.2251,14.1620,4.4757,2.8027,7.7572,0.2812,0.0853,12.8984,6.3469
97.6562,12.1404,19.8627,15.7184,8.5609,3.6366,8.9734,8.7420,9.1533,18.0258,15.3645,16.1303,10.3445,5.6866,5.1580,10.5650,1.5960,2.6876,10.6199,7.5576
101.5625,4.9030,18.5390,15.5388,8.5043,5.5133,6.4677,6.7558,9.3838,13.6670,15.0203,13.4334,5.6381,4.7101,5.7941,12.3402,1.5662,3.4371,6.6956,7.2287
105.4688,0.4483,16.2282,13.7053,8.5956,7.2149,3.4967,4.9180,9.4574,8.7964,14.0532,9.4894,1.5314,1.8478,5.4346,11.8241,0.0440,2.0260,3.3612,5.9766
109.3750,1.5174,13.9445,12.2863,10.1282,9.7150,0.7651,4.1382,10.9365,6.1183,12.6027,6.4842,-0.9153,-1.1016,5.3583,9.0867,-2.2553,-0.4449,2.5361,5.0420
113.2812,7.2241,12.6897,12.7749,13.2938,13.3405,-0.7861,4.5147,14.1567,6.9942,10.8209,6.0221,-1.3390,-2.2909,6.2801,5.4661,-4.3521,-2.4612,4.6991,5.2893
117.1875,13.8637,13.0912,15.1034,16.8420,17.2104,-0.5082,5.4294,17.7299,10.7279,9.0552,8.1395,-0.0504,-1.2689,7.7493,2.7197,-5.6709,-3.2139,8.6998,6.5115
121.0938,17.7156,15.1307,17.8436,18.8251,19.6987,1.5386,6.1079,19.4355,15.2619,7.9889,11.4385,2.1744,0.7478,8.5484,2.0613,-6.2604,-2.9708,12.5945,7.6267
125.0000,17.6311,18.0846,19.3435,17.9096,19.5803,4.5977,6.1730,17.8523,18.6414,8.4206,14.1237,4.3472,1.9294,7.7392,3.6746,-6.4867,-2.5469,14.8427,7.5696
128.9062,15.4211,20.7587,18.8532,14.2662,16.9262,7.6280,5.7581,13.4458,20.0761,10.6575,15.0759,5.5106,1.2816,5.4743,6.8214,-6.5676,-2.4713,14.9975,6.0979
132.8125,13.8772,21.9861,16.8085,9.3806,13.0204,9.8007,5.1674,8.2490,19.8945,13.9447,14.2110,5.0003,-0.6909,2.9100,10.2756,-6.3863,-2.6004,13.5203,3.8523
136.7188,14.1907,21.1954,14.2162,4.9886,9.3968,10.7597,4.4862,4.4086,18.6900,16.5203,12.0822,2.7280,-2.5519,1.3268,12.7691,-5.7089,-2.4197,11.0813,1.7058
140.6250,14.9663,18.7389,11.8057,2.0101,6.8146,10.5563,3.5577,2.7739,16.5994,16.5090,9.2968,-0.6422,-3.1402,1.2106,13.3451,-4.5412,-1.6319,8.0576,0.0505
144.5312,13.6231,15.7303,9.6778,0.2857,4.9983,9.4068,2.3458,2.6188,13.3937,13.1679,6.3190,-3.8237,-2.3707,2.0478,11.6567,-3.2591,-0.4363,4.6250,-1.3284
148.4375,8.9201,13.4013,7.6130,-0.8087,3.2696,7.4952,1.2635,2.6053,9.1911,7.5715,3.6860,-5.4282,-1.0498,2.9397,8.1866,-2.3825,0.7247,1.2019,-2.7438
152.3438,2.3804,12.3190,5.5782,-1.5321,1.4295,4.9351,1.0263,2.0713,4.9529,2.1056,2.1708,-4.6691,-0.0150,3.4465,4.2132,-2.1981,1.6257,-1.3566,-4.0270
156.2500,-2.6661,11.9811,3.8705,-1.5092,0.0707,1.8661,2.0453,1.5222,2.1208,-0.9857,2.4860,-1.8085,0.5640,3.9083,1.3787,-2.5492,2.4298,-2.1482,-4.4940
160.1562,-3.6505,11.1372,2.8026,-0.2214,0.0516,-1.4090,3.8982,1.9676,1.6071,-0.9747,4.6741,2.0197,1.1476,4.9920,0.9714,-2.9392,3.4017,-0.9116,-3.5282
164.0625,-0.7700,8.7210,2.3551,2.2703,1.6341,-4.3278,5.4691,3.7836,3.0451,1.0890,7.8013,5.5640,2.2059,6.9124,3.3131,-2.8203,4.4909,1.6532,-1.2267
167.9688,3.2850,4.8066,2.2612,5.1114,4.0889,-6.0848,5.7977,6.1796,5.0622,3.4198,10.4252,8.2744,3.6760,9.0556,7.6461,-1.8337,5.2513,4.3295,1.5370
171.8750,5.6544,0.8843,2.4896,7.2071,6.1496,-5.8287,4.9705,7.7758,6.4239,4.9814,11.6160,10.5426,5.0005,10.3574,12.5798,0.1069,5.2240,6.2950,3.7476
175.7812,5.6777,-0.8644,3.5788,8.0679,6.9404,-3.0669,4.2039,7.7832,7.0579,6.1799,11.6954,13.1197,5.6380,10.1142,16.7620,2.8171,4.4125,7.7130,5.0182
179.6875,5.2411,1.0721,6.3038,8.1715,6.5870,1.8554,4.8717,6.7214,7.9883,8.1856,11.9617,16.1354,5.4930,8.5221,19.3230,5.8185,3.3406,9.4286,5.7778
183.5938,6.7651,6.4061,10.7877,8.4849,6.0074,7.5109,7.1846,6.0125,10.1661,11.4823,13.4941,18.5497,4.8422,6.4913,19.9068,8.3322,2.5720,11.9795,6.6825
187.5000,10.5835,12.9634,15.8351,9.5491,6.0991,11.7097,9.6803,6.7824,13.2260,14.9490,16.0011,18.6191,3.8933,4.9232,18.4906,9.4452,2.1267,14.7963,7.8028
191.4062,14.0824,17.7972,19.2712,10.9511,7.0455,12.4305,10.1485,8.9039,15.3844,16.3878,17.7710,15.1780,2.5138,4.0953,15.3235,8.5235,1.4044,16.3919,8.4021
195.3125,13.5546,18.8543,19.2952,11.6800,8.3193,8.9512,7.4255,11.1130,14.7586,14.1911,16.9328,8.8020,0.4937,3.6708,11.0652,5.6688,-0.2016,15.5138,7.6021
199.2188,7.3917,16.1391,15.9040,11.0693,9.3077,2.4678,2.6361,12.0896,11.0996,8.8135,13.0947,1.8751,-1.8858,3.2644,6.8558,1.8388,-2.4993,12.3466,5.3829
203.1250,-2.0322,11.6244,11.1780,9.4754,9.9274,-4.3341,-1.2664,11.5531,6.4221,2.7717,7.9856,-2.6746,-3.6249,2.9875,3.9840,-1.5981,-4.2875,8.6885,2.9507
207.0312,-9.5183,7.9824,7.9957,8.0351,10.6295,-8.6518,-1.5195,10.4165,3.8111,-0.9597,4.4329,-3.1852,-3.5507,3.4195,3.1894,-3.6638,-4.1013,6.8000,1.9739
210.9375,-10.5580,6.9673,7.9977,7.6533,11.7805,-9.0942,2.3229,9.8709,5.1776,-0.9710,4.3459,-0.3503,-1.3467,4.9888,4.0969,-4.3605,-1.4332,7.7238,3.1840
214.8438,-4.5608,8.4721,10.3269,8.0829,13.0115,-6.3800,7.8321,10.2134,9.6879,1.7063,7.2354,3.2187,1.8029,7.3122,5.3524,-4.5640,2.5672,10.3793,5.4943
218.7500,4.7174,10.7860,12.1749,7.9430,13.1997,-2.7284,11.2553,10.4671,14.1603,4.5413,10.4553,4.6674,3.6684,9.1348,5.5357,-5.2585,5.6053,12.1958,6.4989
222.6562,11.8908,11.7815,10.8036,5.7616,11.2139,-0.3531,10.0880,9.1615,15.2089,5.4810,11.0286,2.6377,2.3982,9.0321,4.2253,-6.7110,5.7167,10.8624,4.1309
226.5625,13.6892,10.2168,5.5552,1.2539,6.8771,-0.1012,4.7649,5.6468,11.5441,4.3775,7.6927,-2.0943,-2.0778,6.3985,2.3366,-8.2707,2.6410,5.9132,-1.7198
230.4688,10.8524,6.3810,-1.6376,-4.1924,1.3737,-1.1519,-1.7638,0.8502,4.7322,2.7786,1.6589,-7.3811,-7.7657,1.9810,1.3583,-8.9735,-1.9592,-0.9857,-8.8829
234.3750,6.8397,1.8153,-7.5748,-8.2495,-3.2642,-1.9004,-6.1685,-3.1660,-2.0535,2.3778,-4.3809,-11.1440,-11.7616,-2.4531,2.0350,-8.4348,-5.6198,-7.1587,-14.1782
238.2812,4.6054,-1.5800,-9.8932,-9.0737,-5.2491,-1.2898,-6.9135,-4.5100,-6.2139,3.5062,-8.1207,-12.3983,-12.0642,-5.0909,3.5929,-7.2320,-6.6991,-10.5274,-15.3659
242.1875,4.1987,-2.4884,-8.3874,-6.3804,-3.9550,0.4230,-4.8823,-2.6340,-7.1566,4.9406,-8.9309,-11.2901,-8.7636,-5.0284,4.2494,-6.4090,-5.3090,-10.5434,-12.3861
246.0938,3.1523,-0.7263,-4.7148,-1.4500,-0.0976,1.9839,-2.2034,1.4584,-6.0638,5.1103,-7.7422,-8.4529,-3.8083,-2.6314,2.6865,-6.5170,-2.9471,-7.9779,-7.0923
250.0000,-0.7809,2.7383,-0.9548,3.8043,4.8050,2.2024,-0.4499,5.9963,-4.4923,3.5647,-5.8933,-4.4683,0.3722,0.8002,-0.6995,-7.0673,-1.2539,-4.0466,-1.8583
253.9062,-7.0020,6.1988,1.7152,7.9114,9.1990,0.8853,0.2627,9.5070,-3.1445,1.3655,-4.0643,0.0987,2.3124,3.7244,-3.8786,-6.9512,-0.9327,0.2593,1.7966
257.8125,-11.9493,7.8807,3.2741,10.3047,11.9901,-1.0558,0.7063,11.3765,-1.7801,0.0605,-2.1363,4.3442,2.0360,4.9638,-4.6409,-5.5196,-1.6057,4.1932,3.6210
261.7188,-11.7885,6.6765,4.1326,11.0448,12.6370,-2.3286,1.2731,11.6736,-0.0849,0.1883,0.1312,7.0102,0.5014,4.0106,-2.2990,-3.3640,-2.5233,6.9360,4.0494
265.6250,-5.7919,2.7025,4.3311,10.2916,11.0608,-2.1939,1.3396,10.6449,1.5429,0.7151,2.4443,7.1297,-1.3657,1.0770,1.7585,-2.0179,-3.3593,7.5850,3.3911
269.5312,2.4424,-2.6133,3.4713,8.1022,7.6114,-0.9040,-0.1041,8.4487,2.1340,-0.0140,4.0418,4.8865,-3.2167,-3.0029,5.1516,-2.7132,-4.3780,5.6948,1.5763
273.4375,7.1720,-7.0859,1.3631,4.6770,3.0855,0.5960,-3.1874,5.3079,1.0826,-2.5973,4.3914,1.8136,-5.1095,-7.0126,6.3543,-5.2133,-5.9280,1.9055,-1.4195
277.3438,4.6391,-8.8174,-1.3651,0.6721,-1.4083,1.3657,-6.5442,1.7715,-1.0824,-5.6860,3.7665,-0.1214,-7.0150,-9.7864,5.7675,-7.7898,-7.8596,-2.0758,-5.0477
281.2500,-3.9422,-7.1927,-3.4060,-2.8756,-4.8434,1.0024,-8.0770,-1.3306,-2.9125,-6.7932,3.0698,-0.0045,-8.6025,-10.7462,5.1260,-8.5012,-9.4922,-4.3891,-8.2049
285.1562,-12.8870,-3.1882,-3.6224,-5.0533,-6.7321,-0.3035,-6.5530,-3.2971,-3.1187,-4.2619,3.0344,1.1806,-9.5111,-10.2378,5.7753,-6.7958,-10.1876,-4.2241,-9.8746
289.0625,-15.7993,1.2893,-1.8451,-5.5822,-7.2779,-2.0713,-2.6545,-3.9564,-1.5372,1.2090,3.5927,1.2256,-9.7581,-9.3494,7.3448,-4.0911,-9.9728,-2.3111,-9.8266
292.9688,-9.9249,4.6586,1.1304,-4.8545,-7.0457,-3.8410,1.4877,-3.6431,0.9312,6.8181,4.0820,-1.4522,-9.7838,-9.2056,8.0236,-2.7522,-9.5849,-0.2004,-8.7174
296.8750,2.0008,6.6671,4.3493,-3.4530,-6.3923,-5.2684,3.9475,-2.7454,3.3596,9.6103,4.1404,-6.2170,-10.0153,-10.1670,6.2554,-4.2176,-9.8444,1.1312,-7.4740
300.7812,13.6563,8.4030,7.5282,-1.6088,-5.1614,-6.0647,4.4484,-1.2770,5.7989,8.6269,4.4010,-10.2914,-10.3616,-11.5342,2.3880,-7.7774,-10.9037,2.1530,-6.5123
304.6875,19.3196,11.2743,11.0828,0.8652,-2.9506,-5.9850,4.3574,1.0444,9.1982,5.5553,6.1686,-10.6607,-10.1790,-12.0390,-1.2182,-11.0339,-12.0530,4.3004,-5.4977
308.5938,17.3378,15.6982,15.2850,4.0755,0.2548,-4.9432,5.2424,4.2156,14.1853,3.3529,10.1785,-6.4319,-8.8230,-10.7958,-1.8496,-11.7053,-12.2772,8.4586,-3.8533
312.5000,10.5848,20.5045,19.3602,7.4665,3.6698,-3.1244,7.2757,7.4182,19.7947,3.9390,15.4767,0.2400,-6.3235,-7.9904,1.4328,-9.3245,-11.0807,13.6892,-1.5277
316.4062,3.9072,23.5493,21.4976,9.7860,5.9728,-0.9161,8.9192,9.1728,23.4525,6.7716,19.5388,5.5155,-3.5515,-4.7625,6.9485,-5.4670,-8.8613,17.3893,0.7076
320.3125,0.6677,23.1235,19.9741,9.7768,6.1277,1.3348,8.2107,8.2523,22.5311,9.3875,19.7810,6.5717,-1.6754,-2.3812,11.5621,-2.3732,-6.5341,16.9323,1.7237
324.2188,0.8988,19.1241,14.5528,7.1038,4.1212,3.5108,4.5501,4.7036,16.3827,9.4006,15.4004,3.5654,-1.3515,-1.3947,12.9226,-1.1656,-4.7873,11.5854,0.8582
328.1250,2.1421,13.1318,6.9511,2.7431,0.9925,5.6403,-0.5803,0.0972,7.1909,6.3340,8.0840,-0.6824,-2.3503,-1.4410,10.9731,-1.1627,-3.6619,3.1922,-1.6246
332.0312,1.9748,7.3718,-0.1258,-1.5466,-1.8969,7.5911,-4.6226,-3.3383,-1.1873,1.8820,0.9610,-3.0132,-3.9210,-1.8214,7.5800,-0.8052,-2.8063,-4.9407,-4.8023
335.9375,0.0958,3.3722,-4.6915,-4.3053,-3.7566,8.8703,-5.8444,-4.1359,-5.6184,-1.4855,-3.4195,-2.3769,-5.5111,-2.2631,4.7420,0.7119,-2.0915,-10.1000,-7.7779
339.8438,-1.6053,1.3102,-6.5842,-5.1822,-4.6944,8.8341,-4.5324,-2.5050,-5.5314,-2.3608,-4.5139,-0.4260,-7.1299,-3.1425,3.0174,2.6111,-1.9187,-11.5966,-10.1203
343.7500,-0.8927,0.4318,-7.1156,-4.8903,-5.2627,7.2463,-2.5063,-0.0436,-2.8414,-1.2231,-3.5674,0.1685,-9.0092,-4.9547,1.5199,3.2737,-2.8632,-10.5909,-11.7142
347.6562,2.6309,0.0564,-7.6407,-4.4395,-5.7181,4.7216,-1.4473,1.5004,-0.1473,0.2705,-2.1066,-1.7947,-10.9460,-7.5479,-0.6356,1.8737,-4.9797,-8.6875,-12.3249
351.5625,6.7747,0.2581,-8.3259,-4.3600,-5.7465,2.5690,-1.5396,1.4202,1.2497,0.7923,-0.5580,-4.8932,-12.0943,-9.9216,-2.9041,-0.6266,-7.4891,-6.6329,-11.5076
355.4688,8.0921,1.6680,-8.1758,-4.5467,-4.9475,2.0038,-1.5837,0.2880,1.9275,0.3642,1.7896,-6.2595,-11.5938,-10.9105,-3.3696,-2.1317,-9.2677,-4.2017,-9.1268
359.3750,4.3826,4.6450,-6.2265,-4.7335,-3.6035,3.2758,-0.3795,-0.8325,3.2334,0.1461,5.5397,-4.1048,-9.5770,-10.2448,-0.3993,-1.2509,-9.7934,-1.1759,-6.0259
363.2812,-3.4116,8.6160,-2.7577,-5.0199,-2.9051,5.4415,1.9684,-1.4162,5.6545,1.3203,9.9358,0.5585,-7.5760,-9.0328,5.5343,1.2792,-9.6987,1.7087,-4.0300
367.1875,-11.2896,12.2221,0.6397,-5.8703,-4.2342,7.0526,4.0650,-1.8325,8.2055,4.0725,12.9230,4.4822,-7.7262,-9.1119,11.5918,2.9358,-10.3373,2.9192,-4.9421
371.0938,-14.3129,14.1894,2.2596,-7.5789,-7.9927,7.2741,4.5440,-2.7842,9.3600,7.4447,12.6475,4.6036,-11.1981,-11.6661,14.3370,1.3779,-12.6315,1.3642,-9.1425
375.0000,-9.4935,14.2016,1.6853,-9.7778,-13.0027,6.5282,3.4277,-4.4466,8.5949,10.0303,9.1362,0.3366,-17.0959,-16.2089,12.2322,-3.5535,-16.1667,-2.4150,-14.9767
378.9062,2.3039,13.0416,0.1207,-11.5772,-17.1407,6.0864,2.1876,-6.1782,7.0435,10.8352,4.5937,-6.1323,-22.8477,-20.8157,6.8158,-9.5345,-19.3747,-6.3140,-19.6589
382.8125,16.5846,11.8979,-0.6921,-12.3231,-18.8462,6.8982,2.3645,-7.1055,6.5720,9.6709,1.8689,-11.7095,-25.9530,-23.5010,1.5251,-13.5130,-20.7374,-8.1376,-21.1962
386.7188,27.4445,11.4384,-0.0278,-12.2881,-18.3172,8.6195,3.9928,-7.0262,8.0667,6.9918,2.2486,-14.7833,-25.7771,-23.6607,-0.9287,-14.1191,-20.0268,-7.3148,-19.8666
390.6250,30.5202,11.4305,1.1992,-12.5554,-17.3480,9.7001,5.3577,-6.7263,10.5000,3.5669,4.4203,-16.1177,-23.9279,-22.4067,-0.4941,-12.7047,-18.4973,-5.3614,-17.9749
394.5312,25.0471,11.1822,1.3379,-14.0352,-17.8329,8.5374,4.4534,-7.3210,11.7014,0.3334,5.5576,-17.5868,-22.8434,-21.5156,0.5571,-12.0814,-17.8094,-4.5949,-17.9423
398.4375,13.9808,10.3508,-0.3544,-16.3977,-20.1003,4.8021,0.9225,-9.1532,10.2380,-1.6326,3.7086,-19.9892,-23.6978,-21.8717,-0.1010,-13.9664,-18.5755,-6.1155,-20.2069
402.3438,2.2628,9.3571,-2.8268,-17.9344,-22.4616,-0.1465,-3.3145,-11.2585,6.7706,-1.3641,-0.4693,-21.9739,-25.3558,-22.7251,-2.6332,-17.2902,-19.7908,-8.7742,-22.6841
406.2500,-5.6843,9.0222,-3.9850,-16.6614,-22.4242,-4.1157,-5.4784,-11.9724,3.6431,1.4124,-4.0996,-21.1043,-25.2904,-22.4030,-4.8271,-18.8691,-19.6922,-10.0740,-22.3463
410.1562,-7.8389,9.7632,-2.5073,-11.9119,-18.6548,-5.5409,-4.3089,-10.2526,2.9865,5.7478,-4.3266,-16.1663,-21.7635,-19.8749,-4.0950,-15.9921,-17.3509,-8.3173,-17.7348
414.0625,-4.9505,11.0977,0.8423,-5.1338,-12.1304,-4.4045,-1.3333,-6.6102,4.9334,9.6206,-0.5911,-8.6696,-15.4845,-15.8265,0.0353,-8.8381,-13.6323,-4.2055,-10.3768
417.9688,0.5186,11.9347,3.6018,0.8473,-5.5435,-1.9484,0.2239,-2.8231,7.4853,10.9719,4.9027,-2.1330,-9.3491,-12.2881,5.1564,-0.7070,-10.6536,-0.5000,-3.8982
421.8750,5.9939,11.4165,3.4489,3.6287,-1.4332,0.4657,-1.8640,-0.6270,8.1609,9.0476,8.8649,0.3637,-6.4170,-11.0864,7.7316,4.2045,-10.1440,0.0389,-1.4743
425.7812,9.8912,9.5607,-0.0328,2.7352,-0.5262,2.3151,-6.7641,-0.4685,6.0146,5.0148,9.3204,-1.6369,-7.7275,-12.3936,5.9811,3.7636,-12.0676,-3.2356,-3.6204
429.6875,11.7176,7.1206,-5.1445,-0.3173,-1.5591,3.9061,-11.0034,-1.3557,2.2970,1.2249,6.7791,-5.8517,-11.6762,-14.5910,1.4756,-0.7117,-14.6710,-8.4237,-8.0511
433.5938,11.4608,4.7937,-9.5634,-3.3801,-2.6016,5.5346,-11.1890,-1.8887,-0.7747,-0.4616,3.3480,-9.2654,-15.3850,-15.5701,-2.0009,-5.6638,-15.9149,-12.6509,-11.6387
437.5000,9.0166,2.5357,-12.2012,-5.2893,-2.6791,6.7262,-6.8533,-1.5210,-2.0096,-0.0376,0.7299,-10.5278,-16.8833,-14.3971,-1.4994,-8.0425,-15.0777,-14.3006,-12.8034
441.4062,4.2209,-0.3183,-13.7920,-6.4229,-2.3346,6.3746,-1.0253,-0.9207,-2.2078,0.7187,-1.0633,-10.7098,-16.3278,-11.9760,2.5912,-7.3670,-13.1853,-14.0452,-12.3841
445.3125,-2.5829,-4.1443,-15.7272,-7.8420,-2.7640,3.7304,2.0614,-1.1294,-3.2345,-0.2411,-3.1991,-11.8516,-15.3857,-10.1971,6.6863,-5.5623,-11.9533,-13.8817,-12.3955
449.2188,-10.0571,-8.1352,-18.2584,-9.9026,-4.4272,-0.6639,0.3292,-2.3377,-6.0463,-3.4509,-6.3123,-14.6782,-15.4839,-10.3307,6.7752,-4.9270,-12.2124,-15.1023,-13.8939
453.1250,-16.0701,-10.3425,-19.8029,-11.6652,-6.4580,-5.0294,-4.4553,-3.4750,-9.4793,-7.3400,-9.2972,-17.5838,-16.5238,-12.0255,1.6600,-6.0847,-13.2155,-17.0149,-15.8908
457.0312,-18.6342,-8.8625,-18.1329,-11.6884,-7.4350,-7.4878,-8.0847,-3.0982,-10.9709,-9.3801,-9.8555,-17.8585,-17.1520,-13.7214,-5.9230,-7.6397,-13.4172,-17.5337,-16.2775
460.9375,-16.9823,-3.3755,-12.5156,-9.5167,-6.8107,-7.3799,-7.2996,-0.8560,-8.6828,-8.0954,-6.4422,-14.1304,-16.2481,-14.0698,-11.2281,-7.6977,-12.0050,-15.1006,-13.9157
464.8438,-11.9957,4.1867,-4.9154,-6.5008,-5.6761,-5.6473,-2.4247,1.7996,-3.2157,-4.3203,0.0867,-7.8761,-14.2250,-13.1262,-11.0020,-5.7914,-9.7948,-10.2383,-10.0051
468.7500,-5.6465,10.5189,0.9394,-5.1182,-6.0987,-3.9464,2.8662,2.4150,2.6022,-0.6551,6.6724,-2.6061,-12.9415,-12.3204,-5.8615,-3.4672,-8.6744,-5.3643,-7.4537
472.6562,0.1441,12.8862,2.0346,-7.2520,-9.5307,-3.2797,4.4253,-0.6846,5.7526,0.4870,10.1120,-1.3199,-14.2809,-13.2786,0.2549,-3.0131,-10.0700,-3.0159,-8.7180
476.5625,4.4110,10.7974,-1.8432,-12.8034,-15.6149,-3.3628,0.7940,-7.0604,5.2323,-1.2810,9.3795,-4.3239,-18.6202,-16.5209,3.0898,-5.4514,-13.7703,-3.9945,-13.9085
480.4688,7.2232,6.2201,-8.0772,-19.7523,-22.3850,-3.2654,-5.8480,-14.3825,2.6285,-4.0314,6.3245,-9.2048,-24.4719,-21.0907,1.2046,-9.5413,-18.1083,-6.9660,-20.7224
484.3750,9.0402,2.1985,-13.2183,-25.5673,-27.6606,-2.6644,-11.5628,-20.0430,0.6615,-4.9817,4.1736,-12.9105,-29.5236,-25.3153,-3.0778,-12.6483,-21.2869,-9.7471,-26.1889
488.2812,10.0078,0.8952,-15.3325,-28.7558,-30.4303,-2.4166,-13.6757,-22.8375,0.9964,-2.5425,5.0531,-14.1038,-32.1102,-27.9430,-5.5233,-12.7323,-22.6376,-11.0485,-28.6817
492.1875,9.8240,2.4429,-14.8113,-29.3134,-31.0883,-3.7488,-12.4602,-23.3720,3.1750,2.6030,8.5203,-13.7849,-31.8874,-28.6842,-3.1452,-9.7949,-22.7207,-11.1292,-28.5202
496.0938,8.2272,5.3161,-13.1786,-27.8778,-30.4596,-6.7016,-10.2918,-22.9807,5.4556,8.1003,12.1980,-13.7570,-29.3299,-27.8437,3.6551,-5.6497,-22.2922,-10.8898,-26.8235
500.0000,5.5598,7.7734,-11.1902,-24.5738,-28.6401,-9.3450,-9.2667,-22.2278,6.6533,11.5929,13.8514,-14.4488,-24.8036,-25.6038,11.3938,-2.3358,-21.2390,-10.4092,-23.8836
503.9062,2.7899,9.1779,-8.0819,-18.7666,-24.8113,-8.8118,-9.4636,-20.3889,7.2391,12.1254,13.1168,-14.1789,-18.2914,-21.7859,15.8537,-0.5978,-18.6115,-8.4554,-18.7230
507.8125,0.8906,10.2254,-2.6802,-10.0223,-18.2324,-3.6359,-9.2768,-16.3649,8.7099,10.3394,11.5151,-10.6377,-10.0826,-16.3500,14.7273,0.3204,-13.8098,-3.5790,-10.3386
511.7188,0.1235,12.0392,4.7171,0.6651,-9.4544,4.4512,-7.3119,-10.1371,11.8703,7.5995,10.9173,-3.3112,-1.6272,-10.0630,8.8269,1.5501,-7.7874,4.1377,0.5396
515.6250,-0.0732,14.9645,11.6071,10.7099,-0.5075,10.9873,-3.9711,-3.3277,15.6864,4.9717,11.9116,5.3853,4.5890,-4.4948,1.2982,3.2847,-2.9688,12.3485,10.9809
519.5312,-0.4051,18.0540,14.6664,17.2887,6.3010,11.5587,-1.2358,1.7899,17.8642,2.8737,13.4733,11.4677,6.4444,-1.1033,-4.3884,4.4996,-1.6650,17.6286,17.4313
523.4375,-0.8271,19.6165,12.2940,19.2619,10.0434,5.0134,-0.8667,4.0605,16.7217,1.4313,14.0803,12.2755,3.8575,-0.1007,-6.3041,3.9113,-4.2001,17.8081,18.2316
527.3438,-0.3165,18.3679,6.1637,18.0420,11.8274,-5.3486,-2.7096,4.4302,12.7009,0.9117,13.1266,8.5100,-0.7898,-0.1651,-4.7834,1.2298,-8.4038,13.5874,14.9671
531.2500,2.2974,14.3232,0.2969,16.5280,13.7665,-13.6832,-4.7053,5.1714,8.1297,1.6572,11.3125,3.6423,-4.1364,0.5593,-1.8468,-2.4856,-11.1064,8.0489,11.3551
535.1562,7.0070,8.8382,-1.7949,16.8265,17.0347,-15.3592,-4.6423,7.8930,5.3764,3.5811,9.7305,1.0954,-4.2771,2.8615,0.1213,-5.6988,-10.5649,4.3816,10.4054
539.0625,11.9544,3.8666,0.3331,18.5679,20.6402,-9.8697,-2.1029,11.9992,4.9854,5.8412,8.6272,1.5129,-2.2267,5.5922,-0.3378,-7.6825,-7.8574,3.6301,12.1055
542.9688,14.2177,0.9904,3.8834,19.2340,22.0275,-0.8291,1.1452,14.9745,5.4322,7.1856,7.1176,2.4044,-1.1263,6.3673,-3.0973,-9.0152,-6.0243,4.2616,13.5475
546.8750,11.7407,0.8002,5.1883,16.2868,19.1014,6.7942,2.6810,14.3586,4.7136,6.7944,4.1992,0.4756,-3.7033,3.4076,-6.6524,-10.8219,-7.5787,3.8227,11.4313
550.7812,5.0689,2.8429,2.6909,9.3847,12.0383,10.0085,1.5348,9.8167,2.3494,4.8786,0.1162,-5.3292,-9.9931,-2.9270,-9.0546,-13.4646,-12.4021,1.2120,4.9031
554.6875,-2.5161,5.9803,-1.9010,0.8597,3.3700,9.2274,-1.0016,3.5659,-0.0299,2.4403,-3.3137,-12.6810,-17.1998,-10.1904,-9.0973,-15.9284,-17.7740,-2.3818,-3.6125
558.5938,-6.8071,8.8666,-5.1966,-5.9540,-3.7636,6.9942,-2.5815,-1.2442,-0.1037,0.3563,-3.9254,-17.6437,-21.8574,-15.5169,-7.1041,-16.5460,-20.5323,-4.6357,-10.2732
562.5000,-5.3420,10.3617,-5.0677,-9.1811,-7.7837,5.3830,-1.9581,-2.8982,2.9130,-1.3757,-1.0720,-17.9252,-22.5429,-17.6080,-4.8000,-14.4888,-19.5824,-4.2819,-12.8215
566.4062,0.8771,9.8329,-2.4741,-9.6548,-9.5227,4.3569,-0.1691,-2.2968,7.2157,-3.4810,3.4879,-14.8684,-20.9092,-17.4658,-4.2557,-10.7162,-16.6815,-2.3884,-12.2507
570.3125,7.8470,7.3253,-0.6644,-9.9745,-11.1286,2.3323,0.3161,-2.0128,9.5548,-6.4241,6.5918,-12.4605,-20.1788,-17.3248,-6.5200,-7.4876,-14.8694,-1.5925,-11.7924
574.2188,10.9508,3.5355,-2.4590,-12.2094,-14.0229,-1.7968,-2.2360,-4.0445,7.7231,-9.5158,5.9181,-14.1075,-22.3510,-18.7041,-10.8576,-6.7632,-15.8962,-3.9230,-14.1213
578.1250,7.7124,-0.4570,-7.8957,-16.1706,-17.6505,-7.1440,-7.2220,-8.1496,2.3521,-11.0517,1.7417,-19.7853,-26.4416,-21.1942,-15.1581,-8.7788,-18.8125,-9.0551,-19.1125
582.0312,-0.8296,-3.6096,-14.1486,-19.6377,-20.0186,-11.2320,-12.0538,-12.1043,-3.4670,-9.5378,-3.1943,-25.8851,-29.2085,-22.9285,-17.2529,-11.9435,-20.8708,-14.4536,-23.9544
585.9375,-10.8525,-5.2604,-17.6962,-20.2503,-19.4667,-11.9405,-14.1594,-13.5864,-6.4185,-5.0155,-5.5946,-27.8758,-27.7443,-22.2577,-16.1877,-14.0922,-19.9086,-17.2485,-25.4147
589.8438,-17.8998,-5.2066,-16.8875,-17.4095,-16.0862,-9.2391,-12.9277,-12.0445,-5.2234,0.7273,-3.8229,-23.6461,-21.7837,-19.1541,-12.5360,-14.0200,-16.1532,-16.2532,-22.3069
593.7500,-18.9949,-3.5409,-12.8524,-12.6122,-11.5838,-5.1528,-9.9919,-8.9971,-1.1632,5.3888,1.2385,-14.9125,-13.8626,-15.1648,-7.6246,-12.0624,-11.9305,-12.5028,-16.1614
597.6562,-13.5862,-0.4792,-8.2131,-8.0387,-7.7818,-2.0081,-7.7202,-6.6048,3.3584,7.8814,7.1561,-5.7269,-7.2891,-12.0125,-2.4423,-9.3883,-9.5979,-8.0340,-9.7229
601.5625,-3.2062,3.6086,-4.8962,-4.7057,-5.1287,-0.5519,-7.3023,-5.8231,6.8020,9.0697,11.7608,0.5468,-3.6814,-10.1041,2.7691,-6.7933,-9.5296,-4.1257,-4.7202
605.4688,9.4590,8.0112,-2.9401,-1.7901,-2.5281,0.3671,-8.0632,-5.7339,9.2959,10.8022,14.3086,3.3203,-2.0889,-8.2465,7.9271,-4.1360,-9.8907,-0.5706,-0.8305
609.3750,21.3432,11.6333,-1.1280,2.3609,1.4159,2.2874,-8.4429,-4.5553,11.7383,13.9929,15.2500,4.4341,-0.2811,-4.7979,12.2136,-0.8636,-8.3432,3.5021,3.4333
613.2812,29.4537,13.3660,1.4115,8.5056,6.9057,5.2200,-7.5806,-1.3548,14.2762,17.4337,15.1572,5.9835,3.0592,0.7655,13.9588,2.9900,-4.1533,8.1888,8.9137
617.1875,31.3686,12.7633,4.2627,15.6170,12.5677,7.1760,-5.9866,3.0726,15.7637,18.5076,14.0006,8.3493,7.1699,7.2154,11.7331,6.4019,1.1322,12.2314,14.8034
621.0938,26.0786,10.5298,6.2884,21.5721,16.5098,5.7319,-4.7476,6.8917,14.7940,15.3774,11.4442,10.0751,9.9852,12.3857,5.8731,8.0317,4.9740,13.9164,19.3026
625.0000,14.8749,8.3025,7.0200,24.7486,17.8439,0.3737,-4.1495,8.7941,11.3261,8.8759,7.7280,9.4841,10.0172,14.7051,-0.9836,7.3898,5.9001,12.6410,21.2116
628.9062,1.4983,7.6900,7.3684,25.0920,17.2873,-6.4502,-3.1681,9.0065,7.2540,2.4106,4.0798,6.4214,7.5949,14.1520,-5.1741,5.3850,4.5186,9.6461,20.8873
632.8125,-9.0384,9.1700,8.8066,23.7569,16.3094,-10.6543,-0.4318,8.8575,5.1714,-0.2550,2.0566,2.5116,4.3899,11.9096,-4.4291,3.6493,2.6643,7.1238,19.6543
636.7188,-12.6643,11.6879,11.7018,21.7524,15.6241,-9.3234,4.1985,9.3551,6.2581,2.2845,2.2961,-0.2452,1.7712,9.1584,0.3697,3.1568,1.5579,6.3925,18.2725
640.6250,-8.3113,13.3569,14.4185,18.9103,14.4361,-2.8117,8.9791,10.1227,9.1439,7.9922,3.8364,-1.2048,-0.4179,6.1518,5.6108,3.3602,0.7205,6.7402,16.0010
644.5312,1.5012,12.8233,14.2482,14.1623,11.1783,5.5342,11.3437,9.6951,10.8750,12.8272,4.7450,-1.5466,-3.4990,2.3687,7.4412,2.6769,-1.3523,6.0235,11.2718
648.4375,12.0326,10.2823,9.5912,6.8709,5.1184,11.7858,9.8911,6.9204,9.3039,13.6146,3.6453,-3.0711,-8.3678,-2.5112,4.5159,-0.0230,-5.4103,2.5887,3.4560
652.3438,18.8431,7.3409,1.5762,-2.0500,-2.6097,14.0352,5.5825,2.1904,4.9267,10.1444,0.8701,-6.4430,-14.2021,-7.8264,-1.1210,-4.2015,-10.2781,-3.1152,-5.9159
656.2500,19.9190,5.8020,-6.3752,-10.3332,-9.5284,13.1864,1.0357,-2.6419,0.5719,4.9624,-1.7715,-10.4754,-18.7628,-12.1590,-5.7354,-7.8203,-13.4922,-8.6556,-13.7527
660.1562,16.1714,6.3079,-10.8565,-15.8070,-13.5190,11.5179,-1.5471,-5.6293,-0.8611,1.1898,-2.4606,-13.0981,-20.1222,-14.3991,-6.8273,-8.8310,-13.2907,-11.4325,-17.5128
664.0625,10.2396,7.9089,-10.8609,-17.8836,-14.2803,10.4539,-2.0383,-6.1984,1.2501,0.2286,-0.8427,-13.1305,-18.3017,-14.6541,-4.9255,-6.7779,-10.2023,-10.7005,-17.1052
667.9688,4.6464,8.8843,-8.3168,-17.7995,-13.3117,9.5215,-2.1785,-5.4453,4.7744,1.1410,1.7177,-11.2662,-15.3001,-14.1107,-2.8303,-3.1687,-6.7421,-8.1125,-14.9163
671.8750,0.6203,8.1296,-6.3534,-17.4005,-12.4640,7.2933,-3.6895,-5.0244,6.6011,1.9736,3.2794,-9.3962,-13.3906,-13.9071,-3.0081,-0.3015,-5.3543,-6.3487,-13.8381
675.7812,-1.8062,5.9720,-6.7485,-17.5315,-12.3338,3.2942,-6.4186,-5.6412,5.1493,1.6721,2.8460,-8.8829,-13.1307,-14.0159,-5.3882,0.4616,-6.3295,-6.9943,-14.8902
679.6875,-2.8721,3.7763,-8.6563,-17.4234,-11.8892,-0.9926,-8.2395,-6.4867,1.5189,0.8761,0.9814,-9.3296,-12.8507,-13.1902,-7.4517,-0.4633,-7.5334,-9.4178,-16.4243
683.5938,-2.3553,2.7295,-9.5857,-15.5686,-9.6032,-3.0359,-6.8930,-6.0791,-1.5987,1.0257,-0.9030,-8.9391,-10.1462,-10.1038,-6.5179,-1.5618,-6.2631,-11.4887,-15.5865
687.5000,0.2748,2.8815,-7.6918,-11.2514,-5.0392,-1.3369,-2.1768,-3.7021,-2.1995,2.7745,-1.8218,-6.1472,-4.1426,-4.7363,-2.2177,-1.7276,-1.6956,-11.4004,-10.8133
691.4062,4.9961,3.2738,-3.3827,-5.3340,0.5562,3.1679,3.5037,-0.1056,-0.4316,5.2762,-1.8430,-1.0964,3.4181,1.2297,3.0491,-1.2064,4.1750,-8.9898,-3.2644
695.3125,10.5188,3.0207,1.0796,0.4001,5.1874,7.6730,6.8425,3.1658,1.9430,7.0173,-1.5586,4.3324,9.2574,5.4201,6.1397,-1.1388,7.9693,-5.5101,3.9914
699.2188,14.4977,2.3523,3.5367,4.7258,7.7314,9.6251,6.2394,5.1760,3.4519,7.3686,-1.0382,7.9473,10.9600,6.4098,5.9544,-2.1686,7.5726,-2.2405,8.3215
703.1250,14.7187,2.6355,3.6938,7.9050,8.7893,8.6210,3.1018,6.4035,4.3541,7.3105,0.5816,8.9016,8.7325,4.6686,4.5177,-3.4611,3.8071,0.6853,9.4322
707.0312,10.5120,5.2705,3.1909,11.2022,10.0018,6.4950,0.7031,8.1688,6.2865,8.5419,4.3415,8.1964,5.1056,2.0736,5.2932,-3.1374,-0.2503,4.1528,9.2961
710.9375,3.4158,10.3662,4.0384,15.4276,12.4435,5.5900,1.5375,11.1862,10.4796,11.7249,10.1894,7.6875,2.9038,0.4557,10.0565,0.1369,-1.6966,8.8493,10.2873
714.8438,-3.4051,16.3433,6.8842,19.8671,15.5410,6.7678,5.3943,14.5981,16.2502,15.5241,16.4610,8.5339,3.2130,0.4137,16.9891,5.7557,0.0641,14.2045,13.1875
718.7500,-6.6637,20.8803,10.6323,22.6381,17.4906,8.9021,9.7436,16.4632,21.2492,17.4845,20.7855,10.4197,4.9642,1.2998,21.7332,11.2354,3.2009,18.5852,16.7172
722.6562,-4.5113,22.4981,13.6328,22.2236,16.8064,10.2309,12.0166,15.3606,23.3272,16.1419,21.7857,12.1003,6.2736,2.1876,20.7025,13.8062,5.2926,20.6278,18.8289
726.5625,2.6643,21.5300,15.2278,18.8322,13.6093,10.2572,11.7407,11.7129,22.3625,12.5383,20.1137,12.6200,6.1716,2.7828,14.0063,12.3083,5.4065,20.4625,18.4676
730.4688,12.5062,19.7209,16.1727,14.3281,9.4985,10.3834,10.6750,7.5992,20.3632,9.6769,17.8398,12.0211,5.1493,3.3900,5.5750,7.8993,4.5989,19.6099,16.2145
734.3750,21.7443,18.8135,17.5677,10.7222,6.1218,12.6021,10.9076,5.1285,19.6753,10.1761,16.6332,10.9518,4.1597,4.0510,0.3247,3.0609,4.5106,19.5367,13.3621
738.2812,27.4786,19.2823,19.3785,8.5144,3.7464,17.3619,12.7069,4.7316,20.8541,14.0112,16.3029,9.6862,3.2067,3.8535,0.5953,-0.2235,5.4661,20.1434,10.4530
742.1875,28.1840,20.1968,20.0481,6.3595,1.1455,22.5682,14.1310,4.8626,22.1189,18.3009,15.0328,7.6371,1.0358,1.3227,4.6637,-1.6358,5.9198,19.6310,6.7657
746.0938,24.1509,20.2135,17.7029,2.3974,-3.0639,24.7862,12.7970,3.4064,20.9441,19.4670,11.1876,3.9398,-3.6311,-4.2242,8.4032,-2.2105,3.8368,16.0204,1.2750
750.0000,17.2795,18.7680,11.9449,-3.8821,-8.8240,21.8207,8.2273,-0.3926,16.4293,16.0825,5.1315,-1.4016,-10.4148,-11.5219,8.6063,-3.0127,-1.2049,9.0859,-5.8495
753.9062,10.2986,16.4496,4.5900,-10.8791,-14.2566,14.5814,2.6110,-5.1474,10.3416,10.0654,-0.6132,-6.9521,-16.8133,-17.6013,5.2376,-4.0804,-7.1341,0.9824,-12.7260
757.8125,5.6470,14.3243,-1.4234,-15.9394,-16.9312,6.6296,-0.8102,-8.3815,5.8359,5.1772,-3.1607,-10.5597,-19.6326,-19.5455,0.9216,-4.5377,-10.6588,-5.1132,-16.8802
761.7188,4.4467,12.9055,-4.1206,-17.3619,-15.7487,1.6772,-0.3917,-8.5240,4.8879,4.0060,-1.5865,-10.8805,-17.2998,-16.5251,-1.6452,-3.6468,-9.7348,-7.3201,-17.1293
765.6250,6.0650,11.7374,-3.8245,-15.6513,-11.8250,0.9900,2.5461,-6.1292,6.6350,5.8988,2.1850,-8.4380,-11.1553,-10.4894,-2.0026,-1.7105,-5.1805,-6.4201,-14.5607
769.5312,8.5530,9.9375,-2.6109,-12.9458,-7.5847,2.7324,4.8829,-3.2802,8.0746,7.5507,4.7487,-5.2584,-4.5719,-4.8594,-2.0107,0.0660,-0.0594,-5.1068,-11.6604
773.4375,9.7706,7.1362,-2.3929,-11.1218,-4.8114,3.6976,4.4292,-1.7130,6.5427,5.7755,3.7640,-3.3278,-0.5444,-2.1525,-3.8141,0.6199,2.6776,-5.7263,-10.2691
777.3438,8.5571,3.8988,-3.3276,-10.2202,-3.3022,1.9494,1.8456,-1.3116,1.8596,0.1861,-0.4027,-3.1543,0.3204,-2.3504,-7.6397,-0.0327,2.3434,-8.4013,-10.1223
781.2500,5.2280,1.2209,-3.9249,-8.5513,-1.2515,-1.7605,0.0441,-0.2880,-3.6623,-6.3990,-5.2547,-3.6400,-0.1787,-3.2363,-11.4369,-0.8910,0.7222,-11.0980,-9.2644
785.1562,1.1161,-0.4029,-2.6948,-4.3661,3.0015,-4.8267,1.5571,3.1205,-7.2806,-10.1188,-8.3782,-3.3248,0.2865,-2.3529,-12.6508,-1.0314,0.2738,-11.5255,-5.9893
789.0625,-2.4557,-1.4028,0.2211,2.3784,9.3817,-5.0193,6.1672,8.9307,-8.0892,-9.0049,-9.3419,-1.8552,2.4712,1.0319,-10.4898,-0.6205,1.9495,-9.1901,-0.5934
792.9688,-4.9701,-2.5710,2.9731,9.7047,15.9894,-2.1899,10.9065,15.1753,-7.4950,-4.3214,-9.6700,-0.3430,5.0069,5.4787,-6.6297,-0.8570,4.4775,-5.8178,4.6349
796.8750,-6.6921,-3.9950,3.6009,15.0188,20.5286,1.8711,12.4837,19.3506,-7.5578,0.6611,-11.0273,-0.2896,5.7651,8.6595,-3.7294,-2.7994,5.6230,-3.8053,7.2209
800.7812,-7.9225,-4.5414,1.8764,17.0134,21.9636,5.0963,10.0678,20.2917,-8.7866,3.2993,-13.3571,-2.0728,3.8251,9.1698,-3.1120,-6.1286,4.2072,-4.0890,6.5366
804.6875,-8.2593,-2.5521,-0.3167,16.4404,20.9871,6.7526,6.0047,18.8714,-9.4879,3.3839,-14.7402,-4.4183,0.2713,7.3556,-3.7164,-9.0606,1.0819,-5.3279,4.2663
808.5938,-6.6294,2.6634,-0.5011,15.1484,18.9992,7.6284,3.8170,16.9868,-7.3509,2.7309,-13.1602,-5.4172,-2.8352,4.6181,-3.2767,-9.6537,-1.7276,-5.1345,2.8777
812.5000,-2.2139,9.7702,2.2433,14.3044,16.6420,8.8052,5.1919,15.8018,-1.8827,3.1300,-8.5802,-4.2405,-4.3077,2.0077,-0.6631,-7.4780,-2.8415,-2.2809,3.4319
816.4062,4.4301,15.8130,6.3686,13.4018,13.2860,10.2915,8.5554,14.8250,4.5595,4.5888,-3.3748,-2.0177,-4.7959,-0.5453,2.7674,-4.1796,-2.6269,2.0593,4.6628
820.3125,11.0641,17.9682,9.0172,10.9051,7.9279,10.8528,10.4685,12.6029,8.2403,5.4381,-0.5809,-1.0285,-6.0083,-3.7314,4.1236,-2.3346,-2.6335,5.1399,4.1387
824.2188,14.7678,15.3883,8.2778,5.8900,0.6076,9.1924,8.6354,8.3216,6.9212,4.1264,-1.4055,-2.8341,-8.9631,-7.7045,1.5095,-3.4473,-3.9739,4.8459,0.4815
828.1250,13.7249,9.7288,4.6168,-0.8533,-7.0711,5.3588,3.9164,2.8023,1.7249,0.9986,-4.1861,-6.9458,-12.9227,-11.4964,-4.0500,-6.7341,-6.2116,1.3846,-5.3255
832.0312,8.5586,3.9446,0.2894,-7.2852,-12.9231,1.0254,-0.4027,-2.0521,-3.6557,-1.6399,-5.8065,-11.2076,-16.0172,-13.6633,-9.0341,-9.7373,-7.8040,-2.9705,-10.7010
835.9375,2.1754,0.3030,-2.6861,-11.7479,-15.8709,-1.6858,-1.4557,-4.8692,-5.8231,-1.3434,-4.4323,-13.5930,-16.9743,-13.6041,-9.9809,-10.2932,-7.6658,-5.8235,-13.6217
839.8438,-1.9074,-0.8603,-4.1730,-14.2946,-16.8223,-1.8276,0.7010,-6.0004,-4.2572,2.3008,-1.2045,-13.8654,-16.3182,-12.2802,-6.1260,-8.2424,-6.3450,-6.5816,-14.2567
843.7500,-1.6591,-0.7835,-5.7491,-16.5097,-17.8799,-0.2681,3.0837,-7.1843,-1.4836,7.0593,0.6454,-13.6459,-15.8684,-11.5490,0.0225,-5.4812,-5.6407,-6.7183,-14.6356
847.6562,2.3681,-0.8050,-8.9626,-19.9700,-20.4997,1.2065,2.2773,-9.9547,-0.7412,9.6274,-1.4081,-14.8110,-16.9540,-12.5905,4.6183,-4.3513,-6.9458,-8.2170,-16.6722
851.5625,7.6573,-1.1398,-13.6690,-24.7231,-24.1919,1.5009,-2.6994,-14.2161,-3.1769,8.1684,-6.8422,-17.6258,-19.0086,-14.8067,5.3178,-5.7455,-9.8241,-11.6354,-20.3434
855.4688,11.5214,-0.9447,-18.0140,-29.1523,-26.9233,1.0692,-9.5730,-18.2774,-6.9506,3.7539,-12.2526,-20.2881,-19.9360,-16.2392,2.7505,-8.4973,-12.1930,-15.5274,-23.6840
859.3750,12.7100,0.4986,-20.0915,-31.3427,-26.8882,1.2536,-14.6669,-20.3140,-8.9530,-0.4750,-13.9809,-20.3566,-18.0407,-15.2390,-0.4238,-10.4842,-12.0524,-17.7157,-24.6105
863.2812,11.6961,2.6762,-19.7273,-30.7049,-24.0840,2.7415,-15.7811,-19.9209,-7.5796,-1.7529,-11.0475,-16.8882,-13.8113,-11.9711,-1.8899,-10.4171,-9.2710,-17.2463,-22.9035
867.1875,9.6089,3.9361,-18.6701,-28.3654,-20.2669,4.6166,-13.6576,-18.3217,-4.1369,0.2189,-5.9345,-11.4372,-9.8484,-8.4128,-1.4150,-8.7690,-5.8130,-15.2483,-20.4913
871.0938,6.8663,2.8123,-18.9035,-25.9513,-17.2928,4.9786,-10.9049,-17.0173,-1.6894,3.1582,-2.5564,-6.9952,-8.8123,-6.7742,-0.5974,-7.1333,-4.1294,-13.9078,-19.6836
875.0000,2.7664,-0.5475,-20.5538,-23.8762,-15.3185,2.6794,-9.4782,-16.1190,-2.3980,4.0704,-3.1132,-5.6829,-11.0728,-7.6577,-1.0702,-6.7062,-5.0768,-14.4542,-20.8890
878.9062,-3.5530,-4.1573,-21.3465,-20.7399,-12.5229,-1.3585,-8.9914,-13.9649,-5.6785,1.5568,-6.4404,-7.0844,-14.1408,-9.5352,-2.8881,-7.3070,-7.1833,-15.9519,-21.9065
882.8125,-11.6012,-5.4975,-18.2756,-14.4991,-6.7065,-4.5121,-7.2893,-8.5092,-8.7410,-3.2192,-9.1696,-8.5964,-14.5206,-10.0100,-4.5068,-7.7650,-7.9326,-15.9921,-19.5746
886.7188,-18.8683,-3.3629,-10.1804,-4.4720,2.5445,-4.3664,-2.6478,0.6465,-8.9741,-7.5224,-8.6266,-7.5057,-10.5319,-7.7893,-4.2506,-7.1985,-5.9552,-12.7149,-12.4821
890.6250,-21.8443,1.2338,0.9662,7.5752,13.0195,-0.6420,4.4368,11.3823,-6.0640,-9.0637,-4.9677,-3.0936,-3.7474,-3.6786,-1.8403,-5.8956,-2.2046,-6.4241,-2.4370
894.5312,-18.2334,5.8392,11.2371,18.2901,21.1850,4.4801,11.4607,20.2338,-2.0524,-7.4557,-0.7936,2.9011,2.2022,0.2311,1.3943,-4.9263,0.9210,0.5842,6.6316
898.4375,-8.8165,8.3764,17.4881,24.9204,24.6299,7.9675,15.8746,24.7396,0.5957,-4.1478,1.3013,7.7341,4.4873,2.4220,3.7151,-4.8794,1.7272,5.8036,11.5069
902.3438,2.5086,8.5217,19.4005,27.0477,23.6619,8.2031,16.9914,25.0422,1.1050,-1.1551,1.0212,9.7280,3.2105,3.1772,4.3934,-5.0138,0.7178,8.3536,11.9328
906.2500,10.7620,7.5763,19.1630,26.4594,20.7590,6.0746,16.1694,23.4099,0.8031,0.2849,0.4878,9.2612,1.0398,4.0749,4.0403,-3.7858,0.0784,9.3207,10.4424
910.1562,12.7510,7.0571,19.1644,25.3312,18.3840,4.0328,15.2250,22.1134,1.5571,0.1947,2.1260,7.9956,0.7147,6.2189,3.6600,-0.4104,1.5897,10.4055,9.9791
914.0625,8.8842,7.2969,19.7699,24.3180,17.0234,3.9489,14.6437,21.4868,3.7691,-0.5867,6.2321,7.1848,2.6155,8.8427,3.4830,3.9710,4.8380,12.1654,11.3724
917.9688,2.7272,7.2695,19.1415,22.1794,15.0617,5.5784,13.2748,19.8286,5.8401,-1.1450,10.4061,6.6071,4.5023,9.6394,2.8132,6.7543,7.3708,13.4536,12.7924
921.8750,-1.3643,5.7427,15.2184,17.1882,10.4901,6.8857,9.7475,15.1774,5.6344,-0.9116,11.3915,4.9968,3.6169,6.6497,1.0637,5.8160,6.7408,12.5344,11.5577
925.7812,-0.9167,2.6837,8.0318,9.0081,2.8781,5.8988,4.1924,7.3603,2.6038,0.3231,7.7659,1.4726,-0.7265,0.1112,-1.1122,1.3943,2.6855,8.8327,6.6409
929.6875,3.4127,-0.3818,0.2037,-0.6586,-6.1189,2.4915,-1.4549,-1.5198,-1.4187,2.4761,1.2009,-3.3925,-6.3595,-7.3814,-1.9069,-3.7626,-2.4790,3.7077,-0.3280
933.5938,8.6689,-1.4397,-4.9267,-9.2274,-14.0941,-1.4077,-4.9592,-8.6050,-3.5777,5.0889,-4.7502,-7.8193,-9.9928,-12.6543,0.1477,-6.2899,-5.6466,-0.4755,-6.3875
937.5000,11.7234,0.3782,-5.9872,-15.1521,-19.7992,-3.3278,-5.7482,-12.4802,-2.3833,7.2688,-7.2779,-10.1390,-9.9613,-14.2548,4.5374,-4.7254,-5.3894,-2.1838,-9.6749
941.4062,11.1331,3.9679,-4.7318,-18.9013,-23.8839,-2.2056,-5.4638,-14.1136,0.9675,8.0047,-6.1740,-9.9987,-7.5950,-13.3788,8.6184,-0.6271,-3.0026,-1.8678,-10.8105
945.3125,7.5679,6.9425,-4.6205,-22.1433,-27.8131,0.8261,-6.4753,-15.7093,3.5323,6.8647,-3.5088,-8.4537,-6.0357,-12.6764,9.4272,2.6437,-1.2585,-1.4612,-12.0743
949.2188,2.7961,7.3012,-7.9782,-25.9056,-31.9854,3.3960,-9.6178,-18.4906,3.0446,4.5440,-1.6323,-6.9867,-7.5545,-13.9715,6.1229,2.5006,-1.9944,-2.7226,-15.1970
953.1250,-1.7706,4.7631,-14.1224,-29.3947,-34.8294,3.7332,-13.2245,-21.3853,-0.2738,2.6186,-1.3567,-6.4307,-11.7145,-16.8298,0.9629,-1.0196,-4.6497,-5.8980,-19.7820
957.0312,-5.8224,0.7809,-20.0064,-30.5641,-33.8012,1.8721,-14.4346,-21.8036,-4.0604,2.4342,-1.8231,-6.7403,-15.9450,-19.1370,-2.2389,-5.5893,-6.9962,-9.8172,-23.7454
960.9375,-9.7540,-2.6485,-22.7549,-27.9406,-27.5086,-0.6577,-11.7094,-17.8657,-5.9627,3.8985,-1.9055,-7.6528,-17.9458,-19.0995,-1.1133,-8.7040,-7.3369,-13.1921,-25.2978
964.8438,-13.6512,-4.3381,-21.8709,-22.0717,-17.1454,-2.2358,-6.3205,-10.1516,-5.6547,5.2559,-1.6198,-9.3895,-17.7267,-16.8671,3.2272,-9.6977,-6.1442,-15.8018,-24.5946
968.7500,-16.6163,-4.3950,-19.2486,-15.2751,-5.9618,-2.3760,-1.4006,-1.4526,-4.9327,4.2655,-2.1134,-12.5379,-17.4424,-14.3528,6.9027,-9.9434,-5.6216,-18.4217,-23.5119
972.6562,-17.0412,-3.6451,-17.1067,-9.8704,2.8357,-1.7919,0.7017,5.2712,-5.8441,0.0328,-4.2703,-17.1343,-19.1816,-13.4459,6.3108,-11.1643,-7.5608,-21.5989,-23.7471
976.5625,-13.6320,-2.6977,-15.7910,-6.4270,8.0409,-1.4060,0.4499,8.9832,-8.5753,-5.9569,-7.3637,-21.8829,-22.7319,-14.2379,1.0980,-13.4715,-11.4341,-24.5263,-25.0126
980.4688,-6.4122,-1.5224,-13.4719,-3.5567,10.7100,-1.3046,0.6743,10.9606,-11.0427,-10.5745,-9.2008,-24.4784,-25.4043,-14.8710,-5.3840,-14.9766,-14.5108,-25.2384,-25.0530
984.3750,3.0223,0.2077,-8.0175,0.5818,12.6600,-0.5980,3.9544,13.2384,-10.5946,-11.1529,-7.8073,-23.0438,-24.1854,-13.1796,-8.5794,-13.4128,-14.0144,-22.1282,-21.5788
988.2812,12.1447,2.5167,0.6633,6.4079,14.6223,1.7312,10.1028,16.5499,-6.3252,-7.3914,-3.1877,-17.5961,-18.4005,-8.7076,-6.2106,-8.3580,-9.5114,-15.4901,-14.4489
992.1875,18.5687,4.9738,9.9786,12.3318,15.6690,5.7930,16.0303,19.5918,0.0677,-1.5502,2.4953,-10.2504,-10.5531,-3.3360,0.0513,-2.0324,-3.4551,-7.6410,-6.1359
996.0938,20.8896,7.1610,16.3957,15.9670,14.3083,10.4938,18.2357,20.2121,5.6626,3.2552,6.6082,-3.8482,-4.5469,0.0499,6.0401,2.1765,0.6359,-1.3589,0.0185
1000.0000,18.9365,9.2346,18.1264,16.0571,10.1318,14.2154,15.8200,17.3987,8.7153,5.3216,8.1786,-0.0359,-2.7496,-0.2593,8.4298,2.3340,0.8558,2.1146,2.3073
1003.9062,13.5479,11.8931,16.4427,13.4213,4.4447,15.8584,11.3686,12.2619,9.9483,5.3859,8.5661,1.6476,-4.3513,-3.5866,7.2039,-0.4758,-1.7851,3.8078,1.7823
1007.8125,6.2309,15.6192,14.4703,10.1157,-0.7025,15.3902,8.8182,7.1449,11.5910,5.6374,10.0175,2.9334,-6.3463,-7.5793,5.2906,-3.0200,-4.4628,5.8345,1.0570
1011.7188,-1.0734,19.8322,14.4909,7.6062,-4.1733,13.5422,10.0505,3.6923,15.0510,7.6035,13.3561,4.9796,-6.2048,-10.1362,5.7890,-2.5743,-5.0040,9.3040,1.8774
1015.6250,-6.2154,22.8129,16.0721,5.6091,-6.5568,11.0633,13.1408,1.6257,19.3435,10.7206,16.9096,7.1559,-3.8905,-10.8684,9.1850,0.8132,-3.5489,13.1578,3.6159
1019.5312,-7.3085,22.6756,16.6099,2.6179,-9.3937,8.2460,13.8523,-0.7026,21.7450,12.7930,17.7544,7.5610,-1.5393,-10.9284,12.9016,4.3498,-2.0427,14.9778,3.9944
1023.4375,-3.5123,18.7484,13.7627,-2.4171,-13.5584,5.0787,9.2094,-4.5389,20.1516,11.9242,14.3053,4.8674,-1.2308,-11.5555,13.5178,4.8213,-2.1591,13.0907,1.3371
1027.3438,4.2053,12.2815,7.6261,-8.8382,-18.3228,1.7347,0.1657,-9.4082,15.0710,8.2459,8.0075,-0.1173,-2.9623,-12.8017,9.7609,1.3086,-3.6410,8.1357,-3.7181
1031.2500,12.9157,5.8685,0.7622,-14.6427,-21.9890,-1.1917,-8.9109,-13.4762,9.4622,3.9545,2.5598,-4.6113,-4.6980,-13.6377,3.7694,-3.9373,-4.6057,2.7073,-8.6288
1035.1562,18.6072,1.9608,-3.9020,-18.1493,-23.4932,-2.9879,-13.5556,-15.2542,6.5035,1.6093,1.1864,-5.7500,-4.4321,-13.2664,-0.4063,-7.1728,-3.5145,-0.6480,-11.1370
1039.0625,17.9406,1.5483,-5.4478,-19.4341,-23.4345,-3.3733,-12.5970,-15.0373,7.1835,2.1317,4.1799,-2.7334,-2.3314,-12.2757,0.1681,-6.0194,-0.9335,-1.3683,-11.2656
1042.9688,10.0905,3.8906,-5.5549,-20.1815,-23.4777,-2.7396,-8.8484,-14.6802,9.7576,4.1806,8.7646,2.5106,-0.8971,-12.3712,5.1687,-1.2010,0.6503,-1.0931,-11.2867
1046.8750,-2.3906,7.3079,-6.8596,-22.0219,-24.6024,-1.8236,-6.6114,-15.8350,11.4643,5.3956,11.3891,6.6983,-2.8492,-14.7697,11.3633,4.1643,-1.0584,-2.0181,-13.6195
1050.7812,-14.3891,10.2552,-10.5742,-24.8408,-25.8282,-1.1255,-8.1493,-18.2322,10.9276,4.4098,10.5166,7.5059,-8.5262,-18.6800,15.0295,7.0349,-5.9432,-4.8696,-18.4905
1054.6875,-20.5678,11.8616,-15.4379,-26.6271,-24.7298,-0.6500,-12.0507,-19.6318,9.1186,1.9127,7.5968,5.0194,-15.1363,-21.3909,14.4751,6.6348,-11.1814,-8.2862,-23.4527
1058.5938,-18.1329,11.7713,-18.8253,-25.0835,-19.4758,-0.2338,-14.6984,-17.6121,8.1022,-0.0973,5.4930,1.2846,-18.6655,-20.1517,10.8181,4.6750,-13.2953,-10.1212,-25.2604
1062.5000,-8.5169,9.8065,-18.9221,-19.6316,-10.6749,-0.1088,-13.4131,-11.6943,8.8092,-0.1588,5.8208,-1.5013,-16.9564,-14.4156,6.7175,3.6185,-10.9071,-9.4584,-22.5302
1066.4062,3.1289,6.0226,-16.0219,-12.0390,-1.3327,-1.0511,-8.5379,-3.9257,9.9489,1.3467,7.5376,-2.5935,-11.4121,-6.5586,4.3166,4.5615,-5.8780,-7.5027,-16.9063
1070.3125,10.5912,1.1377,-11.9074,-5.0837,5.2135,-3.7983,-2.8233,2.6500,9.1147,2.5601,7.9612,-2.8658,-5.9004,-0.3568,4.0235,6.4644,-1.8388,-6.5249,-11.7322
1074.2188,10.0723,-3.2821,-8.0711,-0.4019,7.7393,-8.1314,1.1096,6.3500,5.1055,1.8329,5.2534,-3.6330,-3.7677,1.6480,4.8071,7.2116,-1.3208,-7.8030,-9.3844
1078.1250,2.4999,-5.4319,-4.5375,2.5959,7.8990,-12.4504,2.8580,8.0008,-0.6772,-0.7563,0.1488,-5.3286,-5.4278,-0.1773,5.3879,5.4464,-3.8764,-10.4161,-9.5519
1082.0312,-6.8322,-4.4736,-0.3692,5.7981,8.6332,-14.3901,4.1000,9.8846,-5.1153,-3.3933,-4.5711,-7.2077,-8.4335,-3.1347,5.1790,1.6115,-6.7030,-12.0069,-9.8718
1085.9375,-11.2984,-1.3869,4.7520,10.3139,11.5524,-12.1998,6.5791,13.4388,-5.8604,-4.0443,-6.3560,-8.1960,-9.7995,-4.4580,4.3541,-2.5455,-7.1364,-10.8621,-8.2453
1089.8438,-6.9762,1.4338,9.5583,15.1562,15.5325,-5.9426,10.2442,17.7790,-3.2693,-2.2016,-4.9007,-7.9551,-8.4857,-3.3534,3.3296,-5.4006,-4.8205,-7.4705,-4.7229
1093.7500,4.7708,1.7910,11.9678,17.9339,17.7356,2.3719,13.3028,20.3933,-0.0710,0.6255,-2.1872,-7.1291,-5.9568,-1.1948,2.3602,-6.5270,-1.7377,-4.1584,-1.3115
1097.6562,17.8714,-0.6449,11.0015,16.9821,16.1642,9.8410,14.0457,19.4066,0.9635,2.0780,-0.6338,-6.6096,-4.5254,0.0999,1.5913,-6.6118,-0.2160,-3.1079,0.0145
1101.5625,25.0597,-3.9895,8.0137,13.0089,11.5107,14.1790,12.5731,15.3696,-0.6894,0.7874,-1.0830,-6.6305,-5.1302,-0.0628,1.2848,-6.5098,-0.7940,-4.5090,-0.8121
1105.4688,22.1792,-5.5506,5.8674,8.6849,6.6487,14.6970,10.6519,10.9008,-3.0645,-2.6199,-2.4065,-6.6408,-6.5895,-0.5315,1.7530,-6.4230,-1.8737,-6.4935,-1.9645
1109.3750,10.5537,-3.9708,6.5296,6.4051,4.1594,12.2519,9.7633,8.4065,-3.6946,-6.1055,-2.9488,-6.0893,-6.9262,0.2464,2.9531,-5.9202,-1.4130,-6.9146,-1.6265
1113.2812,-4.0628,-0.3875,9.1330,6.1178,4.0173,8.4370,9.2508,7.8589,-2.0083,-7.8087,-2.3341,-5.2893,-5.4356,2.4185,4.2176,-4.6276,0.9592,-5.3848,-0.0014
1117.1875,-15.1633,2.3976,10.3455,5.1676,3.4709,4.7037,6.5479,6.6499,0.0514,-7.3059,-1.8732,-5.3829,-3.5107,4.1899,4.5867,-2.8067,3.3986,-3.7366,0.5199
1121.0938,-19.2516,2.1325,6.9699,0.4184,-0.7030,1.9067,-0.4108,1.7743,-0.2187,-5.6064,-3.1711,-7.2799,-3.4277,3.1426,3.6064,-1.2271,3.4258,-4.4582,-2.6633
1125.0000,-17.2078,-1.0799,-1.3066,-9.0446,-9.4164,0.2674,-10.6568,-7.4486,-3.7211,-4.0938,-6.2902,-10.5186,-6.2047,-1.6791,1.8636,-0.4984,0.2251,-8.4650,-9.9173
1128.9062,-12.5981,-4.8932,-11.3724,-20.8812,-20.2637,-0.5314,-19.9982,-18.4385,-8.5287,-3.4540,-9.3056,-13.2343,-10.5287,-8.7319,0.6151,-0.5598,-4.4389,-14.1729,-18.6551
1132.8125,-8.5241,-6.6863,-18.9316,-30.9997,-29.0976,-1.2606,-23.7652,-27.0417,-11.3947,-3.4748,-9.8370,-13.5020,-13.7885,-14.9263,0.6750,-0.8451,-7.5806,-18.7050,-25.0822
1136.7188,-5.5696,-5.7563,-21.7254,-36.3462,-32.8517,-2.9051,-20.4550,-30.4618,-10.5329,-3.6904,-7.2628,-11.0249,-14.3215,-17.8035,1.5225,-0.9342,-7.4848,-20.1815,-26.9818
1140.6250,-2.3513,-3.8831,-21.0482,-36.6877,-31.3152,-6.1007,-13.2145,-29.0108,-7.2133,-4.0662,-3.5688,-7.6555,-12.8422,-17.1383,1.5589,-1.0062,-5.1393,-19.0927,-25.1781
1144.5312,2.0576,-3.7554,-20.2864,-34.0402,-26.5815,-10.4511,-7.6922,-25.3070,-4.7073,-4.9897,-1.9000,-6.1132,-11.7339,-14.6947,-0.5269,-1.6148,-3.3253,-17.5800,-22.4562
1148.4375,6.1694,-6.5663,-21.7521,-30.4512,-20.9198,-14.3217,-7.7826,-21.7586,-5.4455,-6.6162,-3.9318,-7.8107,-12.8093,-12.4722,-4.4049,-3.0189,-4.1448,-17.3215,-20.9519
1152.3438,6.5647,-10.8209,-24.5508,-26.2280,-15.0779,-15.5754,-12.6382,-18.6040,-8.8650,-8.3347,-8.3224,-11.5797,-15.5624,-11.0401,-8.0479,-4.7896,-7.1599,-17.9610,-20.3581
1156.2500,0.6965,-13.4166,-25.3360,-20.1814,-8.4403,-13.0058,-17.3957,-14.1976,-11.8622,-9.0420,-11.6752,-14.4510,-17.5279,-9.3852,-9.2231,-6.1741,-9.7935,-17.5128,-18.5299
1160.1562,-10.2432,-12.1460,-21.2990,-11.5450,-0.6493,-7.4746,-17.0575,-7.1606,-11.4995,-8.1148,-11.2904,-13.9629,-16.4835,-6.2865,-7.3838,-6.9196,-9.6469,-14.3691,-13.8869
1164.0625,-21.0084,-7.5493,-12.7989,-1.6474,7.0718,-1.7189,-10.3899,1.6702,-7.6140,-6.2027,-7.3971,-10.1454,-12.5497,-1.8614,-4.3164,-7.7105,-6.6958,-9.0498,-7.3524
1167.9688,-25.2854,-2.5489,-3.3389,6.3915,12.3277,1.3110,-0.7228,9.3767,-3.0243,-5.0015,-2.9463,-5.5308,-8.2844,2.1768,-2.8507,-9.6493,-3.4242,-4.0255,-1.9601
1171.8750,-20.0465,-0.1347,3.1093,9.8635,13.4328,0.5137,6.8664,13.1505,-1.1100,-6.0273,-1.1128,-3.1498,-6.6267,3.8004,-4.5994,-13.1139,-2.7720,-1.6664,-0.3659
1175.7812,-7.9980,-0.9856,5.1456,8.6954,11.0203,-2.4772,9.5273,12.6114,-2.8453,-9.3376,-2.6247,-4.1443,-8.4603,2.3233,-8.6099,-17.0308,-5.6850,-2.1049,-2.4538
1179.6875,3.9342,-2.9746,4.7712,5.6619,7.7650,-4.4049,8.4707,10.1354,-5.8709,-13.2888,-5.1893,-6.9538,-11.9243,-1.0617,-12.1147,-19.3735,-10.3847,-2.9629,-5.2416
1183.5938,9.1925,-2.9439,5.3707,4.2421,6.2757,-2.7956,7.3080,8.8113,-6.4432,-15.5942,-5.4835,-8.7139,-14.0681,-4.3241,-12.7834,-18.6484,-13.9389,-1.3073,-5.3002
1187.5000,5.9536,0.7212,8.6740,5.8490,6.9274,2.1383,8.5515,9.7653,-2.6089,-14.8654,-1.9939,-7.6644,-13.3723,-6.2395,-10.5539,-15.1707,-14.6896,3.7826,-1.6533
1191.4062,-1.9409,6.8076,13.3503,8.7733,7.5744,7.6023,11.4024,11.2121,4.1035,-11.4228,3.6973,-4.5571,-10.9054,-7.1377,-7.4659,-10.9776,-13.3895,10.2587,3.3765
1195.3125,-8.1164,12.2564,16.3827,9.7609,5.4906,10.3036,12.6886,10.1115,9.8988,-6.8076,8.1990,-1.9423,-9.1215,-8.1256,-5.6791,-8.3313,-12.1189,14.6447,6.1594
1199.2188,-8.3924,14.5205,15.8978,6.8901,-0.0973,8.9206,9.9820,5.0214,11.7667,-2.5306,8.9879,-2.0115,-9.4344,-9.6005,-5.5037,-8.0065,-12.0817,14.8169,4.8866
1203.1250,-3.4716,13.3486,12.8728,1.2888,-7.1057,5.0403,4.0362,-2.3555,9.7630,0.8164,6.1917,-4.8423,-10.8101,-10.5536,-5.2844,-8.8120,-12.3778,11.6790,1.1056
1207.0312,2.3445,10.6417,10.2101,-3.7704,-12.1732,1.8670,-1.6442,-8.3305,6.6576,3.4066,2.1074,-8.4517,-10.6939,-9.4222,-3.2886,-8.7753,-10.9152,8.3212,-1.6941
1210.9375,5.1410,8.6927,10.0626,-5.5957,-13.4052,1.7784,-3.7099,-10.1475,5.4024,5.3297,-0.8848,-10.4749,-7.4579,-5.7577,0.1716,-6.9640,-6.6148,7.4048,-1.2064
1214.8438,4.6865,8.4110,11.8631,-4.2661,-11.9159,4.6809,-1.7714,-8.1714,6.7088,6.0544,-2.0436,-9.9435,-2.1278,-1.1089,2.5174,-4.3228,-0.8164,9.0183,1.6178
1218.7500,4.3118,8.9841,12.8521,-2.4233,-10.8150,8.3871,1.3511,-5.4749,8.7983,4.8597,-2.1905,-7.6870,2.2497,1.8654,1.0779,-2.7497,3.5259,10.8073,3.4088
1222.6562,7.5428,9.0612,10.6218,-2.9069,-12.5089,10.5382,2.1088,-5.1988,9.3657,1.8701,-2.2026,-5.2062,3.1290,1.4489,-4.1151,-3.2192,4.2558,10.1859,1.4156
1226.5625,14.4010,8.2112,5.3552,-6.3273,-16.6566,10.3703,-0.7696,-7.9694,7.8259,-1.3955,-1.7775,-3.2175,0.6643,-1.6670,-9.5335,-4.6788,1.8951,6.6464,-3.9398
1230.4688,20.6103,7.2727,-0.2818,-10.6655,-20.5445,8.8823,-5.3477,-11.5596,5.7622,-2.7381,0.2007,-1.2516,-2.4128,-4.8644,-10.4736,-4.8352,-0.7662,2.1605,-9.2823
1234.3750,20.5737,7.3322,-3.4986,-13.1490,-21.4990,7.4409,-8.3338,-12.9852,5.2392,-0.8971,4.0644,1.4166,-3.1961,-5.7332,-4.9004,-2.2637,-1.1177,-0.6084,-11.1329
1238.2812,11.8478,8.3853,-3.8235,-12.6380,-19.1586,6.2327,-7.9626,-11.1017,6.6551,3.2369,8.2665,4.5453,-1.1937,-4.0714,4.3566,1.9987,0.9078,-0.6244,-8.8946
1242.1875,-2.4708,9.0463,-3.3574,-10.3587,-15.5651,4.0534,-5.3182,-7.3893,8.2382,6.9655,10.1736,6.7414,1.2252,-1.9974,11.1596,4.9092,2.6982,0.7601,-5.3158
1246.0938,-15.4464,7.7027,-4.5555,-8.3780,-13.0132,-0.3412,-3.0019,-4.3006,7.7379,7.6085,8.3204,6.6292,0.9969,-2.0048,10.4827,3.7435,1.2880,1.2508,-3.9733
1250.0000,-20.8809,4.1405,-7.5541,-7.3096,-11.6526,-6.5702,-2.4830,-2.7660,4.7618,4.4603,4.1000,4.3226,-2.7226,-4.5988,2.3211,-1.5679,-3.8182,-0.0893,-5.9628
1253.9062,-17.3220,0.1492,-9.5792,-5.4700,-9.1170,-12.2538,-2.6428,-1.2170,1.5124,-0.6841,1.0895,1.7310,-7.4972,-7.5822,-8.0920,-8.0986,-9.8206,-1.8156,-8.7461
1257.8125,-8.5815,-1.5710,-7.1679,-0.3944,-2.6599,-14.4503,-0.8916,2.9088,1.0736,-4.8803,2.2226,1.2088,-9.4497,-7.6969,-14.0872,-11.9947,-12.6346,-1.3314,-8.2575
1261.7188,-0.6220,0.5788,0.6197,8.5804,8.0184,-11.8271,4.1530,10.5073,4.6473,-6.1905,7.0947,3.5847,-6.5097,-3.3032,-12.4729,-11.3477,-10.1299,2.6934,-2.5137
1265.6250,2.5831,5.7721,10.8476,19.0409,19.8201,-5.7958,10.9136,19.4541,10.2097,-4.9248,11.8653,7.2875,-0.2906,4.1476,-5.7118,-7.5433,-3.8833,8.8813,6.4027
1269.5312,1.0876,11.2023,18.5596,26.8630,28.2061,0.3528,15.7373,25.9236,13.9045,-3.0384,12.1602,9.4393,5.0731,11.1125,0.3025,-3.9889,2.0464,14.0207,13.7763
1273.4375,-2.2432,13.9543,20.4401,29.2380,30.5635,3.6405,15.7696,27.3744,13.0970,-2.3111,6.7474,8.1052,6.2128,14.6119,0.9907,-3.3017,4.3033,15.5527,15.9692
1277.3438,-4.6638,12.8455,17.2562,26.8385,28.1797,3.1992,11.3545,24.6398,8.5013,-2.9158,-1.1149,3.8471,3.1929,14.3422,-3.4974,-5.3078,2.7156,13.5443,13.2934
1281.2500,-5.5074,8.8939,13.0311,23.2287,25.1070,0.3595,5.8452,21.2467,3.5361,-3.5609,-5.9777,-0.7268,-0.6668,12.5346,-8.8550,-7.4781,0.0572,10.4595,9.6246
1285.1562,-5.7277,4.2550,11.6604,21.9389,24.8131,-2.8158,2.9334,20.4632,1.4599,-2.9543,-4.4292,-3.0266,-1.6181,11.7863,-10.4825,-7.3282,-0.5778,8.9745,9.1034
1289.0625,-5.9415,0.6707,13.8388,23.6247,27.3989,-5.1629,3.7464,22.5659,2.7686,-1.1656,2.1845,-2.4026,1.4609,12.7969,-7.2860,-4.6450,1.5555,9.7758,12.7321
1292.9688,-5.2201,-1.3163,16.8481,25.6802,29.6868,-6.8646,6.1378,24.6694,5.0960,0.4048,8.8361,-0.3295,6.3305,13.9425,-2.2585,-1.6052,4.4173,11.2460,17.7007
1296.8750,-2.0014,-1.9824,17.2453,24.5867,28.0457,-8.5662,6.6822,23.2672,5.6293,0.4332,10.8543,1.1916,9.4673,12.9622,0.4625,-0.7317,5.2252,11.2204,19.8956
1300.7812,3.7192,-1.5545,13.9931,18.9555,21.4996,-10.2288,3.5747,17.2880,3.8201,-0.8616,7.6153,1.4919,9.0365,9.1670,-0.6339,-2.5436,3.0445,9.1430,17.3307
1304.6875,9.2240,0.1549,9.2718,10.6645,12.4813,-10.9286,-2.0353,9.0341,1.9241,-1.6300,2.8694,1.6526,6.1719,4.1697,-3.1420,-5.0144,-0.4146,6.6235,11.5559
1308.5938,10.5122,3.2761,6.3373,3.1838,4.6698,-9.7876,-7.2657,2.2158,2.8723,0.1027,1.5190,3.1427,3.5768,0.4897,-3.0017,-5.3443,-2.4462,5.8843,5.9720
1312.5000,5.5555,7.1809,6.4420,-1.3740,-0.1231,-7.0542,-10.0011,-1.1743,7.4062,4.5851,5.6186,6.0115,2.8657,-0.6872,1.7283,-2.4855,-1.8707,7.5411,2.7185
1316.4062,-3.3320,10.4409,7.6453,-3.8655,-3.2651,-4.1548,-10.3839,-2.4038,13.1092,9.8073,12.9322,8.4234,3.1284,-0.5571,8.9124,1.8292,-0.0897,9.7974,0.9785
1320.3125,-10.3472,11.6886,6.6062,-7.0032,-7.6990,-2.5317,-10.0961,-4.6222,16.2848,12.8752,19.0999,8.1121,2.0030,-1.5805,13.9137,4.4998,0.2966,9.8744,-1.8339
1324.2188,-10.0926,10.6698,1.7299,-12.5524,-14.8927,-2.3163,-10.3375,-9.7939,15.0579,12.2314,21.3472,4.5216,-1.8001,-5.1717,13.3538,3.6997,-1.9755,6.4540,-7.1965
1328.1250,-1.6922,8.4744,-5.2052,-19.3616,-23.0911,-2.1630,-10.5686,-16.6579,10.9281,8.8739,20.4381,-0.3507,-6.9296,-10.2561,7.8366,0.4239,-5.5130,0.9435,-13.6360
1332.0312,10.1498,6.6161,-10.4615,-24.0045,-28.4638,-0.5518,-9.2489,-21.5287,7.3484,5.5169,19.2688,-3.3469,-10.3276,-14.0112,1.3499,-2.4377,-7.4428,-3.6224,-17.6926
1335.9375,18.1867,5.7149,-11.5660,-23.4998,-28.1787,2.5597,-5.7918,-21.2664,6.5778,4.3677,19.5814,-2.7297,-9.9075,-14.1873,-2.0728,-2.7005,-6.0788,-5.1210,-16.8878
1339.8438,17.5931,4.9883,-9.4335,-17.7489,-22.7268,5.3309,-1.6996,-15.8528,7.6545,5.3848,19.9798,0.2591,-6.5627,-10.9935,-1.5309,-0.8577,-2.6521,-4.0755,-12.0271
1343.7500,9.1348,3.0999,-7.4188,-9.5854,-15.4619,5.4661,0.4410,-8.3644,7.3895,6.4830,17.2227,2.3191,-3.6070,-6.8994,0.3975,0.3584,-0.4430,-3.0149,-6.6954
1347.6562,-1.7694,-0.3229,-8.0800,-2.4274,-9.7562,2.3774,-0.6463,-2.4077,3.5672,5.4986,9.7109,0.8503,-4.0053,-4.5225,0.3103,-1.5045,-1.9624,-4.0043,-4.2834
1351.5625,-9.1796,-3.8880,-10.5545,2.3903,-6.2502,-1.8515,-3.3711,0.7340,-2.5319,2.2209,-0.0672,-3.7426,-7.7654,-4.4415,-2.7841,-6.2204,-6.6343,-6.5615,-5.1039
1355.4688,-10.6218,-5.2106,-11.0009,6.2968,-2.5884,-3.7669,-4.2125,2.7932,-6.6993,-1.2710,-6.6362,-8.2145,-11.7992,-4.8372,-6.5047,-10.7702,-11.0846,-7.8953,-6.1381
1359.3750,-7.9335,-2.7576,-5.8907,11.6622,4.1482,-1.2448,-0.5987,6.5427,-5.1929,-2.2823,-5.6107,-9.0928,-12.4539,-3.2479,-7.2193,-11.7306,-11.8954,-5.3621,-3.6779
1363.2812,-4.7008,2.7458,4.6389,19.1799,14.4573,4.6147,6.6989,12.9830,1.8761,0.2111,2.5596,-5.6214,-8.5747,1.1271,-3.3651,-8.1928,-8.4975,0.9698,3.3977
1367.1875,-2.8031,8.5954,16.3304,26.8376,25.5029,10.0990,13.8547,20.2087,10.1599,4.5975,12.4441,-0.5600,-2.4717,6.6169,2.9369,-2.7123,-3.6824,7.9493,12.5372
1371.0938,-1.1050,11.9478,23.7791,31.4119,33.0909,11.6725,16.9063,24.9288,14.2142,7.8091,17.4567,1.9049,2.0427,10.4699,7.3785,0.5905,-1.2427,11.6184,19.5407
1375.0000,2.7553,11.7798,24.4184,31.1530,34.8452,8.7376,14.9041,25.2441,11.6732,7.6835,14.7022,-0.5076,2.8497,11.2076,6.8191,-0.7416,-2.7331,10.2892,21.9180
1378.9062,9.3292,9.4033,20.2116,27.2589,31.8804,4.0818,10.5789,22.1953,5.0198,4.5729,6.9807,-6.2833,1.2010,9.8538,1.7111,-5.5885,-6.1355,5.8425,20.6815
1382.8125,15.9990,7.1801,15.6942,22.8154,27.5928,1.5892,7.8925,18.7263,-0.5033,0.9241,0.3986,-11.1844,0.4570,8.9420,-4.3308,-10.1928,-7.5841,2.1477,19.0917
1386.7188,18.6602,6.5800,14.1108,20.1314,24.6849,3.0739,8.5497,17.0281,-1.0719,-0.7564,-0.3889,-11.4020,3.0153,10.1683,-7.3286,-11.1145,-4.6828,1.9417,19.5482
1390.6250,15.0392,7.2240,14.9529,18.8202,23.0112,6.8559,10.5036,16.6525,2.9263,0.1568,4.5590,-6.2886,8.0989,12.7556,-5.7528,-7.7376,1.4136,4.7796,21.4046
1394.5312,6.7183,7.6318,14.8923,16.3084,20.0398,9.2577,9.7973,15.0626,7.6990,2.1029,11.1472,1.3833,12.2883,13.9813,-1.1928,-2.3582,6.9037,7.7014,21.5961
1398.4375,-1.9698,6.8704,11.1072,10.3056,13.4123,7.7448,4.1768,10.0920,9.5618,2.7969,14.9557,7.6296,12.2939,11.4417,3.3269,2.0019,8.4168,7.9055,17.4532
1402.3438,-7.2694,5.5303,3.9724,1.0434,3.2923,3.0561,-4.6697,2.0868,8.0144,1.1554,14.6569,10.0174,7.5761,5.1235,5.6930,4.0228,5.6344,5.0540,9.1693
1406.2500,-8.6663,5.1193,-3.2335,-8.6721,-7.5293,-1.4645,-12.2286,-6.1773,5.7705,-1.8859,12.3630,8.8634,0.6471,-2.4710,5.7658,4.6749,1.3020,1.2742,-0.2320
1410.1562,-8.5700,6.4533,-7.2077,-15.5977,-15.7741,-2.7254,-14.7070,-11.6981,5.9147,-4.2034,10.9947,6.2524,-5.0466,-8.2140,4.6242,5.6506,-1.2319,-0.9685,-7.3135
1414.0625,-9.3543,8.5961,-7.3892,-18.4647,-20.1135,-0.4650,-11.9658,-13.5781,8.8900,-4.1305,11.3553,4.0746,-7.7183,-10.6308,3.1269,7.2680,-0.7324,-1.0866,-10.8159
1417.9688,-10.5110,9.4481,-6.0906,-18.5650,-21.7939,2.6641,-7.3383,-13.4233,12.0856,-1.5302,11.6403,2.8437,-8.1256,-10.6834,1.3154,7.8982,1.2433,-0.6515,-12.1552
1421.8750,-8.6771,7.5974,-5.9457,-18.1062,-23.0378,3.5545,-4.5668,-13.5411,12.3647,2.4381,9.6886,2.0568,-8.2313,-10.5384,-0.9193,5.5008,2.0927,-1.5664,-13.5363
1425.7812,-0.7876,3.8350,-7.1224,-17.9443,-24.8036,1.4994,-4.6004,-14.6674,9.1782,6.4201,5.6722,1.3420,-9.1202,-11.5397,-2.8832,-0.1324,0.5975,-3.9263,-15.5664
1429.6875,12.2921,0.9200,-6.9823,-16.8248,-25.9749,-1.0509,-5.0652,-15.3483,5.3557,9.7587,2.5165,1.0500,-10.1659,-13.1908,-3.1127,-6.5518,-2.1751,-5.6452,-16.6443
1433.5938,25.0210,1.6464,-2.6127,-12.8238,-24.6496,-0.5186,-2.7984,-13.5341,4.7712,12.4913,3.4979,1.7291,-10.0848,-13.9292,-0.5931,-10.1537,-4.1695,-4.2831,-14.6680
1437.5000,30.4683,6.7409,6.0581,-5.6085,-20.2299,4.6958,2.9199,-8.8522,8.9287,14.7092,9.1690,3.1982,-8.6282,-12.8191,3.9955,-8.8590,-4.4432,0.5835,-9.3785
1441.4062,25.3711,14.3171,15.5127,2.6695,-14.2864,12.6736,9.4176,-3.3553,15.5436,16.1066,16.5094,4.4017,-7.0665,-10.5085,8.3820,-3.7184,-3.9924,6.6887,-3.0133
1445.3125,12.9758,21.3199,21.1698,8.8156,-9.3396,19.3140,12.8688,0.0805,20.4487,16.2369,21.2469,4.3937,-6.8620,-8.5661,10.3341,1.9289,-4.5192,10.8514,1.4956
1449.2188,1.1788,25.7197,21.1061,11.1740,-6.6710,21.4269,11.7107,0.3279,21.1770,15.1721,21.3865,3.5112,-7.8243,-7.8784,9.4634,5.0432,-6.3918,11.6972,3.1873
1453.1250,-2.8842,27.6190,17.6848,11.0280,-5.2204,19.0040,8.1092,-0.8293,19.0238,13.7690,18.7833,3.3837,-7.7293,-7.6841,7.5179,5.0432,-7.8848,10.8579,4.0732
1457.0312,2.1988,28.4277,15.5205,11.4629,-2.6526,14.8476,6.0591,-0.1421,17.7056,13.0971,17.2585,5.4309,-4.1069,-6.2236,6.7599,3.7815,-6.6123,11.4483,7.3548
1460.9375,11.3409,28.9802,17.4164,14.5875,2.3368,11.9998,7.7483,4.1953,19.7611,13.4461,18.8672,9.0616,3.2202,-2.4409,7.8223,3.4983,-1.9361,15.0498,14.2966
1464.8438,16.9125,28.3925,21.7853,19.5344,8.6049,11.2375,11.4468,10.7324,23.9116,13.8593,21.6890,11.3861,11.2369,2.8612,9.0444,4.6538,3.9473,19.8734,22.5711
1468.7500,14.3716,24.7739,23.8753,23.0580,13.4159,10.7321,12.8993,15.7449,25.8308,12.7669,21.2789,9.1463,15.6368,7.5655,8.0323,5.5726,7.4794,21.8749,27.7487
1472.6562,5.3428,17.2140,19.8518,22.2885,14.8759,8.0286,9.0870,16.2789,21.7992,9.3080,14.6874,1.5754,14.2089,10.0767,4.1186,4.1681,6.6932,18.0651,26.8582
1476.5625,-3.9816,7.2601,10.2551,17.2748,13.7447,2.5051,1.0494,12.6488,12.1334,4.2298,3.5713,-8.2157,8.8740,10.7943,-0.5890,0.1423,3.0778,9.2730,21.0019
1480.4688,-7.6246,-1.5500,-0.1803,11.0660,12.8801,-3.8620,-6.7956,8.1756,1.3793,-0.4855,-6.4651,-14.8106,4.4424,11.8028,-2.7555,-4.3747,0.5613,-0.0501,14.6688
1484.3750,-4.0386,-5.8939,-6.2559,7.2065,14.6638,-8.0412,-10.3238,6.3291,-5.0057,-3.0475,-9.9764,-14.1456,4.8732,14.9307,-0.8006,-6.3950,2.2810,-4.9704,12.1726
1488.2812,3.2592,-4.9067,-6.4310,6.7903,18.6436,-8.3945,-9.1718,7.7406,-4.7538,-3.1842,-5.8956,-6.5259,10.0342,19.8440,3.3253,-4.5403,7.8292,-3.6662,14.1608
1492.1875,8.6951,-0.6775,-3.8246,7.6452,21.5721,-5.9017,-6.9076,9.7217,-0.2727,-2.2446,1.6690,3.4344,15.6961,23.9186,5.3780,-0.2780,13.3840,1.4155,17.1664
1496.0938,8.6689,3.3632,-3.2711,6.3791,19.9991,-3.1863,-7.6942,8.7608,3.6398,-1.9708,6.7568,10.0351,16.8716,24.1417,2.3036,3.1582,14.7329,5.7097,16.6215
1500.0000,3.5772,4.8412,-7.0059,1.5151,13.2977,-2.3086,-12.3671,3.8347,3.8157,-2.9669,6.2352,10.4417,11.7955,19.5121,-4.9022,3.2744,10.6886,6.1418,10.7817
1503.9062,-3.2623,3.7609,-12.7157,-5.0378,4.5022,-3.2788,-17.4497,-2.4122,1.0524,-4.1599,1.9677,6.3359,3.2706,11.9071,-11.5392,0.1710,4.0108,3.2319,2.2223
1507.8125,-8.4124,1.9048,-15.6068,-9.5027,-1.8927,-4.4735,-18.0918,-5.7571,-1.0681,-3.7050,-1.2109,2.0957,-3.7066,4.6456,-12.7314,-3.7304,-0.9535,0.1272,-4.3567
1511.7188,-10.4487,1.0858,-12.6408,-9.4584,-3.4421,-4.3657,-12.4349,-4.0341,0.3769,-0.5711,0.1807,1.1263,-6.0110,-0.0729,-7.3721,-5.7487,-1.8903,-0.3692,-6.1021
1515.6250,-10.0418,1.8421,-5.2303,-5.9726,-1.6739,-2.8644,-3.5565,0.8260,5.0727,4.5099,5.4010,3.3626,-4.7308,-2.7152,0.7923,-5.0028,-0.3104,1.8856,-4.3314
1519.5312,-8.5056,3.5419,1.9273,-2.7624,-0.7959,-1.0688,2.8293,4.1970,9.9416,9.4769,10.4183,5.8464,-3.8974,-5.6861,5.9453,-2.8233,-0.0201,4.6091,-3.2349
1523.4375,-6.4233,5.4676,4.8101,-3.0605,-4.2132,0.1589,3.0449,2.5157,12.0381,12.3386,11.6122,5.6331,-6.8119,-11.0013,4.6531,-1.3775,-3.6625,5.4256,-6.1274
1527.3438,-3.4932,7.6100,3.3439,-6.8477,-11.6763,1.2458,-1.5042,-3.7304,11.0997,12.3806,8.8512,2.3871,-13.1753,-18.3701,-1.6148,-1.8616,-10.3607,4.0409,-12.5108
1531.2500,0.6091,10.3469,1.1695,-10.8037,-19.3193,3.4215,-5.5754,-10.2996,9.4369,10.3072,5.2635,-1.5423,-19.4287,-25.2750,-7.8965,-3.8103,-16.4779,2.2997,-18.4520
1535.1562,5.4391,13.4352,2.2035,-11.0020,-22.4507,7.0996,-4.6052,-12.5295,9.3896,7.4265,4.0748,-3.4625,-21.8613,-28.8803,-9.8074,-5.9049,-18.7415,2.2123,-19.8653
1539.0625,9.8588,15.5390,7.0943,-6.0515,-18.7708,10.7724,1.3747,-8.9259,10.8576,4.7462,5.5265,-2.8710,-19.6678,-28.0607,-6.8352,-7.2890,-16.9196,3.9132,-15.7964
1542.9688,12.7734,15.0520,12.6990,1.9350,-9.5277,11.7436,7.8007,-2.0708,11.3210,2.7361,6.7419,-1.8592,-15.2894,-23.8526,-2.2052,-8.0792,-13.6924,5.5244,-8.8943
1546.8750,13.6959,11.6489,14.9791,9.2481,2.0011,8.3429,9.5643,3.7663,8.4001,1.7179,4.6500,-3.0392,-11.8657,-18.1181,0.3327,-8.7075,-11.9146,5.0606,-2.8060
1550.7812,12.6335,7.0922,12.6690,13.6117,13.0973,1.7436,5.4700,6.1534,2.5486,2.1871,-0.7740,-6.8970,-10.2091,-11.8084,-0.1601,-8.9650,-11.8181,2.5580,1.0642
1554.6875,9.6320,4.2866,8.4202,15.7137,23.0011,-4.3938,-0.7084,6.1569,-2.7689,4.5103,-6.0374,-11.0049,-8.0922,-4.4758,-1.2737,-7.9106,-10.7539,0.3471,4.5047
1558.5938,4.7173,5.1020,6.4085,18.0343,32.1953,-6.4566,-3.4939,6.8730,-3.8115,8.2096,-7.0128,-11.8690,-2.5035,4.5721,0.1497,-4.8810,-5.7658,1.0863,10.3682
1562.5000,-1.5388,8.7263,8.5569,22.1693,40.6519,-3.6502,-0.4735,10.3114,0.1232,11.6574,-2.6640,-7.8411,7.1818,14.6838,4.7542,-0.6003,3.3088,5.2792,19.3772
1566.4062,-7.4852,12.0670,12.7503,27.1065,46.9556,1.3127,5.5543,15.4545,5.8238,12.7767,3.7708,-0.5693,18.0283,23.5025,9.7766,2.8916,13.0701,10.5599,28.8361
1570.3125,-10.8117,12.0667,14.6304,29.9685,49.2127,4.2852,8.9006,19.1474,8.6791,10.4129,7.3388,6.2611,25.5045,28.3706,11.3717,3.7353,18.9539,13.5022,34.4887
1574.2188,-10.0337,8.1178,11.3733,28.4967,46.8260,2.8972,5.7757,18.9083,6.5047,5.2866,5.5348,9.7767,26.9271,28.3644,8.0787,1.9746,18.8137,12.4262,33.9161
1578.1250,-5.9513,2.5600,4.1153,23.0252,41.3280,-1.7210,-2.5453,15.0851,1.3366,-0.3769,0.4253,9.8897,23.4020,25.1390,2.2845,-0.1453,14.5938,8.7273,28.4692
1582.0312,-1.6134,-1.2233,-3.0676,16.2106,35.3314,-6.1049,-10.8230,10.4618,-2.4394,-4.3645,-3.1849,8.7722,18.6006,21.7311,-1.6908,0.1431,10.6132,5.5284,22.0290
1585.9375,-0.3544,-1.5634,-6.6475,10.8237,30.4596,-7.4927,-14.1756,7.7522,-2.0237,-5.9301,-1.9940,8.4632,15.5079,20.2421,-1.2426,3.6944,9.9179,4.8479,17.7098
1589.8438,-3.1885,0.1885,-6.4699,7.6024,26.1433,-6.1412,-11.8816,7.2939,1.2806,-5.9659,2.8514,8.8737,14.0302,20.3265,2.3469,8.3367,11.8289,5.8290,15.4238
1593.7500,-7.7108,0.9167,-5.4653,5.0277,20.4289,-4.9774,-7.5131,6.9952,3.2566,-5.7697,6.7084,8.0067,11.5156,19.7271,5.1313,10.2211,12.7571,5.6446,12.4102
1597.6562,-9.7004,-1.5074,-6.6516,1.0888,12.0978,-6.9399,-5.5236,4.4947,0.6735,-5.5682,5.4816,4.1206,5.5844,16.3233,4.0236,6.7377,9.4916,2.2715,6.1390
1601.5625,-6.4430,-6.3294,-10.2618,-4.6766,2.1507,-12.3347,-7.4463,-0.5112,-5.5705,-4.2282,-0.7791,-2.2592,-3.3974,9.8822,-0.5185,-1.3139,2.0398,-3.4075,-3.1171
1605.4688,0.8185,-10.4971,-13.6391,-10.7366,-6.7428,-18.4736,-11.0131,-5.9183,-10.9483,-0.5321,-7.8809,-8.4485,-12.4841,2.0468,-5.0192,-10.1174,-6.4374,-8.1621,-12.3878
1609.3750,7.4428,-11.2163,-13.9335,-15.0291,-12.3674,-21.8529,-12.7452,-9.1291,-11.1407,5.1002,-11.0786,-11.8316,-18.7657,-5.2655,-6.2075,-15.5586,-12.4274,-9.2303,-18.6371
1613.2812,8.7706,-8.2698,-11.0005,-16.8480,-14.7115,-20.9427,-11.4365,-9.4198,-5.8880,10.1445,-9.0771,-12.1847,-21.9459,-11.4508,-3.9925,-16.1205,-15.0138,-6.8805,-21.4193
1617.1875,3.7717,-4.1056,-7.6922,-17.3040,-15.6926,-17.1845,-9.2500,-8.5383,0.5979,11.4896,-4.9160,-11.8763,-24.4017,-17.2745,-1.4687,-13.6647,-16.3139,-4.3211,-23.0287
1621.0938,-3.9803,-1.6420,-7.1460,-17.9111,-17.0656,-13.4299,-9.4503,-8.9596,3.1706,7.9086,-2.9806,-13.6044,-28.5719,-23.3897,-1.9248,-11.5823,-19.0786,-4.8694,-25.9408
1625.0000,-8.9061,-1.7228,-9.5422,-18.6911,-18.4520,-11.3174,-12.9596,-11.4127,0.2523,1.4349,-4.8418,-17.6199,-34.0717,-28.8447,-5.5837,-11.9585,-23.7317,-8.7882,-29.9272
1628.9062,-7.6231,-2.4489,-11.4463,-17.7347,-17.4180,-9.9683,-17.0471,-14.0115,-4.6317,-3.6992,-7.6887,-21.0075,-37.3333,-31.2017,-9.1132,-14.1230,-27.6435,-12.6394,-31.6552
1632.8125,-1.4435,-0.9572,-8.6096,-12.8369,-11.7032,-7.1364,-17.5226,-13.8767,-5.7359,-3.9506,-6.8271,-19.8823,-34.3756,-28.4094,-8.4884,-15.6553,-27.3902,-11.9074,-27.3956
1636.7188,4.7992,3.9269,0.0728,-3.8410,-1.6769,-1.6986,-12.5573,-9.8453,-0.0311,1.0047,-0.0860,-12.7754,-24.4261,-20.8406,-2.7343,-14.7640,-21.9792,-4.7960,-16.5786
1640.6250,6.6033,10.4999,10.9804,6.4921,9.2645,4.8512,-4.6618,-3.7966,10.0045,8.1019,9.7808,-2.2911,-11.1679,-11.5562,4.8279,-11.8446,-14.0600,6.0099,-2.9850
1644.5312,3.2053,15.4950,18.1721,14.0862,16.9266,9.3402,1.0992,0.6912,18.1605,13.2177,16.9178,6.5274,-0.3079,-4.3011,9.0796,-8.8826,-7.8892,15.1818,7.7112
1648.4375,-2.1531,16.7373,17.9296,16.4390,19.4122,9.5166,1.2400,1.2608,19.3795,14.1214,16.9584,9.9118,4.6456,-0.7591,7.2913,-7.3816,-5.7511,18.7128,12.1437
1652.3438,-5.1620,14.8087,11.6372,14.3897,18.4522,6.0086,-3.2320,-1.2749,13.6600,11.7021,10.4945,8.1207,4.8689,0.6191,1.3716,-6.8310,-6.0081,16.7425,11.6729
1656.2500,-4.0410,12.2893,4.5325,11.2386,17.7830,1.8655,-7.6857,-3.6845,5.7587,8.6122,2.4844,4.9398,4.8454,3.1387,-3.8137,-5.1963,-4.5946,12.9582,10.9307
1660.1562,-0.8244,11.3003,1.3771,9.9581,19.9105,0.0417,-7.7949,-3.1234,1.0807,6.6530,-1.8458,4.3640,8.2940,8.9039,-4.6233,-1.0087,1.2627,11.2134,13.7042
1664.0625,0.6093,11.5838,2.7414,10.8820,24.0148,1.0214,-3.1247,0.4678,1.3453,5.2384,-1.0757,7.2699,14.8899,16.8634,-1.6770,4.8912,10.3398,12.3280,19.6684
1667.9688,-2.0222,10.8568,5.0336,11.8197,26.7682,2.6674,2.7116,4.4602,3.6684,2.2575,1.7677,10.8628,20.5739,23.5315,0.9143,9.6506,18.1438,13.7586,24.7410
1671.8750,-7.4038,7.1228,4.1127,10.3759,25.3041,2.4042,5.3814,5.9758,3.6240,-3.5039,2.3410,11.2837,21.1254,25.7788,-0.5621,10.6069,20.5109,12.2512,24.6860
1675.7812,-11.6357,0.8318,-0.7978,6.3051,19.7015,-0.2462,3.6442,4.4304,-0.6046,-10.6247,-1.0434,7.0602,15.8450,23.3142,-5.8778,7.5041,16.9857,6.9864,18.7842
1679.6875,-11.2769,-5.1289,-6.3903,1.7388,12.8137,-3.0901,0.2756,1.8853,-6.6889,-15.6673,-6.1356,0.4090,8.1387,18.7526,-10.8637,2.7429,11.0649,0.3907,10.3854
1683.5938,-5.8680,-7.7195,-8.3563,-0.9034,7.6558,-3.2187,-0.6428,0.9417,-10.4762,-15.7618,-9.1549,-4.6946,2.5410,15.2648,-11.0388,-0.6122,7.1272,-4.0485,3.9401
1687.5000,1.9631,-6.3550,-5.4637,-1.3485,4.7520,0.2132,2.4440,2.1776,-9.9230,-11.0077,-8.5392,-5.9504,0.8443,13.8941,-5.7191,-1.3627,6.7613,-4.9224,1.2047
1691.4062,8.5543,-3.5280,-0.9193,-1.9198,1.8706,4.8830,7.0968,3.5527,-7.0114,-4.6291,-6.5340,-4.6753,0.7395,12.8723,1.0348,-1.0394,7.6886,-4.1303,-0.0152
1695.3125,11.4818,-2.8201,0.2750,-5.4607,-3.6007,6.9407,9.0970,2.3914,-5.9221,-0.6871,-7.1485,-4.6029,-1.8933,9.4700,3.5638,-2.3578,6.1406,-5.0977,-3.5448
1699.2188,10.2897,-5.9545,-4.3307,-12.5526,-11.8167,4.0627,6.3132,-1.8727,-9.1675,-1.1935,-12.3566,-8.6322,-9.1558,2.6638,-0.7803,-6.6480,0.4708,-9.6214,-11.1244
1703.1250,5.6078,-11.3989,-12.4389,-20.6005,-19.8319,-2.6711,0.6906,-6.7969,-15.2371,-4.9379,-20.0372,-16.3550,-19.1986,-5.7902,-9.4811,-12.5466,-7.2743,-16.2132,-20.6993
1707.0312,-1.9241,-15.7055,-18.9346,-25.7693,-23.8664,-9.6645,-3.4663,-8.8607,-19.9108,-8.8529,-25.5801,-24.4278,-27.8579,-12.8269,-16.9696,-17.1043,-13.2139,-21.4365,-28.2484
1710.9375,-11.6066,-16.4097,-20.2525,-26.1786,-22.5397,-13.6645,-3.3787,-6.6057,-20.0453,-10.6179,-25.7618,-29.3394,-32.2925,-16.7250,-19.1447,-18.3054,-15.1714,-22.9969,-31.4247
1714.8438,-21.6827,-13.9768,-17.3176,-23.5264,-18.1631,-14.1311,-0.3139,-2.1404,-16.3753,-10.2661,-21.4301,-30.0822,-33.2590,-18.5067,-16.4272,-16.7442,-14.6062,-21.7423,-31.6053
1718.7500,-28.8826,-11.1483,-14.4578,-21.5950,-14.8312,-13.1490,1.5786,0.4881,-12.7571,-9.5684,-16.6061,-28.4582,-33.9439,-20.7877,-12.8413,-14.9756,-15.1190,-20.7174,-32.3838
1722.6562,-29.7039,-10.3366,-15.2800,-22.8280,-14.8945,-13.1229,-0.8940,-1.2320,-12.5231,-9.9723,-14.8441,-26.9452,-36.4684,-25.1118,-12.1235,-15.1588,-18.8681,-22.1186,-35.8311
1726.5625,-22.8836,-11.4216,-19.2219,-25.9541,-16.9101,-14.4284,-6.9180,-5.9810,-15.2781,-11.0744,-16.1533,-26.2190,-39.3803,-30.2260,-14.3945,-17.1430,-24.2239,-24.9547,-39.9916
1730.4688,-10.9814,-11.9109,-21.9027,-26.8262,-16.9389,-15.1534,-12.2111,-9.5900,-17.1133,-10.9938,-17.2408,-24.6278,-38.6112,-32.9449,-16.2917,-18.7173,-26.9430,-25.6340,-40.0866
1734.3750,0.6916,-9.2987,-19.0034,-21.8798,-12.1212,-13.1052,-12.7312,-8.5493,-14.1325,-8.2069,-14.7823,-20.0243,-31.2125,-30.9166,-14.2829,-17.7557,-23.9619,-21.0620,-32.5806
1738.2812,7.4272,-3.4855,-10.2276,-11.2891,-3.3989,-8.1688,-8.2547,-3.0226,-6.1424,-3.0756,-8.6527,-12.1514,-18.5305,-24.8197,-8.0449,-14.2421,-16.4264,-11.5109,-18.5851
1742.1875,8.2373,2.9391,0.2133,0.9142,5.0685,-2.7688,-2.5923,3.2974,2.8678,2.3589,-2.1011,-3.2753,-5.7999,-17.9476,-0.8225,-10.2734,-9.1027,-0.6520,-3.4964
1746.0938,6.0900,6.8416,7.0737,9.9153,9.3675,0.0807,-0.2065,6.4142,7.9947,6.0894,1.2970,3.5805,1.7557,-13.4344,3.4940,-8.0254,-6.4719,7.3552,7.0028
1750.0000,4.9040,7.2247,8.4532,13.7829,9.1763,-0.5756,-2.2431,5.5288,7.5854,7.7304,1.0417,7.1752,3.0630,-11.5303,3.8184,-7.6085,-8.8340,11.1601,11.2241
1753.9062,5.7924,6.0471,7.2019,14.6156,8.0303,-2.7101,-5.5513,3.7182,4.5749,8.4913,0.1987,8.9697,1.9537,-9.3877,2.6321,-6.9187,-11.8958,12.9536,12.3546
1757.8125,5.9203,6.4195,8.1095,16.2517,10.2055,-3.0386,-5.5996,5.1549,3.7515,9.6109,2.3857,11.5035,3.7664,-3.6563,3.3536,-3.7719,-10.3632,15.9738,15.1939
1761.7188,1.2567,9.7496,13.3998,20.6130,16.8931,0.0525,-0.6734,11.2879,7.3546,10.8234,7.9992,15.7020,10.6564,6.3176,6.7892,1.5875,-2.5395,21.0628,21.6327
1765.6250,-8.9510,14.3615,20.5772,25.9138,25.0050,4.9572,6.4537,19.3607,12.9545,10.4381,13.3125,19.6716,19.6622,17.5033,10.0543,6.0491,8.0425,25.4912,28.8776
1769.5312,-19.9879,16.8396,24.5728,28.2789,29.6834,8.1018,10.9287,24.6053,15.5715,7.0704,13.5701,20.2565,25.2265,25.3575,9.1222,5.9871,15.4243,25.2768,31.9933
1773.4375,-24.2006,14.9437,22.2771,25.2786,28.3554,6.9670,10.1597,24.2055,12.1949,1.4029,7.4819,16.0707,23.9862,27.3498,2.7780,0.5641,16.0942,19.0261,28.4761
1777.3438,-16.7687,9.5514,15.3812,18.1988,22.8116,2.2714,6.1322,19.5463,4.6591,-3.8341,-1.0159,9.2153,17.6465,24.8258,-5.6808,-6.9221,11.7484,9.7985,20.7277
1781.2500,-0.2069,3.9349,8.9418,11.0098,17.5170,-2.5853,3.5258,14.7774,-1.7683,-5.9031,-5.6539,3.9067,11.4250,21.6142,-10.7551,-11.0923,7.5824,3.0897,14.1287
1785.1562,16.3595,1.0242,6.9283,6.9663,15.6694,-4.3365,5.2684,13.0056,-2.9126,-4.4197,-3.1492,2.9733,9.4515,20.6219,-9.2255,-8.5150,7.6532,2.4417,12.3523
1789.0625,23.1471,1.0758,8.7556,5.8963,16.4979,-2.4812,9.5818,13.5553,0.6722,-1.8338,3.6663,5.2345,11.2074,21.4239,-2.9010,-0.4821,11.4009,6.4155,14.0846
1792.9688,16.6337,1.7813,9.9652,4.6225,16.1817,0.5126,11.3454,12.7878,4.2521,-1.3715,7.8959,6.2253,12.1795,20.9634,2.8684,7.8187,14.3784,9.6602,14.1604
1796.8750,2.1355,0.6614,6.4908,0.1308,11.5459,1.5166,6.7389,7.7545,3.2386,-4.0819,4.3629,1.9267,8.1678,16.7094,3.7144,11.1683,12.4974,7.3493,8.2284
1800.7812,-10.0686,-2.4503,-1.3331,-7.3905,3.2075,-0.5489,-2.9374,-0.6484,-2.5268,-7.6146,-5.7066,-7.5205,-0.5913,9.3986,-0.1162,8.1467,5.9746,-0.6963,-3.1236
1804.6875,-12.1889,-5.1028,-8.7154,-14.4373,-4.6880,-3.9981,-11.8119,-7.9882,-8.4009,-8.0206,-15.2420,-17.3285,-9.2147,2.8140,-4.2148,1.8926,-0.5939,-9.7185,-14.4760
1808.5938,-4.2841,-4.4016,-10.4979,-17.1707,-7.9644,-6.1832,-14.1144,-9.9467,-8.9329,-3.2340,-16.8990,-21.4189,-12.1741,0.6604,-4.1457,-2.6872,-2.1704,-13.8633,-19.9391
1812.5000,6.4738,0.2901,-5.8063,-14.8334,-6.0630,-6.0444,-9.0068,-6.1254,-2.7630,4.7347,-9.0774,-17.0226,-8.0627,3.2139,0.4429,-2.8359,2.2160,-10.9311,-18.0267
1816.4062,11.8238,6.5822,0.9501,-10.4748,-2.5633,-4.9840,-1.3127,-0.5355,5.9360,10.9682,2.6961,-6.8132,-0.9344,6.7211,5.4580,0.2342,8.3914,-4.0284,-12.7897
1820.3125,8.8423,10.9749,3.7861,-8.2186,-2.0269,-5.2403,2.6174,1.8372,10.8683,11.4505,10.2558,3.1434,3.0181,6.2046,6.1367,2.9209,10.4121,1.2288,-10.1895
1824.2188,1.7660,11.8036,0.4106,-9.4322,-5.8822,-7.3172,0.3898,-0.5137,8.9894,6.4424,9.4102,7.9244,0.6169,-0.5969,1.5911,2.5909,5.5076,1.5047,-12.8589
1828.1250,-1.9506,10.5918,-5.5889,-11.2465,-10.9710,-8.9910,-4.3862,-4.0902,3.1593,0.5354,3.1172,7.0952,-5.7529,-11.4200,-4.0404,-0.2899,-3.6689,-1.5948,-17.8212
1832.0312,2.1034,10.5815,-7.6839,-8.8824,-12.0984,-7.0285,-5.3359,-3.2981,-0.3017,-0.8334,-1.3982,4.3076,-10.3535,-21.2413,-5.0363,-2.9762,-11.3788,-3.2019,-19.1483
1835.9375,11.8291,13.7198,-2.0138,0.1165,-6.4382,-0.2219,0.9400,4.5832,2.9213,4.3424,0.9862,3.7840,-9.0593,-26.0293,0.7996,-3.2238,-13.5993,0.3718,-13.1993
1839.8438,20.5710,18.7960,9.1987,13.4129,3.9883,9.0146,11.6539,16.6439,11.4003,13.0509,8.9630,6.8404,-2.7002,-25.2955,9.9107,-1.3474,-11.0529,8.3742,-1.8206
1843.7500,22.6473,22.4391,19.4485,25.3958,13.8763,16.1286,20.0243,26.2844,19.2306,19.6667,16.2008,11.3265,4.0819,-21.4631,15.7659,0.3232,-7.8877,16.3596,9.2841
1847.6562,17.8489,22.1528,23.4426,31.4793,18.8588,17.9376,21.0246,28.3367,21.2008,20.3715,17.1542,14.1616,7.2967,-16.9545,14.3685,-0.0354,-7.3722,20.1933,15.5089
1851.5625,11.3635,18.7127,21.5082,31.5338,18.7301,15.2100,15.6843,23.0851,17.3369,15.9836,12.1092,14.4301,7.2668,-11.8703,7.7288,-1.7352,-8.6425,19.6933,17.1670
1855.4688,9.4116,15.7462,19.0414,29.5210,16.9600,12.0262,10.1590,15.8081,12.8225,10.9746,6.9976,14.1554,8.1210,-4.4486,2.2088,-2.0994,-7.5613,18.6477,18.7449
1859.3750,14.2517,16.7589,21.4612,29.6875,17.0888,12.3454,10.3492,12.2685,13.3533,9.6556,8.1211,16.1044,13.5542,6.2085,3.0898,0.8746,-0.9571,21.1919,24.2624
1863.2812,22.4866,22.1309,29.0958,32.6588,19.3124,16.6599,16.7542,14.0145,20.0004,12.8028,16.4090,20.7301,22.7323,17.8768,10.0436,6.1913,9.6545,27.7825,32.9509
1867.1875,27.7740,28.6765,36.5311,34.8421,20.3181,21.6124,24.0572,17.4468,28.0971,17.4562,26.2665,25.1571,30.1934,25.8500,17.4410,10.1815,18.4494,34.3784,39.2509
1871.0938,25.6013,32.1651,37.0681,31.6438,16.4655,22.9358,25.7889,17.3013,31.1374,19.8078,30.0812,25.2709,30.0825,26.2855,19.2245,9.4262,19.7407,35.6177,37.3191
1875.0000,16.4417,30.6494,28.4590,21.6646,7.3892,19.1980,19.9639,11.3978,26.2849,18.4832,24.5341,19.1566,21.1424,19.4730,14.0824,3.8025,12.7581,29.2634,26.1787
1878.9062,5.1901,25.7723,14.9513,8.1974,-3.2650,13.1065,10.7468,2.5061,16.6973,15.3523,13.3043,8.8841,8.0853,10.0681,6.4124,-3.0989,2.5539,18.0787,10.9674
1882.8125,-2.2893,21.0180,3.8672,-3.2705,-10.6729,9.2152,4.7279,-4.1897,8.6953,13.3419,3.9031,-0.9443,-1.9659,3.8288,2.2843,-6.7073,-3.9008,7.5532,-0.9225
1886.7188,-2.7896,18.5455,-0.3156,-9.3576,-12.7238,9.9891,5.1529,-5.6548,6.3315,13.4219,1.4374,-6.6494,-5.0008,3.4297,4.0237,-5.0992,-3.1939,1.5083,-5.5705
1890.6250,2.7710,17.4346,0.7083,-11.1663,-11.5174,13.6158,9.2310,-3.5088,8.1518,13.6009,4.6774,-7.9974,-2.9287,6.7975,8.2341,-0.4056,2.1155,-0.6141,-5.2441
1894.5312,10.4548,14.8564,1.1026,-12.7669,-11.1810,15.4615,10.8710,-2.3119,8.9269,10.8461,7.6766,-7.7385,-1.3588,9.3079,8.9949,3.2128,6.1447,-2.5581,-5.8602
1898.4375,15.7105,9.0327,-3.6533,-17.2599,-14.0365,11.9388,6.3360,-5.2805,4.6941,4.1262,5.3148,-8.7614,-4.4180,7.8815,3.3495,3.2340,4.9974,-7.4204,-11.5205
1902.3438,15.4989,1.2529,-12.7295,-23.9625,-18.6109,3.5094,-2.2906,-11.3420,-3.4618,-4.2687,-2.1947,-11.4874,-11.1941,3.4164,-5.8418,0.8462,0.0523,-14.6974,-20.9427
1906.2500,9.3623,-4.9213,-20.8015,-29.1530,-21.2687,-5.6669,-8.9533,-16.1636,-10.2645,-10.3987,-9.7019,-13.7632,-16.8613,-0.4892,-12.2466,-0.3872,-3.6078,-20.8023,-28.8259
1910.1562,-0.5150,-6.5800,-22.8584,-29.5576,-19.8900,-11.0283,-9.1111,-16.1549,-10.9246,-11.8567,-11.8457,-13.1577,-17.3307,-1.2646,-11.5049,1.9776,-2.1321,-22.4224,-30.7610
1914.0625,-10.0493,-3.9000,-18.5622,-25.3174,-16.0990,-10.9845,-3.8816,-11.7496,-5.3970,-9.5730,-7.7449,-9.4025,-13.1439,-0.0896,-4.8981,6.8108,3.2820,-19.5297,-27.1690
1917.9688,-14.7911,0.1046,-12.2811,-19.7235,-13.8356,-7.5907,0.9643,-6.9452,1.6147,-6.6018,-1.4855,-4.6951,-9.0585,-1.0476,2.0238,10.2794,7.1664,-15.2611,-22.7101
1921.8750,-12.0483,2.2967,-8.9099,-16.0250,-15.4525,-4.2201,0.3160,-5.5162,4.8803,-5.0379,1.8540,-1.6581,-9.6937,-7.3398,4.5638,9.3077,4.5178,-12.8451,-21.7625
1925.7812,-2.6741,2.1395,-9.3985,-14.3310,-18.9290,-2.5409,-5.4448,-7.3868,3.2455,-3.9881,0.8626,-0.9658,-15.1854,-17.8871,3.0444,4.4958,-4.7016,-12.5174,-24.1617
1929.6875,8.8641,1.9460,-10.1137,-11.5567,-18.9753,-1.5353,-10.5546,-8.5597,0.4358,-0.6079,-1.1613,-0.9341,-20.8228,-27.4257,2.1767,-0.2336,-15.3079,-11.3891,-25.1767
1933.5938,16.8095,4.4095,-6.5881,-4.5477,-11.3787,0.7465,-8.9900,-4.7869,1.3410,6.6374,0.3234,0.5345,-21.0722,-30.2246,6.1815,-1.0742,-21.1385,-6.4687,-19.8448
1937.5000,17.7497,9.6726,1.8573,6.4779,3.0659,4.5889,-0.1079,4.2821,7.1971,15.5339,6.4241,3.5534,-14.4336,-24.3976,14.1835,2.1684,-20.0538,1.9764,-7.7808
1941.4062,13.0298,14.6917,10.9795,17.4360,18.5452,7.8080,10.3003,14.2773,14.1240,21.0264,13.3651,5.8160,-4.7904,-13.2282,20.2977,5.7340,-15.2979,9.9786,5.9496
1945.3125,7.8303,15.6382,15.1514,23.4791,28.3524,7.6166,14.6664,19.5024,16.4621,19.0707,15.7269,4.7146,1.9700,-2.4563,18.6328,5.1876,-12.0923,12.9984,14.8166
1949.2188,7.1740,11.3174,12.4252,23.0283,29.7744,3.4181,10.0480,17.6384,11.9572,10.2460,11.4682,0.1150,3.0479,4.1000,8.8630,-0.4792,-12.6136,9.9388,16.1982
1953.1250,11.7474,4.5481,6.4537,19.0924,25.6543,-2.2089,0.6471,11.5976,4.0680,-0.1369,4.0713,-4.9201,0.9669,6.8958,-2.7545,-7.5985,-13.9617,4.3653,13.3464
1957.0312,16.9818,0.1340,3.3629,16.5661,21.3882,-5.4761,-5.8482,6.8435,-0.8306,-5.8472,-0.3148,-6.4275,0.9482,9.1798,-8.1618,-10.7052,-11.0090,1.6240,12.1494
1960.9375,16.5031,1.0332,6.2581,17.8146,20.0617,-4.6673,-4.9510,6.5305,1.0225,-4.4722,1.7014,-3.0262,5.8099,13.2805,-4.1513,-7.1871,-1.5751,4.2362,15.5783
1964.8438,7.4909,5.9782,12.3192,20.4937,20.0062,-1.7306,0.7942,8.8062,7.4337,0.8680,7.6542,2.5380,13.0506,18.1391,4.9111,0.3140,10.8244,9.6338,20.8471
1968.7500,-6.3761,10.6221,15.2317,19.6625,16.8552,-0.5597,4.2567,8.7198,12.1780,4.3508,11.3635,5.3933,16.8489,20.3031,10.8171,5.9262,19.3209,12.3568,21.9365
1972.6562,-17.0608,11.2550,10.9177,12.4133,8.1381,-3.3389,0.3135,3.0451,10.5760,2.5026,8.5346,2.5860,13.2676,17.3635,8.6046,5.3662,19.2416,8.9050,15.2800
1976.5625,-18.0229,7.8930,1.4383,0.8901,-3.8351,-8.2287,-9.2778,-6.3626,3.7747,-2.7981,0.8116,-4.2807,3.9885,10.5567,0.8547,-0.5414,12.0236,0.9778,3.4552
1980.4688,-9.2314,4.0636,-6.5716,-9.1340,-13.5279,-10.6551,-17.1518,-13.8249,-2.1819,-5.9623,-5.4730,-10.2158,-4.8784,4.0024,-4.6329,-6.6616,3.9862,-5.8573,-6.6228
1984.3750,2.7588,3.4854,-7.7370,-13.0520,-16.8911,-7.3110,-16.7672,-14.7460,-1.8057,-2.6343,-4.9080,-10.9788,-7.9878,1.1490,-1.8485,-7.9665,0.9506,-7.0329,-9.6100
1988.2812,9.8520,6.5565,-2.9213,-11.4385,-15.0345,0.5612,-8.3668,-9.8372,4.6438,6.2528,1.9582,-6.6998,-5.3916,1.6187,7.8449,-3.7530,3.3868,-3.1463,-6.5584
1992.1875,8.5475,9.7643,1.2053,-9.6640,-13.4591,7.6273,0.8760,-4.7873,10.9316,14.8055,8.7377,-1.8287,-2.4516,1.4048,16.5313,1.9590,6.3387,0.3302,-4.2401
1996.0938,2.1874,8.6023,-2.1288,-13.2636,-17.3342,8.5416,2.8329,-5.4609,9.9958,16.6989,8.5747,-1.3682,-5.0177,-3.5856,16.3930,4.1005,4.1665,-2.2942,-9.3253
2000.0000,-2.4403,1.5384,-13.6717,-22.9704,-26.8532,2.3420,-4.5743,-12.7142,0.1246,10.1875,0.1692,-6.5707,-14.0968,-13.6861,6.4885,0.9990,-4.1341,-11.8588,-22.3734
2003.9062,-1.1583,-8.3527,-26.9900,-33.7280,-36.7394,-6.5683,-15.4289,-21.3867,-13.2032,-0.5100,-10.8531,-13.7865,-24.7539,-24.7443,-6.2359,-4.3296,-13.8032,-23.2851,-36.9122
2007.8125,4.1149,-15.4876,-33.4368,-38.6202,-40.4199,-11.7766,-20.6810,-24.4669,-21.4959,-8.5039,-16.5228,-17.4599,-30.2668,-31.2546,-12.6206,-7.1051,-18.4169,-29.5215,-44.5298
2011.7188,7.4381,-15.8432,-29.0694,-34.4094,-35.3235,-9.8133,-15.6602,-18.9153,-19.9363,-9.3913,-13.1391,-14.6941,-27.8778,-30.6999,-8.7679,-5.2057,-15.5698,-27.1615,-41.6552
2015.6250,4.6056,-9.6446,-17.5971,-23.9663,-24.7805,-2.6039,-3.7859,-8.1406,-10.9136,-4.0732,-4.1713,-7.4762,-21.0299,-25.3610,1.1064,-1.0448,-9.0407,-18.9370,-32.1888
2019.5312,-2.5785,-0.6203,-6.8765,-13.5768,-14.9692,4.5284,6.6426,0.9860,-1.5131,2.8023,3.0478,-0.7328,-16.0874,-20.0635,8.7776,0.8176,-5.4512,-11.0117,-23.7492
2023.4375,-7.4779,7.2473,-2.0958,-7.5568,-9.6751,7.4681,9.6566,3.9422,2.6785,7.0509,3.8706,1.9707,-16.4820,-17.9047,9.3001,-1.8542,-8.3552,-7.5321,-20.8922
2027.3438,-4.4544,12.5347,-1.6513,-4.9068,-7.4753,6.5220,6.4820,2.1125,1.9919,8.0429,0.3123,1.2633,-19.5711,-17.7631,4.9841,-6.5572,-15.0450,-7.2510,-21.3026
2031.2500,5.6930,16.4750,0.7265,-0.8716,-3.7301,5.5908,3.8820,1.0504,1.5992,8.2130,-1.0396,0.9135,-19.1038,-15.7705,2.6437,-8.0359,-18.9799,-5.1396,-18.3009
2035.1562,15.6614,20.6736,9.6244,8.1131,4.5532,8.2480,7.6255,5.1049,6.1928,9.9028,4.7472,3.9871,-11.1469,-9.3588,6.7985,-3.0341,-15.7279,2.5589,-7.3829
2039.0625,17.4444,24.9158,23.1716,20.6013,15.4644,14.3533,17.0142,13.2774,15.3978,12.7718,16.2132,9.8030,1.8629,-0.1606,15.1665,6.4300,-7.1208,14.4423,9.0988
2042.9688,9.3264,27.2685,34.2093,30.9252,23.5284,20.2171,25.3742,20.0304,24.0824,14.2648,26.5459,14.4912,12.6991,6.9457,20.6732,14.3296,0.1498,24.7731,23.3639
2046.8750,-1.9603,26.3217,36.4220,33.9256,24.4445,22.0485,26.0224,20.2994,27.1647,12.5696,29.4743,14.6260,15.3217,7.8944,18.2006,15.5117,0.3365,28.3130,28.5605
2050.7812,-6.1380,23.2335,29.9422,29.4058,18.9320,19.4342,18.3043,14.1672,24.3808,9.0412,24.7166,10.5574,10.0289,3.0189,9.8270,9.9958,-6.2744,24.8445,24.4519
2054.6875,2.3419,21.3208,21.3480,22.3164,12.1690,15.6190,8.2578,6.9509,20.5347,7.5046,18.0663,6.3031,3.1961,-3.0530,3.4983,2.8920,-13.5234,19.3057,17.4035
2058.5938,19.3693,23.2613,17.9633,18.4872,9.2855,14.3461,3.3166,4.5789,20.9501,10.8120,16.0465,5.9990,1.7627,-5.1673,5.9856,-0.0478,-14.6870,17.3842,14.7006
2062.5000,33.8019,28.3872,21.5045,19.7053,10.9631,16.2337,5.8419,8.4046,26.3324,17.7774,19.9989,10.1115,7.2967,-1.8007,16.3519,2.6453,-8.2472,20.5062,18.2711
2066.4062,35.7733,32.7364,26.7591,22.5185,13.1275,18.1464,11.3161,14.1418,31.8870,23.5305,25.0206,14.9238,14.8694,4.0026,26.0338,7.1150,0.9851,24.7228,23.3916
2070.3125,24.1669,32.1651,26.5053,21.7760,11.0195,16.2686,12.7984,15.9064,31.6734,23.3558,24.7519,15.8793,17.6949,7.6429,25.9303,7.9486,6.3450,24.5023,23.4493
2074.2188,7.3907,25.9804,18.2611,15.6287,3.9143,10.0863,7.5376,11.7033,24.2888,16.8362,17.6276,11.8054,13.3351,7.1291,14.5320,3.3650,5.3105,17.9965,16.3470
2078.1250,-3.0167,17.8468,6.7505,7.3804,-3.9069,3.4733,-0.3519,5.3278,14.5881,8.5868,8.7419,6.1193,5.8518,4.6089,-0.1485,-2.9180,1.5712,8.9683,6.6387
2082.0312,-0.7576,12.9556,-0.2126,2.4500,-6.9659,1.5928,-3.6801,2.8621,9.6323,4.6812,5.4046,3.7681,1.9452,3.9298,-6.9172,-4.9621,1.2746,3.5464,1.3631
2085.9375,11.3678,13.7357,1.2366,3.2106,-3.7985,6.1868,0.9741,6.8891,12.3635,7.6567,10.2902,6.5684,4.5859,6.5641,-0.8419,-0.2018,6.8850,4.6727,3.3466
2089.8438,24.6529,17.8106,7.4496,6.5232,1.2511,13.5243,9.6968,13.7559,18.7667,14.3713,18.5143,11.2195,10.0087,9.7874,12.3198,7.7145,14.3595,9.2925,8.1985
2093.7500,31.5232,20.0790,10.5379,6.4354,1.5412,17.1339,14.4390,16.5857,21.3176,18.6451,21.6281,12.0089,10.9721,8.9672,20.7236,11.6248,16.4383,10.9674,8.0078
2097.6562,30.5061,17.2139,5.6763,-0.2007,-5.9536,13.2353,10.3293,11.5354,15.8360,16.5029,15.2578,6.0044,3.4995,2.0049,16.3451,6.9890,9.2797,5.7155,-1.3457
2101.5625,25.5635,10.6780,-4.1487,-10.2663,-17.5603,4.2162,0.5319,1.6836,5.6012,9.5238,3.5591,-3.8817,-8.9881,-8.1521,1.7807,-3.8543,-3.5310,-4.1269,-15.8296
2105.4688,21.2841,5.5454,-10.4114,-16.4328,-25.5841,-3.0156,-5.9626,-5.1682,-1.1907,3.3869,-3.8198,-10.8847,-18.0757,-15.4376,-11.9182,-13.2039,-13.4339,-11.6024,-26.0191
2109.3750,18.7218,6.0634,-6.5574,-13.2373,-24.6258,-2.6078,-1.9924,-3.1354,1.3680,2.8613,0.0102,-9.9463,-17.4114,-15.5751,-14.5651,-14.2402,-13.9309,-11.0544,-24.8628
2113.2812,15.4748,11.8073,5.8594,-1.9574,-16.1098,5.4032,11.2863,6.4124,11.3677,7.6093,12.8367,-2.0716,-8.2400,-9.7063,-5.3279,-6.7530,-6.1158,-3.0949,-13.7302
2117.1875,9.3254,17.8670,18.0301,10.1040,-7.0171,15.1435,24.8987,15.6514,20.3373,12.4919,24.6912,6.4074,1.5965,-3.4391,6.8769,2.6118,2.2612,5.8414,-1.3134
2121.0938,1.4497,19.0207,21.2436,15.5169,-3.8466,19.8142,29.3305,16.7962,20.4721,12.1386,26.0686,9.1661,4.4740,-2.0019,11.3286,5.9263,3.5333,9.0687,3.8298
2125.0000,-4.1422,14.3176,14.3967,12.8028,-7.0606,17.2357,22.3804,8.7695,11.5920,5.7844,16.0756,5.2290,-0.3457,-5.7095,4.7993,0.6783,-3.1886,5.4643,0.6100
2128.9062,-4.4126,8.0277,4.9801,7.4063,-10.9180,11.2600,10.7666,-1.7943,1.5746,-1.8958,3.3599,-0.3955,-6.1845,-9.7911,-5.8894,-8.1394,-11.3072,0.3268,-3.9064
2132.8125,-0.4937,6.0180,2.4930,6.6560,-8.8875,7.9295,4.0859,-6.2222,-0.3904,-4.7383,-1.2017,-1.4185,-5.1685,-8.8334,-10.1849,-12.3726,-12.7443,0.4300,-1.1868
2136.7188,3.1564,10.6163,9.9545,13.0847,0.1299,9.9037,6.4436,-1.3216,8.0226,-0.4016,6.1231,3.8100,4.2560,-1.9540,-3.3293,-7.7709,-5.4158,7.6250,10.5640
2140.6250,3.1866,18.4200,21.0007,21.9797,10.3373,14.1799,13.1283,7.7893,19.8906,7.6107,18.6186,10.4910,15.2985,5.9538,9.3505,2.2909,4.4960,16.7530,24.0577
2144.5312,1.1975,23.0152,25.2577,25.3680,13.7628,15.1452,15.2194,12.0576,24.7610,12.9987,24.8691,11.4579,18.3417,8.1768,17.1523,9.6234,7.6435,19.8862,28.7572
2148.4375,2.9098,20.3238,17.3874,18.9825,7.1120,10.1348,7.9347,6.3126,17.6664,12.1150,18.6711,3.6926,9.3335,1.9919,13.4870,8.1309,-0.3626,13.2788,19.9603
2152.3438,12.6883,11.9845,1.8733,6.0882,-5.2617,2.3212,-4.8317,-6.2748,3.5857,7.0171,4.5151,-8.5048,-6.3379,-8.7714,1.7055,-1.1154,-14.9351,0.8818,3.1693
2156.2500,28.0271,3.8536,-10.7306,-5.2206,-14.9323,-1.9070,-13.9190,-16.9718,-6.6720,3.4233,-6.1906,-16.6951,-18.0698,-16.7734,-7.8985,-10.9203,-26.2128,-8.8112,-10.2360
2160.1562,39.3499,0.9359,-12.8649,-8.8893,-16.4369,1.1120,-13.2117,-19.0303,-5.7187,5.3741,-4.9437,-15.2985,-18.8594,-17.2610,-7.2179,-14.0881,-27.3282,-9.9536,-12.4069
2164.0625,36.3261,3.1451,-6.3872,-5.8770,-11.6250,8.4421,-5.3064,-13.3424,4.0316,11.3348,6.4881,-6.4178,-11.0659,-11.9332,2.5395,-9.2637,-20.0258,-4.3099,-5.3759
2167.9688,16.1864,5.5469,-0.6781,-2.8498,-7.5445,12.5388,0.7339,-7.2387,12.4362,15.2502,17.5531,1.7706,-4.0594,-7.1892,12.0428,-1.5430,-12.7172,0.3904,1.1766
2171.8750,-12.7696,2.8113,-4.0992,-5.8042,-9.8225,7.7225,-2.3284,-7.5719,10.3779,11.7215,17.9351,1.7933,-5.8043,-8.3044,12.2169,2.3985,-12.7414,-2.7036,-1.2609
2175.7812,-35.8638,-6.0545,-16.3897,-14.3829,-17.5080,-4.4240,-13.0191,-14.3335,-2.4270,0.8316,6.2386,-6.9550,-15.8087,-14.6941,2.2597,0.1276,-19.7486,-13.5404,-12.4529
2179.6875,-41.7882,-16.7977,-28.7894,-22.0592,-24.0281,-15.6756,-22.0625,-20.5946,-17.3472,-11.5880,-9.1587,-17.9503,-25.7023,-20.4866,-9.8867,-4.9510,-26.1380,-25.2738,-23.8012
2183.5938,-30.0396,-23.5188,-31.8051,-22.1055,-23.3938,-17.6594,-20.5594,-18.8972,-24.4380,-18.5108,-17.6391,-23.3520,-26.9351,-19.9122,-14.9564,-7.4223,-24.1653,-30.3740,-26.3159
2187.5000,-10.3855,-23.5043,-23.6866,-13.9963,-16.0062,-8.8715,-8.2525,-8.3787,-20.9040,-17.1787,-15.4522,-20.7619,-18.6899,-12.6866,-10.8624,-5.3537,-13.3115,-27.2518,-18.9746
2191.4062,4.9560,-19.0293,-11.9908,-4.3688,-8.6745,3.8388,5.6429,3.8678,-12.9185,-10.8341,-8.3255,-14.9987,-8.8266,-4.5069,-4.4666,-2.2465,-1.1845,-21.4367,-9.8448
2195.3125,10.0176,-14.6991,-6.7723,-1.4514,-8.6189,10.7919,10.1042,8.6351,-9.3238,-5.3993,-5.4544,-13.3883,-6.8565,-2.1034,-4.9305,-3.5840,3.0195,-20.2376,-8.7947
2199.2188,7.8983,-12.9563,-11.4867,-7.7522,-16.7234,7.4675,1.9067,2.6212,-13.0947,-4.1964,-10.5427,-18.8386,-15.1573,-7.1903,-14.7076,-11.1940,-3.2680,-25.7226,-18.2440
2203.1250,6.1043,-11.9908,-19.8365,-17.5215,-26.1596,-1.8080,-11.3337,-8.4697,-18.4866,-5.4138,-18.1975,-26.9499,-26.3796,-14.7412,-26.5754,-20.7856,-13.5094,-32.4591,-30.3529
2207.0312,9.0498,-7.9842,-21.5147,-21.4080,-27.8566,-7.6467,-17.5578,-14.6163,-16.5998,-4.4378,-19.0536,-29.8117,-29.6042,-17.2379,-29.7521,-25.2101,-17.7108,-32.2270,-33.4463
2210.9375,14.3562,0.4824,-11.7566,-14.3823,-18.1951,-3.6467,-10.6390,-9.9606,-4.3055,1.2560,-8.9376,-23.1273,-19.9610,-11.2158,-19.8250,-20.7216,-11.2922,-21.5877,-22.1976
2214.8438,15.8220,10.1581,3.9696,-0.0282,-2.2033,8.1784,4.3589,2.3117,11.8257,9.2465,6.4810,-10.2548,-3.1595,-0.3070,-3.4638,-10.5815,0.7517,-5.4565,-2.5560
2218.7500,9.8998,15.4158,14.5590,12.5731,10.6067,19.2116,15.7183,12.9517,20.6145,14.0448,16.1515,0.5561,9.2668,7.9651,6.7223,-2.5376,8.2547,6.7370,13.1135
2222.6562,-0.4550,13.2763,13.2080,16.6204,14.1554,21.6485,15.4145,14.8044,16.1713,12.0497,13.4930,3.3524,9.9486,8.8180,3.0134,-2.1771,5.0408,9.0755,16.5486
2226.5625,-8.0834,6.5870,3.7437,13.1512,10.5257,15.0598,6.0634,8.8746,3.6980,5.0523,2.7366,-0.3422,2.0502,4.3296,-10.4334,-8.0048,-5.3539,4.2418,10.4855
2230.4688,-7.8733,2.1636,-2.5927,9.4756,7.3902,6.4520,-1.7625,2.9329,-4.4207,-1.0065,-4.3090,-3.1034,-3.7738,1.2960,-20.8885,-12.7557,-12.6910,0.9920,5.7350
2234.3750,-1.1590,5.1516,2.6763,11.9675,10.5415,3.8990,0.5416,4.0066,0.7427,-1.0564,1.3815,1.3542,0.7239,4.7029,-18.0761,-9.9672,-9.2785,6.1010,10.9490
2238.2812,5.7859,14.4292,17.1596,19.8007,18.3329,9.4270,11.4345,11.6358,16.5492,4.7266,17.6425,11.9824,13.4547,12.7303,-3.3299,-0.0375,2.7672,17.9355,24.2349
2242.1875,7.7366,23.2357,29.0583,25.4198,23.1215,17.4078,20.3458,18.1129,30.6270,11.1205,32.3782,20.7867,23.3234,17.9614,11.3519,9.7352,12.9251,27.5413,34.3111
2246.0938,5.3755,24.7496,27.2834,21.4636,18.4524,19.7773,17.2921,15.5896,31.4305,12.5054,33.7801,19.7286,19.9412,13.9345,13.7864,11.3904,11.3821,26.5009,30.4555
2250.0000,4.3856,17.9016,11.4508,7.9225,5.4189,13.3367,2.3740,3.6100,18.4199,7.8306,20.6953,8.1407,3.2306,1.2504,2.5145,3.4215,-2.1076,14.6546,12.5039
2253.9062,9.4818,8.3064,-7.2440,-7.0902,-7.7581,2.5940,-13.6378,-9.9257,2.7536,1.4524,3.8853,-6.0545,-15.7744,-12.3766,-11.6084,-7.5974,-17.6084,0.6768,-8.1718
2257.8125,18.9314,3.3506,-15.3772,-13.9399,-12.7977,-4.3555,-18.5458,-15.5037,-2.4274,-0.9163,-3.2185,-12.7058,-24.0011,-18.4521,-14.8148,-12.5147,-23.4516,-5.2632,-17.9406
2261.7188,24.9665,5.6485,-8.8419,-9.7337,-8.7883,-3.1388,-9.7310,-10.5121,6.2559,2.5195,3.7107,-8.0024,-17.5278,-14.9777,-2.7129,-7.5324,-16.4408,-0.3983,-12.4997
2265.6250,20.2588,10.6684,3.6486,-0.8264,-3.1185,3.0281,3.1033,-1.7454,19.1314,7.9495,16.0557,2.2707,-4.9882,-8.1712,15.4410,2.4438,-4.7104,8.1507,-0.5208
2269.5312,4.9343,10.7991,8.4122,2.8662,-4.7583,6.4318,6.3507,0.6486,21.8961,9.4539,19.9863,7.8031,0.0477,-6.8981,24.5161,8.1348,-0.4753,9.7370,4.0773
2273.4375,-12.3416,2.4334,-0.7735,-3.1661,-15.7354,2.1021,-5.0784,-7.4311,8.5935,4.5543,9.1013,2.8429,-8.7871,-14.5740,16.7134,4.2043,-8.9067,-0.0693,-5.4078
2277.3438,-20.7488,-10.1894,-16.7355,-13.8086,-28.5765,-7.4254,-22.4666,-19.7917,-12.3576,-3.2651,-9.2907,-8.6848,-24.7048,-25.7262,-1.4060,-5.7933,-23.0362,-15.0545,-22.2762
2281.2500,-16.0722,-18.0066,-24.9909,-18.8059,-32.3849,-14.2671,-30.3047,-25.0008,-24.7909,-7.4981,-20.1408,-16.6293,-33.4529,-30.4616,-14.4461,-12.3623,-29.4703,-23.4354,-32.1606
2285.1562,-4.3038,-14.6900,-16.7190,-12.1253,-22.4717,-12.4196,-19.8835,-16.5717,-18.6792,-4.4989,-13.9253,-13.6903,-25.8554,-23.1164,-11.6011,-8.4826,-20.1483,-18.1989,-25.7825
2289.0625,3.3013,-2.3046,2.8689,2.1829,-4.9813,-3.4809,2.4517,0.7480,0.7899,2.9936,4.4732,-2.0849,-6.1893,-7.5091,3.7892,3.8900,0.1709,-3.5880,-7.4389
2292.9688,-0.2409,9.9363,18.4685,13.1103,7.9077,4.5122,20.0245,14.4792,17.1557,8.0101,19.4114,8.2296,11.1581,5.9706,17.0926,15.1098,17.4866,8.2194,8.4841
2296.8750,-11.6330,12.9755,17.8154,12.3013,8.3165,4.3192,19.8670,14.9950,16.5837,5.4331,17.8484,8.3642,14.0297,9.0703,15.2990,15.9879,20.3110,7.5901,10.1007
2300.7812,-20.1190,5.1850,2.5516,1.6673,-0.4890,-3.6590,3.9688,3.9814,-0.2186,-3.3721,0.8550,-1.4313,3.0398,2.6063,-1.3475,5.7513,9.3860,-4.0694,-1.3944
2304.6875,-16.9053,-6.5303,-12.9419,-7.9922,-6.9832,-11.3072,-12.2992,-6.8733,-18.5483,-11.6009,-16.9960,-11.7380,-9.0892,-4.5321,-19.3681,-7.2099,-3.2373,-15.4312,-12.7173
2308.5938,-3.1329,-12.6770,-14.0353,-6.4766,-1.7369,-9.9259,-13.5432,-6.1208,-22.4344,-12.9288,-20.1263,-12.2373,-8.9846,-3.5204,-23.8476,-12.5581,-5.0410,-15.2184,-10.4391
2312.5000,10.5964,-9.0194,1.1795,6.4725,13.7838,1.6161,2.0465,7.1458,-8.5323,-7.0747,-5.5557,-1.0843,5.1880,6.2852,-11.6230,-6.8980,5.7540,-2.3403,6.6106
2316.4062,12.9791,0.3638,19.9634,20.4012,27.9170,15.1388,20.8865,22.1343,11.0128,0.0228,14.3715,13.0036,21.7139,16.5214,5.9118,3.4928,18.6299,12.8574,25.6566
2320.3125,1.7136,7.2242,25.9733,22.9583,28.7021,19.7933,25.8466,25.6329,19.3344,1.6693,22.6912,18.0294,25.5025,17.1530,13.0101,8.4996,20.3554,17.5369,30.8302
2324.2188,-14.1532,6.5872,13.6501,10.7248,14.4346,11.5520,11.4996,13.7107,9.7923,-3.3671,12.6338,9.1210,11.5611,5.5292,3.7552,3.3499,7.1952,7.7138,17.1473
2328.1250,-21.3704,0.8133,-6.8456,-7.5718,-4.5139,-2.8382,-10.7417,-4.5715,-8.1760,-9.5905,-6.5494,-7.1247,-10.2601,-10.9613,-12.5373,-7.1273,-11.3056,-8.1161,-4.8531
2332.0312,-13.1949,-3.2128,-18.7082,-18.5433,-14.4818,-11.2495,-22.3987,-14.9675,-17.6097,-9.7992,-17.9904,-18.3196,-23.6914,-21.1743,-19.7301,-13.0474,-20.6072,-16.4739,-18.1911
2335.9375,5.2674,-0.9721,-13.6051,-15.8901,-10.3599,-6.5467,-14.2025,-10.6471,-9.4551,-1.9842,-12.4069,-17.0610,-20.3281,-19.9685,-9.6928,-8.7499,-14.2944,-10.9825,-14.3903
2339.8438,21.4223,5.2015,0.7538,-5.9582,-0.0155,7.0262,5.5451,1.6266,8.9732,8.2260,3.5416,-7.2352,-7.0348,-12.7084,9.8594,1.6674,-0.1808,1.8024,-0.9616
2343.7500,25.3392,8.2775,7.6571,-1.9321,2.8061,17.1988,18.1804,7.4881,20.3140,12.0947,13.4100,-0.1529,0.3383,-10.3188,21.8952,7.8004,6.4208,8.2650,5.4821
2347.6562,17.0441,3.3901,-3.0142,-11.6222,-9.0198,14.0995,11.3159,-1.9494,12.8704,5.5219,6.2670,-3.9219,-8.4940,-19.1558,15.4334,2.4939,-3.4308,0.2746,-5.4476
2351.5625,5.0777,-7.0171,-24.7091,-29.7836,-29.2321,-1.1971,-9.8517,-21.5794,-8.3460,-6.8785,-12.7086,-15.6879,-28.4955,-34.7978,-4.0466,-11.1280,-23.7157,-16.8732,-27.9067
2355.4688,-1.8183,-14.7921,-39.1747,-42.1765,-43.4221,-17.4799,-26.8971,-36.2670,-25.4534,-15.2502,-26.2734,-23.9939,-43.4074,-45.5869,-18.8953,-21.8128,-38.2225,-28.5945,-44.4663
2359.3750,-2.1757,-13.2973,-32.5989,-38.1709,-41.8829,-22.9409,-24.6483,-34.1641,-23.4287,-12.7583,-20.6490,-19.4216,-40.4106,-43.0673,-14.9481,-20.0063,-34.9003,-23.9596,-41.6976
2363.2812,-1.8591,-3.7660,-8.6511,-20.7685,-28.6420,-15.1373,-5.1883,-17.6432,-3.8286,-1.4705,1.3067,-3.9489,-22.2790,-30.0571,5.3153,-6.7138,-17.1188,-5.9799,-22.8347
2367.1875,-7.0942,5.2535,13.6890,-4.7581,-18.3055,-2.6511,13.4391,-1.8038,16.0479,9.4182,21.5591,9.8022,-5.7360,-18.8466,24.2521,6.7804,-1.4234,10.3114,-5.7483
2371.0938,-17.3050,5.3137,16.3270,-4.0626,-23.0718,2.9558,13.1836,-1.3597,18.3225,11.5946,22.4155,9.3667,-6.8601,-20.6529,24.4728,8.5657,-3.1800,10.8439,-7.3627
2375.0000,-24.7148,-4.1062,-1.7254,-19.1802,-41.2749,-2.3619,-7.3713,-17.2710,0.7631,4.8193,2.6323,-6.0478,-26.2532,-35.4317,4.7458,-3.1755,-22.5457,-4.7127,-28.0651
2378.9062,-21.3417,-14.5885,-22.7959,-36.0579,-57.9025,-11.6702,-30.8162,-35.1990,-20.6535,-3.1600,-20.5591,-23.8738,-47.4898,-51.2193,-18.0872,-18.0552,-43.4600,-22.0009,-50.3036
2382.8125,-7.0160,-15.9610,-25.7650,-37.9556,-57.1615,-13.8159,-35.7896,-37.6998,-25.7143,-3.9818,-26.0861,-28.5130,-50.9269,-53.9967,-23.5632,-22.2942,-47.1472,-24.3046,-53.3671
2386.7188,9.1989,-5.5890,-5.0752,-20.2505,-36.3316,-4.2856,-16.1581,-19.7640,-8.4180,3.3149,-7.9088,-15.0664,-31.1266,-39.6810,-6.0115,-10.9991,-28.6159,-7.6348,-31.7828
2390.6250,16.0024,8.6270,23.4592,4.9382,-8.5922,9.8811,12.6934,6.1292,16.7493,11.0762,18.7370,5.7218,-2.3421,-17.6790,19.6403,7.0385,-1.4870,14.9525,-0.9227
2394.5312,9.3819,14.7104,35.8993,18.8401,8.0449,15.9816,26.7119,20.3965,27.0111,10.0389,29.9909,16.2412,13.3905,-2.6694,30.5279,16.6812,13.5861,24.2541,15.7879
2398.4375,-3.8239,7.2454,21.4110,12.3681,6.2021,7.3543,14.3651,13.4336,11.7463,-1.6128,14.4284,7.3710,5.5650,-1.7404,16.3235,9.8226,7.0657,11.9536,7.3392
2402.3438,-11.7547,-7.2215,-7.3075,-5.6936,-4.7226,-9.7361,-12.6261,-5.7031,-17.0249,-15.5615,-16.0108,-12.9834,-15.1560,-8.3650,-10.7374,-7.0220,-10.8560,-11.2631,-14.7940
2406.2500,-7.8281,-15.2517,-24.3137,-16.2712,-7.4802,-20.7568,-29.1329,-17.1276,-34.1632,-20.0457,-35.4882,-26.1159,-26.0310,-8.8179,-25.9148,-18.0217,-19.2576,-24.2606,-26.4445
2410.1562,3.5834,-8.1346,-13.1393,-7.0967,6.7495,-15.5325,-18.9743,-7.9978,-23.3345,-10.4067,-26.5317,-18.6308,-12.5971,4.5307,-13.9644,-11.9930,-5.5586,-13.8125,-12.3676
2414.0625,11.2492,10.0000,17.9120,15.7399,29.3865,2.2710,9.9551,15.3679,7.8622,5.9806,4.2833,5.4625,17.6430,25.1144,16.3229,7.2369,22.3046,13.2189,19.3489
2417.9688,7.3914,25.0400,41.9685,32.4428,41.3559,17.6613,31.8366,32.3726,33.5414,15.3663,31.4746,27.5687,40.8675,37.0802,38.6696,23.6165,41.9970,35.0466,43.4005
2421.8750,-5.0658,24.7427,36.6957,26.8461,30.2852,17.2059,25.7400,26.3472,31.8325,9.4841,32.7275,30.2835,37.6421,29.4121,32.1462,22.8795,36.4597,33.5910,39.2678
2425.7812,-15.0042,9.4560,4.3408,1.3159,2.7031,1.1292,-4.8594,0.1538,4.5054,-6.7337,8.6744,12.5672,10.6136,6.7573,0.4754,5.5866,9.8436,10.4888,9.9183
2429.6875,-13.3069,-7.8761,-29.3466,-24.3542,-20.2851,-16.3960,-33.7917,-25.1319,-23.8724,-18.8485,-17.4671,-9.1803,-16.9495,-13.2834,-29.8741,-12.7032,-15.0273,-13.9103,-19.8375
2433.5938,-1.5154,-12.8529,-37.1665,-29.7694,-20.8999,-19.5840,-34.6702,-28.1279,-27.3585,-15.4083,-20.7091,-15.4951,-21.2924,-14.8679,-32.2435,-14.9375,-16.3170,-18.2667,-24.7436
2437.5000,9.1899,-2.3581,-14.4983,-11.9862,-0.6774,-5.3544,-4.7938,-6.2633,-2.1448,1.4967,2.6513,-1.2337,0.4268,1.9521,-3.7393,1.8270,7.0260,0.6248,-1.7673
2441.4062,8.1775,12.4849,16.2305,11.4449,20.0702,13.3519,31.1715,21.1309,29.0833,17.2666,30.7352,19.5946,26.8252,20.4890,30.9426,22.8292,33.3288,24.4965,26.4328
2445.3125,-4.3663,16.2090,25.3927,17.8172,19.7281,18.8509,42.1527,29.3296,36.8127,17.2012,35.3521,26.3180,30.9020,21.4999,40.3362,27.9864,36.8062,29.6852,31.2451
2449.2188,-16.7537,3.3195,3.2579,-0.1642,-5.1604,4.9851,18.5389,10.3053,11.6534,-0.1938,8.2799,10.6437,4.6403,0.1957,14.1907,9.9303,10.8682,8.8116,4.1588
2453.1250,-15.9946,-15.8466,-30.1027,-27.1123,-36.0031,-16.3598,-18.0383,-19.3866,-25.6922,-20.9185,-29.3443,-14.9534,-32.5870,-28.9955,-26.2206,-18.3581,-24.8599,-21.4900,-34.3501
2457.0312,-0.0973,-23.5918,-42.0553,-38.3017,-48.1884,-25.1468,-32.9641,-32.8264,-41.5661,-26.9231,-44.3094,-27.7595,-50.3702,-44.7863,-45.6617,-33.8793,-41.1029,-34.6038,-52.1505
2460.9375,18.8973,-10.8055,-17.4205,-22.4560,-33.4569,-11.4230,-9.9194,-17.2245,-19.5513,-11.8310,-21.1514,-15.5787,-34.7466,-38.0942,-25.9377,-23.6349,-25.2700,-18.0633,-34.5709
2464.8438,24.7359,13.7343,25.6708,6.5251,-8.4333,14.4369,32.6441,13.2118,23.1242,12.8841,22.0911,10.9008,-2.1628,-20.7150,16.9822,3.2064,6.0198,13.8117,0.7936
2468.7500,11.5662,29.6994,49.7145,20.5240,-0.5581,29.6182,55.9223,28.6335,48.9361,27.2754,47.7103,26.1970,13.8624,-15.0319,45.9220,22.4650,20.6180,31.1634,18.1870
2472.6562,-9.7800,22.5629,30.8569,2.3679,-22.8489,19.0294,35.0107,10.3149,32.9732,20.2135,31.2362,12.5805,-7.0587,-33.0867,35.3210,16.0699,-0.1022,15.0214,-4.2809
2476.5625,-20.3112,-2.9933,-18.0004,-37.0025,-60.0290,-9.9391,-16.9704,-30.7550,-13.3778,-0.5736,-15.3318,-22.6973,-51.8317,-63.7385,-4.9407,-11.2209,-42.5497,-24.3345,-52.9350
2480.4688,-9.5871,-26.0302,-56.0478,-65.8897,-79.8260,-32.2120,-57.7365,-61.2563,-50.3466,-15.1264,-51.9669,-51.8612,-83.0143,-80.5689,-37.0560,-34.9990,-70.6627,-54.5695,-87.9992
2484.3750,14.0397,-27.1074,-49.7377,-58.9992,-61.1752,-26.6878,-52.0916,-54.1913,-44.3562,-9.3361,-45.3720,-50.4151,-71.4129,-65.0266,-29.1516,-32.6359,-57.4024,-49.3751,-78.0025
2488.2812,29.5536,-5.7650,-4.0427,-21.0839,-14.8157,3.7475,-4.5172,-14.1851,0.4924,11.5111,-0.1654,-19.9241,-23.9680,-24.7254,14.0973,-4.5110,-10.7173,-13.2028,-29.4632
2492.1875,21.4978,18.1496,39.2817,14.9836,23.3803,32.5499,42.0531,24.1435,43.2971,26.5956,42.4953,11.3682,19.3181,10.5312,52.8844,24.5733,30.5158,20.4591,15.9345
2496.0938,-5.3967,21.6275,37.6268,16.1897,22.7335,31.8937,42.9226,25.5946,41.5219,18.5329,40.3218,12.6513,19.4461,13.5341,47.1151,26.6781,29.5680,17.9691,16.9359
2500.0000,-28.8785,-0.2601,-12.5313,-20.0152,-13.9011,-1.3766,-6.9468,-13.0285,-9.0475,-9.1105,-10.3984,-20.6430,-25.1043,-15.4908,-4.9151,-3.1095,-13.8891,-22.7128,-28.8154
2503.9062,-28.1784,-28.2995,-68.3561,-60.5175,-50.0240,-39.9008,-64.5976,-56.9782,-66.2236,-32.4991,-67.2449,-59.6415,-73.0967,-46.8293,-60.0303,-39.5779,-59.9660,-66.6397,-78.8098
2507.8125,-3.3152,-35.2008,-76.1287,-64.1201,-46.5090,-47.7432,-74.7508,-62.4349,-76.0253,-27.8283,-76.5661,-65.4516,-74.7008,-46.2291,-65.5992,-47.9320,-61.8820,-70.6509,-81.0825
2511.7188,23.1167,-10.9162,-21.0426,-19.7718,1.6861,-13.0181,-20.8889,-17.0675,-22.3940,5.5785,-22.9202,-24.8383,-17.7445,-6.6739,-8.5430,-15.7610,-9.5262,-23.3012,-22.5436
2515.6250,25.1435,25.5811,53.5957,38.9934,56.5868,37.7838,54.2154,44.2088,52.6752,40.8920,51.4604,33.6678,55.6392,41.7261,66.4992,32.2217,56.1850,40.0166,53.4049
2519.5312,-1.9665,40.7972,79.6691,59.8970,67.7680,59.4689,81.5226,66.1046,81.2034,44.9545,79.1800,60.8060,81.3492,55.6153,91.1763,52.7222,75.3070,64.0840,80.3601
2523.4375,-34.1129,17.2355,25.9691,19.2381,19.0385,28.1680,28.4282,22.9882,30.5144,8.9222,28.6490,30.1678,31.1117,18.1637,35.1550,22.7831,23.5668,23.4738,29.0552
2527.3438,-37.4404,-26.8025,-65.6950,-50.7593,-50.3952,-32.7232,-63.7525,-51.6811,-59.7372,-39.0219,-59.8778,-33.2901,-54.8269,-40.4272,-58.4191,-34.7288,-58.4100,-48.5564,-58.6308
2531.2500,-0.4804,-49.0070,-108.7373,-83.9519,-74.7297,-67.5057,-107.5124,-87.9445,-104.1076,-54.1916,-101.7331,-69.2928,-95.3589,-64.4514,-102.0756,-65.6785,-93.4879,-82.7772,-98.5897
2535.1562,48.3394,-21.4598,-50.3033,-40.4262,-22.8865,-37.8022,-48.5684,-42.6728,-48.7411,-16.6135,-45.1017,-36.2144,-42.1821,-24.1291,-43.1770,-33.3178,-38.5459,-36.8424,-41.2868
2539.0625,56.7897,34.7906,62.5248,43.2771,57.8187,32.0583,66.2933,46.8715,61.9272,40.6828,63.6253,39.4884,59.3837,44.6443,69.8850,37.2766,59.5655,51.8438,65.0628
2542.9688,-9.2467,51.8563,92.2346,62.1019,59.4075,56.3221,97.8113,70.4518,92.7263,44.7702,89.1777,64.7358,80.8615,51.2119,97.9107,60.8592,77.0118,73.8422,85.8988
2546.8750,-129.6804,-39.2813,-94.7964,-85.0412,-109.3343,-54.6305,-90.5747,-79.3387,-89.9223,-64.8321,-99.4618,-57.3911,-100.5392,-86.2209,-93.6987,-50.8414,-100.7151,-76.9634,-106.5373
2550.7812,-231.7802,-248.7607,-510.8082,-405.8313,-438.5280,-317.0952,-512.9522,-412.5441,-500.9192,-280.3306,-513.0710,-343.6950,-493.1325,-366.7213,-516.5648,-312.9004,-476.4453,-409.7515,-519.6373
2554.6875,-234.8306,-500.0580,-997.7322,-778.1628,-793.5219,-636.6584,-1009.9512,-802.4693,-985.8620,-511.0526,-994.1612,-690.6525,-947.2067,-680.8741,-1010.2768,-630.7446,-903.4986,-798.0798,-995.5325
2558.5938,-109.1821,-662.6644,-1298.2235,-1005.4445,-981.3611,-847.7192,-1319.6947,-1042.7886,-1289.3751,-628.7905,-1287.7484,-918.1596,-1223.1307,-862.2095,-1314.2710,-839.9538,-1154.0006,-1036.8824,-1283.1016
2562.5000,93.9022,-630.2824,-1211.8042,-936.1317,-870.8701,-812.3699,-1236.3075,-972.9941,-1209.5468,-547.9243,-1196.2450,-877.5616,-1137.0854,-788.9649,-1225.5149,-804.5102,-1058.2164,-967.0327,-1190.8087
2566.4062,267.2665,-393.2296,-732.7317,-568.1680,-485.2155,-514.0260,-751.2342,-588.9573,-736.4757,-286.1833,-715.8464,-553.0826,-687.6892,-468.2696,-737.8804,-509.2041,-622.0486,-584.8936,-718.8608
2570.3125,314.2403,-53.0606,-70.0543,-62.7742,1.0475,-78.8584,-75.4812,-58.6640,-75.0566,38.5734,-55.7318,-83.8058,-71.9511,-41.6705,-62.8211,-80.0053,-37.4853,-57.6887,-74.9779
2574.2188,211.4754,234.5349,471.4367,347.6569,363.8537,294.6035,480.1835,373.7147,471.1835,276.9387,480.7906,314.3882,427.3416,296.4228,490.4444,286.4935,427.6711,371.8578,444.4283
2578.1250,24.0525,352.2957,673.0327,498.3860,463.8856,453.2586,690.4597,533.7829,680.9500,337.1683,677.0987,477.4807,610.4026,414.5824,698.7089,439.9236,589.5879,530.4131,631.2903
2582.0312,-138.0359,287.6847,525.2045,385.0068,323.1302,376.2416,542.5161,415.2280,539.9599,235.3533,525.2097,386.7084,472.5553,317.0554,550.0855,361.4436,450.8285,411.5942,482.7416
2585.9375,-191.3607,129.6366,211.8474,149.6274,94.5193,174.0691,222.0745,166.4088,228.3222,74.4920,209.4250,165.4994,186.8001,126.4278,229.5237,161.7721,179.0945,162.6891,181.7724
2589.8438,-128.7729,1.4883,-26.6299,-24.7521,-49.2603,5.0816,-24.9206,-20.0586,-14.0044,-29.6931,-30.3829,-13.3162,-24.7800,-7.2204,-18.5731,-2.3580,-16.9146,-24.8704,-38.4211
2593.7500,-14.8381,-20.6351,-51.2683,-34.5148,-27.2894,-29.4428,-53.9299,-33.9687,-45.1771,-22.7175,-56.0090,-41.9492,-36.8696,-4.4684,-50.3811,-31.9721,-23.9998,-41.2426,-47.4575
2597.6562,65.6965,52.0318,104.3365,91.7805,112.9406,60.4824,103.6591,96.1261,105.2005,64.4851,98.6597,64.8479,115.4683,104.6307,103.6690,61.3517,119.5572,85.7417,116.1948
2601.5625,66.6550,144.8355,288.4960,236.6118,250.5222,181.0516,294.0368,247.4806,287.8058,151.9593,282.2698,202.0381,289.5993,220.8423,291.7472,183.7534,277.6851,234.5646,301.5735
2605.4688,4.9917,183.3209,358.4680,291.1926,288.4450,234.9832,369.9453,305.5291,359.3378,175.0311,352.6226,263.2752,353.8457,257.4839,367.9609,239.0377,329.2448,291.4554,370.2084
2609.3750,-61.9188,146.5898,281.2108,231.8209,218.9862,191.5057,294.7030,244.4703,284.1563,127.6455,276.7845,216.8646,279.7777,200.5231,295.1106,197.5213,252.5677,230.4171,292.9222
2613.2812,-84.0346,73.5535,139.1146,122.9433,114.3663,97.4738,150.2073,131.1541,142.1891,56.6274,136.4671,116.1512,145.6033,106.7717,152.8767,106.1525,124.7981,117.3434,152.7919
2617.1875,-53.6584,24.0282,49.5098,54.6433,59.6460,29.6823,56.2757,59.8829,50.1842,17.9496,47.7841,45.7242,60.3284,49.9787,58.7204,40.7156,48.1092,45.6254,64.8481
2621.0938,-3.8821,29.8976,69.6795,70.0000,85.7872,31.8968,73.4466,76.1149,66.8399,32.8465,66.9910,52.1532,75.9763,62.1486,72.4352,43.6540,67.7911,60.5961,83.5727
2625.0000,23.1914,74.7643,161.3946,138.7631,153.7574,86.2757,165.0501,148.4577,155.9931,77.0043,155.7436,113.7324,156.0426,115.2828,158.8095,96.5011,145.5836,131.6591,169.9294
2628.9062,10.1912,114.0801,234.6887,191.7104,195.4560,136.6377,240.0597,204.3809,228.8196,106.7160,225.0788,167.4673,217.2696,152.4066,229.4695,143.5701,201.8576,187.4726,235.6976
2632.8125,-25.8857,114.8950,226.8917,181.3975,172.4791,138.8787,233.2546,193.9087,222.2958,96.8118,213.9549,165.1612,203.0261,137.4859,221.2224,141.9235,185.2473,178.8778,220.9739
2636.7188,-52.2196,81.2784,150.2024,118.1478,104.0719,95.3739,154.9378,127.6076,147.4671,58.8778,135.9248,110.8368,126.4573,82.4360,144.5186,94.9010,111.3405,116.4158,139.6509
2640.6250,-48.4454,46.5410,73.2186,55.2637,45.2889,47.6040,73.9417,61.3395,72.1498,27.4315,59.9378,51.6682,52.1948,32.1461,66.6288,44.1921,42.7799,55.1473,60.0575
2644.5312,-20.9090,42.0578,58.3019,40.7553,38.2240,37.3887,54.7471,45.6974,58.8697,28.7051,47.6207,34.6395,37.8198,24.0723,50.0905,31.2516,32.8706,44.5197,43.1863
2648.4375,6.6241,70.5894,110.1949,78.1917,78.6660,71.4924,104.4420,84.7697,113.0189,59.2637,102.4825,67.5726,86.6947,57.8684,101.0361,62.5691,82.1430,87.5699,92.9317
2652.3438,15.1081,105.8267,176.9983,127.8600,124.0097,118.4403,171.9646,137.0951,182.8601,91.0943,171.7145,116.0002,149.7439,99.0161,168.8297,106.9605,142.2643,142.0916,157.9204
2656.2500,5.2883,116.4618,198.1203,143.6532,132.1808,137.5012,195.5372,154.2146,206.9510,96.6573,194.6148,135.2814,170.4322,110.4353,192.7875,124.3741,160.0090,159.2167,178.8458
2660.1562,-6.0413,92.9036,155.6147,112.1313,96.7156,113.3174,155.0126,121.7193,165.9429,71.5835,153.7454,108.4984,132.2236,83.5583,153.4537,99.8501,121.7364,124.4901,138.4005
2664.0625,-3.2710,54.1376,86.0153,61.1528,49.2027,67.0255,85.3976,68.5222,95.5070,36.4958,86.1173,58.3364,69.0796,43.1431,85.6151,54.1265,61.5875,67.2477,72.2844
2667.9688,13.5432,30.2944,45.7988,33.2688,29.6555,36.2950,43.4033,39.1326,52.5976,18.1395,48.0731,25.1667,33.2201,23.9072,45.2071,23.8720,29.4335,32.9516,35.2353
2671.8750,29.3607,37.0069,62.6594,48.7490,52.0332,42.9970,58.4496,54.8924,66.5199,27.0482,66.5147,32.1542,50.2171,40.6267,61.0473,30.1853,48.2137,44.2418,53.7896
2675.7812,28.3330,63.4516,114.3006,89.9591,94.1745,76.1769,110.1202,97.4585,116.6252,50.4568,118.2338,67.4185,99.7587,77.1696,112.6441,62.3593,96.8994,83.9556,106.1512
2679.6875,8.2489,83.1917,150.6069,118.7241,118.8797,103.4289,148.9636,126.8712,153.3348,65.0630,152.7951,96.8418,136.2068,102.2487,150.7047,89.2783,131.3645,112.6799,144.0111
2683.5938,-17.3573,77.3566,137.7118,109.8612,106.2580,99.3056,140.1351,116.7038,141.8999,57.4091,136.9532,94.5178,128.8105,96.7282,140.2791,86.9477,122.9705,103.6810,135.0418
2687.5000,-30.6476,50.0337,85.5461,71.5764,69.2959,66.0040,91.6802,75.5739,90.7035,34.2918,81.9254,63.9624,86.3872,68.6652,89.0315,58.0178,81.2979,64.6709,88.9276
2691.4062,-23.9819,23.4670,36.7679,36.3438,40.5593,29.6548,44.7339,37.7159,41.4027,15.3108,31.6282,32.8272,46.7561,44.2247,38.1094,27.5349,43.0669,28.9567,46.1223
2695.3125,-5.0387,18.2870,28.8063,31.8020,43.1007,16.9823,36.4289,32.4584,31.7119,15.2383,24.0960,27.3923,42.2568,43.8002,25.8111,20.1423,38.9217,25.4261,41.2879
2699.2188,11.0728,36.2181,62.6445,57.5170,71.2384,33.1552,68.5895,59.6631,63.9227,31.8497,60.0953,49.8602,72.1933,64.6525,56.2216,39.1807,67.6401,54.0965,73.9979
2703.1250,14.9915,59.6227,104.2521,86.9873,97.0075,59.2479,108.3175,91.5597,105.3225,49.0814,104.8505,77.7070,105.2833,84.5520,98.5765,65.1945,99.1657,87.6459,111.1478
2707.0312,9.9049,67.3023,115.4901,91.7597,95.3720,70.0539,118.0105,97.9069,118.1257,51.6992,119.3897,84.4297,108.3121,82.1525,115.5937,73.8641,102.1245,96.1392,117.1778
2710.9375,6.6806,52.3829,86.6094,65.9143,65.6869,55.8433,87.5959,71.8320,91.7414,38.1767,93.2956,62.7738,75.0701,55.7223,94.8894,56.9718,70.9561,72.6479,84.7957
2714.8438,12.5795,27.1872,42.7381,30.0229,31.2581,29.4174,41.5063,34.3844,49.8794,20.9478,51.1900,30.3480,30.7760,24.1757,56.9003,28.4472,29.5437,37.9197,39.9566
2718.7500,24.1094,11.7890,20.3674,12.2400,18.4284,13.4694,15.9528,15.0992,27.9940,14.7076,29.1681,13.5807,9.3682,10.2709,34.4844,11.2606,9.5125,21.2257,18.1673
2722.6562,30.3034,16.8264,35.5129,23.8001,34.0031,20.2992,27.5321,26.3868,42.0607,23.6046,43.0832,24.7033,24.3317,21.1269,43.6873,17.4211,23.0331,34.9174,33.7621
2726.5625,23.0951,35.3231,71.0980,50.1309,60.3482,41.7131,60.3614,53.8693,75.8671,38.3924,76.1996,51.7764,58.2406,42.8511,71.2671,38.4667,53.5933,64.6752,68.6977
2730.4688,5.2115,49.7890,93.2592,64.4760,71.5284,57.1912,81.6250,70.0651,96.6808,45.3259,95.6156,69.7603,79.0445,53.2894,88.4669,53.9033,71.6532,82.9664,89.4730
2734.3750,-11.5226,47.6177,81.1399,51.4051,55.7929,52.2922,70.6505,58.5678,84.3393,38.3483,81.7356,62.3209,67.9676,41.2790,77.3503,49.3546,60.5354,73.1050,76.4033
2738.2812,-15.9000,31.2448,44.0681,19.7309,25.0145,30.8894,35.9173,27.5867,48.0766,23.7893,44.7421,35.3360,34.7395,15.7450,46.0543,28.3995,29.9446,42.9154,39.7418
2742.1875,-6.4675,14.8220,12.1320,-5.7105,3.7027,10.9616,6.1274,1.8538,17.2170,13.9386,14.5310,10.9590,7.8479,-2.6365,20.3260,8.3872,6.2480,16.8983,9.5938
2746.0938,7.7848,11.1315,9.5768,-5.5068,7.9040,8.3271,4.4238,0.8885,14.9852,15.7624,14.0620,8.1315,9.3642,0.6529,20.0116,4.7643,9.0509,14.6466,9.5133
2750.0000,15.4681,20.5533,34.5964,18.4222,32.3457,22.9169,28.8040,22.8259,38.7594,24.9482,39.8577,26.7014,36.5364,22.1100,41.8057,18.0095,34.8062,34.5610,37.0370
2753.9062,12.2984,31.4389,62.3962,45.6086,56.2062,39.3705,55.2316,47.2682,63.4658,30.2894,66.1082,48.4543,65.4367,44.1063,63.0572,34.2264,61.0824,56.4202,67.2853
2757.8125,3.8333,30.9255,67.6277,55.1567,61.5213,40.8946,59.5587,53.6779,64.1521,24.0923,67.7561,53.3639,72.3561,50.3895,62.3737,38.0772,66.7020,59.5904,75.2623
2761.7188,-0.5331,16.3043,45.9452,43.0124,47.8430,23.9191,38.3533,38.7352,37.4604,9.1498,41.8260,36.5190,53.7242,39.4020,38.3078,26.1745,49.6023,40.4989,56.7963
2765.6250,3.4201,-2.9003,16.2817,23.8169,30.9269,0.8718,10.6666,17.8626,3.5871,-3.8078,8.7584,11.3368,27.6241,24.2439,9.8947,9.2964,27.1868,14.5145,30.3549
2769.5312,10.8609,-13.4750,2.9936,16.7318,27.6196,-10.9078,0.1485,10.5107,-12.0655,-5.6735,-6.3969,-2.9100,16.6596,20.1346,-0.6791,2.0873,19.8208,1.5373,19.3598
2773.4375,12.4651,-9.8076,14.4119,28.3701,40.8597,-4.1028,14.0106,22.8178,-0.8249,3.0815,4.3147,2.2610,27.9836,30.8949,12.5678,9.8636,32.6722,8.6249,31.4220
2777.3438,3.1738,1.9191,36.5819,47.7311,57.8356,12.7420,37.3443,42.8463,22.7784,13.0264,26.0734,18.1904,47.9305,46.1964,34.9827,24.2174,51.8005,24.8264,52.6822
2781.2500,-12.6915,9.8440,46.8662,56.8872,62.2253,23.1346,47.1510,51.9554,34.8478,14.2237,35.7667,27.8821,55.1913,51.4060,45.0092,30.9119,57.2755,32.0505,61.3836
2785.1562,-24.4261,7.0033,34.5753,47.3170,49.0982,17.0139,33.0565,41.6592,23.3622,4.9359,23.0277,21.5050,40.1688,40.8262,33.3287,22.6591,41.1406,21.6806,47.8306
2789.0625,-23.3844,-3.0325,10.2142,27.3181,29.2089,-0.9264,6.3163,20.9605,-1.9102,-7.0181,-0.9323,4.7511,13.3017,22.5760,10.4412,5.3771,14.2871,2.1016,22.8626
2792.9688,-9.6245,-10.0773,-4.3714,14.3072,19.2192,-15.7923,-10.4350,8.0255,-18.9149,-11.2541,-14.0338,-6.9302,-4.5441,11.1218,-3.5011,-7.3474,-3.4158,-9.1462,7.7520
2796.8750,8.6562,-6.8519,4.3425,19.2416,26.8465,-15.4702,-3.1866,13.9580,-13.1188,-3.8773,-3.4979,-2.5723,-0.6057,14.4030,3.0008,-6.3487,-0.5683,-1.1771,15.0154
2800.7812,21.9496,4.5662,29.6478,37.0321,44.1025,-0.6132,21.3990,33.0808,10.0726,9.2993,22.6263,14.4507,18.8134,26.9781,22.7767,5.2888,16.2000,20.5912,37.3137
2804.6875,26.4271,14.9552,50.6680,51.1518,54.3336,16.6773,42.1344,48.0285,30.8296,17.9839,42.5785,29.5198,34.2867,35.0028,36.8565,15.3910,28.6313,39.2417,54.0268
2808.5938,25.3913,16.5384,50.6039,48.0515,46.5932,23.7172,41.7839,44.8384,32.8302,16.3193,40.0249,29.7590,30.4358,28.3827,31.6928,13.7423,23.1126,41.0390,49.3471
2812.5000,24.7327,10.0803,30.9338,28.6239,24.7251,17.8335,21.5175,24.7187,17.4383,7.6921,18.2073,15.2653,9.0730,9.3782,11.2591,1.1004,2.3483,26.9453,25.8316
2816.4062,27.1216,4.1587,9.3694,6.9244,3.5381,7.6355,-0.9665,2.4798,1.7994,1.4510,-3.1614,-1.2312,-12.9417,-9.6312,-6.5592,-11.6819,-17.5436,11.0801,1.7347
2820.3125,30.2409,7.3607,3.8694,-2.3135,-4.1282,4.4395,-7.4015,-6.5386,3.0102,4.6397,-5.2063,-5.7323,-18.7590,-16.8946,-5.8208,-13.4125,-21.4785,7.8731,-5.1422
2824.2188,30.1625,20.4015,17.0311,3.7700,2.0476,11.8773,5.3280,0.6180,22.6586,16.0035,13.9079,4.7868,-6.0484,-10.9859,13.4737,-2.4508,-8.4393,19.4088,7.2645
2828.1250,26.0963,35.1076,34.3623,14.3224,10.6480,22.9010,23.2593,12.8199,45.3041,27.2747,37.8222,19.9229,11.5500,-1.1913,35.3927,11.9031,8.1685,33.9162,24.0276
2832.0312,21.6911,41.0816,37.4315,14.7973,9.3748,26.5005,28.2834,15.3078,51.9132,30.2947,46.4038,25.0763,16.7841,1.2719,41.7590,17.5236,12.6860,36.3472,26.6360
2835.9375,21.6117,34.1684,19.9724,-0.2657,-3.9437,17.8202,14.0866,2.7268,36.1925,23.6212,32.8130,14.0969,3.7495,-6.8525,27.3534,9.8056,0.8516,21.5005,9.0259
2839.8438,26.7631,19.4511,-7.0904,-22.7804,-19.8084,2.5876,-8.8701,-16.6277,9.5823,13.0557,8.4649,-5.6501,-17.5593,-18.5081,3.5763,-4.7464,-16.9915,-1.7142,-17.6214
2843.7500,32.8711,6.4565,-25.5856,-38.4063,-25.8937,-7.9363,-23.1889,-28.5970,-9.0526,6.0586,-7.8516,-19.9248,-30.5758,-23.2023,-12.0539,-14.5371,-25.5273,-18.2138,-34.9652
2847.6562,33.9492,1.0458,-25.7702,-38.7604,-18.0589,-6.8319,-19.9649,-25.6401,-9.6028,5.2736,-6.5738,-19.8644,-26.6736,-16.6437,-10.8867,-12.9556,-18.0520,-19.5734,-33.1652
2851.5625,27.5253,1.1293,-13.9124,-27.8150,-3.7240,2.5525,-6.0594,-12.9191,1.4280,6.8295,5.0061,-9.1264,-12.0503,-4.4969,0.4784,-3.6609,-1.9948,-10.5275,-18.4155
2855.4688,16.7835,-0.3164,-5.5879,-17.3237,5.1004,9.7176,2.8506,-2.9836,7.8319,4.5708,10.3736,0.0087,-1.3627,2.8958,7.3966,3.2736,8.1616,-3.8640,-6.3082
2859.3750,7.6308,-8.0037,-11.2313,-15.9066,2.5983,6.2469,-3.2257,-4.2533,-1.2716,-3.9056,-0.6403,-2.2469,-4.2973,-0.1104,0.8716,0.5963,3.9038,-8.7064,-7.5527
2863.2812,3.4593,-19.5569,-26.9991,-21.7234,-5.9647,-7.0041,-19.6568,-13.7433,-21.7700,-14.9098,-22.4387,-14.7729,-17.1934,-9.4305,-14.6872,-9.8001,-9.9987,-22.6833,-18.9268
2867.1875,2.5532,-27.4784,-38.8126,-25.0307,-9.4606,-20.9085,-31.6242,-20.3396,-38.5729,-21.9639,-38.6491,-27.0303,-26.9219,-14.9655,-26.2301,-18.8993,-20.1532,-34.6257,-27.1736
2871.0938,0.5767,-25.9830,-35.5166,-17.8936,-1.3510,-26.1114,-27.6785,-15.3652,-39.3269,-21.5840,-36.8375,-28.7784,-23.1602,-9.6648,-24.5138,-18.8516,-16.7267,-34.9407,-21.8220
2875.0000,-4.3231,-16.4754,-19.1308,-2.0536,14.0615,-20.9136,-10.1757,-0.7914,-25.4285,-16.2771,-19.7299,-19.2230,-7.9054,4.1073,-12.6950,-10.0271,-2.2105,-24.1919,-5.1476
2878.9062,-8.9250,-6.7049,-3.0904,12.1329,25.1160,-12.1978,6.6422,12.2250,-10.6515,-12.1669,-3.0133,-7.5795,6.1672,16.4225,-3.3647,-0.6560,10.8637,-12.3655,9.6102
2882.8125,-7.7526,-4.2972,-0.2766,14.6212,22.8349,-8.8922,9.0604,13.0513,-8.8643,-13.5372,-1.7476,-4.7901,6.8089,18.1031,-6.9490,0.4234,10.9662,-9.7886,9.9734
2886.7188,1.0209,-10.3539,-11.6879,4.4050,8.6030,-13.9760,-4.2853,0.8215,-21.8945,-19.2394,-17.3960,-13.8925,-7.2325,8.1878,-22.1480,-8.6378,-2.5495,-18.0195,-4.7234
2890.6250,12.2574,-18.7238,-25.8300,-9.7069,-7.2122,-22.0840,-21.5389,-14.9319,-38.2171,-24.0620,-36.7648,-27.5230,-25.4489,-5.7974,-37.0709,-21.3899,-19.3403,-28.7967,-22.7787
2894.5312,16.9329,-21.5377,-29.2064,-16.8420,-14.3234,-24.6260,-28.2535,-22.6638,-43.3881,-23.6134,-43.5868,-34.5791,-35.0096,-14.6696,-39.9470,-28.9651,-27.5192,-31.7575,-30.4228
2898.4375,9.6785,-16.1141,-18.4355,-13.3853,-11.1974,-17.6866,-19.9754,-18.6950,-32.8041,-18.1939,-32.4923,-29.9983,-31.8190,-15.3048,-29.6569,-27.7191,-24.0342,-23.8360,-23.7307
2902.3438,-5.6533,-7.1996,-3.2161,-5.6715,-5.7922,-5.6717,-5.7378,-9.9204,-15.5393,-12.2356,-13.2703,-19.0280,-23.4375,-12.5402,-16.5758,-21.8698,-16.7952,-11.9220,-11.6544
2906.2500,-17.7977,-2.6564,2.3871,-3.8566,-7.9406,2.4222,0.3645,-7.1789,-6.0983,-10.0381,-2.0167,-12.3743,-21.5706,-13.9507,-13.0304,-19.0471,-16.9216,-6.5368,-7.6959
2910.1562,-16.5626,-6.4405,-7.4943,-12.5847,-20.2934,0.7055,-8.1676,-15.3610,-11.6006,-11.8801,-7.1897,-16.6669,-31.1185,-22.5057,-22.0497,-23.0372,-28.2899,-12.3133,-17.7739
