Time,Fp1,F3,C3,P3,O1,F7,T3,T5,Fz,Fp2,F4,C4,P4,O2,F8,T4,T6,Cz,Pz
0.0000,-8.6317,-10.2535,-17.5875,0.9232,-2.6510,-10.6939,-12.5571,4.0582,-9.7254,0.7018,-11.9131,-1.3140,-6.7311,4.7318,-12.6768,-3.9790,-6.8353,0.3433,-10.7942
3.9062,-11.6883,-6.7113,-18.0155,-2.7371,1.8611,-5.9684,-9.6524,0.3803,-13.4893,-7.3308,-14.4537,-0.6337,-9.1092,2.4123,-12.3773,-6.8985,-8.3002,-4.9283,-12.2464
7.8125,-10.6110,-1.6651,-14.3501,-4.7952,5.7083,0.6627,-4.8172,-2.3961,-13.9205,-10.7302,-14.0389,-0.8124,-9.5097,-0.4103,-10.6219,-5.5755,-7.2971,-8.6694,-12.2788
11.7188,-5.8302,1.7397,-8.5911,-4.6177,6.5568,5.1050,0.1563,-3.2037,-11.1953,-7.9229,-10.6801,-2.6396,-8.4117,-3.2632,-8.0076,-1.0430,-4.3707,-9.5717,-11.0901
15.6250,0.2416,1.4418,-3.3071,-2.6795,4.1287,4.5696,3.4132,-1.8630,-6.7611,-1.5477,-5.7251,-5.7647,-6.4212,-5.5542,-5.1729,2.9879,-0.4458,-7.7376,-8.9984
19.5312,4.7229,-2.0783,0.1181,-0.2213,0.4605,-0.4365,4.1500,0.6580,-2.3772,3.3031,-1.0691,-8.9819,-3.8104,-6.7068,-2.3884,2.6153,3.7410,-4.5715,-6.2490
23.4375,6.0330,-6.1746,2.1087,1.5539,-1.5061,-6.4259,3.1805,2.6816,0.8184,2.8189,1.9105,-11.1700,-0.6070,-6.2934,0.5069,-3.3378,7.6922,-1.8513,-3.0300
27.3438,4.7365,-7.9712,4.0259,2.1946,0.0664,-9.3278,2.5245,2.7978,2.6743,-2.6147,2.9971,-12.0845,2.9811,-4.1651,3.7799,-12.1587,10.8217,-0.6131,0.3952
31.2500,2.9453,-6.4215,6.6440,2.1444,4.7764,-7.2296,4.1684,0.8038,3.7384,-8.6296,2.9692,-12.3505,6.3337,-0.5786,7.3420,-18.8385,12.3099,-0.6244,3.6171
35.1562,2.7639,-2.9767,9.3032,2.2467,10.4591,-1.5230,8.7160,-2.0548,4.6601,-10.1656,2.8259,-12.7042,8.6909,3.7289,10.5323,-19.4277,11.5196,-0.7891,6.1701
39.0625,4.8869,-0.4185,10.4528,2.9930,14.7439,4.2735,14.8224,-3.8126,5.7336,-5.3902,3.0308,-13.1889,9.7145,7.6099,12.3746,-13.7970,8.7301,-0.1447,7.7317
42.9688,8.2817,-0.7798,9.1108,4.0699,16.4200,7.0561,19.8862,-3.1044,6.8220,2.7505,3.3442,-13.0389,9.7940,9.7920,12.1994,-5.7894,5.4692,1.3122,8.2830
46.8750,11.0751,-3.9128,5.9745,4.5191,15.6762,6.1780,21.6678,-0.2270,7.5959,8.5616,3.3110,-11.3704,9.7462,9.3270,10.2130,-0.5906,3.8992,2.5866,8.1149
50.7812,11.9279,-7.6992,3.1905,3.3729,13.3433,3.6171,19.8127,2.8307,7.8423,7.6801,2.9263,-8.0629,10.1182,6.0146,7.5690,-1.1525,5.4698,2.4313,7.6763
54.6875,10.9105,-9.6280,2.8874,0.3005,10.0934,2.3190,16.2119,3.5238,7.6393,0.1237,2.8557,-4.0244,10.7107,0.5647,5.8052,-6.1973,9.7804,0.2920,7.3677
58.5938,9.3228,-8.4878,5.6065,-4.1706,6.4125,4.0283,13.8508,0.3914,7.3323,-9.9316,3.9688,-0.5629,10.7921,-5.6293,5.9551,-11.2029,14.6077,-3.2633,7.4028
62.5000,8.6846,-4.9627,9.8782,-8.9572,3.2337,8.1424,14.8373,-5.8634,7.3684,-17.3386,6.5445,1.6083,9.8695,-11.0199,7.9240,-11.6360,17.2556,-6.9231,7.8017
66.4062,9.6623,-0.8602,13.3003,-12.9823,2.2981,12.2524,18.9437,-12.6156,8.0709,-19.5956,9.8358,2.8418,8.3321,-14.4843,10.5830,-6.1290,16.3413,-9.4939,8.4924
70.3125,11.6662,2.2576,14.2913,-15.6070,5.4247,13.8266,23.7156,-16.8017,9.4327,-18.1759,12.4329,4.0437,7.3191,-15.6798,12.5547,2.6096,12.7141,-10.5906,9.4290
74.2188,13.3229,3.9450,13.1735,-16.7238,12.9215,11.8116,26.1306,-16.7404,11.0200,-16.7777,13.2225,5.5960,7.8016,-15.0485,13.1534,9.7018,8.7924,-10.6866,10.6381
78.1250,13.4232,4.7241,11.7880,-16.5878,22.4282,7.1703,24.6802,-13.1422,12.0832,-18.1217,12.2207,6.7015,9.5958,-13.5308,12.8052,11.3955,6.7926,-10.5815,12.1520
82.0312,11.6822,5.2847,12.0005,-15.6147,29.5113,2.2099,20.4067,-8.6679,11.9042,-21.9164,10.6044,5.8542,11.1941,-12.1544,12.6324,7.4293,7.1817,-10.7615,13.8750
85.9375,8.8456,5.8576,14.2906,-14.2879,30.1008,-0.6953,16.1614,-6.3215,10.2458,-25.4669,9.8728,2.1910,10.7065,-11.6566,13.5147,0.9297,8.5067,-11.1323,15.4974
89.8438,6.1423,6.2621,17.4832,-13.1228,23.2653,-0.1835,14.6250,-7.6845,7.6158,-26.1818,10.7678,-3.3556,7.2854,-12.2289,15.3530,-3.9076,8.6718,-11.2381,16.5664
93.7500,4.4803,6.4102,19.7343,-12.5483,12.2163,3.6829,16.5217,-12.0630,5.0844,-23.7744,12.7879,-8.1704,1.9256,-13.4435,17.1312,-4.6064,6.6007,-10.6866,16.7338
97.6562,3.8856,6.6252,19.9136,-12.6815,2.4933,9.6491,20.2719,-17.0035,3.6563,-20.3904,14.6696,-9.4668,-3.0743,-14.4206,17.7551,-1.7674,2.9486,-9.4049,16.0443
101.5625,3.4929,7.3829,18.3007,-13.1660,-1.6504,15.8430,23.2406,-19.7866,3.5555,-18.7295,15.4283,-6.1904,-5.6879,-14.2567,17.0093,1.7519,-0.6607,-7.5858,15.0367
105.4688,2.0707,8.7369,16.1599,-13.3003,-0.1444,20.4115,23.5743,-18.9590,3.9457,-19.8605,15.0970,0.1053,-5.6347,-12.5936,15.8356,3.0223,-3.1728,-5.4945,14.4968
109.3750,-1.2095,10.0929,14.6846,-12.4895,2.9020,22.0727,21.2739,-15.0395,3.3906,-22.5335,14.5600,6.1421,-4.6242,-10.0258,15.6416,0.9708,-5.0836,-3.3861,14.9351
113.2812,-6.1676,10.7101,14.2304,-10.7495,2.2332,20.5112,17.8505,-10.0991,0.8435,-24.3977,14.6472,8.9930,-5.1449,-8.0055,17.1397,-3.1753,-8.0038,-1.5943,16.1193
117.1875,-11.5127,10.5673,14.3874,-8.8575,-4.6331,16.5074,15.0376,-6.5811,-3.4900,-23.9254,15.2980,7.8872,-8.6646,-8.1347,19.6525,-6.9662,-13.1483,-0.5959,17.0510
121.0938,-15.3643,10.7367,14.6448,-7.9446,-15.4833,11.6844,13.6698,-6.0791,-8.0740,-21.3937,15.5606,4.4817,-14.5569,-11.1606,21.5204,-8.3460,-20.0130,-0.8373,16.5246
125.0000,-16.2046,12.7031,14.9146,-8.7496,-24.9343,7.8845,13.5182,-8.6949,-10.9096,-18.2663,14.4770,1.4930,-20.5169,-16.3146,21.3826,-6.6644,-26.3852,-2.3587,13.9702
128.9062,-13.7927,16.9910,15.4011,-11.0672,-28.2964,6.4005,13.9415,-13.1913,-10.8181,-15.7752,12.1005,0.7800,-24.1207,-21.5412,19.3495,-2.6212,-29.7579,-4.5444,9.9839
132.8125,-9.4925,22.2374,15.9975,-13.8287,-24.9096,7.4252,14.5370,-17.7246,-8.2596,-14.1000,9.7002,2.2929,-24.3647,-24.6170,17.0692,2.4594,-29.0645,-6.3348,6.0740
136.7188,-5.7074,25.6981,15.8978,-15.7948,-18.4926,10.0114,15.1292,-20.7154,-5.0805,-12.8111,8.8428,4.5457,-22.1037,-24.4966,16.4994,7.2720,-25.3654,-6.8811,3.6846
140.6250,-4.6105,25.0899,13.9476,-16.3576,-14.3015,12.5730,15.2387,-21.4463,-3.3262,-11.9320,10.0068,6.0587,-19.1852,-21.9529,18.2427,10.6921,-20.9464,-6.1917,3.1429
144.5312,-6.8539,20.4645,9.5541,-15.8410,-15.2730,13.6700,13.8159,-20.1763,-3.9285,-12.3590,11.8837,6.5316,-17.0418,-18.9912,20.7575,11.6876,-17.5627,-5.2079,3.3376
148.4375,-11.0751,14.5465,3.3786,-15.0795,-20.0212,12.6888,9.8404,-17.8070,-6.1778,-15.0303,12.0731,6.8424,-15.8228,-17.3801,21.1925,9.4905,-15.2455,-5.1362,2.4691
152.3438,-14.6176,11.0062,-2.8829,-14.6343,-24.0802,10.0943,3.4802,-15.3188,-8.3279,-19.5646,8.7920,7.9945,-14.6337,-17.3422,17.3846,4.2098,-12.6221,-6.4776,-0.5891
156.2500,-15.1321,11.7758,-7.5843,-14.3081,-23.3226,7.1526,-3.2791,-13.2756,-8.8686,-23.7914,2.3419,9.9872,-12.5673,-17.4004,9.6046,-2.5756,-8.4645,-8.5242,-5.3215
160.1562,-12.0914,15.4412,-10.2501,-13.3765,-16.9332,5.2618,-7.4529,-11.6407,-7.5408,-24.9394,-4.8435,11.5898,-9.6484,-15.5597,0.7108,-8.0008,-3.1670,-9.7969,-9.7939
164.0625,-7.2127,18.1042,-11.7910,-11.3502,-7.8160,5.2139,-7.0836,-9.9828,-5.3965,-21.7440,-9.7208,11.2044,-6.9730,-10.9842,-5.5249,-9.2045,1.1121,-9.1695,-12.0114
167.9688,-3.4376,16.2736,-13.5818,-8.6121,-0.3553,6.7630,-3.0144,-7.9328,-3.9327,-15.7198,-10.6691,8.0991,-5.9933,-4.8954,-6.8063,-5.1459,1.8540,-6.8217,-11.4478
171.8750,-3.0713,9.6857,-16.1389,-6.3473,2.5898,8.7604,1.1968,-5.5953,-3.9941,-10.3425,-8.5421,3.0183,-7.5312,0.0453,-3.7430,2.3036,-1.9006,-4.2333,-9.5645
175.7812,-6.2850,1.8334,-18.5283,-5.7564,1.2066,9.8365,1.5564,-3.6347,-5.2547,-8.5740,-5.9565,-2.2851,-11.2239,1.4793,0.6877,9.0144,-8.5887,-3.1470,-8.8330
179.6875,-10.9875,-2.3843,-19.0745,-7.1540,-2.1298,9.2610,-3.3558,-2.9492,-6.5961,-10.6431,-5.3577,-6.1857,-15.7153,-1.0460,3.2414,10.9049,-14.8981,-4.2659,-10.9061
183.5938,-14.1646,-0.2729,-16.8402,-9.6844,-5.0799,7.4183,-10.9593,-4.1203,-7.0053,-13.9308,-7.3075,-8.1078,-19.3663,-5.7961,2.5500,6.5445,-17.7629,-6.7005,-15.2897
187.5000,-13.7939,6.4835,-12.6346,-11.9073,-6.9961,5.5016,-16.1739,-6.9883,-6.2663,-15.1435,-10.2409,-8.6093,-20.9870,-10.0796,-0.1911,-1.7360,-16.1850,-8.6205,-19.5516
191.4062,-10.0535,12.8218,-8.6140,-12.8010,-8.7802,4.5415,-14.9979,-10.6400,-4.9444,-13.0412,-11.7860,-8.7154,-20.2118,-12.0361,-2.3738,-9.1655,-11.6453,-8.6164,-20.9749
195.3125,-5.0462,13.8578,-6.6834,-12.3831,-11.3265,4.4460,-7.5722,-13.8267,-3.7603,-9.4548,-10.5664,-9.1407,-17.4586,-11.6409,-1.9986,-11.5845,-6.9173,-6.7061,-18.4581
199.2188,-1.2948,8.4258,-6.9562,-11.4670,-14.0939,3.8677,1.6811,-15.5557,-2.9179,-7.6962,-7.1067,-9.9926,-13.6337,-10.2474,0.9649,-8.2277,-4.2051,-4.2070,-13.2578
203.1250,-0.0920,-0.0393,-7.5883,-10.7980,-15.1277,1.1989,7.1310,-15.4991,-1.9409,-9.6472,-3.2413,-11.0333,-9.7636,-9.1728,4.8048,-2.2867,-3.8966,-2.6144,-8.0369
207.0312,-0.8307,-5.9674,-6.2472,-10.3387,-12.5465,-3.8934,6.0121,-14.0144,-0.1241,-13.9755,-0.6209,-12.0887,-6.6420,-8.5689,7.5497,1.2433,-4.6526,-2.4288,-4.9650
210.9375,-1.6915,-5.6594,-2.1244,-9.3478,-6.2402,-9.5932,0.4162,-11.8466,2.7956,-17.0428,0.4426,-13.1533,-4.5470,-7.5124,8.4662,-0.9719,-4.5578,-2.8885,-4.3144
214.8438,-1.0910,0.1255,3.1443,-7.2032,1.6460,-12.6471,-4.3723,-9.7645,6.3004,-15.8341,0.9303,-14.1395,-3.1393,-5.1688,8.4327,-8.2174,-2.4082,-2.7863,-4.5679
218.7500,1.1977,6.8832,6.5101,-4.2412,7.8814,-10.4721,-3.9547,-8.3531,9.3524,-10.5101,2.0435,-14.6306,-1.6616,-1.9317,9.0226,-16.1245,1.7043,-1.6268,-3.8484
222.6562,4.0179,9.7808,5.8198,-1.8137,10.1137,-3.2768,1.8351,-7.9860,11.0418,-4.4347,4.0915,-14.0191,0.5778,0.5590,11.1400,-19.6287,6.6975,-0.1041,-1.4677
226.5625,5.8177,7.1753,1.6412,-1.3970,8.2166,5.4837,8.9235,-8.8319,11.1330,-1.6003,6.2676,-12.0196,3.6943,0.6514,14.3205,-16.4507,11.2621,0.5169,1.6350
230.4688,5.8451,1.6295,-2.8829,-3.4110,4.1663,10.9816,12.3232,-10.7603,10.1306,-3.5388,7.4203,-9.1130,7.0629,-1.8299,17.1694,-8.6632,14.4867,-0.4418,3.8378
234.3750,4.6602,-2.2344,-4.1692,-6.7324,0.7116,10.1662,10.1461,-13.1922,8.8734,-8.2588,7.0741,-6.4426,9.6891,-5.1615,18.4660,-1.2378,16.0526,-2.4231,4.3000
238.2812,3.6428,-1.3104,-0.7787,-9.3926,-0.1374,4.0042,5.1074,-15.1117,7.9947,-12.0697,5.8023,-5.1141,10.9101,-6.8759,17.9860,1.4011,16.1197,-4.1179,3.6986
242.1875,3.9388,3.7274,5.4961,-10.0075,2.1129,-2.9479,2.3169,-15.4252,7.6329,-12.7472,4.6781,-5.3882,10.9097,-5.6948,16.4432,-1.6154,15.1675,-4.6953,3.6475
246.0938,5.6531,9.1252,10.9007,-8.8527,6.5841,-5.5560,5.1289,-13.6013,7.5316,-11.3691,4.3654,-6.4168,10.6129,-2.7132,14.7515,-7.1363,13.8986,-4.6838,5.3318
250.0000,7.8491,11.0651,12.4284,-7.7151,11.6448,-1.6718,12.3837,-10.2263,7.3686,-11.2688,4.6924,-6.7866,10.9827,-0.8057,13.3529,-10.3586,13.0892,-5.6412,8.5354
253.9062,9.2739,8.6255,9.9638,-8.5803,15.4923,6.3315,19.2680,-7.0344,7.0336,-14.9951,5.0688,-5.4923,12.2377,-2.5958,12.1917,-8.3132,13.2661,-8.7723,11.8655
257.8125,9.2198,4.4493,6.2820,-12.1319,16.5694,13.2411,21.1208,-6.2281,6.6789,-21.8710,5.2932,-2.6160,13.6178,-8.4975,11.2369,-1.9987,14.3162,-13.6232,13.9402
261.7188,7.9049,2.6900,4.9453,-17.2033,13.9921,14.7330,17.1470,-9.3612,6.5776,-28.2750,5.9229,0.7847,13.9221,-16.3307,10.9162,4.3100,15.3486,-18.0333,14.4849
265.6250,6.1760,5.8604,7.7022,-21.5966,8.0441,10.4202,11.0703,-16.4017,6.9392,-30.4920,7.7781,3.4486,12.4252,-22.8204,11.9132,6.0452,15.0613,-19.5557,14.3973
269.5312,4.8471,12.9556,13.3066,-23.6261,0.4064,3.9744,8.2035,-25.5535,7.7990,-27.7976,10.9916,4.7152,9.4525,-25.8307,14.4273,1.5132,12.5051,-17.3193,14.7674
273.4375,4.1831,20.1685,18.5492,-23.2026,-6.3372,0.2828,11.2708,-33.9929,8.9890,-23.1866,14.5154,4.7730,6.1497,-25.6296,17.5961,-6.9194,7.7669,-12.8381,15.7722
277.3438,3.8496,23.5627,20.6168,-21.6614,-9.9507,1.8425,18.2921,-39.1354,10.1427,-21.0619,16.6748,4.2702,3.6271,-24.2711,19.7490,-14.3557,2.0558,-9.0232,16.4803
281.2500,3.2555,21.6971,18.9812,-20.5433,-9.8838,7.1353,24.1713,-39.7383,10.7260,-23.7077,16.4436,3.7356,2.1683,-23.6804,19.4798,-16.4930,-2.9398,-8.0674,15.7852
285.1562,1.9687,16.3876,15.4955,-20.3436,-7.7102,12.1307,24.6802,-36.2759,10.1526,-29.3905,14.3967,3.3424,1.1346,-24.0382,16.7524,-12.2283,-6.0283,-9.8134,13.6424
289.0625,-0.0774,11.2590,12.8156,-20.2247,-6.1725,13.5994,19.6702,-30.4794,8.0142,-33.6361,12.4466,3.1483,-0.3890,-23.7707,13.0997,-4.1173,-7.1600,-11.9079,11.4392
292.9688,-2.6322,9.3107,12.4887,-18.8751,-7.3704,11.5454,13.0273,-24.4047,4.3473,-32.6689,12.4279,3.4430,-2.7797,-21.1198,10.6319,3.4310,-7.3077,-11.6692,11.0247
296.8750,-5.2861,11.2382,14.1430,-15.7697,-11.3695,8.8568,9.5196,-19.5800,-0.2494,-26.2894,14.5928,4.7189,-5.5975,-15.9633,10.5414,6.8944,-7.7050,-8.2480,13.1074
300.7812,-7.5927,15.4817,16.2064,-11.7822,-16.2765,8.5919,11.1217,-16.6149,-4.7920,-17.9567,17.2593,7.1656,-8.0632,-10.3457,12.2663,5.5407,-9.0191,-3.4040,16.3746
304.6875,-9.1432,19.6378,17.3408,-8.6495,-19.7194,11.2416,15.7118,-15.2995,-8.3413,-12.1193,17.9959,10.1325,-9.8377,-7.2097,14.0057,1.4526,-11.0425,-0.2801,18.2018
308.5938,-9.6718,22.0176,17.3335,-7.7215,-20.5592,14.2954,19.0472,-14.9565,-10.4390,-10.9848,15.4933,12.1743,-11.3687,-8.2682,14.2111,-2.0950,-13.0515,-1.1033,16.5451
312.5000,-9.2137,22.3093,16.8042,-8.9865,-19.4838,14.4813,18.2913,-14.7869,-11.2587,-13.2411,10.6672,11.8764,-13.4429,-12.6585,12.8601,-2.7258,-14.4672,-5.5555,11.5697
316.4062,-8.1973,21.1828,16.1807,-11.1220,-18.0794,10.7889,14.2138,-14.1075,-11.3658,-15.5470,6.0824,8.9581,-16.3077,-17.4341,11.4520,-0.2462,-15.2619,-11.0197,5.6749
320.3125,-7.3110,19.4709,15.0084,-12.4969,-17.2734,5.6810,10.3694,-12.5292,-11.2603,-15.3724,4.0897,4.7769,-19.1611,-19.5486,11.6796,3.4875,-15.8171,-14.4512,1.7838
324.2188,-7.1284,17.6738,12.2891,-12.3223,-16.5659,3.3643,10.0394,-10.1214,-11.0450,-12.8226,5.0859,1.6925,-20.5535,-17.8700,13.8312,5.8477,-16.4233,-14.4236,1.1536
328.1250,-7.7151,16.0257,7.5588,-11.0854,-14.7484,6.4303,13.4704,-7.4826,-10.4609,-10.1173,7.2297,1.5926,-19.4749,-13.7834,16.2547,5.0188,-16.8975,-11.8505,2.3987
332.0312,-8.5417,14.7797,1.6916,-9.9987,-11.4270,13.5843,17.5982,-5.5559,-9.2463,-9.4218,7.8173,4.5868,-16.2619,-10.0208,16.4144,1.0218,-16.6724,-8.9884,2.5257
335.9375,-8.8511,14.2451,-3.3966,-9.9618,-7.8581,20.3736,18.3867,-5.1377,-7.5196,-11.0132,5.2506,8.8434,-12.5231,-8.6495,12.7984,-4.2884,-15.2816,-7.6406,-0.7627
339.8438,-8.2703,14.4788,-6.0294,-10.8545,-6.1324,22.4345,13.8487,-6.2879,-5.8656,-13.2885,0.1068,11.7504,-10.0419,-9.6783,6.2076,-8.1768,-12.8185,-7.9884,-7.2289
343.7500,-7.2024,14.9929,-6.0248,-11.6528,-7.2371,18.7386,5.3974,-8.0529,-5.0351,-14.4080,-5.4306,11.6068,-9.4708,-11.1841,-0.6247,-8.4309,-9.9551,-8.8329,-14.1171
347.6562,-6.6360,14.9020,-4.8556,-11.2046,-9.6958,12.2885,-3.3785,-8.8318,-5.4680,-13.9648,-9.2365,8.6516,-9.8630,-10.7341,-4.8644,-4.5242,-7.4833,-8.8487,-18.0147
351.5625,-7.4315,13.5413,-4.5073,-9.0439,-10.2295,7.7306,-9.3668,-7.3189,-6.9834,-13.1655,-10.6615,4.7254,-9.4651,-7.0337,-5.5137,2.0355,-5.7528,-7.7065,-17.1769
355.4688,-9.5835,11.0901,-5.9068,-5.6842,-6.2624,7.7797,-11.8601,-3.4950,-8.8512,-13.4369,-10.6597,1.8705,-7.1875,-0.7349,-3.9980,8.3721,-4.4872,-6.1777,-12.6358
359.3750,-12.0415,8.6211,-8.1912,-2.2824,1.5902,11.2540,-12.3789,1.0374,-10.1840,-14.8219,-10.6750,0.9326,-3.6011,5.9605,-2.9610,11.6193,-3.1595,-5.2816,-7.3766
363.2812,-13.2959,7.4107,-9.4408,-0.0032,9.2041,14.1875,-12.8001,3.7548,-10.3756,-15.6945,-11.3048,1.1646,-0.6444,10.4731,-4.1839,10.3125,-1.6342,-5.3279,-4.2964
367.1875,-12.3530,7.9672,-8.3109,0.4833,11.4208,13.0392,-13.5059,2.6561,-9.3173,-14.1028,-11.8426,1.0287,-0.2300,11.0282,-7.1962,5.0529,-0.5252,-5.7028,-4.4648
371.0938,-9.3930,9.5326,-5.2362,-0.8393,5.7167,7.4255,-13.0913,-2.4193,-7.3076,-9.5440,-10.9940,-0.5090,-2.8096,7.2980,-9.6109,-1.9108,-0.8957,-5.5146,-6.8319
375.0000,-5.6079,10.5097,-2.1862,-3.4413,-5.6666,0.3026,-9.7635,-9.5017,-4.7796,-3.5557,-8.0779,-3.2061,-6.9946,0.3944,-8.9109,-7.9185,-3.4352,-4.4408,-9.3637
378.9062,-2.3273,9.5714,-1.1009,-6.4477,-16.8899,-4.3735,-3.1678,-15.5255,-2.0480,1.4559,-3.6834,-5.8277,-10.5089,-7.6046,-4.3404,-11.2213,-7.6953,-2.9845,-10.5735
382.8125,-0.0883,6.6617,-2.2311,-8.8595,-22.3040,-4.5231,4.9058,-18.0982,0.7959,4.1486,0.7222,-7.1727,-11.7214,-14.3712,2.4845,-11.6548,-12.0116,-1.9326,-10.3041
386.7188,1.6330,3.1390,-3.7428,-9.8387,-20.1511,-1.1134,11.4994,-16.8718,3.8354,5.2310,3.8408,-6.9933,-10.5983,-18.1225,8.6531,-10.3867,-14.2967,-1.5544,-9.3665
390.6250,3.8237,0.9260,-3.0041,-9.0538,-13.4801,3.0763,14.3648,-13.5970,7.1953,6.6068,5.3559,-6.1213,-8.4226,-18.2845,11.8891,-9.0500,-13.2757,-1.3167,-8.5700
394.5312,6.9488,1.2473,1.3480,-6.9248,-7.6497,5.8199,13.3226,-10.8177,10.8855,9.4163,5.8993,-5.7899,-6.6223,-15.7305,11.9343,-8.8768,-9.3615,-0.4108,-8.0442
398.4375,10.3792,3.8313,8.1136,-4.5317,-6.3489,6.8981,10.1895,-10.1111,14.6626,12.7316,6.3187,-6.7494,-5.7141,-12.3499,10.4606,-10.2880,-4.5376,1.3682,-7.3466
402.3438,12.7300,7.1102,14.0428,-3.1150,-9.1185,7.5867,7.4859,-11.1051,17.9648,14.1418,6.9473,-8.8548,-5.1787,-10.0391,9.6953,-12.9717,-1.2361,3.1991,-6.1146
406.2500,12.8875,9.2456,15.8735,-3.4091,-12.1060,8.9113,6.9450,-11.9587,20.0077,11.8119,7.4817,-11.3459,-4.2466,-9.6384,10.8328,-16.1642,-0.8665,3.7053,-4.5871
410.1562,10.9405,9.2592,12.4964,-5.2465,-11.2709,10.4156,8.7899,-10.9297,20.0899,6.2572,7.4671,-13.4648,-2.8034,-10.5111,13.3552,-18.8757,-2.9250,1.9814,-3.5148
414.0625,8.2613,7.5293,5.7562,-7.7318,-5.4678,10.5945,12.0166,-7.8534,18.0160,0.2157,6.8532,-14.8586,-1.5718,-11.1213,15.6325,-20.0627,-5.2866,-1.6650,-3.5536
417.9688,6.6177,5.3989,-0.6306,-9.8800,2.8779,8.5367,15.2093,-4.4200,14.3879,-3.4205,6.0849,-15.4989,-1.4095,-10.2839,16.2344,-18.9230,-5.5441,-5.8794,-4.6757
421.8750,6.9380,4.2450,-3.2616,-11.2571,9.7605,5.1617,17.2455,-3.0290,10.4920,-3.9651,5.6827,-15.3350,-2.3786,-8.2163,14.9520,-15.3552,-2.5782,-9.2160,-6.0852
425.7812,8.6445,4.6604,-0.8844,-12.1525,12.4636,2.7747,17.5947,-5.0684,7.7220,-3.5914,5.7687,-14.1267,-3.4691,-6.5856,12.8478,-10.3064,2.6385,-11.1188,-6.6909
429.6875,10.0648,6.2345,5.2109,-13.1840,11.0695,3.1910,16.3345,-9.8971,6.8136,-5.6212,6.0214,-11.6902,-3.3091,-7.4267,11.4141,-5.5901,7.5455,-12.1603,-5.7549
433.5938,9.6380,7.9651,12.2756,-14.6779,7.7387,6.0476,14.1054,-15.2741,7.3860,-11.7419,6.0990,-8.3403,-1.3098,-11.6281,11.5358,-3.0373,9.5316,-13.3994,-3.2566
437.5000,7.0422,8.9316,17.7626,-16.3215,4.7895,8.8750,12.0167,-18.8766,8.1644,-20.3879,6.0839,-5.0532,1.7352,-18.0366,12.9993,-3.4023,7.5611,-15.4321,0.2180
441.4062,3.4314,8.7694,20.4711,-17.3382,3.3972,9.0376,11.3318,-19.7403,7.8164,-27.6525,6.4598,-3.0555,4.1807,-23.8402,14.8120,-5.8002,2.8637,-17.9167,3.8950
445.3125,0.6212,7.7008,20.6474,-17.0031,3.8325,5.9982,12.8796,-18.5638,5.8770,-30.0900,7.5861,-3.0388,4.8338,-26.0334,15.9967,-8.2129,-1.7664,-19.9075,7.2159
449.2188,-0.1754,6.2069,19.2972,-15.0822,6.5107,1.9723,16.4670,-16.7598,3.1010,-27.2524,9.1625,-4.5825,3.9823,-23.0716,16.2378,-8.8355,-3.6439,-20.6462,10.0054
453.1250,0.8363,4.6337,17.3788,-11.9098,12.3059,0.3034,20.7556,-15.1461,0.9377,-22.0060,10.2619,-6.2890,3.2466,-15.7418,15.9445,-7.3206,-1.8021,-20.1208,12.3928
457.0312,2.2109,3.0016,15.3914,-8.1662,21.3945,2.7907,23.8468,-13.4240,0.4452,-18.4078,10.0186,-6.6336,4.2688,-6.8129,15.7699,-4.9458,2.4596,-18.9676,14.5986
460.9375,2.2602,1.1130,13.4163,-4.6305,31.5898,8.1425,24.3114,-10.8716,1.4037,-18.8006,8.4297,-4.9708,7.2184,0.2576,16.0170,-3.4961,6.4107,-17.8882,16.7046
464.8438,0.1479,-1.1516,11.3497,-2.0818,38.0884,12.8742,22.0186,-7.5757,2.3044,-22.3105,6.5324,-1.9812,10.3222,2.8530,16.4092,-3.6867,7.5534,-17.1357,18.4904
468.7500,-3.6431,-3.5547,9.0911,-1.2405,35.6984,13.9979,18.2094,-4.9787,1.2952,-25.7573,5.6998,0.7811,10.8987,0.2815,16.3927,-4.4040,5.0603,-16.4914,19.4271
472.6562,-7.7012,-5.4235,6.6657,-2.5224,22.4910,11.3634,14.7732,-5.0330,-2.5232,-26.1144,6.5699,1.9426,7.2335,-5.9542,15.7231,-3.4815,0.1201,-15.6582,18.9086
476.5625,-10.5783,-5.8441,4.3710,-5.5976,2.1841,7.7597,13.2210,-8.4766,-8.3503,-22.5849,8.5028,1.2392,-0.0548,-12.7437,14.8476,0.4817,-4.9347,-14.6339,16.6919
480.4688,-11.5663,-4.0691,2.9094,-9.1166,-17.0044,6.6818,13.9851,-13.6520,-14.0386,-16.8597,10.0712,-0.3126,-8.1852,-16.6225,14.7238,6.6585,-8.0695,-13.7011,13.3030
484.3750,-10.9294,0.0249,3.2896,-11.0740,-26.8662,9.5510,16.3676,-17.0728,-17.3585,-11.6573,10.2222,-1.1011,-13.8585,-15.3007,16.1166,12.1273,-8.6113,-13.0956,10.0455
488.2812,-9.5895,5.6523,6.3172,-9.8869,-24.2572,14.6120,19.0033,-15.6435,-17.3537,-8.9004,9.1355,0.0205,-15.2572,-8.8688,18.8375,13.6660,-7.3375,-12.7478,8.4068
492.1875,-8.5824,11.1954,11.8350,-5.6015,-13.1349,18.3680,20.4752,-9.0350,-14.9041,-8.9065,8.0102,2.9923,-13.0454,-0.0124,21.5173,9.9647,-5.6997,-12.4031,9.0989
496.0938,-8.6160,14.7138,18.2533,-0.2835,-1.9537,18.3694,19.8239,-0.3707,-12.1367,-10.8950,7.9147,6.5638,-9.7479,7.1237,22.2143,2.6270,-4.8445,-12.0129,11.3731
500.0000,-9.8655,14.7498,22.9198,2.9643,1.9250,15.1146,16.9001,5.5314,-11.0901,-13.9831,8.6711,8.9934,-8.0230,9.0668,19.5946,-4.8058,-5.1072,-11.9562,13.2259
503.9062,-11.9555,11.0955,23.3817,1.9405,-3.0362,11.5792,12.5514,5.3064,-12.4981,-17.6266,8.7912,8.9651,-9.0520,5.0360,13.9501,-9.0922,-6.1946,-12.7682,12.5545
507.8125,-14.0594,5.1073,18.8736,-3.0320,-11.9323,10.8174,8.4963,-0.6129,-15.4439,-21.2346,6.6279,6.2153,-12.0728,-2.4448,7.3026,-9.1480,-7.7122,-14.5396,8.5751
511.7188,-15.1389,-0.7095,11.0113,-9.0447,-17.2039,13.5946,6.6821,-8.1904,-18.0438,-23.6452,1.8577,1.6164,-15.1982,-8.9267,2.3717,-6.2308,-9.4911,-16.5492,2.4827
515.6250,-14.3705,-3.7799,3.0536,-12.3327,-14.0094,17.9065,8.1948,-12.4658,-18.6703,-23.3381,-3.9592,-3.2101,-16.7784,-10.7090,0.9526,-2.5040,-11.4401,-17.5843,-3.2263
519.5312,-11.6588,-2.7417,-1.9541,-10.6991,-3.3718,20.6621,12.2714,-10.8425,-16.9325,-19.5083,-8.3090,-6.5053,-16.3129,-7.1218,2.7439,0.7199,-13.1410,-16.8161,-6.3799
523.4375,-7.9378,1.7449,-2.9890,-4.9304,8.9176,20.0823,16.2158,-4.6527,-13.8447,-13.1358,-9.5112,-6.9802,-14.3969,-0.8517,5.4681,3.6024,-13.6872,-14.5316,-6.5499
527.3438,-4.9322,7.1908,-1.5740,1.8422,16.5293,16.8888,16.6378,2.0669,-11.1471,-6.9333,-7.9875,-4.2765,-11.9583,3.9762,6.3078,6.8675,-12.0777,-12.0337,-5.1934
531.2500,-4.3263,10.5012,-0.6080,6.3890,16.7564,13.4489,11.5143,5.6043,-10.2483,-3.8673,-5.9938,0.8185,-9.5057,4.6603,3.7549,10.3177,-7.9830,-10.6753,-4.3935
535.1562,-6.7379,9.6395,-2.2841,7.5828,11.7735,11.7339,1.7859,5.1354,-11.4409,-5.1867,-5.9937,6.5118,-6.9564,1.7153,-1.3840,12.2617,-2.2926,-10.7723,-5.1753
539.0625,-11.1607,4.7964,-6.5446,6.9372,6.5077,11.8348,-8.7586,2.9896,-13.8281,-9.4737,-8.9168,10.5675,-4.0586,-1.6652,-6.5539,10.5676,3.0806,-11.3403,-6.7382
542.9688,-15.3632,-1.6840,-11.1562,7.1393,5.0571,12.1790,-15.5066,2.5762,-15.9623,-13.5797,-13.6233,11.1848,-0.9329,-2.0293,-9.2298,4.6055,6.1544,-10.9750,-7.2310
546.8750,-17.1326,-6.6713,-13.3308,9.7757,8.3110,11.0923,-15.7834,5.6742,-16.7748,-14.8655,-17.9178,7.8410,1.7846,1.8550,-8.6660,-3.5653,6.0180,-9.2053,-5.4421
550.7812,-15.6318,-8.1412,-11.7090,14.0434,14.1490,8.2592,-10.5082,11.1567,-16.2230,-13.0958,-20.2258,1.6358,3.3294,8.2849,-6.3616,-9.9783,3.3845,-7.1470,-1.9966
554.6875,-11.9595,-6.4177,-7.2905,17.4196,19.5389,4.8323,-3.5502,16.0026,-15.2528,-10.5281,-20.5740,-5.1583,3.4039,14.0988,-4.9023,-11.2221,0.1544,-6.7659,0.9819
558.5938,-8.4657,-3.9300,-2.6889,17.6951,22.6636,2.2072,0.8389,17.6434,-15.0902,-10.0973,-20.1609,-10.2005,2.4893,17.0875,-6.0158,-6.8897,-1.7284,-9.2080,1.5387
562.5000,-7.2068,-3.5782,-0.3154,14.7134,23.6150,0.6641,0.7654,15.7511,-16.2987,-13.0618,-20.0043,-12.2667,1.6231,17.4360,-9.2621,-0.1550,-1.3562,-13.5331,-0.4524
566.4062,-8.5510,-6.7517,-0.8328,10.4456,23.5956,-0.8434,-2.2699,12.1625,-18.2268,-17.9034,-19.9018,-11.8202,1.8085,17.1575,-12.3132,4.1190,0.8334,-17.0106,-3.0264
570.3125,-10.8996,-12.3417,-2.9423,7.4081,23.6780,-3.5446,-4.6919,9.2050,-19.2669,-21.3230,-18.6183,-10.5964,3.4779,18.1394,-12.6068,2.5422,3.6447,-16.9481,-3.5547
574.2188,-11.7552,-17.4654,-4.5317,6.7628,24.1862,-7.4063,-3.4998,7.9264,-17.8437,-20.5896,-15.1279,-10.4410,6.3528,20.4990,-9.1605,-4.5384,6.0937,-12.7433,-0.7687
578.1250,-9.4423,-19.4515,-4.2293,7.6368,24.9000,-10.7686,1.6606,7.6561,-13.5404,-15.5089,-9.8130,-12.1287,9.7207,22.5914,-3.2537,-13.2561,8.0104,-6.5420,4.2282
582.0312,-4.3119,-17.7137,-2.2079,8.1305,25.5007,-11.5240,8.3846,7.0809,-7.5936,-8.6036,-4.5447,-14.9171,12.8594,22.5596,2.4459,-18.7812,9.8697,-1.8702,8.7842
585.9375,1.4096,-14.1649,0.2408,7.0655,25.6596,-8.9161,13.2669,5.7096,-2.3346,-3.4483,-1.5026,-17.1143,15.3024,20.0067,5.5974,-18.4576,12.0802,-1.1770,10.6992
589.8438,5.0421,-11.8236,1.8667,4.9434,24.7989,-4.3942,14.1600,4.3318,0.1622,-2.4122,-1.6483,-17.2623,16.8377,16.3144,5.4969,-13.3955,14.3861,-4.1188,9.7971
593.7500,5.1848,-12.5744,2.3711,3.3143,22.0826,-0.6604,11.3744,4.0490,-0.6206,-5.3828,-4.0534,-15.1283,17.3723,13.3517,3.1613,-7.5111,15.9235,-7.9082,7.8307
597.6562,2.5812,-15.7029,2.3992,3.1556,17.0143,0.4409,7.1791,4.7971,-3.2846,-10.2214,-6.5879,-11.8354,16.8725,11.7482,0.3474,-4.7631,15.9179,-9.4747,6.8611
601.5625,-0.4631,-18.3146,2.7724,3.7362,10.2947,-0.5146,4.1790,4.8134,-5.4045,-14.4362,-7.3945,-9.0640,15.4548,10.3081,-1.6013,-6.5187,14.4573,-7.7923,7.5118
605.4688,-1.6953,-17.3996,3.7235,3.0349,4.0715,-0.9006,3.7700,1.7367,-5.1174,-16.8032,-6.0054,-7.8995,13.5105,7.1456,-2.2460,-10.7994,12.6690,-4.5951,8.5705
609.3750,-0.4394,-12.0806,4.8143,-0.5611,1.0154,1.7915,5.5736,-5.4011,-2.3434,-17.8842,-3.3364,-8.1420,11.6678,1.5867,-1.7566,-13.8289,12.0633,-2.9643,8.2514
613.2812,2.0168,-4.4121,5.5488,-6.6910,2.6366,7.6234,7.9549,-14.9188,1.2109,-19.2839,-0.7465,-8.5551,10.5273,-4.8603,-0.3755,-12.7600,13.4607,-4.9167,6.0023
617.1875,3.4204,1.8749,6.0472,-12.9589,8.0677,13.6283,9.0935,-23.1360,3.2771,-22.3392,0.9565,-7.8649,10.3192,-9.4292,1.7388,-7.7187,16.2812,-9.8702,3.2641
621.0938,2.2220,3.8004,7.0821,-16.5308,14.3883,15.6197,7.9749,-26.6369,2.6125,-27.1630,1.7909,-5.7788,10.7466,-10.2574,4.2078,-1.8100,18.7673,-15.1312,2.4695
625.0000,-1.2586,1.0122,9.3581,-16.1673,18.4466,11.1895,4.9271,-24.5397,-0.1815,-32.5625,2.1289,-3.2776,11.1764,-7.9901,6.1709,0.9180,19.0573,-17.9530,5.0718
628.9062,-4.9894,-4.1788,12.6340,-13.0727,18.9218,1.6916,1.5818,-19.0807,-3.1769,-36.7229,2.1120,-1.9464,11.0826,-5.3973,6.5934,-1.7793,16.4119,-17.5176,10.2570
632.8125,-6.6050,-8.5239,15.5197,-9.8843,17.0844,-8.3352,0.2396,-14.0629,-4.5626,-38.1538,1.5894,-2.7947,10.4372,-5.1846,5.0944,-8.6875,11.7586,-15.3320,15.4590
636.7188,-5.0605,-9.9745,16.2846,-8.6160,15.6608,-14.0087,2.7265,-12.3088,-3.9276,-36.3894,0.5930,-5.3964,9.7491,-7.7253,2.5891,-15.7108,7.1658,-13.8319,18.3108
640.6250,-1.4218,-8.6774,14.1709,-9.2034,16.6691,-13.2443,9.1363,-13.9674,-2.4452,-32.1763,-0.2454,-7.9850,9.6888,-10.5973,0.9944,-18.4214,4.5770,-14.3851,18.4513
644.5312,1.7562,-6.2462,10.2080,-9.7793,19.8809,-7.9966,17.2119,-16.8155,-1.8700,-27.1329,0.0720,-8.4939,10.5388,-10.4075,1.9556,-15.0163,4.6216,-16.2822,17.7037
648.4375,2.0547,-4.0930,6.8034,-8.3911,23.0461,-2.7600,23.0763,-18.1676,-3.1635,-23.0410,2.0759,-5.8865,11.8523,-5.5262,5.4691,-7.7392,6.2515,-17.4337,18.4690
652.3438,-1.2654,-2.2737,6.2712,-4.7226,23.6081,-1.4217,23.3059,-16.8649,-5.8171,-21.0437,5.1193,-0.9007,12.5807,2.4204,9.5638,-1.6784,7.4016,-16.1189,21.6505
656.2500,-6.8191,0.2215,9.2806,-0.4331,20.4962,-4.6708,17.2620,-13.9017,-8.3656,-21.1130,7.5567,4.2974,11.6199,9.5054,11.5066,-1.4996,6.2227,-12.3623,25.8079
660.1562,-12.0193,4.0714,14.3214,2.1035,14.6211,-9.6881,8.0263,-11.4011,-9.6313,-22.1056,7.8622,7.3581,8.4465,12.1823,9.7795,-8.1287,2.1194,-7.9076,28.2309
664.0625,-14.7185,8.4211,18.5912,1.5813,7.8375,-12.1949,0.9132,-10.9077,-9.6731,-22.4699,5.8668,7.1205,3.4507,9.6305,5.3426,-17.6518,-3.9841,-4.9224,27.0477
667.9688,-14.4658,11.0343,19.7119,-1.3672,1.3995,-9.3449,0.1780,-12.3466,-9.6701,-21.2477,3.0566,4.2674,-2.2295,4.0223,1.1171,-23.4348,-10.2175,-4.5207,22.6583
671.8750,-12.5769,9.8392,17.1251,-4.8253,-4.7376,-1.5042,6.0557,-14.3114,-10.8461,-18.7271,1.5615,0.8756,-7.2549,-1.3503,-0.0370,-20.3504,-14.7516,-6.2072,17.3705
675.7812,-11.0488,4.7072,12.2827,-7.1105,-11.2490,8.1244,14.3573,-15.2537,-13.3202,-16.2380,2.5493,-0.8371,-10.6788,-4.4810,2.6341,-8.4262,-16.6188,-8.5096,13.6001
679.6875,-11.1287,-1.9883,7.6105,-7.8617,-18.1179,15.5608,19.1874,-14.5440,-15.8360,-15.1432,5.2992,0.2126,-12.2589,-5.6904,7.2782,6.6523,-15.9836,-10.1271,12.1397
683.5938,-12.5415,-6.6064,5.0323,-7.8830,-23.9384,18.3017,17.0224,-12.6681,-16.6204,-15.7198,7.7463,3.4358,-12.3673,-6.6455,10.8743,16.7991,-13.8492,-10.6483,11.8684
687.5000,-13.8675,-6.4736,5.0258,-8.0572,-26.5538,16.3702,9.1929,-10.6344,-14.7197,-16.8034,8.0999,7.0461,-11.6293,-8.4056,11.4769,16.6021,-11.4734,-10.4063,11.0133
691.4062,-13.7295,-1.5473,6.6828,-8.4136,-24.5585,11.7490,0.8326,-9.2558,-10.7762,-16.5746,6.2334,9.2002,-10.5545,-10.2699,9.4973,6.8684,-9.8220,-9.8234,8.7856
695.3125,-11.8862,5.6588,8.5101,-8.1974,-18.4297,6.8747,-3.0196,-8.8746,-6.6420,-13.9917,3.6994,9.0741,-9.3690,-10.3968,7.0425,-5.8376,-9.2683,-8.9524,5.9680
699.2188,-9.4323,11.7744,9.2874,-6.8108,-10.3667,3.3104,-1.2359,-9.5427,-4.1302,-9.7944,2.3473,7.2383,-8.0868,-7.5747,5.9218,-13.4629,-9.5712,-7.6011,4.0025
703.1250,-7.9802,14.6359,8.4516,-4.6695,-2.9939,1.3503,2.6375,-11.2276,-3.8498,-6.2238,2.6984,5.1636,-6.6981,-2.5292,6.0281,-11.6754,-10.0641,-5.8008,3.4578
707.0312,-8.4482,14.2808,5.9701,-3.0968,2.0086,0.5244,3.3239,-13.7090,-4.9736,-5.5349,3.4636,4.2353,-5.3056,2.4142,5.4805,-2.4410,-9.9596,-4.0509,3.2876
710.9375,-10.3599,12.3351,2.0578,-3.2703,4.3337,0.3905,-1.8074,-16.3043,-6.0359,-8.3325,2.6503,4.9313,-4.1160,5.0425,2.4251,7.7671,-8.6807,-3.0274,1.5898
714.8438,-12.1724,10.4615,-2.9218,-5.1413,4.4315,0.9610,-10.4162,-17.8845,-6.0821,-12.9830,-0.6388,6.6678,-3.3146,4.8865,-3.0408,12.7439,-6.1164,-3.0031,-2.7431
718.7500,-12.3917,9.1324,-8.3525,-7.3285,2.6713,2.5243,-16.8443,-17.4314,-5.2785,-16.6055,-5.2381,8.3463,-2.9292,3.4049,-8.5197,10.8062,-2.6921,-3.5494,-8.8874
722.6562,-10.6553,7.5808,-13.3186,-8.1561,-0.7982,5.1054,-16.5282,-14.8168,-4.5924,-16.9782,-8.6599,9.1680,-2.7867,2.6258,-10.9642,5.4714,0.8061,-3.8505,-14.4628
726.5625,-7.9939,4.7789,-16.8461,-6.9840,-5.3763,8.0370,-9.7004,-11.1085,-4.8988,-13.9832,-9.0144,9.1188,-2.5915,3.4727,-9.0711,2.2246,3.6022,-3.3881,-17.1568
730.4688,-6.0816,0.5269,-18.3518,-4.6799,-9.3626,9.9862,-1.4073,-7.9754,-6.2792,-9.5414,-6.5697,8.7882,-2.0788,5.2188,-4.4639,3.9714,5.3113,-2.3863,-16.3029
734.3750,-6.0241,-4.2315,-17.9487,-2.8025,-10.3234,9.4723,2.2408,-6.5151,-8.0281,-6.1195,-3.6492,8.6812,-1.1526,6.4646,-0.6245,8.7067,6.1115,-1.5926,-13.1718
738.2812,-7.5571,-8.0390,-16.3059,-2.1891,-6.5992,5.6167,-1.3265,-6.4176,-9.2555,-4.9526,-2.8848,8.5766,0.0671,6.6532,-0.3299,11.1552,6.5871,-1.5712,-9.8130
742.1875,-9.2241,-9.9162,-14.1155,-2.1918,1.1029,-1.2577,-9.2788,-6.2251,-9.5038,-5.3147,-5.1758,7.4789,1.3140,6.6664,-3.5819,7.0432,7.3228,-2.1377,-7.4618
746.0938,-9.3929,-9.9339,-11.5854,-1.2692,9.4866,-9.5110,-15.6796,-4.5815,-8.8738,-5.3312,-8.9618,4.2872,2.3266,7.9056,-7.6613,-3.3686,8.4941,-2.4673,-5.8189
750.0000,-7.3802,-9.0151,-8.4021,1.5360,14.4023,-16.6932,-16.0505,-1.4897,-7.6538,-3.6374,-11.3874,-1.2542,3.0004,10.6934,-9.2595,-15.2488,9.7125,-1.8089,-3.7035
753.9062,-3.9026,-8.2492,-4.2368,5.5194,13.5712,-20.5366,-10.5755,1.5142,-5.9045,-0.5553,-10.4473,-8.0361,3.4498,13.5402,-6.9989,-22.6715,10.2299,-0.1821,-0.4044
757.8125,-0.5712,-8.2910,0.6066,8.6338,8.3471,-20.0224,-3.5119,2.5296,-3.4529,2.1179,-6.4513,-13.9739,3.9366,14.1244,-2.3729,-22.8952,9.3870,1.5784,3.4948
761.7188,1.1801,-9.2082,4.9894,9.0335,3.0478,-15.9726,0.5052,0.9259,-0.3111,2.5153,-1.7190,-17.1513,4.6958,11.3006,1.5691,-18.1561,7.0437,2.5058,6.5153
765.6250,0.9763,-10.6914,7.4578,6.5983,2.1116,-10.7563,0.1140,-1.9161,2.9284,0.1840,1.1794,-16.9862,5.7689,6.4139,2.6589,-13.6699,3.7524,2.3285,7.5162
769.5312,-0.3756,-12.2980,7.1865,3.1424,7.0075,-7.1259,-2.1270,-3.4754,5.2083,-3.5045,1.2303,-14.5910,6.9658,2.6313,1.1935,-13.4898,0.5883,1.7060,6.6606
773.4375,-1.5322,-13.5249,4.6591,1.0703,15.1420,-6.7291,-2.4301,-2.0033,5.6783,-6.3193,-0.5206,-12.0205,8.0059,2.6226,-0.5356,-17.4729,-1.2668,1.6295,5.2882
777.3438,-1.5194,-13.8057,1.5225,1.5224,21.6307,-9.1425,0.6734,1.9972,4.4222,-6.7673,-2.0104,-10.8863,8.7527,6.3815,-0.2542,-21.6446,-0.9867,2.4811,4.8444
781.2500,-0.2765,-12.6486,-0.3567,3.4977,22.7220,-12.0690,5.0517,5.9333,2.5885,-5.1385,-1.7849,-11.3006,9.3654,11.0074,2.4795,-21.5411,1.5785,3.5665,5.8158
785.1562,1.4636,-9.9491,-0.0101,4.6525,18.4211,-12.6883,7.0363,6.8746,1.7044,-3.2744,0.1010,-11.9121,10.2181,12.7488,6.1346,-15.8213,5.8275,3.5629,7.5609
789.0625,2.7742,-6.2220,2.1252,3.1144,12.4135,-9.4045,4.9566,3.5802,2.6285,-3.2909,2.4972,-11.0114,11.5970,9.7579,8.7405,-7.3320,10.5924,1.5472,9.0904
792.9688,3.1454,-2.4515,4.6620,-1.1555,9.3325,-2.9172,0.9454,-2.7387,4.9486,-6.1992,4.3550,-7.8930,13.3764,3.3730,9.6759,-0.8988,14.5246,-2.2327,10.0110
796.8750,2.7168,0.4526,6.3402,-6.5042,11.3389,4.0947,-0.7085,-9.4563,7.3340,-11.3383,5.6113,-3.4488,14.9420,-3.1013,10.1312,0.3354,16.5734,-6.4812,10.7555
800.7812,2.0710,2.2082,6.9303,-11.0156,16.4673,8.5234,2.6369,-14.4841,8.5991,-16.8717,7.0559,0.4608,15.4924,-7.1091,11.8649,-2.8345,16.3967,-9.7648,11.9343
804.6875,1.8328,3.2513,7.3070,-13.9614,19.9375,8.6721,9.3177,-17.5619,8.6470,-20.8676,9.4215,2.3840,14.5749,-8.7998,15.3906,-6.4619,14.5299,-11.4597,13.4946
808.5938,2.3709,4.2443,8.6556,-16.0627,17.5319,5.2388,14.3319,-19.9181,8.5215,-22.2121,12.5831,2.3428,12.4952,-10.5881,19.2523,-6.5147,12.1915,-11.9837,14.5676
812.5000,3.7328,5.4105,11.4205,-18.4256,8.7178,0.8555,13.4045,-22.7095,9.4964,-20.8991,15.5816,1.7552,10.2618,-14.6700,21.1130,-1.8052,10.7564,-12.1986,14.2357
816.4062,5.7237,6.3172,14.7980,-21.1741,-2.6190,-1.4860,6.8856,-25.6489,11.9168,-17.7591,17.4037,2.2692,9.0185,-20.6023,19.7972,5.3406,11.1029,-12.5695,12.5441
820.3125,7.9713,6.3743,17.1853,-23.0531,-10.3476,-0.1150,0.1231,-27.0320,14.7365,-13.9939,17.7906,4.4255,9.2897,-25.0825,16.5454,10.9304,13.1480,-12.8367,10.7671
824.2188,9.9280,5.6549,17.2990,-22.3992,-9.7967,4.5253,-0.3180,-25.1516,16.1719,-10.8009,17.3697,7.2191,10.5440,-24.3065,14.3304,12.0692,15.8230,-12.4435,10.5385
828.1250,10.9086,5.2575,15.1803,-18.6563,-0.6825,10.3317,8.1905,-19.8932,15.0069,-9.1045,17.0503,8.9272,11.4168,-17.1370,15.6768,8.5895,17.5252,-11.2528,12.4879
832.0312,10.2924,6.7160,12.3529,-13.1020,12.5090,14.8153,21.8775,-13.1338,11.5464,-9.2828,17.2740,8.5537,10.5004,-6.5295,20.6918,2.6382,16.8364,-9.8207,15.5527
835.9375,7.8700,10.7689,10.9601,-8.0981,22.8804,16.3637,32.9098,-7.5647,7.4654,-10.9094,17.7869,6.7212,7.2123,2.0648,26.8845,-3.0574,13.1560,-8.9215,17.6542
839.8438,4.1230,16.4526,12.4025,-5.4358,24.8310,14.8326,34.9228,-4.8721,4.6356,-12.7482,18.0650,5.2520,2.1769,4.2704,30.9331,-6.7294,6.9617,-8.7507,17.2927
843.7500,0.1744,21.3798,16.3539,-5.1231,17.0342,11.3463,27.6084,-4.7313,3.8055,-13.2282,17.9025,5.7246,-3.1335,-0.2806,31.0119,-7.9314,-0.3932,-8.5928,14.7837
847.6562,-2.6800,23.1967,20.8243,-5.5970,3.0930,7.6381,16.8931,-5.3728,4.1161,-11.3095,17.5583,8.1432,-7.2570,-7.8178,27.8902,-6.9267,-7.2136,-7.3688,12.0826
851.5625,-3.6498,21.2288,23.2901,-5.1446,-10.4151,5.3615,10.5896,-5.1637,3.8010,-7.2486,17.3321,10.8213,-9.5358,-13.1592,24.0581,-4.0423,-12.0785,-4.6716,11.2729
855.4688,-2.9262,17.0557,22.2288,-3.3139,-17.4095,5.5980,12.8190,-3.8415,1.5317,-2.6680,17.0555,11.6444,-10.3451,-13.2386,21.7271,0.3482,-14.3054,-1.3820,12.9113
859.3750,-1.6161,13.4898,18.1140,-1.1416,-15.4421,8.5518,21.3298,-2.4047,-2.5905,0.2753,16.1093,9.7731,-10.6627,-8.8803,21.3750,5.4132,-14.1176,0.7771,15.5752
863.2812,-1.1185,12.6434,13.2121,-0.0727,-6.8438,13.3989,29.5232,-1.8812,-7.0917,0.1879,14.0730,6.4487,-11.3207,-3.7016,21.9076,9.7561,-12.4781,0.5048,16.9894
867.1875,-2.2985,14.5087,10.2408,-0.5781,2.7220,18.3845,31.4161,-2.1764,-10.1319,-2.6513,11.4238,4.2174,-12.4584,-1.1985,22.0648,12.0277,-10.6415,-1.9878,15.8183
871.0938,-4.9715,17.1106,10.6546,-1.7107,7.5165,21.3320,25.7171,-2.1068,-10.6956,-6.4424,9.5066,5.1027,-13.5008,-2.2994,21.6696,11.8485,-9.5724,-5.0030,12.6631
875.0000,-8.0315,18.0925,13.6058,-1.9897,4.9965,20.5421,16.1423,-0.6252,-9.1400,-9.0358,9.5650,9.0881,-13.6056,-5.0887,21.5695,10.1616,-9.4659,-6.5655,9.4665
878.9062,-10.1451,16.4883,16.2764,-0.8048,-2.7633,15.7170,8.1315,1.8884,-6.8116,-9.3405,11.5053,14.0573,-12.2266,-6.6107,22.3942,8.5446,-9.6311,-5.8944,7.8466
882.8125,-10.5671,13.3197,15.4698,0.9421,-10.3647,8.3462,4.7774,3.5459,-5.1145,-7.9802,13.4817,17.2404,-9.4340,-5.1443,23.3955,7.9626,-8.8749,-3.9514,7.7551
886.7188,-9.5504,10.6203,9.5640,1.5771,-12.3958,1.1867,5.0676,2.3405,-4.7158,-6.7177,12.8828,17.0856,-5.8581,-1.2240,22.6177,8.0503,-6.2591,-2.5952,7.5585
890.6250,-8.0956,9.7585,-0.3506,0.1571,-6.8156,-2.9884,5.4403,-2.0637,-5.3510,-7.0522,8.1817,14.1826,-2.3862,3.1102,18.4550,7.6248,-1.8325,-3.0075,5.4411
894.5312,-7.2241,10.4581,-10.8822,-2.5981,3.6476,-2.6898,3.0186,-7.6935,-6.1914,-9.0032,0.3031,10.6227,0.1590,5.9284,11.3248,6.0345,3.1439,-4.6733,0.9351
898.4375,-7.2797,11.2893,-18.1052,-4.8229,12.9902,1.6990,-2.1892,-11.4850,-6.3952,-10.9806,-7.6354,8.3749,1.2164,6.5119,3.9098,4.1087,6.7126,-5.7669,-4.6850
902.3438,-7.7373,11.1336,-19.6528,-5.0863,15.4590,8.3469,-7.6828,-11.5329,-5.4823,-10.8676,-12.1908,7.9450,0.5652,5.2675,-0.4795,3.7150,7.2563,-4.6499,-9.4232
906.2500,-7.6450,10.2908,-15.8972,-3.6761,8.9764,15.0455,-10.7697,-8.5962,-3.4433,-7.5730,-11.8159,8.2716,-1.6352,2.9201,-0.2887,6.1322,4.4506,-1.2693,-12.0879
910.1562,-6.3802,10.1984,-9.5500,-2.4085,-3.6104,20.1751,-10.6557,-5.5716,-0.7059,-1.9624,-7.8436,7.7894,-4.8248,-0.0392,3.0328,10.5919,-0.4846,2.6851,-13.0251
914.0625,-4.1735,11.9386,-4.0086,-3.0266,-16.1643,23.0012,-8.6545,-5.2299,1.9412,3.5026,-3.5169,5.7068,-8.1058,-3.1516,6.0114,14.3694,-5.4313,5.0055,-13.4883
917.9688,-2.0073,14.8115,-1.5204,-5.5042,-22.7004,23.3282,-6.6081,-7.9481,3.5230,6.1969,-1.7699,2.4850,-10.4556,-5.4609,5.7140,14.5790,-8.5254,4.5993,-14.2605
921.8750,-0.9402,16.3081,-2.2596,-7.7496,-20.5155,21.0331,-5.1077,-11.2605,3.2612,4.8991,-3.3552,-0.7464,-11.0569,-5.5121,1.9629,10.3424,-9.0778,2.2486,-14.7753
925.7812,-1.3287,13.7293,-4.7216,-7.1005,-11.2259,16.0167,-3.1217,-11.6757,1.0902,0.4852,-6.5974,-3.2068,-9.5890,-2.2292,-2.5188,3.5380,-7.6903,-0.0558,-13.5232
929.6875,-2.5156,6.3198,-6.9566,-2.4931,0.6480,8.6350,0.7229,-7.4187,-2.0241,-4.6507,-8.8087,-4.9946,-6.3147,3.9416,-4.1628,-2.5900,-5.5614,-0.6106,-9.4013
933.5938,-3.2369,-3.7500,-7.7071,4.4500,10.4048,0.1534,6.4332,0.0162,-4.3366,-8.0138,-8.2164,-6.7218,-1.9153,10.7316,-1.2432,-5.9103,-3.5396,0.8871,-2.8386
937.5000,-2.4837,-12.4395,-6.7668,10.3738,15.4458,-7.3523,12.0922,6.7422,-4.1923,-8.3320,-5.0026,-8.6703,2.8112,15.1655,4.8485,-6.9324,-1.6219,3.4230,4.2776
941.4062,-0.2069,-16.2903,-4.5724,12.5255,15.9297,-11.8062,15.0018,9.1665,-1.0538,-6.0055,-0.8638,-10.3099,7.2021,15.4787,10.6646,-8.0530,0.7857,5.7223,9.8285
945.3125,2.6585,-14.5472,-1.5925,10.6794,13.8254,-12.2056,13.6276,6.4799,4.0297,-2.5366,2.3620,-10.6673,10.8246,12.4047,13.2171,-11.0928,4.1301,7.2850,12.8305
949.2188,4.8849,-9.4299,1.9159,7.1579,11.3419,-9.2214,8.7840,1.0999,8.9581,0.5501,3.8727,-9.2450,13.4417,8.7218,12.0061,-15.2245,8.1284,8.5226,13.8461
953.1250,5.8650,-4.3986,5.6908,4.9552,9.8338,-4.8744,3.1407,-3.2143,11.8739,2.5453,4.1079,-6.6552,14.9658,7.2500,9.0878,-17.2037,11.8117,9.9939,14.1876
957.0312,6.0592,-1.7239,9.1893,5.4532,9.6480,-1.4719,-0.5286,-4.1068,12.3645,3.6743,4.0872,-4.3368,15.4671,8.7444,7.2902,-13.9535,14.1388,11.5517,14.6897
960.9375,6.6219,-1.1352,11.6911,7.5052,10.5951,-0.4811,-1.0040,-2.1813,11.7005,4.5709,4.6034,-3.4999,15.1970,11.2937,8.0662,-5.5033,14.6645,12.2645,15.1385
964.8438,8.4588,-0.4545,12.7975,8.5205,12.3924,-1.9864,0.9743,-0.3058,11.8830,5.5899,5.9055,-4.1346,14.5341,11.7220,10.6202,4.2266,13.7378,11.2238,14.7948
968.7500,11.4189,2.3856,12.8533,6.5866,14.6925,-4.9149,3.6516,-1.3344,14.1422,6.4624,7.9025,-4.9279,13.8296,7.9530,12.8167,9.7344,12.1199,8.4880,13.4382
972.6562,14.2516,7.5286,12.7809,1.8983,16.8413,-7.7092,5.6451,-6.0388,17.9672,6.4790,10.4322,-4.2276,13.2478,0.5625,12.9680,7.8032,10.4013,5.2335,11.8857
976.5625,15.4071,12.9360,13.3144,-3.5779,17.8126,-8.9841,6.6775,-12.7380,21.3911,4.9896,13.2100,-1.3486,12.7385,-7.6139,11.0296,0.0028,8.7333,2.8720,11.4336
980.4688,14.1171,15.8047,14.2469,-7.7827,16.6044,-7.9320,7.2520,-18.7116,22.3483,1.8308,15.5654,2.7807,12.1791,-13.4479,8.3743,-8.2018,7.0646,1.8468,12.6847
984.3750,10.9686,14.5418,14.4421,-10.1057,12.9307,-4.5375,7.7666,-22.1403,20.1304,-2.5821,16.4501,6.1389,11.5579,-15.5319,6.5364,-11.2059,5.5867,1.1874,14.8397
988.2812,7.5422,9.8396,12.7980,-11.5298,7.6962,0.3053,7.9456,-23.0634,15.8955,-7.4826,15.0180,6.9244,11.0097,-14.7811,6.0768,-7.1360,4.8767,-0.6942,16.1788
992.1875,5.3801,4.1499,9.4781,-13.3839,2.8063,4.8929,7.0854,-22.7796,11.8842,-12.0719,11.4733,4.7091,10.6357,-13.3581,6.4572,1.0328,5.5016,-4.5558,15.4205
996.0938,5.0422,0.0577,6.3144,-15.9088,0.2873,7.2847,4.8721,-22.4126,9.9392,-15.7100,7.4312,0.6480,10.2608,-12.9454,6.8523,7.8630,7.3719,-9.4421,12.8263
1000.0000,5.9209,-1.2122,5.7941,-17.9542,1.1726,6.3564,2.0555,-21.9456,10.3946,-17.9355,5.2438,-3.3115,9.3890,-13.7678,7.0476,9.4103,9.4510,-13.1895,10.0692
1003.9062,6.8900,-0.1587,9.1813,-18.0804,4.8107,2.8072,0.3861,-20.5028,12.0747,-18.4314,6.5477,-5.5800,7.4879,-14.9778,7.6124,5.6900,10.2081,-14.0041,8.9048
1007.8125,7.2240,1.8333,15.1888,-16.0646,9.0407,-0.7287,1.7842,-17.5158,13.2877,-17.0739,11.0327,-5.6477,4.4341,-15.8238,9.2724,-0.0987,8.5997,-11.8710,9.7281
1011.7188,7.0486,3.7297,20.4133,-13.4103,11.1983,-0.9522,7.2360,-13.6537,12.9920,-14.0607,16.4317,-4.0279,0.7468,-16.4243,12.1336,-4.6831,4.8593,-8.6319,11.2449
1015.6250,6.9971,5.5076,21.4911,-12.2989,9.4610,3.9479,16.0694,-10.6200,11.2801,-9.9820,19.8927,-1.6714,-2.6544,-17.4547,15.4858,-7.4155,0.4357,-6.6216,11.5749
1019.5312,7.4178,7.8277,17.5273,-13.7802,3.8392,12.6626,26.0156,-9.9108,8.9333,-5.6917,19.8200,0.6173,-5.0652,-19.1183,18.3206,-10.2762,-2.9634,-6.9330,9.8929
1023.4375,7.8466,11.1167,10.9512,-16.7180,-3.7151,21.0429,34.0443,-11.5372,6.5475,-1.9963,16.8504,2.4204,-6.5259,-20.4675,20.0304,-15.2718,-4.5515,-8.6933,7.2190
1027.3438,7.2325,14.8761,5.9900,-18.4519,-10.1842,24.5092,37.6173,-13.7944,4.0083,0.6472,13.2421,3.6438,-7.8071,-19.8436,20.6325,-21.6115,-4.9803,-9.9162,5.6487
1031.2500,4.7646,17.7933,5.7383,-16.7521,-12.9497,21.1952,35.8257,-14.3477,0.7346,2.2021,11.1562,4.3981,-9.7920,-16.1921,20.3752,-25.3350,-5.7844,-9.2052,6.6131
1035.1562,0.6293,18.5729,9.9566,-11.5638,-11.1191,13.6077,29.8963,-11.8688,-3.5732,2.8377,11.1562,4.9530,-12.7018,-10.1736,19.2215,-22.0560,-8.1674,-6.9022,9.5984
1039.0625,-3.9425,16.8580,15.2905,-5.1705,-6.0031,7.3662,22.7439,-7.0130,-8.3641,2.6179,12.0568,5.6723,-15.8017,-4.0677,16.8387,-10.7810,-12.0565,-4.7533,12.4096
1042.9688,-7.4171,13.5585,17.8089,-0.6345,-0.4311,7.5863,17.6450,-2.0193,-12.3687,1.3870,12.1564,6.7864,-17.8864,-0.4234,13.1980,4.3734,-16.1389,-4.4059,12.8069
1046.8750,-8.9319,10.3488,15.9564,0.2875,2.7856,15.2941,16.5845,0.7720,-14.3672,-1.0065,10.7831,8.0821,-18.2137,-0.4268,9.1932,16.3003,-18.8163,-6.0172,10.2105
1050.7812,-8.7645,8.6825,11.6388,-1.8094,2.4130,26.4554,19.1389,0.4190,-14.0053,-4.3086,8.8543,8.8160,-17.1440,-3.2043,6.5086,19.6029,-19.3040,-8.1326,6.0980
1054.6875,-7.9699,8.9831,8.5700,-4.6688,-0.5408,34.4817,22.6151,-2.1277,-12.0347,-7.6561,7.9870,8.1065,-15.9170,-6.5426,6.5552,14.4392,-18.0184,-8.9142,2.7817
1058.5938,-7.5239,10.5225,9.1505,-6.1400,-3.5071,34.5892,23.5062,-4.7976,-9.8096,-9.8518,8.9107,5.6601,-15.6737,-8.4161,9.1910,6.5018,-16.0117,-7.6585,1.5641
1062.5000,-7.6711,12.0253,12.3544,-5.6023,-4.0363,26.9754,19.5077,-5.8189,-8.4301,-10.0345,10.5384,2.2876,-16.4787,-8.1640,12.3376,2.9386,-14.0024,-5.3235,1.7628
1066.4062,-7.9513,12.5662,14.3647,-4.0367,-1.4666,16.5592,10.9011,-4.7853,-8.1519,-8.2878,10.5458,-0.3311,-17.1636,-6.5441,13.0601,7.1148,-11.8592,-3.6386,1.3672
1070.3125,-7.7778,12.1639,11.5567,-2.8939,2.4963,9.4930,0.4438,-2.7194,-8.4263,-5.6768,7.0920,-0.6525,-16.2016,-4.8439,9.5352,16.1026,-8.9752,-3.5817,-1.2438
1074.2188,-6.9898,11.6933,3.5296,-2.8331,4.7470,8.9887,-8.1649,-1.2159,-8.4390,-3.5707,0.3739,1.6081,-12.9852,-3.9021,2.5088,22.8325,-5.1730,-4.5362,-5.9295
1078.1250,-5.8873,12.1932,-6.2329,-3.3578,2.7784,13.4515,-12.2602,-1.3272,-7.6921,-2.6599,-7.2167,5.1196,-8.4926,-3.7823,-4.9363,21.3914,-1.2938,-4.8484,-10.8447
1082.0312,-4.7817,14.0371,-12.7015,-3.5001,-3.5154,18.1464,-11.4163,-2.9253,-6.2372,-2.3906,-12.5197,7.7448,-4.7523,-4.1283,-9.2934,11.5773,1.1415,-3.3013,-13.8255
1085.9375,-3.5696,16.5313,-12.9284,-2.7935,-11.4140,18.9820,-7.2572,-4.8648,-4.5047,-1.3240,-13.6114,8.0200,-3.4355,-4.6233,-8.9418,-0.6725,1.0262,-0.2346,-13.9481
1089.8438,-1.8213,18.2307,-8.1959,-1.6202,-16.7064,15.4877,-2.2213,-5.7472,-2.9769,1.7296,-10.9622,6.2136,-4.6203,-5.0267,-5.2061,-7.3543,-1.3333,2.6620,-12.0355
1093.7500,0.6414,17.7962,-3.0121,-0.6823,-16.0686,10.8053,1.7688,-4.7699,-1.9697,6.5808,-6.9668,4.1111,-6.6801,-4.8497,-1.3876,-4.0579,-4.1579,3.7258,-9.8076
1097.6562,3.2390,14.8434,-1.6853,-0.1898,-9.0771,8.8772,3.9264,-2.1806,-1.5937,11.4265,-4.2556,3.6210,-7.4125,-3.2407,-0.4545,6.8368,-5.2241,2.7127,-8.4749
1101.5625,4.8026,10.2200,-5.0764,0.3991,1.3927,11.1477,4.4034,0.8669,-1.7684,13.8298,-4.0207,5.2338,-5.5769,0.4925,-3.0437,17.6776,-3.2795,1.0234,-7.9530
1105.4688,4.4523,5.5079,-9.9936,1.8000,10.6857,15.3617,3.7687,2.9377,-2.1860,12.3529,-5.4811,7.5261,-1.7052,5.9940,-7.1696,20.6521,1.1618,0.5575,-7.2611
1109.3750,2.5189,2.0732,-11.6691,4.0327,14.9560,17.3208,2.6976,3.0900,-2.2901,7.7139,-6.7158,8.1263,2.3741,11.4569,-9.7687,12.8988,6.1842,2.1419,-5.6305
1113.2812,0.6409,0.3004,-7.4094,6.1300,13.3023,14.1437,1.9551,1.4084,-1.4432,2.5616,-6.1388,5.4308,4.8739,14.3710,-8.9037,-1.8285,9.6777,4.8329,-3.2999
1117.1875,0.7444,-0.4704,1.3439,6.7999,8.1751,6.4795,2.3336,-0.9894,0.6741,-0.1191,-3.5506,-0.2217,5.1996,13.1497,-5.0490,-15.8551,10.4954,6.6659,-1.3257
1121.0938,3.5514,-1.2885,10.0440,5.5306,3.7957,-1.9665,4.2546,-2.5246,3.6700,1.0371,-0.1328,-6.7801,4.0944,8.4525,-0.6321,-22.5560,8.8179,6.2279,-0.6509
1125.0000,7.7960,-2.7197,14.2980,3.1516,3.5284,-7.1249,7.2276,-2.0511,6.4399,4.8108,2.4551,-11.8840,2.8013,3.0040,1.7250,-20.1767,5.6655,3.7604,-1.3115
1128.9062,10.9145,-4.4111,12.8628,1.2699,7.7960,-7.3681,9.7482,0.4107,7.7435,8.1703,3.1658,-14.3323,2.0313,-0.2213,0.9653,-12.1811,2.1340,0.9159,-2.4894
1132.8125,10.8640,-5.4085,8.2078,0.9598,13.8252,-4.3829,10.0341,3.5713,7.0829,8.3382,2.1456,-14.5393,1.5851,-0.2107,-1.8112,-4.3538,-1.0019,-0.5887,-3.3224
1136.7188,7.7584,-4.9522,4.4071,1.7917,17.4077,-1.6437,7.2966,5.5460,5.2443,4.7715,0.5521,-13.7753,0.8417,1.2287,-4.1886,-0.9665,-3.1599,-0.2867,-3.6924
1140.6250,4.0123,-3.1046,4.1178,2.0741,15.6118,-1.8043,2.6137,4.9653,3.9800,-0.3361,-0.1591,-12.9625,-0.4375,0.8139,-4.0125,-2.5763,-3.6938,0.8074,-4.2475
1144.5312,2.7436,-0.7044,6.9340,0.2032,8.7582,-4.9620,-1.4281,1.8457,4.8909,-3.4500,0.9789,-12.0669,-1.7667,-3.5433,-0.6506,-6.5300,-2.0079,1.1641,-5.6303
1148.4375,5.5251,1.3037,10.1689,-3.9437,0.3938,-8.8850,-2.2843,-2.3744,8.2247,-2.1001,3.9663,-10.5113,-2.3576,-10.7863,4.7543,-9.3007,1.8957,0.0183,-7.6317
1152.3438,11.1497,2.5926,11.1960,-8.7374,-4.7660,-10.7657,0.8432,-5.7099,12.4894,3.3175,7.8381,-8.0996,-1.8797,-17.1344,10.0154,-8.7940,6.9358,-2.1231,-9.0867
1156.2500,16.3757,3.6027,9.4008,-11.9417,-3.6604,-9.0912,6.4412,-6.8748,15.2747,9.5873,11.1137,-5.5118,-0.8117,-18.7468,13.0688,-5.2247,11.1542,-4.1127,-8.6830
1160.1562,18.1456,4.9777,6.3226,-12.4097,3.3024,-4.4209,11.7498,-6.0732,14.8033,12.5795,12.5178,-3.8655,-0.0172,-14.6908,12.9412,-0.4425,12.7255,-5.3003,-6.0279
1164.0625,15.6534,6.7696,4.1433,-10.9848,12.5755,1.1451,14.6734,-4.7995,11.1453,9.7763,11.6665,-3.7251,0.0899,-7.9074,10.1362,3.4015,11.1670,-6.1336,-2.0539
1167.9688,10.7458,8.1451,3.9528,-9.8650,19.6949,5.1533,15.0534,-4.7933,6.2152,1.7762,9.3585,-4.4902,0.0058,-3.3092,6.3746,4.8776,7.8253,-7.6908,1.6173
1171.8750,6.4217,7.9379,5.2142,-10.9055,21.9144,5.8475,14.3184,-6.8830,2.5262,-8.1583,7.2265,-4.7923,0.7388,-4.3387,3.8439,3.6284,5.1450,-10.5802,3.8463
1175.7812,4.6342,5.6692,6.6766,-14.1848,19.5476,2.7404,13.8822,-10.5134,1.5832,-16.1260,6.8358,-3.6347,2.8403,-10.5379,4.2339,0.2985,5.1247,-14.2123,4.7120
1179.6875,5.0836,2.1892,7.7294,-17.9475,15.2463,-3.2048,13.7341,-14.2342,3.0491,-19.7960,8.7135,-1.3127,5.7179,-17.9472,7.9310,-3.6455,8.0266,-17.1262,5.2139
1183.5938,5.8509,-0.6930,8.9015,-19.9471,11.8714,-9.7014,12.5288,-16.7211,5.2236,-19.3875,11.9497,0.7181,7.8996,-22.0085,13.7611,-6.2302,12.2652,-18.1258,6.2276
1187.5000,5.2338,-1.4339,11.0808,-19.1236,10.5379,-13.7384,9.1721,-17.5515,6.3827,-16.9413,14.7166,0.9822,8.1108,-20.7586,19.5015,-5.6689,15.5393,-17.2621,7.6412
1191.4062,3.2220,0.0597,14.2334,-16.3296,10.1698,-12.8094,4.5041,-17.2050,5.9150,-14.5935,15.4382,-0.7910,6.2750,-15.9488,22.9913,-1.3912,16.3398,-15.8104,8.4288
1195.3125,1.4014,2.2567,16.8882,-13.6082,8.7197,-6.4137,1.4196,-16.4051,4.4225,-13.1661,13.8282,-3.3936,3.5460,-11.3903,23.2594,5.1903,14.7137,-15.2426,7.5963
1199.2188,1.4116,3.0866,16.9984,-12.6629,4.9790,3.1216,2.9825,-15.4253,2.8329,-12.0178,11.0376,-5.0715,1.2712,-9.9670,20.9792,10.9803,11.7886,-16.0508,5.1614
1203.1250,3.2931,1.5420,13.5775,-13.7236,-0.4446,11.4194,9.8396,-13.9578,1.3698,-10.0839,8.7773,-4.8950,-0.2583,-11.6790,17.9312,12.8081,8.5656,-17.3982,2.2954
1207.0312,5.1633,-1.4222,7.7710,-15.6039,-5.6539,14.4069,19.0653,-11.6141,-0.6940,-7.1528,8.0532,-3.4153,-2.1554,-14.1067,15.8131,9.5375,5.0519,-17.8701,0.4780
1210.9375,4.5663,-3.4572,2.4085,-16.7548,-8.9486,10.9279,25.6522,-8.5565,-4.2817,-4.3211,8.4852,-2.0476,-5.9669,-14.6867,15.2153,3.1937,0.4790,-16.6705,0.3760
1214.8438,0.4516,-2.5301,0.2613,-16.3854,-10.0163,3.7463,25.8281,-5.6325,-9.4231,-3.2750,8.7494,-1.7129,-12.1096,-12.8097,15.4712,-1.9695,-5.5975,-14.2554,1.4012
1218.7500,-5.8208,1.4599,2.2611,-14.8039,-9.9159,-2.0526,19.8053,-3.8099,-14.8250,-4.9900,7.7961,-1.9221,-19.0397,-10.0749,15.4372,-2.1458,-12.3128,-11.9045,2.3122
1222.6562,-11.3068,6.3968,6.9695,-12.8726,-9.9915,-2.4116,11.8022,-3.3494,-18.5724,-8.8925,5.8478,-1.1312,-23.9936,-8.6858,14.5450,3.3229,-17.5745,-10.6456,2.3184
1226.5625,-13.5457,9.2899,11.6408,-11.2014,-10.7265,2.8996,7.1449,-3.4404,-19.4753,-13.1527,4.3186,1.8814,-24.8807,-9.5132,13.2616,11.2079,-19.3148,-10.4755,1.7112
1230.4688,-12.2884,8.3317,14.0428,-9.8016,-11.5072,10.1434,8.4904,-2.7043,-17.9869,-15.8879,4.6559,6.7657,-21.8958,-11.4980,12.5914,16.3594,-17.0211,-10.5192,1.4709
1234.3750,-9.5555,4.2072,13.7217,-8.3903,-11.3945,14.3693,13.9672,-0.2627,-15.9007,-16.3521,7.0057,11.5679,-17.5249,-12.7799,13.0579,15.1817,-12.3346,-9.9240,2.2110
1238.2812,-8.0008,-0.2989,11.9138,-6.9082,-10.0932,13.0949,18.6391,3.4409,-14.9964,-15.2174,9.8160,14.0200,-14.8216,-12.3964,14.0581,8.2039,-8.1482,-8.6472,3.4254
1242.1875,-8.8601,-2.1277,10.3545,-5.6671,-8.1730,8.1378,18.2083,6.7589,-15.6662,-13.7831,10.7888,13.1599,-15.2069,-10.9680,14.1892,-0.1434,-6.7617,-7.4296,3.7492
1246.0938,-11.0618,0.0782,9.9689,-4.9839,-6.3540,4.1489,12.1813,7.8912,-16.6195,-12.7934,8.5221,9.9953,-17.4818,-9.8000,12.3299,-4.4871,-8.3943,-7.0073,2.0548
1250.0000,-12.1448,5.2031,10.3522,-4.7234,-4.6219,4.9171,4.1469,6.1310,-15.9362,-11.8388,3.5891,6.6946,-18.8394,-9.3512,8.5980,-2.1591,-11.1278,-7.3261,-1.5565
1253.9062,-10.2280,10.5461,10.2348,-4.3025,-2.1698,10.2866,-0.9756,2.3800,-12.6770,-9.8218,-1.8060,4.9740,-17.1171,-8.6292,4.3608,5.0505,-12.3189,-7.5263,-5.7511
1257.8125,-5.4988,13.6448,8.4208,-3.2572,1.5918,16.1171,-0.5747,-1.4580,-7.7956,-6.0843,-5.3631,4.9750,-12.5470,-6.2108,1.2403,12.2611,-10.4594,-6.7576,-8.9936
1261.7188,-0.1150,13.7177,4.4964,-1.8635,5.8327,17.3938,3.8767,-3.7472,-3.6187,-1.2320,-6.2526,5.4767,-7.6510,-2.0040,-0.1039,14.9720,-6.1601,-5.0913,-10.7475
1265.6250,3.3430,11.8006,-1.0325,-1.1437,8.1921,12.1319,8.1508,-4.1045,-2.2600,3.0864,-5.5275,5.1636,-5.3702,1.9753,-0.4121,12.1338,-1.6108,-3.6490,-11.8079
1269.5312,3.6558,9.6709,-7.0376,-2.0854,6.2545,3.0664,8.5492,-3.3931,-4.1466,5.3402,-5.1028,3.8139,-6.8915,2.7979,-1.1043,6.6782,1.0166,-3.7271,-13.4635
1273.4375,1.6715,8.5009,-12.1687,-4.6561,-0.3322,-4.2085,4.5649,-2.8104,-7.7434,5.3148,-6.1449,2.4047,-10.8395,-0.9856,-2.9824,3.2518,1.0264,-5.6082,-16.2050
1277.3438,-0.4933,8.2478,-15.1849,-7.5055,-8.8726,-5.2666,-1.0451,-2.8559,-10.6364,4.3531,-8.1531,2.1031,-14.3979,-7.7563,-5.4427,4.8773,-0.5039,-8.1049,-19.1222
1281.2500,-1.0540,8.0921,-15.2741,-8.7684,-14.9129,-0.0170,-4.6528,-3.0124,-11.1301,4.3581,-9.4317,3.0824,-15.4123,-13.5844,-6.8954,10.8965,-1.7058,-9.3243,-20.5584
1285.1562,0.2532,7.3787,-12.4148,-7.4478,-15.1714,7.3310,-4.6064,-2.3473,-9.1963,6.2618,-8.5337,4.2335,-13.8077,-14.9718,-6.0991,17.4735,-1.3687,-8.1118,-19.4997
1289.0625,2.1842,6.1850,-7.6151,-4.2736,-9.9759,11.3921,-2.2868,-0.4649,-6.1866,9.1380,-5.4920,4.0447,-11.2778,-11.4585,-3.3397,20.0770,0.2346,-5.0068,-16.5000
1292.9688,3.0433,5.0545,-2.7143,-1.2493,-3.1752,9.4134,-0.6596,2.0452,-3.6860,10.7023,-1.8577,1.8890,-9.6272,-5.9123,-0.4583,16.1257,1.7095,-1.8870,-13.2968
1296.8750,1.9174,4.2137,0.3859,-0.1410,0.6706,2.9600,-1.6247,4.0661,-2.4632,8.9082,0.4586,-1.4054,-9.1987,-2.1489,0.3683,6.1746,1.7468,-0.5329,-11.3881
1300.7812,-0.7611,3.0704,0.7390,-1.0747,-0.1892,-3.6016,-4.3626,4.9224,-2.2458,3.5030,0.6062,-4.2088,-8.6701,-1.7785,-1.8003,-6.7350,0.2366,-1.2504,-10.7619
1304.6875,-3.5680,0.5682,-1.0273,-2.4102,-3.2435,-6.4774,-5.9985,4.9960,-2.2855,-3.5937,-0.6334,-5.4106,-6.3188,-2.9312,-5.9383,-18.7211,-1.5307,-2.6619,-9.8989
1308.5938,-4.9489,-3.7831,-2.9970,-2.0646,-3.6648,-5.0695,-4.0099,5.3981,-2.0527,-9.3756,-1.5159,-5.2673,-1.6333,-2.0265,-9.7140,-26.5605,-1.7018,-2.8309,-7.1082
1312.5000,-3.9677,-9.0375,-3.0712,0.7399,1.6895,-2.0170,1.5776,6.9211,-1.4268,-11.5278,-0.6555,-5.0462,4.1022,2.8251,-11.0281,-28.4823,0.8797,-0.7919,-2.0988
1316.4062,-0.5934,-12.9465,-0.2013,4.7387,11.3490,-0.8858,7.9626,9.1557,-0.3391,-9.6737,2.0402,-5.7824,8.7369,9.7073,-9.2869,-24.4233,5.8697,2.7611,3.5688
1320.3125,4.4187,-13.2310,5.0551,7.5574,19.8679,-3.4323,11.4971,10.5899,1.6022,-5.3224,5.4713,-7.2524,10.9123,14.0546,-5.5398,-16.0748,11.5941,6.1496,7.6058
1324.2188,9.8049,-9.2109,10.9784,7.6059,21.8052,-8.4629,10.2907,9.7182,4.9521,-0.7306,8.2637,-8.0938,11.0737,12.3509,-1.5302,-6.6486,16.0302,8.1214,8.8108
1328.1250,14.1066,-2.6101,15.7338,5.3854,16.0899,-12.9154,5.5278,6.3082,9.7453,2.3819,9.6886,-7.0084,11.0116,5.3581,1.4927,0.0393,17.9208,8.7638,8.0584
1332.0312,16.0638,3.1911,18.2540,3.0797,7.2867,-14.1159,0.5686,1.7516,14.9161,3.3928,9.8956,-4.0186,12.3256,-1.9848,3.2996,1.2408,17.3231,9.1470,7.5801
1335.9375,15.1138,5.1302,18.4379,2.6882,2.5123,-11.4943,-1.4164,-1.8968,18.5205,2.4629,9.4438,-0.6518,15.0792,-4.2449,4.3088,-3.0602,15.3279,10.0555,9.0759
1339.8438,11.7947,2.4258,16.7651,4.1979,6.1245,-6.7024,0.5076,-3.5172,18.8466,-0.0778,8.7071,1.1893,17.7270,0.0062,4.8492,-9.7764,13.2339,10.9857,12.2155
1343.7500,7.6972,-2.8076,13.8599,5.3470,16.1811,-2.3644,4.7331,-3.8914,15.6850,-3.9520,7.7343,0.7754,18.3446,6.5560,4.8109,-14.3807,11.7629,10.3777,14.8263
1347.6562,4.7806,-6.7944,10.4233,3.2938,25.4918,-0.5288,8.5860,-5.1790,10.7348,-8.6147,6.6062,-0.7836,16.1438,8.3655,3.9656,-13.8842,10.7851,6.9725,14.6849
1351.5625,4.3210,-6.4621,7.4393,-3.0446,26.6670,-1.7912,10.3258,-9.1954,6.6717,-12.8982,5.7938,-1.3814,12.0663,0.8899,2.5417,-9.1221,9.6355,1.1506,11.4731
1355.4688,6.1404,-1.4260,6.1703,-11.8392,17.5007,-5.3281,10.1658,-15.7820,5.4231,-15.2681,6.0055,0.3526,8.0390,-14.1674,1.3820,-4.4555,7.7235,-4.9661,7.2527
1359.3750,8.6979,5.6986,7.6082,-19.3710,2.6954,-9.4712,9.7057,-22.5830,6.8759,-14.7780,7.5389,3.8172,5.5558,-29.6821,1.4108,-4.7160,5.0062,-8.8762,4.9934
1363.2812,10.0699,10.8735,11.6321,-22.5276,-9.3520,-12.3720,10.4237,-26.5128,8.9990,-12.0434,9.7323,6.7387,4.7448,-38.0140,2.8344,-11.3970,2.0594,-9.5100,6.2924
1367.1875,9.1877,11.0925,16.6066,-20.8989,-12.3083,-12.5924,12.5073,-25.8894,9.3275,-9.2990,11.1604,6.8371,4.6046,-36.2831,4.8296,-20.9739,-0.2317,-8.0200,10.1362
1371.0938,6.4705,6.1512,20.0039,-16.8797,-5.9742,-9.6332,14.8903,-21.6399,6.7244,-9.1924,10.6193,3.5936,4.0937,-28.0021,6.1041,-26.9157,-1.1236,-6.8535,13.7462
1375.0000,3.4029,-1.3462,19.8799,-13.7304,4.1717,-4.2712,16.3167,-16.6389,2.1177,-12.9863,8.1928,-1.2424,3.0765,-19.9182,5.9397,-24.2276,-0.3528,-7.7877,14.8512
1378.9062,1.3862,-7.6485,16.2484,-13.1237,11.3170,1.6243,16.4503,-13.6484,-2.3039,-19.4674,5.4651,-4.8023,2.3127,-16.6918,4.8381,-13.2800,1.7536,-10.4840,13.5365
1382.8125,0.7328,-10.0389,11.2879,-14.0807,12.0545,5.9759,16.0931,-13.4009,-4.7741,-25.4887,4.5326,-5.0307,2.5415,-17.6765,4.1566,0.0402,4.3650,-12.7345,12.1218
1386.7188,0.5502,-8.1519,8.0675,-14.0665,7.9798,7.7124,16.3716,-14.2668,-5.1998,-27.9097,6.4405,-1.9752,3.5026,-18.2716,4.9576,8.2072,6.3476,-12.2334,13.1220
1390.6250,-0.4405,-3.7277,8.5741,-11.3081,3.2781,7.4610,17.6120,-13.7359,-5.0499,-25.6232,10.2385,2.4463,3.7988,-14.5413,7.0148,7.2629,6.5457,-8.4829,16.9370
1394.5312,-2.8287,0.8054,12.4030,-6.4459,0.6332,7.0321,18.8716,-10.5459,-6.0521,-20.2251,13.4746,5.8952,1.8041,-7.1313,8.8597,-0.4684,4.1520,-3.3235,21.2014
1398.4375,-6.0418,3.8258,17.0506,-2.1991,-1.0296,7.8860,18.5473,-5.7997,-8.7885,-14.8561,13.8696,7.1209,-3.0602,-1.1235,8.9224,-8.2122,-0.8808,0.3260,22.4241
1402.3438,-8.8275,5.1186,19.5996,-1.3155,-5.1475,9.7159,15.6213,-2.2002,-12.3086,-12.0843,10.9621,6.4658,-9.6810,-1.8571,6.8861,-9.7856,-7.5713,0.5310,18.7027
1406.2500,-10.2687,5.3945,18.5923,-4.4257,-13.7674,10.4160,10.5920,-1.9943,-15.0058,-12.3697,6.4692,5.1924,-15.7714,-10.1338,4.1194,-4.0794,-14.0393,-2.3823,11.3831
1410.1562,-10.4857,5.3525,14.7915,-9.4687,-24.7292,7.7238,5.3719,-5.2097,-15.9716,-14.1467,3.0538,4.3636,-19.1981,-20.8372,2.7438,4.3638,-18.1625,-6.2519,4.3134
1414.0625,-10.4491,5.1355,10.3996,-13.1085,-32.3446,1.4092,2.1920,-9.5373,-15.6792,-15.2881,2.4036,4.2100,-19.1812,-26.3040,3.9909,9.0332,-18.5633,-8.7649,1.1972
1417.9688,-11.0647,4.5606,7.4324,-13.0317,-31.2978,-5.8005,2.2587,-11.9449,-15.4452,-14.7023,4.0541,4.3571,-16.5706,-21.9622,7.1210,6.5075,-15.4090,-9.0246,3.0234
1421.8750,-12.2964,3.7661,6.4778,-9.4040,-20.8347,-9.5929,5.0473,-10.8007,-16.1593,-12.8487,5.8187,4.4964,-13.1117,-9.8745,9.7829,-1.0013,-10.4741,-7.8327,7.4776
1425.7812,-13.0800,3.5404,6.6434,-4.4935,-5.9424,-7.0008,8.6386,-6.9305,-17.3862,-10.9482,5.4525,4.7829,-10.3164,2.5947,9.5857,-7.5000,-6.2805,-6.6418,10.7089
1429.6875,-12.1524,4.8895,6.5278,-0.8935,5.5649,1.2373,10.8003,-2.8779,-17.6377,-9.7546,2.2625,5.6040,-8.7254,7.9997,5.7175,-7.9238,-4.7200,-6.1962,10.0543
1433.5938,-9.1742,8.1054,5.3292,0.2371,8.0729,10.8147,10.1022,-0.9935,-15.6296,-9.0245,-2.5246,7.0243,-7.9433,3.9796,-0.5803,-2.0048,-5.9842,-6.0223,5.6978
1437.5000,-5.2535,12.1259,3.2611,-0.3304,1.7537,16.6234,6.4579,-1.8045,-11.5020,-8.0873,-6.8129,8.5259,-7.2228,-5.4236,-6.9676,5.6522,-8.5134,-5.0890,0.1750
1441.4062,-2.3957,14.8508,1.1228,-0.8238,-7.7720,16.2291,0.9515,-3.8184,-6.9748,-6.8607,-9.1929,9.3634,-6.0601,-13.0454,-11.5802,9.2287,-10.0515,-2.9227,-3.6754
1445.3125,-2.2063,14.3703,-0.4465,0.0790,-13.3463,11.4578,-4.7687,-4.7881,-4.2453,-6.2232,-9.7768,9.2387,-4.4093,-13.7716,-14.0129,6.1576,-9.1338,-0.1156,-4.6320
1449.2188,-4.7449,10.3048,-1.3715,2.4140,-10.9560,6.8448,-9.1319,-3.4040,-4.4403,-7.2532,-9.7575,8.6460,-2.5242,-7.7111,-15.0701,-1.0479,-6.0087,2.2183,-3.5113
1453.1250,-8.3525,4.2730,-1.9779,5.1771,-2.0412,6.0822,-11.0948,-0.1694,-6.7970,-9.9459,-10.1999,8.4967,-0.7067,0.6732,-15.6816,-6.8948,-2.3611,3.4911,-2.0476
1457.0312,-10.6050,-0.9355,-2.5728,7.2116,7.8610,9.1754,-10.3901,3.0726,-9.1944,-12.6307,-11.1376,9.2837,0.7959,6.3030,-16.0099,-7.1758,-0.0556,4.1818,-1.3843
1460.9375,-9.7757,-2.9885,-3.2183,7.9160,12.8800,12.5114,-7.6104,4.4760,-9.6205,-12.8337,-11.6980,10.4978,1.7524,6.9425,-15.4990,-2.0882,0.1757,5.3274,-1.4428
1464.8438,-5.8561,-1.3666,-3.8374,7.3198,10.3244,11.7957,-4.0654,3.3751,-7.4796,-9.1031,-11.0466,10.8565,1.9399,3.9087,-13.7165,4.0576,-0.8612,7.4086,-1.4963
1468.7500,-0.5036,2.4455,-4.3942,5.7419,1.8313,5.5824,-1.3096,0.5639,-3.8122,-2.3747,-9.2475,9.2326,1.2798,0.0841,-11.1180,6.0982,-1.5950,9.6801,-1.1828
1472.6562,4.0010,6.0047,-4.8379,3.5619,-8.1194,-3.3519,-0.3994,-2.3312,-0.3668,4.3398,-7.2566,5.5638,0.0203,-2.6124,-8.9455,1.6462,-1.0082,10.6473,-0.9055
1476.5625,6.0845,7.4261,-4.8424,1.3446,-14.9324,-9.8671,-1.2333,-3.7968,1.6905,7.8880,-6.0653,1.0013,-1.2468,-4.1048,-8.2676,-7.5436,0.5473,9.3766,-1.2673
1480.4688,5.6773,6.3503,-3.7223,0.0216,-16.0480,-10.1403,-2.4582,-3.0755,2.4563,7.1499,-5.7751,-2.8467,-1.8357,-5.0354,-8.9784,-17.1519,1.6874,6.5174,-2.1782
1484.3750,4.0521,3.8116,-0.8500,0.6488,-11.5276,-4.3783,-2.1795,-0.2885,2.9494,3.7834,-5.4505,-4.9870,-1.3436,-5.1849,-9.6659,-23.2791,1.2094,4.0628,-2.6165
1488.2812,2.9075,1.2718,3.6021,3.6622,-3.2928,3.4287,0.8309,3.7695,4.1600,0.9364,-3.9114,-5.5941,0.1297,-3.2593,-8.5563,-24.5172,-0.8039,3.9052,-1.4106
1492.1875,3.3282,-0.3833,8.2517,8.1824,6.0949,8.4146,6.1911,7.8977,6.2985,0.9051,-0.7907,-5.6467,2.0932,1.6429,-4.8239,-21.8854,-2.9098,6.2995,1.6050
1496.0938,5.2501,-1.1890,11.0189,12.1259,14.3664,8.1434,11.9420,10.7683,8.7845,3.5470,3.0626,-6.0018,4.0127,8.3714,0.7714,-17.2478,-3.3581,9.5200,5.1541
1500.0000,7.6801,-1.6836,10.4560,13.3461,20.0017,3.8966,15.6562,11.3248,10.8459,6.6437,6.2002,-6.7013,5.6118,13.7316,6.4159,-11.8578,-1.4518,11.0791,7.3422
1503.9062,9.4338,-2.2072,6.9870,11.1265,22.3966,-0.7873,15.9430,9.2923,12.1280,7.8332,7.6924,-7.0684,6.9011,14.5683,10.4871,-6.1637,1.8807,9.6016,7.1562
1507.8125,9.8742,-2.5377,2.9926,6.8683,21.8935,-2.9456,13.3129,5.5029,12.8010,6.4809,7.7898,-6.4620,7.9697,10.3422,12.5001,-0.6304,4.7855,5.8698,5.3783
1511.7188,9.1952,-2.1225,1.4226,3.2669,19.6112,-2.1450,9.7678,1.6385,13.1659,3.9555,7.5673,-4.9968,8.7851,3.9251,13.0557,3.5983,5.9219,2.1800,4.0526
1515.6250,8.1323,-0.6466,3.7848,2.4073,16.9657,-0.2302,7.3940,-0.6773,13.2176,2.1410,7.8815,-3.5814,9.2160,-0.3341,12.9788,5.0655,5.4904,0.5019,4.8483
1519.5312,7.3582,1.5818,8.9854,4.1456,15.0023,0.6009,6.9820,-0.9544,12.6246,1.5122,8.5878,-3.2236,9.2480,0.0792,12.5194,3.1219,5.0139,0.9055,7.6479
1523.4375,7.0074,3.7575,13.9943,6.0578,13.9207,-0.3626,7.6914,-0.2810,11.1547,0.4821,8.7459,-4.1850,9.1385,3.7930,11.3602,-1.3100,6.0263,1.5194,10.5787
1527.3438,6.6542,5.1099,15.9566,5.1183,13.1383,-2.0393,7.9791,-0.6582,9.1238,-3.3340,7.6569,-5.7030,9.2859,6.5053,9.3657,-6.1752,8.7189,0.0544,11.5374
1531.2500,5.7388,5.4039,14.2143,-0.0644,11.8780,-2.7952,7.0302,-3.5499,7.3876,-10.9285,5.7927,-6.5253,9.8625,4.2978,7.2517,-9.6634,11.6491,-4.3245,9.9829
1535.1562,4.1128,5.0160,10.6990,-8.1094,9.8549,-1.9524,5.5263,-8.6616,6.7919,-20.6158,4.6977,-5.8333,10.5350,-3.2855,6.3671,-11.3520,12.7840,-10.2684,7.4914
1539.0625,2.2786,4.5381,8.3749,-15.6954,7.5461,-0.2241,5.1162,-13.9287,7.4997,-28.8124,5.8017,-3.8144,10.5934,-12.8275,7.5959,-12.1202,11.0805,-15.2134,6.5507
1542.9688,1.1121,4.2343,8.9349,-19.7575,5.8493,1.1752,7.0008,-16.8655,8.7696,-32.3915,9.0765,-1.4505,9.4862,-19.5906,10.3000,-12.9464,7.3603,-17.2511,8.5415
1546.8750,1.2315,3.7941,11.5559,-19.4307,5.4123,1.7745,10.7856,-16.3728,9.4203,-30.8284,12.7229,0.2683,7.3706,-20.9623,12.3751,-13.7488,3.7766,-16.4145,12.5667
1550.7812,2.4569,2.5993,13.6890,-16.3497,6.1503,2.2154,14.5749,-13.6633,8.6483,-26.4792,14.3148,1.0434,5.1804,-18.0779,11.6582,-13.4101,2.2629,-14.4220,16.1265
1554.6875,3.7799,0.3430,13.2345,-13.1946,7.2893,3.3968,16.2993,-11.5302,6.5628,-22.7825,12.6249,1.3341,4.0403,-14.4694,7.7316,-11.0346,3.1410,-13.1855,17.1181
1558.5938,3.9183,-2.4432,10.3308,-11.6917,7.8538,5.2432,15.2664,-12.3916,4.0117,-21.7792,8.7039,1.8003,4.3850,-13.0269,2.6519,-7.2755,4.9168,-13.3537,15.5189
1562.5000,2.1138,-4.3814,7.2952,-11.5958,7.2099,6.3625,12.7148,-16.4872,1.8508,-22.8313,5.2758,2.6464,5.4467,-13.8346,-0.1798,-4.3707,5.3669,-14.0436,13.3502
1566.4062,-1.3667,-3.8782,6.7504,-11.3116,5.3064,5.0933,10.9141,-21.5492,0.2578,-23.4258,4.8070,3.4484,5.5830,-14.5625,1.6448,-4.5997,3.0538,-13.8663,12.9367
1570.3125,-5.3788,-0.1041,9.4566,-9.4882,2.5424,1.1579,11.4973,-24.2316,-1.3446,-21.3192,7.6881,3.5968,3.3141,-12.8728,7.7003,-8.3118,-1.8343,-12.2787,14.9061
1574.2188,-8.6019,6.2538,13.6190,-6.2230,-0.5385,-3.5318,14.3045,-22.3199,-3.6973,-16.3056,11.9382,2.9499,-1.6139,-8.6552,14.8431,-13.2219,-7.8062,-10.0842,17.6148
1578.1250,-10.3085,12.9974,16.2491,-2.9513,-3.4838,-5.7946,17.5957,-16.1955,-6.9424,-10.3175,14.6873,2.1023,-7.9008,-4.1882,19.3167,-15.7478,-13.1161,-8.6974,18.5101
1582.0312,-10.6812,17.3353,15.4874,-1.2395,-6.0073,-3.3097,19.3979,-8.5796,-10.3334,-5.9444,14.3047,2.0025,-13.3722,-2.1957,19.3377,-13.4984,-16.6451,-8.8739,16.3170
1585.9375,-10.4933,17.3218,12.0079,-1.5701,-7.9682,3.6230,18.8879,-2.8008,-12.6837,-4.6449,11.5262,3.2051,-16.2346,-3.5753,16.2363,-7.0076,-18.0424,-10.0461,12.2174
1589.8438,-10.4384,13.0226,8.3743,-3.1090,-9.3420,12.0944,16.7577,-0.8107,-13.2129,-5.9993,8.7244,5.3621,-16.0726,-6.7660,13.2866,0.6603,-17.3131,-10.8474,8.9956
1593.7500,-10.6314,6.6537,6.8888,-4.5347,-10.1855,18.4500,14.4017,-2.2364,-12.1243,-8.3706,7.9307,7.3801,-13.9469,-9.2092,13.1274,6.1178,-14.5095,-10.3483,8.8029
1597.6562,-10.6425,1.4738,7.7051,-5.1124,-10.5622,20.6599,12.7157,-4.9500,-10.4477,-10.2116,9.2004,8.1490,-11.5906,-9.5229,15.7427,7.9098,-9.9642,-8.8980,11.3558
1601.5625,-9.9940,-0.0084,8.7542,-5.0722,-10.4611,19.4508,11.5356,-6.6000,-9.2613,-10.9108,10.6134,7.3026,-10.3046,-8.4566,18.5279,7.0483,-4.8156,-7.8115,14.0641
1605.4688,-8.6920,2.5616,7.5437,-5.0583,-9.8262,17.4096,10.0856,-6.0268,-8.8964,-10.6861,9.8770,5.4546,-10.3000,-7.8701,18.3353,5.5270,-1.1066,-8.1536,14.0140
1609.3750,-7.3553,7.2929,3.3470,-5.2769,-8.7530,16.8245,7.8911,-3.7472,-8.7418,-9.9525,6.2056,3.7515,-10.8530,-8.7812,13.8756,4.2071,-0.9807,-9.6796,10.2231
1613.2812,-6.8355,11.3718,-2.0308,-5.2132,-7.7086,17.9550,5.2387,-1.4123,-7.8028,-8.9481,0.9479,3.0838,-11.0430,-10.3282,6.6276,1.9721,-5.3127,-10.8883,4.3555
1617.1875,-7.6253,12.9237,-5.5788,-4.2032,-7.4798,19.0263,2.7673,-0.7534,-5.5850,-7.9477,-3.5347,3.5124,-10.4808,-10.6097,-0.3787,-3.0739,-12.7895,-10.2044,-0.6543
1621.0938,-9.5094,12.1144,-5.4710,-2.2957,-8.6845,17.8593,0.6518,-2.6686,-2.6290,-7.6366,-5.7990,4.2687,-9.5317,-8.5989,-4.8616,-11.3855,-20.3298,-7.3317,-2.9250
1625.0000,-11.7083,10.6940,-2.6222,-0.5158,-11.0826,13.7839,-1.7241,-6.8301,-0.2833,-8.9636,-6.4617,4.2721,-8.9640,-5.3128,-6.8324,-20.6957,-24.7968,-3.6440,-3.0092
1628.9062,-13.3791,10.3388,-0.1590,-0.1639,-13.2752,8.3143,-5.1641,-11.8435,0.1356,-12.3250,-7.6008,2.7806,-9.3644,-3.0717,-8.2215,-26.9255,-24.9045,-1.2527,-3.2504
1632.8125,-14.0852,11.0947,-1.1847,-1.6921,-13.2802,4.0826,-9.6182,-15.7975,-1.7912,-16.7490,-10.8943,-0.2229,-10.7604,-3.4444,-10.9934,-26.7357,-21.9343,-1.4823,-5.7078
1636.7188,-13.9088,11.2132,-6.5344,-4.1698,-9.8582,2.8985,-13.7470,-17.0142,-5.2810,-20.0051,-16.0226,-4.0734,-12.6650,-5.7378,-15.3377,-19.8026,-18.6749,-3.9598,-10.3908
1640.6250,-13.1908,8.6180,-14.1784,-5.9032,-3.7298,4.4496,-15.7033,-14.7804,-8.7894,-19.8966,-20.6693,-7.7842,-14.4210,-7.4859,-19.3975,-9.0862,-17.3157,-7.0116,-15.2364
1644.5312,-12.1665,2.8994,-20.6367,-5.7722,2.3611,6.6180,-14.6402,-9.7638,-10.8727,-15.9032,-22.1774,-10.4827,-15.5456,-6.6173,-20.7089,1.0606,-17.8492,-8.9785,-17.7836
1648.4375,-10.8073,-3.8175,-23.2543,-4.1559,5.1212,7.1111,-11.6494,-3.8156,-10.9108,-9.8240,-19.5800,-11.7280,-15.8490,-3.4106,-18.1514,7.4382,-18.1861,-9.3410,-17.1053
1652.3438,-8.9608,-8.0280,-21.6538,-2.5992,2.9404,5.1189,-9.1313,0.8926,-9.2786,-4.6978,-14.4054,-11.6315,-15.3268,-0.4135,-12.8467,9.3185,-15.9004,-8.7706,-14.3960
1656.2500,-6.6185,-7.3489,-17.4607,-2.4294,-2.6724,1.7425,-8.8788,3.0162,-6.9497,-2.6610,-9.6109,-10.7841,-13.9944,-0.2395,-7.3403,7.8076,-10.2699,-8.1891,-11.7956
1660.1562,-4.0493,-2.5110,-12.7828,-3.4855,-7.6765,-1.0544,-10.3764,2.7729,-4.8663,-3.3805,-7.4649,-10.0207,-11.8339,-3.0860,-3.7790,4.1750,-3.0419,-7.7707,-10.5273
1664.0625,-1.6841,2.7994,-8.7874,-4.1117,-7.9819,-2.0750,-10.8618,1.7168,-3.4894,-4.3865,-8.0063,-10.0799,-8.8868,-6.2133,-2.5395,-1.1937,2.6805,-6.8334,-9.9683
1667.9688,0.1359,4.3368,-5.4295,-2.5354,-2.2483,-1.7835,-7.3841,1.6155,-2.7484,-3.1538,-9.2374,-11.2772,-5.3844,-6.0404,-2.3171,-8.3309,4.6094,-4.7242,-8.4313
1671.8750,1.3257,0.2754,-2.2903,1.4633,6.9975,-1.7740,0.6028,3.1801,-2.3184,0.6879,-8.8423,-13.3511,-1.7785,-1.2417,-1.4612,-16.3490,2.8903,-1.8523,-4.9312
1675.7812,2.0161,-7.4393,0.4412,6.0337,14.8618,-3.2722,10.2188,5.5782,-1.9585,4.8514,-6.0539,-15.5934,1.3874,5.7818,0.6094,-22.7876,-0.0125,0.1824,-0.3570
1679.6875,2.3871,-14.4287,1.8256,8.4586,17.2857,-5.9043,16.7561,7.1257,-1.6625,6.1200,-2.2299,-17.2165,3.7025,10.4664,3.0440,-24.6419,-1.0398,-0.3304,3.0265
1683.5938,2.5586,-16.9455,1.0072,7.2214,13.7414,-7.7690,16.9088,6.6497,-1.5439,3.0037,0.2585,-17.7463,5.0806,9.5945,4.4374,-20.5137,1.4093,-3.7150,3.3840
1687.5000,2.6397,-14.3717,-1.7489,3.2875,7.5012,-6.8357,11.2498,4.4595,-1.5771,-2.8297,-0.0904,-17.1962,5.8082,3.9435,4.1213,-12.1262,6.5363,-8.2753,0.9144
1691.4062,2.8467,-9.2939,-4.8009,-0.5076,3.2782,-2.6289,3.9963,2.1290,-1.4186,-7.6048,-2.7147,-15.9216,6.4114,-2.1533,2.7811,-3.7162,11.8592,-11.2170,-2.1163
1695.3125,3.5050,-5.1930,-5.9833,-1.5719,3.9374,3.1215,0.1245,1.2334,-0.4751,-8.2571,-5.3539,-14.2912,7.3958,-4.1076,1.9426,0.5606,14.9249,-10.5816,-2.9986
1699.2188,4.8461,-3.6546,-3.9706,0.4585,8.6449,7.4627,1.9428,2.0413,1.7763,-4.8307,-5.6270,-12.4362,8.9736,-0.6624,2.8276,-0.5919,14.7488,-6.7630,-0.5680
1703.1250,6.7328,-3.3428,0.8689,3.4419,13.7361,8.2183,7.6812,3.2371,5.3902,-0.5268,-2.6100,-10.2666,10.9127,5.0919,5.5285,-4.7630,12.0920,-2.3970,4.0233
1707.0312,8.5784,-1.5085,6.7412,4.3984,15.5606,5.5857,13.1060,2.9264,9.7395,0.7012,2.6967,-7.7101,12.6007,8.0771,9.0994,-7.6540,8.6405,-0.6164,8.3223
1710.9375,9.6217,3.2940,11.5668,1.8024,13.1288,2.1305,14.8405,0.1279,13.6750,-2.8401,8.2098,-4.9470,13.3175,5.0595,12.3601,-6.2686,5.8896,-2.9139,10.4835
1714.8438,9.4370,9.6188,14.1409,-3.3249,8.6114,1.0982,12.7986,-4.4671,16.0378,-9.3140,12.1585,-2.4259,12.5934,-3.0891,14.6780,-1.0977,4.5366,-8.1727,10.4945
1718.7500,8.3192,14.0790,14.5654,-8.3619,5.4283,4.1762,9.9264,-9.0891,16.2693,-14.8046,14.0042,-0.6398,10.4564,-12.4000,16.1396,4.3405,4.5762,-13.5446,9.7908
1722.6562,7.2096,14.1203,13.8401,-11.2501,5.4976,10.2773,9.6254,-12.3272,14.7547,-16.3251,14.3733,0.1514,7.4172,-19.0823,17.1343,6.2387,5.6874,-16.4665,9.7269
1726.5625,7.1377,10.3282,13.1006,-12.0600,7.7996,16.2265,13.0222,-14.1755,12.6507,-14.0161,14.2887,0.0347,4.1940,-22.2697,17.8705,3.4356,7.4036,-16.2963,10.3183
1730.4688,8.5186,6.2756,13.0868,-12.6639,9.3253,18.8967,18.2473,-15.7748,11.2474,-10.8507,14.4173,-0.6657,1.3503,-24.0187,18.2896,-1.6581,8.9814,-14.4125,10.3627
1734.3750,10.7945,5.8928,14.0531,-14.8141,7.6030,17.3149,22.1472,-18.0633,11.2225,-10.1677,14.8435,-1.5824,-0.9163,-26.7611,18.3623,-4.8145,9.3367,-12.8520,8.7905
1738.2812,12.6952,10.3931,15.9069,-18.2872,2.7816,13.2831,22.8770,-20.5385,12.2466,-13.0369,15.3325,-2.3950,-2.7111,-30.5869,18.3420,-3.0930,7.4302,-12.6517,5.9769
1742.1875,12.9769,17.2273,18.2774,-20.7365,-2.3780,10.1195,21.2164,-21.3183,13.2066,-17.5115,15.6772,-2.7758,-4.1919,-32.8365,18.6153,2.9921,3.0162,-13.1863,3.7582
1746.0938,11.1648,21.9654,20.4842,-19.4903,-4.6074,10.4447,19.6467,-18.6203,12.9162,-20.2460,15.7975,-2.3388,-5.3667,-30.4249,19.2579,9.7834,-2.8378,-12.9135,4.0302
1750.0000,7.8232,21.6633,21.6406,-13.8886,-2.7041,14.5658,20.1407,-12.5146,10.8647,-19.0866,15.6268,-0.7725,-6.1260,-22.8893,19.7839,12.9906,-8.0637,-10.8004,7.0809
1753.9062,4.1967,17.0711,21.0691,-6.2214,1.4235,20.5015,22.6095,-5.4341,7.5166,-14.5752,15.0560,1.8562,-6.4756,-13.4337,19.4588,10.5905,-10.7533,-7.2294,11.1232
1757.8125,1.4791,11.9569,18.8453,-0.3907,4.0760,25.4669,25.2405,-0.8157,3.9809,-9.3141,14.0902,4.8837,-6.7312,-6.8774,18.0019,4.1375,-10.4381,-3.6938,13.5298
1761.7188,0.1808,10.1269,16.0056,0.7748,2.4854,27.6286,26.2479,-0.7572,1.2924,-5.8964,13.0555,7.2213,-7.4288,-6.0471,16.0390,-2.3050,-8.5078,-1.6222,12.8430
1765.6250,-0.0367,12.5499,14.0900,-2.4845,-3.0962,26.8939,25.3671,-4.4643,-0.1963,-5.1596,12.5428,7.9566,-8.9402,-9.5553,14.7755,-4.7813,-7.3219,-1.3411,9.9324
1769.5312,-0.0179,16.8595,14.2063,-7.0947,-9.5263,24.3751,23.7766,-8.7684,-0.9091,-6.0608,12.9898,7.0300,-11.0716,-12.8656,15.0251,-1.8511,-8.5426,-1.9977,7.3260
1773.4375,-0.5284,19.5415,16.2663,-9.4443,-13.0656,21.2341,22.6498,-10.4333,-1.6030,-7.0043,14.1959,5.4448,-13.0174,-11.8979,16.3796,4.6752,-11.8758,-2.4160,7.2150
1777.3438,-1.7997,18.9326,19.0025,-7.9879,-12.1754,17.9854,21.8192,-8.5539,-2.7386,-7.2827,15.2482,4.7213,-13.8109,-6.3273,17.3209,10.9813,-15.2013,-2.0965,9.7230
1781.2500,-3.4473,16.5371,20.7978,-4.2068,-8.7531,14.7650,19.9141,-5.2074,-4.1322,-7.3803,15.0526,5.8636,-13.0155,0.0651,16.3405,13.5753,-16.0845,-1.5186,12.8176
1785.1562,-4.7548,15.6015,20.7029,-1.2751,-6.8398,12.0952,15.9197,-3.8189,-5.1241,-8.0522,13.1319,8.5539,-11.1407,2.2974,13.2328,11.2890,-13.6240,-1.5499,13.9185
1789.0625,-5.1208,18.1656,18.8558,-1.5411,-9.6464,11.1714,10.6867,-6.4432,-5.1127,-9.2369,10.0349,11.2313,-9.4065,-1.9274,9.4463,5.8506,-9.2836,-2.5392,11.8902
1792.9688,-4.4057,23.0671,16.0235,-4.7714,-16.9840,13.1433,6.8292,-12.0110,-4.0414,-9.9423,6.9507,12.1103,-8.9396,-10.3741,7.0604,0.7995,-6.0490,-3.9051,7.8365
1796.8750,-3.0011,26.5869,12.7458,-8.4190,-24.9666,17.8793,6.8310,-16.8763,-2.4787,-9.2436,4.7740,10.4754,-9.9507,-17.8456,7.0941,-0.6043,-6.4445,-4.5661,4.1163
1800.7812,-1.6016,25.2649,8.9074,-9.5767,-28.3283,23.3734,10.8467,-17.2829,-1.2384,-7.3900,3.3891,7.2991,-11.5191,-19.8759,8.5125,2.6781,-10.7785,-3.8219,2.4421
1804.6875,-0.8134,18.6522,4.1631,-7.0496,-23.8924,26.6081,16.1286,-11.9662,-0.8211,-5.8319,1.8212,4.6608,-12.2079,-15.7044,8.8489,8.7482,-16.8358,-1.9239,2.6092
1808.5938,-0.8183,9.8278,-1.1896,-2.0328,-12.8933,25.5076,18.7587,-3.0491,-1.0785,-5.9515,-0.8054,4.3062,-11.1197,-8.4095,6.0951,13.7389,-21.2315,0.1329,2.8132
1812.5000,-1.2899,3.2898,-5.8050,2.9267,-0.5506,20.5650,16.4283,5.3174,-1.3342,-7.5576,-4.2960,6.3593,-8.6414,-2.3826,0.4251,14.0309,-21.5010,1.3843,1.1853
1816.4062,-1.6257,1.8764,-7.9529,5.7076,6.9196,14.7605,10.0542,9.5180,-0.8762,-8.5937,-7.2943,9.1429,-6.3092,-0.2882,-5.6613,8.5128,-17.5380,1.5619,-2.7712
1820.3125,-1.3703,5.0325,-6.9051,5.7556,5.9910,11.5996,2.9210,8.4571,0.5122,-6.5773,-8.2756,10.2839,-5.8433,-1.7753,-9.0060,-0.4855,-11.4977,1.1110,-7.9617
1824.2188,-0.5664,9.5756,-3.9140,3.9198,-2.1252,12.6022,-1.9262,3.7725,2.3362,-0.7647,-6.8792,8.3428,-7.9987,-4.5620,-8.0638,-8.3098,-6.3469,0.6200,-12.7194
1828.1250,0.2155,12.1425,-1.7755,1.4261,-12.3397,16.1276,-3.8660,-1.5707,3.6335,6.7472,-4.4420,3.8050,-12.0188,-6.5912,-4.0407,-10.6623,-4.1031,0.2339,-16.0564
1832.0312,0.2254,11.3300,-3.0117,-1.0000,-18.8424,18.4998,-4.6833,-5.1267,3.5417,12.0691,-3.1487,-1.2744,-16.0502,-7.3393,-0.0016,-6.2912,-4.8820,-0.3933,-18.0577
1835.9375,-0.9426,8.0305,-7.8982,-3.2089,-18.4930,16.6551,-6.4860,-6.0485,1.8541,12.1080,-4.3433,-4.7006,-18.2075,-7.4028,1.3769,2.0413,-7.2120,-1.5790,-19.2016
1839.8438,-3.0042,4.0626,-13.8883,-5.1087,-12.3183,10.3330,-9.4843,-4.9994,-0.7626,6.7812,-7.3170,-5.6022,-17.5596,-7.1368,-0.3144,9.0652,-9.1883,-3.0469,-19.4042
1843.7500,-5.0776,0.5119,-17.0799,-6.2888,-4.3235,2.1651,-11.6626,-3.3690,-3.0341,-0.8582,-9.6342,-4.8900,-14.4311,-5.8873,-3.1226,10.1577,-9.5845,-3.9150,-17.8216
1847.6562,-6.1797,-2.8084,-14.8499,-6.2760,1.3741,-4.3482,-10.6787,-2.5284,-3.7065,-6.7091,-8.8844,-4.4402,-9.9451,-2.6325,-4.4152,4.1697,-8.2415,-3.3460,-13.6992
1851.5625,-5.8033,-6.5401,-7.8014,-5.1720,3.0556,-7.3436,-6.2955,-3.4699,-2.2114,-8.3301,-4.5816,-5.6653,-5.2511,2.6112,-2.9506,-5.9169,-5.6923,-1.3391,-7.5114
1855.4688,-4.1802,-10.5985,0.4473,-3.9374,1.9438,-7.6269,-1.0854,-6.6539,1.0020,-6.2402,1.2829,-8.5415,-1.0054,8.0927,0.2921,-14.9455,-2.5170,1.0604,-1.2445
1859.3750,-2.0577,-13.8293,5.5796,-3.8398,0.6731,-7.5281,1.4086,-11.7754,4.6766,-2.9636,5.5476,-11.7560,2.6355,11.2332,3.0844,-18.8558,1.0038,2.4293,2.6553
1863.2812,-0.1684,-14.8223,5.4116,-5.3840,1.0506,-8.6674,-0.3817,-17.5139,7.4161,-0.7886,6.1244,-13.7607,5.6941,10.5556,3.8151,-17.1029,4.7441,2.0596,2.9753
1867.1875,1.2113,-13.0837,1.2480,-7.6384,2.8387,-10.5684,-4.5211,-21.6941,8.4508,-0.1528,3.4901,-13.8704,8.1158,7.0167,2.6802,-12.6703,8.3650,0.6011,0.7177
1871.0938,2.3058,-9.4631,-3.1596,-8.6887,4.3523,-11.2620,-6.9049,-22.1677,8.0472,0.1043,0.2840,-12.5869,9.8052,3.4853,1.2837,-9.7929,11.1720,-0.3420,-1.5194
1875.0000,3.5014,-5.4623,-4.2544,-7.0454,4.1879,-9.2730,-4.4961,-18.1292,7.2869,1.0585,-0.6854,-10.9987,10.8388,2.6168,1.1125,-11.0311,12.4109,0.5463,-1.3851
1878.9062,4.9346,-2.1027,-1.0104,-2.9698,2.5664,-5.1710,2.1749,-10.9924,7.3294,2.2524,1.5034,-9.8371,11.5510,4.7655,2.2728,-15.6776,11.8068,3.1205,1.5495
1882.8125,6.3478,0.5948,4.6268,1.3892,1.1857,-1.2506,9.3702,-4.0132,8.6166,1.8757,5.3233,-8.9832,12.3213,7.6380,3.5769,-20.4447,9.8977,5.6034,5.5905
1886.7188,7.3101,3.0960,9.3555,3.3000,1.7797,0.4415,13.1297,-0.6272,10.5573,-1.5395,8.1130,-7.7844,13.2211,8.0417,3.8396,-21.7822,7.8419,5.6431,8.3467
1890.6250,7.5819,5.4155,10.8957,1.3156,4.6630,0.0022,12.4251,-2.4590,11.9305,-7.4459,8.1946,-5.8386,13.8649,4.3949,3.1716,-18.1618,6.7729,1.9127,8.6384
1894.5312,7.2944,6.7911,9.4200,-3.6733,8.5186,-0.2638,9.8435,-8.3351,11.7609,-13.2416,6.1355,-3.5226,13.6817,-1.9660,3.0566,-10.8658,7.1283,-4.8655,7.3719
1898.4375,6.7936,6.4063,7.1581,-9.0079,11.5849,2.1807,9.2230,-15.0319,10.0625,-16.0998,4.2186,-1.7809,12.4449,-7.7117,5.0870,-2.9740,8.4242,-12.2036,6.7109
1902.3438,6.3085,4.5021,6.6585,-12.0554,13.1668,7.6977,12.2538,-19.2939,7.9038,-15.2360,4.6089,-1.3418,10.6215,-9.9552,9.4354,2.5592,9.6274,-17.2633,8.2509
1906.2500,5.7635,2.6948,9.0515,-11.9219,14.0991,13.7570,16.9707,-19.7559,6.7051,-12.6810,7.6879,-2.0279,9.1876,-8.3143,14.4248,4.4171,9.8561,-18.4595,11.6874
1910.1562,4.9180,2.9260,13.4652,-9.8656,15.7138,16.7088,19.4752,-17.4936,7.2341,-11.7742,11.8222,-2.7766,8.9678,-5.0513,17.6464,3.2065,8.9130,-16.2267,15.0366
1914.0625,3.7036,5.7541,17.7896,-8.1919,18.2275,14.7314,17.4501,-14.9347,9.0069,-14.4710,14.6507,-2.4104,9.9742,-3.2597,17.7509,0.6318,7.2966,-12.5400,16.1945
1917.9688,2.4201,9.4867,20.0646,-8.5281,20.0755,9.5225,12.4249,-14.0305,10.5414,-19.6142,14.8059,-0.5717,11.2730,-4.5439,15.4355,-1.6780,5.7320,-9.6177,14.5595
1921.8750,1.5578,11.1454,19.5196,-10.7560,18.9715,5.1924,8.7347,-15.0357,10.3082,-23.6207,12.7417,1.9242,11.5317,-7.9479,12.8061,-2.9198,4.6057,-8.6975,11.4386
1925.7812,1.3524,8.7465,16.7514,-13.2973,13.9405,5.0805,9.9054,-16.6745,7.7227,-23.1287,10.1498,3.6276,9.8742,-10.8431,11.6612,-3.1514,3.7378,-9.5964,8.9753
1929.6875,1.4619,3.1359,13.1877,-14.3934,6.5691,9.0063,15.4728,-17.3815,3.4932,-17.5654,8.5893,3.5054,6.4216,-10.9878,12.1516,-2.8378,2.6407,-11.1603,8.5195
1933.5938,1.1069,-2.2394,10.3339,-13.3451,0.1958,13.2541,21.0168,-16.5454,-0.8942,-9.6405,8.4861,1.7246,2.1327,-8.1650,12.9367,-2.3460,1.0241,-12.1442,9.7430
1937.5000,-0.3531,-3.6768,9.1967,-10.8379,-2.5535,13.4587,21.5915,-14.8078,-4.1494,-3.4037,9.2056,-0.4133,-1.8945,-4.2434,12.6543,-1.7068,-0.8817,-11.9115,11.1277
1941.4062,-2.8373,0.0190,9.9893,-8.2568,-1.9520,8.1922,15.8623,-13.3024,-5.9031,-1.4107,9.9336,-1.3310,-5.0950,-1.7437,11.3710,-0.7087,-2.4654,-10.6057,11.3216
1945.3125,-5.4555,6.5373,12.0808,-6.6395,-1.1419,0.3864,7.5422,-12.5646,-6.6970,-3.1780,10.4627,-0.1983,-7.5738,-2.0446,10.6758,0.8059,-3.2432,-8.8581,10.2088
1949.2188,-7.0647,11.7171,14.2080,-6.0672,-3.6266,-4.6425,2.8027,-12.0341,-7.3354,-6.0034,11.1930,2.5926,-9.6706,-4.4983,12.2613,2.6508,-3.3350,-7.3389,8.8650
1953.1250,-7.0991,12.6643,15.0104,-5.8361,-10.1278,-3.1288,5.5716,-10.5396,-8.1615,-7.3222,12.4527,5.7705,-11.4060,-6.9689,16.1930,4.2213,-3.5079,-6.4380,8.5363
1957.0312,-6.0366,9.9247,13.7735,-5.1336,-17.4137,4.2606,14.3855,-7.3479,-8.8336,-6.6250,13.8890,8.0250,-12.3507,-7.3096,20.4250,4.7662,-4.7013,-6.1759,9.5512
1960.9375,-5.1007,6.9981,10.9706,-3.6542,-20.3580,12.8243,23.2861,-2.9451,-8.7340,-5.4654,14.5833,8.7273,-12.0660,-4.7677,22.1292,3.9487,-7.3470,-6.2884,11.0465
1964.8438,-5.3756,7.5519,8.1126,-1.7737,-15.9397,17.2032,26.0853,1.0433,-7.6186,-5.7466,13.8315,8.1068,-10.7215,-0.4900,19.8618,2.3801,-10.9669,-6.3866,11.6437
1968.7500,-6.9860,12.5071,6.7957,-0.2971,-6.1574,15.1603,20.7105,2.7320,-5.9327,-7.8763,11.8620,6.9214,-9.2790,3.0732,14.8052,1.6533,-14.3562,-6.1242,10.4409
1972.6562,-8.9773,19.2668,7.4771,-0.0406,2.6162,8.9562,10.3649,1.0526,-4.5125,-10.3763,9.7662,5.9882,-8.9544,3.4616,9.9867,3.5855,-16.2477,-5.3272,7.5129
1976.5625,-10.0112,23.6550,8.8997,-1.4695,3.7255,3.4302,0.8087,-3.6369,-3.9203,-11.2086,8.6090,5.9099,-10.2883,-0.4800,7.9988,8.9120,-16.0249,-4.0373,3.6332
1980.4688,-9.3662,23.0109,8.7678,-4.4548,-5.0333,2.4122,-3.9249,-9.7002,-3.9781,-9.5922,8.4545,7.0277,-12.5632,-7.8787,8.9908,16.2432,-14.0291,-2.4385,-0.3912
1984.3750,-7.4923,18.0251,5.3741,-8.1538,-19.5161,6.2094,-4.0245,-14.9477,-3.9102,-6.7128,8.1846,9.3922,-14.1169,-16.0424,10.5439,22.2038,-11.2986,-0.7070,-4.1264
1988.2812,-5.6971,11.9798,-0.9585,-11.1164,-31.6946,11.8704,-2.8986,-17.5173,-3.0102,-4.7265,6.3460,12.5996,-13.4397,-21.5686,9.5682,23.0466,-8.9596,1.0890,-7.3829
1992.1875,-5.2019,8.1349,-7.7840,-11.7625,-34.8321,15.6845,-3.8451,-16.5434,-1.3013,-4.9410,2.3771,15.6203,-10.2944,-21.9178,4.7560,16.9784,-7.6793,2.9283,-9.8441
1996.0938,-6.2734,7.4097,-12.0299,-9.1846,-27.7310,15.7722,-7.2912,-12.4359,0.3569,-6.7404,-2.8029,16.9466,-6.0121,-16.7101,-2.3172,5.6969,-7.4827,4.6359,-10.9793
2000.0000,-8.0632,8.1360,-12.0906,-3.8804,-15.1224,12.8576,-10.7732,-6.7310,0.8404,-8.1459,-7.3589,15.2346,-2.6829,-8.0066,-8.2850,-6.0966,-7.9404,5.7348,-10.4378
2003.9062,-9.2419,7.8839,-8.9568,2.1668,-4.1234,9.0038,-11.3981,-1.5399,-0.3988,-7.4882,-9.8237,10.1908,-1.7810,0.7036,-10.4024,-13.1939,-8.4972,5.5719,-8.5674
2007.8125,-8.9215,5.6889,-5.4627,6.3614,0.5045,5.7242,-8.5024,1.2844,-2.8550,-4.7455,-10.0614,3.0919,-3.1976,6.3375,-8.4185,-12.9271,-8.6951,3.7505,-6.4724
2011.7188,-7.1864,2.7807,-4.1535,6.9659,-1.0953,3.1359,-4.2330,0.9769,-5.2226,-1.4377,-9.1435,-3.5867,-5.3676,7.8097,-4.5454,-6.7640,-8.2154,0.6085,-5.3806
2015.6250,-4.8926,1.2719,-5.3924,4.2452,-5.0262,0.6406,-1.6785,-1.7299,-6.2046,0.7516,-8.2873,-7.4031,-6.3763,6.3775,-1.6783,0.6883,-6.8469,-2.6665,-5.7353
2019.5312,-2.9682,2.0136,-7.1981,0.4118,-7.1468,-1.8225,-2.2700,-4.9388,-5.3004,1.3715,-7.7935,-7.3560,-5.2213,4.5128,-1.3337,4.6555,-4.5168,-4.5182,-6.7645
2023.4375,-1.7912,3.5221,-6.9774,-1.7403,-6.0062,-3.3269,-4.6840,-6.6020,-3.0298,1.4014,-6.9010,-4.5426,-2.3366,4.0930,-2.8478,3.1358,-1.3984,-3.9009,-6.9716
2027.3438,-1.0919,2.9665,-3.7925,-0.6593,-3.0866,-2.7933,-6.0932,-5.6881,-0.4868,2.1362,-4.6700,-1.5631,0.9226,5.2024,-4.2652,-2.1747,2.0303,-0.9982,-5.2462
2031.2500,-0.3625,-1.5189,0.6797,2.9609,-0.6081,-0.2789,-4.5880,-2.7760,1.4089,3.8198,-1.1003,-0.9927,3.3467,6.3916,-4.0129,-7.4932,5.1075,2.7621,-1.7463
2035.1562,0.6440,-9.0536,3.3481,6.7579,0.9069,2.5983,-0.6843,0.3569,2.4198,5.3039,2.5283,-3.8834,4.6371,6.1356,-1.9809,-9.7919,7.2749,5.4932,2.1549
2039.0625,1.7670,-16.2258,2.1940,8.4665,3.1337,3.6529,3.2740,1.9358,2.9540,5.0774,4.4519,-9.2395,5.3366,4.2942,0.6987,-8.7506,8.3517,5.9584,4.8282
2042.9688,2.7358,-19.2174,-1.9198,7.5745,8.1642,1.7824,5.1743,1.3984,3.6111,2.7598,3.7395,-14.7440,6.1016,2.3687,2.7456,-6.4894,8.5950,4.2596,5.4995
2046.8750,3.5991,-16.3002,-5.6298,5.6131,16.1117,-2.1300,4.8419,-0.2204,4.7128,-0.3061,1.0551,-18.1725,7.0117,2.3013,3.6482,-5.5107,8.4933,1.6363,4.6501
2050.7812,4.8485,-8.9195,-5.4632,4.8477,24.2801,-5.8504,4.0109,-1.0224,6.1582,-1.9791,-1.7646,-18.5389,7.5231,4.7545,3.7163,-6.6164,8.4475,-0.4629,3.4513
2054.6875,7.0585,-0.6824,-0.4589,6.3647,28.7203,-7.4352,4.7315,0.3725,7.6321,-1.0573,-2.9748,-16.3105,7.0758,8.2702,3.4704,-8.4541,8.5728,-1.3562,2.7776
2058.5938,10.2928,4.9167,7.0072,9.0361,26.9783,-6.5000,7.6656,3.7259,8.9122,1.6223,-2.0188,-12.7495,5.7818,10.0593,3.1388,-8.9234,8.7415,-1.4627,2.6509
2062.5000,13.7599,6.4149,12.8694,10.1953,19.8585,-4.1264,11.6673,7.1154,9.9930,3.6835,0.3706,-9.0131,4.5382,7.9015,2.7803,-7.1377,8.7827,-1.8104,2.5414
2066.4062,16.0635,4.7742,14.2706,7.5520,10.8552,-1.6642,14.8242,7.9738,10.9533,2.9536,3.0223,-5.6745,4.4046,1.7485,2.7873,-4.2303,8.6417,-3.1595,2.1641
2070.3125,15.9661,2.2719,11.5363,0.9298,3.7909,0.3514,15.9076,4.5940,11.7456,-0.9423,5.3096,-2.8564,5.7359,-6.1670,4.0420,-2.3381,8.3746,-5.4384,1.9719
2074.2188,13.2020,0.8936,7.7708,-7.4609,0.5495,2.1582,15.0033,-2.8140,12.1455,-6.3872,7.4105,-0.6433,7.8091,-12.7787,7.3100,-2.6799,8.0373,-7.8920,2.8386
2078.1250,8.8017,1.3327,6.4613,-14.3988,0.5434,3.7666,13.0126,-12.1122,11.9353,-11.0560,9.7110,0.7147,9.3079,-16.0927,12.2864,-4.4305,7.6381,-9.7503,5.1897
2082.0312,4.6858,3.0318,8.9635,-17.6515,2.0159,4.1929,10.7720,-20.2343,11.1618,-13.5519,12.0243,0.9968,9.3208,-16.1755,17.2495,-5.4105,7.2384,-10.8226,8.3910
2085.9375,2.7302,4.9043,13.7405,-17.1715,3.8077,1.9798,8.7383,-24.6054,10.2133,-14.0601,13.4637,0.3561,8.0597,-14.6329,19.9192,-4.0237,7.0912,-11.5321,11.0294
2089.8438,3.8160,6.0642,17.7829,-14.7369,6.0341,-3.2029,7.4080,-24.2455,9.6017,-13.6252,13.1755,-0.5975,6.6957,-13.1633,19.0748,-0.7479,7.5957,-12.4050,11.9484
2093.7500,7.3707,6.1470,18.9388,-12.4666,9.2665,-9.3293,7.7260,-20.0637,9.5861,-12.8873,11.2871,-1.1325,6.4094,-12.3930,15.6685,2.2041,8.9770,-13.4942,11.1989
2097.6562,11.6210,5.2600,17.2836,-11.4018,13.2132,-12.6127,10.6641,-14.3003,9.9251,-11.5474,9.1336,-0.8878,7.4029,-11.8145,12.3792,2.8779,10.8830,-14.2529,10.0707
2101.5625,14.4038,3.8208,14.5813,-11.1414,16.3064,-9.9553,16.0562,-9.4541,9.9724,-9.0759,8.4094,-0.0712,8.6813,-10.6561,11.7445,1.5480,12.2812,-13.9674,10.1126
2105.4688,14.1229,2.4352,12.5059,-10.6026,16.7067,-1.5546,21.7841,-7.2118,9.0747,-5.9332,9.8554,0.8480,8.8173,-8.7702,14.2381,0.8378,11.9088,-12.3647,11.9178
2109.3750,10.4069,1.7629,11.2551,-9.1204,13.8734,8.5245,24.4515,-7.8448,7.0055,-3.9721,12.5886,1.6976,7.1205,-6.7387,17.8534,3.6095,9.1052,-9.8625,14.6869
2113.2812,4.1946,2.2832,9.7299,-6.9639,9.2531,14.6524,21.5129,-10.3064,4.1358,-5.3450,14.7198,2.8927,4.2844,-5.1914,19.6338,10.1662,4.4661,-7.2460,16.9515
2117.1875,-2.7460,4.0378,7.0119,-4.9639,5.3454,13.4100,13.3939,-12.9442,1.2299,-10.6208,14.8365,5.1323,1.9586,-4.0812,18.0159,17.1261,-0.2531,-5.0613,17.8520
2121.0938,-8.6096,6.5542,3.7053,-3.7245,3.8070,6.1008,3.7774,-14.4361,-0.9911,-17.7138,13.1457,8.6917,1.5274,-2.6817,14.1131,19.2451,-3.0864,-3.2665,17.8641
2125.0000,-12.2677,9.0725,1.8195,-3.1752,4.1214,-1.9837,-2.5388,-14.4332,-2.2312,-22.7689,11.2937,12.9022,3.0046,-0.3815,10.8461,13.1956,-3.1133,-1.4538,18.3040
2128.9062,-13.5795,10.9377,3.1571,-2.8224,3.9567,-5.1511,-2.8553,-13.5478,-2.7270,-22.6133,10.9532,16.3153,4.8908,2.4417,10.5558,0.5933,-1.1468,0.5506,19.9848
2132.8125,-13.1905,11.8591,7.5421,-2.3815,0.9751,-1.1843,1.5507,-12.7216,-3.0543,-17.0155,12.3267,17.5171,5.1311,4.3342,13.0134,-12.1854,0.7154,2.2576,22.1704
2136.7188,-11.9894,11.8575,12.4791,-2.1382,-5.3026,7.3049,6.4346,-12.4262,-3.7885,-8.9754,13.8367,16.0115,2.4878,3.6987,15.4893,-17.6718,0.4648,2.6824,22.8038
2140.6250,-10.5760,11.0281,14.7186,-2.6692,-13.0004,14.9481,7.8221,-12.2813,-5.2221,-2.7147,13.3198,12.5046,-2.6481,0.0797,14.9033,-12.1564,-2.4373,1.0336,19.9627
2144.5312,-9.0600,9.4355,12.6143,-4.1778,-19.0823,17.4566,5.0019,-11.3891,-7.2581,-0.8243,9.7872,8.3824,-8.5517,-5.2424,10.3643,1.6200,-6.6639,-2.6082,13.4481
2148.4375,-7.2732,7.3039,7.4144,-6.0873,-21.2797,14.3311,0.9070,-9.1466,-9.4799,-2.7064,4.3010,4.8189,-13.2936,-9.9070,4.0308,15.9415,-9.9461,-7.1782,5.2148
2152.3438,-5.1874,5.2908,2.3925,-7.3276,-19.3451,8.5889,-0.4500,-5.8962,-11.3241,-5.4416,-0.7828,2.2266,-15.8581,-11.9594,-0.4672,22.9231,-10.6931,-11.1965,-1.7911
2156.2500,-3.1889,4.4164,0.4063,-7.1336,-14.8867,4.0491,2.5492,-2.8588,-12.2842,-6.3028,-3.6167,0.4360,-16.4897,-11.0775,-0.8385,19.4832,-9.1448,-13.5930,-5.5749
2160.1562,-1.9769,5.4448,1.7387,-5.6881,-10.1622,2.5281,7.5557,-1.3290,-12.1013,-4.8729,-4.2415,-0.6597,-16.1371,-8.6335,2.0608,9.1640,-7.1839,-14.1746,-6.3603
2164.0625,-2.1479,8.0583,3.8905,-4.0298,-6.8450,3.1222,9.9060,-1.7116,-10.9001,-3.1175,-4.4150,-0.6738,-15.5354,-6.5685,4.8827,-0.3744,-6.8958,-13.4367,-6.2219
2167.9688,-3.7805,10.5450,3.4912,-3.2485,-5.5131,3.8467,6.2428,-3.1577,-9.2100,-3.4776,-6.0438,1.0118,-14.6643,-5.9478,4.4093,-2.4411,-8.8952,-11.9640,-7.3782
2171.8750,-6.3476,10.5141,-1.1408,-3.5979,-5.8424,3.9170,-2.7552,-4.1272,-7.8155,-6.6631,-9.5387,4.4729,-12.9479,-6.2581,0.0671,4.4335,-11.6659,-9.9750,-10.4620
2175.7812,-9.0346,6.4017,-8.7297,-4.2490,-6.9802,4.5377,-12.7064,-3.4843,-7.4472,-11.0066,-13.4727,8.6749,-9.9516,-5.9007,-5.6577,15.8027,-12.4769,-7.3836,-14.0789
2179.6875,-11.2291,-1.2049,-15.9754,-3.9025,-7.7387,7.4933,-18.6755,-1.2838,-8.4331,-13.8671,-15.8228,11.7521,-5.9719,-3.4415,-9.2081,24.4093,-9.3191,-4.2544,-15.9455
2183.5938,-12.8052,-9.4695,-19.8897,-1.7870,-6.7598,12.8437,-18.6774,1.3770,-10.4924,-13.8170,-15.7260,12.0896,-2.0516,1.3205,-8.7386,24.8364,-2.5398,-1.1545,-14.6853
2187.5000,-13.9899,-14.7249,-19.7203,1.7355,-3.0259,17.8876,-14.8393,3.3248,-12.8129,-11.7002,-14.2337,9.4348,0.5729,7.1667,-5.4721,16.6204,5.0097,1.0021,-10.8973
2191.4062,-14.9336,-14.6097,-17.0743,5.4115,3.3054,18.5420,-11.4226,4.3069,-14.4005,-9.6557,-13.3857,5.1266,1.1719,12.1701,-2.5843,4.0103,9.5249,1.5541,-6.7238
2195.3125,-15.3541,-9.5336,-14.3315,7.9635,10.3828,12.2550,-11.3752,5.1812,-14.5253,-8.9944,-14.3683,1.1658,-0.0979,14.7331,-2.5628,-7.0926,8.5696,0.6403,-4.3145
2199.2188,-14.5819,-2.4796,-12.7431,8.8966,15.2255,0.2039,-14.1598,7.1076,-13.0226,-8.8571,-16.3354,-1.2185,-2.3211,14.3068,-5.1862,-12.7329,2.6946,-0.8071,-4.3793
2203.1250,-12.0218,2.7320,-11.7323,8.6593,15.4269,-13.0152,-16.4732,10.3899,-10.2939,-6.9439,-16.9637,-2.3959,-4.2840,11.5009,-7.7260,-12.7073,-4.7026,-1.6704,-5.8656
2207.0312,-7.7038,3.5594,-9.8208,8.1264,10.9904,-22.1087,-15.1204,13.9477,-7.0342,-1.7956,-14.3683,-3.8718,-4.9565,7.7126,-7.1694,-9.7448,-9.2358,-1.3872,-6.8810
2210.9375,-2.4927,-0.1048,-6.2504,7.8969,4.8339,-24.2951,-9.6579,15.9282,-3.8715,5.3368,-8.8260,-6.8713,-3.7894,4.5584,-2.6595,-7.0751,-7.9995,-0.2258,-6.0640
2214.8438,2.2464,-6.3245,-1.8655,7.9700,1.2353,-20.7552,-2.7332,15.0412,-1.1310,10.8078,-2.8420,-11.1030,-0.8198,3.2992,3.7723,-6.2969,-1.1885,1.1172,-3.3879
2218.7500,5.3400,-12.5577,1.4752,7.9689,3.0211,-15.4450,2.0143,11.5744,1.1689,11.0946,0.5899,-14.7471,3.3429,4.3399,8.7091,-6.9201,8.0585,2.2230,0.0616
2222.6562,6.4074,-17.0409,2.4115,7.5989,9.4430,-12.3185,2.7085,7.2478,3.1428,5.6298,0.2047,-15.7595,7.6445,6.9349,9.8517,-7.5415,15.4449,3.3186,2.9775
2226.5625,5.9766,-19.2808,1.2136,6.8790,16.4217,-13.0033,0.4692,3.9687,4.8424,-2.3870,-2.5941,-13.5190,10.8929,9.3421,7.5783,-7.4419,17.8522,4.9558,4.6315
2230.4688,5.0575,-19.6183,-0.4226,5.9714,19.2034,-16.3766,-1.7102,2.4420,6.1763,-8.0593,-4.8318,-9.5090,12.2374,9.5870,4.4514,-7.2663,14.8950,7.2683,5.0632
2234.3750,4.4800,-18.4950,-0.7286,4.8538,15.6578,-19.9288,-1.3755,1.7319,6.9800,-8.3255,-4.2404,-6.4274,11.6201,6.6123,3.2011,-8.3325,8.8865,9.4901,4.7285
2238.2812,4.4414,-16.0889,0.7672,3.2339,7.8560,-21.5811,1.6500,0.1382,7.1608,-4.2739,-0.9260,-6.3233,9.8815,1.1524,4.8214,-11.2544,3.3563,10.2453,4.0709
2242.1875,4.5348,-12.4922,2.9715,0.8505,0.7426,-20.6144,5.4518,-3.3036,6.8066,-0.3842,2.8575,-9.1227,8.3378,-4.3907,8.1639,-15.0780,1.0578,8.4830,3.3827
2246.0938,4.1871,-8.0729,4.2419,-2.1119,-1.1868,-17.3838,7.7612,-7.9033,6.1877,-1.1700,4.5949,-12.6401,8.0049,-7.2546,11.1227,-17.6863,2.6051,4.3482,2.9277
2250.0000,3.1685,-3.5642,3.8135,-4.9398,3.1507,-12.5382,7.7127,-11.7397,5.6568,-7.7254,3.5108,-14.0708,8.9594,-6.1299,12.2876,-17.2207,6.4267,-0.7356,3.0186
2253.9062,1.8151,0.2344,2.4597,-6.8235,10.8715,-6.6670,6.2735,-13.1198,5.5050,-16.8097,1.1028,-11.8805,10.3059,-2.2633,11.7492,-13.4722,9.9148,-4.9103,3.8493
2257.8125,0.8305,2.8554,1.8711,-7.5069,17.2505,-0.6157,5.2139,-11.9312,5.8343,-23.1984,-0.1634,-6.7679,10.8182,1.0627,10.6082,-8.1955,10.9935,-7.0567,5.2259
2261.7188,0.8136,4.2903,3.2855,-7.5904,18.8919,4.1231,5.6471,-9.8053,6.4893,-23.5511,1.1105,-1.1095,9.8242,0.5343,9.8403,-4.0691,9.1756,-7.4283,6.5471
2265.6250,1.8323,4.7644,6.4777,-8.1491,15.7135,5.6966,7.3385,-8.9327,7.0682,-18.8976,4.1354,2.5993,7.6931,-4.9455,9.5689,-2.9849,5.5866,-7.2896,7.1973
2269.5312,3.3154,4.4226,9.8764,-9.8864,10.5517,2.9639,9.1662,-10.4237,7.0325,-13.8928,6.5871,3.1640,5.5647,-13.3058,9.2661,-4.8211,2.1006,-7.8751,7.0971
2273.4375,4.3293,3.2523,11.6589,-12.4798,6.9702,-3.3999,10.1234,-13.4664,5.9103,-13.4183,6.4546,1.0927,4.5315,-20.3956,8.5078,-7.5236,0.2355,-9.4925,6.9091
2277.3438,4.0808,1.2961,10.9436,-14.6836,6.9918,-10.7736,9.9418,-15.9170,3.5424,-19.0430,3.5975,-2.0519,4.8958,-22.4707,7.4780,-8.4436,0.4875,-11.4265,7.6101
2281.2500,2.3605,-1.1096,8.2172,-15.1845,10.2228,-15.8051,8.9523,-15.8672,0.2589,-27.8890,-0.1630,-4.6767,6.0495,-18.4535,6.7857,-6.0577,2.3906,-12.6309,9.6779
2285.1562,-0.3212,-3.3694,4.8183,-13.5944,14.5954,-16.3061,7.5645,-13.0143,-3.1470,-34.6127,-2.3888,-5.8177,7.0138,-10.4870,6.8814,-0.9723,5.0618,-12.5707,12.5438
2289.0625,-2.9850,-4.9491,2.0187,-10.8211,17.8127,-12.5665,6.0161,-8.8550,-5.7088,-34.9647,-1.6870,-5.2044,7.1516,-2.4836,7.7338,4.4037,7.7231,-11.5268,14.8273
2292.9688,-4.6947,-5.6765,0.4382,-8.5076,18.3813,-7.1650,4.6087,-5.6353,-6.7487,-28.4006,1.5505,-3.0300,6.4629,2.2746,9.0886,7.2915,9.8377,-10.1859,15.2656
2296.8750,-5.0554,-5.7044,0.1003,-7.9372,15.8037,-3.3740,4.0112,-4.8883,-6.2757,-18.0879,5.7130,0.1740,5.2685,2.8591,10.9603,6.1922,10.9026,-8.9675,13.6500
2300.7812,-4.4215,-5.1541,0.8418,-9.1963,10.3079,-3.1970,5.0614,-6.6000,-5.0629,-8.6134,9.1840,3.5071,3.6452,0.7113,13.6965,1.7764,10.2650,-7.7233,11.0177
2304.6875,-3.6871,-3.8179,2.5649,-11.1790,2.6939,-6.2631,8.0164,-9.4737,-4.2987,-3.2030,11.1766,5.8152,1.2042,-1.8120,17.3711,-3.4749,7.2998,-6.0600,8.9129
2308.5938,-3.7660,-1.3094,5.1018,-12.3782,-5.5864,-10.1721,11.8949,-11.9217,-4.9630,-2.3085,11.6832,6.1933,-2.5108,-3.1582,21.0384,-6.6287,1.9263,-3.9361,8.2802
2312.5000,-5.0587,2.3696,7.9345,-11.8544,-12.5177,-11.9448,14.7007,-12.9787,-7.2788,-4.1671,10.8952,4.6665,-7.3204,-3.3363,22.7390,-5.8648,-4.9370,-1.9255,8.8667
2316.4062,-7.2241,6.3527,10.1902,-9.7139,-16.1709,-9.6446,14.6553,-12.5646,-10.5798,-6.4921,8.8431,2.4582,-12.0725,-3.3596,20.6286,-1.3938,-11.4523,-0.8514,9.5971
2320.3125,-9.3983,9.0990,11.0545,-6.8663,-15.7232,-3.3014,11.6176,-11.1471,-13.6917,-7.8980,5.6360,1.3955,-15.1124,-4.0376,14.5580,4.7238,-15.6081,-1.0970,9.5800
2324.2188,-10.7257,9.3228,10.2867,-4.3688,-12.1002,5.2017,7.4898,-9.2829,-15.5995,-8.2286,1.9465,2.6734,-15.3363,-5.1792,6.7822,9.6935,-16.2555,-2.2295,8.8751
2328.1250,-10.8663,7.0487,8.3592,-2.8769,-7.5748,13.0482,5.0506,-7.4433,-15.9757,-7.9842,-0.9594,5.8497,-13.0496,-5.8018,0.9248,11.3999,-13.7703,-3.3197,8.3537
2332.0312,-10.1604,3.9106,6.0424,-2.4991,-4.4159,17.6937,5.8974,-6.0988,-15.2368,-7.6407,-1.9492,8.9542,-9.8969,-5.0626,-0.3454,9.3720,-9.8684,-3.7083,8.7713
2335.9375,-9.3583,2.2780,3.7734,-2.9585,-3.5007,17.8519,9.0205,-5.7274,-14.1150,-7.4362,-1.0184,9.8238,-7.8001,-3.0597,2.7047,4.8475,-6.6438,-3.5315,9.8741
2339.8438,-9.1079,3.6998,1.3795,-3.7718,-3.9262,13.9301,11.2155,-6.5261,-13.0714,-7.5488,0.3687,7.7704,-7.6285,-0.8173,6.8384,-0.0127,-5.4218,-3.4918,10.3725
2343.7500,-9.5437,7.7663,-1.5667,-4.3034,-3.9160,7.7849,9.2168,-8.0216,-11.9877,-8.1889,0.0981,4.2870,-8.5985,0.5182,8.0009,-3.2710,-6.1319,-4.0401,8.8932
2347.6562,-10.2293,12.2771,-5.0739,-3.8263,-2.2972,1.8860,2.0945,-9.0468,-10.3648,-9.3300,-3.0738,2.1172,-8.8966,0.5890,4.1943,-4.0918,-7.5450,-4.7139,5.1608
2351.5625,-10.4579,14.6588,-8.3927,-1.7994,0.6225,-1.7832,-7.8338,-8.3455,-7.8818,-10.3350,-8.4594,3.2502,-7.1076,0.0931,-3.0686,-2.9326,-8.1464,-4.3241,0.3941
2355.4688,-9.6885,13.6344,-10.4242,1.6677,3.4242,-2.5857,-16.3007,-5.4982,-4.8848,-10.0118,-13.7706,7.3075,-3.4000,0.1935,-9.8910,-1.0548,-7.0496,-1.9734,-3.5024
2359.3750,-7.8417,9.9451,-10.6219,5.5244,4.7956,-1.3948,-19.7239,-1.4424,-2.4130,-7.3216,-16.7164,11.5887,0.4273,1.5545,-12.9065,0.2660,-4.4153,1.8950,-5.3778
2363.2812,-5.3178,5.6501,-9.6229,8.0719,4.5279,0.0525,-17.3498,1.9739,-1.6894,-2.3236,-16.6954,12.8385,2.1009,3.7806,-11.7744,0.3414,-1.2309,5.3816,-5.7534
2367.1875,-2.7890,2.6014,-8.9712,7.8733,3.4889,0.2466,-11.4687,3.2448,-3.3933,3.4295,-15.2492,9.4834,0.4140,5.7034,-9.3265,-0.8044,1.2920,6.2374,-6.4233
2371.0938,-0.9260,1.2699,-10.0091,4.7609,2.7129,-1.2206,-5.6805,2.3860,-7.1919,7.5283,-14.8671,2.7033,-3.9293,6.2924,-9.2398,-2.7228,2.3014,3.4833,-8.9735
2375.0000,-0.1821,0.7435,-12.7436,0.1827,2.5161,-3.5340,-2.5509,1.0750,-11.8342,8.0843,-17.0195,-4.4357,-8.7252,5.4763,-13.0401,-4.9367,1.6108,-1.6849,-13.3512
2378.9062,-0.6638,-0.2473,-15.6086,-3.5103,2.4631,-5.3203,-2.3029,1.4951,-15.7328,4.9249,-20.9308,-9.1056,-11.5947,4.2350,-18.7736,-7.1480,-0.2929,-6.4772,-17.6417
2382.8125,-2.0698,-2.2017,-16.4034,-4.4748,2.1552,-5.6204,-3.2852,4.6415,-17.6532,-0.2423,-24.0436,-10.4965,-11.2872,3.8859,-22.3849,-9.1925,-2.4356,-8.2416,-19.3009
2386.7188,-3.7149,-4.5222,-13.7799,-2.5397,1.9918,-4.5157,-3.6116,9.3610,-17.1120,-4.8231,-23.8219,-9.9823,-8.1474,5.0938,-20.7232,-10.9028,-3.6616,-6.1204,-16.9620
2390.6250,-4.7008,-6.1537,-8.2071,0.7221,3.0416,-3.0425,-2.6017,12.9424,-14.3409,-6.7879,-19.5189,-9.6878,-3.5993,7.3433,-13.8485,-12.0844,-3.0365,-1.4441,-11.4674
2394.5312,-4.2582,-6.5427,-1.7232,3.1037,5.9988,-2.5276,-0.9945,12.9439,-9.9793,-5.6188,-12.6046,-10.6901,0.8268,9.2580,-4.8962,-12.6400,-0.2791,3.3615,-5.3519
2398.4375,-2.1424,-6.0730,3.3034,3.2696,10.1435,-3.8188,0.0254,8.9708,-4.7858,-2.2454,-5.6312,-12.2807,4.2157,9.5335,2.2964,-12.6784,3.9777,6.4599,-1.1699
2402.3438,1.1516,-5.6562,5.4870,1.5722,13.3809,-6.8513,0.0306,3.0860,0.4733,1.7685,-0.5047,-12.7783,6.3831,7.8093,5.8714,-12.4278,8.3419,7.6011,0.0912
2406.2500,4.5574,-5.9080,4.9296,-0.3877,13.5840,-10.7002,-0.2467,-1.5028,5.0290,5.0748,2.4970,-11.1084,7.5542,4.8683,6.8612,-11.9700,11.2920,7.7835,-0.6145
2410.1562,6.9608,-6.6534,2.7442,-1.0684,10.2961,-13.9798,0.4031,-2.5691,8.1980,6.8948,4.3365,-7.7976,8.0252,2.0496,7.7620,-11.0538,12.0011,8.0436,-1.3911
2414.0625,7.7919,-7.1542,0.1637,-0.1381,5.3882,-15.3677,2.5265,-0.3015,9.6297,6.9007,5.9843,-4.5823,8.0706,0.3224,10.1075,-9.2599,10.8406,8.4900,-0.9072
2417.9688,7.2994,-6.7799,-2.0138,1.3871,1.9930,-14.1020,5.3817,2.9534,9.5653,5.0430,7.4895,-3.0133,8.0146,-0.3134,13.1259,-6.5017,9.1700,8.3846,0.7564
2421.8750,6.3163,-5.4805,-3.3625,2.0413,2.3999,-10.3507,7.3572,4.3921,8.8418,1.6336,8.1215,-3.2469,8.2168,-0.6983,14.5677,-3.4670,8.4751,7.0902,2.4679
2425.7812,5.6803,-3.6628,-3.4997,1.0594,6.4800,-5.3105,7.1232,2.6334,8.5124,-2.4465,7.3460,-4.0088,8.8705,-1.7979,12.9257,-1.4989,9.4087,4.9213,3.1738
2429.6875,5.7272,-1.6716,-2.0406,-1.1521,11.8423,-0.8573,4.6484,-1.5483,9.2504,-5.8370,5.6571,-3.7118,9.7899,-3.9567,9.0819,-1.7698,11.3989,3.0387,2.8016
2433.5938,6.2149,0.5462,1.0097,-3.5392,15.5788,1.2685,1.3358,-6.0403,10.9276,-7.3111,4.4456,-1.7611,10.4587,-6.6736,5.9039,-4.2238,13.1139,2.4155,2.2298
2437.5000,6.6932,3.2178,4.8540,-5.3912,16.2209,0.4168,-0.7982,-9.0145,12.6858,-6.5970,4.9654,1.0206,10.4009,-9.0389,6.0542,-7.1365,13.4428,2.7985,2.4539
2441.4062,6.9777,6.1677,8.0795,-6.9079,14.4266,-2.4712,-0.3067,-10.1002,13.4877,-4.7406,7.2911,3.1358,9.6021,-10.4740,9.8070,-7.8703,12.2676,2.6709,3.7320
2445.3125,7.3083,8.5103,9.5210,-8.8594,12.0096,-5.2829,2.9316,-10.3200,12.7732,-3.5603,10.1956,3.6353,8.5899,-11.1919,14.7179,-4.5616,10.4680,0.3971,5.4416
2449.2188,8.0494,9.0502,9.2053,-11.6725,10.2825,-5.9752,7.8025,-11.0135,10.7661,-4.4457,12.0998,2.7877,8.0355,-12.0177,17.4878,2.3486,9.2006,-4.3307,6.7095
2453.1250,9.1964,7.1875,8.5096,-14.7920,9.1708,-3.8928,12.7064,-12.7074,8.2332,-7.3548,12.3151,1.7008,8.1676,-13.6988,16.5546,9.9345,9.0508,-9.9725,7.1981
2457.0312,10.1504,3.5877,9.1964,-16.9341,7.7759,-0.2343,16.4033,-14.8053,5.9090,-10.8086,11.5365,1.3171,8.5097,-16.2281,13.3160,14.3263,9.7194,-14.0848,7.3319
2460.9375,10.0228,-0.0376,11.9465,-17.0622,5.7325,2.7482,18.4461,-16.2102,4.0383,-12.9557,11.1729,1.7040,8.2201,-18.7046,10.9733,13.0985,10.4291,-15.0585,7.7849
2464.8438,8.2824,-1.9988,15.5744,-15.2656,3.9838,3.3123,19.0826,-16.2369,2.3638,-12.9204,12.0877,2.2248,6.8014,-19.8610,11.9115,6.8948,10.6201,-13.2778,8.7369
2468.7500,5.2348,-1.7706,17.7136,-12.7593,4.1261,1.4384,18.8642,-15.0272,0.5067,-11.3923,13.8267,2.3462,4.5737,-18.9022,15.7250,-0.9106,10.2804,-10.7493,9.6174
2472.6562,1.9008,-0.2984,16.6140,-10.9627,6.7949,-1.2124,18.2972,-13.2174,-1.6259,-9.9931,14.9927,2.2649,2.4476,-16.0674,19.4892,-6.3663,9.6143,-9.4810,9.6105
2476.5625,-0.6745,0.8164,12.7067,-10.4084,10.5192,-2.5656,17.6947,-11.2914,-3.7692,-9.9371,14.4467,2.7278,1.1068,-12.5350,20.0717,-7.4313,8.4016,-9.9245,8.4782
2480.4688,-2.1826,0.6451,8.6155,-10.4083,12.2050,-1.6527,17.1691,-9.2900,-5.6086,-11.0711,12.3117,4.2009,0.2580,-9.7519,16.6399,-5.0374,5.7486,-10.7598,6.9282
2484.3750,-3.2773,-0.2769,7.4230,-9.7776,9.0972,0.7930,16.6326,-7.1294,-7.1617,-12.0727,9.9194,6.1879,-1.3552,-8.6520,11.3678,-2.0014,0.6517,-10.1932,6.1191
2488.2812,-5.0488,-0.3456,10.3879,-8.0054,0.8117,3.1014,15.7872,-5.1352,-8.8482,-11.6258,8.7393,7.4230,-5.0475,-9.2533,7.7979,-0.6661,-6.9331,-7.6707,6.6627
2492.1875,-8.1071,1.8076,15.8460,-5.8412,-10.1266,4.1369,14.2201,-4.1323,-11.1321,-9.5841,9.1957,6.8872,-11.0094,-10.8113,8.1741,-1.0977,-15.3885,-4.5365,7.9910
2496.0938,-11.9676,6.1061,20.2183,-4.7315,-19.6971,4.2543,11.6899,-4.8263,-14.0115,-7.1399,10.3653,4.8142,-17.7762,-12.3171,11.8489,-1.2099,-21.8548,-3.0267,8.7110
2500.0000,-15.2247,10.8569,20.4657,-5.5252,-24.7355,4.9493,8.4940,-6.9431,-16.8055,-5.8447,10.7998,2.7557,-22.8668,-12.9676,15.9585,1.3450,-23.7316,-4.3852,7.7509
2503.9062,-16.4219,13.7782,16.1983,-7.5517,-24.5587,7.4970,5.6094,-8.9766,-18.4790,-6.2867,9.7565,2.5157,-24.2469,-12.3692,17.7269,7.0705,-20.3381,-7.6686,5.3690
2507.8125,-14.9996,13.4900,9.8705,-8.9455,-20.8470,11.7167,4.3452,-9.0184,-18.3124,-7.5304,7.7810,4.7299,-21.6228,-10.5115,16.4947,14.0148,-13.5473,-10.2915,3.1132
2511.7188,-11.6470,10.4110,4.9246,-8.0792,-16.1303,15.9131,5.5669,-6.2291,-16.4187,-7.7994,6.1489,8.2431,-16.6492,-7.6900,13.8749,19.1421,-6.8325,-9.9582,2.6276
2515.6250,-7.8320,6.4672,3.2911,-4.9995,-12.1749,18.0865,8.9508,-1.8213,-13.7008,-5.8706,5.6588,10.8580,-11.8947,-4.4747,12.0269,20.5604,-3.2641,-6.4665,4.1823
2519.5312,-4.8814,3.8731,4.1105,-1.6414,-9.3989,17.4656,12.8569,1.3987,-11.2587,-2.0658,5.8401,10.9412,-9.2850,-1.6372,11.5857,18.7871,-3.7569,-1.9206,6.1397
2523.4375,-3.2776,3.8459,4.5753,-0.5080,-7.4226,15.1483,15.0831,0.8511,-9.6799,1.9405,5.2933,8.6579,-9.0836,0.1030,11.0309,16.0399,-6.7148,0.8621,5.9264
2527.3438,-2.6220,6.0622,2.1734,-2.7391,-5.9430,13.3357,14.1419,-3.8409,-8.7311,4.3281,2.9155,5.8666,-10.0315,0.4756,8.0445,14.1898,-9.2590,0.5210,1.9102
2531.2500,-2.1817,9.0818,-3.3988,-7.0654,-5.0600,13.7448,10.2293,-10.2300,-7.6542,4.4020,-1.0125,4.7463,-10.4281,-0.0730,1.7264,13.1467,-9.1445,-1.8050,-5.1971
2535.1562,-1.5235,11.3319,-10.0443,-10.5489,-4.9151,16.3835,5.1493,-14.4297,-5.8128,2.9806,-4.8216,6.2148,-9.3208,-0.5552,-6.2071,11.0975,-6.0698,-3.3852,-12.5392
2539.0625,-0.7463,11.9784,-14.8159,-10.6501,-5.2463,19.5450,1.1318,-13.6843,-3.1930,1.7067,-6.5996,9.3365,-7.0114,-0.0821,-12.3183,6.4390,-1.6006,-2.0431,-16.8881
2542.9688,-0.2151,11.2136,-15.9427,-7.1102,-5.4942,20.9259,-0.6904,-8.3381,-0.4133,1.9155,-5.6063,12.1107,-4.6734,1.4281,-13.8286,-0.2510,2.0564,2.1342,-16.7752
2546.8750,-0.1131,9.9151,-13.8316,-2.2082,-5.4177,19.0056,-1.0442,-1.7290,1.7050,3.9323,-2.8397,12.9459,-3.5002,3.0492,-10.6627,-6.0117,3.4528,6.8309,-13.4528
2550.7812,-0.2404,8.9732,-10.4580,0.8439,-5.5169,13.7819,-1.8880,2.0222,2.6491,7.1851,-0.3097,11.6417,-4.0200,3.4301,-5.5669,-7.4722,2.5315,9.2164,-9.9784
2554.6875,-0.2160,8.6917,-7.8099,0.2025,-6.6310,6.5771,-4.7800,0.8195,2.4513,10.7994,0.4018,9.1774,-5.9360,1.8350,-2.1920,-3.5664,0.2510,7.9842,-9.0779
2558.5938,0.1409,8.5700,-6.6503,-3.3122,-8.9013,-0.7118,-9.4437,-3.9898,1.5697,14.0403,-0.8203,6.6202,-8.4053,-1.1355,-2.5767,3.2030,-2.2825,4.1799,-11.3127
2562.5000,0.6360,7.5789,-6.4157,-6.8753,-11.0747,-6.3485,-13.6823,-8.6055,0.6020,16.3056,-2.7371,4.1561,-10.4342,-3.7747,-5.8829,8.1304,-4.4200,0.2834,-14.8331
2566.4062,0.9171,4.8159,-6.0673,-7.7508,-11.0459,-9.2124,-14.8291,-9.4597,0.0761,16.9514,-3.8286,1.0710,-11.1709,-4.3954,-9.2309,7.4437,-5.9483,-1.6330,-16.8224
2570.3125,0.8989,0.2070,-5.0214,-5.2438,-7.4941,-9.0644,-11.7283,-5.6748,0.3867,15.4462,-3.4110,-3.3572,-10.1042,-2.5572,-9.8963,0.9083,-6.6904,-1.2226,-15.5346
2574.2188,0.9928,-5.1822,-3.4210,-1.0815,-1.3355,-6.7253,-5.7342,0.4412,1.7605,11.9537,-1.9409,-8.8845,-7.2538,0.5672,-7.1888,-8.0699,-6.2762,0.2517,-11.4616
2578.1250,1.8870,-9.5363,-1.7298,1.9876,4.4313,-3.9936,0.1244,5.1443,4.1311,7.8228,-0.3963,-14.1381,-3.3019,3.0425,-2.7105,-14.9154,-4.3823,1.1870,-6.8743
2582.0312,4.0001,-11.2847,-0.2285,2.2558,6.7319,-2.9861,3.2866,5.9092,6.9874,5.2791,0.6157,-17.4495,0.5437,3.6407,1.0047,-17.0391,-1.2176,0.9243,-4.1793
2585.9375,7.0360,-10.1399,1.0561,0.2153,4.8932,-4.9359,3.5131,3.0530,9.4140,6.1668,1.2263,-18.0207,3.0752,2.7895,2.2964,-15.3134,2.2772,0.0384,-4.3267
2589.8438,10.0235,-7.4341,2.0171,-1.9999,1.5338,-9.1089,2.9869,-0.7752,10.4672,10.4952,1.9072,-16.4736,3.7902,2.1995,1.2901,-12.8772,4.8442,-0.4564,-6.3544
2593.7500,11.8605,-5.3692,2.2465,-2.3767,0.8458,-12.7922,4.4943,-2.7368,9.7426,15.9741,2.7873,-14.3485,3.2771,3.3968,-0.5798,-12.3951,5.7157,-0.1777,-8.2537
2597.6562,11.9877,-5.5458,1.3405,-0.6032,5.3166,-12.7730,9.0393,-1.9134,7.7364,19.1717,3.4018,-12.9709,2.8773,6.2910,-1.8342,-14.0372,5.1857,0.2297,-8.4054
2601.5625,10.7128,-7.7551,-0.4458,1.7123,13.3958,-7.5882,14.7693,0.1561,5.6588,17.7035,3.1539,-12.5879,3.7277,8.9552,-1.9301,-15.7296,4.4283,-0.3351,-6.5428
2605.4688,8.9664,-9.9770,-1.8739,2.2823,20.1404,1.0289,18.1512,0.8034,4.7364,11.9304,2.0611,-12.4047,5.8443,8.8902,-1.3041,-15.2804,4.6245,-2.4394,-3.6691
2609.3750,7.6967,-9.7295,-1.2663,-0.1490,20.6527,8.8032,16.6020,-1.6784,5.4636,4.8322,1.0418,-11.3942,8.0022,4.8729,-0.6786,-12.4462,6.0492,-5.5781,-1.1600
2613.2812,7.3490,-5.9000,2.2874,-4.8993,13.8492,11.5507,10.5849,-6.7729,7.3545,0.0203,1.3784,-9.1555,8.6336,-2.0159,-0.3605,-9.1364,7.8579,-8.5109,0.2056
2617.1875,7.7681,0.2677,7.9775,-9.8463,3.6205,8.0897,3.5126,-12.1788,9.3923,-0.7204,3.7332,-6.1511,7.1413,-9.0058,-0.1021,-7.6145,8.7979,-10.1502,0.6335
2621.0938,8.5083,5.8270,13.4818,-12.8738,-3.7000,1.2800,-0.5498,-15.4970,10.8169,1.4523,7.5442,-3.2417,4.5942,-13.4641,0.5064,-8.3241,8.3262,-10.2523,0.9928
2625.0000,9.2342,8.0326,16.4014,-13.1721,-3.8016,-3.7600,0.3186,-15.8269,11.6148,3.4887,11.3574,-1.0305,3.1404,-14.5809,1.6041,-9.3214,7.2320,-9.4101,2.1476
2628.9062,9.8839,6.1505,15.9615,-11.5228,2.5461,-3.1489,4.7142,-14.1176,12.3101,2.8326,13.8683,0.3930,4.4468,-13.6772,3.0057,-7.9246,7.1861,-8.4722,4.4353
2632.8125,10.5215,1.8667,13.6623,-9.5155,10.2027,3.0235,9.2216,-12.1558,13.2562,-0.7116,14.8302,1.1766,8.3015,-12.9775,4.4968,-3.2331,9.4465,-7.9566,7.5476
2636.7188,11.0834,-1.9752,12.2687,-8.3997,13.6118,10.7446,11.1550,-11.1156,14.0763,-5.0396,15.0764,1.2935,12.5056,-13.8643,6.0876,2.6867,13.6509,-7.9188,10.7455
2640.6250,11.2959,-3.3306,13.7967,-8.4200,10.9519,14.9106,10.5586,-10.8398,13.8049,-7.5891,15.6528,0.5033,14.2613,-15.9708,7.9169,6.1322,17.6546,-8.2403,13.1906
2644.5312,10.8490,-2.1422,17.9819,-8.9935,5.2629,12.8774,9.9022,-10.3374,11.6844,-7.4046,16.8214,-1.2246,12.1048,-17.7319,9.9001,4.6921,18.6704,-8.9138,14.2403
2648.4375,9.6514,0.0458,22.4134,-9.4158,1.7083,6.1457,11.7656,-8.9660,7.9611,-5.7455,17.8141,-3.2581,6.9516,-17.8252,11.5291,-0.5919,15.0191,-9.9744,13.6726
2652.3438,7.9063,1.5942,24.2686,-9.4554,3.1906,-0.9655,16.4209,-7.2380,3.9446,-4.8131,17.5631,-4.3791,1.4374,-16.2580,12.1067,-5.7187,7.3065,-11.1661,11.8232
2656.2500,5.9113,2.0986,22.3547,-9.4058,7.8573,-4.5197,21.3072,-6.5411,1.1555,-5.7497,15.7654,-3.5051,-1.9837,-14.2324,11.2648,-6.6791,-1.8150,-11.7795,9.5444
2660.1562,3.7596,2.4766,17.9225,-9.6631,10.5269,-3.5655,22.8739,-7.9827,0.1625,-7.6482,13.3133,-0.5447,-2.7627,-12.9881,9.2848,-2.6217,-9.1824,-10.9928,7.8874
2664.0625,1.2374,3.8383,13.6607,-10.2658,6.9261,-0.2717,19.3653,-11.2999,0.0436,-8.4146,11.6469,3.3562,-2.5044,-12.6797,6.8812,3.3137,-12.9390,-8.5600,7.5625
2667.9688,-1.9370,6.1900,11.6729,-10.7993,-2.6504,2.2603,12.3507,-14.7521,-1.0182,-6.7247,11.5284,6.4901,-3.5760,-12.2815,4.6141,6.2959,-13.4260,-5.2779,8.4684
2671.8750,-5.6992,8.1363,11.9916,-10.7238,-13.2354,2.5817,5.7810,-16.1635,-4.3815,-3.3602,12.2955,7.7363,-7.1740,-10.6037,2.4953,3.5625,-12.6007,-2.7388,9.6550
2675.7812,-9.4174,7.8802,12.7340,-9.8370,-18.8132,1.8060,3.2757,-14.3938,-9.8459,-0.7256,12.3012,7.2824,-12.3521,-7.5356,0.2188,-3.2596,-12.4702,-2.4249,9.8589
2679.6875,-12.1200,4.7181,11.7143,-8.5010,-16.8819,2.2751,5.6829,-10.1781,-15.6665,-0.9033,10.2580,6.3214,-16.7449,-4.4205,-2.1513,-9.1482,-13.6967,-4.7664,8.3331
2683.5938,-13.0808,-0.1968,8.2323,-7.4662,-10.3855,5.2796,10.6796,-5.7205,-19.6966,-3.8768,6.3982,5.9557,-18.3869,-3.1882,-3.7331,-9.3412,-15.3530,-8.8603,5.4012
2687.5000,-12.3458,-4.4551,3.6698,-7.4206,-5.4912,9.8178,14.5627,-3.3137,-20.7958,-7.4470,2.4417,6.2283,-17.1815,-4.9037,-3.2323,-2.9313,-15.9197,-13.0477,2.2915
2691.4062,-10.7757,-5.9102,0.4806,-8.5631,-6.9224,13.3945,14.7549,-3.9259,-19.4418,-8.9529,0.3118,6.1257,-14.8823,-8.8826,-0.0845,6.3203,-14.6818,-15.8825,0.3017
2695.3125,-9.5125,-3.9848,0.3666,-10.4531,-14.4502,14.0936,11.1721,-6.6878,-17.1352,-7.3801,0.5877,4.5904,-13.6403,-13.0663,4.5606,12.5925,-12.4018,-16.7643,-0.1383
2699.2188,-9.2244,0.1227,2.9918,-12.2038,-23.1984,12.1184,5.6659,-9.5648,-15.1528,-4.0960,1.9505,1.6948,-14.3014,-15.3525,8.0117,12.1135,-10.7203,-15.8624,0.1845
2703.1250,-9.6777,4.3302,6.1194,-12.9045,-27.4263,9.5073,0.3021,-10.7031,-13.6964,-1.6072,2.1204,-1.0857,-15.8022,-14.8544,7.5566,5.7506,-10.7481,-13.5974,-0.2068
2707.0312,-9.9704,6.8910,7.0076,-12.0624,-24.7798,8.3139,-4.0063,-9.5365,-12.1001,-1.4106,-0.4161,-1.8568,-16.1088,-12.1937,2.3891,-1.7615,-11.9824,-10.2888,-2.4343
2710.9375,-9.2694,7.1078,4.0671,-9.8549,-17.7396,8.8203,-7.5468,-6.9754,-9.8287,-2.7834,-5.2386,0.1529,-13.9125,-8.7473,-5.5243,-5.2931,-12.4799,-6.3140,-6.4506
2714.8438,-7.5056,5.2915,-2.2705,-7.0621,-11.2920,9.2844,-10.8245,-4.6434,-7.3120,-3.5452,-10.3000,3.7467,-9.7203,-5.5717,-12.4724,-2.9005,-10.2718,-2.5151,-11.0362
2718.7500,-5.4910,2.3271,-9.8886,-4.6802,-8.8325,7.4124,-13.6624,-3.7411,-5.8093,-2.1161,-13.4477,6.4011,-5.4956,-2.8623,-15.3593,3.0326,-5.0104,-0.2345,-14.5864
2722.6562,-4.3464,-0.6771,-16.1582,-3.3857,-9.6196,2.3288,-15.2424,-4.2911,-6.3567,0.9516,-13.9422,6.0346,-3.1698,-0.2352,-13.7398,7.7542,1.4357,-0.6452,-16.0961
2726.5625,-4.6524,-2.5625,-19.1954,-3.1403,-9.7411,-4.5371,-14.9350,-5.2109,-8.6989,3.3592,-12.7944,2.6067,-3.2164,2.6042,-10.0088,7.6238,6.0132,-3.7536,-15.6448
2730.4688,-5.9611,-2.3928,-18.5877,-3.2068,-5.6808,-10.2986,-13.0093,-5.0959,-11.1944,3.0928,-11.7328,-1.7012,-4.3819,5.4897,-7.5587,2.5796,6.5200,-7.9466,-14.1088
2734.3750,-7.0610,-0.0081,-15.3880,-2.6196,2.4965,-12.4606,-10.4735,-3.1620,-11.9090,0.3451,-11.7249,-3.9364,-4.7145,8.0122,-8.2660,-4.0221,3.2137,-10.6946,-12.4122
2738.2812,-6.8314,3.4438,-11.5147,-0.8455,10.9633,-10.3536,-8.1956,0.2636,-10.0971,-2.4174,-12.2922,-2.4401,-3.0284,10.0068,-11.1964,-7.8546,-1.2162,-10.1222,-10.9255
2742.1875,-5.0770,5.6424,-8.8465,1.8186,15.1082,-5.2294,-6.1899,3.9907,-6.8722,-2.4416,-12.1382,1.9658,0.3316,11.7427,-13.4853,-6.4972,-3.3861,-6.3485,-9.4160
2746.0938,-2.7217,4.2226,-8.3420,4.4302,13.2732,0.7747,-3.8129,6.7572,-4.4536,0.8796,-10.4747,6.5132,3.9282,13.5828,-12.6640,-0.8213,-1.4962,-1.5053,-7.4700
2750.0000,-1.1890,-1.6098,-9.5364,6.0781,8.2251,5.8170,-0.7103,8.0251,-4.4994,5.2369,-7.8521,8.3178,6.3997,15.4468,-8.5933,5.7995,3.4518,1.7188,-4.9567
2753.9062,-1.3787,-10.1298,-10.7309,6.5620,5.1320,8.8544,2.4414,8.2505,-6.7922,7.1039,-5.7517,6.1740,7.3733,16.6579,-3.5094,9.6515,8.3717,1.9917,-2.1566
2757.8125,-2.9540,-17.7398,-9.9280,6.5252,7.5810,9.4463,4.2504,8.4531,-9.3057,4.6415,-5.2862,1.0972,7.4600,16.4121,-0.2113,8.7138,10.2455,0.2508,0.4650
2761.7188,-4.4539,-21.0305,-6.1116,6.8851,14.7264,7.4598,3.8507,9.3857,-9.6207,-0.5688,-6.1442,-4.6012,7.4892,14.5029,0.1170,3.4494,8.1873,-1.1297,2.5563
2765.6250,-4.1841,-18.9205,-0.0969,7.9803,21.7937,3.1664,1.9669,10.9027,-6.6238,-4.4948,-6.7242,-8.8673,7.7534,11.6360,-1.2927,-3.7794,3.9748,-0.2991,3.9685
2769.5312,-1.3111,-13.3131,5.7290,9.1471,23.5877,-2.4154,0.6896,12.0108,-1.2254,-3.6914,-5.3953,-10.9216,7.9265,8.9915,-1.9496,-10.0433,0.7211,2.5195,4.6383
2773.4375,3.5544,-7.7287,8.7993,9.1622,18.3659,-7.5325,1.9117,11.6189,4.3740,1.9607,-1.8599,-11.1660,7.6526,7.3665,-0.2128,-13.1393,0.6936,5.1485,4.5040
2777.3438,8.6582,-4.8947,8.0696,7.2911,9.1920,-10.4168,5.6388,9.4733,8.2218,9.0220,2.5137,-10.3467,7.1714,6.6426,3.3803,-12.3748,3.8500,5.1863,3.6463
2781.2500,12.0828,-5.0890,4.8375,4.1170,1.8114,-10.3407,9.6804,6.5578,9.7549,13.0030,5.6706,-8.8394,7.3231,6.0592,6.5996,-8.7233,8.0711,1.9882,2.5464
2785.1562,12.7847,-6.4318,1.9849,1.3807,0.6747,-8.1473,11.1833,4.5594,9.7601,11.6509,6.3589,-6.6419,8.8581,5.0429,7.3388,-4.3923,10.8019,-2.7007,2.1155
2789.0625,11.0652,-6.7642,2.0578,0.7860,6.0220,-5.6992,8.8919,4.6612,9.3728,6.4229,4.9307,-3.9109,11.6444,3.8066,5.2249,-1.8949,10.8220,-6.0067,3.2687
2792.9688,8.2444,-5.4964,5.5158,2.5903,14.0313,-4.5837,4.2741,6.4845,9.0675,1.0260,2.8624,-1.3657,14.5156,3.1070,1.7361,-2.8752,8.8830,-6.1174,6.2325
2796.8750,5.8082,-3.9040,10.4452,5.0978,19.7131,-5.0959,0.4629,8.0092,8.4816,-1.7213,1.4854,-0.0425,15.9894,3.3305,-1.1532,-7.1935,6.8816,-3.6765,10.1361
2800.7812,4.5860,-3.7161,13.9835,5.5994,20.2976,-6.3297,-0.2395,6.6853,7.1054,-2.1169,1.0459,-0.5426,15.3348,3.7649,-2.5510,-12.8605,6.3448,-1.2774,13.3500
2804.6875,4.4319,-5.3166,14.4014,2.2145,16.7033,-7.2427,1.7249,1.0977,5.0993,-3.0899,0.8562,-2.4522,13.1298,2.8569,-3.0905,-17.0492,7.4223,-1.4578,14.4845
2808.5938,4.5257,-7.2054,12.2572,-4.6688,12.2788,-7.6791,3.4931,-7.9260,3.4189,-7.4626,0.2980,-4.5284,10.8306,-0.5818,-3.9319,-17.7142,9.0642,-4.7780,13.3696
2812.5000,4.0271,-7.2535,9.7472,-12.4664,10.0504,-8.3631,2.1922,-17.5790,3.0975,-15.2721,-0.3295,-5.5904,9.6698,-6.1722,-5.3120,-14.8101,10.0739,-9.4756,11.2265
2816.4062,2.6513,-4.6777,8.7978,-18.0178,10.6470,-9.8464,-2.4784,-24.6177,4.3223,-23.3949,0.0414,-5.4070,9.7544,-11.8702,-6.0229,-10.2324,10.0788,-12.9151,9.8015
2820.3125,0.8340,-0.9664,9.4714,-19.6225,12.3191,-11.4494,-7.6534,-27.1955,6.1596,-27.8050,2.1944,-4.8155,10.0790,-15.2420,-4.3681,-6.4513,9.6386,-13.6192,10.0583
2824.2188,-0.5675,1.1644,10.0195,-18.0169,12.7399,-11.3726,-9.2927,-25.7744,7.2220,-26.6241,5.6466,-4.9243,9.4249,-15.2083,0.1965,-4.7984,9.4987,-12.2532,11.4533
2828.1250,-0.8273,0.0099,8.5721,-15.5834,10.9726,-8.1420,-5.2484,-22.5363,6.7321,-21.4973,8.7198,-6.0377,7.3966,-12.8460,6.1895,-4.6981,9.7151,-10.8278,12.4236
2832.0312,0.1697,-3.5626,5.0701,-14.4200,8.0469,-2.2373,3.0231,-19.7607,5.0640,-16.2251,9.7423,-7.2216,4.7410,-10.5130,10.8532,-4.4562,9.4370,-10.8573,11.7646
2835.9375,1.7828,-6.6176,1.7592,-14.7577,5.8371,3.6530,11.4679,-18.3469,3.2774,-13.8302,8.4117,-6.9381,2.6942,-9.9231,12.0131,-2.9879,7.5409,-12.0343,9.7988
2839.8438,2.8855,-6.4074,1.6754,-14.9366,5.3124,6.3038,16.3412,-17.4983,2.0445,-14.4547,6.1065,-4.2955,1.9087,-10.7274,9.5755,-1.0376,3.5791,-12.5124,8.3211
2843.7500,2.4180,-2.5745,6.1963,-12.9266,5.6530,4.4382,16.6905,-15.6997,0.9271,-15.7104,4.7735,0.0842,1.8611,-10.8213,5.4635,-0.7573,-1.7398,-10.5353,9.2416
2847.6562,-0.0474,2.5206,13.6001,-8.1702,4.9399,0.0126,14.5054,-12.1628,-1.3031,-15.0281,5.2577,4.3196,1.2473,-8.2071,2.0788,-3.8104,-6.9113,-6.0418,12.9329
2851.5625,-4.0230,5.6467,19.9025,-2.2733,1.8243,-2.9453,12.5989,-7.6092,-5.5062,-11.9332,6.5116,6.5121,-0.9428,-2.9098,0.5803,-9.4689,-10.5272,-0.9107,17.6242
2855.4688,-8.2786,5.2405,21.5121,2.0240,-3.1933,-1.2627,12.1393,-3.8134,-11.1434,-8.3507,6.4581,6.0536,-4.5409,2.6832,0.3687,-14.3861,-12.0102,2.3561,20.4466
2859.3750,-11.4182,2.5804,17.7878,2.8082,-7.9180,4.9091,11.9401,-2.2968,-16.3075,-6.7948,3.8855,4.0111,-8.2349,5.4511,0.0942,-14.5647,-11.7069,2.4448,19.4448
2863.2812,-12.5766,0.6768,11.5655,0.3693,-9.9686,12.0967,10.0073,-3.1991,-18.9041,-8.1050,-0.2120,2.3094,-10.5111,3.9021,-0.8214,-8.2989,-10.4217,0.0955,15.0521
2867.1875,-11.8477,1.8343,7.1943,-3.0620,-8.5255,16.0901,5.8388,-5.1920,-18.1128,-10.7168,-3.1017,2.3569,-10.7675,-0.6328,-1.5626,2.0940,-8.8771,-2.6153,9.8527
2871.0938,-10.1718,5.8992,7.4745,-4.9929,-5.0303,15.1252,1.3153,-6.4817,-14.9768,-12.0601,-2.3916,4.1533,-9.7231,-4.9878,-0.7782,11.2710,-7.5120,-3.9207,6.7373
2875.0000,-8.7207,10.5641,11.7091,-4.4539,-2.3279,11.1246,-0.7276,-6.1243,-11.6341,-10.8099,1.8657,6.4942,-8.8138,-6.5863,1.8652,14.1873,-6.6038,-3.5840,6.7966
2878.9062,-8.1463,13.3571,16.2446,-2.5377,-2.8504,7.9912,0.9326,-4.6652,-9.7794,-7.9870,6.7994,8.0033,-9.0632,-5.3654,4.8881,9.5386,-6.3713,-2.7708,8.5337
2882.8125,-8.1826,13.5650,17.0467,-1.3443,-7.0771,8.3502,4.4730,-3.6411,-9.5574,-5.9445,8.5419,8.1109,-10.3207,-3.6426,5.7990,0.8343,-6.8093,-2.8089,8.9898
2886.7188,-7.8914,12.5034,12.4203,-2.2233,-13.2613,11.4406,6.1367,-4.3330,-9.7327,-6.1543,4.9695,7.2267,-11.4516,-4.0354,2.9344,-5.8352,-7.4099,-3.9733,5.9352
2890.6250,-6.4085,12.0348,3.9877,-4.7012,-18.5210,13.9280,3.1571,-6.6827,-8.9442,-7.7768,-2.7187,6.0861,-11.3087,-7.1416,-3.1748,-5.9221,-7.2086,-5.3320,-0.5129
2894.5312,-3.6785,12.7558,-4.5991,-6.8832,-20.5227,12.9780,-3.8367,-9.1369,-6.9797,-8.3215,-10.8195,4.9439,-9.7095,-10.9031,-10.0850,0.4050,-5.3954,-5.7124,-8.0103
2898.4375,-0.6271,13.4953,-10.1087,-6.9354,-18.6992,8.9867,-10.9461,-9.5171,-5.0086,-5.8598,-15.7383,3.3747,-7.6613,-12.2034,-15.1783,8.3115,-2.1688,-4.8713,-13.6712
2902.3438,1.4076,12.5430,-11.5593,-4.4481,-14.3520,5.5740,-13.6738,-6.3353,-4.5838,-0.8470,-16.3976,0.8553,-6.6667,-9.4128,-17.4266,11.6104,0.9131,-3.7896,-15.9894
2906.2500,1.6230,9.4520,-10.3024,-0.6524,-9.7292,6.6833,-10.1098,0.2621,-6.2390,4.0988,-14.6319,-2.4241,-7.6421,-3.8031,-17.7349,7.0660,1.6323,-3.8119,-15.5833
2910.1562,0.3966,5.7363,-8.6145,2.5783,-6.7346,13.0946,-2.2041,8.4464,-8.8505,6.3544,-13.3655,-5.3178,-10.2442,1.3473,-17.6445,-3.3151,-1.3741,-5.3800,-14.3426
2914.0625,-0.8933,3.7565,-8.0344,4.0789,-6.0056,21.2729,5.7517,15.5276,-10.3229,5.5482,-14.1211,-6.3845,-13.0611,3.2608,-17.6154,-13.6085,-7.2999,-7.4925,-13.8002
2917.9688,-0.8154,4.7077,-8.6135,4.0529,-6.7617,25.6812,10.1244,19.1727,-9.0970,3.9110,-15.8770,-4.9970,-14.4832,1.7838,-16.4833,-17.9791,-13.1582,-8.4107,-14.0513
2921.8750,1.0399,7.4549,-9.3515,3.6512,-7.3561,22.8884,10.0830,18.4275,-5.3289,4.3050,-16.1393,-2.0044,-13.6199,-0.5594,-12.6550,-14.5705,-15.3575,-7.0552,-13.9773
2925.7812,3.6582,9.2738,-9.1791,3.9584,-6.1547,14.2749,7.4419,14.1087,-0.8385,7.5516,-13.2638,0.6535,-10.6767,-0.6005,-6.0198,-6.6035,-11.9703,-3.9187,-12.4157
2929.6875,5.2386,7.9389,-7.6309,5.2635,-2.3163,5.1598,4.7212,8.4232,2.1259,11.3959,-8.0613,1.1727,-6.6562,2.9858,1.1939,-0.0092,-4.1520,-0.7024,-9.2082
2933.5938,4.4962,3.4542,-4.8507,7.1159,3.8197,0.9516,3.2680,3.9721,2.3893,12.1644,-3.3413,-0.9411,-2.7102,8.6862,5.5925,0.6545,4.3702,1.0513,-5.2824
2937.5000,1.7254,-1.9707,-1.2207,8.9368,10.8460,3.2495,2.9169,2.5502,0.5525,7.9034,-1.7677,-4.6271,0.3908,13.3512,5.0776,-4.8719,9.5171,1.1978,-1.8226
2941.4062,-1.1789,-5.6173,2.8774,10.5264,16.8407,8.8474,3.0808,4.2957,-1.5224,0.4181,-3.7831,-8.1280,2.4168,14.5610,0.6429,-12.7243,9.3491,1.0575,0.6482
2945.3125,-1.8514,-6.1869,6.9834,12.0209,20.1623,12.3075,3.8558,7.6705,-1.9775,-5.6197,-7.2895,-10.2747,3.5389,12.2838,-4.0570,-17.8777,5.1740,2.2319,2.4653
