Time,Fp1,F3,C3,P3,O1,F7,T3,T5,Fz,Fp2,F4,C4,P4,O2,F8,T4,T6,Cz,Pz
0.0000,16.9820,-0.8506,0.9134,-3.2312,-6.5714,-5.1237,6.1590,-1.9913,-4.9278,13.8352,3.2773,-1.7207,-5.8357,1.3897,1.2194,-1.0049,-7.3358,-1.9021,1.8736
3.9062,18.3354,1.4287,2.3735,1.0355,0.2075,-1.9320,9.6116,1.9969,-1.8753,12.3832,2.2095,2.3099,-0.3773,4.8009,-0.1343,3.1833,-2.3331,1.1463,3.0546
7.8125,19.1949,3.6857,1.4106,3.3590,4.7666,0.1915,10.9877,3.6219,0.5672,10.7873,0.0078,5.5148,2.8087,5.9296,-2.3282,6.5686,0.3759,2.2981,1.7313
11.7188,19.1367,4.5797,-1.1761,3.1833,5.7555,0.3320,10.1070,2.6252,1.5809,9.7565,-1.8807,6.6239,2.9458,4.8027,-3.8815,7.7967,0.1270,1.3920,-1.2065
15.6250,18.2455,3.3492,-3.9586,1.2308,3.9908,-1.2094,7.3434,0.1116,0.9982,9.3699,-2.5716,5.7431,1.1122,2.6820,-4.0789,6.8845,-1.8114,-0.6589,-4.2049
19.5312,17.1672,0.4583,-5.9676,-1.0487,1.8330,-3.2513,3.1113,-2.2764,-0.5836,9.1372,-2.5039,4.2801,-0.5751,1.1372,-3.6610,5.1132,-3.1136,-2.4745,-6.2125
23.4375,16.7807,-2.5326,-7.2615,-2.3164,1.5340,-4.6940,-2.2796,-3.3117,-2.0906,8.6471,-3.0524,3.9327,-0.4250,1.0820,-4.2811,4.0359,-2.0116,-2.9504,-7.3132
27.3438,17.6703,-3.8761,-8.6131,-1.9652,3.7161,-5.3442,-8.3529,-2.6707,-2.5165,8.1931,-5.3079,5.4609,1.7591,2.3793,-7.1109,4.3654,1.4936,-1.7097,-8.4055
31.2500,19.7498,-2.7515,-10.6744,-0.2724,7.0249,-5.9405,-14.1850,-0.8260,-1.4353,8.7307,-9.0514,8.1395,4.7132,4.1233,-11.7094,5.5723,5.6726,0.8758,-10.2909
35.1562,22.3070,0.1800,-13.3424,1.8631,9.1423,-7.3417,-18.5455,1.3719,0.7884,11.1004,-12.7913,10.2891,6.7230,5.2510,-16.1023,6.4415,8.2941,3.9644,-12.9581
39.0625,24.4497,3.1784,-15.8109,3.3873,8.3805,-9.5265,-20.4685,3.0732,3.1927,15.1424,-14.8488,10.4843,6.8010,5.0469,-18.0763,6.0818,8.1230,6.6127,-15.6109
42.9688,25.6425,4.5215,-17.1868,3.5610,4.7331,-11.2500,-19.8218,3.6486,4.7045,19.5121,-14.5949,8.5503,5.1933,3.3444,-16.7245,4.5701,5.6307,8.1057,-17.3313
46.8750,25.9642,3.5462,-17.1202,2.2946,-0.2663,-10.7436,-17.3968,2.8446,4.6611,22.4696,-12.8292,5.6340,2.9696,0.5075,-13.0632,2.7578,2.4930,8.2084,-17.7659
50.7812,25.9298,0.9474,-15.9526,0.2276,-4.6298,-7.0492,-14.4363,0.9429,3.1163,23.0827,-11.0123,3.3417,1.1630,-2.6704,-9.2600,1.4762,0.3600,7.2867,-17.2692
54.6875,26.0488,-1.8145,-14.3434,-1.5307,-7.0771,-1.0399,-11.9814,-1.1978,0.8056,21.8779,-10.0288,2.6106,0.1841,-5.1435,-7.0799,0.8484,-0.1454,6.2000,-16.4521
58.5938,26.4771,-3.5197,-12.7530,-1.9568,-7.4905,4.6933,-10.5171,-2.4250,-1.1841,20.3733,-9.5289,3.1349,-0.1040,-5.9543,-6.7348,0.2759,0.4786,5.9165,-15.5918
62.5000,27.0149,-3.8938,-11.2176,-0.7073,-6.5197,7.1618,-10.0649,-1.8998,-1.8688,19.8415,-8.3853,3.7070,0.1191,-4.7069,-6.9647,-0.9371,1.3350,6.9854,-14.4356
66.4062,27.4039,-3.5774,-9.5319,1.6265,-4.8378,4.7402,-10.4451,0.3142,-0.7499,20.3072,-5.8446,3.1464,1.0009,-1.9091,-6.2038,-2.9026,1.9707,9.1706,-12.5434
70.3125,27.6317,-3.4904,-7.5965,3.8521,-2.6950,-1.7547,-11.3420,3.1649,2.0202,20.6138,-2.3639,1.1048,2.8788,1.1592,-3.8718,-5.0113,2.6466,11.5332,-9.8249
74.2188,27.9645,-4.1287,-5.5863,4.9574,-0.0265,-9.3964,-12.1330,5.2303,5.7323,19.5026,0.5968,-1.7952,5.7885,3.1324,-0.8030,-6.4429,3.9127,12.9799,-6.7746
78.1250,28.6787,-5.2972,-3.8166,4.8306,3.1525,-14.7314,-11.8307,5.6914,9.4223,16.7915,1.6701,-4.4818,9.1369,3.4280,1.4502,-6.8576,5.9669,12.9453,-4.1891
82.0312,29.7389,-6.3903,-2.4767,4.3744,6.5332,-15.6615,-9.4906,4.9525,12.2501,13.6369,0.6638,-6.1470,11.9243,2.6694,1.8268,-6.6495,8.4101,11.7396,-2.6125
85.9375,30.7250,-6.9116,-1.4952,4.8637,9.6822,-12.4895,-4.9775,4.3797,13.7994,11.6306,-1.2532,-6.6289,13.4003,2.2610,0.5348,-6.5451,10.5935,10.3030,-1.9778
89.8438,31.0993,-6.8026,-0.6413,6.9684,12.3728,-7.5376,0.5314,5.2778,14.1681,11.4745,-2.3958,-6.2844,13.6086,3.3283,-1.1454,-6.9115,12.1895,9.5361,-1.7244
93.7500,30.6013,-6.3707,0.2710,10.1608,14.6827,-3.6393,4.9299,7.8437,13.8151,12.3503,-1.7492,-5.5854,13.3249,5.7774,-1.7990,-7.4024,13.4155,9.6913,-1.2630
97.6562,29.4328,-5.9555,1.2784,12.9804,16.7125,-2.4804,6.4343,10.9047,13.2498,12.5273,0.4248,-4.8140,13.4001,8.2170,-0.8119,-7.2661,14.6832,10.2588,-0.3885
101.5625,28.0661,-5.6495,2.3272,13.9936,18.2000,-3.7957,4.8740,12.6752,12.7439,10.7102,2.9551,-4.0492,14.0420,8.8794,1.3458,-6.0528,16.0086,10.3977,0.6706
105.4688,26.8344,-5.2886,3.3731,12.7463,18.4817,-5.8300,1.9620,11.9797,12.2376,7.0087,4.7017,-3.3331,14.6555,6.9004,3.5832,-4.0899,16.7841,9.5537,1.5397
109.3750,25.6669,-4.6680,4.3718,9.9991,16.9727,-6.6542,0.1614,9.0248,11.4917,2.7401,5.2753,-2.7750,14.4040,2.9982,4.9589,-2.2887,16.2139,7.7900,2.0257
113.2812,24.2200,-3.7598,5.1727,7.0857,13.8345,-5.4211,0.8910,5.1542,10.3735,-0.7259,5.0429,-2.4725,13.0297,-0.9924,5.1974,-1.4280,14.0991,5.6225,2.2118
117.1875,22.3118,-2.7462,5.4938,4.9119,10.2257,-2.7575,3.4589,1.8238,9.0599,-3.0620,4.5845,-2.3626,11.2211,-3.4101,4.6846,-1.5301,11.2739,3.5558,2.3002
121.0938,20.2757,-1.8703,5.1158,3.3800,7.7856,-0.1179,5.6473,-0.3784,7.9933,-5.0787,4.1955,-2.2050,10.1693,-3.9190,4.0898,-1.8775,9.2152,1.7300,2.4188
125.0000,18.8787,-1.2644,4.1974,1.6646,7.6196,1.3666,5.5731,-1.9191,7.6023,-7.7717,3.8654,-1.7650,10.6377,-3.6550,3.9600,-1.6671,9.0303,-0.0494,2.5947
128.9062,18.7974,-0.9067,3.4024,-0.9222,9.5228,1.6947,3.3537,-3.6442,7.9797,-11.2015,3.6285,-1.0418,12.3061,-4.2605,4.5319,-0.7336,10.6008,-1.9787,2.8864
132.8125,20.0411,-0.7165,3.5938,-4.2011,12.0808,1.8899,1.1629,-5.8707,8.7638,-14.2351,3.8065,-0.3076,13.9582,-6.5510,5.7735,0.3025,12.6123,-3.9522,3.4725
136.7188,21.8097,-0.6705,5.2092,-7.1251,13.6366,3.0871,1.5243,-8.0292,9.3309,-15.4159,4.8017,0.1190,14.3978,-9.8306,7.5163,0.6119,13.5177,-5.5673,4.5365
140.6250,22.9670,-0.8179,7.7785,-8.5008,13.4282,5.5067,5.1637,-9.1360,9.1784,-14.2211,6.6028,0.1805,13.3643,-12.3649,9.5583,-0.0344,12.7098,-6.4272,6.0176
144.5312,22.8155,-1.1861,10.0484,-7.8495,12.0360,8.1090,10.1984,-8.6595,8.2266,-11.5944,8.5261,0.1751,11.6906,-12.6376,11.7099,-0.9508,10.9585,-6.4664,7.4865
148.4375,21.5744,-1.6790,10.7490,-5.7388,10.7992,9.2406,13.4293,-7.0193,6.8156,-9.2545,9.5568,0.5114,10.5571,-10.4402,13.8057,-1.0431,9.7246,-6.0146,8.3426
152.3438,20.1525,-2.0692,9.4961,-3.3597,10.6656,7.8605,12.7922,-5.2878,5.3988,-8.3457,9.0995,1.3052,10.4392,-6.9989,15.6834,0.2538,9.8697,-5.5485,8.2428
156.2500,19.3396,-2.0974,7.1287,-1.7189,11.3857,4.4753,9.0141,-4.3472,4.1664,-8.5887,7.5068,2.1822,10.6219,-4.0871,17.1261,2.4017,10.8058,-5.3460,7.4191
160.1562,19.0279,-1.5936,5.1604,-1.0713,11.6853,1.0613,5.0924,-4.2141,2.8935,-8.6735,5.8744,2.5088,9.7119,-2.8116,17.8104,4.0830,10.8157,-5.3199,6.5805
164.0625,18.1047,-0.5358,4.7066,-0.9682,10.2719,-0.0647,3.9506,-4.0944,1.1377,-7.5599,5.2066,1.9120,6.7685,-2.9578,17.3632,4.2191,8.3558,-5.1380,6.4190
167.9688,15.1859,0.9628,5.6952,-0.7811,6.8665,2.2760,6.1283,-3.1142,-1.3572,-5.5400,5.6332,0.6713,2.1543,-3.3142,15.5888,2.8742,3.3461,-4.4994,7.0906
171.8750,9.7166,2.6843,6.9791,-0.2230,2.4483,7.2917,9.3735,-1.1151,-4.3668,-4.0961,6.3571,-0.3782,-2.5928,-2.6691,12.7656,1.2853,-2.5784,-3.3408,8.0938
175.7812,2.6397,4.3165,7.2663,0.5240,-1.4635,12.6234,10.4864,1.1402,-7.2405,-4.6198,6.4024,-0.4084,-5.7990,-0.7270,9.7591,0.9506,-7.0954,-1.8516,8.6616
179.6875,-3.9066,5.4816,6.1312,1.0819,-3.8989,15.7582,7.9303,2.5119,-9.2817,-7.0721,5.5183,0.7871,-6.8169,1.6851,7.7369,2.4759,-8.7504,-0.3531,8.3544
183.5938,-7.7348,5.8523,4.3032,1.2367,-5.0352,15.5398,3.0939,2.3333,-10.1775,-9.7666,4.4256,2.6122,-6.4239,3.2043,7.5470,5.0945,-7.8792,0.8257,7.3704
187.5000,-7.8695,5.3494,3.0225,1.0712,-5.8639,12.8013,-0.8167,0.9025,-10.1575,-10.5504,4.1511,4.0830,-6.1632,2.8536,9.1371,7.2473,-6.2255,1.4135,6.3214
191.4062,-5.1008,4.2886,3.0093,0.8245,-7.2476,9.7376,-1.3429,-0.7379,-9.7659,-8.4789,5.0076,4.5248,-7.1545,0.6719,11.4663,7.7609,-5.5870,1.2537,5.6763
195.3125,-1.4830,3.3086,3.8994,0.6849,-9.1569,8.4789,1.2978,-1.5204,-9.4251,-4.6321,6.1407,4.0125,-9.2853,-2.3167,13.0576,6.6918,-6.5413,0.4062,5.3520
199.2188,0.8699,3.0365,4.5847,0.7283,-10.6972,9.8260,4.4686,-1.0118,-9.1324,-1.3940,6.1148,3.2232,-11.3670,-4.7119,12.8605,5.1834,-8.1933,-0.7612,4.7985
203.1250,0.9055,3.6768,4.1341,1.0084,-10.8629,12.9380,5.2984,0.4361,-8.5248,-0.7457,4.1083,2.8481,-12.0789,-5.5081,10.8206,4.4923,-9.0490,-1.6395,3.4955
207.0312,-0.9981,4.8308,2.4946,1.6227,-9.3714,16.0713,2.9637,2.0587,-7.2588,-2.9028,0.7091,3.0609,-10.9365,-4.5729,7.7475,4.9985,-8.2521,-1.6756,1.4217
210.9375,-3.5467,5.7341,0.3942,2.6216,-6.8884,17.7646,-0.8009,3.2185,-5.4031,-6.3173,-2.4247,3.4748,-8.5588,-2.5923,4.6144,5.9964,-6.1903,-0.7543,-0.9062
214.8438,-5.4860,5.7852,-1.4196,3.8420,-4.4781,17.6386,-3.3340,3.7210,-3.5204,-8.9521,-3.8422,3.5943,-6.0958,-0.5577,1.8694,6.3970,-4.0446,0.6442,-2.8470
218.7500,-6.3454,4.9781,-2.8931,4.8960,-2.7485,16.3468,-3.4059,3.7776,-2.3523,-9.7566,-3.5000,3.3424,-4.3336,0.8866,-0.6905,5.7136,-2.7265,1.7251,-4.1248
222.6562,-6.5482,3.8827,-4.6742,5.4318,-1.3973,14.8635,-2.3198,3.7726,-2.3273,-9.2029,-2.8783,3.1808,-3.1912,1.8495,-3.4311,4.4915,-2.1146,1.9689,-4.9679
226.5625,-6.9286,3.1546,-7.4045,5.4906,0.4778,13.7314,-2.8462,4.0623,-3.2552,-8.5934,-3.8609,3.6964,-1.9588,3.0957,-6.2717,3.8266,-1.2138,1.5888,-5.7971
230.4688,-8.0540,2.9553,-10.9431,5.6014,3.5558,12.8237,-6.8930,4.8897,-4.4462,-8.8414,-7.2406,4.9977,-0.0248,5.4680,-8.5538,4.3926,0.9164,1.4289,-6.7765
234.3750,-9.7956,2.7719,-14.2574,6.4073,7.6048,11.7075,-13.8383,6.3392,-5.1784,-9.7551,-12.0312,6.4563,2.5186,9.1653,-9.5450,5.8083,4.2451,2.2903,-7.6619
238.2812,-11.3673,1.8348,-16.1414,8.0390,11.4548,10.2171,-20.8710,8.2493,-5.1799,-10.3057,-16.1289,7.0584,4.8516,13.3558,-9.1248,6.8821,7.6193,4.1750,-8.0949
242.1875,-11.7546,-0.1695,-16.1818,9.7588,13.6490,8.7266,-25.0152,10.1432,-4.7763,-9.4951,-17.7836,6.1314,5.9669,16.4654,-7.9859,6.5440,9.5129,6.0978,-8.0618
246.0938,-10.2686,-2.6770,-15.1351,10.2868,13.3078,7.8976,-25.1806,11.3300,-4.5918,-7.0255,-16.7206,3.8774,5.3440,17.0602,-7.0837,4.6983,9.1035,6.7267,-8.0517
250.0000,-6.9544,-4.5231,-14.3553,8.6933,10.6388,8.1206,-22.6500,11.2379,-5.0187,-3.3034,-14.0799,1.2783,3.2841,14.8030,-6.7678,2.3055,6.8739,5.4410,-8.7012
253.9062,-2.6777,-4.7738,-14.7121,5.2256,6.8256,9.1047,-19.7717,9.8142,-5.8371,1.0044,-11.3326,-0.5797,0.7361,10.8205,-6.3805,0.6334,4.3245,2.9804,-10.1862
257.8125,1.1518,-3.4889,-15.8884,1.3846,3.4526,9.9386,-18.0760,7.6898,-6.2671,5.2932,-9.1369,-1.2537,-1.1918,7.1462,-4.7684,0.2898,3.0531,1.0931,-11.8896
261.7188,3.1359,-1.7925,-16.6374,-0.9102,1.8542,9.5823,-17.3745,5.9236,-5.4365,8.9322,-7.0652,-1.2020,-1.6941,5.5320,-1.3488,0.8137,3.8786,1.3486,-12.6894
265.6250,2.5131,-1.1313,-15.7817,-0.5112,2.7034,7.4489,-16.4259,5.4495,-2.9591,11.0520,-4.3312,-1.3703,-0.4834,6.4095,3.1781,1.1291,6.5698,3.9789,-11.6991
269.5312,-0.4321,-2.2439,-13.1205,2.2785,5.9212,3.7128,-14.3716,6.5983,0.7612,10.7266,-0.7804,-2.4427,2.2327,8.7300,7.1647,0.4700,10.2374,7.6578,-8.8970
273.4375,-4.4288,-4.6165,-9.5111,6.0379,10.8113,-0.7875,-11.5680,9.0190,4.7053,7.6655,2.7657,-4.3354,5.8880,10.8104,9.2203,-0.9809,13.9836,10.4386,-5.1477
277.3438,-7.7991,-6.8505,-6.1093,9.2872,16.3084,-4.9184,-9.1163,12.0105,7.7885,2.8668,5.1104,-6.2956,9.7230,11.5653,9.3082,-2.2401,17.3211,11.1617,-1.6056
281.2500,-9.3050,-7.6688,-3.4650,11.4274,21.2901,-7.6531,-7.6476,14.9533,9.4427,-1.5477,5.6684,-7.4902,12.9823,11.2040,8.7655,-2.3167,20.1560,10.2477,1.0157
285.1562,-8.7988,-6.7959,-1.2632,12.8427,24.9128,-8.3519,-6.6021,17.4910,9.8782,-3.5255,4.9533,-7.6046,15.1512,10.8706,9.1426,-1.0114,22.5073,9.2540,2.7346
289.0625,-7.2632,-5.0559,1.1081,14.1710,26.8693,-6.9130,-4.7540,19.3808,9.8793,-2.5717,4.1407,-7.0028,16.1505,11.5329,10.7996,0.9012,24.2808,9.5477,3.9773
292.9688,-6.1834,-3.6549,3.7272,15.4485,27.4286,-3.8233,-1.5286,20.2689,10.2795,-0.3211,4.1063,-6.3713,16.3434,13.0331,12.4903,2.2210,25.2829,11.1571,4.9915
296.8750,-6.6237,-3.2466,5.8532,15.9242,27.2036,-0.0799,2.1411,19.7238,11.4474,0.4667,4.7920,-6.1689,16.2957,14.1054,12.3979,2.1637,25.4040,12.7233,5.5567
300.7812,-8.6037,-3.5239,6.4937,14.7293,26.7821,3.1044,4.3263,17.5982,13.0900,-2.0892,5.4389,-6.3199,16.4166,13.3924,9.8416,0.8708,24.7694,12.5922,5.2579
304.6875,-11.1792,-3.6133,5.3477,11.8083,26.4743,4.8053,3.6763,14.4127,14.4702,-7.4855,5.4400,-6.3557,16.7403,10.6596,6.2064,-0.7398,23.7313,10.1670,4.0583
308.5938,-13.1520,-2.8848,3.2694,8.2430,26.3481,4.8909,0.7406,11.3319,14.8812,-13.0787,5.0206,-5.8424,17.0226,7.1989,4.1867,-1.6080,22.7336,6.4355,2.6174
312.5000,-13.8908,-1.4679,1.7808,5.5935,26.4710,4.1814,-2.1606,9.5873,14.0769,-16.0067,5.1180,-4.7254,17.0736,5.0175,5.8041,-1.1669,22.1709,3.2535,2.0043
316.4062,-13.6833,-0.0490,1.9854,4.7369,27.0756,4.0368,-2.5419,9.6814,12.4034,-15.3463,6.5649,-3.3330,17.0264,5.3765,10.7407,0.4242,22.3032,1.9662,2.9848
320.3125,-13.4016,0.8333,3.7756,5.1615,28.4166,5.5114,0.3958,10.9751,10.5792,-12.8014,9.3093,-2.0738,17.2718,7.7958,16.3876,2.5062,23.1968,2.4624,5.4509
324.2188,-13.7758,1.3378,6.0025,5.3489,30.3848,8.5782,5.1481,12.0397,9.2839,-11.3387,12.3712,-1.1089,18.0726,10.3199,19.6791,4.3522,24.6440,3.3799,8.4648
328.1250,-14.8513,2.1935,7.4651,3.9882,32.2340,11.9895,9.0273,11.5893,8.8215,-12.8296,14.5798,-0.2693,19.1824,10.8792,19.3311,5.4953,26.1091,3.2478,10.8872
332.0312,-16.0232,3.9754,7.8750,1.0589,32.7789,13.9677,10.1314,9.3458,9.0468,-16.5688,15.4432,0.7266,19.8380,8.7356,16.7225,5.8156,26.8245,1.6187,12.0895
335.9375,-16.5704,6.4172,7.9810,-2.1054,31.0698,13.3483,8.6227,6.2047,9.5631,-19.8395,15.3961,1.9531,19.2192,4.9377,14.7128,5.4523,26.1020,-0.6862,12.2043
339.8438,-16.2209,8.4104,8.7707,-3.8391,27.1115,10.4158,6.3905,3.5866,10.0226,-20.0427,15.2462,3.1251,17.0616,1.4837,15.3448,4.6796,23.7385,-2.3321,11.7850
343.7500,-15.2934,8.7860,10.4789,-3.4334,22.0512,6.8275,5.4984,2.4652,10.3171,-16.6588,15.3672,3.7505,13.9372,-0.1223,18.2815,3.8155,20.2386,-2.5336,11.2502
347.6562,-14.3510,7.2935,12.2980,-1.6499,17.5910,4.6182,6.7300,2.7851,10.5464,-11.4961,15.4078,3.4908,10.9355,0.1926,21.2247,3.1422,16.6320,-1.5453,10.6269
351.5625,-13.7286,4.9671,13.0676,-0.0567,14.9642,4.9405,9.3254,3.6601,10.8208,-7.1344,14.7914,2.4776,8.9490,1.3007,21.9305,2.8192,13.9291,-0.2514,9.7888
355.4688,-13.3974,3.5085,12.3378,0.2532,14.1949,7.4002,11.9101,4.1351,11.0680,-4.9464,13.5208,1.3582,8.0921,1.9844,20.1257,2.8328,12.5517,0.6945,8.8878
359.3750,-13.2978,4.0908,10.8445,-0.4930,14.1942,10.4425,13.6389,3.9008,10.9966,-4.3549,12.4711,1.0094,7.6983,1.9754,17.7231,3.0505,12.1340,1.3898,8.4835
363.2812,-13.8094,6.4766,9.9257,-1.0145,13.6350,12.4975,14.5474,3.4422,10.2432,-3.8422,12.7835,2.0610,6.8885,2.0865,17.1576,3.3735,11.8418,2.4297,9.1514
367.1875,-15.8317,9.1389,10.3406,-0.1067,11.9478,13.0441,14.9579,3.5800,8.5924,-2.6846,14.8042,4.4853,5.2519,3.3876,19.2365,3.8676,10.9752,4.1645,10.8683
371.0938,-20.2408,10.3242,11.5117,2.3091,9.6862,12.8308,14.7053,4.8122,6.1164,-1.7852,17.5050,7.4908,3.1019,6.1505,22.3123,4.7277,9.4068,6.1711,12.7436
375.0000,-27.0392,9.2825,11.8915,5.0659,7.9996,13.1241,13.0737,6.9519,3.1506,-2.8181,18.9997,9.8167,1.1270,9.4479,23.4965,6.0591,7.5470,7.4348,13.4318
378.9062,-34.8798,6.7664,10.2094,6.6223,7.6560,14.5916,9.5817,9.2632,0.1476,-6.4449,17.8713,10.3270,-0.2421,11.7268,20.9467,7.6459,5.9093,7.0896,11.9924
382.8125,-41.4729,4.4602,6.5818,6.1904,8.4033,16.6956,4.8457,10.9172,-2.4717,-11.2446,14.3004,8.6248,-1.2020,11.8899,15.3789,8.9363,4.6666,5.0830,8.5551
386.7188,-44.7558,3.7999,2.5425,4.2259,9.1736,18.0720,0.5680,11.4202,-4.3811,-14.4257,10.0726,5.3575,-2.3668,10.0429,9.5960,9.3367,3.5793,2.2149,4.2597
390.6250,-44.0948,5.0602,-0.0697,1.9655,8.9533,17.6073,-1.5493,10.7904,-5.3276,-13.8509,7.4077,1.9990,-4.1577,7.3730,6.4359,8.6380,2.3452,-0.4352,0.5077
394.5312,-40.6860,7.3302,-0.4771,0.4852,7.6085,15.3734,-1.1399,9.4920,-5.1142,-9.7282,7.4822,0.1661,-6.3107,5.3189,6.7892,7.2498,1.0507,-2.1678,-1.8985
398.4375,-36.8418,9.2975,0.5221,0.0829,6.0023,12.6757,0.4179,8.2497,-3.6598,-4.5396,9.7543,0.8099,-7.9287,4.6957,9.2027,6.0212,0.3014,-2.8635,-3.0853
402.3438,-34.6280,10.1804,1.2879,0.4167,5.3166,11.1391,0.9883,7.8162,-1.1230,-1.2256,12.5415,3.7396,-8.0625,5.3771,11.2390,5.7372,0.8664,-2.6573,-3.7225
406.2500,-34.7616,10.1173,0.6877,1.1247,6.1222,11.5044,-0.6572,8.6853,2.0135,-1.0860,14.3117,7.7715,-6.3794,6.6289,11.3546,6.6363,3.0781,-1.5176,-4.3339
410.1562,-36.4647,9.8188,-1.0697,2.2588,7.9220,13.0444,-3.8607,10.7880,5.0157,-3.0636,14.6375,11.4208,-3.4220,7.6973,9.7593,8.2908,6.4482,0.7747,-4.9256
414.0625,-38.2631,9.8728,-2.7794,4.1084,9.4980,14.0674,-6.6344,13.3513,7.1481,-4.8938,14.1363,13.7038,-0.2902,8.1680,7.7054,9.9132,9.8164,4.1958,-5.2192
417.9688,-39.0626,10.3061,-3.4134,6.6263,9.7636,13.1626,-7.3368,15.1452,7.9933,-5.0451,13.6092,14.5432,1.9865,7.9346,6.0338,10.8321,11.9558,8.0576,-5.2023
421.8750,-38.7285,10.7145,-3.0743,9.0865,8.4647,10.2810,-6.0856,15.1360,7.6607,-3.7973,13.2316,14.5450,2.9316,6.9958,4.3700,10.7834,12.2293,11.1344,-5.4088
425.7812,-37.8670,10.7632,-2.8881,10.4204,6.2494,6.8523,-4.7037,13.2100,6.7494,-2.6483,12.5109,14.3629,2.6861,5.3925,1.6720,9.8608,10.8745,12.4034,-6.5891
429.6875,-37.1536,10.5685,-3.9320,10.0385,4.1491,4.8417,-5.2008,10.4304,6.0668,-2.7459,10.9717,14.1512,1.7380,3.3570,-2.4522,8.2741,8.7775,11.8506,-9.0090
433.5938,-36.8438,10.6177,-6.1426,8.4394,2.9316,5.4197,-8.0233,8.5111,6.2447,-3.8492,8.8582,13.5191,0.6105,1.4443,-6.9638,6.2029,6.9394,10.6140,-12.0018
437.5000,-36.8336,11.3071,-8.1876,7.0102,2.7992,8.1916,-11.5254,8.7448,7.4514,-4.7523,7.1428,11.9898,-0.2761,0.3784,-9.9703,3.8777,5.9997,10.2178,-14.2424
441.4062,-37.0793,12.5132,-8.4676,7.0770,3.5377,11.5086,-13.1301,11.1090,9.3446,-4.6848,6.7866,9.5594,-0.5970,0.6186,-10.2321,1.7402,6.0608,11.4209,-14.6123
445.3125,-37.8528,13.5713,-6.4412,8.9178,4.8534,13.5998,-11.2733,14.2393,11.2771,-4.2608,7.9022,6.8670,-0.1409,1.9741,-8.2769,0.3957,6.8172,13.5957,-13.0055
449.2188,-39.4832,13.6897,-3.1618,11.5325,6.5604,13.6902,-6.5926,16.3639,12.6456,-4.9509,9.5886,4.8041,1.0645,3.6370,-6.0757,0.2537,7.8233,15.1879,-10.4224
453.1250,-41.7756,12.4678,-0.5424,13.3768,8.5176,12.3293,-1.4464,16.5515,13.2027,-7.4695,10.6248,3.8542,2.6498,4.6938,-5.4617,1.0886,8.7319,14.9461,-8.2522
457.0312,-43.6919,10.1236,0.0912,13.4982,10.5021,10.7648,1.8058,15.3350,13.1793,-10.5974,10.4471,3.6967,4.0304,4.7593,-6.5938,1.9418,9.4329,12.9515,-7.2865
460.9375,-43.7562,7.2869,-0.9902,12.1891,12.2457,9.8935,2.3815,14.2208,13.1516,-11.7293,9.5738,3.4162,4.7901,4.2355,-7.7860,1.5925,10.0921,10.6058,-7.2238
464.8438,-41.0564,4.5631,-2.1459,10.6775,13.6493,9.5840,1.3270,14.4557,13.7169,-8.9461,9.1088,2.1841,5.0634,3.9703,-6.9058,-0.6335,11.0817,9.5621,-7.0207
468.7500,-36.1353,2.2229,-1.6402,10.1508,14.9416,8.8392,0.3866,16.0254,15.1435,-2.9532,9.7584,-0.1055,5.5537,4.5752,-3.2210,-4.2946,12.7814,10.4513,-5.7799
472.6562,-31.0084,0.2209,1.0454,10.9158,16.5507,6.6251,0.5274,17.6897,17.1904,2.8856,11.2123,-2.7331,7.0609,5.9399,1.8300,-7.9925,15.2925,12.4272,-3.4571
476.5625,-28.1266,-1.5419,4.8659,12.3302,18.7199,2.7222,1.3304,18.0304,19.2217,4.7241,12.4220,-4.6624,9.8151,7.3290,5.5987,-10.2282,18.2267,13.8922,-0.8615
480.4688,-28.8923,-2.9808,8.0434,13.4679,21.1889,-2.0052,1.6375,16.6628,20.5747,1.0680,12.5266,-5.2571,13.1527,7.9663,6.1666,-10.3725,20.7767,13.7971,0.9930
484.3750,-32.7385,-3.8184,9.3720,13.8853,23.2666,-6.0699,0.7724,14.6118,20.9801,-5.9707,11.6183,-4.6554,15.8689,7.6272,3.7337,-9.0348,22.1336,12.4494,1.6269
488.2812,-37.4370,-3.7784,8.9872,13.8356,24.3082,-8.1879,-0.7629,13.5198,20.7645,-12.0873,10.6872,-3.5390,17.0537,6.7617,0.3991,-7.5432,22.0409,11.1797,1.3583
492.1875,-40.4628,-2.7888,8.0859,13.8100,24.2305,-7.9107,-1.6810,14.3064,20.6759,-13.8646,10.8017,-2.5234,16.7812,6.0691,-1.4123,-6.9269,21.0851,11.1640,0.9553
496.0938,-40.5082,-1.0234,7.9277,13.8849,23.6106,-5.7286,-0.9957,16.3506,21.4081,-11.1796,12.2310,-1.6885,16.0790,5.8857,-0.5997,-7.1840,20.4247,12.3868,1.0386
500.0000,-38.1627,1.2146,8.9481,13.5067,23.2369,-2.7026,1.1491,17.8614,23.1163,-7.1287,14.2478,-0.6260,16.1458,5.8826,2.1101,-7.3937,21.0470,13.5936,1.7265
503.9062,-35.3809,3.6197,10.6157,11.9290,23.4536,0.0497,3.5806,17.1539,25.2580,-5.6211,15.7464,1.0657,17.4048,5.2990,5.0073,-6.5675,23.0395,13.2580,2.7372
507.8125,-34.1868,5.8999,12.0121,8.9259,23.8557,1.7259,4.9882,13.8445,26.8980,-8.5844,16.1146,3.2825,19.1531,3.5094,6.7258,-4.5452,25.4320,10.7678,3.7476
511.7188,-35.5095,7.7159,12.5738,5.1524,23.6305,1.9939,4.8436,9.0668,27.3026,-14.9008,15.6192,5.3526,20.1139,0.4874,6.9641,-2.2139,26.7963,6.8898,4.6402
515.6250,-38.8311,8.6960,12.4207,1.8202,22.2896,1.0210,3.6546,4.6078,26.4298,-21.6773,15.0306,6.4811,19.4729,-3.1515,6.2109,-0.8750,26.2230,3.1930,5.4540
519.5312,-42.7006,8.6276,12.1296,-0.0669,20.1771,-0.5585,2.4708,1.6954,24.9707,-26.5682,14.8889,6.3392,17.5625,-6.5030,5.0065,-1.2678,23.9660,0.9467,6.1763
523.4375,-45.6178,7.7253,12.2588,-0.3180,18.2851,-1.7943,2.1398,0.3716,23.8963,-29.1768,15.0932,5.3148,15.6212,-8.8374,3.5620,-3.0291,21.2578,0.3718,6.6576
527.3438,-46.7021,6.7235,13.0335,0.4387,17.4773,-1.7834,2.8918,-0.1680,23.8124,-30.5680,15.1476,4.2164,14.7991,-9.8845,2.0293,-5.0024,19.4078,0.7522,6.7584
531.2500,-45.8805,6.5965,14.3423,1.2894,17.7403,-0.1745,4.4251,-0.6930,24.5647,-31.6472,14.7659,3.6685,15.2077,-9.8497,0.9427,-6.1300,18.8528,1.1721,6.5627
535.1562,-43.7209,7.9855,15.8925,1.6374,18.0990,2.4826,6.2250,-1.3198,25.3654,-32.0837,14.2096,3.6852,15.7967,-9.2618,1.1344,-6.2018,18.8830,1.1863,6.3854
539.0625,-41.1722,10.6888,17.3120,1.4284,17.3122,4.8834,7.7740,-1.6309,25.3404,-30.7980,14.0170,3.7558,15.1779,-8.7782,2.9934,-5.8801,18.2496,0.9093,6.5045
542.9688,-39.3317,13.6173,18.1747,0.9333,14.8199,5.6828,8.5936,-1.3097,24.1035,-27.4652,14.3912,3.3607,12.7480,-8.9802,5.7363,-6.0186,16.1791,0.6035,6.8525
546.8750,-39.1714,15.3440,18.0979,0.3982,11.1853,4.4052,8.3199,-0.6231,21.9593,-23.4632,14.8777,2.4940,9.2040,-10.1383,7.5572,-6.8644,12.9988,0.2889,7.0030
550.7812,-41.1723,14.9594,17.0018,-0.0878,7.6677,1.9232,6.9560,-0.2744,19.6190,-21.1691,14.7114,1.7703,6.0333,-12.0024,6.8286,-7.7995,9.8897,-0.2001,6.5446
554.6875,-45.0130,12.6850,15.3608,-0.4490,5.2631,0.0678,5.1122,-0.7631,17.6708,-22.0543,13.5681,2.0334,4.3825,-13.7805,3.5009,-7.8177,7.9719,-0.7981,5.5517
558.5938,-49.6014,9.8168,14.1289,-0.4542,3.9827,0.5148,3.8609,-1.8592,16.2065,-25.2488,12.0129,3.7632,4.2079,-14.4483,-0.5424,-6.3328,7.4534,-0.9359,4.6996
562.5000,-53.5992,7.9901,14.2060,0.2062,2.9480,3.6482,4.0707,-2.7077,14.8626,-27.9785,11.1426,6.7209,4.3767,-13.3132,-2.6972,-3.6627,7.5095,0.1843,4.8269
566.4062,-56.1998,8.2108,15.7284,1.6082,1.2169,8.2046,5.6182,-2.5075,13.2061,-27.7043,11.6318,10.0670,3.6203,-10.4962,-1.6255,-0.8251,6.9752,2.8885,6.2381
570.3125,-57.6287,10.2583,17.7508,3.3559,-1.3300,11.9962,7.1761,-1.1866,11.1428,-24.2532,12.9870,12.8359,1.5677,-6.9505,1.5674,1.1622,5.2865,6.5056,8.3256
574.2188,-58.9368,12.8237,18.7025,4.7213,-3.7591,13.2575,6.9643,0.5158,9.0330,-20.1167,13.7289,14.4216,-0.9496,-3.9177,4.0406,1.9084,2.9333,9.5643,9.9005
578.1250,-61.1615,14.2781,17.4189,5.1369,-4.6882,11.6909,4.0650,1.6397,7.4422,-18.5659,12.4714,14.7782,-2.5277,-2.1508,3.3920,1.7506,1.0871,10.6870,10.0477
582.0312,-64.4581,13.5850,14.0257,4.6629,-3.2494,8.4965,-0.6996,1.7663,6.7361,-21.0690,9.0708,14.2896,-2.2177,-1.4599,-0.3940,1.3306,0.7281,9.5394,8.8520
585.9375,-67.8971,10.8190,9.9589,4.0076,0.3213,5.4022,-5.1473,1.3185,6.8291,-26.1285,4.8777,13.4835,-0.1444,-0.9369,-4.8600,1.0633,1.9607,7.0876,7.3816
589.8438,-70.1390,7.0330,7.0163,4.0316,4.8692,3.4369,-7.2585,1.1742,7.2618,-30.5029,1.8063,12.8022,2.7118,0.2989,-7.0428,0.9356,4.0229,4.9395,6.8830
593.7500,-70.4982,3.6293,6.0969,5.1153,9.0693,2.3477,-6.7472,1.9563,7.5280,-31.7978,0.9023,12.5185,5.3064,2.4037,-5.9913,0.7366,5.9178,4.2724,7.7841
597.6562,-69.5439,1.6461,6.5766,6.9062,12.1351,1.0415,-5.4131,3.6047,7.4038,-30.2823,1.5340,12.7350,7.2128,4.7063,-3.7885,0.4254,7.1245,5.1715,9.2899
601.5625,-68.7167,1.3573,6.8196,8.6592,14.0053,-1.3603,-5.8816,5.5398,7.0609,-28.4559,1.8646,13.3785,8.6854,6.2664,-4.1484,0.2524,7.8354,6.8399,9.9153
605.4688,-69.2157,2.3336,5.4503,9.8709,15.0041,-4.7167,-9.6109,7.1893,6.9197,-28.7998,0.2457,14.1858,10.1596,6.6246,-9.5857,0.5124,8.5967,8.4180,8.5605
609.3750,-71.0276,3.8340,2.4172,10.6571,15.3768,-7.9362,-15.6932,8.3577,7.3734,-31.6517,-3.5555,14.7543,11.7073,6.1217,-19.3369,1.1726,9.7158,9.6735,5.3130
613.2812,-72.8954,5.2428,-0.9652,11.5456,15.1117,-9.8240,-21.4114,9.1329,8.5678,-34.9848,-8.2282,14.7074,12.9367,5.5364,-29.6751,1.7573,10.9511,11.0002,1.3716
617.1875,-73.2836,6.3132,-3.0077,12.8823,14.1222,-9.9925,-24.1548,9.5121,10.3420,-36.2044,-11.9291,13.9117,13.3815,5.3755,-36.4060,1.6484,11.7157,12.8097,-1.8141
621.0938,-71.5815,7.1397,-2.8834,14.4011,12.5211,-9.0919,-23.2203,9.2170,12.3188,-34.3537,-13.5768,12.5916,12.9794,5.4491,-37.6479,0.5802,11.5847,14.9418,-3.5017
625.0000,-68.5685,7.9449,-1.1585,15.3765,10.6780,-8.1956,-20.1231,7.9706,14.0689,-30.8236,-13.4177,11.2297,12.1871,5.1174,-34.8218,-1.0874,10.6652,16.6709,-3.9895
628.9062,-65.7482,8.8437,0.7484,15.2584,9.0124,-7.8711,-17.2401,6.0068,15.2726,-28.0129,-12.5168,10.2926,11.6395,4.0003,-31.2281,-2.5790,9.5391,17.3205,-4.1403
632.8125,-64.0899,9.7207,1.6930,14.2402,7.7591,-7.7207,-15.9285,4.2710,15.8352,-27.1894,-11.7267,9.9607,11.6855,2.5174,-29.4661,-3.2619,8.8640,16.9120,-4.5536
636.7188,-63.2201,10.2700,1.6115,13.2364,6.9614,-6.7800,-15.6344,3.9754,15.9218,-27.4733,-11.0575,10.0462,12.2299,1.7448,-29.7547,-3.1238,8.9780,16.2244,-5.0775
640.6250,-61.7579,10.1541,1.4128,13.2423,6.6953,-4.4460,-14.6329,5.7523,15.8818,-26.8306,-9.9354,10.1435,13.0040,2.6478,-30.3401,-2.7939,9.8042,16.1628,-5.0112
644.5312,-58.5435,9.1883,2.1260,14.5867,7.2583,-1.1646,-11.6802,9.0833,16.0646,-24.1491,-8.0119,9.8899,13.9760,5.3003,-29.4201,-3.0870,11.0677,16.9719,-3.7562
648.4375,-53.7468,7.4504,4.0424,16.7005,9.0599,1.7034,-7.1444,12.5428,16.6045,-20.4816,-5.7166,9.1531,15.4731,8.7430,-26.8343,-4.4195,12.5817,18.0014,-1.3375
652.3438,-48.9034,5.2622,6.5262,18.5983,12.2408,2.7554,-2.6942,14.7473,17.3141,-18.2641,-4.0147,8.0423,17.8653,11.6251,-24.1129,-6.5346,14.3493,18.2646,1.6167
656.2500,-45.7850,3.0553,8.5682,19.6637,16.3541,1.4811,0.1138,15.2964,17.7927,-19.1241,-3.5833,6.7849,21.0879,13.1269,-22.9593,-8.7227,16.4325,17.3295,4.3529
660.1562,-44.9846,1.1945,9.5608,20.0725,20.4502,-1.4572,1.0793,14.9507,17.7156,-22.2042,-4.1625,5.5878,24.4613,13.4330,-23.5905,-10.3385,18.7536,15.7602,6.4750
664.0625,-45.3675,-0.1478,9.6539,20.5061,23.5816,-4.7784,1.3685,14.9068,17.1158,-24.5560,-4.6949,4.5677,27.0293,13.4000,-24.4247,-11.2117,21.0302,14.6938,8.0335
667.9688,-44.8764,-1.0044,9.4728,21.4234,25.3540,-7.4813,2.3342,15.7757,16.4318,-23.4051,-4.1659,3.7510,28.1774,13.7313,-23.4007,-11.6595,22.8963,14.8840,9.2211
671.8750,-42.0911,-1.5211,9.5284,22.5508,26.0723,-9.3577,4.2424,17.1221,16.2449,-18.4433,-2.4362,3.0932,28.0298,14.3718,-19.7826,-12.1309,24.0905,16.0265,10.0285
675.7812,-37.3215,-1.8275,9.8628,23.0593,26.3588,-10.7531,6.0635,17.9397,16.8756,-12.2097,-0.3482,2.5030,27.3002,14.6225,-14.8874,-12.7784,24.5614,16.9700,10.2202
679.6875,-32.3667,-1.9561,10.1936,22.2928,26.5848,-11.8711,6.5206,17.6260,18.1447,-8.1867,0.9826,1.9037,26.7375,13.8463,-11.0920,-13.2799,24.4500,16.6699,9.6533
683.5938,-29.1289,-1.8490,10.3506,20.4145,26.6278,-12.3099,5.4464,16.5845,19.5110,-8.1462,1.0894,1.3471,26.6451,12.1264,-9.9354,-13.0226,24.0274,15.0960,8.6148
687.5000,-28.1790,-1.4316,10.5504,18.3807,26.1699,-11.3016,4.1893,15.8962,20.5035,-10.9146,0.5122,1.1106,26.8625,10.2803,-10.8902,-11.5039,23.6628,13.3146,7.8126
691.4062,-28.3963,-0.6877,11.2464,17.2112,25.2311,-8.4934,4.6188,16.3181,21.1078,-13.5371,0.3167,1.6475,27.1591,9.1935,-11.8120,-8.6815,23.7861,12.6377,7.9610
695.3125,-27.9364,0.3156,12.6992,17.1301,24.3702,-4.5802,7.5103,17.4715,21.7696,-13.8164,1.2043,3.3255,27.6023,9.0274,-10.6837,-5.0720,24.7457,13.5116,9.2711
699.2188,-25.7205,1.4560,14.6734,17.2870,24.2559,-1.1569,11.6831,17.9554,22.9660,-12.0834,2.9673,6.0705,28.4984,8.9811,-7.2280,-1.5683,26.5479,15.0465,11.2590
703.1250,-22.2470,2.5964,16.5439,16.3189,24.9180,0.2317,14.6878,16.3501,24.6626,-10.7469,4.7060,9.1862,29.9296,7.8349,-3.1053,0.9109,28.6471,15.5852,13.0366
707.0312,-19.1085,3.6004,17.7230,13.3458,25.3846,-0.8203,14.5695,12.3258,26.1180,-12.0729,5.5600,11.5747,31.3517,4.8674,-0.5970,1.7785,30.0414,13.8797,13.8644
710.9375,-17.6573,4.3206,18.0497,8.6541,24.1922,-3.1993,11.3325,6.9690,26.2639,-16.1259,5.3077,12.3180,31.7353,0.4340,-0.8745,1.0059,29.7624,9.9825,13.5613
714.8438,-17.9343,4.6010,17.8346,3.5755,20.5342,-4.9592,6.9571,2.0793,24.4475,-20.6271,4.3683,11.2733,30.2785,-4.2208,-3.2205,-0.8621,27.5204,5.2085,12.5209
718.7500,-18.7291,4.3267,17.5706,-0.3129,15.1745,-4.6248,3.9745,-0.9852,20.9983,-22.8258,3.3130,9.2482,27.1613,-7.7401,-5.7230,-2.9221,24.0416,1.2631,11.4042
722.6562,-18.6794,3.5102,17.5885,-2.0655,10.2934,-2.1734,3.7324,-2.0123,17.1641,-21.7730,2.4054,7.5676,23.6726,-9.4140,-6.7748,-4.2912,20.7629,-0.7637,10.7969
726.5625,-17.4710,2.3512,17.9329,-1.7365,8.1962,1.0224,5.6666,-1.7221,14.4034,-19.0768,1.5891,7.2806,21.4780,-9.3962,-6.1451,-4.4901,18.9932,-0.8279,11.0435
730.4688,-16.1276,1.2052,18.4897,-0.0991,9.7411,3.2377,8.0277,-0.9512,13.5017,-17.5314,0.8523,8.5416,21.4993,-8.3352,-4.8622,-3.6352,19.0878,0.3860,12.2511
734.3750,-16.1506,0.4520,19.1709,1.9528,13.6606,3.6381,9.3520,-0.0016,14.1286,-18.8055,0.5065,10.5978,23.2474,-6.8264,-4.1675,-2.3152,20.2376,2.1189,14.3051
738.2812,-18.2176,0.3346,19.9561,3.8526,17.3459,2.8060,9.4674,1.3279,15.1363,-22.1204,1.0133,12.3749,25.1473,-5.1454,-4.5035,-1.2107,21.0538,3.9534,16.8212
742.1875,-21.5095,0.8694,20.7914,5.4348,18.5686,2.1920,9.3322,3.1886,15.3646,-24.9609,2.4692,13.2079,25.6334,-3.3875,-5.3349,-0.6918,20.5314,5.7571,19.1384
746.0938,-24.2241,1.8841,21.5156,6.7505,16.8774,2.9502,10.0147,5.2414,14.3622,-25.1392,4.2682,13.1716,24.1853,-1.7463,-5.8075,-0.6534,18.6744,7.3834,20.5203
750.0000,-24.8837,3.1417,21.9457,7.8805,13.6483,5.0570,11.7615,6.8059,12.5283,-22.4530,5.3633,12.8028,21.5218,-0.5816,-5.5527,-0.6914,16.3237,8.5308,20.5513
753.9062,-23.4195,4.4451,22.0418,8.8757,10.8063,7.3603,13.8802,7.4596,10.6389,-18.6267,5.0119,12.5075,18.8530,-0.1809,-4.9218,-0.4694,14.3639,8.9193,19.4600
757.8125,-21.2130,5.6399,21.9366,9.7542,9.2625,8.4745,15.3719,7.4679,9.1827,-15.7339,3.3953,12.1918,16.8456,-0.4608,-4.5270,0.0156,12.9783,8.5686,18.0399
761.7188,-20.0907,6.5363,21.7256,10.4462,8.3071,7.8069,15.6373,7.5564,8.0385,-14.5503,1.5335,11.4416,15.1662,-0.9335,-4.5999,0.4728,11.5730,7.8410,17.1138
765.6250,-21.0518,6.8663,21.1943,10.7194,6.4028,5.9354,14.6506,8.1702,6.7155,-14.2254,0.5004,10.0819,12.9603,-1.0182,-4.7887,0.6152,9.4244,7.1571,16.8945
769.5312,-23.6513,6.3845,19.8165,10.2412,2.6890,4.0945,12.6140,8.9104,4.9129,-13.4180,0.5709,8.5861,9.8227,-0.4455,-4.5611,0.4506,6.4854,6.6492,16.7741
773.4375,-26.4065,5.0998,17.1746,8.8546,-2.0582,3.2181,9.6179,8.7526,2.9107,-11.7556,1.0430,7.9069,6.3997,0.5983,-3.8012,0.3104,3.6351,6.1104,15.7940
777.3438,-27.8272,3.4698,13.5378,6.8991,-5.8107,3.2997,5.7559,6.9646,1.4572,-10.2651,0.9116,8.7900,4.0682,1.7037,-3.0332,0.5830,2.1107,5.3216,13.4904
781.2500,-27.2886,2.3459,10.0559,5.2438,-6.7234,3.5521,1.5734,3.9517,1.2354,-10.4198,-0.1825,11.1023,3.9218,2.6186,-3.0690,1.3793,2.5518,4.4434,10.4327
785.1562,-25.2063,2.5877,8.2189,4.8560,-4.4890,3.1991,-1.7375,1.2202,2.3279,-12.7159,-1.5906,13.7576,5.8846,3.4157,-4.4127,2.4208,4.4331,4.0452,7.9379
789.0625,-22.5585,4.5189,8.8162,6.1227,-0.5644,2.2475,-2.8498,0.3553,4.0969,-16.0986,-2.2554,15.3713,8.6879,4.2979,-6.9536,3.2521,6.3755,4.6588,7.0898
792.9688,-20.2343,7.5731,11.1494,8.4481,2.8735,1.6092,-1.3008,1.7881,5.5686,-18.7615,-1.7945,15.1894,10.7479,5.2510,-10.1839,3.5983,7.1175,6.2183,7.7940
796.8750,-18.6694,10.4358,13.2104,10.5349,4.3936,2.4555,1.8252,4.3832,6.0371,-19.5976,-1.0981,13.5853,11.2562,5.9120,-13.6792,3.5582,6.3961,7.9275,8.6595
800.7812,-17.8732,11.6883,12.8696,11.2427,4.0831,5.2774,4.2440,6.2604,5.4552,-19.0022,-1.8252,11.7387,10.6359,5.8257,-17.3550,3.4653,5.0565,8.7752,7.8912
804.6875,-17.6289,10.6103,9.3046,10.4055,3.1280,9.3555,3.7907,6.2325,4.3625,-18.3292,-5.1065,10.7391,10.0432,4.8767,-21.2615,3.5445,4.3288,8.3346,4.5785
808.5938,-17.6192,7.6309,3.6161,8.9467,2.6691,13.0486,-0.1775,4.6986,3.4482,-18.5248,-10.4926,10.8114,10.3625,3.4852,-25.1540,3.6786,4.8701,7.1683,-0.5922
812.5000,-17.4460,4.1018,-1.8825,8.1514,2.9193,14.7260,-6.3386,3.2490,3.0839,-19.1966,-16.0612,11.2505,11.5174,2.3399,-28.3241,3.5102,6.3244,6.4327,-5.7598
816.4062,-16.6940,1.4999,-5.2195,8.6516,3.2085,13.7194,-12.2701,3.3039,3.1426,-18.9722,-19.6856,11.0829,12.6172,1.8642,-29.9524,2.8035,7.7020,6.9452,-9.1375
820.3125,-15.1334,0.5599,-6.0151,9.9514,2.7945,10.6685,-15.9708,4.9227,3.1823,-16.8299,-20.5035,9.8912,12.7549,1.8861,-29.7387,1.7421,8.2045,8.4784,-10.1451
824.2188,-12.9392,0.9033,-5.4968,10.9032,1.6593,7.0622,-16.9157,6.7803,2.8175,-13.1942,-19.4310,8.1306,11.7612,1.8311,-28.2553,0.8692,7.7940,9.9059,-9.5913
828.1250,-10.6779,1.3984,-5.3182,10.7491,0.5948,4.3151,-15.9520,7.3210,2.0087,-9.7869,-18.3205,6.6991,10.3112,1.2975,-26.6482,0.6751,7.0777,10.1288,-8.8361
832.0312,-8.9609,0.9819,-6.1596,9.8377,0.5513,2.9955,-14.3073,6.1016,1.0935,-8.3216,-18.4527,6.1454,9.3561,0.5083,-25.8475,1.1572,6.6904,9.0281,-8.6570
835.9375,-7.9777,-0.6449,-7.2401,9.3729,1.8680,2.6699,-12.6411,4.1830,0.5714,-9.1557,-19.5841,6.1912,9.4121,0.2121,-25.8883,1.7337,6.7735,7.6246,-8.7234
839.8438,-7.3055,-2.9223,-7.1049,10.3703,4.0711,2.3873,-10.8977,3.2499,0.7973,-11.0571,-20.2867,5.9706,10.3043,1.0846,-25.8909,1.6260,7.0161,7.2738,-8.0360
843.7500,-6.2150,-4.9631,-4.9876,12.7082,6.3881,1.4072,-8.9097,4.2300,1.7666,-12.2646,-19.2457,4.7846,11.5276,3.1413,-24.7397,0.4346,7.1798,8.5458,-5.8827
847.6562,-4.2767,-6.2694,-1.5786,15.1230,8.4819,-0.3413,-7.0063,6.5969,3.1074,-11.9049,-16.4007,2.7347,12.8316,5.6925,-21.9522,-1.5436,7.5626,10.7355,-2.4816
851.5625,-1.7618,-7.0740,1.4609,16.2155,10.7227,-2.3455,-5.9329,8.9257,4.2818,-10.5445,-12.9890,0.6949,14.4691,7.9022,-18.0869,-3.5204,8.8994,12.4383,1.1906
855.4688,0.5474,-8.0627,2.8340,15.6445,13.7462,-4.0123,-6.1111,10.1673,4.8961,-9.4557,-10.4985,-0.3702,16.8778,9.4621,-14.4070,-4.7963,11.7095,12.7213,4.1645
859.3750,2.0423,-9.7291,2.6607,14.4683,17.6938,-5.1803,-6.9819,10.4883,4.9574,-9.3238,-9.4548,-0.1900,20.0986,10.7644,-12.0815,-5.2640,15.6405,11.8946,6.1351
863.2812,2.9076,-11.9037,2.3506,14.2816,21.8353,-6.2448,-7.1846,10.9349,4.9155,-9.6024,-9.0791,0.5746,23.4896,12.3914,-11.5127,-5.4383,19.4387,11.2093,7.4686
867.1875,4.1046,-13.8470,3.3863,15.8259,24.9531,-7.8025,-5.5867,12.2559,5.4262,-9.1035,-8.0866,0.8531,26.0499,14.3814,-12.2179,-5.9917,21.6933,11.7245,8.6388
871.0938,6.6384,-14.8310,6.0323,18.2549,26.2128,-10.0767,-2.3466,13.9982,6.9315,-7.2650,-5.9169,0.0480,27.1310,15.9828,-13.2475,-7.1636,21.8444,13.3157,9.6803
875.0000,10.6509,-14.7211,9.0523,19.7306,25.8100,-12.5625,0.9641,14.7603,9.3015,-4.8938,-3.3347,-1.4266,26.9559,16.2114,-13.7638,-8.5127,20.6667,14.7003,10.1900
878.9062,15.1009,-14.0696,10.6758,18.9123,24.8448,-14.1929,2.4225,13.4371,11.7945,-3.6317,-1.8902,-2.3947,26.4893,14.7858,-13.3934,-9.2095,19.7946,14.4949,9.8500
882.8125,18.3804,-13.6277,10.0151,16.1020,24.4986,-13.9692,1.2285,10.3437,13.4234,-4.5442,-2.6961,-1.7977,26.7177,12.5878,-12.2282,-8.6509,20.5805,12.4145,8.9261
886.7188,19.4716,-13.6757,7.7656,13.0420,25.1542,-11.6597,-1.5990,7.1379,13.5390,-7.0590,-5.5333,0.4514,27.8790,11.1149,-10.6157,-6.9360,23.1048,9.5674,8.1954
890.6250,18.7676,-13.7360,5.6321,11.4689,26.1448,-8.0827,-3.9139,5.4893,12.2578,-9.2436,-8.9871,3.2846,29.2371,11.2457,-8.9427,-4.8566,26.0673,7.5464,8.3036
894.5312,17.8809,-12.9348,4.9897,11.6055,26.3228,-4.7349,-4.0062,5.5964,10.4250,-9.2830,-11.4459,5.1277,29.5905,12.3225,-7.4969,-3.4141,27.6501,7.0597,9.1313
898.4375,18.5207,-10.7455,5.9016,11.8912,24.9993,-2.9531,-1.7992,5.8898,9.1098,-6.9733,-12.1119,4.9393,28.1535,12.4263,-6.3718,-3.2029,26.7444,7.2782,9.8152
902.3438,21.2540,-7.5160,7.2767,10.2606,22.5442,-3.1212,1.2579,4.3118,8.9608,-3.9895,-11.2530,2.9246,25.1789,9.8057,-5.3975,-4.0656,23.6937,6.5094,9.5109
906.2500,25.0775,-4.3414,7.9565,5.9802,20.2154,-4.4430,3.4561,0.1927,9.8609,-2.6753,-9.6354,0.4398,21.8892,4.4228,-4.1703,-5.2136,20.0784,3.6927,8.2794
910.1562,28.1312,-2.3602,7.7440,0.5197,19.3675,-5.4478,4.1584,-4.8710,11.1032,-4.3030,-7.7681,-0.8420,19.7725,-1.6482,-2.2624,-5.7036,17.7352,-0.5273,7.2683
914.0625,29.0171,-2.0214,7.4798,-3.3410,20.6099,-4.9256,4.0965,-8.0001,11.9245,-8.1629,-5.6609,0.0454,19.7117,-5.4346,0.4535,-4.9699,17.6873,-4.0971,7.9002
917.9688,27.7411,-2.8861,8.1358,-3.5474,23.4607,-2.6918,4.4578,-7.2166,11.9779,-12.1425,-3.2305,2.7906,21.4891,-5.1032,3.5977,-3.1258,19.6354,-5.0613,10.6404
921.8750,25.5987,-4.0895,9.7812,-0.3634,26.6505,0.3168,5.6445,-3.1087,11.4091,-14.2626,-0.8364,6.0164,23.9268,-1.3209,6.4236,-0.9054,22.2358,-3.1046,14.3721
925.7812,24.1370,-5.0436,11.3871,3.7628,28.8080,2.6794,6.8530,1.4227,10.5465,-13.9452,0.6930,8.1122,25.5344,3.1302,8.2759,0.7104,23.8926,0.1274,17.0005
929.6875,24.0118,-5.7799,11.6953,5.9943,29.0867,3.4365,6.8640,3.2333,9.5356,-12.1209,0.6711,8.1739,25.2753,5.2626,9.0445,1.0100,23.5666,2.2273,16.9320
933.5938,24.5957,-6.6623,10.4072,5.1804,27.4338,2.7112,5.3255,1.2478,8.2634,-10.2789,-0.7351,6.5114,23.0509,3.9383,9.2252,-0.0213,21.1980,1.8334,14.3113
937.5000,24.5887,-7.7665,8.6238,2.6047,24.4586,1.5883,3.3266,-2.7931,6.6267,-9.3477,-2.4044,4.4588,19.6879,0.5682,9.4911,-1.5912,17.6220,-0.3667,11.0119
941.4062,23.1131,-8.5368,8.0685,0.8497,21.0519,1.3391,2.6472,-5.7403,4.8492,-9.2583,-2.9850,3.6177,16.4617,-2.0311,10.1066,-2.4293,14.0985,-2.2100,9.3182
945.3125,20.4415,-8.1025,9.6712,1.7082,17.9538,2.5268,4.2403,-5.4894,3.4790,-9.3321,-1.9079,4.9649,14.4016,-1.7351,10.6961,-1.4668,11.6967,-1.7438,10.2733
949.2188,17.8233,-6.0464,12.6782,4.7877,15.4353,4.6147,7.2378,-2.5567,2.9815,-8.9510,0.1571,8.3147,13.7279,1.3951,10.6083,1.4696,10.7937,1.3009,12.9519
953.1250,16.5716,-2.9672,15.0684,7.8687,13.2164,6.3555,9.4098,0.4236,3.2432,-7.8954,1.8175,12.4238,13.7304,5.2662,9.5882,5.3924,10.9000,5.3626,15.2088
957.0312,17.1091,-0.2746,15.0044,8.6705,10.6798,6.7036,8.8144,0.8278,3.4596,-6.2218,2.0418,15.6718,13.1919,7.3333,8.1416,8.5802,10.9188,8.2721,15.3043
960.9375,18.6711,0.7341,12.1930,6.5981,7.3149,5.6176,5.3485,-1.9137,2.6065,-4.0432,0.9066,16.9213,11.1522,6.3612,7.1932,9.5357,9.7541,8.8318,13.1407
964.8438,19.8602,-0.1614,8.0856,3.1271,3.1573,4.1799,0.9260,-5.9316,0.2048,-1.5685,-0.6141,16.0593,7.5629,3.0967,7.2514,7.9072,6.9636,7.5274,10.1830
968.7500,19.6458,-1.8853,4.7757,0.6047,-1.0813,3.9141,-1.9128,-8.4093,-3.2196,0.6783,-1.6124,13.9142,3.3936,-0.5040,7.7984,4.7378,3.0636,5.9124,8.1982
972.6562,18.1073,-2.8362,3.4755,0.4805,-4.3522,5.7276,-1.8984,-7.7017,-6.3942,1.8891,-2.0966,11.6336,0.0679,-2.7561,7.5244,1.8144,-0.7421,5.2712,7.8639
976.5625,16.4234,-2.1069,3.7554,2.3468,-5.9110,9.1847,0.0415,-4.4318,-8.1370,1.4944,-2.9592,9.9608,-1.4260,-3.2731,5.3463,0.5157,-3.2711,5.6774,8.3506
980.4688,16.1109,-0.2118,4.0776,4.4440,-5.8150,12.6189,1.5269,-0.8175,-8.1480,-0.1613,-5.0743,8.9050,-1.1388,-2.8664,1.4245,0.9565,-4.0419,6.1502,8.1464
984.3750,18.0032,1.2711,3.1103,5.1164,-4.8721,14.0591,0.5214,1.1006,-7.1345,-1.7038,-8.3287,8.0084,-0.0270,-2.5800,-2.7203,2.0515,-3.4487,5.6713,6.3902
988.2812,21.6108,0.9039,0.7308,4.0313,-4.0164,12.4043,-3.2378,0.8861,-6.1675,-1.5566,-11.4843,6.9630,0.8369,-2.7320,-5.2281,2.4517,-2.3176,4.1556,3.5992
992.1875,25.2886,-1.4789,-2.0405,2.2831,-3.5613,8.1139,-8.2338,-0.2359,-5.7915,0.7625,-13.0707,6.0538,1.1200,-2.7055,-5.3441,1.6374,-1.2070,2.5834,1.2214
996.0938,27.1566,-4.5879,-4.0174,1.4463,-2.9358,2.9758,-12.4744,-0.5477,-5.6219,3.9680,-12.5970,6.0307,1.4701,-1.5478,-4.1291,0.3143,-0.0272,2.2434,0.4158
1000.0000,26.2737,-6.5964,-4.8538,2.4173,-1.1788,-0.8960,-14.9770,0.8289,-4.7664,5.7410,-11.0486,7.4670,2.9228,1.1873,-3.7754,-0.2117,1.7038,3.7526,1.0741
1003.9062,23.3641,-6.4532,-5.2469,4.9135,2.1420,-2.2048,-16.2583,3.4653,-2.7204,4.5385,-10.1990,10.1048,5.9162,5.0217,-5.9538,0.8085,4.1902,6.6350,1.8679
1007.8125,20.5964,-4.5865,-6.2363,7.8608,6.3129,-1.0583,-17.5542,6.2139,0.0272,1.1012,-11.2516,12.7568,9.7070,8.8084,-10.4432,2.8192,6.8740,9.7209,1.2578
1011.7188,20.4382,-2.4871,-8.2596,10.1950,9.7100,1.3121,-19.5485,8.1775,2.2170,-1.6914,-13.9092,13.9347,12.6994,11.3833,-15.1407,4.2575,8.6153,11.9587,-1.3522
1015.6250,24.1906,-1.5402,-10.7780,11.4067,10.7957,3.4346,-21.7292,9.2111,2.7299,-0.7536,-16.6350,12.8069,13.4901,12.1220,-17.5086,3.7115,8.4665,12.9738,-5.2031
1019.5312,31.0953,-2.0440,-12.7454,11.5353,9.1658,4.4540,-22.8761,9.6689,1.4605,4.8515,-17.8898,9.7837,11.8466,11.1024,-16.3832,1.0376,6.4425,13.0210,-8.7711
1023.4375,38.6438,-3.1626,-13.4615,10.8452,5.8649,4.4089,-22.1880,9.8193,-0.5597,12.9980,-17.3329,6.2664,8.8685,8.9268,-12.7748,-2.4591,3.6411,12.5302,-10.8316
1027.3438,43.9968,-3.7825,-13.0529,9.6165,2.7381,3.8351,-20.0367,9.5778,-1.8948,19.8567,-16.0075,3.7077,6.2169,6.4427,-9.0625,-4.9554,1.5717,11.7423,-11.1599
1031.2500,45.6590,-3.5215,-12.1950,8.2292,1.3256,3.0952,-17.6921,8.7930,-1.7047,22.5619,-15.3861,2.6589,5.0323,4.5303,-7.2389,-5.4377,1.1990,10.7478,-10.3925
1035.1562,44.3056,-3.0502,-11.3715,7.3259,2.1323,2.0098,-16.2695,7.7283,-0.2151,21.1136,-16.0879,2.5023,5.3832,3.9419,-7.5674,-4.3888,2.4521,9.7969,-9.2730
1039.0625,42.1697,-3.4853,-10.3618,7.7152,4.7422,0.0921,-15.8063,7.1714,1.6799,18.0184,-17.3393,2.0466,6.6175,5.1190,-8.6392,-3.3004,4.5640,9.4704,-7.9643
1042.9688,41.3950,-5.3873,-8.4267,9.9408,8.5195,-2.8198,-15.2537,7.9748,3.2907,16.0076,-17.6129,0.5097,8.2125,8.0052,-8.6775,-3.4227,6.8958,10.4412,-5.9847
1046.8750,42.5339,-8.2088,-5.0424,13.8198,13.1688,-6.0894,-13.3901,10.3907,4.6988,15.7698,-15.9055,-1.8754,10.3089,11.9981,-6.9722,-4.7682,9.4880,12.9595,-2.7792
1050.7812,44.3189,-10.6500,-0.5528,18.3664,18.6246,-8.4313,-9.9056,13.7948,6.5318,15.6228,-12.6042,-4.0828,13.4207,16.1448,-4.3077,-6.1748,12.8240,16.4923,1.5767
1054.6875,44.9027,-11.6242,3.8278,22.2374,24.4323,-8.6693,-5.7763,17.0600,9.1730,13.3946,-9.2494,-5.1362,17.5894,19.5115,-2.1320,-6.3587,17.0151,19.8611,6.1236
1058.5938,43.6222,-11.0447,6.6996,24.4088,29.3366,-6.5816,-2.6333,19.2702,12.1501,8.8545,-7.4102,-4.8815,21.8095,21.4934,-1.2520,-5.0754,21.1905,21.8313,9.4354
1062.5000,41.8567,-9.8136,7.3406,24.6051,31.6824,-3.1769,-1.6222,20.1817,14.3103,4.4834,-7.5759,-4.0780,24.3848,21.8811,-1.1643,-3.4162,23.7686,21.7524,10.4262
1066.4062,42.1853,-9.0565,6.1213,23.2249,30.5088,-0.1277,-2.6172,20.0930,14.7001,3.7333,-8.9039,-3.7537,24.0819,20.7103,-0.5278,-2.9782,23.5465,19.8239,9.0058
1070.3125,46.3655,-9.2504,4.2096,20.9195,26.4921,1.2928,-4.3423,19.3348,13.4181,8.0952,-9.9413,-4.3620,21.1911,18.1141,1.6898,-4.5710,20.7781,16.8624,6.1717
1074.2188,53.6598,-9.9463,2.8297,18.2192,21.8510,1.0180,-5.2621,17.9138,11.6751,15.4290,-9.6866,-5.4215,17.5607,14.3575,5.3783,-7.5059,17.2893,13.8021,3.4979
1078.1250,60.8948,-10.2639,2.6070,15.4677,19.0712,0.1396,-4.5760,15.6442,10.9299,21.1055,-8.1743,-5.9168,15.4363,9.9950,9.4062,-10.0496,15.3847,11.2850,2.3322
1082.0312,64.3825,-9.7043,3.3766,12.9687,19.2907,0.0187,-2.6552,12.5900,11.7582,21.2290,-6.2389,-5.1241,15.9148,5.8937,12.4994,-10.6860,16.2734,9.5352,3.1415
1085.9375,62.3908,-8.5862,4.4591,11.0461,21.5578,1.2109,-0.7129,9.3038,13.3753,15.4595,-4.7851,-3.1988,18.1964,2.9286,14.0840,-9.1966,19.2040,8.4509,5.3302
1089.8438,56.3578,-7.7666,5.1207,9.8518,23.5820,3.0155,-0.0117,6.5378,14.2378,7.1913,-4.1997,-1.0714,20.2419,1.4688,14.4413,-6.7336,22.0072,7.7324,7.6038
1093.7500,49.9307,-7.9106,4.9308,9.0949,23.4543,4.0123,-1.1321,4.6335,13.2692,0.9466,-4.2913,0.2418,20.3442,1.0532,14.2093,-4.8795,22.6719,6.9554,8.6860
1097.6562,46.5251,-8.9371,3.9041,8.0436,21.0336,3.1940,-3.6841,3.1685,10.7342,-0.9236,-4.6353,0.3544,18.3871,0.6034,13.8329,-4.4754,20.7630,5.6556,8.0223
1101.5625,47.2014,-10.0906,2.4652,5.9584,17.9365,0.8336,-6.5326,1.2707,8.0545,0.3833,-4.9104,-0.2911,15.8132,-0.8779,13.5036,-5.1321,17.6113,3.5099,6.0921
1105.4688,50.3713,-10.5485,1.2882,2.6946,16.1655,-1.6047,-8.3548,-1.5916,6.7091,1.6611,-4.9514,-0.8521,14.3549,-3.6018,13.5411,-5.7318,15.1748,0.5708,4.1288
1109.3750,53.4014,-10.0436,1.0231,-1.0318,16.4940,-2.4877,-8.2588,-5.0113,7.1044,0.7282,-4.6098,-0.7572,14.5882,-6.8342,14.6466,-5.4226,14.5166,-2.6350,3.3748
1113.2812,54.7276,-8.9981,1.9531,-4.0194,17.9081,-1.2265,-6.2075,-7.8101,8.3128,-1.6648,-3.7119,-0.0841,15.4983,-9.4302,17.5438,-4.2552,15.1167,-5.2971,4.3077
1117.1875,54.7792,-8.1006,3.7480,-5.3790,18.5356,1.2431,-3.0658,-8.9054,8.8653,-2.6504,-2.2434,0.6154,15.4068,-10.6520,22.1668,-2.9843,15.5199,-6.7360,6.3428
1121.0938,55.0776,-7.7181,5.5407,-5.1411,17.2663,3.1116,-0.2070,-8.1777,7.9267,-0.0269,-0.5703,0.8460,13.4754,-10.6146,27.1478,-2.2924,14.7085,-6.7660,8.2475
1125.0000,56.4249,-7.6403,6.4001,-4.1656,14.7003,3.0395,1.1849,-6.5891,5.8933,5.4497,0.6260,0.6001,10.5097,-10.0136,30.2878,-2.1594,13.0046,-5.7323,9.0119
1128.9062,57.8397,-7.3392,5.9622,-3.4099,12.6178,1.2129,0.7673,-5.4148,3.9526,10.3231,0.7810,0.3594,8.3577,-9.4052,29.9175,-1.9258,11.7249,-4.1995,8.5628
1132.8125,57.2346,-6.4816,4.7621,-3.1557,12.4000,-0.6905,-0.7627,-5.2143,3.0123,11.1357,-0.0650,0.7090,8.3575,-8.7036,26.2063,-0.9524,11.8850,-2.5579,7.7774
1136.7188,53.3053,-5.2359,3.9359,-2.8507,13.7203,-0.6463,-2.1149,-5.4159,2.9152,7.3561,-1.1821,1.8984,10.1026,-7.3627,21.3294,0.7408,13.0837,-0.8765,7.7563
1140.6250,47.0062,-4.1235,4.4161,-1.7029,14.6364,2.2518,-2.2646,-4.8793,2.5941,2.0543,-1.6403,3.6842,11.5729,-5.0800,18.1832,2.4418,13.5765,0.8978,8.9025
1144.5312,41.2573,-3.5618,6.1878,0.4866,13.0788,7.0562,-1.1558,-2.9575,1.0248,-0.3374,-1.0352,5.5287,10.5999,-2.3511,18.4740,3.3517,11.5798,2.6210,10.5421
1148.4375,38.9629,-3.5091,8.2129,2.9941,8.5786,11.5093,0.2715,-0.1401,-1.8326,2.5536,0.1537,6.9527,6.5566,-0.2844,21.5726,3.2900,6.7970,3.8623,11.4287
1152.3438,40.8496,-3.5113,9.1535,4.6663,2.8412,13.5217,0.7904,2.2905,-4.8953,9.1649,0.9166,7.7663,0.9549,0.2602,25.0093,2.8681,0.9225,4.1804,10.7625
1156.2500,44.8509,-3.1055,8.3848,4.8439,-1.3405,12.5816,-0.1705,3.3008,-6.7448,15.1618,0.5248,8.0531,-3.5376,-0.5097,26.2511,2.9630,-3.3608,3.5414,8.8980
1160.1562,47.5787,-2.2377,6.4965,3.9243,-2.0422,10.1224,-2.0686,2.9404,-6.7096,16.7049,-0.8772,7.9944,-4.9394,-1.3215,24.4291,3.9346,-4.1926,2.4740,7.1182
1164.0625,46.7712,-1.3548,4.8365,3.0608,0.4430,8.5809,-3.6571,2.2372,-5.3822,13.2380,-2.4271,7.7078,-3.2907,-0.7897,20.7443,5.2609,-1.8168,1.7500,6.5950
1167.9688,42.8360,-1.1034,4.4089,3.2240,3.8641,9.7596,-3.9785,2.2411,-4.1821,7.6735,-3.3407,7.2063,-0.5261,1.3958,17.3379,5.9164,1.6171,1.8004,7.3533
1171.8750,38.3419,-1.8764,4.9946,4.4116,5.6505,13.5722,-3.1860,3.0642,-4.3319,3.9725,-3.6667,6.4481,0.9634,4.0546,15.6002,5.1965,3.5693,2.3497,8.1169
1175.7812,35.9430,-3.5381,5.2367,5.6809,4.6803,18.0036,-2.5415,3.7848,-6.0409,4.1496,-4.3128,5.3998,-0.0199,5.3220,15.2638,3.3108,2.8141,2.6179,7.2406
1179.6875,36.4245,-5.4974,3.6844,5.9841,1.8975,20.3289,-3.5593,3.3329,-8.4713,7.0476,-6.2664,4.0758,-2.7919,4.1217,14.9139,1.2617,0.1209,1.9753,4.0426
1183.5938,38.3770,-7.0344,0.0024,5.0991,-0.5696,18.8319,-6.9252,1.5946,-10.4172,9.6650,-9.6493,2.5820,-5.4494,1.1396,13.3599,0.1077,-2.4853,0.5286,-0.5251
1187.5000,39.6249,-7.6441,-4.6263,3.8584,-1.0083,13.9457,-11.9875,-0.2594,-11.1089,9.7498,-13.4391,1.1733,-6.2746,-1.5376,10.6547,0.2018,-3.2312,-0.8638,-4.4539
1191.4062,39.1213,-7.2074,-8.2673,3.4751,0.7850,8.0955,-17.1718,-0.5807,-10.5495,7.4865,-16.1634,0.2602,-4.8257,-1.9078,7.9247,0.9946,-1.7379,-1.2012,-6.1042
1195.3125,37.7184,-5.9609,-9.6142,4.5354,3.6374,4.3223,-20.9723,1.4395,-9.2541,5.0292,-17.0414,0.2678,-2.0144,0.4745,6.2370,1.5221,0.9478,-0.1034,-5.3872
1199.2188,37.2444,-4.3506,-8.9238,6.5131,6.0783,4.5113,-22.7717,5.0390,-7.7447,4.4895,-16.6259,1.3506,0.7128,4.2002,5.5592,1.1629,3.2903,1.8889,-3.7748
1203.1250,38.7583,-2.8654,-7.7851,8.2149,7.4249,8.2945,-22.9486,8.3870,-6.2673,6.1808,-16.3739,3.1356,2.3715,7.1221,4.7619,0.0767,4.3623,3.7293,-3.1289
1207.0312,41.5146,-1.8913,-7.9073,8.7715,8.0642,13.2929,-22.3267,9.9497,-4.8978,8.5386,-17.4509,4.7415,2.9102,7.9963,2.6899,-0.9618,4.3114,4.6627,-4.2781
1210.9375,43.5165,-1.6042,-9.8696,8.3314,8.8617,16.5517,-21.5105,9.6233,-3.8030,9.6117,-19.7366,5.1820,2.9619,7.3453,-0.6184,-1.1386,3.9997,4.7600,-6.4588
1214.8438,43.1654,-1.9400,-12.7756,7.8804,10.3132,16.2888,-20.6431,8.7200,-3.3080,8.7269,-21.8624,3.9685,3.2323,6.8869,-3.6438,-0.1172,4.2555,4.7665,-8.0312
1218.7500,40.5983,-2.6852,-15.0213,8.3660,12.1631,12.8753,-19.6757,8.8368,-3.6538,6.9162,-22.2810,1.5063,4.0457,8.0455,-4.3507,1.8409,5.3640,5.4125,-7.8475
1222.6562,37.5928,-3.6661,-15.5143,9.8956,13.7264,8.4447,-18.7638,10.5502,-4.6763,5.8702,-20.5112,-1.0465,5.3137,10.7899,-1.6829,4.1302,7.1039,6.7780,-6.1428
1226.5625,36.1448,-4.9089,-14.3733,11.6937,14.5457,5.4006,-18.3301,13.0013,-5.7479,6.4526,-17.5443,-2.4392,6.8071,13.7352,3.5822,6.1440,9.1427,8.2407,-4.2402
1230.4688,36.9235,-6.6209,-12.6167,12.8310,14.7937,4.8173,-18.6866,14.6816,-6.0944,8.0842,-15.0755,-2.0963,8.4196,15.3745,9.2949,7.4537,11.3653,9.0354,-3.3578
1234.3750,38.8742,-8.9577,-11.1852,13.0702,15.1269,5.8085,-19.5651,14.7334,-5.2542,9.4393,-14.1786,-0.4693,10.2209,15.3720,13.3528,7.8070,13.8702,8.9342,-3.5407
1238.2812,40.2422,-11.7388,-10.1550,13.0841,16.1882,6.2927,-20.0394,13.6830,-3.3078,9.7168,-14.4930,1.2719,12.3246,14.8327,15.0012,7.1050,16.7152,8.4691,-3.6185
1242.1875,40.1080,-14.3703,-8.7791,13.8634,18.2154,4.6144,-19.0128,13.0273,-0.7072,9.3169,-14.5652,1.9875,14.7389,15.3498,15.0878,5.4724,19.7083,8.5135,-2.2190
1246.0938,39.1453,-16.1050,-6.2694,15.8420,21.0400,0.8616,-15.9574,14.0562,2.1091,9.3772,-13.0489,1.2289,17.3168,17.6576,15.1938,3.3463,22.4544,9.5845,1.0132
1250.0000,39.0190,-16.4985,-2.6198,18.5029,24.3787,-3.0940,-11.3516,16.8874,4.9546,10.6782,-9.7835,-0.6167,19.8016,21.0261,16.4106,1.4035,24.6048,11.4464,5.0091
1253.9062,40.9936,-15.7102,1.2320,20.7946,28.0782,-4.9017,-6.4696,20.4612,7.7917,12.9506,-5.9038,-2.7208,21.9013,23.8720,18.7002,0.2619,26.0789,13.3217,8.0156
1257.8125,44.9375,-14.3801,4.0299,21.9739,32.0771,-3.4555,-2.6665,23.4099,10.4406,15.1757,-2.9374,-4.3788,23.3620,25.0297,21.2098,0.1296,27.0750,14.4997,8.8827
1261.7188,49.4974,-13.1413,5.0908,22.1321,36.1650,0.2363,-0.6619,25.0244,12.4509,16.5221,-1.6545,-5.3161,24.0592,24.5958,23.1259,0.6935,27.8846,14.8162,7.8679
1265.6250,53.1917,-12.1484,4.7456,21.9622,39.8307,3.7160,-0.2910,25.5432,13.3367,17.0025,-1.5863,-5.5833,24.0980,23.6707,24.2979,1.3805,28.6818,14.6313,6.3482
1269.5312,55.4307,-11.0254,4.0180,22.0125,42.4103,4.8299,-0.8076,25.6364,13.0066,17.2509,-1.5394,-5.2582,23.8323,23.2838,25.1699,1.8092,29.4421,14.3832,5.7235
1273.4375,56.6351,-9.3067,3.8475,22.1253,43.4530,3.2926,-1.4352,25.6465,11.9819,17.6857,-0.6147,-4.2985,23.7111,23.4710,26.2012,2.0566,30.0042,14.1558,6.4180
1277.3438,57.4786,-7.0090,4.4881,21.5815,43.0133,0.8930,-1.7522,25.2911,11.1298,17.9094,1.1203,-2.6914,23.9778,23.2962,27.3599,2.4991,30.1831,13.6428,7.7385
1281.2500,58.0542,-4.8263,5.5109,19.8202,41.6221,0.1689,-1.7136,24.0419,11.0575,16.9612,2.8041,-0.7172,24.4317,21.7552,28.1343,3.3571,29.8452,12.5044,8.6132
1285.1562,57.7604,-3.7184,6.3089,17.0726,39.9614,2.5275,-1.4219,21.7596,11.6426,14.2154,3.5727,0.9983,24.4905,18.7338,28.0046,4.3580,28.9485,10.7510,8.5286
1289.0625,55.9860,-4.1837,6.6259,14.3068,38.5005,7.2065,-0.9092,18.9493,12.1125,10.0815,3.2617,1.7858,23.5990,15.1695,26.9255,4.8574,27.5872,8.7782,7.8979
1292.9688,52.9059,-5.8069,6.6819,12.4926,37.3496,11.8386,-0.0953,16.3892,11.6463,5.8273,2.4613,1.3907,21.7203,12.2907,25.4086,4.3620,26.0300,7.0184,7.6297
1296.8750,49.5945,-7.4936,6.8657,11.8092,36.3725,14.1619,1.1069,14.4828,10.0307,2.6504,1.9560,0.2011,19.4969,10.6182,24.1802,3.0176,24.6745,5.5417,8.3392
1300.7812,47.3025,-8.2479,7.3282,11.4891,35.3823,13.5744,2.6761,12.9469,7.8365,0.8351,2.0901,-0.9866,17.8676,9.6052,23.7495,1.6036,23.8567,3.9949,9.8804
1304.6875,46.5249,-7.8859,7.8442,10.4532,34.2263,11.3857,4.4445,11.1304,5.9745,-0.2342,2.5972,-1.5180,17.3596,8.2058,24.2370,0.9746,23.5980,1.9552,11.5254
1308.5938,46.6975,-7.1036,8.0286,8.2070,32.7323,9.6639,6.1227,8.6773,5.0042,-1.2292,2.9769,-1.3208,17.5986,5.8401,25.5158,1.3789,23.4929,-0.6094,12.5422
1312.5000,46.7886,-6.8412,7.6722,5.2433,30.6708,9.6455,7.3383,5.9248,4.7747,-2.0265,3.0162,-0.8827,17.4867,2.8933,27.4242,2.2335,22.9018,-3.1963,12.6376
1316.4062,46.2334,-7.4706,6.8981,2.6286,27.8747,10.9538,7.6973,3.6723,4.6848,-1.7179,2.9729,-0.7863,15.9967,0.3315,29.7934,2.5918,21.3890,-5.0825,11.9516
1320.3125,45.3405,-8.4850,6.0440,1.1535,24.4680,12.1475,6.9193,2.5287,4.3123,0.4416,3.2892,-1.1848,13.0103,-1.1749,32.2975,1.9591,19.1019,-5.8319,10.7489
1324.2188,44.7903,-8.9424,5.4303,0.7922,20.9737,12.0295,5.0340,2.4279,3.8412,3.9955,4.1449,-1.6451,9.5225,-1.7976,34.3833,0.7903,16.7620,-5.5522,9.2053
1328.1250,44.7151,-8.2660,5.2403,0.9126,18.1072,10.5836,2.5057,2.7409,3.8960,7.2047,5.2857,-1.4787,6.9792,-2.2669,35.5004,0.2240,15.1958,-4.6927,7.5042
1332.0312,44.2833,-6.6964,5.5702,1.0006,16.3129,8.8082,0.1131,2.8652,4.9139,8.1910,6.2704,-0.2823,6.1976,-3.0485,35.5409,1.2211,14.7074,-3.5927,6.0576
1335.9375,42.2881,-5.0041,6.5022,1.1949,15.3698,7.7090,-1.4370,2.7346,6.6045,6.4610,6.8760,1.7451,6.6832,-3.7899,35.1028,3.7712,14.7657,-2.2244,5.4713
1339.8438,38.2989,-3.7346,8.0327,2.1166,14.4129,7.4242,-1.9405,2.7729,7.9848,3.5039,7.2489,3.9342,6.9004,-3.6157,35.2298,6.8033,14.2873,-0.3909,6.1153
1343.7500,33.3248,-2.6969,9.8759,4.1298,12.4381,7.2823,-1.8370,3.3374,7.9999,1.8155,7.6496,5.5829,5.3348,-2.0622,36.6817,8.8861,12.3512,1.8048,7.6163
1347.6562,29.2630,-1.2041,11.3640,6.7201,8.9786,6.7047,-1.8952,4.1862,6.2441,2.9930,8.0424,6.3332,1.5778,0.2058,39.2306,9.1856,8.8441,3.6960,8.8050
1351.5625,27.4418,1.1140,11.6618,8.6167,4.4775,6.0593,-2.6370,4.5051,3.2130,6.3829,7.9579,6.2374,-3.3596,1.6295,41.5688,7.9561,4.5673,4.3348,8.3585
1355.4688,27.4383,3.6758,10.2531,8.6477,0.0744,6.5780,-3.9446,3.5326,-0.0810,9.4207,6.8197,5.5596,-7.7137,0.8760,42.0143,6.2331,0.7439,3.1829,5.7703
1359.3750,27.2507,5.1628,7.3740,6.6592,-3.0571,9.2913,-5.1859,1.2671,-2.7803,9.4868,4.4910,4.5732,-10.0923,-2.0424,39.6002,5.0304,-1.6985,0.6666,1.8956
1363.2812,24.8406,4.5389,4.0227,3.7280,-4.3634,13.8715,-5.7805,-1.3688,-4.5888,5.8902,1.5527,3.5407,-10.2359,-5.6161,34.7924,4.6997,-2.5575,-1.9097,-1.4565
1367.1875,19.8827,2.0714,1.4473,1.4540,-4.1258,18.4686,-5.7410,-3.0893,-5.6442,0.4553,-0.9846,2.8096,-8.9311,-7.8643,29.2999,4.9107,-2.2525,-3.1176,-2.6984
1371.0938,14.2804,-0.5718,0.4148,0.8719,-3.1406,20.8438,-5.7199,-3.1005,-6.0852,-3.7361,-2.3593,2.7921,-7.2717,-7.7670,25.0736,5.1535,-1.3768,-2.3105,-1.5776
1375.0000,10.9207,-1.3901,0.7492,1.8254,-2.1517,19.9872,-6.5035,-1.5747,-5.7986,-4.4761,-2.6079,3.7046,-5.9165,-5.9598,23.1614,5.2434,-0.3196,-0.0190,0.6141
1378.9062,11.5577,0.4509,1.4545,3.2561,-1.4528,16.9110,-8.3822,0.6029,-4.6189,-1.8335,-2.5454,5.2379,-4.8916,-4.1346,23.1811,5.3699,0.7669,2.4497,1.9188
1382.8125,15.4599,3.8645,1.3267,4.1111,-0.8942,13.9153,-10.9500,2.5492,-2.7717,2.1501,-3.1892,6.5073,-3.9551,-3.6403,23.7166,5.6995,1.7429,3.8949,1.0347
1386.7188,19.9064,6.5060,-0.3641,4.1042,-0.1952,12.8607,-13.5147,3.9457,-1.0598,5.1028,-5.0761,6.4794,-3.0694,-4.4343,23.3027,5.9783,2.3247,3.9370,-1.8904
1390.6250,22.1704,6.4340,-3.5360,3.7578,0.7389,13.8258,-15.7319,5.0281,-0.4793,5.9663,-7.9838,4.6731,-2.5051,-5.2247,21.2985,5.5838,2.2230,3.0933,-5.5293
1394.5312,21.4499,3.5323,-7.4285,3.8028,1.7452,15.2350,-17.8466,6.1248,-1.4743,5.4369,-11.2112,1.6180,-2.5024,-4.6395,18.1069,4.0532,1.4754,2.2650,-8.4126
1398.4375,19.2571,-0.3981,-11.0157,4.5379,2.5888,15.3327,-20.2655,7.2504,-3.4416,5.0420,-14.1152,-1.3471,-2.8612,-2.4111,14.7132,1.6368,0.6284,2.1086,-9.8804
1402.3438,18.0110,-2.9568,-13.4122,5.7028,3.2081,13.7442,-22.8345,8.1411,-4.9825,5.7489,-16.4404,-2.8828,-2.9128,0.4186,11.9789,-0.6622,0.5069,2.7532,-10.2547
1406.2500,19.0019,-2.8627,-14.1183,6.8892,3.8024,11.7859,-24.5617,8.6395,-4.8247,7.2459,-18.2160,-2.5196,-1.9753,2.4073,10.2204,-1.6954,1.6644,3.9543,-10.2414
1410.1562,21.3637,-0.7797,-13.1335,7.9962,4.6858,11.2474,-24.2192,8.9681,-2.7655,8.3619,-19.4173,-0.9506,0.0573,2.9199,9.2991,-1.0052,3.9171,5.3953,-10.1952
1414.0625,22.8383,1.3198,-11.0031,9.2342,6.0183,12.6943,-21.4667,9.5403,0.0931,8.1373,-19.7861,0.4708,2.4940,2.5826,9.0274,0.7676,6.3467,6.8056,-9.9190
1417.9688,21.6680,1.6678,-8.7506,10.6646,7.6057,14.7937,-17.5490,10.4469,2.0401,6.6226,-19.0306,0.6461,4.2129,2.6103,9.4826,2.2528,7.8105,7.8472,-9.1107
1421.8750,18.0755,-0.1225,-7.5655,11.7801,8.9121,15.3227,-14.7978,11.1504,1.8997,4.8252,-17.2246,-0.6298,4.3588,3.6250,10.9500,2.2460,7.6060,8.0283,-7.9527
1425.7812,14.1742,-3.0712,-8.2383,11.6609,9.2996,13.0768,-15.0833,10.8037,-0.1947,3.9769,-14.9964,-2.7447,2.8685,5.0256,13.5595,0.4708,5.8381,6.9081,-7.2020
1429.6875,12.4323,-5.8633,-10.5979,9.7239,8.3923,9.0595,-18.3005,9.0401,-2.9239,4.7750,-13.2421,-4.9053,0.4768,5.4877,16.9471,-2.3302,3.2894,4.5398,-7.6114
1433.5938,13.9385,-7.9222,-13.3764,6.4670,6.3863,5.8650,-22.1255,6.5657,-4.6537,7.1239,-12.5169,-6.7465,-1.7281,4.1781,20.2720,-4.9845,0.9734,1.7643,-9.1567
1437.5000,17.7923,-9.6122,-14.7532,3.4845,4.1249,5.6550,-23.4128,4.9341,-4.3847,10.3974,-12.5764,-8.4033,-2.8314,1.6257,22.6481,-6.6635,-0.2739,-0.0277,-10.7879
1441.4062,21.9725,-11.4968,-13.3754,2.5630,2.8256,8.3468,-20.3413,5.5249,-2.1455,13.8487,-12.4695,-10.0594,-2.3727,-0.5381,23.7165,-7.2680,0.0469,0.3450,-11.0211
1445.3125,24.8712,-13.4334,-9.2304,4.4481,3.5133,11.5420,-13.7556,8.4671,1.3064,16.8309,-11.1729,-11.4675,-0.3412,-0.8018,23.9376,-7.2300,2.1074,3.0597,-8.9820
1449.2188,26.2485,-14.4150,-3.7442,8.2298,6.4109,12.3413,-6.6707,12.3926,5.0868,18.8199,-8.3248,-11.9635,2.9278,1.0315,24.3361,-7.0132,5.7263,7.0704,-5.1014
1453.1250,26.9656,-13.3707,1.0373,11.8810,10.6609,9.6470,-2.2552,15.3059,8.5780,19.4550,-4.5284,-11.0250,6.7996,3.6696,25.8004,-6.7761,10.2557,10.6946,-0.9017
1457.0312,27.9023,-10.2372,3.6756,13.6014,14.6461,5.1148,-1.7542,15.9506,11.4196,18.7115,-1.0115,-8.8859,10.3912,5.3272,28.3799,-6.4313,14.5758,12.6316,1.9777
1460.9375,29.0736,-6.3138,4.1444,12.9756,16.8344,1.9684,-3.8442,14.6202,13.3191,17.0425,1.1013,-6.5989,12.8067,5.0822,31.0897,-5.9371,17.4395,12.6875,2.7898
1464.8438,29.6750,-3.4909,3.6681,11.0888,16.6847,2.5979,-5.8177,12.7748,14.0284,15.2180,1.3955,-5.3809,13.5810,3.4966,32.4395,-5.4708,18.1233,11.6981,1.9985
1468.7500,28.9120,-2.9048,3.7394,9.5550,15.0052,6.8231,-5.6167,11.7830,13.5738,13.8319,0.2857,-5.7069,13.0597,2.0247,31.4145,-5.2953,16.9680,10.7528,0.7505
1472.6562,26.8107,-4.0983,5.0511,9.2454,13.4439,12.1524,-3.1657,11.8141,12.4737,12.8204,-1.3446,-6.8969,12.3231,1.7319,28.2732,-5.4714,15.3033,10.3423,-0.0079
1476.5625,24.2839,-5.3878,7.1017,9.7015,13.3775,15.7559,-0.0971,11.7729,11.6003,11.4508,-2.6573,-7.5832,12.5324,2.3892,24.5670,-5.7345,14.6402,10.0744,-0.0709
1480.4688,22.4253,-5.1588,8.7030,9.6261,14.9433,16.5282,1.7496,10.3022,11.6487,8.9012,-3.1876,-6.7363,14.0715,2.6701,22.2723,-5.6961,15.6122,9.1166,0.1645
1484.3750,21.6749,-3.0599,8.9426,7.9876,16.9337,15.6226,1.7700,6.9934,12.5902,5.0243,-2.8654,-4.4514,16.1455,1.2557,22.5524,-5.1979,17.4643,6.9477,0.2676
1488.2812,21.5675,-0.1564,7.8586,4.8332,17.6870,15.1511,0.8777,2.7958,13.6034,0.6468,-1.8604,-1.8691,17.2521,-2.0702,24.9960,-4.4691,18.5615,3.8011,0.2225
1492.1875,21.2270,2.0310,6.3677,1.2163,16.3649,16.2405,0.5535,-0.6968,13.6352,-2.9171,-0.4407,-0.2971,16.2809,-6.2035,27.9185,-3.9053,17.6233,0.4891,0.3940
1496.0938,20.1266,2.7780,5.5844,-1.6076,13.6642,18.0986,1.5746,-2.4591,12.2165,-4.7988,1.0821,-0.2406,13.4338,-9.5075,29.5829,-3.6503,14.7643,-2.1762,1.1206
1500.0000,18.4549,2.6709,6.0959,-3.0073,11.3894,18.8168,3.4887,-2.7225,9.8897,-5.1936,2.3893,-1.1059,10.2058,-10.9346,29.4974,-3.3817,11.5012,-3.8546,2.3580
1503.9062,16.8284,3.0050,7.7087,-3.1909,11.1646,17.1567,5.1685,-2.5890,7.8751,-5.1272,3.2547,-1.7730,8.3598,-10.6080,28.8181,-2.5467,9.6606,-4.6933,3.7013
1507.8125,15.6801,4.6157,9.7491,-2.7533,13.2399,13.7684,5.8482,-2.9418,7.2009,-5.5447,3.6741,-1.5143,8.6421,-9.4874,29.4861,-0.8847,10.0105,-4.9692,4.7363
1511.7188,14.8913,7.1271,11.5823,-2.0504,16.3121,10.8211,5.7140,-3.6103,7.9653,-6.5061,3.8944,-0.4861,10.2472,-8.4929,32.6697,1.2260,11.7000,-4.7524,5.3776
1515.6250,13.9457,9.2135,12.9291,-0.9619,18.5115,10.3774,5.6019,-3.5045,9.2990,-7.2074,4.2559,0.5798,11.4861,-7.8331,37.6598,2.9550,12.9765,-3.9082,5.8918
1519.5312,12.3790,9.6143,13.8238,0.8176,18.7987,12.8651,6.1741,-1.5911,10.0361,-6.8401,4.9236,1.1531,11.1473,-7.0207,42.1067,3.6470,12.6211,-2.3947,6.6235
1523.4375,10.0559,8.0590,14.3886,3.3078,17.6757,16.8537,7.3542,2.1282,9.5390,-5.5352,5.7147,1.4280,9.4565,-5.4464,43.5178,3.3878,10.9369,-0.5192,7.7051
1527.3438,7.0432,5.4020,14.6956,6.0690,16.6499,20.2148,8.4859,6.4618,8.0281,-4.5044,6.1862,2.1290,7.8413,-2.9608,40.9751,3.0099,9.4665,1.1445,9.0088
1531.2500,3.3033,2.9603,14.8143,8.4751,16.8762,21.6361,8.9821,9.8144,6.2152,-5.1426,5.9481,3.7934,7.6733,0.0047,35.8127,3.4835,9.6482,2.1460,10.3332
1535.1562,-1.3593,1.6692,14.9034,10.1583,18.0754,21.2820,8.8104,11.2604,4.6246,-7.7727,4.9739,6.2043,9.0253,2.7927,30.7395,5.1610,11.5075,2.5164,11.5826
1539.0625,-6.9281,1.7112,15.1570,11.2018,18.6277,20.2366,8.3809,11.0504,3.2164,-11.1014,3.6670,8.5115,10.4973,4.9763,28.0427,7.4883,13.4877,2.7623,12.7323
1542.9688,-12.7019,2.7670,15.5981,11.9278,16.8122,19.4113,8.0127,10.2192,1.6124,-12.9463,2.6244,9.9496,10.3066,6.5294,28.1912,9.4277,13.6029,3.4732,13.6331
1546.8750,-17.2731,4.4804,15.9270,12.5141,12.2409,18.9467,7.5610,9.7045,-0.3427,-11.7700,2.2656,10.5062,7.7799,7.6434,29.8284,10.2446,11.0117,4.8546,13.9156
1550.7812,-19.2015,6.6353,15.6381,12.8219,6.3525,18.5268,6.5968,9.7287,-2.2566,-7.8619,2.5864,10.9062,4.0158,8.4355,31.0554,10.0114,6.7363,6.5581,13.1856
1554.6875,-18.0017,8.9364,14.3801,12.5833,1.5407,18.1020,4.9520,9.8722,-3.4483,-3.2261,3.1839,11.8802,1.1242,8.8343,30.9204,9.4211,2.9249,7.9194,11.3948
1558.5938,-14.6722,10.7575,12.2742,11.7280,-0.4572,18.1527,3.0389,9.6314,-3.5860,-0.2234,3.4905,13.3454,0.6024,8.6954,29.9249,9.0941,1.2290,8.3789,9.0321
1562.5000,-11.2387,11.2842,9.8789,10.4931,0.2842,19.1521,1.5454,8.8817,-3.1164,0.0289,3.0329,14.2591,2.1311,7.9699,29.2173,8.9920,1.5844,7.7479,6.8710
1566.4062,-9.5269,10.0691,7.7685,9.1890,2.0196,20.7769,0.7253,7.8604,-3.0448,-1.6828,1.5714,13.3626,3.7724,6.7422,29.2462,8.4548,2.3621,6.1754,5.3953
1570.3125,-10.0333,7.5278,6.0470,7.8721,2.6372,21.7753,-0.0370,6.8063,-4.1804,-3.3871,-0.8875,10.2563,3.4474,5.1412,29.0888,6.8322,1.7506,3.9614,4.3667
1574.2188,-11.7516,4.8396,4.2205,6.3046,1.1431,20.8457,-1.8803,5.7176,-6.4506,-3.4250,-4.1216,5.9151,0.5565,3.2960,27.0797,4.1612,-0.7501,1.4625,2.9542
1578.1250,-13.1028,3.1923,1.5847,4.3160,-1.7289,17.8684,-5.5248,4.5145,-8.8686,-1.5966,-7.7133,2.1601,-3.5141,1.4408,22.2475,1.2947,-3.9077,-0.8422,0.4032
1582.0312,-13.2545,2.9201,-2.1476,2.2479,-4.1389,14.3416,-10.5171,3.4133,-10.2139,0.8212,-11.0968,0.4484,-6.3800,0.0569,15.3441,-0.6465,-5.7112,-2.3083,-3.2665
1585.9375,-12.7969,3.2635,-6.4869,0.9935,-4.4503,12.4277,-15.3698,3.0311,-9.8980,2.0731,-13.6993,0.9063,-6.3714,-0.1978,8.5599,-1.0520,-4.9079,-2.3352,-7.1304
1589.8438,-13.2388,3.0150,-10.3899,1.4443,-2.2648,13.2289,-18.5667,3.9659,-8.3347,1.1309,-15.1607,2.3561,-3.6724,1.1298,4.0882,-0.1967,-1.9088,-0.8010,-9.9677
1593.7500,-15.7207,1.5598,-12.9206,3.7080,1.4579,15.7126,-19.6419,6.1450,-6.5477,-1.7185,-15.5022,3.2860,-0.0846,3.8229,2.6640,1.0656,1.5879,1.6197,-11.1589
1597.6562,-19.9627,-0.5516,-13.8424,6.7659,5.1172,17.3202,-19.4297,8.5708,-5.3764,-5.1605,-15.1017,2.9706,2.3122,6.8729,3.2304,1.9877,3.8652,3.6470,-11.1480
1601.5625,-24.2808,-2.0163,-13.6945,8.9698,7.4075,15.9333,-19.2709,9.8450,-4.9387,-7.6508,-14.4571,1.8594,2.5399,8.9418,3.9670,2.3968,4.3019,4.1302,-11.0658
1605.4688,-26.6735,-1.8677,-13.3180,9.1120,7.8585,11.6644,-19.8575,9.1789,-4.7495,-8.1527,-13.8957,0.9891,1.1582,9.1847,3.8037,2.5838,3.5187,2.8697,-11.7942
1609.3750,-26.1575,-0.3374,-13.2348,7.2837,6.7994,6.9509,-20.7173,7.0947,-4.3043,-6.4796,-13.4379,0.9846,-0.4069,7.8414,3.1713,2.8006,2.6070,0.8765,-13.2258
1613.2812,-23.3673,1.2597,-13.3621,4.8351,4.9927,4.7492,-20.7750,5.1753,-3.5527,-3.2624,-12.9012,1.5250,-0.9667,6.1042,3.4137,2.8991,2.2182,-0.2330,-14.3306
1617.1875,-20.0210,1.5574,-13.2347,3.4319,3.2854,6.2070,-19.4623,4.9717,-2.8274,0.2993,-12.1239,1.7057,-0.2212,5.3026,5.4250,2.4869,2.2953,0.6567,-13.9828
1621.0938,-17.7173,0.2446,-12.4725,3.9172,2.4153,9.7005,-17.3458,6.8965,-2.3326,2.8268,-11.0956,0.9361,1.4136,6.0064,8.7144,1.4503,2.5548,3.3610,-11.8745
1625.0000,-16.9808,-1.6911,-11.0671,5.8456,2.8770,12.0754,-15.6632,9.9859,-1.7247,3.2898,-9.8899,-0.4520,3.4495,7.7365,11.7101,0.2984,3.1285,6.5350,-8.7693
1628.9062,-17.2029,-2.8133,-9.2752,8.0062,4.7489,11.1408,-15.1591,12.7169,-0.2526,1.5436,-8.5082,-1.4449,5.7739,9.4949,13.0321,-0.0978,4.6615,8.6704,-5.9014
1632.8125,-17.3946,-2.4938,-7.2984,9.4481,7.5627,7.4025,-15.2895,14.1857,2.5841,-1.4609,-6.8432,-1.2449,8.5389,10.6418,12.6258,0.7557,7.7162,9.1870,-4.0326
1636.7188,-17.0751,-1.5239,-5.1135,10.1412,10.4190,3.6104,-14.5864,14.6604,6.4149,-4.1004,-4.8574,-0.0470,11.7084,11.3584,11.7715,2.3852,12.0313,8.7619,-2.9501
1640.6250,-16.6012,-1.5381,-2.6421,10.7562,12.4197,2.4735,-11.9526,15.0733,10.0025,-5.0531,-2.8206,0.9993,14.7919,12.2924,11.9536,3.5011,16.3751,8.6483,-1.7991
1644.5312,-16.7551,-3.6797,-0.0796,11.8306,13.1920,4.4157,-7.7718,15.9577,11.9684,-4.2252,-1.3265,0.6535,17.0777,13.7171,13.5631,2.8996,19.2405,9.5581,0.0657
1648.4375,-18.0046,-7.5742,1.9975,13.1182,13.1126,7.2338,-3.8042,16.8332,11.7260,-2.8955,-0.9549,-1.4155,18.1732,14.9994,15.5487,0.4553,19.8846,11.0446,2.4553
1652.3438,-20.0573,-11.4431,2.9505,13.7386,13.0111,7.9571,-1.8506,16.6444,9.8987,-2.8269,-1.7764,-4.3067,18.3552,14.9485,16.3251,-2.6107,18.8737,11.9030,4.4772
1656.2500,-22.0382,-13.2935,2.6191,13.0103,13.5458,5.3798,-2.2718,14.8910,7.8874,-4.9155,-3.1175,-6.5016,18.3969,12.8483,15.1643,-4.4790,17.6751,11.2537,5.2978
1660.1562,-23.1059,-12.2739,1.6147,11.2095,14.7354,1.1585,-3.6407,12.3998,6.9163,-8.4165,-3.8674,-6.9196,19.0101,9.3164,12.8825,-3.9775,17.6078,9.3793,4.8725
1664.0625,-23.0036,-9.1826,1.0418,9.5179,16.0257,-1.4653,-3.8854,10.9242,7.2812,-11.4375,-3.1928,-5.5857,20.3706,6.1635,11.2354,-1.3859,18.9739,7.5742,4.0230
1667.9688,-22.1372,-5.7935,1.7886,9.1090,16.8122,-0.2987,-1.9980,11.7544,8.3327,-12.3973,-1.1440,-3.4368,22.0950,5.1930,11.5329,1.8138,21.0141,7.0805,3.7997
1671.8750,-21.1674,-3.5742,3.9075,10.0931,16.9435,3.9732,1.1449,14.4488,9.1215,-11.3086,1.3440,-1.5098,23.6137,6.7748,13.6411,4.0302,22.6329,7.9671,4.6693
1675.7812,-20.4608,-2.7726,6.5802,11.2296,16.7389,8.2890,3.5775,16.8199,9.1353,-9.8045,3.1118,-0.2221,24.5550,9.3167,16.1910,4.6375,23.2360,8.8993,6.1884
1679.6875,-19.8252,-2.4859,8.7041,10.7296,16.5149,9.6778,4.0075,16.3559,8.5573,-9.8208,3.6190,0.7015,24.8126,10.1546,17.7793,4.2251,23.0117,8.0561,7.4021
1683.5938,-18.7195,-1.5321,9.6517,7.5923,16.0978,7.7159,3.0304,12.0777,7.9378,-11.9901,3.3147,1.7051,24.3413,7.3248,18.1074,3.9125,22.5371,4.5309,7.6030
1687.5000,-16.7856,0.6179,9.6253,2.4604,14.8684,4.9820,2.7119,5.4082,7.6694,-15.1134,3.2375,2.8447,23.0243,0.9869,18.0921,4.3714,22.1821,-0.8518,6.8333
1691.4062,-14.3308,3.5245,9.3836,-2.6703,12.4123,5.1097,4.8407,-0.6548,7.7558,-17.2180,4.1653,3.7344,20.8601,-6.5248,18.8921,5.3779,21.8903,-5.9406,5.7802
1695.3125,-12.4145,6.1998,9.6236,-5.6829,9.2326,9.9428,9.3147,-3.4777,8.0202,-17.3554,6.0076,4.0267,18.3239,-12.0722,20.7443,6.2064,21.4780,-8.5928,5.2378
1699.2188,-12.4257,7.8344,10.5496,-5.6157,6.7917,17.9984,14.0589,-2.4203,8.4567,-16.5855,7.9304,3.9316,16.4449,-13.5746,22.6548,6.4301,21.0479,-7.9746,5.6219
1703.1250,-15.3403,8.2743,11.9303,-3.1069,6.6279,25.4052,16.5961,0.9883,9.3034,-17.1984,9.0900,4.2248,16.2964,-11.1299,23.2337,6.3647,20.9995,-4.9361,6.8789
1707.0312,-21.0561,7.9964,13.4815,0.1972,9.0964,28.5730,15.9921,4.3254,10.7189,-20.7024,9.3371,5.6514,18.1302,-6.7499,21.9480,6.7512,21.5418,-1.2984,8.7231
1710.9375,-28.2165,7.7339,15.1373,2.7252,12.7424,26.5753,13.5567,5.9325,12.3790,-26.2348,9.2831,8.2038,20.8438,-3.0272,19.6919,7.9852,22.1794,1.3267,10.8624
1714.8438,-34.7107,8.0746,16.9304,3.7578,14.9585,21.5455,11.7175,5.7232,13.4451,-30.8289,9.6750,10.9170,22.3750,-1.6856,18.1504,9.6230,21.7748,2.3362,12.9808
1718.7500,-38.6707,9.2340,18.6382,3.4815,13.6217,16.9550,12.0143,4.7128,13.0495,-31.5008,10.6384,12.4296,20.9413,-2.8866,18.4711,10.6570,19.3192,2.1180,14.5905
1722.6562,-39.4524,11.0078,19.6316,2.5110,8.5754,15.1913,13.8892,3.8817,10.9498,-27.5793,11.4711,11.9250,16.3042,-5.5263,20.3487,10.3599,14.8474,1.4465,15.0646
1726.5625,-38.0130,12.8409,19.2072,1.3950,1.8292,16.2073,15.2578,3.3979,7.7898,-21.3988,11.2002,9.7312,10.0741,-8.1189,22.2781,8.9673,9.6737,0.8778,13.9932
1730.4688,-36.3898,14.0164,17.2041,0.4518,-3.7542,18.0400,14.3372,2.7523,4.6881,-16.7096,9.4350,7.1132,4.7152,-9.6285,22.7428,7.5770,5.5941,0.5617,11.6149
1734.3750,-36.5191,13.9939,14.3560,-0.1325,-6.3778,18.5623,11.1641,1.4944,2.4422,-15.9797,6.7720,5.4208,1.8945,-9.8427,21.3388,7.3102,3.5731,0.4320,8.8732
1738.2812,-39.0876,12.7948,11.9649,-0.2330,-6.4415,17.0553,7.5466,-0.2164,0.9914,-18.6747,4.3741,5.2421,1.3831,-9.2576,18.9317,8.4245,2.9578,0.4370,6.8908
1742.1875,-43.1469,11.1581,11.0375,0.1112,-6.0588,14.5537,5.5562,-1.7350,-0.4026,-21.8411,3.0663,6.1720,1.3521,-8.6816,16.8029,10.1288,1.9434,0.5609,6.1772
1746.0938,-46.7570,10.2155,11.5384,0.5813,-7.3370,12.9534,5.8929,-2.5210,-2.3914,-22.4947,2.7253,7.2905,-0.1351,-8.7735,15.5928,11.2601,-0.9587,0.6983,6.2175
1750.0000,-48.2490,10.7589,12.3965,0.7137,-10.7149,13.7064,7.4973,-2.5518,-4.8304,-19.9003,2.5027,7.8999,-3.5589,-9.6657,14.9597,11.2551,-5.5583,0.6384,5.8668
1753.9062,-47.2665,12.5802,12.3289,0.3044,-14.5932,16.9993,8.6443,-2.1532,-6.7416,-15.9783,1.6921,7.9335,-7.4976,-10.8075,14.1809,10.5987,-9.8425,0.2755,4.3183
1757.8125,-44.9016,14.4564,10.8557,-0.2531,-16.5015,21.7632,8.4547,-1.4747,-7.0148,-13.6289,0.4653,7.7928,-9.6411,-11.1638,13.0490,10.3854,-11.2668,-0.1386,1.8700
1761.7188,-42.8709,14.9437,8.6794,-0.1003,-14.9084,26.2680,7.4616,-0.2308,-5.2962,-14.4209,-0.2161,7.8640,-8.4903,-9.7891,12.1652,11.3840,-8.5784,-0.0183,-0.2088
1765.6250,-42.3497,13.4821,7.0906,1.4388,-10.3466,28.8631,6.7920,1.9349,-2.3413,-17.5113,0.5021,8.1856,-4.4643,-6.5295,12.3042,13.4038,-2.8160,1.1479,-0.7031
1769.5312,-43.2858,10.9500,6.8630,4.1633,-5.0802,28.5938,6.8246,4.7774,0.4616,-20.5409,2.4162,8.5249,0.3842,-2.3854,13.4169,15.4761,3.2703,3.2929,0.4212
1773.4375,-44.6240,9.1334,7.5511,6.8941,-1.6249,25.6087,6.6605,7.2074,2.0239,-21.6057,4.1266,8.7126,3.7789,0.8491,14.2319,16.6516,6.9606,5.6362,1.7524
1777.3438,-45.1953,9.4115,7.7959,8.1987,-1.2046,21.2524,4.9709,7.9164,2.2146,-20.6102,3.9387,8.8529,4.6759,1.5978,12.9468,16.6935,7.2013,7.1434,1.3629
1781.2500,-44.5796,11.6481,6.4207,7.4802,-3.1669,17.6490,1.4486,6.4945,1.7613,-18.9866,1.1424,9.1812,3.7299,-0.4430,8.5544,16.0836,5.0048,7.2912,-1.7126
1785.1562,-43.3505,14.2070,3.4250,5.5655,-5.6203,16.7175,-2.5552,4.0770,1.5373,-18.2355,-3.3546,9.7098,2.5482,-3.9790,1.7545,15.3972,2.4473,6.5273,-6.6038
1789.0625,-42.6208,15.1521,0.0464,4.2316,-6.7161,18.9997,-4.9623,2.7940,1.8555,-18.6950,-7.5896,10.0326,2.4107,-6.8626,-5.3223,14.6831,1.1246,5.9913,-11.0833
1792.9688,-43.3028,13.7130,-2.1824,4.9352,-5.6832,23.0588,-4.7794,4.2602,2.3273,-19.5891,-9.8967,9.5376,3.4415,-7.4707,-10.4178,13.4575,1.2215,6.6493,-13.1004
1796.8750,-45.6062,10.8313,-2.6234,7.6922,-3.0527,26.0718,-3.1870,8.2359,2.3324,-20.1308,-10.0022,7.8954,4.7545,-5.7537,-12.5029,11.3330,1.7593,8.5032,-12.2240
1800.7812,-49.0078,8.3167,-1.9938,11.0078,-0.1254,25.4796,-2.7913,12.5993,1.6304,-20.4695,-9.0252,5.4175,5.3108,-3.1736,-12.1994,8.6703,1.6405,10.5259,-9.8914
1804.6875,-52.5555,7.3017,-1.7175,12.9592,1.8407,20.6882,-5.4786,14.7919,0.5717,-21.4838,-8.4338,2.9446,4.7422,-1.5591,-11.0462,6.5705,0.5827,11.4084,-8.2739
1808.5938,-55.2255,7.3062,-2.7006,12.6161,2.2330,13.5745,-10.6110,13.6929,-0.2401,-23.6062,-8.8430,1.3087,3.5546,-1.7348,-10.2842,6.0962,-0.7341,10.5507,-8.6395
1812.5000,-56.1908,6.7467,-4.5433,10.6947,1.2597,7.2891,-15.1721,10.4585,-0.4849,-25.8989,-9.6236,0.7644,2.6804,-2.9644,-10.1230,7.3379,-1.2701,8.5149,-10.4605
1816.4062,-55.0480,4.4982,-5.8387,8.9409,-0.2517,4.1081,-15.9226,7.6300,-0.3610,-26.4664,-9.5853,0.8285,2.8313,-3.6171,-9.9452,9.1613,-0.3810,6.5881,-11.9096
1820.3125,-52.0454,1.1605,-5.3159,8.7518,-1.2792,3.8957,-11.9254,7.1882,-0.3164,-24.0507,-8.0897,0.6451,4.1358,-2.5066,-9.0948,9.9455,1.8570,5.8197,-11.3012
1824.2188,-48.1689,-1.1575,-2.8870,10.1420,-1.0950,4.3759,-5.3838,9.0918,-0.5511,-19.4298,-5.6277,-0.4080,6.2178,0.1669,-7.4848,8.7821,4.8674,6.3072,-8.3418
1828.1250,-44.8419,-0.5083,0.2548,11.8585,0.3548,3.0678,-0.0347,11.4527,-0.7666,-15.2125,-3.3892,-2.3190,8.5171,3.0002,-5.5499,6.1687,8.0007,7.2768,-4.2744
1832.0312,-43.2000,3.0750,2.5589,12.4990,2.3881,-0.5791,1.6877,12.1781,-0.4000,-13.9424,-2.2374,-4.5014,10.5681,4.5116,-3.7291,3.6153,10.7800,7.8365,-0.9057
1835.9375,-43.3239,7.1728,3.3054,11.6809,3.9746,-4.5312,0.4692,10.7217,0.8752,-15.9886,-1.9937,-6.2032,12.1238,4.2772,-2.0647,2.4719,12.8896,7.7367,0.6594
1839.8438,-44.0557,8.4916,3.1022,10.3071,4.4508,-5.5861,-0.5494,8.5136,2.8482,-19.0875,-1.6452,-6.9237,13.1957,3.1835,-0.3123,2.9458,14.1347,7.5104,0.6279
1843.7500,-43.7397,5.2479,3.3160,9.7547,4.1312,-1.8391,1.5996,7.7472,4.9535,-20.1399,-0.2670,-6.5666,14.0861,2.6573,1.6076,4.1102,14.5718,7.9200,0.1368
1847.6562,-41.5228,-1.3993,4.9313,10.7116,4.3147,5.6581,7.2159,9.5489,6.7657,-17.9281,2.1560,-5.3171,15.3482,3.5599,3.3331,4.8554,14.7093,9.2324,0.3299
1851.5625,-38.2559,-8.0252,7.7618,12.6419,6.5238,13.3318,13.5458,13.0480,8.3403,-14.4699,4.7138,-3.4472,17.5484,5.6544,4.2941,4.9134,15.4455,10.9564,1.6583
1855.4688,-36.1545,-11.2618,10.6177,14.2938,11.3898,17.3341,16.7986,16.0867,10.0673,-13.6884,6.3433,-1.2368,20.8528,7.9997,4.2473,5.0269,17.5609,12.2465,3.8406
1859.3750,-37.2464,-10.0290,12.2383,14.7611,17.9732,15.9899,14.9680,16.9439,12.1576,-18.2654,6.6899,0.9789,24.7015,9.8159,3.5679,6.0972,21.0219,12.5809,6.3029
1863.2812,-41.6643,-6.0237,12.2119,14.1639,24.1067,10.7362,9.2924,15.6266,14.2446,-27.1697,6.3096,2.7814,27.9035,10.9996,2.9592,8.0842,24.6720,12.1031,8.5948
1867.1875,-47.1478,-2.1965,11.1761,13.3758,27.6416,5.0076,3.3261,13.6833,15.5128,-35.9843,6.0802,3.7778,29.2314,11.8542,2.8218,9.7130,26.7234,11.3413,10.4552
1871.0938,-50.3410,-0.4938,10.2255,13.0753,27.7691,2.0002,0.4622,12.7501,15.3065,-39.9825,6.4000,3.8046,28.1818,12.3682,2.9026,9.3775,25.8568,10.5956,11.6452
1875.0000,-49.0968,-0.6254,10.0862,12.9910,25.4692,2.9160,1.8369,13.0944,13.7255,-37.6492,6.9255,3.0565,25.3474,11.8265,2.6194,6.5665,22.1838,9.5848,11.9029
1878.9062,-44.1087,-0.6924,10.7361,12.0417,22.7495,6.7403,6.0640,13.3918,11.6830,-31.8692,7.0753,2.0096,22.0781,9.2503,1.7996,2.5896,17.3172,7.7100,11.1839
1882.8125,-38.5633,1.0112,11.6991,9.2932,21.2493,11.3821,10.7089,11.9178,10.3335,-27.7815,6.7979,1.1798,19.6387,4.3840,1.0959,-0.1323,13.4128,4.7216,9.9570
1886.7188,-35.9592,4.5773,12.6522,4.9368,21.2565,15.1205,14.1347,8.1479,10.3083,-28.9251,6.8244,0.8906,18.4801,-1.6370,1.5570,0.2203,11.8353,1.1905,9.1551
1890.6250,-37.6709,8.5440,13.7552,0.4446,21.8415,17.3443,16.2959,3.4282,11.3643,-34.6675,8.0841,1.1978,18.1619,-6.6395,3.6099,3.4668,12.4078,-1.6811,9.6496
1894.5312,-42.0922,11.2234,15.4198,-2.2879,21.8914,18.3435,18.1195,0.1435,12.7040,-40.8888,10.7503,1.9663,17.9317,-8.6835,6.3606,7.4855,13.7649,-2.8212,11.5911
1898.4375,-46.0034,12.0553,17.7651,-2.1894,21.1090,18.6629,20.2844,0.0251,13.6538,-43.3009,13.7898,2.9723,17.4205,-7.3541,7.9951,9.7436,14.4760,-2.0442,14.1807
1902.3438,-47.0771,11.8368,20.2808,0.2738,20.1094,18.6656,22.5270,2.8975,14.0969,-40.7132,15.5256,3.9380,16.8367,-4.0858,7.1521,9.1280,14.0307,-0.2091,16.1450
1906.2500,-45.5445,11.7444,22.0264,3.4157,19.5627,18.5172,23.9352,6.7795,14.2967,-35.6742,14.8577,4.5406,16.5077,-1.2319,4.2125,6.6434,12.9443,1.3385,16.5996
1910.1562,-43.7308,12.1236,22.2114,5.3955,19.2022,18.3208,23.7629,9.1911,14.3147,-32.0962,12.1745,4.5138,16.2362,-0.5453,1.3415,4.4575,12.0041,1.6060,15.6204
1914.0625,-43.9054,12.1680,20.6841,5.2430,17.6825,18.0755,21.9497,8.6581,13.6208,-31.9088,9.1740,3.8677,15.1506,-2.1605,1.0519,4.1059,11.3839,0.4616,14.0542
1917.9688,-46.2677,10.7530,17.9579,3.1933,13.5606,17.4846,18.9737,5.3918,11.3468,-33.5093,7.6742,3.0586,12.3122,-4.7505,4.3047,5.3433,10.4274,-1.4833,12.7384
1921.8750,-48.7727,7.6369,14.8138,0.2680,6.6672,15.9568,15.3729,0.8571,7.0641,-33.2366,8.3254,2.8688,7.6382,-6.6196,9.6638,6.5665,8.2819,-3.4042,11.8119
1925.7812,-48.9698,3.9180,11.8557,-2.4326,-1.3069,13.0312,11.5240,-3.2385,1.4453,-28.6027,10.2255,3.9375,2.3252,-6.8391,14.2603,6.4063,4.8045,-4.7275,10.7276
1929.6875,-46.3308,1.3159,9.3709,-4.1955,-7.6307,8.9961,7.8627,-5.7471,-3.8209,-20.6124,11.7108,6.2073,-1.7123,-5.6173,15.8645,5.0945,0.9119,-5.2240,8.9507
1933.5938,-43.0879,0.8882,7.5131,-4.7371,-10.2599,5.1250,5.1522,-6.2763,-6.9401,-13.3018,11.6446,8.7429,-3.0743,-3.7948,14.4106,4.3925,-1.9811,-4.8251,6.6969
1937.5000,-42.7860,2.2824,6.5133,-4.0293,-9.1823,3.1410,4.2745,-4.9637,-7.1489,-10.8940,10.1577,10.1923,-1.8584,-2.0385,11.7183,6.0857,-2.9980,-3.4916,4.9900
1941.4062,-47.6179,4.1315,6.6258,-2.2039,-6.3274,4.1413,5.5279,-2.2519,-5.2476,-14.8377,8.2964,9.6805,0.4063,-0.4348,9.6509,10.2917,-2.4532,-1.3297,4.9051
1945.3125,-56.6275,5.2037,7.8194,0.3924,-4.0816,7.7472,8.0424,1.1450,-3.1081,-22.9728,6.9661,7.5212,1.8688,1.2870,8.2940,15.0453,-1.5647,1.1897,6.6017
1949.2188,-66.2086,5.2971,9.5357,3.1711,-3.5433,12.1711,10.0097,4.2618,-2.4821,-31.2780,6.1308,5.1626,1.6751,3.2547,5.7855,17.6142,-1.4513,3.2407,9.0030
1953.1250,-72.5140,5.1574,10.8302,5.4820,-3.8589,15.2212,9.7868,6.1516,-3.9376,-36.6422,4.9537,4.3066,0.4772,5.2184,0.0512,16.5616,-2.2381,4.0349,10.4731
1957.0312,-73.9231,5.6019,10.8911,6.9393,-3.1175,15.5448,7.0955,6.3724,-6.6326,-38.4852,2.7115,5.7738,-0.2383,6.7833,-8.9730,12.9065,-3.0006,3.3661,10.0015
1960.9375,-71.7399,6.7094,9.5619,7.6243,-0.0545,13.2468,3.3075,5.3184,-9.0058,-38.2218,-0.3762,8.9313,0.5715,7.8213,-18.5953,9.4032,-2.5890,1.8507,7.9408
1964.8438,-68.7691,7.8057,7.4324,7.9546,4.8117,9.5520,0.4722,4.0284,-9.8282,-37.4088,-3.1812,12.1155,2.6680,8.6049,-24.9474,8.4505,-0.6463,0.5967,5.6731
1968.7500,-67.0767,8.1801,5.3892,8.3109,9.5009,5.9217,-0.2108,3.5149,-8.8757,-36.3617,-4.5767,13.7490,4.7918,9.5082,-25.8061,10.2591,2.0142,0.4955,4.4605
1972.6562,-66.7493,7.7860,3.9639,8.7590,12.0705,3.3572,0.7461,4.1076,-6.8504,-34.3655,-4.4459,13.3309,5.7627,10.5864,-22.4368,12.7333,3.9798,1.6742,4.4220
1976.5625,-66.4764,7.2265,3.0008,9.1373,12.0957,2.2764,1.6275,5.3539,-4.7502,-31.0459,-3.8940,11.5987,5.4802,11.4991,-18.8855,13.1906,4.3059,3.5360,4.4869
1980.4688,-65.2001,7.0573,1.9111,9.4275,10.9820,2.7414,0.9677,6.5650,-3.2202,-27.4204,-4.4269,9.8202,4.9971,11.9192,-19.1256,10.5883,3.2482,5.3375,3.3693
1984.3750,-63.2611,7.1285,0.2956,10.0176,10.9100,4.5436,-1.2780,7.5210,-2.3149,-25.5143,-6.7381,8.8403,5.6352,12.0595,-24.1966,6.5161,2.1140,6.7990,0.7530
1988.2812,-62.0548,6.6751,-1.5965,11.5176,13.2517,6.9837,-3.8129,8.6797,-1.7048,-26.7957,-10.0904,8.6385,7.8977,12.7476,-31.5229,4.1488,2.3709,8.2294,-2.3087
1992.1875,-62.6035,5.1341,-2.9772,14.1913,17.6339,8.7283,-5.2122,10.6607,-1.0438,-30.8031,-12.8034,8.6609,11.0638,14.8281,-36.8945,5.9140,4.6724,10.0772,-4.1335
1996.0938,-64.4047,2.9119,-3.1351,17.4735,22.2420,8.2589,-5.1824,13.4398,-0.1858,-35.2039,-13.4570,8.5118,13.7404,18.2923,-37.4984,11.5996,8.4489,12.3342,-3.7143
2000.0000,-65.6176,1.2843,-2.0667,20.0595,25.0008,4.8977,-4.7645,16.0029,0.8430,-37.2944,-11.8593,8.3089,14.8476,21.8803,-33.6119,18.2820,12.2435,14.3505,-1.5497
2003.9062,-64.4245,1.3819,-0.6034,20.6220,24.7146,-0.3417,-5.3380,16.8641,1.9843,-35.7266,-9.0455,8.3703,14.2174,23.6220,-27.7447,22.1091,14.4734,15.2570,0.6523
2007.8125,-60.3742,3.1024,0.1018,18.6734,21.4654,-4.9964,-7.3404,15.1158,3.2265,-31.1160,-6.3879,8.5702,12.4077,22.0564,-22.1593,20.6625,14.1343,14.6477,1.1643
2011.7188,-54.5940,4.9686,-0.6281,14.9258,16.2645,-6.6576,-9.8418,11.1899,4.5737,-25.2142,-4.5919,8.0658,10.0652,17.2907,-17.0349,14.3081,11.1598,12.9365,-0.5842
2015.6250,-48.8145,5.1749,-2.4838,10.8692,10.4715,-4.7680,-11.3104,6.7013,5.9838,-19.5615,-3.3837,5.8086,7.5309,11.1128,-10.9221,5.7688,6.4366,11.0835,-3.6791
2019.5312,-44.1962,3.0072,-4.3059,7.8966,5.4499,-1.2421,-10.8287,3.4705,7.3714,-14.8631,-2.0575,1.5239,5.0553,6.0414,-3.0840,-1.5887,1.5801,9.9277,-6.3917
2023.4375,-41.0062,-0.5686,-4.7681,6.6326,2.4673,0.8172,-8.6529,2.4661,8.6677,-11.4836,-0.3226,-3.6806,3.3036,3.9556,4.4517,-5.5143,-1.5051,9.6948,-7.2680
2027.3438,-39.2519,-3.6723,-3.1544,6.8997,2.5114,-0.5115,-5.6813,3.4322,9.8636,-10.2689,1.3231,-7.7323,3.4546,5.2036,7.2571,-5.6579,-1.2962,10.0590,-5.8685
2031.2500,-39.3683,-4.9690,0.2406,8.1830,5.8253,-4.3809,-2.4628,5.3609,10.9864,-12.5213,2.0081,-8.8936,6.5266,8.6762,1.4732,-3.1988,2.5887,10.6242,-2.7849
2035.1562,-41.9847,-4.5469,4.2765,10.0642,11.4372,-7.7995,1.1883,7.2940,12.0555,-18.8018,1.3093,-7.0218,12.3456,12.6243,-12.7116,0.0979,8.9466,11.3147,0.8580
2039.0625,-46.7987,-3.4682,7.5409,12.2239,17.2391,-8.1369,5.5349,8.7639,13.0921,-27.5441,-0.2500,-3.7824,19.0819,15.5639,-29.9207,2.6822,15.3094,12.2864,3.9492
2042.9688,-51.7059,-2.4848,8.9991,14.1273,20.8903,-5.5054,9.8964,9.6337,14.1819,-35.0004,-1.4671,-1.5507,23.9886,16.7380,-42.1091,3.5693,19.0970,13.4712,5.6977
2046.8750,-53.4206,-1.2142,8.4197,14.8925,21.1364,-2.9125,12.4515,9.7111,15.4859,-37.1332,-1.2905,-1.7563,25.0344,16.0830,-43.3436,2.4025,19.0537,14.2673,5.7487
2050.7812,-49.6089,1.3410,6.4400,13.7026,18.6349,-3.8154,11.3782,8.6941,17.1054,-32.3845,0.4398,-3.9001,22.2868,14.0065,-33.6065,-0.5079,16.0418,13.7969,4.2815
2054.6875,-41.0162,5.3594,4.2804,10.5425,15.5830,-8.9567,6.5330,6.5905,18.8570,-23.2153,2.8960,-6.0016,17.9424,11.2387,-18.8895,-4.1592,12.5444,11.6092,2.0764
2058.5938,-31.6625,9.2999,3.2233,6.5808,14.2841,-15.1995,0.1442,4.1540,20.1746,-14.9489,4.8393,-6.1544,14.8551,8.7188,-7.4011,-7.0810,11.0767,8.2165,0.3358
2062.5000,-26.4882,10.6659,4.0443,3.6606,15.6308,-17.6401,-4.3572,2.7151,20.3348,-12.4308,5.3997,-4.0133,14.5870,7.3060,-4.4542,-7.9475,12.5342,4.8971,0.1234
2066.4062,-27.9351,8.0809,6.6389,3.0836,18.6170,-13.5658,-4.6628,3.2900,18.9491,-16.8069,4.5145,-1.0817,16.4297,7.2868,-9.5121,-6.3271,15.6469,2.8001,1.6680
2070.3125,-34.0900,2.9366,10.0555,4.5752,21.2381,-5.0822,-1.2124,5.5978,16.3843,-24.8237,2.8175,0.4201,18.1395,8.0107,-17.2909,-3.0303,17.9718,2.0471,4.0790
2074.2188,-40.0414,-1.0682,12.9782,6.3340,22.0784,1.9717,3.3211,7.8995,13.7167,-31.2600,1.1946,-0.7475,17.8118,8.1001,-21.9320,0.3239,17.7323,1.6287,5.8626
2078.1250,-41.6248,-0.5180,14.4383,6.2885,21.3434,2.3092,6.3779,8.0268,12.1368,-32.7368,0.3796,-3.8470,15.4322,6.3185,-21.1595,2.3378,15.1594,0.2813,6.0211
2082.0312,-38.6933,4.9078,14.3449,3.6836,20.5422,-4.5401,7.7336,4.9777,12.1697,-30.0686,0.7862,-6.5954,12.8976,2.5810,-17.5118,2.7545,12.3279,-2.3204,4.9355
2085.9375,-35.2340,11.8031,13.4810,-0.2454,21.1106,-13.4448,9.6163,-0.1389,13.3059,-27.4081,2.5071,-6.6898,12.5057,-1.7015,-15.9623,2.5668,11.6020,-5.0729,4.2506
2089.8438,-36.0713,15.4024,12.9431,-3.1135,23.1139,-17.2223,14.4844,-4.6475,14.3792,-28.8865,5.3123,-3.3290,15.1127,-4.3775,-19.8520,3.1902,13.8516,-6.1656,5.6929
2093.7500,-42.6947,13.2780,13.3797,-3.1544,25.0968,-11.9247,22.3348,-6.0562,14.4545,-35.3505,8.6150,2.3020,19.4018,-4.0056,-28.1730,5.3121,17.7758,-4.5318,9.6473
2097.6562,-51.6176,7.3931,14.5483,-0.5541,25.2062,0.2367,30.0061,-3.7464,13.5401,-43.6794,11.5418,7.8259,22.8058,-0.9619,-36.1380,8.3011,20.8232,-0.8755,14.6288
2101.5625,-56.7697,2.6657,15.4995,2.7040,22.6662,12.6449,33.3562,0.6653,12.5280,-49.1276,13.2278,11.1107,23.3254,2.6865,-38.5393,10.6414,20.9871,2.6185,18.1691
2105.4688,-54.1897,3.0060,15.2552,4.3689,18.3907,19.3177,30.6788,4.5493,12.3666,-48.8057,13.2436,11.3728,20.8160,4.5330,-33.4164,11.0500,18.1105,3.7620,18.5269
2109.3750,-45.3184,8.0048,13.5037,3.6042,14.2196,19.1983,24.4277,6.0959,13.1229,-43.6068,11.8659,9.3341,16.7980,3.4432,-23.4039,9.4032,13.7556,1.9288,15.9212
2113.2812,-36.1729,13.1222,10.8363,1.4914,11.3919,16.2895,19.5297,5.3549,13.7353,-37.2022,9.9485,6.5272,13.0498,0.2196,-13.8570,6.7664,9.8263,-1.5076,12.3109
2117.1875,-32.9259,13.4446,8.3892,-0.0072,9.5116,15.6653,19.4153,3.7768,12.7395,-33.0692,8.4352,4.3458,10.1968,-3.1570,-9.1679,4.5565,7.0886,-4.2092,9.8813
2121.0938,-37.3236,8.0403,7.1648,0.2773,6.8882,18.8356,23.0223,2.7933,9.4433,-32.0024,7.8466,3.4429,7.4413,-5.0715,-9.9369,3.5584,4.7669,-4.5747,9.4461
2125.0000,-45.5734,1.2204,7.4818,1.8120,2.0381,22.4826,25.4884,2.7052,4.6139,-32.0357,8.0970,3.6977,3.5938,-5.3576,-12.9871,3.5906,1.4999,-2.7893,10.0406
2128.9062,-51.5769,-0.6355,8.8542,2.9501,-4.8219,21.7157,22.2856,2.7705,0.0735,-30.6535,8.7257,4.5735,-1.5214,-5.0960,-14.1117,4.0215,-3.1679,-0.4578,9.9929
2132.8125,-51.8691,5.6306,10.2845,2.4688,-11.5076,15.0500,13.5245,2.2682,-2.5396,-27.2824,9.3011,5.5328,-6.5188,-5.3968,-11.4337,4.5871,-8.0201,0.7967,8.5192
2136.7188,-48.2212,16.8220,10.7377,0.7071,-15.1439,6.6513,4.6794,1.4418,-2.8969,-23.8685,9.6562,6.2815,-9.2846,-6.2898,-6.7866,5.7007,-10.8315,0.5859,6.4489
2140.6250,-45.7625,25.2003,9.5531,-0.6873,-14.1326,3.5255,2.6820,1.3759,-2.1071,-22.9980,9.8247,6.8017,-8.5813,-6.7270,-3.9819,7.9133,-10.0280,-0.1314,5.4274
2144.5312,-48.1767,24.1481,6.6845,-0.1976,-9.4067,9.6233,10.1700,2.8780,-1.7437,-25.1468,9.8426,7.2320,-5.1685,-5.7066,-5.2165,10.9881,-6.0995,-0.0749,6.2758
2148.4375,-54.0239,13.3715,2.7492,2.1714,-4.0439,21.7132,22.5133,5.4149,-2.5591,-27.4994,9.6739,7.6775,-1.5253,-3.4996,-8.4626,13.4971,-1.6358,1.1372,7.9574
2152.3438,-57.4247,-0.5231,-1.1373,4.7596,-1.4487,30.8082,30.3833,7.1868,-3.9262,-25.6179,9.3244,8.0344,-0.3065,-1.8048,-8.2204,13.5011,0.1674,2.6361,8.1454
2156.2500,-52.8206,-8.7264,-3.7768,5.5293,-3.2927,28.5763,26.3635,6.4511,-4.4568,-16.9414,8.9441,7.9510,-2.6058,-2.5349,0.3661,9.9820,-2.4192,3.0906,5.0431
2160.1562,-40.0859,-6.6868,-4.4782,3.7173,-8.5368,13.9700,10.7438,3.0595,-3.2737,-3.4733,8.6876,7.0208,-7.2292,-6.1382,16.7241,3.9614,-8.4054,1.9269,-0.9984
2164.0625,-25.7487,2.6456,-3.5418,0.5046,-14.1107,-5.2230,-8.0382,-1.1229,-0.8676,8.6088,8.3741,5.1655,-11.4479,-10.8547,33.1198,-1.6891,-14.5150,-0.0861,-7.4429
2167.9688,-18.9861,11.3042,-2.2585,-1.8412,-16.7520,-17.4671,-18.9373,-3.3934,1.1979,12.5066,7.3080,2.9516,-12.6806,-13.6477,38.0360,-3.8435,-17.0612,-1.3857,-11.2530
2171.8750,-25.1491,12.5489,-2.2550,-1.6442,-14.8308,-15.5881,-15.9094,-2.1372,1.5205,5.2302,4.6156,1.5096,-9.9842,-12.2290,23.2496,-1.1439,-14.0927,-0.8282,-11.0394
2175.7812,-41.6396,5.9602,-4.4732,1.0289,-9.1135,-1.8126,-2.0361,2.0027,0.0326,-10.1685,0.0304,1.9323,-4.4634,-6.6922,-9.7790,4.9537,-6.5033,1.4447,-8.0204
2179.6875,-59.3194,-2.5670,-8.4548,4.5992,-2.1528,14.0959,12.8172,6.6382,-1.8593,-26.2009,-5.4581,4.4462,1.5140,0.4796,-48.8121,10.9222,2.5140,4.1710,-5.0624
2183.5938,-68.5385,-5.8027,-12.5266,7.2819,3.1773,22.1310,18.9873,9.4027,-2.3219,-35.3933,-9.7724,7.9563,5.6674,6.0403,-76.5997,13.2880,9.2554,5.9610,-4.5780
2187.5000,-65.4475,-1.0795,-14.8895,8.3173,5.0920,19.1345,13.4616,9.5498,-0.5233,-34.6469,-10.8835,10.4424,6.8734,8.0294,-80.5491,10.7621,11.4326,6.2584,-6.9151
2191.4062,-54.1183,7.5910,-14.9004,8.1599,3.5271,10.3101,1.2250,8.1519,2.6797,-26.6781,-8.2459,10.1228,5.4398,6.7764,-60.3846,4.9810,9.1541,5.5136,-10.4049
2195.3125,-43.1594,12.7857,-13.5802,7.6410,-0.1748,4.2636,-9.0802,6.8714,5.3407,-17.7621,-3.4426,6.6743,2.6365,4.2634,-28.7108,-0.5926,4.5339,4.5589,-12.8696
2199.2188,-39.5202,9.6108,-12.8700,7.0212,-4.1528,5.7642,-11.5671,6.4603,5.8577,-13.4898,0.6211,1.6239,-0.0786,2.5132,-3.7220,-2.8376,0.3238,3.8590,-13.2686
2203.1250,-44.0043,-0.4487,-14.1006,5.8641,-6.9083,12.0945,-6.7581,6.3005,4.1630,-15.4403,1.5848,-2.4824,-1.6716,2.3058,1.6042,-0.7838,-1.5422,3.3368,-12.1806
2207.0312,-51.4458,-10.7535,-16.8168,3.8191,-7.7503,15.8046,-0.1274,5.3158,1.8057,-20.8118,-0.7160,-3.6637,-1.7573,3.0888,-12.9093,4.0268,-0.6914,2.8567,-10.8951
2210.9375,-54.9290,-14.6875,-18.9176,1.4834,-6.7330,11.4353,2.7861,3.3482,0.9194,-24.8881,-4.0546,-1.7767,-0.4903,3.8867,-35.0288,8.6949,1.9259,2.7761,-10.0700
2214.8438,-50.6434,-10.5973,-18.1137,0.3763,-4.3189,0.5670,0.6167,1.6657,2.8658,-24.3451,-5.3049,1.4237,1.6864,4.2470,-48.0950,10.7378,4.9133,3.8944,-9.1884
2218.7500,-39.9368,-2.6580,-13.6669,1.8542,-1.0799,-9.0470,-3.3721,2.0491,7.4931,-19.0906,-2.5938,3.4967,4.2606,4.4020,-41.3973,9.3294,7.2926,6.7218,-7.2511
2222.6562,-27.5867,2.7785,-7.0906,5.8234,2.3996,-9.6630,-4.5008,5.1922,13.3999,-11.6570,3.4235,2.9466,6.7677,4.6578,-16.4173,5.3746,8.8441,10.7091,-3.9979
2226.5625,-18.1572,2.2207,-1.2350,10.4258,5.4913,-0.0836,-0.6192,9.8262,18.8445,-5.0111,10.0586,0.1273,8.8253,4.7611,14.6252,0.6361,9.8508,14.2413,-0.4763
2230.4688,-13.3640,-2.5902,1.6042,13.1484,7.5708,12.7788,6.3939,13.4281,22.5887,-0.6353,14.4223,-3.1737,10.1503,3.9783,36.4275,-3.3261,10.5956,15.5954,1.6244
2234.3750,-12.1006,-6.6582,1.1657,12.6088,8.2673,18.7413,12.4809,14.0437,24.1972,1.7659,15.2051,-5.0896,10.6126,1.8870,39.2645,-5.7193,11.0694,14.1960,1.3430
2238.2812,-12.4639,-6.1675,-0.7801,9.6235,7.8034,11.9677,14.7693,11.7832,23.8439,3.0375,13.1575,-4.9355,10.3230,-0.8717,23.4396,-6.4267,11.1028,11.1418,-0.6644
2242.1875,-13.7070,-1.6200,-1.8438,6.6602,7.1206,-4.4661,13.6177,8.7585,22.0082,3.1395,10.1103,-3.4915,9.6864,-2.7025,-2.4154,-5.6091,10.7368,8.4870,-2.5150
2246.0938,-16.5079,2.8062,-0.7118,6.0319,7.5368,-20.5474,11.8771,7.4763,19.3474,0.8668,7.4987,-2.2150,9.3155,-2.1296,-27.1201,-3.4654,10.4303,7.7583,-2.4885
2250.0000,-21.6363,2.9537,2.1432,8.1980,9.9934,-26.3504,12.2729,8.9397,16.6914,-5.0033,5.6079,-2.0840,9.7624,0.9463,-42.7147,-0.3306,10.8337,8.8416,-0.2935
2253.9062,-28.4841,-1.7392,5.1537,11.4566,14.3247,-18.8758,15.2047,11.9285,14.9078,-14.1356,3.9962,-2.9651,11.1651,4.8603,-47.0802,3.1001,12.2516,10.1137,2.7989
2257.8125,-34.8859,-7.7122,7.0349,13.2175,19.0971,-3.7924,18.6566,13.9594,14.5372,-24.0607,2.4813,-3.9001,13.0371,7.0963,-42.9467,5.7802,14.2374,9.7095,5.0101
2261.7188,-38.4074,-10.1296,7.6638,11.8318,22.2713,8.8867,20.0317,13.1042,15.4219,-31.2618,1.6385,-3.9592,14.4138,5.9056,-35.0517,6.7130,15.7289,6.9179,5.3890
2265.6250,-37.9843,-6.7004,7.8053,7.5933,22.3694,11.7346,18.2382,9.2384,16.7006,-33.2547,2.3018,-2.9329,14.3644,1.4509,-27.5909,5.5390,15.7264,2.6209,4.3520
2269.5312,-34.5629,0.5826,8.0792,2.2703,19.4047,4.4239,14.3867,3.8635,17.3035,-30.1535,4.5627,-1.3707,12.5905,-4.3634,-22.9612,2.8839,14.0486,-1.5067,3.0876
2273.4375,-30.2982,7.0191,8.2062,-2.2967,14.9041,-6.9901,10.7939,-1.1630,16.6523,-24.5498,7.2958,-0.0618,9.6944,-9.2163,-21.5226,0.1545,11.5597,-4.3172,2.4511
2277.3438,-27.0568,8.6728,7.2677,-5.3493,10.9471,-14.8249,9.3373,-4.8502,15.0348,-19.7766,8.8039,0.5300,6.8689,-11.8391,-21.7944,-1.1682,9.6179,-5.9348,2.3430
2281.2500,-25.4213,4.9849,4.7555,-7.3004,8.8585,-14.7325,10.4935,-7.3253,13.3378,-17.8243,8.1449,0.4339,5.1608,-12.5766,-21.0392,-0.3379,9.1033,-7.3729,2.0503
2285.1562,-24.8351,-1.2865,1.4224,-8.9135,8.4771,-7.5300,13.5496,-9.1379,12.3367,-18.3965,6.0022,-0.0696,4.8102,-12.7506,-16.5839,2.2384,9.7620,-9.4393,1.1426
2289.0625,-24.5304,-6.3818,-0.9314,-10.4465,8.5268,2.6068,17.4248,-10.4423,12.1157,-19.6898,4.2598,-0.7547,5.1627,-13.4513,-7.7480,5.2387,10.4170,-11.9106,0.0439
2292.9688,-24.3392,-8.0615,-0.6850,-11.5087,7.7915,11.4234,21.2143,-10.8595,12.0943,-20.1692,4.5228,-1.4944,5.2476,-14.7307,2.7463,7.1906,9.9384,-13.6670,-0.2529
2296.8750,-24.7663,-6.4875,2.3326,-11.6256,6.1704,16.6802,24.1224,-10.0646,11.6177,-19.9025,6.7685,-2.0559,4.5956,-15.7368,9.3612,7.3181,8.2331,-13.6225,0.9480
2300.7812,-26.4452,-3.2364,6.6064,-10.8369,4.7681,18.0613,25.2168,-8.4103,10.5864,-20.4357,9.2815,-1.9603,3.6432,-15.5299,6.7472,5.9781,6.4356,-11.6112,3.4035
2304.6875,-29.5862,0.2710,9.9890,-9.6916,4.9228,15.9786,23.6204,-6.8655,9.5549,-23.3693,9.9894,-0.6739,3.3606,-13.8400,-6.3686,4.4304,6.0623,-8.4851,6.0962
2308.5938,-33.8789,3.4754,11.2251,-8.6552,6.9341,10.9847,19.2116,-6.2430,9.1976,-28.8010,8.1399,1.9483,4.3523,-11.1978,-25.1845,4.0675,7.7168,-5.3984,8.0378
2312.5000,-38.7826,6.1972,10.7243,-7.5653,9.5328,4.3662,13.2236,-6.4254,9.5990,-34.8670,4.9392,5.3606,6.1366,-8.4654,-40.6964,5.5454,10.3548,-2.9628,8.9718
2316.4062,-43.7864,7.8695,9.9809,-5.7577,10.5890,-1.1268,8.0245,-6.3777,10.0135,-38.7428,2.6082,8.5071,7.2340,-6.2650,-44.8133,8.3325,11.7601,-1.0178,9.3551
2320.3125,-48.3697,7.5671,10.1679,-2.8292,8.5930,-1.8930,5.9831,-5.0396,9.3534,-38.3662,2.6194,10.4354,6.0986,-4.7684,-35.5113,10.9699,9.9929,0.8461,9.6909
2324.2188,-51.8414,4.9595,11.1192,0.6673,3.8151,4.3165,8.1172,-2.3570,7.0498,-33.6635,4.5563,10.8939,2.2593,-3.8907,-18.3844,11.9313,4.8035,2.5803,9.9011
2328.1250,-53.4526,1.2246,11.5652,3.3354,-1.7439,16.1148,13.4652,0.4931,3.5871,-26.5076,6.5172,10.4325,-3.1752,-3.5555,-3.2443,10.5929,-2.0220,3.5153,9.3819
2332.0312,-52.9104,-1.1783,10.4015,3.9103,-5.6012,28.2201,19.5932,1.9683,0.2561,-19.5829,6.7008,9.9198,-8.0607,-3.7114,2.0770,7.7103,-7.6732,2.9468,7.7187
2335.9375,-50.9067,0.0120,7.8669,2.3340,-6.3393,34.0336,23.8261,1.4360,-1.7030,-15.0297,4.8415,9.8732,-10.4681,-4.1237,-3.5176,5.0551,-9.9999,0.9412,5.3635
2339.8438,-49.0623,5.2164,5.5601,-0.0224,-4.3592,29.6318,24.3703,-0.2328,-1.9082,-13.7008,2.3191,10.1523,-9.7847,-4.2659,-14.3368,4.3723,-8.7159,-1.4222,3.5433
2343.7500,-49.0692,12.5809,5.2020,-1.2865,-1.3752,16.4248,20.7761,-1.3110,-0.9832,-15.2552,0.9023,10.2455,-6.9326,-3.5667,-22.4116,6.2805,-5.3486,-2.6936,3.3423
2347.6562,-51.5292,19.1694,7.1269,-0.4825,0.8666,0.4973,13.8064,-0.6092,0.0214,-18.6997,1.2208,9.8575,-3.6262,-1.8953,-23.1624,9.8327,-2.0793,-2.1112,4.6930
2351.5625,-55.3855,22.8401,9.7641,1.7259,1.6519,-11.0028,5.1142,1.5365,0.4299,-22.8627,2.2530,9.2448,-1.2598,0.1510,-18.1277,13.0726,-0.3673,-0.1972,6.1926
2355.4688,-58.5097,23.3072,10.5996,3.5809,1.4311,-13.9450,-3.0580,3.5248,0.3260,-26.6052,2.2193,8.9797,-0.2137,1.5115,-13.0271,14.2687,-0.3022,1.6368,6.0205
2359.3750,-59.1258,21.6457,7.9261,3.6429,1.1031,-9.0491,-8.3418,3.7980,0.2729,-28.9535,0.0777,9.3539,0.0327,1.3805,-12.9781,13.0199,-0.9847,2.1800,3.2946
2363.2812,-57.0465,18.8948,2.0618,1.9262,1.1683,-0.5302,-9.0991,2.1171,0.6850,-29.3597,-3.6523,9.9821,0.2197,-0.1507,-18.6779,10.4675,-1.4641,1.3247,-1.2181
2367.1875,-53.7735,15.1884,-4.8581,-0.1582,1.4541,7.0446,-5.4375,-0.2467,1.4252,-27.9963,-7.3853,10.0117,0.6677,-2.0715,-26.3491,8.4374,-1.4383,0.0545,-5.6340
2371.0938,-51.3638,10.2677,-10.3061,-0.9796,1.5287,11.2183,0.3634,-1.5457,1.9563,-25.7414,-9.7888,8.8119,1.1436,-3.1226,-31.1566,8.0991,-1.2501,-0.4357,-8.3164
2375.0000,-50.9200,4.8182,-12.9070,0.0117,1.3003,11.8902,4.6927,-0.9338,1.8677,-23.6518,-10.7590,6.5623,1.2191,-2.6715,-31.1415,9.1025,-1.3484,0.2754,-8.9846
2378.9062,-51.8466,1.1202,-13.0178,1.9262,1.1908,9.8250,4.5554,0.9467,1.2782,-22.2007,-11.2544,4.2061,0.7216,-1.1152,-28.5150,9.8496,-1.7800,1.5688,-8.7089
2382.8125,-52.4015,1.9583,-12.0905,3.2679,1.7236,5.2601,-0.5270,2.6023,0.7547,-20.9022,-12.2283,2.7555,-0.1189,0.4974,-27.4503,8.7411,-2.1520,2.4107,-8.8696
2386.7188,-51.0582,8.3036,-11.4842,3.2013,2.9430,-1.9496,-8.0630,2.9456,0.8301,-18.7603,-13.6826,2.5033,-0.8927,1.3121,-30.3488,5.4967,-2.0245,2.2782,-9.9993
2390.6250,-47.6068,17.6324,-11.6706,2.1696,4.2565,-10.9033,-14.0946,2.0910,1.5613,-15.3017,-14.6996,2.8031,-1.3326,1.3069,-35.6811,1.5423,-1.3149,1.5689,-11.4645
2394.5312,-43.1990,24.5946,-12.2841,1.3884,4.9041,-18.6306,-15.7239,1.0720,2.5227,-11.3503,-14.3821,2.6221,-1.4199,1.2389,-39.1172,-0.8906,-0.3288,1.1723,-12.1717
2398.4375,-39.4210,24.0589,-12.7109,1.7263,4.6670,-21.0083,-12.8846,0.8334,3.2374,-8.7632,-12.7896,1.4202,-1.2097,1.9896,-36.9851,-0.3574,0.5857,1.6434,-11.5920
2402.3438,-37.2065,14.6001,-12.5688,2.9907,4.1765,-15.4663,-8.0858,1.4574,3.6622,-9.1380,-10.9628,-0.3813,-0.5937,3.8697,-29.2930,2.6683,1.4124,2.7556,-10.1727
2406.2500,-36.4163,-0.1172,-11.7172,4.2315,4.5019,-3.5211,-4.3867,2.3004,4.2967,-12.4220,-9.9794,-1.7467,0.7245,6.4343,-19.9772,5.9888,2.5138,3.8337,-8.8056
2410.1562,-36.2686,-13.2701,-10.0012,4.7350,6.3223,9.1402,-3.2007,2.8387,5.8101,-16.6005,-9.8997,-1.9121,2.9905,8.8960,-14.2248,7.1220,4.3128,4.5217,-7.9034
2414.0625,-36.0951,-18.9789,-7.1886,4.7604,9.3647,15.6841,-3.5828,3.3501,8.4854,-18.8873,-9.6021,-1.0735,6.1096,10.7330,-14.8876,4.9923,6.9115,5.2219,-6.9840
2417.9688,-35.7257,-15.8368,-3.2897,5.3101,12.5788,12.5092,-3.3990,4.7144,11.9247,-17.6364,-7.7305,-0.2880,9.5869,11.9720,-20.5340,0.6727,9.9900,6.7324,-5.1802
2421.8750,-35.2456,-7.5057,1.0538,7.1168,14.8993,1.9164,-1.2582,7.4578,15.2398,-13.5042,-3.9582,-0.6481,12.7657,12.9542,-26.3425,-3.3428,13.0472,9.3672,-2.2179
2425.7812,-34.4832,-0.0861,4.6173,9.7663,15.9537,-9.0642,2.4196,10.9254,17.5712,-8.8810,0.5649,-2.3922,15.1679,13.8594,-27.0155,-4.8026,15.7248,12.3732,1.0569
2429.6875,-32.8142,1.8213,6.2326,11.7923,16.1345,-13.1865,5.9513,13.4313,18.5549,-5.9679,4.0353,-4.6722,16.6508,14.4438,-19.7143,-3.1087,17.8990,14.2649,3.1496
2433.5938,-29.5295,-2.3034,5.5884,11.7393,16.0283,-7.8843,7.8704,13.4040,18.4468,-5.0178,5.4318,-6.1691,17.2855,14.2261,-5.3601,0.4871,19.4863,13.9034,3.0406
2437.5000,-24.4723,-9.1893,3.5086,9.3221,15.7629,2.8525,7.9364,10.6346,17.8945,-4.2264,5.3320,-6.0620,17.1342,12.9380,12.0443,3.9399,20.2313,11.4543,1.0161
2441.4062,-18.3813,-14.3720,1.3985,5.6914,14.9075,11.0415,6.8677,6.5584,17.5704,-1.4654,5.3760,-4.5857,16.1993,10.8330,27.2691,5.8602,19.7952,8.3805,-1.5109
2445.3125,-12.6342,-15.0869,0.2572,2.5599,13.0506,10.0739,5.2933,3.2611,17.8930,3.4956,6.8062,-2.7632,14.6311,8.5907,35.8157,6.2774,18.1666,6.3934,-3.0357
2449.2188,-8.5828,-11.5694,0.0667,0.9126,10.5409,-0.7298,3.1656,1.9571,18.9168,8.1582,9.3345,-1.5666,12.9777,6.9121,35.3432,6.2542,16.0362,6.1672,-2.9659
2453.1250,-6.9747,-6.2522,0.0744,0.3803,8.6693,-15.4830,0.3468,2.1554,20.3513,8.7351,11.3372,-1.1983,12.1481,6.1474,26.4038,6.7985,14.6890,6.8530,-1.7611
2457.0312,-7.8120,-1.8303,-0.2870,-0.2216,9.0013,-25.4607,-2.2340,2.1818,21.6634,2.9306,11.2450,-1.0446,12.9668,6.2239,12.4054,8.0210,15.3153,6.8018,-0.1762
2460.9375,-10.5994,0.3112,-0.6836,-1.6893,12.2979,-24.6818,-2.2628,0.6214,22.2727,-8.0498,8.9499,-0.2816,15.5818,6.8525,-1.4026,9.1988,18.1651,4.9207,1.6153
2464.8438,-14.6655,0.4186,-0.0564,-3.6303,17.8664,-13.6099,2.6206,-2.4951,21.8303,-19.9287,6.0045,1.4018,19.1990,7.7721,-9.9419,9.6064,22.2113,1.5689,4.1519
2468.7500,-19.3251,-0.3819,2.4118,-4.7660,23.8980,1.4209,12.5968,-5.6987,20.4596,-28.0812,4.4049,3.5511,22.4374,8.8262,-10.6816,9.3321,25.6887,-1.7169,7.9330
2472.6562,-23.9228,-1.0647,6.3854,-4.0696,28.5896,12.5137,24.4757,-7.2268,18.7546,-30.6176,4.9661,5.3244,24.1339,9.8862,-5.0962,9.3350,27.2141,-3.4174,12.5276
2476.5625,-27.9312,-1.1832,10.3859,-1.7352,31.2163,15.2059,32.9776,-6.3344,17.4388,-29.5114,6.6770,6.1451,24.0417,10.7935,1.9662,10.6585,26.6967,-3.1614,16.4845
2480.4688,-31.1093,-0.7157,12.8162,0.8731,32.3506,10.7673,33.9979,-3.7398,16.8558,-28.8631,7.6080,6.0830,22.8960,11.4294,5.0576,13.4466,25.3381,-1.8983,18.2869
2484.3750,-33.4897,0.3431,13.1803,2.2596,33.0857,4.4040,27.5397,-0.9462,16.6792,-31.5273,6.6280,5.6904,21.7758,11.8162,1.5867,16.5935,24.6721,-1.0430,17.5923
2488.2812,-34.9981,2.1989,12.4375,1.9287,33.9016,0.8853,17.9325,0.8828,16.1397,-36.5964,4.4780,5.4831,21.2223,12.0614,-6.2496,18.3621,25.3269,-1.3581,15.6267
2492.1875,-34.9147,5.1193,12.1205,0.6479,34.0891,0.8992,10.9062,1.5361,14.6708,-39.6654,3.2621,5.5247,20.7771,12.1061,-12.5257,17.5265,26.4317,-2.5009,14.2536
2496.0938,-31.7902,9.0881,12.9155,-0.3564,32.2032,0.8456,9.5968,1.4583,12.4673,-35.8085,4.7303,5.4424,19.2958,11.5137,-11.2026,14.1895,26.1343,-3.5345,14.4061
2500.0000,-24.3194,13.5145,13.9277,-0.5293,27.2230,-3.7693,12.5436,0.9964,10.4276,-23.2531,8.7418,4.8219,15.8222,9.6224,-0.1038,9.6902,22.8891,-3.8648,15.2235
2503.9062,-12.9179,17.1896,13.3437,-0.4284,19.5516,-13.8720,15.2649,0.0167,9.4036,-5.2266,13.1682,3.6335,10.3952,6.1267,17.3061,5.7348,16.6142,-3.7356,14.7393
2507.8125,-0.8683,18.5746,10.0339,-1.0772,11.1109,-24.7483,14.1652,-1.7175,9.3112,11.3118,15.3325,2.3523,4.2178,1.7086,33.5299,3.4435,8.9181,-3.8620,11.6675
2511.7188,6.2615,16.4020,4.7926,-2.8123,4.4395,-28.2317,9.6147,-3.8206,8.8923,19.2878,13.8550,1.7073,-0.9254,-1.8778,41.0622,2.9826,2.2617,-4.5840,6.8197
2515.6250,3.2483,10.4258,0.1211,-4.6845,1.3859,-18.0040,5.6687,-5.0410,6.5018,15.2661,9.4932,2.2659,-3.6054,-2.5783,36.3743,3.8983,-1.3651,-5.3608,2.8679
2519.5312,-11.3876,1.9587,-1.3980,-5.0178,2.2113,5.5047,6.6166,-3.9410,1.4535,1.1789,4.4141,4.1326,-3.4516,0.6789,21.5532,5.6975,-1.4067,-5.1217,2.4722
2523.4375,-33.4966,-6.2636,1.0612,-2.7361,5.5879,34.1223,13.1736,-0.0775,-5.1098,-16.7904,0.5873,6.8988,-1.2441,7.0530,2.8594,8.1026,1.1681,-3.2113,6.1756
2527.3438,-54.6387,-11.1178,5.9255,1.6252,9.3783,55.8776,21.4720,5.3008,-10.6407,-31.3357,-1.3995,9.8000,1.5674,13.9709,-12.6761,10.8202,4.5531,-0.1123,11.7584
2531.2500,-66.3331,-10.6903,10.2663,6.0886,11.6662,61.6065,25.7703,9.7470,-12.7761,-37.3874,-2.2798,11.9644,3.5659,18.4512,-20.5519,13.1931,7.0362,2.7163,15.6544
2535.1562,-64.7772,-5.5336,11.7265,8.5035,11.4888,50.0900,22.7726,11.0784,-11.0011,-34.0690,-3.0705,12.6845,3.9175,18.7610,-20.3266,14.2528,7.6428,3.8141,15.4031
2539.0625,-52.9772,1.3651,9.8902,7.9532,9.0177,28.4799,14.1246,8.7771,-7.1120,-24.5388,-4.0829,11.6854,2.5795,15.3066,-14.9747,13.3076,6.2898,2.7509,11.2831
2542.9688,-38.7682,6.1559,6.1782,5.2512,5.2710,7.8352,5.1110,4.3011,-4.0263,-14.0741,-4.8264,9.3251,0.1909,10.1832,-8.8551,10.6315,3.5881,0.4118,5.9144
2546.8750,-29.9420,6.4179,2.5438,2.2309,1.6113,-3.2641,0.6269,0.1023,-3.7375,-7.4587,-4.7609,6.5826,-2.2293,5.7631,-5.5597,7.5941,0.5339,-1.6531,2.2139
2550.7812,-29.6884,2.6922,0.1217,0.4776,-0.7462,-2.9709,1.6379,-1.8843,-5.9167,-6.8944,-4.0852,4.7176,-3.6648,3.3595,-6.6124,5.9507,-1.7848,-2.2613,1.3485
2554.6875,-35.3231,-1.8713,-1.1563,0.4969,-1.0849,4.1173,4.8590,-1.1889,-8.2263,-11.3260,-3.7690,4.6751,-3.4719,2.8483,-11.3359,6.7053,-2.4840,-1.2095,2.2280
2558.5938,-40.9340,-3.6277,-1.9066,1.8310,0.6481,11.0482,5.7275,1.3544,-8.1301,-17.3996,-4.7724,6.5449,-1.6315,3.3264,-17.6368,9.3875,-1.1960,0.9136,2.7692
2562.5000,-41.8361,-0.9062,-2.4192,3.7934,3.8792,13.2602,2.1253,4.5172,-4.8399,-21.4906,-7.1666,9.4446,1.2348,4.0893,-23.1823,12.3406,1.7106,3.3999,1.7351
2566.4062,-37.5914,4.8925,-2.4486,6.0416,7.6217,10.7819,-4.1416,7.4719,0.0698,-21.6762,-9.9667,11.9723,4.1324,5.0736,-26.4263,13.8567,5.1883,5.9140,-0.4013
2570.3125,-31.6125,10.3456,-1.7981,8.5023,10.7880,6.8507,-9.1171,9.8993,3.8264,-18.5365,-11.8531,12.9847,6.1422,6.4961,-27.0914,13.3224,7.9263,8.4122,-2.1755
2574.2188,-28.0025,12.4265,-0.9919,10.8808,12.4933,4.5756,-10.0402,11.5701,4.4874,-14.3510,-12.1671,12.2021,6.8184,8.1877,-25.9740,11.5124,8.9645,10.6972,-2.6489
2578.1250,-28.2673,10.5200,-1.1991,12.4159,12.2707,4.4582,-7.4205,12.0475,2.2873,-11.2913,-11.3376,10.2469,6.3178,9.3885,-24.2634,9.8300,8.1689,12.1769,-2.3084
2582.0312,-30.4073,6.6032,-3.2952,12.2947,10.1833,4.5542,-4.2559,10.9520,-0.6705,-9.9002,-10.4116,8.1227,5.2117,9.3028,-22.8142,9.1292,6.2738,12.1850,-2.5532
2585.9375,-30.8741,3.5662,-6.8416,10.4382,6.8416,2.7685,-3.2867,8.5601,-2.0534,-8.9519,-10.1432,6.5390,4.1366,7.9442,-21.8104,9.0700,4.4611,10.6315,-4.2762
2589.8438,-27.6162,3.0333,-9.9989,7.8966,3.3006,-0.9046,-4.7598,6.0503,-0.9569,-6.7559,-10.4503,5.5654,3.5181,6.4352,-20.9610,8.5101,3.7343,8.3578,-6.8614
2593.7500,-21.7158,4.3353,-10.6665,6.3319,0.7708,-4.1813,-6.5638,4.9355,1.6563,-2.8354,-10.6656,4.8018,3.5006,6.3267,-19.9660,6.5813,4.4560,6.7543,-8.5472
2597.6562,-16.3932,5.3048,-8.0622,6.8506,0.1454,-4.4886,-6.4378,5.9732,3.9478,1.4279,-10.2737,3.8405,4.0383,8.3691,-18.8007,3.5407,6.2839,6.8320,-7.8849
2601.5625,-14.3259,4.1292,-3.4609,9.0981,1.5226,-1.4239,-4.1626,8.4411,4.7256,3.7880,-9.4024,2.6025,5.0060,11.7282,-17.5749,0.6817,8.4827,8.4687,-5.0339
2605.4688,-15.5198,0.7481,0.6073,11.4212,4.0475,2.4900,-1.7557,10.5043,4.2740,3.0232,-8.6061,1.3058,6.2454,14.3922,-16.1554,-0.6302,10.3816,10.4789,-1.7425
2609.3750,-17.4082,-3.2316,2.1709,12.0793,6.3192,3.5338,-1.5362,10.5505,3.9356,0.1576,-8.1755,0.1812,7.5859,14.5814,-14.0166,-0.0137,11.7202,11.5122,0.0198
2613.2812,-16.9859,-5.8794,1.2541,10.5992,7.2516,-0.2679,-3.8323,8.5101,4.9245,-2.0962,-7.6762,-0.7406,8.9232,12.1259,-10.6031,1.6317,12.7289,11.0949,-0.3498
2617.1875,-13.1724,-6.3555,-0.1984,8.1952,6.8745,-7.3275,-6.4196,6.0804,7.4048,-1.3660,-6.2184,-1.5586,10.3402,8.7147,-5.9841,2.8142,13.9411,9.9851,-1.6091
2621.0938,-7.5243,-5.2855,0.1366,6.8810,6.4498,-13.3241,-6.2448,5.5688,10.5242,2.4516,-3.2758,-2.2545,12.1287,6.7527,-1.1957,2.5540,15.8413,9.5525,-1.7063
2625.0000,-2.8466,-3.9465,3.1656,7.9442,7.6688,-14.1765,-1.9852,8.1655,13.2308,6.9569,0.6746,-2.5746,14.5820,7.6397,2.1832,1.0234,18.5108,10.6791,0.5267
2628.9062,-0.9603,-3.1059,7.7223,10.9649,11.3706,-8.9818,4.7369,12.9431,15.0776,8.9915,4.3086,-2.2285,17.6207,10.7486,3.0518,-0.7440,21.4455,13.0537,4.4119
2632.8125,-1.4674,-2.5390,11.5187,14.1272,16.6877,-0.7402,10.5105,17.3578,16.3390,7.0356,6.3428,-1.2572,20.5447,13.8546,1.6489,-1.7711,23.6829,15.3981,7.9506
2636.7188,-2.4149,-1.5475,12.8842,15.5431,21.3398,5.6639,12.6810,18.8877,17.4526,2.3417,6.4374,-0.1998,22.2201,14.6684,-0.4983,-1.8935,24.2437,16.4024,9.3572
2640.6250,-2.1452,0.1208,11.9036,14.5308,23.0127,6.7310,11.1799,16.5989,18.4076,-2.1293,5.3651,0.1895,21.7234,12.3151,-1.6127,-1.7537,22.7027,15.6024,8.3350
2644.5312,-0.6984,1.8685,10.1250,11.8809,20.9171,2.5185,8.2189,11.5378,18.6939,-4.1233,4.3248,-0.4762,19.0625,7.7124,-0.9380,-2.1023,19.5549,13.5331,6.1140
2648.4375,0.3840,2.7518,9.2066,9.0054,16.3968,-3.7299,6.2836,5.7855,17.8518,-3.8914,4.0102,-1.8028,15.4157,2.6932,0.7729,-3.0487,16.0900,11.1314,4.3494
2652.3438,-0.4106,2.4139,9.6821,6.7598,12.0872,-8.0356,6.2372,1.0104,16.0723,-3.8855,4.2334,-2.7682,12.5933,-1.3286,1.9811,-3.9056,13.7648,8.9688,3.8918
2656.2500,-3.0864,1.5591,10.8193,4.9222,10.1871,-8.3239,7.1028,-2.3729,14.2370,-6.6001,4.3805,-2.3971,11.9889,-4.0990,1.7281,-3.7324,13.4154,6.9703,4.4361
2660.1562,-5.9981,1.4826,11.5434,2.6964,11.0841,-5.4116,7.5045,-4.9360,13.3058,-12.3487,4.2193,-0.4621,13.7226,-6.2051,0.5092,-2.0902,14.8163,4.7889,5.2011
2664.0625,-7.1535,3.0182,11.5060,-0.2874,13.3215,-1.8886,7.2832,-7.2863,13.5752,-18.8357,4.2650,2.3440,16.6074,-8.1290,-0.1018,0.6296,16.9034,2.4102,5.8819
2667.9688,-5.8311,5.8022,11.3374,-3.3911,14.8735,0.0062,7.7285,-9.3371,14.4655,-22.8981,5.3304,4.9127,18.9918,-9.5723,1.2089,3.5337,18.5195,0.3805,6.9440
2671.8750,-3.1407,8.4956,11.9199,-5.3270,14.7052,-0.1554,10.2201,-10.3884,15.0351,-22.9844,7.6606,6.4970,19.8738,-9.6335,4.3184,5.8737,19.1573,-0.5756,9.0136
2675.7812,-1.0721,9.7928,13.4145,-5.1513,13.4133,-1.1309,14.5812,-9.8470,14.7655,-20.3178,10.4732,7.1374,19.4653,-7.6476,7.6727,7.4395,19.1614,-0.2041,11.9952
2679.6875,-0.8546,9.3867,14.9765,-3.0519,12.5112,-1.3547,18.7553,-7.8781,13.9173,-17.7883,12.3960,7.4193,18.8067,-3.9283,9.5041,8.4118,19.2602,0.9626,14.8172
2683.5938,-2.0089,8.1158,15.4440,-0.2756,13.0233,-0.2597,20.2459,-5.4018,13.1493,-17.5134,12.4962,7.8195,18.7745,0.2441,9.2442,8.9112,19.8213,1.9370,16.1300
2687.5000,-2.8591,7.2288,14.3845,1.7357,14.5757,1.4436,18.1540,-3.4598,12.7671,-19.1094,11.0335,8.2469,19.2932,3.3987,7.9282,8.7506,20.4413,2.0040,15.3890
2691.4062,-2.0415,7.4308,12.5498,2.3030,15.7140,2.5784,14.0571,-2.5135,12.3226,-20.1029,9.2709,8.1951,19.3878,4.7981,7.2397,7.6740,20.2146,1.2405,13.3624
2695.3125,0.2734,8.4992,11.3034,1.8307,15.1313,2.5872,10.9209,-2.2421,10.9756,-18.1081,8.4731,7.3567,18.0158,4.7969,8.0271,5.8555,18.4688,0.4004,11.5808
2699.2188,2.4560,9.7119,11.5045,1.3223,12.7419,1.9756,10.9037,-1.9394,8.3311,-12.9232,8.9342,6.1130,14.9860,4.4091,9.5995,4.1259,15.3660,0.2786,11.1623
2703.1250,2.7048,10.6105,12.8167,1.5606,9.6990,1.8377,13.8449,-1.1032,4.9960,-6.8000,9.8529,5.3973,11.2029,4.4841,10.4358,3.5947,11.8694,1.0931,12.0018
2707.0312,0.4617,11.3818,14.0480,2.6257,7.3861,2.9519,17.6232,0.2838,2.2983,-2.6988,10.1431,5.9860,8.0399,5.1539,9.6865,4.8811,9.0881,2.3893,13.0002
2710.9375,-3.1954,12.5484,14.2242,4.0528,6.2867,5.2064,19.9754,1.9332,1.3270,-2.0254,9.4457,7.8114,6.3527,5.9226,8.1001,7.5753,7.5215,3.5008,13.1070
2714.8438,-6.4587,14.3216,13.4526,5.3725,5.7145,7.7385,20.1772,3.6123,2.0699,-3.7324,8.4386,9.9243,5.9272,6.2217,7.4661,10.4300,6.7980,4.1316,12.2493
2718.7500,-8.2010,16.2686,12.8134,6.5020,4.6087,9.5635,19.2171,5.2972,3.3887,-5.4537,8.1697,11.1986,5.7774,5.9122,8.9673,12.1989,6.0957,4.5523,11.3378
2722.6562,-8.7257,17.6252,13.3645,7.6729,2.6459,10.1422,18.4851,6.9997,3.8874,-5.6061,9.0155,11.2229,5.0050,5.3299,11.8681,12.4900,4.8661,5.2640,11.3656
2726.5625,-9.2944,17.9548,15.1169,9.0424,0.6368,9.5103,18.2945,8.5161,2.9800,-4.6247,10.2173,10.6213,3.4952,4.9055,13.7800,11.9545,3.2573,6.4603,12.4179
2730.4688,-10.9114,17.5167,16.8729,10.4049,-0.1821,8.0310,17.6142,9.4253,1.2819,-4.3324,10.4474,10.5006,1.9030,4.7389,12.4455,11.6679,1.9054,7.7750,13.4865
2734.3750,-13.4331,16.9759,17.0797,11.2893,0.6502,6.1039,15.2039,9.3974,0.0164,-6.1079,8.9356,11.4676,1.0109,4.5043,7.6349,12.2182,1.3178,8.5352,13.2657
2738.2812,-15.7429,16.7159,14.9892,11.3384,2.2254,4.0750,11.0199,8.5254,-0.0518,-9.5459,6.1657,13.0463,1.0539,3.7458,1.5368,13.2556,1.4084,8.2923,11.2356
2742.1875,-16.7838,16.4146,11.1676,10.6117,2.8887,2.3010,6.5066,7.3273,0.7542,-12.7978,3.5018,14.0200,1.5955,2.2935,-2.8034,13.8568,1.5959,7.1779,8.0870
2746.0938,-16.5031,15.3308,6.9705,9.5418,1.6286,1.1476,3.4314,6.3674,1.3531,-14.2327,2.0319,13.4435,2.0152,0.4640,-3.8293,13.3688,1.3675,5.8066,5.1177
2750.0000,-15.8508,13.0900,3.4780,8.6088,-0.9365,0.8173,2.3068,5.8258,0.8968,-13.8507,1.6234,11.4864,2.1249,-1.0868,-2.7175,11.9947,0.7979,4.8461,3.1369
2753.9062,-15.8106,10.2617,0.8083,8.0433,-2.8707,1.1564,1.8846,5.4282,-0.4378,-13.1119,1.0318,9.3791,2.3338,-1.7108,-2.4629,10.6238,0.5504,4.6327,1.8388
2757.8125,-16.3065,8.1455,-1.6466,7.8044,-2.3695,1.6897,0.2806,4.8296,-1.5416,-13.3144,-0.9924,8.4724,3.2139,-1.0614,-5.4745,10.0707,1.3413,5.1161,0.1871
2761.7188,-15.9900,7.8599,-4.3581,7.7897,0.7921,1.9425,-3.2089,4.0926,-1.2741,-14.0371,-4.5220,9.1640,4.8682,0.8170,-11.5715,10.3975,3.3194,6.0891,-2.5406
2765.6250,-13.2119,9.4617,-7.0052,8.0096,4.9911,1.8059,-7.2408,3.7699,0.5864,-13.1955,-8.2158,10.5745,6.6953,3.5688,-17.9712,10.9131,5.8862,7.4125,-5.9844
2769.5312,-7.4889,11.8472,-8.6515,8.5246,7.9091,1.5910,-9.3952,4.4321,3.1413,-8.8542,-10.2632,11.2456,7.7884,6.6606,-21.2819,10.8356,8.1027,9.0094,-8.8989
2773.4375,-0.2925,13.5530,-8.6058,9.2224,8.1935,1.6607,-8.2590,6.0195,5.0715,-1.2975,-9.7531,10.2876,7.6398,9.5032,-19.9425,10.0133,9.3304,10.6827,-10.1566
2777.3438,5.5625,13.8146,-7.1827,9.7158,6.3198,1.9324,-4.8498,7.6329,5.6412,6.5285,-7.3554,8.0393,6.5418,11.5827,-15.2449,9.0414,9.5753,12.0249,-9.6887
2781.2500,7.6168,13.0173,-5.6374,9.5554,4.0193,1.7285,-2.0671,8.0625,5.1763,10.8282,-4.7703,5.7193,5.3376,12.6207,-10.2500,8.6518,9.2893,12.6052,-8.5432
2785.1562,5.3946,12.1909,-5.2591,8.6308,2.8226,0.2106,-2.4867,6.7172,4.6640,9.7312,-3.4218,4.3863,4.7469,12.6947,-7.5570,8.9145,8.8713,12.3278,-8.0030
2789.0625,0.8056,12.0118,-6.3460,7.4001,2.9578,-2.8758,-6.2505,4.2056,4.8751,4.8176,-3.4627,4.0952,4.8576,12.2017,-7.6807,8.9954,8.3564,11.6261,-8.5153
2792.9688,-2.9878,12.1901,-7.9112,6.6769,3.4774,-6.7610,-10.7938,2.0389,5.7861,0.0844,-3.8519,3.9419,5.2162,11.6264,-9.1481,7.7558,7.5731,11.2523,-9.3370
2796.8750,-3.4862,11.7722,-8.3807,7.0806,3.4059,-9.9644,-12.6931,1.6152,6.7719,-0.9278,-3.3442,2.9302,5.4029,11.2442,-9.9775,4.7435,6.5813,11.7695,-9.1815
2800.7812,-0.2862,10.0783,-6.7335,8.5760,2.8281,-11.2308,-10.1960,3.2523,7.3402,2.3633,-1.5063,0.8990,5.5403,10.9819,-9.1904,0.7443,5.9190,13.1429,-7.3008
2804.6875,4.8617,7.4367,-3.2016,10.4925,2.9279,-10.4222,-4.4643,6.0190,7.6965,7.3713,1.0663,-1.2842,6.2424,10.5602,-7.2000,-2.6209,6.3436,14.7818,-4.0986
2808.5938,9.3119,5.0406,0.9621,12.0168,4.9234,-8.6672,1.3778,8.4752,8.6019,10.5062,3.4004,-2.4254,8.0271,9.7986,-5.0324,-3.9963,8.2319,16.0072,-0.8058
2812.5000,11.2020,4.0171,4.3739,12.7400,8.8222,-7.6103,4.5340,9.6953,10.6269,9.9340,4.9900,-2.0038,10.7119,8.8059,-3.3121,-3.2490,11.1517,16.5457,1.4395
2816.4062,10.4700,4.4838,6.3146,12.7891,13.0959,-8.2961,4.3213,9.7406,13.4656,6.7696,6.0644,-0.6366,13.3583,7.8603,-1.9643,-1.5389,14.0177,16.6203,2.2980
2820.3125,8.6602,5.3977,6.8600,12.4522,15.6021,-10.5177,2.1573,9.2539,15.9449,3.9035,7.1145,0.3693,14.8595,7.0685,-0.7412,-0.4530,15.7588,16.5685,2.1752
2824.2188,7.7809,5.3392,6.4093,11.6821,15.0511,-13.0919,0.0111,8.6235,16.7849,3.5847,8.2226,-0.0062,14.7063,6.1367,0.1643,-0.8865,15.9808,16.3610,1.5837
2828.1250,9.0175,3.6000,5.1802,10.0094,11.8755,-14.8032,-1.2174,7.5337,15.5228,5.7716,8.9004,-1.7770,13.3061,4.5339,0.1836,-2.5171,15.1054,15.5096,0.6110
2832.0312,12.0782,0.6981,3.1706,7.0284,7.8797,-15.2533,-2.0461,5.3483,12.8702,8.4583,8.6175,-4.0233,11.6138,1.9948,-0.8939,-4.2081,13.9135,13.5119,-0.9770
2835.9375,15.4687,-2.0554,0.5650,3.0586,5.0260,-14.9733,-3.3851,1.9831,10.2292,9.4656,7.4951,-5.6172,10.4195,-1.0425,-2.3217,-4.9369,12.9207,10.4688,-3.1244
2839.8438,17.4215,-3.5372,-1.9166,-0.6730,4.3309,-14.7894,-5.2579,-1.5837,8.7653,8.0603,6.4332,-5.9698,9.9036,-3.5027,-2.7205,-4.4807,12.1265,7.2830,-5.0363
2843.7500,16.8876,-3.5213,-3.2020,-2.6570,5.6146,-15.0395,-6.5238,-3.7631,8.7487,5.1160,6.4482,-5.2368,9.7835,-4.3201,-1.2465,-3.3830,11.2963,5.1539,-5.4583
2847.6562,14.0620,-2.5966,-2.5470,-2.1758,8.0504,-15.3199,-5.8547,-3.5362,9.6037,1.9369,7.7621,-3.9489,9.8157,-3.2457,1.3976,-2.3621,10.4254,4.6850,-3.5837
2851.5625,10.2285,-1.4751,-0.1602,-0.0030,10.8375,-14.9493,-3.0303,-1.4312,10.5090,-0.9789,9.4902,-2.5141,10.0990,-1.1834,3.1674,-1.7516,9.8633,5.3161,0.1536
2855.4688,7.0717,-0.3690,2.8122,1.9140,13.4047,-13.6940,0.6843,0.5850,10.9907,-4.0695,10.3024,-1.0623,10.8518,0.2836,2.1765,-1.4380,9.9289,5.6031,4.1438
2859.3750,5.8378,1.0144,5.0201,1.6787,15.1723,-12.0731,3.4696,0.3617,11.0581,-7.7387,9.5617,0.3109,11.8965,-0.0939,-1.6339,-1.2368,10.3881,4.2180,6.5936
2863.2812,6.7619,2.9219,5.8207,-1.2606,15.4113,-10.9362,4.3938,-2.9121,10.9033,-11.3963,7.9622,1.2649,12.4365,-2.3874,-6.1092,-1.2432,10.3818,0.9404,6.7224
2867.1875,9.0329,5.0253,5.6455,-5.7028,13.6121,-10.6627,4.0926,-8.0636,10.5650,-13.5981,7.0572,1.2932,11.4941,-5.4458,-8.2860,-1.7613,9.0288,-3.1253,5.2238
2871.0938,11.3057,6.4660,5.5362,-9.4989,10.1426,-10.6973,4.0950,-12.6854,9.9188,-13.2716,8.0063,0.1593,8.7466,-7.6944,-6.5981,-2.8802,6.2736,-6.2943,3.6254
2875.0000,12.4883,6.4847,6.2399,-10.9945,6.4764,-9.8894,5.4021,-14.7330,8.9680,-10.8696,10.5805,-1.7228,5.0293,-8.1980,-2.1247,-4.1580,3.2044,-7.4521,3.0716
2878.9062,12.3665,5.0977,7.6115,-10.0675,4.4873,-7.4280,7.5787,-13.7927,8.0702,-8.2412,13.2923,-3.4031,1.9415,-7.2171,2.1949,-4.8124,1.4134,-6.7454,3.5157
2882.8125,11.6855,3.2145,8.7935,-8.0402,5.1234,-3.6378,9.1467,-11.1282,7.7738,-7.1463,14.5864,-4.0116,0.7219,-5.8867,3.8189,-4.3330,1.7701,-5.3216,3.9473
2886.7188,11.6040,2.0608,8.9847,-6.6010,7.4872,0.0463,8.9079,-8.5711,8.3314,-7.6649,14.1109,-3.3971,1.2467,-5.3101,2.5342,-2.9807,3.5746,-4.3730,3.4097
2890.6250,12.8222,2.3655,8.1286,-6.5864,9.2190,1.9793,7.0119,-7.1799,9.3192,-8.0008,12.9907,-2.2217,2.0146,-5.7777,0.4891,-1.6627,4.8727,-4.2622,1.9138
2894.5312,14.9365,3.9568,6.9533,-7.5062,8.1102,1.4420,4.8378,-6.6771,9.7726,-6.0446,12.8522,-1.3829,1.2433,-6.6661,0.3014,-1.1976,3.8280,-4.3898,0.4785
2898.4375,16.4860,6.0471,6.3681,-8.0728,3.8022,-0.8296,3.8246,-5.9799,8.8246,-1.4660,14.4094,-1.2312,-1.7255,-7.0209,2.8086,-1.5569,0.1519,-3.8330,0.2916
2902.3438,15.7421,7.9033,6.7604,-7.2274,-1.7854,-3.1195,4.3089,-4.2580,6.3746,3.5104,16.8104,-1.2626,-5.8297,-6.3082,6.3289,-1.7631,-4.5467,-2.1737,1.7268
2906.2500,11.8012,9.3102,7.7781,-4.8564,-5.7428,-3.8647,5.3819,-1.6127,3.2396,5.5047,18.3139,-0.5774,-9.0225,-4.7563,8.0397,-0.6113,-7.8395,0.1662,4.0509
2910.1562,5.2924,10.4825,8.7298,-1.7322,-6.2600,-2.6296,5.8330,1.1137,0.6284,2.5847,17.7380,1.2764,-9.7981,-3.0893,6.3177,2.3264,-8.2066,2.3030,6.0345
2914.0625,-1.7909,11.6006,9.1887,1.1419,-3.9168,-0.2673,5.2711,3.1164,-0.6709,-4.0166,15.4648,3.8197,-8.3092,-1.9462,2.0878,6.2395,-6.0931,3.6022,6.9130
2917.9688,-7.0852,12.4722,9.2486,3.1845,-1.1599,1.7691,4.3827,4.2566,-0.7660,-10.5526,13.1431,5.9731,-6.1848,-1.4729,-1.9274,9.5749,-3.4774,4.0984,6.8750
2921.8750,-9.0894,12.6568,9.2362,4.4070,-0.3873,2.4070,4.1200,5.0126,-0.4539,-13.3803,12.3271,6.9473,-5.2007,-1.3599,-3.4088,11.1186,-2.3025,4.3048,6.7064
2925.7812,-7.8878,11.9201,9.2068,5.1000,-2.1651,1.5439,4.6189,5.8674,-0.5384,-11.5215,13.1825,6.9199,-5.8857,-1.1964,-2.2499,10.7959,-3.0174,4.6395,6.9630
2929.6875,-4.9364,10.5544,8.7429,5.4273,-4.9713,-0.0650,4.9123,6.7445,-1.2391,-7.1697,14.3343,6.8835,-7.1852,-0.7830,-0.5028,9.5572,-4.3653,5.0157,7.4322
2933.5938,-2.0955,9.2280,7.2880,5.3191,-6.5915,-1.4060,3.7661,7.0265,-2.1382,-3.7976,13.9800,7.7605,-7.4271,-0.1553,-0.5763,8.4849,-4.5347,4.9640,7.3462
2937.5000,-0.5545,8.4755,4.7231,4.7107,-5.9494,-1.8075,0.8924,6.1483,-2.6337,-3.4450,11.3439,9.5413,-5.7669,0.6219,-3.2494,7.9111,-2.6955,4.1608,6.1168
2941.4062,-0.3256,8.2940,1.6402,3.8297,-3.8464,-1.1940,-2.6176,4.2339,-2.4633,-5.3588,7.2829,11.2135,-2.9124,1.6244,-7.1563,7.3024,0.3321,2.8709,3.9008
2945.3125,-0.5506,8.2192,-0.9952,3.2070,-2.0625,0.0161,-5.1447,2.2015,-1.8628,-6.9614,3.5772,11.5790,-0.5549,3.0088,-10.0951,5.9741,2.7767,1.8849,1.4735
2949.2188,-0.3112,7.8026,-2.5601,3.3645,-1.6786,1.1523,-6.0097,1.2168,-1.2939,-6.1808,1.5191,10.2695,-0.0160,4.7883,-10.9597,3.9443,3.3486,1.9708,-0.4694
2953.1250,0.6755,7.0267,-3.2763,4.4461,-2.1207,1.5042,-6.2565,1.9202,-1.0596,-3.1322,0.9624,8.0656,-1.2504,6.6909,-10.6185,2.1033,2.2028,3.2811,-1.9375
2957.0312,1.9429,6.2503,-4.0559,6.1149,-1.7516,0.5134,-7.9486,4.0313,-1.1747,0.1806,0.5653,6.2121,-3.0040,8.2786,-11.0323,1.4849,0.6732,5.1968,-3.6074
2960.9375,2.7470,5.7333,-5.7757,7.8022,0.5362,-1.9703,-12.4389,6.6115,-1.5574,1.7187,-1.0325,5.3077,-3.9336,9.2530,-13.4383,2.2646,0.0762,6.7337,-6.1295
2964.8438,2.7072,5.2273,-8.5486,9.0904,4.1672,-5.4220,-19.0054,8.7340,-2.2661,1.1080,-4.0908,4.7578,-3.6986,9.6798,-17.2070,3.4177,0.6419,7.1935,-9.3813
2968.7500,2.1193,4.0963,-11.5645,9.9133,7.2240,-8.6113,-25.0361,10.0280,-3.4638,-0.2557,-7.5782,3.3259,-3.1096,9.9140,-20.3398,3.4409,1.4627,6.5705,-12.3521
2972.6562,1.7344,1.9400,-13.6230,10.4455,8.0227,-10.0395,-27.7255,10.7195,-5.0962,-0.6437,-9.9780,0.3523,-3.2700,10.2691,-21.1339,1.6045,1.4336,5.4543,-13.8135
2976.5625,2.2142,-0.8354,-13.9410,10.8290,6.5589,-8.7722,-26.0159,11.2349,-6.6197,0.4407,-10.3732,-3.4285,-4.5183,10.7026,-19.5520,-1.3324,0.3042,4.5655,-13.2588
2980.4688,3.6963,-3.1062,-12.6333,11.0077,4.5428,-5.1958,-21.3076,11.7546,-7.1487,2.0061,-8.9665,-6.2714,-6.1180,10.7905,-17.1436,-3.6342,-1.1002,4.3068,-11.3471
2984.3750,5.7694,-3.8492,-10.5595,10.8063,3.9552,-1.1089,-16.4291,12.0776,-6.0384,2.7723,-6.7454,-6.8032,-6.9423,10.0248,-15.6536,-4.0004,-1.6566,4.6237,-9.4764
2988.2812,7.8210,-3.0750,-8.7233,10.1491,5.3534,1.0938,-13.7051,11.8465,-3.4718,2.5935,-4.7097,-5.2970,-6.5024,8.2079,-15.5714,-2.7375,-0.9927,5.1823,-8.8068
2992.1875,9.4404,-2.0484,-7.7036,9.1943,7.4015,-0.2395,-13.5826,10.8874,-0.5134,2.6734,-3.3263,-3.7171,-5.3644,5.6494,-15.8606,-1.6663,0.1685,5.6464,-9.4778
2996.0938,10.5696,-2.4718,-7.4715,8.2645,8.0673,-4.9851,-14.7260,9.3836,1.5351,4.3040,-2.5372,-4.3571,-4.5554,3.0451,-15.0185,-2.7346,0.7049,5.8430,-10.5812
3000.0000,11.3449,-5.1694,-7.5949,7.6586,6.4829,-11.2339,-15.2925,7.7920,2.0589,7.3104,-2.1007,-8.0532,-4.4920,1.1598,-12.4566,-6.3948,0.2277,5.7799,-10.8486
