Time,Fp1,F3,C3,P3,O1,F7,T3,T5,Fz,Fp2,F4,C4,P4,O2,F8,T4,T6,Cz,Pz
0.0000,3.4892,-4.0007,0.9152,3.1843,3.0189,-5.6598,-0.6304,1.6570,9.3249,-0.3337,-0.6583,-6.7448,4.6232,1.0990,5.0866,-4.9328,4.7874,4.6964,0.3888
3.9062,3.5133,-6.0418,0.1405,3.9311,4.4176,-4.9172,-2.6718,2.1305,7.8603,-3.3718,-3.6995,-8.2698,6.5251,3.0747,4.0482,-2.9789,6.7174,4.1131,0.8892
7.8125,3.3666,-7.5585,0.4033,4.7878,4.9123,-4.9371,-3.3630,3.0254,4.2436,-4.9621,-4.9462,-9.3128,6.8775,5.1603,2.1750,-0.4192,7.2409,3.1794,2.5103
11.7188,3.8120,-7.6689,1.3840,5.1641,4.8108,-5.2201,-3.3340,4.0594,-0.2233,-3.7343,-3.6309,-9.2512,5.9579,6.7753,0.6259,1.6563,6.6022,1.5570,4.9542
15.6250,5.2267,-6.3056,2.1944,4.3189,5.0797,-4.7013,-3.2981,4.5247,-3.6396,-0.4507,-0.7555,-7.8018,5.0702,7.4589,0.2904,2.3810,6.1236,-1.2504,7.3767
19.5312,7.2934,-4.2433,2.2231,1.8036,6.6837,-2.6837,-3.1329,3.6671,-4.6840,2.2871,1.7134,-5.1847,5.6063,7.0555,1.0430,1.6873,7.2980,-5.4856,9.0233
23.4375,9.1656,-2.5383,1.7985,-2.1676,9.8189,0.3697,-1.8811,1.1984,-3.4800,1.7892,2.3709,-2.1039,7.9483,5.7172,1.7820,0.3526,10.5911,-10.7544,9.8126
27.3438,9.9635,-1.8004,2.0506,-6.7028,13.6139,2.9218,1.3169,-2.4251,-1.5301,-2.7830,1.3915,0.4907,11.0559,3.7410,1.2840,-0.5233,14.8686,-16.0254,10.3628
31.2500,9.2579,-1.8416,3.9989,-10.6249,16.5738,3.4004,6.2441,-6.1695,-0.7304,-9.7622,0.2275,1.8116,13.1113,1.3919,-0.7568,-0.2360,17.9756,-20.1035,11.4100
35.1562,7.2508,-1.9438,7.5732,-13.0319,17.5102,1.4620,11.5362,-8.9294,-2.1287,-16.1109,0.2714,1.6456,12.7948,-1.1236,-3.3264,1.1256,18.1520,-22.2842,13.0917
39.0625,4.5983,-1.5078,11.4039,-13.6669,16.3156,-1.5181,15.6427,-10.0312,-5.2814,-19.4862,1.6207,0.5279,10.2523,-3.5178,-4.6941,2.8649,15.2845,-22.7156,14.7209
42.9688,2.0372,-0.5582,13.6466,-12.8899,14.0203,-3.2086,17.9599,-9.4343,-8.6502,-19.6761,2.9911,-0.4873,7.0091,-5.2777,-3.6356,4.2668,11.0452,-22.1950,15.2903
46.8750,0.0475,0.2920,13.2739,-11.3421,12.0628,-1.8660,19.0761,-7.5891,-10.7433,-18.3761,2.8570,-0.3994,4.8618,-5.7457,-0.4043,5.1154,7.7448,-21.5574,14.3224
50.7812,-1.3004,0.3797,10.8405,-9.5991,11.2767,2.4427,19.8675,-5.1526,-11.1806,-17.5953,0.8514,1.1377,4.5521,-4.4904,3.2668,5.7438,6.6917,-21.1356,12.3530
54.6875,-2.2956,-0.4021,8.0944,-8.0551,11.3073,7.8469,20.2910,-2.7991,-10.9323,-18.0172,-1.7757,3.5815,5.2098,-1.7630,5.1633,6.6081,7.2476,-20.7010,10.5874
58.5938,-3.4033,-1.4123,6.6916,-7.0206,10.8776,11.9197,19.1061,-1.1716,-11.5800,-18.5989,-3.0684,5.8307,4.9841,1.3428,3.9249,7.7677,7.2867,-19.8850,9.9501
62.5000,-5.0352,-1.6460,6.9967,-6.8081,8.7142,13.2695,14.9884,-0.8283,-14.1472,-17.6334,-1.9240,6.9365,2.4005,3.2892,-0.1543,8.7271,4.7409,-18.6691,10.2865
66.4062,-7.3565,-0.4146,7.9059,-7.6037,4.4816,12.3498,8.1918,-2.0428,-18.3343,-14.3274,0.9829,6.7243,-2.5528,2.9278,-5.3412,8.8007,-0.8855,-17.4834,10.4112
70.3125,-10.1990,2.1738,7.8360,-9.1889,-0.9235,10.9677,1.2276,-4.5274,-22.6727,-9.5954,3.6874,5.8855,-8.3831,0.2662,-9.4859,7.7255,-8.1171,-16.8076,9.0422
74.2188,-13.1284,5.2696,6.0974,-10.8099,-5.9064,10.9280,-2.3327,-7.3570,-25.4558,-5.4788,4.4548,5.4672,-13.0889,-3.4024,-11.1700,6.0231,-14.4805,-16.6405,5.9171
78.1250,-15.6456,7.8115,3.5429,-11.4611,-9.1484,12.8219,-0.2970,-9.3219,-25.7713,-3.7221,3.1028,6.1316,-15.4343,-6.2051,-10.3136,4.7891,-18.1069,-16.3564,2.1818
82.0312,-17.4182,9.1449,1.9473,-10.5122,-10.3546,15.7591,6.2685,-9.6116,-23.9500,-4.6518,1.0599,7.7325,-15.5955,-6.8394,-7.9963,5.0215,-18.8121,-15.1487,-0.3339
85.9375,-18.3952,9.3154,2.5746,-8.2427,-10.3012,18.0920,13.2946,-8.3778,-21.1960,-7.1473,0.1356,9.5218,-14.7909,-5.4004,-5.7314,6.9627,-17.9452,-12.7271,-0.4593
89.8438,-18.7261,8.8943,5.0540,-5.7940,-10.2062,18.4997,16.1226,-6.6919,-18.7442,-9.5527,1.0323,10.8063,-14.2723,-3.2692,-4.6680,9.9322,-17.2346,-9.6519,1.3729
93.7500,-18.5466,8.5279,7.4698,-4.4395,-10.8877,16.6856,12.4398,-5.8062,-17.1546,-10.6819,2.8180,11.5235,-14.4657,-2.0877,-5.1133,12.7597,-17.5498,-6.9501,3.3376
97.6562,-17.8111,8.5559,7.6390,-4.6317,-12.2631,13.3805,3.6544,-6.1925,-16.1754,-10.1745,3.7587,12.2630,-14.8490,-2.5238,-6.5168,14.4933,-18.4582,-5.2716,3.4657
101.5625,-16.3288,8.9313,4.6333,-5.5642,-13.4702,9.8774,-6.2195,-7.0970,-15.1519,-8.1653,2.7759,13.7055,-14.5364,-3.7418,-7.8352,14.8733,-18.7782,-4.2977,1.0070
105.4688,-14.0013,9.4173,-0.5873,-5.6820,-13.4720,7.5233,-13.2544,-7.0376,-13.6020,-4.8527,0.2920,15.9276,-13.0336,-4.0214,-8.0786,14.2775,-17.5892,-2.9755,-3.1099
109.3750,-11.0755,9.8417,-5.8807,-3.8583,-11.7376,7.3747,-15.8964,-4.9574,-11.5509,-0.5055,-2.2234,18.1482,-10.5894,-2.1230,-6.8107,13.2689,-14.9082,-0.4774,-7.0455
113.2812,-8.1868,10.1995,-9.4019,-0.3720,-8.6014,9.9283,-15.3468,-1.1774,-9.4702,4.1508,-3.5849,19.1570,-7.9654,1.6078,-4.3883,12.1647,-11.6145,2.8807,-9.4238
117.1875,-6.1080,10.5580,-10.7386,3.1301,-5.1298,14.8068,-14.1011,2.6449,-7.9666,7.7614,-3.9397,18.1296,-5.9083,5.2783,-1.7971,10.9798,-8.8179,5.6042,-10.2447
121.0938,-5.3501,10.8903,-10.9036,4.7757,-2.6028,20.5492,-14.0299,4.6237,-7.4768,8.8676,-4.6314,15.2217,-4.7607,6.7040,-0.1233,9.7306,-7.2186,6.0481,-10.6599
125.0000,-5.8834,11.0058,-11.2953,3.9236,-1.8858,24.8755,-15.4515,4.0480,-8.1200,6.9179,-6.9982,11.4941,-4.4305,5.0246,0.0750,8.7501,-6.8754,3.7884,-11.8545
128.9062,-7.1662,10.6456,-12.5131,1.8073,-2.9896,25.6253,-17.5591,2.0051,-9.6897,2.9309,-11.1347,8.2287,-4.6009,1.4857,-0.8938,8.6327,-7.3824,0.2216,-13.9713
132.8125,-8.4396,9.6625,-13.9548,0.7735,-5.0228,22.0122,-19.3864,0.6844,-11.6974,-0.9231,-15.6686,6.1460,-4.9170,-1.2691,-2.0689,9.7530,-8.1603,-2.2198,-15.9517
136.7188,-9.0668,8.1397,-14.4401,2.5797,-6.5766,15.3671,-20.2660,1.8191,-13.4506,-2.7079,-18.7385,5.0816,-5.0205,-0.9782,-2.5001,11.7164,-8.6156,-1.7772,-16.3979
140.6250,-8.7031,6.3527,-13.2721,6.9880,-6.3943,8.6562,-19.5387,5.4171,-14.2233,-2.0645,-19.3451,4.2983,-4.5381,2.6229,-1.9116,13.2456,-8.1909,1.2618,-14.7360
144.5312,-7.2586,4.6048,-10.8457,11.7580,-4.0165,4.8399,-16.2339,9.7510,-13.5481,-0.3916,-17.9551,3.1262,-3.1929,7.5349,-0.8615,12.7455,-6.4915,4.6400,-11.7280
148.4375,-4.7930,3.0518,-8.3359,14.1319,-0.0568,5.0522,-9.5471,12.6323,-11.5099,0.3783,-15.9083,1.4112,-1.0385,10.8204,-0.2489,9.2752,-3.5498,5.7099,-8.9281
152.3438,-1.4982,1.6364,-6.7806,12.7746,4.0920,7.8743,-0.0428,13.0037,-8.8123,-0.5311,-14.2100,-0.5287,1.4097,10.6218,-0.5263,3.2944,-0.0202,3.3972,-7.5359
156.2500,2.2269,0.1645,-6.3467,8.7415,7.0060,10.3072,9.5349,11.6312,-6.4708,-2.0008,-12.7971,-2.3137,3.3804,7.4426,-1.2461,-3.3773,3.0002,-0.9329,-7.5677
160.1562,5.7603,-1.5324,-6.3638,4.7423,8.0209,9.8281,15.0344,10.3804,-5.2393,-1.9258,-10.9011,-3.8700,4.3562,3.7768,-1.3397,-8.4496,4.5788,-4.3990,-7.9815
164.0625,8.4456,-3.4502,-6.0307,3.2305,7.5711,6.0756,13.2729,10.6737,-5.1309,0.9114,-8.1168,-5.4376,4.5265,2.3478,0.0496,-10.3858,4.6183,-4.6631,-7.5999
167.9688,9.9378,-5.3596,-5.1323,4.7282,6.8419,0.9358,4.5118,12.3614,-5.3951,5.5735,-5.1213,-7.2451,4.7592,4.2180,2.8306,-9.2029,4.0381,-1.5891,-6.0430
171.8750,10.4560,-6.8668,-4.1293,7.6033,6.9440,-3.0016,-6.9618,13.8969,-5.0222,9.4686,-3.2847,-9.1724,5.9990,8.1078,5.9339,-6.3530,4.2034,2.7302,-3.9209
175.7812,10.6870,-7.5514,-3.5640,9.4002,8.1689,-4.4033,-14.9868,13.6452,-3.4534,10.3300,-3.4283,-10.7134,8.4852,11.3739,8.0427,-3.7864,5.9341,5.5615,-2.1833
179.6875,11.3259,-7.1233,-3.3523,8.6508,9.8411,-4.0323,-15.2042,11.2380,-0.9862,8.0842,-4.8299,-11.2680,11.4126,11.8937,8.5156,-2.8159,8.8369,5.4840,-1.2354
183.5938,12.5526,-5.5440,-2.6560,5.7730,10.8695,-3.8348,-7.7398,7.8543,1.4362,4.9949,-5.4766,-10.5103,13.3817,9.4761,7.7613,-3.4893,11.5363,3.2116,-0.5988
187.5000,13.8526,-3.0736,-0.5335,2.4309,10.5859,-5.0577,3.0493,5.1907,2.9118,3.8281,-3.5353,-8.5398,13.3791,5.8142,6.7729,-4.8028,12.6943,0.7213,0.5986
191.4062,14.3604,-0.2281,3.1370,-0.0292,9.2416,-6.9861,11.5930,3.9700,3.2335,5.4550,1.0848,-5.7470,11.5612,3.0931,6.2420,-5.5258,12.0421,-0.5281,2.7490
195.3125,13.5049,2.3518,7.2713,-1.7375,7.7924,-7.3995,14.6805,3.2410,3.0139,7.8887,6.4142,-2.5803,9.2067,2.3453,6.0315,-5.0390,10.5776,-0.8052,5.2946
199.2188,11.4687,4.0916,10.1572,-4.0901,7.1503,-4.4384,13.0295,1.0986,3.1872,7.6769,9.7537,0.5527,7.8210,2.7762,5.4774,-3.6483,9.7180,-1.7711,7.1084
203.1250,9.0953,4.6795,10.6420,-8.3549,7.4934,1.6338,9.9207,-3.7014,4.2750,2.6673,9.7033,3.2146,8.0479,2.5094,4.2413,-2.2379,10.0634,-4.9092,7.4353
207.0312,7.2982,4.1995,9.0346,-14.2667,8.1805,8.2767,8.2493,-10.5100,5.9901,-6.0378,7.2904,4.8956,9.2284,0.1272,2.9031,-1.5723,10.8023,-10.0424,6.6021
210.9375,6.4250,3.1357,6.9867,-19.8208,8.3274,12.3809,8.4538,-16.9555,7.4875,-14.5765,5.2377,5.2046,9.9606,-4.1837,2.6571,-1.7582,10.3197,-15.1815,5.8638
214.8438,6.0727,2.2248,6.3821,-22.5248,7.5685,12.5702,8.8626,-20.4558,8.0612,-18.9971,5.8796,4.2484,9.2303,-8.7240,4.2552,-2.2117,7.5869,-17.8641,6.4568
218.7500,5.4863,2.1918,8.0416,-21.1905,6.3672,10.2757,7.8768,-19.9657,7.7309,-18.0706,9.3463,2.8632,7.2144,-11.5024,7.0755,-2.1131,3.2126,-16.9331,8.5962
222.6562,4.2044,3.4669,11.2065,-16.8955,5.5978,8.6626,5.8820,-16.6711,7.2387,-14.0489,13.4731,2.3595,5.1090,-11.6476,9.2173,-1.0074,-0.7803,-13.3603,11.2293
226.5625,2.4139,6.0060,14.1729,-12.3639,5.7181,10.1663,5.1092,-13.1461,7.4367,-10.7752,15.5347,3.7820,4.1010,-9.9816,8.7319,0.8583,-2.4081,-9.4968,12.7606
230.4688,0.7260,9.3035,15.5620,-10.2146,6.2061,14.5289,7.5403,-11.6407,8.5186,-10.6513,14.4364,7.1454,4.2998,-8.3896,5.1198,2.6735,-1.3470,-7.3852,12.1919
234.3750,-0.4249,12.5989,15.2340,-11.3592,5.7568,18.8973,12.7363,-12.7604,9.6817,-12.8719,11.6038,11.2505,4.4963,-8.5028,-0.1225,3.5769,0.5643,-7.4687,9.7926
238.2812,-1.2320,15.1796,14.1664,-14.6550,3.1569,19.9747,17.6254,-15.4001,9.4965,-14.3039,9.8336,14.3391,2.9849,-10.6542,-4.4558,3.2172,0.4422,-8.6388,6.8057
242.1875,-2.4103,16.6305,13.4651,-17.9213,-1.7769,16.6204,18.6554,-17.7849,6.7509,-12.2521,11.0012,15.2132,-1.1406,-13.7786,-6.1119,2.0232,-3.6301,-9.4311,4.4775
246.0938,-4.5951,16.9188,13.3708,-19.4249,-7.8747,10.9186,14.6669,-18.6762,1.2135,-6.8409,14.4530,14.0300,-7.1776,-16.2012,-5.3685,1.0315,-11.1282,-9.2710,3.2284
250.0000,-7.7367,16.3031,13.1079,-18.7097,-13.1476,6.8799,8.1147,-17.8353,-6.1609,-1.0774,17.3840,12.1609,-13.0917,-16.6626,-4.2339,1.3804,-19.2293,-8.7251,2.6261
253.9062,-11.0082,15.1620,11.7043,-16.3150,-15.8165,7.7201,3.5109,-15.5898,-13.6712,1.4480,16.9363,11.1870,-16.6792,-14.8859,-4.7314,3.7556,-24.4848,-8.6467,2.1181
257.8125,-13.3375,13.8652,9.0746,-12.8790,-15.1698,13.7040,4.1859,-12.1338,-19.6424,-0.6437,12.3884,11.7744,-16.8008,-11.4463,-7.1409,8.0723,-24.8597,-9.0937,1.8186
261.7188,-14.1601,12.7410,6.3975,-8.5539,-11.7692,22.0723,9.8480,-7.3322,-23.0847,-5.4658,5.7383,13.2898,-13.8906,-7.2377,-9.6609,13.5269,-20.7800,-9.0839,2.5868
265.6250,-13.7998,12.0896,5.3625,-3.2498,-7.0134,28.9871,16.8227,-1.2236,-23.9524,-9.3539,0.2428,14.4470,-9.5242,-3.0258,-9.8588,18.9393,-14.6095,-7.4819,5.2383
269.5312,-13.1734,12.1411,6.7908,2.6241,-2.4571,31.9735,20.7550,5.3382,-22.9975,-9.6481,-1.9375,14.4523,-5.4820,0.6588,-6.8108,23.1749,-9.0992,-4.2533,9.5059
273.4375,-13.0531,12.9163,9.7053,7.7669,0.6951,31.1109,19.6568,10.6773,-21.3860,-6.5326,-1.1848,13.7030,-2.9724,3.4119,-2.1777,25.4469,-5.9537,-0.9116,13.6630
277.3438,-13.4697,14.0771,11.6643,10.5065,1.7876,28.3124,14.9849,13.1686,-20.2550,-2.5432,0.0758,13.4411,-2.3872,4.9273,0.7798,25.4274,-5.3594,0.3948,15.2738
281.2500,-13.7206,14.9294,10.2425,9.9604,0.7463,25.5250,10.0679,12.4077,-20.3151,-0.2889,-0.6678,14.6200,-3.4777,5.1757,-0.3766,23.2364,-6.4785,-1.4560,12.6699
285.1562,-12.9642,14.6810,4.6676,6.9081,-1.8886,23.3830,7.2970,9.7087,-21.5782,-0.3488,-4.1711,16.9208,-5.5952,4.6116,-5.2403,19.4174,-8.2443,-5.4768,6.1462
289.0625,-10.9212,12.8703,-3.5453,3.5640,-4.9707,21.2855,6.3798,7.4037,-23.3255,-1.0517,-9.0675,18.7819,-7.7991,4.1107,-10.5871,14.9241,-9.7985,-9.0298,-1.9942
292.9688,-8.1400,9.7111,-11.4203,2.2755,-6.9997,18.5851,4.9717,7.3580,-24.4164,-0.2017,-13.1061,18.5186,-8.9574,4.5402,-12.5846,11.0205,-10.4540,-9.5912,-8.6333
296.8750,-5.6393,6.0891,-16.2471,4.0449,-6.7207,15.6636,1.0150,9.7785,-23.8877,2.8270,-14.8797,15.7027,-8.0802,6.2171,-9.6202,8.9671,-9.5788,-6.5233,-11.5081
300.7812,-4.2247,3.1494,-17.0456,7.9546,-3.8361,13.8643,-5.2382,13.2098,-21.5515,6.4538,-14.6636,11.6990,-4.8837,8.6744,-3.6269,9.5005,-6.7947,-1.4963,-10.3077
304.6875,-3.9938,1.6948,-14.8598,11.8984,0.6539,14.3210,-11.2059,15.6967,-18.1915,8.2495,-13.8374,8.8517,-0.2116,10.9555,1.1494,12.3333,-2.4292,2.7631,-6.5909
308.5938,-4.3588,1.7686,-11.8349,14.0285,4.8486,16.7370,-13.9647,16.1843,-15.1304,7.0960,-13.5456,8.8479,4.1476,12.2439,1.1121,16.0327,2.2766,4.4264,-2.7309
312.5000,-4.4937,2.6937,-9.8401,13.8208,6.9657,19.2560,-12.6209,15.0729,-13.3626,4.2759,-13.7899,11.4552,6.3521,12.3494,-4.1205,18.5090,5.6300,3.7230,-0.6573
316.4062,-3.8204,3.5382,-9.5743,12.0387,6.3713,19.6624,-9.1483,13.5676,-12.8113,2.5396,-13.6422,14.5882,5.6265,11.6858,-11.3852,17.9910,6.4776,2.4699,-1.1285
320.3125,-2.1902,3.6896,-10.5838,9.8004,3.9203,17.0131,-7.0122,12.4659,-12.2721,3.9175,-12.2397,15.6929,2.8309,10.8003,-16.0776,13.9911,5.0315,2.4465,-3.7596
324.2188,0.2781,3.1658,-11.9061,7.6508,1.3542,12.3959,-8.6156,11.4730,-10.1637,8.1065,-9.5801,13.4584,-0.0073,9.8894,-15.1441,7.6615,2.8222,3.9791,-7.5010
328.1250,3.4577,2.4959,-12.6993,5.4343,0.1757,8.1701,-13.4744,9.6480,-5.6144,12.7703,-6.4092,8.6348,-0.9553,8.7389,-8.8531,1.2446,1.7025,5.8678,-11.1186
332.0312,7.2989,2.3150,-12.4381,2.9801,0.7969,6.2478,-18.4281,6.5784,0.8821,15.4740,-3.3875,3.4155,0.6259,7.1344,-0.2351,-3.1243,2.6002,6.6406,-13.4668
335.9375,11.6797,2.9834,-10.7711,0.8510,2.5389,6.7347,-19.6821,3.2062,7.7415,15.6135,-0.4058,-0.1061,3.7909,5.3427,7.1920,-4.5575,4.9715,6.0166,-13.6652
339.8438,16.2129,4.4664,-7.4397,0.3258,4.3935,7.9639,-15.2190,1.4737,13.3223,14.7326,3.2357,-1.2506,6.8169,4.1617,11.6403,-3.7913,7.3843,5.3064,-11.3525
343.7500,20.2478,6.4684,-2.4998,2.4785,5.8842,7.8596,-6.0008,2.9354,16.9742,15.0072,7.9097,-0.9309,8.4763,4.3930,13.6782,-2.5634,8.7520,6.3817,-6.9704
347.6562,23.1275,8.6317,3.3420,7.0718,7.3255,5.5492,4.6586,7.3939,19.3256,17.2298,12.8924,-0.6794,8.8157,6.1184,15.0669,-2.4111,9.1975,10.0484,-1.7911
351.5625,24.5293,10.6303,8.7252,12.2565,9.3130,1.9987,12.9347,12.6898,21.6084,20.0379,16.5863,-1.3533,8.8899,8.4011,16.9481,-3.6899,9.8244,15.1718,2.5485
355.4688,24.6307,12.1561,12.2052,15.4807,11.9304,-0.7472,16.3086,15.9150,24.5521,21.0481,17.7182,-2.5122,9.7346,9.7431,18.8666,-5.4473,11.5852,19.2994,4.8774
359.3750,23.9758,12.9365,13.1144,15.0380,14.3995,-1.0530,14.4039,15.2174,27.7147,18.9212,16.5579,-2.8734,11.4416,9.0317,19.2922,-6.1926,14.2144,20.3218,5.1726
363.2812,23.1495,12.8756,12.0707,11.1184,15.5204,1.2508,8.6850,10.8878,29.7784,14.5800,15.0328,-1.4074,13.0801,6.2739,17.0596,-4.9931,16.1758,17.8822,4.5635
367.1875,22.4842,12.2316,10.6555,5.5712,14.5761,4.9594,1.5302,4.9756,29.5757,10.5093,15.4444,1.8062,13.4934,2.5470,12.4822,-2.1340,15.7525,13.4664,4.5646
371.0938,21.9685,11.6057,10.4002,0.5760,11.9646,8.4941,-4.6775,-0.2035,27.0347,8.6963,18.6753,5.5879,12.2894,-0.8060,7.2624,1.0790,12.4478,9.1668,6.0364
375.0000,21.3539,11.6170,11.7977,-2.7472,9.0216,10.9083,-8.1005,-3.4998,23.2920,8.9401,23.3123,8.4582,10.2040,-3.1020,3.3445,3.1864,7.5620,6.1471,8.6301
378.9062,20.3357,12.4166,14.0832,-4.7543,7.1450,12.1345,-7.6761,-5.2775,19.8806,8.9768,26.4934,9.5800,8.5559,-4.6368,1.6651,3.4878,3.4398,4.0094,11.1448
382.8125,18.7015,13.4215,15.9508,-6.5061,6.8932,12.4672,-3.2178,-6.5844,17.6313,6.3669,25.9456,9.1624,8.2570,-6.1679,1.7476,2.4034,1.9316,1.4740,12.5287
386.7188,16.4252,13.5799,16.6217,-8.5621,7.7451,11.9519,4.5219,-7.9829,16.1547,0.6176,21.6941,8.1224,9.1916,-8.0291,2.3341,1.1200,3.2347,-2.2915,12.7383
390.6250,13.7334,12.0933,16.3920,-10.3993,8.6666,10.3608,13.9088,-9.0653,14.2971,-6.2046,16.1113,7.3646,10.4391,-9.6624,2.4318,0.8376,5.9687,-6.8369,12.7598
394.5312,11.1197,9.1094,16.2213,-10.9352,8.9843,7.7943,22.7448,-8.9995,11.1860,-10.8998,12.2314,7.2574,11.1059,-10.0006,1.9109,2.1325,8.3483,-10.7518,13.7573
398.4375,9.2200,5.8157,16.7290,-9.6567,8.8440,5.2581,28.8826,-7.5267,7.0031,-11.4776,11.6047,7.6357,11.0365,-8.4109,1.2691,4.7741,9.4662,-12.8190,16.0243
402.3438,8.5013,3.7485,17.4918,-7.3255,8.9094,4.4718,30.9883,-5.4459,2.8501,-8.5707,13.3206,8.1951,10.8081,-5.3978,0.9095,7.9760,9.6700,-12.9963,18.6005
406.2500,8.8799,3.7372,17.2994,-5.5801,9.6008,6.8038,29.1441,-4.0985,-0.1933,-4.8465,14.9020,8.8657,11.0461,-2.4202,0.6466,10.8192,9.8205,-12.4161,19.9101
410.1562,9.5383,5.2521,15.2176,-5.7058,10.5505,12.0598,24.9484,-4.2649,-2.0543,-2.9515,14.3078,9.8399,11.6817,-0.8907,-0.1184,12.5947,10.1625,-12.4401,18.9572
414.0625,9.1824,6.7006,11.5743,-7.5725,10.7525,18.1562,20.9079,-5.4348,-3.8747,-3.6493,11.4365,11.2752,11.8239,-1.1206,-1.7410,12.9859,9.8461,-13.5869,16.1453
417.9688,6.7120,6.5338,7.9771,-9.6465,9.2943,22.1439,19.2401,-6.1211,-7.2196,-5.5578,7.9864,12.9778,10.3917,-2.0645,-3.8263,12.1418,7.5569,-15.2088,13.0538
421.8750,1.9448,4.3866,6.2274,-10.1119,6.0741,22.0189,20.6019,-5.0109,-12.8557,-6.5343,5.8811,14.3727,7.0044,-2.1111,-5.3795,10.6668,2.7470,-16.1287,11.3128
425.7812,-4.0961,1.3944,6.9287,-8.2356,1.9265,18.0730,23.4882,-2.0222,-20.0152,-5.4458,5.6226,14.8109,2.3984,-0.3319,-5.5550,9.4665,-3.5789,-15.6460,11.4280
429.6875,-9.6004,-0.5874,8.9076,-4.8999,-1.9218,12.7807,24.8580,1.6060,-26.7143,-2.8721,5.9400,13.9872,-1.9845,2.7799,-4.4196,9.3825,-9.2323,-14.0588,12.4573
433.5938,-12.8990,-0.3125,9.9822,-1.9047,-4.6164,9.2518,21.8817,4.2677,-30.9127,-0.3037,4.9889,12.1607,-4.9231,5.6584,-3.0854,10.7188,-12.1511,-12.3208,12.7789
437.5000,-13.3417,1.9651,8.5502,-0.6283,-6.0668,9.3170,13.8993,5.1962,-31.7016,1.3008,2.0542,10.0342,-6.1460,6.8247,-3.0338,12.9473,-11.6837,-11.2083,11.3409
441.4062,-11.5706,4.7122,4.7840,-1.1213,-6.7341,12.5691,3.3050,4.9282,-29.7183,2.2598,-1.7059,8.3987,-6.3347,5.9487,-5.0727,14.8866,-8.9092,-10.7563,8.4178
445.3125,-9.0332,6.2865,0.4862,-2.3123,-7.0950,16.9525,-5.4602,4.6631,-26.5767,3.5990,-4.1238,7.7870,-6.4672,4.0000,-8.6713,15.3677,-5.8166,-10.4160,5.3034
449.2188,-7.0846,6.1702,-2.3037,-3.0589,-7.2945,20.3487,-8.4514,5.0935,-23.7952,5.7844,-3.7959,8.3255,-7.0735,2.4177,-12.1656,14.0155,-4.0236,-9.7037,3.2157
453.1250,-6.2729,5.3305,-2.8766,-3.1003,-7.2582,21.9228,-4.8020,5.7336,-21.9805,8.0146,-1.2947,9.7998,-7.9811,2.0072,-13.7333,11.5953,-3.9803,-8.6697,2.2996
457.0312,-6.2231,5.4420,-2.3679,-3.1025,-7.0678,22.2858,2.3923,5.3458,-20.7382,8.8200,1.1966,11.8182,-8.6674,2.4533,-12.5051,9.6023,-5.1129,-7.7191,1.5174
460.9375,-6.0916,7.5749,-2.8157,-3.8115,-7.1448,22.5117,7.6530,3.1231,-19.2073,7.4921,1.5511,13.9459,-8.8211,2.7923,-9.0996,9.2990,-6.5789,-6.9670,-0.5014
464.8438,-5.2013,11.3504,-5.5046,-5.1190,-7.9762,22.9450,6.3108,-0.3872,-16.7218,5.0443,-0.6737,15.7692,-8.5904,2.3822,-5.2549,10.8388,-7.8983,-5.8046,-4.3332
468.7500,-3.4269,15.1896,-9.8948,-5.9281,-9.5849,22.8321,-2.6866,-3.4513,-13.1492,3.7147,-3.9548,16.9355,-8.3333,1.5097,-2.8148,13.1063,-8.9849,-3.2155,-9.2341
472.6562,-1.1661,17.4377,-13.9674,-5.0036,-11.2572,21.0682,-16.1515,-4.3435,-8.8142,5.2638,-6.0691,17.2173,-8.1722,1.1137,-2.7122,14.4112,-9.7454,1.2977,-13.6021
476.5625,0.9618,17.4965,-15.6990,-2.1064,-11.8836,17.3988,-28.5755,-2.6401,-4.2430,9.4202,-5.8533,16.5957,-7.8269,1.8787,-4.5618,13.5624,-9.8104,6.9491,-16.0411
480.4688,2.4283,16.1285,-14.5132,1.5878,-10.7454,13.0150,-35.2674,0.4380,0.0107,13.8317,-4.0273,15.3021,-6.9200,3.5050,-7.0634,10.5725,-8.7729,11.8314,-16.2131
484.3750,2.9739,14.7652,-11.6059,4.2325,-8.1388,9.9616,-34.6727,2.9328,3.4197,15.7125,-2.4460,13.7609,-5.4671,4.8231,-8.9115,6.5321,-6.7247,14.0652,-14.8789
488.2812,2.6781,14.4052,-8.9520,4.6933,-5.2773,9.7319,-28.5610,3.6075,5.5737,13.9765,-2.4448,12.4342,-4.0377,4.7088,-9.6120,2.8137,-4.4873,13.1512,-13.1895
492.1875,1.9928,14.9480,-7.8177,3.4786,-3.4581,12.1029,-20.3250,2.8140,6.4147,10.1743,-3.6718,11.6300,-3.3376,3.0599,-9.6899,0.2388,-3.1369,10.4707,-11.8400
496.0938,1.7030,15.4079,-7.9310,2.4385,-3.0930,15.1177,-12.8321,2.1139,6.4793,7.4319,-4.3703,11.3599,-3.5042,1.0170,-10.1726,-1.2010,-3.0858,8.4569,-10.7198
500.0000,2.6917,14.7486,-7.8786,3.4180,-3.3685,16.2823,-7.2828,2.9946,6.8353,8.1507,-2.8644,11.3173,-3.7432,0.2021,-11.7028,-1.9710,-3.5036,8.9702,-9.2305
503.9062,5.4753,12.6381,-6.3213,6.8846,-2.8435,14.1516,-3.4985,5.7344,8.5459,12.2160,0.9856,10.9986,-2.7332,1.5486,-13.8878,-2.4012,-2.7190,12.0419,-6.9042
507.8125,9.7262,9.5725,-3.0314,11.5810,-0.5563,9.2097,-0.9355,9.3008,11.8945,17.0830,5.5490,9.9392,0.4002,4.6281,-15.3607,-2.4264,0.5349,15.9037,-3.7889
511.7188,14.1738,6.3762,0.9994,15.4544,3.2149,3.4820,0.6228,12.2989,15.9278,19.6646,8.5873,7.9727,5.2750,7.9906,-14.5772,-1.8527,5.9502,18.2579,-0.3524
515.6250,17.1441,3.5743,4.3438,17.1259,7.1477,-0.7793,1.1497,14.1279,18.7920,18.5721,8.8665,5.3842,10.3131,10.2372,-10.8709,-0.8282,11.5623,17.8320,2.9014
519.5312,17.5577,1.1670,6.1047,16.7725,9.8937,-2.3952,0.8460,15.3696,18.8093,15.0352,6.9487,2.8377,13.7385,10.9868,-5.0720,0.0056,15.0029,15.0907,5.7107
523.4375,15.7715,-1.0775,6.3284,15.7912,11.1232,-1.7113,0.3022,17.1097,15.6422,11.8855,4.6095,1.0573,14.8272,11.0170,0.7706,-0.0894,15.2552,11.6738,8.0183
527.3438,13.5948,-3.1588,5.6912,15.5764,11.7621,-0.0368,0.1179,19.7974,10.7045,11.4633,3.4464,0.4066,14.4485,11.5305,4.4562,-1.3000,13.5711,9.0952,9.7584
531.2500,13.2910,-4.6776,4.8853,16.3959,13.2062,1.3924,0.4238,22.6320,6.4187,14.0426,3.8362,0.6269,14.4221,13.1638,4.8418,-2.9556,12.7340,7.7328,10.7746
535.1562,16.0966,-5.1391,4.2681,17.2115,16.1053,2.1583,0.9216,24.0127,4.7224,17.8480,5.0017,0.9596,16.1103,15.4970,2.4238,-3.9111,15.0785,6.8025,10.9960
539.0625,21.2370,-4.4508,3.9603,16.5082,19.6733,2.6752,1.5122,22.7005,5.8095,20.4617,5.9653,0.6491,19.2890,17.3730,-1.0830,-3.3862,20.6761,5.1799,10.6825
542.9688,26.1877,-3.1567,4.1046,13.4368,22.0943,3.6125,2.8624,18.7590,7.9934,20.4261,6.4493,-0.4683,22.1862,17.6957,-3.8704,-1.5837,27.0619,2.3096,10.4132
546.8750,28.1299,-2.1651,4.8879,8.4126,21.7749,5.2386,6.1431,13.5371,8.8256,17.8869,6.9364,-1.7202,22.7235,16.0778,-5.0903,0.4671,30.7925,-1.5040,10.7171
550.7812,25.7112,-2.1595,6.2644,2.8152,18.5392,7.1568,11.8970,8.7447,6.7282,14.0275,7.9366,-1.9553,20.0884,12.9345,-5.1294,1.7821,29.7787,-5.5159,11.6299
554.6875,19.9533,-3.1503,7.7304,-1.8673,13.8914,8.5495,18.9510,5.3831,2.0284,10.0066,9.2499,-0.3473,15.4762,9.1075,-4.9774,2.3256,24.7428,-9.1614,12.6175
558.5938,13.6828,-4.5024,8.5337,-4.7814,10.1398,8.6961,24.5317,3.3435,-3.2948,6.3410,10.0004,2.8847,11.4253,5.4248,-5.2309,3.1688,18.7681,-12.2967,13.0408
562.5000,9.8398,-5.3867,8.2834,-5.9068,8.9841,7.4173,25.8826,1.8705,-6.9392,3.0841,9.4643,6.4025,10.1783,2.4990,-5.5355,5.6854,15.2688,-14.9310,12.8237
566.4062,9.7592,-5.2801,7.4438,-5.7915,10.5236,5.2204,22.3357,0.3694,-7.7364,0.3681,7.9236,8.4897,12.2068,0.7324,-4.9164,10.3527,15.8112,-16.8462,12.7099
570.3125,12.5169,-4.1417,7.1530,-5.2010,13.3107,3.1286,16.1484,-1.1873,-6.2477,-1.3947,6.6827,8.1893,15.9134,0.2869,-2.7384,16.1002,19.2593,-17.5955,13.7467
574.2188,15.6886,-2.2080,8.3465,-4.9405,15.3372,2.3054,11.1816,-2.5420,-4.1651,-1.8989,7.1058,6.0702,18.6821,0.9047,0.4852,20.7825,22.7200,-16.9493,16.2971
578.1250,16.9378,0.3281,10.8351,-5.7712,15.2376,3.6153,10.1960,-3.7334,-3.0373,-1.4830,9.4482,4.0267,18.5143,1.7719,3.1374,22.5036,23.4953,-15.3471,19.3848
582.0312,15.3558,3.4270,13.1786,-8.1816,12.9319,7.2492,12.7967,-5.3004,-3.2725,-1.1443,12.5236,4.1481,15.1325,1.7435,3.4632,20.8492,20.6449,-13.8133,21.0482
585.9375,11.7453,7.0157,13.6298,-11.9881,9.3964,12.5520,15.7237,-7.8086,-4.0898,-1.8268,14.5848,7.3536,9.8808,-0.0101,0.8010,17.1240,15.1916,-13.2566,19.6219
589.8438,7.8112,10.7289,11.5113,-16.0918,5.8516,18.1724,15.3974,-11.0966,-4.3584,-3.5273,14.7364,12.6974,4.6252,-3.3252,-3.8250,13.4265,9.0574,-13.6877,15.0497
593.7500,4.9344,13.8944,7.9109,-18.8017,2.9832,22.5485,10.7818,-14.0048,-3.6179,-5.0739,13.6708,17.8380,0.5155,-6.9211,-8.2298,11.2525,3.6770,-14.0832,9.1703
597.6562,3.3805,15.8631,5.0201,-18.7561,0.6763,24.5578,4.2752,-15.0094,-2.4993,-4.9419,13.0328,20.3943,-2.5395,-9.0999,-10.3897,10.6464,-0.7026,-13.1434,4.6166
601.5625,2.3819,16.4521,4.5214,-15.9004,-1.6699,24.0054,-0.1348,-13.3895,-2.2545,-2.5598,13.8950,19.3280,-5.4303,-8.8787,-9.6587,10.4636,-4.6937,-10.4125,3.0512
605.4688,0.8856,16.1270,6.2751,-11.7423,-4.5612,21.6629,-0.0014,-9.9889,-3.7777,0.9794,15.6575,15.4902,-8.8957,-6.7199,-7.0505,9.4620,-8.8750,-6.8166,4.0557
609.3750,-1.6435,15.7298,8.4115,-8.5176,-7.9732,18.8179,3.6911,-6.8415,-6.8570,3.5211,16.4165,11.0488,-12.8216,-4.2291,-4.4295,7.3425,-13.1281,-4.0722,5.5648
613.2812,-4.9011,15.9211,8.8308,-7.7299,-11.3072,16.6022,7.3995,-5.8086,-10.1973,3.4343,14.6228,8.2393,-16.2733,-2.9663,-3.2228,4.9716,-16.6791,-3.3366,5.5506
617.1875,-8.0197,16.7517,6.9277,-9.1088,-13.7053,15.5064,7.8939,-7.2237,-12.1932,0.9753,10.6759,8.2538,-18.1649,-3.2636,-3.5750,3.6888,-18.6959,-4.1871,3.6479
621.0938,-10.1388,17.6854,4.0847,-10.8269,-14.5122,15.3386,4.7078,-9.6241,-11.9183,-1.7121,7.0021,10.8779,-18.0269,-4.0089,-4.4996,4.2919,-18.8960,-4.8481,1.3952
625.0000,-10.8450,18.0413,2.4387,-10.8953,-13.6346,15.5629,0.1255,-10.8446,-9.6855,-2.0773,6.3228,14.9096,-16.3239,-3.6234,-4.8272,6.4703,-17.7050,-3.6172,0.8415
628.9062,-10.2491,17.4954,2.8686,-8.7062,-11.6355,15.7039,-3.1952,-9.6586,-6.8575,0.9455,9.3449,18.9054,-14.1519,-1.4713,-4.1812,9.0402,-15.9343,-0.4028,2.6021
632.8125,-8.7786,16.2479,3.9036,-5.5021,-9.5209,15.5255,-4.7958,-6.6760,-5.0745,6.0909,13.7355,21.7219,-12.5798,1.4737,-3.2348,10.7084,-14.3031,2.9232,4.9743
636.7188,-6.9288,14.7476,2.6064,-3.3487,-8.2937,14.9437,-6.8162,-3.7640,-5.3958,10.6387,15.3857,22.6474,-12.0927,3.3355,-3.0795,10.7634,-13.1616,3.7966,4.9578
640.6250,-5.1507,13.2307,-3.1012,-3.3808,-8.4595,13.8767,-11.7627,-2.4456,-7.8312,12.3568,11.2147,21.3100,-12.4552,2.9132,-4.2196,9.2655,-12.5152,0.9886,0.5216
644.5312,-3.8662,11.4808,-12.4675,-4.7372,-9.7252,12.2523,-19.5944,-2.5835,-11.4470,11.0138,1.4970,17.6774,-12.9950,0.8419,-5.9946,6.7690,-12.1926,-4.1853,-7.6016
648.4375,-3.4640,9.0241,-21.9586,-5.1191,-11.0933,10.1790,-26.8721,-2.4691,-14.8998,8.3152,-10.0590,12.2461,-13.0631,-0.7076,-6.9066,3.9395,-11.9615,-8.5288,-16.0598
652.3438,-4.1764,5.6112,-27.4753,-2.6299,-11.3689,8.0555,-29.0738,-0.3053,-17.0734,6.3805,-18.6198,6.1957,-12.3841,0.3136,-5.6603,1.3737,-11.5579,-9.1435,-20.9931
656.2500,-5.8902,1.5909,-27.1657,2.5249,-9.8479,6.4029,-24.4091,4.0981,-17.5171,6.0330,-21.2914,1.1805,-11.1417,4.0805,-2.1796,-0.3809,-10.7350,-5.5489,-20.6206
660.1562,-8.0634,-2.1449,-22.7037,7.8881,-6.7823,5.4641,-15.9163,8.8520,-16.5407,6.2950,-18.7616,-1.3270,-9.8143,8.5018,2.1390,-0.8461,-9.4038,-0.1262,-16.3959
664.0625,-9.8794,-4.6403,-18.0204,10.4096,-3.2931,4.9054,-9.7600,11.2533,-14.9830,5.4649,-14.4413,-0.8279,-8.8743,10.6459,5.1628,0.1645,-7.7602,3.5155,-11.8673
667.9688,-10.6003,-5.4494,-16.4201,8.7362,-0.7181,3.9687,-10.6977,9.9026,-13.7810,2.8419,-11.8900,1.8073,-8.4904,8.9945,5.2900,2.2512,-6.2003,3.0817,-10.0906
671.8750,-9.9101,-4.9070,-18.2581,4.3879,0.2366,2.0751,-18.1807,6.0258,-13.5261,-0.3799,-12.5007,4.6833,-8.3582,4.7893,2.4200,4.3966,-4.9676,-0.8317,-11.5198
675.7812,-8.0253,-3.9181,-20.9169,0.8443,-0.0069,-0.5543,-26.3414,2.8684,-14.1926,-1.8489,-15.0522,5.8344,-7.7590,1.3415,-2.0036,5.4025,-3.7637,-5.2854,-13.8986
679.6875,-5.5047,-3.4242,-21.0254,1.1349,-0.1210,-2.8349,-28.1954,3.4754,-15.1737,0.1106,-17.1904,4.2330,-5.8789,1.7128,-5.8968,4.6121,-1.7105,-7.2228,-14.1411
683.5938,-2.9052,-3.9070,-17.1437,5.6808,1.2803,-3.5235,-20.9968,8.4431,-15.6242,5.0235,-17.4428,0.2517,-2.2919,6.4592,-7.7768,2.4221,2.1322,-5.6738,-10.7067
687.5000,-0.5383,-5.2240,-10.8333,11.9834,4.6919,-2.2682,-8.5914,15.3214,-14.9460,10.3504,-16.1418,-4.6633,2.6367,13.1460,-7.5327,0.1554,7.9465,-2.2946,-4.6791
691.4062,1.5154,-6.8189,-5.3627,16.3877,9.2924,-0.1870,1.1998,20.1708,-13.1368,13.1283,-14.7023,-8.8392,7.7143,18.0287,-6.2472,-0.7031,14.6389,0.0929,1.1638
695.3125,3.1965,-8.1065,-3.1691,16.6133,13.3466,0.6152,2.3014,20.1927,-10.7723,11.9519,-14.1054,-11.1923,11.3873,18.6683,-5.2458,0.5709,20.1484,-0.2305,4.4480
699.2188,4.2985,-8.7608,-4.1115,13.2052,15.2035,-1.5795,-5.1166,15.5633,-8.6032,7.8407,-14.0016,-11.5651,12.5390,15.5494,-5.0663,3.4790,22.5461,-2.5703,4.8061
703.1250,4.5528,-8.7558,-5.8265,8.9066,14.2631,-6.7457,-14.8033,9.1898,-7.0129,3.4098,-13.1621,-10.5155,11.1723,11.5403,-5.0777,6.5975,21.2597,-4.4335,3.8350
707.0312,3.9478,-8.2057,-5.7630,6.5188,11.3083,-12.8010,-19.1234,4.6240,-5.7039,1.0445,-10.7491,-8.8312,8.5147,9.6722,-4.0134,8.4108,17.5437,-3.5273,3.6117
710.9375,3.0195,-7.1685,-3.1728,6.8936,8.0123,-16.6889,-14.6902,3.6671,-3.8599,1.4516,-7.1628,-7.1178,6.3927,10.9430,-1.0253,8.1216,13.7704,0.4334,5.0636
714.8438,2.7872,-5.5676,0.5227,8.5082,5.9600,-16.2176,-4.6788,5.3428,-0.7095,3.5477,-3.6596,-5.6296,6.1934,13.7539,3.5107,5.9634,11.9461,5.4745,7.4690
718.7500,4.2375,-3.2710,3.1595,8.8092,5.8083,-11.4243,3.8127,6.8490,3.8762,5.5558,-1.1015,-4.2886,8.0491,15.2837,8.0474,2.9309,12.4533,8.7877,9.3432
722.6562,7.6214,-0.2515,3.7511,6.1992,7.0752,-4.5305,5.1911,5.6650,9.1740,6.3086,0.9735,-2.7647,10.7808,13.6437,10.7807,0.2158,13.9112,8.6892,9.8248
726.5625,12.0639,3.2899,3.2854,1.1583,8.6151,1.4627,-0.5918,1.2546,13.9585,5.7697,4.0190,-0.5863,12.6664,9.1622,10.8044,-1.2854,14.2628,5.6469,9.3613
730.4688,15.8594,6.9239,3.8015,-4.2356,9.3978,4.5489,-8.3068,-4.7608,17.1971,4.5630,9.0782,2.6413,12.5421,3.9305,8.6937,-1.2050,12.3086,1.7174,9.1857
734.3750,17.3821,10.1213,6.6164,-7.8708,9.0693,4.6625,-11.5447,-9.8970,18.6197,3.1338,15.5195,6.8873,10.5098,0.1279,6.0948,0.2748,8.5749,-1.0326,10.1398
738.2812,16.0710,12.4436,11.2258,-8.9968,7.9759,3.2633,-7.3471,-12.5010,18.7739,1.3590,21.0967,11.3897,7.7825,-1.4937,4.6109,2.5062,4.8936,-1.8650,11.9147
742.1875,12.8142,13.6999,15.7486,-8.4747,6.7296,2.0363,2.0503,-12.6434,18.5311,-1.1123,23.4452,14.7045,5.7884,-1.8539,4.7797,4.5559,3.0221,-1.5496,13.3477
746.0938,9.4139,13.9886,18.4323,-7.8838,5.6887,1.7580,11.3119,-11.7436,18.4013,-4.2272,21.8738,15.2981,5.1677,-2.5016,5.8719,5.5392,3.3364,-1.4610,13.4596
750.0000,7.4356,13.6032,18.8682,-8.3281,4.7329,2.1169,15.9407,-11.4092,18.1402,-7.2925,17.9807,12.4877,5.3605,-4.2666,6.6237,5.0750,4.5619,-2.4691,12.2838
753.9062,7.2097,12.8513,17.9059,-9.8624,3.4615,2.4364,14.9574,-12.4090,16.9199,-9.4024,14.5216,7.1577,5.0623,-6.6907,6.3154,3.6196,4.7252,-4.5029,10.7644
757.8125,7.6811,11.8901,16.4670,-11.8091,1.6226,2.5376,10.6041,-14.4113,13.9229,-10.1337,13.3740,1.6566,3.2043,-8.5682,5.3483,2.3693,2.6058,-6.9651,9.8590
761.7188,7.2192,10.6781,14.4554,-13.4860,-0.5747,2.9552,5.8887,-16.4426,8.9274,-9.8425,14.1993,-1.2712,-0.2417,-8.9909,4.8694,2.6403,-1.3786,-9.4345,9.6871
765.6250,4.8076,9.0752,10.8537,-14.6386,-2.5087,4.3587,2.3143,-17.5509,2.4802,-9.2629,14.8601,0.0049,-4.1958,-7.9713,5.7498,5.0427,-5.4717,-11.9427,9.5118
769.5312,0.7498,7.0320,4.9913,-15.2845,-3.5262,6.7587,-0.4324,-17.1922,-4.4265,-8.7864,13.2335,4.9827,-7.1668,-6.2037,7.7499,9.0199,-7.8013,-14.6178,8.5669
773.4375,-3.6198,4.7424,-2.1664,-15.2898,-3.3833,9.2740,-3.0180,-15.2469,-10.8960,-8.1300,8.9462,11.2218,-8.2093,-4.3201,9.5835,13.1534,-7.6172,-17.1413,6.9576
777.3438,-6.9846,2.6491,-7.9955,-14.2253,-2.4348,10.7411,-4.9500,-11.8996,-16.4861,-6.7562,3.6483,15.7171,-7.4816,-2.3912,9.8842,16.0874,-5.6879,-18.6545,5.7648
781.2500,-9.0421,1.2812,-9.7242,-11.7223,-1.4357,10.6906,-4.5883,-7.6017,-21.1688,-4.6786,-0.3369,16.6186,-6.0617,-0.1068,8.3357,17.4204,-3.6628,-18.3155,6.1794
785.1562,-10.6748,1.0066,-6.4125,-7.9938,-1.0883,9.8505,-0.6906,-3.0887,-25.0130,-2.8459,-1.8304,14.1958,-5.2046,2.6213,6.0445,17.8755,-2.9512,-16.0575,8.3807
789.0625,-13.1589,1.8351,0.1706,-3.9628,-1.6362,9.6832,5.9967,0.7521,-27.9199,-2.5929,-1.5856,10.4433,-5.5856,5.2936,4.7868,18.5890,-3.9383,-12.8435,11.1599
792.9688,-17.0241,3.3803,6.5493,-0.7631,-2.7644,11.2484,12.6769,3.2483,-29.6583,-4.4895,-1.4591,7.6511,-7.0161,7.1121,5.6427,20.0646,-6.0073,-10.1050,12.7002
796.8750,-21.4613,4.9979,9.7326,1.0278,-3.8495,14.2610,16.1980,4.3339,-30.1582,-7.5595,-2.7438,6.9623,-8.7363,7.6915,8.0575,21.6502,-8.1874,-8.7615,11.9366
800.7812,-24.7641,6.0346,8.9660,1.7663,-4.3744,17.1076,15.1667,4.6084,-29.7664,-9.6777,-5.1143,7.9030,-9.9822,7.5124,10.0995,22.0195,-9.8325,-8.6181,9.3822
804.6875,-25.4923,6.0779,5.7723,2.3627,-4.2266,17.8641,10.7445,4.9064,-29.1831,-9.0214,-7.0679,9.1151,-10.3981,7.6302,9.7958,20.3312,-10.8323,-8.6493,6.7025
808.5938,-23.4890,5.1113,2.3785,3.4369,-3.7051,15.5957,5.4933,5.6446,-29.0611,-5.5104,-7.4346,9.6260,-10.0632,8.8216,6.5944,17.1474,-11.3261,-7.9355,5.3462
812.5000,-19.9882,3.5192,-0.1263,4.7444,-3.2686,11.0124,1.2601,6.4743,-29.5551,-1.0326,-6.6054,9.6233,-9.2353,10.8974,1.8617,14.3152,-11.3071,-6.4558,5.3403
816.4062,-16.7467,1.9363,-2.4256,5.4086,-3.2248,6.0392,-2.1417,6.5802,-30.1828,1.8611,-6.3698,10.1416,-8.1011,12.8151,-1.9780,13.7921,-10.5344,-5.0507,5.2517
820.3125,-14.8636,0.9922,-5.9992,4.7970,-3.5733,2.6559,-6.4205,5.4381,-30.1401,1.8767,-8.4484,11.9670,-6.7406,13.5431,-3.0572,16.2448,-8.8274,-4.5854,3.3695
824.2188,-14.1648,1.0479,-11.4721,3.2739,-4.0800,1.8356,-12.9721,3.4079,-28.8495,0.0148,-12.9368,14.7111,-5.2715,12.9480,-1.2760,20.4690,-6.4389,-5.0488,-0.8470
828.1250,-13.5629,2.0507,-17.7408,2.0977,-4.4967,3.2491,-21.3032,1.6032,-26.3288,-1.1603,-17.9819,16.8857,-3.9660,11.9087,1.7377,24.0975,-4.1158,-5.4047,-6.2378
832.0312,-12.0447,3.5941,-22.6144,2.4426,-4.7537,5.7782,-29.0188,1.0505,-23.0991,0.4720,-21.0049,16.9940,-3.1767,11.5110,3.8322,25.0971,-2.7339,-4.3830,-10.7686
835.9375,-9.4847,5.1654,-24.4109,4.3090,-4.9995,8.3189,-33.3737,1.7788,-19.7132,4.8500,-20.5142,14.7939,-3.1091,11.9936,3.7756,22.9787,-2.7693,-1.5675,-13.0425
839.8438,-6.6658,6.4404,-23.1644,6.2865,-5.4845,10.2659,-33.1569,2.6235,-16.2929,9.6627,-17.0737,11.6775,-3.6449,12.3908,1.9018,18.8841,-4.0159,2.1550,-13.2733
843.7500,-4.5427,7.4328,-20.4687,6.4944,-6.3785,11.4476,-29.4947,2.0108,-12.4565,12.0793,-12.6977,9.7481,-4.3888,11.2670,-0.4219,14.5804,-5.7537,5.2239,-12.9499
847.6562,-3.3727,8.3853,-18.1448,4.0586,-7.6301,11.7609,-25.0710,-0.8054,-7.6991,10.9733,-9.2248,10.2125,-4.9134,8.0020,-1.9843,11.1861,-7.2015,6.6387,-13.5025
851.5625,-2.4105,9.4714,-16.8799,-0.0365,-8.9278,10.9327,-22.4375,-5.0117,-1.9183,7.9009,-7.0133,12.3107,-4.9974,3.5513,-2.6145,8.5755,-7.8826,6.7808,-15.0874
855.4688,-0.4046,10.5292,-15.9440,-3.4698,-9.7666,8.6251,-22.6152,-8.6395,4.3427,6.0254,-4.9707,13.6843,-4.6559,-0.0311,-3.1188,5.8011,-7.6592,7.1028,-16.4805
859.3750,3.4848,11.0464,-14.1247,-4.1758,-9.6039,4.7455,-24.7793,-9.8715,10.1355,7.7599,-1.7828,12.0313,-3.9602,-1.0277,-4.4151,2.0665,-6.5273,8.8881,-16.1371
863.2812,9.0107,10.4430,-10.9934,-1.8353,-8.0772,-0.3453,-26.9781,-8.2962,14.6373,12.9055,2.7584,6.8812,-2.8518,0.6471,-6.6258,-2.5798,-4.4789,12.0806,-13.5160
867.1875,14.8557,8.4675,-7.3891,1.8749,-5.2281,-5.8956,-27.2608,-5.1589,17.5527,18.6970,7.4427,0.1570,-1.1728,3.3374,-8.8605,-7.3268,-1.6372,15.1705,-9.5828
871.0938,19.2860,5.4231,-4.7437,4.4866,-1.6211,-11.0010,-24.6000,-2.4164,19.0958,21.7192,10.5478,-4.9784,1.0719,4.8529,-9.8281,-11.2750,1.4639,16.2886,-6.1138
875.0000,20.9991,2.0543,-3.8883,4.4958,1.7686,-14.8042,-19.3210,-1.3187,19.6273,20.2610,11.1421,-6.2411,3.4617,4.0765,-8.7569,-14.0667,3.8248,14.6709,-4.4130
878.9062,19.6942,-0.8282,-4.3966,2.3530,3.9403,-16.5756,-12.9963,-1.5983,19.3145,15.3910,9.6935,-3.8182,5.2157,1.7270,-5.9059,-15.9746,4.4028,11.3193,-4.4872
882.8125,16.1513,-2.7215,-4.9985,-0.0244,4.3848,-15.8016,-7.7944,-1.8554,18.1341,10.0539,7.5563,-0.2847,5.6311,-0.3029,-2.3280,-17.4857,2.8450,8.2969,-5.2798
886.7188,11.8936,-3.5663,-4.6392,-0.7854,3.4402,-12.4413,-5.3611,-0.7855,16.1921,6.9645,5.8821,1.1202,4.6314,-0.4835,0.8473,-18.8464,-0.0101,7.1741,-5.6451
890.6250,8.6245,-3.6169,-3.2253,0.4794,2.2051,-7.2815,-5.6455,1.7391,13.9964,6.8805,4.9258,-1.3462,2.9772,1.1617,3.0138,-19.9802,-2.3689,7.8215,-5.1688
894.5312,7.6043,-3.2247,-1.4444,2.5400,1.9679,-2.0446,-6.4686,4.5628,12.3081,8.4081,4.2633,-6.8289,1.8901,3.1287,4.1551,-20.7581,-2.4681,8.4791,-4.1700
898.4375,9.1096,-2.7382,0.0700,3.5643,3.4447,1.1017,-4.5257,6.1365,11.5642,9.2602,3.5557,-12.5460,2.2765,3.6516,4.4547,-21.2188,0.2854,7.0396,-3.0186
902.3438,12.1801,-2.5483,1.3630,2.5036,6.3110,0.6017,2.3574,5.6482,11.3122,7.8657,3.0145,-15.6787,4.0943,2.0547,3.8962,-21.4051,4.8353,2.5604,-1.5288
906.2500,14.8852,-3.1144,2.9451,-0.2492,9.3733,-3.4264,13.0567,3.5067,10.2184,4.1580,3.0781,-15.1083,6.3588,-0.8279,2.2449,-20.9314,9.0779,-4.1120,0.9152
910.1562,15.1712,-4.7949,4.9691,-3.3381,11.3192,-8.8981,22.8727,0.8788,6.8374,-0.8081,3.6504,-11.8347,7.8331,-3.4236,-0.5920,-18.7880,11.2010,-10.9883,4.5857
914.0625,11.9747,-7.5146,6.6843,-5.5428,11.5646,-12.6498,25.9791,-1.2419,0.7114,-5.8230,3.7707,-7.9319,7.9218,-4.6730,-4.1950,-13.7985,10.8461,-16.2616,8.7580
917.9688,5.9624,-10.5451,6.8672,-6.5645,10.6131,-12.1383,19.4385,-2.6340,-7.0017,-10.1889,2.2522,-4.9481,7.0990,-4.7219,-7.6428,-5.5801,9.2665,-19.2778,11.9244
921.8750,-0.6762,-12.6959,5.0102,-6.9426,9.6583,-6.9427,6.0530,-3.6922,-13.9477,-13.6836,-1.1120,-2.9624,6.5248,-4.5525,-9.9615,4.7070,8.3571,-20.5230,12.8641
925.7812,-5.4180,-12.9372,2.2140,-7.3405,9.6945,0.9233,-6.3927,-4.7904,-17.8974,-16.1473,-4.8602,-0.9002,7.1176,-4.9777,-10.6866,14.5499,9.2518,-20.8429,11.7251
929.6875,-6.9045,-11.0820,0.7984,-7.9360,10.7674,8.1554,-9.6231,-5.8358,-18.1299,-17.2956,-6.5193,2.2889,8.7765,-5.9263,-10.1101,21.3023,11.4957,-20.6791,10.1195
933.5938,-5.7540,-8.0060,2.6594,-8.4497,11.9051,12.0615,-0.3900,-6.4339,-15.9153,-17.0010,-4.3468,6.5974,10.3551,-6.6288,-9.0383,23.6906,13.3719,-19.9470,9.9841
937.5000,-4.0769,-5.1519,7.5665,-8.6792,11.7833,12.0108,16.8490,-6.4561,-13.7159,-15.6796,1.1282,10.8743,10.4270,-6.4757,-8.2716,22.5347,13.1144,-18.5148,12.0108
941.4062,-3.9779,-3.5972,12.8536,-8.9134,9.6413,9.5375,32.2967,-6.3783,-13.6227,-14.2268,7.0947,13.6862,8.2828,-5.7207,-8.2084,20.1185,10.1093,-16.6807,14.9209
945.3125,-6.0902,-3.3446,14.9977,-9.7389,5.7875,7.1266,36.9296,-6.9672,-16.0850,-13.3650,10.2128,14.3923,4.4231,-5.3486,-8.8184,18.6342,5.2387,-15.1085,16.2736
949.2188,-9.2049,-3.3814,12.0760,-11.3845,1.3495,6.5811,28.2522,-8.5396,-19.7769,-12.9260,8.9470,13.5893,0.1938,-6.1998,-9.8988,18.8351,0.1936,-14.2531,14.2865
953.1250,-11.2712,-2.4886,5.2779,-13.2687,-2.5146,8.0712,11.6724,-10.5100,-22.6285,-11.8152,4.7225,12.6297,-3.1400,-8.1328,-11.3063,19.8669,-3.6656,-13.8602,9.2789
957.0312,-11.0167,-0.1896,-1.7553,-14.3019,-5.3431,10.3941,-3.4429,-11.7694,-23.2362,-8.8951,0.9523,12.6472,-5.1826,-10.0112,-12.9438,20.3219,-6.0530,-13.0988,3.5724
960.9375,-8.9603,2.9017,-5.3666,-13.8066,-7.5162,12.0830,-10.1403,-11.6942,-21.6538,-4.1751,0.5916,13.8566,-6.5004,-10.5895,-14.5627,19.6004,-7.6413,-11.3016,-0.1365
964.8438,-7.0517,5.6109,-4.3252,-12.2686,-9.7733,12.4580,-8.0846,-10.9184,-19.0876,0.7367,4.0328,15.6095,-8.0122,-9.5693,-15.6545,18.4433,-9.3155,-8.6672,-0.7068
968.7500,-7.2200,7.1768,-0.4725,-11.1490,-12.5290,11.8737,-2.7402,-11.0583,-16.8446,3.4973,8.9183,17.0625,-10.2063,-7.9060,-15.6447,18.2006,-11.4622,-6.2246,0.6963
972.6562,-9.9430,7.8610,2.8468,-11.7490,-15.5320,11.1137,-0.5176,-13.4147,-15.3883,2.7175,11.9756,17.8619,-12.7941,-7.0588,-14.3078,19.4651,-13.8324,-4.9767,1.5929
976.5625,-13.9115,8.6740,3.2917,-13.9978,-18.0993,10.5393,-3.8393,-17.6308,-14.1831,-0.8128,11.4262,18.3094,-15.0210,-7.7845,-12.0726,21.2461,-15.9675,-4.9155,0.1142
980.4688,-16.9960,10.4312,1.0147,-16.2428,-19.6843,9.7380,-9.8913,-21.5085,-12.3425,-4.4394,8.1117,18.9398,-16.3180,-9.4928,-9.9102,21.4498,-17.7091,-4.8232,-3.6629
984.3750,-17.7350,12.9354,-1.9339,-16.3866,-20.2935,7.9544,-13.7175,-22.3692,-9.4856,-5.4298,4.5350,19.9108,-16.7344,-10.7351,-8.7974,18.3737,-19.3013,-3.1791,-7.9878
988.2812,-16.2116,15.0108,-3.6503,-13.5798,-20.4308,4.9337,-12.8234,-19.0746,-6.1149,-2.9540,2.6804,20.7178,-16.8231,-10.4430,-9.0948,12.0840,-21.0193,0.4713,-11.0167
992.1875,-13.7370,15.4208,-4.0897,-9.0937,-20.6536,1.4598,-9.3771,-13.1306,-3.2701,1.2757,2.4129,20.4507,-17.1255,-8.8752,-10.2789,4.5961,-22.7210,4.8391,-12.3576
996.0938,-11.7194,13.9404,-5.0096,-5.5363,-21.1328,-0.8984,-8.2398,-7.8521,-1.7980,4.2719,1.7350,18.3915,-17.7257,-7.4493,-11.2300,-1.3138,-23.7990,7.6076,-13.3029
1000.0000,-10.6906,11.6767,-8.2286,-4.8777,-21.5657,-0.7179,-12.5935,-6.0331,-1.8301,4.0260,-1.3590,14.5308,-18.2444,-7.5593,-10.8956,-3.7946,-23.6406,7.1359,-15.5863
1003.9062,-10.2275,10.3029,-13.7179,-6.7961,-21.4685,2.3052,-20.9385,-7.8208,-2.8172,1.0157,-6.9905,9.6924,-18.2341,-9.3489,-8.8917,-2.8814,-22.2110,3.8599,-19.7253
1007.8125,-9.6973,10.7612,-19.2002,-8.7250,-20.5588,7.0230,-28.0566,-10.4801,-3.9925,-2.2273,-13.0413,5.2345,-17.5886,-11.4793,-5.6790,-0.1048,-20.2110,0.2164,-24.3520
1011.7188,-9.0636,12.4578,-21.6880,-7.7098,-18.9068,11.3886,-29.1919,-10.3683,-4.8369,-3.1638,-16.6486,2.5230,-16.5886,-12.1252,-2.2554,2.8263,-18.5931,-0.9858,-27.1110
1015.6250,-8.9959,13.6238,-19.7714,-2.7228,-16.7775,13.5436,-23.9743,-5.7159,-5.2142,-1.2906,-16.3692,2.4047,-15.5553,-10.4087,0.3835,5.1802,-17.7844,1.4131,-26.4145
1019.5312,-10.1804,12.5989,-14.8172,4.3688,-14.3756,12.7555,-16.7846,1.9001,-5.2033,1.4633,-13.2936,4.8340,-14.4573,-7.0952,1.6802,7.3339,-17.2620,6.0475,-22.6464
1023.4375,-12.4551,9.0530,-10.0827,10.0168,-11.7618,9.6632,-13.1917,8.5891,-4.9034,2.3368,-10.2359,8.7519,-12.8640,-3.9683,1.6507,9.9035,-15.8928,9.9981,-17.8626
1027.3438,-14.5623,4.2009,-8.4066,11.5390,-8.9969,5.7638,-15.3646,10.9879,-4.4326,0.0842,-9.6439,12.3181,-10.3258,-2.3807,0.7512,12.7092,-12.8226,10.8965,-14.2540
1031.2500,-14.7979,-0.1408,-10.2565,9.0794,-6.3039,2.5420,-20.2430,8.7915,-4.0520,-3.8112,-11.8483,13.5478,-6.8509,-2.1665,-0.3747,14.5012,-8.2218,8.5690,-12.6127
1035.1562,-12.0953,-2.8907,-13.5969,5.4773,-3.9945,0.7886,-22.0063,5.0413,-4.1593,-6.0792,-14.9591,11.2132,-3.0278,-1.8065,-1.1417,13.7090,-3.2569,4.9904,-11.9837
1039.0625,-6.7276,-4.3798,-15.5823,4.1407,-2.1433,0.4322,-16.8453,3.9203,-5.0112,-4.0966,-16.4050,5.5955,0.3722,0.2872,-1.2178,9.6275,0.7393,2.6460,-10.6845
1042.9688,-0.1377,-5.8729,-14.6656,6.5611,-0.3090,0.8277,-6.1398,7.6988,-6.3640,2.0321,-14.8691,-1.4262,3.0055,4.4208,-0.6588,3.1063,3.2676,2.6341,-7.7744
1046.8750,5.9099,-8.3830,-11.4888,11.3647,2.3383,1.1935,4.5526,15.1127,-7.4209,9.3480,-11.1645,-7.2022,5.2466,9.3067,0.0713,-3.7882,5.0278,3.9946,-3.7595
1050.7812,10.1885,-11.7756,-7.9989,15.5622,6.4213,0.9164,9.8517,22.3454,-7.3028,13.9776,-7.5013,-9.7290,7.8526,13.0359,0.2705,-8.8763,7.3213,4.7191,-0.0374
1054.6875,12.3227,-14.8784,-5.6936,16.9338,11.6744,-0.3343,8.6790,25.7980,-5.7896,13.7010,-5.8478,-8.8368,11.2284,14.5223,-0.6436,-10.9360,10.9322,3.5328,2.3389
1058.5938,12.5320,-16.4558,-4.5204,15.6242,16.7595,-2.5532,4.7950,24.5137,-3.7269,9.2748,-6.6775,-6.3199,14.9004,14.2340,-2.7468,-10.0567,15.3683,0.9519,3.4642
1062.5000,11.2357,-16.1950,-3.2782,13.7211,19.8717,-5.2948,3.3846,20.4808,-2.6242,3.6384,-8.9358,-4.8004,17.6968,13.6275,-5.4443,-7.1955,19.0922,-1.2290,4.2905
1066.4062,8.9365,-14.8754,-1.0249,13.2478,19.8362,-7.5973,6.5957,16.7381,-3.5694,-0.2704,-11.0177,-5.9774,18.5760,13.7828,-7.6957,-3.4282,20.6027,-1.5373,5.5800
1070.3125,6.3905,-13.6104,1.8573,14.2777,16.9465,-8.1696,11.7806,14.8950,-6.2052,-1.3993,-11.8206,-9.4121,17.4883,14.3961,-8.5426,0.5168,19.5528,-0.1323,7.1077
1074.2188,4.6872,-12.8411,3.9304,14.7492,12.8949,-5.9853,13.9093,14.0328,-8.6192,-0.8544,-11.0672,-12.7065,15.5617,13.9810,-7.6274,4.2340,17.0429,1.2870,7.8765
1078.1250,4.9052,-11.9578,4.0727,12.1445,9.7676,-1.0911,10.1172,11.7573,-8.4106,-0.5838,-8.8734,-13.0064,14.3914,11.1233,-5.3668,7.3847,14.8563,0.8920,7.1719
1082.0312,7.4430,-9.8735,2.7131,5.6678,8.7771,4.9064,2.5289,6.4333,-4.3057,-1.6899,-5.2178,-8.8371,14.9162,5.7639,-2.6774,9.6059,14.2189,-1.7359,5.4875
1085.9375,11.5400,-6.0548,1.7657,-2.8544,9.6218,9.2208,-3.1048,-1.2551,2.8125,-3.7221,0.0390,-1.0425,16.7242,-0.5395,-0.4609,10.7060,15.0218,-5.2273,4.4076
1089.8438,15.4833,-1.1267,3.2135,-10.0954,10.9140,9.2173,-1.9539,-8.6508,10.2719,-5.3689,6.5822,7.7628,18.3351,-5.5903,0.7884,10.8987,16.0642,-7.5137,5.4199
1093.7500,17.4938,3.4663,7.4776,-13.5074,11.3182,4.0857,5.8414,-13.0379,15.2167,-5.7914,13.1672,14.7764,18.2673,-8.0004,1.0246,10.7254,16.0711,-7.4644,8.5999
1097.6562,16.7276,6.4688,12.9445,-12.9982,10.5151,-4.2064,14.9677,-13.5697,16.3707,-5.3975,17.9155,18.4972,16.0896,-7.9978,0.4088,10.6144,14.6474,-5.7105,12.3061
1101.5625,13.6814,7.6659,17.0931,-10.7680,9.2702,-11.5023,18.8440,-11.7292,14.7280,-5.4353,19.3927,19.1619,12.6627,-7.0346,-0.9277,10.4225,12.4219,-4.0002,14.2508
1105.4688,9.7276,7.9036,18.3374,-9.5337,8.6042,-13.5244,14.5795,-10.0759,12.6873,-6.8412,17.7024,18.0234,9.4025,-6.6054,-2.8808,9.4287,10.3177,-3.6753,13.1755
1109.3750,6.1532,8.3108,17.1001,-10.5866,8.7817,-8.3325,5.0839,-10.3655,12.2654,-9.3868,14.6450,16.2127,7.1582,-7.2475,-5.1637,6.9129,8.6076,-4.5826,9.8161
1113.2812,3.4286,9.3988,15.2723,-13.1355,8.9676,2.3528,-3.2654,-12.5013,13.6736,-11.8550,12.6354,14.1170,5.5927,-8.4449,-7.1609,2.9318,6.5825,-5.3337,6.3650
1117.1875,1.1885,10.7764,14.5535,-15.2650,7.8510,13.9195,-5.4430,-14.9729,15.2493,-13.0469,13.0648,11.6465,3.5494,-9.3429,-8.1033,-1.3626,3.1439,-4.6504,4.8274
1121.0938,-1.1831,11.6481,15.0828,-15.5587,4.7429,21.3982,-1.2388,-16.2128,14.7314,-12.7114,15.3135,8.9554,0.1033,-9.5405,-7.5397,-4.2394,-2.1410,-2.5988,5.5540
1125.0000,-3.9224,11.5999,15.4907,-14.0435,0.2520,22.2534,5.2245,-15.6801,10.9080,-11.5953,17.2073,6.8147,-4.5487,-9.2764,-5.7701,-4.4743,-8.4019,-0.6193,7.0929
1128.9062,-6.7095,10.9647,14.2686,-11.8404,-4.0371,17.6856,9.2098,-13.9105,4.4556,-10.6180,16.6352,6.2028,-9.0812,-8.9652,-3.8468,-2.2351,-13.8223,-0.3155,7.4429
1132.8125,-8.9938,10.4789,11.2199,-10.0532,-6.6682,11.6394,9.0467,-11.7603,-2.5578,-9.9605,13.1425,7.4410,-11.9452,-8.6599,-3.0359,0.9407,-16.7926,-2.0587,5.6738
1136.7188,-10.4425,10.5814,7.7011,-8.9839,-7.3592,8.2137,6.7548,-9.7086,-8.0541,-8.9306,8.2977,9.6832,-12.4953,-8.0368,-4.0539,3.1476,-17.0193,-4.6408,2.6155
1140.6250,-11.1144,11.0094,5.4237,-8.2968,-7.1761,9.2072,5.3726,-7.8462,-11.1786,-6.7592,4.5448,11.3357,-11.4727,-6.9301,-6.6173,3.4232,-15.7450,-6.3049,0.1049
1144.5312,-11.2936,11.0513,4.8730,-7.7755,-7.6931,13.3634,5.6303,-6.3692,-12.5714,-3.6167,3.3955,11.2025,-10.4671,-5.8261,-9.6588,2.4215,-14.8895,-6.2691,-0.5413
1148.4375,-11.2570,10.2109,4.7787,-7.7481,-9.7737,17.6351,5.1115,-5.8425,-13.6289,-0.8789,4.3151,9.4784,-10.7608,-5.6857,-12.0807,1.9285,-15.7241,-5.3895,0.4445
1152.3438,-11.2448,8.6666,3.1916,-8.6391,-12.8950,19.3892,0.7570,-6.7433,-15.4113,-0.2677,5.1276,7.7416,-12.4195,-7.0747,-13.5032,3.5329,-18.0319,-5.3300,1.5628
1156.2500,-11.5930,7.1096,-0.6871,-10.0645,-15.5087,17.9310,-7.5356,-8.6231,-17.9937,-2.4727,3.6214,7.8427,-14.2908,-9.3227,-14.4395,7.3920,-20.3366,-6.9162,1.3451
1160.1562,-12.7262,6.1192,-5.5173,-10.4914,-16.1474,14.4038,-15.6407,-9.8021,-20.6085,-6.3785,-0.8427,10.4781,-14.8855,-10.5842,-15.7491,11.9889,-20.9929,-9.1290,-0.4564
1164.0625,-14.8156,5.6608,-8.6482,-8.0975,-14.4398,10.4477,-17.8323,-8.2098,-22.3185,-9.6234,-6.8919,14.5362,-13.4705,-9.0069,-17.7622,15.0760,-19.3240,-9.7284,-2.7761
1167.9688,-17.3249,5.1763,-8.2306,-2.3529,-11.3097,6.9091,-11.4778,-2.9660,-22.6558,-10.1726,-12.1434,17.7583,-10.5790,-4.2327,-19.7510,15.1665,-16.0079,-7.1227,-4.2694
1171.8750,-18.9634,4.1837,-4.9325,5.0057,-8.2744,3.6856,0.0864,4.5492,-21.8247,-7.7455,-14.8648,18.2551,-7.6100,1.9951,-20.1977,12.5451,-12.5049,-1.9622,-4.5400
1175.7812,-18.3603,2.8124,-1.7731,10.6754,-6.4226,0.6792,9.2161,11.2149,-20.4748,-3.9924,-15.0793,15.7623,-5.8597,6.7795,-17.7480,9.1115,-10.0186,2.9659,-4.4843
1179.6875,-15.1410,1.7358,-2.0491,11.9353,-5.8310,-1.2206,9.2839,14.1646,-19.3236,-1.2544,-14.3775,11.7127,-5.7022,8.0312,-12.2297,7.1705,-8.7654,4.6400,-5.4549
1183.5938,-10.5564,1.5135,-6.8836,8.7123,-5.7757,-0.2843,-0.3297,12.8536,-18.8847,-0.8375,-14.6719,8.1143,-6.4672,6.0027,-5.0328,7.9856,-8.0302,2.1015,-7.9819
1187.5000,-6.9615,1.9276,-14.3043,3.8720,-5.4677,4.6247,-13.5771,9.5402,-19.3449,-2.1164,-16.8544,6.1229,-7.0202,3.1581,1.4511,11.0372,-6.8701,-2.6832,-11.1810
1191.4062,-6.2844,1.9733,-20.6086,1.2963,-4.6777,12.4407,-22.1450,7.6374,-20.4986,-3.1422,-20.2827,5.3996,-6.5693,2.3668,5.0224,14.4179,-4.8806,-6.1664,-13.3964
1195.3125,-8.5323,0.6212,-22.9854,3.0556,-3.7829,19.6398,-21.6287,9.0827,-21.7094,-2.2609,-23.3363,4.6853,-5.1268,4.7336,4.7905,16.0437,-2.4658,-5.8031,-13.5567
1199.2188,-11.5566,-2.2276,-21.3782,7.8180,-3.2777,21.9725,-14.6894,12.7599,-22.0092,0.5352,-24.5087,3.0583,-3.3730,8.7324,1.5653,14.8647,-0.4805,-1.8868,-12.0826
1203.1250,-12.4467,-5.4254,-18.1832,11.8011,-3.2184,17.2353,-8.6977,15.2983,-20.4481,3.5797,-23.2213,0.8147,-2.1060,11.3579,-2.6635,11.3342,0.4218,2.8004,-10.5429
1207.0312,-9.6337,-7.2630,-16.1096,11.6356,-3.0871,7.0989,-9.7080,13.7356,-16.6055,4.8536,-19.8912,-0.7509,-1.6994,10.4503,-5.8019,6.9355,0.2441,5.2507,-10.3112
1210.9375,-4.1018,-6.7030,-15.9753,6.9831,-2.1834,-3.5461,-17.5381,8.0028,-10.9361,3.6270,-15.4057,-0.4794,-1.9046,6.4097,-6.6409,3.1738,-0.3767,4.6178,-11.3514
1214.8438,1.3196,-4.2057,-16.2121,0.8761,-0.2146,-9.5506,-25.8739,1.2368,-4.6233,1.1470,-10.5424,1.5362,-2.0458,1.9552,-5.2475,0.7249,-0.5764,2.8350,-12.1909
1218.7500,4.1390,-1.4628,-14.4202,-2.5225,2.3967,-8.8555,-27.3305,-2.4268,1.0721,-0.1695,-5.7595,3.7878,-1.4187,0.0913,-2.6481,-0.7598,0.2657,2.9858,-11.1600
1222.6562,4.1796,-0.1945,-9.6186,-1.0393,4.7300,-3.8671,-19.4500,-0.9416,5.5583,1.5554,-1.3554,4.3290,0.3510,1.8368,-0.1078,-2.1713,2.2672,6.7346,-7.8939
1226.5625,3.7326,-0.9111,-3.2804,3.9068,5.9431,0.2054,-6.8598,4.0664,9.1932,6.3105,2.3388,2.1781,3.1327,5.4654,1.5277,-4.1970,5.0537,12.8747,-3.8191
1230.4688,5.6623,-2.5785,1.7311,8.4396,5.7809,-1.0196,2.1366,8.4729,12.8378,12.1713,5.0229,-1.9146,6.3202,7.8317,2.0930,-6.8321,7.9266,18.1463,-1.1499
1234.3750,10.9101,-3.4273,3.4551,9.1887,4.6725,-7.9944,1.8621,8.7112,16.9863,16.5697,6.6989,-5.9310,9.0311,6.7430,1.9313,-9.4331,10.0682,19.6656,-1.1445
1238.2812,17.4245,-2.2622,2.4441,5.7690,3.3950,-16.8276,-6.4631,4.3732,21.1558,17.8966,7.8199,-7.9532,10.4345,2.5484,1.5143,-11.2083,10.7607,17.0364,-3.0292
1242.1875,21.4973,0.7199,1.3324,0.8833,2.5828,-21.8392,-15.7387,-1.6177,24.0627,16.3031,9.0477,-7.4426,10.1261,-2.2406,1.1408,-11.7671,9.6468,12.4924,-4.5001
1246.0938,20.5729,4.1699,2.6842,-1.9562,2.4260,-19.3073,-18.3586,-5.3371,24.5139,13.2312,10.7172,-5.5180,8.3910,-4.9378,0.8740,-11.3580,6.9785,9.0082,-3.4623
1250.0000,15.3535,6.6032,6.8726,-1.2412,2.7108,-9.8582,-11.6711,-4.8439,22.3436,10.1592,12.4479,-4.0636,6.1661,-4.6938,0.6725,-10.6667,3.6846,7.9178,0.3462
1253.9062,9.4738,7.3573,11.7374,1.3875,3.0954,2.0279,0.6112,-1.5301,18.6477,7.5666,13.3108,-4.3459,4.6230,-2.9974,0.5404,-10.3443,1.0877,7.9363,5.1329
1257.8125,6.8885,6.7924,14.3224,2.4979,3.3793,10.9026,11.8096,1.1131,15.0912,4.8503,12.5367,-6.1310,4.5357,-2.3649,0.5477,-10.5838,0.3059,6.3197,8.4135
1261.7188,8.9339,5.7200,13.2862,-0.4147,3.5891,13.5776,17.4465,0.2316,12.7940,1.1351,10.2608,-7.8954,5.8042,-4.3330,0.7129,-11.0005,1.6423,1.1949,8.8896
1265.6250,13.3407,4.6554,10.0195,-6.9933,3.8764,10.6017,17.9788,-4.3203,11.6521,-3.7473,7.6744,-7.9228,7.4871,-8.3386,0.8792,-10.8559,4.3742,-6.8017,7.3666
1269.5312,15.9964,3.5506,7.5466,-14.3081,4.3543,5.2714,17.1903,-10.0904,10.6151,-8.8996,6.3495,-5.4868,8.3917,-12.2854,0.7356,-9.4654,7.1495,-14.8407,6.0170
1273.4375,14.1182,2.1562,8.0947,-19.0182,5.0029,1.1659,18.0435,-14.0459,8.6743,-12.8631,7.1493,-1.3190,7.8710,-14.2243,0.0207,-6.5564,8.7832,-19.8709,6.6116
1277.3438,8.3925,0.5784,11.2993,-19.6507,5.6842,0.0287,19.7973,-14.7688,5.7421,-14.5559,9.5232,2.8883,6.2779,-13.7516,-1.2230,-2.4166,8.9284,-20.6906,9.1437
1281.2500,2.4307,-0.5562,14.4990,-17.2886,6.2193,1.2988,18.8976,-13.1274,2.6910,-13.9268,11.7672,5.5372,4.7184,-12.0613,-2.5571,2.1938,8.1437,-18.5732,11.9190
1285.1562,-0.0315,-0.5277,14.8766,-14.3362,6.4624,3.2600,12.7485,-11.0929,0.5159,-11.8885,12.1368,6.0176,4.2337,-10.7509,-3.3453,6.2906,7.2995,-16.1052,12.9847
1289.0625,1.9687,0.8247,11.7140,-12.5412,6.3383,4.6696,2.9197,-9.9003,-0.6767,-9.6694,10.0380,4.9132,4.9731,-10.4733,-3.1585,8.9739,6.7658,-15.2663,11.7034
1292.9688,5.8299,2.8187,6.9523,-11.9034,5.8501,5.5957,-5.1937,-9.1634,-1.9802,-8.1207,6.4261,3.5022,5.9712,-10.5579,-2.1231,9.7161,6.0139,-16.2470,9.2045
1296.8750,7.2597,4.2998,3.6326,-11.1970,5.0620,6.9829,-6.1939,-7.6018,-4.9785,-7.4580,3.1000,2.9620,5.7288,-9.8287,-0.9427,8.5650,3.9762,-17.7678,7.3896
1300.7812,3.3511,4.3946,3.4992,-9.4468,4.0522,9.4931,1.1027,-4.5887,-10.5319,-7.5034,1.3999,3.7787,3.2189,-7.8191,-0.5259,6.1865,-0.0748,-18.4213,7.3495
1304.6875,-5.4365,3.0449,5.6923,-6.9777,2.8367,12.6454,12.5556,-1.0552,-18.0082,-8.0997,1.2659,5.6332,-1.3848,-5.2935,-1.4318,3.6867,-5.7874,-17.8364,8.4984
1308.5938,-15.7550,0.9226,7.5360,-5.1624,1.3082,14.9555,21.6524,1.0851,-25.5833,-9.3005,1.3497,7.6970,-6.7781,-3.6440,-3.5014,2.2186,-11.7308,-16.7822,9.1075
1312.5000,-23.7733,-1.1501,6.7272,-5.1926,-0.7415,14.9572,24.1309,0.4850,-31.3968,-11.2089,0.0834,9.0805,-11.3454,-3.7246,-5.9373,2.5044,-16.1997,-16.3123,7.7601
1316.4062,-27.6147,-2.7434,3.1344,-7.0259,-3.4805,12.3368,20.5592,-2.4826,-34.6739,-13.6752,-3.1004,9.1912,-14.1469,-5.1634,-7.7956,4.4998,-18.2782,-16.8171,4.5157
1320.3125,-28.0964,-3.8753,-1.2009,-9.4305,-6.8378,8.3409,14.9552,-5.9826,-35.9622,-16.1747,-7.3011,7.9093,-15.3854,-6.7427,-8.5584,7.4005,-18.4012,-17.7920,0.8471
1324.2188,-27.4833,-4.6004,-3.7724,-11.0298,-10.3866,5.1349,10.8741,-8.1635,-36.3522,-17.9996,-10.7552,5.6032,-16.0638,-7.4856,-8.3973,10.0289,-17.9962,-18.3851,-1.5610
1328.1250,-27.4670,-4.5914,-3.5806,-11.3650,-13.4378,4.4995,8.4389,-8.5420,-36.3651,-18.6090,-12.0350,3.0326,-17.1337,-7.4652,-7.9524,11.4152,-18.4547,-18.0902,-2.1396
1332.0312,-27.9959,-3.1895,-1.7915,-11.0373,-15.3406,6.6831,4.8085,-8.1510,-35.4466,-17.8492,-10.9536,1.1448,-18.7827,-7.6082,-7.8057,11.2588,-20.1691,-16.9166,-1.8211
1335.9375,-27.7062,0.0361,-0.6580,-10.8698,-15.8285,10.1480,-2.5269,-8.3771,-32.4906,-15.8994,-8.5633,0.7698,-20.3591,-8.6735,-8.0401,10.0159,-22.3116,-14.9734,-2.2198
1339.8438,-25.3640,4.6748,-1.7070,-10.9429,-15.1825,12.4162,-12.7410,-9.5695,-26.9580,-13.0538,-6.3420,2.2822,-20.9321,-10.3404,-8.2049,8.5771,-23.4839,-12.0355,-4.3339
1343.7500,-21.0254,9.3866,-4.7088,-10.4630,-14.0820,11.5585,-21.8021,-10.6873,-19.6531,-9.5796,-5.2441,5.3809,-20.0180,-11.2826,-7.6995,7.7360,-22.7346,-7.6880,-7.8408
1347.6562,-16.0242,12.5366,-8.1770,-8.6295,-13.2213,7.4581,-25.7521,-10.3129,-12.4794,-5.7746,-5.2986,9.1379,-17.9279,-10.2489,-6.2743,7.7552,-20.2109,-2.0301,-11.5051
1351.5625,-11.9485,13.1675,-10.8083,-5.6887,-12.9398,2.0484,-24.2569,-8.1134,-7.3142,-2.0989,-5.9330,12.3448,-15.5223,-7.2570,-4.2692,8.2500,-17.0173,3.7505,-14.2671
1355.4688,-9.5448,11.6196,-12.5215,-3.1088,-13.1083,-1.7132,-21.1659,-5.3875,-4.8445,0.8618,-6.6177,14.0086,-13.6209,-3.8350,-2.4166,8.4124,-14.4538,7.6802,-16.0430
1359.3750,-8.4044,9.3305,-14.2158,-2.5493,-13.3325,-1.6135,-21.3620,-4.1094,-4.2407,2.6970,-7.2471,13.7375,-12.5380,-1.9960,-1.3603,7.4258,-13.2266,8.2163,-17.5760
1363.2812,-7.5295,7.9339,-16.5714,-4.4044,-13.3061,2.3518,-26.4849,-5.2192,-3.8895,3.5341,-7.9985,11.8106,-12.0519,-2.7014,-1.2458,4.8618,-13.1679,5.5294,-19.5350
1367.1875,-6.1649,8.2663,-19.0921,-7.1995,-13.0427,7.7791,-33.2679,-7.6439,-2.5893,4.0981,-8.9135,8.9180,-11.7366,-5.0546,-1.6640,0.9025,-13.5628,1.7421,-21.7156
1371.0938,-4.1955,9.9287,-20.3494,-8.5070,-12.8168,11.1641,-36.1212,-8.9949,-0.2962,5.2772,-9.6750,5.7614,-11.3187,-6.9323,-1.9624,-3.6722,-13.7228,-0.2912,-23.0846
1375.0000,-1.9264,11.6312,-19.2666,-6.7870,-12.8758,9.9926,-31.9348,-7.4817,2.0863,7.4168,-9.8215,2.7756,-10.7661,-6.6120,-1.6751,-7.7202,-13.3382,1.0809,-22.6517
1378.9062,0.3641,12.0137,-16.2810,-2.7118,-13.1663,4.3196,-23.0186,-3.4979,3.5952,9.8778,-9.1881,0.1157,-10.1076,-4.1277,-0.7731,-10.1293,-12.4156,5.0754,-20.4019
1382.8125,2.5935,10.3802,-13.2585,1.1618,-13.3056,-3.2118,-15.5062,0.4866,3.9862,11.3003,-8.1212,-2.1554,-9.2325,-1.2696,0.4051,-10.2435,-10.9965,8.9416,-17.4523
1386.7188,4.6577,6.9367,-12.1078,2.2262,-12.8318,-8.9685,-14.3666,1.7490,3.7751,10.5108,-7.2161,-3.8972,-7.9155,-0.2003,1.4361,-8.1543,-9.0071,9.8684,-15.2526
1390.6250,6.1784,2.5146,-13.2175,-0.2055,-11.5396,-10.5220,-19.1687,-0.5438,3.5870,7.4715,-6.7921,-4.9214,-6.0566,-1.7616,2.0771,-4.6944,-6.4011,6.9555,-14.4776
1394.5312,6.6279,-1.9253,-15.0771,-4.3188,-9.6285,-7.9984,-24.2866,-4.5818,3.4616,3.5386,-6.5992,-5.2143,-3.8821,-4.7839,2.3479,-1.0965,-3.4136,1.7962,-14.5364
1398.4375,5.8393,-5.6767,-15.4772,-7.0789,-7.5347,-3.7265,-23.5643,-7.1775,2.7844,0.7378,-6.0745,-5.1450,-1.8520,-6.9227,2.4289,1.5312,-0.5989,-2.7311,-14.1068
1402.3438,4.4422,-8.4092,-13.3297,-6.4015,-5.5723,-0.5098,-15.6054,-6.0837,0.9476,0.4937,-4.9472,-5.4132,-0.2856,-6.3545,2.5089,2.6269,1.4916,-4.5111,-12.2384
1406.2500,3.7147,-10.0907,-9.5711,-2.5708,-3.6807,0.2116,-5.1475,-1.5705,-1.8305,2.6998,-3.6202,-6.6684,0.9774,-3.0297,2.7050,2.2535,2.7625,-3.5283,-9.0948
1410.1562,4.8021,-10.8550,-6.3523,2.1147,-1.5082,-0.9656,0.8437,3.9111,-4.3039,5.8157,-2.8959,-9.0070,2.5259,1.4148,3.0713,0.8300,3.7335,-1.5638,-5.7298
1414.0625,7.8397,-10.9086,-5.1830,5.0868,1.1994,-2.2514,-0.7859,7.6208,-4.9201,7.9391,-3.1984,-11.7154,4.8800,4.9085,3.6238,-1.2328,5.1735,-0.6368,-3.1348
1417.9688,11.6955,-10.4826,-5.6254,5.2309,4.2006,-2.2451,-6.3549,8.4197,-3.0011,8.0700,-3.9753,-13.5243,7.9031,6.3195,4.3109,-3.6793,7.4265,-1.5189,-1.4212
1421.8750,14.6166,-9.8060,-5.7055,3.3017,6.6989,-0.9983,-8.1592,7.2069,0.5266,6.6407,-3.9182,-13.3063,10.6442,5.9186,4.9513,-6.2318,9.9809,-3.4789,0.1371
1425.7812,15.3564,-9.0925,-3.7347,0.8832,7.7480,0.1987,-1.0610,5.7149,3.4960,4.9479,-1.9894,-10.8148,11.8584,4.7335,5.2271,-8.3069,11.7111,-5.3191,2.2554
1429.6875,13.9602,-8.5431,0.0256,-1.0868,6.8917,0.0062,12.5787,4.8217,3.8064,3.9718,1.5152,-6.9644,10.9148,3.4961,4.8008,-8.9956,11.7066,-6.6846,4.7843
1433.5938,11.6346,-8.3406,3.3725,-2.9571,4.5887,-1.8354,23.9819,3.8533,0.7917,3.5374,4.8240,-3.4126,8.4232,2.1285,3.5170,-7.4886,10.0801,-8.4500,6.6869
1437.5000,9.8295,-8.5961,3.9644,-5.7126,2.0767,-4.3311,24.5761,1.4125,-4.3106,2.4866,5.7852,-1.6489,6.0315,0.1328,1.5612,-3.7113,8.0778,-11.8410,6.9540
1441.4062,9.2512,-9.2405,1.4625,-9.7223,0.6993,-6.0577,13.0057,-3.0758,-9.1247,-0.2818,3.5083,-2.1414,5.4292,-2.5917,-0.5523,1.3544,7.3062,-17.0786,5.6906
1445.3125,9.5338,-9.9407,-1.8528,-14.0636,1.1157,-6.2189,-3.2150,-8.5191,-11.5927,-4.7473,-0.7095,-4.0784,7.2130,-5.3451,-2.1852,6.0511,8.5867,-22.7724,4.3606
1449.2188,9.7426,-10.1533,-2.6689,-17.0546,2.9223,-5.0559,-13.0061,-12.7937,-11.1147,-9.5444,-4.0103,-5.8645,10.4370,-7.0653,-2.8714,8.9933,11.2983,-26.6689,4.8284
1453.1250,9.2303,-9.3597,0.7343,-17.5449,4.9518,-3.3828,-9.9739,-14.3448,-8.6416,-12.7811,-3.8434,-6.0476,13.2097,-7.2310,-2.5458,9.9321,13.7474,-27.2090,7.8650
1457.0312,8.1403,-7.3716,6.9458,-15.8530,6.0407,-1.7991,2.8893,-13.3910,-5.7778,-13.2757,0.2484,-4.0883,13.9377,-6.3922,-1.5959,9.8405,14.3336,-24.6445,12.3309
1460.9375,7.1899,-4.4934,12.3149,-13.5460,5.7230,-0.3531,15.7919,-11.7118,-3.6437,-11.2717,6.2756,-0.5224,12.3231,-5.7902,-0.7220,10.0628,12.6468,-20.8065,15.7924
1464.8438,6.9684,-1.3948,13.6661,-12.2584,4.3639,1.0899,19.9120,-11.2068,-2.3422,-8.1205,11.1905,3.5043,9.3949,-6.3364,-0.6746,11.1298,9.6585,-17.7192,16.2025
1468.7500,7.3449,1.2478,10.7055,-12.5483,2.6752,2.2638,14.0730,-12.4468,-1.3297,-5.2437,12.9998,6.9466,6.5790,-7.8140,-1.9626,12.1919,6.8603,-16.1881,13.3821
1472.6562,7.4602,3.0965,6.1709,-13.7203,1.0255,2.4398,4.9872,-14.4138,-0.2685,-3.2263,12.0124,9.3289,4.5472,-9.0218,-4.6232,11.6227,5.0303,-15.4841,9.1385
1476.5625,6.2940,4.2431,3.5741,-14.6759,-0.8778,1.1153,1.0367,-15.5790,0.4119,-1.7230,10.3057,10.7326,2.7458,-8.7786,-8.1348,8.4249,3.6157,-14.3016,5.9033
1480.4688,3.3808,5.0101,4.3563,-14.9612,-3.6548,-1.1370,4.8821,-15.3144,-0.2656,-0.1437,9.8910,11.4402,-0.0280,-6.9533,-11.5368,3.3541,1.2423,-12.1016,4.9489
1484.3750,-0.8234,5.6619,6.7839,-15.0522,-7.5215,-2.5792,11.1296,-14.3796,-2.9883,1.5621,11.0766,11.5962,-4.4655,-4.6248,-13.7646,-1.2259,-3.0361,-9.6570,5.5806
1488.2812,-5.1419,6.2821,7.5086,-15.6507,-11.7777,-1.3476,11.0428,-14.0773,-7.3777,2.7483,12.3438,11.1546,-9.9420,-3.2017,-14.0944,-2.8160,-8.7496,-8.3326,5.9148
1492.1875,-8.2824,6.8916,4.5219,-16.7024,-15.0113,3.0324,0.3595,-14.8818,-11.9256,2.6803,11.8001,10.0951,-14.7467,-3.2295,-12.4880,-0.5729,-14.1107,-8.7525,4.5714
1496.0938,-9.4773,7.6354,-0.9506,-17.1371,-15.9765,8.9093,-16.4052,-15.8391,-14.7591,1.3494,8.9743,8.6539,-17.2210,-3.9189,-9.6263,3.9472,-17.1866,-10.0562,1.8670
1500.0000,-8.8315,8.7855,-5.2414,-15.7000,-14.5387,13.3451,-28.9558,-15.3648,-14.7280,-0.2768,5.4261,7.3216,-16.9556,-3.8434,-6.5725,7.7418,-17.2791,-10.4548,-0.4854
1503.9062,-7.2410,10.4937,-5.1555,-12.2141,-11.9495,14.0960,-29.2497,-12.7917,-12.0670,-0.8617,3.6069,6.5887,-15.1215,-2.2550,-4.2445,8.3892,-15.4535,-8.6762,-0.9212
1507.8125,-5.9404,12.5121,-0.6713,-8.1207,-10.1484,11.2779,-18.0463,-9.2735,-8.1900,0.2850,4.8556,6.6549,-13.6534,0.1048,-3.0230,5.6710,-13.7893,-5.0858,0.4795
1511.7188,-5.8749,14.1987,4.7912,-5.6598,-10.5059,7.3604,-4.5391,-7.1114,-4.7876,2.6258,8.1552,7.3518,-13.8732,1.4571,-2.7467,1.5850,-13.8923,-1.4901,1.8281
1515.6250,-7.1724,14.9104,6.8218,-6.1948,-12.8749,5.3839,0.7501,-7.9121,-2.8626,4.7598,10.7018,8.3426,-15.5727,0.4201,-3.0682,-1.2322,-15.7672,0.2795,0.8013
1519.5312,-9.0016,14.5095,3.2847,-9.0019,-15.6533,6.7206,-5.8830,-11.0678,-2.3337,5.4783,9.8989,9.4142,-17.2266,-2.7133,-3.8580,-1.4243,-17.8678,-0.1365,-3.5111
1523.4375,-9.9773,13.5311,-4.1698,-11.5887,-16.8539,10.1268,-18.7214,-13.9145,-2.3986,4.6730,5.2463,10.5972,-17.1634,-5.9442,-5.2985,0.3159,-18.2532,-1.3126,-9.7669
1527.3438,-8.9895,12.7801,-11.5061,-11.4316,-15.4538,12.8427,-27.6247,-13.6136,-2.3154,3.3726,-1.3292,12.0075,-14.8116,-6.9078,-7.5577,2.1750,-15.9731,-1.2290,-15.2423
1531.2500,-6.0139,12.6189,-15.4420,-7.8532,-12.0752,12.8587,-26.4666,-9.3544,-2.0172,2.8875,-6.9271,13.5566,-11.1136,-4.6015,-10.3132,2.9972,-11.6830,0.9652,-17.7566
1535.1562,-2.3478,12.5383,-15.7877,-2.5691,-8.5233,10.5056,-18.0464,-3.1106,-2.1477,3.7666,-9.7525,14.8141,-7.8377,-0.1585,-12.5856,3.3684,-7.1142,4.0683,-17.1539
1539.0625,0.0146,11.4580,-15.1598,1.5762,-6.5215,8.0743,-11.4379,1.7467,-3.5470,5.4078,-10.2209,15.1808,-6.3354,3.9624,-13.1591,5.0424,-3.8702,5.6133,-15.2068
1542.9688,-0.4035,8.6170,-16.4169,2.7505,-6.5456,7.7966,-14.0044,2.9825,-6.5770,6.6081,-10.3210,14.2658,-6.6552,5.7763,-11.3989,9.1513,-2.4555,3.7843,-14.0661
1546.8750,-3.5071,4.3687,-20.0168,1.5086,-7.5599,9.8867,-24.7468,1.2268,-10.7448,6.5662,-11.8522,12.1648,-7.6038,5.1865,-7.8902,14.7234,-2.1620,-1.0229,-14.5244
1550.7812,-7.4830,0.1755,-23.5078,0.3336,-7.7892,12.3079,-34.5991,-0.4774,-14.8402,5.5053,-14.9856,9.4058,-7.6186,3.9494,-4.3437,18.8680,-1.7459,-6.2523,-15.4704
1554.6875,-9.7505,-2.3171,-23.5612,1.6936,-5.9290,12.4844,-33.5956,1.0003,-17.4733,4.4389,-18.2246,6.5954,-5.7633,4.2510,-2.6910,18.6698,-0.2853,-8.8731,-14.9210
1558.5938,-8.4489,-2.4792,-18.8350,6.1150,-1.9407,9.5250,-19.1543,6.4512,-17.6911,4.3348,-19.6586,4.0530,-2.1647,7.0257,-3.8971,13.4092,2.3916,-7.4586,-11.7417
1562.5000,-3.4989,-1.2277,-11.2770,11.7452,3.0522,5.0637,1.2853,13.6605,-15.3715,5.4074,-18.3995,1.7317,2.2884,11.3047,-7.2925,5.3619,5.8623,-3.1095,-6.6459
1566.4062,3.4338,-0.4090,-4.7747,15.7182,7.5748,1.9539,15.5351,19.0012,-11.2584,7.0983,-15.0740,-0.5246,6.6114,15.0346,-10.9267,-1.5384,9.5301,1.4294,-1.6903
1570.3125,9.9799,-1.4516,-2.2439,16.2529,10.6701,1.8718,15.7576,20.0553,-6.6771,8.6649,-11.1394,-2.6424,10.2031,16.6538,-12.7489,-4.2523,12.8926,3.7387,1.2802
1574.2188,14.3431,-4.3216,-3.5168,13.8923,12.2475,3.8413,4.2441,17.2784,-3.0650,9.7751,-7.7763,-4.2428,12.8690,16.1686,-11.8387,-2.5343,15.5279,3.2781,1.9563
1578.1250,15.9739,-7.6117,-5.7059,11.0054,12.8130,4.9695,-8.6043,13.5101,-1.4733,10.5566,-5.3418,-4.9570,14.5580,14.9405,-8.8625,1.1879,17.0167,1.4249,1.6199
1582.0312,15.3519,-9.7101,-5.6783,10.0127,12.9459,2.8490,-12.3790,11.8051,-2.1907,11.1148,-3.7178,-4.8976,15.1869,14.4595,-5.4845,3.7705,17.0652,0.1134,1.9616
1585.9375,13.2864,-10.1151,-2.5794,11.7169,12.9763,-2.3342,-4.4166,13.2896,-4.6298,11.0701,-2.9983,-4.8503,14.7489,15.1517,-3.1976,3.5957,15.8200,0.2438,3.6957
1589.8438,10.4150,-9.8185,1.6335,14.9267,13.0274,-7.7505,8.7544,16.6074,-7.5542,9.6734,-3.6687,-5.9050,13.5509,16.1652,-2.4222,1.4272,14.0490,1.1054,6.1109
1593.7500,7.2394,-10.4217,3.9899,17.4965,13.2149,-10.0183,17.0728,19.1992,-9.5958,6.4988,-5.9934,-8.6722,12.2473,16.2140,-2.4745,-0.6154,12.8686,1.1589,7.8607
1597.6562,4.4430,-12.6754,3.0615,17.8437,13.6923,-7.7629,14.9365,19.2542,-9.8425,2.1063,-9.2040,-12.6143,11.5113,14.6954,-2.3202,-0.9654,13.0666,-0.5781,8.2392
1601.5625,2.9484,-15.6334,0.1321,15.7762,14.4615,-2.5870,5.1797,16.7823,-8.1921,-2.0197,-11.4179,-16.0389,11.5565,12.1318,-1.4585,0.1960,14.4933,-3.7140,7.8139
1605.4688,3.4622,-17.1458,-1.9297,12.1600,15.1737,2.2783,-3.7902,13.1139,-5.2677,-4.3652,-10.6464,-16.9063,11.9242,9.6206,-0.2304,1.3420,16.0586,-6.8501,7.8756
1609.3750,5.8387,-15.3580,-1.0597,7.9299,15.2249,4.4649,-4.9629,9.4604,-1.9461,-4.4731,-6.2361,-14.0354,11.7908,7.8378,0.6387,1.0928,16.4522,-8.7326,9.2153
1613.2812,8.9083,-10.0823,2.4077,3.3949,14.1878,4.0310,2.0027,5.8662,1.1943,-3.3157,0.4496,-7.9603,10.6161,6.4957,0.8161,-0.5712,15.1102,-9.1763,11.3242
1617.1875,11.1041,-2.9942,6.2597,-1.6152,12.2626,2.8957,11.2611,1.4249,4.1353,-2.5780,6.8129,-0.8420,8.6350,4.7187,0.7523,-2.4113,12.6812,-9.0119,12.7572
1621.0938,11.5194,3.4746,8.5151,-7.0368,10.3169,2.8010,16.1703,-4.5209,7.2251,-3.3788,10.7924,4.5973,6.7683,1.9783,1.3170,-3.1746,10.5791,-9.1804,12.3873
1625.0000,10.5587,7.6897,9.2337,-12.0814,9.3672,3.7036,14.8268,-11.3314,10.6975,-5.4637,12.2619,6.5325,5.9754,-1.2723,2.9614,-2.8036,9.9116,-9.8235,10.4851
1628.9062,9.5737,9.6573,10.4081,-15.5187,9.8257,4.0501,11.1686,-17.1581,14.2890,-7.5455,12.9134,5.0301,6.5217,-3.8560,5.1297,-2.4891,10.5935,-10.1738,8.6620
1632.8125,9.6903,10.6185,13.9897,-16.5494,11.0909,2.6411,10.9956,-20.1574,17.2671,-8.4977,14.6835,1.9821,7.7241,-4.8318,6.4892,-3.4997,11.3402,-9.3248,8.6445
1636.7188,10.7540,11.8380,19.7528,-15.5093,11.8491,0.2943,16.5167,-19.8478,18.8563,-8.3542,18.0015,0.0092,8.3755,-4.3345,5.9100,-5.8374,10.5684,-7.1760,10.8355
1640.6250,11.3123,13.6040,24.9097,-13.7486,10.9156,-0.3866,24.1050,-17.4916,18.7280,-8.2049,21.3359,0.9733,7.5230,-3.5457,3.4767,-7.9603,7.5159,-4.6981,13.8370
1644.5312,9.7448,15.1820,25.9657,-12.7245,8.0058,2.8481,27.1030,-15.1823,17.1618,-9.0307,22.4674,4.9656,5.0177,-3.7767,0.6979,-7.9098,2.7283,-3.2593,15.3661
1648.4375,5.6807,15.6371,21.4162,-13.0175,3.8631,9.6351,21.2657,-14.3693,14.7424,-10.5080,20.4614,10.3443,1.4583,-5.4091,-0.3848,-4.9371,-2.4308,-3.5758,13.8890
1652.3438,0.5273,14.7585,13.1208,-14.0602,-0.3335,16.7222,8.3295,-14.9822,11.8385,-10.9383,16.6648,14.7643,-2.3485,-7.5839,1.3422,-0.2368,-6.8078,-5.1875,9.7258
1656.2500,-3.4214,13.3109,5.1939,-14.7676,-3.7940,20.2035,-5.1313,-15.7839,8.2989,-8.5566,13.7978,16.5585,-5.9240,-8.9194,5.0658,3.8980,-10.1789,-6.9139,4.8017
1660.1562,-4.6882,12.4558,1.2194,-14.4986,-6.5219,18.5988,-12.4883,-15.5630,3.6386,-3.2479,13.7778,15.6342,-9.2234,-8.6737,8.3078,5.8618,-13.1108,-7.8973,1.2809
1664.0625,-3.8176,12.8634,1.9254,-13.5178,-9.0077,14.1904,-11.5668,-14.1222,-2.4112,2.8012,16.0247,13.3661,-12.2965,-7.3751,8.4079,5.9949,-16.1476,-8.3194,0.1638
1667.9688,-3.0898,14.2341,5.0591,-12.5793,-11.5265,11.3030,-5.4367,-12.2586,-9.4250,6.2566,17.6983,11.6003,-14.8914,-6.3691,4.3105,6.2438,-19.0777,-9.1426,0.8802
1671.8750,-4.8783,15.5537,7.4243,-12.0469,-13.6787,12.7362,0.7444,-10.8405,-16.2796,4.9055,15.8033,11.4386,-16.4269,-6.6333,-2.5462,8.4583,-20.9490,-11.0689,2.0599
1675.7812,-9.8409,15.8113,7.3521,-11.3908,-14.6015,17.2594,3.9087,-9.8678,-21.6679,-0.6397,9.5756,12.6051,-16.4031,-7.8448,-8.9000,12.7126,-20.8428,-13.6226,2.7221
1679.6875,-16.2861,14.6131,5.6234,-9.5887,-13.6949,20.4115,4.8194,-8.4000,-24.7687,-7.1726,1.2682,13.7955,-14.8971,-8.5101,-11.5414,17.0517,-18.7473,-15.2152,2.8646
1683.5938,-21.1908,12.3052,4.2326,-6.1508,-11.2509,18.2222,6.2670,-5.4581,-25.5961,-10.9922,-5.3390,13.7408,-12.6746,-7.1105,-9.2308,18.9241,-15.7593,-14.2624,3.0377
1687.5000,-22.1344,9.6546,4.1937,-1.8691,-8.4275,10.9474,9.6828,-1.1188,-24.8181,-10.3605,-7.6173,12.2146,-10.7578,-3.3713,-3.4402,17.1836,-13.3914,-10.5133,3.3974
1691.4062,-18.7920,7.4154,4.3498,1.4638,-6.5382,3.6354,13.3159,3.2091,-23.2490,-6.5070,-5.9408,10.2417,-9.7588,1.3788,2.5500,13.0621,-12.5170,-5.4992,3.1827
1695.3125,-13.0184,6.0561,2.2486,2.3004,-6.1882,2.6980,13.5417,5.6850,-21.4498,-2.4805,-3.3423,9.3281,-9.5131,5.0872,5.6116,9.3267,-12.7969,-1.6494,1.1647
1699.2188,-7.6020,5.6809,-3.6393,0.6282,-6.9217,10.8885,8.0470,5.4755,-19.7181,-0.7980,-3.2882,10.2550,-9.3111,6.4408,4.5409,8.2737,-13.0485,-0.6660,-3.2590
1703.1250,-4.6443,6.0319,-12.2437,-1.7679,-7.6370,24.5878,-1.9546,3.5727,-18.3580,-1.7210,-7.2818,12.3352,-8.5312,5.7813,0.5567,10.1204,-12.2409,-2.3713,-9.2588
1707.0312,-4.6200,6.5335,-20.2360,-2.4145,-7.4185,35.7566,-12.3873,2.2530,-17.8530,-3.4189,-14.0376,13.7360,-7.1393,4.7617,-3.7060,13.0101,-10.2881,-4.9098,-14.8025
1710.9375,-6.5327,6.4689,-24.2159,0.1006,-6.1314,37.3869,-19.2271,3.4891,-18.6628,-3.7362,-20.6763,12.7084,-5.6344,5.0210,-5.9637,14.5515,-7.9992,-6.1543,-17.8353
1714.8438,-8.7972,5.3503,-23.0644,5.0352,-4.3535,28.5006,-21.1530,7.4832,-20.7523,-2.0307,-24.8499,8.8651,-4.5101,6.9228,-5.6313,13.6332,-6.2642,-5.2362,-17.5452
1718.7500,-10.1282,3.3134,-18.6335,9.9279,-2.7814,14.9208,-19.7948,12.4479,-23.2928,0.4141,-26.1231,3.5656,-3.7264,9.3382,-3.9149,11.1067,-5.2085,-3.0351,-14.7692
1722.6562,-9.9546,1.1887,-14.2743,12.3028,-1.6520,5.1358,-17.6310,15.8376,-24.9149,1.6560,-25.6973,-0.9207,-2.6948,10.6136,-2.6999,8.8952,-4.0736,-1.2934,-11.2709
1726.5625,-8.3535,0.0349,-12.3975,11.4075,-0.6526,4.2622,-15.6240,16.1295,-24.4554,0.8863,-24.9588,-2.9090,-0.8271,9.9314,-3.0785,8.3312,-1.9536,-1.1034,-8.4990
1730.4688,-5.7852,0.3474,-12.9651,8.6977,0.6676,10.5491,-12.7701,13.8349,-21.6801,-0.7970,-24.1967,-2.3879,1.8176,7.9743,-4.5504,9.0684,1.2406,-1.9950,-6.7893
1734.3750,-2.8508,1.5381,-13.9798,6.7082,2.4102,16.9479,-7.8633,11.0100,-17.3987,-1.2826,-22.5362,-0.9223,4.3860,6.3850,-5.4085,9.3648,4.4500,-2.3459,-5.5450
1738.2812,-0.0945,2.1982,-13.4058,7.1665,4.2191,16.4706,-1.6550,9.6777,-12.8319,0.7672,-19.0017,-0.4639,5.7913,6.4773,-3.9873,7.4207,6.1346,-0.7608,-4.0973
1742.1875,2.1948,1.0887,-10.8630,9.7691,5.6293,7.2843,2.8503,10.3769,-8.7028,4.7454,-13.6728,-1.9667,5.5768,8.2398,0.1261,2.6883,5.4651,2.7164,-2.4259
1746.0938,4.1070,-1.8441,-7.7457,12.5219,6.5180,-6.1611,2.5565,11.9208,-4.7940,8.5160,-7.8947,-4.8263,4.3737,10.4092,5.7446,-3.7882,3.0850,6.5535,-1.1204
1750.0000,5.9972,-5.2620,-5.8058,13.3421,7.2051,-16.5785,-2.8309,12.4823,-0.3636,10.0569,-3.3807,-7.5025,3.5211,11.5187,10.7961,-10.1057,0.7848,8.8956,-0.6897
1753.9062,8.1085,-7.2997,-5.5194,11.6600,8.0909,-19.0476,-9.8031,11.1011,4.9073,8.9665,-0.9965,-8.7679,4.0819,11.0492,13.5732,-14.6226,0.2721,9.0089,-0.9186
1757.8125,10.2004,-6.8928,-5.6725,8.7825,9.1669,-14.0516,-13.1592,8.4142,10.2606,6.6287,-0.2420,-8.5711,6.0071,9.7545,13.6649,-16.6518,1.9547,7.8329,-0.9252
1761.7188,11.5795,-4.5277,-4.4983,6.7578,9.8925,-6.3350,-9.8449,6.0556,14.1531,4.9793,0.2067,-7.8648,8.1275,8.9256,11.9972,-16.4251,4.6667,7.1764,0.0822
1765.6250,11.6669,-1.7868,-1.3434,6.6502,9.6194,-0.8829,-1.5219,5.2351,15.3808,4.9578,1.4315,-7.6236,9.0196,9.2214,10.0569,-14.6524,6.5548,8.1835,2.0130
1769.5312,10.7203,-0.0425,2.6153,7.5941,8.2347,0.6127,6.3326,5.6496,14.1719,5.9281,3.5978,-7.9367,8.1015,10.0361,8.9044,-12.1783,6.4526,10.2892,3.8218
1773.4375,10.0310,0.6157,5.2682,7.3808,6.4417,0.1436,8.3307,5.6098,12.2945,6.4625,6.1478,-7.9697,6.1084,9.9253,8.6541,-9.9078,4.7097,11.5137,4.3112
1777.3438,11.2063,1.3102,5.3582,4.1509,5.3548,0.7342,3.2114,3.3102,11.9365,5.7132,8.5328,-6.8149,4.5701,7.7466,8.6879,-8.7525,2.8785,9.9025,3.1861
1781.2500,14.9061,3.2165,3.6433,-2.0954,5.6670,3.3159,-5.0625,-1.7220,14.1063,4.1433,10.7187,-4.4634,4.6862,3.6063,8.3265,-9.2966,2.5408,5.0192,1.4515
1785.1562,20.0028,6.3296,2.4108,-9.3151,7.0550,5.9024,-10.0209,-8.1075,17.7758,3.0050,12.9966,-1.9966,6.4620,-1.1348,7.3978,-11.2669,4.1863,-1.6394,0.7440
1789.0625,23.9965,9.2758,3.6794,-14.7085,8.3546,5.7059,-7.2103,-13.4214,20.5006,3.0861,15.3535,-0.7521,8.7580,-4.7815,6.2998,-13.2974,6.9603,-7.6100,2.0690
1792.9688,24.6024,10.4018,7.5314,-16.5194,8.4309,2.2216,2.7958,-15.7350,20.1435,3.8763,17.1155,-1.1279,10.1883,-6.4186,5.5860,-13.4336,9.3964,-11.0676,4.9616
1796.8750,21.4223,9.2380,11.9525,-15.0509,7.0834,-1.5841,14.9969,-14.7749,16.4401,3.9216,17.3333,-2.0648,10.1480,-6.3698,5.4619,-10.2687,10.4998,-11.8785,7.7947
1800.7812,16.3793,7.0413,14.3555,-12.2276,5.2521,-1.2606,23.5296,-11.9155,11.2127,2.0684,15.6519,-1.7446,9.1719,-5.7177,5.6028,-3.9821,10.3420,-11.3880,9.0463
1804.6875,12.4363,5.8649,13.5983,-10.1342,4.3194,5.4203,25.4485,-9.1050,7.0409,-1.4893,12.8731,0.9671,8.3772,-5.3543,5.4127,3.5434,9.7736,-11.2202,8.5272
1808.5938,11.4574,6.8814,10.8904,-9.6677,5.0252,16.1055,22.0524,-7.5841,5.3796,-5.2836,10.5895,5.4703,8.4678,-5.3624,4.4942,9.7498,9.5741,-12.0823,7.5555
1812.5000,12.8238,9.3830,8.8450,-10.2472,6.8400,24.9996,17.1412,-7.3120,5.5461,-7.7136,10.0521,9.6704,9.1072,-5.1856,2.9566,12.9317,9.7598,-13.4668,7.8843
1816.4062,13.9165,11.3599,9.4077,-10.6348,8.2993,26.8947,13.8889,-7.3917,5.3316,-8.2744,11.1469,11.3999,9.1533,-4.3461,1.3481,13.1852,9.5851,-14.3549,10.2060
1820.3125,12.1537,11.2091,12.2807,-10.0750,8.0598,21.0751,12.8196,-7.0025,2.7410,-7.8199,12.3643,9.9620,7.5568,-3.0124,0.2936,12.1017,8.1848,-14.2231,13.4426
1824.2188,7.0242,9.1125,15.0865,-8.8105,5.8740,12.0053,12.2013,-6.0371,-2.4872,-7.6524,11.8904,6.6110,4.2168,-1.8920,0.1177,11.4690,5.3090,-13.4740,15.4470
1828.1250,0.5318,6.8650,15.1576,-7.6478,2.7519,6.1121,10.1479,-4.9876,-8.7249,-8.2583,9.0245,3.6165,0.1377,-1.5500,0.6957,11.9913,1.5735,-12.9736,14.6252
1832.0312,-4.3045,6.2660,11.5846,-7.0759,0.2119,7.0168,6.4960,-4.3107,-13.7212,-8.8222,4.8155,2.6728,-3.2156,-1.7925,1.5760,12.9895,-1.9361,-13.1689,11.2303
1835.9375,-5.7226,7.4814,5.9681,-6.7787,-0.7872,12.8655,2.9606,-3.9179,-16.2600,-7.9784,1.3810,3.9038,-4.8672,-1.7195,2.2305,13.2430,-4.3725,-13.6047,7.2955
1839.8438,-4.4975,8.8697,1.3233,-5.9790,-0.4333,17.8735,1.6458,-3.2682,-16.9305,-5.1732,0.3936,6.1765,-4.8988,-0.4703,2.2620,12.2326,-5.6128,-13.2904,5.2097
1843.7500,-3.2850,8.5070,-0.0161,-4.2719,0.2183,16.9735,3.3039,-1.9531,-17.4938,-1.4484,1.8679,8.3331,-4.2787,1.9538,1.4935,10.7586,-6.2103,-11.5996,5.9997
1847.6562,-4.6176,6.0968,2.0654,-2.1449,0.1030,10.0100,6.7886,-0.1966,-19.4385,1.0898,4.1497,10.2037,-4.1448,4.5309,-0.0192,10.4399,-6.9159,-8.9014,8.6193
1851.5625,-9.1491,3.4946,5.5641,-0.6445,-1.1050,2.1694,10.0230,1.2447,-22.8912,0.7640,5.0907,12.5121,-5.0848,5.9412,-1.9957,12.5015,-8.1517,-6.3318,10.7768
1855.4688,-15.4217,3.2030,7.9095,-0.4159,-2.8762,0.1568,11.5458,1.7507,-26.6557,-2.3866,3.5161,15.8025,-6.8709,5.6382,-3.9692,16.7890,-9.7847,-4.8547,10.6513
1859.3750,-21.1274,6.0041,7.7382,-0.9537,-4.3237,6.9020,11.3428,1.4993,-29.1937,-6.5432,-0.0679,19.4313,-8.7229,4.3837,-5.4038,21.7335,-11.2770,-4.3965,8.1824
1863.2812,-24.6802,9.8164,5.5915,-0.7954,-4.8393,18.8209,10.4057,1.4882,-29.6514,-9.3224,-3.9536,21.6605,-9.8168,3.7502,-5.8926,25.2445,-12.0355,-3.8228,4.9751
1867.1875,-25.8489,10.9950,3.1464,1.3760,-4.3744,27.8710,9.5656,2.8025,-28.1412,-9.3257,-6.4425,20.9387,-9.6837,4.9217,-5.3368,25.8590,-11.7130,-1.8402,2.9499
1871.0938,-25.1914,7.2569,1.7094,5.5599,-3.2462,27.1197,8.6746,5.6792,-25.2377,-6.8733,-6.8814,17.3548,-8.3329,7.7301,-3.9686,23.3945,-10.3312,1.8806,2.8255
1875.0000,-23.1138,-0.0993,1.1919,10.1871,-1.7606,15.8809,6.7873,9.1586,-21.3383,-3.4771,-5.8687,12.9619,-6.1643,10.7200,-2.1809,18.8194,-8.2393,6.2941,3.6084
1878.9062,-19.5821,-6.6455,0.3092,13.0995,-0.0368,0.6676,3.0786,11.6832,-16.5579,-0.6037,-4.6596,10.5105,-3.8132,12.2316,-0.2955,13.6120,-5.9865,9.6690,3.4371
1882.8125,-14.7049,-7.8441,-2.2502,13.0760,1.8455,-8.8625,-2.3519,12.2318,-11.2007,1.2485,-4.3234,11.4477,-1.9848,11.6609,1.5219,9.1027,-4.1545,10.8676,1.0675
1886.7188,-9.4116,-2.4041,-6.6585,10.7258,3.6008,-6.2390,-8.4467,11.0928,-6.1999,2.5235,-5.2298,14.7386,-1.2414,9.8889,3.1069,6.0981,-3.1615,10.1993,-3.1775
1890.6250,-5.2712,6.6570,-11.6874,8.0182,4.7176,7.5540,-13.8635,9.6270,-2.8819,3.8447,-7.0548,17.5231,-1.7433,8.5239,4.0552,4.7731,-3.0818,9.1453,-7.6926
1894.5312,-3.3486,14.1407,-15.4969,6.7796,4.7590,24.7588,-17.7191,9.1665,-2.0559,5.2925,-9.0981,17.2070,-3.0705,8.5669,3.6946,4.7000,-3.5763,9.1515,-10.8092
1898.4375,-3.0847,16.3675,-16.8205,7.3289,3.7471,35.8982,-19.8177,9.9260,-3.1684,6.3438,-10.6068,13.4226,-4.3174,9.5995,1.4530,5.0001,-4.0240,10.4587,-11.9367
1902.3438,-2.4117,13.5907,-15.6559,8.3443,2.2757,35.6770,-20.3276,10.8291,-4.3760,6.4368,-10.9770,8.3400,-4.5166,10.1848,-2.5401,4.7118,-3.8232,11.9305,-11.7420
1906.2500,0.6723,9.3263,-13.0234,8.0822,1.2067,25.7897,-19.3720,10.4388,-3.6881,5.5801,-9.8982,5.0595,-3.1846,9.1805,-7.0859,3.3405,-2.6935,12.0482,-11.3128
1910.1562,6.2464,7.2909,-10.0941,5.9734,1.1621,13.0179,-16.9861,8.2651,-0.3806,4.4548,-7.4926,5.3002,-0.6202,6.8807,-10.2139,1.2747,-0.7702,10.2845,-11.0824
1914.0625,12.0053,8.5163,-7.4195,3.2844,2.2012,4.2914,-13.4348,5.3699,4.4610,3.9703,-4.3573,8.1426,2.2972,4.9948,-10.1577,-0.3586,1.5782,7.7254,-10.4466
1917.9688,14.8671,10.9281,-4.8236,2.2505,3.9160,2.3048,-9.4561,3.7115,8.7852,4.7123,-1.3542,10.7549,4.7022,5.3923,-6.4745,-0.5003,4.0651,6.3791,-8.3890
1921.8750,13.5326,11.5253,-1.9333,4.3144,5.8204,4.5669,-6.0343,4.6772,11.1718,6.7371,0.8360,10.4999,6.3068,8.5614,-0.5452,0.8487,6.6692,7.6524,-4.5588
1925.7812,9.8588,9.1263,1.1822,8.8548,7.6782,6.1108,-3.7951,7.9442,11.8734,9.7574,2.1160,6.7981,7.4993,13.0252,4.9987,2.2759,9.5235,11.1661,0.1420
1929.6875,7.6798,5.2784,3.8296,13.4502,9.5049,3.5246,-2.5646,11.5991,12.3976,13.3830,2.9777,1.3865,8.8981,16.2484,7.6736,1.7472,12.5998,14.8582,4.0070
1933.5938,9.7915,2.6423,5.1256,15.5357,11.3032,-2.7163,-1.5771,13.4782,13.9567,17.0995,4.0319,-3.0862,10.7250,16.4035,6.5230,-1.8304,15.4784,16.3473,5.6969
1937.5000,15.5018,2.4207,4.6906,14.2119,12.8479,-9.0837,-0.2410,12.7227,16.1275,20.0648,5.4066,-4.9334,12.5292,13.6591,2.5866,-7.4053,17.4568,14.5542,5.2169
1941.4062,20.9054,3.2209,3.0522,10.8242,13.7781,-12.0076,1.2159,10.3479,16.9673,21.1222,6.5453,-4.3454,13.5237,9.9953,-1.8494,-12.0208,17.9797,10.3768,3.9231
1945.3125,21.8965,2.4111,1.4420,7.8741,13.9403,-10.5740,1.9137,8.3820,14.6281,19.2961,6.6521,-2.8118,13.2868,7.6778,-4.7167,-12.5985,17.0879,5.9313,3.5438
1949.2188,17.5771,-1.2670,1.1258,7.1085,13.6394,-6.8980,1.3145,8.2471,9.1693,14.5230,5.4675,-1.7444,12.2405,7.5627,-5.3753,-8.1358,15.5083,2.9613,4.9708
1953.1250,11.1845,-6.2653,2.7257,8.2536,13.4921,-4.1196,0.2299,9.6409,2.9661,7.9806,3.6933,-1.5177,11.4590,8.5288,-4.8015,-0.6922,14.2506,1.6263,7.7309
1957.0312,7.5566,-9.4131,5.9540,9.3335,13.9221,-3.8047,0.7955,10.7840,-0.8173,1.5675,2.6072,-1.6143,11.8811,8.4474,-4.7127,5.7104,13.9474,0.5573,10.4862
1960.9375,9.0433,-8.7830,9.8591,8.2774,14.7048,-4.8694,5.0815,9.8214,-0.5932,-3.2189,3.0836,-1.5094,13.5138,5.9061,-6.2927,7.6296,14.4041,-1.9175,12.1024
1964.8438,13.2572,-5.6758,13.3488,4.5428,15.0054,-4.8042,13.1845,6.2835,2.3560,-6.1478,4.8176,-1.3170,15.2788,1.3396,-9.3954,4.4087,14.7051,-6.3511,12.4217
1968.7500,14.7626,-3.7825,15.6448,-0.4766,13.9863,-2.0893,22.3315,1.4924,4.8173,-8.1051,6.4809,-1.5579,15.6949,-3.2809,-12.6952,-1.5514,13.8423,-11.6442,12.1821
1972.6562,9.6194,-6.0222,16.4571,-4.5028,11.5675,2.2486,28.0309,-2.3523,4.1795,-9.9935,6.8009,-2.3384,13.9429,-5.9033,-14.5813,-6.6306,11.4475,-15.7727,12.2491
1976.5625,-0.8113,-11.7146,15.8949,-6.0112,8.7198,5.2698,26.8353,-3.6654,0.5467,-11.6329,5.7228,-2.8636,10.5295,-5.8311,-14.1353,-8.5207,8.1234,-17.1999,12.8661
1980.4688,-10.0800,-16.6683,14.2728,-5.1974,6.9671,4.4951,18.9012,-2.4287,-3.3547,-11.7242,4.6270,-1.9320,7.0247,-4.0573,-11.5849,-7.5365,5.1278,-15.9254,13.5414
1984.3750,-11.0945,-16.3786,11.9481,-3.6295,7.3671,0.1401,8.3798,0.0101,-4.5059,-9.0664,5.2844,0.9011,5.0190,-2.3362,-8.0614,-5.7942,3.6024,-13.4480,13.5984
1988.2812,-1.5757,-9.8006,9.2359,-2.9951,9.6762,-4.6381,1.0340,1.9707,-2.3080,-4.0309,8.3074,4.5614,5.0265,-1.8284,-4.9434,-5.0718,3.8334,-11.7385,12.8334
1992.1875,13.7264,-0.4742,6.3875,-3.9891,12.3221,-5.8406,0.4875,2.4182,0.6241,1.1341,12.4051,6.9739,6.1106,-2.4172,-3.2292,-5.2065,5.0090,-11.9873,11.6699
1996.0938,25.9577,6.1371,3.6238,-6.1370,13.2552,-1.6258,5.6786,1.2005,0.4291,3.7538,15.2177,6.6711,6.4959,-3.1553,-3.2194,-4.3946,5.6179,-13.9566,10.6820
2000.0000,28.1768,7.0297,1.2220,-8.5036,11.1342,6.0108,11.4473,-1.3994,-4.7008,2.9712,15.2293,4.2460,4.7378,-3.3283,-4.5224,-1.1180,4.2518,-16.2552,9.9626
2003.9062,19.9769,4.0988,-0.3895,-10.5319,6.0774,12.2209,12.0475,-5.1633,-12.5546,0.8818,13.2485,2.3277,0.6522,-3.1426,-6.2590,4.0215,0.3622,-17.2242,8.9739
2007.8125,7.2652,2.4348,-0.6510,-12.2796,-0.4666,12.4177,5.2387,-9.9310,-18.0627,1.2637,12.1024,3.8378,-4.5906,-3.4404,-7.3730,8.2907,-5.4192,-15.8206,7.0892
2011.7188,-2.5036,5.7267,0.8801,-13.9672,-6.5710,5.4434,-5.9463,-15.1453,-16.9670,6.4857,14.5091,9.7116,-9.2035,-4.7402,-7.0266,8.8854,-11.5343,-12.0512,4.3797
2015.6250,-5.8617,12.5942,4.0954,-15.4110,-10.8097,-5.3883,-15.1233,-19.5591,-9.3087,14.8819,20.6139,17.8517,-11.8161,-6.5193,-5.0130,5.5031,-16.1802,-6.8841,1.8972
2019.5312,-5.3681,17.1213,7.9846,-15.9896,-12.7884,-14.1456,-16.9381,-21.6489,0.0135,20.9210,27.1510,24.2577,-12.1433,-7.4513,-1.9871,1.2420,-18.0969,-1.8345,1.0620
2023.4375,-6.7602,13.4929,10.7290,-15.2336,-13.0413,-15.8701,-10.8707,-20.6168,4.2684,18.5975,29.1465,25.6359,-10.9595,-6.4695,0.7236,0.7951,-17.1167,1.5639,2.5224
2027.3438,-13.7109,1.1499,10.4020,-13.4749,-12.5370,-9.6130,-1.7598,-17.2002,-0.5396,5.9398,23.1967,21.6010,-9.5262,-3.7725,1.7772,7.0151,-14.2440,2.2902,5.3739
2031.2500,-24.4901,-13.8056,6.0160,-11.8603,-12.1807,0.9912,3.3664,-13.4870,-12.8208,-12.6578,10.0598,14.8400,-8.9083,-0.8803,0.6400,18.3440,-11.2217,0.2780,7.4544
2035.1562,-33.1657,-22.4062,-1.7084,-11.5728,-12.5465,9.9218,-0.0427,-11.6611,-26.3234,-28.3197,-5.3732,9.1357,-9.5597,0.3849,-1.9641,29.1660,-9.7550,-3.4180,6.6358
2039.0625,-34.2693,-19.1294,-10.4467,-12.8532,-13.8100,12.3151,-11.1469,-12.5151,-34.1584,-32.8926,-16.8716,6.7697,-11.2883,-0.7786,-4.3724,33.0907,-10.7277,-6.9517,2.2386
2042.9688,-27.1199,-5.9260,-17.3572,-14.6782,-15.7480,7.1755,-24.5251,-14.8707,-33.0686,-24.0752,-20.5964,7.2545,-13.4755,-3.5752,-4.9696,27.0255,-13.7898,-8.5278,-4.4671
2046.8750,-16.3874,9.1610,-20.5875,-15.4645,-17.7646,-2.3010,-34.0098,-16.4246,-25.0417,-6.9435,-17.2574,8.2481,-15.3721,-6.2374,-3.2296,13.2509,-17.5487,-7.3935,-11.0683
2050.7812,-8.5761,17.7416,-20.2720,-14.2979,-19.0394,-10.8237,-36.7314,-15.4360,-15.4231,9.2325,-11.2960,7.7657,-16.3712,-7.3429,-0.0871,-1.9249,-20.3009,-4.3558,-15.5619
2054.6875,-7.3253,16.7874,-18.3437,-11.6908,-18.8754,-14.1251,-34.5283,-11.9790,-9.1864,16.7230,-7.7803,5.8204,-16.2345,-6.7713,2.6618,-11.9917,-20.9340,-1.3716,-17.5402
2058.5938,-11.1972,10.0403,-17.2421,-9.1979,-17.1335,-11.2155,-31.9022,-7.7935,-8.1111,13.7456,-9.2279,4.1712,-15.2212,-5.5738,3.5394,-13.9555,-19.4978,-0.3445,-18.1904
2062.5000,-15.4471,4.3218,-18.3506,-8.1472,-14.4541,-4.5496,-32.2450,-4.8647,-10.5995,4.7255,-14.4662,4.4712,-14.0156,-4.9436,2.3159,-9.5745,-17.1027,-1.8722,-19.1813
2066.4062,-16.0449,3.9287,-21.1909,-8.4951,-12.0105,1.7869,-35.2318,-3.8685,-13.7205,-3.4061,-20.0527,6.4538,-13.3895,-5.1969,0.0340,-3.5624,-15.1926,-4.8216,-21.3188
2070.3125,-12.5930,7.6105,-23.8818,-8.7633,-10.8386,4.6149,-37.2657,-3.7171,-15.5330,-5.9901,-22.9517,7.7761,-13.7121,-5.6107,-1.8600,-0.2595,-14.6220,-7.0832,-23.9618
2074.2188,-7.9655,10.3114,-24.4901,-7.1518,-11.1396,3.3480,-34.4885,-2.5423,-15.9136,-3.1385,-22.4427,5.7669,-14.5987,-5.1890,-2.5969,-1.1035,-15.1078,-7.0079,-25.5556
2078.1250,-5.3437,7.9141,-22.3019,-2.9687,-12.0491,-0.0974,-25.9669,0.7133,-15.6457,1.4393,-20.0451,-0.2789,-14.9989,-3.6252,-2.5494,-4.3977,-15.4010,-4.5017,-24.7926
2082.0312,-5.3885,0.8980,-18.1599,2.7622,-12.0925,-2.9318,-14.6314,5.4019,-15.0040,3.9069,-17.8481,-8.1401,-13.7710,-1.5800,-2.7526,-7.1382,-14.0773,-0.9842,-21.4998
2085.9375,-5.9355,-6.0747,-13.7325,7.9972,-10.0702,-3.4862,-5.3289,9.6836,-13.2940,3.2111,-16.7646,-13.9286,-10.4293,-0.0348,-3.8970,-7.3392,-10.4495,1.7347,-16.6599
2089.8438,-4.2608,-8.1291,-10.3538,11.1124,-5.7959,-2.2396,-1.5288,11.9904,-9.7137,1.3641,-16.0713,-14.7209,-5.5622,0.6799,-5.6265,-5.2338,-5.0282,2.7837,-11.6863
2093.7500,0.2556,-4.2688,-8.3115,11.9460,-0.2005,-1.2679,-3.1484,12.2139,-4.5801,1.2722,-14.4113,-10.6204,-0.5837,1.2685,-6.7212,-2.7663,0.7541,2.7419,-7.5955
2097.6562,5.4700,1.8196,-7.0200,11.6590,5.2479,-2.5865,-6.9950,11.6534,0.3982,4.1349,-11.2386,-4.7116,3.0722,2.8642,-6.0331,-2.0325,5.3737,2.9735,-4.6684
2101.5625,8.3540,4.8120,-5.7832,11.6149,9.3869,-6.6044,-9.3018,11.8115,3.2249,8.5285,-7.4293,-0.9495,4.7964,5.9268,-3.4357,-3.8773,8.0710,4.3652,-2.6884
2105.4688,7.6828,2.0128,-4.4227,12.2596,11.8970,-11.7907,-8.3452,13.0881,3.2062,11.7158,-4.5833,-1.5431,5.1140,9.6210,-0.0314,-7.4936,9.2010,6.5241,-1.3652
2109.3750,5.1148,-4.6822,-3.2587,12.9253,13.2264,-15.7629,-5.2513,14.4762,1.6088,11.8985,-3.6819,-5.6998,5.2446,12.2885,2.5531,-11.0458,9.8874,8.0972,-0.5075
2113.2812,3.6972,-10.5955,-2.5539,12.6450,14.0530,-16.9616,-2.6213,14.4911,0.7130,9.5059,-4.2780,-10.5028,6.2278,12.6948,3.2431,-12.7252,11.2317,7.9403,0.1288
2117.1875,5.1138,-12.1511,-2.0283,11.1860,14.7372,-15.6419,-2.2668,12.5054,1.9723,6.5772,-4.9074,-13.1057,8.2316,11.0233,2.1434,-11.5854,13.5957,6.1422,1.0031
2121.0938,8.1129,-9.5311,-0.9747,9.3389,15.1520,-13.4356,-3.8645,9.3243,4.8051,4.9212,-4.3508,-12.5573,10.5108,8.7480,0.2744,-7.8446,16.4018,4.0113,2.6249
2125.0000,9.5345,-6.0318,1.0636,8.1763,14.9413,-11.8520,-5.4391,6.5000,7.0601,4.6659,-2.6631,-10.0279,12.0000,7.4275,-1.3132,-2.7032,18.5364,2.9839,5.0972
2128.9062,7.1010,-4.9338,3.6618,7.9364,13.9248,-10.9488,-5.0810,4.9761,6.8009,4.3440,-1.0841,-7.5164,12.0706,7.3889,-2.2995,2.1413,19.0574,3.3304,7.7913
2132.8125,1.5814,-6.7346,5.5815,7.5631,12.3014,-9.3193,-2.4295,4.2439,3.9451,2.3081,-0.8915,-6.2260,10.8994,7.4094,-3.1266,5.1261,17.7351,3.7540,9.5813
2136.7188,-3.5646,-9.0873,5.6303,5.4123,10.5137,-5.5091,1.1951,2.7655,0.3979,-1.7970,-2.1507,-5.8663,9.2338,5.7131,-4.3274,5.4509,15.1084,2.2964,9.6173
2140.6250,-4.8339,-9.2898,3.6997,0.6345,8.9335,0.2430,3.9495,-0.6554,-1.4210,-6.7139,-3.4316,-5.2524,7.8061,1.5119,-5.7724,3.4649,12.0886,-2.0818,8.0803
2144.5312,-1.4463,-6.9203,1.1206,-5.8841,7.6541,5.4649,4.8739,-5.6984,-0.4236,-10.5623,-2.7979,-3.5096,6.8939,-4.1602,-6.5329,0.5511,9.4398,-8.4604,6.2548
2148.4375,4.0620,-4.1716,-0.0636,-11.8526,6.5529,6.8329,4.4573,-10.5550,2.4498,-12.2201,0.6620,-0.8196,6.3460,-9.0264,-5.5387,-1.5636,7.5011,-14.3058,5.7285
2152.3438,7.9094,-3.5864,1.5375,-15.0168,5.5369,2.6929,4.0710,-13.1840,5.2117,-11.9487,5.9618,1.8324,5.9759,-11.1408,-2.5333,-1.7600,6.2843,-17.0146,7.2459
2156.2500,8.0818,-5.3052,5.6439,-14.6592,4.7237,-5.1324,4.8714,-12.8090,6.5867,-10.8617,10.7353,3.5613,5.9034,-10.2382,1.4640,-0.1574,5.7622,-15.5631,10.0990
2160.1562,5.8001,-6.4596,10.4095,-12.0421,4.3694,-11.8176,7.0447,-10.4733,6.9996,-9.8435,12.8225,4.2948,6.4812,-7.8293,4.6339,2.0412,6.0148,-11.1030,12.5827
2164.0625,4.2488,-3.4831,13.5967,-9.4868,4.5797,-12.3099,9.8203,-8.2384,7.9361,-8.9191,11.7674,4.7194,7.8223,-6.0197,5.4858,3.4373,7.0436,-6.1379,13.2237
2167.9688,5.6473,4.5181,13.9713,-8.8119,5.0366,-4.6796,12.0186,-7.6954,10.2425,-7.5755,9.1144,5.6002,9.3331,-6.0268,3.8275,3.4538,8.3983,-2.9408,11.8472
2171.8750,9.1035,14.2918,11.9226,-10.2806,4.9931,8.2941,12.6170,-8.9664,12.8882,-5.6335,7.2663,7.1293,9.7267,-7.5377,0.8477,2.7305,8.9984,-2.3461,9.6416
2175.7812,11.0439,20.3704,8.9366,-12.7327,3.6057,20.5618,11.0503,-10.9075,13.3623,-3.7766,7.7264,8.8510,7.6546,-9.2973,-1.7685,2.5878,7.4688,-3.6587,8.1575
2179.6875,7.9161,19.0787,6.4224,-14.6350,0.4343,26.4620,7.3375,-12.2131,9.5104,-3.1811,10.0020,10.1456,2.6030,-10.2950,-3.0502,3.9509,2.9297,-5.5304,8.0389
2183.5938,-0.9650,11.4608,4.8331,-15.1421,-4.1950,24.1937,2.2115,-12.4298,1.3677,-4.5295,11.9549,10.7612,-4.5633,-10.4938,-3.3935,6.5602,-4.2345,-6.9963,8.5142
2187.5000,-12.6519,2.7083,3.6906,-14.4036,-9.2072,16.7679,-2.8365,-12.0679,-8.5252,-7.2822,11.3300,10.9019,-11.8485,-10.5454,-4.1839,9.0862,-12.2215,-7.9054,8.0721
2191.4062,-22.4511,-1.5658,2.3464,-13.0708,-13.2040,9.8240,-5.9098,-11.8427,-16.6552,-9.8978,7.3571,10.8558,-17.0826,-10.8832,-6.6766,10.0729,-18.5369,-8.5951,5.7803
2195.3125,-26.9953,0.6577,0.7276,-11.6000,-15.0934,7.8466,-5.5834,-11.8326,-20.7847,-10.8978,1.2940,10.6014,-19.0211,-11.1282,-10.9521,8.9907,-21.2730,-9.2887,2.1687
2199.2188,-26.2169,6.5946,-0.5917,-9.9917,-14.6024,11.3761,-1.8848,-11.3474,-21.2180,-9.9355,-4.4286,9.8398,-17.9160,-10.4167,-15.6990,6.5983,-20.1739,-9.8117,-1.0680
2203.1250,-22.8944,11.0996,-1.0099,-8.0845,-12.4051,17.0254,3.4026,-9.6067,-20.1878,-7.9919,-7.8001,8.4542,-15.2329,-8.3585,-18.9629,4.3585,-16.7831,-9.8213,-2.3459
2207.0312,-20.3271,10.7326,-0.6062,-5.9736,-9.7919,20.1154,7.5933,-6.5632,-19.9493,-6.5230,-8.4199,6.9233,-12.7411,-5.6911,-19.3290,3.3850,-13.5328,-9.2232,-1.4481
2210.9375,-19.9967,6.2290,-0.2695,-4.0529,-8.0379,17.9660,8.7102,-3.0797,-21.1337,-6.2389,-7.5068,6.1836,-11.5706,-3.9079,-16.7373,3.7313,-12.3336,-8.3103,0.2329
2214.8438,-20.8842,1.5561,-1.1078,-2.6177,-7.7859,11.5805,6.6979,-0.2669,-22.6019,-6.5182,-6.8485,6.9156,-11.7859,-4.0533,-12.4380,4.5263,-13.5551,-7.4782,0.6626
2218.7500,-20.7176,0.5062,-3.6339,-1.4681,-8.7627,4.7309,3.2194,1.4219,-22.7596,-5.9606,-7.5599,8.8101,-12.6337,-5.6944,-8.2110,4.7781,-16.0174,-6.8233,-1.4036
2222.6562,-18.0029,3.6636,-7.4123,-0.0001,-9.9774,1.3048,0.0875,2.5065,-21.1236,-3.6703,-9.5698,10.5101,-13.1853,-7.0394,-5.4290,4.1664,-17.9170,-6.0636,-5.6032
2226.5625,-13.2888,8.1096,-11.4346,2.1967,-10.2995,2.8534,-2.4170,3.8949,-18.8101,-0.2557,-12.1053,10.4417,-12.9050,-6.2574,-4.5514,3.2155,-18.0009,-4.9010,-10.3224
2230.4688,-8.8632,9.9179,-14.8555,4.7675,-9.1008,7.9223,-5.8342,5.9237,-17.5941,2.2962,-14.6384,7.9922,-11.8266,-2.9950,-5.2338,2.7816,-16.2000,-3.4789,-13.8579
2234.3750,-7.2683,7.2783,-17.4370,6.6619,-6.6065,13.3560,-11.9778,7.9228,-18.3951,1.8794,-17.4180,4.1203,-10.3451,1.1777,-6.7918,3.3382,-13.3943,-2.4348,-15.4479
2238.2812,-9.7300,1.7488,-19.3645,6.9306,-3.7634,16.4255,-20.7211,8.7596,-20.4875,-2.1882,-21.1128,0.8281,-8.8754,3.8606,-8.5904,4.6451,-10.6249,-2.3912,-15.4535
2242.1875,-15.4526,-3.2027,-20.7112,5.6402,-1.7154,16.2663,-29.0825,7.9271,-22.0663,-8.4368,-25.8791,-0.2102,-7.6413,3.6687,-10.1220,6.0051,-8.4164,-3.2793,-14.7338
2246.0938,-22.0300,-4.9928,-21.1621,4.0684,-1.1972,13.8329,-32.7336,6.1890,-21.6518,-13.8930,-30.7078,1.1160,-6.6785,1.3693,-10.8851,6.7971,-6.6759,-4.1368,-13.8887
2250.0000,-26.5877,-3.7458,-20.3345,3.8675,-2.1910,10.7102,-29.0892,5.1201,-19.1495,-15.7350,-33.7287,3.1924,-5.9518,-0.6440,-10.3537,6.7821,-5.1124,-3.6953,-13.0283
2253.9062,-27.0325,-1.8181,-18.4038,5.7586,-4.0103,7.8331,-19.6368,5.8274,-15.7371,-12.9104,-33.3785,3.7498,-5.4357,-0.1853,-8.2040,5.9537,-3.7068,-1.3910,-12.1354
2257.8125,-22.9113,-1.6474,-16.3500,8.8047,-5.7154,5.0286,-9.4704,7.9076,-12.7727,-6.7097,-29.5823,1.3984,-5.1045,2.9968,-4.6649,4.1743,-2.7864,2.0030,-11.4998
2261.7188,-15.5975,-3.8181,-15.4091,10.9356,-6.5885,1.5609,-4.0529,9.5856,-10.7152,0.0250,-23.9877,-3.4794,-4.8969,6.9628,-0.6582,1.0680,-2.6677,4.7190,-11.6665
2265.6250,-7.7190,-6.8560,-16.0539,10.4124,-6.4095,-2.8691,-5.4831,9.0290,-8.9639,4.5165,-18.9662,-9.0875,-4.7374,9.0058,2.5028,-3.5982,-3.2371,5.1576,-12.8747
2269.5312,-1.9723,-8.7064,-17.3839,7.1269,-5.4326,-7.4624,-11.1206,5.8305,-6.6699,5.4810,-16.0571,-13.4836,-4.6122,7.6500,3.7582,-9.3125,-3.8978,3.0312,-14.5539
2273.4375,0.2016,-8.4962,-17.6044,2.7077,-4.1493,-10.4942,-15.7124,1.4478,-3.7226,3.5474,-15.0151,-15.7673,-4.6017,3.6819,2.8885,-14.5842,-3.9632,-0.3986,-15.4934
2277.3438,-0.6287,-7.1125,-15.3962,-0.6652,-3.0061,-10.2484,-15.4261,-1.7957,-0.9953,0.5338,-14.2084,-16.3445,-4.7860,-0.5302,0.6319,-17.4746,-3.1640,-3.1966,-14.7121
2281.2500,-2.2641,-6.2700,-11.1254,-1.8022,-2.2158,-6.1791,-10.6294,-2.3817,0.3792,-1.8362,-12.0772,-16.2090,-5.0652,-2.8217,-1.7661,-16.7077,-1.8117,-4.0883,-12.3488
2285.1562,-2.2990,-7.0179,-6.8121,-1.1930,-1.7123,0.3928,-5.2014,-0.6216,0.0555,-2.9029,-8.5026,-15.9623,-5.0658,-2.6919,-3.2684,-12.6414,-0.4678,-3.2379,-9.7269
2289.0625,0.2639,-8.9746,-4.6918,-0.3462,-1.2326,6.5423,-2.9588,1.7466,-1.0898,-3.1425,-4.9614,-15.4245,-4.2843,-1.3632,-3.5391,-7.3521,0.5820,-1.9130,-8.3757
2292.9688,4.3566,-10.8055,-5.3967,-0.4110,-0.4830,9.0075,-4.1806,2.9922,-1.5372,-3.4154,-3.2750,-14.1057,-2.4440,-0.5477,-2.9108,-3.6312,1.5579,-1.3726,-8.7137
2296.8750,7.7136,-11.3558,-7.2395,-1.2847,0.6693,5.9474,-5.2154,2.6336,-0.2418,-4.0350,-3.9122,-12.0188,0.1752,-1.0471,-1.9325,-3.4458,2.8877,-1.9180,-9.5145
2300.7812,8.7066,-10.3983,-7.3276,-1.9548,2.0678,-1.7285,-1.6491,1.4866,2.6415,-4.3952,-5.2462,-10.0015,2.7343,-2.3328,-0.9161,-6.8153,4.6436,-2.8609,-8.7381
2304.6875,7.7456,-8.4651,-3.7878,-1.7176,3.3023,-10.3556,7.5006,0.5843,5.9995,-3.4655,-4.5047,-9.1497,4.2641,-3.3262,0.1352,-11.8173,6.2678,-3.3586,-5.1848
2308.5938,7.0494,-6.1374,2.6043,-1.1153,3.9426,-15.1363,18.1344,0.0243,8.6993,-0.7940,0.1528,-9.7901,4.3037,-3.5525,1.1926,-15.7071,6.9256,-3.3301,0.3475
2312.5000,8.8023,-3.6064,8.7608,-1.6582,3.8686,-12.7175,23.6269,-1.1601,10.3658,2.7559,7.9489,-10.9092,3.3059,-3.5747,1.8223,-16.4345,6.2711,-3.6183,5.4486
2316.4062,13.0516,-0.9265,11.4654,-4.4723,3.4644,-3.2913,19.8539,-3.9558,11.3289,5.1650,15.5344,-10.6750,2.4612,-4.3328,1.2053,-13.6362,4.9689,-5.2459,7.8638
2320.3125,17.0813,1.4074,9.7899,-9.0318,3.4699,9.1746,8.7968,-8.1084,11.8520,4.3248,18.8909,-7.8060,2.9709,-6.0436,-1.3131,-8.5822,4.4273,-8.4253,7.3015
2324.2188,16.9953,2.3231,5.8469,-13.1785,4.4960,18.9513,-2.2668,-11.8821,11.4431,-0.6480,15.8490,-2.7685,5.2162,-7.7432,-5.4929,-3.2485,5.8092,-12.2228,5.7798
2328.1250,10.5492,0.8373,3.2168,-14.6039,6.4946,21.7342,-5.6282,-13.2339,9.0095,-8.7239,7.4989,2.2112,8.3980,-7.9895,-9.8920,0.8069,9.0284,-15.2219,6.1031
2332.0312,-0.8147,-2.9355,4.2046,-12.6926,8.5947,17.0397,1.4644,-11.5266,3.8617,-17.3766,-2.4558,4.5007,10.9425,-6.1699,-12.3738,3.0787,12.5576,-16.6469,9.5687
2335.9375,-12.3589,-7.3680,8.0486,-9.2001,9.5265,8.2458,14.9047,-8.3114,-3.2621,-23.8420,-9.9043,2.9003,11.4471,-3.2520,-11.2561,3.9991,14.3090,-16.9734,14.7255
2339.8438,-18.8018,-10.0606,11.5083,-7.0813,8.4325,0.2517,26.6921,-6.3719,-10.1423,-26.4198,-12.5652,-1.3747,9.5447,-1.2175,-6.4120,4.3352,13.0155,-17.4573,18.2717
2343.7500,-17.6365,-9.3621,11.4036,-8.2724,5.5184,-3.6322,30.4653,-7.6416,-14.2845,-25.0615,-10.8370,-5.3576,6.0955,-1.5394,0.4231,4.6153,9.0999,-18.9469,17.5156
2347.6562,-10.7615,-5.5736,7.1316,-12.1442,2.0260,-3.4218,25.4684,-11.6182,-14.6348,-21.0464,-6.9507,-6.2541,2.5685,-3.9357,6.4154,4.9592,4.3578,-21.0003,12.5322
2351.5625,-3.3186,-0.8840,1.1800,-15.8987,-0.5430,-1.7078,16.1999,-15.6064,-12.5233,-16.1563,-3.3037,-3.3000,0.0385,-6.4858,9.0496,5.3081,0.6605,-22.1282,6.2955
2355.4688,-0.5502,1.9888,-2.7730,-16.6724,-1.4587,-1.1579,8.4179,-16.7021,-11.0166,-11.9659,-1.2436,1.7606,-1.5021,-7.1048,7.3554,5.7404,-1.3591,-21.0435,2.5933
2359.3750,-4.7684,1.5122,-2.6774,-13.7387,-1.3062,-2.3029,4.8795,-14.0130,-12.9916,-9.5536,-0.9516,5.9062,-3.0417,-5.2246,2.2415,6.5330,-2.6584,-17.9054,3.2650
2363.2812,-14.3109,-1.7809,0.3691,-9.0803,-1.6003,-3.3386,4.0875,-9.3660,-19.2093,-9.4687,-2.0849,6.8885,-5.7463,-2.3034,-4.1713,7.8829,-4.9234,-14.4622,6.8714
2367.1875,-24.9035,-5.7901,3.0794,-5.8703,-3.7020,-2.0120,2.6424,-5.9215,-27.7146,-11.6237,-4.3183,4.6469,-10.0358,-0.7017,-9.7103,9.5287,-9.1727,-12.8573,9.8214
2371.0938,-32.2888,-8.2681,2.6200,-6.0530,-7.8076,2.0580,-1.1605,-5.7751,-34.9822,-15.0573,-7.2732,1.1365,-15.2024,-1.7957,-13.0788,10.6412,-14.8944,-13.9753,9.0889
2375.0000,-34.3777,-8.1333,-1.1839,-8.9312,-12.7626,6.6586,-5.6777,-8.4363,-38.0316,-17.9345,-10.1103,-1.2090,-19.8305,-4.8477,-14.1123,10.1881,-20.3527,-16.6590,4.4246
2378.9062,-31.8021,-5.8661,-5.8262,-11.8560,-16.8512,8.5958,-7.5338,-11.3655,-36.1130,-18.1998,-11.5094,-1.1912,-22.7062,-7.5678,-13.4365,7.6148,-23.7944,-18.4939,-1.6160
2382.8125,-26.9417,-2.9268,-8.2605,-12.4292,-18.9800,6.4147,-4.9540,-12.0866,-30.9339,-14.8014,-10.4137,0.4971,-23.5645,-7.9356,-11.9395,3.3918,-24.6190,-17.6180,-5.7894
2386.7188,-22.3579,-0.7788,-7.4537,-10.4185,-19.3671,1.9789,0.1978,-10.1367,-25.4222,-8.7290,-7.0816,2.0516,-23.1571,-5.8172,-10.4217,-1.0131,-23.6580,-14.1577,-6.7161
2390.6250,-19.6112,-0.1927,-5.2880,-7.8364,-19.2245,-0.5463,3.5396,-7.2708,-21.9560,-2.9090,-3.4676,2.0583,-22.6268,-3.0636,-9.4809,-3.8403,-22.4286,-10.1392,-5.8644
2394.5312,-18.8884,-1.1186,-5.0921,-7.1367,-19.6987,2.2793,1.5930,-5.8020,-21.2030,-0.6481,-2.3105,0.5285,-22.6624,-1.9987,-9.4493,-4.0491,-22.0003,-7.9119,-6.2394
2398.4375,-19.2950,-2.9581,-8.9754,-9.0235,-20.9109,10.3918,-5.3202,-6.4950,-22.1534,-3.4399,-5.3473,-1.2801,-23.0444,-3.5105,-10.2474,-1.9961,-22.3399,-8.3079,-9.8766
2402.3438,-19.4596,-4.9159,-16.0813,-11.6980,-21.8557,19.8863,-13.1298,-7.8063,-23.0941,-9.6676,-11.9197,-2.0054,-22.8877,-6.2901,-11.2618,0.7133,-22.5511,-9.9945,-16.1493
2406.2500,-18.2010,-6.2643,-23.1192,-12.2096,-21.2412,25.5092,-17.0311,-7.1476,-22.7460,-15.3329,-19.1295,-1.3033,-21.3766,-7.8448,-11.5103,2.1755,-21.7099,-10.5465,-22.2078
2410.1562,-15.1045,-6.5468,-26.7312,-8.8712,-18.6116,24.2049,-15.0866,-3.1627,-20.8596,-16.5507,-23.5947,-0.0461,-18.4506,-6.4871,-10.1971,1.3698,-19.5899,-8.4017,-25.1532
2414.0625,-10.8142,-5.7565,-25.8406,-2.8047,-14.8642,17.1207,-9.6173,2.8614,-18.0609,-12.1573,-23.6099,0.5147,-14.9492,-2.7179,-7.3806,-1.2051,-16.7599,-4.1496,-24.1974
2417.9688,-6.7966,-4.3870,-22.2168,2.6632,-11.7392,8.6388,-5.4011,7.6748,-15.2356,-4.5261,-20.1358,-0.1220,-12.1205,1.1004,-4.2220,-3.8816,-14.0858,-0.1201,-21.1345
2421.8750,-4.5289,-3.2113,-18.9406,4.3595,-10.6472,3.2447,-6.1944,8.3889,-12.9284,2.1055,-15.8966,-1.2508,-10.8300,2.5280,-2.4567,-4.9469,-12.1100,1.4210,-18.8232
2425.7812,-4.4927,-2.8177,-18.0679,1.6035,-11.6928,2.6022,-12.2522,4.6693,-11.0866,4.6476,-13.3065,-1.5728,-10.9968,0.9016,-3.2899,-3.7851,-10.7760,0.0629,-18.9442
2429.6875,-5.6616,-3.1997,-19.3023,-3.2481,-13.5945,4.9140,-20.5159,-0.9095,-9.1974,3.2888,-12.8272,-0.3801,-11.6083,-2.1693,-6.4418,-1.2573,-9.6017,-2.3759,-20.7968
2433.5938,-5.9886,-3.7505,-20.5592,-6.4545,-14.5182,6.7912,-26.9543,-4.6359,-6.6613,1.1404,-12.9706,1.6755,-11.2892,-4.0151,-10.1007,0.9280,-8.0419,-3.1889,-21.9960
2437.5000,-3.7200,-3.7339,-19.7784,-5.4971,-13.2047,5.9632,-29.0207,-4.2208,-3.1885,1.6715,-11.8232,2.9062,-9.0666,-2.8671,-11.9597,1.3894,-5.7307,-0.8099,-20.4157
2441.4062,1.3283,-2.8887,-16.4542,-0.7204,-9.6209,2.6932,-26.4846,-0.2408,0.9626,5.9281,-8.7624,1.8133,-4.8926,0.9223,-10.7066,-0.0537,-2.5254,4.0158,-15.8061
2445.3125,7.4922,-1.6582,-11.7582,5.1158,-4.7918,-0.9962,-20.5253,4.5296,5.0165,11.7097,-4.9573,-1.7070,0.3369,5.2578,-6.9267,-2.4097,1.4951,8.7795,-9.8857
2449.2188,12.2712,-0.8203,-7.3761,8.9128,-0.0714,-3.3511,-12.4101,7.2665,8.0065,15.3380,-2.3056,-6.1206,5.2358,7.8930,-2.7344,-4.3623,5.9473,11.0209,-4.9819
2453.1250,13.9523,-0.8163,-4.1904,9.3301,3.5725,-4.3164,-3.1085,7.0414,9.2798,14.5946,-1.7808,-9.1959,8.5900,7.9827,-0.3519,-5.2442,10.0642,10.0233,-2.3978
2457.0312,12.6735,-1.3739,-1.8983,7.4169,5.8403,-5.2090,6.0533,5.1652,8.9304,10.4787,-2.6136,-9.4634,9.8992,6.4755,-0.6342,-5.3827,12.8672,7.1697,-1.7585
2460.9375,10.1673,-1.7863,0.2857,5.4978,6.9517,-7.0897,12.8144,3.8590,7.8669,6.3837,-2.9780,-7.1416,9.5614,5.1926,-2.5901,-5.5858,13.6766,4.8006,-1.6785
2464.8438,8.4449,-1.6162,2.6550,5.3209,7.3536,-9.4181,14.6065,4.4387,7.3863,5.3737,-1.5506,-3.8945,8.6373,5.4145,-4.2089,-6.2430,12.6846,4.5146,-1.0119
2468.7500,8.4711,-1.1708,4.7180,6.8879,7.5350,-10.2685,10.2931,6.4331,8.4273,7.7615,1.4136,-1.6558,8.3097,7.0543,-3.9319,-6.8262,11.0820,6.1662,0.3965
2472.6562,9.8117,-1.2526,5.8032,8.6970,7.9450,-7.9631,1.6239,8.1704,10.9334,10.9199,4.3811,-1.4085,9.2840,8.9154,-1.6578,-6.2503,10.4453,8.1712,1.9574
2476.5625,11.3687,-2.3489,5.8855,8.9958,8.8618,-2.6911,-7.0836,8.1775,13.7566,11.4317,5.8935,-2.7678,11.4081,9.6592,1.4117,-3.8348,11.6625,8.7095,3.1492
2480.4688,12.4190,-3.9913,5.7463,6.9732,10.1682,3.3447,-11.2128,6.1969,15.2242,7.7926,5.7453,-4.5454,13.7192,8.6552,3.8418,-0.0869,14.1611,6.8462,4.0325
2484.3750,13.0140,-4.9571,6.2374,3.0654,11.2323,7.4600,-8.5964,3.1078,14.0735,1.4892,4.9611,-5.7311,14.9300,6.1447,5.0076,3.3810,16.1260,2.8359,5.0030
2488.2812,13.4784,-4.2727,7.3403,-1.6215,11.1536,8.4549,-0.7417,0.0233,10.2025,-4.3374,4.6641,-6.0904,14.1381,2.7975,5.2671,4.8247,15.7172,-2.3622,6.1279
2492.1875,13.6423,-2.2074,8.0001,-6.1038,9.3843,7.3681,8.3795,-2.5369,4.7957,-7.4249,4.9527,-5.9821,11.3875,-0.8009,5.2183,3.5541,12.4900,-7.7467,6.8447
2496.0938,12.7042,-0.3238,7.0663,-9.8639,6.3321,6.3818,15.0266,-4.7138,-0.2330,-7.9771,4.8963,-5.6818,7.7449,-4.2855,4.8061,0.4615,7.9453,-12.5444,6.4522
2500.0000,9.9959,-0.3677,4.6163,-12.6503,3.4007,6.8123,17.8361,-6.7263,-3.1394,-8.0494,3.7082,-4.8918,4.7985,-7.2991,3.1777,-2.5042,4.6915,-16.0590,5.0024
2503.9062,5.9743,-2.7882,2.4308,-14.1764,2.2418,7.9163,17.9486,-8.3468,-3.0966,-9.4082,1.9887,-2.9096,3.8180,-9.3279,-0.4911,-3.5368,4.7101,-17.5370,3.6972
2507.8125,2.3952,-6.1096,2.9661,-14.1881,3.6095,7.5792,17.3452,-9.0366,-0.4567,-11.8281,1.7340,0.6686,5.0327,-9.9128,-5.8897,-2.0011,7.9334,-16.4493,4.2116
2511.7188,1.2496,-7.7969,7.4239,-12.8907,6.6362,4.3608,17.0066,-8.6384,3.4975,-13.3492,4.8416,5.3219,7.4479,-9.1232,-11.2375,1.3723,12.1725,-13.0741,7.3099
2515.6250,3.1743,-6.0708,14.4091,-11.2482,9.1634,-0.8224,16.4334,-7.9117,7.1003,-12.2323,11.2512,9.6350,9.3225,-7.8210,-14.2155,5.1343,14.4736,-8.8052,11.8637
2519.5312,6.6710,-1.3047,20.3880,-10.6667,9.0396,-4.8841,14.7005,-8.2523,8.8881,-8.8022,18.3836,12.0511,9.0541,-7.3244,-13.6069,8.0215,12.9536,-5.6792,15.2305
2523.4375,8.9504,4.1107,21.8310,-12.1046,5.5390,-4.6549,11.8149,-10.6502,8.0485,-5.4242,22.6160,11.8378,5.9886,-8.5695,-10.3921,9.4663,7.8472,-5.2300,14.9365
2527.3438,7.8958,7.3795,17.5791,-15.2408,-0.1104,0.6598,8.9646,-14.6896,4.6473,-4.5151,21.8381,9.5764,0.7248,-11.3566,-7.3315,9.5027,1.1196,-7.4312,10.5069
2531.2500,3.6253,7.1711,9.6990,-18.4327,-5.5069,8.5605,7.3930,-18.4880,-0.4180,-6.3007,17.0958,6.8360,-5.2182,-14.3046,-7.1810,8.3947,-4.9324,-10.5762,4.0395
2535.1562,-1.6596,4.3395,2.1604,-19.6499,-8.6323,14.6643,7.0271,-19.7858,-5.7630,-8.3864,11.9009,5.2768,-10.1558,-15.6533,-10.7699,6.4647,-9.0036,-12.3215,-1.0250
2539.0625,-5.4909,1.0195,-1.7211,-17.7980,-9.0866,15.5034,6.3133,-17.4567,-10.0872,-7.7112,9.6070,5.7939,-13.0015,-14.4038,-16.3630,4.2702,-11.1417,-11.2261,-2.1297
2542.9688,-7.1545,-1.0726,-1.2402,-13.4771,-8.1437,10.7502,3.6246,-12.3146,-12.7383,-3.3404,10.8678,8.2104,-13.6664,-11.0032,-20.8320,2.8063,-12.1157,-7.6871,0.7588
2546.8750,-8.1964,-1.7250,1.6691,-8.6007,-7.6630,3.3640,-0.9361,-6.5926,-13.9598,2.3309,13.2222,11.5883,-12.9497,-7.0840,-21.8209,3.2834,-12.5247,-3.5844,5.2671
2550.7812,-10.9054,-1.8912,4.1657,-5.1448,-8.7261,-2.3253,-5.0715,-2.4808,-14.6326,5.1990,13.1932,14.8135,-12.0367,-4.4472,-19.3482,6.4008,-12.4508,-0.9064,8.3465
2554.6875,-15.9761,-2.3730,4.5411,-3.9485,-11.0121,-3.1844,-5.8789,-0.8278,-15.6314,2.7596,9.2348,17.0407,-11.8810,-4.0002,-15.6940,11.6012,-11.8351,-0.4013,8.2993
2558.5938,-21.3575,-2.7977,3.0340,-4.4181,-13.2906,1.1839,-2.3924,-0.9412,-17.2024,-3.5828,3.1165,17.8239,-12.7650,-5.3472,-13.6921,17.0021,-11.0420,-1.2506,5.6324
2562.5000,-23.4276,-1.8574,0.9988,-5.2588,-14.5225,8.6777,3.0464,-1.5184,-18.7962,-9.2404,-1.4465,17.0628,-14.2191,-7.2215,-14.7025,20.2918,-10.9106,-1.9395,2.2395
2566.4062,-19.7490,1.3880,-0.6300,-5.5624,-14.6303,16.1673,5.9711,-1.8434,-19.4840,-9.8139,-1.8557,14.9789,-15.3125,-8.3523,-17.7300,20.1108,-12.1154,-1.5521,-0.2922
2570.3125,-11.2672,6.3370,-2.1621,-5.3516,-14.3532,21.0107,2.8917,-2.2262,-18.6563,-4.4924,1.1109,12.1711,-15.1690,-8.1317,-20.2644,16.9409,-14.3845,-0.4172,-1.8526
2574.2188,-2.1066,10.9443,-4.5932,-5.1994,-14.4027,21.7730,-5.9840,-3.3643,-16.4800,3.2861,3.7571,9.5919,-13.4548,-6.7035,-20.1507,12.7708,-16.3698,0.3927,-3.5964
2578.1250,3.0708,13.1411,-8.2824,-5.3506,-14.7116,18.1834,-16.5860,-5.2645,-13.7686,8.5325,2.3721,8.2663,-10.5873,-4.5849,-17.1077,9.6872,-16.4692,0.2248,-6.6561
2582.0312,2.2529,12.4403,-12.1863,-5.2051,-14.4520,10.9234,-23.6558,-6.7652,-11.3811,8.6419,-3.7183,8.7923,-7.5381,-2.2416,-12.8636,8.3957,-14.0563,-0.3824,-10.9447
2585.9375,-2.5703,10.3371,-14.4796,-3.6972,-12.8080,1.6542,-24.3351,-6.2024,-9.6467,5.3825,-11.4415,10.9194,-5.3151,0.0446,-9.9347,7.8038,-10.1246,-0.0524,-15.0638
2589.8438,-6.9157,9.0716,-14.1307,-0.3115,-9.8252,-6.9342,-19.9976,-2.7624,-8.2894,3.2820,-16.2597,13.5450,-4.4058,2.0235,-10.0055,6.0382,-6.7254,2.1786,-17.3647
2593.7500,-7.0438,9.6997,-12.0633,4.1395,-6.5816,-11.6418,-14.9899,2.5914,-6.9072,5.6954,-15.6813,15.2156,-4.5141,3.3227,-13.0176,2.1580,-5.5240,5.7512,-17.2450
2597.6562,-2.5206,11.0657,-10.7586,7.7348,-4.4915,-10.0868,-13.3073,7.4773,-5.5710,11.7755,-11.2172,14.8662,-4.7709,3.5457,-17.4362,-2.7677,-6.5484,8.6253,-15.5922
2601.5625,3.7194,10.5996,-12.4122,8.6479,-4.2781,-2.2711,-15.7675,9.6059,-4.9683,16.8946,-7.2049,12.3393,-4.3014,2.5929,-21.3027,-6.1405,-8.1209,8.6063,-14.0257
2605.4688,7.7023,6.3922,-17.0221,6.4900,-5.4315,8.7375,-19.7566,8.3627,-5.8722,16.2830,-7.4086,8.3779,-2.7890,0.9118,-23.2554,-5.6320,-8.0708,5.0335,-13.5865
2609.3750,7.2838,-1.0689,-21.9893,2.7519,-6.5722,17.8198,-21.5658,5.2556,-8.2974,9.0084,-12.0713,4.1433,-0.6552,-0.6068,-22.9284,-1.0314,-5.3247,-0.4686,-13.9577
2613.2812,3.4553,-8.9080,-23.7148,-0.0735,-6.4174,20.2535,-19.3573,2.8497,-11.0500,-0.9258,-17.7250,0.6093,1.2727,-1.0904,-20.7168,5.2479,-0.6683,-4.8409,-13.8295
2617.1875,-0.6737,-13.6791,-20.1223,-0.1199,-4.5909,14.2485,-14.4479,2.9537,-12.1606,-7.3208,-19.8684,-1.7966,2.3802,-0.1986,-17.3097,9.4743,3.8833,-5.5232,-12.0597
2621.0938,-2.2082,-13.6548,-12.2481,2.6320,-1.6969,1.9795,-10.0537,5.3976,-10.0471,-6.2720,-16.3742,-3.1679,2.7276,1.6881,-13.3737,8.8960,6.5831,-2.1221,-8.6485
2625.0000,-0.2821,-9.8993,-3.6786,6.4237,1.2965,-11.6060,-8.6662,8.2896,-4.6500,1.0641,-8.9780,-3.8502,3.0127,3.7439,-9.4612,3.4940,7.1426,3.3713,-4.7416
2628.9062,3.8260,-5.3923,1.7903,9.0138,3.7778,-21.5111,-10.1988,9.5134,2.2895,9.5144,-1.7941,-4.1737,4.0481,5.2267,-5.9772,-3.9787,6.7248,7.9501,-1.7093
2632.8125,8.0190,-2.9383,2.5779,9.2323,5.7238,-25.2589,-12.2754,8.3002,8.0983,13.8304,1.8366,-4.3342,6.1279,5.8682,-3.0814,-9.6692,6.8326,9.5462,-0.1110
2636.7188,10.8858,-3.4319,0.1027,7.6592,7.3415,-23.7613,-12.2515,5.6918,10.6846,12.4015,1.6338,-4.4017,8.7536,5.8667,-0.6101,-10.8809,8.0512,8.1898,0.5944
2640.6250,12.2704,-5.6439,-2.5396,5.9687,8.5608,-20.0999,-9.2450,3.5950,9.7293,7.9395,0.1076,-4.3690,10.9332,5.5512,1.7974,-7.4884,9.6673,5.6306,1.4022
2644.5312,12.7822,-7.4653,-2.9034,5.4903,8.9213,-17.2021,-4.6077,3.2146,6.7866,4.8374,0.1738,-4.2019,11.8479,5.0333,4.3481,-1.7426,10.4200,3.8220,2.7897
2648.4375,13.0019,-7.5016,-0.7595,6.1047,8.0023,-16.0387,-0.6357,4.0981,4.2529,5.5130,2.7466,-3.9188,11.4055,4.1338,6.7760,3.2160,9.6937,3.4563,4.2889
2652.3438,13.1680,-5.8272,2.1631,6.3080,5.9994,-15.4821,1.2800,4.5099,3.9012,8.6820,6.2554,-3.6919,10.2757,2.6120,8.3837,5.0842,8.1190,3.6040,4.9717
2656.2500,13.4447,-3.5316,3.8649,4.3751,3.8710,-13.7283,1.5528,2.8040,5.9249,10.7591,8.3098,-3.8625,9.3897,0.4608,8.5229,3.3587,7.0736,2.6135,4.4056
2660.1562,14.2130,-1.6548,3.7476,-0.2707,2.8253,-10.0935,1.7543,-1.2883,9.0432,9.0048,7.9399,-4.7460,9.2792,-2.0075,7.1814,-0.8090,7.5126,-0.5081,3.2136
2664.0625,15.8600,-0.4492,2.9657,-6.5045,3.5028,-5.7879,3.1305,-6.4294,11.4954,3.7412,6.4545,-6.2573,9.7443,-4.3529,5.1727,-5.4946,9.1249,-5.2936,2.7017
2667.9688,18.1793,0.5545,3.3088,-12.1523,5.5104,-3.0725,5.5845,-10.6315,12.2031,-2.0806,6.2425,-7.6349,10.0865,-6.2901,3.6891,-8.9532,10.5415,-10.1316,3.8219
2671.8750,20.0602,1.9392,5.6465,-15.3500,7.7158,-3.4187,7.9123,-12.6215,11.3486,-5.3939,8.6364,-7.6123,9.7101,-7.7917,3.5086,-10.1782,10.4435,-13.3605,6.3353
2675.7812,20.0098,3.8897,9.2478,-15.6269,9.0876,-6.0699,8.9768,-12.5783,10.0723,-5.3954,12.7183,-5.1359,8.6220,-8.9204,4.4813,-9.0082,8.6689,-14.2817,8.9085
2679.6875,17.2710,6.1635,12.4765,-13.9953,9.4130,-8.1763,8.7583,-11.7577,9.5825,-3.8759,16.0764,-0.2534,7.4426,-9.5680,5.7407,-5.9695,6.3971,-13.3969,10.1193
2683.5938,12.6095,8.4051,14.1959,-12.0883,9.3116,-6.5800,8.4072,-11.3988,10.3004,-3.4442,16.8090,5.5042,6.9137,-9.3959,6.4887,-2.0230,5.2329,-11.8422,9.5805
2687.5000,7.9518,10.3772,14.6500,-11.0487,9.5427,-0.1120,9.3029,-11.8192,11.5641,-5.3374,15.0155,9.7245,7.2743,-8.1057,6.6926,1.7516,5.8912,-10.5700,8.2616
2691.4062,4.9827,11.8858,15.0767,-10.9627,10.1906,9.2226,11.9163,-12.3710,12.0136,-8.6866,12.5089,10.5007,7.9729,-5.8553,7.0682,4.5339,7.5116,-9.9119,7.7137
2695.3125,3.7783,12.5869,16.4087,-11.1380,10.4185,17.1537,15.3711,-12.1895,10.3659,-11.6732,11.0602,7.7298,7.9371,-3.4377,8.3200,6.0886,8.1487,-9.7256,8.7887
2699.2188,2.6766,12.0369,18.2055,-10.8789,9.0249,19.7345,17.9856,-11.0386,6.1131,-13.3208,10.7739,3.3419,6.2208,-1.9695,10.2855,6.8240,6.0828,-9.8269,10.8672
2703.1250,-0.3617,10.0887,18.7780,-10.1026,5.3791,15.9732,18.3271,-9.5434,-0.2172,-14.2102,10.0565,0.1437,2.5872,-2.2182,11.7813,7.4598,0.9943,-10.2382,12.2231
2707.0312,-5.9160,7.2979,16.4789,-9.3661,0.0033,8.6984,16.0076,-8.6608,-7.3120,-15.5321,7.2233,-0.0205,-2.3490,-4.0386,11.4018,8.4605,-5.8228,-11.0558,11.2685
2710.9375,-12.3230,4.8651,11.1487,-9.3779,-5.6528,2.9277,11.7555,-8.8878,-13.6508,-17.5032,2.3173,2.5059,-7.4748,-6.3823,8.6895,9.6295,-12.2969,-12.1439,7.7352
2714.8438,-16.7231,3.9792,4.5437,-10.4408,-10.0701,2.6838,6.8755,-9.8908,-18.1013,-18.7879,-2.5206,5.5234,-11.7565,-7.9536,4.6958,10.2167,-16.8086,-13.0299,2.9109
2718.7500,-17.2364,4.9825,-0.6510,-12.2336,-12.5054,8.3292,2.5764,-10.8376,-20.2764,-17.6138,-4.5706,6.6841,-14.6612,-8.0792,1.3722,9.5333,-18.9591,-13.1587,-1.2156
2722.6562,-14.5775,7.0284,-2.5178,-14.0039,-13.2326,16.2487,-0.4217,-11.0916,-20.5419,-13.6291,-2.7405,5.3289,-16.2060,-7.1456,0.1719,7.6498,-19.4517,-12.2899,-3.2205
2726.5625,-11.7621,8.5744,-1.0690,-14.9278,-13.0894,21.1764,-1.9124,-10.6297,-19.7326,-8.7259,1.3900,3.0491,-16.7017,-6.2387,0.9487,5.6227,-19.3363,-10.6555,-2.9870
2730.4688,-12.0175,8.3952,1.9359,-14.3614,-12.7681,19.6566,-2.0462,-9.8275,-18.7423,-5.8634,4.6223,2.4960,-16.4386,-6.2181,2.0720,4.9864,-19.2583,-8.7067,-1.4609
2734.3750,-16.4253,6.3644,4.2892,-11.9270,-12.4163,12.3072,-1.1924,-8.8537,-18.1745,-6.6944,4.4945,5.3106,-15.5428,-6.9275,1.7369,6.7842,-19.2123,-6.6751,0.2389
2738.2812,-23.0687,3.4363,4.7141,-7.5819,-11.7852,3.3472,0.1245,-7.2997,-18.1847,-9.9833,1.0534,10.7535,-14.0493,-7.1919,-0.5468,10.7799,-18.8313,-4.3829,1.5614
2742.1875,-28.3119,0.9013,3.3268,-1.7856,-10.6885,-2.2680,1.2785,-4.4754,-18.5421,-12.2864,-3.3759,16.1059,-12.0703,-5.6775,-3.4971,15.4111,-17.8470,-1.5369,2.5448
2746.0938,-29.2375,-0.4488,0.9968,4.3557,-9.3136,-2.0955,1.6350,-0.1815,-18.8450,-10.5216,-6.2001,18.5541,-9.8948,-2.0097,-5.0523,18.5578,-16.3295,1.7196,3.2370
2750.0000,-25.4501,-0.6109,-1.6956,9.2606,-8.1192,2.4083,0.6583,4.7343,-18.7721,-4.4214,-6.6771,17.1144,-7.9437,2.7189,-4.0531,18.6600,-14.5959,4.5295,3.1739
2753.9062,-19.0402,-0.0144,-4.9506,11.5114,-7.4508,7.2456,-2.0062,8.6502,-18.2554,3.1423,-6.4148,13.1412,-6.6217,6.5184,-1.2564,15.5063,-12.9667,5.6994,1.5059
2757.8125,-12.9434,1.0180,-9.2989,10.7056,-7.2470,8.8856,-6.4514,10.2223,-17.5054,8.2777,-7.8844,9.0930,-6.1620,7.8121,1.1788,10.2638,-11.6189,4.5670,-2.2464
2761.7188,-9.0615,2.4371,-14.6792,7.9248,-7.1046,6.6843,-12.3804,9.4515,-16.8781,8.9605,-12.2209,6.6170,-6.5323,6.5552,1.3617,4.8144,-10.6078,1.7115,-7.4571
2765.6250,-7.4784,4.1526,-19.9462,5.3217,-6.6304,2.9937,-18.9680,7.8553,-16.6408,6.3861,-18.1368,5.5178,-7.4195,4.3025,-0.8319,0.8513,-9.9411,-1.1402,-12.4089
2769.5312,-7.0739,5.6574,-23.3513,4.8914,-5.7635,1.0128,-24.8896,7.4545,-16.7422,3.7541,-22.8165,4.3930,-8.2901,3.1115,-3.6635,-0.7694,-9.5684,-2.0908,-15.2226
2773.4375,-6.7296,6.1117,-23.6976,7.1552,-4.7984,2.1168,-28.6951,9.2282,-16.7212,3.5699,-24.0153,2.2903,-8.5394,4.0408,-4.9415,-0.1824,-9.2990,-0.3126,-15.0955
2777.3438,-6.0506,4.9466,-21.2574,10.6994,-4.1239,4.7303,-29.4741,12.2052,-15.8502,5.7286,-21.6360,-0.1374,-7.7225,6.3434,-3.8089,1.7457,-8.8001,3.3587,-12.9083
2781.2500,-5.1801,2.4712,-17.6754,13.0177,-3.9325,5.5710,-27.4283,13.9876,-13.4969,7.9154,-17.5611,-1.0744,-5.8002,7.9805,-1.4399,3.8459,-7.7804,6.9644,-10.6666
2785.1562,-4.1799,-0.1517,-14.8660,12.1960,-4.1405,2.2534,-23.8667,12.4512,-9.5337,7.8647,-14.0021,0.7130,-3.2505,7.1156,-0.0421,5.0466,-6.2631,8.7618,-10.1101
2789.0625,-2.7553,-1.6924,-13.7154,8.3056,-4.5274,-4.7753,-20.4551,7.4318,-4.5388,5.4576,-11.8203,4.3371,-0.9080,3.5135,-0.9479,4.6627,-4.6864,8.4045,-11.4764
2792.9688,-0.6133,-1.8157,-13.5650,3.4897,-4.8852,-12.4400,-18.1285,1.1255,0.4041,2.8363,-10.1946,6.9166,0.4670,-1.1796,-3.3611,2.5595,-3.6462,7.1037,-13.3309
2796.8750,2.0007,-1.3742,-12.8527,0.6083,-4.9969,-17.1936,-16.4582,-3.1835,4.2601,2.4732,-7.7790,5.5245,0.6760,-4.4810,-4.8412,-0.8336,-3.3880,6.6599,-13.5982
2800.7812,4.2835,-1.6943,-10.3941,1.3502,-4.4886,-17.4661,-14.0540,-3.2290,6.6427,4.9238,-4.2046,-0.4530,0.3028,-4.6774,-3.2192,-4.6948,-3.4270,8.0987,-11.0485
2804.6875,5.5546,-3.3883,-6.3135,5.1281,-2.8029,-14.5866,-9.8355,0.7717,8.0473,8.2725,-0.5417,-8.4437,0.4494,-1.8373,1.5448,-8.1321,-2.6677,10.9337,-6.1640
2808.5938,6.0550,-5.7006,-1.9398,9.5377,0.5223,-11.5874,-4.2606,6.3261,9.5060,9.8006,1.6839,-14.1646,2.0776,2.4506,7.0679,-10.5163,-0.0557,13.5849,-0.7881
2812.5000,7.0302,-7.0122,1.1973,12.0337,5.3851,-10.9039,0.5171,10.3706,11.8451,8.4496,2.0062,-14.4885,5.3480,6.3214,10.1274,-11.6451,4.6363,14.5920,3.1415
2816.4062,9.8277,-6.1441,2.4569,11.6044,10.8497,-12.7475,1.8789,11.2287,15.0515,5.9057,1.6573,-9.6077,9.4095,8.8551,8.9638,-11.6664,10.4565,13.6691,4.8255
2820.3125,14.6606,-3.3745,2.4425,9.2520,15.4168,-15.2895,-1.3875,9.4359,18.2311,5.2680,2.6769,-2.8598,12.8276,10.3578,4.5635,-10.8646,15.6642,11.8035,4.9405
2824.2188,20.1068,-0.2645,2.4267,6.9894,17.7833,-16.3429,-7.9213,6.9334,20.2422,8.3307,6.1991,1.6631,14.4104,11.5830,-0.0489,-9.5133,18.6527,10.3644,4.9315
2828.1250,23.8936,1.6160,3.3798,6.1671,17.6069,-15.1124,-14.2857,5.3456,20.5671,13.7501,11.3809,1.9276,13.8936,12.6345,-1.9623,-7.9045,18.7981,9.9613,5.8796
2832.0312,24.4447,1.9963,5.3831,6.4084,15.6927,-12.6554,-16.9248,4.6930,19.7583,17.7143,15.9398,-0.8895,12.0239,12.5352,-0.3496,-6.4628,16.6725,9.9561,7.8081
2835.9375,21.9713,2.0946,7.8131,5.9327,13.4032,-10.8095,-14.2952,3.4884,19.0692,16.6938,17.9124,-3.6636,9.9929,9.8754,3.1794,-5.7235,13.5156,8.9954,9.8680
2839.8438,18.2119,3.4708,10.0179,2.9824,11.6885,-10.5656,-7.7091,0.0740,19.4999,10.1299,17.1952,-3.8866,8.6295,4.0500,6.0051,-6.0574,10.3912,6.1237,11.1264
2843.7500,15.0387,6.4996,11.8355,-2.7447,10.4635,-11.2394,-0.3223,-5.8779,20.9744,0.9359,15.5802,-1.4762,7.9310,-3.9222,6.5218,-7.2908,7.6527,1.5981,11.2629
2847.6562,13.1058,9.8211,13.5219,-9.7202,8.8266,-11.0768,4.9822,-12.8524,22.3234,-6.5675,15.2417,1.5100,7.2508,-11.7085,5.1988,-8.5689,5.0643,-3.2110,10.6475
2851.5625,11.6653,11.3393,15.2343,-15.5094,5.9628,-8.7528,7.3058,-18.3372,22.1475,-9.6324,16.9267,2.8552,5.9631,-16.9439,3.9620,-8.7106,2.3948,-6.7310,9.8473
2855.4688,9.6466,9.9958,16.6293,-18.2840,2.0165,-4.5437,7.8856,-20.3791,19.9266,-8.6821,19.3503,2.1156,4.0662,-18.5734,4.5080,-6.9353,-0.0691,-8.2019,9.0862
2859.3750,6.9558,6.7994,17.0167,-17.8423,-1.7949,-0.2530,8.7114,-18.7346,16.4909,-6.4345,20.2988,0.8951,2.2351,-17.3035,6.9398,-3.4737,-1.5599,-8.0580,8.1591
2863.2812,4.7383,4.1387,15.9778,-15.4983,-3.9721,2.0307,10.7359,-14.8694,13.4195,-5.4767,18.5209,1.3051,1.2685,-14.8985,9.7539,0.4444,-1.4297,-7.4670,6.8482
2867.1875,4.2720,3.8435,13.8810,-13.0545,-3.8545,1.3906,13.0352,-10.9325,11.7732,-6.3582,14.8362,3.9921,1.3595,-12.9132,11.0832,3.3277,0.1546,-7.4505,5.3994
2871.0938,5.4539,5.5976,11.7671,-11.6790,-2.1987,-1.3005,13.4959,-8.5074,11.1482,-7.6505,11.5431,7.4640,1.7819,-11.8152,10.1310,4.4254,2.0060,-8.2591,4.5463
2875.0000,6.3384,7.1221,10.6050,-11.4399,-0.7293,-3.9769,10.4645,-7.9609,9.8572,-7.6570,10.6186,9.3242,1.2868,-11.0549,7.6803,4.2638,2.4525,-9.3897,4.9738
2878.9062,4.3812,6.1180,10.5066,-11.6521,-0.9579,-4.6884,4.1272,-8.6528,6.1991,-6.0938,12.1855,8.3866,-1.0272,-9.8607,5.3794,4.2710,0.3176,-10.1000,6.6440
2882.8125,-1.4423,2.4373,10.5952,-11.5913,-3.1360,-2.6942,-3.3467,-9.6337,-0.0977,-4.2341,14.4872,5.8642,-4.9872,-8.0087,4.4899,5.7132,-4.2958,-9.9425,8.6017
2886.7188,-9.3766,-1.3718,9.7205,-10.9711,-6.1156,1.3032,-8.9524,-10.2313,-7.3826,-3.4899,15.3544,4.5661,-9.3017,-5.9462,5.1184,8.7148,-9.9567,-8.9360,9.5256
2890.6250,-15.6869,-1.7717,7.4939,-9.9187,-8.2095,5.7599,-10.4828,-10.1949,-13.0012,-3.8429,13.9409,6.6847,-12.2687,-4.2721,6.4482,12.1209,-14.6482,-7.3731,8.6768
2894.5312,-17.1183,3.0115,4.7840,-8.6484,-8.3991,9.1868,-7.6230,-9.5074,-15.0218,-3.6646,11.3200,11.9527,-12.7796,-3.1324,7.6144,14.3416,-16.8440,-5.5538,6.5165
2898.4375,-13.2139,11.3391,3.1826,-7.2256,-6.9951,10.7628,-1.9540,-8.1972,-13.5304,-1.1788,9.5085,17.6955,-10.9593,-2.1093,8.3844,14.5653,-16.2606,-3.7039,4.4619
2902.3438,-6.6922,19.0018,3.7700,-5.6161,-5.3014,10.4456,3.9494,-6.3448,-10.5379,3.7187,9.7721,20.7918,-8.0452,-0.6850,9.0808,13.4149,-13.8615,-2.0648,3.8932
2906.2500,-1.5419,22.0308,6.1174,-3.8795,-4.5879,8.7442,7.6842,-4.1863,-8.5607,8.9777,11.6133,20.0168,-5.6230,1.1866,9.9197,12.5242,-11.1745,-0.9241,5.1224
2910.1562,-0.2635,19.4079,8.3554,-2.2262,-5.1728,6.4420,7.8453,-2.0961,-8.9087,11.8348,13.2213,16.9236,-4.7410,2.9670,10.4735,13.3291,-9.3869,-0.4327,7.0945
2914.0625,-2.3403,13.6561,8.3520,-0.8350,-6.2770,4.4058,4.2830,-0.3778,-10.9061,11.0672,12.9435,14.5792,-5.4406,4.0162,9.8351,15.9847,-8.7595,-0.3292,8.0647
2917.9688,-5.0241,8.9161,5.1848,0.3770,-6.6952,3.4230,-2.0819,0.9524,-12.5491,8.1535,10.5330,15.1704,-6.9139,4.2378,7.4075,19.2326,-8.6466,0.1034,6.7709
2921.8750,-5.6866,8.0161,-0.1709,1.7461,-5.7210,3.9693,-9.6535,2.1453,-12.0383,6.2618,7.1898,18.3659,-8.0835,4.2701,3.6399,21.3297,-8.0234,1.6578,3.2607
2925.7812,-3.8061,10.7305,-5.4531,3.5502,-3.6285,5.9501,-16.6233,3.4264,-9.0323,7.7793,4.4604,21.6840,-8.1950,4.9913,0.0125,21.3354,-6.1556,4.5855,-1.1937
2929.6875,-1.0692,14.4005,-8.5858,5.6531,-1.4119,8.6023,-21.4599,4.6941,-4.7675,12.3573,2.9920,22.5096,-7.1078,6.7275,-1.8285,19.7882,-3.0327,8.2287,-4.9748
2933.5938,0.3207,16.2215,-8.9532,7.4778,-0.0585,10.7222,-23.3638,5.5369,-1.0926,17.0854,2.1793,20.1296,-5.2326,8.8596,-1.1856,18.2704,0.6258,11.2880,-7.1182
2937.5000,-0.4172,15.2990,-7.6011,8.4227,0.0645,11.1879,-22.5300,5.6318,0.7577,18.7091,0.9160,16.2029,-3.2625,10.2202,1.1708,18.2049,3.7344,12.6395,-7.7296
2941.4062,-2.0956,12.9388,-6.3118,8.4207,-0.6976,9.5211,-20.0434,5.2006,0.7586,16.1476,-1.2893,13.3752,-1.8729,10.0019,3.4907,19.7931,5.3620,12.1335,-7.6195
2945.3125,-2.7671,11.1757,-6.3150,8.1426,-1.6698,6.1669,-17.3730,5.0671,-0.2220,11.3286,-3.8341,13.2049,-1.4732,8.4377,4.2069,21.8709,5.1656,10.7449,-7.5438
2949.2188,-1.5176,10.9431,-7.5788,8.5933,-2.3200,2.3099,-15.6677,6.1460,-1.2016,7.7140,-5.5630,15.0397,-2.0234,6.6743,2.9514,22.7464,3.5647,9.9034,-7.6711
