Time,Fp1,F3,C3,P3,O1,F7,T3,T5,Fz,Fp2,F4,C4,P4,O2,F8,T4,T6,Cz,Pz
0.0000,-1.0924,-2.1959,-1.4620,-4.6700,-1.8926,-4.8457,1.7248,-3.1928,-4.5700,-4.7924,-2.7898,-6.7562,-6.3658,-0.8575,-9.8416,-12.5998,-5.0102,-4.2030,-4.1745
3.9062,-2.8197,-2.3526,-2.7731,-5.3365,-2.4840,-4.9901,3.8756,-3.1561,-5.9627,-6.1240,-3.2843,-7.8402,-7.3984,-1.4652,-11.3428,-11.1865,-6.5778,-4.8088,-4.8803
7.8125,-4.7469,-1.7654,-4.0138,-5.2936,-2.0580,-4.2412,4.0200,-2.2279,-7.1833,-7.3246,-3.4750,-8.3981,-8.2128,-1.6044,-12.6688,-6.7445,-7.6115,-5.2249,-5.2109
11.7188,-6.4349,-1.0973,-5.1615,-4.5237,-0.2257,-3.1645,0.7302,-0.5999,-8.0740,-8.1282,-3.5249,-8.5301,-8.5426,-1.0559,-13.4606,-1.0471,-7.5678,-5.7164,-5.1321
15.6250,-7.7553,-1.2271,-6.3162,-3.3750,2.6746,-2.8127,-5.2919,1.1841,-8.7266,-8.6433,-3.7216,-8.4260,-8.2913,0.0628,-13.7279,3.4717,-6.5761,-6.5140,-4.7846
19.5312,-8.8763,-2.4684,-7.4825,-2.2749,5.7651,-3.9630,-11.3798,2.5793,-9.2492,-9.2025,-4.1644,-8.0719,-7.4572,1.4113,-13.7420,5.4460,-5.2817,-7.4530,-4.2717
23.4375,-9.9803,-4.1442,-8.4101,-1.4179,8.1700,-6.4229,-14.5074,3.3602,-9.5110,-9.9834,-4.5719,-7.2115,-6.0227,2.6728,-13.7351,5.4297,-4.2880,-7.9021,-3.4768
27.3438,-10.9805,-4.9456,-8.6709,-0.6758,9.5079,-8.9683,-13.2430,3.6899,-9.1376,-10.7283,-4.4221,-5.6260,-3.9302,3.7332,-13.6733,5.2212,-3.6553,-7.1246,-2.0949
31.2500,-11.5203,-3.8878,-7.9569,0.2156,9.9842,-10.0565,-8.6620,3.9174,-7.8264,-10.8467,-3.3748,-3.4802,-1.1795,4.6629,-13.3012,6.2508,-2.8722,-4.8568,0.1066
35.1562,-11.2962,-1.1560,-6.3750,1.3640,10.0655,-8.8696,-3.5689,4.2862,-5.7428,-9.8789,-1.6660,-1.3786,2.0538,5.5488,-12.4129,8.3794,-1.3209,-1.6626,2.9934
39.0625,-10.4411,1.8604,-4.4823,2.5741,10.0458,-5.9521,-0.6187,4.7794,-3.6352,-7.9743,-0.1234,0.0007,5.4076,6.3507,-11.1028,10.1001,1.1551,1.2624,5.9876
42.9688,-9.6035,3.4564,-2.9894,3.4635,9.8670,-2.9499,-0.7076,5.1888,-2.4860,-5.9709,0.2928,0.4373,8.4709,6.9250,-9.7609,9.9481,4.0663,2.7631,8.3171
46.8750,-9.5772,2.8077,-2.3332,3.7285,9.3078,-1.5884,-2.7439,5.3055,-2.8910,-4.9381,-0.8519,0.4064,10.9696,7.1938,-8.8035,7.9082,6.6313,2.4273,9.4375
50.7812,-10.7142,0.5669,-2.4509,3.3244,8.3202,-2.5841,-4.8232,5.0517,-4.6184,-5.4691,-3.0836,0.7483,12.8424,7.2881,-8.3644,5.5976,8.3674,0.8108,9.3226
54.6875,-12.5801,-1.6294,-2.9434,2.4156,7.1741,-5.2374,-5.7865,4.4598,-6.7097,-7.2440,-5.2414,1.9564,14.1383,7.5004,-8.2204,5.0248,9.4020,-0.9855,8.4004
58.5938,-14.1744,-2.4071,-3.5033,1.1662,6.2638,-7.9705,-5.9360,3.5647,-8.0967,-9.2215,-6.2047,3.6287,14.8274,8.0447,-8.0229,6.9208,10.2256,-2.0808,7.1836
62.5000,-14.6171,-1.7193,-4.2423,-0.4075,5.7543,-9.4014,-6.4474,2.3588,-8.3098,-10.3577,-5.6481,4.5725,14.7079,8.8130,-7.6409,10.0244,11.0975,-2.3658,5.8881
66.4062,-13.8148,-0.9061,-5.6157,-2.3607,5.4171,-9.1857,-8.0962,0.8789,-7.7631,-10.3402,-4.2877,3.5713,13.5207,9.3563,-7.3084,11.9384,11.6386,-2.4512,4.3473
70.3125,-12.5898,-1.6829,-7.9616,-4.5825,4.8383,-8.0731,-10.4319,-0.6600,-7.4147,-9.7935,-3.4280,0.2904,11.2044,9.1589,-7.4287,10.9072,11.0192,-3.0881,2.2903
74.2188,-12.1313,-4.8116,-11.0241,-6.6412,3.8429,-7.2246,-12.1034,-1.8557,-8.0623,-9.7896,-4.1064,-4.3601,8.0799,8.0327,-8.1831,7.1142,8.6521,-4.5301,-0.2549
78.1250,-13.1392,-9.4586,-13.8916,-7.9273,2.7449,-7.3578,-12.0378,-2.3223,-9.7966,-11.0179,-6.4189,-8.7142,4.7910,6.3289,-9.2758,2.4987,4.8438,-6.3292,-2.7906
82.0312,-15.2798,-13.7217,-15.4875,-8.0616,2.1532,-8.3510,-10.4585,-1.9957,-11.9893,-13.2182,-9.4742,-11.3672,2.0079,4.7768,-10.0476,-0.7217,0.8359,-7.6983,-4.5955
85.9375,-17.3614,-15.9234,-15.3069,-7.2753,2.4380,-9.5226,-8.8686,-1.2986,-13.7718,-15.2880,-11.9759,-11.9944,0.0973,4.0309,-9.8923,-1.6210,-1.8803,-8.1283,-5.2302
89.8438,-18.1170,-15.7052,-13.8488,-6.4250,3.2912,-10.2738,-8.9889,-0.9848,-14.5989,-15.9777,-13.0042,-11.3970,-1.0089,4.2414,-8.6490,-1.0125,-2.5119,-7.7640,-4.9145
93.7500,-17.0394,-14.1450,-12.3784,-6.5483,3.7896,-10.5460,-11.4948,-1.7130,-14.4833,-14.6745,-12.4717,-10.7830,-1.6690,4.9570,-6.6631,-0.5172,-1.4788,-7.2577,-4.4644
97.6562,-14.6906,-12.8817,-12.1372,-8.2188,2.9856,-10.7624,-15.5401,-3.6276,-13.7975,-11.7478,-11.0072,-10.8627,-2.2472,5.4359,-4.4785,-1.1135,-0.1059,-7.2455,-4.8021
101.5625,-12.3011,-12.9659,-13.5452,-11.1459,0.6102,-11.3739,-19.3945,-6.2503,-12.9024,-8.2764,-9.4477,-11.4413,-2.9235,5.1364,-2.4344,-2.3907,0.2810,-7.8821,-6.3816
105.4688,-10.9859,-14.2956,-15.9639,-14.3196,-2.6591,-12.4405,-21.6293,-8.7727,-11.9597,-5.4225,-8.3536,-11.7653,-3.7196,4.0364,-0.5117,-3.0717,-0.8085,-8.7957,-8.9377
109.3750,-11.1386,-15.9668,-18.1811,-16.6173,-5.6034,-13.5980,-21.9069,-10.5511,-11.0562,-3.9030,-7.8640,-11.2800,-4.6631,2.5645,1.4559,-2.2823,-2.8448,-9.4732,-11.7174
113.2812,-12.3735,-17.1389,-19.2459,-17.4586,-7.2640,-14.4002,-20.8447,-11.4538,-10.4399,-3.8489,-7.8863,-10.1534,-5.8857,1.2279,3.4271,-0.4351,-4.8117,-9.7338,-13.9900
117.1875,-13.9539,-17.6583,-19.0373,-17.0674,-7.5532,-14.7034,-19.2457,-11.8309,-10.5452,-4.9940,-8.3485,-9.1549,-7.5266,0.2364,5.0172,1.0401,-5.9869,-9.8962,-15.4455
121.0938,-15.3052,-17.9733,-18.1780,-16.1927,-7.2290,-14.7460,-17.4765,-12.1624,-11.6864,-6.9161,-9.2548,-9.0179,-9.5169,-0.5936,5.7633,0.8960,-6.3631,-10.5052,-16.2117
125.0000,-16.2338,-18.5090,-17.4207,-15.5313,-7.2761,-14.8667,-15.5383,-12.6755,-13.6480,-9.1185,-10.5136,-9.8278,-11.4591,-1.6076,5.5957,-0.8041,-6.4473,-11.8398,-16.5473
128.9062,-16.7726,-19.1233,-17.0304,-15.2822,-8.1779,-15.1310,-13.6432,-13.2165,-15.5684,-10.9888,-11.7553,-10.9251,-12.7638,-2.9626,5.0937,-2.5727,-6.6927,-13.5950,-16.5168
132.8125,-16.8962,-19.1528,-16.6481,-15.1227,-9.6202,-15.2136,-12.5778,-13.4390,-16.3259,-11.8428,-12.3785,-11.3743,-12.9846,-4.4491,5.2249,-2.5099,-7.0797,-14.9817,-15.9314
136.7188,-16.4113,-18.0087,-15.7026,-14.5591,-10.8039,-14.6524,-13.3093,-13.1122,-15.2203,-11.1850,-11.8608,-10.5996,-12.1026,-5.6216,6.6826,0.3348,-7.1803,-15.1721,-14.5822
140.6250,-15.1188,-15.7841,-13.9845,-13.3376,-11.0758,-13.2587,-16.0316,-12.2815,-12.4585,-9.0587,-10.1130,-8.6993,-10.5285,-6.1282,9.3040,5.2708,-6.6018,-13.7733,-12.5309
144.5312,-13.0674,-13.3054,-11.8808,-11.6078,-10.3759,-11.3234,-19.5050,-11.1635,-9.0484,-6.1772,-7.5850,-6.2553,-8.8121,-5.9775,12.0521,10.4019,-5.3904,-11.0233,-10.1819
148.4375,-10.6255,-11.5294,-10.0732,-9.7642,-9.1973,-9.4304,-21.4564,-9.9053,-6.1388,-3.6202,-5.0140,-3.8796,-7.2950,-5.5412,13.6488,13.7857,-4.0429,-7.6264,-8.0627
152.3438,-8.2710,-10.7580,-8.9675,-8.1489,-8.1613,-8.0204,-19.9860,-8.4499,-4.2759,-2.2121,-2.9913,-1.9081,-5.9913,-5.3002,13.4398,14.4444,-3.1371,-4.3865,-6.5028
156.2500,-6.2652,-10.3236,-8.3510,-6.8723,-7.5881,-7.0641,-15.0106,-6.6449,-3.1214,-1.9959,-1.6698,-0.4496,-4.7782,-5.5298,11.8597,12.5928,-2.9168,-1.8833,-5.4873
160.1562,-4.5001,-9.0452,-7.5800,-5.8620,-7.3774,-6.1140,-8.5769,-4.4978,-1.8317,-2.2134,-0.8215,0.3631,-3.6987,-6.1456,10.1372,9.1289,-3.1818,-0.3392,-4.7956
164.0625,-2.6659,-6.1430,-6.1511,-5.0375,-7.2136,-4.6940,-3.6459,-2.3303,0.2096,-1.8563,-0.1637,0.2591,-3.0637,-6.7931,9.4350,4.9535,-3.5425,0.3329,-4.2776
167.9688,-0.6064,-1.9253,-4.1782,-4.4181,-6.8489,-2.7135,-2.1315,-0.6580,2.8687,-0.4162,0.3341,-0.9723,-3.2135,-7.0835,10.0489,0.6680,-3.7764,0.4038,-3.9953
171.8750,1.4444,2.2845,-2.3694,-4.0672,-6.2148,-0.5788,-3.6240,0.1439,5.3338,1.7133,0.4260,-3.1351,-4.1220,-6.7989,11.2467,-3.2578,-3.9575,0.2008,-4.0905
175.7812,2.9632,4.9448,-1.5075,-3.9496,-5.3359,1.0751,-5.7806,0.1253,6.6970,3.4950,-0.1435,-5.4988,-5.2130,-5.9483,11.8537,-6.2012,-4.2618,0.0004,-4.5066
179.6875,3.5112,5.2568,-1.8489,-3.8715,-4.2197,1.8137,-6.1203,-0.2482,6.5866,3.9887,-1.3203,-7.1033,-5.6259,-4.6897,11.1403,-7.3991,-4.6660,-0.0626,-4.8535
183.5938,3.0826,3.6249,-2.9242,-3.5882,-2.8931,1.6690,-3.8793,-0.4164,5.3878,3.0335,-2.6561,-7.3342,-4.8003,-3.2232,9.3583,-6.3396,-4.8565,-0.0373,-4.6016
187.5000,2.1411,1.3337,-3.8999,-3.0039,-1.5537,1.0727,-0.5282,-0.1194,3.9376,1.3719,-3.5481,-6.3317,-2.9439,-1.7411,7.5535,-3.2263,-4.4634,-0.1007,-3.4983
191.4062,1.3070,-0.2869,-4.2019,-2.2862,-0.6273,0.5537,1.4185,0.4440,2.9785,0.1342,-3.6225,-4.8865,-0.9815,-0.4395,6.8256,0.8931,-3.4200,-0.4037,-1.8712
195.3125,0.9423,-0.6230,-3.9001,-1.7797,-0.5729,0.4505,0.3589,0.8178,2.7869,0.0730,-2.9628,-3.8709,0.0410,0.4734,7.5935,4.5027,-2.1072,-0.9126,-0.5287
199.2188,0.9541,0.0116,-3.5555,-1.7706,-1.5159,0.8244,-3.1805,0.6909,3.1890,1.1050,-2.0110,-3.6306,-0.3103,0.8258,9.3811,6.3042,-1.1164,-1.3794,-0.2699
203.1250,0.9565,0.7688,-3.6751,-2.2771,-3.0142,1.5605,-6.9649,0.1801,3.8484,2.4685,-1.2300,-3.7973,-1.5323,0.5762,11.2242,5.8289,-0.7994,-1.4940,-1.3344
207.0312,0.6388,0.9297,-4.2344,-3.0161,-4.2149,2.5038,-8.7153,-0.2281,4.5328,3.3372,-0.7939,-3.6396,-2.5222,-0.1201,12.3544,3.6655,-0.9768,-1.1180,-3.1970
210.9375,0.0376,0.3825,-4.6609,-3.5563,-4.3580,3.5012,-7.6879,-0.0225,5.1681,3.4148,-0.5282,-2.6441,-2.3383,-0.9333,12.6574,1.2229,-1.0590,-0.4076,-4.8656
214.8438,-0.4921,-0.3513,-4.2882,-3.5302,-3.2692,4.3681,-4.9807,0.9750,5.7319,3.0891,-0.1102,-0.8539,-0.8200,-1.4770,12.6319,0.1440,-0.4921,0.2971,-5.4717
218.7500,-0.5547,-0.4959,-2.9050,-2.7650,-1.4495,4.8923,-2.4390,2.5126,6.1767,3.0819,0.6604,1.2669,1.3782,-1.4611,12.9564,1.5867,0.8341,0.7469,-4.7387
222.6562,0.0017,0.4659,-0.9542,-1.2893,0.3235,4.9496,-1.1381,4.1197,6.4933,3.9012,1.7323,3.2654,3.3266,-0.8026,14.0210,5.6267,2.5396,0.9930,-3.0304
226.5625,1.0166,2.4501,0.7745,0.7200,1.5648,4.6540,-0.6832,5.4318,6.8292,5.5037,2.8790,5.0166,4.4922,0.3506,15.7289,11.0600,4.0889,1.3376,-1.0112
230.4688,2.1829,4.7797,1.7081,2.9727,2.3514,4.3816,0.1712,6.3597,7.4705,7.3716,3.8663,6.6601,5.0248,1.6814,17.6203,15.8091,5.2033,2.0463,0.7783
234.3750,3.2757,6.5265,1.8667,5.0812,3.0742,4.5767,2.1900,6.9923,8.6199,8.8839,4.5524,8.2641,5.4807,2.8174,19.1486,17.8847,5.9996,3.0616,2.1230
238.2812,4.2460,7.0103,1.7687,6.6220,3.9073,5.4406,4.7763,7.3609,10.1270,9.6814,4.8648,9.5856,6.2578,3.4555,19.9040,16.4734,6.7576,3.9849,3.0358
242.1875,5.1353,6.1886,1.9592,7.2811,4.4914,6.7358,6.2859,7.3052,11.4404,9.7913,4.7405,10.1936,7.2254,3.4598,19.7128,12.4864,7.5495,4.3691,3.5386
246.0938,5.9349,4.7044,2.5389,7.0168,4.1558,7.8864,5.2788,6.5789,11.9089,9.5046,4.1504,9.8674,7.8349,2.8928,18.6665,8.0957,8.0813,4.0903,3.5634
250.0000,6.5519,3.5245,3.0571,6.1028,2.5285,8.3295,1.6930,5.1058,11.2554,9.1685,3.2181,8.8907,7.5877,1.9579,17.1381,5.4140,7.9015,3.4655,3.0536
253.9062,6.9152,3.3422,2.8385,4.9777,0.0072,7.8712,-2.9745,3.1546,9.8558,9.0553,2.3047,7.9282,6.4549,0.8768,15.7454,5.1530,6.7976,2.9879,2.1354
257.8125,7.0951,4.1098,1.4962,3.9890,-2.3569,6.7833,-6.5847,1.2617,8.5612,9.3354,1.9125,7.5420,4.9199,-0.2228,15.1655,6.2452,5.0326,2.8896,1.1633
261.7188,7.2812,5.0386,-0.7338,3.2400,-3.5310,5.5791,-7.6400,-0.0536,8.1506,10.0715,2.4008,7.7558,3.6472,-1.3191,15.7930,6.8063,3.2148,2.9270,0.5737
265.6250,7.5913,5.1294,-3.0533,2.6825,-3.2114,4.6559,-6.0090,-0.5574,8.8095,11.1670,3.7000,8.0695,3.0837,-2.3785,17.4227,5.7919,1.9132,2.6202,0.6690
269.5312,7.8717,3.9083,-4.4996,2.3816,-1.9852,4.0837,-2.7133,-0.3472,10.0302,12.3118,5.2655,7.9458,3.3052,-3.1965,19.2237,4.0617,1.3476,1.7829,1.5130
273.4375,7.6955,1.8434,-4.4275,2.6840,-0.7998,3.6798,0.8590,0.3363,11.0076,13.0437,6.3674,7.3562,4.1645,-3.3571,20.1449,3.8926,1.3986,0.8785,2.9961
277.3438,6.6301,0.0845,-2.8194,4.0542,-0.1799,3.2624,3.6136,1.3385,11.2159,12.9783,6.5481,6.8838,5.5184,-2.4233,19.5784,7.1524,1.8812,0.8257,4.9534
281.2500,4.6115,-0.3459,-0.2958,6.6174,0.1402,2.8386,4.8974,2.6422,10.7229,12.1025,5.9294,7.2430,7.2772,-0.2892,17.8538,13.4861,2.7844,2.3137,7.1740
285.1562,2.1440,0.6624,2.1401,9.7608,0.8491,2.5673,4.3147,4.1946,10.0299,10.9128,5.1362,8.5997,9.2397,2.5458,16.1720,20.0307,4.2266,5.1391,9.2845
289.0625,0.1411,2.1683,3.5032,12.1999,2.2723,2.5601,1.6687,5.6898,9.6220,10.2387,4.8860,10.2978,10.9330,5.0482,15.9361,23.1115,6.1647,8.1369,10.6796
292.9688,-0.5235,2.8546,3.2281,12.6184,3.8797,2.7337,-2.7742,6.5590,9.6309,10.8011,5.5391,11.2929,11.7165,6.1266,17.8719,20.8230,8.1655,9.8578,10.7014
296.8750,0.5214,2.0520,1.4249,10.5241,4.5718,2.8720,-7.9962,6.2562,9.8722,12.7629,6.9271,10.9925,11.1623,5.2719,21.5227,14.5839,9.5300,9.5477,9.0602
300.7812,2.9530,0.3200,-1.1285,6.7085,3.5699,2.8397,-12.4042,4.6637,10.1584,15.5672,8.5497,9.8110,9.4324,2.9342,25.4791,8.3902,9.7541,7.6959,6.2106
304.6875,5.9233,-0.9223,-3.3023,2.9024,1.1770,2.7315,-14.5982,2.2935,10.5361,18.1807,9.9456,8.9306,7.2998,0.3290,28.2068,6.1788,8.9694,5.7038,3.3155
308.5938,8.4509,-0.4946,-4.1346,0.7812,-1.2740,2.7864,-14.2486,0.0794,11.1850,19.6029,10.9309,9.3967,5.7180,-1.2645,28.9205,9.1753,7.9572,4.8903,1.6829
312.5000,9.7971,1.5439,-3.3012,0.9740,-2.3233,3.1227,-12.3347,-1.1394,12.0654,19.3365,11.5447,11.2500,5.2254,-1.2762,27.9276,15.1697,7.6437,5.5748,1.9805
316.4062,9.6689,3.8088,-1.2599,2.7706,-1.4597,3.5474,-10.4124,-1.0955,12.6889,17.5655,11.8097,13.4199,5.6394,-0.1642,26.2495,20.2380,8.4171,6.9304,3.7818
320.3125,8.2397,4.5622,1.0439,4.7284,0.4967,3.6584,-9.3950,-0.1904,12.3192,14.9884,11.5727,14.5055,6.2837,0.9463,24.8420,21.5841,9.7959,7.7030,5.8179
324.2188,6.0592,3.0447,2.7394,5.7178,2.0340,3.2042,-8.8375,0.8538,10.5309,12.4526,10.5960,13.8490,6.5596,1.0571,23.9921,19.3548,10.7363,7.2133,6.8053
328.1250,3.8910,0.1352,3.4936,5.6262,2.1138,2.4013,-7.4036,1.5183,7.6770,10.6037,8.8198,12.0372,6.3822,-0.0402,23.2937,16.1207,10.3718,5.8440,6.2620
332.0312,2.4640,-2.2277,3.5615,5.2216,0.9290,1.8897,-4.2311,1.7963,4.8087,9.6879,6.5350,10.4147,6.1194,-1.6947,22.1446,14.5553,8.6350,4.6441,4.7126
335.9375,2.1506,-2.4793,3.4166,5.3438,-0.3511,2.2864,-0.0744,2.0714,3.0045,9.5264,4.2652,9.9886,6.1119,-2.9404,20.3276,15.2271,6.2941,4.4028,3.1453
339.8438,2.7088,-0.6459,3.2719,6.1193,-0.6191,3.6547,2.8516,2.6909,2.5775,9.6188,2.4200,10.6170,6.2309,-3.2198,18.2150,16.2540,4.3971,4.9767,2.1769
343.7500,3.3028,1.6075,2.8964,6.8524,0.2306,5.3362,2.4110,3.5989,2.8015,9.3365,1.0073,11.1501,5.9193,-2.7371,16.4691,15.0311,3.5699,5.4304,1.6182
347.6562,2.9180,2.1771,1.8871,6.6720,1.2549,6.3465,-1.6289,4.3291,2.4379,8.1832,-0.3194,10.4191,4.7340,-2.1968,15.5237,10.5754,3.7002,4.8688,0.7998
351.5625,1.0139,0.0885,0.1693,5.3767,1.3472,6.0869,-6.9802,4.3660,0.7118,6.0585,-1.8812,8.2647,2.9271,-2.1737,15.2836,4.5730,4.1993,3.2567,-0.6268
355.4688,-1.9955,-3.7456,-1.7212,3.7426,0.2945,4.8325,-10.1033,3.5806,-2.0088,3.3980,-3.5686,5.7532,1.5029,-2.6348,15.2771,0.2922,4.5581,1.5239,-2.1236
359.3750,-4.8322,-7.1541,-2.8736,2.9942,-0.9206,3.5911,-8.5941,2.3855,-4.3947,1.0539,-4.7829,4.3805,1.5840,-2.9957,15.1081,0.2366,4.7036,0.8444,-2.4903
363.2812,-6.0695,-8.2487,-2.6339,3.8397,-0.8765,3.3988,-2.9704,1.4772,-5.1074,-0.0956,-4.8447,4.8968,3.5176,-2.6441,14.8040,4.3684,4.8808,1.6682,-0.7819
367.1875,-5.0591,-6.7246,-1.1561,5.8497,1.0680,4.5693,3.5198,1.3538,-3.8165,0.3682,-3.5890,6.6965,6.4386,-1.4866,14.7555,10.2158,5.2266,3.2992,2.7802
371.0938,-2.4293,-3.9734,0.5891,7.7068,4.1080,6.4700,7.0082,1.9708,-1.4972,2.1264,-1.6694,8.2706,8.7163,-0.0633,15.2960,14.6632,5.4753,4.3793,6.6730
375.0000,0.2565,-1.9782,1.4168,8.1559,6.4746,8.0016,5.5398,2.7897,0.2383,4.2682,-0.2653,8.3619,9.0283,0.8609,16.2869,15.9705,5.1112,3.9028,8.9144
378.9062,1.5069,-1.8735,0.7249,6.9190,6.7278,8.4059,0.2132,3.1719,0.2808,5.8138,-0.3375,6.9057,7.2844,0.8895,17.0940,14.5422,3.8632,1.9619,8.3240
382.8125,0.8972,-3.2558,-1.1030,4.8536,4.8469,7.7743,-5.8304,2.8202,-1.2217,6.2912,-1.9501,5.0217,4.6918,0.2869,17.0246,12.0903,2.1041,-0.3566,5.2918
386.7188,-0.6710,-4.7029,-2.9991,3.2400,2.2495,6.8661,-9.7124,1.9516,-3.0579,5.9737,-4.1765,4.0914,2.8888,-0.2602,15.9075,10.1037,0.7559,-1.8177,1.4882
390.6250,-1.6599,-5.0162,-3.9966,2.7732,0.7202,6.4027,-10.6398,1.1022,-3.9260,5.6028,-5.7020,4.6710,2.7830,-0.2049,14.3388,8.9255,0.7036,-1.9463,-1.2621
394.5312,-1.0606,-4.1835,-3.9106,3.0643,1.0957,6.4201,-9.9486,0.7377,-3.4341,5.7814,-5.7249,6.0868,3.9559,0.4373,13.3429,8.0200,2.1356,-1.2977,-2.1212
398.4375,0.8129,-3.3431,-3.4147,3.0361,2.7324,6.2088,-9.5253,0.9667,-2.3815,6.4745,-4.5258,6.9806,5.0538,1.1359,13.6405,6.9145,4.3215,-0.9368,-1.5969
402.3438,2.4926,-3.8439,-3.4815,1.8743,4.1320,4.8958,-10.0206,1.5460,-2.1399,6.9871,-3.2984,6.3161,4.8268,1.2961,15.0455,5.7985,6.0152,-1.6025,-0.9516
406.2500,2.3866,-6.1772,-4.6316,-0.2396,4.1737,2.2008,-10.3421,2.1332,-3.6328,6.4556,-3.3560,4.0459,3.0097,0.7189,16.4633,5.2394,6.2055,-3.2352,-1.1952
410.1562,-0.0657,-9.5927,-6.5558,-2.1967,2.9501,-1.2359,-8.7861,2.5662,-6.6686,4.5122,-5.2575,0.9852,0.4133,-0.3013,16.5531,5.4052,4.6912,-5.1822,-2.4350
414.0625,-3.9346,-12.6267,-8.3533,-2.7594,1.5751,-4.2128,-4.7875,2.9582,-10.0664,1.6521,-8.4339,-1.8757,-1.7528,-1.2846,14.6369,5.6854,2.1192,-6.8019,-3.9819
417.9688,-7.3504,-14.0671,-9.1511,-1.4456,1.1995,-5.7320,0.2337,3.5591,-12.4026,-0.9668,-11.5259,-3.9709,-2.7130,-1.9685,11.2378,5.2002,-0.4639,-7.8841,-4.9811
421.8750,-8.6566,-13.6155,-8.6089,1.1869,2.0945,-5.5823,3.6957,4.5172,-12.7951,-2.1682,-13.1629,-5.1925,-2.4526,-2.4316,7.8580,3.7823,-2.1743,-8.5330,-4.9715
425.7812,-7.3583,-11.8336,-6.9649,4.0344,3.5500,-4.3278,3.7313,5.7327,-11.2139,-1.4301,-12.6609,-5.4572,-1.3651,-2.8423,6.1183,2.4658,-2.5964,-8.6943,-3.9558
429.6875,-4.2646,-9.5598,-4.6798,6.2785,4.6083,-2.7732,0.6341,6.9102,-8.2442,0.8337,-10.2451,-4.3461,0.3558,-3.0927,6.8047,2.8749,-1.7374,-7.8599,-2.0630
433.5938,-0.8363,-7.3441,-2.0464,7.8831,4.9498,-1.3771,-3.2764,7.7601,-4.6347,3.5227,-6.7701,-1.2761,2.9680,-2.7062,9.4253,5.8899,0.1830,-5.3296,0.7486
437.5000,1.7112,-5.3227,0.8989,9.4093,5.1554,-0.0781,-5.2772,8.1993,-1.0205,5.4335,-3.2235,3.8751,6.8267,-1.1644,12.5370,10.6962,2.8678,-0.8829,4.5961
441.4062,2.9223,-3.5059,4.1374,11.3773,6.1425,1.3864,-4.1077,8.4148,2.0615,5.8108,-0.3488,10.2511,11.7573,1.5908,14.5984,15.1114,5.9383,4.7147,9.2672
445.3125,2.9930,-2.0975,7.3798,13.7501,8.2890,3.0090,-0.6902,8.7521,4.0704,4.5863,1.4641,16.1616,16.7720,4.9274,14.7947,17.0513,8.9178,9.8871,13.9471
449.2188,2.3060,-1.4933,10.0405,15.9548,11.0178,4.3464,2.7570,9.5037,4.5348,2.2630,2.1079,19.9179,20.4750,7.8174,13.3460,16.0151,11.3441,13.0846,17.4493
453.1250,1.0826,-1.9499,11.5338,17.3700,13.1934,4.8289,4.4427,10.7230,3.3408,-0.3956,1.6772,20.7876,21.9041,9.4739,11.1855,13.3942,12.9795,13.7077,18.8761
457.0312,-0.5841,-3.2437,11.6576,17.8126,13.9780,4.2923,4.2262,12.1668,0.9824,-2.6704,0.4561,19.3476,21.1488,9.8368,9.3001,11.3403,13.9237,12.4226,18.2083
460.9375,-2.4539,-4.6584,10.7425,17.5997,13.4168,3.2718,3.4929,13.3992,-1.5224,-4.0767,-1.0880,16.9626,19.2333,9.5056,8.1937,11.1078,14.4722,10.6263,16.3158
464.8438,-3.9879,-5.3538,9.4476,17.1685,12.2813,2.7770,3.9200,14.0132,-3.1035,-4.4398,-2.4110,14.8048,17.3346,9.1652,7.7786,12.2105,14.7930,9.4682,14.3331
468.7500,-4.5496,-4.8419,8.3763,16.6365,11.3568,3.6828,6.1689,13.8606,-3.2115,-3.8964,-3.1027,13.1755,15.9551,8.9778,7.6669,13.0401,14.7038,9.1673,12.8757
472.6562,-3.8324,-3.2189,7.8106,15.7255,10.8233,6.1731,9.4681,13.1660,-2.0809,-2.8306,-3.0780,11.6198,14.7033,8.4588,7.5688,12.3645,13.7922,9.1030,11.7216
476.5625,-2.1392,-1.0143,7.7325,14.1221,10.2577,9.6315,12.2636,12.4391,-0.4861,-1.7274,-2.5970,9.6506,12.8370,6.9609,7.4857,10.3986,11.8345,8.5316,10.2088
480.4688,-0.2315,1.1745,8.0307,11.9371,9.1996,13.0288,13.3067,12.1963,0.8255,-0.9645,-2.0761,7.4088,10.0930,4.3658,7.5889,8.5299,9.1646,7.3068,7.9974
484.3750,1.1786,2.9719,8.6552,9.8179,7.7108,15.5058,12.3455,12.6309,1.6041,-0.6341,-1.8150,5.6774,7.0965,1.3846,7.9381,7.9625,6.6276,6.0262,5.5361
488.2812,1.9105,4.2757,9.5761,8.5699,6.3777,16.7531,10.0474,13.4325,2.1467,-0.5108,-1.8295,5.2528,4.9988,-0.8361,8.3076,8.4953,5.0699,5.5408,3.8242
492.1875,2.3913,5.1459,10.6367,8.5863,5.7397,16.9973,7.4289,13.9093,2.9492,-0.2074,-1.8915,6.2461,4.6382,-1.5310,8.2938,8.5692,4.7338,6.2828,3.6578
496.0938,3.2675,5.7099,11.5151,9.5696,5.6831,16.7083,5.3428,13.3879,4.2767,0.5728,-1.7160,7.9480,5.9081,-0.9081,7.6408,6.6457,5.0627,7.9809,4.9947
500.0000,4.8632,6.1622,11.9013,10.7906,5.4094,16.2973,4.3286,11.6716,5.9888,1.8555,-1.1379,9.3904,7.8458,-0.0185,6.5380,2.8150,5.1336,9.9535,6.9733
503.9062,6.9090,6.7618,11.7543,11.6680,4.0882,15.9875,4.6836,9.2534,7.6974,3.4093,-0.1627,10.1195,9.3547,0.0269,5.6361,-0.7473,4.4155,11.6660,8.5662
507.8125,8.7316,7.6931,11.3706,12.1714,1.6639,15.8335,6.4381,7.1060,9.0575,4.9235,1.0879,10.5006,9.9673,-1.1080,5.7145,-0.9998,3.2460,13.0370,9.3124
511.7188,9.7235,8.8195,11.1320,12.7048,-0.9094,15.7569,9.1489,6.1403,9.9168,6.1936,2.4333,11.2757,10.0475,-2.7563,7.1800,3.8556,2.6025,14.2483,9.5179
515.6250,9.7066,9.5571,11.1049,13.5910,-2.2849,15.5323,11.7831,6.6623,10.2376,7.1630,3.6265,12.7609,10.3178,-3.8079,9.7187,12.8859,3.3087,15.2899,9.7899
519.5312,8.9303,9.1044,10.8599,14.6345,-1.7413,14.8005,13.0336,8.1865,9.9451,7.8104,4.3330,14.4052,11.1581,-3.6052,12.3525,22.6540,5.3031,15.7286,10.3580
523.4375,7.7722,6.9955,9.7512,15.1889,0.2287,13.2300,12.0457,9.7401,8.9241,8.0195,4.2098,15.1463,12.2829,-2.4563,13.9145,29.0338,7.5865,14.9807,10.8212
527.3438,6.4448,3.6125,7.5076,14.7050,2.2762,10.8058,9.0673,10.4607,7.2170,7.5940,3.1199,14.3075,13.0492,-1.3564,13.6884,29.4195,8.9393,12.8912,10.5713
531.2500,4.9682,0.1998,4.6652,13.2934,3.2374,8.0404,5.4275,10.0853,5.2284,6.4444,1.3556,12.2846,13.0871,-1.1571,11.8348,23.9685,8.8603,10.0965,9.5123
535.1562,3.3900,-1.7703,2.4151,11.7804,3.0132,5.8582,2.7016,9.0104,3.6773,4.7934,-0.3485,10.3973,12.6713,-1.8740,9.3355,15.2822,7.9691,7.7813,8.3890
539.0625,1.9952,-1.5259,1.8747,11.1405,2.5559,5.1161,1.6008,7.9106,3.2301,3.1898,-1.1306,9.9590,12.4890,-2.7051,7.4658,6.9489,7.5159,6.9392,8.3381
542.9688,1.2554,0.4466,3.2787,11.7297,2.9675,6.0331,1.4545,7.2202,4.0478,2.2522,-0.5093,11.2795,13.0001,-2.7480,7.0984,1.9251,8.3586,7.6887,9.9563
546.8750,1.5204,2.6825,5.7215,12.9470,4.4612,7.9568,0.7761,6.8621,5.6162,2.2996,1.2570,13.4077,13.9559,-1.8215,8.2549,1.5370,10.2165,9.1958,12.6525
550.7812,2.7155,3.7329,7.7060,13.6360,6.0703,9.7100,-1.4379,6.4084,7.0456,3.1488,3.2601,14.8436,14.5197,-0.7011,10.1745,5.3093,11.8116,10.2894,14.8870
554.6875,4.3300,3.1821,8.1405,12.9473,6.3739,10.3426,-4.6702,5.5159,7.6584,4.2638,4.4870,14.6665,13.9208,-0.5510,11.8524,11.3823,11.8134,10.3027,15.2032
558.5938,5.7445,1.9297,7.0526,10.9911,4.6611,9.7741,-6.9870,4.2779,7.4294,5.1637,4.4750,13.1819,12.1097,-1.9894,12.6905,17.2198,9.8619,9.4884,13.2845
562.5000,6.6377,1.4955,5.4788,8.7652,1.5796,8.8430,-6.3240,3.2067,6.9320,5.7754,3.6070,11.5761,9.8589,-4.5336,12.8297,20.4530,6.8742,8.6958,10.2016
566.4062,7.1359,2.8347,4.6179,7.4100,-1.2757,8.6882,-2.0602,2.8620,6.8238,6.4328,2.8077,10.8723,8.2068,-6.8806,12.9421,19.7412,4.3997,8.5917,7.6275
570.3125,7.5812,5.5426,4.9034,7.3774,-2.5104,9.8931,4.2998,3.4163,7.2780,7.5027,2.8407,11.0506,7.6821,-7.8201,13.6315,15.3688,3.5294,9.0669,6.6162
574.2188,8.1354,8.0565,5.7133,8.1584,-1.8988,12.0166,9.8941,4.4956,7.8228,8.9397,3.7216,11.0629,7.9309,-7.0866,14.8791,9.1959,4.1923,9.3099,6.8944
578.1250,8.5914,8.7300,5.9273,8.7581,-0.4197,13.8729,12.2189,5.4150,7.7344,10.1674,4.7008,9.7394,8.0432,-5.5076,15.9560,3.8056,5.3385,8.4849,7.2074
582.0312,8.5917,7.0070,4.8756,8.5105,0.6196,14.3660,10.5969,5.6300,6.6840,10.4528,4.8538,6.8577,7.3075,-4.3599,15.9083,1.2098,5.8054,6.4700,6.4243
585.9375,8.0769,3.8507,2.9216,7.5753,0.6087,13.2730,6.4098,5.0679,5.1237,9.5347,3.8478,3.5001,5.7895,-4.4472,14.2983,1.8806,5.1554,4.0707,4.5043
589.8438,7.5469,1.1359,1.2315,6.7436,-0.0292,11.4050,2.0310,4.1156,4.0840,8.0114,2.2963,1.3895,4.2877,-5.5907,11.6678,4.7505,3.8640,2.5465,2.5595
593.7500,7.8304,0.4590,0.9344,6.7545,-0.4115,10.0368,-0.6844,3.3106,4.5030,7.1154,1.4000,1.6953,3.7322,-6.8677,9.3449,8.1567,2.8025,2.8166,1.9866
597.6562,9.4642,2.2028,2.3469,7.7033,-0.1149,10.0311,-1.2740,2.9886,6.5654,7.9396,2.1027,4.2130,4.5269,-7.3424,8.6595,10.9936,2.5229,4.9243,3.3839
601.5625,12.1453,5.4508,4.8491,9.0139,0.4047,11.2927,-0.4288,3.1424,9.5194,10.6183,4.3594,7.5146,6.3393,-6.6970,10.0688,13.1851,2.9422,8.0985,6.1199
605.4688,14.7287,8.7001,7.4419,9.9506,0.2726,12.9194,0.9485,3.5453,12.0873,14.0606,7.0577,9.9197,8.4453,-5.3150,12.7914,15.1684,3.6132,11.2788,8.8612
609.3750,15.8509,10.7808,9.4721,10.2073,-0.8767,13.8891,2.5068,3.9846,13.1630,16.4826,8.6660,10.5359,10.2797,-3.8549,15.2292,16.9471,4.2408,13.6617,10.5896
613.2812,14.7716,11.3415,10.9161,10.0721,-2.3542,13.7477,4.4382,4.3953,12.3228,16.4304,8.1710,9.6340,11.7185,-2.7412,15.9223,17.6633,4.9179,14.8982,11.2667
617.1875,11.8339,10.6814,12.0399,10.0625,-2.8000,12.8044,6.8461,4.8094,9.8640,13.6305,5.6673,8.1857,12.9016,-1.9994,14.4076,16.1965,5.8694,14.9289,11.6385
621.0938,8.2074,9.2283,12.8113,10.3827,-1.2513,11.7466,9.1895,5.2198,6.4533,9.1099,2.2249,7.0316,13.8292,-1.5029,11.4171,12.3405,6.9851,13.7373,12.4025
625.0000,5.1138,7.1638,12.6573,10.6947,1.9675,11.0315,10.4008,5.5213,2.7147,4.5321,-0.8319,6.3525,14.1598,-1.3190,8.3070,7.4901,7.6533,11.3091,13.4788
628.9062,3.1083,4.4744,10.8460,10.4027,5.2950,10.5495,9.6476,5.5960,-0.9491,1.2212,-2.7130,5.7756,13.4283,-1.7787,6.1386,4.0481,7.1418,7.8218,14.0084
632.8125,1.9220,1.2856,7.2010,9.1925,6.9484,9.8041,7.0987,5.4508,-4.2674,-0.4739,-3.5046,4.8910,11.5031,-3.1725,5.0543,3.8086,5.2555,3.8224,13.0703
636.7188,0.9135,-1.9035,2.5256,7.3501,6.1511,8.4295,3.9947,5.2511,-6.9436,-1.1096,-3.9076,3.6614,8.8547,-5.3492,4.3502,6.5120,2.6857,0.1406,10.5065
640.6250,-0.2902,-4.3535,-1.6894,5.5834,3.6423,6.6095,1.8732,5.1884,-8.6473,-1.5249,-4.6381,2.3929,6.3569,-7.6083,3.1359,9.7868,0.6708,-2.4769,7.1643
644.5312,-1.4956,-5.5064,-4.1229,4.5094,1.1011,5.0480,1.4983,5.2963,-9.1939,-2.1786,-5.9379,1.3767,4.7412,-9.0410,1.0605,10.6935,0.1543,-3.7515,4.3636
648.4375,-2.1942,-5.3503,-4.4241,4.2528,-0.0400,4.5059,2.3187,5.3977,-8.7369,-2.9172,-7.4894,0.6116,4.1392,-9.0854,-1.4198,7.8204,1.0832,-3.9660,3.0262
652.3438,-2.0989,-4.4236,-3.3515,4.4879,0.5171,5.2499,2.8962,5.2680,-7.7620,-3.2612,-8.7001,-0.1052,4.0861,-7.8672,-3.3868,2.3848,2.4306,-3.6833,3.1560
656.2500,-1.4662,-3.4481,-2.1589,4.8456,1.9623,6.8252,2.0042,4.8854,-6.8289,-2.9002,-9.0842,-0.8218,3.9793,-6.0629,-4.1094,-2.5146,2.9691,-3.3154,4.0299
660.1562,-0.9084,-2.8734,-1.7106,5.2733,3.1767,8.3180,-0.4241,4.5278,-6.2313,-1.9684,-8.4768,-1.2042,3.5996,-4.4058,-3.4950,-3.9702,2.2116,-2.8859,4.8649
664.0625,-0.8507,-2.6650,-1.9955,5.9874,3.5863,8.9169,-3.2075,4.5717,-5.8276,-0.9031,-7.0104,-0.7365,3.2579,-3.2352,-2.0379,-1.1632,0.7863,-2.1608,5.3674
667.9688,-1.1069,-2.4550,-2.3622,7.0472,3.4031,8.3844,-4.7557,5.1110,-5.1760,-0.0522,-4.9757,0.7624,3.4522,-2.4234,-0.3700,4.2355,-0.0531,-1.0009,5.7376
671.8750,-0.9636,-1.8856,-2.2128,7.9697,3.1739,7.1317,-4.2178,5.7175,-3.8785,0.6121,-2.7173,2.7628,4.3450,-1.6763,1.1873,9.3224,0.6040,0.3932,6.2128
675.7812,0.2596,-0.8593,-1.5560,7.8278,3.1460,5.8839,-2.1072,5.6113,-1.8800,1.4306,-0.6037,4.1994,5.5288,-0.8940,2.7198,11.8321,2.6397,1.5679,6.6377
679.6875,2.6091,0.4720,-0.9816,5.8746,3.0558,5.1974,0.0350,4.2054,0.4822,2.7132,1.0062,4.1632,6.2982,-0.2540,4.4320,11.2635,5.0275,2.1617,6.4904
683.5938,5.3462,1.9035,-1.1256,2.2484,2.4998,5.1585,0.6846,1.6542,2.6970,4.4161,1.8782,2.6094,6.2091,0.0328,6.2669,8.6406,6.6319,2.2019,5.3550
687.5000,7.3842,3.3479,-2.1090,-1.8470,1.4832,5.4353,-0.6471,-1.0422,4.3879,6.1133,2.0562,0.4942,5.4491,0.0311,7.7845,5.4077,7.0319,2.0846,3.4008
691.4062,7.9916,4.8278,-3.4193,-4.7366,0.5802,5.5932,-3.0998,-2.5455,5.4966,7.2817,1.9085,-0.8305,4.6966,0.1191,8.4168,2.5114,6.7245,2.2463,1.4068
695.3125,7.2336,6.3271,-4.3034,-5.2884,0.5036,5.4259,-5.0288,-2.0106,6.2396,7.6609,1.9606,-0.5459,4.5794,0.6780,7.8951,0.3301,6.5948,2.8061,0.2612
699.2188,5.8403,7.6746,-4.3090,-3.6207,1.4522,5.0713,-5.0363,0.3300,6.9098,7.3996,2.5753,1.0912,5.1857,1.6935,6.4996,-0.7879,7.1308,3.4913,0.3393
703.1250,4.6394,8.5924,-3.5136,-0.9638,2.8391,4.8628,-2.7973,3.2698,7.6871,6.8942,3.7020,3.0158,6.0411,2.6510,4.9291,-0.1803,8.0421,3.9154,1.2823
707.0312,4.0162,8.8827,-2.2888,1.2388,3.6995,5.0510,0.8003,5.3843,8.5740,6.4786,4.9085,4.2258,6.5637,2.8741,3.8923,2.7450,8.5615,3.9725,2.3680
710.9375,3.7960,8.5865,-0.8603,2.3246,3.4692,5.6064,4.2142,5.9242,9.4600,6.2326,5.7087,4.5576,6.5992,2.0637,3.7258,7.6767,8.1319,4.0004,3.1538
714.8438,3.5780,7.9741,0.9048,2.7617,2.4758,6.2391,6.1008,5.2206,10.2267,6.0470,5.9595,4.7434,6.5611,0.5844,4.2998,12.9750,6.8715,4.5530,3.8387
718.7500,3.1814,7.3735,3.2859,3.6156,1.6923,6.6097,5.9474,4.3236,10.8106,5.8506,6.0120,5.7067,7.0411,-0.7740,5.2276,16.2884,5.4365,5.9498,5.0274
722.6562,2.8055,6.9879,6.2762,5.5794,1.9297,6.5776,4.1708,4.1634,11.2066,5.7616,6.4748,7.6835,8.2220,-1.3975,6.1694,15.9637,4.4383,7.9721,7.1023
726.5625,2.7870,6.8549,9.3504,8.3434,3.1418,6.3119,1.7292,4.8667,11.4500,6.0106,7.7399,9.9140,9.6172,-1.3219,6.9923,12.2385,3.9535,9.9686,9.7568
730.4688,3.1985,6.9565,11.6915,10.8002,4.4474,6.1877,-0.4440,5.7346,11.6121,6.6972,9.6260,11.1937,10.4056,-1.1637,7.7104,7.2388,3.5631,11.3054,12.1188
734.3750,3.6716,7.3372,12.7214,11.9089,4.8867,6.5278,-1.8330,5.8735,11.7967,7.6086,11.4211,10.8586,10.1188,-1.5369,8.3292,3.6731,2.8711,11.8113,13.3929
738.2812,3.6277,8.0700,12.4957,11.5228,4.2927,7.3553,-2.3856,4.9723,12.0962,8.2835,12.3156,9.3946,9.1093,-2.4289,8.7653,3.1193,2.0070,11.8620,13.4934
742.1875,2.7382,9.0609,11.6163,10.5182,3.5310,8.3175,-2.2928,3.6112,12.5008,8.2986,11.9210,8.1291,8.3681,-3.0865,8.9051,5.1273,1.6170,12.0263,13.1249
746.0938,1.2303,9.8687,10.7185,10.1184,3.8594,8.8410,-1.7404,2.8544,12.8182,7.5579,10.5042,8.1959,8.7774,-2.5671,8.7077,7.7380,2.2934,12.5448,13.2108
750.0000,-0.2280,9.7688,9.9572,10.9419,5.8851,8.4449,-0.8436,3.4348,12.6958,6.3537,8.7846,9.5760,10.3667,-0.5536,8.2274,8.9565,3.9165,13.0549,14.1147
753.9062,-0.9847,8.1288,8.9318,12.5152,8.9546,7.0352,0.2106,5.1532,11.7880,5.1569,7.4652,11.0067,12.1854,2.2270,7.5341,8.0599,5.5142,12.7957,15.2913
757.8125,-0.8487,4.8974,7.1189,13.6194,11.4893,5.0087,0.9924,6.9532,9.9949,4.3137,6.8450,10.8974,12.9443,4.3745,6.6458,5.8570,5.8571,11.1635,15.6670
761.7188,-0.1871,0.8472,4.4447,13.1960,12.0410,3.0865,0.8686,7.6239,7.6147,3.8909,6.7653,8.5929,11.9757,4.7554,5.5914,3.8850,4.3897,8.2157,14.4697
765.6250,0.3710,-2.6845,1.4942,11.1161,10.2742,1.9458,-0.6605,6.6154,5.2650,3.7656,6.8584,5.0085,9.7803,3.3247,4.5728,3.3019,1.7778,4.7445,11.8600
769.5312,0.3617,-4.4871,-0.8509,8.2462,7.1438,1.8340,-3.5073,4.3825,3.5730,3.8356,6.8422,2.1017,7.7217,1.1924,4.0414,4.3143,-0.4058,1.8438,8.8631
773.4375,-0.2922,-4.1990,-2.0700,5.7991,4.1709,2.3781,-6.7866,2.0357,2.8015,4.1233,6.6183,1.5208,7.0680,-0.1440,4.5137,6.4031,-0.6874,0.2524,6.6535
777.3438,-1.3883,-2.5762,-2.4104,4.4930,2.4068,2.7135,-9.1236,0.5871,2.6639,4.6675,6.1474,3.4156,8.0844,0.1539,6.1705,8.9349,1.3242,-0.0818,5.7423
781.2500,-2.7109,-1.0750,-2.6869,4.1483,1.8701,1.9039,-9.4145,0.3458,2.4889,5.3225,5.3028,6.3039,9.8531,1.7103,8.5337,11.5485,4.6901,0.0789,5.6828
785.1562,-4.1660,-0.9609,-3.6106,3.9749,1.8119,-0.5427,-7.5922,0.8630,1.6747,5.7066,3.9181,8.1140,10.9524,3.2685,10.5586,14.0688,7.8064,-0.1927,5.4951
789.0625,-5.6622,-2.4961,-5.1875,3.2567,1.4923,-4.3284,-4.8413,1.3930,0.1584,5.4300,2.0386,7.6460,10.4879,3.6387,11.2053,16.2172,9.4786,-1.3448,4.4519
792.9688,-6.8940,-4.7438,-6.6934,1.8700,0.7777,-8.4018,-2.9992,1.4658,-1.4302,4.4639,0.1428,5.3778,8.7100,2.5344,10.1568,17.5497,9.6198,-3.0325,2.6111
796.8750,-7.3249,-6.1517,-7.2763,0.2560,0.0950,-11.4082,-3.4364,1.1423,-2.0853,3.3274,-0.9500,3.0307,6.7784,0.6861,8.1410,17.7468,9.0998,-4.3487,0.7094
800.7812,-6.5089,-5.5649,-6.7197,-1.0551,-0.1364,-12.3565,-6.1296,0.8181,-1.0668,2.8501,-0.5373,2.2365,5.8768,-0.8019,6.5302,16.9513,8.9254,-4.4535,-0.4581
804.6875,-4.5584,-3.0206,-5.7393,-1.9163,-0.0210,-11.1588,-9.5919,0.8110,1.5305,3.5989,1.4199,3.3140,6.3562,-1.3082,6.4125,15.7457,9.4233,-3.1897,-0.6569
808.5938,-2.3567,0.2068,-5.5273,-2.6116,-0.1493,-8.7239,-11.7791,1.1071,4.6776,5.3667,4.0964,5.0707,7.5419,-1.0840,7.7708,14.7098,10.0493,-1.2670,-0.3457
812.5000,-1.2299,2.3616,-6.8464,-3.4480,-1.0083,-6.5063,-11.4017,1.4645,6.9157,7.1484,6.1866,5.7634,8.3223,-0.9006,9.4007,13.9519,9.9346,0.1369,-0.2415
816.4062,-2.1931,2.2875,-9.3442,-4.2648,-2.3529,-5.7231,-8.7504,1.7478,7.1983,7.7068,6.6868,4.4823,8.0497,-1.2777,9.6926,13.0939,8.7005,0.1335,-0.6785
820.3125,-5.2545,0.1312,-11.6307,-4.3256,-3.1223,-6.6747,-5.4469,2.1612,5.5529,6.3802,5.5552,1.9055,7.0675,-1.9434,7.7592,11.7898,6.8875,-1.2404,-1.2675
824.2188,-9.2905,-2.7898,-12.1097,-2.7555,-2.0567,-8.5813,-3.2897,3.1410,3.1092,3.5634,3.7592,-0.1457,6.4715,-1.9786,4.1011,10.3040,5.6577,-2.9418,-1.1190
828.1250,-12.6419,-4.8610,-10.0058,0.7626,1.3988,-10.0627,-3.0231,4.9608,1.4286,0.4902,2.6330,-0.0238,7.2889,-0.5461,0.3114,9.5313,5.9967,-3.5025,0.5318
832.0312,-14.0669,-5.1933,-5.8807,5.5620,6.5754,-9.9874,-3.9250,7.3635,1.5324,-1.5546,2.9735,2.5284,9.6784,2.3584,-1.9759,10.2887,8.0069,-1.9487,3.7456
835.9375,-13.4210,-4.1051,-1.2973,10.1999,11.8438,-8.1682,-4.5114,9.5446,3.2529,-2.0451,4.5053,6.1518,12.7222,5.7227,-2.1308,12.4095,10.8008,1.5139,7.7381
839.8438,-11.6180,-2.7534,2.1241,13.2112,15.4909,-5.4550,-3.8140,10.5572,5.3440,-1.4720,6.0975,8.7844,14.9523,8.0617,-0.8146,14.4783,13.0514,5.5122,11.2568
843.7500,-9.9318,-2.2045,3.6111,13.9184,16.6110,-3.1587,-2.2375,9.8939,6.2956,-0.8825,6.5700,9.0371,15.2367,8.3160,0.6569,14.6205,13.7953,8.2521,13.2132
847.6562,-9.1552,-2.6252,3.5334,12.7594,15.4467,-2.1874,-1.2994,7.8517,5.3151,-1.0653,5.5046,7.0460,13.4359,6.4849,1.3459,11.8826,12.9437,8.5556,13.1818
851.5625,-9.1960,-3.1877,2.9643,10.9232,13.0412,-2.4808,-2.3910,5.4209,2.8250,-1.9925,3.4869,4.2348,10.4239,3.5839,1.3171,7.1495,11.2056,6.5371,11.5082
855.4688,-9.3383,-2.7529,2.8848,9.5590,10.5358,-3.1259,-5.4678,3.7560,0.1505,-2.9168,1.6372,2.2353,7.5172,0.9966,1.4087,2.7872,9.5499,3.4828,9.0311
859.3750,-8.8983,-0.8194,3.5914,9.0979,8.6117,-3.0614,-8.6937,3.5532,-1.3650,-3.0120,0.8154,1.7961,5.7190,-0.3173,2.3949,1.1513,8.6145,1.0207,6.6344
863.2812,-7.7456,1.9821,4.6644,9.1196,7.3662,-1.8589,-9.4171,4.7081,-1.1949,-2.0393,1.0989,2.4536,5.2539,-0.2583,4.2566,3.0154,8.4384,0.1377,4.8868
867.1875,-6.3197,4.2446,5.4249,8.8038,6.5462,-0.0129,-5.9050,6.4360,0.1493,-0.5327,1.8872,3.1153,5.6203,0.5361,6.1531,7.0904,8.6124,0.6923,3.9176
871.0938,-5.1949,4.7508,5.4897,7.6091,5.8523,1.4653,1.3191,7.7477,1.6097,0.6083,2.4824,3.0154,6.0388,1.1972,7.0904,10.9925,8.6549,1.7118,3.5219
875.0000,-4.5969,3.3461,5.0193,5.6969,5.0856,1.8323,9.4722,7.9809,2.3704,0.7667,2.6376,2.2717,5.9537,1.1402,6.7068,12.9030,8.3188,2.2070,3.3781
878.9062,-4.2752,1.0646,4.5218,3.8276,4.1354,1.1763,14.9215,7.0898,2.3442,-0.0135,2.6299,1.6454,5.2847,0.2940,5.5123,12.6483,7.6521,1.8877,3.2372
882.8125,-3.8078,-0.5936,4.4084,2.8322,2.9473,0.3249,15.1694,5.5685,2.0367,-1.1762,2.8392,1.7673,4.3356,-1.0020,4.3986,11.4333,6.8502,1.2704,3.0012
886.7188,-3.0404,-0.7023,4.6554,3.0464,1.5688,0.1692,10.2205,4.0999,1.9810,-2.1417,3.2460,2.5095,3.5038,-2.2807,3.8609,10.5599,6.0688,1.1509,2.6854
890.6250,-2.2503,0.5081,4.8256,4.0920,0.2148,0.9353,2.5474,3.1598,2.2660,-2.6877,3.3369,3.0440,3.0217,-3.2038,3.6241,10.2666,5.3477,1.8993,2.3329
894.5312,-1.8632,1.9506,4.4278,5.1346,-0.7831,1.9830,-4.2577,2.7951,2.5671,-2.9019,2.5578,2.5519,2.8907,-3.6766,3.0203,9.6648,4.6668,3.1483,1.9664
898.4375,-1.9503,2.6140,3.3449,5.4241,-1.1819,2.3105,-7.3200,2.6786,2.6283,-2.7941,0.9654,1.0071,3.0027,-3.8205,1.8020,7.7819,4.0428,4.1143,1.6215
902.3438,-1.9556,2.3832,2.0094,4.7489,-1.0488,1.3826,-5.7938,2.3756,2.7185,-1.9813,-0.5104,-0.6232,3.3127,-3.8596,0.6577,4.7566,3.5583,4.2682,1.4241
906.2500,-0.9646,2.0912,1.1686,3.5170,-0.7841,-0.3724,-1.0505,1.6516,3.5736,0.1719,-0.5282,-0.9794,3.9083,-3.9852,0.8869,2.0831,3.2914,3.7918,1.6129
910.1562,1.5989,2.7472,1.3682,2.4397,-0.8598,-1.8179,4.1887,0.6376,5.7640,3.9668,1.7046,0.6986,4.9134,-4.2446,3.3756,1.5946,3.2058,3.4248,2.4293
914.0625,5.3310,4.5489,2.4895,2.0541,-1.4357,-1.9601,7.2065,-0.2399,8.9618,8.7727,5.6457,3.9125,6.2973,-4.5048,7.6364,3.9520,3.1039,3.8108,3.9038
917.9688,8.7810,6.4886,3.6745,2.4055,-2.1530,-0.7602,6.4533,-0.5121,11.7663,12.9627,9.4464,7.0868,7.7434,-4.5262,11.7334,7.8760,2.6985,4.8727,5.6913
921.8750,10.1171,6.9282,3.7483,3.0849,-2.3082,0.7291,2.0793,0.0565,12.3806,14.5902,10.8992,8.4918,8.7085,-4.1293,13.2990,10.8195,1.7724,5.7462,7.1310
925.7812,8.1678,4.7689,1.9271,3.5612,-1.3208,1.0503,-4.2606,1.3387,9.7725,12.4663,8.7502,7.2842,8.6810,-3.3584,11.0228,10.6616,0.3271,5.3721,7.5785
929.6875,3.1845,0.3530,-1.6186,3.5560,0.8335,-0.6221,-10.1502,2.9340,4.5028,6.9489,3.5111,3.9709,7.4975,-2.5132,5.5791,7.1901,-1.3799,3.3114,6.8340
933.5938,-3.1887,-4.6070,-5.7290,3.1947,3.5438,-3.8448,-13.3979,4.3970,-1.4423,-0.1114,-2.7959,0.0155,5.5064,-1.9906,-0.7004,2.2764,-2.9471,0.1517,5.3546
937.5000,-8.7560,-8.0718,-8.8263,2.8394,5.9002,-7.1385,-12.9132,5.4418,-5.7930,-6.2908,-7.8211,-3.0962,3.4298,-2.0194,-5.2315,-1.3873,-4.0331,-2.8373,4.0301
941.4062,-11.9142,-8.9707,-9.7840,2.7431,7.1999,-8.9304,-9.1455,5.9888,-7.3689,-9.8231,-10.2298,-4.6893,1.9614,-2.4847,-6.7260,-2.0748,-4.5340,-4.5658,3.5968
945.3125,-12.4020,-7.8303,-8.5655,2.7965,7.2677,-8.5378,-3.8690,6.0603,-6.7341,-10.3964,-10.3308,-5.1138,1.3275,-3.0006,-5.8430,-0.0830,-4.6210,-4.8692,4.0704
949.2188,-11.2241,-6.3016,-6.2196,2.5668,6.4025,-6.5118,0.6585,5.6517,-5.6755,-9.0669,-9.6188,-5.2977,1.1057,-3.2099,-4.5419,2.6144,-4.6100,-4.5819,4.6360
953.1250,-9.8589,-5.9517,-4.2249,1.6163,5.0567,-4.1439,2.8172,4.7215,-5.8890,-7.4325,-9.6014,-6.0327,0.4597,-3.0982,-4.6376,3.7791,-4.7390,-4.8924,4.1517
957.0312,-9.3106,-7.2058,-3.6026,-0.1315,3.5349,-2.5440,2.4538,3.3206,-7.8210,-6.6581,-10.7561,-7.5047,-1.3174,-3.0591,-6.5872,2.3590,-5.0038,-6.4721,1.9690
960.9375,-9.6243,-9.1813,-4.3793,-2.2560,1.9287,-1.9731,0.9168,1.7287,-10.4844,-6.9701,-12.3281,-9.3267,-4.2875,-3.6212,-9.3192,-0.9644,-5.1678,-9.0269,-1.5101
964.8438,-10.1255,-10.4764,-5.7390,-4.0582,0.2705,-1.8780,0.1983,0.4255,-12.3292,-7.8457,-13.0544,-10.9427,-7.7289,-5.0066,-11.1492,-4.3684,-4.9483,-11.5793,-4.9866
968.7500,-10.1298,-10.2710,-6.7227,-4.9946,-1.2973,-1.5197,1.6357,-0.1530,-12.4691,-8.6313,-12.2304,-12.0316,-10.4966,-6.8520,-11.0614,-6.0995,-4.2470,-13.2222,-7.0752
972.6562,-9.5562,-8.9047,-6.9441,-5.0160,-2.5207,-0.6595,4.9609,0.0780,-11.3242,-9.0688,-10.3076,-12.6113,-11.6635,-8.3282,-9.4260,-5.4755,-3.2441,-13.7329,-7.2201
976.5625,-8.9856,-7.5282,-6.7885,-4.5514,-3.1911,0.2337,8.3532,0.7419,-10.2120,-9.3597,-8.5723,-12.8165,-11.0199,-8.6070,-7.6710,-3.1204,-2.2636,-13.5759,-6.0344
980.4688,-9.1383,-7.1394,-6.9577,-4.1302,-3.2894,0.3852,9.5475,1.2332,-10.2326,-9.7920,-8.1454,-12.5874,-9.0964,-7.3611,-7.1956,-0.4236,-1.4894,-13.3248,-4.7860
984.3750,-10.1903,-7.7655,-7.7310,-3.9141,-2.9543,-0.6211,7.3533,1.1746,-11.3321,-10.2961,-9.0507,-11.5587,-6.7085,-4.9488,-8.3336,1.3520,-0.7544,-13.0057,-4.3850
988.2812,-11.4810,-8.4133,-8.5445,-3.4999,-2.2971,-2.4495,2.5978,0.7583,-12.2743,-10.3278,-10.0658,-9.2699,-4.3677,-2.1689,-10.1041,1.7781,0.4023,-11.9309,-4.6328
992.1875,-11.8724,-7.8110,-8.2668,-2.1790,-1.2567,-4.1880,-2.1872,0.6670,-11.5511,-9.2022,-9.5065,-5.5647,-1.9987,0.2183,-10.9071,1.4357,2.3921,-9.2006,-4.3279
996.0938,-10.5308,-5.3695,-6.0125,0.4965,0.3295,-4.9476,-4.2268,1.5659,-8.5430,-6.6326,-6.4172,-0.8940,0.8304,1.8535,-9.6564,1.5069,5.1671,-4.5098,-2.1885
1000.0000,-7.5616,-1.6485,-1.8998,4.2433,2.4634,-4.4281,-2.2207,3.5122,-4.0552,-3.0586,-1.3276,3.7185,4.3583,2.7977,-6.5598,3.0060,8.0528,1.3699,2.0793
1003.9062,-4.0096,1.9997,2.8401,8.0401,4.7722,-3.0460,2.7994,5.7463,0.1687,0.5147,3.9795,7.0836,8.2127,3.2740,-3.0220,6.0501,10.0063,6.8478,7.3835
1007.8125,-1.1894,4.3264,6.5371,10.6470,6.5913,-1.5675,8.0694,7.0909,2.5928,3.0858,7.5543,8.4250,11.4885,3.4047,-0.7587,9.5914,10.1883,10.3854,11.8546
1011.7188,0.1863,4.9667,8.0934,11.3306,7.3630,-0.5557,10.7923,6.7264,2.8572,4.2473,8.4876,7.8029,13.3024,3.1800,-0.7300,11.8547,8.4908,11.3945,14.0460
1015.6250,0.4451,4.5698,7.6226,10.3077,7.0752,-0.0512,9.8304,4.7966,1.8903,4.3831,7.4171,6.1172,13.4222,2.6527,-2.5961,11.3468,5.6556,10.5420,13.8590
1019.5312,0.6254,4.2382,6.2670,8.5909,6.3705,0.3103,6.2702,2.3771,1.1355,4.3250,6.0012,4.6484,12.4784,2.1282,-5.0198,7.8984,2.8741,9.2577,12.5220
1023.4375,1.6143,4.7253,5.3413,7.3301,6.1724,0.8825,2.5019,0.7900,1.5000,4.7088,5.7485,4.3640,11.5692,2.1081,-6.5709,3.0401,1.1130,8.7961,11.6543
1027.3438,3.3993,5.9683,5.4349,7.0973,7.0531,1.6540,0.4846,0.7409,2.7969,5.4939,7.0301,5.3854,11.5223,2.9724,-6.6081,-0.6789,0.6053,9.4982,12.1214
1031.2500,5.0172,7.2451,6.1198,7.6024,8.8015,2.2373,0.4401,1.9024,4.0350,6.0014,8.9499,6.9496,12.3523,4.6411,-5.5718,-1.1629,0.8343,10.7320,13.5239
1035.1562,5.2666,7.7771,6.4382,8.0193,10.5352,2.2015,0.9075,3.2446,4.2677,5.4595,10.1184,7.9247,13.3129,6.5174,-4.5433,1.8435,0.9932,11.4863,14.6535
1039.0625,3.6668,7.3006,5.7544,7.6627,11.2994,1.4734,0.0975,3.8497,3.3196,3.6646,9.7242,7.5777,13.4924,7.8074,-4.4248,6.4062,0.5725,11.1453,14.5124
1042.9688,0.9272,6.2022,4.2943,6.5084,10.7202,0.4793,-2.4841,3.5798,1.8516,1.2612,8.1093,6.0902,12.4942,8.0063,-5.3226,9.4392,-0.3430,9.8777,13.0784
1046.8750,-1.4642,5.1674,2.9597,5.1769,9.2300,-0.1077,-5.4053,3.0905,0.7661,-0.6023,6.4410,4.4415,10.6827,7.1861,-6.5378,8.5571,-1.2510,8.3988,11.2378
1050.7812,-2.2671,4.6459,2.5817,4.4084,7.7076,0.1540,-6.2193,3.2003,0.4568,-1.0319,5.7648,3.6880,8.8264,5.8688,-7.1225,3.5683,-1.7044,7.3409,9.9877
1054.6875,-1.3771,4.5471,3.2153,4.4409,6.8225,1.1145,-3.3164,4.1377,0.5083,-0.0252,6.1845,4.1205,7.4484,4.5947,-6.5656,-3.3724,-1.6897,6.7453,9.5864
1058.5938,0.1047,4.3753,4.0446,4.7786,6.5919,2.0711,2.6371,5.2869,0.0814,1.4981,6.8122,4.9312,6.4206,3.5417,-5.1085,-9.0492,-1.6132,6.0703,9.3516
1062.5000,0.7065,3.6788,3.9867,4.5398,6.4735,2.2114,8.7948,5.6467,-1.3220,2.3390,6.5324,4.7138,5.1364,2.5008,-3.4838,-11.0501,-1.9200,4.6977,8.2665
1066.4062,-0.2722,2.4599,2.5359,3.1338,5.8839,1.1816,11.8013,4.6429,-3.3180,1.9053,4.9852,2.5210,3.1160,1.2086,-2.3075,-9.0024,-2.6619,2.5301,5.8893
1070.3125,-2.1668,1.2366,0.1963,0.7534,4.7008,-0.6039,9.9270,2.6338,-4.7663,0.6909,2.9863,-1.2695,0.5386,-0.2691,-1.6083,-4.4679,-3.3731,0.1941,2.8093
1074.2188,-3.3719,0.7100,-1.8380,-1.6988,3.3366,-2.1416,4.1808,0.6871,-4.5104,-0.0401,2.0105,-4.9786,-1.7615,-1.4576,-0.8592,0.2630,-3.3675,-1.3370,0.2556
1078.1250,-2.5072,1.2764,-2.5230,-3.2167,2.3425,-2.4193,-2.3816,-0.2165,-2.2210,0.8116,3.0849,-6.6457,-2.8683,-1.7964,0.5154,3.5481,-2.2413,-1.4415,-0.8480
1082.0312,0.5159,2.7358,-1.6987,-3.3913,1.8892,-1.0382,-6.6544,0.0710,1.2629,3.2827,5.9093,-5.3982,-2.4904,-1.1161,2.5601,5.0380,-0.2053,-0.3482,-0.6322
1085.9375,4.3166,4.4036,-0.1717,-2.6867,1.5761,1.5280,-7.3718,0.7644,4.3586,6.1685,8.8948,-2.1813,-1.2347,0.1290,4.6078,5.3428,2.0024,0.9611,-0.2168
1089.8438,6.9122,5.5566,0.9069,-2.0811,0.7443,4.2167,-5.5963,0.7830,5.6725,7.7607,10.1538,0.7593,-0.2047,1.0895,5.6732,5.1962,3.5540,1.4153,-0.8467
1093.7500,7.0326,5.9090,0.8997,-2.3263,-0.9485,6.0284,-3.5671,-0.3656,4.8373,7.0344,8.7692,1.3708,-0.2072,1.0581,5.1565,4.8446,4.0014,0.6269,-2.8793
1097.6562,4.9659,5.7959,0.1361,-3.3671,-3.1544,6.6246,-2.8637,-2.1479,2.7175,4.4524,5.4509,-0.7614,-1.1689,-0.0822,3.3411,4.0546,3.4574,-0.7861,-5.4074
1101.5625,2.3529,5.9367,-0.3632,-4.3522,-4.9758,6.4798,-3.2850,-3.3628,0.8657,1.7753,2.1037,-4.0775,-2.2096,-1.8265,1.3027,2.5685,2.4066,-1.5896,-6.8366
1105.4688,1.0951,6.9312,0.3208,-4.2406,-5.5296,6.4889,-3.2269,-3.0282,0.5882,0.9456,0.5992,-6.1157,-2.3158,-3.4262,0.2662,0.5238,1.3420,-0.7940,-6.0134
1109.3750,2.1349,8.8158,2.2829,-2.5801,-4.5200,7.3055,-1.1704,-1.1221,2.2036,2.7742,1.5938,-5.2653,-1.0981,-4.3544,0.8460,-1.5146,0.5161,1.6029,-3.0850
1113.2812,4.9130,10.9688,4.6615,0.0935,-2.4097,8.8708,2.9335,1.3777,4.9186,6.3258,4.1763,-1.9416,0.9394,-4.5071,2.6859,-2.8691,-0.0411,4.5124,0.5341
1117.1875,7.7991,12.4277,6.1801,2.5217,-0.0950,10.4578,7.4584,3.1695,7.3428,9.4371,6.5310,1.6839,2.7997,-4.0426,4.7270,-3.1068,-0.3347,6.3813,3.0598
1121.0938,9.1310,12.4239,5.9710,3.4724,1.6401,11.1926,10.2028,3.4975,8.2833,10.0408,7.1069,3.2136,3.7257,-3.0866,5.8923,-2.1888,-0.2791,6.1370,3.4528
1125.0000,8.1590,10.8177,4.1154,2.4727,2.4883,10.6799,9.9239,2.5753,7.3482,7.4295,5.4936,1.7016,3.6862,-1.6272,5.7163,-0.4067,0.2225,3.8286,1.9786
1128.9062,5.3552,8.1936,1.5604,0.0489,2.5896,9.2934,7.1502,1.2942,5.0616,2.6622,2.4919,-1.7444,3.2596,0.2889,4.5324,1.7290,1.0703,0.5584,-0.1263
1132.8125,2.0401,5.5900,-0.4825,-2.6454,2.2244,7.9485,3.7318,0.4952,2.5171,-2.0863,-0.5341,-4.8485,3.0550,2.2702,3.1723,3.5545,1.8626,-2.2105,-1.5753
1136.7188,-0.3125,4.0397,-1.2267,-4.5302,1.5383,7.5473,1.5565,0.3877,0.8336,-4.7461,-2.4736,-5.8444,3.1715,3.5542,2.4529,4.3580,2.0587,-3.4795,-1.8531
1140.6250,-0.6549,4.1661,-0.6517,-5.1596,0.5179,8.5036,1.4274,0.5254,0.7160,-4.3507,-2.9120,-4.6779,3.1417,3.3886,2.8055,3.6501,1.3404,-3.1424,-1.3987
1144.5312,1.3794,5.9973,0.6502,-4.8200,-0.8237,10.6475,2.8441,0.2855,2.2770,-1.2818,-2.0355,-2.8693,2.3851,1.5866,4.2108,1.5391,-0.1063,-1.8093,-1.1219
1148.4375,5.4779,9.0188,1.9323,-4.1883,-2.2914,13.4893,4.6573,-0.5870,5.1027,3.2115,-0.2617,-2.2155,0.7668,-1.2049,6.3526,-1.0886,-1.6545,-0.2572,-1.6983
1152.3438,10.7566,12.3803,2.7078,-3.8510,-3.5764,16.5511,5.9203,-1.8094,8.4498,7.7494,2.0212,-3.3838,-1.2276,-3.8297,8.7871,-2.8786,-2.6601,1.0431,-3.1765
1156.2500,15.9313,15.1639,2.8820,-4.0204,-4.5124,19.4770,6.2691,-2.8626,11.4816,11.3255,4.4436,-5.4829,-2.8619,-5.3882,11.0192,-2.7648,-2.9564,2.0141,-5.1169
1160.1562,19.6326,16.6569,2.6095,-4.5813,-5.2792,21.8980,5.7177,-3.4646,13.5074,13.4172,6.5351,-6.8777,-3.7621,-5.8978,12.5468,-0.6965,-3.0313,2.7160,-7.0504
1164.0625,20.8946,16.5883,2.0677,-5.3377,-6.3295,23.3008,4.3134,-3.8012,14.2027,13.8930,7.7738,-6.5297,-4.2478,-6.3121,12.9957,2.2512,-3.7024,3.0686,-8.8302
1167.9688,19.6461,15.2579,1.3447,-6.2096,-8.0429,23.1708,2.1430,-4.3275,13.7478,12.9796,7.8882,-4.7596,-5.0760,-7.8089,12.3549,4.5825,-5.4777,2.8433,-10.6058
1171.8750,16.8719,13.4600,0.4924,-7.2196,-10.3589,21.4023,-0.3022,-5.3245,12.7882,11.3348,7.1900,-2.8452,-6.7664,-10.8293,11.1472,5.4552,-8.0539,1.9457,-12.4896
1175.7812,14.2131,12.1583,-0.3567,-8.3122,-12.6875,18.6369,-1.9091,-6.5906,12.1718,10.0161,6.5870,-1.8414,-9.0349,-14.5804,10.3251,5.3094,-10.3416,0.7129,-14.2438
1179.6875,13.1221,12.0100,-0.9501,-9.2025,-14.1949,16.1241,-1.3844,-7.5271,12.5473,10.1224,7.1341,-1.6374,-10.8087,-17.4166,10.8395,5.5050,-11.0452,-0.0940,-15.2749
1183.5938,14.0440,12.9856,-1.0117,-9.4232,-14.2739,15.0238,1.7287,-7.5496,14.0305,12.1727,9.3595,-1.0542,-10.8609,-17.8729,13.0967,7.1845,-9.4348,0.3177,-14.9560
1187.5000,16.1576,14.3429,-0.4030,-8.5760,-12.8678,15.5702,6.2211,-6.5031,16.1436,15.6196,12.8411,1.0959,-8.6355,-15.6356,16.6556,10.2341,-5.7987,2.2455,-13.0343
1191.4062,17.8874,15.0350,0.7754,-6.6181,-10.4407,16.7549,9.4540,-4.7712,18.0837,18.9468,16.3747,4.8710,-4.6746,-11.7586,20.4021,13.2069,-1.2886,5.2280,-9.8269
1195.3125,17.8840,14.3507,2.2170,-3.9715,-7.6609,16.9080,8.8378,-3.0163,19.1646,20.4574,18.6613,8.9505,-0.3470,-7.9795,23.1233,14.3505,2.7199,8.2695,-6.0855
1199.2188,15.8477,12.3902,3.5512,-1.3584,-5.0654,14.8939,3.6980,-1.7650,19.1553,19.3317,19.0515,11.5219,2.9346,-5.6284,24.1295,12.9856,5.3145,10.4215,-2.6531
1203.1250,12.6715,10.0426,4.4913,0.5465,-2.9373,11.0894,-3.8516,-1.1359,18.3126,16.2458,17.8402,11.6243,4.4767,-4.8949,23.5419,10.1531,6.3618,11.3158,-0.1499
1207.0312,9.8438,8.4412,4.9016,1.4294,-1.4094,7.3491,-9.8857,-0.8710,17.1120,13.0578,15.9389,9.8848,4.5690,-4.9252,22.1050,7.9725,6.3302,11.2821,1.1554
1210.9375,8.5341,8.2261,4.7665,1.4304,-0.6073,5.8460,-11.0620,-0.5939,15.8903,11.6852,14.2062,8.0509,4.1417,-4.5988,20.6993,8.1485,5.8434,10.9889,1.3025
1214.8438,8.9575,9.1024,4.1183,0.9754,-0.6377,7.5285,-6.8726,-0.0850,14.6557,12.8810,12.9380,7.6728,4.1093,-3.3643,19.8978,10.7442,5.3255,10.8965,0.5426
1218.7500,10.3718,9.9988,2.9941,0.4792,-1.4185,11.3094,-0.1322,0.6009,13.1772,15.7299,11.8532,8.9524,4.8450,-1.5358,19.8118,14.1447,4.9418,10.9284,-0.7302
1222.6562,11.6149,9.7378,1.4506,0.1139,-2.5431,14.6514,4.7657,1.2009,11.2561,18.2227,10.5049,10.6337,6.0699,0.0901,20.2259,16.2221,4.7612,10.5812,-2.0421
1226.5625,11.7771,7.7849,-0.3897,-0.2235,-3.3886,15.2220,4.7199,1.4012,8.9552,18.5397,8.7348,10.9921,7.1254,0.9143,20.8299,15.8012,4.8915,9.3572,-2.9694
1230.4688,10.6028,4.5898,-2.3189,-0.7617,-3.4748,12.4737,-0.0341,0.9755,6.6207,16.1922,6.8082,9.1335,7.3818,0.9485,21.3584,13.3335,5.4164,7.1758,-3.3341
1234.3750,8.4733,1.3131,-4.0842,-1.6572,-2.8327,8.0127,-6.1314,-0.1418,4.6986,12.2800,5.1637,5.6166,6.5294,0.6651,21.5959,10.3511,6.1906,4.4625,-3.3466
1238.2812,6.1041,-0.8668,-5.4789,-2.8973,-2.0757,4.4638,-9.4003,-1.8396,3.4952,8.7302,4.0391,1.9768,4.6469,0.4704,21.3478,8.2366,6.7268,1.8771,-3.5466
1242.1875,4.1910,-1.4133,-6.4332,-4.3570,-2.0568,3.6393,-7.6918,-3.8557,3.0421,7.0588,3.3026,-0.4074,2.0997,0.2751,20.4816,7.3230,6.3594,-0.1009,-4.5100
1246.0938,3.1589,-0.6640,-7.0508,-5.9383,-3.3175,5.3254,-2.2790,-5.8526,3.1213,7.4777,2.6153,-1.2031,-0.6291,-0.4682,19.0262,6.9825,4.6415,-1.4295,-6.4782
1250.0000,3.0392,0.4557,-7.5593,-7.6553,-5.7144,7.5478,3.0820,-7.5382,3.3879,8.8901,1.7502,-1.1265,-3.1056,-2.2910,17.2174,6.4953,1.7035,-2.4521,-9.1664
1253.9062,3.4590,0.9996,-8.1893,-9.5763,-8.4976,8.0837,4.7040,-8.7800,3.4925,9.7018,0.7762,-1.1702,-5.0764,-5.1877,15.4015,5.8588,-1.7088,-3.6110,-11.9052
1257.8125,3.7602,0.4834,-9.0384,-11.6587,-10.7846,6.0837,1.3441,-9.6314,3.1659,8.8611,-0.0482,-1.7524,-6.5324,-8.4676,13.8422,5.8027,-4.5865,-5.1415,-14.0332
1261.7188,3.2837,-0.9689,-9.9909,-13.6183,-12.0817,2.6205,-5.1631,-10.2303,2.2883,6.4602,-0.5529,-2.4790,-7.6575,-11.1049,12.5879,7.0091,-6.1781,-6.9350,-15.2645
1265.6250,1.7512,-2.8174,-10.7515,-14.9744,-12.4836,-0.1796,-11.3042,-10.6359,0.9648,3.5763,-0.8409,-2.6374,-8.6566,-12.3260,11.5226,9.2502,-6.3336,-8.6153,-15.7709
1269.5312,-0.4599,-4.4471,-10.9918,-15.2889,-12.4421,-0.7114,-14.2209,-10.7435,-0.4427,1.5445,-1.2045,-1.9226,-9.5483,-12.0136,10.5679,11.2502,-5.4569,-9.7408,-15.9355
1273.4375,-2.3917,-5.4383,-10.5415,-14.4591,-12.3272,1.0269,-13.3593,-10.3746,-1.4108,1.1722,-1.8453,-0.7372,-10.0725,-10.6644,9.8585,11.4813,-4.1411,-10.0029,-15.9895
1277.3438,-2.9922,-5.6566,-9.5109,-12.8453,-12.1400,3.6001,-10.4341,-9.4870,-1.4983,2.3646,-2.6468,0.1895,-9.8186,-8.9785,9.7163,9.3206,-2.7781,-9.3315,-15.8241
1281.2500,-1.7705,-5.1923,-8.2544,-11.0980,-11.5813,5.3256,-7.9401,-8.3164,-0.6197,4.3141,-3.2026,0.5116,-8.5132,-7.4109,10.4214,5.6717,-1.4158,-7.8881,-15.1154
1285.1562,0.8173,-4.2439,-7.1749,-9.7576,-10.3715,5.5090,-7.3821,-7.2846,0.8595,6.0511,-3.0800,0.6708,-6.2602,-5.9937,11.9594,2.5478,0.0850,-5.9676,-13.6354
1289.0625,3.5718,-3.0283,-6.4795,-8.8860,-8.5268,4.7895,-8.4386,-6.6942,2.3272,6.9841,-2.0973,1.6211,-3.5247,-4.5009,13.9652,1.8898,1.7792,-3.8546,-11.4756
1292.9688,5.2689,-1.7388,-6.0474,-8.0107,-6.3593,4.4200,-9.4870,-6.4462,3.3361,7.1306,-0.3957,4.0758,-0.8388,-2.7707,15.9279,4.4392,3.5020,-1.6996,-8.9977
1296.8750,5.4283,-0.5375,-5.5148,-6.4698,-4.2293,5.1463,-8.9499,-6.0528,3.9273,6.9666,1.7249,7.8814,1.5508,-0.9164,17.5020,9.3908,4.9690,0.5135,-6.5708
1300.7812,4.5813,0.4427,-4.5388,-3.9593,-2.2948,6.6114,-6.4398,-5.0108,4.5907,7.0446,4.0269,12.0192,3.7963,0.7180,18.6753,14.9534,5.9953,2.8659,-4.3456
1304.6875,3.8285,1.0973,-3.0718,-0.9038,-0.4861,7.7185,-2.9522,-3.2896,5.8412,7.6254,6.3980,15.2291,6.1916,1.7870,19.6627,19.3293,6.6185,5.3127,-2.2799
1308.5938,3.9899,1.3595,-1.4536,1.6475,1.2864,7.5812,-0.0999,-1.5335,7.7049,8.5207,8.7069,16.7619,8.7263,2.1682,20.6237,21.4541,7.0080,7.5373,-0.3951
1312.5000,4.9678,1.2200,-0.2461,2.5897,2.9081,6.2361,0.9749,-0.7419,9.5307,9.2030,10.6129,16.6905,10.8311,2.0239,21.4446,21.1523,7.2498,8.9986,0.9868
1316.4062,5.7951,0.7460,0.0863,1.4546,4.0605,4.5380,0.2431,-1.5871,10.3314,9.0966,11.5563,15.5964,11.5885,1.6841,21.7650,18.8478,7.2127,9.2012,1.2902
1320.3125,5.3373,0.0729,-0.5596,-1.2314,4.4783,3.3735,-1.3822,-3.8472,9.4541,7.8792,11.0075,13.9585,10.3320,1.4571,21.2110,15.2044,6.6383,8.0407,0.0570
1324.2188,3.1348,-0.6489,-1.8875,-4.1792,4.2457,2.8972,-2.8054,-6.4058,7.0979,5.6399,8.8163,11.7835,7.2175,1.4973,19.6316,10.9557,5.3939,5.9721,-2.6098
1328.1250,-0.2265,-1.3300,-3.3902,-6.0226,3.8452,2.4598,-3.5034,-7.8777,4.2730,2.8299,5.3929,8.7827,3.3140,1.7908,17.1533,6.8891,3.6722,3.8334,-5.8891
1332.0312,-3.4655,-1.9790,-4.6124,-6.0221,3.8669,1.2867,-3.7600,-7.4510,2.2007,0.0576,1.5644,4.9124,0.0825,2.2323,14.0544,3.7922,1.9520,2.3983,-8.5487
1335.9375,-5.3930,-2.6393,-5.2990,-4.3492,4.5774,-0.6791,-4.2711,-5.3555,1.5787,-2.1417,-1.8001,0.7808,-1.4372,2.7222,10.6243,2.2601,0.7242,1.9513,-9.5546
1339.8438,-5.5598,-3.2444,-5.3661,-1.8201,5.6946,-2.5183,-5.4586,-2.6317,2.2438,-3.4467,-4.1333,-2.4776,-1.1812,3.2251,7.1671,2.4685,0.1897,2.1945,-8.5908
1343.7500,-4.3431,-3.5051,-4.7836,0.6770,6.5715,-2.9306,-7.0101,-0.3905,3.4557,-3.7604,-5.2645,-3.8209,0.0218,3.7675,4.1270,4.0980,0.1661,2.5627,-6.1559
1347.6562,-2.5017,-2.9666,-3.5288,2.6434,6.6677,-1.2492,-7.9808,0.8822,4.5457,-3.1451,-5.2679,-2.9688,1.0910,4.3858,2.1379,6.4826,0.2766,2.7115,-3.2056
1351.5625,-0.6178,-1.2743,-1.6739,4.0477,5.9524,1.9289,-7.3945,1.4883,5.3998,-1.7698,-4.2636,-0.6127,1.4207,5.0598,1.8270,8.8607,0.2694,2.7999,-0.6181
1355.4688,1.1362,1.4917,0.4852,5.0770,4.9276,5.0220,-4.9350,2.0985,6.4024,0.0900,-2.3745,2.0059,1.1901,5.6781,3.4173,10.5500,0.2137,3.3430,1.1628
1359.3750,2.7927,4.6662,2.4341,5.8560,4.2628,6.4717,-1.2558,3.1540,7.9242,2.0365,0.1373,3.8622,1.0930,6.0769,6.4203,10.9974,0.4244,4.7538,2.1369
1363.2812,4.2109,7.2087,3.6596,6.3936,4.3364,5.7374,2.3091,4.5857,9.8150,3.5952,2.7330,4.7266,1.7547,6.1598,9.7214,9.8289,1.1914,6.9459,2.5215
1367.1875,4.9171,8.2085,3.9659,6.7543,5.0389,3.5497,4.4548,6.0335,11.3499,4.3539,4.6620,5.1747,3.2998,6.0332,12.1030,7.0362,2.5442,9.3239,2.5418
1371.0938,4.3323,7.3781,3.6391,7.2118,5.9627,1.2695,4.5808,7.2980,11.6923,4.1362,5.2658,6.0578,5.3559,6.0457,12.8992,3.2457,4.2388,11.1681,2.3920
1375.0000,2.2108,5.1917,3.2803,8.1467,6.7800,-0.1263,3.0160,8.5653,10.4979,3.0914,4.3328,7.8341,7.4093,6.6452,12.3287,-0.1988,5.9617,12.0988,2.3125
1378.9062,-1.0785,2.5562,3.3802,9.7011,7.4665,-0.6576,0.6945,10.1737,8.1721,1.6237,2.2424,10.2270,9.1701,8.0824,11.2618,-1.6041,7.5622,12.2437,2.6038
1382.8125,-4.6628,0.2456,3.9383,11.4832,8.1899,-1.1299,-1.4457,12.1324,5.5832,0.1939,-0.2222,12.4207,10.6569,10.1377,10.5905,0.2907,9.1142,11.9964,3.4828
1386.7188,-7.5922,-1.4858,4.4400,12.6513,8.9883,-2.3254,-2.9097,13.8673,3.4915,-0.8735,-2.2637,13.6257,11.9948,12.0900,10.6699,5.5263,10.7646,11.6090,4.8810
1390.6250,-9.2701,-2.8316,4.2555,12.4256,9.5614,-4.2661,-3.6724,14.4996,2.1689,-1.4519,-3.3972,13.6112,13.1659,13.0306,11.2337,12.6726,12.5163,11.0042,6.3947
1394.5312,-9.6075,-3.9937,3.1848,10.6991,9.3989,-6.1192,-3.8657,13.5003,1.4902,-1.5263,-3.5225,12.8522,13.9628,12.3832,11.7994,19.3758,14.1486,9.9844,7.4964
1398.4375,-8.8634,-4.7759,1.7233,8.2556,8.1669,-6.7888,-3.4680,11.1956,1.3450,-1.0649,-2.7696,12.2159,14.1733,10.3043,12.1901,23.4529,15.3510,8.6347,7.8812
1402.3438,-7.3723,-4.5962,0.8019,6.3478,6.0255,-5.7065,-2.2996,8.6638,1.9299,0.0161,-1.3128,12.4130,13.7969,7.6605,12.7216,23.9091,15.9513,7.5100,7.6676
1406.2500,-5.3905,-2.9544,1.1509,5.8712,3.5851,-3.2140,-0.3302,7.0346,3.6073,1.7523,0.6785,13.5766,13.0693,5.5385,13.9042,21.3054,16.0299,7.3552,7.2640
1410.1562,-3.1267,0.0180,2.7473,6.7246,1.5061,-0.2771,2.0028,6.7020,6.4359,3.9901,2.9560,15.2276,12.2640,4.5725,15.9278,17.3338,15.8096,8.5306,6.9881
1414.0625,-0.8319,3.4189,4.7751,7.8608,0.0497,2.2047,3.8179,7.0646,9.8281,6.3595,5.1363,16.6252,11.4667,4.5360,18.3877,13.9413,15.4138,10.6226,6.7629
1417.9688,1.2160,6.0435,6.1593,8.0355,-1.0500,3.9492,4.2399,7.0105,12.7298,8.4270,6.8103,17.2617,10.5545,4.4938,20.5093,12.5338,14.7171,12.6285,6.1777
1421.8750,2.8561,7.1656,6.3006,6.7251,-2.2844,5.3122,2.9926,5.7747,14.2845,9.9440,7.7883,17.1758,9.4206,3.4391,21.7068,13.6048,13.4487,13.6510,4.9075
1425.7812,4.1737,7.0427,5.4761,4.5283,-3.8807,6.8272,0.6829,3.5003,14.4881,11.0001,8.2798,16.8931,8.2391,0.9995,22.0286,16.7907,11.4955,13.5839,3.1554
1429.6875,5.4496,6.7298,4.6141,2.7395,-5.5334,8.6758,-1.4850,1.0718,14.2771,11.9502,8.8232,17.0481,7.4954,-2.2592,22.1271,21.1369,9.1628,13.2209,1.7178
1433.5938,6.9196,7.3055,4.6217,2.4078,-6.5829,10.5131,-2.4076,-0.6162,14.9051,13.1539,9.9645,17.9537,7.6950,-5.1275,22.7733,25.3968,7.1500,13.6456,1.5473
1437.5000,8.5261,9.0806,5.7700,3.5941,-6.5050,11.7603,-1.7267,-1.3452,17.0305,14.7133,11.8977,19.4075,8.9595,-6.4410,24.2940,28.3453,6.2009,15.3442,3.0984
1441.4062,9.8829,11.3873,7.5787,5.3869,-5.3163,12.0936,0.0103,-1.6488,20.1967,16.3974,14.3240,20.8521,10.8426,-5.7077,26.3473,29.1412,6.6448,17.7408,5.9519
1445.3125,10.5156,13.0984,9.2419,6.6488,-3.5700,11.7252,1.7476,-2.2384,23.1028,17.7930,16.6184,21.7472,12.5485,-3.2966,28.1683,27.6685,8.1452,19.5480,9.0264
1449.2188,10.2027,13.4597,10.2239,6.8996,-1.9527,11.2526,2.5621,-3.2815,24.4586,18.5480,18.1587,21.8661,13.4059,-0.1349,29.0504,24.6413,9.8475,19.6851,11.2427
1453.1250,9.1454,12.5810,10.5491,6.6424,-0.8126,11.2047,2.1140,-4.1641,23.7748,18.5218,18.5729,21.2978,13.2383,2.8215,28.6941,21.3021,10.8407,18.0538,12.1518
1457.0312,7.8244,11.2209,10.5948,6.8832,0.0084,11.6397,0.6759,-3.9601,21.5219,17.7599,17.7673,20.1923,12.3556,4.9848,27.2282,18.7951,10.6417,15.5592,12.0680
1460.9375,6.6563,10.0798,10.6154,8.2372,0.9257,12.0942,-1.1542,-2.2354,18.6084,16.3715,15.8162,18.5105,11.2088,6.2104,25.0039,17.5765,9.3999,13.3661,11.6454
1464.8438,5.7259,9.2070,10.4355,10.3358,2.1785,11.9056,-2.7776,0.4794,15.6663,14.4577,12.8954,16.0554,10.0257,6.6261,22.4119,17.2509,7.7265,11.9918,11.2720
1468.7500,4.8012,8.0150,9.5862,12.0088,3.5720,10.6566,-3.7694,2.9545,12.7322,12.1594,9.3487,12.8152,8.7398,6.4318,19.8545,16.9420,6.2941,10.9686,10.7828
1472.6562,3.5994,5.8725,7.7573,12.1020,4.5901,8.4234,-3.9318,4.0766,9.5297,9.7457,5.7805,9.3401,7.2443,5.8276,17.7807,15.9115,5.4773,9.3404,9.7052
1476.5625,2.0688,2.7594,5.1631,10.3028,4.7547,5.6825,-3.3538,3.5839,6.0257,7.6019,2.9714,6.7589,5.6974,5.0506,16.6001,13.9803,5.2402,6.5768,7.7961
1480.4688,0.4586,-0.5815,2.4829,7.3549,3.9204,2.9940,-2.4938,2.1594,2.7206,6.0679,1.5536,6.2694,4.5523,4.3891,16.4400,11.5048,5.2868,3.1484,5.3895
1484.3750,-0.8543,-3.1341,0.4092,4.5324,2.2883,0.7212,-2.1244,0.8420,0.3963,5.2441,1.6374,8.3627,4.2447,4.0871,16.9532,9.0534,5.3317,0.2929,3.2479
1488.2812,-1.6045,-4.3346,-0.8231,2.8078,0.1919,-1.0235,-2.9836,0.2518,-0.4486,4.9559,2.7104,12.3382,4.8052,4.1934,17.4423,7.1442,5.3037,-0.8392,2.0432
1492.1875,-1.7351,-4.4302,-1.5242,2.3447,-2.1024,-2.2227,-5.2288,0.2404,0.0359,4.9551,3.9741,16.5495,5.7732,4.5009,17.3395,6.2575,5.3756,0.0299,1.9092
1496.0938,-1.3045,-4.1805,-2.1725,2.6376,-4.3879,-2.7798,-8.0854,0.1973,1.2129,5.2140,4.9262,19.3265,6.5466,4.6652,16.7241,6.9703,5.8309,2.1977,2.4423
1500.0000,-0.3479,-4.1692,-2.8969,3.0886,-6.3576,-2.5134,-10.0961,-0.3069,2.5002,6.0383,5.7367,19.9904,6.9040,4.4361,16.4183,9.8644,6.8653,4.5916,3.1309
1503.9062,1.1261,-4.3175,-3.2754,3.4956,-7.5293,-1.3457,-9.9855,-1.1149,3.7955,7.8345,7.0714,19.2363,7.2403,3.8272,17.4598,15.0608,8.4344,6.5488,3.8200
1507.8125,2.9827,-4.0143,-2.6586,4.0618,-7.4356,0.4825,-7.6136,-1.6505,5.3970,10.6563,9.4358,18.5675,8.2561,3.0870,20.2510,21.6866,10.2242,8.1168,4.7873
1511.7188,4.8232,-2.7443,-0.7836,4.9876,-5.9957,2.3881,-4.2770,-1.4889,7.4954,13.8927,12.5390,19.1489,10.2982,2.5000,24.0212,27.8380,11.7632,9.6704,6.3561
1515.6250,6.0696,-0.6686,1.8196,6.0651,-3.7536,3.6977,-1.9864,-0.8088,9.7189,16.4136,15.2284,20.9020,12.8814,2.1830,27.0866,31.3390,12.6307,11.2447,8.3921
1519.5312,6.2819,1.3544,3.9922,6.6720,-1.7083,4.0375,-2.1216,-0.3212,11.1920,17.1629,16.1333,22.5147,14.8315,2.0375,27.8160,30.9410,12.6629,12.2303,10.1576
1523.4375,5.4793,2.3468,4.6044,6.1924,-0.7725,3.5834,-4.4224,-0.7237,11.1196,15.8119,14.5897,22.3765,15.0113,1.8761,25.6475,27.1196,12.0368,11.7486,10.7068
1527.3438,4.1641,1.9237,3.2467,4.5065,-1.2230,2.9651,-7.1291,-2.1381,9.4232,12.9883,11.1441,19.7581,13.1131,1.5903,21.4158,21.7831,11.1639,9.4197,9.5427
1531.2500,2.9690,0.5651,0.4662,2.1299,-2.5610,2.8546,-8.2544,-3.9979,6.8754,9.8756,7.2221,15.3699,9.9155,1.2107,16.7482,17.0015,10.4333,5.8617,7.0122
1535.1562,2.1770,-0.7567,-2.5930,-0.1157,-3.9019,3.5104,-7.0695,-5.4698,4.5836,7.4511,4.1822,10.9018,6.7963,0.8283,12.9900,13.6795,9.9589,2.4597,4.1127
1539.0625,1.5247,-1.2725,-4.8524,-1.6217,-4.5980,4.6036,-4.6550,-6.0462,3.2341,5.9181,2.4667,7.9070,4.8650,0.4918,10.4718,11.2233,9.5141,0.5318,1.8567
1542.9688,0.4999,-0.8667,-5.7913,-2.2795,-4.6056,5.4636,-3.0475,-5.8217,2.7176,4.7481,1.4931,6.8638,4.3579,0.2082,8.6335,8.4910,8.7239,0.5151,0.6943
1546.8750,-1.0699,0.0337,-5.4907,-2.3350,-4.3208,5.5801,-3.6114,-5.2571,2.4339,3.2758,0.3391,7.0694,4.7112,0.0518,6.8174,5.2298,7.3956,1.7802,0.4225
1550.7812,-2.6410,0.9564,-4.3313,-2.0003,-4.0591,4.9915,-5.9153,-4.6812,1.9792,1.3517,-1.3653,7.3524,5.1747,0.2373,5.0073,2.7108,5.7416,3.1699,0.5865
1554.6875,-3.1795,1.7716,-2.6832,-1.2118,-3.6565,4.2623,-8.0308,-3.9909,1.5771,-0.4800,-3.0906,6.9794,5.4165,1.0120,3.8681,2.8550,4.2912,3.8009,0.9668
1558.5938,-1.9121,2.6255,-0.8382,0.2352,-2.5704,4.0459,-8.0501,-2.8118,1.8422,-1.4195,-3.8979,6.0475,5.6318,2.3880,4.0658,6.4262,3.5212,3.5043,1.7010
1562.5000,0.9472,3.5264,0.8609,2.3169,-0.4140,4.5521,-5.6310,-0.9547,3.0760,-1.0905,-3.3419,5.1459,6.1315,3.9410,5.4941,11.7896,3.4656,2.6471,2.9554
1566.4062,4.1077,4.0462,1.9545,4.5649,2.5419,5.3312,-2.3255,1.2667,4.7515,0.1176,-1.9941,4.6864,6.8503,4.9255,7.1444,15.4748,3.6288,1.6155,4.4995
1570.3125,5.9183,3.5124,2.0496,6.2734,5.3781,5.5658,-0.4130,3.1743,5.7276,1.3491,-1.0832,4.5390,7.2721,4.7367,7.8169,14.4174,3.3206,0.4842,5.6532
1574.2188,5.4338,1.6018,1.1528,7.0126,7.1084,4.6785,-1.1619,4.2261,5.1078,1.9823,-1.4947,4.2756,6.8715,3.4262,7.1321,8.3292,2.2038,-0.8436,5.7485
1578.1250,3.0556,-1.1771,-0.1720,7.0183,7.3938,2.8041,-3.9084,4.4495,3.0517,2.1385,-2.9452,3.7388,5.6775,1.8452,5.9799,0.3359,0.6407,-2.2368,4.7518
1582.0312,0.2461,-3.6149,-1.0673,7.0755,6.7967,0.7486,-6.6728,4.4189,0.8052,2.5452,-4.0625,3.3414,4.4105,1.1980,5.9482,-4.8130,-0.4722,-3.1605,3.4765
1585.9375,-1.4987,-4.5683,-0.9650,7.9199,6.3254,-0.5648,-7.7747,4.7708,-0.1822,3.8341,-3.4005,3.7460,3.9858,2.2319,8.0902,-3.8400,-0.3190,-3.0015,3.1029
1589.8438,-1.6661,-3.8224,-0.0703,9.6047,6.6069,-0.7663,-7.1003,5.6578,0.5902,5.8438,-0.6422,5.1618,4.7410,4.6269,11.9660,2.8385,1.1912,-1.6729,4.2981
1593.7500,-0.9813,-2.3538,0.6738,11.3561,7.3554,-0.3151,-5.9907,6.6093,2.1808,7.5378,2.9644,6.9048,6.0321,7.0795,15.7416,11.3821,3.2438,0.0661,6.6164
1597.6562,-0.7271,-1.7182,0.1937,12.0796,7.5951,-0.1492,-5.8966,6.9293,2.8284,7.6730,5.3406,7.7077,6.5979,8.1026,17.3423,17.0992,4.5856,0.9708,8.7017
1601.5625,-1.6764,-2.9649,-1.9399,11.1595,6.4894,-0.9517,-6.9947,6.3063,1.2675,5.7458,4.9914,6.6423,5.4761,7.0209,15.8483,17.4559,4.3502,0.1838,9.2044
1605.4688,-3.4704,-5.8763,-5.1412,8.9402,4.1193,-2.5844,-7.9861,5.1200,-2.2675,2.4829,2.0693,3.9509,2.7840,4.4499,12.1250,13.3973,2.6651,-2.0359,7.7491
1609.3750,-4.9143,-9.1020,-8.1376,6.5107,1.5636,-4.1325,-7.2732,4.1740,-6.1356,-0.5320,-1.6951,1.0696,-0.2604,1.8930,8.2454,8.1903,0.5939,-4.3527,5.2139
1613.2812,-4.9332,-11.0826,-9.7742,4.9520,0.1770,-4.5455,-4.4959,4.0632,-8.4223,-1.8533,-4.1406,-0.2702,-2.1280,0.7280,6.1510,4.8676,-0.5682,-5.2174,3.1017
1617.1875,-3.4160,-11.0644,-9.7136,4.6225,0.6100,-3.3997,-1.0574,4.6948,-8.2434,-1.0682,-4.0573,0.7604,-1.9993,1.3088,6.5197,4.2915,-0.1594,-3.9469,2.4806
1621.0938,-1.2818,-9.4654,-8.5388,5.0132,2.3318,-1.2011,0.8991,5.3565,-6.2345,1.0508,-1.8260,3.4940,-0.2586,2.8247,8.5892,5.1830,1.4254,-1.2051,3.3003
1625.0000,0.2712,-7.3838,-7.2291,5.2457,4.0350,1.0049,0.2619,5.2793,-3.9030,3.2126,1.0660,6.2406,1.8854,3.9890,10.9383,5.7996,3.0410,1.4875,4.5794
1628.9062,0.7171,-5.7045,-6.4438,4.7881,4.6096,2.4145,-2.0275,4.2379,-2.4196,4.5520,3.1755,7.4846,3.3263,4.0152,12.5448,5.6651,3.5984,2.8455,5.2744
1632.8125,0.5929,-4.5270,-6.1490,3.8255,3.9350,3.0242,-3.6371,2.7109,-1.8299,5.1367,4.0285,6.9060,3.8103,3.1423,13.3311,5.8721,2.8026,2.6788,5.1152
1636.7188,1.0175,-3.3183,-5.8135,3.0349,2.8999,3.5259,-2.7281,1.4978,-1.2731,5.6951,4.1935,5.4846,3.9662,2.3501,13.8995,7.8134,1.3244,1.8914,4.7599
1640.6250,2.7264,-1.5808,-4.9380,3.0053,2.6755,4.6211,0.4692,1.1311,0.0584,6.8409,4.5801,4.6604,4.6577,2.5385,14.8028,11.5777,0.3234,1.6685,5.1851
1644.5312,5.3834,0.5705,-3.4627,3.7975,3.8386,6.3068,3.7282,1.5669,2.0726,8.4431,5.6040,5.2321,6.2149,3.8388,15.9918,15.5022,0.6795,2.5215,6.8353
1648.4375,7.7080,2.3953,-1.7651,4.9715,6.0115,7.7245,4.5617,2.3702,3.7589,9.6338,6.8681,6.8191,8.1385,5.5738,16.8429,17.3257,2.4442,3.9235,9.2078
1652.3438,8.3175,3.0515,-0.3385,5.9845,8.2300,7.7301,2.2471,3.1784,3.9838,9.4240,7.5211,8.2133,9.4488,6.8377,16.6562,15.9617,4.8280,4.7544,11.1634
1656.2500,6.6474,2.1853,0.5100,6.5687,9.6633,5.7669,-1.5220,4.0016,2.4051,7.4279,6.9133,8.2520,9.3417,7.1736,15.1678,12.3467,6.6632,4.1376,11.6701
1660.1562,3.2847,0.1114,0.6921,6.7700,10.0819,2.3658,-3.9314,5.0980,-0.2619,4.1500,5.0090,6.5127,7.6373,6.7957,12.6923,8.6102,7.0114,1.9927,10.3919
1664.0625,-0.4786,-2.4991,0.1606,6.6840,9.7582,-1.1342,-3.2725,6.5678,-2.8160,0.6630,2.3046,3.3882,4.7567,6.2248,9.8634,6.2668,5.5758,-1.0539,7.7357
1667.9688,-3.4788,-5.0864,-1.1963,6.2214,9.0105,-3.4597,-0.3007,8.0839,-4.4587,-2.0297,-0.5595,-0.3302,1.3853,5.7213,7.2586,5.0086,2.7721,-4.2021,4.4504
1671.8750,-5.2742,-7.4019,-3.3926,5.1930,7.8884,-4.2259,2.3884,9.0623,-5.2412,-3.4623,-3.1079,-3.8858,-1.8192,5.0569,5.2020,3.1851,-0.4818,-6.9283,1.1985
1675.7812,-6.1281,-9.3255,-6.0376,3.6610,6.3055,-4.0994,2.4641,9.1656,-5.7345,-3.7292,-5.0530,-6.6602,-4.2751,3.8397,3.8135,-0.3982,-3.1085,-9.0052,-1.5667
1679.6875,-6.5212,-10.5766,-8.2381,2.1884,4.4515,-4.1937,-0.2670,8.6945,-6.2812,-3.1745,-6.1523,-8.0486,-5.4144,2.0835,3.1345,-4.9237,-4.2303,-10.2077,-3.4605
1683.5938,-6.6645,-10.6977,-8.9624,1.6412,2.9967,-5.1722,-3.7485,8.4635,-6.5431,-2.0891,-6.1768,-7.4865,-4.7858,0.4591,3.1548,-7.7095,-3.4816,-10.1363,-4.0837
1687.5000,-6.4014,-9.4084,-7.7142,2.5785,2.7639,-6.7347,-5.4016,9.1795,-5.7707,-0.6586,-5.0988,-4.8331,-2.4090,-0.0910,3.7344,-6.1446,-1.1919,-8.4503,-3.2320
1691.4062,-5.4986,-7.0141,-5.0135,4.6875,4.0448,-7.8532,-4.2507,10.7897,-3.5504,0.8935,-3.3066,-0.8477,0.8948,0.8704,4.5805,0.0352,1.6697,-5.3502,-1.2638
1695.3125,-3.9886,-4.4233,-2.2209,6.7875,6.1422,-7.5369,-1.6755,12.3558,-0.3335,2.2293,-1.5377,2.7950,3.6088,2.7422,5.3943,7.9920,3.8574,-1.8129,0.7841
1699.2188,-2.2149,-2.6186,-0.7071,7.5242,7.6279,-5.5220,-0.1587,12.6295,2.7747,3.0646,-0.4466,4.2543,4.2130,4.1065,6.1067,13.3255,4.4187,0.7861,1.6241
1703.1250,-0.5416,-1.9277,-0.9170,6.3076,7.2487,-2.3808,-1.0752,10.9464,4.8369,3.4719,-0.0957,2.6920,2.1058,3.6328,6.9661,12.9110,3.1861,1.5106,0.5188
1707.0312,0.9830,-1.6944,-2.0416,3.7787,4.8431,0.9715,-3.4018,7.7658,5.8176,3.9995,0.1711,-0.9907,-1.9051,1.0261,8.3225,6.9959,0.8679,0.5407,-2.1221
1710.9375,2.6583,-0.7068,-2.6083,1.3916,1.5393,3.9254,-4.4920,4.4211,6.5628,5.3735,1.2538,-4.5436,-5.9948,-2.7087,10.2184,-0.9764,-1.3749,-0.8996,-4.8814
1714.8438,4.7789,1.8533,-1.6050,0.3688,-0.9800,6.4514,-2.3550,2.2370,7.9879,7.8987,3.5022,-5.7868,-8.4163,-5.9187,12.1259,-6.6714,-2.6336,-1.4054,-6.2181
1718.7500,7.1805,5.6424,0.6995,0.8052,-1.6300,8.8256,2.4231,1.6574,10.1370,10.9949,6.2259,-4.1125,-8.5577,-7.4009,13.1151,-7.6075,-2.7777,-0.4272,-5.4960
1722.6562,9.1086,9.2039,2.8926,1.6285,-0.6283,11.1095,6.7804,2.0264,11.9505,13.3069,7.9823,-0.9318,-7.1847,-7.1264,12.4203,-4.4113,-2.4266,1.3293,-3.3810
1726.5625,9.6085,10.8891,3.4624,1.4857,0.7863,12.8875,7.3847,2.1671,12.0325,13.4485,7.5498,1.3627,-5.6815,-6.0590,10.0294,0.1481,-2.3740,2.4989,-1.2765
1730.4688,8.2198,10.0321,1.9955,-0.1057,1.3859,13.5336,3.3131,1.3045,9.8814,10.9590,4.9233,1.2341,-4.8616,-5.2440,6.8514,3.4193,-2.8794,2.2259,-0.2063
1734.3750,5.4749,7.5305,-0.3776,-2.2391,0.9125,12.8000,-2.9106,-0.3691,6.6066,6.8166,1.5752,-0.7147,-4.2723,-4.9120,4.3003,4.6507,-3.3619,1.0023,-0.0078
1738.2812,2.7914,5.3788,-1.6560,-3.1810,0.1995,11.2151,-6.8568,-1.8891,4.4797,3.0897,-0.2942,-2.0184,-2.5483,-4.3175,3.5515,5.0703,-2.7523,0.4854,0.5231
1742.1875,1.7564,5.4439,-0.3012,-1.6362,0.3767,9.8956,-5.2958,-2.2906,5.5402,1.8631,0.9375,-0.0587,1.4403,-2.4357,4.9586,6.4502,-0.2710,2.3695,2.6322
1746.0938,3.2312,8.3048,3.7189,2.2179,1.8239,9.8430,1.3754,-1.3466,10.2073,4.0704,5.3198,6.0014,7.5288,1.0536,7.9795,9.4685,3.9288,7.1188,6.5276
1750.0000,6.8439,12.9184,8.9084,6.7200,3.7453,11.2247,9.1931,0.2789,16.8851,8.9505,11.3047,14.4626,14.1234,5.3062,11.5830,13.1796,8.7353,13.4915,11.0673
1753.9062,11.1828,17.2892,13.2301,9.7832,4.7370,13.1963,13.1974,1.5463,22.8462,14.4572,16.6739,22.0646,19.1268,8.7750,14.7948,15.8910,12.7053,19.2142,14.4715
1757.8125,14.5516,19.6463,15.3701,10.2818,3.9084,14.4322,10.7360,1.8037,25.7897,18.3585,19.7607,25.9903,21.2586,10.2641,17.0262,16.5931,14.9107,22.3326,15.5250
1761.7188,15.8076,19.3522,15.4037,8.7835,1.6622,14.0063,3.2165,1.2268,25.0370,19.3514,20.1700,25.4919,20.8104,9.7714,18.0766,15.7315,15.4166,22.3056,14.3712
1765.6250,14.7969,17.0303,14.4747,7.1218,-0.5019,11.9974,-4.8545,0.6422,21.6452,17.5585,18.6292,22.0697,19.3189,8.4735,17.9716,14.7447,15.0875,20.1393,12.3320
1769.5312,12.2047,13.9613,13.8287,7.1344,-1.0266,9.3942,-8.8179,0.9171,17.5044,14.1957,16.2341,18.2268,18.4410,7.8664,16.8573,14.8304,14.9012,17.5682,10.9409
1773.4375,9.0133,11.2429,13.9544,9.4590,0.6154,7.3847,-6.7660,2.3814,14.1309,10.7140,13.7150,15.8051,18.8793,8.7154,15.0132,15.9872,15.2843,15.9294,10.9428
1777.3438,5.9628,9.2542,14.4091,13.1845,3.6018,6.5504,-0.5256,4.6669,11.9532,7.9917,11.2083,15.0720,20.0922,10.5883,12.8606,17.0739,15.9171,15.4886,11.9656
1781.2500,3.3241,7.6668,14.3293,16.5115,6.4128,6.5305,5.7674,6.9966,10.4217,6.0417,8.5502,15.0285,20.8853,12.2770,10.8287,16.7649,16.0754,15.5527,12.9959
1785.1562,1.0336,5.8600,13.1327,17.8798,7.9051,6.3575,8.3927,8.6424,8.6774,4.3165,5.7171,14.4646,20.3273,12.7265,9.1186,14.5882,15.1873,15.1214,13.1704
1789.0625,-1.0056,3.4033,10.8621,16.7747,7.9691,5.1854,6.2445,9.2168,6.2213,2.3117,3.0076,12.8449,18.2751,11.7339,7.5791,11.2389,13.1750,13.5341,12.2355
1792.9688,-2.7163,0.3265,7.9907,13.7508,7.3122,2.8848,1.2042,8.6686,3.1735,0.0253,0.8583,10.4260,15.1973,9.9120,5.8749,8.0042,10.3805,10.7176,10.4016
1796.8750,-3.8668,-2.9058,4.9631,9.8156,6.6322,0.1165,-3.3283,7.1061,0.0920,-2.0133,-0.4825,7.7352,11.5847,8.0234,3.8835,5.8332,7.2221,7.0292,7.8665
1800.7812,-4.2589,-5.6308,1.9052,5.7269,5.9146,-2.1073,-4.6343,4.6632,-2.3958,-3.1152,-1.1072,5.0274,7.5282,6.2826,2.0023,4.7937,3.9136,2.9690,4.5341
1804.6875,-3.9021,-7.2897,-1.2773,1.7046,4.4376,-3.0313,-2.2059,1.5123,-3.8804,-2.9064,-1.3143,2.2165,2.8258,4.2119,1.0473,4.2593,0.4699,-0.9843,0.2080
1808.5938,-3.0313,-7.6705,-4.5660,-2.3441,1.4562,-2.5297,2.2012,-2.0520,-4.2764,-1.5721,-1.3426,-0.7582,-2.5261,1.1571,1.7194,3.5593,-3.0603,-4.3851,-4.9423
1812.5000,-1.9571,-6.9991,-7.6146,-6.3955,-3.0248,-1.0616,5.8206,-5.6050,-3.8032,0.2779,-1.2348,-3.5968,-7.9450,-2.9821,3.9893,2.5088,-6.3914,-6.8256,-10.1265
1816.4062,-0.8761,-5.8325,-9.8691,-10.0805,-8.0412,0.6761,6.5436,-8.7176,-2.9091,1.9971,-0.9396,-5.7320,-12.3687,-7.4275,6.8857,1.4214,-9.0445,-8.0451,-14.2009
1820.3125,0.2056,-4.7762,-10.9270,-12.8298,-12.1978,2.1283,4.0138,-11.1219,-2.1417,3.2482,-0.5222,-6.7875,-14.8085,-10.8891,8.9154,0.6909,-10.6153,-8.0833,-16.2987
1824.2188,1.3769,-4.1570,-10.8175,-14.2297,-14.5197,3.0808,-0.3717,-12.7706,-1.9435,4.0693,-0.2476,-6.9385,-14.9153,-12.3613,8.8857,0.3707,-11.0368,-7.3021,-16.3234
1828.1250,2.6342,-3.8432,-9.9556,-14.2701,-14.9736,3.6444,-4.4019,-13.7337,-2.4285,4.6438,-0.4213,-6.7753,-13.1160,-11.7462,6.5850,0.1237,-10.6035,-6.1859,-14.8981
1832.0312,3.7618,-3.3596,-8.8053,-13.2906,-14.3014,4.1213,-6.2921,-14.0351,-3.2879,4.9926,-1.1147,-6.7355,-10.2418,-9.8493,2.8706,-0.4422,-9.7304,-5.0395,-12.8167
1835.9375,4.3971,-2.2545,-7.5353,-11.6965,-13.3661,4.8520,-5.5198,-13.5886,-3.9446,4.8632,-2.0259,-6.6227,-6.9792,-7.7820,-0.8661,-1.3678,-8.6503,-3.8253,-10.4605
1839.8438,4.2557,-0.4873,-5.9489,-9.6944,-12.5607,6.0768,-2.8677,-12.3069,-3.9127,3.9314,-2.6325,-5.7068,-3.5938,-6.2467,-3.4589,-2.2185,-7.3051,-2.2927,-7.6682
1843.7500,3.3641,1.4558,-3.7356,-7.2495,-11.7142,7.8016,0.2236,-10.2832,-3.1303,2.1642,-2.5403,-3.4052,-0.0994,-5.2270,-4.4500,-2.3366,-5.5154,-0.3022,-4.1433
1847.6562,2.1197,2.8370,-0.8240,-4.2649,-10.4729,9.7010,2.5236,-7.8607,-2.0079,0.0347,-1.7574,0.0186,3.3598,-4.2507,-4.0603,-1.2636,-3.2653,1.9386,-0.0079
1851.5625,1.1155,3.1767,2.4622,-0.8011,-8.7488,11.1557,3.5744,-5.4856,-1.1222,-1.6359,-0.6638,3.3999,6.3320,-2.9326,-2.8068,0.9792,-0.8337,3.9482,4.0248
1855.4688,0.8303,2.6400,5.5662,2.8525,-6.8202,11.4990,3.6886,-3.4323,-0.7609,-2.1523,0.3101,5.4277,8.3026,-1.3182,-1.1265,3.9141,1.3633,5.3173,7.0601
1859.3750,1.3875,2.0080,8.0362,6.2986,-5.0285,10.4136,3.5132,-1.6241,-0.6596,-1.4137,1.0446,5.6693,9.1697,0.2361,0.7428,6.8545,3.0979,6.0402,8.6960
1863.2812,2.5336,2.2173,9.7597,9.2242,-3.3962,8.2504,3.5452,0.2786,-0.1519,-0.0187,1.8349,5.0142,9.5034,1.4929,2.6537,9.1653,4.5336,6.5344,9.3795
1867.1875,3.8244,3.7573,10.9115,11.5009,-1.5648,6.0048,3.9292,2.5576,1.3483,1.0985,3.1355,5.0786,10.2723,2.6480,4.4176,10.3926,6.0962,7.2981,10.0958
1871.0938,4.8585,6.3133,11.6743,13.1275,0.8465,4.8536,4.5795,5.1172,3.8617,1.2584,5.1148,6.9314,12.1533,4.2116,5.7984,10.2767,8.0756,8.4589,11.5815
1875.0000,5.3825,8.8748,11.9741,14.0943,3.7604,5.4569,5.3922,7.4251,6.6964,0.4259,7.3474,10.0959,14.9175,6.5185,6.5930,8.7611,10.2615,9.5758,13.6677
1878.9062,5.2292,10.2251,11.4551,14.3093,6.4841,7.4491,6.2775,8.7886,8.7468,-0.8782,8.8877,12.6477,17.3930,9.2739,6.6627,6.0665,11.9276,9.8685,15.2915
1882.8125,4.2154,9.5126,9.7249,13.6589,8.0708,9.4961,6.9822,8.7859,9.0517,-2.0532,8.7191,12.4251,18.1052,11.5471,5.8704,2.7705,12.2268,8.7220,15.2055
1886.7188,2.1745,6.6063,6.6902,12.1468,7.9631,9.9713,6.9480,7.5475,7.2830,-2.8826,6.3276,8.5236,16.1945,12.2901,4.0488,-0.2376,10.7428,6.1025,12.8715
1890.6250,-0.8318,2.1186,2.7375,9.9782,6.4163,7.8928,5.4930,5.6816,3.9090,-3.6061,2.0677,1.9988,11.9835,11.0297,1.1522,-2.0065,7.7994,2.5989,8.8742
1894.5312,-4.2849,-2.8343,-1.3691,7.4965,4.3443,3.5574,2.3251,3.8904,-0.0079,-4.5467,-2.8930,-4.7280,6.8005,8.2198,-2.4400,-1.9100,4.2933,-0.9125,4.5547
1898.4375,-7.2202,-6.9837,-4.8078,5.0022,2.6724,-1.5406,-1.9780,2.5407,-3.2366,-5.6312,-7.0320,-9.3310,2.1852,4.9671,-5.7469,0.0185,1.1564,-3.7169,1.1466
1902.3438,-8.5995,-9.2644,-7.0367,2.5846,1.6717,-5.4819,-6.0008,1.4767,-4.8246,-6.2524,-9.1095,-10.8788,-0.9741,2.3072,-7.4416,3.0028,-1.1718,-5.5209,-0.9418
1906.2500,-7.8792,-9.1177,-7.9633,0.1010,0.7789,-6.9278,-8.1925,0.1862,-4.4089,-5.6494,-8.6795,-10.1137,-2.7980,0.5448,-6.5479,5.7837,-2.8920,-6.4057,-2.2032
1910.1562,-5.3938,-6.6852,-7.8840,-2.6672,-0.9526,-5.7574,-7.8464,-1.8084,-2.3040,-3.5378,-6.2356,-8.6359,-4.0738,-0.8616,-3.1640,7.1403,-4.5260,-6.5954,-3.4660
1914.0625,-2.2319,-2.7961,-7.2672,-5.7745,-4.0952,-2.9805,-5.6371,-4.5966,0.6585,-0.4698,-2.9286,-7.6849,-5.5121,-2.7876,1.3626,6.4534,-6.3839,-6.2602,-5.1613
1917.9688,0.3811,1.3185,-6.5184,-8.9504,-8.3273,-0.0364,-3.2271,-7.7756,3.4982,2.4182,0.0049,-7.4074,-7.1538,-5.6761,5.0825,4.0454,-8.2217,-5.4806,-6.9736
1921.8750,1.8052,4.5176,-5.8397,-11.6320,-12.5181,2.0405,-2.1350,-10.6345,5.5250,4.1343,1.8147,-7.0349,-8.3334,-9.0744,6.5739,1.1017,-9.3417,-4.3259,-8.0956
1925.7812,2.3061,6.2237,-5.2231,-13.1902,-15.3489,3.0659,-2.6711,-12.4924,6.6322,4.4919,2.5166,-5.6917,-8.1877,-11.8151,5.7843,-0.8441,-9.0557,-2.9171,-7.8448
1929.6875,2.7342,6.6022,-4.5442,-13.2309,-16.0424,3.5498,-3.7699,-12.9944,7.2519,4.1796,2.7306,-3.1466,-6.3233,-12.7263,3.9461,-0.6540,-7.1715,-1.4027,-6.1585
1933.5938,3.7899,6.3345,-3.6863,-11.8006,-14.7317,4.1391,-3.8975,-12.2220,7.9643,4.1662,3.1814,0.0113,-3.1709,-11.3825,2.5914,1.8116,-4.1575,0.1033,-3.6309
1937.5000,5.4282,6.1335,-2.6216,-9.3763,-12.2779,5.0996,-2.3547,-10.5901,8.9943,4.8967,4.1653,2.7866,0.2039,-8.3918,2.3874,5.5864,-0.8831,1.5258,-1.1161
1941.4062,6.8605,6.3303,-1.4046,-6.6288,-9.7121,6.1859,0.0691,-8.5998,9.9528,5.9183,5.3197,4.3705,2.6908,-5.0390,2.6770,9.0986,1.8648,2.7522,0.7749
1945.3125,7.1575,6.7959,-0.0904,-4.0810,-7.6848,6.9255,1.6777,-6.5716,10.0463,6.2356,5.8427,4.4795,3.7356,-2.5390,2.0746,11.0265,3.7510,3.5650,1.9363
1949.2188,5.9850,7.1977,1.3607,-1.8451,-6.2341,7.0386,1.2940,-4.4829,8.6417,5.1138,5.0129,3.3048,3.5785,-1.3950,-0.3610,10.9971,4.9213,3.6979,2.6712
1953.1250,3.8892,7.3345,3.1064,0.4032,-4.9408,6.6472,-0.5835,-2.0009,5.7830,2.6782,2.6607,1.2659,3.0137,-1.2513,-4.3165,9.6663,5.7244,3.0217,3.3806
1957.0312,1.8937,7.2651,5.3245,3.1792,-3.3021,6.1334,-1.8803,1.2821,2.2543,-0.1758,-0.7214,-1.1733,2.8543,-1.2814,-8.4258,8.1157,6.3707,1.7197,4.2934
1960.9375,0.7164,7.1524,8.0380,6.7981,-1.0760,5.7964,-0.3483,5.5088,-0.8904,-2.4820,-4.2774,-3.5405,3.4477,-0.8028,-11.3064,6.9875,6.7821,0.2810,5.3967
1964.8438,0.2256,7.0158,10.9790,11.0681,1.5796,5.6116,4.7120,10.3020,-2.9963,-3.9238,-7.2592,-5.3631,4.5300,0.2981,-12.5779,6.0143,6.7132,-0.7356,6.5438
1968.7500,-0.4236,6.6633,13.6149,15.2724,4.2026,5.2920,11.7128,14.7809,-4.1662,-4.9704,-9.3292,-6.2806,5.4780,1.5765,-13.0278,4.3450,6.0130,-1.0146,7.6044
1972.6562,-2.0650,5.8978,15.3608,18.4814,6.2695,4.5876,17.6392,17.9057,-5.0294,-6.3086,-10.5186,-6.2279,5.7740,2.4075,-13.8097,1.4720,4.8039,-0.6357,8.5386
1976.5625,-4.7740,4.8068,15.8662,20.0317,7.4487,3.5550,19.9448,18.9955,-6.1131,-8.0586,-10.9522,-5.5076,5.3735,2.4341,-15.3707,-1.9625,3.4434,0.0590,9.3709
1980.4688,-7.6937,3.8303,15.1925,19.8780,7.7430,2.5523,18.1395,18.1126,-7.3362,-9.4701,-10.6287,-4.6144,4.7369,1.7794,-17.0354,-4.2120,2.3087,0.7670,10.1196
1984.3750,-9.5875,3.4727,13.7527,18.5884,7.4545,1.9434,13.9479,16.0439,-8.0576,-9.4208,-9.4716,-3.9082,4.5046,0.9118,-17.6182,-3.4794,1.5744,1.4341,10.7412
1988.2812,-9.7048,3.8546,12.0462,16.9693,6.9912,1.7495,9.9724,13.8436,-7.6594,-7.3711,-7.5955,-3.4060,5.0256,0.3008,-16.5541,0.6558,1.1450,2.1764,11.1170
1992.1875,-8.3051,4.4914,10.3663,15.5580,6.6233,1.5486,7.8760,12.2048,-6.1901,-4.0131,-5.5161,-2.9060,6.0612,0.1225,-14.5710,6.4860,0.7744,2.9830,11.0780
1996.0938,-6.4532,4.5446,8.6809,14.3187,6.3423,0.7428,7.4033,11.0721,-4.5169,-1.0412,-4.0462,-2.3600,6.8839,0.2157,-13.2856,10.8051,0.2724,3.4809,10.4643
2000.0000,-5.2638,3.4133,6.7548,12.7522,5.9264,-0.9806,6.8781,9.7725,-3.8171,-0.1388,-3.8798,-2.1521,6.7386,0.2937,-13.9968,10.7033,-0.3495,3.0314,9.2114
2003.9062,-5.1848,1.2182,4.4069,10.3402,5.1789,-3.3374,4.7077,7.5863,-4.7702,-1.8906,-5.1470,-2.9641,5.3787,0.2366,-16.6371,5.4391,-0.8798,1.1587,7.4326
2007.8125,-5.8423,-1.2250,1.6990,7.0072,4.1639,-5.5395,0.7199,4.3595,-7.0713,-5.4084,-7.2878,-5.2423,3.3064,0.2356,-19.7477,-2.8723,-1.0399,-1.9931,5.4326
2011.7188,-6.5054,-2.9620,-1.0835,3.2563,3.2310,-6.7558,-3.6432,0.7043,-9.6452,-8.9306,-9.3712,-8.6663,1.5160,0.6693,-21.5231,-10.3071,-0.6583,-5.5626,3.5968
2015.6250,-6.7402,-3.5738,-3.6268,-0.1330,2.7618,-6.6335,-6.3566,-2.3794,-11.3928,-10.9402,-10.6468,-12.0986,0.8708,1.7862,-21.1043,-13.3273,0.2052,-8.3839,2.1843
2019.5312,-6.7085,-3.4448,-5.7911,-2.6355,2.7999,-5.5196,-6.2634,-4.2042,-11.8944,-10.9923,-10.9358,-14.1646,1.5128,3.4141,-19.1056,-10.7576,1.2396,-9.6695,1.1505
2023.4375,-6.8971,-3.4059,-7.6503,-4.3425,2.8680,-4.2341,-3.8956,-4.8989,-11.5425,-9.7159,-10.5917,-14.1042,2.7262,4.9221,-16.9869,-4.3124,1.9762,-9.4830,0.1569
2027.3438,-7.5522,-4.0330,-9.3361,-5.8662,2.1911,-3.5559,-1.1280,-5.3183,-11.0487,-8.1102,-10.0970,-12.2673,3.3911,5.5137,-15.8292,2.5940,1.9802,-8.6383,-1.1787
2031.2500,-8.3323,-5.1541,-10.8169,-7.8251,0.2508,-3.7702,0.0327,-6.3897,-10.7644,-6.7623,-9.6335,-9.8505,2.7588,4.7066,-15.5322,6.9037,1.0889,-8.0707,-2.9210
2035.1562,-8.4981,-5.9604,-11.8014,-10.2741,-2.6967,-4.5613,-1.3304,-8.3572,-10.3810,-5.5916,-8.9668,-8.0406,1.0251,2.7063,-15.0725,7.4872,-0.4033,-8.1245,-4.6089
2039.0625,-7.4972,-5.6372,-11.8701,-12.5200,-5.5638,-5.2858,-4.5914,-10.4957,-9.2403,-4.2323,-7.7143,-7.2037,-0.7215,0.4024,-13.5515,5.3189,-1.7471,-8.2859,-5.4086
2042.9688,-5.4684,-4.0294,-10.7689,-13.5084,-6.9797,-5.4156,-8.1077,-11.5478,-6.9841,-2.6287,-5.7628,-6.7442,-1.1955,-1.0728,-11.1025,2.3617,-2.0142,-7.5814,-4.6063
2046.8750,-3.2496,-1.8422,-8.6774,-12.5555,-6.1564,-4.8653,-10.3068,-10.6137,-4.0075,-1.2815,-3.4922,-5.7448,0.1848,-1.0077,-8.8586,0.1194,-0.5899,-5.3803,-2.1556
2050.7812,-1.8675,-0.2484,-6.2617,-9.9208,-3.4939,-4.0331,-10.6206,-7.8647,-1.3583,-0.9258,-1.6366,-3.8781,2.8055,0.4023,-7.9948,-1.0970,2.3646,-2.0321,1.1034
2054.6875,-1.8918,-0.2118,-4.4472,-6.7821,-0.4626,-3.5776,-9.7187,-4.5451,-0.1677,-1.9262,-0.8958,-1.8483,5.1485,2.0833,-8.6583,-1.8091,5.7987,1.1393,3.7659
2058.5938,-3.1211,-2.0026,-3.9997,-4.5672,1.2398,-4.0845,-8.9506,-2.2098,-1.0366,-3.9161,-1.5812,-0.9727,5.7248,2.6769,-9.7168,-2.4158,8.1931,2.5338,4.5956
2062.5000,-4.7937,-5.1673,-5.1155,-4.0493,0.7470,-5.7797,-9.3668,-1.6960,-3.7792,-5.9896,-3.5094,-2.1803,4.0595,1.3839,-9.5820,-2.5525,8.3718,1.2480,3.2521
2066.4062,-6.1149,-8.8486,-7.2279,-4.8059,-1.3926,-8.3811,-10.9252,-2.5336,-7.6058,-7.2874,-6.1430,-5.1756,1.0782,-1.4574,-7.4678,-1.3327,6.2535,-2.2880,0.5626
2070.3125,-6.6891,-12.1461,-9.1538,-5.4289,-3.5126,-11.1223,-12.3846,-3.2178,-11.5094,-7.5053,-8.8145,-8.4162,-1.3813,-4.4593,-4.0635,1.7409,3.0318,-6.4165,-1.8544
2074.2188,-6.5841,-14.3046,-9.5624,-4.3799,-3.8290,-12.9598,-12.0124,-2.1800,-14.5650,-6.9429,-10.8810,-9.9635,-1.6386,-5.9425,-1.0608,6.0023,0.5763,-9.0540,-2.4151
2078.1250,-6.0762,-14.7731,-7.5925,-0.9541,-1.5061,-12.9470,-8.7414,1.1851,-16.0487,-6.1109,-11.8004,-8.6290,0.8530,-4.9305,0.1097,9.7161,0.3490,-8.7360,-0.3833
2082.0312,-5.3604,-13.3085,-3.3389,4.2635,2.8844,-10.6782,-3.0775,6.1125,-15.5078,-5.2689,-11.2239,-4.6444,5.2274,-1.7614,-0.6570,11.0913,2.5005,-5.3298,3.7799
2085.9375,-4.4723,-10.1790,2.0613,9.7276,7.7630,-6.6023,2.8892,10.9285,-12.9222,-4.2829,-9.1524,0.5540,9.7669,2.0920,-2.0943,9.5116,5.7508,-0.0525,8.6948
2089.8438,-3.4278,-6.2831,6.8573,13.8097,11.4872,-1.9783,6.5254,14.0422,-8.8960,-2.8800,-6.0639,5.2037,12.9034,4.9008,-2.5490,6.0529,8.1782,5.1688,12.7767
2093.7500,-2.3765,-2.9239,9.4719,15.6394,13.2056,1.6098,6.2115,14.7982,-4.6359,-1.0236,-2.8435,8.1155,14.0050,5.7064,-1.2087,2.8402,8.4212,8.6205,14.9672
2097.6562,-1.5750,-1.2009,9.2624,15.3901,13.1108,3.0002,2.4343,13.6592,-1.5352,0.9497,-0.4458,9.0356,13.4902,4.8321,1.3648,1.6506,6.5042,9.5228,15.0992
2101.5625,-1.1785,-1.3481,6.8240,13.8998,12.0353,2.0597,-2.3804,11.6760,-0.4913,2.5559,0.5574,8.3755,12.2930,3.5576,3.7533,2.7398,3.7347,8.2175,13.7609
2105.4688,-1.0484,-2.5139,3.6339,11.9719,10.7677,-0.2357,-5.3087,9.6906,-1.3815,3.5354,0.2499,6.6786,11.1346,3.1947,4.7802,4.7284,1.7599,5.8001,11.8160
2109.3750,-0.7817,-3.2433,1.2223,9.8854,9.5952,-2.3405,-4.7603,7.8489,-3.1133,4.0282,-0.7457,4.2984,10.1311,4.2041,4.3189,5.6253,1.4550,3.4607,9.9078
2113.2812,0.0218,-2.4116,0.3600,7.4326,8.3368,-2.9977,-1.4693,5.7264,-4.2922,4.3924,-1.7087,1.4827,8.9633,5.9524,3.2371,4.2465,2.4157,1.9164,8.2350
2117.1875,1.4483,0.0286,0.7579,4.3782,6.7398,-1.8887,2.0612,2.8970,-4.0872,4.8380,-2.2686,-1.3396,7.3900,7.2467,2.6201,1.0132,3.3809,1.2171,6.6740
2121.0938,3.1660,3.0364,1.4384,0.9187,4.8668,0.3189,3.2873,-0.5323,-2.6936,5.2196,-2.5388,-3.4488,5.6372,7.2350,2.9468,-2.4160,3.2291,0.9613,5.0909
2125.0000,4.6192,5.2338,1.4921,-2.2554,3.1588,2.5180,1.2982,-3.8390,-1.0669,5.1888,-2.8617,-4.1035,4.3217,6.0123,3.8475,-4.3633,1.7956,0.7179,3.5755
2128.9062,5.3819,5.8687,0.6825,-4.3616,2.1443,3.8986,-2.7529,-6.1106,-0.1402,4.5838,-3.4046,-3.0321,3.9577,4.5050,4.5473,-4.2814,-0.0761,0.3525,2.4090
2132.8125,5.4193,5.2822,-0.5036,-5.0836,2.0383,4.3714,-6.7034,-6.8532,-0.1154,3.7051,-3.9515,-0.7571,4.4500,3.7456,4.5562,-2.9977,-1.2365,0.0600,1.7912
2136.7188,5.0922,4.5611,-1.3391,-4.8467,2.5469,4.4367,-9.0375,-6.3359,-0.3436,3.2100,-4.0557,1.5525,5.0124,4.0921,4.0395,-1.9257,-1.1130,0.1272,1.5553
2140.6250,4.9322,4.6873,-1.4622,-4.5846,3.0197,4.6767,-9.8275,-5.4314,0.1530,3.6777,-3.4022,2.6653,4.6362,4.9738,3.6355,-1.8950,-0.0946,0.6412,1.1341
2144.5312,5.3628,5.8609,-1.1279,-5.1492,2.8399,5.2966,-10.2681,-5.0767,1.9455,5.1824,-2.0541,1.9565,2.8061,5.3383,3.9478,-2.5185,0.8357,1.3808,-0.1247
2148.4375,6.5220,7.4894,-0.9302,-6.7748,1.7887,6.0510,-11.2904,-5.7280,4.7991,7.2162,-0.3788,-0.2626,-0.0578,4.4529,5.1486,-2.5786,0.8841,1.9737,-2.4668
2152.3438,8.2331,8.7688,-1.2488,-8.9517,0.1635,6.5502,-12.5051,-7.1502,7.8581,9.0215,1.2578,-2.9451,-2.7827,2.4593,6.9515,-1.1126,0.0085,2.1918,-5.4037
2156.2500,10.0714,9.3210,-1.8792,-10.7522,-1.3853,6.6436,-12.4309,-8.6242,10.2069,10.0715,2.7292,-4.8910,-4.1534,0.2898,8.8728,1.6710,-1.1579,2.1496,-7.8282
2160.1562,11.4772,9.3631,-2.1411,-11.3386,-2.1649,6.5471,-9.8406,-9.3737,11.3654,10.3350,4.0990,-5.3423,-3.6663,-0.9642,10.5061,4.3843,-1.8990,2.2517,-8.5629
2164.0625,11.9209,9.3416,-1.3627,-10.3005,-1.7064,6.6366,-5.0521,-8.9181,11.4089,10.1630,5.3571,-4.2599,-1.7974,-0.7431,11.6220,5.4094,-1.9929,2.9329,-7.0193
2167.9688,11.1289,9.4382,0.6584,-7.6603,0.1203,7.1164,0.0207,-7.1753,10.7539,9.9497,6.2413,-2.1852,0.3960,0.7225,12.1332,4.1087,-1.7948,4.3933,-3.5356
2171.8750,9.2955,9.4379,3.5715,-3.6738,3.1340,7.8662,3.2138,-4.3547,9.8780,9.8744,6.3867,0.1596,2.0369,2.7140,12.0806,1.3888,-1.7949,6.5169,0.8379
2175.7812,7.1193,9.0715,6.7892,1.3169,6.9301,8.5858,3.7886,-0.8043,9.1903,9.9157,5.7253,2.2617,2.9907,4.5843,11.7021,-0.8264,-2.0811,9.0017,4.9603
2179.6875,5.5376,8.4661,9.8951,6.8377,10.9634,9.0820,3.0066,3.0594,9.0295,10.0472,4.7652,3.9888,3.8212,6.1098,11.4611,-0.8616,-2.2099,11.5534,8.1998
2183.5938,5.2268,8.2045,12.7842,12.1514,14.6228,9.4154,3.0393,6.7501,9.6126,10.3644,4.4057,5.4922,5.1972,7.3961,11.8799,1.5894,-1.6219,13.9645,10.6055
2187.5000,6.1582,8.8468,15.4484,16.2894,17.3285,9.7690,5.0561,9.7457,10.8507,10.9737,5.3156,6.9485,7.2232,8.4955,13.1944,5.2600,-0.2366,16.0306,12.5771
2191.4062,7.5432,10.2983,17.6550,18.3820,18.6667,10.1669,8.0995,11.6279,12.1838,11.7427,7.3225,8.3191,9.2273,9.1381,15.0822,8.1396,1.3245,17.4342,14.3358
2195.3125,8.2783,11.6284,18.8781,18.1434,18.5197,10.3301,9.7806,12.2737,12.6962,12.1867,9.3473,9.2792,10.1896,8.8562,16.7513,8.7470,2.1476,17.7767,15.6395
2199.2188,7.6364,11.6175,18.6085,16.1578,17.1197,9.8433,8.3255,11.9514,11.5939,11.6891,10.0493,9.3724,9.5051,7.4162,17.4218,7.0085,1.7815,16.8121,15.9754
2203.1250,5.7356,9.6843,16.8084,13.6844,14.9753,8.5256,4.3075,11.2090,8.7862,9.9571,8.7729,8.3203,7.5101,5.1755,16.8859,4.2317,0.7202,14.7227,15.0585
2207.0312,3.4392,6.4525,14.1014,12.0176,12.6887,6.6881,0.5408,10.5926,5.1128,7.3648,6.0901,6.3143,5.3660,3.0129,15.6963,2.2958,0.1682,12.1866,13.2068
2210.9375,1.7470,3.4368,11.4748,11.7818,10.7447,5.0282,0.0564,10.3660,1.9483,4.8589,3.4755,4.0912,4.3647,1.8242,14.7827,2.6281,1.2053,10.1010,11.2491
2214.8438,1.1211,2.0102,9.6746,12.6205,9.3674,4.1989,3.6727,10.4133,0.3738,3.4173,2.3000,2.6862,5.1372,1.9456,14.7514,5.5514,3.9698,9.0920,9.9984
2218.7500,1.2420,2.4174,8.7491,13.4851,8.5013,4.3718,9.1129,10.3764,0.4857,3.4115,2.8687,2.9334,7.3079,2.9517,15.4108,10.2364,7.4937,9.1333,9.6850
2222.6562,1.3549,3.6053,8.1011,13.3168,7.9034,5.1297,12.4773,9.9105,1.3594,4.3336,4.2264,4.9676,9.8012,3.9916,15.9214,15.1161,10.3351,9.5512,9.7928
2226.5625,0.9028,4.0193,7.0045,11.6547,7.2835,5.7674,11.0404,8.8741,1.7118,5.1079,4.8836,8.0312,11.5352,4.4025,15.4732,18.4699,11.5317,9.4308,9.4310
2230.4688,-0.0725,2.7504,5.1640,8.7872,6.4178,5.7557,5.2617,7.3459,0.7702,4.7817,3.9102,10.7532,11.9927,4.1195,13.9534,18.9757,11.1546,8.1482,7.9554
2234.3750,-1.0744,0.1447,2.8707,5.4161,5.1978,5.0079,-1.5243,5.5085,-1.2972,3.1146,1.5686,11.7944,11.2990,3.5697,12.0540,16.1597,10.0658,5.6718,5.3618
2238.2812,-1.6867,-2.5793,0.6531,2.1472,3.6176,3.7776,-5.5023,3.5340,-3.6768,0.6680,-0.9761,10.5126,9.8444,3.1646,10.7119,10.6728,9.1135,2.4608,2.1698
2242.1875,-2.0136,-4.3538,-1.2411,-0.8071,1.7332,2.3407,-5.0318,1.5654,-5.6295,-1.6324,-2.6047,7.2638,7.8257,2.8346,10.3315,4.2359,8.4345,-0.9079,-1.0685
2246.0938,-2.6222,-5.0712,-3.0593,-3.5464,-0.3698,0.7840,-1.5997,-0.2326,-7.0099,-3.1171,-3.0835,3.1624,5.1005,2.0115,10.4328,-0.9036,7.4158,-4.0736,-4.2002
2250.0000,-4.0166,-5.5252,-5.2491,-6.1801,-2.5885,-0.9043,1.5277,-1.6595,-8.1694,-3.7303,-3.1414,-0.5437,1.4522,0.0914,10.0381,-2.9248,5.3161,-6.9493,-7.4786
2253.9062,-6.0936,-6.5706,-7.9159,-8.6125,-4.8033,-2.5587,1.7894,-2.5748,-9.3844,-3.9153,-3.7621,-3.0944,-2.9914,-3.0014,8.5039,-1.3746,2.0037,-9.5244,-11.1552
2257.8125,-8.0734,-8.2437,-10.5351,-10.5969,-6.8855,-3.6960,-0.9779,-3.0422,-10.3781,-4.1792,-5.2948,-4.4663,-7.5741,-6.6259,6.1237,2.4844,-1.8098,-11.6453,-15.0290
2261.7188,-9.0162,-9.6165,-12.2302,-11.9777,-8.7222,-3.7331,-4.7932,-3.3738,-10.4213,-4.7012,-7.1165,-5.1465,-11.3523,-9.7926,3.9923,6.2491,-5.0361,-13.0038,-18.3708
2265.6250,-8.5387,-9.5382,-12.4404,-12.8619,-10.2481,-2.4517,-7.2911,-3.9717,-8.9770,-5.2691,-8.1110,-5.6439,-13.6092,-11.8181,3.2014,7.6343,-6.9878,-13.3543,-20.3300
2269.5312,-7.1497,-7.6627,-11.4397,-13.5426,-11.4601,-0.3255,-7.4502,-5.0319,-6.3378,-5.5406,-7.5659,-6.1063,-14.2623,-12.7539,3.9805,5.6818,-7.8323,-12.7650,-20.5205
2273.4375,-5.9117,-4.9023,-10.2432,-14.2286,-12.3960,1.6287,-5.9774,-6.3247,-3.6601,-5.3827,-5.7694,-6.2960,-13.8669,-13.2515,5.4505,1.1711,-8.3615,-11.6667,-19.3176
2277.3438,-5.6754,-2.8994,-9.9188,-14.8260,-13.0800,2.4541,-4.2878,-7.2544,-2.2795,-5.0091,-3.8453,-5.8966,-13.2208,-13.9755,6.1956,-3.9944,-9.2846,-10.6320,-17.6188
2281.2500,-6.4852,-2.8934,-10.8109,-14.9775,-13.4668,1.9025,-3.1668,-7.2092,-2.8013,-4.8222,-2.9807,-4.8794,-12.8609,-15.0357,5.2355,-7.9529,-10.6294,-10.0461,-16.2458
2285.1562,-7.6181,-4.8506,-12.2786,-14.3389,-13.4248,0.6330,-2.3081,-5.9810,-4.6828,-5.1027,-3.6552,-3.6266,-12.7971,-15.8935,2.6909,-9.7834,-11.7308,-9.9187,-15.4446
2289.0625,-8.2096,-7.5086,-13.1592,-12.8617,-12.7865,-0.2209,-0.9966,-3.9497,-6.6449,-5.7897,-5.4285,-2.7077,-12.6260,-15.8112,-0.3135,-9.5927,-11.7883,-9.9614,-14.8462
2292.9688,-7.9443,-9.2768,-12.6010,-10.8398,-11.4537,0.1767,0.8647,-1.8786,-7.5883,-6.5058,-7.3611,-2.4691,-11.8879,-14.4825,-2.3913,-7.9143,-10.5133,-9.8374,-13.8755
2296.8750,-7.2514,-9.2857,-10.6293,-8.6862,-9.5052,1.8059,2.4366,-0.4534,-7.2885,-6.7915,-8.6595,-2.7446,-10.3864,-12.3409,-2.7209,-5.0616,-8.3402,-9.3635,-12.2477
2300.7812,-6.8636,-7.8199,-8.0410,-6.6427,-7.2425,3.8369,2.6547,0.1100,-6.3422,-6.3732,-9.0330,-2.9103,-8.2757,-10.3073,-1.4055,-1.0292,-6.0592,-8.5237,-10.1596
2304.6875,-7.1328,-5.8995,-5.7655,-4.6804,-5.1297,5.2102,1.2758,0.1101,-5.4768,-5.2964,-8.5783,-2.2666,-5.9196,-9.1829,0.7843,4.0236,-4.2129,-7.3413,-8.0670
2308.5938,-7.6975,-4.4430,-4.2391,-2.6740,-3.6391,5.3003,-0.7712,0.0446,-4.8609,-3.8701,-7.4416,-0.4970,-3.6805,-9.1585,2.9836,9.2565,-2.7668,-5.7886,-6.2923
2312.5000,-7.7923,-3.7074,-3.2801,-0.6733,-3.0638,4.1960,-2.1235,0.2010,-4.0294,-2.4958,-5.6557,2.1010,-1.7864,-9.7910,4.6734,13.2266,-1.2977,-3.8547,-4.8173
2316.4062,-6.9459,-3.3815,-2.4918,1.0000,-3.3872,2.4743,-2.1732,0.4785,-2.4771,-1.5004,-3.3123,4.7682,-0.3039,-10.4118,5.7481,14.6844,0.5166,-1.7111,-3.4153
2320.3125,-5.4692,-3.1254,-1.7672,1.9557,-4.2743,0.7392,-1.6020,0.5721,-0.3676,-1.0528,-0.8402,6.7217,0.8470,-10.5970,6.3133,13.5303,2.5677,0.2172,-1.9536
2324.2188,-4.2955,-2.9989,-1.4082,2.0800,-5.1987,-0.6763,-1.7082,0.3414,1.3306,-1.1624,0.9895,7.5987,1.8890,-10.3277,6.4922,11.1226,4.4404,1.4134,-0.5509
2328.1250,-4.2643,-3.3836,-1.7451,1.7137,-5.6540,-1.6677,-3.0681,0.0369,1.4899,-1.7113,1.4781,7.6282,3.1592,-9.7664,6.4126,9.5597,5.8524,1.5935,0.5680
2332.0312,-5.4069,-4.4984,-2.6271,1.4630,-5.3597,-2.1403,-4.7401,0.1672,-0.2263,-2.4763,0.5586,7.4315,4.9816,-8.9200,6.3053,10.3536,6.9770,0.9486,1.3664
2335.9375,-6.8170,-5.9911,-3.3074,1.7534,-4.3719,-1.9176,-4.8189,1.0970,-2.8994,-3.1398,-0.9901,7.5915,7.4381,-7.5434,6.5167,13.4267,8.3126,0.0800,2.1155
2339.8438,-7.2407,-7.0243,-2.9238,2.4687,-3.0542,-0.9147,-1.9975,2.6951,-4.8321,-3.3284,-1.9544,8.2646,10.1715,-5.4000,7.3333,17.1645,10.1786,-0.3697,3.1554
2343.7500,-5.9652,-6.8405,-1.2446,2.9768,-1.9229,0.6033,3.1284,4.3323,-4.6823,-2.7174,-1.5062,9.0757,12.4036,-2.6531,8.7272,19.4738,12.2754,-0.1450,4.4572
2347.6562,-3.3512,-5.3672,0.9381,2.5477,-1.4406,1.9913,8.1497,5.2512,-2.4335,-1.1973,0.1484,9.3449,13.2461,-0.0099,10.2513,19.0586,13.7348,0.4415,5.3775
2351.5625,-0.6320,-3.3694,2.1612,0.8536,-1.8490,2.5601,10.3579,5.0397,0.5218,0.9639,1.8008,8.4893,12.1592,1.5773,11.2164,16.0145,13.6840,0.7034,4.9010
2355.4688,0.8534,-2.0150,1.2085,-1.8221,-3.1093,2.0607,8.5511,3.8534,2.2501,3.0751,1.9717,6.3442,9.2680,1.4784,11.0531,11.4320,11.9038,-0.0014,2.2814
2359.3750,0.4339,-2.1697,-2.0571,-4.8031,-4.9591,0.9069,3.7546,2.2375,1.4720,4.1918,-0.1513,3.2218,5.3080,-0.1887,9.6149,6.4867,9.0448,-1.9224,-2.3565
2363.2812,-1.6244,-3.9253,-6.5596,-7.4600,-7.0364,-0.1027,-1.6404,0.7161,-1.7398,3.4997,-4.2078,-0.2920,1.2236,-2.6004,7.2275,1.8238,6.2068,-4.8431,-7.9189
2367.1875,-4.4489,-6.6466,-10.6797,-9.5048,-8.9908,-0.3916,-5.5602,-0.5093,-6.1572,0.7669,-8.8975,-3.6330,-2.3012,-4.7101,4.4960,-2.3259,4.1958,-8.2513,-12.8573
2371.0938,-7.1524,-9.4179,-13.2315,-10.9305,-10.5302,-0.0604,-7.4072,-1.5226,-10.2213,-3.3860,-12.7260,-6.4412,-5.0544,-5.8204,2.0454,-5.5873,3.0417,-11.5580,-15.9564
2375.0000,-9.2348,-11.5189,-14.0466,-11.7134,-11.4083,0.2009,-7.8931,-2.3900,-12.8402,-7.6157,-14.7199,-8.5398,-7.1316,-5.8510,0.3688,-7.1459,2.1465,-14.2021,-16.8548
2378.9062,-10.5817,-12.6271,-13.7938,-11.6091,-11.4098,-0.3020,-7.9086,-2.8992,-13.6692,-10.4096,-14.6870,-9.7921,-8.5812,-5.1729,-0.1984,-6.1638,0.9228,-15.6623,-15.9853
2382.8125,-11.2113,-12.7365,-13.2641,-10.2779,-10.3942,-1.6569,-7.5557,-2.6138,-12.8812,-10.8149,-13.0040,-10.0114,-9.1948,-4.2157,0.5112,-2.6389,-0.6219,-15.5242,-14.0636
2386.7188,-11.0895,-11.9976,-12.7306,-7.6581,-8.4030,-3.2267,-6.2033,-1.2355,-10.8182,-8.9362,-10.2470,-9.0442,-8.6466,-3.1960,2.4126,2.0797,-1.8437,-13.6884,-11.5792
2390.6250,-10.1948,-10.6635,-11.8769,-4.2434,-5.7591,-4.1413,-3.4201,1.0208,-7.8795,-5.8761,-6.9888,-6.9744,-6.8714,-2.1467,5.0614,5.7406,-1.9981,-10.6022,-8.6724
2394.5312,-8.7281,-9.1256,-10.2868,-0.9606,-3.0526,-4.0037,0.1793,3.3876,-4.6488,-3.1200,-3.8141,-4.2612,-4.3383,-1.1351,7.6913,6.4614,-0.9052,-7.2645,-5.4154
2398.4375,-7.2031,-7.8806,-8.0298,1.3305,-0.9582,-3.2154,3.0415,4.9377,-1.9557,-1.7224,-1.3456,-1.6329,-1.9296,-0.3915,9.4923,3.9464,0.8205,-4.8499,-2.1579
2402.3438,-6.2553,-7.3326,-5.8197,2.3567,0.0606,-2.6364,3.7024,5.1569,-0.6178,-1.8006,-0.0778,0.2617,-0.4438,-0.1826,10.0217,-0.2826,2.1819,-4.1007,0.4411
2406.2500,-6.2764,-7.5411,-4.5962,2.5569,0.0011,-2.8555,1.8422,4.2719,-0.9550,-2.6437,-0.0692,1.2352,-0.0703,-0.5358,9.4689,-3.8663,2.5360,-4.8791,1.7773
2410.1562,-7.1602,-8.1492,-4.8576,2.6959,-0.6434,-3.6926,-1.5545,3.0735,-2.4740,-3.3239,-0.7779,1.6937,-0.2459,-1.0971,8.5444,-5.0980,2.0697,-6.2379,1.7702
2414.0625,-8.3770,-8.6198,-6.2700,3.2598,-1.1205,-4.3677,-5.0320,2.3541,-4.0656,-3.3554,-1.2914,2.3807,-0.0409,-1.3116,8.0228,-3.8364,1.6359,-7.0184,1.0263
2417.9688,-9.3257,-8.6336,-7.8492,4.1136,-0.8170,-4.2054,-7.6809,2.3765,-4.6602,-2.9291,-0.8880,3.8719,1.1788,-0.8269,8.2479,-1.2281,2.0822,-6.5817,0.5150
2421.8750,-9.6859,-8.3196,-8.5686,4.6933,0.4111,-3.2686,-9.3973,2.7669,-3.8809,-2.5923,0.4579,6.1577,3.2957,0.2101,8.9559,1.4184,3.6022,-5.1504,0.9715
2425.7812,-9.4996,-8.0934,-7.9411,4.5687,2.1795,-2.3505,-10.2265,2.9001,-2.1938,-2.6706,2.0403,8.6156,5.5308,1.2406,9.5409,3.6158,5.6045,-3.5163,2.4610
2429.6875,-8.9466,-8.2034,-6.1878,3.9008,3.8278,-2.2939,-9.5987,2.4617,-0.4409,-2.9219,2.9338,10.4040,7.0179,1.7326,9.5444,5.7371,7.1733,-2.3504,4.4152
2433.5938,-8.0465,-8.3714,-3.9509,3.3966,4.8238,-3.1969,-6.4617,1.7403,0.8523,-2.7158,2.6915,11.0031,7.4336,1.6270,8.9811,8.1700,7.7300,-1.6678,6.0790
2437.5000,-6.5782,-7.8845,-1.8368,3.7735,5.0616,-4.2062,-0.4699,1.4215,1.8213,-1.5923,1.6865,10.5140,7.2098,1.4071,8.2552,10.4371,7.3720,-0.8748,7.0051
2441.4062,-4.3211,-6.1392,-0.1437,5.1529,4.8644,-4.1349,6.7835,2.0462,2.9783,0.2607,0.8151,9.5011,7.1660,1.7002,7.7665,11.1841,6.6534,0.6396,7.2285
2445.3125,-1.4262,-3.2444,1.0907,6.8750,4.7075,-2.4495,11.8737,3.5607,4.5648,2.0244,0.7811,8.5082,7.8336,2.7113,7.5555,9.1791,6.0330,2.8529,7.0403
2449.2188,1.4159,-0.1847,1.8587,7.8975,4.8609,0.1784,11.4377,5.3071,6.1267,2.7794,1.5255,7.6250,8.9723,3.9577,7.2936,4.5409,5.4640,4.9418,6.6030
2453.1250,3.2172,1.6521,2.0274,7.4825,5.2026,2.2471,4.7155,6.4625,6.7238,2.1547,2.2578,6.4428,9.6375,4.5550,6.6160,-0.8930,4.4617,5.7626,5.7480
2457.0312,3.2381,1.2884,1.3906,5.6549,5.3233,2.4802,-5.2726,6.5909,5.6448,0.5964,2.0689,4.4346,8.7590,3.8631,5.4937,-4.5307,2.5712,4.6245,4.1115
2460.9375,1.4785,-1.2578,-0.1509,3.1049,4.8341,0.7513,-13.1821,5.8951,3.0450,-0.9511,0.6379,1.4609,5.8338,1.9970,4.3048,-4.7292,-0.1615,1.7679,1.4728
2464.8438,-1.2408,-5.0314,-2.4697,0.6510,3.6497,-1.8560,-14.7478,5.0005,-0.0446,-1.7033,-1.5291,-2.0027,1.2699,-0.2136,3.5259,-1.9844,-3.1079,-1.8126,-1.9957
2468.7500,-3.7022,-8.7777,-5.2625,-1.2940,2.0446,-3.9058,-9.7796,4.4576,-2.3971,-1.5299,-3.5130,-5.1077,-3.8205,-1.8026,3.3063,1.3387,-5.4285,-5.0456,-5.7577
2472.6562,-4.9727,-11.6757,-8.2112,-2.8481,0.4573,-4.7090,-2.4480,4.3533,-3.4524,-0.9315,-4.7057,-7.1701,-8.2065,-2.3430,3.3037,2.6159,-6.6033,-7.4290,-9.1723
2476.5625,-4.9188,-13.6513,-11.0939,-4.3311,-0.7977,-4.7925,1.5561,4.3095,-3.6924,-0.5619,-5.2581,-8.0910,-11.1038,-2.1925,2.9538,0.7845,-6.7113,-9.1685,-11.7632
2480.4688,-4.2340,-15.1134,-13.7513,-5.8058,-1.6831,-5.3757,-0.9599,3.8421,-4.2270,-0.7081,-5.8939,-8.3353,-12.3869,-2.1137,1.9736,-2.9293,-6.2662,-10.7597,-13.3132
2484.3750,-3.9634,-16.4093,-15.9650,-6.8925,-2.3444,-7.2868,-8.4190,2.7807,-5.9084,-1.1390,-7.2487,-8.4824,-12.3923,-2.5683,0.6791,-5.8873,-5.7594,-12.4041,-13.7732
2488.2812,-4.8248,-17.4731,-17.3983,-7.0034,-2.8499,-10.1956,-15.6455,1.4310,-8.6514,-1.4053,-9.2752,-8.7016,-11.5249,-3.2483,-0.1751,-5.8705,-5.2748,-13.7563,-13.1303
2492.1875,-6.7438,-17.9252,-17.6944,-5.7812,-2.9849,-12.7690,-17.6092,0.3808,-11.4670,-1.2949,-11.1950,-8.5698,-9.9680,-3.2239,0.0498,-2.5640,-4.4550,-14.1837,-11.3732
2496.0938,-8.8836,-17.4746,-16.6778,-3.3665,-2.2899,-13.6162,-12.9570,0.1208,-13.1551,-1.0425,-12.0405,-7.3900,-7.6689,-1.6101,1.3444,2.3046,-2.8137,-13.2890,-8.5647
2500.0000,-10.1471,-16.2314,-14.4947,-0.2853,-0.3524,-12.2696,-4.7510,0.7700,-13.1102,-1.1231,-11.3596,-4.7786,-4.5516,1.7494,2.9619,6.1756,-0.1398,-11.2340,-4.9144
2503.9062,-9.8457,-14.6469,-11.5719,2.9171,2.8356,-9.4550,1.9999,2.0749,-11.6430,-1.8245,-9.5373,-1.0769,-0.7597,6.0940,3.8705,7.3017,3.3009,-8.5999,-0.7568
2507.8125,-8.1282,-13.1473,-8.4177,5.9644,6.7092,-6.5003,4.0040,3.6255,-9.6326,-2.9746,-7.5007,2.7386,3.2581,10.1854,3.4333,5.7053,6.8819,-5.9289,3.5469
2511.7188,-5.9029,-11.7995,-5.4189,8.8189,10.2958,-4.4091,1.7419,5.0856,-7.8457,-4.0496,-6.0541,5.6025,6.8784,13.0374,1.8304,2.9178,9.9320,-3.3588,7.6743
2515.6250,-4.2918,-10.3162,-2.7778,11.3947,12.6365,-3.3395,-1.4924,6.2696,-6.4708,-4.5617,-5.3676,6.9775,9.5594,14.4048,-0.0749,0.8430,12.0236,-0.6699,11.3035
2519.5312,-3.9449,-8.3987,-0.6043,13.3174,13.2180,-2.8215,-2.5535,7.0709,-5.1862,-4.3920,-4.9944,7.1087,11.0625,14.7156,-1.3192,0.6091,13.0709,2.3104,14.0294
2523.4375,-4.6430,-6.1156,0.9595,14.0024,12.1660,-2.4061,-0.9030,7.3795,-3.6235,-3.8073,-4.3673,6.7454,11.5143,14.5649,-1.4533,2.1233,13.2354,5.3196,15.3824
2527.3438,-5.4533,-3.9764,1.7258,13.0445,10.1074,-2.1097,1.3571,7.1188,-1.7911,-3.1867,-3.3581,6.5520,11.2831,14.1979,-0.7771,4.4501,12.7542,7.6598,15.0329
2531.2500,-5.3560,-2.6164,1.5901,10.6214,7.8188,-2.2675,1.7046,6.3820,-0.1077,-2.7301,-2.4493,6.6435,10.7481,13.3703,-0.0710,6.5667,11.8139,8.6256,13.0800
2535.1562,-3.9470,-2.3405,0.6967,7.5685,5.8881,-2.9899,-0.3550,5.5233,0.9417,-2.4065,-2.3883,6.5728,10.0941,11.6437,-0.0515,7.9115,10.5191,8.0315,10.1891
2539.0625,-1.7525,-2.8944,-0.5185,5.0135,4.5693,-3.8024,-2.7478,5.0613,1.2001,-2.1503,-3.5884,5.7620,9.2451,8.8370,-0.9291,8.4295,8.9268,6.4055,7.3954
2542.9688,0.0700,-3.6473,-1.4743,3.7978,3.8524,-3.8882,-2.6529,5.4058,0.9387,-2.0687,-5.7281,4.0412,7.9735,5.2707,-2.3278,8.2520,7.0993,4.6764,5.6271
2546.8750,0.4607,-4.0414,-1.7055,4.0686,3.6292,-2.7889,0.8855,6.5872,0.5971,-2.4130,-7.8466,1.8941,6.1184,1.6427,-3.5572,7.3841,5.1435,3.5776,5.2347
2550.7812,-0.8619,-3.9527,-1.0751,5.3013,3.8074,-0.9495,5.8211,8.2018,0.4104,-3.3023,-8.8744,0.2233,3.7773,-1.3291,-4.0131,5.6887,3.2285,3.2157,5.8463
2554.6875,-3.2226,-3.6968,0.1874,6.6969,4.3099,0.4415,8.4953,9.6421,0.2534,-4.4600,-8.2491,-0.2088,1.3356,-3.2158,-3.4571,3.1678,1.5729,3.1102,6.6481
2558.5938,-5.4231,-3.6995,1.6229,7.6557,5.0141,0.2974,6.5071,10.4662,-0.1671,-5.2561,-6.2245,0.7170,-0.7030,-3.9524,-2.0574,0.2846,0.3910,2.6420,6.8902
2562.5000,-6.4739,-4.1091,2.7579,8.0206,5.7298,-1.4656,0.7557,10.6416,-0.9502,-5.0988,-3.7045,2.3646,-1.9936,-3.7111,-0.2397,-1.9819,-0.1900,1.5471,6.2648
2566.4062,-6.1171,-4.6486,3.2803,7.9956,6.2621,-3.7172,-5.0320,10.4877,-1.7878,-3.8919,-1.7270,3.6965,-2.5551,-2.7453,1.5219,-2.4919,-0.1962,0.0888,4.9310
2570.3125,-4.8125,-4.8016,3.1177,7.8804,6.5108,-4.8332,-6.9825,10.3668,-2.0985,-2.1634,-0.9170,3.8715,-2.7506,-1.3309,2.8662,-0.5730,0.2033,-1.1772,3.2493
2574.2188,-3.2669,-4.1694,2.4255,7.8497,6.5119,-3.8513,-3.9063,10.3680,-1.4172,-0.7094,-1.2045,2.7214,-3.0372,0.2214,3.6182,3.4347,0.7998,-1.8154,1.4980
2578.1250,-1.9151,-2.7360,1.5139,7.9053,6.3712,-1.1921,1.8952,10.2351,0.2598,0.0032,-1.9310,0.8362,-3.6362,1.6001,3.7901,8.1037,1.4832,-1.7680,-0.1896
2582.0312,-0.7499,-0.8775,0.7336,7.9609,6.1430,1.6154,6.4224,9.5947,2.4376,0.2038,-2.2479,-0.7675,-4.3486,2.6267,3.5348,11.4894,2.3109,-1.2930,-1.6694
2585.9375,0.4256,0.8500,0.3371,7.9358,5.7601,3.0082,6.9279,8.3031,4.4259,0.6386,-1.5737,-1.1832,-4.6486,3.3901,3.0789,12.1405,3.4389,-0.6921,-2.6322
2589.8438,1.6189,1.9812,0.3670,7.7781,5.0895,2.4625,3.7482,6.6245,5.7624,1.9661,0.1341,-0.0492,-4.0072,4.2137,2.6585,10.0016,4.9511,-0.0798,-2.6686
2593.7500,2.5356,2.3264,0.6428,7.4425,4.0711,0.7829,-0.2994,5.0807,6.4639,4.2048,2.4217,2.3368,-2.2317,5.3944,2.4820,6.5977,6.7101,0.6349,-1.5536
2597.6562,2.8734,2.0223,0.8887,6.8949,2.8184,-0.5563,-2.3221,4.0705,6.9523,6.6919,4.6556,5.2452,0.3974,6.8723,2.7235,4.2439,8.3528,1.5945,0.4887
2601.5625,2.7702,1.4837,0.9483,6.1676,1.5769,-0.4616,-1.5680,3.5528,7.7351,8.6035,6.4178,7.9210,3.2755,8.1101,3.5227,4.6405,9.4489,2.8454,2.8112
2605.4688,2.9664,1.2889,0.9455,5.4082,0.5591,1.1432,0.2731,3.0567,9.0752,9.6291,7.7382,9.9307,5.7964,8.3550,4.9502,7.7134,9.7210,4.3336,4.7077
2609.3750,4.4356,2.0066,1.2521,4.8473,-0.2062,3.5141,0.7970,2.0470,10.8616,10.2454,9.0166,11.2782,7.6349,7.1639,6.9316,11.5355,9.1773,6.0169,5.8720
2613.2812,7.6810,3.9734,2.2525,4.6834,-0.8635,5.8472,-0.8774,0.3931,12.7363,11.3466,10.6816,12.2642,8.8253,4.8271,9.1808,13.5182,8.0806,7.9448,6.5931
2617.1875,12.2157,7.0971,4.0472,4.9656,-1.5399,7.9178,-3.2313,-1.4144,14.3588,13.5009,12.8177,13.2079,9.6291,2.3400,11.2222,12.1753,6.7976,10.1912,7.5141
2621.0938,16.6680,10.8053,6.3106,5.5728,-2.1232,10.0732,-3.5416,-2.4975,15.6124,16.4109,15.0222,14.2075,10.3179,0.8740,12.5412,8.2508,5.6452,12.6752,9.1156
2625.0000,19.5036,14.2167,8.4145,6.2992,-2.2232,12.6467,-0.1676,-2.1527,16.6137,19.0096,16.6078,15.0620,11.0138,1.0663,12.8023,4.3309,4.8167,15.0301,11.3021
2628.9062,19.8891,16.4794,9.7416,6.9559,-1.4119,15.3560,5.9252,-0.3722,17.5227,20.1334,17.0139,15.3694,11.6499,2.6087,12.0005,3.0842,4.3734,16.6562,13.3920
2632.8125,18.0985,17.0949,9.9703,7.3866,0.3883,17.2539,11.6403,2.0501,18.2857,19.2737,16.1342,14.7139,12.0090,4.4186,10.4369,5.2997,4.2334,16.9539,14.5054
2636.7188,15.2002,16.0485,9.1483,7.3932,2.6623,17.3243,13.8811,3.9341,18.4985,16.8632,14.3219,12.8392,11.7791,5.2786,8.5326,9.1454,4.1283,15.5894,14.0558
2640.6250,12.2940,13.6973,7.5501,6.6940,4.4485,15.2623,11.7166,4.4090,17.5253,13.9230,12.0820,9.7508,10.6147,4.5154,6.6196,11.2800,3.5967,12.6399,12.0188
2644.5312,9.8795,10.5445,5.4851,5.0479,4.8578,11.8124,6.9621,3.4474,14.8584,11.3816,9.7118,5.7585,8.2533,2.2907,4.8671,9.1308,2.1212,8.5699,8.8617
2648.4375,7.7922,7.0819,3.2394,2.5365,3.6577,8.3812,2.7936,1.8944,10.5441,9.5866,7.1976,1.4877,4.7095,-0.6147,3.3857,2.7658,-0.5713,4.1126,5.2871
2652.3438,5.6677,3.7829,1.1735,-0.1924,1.5149,6.2036,1.4960,0.9691,5.4039,8.3293,4.4638,-2.1580,0.4696,-3.2941,2.3847,-4.9834,-4.1912,0.1466,2.0300
2656.2500,3.4838,1.1561,-0.1839,-1.9819,-0.3175,5.6690,3.0263,1.5521,0.8513,7.2663,1.7612,-4.1469,-3.4782,-5.1161,2.1968,-10.2680,-7.7970,-2.4275,-0.1992
2660.1562,1.7046,-0.3077,-0.2439,-1.6270,-0.7151,6.2570,5.3689,3.6991,-1.6889,6.3289,-0.1823,-3.6337,-5.9097,-5.8224,3.0859,-10.6294,-10.0951,-2.8833,-0.7420
2664.0625,0.9206,-0.3581,1.3060,1.4528,0.6439,7.0444,6.2669,6.6583,-1.4919,5.7709,-0.4709,-0.3716,-5.8841,-5.3987,4.9577,-6.4027,-10.0431,-0.9690,0.8347
2667.9688,1.3109,0.7531,4.1458,6.7337,3.0835,7.3378,4.9237,9.3391,1.0232,5.8478,1.3321,4.9761,-3.2679,-3.9531,7.2188,-0.2118,-7.4287,2.8038,4.4149
2671.8750,2.4026,2.2156,7.2580,12.6534,5.3425,6.9595,2.4105,10.9101,4.4121,6.4429,4.6989,10.8675,1.0612,-1.7527,8.9610,4.9584,-3.0540,7.1198,9.0955
2675.7812,3.3412,2.9531,9.3002,17.2567,6.3240,6.0653,0.5952,11.1571,6.8727,6.9909,8.1829,15.3685,5.5189,0.6682,9.4107,7.6522,1.6262,10.2393,13.3323
2679.6875,3.4565,2.1522,9.2494,19.0868,5.6985,4.7689,0.5548,10.4324,7.1159,6.7882,10.0829,16.9383,8.5189,2.5498,8.3640,8.4840,5.2211,10.7209,15.5475
2683.5938,2.6702,-0.2926,6.9230,17.8232,4.0008,2.9663,1.7548,9.3035,4.9558,5.4561,9.3549,15.1355,9.2133,3.2217,6.3011,9.1202,7.0586,8.1328,14.9120
2687.5000,1.4394,-3.7190,3.0350,14.3245,2.2145,0.5183,2.5898,8.1833,1.3013,3.2026,6.1911,10.8436,7.8614,2.5461,4.0909,10.6697,7.4042,3.3231,11.8111
2691.4062,0.3212,-7.0666,-1.2425,10.1009,1.1754,-2.4089,1.7688,7.1820,-2.4102,0.7006,1.8908,5.8521,5.6252,1.1516,2.4819,12.7918,7.1640,-1.9560,7.6496
2695.3125,-0.4523,-9.4278,-4.9033,6.5633,1.1929,-5.2072,-0.6173,6.2210,-4.9674,-1.3040,-1.8874,1.9988,3.9212,0.2023,1.7308,14.1465,7.3073,-5.8881,4.0841
2699.2188,-1.0454,-10.4200,-7.5022,4.4695,2.0815,-7.0832,-3.2035,5.2527,-5.8873,-2.3585,-4.0043,0.3368,3.7010,0.7652,1.6013,13.6939,8.3783,-7.4183,2.1594
2703.1250,-1.7205,-10.1793,-9.1069,3.8001,3.4724,-7.5483,-4.5133,4.3766,-5.4306,-2.4189,-4.3097,0.7701,5.0428,3.1638,1.6857,11.7150,10.3407,-6.6093,1.8878
2707.0312,-2.4795,-9.0711,-9.9371,4.0111,5.0979,-6.7584,-4.2059,3.7582,-4.2299,-1.7149,-3.4777,2.3085,7.2281,6.7550,1.7700,9.7212,12.7440,-4.3840,2.4857
2710.9375,-2.9877,-7.3966,-10.0364,4.4251,6.8274,-5.4145,-3.3741,3.4324,-2.8408,-0.5447,-2.4144,3.7254,9.1962,10.2914,1.9601,9.3654,15.0118,-1.8955,3.0274
2714.8438,-2.8495,-5.3184,-9.2458,4.5319,8.4846,-4.2773,-3.6329,3.1735,-1.5048,0.8268,-1.6820,4.1969,10.0927,12.6187,2.5043,11.2410,16.6512,0.0491,3.0252
2718.7500,-1.9789,-2.9938,-7.4656,4.1038,9.6806,-3.6518,-5.7220,2.5608,-0.1984,2.1474,-1.2913,3.5851,9.6300,13.2379,3.4992,14.4859,17.3257,1.2045,2.5734
2722.6562,-0.7160,-0.7081,-4.9382,3.1670,9.8848,-3.2210,-8.7590,1.2156,1.1665,3.1508,-0.8970,2.3009,8.1294,12.3880,4.7431,17.4152,16.8673,1.7344,2.0661
2726.5625,0.4312,1.1806,-2.2736,1.9097,8.7379,-2.3418,-10.7881,-0.9489,2.5926,3.6286,-0.1598,0.9451,6.2936,10.6804,5.8587,18.6190,15.3160,1.9223,1.8038
2730.4688,1.1966,2.4763,-0.1588,0.5835,6.3818,-0.5596,-10.2518,-3.6348,3.9946,3.5740,1.0135,0.0005,4.8645,8.6305,6.5696,17.6991,12.9776,1.9935,1.8198
2734.3750,1.7542,3.3529,1.0419,-0.5830,3.5232,2.0472,-7.2518,-6.2789,5.2967,3.2548,2.4735,-0.2803,4.3276,6.4529,6.8901,15.2246,10.4007,2.1280,2.0052
2738.2812,2.5215,4.3204,1.5033,-1.4400,1.1267,4.9379,-3.5818,-8.2984,6.5132,3.1040,3.9915,0.1644,4.7609,4.2101,7.0747,12.1452,8.1978,2.5464,2.3330
2742.1875,3.7400,5.9261,1.8250,-1.9115,-0.0913,7.5109,-1.4306,-9.3009,7.7415,3.4712,5.4121,1.2584,5.8528,2.0850,7.3864,9.2398,6.7627,3.5112,2.9250
2746.0938,5.2143,8.3947,2.6852,-1.9232,-0.0355,9.5103,-1.6969,-9.1533,9.0932,4.4166,6.6990,2.7815,7.0530,0.4576,7.8916,6.9759,6.0605,5.1955,3.8857
2750.0000,6.4547,11.4713,4.5059,-1.3223,0.7807,11.1274,-3.2090,-7.9157,10.6272,5.7084,7.8923,4.3529,7.7933,-0.3276,8.4533,5.6740,5.6525,7.5223,5.0773
2753.9062,7.1085,14.5691,7.3092,0.1172,1.6184,12.7344,-3.5138,-5.7424,12.3188,7.0216,9.0541,5.5113,7.6982,-0.2981,8.9023,5.6000,4.9752,10.1230,6.0844
2757.8125,7.2899,17.0842,10.7702,2.5488,1.9992,14.4711,-0.7273,-2.8436,14.0427,8.1582,10.2300,5.9176,6.7126,0.0429,9.2058,6.7747,3.7032,12.4672,6.4563
2761.7188,7.4855,18.6320,14.3428,5.8382,1.9665,16.0119,4.8950,0.4785,15.5482,9.0946,11.4018,5.5689,5.1051,0.0086,9.4608,8.6934,1.9619,14.0774,6.0571
2765.6250,8.0814,19.0647,17.3611,9.4427,1.9649,16.7021,10.8663,3.7904,16.4580,9.8188,12.4156,4.8546,3.3529,-0.7698,9.7136,10.3534,0.2497,14.6865,5.2325
2769.5312,8.9147,18.3508,19.1350,12.5356,2.4521,15.9827,14.0021,6.5699,16.3616,10.1327,12.9486,4.3694,1.9658,-2.0348,9.7882,10.7605,-0.8639,14.2661,4.6348
2773.4375,9.2756,16.5144,19.1265,14.3629,3.5293,13.8124,12.5390,8.3485,15.0270,9.6491,12.6149,4.5859,1.3224,-3.0699,9.3298,9.6204,-1.0562,12.9735,4.8120
2777.3438,8.4318,13.7411,17.2127,14.6311,4.8415,10.7927,7.3430,8.8872,12.6370,8.0610,11.2338,5.6036,1.5795,-3.2519,8.0895,7.6530,-0.3802,11.1154,5.8611
2781.2500,6.2896,10.5421,13.8920,13.6673,5.7965,7.8951,1.3499,8.2724,9.8658,5.5045,9.1183,7.1499,2.6663,-2.5654,6.2504,6.2008,0.8530,9.1582,7.3927
2785.1562,3.6448,7.7412,10.2218,12.2194,5.9309,5.9510,-2.3612,6.8687,7.6635,2.7042,7.1341,8.8131,4.3432,-1.6548,4.5093,6.3517,2.3239,7.7082,8.8101
2789.0625,1.7546,6.1591,7.4081,11.0149,5.1725,5.2172,-2.5039,5.1472,6.8022,0.7046,6.3665,10.3126,6.2842,-1.3432,3.7768,8.2220,3.9002,7.3551,9.6778
2792.9688,1.4969,6.1402,6.2170,10.3625,3.8416,5.2879,-0.2053,3.4866,7.4358,0.2962,7.5025,11.5872,8.1528,-1.9772,4.6404,10.9408,5.6514,8.3782,9.9126
2796.8750,2.7283,7.2665,6.5628,10.0533,2.4160,5.4053,2.0252,2.0465,8.9685,1.4990,10.2964,12.6470,9.6538,-3.1184,6.9387,13.3235,7.6913,10.4788,9.6994
2800.7812,4.3395,8.5258,7.5614,9.5945,1.2347,4.9699,2.1416,0.7640,10.3516,3.4734,13.5199,13.3412,10.5611,-3.8447,9.7471,14.6759,9.9674,12.7667,9.2561
2804.6875,4.9926,8.8869,8.0469,8.5821,0.3287,3.9249,-0.1289,-0.5475,10.6491,4.9579,15.5260,13.2832,10.7286,-3.4481,11.8158,15.0922,12.1400,14.1115,8.6634
2808.5938,4.0161,7.9102,7.2398,6.9442,-0.5350,2.7668,-3.3603,-2.0600,9.5276,4.9784,15.1400,12.0472,10.0982,-1.9883,12.2030,15.0676,13.6340,13.7182,7.8821
2812.5000,1.8189,5.9758,5.1509,4.9215,-1.6468,2.1808,-5.6622,-3.8162,7.3834,3.3897,12.3329,9.5237,8.7212,-0.2627,10.7256,14.8350,13.8532,11.5951,6.8980
2816.4062,-0.4459,3.9819,2.5006,2.8645,-3.1280,2.5567,-6.0394,-5.6787,5.0629,0.9218,8.2399,6.1608,6.7951,0.7975,7.9856,14.0538,12.4685,8.6011,5.8388
2820.3125,-1.6800,2.7615,0.2579,1.0436,-4.8168,3.7274,-4.8831,-7.3581,3.3971,-1.2684,4.5031,2.8729,4.6900,0.8424,5.0037,12.1429,9.6446,6.0085,4.9532
2824.2188,-1.5000,2.6506,-0.8676,-0.3979,-6.3204,5.1207,-3.3775,-8.5140,2.8451,-2.2341,2.3591,0.6320,2.9164,0.3734,2.7172,8.9591,6.0805,4.8281,4.4821
2828.1250,-0.3116,3.4833,-0.6869,-1.3773,-7.1944,6.2130,-2.4626,-8.9013,3.4130,-1.6790,2.0442,-0.0146,1.9974,0.3529,1.6265,5.2008,2.7980,5.2984,4.5379
2832.0312,1.1639,4.9153,0.5223,-1.8304,-7.1498,6.9297,-2.2410,-8.5036,4.7917,0.0153,2.8534,0.8068,2.2603,1.4482,1.7267,2.1375,0.7295,6.8322,5.0763
2835.9375,2.4647,6.7192,2.2314,-1.7807,-6.1907,7.6549,-2.2229,-7.5827,6.5353,2.1048,3.7342,2.4196,3.6391,3.4830,2.6611,0.8342,0.2779,8.4135,5.9432
2839.8438,3.5900,8.7643,3.8473,-1.4552,-4.6245,8.8030,-2.0401,-6.5950,8.1541,3.8867,3.9646,3.9820,5.6116,5.5022,3.9330,1.4664,1.0865,9.1660,6.9157
2843.7500,4.7133,10.7358,4.8105,-1.2866,-2.9514,10.2700,-1.8882,-5.9898,9.1431,4.9437,3.4686,4.8694,7.3487,6.3884,5.0460,3.2424,2.1793,8.7390,7.6973
2847.6562,5.7223,11.9452,4.6870,-1.7069,-1.6832,11.2405,-2.2726,-5.9832,9.0549,5.1517,2.6355,4.8391,8.0405,5.5583,5.5603,4.9582,2.4465,7.3288,7.9206
2851.5625,6.0486,11.5561,3.3393,-2.8285,-1.1637,10.6125,-3.3248,-6.4317,7.6734,4.5546,1.8772,3.9595,7.2506,3.2473,5.1332,5.7274,1.2296,5.4106,7.2451
2855.4688,5.0056,9.1909,1.1187,-4.2480,-1.4514,7.8353,-4.3882,-6.8879,5.2052,3.2707,1.3080,2.4545,5.1138,0.2338,3.6053,5.3641,-1.3204,3.4302,5.5590
2859.3750,2.4129,5.4822,-1.1100,-5.1683,-2.2999,3.5753,-4.3619,-6.8164,2.3230,1.5191,0.7770,0.6306,2.2752,-2.7119,1.1182,4.2463,-4.3264,1.6723,3.1610
2863.2812,-0.9871,2.0574,-2.2565,-4.8150,-3.2426,-0.3564,-2.6037,-5.8541,-0.0359,-0.2902,0.1775,-1.0867,-0.3914,-5.2055,-1.8246,2.9235,-6.6595,0.3406,0.7475
2867.1875,-3.7031,0.7949,-1.5315,-2.8941,-3.7599,-1.9091,0.3559,-3.9739,-1.0440,-1.5396,-0.2626,-2.1291,-2.1338,-7.2114,-4.4436,1.8488,-7.5183,-0.2973,-0.8651
2871.0938,-4.2299,2.7441,1.0889,0.2156,-3.4878,-0.0217,2.9643,-1.4775,-0.3243,-1.5653,0.0207,-1.9200,-2.5752,-8.7325,-5.9355,1.3718,-6.7764,0.1069,-1.1549
2875.0000,-1.9040,7.4125,4.7887,3.6585,-2.3983,4.6341,3.6567,1.1516,1.9260,0.0334,1.6062,-0.1724,-1.7870,-9.5890,-5.8044,1.7983,-4.9320,1.7989,-0.1846
2878.9062,2.6606,12.9358,8.3169,6.5470,-0.8699,9.9381,1.9958,3.4325,5.0654,3.1021,4.6554,2.8269,-0.1996,-9.5311,-4.1196,3.2670,-2.7546,4.6475,1.4367
2882.8125,7.8371,17.0665,10.6295,8.3521,0.4195,13.4980,-0.9444,5.0120,8.2691,6.8591,8.6728,6.1884,1.5740,-8.5813,-1.5542,5.4672,-0.8902,7.9960,2.9031
2886.7188,11.7869,18.3632,11.3539,9.0161,0.7753,13.9636,-3.2854,5.7050,10.7620,10.1506,12.6298,8.7530,2.9356,-7.2507,0.8500,7.5245,0.3503,10.8034,3.6405
2890.6250,13.3216,16.8387,10.7945,8.7862,-0.1576,11.6304,-3.6340,5.4869,11.9582,11.9451,15.3933,9.6445,3.4902,-6.3460,2.1095,8.3644,0.9716,12.0600,3.5387
2894.5312,12.3531,13.7161,9.5382,7.9625,-2.1470,7.9857,-2.0060,4.4865,11.5433,11.8178,16.2179,8.7166,3.1921,-6.4343,1.7276,7.4517,1.1656,11.2692,2.8730
2898.4375,9.7421,10.5479,7.9985,6.7615,-4.4052,4.5924,0.2693,2.9821,9.5584,10.1429,15.0389,6.6035,2.3932,-7.3688,-0.0933,5.3651,1.2113,8.7178,2.0304
2902.3438,6.7164,8.3341,6.2412,5.3392,-5.9399,2.1379,1.5306,1.3590,6.4569,7.8601,12.4386,4.3258,1.7239,-8.2933,-2.5776,3.6329,1.4380,5.3600,1.2739
2906.2500,4.2351,7.1783,4.1684,3.8580,-6.0697,0.2890,0.8782,-0.0088,3.0313,5.9356,9.3368,2.6975,1.8032,-8.1963,-4.7864,3.7765,2.1687,2.3559,0.6944
2910.1562,2.6404,6.5714,1.8329,2.4597,-4.8170,-1.6609,-1.4003,-0.9233,0.1457,4.8390,6.5923,1.9089,2.8941,-6.6483,-6.0912,6.1796,3.5726,0.5129,0.3135
2914.0625,1.7129,5.9541,-0.4366,1.1398,-2.9237,-3.9622,-4.2658,-1.4788,-1.6337,4.3612,4.7127,1.5427,4.7049,-4.1707,-6.4401,9.6640,5.4765,-0.0631,0.1740
2917.9688,1.0064,5.0970,-2.2294,-0.3402,-1.4481,-6.1020,-6.7527,-2.0328,-2.2890,3.8860,3.7869,0.9828,6.4961,-1.9345,-6.2654,12.1863,7.3045,0.0800,0.3053
2921.8750,0.2066,4.0861,-3.3955,-2.3516,-1.1669,-7.2504,-8.5079,-3.0117,-2.2872,2.9220,3.6189,-0.0865,7.4738,-0.9824,-6.1070,12.2155,8.2801,0.1367,0.6056
2925.7812,-0.7022,3.0586,-4.2176,-5.1154,-2.1455,-7.0507,-9.7221,-4.6510,-2.2188,1.5136,3.9406,-1.4436,7.2472,-1.5304,-6.2141,9.7749,7.8394,-0.4632,0.7977
2929.6875,-1.5188,2.0053,-5.2299,-8.4282,-3.7441,-6.0532,-10.6905,-6.8266,-2.3854,0.2306,4.5539,-2.5145,6.0551,-2.8518,-6.4013,6.3550,6.0043,-1.7613,0.5637
2933.5938,-2.0507,0.8286,-6.7987,-11.6330,-5.0436,-5.3839,-11.4933,-9.0918,-2.6424,-0.2644,5.3291,-2.8299,4.6030,-3.8138,-6.2568,3.7727,3.4322,-3.3263,-0.2104
2937.5000,-2.2931,-0.4304,-8.7961,-13.9114,-5.4009,-5.8741,-12.0572,-10.9035,-2.6079,0.2502,6.1008,-2.4141,3.6104,-3.6542,-5.5407,2.8853,1.0586,-4.5803,-1.2824
2941.4062,-2.4280,-1.4506,-10.6356,-14.7330,-4.7685,-7.3407,-12.4197,-11.8982,-2.0574,1.3258,6.5947,-1.8124,3.3755,-2.4331,-4.4640,3.1592,-0.4560,-5.1489,-2.1583
2945.3125,-2.6501,-1.7521,-11.6528,-14.1592,-3.5954,-8.6123,-12.8076,-12.0476,-1.1636,2.1124,6.5002,-1.7234,3.6432,-0.8670,-3.6213,3.3705,-1.0998,-5.0062,-2.4158
2949.2188,-2.9606,-1.0127,-11.5394,-12.7954,-2.4319,-8.3289,-13.3736,-11.6105,-0.3679,1.9453,5.6836,-2.4974,3.8414,0.2690,-3.5994,2.7706,-1.4436,-4.3609,-2.0198
2953.1250,-3.1054,0.6685,-10.5028,-11.4313,-1.5545,-5.9311,-13.8537,-10.9309,0.0138,0.8190,4.3890,-3.8647,3.4855,0.6799,-4.5370,1.6846,-2.1882,-3.4279,-1.3826
2957.0312,-2.7306,2.7799,-9.0514,-10.6229,-0.8808,-2.1033,-13.5873,-10.2283,0.1077,-0.6053,3.2310,-5.1095,2.4470,0.6319,-5.9565,1.0426,-3.6580,-2.2999,-1.1119
2960.9375,-1.6592,4.6828,-7.6036,-10.4806,-0.1907,1.6589,-12.0404,-9.5083,0.4244,-1.4639,2.9024,-5.5825,0.9225,0.5790,-7.0028,1.3090,-5.6015,-1.0211,-1.6295
2964.8438,-0.0789,5.9613,-6.2444,-10.7471,0.5744,4.0234,-9.4461,-8.6259,1.4396,-1.2778,3.7381,-5.1933,-0.8116,0.6963,-6.9332,1.8409,-7.4139,0.2332,-2.9393
2968.7500,1.5220,6.5890,-4.8079,-11.0339,1.2105,4.6216,-6.9254,-7.4265,3.1468,-0.2250,5.4337,-4.5130,-2.6084,0.7311,-5.5278,1.3496,-8.5754,1.0808,-4.6925
2972.6562,2.6509,6.8170,-3.1757,-11.0091,1.4348,4.1131,-5.7922,-5.8516,4.9644,1.0821,7.1616,-4.3842,-4.4378,0.2854,-3.1585,-0.8469,-8.9559,1.0958,-6.4571
2976.5625,3.1287,6.9023,-1.5089,-10.4365,1.1919,3.5344,-6.4599,-3.9476,6.1042,2.0996,8.0648,-5.2864,-6.1873,-0.7344,-0.5057,-3.8748,-8.7707,0.1323,-7.9471
2980.4688,3.1770,6.8908,-0.1967,-9.1331,0.8005,3.4717,-7.8479,-1.8015,6.1277,2.7095,7.8126,-6.9066,-7.4997,-1.9071,1.8428,-5.6041,-8.2735,-1.4458,-9.0349
2984.3750,3.1855,6.5995,0.4362,-6.9803,0.7928,3.6836,-7.9404,0.5168,5.2481,3.1447,6.8158,-8.2421,-7.8493,-2.5292,3.6252,-4.1455,-7.4750,-2.8605,-9.5885
2988.2812,3.3224,5.7696,0.4106,-4.0382,1.5518,3.4075,-5.2796,2.9472,4.1330,3.5745,5.9097,-8.2065,-6.8493,-2.1177,4.8467,0.5532,-6.1364,-3.3427,-9.3434
2992.1875,3.3004,4.2558,0.1111,-0.6581,3.0305,2.0498,-0.3319,5.3752,3.3699,3.7484,5.7048,-6.3445,-4.5565,-0.7810,5.5454,6.3145,-4.0325,-2.6160,-7.9865
2996.0938,2.5185,2.1228,0.0144,2.5631,4.7772,-0.3036,4.4075,7.5778,3.0288,3.0544,6.0798,-3.1676,-1.5088,0.8483,5.6207,9.9811,-1.2487,-1.0899,-5.4227
3000.0000,0.5133,-0.3785,0.3375,5.0314,6.2444,-2.9280,5.8650,9.2479,2.6746,1.0025,6.2165,0.1324,1.5692,2.0713,4.8831,9.4755,1.7530,0.4065,-1.9976
3003.9062,-2.6012,-2.9001,0.8862,6.4643,7.1354,-4.9713,2.4992,10.1053,1.8019,-2.2469,5.1911,2.4062,4.1861,2.6177,3.2802,5.1824,4.3652,1.1826,1.5491
3007.8125,-6.0550,-5.0898,1.2186,7.0255,7.5224,-6.0097,-4.4284,10.0340,0.3148,-5.7670,2.7066,3.2207,6.3096,2.7974,1.0968,-0.3486,6.1811,1.1406,4.4207
3011.7188,-8.7966,-6.6704,0.9884,7.1591,7.6719,-6.2305,-11.4202,9.1576,-1.3566,-8.3215,-0.5829,3.0353,8.2292,3.2100,-1.0603,-4.1216,7.1848,0.7933,6.1693
3015.6250,-10.0738,-7.5099,0.1997,7.2350,7.7606,-6.1526,-14.8511,7.8003,-2.5872,-9.0926,-3.4175,2.7906,10.1823,4.2585,-2.5108,-4.5477,7.6562,0.8349,6.8797
3019.5312,-9.8046,-7.6652,-0.8077,7.2801,7.7462,-6.1459,-13.1991,6.3547,-3.0337,-8.1430,-4.7140,3.2301,12.0660,5.8551,-2.8262,-2.1358,7.8940,1.5946,7.0076
3023.4375,-8.4750,-7.3470,-1.6069,7.0171,7.5048,-6.1311,-7.8617,5.1337,-2.8305,-6.2581,-4.2210,4.4423,13.4820,7.5311,-2.0167,1.3034,7.9991,2.7927,7.0171
3027.3438,-6.6643,-6.7793,-1.9540,6.1858,7.0886,-5.6561,-2.0427,4.2884,-2.3357,-4.2947,-2.5782,5.9164,14.0752,8.8311,-0.4721,4.1336,7.8800,3.7861,7.1070
3031.2500,-4.5861,-6.0193,-1.8855,4.8789,6.8355,-4.2520,1.4373,3.8196,-1.6699,-2.5506,-0.7642,7.0073,13.8723,9.6508,1.2843,5.8422,7.4331,4.1046,7.2108
3035.1562,-2.0174,-4.8769,-1.6053,3.5921,7.1771,-1.7891,1.8286,3.6508,-0.4964,-0.6530,0.6185,7.4135,13.3132,10.2462,2.8576,6.8522,6.7031,3.8499,7.2117
3039.0625,1.3322,-3.0464,-1.2938,2.9097,8.2666,1.4003,0.5204,3.6954,1.7040,1.9529,1.6722,7.3038,12.9260,10.9267,4.1122,7.6046,5.8643,3.6330,7.1295
3042.9688,5.3254,-0.4035,-0.9993,3.0481,9.7387,4.6759,-0.3821,3.8754,5.0550,5.3286,2.9242,7.0417,12.9017,11.7062,5.1377,7.8818,5.0463,4.0906,7.0886
3046.8750,9.2125,2.7425,-0.6699,3.6216,10.8388,7.3884,0.2312,4.0995,8.9040,8.7527,4.7144,6.7934,12.9200,12.2129,6.1178,7.0179,4.1836,5.3563,7.0996
3050.7812,11.9623,5.6778,-0.2463,3.8439,10.8775,9.1525,1.7850,4.2487,12.0349,11.0984,6.7850,6.3773,12.3774,11.9330,7.2035,4.7633,3.0523,6.9074,6.8864
