Time,Fp1,F3,C3,P3,O1,F7,T3,T5,Fz,Fp2,F4,C4,P4,O2,F8,T4,T6,Cz,Pz
0.0000,2.3460,3.0062,1.8894,-10.2189,-4.1960,1.4980,4.5819,-6.3755,-1.1140,-3.8407,-0.9768,0.5094,-2.5807,-5.9927,1.1398,1.2828,-0.2694,-9.3735,-0.4038
3.9062,2.6291,4.6599,-2.2664,-12.0197,-7.4162,4.1716,0.3833,-7.7557,-2.0594,-3.0295,-4.0878,1.3530,-4.4361,-6.9588,-0.0671,3.3210,-0.4542,-10.8477,-5.1411
7.8125,0.6519,5.0203,-4.6778,-12.1790,-10.7458,6.7532,-2.3330,-7.4671,-3.6811,-2.0392,-5.1851,1.9326,-6.3463,-6.6239,0.5113,5.0582,-1.0289,-10.7553,-7.2383
11.7188,-3.6448,3.8846,-4.5009,-10.6072,-13.5292,8.0782,-2.7208,-5.6766,-5.8628,-1.4880,-3.7386,2.0337,-8.0680,-5.3248,2.4827,5.7011,-2.6263,-9.0219,-5.7307
15.6250,-9.0363,2.0630,-2.7154,-8.2159,-15.7606,7.6737,-1.6195,-3.6293,-8.3794,-1.8135,-0.9929,1.9060,-9.7693,-4.1367,4.0980,4.9649,-5.7058,-6.5257,-1.9584
19.5312,-13.7706,0.7643,-1.3959,-6.1196,-17.9079,5.9925,-0.9288,-2.6918,-11.0152,-2.9288,0.8475,2.0565,-11.8324,-3.9648,3.4162,3.1740,-10.1442,-4.3787,1.4279
23.4375,-16.6108,0.7192,-2.1350,-4.7573,-20.2611,4.0760,-2.1984,-3.2781,-13.5383,-4.2363,0.1832,2.8178,-14.3671,-4.7626,-0.2094,1.0322,-15.0596,-3.0988,2.4042
27.3438,-17.4233,1.7190,-4.8304,-3.6826,-22.4051,2.9011,-5.5006,-4.5341,-15.5926,-5.0103,-2.8437,4.0116,-16.8795,-5.5743,-5.4808,-0.7595,-19.0846,-2.3566,0.9559
31.2500,-16.9759,2.8883,-7.7909,-2.1846,-23.3709,2.8454,-9.4370,-5.0586,-16.7044,-4.8745,-6.5124,4.9703,-18.4771,-5.4073,-9.9297,-1.8020,-21.0366,-1.4721,-1.1544
35.1562,-16.2270,3.4297,-9.0939,-0.1575,-22.4407,3.5809,-12.2486,-4.0867,-16.5159,-4.0186,-8.8625,4.9294,-18.5536,-4.2024,-11.6283,-2.0777,-20.6199,-0.1786,-2.0130
39.0625,-15.7106,3.2218,-8.1418,1.6095,-19.9549,4.4045,-13.1587,-2.1549,-15.1127,-2.9994,-9.1721,3.5452,-17.4212,-3.0225,-10.5842,-1.8318,-18.6857,1.0659,-1.2423
42.9688,-15.4272,2.8146,-6.1997,2.0645,-17.3494,4.7391,-12.9169,-0.6690,-13.1376,-2.2974,-8.4361,1.1924,-16.2927,-3.2011,-8.7589,-1.3816,-16.7983,1.5340,-0.3771
46.8750,-15.1693,2.8731,-5.4875,0.9525,-16.2273,4.4725,-13.1593,-0.6969,-11.4912,-1.9858,-8.5016,-1.1707,-16.4753,-5.0927,-8.6629,-0.9793,-16.3108,1.0567,-1.6230
50.7812,-14.8652,3.5615,-7.5240,-0.6473,-17.1028,3.9476,-15.1201,-1.9782,-10.7557,-1.7684,-10.5770,-2.5111,-18.3145,-7.4927,-11.5613,-0.7743,-17.5306,0.4389,-5.9991
54.6875,-14.6117,4.3735,-11.9948,-0.9079,-18.8486,3.6520,-18.7065,-3.0146,-10.7762,-1.3326,-14.3035,-2.3044,-20.7361,-8.3277,-16.6164,-0.8406,-19.5523,0.9827,-12.3703
58.5938,-14.4407,4.5267,-16.9880,1.3669,-19.4268,3.8368,-22.6276,-2.2399,-10.7827,-0.6963,-18.0964,-0.8396,-21.8691,-6.1993,-21.5706,-1.2028,-20.9030,3.4112,-18.1588
62.5000,-14.1520,3.5795,-20.3780,5.6448,-17.4672,4.3116,-25.4244,0.6379,-10.0277,-0.2299,-20.4338,0.9502,-20.3995,-1.5950,-24.4019,-1.8245,-20.5673,7.0854,-21.1821
66.4062,-13.4661,1.7770,-21.2696,9.8201,-13.4892,4.5408,-26.5635,4.2347,-8.4591,-0.3119,-21.0142,2.0389,-16.6552,3.2601,-24.6715,-2.5704,-18.6629,10.2696,-21.1736
70.3125,-12.3864,-0.1229,-20.4291,11.6568,-9.7130,3.9780,-26.7508,6.4398,-6.8433,-0.8959,-20.8531,1.9143,-12.5213,5.9260,-23.5828,-3.1917,-16.2684,11.3837,-19.8120
74.2188,-11.3795,-1.3743,-19.4664,10.4938,-8.4510,2.4295,-27.2684,6.0443,-6.1591,-1.3776,-21.2777,0.8703,-10.1323,5.5556,-22.8082,-3.3806,-14.5238,10.3193,-19.2864
78.1250,-11.0903,-1.7104,-19.5123,7.8717,-10.2318,0.2118,-28.9040,3.7809,-6.6987,-0.9292,-22.6917,-0.2039,-10.2635,3.5976,-23.0941,-2.9015,-13.6873,8.7222,-20.5742
82.0312,-11.7406,-1.4421,-20.4656,6.4911,-13.1412,-2.0171,-31.3260,1.9000,-7.6369,0.9021,-24.1624,-0.4231,-11.6641,2.7886,-23.7636,-1.7498,-12.8914,8.8757,-22.7946
85.9375,-12.7271,-1.1937,-21.3484,8.1916,-14.0307,-3.6714,-33.3653,2.5195,-7.5287,3.7758,-24.1891,0.4742,-11.9269,5.1259,-23.4616,-0.2504,-10.8255,11.9226,-24.0963
89.8438,-12.8646,-1.5279,-21.3665,12.4576,-10.8153,-4.6351,-33.9384,5.9656,-5.4592,6.6657,-22.0266,1.8771,-9.3173,10.3208,-21.4642,0.9900,-6.8596,16.7740,-23.2962
93.7500,-11.2112,-2.7118,-20.7100,16.6387,-4.1638,-5.3603,-32.8594,10.3919,-1.9606,8.4634,-18.4633,2.6048,-4.1932,15.9115,-18.4388,1.3024,-1.7419,20.6322,-20.9081
97.6562,-7.8696,-4.6885,-20.3873,17.8140,2.7651,-6.5504,-30.9112,13.0344,1.1204,8.6755,-15.3773,1.5930,1.1210,18.9841,-16.0169,0.2671,2.7225,20.8759,-18.7289
101.5625,-4.0766,-7.1499,-21.2237,14.9723,6.4744,-8.6006,-29.1480,12.2278,1.8735,7.7266,-14.3705,-1.4464,3.9998,18.2450,-15.5187,-2.0416,4.8537,16.9926,-18.3276
105.4688,-1.4034,-9.6067,-22.8800,9.8955,5.6571,-11.1798,-27.9966,8.7035,-0.1513,6.6502,-15.5266,-5.8032,3.5224,14.9266,-16.8552,-5.0384,4.3151,11.1375,-19.6601
109.3750,-0.6109,-11.4685,-23.7604,6.0560,2.2426,-13.2964,-26.8678,5.1866,-3.3133,6.3807,-17.2598,-10.1209,1.3004,11.8815,-18.4901,-7.8850,2.4606,6.8510,-20.9185
113.2812,-1.0493,-12.2212,-21.9865,6.2914,0.1387,-13.8871,-24.5862,4.5484,-4.7515,7.1404,-17.3947,-13.1086,0.4363,11.5614,-18.5094,-9.9067,1.5016,6.7953,-19.7516
117.1875,-1.1249,-11.6966,-16.7641,10.9101,2.5234,-12.5762,-20.3313,7.8232,-2.2681,8.3349,-14.6921,-14.1824,3.3125,14.3641,-15.9985,-10.9293,3.0315,11.0787,-14.9455
121.0938,0.4652,-10.2664,-9.1397,17.5525,9.6132,-10.0759,-14.4076,13.4956,4.0660,9.0102,-9.7264,-13.6740,9.8000,18.5073,-11.7150,-11.3274,6.9265,17.2998,-7.3395
125.0000,3.6656,-8.7449,-1.5706,22.8436,18.4890,-7.8816,-8.2830,18.5389,11.7569,8.5326,-4.5235,-12.5334,17.2005,21.4214,-7.6005,-11.7428,11.3946,22.2083,0.6378
128.9062,7.0122,-7.9587,3.4237,24.6002,25.0760,-7.3969,-3.8415,20.4363,17.3635,7.0163,-1.2713,-11.7582,21.9853,21.5619,-5.5251,-12.6479,14.1478,23.7541,6.4142
132.8125,8.6837,-8.2309,4.6337,23.0311,26.8404,-9.0438,-2.3170,18.7486,18.6260,5.2222,-1.0196,-11.9054,22.1015,19.3159,-6.1567,-14.0292,13.8957,22.1159,8.6741
136.7188,7.8742,-9.1641,2.6978,20.1871,24.3114,-11.9714,-3.5740,15.1763,15.8010,4.0220,-3.1946,-12.9206,18.2342,16.4349,-8.6696,-15.3929,11.1508,19.1202,7.8471
140.6250,5.4367,-9.9305,-0.4464,18.2167,20.4513,-14.5851,-6.1687,12.1684,11.3260,3.8124,-6.1093,-14.2803,13.2002,14.5444,-11.3570,-16.0734,7.8351,16.6520,5.5491
144.5312,3.2942,-9.8882,-2.7357,17.7925,18.4587,-15.5468,-8.1426,11.1457,8.1148,4.2683,-7.9927,-15.2739,9.9933,13.9102,-12.6280,-15.6299,6.0043,15.3025,3.5307
148.4375,3.0572,-9.0539,-3.0088,17.8263,19.6377,-14.5574,-8.0785,11.6040,7.7109,4.5789,-7.8400,-15.2520,9.9040,13.3560,-11.7398,-14.0758,6.5784,14.1969,2.8559
152.3438,4.8909,-8.0441,-1.3384,16.5545,22.7915,-12.3955,-5.8184,11.6660,9.5431,3.9853,-5.6719,-13.7922,11.9798,11.3133,-8.9364,-11.8168,8.9076,11.9782,3.6832
156.2500,7.4678,-7.5144,1.3552,13.0628,25.4009,-10.2320,-2.4541,9.5905,11.6722,2.2591,-2.2596,-10.8262,14.0489,7.1551,-5.1017,-9.3864,11.3851,8.0778,5.5283
160.1562,8.9991,-7.5529,4.0157,8.0730,25.5758,-8.7668,0.3775,5.1109,12.3520,-0.1717,1.3580,-6.7483,14.4249,1.8142,-1.2578,-7.1818,12.6119,3.2791,7.6636
164.0625,8.5273,-7.5512,6.0148,3.4553,23.3262,-7.8387,1.4775,-0.3339,11.2351,-2.4977,4.2828,-2.4194,13.0281,-2.7320,1.8322,-5.3626,12.2944,-0.7958,9.4164
167.9688,6.5113,-6.6949,7.3151,0.9022,20.3308,-6.7649,0.7774,-4.5815,9.4225,-4.0068,6.0101,1.0592,11.2093,-4.7096,3.8793,-3.9205,11.3070,-2.8138,10.3508
171.8750,4.3275,-4.6959,8.2677,0.7804,18.5280,-5.0848,-0.6585,-6.1963,8.4637,-4.4594,6.5585,2.8102,10.5595,-3.6569,5.1154,-2.8015,10.9491,-2.6030,10.3986
175.7812,3.1599,-2.1538,9.2518,1.9622,18.6499,-3.0753,-1.3186,-5.3685,9.1348,-4.1500,6.4633,2.6737,11.6686,-0.6869,6.1580,-1.9559,11.9562,-1.1727,9.9006
179.6875,3.1754,-0.2140,10.3703,2.6806,19.7437,-1.6035,-0.2000,-3.6817,10.8837,-3.6488,6.5529,1.3922,13.7208,2.1943,7.6677,-1.3011,13.9360,0.0421,9.4362
183.5938,3.5789,0.2385,11.3401,1.7300,19.9234,-1.4385,2.5512,-2.9762,12.2550,-3.4132,7.5025,0.2702,15.1161,3.2188,9.8908,-0.6832,15.5773,0.0987,9.4240
187.5000,3.4000,-0.7840,11.6226,-0.8289,17.7166,-2.5858,5.7183,-4.1237,11.8859,-3.5193,9.3695,0.4292,14.5737,1.7363,12.3526,0.0722,15.4582,-1.0121,9.7217
191.4062,2.2926,-2.4153,10.7451,-3.8659,13.0335,-4.2022,7.7566,-6.5380,9.3306,-3.6728,11.4459,2.1042,11.9076,-1.6081,13.9904,1.0310,12.9169,-2.6072,9.5845
195.3125,0.6867,-3.6151,8.6616,-6.0304,7.1440,-5.1732,7.7182,-8.6942,5.1977,-3.4719,12.6318,4.4711,8.0001,-5.3899,13.7657,2.0547,8.4412,-3.9331,8.1458
199.2188,-0.7794,-3.9181,5.9303,-6.6045,1.7821,-4.9032,5.7574,-9.2421,0.6293,-2.7370,12.1583,6.1777,4.1053,-8.2287,11.4126,2.8511,3.3607,-4.6585,5.1630
203.1250,-1.9951,-3.6370,3.5347,-5.8117,-1.9470,-3.6883,2.9111,-7.9291,-3.4198,-1.6803,10.1664,6.2630,1.0419,-9.4392,7.7702,3.1672,-0.9387,-4.9200,1.4608
207.0312,-3.6010,-3.3792,2.3731,-4.4765,-4.1307,-2.3838,0.3496,-5.7236,-6.6076,-0.7972,7.6781,4.8464,-1.1835,-9.1965,4.3692,2.9820,-3.7787,-4.9954,-1.3680
210.9375,-6.4633,-3.3384,2.6958,-3.3715,-5.7774,-1.6511,-1.3452,-4.0984,-9.1419,-0.5481,5.9194,3.0934,-3.1457,-8.2068,2.4715,2.5320,-5.4657,-4.9368,-1.9104
214.8438,-10.8118,-3.0245,3.8761,-2.7345,-7.9677,-1.4099,-2.3779,-3.9994,-11.3934,-1.0436,5.4629,2.4462,-5.4100,-7.1391,2.2259,2.1219,-6.9345,-4.4759,0.1034
218.7500,-15.7646,-1.7169,4.7342,-2.2442,-11.0221,-0.9557,-3.3364,-5.2176,-13.5244,-1.9526,5.8384,3.6316,-8.0258,-6.1845,2.5800,1.8573,-9.0116,-3.2573,3.5452
222.6562,-19.6841,0.7338,4.2592,-1.3984,-14.2296,0.3532,-4.5765,-6.5833,-15.3727,-2.7047,5.9270,6.1215,-10.4396,-5.0172,2.0592,1.5217,-11.7946,-1.2016,6.5789
226.5625,-21.1737,3.4844,2.2583,0.0181,-16.2976,2.4114,-5.9250,-6.8263,-16.6138,-2.8572,4.8456,8.4271,-11.8668,-3.1738,-0.1412,0.7252,-14.5680,1.2851,7.8210
230.4688,-20.0154,5.1222,-0.5329,1.7130,-16.2296,4.2756,-6.9369,-5.4866,-17.0399,-2.3759,2.6305,9.0328,-11.8694,-0.5785,-3.5712,-0.7594,-16.3153,3.4255,7.1277
234.3750,-17.3766,4.6857,-2.9811,3.0603,-14.0665,4.7895,-7.4592,-3.2279,-16.7566,-1.6326,0.1713,7.3483,-10.7604,2.1863,-6.9022,-2.7286,-16.4746,4.4595,5.4421
238.2812,-15.1242,2.4844,-4.3605,3.5505,-10.9942,3.4582,-7.9728,-1.3282,-16.1775,-1.1189,-1.5585,4.0584,-9.5513,4.1237,-8.9790,-4.5735,-15.3961,4.0890,3.8633
242.1875,-14.7026,-0.0013,-4.8554,3.2145,-8.7064,0.8837,-9.3603,-0.7131,-15.8186,-1.0795,-2.3576,0.6650,-9.4235,4.4713,-9.7326,-5.6230,-14.1492,2.7117,2.6928
246.0938,-16.3085,-1.1558,-5.3979,2.7147,-8.3924,-1.6081,-12.2317,-1.2378,-16.0073,-1.3252,-3.0365,-1.4466,-11.0049,3.3017,-10.2377,-5.5778,-13.7862,1.2814,1.2077
250.0000,-18.8580,-0.4463,-6.9794,2.9896,-9.9986,-2.8902,-16.3414,-1.7676,-16.6734,-1.3635,-4.8192,-1.8010,-13.8996,1.5810,-11.8595,-4.7259,-14.5831,0.8235,-1.6875
253.9062,-20.7069,1.1321,-9.9568,4.6311,-12.2810,-2.8101,-20.6012,-1.0312,-17.3635,-0.7488,-8.3505,-1.0048,-16.8182,0.5437,-15.1402,-3.7666,-15.8265,1.8411,-6.4804
257.8125,-20.6272,1.7795,-13.8549,7.3869,-13.6590,-2.2216,-23.7323,1.3635,-17.5087,0.6001,-13.0758,-0.2428,-18.3061,0.7826,-19.2729,-3.3434,-16.3379,3.9559,-12.5288
261.7188,-18.4524,0.2723,-17.7589,10.1725,-13.3083,-2.2419,-25.0838,4.5264,-16.8076,2.3408,-17.4824,-0.4704,-17.6502,1.7472,-22.5584,-3.6002,-15.3695,6.0496,-18.3922
265.6250,-15.0773,-3.0476,-20.9367,11.6837,-11.7155,-3.3061,-24.9915,6.8594,-15.4719,3.9392,-20.0385,-1.8237,-15.3624,2.1260,-23.5021,-4.0684,-13.1969,6.9009,-22.7261
269.5312,-11.9014,-6.4542,-23.1969,11.2825,-10.2546,-4.7586,-24.4133,7.2494,-14.1293,5.0110,-20.1504,-3.5930,-12.8606,0.9316,-21.7631,-3.9795,-10.9322,5.9803,-25.0381
273.4375,-10.0842,-8.0833,-24.7606,9.5635,-10.0576,-5.3273,-24.1523,6.0109,-13.3992,5.5225,-18.4745,-4.7367,-11.5081,-1.4994,-18.3250,-2.8140,-9.6666,3.8888,-25.7765
277.3438,-10.0036,-7.3193,-25.8566,8.1263,-11.0222,-4.1548,-24.3120,4.8201,-13.4202,5.7239,-16.4199,-4.5999,-11.6605,-3.4336,-14.8595,-0.7363,-9.5945,2.0792,-25.7952
281.2500,-11.1405,-5.2827,-26.4633,8.5778,-11.7619,-1.6254,-24.4179,5.5847,-13.6985,5.9002,-15.2590,-3.3990,-12.4248,-2.8102,-12.7959,1.3720,-9.8246,1.9515,-25.7094
285.1562,-12.3804,-4.0488,-26.4332,11.3673,-10.6267,0.6610,-24.0640,8.9961,-13.4454,6.1598,-15.4723,-2.1790,-12.3463,1.2232,-12.7065,2.3338,-9.0730,3.8797,-25.6513
289.0625,-12.5530,-5.1739,-25.8367,15.2798,-7.0663,0.8159,-23.4742,13.8282,-12.1932,6.4324,-16.6873,-2.2477,-10.5404,7.4513,-14.2669,1.3321,-6.7257,6.8678,-25.4998
292.9688,-10.9545,-8.5992,-25.1163,18.0604,-2.2550,-2.0992,-23.4178,17.5794,-10.2066,6.6575,-18.0904,-4.3846,-7.3955,13.1700,-16.6078,-1.5663,-3.4169,9.1638,-25.2218
296.8750,-7.6296,-12.6990,-24.7932,17.8790,1.6157,-7.3518,-24.4658,18.1094,-8.3061,6.9750,-18.9054,-8.2725,-4.2567,15.9302,-18.7010,-5.3334,-0.6030,9.4944,-24.9119
300.7812,-3.2964,-15.3885,-24.9054,14.6884,2.9578,-12.8338,-26.1853,15.1624,-7.1652,7.7167,-18.6215,-12.5160,-2.2813,15.2534,-19.5975,-8.4341,0.6047,8.0754,-24.4823
304.6875,1.0344,-15.4681,-24.6813,10.4920,2.1143,-16.2094,-27.0194,10.6763,-6.6082,9.1613,-16.9766,-15.3085,-1.3583,13.0354,-18.5991,-9.6085,0.4477,6.6202,-23.3718
308.5938,4.5401,-13.2793,-22.8580,8.2114,1.2988,-16.2091,-25.1280,7.5941,-5.5297,11.2252,-13.9271,-15.4336,-0.0210,12.2438,-15.5088,-8.5748,0.5136,7.2286,-20.7020
312.5000,6.9056,-10.3107,-18.5571,9.8163,3.0460,-13.2899,-19.7042,7.9487,-2.6308,13.3441,-9.7581,-13.0315,3.4490,14.7689,-10.9022,-6.2482,2.6023,10.8597,-15.9241
316.4062,8.3157,-8.1489,-12.1251,14.9532,8.2356,-9.2985,-11.8295,11.5351,2.4869,14.6872,-5.2305,-9.6342,9.4883,19.9668,-6.1398,-4.3021,7.2524,16.4655,-9.4977
320.3125,9.1659,-7.5574,-5.2630,21.0412,15.1784,-6.3938,-4.1640,16.0864,8.7049,14.6066,-1.4932,-7.3673,16.4996,24.9872,-2.8824,-4.2619,13.0593,21.4730,-2.9924
324.2188,9.7229,-8.2552,-0.2233,24.8319,20.5506,-5.8995,0.4435,18.8205,13.8267,13.0437,0.3746,-7.7420,21.5968,26.7049,-2.2329,-6.6237,17.3962,23.3704,1.6252
328.1250,9.9932,-9.3900,1.4703,24.4155,21.6070,-7.7424,0.5737,18.2585,15.8948,10.6177,-0.0085,-10.7638,22.4565,23.8903,-4.0127,-10.5259,18.1178,21.3421,3.1206
332.0312,9.8868,-10.2272,-0.0607,20.3380,18.1162,-10.7172,-2.9572,15.0543,14.5041,8.3219,-1.9699,-14.9392,18.9835,18.0647,-6.7286,-14.2100,15.0538,16.8146,1.7640
335.9375,9.5164,-10.5317,-3.1221,15.0969,12.6073,-13.3184,-7.6167,11.3139,11.1539,6.9992,-4.0352,-18.1983,13.5377,12.4344,-8.3688,-16.0318,10.1990,12.5061,-0.8157
339.8438,9.3408,-10.4591,-5.4646,11.4109,8.7292,-14.5791,-10.6392,8.9803,8.3226,6.9052,-4.7109,-19.1485,9.4696,9.6944,-7.5684,-15.4107,6.4285,10.6241,-2.6106
343.7500,9.9693,-10.1827,-5.5680,10.4848,8.8944,-14.4368,-10.5240,8.5025,7.8827,7.6020,-3.3146,-17.8314,8.9582,10.2907,-4.3753,-13.1143,5.6385,11.4581,-2.3676
347.6562,11.7138,-9.6324,-3.3709,11.4456,12.8810,-13.5013,-7.6583,8.7317,9.9662,8.2216,-0.3049,-15.4936,11.6814,12.3501,-0.1058,-10.6861,7.6244,13.3308,-0.1214
351.5625,14.2161,-8.5559,-0.0499,12.2511,18.3150,-12.4846,-3.8074,8.0320,13.0702,7.9305,3.0995,-13.5676,15.2585,13.2348,3.5759,-9.3954,10.4534,13.9027,3.1495
355.4688,16.4792,-6.8114,2.8873,11.3199,22.5476,-11.7228,-0.9303,5.6821,15.2724,6.3420,5.7258,-12.6161,17.1024,11.5023,5.6775,-9.4211,11.9874,11.8690,6.3778
359.3750,17.3724,-4.6164,4.5239,8.6653,24.4542,-11.0846,-0.1089,2.4707,15.6152,3.6850,7.1186,-12.0042,16.2970,7.8280,6.3012,-9.8264,11.3979,7.8432,9.0912
363.2812,16.3303,-2.5425,4.8939,5.7482,24.8467,-10.2509,-1.1679,0.0494,14.6284,0.6834,7.6576,-10.5147,14.1319,4.2996,6.2736,-9.3231,9.5865,3.8387,11.4746
367.1875,13.7881,-1.2520,4.6726,4.2438,25.3444,-9.0813,-3.0428,-0.4170,13.6627,-1.7622,8.1285,-7.4132,12.9635,2.7342,6.3923,-7.2583,8.2996,1.7785,13.8902
371.0938,11.0271,-1.1590,4.5448,4.7009,26.7468,-7.7606,-4.5161,0.7730,13.6346,-2.9366,9.1264,-3.1390,14.3258,3.3486,6.9235,-4.1001,8.7071,2.1353,16.3359
375.0000,9.4764,-2.2272,4.7347,6.0984,28.2663,-6.6227,-4.8384,2.0200,14.2169,-2.5748,10.7203,0.9061,17.7361,4.7543,7.6798,-1.0749,10.5591,3.6533,18.2901
378.9062,9.8777,-4.0053,4.9559,6.5918,28.2058,-5.8332,-3.9571,1.6026,14.1163,-0.9420,12.5446,3.3070,21.0539,5.1756,8.4704,0.7517,12.5145,4.2918,19.0178
382.8125,11.8235,-5.8552,4.7055,4.8514,25.4562,-5.2284,-2.3651,-1.0319,12.1860,1.2890,14.1477,3.5997,22.0533,3.8655,9.4187,1.2441,13.2883,2.6585,18.0403
386.7188,13.9562,-7.2403,3.6238,0.9879,20.5393,-4.4740,-0.7602,-4.8492,8.4524,3.3122,15.2835,2.5308,19.9735,1.6142,10.8216,1.2322,12.6551,-1.0945,15.3984
390.6250,14.7095,-7.9291,1.6943,-3.5774,15.3182,-3.4211,0.2925,-7.9851,4.2074,4.5092,15.9576,1.4498,15.9045,0.0191,12.7058,1.8066,11.5158,-5.4839,11.5720
394.5312,13.1514,-8.0263,-0.7687,-7.1378,11.6016,-2.3325,0.5787,-9.0917,1.0722,4.6845,16.2782,1.3323,11.8034,0.1679,14.5508,3.4437,11.0257,-8.7728,7.2133
398.4375,9.4393,-7.8228,-3.2618,-8.8175,9.7660,-1.7277,0.2861,-8.2521,-0.2409,4.1117,16.3021,2.1862,8.9836,1.8045,15.5205,5.6549,11.5257,-10.0866,2.9387
402.3438,4.6546,-7.5458,-5.2685,-8.9707,8.5024,-1.9054,-0.1189,-6.7967,-0.5007,3.3667,16.0075,3.2551,7.2524,3.6038,15.0733,7.4290,12.1536,-9.8022,-0.7191
406.2500,0.1557,-7.1599,-6.4269,-8.6441,5.8911,-2.5142,-0.1508,-6.1988,-1.4146,3.0313,15.3725,3.7847,5.2993,4.2763,13.4349,8.0905,11.4418,-9.0374,-3.3039
410.1562,-3.1415,-6.3670,-6.6659,-8.5998,0.9623,-2.5843,0.4109,-6.9173,-4.3761,3.4098,14.4365,3.6872,1.9378,3.5762,11.4831,7.8575,8.4245,-8.7222,-4.5170
414.0625,-5.1380,-4.8449,-6.2501,-8.6913,-5.4693,-1.1158,1.3741,-8.0692,-9.4364,4.3966,13.2751,3.5606,-2.8221,2.4070,10.0772,7.6188,3.3902,-8.9706,-4.3863
417.9688,-6.4043,-2.5857,-5.6649,-8.0697,-11.3237,2.1345,2.2318,-8.1656,-15.2350,5.5459,11.9369,4.0765,-7.6999,1.9644,9.3581,8.0958,-2.2854,-9.1650,-3.3538
421.8750,-7.6606,-0.0806,-5.3532,-6.0262,-14.7162,6.2609,2.4642,-6.3319,-19.8940,6.2974,10.4450,5.2840,-11.0837,2.6303,8.6168,9.0821,-7.0726,-8.5916,-2.1248
425.7812,-9.2481,1.8547,-5.4491,-2.7823,-15.2527,9.5944,1.8484,-3.0774,-22.1825,6.2424,8.8942,6.4451,-12.2220,3.5265,6.8838,9.4346,-10.2652,-7.0748,-1.3193
429.6875,-10.9291,2.5714,-5.7175,0.4268,-14.2242,10.7002,0.5560,-0.0255,-22.1233,5.3192,7.5481,6.5756,-11.7565,3.1095,3.7910,7.9166,-12.2879,-5.1084,-1.1745
433.5938,-12.1191,2.0855,-5.7905,2.0955,-13.6139,9.3253,-1.0341,1.2064,-20.6934,3.8652,6.7979,5.2790,-11.2223,0.3810,0.0028,4.2960,-14.1580,-3.4137,-1.5394
437.5000,-12.3613,1.1902,-5.5548,1.5097,-14.6885,6.5980,-2.6662,0.1640,-18.9528,2.5103,6.9494,3.1994,-11.9197,-4.1948,-3.1670,-0.1578,-16.5588,-2.3014,-2.1642
441.4062,-11.7004,1.0119,-5.3837,-0.6388,-17.1815,4.2749,-4.4233,-2.0847,-17.3072,1.9431,7.9662,1.7025,-13.9888,-8.7675,-4.6898,-3.2429,-19.2317,-1.3554,-3.0196
445.3125,-10.6926,2.2427,-5.9782,-2.5611,-19.5749,3.5271,-6.6654,-3.6421,-15.4227,2.6181,9.3732,1.9861,-16.3197,-11.1524,-4.5924,-3.1494,-21.1125,0.2913,-4.3404
449.2188,-10.0505,4.5706,-7.8863,-2.4451,-20.1891,4.1292,-9.7439,-3.0389,-12.7660,4.5159,10.4286,4.2586,-17.3072,-10.1531,-3.9607,0.3472,-21.0712,3.2702,-6.3389
453.1250,-10.1792,6.7527,-11.0532,0.3953,-18.2800,4.6625,-13.7175,-0.1924,-9.2851,7.0787,10.4698,7.5723,-15.8944,-6.2714,-4.1675,5.6547,-18.7056,7.3682,-8.8552
457.0312,-10.9358,7.3511,-14.7810,5.0554,-14.4459,3.6158,-18.2773,3.5720,-5.6930,9.4039,9.2108,10.4104,-12.2143,-1.3638,-5.9073,10.2733,-14.6485,11.4520,-11.3120
460.9375,-11.7766,5.6671,-18.1733,9.5754,-10.1856,0.5919,-22.8974,6.4194,-3.1544,10.6560,6.8107,11.5909,-7.4750,2.4955,-8.7532,12.2447,-10.2253,14.0266,-13.0891
464.8438,-12.1657,2.2313,-20.7443,12.1437,-6.9962,-3.2762,-27.0515,7.2018,-2.6136,10.5118,3.7126,10.8669,-3.2370,4.1931,-11.5323,11.1977,-6.7301,14.1041,-14.0367
468.7500,-11.9262,-1.5016,-22.7031,12.1974,-5.6011,-6.0374,-30.3185,6.1671,-4.2190,9.3805,0.4133,8.8744,-0.5758,4.0810,-13.1913,8.3554,-4.7907,11.8367,-14.6637
472.6562,-11.2721,-4.0500,-24.6637,10.7168,-5.7073,-6.2697,-32.3564,4.7460,-7.1959,8.2209,-2.6700,6.5698,0.3831,3.5669,-13.4895,5.5901,-4.1701,8.4993,-15.7664
476.5625,-10.5166,-4.7782,-27.0004,9.5311,-6.3239,-4.0943,-32.8849,4.5910,-10.2107,8.0078,-5.2023,4.6180,0.3493,4.1256,-13.0453,4.2198,-4.0521,5.8015,-17.7429
480.4688,-9.7220,-4.1576,-29.3876,10.0872,-6.3870,-1.1172,-31.8164,6.4996,-11.9940,9.1415,-6.9014,3.1384,0.3071,6.3727,-12.7801,4.3307,-3.5876,4.9299,-20.1606
484.3750,-8.6052,-3.2883,-30.9400,12.4876,-5.3436,0.6593,-29.4883,9.8921,-11.8874,11.1763,-7.5805,1.8830,0.8722,9.7380,-13.2342,4.9784,-2.3778,5.9032,-21.9923
488.2812,-6.7992,-3.0770,-30.8817,15.4301,-3.4141,0.1701,-26.7557,13.1524,-10.0591,13.0767,-7.2487,0.5976,1.9393,12.8760,-14.2470,5.0086,-0.6486,7.6471,-22.3997
492.1875,-4.2569,-3.6756,-29.2040,17.1016,-1.4144,-2.0854,-24.7150,14.6113,-7.3096,13.8743,-6.1468,-0.7509,2.8234,14.5157,-15.1543,3.8752,0.9536,8.7568,-21.4488
496.0938,-1.4330,-4.5396,-26.7327,16.4494,-0.2108,-4.5365,-24.0966,13.5809,-4.5800,13.3089,-4.6195,-2.0187,2.8115,14.2322,-15.2609,1.9239,1.8237,8.4700,-20.1342
500.0000,0.9580,-4.9818,-24.4874,13.9836,-0.0869,-5.7504,-24.6937,10.8275,-2.4186,12.0187,-2.8857,-3.0903,1.7897,12.6967,-14.2177,0.0334,1.8609,7.2176,-19.6190
503.9062,2.4610,-4.7496,-22.8170,11.5490,-0.4082,-5.4488,-25.2933,8.1984,-0.7014,11.1239,-0.9045,-4.0294,0.5165,11.2750,-12.1026,-1.0642,1.6456,6.3621,-20.2576
507.8125,3.2638,-4.1968,-21.0417,11.1731,0.1239,-4.6021,-24.2889,7.5990,1.2046,11.4641,1.5033,-5.0501,0.2892,11.2147,-9.2781,-1.2983,2.1750,7.2546,-21.2031
511.7188,4.0969,-3.9691,-17.9761,13.7216,2.6757,-4.5775,-20.6645,9.8976,3.8982,13.0021,4.3299,-6.3504,2.1272,12.8969,-6.2213,-1.2841,4.2506,10.2209,-20.9834
515.6250,5.6735,-4.4923,-12.9963,18.2569,7.3994,-6.0111,-14.7040,14.3938,7.3582,14.8155,7.1215,-7.9452,5.9736,15.6073,-3.4302,-1.8738,7.8711,14.1810,-18.6534
519.5312,8.0793,-5.6492,-6.8143,22.5622,13.0978,-8.2484,-7.9056,19.1847,10.7557,15.6978,9.0618,-9.6052,10.5042,17.9833,-1.3525,-3.5408,12.0586,17.2317,-14.6268
523.4375,10.6135,-6.8423,-1.2701,24.5250,17.7965,-9.7579,-2.1100,22.2436,12.8972,14.9675,9.4284,-10.9161,13.8003,18.8877,-0.2468,-5.9911,15.3260,17.8756,-10.4903
527.3438,12.2564,-7.3383,1.8258,23.4836,19.9667,-9.2032,1.5759,22.5832,13.0868,12.9278,8.1284,-11.4123,14.5512,18.1650,-0.0073,-8.2513,16.5690,16.0967,-7.8820
531.2500,12.4487,-6.6341,1.9973,20.6288,19.5973,-6.4051,3.3177,20.7866,11.8179,10.6577,5.9012,-10.7468,13.0024,16.7681,-0.1204,-9.2034,15.8169,13.5145,-7.2686
535.1562,11.5815,-4.6494,0.5640,18.1667,18.3032,-2.5285,4.1919,18.5508,10.7087,9.2784,3.9789,-8.8691,10.9313,16.1194,0.1148,-8.2675,14.2857,12.4202,-7.5760
539.0625,10.7859,-1.7234,-0.1699,17.7863,18.2699,0.6061,5.2221,17.5028,11.5696,9.2057,3.3987,-6.1553,10.5482,17.0808,1.1724,-5.8261,13.6112,14.2592,-6.9909
542.9688,11.1297,1.4955,1.5147,19.4655,20.6955,1.5983,6.5511,18.0469,15.1441,9.8988,4.4369,-3.3791,12.9935,19.2191,2.9758,-3.0961,14.7266,18.5528,-4.3458
546.8750,12.8057,4.2057,5.5272,21.4418,24.8410,0.2250,7.3755,19.0272,20.4059,10.2642,6.5527,-1.4427,17.4665,20.9126,4.9362,-1.4696,17.1618,23.0212,-0.0372
550.7812,14.9309,5.6670,9.9897,21.3915,28.4456,-2.5588,6.6772,18.4786,25.0086,9.4081,8.8536,-0.9241,21.6555,20.3134,6.3674,-1.6872,19.3054,24.9010,4.2283
554.6875,16.1350,5.4772,12.5212,18.0261,29.2922,-5.2915,4.1822,15.0041,26.6999,7.2069,10.7009,-1.6896,23.2468,16.5743,6.9788,-3.3639,19.5005,22.6415,6.6706
558.5938,15.5250,3.8131,11.8878,12.0195,26.8287,-6.8598,0.7975,8.8508,24.7806,4.3154,12.0022,-2.8754,21.4939,10.5188,7.0594,-5.2162,17.2233,16.8782,6.7195
562.5000,13.3269,1.4473,8.8544,5.6284,22.6394,-7.0079,-1.8251,1.9120,20.5781,1.6596,13.0180,-3.3609,17.7385,4.2544,7.1960,-5.9020,13.4895,10.0361,5.3886
566.4062,10.7482,-0.5720,5.6450,1.2654,19.3666,-6.2592,-2.3005,-3.4002,16.5522,-0.1779,13.9180,-2.5084,14.4857,-0.0660,7.7513,-4.9444,10.1648,4.8212,4.4812
570.3125,9.1833,-1.4631,4.4120,0.0002,18.8268,-5.3990,-0.3810,-5.6733,14.6265,-1.2225,14.5124,-0.6842,13.6669,-1.5319,8.5372,-3.0990,8.6600,2.5956,5.2549
574.2188,9.3568,-1.1423,5.8020,1.0002,20.6924,-4.9040,2.9106,-5.3585,14.9183,-1.8610,14.4016,0.8594,15.3176,-0.9466,8.9679,-1.8567,8.9595,2.6986,7.5433
578.1250,10.9980,-0.2258,8.6029,2.2534,22.7266,-4.6663,5.9424,-4.3638,15.7731,-2.3329,13.4029,0.7540,17.6093,-0.1635,8.5824,-2.3786,9.7045,3.1204,9.9549
582.0312,13.2008,0.4367,10.6684,2.0267,22.4152,-4.1396,7.4362,-4.6499,15.0671,-2.4058,11.8583,-1.5286,18.2006,-0.7463,7.5116,-4.5939,9.2723,2.0141,10.9412
585.9375,15.0984,0.3800,10.4241,0.0216,18.8003,-2.7677,7.0867,-6.8238,11.8105,-1.5277,10.5222,-5.1900,15.9252,-2.8892,6.4947,-7.1293,7.0434,-1.0131,9.9109
589.8438,16.2917,-0.1653,7.8967,-2.5551,13.1620,-0.4184,5.4983,-9.7406,6.8711,0.6450,10.0883,-8.4683,11.6042,-5.3415,6.4097,-8.1691,3.8981,-4.6951,7.5902
593.7500,16.7509,-0.5094,4.6016,-3.9935,8.0465,2.4347,3.6060,-11.4036,2.2977,3.7677,10.7255,-9.6496,7.4188,-6.3683,7.6710,-6.6647,1.5562,-7.0726,5.4378
597.6562,16.3893,-0.1009,2.4389,-3.3880,5.3657,4.8840,2.0574,-10.5052,-0.2287,6.8005,11.9882,-8.0699,5.3244,-5.0418,9.9472,-3.0293,1.2502,-6.9027,4.6081
601.5625,14.7949,0.9953,2.4086,-1.2998,4.9781,6.0243,0.9601,-7.4745,-0.6487,8.5571,13.1576,-4.4421,5.6596,-1.9365,12.3946,1.1905,2.7317,-4.5155,5.2222
605.4688,11.4450,2.1356,4.0071,0.6706,4.7919,5.4213,0.0562,-4.2487,-0.5496,8.4668,13.7179,-0.3184,6.9333,1.2560,14.1977,4.4299,4.3701,-1.5520,6.3960
609.3750,6.2766,2.6296,5.6474,1.0420,2.3107,3.3651,-0.9260,-2.9229,-1.9592,7.0067,13.5948,2.9063,6.9059,2.8898,15.0043,6.1791,4.2928,0.1785,6.9000
613.2812,0.1164,2.3380,5.7419,-0.5249,-3.5101,0.7649,-2.0436,-4.2674,-5.8118,5.4576,13.0135,4.7547,4.1668,2.4506,14.9790,7.2209,1.7351,-0.1135,5.9239
617.1875,-5.4814,1.8384,3.6998,-3.0703,-11.4239,-1.2645,-3.1533,-7.2002,-11.2094,5.0999,12.1797,5.7218,-0.9049,0.7914,14.5302,8.8727,-2.3898,-1.7811,3.4499
621.0938,-9.0067,2.0072,0.2206,-5.1138,-18.6484,-1.9096,-4.0595,-9.6014,-15.9933,6.3655,11.1122,6.6918,-6.4307,-0.6125,13.9994,11.8396,-6.1173,-3.3247,0.0994
625.0000,-9.8980,3.3421,-3.2234,-5.7532,-22.6512,-0.9924,-4.6238,-9.8599,-18.1762,8.5199,9.7741,8.2255,-10.3173,-0.8026,13.5540,15.5818,-7.7998,-3.4974,-3.3183
628.9062,-8.9438,5.5669,-5.3157,-5.2668,-22.7175,1.0302,-4.7746,-8.0061,-17.2026,10.1022,8.3274,10.2483,-11.6154,-0.0113,13.2699,18.6928,-7.2295,-2.1206,-6.2150
632.8125,-7.8560,7.8362,-5.6404,-4.8018,-20.2668,3.3660,-4.4973,-5.6034,-14.1832,9.8525,7.1884,12.2858,-11.0402,0.6125,13.2035,19.9921,-5.7240,-0.0706,-8.3964
636.7188,-8.2505,9.3697,-4.8380,-5.4261,-17.7978,5.2905,-3.9038,-4.5069,-11.0298,7.5269,6.7419,13.9540,-10.3594,-0.0130,13.3027,19.4668,-5.1383,1.4766,-10.0212
640.6250,-10.6762,10.0003,-4.1602,-7.2744,-17.2623,6.4252,-3.3523,-5.4410,-9.1811,4.0826,6.9233,15.2459,-11.1275,-1.9788,13.2375,18.3138,-6.5293,1.9290,-11.4684
644.5312,-14.2996,10.1999,-4.7505,-9.4267,-18.9682,6.7805,-3.4637,-7.4671,-8.8209,1.1261,7.0700,16.3888,-13.6410,-4.2312,12.3952,18.0342,-9.4178,1.6350,-13.1844
648.4375,-17.4245,10.5816,-7.0721,-10.5827,-21.6487,6.6135,-4.9037,-8.7235,-9.0471,-0.0097,6.2670,17.4457,-16.7853,-5.3082,10.1817,19.2737,-12.1432,1.4918,-15.5092
652.3438,-18.5009,11.3131,-10.7556,-10.0023,-23.5001,6.2461,-7.9844,-7.8527,-8.7415,1.0162,3.9920,18.0567,-18.8181,-4.4090,6.4791,21.3048,-13.0305,2.1610,-18.4892
656.2500,-17.0072,11.9403,-14.8772,-7.9986,-23.3891,5.9580,-12.3411,-5.0180,-7.4392,3.4527,0.5538,17.5944,-18.5292,-1.9876,1.8860,22.5492,-11.5396,3.5235,-21.7629
660.1562,-13.7123,11.7702,-18.4543,-5.6223,-21.4303,5.9602,-16.9582,-1.7411,-5.5948,5.9770,-3.0731,15.6387,-16.0136,0.5814,-2.5332,21.7397,-8.6177,4.7964,-24.6433
664.0625,-10.2199,10.4936,-20.8752,-3.7974,-18.6597,6.3795,-20.6042,0.2985,-4.1457,7.4651,-5.9461,12.3948,-12.5823,2.0181,-5.8882,18.8398,-6.0496,5.2093,-26.4263
667.9688,-8.0984,8.5212,-22.0634,-2.5834,-16.1654,7.2004,-22.4433,0.5664,-3.7751,7.5373,-7.8575,8.6991,-9.9127,2.0729,-8.0374,15.0465,-5.2786,4.6959,-26.7754
671.8750,-8.0887,6.7443,-22.3515,-1.1418,-14.3444,8.1966,-22.4421,0.0702,-4.4273,6.6022,-9.4618,5.5726,-9.0145,1.6768,-9.6348,11.9094,-6.5018,4.0383,-25.9349
675.7812,-9.7875,5.9005,-22.1953,1.5446,-12.7863,8.9455,-21.3187,0.5371,-5.3803,5.4575,-11.6906,3.6267,-9.6813,2.1841,-11.5766,10.2586,-8.6151,4.3107,-24.6049
679.6875,-11.9322,6.0429,-21.9231,5.7283,-10.7923,8.9793,-20.0930,2.9986,-5.7622,4.7575,-14.9003,2.7341,-10.7607,4.2691,-14.2555,9.7363,-10.0021,6.0157,-23.5488
683.5938,-13.1021,6.5234,-21.6530,10.4516,-8.0948,8.0160,-19.5523,6.8658,-5.1178,4.6815,-18.4476,2.1764,-11.0309,7.3080,-17.2076,9.2232,-9.6088,8.5659,-23.1932
687.5000,-12.4589,6.4810,-21.3742,13.9852,-5.2236,6.1189,-19.9565,10.2250,-3.6530,4.9560,-21.0715,1.1375,-10.0644,9.7377,-19.4355,7.7660,-7.5902,10.5496,-23.4774
691.4062,-10.1328,5.4368,-21.0767,14.9054,-3.2264,3.6586,-21.0864,11.1705,-2.0335,5.1507,-21.8095,-0.8079,-8.4708,10.1648,-20.1483,5.2703,-5.1239,10.6625,-24.0054
695.3125,-7.0468,3.5392,-20.7937,13.0917,-2.9150,1.0846,-22.4789,9.2112,-0.9047,5.0261,-20.7261,-3.5099,-7.3376,8.4368,-19.3200,2.4692,-3.5403,8.6862,-24.3267
699.2188,-4.2794,1.3153,-20.5190,9.9398,-4.1549,-1.3358,-23.6177,5.7217,-0.4459,4.7163,-18.8517,-6.4179,-7.2658,5.8837,-17.6203,0.2731,-3.3652,5.8177,-24.1123
703.1250,-2.3458,-0.8075,-20.0889,7.5989,-5.7309,-3.6196,-23.9833,3.0908,-0.2246,4.6620,-17.3575,-8.9264,-7.7243,4.5109,-15.8005,-0.9357,-3.9189,4.0632,-23.1432
707.0312,-0.8604,-2.7868,-19.1742,7.6914,-5.9616,-5.9287,-23.0712,3.1542,0.5657,5.3507,-16.6154,-10.6452,-7.2644,5.6719,-14.0732,-1.5138,-3.7491,5.0458,-21.2362
710.9375,1.1642,-4.8293,-17.4537,10.3328,-3.7319,-8.2929,-20.5435,6.0042,2.6183,7.0164,-15.9078,-11.4652,-4.5292,9.1268,-12.0224,-2.1626,-1.6250,8.9858,-18.2957
714.8438,4.5412,-6.9884,-14.8844,14.0776,0.7192,-10.4160,-16.5195,9.9864,6.0487,9.4586,-14.0489,-11.4694,0.6233,13.1490,-9.1193,-3.2961,2.5611,14.5237,-14.5274
718.7500,9.1699,-8.8831,-11.8671,16.8203,5.8246,-11.7402,-11.7858,12.8511,10.2291,12.0790,-10.4453,-10.8232,6.7342,15.6211,-5.3808,-4.6899,7.6053,19.5046,-10.6218
722.6562,13.8869,-9.8238,-9.1393,17.0657,9.5928,-11.7619,-7.6434,13.2341,14.0498,14.1300,-5.7519,-9.7308,11.4855,15.3871,-1.5697,-5.6587,11.6821,22.2149,-7.6407
726.5625,17.0947,-9.2870,-7.4053,14.7603,10.8559,-10.4062,-5.3254,11.4534,16.4928,15.0637,-1.5721,-8.4442,13.1544,12.9502,1.2896,-5.5860,13.4955,22.2772,-6.5332
730.4688,17.8068,-7.3788,-6.9156,11.1892,10.0316,-8.1982,-5.2715,9.1233,17.1973,14.8051,0.6119,-7.2495,11.7920,10.0651,2.7114,-4.3765,13.1372,20.6564,-7.5322
734.3750,16.3988,-4.9126,-7.2757,8.0551,8.8464,-6.0826,-6.7558,7.9232,16.6627,13.7911,0.4889,-6.3920,9.2531,8.5212,3.1996,-2.5106,12.0555,18.8364,-9.8677
738.2812,14.4950,-3.0070,-7.6386,6.3778,9.1537,-4.9552,-8.2032,8.4098,15.9302,12.7286,-0.8399,-5.9712,7.9811,8.9605,3.9415,-0.7070,12.1129,17.7702,-12.0846
742.1875,13.9935,-2.4556,-7.1815,5.9251,11.6340,-5.1599,-8.0813,9.6753,15.9200,12.1882,-1.6139,-5.8828,9.3552,10.5176,5.9451,0.5229,14.3331,17.3161,-12.8426
746.0938,15.8526,-3.2830,-5.5770,5.4989,15.2939,-6.2507,-5.8217,10.0295,16.8465,12.2637,-0.6113,-5.8586,12.7649,11.4885,9.2826,1.1191,18.1796,16.4969,-11.6998
750.0000,19.4676,-4.7649,-3.1657,3.8225,18.1506,-7.1890,-2.1534,8.1788,18.1084,12.5164,2.0676,-5.5920,16.0831,10.5275,13.0261,1.4032,21.8728,14.3277,-9.3496
753.9062,23.0811,-5.8781,-0.7347,0.4003,18.6449,-6.9086,1.3949,4.0809,18.7397,12.2543,5.1565,-4.8844,17.2075,7.5317,15.9165,1.8122,23.5520,10.5822,-7.1362
757.8125,24.9549,-5.8863,0.9410,-4.2060,16.7729,-4.9557,3.4961,-1.0702,18.1060,10.9849,7.1449,-3.7459,15.5520,3.6288,17.2307,2.6390,22.4967,5.9566,-6.1696
761.7188,24.4909,-4.7157,1.5025,-8.8055,14.1043,-1.8325,3.8512,-5.6476,16.3480,8.7492,7.2697,-2.4072,12.4056,0.3297,17.1878,3.9121,19.5704,1.5581,-6.6343
765.6250,22.5307,-2.9295,1.1324,-12.3444,12.6542,1.2012,3.2888,-8.5852,14.2524,6.1131,5.8958,-1.2348,9.9239,-1.5109,16.6319,5.4144,16.5857,-1.8542,-7.7373
769.5312,20.6585,-1.3545,0.3762,-14.4520,13.4258,2.8157,3.1059,-9.8851,12.6574,3.8174,4.1090,-0.5700,9.5334,-2.1811,16.3172,6.7819,15.0520,-4.2946,-8.2797
773.4375,20.0414,-0.5858,-0.1772,-15.4197,15.7026,2.4237,4.1498,-10.3516,11.8518,2.3226,2.9105,-0.5480,10.9529,-2.7265,16.4003,7.6357,15.1964,-6.3414,-7.4196
777.3438,20.6450,-0.6406,-0.1443,-15.7145,17.6153,0.6172,6.2915,-10.8183,11.4302,1.5568,2.6249,-0.9882,12.5376,-4.0210,16.5096,7.7320,15.9364,-8.4923,-5.1090
781.2500,21.3517,-0.9424,0.5861,-15.4676,17.5538,-1.0996,8.6260,-11.4661,10.7034,1.0307,2.8813,-1.4462,12.6226,-6.0107,16.2417,7.0895,15.7773,-10.6188,-1.9699
785.1562,20.8291,-0.6500,1.9327,-14.3681,15.3524,-1.1888,10.1893,-11.7302,9.3182,0.2211,3.0674,-1.4485,10.7867,-7.7111,15.5878,6.0132,13.9330,-11.9718,1.2090
789.0625,18.4645,0.8303,3.7295,-12.0446,12.3460,0.9457,10.6314,-10.8393,7.5671,-1.0628,2.8378,-0.8059,8.0546,-7.9704,14.9032,4.9461,10.8242,-11.7541,3.9447
792.9688,14.6863,3.4277,5.7698,-8.6084,10.2592,4.5336,10.3643,-8.5680,6.1133,-2.5897,2.3013,0.1951,5.9205,-6.4338,14.4843,4.1962,7.6083,-9.8253,6.1871
796.8750,10.4924,6.3496,7.7871,-4.8752,9.7897,7.8989,10.1335,-5.6133,5.3439,-3.9350,1.8210,0.8988,5.0153,-3.9693,14.1820,3.7143,5.1466,-6.9764,8.0999
800.7812,6.6135,8.4680,9.4475,-2.0107,9.9886,9.5578,10.3968,-3.2710,4.8911,-4.8290,1.6539,0.6830,4.5176,-2.1903,13.4446,3.1190,3.2502,-4.5181,9.7522
804.6875,2.9850,8.9703,10.4172,-0.7914,8.9394,9.2255,10.9999,-2.5897,3.7645,-5.3498,1.7329,-0.5681,2.8033,-2.3575,11.7775,2.0055,0.8238,-3.4368,11.0020
808.5938,-1.0755,7.8901,10.5028,-1.0072,5.2434,8.0115,11.3713,-3.5837,1.0683,-5.8196,1.7278,-2.2498,-1.1649,-4.4221,9.2105,0.3379,-3.1803,-3.7130,11.6474
812.5000,-6.1453,6.1602,9.7837,-1.4842,-0.7991,7.6192,11.0381,-5.0908,-3.2066,-6.5085,1.2976,-3.2816,-6.8067,-6.9114,6.3388,-1.3891,-8.7370,-4.3041,11.6834
816.4062,-12.0065,5.1050,8.6382,-0.7938,-7.2084,9.0852,10.0280,-5.4545,-7.9378,-7.3941,0.3284,-2.7113,-12.0909,-7.8047,3.8790,-2.4025,-14.4772,-3.8383,11.4157
820.3125,-17.5324,5.6642,7.6092,1.7845,-11.5553,11.9693,8.8423,-3.6328,-11.4270,-8.1757,-0.9938,-0.3098,-14.8260,-5.8609,2.1185,-2.1843,-18.4454,-1.5597,11.3056
824.2188,-21.2644,7.8362,7.1452,5.6940,-12.5328,14.6183,8.0327,-0.0041,-12.4288,-8.5228,-2.2938,3.2407,-14.1495,-1.5224,0.7452,-0.8980,-19.3860,2.1133,11.6368
828.1250,-22.2931,10.7041,7.3316,9.3430,-10.7746,15.3499,7.7225,3.7188,-10.9585,-8.3498,-3.2108,6.7088,-11.1446,3.2256,-0.7899,0.6452,-17.6406,5.7985,12.2350
832.0312,-20.8480,13.0089,7.7597,11.0383,-8.3902,13.6961,7.4400,5.4865,-8.3126,-7.8862,-3.5807,9.0022,-8.1637,5.9840,-2.7035,1.5109,-14.9978,7.9863,12.4434
835.9375,-18.2089,13.8689,7.6412,10.0193,-7.5978,10.7653,6.3832,4.2208,-6.2699,-7.4860,-3.5188,9.7416,-7.3568,5.3551,-4.6284,1.3029,-13.5761,7.9512,11.3946
839.8438,-16.0004,13.1677,6.1640,6.9233,-9.4150,8.4250,3.9228,0.5783,-6.0006,-7.3304,-3.3663,9.3674,-9.4217,1.7526,-5.9287,0.4702,-14.5008,6.1575,8.4433
843.7500,-15.3165,11.4148,2.9453,3.3850,-13.2368,7.9063,-0.0031,-3.3701,-7.3970,-7.2688,-3.5199,8.7549,-13.3569,-2.8845,-6.3201,0.0074,-17.2598,3.9328,3.5317
847.6562,-16.1931,9.2820,-1.6626,1.0416,-17.4457,8.9011,-4.8363,-5.3864,-9.2405,-6.9265,-4.2126,8.6348,-17.2518,-6.2643,-6.2365,0.7408,-20.1344,2.6601,-2.7042
851.5625,-17.7056,7.2239,-6.6325,0.5929,-20.5111,9.8631,-9.6819,-4.4537,-10.0552,-5.9918,-5.3741,9.2009,-19.4833,-7.0428,-6.5802,2.7084,-21.3585,3.0201,-9.1572
855.4688,-18.5813,5.4373,-10.7312,1.5035,-21.8107,9.2933,-13.7218,-1.4055,-9.0672,-4.4550,-6.6839,10.1081,-19.5326,-5.4631,-8.0307,5.0787,-20.2074,4.7258,-14.7133
859.3750,-17.9417,4.0714,-13.1813,2.4888,-21.7324,7.0024,-16.5267,1.6222,-6.6573,-2.6145,-7.8274,10.7732,-18.0280,-3.0073,-10.4916,6.6628,-17.3331,6.8409,-18.7463
863.2812,-15.7530,3.3641,-14.1282,2.4170,-21.1662,4.3317,-18.1514,2.5636,-4.0634,-0.8602,-8.7979,10.7220,-16.1741,-1.3753,-13.1679,6.6484,-14.2242,8.4090,-21.3914
867.1875,-12.7669,3.4887,-14.5753,1.0155,-20.8535,3.1165,-19.0313,0.7210,-2.5717,0.5783,-10.0011,9.7751,-15.0361,-1.4820,-15.2348,5.0503,-12.2415,8.9770,-23.4237
871.0938,-10.0371,4.2284,-15.7599,-1.0461,-21.0202,4.1807,-19.7634,-2.8439,-2.7370,1.7165,-12.0104,8.0405,-15.0817,-3.0705,-16.5344,2.6046,-11.8817,8.7312,-25.7661
875.0000,-8.3254,4.8455,-18.3207,-2.6874,-21.4149,6.5592,-20.8531,-6.0493,-4.1041,2.6792,-15.0842,5.8216,-16.1001,-5.0758,-17.6881,0.2482,-12.6757,8.2435,-28.8774
878.9062,-7.7505,4.4086,-21.8067,-3.1540,-21.5892,8.1070,-22.4975,-7.1332,-5.5666,3.4867,-18.7877,3.5338,-17.3957,-6.3827,-19.4982,-1.4168,-13.6563,8.0527,-32.3857
882.8125,-7.8604,2.4332,-24.9043,-2.4583,-21.1796,7.0717,-24.4878,-5.6980,-6.1012,3.9716,-22.0676,1.6257,-18.1100,-6.4378,-22.1343,-2.3264,-13.9960,8.3543,-35.2345
886.7188,-8.0386,-0.6626,-26.2906,-1.2701,-20.0563,3.4269,-26.3051,-2.8076,-5.4067,3.9194,-23.8252,0.4391,-17.5753,-5.3659,-24.8173,-2.7822,-13.3992,8.9551,-36.2977
890.6250,-7.9384,-3.7398,-25.5569,-0.3831,-18.3365,-1.0846,-27.4073,-0.1521,-4.0533,3.3255,-23.6380,0.0141,-15.6120,-3.6375,-26.3156,-3.1270,-12.0764,9.4682,-35.0968
894.5312,-7.6395,-5.7301,-23.5413,-0.1503,-16.3039,-4.2606,-27.5610,1.0932,-3.0527,2.5424,-22.0907,-0.0299,-12.6345,-1.6253,-25.8781,-3.5434,-10.4259,9.6019,-32.1330
898.4375,-7.4270,-6.4727,-21.7776,-0.2583,-14.2551,-5.1083,-26.9870,0.9408,-3.1165,2.1582,-20.4056,-0.3774,-9.4394,0.6042,-23.8263,-4.0718,-8.6825,9.3694,-28.5711
902.3438,-7.3885,-6.8991,-21.3894,0.0424,-12.3067,-4.5819,-26.1640,0.4101,-4.0747,2.6528,-19.5719,-1.6415,-6.7156,3.1644,-21.2863,-4.7301,-6.7519,9.1110,-25.4529
906.2500,-7.1806,-8.3256,-22.2001,1.4362,-10.2565,-4.8137,-25.3799,0.7141,-4.8516,4.0659,-19.5990,-3.9375,-4.5588,6.0625,-19.2573,-5.5612,-4.2909,9.3206,-22.9735
910.1562,-6.1983,-11.3319,-22.7336,4.1075,-7.6356,-7.4197,-24.3626,2.4304,-4.0701,5.9219,-19.4855,-6.7196,-2.3676,9.0332,-17.7956,-6.5555,-0.9600,10.3624,-20.3557
914.0625,-4.0606,-15.1088,-21.1842,7.6307,-3.9995,-12.1804,-22.3426,5.2077,-0.9518,7.4833,-17.9967,-9.0580,0.7116,11.6399,-16.0313,-7.5588,3.2916,12.2259,-16.4561
917.9688,-1.0330,-17.8679,-16.7311,11.2239,0.6851,-17.0976,-18.6188,8.1236,4.0559,8.1742,-14.7113,-10.2180,5.0458,13.5529,-13.0502,-8.3107,8.0555,14.4636,-10.7052
921.8750,1.9940,-18.1008,-10.2798,14.1820,5.8469,-19.7730,-13.2836,10.3566,9.3730,7.8951,-10.5418,-10.1483,10.0414,14.7711,-8.9208,-8.6326,12.5096,16.3756,-3.7086
925.7812,4.0394,-15.7649,-4.0635,16.2208,10.5246,-19.0621,-7.5370,11.6701,13.1202,7.0285,-7.2755,-9.5153,14.3737,15.5978,-4.9680,-8.6166,15.7032,17.3702,2.9598
929.6875,4.7214,-12.4565,-0.3167,17.5404,13.9124,-15.7859,-3.2263,12.4154,14.2131,6.1505,-6.3998,-9.2350,16.8467,16.3835,-2.9656,-8.6277,16.9803,17.3034,7.6770
933.5938,4.5696,-10.3586,0.1090,18.5999,15.8663,-12.0428,-1.7836,13.1318,13.0210,5.6529,-8.0407,-9.8296,17.2744,17.2270,-3.8096,-9.0763,16.3317,16.5790,9.7899
937.5000,4.6645,-10.6933,-1.7434,19.7563,16.9660,-9.7194,-3.2426,14.0817,11.1311,5.5252,-10.7935,-11.0697,16.6777,17.8601,-6.7053,-10.1123,14.4489,15.9127,10.0245
941.4062,5.8272,-12.8208,-3.6408,20.9910,18.0337,-9.3373,-6.0628,15.0398,10.3404,5.4159,-12.5985,-12.1535,16.5693,17.7994,-9.5594,-11.4810,12.3941,15.8769,9.9926
945.3125,7.9679,-14.6754,-3.5957,21.8806,19.4474,-10.0091,-7.9896,15.4290,11.5296,4.9050,-12.0502,-12.2733,17.8164,16.6561,-10.3448,-12.6634,11.0404,16.5077,11.1301
949.2188,10.1343,-14.2318,-1.0660,21.8218,20.7958,-10.3694,-7.4393,14.6545,14.1755,3.7946,-9.2187,-11.1464,19.9531,14.3877,-8.4409,-13.2018,10.6168,17.2431,13.7922
953.1250,11.2735,-10.9320,2.8519,20.3714,21.1887,-9.6347,-4.4762,12.4068,16.8257,2.2360,-5.4319,-9.1442,21.5175,11.3234,-4.9469,-12.9671,10.6657,17.2556,17.1049
957.0312,11.1337,-6.0436,6.2904,17.4963,20.0212,-7.9772,-0.6850,8.7913,18.1819,0.6365,-2.2340,-6.9792,21.1962,7.9645,-1.7473,-12.1765,10.4559,15.9717,19.6304
960.9375,10.5668,-1.7383,7.8761,13.5913,17.5866,-6.0640,1.9846,4.2868,18.0007,-0.5755,-0.3209,-5.2340,18.8999,4.7085,-0.0634,-11.1714,9.5674,13.4311,20.3434
964.8438,10.9136,0.3786,7.5180,9.2666,15.0106,-4.3213,2.5848,-0.3865,17.1571,-1.1798,0.7816,-4.0852,15.9075,1.6872,0.3965,-10.1449,8.2259,10.2421,19.2415
968.7500,12.8841,0.2043,6.2488,5.0589,13.4973,-2.6287,1.7678,-4.4255,16.8465,-1.2618,2.1262,-3.3639,13.9293,-1.1834,1.0592,-9.0279,7.1309,7.1713,17.2175
972.6562,15.7977,-1.0628,5.3515,1.2612,13.4523,-0.6759,1.2019,-7.1215,17.5500,-1.1412,4.3622,-2.8085,13.8045,-3.9899,3.2155,-7.5939,6.9041,4.6735,15.3672
976.5625,17.8429,-1.9753,5.4699,-2.0262,14.1910,1.4402,2.2693,-8.0502,18.5775,-1.1851,7.1390,-2.2516,14.8638,-6.6061,6.8733,-5.6744,7.5851,2.6986,14.2736
980.4688,17.2614,-1.8561,6.3307,-4.6947,14.5082,3.0291,5.0349,-7.2260,18.5628,-1.6140,9.3325,-1.6109,15.4774,-8.6290,10.6379,-3.3105,8.5797,0.9002,13.7640
984.3750,13.6218,-1.0419,7.1863,-6.4772,13.6878,3.3007,8.2503,-5.1301,16.5476,-2.4042,9.8810,-0.7843,14.3677,-9.5322,12.7092,-0.7528,9.1153,-0.9475,13.2371
988.2812,8.2223,-0.3013,7.5415,-7.0211,12.1393,2.1574,10.3544,-2.5567,12.8143,-3.3379,8.5727,0.3653,11.6346,-8.9602,12.2289,1.6523,8.8456,-2.6768,12.2365
992.1875,3.2705,-0.0349,7.5621,-6.1792,11.0975,0.5623,10.6695,-0.3233,8.7912,-4.1676,6.2064,1.8672,8.6561,-7.0014,9.9538,3.5862,8.0981,-3.8344,10.8062
996.0938,0.3999,0.0440,7.8630,-4.3061,11.5561,0.0593,9.8660,1.0186,6.0459,-4.7898,4.0454,3.4855,6.9171,-4.2666,7.7567,4.8332,7.5281,-4.0889,9.3881
1000.0000,-0.4044,0.5369,8.8874,-2.2774,13.2569,1.7151,9.3593,1.3341,5.0924,-5.3079,2.9979,4.7591,6.6976,-1.6940,7.3333,5.3227,7.4256,-3.6009,8.3958
1003.9062,-0.6861,1.7020,10.4022,-1.1088,14.5847,5.2721,10.1463,0.8709,4.9142,-5.9278,3.1077,5.2903,6.6983,-0.1409,9.0550,5.1704,7.2533,-3.0196,7.8437
1007.8125,-2.3048,3.1320,11.5336,-1.3450,13.5709,9.1968,12.0162,0.1092,3.6072,-6.7425,3.6567,5.0797,4.9665,0.0455,11.7678,4.6994,5.8702,-3.0583,7.3422
1011.7188,-6.0337,4.0546,11.3370,-2.6149,9.3480,11.6475,13.7499,-0.4016,-0.2708,-7.5579,3.7248,4.6019,0.4615,-0.7558,13.6275,4.3734,2.3845,-3.9423,6.4634
1015.6250,-10.9940,3.9789,9.4849,-3.7124,2.9900,11.6855,14.1228,-0.1633,-6.5897,-7.9092,2.7787,4.4998,-5.9343,-1.5854,13.3492,4.6121,-2.9520,-5.1615,5.1868
1019.5312,-15.3004,3.1150,6.5645,-3.2524,-2.9419,9.8694,12.8879,1.1656,-13.5729,-7.3023,0.9253,5.0997,-11.7701,-1.3801,11.0135,5.5672,-8.5247,-5.7578,4.0598
1023.4375,-17.3905,2.2102,3.7527,-0.5458,-5.9238,7.8330,10.9493,3.6406,-18.8367,-5.5442,-1.2472,6.1403,-14.5530,0.4495,7.9377,7.0192,-12.1078,-4.9851,3.9113
1027.3438,-17.0323,1.9498,2.0817,3.8604,-5.0580,7.1905,9.5983,6.9111,-20.8455,-2.9401,-3.0501,6.9595,-13.3802,3.6549,5.7729,8.4959,-12.1930,-2.8833,5.2751
1031.2500,-15.3109,2.4378,1.7850,8.3718,-1.6505,8.5557,9.4429,10.2247,-19.8123,-0.1938,-4.0470,7.0045,-9.5369,7.2218,5.4550,9.5461,-9.0292,-0.3421,7.9013
1035.1562,-13.6944,3.1726,2.1528,11.2062,1.6174,11.3115,9.9006,12.6575,-17.4699,1.9551,-4.2351,6.2394,-5.6651,9.8677,6.6556,9.9613,-4.6291,1.4210,10.7031
1039.0625,-12.9574,3.5023,1.9835,11.4216,2.3635,14.1718,9.6617,13.5317,-15.9125,3.1311,-4.0449,5.0949,-4.1089,10.7028,8.0084,9.7679,-1.6602,1.6283,12.2297
1042.9688,-12.7742,3.1489,0.3320,9.4777,-0.0745,16.0389,7.7453,12.8077,-16.3048,3.4933,-4.1951,4.0032,-5.5599,9.6861,7.9107,9.0195,-1.8863,0.4395,11.4319
1046.8750,-12.2142,2.3755,-2.9108,6.9760,-4.3588,16.5488,4.2995,11.1838,-18.2840,3.5592,-5.4283,2.9489,-8.8394,7.6239,5.4132,7.6168,-5.1520,-1.1483,8.2911
1050.7812,-10.6597,1.7124,-6.9517,5.7475,-8.1065,16.0337,0.5058,9.7833,-20.3671,3.8134,-8.1714,1.4843,-11.8258,5.7254,0.7207,5.3883,-9.5539,-1.9127,3.9272
1054.6875,-8.3869,1.5288,-10.5591,6.8562,-9.3838,15.0891,-2.3262,9.5764,-21.0075,4.3864,-12.2519,-0.7469,-12.8053,4.9890,-4.9343,2.4173,-12.6661,-1.1110,0.0768
1058.5938,-6.3750,1.8227,-12.7648,10.1179,-7.7701,14.1450,-3.7515,10.8851,-19.5714,5.0343,-16.8654,-3.4293,-11.3689,5.7679,-9.9570,-0.6804,-13.0073,1.1706,-1.8142
1062.5000,-5.5468,2.3446,-13.3922,14.3707,-4.3986,13.3068,-4.4877,13.2827,-16.6416,5.4150,-20.9100,-5.5277,-8.4122,7.7274,-13.2429,-2.8826,-10.8192,4.1921,-1.3934
1066.4062,-6.0702,2.8544,-13.1138,18.2484,-1.0858,12.4450,-5.8005,15.9367,-13.5484,5.4237,-23.5661,-5.9600,-5.4300,10.1457,-14.7587,-3.3574,-7.7197,7.0654,0.3676
1070.3125,-7.2562,3.2236,-13.0228,20.9206,0.7987,11.3468,-8.4777,18.1395,-11.5172,5.3032,-24.7732,-4.5414,-3.6678,12.3170,-15.5128,-2.1591,-5.5579,9.2122,1.6895
1074.2188,-8.0929,3.3157,-13.9698,22.3610,1.0055,9.8003,-12.1947,19.6541,-10.9990,5.4276,-25.2463,-2.4074,-3.6209,13.8054,-16.8906,-0.4462,-5.2825,10.5034,0.9908
1078.1250,-7.9756,2.8555,-16.0453,23.0734,0.2986,7.6498,-15.7416,20.6631,-11.5538,5.9283,-25.9583,-1.4352,-5.0258,14.4572,-19.7169,0.0992,-6.5497,11.0886,-2.1841
1082.0312,-7.0889,1.5425,-18.5017,23.5749,-0.2296,4.9099,-17.8949,21.4219,-12.2600,6.4832,-27.4134,-2.9580,-7.1702,14.2694,-23.6263,-1.6291,-8.2227,11.1486,-6.8750
1085.9375,-6.2054,-0.5965,-20.1592,24.0438,0.0956,1.9187,-18.2371,21.9397,-12.3119,6.4785,-29.2386,-6.6997,-9.2573,13.2910,-27.1958,-5.3022,-9.2923,10.8081,-11.2474
1089.8438,-6.1048,-2.9446,-20.0659,24.3449,1.1973,-0.6435,-17.3186,21.9638,-11.4085,5.4641,-30.4196,-10.8002,-10.6564,11.6548,-28.8206,-9.2358,-9.5111,10.2531,-13.6501
1093.7500,-7.0469,-4.4851,-18.0311,24.3221,2.4650,-2.0209,-16.1062,21.2703,-9.7366,3.5731,-30.0350,-13.0256,-11.0117,9.6792,-27.7916,-11.4698,-9.3219,9.8817,-13.5335
1097.6562,-8.6232,-4.4653,-14.7234,24.0524,3.3014,-1.8691,-15.2230,19.9876,-7.6436,1.5674,-27.9373,-12.3330,-10.2428,7.8873,-24.8252,-11.1418,-9.2286,10.2727,-11.6558
1101.5625,-10.0068,-3.0893,-11.2869,23.8205,3.5856,-0.6388,-14.5891,18.6343,-5.2882,0.4279,-24.8535,-9.6296,-8.4709,6.8457,-21.6255,-9.1511,-9.1783,11.9040,-9.4698
1105.4688,-10.3792,-1.6373,-8.7185,23.8343,3.7345,0.4946,-13.6993,17.7820,-2.5394,0.7470,-21.8166,-7.1246,-5.9090,6.8789,-19.7362,-7.5693,-8.4870,14.7829,-8.1333
1109.3750,-9.2771,-1.7689,-7.3936,23.9341,4.3318,0.2283,-12.2288,17.5827,0.8049,2.3431,-19.3857,-6.7348,-2.7815,7.8500,-19.4908,-8.1683,-6.3878,18.2658,-7.8376
1113.2812,-6.7371,-4.4032,-7.0139,23.5734,5.6020,-2.0749,-10.4163,17.5549,4.6618,4.3746,-17.2950,-8.7360,0.6667,9.1898,-19.8452,-11.1249,-2.7680,21.2516,-7.9015
1117.1875,-3.2525,-8.9799,-6.9636,22.1454,7.1306,-5.9332,-8.9006,16.8592,8.4683,5.8808,-14.8366,-11.6746,4.0862,10.2026,-19.2471,-14.8668,1.5185,22.6856,-7.5107
1121.0938,0.3969,-13.7019,-6.7842,19.4521,8.0856,-9.9797,-8.1672,14.9274,11.3567,6.3734,-11.6681,-13.5826,6.9823,10.4804,-16.9027,-17.1936,5.0811,22.0942,-6.4968
1125.0000,3.3986,-16.6572,-6.4202,15.9789,7.8449,-12.7583,-8.0895,12.0000,12.6450,6.0727,-8.3471,-13.5277,8.8470,10.1611,-13.4553,-16.8455,6.9126,19.8292,-5.5215
1128.9062,5.2015,-17.0433,-6.0863,12.7440,6.6062,-13.5590,-7.9616,9.1472,12.3306,5.6460,-6.0750,-12.2794,9.4565,9.8493,-10.5130,-14.3542,7.1372,16.8724,-5.4991
1132.8125,5.7472,-15.6072,-5.9093,10.7727,5.4873,-12.7405,-7.0083,7.6802,11.2131,5.6644,-5.7684,-11.5845,9.1280,10.2228,-9.3517,-11.5551,6.9924,14.3143,-6.7065
1136.7188,5.5044,-13.9907,-5.6789,10.5082,5.9201,-11.3635,-4.9738,8.2991,10.4881,6.1889,-7.1712,-12.6564,8.6669,11.5502,-9.8073,-10.1648,7.9788,12.8099,-8.3191
1140.6250,5.2355,-13.4878,-4.9469,11.5245,8.6440,-10.4398,-2.3415,10.5360,11.0182,6.7761,-8.7726,-15.1056,8.9168,13.4121,-10.2789,-10.5316,10.7312,12.3103,-8.8220
1144.5312,5.5956,-14.1521,-3.4148,12.7279,12.9696,-10.3402,-0.0359,12.8851,12.7586,6.8714,-8.7132,-17.1807,10.1640,14.8062,-8.9243,-11.5091,14.4189,12.1948,-7.0759
1148.4375,6.7997,-14.8978,-1.2888,12.9311,16.9173,-10.7337,1.1525,13.5720,14.7608,6.2637,-6.0805,-17.1349,11.8530,14.6017,-5.1665,-11.5061,17.1633,11.6885,-3.2616
1152.3438,8.5707,-14.4607,0.7314,11.4597,18.2919,-11.0082,1.0059,11.5004,15.8042,5.2424,-1.6308,-14.6295,12.9188,12.1105,-0.3171,-9.8439,17.2561,10.3012,1.0543
1156.2500,10.3817,-12.4395,1.8856,8.4441,16.0859,-10.7957,-0.0785,6.8118,15.2467,4.3382,2.6560,-11.0504,12.5841,7.4765,3.2521,-7.3268,14.3707,8.0372,3.8820
1160.1562,11.7876,-9.6215,1.9145,4.6578,11.2774,-10.2080,-1.3913,0.7502,13.4900,3.8584,4.9195,-8.4777,11.0490,1.6752,3.8435,-5.5732,9.9118,5.2885,4.1751
1164.0625,12.5887,-7.3927,1.3085,1.0411,6.4004,-9.6679,-2.2922,-5.0312,11.6949,3.5905,4.6986,-8.1134,9.4917,-3.8789,1.7797,-5.6545,6.2139,2.5209,2.6232
1167.9688,12.7418,-6.7418,1.0102,-1.7748,4.0718,-9.5358,-2.4322,-9.2679,10.9217,2.9274,3.2055,-9.3908,9.2804,-7.9242,-0.6986,-7.1419,5.0907,-0.0126,1.2561
1171.8750,12.1762,-7.6365,1.7466,-3.6577,5.3998,-9.8455,-1.7690,-11.5291,11.3203,1.3429,2.3904,-10.4454,10.9330,-9.8519,-0.9746,-8.3429,6.7080,-2.3342,2.0904
1175.7812,10.7623,-9.1906,3.4806,-4.8094,9.3421,-10.3197,-0.4839,-12.1315,11.9945,-1.1291,3.5027,-9.5569,13.6288,-9.8758,2.0739,-7.5687,9.5470,-4.5465,5.7521
1179.6875,8.5208,-10.3934,5.4126,-5.4178,13.4618,-10.5953,1.0863,-11.6981,11.6867,-3.7833,6.2286,-6.4303,15.7167,-8.8140,7.2645,-4.4592,11.4724,-6.5403,11.0518
1183.5938,5.8782,-10.7725,6.5662,-5.4105,15.5671,-10.4491,2.5034,-10.7213,9.7914,-5.6139,9.0368,-2.3474,15.8992,-7.6244,11.9706,-0.3397,11.1530,-7.8541,15.8150
1187.5000,3.6508,-10.5021,6.5329,-4.5089,15.0867,-9.8697,3.3374,-9.4045,6.9147,-5.9364,10.4354,0.8770,14.1968,-6.9593,14.0095,2.6785,8.8423,-7.8454,18.3600
1191.4062,2.6145,-9.9873,5.8019,-2.5440,13.2275,-8.9786,3.3483,-7.8039,4.4920,-4.8349,10.1431,2.2737,11.9099,-6.9636,13.1472,3.1855,5.9996,-6.1144,18.5565
1195.3125,2.8967,-9.3815,5.3922,0.2129,11.8399,-7.9129,2.6382,-6.0657,3.6824,-3.1163,9.2613,2.3607,10.5515,-7.3792,11.1180,1.4537,4.0713,-2.9058,17.7172
1199.2188,3.6712,-8.4820,6.0353,2.9901,11.8651,-6.7653,1.6242,-4.5135,4.3472,-1.7897,9.3242,2.5986,10.5551,-7.8265,10.1953,-0.7825,3.3590,0.8234,17.4457
1203.1250,3.5094,-7.0504,7.5231,4.8342,12.5390,-5.5857,0.7977,-3.5006,4.9307,-1.4143,10.9871,4.1507,10.8016,-8.0445,11.4391,-1.5444,2.8174,3.7956,18.3382
1207.0312,1.2712,-5.1971,8.7481,5.1371,11.9582,-4.3875,0.4156,-3.1524,3.4338,-1.7569,13.4044,6.9471,9.4037,-7.9405,13.9565,0.0855,0.9249,5.0763,19.5240
1210.9375,-3.0415,-3.4242,8.4547,4.0215,8.5857,-3.1335,0.3541,-3.2356,-1.1467,-1.9887,14.8078,9.7529,5.2048,-7.4749,15.6865,3.4721,-3.0412,4.5971,19.3829
1214.8438,-8.1092,-2.2563,6.1731,2.2885,2.5593,-1.7411,0.2435,-3.2981,-7.9447,-1.2916,13.8562,11.1262,-1.1655,-6.5453,15.0374,7.0006,-8.3058,3.1691,16.8741
1218.7500,-12.0112,-1.7932,2.6379,0.9199,-4.2008,-0.1610,-0.2313,-3.0141,-14.6010,0.5316,10.7090,10.4760,-7.5456,-5.0261,12.0753,9.1878,-13.0298,1.9374,12.4470
1222.6562,-13.4131,-1.6166,-0.6539,0.4420,-9.2010,1.4873,-1.1233,-2.4863,-18.7035,2.8475,6.9760,8.4175,-11.6844,-2.9648,8.3609,9.5027,-15.5857,1.6149,7.8197
1226.5625,-12.4335,-1.1735,-2.4552,0.5931,-11.0373,2.8342,-2.2830,-2.2514,-19.3263,4.5209,4.5527,6.2261,-12.8124,-0.7582,5.6251,8.3958,-15.7378,2.0180,4.7795
1230.4688,-10.5907,-0.3232,-2.6250,0.5510,-10.3080,3.3518,-3.6088,-2.9240,-17.5980,4.5733,4.2171,4.8927,-12.1479,0.9061,4.3799,6.6895,-14.8361,2.2459,3.9045
1234.3750,-9.8536,0.4445,-2.1928,-0.4033,-9.1201,2.6279,-5.2146,-4.6823,-15.8911,2.7621,5.0566,4.5302,-11.9309,1.4000,3.5785,4.9217,-14.8441,1.4016,4.1756
1238.2812,-11.4265,0.3574,-2.5694,-2.2418,-9.5565,0.6791,-7.3034,-6.9478,-16.1817,-0.2628,5.1727,4.5237,-13.7050,0.6023,1.5778,3.1551,-16.8830,-0.6466,3.7758
1242.1875,-15.0543,-0.9712,-4.4767,-4.0450,-12.2162,-1.9106,-9.8172,-8.5329,-18.7136,-3.2932,3.1390,4.1956,-17.1439,-0.8912,-2.3938,1.2952,-20.3446,-3.0247,1.4744
1246.0938,-19.2477,-3.0991,-7.3916,-4.5150,-15.8600,-4.1587,-12.2037,-8.2414,-21.8766,-5.1650,-0.8913,3.3831,-20.3107,-2.0210,-7.4593,-0.4795,-23.2380,-4.3469,-2.4520
1250.0000,-22.2065,-4.9379,-9.9360,-2.8386,-18.3759,-5.1052,-13.6160,-5.5966,-23.3609,-5.2800,-5.2714,2.4783,-21.1420,-1.8852,-11.6552,-1.6314,-23.5508,-3.6297,-6.4638
1253.9062,-22.8097,-5.4710,-10.9487,0.6861,-18.3274,-4.2764,-13.5285,-1.2377,-21.7689,-3.7890,-8.0925,1.9719,-19.0247,-0.3351,-13.4201,-1.6352,-20.6775,-0.9944,-8.9850
1257.8125,-21.0908,-4.4834,-10.4556,4.7231,-15.9608,-1.9488,-12.3441,3.3080,-17.5778,-1.4052,-8.6441,1.9480,-15.2759,1.8875,-12.8649,-0.4960,-15.9121,2.3539,-9.6763
1261.7188,-18.0350,-2.7487,-9.8018,7.6742,-12.9766,0.9161,-11.4538,6.3970,-12.8252,0.9877,-8.0098,1.9743,-12.1875,3.6217,-11.8303,1.0512,-11.6552,4.8794,-9.7681
1265.6250,-14.9583,-1.5199,-10.7939,8.6678,-11.2799,3.0421,-12.5433,7.1540,-9.7782,2.7042,-8.3361,1.4639,-11.3767,4.0839,-12.6499,1.8891,-9.8819,5.6939,-11.1600
1269.5312,-12.8951,-1.6898,-14.4145,8.1002,-11.6370,3.3600,-16.5054,5.9379,-9.5125,3.4511,-11.2833,0.1837,-12.6823,3.4436,-16.5070,1.2085,-10.9135,5.0880,-14.9247
1273.4375,-12.2746,-3.2165,-19.9989,7.3535,-13.1900,1.4823,-22.6923,4.0993,-11.3347,3.3248,-16.7651,-1.5149,-14.3923,2.7514,-22.5653,-0.9407,-13.3063,4.2612,-20.3216
1277.3438,-12.9146,-5.1958,-25.4698,7.8690,-14.1330,-2.0616,-29.0865,3.1713,-13.3610,2.6803,-22.8734,-2.9229,-14.5728,3.2318,-28.4801,-3.6445,-14.8880,4.4600,-25.0842
1281.2500,-14.2012,-6.4878,-28.5099,10.1969,-13.0240,-5.9587,-33.3656,3.9904,-13.7858,1.9566,-27.0409,-3.4686,-12.4749,5.4079,-31.9024,-5.6926,-14.2057,6.1434,-26.8332
1285.1562,-15.3368,-6.4374,-27.9170,13.6600,-9.7911,-8.6312,-34.1936,6.2843,-11.9653,1.5174,-27.6323,-3.1089,-8.9976,8.6657,-31.9150,-6.3537,-11.4124,8.7503,-24.6522
1289.0625,-15.6038,-5.2216,-24.2635,16.8468,-5.7530,-8.9728,-31.8885,8.9583,-8.6448,1.5413,-24.8896,-2.3598,-5.9441,11.5725,-29.4502,-5.8545,-8.0501,11.1911,-19.7287
1292.9688,-14.6134,-3.6643,-19.4564,18.5770,-2.6869,-6.9652,-28.0358,10.8616,-5.2829,1.9879,-20.6423,-1.9931,-4.6948,12.7449,-26.4992,-5.2553,-5.9468,12.6649,-14.6151
1296.8750,-12.4525,-2.7210,-15.5178,18.6706,-1.6294,-3.8014,-24.3511,11.5197,-3.0150,2.6575,-17.0572,-2.6299,-5.2859,11.6869,-24.7477,-5.7987,-6.0082,13.1970,-11.6167
1300.7812,-9.6267,-2.9866,-13.4013,18.0010,-2.2348,-1.3423,-21.6053,11.3642,-1.9695,3.3221,-15.3160,-4.4623,-6.4966,9.0506,-24.5849,-8.1277,-7.6890,13.5297,-11.3999
1304.6875,-6.7911,-4.4751,-12.5915,17.8278,-3.0887,-1.1199,-19.3442,11.3478,-1.3350,3.8559,-15.0773,-7.1847,-6.7684,6.1856,-25.0743,-11.8405,-9.4197,14.4940,-12.7289
1308.5938,-4.4138,-6.6949,-11.6815,18.9003,-2.7038,-3.4339,-16.5305,12.2419,-0.0361,4.2760,-14.9756,-10.0920,-5.2191,4.3307,-24.7694,-15.6431,-9.6305,16.3646,-13.4386
1312.5000,-2.5975,-8.8956,-9.4744,20.9624,-0.4817,-7.1197,-12.5712,14.1077,2.5035,4.6595,-13.7004,-12.2822,-2.0483,4.0073,-22.7332,-18.0221,-7.6696,18.6743,-11.9189
1316.4062,-1.1753,-10.3544,-5.8434,22.9837,3.0048,-10.1963,-7.9442,16.2796,6.0250,4.9989,-10.8781,-12.9467,1.8341,4.9735,-19.0897,-18.0651,-4.0625,20.5974,-8.0951
1320.3125,0.0260,-10.6315,-1.7989,23.9150,6.5501,-11.0390,-3.9701,17.8313,9.6919,5.1256,-7.2143,-11.7209,5.5503,6.6624,-14.8498,-15.9750,-0.0376,21.5721,-3.3115
1324.2188,1.0073,-9.7491,1.2271,23.4096,9.2427,-9.3481,-1.9199,18.1720,12.6853,4.7927,-3.9212,-8.9680,8.7705,8.6900,-11.2442,-12.9823,3.2855,21.6751,0.6892
1328.1250,1.6753,-8.2191,2.3508,22.0029,11.1019,-6.2867,-2.1167,17.3622,14.6886,3.8842,-1.9149,-5.7844,11.6810,11.0268,-9.0485,-10.6899,5.4927,21.4732,2.9051
1332.0312,2.0969,-6.8499,1.7961,20.6541,12.9745,-3.7050,-3.6700,15.9717,15.9392,2.5913,-1.3354,-3.5908,14.5426,13.7479,-8.2762,-10.2034,6.9194,21.4923,3.5553
1335.9375,2.6486,-6.3563,0.6957,20.0154,15.7834,-2.9781,-5.0095,14.6347,16.8734,1.3884,-1.6261,-3.4261,17.2647,16.6349,-8.3223,-11.5406,8.2050,21.7343,3.6615
1339.8438,3.8394,-6.9576,0.3136,19.9737,19.6879,-4.2324,-4.8321,13.6499,17.6832,0.7763,-1.9981,-5.3292,19.3422,19.0225,-8.3747,-13.6640,9.7302,21.6280,4.1467
1343.7500,5.8845,-8.2229,1.2422,19.7883,23.7905,-6.4344,-2.8298,12.8955,18.1512,0.9472,-1.8921,-8.2321,20.1809,20.0714,-7.8280,-15.1237,11.3374,20.4579,5.1585
1347.6562,8.3880,-9.3048,3.1109,18.6960,26.6404,-8.2012,0.2418,12.0615,17.8910,1.6180,-1.1493,-10.5121,19.5470,19.2873,-6.5140,-14.9226,12.4981,17.9459,6.0890
1351.5625,10.4800,-9.4470,4.9655,16.5152,27.2161,-8.7131,3.1336,10.9605,16.7949,2.1779,0.1233,-10.9068,17.8114,16.8882,-4.6884,-13.0740,12.7650,14.5413,6.2036
1355.4688,11.4037,-8.4375,6.0090,13.7897,25.6959,-8.1055,4.8935,9.6471,15.3064,2.0726,1.7879,-9.2199,15.8263,13.7138,-2.8255,-10.5124,12.1609,11.1813,5.3471
1359.3750,11.1343,-6.6961,6.1639,11.3685,23.4385,-7.1571,5.3789,8.2641,14.2489,1.1571,3.7917,-6.3575,14.5158,10.7129,-1.3314,-8.4369,11.2136,8.6770,4.1704
1363.2812,10.5030,-4.9471,6.0648,9.7413,22.1230,-6.6095,5.2198,6.7853,14.2787,-0.2352,6.0984,-3.6869,14.4172,8.3641,-0.3143,-7.5378,10.6088,7.1563,3.7029
1367.1875,10.6391,-3.7333,6.5093,8.6424,22.6060,-6.6630,5.3237,4.9229,15.3456,-1.5526,8.5492,-2.1721,15.4170,6.4426,0.4636,-7.6205,10.7070,5.9721,4.5945
1371.0938,12.0964,-3.1368,7.7852,7.2400,24.2886,-6.9724,6.2655,2.3376,16.5950,-2.4100,10.8154,-1.8728,16.8141,4.2952,1.4097,-7.8521,11.2771,4.1637,6.5885
1375.0000,14.3397,-2.8902,9.3793,4.7949,25.4772,-7.0402,7.9275,-0.9815,16.8638,-2.7993,12.5182,-2.0991,17.6833,1.4159,2.7955,-7.4167,11.6532,1.1801,8.6220
1378.9062,16.0393,-2.7349,10.2994,1.3131,24.5353,-6.6292,9.5750,-4.4832,15.4810,-2.9790,13.4438,-2.0274,17.3698,-2.1026,4.5224,-6.0901,11.2221,-2.6246,9.5009
1382.8125,15.9996,-2.6855,9.7925,-2.3050,21.0488,-5.8813,10.2943,-7.2230,12.8143,-3.1626,13.7005,-1.2741,15.8585,-5.5721,6.1462,-4.3328,9.8946,-6.0761,8.7000
1386.7188,14.0208,-2.9578,7.9439,-4.7713,16.1703,-5.1276,9.5313,-8.4021,10.1193,-3.2915,13.7016,-0.0209,13.7888,-8.1631,7.1792,-2.8728,8.2006,-7.8282,6.7474
1390.6250,11.0091,-3.6299,5.7079,-5.2514,11.8548,-4.6194,7.4244,-7.9419,8.7161,-3.1021,13.9674,1.3206,12.0541,-9.4786,7.4687,-2.1266,6.8976,-7.1855,4.9329
1394.5312,8.2317,-4.3629,4.3156,-3.9615,9.4824,-4.4091,4.7475,-6.6650,9.0195,-2.4286,14.8538,2.5536,11.1810,-9.8282,7.3600,-1.9027,6.3472,-4.5808,4.5173
1398.4375,6.3059,-4.4808,4.4544,-2.0819,8.8314,-4.4129,2.4977,-5.8813,10.1165,-1.4615,16.3562,3.8507,10.8798,-9.9988,7.4792,-1.5890,6.1174,-1.3888,5.9452
1402.3438,4.7483,-3.4112,5.7977,-1.0145,8.1604,-4.5114,1.3638,-6.5814,10.2588,-0.6933,18.0965,5.5086,10.1198,-10.6748,8.2572,-0.6459,5.1557,0.8358,8.5538
1406.2500,2.4708,-1.1609,7.2305,-1.4691,5.3965,-4.5556,1.3887,-8.7472,8.0075,-0.5468,19.5094,7.5503,7.7760,-11.9190,9.5418,0.9928,2.4863,1.2373,10.9560
1410.1562,-1.1636,1.5715,7.6280,-3.0040,-0.3644,-4.3074,2.0238,-11.2676,3.2749,-0.9736,20.1412,9.5528,3.4734,-13.0870,10.6185,2.9061,-2.0238,0.1155,11.8563
1414.0625,-5.5986,3.7833,6.6401,-4.3453,-8.0930,-3.4598,2.5283,-12.5778,-2.4758,-1.3817,19.9098,10.8774,-1.9622,-13.2534,10.6719,4.5333,-7.3890,-1.3296,10.7946
1417.9688,-9.3020,4.8051,4.9163,-4.2788,-15.3533,-1.8128,2.4416,-11.6544,-7.0713,-1.0130,19.1739,11.1280,-6.8438,-11.8726,9.3769,5.5774,-11.9865,-1.8042,8.3645
1421.8750,-10.8291,4.7254,3.5994,-2.5028,-19.7844,0.5151,1.8103,-8.7288,-8.9834,0.4789,18.5484,10.4625,-9.6227,-9.2196,7.1812,6.1478,-14.5300,-0.7624,5.7879
1425.7812,-9.9152,4.2883,3.4512,0.1507,-20.5274,3.0658,1.0323,-5.2230,-8.2947,2.6971,18.5430,9.4964,-9.9026,-6.2944,5.0497,6.5598,-14.8895,1.2623,4.1291
1429.6875,-7.7293,4.3416,4.2568,2.2912,-18.6273,5.3100,0.4631,-2.9043,-6.6081,4.7075,19.2268,8.8676,-8.7391,-4.2295,3.8354,6.9985,-14.1690,3.0530,3.6533
1433.5938,-6.0658,5.2446,4.9630,2.9450,-16.1713,7.0277,0.1076,-2.7724,-5.9498,5.6640,20.1382,8.8008,-7.9459,-3.5792,3.7262,7.3415,-13.9471,3.5647,3.7353
1437.5000,-6.0898,6.6602,4.4710,2.2513,-14.8082,8.4574,-0.3569,-4.3974,-7.4118,5.3919,20.5274,8.9989,-8.8426,-3.9694,4.1595,7.2809,-15.1849,2.6596,3.3612
1441.4062,-7.6000,7.8514,2.4983,1.3832,-14.7152,10.0130,-1.2587,-6.1584,-10.4596,4.4803,19.8022,8.9230,-11.3194,-4.3566,4.2423,6.6179,-17.5629,1.2142,1.8680
1445.3125,-9.3576,8.2259,-0.1538,1.7344,-14.7177,11.7516,-2.6039,-6.2558,-13.3679,3.8074,17.8838,8.2199,-13.9162,-3.7398,3.3381,5.4621,-19.7293,0.5188,-0.5971
1449.2188,-10.1764,7.7129,-2.1763,3.9324,-13.4132,13.0614,-4.0577,-3.8583,-14.4589,3.8685,15.2171,6.9606,-14.8939,-1.8554,1.3766,4.1646,-20.2930,1.3815,-3.2272
1453.1250,-9.8778,6.7206,-2.7878,7.3650,-10.4187,12.9418,-5.2901,0.3542,-13.2682,4.4407,12.4107,5.5334,-13.5426,0.6207,-1.3032,3.0512,-18.8496,3.5611,-5.2197
1457.0312,-9.3473,5.7635,-2.4651,10.5543,-6.7949,10.7791,-6.4055,4.6108,-10.8335,4.8505,9.7635,4.3149,-10.7674,2.5196,-4.3763,2.1928,-16.2940,5.9323,-6.4778
1460.9375,-9.6809,5.0870,-2.7754,12.1249,-4.3302,7.0470,-8.0485,7.1609,-8.9295,4.6209,7.0500,3.4054,-8.4997,2.9865,-7.8129,1.4123,-14.1870,7.2669,-7.8112
1464.8438,-11.1523,4.5783,-5.3431,11.6980,-4.2256,3.3086,-10.9932,7.3557,-8.8153,3.9555,3.7634,2.6305,-8.3399,2.0999,-11.7543,0.5143,-13.6359,7.0825,-10.4303
1468.7500,-12.8730,3.9927,-10.6274,10.1011,-6.1690,1.3746,-15.4479,6.0004,-10.3785,3.6373,-0.3374,1.7730,-10.4106,0.8699,-16.1035,-0.4735,-14.5131,5.9572,-15.0332
1472.6562,-13.4418,3.2671,-17.3776,8.7692,-8.5025,2.1463,-20.5992,4.7619,-12.2585,4.3926,-4.8036,0.8159,-13.2555,0.5934,-20.2319,-1.2703,-15.5872,5.0978,-21.1174
1476.5625,-12.0666,2.6387,-23.2101,8.7714,-9.3789,4.9824,-24.8245,5.0405,-12.8275,6.2256,-8.5815,-0.0150,-14.8554,1.9960,-23.1472,-1.5613,-15.4658,5.4823,-27.0462
1480.4688,-9.2494,2.4674,-25.9877,10.1483,-8.0720,8.0975,-26.5469,7.0631,-11.3174,8.2864,-10.6252,-0.4389,-14.0245,4.7421,-24.0834,-1.2892,-13.6459,7.1968,-30.9078
1484.3750,-6.4669,2.9070,-25.1149,11.9977,-5.4861,9.7332,-25.2119,9.7872,-8.3090,9.4336,-10.6325,-0.3828,-11.1820,7.6507,-23.0904,-0.7639,-10.8876,9.4284,-31.6459
1488.2812,-5.0747,3.6946,-21.8928,13.2054,-3.4888,9.2488,-21.7203,11.6557,-5.2733,9.0989,-9.3375,-0.1096,-7.9711,9.4646,-21.1292,-0.4836,-8.6362,11.0867,-29.7144
1492.1875,-5.2799,4.2304,-18.6887,13.2623,-3.5406,7.3391,-17.9766,11.6674,-3.5263,7.7896,-8.0761,-0.1205,-6.0410,9.6393,-19.5198,-0.7917,-7.9303,11.5692,-26.7983
1496.0938,-5.9741,3.9001,-17.4636,12.5757,-5.6058,5.2713,-15.8107,10.0352,-3.3456,6.8077,-7.8731,-0.9018,-5.9000,8.6106,-19.0862,-1.6348,-8.6164,11.1088,-24.7629
1500.0000,-5.5583,2.4187,-18.6124,12.0735,-8.1306,3.7995,-15.9571,8.0026,-3.8530,7.3472,-8.6967,-2.6806,-6.6498,7.3801,-19.6113,-2.6152,-9.4574,10.4813,-24.5233
1503.9062,-3.1414,-0.0285,-20.8411,12.4282,-9.1076,2.6450,-17.7342,6.9744,-3.7101,9.6087,-9.4586,-5.3143,-6.7418,6.7486,-20.0178,-3.3038,-9.0494,10.3420,-25.5789
1507.8125,0.7793,-2.9194,-22.1050,13.4969,-7.4732,0.9301,-19.5855,7.5789,-2.1084,12.5795,-8.8133,-8.3394,-5.1476,6.7697,-19.1677,-3.5828,-6.8593,10.7279,-26.4974
1511.7188,4.6381,-5.6898,-20.9451,14.4022,-3.8431,-1.8497,-20.0777,9.3037,0.6470,14.6558,-6.2090,-11.1256,-2.0766,6.8180,-16.7052,-3.7601,-3.6077,11.1007,-25.9768
1515.6250,6.8712,-7.9909,-17.3467,14.1950,-0.0615,-5.1819,-18.6892,10.9315,3.3569,14.6772,-2.4137,-13.0746,1.2490,6.1998,-13.3227,-4.3682,-0.7160,10.8670,-23.7273
1519.5312,6.9590,-9.7638,-12.6178,12.6110,2.1180,-7.8036,-15.9350,11.4412,4.7836,12.6592,0.9063,-13.8165,3.5416,4.8275,-10.2537,-5.7855,0.7667,9.9389,-20.5733
1523.4375,5.7254,-11.1246,-8.4599,10.3591,2.2852,-8.6862,-12.8569,10.7271,4.5387,9.7391,2.2931,-13.3618,4.3895,3.4319,-8.3695,-7.9376,0.9560,8.8802,-17.7554
1527.3438,4.7278,-12.1718,-5.9106,8.7205,1.6641,-7.9262,-10.3133,9.6377,3.3898,7.4078,1.5007,-12.1364,4.5101,3.1322,-7.5566,-10.2788,1.0528,8.5217,-15.9887
1531.2500,5.1982,-12.8625,-4.8502,8.7249,2.2221,-6.7858,-8.5556,9.3222,2.7732,6.5791,-0.3376,-10.8377,5.1639,4.6607,-6.8475,-12.0650,2.4424,9.3466,-14.9871
1535.1562,7.2521,-13.0386,-4.3240,10.4657,5.2093,-6.8128,-7.2957,10.3610,3.8397,7.1084,-1.5157,-10.1282,7.1814,7.7930,-5.2131,-12.7490,5.6193,11.1146,-13.7926
1539.0625,9.8542,-12.5800,-3.3643,13.0088,10.1570,-8.7123,-6.0994,12.2956,6.6714,8.0215,-0.9552,-10.3040,10.3088,11.3884,-2.4331,-12.2695,9.7139,12.9950,-11.6356
1542.9688,11.5119,-11.5734,-1.7006,14.9410,15.0602,-11.8388,-4.7576,13.8848,10.1946,8.2181,1.0719,-11.1377,13.3229,14.0115,0.6150,-11.0771,12.9707,14.0855,-8.6523
1546.8750,11.2264,-10.3645,0.1176,15.1796,17.6638,-14.6663,-3.3798,13.9026,12.8552,7.1439,3.2207,-12.0177,14.8258,14.7125,2.4930,-9.8910,13.8672,13.9210,-5.8892
1550.7812,9.1197,-9.4262,1.2157,13.5226,16.9980,-15.8293,-2.2081,11.9295,13.6195,5.0218,4.1377,-12.3103,14.1792,13.4634,2.2163,-9.3160,12.1267,12.6248,-4.5622
1554.6875,6.3877,-9.0886,1.1141,10.6288,14.1170,-14.9219,-1.3514,8.6067,12.6503,2.5791,3.5209,-11.7109,11.9689,11.0175,0.0475,-9.5149,8.9578,10.6608,-5.0956
1558.5938,4.6283,-9.2850,0.1535,7.5104,11.5097,-12.5124,-0.6532,5.2071,11.2112,0.5326,2.3952,-10.3458,9.7090,8.3591,-2.4965,-10.1034,6.3719,8.4422,-6.6570
1562.5000,4.9344,-9.4951,-0.6644,4.9164,11.5351,-9.5088,0.2217,2.8408,10.8522,-0.8082,2.4007,-8.5769,8.9720,6.1485,-3.4670,-10.3357,6.0139,6.1187,-7.5664
1566.4062,7.2586,-8.9724,-0.3067,3.0005,14.8954,-6.4983,1.5657,1.8361,12.3923,-1.6119,4.6108,-6.6940,10.4676,4.4995,-1.6292,-9.5080,8.2274,3.6585,-6.3489
1570.3125,10.4141,-7.1703,1.6114,1.4252,20.1457,-3.6013,3.4240,1.6812,15.3480,-2.3003,8.7235,-4.7655,13.6043,3.1470,2.7822,-7.3845,11.8911,1.0780,-2.7386
1574.2188,12.7355,-4.1303,4.5400,-0.2491,24.5633,-0.8412,5.5308,1.5054,18.1784,-3.2242,13.1852,-2.7748,16.7783,1.7925,8.1591,-4.4104,15.0789,-1.4325,2.0482
1578.1250,13.0450,-0.5736,7.2821,-2.1982,25.8129,1.4514,7.4168,0.7174,19.1930,-4.4426,16.1393,-0.9000,18.2283,0.3524,12.3973,-1.5615,16.1192,-3.6102,5.9747
1582.0312,11.3597,2.4039,8.6782,-4.2266,23.3328,2.6759,8.6341,-0.6482,17.5527,-5.7078,16.5323,0.3602,16.9791,-1.0265,14.0184,0.1282,14.4382,-5.3348,7.3753
1585.9375,8.8758,3.8906,8.2673,-5.9402,18.5699,2.4553,8.9894,-2.0798,13.7372,-6.6313,14.6467,0.4144,13.3515,-2.1234,12.8816,0.1212,10.7451,-6.7309,5.9255
1589.8438,7.1853,3.6550,6.5292,-7.0300,13.9534,1.1224,8.6658,-3.0642,9.2029,-6.9235,11.7733,-0.9466,8.7512,-2.8101,10.1127,-1.3059,6.5135,-8.0333,2.7905
1593.7500,7.1827,2.2807,4.5695,-7.4537,11.3163,-0.3071,8.1422,-3.5026,5.4728,-6.5752,9.3250,-3.1920,4.8518,-3.1161,7.3520,-3.1843,3.0990,-9.3185,-0.1190
1597.6562,8.3848,0.8585,3.4517,-7.4082,10.7978,-0.7389,7.9173,-3.7589,3.2511,-5.8784,8.0236,-5.1600,2.6442,-3.1932,5.8140,-4.3611,1.0108,-10.3421,-1.2944
1601.5625,9.1704,0.4225,3.5878,-7.1478,10.9059,0.2762,8.1714,-4.3264,2.1152,-5.2597,7.6572,-5.6580,1.9199,-3.2476,5.7151,-4.1016,-0.2650,-10.6519,-0.4570
1605.4688,7.8507,1.4575,4.5588,-6.7984,9.6337,2.2866,8.5829,-5.3895,0.9406,-5.0066,7.4603,-4.1931,1.5088,-3.4860,6.3676,-2.4331,-1.8128,-9.9098,1.4245
1609.3750,3.8775,3.7347,5.4619,-6.2987,5.8448,4.3523,8.4660,-6.6260,-1.2609,-5.0530,6.7624,-1.3154,0.1260,-4.0651,6.8118,-0.0418,-4.4993,-8.1723,2.8846
1613.2812,-1.6571,6.5116,5.5422,-5.4995,0.0088,5.7552,7.1989,-7.4066,-4.6614,-4.9848,5.4383,1.7043,-2.7211,-5.0260,6.5323,2.1781,-8.3378,-5.8980,2.9503
1617.1875,-6.6254,8.9238,4.6828,-4.3407,-6.1573,6.4102,4.6806,-7.2512,-8.5247,-4.3012,3.9090,3.6747,-6.3801,-6.2380,5.7783,3.6199,-12.4158,-3.6706,1.7101
1621.0938,-9.1955,10.3382,3.4225,-2.9799,-10.8459,6.6776,1.4803,-6.2131,-11.7180,-2.7838,2.7772,4.2173,-9.5072,-7.4207,5.2849,4.2013,-15.4485,-1.8529,0.1105
1625.0000,-8.9744,10.5280,2.4951,-1.7827,-13.3053,6.8334,-1.4834,-4.9104,-13.4448,-0.7158,2.3965,3.9259,-11.0278,-8.2838,5.6068,4.2429,-16.6209,-0.4380,-0.8436
1628.9062,-7.1648,9.6673,2.2258,-1.1666,-14.2157,6.7477,-3.5487,-4.1734,-13.6995,1.2346,2.6553,3.8523,-10.9197,-8.7162,6.5571,4.1326,-16.1599,0.8071,-0.8948
1632.8125,-5.6449,8.2246,2.2376,-1.3775,-15.0779,6.0855,-4.7691,-4.5341,-13.1672,2.4149,3.0746,4.7049,-10.2395,-8.8791,7.1862,4.0401,-15.2259,2.0507,-0.7569
1636.7188,-5.6647,6.8048,1.7094,-2.3199,-17.0663,4.8039,-5.8507,-5.8829,-12.6884,2.5995,3.1112,6.3405,-10.3418,-9.0937,6.3720,3.8640,-15.1507,3.2143,-1.5770
1640.6250,-7.1146,5.9524,0.0186,-3.5438,-20.1417,3.3922,-7.5714,-7.5008,-12.6949,2.1006,2.4621,7.9009,-11.8451,-9.5656,3.6375,3.4047,-16.5145,4.0423,-4.0135
1644.5312,-8.8625,5.9302,-2.7100,-4.4123,-23.0277,2.5292,-10.1118,-8.4323,-13.0069,1.4850,1.1950,8.4660,-14.1196,-10.1458,-0.3976,2.5936,-18.7050,4.3415,-7.6171
1648.4375,-9.8227,6.5584,-5.6034,-4.3835,-24.0659,2.4139,-12.8486,-7.9698,-13.1019,1.1140,-0.3596,7.7291,-15.7094,-10.3343,-4.3202,1.5999,-20.3016,4.1669,-11.0194
1652.3438,-9.8698,7.2418,-7.6553,-3.2633,-22.3742,2.4229,-14.8399,-5.9800,-12.6176,0.8816,-1.8855,6.2119,-15.4089,-9.5651,-6.8509,0.7494,-20.0528,3.7924,-12.8679
1656.2500,-9.8677,7.2447,-8.5450,-1.2916,-18.5238,1.5300,-15.6726,-2.9236,-11.6973,0.3812,-3.3623,4.8947,-13.1951,-7.5823,-7.7780,0.3338,-17.7670,3.5056,-12.8650
1660.1562,-10.8157,6.1089,-9.0332,0.9977,-14.2605,-0.7622,-15.9906,0.3995,-10.9155,-0.6210,-5.1631,4.5566,-10.2894,-4.6186,-8.2063,0.4508,-14.4629,3.4234,-12.1254
1664.0625,-12.8390,3.9685,-10.5525,3.0715,-11.4253,-3.7788,-17.1897,3.2197,-10.8400,-1.8074,-7.8581,5.2951,-8.2649,-1.2263,-9.8505,0.9685,-11.6470,3.4938,-12.4911
1667.9688,-14.8818,1.5312,-14.1867,4.6793,-10.7729,-5.9871,-20.3886,5.0992,-11.5591,-2.3869,-11.7869,6.5235,-7.8550,2.1176,-13.7847,1.6108,-10.2305,3.6634,-15.1980
1671.8750,-15.3982,-0.3023,-19.7254,5.9532,-11.4805,-6.1449,-25.4018,6.0471,-12.5378,-1.6345,-16.6435,7.3867,-8.3841,5.3089,-19.4997,2.0936,-9.8956,4.0238,-19.8180
1675.7812,-13.5291,-0.9567,-25.5132,7.2624,-11.7112,-4.3750,-30.5455,6.4311,-12.9344,0.5011,-21.3823,7.2723,-8.2994,8.5619,-24.9854,2.2372,-9.4096,4.7668,-24.2977
1679.6875,-9.8493,-0.5006,-29.3065,8.9203,-9.9000,-2.1939,-33.5639,6.7443,-12.1714,3.2223,-24.6048,6.0976,-6.4361,12.0311,-27.8774,2.0196,-7.6692,5.9672,-26.1885
1683.5938,-6.0839,0.4392,-29.6363,10.9394,-5.9209,-1.3443,-33.1180,7.3401,-10.3562,5.3384,-25.2817,4.2628,-3.0502,15.4264,-26.9505,1.5691,-4.6783,7.4052,-24.2915
1687.5000,-3.9835,1.0945,-26.7651,13.0025,-1.3210,-2.3388,-29.7899,8.2543,-8.2300,6.0591,-23.3872,2.3892,0.2215,17.9798,-22.9452,1.1036,-1.6718,8.6461,-19.5717
1691.4062,-4.1806,1.0044,-22.5446,14.6730,1.6057,-3.9960,-25.8120,9.2066,-6.6467,5.5331,-20.0037,1.0392,1.5205,18.8581,-18.1294,0.8265,-0.2321,9.3777,-14.6366
1695.3125,-5.8508,0.2009,-19.2190,15.6977,1.3459,-4.5184,-23.6172,9.7928,-5.9292,4.7017,-16.7537,0.5334,0.2116,17.7474,-14.8631,0.8083,-1.0355,9.7515,-12.0634
1699.2188,-7.3857,-0.9410,-17.9573,16.1885,-1.7171,-3.3436,-24.1735,9.7745,-5.5690,4.5517,-14.8740,0.8673,-2.4912,15.1578,-14.1339,0.9103,-3.2038,10.4042,-12.7007
1703.1250,-7.5396,-2.0147,-18.1212,16.5479,-5.4016,-2.1894,-26.2804,9.2973,-4.5245,5.3249,-14.5259,1.6986,-4.2610,12.1765,-15.0642,0.8153,-4.8206,12.0582,-15.1377
1707.0312,-6.2078,-2.7955,-17.7800,17.1850,-7.0531,-4.1823,-27.3553,8.8818,-1.9573,6.3013,-14.8137,2.4245,-3.2770,9.8126,-15.7059,0.1788,-4.2945,14.9452,-16.7356
1710.9375,-4.3282,-3.2346,-15.1233,18.2214,-5.2587,-11.4538,-25.1928,9.1554,2.0926,6.3417,-14.5027,2.3987,0.4447,8.4038,-14.5245,-1.1677,-1.5625,18.4942,-15.5042
1714.8438,-3.0669,-3.3269,-9.7921,19.3907,-0.7921,-22.9568,-19.4818,10.4643,6.5945,4.7953,-12.9276,1.2582,5.0146,7.5264,-11.4951,-3.0839,1.8056,21.5729,-11.4927
1718.7500,-2.9375,-3.0454,-3.2072,20.2043,3.8912,-34.3307,-12.0340,12.6047,10.1183,2.0842,-10.4374,-0.8111,7.9949,6.4738,-8.0362,-5.1571,3.7458,23.1685,-6.7076
1722.6562,-3.4754,-2.4332,2.3183,20.2613,6.3033,-40.2404,-5.5913,14.8608,11.7679,-0.4875,-8.0658,-3.0908,8.1355,4.9261,-5.8730,-6.9015,3.2704,23.0367,-3.6372
1726.5625,-3.6222,-1.7472,5.0477,19.4873,5.5981,-37.7328,-2.0721,16.3552,11.8108,-1.5715,-6.6983,-4.7150,6.2458,3.2834,-5.7073,-8.0028,1.2883,21.8356,-3.4734
1730.4688,-2.4685,-1.4521,4.8515,18.1454,3.1032,-28.2547,-1.4748,16.5073,11.5249,-0.6525,-6.3911,-5.2306,4.5562,2.3930,-6.6974,-8.4545,0.0181,20.6273,-5.3260
1734.3750,0.1820,-1.9728,3.1268,16.6373,1.3341,-16.8260,-2.1429,15.3261,12.3151,1.6589,-6.3741,-4.9473,5.0439,2.8826,-7.1248,-8.5039,1.3827,20.1063,-6.9719
1738.2812,3.7547,-3.3467,1.7391,15.2621,2.2025,-8.8741,-2.1046,13.3674,14.6964,4.0935,-5.7234,-4.7669,7.9798,4.6233,-5.7252,-8.4516,5.5657,20.1263,-6.5358
1742.1875,7.3012,-5.0572,1.7924,14.1133,5.7190,-6.9202,-0.4684,11.4041,17.8817,5.5703,-4.1525,-5.5343,11.7845,6.7559,-2.6594,-8.4429,10.8222,19.8790,-3.8222
1746.0938,10.0363,-6.2375,3.0952,13.1603,10.1332,-9.3800,2.1121,10.0299,20.3175,5.7996,-2.2652,-7.3395,14.2962,8.2702,0.6197,-8.3806,14.7139,18.5760,-0.3149
1750.0000,11.6955,-6.1538,4.6196,12.4002,13.3796,-12.1663,4.1482,9.4247,20.8227,5.2559,-1.0428,-9.3013,14.4811,8.6929,2.5078,-7.9994,15.8670,16.0964,2.1069
1753.9062,12.5700,-4.6424,5.5029,11.9039,14.7092,-11.7674,4.5828,9.3665,19.5080,4.6289,-0.9695,-10.0644,13.2731,8.3525,2.5267,-7.0394,14.9411,13.0885,2.7077
1757.8125,13.2602,-2.1888,5.7704,11.6858,15.2341,-7.5306,3.6345,9.4088,17.7609,4.2308,-1.5204,-8.7190,12.8823,8.0193,1.7538,-5.4082,14.0718,10.4459,2.4866
1761.7188,14.2929,0.4038,6.2319,11.5070,16.9362,-1.6527,2.6131,9.0702,17.2420,3.8089,-1.4774,-5.5040,15.0684,8.2132,2.0463,-3.2556,15.1944,8.5757,3.3615
1765.6250,15.7786,2.4975,7.6802,10.8249,20.8918,2.8184,2.8979,7.9522,18.5919,2.8505,0.1192,-1.7637,19.6709,8.7292,4.6146,-0.9435,18.4984,7.0550,6.5804
1769.5312,17.2756,3.8968,10.0732,9.0228,26.1133,4.2625,4.8765,5.8107,20.8225,1.0844,3.1148,0.8543,24.5175,8.7617,8.9992,1.0578,22.1802,4.9739,11.5882
1773.4375,17.9789,4.7494,12.3880,5.8294,29.9829,3.3512,7.6329,2.6420,21.9175,-1.2325,6.1872,1.4157,26.8185,7.5316,13.2400,2.3079,23.6954,1.7245,16.2358
1777.3438,17.2047,5.2189,13.3007,1.6405,30.0469,2.0859,9.5939,-1.2227,20.2820,-3.4416,7.7108,0.2216,25.0628,4.9259,15.1605,2.5390,21.5997,-2.3764,18.2024
1781.2500,14.9269,5.2563,12.1948,-2.5366,25.8611,2.0411,9.6405,-5.1205,16.0080,-4.8898,6.9381,-1.5135,20.0565,1.6455,13.8795,1.7712,16.6313,-6.1393,16.5966
1785.1562,11.9874,4.6859,9.7266,-5.5620,19.4712,3.3009,7.8841,-8.2554,10.9900,-5.2957,4.6133,-2.5551,14.3734,-1.2579,10.4791,0.3552,11.2505,-8.2373,12.5822
1789.0625,9.7197,3.5228,7.4954,-6.7951,14.0975,4.8076,5.5861,-10.0565,7.7242,-4.8370,2.5279,-2.4295,10.6281,-3.0995,7.3441,-1.0980,7.9815,-8.1034,8.5990
1792.9688,9.1043,2.2094,7.0232,-6.4589,11.9349,5.5950,4.3215,-10.4859,7.5989,-3.9536,2.3057,-1.5295,9.8074,-3.9833,6.6173,-1.9018,7.7559,-6.3273,6.7703
1796.8750,9.9813,1.5085,8.7601,-5.4628,12.6664,5.7164,4.9977,-10.0553,9.8973,-3.0569,4.2883,-0.5349,10.8013,-4.6136,8.8256,-1.5299,9.4134,-4.2421,7.6262
1800.7812,10.9428,2.0756,11.8103,-4.7833,13.7743,6.0945,7.3804,-9.4851,12.2584,-2.3433,7.3272,0.3210,11.3752,-5.6637,12.5991,0.1935,10.6433,-2.9910,9.9826
1804.6875,10.1300,4.0207,14.5510,-4.8238,12.4065,7.5444,10.3710,-9.2201,12.2915,-1.7851,9.6246,1.4986,9.8015,-7.2108,15.6445,3.0330,9.6125,-2.7535,11.9419
1808.5938,6.4999,6.8014,15.6849,-5.2145,7.4105,9.9335,12.7522,-9.1613,9.1945,-1.2369,9.9971,3.6984,5.9630,-8.6913,16.2759,6.4265,6.0989,-2.7022,12.2151
1812.5000,0.6811,9.5437,14.9886,-5.1968,0.0634,12.2514,13.8459,-8.8454,4.2170,-0.5601,8.6451,7.0951,1.2168,-9.4079,14.4621,9.6680,1.3967,-1.7216,10.8341
1816.4062,-5.2758,11.5538,13.2762,-4.3048,-6.9651,13.4972,13.6783,-7.9472,-0.3452,0.2867,6.8959,10.9352,-2.7493,-9.1749,11.7188,12.1227,-2.7983,0.6424,8.8625
1820.3125,-9.1927,12.6463,11.6797,-2.8127,-11.5466,13.5564,12.6606,-6.6908,-2.8502,1.1997,6.1560,13.9046,-5.1326,-8.5637,9.9857,13.4207,-5.6006,3.7132,7.4656
1824.2188,-10.2335,13.0778,10.8175,-1.5805,-13.4347,13.2750,11.1388,-5.7784,-3.4336,1.9359,6.8746,15.0377,-6.4123,-8.5088,10.3004,13.5919,-7.3534,6.0609,7.0929
1828.1250,-9.4734,13.1970,10.4486,-1.3838,-14.0623,13.6784,9.2000,-5.8194,-3.7379,2.2072,8.2723,14.4648,-7.7262,-9.5427,12.1735,13.0944,-9.0437,6.4729,7.3275
1832.0312,-9.0912,13.1322,9.8073,-2.2326,-15.0809,15.0452,6.8481,-6.6850,-5.4956,1.8615,8.9914,13.3720,-9.8062,-11.2409,14.0356,12.6775,-11.2847,4.8282,7.3888
1835.9375,-10.7305,12.7692,8.2987,-3.2311,-16.8940,16.6612,4.3198,-7.3596,-9.0767,1.0609,8.1372,13.1424,-12.3306,-12.3409,14.3849,13.0668,-13.7067,2.2399,6.8006
1839.8438,-14.2305,11.9934,5.9975,-3.1461,-18.3665,17.4561,2.1843,-6.5305,-13.1244,0.3035,5.9198,14.3083,-14.1646,-11.5174,12.8057,14.5733,-15.2105,0.3479,5.7014
1843.7500,-17.6882,10.9391,3.5782,-1.3083,-17.8964,16.9455,1.0496,-3.5709,-15.5521,0.2019,3.4379,16.1268,-14.2463,-8.2994,10.1699,16.8435,-14.8301,0.2466,4.6195
1847.6562,-18.8313,9.9900,1.7546,1.8231,-14.9198,15.6465,1.0499,0.8168,-15.1326,1.1108,1.7990,17.1394,-12.4056,-3.4777,7.9314,18.9660,-12.4936,1.7920,3.9625
1851.5625,-16.6802,9.5115,0.6690,4.8937,-10.5796,14.6182,1.5201,4.8741,-12.4609,2.8603,1.2505,16.3129,-9.4996,1.3205,7.0504,19.9622,-9.0994,3.7633,3.6444
1855.4688,-12.2582,9.5412,-0.3007,6.5721,-6.9805,14.5514,1.1906,6.8991,-9.5617,4.8267,0.9572,13.8895,-6.8072,4.6329,7.3126,19.4131,-5.8864,4.7525,3.1094
1859.3750,-7.8350,9.7102,-2.1687,6.5099,-5.6058,15.2053,-1.1243,6.4524,-8.4475,6.3378,-0.4310,11.2698,-5.1778,6.0723,7.4961,17.8013,-3.6163,4.1489,1.6953
1863.2812,-5.3149,9.4749,-5.6573,5.6316,-6.1549,15.6569,-5.7470,4.7535,-9.7162,7.1292,-3.8403,9.9887,-4.5692,6.5225,6.2371,16.2675,-2.1884,2.5291,-0.9393
1867.1875,-5.0160,8.4793,-10.6659,5.5057,-6.7429,15.0971,-11.7932,3.8985,-12.2257,7.4892,-9.1202,10.5494,-4.2647,7.4778,2.9708,15.8610,-0.9291,1.1996,-4.5886
1871.0938,-5.7374,6.7680,-16.2366,7.2200,-5.3393,13.4566,-17.5430,5.3981,-14.0432,7.9515,-15.0926,12.0118,-3.5342,9.9727,-1.6962,16.7637,0.7299,1.2405,-8.5686
1875.0000,-5.9701,4.7097,-21.0241,10.5668,-1.3586,11.3413,-21.3411,9.0785,-13.9089,8.7706,-20.2207,12.6638,-2.2039,13.8268,-6.4038,18.0600,2.7367,2.7469,-12.0012
1878.9062,-5.2065,2.7311,-23.9651,14.1375,3.8013,9.4141,-22.4800,13.1757,-12.1017,9.6324,-23.4212,11.2791,-0.7308,17.7201,-9.9149,18.2951,4.4446,4.8077,-14.1635
1882.8125,-4.2697,1.0963,-24.7524,16.2736,7.6741,7.8537,-21.5188,15.5898,-10.0902,9.8908,-24.5095,8.0109,0.2147,20.0413,-11.8281,16.4925,5.1118,6.2184,-14.7683
1886.7188,-4.4285,-0.1187,-23.8775,16.1926,8.4094,6.3998,-19.8489,15.3986,-9.2987,9.1853,-24.0740,4.2492,0.2907,19.9301,-12.6585,12.9181,4.4647,6.3937,-14.0834
1890.6250,-6.0849,-0.9110,-22.2747,14.4828,6.0004,4.8934,-18.8048,13.5122,-9.9663,7.9247,-22.9630,1.5639,-0.2600,17.8100,-13.2919,8.9962,2.9074,5.8057,-12.8274
1894.5312,-8.1852,-1.2748,-20.8061,12.6277,2.2144,3.7068,-18.8966,11.9746,-10.9625,7.1624,-21.7700,0.5536,-0.7898,15.0695,-14.2557,6.3712,1.2664,5.6274,-11.8392
1898.4375,-8.9064,-1.2650,-19.8643,11.9361,-0.6393,3.5428,-19.6249,12.4326,-10.6591,7.8538,-20.6209,0.4853,-0.6782,13.1393,-15.3444,5.7571,0.3016,6.8490,-11.6304
1902.3438,-7.0993,-1.1160,-19.2623,12.6821,-1.1657,4.7001,-19.9349,14.9214,-8.1548,10.0272,-19.3039,-0.0145,0.3192,12.6175,-15.8371,6.4174,0.3442,9.5249,-12.0515
1906.2500,-3.3108,-1.2222,-18.4161,14.0768,0.4446,6.4946,-18.9506,17.8806,-3.9188,12.5620,-17.5600,-1.7772,2.0239,13.0381,-15.0965,6.6956,1.2676,12.7148,-12.3094
1910.1562,0.5003,-1.8981,-16.7013,15.0463,2.8762,7.4931,-16.4917,19.3821,0.5983,13.8605,-15.3051,-4.3622,4.0560,13.4013,-13.0710,5.2420,2.7254,15.1680,-11.4041
1914.0625,2.4047,-3.0725,-13.8099,15.1735,4.8001,6.5356,-13.0833,18.6261,4.0399,13.0048,-12.6708,-6.3685,6.1093,13.0363,-10.3324,2.0408,4.4214,16.2440,-8.7682
1917.9688,2.0109,-4.2118,-9.9522,15.0487,5.7670,3.7569,-9.5395,16.5595,6.0684,10.5436,-9.9103,-6.5595,8.0757,12.1428,-7.6584,-1.5361,6.2193,16.3783,-4.7066
1921.8750,0.8492,-4.6361,-5.8140,15.7448,6.2996,0.6843,-6.4718,15.1399,7.4660,8.2550,-7.2889,-4.9290,9.9722,11.6122,-5.5164,-3.7122,8.0726,16.7300,-0.3084
1925.7812,1.2852,-4.0606,-2.2767,17.8327,7.2614,-0.8252,-4.0538,15.8078,9.3908,7.9654,-5.0307,-2.8563,11.7850,12.2790,-3.8542,-3.6004,9.9008,18.2589,3.1545
1929.6875,4.7377,-2.9420,-0.0218,20.7292,9.0868,-0.0527,-2.1345,18.3337,12.3981,10.2383,-3.3069,-2.1842,13.3844,14.1917,-2.3237,-1.8402,11.5483,20.9148,4.9657
1933.5938,10.5276,-2.2828,0.7896,22.9344,11.4623,1.8999,-0.5246,20.9249,15.9710,13.8959,-2.2052,-3.8743,14.5830,16.4826,-0.7034,-0.0914,12.8558,23.5599,5.3403
1937.5000,16.2233,-2.9427,0.5879,23.0361,13.6315,2.8641,0.8081,21.5192,18.8853,16.7601,-1.6589,-7.2268,15.2873,17.9668,0.8704,0.2312,13.7724,24.7113,5.1893
1941.4062,19.2506,-4.9319,0.1644,20.7538,15.0160,1.3026,1.7666,19.2970,20.1021,17.1100,-1.3905,-10.2587,15.6258,18.0307,2.0716,-0.9801,14.4149,23.5831,5.4584
1945.3125,18.6235,-7.2492,0.2592,17.2229,15.6588,-2.3636,2.3008,15.2795,19.5179,14.8179,-0.9557,-10.9932,15.9533,17.1183,2.7973,-2.4767,15.0334,20.6671,6.5303
1949.2188,15.5875,-8.4703,1.2005,14.2604,16.1853,-5.9012,2.5418,11.5707,18.0480,11.3596,0.0793,-8.7635,16.7069,16.3947,3.4335,-2.6525,15.9081,17.4135,8.1080
1953.1250,12.7647,-7.7197,2.8036,13.0973,17.3415,-6.8622,2.7618,9.8081,17.0175,8.7191,1.9036,-4.6344,18.1699,16.7789,4.6823,-0.8247,17.2179,15.2244,9.6098
1957.0312,12.4302,-5.3268,4.5708,13.4762,19.4398,-4.4457,3.1965,9.9660,17.3124,8.0007,4.3172,-0.6838,20.2519,18.0522,7.0238,2.1847,18.9151,14.4771,10.7094
1960.9375,15.0923,-2.6583,6.0390,13.7750,22.0651,-0.1821,3.8816,10.3795,18.8645,8.7382,6.7935,1.3264,22.4120,18.7522,10.2252,4.6076,20.6422,14.2861,11.5681
1964.8438,19.2577,-1.2099,7.0356,12.1018,24.2100,3.1233,4.6406,8.9588,20.7681,9.3434,8.7414,0.9764,23.8119,17.0372,13.3255,5.0016,21.7599,13.1777,12.5873
1968.7500,22.4288,-1.5995,7.6858,7.6225,24.7702,3.4101,5.2349,4.7127,21.8923,8.2972,9.8183,-0.7303,23.6847,11.9960,15.1847,3.2757,21.5523,10.1974,13.9294
1972.6562,22.6102,-3.1887,8.2088,1.2166,23.1511,0.8280,5.5632,-1.4900,21.5585,5.1952,10.1002,-2.1873,21.7684,4.5036,15.2379,0.7126,19.5967,5.6558,15.2516
1976.5625,19.3893,-4.5939,8.6968,-4.9792,19.6826,-2.4331,5.7702,-7.4228,19.8742,0.9464,9.9969,-2.2693,18.5552,-3.0244,13.9056,-0.9965,16.1294,0.9860,15.9169
1980.4688,14.0413,-4.6915,9.0621,-8.8293,15.5988,-3.7697,6.2000,-10.8790,17.5758,-2.9090,9.9702,-0.9428,15.1497,-7.8956,12.3375,-0.9499,12.1480,-2.1788,15.5302
1984.3750,8.7376,-3.3657,9.1852,-9.4235,12.5249,-1.9872,7.2263,-10.9712,15.5384,-5.1804,10.2457,0.9254,12.7361,-8.6441,11.6627,0.4301,9.0651,-3.0472,14.3533
1988.2812,5.3973,-1.4715,9.1116,-7.4927,11.6630,2.0139,9.0452,-8.5233,14.2695,-5.6074,10.7117,2.3176,11.9193,-5.8098,12.2899,1.8886,8.0025,-2.1131,13.2237
1992.1875,4.7898,-0.0983,9.0932,-4.8117,13.0899,6.0806,11.5179,-5.3934,13.6588,-4.7456,11.0634,2.7880,12.3524,-1.5070,13.7612,2.4278,9.1055,-0.7262,12.9965
1996.0938,6.2631,0.2564,9.3980,-3.0510,15.6006,8.3965,14.1202,-3.2743,13.0808,-3.4052,11.0716,2.6843,12.9279,1.9031,15.2322,2.1330,11.3399,-0.1454,13.9185
2000.0000,8.1314,-0.0365,10.0190,-2.8568,17.2761,8.5614,16.0448,-2.7870,11.7585,-2.1523,10.7649,2.7930,12.4586,3.1478,16.1697,2.1083,12.9861,-0.7631,15.4137
2003.9062,8.4983,-0.1828,10.5332,-3.7108,16.5170,7.4474,16.4679,-3.3877,9.1793,-1.1989,10.3844,3.7293,10.4155,2.5413,16.7003,3.5916,12.5905,-2.0211,16.4479
2007.8125,6.1483,0.2794,10.2774,-4.5531,12.9389,6.1610,14.9190,-4.0128,5.3574,-0.6102,10.1494,5.5071,7.2165,1.4130,17.3448,6.9311,9.7888,-3.0036,16.2005
2011.7188,1.1286,1.0575,8.7705,-4.6498,7.5513,5.1121,11.5929,-3.9257,0.8223,-0.5057,10.0275,7.5449,3.8534,0.9689,18.3827,11.1919,5.4591,-3.2063,14.5500
2015.6250,-5.2482,1.3709,6.1044,-4.0732,2.0855,3.9684,7.3938,-3.1762,-3.6434,-1.0139,9.7114,9.0536,1.1262,1.4297,19.4108,14.6760,1.0994,-2.8922,12.0530
2019.5312,-11.0077,0.6904,3.0079,-3.5014,-2.0863,2.4176,3.6026,-2.4221,-7.3650,-2.0386,8.8457,9.5292,-0.9353,2.0242,19.5085,15.9788,-2.1358,-2.7931,9.4976
2023.4375,-14.4481,-0.6598,0.5018,-3.5455,-4.6922,0.9265,1.2822,-2.3139,-10.0372,-3.1117,7.3444,9.0558,-3.0049,1.7616,17.9345,14.8499,-4.0638,-3.4236,7.4218
2027.3438,-14.9280,-1.5543,-0.6539,-4.1456,-6.4576,0.7061,0.7533,-2.9131,-11.7492,-3.5482,5.5459,8.2667,-5.7801,0.3455,14.8180,12.3046,-5.3407,-4.5609,5.9539
2031.2500,-13.0828,-0.7865,-0.3647,-4.5051,-8.2788,2.8103,1.4864,-3.5566,-12.7905,-2.8446,4.0556,8.0067,-9.2187,-1.4766,11.2699,9.9671,-6.7184,-5.3048,5.0149
2035.1562,-10.3717,2.0472,0.7956,-3.6325,-10.3480,7.1001,2.5089,-3.2645,-13.3949,-1.0324,3.3535,8.8729,-12.3357,-2.3908,8.7556,9.1206,-8.3061,-4.6950,4.6016
2039.0625,-8.2620,6.1467,1.9589,-1.1174,-11.9434,11.9830,3.0551,-1.4300,-13.6188,1.2875,3.4333,10.8600,-13.8018,-1.4671,8.1322,10.0581,-9.4432,-2.4447,4.8266
2042.9688,-7.5599,9.8958,2.4367,2.4183,-12.0698,15.2511,2.9876,1.6585,-13.4358,3.2624,3.7352,13.2872,-12.9572,1.1142,9.0335,12.0638,-9.3061,0.7370,5.6468
2046.8750,-8.2493,11.7895,1.9769,5.5483,-10.4376,15.4648,2.6632,4.8279,-12.9482,4.2346,3.4373,15.0705,-10.4784,4.0889,10.0516,13.9306,-7.7654,3.4822,6.5432
2050.7812,-9.8097,11.2852,0.6785,6.8510,-7.9591,12.8754,2.3515,6.6102,-12.5036,4.0287,1.9203,15.2395,-8.1261,5.8790,9.6047,14.6403,-5.7757,4.5582,6.5150
2054.6875,-11.6630,9.0344,-1.2900,5.7987,-6.2912,9.2143,1.7002,6.0999,-12.5644,2.9496,-0.8974,13.4533,-7.6601,5.5800,6.9024,13.8269,-4.8996,3.6108,4.5224
2058.5938,-13.3849,6.3921,-3.8929,3.1478,-6.7040,6.5184,-0.2418,3.5606,-13.3784,1.5766,-4.5529,10.2289,-9.6428,3.5029,2.3736,11.8459,-6.2386,1.3884,0.1373
2062.5000,-14.6099,4.5704,-7.1729,0.5493,-9.1215,5.8490,-4.3510,0.3724,-14.6924,0.5307,-8.3273,6.7149,-12.9911,0.9273,-2.6758,9.5036,-9.5357,-0.6892,-6.0577
2066.4062,-14.8771,3.9918,-11.0070,-0.3997,-12.0960,6.7869,-10.5623,-1.7065,-15.7698,0.3158,-11.6072,4.0973,-15.6373,-0.7356,-6.8791,7.6335,-13.1544,-1.3446,-12.6448
2070.3125,-13.7205,4.2119,-14.9221,0.9207,-13.7851,7.9693,-17.5111,-1.5494,-15.7784,1.2106,-14.0906,2.9665,-15.8789,-0.7934,-9.5275,6.7196,-15.0321,-0.1448,-18.0490
2074.2188,-11.0428,4.3773,-18.1884,3.8382,-13.2277,8.1783,-23.0752,0.6899,-14.3303,3.1589,-15.7673,3.0299,-13.4998,0.4135,-10.7683,6.7111,-13.9939,2.3180,-21.2988
2078.1250,-7.4612,3.8598,-20.1807,6.8757,-10.9750,7.1663,-25.5482,3.7254,-11.8023,5.6967,-16.7818,3.3640,-9.8970,1.8934,-11.2767,7.0910,-10.5281,4.8517,-22.3966
2082.0312,-4.2271,2.6502,-20.7600,8.7163,-8.6107,5.6848,-24.6575,6.0147,-9.1757,8.0429,-17.3338,3.0486,-7.1387,2.7653,-11.7324,7.1680,-6.4776,6.4180,-22.1109
2085.9375,-2.6063,1.2972,-20.3753,9.0111,-7.5403,4.8042,-21.6883,6.7829,-7.4539,9.4188,-17.6694,1.7685,-6.6141,2.8528,-12.4802,6.4546,-3.8541,6.7543,-21.3915
2089.8438,-3.0770,0.4833,-19.7721,8.5064,-7.9700,5.0825,-18.6043,6.4897,-7.0254,9.4711,-18.0787,-0.0199,-8.1843,2.7155,-13.5129,4.9343,-3.5856,6.4874,-20.8216
2093.7500,-4.9362,0.5355,-19.4905,8.4292,-8.8345,6.1596,-16.7860,6.3974,-7.4058,8.5128,-18.7928,-1.4625,-10.3621,3.1330,-14.6483,3.0529,-5.0324,6.6789,-20.4261
2097.6562,-6.6801,1.1736,-19.5054,9.5757,-8.6862,6.9871,-16.2925,7.5459,-7.5525,7.3544,-19.7873,-1.9480,-11.3278,4.4417,-15.6789,1.4245,-6.5509,8.0885,-19.8642
2101.5625,-6.9597,1.6375,-19.2769,11.7453,-6.8311,6.4729,-16.1427,9.8876,-6.5564,6.7829,-20.6561,-1.5620,-10.0539,6.2141,-16.3969,0.4294,-6.6578,10.6252,-18.7841
2105.4688,-5.4533,1.1075,-18.1800,13.9120,-3.8358,4.1097,-15.3265,12.2508,-4.2468,7.0415,-20.7350,-1.0393,-6.8140,7.5197,-16.5779,-0.0300,-4.9671,13.3531,-17.0695
2109.3750,-3.0166,-0.8269,-16.0063,14.9994,-1.0438,0.2457,-13.7058,13.1961,-1.2964,7.7098,-19.4867,-1.2683,-2.8322,7.5875,-16.0462,-0.4443,-2.2910,15.0722,-14.8633
2113.2812,-0.9908,-3.9136,-13.1684,14.6915,0.4841,-4.0965,-12.0837,12.1489,1.2495,8.0977,-16.9177,-2.7124,0.5846,6.4006,-14.8278,-1.3454,0.0841,15.1157,-12.4336
2117.1875,-0.1826,-7.3430,-10.4559,13.6827,0.7733,-7.7203,-11.4181,9.9408,2.6986,7.8492,-13.6992,-5.1493,2.8098,4.7847,-13.2418,-2.9423,1.3663,13.8350,-10.0313
2121.0938,-0.2797,-10.1559,-8.5167,13.1749,0.8777,-9.8254,-11.8671,8.3032,3.1954,7.2591,-10.8332,-7.8716,4.1012,3.9037,-11.7765,-5.0087,1.7770,12.4180,-7.8234
2125.0000,-0.1361,-11.7292,-7.4410,13.9777,2.0398,-10.3859,-12.4970,8.6376,3.6265,7.0142,-9.0360,-10.1497,5.2257,4.4896,-10.7742,-7.0869,2.3006,12.1209,-5.8923
2128.9062,1.3044,-12.0667,-6.7459,15.8677,4.7331,-10.1443,-11.9479,10.9619,5.0078,7.5499,-8.2656,-11.5979,6.8475,6.3403,-10.1517,-8.8231,3.9100,13.4090,-4.2469
2132.8125,4.1594,-11.7364,-5.7638,17.6888,8.3049,-10.1828,-9.5516,13.8412,7.7636,8.5646,-7.7572,-12.2082,9.1009,8.4480,-9.4207,-10.1558,6.8530,15.6001,-2.8296
2136.7188,7.4802,-11.5020,-4.1457,18.1398,11.4547,-11.2504,-5.9978,15.3929,11.3856,9.1502,-6.5799,-12.1169,11.5654,9.6887,-8.0594,-11.2125,10.4851,17.2898,-1.5480
2140.6250,9.9325,-11.8821,-2.1122,16.6929,13.1517,-13.2238,-2.9683,14.6408,14.7034,8.5019,-4.3279,-11.3762,13.5750,9.5990,-5.9866,-12.0319,13.7145,17.2944,-0.3483
2144.5312,10.7645,-12.9009,-0.2822,13.9737,13.3071,-15.0824,-1.9680,12.2001,16.5911,6.6649,-1.4373,-9.9625,14.6217,8.6805,-3.7514,-12.3870,15.7001,15.4569,0.7173
2148.4375,10.3387,-14.1602,0.7798,11.3081,12.7423,-15.5139,-3.2252,9.7578,16.6458,4.6750,1.1192,-8.0055,14.6194,7.9926,-2.2268,-11.9055,16.3154,12.7273,1.5080
2152.3438,9.8528,-15.1452,0.9529,9.7438,12.5348,-13.8384,-5.5005,8.7148,15.3968,3.8882,2.5432,-5.9819,13.9212,8.2988,-1.9774,-10.4177,16.1054,10.4274,1.9217
2156.2500,10.4798,-15.5318,0.6063,9.2430,13.2499,-10.6366,-6.9553,9.0144,13.9218,4.9457,2.7946,-4.6157,13.1189,9.3800,-2.7602,-8.2386,15.8313,9.2192,2.0453
2160.1562,12.5601,-15.2946,0.2867,8.6455,14.5928,-7.5740,-6.4256,9.0693,13.1398,7.1629,2.6120,-4.4618,12.7379,10.0454,-3.5703,-6.1034,15.9577,8.5464,2.1797
2164.0625,15.3988,-14.5876,0.3056,6.4639,15.6746,-6.4214,-4.1575,6.8997,13.2602,8.8681,2.9572,-5.4499,12.9748,8.8939,-3.2546,-4.7376,16.4211,7.0116,2.6684
2167.9688,17.7529,-13.5438,0.5513,1.9814,15.6511,-7.8639,-1.4951,1.6783,13.7464,8.5140,4.3158,-6.7629,13.6074,5.3348,-1.2830,-4.3556,16.7903,3.4706,3.6251
2171.8750,18.6192,-12.1845,0.6673,-4.1047,14.2873,-10.9248,0.1862,-5.4492,13.7944,5.7791,6.3869,-7.2253,14.1402,0.1539,1.8877,-4.4739,16.6574,-1.9368,4.7869
2175.7812,17.7819,-10.5072,0.4502,-9.9592,12.1050,-13.4690,0.4655,-11.9030,12.9705,1.8505,8.3844,-6.0015,14.1291,-4.8101,5.1411,-4.2206,15.9710,-7.6087,5.6610
2179.6875,15.8159,-8.6462,0.1386,-13.6427,10.0729,-13.5148,0.0695,-15.2235,11.5476,-1.3390,9.6903,-3.1498,13.5028,-7.7027,7.4944,-2.9471,15.0990,-11.3638,5.9123
2183.5938,13.6416,-6.9208,0.3431,-14.2314,9.0684,-10.4885,0.2127,-14.5733,10.3004,-2.3801,10.3297,0.3670,12.6617,-7.7271,8.7751,-0.7066,14.5995,-11.8191,5.7124
2187.5000,11.9814,-5.6797,1.6374,-12.2942,9.4268,-5.5634,1.6606,-11.1586,9.9110,-1.2604,10.8952,3.2508,12.2450,-5.5375,9.6713,1.7539,14.8615,-9.3087,5.7429
2191.4062,11.0426,-5.0389,4.0963,-9.4387,10.7958,-0.8531,4.2387,-7.3221,10.4207,0.7509,11.9931,4.6574,12.6794,-2.7074,11.1099,3.4937,15.8395,-5.6832,6.7714
2195.3125,10.5305,-4.7315,7.1288,-7.2602,12.3304,1.9634,7.0829,-4.9890,11.1334,2.0676,13.6714,4.6820,13.8033,-0.6735,13.4291,4.0125,17.0351,-3.1127,9.0577
2199.2188,9.8832,-4.2338,9.7500,-6.4122,13.0974,2.6195,9.3256,-4.5607,11.0542,1.8626,15.2988,4.2255,14.8480,0.0892,15.9795,3.5690,17.7248,-2.7289,12.0176
2203.1250,8.5563,-3.1192,11.1269,-6.3984,12.4747,2.1905,10.6245,-4.9749,9.5491,0.4971,16.0025,4.3432,14.8298,0.1077,17.4816,2.9721,17.2973,-4.0453,14.4378
2207.0312,6.2439,-1.3982,11.0303,-6.1720,10.3515,2.1082,11.1578,-4.7828,6.7525,-0.9211,15.3233,5.5264,13.1086,0.2054,16.9071,3.0175,15.5082,-5.5206,15.1493
2210.9375,3.0049,0.4207,9.8879,-5.0668,7.0408,3.0457,11.2056,-3.3842,3.4246,-1.4224,13.5771,7.3919,9.7354,0.6529,14.2554,3.9861,12.5190,-5.7990,13.7238
2214.8438,-0.7231,1.6289,8.4168,-3.3789,2.9859,4.5080,10.7700,-1.5049,0.3758,-0.8033,11.6452,8.9658,5.3568,0.8615,10.6548,5.5419,8.7236,-4.6888,10.7178
2218.7500,-4.2454,1.7914,7.1100,-2.1817,-1.5278,5.3832,9.5941,-0.6056,-2.1034,0.4207,10.3591,9.3419,0.7722,-0.1247,7.7016,7.0533,4.5011,-3.1763,7.2988
2222.6562,-6.8688,1.0698,5.9500,-2.5150,-6.4308,4.9695,7.5428,-1.7038,-4.3697,1.5862,9.9497,8.2651,-3.5066,-2.7227,6.4907,8.0587,0.0793,-2.5276,4.5238
2226.5625,-8.2089,0.1632,4.5486,-4.5368,-11.6336,3.6499,4.9640,-4.4985,-7.0146,2.4384,9.9625,6.2701,-7.3621,-6.2179,7.0083,8.5297,-4.3902,-3.2193,2.7785
2230.4688,-8.3820,-0.1073,2.5906,-7.2580,-16.6788,2.6914,2.6645,-7.4406,-10.2422,3.2176,9.6652,4.3255,-10.8113,-9.0010,8.2852,8.7822,-8.6175,-4.5477,1.7467
2234.3750,-7.9501,0.7021,0.2296,-9.0818,-20.6152,3.3310,1.4693,-8.6970,-13.5438,4.2592,8.6044,3.2524,-13.6630,-9.5331,9.1638,9.1655,-12.0308,-5.2157,0.8684
2238.2812,-7.6291,2.3946,-1.8941,-8.8055,-22.3307,5.8486,1.6890,-7.3344,-15.9656,5.5092,6.8824,3.2995,-15.4568,-7.3795,9.0993,9.8042,-13.9048,-4.4249,-0.1205
2242.1875,-7.9364,4.2590,-3.0699,-6.4178,-21.2487,9.3147,2.8959,-3.9184,-16.8065,6.4087,4.9741,4.1052,-15.8015,-3.5741,8.4182,10.5701,-13.7730,-2.6025,-1.0169
2246.0938,-8.9933,5.4764,-3.1001,-3.1517,-17.9492,12.1738,4.1526,-0.1521,-16.2267,6.2728,3.2721,4.9977,-14.8596,-0.0407,7.8708,11.2426,-11.8860,-1.1779,-1.4856
2250.0000,-10.5734,5.5363,-2.6326,-0.7492,-14.2024,13.2115,4.4921,2.1669,-15.2792,4.8645,1.7409,5.3823,-13.5347,1.5398,7.8446,11.6683,-9.3561,-1.5574,-1.6170
2253.9062,-12.3017,4.4241,-2.9625,-0.4164,-12.2206,12.2115,3.3018,2.1693,-15.2814,2.6984,-0.0543,4.9663,-13.1012,0.6532,7.8555,11.7697,-7.7608,-4.0676,-2.2141
2257.8125,-13.8144,2.5265,-5.3630,-2.1443,-13.4725,9.8901,0.4188,0.2849,-16.9366,0.8207,-2.5857,3.7417,-14.4447,-1.9169,6.7361,11.4384,-8.3299,-7.6609,-4.4905
2261.7188,-14.7798,0.3846,-10.3200,-4.8089,-17.7775,7.2579,-3.9813,-2.1950,-19.8210,0.2151,-5.9602,1.8402,-17.4273,-4.7554,3.4263,10.4805,-11.1761,-10.5997,-9.3010
2265.6250,-14.8536,-1.5226,-17.1308,-6.9356,-23.3060,4.9466,-9.4806,-3.9893,-22.6103,1.2508,-9.7730,-0.5635,-20.8618,-6.7408,-2.1730,8.7446,-15.0964,-11.6020,-16.4032
2269.5312,-13.7390,-2.8669,-24.1269,-7.5860,-27.5605,2.9943,-15.3941,-4.5310,-23.9032,3.5305,-13.3059,-3.2186,-23.1726,-7.5762,-8.9033,6.3676,-18.1640,-10.6043,-24.2926
2273.4375,-11.4236,-3.4697,-29.4217,-6.7869,-28.7645,1.1635,-20.7445,-4.0892,-23.0819,6.1825,-15.9100,-5.7134,-23.3290,-7.6396,-14.8620,3.9067,-18.8217,-8.6164,-30.8072
2277.3438,-8.4394,-3.3073,-31.7826,-5.2784,-26.7980,-0.5639,-24.4508,-3.3312,-20.6359,8.3387,-17.3158,-7.4974,-21.4321,-7.3982,-18.4358,2.1546,-16.8156,-6.8422,-34.1976
2281.2500,-5.8659,-2.5631,-31.1674,-3.8461,-23.1090,-1.7809,-25.7746,-2.7162,-17.7621,9.4773,-17.7069,-8.0896,-18.5738,-6.9241,-19.2013,1.6706,-13.3508,-5.7772,-34.0349
2285.1562,-4.9047,-1.6623,-28.6569,-2.7651,-19.7065,-1.9369,-24.7843,-2.1739,-15.5572,9.4851,-17.5640,-7.3800,-16.0958,-5.8975,-18.1155,2.3315,-10.3343,-4.9628,-31.4069
2289.0625,-6.1824,-1.1808,-25.8495,-1.7440,-17.9288,-0.8793,-22.4610,-1.2638,-14.3688,8.5337,-17.4074,-5.8050,-14.7732,-4.0402,-16.8740,3.2708,-9.1713,-3.5327,-28.2776
2292.9688,-9.2175,-1.5959,-24.0581,-0.3501,-17.7776,0.8032,-20.2587,0.3538,-13.7157,6.9597,-17.5677,-4.2172,-14.4620,-1.5641,-16.8485,3.3429,-9.8956,-1.0616,-26.3903
2296.8750,-12.4801,-2.9948,-23.7275,1.4782,-18.1704,1.9583,-19.3242,2.5242,-12.7599,5.2388,-18.0518,-3.4699,-14.3811,0.7867,-18.2761,1.8672,-11.2053,1.9854,-26.3633
2300.7812,-14.1212,-4.9470,-24.3454,3.2705,-17.8193,1.5026,-19.8706,4.5925,-10.9423,3.9775,-18.5264,-3.9509,-13.7479,2.1769,-20.1893,-0.8507,-11.3642,4.5602,-27.4879
2304.6875,-12.9807,-6.6885,-24.8466,4.3584,-16.0662,-0.9109,-21.1275,5.8064,-8.3289,3.7874,-18.4275,-5.3710,-12.2784,2.2851,-21.0915,-3.6212,-9.3415,5.8408,-28.3004
2308.5938,-9.2441,-7.5597,-24.2526,4.4424,-13.1245,-4.6497,-21.8935,5.8460,-5.4701,5.0159,-17.1945,-6.9622,-10.2237,1.6101,-19.9080,-5.0907,-5.4131,5.8934,-27.5283
2312.5000,-4.3151,-7.4427,-22.1850,3.9327,-9.6663,-8.4587,-21.2883,5.1035,-2.9345,7.4833,-14.5605,-7.9657,-7.9953,1.2385,-16.6044,-4.6217,-0.8394,5.6648,-24.8109
2316.4062,0.0256,-6.8859,-18.9867,3.7669,-6.1706,-11.1783,-19.1868,4.5079,-0.8857,10.4437,-10.7561,-8.0902,-5.7287,2.2182,-12.1188,-2.7353,3.0962,6.3052,-20.7764
2320.3125,2.6280,-6.7875,-15.4224,4.8048,-2.5661,-12.3514,-16.0905,4.9906,1.0077,12.8708,-6.4803,-7.6406,-3.1480,4.9528,-7.7294,-0.7952,5.9610,8.3356,-16.4974
2324.2188,3.5068,-7.8032,-12.1811,7.2220,1.5738,-12.3435,-12.6325,6.9290,3.2883,13.9383,-2.6076,-7.2547,0.1633,8.9833,-4.3287,-0.1392,8.3147,11.2693,-12.7596
2328.1250,3.6051,-9.8648,-9.5112,10.3378,6.4728,-11.9465,-9.1655,9.9070,6.2662,13.4124,0.2115,-7.4600,4.2935,13.2366,-2.0877,-1.2565,11.0395,13.9398,-9.6709
2332.0312,4.0197,-12.1625,-7.2229,12.9981,11.6854,-11.7860,-5.7437,12.9270,9.7094,11.7180,1.7986,-8.3771,8.6943,16.5287,-0.6696,-3.5732,14.3999,15.2571,-6.8699
2335.9375,5.2604,-13.6448,-5.0317,14.2476,16.1090,-11.9490,-2.4332,14.9248,12.8623,9.6528,2.3799,-9.7559,12.2840,18.0139,0.2552,-5.9687,17.5893,14.8366,-4.1274
2339.8438,7.0337,-13.7214,-2.9654,13.8369,18.5145,-12.0560,0.4148,15.2772,14.7913,7.9500,2.2815,-11.2613,13.9472,17.4004,0.6395,-7.6113,19.1661,13.0903,-1.8190
2343.7500,8.6279,-12.6774,-1.4912,12.2532,18.2788,-11.6611,2.2522,14.0312,14.8828,6.9570,1.6663,-12.7281,13.1617,14.9445,0.1393,-8.4807,18.1085,10.8061,-0.8220
2347.6562,9.5455,-11.4773,-1.2075,10.3104,15.8590,-10.6429,2.7631,11.7769,13.2360,6.5881,0.5639,-14.1607,10.3901,11.3284,-1.4244,-9.1991,14.7229,8.5947,-1.8277
2351.5625,9.8923,-11.0553,-2.2810,8.6187,12.6916,-9.2863,2.2713,9.2892,10.7297,6.5033,-0.8203,-15.4939,6.9889,7.4853,-3.6094,-10.3343,10.7000,6.6098,-4.5550
2355.4688,10.2561,-11.5845,-4.0551,7.2864,10.5346,-8.0231,1.7225,7.1583,8.6794,6.3432,-1.8274,-16.3769,4.6296,4.3533,-5.3125,-11.7539,8.1961,4.6641,-7.5217
2359.3750,11.2063,-12.2710,-5.2017,5.9964,10.5873,-7.0671,2.1560,5.5827,8.2017,5.8702,-1.4558,-16.2502,4.4972,2.5534,-5.2666,-12.5767,8.5170,2.5382,-8.7000
2363.2812,12.8146,-11.8799,-4.4359,4.3287,12.8653,-6.2535,4.0035,4.3812,9.5951,4.9864,1.0629,-14.7470,6.6743,2.1010,-2.7952,-11.8002,11.2911,0.1818,-6.7429
2367.1875,14.5543,-9.6663,-1.3774,2.0731,16.1892,-5.2123,6.7370,3.1706,12.1011,3.7008,5.5787,-12.1357,10.0687,2.3501,1.6777,-9.1424,14.7046,-2.3253,-1.9745
2371.0938,15.6437,-6.0549,3.0443,-0.6531,18.8257,-3.7269,9.1660,1.6070,14.2571,2.1224,10.7919,-9.4054,12.9757,2.3006,6.7338,-5.4354,16.6545,-4.9292,3.6116
2375.0000,15.5759,-2.5365,7.0056,-3.4905,19.4537,-1.9760,10.2147,-0.4107,14.7128,0.4764,14.8070,-7.8080,14.0085,1.1684,10.6664,-2.2224,16.0497,-7.6504,7.4750
2378.9062,14.4593,-0.7845,8.8467,-6.0074,17.9118,-0.4508,9.6448,-2.6587,13.0538,-0.9223,16.2339,-8.0859,12.8775,-1.1129,12.3701,-0.8066,13.4031,-10.4400,8.1104
2382.8125,12.9431,-1.5589,8.1113,-7.8385,15.2724,0.3927,8.2162,-4.6712,10.0979,-1.7839,15.1201,-9.9014,10.5329,-3.8099,11.8789,-1.4210,10.3572,-12.9886,6.0330
2386.7188,11.7935,-4.1558,5.8569,-8.7569,13.1634,0.4674,7.1709,-5.9699,7.4140,-2.0011,13.0123,-11.9182,8.5477,-5.8238,10.2412,-3.1185,8.5175,-14.7233,3.4554
2390.6250,11.4132,-6.8067,3.9798,-8.7086,12.7320,0.1101,7.4010,-6.3352,6.3223,-1.7319,12.0033,-12.5553,8.0997,-6.3727,8.8391,-4.4536,8.4165,-15.0886,2.8233
2394.5312,11.6137,-7.7753,3.9754,-7.8302,13.9011,-0.1794,8.8768,-5.9596,7.0232,-1.3153,13.3613,-10.9534,9.2056,-5.4612,8.5956,-4.4486,9.2900,-13.9394,5.1806
2398.4375,11.7586,-6.4112,5.9656,-6.4264,15.4172,-0.0868,10.7080,-5.3621,8.4585,-1.0509,16.6863,-7.5141,10.7234,-3.8106,9.5435,-3.1498,9.7462,-11.7370,9.4851
2402.3438,11.1531,-3.4527,8.6626,-4.8759,15.6756,0.3657,11.7660,-5.0832,9.0213,-0.9927,20.2107,-3.6443,11.1265,-2.3232,10.9694,-1.4097,8.7828,-9.3572,13.3430
2406.2500,9.4065,-0.4144,10.2869,-3.4950,13.7681,0.9727,11.4158,-5.3448,7.6221,-0.9205,22.0516,-0.8777,9.5125,-1.4910,11.9673,-0.1257,6.4056,-7.6189,14.6380
2410.1562,6.5509,1.4649,9.7882,-2.4419,10.0265,1.6268,9.8623,-5.9175,4.3505,-0.5324,21.5206,0.0326,6.1316,-1.1875,12.0085,0.4417,3.4450,-6.8658,12.9065
2414.0625,2.8883,1.9550,7.5067,-1.7339,5.6878,2.4359,7.9085,-6.3118,0.2630,0.2703,19.5439,-0.5369,2.0766,-0.9617,11.1770,0.7571,0.7833,-6.8942,9.5147
2417.9688,-1.2645,1.7751,4.8315,-1.3541,1.9450,3.5397,6.3394,-6.1736,-3.5061,1.2267,17.8917,-1.4688,-1.5947,-0.5469,9.9797,1.4912,-1.3702,-7.2391,6.5731
2421.8750,-5.7105,1.8814,3.1454,-1.3309,-0.8827,4.7908,5.3859,-5.5848,-6.5926,1.8294,17.8010,-1.7001,-4.5977,-0.1360,8.9274,2.8641,-3.5895,-7.5500,5.4334
2425.7812,-10.2782,2.7020,2.8551,-1.6905,-3.4211,5.6435,4.6380,-5.0182,-9.5233,1.6559,19.0281,-0.8513,-7.4332,-0.1868,8.1993,4.4055,-6.6549,-7.7439,5.8680
2429.6875,-14.6037,3.9005,3.2107,-2.3085,-6.5098,5.4564,3.4467,-4.9513,-13.0179,0.6914,20.0445,0.6937,-10.6811,-0.9399,7.6032,5.3188,-10.7574,-7.8499,6.4772
2433.5938,-18.0239,4.7818,3.0020,-2.8210,-10.2767,4.0467,1.5060,-5.4305,-17.0673,-0.5998,19.2244,2.2133,-14.1924,-2.0900,6.8082,5.1257,-15.1257,-7.7541,5.9231
2437.5000,-19.7645,4.9397,1.5550,-2.7486,-13.8109,2.0503,-0.8182,-5.9501,-20.6052,-1.5284,16.1230,3.1934,-16.9146,-2.9338,5.6406,4.0481,-18.4006,-7.1443,3.9911
2441.4062,-19.3796,4.5895,-0.7495,-1.8125,-15.7588,0.7034,-2.6689,-5.7835,-22.1380,-1.6025,11.8727,3.5930,-17.5845,-2.9041,4.2097,2.8143,-19.5100,-5.7564,1.6635
2445.3125,-17.1592,4.3339,-2.8197,-0.2073,-15.4098,1.0877,-3.2924,-4.5416,-20.9068,-0.8267,8.3881,3.7149,-15.7888,-2.0415,2.7779,2.0672,-18.4116,-3.7066,0.1987
2449.2188,-14.1656,4.6048,-3.7595,1.4408,-13.3880,3.3366,-2.6481,-2.5171,-17.6544,0.3325,6.9694,3.8792,-12.5173,-0.9741,1.4882,1.8764,-16.1480,-1.5620,-0.0063
2453.1250,-11.7660,5.2805,-3.6104,2.4955,-11.3254,6.4092,-1.6026,-0.5118,-14.3113,1.2934,7.3444,4.1970,-9.6683,-0.3721,0.1747,1.7569,-14.1602,0.0087,0.1616
2457.0312,-10.8846,5.8038,-3.3511,2.8422,-10.6886,8.6657,-1.5274,0.7576,-12.7299,1.7678,7.8643,4.5856,-8.7787,-0.3103,-1.5763,1.1572,-13.3449,0.7757,-0.8249
2460.9375,-11.4518,5.6771,-4.1685,3.0969,-11.6431,8.8778,-3.5172,1.2204,-13.3796,1.9345,6.7085,4.9236,-9.9099,-0.0978,-4.1300,-0.0168,-13.5274,1.2238,-3.9207
2464.8438,-12.4580,4.8879,-6.5765,4.2434,-12.8740,6.9609,-7.7143,1.5203,-15.0092,2.2553,3.2140,5.1467,-11.5735,1.2130,-7.4686,-1.2963,-13.7181,2.2587,-8.6735
2468.7500,-12.6387,3.8908,-10.0565,6.8842,-12.5724,3.9040,-13.1817,2.5026,-15.5883,3.0764,-1.6354,5.1974,-11.8217,3.9940,-11.0696,-2.0477,-12.9442,4.4933,-13.4195
2472.6562,-11.3613,3.1747,-13.4625,10.6512,-9.8752,0.9827,-18.4250,4.5031,-13.8548,4.3251,-5.8956,4.9286,-9.7192,7.5581,-14.1245,-2.0191,-11.0361,7.6600,-16.3708
2476.5625,-9.1000,2.8141,-15.8368,14.2801,-5.6485,-1.1145,-22.2333,7.0053,-10.3024,5.5403,-8.0083,4.1350,-6.0855,10.4814,-15.9940,-1.5567,-8.7876,10.6631,-16.7875
2480.4688,-7.1356,2.4174,-16.9950,16.3840,-1.9731,-2.5733,-24.2948,8.9604,-6.8367,6.2196,-7.8297,2.7505,-2.9190,11.5663,-16.6165,-1.2991,-7.3773,12.3178,-15.3868
2484.3750,-6.6545,1.5279,-17.4645,16.4064,-0.6807,-3.9851,-25.1926,9.5415,-5.3402,6.2172,-6.6318,1.0532,-1.9172,10.7400,-16.5817,-1.6215,-7.4820,12.2547,-13.7376
2488.2812,-7.8736,0.1136,-17.9009,15.0369,-2.0344,-5.5858,-25.8210,8.7445,-6.2305,5.8744,-6.1243,-0.3565,-3.2076,9.1738,-16.7778,-2.3183,-8.7331,11.2714,-13.1389
2492.1875,-9.8276,-1.3143,-18.5045,13.7306,-4.5520,-6.9062,-26.6635,7.3620,-8.1173,5.7649,-7.2345,-0.8776,-5.2504,8.4720,-17.8076,-2.8119,-9.9164,10.7973,-13.8141
2496.0938,-10.9992,-2.1056,-18.9136,13.6520,-6.0995,-7.1764,-27.4648,6.3598,-8.8311,6.2405,-9.5141,-0.3365,-5.9811,9.4989,-19.5498,-2.7060,-9.7730,11.8206,-14.9498
2500.0000,-10.3581,-2.0796,-18.6197,14.8318,-5.4167,-6.1537,-27.5209,6.1677,-7.0472,7.1289,-11.5496,0.8089,-4.3185,11.7242,-21.1809,-2.1976,-7.8337,14.0897,-15.4453
2503.9062,-8.0649,-1.8092,-17.5096,16.1905,-2.9247,-4.6365,-26.3421,6.4620,-3.2764,7.8356,-12.0286,1.6868,-0.9013,13.6037,-21.6858,-1.9713,-4.7074,16.2360,-14.7447
2507.8125,-5.3249,-2.2950,-16.0538,16.4284,-0.2482,-4.1425,-24.1542,6.5981,0.5228,7.7927,-10.6724,1.5269,2.4691,13.7302,-20.5460,-2.6557,-1.6404,16.7740,-13.1493
2511.7188,-3.4986,-4.2454,-14.9758,15.0897,1.1150,-5.9047,-21.8289,6.2958,2.4029,6.9180,-8.3887,0.1074,4.2055,11.8979,-18.1394,-4.3061,0.3237,15.2400,-11.4742
2515.6250,-3.1223,-7.5209,-14.6842,12.9589,0.9160,-9.9351,-20.2766,5.9605,1.8504,5.7239,-6.5793,-2.1845,4.0589,9.2758,-15.5475,-6.3669,0.9963,12.5912,-10.4124
2519.5312,-3.5568,-11.1864,-14.9394,11.4585,0.2269,-14.8971,-19.7625,6.3337,0.1183,4.9721,-6.1281,-4.6901,3.1628,7.5592,-13.8566,-8.1414,1.0855,10.5333,-10.1207
2523.4375,-3.5121,-14.1274,-15.0214,11.5184,0.4823,-18.9208,-19.6803,7.7591,-0.7416,5.1250,-6.7874,-6.9135,3.0409,7.7424,-13.4081,-9.3463,1.6405,10.2763,-10.2748
2527.3438,-2.0435,-15.7407,-14.2541,12.8202,2.3072,-20.7614,-18.9749,9.7131,0.6176,6.0115,-7.3753,-8.6992,4.4077,9.4291,-13.5299,-10.2426,3.3135,11.6680,-10.4387
2531.2500,0.7296,-16.1722,-12.4644,14.0361,5.0580,-20.4449,-16.9114,11.0629,3.9228,6.9684,-6.6247,-10.0595,6.6900,11.1740,-12.9810,-11.2208,5.9334,13.3746,-10.3875
2535.1562,3.7122,-15.9754,-10.0403,13.8857,7.3783,-18.9763,-13.6221,10.8992,7.5839,7.3507,-4.0972,-10.8915,8.5738,11.5506,-10.8496,-12.2351,8.6324,13.9546,-10.1515
2539.0625,5.6438,-15.5504,-7.5972,12.1629,8.2538,-17.4322,-10.0335,9.2747,9.9111,7.0104,-0.5460,-10.9283,9.0646,10.1135,-7.2952,-12.6608,10.3826,12.9771,-9.8412
2542.9688,6.0170,-14.8726,-5.5617,9.8921,7.7066,-16.2147,-7.2422,7.2008,10.2937,6.3652,2.5078,-10.0370,8.1992,7.5478,-3.5846,-11.7982,10.5652,11.2949,-9.4891
2546.8750,5.4236,-13.7189,-3.9986,8.4674,6.6317,-15.0301,-5.8132,5.8422,9.4937,6.0010,3.7148,-8.5971,6.8967,4.9696,-1.3279,-9.6364,9.2395,10.2635,-9.0584
2550.7812,5.0953,-12.1147,-2.7455,8.4588,6.0120,-13.4902,-5.4956,5.5308,8.9288,6.1317,2.7569,-7.5308,6.1652,3.0009,-1.3873,-7.1713,7.0246,10.5389,-8.5535
2554.6875,6.0006,-10.5137,-1.6490,9.0622,6.2173,-11.6969,-5.5120,5.4186,9.5735,6.3631,0.5867,-7.7935,6.3615,1.3775,-3.1986,-5.8636,4.7499,11.4321,-8.0426
2558.5938,8.1646,-9.4769,-0.6494,8.6725,6.9364,-10.2325,-5.1447,4.1115,11.3147,5.9673,-1.1085,-9.6154,7.0811,-0.6340,-5.0158,-6.5438,3.1148,11.3628,-7.5143
2562.5000,10.6787,-9.1189,0.3377,6.1601,7.6933,-9.5674,-4.1683,0.8303,13.1754,4.4630,-0.9056,-12.0969,7.6735,-3.4175,-4.9801,-8.6234,2.5007,9.0775,-6.7059
2566.4062,12.3464,-8.8726,1.5502,1.8461,8.3963,-9.4809,-2.8601,-3.8222,14.1263,2.0333,1.4918,-13.5991,7.8614,-6.5148,-2.3361,-10.3400,2.9382,4.6836,-5.1430
2570.3125,12.4681,-7.8921,3.2979,-2.6149,9.3933,-9.1198,-1.6817,-8.1417,13.8147,-0.5683,5.0508,-12.7805,7.9132,-8.8973,2.0206,-9.9910,4.1552,-0.3198,-2.4706
2574.2188,11.2223,-5.8391,5.6647,-5.3892,10.9995,-7.7481,-0.9440,-10.4923,12.6932,-2.5648,8.0042,-9.5776,8.2664,-9.7837,6.0663,-7.2707,5.6602,-4.0503,1.1386
2578.1250,9.4384,-3.3778,8.2544,-5.7779,12.9762,-5.5598,-0.6980,-10.4882,11.5552,-3.7238,8.9086,-5.3619,9.0034,-9.3166,7.9341,-3.6398,6.8750,-5.5189,4.8690
2582.0312,7.9991,-1.8476,10.2791,-4.6826,14.4981,-3.7652,-0.8324,-9.2674,10.9247,-4.4807,7.5356,-2.0585,9.6986,-8.5099,7.1282,-1.3321,7.3299,-5.1998,7.6423
2585.9375,7.3247,-2.2390,11.0335,-3.8633,14.7121,-3.7199,-1.1794,-8.6274,10.7827,-5.5038,5.0521,-0.7970,9.7973,-8.4757,4.8621,-1.6690,6.8685,-4.4840,8.8025
2589.8438,7.2551,-4.2380,10.4433,-4.5653,13.4421,-5.7092,-1.4895,-9.6715,10.7678,-7.0440,3.3581,-1.0759,9.1836,-9.5315,3.2817,-3.9587,5.7411,-4.4769,8.6123
2593.7500,7.3144,-6.1638,9.2427,-6.5638,11.4263,-8.4016,-1.3531,-11.9976,10.5911,-8.6112,3.9614,-1.1041,8.3981,-10.9061,4.0775,-5.8898,4.4888,-5.1052,8.1390
2597.6562,7.0848,-5.9931,8.5747,-8.3462,9.8359,-9.5497,-0.2786,-14.0353,10.2772,-9.2781,7.0640,0.8682,8.2548,-11.3010,7.3896,-5.2099,3.6408,-5.2311,8.5431
2601.5625,6.4053,-2.7938,9.2505,-8.2705,9.4193,-7.5356,1.9869,-14.2532,10.0428,-8.4143,11.4152,5.1744,9.1276,-9.8934,11.7164,-1.4666,3.3878,-3.6713,10.2510
2605.4688,5.3068,2.5002,11.1911,-5.8154,9.9311,-2.6253,5.0855,-12.3003,9.9585,-6.2909,15.0228,10.3334,10.4877,-7.0183,14.8688,3.5226,3.4344,-0.3077,12.6197
2609.3750,3.8139,7.6127,13.4637,-2.0023,10.2878,3.0672,7.9828,-9.2305,9.7063,-4.0570,16.2798,13.9634,11.0979,-4.0090,15.3274,6.8825,3.1327,3.5897,14.3550
2613.2812,1.8168,10.4171,14.8781,1.2805,9.3171,6.9501,9.4069,-6.6908,8.6512,-3.0484,14.8198,14.3824,9.7591,-2.3120,13.1214,6.7209,1.8246,6.0978,14.3853
2617.1875,-0.8698,10.3193,14.6974,2.5116,6.5237,7.6737,8.5908,-5.7404,6.1839,-3.8967,11.6004,11.7611,6.0741,-2.5250,9.6905,3.5018,-0.8067,5.8995,12.5532
2621.0938,-4.3080,8.5224,12.9605,1.4367,2.3301,5.9295,5.8022,-6.2047,2.1031,-6.0704,8.2198,8.0072,0.6925,-4.0402,6.8826,-0.2639,-4.5680,3.1558,9.6389
2625.0000,-8.2397,7.0109,10.2574,-0.9377,-2.2993,3.7645,2.2253,-6.9950,-3.1987,-8.1801,5.9498,5.4734,-5.0941,-5.5111,5.7904,-1.7815,-8.8360,-0.6147,6.7464
2628.9062,-12.0324,7.0701,7.2354,-3.1317,-6.4697,2.9852,-0.7776,-7.0588,-8.8280,-8.8389,5.1051,5.4160,-10.0650,-5.7721,6.1894,0.1012,-12.8100,-3.5185,4.5586
2632.8125,-14.8261,8.4783,4.2879,-4.1193,-9.7221,3.9049,-2.5021,-6.1730,-13.6859,-7.4910,5.0897,7.2735,-13.5890,-4.5583,6.8860,4.1825,-15.7966,-4.4163,3.0251
2636.7188,-15.8467,9.9481,1.6352,-3.7682,-11.9716,5.3657,-3.2055,-4.9853,-16.8297,-4.6770,4.9839,9.2170,-15.6741,-2.5793,6.6569,7.8589,-17.4166,-3.4442,1.6601
2640.6250,-14.7724,10.3844,-0.3956,-2.6118,-13.2378,5.9257,-3.6552,-4.3436,-17.7844,-1.6185,4.1934,9.5118,-16.6663,-0.9747,5.0915,8.9755,-17.6897,-1.6690,0.1233
2644.5312,-11.9858,9.8909,-1.2948,-1.2735,-13.5153,5.1836,-4.3163,-4.5012,-16.7206,0.5375,2.7152,7.6994,-16.9250,-0.5769,2.7731,7.2157,-16.9998,-0.2322,-1.4405
2648.4375,-8.5476,9.6882,-0.6999,-0.0218,-12.9043,4.1448,-4.8877,-4.8363,-14.4284,1.3036,0.9097,4.8089,-16.6991,-1.4499,0.7350,4.1027,-15.9457,0.3775,-2.5875
2652.3438,-5.8157,11.0118,1.0936,1.2746,-11.7958,4.3508,-4.6224,-4.2807,-12.0430,0.9496,-0.9501,2.5474,-16.1681,-2.9230,-0.3647,1.7537,-15.1004,0.4735,-3.0908
2656.2500,-4.8210,13.8949,2.9329,2.8729,-10.8102,6.5010,-3.2022,-2.1062,-10.5820,0.1682,-2.9533,2.1180,-15.4679,-4.0087,-0.7445,1.3927,-14.7532,0.7585,-3.3091
2660.1562,-5.7085,16.8511,3.2429,4.8443,-10.4339,9.6992,-1.4169,1.5140,-10.4937,-0.3870,-5.4363,3.4980,-14.6148,-3.9237,-1.3407,2.6805,-14.7697,1.7262,-4.0550
2664.0625,-7.6054,17.7652,0.9148,6.9442,-10.6448,11.9369,-0.9837,5.5352,-11.4835,-0.3941,-8.6051,5.5917,-13.4468,-2.4551,-3.1390,4.2071,-14.6905,3.3008,-6.0452
2667.9688,-9.0864,15.3575,-3.9530,8.6980,-10.9027,11.4464,-3.5020,8.5979,-12.7582,0.1081,-12.2324,7.0345,-11.7553,-0.0415,-6.4894,4.6205,-14.0621,4.8986,-9.3708
2671.8750,-9.0341,10.1385,-10.0298,9.6088,-10.5913,7.9004,-9.2628,9.7303,-13.5625,0.8570,-15.6932,7.0255,-9.5989,2.4421,-10.8738,3.5019,-12.8112,5.8049,-13.4087
2675.7812,-7.3777,4.1610,-15.5100,9.3855,-9.5693,2.6026,-16.8256,8.8062,-13.6481,1.5271,-18.3198,5.6562,-7.5335,4.1235,-15.2462,1.4370,-11.3840,5.6083,-17.2275
2679.6875,-5.1950,-0.2377,-19.1399,8.1322,-8.3304,-2.3911,-23.7526,6.5791,-13.3390,1.8536,-19.8043,3.6359,-6.4483,4.6285,-18.6659,-0.5909,-10.4930,4.4589,-20.1418
2683.5938,-4.0439,-1.8035,-20.7993,6.4288,-7.5749,-5.5113,-28.0320,4.3390,-13.1449,1.7301,-20.3491,1.7244,-6.9828,4.3746,-20.7768,-1.9054,-10.5930,3.0400,-21.9825
2687.5000,-4.9237,-0.9408,-21.2799,5.1962,-7.5293,-6.4165,-29.2024,3.3514,-13.2409,1.2825,-20.4742,0.2997,-8.9117,4.4197,-21.8529,-2.4293,-11.4573,2.2659,-22.9261
2691.4062,-7.5682,0.7767,-21.5159,5.2901,-7.6329,-5.8695,-28.4094,4.2727,-13.2596,0.8538,-20.6544,-0.7115,-11.0418,5.8275,-22.4609,-2.4966,-12.2160,2.8220,-23.1217
2695.3125,-10.5831,1.6875,-21.9022,6.9628,-6.9510,-5.0582,-27.4215,6.7645,-12.6017,0.8398,-21.0636,-1.6070,-11.8527,8.8593,-23.0469,-2.4955,-11.9113,4.7526,-22.5027
2699.2188,-12.3560,0.9424,-22.1913,9.5406,-5.0369,-4.9563,-27.3721,9.5398,-11.0272,1.4207,-21.5821,-2.6213,-10.5185,12.5452,-23.7382,-2.6827,-10.2123,7.3406,-20.9578
2703.1250,-12.1033,-1.2730,-21.9284,11.6671,-2.4958,-6.0858,-28.1309,10.9566,-9.0065,2.3709,-21.9909,-3.7739,-7.5511,15.0664,-24.4304,-3.2339,-7.7458,9.4324,-18.6594
2707.0312,-10.3021,-4.1294,-20.9470,12.1274,-0.6626,-8.5822,-28.6582,9.9720,-7.4556,3.1378,-22.1446,-4.8979,-4.4903,14.8731,-24.9899,-4.3356,-5.7178,10.1166,-16.1632
2710.9375,-8.1978,-6.7281,-19.4583,10.7831,-0.5155,-12.2471,-27.9353,6.9350,-6.9811,3.2040,-21.9765,-5.7788,-2.7671,11.8676,-25.3464,-6.1241,-5.0228,9.3741,-14.0915
2714.8438,-6.7745,-8.4722,-17.7014,8.9103,-1.6663,-16.4510,-25.6996,3.6214,-7.2212,2.5006,-21.3806,-6.3048,-2.5596,7.7766,-25.4048,-8.4976,-5.4738,8.2264,-12.6206
2718.7500,-5.9842,-9.1536,-15.5702,8.5241,-2.3366,-20.0918,-22.4788,2.2937,-6.8870,1.5380,-20.1527,-6.5659,-2.5581,5.2823,-24.9105,-11.0275,-5.7752,8.1551,-11.2444
2722.6562,-4.8405,-8.9107,-12.6670,10.9922,-0.5210,-21.9059,-19.0494,4.2485,-4.6105,1.0942,-18.1200,-6.8611,-0.9216,6.3383,-23.4788,-13.1362,-4.3609,10.0749,-9.1182
2726.5625,-2.3170,-8.1920,-8.8191,15.8731,4.4390,-21.1368,-15.8799,8.8059,-0.0414,1.6394,-15.3938,-7.5857,3.2294,10.7771,-20.8552,-14.4524,-0.5610,13.5458,-5.8008
2730.4688,1.6441,-7.6809,-4.5948,20.9103,11.0944,-18.1420,-13.0218,13.5506,5.6508,2.9232,-12.5166,-9.0050,8.9225,16.2446,-17.2428,-15.0456,4.7542,16.8648,-1.8160
2734.3750,5.8218,-8.0550,-1.2494,23.3625,16.6499,-14.4013,-10.4284,15.8236,10.3513,4.0698,-10.3053,-11.0105,13.8070,19.6322,-13.4093,-15.3090,9.5866,18.1084,1.4867
2738.2812,8.3986,-9.5910,0.0333,21.8457,18.8144,-11.7568,-8.2715,14.5203,12.3455,4.1546,-9.4138,-13.0307,15.7347,19.0973,-10.4014,-15.5696,12.0665,16.4754,2.7782
2742.1875,8.1841,-11.8606,-0.8999,17.3675,17.4126,-11.3176,-6.8657,10.9019,11.5020,2.8501,-9.8877,-14.2335,14.3081,15.2658,-8.9833,-15.7715,11.6906,12.9543,1.7212
2746.0938,5.5029,-13.8209,-2.8009,12.7089,14.5222,-12.7841,-6.2439,7.7347,9.4077,0.6481,-11.0405,-13.9852,11.2189,10.7246,-9.1553,-15.5474,9.6434,9.7315,-0.6815
2750.0000,2.0961,-14.3621,-3.6665,10.4839,12.9626,-14.6870,-5.8300,7.2741,8.2963,-1.5217,-11.7882,-12.3067,9.0633,8.1269,-10.1013,-14.6518,7.9358,8.6544,-2.6860
2753.9062,0.0888,-13.0012,-2.0490,11.2307,14.2175,-15.3688,-4.6371,9.5213,9.5021,-2.9828,-11.2567,-9.9902,9.4748,8.2546,-10.6446,-13.3737,7.9640,9.8209,-2.9655
2757.8125,0.7330,-10.2239,1.8914,12.9518,17.3395,-13.9926,-1.9598,12.0802,12.5504,-3.7698,-9.2732,-8.2106,11.9542,9.4559,-9.9358,-12.5086,9.5358,11.3714,-1.4897
2761.7188,3.7615,-7.1891,6.4074,12.5161,19.6794,-10.8882,1.9636,11.8115,15.5505,-4.4926,-6.4211,-7.8157,14.2837,8.8866,-7.9276,-12.8147,11.0882,10.7411,0.5324
2765.6250,7.7295,-4.9782,9.3070,7.9688,18.9171,-7.1000,5.9158,7.1445,16.6114,-5.7283,-3.6345,-8.7461,14.2326,4.6653,-5.3258,-14.3421,10.9429,6.5480,1.6122
2769.5312,11.0208,-3.9320,9.4301,0.0857,14.8842,-3.6156,8.4315,-0.6390,15.2411,-7.4493,-1.6170,-10.0121,11.2912,-2.6308,-3.0640,-16.1998,8.6627,-0.2404,1.1297
2773.4375,12.7905,-3.5551,7.4068,-7.9775,9.8132,-0.9155,8.7997,-8.1254,12.7027,-8.9726,-0.4696,-10.2978,7.1384,-10.2219,-1.6726,-17.0279,5.4789,-6.7624,-0.1792
2777.3438,13.2465,-3.0278,5.1659,-12.7184,6.8231,0.9013,7.5715,-12.0145,11.0717,-9.4878,0.2564,-8.8201,4.4888,-14.9438,-0.9701,-15.8944,3.4436,-10.0834,-0.7484
2781.2500,13.2033,-1.8920,4.5765,-12.5620,7.7552,1.7232,6.1546,-11.2918,11.6951,-8.7377,1.1648,-5.8681,5.1631,-15.3068,-0.2718,-12.9688,3.9146,-9.1244,0.6873
2785.1562,13.3428,-0.3726,6.2090,-8.7767,11.9322,1.2806,5.7773,-7.7850,14.1883,-7.2885,2.5769,-2.6492,8.7871,-12.3367,1.0534,-9.4577,6.4960,-5.3344,4.1902
2789.0625,13.7371,0.8794,9.0640,-4.4469,16.6962,-0.5454,6.6083,-4.7605,16.6938,-6.1512,4.3330,-0.5400,13.0448,-8.6684,3.0742,-6.8328,9.2342,-1.6408,8.5800
2792.9688,13.9049,1.3518,11.3735,-2.3200,19.2660,-3.2840,7.7010,-4.6355,17.1950,-6.0442,5.9211,-0.2497,15.2684,-6.6454,5.1846,-5.9097,9.9489,-0.4454,12.2296
2796.8750,13.2485,1.0477,11.8181,-3.1004,18.5270,-5.8435,7.7880,-7.4617,14.9145,-6.8805,6.8011,-1.4425,14.2000,-6.8434,6.4537,-6.4339,7.7386,-2.0975,14.0829
2800.7812,11.4843,0.3908,10.2971,-5.3313,15.5045,-7.0959,6.2971,-11.1821,10.7939,-7.8862,6.6992,-3.0270,10.6894,-8.0225,6.1987,-7.4232,3.5727,-4.8773,14.1823
2804.6875,8.7704,-0.1884,7.8132,-6.7778,12.3067,-6.6766,3.8075,-13.3104,6.7451,-8.2432,5.7186,-3.8576,6.9085,-8.3863,4.4118,-7.9428,-0.4483,-6.3982,13.4244
2808.5938,5.5194,-0.5603,5.7100,-6.1508,10.4349,-5.2938,1.6274,-12.6875,4.2546,-7.7304,4.2518,-3.3500,4.7277,-7.0719,1.7835,-7.6984,-2.6125,-5.3305,12.8308
2812.5000,2.1135,-0.8136,4.8825,-3.8888,9.7361,-4.1755,0.8535,-10.0549,3.3610,-6.8473,2.7852,-1.6459,4.4381,-4.7263,-0.6695,-7.0421,-2.7925,-2.2017,12.9030
2816.4062,-1.2488,-0.9053,5.4465,-1.5533,8.6878,-4.0182,1.6401,-7.1947,2.7127,-6.3398,1.6990,0.6682,4.6720,-2.8246,-2.1341,-6.4852,-2.4758,1.1975,13.4522
2820.3125,-4.5016,-0.4538,6.9054,-0.4837,5.6788,-4.3117,3.1816,-5.4862,0.6137,-6.5368,1.1272,2.9820,3.4739,-2.3911,-2.3788,-6.1911,-3.6424,3.2118,13.8742
2824.2188,-7.5605,1.0298,8.5123,-0.8417,0.2666,-3.6915,4.3405,-5.0554,-3.7215,-7.0557,0.9129,4.8973,-0.3045,-3.1943,-1.7834,-5.8702,-7.3209,3.4058,13.5491
2828.1250,-10.2249,3.6126,9.5404,-1.7402,-6.4791,-1.1328,4.3869,-5.0728,-9.5848,-7.1173,0.6825,6.1947,-6.2472,-4.0335,-1.0360,-5.1108,-12.8393,2.5735,12.0815
2832.0312,-12.2073,6.6057,9.4236,-2.2094,-12.6874,2.9710,3.3312,-4.7621,-15.2223,-6.2016,0.0385,6.7060,-12.6812,-3.8134,-0.6931,-3.7957,-18.2493,1.8164,9.3493
2835.9375,-13.2566,8.8355,7.9047,-2.0976,-16.8365,6.8220,1.7221,-4.1554,-18.9438,-4.4931,-1.1972,6.3169,-17.7221,-2.4856,-0.8635,-2.2100,-21.5638,1.5458,5.5152
2839.8438,-13.2833,9.4317,5.2328,-2.1366,-18.5144,8.4667,0.2018,-3.9497,-20.1099,-2.7430,-2.8282,5.1389,-20.3046,-1.0801,-1.1940,-0.7512,-21.9238,1.2364,1.0945
2843.7500,-12.4221,8.5420,2.2274,-3.1566,-18.3679,7.3756,-0.8026,-4.6653,-19.3662,-1.6596,-4.3581,3.6593,-20.5731,-0.8166,-1.1601,0.4730,-19.9440,0.0751,-3.0350
2847.6562,-11.0064,7.3398,-0.0370,-5.1643,-17.4431,5.0633,-1.1191,-5.9256,-18.0598,-1.3269,-5.3050,2.6303,-19.5259,-2.0318,-0.4854,1.7706,-17.1214,-2.1130,-5.8830
2851.5625,-9.4646,7.2026,-0.9070,-7.1018,-16.4909,4.1240,-0.7628,-6.5553,-17.3135,-1.1246,-5.5824,2.6608,-18.2826,-3.7952,0.5797,3.5792,-14.8242,-4.4852,-6.8791
2855.4688,-8.1595,8.6293,-0.7668,-7.5256,-15.6868,6.2985,0.0321,-5.4650,-17.4011,-0.2164,-5.6637,3.7654,-17.4883,-4.5279,1.3175,6.0075,-13.5776,-5.7001,-6.3784
2859.3750,-7.2285,10.7497,-1.0336,-5.6820,-14.8092,11.0303,0.6917,-2.5864,-17.7782,1.7869,-6.3487,5.2374,-17.1542,-3.1505,0.9420,8.6139,-13.0368,-4.9241,-5.6857
2863.2812,-6.5163,11.8878,-3.3267,-2.1216,-13.5877,15.6833,0.3371,0.9502,-17.6443,4.5072,-8.2267,6.0224,-16.8911,0.1201,-0.8942,10.6411,-12.5065,-2.5112,-6.3891
2867.1875,-5.6859,10.8282,-8.2573,1.6394,-11.9147,17.3617,-1.8348,3.5952,-16.5791,7.0603,-11.1916,5.3985,-16.2770,3.9174,-3.8197,11.5350,-11.5275,0.2066,-9.3220
2871.0938,-4.4891,7.8410,-14.7164,4.1633,-9.8375,15.0159,-5.9590,4.5290,-14.8143,8.6705,-14.3926,3.5002,-15.1145,6.6870,-6.9108,11.3308,-10.1182,1.8764,-13.8625
2875.0000,-3.0404,4.6466,-20.3150,5.0550,-7.4693,10.2502,-11.1480,4.2794,-13.0092,9.1595,-16.7244,1.2909,-13.4853,7.7389,-9.2380,10.5890,-8.6037,2.1002,-18.1616
2878.9062,-1.8686,3.2733,-22.8308,5.1381,-4.9733,6.1954,-15.7816,4.3192,-11.7501,8.9559,-17.5625,-0.0387,-11.6554,7.6328,-10.4469,9.9341,-7.2796,1.6892,-20.2737
2882.8125,-1.6322,4.6133,-21.7146,5.7403,-2.6242,5.2658,-18.3975,5.9412,-11.1548,8.6736,-17.2198,0.1476,-9.9368,7.6600,-10.9661,9.5698,-6.2144,2.0104,-19.4680
2886.7188,-2.6374,7.7361,-18.5534,7.6419,-0.8128,7.4597,-18.6185,9.2611,-10.8479,8.6249,-16.7592,1.5073,-8.5748,8.8467,-11.6699,9.1564,-5.3043,3.9186,-16.7839
2890.6250,-4.5004,10.4742,-16.0778,10.4589,0.1097,10.4404,-17.4176,13.0798,-10.2947,8.6437,-17.2518,2.9463,-7.6861,11.2110,-13.2093,8.1287,-4.4599,7.0635,-14.3763
2894.5312,-6.2619,10.8594,-16.3494,12.8889,0.0818,11.2873,-16.4506,15.6821,-9.2349,8.3096,-18.9997,3.3346,-7.2449,13.7790,-15.4865,6.1807,-3.7223,10.0705,-14.0559
2898.4375,-6.9546,8.3764,-19.3941,13.6208,-0.5230,8.5777,-16.8823,15.9741,-7.9013,7.3445,-21.3000,2.2049,-7.1096,15.2995,-17.6758,3.5174,-3.2152,11.4545,-16.0422
2902.3438,-6.2556,4.1652,-23.2403,12.2678,-1.0123,3.2772,-18.5597,14.1652,-6.8622,5.8529,-22.9454,-0.0440,-7.0698,15.1275,-18.8018,0.6877,-3.0016,10.6250,-18.8153
2906.2500,-4.7259,0.1012,-25.3092,9.6985,-0.7102,-2.1226,-20.1549,11.5789,-6.5859,4.2518,-23.1014,-2.5499,-6.8810,13.6722,-18.4607,-1.8425,-2.9871,8.3047,-20.1698
2910.1562,-3.4021,-2.5065,-24.1277,7.5707,0.7092,-5.4566,-20.1786,9.8007,-7.0188,2.9953,-21.9007,-4.6689,-6.2737,12.1413,-17.1383,-4.0191,-2.9436,6.1083,-18.7061
2914.0625,-2.9960,-3.6493,-20.1533,7.3802,3.1139,-6.3022,-18.0987,9.7698,-7.4800,2.3331,-20.2989,-6.4216,-4.9625,11.7842,-15.8617,-6.1711,-2.6118,5.5796,-14.6991
2917.9688,-3.3067,-4.3332,-15.2160,9.6066,6.0713,-5.9835,-14.7215,11.3615,-6.9883,2.2533,-19.3030,-8.3809,-2.7152,13.1360,-15.4350,-8.6706,-1.7921,7.3014,-9.7749
2921.8750,-3.3370,-5.6110,-11.1270,13.4430,9.1107,-6.3256,-11.5756,13.6147,-4.8590,2.5776,-19.1837,-11.1043,0.4947,15.7177,-15.8453,-11.5696,-0.3845,10.5953,-5.7202
2925.7812,-2.0813,-7.7320,-8.5628,17.2336,11.8788,-8.2306,-9.8086,15.3553,-1.2096,3.0717,-19.3053,-14.5528,4.3220,18.3410,-16.3178,-14.5012,1.5886,13.9413,-3.3540
2929.6875,0.6049,-10.0282,-6.9998,19.3530,14.1179,-11.1515,-9.4610,15.8121,2.9736,3.4880,-18.7235,-17.9513,8.0211,19.8037,-15.9932,-16.9025,3.9378,15.8311,-2.2659
2933.5938,3.7637,-11.5273,-5.5732,19.0430,15.5834,-13.7210,-9.6298,14.9310,6.3104,3.5849,-17.0732,-20.2177,10.6777,19.5544,-14.6895,-18.3672,6.2764,15.5621,-1.4952
2937.5000,5.9872,-11.7324,-4.0104,16.7615,16.0721,-14.8793,-9.3017,13.3095,7.8082,3.2073,-15.0004,-20.6684,11.6541,17.9520,-13.1092,-18.8535,8.0962,13.5527,-0.4919
2941.4062,6.5132,-10.9482,-2.8191,13.8606,15.5972,-14.5466,-8.1148,11.8409,7.4870,2.4215,-13.7290,-19.4923,11.0059,15.9872,-12.2682,-18.6162,8.9961,11.0399,0.4625
2945.3125,5.9076,-9.9523,-2.6239,11.7726,14.5466,-13.3918,-6.4315,11.2354,6.4326,1.5734,-14.0415,-17.6436,9.5623,14.6438,-12.5620,-17.9531,8.9604,9.3445,0.6843
