Time,Fp1,F3,C3,P3,O1,F7,T3,T5,Fz,Fp2,F4,C4,P4,O2,F8,T4,T6,Cz,Pz
0.0000,4.7508,-2.8991,-2.7930,-1.2055,-1.0165,-2.0617,-5.1826,-1.1229,5.3193,0.6095,-2.9886,-1.0484,1.2709,2.8530,-5.0739,-1.2505,1.5402,-0.4957,-2.8414
3.9062,0.3930,-0.4768,-3.4173,-0.9879,-1.9101,1.5187,-0.2319,-1.6258,19.1341,-3.2439,-5.5363,-0.4741,-0.0171,2.3194,-5.5441,-2.1793,0.8034,-2.1080,-3.1646
7.8125,-3.2822,0.5418,-2.1504,0.6708,-0.5573,4.5124,6.1220,-0.8621,23.0836,-6.3458,-6.0839,0.2453,0.5067,2.4903,-4.1059,-2.7997,1.8243,-2.4120,-1.7782
11.7188,-4.4199,-0.4197,1.0246,3.9210,2.9401,4.5655,11.6706,1.5325,18.5834,-7.2282,-4.2333,0.9971,2.8380,3.4464,-1.2428,-2.9248,4.2489,-1.0804,1.2766
15.6250,-2.9425,-2.3350,5.1953,8.0422,7.4288,0.9005,14.5246,5.0014,11.4440,-5.7898,-0.8648,1.9257,6.1981,4.8440,1.8712,-2.6153,7.0836,1.4601,5.3471
19.5312,-0.7334,-3.2310,9.0255,11.7642,11.3038,-4.8116,14.3234,8.3464,7.6521,-3.1934,2.4479,3.2601,9.4333,6.1092,4.1869,-2.1353,9.2146,4.3636,9.4501
23.4375,-0.2973,-1.6649,11.5154,13.9866,13.3475,-9.3068,12.4939,10.4483,9.5489,-0.9147,4.4479,5.0127,11.5678,6.7761,5.4210,-1.7641,9.9346,6.8974,12.6936
27.3438,-2.8054,2.0927,12.4961,14.3995,13.3020,-9.8461,11.2233,10.9090,14.9901,0.2846,4.9136,6.8132,12.2049,6.7288,6.0417,-1.5844,9.2088,8.7686,14.6156
31.2500,-6.9917,6.1099,12.5273,13.5628,11.8463,-6.1111,11.7547,10.1579,19.6993,0.6908,4.5931,8.0333,11.5749,6.1793,6.6577,-1.3933,7.5761,10.0323,15.2600
35.1562,-9.8216,8.0889,12.3059,12.3931,10.0399,-0.4520,13.2441,8.9818,20.7167,1.1056,4.4469,8.1285,10.2427,5.4077,7.3503,-0.8254,5.7770,10.7230,14.9735
39.0625,-8.5601,6.9676,12.0629,11.4508,8.6197,3.7488,13.1700,7.8752,18.3050,1.9634,4.8023,6.9507,8.6802,4.4714,7.5299,0.3566,4.3175,10.5746,14.0803
42.9688,-2.7849,3.6612,11.4278,10.5691,7.6017,4.4249,9.2181,6.7270,15.1593,2.8557,5.0760,4.8164,6.9797,3.1145,6.4489,1.9738,3.1967,9.1148,12.6721
46.8750,5.1377,0.4427,9.8715,9.0936,6.4098,2.1623,1.3849,5.0655,13.9482,2.8499,4.2765,2.3061,4.8845,0.9611,3.9445,3.3487,1.9352,6.1011,10.6599
50.7812,11.5059,-0.5276,7.3610,6.5253,4.3965,-0.4283,-7.3210,2.6233,15.3401,1.3252,1.9021,-0.0341,2.1046,-2.1436,0.7754,3.5471,-0.0984,1.9518,8.0379
54.6875,13.6473,1.5484,4.6678,3.0485,1.3767,-0.7568,-12.3494,-0.2702,17.9798,-1.3679,-1.4611,-1.8732,-1.3052,-5.8933,-1.7654,1.8754,-3.2305,-2.2089,5.1353
58.5938,11.5200,5.8716,3.0144,-0.4799,-2.1786,1.8834,-10.4582,-2.8043,20.1160,-3.9692,-4.3208,-3.0720,-4.7842,-9.5697,-2.6815,-1.6171,-7.1491,-5.0123,2.6232
62.5000,7.4515,10.7934,3.2660,-3.0707,-5.3925,6.0196,-2.0145,-4.2209,21.2674,-5.0726,-5.1486,-3.5448,-7.4631,-12.3681,-1.8965,-5.9443,-10.9182,-5.5533,1.2194
66.4062,4.3084,14.8306,5.2610,-4.2500,-7.4778,9.3646,8.9699,-4.3326,22.4803,-4.0388,-3.3444,-3.1768,-8.6276,-13.7973,-0.1775,-9.4942,-13.3868,-3.8885,1.2685
70.3125,3.5129,17.2175,7.8182,-4.3186,-8.1451,10.6287,17.2588,-3.6173,25.1013,-1.4090,0.3676,-1.8918,-8.1609,-13.9102,1.5583,-10.7678,-13.8032,-0.9982,2.4930
74.2188,4.3516,17.8126,9.4713,-4.0472,-7.6872,10.2901,19.6713,-2.8328,29.3018,1.4395,4.3694,0.1849,-6.6724,-13.2401,2.9615,-9.1928,-12.2845,1.7524,4.1079
78.1250,4.9557,16.7450,9.4306,-4.0811,-6.7395,9.7897,16.9266,-2.4886,33.7383,3.1208,7.0912,2.6221,-5.2111,-12.5067,4.3835,-5.5424,-9.8374,3.2921,5.2374
82.0312,4.0340,14.2791,8.0790,-4.5344,-5.9224,9.9789,12.7400,-2.5962,36.6525,2.9789,7.8261,4.7581,-4.7263,-12.2787,6.3149,-1.6498,-7.8704,3.2487,5.3543
85.9375,1.9255,10.9747,6.6359,-5.0692,-5.5952,10.2667,10.8574,-2.8539,37.4127,1.3075,6.9243,5.9471,-5.5960,-12.7652,8.6360,0.5165,-7.4510,1.8978,4.4590
89.8438,0.1675,7.7890,6.2376,-5.3314,-5.8173,9.2674,12.2467,-3.0354,37.1037,-0.9792,5.3394,5.8496,-7.4886,-13.7944,10.3840,-0.0471,-8.7325,-0.1937,2.9212
93.7500,0.0231,5.7589,7.1122,-5.3208,-6.4442,6.3933,14.5497,-3.1898,37.6174,-2.9078,3.9385,4.6113,-9.6011,-14.9228,10.3414,-2.7274,-10.8874,-2.5073,1.1635
97.6562,1.2488,5.3491,8.4502,-5.3551,-7.2236,2.9293,14.1772,-3.4679,40.0070,-3.8694,3.0790,2.8397,-11.0842,-15.5881,8.0481,-5.5154,-12.5802,-4.6693,-0.5362
101.5625,2.1527,6.0056,9.0412,-5.6598,-7.8318,1.4719,9.4018,-3.7701,43.5153,-3.7383,2.6702,1.3888,-11.3939,-15.2559,4.4165,-6.0441,-12.6918,-6.3362,-1.9910
105.4688,0.9135,6.4316,8.1774,-5.9754,-7.9081,3.9702,2.0175,-3.6180,46.1184,-2.7621,2.5386,1.0365,-10.4088,-13.5656,1.3603,-2.9003,-10.8742,-7.0892,-2.9168
109.3750,-2.9190,5.5324,6.1447,-5.5839,-7.1791,9.8657,-3.7665,-2.4757,46.1485,-1.3921,2.7144,2.1741,-8.3443,-10.4741,0.5903,3.5268,-7.6438,-6.5333,-2.8680
113.2812,-7.9661,3.3436,3.9633,-3.8116,-5.6615,15.9165,-4.3982,-0.3155,43.6574,-0.1421,3.3910,4.6260,-5.5976,-6.3477,2.4196,11.1568,-4.0160,-4.5699,-1.4485
117.1875,-11.9846,1.1469,2.6218,-0.6402,-3.7967,18.0768,0.3199,2.0775,40.4145,0.5534,4.6402,7.6889,-2.6348,-1.9155,5.4892,17.2449,-0.9441,-1.6119,1.3232
121.0938,-13.4754,0.5745,2.4145,3.0856,-2.3345,14.2038,6.9798,3.4431,38.5664,0.5188,6.1923,10.4115,0.0806,1.9596,7.6835,19.7545,1.1086,1.5029,4.8116
125.0000,-12.6551,2.3451,2.8669,6.0804,-1.9383,5.6496,10.9756,2.9028,39.0655,-0.0080,7.5278,12.0168,2.1785,4.6221,7.6134,18.3156,2.2585,3.9218,7.9739
128.9062,-11.0448,5.6436,3.2407,7.4071,-2.7199,-3.4569,9.7622,0.7317,41.1051,-0.3965,8.2335,12.2638,3.5024,5.9007,5.5870,14.2606,2.9697,5.2605,9.9132
132.8125,-10.0739,8.6858,3.1570,7.0622,-4.0462,-8.7687,4.5390,-1.6037,42.9184,0.0840,8.3126,11.5290,4.1747,6.1446,3.3286,9.7719,3.6776,5.8069,10.4055
136.7188,-9.8902,10.0498,2.8199,5.9190,-4.8341,-8.3456,-0.8245,-2.2978,43.1819,1.8004,8.1482,10.5268,4.4955,5.9719,2.6259,6.6671,4.4832,6.2646,9.9878
140.6250,-9.3759,9.6992,2.6910,5.0746,-4.2152,-3.5819,-2.7069,-0.4221,41.8497,4.3994,8.1069,9.8171,4.6785,5.8661,3.8930,5.5143,5.0616,7.1891,9.5040
144.5312,-7.3404,8.8554,2.9394,5.0915,-2.1503,2.0516,-0.2539,3.3589,39.8196,6.8418,8.0986,9.4206,4.5950,5.8723,5.7293,5.5304,4.8138,8.5117,9.4227
148.4375,-3.8582,8.8238,3.1701,5.6937,0.4552,5.4012,4.3093,7.1317,37.8691,7.8891,7.4953,8.8261,3.7616,5.5890,5.8441,5.2401,3.1847,9.5095,9.4429
152.3438,-0.5635,9.7744,2.6865,6.1052,2.2685,5.4485,7.6015,8.9473,35.8843,6.7985,5.5508,7.4112,1.6618,4.4671,2.7211,3.4551,0.0001,9.2710,8.7080
156.2500,0.4492,10.5336,1.0766,5.7199,2.3622,3.4448,7.5966,8.0690,33.0733,3.8133,2.0529,4.9896,-1.7777,2.2237,-3.1595,-0.0018,-4.3467,7.3478,6.4837
160.1562,-1.6952,9.6029,-1.3719,4.5528,0.7957,1.5579,4.7896,5.3818,28.9338,0.1353,-2.2933,2.0720,-5.9171,-0.8969,-9.4282,-4.2038,-8.9810,4.1372,2.7861
164.0625,-5.7370,6.5597,-3.7913,3.1364,-1.4635,1.2028,1.3192,2.6958,24.0624,-2.6264,-6.0974,-0.3888,-9.6094,-4.1823,-13.2168,-7.6531,-12.8990,0.7217,-1.5261
167.9688,-8.9427,2.6335,-5.3149,2.0007,-3.2189,2.2258,-0.9846,1.4790,20.0222,-3.2221,-8.0277,-1.6191,-11.8174,-6.7896,-12.8953,-9.0960,-15.4201,-1.7379,-5.2703
171.8750,-8.9434,-0.0964,-5.6712,1.2106,-3.8238,3.2967,-1.9174,1.9422,18.3032,-1.3227,-7.5707,-1.5699,-12.2384,-8.1463,-8.9934,-8.1563,-16.4781,-2.6478,-7.6734
175.7812,-5.4232,-0.2756,-5.3301,0.3740,-3.4965,2.9766,-2.5906,3.1014,19.1999,2.3985,-5.2799,-0.9726,-11.4776,-8.1750,-3.7344,-5.4678,-16.5549,-2.2475,-8.7625
179.6875,-0.4067,1.6574,-5.1017,-0.8876,-2.9670,0.6184,-3.9729,3.6914,21.5135,6.6420,-2.3630,-0.8448,-10.6122,-7.2346,0.4278,-2.2823,-16.2782,-1.3535,-9.1451
183.5938,3.0801,3.8100,-5.5152,-2.4201,-2.7734,-3.3828,-5.7135,3.1858,23.3193,10.0591,0.0577,-1.7961,-10.4452,-5.8574,2.2361,0.1856,-15.9501,-0.7964,-9.4055
187.5000,3.0084,4.3293,-6.4579,-3.4459,-2.7884,-7.9028,-6.3333,2.1580,23.1981,11.7229,1.4624,-3.6427,-10.9941,-4.4723,2.0903,1.3015,-15.3472,-0.9530,-9.6402
191.4062,-0.4091,2.8388,-7.3212,-3.0381,-2.3605,-11.5830,-4.5942,1.7652,21.0043,11.3194,1.9041,-5.6044,-11.5923,-3.2787,1.3511,1.1662,-13.9585,-1.6647,-9.5115
195.3125,-5.0391,0.6441,-7.4931,-0.8222,-0.9413,-13.2530,-0.7885,2.8167,17.6814,9.0867,1.5857,-6.9153,-11.5063,-2.2964,1.1132,0.3515,-11.4962,-2.5234,-8.7305
199.2188,-8.3672,-0.4502,-6.7913,2.6368,1.3368,-12.2705,3.2461,5.1623,14.4099,5.6403,0.5136,-7.3689,-10.5608,-1.4916,1.3926,-0.5678,-8.2754,-3.2471,-7.4989
203.1250,-9.0796,0.2854,-5.5305,6.0829,3.6400,-8.8189,5.4542,7.8299,11.8401,1.8054,-1.4055,-7.3853,-9.2561,-0.8470,1.2876,-1.3762,-5.1247,-3.8395,-6.4651
207.0312,-7.6059,1.8642,-4.2433,8.2919,5.0206,-4.0294,5.1201,9.7291,9.9628,-1.5206,-3.9155,-7.5790,-8.2769,-0.3247,-0.0860,-2.2651,-2.8355,-4.4414,-6.1811
210.9375,-5.4087,2.4224,-3.3368,8.7521,5.1468,0.3304,3.3274,10.3314,8.5495,-3.5324,-6.0945,-8.1991,-7.8063,0.2092,-2.6612,-3.5802,-1.5495,-5.0466,-6.5190
214.8438,-3.7304,0.8425,-2.9488,7.8303,4.5626,2.6448,1.9357,9.8243,7.6228,-3.7380,-6.6252,-8.9078,-7.2456,0.9820,-5.2384,-5.4841,-0.5872,-5.3677,-6.5997
218.7500,-2.8002,-2.1964,-3.0295,6.3592,4.2262,2.3317,1.9684,8.7173,7.4876,-2.1733,-4.6283,-9.0669,-5.6334,2.1745,-6.2247,-7.7795,1.0685,-5.0000,-5.3996
222.6562,-1.9984,-4.6382,-3.4629,5.0085,4.6680,0.1709,2.8085,7.3187,8.3465,0.5345,-0.4756,-8.2883,-2.4788,3.7192,-4.7631,-9.9942,3.9296,-3.7690,-2.6166
226.5625,-0.6690,-4.6236,-4.0541,3.9288,5.4569,-2.2842,2.8937,5.5560,9.9484,3.3697,4.1292,-6.7828,1.6518,5.2004,-1.4175,-11.6252,7.4214,-1.9723,0.9039
230.4688,1.1947,-1.9524,-4.4293,2.8879,5.4548,-3.8805,1.2869,3.2588,11.6799,5.3680,7.0507,-5.2174,5.3158,5.9869,2.1101,-12.3358,10.0612,-0.2852,3.6017
234.3750,2.9552,1.7474,-4.0640,1.7053,3.7251,-4.7291,-1.2726,0.5960,13.0623,6.0822,7.0898,-4.1925,7.0841,5.5727,4.0600,-11.9752,10.3584,0.6449,4.2607
238.2812,3.9436,4.2767,-2.5812,0.5655,0.4127,-5.9892,-2.8086,-1.7733,14.1901,5.7942,4.8535,-3.7628,6.5166,3.9314,3.7444,-10.4813,7.8509,0.6354,2.9338
242.1875,4.0914,4.5397,-0.1690,-0.0697,-3.1161,-8.6322,-1.7179,-3.0154,15.6607,5.3017,2.4211,-3.3903,4.4953,1.6336,1.9403,-7.8434,3.5335,0.1056,1.0166
246.0938,4.0173,3.3155,2.2698,0.1398,-5.0515,-12.1584,1.7983,-2.6678,18.0014,5.3667,1.9436,-2.3681,2.6451,-0.3996,0.2778,-4.2403,-0.6653,-0.2112,0.3587
250.0000,4.5023,2.5551,3.5215,1.0635,-4.3137,-14.4329,5.7296,-0.9730,21.0823,6.1539,4.1293,-0.3870,2.2459,-1.3967,0.0720,-0.2534,-3.0349,0.2013,2.0173
253.9062,5.8086,3.8054,2.8800,2.1189,-1.2806,-13.0177,7.7502,1.2618,24.0622,7.0357,7.7084,2.1876,3.4162,-1.1888,1.4361,3.1064,-3.0840,1.2396,5.5380
257.8125,7.4068,7.0066,0.8124,2.6548,2.4561,-7.1370,7.0221,3.1527,25.9732,6.9366,10.2955,4.5202,5.1324,-0.3131,3.3042,4.7543,-1.7148,2.1989,9.2685
261.7188,8.3166,10.5451,-1.1251,2.3845,5.1188,1.2557,4.8390,4.1793,26.4815,5.0374,10.0513,5.8165,6.0203,0.3233,4.3264,4.1625,-0.4874,2.2114,11.4551
265.6250,7.7652,12.4270,-1.2301,1.5141,5.8044,8.3187,3.5790,4.2688,26.1799,1.3952,6.9493,5.7608,5.3001,0.0149,3.9582,1.8497,-0.5262,0.8131,11.3213
269.5312,5.6383,11.6090,1.1150,0.4754,4.8417,10.6691,4.8101,3.5554,26.1423,-2.9492,2.7429,4.6034,3.2032,-1.3095,2.9209,-0.7215,-1.8471,-1.7433,9.3879
273.4375,2.4227,8.5223,4.8293,-0.4871,3.2733,7.6034,8.0719,2.1261,27.0957,-6.4910,-0.3114,2.9123,0.6265,-3.0863,2.6642,-1.9346,-3.5287,-4.6271,6.8931
277.3438,-1.2245,4.5617,7.6952,-1.5065,1.9504,1.5298,11.2786,0.0330,28.8991,-8.1049,-1.0074,1.2341,-1.6196,-4.5455,4.2109,-1.0665,-4.5172,-6.9148,4.8355
281.2500,-4.8559,1.1060,7.8158,-2.8895,0.9690,-3.7774,12.3653,-2.4565,30.7584,-7.6760,0.1140,-0.0981,-3.3491,-5.2603,7.2464,1.1445,-4.4135,-8.0915,3.3817
285.1562,-8.2485,-1.1358,4.9724,-4.6988,-0.1622,-5.8488,10.8241,-4.6882,31.9808,-6.1032,1.3773,-0.9587,-4.9428,-5.4152,10.1711,2.9163,-3.6638,-8.2538,2.0203
289.0625,-11.1143,-2.1107,0.8733,-6.5041,-1.8562,-5.1343,7.9361,-5.8206,32.6069,-4.6707,1.3550,-1.3481,-6.8243,-5.5873,11.1516,2.6713,-3.0761,-7.9182,0.2289
292.9688,-12.8751,-2.0228,-1.9546,-7.5503,-3.9062,-4.3613,5.6181,-5.3499,33.3727,-4.2019,-0.0595,-1.3616,-8.9569,-6.1963,9.4544,0.2990,-3.1064,-7.6010,-1.9499
296.8750,-12.8290,-1.0718,-1.8772,-7.2416,-5.5457,-6.1610,4.9158,-3.5568,35.0402,-4.5541,-1.6640,-1.1963,-10.7824,-7.0388,6.0946,-2.5113,-3.4997,-7.4558,-3.8839
300.7812,-10.6832,0.4577,0.7655,-5.5599,-6.0491,-10.8104,5.3720,-1.4370,37.6930,-4.7763,-1.9485,-1.0806,-11.6197,-7.2880,3.2742,-3.2414,-3.5513,-7.1844,-4.8372
304.6875,-7.0535,2.0239,4.0108,-3.0687,-5.3460,-15.8397,5.6842,-0.0576,40.6261,-3.8081,-0.2564,-1.0772,-11.1608,-6.0155,2.9369,-0.2761,-2.7464,-6.2404,-4.5072
308.5938,-3.4629,2.9712,5.7988,-0.4938,-4.1132,-17.7980,4.9712,0.2241,42.9401,-1.2466,2.7716,-0.8925,-9.6584,-2.9006,5.4159,5.7700,-1.2512,-4.1749,-3.1595
312.5000,-1.6943,3.0388,5.5262,1.7799,-3.2531,-14.8076,3.5324,0.0509,44.3163,2.3152,5.7199,0.0728,-7.6935,1.3719,9.1286,12.1193,0.1337,-0.9237,-1.2960
316.4062,-2.8257,2.7906,4.4449,3.8757,-3.1876,-7.9543,2.5160,0.5670,45.2694,5.5726,7.3817,2.3331,-5.7700,5.3439,11.5621,15.3772,0.5112,3.0952,0.7916
320.3125,-6.5568,3.4282,4.5903,6.1188,-3.5518,-0.4959,2.8845,2.4571,46.6105,7.2148,7.4195,5.7965,-4.0912,7.5395,10.9035,13.6206,-0.4999,7.0975,3.1524
324.2188,-11.2878,5.9170,7.0485,8.5267,-3.5357,4.4349,4.6270,5.2681,48.5548,6.6152,6.2896,9.5354,-2.6620,7.2781,7.2121,7.6700,-2.5280,10.2001,5.8795
328.1250,-14.9454,10.0196,10.8984,10.5610,-2.5854,5.8457,6.8545,7.6029,50.2593,4.1300,4.6611,12.1557,-1.5376,5.0298,2.3541,0.6950,-4.7250,11.7450,8.6964
332.0312,-16.0636,14.0749,13.6801,11.4089,-0.8812,5.1418,8.5873,8.1133,50.2641,0.8950,2.9280,12.6401,-0.9145,2.0989,-1.2274,-3.6113,-6.3139,11.5685,10.8720
335.9375,-14.4736,15.8834,13.0974,10.6150,0.7921,4.5880,9.4617,6.5649,47.5710,-1.7165,1.2058,11.1091,-0.9422,-0.1425,-2.0390,-3.1242,-7.0005,10.1047,11.6336
339.8438,-11.2119,14.1864,8.7220,8.5589,1.6582,5.3300,9.7558,4.1252,42.5285,-2.6816,-0.3177,8.8905,-1.4411,-0.9784,-0.3329,1.6403,-6.9989,8.2398,10.7796
343.7500,-7.7637,9.6700,2.4370,6.3417,1.5221,6.5903,9.8415,2.5861,36.7926,-1.7201,-1.1617,7.7291,-1.8563,-0.6015,2.3001,8.0452,-6.7349,6.9288,8.9611
347.6562,-5.1706,4.6882,-2.7295,5.0929,0.8345,6.6131,9.7139,3.0505,32.3309,0.6288,-0.7946,8.6120,-1.5892,0.1906,4.1553,12.9770,-6.5046,6.7262,7.3214
351.5625,-3.5850,1.8241,-4.5621,5.1808,0.2200,4.4861,9.1140,5.0678,30.1816,3.2414,0.8268,11.0411,-0.4940,0.5923,4.5346,14.5202,-6.3326,7.4805,6.7016
355.4688,-2.5264,2.2877,-3.0226,5.9349,-0.0970,1.2644,8.0917,6.9034,29.8772,4.8702,2.9524,13.3280,0.8861,0.2714,3.9951,12.7050,-6.0638,8.4068,7.0097
359.3750,-1.5934,5.2737,-0.0889,6.1285,-0.4610,-0.5829,7.3311,6.7819,29.9326,4.6786,4.3646,13.7552,1.6083,-0.5269,3.6520,9.0917,-5.5402,8.5462,7.2681
363.2812,-1.0594,8.6821,1.7539,4.8970,-1.4040,0.9822,7.7243,4.1998,28.9914,2.6396,4.1863,11.7851,0.9886,-1.2404,4.1574,5.6835,-4.7015,7.3677,6.3437
367.1875,-1.8441,10.5966,1.2455,2.4135,-3.0605,5.8646,9.4389,0.3301,26.7571,-0.4024,2.5450,8.4213,-0.8715,-1.3841,5.1643,3.9183,-3.5816,5.1337,3.8167
371.0938,-4.7936,10.4229,-0.9159,-0.1959,-4.9207,11.6181,11.3496,-2.7862,24.0520,-3.0874,0.5116,5.4345,-3.1354,-0.8306,5.6577,4.2160,-2.2928,2.7709,0.3196
375.0000,-9.7428,8.9500,-2.7796,-1.6491,-6.1769,14.9272,11.5548,-3.6555,22.0518,-4.1742,-0.6951,4.0275,-4.8639,0.1427,4.8408,6.0828,-1.0759,1.3060,-2.9206
378.9062,-15.0859,7.4782,-2.6724,-1.4224,-6.3967,13.7435,8.7933,-2.3075,21.3577,-3.1271,-0.6175,3.9550,-5.7498,1.0031,2.8508,8.4840,-0.3620,1.2356,-4.9746
382.8125,-18.3299,6.8260,-0.3912,-0.0864,-5.9359,8.5828,3.6781,-0.1308,21.6279,-0.3259,0.1717,3.7955,-6.3461,1.2070,0.7367,10.2384,-0.7002,2.2647,-5.8283
386.7188,-17.4589,6.9754,2.7761,1.1990,-5.6882,2.1464,-1.3766,1.2597,21.9921,3.2155,0.6820,2.1893,-7.5545,0.4429,-0.2784,10.3789,-2.4701,3.6013,-6.2365
390.6250,-12.2951,7.4760,5.1244,1.6415,-6.3096,-2.3689,-3.6859,1.2364,21.8430,6.4281,0.4914,-0.9029,-9.7364,-1.1890,0.3276,8.5001,-5.5041,4.5946,-6.9376
394.5312,-4.8989,8.0758,5.8289,1.4813,-7.5314,-3.0726,-2.2049,0.5426,21.3427,8.6897,0.2506,-3.9245,-12.1562,-3.1340,2.0320,5.0044,-8.9094,5.2401,-7.8799
398.4375,1.4294,8.9482,5.4906,1.8265,-8.1625,-0.1754,1.6959,0.6055,21.2618,9.9610,1.2250,-4.7109,-13.2629,-4.5437,3.7025,1.0282,-11.3282,6.1663,-8.1134
402.3438,4.0546,10.3430,5.5688,3.7598,-6.8654,4.5207,5.2848,2.3597,22.3211,10.5547,4.2036,-2.0638,-11.6899,-4.6420,4.4570,-2.0765,-11.5903,8.0966,-6.4796
406.2500,2.6291,12.0673,7.1848,7.3906,-3.1707,8.8567,6.5831,5.5053,24.5710,10.7934,8.6712,3.2473,-7.2746,-3.1541,4.2836,-3.5025,-9.3925,11.1883,-2.5824
410.1562,-0.6945,13.3570,10.2177,11.5988,2.0404,11.3800,5.8571,8.7471,27.2699,10.8412,12.9716,8.8261,-1.3307,-0.5365,3.9539,-3.4912,-5.5391,14.7627,2.7240
414.0625,-2.7082,13.3229,13.3484,14.7103,6.9932,11.6939,5.2585,10.7811,29.3104,10.7808,15.3952,12.1421,4.0804,2.2089,4.3228,-3.1333,-1.5173,17.6632,7.7470
417.9688,-1.3528,11.6097,14.9853,15.6370,10.1254,10.1698,6.8775,11.2329,29.8496,10.7600,15.3600,12.1436,7.4077,4.1110,5.5761,-3.4919,1.3763,19.0051,11.0010
421.8750,2.8181,8.6953,14.3637,14.6410,11.0581,7.4769,10.8063,10.8267,28.7146,10.9722,13.7568,9.8713,8.5297,4.8678,7.0280,-4.6381,2.8059,18.7689,12.1308
425.7812,6.9771,5.5707,12.0246,13.1369,10.7312,4.3020,14.8416,10.6917,26.3820,11.4309,12.1962,7.6701,8.6990,5.0931,7.6405,-5.3745,3.5444,17.7849,12.0438
429.6875,7.9948,3.0733,9.3678,12.6474,10.6163,1.2968,16.1350,11.3800,23.6419,11.7554,11.7798,7.5814,9.5677,5.9203,6.8822,-3.9854,4.8783,17.0975,12.1687
433.5938,4.6890,1.4287,7.6473,13.6636,11.5909,-0.9523,13.4808,12.3676,21.2109,11.2539,12.3812,10.0374,11.9908,8.1563,5.2647,0.4283,7.6555,17.1660,13.4013
437.5000,-1.2603,0.3370,7.1530,15.2473,13.2909,-2.0900,8.3716,12.4125,19.4880,9.3625,12.9712,13.7075,15.4358,11.5496,4.1130,7.0083,11.6147,17.4924,15.5031
441.4062,-6.4259,-0.5583,7.1394,15.6851,14.3906,-2.2176,3.9337,10.4838,18.4918,6.1535,12.6341,16.5014,18.3696,14.7347,4.6808,13.3805,15.4564,16.9629,17.3521
445.3125,-8.0187,-1.2963,6.4993,13.7364,13.5795,-1.9510,2.5839,6.5657,17.9297,2.4755,11.3606,16.9496,19.3034,15.9823,7.2111,17.0355,17.6207,14.6672,17.8038
449.2188,-5.8368,-1.6505,4.6576,9.5836,10.5201,-2.1648,4.2946,1.7687,17.3621,-0.4850,9.9412,15.0115,17.7470,14.3047,10.6185,16.9236,17.2575,10.6075,16.4949
453.1250,-2.3625,-1.4882,2.0406,4.7980,6.1215,-3.5154,6.8482,-2.2967,16.4541,-1.9713,9.1013,11.8614,14.4448,10.1602,13.0713,14.1178,14.7516,5.7858,14.0214
457.0312,-0.9343,-1.0118,-0.1849,1.3402,1.9779,-6.0180,7.8147,-4.4210,15.2437,-2.1868,8.7119,8.9542,10.8021,5.2292,13.1400,11.0358,11.4596,1.6087,11.4289
460.9375,-3.3259,-0.5810,-0.8849,0.2917,-0.5987,-8.9313,6.5815,-4.3816,14.2650,-2.1375,7.8461,7.1103,7.9623,1.3751,10.7769,9.7673,8.8419,-0.9671,9.4625
464.8438,-8.4926,-0.2674,0.3066,1.1923,-1.2916,-11.0177,4.7517,-2.9097,14.3562,-2.8515,5.6944,6.2192,6.1724,-0.5159,7.4636,10.7120,7.5599,-1.9567,8.1477
468.7500,-13.3635,0.3798,2.7715,2.4128,-0.8144,-11.0487,4.6276,-1.1713,16.1691,-4.5441,2.5364,5.6160,4.8070,-1.0094,5.3787,12.4870,7.1172,-2.2053,6.9583
472.6562,-15.0370,2.0215,5.3121,2.2694,-0.3340,-8.3381,7.1011,-0.1513,19.6589,-6.3850,-0.1553,4.7079,2.9394,-1.5884,6.0629,13.0942,6.2554,-2.7281,5.3535
476.5625,-12.7273,4.8478,6.8622,0.0994,-0.7231,-3.1102,10.7627,-0.2762,23.9545,-7.0786,-0.6993,3.3434,0.0143,-3.5034,9.4038,11.4018,3.8254,-4.0213,3.2190
480.4688,-8.0640,8.1332,7.0409,-3.4002,-2.1125,3.4351,12.9968,-1.3666,27.8119,-5.8309,1.4584,1.7342,-3.8131,-6.8362,13.5946,7.8191,-0.4325,-5.8028,0.8907
484.3750,-3.6488,10.5277,6.2421,-6.7209,-3.9429,9.4405,12.1585,-2.8122,30.4257,-2.9571,5.1780,0.1387,-7.8177,-10.4388,16.1410,3.7459,-5.6827,-7.2979,-1.1788
488.2812,-1.0939,10.9849,5.2850,-8.5246,-5.3797,13.0696,9.0219,-3.8326,32.0335,0.3403,8.3775,-1.3399,-11.1453,-12.7592,15.3408,0.3731,-10.4641,-7.8017,-2.7680
492.1875,-0.0920,9.6227,4.9047,-8.3753,-5.7873,13.3325,6.3021,-3.7587,33.8055,2.8337,9.5756,-2.6721,-13.2325,-12.9263,11.3500,-2.1098,-13.5104,-7.1063,-3.9421
496.0938,0.8351,7.7592,5.3907,-6.7963,-5.0131,10.6527,6.6369,-2.3112,36.9918,4.0781,8.9953,-3.6811,-13.9818,-11.2995,6.1683,-4.2665,-14.4041,-5.5467,-4.8087
500.0000,2.6401,6.9864,6.5210,-4.7385,-3.3971,6.7625,10.6439,0.2090,41.8830,4.5273,8.3061,-3.9670,-13.6709,-9.1150,2.5196,-6.4284,-13.6835,-3.7220,-5.2460
503.9062,4.5906,7.9471,7.7399,-2.9182,-1.5683,3.8223,16.5408,2.9712,47.3557,4.9129,9.1727,-3.1188,-12.7269,-7.5350,2.2782,-7.9459,-12.3874,-2.1482,-4.8927
507.8125,4.6649,9.7991,8.4324,-1.4790,-0.1440,3.1759,21.4979,4.9907,51.4172,5.4597,11.7761,-1.0602,-11.5177,-6.8286,5.3840,-7.4551,-11.3686,-1.0709,-3.4408
511.7188,1.2271,10.8526,8.1717,-0.1167,0.5537,4.5140,23.5329,5.6972,52.4479,5.6424,14.5384,1.7790,-10.2372,-6.2801,9.9106,-4.0441,-10.8204,-0.4776,-0.9755
515.6250,-5.3717,9.9314,6.8851,1.5326,0.6495,6.0834,22.4722,5.3387,50.2867,4.7085,15.3218,4.6589,-8.8870,-4.8538,13.2461,1.6493,-10.2903,-0.2033,1.9527
519.5312,-12.6080,7.3772,4.9083,3.5652,0.6386,5.9240,19.4477,4.8747,46.3634,2.5031,13.1626,6.9729,-7.3330,-2.0905,13.6587,7.4334,-9.1228,-0.0167,4.6224
523.4375,-17.2669,4.8530,2.8834,5.7262,1.0625,3.3445,15.6591,5.3133,42.7380,-0.1625,9.1285,8.5952,-5.4190,1.4354,11.2796,10.8474,-7.0041,0.3178,6.5732
527.3438,-17.5352,4.0407,1.4707,7.5279,2.0728,-0.4321,11.6092,6.8809,40.6976,-1.9976,5.5661,9.8464,-3.1120,4.4129,7.9076,10.8550,-4.2408,0.9369,7.8156
531.2500,-14.1664,5.2333,0.9513,8.4192,3.1509,-3.0271,7.3547,8.6246,39.9039,-2.2253,4.3005,11.0982,-0.6160,5.6103,5.7937,8.6430,-1.6016,1.7238,8.6356
535.1562,-9.8730,6.9540,0.9380,7.9210,3.2411,-2.6335,3.2284,8.8339,38.7007,-1.2555,5.2131,12.3375,1.6306,4.6276,6.2086,6.8316,0.1496,2.2183,9.1644
539.0625,-7.4365,6.9552,0.4504,5.7588,1.3254,0.5099,0.0339,6.1117,35.3659,-0.4144,6.3374,13.0567,3.1135,2.0943,8.7120,7.6109,0.7054,1.7517,9.1047
542.9688,-7.9365,3.8758,-1.5600,2.0416,-2.8533,4.0440,-1.6671,0.4181,29.4139,-0.8794,5.4075,12.5737,3.4920,-0.7635,11.5523,11.1677,0.3506,-0.1667,7.8946
546.8750,-10.3327,-1.6919,-5.4714,-2.5851,-8.4039,5.0003,-2.4795,-6.6584,22.0301,-2.6596,1.6349,10.5412,2.7857,-2.8495,12.8666,15.5769,-0.2948,-3.4217,5.2132
550.7812,-12.5482,-7.5311,-10.5237,-6.9955,-13.5841,1.8959,-4.1779,-12.6718,15.3492,-4.4924,-3.6886,7.2437,1.3532,-3.7469,11.8405,18.2187,-0.7379,-7.1562,1.4091
554.6875,-13.0978,-11.2698,-15.0351,-9.9800,-16.7068,-4.0956,-8.3856,-15.6958,11.1105,-4.8101,-8.2106,3.4534,-0.3499,-3.8134,9.0698,17.6307,-0.9607,-10.1267,-2.5597
558.5938,-12.0123,-11.8894,-17.3076,-10.8629,-17.1350,-9.8055,-14.8480,-15.4204,9.6394,-3.0442,-10.3178,-0.0302,-2.0820,-3.8613,5.9593,14.3997,-1.4194,-11.3966,-5.7139
562.5000,-10.4895,-10.1914,-16.7061,-9.9668,-15.7115,-12.1517,-20.8903,-13.2449,9.8334,-0.2041,-10.2675,-2.7885,-3.9676,-4.6830,3.6767,10.4928,-2.6992,-10.9155,-7.7572
566.4062,-9.7406,-7.9662,-14.1713,-8.5298,-14.2841,-10.1701,-22.9025,-11.3055,10.0940,1.8012,-9.7777,-4.8338,-6.3566,-6.6826,2.4444,7.6606,-5.0599,-9.5409,-9.3286
570.3125,-10.0477,-6.5860,-11.7173,-7.9999,-14.5720,-5.5366,-18.9989,-11.0915,9.4956,1.6278,-10.4572,-6.3131,-9.4645,-9.7369,1.6459,6.2352,-8.1774,-8.4296,-11.5302
574.2188,-10.7308,-6.1046,-11.1450,-9.0867,-17.0765,-1.2232,-10.7893,-12.5636,8.3662,-0.3860,-12.3800,-7.1748,-13.0480,-13.2693,0.5730,5.2461,-11.2574,-8.1974,-15.0122
578.1250,-10.8831,-5.4729,-12.7974,-11.2074,-20.7394,0.6880,-2.6266,-14.3182,7.9229,-2.3639,-13.9610,-7.1304,-16.3705,-16.4635,-0.8392,3.6379,-13.4545,-8.4625,-19.2808
582.0312,-10.1185,-3.5845,-15.2410,-12.7655,-23.5719,0.3957,1.3855,-14.6155,9.2893,-2.2409,-13.2152,-5.9696,-18.5285,-18.5445,-1.9019,1.4463,-14.3324,-8.1347,-22.7922
585.9375,-8.6772,-0.2717,-16.1633,-12.1455,-23.8409,-0.0334,0.4411,-12.5271,12.6218,0.6849,-9.3758,-3.9459,-18.9487,-19.0532,-1.7777,-0.1552,-14.0815,-6.2699,-23.8473
589.8438,-6.9073,3.5054,-13.9270,-8.7819,-21.0438,1.4947,-2.3138,-8.4387,16.9397,5.1837,-3.5834,-1.8484,-17.7279,-18.0098,-0.2955,-0.0267,-13.3628,-2.8614,-21.7029
593.7500,-4.7352,6.3527,-8.7183,-3.5668,-16.0719,5.2974,-2.2179,-3.6519,20.7238,8.9417,1.8691,-0.6097,-15.5753,-15.8710,1.7180,1.5649,-12.8824,1.0340,-17.1173
597.6562,-1.7291,7.4271,-2.4805,1.6951,-10.5241,9.5619,3.1422,0.5339,22.8201,10.1794,5.1067,-0.6986,-13.3828,-13.2700,2.9237,2.6602,-12.9604,3.9541,-11.9213
601.5625,2.2454,6.9648,2.3278,5.4053,-5.6967,11.7203,11.7890,3.5655,23.0258,8.8129,5.8307,-1.7703,-11.7037,-10.6758,2.4509,0.8669,-13.3521,4.9955,-7.8926
605.4688,6.4105,6.0115,4.2724,7.0789,-1.9393,10.4799,18.6232,5.7199,22.0115,6.3220,5.2319,-2.8875,-10.4849,-8.1871,0.6304,-4.6761,-13.4167,4.3698,-5.7053
609.3750,9.2036,5.6192,3.7020,7.4262,1.2425,6.9215,19.2360,7.5776,20.7153,4.5024,4.8456,-3.1926,-9.2214,-5.6103,-1.1256,-12.1733,-12.5181,3.1465,-4.6735
613.2812,9.2436,6.1152,2.2400,7.6127,4.5097,3.7926,13.3351,9.3727,19.6834,4.1272,5.3315,-2.5406,-7.4050,-2.7632,-1.2752,-17.9215,-10.4099,2.4040,-3.4333
617.1875,6.4522,6.9221,1.4669,8.3017,7.9922,3.5047,5.0817,10.7447,18.8091,4.5481,6.1238,-1.6030,-4.9424,0.2336,0.7310,-18.5900,-7.3811,2.4584,-1.0432
621.0938,2.3824,6.9887,1.8272,9.2084,11.0886,6.3391,0.0309,11.0544,17.5993,4.4663,6.1155,-1.3493,-2.2499,2.9233,3.9846,-13.4830,-4.0959,2.7574,2.2937
625.0000,-0.6583,5.5048,2.5602,9.4585,12.8769,10.2092,1.0447,9.9667,15.7169,3.1589,4.7008,-2.2990,0.0217,4.7804,6.6818,-5.1581,-1.2458,2.4826,5.3768
628.9062,-1.1503,2.4550,2.6166,8.4077,12.7971,12.1512,6.3553,7.8129,13.3761,1.1184,2.2851,-4.1249,1.4095,5.5704,7.3364,2.0889,0.7660,1.3289,6.8721
632.8125,0.5678,-1.2856,1.7318,6.2318,11.0888,10.4317,11.2364,5.4353,11.3013,-0.4056,-0.1034,-5.9200,1.8886,5.4960,5.7754,4.8480,1.9236,-0.2065,6.2356
636.7188,2.5623,-4.3462,0.7318,3.8166,8.6710,5.7285,11.8721,3.6390,10.2813,-0.5469,-1.6859,-6.9156,1.7726,4.9892,3.2005,2.5360,2.4478,-1.2755,4.0347
640.6250,2.7750,-5.5487,0.8019,2.0579,6.5654,0.5744,8.3076,2.6750,10.6357,0.3353,-2.5103,-7.0773,1.3620,4.3012,1.2784,-2.5915,2.5242,-1.4950,1.4792
644.5312,0.6275,-4.5633,2.3309,1.1626,5.2769,-2.4437,4.1786,2.1445,11.9638,0.8362,-3.2721,-7.0979,0.6316,3.2326,0.9388,-7.2030,2.1071,-1.4253,-0.4451
648.4375,-2.4706,-2.1923,4.3302,0.5200,4.5507,-2.3534,3.5574,1.3769,13.3510,-0.4140,-4.5986,-7.7921,-0.7815,1.2529,1.7714,-9.0666,0.9362,-2.2618,-1.5883
652.3438,-4.1448,-0.0689,4.9823,-0.7615,3.6406,-0.1428,7.5557,-0.0286,13.9004,-3.6335,-6.4626,-9.3838,-3.2645,-2.0544,2.4577,-8.1403,-1.2472,-4.9319,-2.5770
656.2500,-2.8904,0.1680,2.9655,-3.1059,1.8719,2.3421,13.4380,-1.9165,13.2491,-7.6350,-8.2331,-11.2710,-6.8234,-6.5639,1.8933,-6.0208,-4.4375,-9.2985,-4.1862
660.1562,0.6447,-2.1705,-1.4622,-6.1234,-0.8902,3.9744,16.8742,-3.7472,11.7488,-10.6476,-9.2837,-12.4768,-10.9013,-11.5508,0.1300,-4.4315,-8.2420,-14.1213,-6.6523
664.0625,3.9206,-6.3081,-6.4881,-8.9317,-4.1509,5.1247,15.3980,-5.0604,10.2196,-11.5776,-9.5889,-12.4344,-14.5828,-16.0717,-1.5992,-4.0117,-11.9935,-17.8543,-9.4403
667.9688,4.1785,-10.3370,-9.9062,-10.8559,-7.0901,7.0689,10.2268,-5.8412,9.4650,-10.7370,-9.7654,-11.4760,-17.0643,-19.4980,-1.8166,-4.2279,-15.0358,-19.6896,-11.6052
671.8750,0.3538,-12.3056,-10.5666,-11.9113,-9.0257,10.5681,5.0506,-6.4905,9.8712,-9.5037,-10.5165,-10.6173,-18.0745,-21.7916,0.0025,-4.2315,-17.0092,-20.0572,-12.4430
675.7812,-6.1251,-11.4228,-9.0421,-12.6714,-9.7448,14.8277,2.9438,-7.4295,11.3254,-9.2177,-11.9653,-10.7904,-17.9647,-23.3180,2.8885,-3.7704,-17.9639,-20.2008,-11.9429
679.6875,-12.2173,-8.5768,-7.0588,-13.6561,-9.5383,17.7405,4.0449,-8.6705,13.4422,-10.1911,-13.4676,-12.1249,-17.4254,-24.3748,4.9452,-3.3660,-18.2461,-21.1697,-10.7373
683.5938,-15.2006,-5.7622,-6.1779,-14.7809,-8.9786,17.3035,5.8934,-9.7201,15.8760,-11.5829,-14.0864,-13.8468,-17.0447,-24.8480,4.6476,-3.7161,-18.2484,-23.0156,-9.6367
687.5000,-14.3144,-4.7645,-6.7547,-15.3626,-8.6129,13.1608,5.9825,-9.9205,18.4662,-12.1840,-13.3587,-14.8797,-17.0151,-24.2989,1.9322,-4.9746,-18.1947,-24.8071,-9.1175
691.4062,-11.0281,-6.0040,-7.9140,-14.6952,-8.7454,7.0793,4.1972,-8.9777,21.1321,-11.4490,-11.7350,-14.6779,-17.1626,-22.4141,-1.7331,-6.6097,-18.0886,-25.4205,-9.1240
695.3125,-7.8513,-8.3558,-8.4432,-12.7223,-9.3850,1.9367,2.9517,-7.2618,23.6662,-9.9495,-10.3396,-13.6369,-17.2228,-19.4321,-4.3736,-7.9475,-17.8333,-24.4568,-9.2686
699.2188,-6.6105,-10.0534,-7.8042,-10.2267,-10.3290,-0.0996,4.8760,-5.6237,25.6698,-8.9100,-10.2324,-12.7661,-17.1215,-16.1586,-4.8925,-8.8355,-17.4098,-22.5543,-9.2217
703.1250,-7.4108,-9.9767,-6.4520,-8.3466,-11.3003,1.0929,10.0756,-4.8387,26.7541,-9.2183,-11.7249,-12.8908,-17.0421,-13.5146,-3.8040,-9.7380,-16.9715,-20.8709,-8.9718
707.0312,-8.9203,-8.3442,-5.2888,-7.7782,-12.0645,3.7007,15.4436,-5.0788,26.8803,-10.7006,-14.2266,-14.0133,-17.2491,-11.9512,-2.7721,-11.1049,-16.7784,-20.1773,-8.7753
710.9375,-9.6295,-6.3180,-4.8133,-8.2890,-12.4881,5.4445,16.8118,-5.8025,26.5490,-12.2240,-16.6705,-15.3169,-17.8239,-11.1871,-3.2934,-12.5809,-17.0119,-20.2947,-8.8677
714.8438,-9.0677,-4.9014,-4.7236,-8.9127,-12.5319,5.3357,12.3112,-6.1403,26.6160,-12.5381,-18.1492,-15.7738,-18.5216,-10.4755,-5.4968,-12.8695,-17.5954,-20.3004,-9.1754
718.7500,-8.0760,-4.0624,-4.2755,-8.6554,-12.1916,4.4281,4.1902,-5.4858,27.7944,-11.2031,-18.3027,-14.8461,-18.8458,-9.1841,-7.9599,-10.5638,-18.1453,-19.2869,-9.2443
722.6562,-7.9971,-2.8098,-3.0056,-7.1408,-11.4249,4.9891,-2.5089,-3.8573,30.1744,-8.9016,-17.2610,-12.7287,-18.2750,-7.2312,-8.6938,-5.4069,-18.1012,-17.0192,-8.4366
726.5625,-9.4661,-0.1337,-1.1212,-4.7066,-10.1188,8.6653,-3.5035,-1.7897,33.1291,-6.9123,-15.3049,-9.9939,-16.4863,-5.0507,-6.5854,1.0480,-16.9821,-13.9637,-6.2675
730.4688,-11.7639,4.0066,0.7983,-1.9428,-8.1449,14.9696,1.6703,0.1177,35.7151,-6.1521,-12.5795,-7.0051,-13.4647,-3.1587,-2.2419,6.0586,-14.6477,-10.7217,-2.6865
734.3750,-13.2468,8.5041,2.4782,0.8686,-5.4991,21.2346,9.4602,1.6133,37.2958,-6.5047,-9.0757,-3.6446,-9.4929,-1.7189,2.3812,7.3233,-11.4316,-7.4234,1.8367
738.2812,-12.5430,11.9068,4.3065,3.8976,-2.4496,24.1689,15.0714,2.8471,37.9220,-6.9231,-4.8447,0.3942,-5.0848,-0.4852,5.2937,4.5122,-8.0728,-3.6656,6.4450
742.1875,-9.6232,13.5306,6.9476,7.3721,0.4313,22.0100,16.0007,4.0630,38.1617,-6.2240,-0.2297,5.0177,-0.9025,0.8440,5.7611,-0.4277,-5.4512,0.9147,10.1753
746.0938,-5.9345,13.9390,10.4828,11.0272,2.4298,15.8030,13.5843,5.2372,38.4953,-3.9887,4.0738,9.4039,2.3656,2.1968,4.6403,-4.4726,-4.2279,5.9352,12.2765
750.0000,-3.4635,14.3747,13.8681,13.9524,3.0085,8.8815,11.4594,6.0078,38.7558,-0.9270,7.1759,12.3067,4.1997,3.0405,3.5480,-5.4183,-4.5445,10.1159,12.4517
753.9062,-3.3830,15.6232,15.3250,15.0664,2.1090,4.8377,12.3037,5.9761,38.1009,1.5566,8.2834,12.8385,4.4762,2.7605,3.5243,-3.1580,-5.9315,11.9482,10.9372
757.8125,-5.2470,17.2838,13.5275,13.8991,0.2377,5.3144,15.5200,5.1168,35.6167,2.2900,7.0059,11.1476,3.5932,1.2172,4.2148,0.5050,-7.4955,10.7675,8.3800
761.7188,-7.3184,18.0889,8.7149,11.0531,-1.7579,9.0949,17.6884,3.9142,31.1429,1.1194,3.5779,8.4369,2.3518,-0.9940,4.1830,3.2825,-8.3174,7.4092,5.5507
765.6250,-7.8044,17.0171,2.8000,7.9244,-3.1195,13.0948,15.3567,3.0550,25.6829,-0.9754,-1.0876,6.2531,1.5880,-2.8417,2.0953,3.9776,-7.8769,3.8708,3.0207
769.5312,-6.1170,14.2563,-1.7355,5.8388,-3.5600,14.5511,7.9148,2.8964,21.0111,-2.5045,-5.5981,5.5319,1.7350,-3.5271,-2.1447,3.1005,-6.2808,2.1306,0.9676
773.4375,-3.2563,11.1733,-3.4168,5.2365,-3.3564,12.8744,-1.6913,3.1554,18.6646,-2.4077,-8.5518,6.0769,2.5928,-3.0221,-7.1841,2.1979,-4.1709,2.9209,-0.7824
777.3438,-1.0403,9.2817,-2.6685,5.5120,-3.0957,9.8700,-8.9074,3.1165,18.9868,-0.6919,-9.1428,6.8217,3.4725,-2.0543,-11.0928,2.5259,-2.3639,5.3192,-2.5084
781.2500,-0.7489,9.0551,-1.3603,5.6057,-3.2452,8.2035,-10.6496,2.2370,20.8954,1.6329,-7.5964,6.6425,3.6324,-1.5466,-12.6501,4.0977,-1.4373,7.4358,-4.3193
785.1562,-2.1810,9.5845,-1.3658,4.8560,-3.8420,9.2549,-7.2349,0.6675,22.5645,3.2451,-5.1206,5.1026,2.7156,-1.9403,-12.0788,5.7445,-1.4987,7.6853,-6.0479
789.0625,-3.8373,9.3816,-3.2422,3.4376,-4.5040,11.9675,-1.8880,-0.7685,22.5640,3.3502,-3.3021,2.6110,0.8981,-2.9202,-10.7043,6.0128,-2.2532,5.7388,-7.3904
792.9688,-4.1132,7.6603,-6.0078,2.0716,-4.7374,13.5839,1.6120,-1.1768,20.6794,2.1122,-3.2446,-0.0357,-1.3203,-3.7334,-9.8570,4.1452,-3.2820,2.5357,-8.1764
796.8750,-2.6225,5.0183,-8.1022,1.3094,-4.3023,11.7641,1.3527,-0.3243,17.8750,0.4256,-4.9806,-2.2967,-3.4810,-3.8271,-9.9043,0.4577,-4.3126,-0.5404,-8.5379
800.7812,-0.6345,2.9346,-8.6729,1.0334,-3.3656,6.5128,-1.8076,1.1054,15.4843,-0.7646,-7.5501,-4.1889,-5.3792,-3.2869,-10.1564,-4.0129,-5.2923,-2.6242,-8.8123
804.6875,-0.2199,2.5088,-8.1164,0.6233,-2.3352,0.4235,-5.1596,2.0020,14.2599,-1.0902,-9.6871,-6.0546,-6.9721,-2.7347,-9.6610,-8.1687,-6.2416,-3.7483,-9.2206
808.5938,-2.6479,3.5200,-7.4639,-0.3525,-1.5108,-3.0405,-5.9594,1.7333,13.9809,-0.8947,-10.6146,-8.0536,-8.1091,-2.7837,-8.1741,-11.2878,-7.0419,-4.4433,-9.5650
812.5000,-7.1738,4.6309,-7.1942,-1.5303,-0.8234,-2.0225,-2.8805,0.7610,13.8598,-0.8151,-10.3692,-9.8465,-8.3836,-3.5000,-6.4634,-13.0409,-7.3604,-4.9940,-9.2113
816.4062,-11.1625,4.5893,-6.5507,-1.8048,0.1338,2.3370,3.5595,0.4286,13.3707,-1.1634,-9.4601,-10.7471,-7.3099,-4.3035,-5.6659,-13.3047,-6.8045,-5.0250,-7.4356
820.3125,-11.6006,3.4096,-4.0278,-0.0913,1.7990,6.7028,11.4525,1.9992,12.8026,-1.6076,-8.2114,-10.2178,-4.7408,-4.3880,-6.2289,-12.1007,-5.2083,-3.7739,-3.9451
824.2188,-7.0760,2.4891,1.2929,3.7553,4.2767,8.0266,18.3175,5.6243,13.0736,-1.4164,-6.4034,-8.3061,-1.1907,-3.3348,-7.3505,-9.7383,-2.8403,-0.8224,0.7747
828.1250,1.0776,3.4835,8.6217,8.5916,7.1714,5.8809,21.9404,10.0285,14.9294,-0.0930,-3.5673,-5.6808,2.2520,-1.4572,-7.4613,-6.9314,-0.3674,3.3235,5.5494
832.0312,9.2881,6.8177,15.5193,12.5328,9.7360,2.8415,21.1625,13.2012,18.1560,2.0944,0.2986,-3.2539,4.4478,0.3707,-5.4457,-4.6124,1.4258,7.3017,9.0291
835.9375,13.6683,11.0751,19.2196,14.0600,11.2361,2.5224,16.5018,13.6475,21.4558,4.1231,4.2523,-1.6784,4.8427,1.2596,-1.6532,-3.4527,1.9956,9.6037,10.3407
839.8438,12.2084,13.8473,18.3273,12.9241,11.3031,6.6619,10.2324,11.3298,23.1617,4.8078,6.7034,-1.0683,3.7782,0.8303,2.1469,-3.4410,1.2722,9.4417,9.5033
843.7500,5.9068,13.4657,13.7068,10.2320,10.0798,13.4692,5.5286,7.6521,22.3334,3.5745,6.4003,-1.0764,2.2447,-0.6236,3.9199,-3.9093,-0.3435,7.1825,7.3815
847.6562,-1.8344,10.2977,7.9566,7.6834,8.1122,18.6067,4.8073,4.5270,19.4700,0.8573,3.4046,-1.1986,1.2457,-2.3947,2.8034,-4.0546,-2.1847,4.0802,5.2274
851.5625,-7.1648,6.5842,3.8664,6.5081,6.0830,18.2441,8.1711,3.2040,16.3074,-2.1739,-0.7432,-1.0614,1.2056,-3.8214,-0.2612,-3.5693,-3.5974,1.5204,4.0786
855.4688,-7.9137,4.8949,2.9107,6.8038,4.5339,12.0090,13.1376,3.6522,14.7957,-4.3686,-3.9043,-0.5459,1.8064,-4.6416,-3.2050,-2.8534,-4.1745,0.2742,4.3186
859.3750,-4.6551,6.3295,4.6960,7.6330,3.6817,3.6102,16.1547,4.8283,15.9143,-5.2938,-4.7013,0.2241,2.3044,-5.0670,-4.3197,-2.6175,-3.8868,0.1838,5.5737
863.2812,-0.1452,9.7758,7.5363,7.7027,3.3619,-1.4633,15.0834,5.5122,19.0997,-5.3948,-3.3805,0.9325,2.0423,-5.6058,-3.4355,-3.2120,-3.0968,0.3829,6.9372
867.1875,2.4643,12.7324,9.5848,6.1186,3.1003,0.3728,10.8947,5.0515,22.6493,-5.5390,-1.5381,1.1252,0.7787,-6.7795,-1.9037,-4.2837,-2.4485,-0.1635,7.3813
871.0938,1.5498,13.0537,9.7388,2.7773,2.3025,8.3318,7.1606,3.5478,24.8194,-6.3145,-0.9134,0.3284,-1.3421,-8.8752,-1.4272,-5.0956,-2.6315,-2.1219,6.1828
875.0000,-2.0497,10.3510,7.8947,-1.7113,0.5301,17.7842,7.4734,1.5172,24.8966,-7.6048,-2.1510,-1.7231,-4.0478,-11.8010,-2.6761,-5.2535,-4.0713,-5.4927,3.2198
878.9062,-5.6115,6.1183,4.6728,-6.3765,-2.2293,23.4096,12.5762,-0.5640,23.5714,-8.7223,-4.4410,-4.8393,-7.1412,-15.0732,-4.7744,-5.1752,-6.6821,-9.6207,-0.9556
882.8125,-6.2603,2.6215,1.0074,-10.2626,-5.4536,22.7177,19.4025,-2.4479,22.4222,-8.9448,-6.2541,-8.3124,-10.4777,-17.9553,-6.0428,-5.8076,-9.8489,-13.4631,-5.3056
886.7188,-2.8206,1.4330,-2.1411,-12.6958,-8.2577,17.4550,22.9363,-4.0031,22.8947,-8.0233,-6.5469,-11.1795,-13.7942,-19.7386,-5.3748,-7.7403,-12.7108,-16.0045,-8.7017
890.6250,3.3302,2.6164,-3.9751,-13.4475,-9.8158,11.9922,19.6935,-5.0641,25.4484,-6.2967,-5.4874,-12.7137,-16.6210,-20.0683,-3.1268,-10.4456,-14.6161,-16.6734,-10.3764
894.5312,8.9643,4.9742,-4.0884,-12.7958,-9.8150,9.9995,10.3184,-5.4892,29.3868,-4.3882,-4.1761,-12.8210,-18.4250,-19.1313,-0.8035,-12.3693,-15.4637,-15.5819,-10.2139
898.4375,10.8949,6.9981,-2.7076,-11.4233,-8.6416,11.9013,-0.6537,-5.3760,33.4072,-2.7783,-3.6588,-12.0233,-18.9004,-17.5420,0.1993,-11.9390,-15.6753,-13.4434,-8.7195
902.3438,7.9300,7.7803,-0.7103,-10.0911,-7.1358,14.9165,-7.7431,-5.1407,36.4542,-1.5997,-4.0715,-10.9976,-18.1580,-15.9372,-0.2416,-8.7740,-15.7877,-11.1632,-6.6749
906.2500,1.6455,7.3514,0.7746,-9.1917,-6.0431,15.4922,-8.0510,-5.2431,38.2996,-0.7645,-4.6027,-10.0010,-16.6308,-14.5228,-0.8739,-4.1239,-15.9540,-9.3122,-4.6863
910.1562,-4.5896,6.4155,1.0555,-8.4623,-5.5335,12.1693,-2.8327,-5.7071,39.5037,-0.2418,-4.2565,-8.6435,-14.7596,-12.9145,-0.1393,-0.1081,-15.7528,-7.8218,-2.9120
914.0625,-7.7922,5.8287,0.3829,-7.1363,-5.1502,6.6872,3.8841,-5.8817,40.8410,-0.1936,-2.7442,-6.2313,-12.7263,-10.4466,2.4345,1.7260,-14.5061,-6.1382,-1.1430
917.9688,-7.3474,6.1715,-0.1887,-4.5398,-4.2596,2.5667,8.3983,-4.7997,42.6188,-0.8347,-0.7531,-2.4459,-10.4733,-6.7857,5.6633,1.4274,-11.9105,-3.7636,0.8385
921.8750,-5.4131,7.5457,0.4055,-0.7580,-2.6853,2.3506,9.7105,-1.9953,44.3619,-2.1479,0.6117,2.1749,-7.9936,-2.4047,7.4676,0.4420,-8.4983,-0.8011,2.9048
925.7812,-5.3603,9.5394,2.3303,3.1540,-1.0336,5.6496,9.4711,1.8373,45.0692,-3.7307,0.7199,6.3765,-5.6157,1.4807,6.4221,0.3412,-5.5110,1.9365,4.5161
929.6875,-9.2279,11.3126,4.5509,5.6868,-0.4010,9.4449,9.8327,4.9872,43.8593,-4.9407,-0.1149,8.9013,-3.9805,3.5525,2.8988,1.5060,-4.1861,3.3951,5.0161
933.5938,-15.9694,11.8514,5.4657,5.8470,-1.6122,10.3404,11.1923,5.7531,40.5718,-5.2585,-0.9753,9.2660,-3.6585,3.2024,-1.1019,2.8483,-4.9260,3.0210,4.0859
937.5000,-21.8507,10.4212,4.0696,3.9068,-4.5185,7.0121,11.7733,3.6949,35.9297,-4.6010,-1.1846,8.0184,-4.6842,0.9448,-3.3328,2.8148,-6.9648,1.2184,2.0241
941.4062,-22.9005,7.0629,0.7803,1.3301,-7.9013,1.0549,9.3504,0.1433,31.1656,-3.3549,-0.9265,6.2768,-6.4069,-1.8866,-2.8582,0.8588,-8.8344,-0.8616,-0.3619
945.3125,-17.7926,2.7986,-2.7460,-0.1550,-10.1244,-4.2879,3.5651,-2.5479,27.3603,-2.1129,-1.1077,4.9072,-7.8418,-3.9646,-0.6216,-1.8645,-9.3482,-2.0855,-2.1931
949.2188,-9.0879,-0.7285,-4.7311,0.2785,-10.1402,-6.4386,-3.2449,-2.5861,24.9176,-1.3113,-2.5648,3.9719,-8.3144,-4.7444,1.3731,-3.2270,-8.4211,-2.1006,-2.9993
953.1250,-1.8013,-2.1012,-4.5198,1.9955,-8.1704,-5.1052,-7.5377,-0.0420,23.4878,-1.0095,-5.2752,2.8568,-7.9298,-4.6570,1.5955,-1.7777,-7.1278,-1.5147,-2.9426
957.0312,-0.1466,-0.9840,-3.0299,3.3686,-5.5846,-2.1416,-7.2537,3.1343,22.3457,-0.9248,-8.2340,0.9400,-7.5034,-4.6316,0.0438,1.9768,-6.9422,-1.3522,-2.6777
960.9375,-4.6934,1.5977,-2.0725,2.9509,-4.0425,0.0274,-3.5073,4.4682,20.9341,-0.6528,-10.1228,-1.7646,-7.9776,-5.3486,-1.9552,5.7228,-8.6909,-2.2134,-2.9824
964.8438,-11.9804,3.8111,-3.0635,0.4936,-4.4741,0.0962,0.1687,2.7364,19.1981,0.0857,-10.2541,-4.5121,-9.7419,-6.7925,-2.9647,6.8885,-11.9585,-3.8041,-4.3942
968.7500,-16.9309,4.0888,-6.0811,-2.9274,-6.5661,-1.5344,0.5265,-1.1399,17.5090,1.2926,-9.0519,-6.3438,-12.3411,-8.3929,-2.6443,4.4622,-15.3424,-5.2118,-7.0182
972.6562,-16.3896,2.0317,-9.9276,-5.7329,-9.0557,-3.4948,-2.8418,-4.7523,16.2776,2.6649,-7.7021,-6.7791,-14.7665,-9.5562,-1.9634,-0.2794,-17.3421,-5.6917,-10.5140
976.5625,-11.2590,-1.4397,-13.0574,-6.9507,-10.5727,-4.7104,-7.1302,-5.9258,15.5666,3.6772,-7.2568,-6.1164,-16.0955,-10.1003,-2.2750,-4.6705,-17.2318,-5.3058,-14.1839
980.4688,-5.7070,-4.7472,-14.6045,-6.7696,-10.4334,-5.1329,-8.4781,-4.2215,14.9934,3.7636,-7.8924,-5.1211,-16.0147,-10.2387,-4.0398,-6.4899,-15.3382,-4.8685,-17.1226
984.3750,-4.0519,-6.6395,-14.7420,-6.1646,-8.8920,-5.4782,-5.0248,-1.1217,13.9887,2.5851,-8.8745,-4.3970,-14.8950,-10.1855,-6.2819,-5.3683,-12.6266,-5.2245,-18.4576
988.2812,-7.6215,-6.8386,-14.2090,-5.9709,-6.7860,-6.3738,1.4973,1.1832,12.2110,0.2952,-9.2124,-3.9873,-13.4435,-9.8025,-7.2572,-2.7898,-10.0056,-6.4579,-17.6964
992.1875,-13.8698,-5.9837,-13.5162,-6.1967,-4.9269,-7.7217,6.8918,1.4383,9.8126,-2.3656,-8.4613,-3.5345,-12.2555,-8.6690,-5.8287,-0.8181,-7.8952,-7.7179,-15.0674
996.0938,-18.3234,-5.0260,-12.5368,-6.1274,-3.6925,-8.7721,7.5369,0.1464,7.3646,-4.3057,-7.0478,-2.8266,-11.5923,-6.5618,-2.4501,-0.6106,-6.3075,-7.8611,-11.6130
1000.0000,-17.8351,-4.5655,-10.7919,-5.0853,-3.0335,-8.7341,3.0806,-0.9938,5.4977,-4.6209,-5.9020,-2.2108,-11.4623,-3.9213,1.0567,-1.8344,-5.2276,-6.4264,-8.8396
1003.9062,-12.7114,-4.5728,-8.1050,-3.1560,-2.7588,-7.3419,-3.1992,-0.5111,4.5084,-3.1601,-5.7261,-2.4575,-11.8195,-1.8283,2.8032,-3.2886,-4.8636,-4.1465,-7.9913
1007.8125,-6.2268,-4.5954,-4.9959,-1.2304,-2.7846,-4.9422,-6.6222,1.7029,4.1911,-0.7228,-6.4818,-4.1347,-12.6377,-1.3843,2.2306,-4.0628,-5.5049,-2.5265,-9.3249
1011.7188,-2.0556,-4.2109,-2.4351,-0.2991,-3.1445,-2.1618,-4.2976,4.3969,3.9926,1.3326,-7.4679,-6.9938,-13.7949,-2.9066,0.5314,-4.2227,-7.1275,-2.7531,-11.8748
1015.6250,-1.6727,-3.3850,-1.1543,-0.5889,-3.8157,0.4409,2.9815,6.0095,3.3726,1.8976,-7.8746,-9.9067,-14.9253,-5.5619,-0.2379,-4.5141,-9.1420,-4.7520,-13.9417
1019.5312,-3.6516,-2.5293,-1.0944,-1.2886,-4.5823,2.4434,11.3978,5.8690,2.1403,0.8305,-7.3491,-11.4750,-15.4521,-7.7868,1.3194,-5.4613,-10.5741,-7.1349,-14.0632
1023.4375,-5.2027,-2.2691,-1.4519,-1.1388,-5.0936,3.4308,16.7358,4.5983,0.5837,-0.9300,-6.1414,-10.9000,-14.8457,-8.2528,4.9262,-6.7198,-10.5932,-8.1138,-11.8556
1027.3438,-4.5471,-3.0731,-1.2746,0.5594,-5.0674,3.0057,17.0726,3.4877,-0.6568,-1.9721,-4.7691,-8.4811,-12.9308,-6.6982,8.8760,-7.2734,-8.9969,-6.7247,-8.1623
1031.2500,-2.1903,-4.9205,-0.1153,3.3314,-4.4430,1.1051,13.7252,3.4311,-0.8801,-1.3492,-3.5264,-5.3877,-9.9929,-4.0224,11.3140,-6.2893,-6.2780,-3.4645,-4.4090
1035.1562,-0.1977,-7.1557,1.7546,5.8312,-3.3373,-1.6195,9.9773,4.3130,0.3554,0.7949,-2.2615,-2.8926,-6.5912,-1.5745,11.5605,-3.8773,-3.2397,0.0982,-1.6304
1039.0625,-0.2492,-8.6490,3.6695,6.8460,-1.8578,-3.8308,8.6446,5.2804,3.0097,3.3400,-0.5975,-1.6358,-3.2341,-0.1733,10.4802,-1.0925,-0.4844,2.4077,0.1286
1042.9688,-2.1908,-8.2879,5.0794,6.2166,0.0254,-4.1629,10.2194,5.5666,6.5129,4.9340,1.6021,-1.4175,-0.1813,0.4133,9.6640,0.8122,1.8253,2.8717,1.6216
1046.8750,-4.2635,-5.6470,5.8004,4.9326,2.3936,-2.1644,12.7792,5.1109,9.9286,4.8189,3.9302,-1.5805,2.4879,1.1525,10.1052,1.2505,3.7952,2.0092,3.6046
1050.7812,-4.7122,-1.4690,5.8653,4.3131,5.1309,1.1902,13.5584,4.4668,12.3030,3.1704,5.5740,-1.5980,4.6533,2.8580,11.4224,0.5844,5.4458,0.7887,6.0825
1054.6875,-3.3209,2.4471,5.2355,4.9022,7.7491,3.9342,10.9892,4.1494,13.0844,0.7881,5.8289,-1.3907,6.0341,5.4143,12.2300,-0.3414,6.5424,-0.2372,8.2008
1058.5938,-1.5498,4.0849,3.7466,5.9463,9.4918,4.3048,5.8141,4.0581,12.4163,-1.5327,4.6210,-1.1888,6.3204,7.7040,11.3468,-0.9337,6.7724,-1.2957,8.8693
1062.5000,-1.2028,2.4061,1.3850,5.8678,9.6992,1.8892,0.5890,3.5064,11.1055,-3.4346,2.6461,-1.1581,5.4456,8.2891,8.8805,-1.1928,6.0826,-3.0252,7.6136
1066.4062,-2.8274,-1.8477,-1.3955,3.3867,8.1793,-2.1163,-2.0096,1.8220,10.2176,-4.9622,0.9931,-1.1779,3.7190,6.3435,6.3120,-1.4156,4.8117,-5.7621,4.9645
1070.3125,-5.2515,-6.3996,-3.7236,-1.5441,5.2951,-5.7296,-0.9175,-1.0288,10.4890,-6.2155,0.4841,-0.9762,1.6348,2.1751,5.4744,-1.6347,3.4341,-9.1280,2.0643
1074.2188,-6.6410,-8.7403,-4.8216,-7.6608,1.6998,-7.4653,2.6700,-4.3474,11.9097,-7.0928,1.1650,-0.4732,-0.5273,-2.9992,7.1705,-1.4179,2.1084,-12.2607,-0.1986
1078.1250,-6.1185,-7.7180,-4.6095,-13.1748,-2.0624,-7.1322,6.1351,-7.2046,13.7813,-7.3726,2.2924,0.0183,-2.9546,-7.8113,10.4668,-0.3036,0.4588,-14.4584,-1.8212
1082.0312,-4.5008,-4.3180,-3.8466,-16.8008,-5.7547,-5.6277,7.2075,-9.0673,15.2526,-7.0189,2.8331,-0.0426,-6.1235,-11.4714,13.2220,1.5002,-2.1359,-15.6529,-3.5570
1085.9375,-3.4981,-0.9979,-3.5770,-18.2871,-9.2903,-4.0242,5.5277,-9.9913,15.9923,-6.3491,2.1547,-0.9980,-10.2550,-13.9935,13.5059,2.8611,-5.9064,-16.2929,-6.1121
1089.8438,-4.0923,0.0484,-4.2375,-18.1604,-12.3848,-2.7651,2.9801,-10.2384,16.5111,-5.8334,0.4566,-2.6544,-14.8292,-15.8474,10.9182,2.3128,-10.2286,-16.7520,-9.3171
1093.7500,-5.5640,-1.5023,-5.1549,-17.0185,-14.3774,-1.5938,2.5318,-9.7351,17.8621,-5.6684,-1.3447,-4.3281,-18.6208,-17.3802,6.8768,-0.8334,-13.7895,-16.8101,-11.9819
1097.6562,-6.0938,-3.8168,-4.9277,-15.0131,-14.4638,-0.1429,6.2623,-7.9541,20.8865,-5.5346,-2.2032,-5.2637,-20.3536,-18.4564,3.6755,-5.7126,-15.3677,-15.7160,-12.6255
1101.5625,-4.4727,-4.2159,-2.5068,-11.9244,-12.2346,1.4707,13.8196,-4.4190,25.5302,-4.8319,-1.6218,-5.1187,-19.5690,-18.5465,2.9703,-10.1669,-14.6950,-12.8502,-10.5775
1105.4688,-1.4268,-1.1803,1.8231,-7.6932,-8.1175,2.6431,22.3282,0.5763,30.7375,-3.2593,0.0253,-4.1623,-17.0640,-17.1430,4.7335,-11.9803,-12.7295,-8.4699,-6.6219
1109.3750,0.6816,4.4028,6.3641,-2.8874,-3.3428,2.8622,27.8829,5.7170,35.0241,-1.2440,1.7384,-3.0700,-14.5133,-14.1749,7.3679,-10.2533,-11.0761,-3.8938,-2.6594
1113.2812,-0.3454,9.6948,8.9856,1.3551,0.6149,2.2691,27.7445,9.2415,37.3293,0.2164,2.5362,-2.4901,-13.4682,-10.1445,8.8553,-5.9299,-10.9273,-0.8849,-0.5752
1117.1875,-4.6901,11.7702,8.5087,3.9148,2.7642,1.5961,21.8803,10.0053,37.5410,0.2605,2.0616,-2.6948,-14.4031,-5.9350,8.1152,-1.0993,-12.2851,-0.6058,-1.0885
1121.0938,-10.1960,9.5725,5.4952,4.3806,3.0041,1.4764,12.9007,8.2427,36.3416,-1.1194,0.7427,-3.5028,-16.4666,-2.4456,5.6488,2.3984,-14.0265,-2.8668,-3.3698
1125.0000,-13.9234,4.5849,1.8631,3.3180,1.9557,1.7713,4.4906,5.4079,34.5526,-2.9650,-0.5782,-4.4339,-18.0933,-0.2642,3.0765,4.0429,-14.7497,-6.1933,-5.6575
1128.9062,-14.3544,-0.2057,-0.3835,1.9167,0.3918,1.6315,-0.6076,3.1807,32.5393,-4.0029,-1.2547,-4.9226,-18.0229,0.4886,1.9624,4.6590,-13.7574,-8.6599,-6.4042
1132.8125,-12.4295,-2.2504,-0.3905,1.2683,-1.2838,0.3661,-1.7775,2.3723,30.1572,-3.5795,-1.2271,-4.4682,-16.0112,0.1303,2.7812,5.4960,-11.4570,-8.9250,-5.1549
1136.7188,-10.5425,-0.9000,1.1949,1.7687,-3.1389,-1.6136,-0.2713,2.5403,27.2386,-2.1259,-0.9154,-2.7449,-12.7929,-0.7460,4.7317,7.1528,-8.9335,-6.8213,-2.6223
1140.6250,-10.3435,2.5372,2.9020,3.0016,-5.3926,-2.7259,2.0611,2.5450,24.1354,-0.7550,-0.7365,0.2552,-9.4340,-1.5069,6.4612,9.1749,-7.0881,-3.2309,-0.0308
1144.5312,-11.2474,5.9793,3.5295,4.1026,-8.0038,-1.3128,3.9959,1.5401,21.7574,-0.3115,-0.6726,4.0648,-6.6263,-1.7222,7.1082,10.5470,-6.0380,0.5303,1.7089
1148.4375,-10.9945,7.9805,2.8176,4.3016,-10.5404,2.8555,5.2742,-0.4093,20.9733,-0.6721,-0.2876,7.7348,-4.4378,-1.3282,6.8724,10.5854,-5.2104,3.3439,2.4144
1152.3438,-7.8662,8.3573,1.2988,3.3053,-12.4298,7.9389,6.0526,-2.5180,21.8279,-0.9116,0.7855,10.1342,-2.5953,-0.6248,6.7016,9.4757,-3.9817,4.6057,2.4531
1156.2500,-2.6674,7.7827,-0.3728,1.3688,-13.3530,10.9777,6.1983,-4.0165,23.2655,-0.2150,2.2840,10.5062,-0.9466,-0.0791,7.3631,8.0600,-2.2885,4.2263,2.2515
1160.1562,1.3581,6.9341,-1.9525,-0.8757,-13.4315,9.9046,5.1883,-4.7403,23.7113,1.2507,3.2042,8.9637,0.3406,-0.0293,8.6403,7.1205,-0.7071,2.5277,1.9419
1164.0625,0.8638,6.0172,-3.5658,-2.6782,-13.0543,5.1304,2.7103,-5.0756,22.1691,2.3170,2.3567,6.5336,0.9834,-0.4739,9.3102,6.7869,0.0239,0.1852,1.3841
1167.9688,-4.7576,4.9943,-5.2512,-3.4195,-12.5175,-0.6024,-0.6770,-5.3847,19.0186,1.7630,-0.7342,4.6117,0.9365,-1.0988,7.9802,6.5343,-0.4007,-1.8480,0.4388
1171.8750,-12.3790,4.1251,-6.6276,-2.8249,-11.8076,-4.1166,-3.5920,-5.5115,15.8468,-0.5006,-5.2513,4.1119,0.5068,-1.5340,4.2026,5.7177,-1.6503,-2.6002,-0.8228
1175.7812,-17.0265,4.1379,-7.0898,-1.1165,-10.7174,-4.0739,-4.7311,-4.8751,14.3607,-3.0407,-9.3455,4.8766,0.0832,-1.6507,-0.9645,4.1610,-3.0937,-1.5434,-2.1713
1179.6875,-15.4245,5.7205,-6.4041,0.9857,-9.1705,-1.8802,-3.9294,-3.0905,15.1507,-3.7635,-11.1782,5.7828,-0.2825,-1.6640,-5.4222,2.3127,-4.3440,0.9856,-3.4548
1183.5938,-8.5474,8.7149,-5.1505,2.5016,-7.4304,-0.4950,-2.4167,-0.5263,17.2296,-1.4818,-10.0979,5.5003,-1.0320,-1.9487,-7.2732,0.8659,-5.5191,3.7646,-4.7622
1187.5000,-1.1410,11.7687,-4.5299,2.6296,-5.9730,-2.0577,-1.9065,1.7788,18.7022,3.0005,-7.1439,3.3764,-2.7986,-2.7091,-6.0184,0.1663,-6.9940,5.2151,-6.3473
1191.4062,1.5777,12.8935,-5.5901,1.1685,-5.1128,-6.1936,-3.1752,2.8569,18.0549,7.1900,-4.4965,-0.1952,-5.8592,-3.7756,-2.8850,-0.1342,-8.8858,4.2274,-8.3893
1195.3125,-2.3412,10.6512,-8.4509,-1.3625,-4.7245,-10.3447,-5.3290,2.5989,15.0890,8.4675,-4.2069,-4.1789,-9.8061,-4.7143,-0.0453,-0.9347,-10.7622,0.7512,-10.8326
1199.2188,-10.1814,5.1301,-12.1667,-4.0316,-4.3397,-11.8606,-6.4807,1.8695,10.8168,5.8154,-7.0281,-7.7510,-13.7519,-5.1754,0.7488,-3.1661,-11.8744,-4.2622,-13.4655
1203.1250,-16.5654,-2.0207,-15.3690,-6.0580,-3.5797,-10.1727,-5.3902,1.7668,6.4826,0.4530,-12.0808,-10.9258,-16.9341,-5.1963,-0.8048,-7.2200,-11.7498,-9.5235,-16.1529
1207.0312,-17.3817,-8.5467,-17.1977,-7.2473,-2.5597,-7.2981,-2.7148,2.6023,2.5636,-5.0610,-17.4921,-14.4489,-19.2301,-5.1862,-3.5340,-12.6246,-10.6424,-14.1802,-18.9595
1210.9375,-12.7259,-12.8603,-17.7886,-7.9826,-1.8857,-6.2532,-0.7159,3.4867,-1.4046,-8.5603,-21.5031,-19.0264,-21.1331,-5.5709,-5.7294,-18.0951,-9.4242,-18.1300,-21.9836
1214.8438,-6.7059,-14.7606,-17.9484,-8.7819,-2.1840,-8.6317,-1.4902,2.9596,-6.0583,-9.5454,-23.2932,-24.4918,-23.1805,-6.3721,-6.3326,-21.9305,-8.9535,-21.6721,-25.0060
1218.7500,-4.3161,-15.1905,-18.3200,-9.7724,-3.5158,-13.2766,-5.0844,0.2364,-11.1910,-9.1259,-23.0757,-29.5855,-25.2966,-7.0788,-5.5374,-22.6433,-9.3993,-24.8396,-27.2913
1222.6562,-7.7391,-15.3319,-18.7562,-10.5103,-5.1713,-17.1053,-9.0998,-3.9273,-15.4375,-8.8127,-21.5808,-32.5745,-26.6181,-6.9649,-4.4345,-19.6393,-10.0620,-27.0173,-27.8226
1226.5625,-14.7854,-15.7541,-18.4286,-10.3053,-6.0695,-17.4405,-10.2895,-7.5199,-17.0275,-9.2056,-19.4306,-32.2998,-26.0009,-5.6455,-4.0444,-13.6657,-9.8492,-27.2195,-25.9073
1230.4688,-20.5311,-16.1681,-16.5657,-8.8007,-5.5097,-14.0239,-7.0315,-8.5841,-15.0701,-9.6106,-16.8633,-28.9030,-22.8489,-3.4462,-4.5036,-6.7203,-8.0528,-24.8399,-21.7344
1234.3750,-20.8468,-15.8116,-13.1793,-6.3352,-3.7081,-9.1687,-0.7332,-6.5941,-10.3281,-8.8056,-13.8848,-23.7082,-17.6175,-1.2638,-5.0002,-1.2779,-4.8390,-20.2666,-16.4126
1238.2812,-15.2101,-14.0569,-9.1528,-3.7707,-1.6898,-5.9910,5.0437,-2.8444,-4.7990,-6.2307,-10.5705,-18.3479,-11.5780,0.0279,-4.4534,0.9114,-1.1000,-14.8152,-11.3645
1242.1875,-6.8500,-10.8011,-5.6123,-1.8947,-0.5890,-6.1362,7.1796,0.4607,-0.3700,-2.5877,-7.1944,-13.7713,-6.0042,0.2145,-2.3701,-0.1905,2.1855,-9.9663,-7.4525
1246.0938,-0.2953,-6.4884,-3.1156,-0.8598,-0.8689,-8.7374,5.3410,1.7267,2.4195,0.6232,-4.0982,-9.8358,-1.4075,-0.0578,0.7858,-2.8176,4.5659,-6.4575,-4.4669
1250.0000,1.7593,-1.9125,-1.3450,-0.1144,-2.0409,-11.2949,2.2102,0.9553,4.5279,2.2018,-1.4891,-5.7379,2.5904,0.3016,3.9548,-4.4210,6.2481,-3.9353,-1.3891
1253.9062,0.0174,2.0088,0.4490,1.0971,-3.0762,-11.6545,1.3622,-0.5054,7.3591,2.0527,0.6003,-0.9164,6.6628,2.0540,6.2382,-3.2674,7.7032,-1.4559,2.7251
1257.8125,-2.3821,4.4500,2.6512,3.0401,-3.1754,-9.4931,4.4135,-1.1662,11.3715,1.0649,2.1556,4.2724,10.9523,5.0229,7.4339,0.4068,9.1172,1.5410,7.8767
1261.7188,-2.4463,4.9511,4.8348,5.1414,-2.3088,-6.2453,9.6772,-0.5643,15.5031,0.2310,3.0233,8.6162,14.6918,8.0703,7.9590,4.5144,10.1479,4.5539,12.9221
1265.6250,0.4429,3.7193,6.0601,6.2771,-1.1445,-3.7192,13.3941,0.5023,17.9152,-0.2050,2.9673,10.7996,16.5928,9.6772,8.2981,6.4963,10.1618,6.2050,16.2164
1269.5312,4.2020,1.7269,5.6671,5.5014,-0.4776,-2.6384,12.5875,0.7679,17.4817,-0.8505,1.9374,10.2985,15.7142,8.7594,8.4984,5.0452,8.7237,5.2020,16.6544
1273.4375,5.7021,0.3560,3.8797,2.6959,-0.6443,-2.2686,7.3177,-0.4098,14.8243,-2.4679,0.3019,7.7759,12.1496,5.2197,8.1696,0.9729,5.9280,1.3795,14.3681
1277.3438,3.1020,0.6389,1.6992,-1.3184,-1.3702,-1.2866,0.6140,-2.5619,12.0358,-5.1135,-1.2269,4.7032,7.0166,-0.0480,6.9822,-3.3846,2.3340,-3.9652,10.5952
1281.2500,-2.8004,2.5472,0.1771,-5.2563,-2.1134,0.9637,-3.7854,-4.5601,11.2771,-7.8736,-1.9905,2.4724,1.7725,-5.6306,5.2054,-5.7689,-1.3913,-8.7282,6.8464
1285.1562,-9.0515,4.9148,-0.3124,-8.0658,-2.5556,3.9025,-4.0491,-5.5397,13.3273,-9.4426,-1.8201,1.5982,-2.6204,-10.2158,3.7548,-5.4279,-4.7989,-11.2123,3.9926
1289.0625,-12.4209,6.1939,-0.1908,-9.3719,-2.8121,6.2211,-1.2053,-5.4802,17.1895,-9.0785,-1.1457,1.5118,-6.0845,-13.0309,3.6131,-3.3635,-7.7152,-11.0774,1.9109
1292.9688,-11.3732,5.5824,-0.1258,-9.4341,-3.2119,6.9340,2.1508,-4.9943,20.9934,-7.1680,-0.6700,1.0310,-9.1609,-13.9614,5.0268,-1.3290,-10.0725,-9.4109,-0.1292
1296.8750,-6.8952,3.6593,-0.3519,-8.7699,-3.8872,6.0650,4.1414,-4.6029,23.4075,-4.9651,-0.8702,-0.8505,-12.3828,-13.4180,7.1235,-0.4605,-11.7596,-7.9420,-2.7141
1300.7812,-1.7735,1.9464,-0.5090,-7.7981,-4.5720,4.4788,4.9122,-4.2098,24.4170,-3.7392,-1.7460,-4.3701,-15.8113,-12.0969,8.3236,-0.6456,-12.6833,-7.9871,-5.7724
1304.6875,1.1072,1.6482,-0.1582,-6.7445,-4.8016,3.1321,5.9557,-3.2645,24.9205,-4.0030,-3.0115,-8.9225,-19.0470,-10.7285,7.3268,-1.0504,-12.9731,-9.8185,-8.6506
1308.5938,0.3651,2.5537,0.5326,-5.7645,-4.3350,2.4413,8.2185,-1.4435,25.6232,-5.3641,-4.5128,-13.4569,-21.5988,-9.8396,3.9998,-1.2228,-13.0675,-12.7559,-10.6320
1312.5000,-3.2818,3.0765,0.6633,-5.0429,-3.4144,2.2242,10.8112,0.8188,26.2822,-7.0007,-6.4191,-17.0104,-23.2186,-9.5554,-0.4713,-1.7028,-13.4812,-15.7427,-11.4235
1316.4062,-7.6609,1.5442,-0.6986,-4.7080,-2.6185,2.0859,11.5674,2.4924,26.0008,-8.2822,-8.9309,-19.0269,-23.9039,-9.5197,-4.2864,-3.5220,-14.3559,-17.9054,-11.2200
1320.3125,-10.5551,-2.2118,-3.5117,-4.6380,-2.4302,1.7601,9.0085,2.7202,24.2960,-9.0350,-11.7299,-19.3386,-23.6278,-9.0355,-6.1080,-6.9786,-15.1562,-18.7587,-10.3605
1324.2188,-11.0186,-6.3079,-6.3836,-4.4152,-2.8998,1.1021,3.9476,1.5260,21.9171,-9.3491,-13.7338,-17.9506,-22.1326,-7.4275,-5.7790,-10.7940,-14.8459,-18.1049,-8.9499
1328.1250,-9.8523,-7.9293,-7.3594,-3.5846,-3.7050,-0.1003,-0.8111,-0.1906,20.5540,-9.2454,-13.5642,-14.8951,-19.0689,-4.4677,-4.2307,-12.5440,-12.5343,-15.9261,-6.8266
1332.0312,-9.0019,-5.4324,-5.4500,-2.0831,-4.5527,-2.0935,-2.6005,-1.4191,21.5324,-8.5936,-10.5459,-10.3056,-14.4257,-0.6060,-2.7225,-10.2448,-8.1824,-12.4708,-3.9192
1335.9375,-10.2543,0.1659,-1.7246,-0.4737,-5.5436,-4.7718,-1.1176,-1.9186,24.5404,-7.3561,-5.5036,-4.6356,-8.8775,3.1763,-2.0017,-3.9697,-2.8425,-8.4280,-0.6467
1339.8438,-14.0099,5.5853,1.0597,0.3058,-7.1305,-7.3045,1.1980,-2.4202,27.5356,-5.8558,-0.6128,1.2172,-3.6745,5.8380,-1.9637,3.7957,1.8080,-4.8801,2.0659
1343.7500,-18.8693,7.4598,0.2713,-0.3977,-9.6471,-8.3314,1.1176,-3.9123,28.0889,-4.7036,1.7946,6.0844,-0.0493,6.8010,-1.9733,9.4894,4.3706,-2.8575,3.2828
1347.6562,-22.3066,4.7694,-4.5480,-2.3395,-12.7856,-6.8492,-2.5985,-6.5776,25.2250,-4.3486,0.7365,8.9827,1.4804,6.2033,-1.5145,10.6716,4.4752,-2.6935,2.7357
1351.5625,-22.0645,-0.3096,-10.9663,-4.3255,-15.5035,-3.2033,-7.9118,-9.3149,20.3187,-4.6201,-2.6908,9.6032,1.3993,4.7412,-0.6369,7.5740,2.8781,-3.6642,1.1410
1355.4688,-17.4629,-3.8667,-15.0029,-4.8746,-16.5284,0.7249,-10.9124,-10.3556,16.2562,-4.7254,-5.9812,8.5065,0.8388,3.2321,0.1110,2.9081,0.8819,-4.2957,-0.1662
1359.3750,-9.8565,-3.0240,-13.7533,-3.2058,-15.1494,2.5498,-8.9325,-8.5855,15.4030,-3.8162,-6.8932,6.8584,0.8206,2.2011,0.1527,0.0641,-0.4853,-3.2537,-0.0905
1363.2812,-1.9737,2.0151,-7.4888,0.1404,-11.7192,1.0497,-2.8917,-4.5451,17.8874,-1.7229,-4.9597,5.8300,1.6414,1.7368,-0.6505,0.9451,-0.9605,-0.2474,1.4657
1367.1875,3.4671,8.1579,0.3229,3.5422,-7.4787,-2.7883,3.1041,-0.2576,21.5092,0.7618,-1.7295,6.0127,2.8224,1.6386,-1.8973,4.8867,-0.9322,3.7133,3.5051
1371.0938,5.0681,11.6989,5.1977,5.2974,-3.8148,-6.2892,4.7390,2.0814,23.3607,2.3639,0.4453,7.1941,3.6091,1.6748,-2.9576,9.2990,-0.9169,6.9486,4.5995
1375.0000,3.2829,10.9659,4.5575,4.7302,-1.4808,-6.9491,0.7756,1.6170,21.9373,2.2723,0.1760,8.6029,3.5975,1.7355,-3.4240,11.4744,-1.0912,8.2204,3.8621
1378.9062,-0.0440,7.3757,-0.6239,2.6398,-0.3170,-4.2807,-5.9381,-0.5787,18.1529,0.8287,-1.9637,9.4270,3.0012,1.8096,-3.3537,10.2885,-1.2314,7.5418,1.5478
1382.8125,-2.7754,4.1845,-6.5778,0.7720,0.3940,-0.1972,-10.5872,-2.2909,14.5354,-0.6164,-3.9476,9.2489,2.3945,1.8875,-3.1448,6.7246,-1.0358,6.0964,-1.1265
1386.7188,-3.5770,3.9790,-9.3259,0.6778,1.2845,2.4332,-10.0155,-1.7329,13.2761,-0.6331,-3.9096,8.1365,2.1916,1.9415,-3.1819,3.0318,-0.4928,5.3313,-2.7928
1390.6250,-2.4684,6.8500,-7.2548,2.7463,2.4961,1.9733,-5.0408,1.2544,14.6446,1.2368,-1.6162,6.4033,2.3112,2.0214,-3.5468,1.2040,0.0430,5.8988,-2.7876
1394.5312,-0.6410,10.5708,-1.9224,6.0587,3.7793,-0.7749,0.3348,5.2190,16.9351,4.0951,1.3278,4.2854,2.2875,2.3476,-4.0053,1.7799,0.1200,7.2324,-1.4684
1398.4375,0.2877,12.4956,3.3287,9.1162,4.9157,-3.3006,2.1641,8.2352,17.8859,6.2721,2.6945,1.8139,1.6972,3.2434,-4.2480,3.6178,-0.4532,8.0582,0.1755
1402.3438,-0.7904,11.5974,5.8112,10.8825,6.0191,-3.4483,-0.3302,9.2522,16.4053,6.4695,1.3426,-1.0357,0.5211,4.8817,-4.1659,4.6424,-1.4844,7.4353,1.2785
1406.2500,-3.7596,9.0698,5.1895,11.3956,7.4145,-1.1174,-4.2115,8.6671,13.2918,4.6505,-1.8659,-4.0865,-0.8649,7.0181,-3.9318,3.0490,-2.6072,5.5262,1.6556
1410.1562,-7.1226,7.1518,3.3166,11.5539,9.2058,1.7968,-5.2445,7.7967,10.4991,2.0698,-4.6159,-6.8632,-2.0306,8.9610,-3.8227,-1.6831,-3.6119,3.5198,1.7950
1414.0625,-8.5635,7.2525,2.5300,12.2989,10.9561,3.1334,-1.3250,7.7740,9.6338,0.4674,-4.7338,-8.7870,-2.8393,9.8895,-3.9300,-8.4290,-4.5736,2.7796,2.3582
1417.9688,-6.1081,8.9139,3.8101,13.8263,11.8357,2.3564,5.7854,8.7559,10.8745,1.0110,-1.6650,-9.5346,-3.4745,9.3590,-3.9917,-14.8470,-5.6324,3.8655,3.6059
1421.8750,0.6016,10.3485,6.1672,15.3990,11.1926,0.9362,11.7507,9.9807,13.0425,3.6726,3.1890,-9.2694,-4.1206,7.6459,-3.5015,-18.4127,-6.6102,6.1453,5.1773
1425.7812,9.6411,9.9594,7.5837,15.8580,9.1060,0.8448,12.9216,10.4932,14.5889,7.3455,7.4238,-8.5361,-4.5942,5.6517,-2.0489,-17.6196,-6.8339,8.2389,6.3476
1429.6875,17.3232,7.5062,6.6463,14.4280,6.4438,2.4502,9.0114,9.8702,14.6116,10.4927,9.1194,-7.8759,-4.2998,4.3792,0.3220,-12.7713,-5.4027,8.9141,6.5363
1433.5938,19.8891,4.0084,3.5739,11.2312,4.3125,3.7180,3.1645,8.3852,13.1585,11.8540,7.8278,-7.4561,-2.6231,4.3091,2.9844,-5.9011,-1.7861,7.7634,5.6793
1437.5000,15.5716,0.6330,-0.0754,7.1773,3.2827,1.6098,-0.5278,6.5859,10.7940,10.8522,4.5078,-7.0106,0.5057,5.0979,4.9523,0.2446,3.6590,5.2277,4.2217
1441.4062,5.8055,-2.3189,-2.6618,3.3625,2.9799,-5.2951,-0.0689,4.7441,8.0188,7.6457,0.6609,-6.1419,4.3309,5.8026,5.3658,3.6642,9.6571,2.0800,2.7773
1445.3125,-5.3091,-5.3808,-3.6333,0.4338,2.3785,-15.0908,3.1558,2.6785,5.1271,2.9831,-2.5852,-4.7293,7.5517,5.4777,3.9770,4.1477,14.5482,-1.1272,1.7307
1449.2188,-13.1542,-8.9183,-3.7256,-1.6530,0.6027,-23.3055,5.6843,0.0582,2.5301,-2.0080,-4.8263,-3.0875,9.0290,3.7384,1.3526,3.2199,17.0765,-4.2021,1.0601
1453.1250,-15.1298,-12.1759,-4.1422,-3.3789,-2.3510,-25.7743,4.7066,-3.1357,1.0440,-6.0985,-6.1084,-1.7099,8.4560,0.9320,-1.3488,2.9732,16.9452,-7.0191,0.4755
1457.0312,-11.9888,-13.4110,-5.4537,-5.1617,-5.5060,-21.5216,0.0766,-6.4272,1.6467,-8.3426,-6.4586,-0.7868,6.5384,-2.1434,-2.9238,4.5619,14.8242,-9.1683,-0.2572
1460.9375,-7.0923,-11.1946,-7.1035,-6.9942,-7.4891,-13.4416,-5.7957,-9.0954,4.7535,-8.4836,-5.7028,0.0933,4.5708,-4.7230,-2.7042,7.4162,11.8700,-9.9714,-1.0467
1464.8438,-4.0800,-5.8520,-7.8528,-8.4504,-7.3823,-6.2195,-9.8464,-10.6184,9.6234,-7.1379,-3.6952,1.7522,3.7023,-6.4110,-0.8456,9.7503,9.1152,-8.9307,-1.4430
1468.7500,-4.5336,0.2574,-6.7460,-9.0012,-5.2465,-3.0723,-10.4321,-10.9301,14.5343,-5.5385,-0.6866,4.8049,4.3628,-7.1878,1.8243,9.9805,7.0965,-6.2515,-0.8678
1472.6562,-7.2067,4.0620,-3.8207,-8.3773,-1.9957,-3.7859,-8.0482,-10.3084,17.7647,-4.8904,2.5535,9.0389,6.1610,-7.1858,4.2824,7.9624,5.8553,-2.9534,1.0272
1476.5625,-9.2711,3.8307,-0.0613,-6.7311,1.2230,-5.4581,-4.4198,-9.0565,18.7071,-5.7001,5.0097,13.2748,8.2178,-6.4890,5.8020,5.0760,5.1645,-0.3889,4.0770
1480.4688,-8.5837,0.4024,3.2860,-4.5228,3.6696,-5.1921,-0.9802,-7.2979,18.2394,-7.5319,5.9034,15.8822,9.6446,-5.1359,6.1673,3.0810,4.7380,0.5356,7.5668
1484.3750,-5.2797,-3.3918,5.4707,-2.2467,5.2662,-2.4720,1.9528,-5.0502,18.0281,-9.3742,5.0541,15.6730,9.8764,-3.2779,5.5359,2.6581,4.2956,-0.1216,10.4984
1488.2812,-1.5506,-4.7153,6.5464,-0.1856,6.3989,0.6937,4.8102,-2.4431,19.2963,-10.3567,2.9198,12.6075,8.7652,-1.2865,4.1352,2.8276,3.5492,-1.4549,12.0591
1492.1875,0.1382,-2.6177,7.1294,1.6777,7.5259,1.8618,7.8294,0.2007,22.0332,-10.2932,0.3682,7.8601,6.5319,0.3588,2.0808,1.7544,2.2553,-2.3581,12.0642
1496.0938,-1.0195,1.5798,7.9145,3.5786,8.9046,0.6065,10.5647,2.5519,25.2608,-9.6608,-1.6371,3.1997,3.6949,1.3539,-0.5289,-1.6778,0.3749,-2.2131,11.1082
1500.0000,-3.5681,5.6080,9.3268,5.7858,10.5526,-0.8273,12.3155,4.5592,28.0779,-9.0738,-2.3062,0.0690,0.9752,1.7903,-3.3643,-6.7970,-1.7888,-1.1392,10.2748
1503.9062,-4.9400,8.1286,11.4415,8.3993,12.3252,0.7016,12.9732,6.5123,30.5382,-8.7128,-1.2494,-1.0916,-0.9142,2.0926,-5.7550,-11.4810,-3.6595,0.2907,10.4974
1507.8125,-3.4386,9.6164,14.0325,11.2064,13.9398,6.4699,13.3504,8.7381,33.5545,-8.1915,1.3176,-0.9256,-1.6184,2.6719,-6.9336,-13.6820,-4.7110,1.5433,11.9091
1511.7188,0.4632,11.5707,16.5709,13.6614,14.9338,14.4714,14.5343,11.1461,37.8726,-6.9725,4.4783,-0.6677,-1.4551,3.5502,-6.5407,-12.9481,-4.8538,2.3940,13.6103
1515.6250,4.4511,14.8000,18.2024,15.0395,14.7140,20.6190,16.7667,13.0467,43.0026,-4.9722,6.8196,-1.4061,-1.4044,4.2732,-5.0197,-10.7252,-4.5781,2.8102,14.0922
1519.5312,6.0071,18.3073,17.9154,14.7567,12.8377,21.7003,18.8977,13.5099,47.1089,-2.8281,7.0228,-3.4945,-2.6101,4.2297,-3.5206,-9.1925,-4.6724,2.6775,12.1621
1523.4375,4.0862,19.8066,15.0333,12.7385,9.4365,17.7515,19.0596,12.0793,48.1047,-1.5679,4.6326,-6.3602,-5.5827,3.1735,-3.2575,-9.5562,-5.6504,1.7399,7.8406
1527.3438,-0.3731,17.5235,9.8333,9.6258,5.4589,11.9314,16.1598,9.3027,45.1737,-1.9085,0.5257,-8.7382,-9.6053,1.5473,-4.6955,-11.1561,-7.2769,-0.1041,2.6294
1531.2500,-5.3457,11.8198,3.8118,6.6244,2.4107,7.9771,10.9991,6.5937,39.5162,-3.7227,-3.3515,-9.2000,-12.8418,0.3170,-7.1426,-12.0669,-8.5713,-2.4101,-1.1273
1535.1562,-9.1999,5.2602,-0.7961,4.9771,1.5948,7.2703,5.9974,5.4132,33.6634,-6.0836,-4.9840,-6.7744,-13.2375,0.3674,-9.1018,-10.6616,-8.3591,-4.1450,-1.5004
1539.0625,-11.5931,0.9590,-2.1543,5.2904,3.2634,7.8761,3.5789,6.2983,29.8130,-7.8512,-3.4908,-1.4430,-9.7497,1.8486,-9.2110,-6.8466,-6.0454,-4.2022,1.8709
1542.9688,-13.2062,0.4336,0.0221,7.1076,6.2738,6.3379,4.3809,8.4353,28.4236,-8.3564,0.2510,5.6976,-3.1343,3.9363,-7.1564,-1.9889,-2.0957,-2.1942,7.4540
1546.8750,-14.7155,2.6155,4.1004,9.0455,8.5815,0.7937,6.6844,10.1137,28.1183,-7.6913,4.0451,12.7386,4.2786,5.2101,-3.9217,2.3241,2.1261,1.0871,12.5709
1550.7812,-15.9618,4.7816,7.3202,9.4954,8.3544,-7.1033,7.5859,9.7761,26.9313,-6.4531,5.6700,17.6807,9.7600,4.4464,-1.1833,5.5811,5.0827,3.9934,14.8043
1554.6875,-16.0192,4.6793,7.3446,7.5262,5.0356,-13.0548,5.1028,6.9527,23.8965,-5.2110,4.2210,19.2915,11.6186,1.3378,-0.2576,8.5698,5.8963,5.0129,13.2319
1558.5938,-14.0569,2.2001,3.6175,3.4586,-0.3300,-13.1884,-0.3419,2.4727,19.7477,-4.1390,0.6259,17.6656,10.0188,-3.2968,-1.3202,12.3438,4.7599,3.7696,8.7789
1562.5000,-10.2326,-0.6551,-2.3472,-1.2616,-5.7248,-7.0036,-6.1701,-2.1288,16.2407,-3.0593,-2.9973,14.1429,6.6953,-7.9260,-3.4096,16.8564,2.6891,1.2911,3.5374
1566.4062,-5.8591,-1.4303,-7.9254,-4.8358,-9.3325,2.0507,-9.4677,-5.5371,14.7104,-1.7766,-4.6964,10.5801,3.7964,-11.0716,-5.1621,20.5084,0.8193,-0.6907,-0.4601
1570.3125,-2.7037,0.8470,-10.9529,-6.0800,-10.5012,8.8179,-9.0385,-7.2807,15.0491,-0.3588,-3.8477,8.3679,2.6273,-11.9747,-5.7184,21.1098,-0.2662,-0.9325,-2.2440
1574.2188,-1.9544,4.9391,-10.8874,-5.0076,-9.9124,9.8448,-6.2060,-7.7121,15.8958,0.8825,-1.3890,7.7747,3.0715,-10.8205,-5.1698,17.5623,-0.7534,0.4912,-2.1448
1578.1250,-3.5922,8.3785,-8.8720,-2.6959,-8.9293,5.5047,-3.8092,-7.5021,15.8174,1.6634,0.9477,8.0028,3.9599,-8.4772,-4.2967,10.9153,-1.2784,2.3163,-1.2629
1582.0312,-6.5342,9.3143,-6.7746,-0.5585,-8.6340,-0.5824,-4.1590,-7.0998,14.4745,1.9789,1.8073,7.8780,4.0170,-5.9757,-3.8857,3.8979,-2.3586,3.0623,-0.6446
1585.9375,-9.3187,7.7702,-5.9365,0.4964,-9.2072,-4.2409,-7.4330,-6.5278,12.8216,2.1039,0.9788,6.6732,2.6870,-4.0454,-4.1760,-0.7839,-3.9970,2.1161,-0.7349
1589.8438,-10.7957,5.4076,-6.4624,0.5041,-9.9948,-3.5114,-11.6126,-5.5472,12.2214,2.3618,-0.6897,4.4989,0.3228,-2.9127,-4.8195,-2.1317,-5.7131,0.1354,-1.3766
1593.7500,-10.4351,4.1031,-7.4200,0.2544,-10.0983,0.3827,-13.9240,-3.9497,13.2404,2.8865,-2.0524,2.0322,-2.2657,-2.3808,-5.2957,-1.2991,-6.9305,-1.4874,-2.2061
1597.6562,-8.2661,4.5375,-7.6638,0.6588,-9.0031,4.2983,-12.7062,-1.7212,15.1257,3.5907,-2.4919,-0.1458,-4.4676,-2.0687,-5.3842,-0.5555,-7.4030,-1.6579,-3.0477
1601.5625,-4.7129,5.8793,-6.6352,2.1207,-6.8185,5.5065,-8.4133,0.9825,16.3717,4.3324,-2.2368,-2.0539,-6.2229,-1.6592,-5.3096,-1.6392,-7.3704,-0.3289,-4.0024
1605.4688,-0.5092,6.6894,-4.6228,4.2968,-4.0521,3.3837,-3.1528,3.9174,15.8862,5.0760,-2.0243,-4.2525,-7.8633,-1.0513,-5.4869,-4.7399,-7.3514,1.5473,-5.2211
1609.3750,3.3779,6.1934,-2.4256,6.3533,-1.1853,-0.5284,0.7888,6.7614,13.8012,5.8536,-2.4354,-7.2746,-9.6479,-0.3783,-6.1352,-8.7260,-7.7453,2.7509,-6.6109
1613.2812,5.9920,4.8494,-0.7737,7.4956,1.5934,-3.8172,2.3480,9.0760,11.2959,6.5560,-3.4195,-11.0089,-11.4023,0.0993,-7.0988,-12.2097,-8.5319,2.6143,-7.7500
1617.1875,6.8020,3.8030,0.0584,7.4127,4.3290,-4.7539,2.0949,10.3612,9.6187,6.7919,-4.3366,-14.5444,-12.5403,0.1769,-8.0057,-14.4661,-9.2673,1.3378,-8.0915
1621.0938,6.0090,3.7713,0.2423,6.3818,7.0331,-3.1287,1.5077,10.2818,9.1214,6.0371,-4.4516,-16.6329,-12.4279,-0.1239,-8.5887,-15.5324,-9.3596,-0.3362,-7.3029
1625.0000,4.4130,4.3404,0.1125,5.0233,9.4727,-0.1140,1.7557,8.9430,9.0642,4.0392,-3.5085,-16.4487,-10.7951,-0.5035,-8.8742,-15.6434,-8.4278,-1.7338,-5.4898
1628.9062,2.8127,4.2723,-0.1105,3.9118,11.1974,2.4651,2.8934,6.9606,8.2991,1.1633,-1.9797,-14.0949,-7.9003,-0.5166,-9.0835,-14.7344,-6.5152,-2.6299,-3.1521
1632.8125,1.3556,2.5484,-0.3958,3.2991,11.7766,2.9482,3.9887,5.1764,6.2451,-1.6609,-0.8135,-10.4931,-4.3567,0.1564,-9.3539,-12.5722,-4.0391,-3.1538,-0.9145
1636.7188,-0.5915,-0.7183,-0.7801,3.0934,11.0610,0.5017,3.9969,4.1529,3.3873,-3.4445,-0.8321,-6.7501,-0.7796,1.4632,-9.5351,-9.3514,-1.5274,-3.4040,0.7857
1640.6250,-3.8246,-4.2481,-1.2012,3.0564,9.2921,-4.4270,2.6854,3.8116,0.9600,-3.7667,-2.1475,-3.4732,2.4989,2.9461,-9.2284,-6.0345,0.6896,-3.1777,1.8774
1644.5312,-8.3434,-6.4554,-1.4361,3.0528,7.0129,-9.9980,0.9169,3.5275,0.1218,-3.0454,-3.9669,-0.5215,5.4868,3.9966,-8.0256,-3.8851,2.6557,-2.0749,2.6305
1648.4375,-12.8510,-6.5291,-1.1849,3.1770,4.8694,-13.5064,0.0890,2.6522,1.2663,-2.2160,-4.9399,2.6604,8.3807,4.2647,-5.7488,-3.4105,4.7384,0.1154,3.4785
1652.3438,-15.2747,-4.9286,-0.2403,3.6791,3.4206,-12.6594,1.1338,1.0831,3.9162,-2.0453,-3.8970,6.4137,11.3392,3.9469,-2.5352,-3.6219,7.3768,3.0859,4.7955
1656.2500,-14.1069,-2.9889,1.3576,4.7426,3.0098,-7.1273,3.7914,-0.5833,7.1446,-2.6135,-0.5797,10.4285,14.3218,3.7133,1.2282,-2.4288,10.7580,6.0233,6.7184
1660.1562,-9.6503,-2.0095,3.2571,6.2632,3.6861,0.6559,6.6844,-1.4741,10.1060,-3.3759,4.0761,13.8235,17.0531,4.2693,5.0047,1.8850,14.5958,7.9667,9.0715
1664.0625,-4.1825,-2.5186,4.8644,7.7793,5.1625,6.3416,8.1679,-1.1411,12.3041,-3.7446,8.3286,15.6748,19.1004,5.8176,8.1659,9.1308,18.1488,8.2574,11.4139
1667.9688,-0.7625,-4.1621,5.5486,8.6230,6.8481,6.0761,7.3898,0.0031,13.5544,-3.6905,10.5314,15.6099,20.0233,7.7961,10.0639,16.8806,20.5060,6.8013,13.2038
1671.8750,-1.3897,-6.1326,4.9281,8.2282,8.0103,-0.8699,4.8364,0.8804,13.8738,-3.8317,10.0479,14.0463,19.5493,9.1074,10.2217,21.7744,21.0148,4.0367,14.0255
1675.7812,-5.7527,-7.6943,3.1104,6.4293,8.0589,-11.1061,1.9789,0.4610,13.4977,-4.8911,7.6137,11.9201,17.7116,8.7289,8.6264,21.6622,19.6235,0.7100,13.7701
1679.6875,-11.4353,-8.4223,0.7247,3.5667,6.8282,-18.7734,0.2589,-1.5217,12.9711,-6.9576,4.8731,10.0950,14.8696,6.3166,5.9224,17.0597,16.9194,-2.3835,12.6588
1683.5938,-15.4382,-8.1299,-1.3370,0.3224,4.6777,-19.0609,0.1219,-4.3806,13.0778,-9.1915,3.3371,8.8453,11.5606,2.4106,3.2488,10.8231,13.8030,-4.6129,11.0752
1687.5000,-15.9621,-6.7293,-2.3738,-2.6274,2.3115,-11.3393,0.7956,-6.9383,14.4843,-10.2966,3.4211,7.7360,8.2281,-1.8876,1.6815,6.2318,10.9698,-5.6878,9.3034
1691.4062,-13.2595,-4.2405,-2.2471,-4.9264,0.4002,0.3031,0.9833,-8.2834,17.2932,-9.4560,4.2180,5.9635,4.9871,-5.5322,1.5794,4.8384,8.5211,-5.7834,7.3625
1695.3125,-9.0782,-0.9063,-1.3935,-6.6139,-0.7608,9.6495,-0.0258,-8.2625,20.8998,-7.0113,4.2032,2.9364,1.6138,-8.0310,2.3171,5.6008,5.9788,-5.5083,5.0807
1699.2188,-5.2360,2.8093,-0.4238,-7.9152,-1.3359,12.3873,-1.6649,-7.3868,24.3849,-4.3044,2.4227,-1.2529,-2.1799,-9.5167,2.6911,5.8543,2.7209,-5.6074,2.3768
1703.1250,-2.4260,6.4594,0.4206,-8.9097,-1.7352,8.8042,-2.3763,-6.3031,27.2328,-2.7320,-0.6602,-5.7399,-6.3492,-10.4158,1.7943,3.3430,-1.4415,-6.4587,-0.4643
1707.0312,-0.0716,9.9256,1.5162,-9.3488,-2.2823,3.2712,-0.7254,-5.2923,29.8103,-2.6914,-3.2971,-9.2377,-10.3041,-11.0146,-0.2577,-2.1716,-5.9621,-7.6643,-2.7752
1710.9375,2.8005,13.4700,3.5476,-8.7932,-3.0196,0.9294,3.4461,-4.1844,33.1387,-3.2343,-3.5420,-10.6401,-13.1104,-11.2633,-2.3370,-8.7990,-9.7842,-8.1040,-3.8278
1714.8438,6.4507,17.3642,6.8052,-6.9971,-3.7865,4.0148,8.6960,-2.6991,38.0113,-2.7404,-0.5910,-9.5603,-14.0467,-10.9324,-3.1224,-13.8287,-11.9795,-6.5729,-3.3095
1718.7500,9.9668,21.3269,10.6314,-4.2446,-4.4661,10.4720,12.7739,-0.8631,44.0838,-0.1607,4.5480,-6.5171,-13.1514,-9.9423,-2.1581,-15.4094,-12.3673,-2.6739,-1.6059
1722.6562,11.7774,24.2768,13.5360,-1.3409,-5.1560,15.7578,14.0071,0.8784,49.6846,4.0759,9.5474,-2.6677,-11.3313,-8.5577,-0.3314,-13.4357,-11.6588,2.6587,0.3571
1726.5625,10.7059,24.7563,14.0425,0.8033,-6.0825,16.3441,12.2979,1.9493,52.6200,8.1759,12.1148,0.7695,-9.8695,-7.2698,0.6683,-9.2118,-10.9866,7.4775,1.6529
1730.4688,6.7674,21.8673,11.7344,1.7319,-7.3168,12.2169,9.0246,2.0632,51.4972,10.0684,11.3216,3.0813,-9.6095,-6.4628,-0.4212,-4.3883,-11.1259,9.8857,1.9188
1734.3750,1.1558,16.0759,7.7125,1.7331,-8.5543,6.5388,5.9419,1.4024,46.6464,8.7145,8.0380,4.2976,-10.3792,-6.1478,-3.4229,-0.0660,-11.9634,9.1721,1.5395
1738.2812,-4.5044,9.2189,4.0173,1.6074,-9.2023,2.8937,3.9139,0.4036,39.9557,4.7369,4.2310,4.9799,-11.0991,-5.9930,-6.7214,3.3806,-12.6114,6.2120,1.3047
1742.1875,-9.0682,3.5692,2.3122,2.0439,-8.7783,2.3951,2.4212,-0.6460,33.7027,-0.0311,1.6535,5.7202,-10.5502,-5.6303,-8.3433,5.9026,-12.1037,2.8189,1.7795
1746.0938,-12.3237,0.5225,2.7242,3.0565,-7.3408,2.9701,0.1801,-1.8266,29.1937,-3.7144,0.8271,6.6935,-8.2862,-4.9855,-7.3523,7.3660,-10.1706,0.5004,2.8548
1750.0000,-14.7611,-0.1903,3.7110,3.9249,-5.5854,1.3392,-3.6411,-3.4089,26.1578,-5.4484,0.9546,7.5686,-5.0293,-4.3533,-4.5220,7.5627,-7.5142,-0.4725,3.8170
1753.9062,-16.9195,-0.1857,3.1288,3.7252,-4.4653,-3.9658,-8.5673,-5.4344,23.2801,-5.6374,0.7137,7.8182,-2.2438,-4.1457,-1.7685,6.5650,-5.3627,-0.9987,3.8909
1757.8125,-18.8199,-1.1992,-0.2111,2.0801,-4.5587,-11.0380,-12.9855,-7.4477,19.4185,-5.3587,-0.7129,7.1810,-1.1711,-4.5189,-0.7543,4.9793,-4.6191,-2.1749,2.8427
1761.7188,-19.8674,-3.8075,-5.6063,-0.4486,-5.6476,-15.8048,-15.2032,-8.6749,14.5758,-5.4488,-3.1109,5.9067,-2.0190,-5.1920,-1.7110,3.7397,-5.2363,-4.2200,1.1740
1765.6250,-19.2571,-7.0028,-10.8558,-2.6622,-6.8610,-15.1099,-14.5948,-8.5692,9.9235,-5.9575,-5.5164,4.5798,-3.8924,-5.6302,-3.3670,3.5235,-6.2941,-6.1844,-0.2590
1769.5312,-16.5944,-8.9173,-13.7324,-3.5471,-7.3337,-9.2470,-11.9934,-7.3072,6.9136,-6.2885,-7.0069,3.6423,-5.5154,-5.4712,-4.0288,4.2487,-6.7324,-6.7004,-0.9314
1773.4375,-12.3273,-8.1724,-13.4958,-3.0250,-6.9255,-1.9305,-9.0838,-5.8100,6.1920,-5.7982,-7.3766,2.9832,-6.2035,-4.8679,-2.9858,5.0847,-6.1977,-5.1806,-1.1233
1777.3438,-7.7053,-4.8998,-11.3613,-2.0636,-6.4547,2.3218,-7.2929,-5.2064,7.1339,-4.3218,-7.2187,1.9363,-6.3660,-4.4678,-1.1569,5.0066,-5.3649,-2.4802,-1.8121
1781.2500,-4.2430,-0.7306,-9.5998,-2.0387,-7.2214,1.4045,-6.9927,-6.0982,8.3160,-2.2393,-7.4194,-0.2734,-7.1706,-5.0182,-0.4727,3.4849,-5.4792,-0.4452,-4.0333
1785.1562,-2.9403,2.2131,-9.9367,-3.7973,-10.1119,-2.9951,-7.5174,-8.1633,8.5247,-0.1156,-8.4877,-3.9369,-9.6310,-6.8679,-2.4399,0.8044,-7.4446,-0.6466,-8.1529
1789.0625,-3.6788,2.6177,-12.4126,-7.0999,-14.9058,-6.8437,-7.8550,-10.3991,7.5324,1.7185,-10.2153,-8.5518,-13.7990,-9.7181,-6.9448,-2.1969,-11.1247,-3.2586,-13.5571
1792.9688,-5.1804,0.7056,-15.4958,-10.8355,-20.2899,-6.8436,-7.4148,-11.8312,6.0975,3.2865,-11.8744,-13.0317,-18.6490,-12.7892,-12.1745,-4.7335,-15.3636,-6.9410,-18.9663
1796.8750,-5.6537,-2.0383,-17.2955,-13.8197,-24.5920,-2.7621,-6.3313,-12.1637,5.2580,4.7401,-12.7515,-16.2926,-22.7116,-15.2700,-15.7151,-6.5608,-18.7011,-9.8042,-23.1384
1800.7812,-3.8477,-3.8859,-16.9262,-15.5465,-26.7301,2.6925,-5.2058,-11.8913,5.5042,6.0526,-12.6052,-17.8067,-24.9622,-16.7219,-16.0473,-8.0185,-20.2549,-10.6996,-25.4721
1804.6875,0.0908,-3.9260,-15.0108,-16.3300,-26.7196,6.1760,-4.6102,-11.8056,6.4563,6.9491,-11.7357,-17.7554,-25.3136,-17.1729,-13.4179,-9.6582,-20.1409,-9.8500,-26.1277
1808.5938,4.5542,-2.4981,-13.0078,-16.7654,-25.4089,6.2563,-4.7528,-12.2819,7.2438,7.1520,-10.6618,-16.7202,-24.4038,-16.8853,-9.5449,-11.7630,-19.1715,-8.3922,-25.6504
1812.5000,7.3738,-0.7966,-11.9445,-16.9930,-23.6819,4.2106,-5.4447,-12.8964,7.2379,6.7097,-9.6746,-15.1918,-22.9192,-16.0254,-6.4417,-14.0840,-18.1158,-7.2772,-24.4307
1816.4062,7.2047,0.0265,-11.5605,-16.4036,-21.7521,2.6018,-6.2249,-12.6682,6.5553,6.0832,-8.5940,-13.2765,-21.0291,-14.5134,-5.1958,-15.9156,-17.1090,-6.4599,-22.4148
1820.3125,4.4988,-0.3481,-10.5111,-14.0618,-19.0874,2.9769,-6.4578,-10.7513,5.9608,5.8669,-6.8888,-10.7877,-18.3655,-12.1637,-5.4718,-16.4066,-15.6456,-5.0259,-19.2534
1824.2188,1.3261,-1.2150,-7.4500,-9.5334,-15.0104,4.6566,-5.4111,-7.0761,6.2810,6.3487,-4.0676,-7.5883,-14.5184,-8.9865,-5.9394,-14.9195,-13.1167,-2.1024,-14.7339
1828.1250,0.0480,-1.3444,-2.1524,-3.4522,-9.4919,5.5618,-2.4807,-2.4807,7.7940,7.2791,-0.0823,-3.8637,-9.5935,-5.3923,-5.2123,-11.2964,-9.4342,2.2451,-9.1463
1832.0312,1.6810,0.1550,4.1622,2.6563,-3.4962,4.2486,2.3765,1.7487,10.0492,8.0635,4.5074,-0.0943,-4.3494,-2.1210,-2.6453,-5.9769,-5.2389,6.8938,-3.3035
1835.9375,5.1099,3.1578,9.5292,7.2103,1.4369,1.3122,8.2479,4.6019,12.2171,8.2438,8.7112,3.2345,0.2128,0.0739,1.4386,0.0612,-1.5350,10.4194,1.7978
1839.8438,7.7927,6.4693,12.4337,9.4701,4.1079,-1.0998,13.3427,5.8441,13.6728,7.8776,11.5386,5.9235,3.4812,0.7821,6.0771,5.5619,0.9606,12.0970,5.4419
1843.7500,7.5454,8.4751,12.6581,9.8557,4.4228,-1.2517,15.7599,5.9971,14.3712,7.4883,12.4620,8.1079,5.5856,0.1149,10.2236,9.4205,2.2568,12.3298,7.4881
1847.6562,4.1633,8.1331,11.2463,9.4831,3.4478,0.4840,14.6197,5.8803,14.7615,7.6098,11.6777,10.0346,7.1960,-1.3789,13.1788,11.1321,2.9972,12.1830,8.3412
1851.5625,-0.3233,5.7013,9.7059,9.3063,2.6963,1.7769,10.7974,6.0663,15.3552,8.2964,10.0256,11.7716,8.9361,-2.9757,14.7457,11.0130,3.9311,12.4485,8.6643
1855.4688,-3.0065,2.6964,9.0641,9.5147,3.1382,0.3581,6.6072,6.6092,16.3082,9.0244,8.5970,13.1017,10.8750,-4.0586,15.1585,10.0161,5.3522,13.0313,9.0289
1859.3750,-2.1291,1.0318,9.3998,9.5890,4.6082,-3.7317,4.4760,7.1577,17.3394,9.1062,8.2183,13.6773,12.4778,-4.2989,14.9053,9.1873,6.8991,13.1436,9.6882
1863.2812,1.6945,1.8252,10.0520,8.8806,5.9964,-7.6485,5.4370,7.2873,18.0256,8.3057,9.0704,13.2891,13.0264,-3.7173,14.5194,9.0658,7.8216,12.0895,10.5383
1867.1875,5.9665,4.6451,10.2199,7.1866,6.0511,-7.6559,8.5148,6.7743,18.2136,7.1383,10.6441,12.0121,12.1540,-2.6573,14.3708,9.4054,7.4769,9.9309,11.2261
1871.0938,8.1381,7.7466,9.4825,4.8544,4.2174,-2.1029,11.4943,5.6363,18.2104,6.5531,12.0526,10.1191,10.0785,-1.6922,14.5068,9.4010,5.6975,7.4521,11.3221
1875.0000,7.4013,9.2098,7.9378,2.3853,0.9528,6.8772,12.5482,3.9814,18.5902,7.1805,12.5264,7.8664,7.3855,-1.4538,14.6281,8.2681,2.8237,5.4720,10.4969
1878.9062,5.0968,8.2475,6.0027,-0.0641,-2.6396,14.4470,11.5161,1.8442,19.7627,8.7133,11.8109,5.3712,4.5773,-2.3887,14.2626,5.7970,-0.5410,4.1223,8.6629
1882.8125,3.4718,5.7693,4.1216,-2.8168,-5.5432,16.3161,9.8646,-0.8326,21.6362,9.9465,10.2541,2.6978,1.7693,-4.5253,13.0773,2.5350,-3.8242,2.7454,6.0383
1886.7188,3.8122,3.7593,2.5902,-6.3174,-7.4026,11.8136,9.3639,-4.0656,23.6431,9.5356,8.5568,0.0567,-1.2369,-7.3955,11.1433,-0.4777,-6.6423,0.5171,3.0888
1890.6250,5.4552,3.8614,1.5239,-10.5908,-8.5868,4.4614,10.5396,-7.6705,25.1243,6.9752,7.3646,-2.1134,-4.6067,-10.2142,8.9620,-2.2188,-8.8037,-2.7358,0.3360
1894.5312,6.4704,6.1722,0.8780,-14.9959,-9.7764,-0.4523,12.1638,-11.2193,25.7954,3.0808,6.9501,-3.3253,-8.1738,-12.2646,7.2027,-2.1459,-10.2661,-6.2411,-1.8913
1898.4375,5.4317,9.1391,0.4627,-18.5008,-11.4200,0.4372,12.2449,-14.1529,25.9547,-0.4266,7.1564,-3.3870,-11.4521,-13.2724,6.3128,-0.4190,-11.1335,-8.7897,-3.6150
1902.3438,2.7909,10.6791,0.0017,-20.2721,-13.4301,6.2961,9.7697,-15.9663,26.2809,-1.9956,7.5858,-2.6236,-13.9429,-13.5125,6.2634,2.1316,-11.6638,-9.6405,-5.1496
1906.2500,0.6518,9.7210,-0.6939,-20.1114,-15.2693,12.8430,5.7979,-16.3425,27.3728,-1.2416,7.8804,-1.7446,-15.4684,-13.5524,6.6113,4.2375,-12.1913,-9.0656,-6.8302
1910.1562,1.0409,7.0214,-1.4905,-18.4191,-16.2984,15.4892,2.9520,-15.1758,29.3686,0.8422,7.9088,-1.3920,-16.2540,-13.7928,6.8335,4.5885,-12.9336,-8.0731,-8.6946
1914.0625,4.0429,4.6162,-1.8366,-15.7748,-16.1333,12.5224,3.5813,-12.5327,31.9086,2.6225,7.7709,-1.6885,-16.7040,-14.1401,6.7022,2.3702,-13.7987,-7.5392,-10.3578
1917.9688,7.3765,4.2817,-1.0025,-12.5373,-14.8224,6.0732,7.9362,-8.6417,34.4291,2.9888,7.6556,-2.1510,-17.0832,-14.0758,6.4411,-2.2006,-14.3818,-7.4883,-11.2133
1921.8750,7.9045,6.1477,1.3817,-8.8144,-12.8110,0.3392,13.7522,-3.9452,36.5224,2.1024,7.6595,-2.0766,-17.3832,-13.1022,6.5624,-7.6441,-14.2286,-7.1474,-10.8644
1925.7812,4.0174,8.5178,4.8253,-4.7824,-10.7675,-1.4506,17.6225,0.8550,38.0580,1.1833,7.6750,-1.1354,-17.4750,-11.2417,7.4906,-11.6068,-13.2234,-5.7429,-9.4918
1929.6875,-2.9556,9.0693,7.9491,-0.9850,-9.3508,0.9298,17.2153,4.8827,38.9903,1.4858,7.3997,0.2933,-17.3722,-9.1816,9.2119,-11.8936,-11.7969,-3.3704,-7.8584
1933.5938,-9.5038,6.5677,9.1207,1.7649,-8.9639,4.9889,12.7744,7.3531,39.0671,3.2128,6.4667,1.3376,-17.3187,-7.8877,11.1584,-7.6944,-10.7314,-1.1650,-6.8773
1937.5000,-12.4127,1.8407,7.4625,2.9000,-9.5406,7.6332,6.8738,7.9253,37.7768,5.1822,4.6530,1.2899,-17.5635,-7.9048,12.3995,-0.2550,-10.6274,-0.5591,-6.9823
1941.4062,-11.1361,-2.6989,3.5843,2.6291,-10.4674,7.3664,2.6784,6.9297,34.6848,5.5327,2.0818,0.2227,-17.9867,-8.8372,12.0603,7.5679,-11.3892,-2.1618,-7.7272
1945.3125,-8.2279,-4.6243,-0.5372,1.9878,-10.7517,5.0044,1.9911,5.2835,29.9601,3.0163,-0.6929,-0.9247,-17.9282,-9.4346,9.7799,12.7655,-12.1409,-5.1388,-7.9360
1949.2188,-7.4170,-3.0241,-2.5921,2.2518,-9.4558,2.6415,4.4182,4.0823,24.6480,-2.0119,-2.8193,-0.9157,-16.4617,-8.3123,5.9986,13.8225,-11.7125,-7.6144,-6.3845
1953.1250,-10.7108,1.0661,-1.3068,4.0800,-6.2244,1.9251,8.0640,4.0671,20.3522,-7.6060,-3.5054,0.9189,-13.0150,-4.8800,1.9077,11.5003,-9.4241,-7.8449,-2.6229
1957.0312,-16.7034,5.5321,2.7214,7.0185,-1.6028,3.0142,11.0363,5.2675,18.3998,-11.2746,-2.4540,4.1307,-7.9212,0.1337,-0.9831,8.2130,-5.6419,-5.3324,2.5860
1960.9375,-21.4195,8.6155,7.3066,9.7622,3.1019,4.8369,12.5619,7.0280,18.9939,-11.3991,-0.1218,7.3328,-2.4659,4.9470,-1.5228,6.3897,-1.6947,-1.1037,7.5277
1964.8438,-21.1322,9.8519,9.9385,11.0049,6.3992,6.1568,12.9767,8.3956,20.9632,-8.1262,2.4141,9.0263,1.6848,7.6551,0.4707,6.9228,0.8362,2.9903,10.3813
1968.7500,-15.0993,9.9430,9.2390,10.2585,7.3232,6.4504,12.8282,8.6279,22.3694,-3.1931,3.9792,8.5308,3.3537,7.2680,4.0230,8.7420,1.0077,5.4059,10.1586
1972.6562,-6.1863,9.8511,5.6900,8.0547,5.8518,5.9781,12.0110,7.5308,21.6560,1.1550,3.9400,6.3976,2.4670,4.2256,7.4252,9.7548,-0.9884,5.6854,7.1835
1976.5625,1.0955,9.9480,1.1953,5.4381,2.7993,5.2421,9.7383,5.4675,18.6154,3.4424,2.5569,4.0365,0.0231,0.1068,9.1031,8.4319,-4.0206,4.4544,2.8456
1980.4688,3.6899,9.8757,-2.1798,3.2108,-0.6995,4.4958,5.3833,3.1024,14.5331,3.6494,0.7976,2.8200,-2.5394,-3.2407,8.4534,4.8954,-6.7360,2.8165,-1.1820
1984.3750,1.9561,9.1085,-3.4273,1.5503,-3.7396,3.7529,-0.5391,1.0827,11.3988,2.9560,-0.2935,3.2705,-4.1344,-4.5928,6.1227,0.7882,-8.2928,1.6930,-3.7618
1988.2812,-0.9211,7.6180,-2.9932,0.2586,-5.8823,3.1403,-6.1405,-0.1555,10.6882,2.8026,-0.2555,4.8488,-4.4725,-3.7652,3.5203,-1.8877,-8.6491,1.5338,-4.6733
1992.1875,-1.5595,6.0205,-2.1793,-0.6627,-7.0206,3.0786,-9.0065,-0.4154,12.4938,3.9212,0.5461,6.4249,-3.9415,-1.4208,1.8673,-2.0682,-8.3036,2.4137,-4.4117
1996.0938,0.9774,5.0916,-2.0711,-0.7043,-7.1130,3.9913,-7.6316,0.3088,15.5275,5.9348,1.2502,7.0546,-3.1238,1.4713,1.4231,-0.1663,-7.7810,4.2077,-3.6467
2000.0000,4.5258,5.1085,-2.7860,0.8395,-6.0961,5.7983,-2.4782,1.8533,17.9344,7.7040,1.1468,6.5108,-2.3698,4.1190,1.4319,2.3936,-7.2853,6.5939,-2.7616
2003.9062,5.6276,5.6226,-3.5345,4.1644,-4.0591,7.7498,4.0872,3.8707,18.3531,8.1228,0.1562,5.2498,-1.7266,6.0867,0.8230,4.1560,-6.7402,8.9391,-1.7609
2007.8125,2.3984,5.8725,-3.3504,8.4778,-1.4675,8.8853,9.0056,5.8687,16.5670,6.8239,-1.1955,3.9193,-1.1749,7.2154,-0.8608,4.3735,-6.0879,10.3561,-0.5116
2011.7188,-3.7458,5.4808,-1.8723,12.2535,0.8851,8.7853,10.1863,7.3773,13.4292,4.3737,-2.2422,2.8323,-0.8678,7.5010,-3.0138,3.0981,-5.5079,10.1046,0.9621
2015.6250,-8.8523,4.8218,0.4253,14.1338,2.2935,7.9225,7.6577,8.1954,10.2299,1.8977,-2.6795,1.8070,-1.0917,7.0849,-4.3522,0.8051,-5.3253,8.1482,2.4066
2019.5312,-9.1702,4.7242,2.6740,13.8346,2.6623,7.2169,3.5615,8.5430,7.9708,0.4245,-2.6924,0.4560,-1.9588,6.3118,-3.8485,-1.9598,-5.6797,5.4050,3.5322
2023.4375,-3.8721,5.7341,4.3134,12.3355,2.6805,7.1183,1.0016,8.9544,6.9627,0.3705,-2.6343,-1.3518,-3.1264,5.6793,-1.5041,-4.6165,-6.2702,3.3570,4.2656
2027.3438,4.2314,7.5352,5.4556,11.1643,3.4006,7.0508,2.3686,9.9233,6.8705,1.4449,-2.5740,-3.2537,-3.8625,5.5914,1.6338,-6.4218,-6.4564,3.1566,4.7963
2031.2500,10.5151,9.0081,6.6215,11.2851,5.4393,5.8196,8.0134,11.5204,7.0506,2.9637,-2.1481,-4.5861,-3.5042,6.0453,4.2162,-6.5660,-5.6947,4.8259,5.3452
2035.1562,11.6034,8.9015,8.0969,12.4277,8.3843,2.7561,15.9569,13.2732,6.9267,4.3093,-0.8892,-4.8578,-1.9921,6.5301,5.5099,-4.6556,-3.9856,7.1630,5.8509
2039.0625,7.5135,6.6266,9.4828,13.3614,10.9184,-1.3561,22.8077,14.4347,6.2290,5.2171,1.2322,-4.1209,-0.0385,6.3124,5.7772,-1.2647,-1.9463,8.4957,5.8794
2042.9688,1.4181,2.6145,9.8653,12.8818,11.6659,-4.4722,25.4491,14.4723,5.0564,5.7322,3.5448,-2.9351,1.2762,4.9814,5.8489,2.0176,-0.3995,7.7833,4.9028
2046.8750,-2.7107,-1.9615,8.5150,10.7299,10.1902,-4.6219,22.6422,13.4188,3.7920,5.9287,4.9950,-1.9385,1.2435,2.8640,6.2847,3.3416,0.2402,5.2819,2.7726
2050.7812,-2.8445,-5.8328,5.5639,7.7340,7.3922,-1.4243,15.6812,11.8078,2.9184,5.6649,4.8751,-1.3598,0.0655,0.9381,6.8437,1.7956,0.3018,2.2923,0.0046
2054.6875,-0.1064,-8.1780,2.0832,5.1018,4.9566,3.4424,7.7054,10.2319,2.7910,4.6093,3.4132,-0.8661,-1.2413,0.2194,6.7249,-1.7950,0.6153,0.1932,-2.4102
2058.5938,2.3054,-8.7657,-0.5609,3.4709,4.2026,7.2776,2.0122,8.8738,3.4686,2.5579,1.7276,0.1147,-1.5533,1.0182,5.3805,-5.1684,1.8327,-0.5039,-3.5981
2062.5000,1.5883,-7.7605,-1.6140,2.4996,5.1679,8.1771,0.3260,7.4032,4.7183,-0.1946,1.1157,1.8353,-0.4591,2.6272,3.2066,-5.9835,3.8206,-0.3802,-3.3865
2066.4062,-2.6133,-5.4783,-1.4030,1.3094,6.6161,6.2586,2.0497,5.3451,6.2255,-2.7658,2.1712,3.8828,1.4204,3.7303,1.4848,-3.3775,5.6239,-0.4911,-2.4199
2070.3125,-7.9897,-2.3087,-0.9844,-0.6254,6.9745,3.3782,4.9412,2.6288,7.8833,-4.0502,4.3835,5.3518,2.8705,3.2957,1.5509,1.3680,6.0867,-1.4350,-1.6803
2074.2188,-11.2264,1.2248,-1.2288,-2.9206,5.5071,1.6285,6.7454,-0.1596,9.9193,-3.3839,6.5266,5.4531,2.9678,1.3175,3.8077,5.5750,4.7072,-2.8661,-1.7390
2078.1250,-10.2791,4.4619,-2.0621,-4.5486,2.8438,1.8569,6.6704,-2.0889,12.6983,-1.0788,7.5501,4.1236,1.7513,-1.1605,7.3585,6.8711,2.0851,-3.8225,-2.3055
2082.0312,-5.6542,6.7888,-2.4842,-4.7135,0.4815,3.3644,5.7118,-2.5647,16.2950,1.5925,7.3047,2.1707,0.1717,-2.7921,10.5725,4.7020,-0.4114,-3.5772,-2.4394
2085.9375,0.1115,7.9207,-1.3761,-3.5869,-0.3381,4.8891,5.6530,-1.8409,20.1790,3.0550,6.5732,0.8063,-0.6415,-2.9079,12.1687,0.6442,-1.5575,-2.2945,-1.2877
2089.8438,4.2732,8.0528,1.5341,-2.2434,0.5022,5.8867,7.5398,-0.8974,23.3529,2.3750,6.4138,0.8779,-0.2275,-1.9870,12.0027,-2.6548,-1.1100,-0.9453,1.2093
2093.7500,5.6396,7.7263,5.3326,-1.7939,2.0352,6.9108,10.8119,-0.7034,24.9662,-0.1213,7.3435,2.3317,0.9002,-1.2454,10.9830,-3.1496,0.0547,-0.5389,4.2027
2097.6562,5.0599,7.4850,8.5134,-2.4056,3.0822,8.7698,13.7575,-1.4038,25.0102,-3.0028,8.9819,4.2826,1.7205,-1.6396,10.2281,-0.5640,0.6214,-1.2915,6.5243
2101.5625,4.4104,7.5789,10.0617,-3.0409,3.2212,11.3088,14.9148,-2.1010,24.5302,-4.6144,10.3870,5.6259,1.5630,-3.0542,10.1577,3.6353,-0.1621,-2.4141,7.5401
2105.4688,4.9304,7.9263,10.1655,-2.2039,3.0573,13.0810,14.2731,-1.4848,25.0760,-4.1276,10.7736,5.7427,0.6614,-4.3246,10.2268,7.2997,-1.9148,-2.7093,7.6021
2109.3750,6.1651,8.3290,9.9705,0.8337,3.5862,12.4176,13.2652,1.1022,27.6815,-2.0544,10.0352,4.8093,-0.0528,-4.1065,9.4746,8.8845,-3.4211,-1.5225,7.7304
2113.2812,6.2801,8.7248,10.5583,5.2837,5.2038,9.0916,13.5075,4.9808,32.0921,0.1323,8.6982,3.5435,0.2410,-1.9376,7.4054,8.1389,-3.5783,0.7010,8.7601
2117.1875,3.5009,9.2497,11.9814,9.2084,7.2141,5.0688,15.2973,8.4271,36.8533,1.0166,7.4189,2.6428,1.5021,1.3432,4.4813,5.9065,-2.2671,2.7059,10.6233
2121.0938,-2.3609,10.0633,13.1718,10.7949,8.2830,3.4426,17.1459,9.8182,40.2644,0.1915,6.4845,2.3673,2.7681,4.1710,1.8505,3.3750,-0.4719,3.3572,12.3463
2125.0000,-9.3902,11.1025,12.8441,9.6170,7.4992,6.1454,16.8490,8.8151,41.5252,-1.5136,5.7253,2.5465,2.8734,5.3993,0.5546,1.3843,0.4528,2.5049,12.7847
2128.9062,-14.4644,11.9881,10.6735,6.9335,5.1687,12.1917,13.3462,6.6727,41.2068,-2.6683,4.8526,2.9122,1.3921,5.1249,0.8510,0.1984,-0.1951,1.1129,11.5243
2132.8125,-15.0272,12.1769,7.7492,4.7808,2.6556,17.9866,7.8865,5.3678,40.6654,-2.2658,3.8628,3.4013,-0.9605,4.5276,2.1490,-0.2813,-1.9515,0.5399,9.2245
2136.7188,-10.6353,11.2597,5.8416,4.5123,1.3389,19.6977,3.4531,6.1271,40.8400,-0.3987,3.1099,4.1421,-2.8320,4.8310,3.5367,-0.1893,-3.5922,1.5064,7.1116
2140.6250,-3.3205,9.2044,5.9944,5.8574,1.4980,16.0158,2.7179,8.4385,41.3882,1.8678,2.9661,5.1636,-3.2802,6.2000,4.4221,0.4481,-4.1435,3.5237,6.0107
2144.5312,3.4527,6.4115,7.5675,7.1851,2.0404,9.1966,6.0043,10.3196,40.8828,3.2825,3.3786,6.1544,-2.5365,7.4831,4.7822,1.6218,-3.6899,5.2244,5.6961
2148.4375,6.6098,3.5791,8.5793,6.7677,1.3509,3.5101,10.8490,9.7122,37.9658,3.2395,3.7492,6.5713,-1.8439,7.0672,4.8986,3.1843,-3.3122,5.3603,5.1096
2152.3438,5.0105,1.4677,7.1982,4.1107,-1.3561,2.2008,13.6194,6.0196,32.5672,2.0547,3.2960,6.0792,-2.4423,4.2313,4.9003,4.8209,-4.1655,3.7385,3.3075
2156.2500,-0.1396,0.6456,3.2723,0.3825,-5.2387,5.2355,12.0787,0.6618,26.1981,0.5466,1.6403,4.9552,-4.4773,-0.0585,4.5600,6.1805,-6.4136,1.4052,0.3881
2160.1562,-6.1692,1.2664,-1.3367,-2.3514,-8.2587,9.5253,7.0096,-3.7860,21.0168,-0.6785,-0.8576,4.0435,-6.7217,-3.6011,3.5131,7.0420,-8.8946,-0.0675,-2.3800
2164.0625,-10.5313,2.9364,-3.9906,-2.5284,-8.5862,11.3973,1.6437,-5.2812,18.3326,-1.6464,-3.3143,4.1830,-7.4064,-4.4189,1.6642,7.3654,-9.8604,0.3060,-3.4143
2167.9688,-12.1490,4.7697,-3.2343,-0.1337,-5.9578,9.3668,-0.7340,-3.6400,17.6809,-2.8308,-4.9536,5.4857,-5.5938,-2.1927,-0.6267,7.1936,-8.2965,2.1986,-2.0609
2171.8750,-11.7686,5.7051,-0.0098,3.3094,-1.9657,5.0771,0.7569,-0.5768,17.1961,-4.5719,-5.6784,7.0479,-2.0546,1.3972,-2.7706,6.5092,-4.8292,4.1405,0.7242
2175.7812,-11.1886,5.0130,2.8565,5.7461,0.9688,1.7676,3.9235,1.5346,15.0214,-6.6223,-6.1390,7.4068,1.0726,3.7284,-4.3961,5.1882,-1.4826,4.4718,2.8383
2179.6875,-11.9053,2.7271,2.5969,5.8768,1.2120,1.5927,5.1592,1.2712,10.7056,-8.2180,-7.2315,5.5027,1.6748,2.9862,-5.6031,3.1122,-0.3785,2.4361,2.3895
2183.5938,-14.0387,-0.3100,-1.5076,3.8837,-1.0260,3.9769,2.2263,-0.9832,5.5542,-8.6184,-9.3879,1.4822,-0.8574,-0.6112,-6.7762,0.3717,-2.2776,-1.3010,-0.9824
2187.5000,-16.2021,-2.8949,-7.5428,1.2051,-3.9302,6.2892,-3.9073,-3.4666,1.7095,-7.6591,-12.1685,-3.2531,-5.1336,-4.9588,-8.1034,-2.5821,-6.0131,-5.0183,-5.7562
2191.4062,-16.3835,-4.1547,-12.2063,-0.3914,-5.3965,6.2059,-9.5734,-4.3469,0.6923,-5.8527,-14.4386,-6.8215,-8.6278,-7.4630,-9.2330,-4.9682,-9.2448,-6.9150,-9.4174
2195.3125,-13.2823,-3.9992,-12.9708,0.2048,-4.4565,3.7706,-10.9264,-2.9256,2.4909,-3.9574,-14.9980,-7.9387,-9.3111,-6.7094,-9.4079,-5.9267,-10.0145,-6.0628,-9.9894
2199.2188,-7.2595,-2.9898,-9.6188,2.9647,-1.8231,1.4312,-6.6770,0.0699,5.7943,-2.3771,-13.2454,-6.5640,-6.9193,-3.2842,-8.0235,-4.9139,-8.0149,-2.7790,-7.1885
2203.1250,-0.2975,-1.7268,-4.1283,6.8924,0.7423,2.0050,0.9320,3.1785,9.0531,-0.9018,-9.4842,-3.7236,-3.0091,0.7243,-5.1806,-2.0694,-4.7052,1.7062,-2.4848
2207.0312,5.0255,-0.2746,0.8555,10.6024,1.6889,6.2236,7.5949,5.2476,11.4598,0.9963,-4.7483,-0.7277,0.1640,3.0966,-1.7727,1.6564,-2.2497,5.9734,1.8799
2210.9375,6.9363,1.8463,3.7315,12.9079,0.6285,11.8649,9.7978,6.0351,13.1217,3.5691,-0.3146,1.5966,1.1050,2.7521,0.9992,4.7648,-2.0739,9.0432,4.1893
2214.8438,5.4051,5.0381,4.6057,13.1655,-1.6217,15.2271,7.0453,6.0286,14.4451,6.4221,2.8118,3.1346,-0.1318,0.1388,2.3476,5.8372,-4.0445,10.5980,4.0304
2218.7500,2.0757,8.8946,4.6081,11.3563,-3.7902,13.8463,1.9632,5.7915,15.4159,8.7090,4.2297,4.1428,-2.2662,-3.3376,2.3364,4.2733,-6.7610,10.8227,2.1754
2222.6562,-0.7339,12.0776,4.6349,8.0119,-5.0339,8.3804,-1.6718,5.4622,15.4864,9.7594,4.2226,4.7613,-3.8486,-6.2846,1.7395,0.7294,-8.6218,10.1190,-0.1623
2226.5625,-1.3253,13.0826,4.6405,4.0699,-5.3040,2.2354,-1.4894,4.8115,14.1769,9.6331,3.6082,4.8549,-4.2071,-7.9927,1.4690,-3.0809,-8.8297,8.9366,-2.0817
2230.4688,0.5703,11.4131,4.0101,0.6530,-5.0427,-0.7626,2.1143,3.7276,11.8117,9.1283,3.4019,4.2885,-3.6435,-8.4815,2.0217,-5.2228,-7.6590,7.7539,-3.2837
2234.3750,3.8967,8.2218,2.5506,-1.2453,-4.5912,1.0961,6.6267,2.6205,9.6443,9.2047,4.3726,3.3040,-2.8827,-8.1137,3.3271,-4.5983,-5.9394,7.0700,-3.8675
2238.2812,7.1271,5.7622,1.1055,-1.1055,-3.8466,6.4693,9.4180,2.3253,9.1320,10.2606,6.6478,2.5576,-2.3298,-7.2174,5.0218,-1.5871,-4.2925,7.2680,-3.9564
2242.1875,9.2571,5.8936,1.1519,0.9084,-2.4149,12.1504,9.5502,3.5371,10.8676,11.8297,9.5893,2.6935,-1.7486,-5.9879,6.8388,2.1757,-2.7497,8.3851,-3.5050
2246.0938,10.2965,8.6929,3.6599,4.0307,-0.0537,15.3255,8.1448,6.2336,14.0296,12.9411,12.0849,3.7966,-0.5451,-4.5948,8.7506,4.7971,-0.9727,9.9898,-2.3777
2250.0000,11.0098,12.2689,8.1719,7.2713,3.0225,15.1945,7.2130,9.5784,16.8425,12.8572,13.1647,5.2370,1.6692,-3.2331,10.7692,5.2784,1.2309,11.3481,-0.5295
2253.9062,12.1650,14.0252,12.9216,9.8981,6.2380,12.9318,7.9781,12.4131,17.7562,11.6071,12.5916,6.1237,4.7417,-1.9789,12.6292,4.0631,3.6069,11.8504,1.9271
2257.8125,13.8494,12.5003,15.9637,11.7426,9.0438,10.3255,9.9924,13.9730,16.4729,9.8984,11.0098,6.0451,8.1163,-0.5969,13.6979,2.6125,5.6280,11.4216,4.8145
2261.7188,15.3116,8.4225,16.4510,13.1386,11.2393,8.3626,11.6540,14.2813,14.0644,8.4902,9.4913,5.4667,11.2568,1.4212,13.2625,2.3175,6.9471,10.5862,7.9968
2265.6250,15.4064,4.1744,15.0734,14.5375,12.9562,6.8475,11.6365,13.9389,12.1242,7.5406,8.7517,5.3823,13.9418,4.4757,11.0189,3.5175,7.6874,10.0785,11.3468
2269.5312,13.3220,2.0777,13.3595,16.0559,14.3505,5.1333,10.0848,13.5110,11.6314,6.4598,8.5964,6.4267,16.1825,8.3620,7.3982,5.3095,8.2913,10.2401,14.5862
2273.4375,9.1219,2.8164,12.4576,17.2607,15.3095,3.1098,8.6530,13.0249,12.3829,4.3974,8.0490,8.1581,17.8904,12.0824,3.4652,6.2398,9.0612,10.6546,17.1896
2277.3438,3.7949,5.1841,12.3942,17.3463,15.4606,1.4921,9.3501,11.9836,13.3636,0.9913,6.1322,9.1608,18.6664,14.2260,0.4276,5.3300,9.8132,10.3396,18.5298
2281.2500,-1.1666,7.2641,12.3460,15.6065,14.4877,1.1933,13.0293,9.8723,13.6793,-3.2026,2.7556,8.0026,17.9707,13.7509,-0.9377,2.6810,9.9721,8.4186,18.2302
2285.1562,-4.3888,8.0000,11.5745,11.9116,12.4744,2.4243,18.5997,6.7248,13.2747,-6.9352,-0.9766,4.3711,15.5712,10.6513,-0.5979,-0.7280,9.0459,4.8075,16.4674
2289.0625,-5.1132,7.8406,10.1264,6.8836,9.9503,4.4068,23.5094,3.2675,12.8933,-8.9915,-3.3449,-0.5010,11.8761,6.0104,0.8335,-3.7895,7.0713,0.3908,13.9371
2292.9688,-3.3866,7.9669,8.6609,1.6409,7.5569,6.0022,25.1778,0.4920,13.3777,-8.9041,-3.1414,-4.5284,7.8128,1.3608,2.4927,-5.9167,4.6321,-3.4972,11.4365
2296.8750,0.0539,8.8505,7.5901,-2.7583,5.5768,6.7119,22.4445,-1.0371,14.9249,-7.1757,-0.5647,-6.1412,4.2762,-2.2298,3.6994,-7.1062,2.4095,-5.9573,9.3306
2300.7812,4.0796,9.4913,6.3861,-5.8527,3.6985,7.1330,16.1511,-1.6130,16.9043,-4.9032,2.7796,-5.3437,1.5461,-4.7199,4.2094,-7.4852,0.6320,-7.1428,7.3023
2304.6875,7.5255,8.1176,3.8070,-7.9726,1.2253,8.4029,8.5775,-2.2136,18.3631,-3.1084,4.8217,-3.6688,-0.8639,-6.9298,4.2130,-6.8740,-1.1045,-8.1300,4.6080
2308.5938,9.5111,3.8521,-1.0066,-9.9586,-2.4017,11.0514,2.1773,-3.8259,18.7969,-2.2313,4.3020,-3.0444,-3.7805,-9.8002,4.1420,-4.8612,-3.4731,-10.0916,0.6831
2312.5000,9.6591,-2.0701,-7.4416,-12.5566,-7.1342,14.2418,-1.5862,-6.7344,18.5822,-2.0601,1.5246,-4.4001,-7.6715,-13.6190,4.4005,-1.3833,-6.7879,-13.3438,-4.3303
2316.4062,8.1500,-6.6892,-13.3274,-15.8480,-12.2287,16.1234,-2.6751,-10.2606,18.7552,-2.0402,-1.8947,-7.0338,-12.1981,-17.7542,5.1293,2.7302,-10.6249,-16.9650,-9.5204
2320.3125,5.5761,-7.2083,-16.1127,-19.0736,-16.5886,15.1290,-2.0858,-13.1223,20.3178,-1.6842,-4.0827,-9.1859,-16.3639,-21.0402,6.0883,5.8575,-14.0160,-19.2999,-13.6635
2324.2188,2.6477,-3.0115,-14.5342,-20.9848,-19.2967,11.2439,-1.0235,-14.1582,23.5611,-0.8234,-4.0413,-9.3666,-19.1497,-22.5047,6.7249,6.4474,-16.0868,-19.0329,-15.8850
2328.1250,-0.0977,3.7574,-9.5351,-20.5302,-19.9933,6.2297,-0.2010,-12.9398,27.8342,0.3753,-2.1397,-7.4412,-20.1676,-21.9230,6.4370,4.0886,-16.6521,-16.0958,-16.0782
2332.0312,-2.4123,9.5674,-3.6977,-17.4637,-18.9101,2.5562,0.3795,-9.9075,31.8534,1.5415,0.2694,-4.6902,-19.8620,-19.8660,4.9359,-0.0523,-16.3149,-11.7706,-14.8301
2335.9375,-4.2175,11.8343,0.4373,-12.4991,-16.6133,1.7900,1.1700,-6.0071,34.3192,2.2618,1.7582,-2.8441,-19.1368,-17.2831,2.5117,-3.8630,-16.0001,-7.9067,-12.9634
2339.8438,-5.3731,10.4899,1.9451,-6.9198,-13.6802,3.6192,2.6245,-2.1200,34.4952,2.2192,1.6250,-2.8420,-18.7033,-14.9530,0.0028,-5.6238,-16.2815,-5.7862,-11.0487
2343.7500,-5.5777,7.6747,1.8545,-1.9054,-10.5088,6.2206,4.8633,1.3280,32.4941,1.3097,0.1272,-4.2197,-18.6243,-13.1512,-1.5823,-5.1068,-16.9947,-5.4084,-9.2080
2347.6562,-4.5670,5.9066,2.0680,1.9822,-7.3159,7.6584,7.6076,4.3663,29.1891,-0.2839,-1.8781,-5.5246,-18.3458,-11.6671,-1.6127,-3.6130,-17.3854,-5.6602,-7.2709
2351.5625,-2.5249,6.2156,3.7494,4.8362,-4.2401,7.2375,10.3319,7.1585,25.8056,-2.1325,-3.5464,-5.3931,-17.1437,-10.0576,-0.2231,-2.9005,-16.6323,-5.2162,-5.0920
2355.4688,-0.3746,7.6499,6.4166,6.9997,-1.4296,5.7999,12.4797,9.6346,23.3431,-3.7578,-4.4994,-3.4855,-14.6326,-7.9244,1.7254,-3.7937,-14.3441,-3.5187,-2.7597
2359.3750,0.4001,8.3748,8.3674,8.5704,0.9382,4.8030,13.6133,11.3528,22.0595,-4.9050,-4.9062,-0.6504,-10.9972,-5.0717,3.1168,-5.5222,-10.7133,-1.1630,-0.5683
2363.2812,-1.5256,7.3083,8.0212,9.2257,2.6911,4.9679,13.4621,11.6940,21.2962,-5.6972,-5.2444,1.7135,-6.8463,-1.5350,3.2011,-6.2936,-6.3159,0.5468,1.1700
2367.1875,-6.4102,4.9048,5.0911,8.5130,3.7099,5.6116,11.9089,10.2598,19.8257,-6.5029,-5.9474,2.5757,-2.8566,2.4518,1.9743,-4.6763,-1.7978,0.5294,2.2970
2371.0938,-12.9579,2.5368,0.7245,6.3680,3.9694,5.2135,8.9693,7.2153,16.6321,-7.5602,-7.1344,1.8346,0.5212,6.5035,0.0834,-0.7566,2.3040,-1.3136,2.8408
2375.0000,-18.6983,1.1608,-3.3949,3.4160,3.5692,2.7732,4.7890,3.3405,11.6991,-8.6333,-8.5335,0.2168,3.1334,10.1421,-1.6585,3.7935,5.5530,-4.0146,2.9245
2378.9062,-21.1647,0.5276,-6.2020,0.7521,2.7359,-1.1408,-0.3409,-0.2720,6.2538,-9.0277,-9.6160,-1.2987,4.9950,12.8814,-2.8076,6.7859,7.5559,-6.1580,2.6531
2382.8125,-19.2399,-0.3658,-7.7792,-0.7061,1.7567,-4.5399,-5.9608,-2.7240,2.1763,-8.0500,-9.8955,-2.0787,6.1132,14.3154,-3.5243,6.9446,8.0109,-6.7607,2.0602
2386.7188,-13.8457,-2.0511,-8.9696,-0.8411,0.8345,-5.3327,-11.4262,-3.7445,0.8443,-5.6297,-9.2652,-2.0860,6.3961,14.1743,-4.3734,4.6796,6.8562,-5.8353,1.1195
2390.6250,-7.4997,-3.7930,-10.5318,-0.4611,-0.0698,-2.8528,-15.9294,-3.7949,2.1569,-2.6090,-8.1860,-1.7236,5.6870,12.3358,-5.8504,1.7063,4.3672,-4.3025,-0.2262
2394.5312,-2.9654,-4.0608,-12.5746,-0.7882,-1.2833,1.5655,-18.6137,-3.7735,4.4698,-0.3823,-7.5480,-1.4820,3.8761,8.8371,-7.9564,-0.1510,1.0648,-3.3614,-2.0422
2398.4375,-1.8030,-1.9571,-14.6572,-2.6380,-3.2590,5.4410,-18.8121,-4.4815,5.5977,-0.0350,-8.1924,-1.6533,1.0189,3.9320,-10.0928,-0.1019,-2.5279,-3.7518,-4.3637
2402.3438,-3.6900,1.6378,-16.3095,-5.8541,-6.2522,6.8284,-16.3635,-6.1570,4.2650,-1.5596,-10.3291,-2.2501,-2.5908,-1.8233,-11.3360,1.2657,-6.0851,-5.3688,-7.1191
2406.2500,-6.8711,4.3208,-17.4050,-9.3881,-10.0265,5.5887,-11.8538,-8.3506,0.9949,-3.7535,-13.2434,-3.0970,-6.4235,-7.5640,-10.9317,2.5522,-9.4583,-7.4230,-10.0490
2410.1562,-9.3558,3.8032,-18.0436,-11.9569,-13.8130,3.3045,-6.5840,-10.2061,-2.2354,-4.9561,-15.5790,-3.9859,-9.8178,-12.2975,-8.7417,2.5168,-12.4644,-8.9901,-12.7076
2414.0625,-10.0411,-0.2861,-18.1364,-12.8028,-16.6037,1.9245,-2.1599,-10.9586,-3.3832,-4.1663,-16.1158,-4.8034,-12.1796,-15.2574,-5.4097,0.7651,-14.7052,-9.5740,-14.6052
2417.9688,-9.0703,-5.8988,-17.2063,-12.0378,-17.6316,2.1986,0.1819,-10.3326,-1.8082,-1.7649,-14.5702,-5.5863,-13.2166,-16.2430,-2.1499,-2.2085,-15.6466,-9.3451,-15.4444
2421.8750,-7.3436,-9.8721,-14.7208,-10.3823,-16.7375,3.1364,0.1863,-8.6061,1.2235,0.6941,-11.8489,-6.4971,-13.0834,-15.7007,-0.2348,-5.4885,-14.9633,-8.9479,-15.2914
2425.7812,-5.6906,-10.1292,-10.7382,-8.5606,-14.3899,2.9258,-1.2476,-6.3448,3.3643,1.5029,-9.5171,-7.7236,-12.3268,-14.4382,-0.4043,-8.2949,-12.8878,-9.0420,-14.5383
2429.6875,-4.3784,-7.1308,-6.2662,-6.8386,-11.3559,0.5893,-2.5127,-4.0316,2.7458,-0.0717,-8.7990,-9.3429,-11.6200,-13.1262,-2.4832,-10.2839,-10.2460,-9.8835,-13.6524
2433.5938,-3.2613,-3.4853,-2.8917,-5.0252,-8.2613,-2.9700,-2.1774,-1.8620,-0.8279,-3.3352,-9.8010,-11.2333,-11.4240,-11.9278,-5.4353,-11.5323,-8.0744,-11.1986,-12.8810
2437.5000,-2.3048,-2.0310,-1.8258,-2.8649,-5.3350,-5.4541,0.1739,0.1808,-5.8506,-6.6755,-11.5234,-13.1120,-11.7828,-10.5268,-7.8765,-12.3583,-7.0545,-12.3957,-12.1326
2441.4062,-1.9098,-3.8448,-3.0482,-0.4376,-2.4714,-4.9185,3.6547,2.0954,-10.1806,-8.6385,-12.6551,-14.7022,-12.3795,-8.5357,-8.8072,-13.1298,-7.1659,-12.9504,-11.1238
2445.3125,-2.6685,-7.6286,-5.2316,1.7923,0.5045,-1.4649,6.5576,3.7182,-12.3711,-8.7920,-12.5555,-15.9114,-12.7954,-5.9583,-8.1485,-14.0984,-7.8099,-12.7024,-9.6669
2449.2188,-4.7235,-10.8184,-6.5625,3.3253,3.6180,2.5025,7.3575,4.8172,-12.3373,-7.8095,-11.6765,-16.8644,-12.7654,-3.3216,-6.7349,-15.2460,-8.2929,-11.8804,-7.8486
2453.1250,-7.3136,-11.4617,-5.8822,4.0721,6.7380,3.8136,5.6587,5.3507,-11.0173,-6.8105,-11.1089,-17.7274,-12.2382,-1.3487,-5.7337,-16.2041,-8.2842,-10.8681,-5.9404
2457.0312,-9.0112,-9.4281,-3.3215,4.5054,9.7350,0.8429,2.5210,5.6454,-9.4505,-6.5251,-11.6222,-18.4476,-11.2259,-0.4155,-5.8484,-16.3866,-7.9049,-9.9017,-4.1151
2460.9375,-8.6120,-6.1690,-0.0047,5.3620,12.6029,-5.1046,-0.0466,6.2853,-8.0519,-6.9114,-12.9738,-18.6421,-9.6201,-0.2379,-6.8473,-15.3898,-7.4260,-8.9275,-2.2324
2464.8438,-6.0606,-3.4170,2.8738,7.0984,15.3850,-10.4392,-0.1478,7.7291,-6.5716,-7.4328,-14.0497,-17.7872,-7.1899,-0.0666,-7.7599,-13.4576,-6.8860,-7.7222,0.0798
2468.7500,-2.6673,-1.9606,4.8341,9.4999,17.9511,-11.6145,2.9716,9.9102,-4.6137,-7.6699,-13.7284,-15.6117,-3.8149,0.7299,-7.6164,-11.6076,-5.9889,-6.1748,3.0660
2472.6562,-0.3478,-1.3945,6.1627,11.7311,19.8468,-7.5285,8.4815,12.1320,-2.1610,-7.7132,-11.7741,-12.3842,0.2272,2.1465,-6.1891,-11.1242,-4.3802,-4.4965,6.4832
2476.5625,-0.3529,-0.8386,7.2861,12.7858,20.4178,-0.2919,14.3262,13.3759,0.3547,-8.0239,-9.0272,-8.8197,4.1980,3.5051,-4.1673,-12.5786,-2.0444,-3.1730,9.5651
2480.4688,-2.3959,0.1615,8.0966,12.0227,19.1943,6.1868,18.1697,12.8494,2.4402,-8.9266,-6.7308,-5.6144,7.1931,3.9524,-2.6052,-15.0296,0.5569,-2.6649,11.4060
2484.3750,-4.8392,1.3586,7.8836,9.4471,16.2794,8.7789,18.4425,10.4218,3.9899,-10.2040,-5.5317,-2.9521,8.6445,3.1152,-2.0499,-16.1391,2.7684,-3.0637,11.5267
2488.2812,-5.8402,2.2928,5.9812,5.6252,12.4302,7.0447,15.0036,6.6778,5.3950,-11.1581,-4.9674,-0.3990,8.6786,1.4054,-2.0310,-13.4159,4.2300,-3.9635,10.2145
2492.1875,-4.6331,2.9675,2.5898,1.3755,8.7201,3.1856,9.1585,2.5877,7.2565,-11.0921,-3.8607,2.6716,8.0495,-0.2617,-1.3499,-5.9529,5.1512,-4.6608,8.3716
2496.0938,-2.0025,4.0019,-0.9705,-2.5164,5.9809,0.2112,3.0761,-0.9568,9.9955,-9.8097,-1.3016,6.4303,7.6638,-1.1113,1.0078,4.5180,6.1078,-4.5578,6.9699
2500.0000,0.3916,6.0772,-2.8927,-5.4298,4.3961,-0.2305,-1.1181,-3.4417,13.6906,-7.7200,2.5811,10.2542,8.0183,-1.0162,5.0167,14.1677,7.5025,-3.4943,6.4986
2503.9062,1.3097,9.1717,-2.0068,-6.9419,3.5164,1.2283,-2.1915,-4.7396,18.2027,-5.4766,6.6843,13.0361,8.9341,-0.4904,9.4860,19.1068,9.1289,-1.7865,6.7867
2507.8125,0.8429,12.3073,1.4256,-6.8896,2.6615,2.5483,-0.2560,-4.9398,23.3506,-3.4707,9.7639,13.9554,9.7446,-0.2177,12.7972,17.7192,10.2193,0.0252,7.2819
2511.7188,0.2287,14.0990,5.8476,-5.4905,1.4031,2.1086,3.3658,-4.2095,28.8823,-1.6169,11.3351,13.1108,9.7581,-0.5226,13.9712,11.7347,9.9667,1.5072,7.5219
2515.6250,0.7180,13.7107,9.3861,-3.3939,-0.2072,-0.0061,6.8142,-2.7976,34.2591,0.3890,11.8837,11.4681,8.6377,-1.2073,13.2641,5.2141,8.1175,2.4933,7.4115
2519.5312,2.3901,11.4644,10.9633,-1.5017,-1.7761,-2.2064,8.6105,-1.1049,38.5483,2.5629,12.2231,10.1097,6.4598,-1.8370,11.8478,2.0179,5.1669,2.9894,7.1255
2523.4375,3.8818,8.6282,10.7645,-0.5491,-2.9001,-2.8052,8.3761,0.3503,40.7032,4.3295,12.5660,9.3662,3.5059,-2.1696,10.8386,3.4100,2.0148,2.9657,6.7913
2527.3438,3.3004,6.5631,9.8015,-0.6649,-3.3968,-1.4209,6.9565,1.1506,40.1685,4.7231,12.1524,8.5695,0.0574,-2.3146,10.4452,7.4161,-0.6223,2.2751,6.2954
2531.2500,-0.3312,5.8935,9.0006,-1.2282,-3.2770,0.7447,5.8477,1.2586,37.3747,2.9990,9.8288,6.7027,-3.5903,-2.4757,9.9049,10.3699,-2.5566,0.8146,5.4248
2535.1562,-6.1932,6.2889,8.5561,-1.1823,-2.5522,1.9098,6.2176,1.1212,33.6557,-0.7729,5.1646,3.4724,-6.9427,-2.5320,8.2423,9.5587,-3.9808,-1.1932,4.2280
2539.0625,-12.0581,6.9206,8.0122,0.3436,-1.1187,1.1267,8.1014,1.4498,30.5234,-5.5703,-0.8187,-0.0933,-9.2218,-1.8966,5.2199,5.1085,-5.0134,-3.0755,3.2398
2542.9688,-15.7163,7.1462,6.9133,3.4936,1.1229,-1.0285,10.2990,2.7741,28.7566,-9.8612,-5.9970,-2.1263,-9.6173,0.1207,1.6891,-0.1972,-5.4031,-3.9365,3.2868
2546.8750,-16.4197,6.8794,5.4132,7.5813,3.9989,-2.9739,11.1028,5.0671,27.9725,-12.3578,-8.4361,-1.2460,-7.8110,3.6646,-0.9708,-2.9872,-4.7109,-3.1597,4.9354
2550.7812,-15.2902,6.4520,4.2999,11.4850,6.9057,-3.3486,9.4526,7.7197,27.0222,-12.6224,-7.7181,2.2404,-4.4009,7.9187,-1.9034,-1.7320,-2.8434,-0.8573,7.9811
2554.6875,-14.3971,6.2101,4.4060,14.2697,8.9801,-1.9445,5.7904,9.9050,24.9274,-11.1916,-5.2972,6.2599,-0.8176,11.3331,-1.4795,2.2266,-0.4476,2.0859,11.4074
2558.5938,-15.1728,6.2443,5.8945,15.6252,9.5524,0.3249,2.0169,11.0841,21.6521,-9.2031,-3.5632,8.2315,1.3572,12.4406,-1.0692,5.7598,1.2671,4.4704,13.9240
2562.5000,-17.3234,6.4395,8.0213,15.8727,8.5842,2.2606,0.4870,11.3004,18.1357,-7.7832,-4.2437,6.8492,1.3021,10.7476,-2.0153,6.3124,1.2616,5.4828,14.7420
2566.4062,-19.0176,6.7011,9.5894,15.6012,6.7527,3.2551,2.6026,11.0649,15.5945,-7.5316,-7.2745,3.1000,-0.5082,7.0857,-4.5710,3.7866,-0.5580,5.1808,14.0363
2570.3125,-18.2167,7.0755,9.7489,15.2294,5.0723,3.5334,7.8572,10.9345,14.6615,-8.3188,-10.9265,-0.2913,-2.5557,3.1615,-7.6163,0.5723,-3.1432,4.4253,12.7406
2574.2188,-14.1916,7.6401,8.5163,14.7785,4.2732,3.7015,13.9511,11.0957,15.0184,-9.4316,-13.0617,-0.6785,-3.2136,0.5872,-9.3922,-0.2766,-4.9133,4.2800,11.8061
2578.1250,-8.1625,8.2983,6.6087,13.9383,4.3406,4.1231,17.9579,11.2399,15.7383,-9.9594,-12.5942,2.6744,-1.7842,0.0074,-8.7416,2.6323,-4.7895,5.2634,11.4508
2582.0312,-2.6226,8.7148,4.7384,12.3044,4.5196,4.6861,17.8787,10.7870,15.9754,-9.2552,-10.1351,8.0360,1.0302,0.8451,-5.9705,7.8982,-2.9268,6.9439,10.9450
2585.9375,0.1793,8.4817,2.9556,9.6056,3.7763,5.0687,13.6790,9.2714,15.4179,-7.2830,-7.4450,12.3154,3.5215,1.7543,-2.7223,12.1949,-0.6146,8.1499,9.0969
2589.8438,-0.4178,7.3819,0.6002,5.8311,1.4161,5.1268,7.2132,6.6256,14.2073,-4.6831,-6.1833,13.0443,3.9713,1.4321,-0.9593,12.5014,0.5791,7.6773,5.1034
2593.7500,-3.1759,5.5332,-3.0565,1.2823,-2.5190,4.9689,1.1081,3.2134,12.5406,-2.4697,-6.8851,9.8558,1.6144,-0.7142,-1.7534,8.1146,-0.1973,5.0586,-0.8226
2597.6562,-5.8220,3.3291,-7.9669,-3.4172,-7.2779,4.6675,-2.7141,-0.3470,10.4385,-1.4565,-8.8307,4.4903,-2.9979,-4.3693,-4.6761,1.0761,-2.6375,0.9223,-7.4676
2601.5625,-6.4851,1.2780,-12.9618,-7.3979,-11.7818,3.9780,-4.0035,-3.4235,7.9321,-1.7106,-10.7547,-0.5547,-8.3841,-8.5772,-8.1358,-5.1937,-5.6429,-3.2832,-13.2488
2605.4688,-4.7926,-0.1200,-16.2750,-9.7921,-15.1030,2.4555,-4.1035,-5.5560,5.4389,-2.4087,-11.7636,-3.6807,-12.9540,-12.2349,-10.3756,-8.0287,-8.1525,-6.0512,-17.0297
2609.3750,-1.9915,-0.4510,-16.6592,-10.1406,-16.7889,-0.0575,-4.9233,-6.5648,3.8217,-2.2851,-11.7817,-4.9824,-15.7437,-14.5439,-10.4651,-6.9612,-9.7898,-6.6331,-18.6065
2613.2812,-0.0846,0.4612,-14.3263,-8.7484,-16.9205,-3.0381,-7.6108,-6.5985,3.8740,-0.4810,-11.3138,-5.7424,-16.6831,-15.2588,-8.7074,-3.6314,-10.8891,-5.4448,-18.6066
2617.1875,-0.5431,2.2878,-10.9886,-6.6861,-15.9512,-5.4593,-11.7348,-6.1056,5.5415,2.7407,-10.8572,-7.1645,-16.3572,-14.6934,-6.3049,-0.4412,-11.9727,-3.8215,-17.9412
2621.0938,-3.3555,4.0081,-8.8683,-5.2820,-14.4409,-6.5132,-15.4624,-5.6680,7.5732,5.9589,-10.5015,-9.3804,-15.5081,-13.5107,-4.5777,0.9701,-13.1661,-3.2417,-17.2019
2625.0000,-6.9451,4.1426,-9.2738,-5.3137,-12.7970,-6.3003,-16.6281,-5.6933,8.0829,7.3822,-9.9978,-11.4427,-14.6045,-12.3665,-4.2326,0.4019,-14.0306,-4.4443,-16.3671
2628.9062,-8.9984,1.5304,-11.7000,-6.4142,-11.1042,-5.8263,-14.0593,-6.1014,5.7882,6.0209,-9.1402,-12.2029,-13.6841,-11.5469,-5.0710,-1.3364,-13.9234,-6.9500,-14.9400
2632.8125,-7.7587,-3.7232,-14.1079,-7.1813,-9.1078,-6.1966,-8.3715,-6.2463,1.0573,2.4626,-8.0561,-11.3122,-12.4804,-10.7981,-6.2366,-3.3974,-12.5615,-9.2923,-12.3729
2636.7188,-3.0876,-9.8644,-14.2619,-6.0454,-6.3907,-7.6309,-1.7424,-5.2366,-4.1031,-1.3430,-7.1355,-9.5525,-10.7060,-9.5042,-6.8121,-5.5635,-10.3307,-9.8687,-8.4978
2640.6250,3.3086,-14.2205,-11.2622,-2.3941,-2.7039,-9.1708,3.2283,-2.5498,-7.2540,-3.2347,-6.6820,-8.2809,-8.3232,-7.1716,-6.4145,-8.1668,-8.0974,-7.9340,-3.7324
2644.5312,8.6677,-14.8187,-6.2360,2.8181,1.7038,-9.4313,4.9302,1.4403,-7.1396,-2.2037,-6.6270,-8.4477,-5.6644,-3.9345,-5.4523,-11.4850,-6.6768,-4.1280,1.0220
2648.4375,10.6032,-11.8656,-1.6876,7.4703,5.9787,-7.8407,3.6010,5.4440,-4.5451,0.9454,-6.5800,-9.9347,-3.3391,-0.6980,-4.8823,-15.2275,-6.3457,-0.1769,4.7207
2652.3438,8.4031,-7.9130,0.0903,9.4969,8.9235,-5.3096,1.1183,7.8710,-1.7367,4.1064,-6.1842,-11.6651,-1.9574,1.2706,-5.5726,-18.5586,-6.7236,2.0937,6.5886
2656.2500,3.4257,-6.3362,-1.5147,8.1397,9.5529,-3.6586,-0.1641,7.7514,-0.8641,5.2235,-5.4717,-12.3526,-1.7984,1.1019,-7.6269,-20.5974,-7.0574,1.8310,6.4239
2660.1562,-1.6887,-9.0077,-5.0827,4.3684,7.6454,-4.1593,1.1459,5.3517,-2.4863,3.5769,-4.9036,-11.3323,-2.6147,-1.0769,-10.1099,-20.9300,-6.6769,-0.3805,4.6537
2664.0625,-4.5605,-14.8072,-8.1682,0.1660,3.9306,-6.3588,4.6245,2.0210,-5.2858,0.1533,-5.0432,-8.9254,-3.7186,-4.1654,-11.4271,-19.7087,-5.3267,-2.9856,2.1061
2667.9688,-4.4242,-20.1739,-8.9747,-2.8218,-0.2542,-8.2304,8.2699,-0.6824,-7.1347,-3.0983,-6.1123,-6.1715,-4.3438,-6.7774,-10.2199,-17.3130,-3.2206,-4.5492,-0.3991
2671.8750,-2.4328,-21.4832,-7.5358,-4.3182,-3.6636,-7.6626,9.6834,-2.0038,-6.6702,-4.5603,-7.7726,-4.1835,-4.0891,-8.1343,-6.2548,-13.9378,-0.8652,-4.7264,-2.4294
2675.7812,-0.7196,-17.6266,-5.5904,-5.4073,-5.7698,-4.1719,7.4779,-2.4360,-4.1905,-3.8953,-9.2994,-3.5601,-3.1600,-8.5187,-0.7109,-9.5203,1.1925,-4.4279,-4.0716
2679.6875,-0.8724,-10.9118,-5.2603,-7.5296,-6.9198,0.5329,2.0771,-3.2710,-1.2607,-2.0706,-10.0115,-4.1636,-2.2336,-8.9513,4.3951,-4.0900,2.5620,-5.0679,-5.7332
2683.5938,-2.8927,-5.5508,-7.4831,-11.2570,-7.9379,3.6521,-4.5325,-5.5830,0.5733,-0.5680,-9.6512,-5.3001,-2.0202,-10.3388,7.3331,1.7829,3.0998,-7.4447,-7.7390
2687.5000,-5.3710,-4.7745,-11.3225,-15.7698,-9.4715,3.2592,-9.8949,-9.3889,0.9135,-0.4228,-8.4741,-6.1295,-2.8165,-12.7467,7.6132,6.8920,2.9006,-11.0893,-10.0020
2691.4062,-6.7186,-8.6522,-14.6339,-19.4180,-11.5442,-0.3743,-12.3375,-13.6026,0.6319,-1.7515,-7.0408,-6.0797,-4.3598,-15.3554,6.1305,9.8451,2.2059,-14.5723,-12.0114
2695.3125,-6.4924,-14.1882,-15.5845,-20.9276,-13.6130,-5.0883,-11.6725,-16.8070,0.9870,-3.9630,-5.9015,-5.1019,-6.0727,-17.1085,4.4176,9.8141,1.2596,-16.5446,-13.1629
2699.2188,-5.7667,-17.5731,-13.9159,-20.3300,-15.0433,-8.4708,-9.0375,-18.2519,2.5295,-6.3273,-5.3806,-3.6890,-7.4966,-17.5122,3.5637,7.0749,0.1707,-16.7201,-13.2010
2703.1250,-6.2258,-16.8716,-11.0431,-18.9140,-15.6115,-9.4852,-6.0993,-18.3228,4.7035,-8.3857,-5.5383,-2.6515,-8.5720,-16.9318,3.5974,2.9512,-1.1221,-16.0440,-12.4401
2707.0312,-8.6654,-13.1599,-8.9543,-18.2418,-15.6405,-8.8365,-4.1574,-18.1333,6.4290,-9.9463,-6.2348,-2.7235,-9.5591,-16.1601,3.7615,-0.8280,-2.7347,-15.9100,-11.5778
2710.9375,-12.1036,-9.3689,-8.7520,-18.9765,-15.6763,-7.9296,-3.6282,-18.5701,7.1273,-10.8255,-7.1948,-4.1660,-10.6922,-15.6519,3.4058,-2.9685,-4.6279,-17.0302,-11.2138
2714.8438,-14.2867,-7.8641,-9.9204,-20.3952,-15.9771,-7.4490,-4.0690,-19.5378,7.3052,-10.7144,-8.0455,-6.5826,-11.8834,-15.1019,2.7238,-3.1683,-6.4754,-18.8367,-11.4181
2718.7500,-13.3140,-8.6973,-10.8345,-20.9383,-16.2367,-6.8369,-4.5823,-19.9913,8.2041,-9.3719,-8.3878,-9.0907,-12.7488,-13.7527,2.6900,-2.1326,-7.7612,-19.8930,-11.6728
2722.6562,-9.1967,-9.8364,-10.0810,-19.3678,-15.7807,-5.0836,-4.3147,-18.7373,10.8005,-6.9835,-7.9461,-10.7857,-12.9454,-11.1775,4.2073,-1.1173,-8.1006,-18.9999,-11.2406
2726.5625,-4.1374,-9.0527,-7.5660,-15.6718,-14.0991,-2.0302,-2.8353,-15.3942,14.9775,-4.2967,-6.7365,-11.2244,-12.5270,-7.8438,7.1605,-1.2838,-7.5695,-16.1362,-9.6969
2730.4688,-1.2230,-5.8490,-4.5705,-11.0636,-11.3128,1.0909,-0.3112,-10.7796,19.5420,-2.2986,-5.1111,-10.6004,-11.9871,-4.9139,10.2029,-3.1576,-6.7653,-12.4922,-7.2381
2734.3750,-2.4041,-1.8632,-2.7371,-7.1176,-8.2094,2.4831,2.5350,-6.4301,23.0810,-1.5936,-3.5804,-9.4814,-11.9090,-3.3776,11.5551,-6.3646,-6.4844,-9.5684,-4.5474
2738.2812,-7.1890,0.5167,-2.7877,-4.7088,-5.8035,1.3299,4.6922,-3.6133,24.9845,-1.9477,-2.4830,-8.2979,-12.4853,-3.2221,10.2800,-9.7065,-7.1978,-8.0465,-2.3327
2742.1875,-12.9816,0.1269,-3.9649,-3.5403,-4.7337,-1.3088,5.3184,-2.5587,25.8387,-2.3961,-1.7259,-6.9773,-13.3103,-3.3790,7.0628,-11.5745,-8.7043,-7.3226,-0.8950
2746.0938,-16.8039,-2.0421,-4.6213,-2.5686,-4.9258,-3.1398,4.2230,-2.4563,26.8926,-1.8961,-0.8195,-5.0286,-13.6556,-2.5923,3.8449,-10.6222,-10.2496,-6.0734,-0.0482
2750.0000,-17.1675,-3.6830,-3.4996,-0.9623,-5.7536,-2.4116,2.0864,-2.1847,29.0149,-0.0733,0.7626,-2.0336,-13.0504,-0.5683,2.5199,-6.4805,-11.0638,-3.4042,0.5726
2753.9062,-14.8043,-3.0349,-0.7289,1.1495,-6.5542,0.6049,0.1732,-1.1995,31.9379,2.4871,3.1221,1.8393,-11.7164,1.5392,3.6283,-0.1593,-10.9307,0.3326,1.0848
2757.8125,-11.8533,-0.2222,2.2123,2.7008,-7.1014,3.6962,-0.4163,0.0821,34.3534,4.6277,5.7129,5.7358,-10.4899,1.8034,6.0187,6.1920,-10.3484,3.7048,1.1765
2761.7188,-10.2197,2.9949,3.5309,2.4613,-7.6819,4.3691,0.4663,0.6617,34.7899,5.4022,7.5659,8.5729,-10.2444,-1.0448,7.7315,10.2108,-10.1274,5.2404,0.3339
2765.6250,-10.3340,4.7823,2.3866,-0.0088,-8.7304,1.8091,1.7749,-0.2062,32.6399,4.6858,7.8654,9.7528,-11.2183,-6.4764,7.4473,10.5429,-10.7097,4.5399,-1.6820
2769.5312,-11.1185,4.7603,-0.5224,-3.9043,-10.3176,-2.4226,1.8842,-2.3601,28.6261,3.1881,6.5147,9.6085,-12.7486,-12.2169,5.4258,7.6728,-11.7261,2.6121,-4.4830
2773.4375,-11.0033,4.2340,-3.4354,-7.5372,-11.9049,-5.5092,-0.2246,-4.7355,24.4065,1.9007,4.2995,9.2195,-13.6196,-15.5420,3.2559,3.7947,-12.1492,1.1820,-7.1173
2777.3438,-9.1132,4.9749,-4.6849,-9.2698,-12.5862,-5.4200,-4.0092,-6.0192,21.6118,1.4181,2.4981,9.6962,-12.7956,-14.9424,2.6371,1.6893,-10.9588,1.5036,-8.5465
2781.2500,-5.7712,7.6202,-3.7025,-8.4092,-11.6789,-2.2767,-7.4286,-5.4919,20.9480,1.6230,2.1504,11.4287,-10.0345,-10.9967,4.1143,3.2051,-7.8493,3.5567,-8.2328
2785.1562,-2.1260,11.0456,-1.2315,-5.5160,-9.2586,1.9478,-8.1699,-3.4867,21.9046,1.9109,3.4261,13.8254,-5.9941,-5.8645,6.6901,8.2366,-3.4759,6.1804,-6.4517
2789.0625,0.6106,13.2324,1.2879,-1.9903,-6.2462,5.0149,-5.3176,-1.1775,23.1809,1.7175,5.4847,15.7105,-1.8158,-1.8155,8.5512,14.8101,0.9155,7.9648,-4.1350
2792.9688,1.6733,12.8912,2.6389,0.7513,-3.9525,5.9331,-0.2869,0.1378,23.4979,0.9214,6.9173,16.0732,1.4732,0.1292,8.3251,20.1953,4.1818,8.1876,-2.3605
2796.8750,0.7653,10.4856,2.4170,1.9897,-3.3492,5.2453,3.7812,-0.2066,22.2797,-0.1454,6.5133,14.6351,3.3384,0.5139,5.9436,22.3315,5.8029,7.1201,-1.8167
2800.7812,-2.1169,7.8137,1.0002,1.9202,-4.5272,4.0796,3.9351,-1.9003,19.8328,-1.0123,3.9076,11.8777,3.7291,0.6246,2.5478,20.7133,5.9164,5.5843,-2.5527
2804.6875,-6.6420,6.5079,-0.9091,1.3305,-6.6857,3.0006,-0.5715,-3.8852,16.9953,-1.4041,-0.2411,8.5959,2.8331,1.2643,-0.3966,16.3068,4.9529,4.2196,-4.1077
2808.5938,-11.8379,6.7094,-2.7380,1.0093,-8.6529,1.7406,-7.5665,-4.9764,14.5455,-1.3332,-4.6045,5.3768,0.8776,2.0972,-2.0599,10.7303,3.2433,3.0806,-5.8701
2812.5000,-15.9440,7.0164,-4.1949,1.2666,-9.5981,-0.0502,-13.1421,-4.5022,12.7627,-0.9354,-7.8348,2.3933,-1.8665,2.0125,-2.6028,5.3506,0.9203,1.8316,-7.4075
2816.4062,-16.8985,5.7555,-5.1426,1.8240,-9.4767,-1.9203,-14.0338,-2.6250,11.3983,-0.2556,-9.1389,-0.4038,-4.9641,0.1387,-2.7649,0.8656,-1.8714,0.2771,-8.5862
2820.3125,-13.4401,2.5312,-5.4379,2.0879,-8.9359,-2.6346,-9.6375,-0.2101,10.0283,0.7988,-8.4952,-2.9514,-7.7967,-3.3327,-3.0991,-2.5285,-4.7346,-1.2930,-9.4658
2824.2188,-6.1501,-1.2239,-4.9381,1.6023,-8.7634,-1.2438,-2.3121,1.6540,8.5045,2.3012,-6.4701,-4.9389,-9.7613,-7.1485,-3.4679,-4.7321,-7.0401,-2.2529,-10.1029
2828.1250,2.4368,-3.1839,-3.6519,0.3967,-9.2628,1.7470,4.2220,2.2222,7.1574,4.1108,-3.8110,-6.0027,-10.5740,-9.7777,-3.1466,-5.5467,-8.2421,-2.1423,-10.4226
2832.0312,8.9872,-1.8519,-1.8445,-0.9718,-9.9756,4.3260,7.2814,1.4597,6.5773,5.8377,-1.0824,-6.0625,-10.4286,-10.3481,-1.3999,-4.8491,-8.2304,-1.0651,-10.2339
2835.9375,11.1899,2.2487,0.0554,-1.6995,-9.9354,4.3586,6.7925,0.0381,7.1089,7.0201,1.4702,-5.4743,-9.8429,-9.0495,1.9218,-2.9155,-7.4003,0.3660,-9.3587
2839.8438,9.0503,6.8307,1.7069,-1.1745,-8.2851,1.3976,5.0438,-1.0285,8.4333,7.3766,3.8176,-4.8285,-9.2760,-6.7879,6.1769,-0.5182,-6.3475,1.4922,-7.7726
2843.7500,4.7375,9.3610,3.0690,0.6817,-4.8491,-2.6510,4.9079,-0.9105,9.5983,6.9371,5.9405,-4.5323,-8.8008,-4.4523,10.2156,1.3804,-5.4254,2.0854,-5.6653
2847.6562,1.0608,8.7314,4.3882,3.3666,-0.2924,-4.7724,7.8478,0.6279,9.5580,5.9679,7.6912,-4.5155,-8.0877,-2.3954,12.9325,2.1556,-4.5276,2.4483,-3.3894
2851.5625,-0.3583,5.8969,5.9620,6.0595,4.2223,-3.1813,13.0570,3.1511,7.8994,4.7829,8.8149,-4.3114,-6.7178,-0.4676,13.7507,1.8721,-3.2820,3.0750,-1.3292
2855.4688,0.0617,3.0933,7.8554,8.0311,7.6413,1.1001,18.1818,5.8269,5.2343,3.6056,9.0975,-3.4603,-4.5827,1.5409,12.8043,1.1733,-1.4903,4.1759,0.2367
2859.3750,0.5291,2.2626,9.7784,8.9461,9.4991,4.8177,20.9448,7.8683,2.9195,2.5695,8.5240,-1.9181,-2.0546,3.5016,10.7908,0.7710,0.5664,5.4634,1.2085
2863.2812,-0.5268,3.8110,11.2035,8.8953,9.9948,4.9199,20.4592,8.8702,2.2256,1.7908,7.3354,-0.1362,0.2090,4.9466,8.6138,0.9031,2.2388,6.3538,1.6491
2867.1875,-3.1842,6.4891,11.6289,8.1820,9.6883,0.9904,17.4221,8.8651,3.5029,1.3838,5.9521,1.2565,1.6865,5.4388,6.9959,1.1580,2.9721,6.3932,1.7031
2871.0938,-6.0183,8.3479,10.8187,7.0646,9.0873,-4.2974,13.2947,8.1312,5.9404,1.3666,4.8128,1.9239,2.3272,4.9680,6.2159,0.8016,2.7564,5.5523,1.5182
2875.0000,-7.2785,8.0261,8.9096,5.6642,8.4304,-7.1781,9.2798,6.9531,8.1175,1.5476,4.2195,2.0731,2.5681,4.0294,6.0697,-0.6148,2.1961,4.1858,1.2304
2878.9062,-6.2693,5.5202,6.3766,4.0966,7.7741,-5.7438,5.8793,5.5326,8.9757,1.5496,4.2530,2.2889,3.0375,3.3202,6.0666,-2.7825,2.1243,2.7498,1.0199
2882.8125,-3.8485,2.0499,3.9103,2.6730,7.2282,-1.5155,3.1814,4.0806,8.5164,1.0215,4.7783,3.0803,4.1697,3.3095,5.7676,-4.6332,3.0487,1.5519,1.1741
2886.7188,-1.7017,-0.7468,2.2337,1.9308,7.0724,1.6737,1.3741,2.9331,7.7259,-0.0878,5.5191,4.4927,5.9875,4.0059,5.0784,-4.8471,4.8411,0.7204,2.0607
2890.6250,-1.0311,-1.7128,1.8664,2.3735,7.6030,0.6845,0.8641,2.5008,7.8055,-1.4211,6.1741,6.0797,8.1547,5.0608,4.3156,-2.5972,6.8856,0.3347,3.9668
2894.5312,-1.7235,-0.6678,2.8804,4.0578,8.8175,-4.3540,1.8508,3.0112,9.3021,-2.3958,6.5413,7.2466,10.2066,6.0628,3.9921,1.8855,8.5365,0.5019,6.8637
2898.4375,-2.6269,1.6529,4.7746,6.3447,10.2216,-9.9384,3.8036,4.2259,11.7948,-2.5856,6.6112,7.6873,11.7666,6.7584,4.4566,7.2637,9.5162,1.2432,10.2574
2902.3438,-2.6510,4.0581,6.6175,8.0837,10.9815,-11.6984,5.4661,5.4052,14.3376,-2.0275,6.5717,7.5755,12.6260,7.0485,5.6351,11.6354,9.9608,2.2896,13.2742
2906.2500,-1.7532,5.4733,7.4813,8.2075,10.3834,-7.6456,5.5771,5.6438,16.2568,-1.2215,6.6902,7.3673,12.6957,6.8370,7.0567,13.4316,10.1292,3.0379,15.0018
2910.1562,-0.9959,5.3876,6.9717,6.3918,8.3010,0.2797,3.8342,4.4132,17.6352,-0.8148,7.1078,7.3809,11.9308,5.9356,8.1339,12.2221,10.0599,2.8187,14.9236
2914.0625,-1.6304,4.0359,5.5140,3.3282,5.3214,7.5088,1.3061,1.9436,19.1004,-1.1992,7.6628,7.4887,10.3117,4.1540,8.4828,8.9818,9.4764,1.3424,13.1871
2917.9688,-3.9543,2.2672,4.1433,0.3735,2.4101,10.0013,-0.1450,-0.8538,21.1362,-2.3065,7.8971,7.1739,7.8808,1.5119,8.0593,5.6142,8.0119,-1.0212,10.5199
2921.8750,-6.8724,1.1374,3.8631,-1.2435,0.3246,6.9388,0.8903,-2.9141,23.5453,-3.7194,7.3046,5.9199,4.7790,-1.6269,7.0599,3.9297,5.5451,-3.3975,7.8233
2925.7812,-8.5493,1.3832,4.9628,-1.1579,-0.8174,1.0765,4.3452,-3.6503,25.5642,-4.9655,5.7104,3.6511,1.2318,-4.6444,5.7362,4.6183,2.3569,-4.9395,5.6879
2929.6875,-7.7041,3.0304,6.7699,-0.0620,-1.5219,-3.3400,8.6546,-3.2577,26.5591,-5.7460,3.5244,0.8947,-2.5042,-6.9509,4.3102,6.8242,-1.0237,-5.3587,4.1332
2933.5938,-4.6102,5.3715,8.0446,0.7729,-2.4852,-3.4653,11.7810,-2.4910,26.6984,-5.9540,1.6311,-1.4738,-6.1936,-8.2643,3.0277,8.6150,-4.1504,-5.0512,2.7207
2937.5000,-1.0761,7.3617,7.7780,0.3224,-4.0764,0.4800,12.5479,-2.0953,26.9605,-5.5534,0.8969,-2.7447,-9.6422,-8.6931,2.1941,8.1064,-6.8918,-4.7259,0.9349
2941.4062,0.5967,8.2198,5.8500,-1.5727,-6.1108,5.7274,11.3063,-2.3167,28.3666,-4.5146,1.5651,-2.8134,-12.6987,-8.5789,2.0291,4.5739,-9.3869,-4.8402,-1.4460
2945.3125,-1.0071,7.8593,3.0849,-4.1906,-8.0524,9.0124,9.4795,-2.8344,30.9954,-2.9218,2.9558,-2.2523,-15.2625,-8.2274,2.3755,-1.1273,-11.7764,-5.3059,-4.2363
2949.2188,-5.5775,6.8641,0.6661,-6.4859,-9.4465,8.5894,8.3782,-3.1206,33.5993,-1.1488,3.7483,-1.9633,-17.2951,-7.7196,2.5452,-7.0698,-13.9458,-5.6969,-7.0253
2953.1250,-11.2595,6.0202,-0.6711,-7.7960,-10.2243,4.9513,8.2106,-2.9098,34.2349,0.1277,2.7480,-2.6235,-18.8005,-6.9079,1.5887,-11.3223,-15.4925,-5.7595,-9.4696
2957.0312,-15.6799,5.7280,-1.0941,-8.1983,-10.6480,0.1013,8.0185,-2.3998,31.5506,0.2189,-0.3199,-4.2649,-19.7539,-5.5630,-1.0367,-12.8745,-15.9409,-5.7557,-11.4510
2960.9375,-17.1759,5.7067,-1.4639,-8.2959,-10.9713,-3.8170,6.5310,-2.0488,25.8240,-1.1166,-4.5233,-6.2387,-20.0210,-3.5485,-4.8388,-11.8817,-15.0391,-6.3018,-12.9879
2964.8438,-15.5482,5.1989,-2.6379,-8.6334,-11.1237,-5.5631,3.2355,-2.1616,18.9699,-3.3845,-8.1804,-7.5812,-19.3547,-0.9210,-8.2708,-9.2276,-12.9218,-7.7977,-14.0122
2968.7500,-12.0091,3.5321,-4.7988,-9.1985,-10.6991,-5.0774,-1.1572,-2.6187,13.4589,-5.5280,-9.8068,-7.5624,-17.5283,2.0678,-9.5338,-5.8756,-10.0486,-9.9206,-14.2372
2972.6562,-8.4576,0.6466,-7.2859,-9.3800,-9.2704,-3.1807,-5.1684,-2.9652,10.8688,-6.5249,-8.9619,-6.0956,-14.5509,5.0310,-7.7750,-2.5257,-6.9921,-11.6487,-13.2708
2976.5625,-6.5250,-2.7688,-9.0249,-8.4091,-6.7768,-1.1022,-7.5319,-2.7711,11.0421,-6.0331,-6.4605,-3.7804,-10.8102,7.5350,-3.8351,0.2952,-4.2320,-11.8762,-10.9142
2980.4688,-6.8760,-5.6146,-9.2315,-5.9577,-3.6697,-0.0478,-7.9552,-1.9644,12.3780,-4.6165,-3.8395,-1.5660,-6.9982,9.2051,0.0967,2.0273,-2.0609,-10.1933,-7.4227
2984.3750,-9.0613,-6.9635,-7.8996,-2.4680,-0.6943,-0.7804,-7.1527,-0.8722,12.9827,-3.3642,-2.4618,-0.2417,-3.8182,9.8451,1.8041,2.1709,-0.5937,-7.2387,-3.5145
2988.2812,-11.9222,-6.5218,-5.7772,1.0149,1.5231,-3.2193,-6.2276,0.0409,11.8498,-3.1508,-2.8451,-0.0550,-1.6499,9.5261,0.4587,0.7308,0.1876,-4.3304,-0.0958
2992.1875,-14.2781,-4.7194,-3.8996,3.3909,2.7712,-6.2875,-5.9296,0.5101,9.3104,-4.0570,-4.5946,-0.6686,-0.4121,8.5813,-2.8955,-1.4132,0.4024,-2.6270,2.1222
