Time,Fp1,F3,C3,P3,O1,F7,T3,T5,Fz,Fp2,F4,C4,P4,O2,F8,T4,T6,Cz,Pz
0.0000,2.9554,-1.4558,-0.8401,-1.0271,-1.7903,1.9988,0.1538,-2.0957,-2.9177,-2.7914,-2.9876,-2.0227,-0.7917,-0.0891,-3.7396,-0.5275,0.4029,-1.1769,-1.0756
3.9062,2.0463,-1.2893,0.2885,-1.1797,-3.0665,2.7396,1.1022,-1.8885,-4.3281,-3.4143,-4.1415,-2.6508,-1.7079,-2.1062,-4.7168,-1.6459,-1.5570,-1.1106,-1.8960
7.8125,1.5974,-0.8852,1.2922,-1.0044,-3.4873,3.8042,2.2436,-0.9129,-5.3119,-2.2210,-5.2739,-3.8235,-3.1146,-3.7468,-5.2712,-3.0025,-3.4204,-1.2227,-2.3538
11.7188,1.4780,-0.8441,1.5620,-0.8505,-2.7975,4.7468,3.3751,0.2444,-5.8313,0.0772,-6.0746,-5.2016,-4.8535,-4.4221,-5.3177,-4.0522,-4.7441,-1.6060,-2.3581
15.6250,1.0772,-1.6074,0.8310,-1.0540,-1.2841,4.9013,4.2829,0.8503,-6.0414,1.9192,-6.3073,-6.2384,-6.4305,-4.0593,-5.0733,-4.4144,-5.3524,-2.1704,-2.0522
19.5312,-0.0789,-3.0263,-0.4924,-1.5147,0.5417,3.7987,4.8221,0.6480,-6.0022,2.0062,-5.8568,-6.3860,-7.0914,-3.0333,-4.8169,-4.0767,-5.2802,-2.5657,-1.5363
23.4375,-1.7289,-4.3690,-1.4421,-1.6224,2.3362,1.5699,4.9605,0.1172,-5.5444,0.2769,-4.7617,-5.3312,-6.1778,-1.8284,-4.6181,-3.3359,-4.6358,-2.3182,-0.6568
27.3438,-2.8653,-4.8038,-1.0896,-0.6870,4.0347,-0.9920,4.7344,0.1100,-4.4440,-2.0151,-3.2530,-3.1728,-3.6085,-0.7277,-4.2746,-2.5472,-3.5494,-1.1484,0.8767
31.2500,-2.4249,-4.0051,0.7443,1.4111,5.6113,-2.8169,4.1474,1.1159,-2.7583,-3.2019,-1.7622,-0.4577,-0.1541,0.2333,-3.5194,-1.8925,-2.2467,0.7413,3.0896
35.1562,-0.1831,-2.4192,3.1872,3.8864,6.7577,-3.1651,3.1208,2.7446,-0.9904,-2.4099,-0.8260,1.9731,2.7801,1.0618,-2.3195,-1.3379,-1.1247,2.6573,5.4060
39.0625,2.8835,-0.9748,4.7240,5.3824,6.8551,-2.0479,1.5895,3.8853,0.1338,-0.1536,-0.8563,3.3055,3.8428,1.5895,-0.9954,-0.7796,-0.6715,3.7599,6.7580
42.9688,5.1372,-0.4544,4.1201,4.8222,5.3613,-0.1701,-0.2977,3.4766,0.1568,2.1266,-1.8620,3.1231,2.5211,1.4811,-0.0313,-0.2190,-1.2033,3.5657,6.1922
46.8750,5.3835,-0.9933,1.2546,2.1841,2.3421,1.5511,-2.0620,1.3232,-0.7361,3.1960,-3.3100,1.6429,-0.4970,0.4962,0.2855,0.2014,-2.5941,2.2566,3.5890
50.7812,3.7146,-2.0623,-2.7263,-1.3873,-1.3149,2.5307,-3.0460,-1.6735,-1.7991,2.9198,-4.2891,-0.3384,-3.6716,-1.2161,0.1005,0.3316,-4.2369,0.5551,-0.0658
54.6875,1.4285,-2.9090,-6.0774,-4.2575,-4.2638,2.7420,-2.8196,-4.0679,-2.2488,2.2240,-3.9676,-1.8062,-5.4901,-3.0693,-0.1098,0.1866,-5.3359,-0.7627,-3.1483
58.5938,0.0613,-3.0954,-7.5020,-5.2995,-5.4531,2.5137,-1.5665,-4.8064,-1.8432,2.1926,-2.1127,-2.0313,-5.3209,-4.3308,0.0895,-0.0126,-5.3685,-1.3664,-4.3521
62.5000,0.2698,-2.7336,-6.8650,-4.5088,-4.7459,2.1303,-0.0984,-3.8545,-1.0546,3.0807,0.6663,-0.9420,-3.6854,-4.5661,0.7417,0.0142,-4.3997,-1.5119,-3.4802
66.4062,1.4277,-2.2960,-5.1058,-2.8224,-2.9528,1.5967,0.6312,-2.0742,-0.6823,4.0789,3.1579,0.8568,-1.7900,-3.9072,1.4644,0.3836,-3.0131,-1.7237,-1.5076
70.3125,2.2325,-2.2077,-3.4635,-1.3354,-1.2494,0.7485,0.2324,-0.4963,-1.2022,4.0365,4.1843,2.4326,-0.6762,-2.9354,1.7650,0.9386,-1.9018,-2.2778,0.1378
74.2188,1.8128,-2.5596,-2.6131,-0.5365,-0.4012,-0.4379,-0.7342,0.4216,-2.3693,2.5336,3.2616,3.0381,-0.5931,-2.2558,1.4549,1.3542,-1.4166,-2.9046,0.5541
78.1250,0.4290,-3.1218,-2.3280,-0.1204,-0.3420,-1.6610,-1.0752,0.9902,-3.3958,0.3854,0.8730,2.4851,-0.9994,-2.0740,0.8183,1.3837,-1.3949,-2.9562,-0.0945
82.0312,-0.7984,-3.5708,-1.8485,0.5627,-0.3598,-2.4389,0.1464,1.8503,-3.5600,-0.8913,-1.8240,1.1790,-1.1163,-2.0799,0.3965,1.0557,-1.3714,-1.9143,-0.8279
85.9375,-0.8901,-3.6959,-0.5950,1.8579,0.3119,-2.4750,2.7766,3.3189,-2.7547,-0.2573,-3.6680,-0.1685,-0.5601,-1.7123,0.5607,0.6637,-0.9798,0.1623,-0.6435
89.8438,0.1074,-3.4372,1.3542,3.5037,1.9590,-1.9138,5.4766,5.0774,-1.5411,1.9668,-4.1100,-0.9391,0.4265,-0.6056,1.2218,0.5550,-0.2282,2.6049,0.7691
93.7500,1.1145,-2.8103,3.3557,4.8770,4.2506,-1.2369,6.5473,6.4277,-0.6843,4.2520,-3.4018,-0.8806,1.2600,1.0959,1.9091,0.8742,0.5371,4.5444,2.8955
97.6562,0.9108,-1.8722,4.7123,5.5058,6.4939,-0.8701,5.1365,6.8561,-0.5753,4.9577,-2.2908,-0.1371,1.5170,2.7577,2.1402,1.4480,0.9060,5.4450,4.8548
101.5625,-0.8035,-0.7994,5.1389,5.3735,8.0024,-0.8461,1.9276,6.4056,-1.0167,3.5274,-1.4843,0.9074,1.2096,3.5807,1.7709,1.8873,0.6700,5.3608,6.0136
105.4688,-3.0778,0.0348,4.8181,4.7724,8.3170,-0.8391,-1.2654,5.5570,-1.5202,0.8507,-1.2632,1.8322,0.6414,3.0258,1.0488,1.8283,-0.1089,4.7524,6.2704
109.3750,-4.4168,0.1581,4.0786,3.9048,7.2512,-0.5572,-2.7545,4.7639,-1.8140,-1.4662,-1.4627,2.3231,0.0424,1.1094,0.3633,1.1552,-1.2095,4.0589,5.8778
113.2812,-3.9691,-0.6948,3.0580,2.6599,4.9115,-0.1320,-2.1647,4.0817,-2.0804,-2.3102,-1.7372,2.2452,-0.6275,-1.5573,-0.0551,0.0784,-2.3718,3.3968,5.0840
117.1875,-2.2212,-2.2771,1.6888,0.8165,1.7920,-0.1083,-0.6367,3.2237,-2.7012,-1.7761,-1.8449,1.6843,-1.4970,-3.9786,-0.2113,-0.9514,-3.2999,2.6194,3.9851
121.0938,-0.6073,-3.8246,-0.0007,-1.5111,-1.1741,-0.9691,0.1274,1.9731,-3.7506,-0.8545,-1.7325,0.9593,-2.4030,-5.1531,-0.1576,-1.4355,-3.6027,1.6356,2.7097
125.0000,-0.3328,-4.4681,-1.6138,-3.6447,-2.8381,-2.5798,-0.7578,0.5505,-4.7336,-0.4334,-1.4214,0.5517,-2.7319,-4.4995,0.2306,-1.0380,-2.8541,0.6594,1.6738
128.9062,-1.3804,-3.8329,-2.4913,-4.6405,-2.3991,-4.0777,-2.6458,-0.4350,-4.8771,-0.5146,-0.8780,0.9024,-1.7509,-2.1750,1.2361,0.2537,-0.8689,0.1300,1.5312
132.8125,-2.5403,-2.3770,-2.1977,-3.9583,-0.0155,-4.4175,-3.8853,-0.4472,-3.7843,-0.3314,-0.0318,2.1328,0.7423,0.8809,2.9928,2.0760,1.9618,0.3494,2.7188
136.7188,-2.4693,-1.1551,-0.9886,-1.9662,3.0358,-3.2168,-3.1828,0.4905,-1.8961,0.7619,1.0739,3.8619,3.9786,3.2887,5.1581,3.7909,4.6017,1.1572,4.9345
140.6250,-0.9075,-1.1121,0.2096,0.1899,4.9509,-1.2157,-0.7099,1.7258,-0.3003,2.4645,2.1842,5.3003,6.4506,3.8853,6.9222,4.7461,5.7855,1.9582,7.0572
144.5312,1.0000,-2.3994,0.4101,1.3310,4.4953,0.1170,1.9431,2.4286,0.0461,3.5834,2.9472,5.6461,6.7901,2.3925,7.4640,4.6078,4.7692,2.1297,7.7348
148.4375,1.6210,-4.2326,-0.6509,1.0627,1.8887,-0.3616,2.9559,2.2221,-0.9043,3.0276,3.2021,4.5772,4.7221,-0.3198,6.5600,3.5867,1.9224,1.4999,6.3085
152.3438,0.2920,-5.4199,-2.1974,0.0212,-1.2169,-2.5215,1.6726,1.4794,-2.1605,0.9273,3.1927,2.5113,1.3738,-2.6344,4.8532,2.3762,-1.3304,0.5060,3.3848
156.2500,-1.9245,-5.1744,-2.8992,-0.6650,-2.7680,-4.8971,-0.9008,1.0287,-2.3818,-1.1468,3.4665,0.4169,-1.3664,-3.1119,3.4946,1.7742,-3.3018,-0.1189,0.5507
160.1562,-2.9409,-3.5974,-1.8635,-0.2875,-1.6986,-5.6540,-2.8849,1.4864,-0.8894,-1.2155,4.4640,-0.7499,-2.0533,-1.4066,3.3668,2.1823,-3.0929,0.1014,-0.6513
164.0625,-1.4043,-1.4662,0.6157,0.8766,1.3025,-3.9206,-2.9581,2.7445,1.7927,1.5332,6.0973,-0.6276,-0.6226,1.4414,4.4691,3.3168,-1.1785,1.0301,0.2227
167.9688,1.8508,0.4829,3.1699,1.7977,4.2304,-0.4813,-1.2872,4.0195,4.3230,5.8937,7.6944,0.3438,1.6103,3.6004,5.9656,4.3705,0.9242,2.0395,2.2177
171.8750,3.9672,2.1792,4.3101,1.5344,5.1304,2.7411,0.7568,4.4226,5.5778,9.3333,8.4331,1.2450,2.8949,3.5984,6.8922,4.5630,1.7020,2.5176,3.6766
175.7812,2.0253,4.2157,3.5295,0.0086,3.4268,4.0739,1.8063,3.6089,5.5239,9.8561,7.9815,1.3165,2.2603,1.2849,6.9697,3.7147,0.6759,2.3508,3.4336
179.6875,-4.4413,7.1893,1.7058,-1.9026,0.2694,3.3281,1.5978,2.0171,5.2153,7.6786,6.8369,0.4787,0.1467,-2.0587,6.8559,2.4207,-1.3231,2.0042,1.6275
183.5938,-12.2634,10.9037,0.4674,-3.0157,-2.3224,1.9379,1.0579,0.5485,5.8909,5.3629,6.0336,-0.6191,-1.9587,-4.5524,7.5938,1.6651,-2.8108,2.1429,-0.4474
187.5000,-15.9561,14.1168,0.9825,-2.7004,-2.8584,1.8843,1.3504,-0.0345,7.8786,6.1347,6.3739,-1.0374,-2.5659,-4.9319,9.6740,2.1337,-2.7304,3.1060,-1.3059
191.4062,-11.0424,15.1385,3.0916,-1.2748,-1.3014,4.2043,2.7471,0.4643,10.2045,11.4837,7.7599,-0.1582,-1.1392,-3.3090,12.4765,3.7293,-1.1460,4.6494,-0.3089
195.3125,2.6204,12.9507,5.4527,0.3385,1.0956,8.2026,4.3294,1.6888,11.2715,19.7619,9.1930,1.9472,1.6720,-0.9751,14.5838,5.6585,0.9333,6.1449,1.9810
199.2188,19.7701,8.0953,6.5904,1.3641,2.8090,11.9409,4.8059,3.0834,10.1289,26.8624,9.5240,4.6094,4.5893,0.5668,14.7674,7.0271,2.3938,7.0559,4.3157
203.1250,31.9258,2.6770,6.0412,1.7053,3.0888,13.6083,3.7541,4.2553,7.3575,28.6162,8.4284,6.9974,6.5494,0.6132,12.8885,7.4769,2.8210,7.3032,5.6740
207.0312,31.8241,-0.6061,4.7121,1.8536,2.2720,12.7311,2.1931,5.0876,4.8463,23.3449,6.8287,8.5685,7.2155,-0.4047,9.9937,7.3586,2.6384,7.2485,5.8515
210.9375,17.6233,0.1316,4.1737,2.3211,1.2510,10.3540,1.9209,5.6100,4.5579,12.9106,6.3403,9.2422,6.8846,-1.4437,7.5218,7.3024,2.5364,7.3432,5.3404
214.8438,-5.5944,4.9321,5.4316,3.1235,0.6445,8.1514,4.0779,5.8390,7.1443,1.6562,8.0501,9.2470,6.0169,-1.7641,6.2523,7.5504,2.7341,7.7454,4.7148
218.7500,-27.9782,11.9075,8.1054,3.7530,0.3690,7.2324,8.0775,5.7623,11.3993,-5.9684,11.5014,8.8290,4.8503,-1.5089,5.8389,7.6275,2.7352,8.2006,4.1026
222.6562,-39.5968,18.1125,10.6274,3.6263,-0.1167,7.5637,11.7983,5.4415,14.9385,-7.5481,14.6946,8.0662,3.3826,-1.5273,5.2937,6.6742,1.7935,8.2412,3.1736
226.5625,-35.1435,20.8813,11.2954,2.5782,-1.2153,8.3511,12.9538,5.0581,15.6269,-3.4246,15.2224,6.8993,1.6235,-2.6342,3.9959,4.2172,-0.3256,7.5063,1.5802
230.4688,-16.2248,18.9482,9.3985,0.9615,-2.8193,8.9194,10.6343,4.7876,12.7884,4.1019,11.8268,5.2963,-0.2176,-4.9277,2.3520,0.7573,-2.9721,5.9276,-0.6041
234.3750,9.7733,12.8656,5.6236,-0.7062,-4.4658,9.2707,5.8901,4.5943,7.4477,12.2351,5.3138,3.3764,-1.8274,-7.7000,1.5141,-2.3508,-4.9975,3.6860,-2.8671
238.2812,33.3813,4.6201,1.5254,-2.1935,-5.8060,9.8611,0.9769,4.1746,1.5685,18.7777,-1.8304,1.3906,-3.0709,-9.9779,2.3481,-3.7225,-5.6210,1.0546,-4.6649
242.1875,47.2252,-3.2872,-1.4790,-3.6709,-6.8972,10.8712,-2.1100,3.1778,-3.0889,22.4161,-6.8842,-0.4035,-4.1440,-11.2211,4.5064,-2.8952,-5.0611,-1.6897,-5.8606
246.0938,48.6311,-8.8444,-2.8529,-5.3877,-8.0245,11.7092,-2.7284,1.5678,-5.7318,22.4944,-8.4368,-1.8480,-5.3876,-11.6097,6.4179,-0.6921,-4.3846,-4.2281,-6.7714
250.0000,39.7001,-11.1946,-2.9798,-7.2311,-9.2370,11.2773,-1.6272,-0.1947,-6.5597,18.8629,-7.0329,-2.8902,-6.8846,-11.7200,6.2972,1.3065,-4.6516,-6.1474,-7.7701
253.9062,25.3244,-10.7340,-2.6317,-8.6223,-10.0864,8.8363,-0.1202,-1.3763,-6.2625,12.0536,-4.5741,-3.5163,-8.2107,-11.9031,3.4364,1.8233,-6.0330,-7.0291,-8.8095
257.8125,10.5435,-8.6794,-2.3754,-8.9034,-9.8883,4.7361,0.8179,-1.4903,-5.4926,3.5013,-2.9909,-3.7124,-8.6293,-11.9180,-1.2205,0.7116,-7.6253,-6.6901,-9.3376
261.7188,-1.3490,-6.3793,-2.3530,-7.9109,-8.3381,0.3474,0.8714,-0.7068,-4.6646,-4.6734,-3.1348,-3.5100,-7.6482,-11.1395,-5.6861,-1.0400,-8.1398,-5.3975,-8.7359
265.6250,-9.2768,-4.7420,-2.4674,-6.2173,-5.9350,-2.8139,0.1016,0.2219,-4.0588,-10.4597,-4.5714,-3.0718,-5.5096,-9.1683,-8.2720,-2.0982,-6.9370,-3.8327,-6.9363
269.5312,-13.6903,-4.0480,-2.6640,-4.7772,-3.7744,-4.0837,-1.4215,0.5276,-3.9477,-12.9101,-6.2412,-2.7031,-3.1775,-6.3176,-8.6477,-1.7595,-4.5806,-2.7555,-4.6683
273.4375,-15.5202,-4.1514,-2.9920,-4.2248,-2.7931,-3.9617,-3.6054,0.0660,-4.5331,-12.5702,-7.3542,-2.7243,-1.7583,-3.5441,-7.8381,-0.3904,-2.4559,-2.5696,-3.0598
277.3438,-15.5180,-4.8220,-3.4198,-4.3958,-3.0492,-3.5029,-5.9958,-0.5026,-5.7454,-11.0200,-7.8281,-3.2592,-1.7499,-1.8354,-7.2259,0.9495,-1.7403,-3.1091,-2.8467
281.2500,-14.2192,-5.9120,-3.6627,-4.4909,-3.6455,-3.3393,-7.6250,-0.1925,-7.1496,-9.8230,-8.0434,-4.0911,-2.6841,-1.5127,-7.3970,1.3623,-2.5237,-3.8118,-3.7966
285.1562,-12.2433,-7.2221,-3.2843,-3.7666,-3.4078,-3.2069,-7.4490,1.4974,-8.1225,-9.6214,-8.2578,-4.7101,-3.4467,-1.9845,-7.7498,0.7749,-3.7605,-4.1441,-4.8144
289.0625,-10.4532,-8.2483,-2.0515,-2.1840,-1.8028,-2.4065,-5.1821,4.0776,-8.2096,-9.9907,-8.2405,-4.5476,-3.0450,-2.1499,-7.1300,-0.0601,-4.0720,-3.9401,-4.6755
292.9688,-9.7180,-8.1594,-0.2392,-0.4652,0.6377,-0.7798,-1.8047,6.3041,-7.3796,-10.0518,-7.4296,-3.2598,-1.2511,-1.1547,-4.9135,-0.1636,-2.7613,-3.3933,-2.8449
296.8750,-10.4266,-6.1996,1.4371,0.5063,2.7365,0.7341,0.8671,7.0291,-5.9650,-9.2688,-5.4381,-0.8913,1.3394,1.0448,-1.6185,0.9696,-0.2594,-2.7429,0.2165
300.7812,-12.1593,-2.3342,2.2795,0.4444,3.5983,0.6029,1.4190,6.0445,-4.3483,-7.7878,-2.4541,2.1562,3.8255,3.6927,1.4446,3.0801,2.2953,-1.9660,3.4385
304.6875,-13.8436,2.3634,2.1194,-0.0710,3.2929,-2.0104,-0.0266,4.2717,-2.6873,-6.1400,0.7922,5.2925,5.6443,5.7620,3.1632,5.3999,3.9520,-0.7872,5.8658
308.5938,-14.3642,6.0133,1.4495,-0.0694,2.7403,-6.2274,-1.7727,3.1352,-0.9364,-4.7012,3.4398,7.9173,6.8217,6.5856,3.4082,7.1704,4.5750,0.9690,7.1379
312.5000,-13.2479,6.8977,1.0275,0.9575,2.9002,-9.6888,-1.8079,3.5711,0.8550,-3.4760,4.9308,9.5263,7.6725,6.1523,2.9737,7.9961,4.7312,2.9839,7.4031
316.4062,-10.9605,4.5270,1.2377,2.5248,3.9364,-10.0977,0.5115,5.3902,2.2676,-2.4066,5.1468,9.7569,8.2610,4.9258,2.7613,7.8327,4.9979,4.3993,6.8479
320.3125,-8.6067,0.0527,1.7251,3.3995,5.0416,-7.0172,3.7075,7.4372,2.5823,-1.8396,4.2290,8.4386,8.1316,3.4070,2.9425,6.7538,5.3218,4.2505,5.3377
324.2188,-7.2334,-4.3460,1.6264,2.4624,5.0612,-2.5077,5.0868,8.3880,1.2376,-2.5648,2.3399,5.6789,6.5767,1.8000,2.8339,4.7996,4.9910,2.1141,2.5306
328.1250,-7.2079,-6.7662,0.2503,-0.4679,3.4041,0.0571,2.7549,7.5829,-1.6434,-5.1973,-0.3675,1.9288,3.2482,-0.0004,1.5968,2.0669,3.2431,-1.5112,-1.6292
332.0312,-8.0740,-6.7152,-2.3088,-4.4672,0.5126,-1.6997,-2.7646,5.3281,-5.0965,-9.3310,-3.5661,-2.0674,-1.3855,-2.1641,-0.8544,-1.0877,-0.0027,-5.4026,-6.4989
335.9375,-8.9476,-5.2964,-5.1124,-8.0952,-2.4555,-7.3504,-8.6122,2.5486,-7.7358,-13.2537,-6.6043,-5.4760,-6.1226,-4.6610,-3.5467,-4.0045,-3.9043,-8.2796,-10.8345
339.8438,-9.1389,-4.3305,-6.9402,-10.2652,-4.4352,-13.7311,-11.4334,0.1551,-8.5225,-14.6981,-8.6475,-7.6562,-9.6169,-7.1735,-5.0670,-5.9760,-7.1503,-9.4764,-13.4068
343.7500,-8.5584,-5.0528,-7.0645,-10.7522,-5.0878,-16.9499,-9.6721,-1.3755,-7.3667,-12.2941,-9.1038,-8.3693,-11.0520,-9.2043,-4.6386,-6.6502,-8.7508,-9.1634,-13.6982
347.6562,-7.6516,-7.3142,-5.6727,-10.0413,-4.7972,-14.9835,-4.6210,-1.9815,-5.1451,-6.7171,-8.0257,-7.8002,-10.4437,-10.2587,-2.7838,-6.2555,-8.5621,-8.0148,-12.1531
351.5625,-6.9682,-9.8157,-3.6539,-8.7607,-4.1307,-9.0511,0.5543,-1.7366,-3.1230,-0.5922,-6.1368,-6.3999,-8.4247,-9.9878,-1.0038,-5.4369,-7.1869,-6.6394,-9.7945
355.4688,-6.7252,-11.1256,-1.9536,-7.2293,-3.3070,-2.8077,3.0733,-0.6694,-2.1932,2.9582,-4.4013,-4.6713,-5.7656,-8.2778,-0.6925,-4.8072,-5.4160,-5.2346,-7.5155
359.3750,-6.6910,-10.6815,-1.0038,-5.4614,-2.1506,0.0595,2.3811,1.1323,-2.4472,2.2289,-3.4360,-3.0275,-3.0264,-5.3335,-2.1142,-4.5588,-3.7115,-3.6933,-5.5961
363.2812,-6.4475,-9.0560,-0.6313,-3.5156,-0.5276,-1.8555,0.2323,3.2813,-3.3218,-1.9941,-3.2088,-1.7650,-0.5421,-1.7530,-4.2308,-4.4335,-2.1292,-1.9944,-3.7828
367.1875,-5.7886,-7.3848,-0.4352,-1.7669,1.2047,-7.0061,-0.9480,5.0405,-4.1369,-6.9686,-3.2483,-1.0842,1.3935,1.5128,-5.4956,-4.0512,-0.6440,-0.4726,-1.7988
371.0938,-4.9301,-6.4969,-0.2586,-0.7812,2.2318,-12.1970,-0.0806,5.6292,-4.5844,-9.7869,-3.1704,-1.0663,2.4454,3.4332,-4.9868,-3.2971,0.5184,0.3088,0.1993
375.0000,-4.3742,-6.4504,-0.3404,-0.8738,1.8556,-14.8091,1.7482,4.7174,-4.8275,-9.1959,-3.0601,-1.5969,2.4138,3.3733,-3.0225,-2.4314,0.9191,-0.0053,1.6279
378.9062,-4.5557,-6.7639,-1.0390,-1.7539,0.1538,-14.3486,2.2454,2.7201,-5.2119,-6.2245,-3.3763,-2.3194,1.5190,1.5303,-0.8408,-1.8397,0.3111,-1.1923,1.9483
382.8125,-5.5563,-7.0316,-2.3948,-2.6150,-1.8659,-12.3558,-0.1729,0.6237,-5.8877,-3.2753,-4.4590,-2.7250,0.4740,-0.9952,0.3376,-1.6615,-0.9694,-2.4886,1.1977
386.7188,-7.0945,-7.3227,-3.9324,-2.6469,-2.8222,-10.9564,-5.0328,-0.5685,-6.6668,-2.4124,-6.0768,-2.3840,0.1641,-2.6525,0.1150,-1.6446,-2.0411,-3.0426,0.1110
390.6250,-8.7570,-8.0150,-4.8954,-1.5735,-1.8515,-11.2611,-10.0437,-0.3821,-7.2025,-4.0722,-7.4338,-1.1893,1.1010,-2.2313,-0.9748,-1.3665,-2.0063,-2.4475,-0.2992
394.5312,-10.2464,-9.2583,-4.7396,0.2156,0.8396,-12.7631,-12.6855,0.9692,-7.2945,-7.0120,-7.6739,0.5650,3.0626,0.4699,-2.0203,-0.6314,-0.5852,-0.9509,0.5997
398.4375,-11.4311,-10.5998,-3.4939,2.0354,4.1792,-14.0128,-11.8929,2.8755,-7.0340,-9.3652,-6.4876,2.3542,5.2335,4.5366,-2.4163,0.3171,1.6610,0.8057,2.6666
402.3438,-12.1939,-11.1637,-1.7039,3.4549,7.0187,-13.8810,-8.5974,4.7965,-6.6666,-9.9231,-4.3247,3.7406,6.7806,8.4862,-2.1391,0.9738,3.7307,2.2856,5.1413
406.2500,-12.2798,-10.2726,-0.0115,4.5700,8.8826,-12.3881,-4.8420,6.5268,-6.3138,-8.7394,-2.0343,4.6179,7.4339,11.1298,-1.5019,1.0030,4.9092,3.3914,7.2036
410.1562,-11.3624,-7.9982,1.2914,5.7922,10.1154,-10.5457,-2.2660,8.1055,-5.8240,-6.7801,-0.2387,5.2026,7.6163,12.1890,-0.7389,0.5441,5.2489,4.3880,8.4900
414.0625,-9.3470,-5.1758,2.3862,7.3679,11.3684,-9.4729,-1.1419,9.5305,-4.9124,-5.0736,1.0279,5.7812,8.0132,12.2822,0.1511,0.1087,5.4170,5.5185,9.1888
417.9688,-6.6705,-2.8702,3.6450,9.0580,12.8973,-9.5529,-0.5893,10.5869,-3.4910,-4.0795,2.1126,6.4092,8.9269,12.3308,1.1919,0.1328,6.0435,6.6660,9.6925
421.8750,-4.2803,-1.7374,5.1816,10.2497,14.2590,-10.2533,0.3785,10.9504,-1.9089,-3.6719,3.1734,6.7989,9.9452,12.8331,2.1413,0.5615,7.1125,7.3556,10.1379
425.7812,-3.1800,-1.7843,6.6041,10.3901,14.6355,-10.6355,1.9116,10.4539,-0.8689,-3.5523,3.7887,6.4912,10.2109,13.5161,2.5062,0.8418,7.9094,7.0925,10.2260
429.6875,-3.7835,-2.6511,7.1754,9.3632,13.4863,-10.0660,3.2183,9.2489,-1.0333,-3.6038,3.1636,5.1891,9.0894,13.5849,1.9374,0.3633,7.5781,5.7486,9.4571
433.5938,-5.5410,-4.0689,6.2775,7.5117,10.9857,-8.5779,3.2802,7.7072,-2.5811,-3.8657,0.8328,3.0067,6.7014,12.3500,0.6622,-1.0020,5.8331,3.6764,7.5698
437.5000,-7.1861,-6.0195,3.8511,5.3328,7.9127,-6.7080,1.7251,6.1639,-5.0382,-4.2525,-2.7179,0.4512,3.8839,9.7641,-0.5043,-2.7249,3.2378,1.4655,4.8161
441.4062,-7.5312,-8.4498,0.5044,3.1547,5.1278,-5.0663,-0.8497,4.7559,-7.5225,-4.4128,-6.1005,-1.8503,1.5926,6.4920,-0.7042,-3.9929,0.8092,-0.4494,1.8538
445.3125,-6.3138,-10.8794,-2.7841,1.0761,3.0823,-4.0307,-3.3008,3.5071,-9.2549,-3.9759,-7.8354,-3.4834,0.2122,3.4886,0.2306,-4.3631,-0.7420,-2.0116,-0.6528
449.2188,-4.4855,-12.4042,-5.1723,-0.8380,1.7212,-3.7426,-4.7057,2.5501,-10.0034,-3.0156,-7.3808,-4.4195,-0.6832,1.4035,1.4735,-4.1675,-1.5250,-3.4416,-2.4154
453.1250,-3.6740,-12.2683,-6.3622,-2.3767,0.7653,-4.2642,-4.8736,2.2059,-10.1723,-2.2672,-5.5947,-4.9376,-1.9296,0.2204,1.6641,-4.3089,-2.3221,-4.9343,-3.6210
457.0312,-5.1143,-10.6059,-6.6814,-3.2758,0.0418,-5.6384,-4.2914,2.7511,-10.4885,-2.7809,-4.2163,-5.3873,-4.0514,-0.6519,-0.1185,-5.5595,-3.8988,-6.4361,-4.7193
460.9375,-8.7507,-8.6709,-6.8298,-3.5489,-0.4554,-7.7647,-3.6697,4.0170,-11.4983,-5.1658,-4.6820,-5.9756,-6.7914,-1.9448,-3.5757,-7.8812,-6.3233,-7.6926,-6.0958
464.8438,-13.1443,-8.1876,-7.4632,-3.7292,-0.7912,-10.2532,-3.5044,5.1907,-13.2012,-8.9937,-7.1156,-6.7056,-9.2629,-4.0624,-7.2172,-10.3051,-8.8388,-8.5089,-7.8729
468.7500,-16.2943,-10.1661,-8.8546,-4.7008,-1.3130,-12.4939,-3.9386,5.1066,-15.0476,-12.8854,-10.2304,-7.4621,-10.6055,-6.8716,-9.2322,-11.5003,-10.3910,-8.9802,-9.9311
472.6562,-16.8611,-14.0507,-10.7963,-7.1284,-2.5739,-13.9852,-4.8950,2.9370,-16.2874,-15.3112,-12.2215,-8.1326,-10.6316,-9.8296,-8.6150,-10.6494,-10.3976,-9.4741,-12.0572
476.5625,-14.9865,-17.9300,-12.7684,-10.8806,-4.9403,-14.6877,-6.2478,-1.1746,-16.4446,-15.5598,-11.9994,-8.6603,-9.9641,-12.3105,-5.7651,-8.0118,-9.1701,-10.3673,-14.0566
480.4688,-12.1695,-19.7699,-14.2577,-14.9301,-8.1917,-15.0774,-7.8678,-6.0308,-15.6207,-14.1611,-9.8835,-9.0110,-9.5687,-13.9040,-2.1727,-4.7812,-7.6799,-11.7436,-15.7531
484.3750,-10.2858,-18.8213,-15.0454,-17.8852,-11.4793,-15.7832,-9.5717,-9.9797,-14.4477,-12.4333,-7.2933,-9.1223,-10.0436,-14.5325,0.5391,-2.3469,-6.8721,-13.2980,-16.9372
488.2812,-10.4144,-16.1528,-15.2987,-18.8139,-13.7429,-17.0440,-11.1127,-11.8248,-13.7194,-11.4913,-5.7204,-8.9071,-11.2048,-14.3779,1.5277,-1.4776,-7.0518,-14.5214,-17.3762
492.1875,-12.2391,-13.8760,-15.4104,-17.7698,-14.3090,-18.4128,-12.2644,-11.4347,-13.9254,-11.4691,-5.7599,-8.3210,-12.2562,-13.7173,1.0226,-1.9683,-7.7776,-15.0220,-16.9222
496.0938,-14.3873,-13.6089,-15.6739,-15.6430,-13.2419,-18.9796,-12.8986,-9.6570,-14.9624,-11.5408,-6.8738,-7.4298,-12.3837,-12.7784,-0.0749,-2.9293,-8.2775,-14.7486,-15.6333
500.0000,-15.4214,-15.3081,-16.0008,-13.4764,-11.2075,-17.9941,-12.9361,-7.6475,-16.1938,-10.7096,-7.9626,-6.4052,-11.3127,-11.6695,-0.8721,-3.4516,-8.0213,-13.9726,-13.7863
503.9062,-14.7876,-17.3311,-15.8848,-11.7899,-8.9913,-15.4436,-12.2013,-6.1346,-16.8199,-8.7341,-8.2282,-5.4383,-9.4292,-10.3811,-0.9408,-3.1619,-7.0145,-13.0770,-11.7391
507.8125,-13.0981,-17.6603,-14.6865,-10.4115,-7.0544,-12.1549,-10.3817,-5.1301,-16.3348,-6.4631,-7.6551,-4.6322,-7.4281,-8.8300,-0.3333,-2.3273,-5.6545,-12.3221,-9.7402
511.7188,-11.6162,-15.3588,-12.0928,-8.8759,-5.4309,-9.3272,-7.2609,-4.2078,-14.7949,-5.3036,-6.8090,-3.9554,-5.8001,-6.9261,0.6727,-1.5217,-4.3462,-11.7385,-7.8388
515.6250,-11.3527,-11.1881,-8.4581,-6.9846,-3.9557,-7.8189,-3.1344,-3.0270,-12.7393,-6.2122,-6.2159,-3.2889,-4.5579,-4.6467,1.7889,-1.1573,-3.2246,-11.1702,-5.9696
519.5312,-12.3967,-6.9903,-4.7644,-5.0283,-2.5488,-7.6739,0.9538,-1.6412,-10.8224,-8.9511,-5.8754,-2.5234,-3.3673,-2.0939,2.7480,-1.2180,-2.1814,-10.3897,-4.1344
523.4375,-13.8924,-4.3724,-2.1615,-3.5045,-1.2849,-8.1885,3.5028,-0.3810,-9.4028,-12.1413,-5.2986,-1.6307,-1.9231,0.5015,3.2665,-1.3321,-1.1003,-9.2008,-2.5094
527.3438,-14.6059,-3.7042,-1.3356,-2.6266,-0.2280,-8.4315,3.3570,0.5073,-8.3561,-14.0608,-3.9899,-0.6599,-0.2379,2.8487,3.1299,-1.0697,-0.0373,-7.5066,-1.3646
531.2500,-13.6684,-4.1167,-2.0951,-2.1008,0.7505,-7.8431,0.5372,1.0886,-7.2300,-13.6225,-1.9378,0.3205,1.3798,4.7208,2.4149,-0.2322,0.8315,-5.3669,-0.8451
535.1562,-11.0349,-4.3712,-3.4590,-1.3946,1.9385,-6.5352,-3.5435,1.6175,-5.6230,-10.8997,0.3004,1.2722,2.6021,6.0653,1.6246,1.0419,1.4284,-3.0475,-0.7982
539.0625,-7.4548,-3.8332,-4.2158,-0.2621,3.5230,-5.1613,-6.7649,2.2032,-3.5215,-6.9404,1.9766,2.1800,3.3553,7.0270,1.4994,2.3713,1.9248,-1.0052,-0.8181
542.9688,-4.0716,-2.8014,-3.6215,0.9561,5.3339,-4.4997,-7.5281,2.6066,-1.3630,-3.1106,2.6711,2.9968,3.8527,7.8505,2.5171,3.3292,2.6446,0.2486,-0.5128
546.8750,-1.9320,-2.0444,-1.8116,1.5551,6.8469,-5.0213,-5.7113,2.3993,0.2106,-0.4470,2.5387,3.5992,4.3665,8.7049,4.4335,3.6228,3.7686,0.3822,0.1884
550.7812,-1.6329,-2.0420,0.3127,1.0478,7.4860,-6.6459,-2.6714,1.3689,0.7330,0.6349,2.1129,3.8113,4.9407,9.5298,6.2794,3.1934,5.0857,-0.5529,0.9254
554.6875,-3.1715,-2.6001,1.6327,-0.3863,6.9948,-8.7484,-0.2711,-0.1926,0.1730,0.2682,1.8604,3.5047,5.3010,10.0068,6.9351,2.2253,6.0241,-2.1022,1.1145
558.5938,-5.9613,-3.1056,1.4512,-1.9772,5.5817,-10.3767,0.3845,-1.6073,-1.0765,-1.0810,1.8613,2.7210,5.0538,9.6973,5.9295,1.0797,5.9829,-3.6159,0.3599
562.5000,-8.9821,-3.1127,-0.1432,-2.9123,3.7386,-10.6123,-0.3925,-2.2771,-2.4308,-2.7773,1.8564,1.7361,4.0372,8.2956,3.8680,0.1713,4.7404,-4.5592,-1.2015
566.4062,-11.0790,-2.6978,-2.3524,-2.9002,1.9136,-8.9829,-1.2560,-2.1225,-3.3839,-4.1255,1.5903,1.0098,2.5559,5.8668,2.1152,-0.1801,2.6482,-4.7190,-2.8694
570.3125,-11.3911,-2.2825,-4.0913,-2.2854,0.3242,-5.7818,-0.9173,-1.6218,-3.6497,-4.5387,1.1409,1.0208,1.3030,2.9242,1.9077,0.1307,0.4670,-4.1804,-3.7212
574.2188,-9.7694,-2.1371,-4.5053,-1.6486,-0.9639,-2.0966,0.8846,-1.4067,-3.1494,-3.7993,0.9514,2.0495,0.9894,0.2667,3.5233,0.9668,-1.0434,-3.1369,-3.1383
578.1250,-6.9346,-2.0666,-3.3371,-1.2787,-1.8507,0.5776,3.2261,-1.7503,-1.9442,-2.2536,1.5296,4.0046,1.9070,-1.3787,6.1180,2.0311,-1.5124,-1.7303,-1.2086
582.0312,-4.1900,-1.5999,-1.0184,-1.0017,-2.1749,1.0466,4.7016,-2.3835,-0.2160,-0.7065,3.0436,6.3889,3.7031,-1.7412,8.3486,3.0141,-1.0944,-0.0718,1.2447
585.9375,-2.7515,-0.5192,1.5154,-0.5113,-1.9452,-0.9023,4.4030,-2.7938,1.7012,0.0450,5.1248,8.4501,5.5212,-1.1956,9.3079,3.7190,-0.3105,1.6030,3.0465
589.8438,-3.0477,0.7718,3.2115,0.1391,-1.6096,-4.2820,2.4572,-2.7431,3.3443,-0.2165,7.0340,9.4845,6.4421,-0.6103,9.0786,4.0981,0.2680,2.8519,3.2728
593.7500,-4.4418,1.4307,3.3610,0.3994,-2.0085,-7.3686,-0.1893,-2.5363,4.2810,-0.8826,8.0883,9.1724,5.9819,-0.8850,8.5267,4.2040,0.2989,3.1968,1.7565
597.6562,-5.6094,0.8191,1.9681,-0.3466,-3.8696,-8.6385,-2.4584,-2.7772,4.3580,-0.8773,8.0693,7.7779,4.3705,-2.4110,8.5526,4.1183,-0.2110,2.4937,-0.7774
601.5625,-5.3869,-0.9072,-0.1644,-2.1114,-7.1285,-7.6259,-3.7253,-3.7920,3.8518,0.5435,7.3490,6.0759,2.4510,-4.7705,9.4103,3.9186,-0.9566,1.2144,-3.0332
605.4688,-3.5604,-2.7781,-1.7470,-4.0092,-10.6282,-5.1535,-3.9184,-5.2106,3.3522,3.0941,6.6516,4.9994,1.2471,-6.8895,10.6017,3.6891,-1.4981,0.3308,-3.7748
609.3750,-1.0672,-3.6315,-1.6435,-4.7023,-12.5705,-2.7772,-3.2171,-6.0946,3.3887,5.4224,6.5931,5.1574,1.4288,-7.5951,11.3542,3.5271,-1.4638,0.7621,-2.4523
613.2812,0.5578,-2.9277,0.4646,-3.3410,-11.5455,-1.8077,-1.7455,-5.5630,4.0353,5.8648,7.2694,6.4828,2.9652,-6.2669,11.2303,3.5039,-0.7299,2.7093,0.4994
617.1875,0.1509,-1.1388,3.7904,-0.2789,-7.4639,-2.5509,0.4214,-3.4458,4.7993,3.5472,8.1424,8.2223,5.1579,-3.1845,10.3600,3.5965,0.4943,5.3691,3.8579
621.0938,-2.3200,0.5817,6.7776,3.0482,-1.6988,-4.2417,2.9870,-0.4494,4.9267,-0.9192,8.3098,9.3052,7.0377,0.6511,9.1653,3.6584,1.7398,7.3144,6.2205
625.0000,-5.7035,1.1935,7.9403,5.0625,3.7230,-5.6560,5.2440,2.3050,3.9444,-5.6681,7.0319,8.9027,7.8948,4.1023,7.8943,3.4851,2.5118,7.3580,6.7074
628.9062,-8.3585,0.4332,6.7323,5.1228,7.3370,-5.9312,6.2719,4.0185,2.0551,-8.6378,4.2271,6.8649,7.6250,6.4955,6.4264,2.9490,2.5764,5.3393,5.3842
632.8125,-9.1479,-1.1107,3.8939,3.9157,8.9934,-5.0359,5.4776,4.6610,0.0708,-8.7847,0.6315,3.7914,6.6855,7.8341,4.5233,2.1038,2.1111,2.2781,3.1725
636.7188,-8.1006,-2.4950,1.0275,2.8518,9.6208,-3.6326,3.0957,4.8076,-1.0998,-6.6542,-2.5151,0.7079,5.6976,8.5069,2.2627,1.1640,1.5765,-0.2387,1.3034
640.6250,-6.3350,-3.0598,-0.3531,2.9386,10.2314,-2.5312,0.2285,5.0421,-1.0550,-3.9464,-4.1189,-1.4489,4.9758,8.7478,0.1991,0.3618,1.3512,-1.0307,0.6326
644.5312,-5.3122,-2.7322,0.3086,4.0163,10.9862,-2.1775,-1.6829,5.4390,-0.1521,-2.3856,-3.8451,-2.2363,4.3197,8.3005,-0.9660,-0.2102,1.3774,-0.0002,1.2156
648.4375,-5.9000,-1.8547,2.3811,4.9543,11.0771,-2.5126,-1.6471,5.5500,0.7858,-2.6584,-2.2995,-1.7968,3.2301,6.5882,-0.9559,-0.6368,1.1110,1.9325,2.3757
652.3438,-7.8233,-0.7844,4.5725,4.6355,9.5144,-3.1953,0.3309,4.8801,1.0963,-4.0991,-0.6285,-0.6409,1.4029,3.2894,-0.2185,-1.0582,-0.1157,3.5412,3.1952
656.2500,-9.8235,0.3538,5.8232,2.9307,6.1628,-3.9157,3.2852,3.4296,0.7696,-5.2771,0.2288,0.6949,-0.8690,-1.1277,0.3735,-1.4910,-2.5276,4.1193,3.1040
660.1562,-10.4166,1.5906,5.9433,0.8829,2.1458,-4.5202,5.8586,1.8248,0.4377,-5.0344,0.1417,1.8958,-2.7193,-5.3811,0.2315,-1.7537,-5.5549,3.8437,2.2008
664.0625,-8.7919,2.8695,5.5927,-0.0396,-0.7653,-4.9042,7.0384,0.9143,0.8730,-3.2612,-0.1854,2.9105,-3.1989,-7.9789,-0.4118,-1.5859,-8.0161,3.4840,1.1322
667.9688,-5.3240,3.9407,5.6966,0.9784,-1.3449,-4.8583,6.6383,1.1539,2.3834,-0.9190,0.2042,3.8308,-1.9272,-8.0904,-0.6409,-0.8837,-8.7927,3.7514,0.6463
671.8750,-1.4031,4.5371,6.7742,3.5303,0.2272,-4.0837,5.3087,2.2829,4.5629,0.6559,1.7398,4.7397,0.5567,-6.0827,0.3702,0.1385,-7.5690,4.8036,1.1281
675.7812,1.3249,4.6792,8.6656,6.3368,2.5151,-2.4045,4.1377,3.5472,6.5793,0.6739,3.9320,5.6329,3.0208,-3.3219,2.5499,1.0136,-5.1144,6.2375,2.3993
679.6875,1.8788,4.7958,10.7842,8.1819,3.8702,0.0059,4.0900,4.2793,7.7676,-0.5672,5.6857,6.4320,4.2302,-1.3480,4.7881,1.2958,-2.8743,7.4871,3.8643
683.5938,0.4930,5.4873,12.6072,8.6704,3.5617,2.6130,5.5451,4.3564,8.0679,-1.8540,6.1059,7.0336,3.6474,-0.9881,5.6725,0.8519,-2.1203,8.2446,4.8549
687.5000,-1.5320,7.0712,13.9664,8.2462,2.1317,4.7790,8.1164,4.1739,7.9836,-1.8205,5.1881,7.3392,1.6732,-2.0165,4.5954,-0.0469,-3.2316,8.5615,4.9350
691.4062,-2.6109,9.2685,14.9316,7.5593,0.7498,6.1158,10.8127,4.1843,8.1138,0.1688,3.8490,7.2553,-0.7210,-3.5606,2.3596,-0.9087,-5.5850,8.6072,4.0057
695.3125,-1.8358,11.3075,15.4623,6.8055,0.1459,6.6690,12.4832,4.4175,8.6455,3.5460,3.2458,6.7001,-2.6866,-4.8940,0.7313,-1.3458,-8.0865,8.3674,2.2274
699.2188,0.4659,12.4043,15.2209,5.6395,0.0286,6.8065,12.3721,4.4056,9.2080,6.7659,3.8949,5.6429,-4.0044,-5.9711,1.1872,-1.3036,-9.9173,7.5985,-0.1068
703.1250,2.9431,12.2751,13.7924,3.7188,-0.5288,6.9171,10.5176,3.5924,9.1927,8.1274,5.2764,4.1631,-5.0491,-7.2842,3.7637,-1.0374,-10.9391,6.1047,-2.6284
707.0312,4.0906,11.3065,11.1703,1.3509,-2.0737,7.1626,7.7632,1.8864,8.2736,6.7519,6.2456,2.4786,-6.2744,-9.1820,6.9049,-0.8765,-11.5084,4.0857,-4.8823
710.9375,3.2328,10.2608,8.0742,-0.4086,-4.0224,7.4565,5.3279,-0.1185,6.7055,3.1672,5.9398,0.9061,-7.6565,-11.2529,8.4920,-0.9770,-11.9301,2.2058,-6.3479
714.8438,0.9681,9.7431,5.7303,-0.4027,-4.8844,7.6307,4.1514,-1.4788,5.1636,-0.8723,4.4608,-0.2431,-8.5661,-12.3564,7.3388,-1.2527,-12.0603,1.2488,-6.5862
718.7500,-1.2413,9.8130,5.1520,1.6945,-3.3845,7.6043,4.4029,-1.5673,4.2465,-3.2982,2.7808,-0.7774,-8.2063,-11.3851,4.0549,-1.5151,-11.4171,1.5751,-5.4802
722.6562,-2.0805,9.9987,6.3946,4.9190,0.3619,7.3945,5.4628,-0.5635,4.0314,-2.9075,1.9353,-0.6915,-6.2974,-8.2191,0.6195,-1.6757,-9.7084,2.7973,-3.4077
726.5625,-1.3053,9.6664,8.3628,7.4767,4.5950,6.9846,6.3787,0.6208,4.0246,-0.1296,2.1577,-0.1538,-3.4636,-4.1048,-1.0350,-1.8194,-7.3021,3.9617,-1.1708
730.4688,0.0744,8.4670,9.4078,7.8667,6.8979,6.2123,6.4645,0.9465,3.5487,3.1348,2.6775,0.5771,-0.9710,-1.0548,-0.3804,-2.0765,-5.1803,4.1572,0.3592
734.3750,0.5081,6.5679,8.3871,5.8799,5.8006,4.8290,5.6234,-0.0489,2.2825,4.5996,2.3901,1.2714,0.0591,-0.5911,1.4294,-2.4053,-4.3285,3.1428,0.7153
738.2812,-0.9621,4.5652,5.4820,2.7473,1.8549,2.7183,4.2054,-1.9604,0.5639,3.0155,0.8889,1.8414,-0.5791,-2.6931,2.5724,-2.4886,-4.9936,1.5521,0.1350
742.1875,-3.9398,3.1794,2.1862,0.3226,-2.6334,0.1045,2.5865,-3.8343,-0.7520,-0.9481,-0.9769,2.4021,-1.9894,-5.7348,2.0973,-1.8705,-6.4040,0.5191,-0.5385
746.0938,-6.8321,2.9347,0.4155,-0.1236,-5.0831,-2.4341,0.8700,-4.8507,-0.7763,-4.9789,-1.5242,3.2377,-2.7486,-7.5217,0.8011,-0.2686,-7.2303,0.9701,-0.3430
750.0000,-7.8374,3.9610,1.2933,1.3366,-4.3189,-4.1830,-1.0299,-4.8662,0.9095,-6.4667,0.6071,4.6534,-1.8758,-6.7460,0.7344,2.1569,-6.5026,3.0453,1.1968
753.9062,-6.0919,5.9570,4.4020,3.4597,-1.2904,-4.6029,-3.0306,-4.4369,4.0259,-4.1102,5.3985,6.7550,0.4697,-3.8466,3.6440,4.7892,-4.3250,6.0103,3.7214
757.8125,-2.2004,8.2867,7.9943,4.7411,1.6542,-3.5414,-4.6380,-4.3367,7.7342,1.2518,11.2883,9.2671,3.0585,-0.6672,9.4790,6.8448,-1.8446,8.6821,6.1869
761.7188,2.1821,10.1796,10.0315,4.3862,2.4061,-1.2507,-5.1323,-4.9492,11.0118,7.1613,16.0457,11.5303,4.3989,0.8468,16.0871,7.7989,-0.4693,10.0701,7.4496
765.6250,5.3937,11.0068,9.3853,2.6958,0.4923,1.7307,-4.1111,-5.9845,13.0439,11.0927,18.0717,12.7467,3.7378,-0.0161,20.3993,7.6774,-0.8841,9.8396,6.9397
769.5312,6.7046,10.5572,6.4533,0.6980,-2.7134,4.7203,-1.9522,-6.7145,13.4743,11.9963,17.2356,12.3943,1.5729,-2.3030,20.3408,7.0169,-2.5749,8.3685,5.0081
773.4375,6.5489,9.1817,2.8433,-0.6113,-5.0436,7.0078,0.2515,-6.5344,12.4765,10.7755,14.7294,10.5829,-0.6671,-4.1468,16.1710,6.5059,-4.2014,6.4473,2.7262
777.3438,5.9783,7.6793,0.3772,-0.8459,-5.0502,7.9937,1.3362,-5.4271,10.6741,9.3820,12.1562,8.1100,-1.5462,-4.1160,10.3348,6.5271,-4.5389,4.8618,1.2627
781.2500,5.7966,6.9257,0.0662,-0.2791,-2.9025,7.3940,0.8521,-3.9919,8.9381,9.2015,10.5660,6.1228,-0.5176,-2.1748,5.9240,6.8968,-3.3046,4.0977,1.2288
785.1562,5.9966,7.4147,1.6660,0.5494,-0.0948,5.4380,-0.6162,-3.0219,8.0812,9.9330,10.0805,5.5399,1.7967,0.4114,4.7831,6.9857,-1.2818,4.2615,2.3930
789.0625,5.8400,8.9810,4.0030,1.2905,1.7347,2.8757,-1.8700,-2.9423,8.5103,9.8201,10.2003,6.5589,4.0878,2.0892,6.5042,6.1729,0.3152,5.1585,3.9181
792.9688,4.4487,10.8834,5.7698,1.9527,1.9598,0.6657,-1.9588,-3.5179,9.9788,7.0951,10.3694,8.5438,5.2288,2.1452,8.9162,4.3570,0.7376,6.4107,4.9294
796.8750,1.4557,12.2088,6.2475,2.7141,1.2649,-0.5545,-0.8278,-4.0414,11.6086,1.5708,10.2725,10.3614,4.9182,1.1051,9.6529,2.1782,0.1925,7.5484,5.0186
800.7812,-2.7124,12.3474,5.5371,3.5975,0.9328,-0.8795,0.7337,-3.8716,12.2489,-4.8515,9.7092,10.9581,3.6945,0.1551,7.6983,0.7494,-0.4144,8.0897,4.3656
804.6875,-7.0650,11.2527,4.2574,4.3082,1.7229,-1.0883,1.7618,-2.9333,11.0414,-9.2316,8.3441,9.8372,2.3893,0.0982,3.9027,0.9909,-0.2568,7.6499,3.4494
808.5938,-10.6110,9.3544,3.0089,4.3748,3.2196,-2.0889,1.8326,-1.8146,7.8955,-9.5335,5.7482,7.1917,1.4782,0.6950,0.2236,2.9495,0.7191,6.0818,2.6115
812.5000,-12.9158,7.2257,1.9988,3.4850,4.1452,-4.2129,1.2363,-1.3731,3.5808,-6.1036,1.8302,3.6929,0.8163,0.9041,-1.6826,5.5609,1.7124,3.5784,1.8175
816.4062,-14.3467,5.2402,1.0413,1.7573,3.3854,-6.8942,0.5104,-2.1174,-0.6468,-1.5997,-2.7062,0.1329,-0.0876,-0.1919,-1.5134,7.0997,1.6519,0.6497,0.7777
820.3125,-15.8627,3.4153,-0.1572,-0.2655,0.9299,-9.0307,-0.2079,-3.8051,-3.6876,0.6422,-6.4049,-2.8491,-1.5285,-2.5374,-0.3461,6.1408,0.0075,-2.0628,-0.7074
824.2188,-18.4107,1.4816,-1.7054,-1.9202,-2.0109,-9.8113,-1.3931,-5.5685,-5.1411,-1.2720,-7.7907,-4.8656,-3.2644,-5.0351,0.2734,2.4877,-2.7734,-4.0703,-2.4932
828.1250,-22.1952,-0.9222,-3.4726,-2.8441,-3.8382,-9.3861,-3.6809,-6.5146,-5.4463,-6.6067,-6.4021,-5.7772,-4.6683,-6.3422,-0.5409,-2.5374,-5.5223,-5.2789,-4.1624
832.0312,-26.2267,-4.0545,-5.2902,-3.2455,-3.7532,-8.8190,-7.1334,-6.4005,-5.5703,-12.5069,-3.3787,-5.6994,-5.2591,-5.9258,-2.4687,-6.7023,-7.1123,-6.0518,-5.3790
835.9375,-28.5365,-7.9370,-7.2077,-3.8366,-2.4186,-9.2914,-10.8872,-5.8903,-6.4593,-15.8204,-1.0629,-5.0386,-5.1805,-4.5501,-4.3384,-8.0740,-7.1834,-7.0359,-6.2306
839.8438,-27.1529,-12.2870,-9.5456,-5.4357,-1.5725,-11.1270,-13.5659,-6.1675,-8.5757,-15.0013,-1.7357,-4.4570,-5.2158,-3.7899,-5.0482,-6.1171,-6.3292,-8.8261,-7.2524
843.7500,-21.4410,-16.5196,-12.6487,-8.4464,-2.8269,-13.4087,-14.1960,-8.1160,-11.7407,-10.9034,-6.2377,-4.6647,-6.2787,-4.9043,-4.3568,-1.9989,-5.6395,-11.6320,-9.0674
847.6562,-12.9918,-19.8630,-16.4943,-12.5209,-6.4863,-14.5500,-12.9201,-11.6164,-15.2889,-6.0885,-13.3557,-6.0735,-8.7287,-7.8993,-3.0044,2.0908,-5.9399,-15.1256,-11.8928
851.5625,-5.2861,-21.6144,-20.4615,-16.6329,-11.2343,-13.4586,-10.9264,-15.4653,-18.3810,-3.2506,-20.3820,-8.5184,-12.0218,-11.4745,-2.1455,4.1661,-7.2630,-18.5584,-15.2932
855.4688,-2.0027,-21.4647,-23.4909,-19.5672,-14.9370,-10.4382,-9.6315,-18.0283,-20.2975,-3.8070,-24.5114,-11.2737,-14.9849,-13.8980,-2.5518,3.4420,-8.8916,-21.0982,-18.3943
859.3750,-4.7960,-19.7106,-24.6000,-20.5704,-16.0232,-7.1221,-9.7424,-18.2336,-20.6226,-7.4114,-24.2450,-13.4235,-16.5521,-14.1745,-4.1505,0.5184,-9.9051,-22.2102,-20.4220
863.2812,-11.9571,-17.1712,-23.4505,-19.7819,-14.4940,-5.4325,-10.9005,-16.2544,-19.3250,-12.4299,-20.0320,-14.3791,-16.4580,-12.6737,-6.1657,-3.2456,-9.8219,-21.8808,-21.1775
867.1875,-19.0524,-14.7902,-20.5904,-18.1598,-11.8724,-6.2859,-12.1179,-13.4157,-16.7620,-16.8528,-13.8983,-14.2039,-15.4022,-10.8003,-7.6797,-6.6222,-8.8971,-20.5656,-21.0974
871.0938,-21.4251,-13.1359,-17.1822,-16.9138,-10.1453,-8.9681,-12.5799,-11.3725,-13.5998,-19.0558,-8.3916,-13.5171,-14.5668,-9.9891,-8.1748,-9.0238,-7.9051,-18.9031,-20.8636
875.0000,-17.1008,-12.1254,-14.3666,-16.7756,-10.4469,-11.6151,-12.1382,-11.0963,-10.6207,-18.1655,-5.4578,-13.0421,-14.8244,-10.7668,-7.7027,-10.3717,-7.5942,-17.3679,-20.8690
878.9062,-8.1624,-11.1753,-12.6563,-17.5599,-12.3821,-12.4360,-11.1566,-12.3302,-8.4434,-14.1475,-5.7527,-13.1264,-16.1825,-12.5176,-6.6606,-10.6212,-8.2034,-16.0704,-20.9474
882.8125,0.4735,-9.6837,-11.7443,-18.2997,-14.4089,-10.8048,-9.9664,-13.8400,-7.2663,-7.8052,-8.5682,-13.5692,-17.8241,-14.0378,-5.4363,-9.4979,-9.3485,-14.8025,-20.5593
886.7188,4.1973,-7.4983,-10.8283,-17.8658,-14.9440,-7.4933,-8.5135,-14.2472,-6.7897,-0.6897,-12.2655,-13.8519,-18.6803,-14.3970,-4.2230,-6.7551,-10.3076,-13.2721,-19.2593
890.6250,1.6867,-5.0286,-9.2131,-15.6648,-13.3780,-3.9861,-6.5450,-12.8566,-6.3929,5.2455,-14.9803,-13.5572,-18.1037,-13.4647,-3.0914,-2.7284,-10.4712,-11.3471,-17.0544
894.5312,-4.3376,-2.9295,-6.7737,-11.9661,-10.3180,-1.4612,-4.1227,-9.9481,-5.4865,8.3060,-15.3491,-12.6333,-16.1832,-11.7877,-2.1638,1.3913,-9.6508,-9.1432,-14.3685
898.4375,-9.1244,-1.6147,-3.9840,-7.6752,-6.9799,-0.1833,-1.8868,-6.4207,-3.8294,7.7892,-13.0222,-11.3114,-13.5352,-10.0240,-1.6560,3.9899,-8.0799,-6.9142,-11.6631
902.3438,-9.2400,-0.9867,-1.5337,-3.7550,-4.2674,0.3576,-0.6972,-3.1324,-1.6189,4.3324,-8.7595,-9.7843,-10.7939,-8.4428,-1.7120,4.0098,-6.1771,-4.8527,-9.0537
906.2500,-4.8507,-0.5851,0.1566,-0.7154,-2.2463,0.8210,-0.8749,-0.4410,0.6902,-0.4205,-4.0255,-7.9550,-8.2127,-6.8684,-2.1822,1.7847,-4.2798,-2.9669,-6.2630
910.1562,0.6709,-0.0112,1.1643,1.4988,-0.3497,1.4745,-1.7301,1.7745,2.6864,-4.6728,-0.2401,-5.5008,-5.6556,-5.0391,-2.5920,-0.9756,-2.5338,-1.1296,-2.9612
914.0625,3.4357,0.7394,1.8974,3.2210,1.9387,2.1244,-1.9151,3.7384,4.2002,-7.2936,1.9227,-2.2199,-2.9237,-3.0052,-2.4071,-2.1870,-0.9638,0.7482,0.7919
917.9688,1.9450,1.3169,2.6916,4.6638,4.5218,2.4470,-0.4600,5.4297,5.2740,-8.0713,2.7581,1.6223,-0.1049,-1.1914,-1.4393,-0.7570,0.3899,2.5675,4.3952
921.8750,-1.9716,1.3864,3.5074,5.7431,6.6995,2.3310,2.3088,6.5664,5.9655,-7.3402,3.1207,5.2555,2.3578,-0.0687,-0.0772,2.6425,1.4111,4.0454,7.0084
925.7812,-4.8188,0.9938,3.9624,6.2358,7.7066,1.9113,4.7948,6.9044,6.1824,-5.4379,3.6627,7.7515,3.9341,0.2677,0.8809,5.9850,1.9710,4.8784,8.0990
929.6875,-4.3136,0.5901,3.6680,6.0895,7.3082,1.3181,5.2310,6.5548,5.7108,-2.5585,4.2894,8.5310,4.3854,0.2256,0.7226,7.2265,2.0398,4.9449,7.8103
933.5938,-1.1961,0.6691,2.5995,5.5836,5.9632,0.4559,3.0824,6.0091,4.4287,0.8621,4.2666,7.6825,3.9465,0.4069,-0.6907,5.6402,1.7299,4.3939,6.8540
937.5000,1.4205,1.3110,1.2078,5.1799,4.4404,-0.9189,-0.3613,5.8223,2.5279,3.6974,2.9221,5.8818,3.1642,1.0912,-2.7992,2.2173,1.2203,3.5520,6.0020
941.4062,0.5858,2.0288,0.1787,5.1771,3.2280,-2.8635,-2.7638,6.2019,0.5364,4.2932,0.3850,3.9898,2.5271,1.9321,-4.6897,-1.1061,0.6264,2.7211,5.5708
945.3125,-4.1035,2.0784,0.0103,5.4567,2.2280,-4.9789,-2.3971,6.8383,-0.9197,1.4540,-2.2801,2.6159,2.1697,2.1330,-5.6697,-2.7881,-0.0705,2.0145,5.2911
949.2188,-10.1364,1.0132,0.7080,5.5366,0.9664,-6.5054,0.5497,7.1207,-1.4747,-4.3476,-3.7423,1.9127,1.8665,1.0029,-5.6629,-2.6013,-0.9660,1.3446,4.6429
953.1250,-13.9658,-0.9476,1.8001,4.9040,-0.8859,-6.7724,4.0241,6.5730,-1.2526,-10.5929,-3.4217,1.6649,1.2886,-1.5059,-5.1558,-1.5238,-2.0973,0.5569,3.3635
957.0312,-13.5976,-3.0322,2.6442,3.3802,-3.1400,-5.6636,5.5269,5.1773,-0.7986,-13.8194,-2.0531,1.5278,0.2997,-4.6712,-4.7617,-0.7923,-3.3462,-0.4009,1.7043
960.9375,-9.8805,-4.4261,2.8030,1.2540,-5.1757,-3.7216,3.8555,3.3567,-0.7433,-11.7610,-1.2727,1.2193,-0.9411,-7.3753,-4.7525,-0.9164,-4.4724,-1.3993,0.2330
964.8438,-5.6131,-4.7910,2.2458,-0.8920,-6.4010,-1.8034,-0.1081,1.6642,-1.4206,-5.1223,-2.4421,0.5782,-2.1255,-8.7161,-4.9118,-1.4111,-5.2535,-2.1890,-0.6389
968.7500,-3.3541,-4.4088,1.2852,-2.5127,-6.6832,-0.5610,-4.1037,0.4424,-2.6836,2.4152,-5.5542,-0.4538,-3.0427,-8.4460,-4.8023,-1.3792,-5.6186,-2.5518,-0.9961
972.6562,-3.7600,-3.8833,0.3397,-3.3503,-6.3868,-0.1480,-6.0988,-0.2961,-4.0284,6.2398,-9.0773,-1.8297,-3.7130,-6.9847,-4.2104,-0.3986,-5.6645,-2.4342,-1.3317
976.5625,-5.6751,-3.6765,-0.2960,-3.4682,-6.0057,-0.3288,-5.5636,-0.7267,-4.9297,3.7008,-10.9355,-3.3620,-4.3099,-5.0706,-3.3970,1.0379,-5.5490,-1.9849,-2.0976
980.4688,-7.6293,-3.8544,-0.5418,-3.1151,-5.7264,-0.8103,-3.5251,-0.9879,-5.1636,-4.1087,-9.9663,-4.7332,-4.9561,-3.3438,-2.9445,1.8761,-5.3628,-1.4877,-3.2660
984.3750,-9.2363,-4.2031,-0.4810,-2.5635,-5.3167,-1.4498,-1.5168,-1.0837,-4.9210,-12.9723,-6.8010,-5.6243,-5.5806,-2.1327,-3.3140,1.3392,-5.0971,-1.2350,-4.2758
988.2812,-11.2063,-4.5392,-0.2490,-2.0284,-4.4312,-2.1617,-0.3740,-0.9707,-4.6563,-18.2195,-3.5025,-5.9121,-5.9545,-1.5040,-4.4577,-0.4342,-4.7300,-1.4046,-4.4250
992.1875,-14.0478,-4.8952,0.0515,-1.6533,-3.0507,-2.6875,0.1609,-0.6974,-4.7834,-17.6236,-2.1918,-5.7739,-5.8625,-1.4202,-5.7907,-2.4490,-4.3325,-1.9814,-3.4065
996.0938,-16.8098,-5.4047,0.3811,-1.4875,-1.6312,-2.5649,0.8255,-0.4154,-5.4038,-12.5462,-3.6298,-5.5674,-5.2558,-1.8064,-6.5558,-3.5447,-4.0616,-2.7433,-1.5649
1000.0000,-17.2545,-6.0235,0.7591,-1.4331,-0.7859,-1.4522,1.8891,-0.2238,-6.2204,-6.6255,-6.7480,-5.5287,-4.2591,-2.4735,-6.3142,-3.1740,-4.0097,-3.3220,0.3295
1003.9062,-13.5729,-6.3961,1.2440,-1.2271,-0.7419,0.4206,2.7726,0.0046,-6.6758,-3.0858,-9.4178,-5.5137,-3.0443,-3.0244,-5.2092,-1.6994,-4.0318,-3.3322,1.6113
1007.8125,-6.2750,-6.0552,1.8929,-0.5465,-1.0437,2.1293,2.5799,0.6138,-6.2377,-2.6806,-9.8684,-5.0211,-1.6976,-2.9202,-3.8242,-0.0480,-3.7345,-2.5347,2.1467
1011.7188,1.4844,-4.8270,2.6984,0.7742,-0.8121,2.5279,1.0360,1.9182,-4.6863,-3.6873,-7.7392,-3.5374,-0.2062,-1.7516,-2.7549,0.9538,-2.7096,-0.9603,2.3423
1015.6250,5.7268,-3.0868,3.5314,2.5571,0.5887,1.0795,-1.0551,3.8902,-2.2575,-3.7380,-4.0983,-0.9748,1.4302,0.4402,-2.2163,1.0620,-0.8811,1.0800,2.7603
1019.5312,4.4171,-1.5969,4.1520,4.2966,2.9818,-1.5746,-2.3071,6.0474,0.4320,-1.8862,-0.5467,2.1389,3.0754,3.0409,-1.9551,0.6256,1.3041,3.1230,3.6623
1023.4375,-0.9384,-0.9990,4.3258,5.4191,5.3785,-3.8423,-1.8321,7.6744,2.6530,0.7524,1.8423,4.9002,4.4516,5.0842,-1.5013,0.2267,3.0442,4.7548,4.8366
1027.3438,-6.2091,-1.3433,3.9931,5.6255,6.6003,-4.1698,0.0105,8.2447,3.8989,2.1918,2.9890,6.5584,5.2754,5.7306,-0.5491,0.2883,3.6581,5.7679,5.8085
1031.2500,-7.5049,-2.0365,3.3725,5.0681,6.0823,-2.1395,1.8660,7.7344,4.1167,1.4760,3.4726,6.9606,5.4372,4.7265,0.8119,0.9120,3.0553,6.1819,6.2321
1035.1562,-3.8887,-2.2646,2.8864,4.2209,4.2683,1.1415,2.4756,6.5909,3.7085,-0.3886,3.8310,6.5914,5.0819,2.5645,2.1642,1.9562,1.8458,6.1405,6.1410
1039.0625,2.0801,-1.5567,2.9239,3.5445,2.3052,3.7071,1.7159,5.3896,3.2991,-1.2862,4.1410,6.1946,4.5347,0.2491,3.0529,3.1856,0.9688,5.7912,5.8862
1042.9688,6.3330,-0.0388,3.5885,3.2122,1.2754,4.0294,0.7079,4.4597,3.4031,0.0973,4.1925,6.2752,4.1390,-1.1900,3.2820,4.3477,1.0731,5.2587,5.8575
1046.8750,6.2594,1.8067,4.6221,3.1096,1.5324,2.0356,0.8711,3.7751,4.1820,2.9686,3.9988,6.8548,4.1270,-1.1612,3.0261,5.1906,2.0905,4.7230,6.2386
1050.7812,2.4275,3.6312,5.5774,3.0759,2.6020,-0.8709,2.6759,3.1710,5.4228,4.9231,4.0873,7.6204,4.5858,0.2775,2.7104,5.5229,3.3166,4.4854,6.9672
1054.6875,-2.1087,5.4885,6.1222,3.1383,3.6508,-2.7811,5.1260,2.6606,6.7177,3.9373,5.2135,8.2757,5.4752,2.5154,2.7651,5.3420,3.9442,4.8852,7.8609
1058.5938,-4.2037,7.6106,6.2364,3.4891,4.1035,-2.5255,6.4283,2.5342,7.6944,0.2455,7.6707,8.7512,6.6119,4.6868,3.4053,4.9075,3.6493,6.0444,8.7258
1062.5000,-2.7941,9.8717,6.1405,4.1960,3.9259,-0.3275,5.3496,3.1134,8.1350,-3.5195,10.7662,9.0828,7.6078,5.9990,4.5370,4.6102,2.7819,7.6010,9.3239
1066.4062,0.7005,11.4604,6.0053,4.9074,3.4141,2.5160,2.1965,4.3512,7.9335,-4.1957,12.9664,9.0980,7.8591,5.9635,5.7966,4.6511,2.0234,8.6796,9.2644
1070.3125,3.7811,11.1717,5.6914,4.8764,2.7554,4.5834,-1.3574,5.6417,6.9923,-0.6048,12.7203,8.2569,6.7128,4.4910,6.6766,4.7686,1.7866,8.2336,8.0147
1074.2188,4.7419,8.2314,4.7701,3.3883,1.7939,5.1649,-3.4650,6.0717,5.2096,5.2648,9.4433,5.8930,3.8145,1.8704,6.6885,4.3029,1.8481,5.6293,5.1529
1078.1250,3.5335,3.0735,2.8622,0.3281,0.2193,4.4486,-3.3891,5.0002,2.6193,9.4283,3.9856,1.7533,-0.5435,-1.3349,5.5312,2.6565,1.5204,1.1224,0.7498
1082.0312,1.2050,-2.5796,0.0629,-3.5505,-1.9991,3.0919,-1.8900,2.5649,-0.4229,8.6577,-1.7482,-3.5622,-5.3453,-4.4467,3.2315,-0.1455,0.2457,-4.1153,-4.4137
1085.9375,-1.2526,-6.5253,-2.8884,-6.9157,-4.3445,1.6637,-0.4606,-0.2731,-3.2027,2.8106,-5.7864,-8.6553,-9.1928,-6.8475,0.2003,-3.2528,-1.8547,-8.4942,-9.0339
1089.8438,-3.4921,-7.3034,-4.8807,-8.5599,-5.9328,0.4282,-0.0529,-2.2193,-4.8787,-4.9860,-7.0562,-11.9330,-10.9316,-8.1194,-2.8499,-5.3932,-3.9232,-10.7540,-11.8434
1093.7500,-5.4217,-5.0164,-5.0136,-8.0493,-6.0454,-0.4715,-0.3241,-2.3639,-4.8940,-10.4189,-5.7584,-12.4084,-10.2023,-8.0974,-5.1299,-5.6617,-4.8792,-10.5087,-12.2137
1097.6562,-6.4999,-1.1831,-3.1194,-5.8838,-4.6136,-0.7641,0.0123,-0.6624,-3.3103,-10.8028,-3.0190,-10.1856,-7.5690,-6.8404,-6.0626,-4.1306,-4.1404,-8.2789,-10.4147
1101.5625,-5.7060,2.2546,0.1153,-3.1001,-2.2861,-0.1010,2.0251,2.1057,-0.8227,-6.6192,-0.1509,-6.3355,-4.1499,-4.5776,-5.5000,-1.7983,-2.0287,-5.0582,-7.3737
1105.4688,-2.4578,4.0571,3.4977,-0.6526,-0.0361,1.5745,5.5172,4.8174,1.5809,-0.8182,1.9631,-2.2848,-1.0134,-1.6987,-3.7612,0.1109,0.4247,-1.7685,-4.1333
1109.3750,2.3244,4.1781,5.8993,0.9680,1.3774,3.6948,8.9155,6.5679,3.1010,3.4017,3.0462,0.8489,1.2554,1.2117,-1.4790,0.9739,2.1152,1.0204,-1.3985
1113.2812,6.1900,3.3746,6.6894,1.6731,1.7036,5.1754,10.2051,6.9706,3.4425,4.5981,3.2135,2.5851,2.5734,3.3848,0.6511,1.0799,2.4771,2.9999,0.5544
1117.1875,6.5694,2.3676,5.8274,1.4657,1.0994,5.0106,8.2460,6.1081,2.7963,3.5109,2.6670,2.9864,3.0623,4.0405,2.0930,1.1964,1.6669,3.8864,1.6578
1121.0938,2.7215,1.2855,3.6827,0.2728,-0.1707,2.9659,3.5587,4.3085,1.5801,1.8985,1.5763,2.3699,2.7686,2.7375,2.5849,1.7667,0.2748,3.3766,1.8260
1125.0000,-3.3594,-0.1779,0.8220,-1.8699,-1.9021,-0.1667,-1.9209,1.9937,0.1916,0.9724,0.1849,1.1214,1.6788,-0.2601,2.1543,2.4300,-1.1325,1.4220,0.9885
1128.9062,-8.0063,-2.0988,-2.0716,-4.4603,-3.8348,-2.9818,-5.9031,-0.3196,-1.0343,0.7300,-1.0468,-0.2940,-0.0033,-3.8742,1.0850,2.2925,-2.2656,-1.4000,-0.6345
1132.8125,-8.2996,-3.8105,-4.1932,-6.4250,-5.4304,-4.2705,-6.9116,-1.9868,-1.7046,0.5425,-1.4836,-1.2748,-1.6311,-6.5588,-0.1385,0.7459,-3.0346,-3.8280,-2.3172
1136.7188,-4.0758,-4.0844,-4.7123,-6.5386,-5.8777,-3.6586,-4.8798,-2.3521,-1.3095,0.2221,-0.5955,-1.1945,-2.2564,-7.0223,-0.9346,-1.8548,-3.3247,-4.3987,-2.9880
1140.6250,2.0263,-1.9608,-3.0762,-4.1847,-4.4869,-1.6612,-0.9495,-1.0422,0.5917,0.4510,1.6974,0.2954,-1.1498,-4.9498,-0.8093,-4.2536,-2.9198,-2.2667,-1.7820
1144.5312,6.5347,2.4024,0.6126,0.0968,-1.2508,0.8006,3.2618,1.7506,4.0023,2.1346,4.8850,2.9876,1.6549,-1.2578,0.4152,-5.1037,-1.6845,2.1862,1.3662
1148.4375,7.6081,7.5783,5.4552,4.7744,2.8898,2.9957,6.4400,5.2530,8.2419,5.2952,8.0822,6.1472,5.2474,2.3592,2.4538,-3.9034,0.1760,7.4421,5.5558
1152.3438,6.1074,11.6383,10.0675,8.2003,6.4044,4.6606,8.0312,8.4564,12.1128,8.6007,10.5048,8.9080,8.3300,4.3799,4.6364,-1.3203,2.0778,11.6749,9.3818
1156.2500,4.5335,13.3466,13.2469,9.6275,8.0227,5.8637,8.2716,10.6378,14.4871,10.1013,11.9096,10.7805,10.0097,4.3367,6.2316,1.3485,3.3615,13.8010,11.7559
1160.1562,4.8108,12.9290,14.5847,9.6288,7.5246,6.7059,7.8975,11.7050,14.9558,8.6762,12.6961,11.8789,10.3186,3.0487,6.8596,3.1203,3.7332,14.0383,12.5177
1164.0625,6.7673,11.8420,14.5949,9.5786,5.8893,7.1808,7.7115,12.1249,14.0645,5.0156,13.5759,12.6682,10.0575,2.0321,6.7203,3.8904,3.4704,13.5769,12.3927
1167.9688,8.4961,11.6927,14.2505,10.5633,4.6524,7.2729,8.1741,12.4931,12.9135,1.2736,15.0019,13.4218,10.0721,2.4669,6.4466,4.1710,3.1801,13.6017,12.3322
1171.8750,8.1667,13.0808,14.2534,12.5322,4.9002,7.1000,9.1724,13.0756,12.3719,-0.4138,16.7353,13.8467,10.5310,4.4163,6.6373,4.2845,3.2733,14.3878,12.7453
1175.7812,5.6612,15.1864,14.5766,14.3433,6.6078,6.8620,10.0828,13.6620,12.4740,0.5775,17.8701,13.2318,10.7959,6.8348,7.3779,3.7872,3.5954,15.1369,13.2160
1179.6875,2.6303,16.3786,14.6125,14.6748,8.7770,6.6004,10.1422,13.8225,12.4595,2.9932,17.3548,11.0570,10.0153,8.3472,8.1069,1.7236,3.5521,14.6725,12.9222
1183.5938,0.9754,15.3786,13.7882,13.0997,10.2315,6.0316,8.9571,13.3338,11.4399,4.7059,14.7140,7.5969,7.9746,8.2300,7.9687,-2.4158,2.6661,12.4551,11.4148
1187.5000,1.1265,12.1405,12.1321,10.4753,10.4389,4.7175,6.8425,12.4130,9.1834,4.2625,10.5019,3.9978,5.4826,6.8756,6.4418,-7.8291,1.1031,9.1309,9.1148
1191.4062,1.6497,7.8527,10.3129,8.3211,9.7402,2.5259,4.7250,11.5584,6.3967,1.7787,6.1428,1.6780,3.9053,5.4034,3.7942,-12.4576,-0.3140,6.1713,7.0967
1195.3125,0.5397,4.1231,9.0961,7.6439,8.8573,-0.0091,3.6022,11.1244,4.2603,-1.4120,3.1897,1.4220,4.1315,4.7207,1.0088,-14.0995,-0.6913,4.8507,6.2844
1199.2188,-2.9240,1.9699,8.6538,8.1141,8.1341,-1.8376,3.8790,10.9788,3.5556,-3.9135,2.4245,2.8155,5.7574,4.7602,-0.8161,-11.8521,0.1808,5.3182,6.6696
1203.1250,-7.3878,1.3198,8.3091,8.2492,7.1738,-2.0847,5.0286,10.5324,4.0571,-5.2006,3.3705,4.4546,7.1775,4.4977,-1.1846,-6.8106,1.5275,6.4589,7.1792
1207.0312,-10.4299,1.2813,6.9741,6.4961,5.1946,-0.8052,5.8459,9.1384,4.6741,-5.6241,4.5656,4.8208,6.6140,2.7628,-0.5208,-1.4515,2.0553,6.6590,6.3468
1210.9375,-10.5554,0.8933,3.9847,2.4166,1.8204,0.8413,5.1585,6.5642,4.2526,-5.6709,4.4668,3.2343,3.3900,-0.7626,0.1679,1.8926,0.8889,4.9217,3.3339
1214.8438,-8.5087,-0.2349,-0.3017,-2.9088,-2.3610,1.2647,2.5392,3.1802,2.4384,-5.3167,2.4341,0.2479,-1.4878,-5.1333,0.0528,2.3765,-1.7260,1.5382,-1.4304
1218.7500,-6.7801,-1.8012,-4.6272,-7.5577,-5.9825,-0.4333,-1.4356,-0.2674,-0.0496,-4.1435,-0.8355,-2.7563,-5.9004,-8.6670,-0.8891,0.8636,-4.5194,-2.1414,-6.4514
1222.6562,-7.6627,-3.1723,-7.6100,-10.0219,-7.7468,-3.7136,-5.5174,-3.1158,-1.9279,-2.0898,-3.7164,-4.4489,-7.9686,-10.0496,-1.8651,-1.0380,-6.0587,-4.6232,-10.0662
1226.5625,-11.3964,-3.8531,-8.6108,-10.1244,-7.3171,-6.8469,-8.4465,-5.1226,-2.2413,-0.0078,-4.6490,-4.3035,-7.2380,-9.2096,-1.8996,-2.2885,-5.7416,-5.1854,-11.3961
1230.4688,-15.8385,-3.7011,-8.0529,-8.9600,-5.5644,-8.0443,-9.5135,-6.4480,-0.9660,0.7107,-3.0874,-2.7557,-4.8646,-7.3108,-0.6391,-3.0250,-4.1714,-4.1662,-10.7102
1234.3750,-17.8569,-2.8139,-6.9845,-7.9689,-3.9662,-6.6657,-8.7366,-7.3420,1.0904,-0.6691,0.1951,-0.7680,-2.7080,-5.8795,1.3003,-4.0494,-2.6464,-2.5099,-9.0164
1238.2812,-15.3196,-1.3150,-6.2525,-7.8823,-3.6016,-3.6105,-6.6834,-7.8356,2.9486,-3.1825,3.6047,0.8088,-2.0311,-5.7341,2.7464,-5.7298,-2.1833,-1.0129,-7.2703
1242.1875,-8.2267,0.6964,-5.9380,-8.3282,-4.4953,-0.6000,-4.1672,-7.7108,4.1233,-4.3399,5.6705,1.6249,-2.7557,-6.5317,2.8682,-7.3343,-2.8494,0.1240,-5.8191
1246.0938,1.6187,2.9942,-5.4632,-8.3323,-5.7829,1.0942,-2.0034,-6.7763,4.7952,-1.6936,5.8190,1.7909,-3.7687,-7.2489,1.8812,-7.4406,-3.9043,1.1510,-4.4519
1250.0000,11.8063,5.0890,-4.2257,-7.2510,-6.5203,1.5061,-0.8318,-5.2001,5.4411,5.2123,4.5372,1.5743,-3.9591,-7.1750,0.9907,-5.1338,-4.5817,2.2610,-2.9075
1253.9062,20.2837,6.3628,-2.1982,-5.3637,-6.4673,1.7904,-0.9109,-3.5795,6.3188,14.0147,2.9224,1.1515,-3.1383,-6.5845,1.5555,-0.9997,-4.8189,3.2333,-1.3366
1257.8125,25.5414,6.4851,0.0127,-3.6615,-6.2156,3.1930,-1.8974,-2.6354,7.2791,20.6525,1.9987,0.5974,-2.1381,-6.5203,4.0536,2.9773,-5.3009,3.5715,-0.2941
1261.7188,26.4250,5.8096,1.6825,-3.0264,-6.5821,6.0194,-2.8115,-2.7254,8.0377,21.8465,2.2504,0.0367,-2.0586,-7.8460,7.6184,4.6471,-6.7768,3.0174,-0.2693
1265.6250,22.3660,5.3590,2.6016,-3.4801,-7.7909,9.4035,-2.4101,-3.5487,8.5970,17.2757,3.5770,-0.2698,-3.3034,-10.3453,10.5217,3.1759,-9.2384,1.9638,-1.1723
1269.5312,14.2274,6.2605,3.2652,-4.1168,-9.1425,12.0048,0.0674,-4.2935,9.3648,9.9111,5.5437,-0.0412,-5.1819,-12.6457,11.2990,-0.3468,-11.6873,1.3460,-2.2504
1273.4375,4.9762,8.9369,4.4343,-3.7861,-9.4671,13.0236,4.2023,-4.1595,10.7980,4.2282,7.6532,0.7869,-6.3797,-13.1035,9.7282,-3.6546,-12.7455,2.0221,-2.5549
1277.3438,-0.9356,12.6270,6.4234,-1.9962,-8.0158,12.7127,8.3183,-2.8935,12.8599,3.4969,9.4650,1.9335,-5.9092,-11.0035,6.9715,-4.8530,-11.6579,4.0969,-1.6130
1281.2500,0.2433,15.6666,8.7206,0.6693,-5.0708,12.0217,10.2851,-0.9571,14.8055,7.9400,10.6087,2.9157,-3.7898,-7.1366,4.7912,-3.6172,-8.8843,6.7398,0.2303
1285.1562,8.9783,16.4547,10.2914,2.9488,-1.7730,11.7380,8.8354,0.7973,15.5777,14.8675,10.8449,3.3937,-0.9565,-3.2682,4.4094,-1.1783,-5.7893,8.6867,2.0882
1289.0625,21.3980,14.5136,10.3574,3.8210,0.7106,11.8668,4.5404,1.7040,14.5796,20.4967,10.2322,3.4598,1.4823,-0.8727,5.8131,0.8125,-3.6558,9.0886,3.2218
1292.9688,30.9733,10.9139,9.0353,3.2457,2.0186,11.7398,-0.3201,1.6997,12.2260,22.1052,9.2654,3.6216,3.0165,-0.1026,7.9425,1.5961,-2.7960,8.0855,3.5979
1296.8750,32.2168,7.7160,7.3074,2.1749,2.7598,10.6951,-3.0582,1.2880,9.7884,19.1755,8.7711,4.4531,3.9373,0.2006,9.5391,1.7572,-2.4588,6.6773,3.8618
1300.7812,24.0673,6.7310,6.3185,1.8281,3.8795,8.7050,-2.2630,1.1046,8.5812,13.1037,9.4988,6.1479,4.8710,1.4524,9.9776,2.5026,-1.5826,5.9911,4.7373
1304.6875,10.6066,8.3881,6.5319,2.7824,5.7471,6.4129,1.2684,1.4269,9.0675,6.0761,11.6145,8.2997,6.0915,4.0572,9.4922,4.4064,0.2399,6.4968,6.3291
1308.5938,-1.4862,11.4471,7.4012,4.5474,7.7194,4.5860,5.0370,1.9950,10.5557,0.0675,14.4630,10.0898,7.2160,6.9411,8.7378,6.6883,2.3848,7.7453,7.9022
1312.5000,-7.0511,13.7555,7.8067,5.9283,8.5620,3.4947,6.4771,2.2601,11.7223,-3.5350,16.8373,10.7750,7.5368,8.2886,8.1490,7.6609,3.7166,8.7967,8.3498
1316.4062,-5.3458,13.5587,6.9095,5.8868,7.4142,2.7651,4.6033,1.8418,11.5665,-3.8970,17.6451,10.1581,6.6928,6.9353,7.6675,6.0418,3.5658,8.9733,7.0206
1320.3125,0.1388,10.5235,4.7513,4.2653,4.5356,1.8078,0.5350,0.8269,10.0763,-0.8000,16.5495,8.7307,5.0940,3.3368,7.0270,2.1221,2.3426,8.3465,4.2804
1324.2188,4.5731,5.8446,2.1514,1.8646,1.2240,0.4090,-3.4276,-0.3185,8.1244,5.0246,14.1465,7.3937,3.7173,-0.6559,6.2636,-2.1479,1.2556,7.5966,1.3635
1328.1250,5.1548,1.4227,0.0272,-0.1332,-1.0512,-1.0588,-5.4537,-1.1287,6.7219,11.6767,11.5548,6.9315,3.4156,-3.0653,5.9085,-4.2998,1.3415,7.3952,-0.3992
1332.0312,2.5807,-1.2911,-1.2733,-0.9328,-1.6327,-1.9835,-5.3328,-1.4811,6.2488,16.5363,9.7085,7.5607,4.2877,-3.1426,6.6013,-2.9510,2.5852,7.8285,-0.4220
1335.9375,-0.1500,-2.0198,-2.0684,-0.5208,-1.0120,-2.0805,-4.3123,-1.6058,6.2689,17.4540,8.8518,8.8180,5.6112,-1.7835,8.4063,1.2394,3.8530,8.3351,0.8278
1339.8438,-0.3779,-1.5328,-2.8065,0.5511,-0.2725,-1.6422,-3.8228,-1.7487,6.0406,14.0277,8.5652,9.8373,6.3913,-0.7155,10.4435,5.9199,3.7209,8.2081,2.2549
1343.7500,2.2470,-0.8517,-3.3890,1.7456,-0.1093,-1.2279,-4.1331,-1.7852,5.2673,8.0121,8.2508,9.8440,6.0849,-1.1180,11.2577,8.4582,1.5621,7.2539,2.9490
1347.6562,5.8076,-0.4212,-2.9954,2.9719,-0.2447,-1.0803,-4.0150,-1.1521,4.4410,2.3945,7.6668,8.5793,4.9365,-2.7607,9.7701,7.4736,-1.9452,6.0610,2.7705
1351.5625,7.8387,0.1495,-0.6561,4.5145,0.2631,-0.8287,-1.7115,0.7628,4.4779,-0.3608,7.0915,6.4261,3.6832,-4.3151,6.1386,3.5297,-5.2782,5.6330,2.2952
1355.4688,7.1864,1.6124,3.8122,6.5374,2.0516,0.1942,3.5120,4.0160,5.9202,0.2769,7.0103,4.1776,2.8981,-4.5541,1.8443,-1.3624,-7.1325,6.6269,2.2109
1359.3750,4.6041,4.2582,9.2559,8.6121,4.6230,2.2532,10.4141,7.7525,8.3438,2.8143,7.6021,2.5911,2.5167,-3.4589,-1.1413,-5.0025,-7.2731,8.7603,2.6670
1363.2812,1.8587,7.3918,13.5495,9.7228,6.3866,4.7398,16.1912,10.4470,10.4623,4.9795,8.4560,1.9847,1.9269,-2.3363,-1.5702,-6.1791,-6.5572,10.8468,3.0971
1367.1875,0.2950,9.5436,14.7471,8.8341,5.6428,6.3990,18.0411,10.6829,10.8937,5.3323,8.7706,2.1120,0.5340,-2.8390,0.3302,-5.0971,-6.1664,11.4796,2.6466
1371.0938,0.0443,9.3369,12.2857,5.6509,1.8316,6.1522,14.8468,8.0069,9.0604,4.0490,7.9116,2.3884,-1.6637,-5.6474,3.0874,-2.9402,-6.6833,9.9249,0.8694
1375.0000,0.3340,6.4502,7.4100,1.0036,-3.8860,3.8955,7.8700,3.2899,5.6012,2.3958,5.9282,2.3326,-3.9537,-9.8312,5.0073,-0.9884,-7.7105,6.6313,-1.8440
1378.9062,0.3919,2.0092,2.4963,-3.4777,-9.1903,0.6311,0.0348,-1.6814,2.0239,1.4612,3.6479,1.9380,-5.3386,-13.3810,5.2492,0.1113,-8.2646,3.0197,-4.4363
1382.8125,0.0705,-1.9080,-0.3113,-6.2436,-11.9588,-2.1908,-5.6901,-5.1591,-0.1497,1.2622,2.2573,1.7155,-5.1863,-14.5106,4.2181,0.5356,-7.5695,0.6803,-5.8325
1386.7188,-0.2561,-3.4033,-0.2824,-6.7001,-11.4931,-3.6218,-7.7792,-6.3490,-0.1954,0.9441,2.6239,2.3451,-3.6209,-12.7756,3.0816,0.9423,-5.6146,0.4745,-5.6123
1390.6250,-0.2465,-1.8517,1.6198,-5.5048,-8.7963,-3.7333,-6.6696,-5.7278,1.5120,-0.1912,4.7735,4.1400,-1.4006,-9.2341,2.8539,1.9062,-3.0949,2.0733,-4.2502
1394.5312,0.0227,1.7160,3.4706,-4.0965,-5.7692,-3.3510,-4.1622,-4.6017,3.8052,-1.8165,7.8312,6.6851,0.5806,-5.6217,3.7463,3.5063,-0.8639,4.1783,-2.7907
1398.4375,0.1784,5.1816,3.5928,-3.7786,-3.9423,-3.2880,-2.2342,-4.2339,5.3798,-2.7127,10.4450,8.9316,1.7785,-3.2129,5.1915,5.2829,0.6203,5.2630,-2.2068
1402.3438,-0.0328,6.5210,1.4720,-4.9610,-3.6308,-3.7372,-2.0173,-5.1155,5.4059,-1.8519,11.4436,9.7417,2.1573,-2.1878,6.3984,6.5384,1.4495,4.3961,-2.8664
1406.2500,-0.5073,4.8915,-2.1173,-7.0227,-4.0180,-4.2918,-3.4354,-6.8088,3.8200,0.5055,10.3773,8.5632,1.9988,-1.8513,6.9280,6.7701,1.9876,1.6975,-4.4093
1410.1562,-0.9568,1.0010,-5.7242,-8.8201,-3.9752,-4.4955,-5.5136,-8.3782,1.2367,2.7264,7.6785,5.7892,1.5943,-1.3900,6.8604,5.9638,2.4702,-1.7900,-6.0386
1414.0625,-1.2669,-3.4081,-8.0928,-9.4451,-2.9368,-4.3746,-7.0301,-9.0430,-1.4110,2.9519,4.3938,2.5435,1.0779,-0.5171,6.5293,4.5753,2.8226,-4.7071,-6.9920
1417.9688,-1.6304,-6.5860,-8.7532,-8.7175,-1.2127,-4.4562,-7.1285,-8.5982,-3.3186,0.6323,1.6448,0.0084,0.4715,0.4400,6.1511,3.2159,2.7877,-6.1153,-6.9055
1421.8750,-2.3033,-7.6642,-8.0678,-7.1368,0.3901,-5.2645,-5.6681,-7.3763,-4.1585,-2.8141,0.1007,-1.2662,-0.1868,0.9474,5.6954,2.2492,2.1857,-5.9627,-5.9117
1425.7812,-3.2571,-6.9079,-6.8356,-5.4188,1.2405,-6.7729,-3.2523,-5.8772,-4.1797,-4.8714,-0.2736,-1.6130,-0.7950,0.7392,5.0561,1.5813,1.0600,-5.0325,-4.4906
1429.6875,-4.1282,-5.2853,-5.7769,-4.0045,1.3069,-8.3332,-0.9687,-4.4023,-3.9940,-3.7784,-0.0727,-1.8933,-1.2581,-0.0295,4.2830,0.8118,-0.3670,-4.4098,-3.1959
1433.5938,-4.5565,-3.7454,-5.1958,-2.8903,1.0610,-9.1774,0.0913,-2.9668,-4.1421,0.0164,-0.0050,-2.7998,-1.5687,-0.9928,3.6024,-0.3432,-1.8114,-4.7804,-2.3975
1437.5000,-4.5676,-2.7219,-4.9469,-1.8415,1.0262,-9.0631,-0.6168,-1.5045,-4.6943,3.9591,-0.4193,-4.3173,-1.7819,-1.8760,3.1990,-1.6769,-2.9774,-5.9842,-2.1374
1441.4062,-4.5527,-2.1450,-4.6463,-0.7569,1.3768,-8.4878,-2.7181,-0.1372,-5.1740,5.0745,-1.1050,-5.7240,-1.9000,-2.6030,2.9973,-2.5040,-3.5401,-7.1149,-2.1531
1445.3125,-4.7978,-1.8255,-3.9677,0.1380,1.8812,-8.2571,-4.9869,0.7559,-4.9152,2.0594,-1.5030,-6.1278,-1.8099,-3.1687,2.7041,-2.1374,-3.2005,-7.1275,-2.0619
1449.2188,-5.0227,-1.8072,-2.8591,0.4317,2.1685,-8.7594,-5.9324,0.7591,-3.6398,-3.7213,-1.1820,-5.1399,-1.3866,-3.4796,2.1179,-0.5224,-1.8966,-5.5758,-1.6276
1453.1250,-4.4854,-2.3499,-1.5739,-0.1108,2.0531,-9.5661,-4.6549,-0.2242,-1.8173,-9.0495,-0.2346,-3.1932,-0.6997,-3.3711,1.4191,1.4814,-0.0459,-2.9806,-0.9541
1457.0312,-2.7061,-3.5512,-0.4959,-1.2509,1.6602,-9.7183,-1.4726,-1.7570,-0.4553,-10.8939,0.7293,-1.2715,-0.1075,-2.7925,1.1281,2.5087,1.4638,-0.5410,-0.4520
1460.9375,-0.1913,-4.9556,0.1509,-2.2902,1.3033,-8.4817,2.1314,-2.9882,-0.3789,-8.2504,1.0251,-0.2408,-0.0670,-1.9445,1.6967,1.6174,1.6974,0.6610,-0.5475
1464.8438,1.6297,-5.5620,0.5296,-2.4153,1.2633,-5.9565,4.3037,-3.0681,-1.4988,-2.5824,0.4673,-0.2635,-0.7309,-1.1763,3.0605,-0.8976,0.3271,0.4362,-1.2977
1468.7500,1.4285,-4.3493,1.1728,-1.1687,1.6527,-3.0484,3.9257,-1.6188,-2.6753,3.2801,-0.3770,-0.7075,-1.6531,-0.6911,4.5710,-3.4848,-1.9625,-0.3182,-2.2016
1472.6562,-0.7888,-1.0117,2.6680,1.2509,2.4201,-0.8365,1.3433,1.0248,-2.4053,6.8729,-0.5007,-0.6107,-1.9200,-0.3302,5.4300,-4.2903,-3.7324,-0.1941,-2.4151
1476.5625,-3.3781,3.6379,5.2007,4.0438,3.4225,0.1379,-1.7735,3.9523,0.0765,7.2644,0.8360,0.6324,-0.7304,0.3196,5.3065,-2.5203,-3.6704,1.7373,-1.3013
1480.4688,-4.1858,7.9681,8.2657,6.1910,4.4734,0.1051,-3.3897,6.1171,4.0855,5.0694,3.5068,2.8395,1.9499,1.5384,4.6096,0.7683,-1.5280,5.2033,1.0438
1484.3750,-2.3725,10.4238,10.8049,6.9495,5.3626,-0.3006,-2.3052,6.8376,7.7704,1.6315,6.4938,5.1523,5.1767,3.1348,4.1458,3.1529,1.5960,8.8101,3.7086
1488.2812,0.5847,10.4513,11.7675,6.1996,5.9162,-0.6308,1.1429,6.0956,9.2886,-1.8088,8.4929,6.5965,7.5163,4.4979,4.4112,2.4382,3.9231,10.9088,5.4736
1492.1875,1.7587,8.8158,10.7665,4.4782,6.1217,-0.9075,5.2915,4.4921,8.0672,-4.4079,8.7330,6.6998,7.9685,5.0661,5.1179,-1.6712,4.2029,10.6696,5.6249
1496.0938,-0.9385,7.0544,8.3802,2.7032,6.2314,-1.4030,8.1182,2.9066,5.2108,-5.5705,7.4145,5.7604,6.6840,4.8553,5.3945,-7.0416,2.5951,8.6148,4.5047
1500.0000,-6.8104,6.4058,5.8416,1.7432,6.7022,-2.1969,8.3583,2.0534,2.7071,-4.8766,5.4631,4.6137,4.9237,4.5790,4.5372,-10.2505,0.5526,6.2377,3.3593
1503.9062,-12.4967,6.9456,4.2808,2.0453,7.9295,-2.9874,6.1259,2.1678,1.9827,-2.3989,3.8142,4.0840,4.2346,5.1933,2.6859,-8.7688,-0.2396,4.9802,3.5256
1507.8125,-14.3453,7.5393,4.0253,3.4878,9.9260,-3.3675,2.7419,2.9729,2.8815,0.8498,2.8065,4.4889,5.4030,7.1707,0.8085,-2.7609,0.9060,5.2923,5.4946
1511.7188,-11.3408,6.6738,4.4511,5.5058,12.2023,-3.3037,-0.0549,3.9196,3.8470,2.9640,2.1457,5.4949,7.9265,10.0696,-0.0617,4.7546,3.2022,6.4262,8.5229
1515.6250,-6.2530,3.6123,4.5036,7.4021,13.9993,-3.3185,-1.0246,4.5420,3.1863,2.0289,1.4122,6.3734,10.3827,12.7622,0.2660,9.5783,5.0110,7.0674,11.0933
1519.5312,-3.9169,-0.9251,3.5112,8.6750,14.7512,-4.1238,0.0032,4.7136,0.4584,-2.5709,0.6229,6.4572,11.4119,14.1681,0.8780,8.7966,5.0793,6.3107,11.9143
1523.4375,-7.7968,-5.0475,1.6963,9.1984,14.4452,-5.9718,2.1339,4.6541,-3.0791,-9.4011,0.3137,5.5068,10.5928,13.9387,0.4403,2.4673,3.4325,4.2680,10.7532
1527.3438,-17.4256,-6.7895,0.0076,9.1839,13.5866,-8.3008,3.9128,4.7021,-5.3192,-15.5633,1.0398,3.7975,8.6012,12.5768,-1.6619,-6.5120,1.2629,1.9166,8.5148
1531.2500,-28.6964,-5.3168,-0.5890,8.9854,12.7789,-10.0564,4.0570,5.0223,-4.8151,-18.4504,2.7297,1.9284,6.6027,10.9397,-4.6640,-14.1618,-0.0540,0.3730,6.5436
1535.1562,-36.7482,-1.4645,0.1853,8.8854,12.2495,-10.4836,2.0903,5.4630,-1.8121,-17.5073,4.5120,0.5071,5.4067,9.5716,-6.8494,-17.5868,-0.0059,0.1780,5.6947
1539.0625,-39.1175,2.7285,1.7641,8.9971,11.7171,-9.7320,-1.3825,5.6731,1.9545,-14.6344,5.2642,-0.1070,5.0350,8.4219,-6.8094,-16.1965,0.7658,1.0990,5.8660
1542.9688,-36.6635,5.1827,3.2299,9.3083,10.7255,-8.7135,-4.8907,5.3967,4.5089,-12.7570,4.5030,0.1072,4.9747,7.1405,-4.5632,-11.4195,1.1135,2.5048,6.2956
1546.8750,-31.6987,4.9119,4.0598,9.7879,9.1715,-8.2679,-6.7467,4.7175,4.9614,-13.4796,2.8757,0.8995,4.8099,5.6279,-1.6160,-5.4277,0.3873,3.9185,6.3231
1550.7812,-25.1836,2.4691,4.5237,10.4340,7.5583,-8.3203,-5.8679,4.0482,3.9406,-15.5791,1.7668,1.8982,4.6428,4.2933,0.1517,0.0609,-1.0459,5.2716,5.9662
1554.6875,-15.6907,-0.4912,5.4188,11.2133,6.7096,-7.8000,-2.3690,3.8441,2.8912,-15.6394,2.2401,2.7562,4.9404,3.7520,-0.0829,4.1449,-2.1742,6.6965,5.8496
1558.5938,-1.3055,-2.1900,7.3534,11.9574,7.1258,-5.5012,2.4248,4.2389,2.8804,-10.5929,4.1310,3.2471,5.9705,4.2217,-1.4716,6.3407,-2.2512,8.1206,6.5725
1562.5000,17.0796,-1.6346,10.1562,12.3470,8.5004,-1.2601,6.6217,4.8864,3.8689,-0.4182,6.0529,3.3016,7.3632,5.1854,-2.2243,6.1368,-1.4556,9.0962,8.0686
1566.4062,34.1804,1.0076,12.8888,12.0573,9.8286,3.5338,8.7522,5.1578,4.9550,11.0924,6.3951,2.9949,8.2350,5.6894,-1.1203,3.1312,-0.7363,9.0694,9.5169
1570.3125,42.4806,4.6571,14.4606,10.9969,10.0866,6.6296,8.5351,4.5813,5.2738,18.3443,4.5697,2.4981,7.8265,5.0881,1.4139,-2.2864,-0.9855,7.8817,9.9016
1574.2188,37.1489,7.9302,14.3743,9.4605,8.9867,6.4210,6.9401,3.2092,4.7372,17.5863,1.5110,2.0102,6.1441,3.6168,3.5663,-8.4025,-2.2478,6.0537,8.7855
1578.1250,20.1627,9.7284,13.0308,8.0375,7.2131,3.1828,5.4855,1.6239,4.0089,9.7173,-1.0204,1.6954,4.0571,2.2670,3.5838,-12.5312,-3.6469,4.5577,6.6748
1582.0312,0.1936,9.5684,11.3815,7.2858,5.9272,-0.9266,5.2173,0.5474,3.8091,0.1593,-1.8130,1.6507,2.7281,2.0019,1.2732,-12.3162,-4.1004,4.2039,4.6814
1585.9375,-12.2567,7.6282,10.2206,7.3692,5.9016,-3.1847,6.0450,0.3217,4.2248,-4.3686,-1.1572,1.9165,2.7940,2.9314,-1.6591,-7.2161,-3.2333,5.1019,3.7434
1589.8438,-11.3686,4.6151,9.6786,7.9189,6.9436,-2.0592,6.8805,0.6413,4.6623,-0.1696,-0.5596,2.5115,3.9301,4.1443,-2.7652,0.9058,-1.7270,6.6199,4.0108
1593.7500,0.3905,1.5466,9.2802,8.2483,8.0544,1.8204,6.4715,0.7555,4.4758,10.8940,-1.3969,3.4537,5.1300,4.3897,-0.6731,8.6449,-0.8115,7.8737,4.8497
1597.6562,14.1756,-0.5357,8.4615,7.7990,8.1967,6.1242,4.3330,0.0154,3.6792,22.4190,-3.5933,4.7315,5.4716,3.0953,3.8079,12.9206,-1.3095,8.3541,5.4212
1601.5625,20.8320,-0.9223,7.0796,6.5221,7.0711,8.3442,1.1125,-1.6224,3.0434,27.4436,-5.4717,6.2329,4.7676,0.9022,8.1389,12.6575,-3.0034,8.1993,5.3378
1605.4688,16.7822,0.4238,5.4893,4.9238,5.3068,7.2925,-1.8577,-3.5079,3.4211,22.7966,-5.0309,7.6844,3.6133,-0.7471,9.7347,9.1895,-4.8200,7.9181,4.8773
1609.3750,5.6507,2.7272,4.1558,3.7357,3.9415,3.6019,-3.4776,-4.7065,4.8447,10.9694,-1.7203,8.6741,2.8405,-0.6780,7.6434,5.1739,-5.6559,7.8273,4.6220
1613.2812,-5.1884,4.6374,3.1814,3.4344,3.6236,-0.9614,-3.5869,-4.6255,6.2151,-1.6609,2.7350,8.7916,2.8489,1.1133,3.0381,2.8138,-5.1688,7.7029,4.8727
1617.1875,-10.2321,4.8424,2.1927,3.9417,4.1673,-4.7283,-2.9583,-3.4211,5.9640,-8.9808,5.2758,7.8380,3.3500,3.4272,-1.7342,2.6019,-3.9227,6.9567,5.3480
1621.0938,-9.3667,2.7926,0.7179,4.7063,4.7795,-6.9943,-2.6146,-1.9023,3.2653,-8.8639,3.6790,5.9890,3.6824,4.7146,-4.7448,3.3507,-2.8411,5.2006,5.4187
1625.0000,-6.9356,-0.8836,-1.2635,5.0965,4.7317,-8.0361,-3.0098,-1.0042,-1.1407,-4.0696,-1.6218,3.7870,3.3850,4.1475,-5.5370,3.3280,-2.4763,2.7182,4.6601
1628.9062,-7.5589,-4.5977,-3.0935,4.8222,3.9134,-8.4931,-3.6901,-1.1949,-5.2216,0.0834,-7.5216,1.9246,2.5277,2.0911,-4.9989,1.5898,-2.7065,0.4197,3.2432
1632.8125,-12.2655,-6.6255,-3.7878,4.0999,2.8422,-8.7360,-3.6714,-2.2138,-6.9205,-0.4874,-10.2228,0.9122,1.5504,-0.3274,-4.3661,-1.4117,-3.0492,-0.7338,1.8319
1636.7188,-17.9216,-6.1139,-2.7448,3.4720,2.1764,-8.7015,-2.2221,-3.2864,-5.5349,-5.9805,-7.8852,0.8168,0.8016,-2.1298,-4.2582,-4.2427,-3.2299,-0.4105,1.0782
1640.6250,-20.0920,-3.6629,-0.2693,3.4342,2.1770,-8.1875,0.5438,-3.6349,-2.2051,-12.8674,-2.0394,1.2404,0.2228,-3.1162,-4.4636,-5.4809,-3.4486,0.8313,1.1382
1644.5312,-16.7551,-1.0654,2.5203,4.1356,2.5685,-7.2198,3.6840,-2.9297,0.8493,-16.5171,3.3319,1.5722,-0.5310,-3.7467,-4.4639,-4.5382,-4.0999,1.9180,1.6071
1648.4375,-9.8386,-0.2816,4.3696,5.3337,2.8720,-6.1292,6.0049,-1.4064,1.7957,-14.3394,4.4784,1.3748,-1.6490,-4.4752,-4.0821,-1.8394,-5.2326,1.9975,1.9056
1652.3438,-3.5464,-2.2200,4.6682,6.5908,2.8753,-5.3112,6.7513,0.3635,0.3193,-7.3370,0.4760,0.6653,-2.8231,-5.1835,-3.6392,1.5688,-6.2957,0.9985,1.7791
1656.2500,-1.1005,-6.0763,3.7704,7.5439,2.8073,-4.9414,5.9371,1.8381,-2.3296,0.7721,-6.0911,-0.0917,-3.3481,-5.2315,-3.5475,4.5553,-6.4698,-0.3794,1.4910
1660.1562,-2.6322,-9.6876,2.6479,8.0643,3.0758,-4.9209,4.1658,2.7496,-4.3083,6.0126,-10.8337,-0.2802,-2.6240,-4.0609,-3.8122,6.2338,-5.3412,-1.1991,1.5636
1664.0625,-5.7483,-10.7476,2.1699,8.2396,3.8314,-5.0638,2.1769,3.1133,-4.4074,6.4172,-10.4478,0.4681,-0.6568,-1.7878,-3.9763,6.0631,-3.3303,-0.9210,2.3077
1667.9688,-7.9428,-8.1742,2.5626,8.2390,4.7729,-5.2928,0.4911,3.0729,-2.6727,2.7193,-4.8041,2.0297,1.8651,0.7699,-3.5843,3.9217,-1.4548,0.3123,3.5423
1671.8750,-8.5789,-2.7943,3.4154,8.1814,5.3842,-5.6239,-0.6469,2.7496,-0.1124,-2.6455,3.1152,3.8490,3.9970,2.6737,-2.7121,0.2793,-0.5730,1.8857,4.7262
1675.7812,-8.7827,3.0912,4.1462,8.0811,5.3908,-5.9692,-1.1322,2.2054,2.1337,-7.2191,9.2432,5.2523,5.1330,3.5504,-2.0105,-3.6903,-0.7193,3.1773,5.3681
1679.6875,-9.5982,7.0000,4.4896,7.8743,5.0140,-6.0090,-0.9118,1.5077,3.4701,-9.6473,10.9172,5.7989,5.3059,3.7804,-2.1463,-6.3485,-1.1024,3.8946,5.3566
1683.5938,-10.3354,7.6238,4.6007,7.4821,4.7781,-5.3479,-0.0651,0.7928,3.9321,-9.7175,8.1711,5.4544,4.9894,4.0306,-3.1054,-6.2803,-0.7910,4.0704,4.9535
1687.5000,-8.8197,5.4231,4.7346,6.8727,5.0330,-3.8876,1.0690,0.2468,3.7922,-7.7195,3.1767,4.5112,4.6225,4.5673,-4.0144,-3.1158,0.4779,3.8210,4.5026
1691.4062,-3.4597,2.1444,4.8420,6.1073,5.6260,-2.0912,1.9429,0.0114,3.1565,-3.9658,-1.4749,3.3633,4.2883,4.9912,-3.7318,2.0803,2.0614,3.1503,4.1504
1695.3125,4.6966,-0.3570,4.4850,5.3544,6.0381,-0.8376,2.1002,0.0880,1.9266,1.0597,-4.2880,2.3170,3.8078,4.6619,-1.7939,7.2352,2.9664,1.9891,3.8303
1699.2188,11.8912,-1.1914,3.1838,4.8414,5.8794,-0.8883,1.5187,0.3179,0.0983,6.2071,-5.2095,1.5450,3.1060,3.4372,1.0595,10.3475,2.7388,0.3978,3.4851
1703.1250,13.9352,-0.7420,0.9017,4.7265,5.2893,-2.3424,0.6705,0.4462,-1.9653,9.5525,-4.8983,1.1406,2.4434,2.0164,3.2652,10.5545,1.9112,-1.3125,3.2533
1707.0312,9.1884,-0.1142,-1.7748,4.9310,4.8344,-4.5131,0.1617,0.2254,-3.6172,9.1430,-3.8084,1.1472,2.2307,1.4762,3.4943,8.4843,1.5759,-2.7125,3.3697
1710.9375,-0.0923,-0.2229,-3.9703,5.0477,4.9287,-6.3502,0.1852,-0.5010,-4.3470,4.2941,-1.9468,1.4867,2.5476,2.2934,1.5993,5.6778,2.3872,-3.5664,3.8149
1714.8438,-9.1422,-1.2025,-5.1401,4.4444,5.2600,-7.0995,0.2486,-1.7557,-4.1841,-3.4842,0.5977,1.8576,2.8195,3.6693,-1.2714,3.5266,3.8202,-4.0472,4.0442
1718.7500,-13.7817,-2.5030,-5.4754,2.5812,4.7761,-6.7041,-0.5182,-3.4178,-3.7090,-10.7913,3.0250,1.7607,2.0390,3.8220,-3.4693,2.4986,4.3637,-4.6270,3.1364
1722.6562,-12.8890,-3.4811,-5.7381,-0.6080,2.3635,-5.6709,-2.6334,-5.2361,-3.6205,-13.9460,3.8854,0.7403,-0.5254,1.1702,-3.9360,2.1623,2.5907,-5.6804,0.3849
1726.5625,-8.5165,-3.9416,-6.6161,-4.5214,-2.2340,-4.5745,-5.6672,-6.8797,-4.1866,-11.0389,1.9923,-1.2594,-4.6439,-4.4214,-2.7804,1.8760,-1.6813,-7.1013,-4.0538
1730.4688,-3.8312,-4.1874,-8.0958,-8.0640,-7.9791,-3.6515,-8.3148,-8.0395,-5.0231,-3.1503,-2.4786,-3.6876,-9.0470,-11.2968,-0.9873,1.5039,-7.0577,-8.2623,-8.9774
1734.3750,-0.7076,-4.5943,-9.3664,-10.1541,-12.9997,-2.8199,-9.1876,-8.5556,-5.3863,6.0968,-7.6637,-5.5548,-12.1082,-16.8986,0.4094,1.5459,-11.3741,-8.3977,-12.6625
1738.2812,1.1391,-5.1348,-9.3711,-10.2824,-15.6832,-2.0391,-7.7856,-8.4970,-4.7557,12.4534,-10.9074,-5.9581,-12.8500,-19.2982,0.9902,2.5924,-13.0793,-7.1514,-13.8186
1742.1875,3.0520,-5.3104,-7.6085,-8.7747,-15.6362,-1.5995,-4.9048,-8.1167,-3.2493,13.3136,-10.3803,-4.6573,-11.5392,-18.2851,0.9857,4.5973,-12.1773,-4.8826,-12.3400
1746.0938,5.6140,-4.5798,-4.5769,-6.5788,-13.8137,-1.9860,-2.1213,-7.6812,-1.5557,9.0117,-6.3038,-2.2938,-9.4172,-15.2650,0.8052,6.6330,-10.0453,-2.4824,-9.3276
1750.0000,7.8330,-2.9182,-1.5079,-4.7049,-11.7349,-3.3776,-0.7019,-7.2741,-0.4464,2.4345,-0.8742,-0.0474,-7.7599,-12.1154,0.5854,7.4019,-8.3049,-0.8173,-6.3595
1753.9062,8.0151,-1.0014,0.4225,-3.6794,-10.3906,-5.2424,-0.7664,-6.7253,-0.2547,-2.7422,3.1055,1.0852,-6.9795,-9.9043,0.1859,6.1572,-7.6357,-0.1898,-4.5194
1757.8125,5.4355,0.1946,0.8219,-3.3577,-9.6638,-6.4893,-1.3630,-5.7460,-0.7042,-4.1039,3.9570,0.9149,-6.4441,-8.4129,-0.4303,3.3303,-7.4272,-0.1938,-3.8494
1761.7188,1.2200,0.0877,0.2192,-3.1866,-8.6617,-6.1954,-1.4013,-4.1997,-1.1787,-1.6647,2.0482,0.1464,-5.1306,-6.7153,-0.8858,0.3590,-6.4796,-0.0486,-3.5595
1765.6250,-2.4063,-1.0842,-0.4549,-2.6926,-6.6367,-4.3944,-0.6862,-2.3136,-1.1841,2.4214,-0.6637,-0.1469,-2.5695,-4.2306,-0.5445,-1.1942,-4.1397,0.8460,-2.7641
1769.5312,-3.8626,-2.4674,-0.6078,-1.8294,-3.7238,-2.2547,-0.1760,-0.6436,-0.6370,5.3105,-2.0516,0.7049,0.6800,-1.3393,0.9346,-0.6228,-0.9425,2.5276,-1.1583
1773.4375,-3.4069,-3.2700,-0.3592,-0.9463,-0.8990,-1.3812,-1.1889,0.2336,0.2013,5.1619,-1.1561,2.5047,3.4033,0.9225,3.1414,1.5154,1.7412,4.5025,0.8512
1777.3438,-2.7314,-3.3486,-0.2793,-0.4323,0.7909,-2.6650,-4.1552,0.1187,1.0262,2.1087,1.4362,4.3673,4.6510,1.7821,5.0356,3.8046,2.7495,6.1175,2.5834
1781.2500,-3.3257,-3.2030,-0.7486,-0.3310,1.0857,-5.5231,-7.9412,-0.5986,1.7361,-1.9768,4.2834,5.4019,4.4660,1.4571,5.6446,4.8688,2.0259,6.9770,3.6748
1785.1562,-5.0768,-3.3829,-1.5058,-0.2346,0.7509,-8.1579,-10.3907,-1.0978,2.4219,-4.6979,6.1903,5.3842,3.8363,1.0602,4.8074,4.1479,0.6702,7.1202,4.3285
1789.0625,-6.3714,-3.8386,-1.7955,0.4545,0.9992,-8.7364,-9.7889,-0.5942,3.1474,-4.5781,6.8781,4.9080,3.9112,1.7494,3.3344,2.1092,0.1285,6.8840,5.0441
1792.9688,-5.6403,-3.8386,-1.0259,2.0784,2.5496,-6.6879,-6.1822,1.1632,3.7537,-1.8996,6.8317,4.9018,5.0988,3.8076,2.4070,-0.1217,1.1622,6.6094,6.0895
1796.8750,-2.9905,-2.6159,0.5917,4.4118,5.0627,-3.1841,-1.5195,3.6838,3.8892,1.5187,6.6218,5.8749,6.7512,6.3868,2.6731,-1.3783,3.3729,6.4230,7.1808
1800.7812,-0.4440,-0.2485,1.9813,6.7006,7.3764,-0.4277,1.5730,5.9634,3.2596,3.4430,6.3531,7.4698,7.6705,8.1062,3.7691,-0.9475,5.5793,6.2235,7.6447
1804.6875,-0.4714,2.0102,1.8450,8.0270,8.3328,-0.2174,1.5412,7.0193,1.8911,2.5719,5.6759,8.6670,7.0230,8.0189,4.6628,1.2231,6.6855,5.8247,6.9313
1808.5938,-3.9788,2.3757,-0.4128,7.7662,7.5393,-2.7713,-1.0897,6.4134,0.1779,-0.6876,4.2568,8.4969,4.9427,6.1984,4.5279,4.5536,6.3481,5.1086,5.0575
1812.5000,-9.4146,-0.2036,-4.1561,5.8683,5.4993,-6.5994,-4.1810,4.4603,-1.3422,-4.4726,2.2093,6.7343,2.3719,3.5371,3.4167,7.9915,4.9902,4.0762,2.6172
1816.4062,-13.7717,-5.0937,-7.8012,2.8362,3.0797,-9.4774,-5.5566,2.0201,-2.3241,-6.5896,0.0685,4.0613,0.3003,0.9884,2.1649,10.2889,3.2720,2.7975,0.3540
1820.3125,-14.7115,-10.1361,-9.7561,-0.5389,0.8113,-9.8346,-4.5158,0.0316,-2.8184,-5.8355,-1.6596,1.5887,-0.9743,-1.1019,1.6172,10.4224,1.5396,1.3446,-1.3603
1824.2188,-12.1392,-12.9416,-9.3815,-3.5050,-1.3901,-7.6403,-2.1854,-0.9293,-3.2003,-2.7221,-2.9457,0.0969,-1.9795,-3.0582,1.8452,8.0798,-0.2879,-0.2231,-2.7262
1828.1250,-8.0423,-12.4573,-7.3288,-5.5796,-3.8871,-4.2765,-0.5189,-0.8302,-3.8952,0.8178,-4.2475,-0.4464,-3.5187,-5.3496,2.0418,3.9579,-2.3699,-1.8283,-4.2460
1832.0312,-4.8421,-9.6792,-5.0552,-6.6242,-6.7173,-1.5852,-0.7682,-0.0574,-5.1057,2.5394,-6.0466,-0.7635,-5.9058,-7.9735,1.2014,-0.4152,-4.5270,-3.3623,-6.2137
1835.9375,-3.6732,-6.9617,-3.8846,-6.7949,-9.2945,-0.7773,-2.6040,0.8841,-6.7206,1.1290,-8.3141,-1.6665,-8.6096,-10.2931,-0.9784,-3.3780,-6.1895,-4.7306,-8.3861
1839.8438,-3.9444,-6.3922,-4.2644,-6.4292,-10.7215,-1.8771,-4.5004,1.6397,-8.4266,-3.1414,-10.3949,-3.4497,-10.5916,-11.4642,-3.7438,-4.0203,-6.7902,-5.9276,-10.1044
1843.7500,-4.3570,-8.3872,-5.6681,-5.9091,-10.4797,-3.9372,-4.9955,2.1108,-9.8981,-8.6587,-11.4544,-5.7139,-11.0623,-11.0872,-5.7926,-2.6945,-6.2597,-7.0586,-10.7743
1847.6562,-4.3110,-11.4988,-7.1029,-5.5209,-8.9118,-5.7532,-3.7906,2.3913,-10.9127,-13.3654,-11.1352,-7.7040,-10.0560,-9.5350,-6.2374,-0.7645,-5.1621,-8.2551,-10.3184
1851.5625,-4.3861,-13.5195,-7.7739,-5.3438,-7.0534,-6.5597,-1.8445,2.6304,-11.3370,-15.7217,-9.8656,-8.8521,-8.3790,-7.6835,-5.2310,0.2929,-4.3028,-9.5200,-9.2337
1855.4688,-5.5155,-13.0272,-7.4255,-5.2210,-5.8945,-6.3110,-0.4632,2.9265,-11.0580,-15.2202,-8.5287,-9.0939,-6.9867,-6.2589,-3.7486,-0.1537,-4.0993,-10.6146,-8.1964
1859.3750,-7.7077,-10.2389,-6.2092,-4.8524,-5.6348,-5.4825,-0.1789,3.2999,-9.9744,-12.3159,-7.7388,-8.7456,-6.2845,-5.3261,-2.7316,-1.5368,-4.2344,-11.0969,-7.5145
1863.2812,-9.6090,-6.6216,-4.3218,-3.9827,-5.5409,-4.6129,-0.3333,3.7264,-8.0956,-8.0048,-7.3271,-8.1031,-5.8924,-4.3249,-2.3327,-2.5862,-3.9112,-10.5260,-6.8628
1867.1875,-9.4420,-3.6741,-1.7997,-2.5802,-4.5562,-3.9078,0.3341,4.1815,-5.6702,-3.3938,-6.4901,-7.1362,-5.0345,-2.6204,-1.9001,-2.3038,-2.5412,-8.7283,-5.5269
1871.0938,-6.5714,-1.8796,1.3437,-0.8843,-2.2155,-3.1242,2.6125,4.6676,-3.2129,0.5495,-4.5177,-5.5511,-3.2296,-0.1312,-0.6953,-0.6984,-0.3319,-5.9671,-2.9960
1875.0000,-2.2978,-0.6135,4.8032,0.7298,0.8523,-1.7739,6.1375,5.2220,-1.3483,3.1169,-1.5161,-3.1660,-0.7393,2.4660,1.3010,1.2475,1.7142,-2.9000,0.5346
1878.9062,0.9371,1.0250,7.8397,1.9918,3.2628,0.4875,9.6115,5.9140,-0.5297,3.9742,1.4911,-0.2679,1.5685,4.1316,3.2234,2.3223,2.4363,-0.3295,4.1441
1882.8125,1.3986,3.2224,9.5344,2.9150,3.8447,3.5060,11.6861,6.8257,-0.7972,3.2923,3.2197,2.3773,2.8222,4.1821,3.9747,1.9581,1.3404,1.1295,6.6963
1886.7188,-0.5380,5.1479,9.3107,3.7714,2.5257,6.5269,11.7716,7.9982,-1.7377,1.7585,3.0587,3.9179,2.7529,2.8107,3.1634,0.5804,-0.9954,1.2981,7.5381
1890.6250,-2.6360,5.5801,7.3442,4.8551,0.4562,8.4501,10.1739,9.3488,-2.6898,0.3324,1.5505,3.9432,1.8554,1.0242,1.5255,-0.7890,-3.2427,0.4790,6.8947
1894.5312,-2.5676,3.9292,4.5226,6.1902,-0.7603,8.3634,7.5807,10.6032,-3.0798,-0.2042,0.0223,2.7590,1.0090,0.0228,0.4436,-1.3189,-4.1525,-0.7132,5.6795
1898.4375,0.1989,0.8107,1.9527,7.4013,-0.1916,6.0865,4.4611,11.3214,-2.6891,0.3586,-0.3593,1.2061,0.8617,0.4316,0.9272,-0.9213,-3.3070,-1.6419,4.8579
1902.3438,3.9367,-2.2930,0.3562,7.8746,1.7627,2.3950,0.9462,11.0630,-1.6985,1.6061,0.6183,0.1528,1.4396,1.8991,2.8757,-0.1735,-1.2847,-1.9142,4.8211
1906.2500,6.0160,-4.0041,-0.2226,7.1395,3.6656,-1.2646,-2.7553,9.6461,-0.5021,2.8441,2.1810,0.0179,2.2411,3.3317,5.2175,0.2649,0.8348,-1.5032,5.2180
1910.1562,4.9823,-3.8920,-0.2217,5.2323,4.0914,-3.4641,-5.9020,7.3601,0.5698,3.5863,3.2969,0.6360,2.7010,3.6160,6.7939,0.2263,2.2289,-0.6872,5.3466
1914.0625,1.6703,-2.5643,-0.0855,2.7824,2.6709,-3.5081,-7.3028,4.9641,1.4305,3.8073,3.5550,1.5075,2.6423,2.3646,7.2505,0.1339,2.8033,0.1409,4.7853
1917.9688,-1.5387,-1.0147,0.0853,0.7257,0.3737,-1.7471,-6.0372,3.4041,2.2087,3.7748,3.4720,2.2019,2.3691,0.2023,7.2034,0.5741,3.0760,0.6799,3.7613
1921.8750,-2.6798,0.1823,0.4888,-0.2081,-1.1826,0.6977,-2.2864,3.3489,3.0557,3.6398,3.9831,2.6046,2.3525,-1.6036,7.5727,1.7240,3.6273,0.8357,2.9564
1925.7812,-1.7567,1.1702,1.2629,0.0792,-0.9031,2.6111,2.4664,4.7987,3.9475,3.1872,5.5479,2.8589,2.7745,-1.9518,8.6766,3.1152,4.5678,0.6982,2.8886
1929.6875,-0.6122,2.4142,2.1705,0.9913,0.9740,3.3220,6.1726,7.0152,4.6373,2.0191,7.6289,3.1039,3.2993,-0.6530,9.8758,3.9262,5.4266,0.4185,3.3639
1933.5938,-1.2510,4.0137,2.6416,1.5891,3.0058,2.9217,7.4513,8.8580,4.7940,0.0490,8.9955,3.2516,3.2580,1.3690,10.0813,3.5658,5.5146,0.0723,3.4673
1937.5000,-4.0316,5.3574,2.1701,1.1407,3.5188,1.9972,6.4266,9.3629,4.2194,-2.1403,8.6310,2.9830,2.1175,2.5773,8.6996,2.0928,4.4595,-0.4051,2.1681
1941.4062,-7.2397,5.4482,0.7370,-0.4773,1.7392,1.1523,4.5235,8.2314,2.9730,-3.4750,6.5133,1.9543,-0.1115,1.7448,6.2108,0.1678,2.4996,-1.1849,-0.8712
1945.3125,-8.4078,3.6551,-1.1160,-2.7744,-1.7048,0.6864,3.3581,5.9406,1.3145,-3.0827,3.6375,0.0431,-2.8242,-1.2598,3.8773,-1.3957,0.3307,-2.4442,-4.8940
1949.2188,-6.3048,0.2975,-2.6548,-5.0133,-5.2308,0.6103,3.5547,3.4188,-0.4789,-1.0101,1.2614,-2.5371,-5.1660,-5.3180,2.8081,-2.1282,-1.3552,-4.2549,-8.4068
1953.1250,-1.9784,-3.4006,-3.4776,-6.6729,-7.3505,0.8721,4.3805,1.5041,-2.2526,1.6296,-0.0088,-5.3053,-6.5252,-8.6569,3.1441,-2.1037,-2.2836,-6.5081,-10.0907
1957.0312,1.9845,-5.9608,-3.7565,-7.6803,-7.5687,1.5135,4.4481,0.5388,-3.9426,3.2908,-0.5503,-7.6831,-6.8315,-9.8373,4.0304,-1.7587,-2.6707,-8.8854,-9.6343
1960.9375,3.3666,-6.4423,-3.9815,-8.2672,-6.5340,2.5871,2.9044,0.3376,-5.4005,3.0195,-1.2143,-9.1548,-6.4721,-8.5308,4.3872,-1.5297,-2.9384,-10.8870,-7.8777
1964.8438,1.8743,-4.8558,-4.4194,-8.6019,-5.4061,3.9330,0.1642,0.4978,-6.2542,1.1328,-2.4286,-9.3714,-5.9208,-5.6187,3.8276,-1.5938,-3.3238,-11.9300,-6.1530
1968.7500,-0.8480,-2.0093,-4.7709,-8.5220,-4.9598,5.0769,-2.3721,0.7791,-5.9954,-0.9712,-3.6931,-8.2328,-5.3786,-2.5877,2.9597,-1.8586,-3.6965,-11.5359,-5.3039
1972.6562,-2.6511,1.0005,-4.3749,-7.6202,-5.0943,5.4234,-3.3600,1.2547,-4.3101,-1.7627,-3.9334,-5.9748,-4.6988,-0.6481,2.8243,-2.1329,-3.7118,-9.5747,-5.1212
1976.5625,-2.5274,3.2640,-2.8550,-5.6475,-5.0673,4.6440,-2.4746,2.1337,-1.4443,-0.6147,-2.4498,-3.2139,-3.6399,-0.1502,3.9462,-2.3036,-3.1582,-6.4592,-4.6269
1980.4688,-1.1550,4.2701,-0.6831,-2.9204,-4.2169,2.9548,-0.5570,3.4280,1.7016,1.8159,0.3268,-0.8414,-2.2284,-0.6261,5.7940,-2.3991,-2.2065,-3.1368,-2.9921
1984.3750,-0.0121,3.8924,0.8729,-0.3695,-2.5835,1.0320,1.1156,4.7677,3.9122,4.1069,2.9468,0.2854,-0.9237,-1.3344,7.1038,-2.5480,-1.3534,-0.7903,-0.3735
1988.2812,0.0629,2.3348,0.5064,0.8924,-0.9546,-0.3988,1.8057,5.5521,4.2870,5.0657,3.9122,-0.2478,-0.4189,-1.8485,6.8118,-2.9088,-1.0956,-0.3223,2.0083
1992.1875,-0.4158,0.1210,-2.1503,0.2405,-0.3114,-0.9899,1.7521,5.3528,2.7722,4.4609,2.7836,-2.1423,-1.1933,-2.2592,4.8467,-3.6143,-1.5816,-1.8759,2.6617
1996.0938,-0.1807,-1.9582,-6.0599,-2.0100,-1.1091,-0.8796,1.7704,4.2630,0.2231,3.0041,0.5547,-4.4710,-3.1292,-2.8984,2.1610,-4.7130,-2.5033,-4.6876,0.9289
2000.0000,1.4589,-3.0779,-9.2464,-4.7147,-2.9246,-0.4160,2.4199,2.9105,-2.0745,1.6985,-1.0350,-6.1326,-5.4810,-3.8714,0.0061,-6.0847,-3.3036,-7.4175,-2.4193
2003.9062,3.7789,-2.7638,-9.9488,-6.5388,-4.7139,0.2417,3.4692,2.0910,-3.1235,1.1285,-0.7523,-6.4271,-7.2441,-4.8121,-0.9379,-7.3789,-3.5351,-8.8119,-5.5676
2007.8125,5.0908,-1.1968,-7.6928,-6.7144,-5.4676,1.2744,4.1033,2.2709,-2.7045,1.2330,1.2539,-5.3963,-7.6883,-5.0679,-0.8838,-8.0718,-3.1004,-8.3293,-6.7737
2011.7188,4.1564,0.8356,-3.5450,-5.4177,-4.7904,2.9527,3.6679,3.3134,-1.3316,1.6412,3.6094,-3.7076,-6.7143,-4.1620,-0.5049,-7.6866,-2.2135,-6.3579,-5.4442
2015.6250,1.3851,2.3823,0.6177,-3.5333,-3.0337,5.2014,2.2969,4.6182,0.2355,2.1781,4.7680,-2.1688,-4.8189,-2.1650,-0.1804,-6.0814,-1.1499,-3.9022,-2.4317
2019.5312,-1.2428,2.8931,3.2886,-2.0031,-0.9665,7.3898,0.8823,5.5605,1.5248,3.0427,4.1414,-1.2203,-2.7358,0.3088,0.3926,-3.6027,-0.0165,-1.9604,0.6066
2023.4375,-1.5630,2.5007,4.1369,-1.2356,0.7160,8.5988,0.4118,5.9005,2.5311,4.5055,2.4559,-0.7604,-1.0257,2.4622,1.8673,-0.9604,1.2585,-1.0023,2.2861
2027.3438,1.1128,1.8086,3.9299,-0.9739,1.6992,8.2174,1.2292,5.8710,3.4562,6.4278,1.1030,-0.4042,0.1139,3.7520,4.4769,1.1277,2.7178,-0.8636,2.2473
2031.2500,5.3558,1.3598,3.7376,-0.6546,2.0413,6.4135,2.8210,5.9141,4.2903,8.0816,1.0339,0.0561,0.7511,4.1009,7.5094,2.2784,4.1534,-1.0617,1.1328
2035.1562,8.5194,1.2154,4.0910,0.0680,1.9814,4.0799,4.2800,6.2987,4.6392,8.4983,2.0671,0.3760,0.9942,3.7946,9.5421,2.5298,5.1048,-1.2413,-0.0572
2039.0625,8.5273,0.9847,4.7274,1.0552,1.7877,2.2552,5.0282,6.9266,3.9809,7.1168,3.1146,0.0138,0.8700,3.2234,9.3397,2.1294,5.1330,-1.4002,-0.6624
2042.9688,5.2366,0.2663,5.0304,1.8516,1.7386,1.4416,5.1839,7.4582,2.1571,4.2333,3.0929,-1.3793,0.4055,2.6993,6.7683,1.2393,4.1864,-1.7498,-0.6095
2046.8750,0.4241,-0.8872,4.7105,2.1117,2.1397,1.3412,5.2868,7.6262,-0.3250,0.9007,1.7710,-3.5119,-0.1961,2.4463,3.0243,-0.1532,2.7591,-2.3707,-0.1501
2050.7812,-3.5139,-1.8969,4.1142,1.9107,3.2269,1.2095,5.6579,7.4608,-2.4758,-1.6534,-0.0960,-5.4207,-0.5013,2.6647,-0.0335,-2.0150,1.6745,-2.9872,0.5538
2054.6875,-5.1347,-2.0682,3.9064,1.6865,4.9444,0.5361,5.9866,7.2412,-3.4063,-2.6750,-1.4003,-5.9464,-0.0320,3.5022,-1.0011,-3.9434,1.6019,-3.0729,1.5769
2058.5938,-4.6884,-1.1640,4.4264,1.8722,6.7835,-0.5050,5.5327,7.2262,-2.8971,-2.1802,-1.5340,-4.4347,1.4045,4.8936,0.2635,-5.1010,2.6299,-2.2252,3.0071
2062.5000,-3.6263,0.3262,5.2927,2.5272,7.9001,-1.2101,3.7945,7.3965,-1.5318,-0.7957,-0.7874,-1.2021,3.4922,6.4129,2.6642,-4.6019,4.2005,-0.5184,4.6200
2066.4062,-3.4065,1.4535,5.6183,3.2589,7.5413,-0.9868,1.0696,7.4286,-0.2975,0.6350,-0.0267,2.5565,5.4890,7.3402,4.6429,-2.1615,5.4532,1.4457,5.8215
2070.3125,-4.5380,1.4179,4.6695,3.4770,5.5323,0.0440,-1.5954,6.9180,0.0433,1.3756,0.0284,5.3770,6.5955,6.9964,5.1348,1.4752,5.7412,2.8430,5.9724
2074.2188,-6.4740,0.0586,2.4250,2.7641,2.4571,1.0010,-3.0764,5.6712,-0.6452,0.9348,-0.6702,6.2836,6.3747,5.1638,4.0834,4.7396,4.9647,3.0793,4.8430
2078.1250,-8.2375,-2.1177,-0.4195,1.0857,-0.6450,0.8422,-2.9544,3.8383,-1.9455,-0.8697,-1.5538,5.2457,4.9489,2.2921,2.2714,6.0677,3.5244,2.0894,2.8072
2082.0312,-9.1542,-4.3337,-2.9871,-1.2643,-2.8911,-0.8166,-1.7929,1.8046,-3.3002,-3.7888,-1.9505,3.0980,2.8709,-0.6852,0.7120,4.8564,1.9813,0.3142,0.5994
2085.9375,-9.1328,-6.0060,-4.8224,-3.8620,-4.0417,-3.2857,-0.6896,-0.0446,-4.3853,-7.0132,-1.5946,1.0232,0.7974,-2.8285,0.0726,1.8986,0.7079,-1.5735,-1.1619
2089.8438,-8.4243,-6.9190,-6.0495,-6.2909,-4.5108,-5.1345,-0.4564,-1.4874,-5.1547,-9.2762,-0.7324,-0.0612,-0.7927,-3.6580,0.4668,-1.0400,-0.2250,-2.9770,-2.2858
2093.7500,-7.2355,-7.0552,-6.9793,-8.1443,-4.9112,-5.0767,-1.0708,-2.4508,-5.5948,-9.3479,0.1849,0.1206,-1.6850,-3.3225,1.6117,-2.2612,-0.9097,-3.5452,-2.9204
2097.6562,-5.6112,-6.3495,-7.5632,-9.0062,-5.5124,-2.8094,-1.8062,-2.8891,-5.4975,-6.7600,0.8876,1.2082,-1.8621,-2.4115,3.1061,-1.1331,-1.4002,-3.1876,-3.2035
2101.5625,-3.6565,-4.6809,-7.2483,-8.5732,-6.0500,0.7586,-1.9022,-2.7190,-4.5328,-2.2844,1.4020,2.4975,-1.4361,-1.5925,4.5933,1.5758,-1.6609,-2.0407,-3.0364
2105.4688,-1.8034,-2.1485,-5.4430,-6.9225,-6.0289,4.0244,-1.2070,-1.9049,-2.6039,2.2727,1.8424,3.3052,-0.6752,-1.3237,5.7638,4.1968,-1.6938,-0.4673,-2.2415
2109.3750,-0.7690,0.6500,-2.2370,-4.7062,-5.2412,5.5894,-0.2710,-0.6204,-0.1635,4.9747,2.1425,3.2253,-0.0530,-1.7659,6.3269,5.1273,-1.6811,0.9526,-0.9703
2113.2812,-1.1451,2.7019,1.2826,-3.0043,-4.0387,4.9620,0.1652,0.6946,1.8562,4.8376,2.0378,2.2118,-0.1569,-2.8347,6.0766,3.6567,-1.9424,1.5525,0.0657
2117.1875,-2.9165,3.1108,3.5139,-2.7856,-3.1059,2.6745,-0.1529,1.4976,2.5511,2.3754,1.3447,0.5238,-1.3938,-4.2645,5.0410,0.2212,-2.6838,0.8703,-0.1171
2121.0938,-5.3110,1.7459,3.3770,-4.2728,-2.9117,-0.1553,-0.7287,1.4564,1.6612,-0.7753,0.2697,-1.4019,-3.6460,-5.6399,3.5686,-3.9307,-3.7393,-1.0334,-2.0718
2125.0000,-7.1432,-0.5065,1.1508,-6.6768,-3.3094,-2.4594,-0.7002,0.6885,-0.1787,-2.8869,-0.5889,-3.1032,-6.1687,-6.4654,2.2237,-7.3577,-4.5671,-3.4735,-5.3311
2128.9062,-7.4419,-2.1784,-1.5807,-8.5760,-3.6456,-3.6526,0.4143,-0.2744,-1.7857,-3.1115,-0.6280,-4.2387,-7.9068,-6.3534,1.5111,-8.9785,-4.5776,-5.4118,-8.4694
2132.8125,-5.9472,-2.1221,-2.9301,-8.7628,-3.3108,-3.6901,2.2013,-0.8019,-2.1634,-1.7555,0.2688,-4.6878,-8.0981,-5.2712,1.6035,-8.3817,-3.5792,-5.9978,-9.8989
2136.7188,-3.1823,-0.2706,-1.9812,-7.0049,-2.2773,-2.8548,3.4969,-0.5537,-1.1070,0.2190,1.5572,-4.5580,-6.7618,-3.6564,2.2628,-5.8983,-1.9843,-5.0512,-8.8830
2140.6250,-0.1130,2.2986,0.5868,-4.1841,-1.1579,-1.5043,3.1300,0.3243,0.7451,1.9701,2.3770,-4.0785,-4.6866,-2.2338,3.0134,-2.4900,-0.5678,-3.1456,-6.0248
2144.5312,2.3415,4.0786,3.0012,-1.7048,-0.7105,0.0597,0.7538,1.3246,2.4307,3.2064,2.1944,-3.4289,-2.8781,-1.5833,3.4467,0.5479,0.0767,-1.2131,-2.8389
2148.4375,3.6651,4.1459,3.6661,-0.5916,-1.1888,1.5980,-2.8170,1.9145,3.3499,4.0321,1.2525,-2.6081,-1.8412,-1.7444,3.4490,2.0723,-0.0252,0.0717,-0.7047
2152.3438,3.8485,2.7708,2.2749,-0.9159,-2.0915,2.9094,-6.0059,1.8426,3.6100,4.5101,0.4597,-1.4406,-1.2409,-2.1744,3.2171,1.6362,-0.2600,0.6946,0.0230
2156.2500,3.2891,1.2066,-0.0496,-1.9321,-2.5499,3.8507,-7.3573,1.2188,3.8047,4.4547,0.7661,0.2659,-0.2267,-2.1394,3.0762,-0.1997,0.0677,1.2084,0.0868
2160.1562,2.5812,0.8110,-1.6654,-2.7566,-2.0569,4.3815,-6.3473,0.3593,4.4377,3.6741,2.4672,2.5046,1.7980,-1.2699,3.2429,-2.0764,1.1351,2.2147,0.5640
2164.0625,2.2524,2.1124,-1.6733,-3.0311,-0.9350,4.5694,-3.6368,-0.4475,5.4512,2.3814,4.9360,4.9437,4.5488,0.1439,3.6818,-2.5790,2.3867,3.8094,1.8997
2167.9688,2.4886,4.4453,-0.5775,-3.0670,-0.1278,4.5216,-0.6511,-1.0801,6.2137,1.2621,6.9668,6.9906,6.8886,1.3598,4.1216,-1.1298,2.9020,5.4044,3.5107
2171.8750,2.9565,6.3803,0.1344,-3.4138,-0.4514,4.2886,1.2305,-1.5664,5.9580,0.9833,7.4801,8.0326,7.5423,1.7395,4.1944,1.5514,2.0846,6.0690,4.2620
2175.7812,2.8902,6.6409,-0.8362,-4.2634,-1.8981,3.8234,1.3943,-1.9780,4.3389,1.5032,6.1196,7.7291,5.9967,1.2078,3.6124,3.8018,0.1421,5.1605,3.4107
2179.6875,1.5186,4.9160,-3.5515,-5.2083,-3.5738,3.0439,0.2387,-2.3473,1.7218,1.8518,3.3945,6.1977,2.9201,0.2468,2.3065,4.0314,-2.0229,2.8153,1.2462
2183.5938,-1.3397,2.0786,-6.6759,-5.5439,-4.3485,1.9550,-1.1496,-2.6499,-0.9651,0.7576,0.3629,3.9977,-0.2278,-0.5587,0.4835,1.7580,-3.4407,-0.0243,-1.0838
2187.5000,-4.9183,-0.2846,-8.2969,-4.8418,-3.7241,0.7326,-1.6743,-2.8193,-2.6856,-2.2360,-1.8794,1.9189,-2.1251,-1.0269,-1.4183,-2.0446,-3.7465,-2.0606,-2.4088
2191.4062,-7.7479,-0.7324,-7.1339,-3.2987,-2.2313,-0.3080,-0.8784,-2.7446,-2.7712,-6.0582,-2.6134,0.6727,-2.3969,-1.4926,-2.8775,-5.5439,-3.3879,-2.2844,-2.3618
2195.3125,-8.4964,1.2652,-3.3109,-1.5813,-1.0337,-0.8553,0.7954,-2.2700,-1.1825,-8.5350,-1.6828,0.6128,-1.7450,-2.4305,-3.5081,-7.1956,-3.2266,-0.4530,-1.5599
2199.2188,-6.9122,5.0407,1.7670,-0.3241,-1.0448,-0.7727,2.2758,-1.2570,1.5077,-7.8331,0.5082,1.5928,-1.3541,-3.9277,-3.2567,-6.6593,-3.8605,2.8210,-1.0492
2203.1250,-4.1740,9.0316,6.2526,0.2746,-2.2549,-0.1913,2.5210,0.2689,4.3421,-3.9330,3.1163,3.0160,-2.0516,-5.4954,-2.4587,-4.8799,-5.1943,6.3495,-1.5038
2207.0312,-2.2700,11.5011,8.8000,0.4241,-3.7878,0.5336,1.1836,1.9748,6.3096,1.0421,5.0964,4.0661,-3.8324,-6.4288,-1.6800,-3.3366,-6.5685,8.8407,-2.8259
2210.9375,-2.7124,11.3244,9.0415,0.3489,-4.6260,0.9831,-1.1292,3.2401,6.6924,4.0444,5.5715,4.0425,-6.0318,-6.4295,-1.3987,-3.0412,-7.3028,9.3559,-4.4110
2214.8438,-5.4495,8.4745,7.4481,-0.0681,-4.4119,0.8731,-3.1941,3.4168,5.3372,3.1044,4.2470,2.6658,-7.9185,-5.9397,-1.7090,-3.9934,-7.1998,7.6139,-5.7716
2218.7500,-8.8013,3.9845,4.8389,-1.2422,-3.6918,0.1909,-3.9340,2.2207,2.7343,-1.3118,1.6359,0.2045,-9.1968,-5.8455,-2.2568,-5.4105,-6.6192,4.0717,-6.9448
2222.6562,-10.5677,-0.5906,1.9476,-3.4551,-3.4301,-0.7999,-3.1318,-0.0163,-0.1902,-6.6237,-1.1353,-2.6567,-10.0524,-6.7404,-2.4860,-6.4521,-6.1104,-0.2414,-8.3402
2226.5625,-9.5924,-3.9367,-0.7404,-6.4254,-4.2132,-1.6984,-1.6049,-2.4650,-2.5298,-9.9423,-2.9362,-5.1609,-10.7914,-8.3507,-2.0617,-6.8351,-5.9502,-4.1127,-10.2048
2230.4688,-6.6704,-5.5664,-2.9397,-9.3098,-5.7880,-2.1908,-0.6848,-4.2716,-3.8805,-10.0572,-3.3250,-6.8528,-11.4489,-9.6389,-1.1830,-6.8916,-5.9758,-6.6396,-12.2181
2234.3750,-4.0955,-5.9165,-4.5004,-11.2049,-7.2862,-2.2424,-1.3132,-5.0842,-4.5471,-8.1473,-2.8450,-7.7627,-11.7215,-9.5637,-0.5379,-7.1099,-5.8206,-7.6132,-13.6082
2238.2812,-4.1083,-5.9275,-5.4281,-11.7694,-7.9143,-2.1394,-3.3688,-5.2486,-5.2967,-6.7224,-2.6581,-8.2820,-11.2539,-7.9153,-0.8801,-7.6057,-5.3015,-7.5715,-13.7036
2242.1875,-7.3183,-6.3914,-5.9189,-11.4397,-7.5264,-2.3268,-5.7092,-5.5012,-6.7863,-7.6328,-3.7166,-8.8122,-9.9872,-5.5381,-2.4826,-7.9830,-4.5889,-7.4428,-12.4495
2246.0938,-12.2256,-7.4880,-6.2825,-11.0267,-6.6285,-3.1139,-6.9338,-6.3626,-9.0426,-10.6711,-6.0465,-9.4269,-8.2362,-3.7271,-4.8401,-7.6818,-4.0111,-7.9513,-10.4393
2250.0000,-16.1898,-8.7884,-6.7392,-11.0018,-5.8600,-4.4243,-6.3510,-7.6872,-11.3742,-13.7956,-8.6781,-9.7923,-6.4292,-3.2543,-6.8608,-6.4952,-3.6923,-9.1398,-8.4382
2253.9062,-17.1585,-9.6634,-7.2397,-11.0734,-5.4355,-5.7720,-4.4721,-8.7333,-12.8028,-14.7430,-10.3003,-9.4123,-4.7652,-3.8049,-7.4682,-4.8067,-3.3897,-10.3282,-6.8190
2257.8125,-14.9331,-9.7629,-7.4891,-10.4444,-5.0408,-6.5214,-2.6778,-8.7344,-12.7195,-12.7426,-10.1677,-8.0305,-3.1263,-4.2919,-6.2484,-3.3472,-2.7182,-10.5650,-5.4020
2261.7188,-11.1170,-9.2081,-7.2083,-8.5806,-4.2669,-6.2950,-2.2910,-7.5573,-11.2968,-9.0238,-8.5864,-5.8941,-1.3489,-3.8115,-3.7261,-2.6737,-1.5896,-9.2890,-3.8339
2265.6250,-7.8670,-8.3963,-6.4412,-5.8662,-3.1803,-5.2608,-3.7139,-5.9391,-9.3581,-5.7912,-6.6209,-3.6750,0.3900,-2.4662,-1.0828,-2.7934,-0.4636,-6.7618,-2.1484
2269.5312,-6.4148,-7.6304,-5.6343,-3.5618,-2.4934,-4.0833,-6.2232,-5.0842,-7.8122,-4.5410,-5.2654,-2.0866,1.4579,-1.3765,0.5104,-3.2311,-0.1356,-3.9660,-0.9768
2273.4375,-6.4242,-6.9058,-5.3641,-3.0150,-3.1194,-3.5254,-8.5213,-5.8710,-7.0707,-5.0548,-4.7344,-1.4578,1.1052,-1.8439,0.5225,-3.4708,-1.1718,-2.0250,-1.1589
2277.3438,-6.5529,-6.0141,-5.8652,-4.6784,-5.4161,-3.9421,-9.5936,-8.2126,-6.8607,-5.8036,-4.4179,-1.5614,-0.9528,-4.3146,-0.7338,-3.4087,-3.4296,-1.5246,-3.0311
2281.2500,-5.6639,-4.8245,-6.7094,-7.6790,-8.7106,-4.9978,-9.2378,-11.0159,-6.5187,-5.3423,-3.5029,-1.8057,-4.1659,-7.9571,-2.4144,-3.4528,-6.0714,-2.1787,-5.9769
2285.1562,-3.6951,-3.4396,-6.9158,-10.2950,-11.5127,-5.8164,-7.9292,-12.7654,-5.4916,-3.5102,-1.7249,-1.6388,-7.3285,-11.1797,-3.7204,-4.1906,-8.0979,-3.0422,-8.6505
2289.0625,-1.5481,-2.0524,-5.4827,-11.0161,-12.3147,-5.4836,-6.2253,-12.3440,-3.6510,-1.4690,0.3813,-0.8684,-9.2290,-12.6727,-4.3258,-5.8801,-9.0012,-3.1036,-9.7600
2292.9688,-0.1837,-0.6367,-2.0237,-9.4377,-10.4447,-3.5898,-4.2484,-9.5748,-1.2307,-0.5949,1.9404,0.3157,-9.3233,-12.1702,-4.3850,-8.1486,-9.0205,-1.8578,-8.8512
2296.8750,0.2647,1.1927,2.9051,-6.3782,-6.4096,-0.4681,-1.6751,-5.2076,1.4676,-1.1833,2.5152,1.5902,-7.9532,-10.3891,-4.1764,-10.1233,-8.7996,0.4881,-6.5215
2300.7812,0.6067,3.9278,8.0111,-3.2045,-1.5476,3.0059,1.7903,-0.4573,4.2861,-2.0596,2.5461,2.7892,-5.9812,-8.2889,-3.7104,-10.9074,-8.7327,3.2470,-3.9394
2304.6875,1.8615,7.6558,11.8856,-0.9222,2.7119,5.9017,5.8873,3.5484,7.1537,-1.4390,3.0623,3.9909,-4.1537,-6.3310,-2.6445,-10.0887,-8.5598,5.7008,-2.0659
2308.5938,4.3055,11.7175,13.6714,0.3015,5.4680,7.6879,9.6835,6.0978,9.8628,1.6419,4.8761,5.3413,-2.6935,-4.3562,-0.5930,-7.9640,-7.5816,7.4486,-1.1625
2312.5000,7.1174,14.9091,13.3968,0.9186,6.5121,8.3879,11.9985,6.9307,11.9676,6.4613,7.8997,6.7823,-1.4011,-2.1243,2.4100,-5.3672,-5.3519,8.4674,-0.8957
2316.4062,8.9398,16.1944,11.8296,1.3841,6.0882,8.4027,12.0608,6.1274,12.9831,11.0044,11.1384,7.9390,-0.1113,0.0436,5.6881,-3.2258,-2.2859,8.9335,-0.8435
2320.3125,8.9219,15.4437,9.9903,1.7159,4.5710,8.1813,9.9285,4.0253,12.7705,13.3182,13.3754,8.2979,0.9427,1.1833,8.1749,-2.1068,0.3627,9.0083,-0.9166
2324.2188,7.4076,13.6142,8.6385,1.5854,2.3473,7.9791,6.4096,1.2034,11.7704,12.8008,14.0150,7.5719,1.2173,0.3483,9.0171,-1.9799,1.2364,8.7641,-1.3302
2328.1250,5.7040,12.1576,8.0049,0.8071,-0.0845,7.8269,2.6074,-1.5659,10.8231,10.4775,13.4339,5.9868,0.3576,-2.4710,8.1143,-2.2907,-0.1656,8.2710,-2.1953
2332.0312,5.0947,12.0318,7.8601,-0.2538,-2.0196,7.6507,-0.5507,-3.4955,10.6389,8.1214,12.5868,4.2613,-1.3049,-5.9486,6.1888,-2.2824,-3.0020,7.7164,-3.1400
2335.9375,5.8644,13.0292,7.8028,-0.7543,-2.6815,7.3890,-2.5237,-4.0593,11.2921,6.9459,12.2040,3.2655,-2.7112,-7.9746,4.3065,-1.4036,-5.4786,7.4082,-3.3536
2339.8438,7.0908,13.9339,7.5563,0.0883,-1.5875,7.0003,-3.1109,-3.2040,12.1320,6.8687,12.2224,3.5654,-2.6094,-6.8719,3.1740,0.3926,-5.8939,7.6189,-2.0778
2343.7500,7.3637,13.4047,7.0951,2.4030,1.1012,6.3895,-2.3616,-1.3460,12.2027,6.8419,11.8828,5.1346,-0.3314,-2.4597,2.7225,2.6063,-3.6552,8.3704,0.8204
2347.6562,5.8651,10.9330,6.5580,5.4823,4.5377,5.3700,-0.5976,0.8522,10.8756,5.8872,10.3883,7.3971,3.7319,3.7780,2.2860,4.4440,0.4002,9.3265,4.6535
2351.5625,2.9761,7.1727,6.0440,8.1589,7.5497,3.7541,1.5154,2.7763,8.2400,3.9631,7.5911,9.5491,8.3022,9.5343,1.2393,5.2535,4.5655,9.8979,8.2689
2355.4688,-0.0439,3.4294,5.4537,9.4705,9.2073,1.5375,3.0633,4.0428,4.9954,1.9780,4.1797,10.9499,11.9254,12.9601,-0.4051,4.9125,7.2972,9.5299,10.7081
2359.3750,-2.0330,0.7428,4.5067,9.1508,9.2445,-0.9607,3.2504,4.5024,1.9724,0.9842,1.2503,11.3654,13.7410,13.5453,-1.9230,3.9329,8.0359,8.0144,11.6964
2363.2812,-2.7814,-0.7205,2.9416,7.6477,8.0776,-3.1482,1.8642,4.1417,-0.3301,1.2404,-0.3846,10.9721,13.8150,12.1068,-2.4184,3.1874,7.3269,5.6429,11.6364
2367.1875,-3.1017,-1.5368,0.7715,5.7271,6.4363,-4.4231,-0.5230,3.0157,-1.8718,1.9224,-0.6401,10.1754,12.8707,10.0197,-1.5752,3.3954,6.2591,3.0980,11.1568
2371.0938,-4.0718,-2.3451,-1.5952,3.9837,4.8713,-4.5198,-2.8489,1.2642,-2.8524,1.7392,-0.0787,9.3747,11.6748,8.3001,-0.0181,4.6700,5.6771,1.1267,10.5883
2375.0000,-6.0581,-3.2399,-3.4930,2.5806,3.4630,-3.7217,-4.2092,-0.8523,-3.4104,-0.0052,0.5576,8.7906,10.5388,7.1322,1.0529,6.4188,5.7030,0.1690,9.7509
2378.9062,-8.2937,-3.7506,-4.3489,1.3113,1.8978,-2.7768,-4.3997,-2.9906,-3.5201,-2.7237,0.8138,8.4066,9.2550,6.0361,0.7356,7.6745,5.8251,0.1466,8.1737
2382.8125,-9.3596,-3.3917,-4.0373,-0.1471,-0.1787,-2.5231,-3.9363,-4.8484,-3.1363,-4.7901,0.6778,8.0162,7.4331,4.4147,-0.8364,7.6568,5.3972,0.5352,5.5387
2386.7188,-8.2255,-2.2620,-2.9907,-1.9960,-2.7952,-3.4095,-3.5368,-6.2782,-2.3886,-4.5972,0.4018,7.3418,4.9249,2.0349,-2.4834,6.2175,4.1493,0.6843,2.0007
2390.6250,-5.0807,-1.1248,-1.9642,-4.2127,-5.5365,-5.1892,-3.4997,-7.2825,-1.5970,-1.7162,0.2116,6.1769,1.9969,-0.8535,-2.7729,3.9001,2.3580,0.1963,-1.8411
2394.5312,-1.3381,-0.8560,-1.5864,-6.5701,-7.7571,-6.9878,-3.5094,-7.8928,-1.0714,2.6531,0.1427,4.4955,-0.8546,-3.7492,-1.0797,1.5996,0.6065,-0.8650,-5.2797
2398.4375,1.2024,-1.7030,-1.9887,-8.7181,-8.9876,-7.7538,-3.0449,-8.0625,-0.8907,6.2837,0.0770,2.4759,-3.2680,-6.2487,1.8655,0.0617,-0.6569,-2.0633,-7.8912
2402.3438,1.4483,-2.9902,-2.7662,-10.2906,-9.2556,-6.8631,-2.0258,-7.7096,-0.8840,7.2235,-0.1220,0.4240,-5.2531,-8.2626,4.3793,-0.4661,-1.4343,-2.9070,-9.7188
2406.2500,-0.3783,-3.5534,-3.2854,-11.0306,-9.0836,-4.5302,-1.0840,-6.8945,-0.8398,4.9804,-0.5074,-1.3596,-7.1040,-9.9835,4.9385,-0.2486,-2.1532,-3.1664,-11.1379
2410.1562,-2.9940,-2.5868,-3.1022,-10.8984,-9.1292,-1.7530,-1.1323,-5.9530,-0.7307,0.8443,-1.0216,-2.6765,-9.0507,-11.6547,3.2266,0.2098,-3.3184,-2.9586,-12.5038
2414.0625,-4.9324,-0.2349,-2.1836,-10.0862,-9.6795,0.2262,-2.5131,-5.3792,-0.7059,-2.8608,-1.4987,-3.4245,-10.9148,-13.2874,0.3672,0.5156,-5.0735,-2.5410,-13.8085
2417.9688,-5.4131,2.5362,-0.7902,-8.8808,-10.3428,0.6537,-4.4467,-5.4603,-0.8275,-4.1374,-1.6669,-3.5079,-12.0466,-14.4956,-1.8271,0.6035,-6.9660,-1.9859,-14.5673
2421.8750,-4.6344,4.6744,0.8354,-7.4366,-10.1971,-0.2566,-5.3449,-5.9223,-0.8085,-2.4562,-1.1982,-2.7672,-11.6344,-14.5711,-2.0563,0.7279,-8.0962,-1.0214,-14.0293
2425.7812,-3.3815,5.7838,2.6755,-5.6331,-8.3632,-1.4290,-3.8887,-5.9334,-0.0703,1.0064,0.1318,-1.0361,-9.2137,-12.8153,-0.3329,1.2813,-7.5965,0.7873,-11.6240
2429.6875,-2.3213,6.2896,4.8389,-3.1800,-4.6588,-1.5922,-0.1058,-4.5897,1.8216,4.1608,2.2168,1.6789,-5.0528,-8.9949,2.1606,2.5606,-5.1733,3.6187,-7.4013
2433.5938,-1.5311,6.9305,7.2501,0.0546,0.1238,-0.1057,4.4205,-1.6124,4.6618,5.3177,4.5061,5.0320,-0.1371,-3.6523,4.0050,4.5940,-1.3706,7.0672,-2.1831
2437.5000,-0.5767,8.0403,9.4397,3.7392,4.5723,2.5989,7.4789,2.2620,7.5127,4.2008,6.1927,8.3684,4.2848,1.9858,4.5554,7.0945,2.6479,10.2206,2.7335
2441.4062,0.9788,9.2347,10.7033,7.0955,7.4723,5.2764,7.6954,5.5708,9.2140,2.0370,6.6879,11.0110,7.3505,6.5561,4.2960,9.5584,5.7100,12.1736,6.2243
2445.3125,3.0636,9.7559,10.5885,9.3213,8.5576,6.6765,5.4827,6.9879,9.1940,0.6904,6.0898,12.6537,9.0365,9.2906,4.3257,11.4777,7.2822,12.6517,7.9801
2449.2188,4.9895,9.1595,9.3464,10.1603,8.6548,6.3598,2.7550,6.1940,7.9604,1.4142,5.2544,13.5736,10.1132,10.4567,5.4113,12.5795,7.7328,12.2735,8.7176
2453.1250,5.8399,7.7426,7.9374,10.1695,9.0683,4.9511,1.5911,4.1160,6.8175,4.0290,5.2988,14.4551,11.5952,11.1415,7.3414,12.9568,8.0093,12.1923,9.7450
2457.0312,5.0779,6.3414,7.4891,10.4022,10.6054,3.6448,2.8109,2.3275,6.9350,7.0443,6.8009,15.8882,14.0117,12.4465,9.0503,12.9844,8.9169,13.3071,12.0912
2460.9375,2.9406,5.6703,8.5426,11.6606,12.9349,3.3148,5.4843,2.0108,8.4359,8.6145,9.2618,17.8737,16.9670,14.6226,9.3886,13.0338,10.4851,15.5826,15.7457
2464.8438,0.3352,5.7655,10.6418,13.8530,14.7761,3.8747,7.6891,3.2224,10.2251,7.6789,11.2922,19.7175,19.3106,16.7901,7.9482,13.1637,11.8831,17.9966,19.5579
2468.7500,-1.7032,6.0043,12.6095,15.9746,14.8213,4.3590,7.9056,4.9788,10.7494,4.5447,11.4838,20.4461,19.8470,17.5199,5.3454,13.0357,11.9885,19.2018,21.9294
2472.6562,-2.6341,5.6773,13.3493,16.7883,12.7343,3.6655,6.0054,6.0655,9.1639,0.5814,9.3934,19.4900,18.1436,15.9080,2.7979,12.1790,10.2385,18.4655,21.8705
2476.5625,-2.6997,4.6191,12.5994,15.7331,9.4779,1.4020,3.1582,5.9292,6.0284,-2.6904,5.9244,17.1480,14.8879,12.3544,1.3392,10.4601,7.1556,16.2143,19.6848
2480.4688,-2.6906,3.3542,11.0764,13.3683,6.6936,-1.7952,0.8367,4.9775,2.9862,-4.4554,2.7873,14.4610,11.5154,8.4167,1.2332,8.3918,4.1302,13.7655,16.7613
2484.3750,-3.3476,2.6330,9.9048,10.9856,5.5664,-4.7006,-0.2475,4.1001,1.6381,-4.8577,1.3874,12.5389,9.3142,5.7837,1.9373,6.9547,2.5540,12.4121,14.5857
2488.2812,-4.8082,2.7561,9.7674,9.6577,6.0080,-6.3500,-0.4690,3.8489,2.4358,-4.5987,1.9227,11.7922,8.5921,5.0992,2.5434,6.9376,2.8753,12.5064,13.6699
2492.1875,-6.4835,3.2744,10.4264,9.4476,6.7697,-6.6444,-0.7189,3.9712,4.4074,-4.3030,3.3284,11.6256,8.4801,5.5307,2.3193,8.2184,4.2407,13.2084,13.1974
2496.0938,-7.4645,3.3387,10.9678,9.4064,6.4054,-6.2625,-1.4950,3.6767,5.8924,-4.1776,4.0844,10.8400,7.5382,5.4360,0.9984,9.5645,4.9978,13.0933,11.6796
2500.0000,-7.1929,2.4239,10.5558,8.3788,4.3617,-5.9882,-2.4264,2.3979,5.7115,-4.1630,3.2755,8.4898,4.7792,3.6479,-1.2647,9.2496,3.7497,11.1922,8.1631
2503.9062,-5.9298,0.8253,9.0936,5.9984,1.3852,-6.0281,-2.5884,0.3885,3.9042,-4.3173,1.1355,4.6047,0.4256,0.4054,-4.0939,6.1999,0.2631,7.7239,3.0988
2507.8125,-4.6637,-0.5016,7.2808,3.0848,-1.0384,-5.8843,-1.3021,-1.3630,1.5421,-4.9753,-1.2643,0.2718,-4.1170,-2.7823,-7.0242,0.9149,-4.3618,4.0005,-1.7923
2511.7188,-4.4714,-0.6543,6.0532,1.1082,-1.7612,-4.8860,1.2566,-1.8654,-0.1543,-6.4572,-2.8710,-2.9825,-7.0626,-4.2352,-9.5119,-4.5531,-8.3477,1.5791,-4.5836
2515.6250,-5.7327,0.5081,5.8763,1.1131,-0.7398,-2.9222,4.1108,-0.9193,-0.6703,-8.5551,-3.3619,-4.0908,-7.2942,-3.3146,-10.9488,-7.6838,-10.2653,1.2641,-4.3804
2519.5312,-7.7454,2.2202,6.4536,2.9268,1.0619,-0.7357,6.1116,0.6731,-0.4012,-10.3034,-3.2021,-3.0243,-4.9811,-0.8256,-10.8247,-7.0067,-9.7644,2.6443,-1.8488
2523.4375,-9.0529,3.3469,7.0458,5.2652,2.4991,0.5173,6.6257,1.6719,-0.1510,-10.3714,-3.0928,-0.7007,-1.3939,1.6689,-9.0096,-3.0463,-7.6013,4.4475,1.3126
2527.3438,-8.3297,3.1850,7.0930,6.6644,3.1171,0.1333,5.7885,1.3096,-0.4179,-7.9165,-3.3236,1.6595,1.9056,3.0475,-5.9504,1.9820,-5.0445,5.4187,3.5356
2531.2500,-5.2689,1.9273,6.6125,6.5345,3.3934,-1.5326,4.2418,-0.1505,-1.0583,-3.3074,-3.5588,3.2606,3.9397,3.3907,-2.5651,5.5613,-3.1150,5.0934,4.3296
2535.1562,-0.8771,0.4673,6.0749,5.5496,4.2155,-3.2370,2.6784,-1.6323,-1.5327,1.8610,-3.1767,4.0715,4.7152,3.7406,0.1754,6.4285,-2.1346,3.9689,4.3870
2539.0625,3.0495,-0.2590,5.9268,5.1022,6.0758,-3.7137,1.5808,-2.0550,-1.4333,5.5588,-1.8198,4.6312,4.9828,5.1207,1.7341,5.2446,-1.7648,3.0376,4.8834
2542.9688,4.9468,0.1276,6.2174,6.2587,8.6543,-2.5995,1.2509,-1.1101,-0.7969,6.4327,0.3228,5.5456,5.6240,7.6542,2.2300,3.9447,-1.3788,3.0817,6.5800
2546.8750,4.3428,1.3276,6.6577,8.9989,11.0927,-0.7141,1.9087,0.5660,0.0357,4.5095,2.6994,7.0639,7.1120,10.4921,2.2368,4.2565,-0.4634,4.2316,9.3889
2550.7812,2.0052,2.7257,7.0135,12.2674,12.6792,0.5321,3.5982,1.9038,0.8197,1.0586,4.8211,8.9867,9.3441,12.5554,2.3048,6.4452,1.1583,6.0297,12.6089
2554.6875,-0.6764,3.8760,7.4121,14.7329,13.3365,0.1662,5.9170,2.1635,1.6456,-2.2226,6.5219,10.8750,11.8232,13.4119,2.5601,9.1496,3.2968,7.8523,15.4976
2558.5938,-2.6020,4.7115,8.2178,15.6435,13.5145,-1.6486,7.8892,1.3689,2.7779,-4.1045,7.8408,12.3277,13.9505,13.5249,2.6648,10.3808,5.4664,9.3158,17.6507
2562.5000,-3.5182,5.3737,9.5479,15.1639,13.6245,-3.7533,8.2972,0.1373,4.2581,-4.2475,8.6976,13.1164,15.2102,13.6754,2.1439,8.9377,6.9988,10.3825,18.9387
2566.4062,-3.8729,5.8925,10.8888,14.0296,13.5454,-4.8482,6.4170,-0.8818,5.6746,-3.0331,8.7366,13.1415,15.2160,14.0913,0.8079,5.2408,7.2265,11.1581,19.2026
2570.3125,-4.1732,6.0505,11.2493,12.8793,12.6592,-4.4134,2.6670,-1.4887,6.3667,-1.1294,7.5523,12.3367,13.7355,14.0803,-1.0574,1.0478,5.7595,11.6164,18.1209
2574.2188,-4.4274,5.5526,9.8455,11.8100,10.3978,-3.0271,-1.4045,-1.9869,5.9245,0.7903,5.1311,10.6580,10.7884,12.5358,-2.8648,-1.6849,2.7646,11.5050,15.4540
2578.1250,-4.1571,4.3266,6.8029,10.4482,6.8288,-1.8954,-3.9532,-2.8467,4.5527,2.0528,2.0934,8.1723,6.7649,8.9272,-4.1094,-1.9759,-0.9522,10.5033,11.4480
2582.0312,-2.9733,2.6555,3.2548,8.3882,2.7609,-1.9894,-4.0188,-4.3019,2.9534,1.9462,-0.5506,5.1356,2.4030,3.9389,-4.6622,-0.2718,-4.2160,8.4891,6.9638
2585.9375,-1.2050,1.0012,0.6480,5.5887,-0.7478,-3.4370,-2.2235,-6.1996,1.7905,-0.0590,-2.0114,1.9426,-1.4719,-0.8228,-4.7664,2.0041,-6.0411,5.6906,3.0926
2589.8438,0.0276,-0.3332,-0.2829,2.4241,-3.0894,-5.5658,-0.4267,-8.1543,1.1735,-3.8324,-2.2349,-1.0485,-4.3411,-3.8846,-4.7775,3.3765,-6.1744,2.6071,0.4817
2593.7500,-0.5169,-1.4050,-0.0762,-0.5861,-4.4457,-7.4743,-0.4982,-9.8088,0.6009,-8.2397,-1.9034,-3.6856,-6.2524,-4.9137,-4.8758,3.0578,-5.2532,-0.2354,-1.0933
2597.6562,-3.2220,-2.5229,-0.1504,-3.0902,-5.4982,-8.6452,-3.0361,-10.9635,-0.5747,-11.3999,-1.9074,-6.0386,-7.7278,-4.8866,-4.9726,1.1142,-4.4247,-2.5156,-2.5151
2601.5625,-7.1005,-3.9285,-1.7036,-5.0045,-6.7608,-9.1577,-6.9338,-11.5223,-2.5518,-11.6237,-2.7070,-8.2350,-9.3377,-5.2762,-4.8541,-1.8511,-4.6296,-4.1919,-4.5819
2605.4688,-10.2535,-5.5609,-4.7456,-6.3839,-8.0953,-9.4262,-10.1190,-11.3987,-4.8694,-8.5334,-4.0903,-10.2424,-11.2303,-6.8878,-4.4140,-5.1095,-6.0043,-5.4131,-7.3058
2609.3750,-11.1051,-7.1169,-8.0430,-7.2570,-8.8069,-9.7682,-10.9544,-10.5478,-6.7751,-3.5719,-5.4985,-11.7865,-12.9619,-9.2399,-3.7732,-7.9957,-7.7954,-6.3722,-9.8288
2613.2812,-9.5725,-8.3510,-10.0665,-7.6161,-8.2344,-10.1752,-9.3269,-9.1240,-7.8703,0.5887,-6.6038,-12.4899,-13.7779,-10.9445,-3.2016,-9.8713,-8.8479,-7.2206,-11.0593
2617.1875,-7.2765,-9.3297,-10.2203,-7.5536,-6.3438,-10.4304,-6.6823,-7.5873,-8.4744,1.5029,-7.6098,-12.1416,-13.1541,-10.7618,-2.9229,-10.1020,-8.3432,-8.0736,-10.5432
2621.0938,-6.5218,-10.3840,-9.3740,-7.3534,-3.8392,-10.3949,-5.0189,-6.5729,-9.3671,-1.6017,-8.9919,-10.8900,-11.2101,-8.5003,-2.9599,-8.2436,-6.3044,-9.0441,-8.8681
2625.0000,-8.6702,-11.7668,-9.2291,-7.3676,-1.7039,-10.1710,-5.5622,-6.5402,-11.0879,-7.3138,-10.8977,-9.1977,-8.6819,-5.0985,-3.1260,-4.3765,-3.5572,-10.2179,-7.2528
2628.9062,-13.0329,-13.2987,-10.9612,-7.7194,-0.5366,-9.9980,-8.0209,-7.4366,-13.3590,-12.7981,-12.7565,-7.5696,-6.4578,-1.8868,-3.1355,0.6992,-1.2010,-11.5509,-6.6167
2632.8125,-17.1280,-14.3325,-14.1792,-8.0837,-0.1930,-10.0075,-10.8715,-8.6523,-15.1287,-15.3427,-13.5028,-6.2381,-5.0008,0.3473,-2.7374,5.6568,0.0462,-12.7650,-6.8506
2636.7188,-18.2244,-14.1254,-17.0346,-7.7890,0.0192,-10.0872,-12.4033,-9.3485,-15.2493,-13.7460,-12.3097,-5.0294,-4.0642,1.7728,-1.7969,9.1970,0.2179,-13.3598,-6.8709
2640.6250,-15.1773,-12.3738,-17.4556,-6.2449,0.7763,-9.9914,-11.7807,-8.9531,-13.2930,-8.7750,-9.2715,-3.5103,-2.9026,3.1472,-0.3280,10.6384,-0.0135,-12.7958,-5.4356
2644.5312,-9.2971,-9.5075,-14.6129,-3.4148,2.2422,-9.5936,-9.4543,-7.4873,-9.8902,-2.5743,-5.4659,-1.3243,-0.8344,5.0331,1.4809,10.1650,0.1843,-10.7856,-2.1151
2648.4375,-3.6149,-6.4972,-9.5375,0.0315,3.9780,-9.0392,-6.7418,-5.5086,-6.3326,2.4789,-2.2923,1.5078,2.2271,7.2494,3.2542,8.5897,1.2767,-7.5274,2.3089
2652.3438,-0.9874,-4.2843,-4.4367,3.0370,5.2599,-8.6373,-4.9439,-3.7418,-3.7398,4.7928,-0.5581,4.5193,5.6324,8.9689,4.4932,6.8354,3.0962,-3.7142,6.3052
2656.2500,-2.2851,-3.2214,-1.2225,4.7547,5.5290,-8.5740,-4.5909,-2.6793,-2.4010,4.0348,-0.0012,7.0073,8.3308,9.3391,4.7756,5.5147,4.9619,-0.2694,8.5620
2660.1562,-5.8662,-2.9054,-0.3352,5.0109,4.6687,-8.6948,-5.2438,-2.4132,-1.7407,1.0555,0.3904,8.3919,9.4640,8.1186,4.0357,4.8601,6.0823,2.0717,8.7598
2664.0625,-8.6749,-2.5042,-0.6841,4.3161,2.9955,-8.5604,-5.8823,-2.7470,-0.8761,-2.5211,1.5157,8.5086,8.8399,5.8571,2.7385,4.9405,6.0002,3.1009,7.6258
2667.9688,-8.2254,-1.3409,-0.6743,3.4346,1.0591,-7.7537,-5.5760,-3.4244,0.6868,-4.8628,3.4213,7.6659,7.0032,3.5255,1.7539,5.8618,4.8320,3.1860,6.3033
2671.8750,-4.1608,0.6557,0.5110,2.8364,-0.5899,-6.2032,-4.0296,-4.2687,2.7190,-4.5822,5.2440,6.4454,4.8795,1.9058,1.9028,7.6945,3.1796,2.9842,5.5425
2675.7812,1.5956,2.9025,2.3341,2.4230,-1.5810,-4.2696,-1.7285,-5.1630,4.4752,-1.3719,5.8572,5.3705,3.2275,1.1678,3.4055,10.1600,1.7660,2.9907,5.2884
2679.6875,6.1256,4.5073,3.4064,1.6983,-1.8493,-2.5332,0.3486,-5.9653,5.2202,3.6542,4.7070,4.6346,2.2345,0.8696,5.6058,12.3958,1.0028,3.2132,4.8857
2683.5938,7.3358,4.7648,2.6191,0.2285,-1.6898,-1.4453,1.2663,-6.4947,4.6776,8.2610,2.2114,4.0437,1.4908,0.3080,7.2296,13.1463,0.7494,3.2017,3.6646
2687.5000,5.1289,3.5192,0.0156,-1.9524,-1.6661,-1.0972,0.6310,-6.6165,3.1393,10.1182,-0.5398,3.1947,0.3423,-1.0429,7.0965,11.4232,0.4280,2.4296,1.4495
2691.4062,1.2565,1.2325,-3.2191,-4.2710,-2.3171,-1.2393,-1.2054,-6.3272,1.2615,8.1246,-2.5049,1.7801,-1.6034,-3.2452,4.8666,7.2707,-0.5517,0.7745,-1.3269
2695.3125,-1.9177,-1.2257,-5.5755,-5.9048,-3.7604,-1.4849,-3.3390,-5.7288,-0.2468,3.2219,-3.2720,-0.1638,-4.1347,-5.8604,1.3291,2.0700,-2.3177,-1.2483,-3.8960
2699.2188,-2.8505,-2.9328,-6.1859,-6.2267,-5.4590,-1.5173,-4.7997,-4.8993,-0.8609,-1.9645,-3.1135,-2.2140,-6.4745,-8.1293,-1.9961,-1.9681,-4.3393,-2.6970,-5.5544
2703.1250,-1.5421,-3.2645,-5.2476,-5.1277,-6.4090,-1.1755,-5.0513,-3.7971,-0.3636,-4.6068,-2.5711,-3.7460,-7.6900,-9.2860,-3.7191,-2.9525,-5.6847,-2.7506,-5.9371
2707.0312,0.7860,-2.1184,-3.6834,-3.0518,-5.7402,-0.4379,-4.2129,-2.3267,1.0975,-3.4123,-1.9740,-4.2368,-7.2319,-8.8990,-3.3599,-0.4456,-5.6042,-1.2296,-5.0713
2710.9375,2.6778,0.0625,-2.3977,-0.7621,-3.3684,0.5942,-2.8737,-0.5416,3.0158,0.5493,-1.2731,-3.5049,-5.2707,-7.1097,-1.5507,4.1585,-4.0569,1.2781,-3.2873
2714.8438,3.3598,2.4864,-1.7187,1.0106,-0.1968,1.6614,-1.6463,1.2073,4.6634,4.5576,-0.2571,-1.7545,-2.6139,-4.6232,0.4503,8.3353,-1.7966,3.7910,-1.0889
2718.7500,3.0277,4.3637,-1.3766,1.8633,2.3774,2.3316,-0.7859,2.3696,5.4059,6.0646,1.1142,0.5754,-0.2470,-2.3896,1.5813,9.8559,0.0806,5.5549,0.9819
2722.6562,2.4566,5.2580,-0.9088,1.8461,3.3802,2.1237,-0.1518,2.5354,5.0802,4.3860,2.5811,3.0337,1.2152,-1.0933,1.5779,8.0845,0.8393,6.4740,2.5062
2726.5625,2.3367,5.2510,-0.0860,1.3881,2.9544,0.7835,0.4823,1.7803,4.1778,1.0727,3.7608,5.3006,1.8180,-0.7484,0.9781,4.3335,0.5684,7.0486,3.3569
2730.4688,2.8279,4.8205,0.9747,1.0669,2.2742,-1.4464,1.0535,0.7136,3.6217,-1.2901,4.4404,7.1834,2.1210,-0.6941,0.5925,1.0344,0.0651,7.8836,3.7734
2734.3750,3.5721,4.5040,2.0166,1.3204,2.6797,-3.7973,1.1285,0.1284,4.1945,-0.9681,4.7119,8.5285,2.7335,-0.0528,0.8671,0.2357,0.2189,9.1513,4.2399
2738.2812,4.0408,4.5677,2.9106,2.2307,4.6371,-5.2924,0.2392,0.4690,5.9745,1.7340,4.8369,9.1793,3.8650,1.6284,1.6049,2.3731,1.3473,10.4285,5.1777
2742.1875,3.9080,4.9047,3.7177,3.4862,7.3050,-5.2638,-1.6069,1.5079,8.2040,4.8304,4.9877,9.0515,5.1990,4.0009,2.2121,6.0795,2.9739,11.0310,6.6282
2746.0938,3.2086,5.2133,4.5138,4.5476,9.0629,-3.7351,-3.6878,2.4906,9.7436,6.2398,5.1129,8.2702,6.1562,6.0977,2.2359,9.1226,4.2055,10.5748,8.1528
2750.0000,2.2557,5.2929,5.1736,4.9275,8.6318,-1.3986,-4.8859,2.6562,9.8273,5.3685,5.0453,7.2200,6.3230,6.9658,1.7573,9.8252,4.4045,9.3091,9.0495
2753.9062,1.4519,5.2043,5.3426,4.4188,5.9623,0.8094,-4.4216,1.7530,8.5747,3.4931,4.7267,6.3989,5.7177,6.2912,1.3364,8.0315,3.6332,7.9405,8.7593
2757.8125,1.1329,5.1598,4.6433,3.1404,2.2373,2.2397,-2.4921,0.1697,6.8701,2.6830,4.3122,6.1243,4.7042,4.5570,1.5610,5.0256,2.5353,7.0756,7.1868
2761.7188,1.4786,5.2490,2.9505,1.3949,-0.9822,2.8007,-0.3025,-1.3887,5.6884,4.1252,4.0306,6.2845,3.6571,2.6338,2.5521,2.5375,1.7777,6.7235,4.7200
2765.6250,2.4537,5.2613,0.5179,-0.5312,-2.7954,2.8124,0.6105,-2.4024,5.3765,7.1485,3.9211,6.3412,2.6727,1.1452,3.8057,1.5777,1.5212,6.2652,1.9617
2769.5312,3.7634,4.7982,-2.1308,-2.4652,-3.4025,2.6119,-0.6564,-2.8188,5.4432,9.6865,3.7049,5.6268,1.5691,0.1161,4.4945,1.9083,1.3580,4.9368,-0.6074
2773.4375,4.8834,3.6136,-4.4388,-4.2880,-3.6723,2.2577,-3.7730,-2.9319,5.0132,9.8038,2.9531,3.7659,0.1674,-0.8383,4.0158,2.4520,0.7536,2.4624,-2.7845
2777.3438,5.2375,1.8983,-6.0036,-5.8072,-4.2616,1.5675,-7.3526,-3.0166,3.5735,7.1181,1.4473,0.9421,-1.4028,-1.9875,2.3995,2.2491,-0.3914,-0.6554,-4.5461
2781.2500,4.4954,0.2308,-6.6257,-6.7259,-5.0349,0.4259,-9.7754,-3.0673,1.4116,3.0635,-0.5621,-2.1750,-2.6607,-3.1122,0.3022,1.1987,-1.5514,-3.4252,-5.8375
2785.1562,2.8246,-0.8213,-6.2776,-6.7828,-5.2411,-0.9435,-10.0908,-2.8618,-0.6065,-0.1525,-2.4399,-4.7928,-3.0657,-3.6341,-1.3925,0.0374,-1.9445,-5.0242,-6.4720
2789.0625,0.8916,-1.1554,-5.1016,-5.9709,-4.2482,-2.0149,-8.4215,-2.2586,-1.7304,-1.0734,-3.5617,-6.4000,-2.4308,-3.1519,-2.0827,-0.3766,-1.1735,-5.3323,-6.2465
2792.9688,-0.4539,-1.2589,-3.4554,-4.6384,-2.1832,-2.3107,-5.6890,-1.4163,-1.9186,0.1314,-3.7279,-6.9534,-1.1267,-1.9143,-1.7413,0.1400,0.3870,-4.9473,-5.1654
2796.8750,-0.6479,-1.8464,-1.9006,-3.3386,0.0773,-1.7847,-2.9580,-0.6991,-1.8343,2.0098,-3.2679,-6.7599,0.1061,-0.7809,-0.8392,0.8783,1.7939,-4.6896,-3.5611
2800.7812,0.2759,-3.2421,-1.0142,-2.4981,1.5533,-0.9046,-0.8931,-0.3316,-2.2389,3.0146,-2.7497,-6.1926,0.6148,-0.6396,-0.0037,0.7866,2.1934,-4.9865,-1.9731
2804.6875,1.7557,-4.9817,-1.0549,-2.1361,1.9026,-0.3338,0.3701,-0.1220,-3.2735,2.5743,-2.5188,-5.4677,0.2331,-1.7156,0.3386,-0.6505,1.4273,-5.5964,-0.8521
2808.5938,3.1076,-5.9863,-1.7012,-1.8594,1.6445,-0.4434,1.0102,0.4585,-4.2287,1.2809,-2.4298,-4.6208,-0.6604,-3.3315,0.1290,-2.9125,0.1160,-5.8504,-0.3047
2812.5000,3.9686,-5.2451,-2.1155,-1.1578,1.6995,-1.0369,1.2578,1.8523,-4.0209,0.1847,-1.9798,-3.6339,-1.4419,-4.3402,-0.3880,-4.7427,-0.8370,-5.1904,-0.0674
2816.4062,4.4488,-2.5460,-1.4014,0.2079,2.6396,-1.5135,1.3071,3.9795,-2.0327,-0.1221,-0.7369,-2.5548,-1.6541,-3.9294,-0.8463,-5.0360,-0.9236,-3.5816,0.2750
2820.3125,4.8967,1.2748,0.7886,2.0132,4.2561,-1.3468,1.3693,6.1700,1.3261,0.1270,1.2681,-1.4941,-1.2336,-2.1993,-0.9191,-3.6387,-0.3627,-1.5170,0.9904
2824.2188,5.4987,4.7626,3.9078,3.7094,5.7613,-0.4996,1.6777,7.5661,4.7754,0.2835,3.4829,-0.5336,-0.4342,-0.0947,-0.3949,-1.4425,0.1484,0.3324,2.0278
2828.1250,6.0678,6.6711,6.7242,4.7841,6.4072,0.5595,2.3424,7.7150,6.9414,0.0238,5.1400,0.3253,0.4224,1.2391,0.7933,0.2900,0.0287,1.5174,3.0683
2832.0312,6.2176,6.6260,8.0120,5.0680,5.9998,1.2522,3.1798,6.9005,7.1907,-0.2764,5.6969,1.0945,1.1338,1.1853,2.5295,0.8362,-0.7397,1.9731,3.7346
2835.9375,5.7739,5.2049,7.2998,4.7804,4.9274,1.3815,3.7490,5.9575,5.9393,0.1310,5.1023,1.6724,1.6182,-0.0370,4.4702,0.4565,-1.6565,1.8998,3.8066
2839.8438,5.0504,3.4408,5.1819,4.3195,3.7705,1.3167,3.6750,5.7074,4.2578,1.6365,3.7400,1.8176,1.8047,-1.6333,6.0699,0.0488,-2.1635,1.5436,3.3240
2843.7500,4.6982,2.1511,2.9711,3.9958,2.8887,1.7122,3.0366,6.4370,3.1090,3.8040,2.1446,1.3066,1.5902,-2.7871,6.7465,0.3290,-2.1076,1.0870,2.5527
2847.6562,5.1941,1.5576,1.9099,3.9088,2.3307,2.9684,2.4493,7.7827,2.7781,5.6088,0.7153,0.1839,0.9471,-3.0761,6.1577,1.2188,-1.8202,0.6886,1.8621
2851.5625,6.3637,1.3879,2.4463,4.0073,2.0551,4.8589,2.6662,9.0489,2.8568,6.2179,-0.3992,-1.1271,0.0742,-2.5234,4.4431,1.9326,-1.7688,0.5320,1.5701
2855.4688,7.3627,1.2651,4.0216,4.2041,2.1495,6.6207,3.9363,9.6660,2.6974,5.6592,-1.2333,-2.0131,-0.6034,-1.3843,2.2518,1.6726,-2.1023,0.7411,1.7974
2859.3750,7.2050,1.0240,5.4712,4.3998,2.7643,7.4529,5.6467,9.4426,1.9329,4.7819,-1.8725,-2.0856,-0.6721,0.0634,0.4793,0.3413,-2.4893,1.1941,2.3748
2863.2812,5.4778,0.7240,5.7448,4.4097,3.8125,7.0491,6.6307,8.4959,0.6798,4.4814,-2.3706,-1.5168,-0.0521,1.5682,-0.1813,-1.3273,-2.3836,1.4378,2.8688
2867.1875,2.7010,0.4337,4.4847,3.9363,4.7810,5.7664,6.0097,7.0383,-0.6570,4.7944,-2.7443,-0.9975,0.8720,2.8651,0.3736,-2.3254,-1.4808,0.8859,2.7689
2871.0938,0.0201,0.0515,2.1430,2.7213,4.9529,4.3104,3.9522,5.2765,-1.7400,4.6417,-2.9986,-1.2775,1.4844,3.7240,1.5722,-2.1537,0.0277,-0.7540,1.7912
2875.0000,-1.5684,-0.6414,-0.3624,0.8298,3.9646,3.1885,1.7025,3.5043,-2.5067,2.5416,-3.1383,-2.5896,1.4067,4.1261,2.4595,-1.1762,1.6132,-3.1309,0.1310
2878.9062,-1.8891,-1.7475,-2.1827,-1.1712,2.2445,2.3597,0.7557,2.2168,-3.0971,-2.1410,-3.1748,-4.3914,0.8468,4.3989,2.2191,-0.2553,2.8333,-5.3099,-1.5360
2882.8125,-1.6479,-3.0774,-2.9363,-2.3797,0.8852,1.3517,1.7391,2.0094,-3.6321,-8.3261,-3.1551,-5.6596,0.5126,5.0838,0.6338,0.0186,3.6477,-6.2988,-2.3803
2886.7188,-1.8361,-4.2278,-2.7905,-2.0681,0.9242,-0.2427,3.8618,3.2232,-4.0750,-13.4634,-3.2031,-5.5621,1.0995,6.5230,-1.7765,-0.1541,4.3579,-5.7210,-1.9188
2890.6250,-2.9432,-4.8718,-2.2575,-0.2251,2.5298,-2.2789,5.4178,5.5874,-4.2960,-14.8783,-3.5071,-4.0339,2.7117,8.4497,-4.0204,0.0287,5.2339,-4.1433,-0.3694
2894.5312,-4.5881,-5.0138,-1.8784,2.2898,4.7466,-3.9785,5.0318,8.2044,-4.2485,-11.4231,-4.2004,-1.8337,4.6691,9.9649,-5.1534,1.2161,6.1723,-2.7706,1.4116
2898.4375,-5.8425,-4.9699,-1.9670,4.1722,6.0722,-4.3572,2.7277,9.9988,-4.0636,-4.3623,-5.1812,-0.0383,5.8942,10.0361,-4.7606,3.2150,6.7063,-2.6738,2.4154
2902.3438,-5.9722,-5.0677,-2.5073,4.4528,5.4936,-2.8941,-0.0122,10.3704,-3.9519,3.1278,-6.0198,0.6563,5.6331,8.2272,-3.1391,4.9753,6.3872,-4.0770,2.0904
2906.2500,-4.9931,-5.3167,-3.2050,3.1102,3.2197,0.0171,-1.2886,9.5769,-3.9941,7.6036,-6.0905,0.3228,4.0010,5.1161,-1.0919,5.3217,5.2281,-6.2068,0.6721
2910.1562,-3.6088,-5.3448,-3.6428,1.0732,0.5502,3.1634,-0.1740,8.5312,-4.0148,7.1864,-4.9200,-0.3694,1.9477,2.0309,0.5397,3.8872,3.8228,-7.8073,-0.9913
2914.0625,-2.6036,-4.6878,-3.4740,-0.4061,-1.0346,5.1263,2.5892,8.1347,-3.6764,2.5192,-2.5469,-0.7076,0.6531,0.2307,1.3309,1.5045,2.9968,-7.9514,-1.9872
2917.9688,-2.2088,-3.2155,-2.5840,-0.5747,-0.8855,5.0495,5.1102,8.6326,-2.7356,-3.6663,0.3765,-0.4233,0.7690,0.0968,1.4583,-0.2962,3.2244,-6.5789,-1.8819
2921.8750,-1.9631,-1.3412,-1.1522,0.3791,0.4437,3.0990,5.7103,9.4752,-1.2641,-8.0700,2.8689,0.2333,2.0190,0.9168,1.5159,-0.3479,4.2432,-4.4253,-0.9056
2925.7812,-1.1660,0.1854,0.4222,1.5511,1.6955,0.3552,4.1140,9.7788,0.3552,-8.5298,4.1503,0.8237,3.4046,1.4125,2.0874,1.3057,5.1707,-2.4560,0.2941
2929.6875,0.4813,0.7786,1.7076,2.0100,1.8493,-1.7748,1.6082,9.0198,1.6676,-4.9884,4.0821,1.1248,3.8415,0.6144,3.3449,3.4040,5.0627,-1.2525,1.0981
2933.5938,2.5978,0.4460,2.4498,1.4241,0.7763,-2.2659,0.0887,7.4235,2.4511,0.7215,3.2288,1.2640,2.7911,-1.5514,4.9339,4.3153,3.5395,-0.7688,1.2331
2937.5000,4.4415,-0.1713,2.6914,0.1864,-0.8406,-0.9130,0.7247,5.7646,2.8656,6.0345,2.5067,1.5105,0.5119,-4.3417,6.2240,3.1342,1.0568,-0.5454,0.7905
2941.4062,5.5392,-0.1830,2.7288,-0.9922,-2.1622,1.6919,3.2079,4.7629,3.3402,9.0415,2.6684,1.9626,-2.1545,-6.7987,6.7641,0.2756,-1.3482,-0.1294,0.0318
2945.3125,6.0704,1.0117,2.9332,-1.6529,-2.8462,4.5542,6.0683,4.5617,4.2807,9.3582,3.9558,2.4435,-4.2557,-8.3706,6.6314,-2.8001,-2.6608,0.6399,-0.8007
2949.2188,6.6627,3.3868,3.5365,-1.8733,-3.1924,6.7749,7.7366,4.6806,5.7918,8.0756,6.0926,2.6999,-5.1618,-9.1061,6.4151,-4.4819,-2.4581,1.6330,-1.5316
2953.1250,7.7699,6.3316,4.4995,-2.0842,-3.7406,7.8857,7.5472,4.4425,7.5823,6.9149,8.5222,2.6983,-4.7660,-9.3765,6.8095,-3.9015,-1.1117,2.6037,-2.0023
2957.0312,9.1835,8.9737,5.5218,-2.6267,-4.7239,7.9130,6.0106,3.5104,9.0872,7.1137,10.6506,2.7064,-3.4360,-9.4490,8.0721,-1.2933,0.4661,3.3187,-2.0685
2960.9375,10.1253,10.5322,6.1755,-3.4313,-5.8409,7.2262,4.2911,2.1293,9.7156,8.6712,11.9357,3.0404,-1.8009,-9.2829,9.7196,2.2796,1.3587,3.5497,-1.7045
2964.8438,9.8730,10.5174,6.0888,-4.0647,-6.4830,6.3112,3.3814,0.9383,9.0890,10.3593,11.8756,3.6832,-0.4682,-8.6493,10.7116,5.5348,1.1578,3.0321,-1.1087
2968.7500,8.3921,8.7820,5.1045,-4.0617,-6.1607,5.5778,3.5765,0.5608,7.1779,10.4786,10.0744,4.1357,0.2443,-7.3689,10.0496,7.5102,0.1835,1.5509,-0.6455
2972.6562,6.4156,5.5404,3.3601,-3.2481,-4.7569,5.2387,4.5078,1.2993,4.3119,7.9322,6.4772,3.6959,0.4657,-5.4107,7.4282,7.8159,-0.6964,-0.8321,-0.5876
2976.5625,4.8682,1.4140,1.2638,-1.8114,-2.4626,5.2514,5.5448,3.0975,1.0816,3.0037,1.6363,1.9961,0.7060,-2.8072,3.5097,6.6283,-0.5589,-3.6045,-0.8462
2980.4688,4.1092,-2.5928,-0.6367,-0.1227,0.4287,5.3306,6.1764,5.6665,-1.8357,-2.6310,-3.2688,-0.6233,1.5320,0.4140,-0.3768,4.5540,1.0166,-5.9135,-0.9571
2984.3750,3.6502,-5.3374,-1.8635,1.4804,3.5928,5.0581,6.1411,8.5710,-3.8839,-6.7104,-6.8315,-3.2300,3.1223,4.0888,-2.9338,2.4258,3.6213,-6.9960,-0.4239
2988.2812,2.6298,-6.0188,-2.2196,2.7562,6.5418,4.0950,5.3676,11.2011,-4.8054,-7.5945,-8.0920,-4.8561,4.9915,7.6344,-3.5557,1.0086,6.1308,-6.6674,0.7976
2992.1875,0.6699,-4.6614,-1.8914,3.4697,8.5088,2.4149,3.9240,12.7730,-4.7101,-5.1903,-7.0741,-5.0911,6.1448,9.9589,-2.5448,0.6484,7.2499,-5.4914,2.0808
2996.0938,-1.6259,-2.2489,-1.3617,3.3305,8.6369,0.4080,2.0602,12.5500,-3.9922,-1.0416,-4.7923,-4.2733,5.6602,9.8498,-0.7925,1.0365,6.2209,-4.4491,2.4340
3000.0000,-3.0245,-0.3050,-1.1490,2.1150,6.4927,-1.2648,0.2347,10.2787,-3.1303,2.5059,-2.6726,-3.1615,3.3543,6.7446,0.8144,1.3188,3.2893,-4.3005,1.1884
3003.9062,-2.6523,-0.0842,-1.5096,-0.0765,2.5593,-2.0378,-1.0291,6.5513,-2.4796,3.6005,-1.7471,-2.3758,0.0494,1.3646,1.8409,0.6071,-0.3810,-5.0930,-1.4236
3007.8125,-0.8371,-1.8497,-2.2933,-2.6675,-1.7559,-1.8170,-1.4380,2.7315,-2.1743,1.8880,-2.1474,-2.0538,-2.8217,-4.3601,2.3444,-1.3696,-3.3280,-6.1824,-4.2794
3011.7188,0.9412,-4.7165,-3.0566,-4.7761,-4.7642,-1.0894,-1.1480,0.3344,-2.1764,-1.3728,-3.2092,-1.9532,-4.0676,-8.2049,2.5699,-3.9423,-4.5863,-6.7467,-6.0320
3015.6250,1.0570,-7.1878,-3.3696,-5.6773,-5.4442,-0.6307,-0.6618,0.1813,-2.4024,-4.1422,-4.0543,-1.8359,-3.4762,-8.8956,2.6144,-5.8289,-4.1589,-6.3934,-5.9884
3019.5312,-1.0144,-8.0501,-3.1009,-5.2551,-4.0511,-0.9568,-0.4175,1.8947,-2.8051,-4.8585,-4.1909,-1.7443,-1.9063,-6.8508,2.3476,-5.9865,-2.8779,-5.3987,-4.5649
3023.4375,-4.1755,-7.0448,-2.4732,-4.0921,-1.9272,-1.8900,-0.3801,4.1302,-3.3435,-3.3452,-3.7070,-1.9159,-0.6591,-3.8837,1.6312,-4.4208,-1.7815,-4.4183,-2.9735
3027.3438,-6.3672,-4.9009,-1.8448,-3.0861,-0.6156,-2.5891,-0.0198,5.4360,-3.8855,-0.8247,-2.9917,-2.4471,-0.5906,-2.0484,0.6041,-2.3295,-1.4677,-3.9391,-2.3699
3031.2500,-5.9706,-2.7601,-1.3902,-2.8456,-0.8896,-2.0929,1.2319,5.1667,-4.1651,0.9287,-2.2942,-3.0737,-1.6178,-2.4268,-0.2571,-1.3849,-1.8671,-3.9330,-3.0935
3035.1562,-2.9296,-1.4288,-0.9396,-3.2974,-2.3677,-0.0484,3.3747,3.8216,-3.8802,0.7242,-1.5251,-3.3392,-2.9566,-4.6640,-0.4003,-2.5919,-2.5338,-3.9830,-4.5472
3039.0625,1.2222,-0.9700,-0.1274,-3.7940,-3.9331,2.8933,5.6102,2.5888,-2.8936,-1.3458,-0.4510,-3.0493,-3.8435,-7.4736,0.4056,-5.5196,-3.1414,-3.7400,-5.7539
