Time,Fp1,F3,C3,P3,O1,F7,T3,T5,Fz,Fp2,F4,C4,P4,O2,F8,T4,T6,Cz,Pz
0.0000,-39.4540,-20.0504,-10.8321,-10.0526,-7.6646,-13.0280,-15.9616,-6.5223,-22.0407,-42.8036,-26.2212,-16.1611,-10.6901,-4.8016,-37.7453,-11.5805,-6.7815,-15.6689,-10.7695
3.9062,-43.7641,-17.6031,-7.9001,-7.8438,-6.1135,-12.9275,-13.9035,-5.1372,-21.7865,-46.4394,-24.6321,-12.6802,-9.5869,-2.7834,-41.5620,-11.9588,-5.8316,-13.1981,-8.5811
7.8125,-50.0047,-13.7662,-3.6962,-3.8190,-2.4692,-12.2951,-6.8639,-2.6104,-20.2403,-51.5291,-23.2072,-7.9322,-6.9469,1.0019,-47.1539,-11.9172,-4.2904,-9.0099,-4.6656
11.7188,-55.5662,-9.1481,0.9300,1.5093,3.1349,-10.5089,5.1782,0.7865,-16.9558,-55.9477,-22.0962,-3.1920,-3.0157,6.0577,-52.7063,-11.5923,-2.5816,-3.8561,0.2667
15.6250,-57.1400,-4.8041,4.8606,6.9102,9.4852,-7.2414,19.5148,4.3780,-12.2471,-57.1893,-20.9553,0.1921,1.2393,11.0349,-55.8801,-11.3959,-1.2891,0.9044,4.8234
19.5312,-52.4737,-1.8855,7.1655,10.8969,14.6830,-2.8416,31.4200,7.3051,-7.2139,-53.6808,-19.1276,1.4977,4.5532,14.2552,-54.9095,-11.7109,-0.8370,3.9223,7.5675
23.4375,-41.8046,-1.1378,7.5207,12.4236,17.0705,1.6911,36.2468,8.8875,-3.2340,-45.7023,-16.1026,1.0293,6.0600,14.5715,-49.4938,-12.5494,-1.2267,4.5869,7.8126
27.3438,-28.0402,-2.4517,6.3731,11.4297,16.1517,5.2311,31.8968,8.9519,-1.1935,-35.3430,-11.9680,-0.0403,5.8075,12.0576,-40.9934,-13.4387,-2.0150,3.4132,6.0725
31.2500,-15.4797,-4.7367,4.7256,8.8677,12.8808,7.2396,20.2548,7.9294,-0.9778,-25.5106,-7.5564,-0.3571,4.6944,8.0389,-31.8451,-13.6633,-2.5777,1.7695,3.7990
35.1562,-7.7737,-6.3042,3.5994,6.1393,9.0557,8.1399,6.6287,6.6229,-1.6180,-18.5921,-4.1690,0.7496,3.7993,4.3642,-24.5413,-12.7392,-2.5165,1.0231,2.4757
39.0625,-6.2874,-5.6905,3.4361,4.2492,6.1664,9.0070,-2.6743,5.7477,-2.0341,-15.5351,-3.0006,2.7361,3.5368,2.3287,-20.7056,-10.8036,-1.9461,1.6058,2.6035
42.9688,-9.7418,-2.5296,3.7974,3.2210,4.4744,10.7238,-3.4007,5.5082,-1.8504,-15.7715,-4.5467,4.0445,3.2712,1.9512,-20.6442,-8.6275,-1.4472,2.6463,3.2830
46.8750,-15.1683,2.0763,3.6155,2.1924,3.0014,13.2104,4.6172,5.4926,-1.6422,-17.8257,-8.2666,3.0405,1.7655,2.1149,-23.4176,-7.1878,-1.6699,2.5162,2.7773
50.7812,-19.4210,6.0538,1.9291,0.1686,0.4812,15.3675,17.5460,4.9805,-2.3583,-20.0558,-12.6467,-0.7863,-1.7547,1.5051,-27.2208,-7.0423,-2.8148,0.0369,-0.2108
54.6875,-20.2978,7.5836,-1.3032,-3.0640,-3.3891,15.8884,29.6440,3.4850,-4.2958,-21.0438,-15.6503,-6.1106,-6.6603,-0.3063,-29.8365,-7.9064,-4.3444,-4.4281,-5.3723
58.5938,-16.8023,6.3745,-4.8678,-6.5290,-7.3491,14.4172,36.1337,1.1717,-6.4238,-19.5834,-15.4144,-10.1387,-10.8749,-2.4285,-29.0987,-8.7363,-5.1721,-8.8130,-10.6024
62.5000,-8.8117,4.1266,-6.7720,-8.5219,-9.1755,12.1731,35.2747,-1.1472,-6.6959,-14.6211,-10.9748,-10.0455,-11.9489,-3.2442,-23.4453,-8.3151,-4.2884,-10.3938,-13.0766
66.4062,3.1986,3.7152,-5.3664,-7.7041,-7.1740,11.4490,28.6508,-2.4676,-3.3133,-5.5488,-2.7655,-4.7515,-8.6678,-1.6555,-12.5820,-6.0156,-1.4750,-7.4908,-11.0128
70.3125,17.9761,7.4254,-0.4699,-4.1042,-1.5493,14.1789,19.8017,-2.2053,3.8408,7.1440,7.3427,4.0565,-2.1252,1.9109,1.9668,-2.2825,2.3579,-0.7480,-4.9917
74.2188,33.1029,15.2695,6.2499,0.7066,5.3732,20.4979,12.2272,-0.5506,12.6283,21.3333,16.5714,12.4493,4.5772,5.5314,16.8463,1.4784,5.4961,6.9321,2.1206
78.1250,45.0875,24.5215,11.9958,4.4692,10.3655,28.3339,7.9498,1.6804,19.4964,33.4722,22.2125,16.2169,7.9799,6.9373,27.7367,3.5769,6.2973,11.8977,6.7313
82.0312,50.4199,30.9404,14.3230,5.6154,11.2369,34.4280,7.2309,3.5915,21.3545,39.8037,22.6860,13.2191,6.3122,5.0564,30.9959,2.9253,4.1404,11.8383,6.6561
85.9375,47.3118,31.1020,12.5218,4.2602,8.2243,36.2042,9.2018,4.7612,17.3729,38.1322,18.2004,4.7127,0.6307,0.8696,25.4220,-0.3429,-0.1259,7.1544,2.4804
89.8438,37.0986,24.4896,8.0411,2.1198,3.8708,33.2968,12.6827,5.4137,9.5652,29.1838,10.6790,-5.2159,-5.7263,-3.0803,13.1963,-4.8570,-4.5431,0.7217,-2.7519
93.7500,24.2048,14.0426,3.6718,1.3849,1.4305,27.7358,16.6008,6.1029,1.7568,16.6647,2.9688,-11.8338,-9.0712,-4.2672,-0.6715,-8.6058,-7.0407,-3.8089,-5.3524
97.6562,14.3465,4.7533,1.9840,3.2977,2.8348,22.6869,19.9561,7.1688,-2.4366,5.8093,-2.2785,-12.2621,-7.4813,-1.8093,-10.3302,-9.8434,-6.5080,-4.0858,-3.1603
101.5625,11.7944,1.0797,3.9749,7.3875,7.5539,20.5940,21.7258,8.4006,-1.3969,1.0966,-3.5113,-6.7968,-1.7740,2.9677,-11.6258,-7.8590,-3.3216,-0.2040,3.2886
105.4688,17.2456,4.6566,8.7168,11.8660,13.0734,21.9218,21.0921,9.1806,3.9635,4.3182,-0.5919,1.6679,5.2127,7.4318,-3.9337,-3.2592,0.9577,5.7212,11.2716
109.3750,27.5879,13.5872,14.1220,14.8719,16.6112,25.2178,17.9708,9.0119,11.0921,13.9781,5.4855,9.5982,10.4795,9.4042,9.6577,2.3331,4.5074,11.1280,17.6332
113.2812,37.7162,23.6260,18.2377,15.6824,16.8830,28.2790,13.4026,8.0263,17.3940,26.2387,13.1635,14.8072,12.6050,8.5761,23.8893,6.9883,6.2135,14.5833,20.5838
117.1875,43.2985,30.4626,20.2172,15.0580,14.7511,29.5104,9.3445,7.0590,21.4797,36.7853,20.8128,17.2330,12.2787,6.6200,33.7749,9.2497,6.1377,16.3227,20.4177
121.0938,42.8549,31.7715,20.4388,14.5340,12.4047,28.5750,7.8088,7.1863,23.3983,42.5936,26.9865,18.2166,11.4262,5.9458,36.6941,8.6570,5.2742,17.5401,18.8485
125.0000,38.0233,27.9860,19.8811,15.2229,11.7342,26.0781,9.8266,9.0179,23.9648,42.8097,30.5463,19.0531,11.6775,7.9813,33.1601,5.8323,4.8358,19.1267,17.6019
128.9062,32.0871,21.6107,19.3348,17.0138,13.0627,22.7706,14.9013,12.2298,23.8714,38.5719,30.8586,19.9939,13.2927,12.1666,26.0641,2.1441,5.5471,20.8871,17.3211
132.8125,27.8827,15.7117,19.0271,18.7283,15.0698,19.0268,21.3074,15.6715,23.2772,32.1594,28.1014,20.3794,15.2194,16.3239,18.9979,-0.8769,7.3424,21.8059,17.4746
136.7188,26.4345,12.5239,18.8134,19.0721,15.8651,14.9860,26.9991,17.9894,22.0701,26.0427,23.4736,19.6167,16.0944,18.1074,14.6205,-2.1242,9.5498,21.0779,17.1494
140.6250,26.9964,12.8127,18.6235,17.6513,14.3846,11.0986,30.5019,18.3638,20.4271,22.2067,19.0024,18.0596,15.3560,16.5158,13.8380,-1.2830,11.3409,19.0174,15.9897
144.5312,28.1667,16.0426,18.6933,15.3040,11.1300,8.4329,31.2603,16.8962,19.0924,21.7997,16.8380,16.9839,13.6420,12.4684,15.9914,1.1476,12.1313,17.0778,14.5322
148.4375,29.1028,20.9722,19.3688,13.5250,7.7984,8.3025,29.4119,14.4404,19.0776,24.9924,18.2952,17.6522,12.2557,8.1323,19.6911,4.1655,11.7459,16.9276,13.7423
152.3438,29.9888,26.2335,20.6775,13.4286,6.1459,11.3762,25.4041,12.0470,20.9995,30.9848,23.1690,20.2436,12.1793,5.5451,23.7064,6.7712,10.3719,19.2714,14.1994
156.2500,31.5967,30.6885,22.0928,15.0051,6.9041,16.9464,19.8968,10.4122,24.5815,38.2338,29.7829,23.5658,13.4050,5.4861,27.4581,8.4445,8.4440,23.3149,15.6199
160.1562,34.4752,33.6060,22.7618,17.1823,9.4475,23.0029,13.9811,9.6627,28.7370,44.9781,35.8201,25.8516,15.0500,7.2777,31.0115,9.3703,6.5568,27.2885,17.0860
164.0625,38.4842,34.7744,22.0833,18.6047,12.3275,27.2029,9.2992,9.5267,32.2103,49.9550,39.5114,26.0709,16.1023,9.4952,34.7633,10.2988,5.3856,29.6551,17.7721
167.9688,43.0126,34.5584,20.2129,18.5452,14.2051,28.1523,7.6157,9.6796,34.3375,52.9786,40.5139,24.7600,16.1973,10.9625,39.1065,12.0984,5.5309,30.1254,17.5780
171.8750,47.6124,33.8039,18.1007,17.3187,14.5352,26.1483,9.8654,9.9821,35.4113,55.0159,39.9962,23.7195,15.8524,11.3270,44.2529,15.2255,7.2763,29.7663,17.1847
175.7812,52.4575,33.5223,16.9988,15.9666,13.6338,22.8854,15.3055,10.4780,36.4243,57.6402,39.9151,24.7888,16.0349,10.9265,50.2218,19.3989,10.3773,30.1618,17.5215
179.6875,58.2001,34.4549,17.7634,15.5128,12.2420,20.3394,21.5682,11.2394,38.4006,62.1322,41.9285,28.5918,17.4340,10.2299,56.8953,23.6744,14.0609,32.2683,19.0813
183.5938,65.3116,36.7553,20.4136,16.3521,11.0114,19.5984,25.8707,12.2507,41.7775,68.7547,46.5590,34.1526,19.9890,9.3996,64.0488,26.9004,17.3186,35.7879,21.6087
187.5000,73.4218,39.9922,24.2110,18.1713,10.2797,20.4012,26.7383,13.4441,46.2158,76.6378,53.0278,39.6075,22.9863,8.3358,71.3361,28.3136,19.3744,39.4664,24.3633
191.4062,81.2050,43.4702,28.1540,20.3658,10.1923,21.6110,25.0274,14.8216,50.8865,84.3204,59.7699,43.4374,25.6032,7.0972,78.2818,27.9385,20.0605,42.0373,26.7102
195.3125,86.9788,46.6369,31.5124,22.5555,10.9292,22.1937,23.3588,16.4873,54.9705,90.5740,65.2824,45.3112,27.4643,6.2554,84.3427,26.5622,19.8593,43.0912,28.5599
199.2188,89.6688,49.2835,34.0519,24.7725,12.7449,21.9627,24.1613,18.4829,58.0159,94.9750,68.8253,45.9915,28.8100,6.7808,89.0552,25.2972,19.5767,43.2532,30.3280
203.1250,89.5198,51.4087,35.8564,27.1883,15.7351,21.5876,27.6276,20.5104,59.9621,97.9013,70.6295,46.4843,30.1846,9.4398,92.2222,24.9937,19.8496,43.5816,32.4654
207.0312,88.0778,52.8861,36.9490,29.6280,19.5152,21.9335,31.1280,21.7858,60.9028,100.0479,71.5547,47.1475,31.8983,14.1027,94.0430,25.8449,20.7970,44.6602,34.9295
210.9375,87.4146,53.2416,37.0325,31.2985,23.1129,23.2699,30.7153,21.2431,60.8253,101.8668,72.4296,47.4200,33.6549,19.4839,95.0962,27.3995,22.0137,46.0458,36.9929
214.8438,89.0239,51.7773,35.5535,31.0160,25.2487,24.9402,23.8656,18.0862,59.5414,103.3273,73.4641,46.3122,34.6101,23.5828,96.1348,28.9369,22.8762,46.4584,37.5385
218.7500,93.0087,48.0257,32.0589,27.8623,24.9089,25.7179,11.6034,12.4079,56.8566,104.1076,74.0874,43.2244,33.8305,24.6308,97.7507,29.9394,22.9357,44.5857,35.6652
222.6562,98.0034,42.2509,26.6210,21.8872,21.9001,24.5827,-1.5679,5.4674,52.8514,103.9951,73.3356,38.4862,30.8822,22.0118,100.0585,30.3604,22.1506,39.9828,31.2497
226.5625,101.8729,35.6431,20.0704,14.3991,17.0530,21.3890,-10.0671,-0.6428,48.0769,103.1545,70.5966,33.2855,26.2047,16.6210,102.5887,30.5475,20.8481,33.5145,25.1582
230.4688,102.8223,30.0140,13.8762,7.6064,11.9325,17.0091,-10.4938,-3.8697,43.5201,102.0813,66.2599,29.1170,21.0497,10.4599,104.5121,30.9209,19.4947,27.0837,19.0075
234.3750,100.3590,27.1023,9.6890,3.7279,8.1785,12.9053,-3.6261,-3.1870,40.3281,101.3418,61.8094,27.1561,16.9925,5.6939,105.1439,31.6572,18.4480,22.8053,14.5808
238.2812,95.6315,27.8390,8.7146,3.9974,6.7950,10.4324,6.1504,0.8452,39.3999,101.3551,59.1842,27.8885,15.2404,3.6788,104.4806,32.5983,17.8320,22.0612,13.1372
242.1875,90.9800,31.9558,11.1770,8.0633,7.7320,10.2785,13.5803,6.2965,41.0257,102.3868,59.7042,31.0613,16.0719,4.4411,103.4262,33.4182,17.5628,24.8966,14.8808
246.0938,88.9066,38.1368,16.1296,14.1046,9.9610,12.2978,15.6226,10.7891,44.7398,104.6817,63.2131,35.8190,18.6966,6.8279,103.4800,33.8959,17.4605,30.0254,18.8180
250.0000,90.9443,44.6247,21.7569,19.6403,12.0093,15.7222,12.9180,12.6536,49.4732,108.5017,68.0540,40.9022,21.6360,9.1971,105.9563,34.0793,17.3650,35.4188,23.1127
253.9062,96.9605,49.9656,26.1038,22.6608,12.7029,19.5565,8.8505,11.7058,53.9637,113.9150,72.0083,44.9199,23.4641,10.2703,111.1356,34.2252,17.2128,39.2020,25.8608
257.8125,105.2302,53.5200,27.9313,22.5342,11.7567,22.9378,7.0436,9.2305,57.2548,120.4469,73.6713,46.7550,23.5321,9.7266,117.8751,34.5771,17.0653,40.4512,25.9759
261.7188,113.2555,55.5124,27.2706,20.2292,9.9067,25.3505,9.0734,7.2010,59.0506,126.9324,73.3693,46.0302,22.2746,8.2633,124.0108,35.1549,17.0852,39.5248,23.7441
265.6250,118.9382,56.6472,25.3449,17.7267,8.4916,26.6985,13.8366,7.1854,59.7460,131.8534,72.9463,43.3783,20.8987,7.1149,127.4249,35.7096,17.4486,37.7663,20.6923
269.5312,121.5290,57.5473,23.8555,16.9168,8.6769,27.2792,18.7405,9.5494,60.1098,134.1096,74.4846,40.2392,20.6112,7.2882,127.2080,35.8636,18.2062,36.7191,18.7551
273.4375,121.8746,58.3591,24.0032,18.5620,10.7286,27.6784,21.6490,13.3714,60.7891,133.7717,78.7804,38.1594,21.8376,8.9203,124.2099,35.3272,19.1623,37.2542,19.1537
277.3438,121.8399,58.7515,25.8154,21.8950,13.7626,28.5783,22.1709,17.0600,61.9156,132.2507,84.6306,37.9356,23.9178,11.1241,120.5949,34.0464,19.8755,39.0827,21.6391
281.2500,123.2138,58.2844,28.1848,25.0725,16.1581,30.4891,21.5440,19.2595,63.0369,131.6188,89.4674,39.1356,25.4866,12.4397,118.6149,32.2075,19.8415,40.9291,24.5911
285.1562,126.6843,56.8741,29.5931,26.2201,16.4466,33.4793,21.4522,19.4955,63.4059,133.3892,90.9566,40.3486,25.3117,11.6780,119.3269,30.1352,18.7975,41.2713,25.9630
289.0625,131.4362,55.0066,29.0511,24.4583,14.1792,37.0352,22.7755,18.2152,62.4410,137.5005,88.4815,40.0425,23.0570,8.6876,122.0523,28.1756,16.9624,39.2101,24.5127
292.9688,135.5790,53.5045,26.6444,20.3174,10.2434,40.1579,25.1238,16.2800,60.0718,142.2084,83.4963,37.4912,19.4827,4.5762,124.9185,26.6284,15.0218,34.9529,20.5477
296.8750,137.1589,52.9647,23.3523,15.3258,6.3971,41.7084,27.2762,14.3052,56.7646,145.0392,78.5156,33.1784,15.9613,1.1994,126.1263,25.7203,13.8023,29.6381,15.7054
300.7812,135.1848,53.2447,20.3005,11.0712,4.2613,40.8756,27.9928,12.3025,53.2318,144.2485,75.4580,28.4438,13.6396,0.1627,125.0992,25.5723,13.7972,24.6451,11.9096
304.6875,130.1014,53.3935,17.9930,8.3385,4.3654,37.5556,26.5562,9.8378,50.0259,139.8566,74.4891,24.6543,12.7969,1.9014,122.7486,26.1389,14.8357,20.8471,10.1816
308.5938,123.4714,52.1508,16.0585,6.8467,5.8376,32.4450,22.8226,6.5473,47.2753,133.5721,74.1096,22.4683,12.7960,5.3943,120.6847,27.1589,16.1299,18.2719,10.0729
312.5000,117.0834,48.7463,13.6623,5.6866,6.9528,26.7793,17.0511,2.6138,44.7107,127.6530,72.3296,21.6408,12.6086,8.7076,119.9380,28.1890,16.7008,16.3268,10.0618
316.4062,112.0163,43.4792,10.2581,4.1007,6.2159,21.8155,9.8961,-1.1488,41.9370,123.4607,68.0303,21.3952,11.5219,10.0638,120.0975,28.7471,15.9353,14.3640,8.6222
320.3125,108.1915,37.6626,6.1276,2.0525,3.3152,18.2995,2.6206,-3.6639,38.7590,120.6740,61.5799,21.0155,9.5582,8.8026,119.4937,28.5077,13.9350,12.1597,5.2527
324.2188,104.6166,32.9148,2.3279,0.2206,-0.6536,16.1725,-2.8281,-4.1626,35.3483,117.6583,54.4057,20.2340,7.3805,5.6644,116.3117,27.4355,11.4515,9.9978,0.8195
328.1250,100.1068,30.2292,0.0961,-0.5247,-3.8328,14.6659,-4.3047,-2.5762,32.1567,112.6834,48.0088,19.2322,5.8275,2.2496,109.8543,25.7716,9.4689,8.3661,-2.9545
332.0312,93.9980,29.4205,0.1263,0.2419,-4.7179,12.7391,-0.5234,0.4753,29.6386,105.1025,43.2202,18.3855,5.4382,0.0218,101.0494,23.8853,8.7046,7.5495,-4.4786
335.9375,86.4244,29.3073,2.1893,2.1982,-3.0429,9.6436,7.8857,4.0396,27.9558,95.6758,40.1506,18.0212,6.2605,-0.5105,91.8286,22.0948,9.3143,7.4399,-3.1344
339.8438,78.0592,28.4914,5.2954,4.4840,0.1056,5.3303,18.1302,7.2494,26.8430,85.8733,38.6262,18.3420,7.9780,0.0610,83.8134,20.5701,10.9184,7.6761,0.4957
343.7500,69.5720,26.1991,8.2347,6.2348,3.0005,0.4991,26.2404,9.5319,25.7152,76.7463,38.5130,19.4468,10.1581,0.6104,77.2527,19.3534,12.8521,7.9584,5.0453
347.6562,61.2164,22.6242,10.1219,7.0519,4.3443,-3.7292,28.9069,10.5504,23.9636,68.2474,39.5353,21.2838,12.3927,0.3372,70.9820,18.4319,14.4354,8.2616,9.0881
351.5625,52.8045,18.5900,10.6487,7.1142,4.0217,-6.3523,25.1376,10.0477,21.2772,59.5001,40.7935,23.4828,14.2680,-0.6644,63.4292,17.7691,15.1231,8.7775,11.7270
355.4688,44.0062,14.8384,9.9929,6.9191,3.0777,-6.9738,16.7050,7.8295,17.8072,49.7504,40.6013,25.2175,15.2926,-1.4870,53.9112,17.2593,14.5417,9.6516,12.7851
359.3750,34.6666,11.5058,8.5554,6.8919,2.9655,-6.0157,7.0666,3.9686,14.0725,39.1857,37.1022,25.3349,14.9640,-1.0567,43.2348,16.6708,12.5181,10.7465,12.6233
363.2812,24.8600,8.1646,6.7400,7.1528,4.5639,-4.5718,-0.5878,-0.9281,10.6472,28.8994,29.4469,22.8378,13.0205,1.1043,33.1155,15.6837,9.1723,11.6364,11.7981
367.1875,14.6680,4.3527,4.8757,7.5607,7.5841,-3.9782,-4.9497,-5.6730,7.8104,19.9705,18.6985,17.5142,9.7285,4.4994,24.8155,14.0549,5.0241,11.8527,10.7857
371.0938,3.9438,0.1232,3.2343,7.9299,10.7192,-5.2897,-6.8827,-8.8465,5.3782,12.3753,7.6330,10.3085,5.9624,7.8906,18.0206,11.8153,0.9754,11.2020,9.8703
375.0000,-7.6269,-3.8678,2.0442,8.2032,12.4111,-8.8716,-8.2941,-9.4312,2.8413,4.6713,-0.6810,3.1099,2.9367,9.9658,10.8545,9.3258,-1.9352,9.9226,9.1658
378.9062,-20.1075,-6.8411,1.4548,8.4416,11.7374,-14.2573,-10.4246,-7.3763,-0.2583,-5.1358,-4.7048,-2.0289,1.6770,10.0095,1.1283,7.0893,-2.9536,8.5634,8.6794
382.8125,-32.8335,-8.5768,1.4860,8.6665,8.8821,-20.3203,-12.7624,-3.7155,-3.9486,-18.0361,-5.4150,-3.8537,2.5027,8.1807,-11.9887,5.3972,-1.9996,7.6624,8.3555
386.7188,-44.3300,-9.7291,2.0240,8.7224,4.9460,-25.6935,-13.3393,-0.1056,-7.7084,-32.8759,-5.6898,-2.5110,4.8196,5.2904,-27.0457,4.0589,0.2199,7.4381,8.0892
390.6250,-52.8573,-11.4464,2.8756,8.3088,1.2777,-29.2737,-10.2166,1.9909,-10.7152,-46.5593,-8.4118,0.5711,7.3537,2.2852,-40.8350,2.4585,2.4861,7.6876,7.7390
394.5312,-57.3530,-14.4979,3.8361,7.1895,-1.2200,-30.6083,-3.1401,2.0225,-12.3153,-55.6308,-14.5245,3.4722,8.7292,-0.2016,-50.0855,-0.0200,3.6240,7.9504,7.1682
398.4375,-58.1687,-18.5218,4.7239,5.4395,-2.3911,-30.0011,5.8029,0.5617,-12.4068,-58.2960,-22.3529,4.8090,8.1160,-1.9772,-53.2602,-3.4395,3.0594,7.8329,6.3194
402.3438,-57.0472,-21.9976,5.3834,3.5462,-2.6172,-28.2928,13.0617,-1.0927,-11.4674,-55.5802,-28.6546,4.4411,5.6462,-3.0967,-51.3365,-7.0264,1.0805,7.3006,5.2996
406.2500,-56.2644,-23.0723,5.7027,2.2732,-2.3253,-26.4341,15.5712,-1.6709,-10.2031,-50.8515,-30.6951,3.4757,2.4060,-3.5701,-47.1561,-9.4335,-1.3356,6.7695,4.4245
410.1562,-57.4441,-20.7629,5.6765,2.3442,-1.6017,-25.0745,12.5808,-0.5982,-9.0675,-47.9990,-27.9660,3.5798,-0.0049,-3.2327,-43.8553,-9.4790,-3.0414,6.9359,4.1644
414.0625,-60.8004,-15.7410,5.4726,4.1089,-0.1820,-24.3840,6.1976,1.7887,-7.9996,-49.4030,-22.4480,5.9744,-0.1751,-1.8822,-43.3970,-6.9385,-3.3084,8.4176,4.9652
417.9688,-65.2716,-10.1231,5.4168,7.3577,2.2058,-24.1755,0.2507,4.5515,-6.5764,-54.8969,-17.3215,10.6543,2.4459,0.4319,-45.9928,-2.8601,-2.1807,11.3745,6.9903
421.8750,-69.3733,-6.3203,5.8428,11.3602,5.4316,-24.2094,-1.8785,6.7509,-4.4624,-62.1934,-15.0392,16.2527,7.2106,3.2135,-50.4882,0.8775,-0.4132,15.2991,9.9121
425.7812,-72.1013,-5.6329,6.8652,15.0989,8.8116,-24.4436,0.8384,7.9589,-1.8122,-68.3005,-16.0067,20.6433,12.4622,5.6099,-55.1693,2.5713,0.9672,19.1066,12.9086
429.6875,-73.2418,-7.4795,8.2221,17.5937,11.3555,-25.0451,6.5789,8.3922,0.6916,-70.9417,-18.6170,21.9782,16.2151,6.7823,-58.3701,1.6842,1.2379,21.5203,14.9423
433.5938,-72.9651,-9.7821,9.3217,18.2035,12.2658,-26.1612,11.8565,8.6233,2.2108,-69.2289,-20.4607,19.6274,17.0465,6.3489,-58.6887,-0.8030,0.3791,21.5990,15.2297
437.5000,-71.1897,-10.3064,9.4965,16.8175,11.3723,-27.6370,13.6314,9.0876,2.2688,-63.5217,-19.8424,14.5141,14.7742,4.6308,-55.1035,-2.9341,-0.9308,19.1637,13.6592
441.4062,-67.3848,-8.1400,8.3255,13.8841,9.2289,-28.9172,11.0410,9.7134,1.0384,-54.9597,-16.6804,8.6612,10.5621,2.5372,-47.3518,-2.9268,-1.7243,14.9023,10.8936
445.3125,-61.0781,-4.3750,5.8306,10.2686,6.8256,-29.2386,5.7264,9.9209,-0.8030,-45.1593,-12.3787,4.1841,6.3715,1.1391,-36.5208,-0.2492,-1.3295,10.0853,8.0578
449.2188,-52.6679,-1.5287,2.4504,6.9750,5.1053,-28.0069,0.6498,9.0067,-2.5239,-36.1232,-8.9180,2.2783,4.0246,1.1594,-25.3052,4.0245,0.2123,6.0215,6.1654
453.1250,-43.7626,-2.0049,-1.1584,4.8142,4.5693,-25.1070,-1.7546,6.6854,-3.7502,-29.9881,-7.7800,2.7448,4.3592,2.6439,-17.3266,7.7976,2.1519,3.5215,5.6160
457.0312,-36.5504,-6.5008,-4.3376,4.1346,5.1546,-20.9427,-0.8928,3.4462,-4.5461,-28.2850,-9.2573,4.2765,6.9031,4.9600,-15.4860,9.1229,3.4647,2.6265,6.0588
460.9375,-32.4641,-13.3302,-6.5520,4.7214,6.3756,-16.1941,1.9803,0.4652,-5.1492,-30.9138,-12.3794,5.2911,10.2032,7.0936,-20.1518,7.2712,3.4538,2.7087,6.6854
464.8438,-31.0631,-19.1184,-7.4244,5.9131,7.5807,-11.4744,4.9124,-0.9357,-5.6200,-35.5590,-15.3615,4.8029,12.5888,8.0741,-28.4084,3.0873,2.1514,2.8574,6.7408
468.7500,-30.0446,-20.5231,-6.7750,6.8923,8.1688,-7.1198,6.6703,-0.0150,-5.7144,-38.2735,-16.3309,2.8626,12.9456,7.3372,-35.1317,-1.5255,0.2742,2.3391,5.9212
472.6562,-26.5545,-16.0301,-4.7188,7.0307,7.7153,-3.2097,7.4322,2.8889,-5.0771,-35.2726,-14.0702,0.4030,11.1294,4.9020,-35.5338,-4.6371,-1.2311,0.9213,4.4392
476.5625,-19.0069,-6.8143,-1.7595,6.1422,6.0545,0.2698,8.3566,6.4071,-3.5686,-25.0535,-8.5425,-1.3128,7.8865,1.3394,-27.7573,-5.2214,-1.7532,-1.0468,2.7867
480.4688,-8.1732,3.8202,1.2632,4.5351,3.3640,3.3098,10.4528,8.7592,-1.4188,-9.5088,-0.9972,-1.2830,4.4101,-2.4291,-13.9165,-3.4974,-1.3407,-2.7932,1.4132
484.3750,3.2500,12.1037,3.4526,2.8413,0.2137,5.9179,13.6414,8.6345,0.9448,6.8289,6.4526,0.8627,1.7900,-5.4420,1.1187,-0.5967,-0.6049,-3.4449,0.5417
488.2812,12.3353,15.6399,4.2597,1.6974,-2.5314,8.2490,16.6942,5.8541,3.2524,19.1173,11.6850,4.7590,0.5888,-7.0421,12.4645,2.1339,-0.3096,-2.4125,0.1790
492.1875,17.7230,14.4270,3.7636,1.4224,-4.0196,10.6499,18.0652,1.4470,5.6050,24.7475,13.5079,9.3723,0.6671,-7.1519,17.7833,3.7453,-0.9402,0.2819,0.2092
496.0938,20.2942,10.5694,2.6033,1.8476,-3.8409,13.5012,16.9784,-2.8901,8.3203,24.5446,12.2084,13.1894,1.2824,-6.3475,18.1105,3.9268,-2.5098,3.8727,0.4318
500.0000,22.3084,6.9470,1.5618,2.3962,-2.3297,16.9274,13.9904,-5.6286,11.5024,21.9243,9.3844,14.5862,1.4249,-5.6339,16.5939,2.8903,-4.6563,7.0380,0.5303
503.9062,25.7026,5.6759,1.0624,2.3948,-0.4901,20.6092,10.6645,-6.0636,14.6983,20.6429,7.1228,12.4327,0.2981,-5.9478,16.1785,1.1253,-6.8738,8.4198,0.0889
507.8125,30.8205,7.2293,0.9358,1.4742,0.5094,23.8996,8.6343,-4.4633,16.9900,22.6619,6.9743,6.7846,-2.2277,-7.5954,17.8816,-0.7649,-8.6788,7.2987,-1.2241
511.7188,36.4653,10.6168,0.6416,-0.1594,0.0294,26.2318,8.7227,-1.7180,17.5563,27.4658,9.3083,-0.7348,-5.4181,-9.9426,20.7369,-2.1179,-9.6401,4.0782,-3.3540
515.6250,41.1352,14.3485,-0.2000,-1.7590,-1.5817,27.5568,10.6689,1.2094,16.3428,33.0833,13.3728,-7.2917,-7.9160,-11.6081,23.2024,-2.2941,-9.3727,0.2418,-5.6686
519.5312,44.4044,17.4746,-1.3613,-2.4036,-3.1012,28.4716,13.5289,3.6676,14.3291,37.8676,17.9335,-10.0184,-8.3966,-11.1506,24.7770,-0.9088,-7.6426,-2.3079,-7.1206
523.4375,47.3241,20.0345,-2.0028,-1.5230,-3.1176,29.8883,16.3562,5.3631,13.1129,41.6510,22.0079,-7.5219,-6.3424,-7.9217,26.5143,1.8450,-4.5996,-2.2376,-6.7851
527.3438,51.4981,22.7193,-1.1607,0.7200,-0.9048,32.4207,18.6553,6.1807,14.0024,45.4840,25.2196,-0.8522,-2.4808,-2.5847,30.0494,5.0344,-0.9600,0.4548,-4.4805
531.2500,57.5348,26.0932,1.5853,3.4479,3.0608,35.8950,20.3693,6.0399,17.1819,50.3047,27.6264,6.7928,1.4515,3.0659,35.9459,7.2333,2.0994,4.4000,-1.0334
535.1562,64.0995,29.9848,5.7320,5.5244,7.2944,39.3437,21.5514,4.9624,21.5120,55.6993,29.2805,11.6473,3.5828,6.9618,42.7194,7.1899,3.4165,7.6286,2.0811
539.0625,68.3884,33.4870,10.0463,6.2151,10.1234,41.5233,22.0784,3.2881,25.1295,59.8068,29.9466,11.4302,2.9597,7.8414,47.3995,4.5911,2.4787,8.7337,3.5759
542.9688,67.8180,35.5432,13.2372,5.6586,10.6408,41.6385,21.6580,1.7876,26.4979,60.5076,29.2314,6.6657,0.1519,5.9226,47.3475,0.4334,-0.1818,7.7214,3.1568
546.8750,61.8291,35.6836,14.6852,4.8372,9.1962,39.8063,20.1073,1.4559,25.2724,57.0323,27.0234,0.4396,-2.9976,2.7474,42.0939,-3.3283,-3.1461,6.0151,1.7522
550.7812,52.5744,34.3923,14.7722,5.0241,7.1173,36.9705,17.6606,3.0147,22.4737,50.7851,23.8756,-3.3048,-4.3700,0.2739,33.9023,-4.7529,-4.7977,5.5959,0.9794
554.6875,43.9946,32.8578,14.6174,7.0145,5.8426,34.3478,15.0719,6.4171,19.9048,44.7469,20.9996,-1.9264,-2.7428,-0.2407,26.6342,-2.9788,-4.1567,7.8103,2.1635
558.5938,39.8378,32.2873,15.3989,10.5987,6.0269,32.7945,13.4349,10.7147,19.1915,41.8402,19.8119,4.5622,1.5553,1.1142,23.6343,1.2592,-1.3584,12.5741,5.5315
562.5000,41.8318,33.2374,17.6736,14.6103,7.1888,32.5057,13.8164,14.4432,21.0032,43.3600,21.2831,13.6767,6.8746,3.1089,25.9848,6.0056,2.5033,18.4343,10.0865
566.4062,49.0479,35.3662,21.0732,17.5337,8.1137,33.1957,16.8519,16.3345,24.8312,48.4737,25.4528,21.9349,11.1835,4.2682,32.1679,9.1536,6.0340,23.3961,14.2125
570.3125,58.6850,37.7035,24.4982,18.3168,7.7294,34.5527,22.4185,15.9313,29.3446,54.9974,31.3491,26.6501,13.1313,3.8592,39.2080,9.5773,8.2538,25.9635,16.5917
574.2188,67.6328,39.2098,26.6546,16.9127,5.8725,36.5733,29.4686,13.7334,33.0407,60.7811,37.3073,27.0160,12.6239,2.3365,44.4365,7.6596,8.9388,25.7735,16.8501
578.1250,73.8169,39.2607,26.6336,14.2475,3.4440,39.4967,36.1319,10.8146,34.8325,64.7200,41.5096,24.0435,10.6571,0.9834,46.7469,4.9387,8.4610,23.5309,15.5826
582.0312,76.6459,37.8193,24.2780,11.6648,1.8586,43.3764,40.1950,8.1978,34.3470,66.8217,42.5441,19.6581,8.6165,1.0231,46.7009,3.1416,7.3580,20.4193,13.8403
585.9375,76.5679,35.3007,20.2235,10.2002,2.1501,47.6248,39.9391,6.4043,31.9105,67.5320,39.8525,15.6734,7.5255,2.8058,45.6710,3.2244,6.0062,17.4457,12.4880
589.8438,74.2941,32.3139,15.6538,10.1085,4.3096,50.9218,35.0525,5.4292,28.3248,67.0353,33.9880,13.2052,7.6601,5.5987,44.7770,4.9765,4.6120,15.1071,11.8385
593.7500,70.3198,29.4551,11.8797,10.8765,7.2705,51.6548,27.1126,5.0597,24.5610,65.1322,26.5904,12.6182,8.6437,8.0826,44.3334,7.3374,3.4268,13.4570,11.7053
597.6562,64.9986,27.2005,9.8811,11.6452,9.5402,48.7023,19.1815,5.2142,21.4558,61.7177,19.9794,13.7225,9.8325,9.1949,44.0162,9.1251,2.8917,12.3650,11.7085
601.5625,58.9399,25.8291,9.9527,11.7426,10.0767,42.1269,14.4859,6.0054,19.4689,57.3314,16.3735,15.9112,10.6874,8.7579,43.4175,9.6718,3.4911,11.6943,11.5554
605.4688,53.2624,25.3176,11.5847,11.0149,8.8769,33.3631,14.7450,7.4940,18.5682,53.1888,16.9662,18.2039,10.9417,7.5159,42.4658,9.0140,5.3741,11.2921,11.1270
609.3750,49.3821,25.2587,13.6607,9.8162,6.9425,24.7571,19.0799,9.3805,18.2984,50.5624,21.2946,19.3992,10.5708,6.6154,41.4326,7.6394,8.0483,10.9063,10.4184
613.2812,48.4027,24.9388,14.9377,8.7378,5.6820,18.6706,24.2580,10.9565,18.0392,49.9647,27.3198,18.5081,9.6982,6.9124,40.6425,6.0759,10.4565,10.2161,9.4865
617.1875,50.4949,23.6581,14.6255,8.2811,6.1243,16.5792,26.3079,11.4385,17.3528,50.8034,32.3215,15.3490,8.5532,8.5491,40.2227,4.6394,11.4850,9.0385,8.4946
621.0938,54.6926,21.1911,12.7906,8.6524,8.3974,18.5753,22.7090,10.4885,16.2498,51.8393,34.2294,10.9097,7.4819,11.0067,40.1196,3.4588,10.6226,7.5698,7.7864
625.0000,59.2670,18.1149,10.3581,9.7356,11.7223,23.4488,13.9321,8.5388,15.2178,52.1342,32.6842,7.1007,6.9290,13.5009,40.3112,2.6502,8.3368,6.4332,7.8380
628.9062,62.4818,15.7255,8.6723,11.1860,14.8591,29.2342,3.4151,6.6360,14.9793,51.7618,29.2016,5.8847,7.3146,15.3968,40.9484,2.4213,5.8899,6.4129,9.0184
632.8125,63.3055,15.4751,8.8171,12.5594,16.7096,33.9321,-4.0743,5.8487,16.0995,51.6994,26.3003,8.2154,8.8279,16.3849,42.2252,2.9872,4.6708,7.9930,11.2740
636.7188,61.7222,18.1755,11.0398,13.4264,16.7565,36.1149,-4.8240,6.6034,18.6587,52.9520,26.0794,13.4245,11.2497,16.3946,44.0641,4.3749,5.4312,10.9951,13.9737
640.6250,58.5474,23.4071,14.5826,13.4749,15.1679,35.2615,1.9566,8.3896,22.1702,55.5801,29.0737,19.4685,13.9312,15.4252,45.9187,6.2982,7.8726,14.5740,16.0901
644.5312,54.9548,29.5083,18.0106,12.6035,12.6067,31.8101,13.7334,10.0448,25.7822,58.4278,34.0487,23.9317,15.9834,13.4975,46.9625,8.2293,10.8104,17.6080,16.6763
648.4375,52.0296,34.2110,19.8690,10.9811,9.9042,26.9942,25.8319,10.4481,28.6493,59.8418,38.8110,25.2209,16.6146,10.7659,46.6221,9.6312,12.7921,19.2583,15.3729
652.3438,50.5473,35.6270,19.3361,9.0181,7.7602,22.5063,33.5333,9.1850,30.2726,58.9008,41.4901,23.2828,15.4686,7.6508,45.0913,10.1950,12.8120,19.3631,12.6299
656.2500,50.9411,33.0962,16.5621,7.2258,6.5524,20.0094,34.0440,6.7708,30.6444,56.2277,41.4916,19.4868,12.8047,4.8011,43.3862,9.9387,10.7508,18.4470,9.4952
660.1562,53.2692,27.4924,12.5570,6.0137,6.2646,20.5553,27.4983,4.3176,30.1494,53.6969,39.5937,15.8139,9.4305,2.8357,42.7837,9.1472,7.3649,17.3709,7.0892
664.0625,57.0580,20.8725,8.7171,5.5330,6.5270,24.0788,16.7043,2.8812,29.3066,53.1447,37.2414,13.8558,6.4028,2.0122,43.9437,8.2471,3.8985,16.8639,6.0797
667.9688,61.1275,15.6666,6.2391,5.6641,6.7683,29.2330,5.8996,2.9043,28.5031,54.9644,35.5902,14.1570,4.6168,2.0747,46.3075,7.7131,1.5465,17.2079,6.4499
671.8750,63.6909,13.7710,5.6848,6.1550,6.4661,33.7780,-0.8957,4.0705,27.8514,57.6350,34.9369,16.1556,4.4573,2.4246,48.2535,8.0074,1.0090,18.2133,7.6511
675.7812,62.9526,15.8800,6.8596,6.8099,5.4213,35.4957,-1.3075,5.5984,27.2193,58.6282,34.8248,18.6223,5.6656,2.5241,48.0097,9.4687,2.2823,19.4218,8.9889
679.6875,58.0832,21.2458,9.0094,7.5903,3.9169,33.2698,4.6383,6.7402,26.3805,56.1592,34.6121,20.2794,7.4829,2.2531,44.7840,12.0955,4.7183,20.3601,9.9751
683.5938,50.0377,27.9048,11.2040,8.5530,2.6322,27.7625,14.6393,7.1651,25.1834,50.5879,34.0029,20.2902,9.0039,1.9564,39.3731,15.3099,7.2966,20.6961,10.4519
687.5000,41.5612,33.3011,12.7251,9.6819,2.3025,21.2278,25.0399,7.0377,23.6443,44.4405,33.1496,18.4770,9.5733,2.1394,33.8057,17.9188,9.0106,20.2714,10.4808
691.4062,36.0814,35.1524,13.3033,10.7633,3.2834,16.4328,32.2177,6.8181,21.9311,40.9268,32.3212,15.2953,9.0367,3.0368,30.1949,18.4558,9.2406,19.0859,10.1513
695.3125,35.8919,32.3156,13.1350,11.4333,5.2835,15.1932,33.9158,6.9574,20.2736,41.8730,31.4888,11.6607,7.7430,4.3869,29.5135,15.8702,7.9836,17.3124,9.4899
699.2188,40.6334,25.3293,12.7063,11.3980,7.4681,17.3378,30.0004,7.6751,18.8678,46.4369,30.2195,8.6937,6.3242,5.5991,31.0738,10.2379,5.8444,15.3345,8.5332
703.1250,47.1071,16.3409,12.5191,10.6786,8.9130,20.7432,22.3408,8.8961,17.8220,51.4946,28.0031,7.4007,5.3901,6.2028,33.0431,3.0434,3.7742,13.7193,7.4737
707.0312,50.7687,8.3289,12.8350,9.6874,9.1503,22.4961,13.8884,10.3170,17.1479,53.4908,24.7573,8.3136,5.2898,6.2375,33.6400,-3.2591,2.6560,13.0388,6.7094
710.9375,48.2050,3.8701,13.5377,9.0368,8.4507,20.5550,7.3881,11.5285,16.7617,50.5673,21.0942,11.1874,6.0240,6.2613,32.2098,-6.2931,2.9164,13.5677,6.6934
714.8438,39.1735,3.9992,14.1626,9.1693,7.6340,14.9495,4.3113,12.1414,16.4758,43.6067,18.0943,14.9186,7.2933,6.9256,29.4768,-4.9082,4.3433,15.0203,7.6398
718.7500,26.9143,7.7492,14.0873,10.0380,7.4982,7.7952,4.4571,11.9026,16.0016,35.5545,16.7084,17.8281,8.6140,8.3928,26.8503,0.2021,6.1940,16.5336,9.2736
722.6562,16.4395,12.6642,12.8181,11.0602,8.2283,2.0990,6.3295,10.7872,15.0158,29.5285,17.1951,18.2957,9.4462,10.0249,25.3184,6.7908,7.5413,16.9999,10.8307
726.5625,11.7607,16.0572,10.2613,11.3975,9.1805,0.0627,8.0348,9.0245,13.3141,26.9927,18.9860,15.5235,9.3292,10.6111,24.7417,12.1343,7.6923,15.6318,11.3692
730.4688,13.7189,16.3564,6.8569,10.4128,9.2149,1.8866,8.2475,7.0150,10.9973,27.1622,21.0566,10.0571,8.0334,9.0464,24.0552,14.3290,6.4898,12.4606,10.2565
734.3750,19.7268,13.8136,3.4899,8.0322,7.3937,5.7634,6.8195,5.1463,8.5634,27.9198,22.5205,3.7368,5.7026,5.0504,22.2202,13.1224,4.3701,8.4502,7.5582
738.2812,25.5324,10.2061,1.1823,4.8060,3.6232,9.0174,4.8015,3.6042,6.7888,27.4953,23.0199,-0.9988,2.9025,-0.5334,19.2121,9.8650,2.1636,5.1048,4.0871
742.1875,27.8420,7.7406,0.6806,1.6511,-1.1623,9.6664,3.8973,2.3117,6.3983,25.6956,22.6713,-2.1856,0.4888,-6.0629,16.2837,6.6634,0.7361,3.7428,1.0575
746.0938,26.1337,7.8118,2.1259,-0.5578,-5.3939,7.4697,5.5848,1.0677,7.6748,23.8722,21.6884,0.7308,-0.7087,-9.8627,15.2531,5.2366,0.6242,4.8316,-0.4761
750.0000,22.5837,10.3107,4.9749,-1.3167,-7.6106,3.8919,10.2659,-0.1886,10.2411,23.7392,20.0492,6.5881,-0.2640,-10.9825,17.2633,6.0949,1.8145,7.7617,-0.0903
753.9062,20.2895,13.8084,8.2212,-0.6019,-7.1351,1.0915,16.8247,-1.1853,13.1728,25.9540,17.5226,13.0101,1.6075,-9.5339,21.8623,8.4290,3.7540,11.1829,1.8727
757.8125,21.0598,16.4154,10.8053,1.2211,-4.3310,0.6053,22.8510,-1.3832,15.4023,29.4822,14.0470,17.4708,4.1051,-6.4731,27.0547,10.6902,5.5858,13.6956,4.5461
761.7188,24.2322,16.7645,12.0028,3.5683,-0.3584,2.5132,25.5328,-0.3191,16.1876,32.1627,10.1291,18.3704,6.1892,-3.0333,30.3282,11.4784,6.5136,14.4834,6.9753
765.6250,27.2085,14.5795,11.6053,5.7820,3.3837,5.5094,22.9041,1.9725,15.3744,32.0323,6.8645,15.5937,7.0490,-0.1689,30.0015,10.2448,6.1390,13.5424,8.4870
769.5312,27.2350,10.6152,9.8505,7.2383,5.8175,7.7458,14.9009,4.7722,13.3277,28.4845,5.4478,10.3385,6.4488,1.7101,26.0451,7.4698,4.6244,11.4479,8.8208
773.4375,23.1911,6.1445,7.2161,7.4763,6.5110,7.8913,3.6860,6.9270,10.6397,22.5278,6.4432,4.4178,4.7900,2.6691,19.9115,4.2893,2.6081,8.8974,8.0428
777.3438,16.2689,2.3698,4.2517,6.3745,5.7001,5.8047,-7.0071,7.4590,7.8592,16.0941,9.3238,-0.5151,2.8874,3.0063,13.5945,1.8384,0.9147,6.3798,6.4000
781.2500,9.2413,0.0728,1.5394,4.3013,4.0880,2.5052,-13.2923,6.1791,5.4312,10.9865,12.6569,-3.4279,1.5988,3.0345,8.6240,0.6984,0.2014,4.1673,4.2586
785.1562,4.9334,-0.4209,-0.2805,2.0877,2.5479,-0.4585,-12.7032,3.8897,3.8226,8.2027,14.8899,-3.9534,1.4897,2.9822,5.6559,0.7394,0.7076,2.5356,2.1314
789.0625,4.8993,0.8978,-0.5717,0.7302,1.8197,-1.8394,-5.2207,1.9840,3.6192,7.9639,15.2671,-2.1970,2.6546,2.9802,4.8010,1.4015,2.2143,1.9288,0.6671
792.9688,8.9949,3.8420,1.0524,0.9043,2.2621,-1.2775,6.6897,1.6311,5.3851,10.1845,14.2884,1.4354,4.7226,3.0563,6.2457,2.1960,4.2048,2.8361,0.4758
796.8750,15.8456,8.0311,4.3933,2.5507,3.7164,0.6274,19.0074,3.0326,9.2800,14.8134,13.3997,6.2728,7.0146,3.1195,10.5107,3.0864,6.1161,5.4122,1.8113
800.7812,23.6697,12.8292,8.4909,4.8167,5.5510,2.7333,27.6230,5.2293,14.6938,21.6802,14.1014,11.3798,8.7924,2.9890,18.0206,4.4897,7.5443,9.1373,4.3074
804.6875,30.8790,17.3494,11.8373,6.4601,6.9146,4.0092,29.7483,6.6166,20.2368,30.0029,17.0326,15.6979,9.5354,2.5150,28.2702,6.8894,8.3170,12.8483,7.0066
808.5938,36.2532,20.6235,12.9940,6.5244,7.1235,4.0720,24.7882,5.8881,24.2375,38.0985,21.5918,18.3786,9.1533,1.7472,39.2994,10.3211,8.4433,15.2371,8.7640
812.5000,38.9034,21.9164,11.3269,4.8936,6.0011,3.3337,14.4606,2.8445,25.5399,43.7632,26.2959,19.1457,8.0337,1.0117,48.0779,14.1008,8.0217,15.5548,8.8396
816.4062,38.3506,21.0557,7.4306,2.3747,3.9719,2.6901,2.2011,-1.4208,24.1283,45.2713,29.6107,18.4211,6.8629,0.7783,51.7920,17.0382,7.1878,14.0634,7.3231
820.3125,34.7987,18.5949,2.9361,0.2381,1.8335,2.9258,-7.9448,-5.0750,21.1548,42.3973,30.7141,17.0792,6.2717,1.3437,49.3457,18.0595,6.1263,11.9006,5.0952
824.2188,29.3468,15.6801,-0.2507,-0.5047,0.3332,4.1691,-12.6472,-6.5112,18.2961,36.7197,29.7520,15.9534,6.4883,2.5380,42.1197,16.8684,5.0998,10.4011,3.3217
828.1250,23.7891,13.6127,-0.8807,0.3587,-0.1903,5.7247,-10.4657,-5.1634,16.8059,30.8798,27.5131,15.4155,7.2140,3.7048,33.4178,14.2000,4.4234,10.2963,2.7839
832.0312,19.9195,13.2603,1.0522,2.2112,0.1293,6.4153,-2.4698,-1.7263,16.8422,27.1749,24.8284,15.2985,7.8320,4.0551,26.8279,11.4557,4.3570,11.3056,3.4735
835.9375,18.6781,14.5924,4.3900,4.0719,0.9397,5.2711,8.0206,2.2931,17.4844,26.3516,22.1352,15.1790,7.8421,3.2216,24.4340,9.9071,4.9630,12.3809,4.7013
839.8438,19.7023,16.6140,7.4784,5.2282,2.0352,2.1779,16.6259,5.3815,17.4114,27.3734,19.4744,14.7757,7.2430,1.6491,25.9294,9.9671,6.0329,12.4259,5.6277
843.7500,21.6450,17.8171,9.0218,5.6150,3.5417,-1.9141,19.6713,6.7050,15.7978,28.3016,16.8442,14.1577,6.5914,0.5028,29.1354,11.0095,7.1654,11.0097,5.8456
847.6562,23.1036,16.9881,8.6544,5.7248,5.7646,-5.3925,15.8051,6.3335,12.8603,27.6901,14.5785,13.6388,6.6722,1.0717,31.5469,11.8678,7.9828,8.6190,5.6261
851.5625,23.5491,13.9601,6.9685,6.1595,8.8040,-6.8079,6.6879,4.9742,9.7381,25.5567,13.4065,13.5021,7.9830,3.9891,31.9053,11.6816,8.3666,6.3235,5.6890
855.4688,23.5971,9.8525,5.0755,7.1700,12.2398,-5.6683,-3.6788,3.4672,7.8255,23.3033,14.0992,13.8156,10.3799,8.7505,30.8227,10.5100,8.5508,5.1195,6.6809
859.3750,24.4103,6.5817,4.0077,8.5035,15.1644,-2.7418,-10.7660,2.3737,8.0005,22.6841,16.9232,14.4885,13.1264,13.8521,30.1337,9.2822,8.9785,5.3989,8.7276
863.2812,26.6523,5.8573,4.2915,9.6324,16.5970,0.3224,-11.6321,1.8565,10.2142,24.5637,21.2880,15.4731,15.3168,17.4970,31.4874,9.1206,9.9851,6.8566,11.3444
867.1875,29.7707,8.2296,5.8513,10.1681,16.0334,1.8583,-6.2765,1.8244,13.6356,28.3208,25.8699,16.8773,16.3890,18.4625,35.1507,10.5167,11.5035,8.8297,13.7329
871.0938,32.1923,12.7756,8.1994,10.1478,13.7623,1.0549,2.4891,2.1582,17.1890,32.2782,29.1914,18.8413,16.3964,16.6365,39.8036,12.9555,13.0117,10.7825,15.2426
875.0000,32.3702,17.6371,10.7413,10.0032,10.7267,-1.6409,10.6045,2.8330,20.1173,34.8175,30.3277,21.2729,15.8884,12.9543,43.4053,15.2614,13.8043,12.6060,15.7094
878.9062,29.9798,21.0831,13.0325,10.2622,8.0128,-4.7943,14.9264,3.8760,22.2506,35.3858,29.3171,23.7081,15.5268,8.8388,44.4978,16.4190,13.4509,14.5748,15.4950
882.8125,26.3946,22.4204,14.8986,11.2114,6.2997,-6.7530,14.8101,5.2349,23.8923,34.7219,27.0344,25.4918,15.7179,5.5175,43.0678,16.2722,12.1477,17.0502,15.2587
886.7188,24.0248,22.1873,16.4134,12.7465,5.6165,-6.4852,12.2245,6.6879,25.4759,34.2052,24.6371,26.2007,16.4855,3.5927,40.4418,15.5950,10.6948,20.1608,15.6202
890.6250,24.8794,21.5675,17.7730,14.4794,5.5237,-4.0386,10.3481,7.8797,27.2446,34.8496,22.9675,25.9889,17.6004,3.0143,38.3690,15.4874,10.0588,23.6578,16.8902
894.5312,29.2804,21.5062,19.1283,15.9832,5.5415,-0.4114,11.4799,8.4666,29.1369,36.6674,22.3027,25.5512,18.7990,3.3375,37.9678,16.5476,10.7643,26.9966,18.9572
898.4375,35.5888,22.1862,20.4534,16.9953,5.4921,3.0484,15.5312,8.2852,30.8974,38.8143,22.5722,25.6798,19.9072,4.0240,39.2221,18.4308,12.5082,29.5642,21.3382
902.3438,41.1423,23.2057,21.5264,17.4679,5.5253,5.3597,20.0435,7.4533,32.2947,40.3256,23.7965,26.7277,20.8156,4.6184,41.2543,20.1089,14.2819,30.9271,23.3555
906.2500,43.7972,24.2189,22.0616,17.4974,5.8609,6.3507,21.7667,6.3576,33.2902,40.8457,26.3154,28.3914,21.4047,4.8023,43.0451,20.6178,14.9649,31.0058,24.3896
910.1562,43.0798,25.4273,21.9346,17.2401,6.4942,6.6151,18.8498,5.5368,34.0587,40.8025,30.5302,29.9881,21.5512,4.4252,44.0208,19.7210,14.0288,30.1281,24.1392
914.0625,40.2491,27.4367,21.3605,16.8881,7.1281,7.0421,12.2586,5.4995,34.8643,40.9493,36.2859,31.0103,21.2394,3.5744,44.1484,17.9983,11.8919,28.9439,22.7859
917.9688,37.3348,30.5461,20.8706,16.6818,7.3926,8.2148,5.4545,6.5289,35.8760,41.6955,42.3872,31.5053,20.6648,2.6266,43.6346,16.3290,9.6767,28.1973,20.9610
921.8750,35.8803,34.0653,21.0412,16.8745,7.1707,10.0259,2.4324,8.5331,37.0308,42.7938,46.7608,31.9596,20.1878,2.1611,42.6351,15.2061,8.5155,28.4088,19.4807
925.7812,36.2340,36.3336,22.1036,17.6104,6.7544,11.7287,5.2779,11.0125,38.0186,43.6365,47.3821,32.7724,20.1130,2.6924,41.2859,14.4433,8.8573,29.5893,18.9542
929.6875,37.7407,35.6103,23.6818,18.7780,6.6861,12.3881,12.7744,13.1988,38.3976,43.8883,43.5112,33.7525,20.4398,4.3447,39.9801,13.5031,10.2306,31.1530,19.4671
933.5938,39.4940,31.3091,24.8714,19.9745,7.3905,11.4594,20.9892,14.3574,37.7792,43.8804,36.4360,34.0799,20.7938,6.6973,39.4873,12.1555,11.6064,32.1334,20.5389
937.5000,40.9569,24.6799,24.6745,20.6672,8.8749,9.1489,25.5376,14.1424,35.9890,44.3613,29.1052,32.8181,20.6354,8.9595,40.5871,10.8873,12.0953,31.6438,21.3951
941.4062,41.9848,18.3408,22.5647,20.4929,10.7306,6.3358,24.1449,12.8224,33.1249,45.7330,24.6898,29.6166,19.6266,10.4140,43.3277,10.6575,11.4939,29.3469,21.3966
945.3125,42.3758,14.8452,18.8432,19.5059,12.4358,4.0950,17.9175,11.2093,29.4938,47.3786,24.8327,25.0705,17.8875,10.8478,46.4855,12.1230,10.3196,25.6546,20.3610
949.2188,41.5100,15.1786,14.5434,18.1795,13.7199,3.1049,10.5444,10.2729,25.4781,47.7117,28.6394,20.4399,15.9344,10.6640,47.8358,14.9240,9.3440,21.5126,18.5805
953.1250,38.5588,18.1810,10.9117,17.1188,14.6973,3.2941,5.9737,10.6105,21.4190,45.0818,33.0838,16.9069,14.3173,10.5661,45.3333,17.6408,8.9882,17.8841,16.5502
957.0312,33.2070,21.2889,8.7560,16.6490,15.6581,3.9323,6.0627,12.0730,17.5811,39.0098,34.6608,14.8912,13.2170,11.0170,38.5698,18.5726,9.0233,15.2515,14.6179
960.9375,26.2968,22.1051,8.0449,16.5585,16.6841,4.0997,9.6627,13.7867,14.1966,30.8837,31.3498,13.8965,12.3128,11.8589,29.4931,16.8628,8.7814,13.4511,12.8139
964.8438,19.7589,19.7703,7.9944,16.1958,17.4166,3.2407,13.6179,14.5962,11.5245,23.5347,23.7514,12.9688,11.0494,12.3921,21.7154,13.1887,7.7076,11.9409,10.9699
968.7500,15.7109,15.2906,7.5879,14.8900,17.2075,1.4744,14.9038,13.6855,9.8469,19.8450,14.7680,11.4134,9.1381,11.8901,18.6524,9.4842,5.8448,10.3044,9.0208
972.6562,15.2919,10.7195,6.2191,12.4345,15.5911,-0.4942,12.4619,11.0143,9.3753,21.2196,8.0681,9.2657,6.9268,10.1987,21.5886,7.8229,3.9055,8.6322,7.2379
976.5625,18.0807,7.8460,4.0789,9.3146,12.7396,-1.7657,7.6053,7.3074,10.1140,26.8756,6.2532,7.2273,5.3414,7.9743,28.9196,9.1741,2.8785,7.5064,6.1931
980.4688,22.5502,7.2812,2.0617,6.5090,9.5334,-1.6806,2.9097,3.6220,11.7767,34.3739,9.7285,6.1767,5.3767,6.3436,37.0985,12.8411,3.4368,7.5938,6.4472
984.3750,27.2094,8.4412,1.2513,4.9709,7.1245,-0.0581,0.4955,0.7790,13.8288,41.0028,16.7729,6.6319,7.4359,6.1686,42.6897,16.9303,5.5240,9.1287,8.1576
988.2812,31.5277,10.2444,2.2844,5.1028,6.2419,2.8286,0.8916,-0.9759,15.6605,45.0988,24.5842,8.5131,10.9464,7.4062,44.1936,19.5054,8.3587,11.6510,10.8715
992.1875,35.8881,11.9020,4.9581,6.5488,6.7080,6.4322,3.1131,-1.8961,16.8133,46.5192,30.6084,11.2881,14.5318,9.0254,42.4951,19.6564,10.8232,14.1977,13.6570
996.0938,40.6166,13.2485,8.3058,8.4225,7.5250,10.1071,5.6730,-2.3490,17.1532,46.1317,33.4711,14.3178,16.6843,9.5955,39.7794,17.8321,11.9938,15.8388,15.5202
1000.0000,44.9475,14.5201,11.0998,9.8189,7.5168,13.2065,7.6493,-2.4375,16.9088,44.8753,33.1996,17.1367,16.5651,8.2074,37.8156,15.3280,11.5362,16.2169,15.8790
1003.9062,46.9422,15.9227,12.4919,10.2894,6.1197,15.1484,9.0470,-1.9128,16.5585,43.1558,30.8512,19.5261,14.4710,5.1422,36.8862,13.3852,9.8090,15.7404,14.8331
1007.8125,44.6792,17.4051,12.4227,10.0005,3.7868,15.5442,10.3438,-0.4258,16.6148,40.9673,27.8790,21.4174,11.6833,1.8347,36.0590,12.5389,7.6803,15.2986,13.0847
1011.7188,37.9735,18.7708,11.5569,9.5107,1.7148,14.3954,11.7498,2.0913,17.3927,38.4856,25.5369,22.7573,9.7709,0.1106,34.4403,12.5765,6.1667,15.6701,11.5508
1015.6250,29.2954,19.9166,10.7856,9.3371,1.0559,12.2352,12.8567,5.2135,18.8519,36.4967,24.4859,23.4308,9.7286,1.1351,32.3069,12.9781,6.0270,16.9894,10.8724
1019.5312,22.9570,20.8860,10.6004,9.5972,2.1312,10.0419,12.9513,8.1436,20.5774,36.1789,24.6563,23.2556,11.4288,4.7014,31.1522,13.3935,7.4388,18.5978,11.0714
1023.4375,22.8139,21.6521,10.7417,9.9397,4.1787,8.8653,11.6880,10.0728,21.9166,38.3240,25.3848,22.0218,13.6884,9.2820,32.5703,13.7793,9.8688,19.3746,11.5388
1027.3438,29.8547,21.8588,10.3684,9.7817,5.8148,9.3115,9.5284,10.5321,22.2306,42.5872,25.7969,19.5710,14.9105,12.8100,36.8380,14.1623,12.2222,18.3586,11.3651
1031.2500,41.2838,20.8546,8.6658,8.6865,5.9158,11.1847,7.5697,9.5223,21.1633,47.3966,25.2990,15.9241,13.9377,13.7297,42.3230,14.3251,13.2633,15.3018,9.8511
1035.1562,51.8192,18.1295,5.5127,6.6501,4.3471,13.5386,6.8879,7.4140,18.8123,50.6940,23.9358,11.4230,10.6469,11.7233,46.2529,13.7517,12.1661,10.8445,6.9302
1039.0625,56.5127,13.8933,1.7564,4.1462,2.0696,15.1622,7.8942,4.7701,15.7216,51.0690,22.3780,6.7830,5.9718,7.7460,46.3769,11.9322,8.9359,6.2248,3.2667
1042.9688,53.4210,9.3344,-1.1300,1.9264,0.5658,15.2435,10.1659,2.2509,12.7037,48.5551,21.5088,2.9457,1.3767,3.4226,42.4041,8.8083,4.4647,2.6978,-0.0379
1046.8750,44.5635,6.2618,-1.8394,0.7026,0.9621,13.8275,12.8195,0.5948,10.5783,44.5901,21.8540,0.7358,-1.8814,0.2075,36.2685,5.0133,0.1545,0.9950,-1.9776
1050.7812,34.6981,6.2582,0.0039,0.8689,3.3976,11.7937,15.0876,0.5202,9.9465,41.2119,23.2491,0.4950,-3.2713,-1.2142,31.0886,1.7050,-2.7101,1.1064,-2.1172
1054.6875,28.7577,9.8332,3.5857,2.3674,7.0006,10.3710,16.6547,2.4211,11.0684,40.0352,24.9936,1.9371,-3.0281,-1.0232,29.5410,0.0757,-3.5053,2.4591,-0.7410
1058.5938,29.4676,16.0922,7.3239,4.7186,10.4246,10.4788,17.5602,5.9497,13.8361,41.6122,26.3855,4.3526,-1.7831,0.0710,32.6460,0.8289,-2.4472,4.3310,1.3907
1062.5000,36.3623,23.1099,9.7124,7.1769,12.5592,12.2726,17.8511,9.8116,17.7861,45.4308,27.2293,7.0401,-0.1055,1.3000,39.5508,3.8928,-0.3539,6.2160,3.4975
1066.4062,46.4543,28.7630,10.0730,8.9557,12.9752,15.1226,17.3543,12.1040,22.1285,50.3565,27.9107,9.6555,1.7116,2.1448,48.1839,8.4615,1.8148,7.9335,5.1413
1070.3125,55.8948,31.5464,8.7794,9.4690,11.9016,17.9875,15.7997,11.2133,25.8455,55.1235,28.9760,12.2207,3.5230,2.3746,56.1902,13.2711,3.3527,9.4747,6.2801
1074.2188,61.6256,30.9991,6.8805,8.5391,9.8714,19.9330,13.1943,6.8387,27.9353,58.6229,30.5653,14.8062,5.0598,1.9274,61.6208,16.9662,3.9578,10.7744,7.0388
1078.1250,62.3203,27.6710,5.4276,6.4992,7.3591,20.5110,10.1130,0.4714,27.8010,60.0260,32.1990,17.1873,5.8367,0.8239,63.2545,18.4707,3.6634,11.6358,7.4406
1082.0312,58.4735,22.8127,4.9589,4.1260,4.6683,19.8489,7.6092,-5.1313,25.6280,58.9305,33.1449,18.8172,5.4031,-0.7887,60.7531,17.3317,2.7055,11.8904,7.3504
1085.9375,51.9037,18.0036,5.4146,2.3783,2.0691,18.4853,6.7367,-7.3272,22.4918,55.6015,33.0993,19.2019,3.7847,-2.5374,54.8189,13.9658,1.4510,11.6573,6.6858
1089.8438,45.0121,14.7972,6.4258,2.0101,-0.0309,17.0991,7.9718,-5.0726,20.0086,51.1272,32.6053,18.3926,1.7314,-3.8387,47.2429,9.6559,0.3727,11.4458,5.6888
1093.7500,40.0196,14.3407,7.6698,3.2155,-1.1205,16.2713,10.9127,0.4158,19.5960,47.2068,32.7746,17.1460,0.4636,-4.1268,40.5401,6.1555,-0.0382,11.9274,4.9586
1097.6562,38.3109,16.9676,9.0082,5.4872,-0.8696,16.3333,14.4554,6.2945,21.6980,45.4771,34.4238,16.5146,0.9663,-3.2066,37.0486,4.9384,0.5217,13.4587,5.1155
1101.5625,40.0274,21.9173,10.3562,7.7961,0.5358,17.2901,17.3372,9.6897,25.4359,46.6543,37.2416,17.0851,3.2615,-1.4912,37.8116,6.4136,1.9343,15.6710,6.2825
1105.4688,44.0735,27.4304,11.4784,9.0428,2.3064,18.8048,18.7257,9.2986,28.9582,50.0148,39.6783,18.4172,6.2018,0.0981,41.8985,9.5748,3.5986,17.4692,7.7901
1109.3750,48.5951,31.3454,11.9628,8.5818,3.3704,20.2685,18.5349,6.0202,30.3579,53.6261,39.7665,19.1652,8.0232,0.5855,46.7036,12.4012,4.6682,17.5481,8.4156
1113.2812,51.7584,32.0193,11.4525,6.5590,2.9718,20.9980,17.3413,2.2705,28.6621,55.2927,36.3982,17.8914,7.3828,-0.4911,49.1896,12.8909,4.5025,15.1766,7.1048
1117.1875,52.4633,29.1195,9.9703,3.8793,1.1855,20.5394,16.0075,0.4786,24.3300,53.7123,30.1937,14.0542,4.2264,-2.7577,47.4188,10.1731,3.0509,10.7673,3.7381
1121.0938,50.6540,23.8215,8.0606,1.8025,-1.0082,18.9588,15.2469,1.7418,18.9804,49.1683,23.3322,8.4873,-0.1038,-5.1684,41.4903,5.0220,0.8905,5.8279,-0.6020
1125.0000,47.1306,18.2570,6.5839,1.3539,-2.1976,16.9358,15.3343,5.4266,14.5361,43.3598,18.4043,3.0145,-3.6293,-6.5894,33.3723,-0.5695,-1.1341,2.2548,-4.1153
1128.9062,43.0626,14.4913,6.2595,2.8333,-1.3213,15.5307,16.0497,9.8132,12.3036,38.4903,17.0102,-0.5457,-4.8923,-6.4566,25.8156,-4.5085,-2.4329,1.3547,-5.2706
1132.8125,39.5211,13.5933,7.2469,5.6650,1.6927,15.6715,16.8166,13.1978,12.4984,36.1634,18.9783,-1.3137,-3.7632,-5.0879,21.0617,-5.7077,-2.9860,3.1711,-3.6843
1136.7188,37.2263,15.2912,9.0469,8.6631,5.8151,17.6012,16.9455,14.6771,14.4010,36.6949,22.6378,0.3741,-1.3935,-3.4467,20.0656,-4.4966,-3.2307,6.5235,-0.3228
1140.6250,36.4910,18.3361,10.7921,10.5905,9.4124,20.6118,15.9050,14.2181,16.9309,39.1468,25.8718,3.4431,0.6200,-2.5045,22.4937,-2.1324,-3.6163,9.7300,3.0999
1144.5312,37.2310,21.2836,11.7442,10.7470,11.0744,23.2835,13.5678,12.2209,19.2232,41.9570,27.2302,6.8696,1.2762,-2.6142,27.2265,0.1745,-4.1698,11.5673,5.1402
1148.4375,38.9803,23.2020,11.6925,9.3068,10.3118,24.1730,10.3758,9.1179,20.8914,43.7467,26.4610,10.1766,0.7343,-3.2991,32.8792,2.0079,-4.4058,11.8922,5.4096
1152.3438,40.9886,23.9421,11.0303,7.2427,7.7488,22.6117,7.3410,5.3819,21.9410,43.8898,24.3071,13.3411,0.0828,-3.5822,38.0668,3.7666,-3.6496,11.5815,4.6654
1156.2500,42.4908,23.9273,10.4954,5.8607,4.7376,19.1611,5.7896,1.8215,22.5356,42.6365,21.9047,16.3216,0.5400,-2.6262,41.5027,6.0262,-1.5351,11.8777,4.2154
1160.1562,43.0777,23.7107,10.7489,6.1591,2.6457,15.4168,6.8322,-0.3204,22.8397,40.8345,20.2572,18.7064,2.6600,-0.2618,42.1985,8.7998,1.6845,13.5781,5.0708
1164.0625,42.9124,23.6229,12.0265,8.3159,2.2176,13.2104,10.7090,0.1663,23.0152,39.4454,20.0250,19.8379,6.0425,2.9282,39.8616,11.3069,5.2221,16.5572,7.3842
1167.9688,42.5569,23.6945,14.0273,11.5624,3.3291,13.6177,16.3381,3.5783,23.2733,39.0793,21.5257,19.3263,9.6545,5.9874,35.2538,12.4456,8.1558,19.8727,10.4575
1171.8750,42.4448,23.8092,16.0637,14.5254,5.1988,16.3303,21.4396,8.6556,23.8468,39.7196,24.7045,17.5060,12.4615,8.1462,30.1167,11.6105,9.8567,22.3319,13.2159
1175.7812,42.3808,23.9016,17.3874,15.8890,6.8704,19.7741,23.4088,12.8386,24.8551,40.7334,28.9908,15.4113,13.9308,9.1865,26.4865,9.2244,10.1891,23.1515,14.7924
1179.6875,41.5267,24.0338,17.5433,15.0577,7.6720,21.9443,20.6775,13.5263,26.1714,41.1713,33.2207,14.2264,14.1468,9.4057,25.6704,6.5666,9.4289,22.3354,14.8919
1183.5938,39.0203,24.3163,16.6026,12.4821,7.4331,21.5084,13.8775,9.6679,27.4337,40.2460,35.8886,14.5864,13.5893,9.2695,27.4994,5.0061,8.0504,20.6076,13.8213
1187.5000,34.8499,24.7747,15.1691,9.4683,6.4205,18.5593,6.0024,2.6397,28.2320,37.7784,35.7819,16.2367,12.8231,9.0475,30.3872,5.1899,6.5645,19.0055,12.2840
1191.4062,30.3032,25.2952,14.1320,7.5592,5.1125,14.5915,1.1794,-4.2893,28.3565,34.3836,32.7081,18.2890,12.3101,8.7010,32.2442,6.7537,5.4648,18.3960,11.1098
1195.3125,27.5215,25.7104,14.2572,7.7997,3.9759,11.7145,2.4739,-7.7036,27.9309,31.2750,27.8349,19.8667,12.3705,8.0683,31.7308,8.7255,5.1920,19.1614,11.0154
1199.2188,28.3219,25.9618,15.8024,10.2639,3.3412,11.5498,9.9042,-5.9585,27.3399,29.7612,23.3287,20.6631,13.1793,7.1544,29.0854,10.2760,6.0110,21.1541,12.4034
1203.1250,33.0344,26.2025,18.3635,14.0713,3.3669,14.4217,19.9731,-0.0671,27.0058,30.6784,21.3906,21.0271,14.6994,6.2550,26.0124,11.2415,7.8200,23.8572,15.1975
1207.0312,40.1635,26.7293,21.0507,17.8527,4.0290,19.2537,27.2889,7.0006,27.1699,34.0247,23.1830,21.5665,16.5881,5.7872,24.6865,12.0513,10.0573,26.6067,18.7758
1210.9375,47.1322,27.7498,22.9080,20.3877,5.1011,24.1630,27.5751,12.1261,27.7979,38.9349,28.2204,22.6009,18.2180,5.9478,26.4608,13.1740,11.8634,28.7560,22.1002
1214.8438,51.6017,29.1258,23.3402,21.0753,6.1603,27.3633,20.3416,13.7748,28.6218,43.9508,34.5363,23.8719,18.9051,6.4784,31.0160,14.5624,12.4886,29.7612,24.0703
1218.7500,52.4729,30.2867,22.3104,20.0385,6.6908,27.8719,9.4808,12.5763,29.2470,47.4371,39.5130,24.6895,18.2674,6.7603,36.4113,15.5636,11.7141,29.2404,23.9809
1222.6562,49.9681,30.4287,20.2250,17.8935,6.3058,25.7099,1.2038,10.5033,29.2564,48.0101,40.9474,24.3700,16.4923,6.2246,39.9842,15.3745,9.9914,27.0697,21.8450
1226.5625,44.9286,28.9364,17.6337,15.3903,5.0039,21.6261,0.4147,9.3462,28.3096,44.9248,37.8828,22.6437,14.2990,4.8134,39.6116,13.6845,8.1700,23.5071,18.3849
1230.4688,38.0488,25.7885,14.9711,13.1399,3.2954,16.6284,7.7173,9.5873,26.2618,38.3858,30.9128,19.7794,12.5703,3.1551,34.7068,10.9891,6.9720,19.2471,14.6737
1234.3750,29.7251,21.6665,12.4860,11.5106,2.0575,11.6322,18.9657,10.3853,23.2775,29.6813,21.9127,16.3965,11.8497,2.2801,26.5001,8.3071,6.5621,15.2775,11.6227
1238.2812,20.5782,17.6355,10.3161,10.6268,2.1256,7.3454,27.6925,10.5191,19.8391,20.9690,13.3417,13.1251,12.0083,3.0042,17.5155,6.4960,6.5024,12.4988,9.5915
1242.1875,12.0367,14.5406,8.5387,10.3563,3.8061,4.2955,28.9032,9.4602,16.5573,14.6254,7.3643,10.3218,12.2846,5.3465,10.5132,5.6744,6.1034,11.2337,8.3111
1246.0938,6.2439,12.4861,7.0848,10.2633,6.5919,2.8227,21.8460,7.7251,13.8277,12.3133,5.0829,7.9674,11.6782,8.3562,7.3871,5.1929,4.9082,10.9086,7.1114
1250.0000,5.0907,10.7658,5.5934,9.6276,9.2904,2.9623,10.0903,6.2926,11.5508,14.2004,6.1732,5.7620,9.4781,10.4991,8.4962,4.1863,2.9698,10.1864,5.2949
1253.9062,8.9698,8.3550,3.4316,7.6616,10.5512,4.3166,-0.9418,5.6264,9.1764,18.8193,9.1026,3.3634,5.6527,10.4186,12.7011,2.3045,0.7678,7.6222,2.4689
1257.8125,16.2103,4.6954,0.0363,3.9279,9.5440,6.0948,-7.1971,5.1562,6.1501,23.7706,11.8849,0.6819,0.9270,7.6612,18.0406,0.0762,-1.1175,2.5753,-1.2711
1261.7188,23.7552,0.2678,-4.5415,-1.2428,6.4183,7.4076,-7.8446,3.6911,2.5179,26.9591,13.0350,-1.8953,-3.4614,2.9623,22.6814,-1.3741,-2.2980,-4.1363,-5.3269
1265.6250,28.7506,-3.4715,-9.2773,-6.6453,2.2789,7.6977,-4.7866,0.4777,-0.7660,27.6627,12.2376,-3.4969,-6.2099,-2.0681,25.6527,-1.0723,-2.6459,-10.3265,-8.7377
1269.5312,30.0241,-4.8251,-12.3951,-10.5984,-1.3301,7.0408,-0.5935,-3.9389,-2.1733,26.7738,10.3585,-3.0850,-6.4316,-5.6960,27.0237,1.1208,-2.1670,-13.3843,-10.4690
1273.4375,28.4758,-2.8486,-12.2252,-11.7395,-3.1659,6.0943,3.3584,-7.7955,-0.5020,26.0549,8.8092,-0.0329,-4.0098,-6.8538,27.5108,4.3653,-0.8749,-11.6548,-9.8170
1277.3438,26.1830,2.0088,-8.2708,-9.7954,-2.8568,5.6921,7.1717,-9.1906,4.1884,26.8941,8.6753,5.3155,0.3012,-5.5681,27.8334,7.3402,1.1728,-5.4855,-6.8007
1281.2500,24.9248,8.0349,-1.7853,-5.8417,-1.0069,6.3305,11.1982,-7.4413,10.2748,29.3861,10.1657,11.4920,5.0974,-2.8280,28.2481,9.0396,3.7103,2.7377,-2.3265
1285.1562,25.1822,13.0936,4.6336,-1.8160,1.1975,7.8724,14.6365,-3.7255,15.2270,32.3364,12.6946,16.3907,8.8347,0.0010,28.5236,9.3337,6.1744,9.6985,2.0657
1289.0625,26.2244,15.6692,8.3257,0.4949,2.6400,9.6531,15.4066,-0.4683,16.9228,34.1436,15.4525,18.2528,10.4548,1.8821,28.2909,8.9422,7.8693,12.8383,4.8605
1292.9688,27.0286,15.5003,8.0151,0.4217,2.8188,10.8948,11.6187,0.1872,14.8349,33.9114,17.9745,16.6273,9.8465,2.5591,27.4465,8.8777,8.3512,11.6664,5.3346
1296.8750,27.1899,13.4783,4.5324,-1.2478,2.0075,11.1331,3.5164,-2.1816,10.3312,32.0082,20.2628,12.7083,7.8897,2.5425,26.2938,9.7570,7.7729,7.9176,3.9894
1300.7812,27.0955,10.9636,0.3423,-2.7668,0.9930,10.3802,-5.7840,-5.9100,5.8794,29.7219,22.4137,8.7703,6.0158,2.6909,25.3343,11.4296,6.8925,4.4661,2.3306
1304.6875,27.3212,9.0149,-1.8448,-2.4546,0.5888,8.9672,-11.6223,-8.2213,3.6577,28.3140,24.1350,6.9881,5.4932,3.6638,24.9023,13.1155,6.6663,3.6637,2.0611
1308.5938,27.8711,8.0063,-0.5228,0.3835,1.2291,7.2595,-10.4821,-6.9040,4.4447,28.1887,24.6547,8.3339,6.8272,5.5771,24.9327,13.9011,7.6582,6.1105,4.1424
1312.5000,27.9848,7.7766,3.9635,5.1858,2.8617,5.5100,-2.2140,-1.5982,7.4385,28.7504,23.2007,12.2047,9.6109,8.0406,25.0185,13.2429,9.6676,10.5594,8.2930
1316.4062,26.7156,8.0655,9.8749,10.6126,5.1498,3.9603,9.7871,6.1104,11.0044,28.9802,19.7298,16.9461,12.8876,10.5084,24.6729,11.1889,11.8459,14.9085,13.2281
1320.3125,23.8024,8.8294,15.2149,15.3840,7.7975,3.0393,20.6006,13.7562,13.7405,28.2274,15.2973,20.8488,15.7547,12.6717,23.5690,8.2682,13.2371,17.5515,17.4550
1324.2188,20.0743,10.1804,18.7395,18.8888,10.7483,3.3686,26.5898,19.4211,15.1148,26.5982,11.6577,22.9295,17.7937,14.6099,21.5994,5.2069,13.3689,18.1867,20.0771
1328.1250,16.9901,12.0299,20.2359,21.1911,14.1103,5.4147,27.0985,22.5584,15.3358,24.6900,10.2495,23.0438,19.0574,16.5916,18.7944,2.6736,12.4869,17.6271,21.0833
1332.0312,15.6206,13.7725,20.0687,22.5324,17.8634,8.9488,24.0311,23.7570,14.7273,22.9567,11.2254,21.4344,19.6873,18.6763,15.2710,1.1472,11.2840,16.8783,20.9937
1335.9375,15.8575,14.3398,18.5228,22.7980,21.5685,12.7399,19.8993,23.7899,13.2314,21.2761,13.2418,18.2352,19.5182,20.4304,11.3307,0.8568,10.3474,16.2402,20.2109
1339.8438,16.4927,12.6978,15.5479,21.4214,24.3199,14.8709,15.9741,22.7754,10.4947,19.1086,14.2406,13.4275,18.0392,21.0080,7.6228,1.7187,9.7413,15.1113,18.6255
1343.7500,16.1576,8.5317,11.1017,17.8408,25.0399,13.6891,11.9253,20.1208,6.4610,16.1385,12.7674,7.2879,14.7947,19.6041,5.1461,3.2799,9.0320,12.6118,15.7975
1347.6562,14.4407,2.6936,5.7389,12.1696,22.9920,8.9093,7.0406,15.2592,1.9308,12.8678,8.9682,0.8765,9.9434,16.0059,4.9205,4.7771,7.7213,8.5187,11.5609
1351.5625,12.3377,-2.9175,0.8472,5.5348,18.2313,2.1433,1.8107,8.5491,-1.4799,10.6228,4.5875,-4.0095,4.5190,10.8679,7.4165,5.4011,5.7446,3.7703,6.5402
1355.4688,11.6450,-6.0738,-1.8213,-0.2531,11.7197,-3.6300,-1.6073,1.5609,-2.1052,10.8463,1.9440,-5.6040,0.1093,5.4885,12.0811,4.7036,3.6417,0.1161,2.1024
1359.3750,13.6670,-5.2270,-1.1178,-3.5632,5.0109,-5.5149,-0.6134,-3.5652,0.7311,14.0868,2.5273,-3.2509,-1.9224,1.1887,17.3305,2.9136,2.2500,-0.8903,-0.3105
1363.2812,18.1108,-0.3139,2.6756,-3.8071,-0.3459,-2.2994,5.7567,-5.3027,6.1215,19.3702,6.1025,1.9605,-1.2032,-1.3337,21.1301,0.9065,2.1213,1.1213,-0.0482
1367.1875,22.9534,7.0716,7.7778,-1.7342,-3.3808,4.7581,15.4983,-3.6534,11.8933,24.4473,10.8628,7.5463,1.4009,-2.2722,21.9107,-0.2407,3.0737,5.0381,2.2883
1371.0938,25.4430,14.2841,11.7435,1.0426,-3.9742,12.4958,24.2053,-0.1527,15.7068,26.8705,14.4988,10.8609,4.2367,-2.4432,19.3336,0.1155,4.2066,8.8585,5.1419
1375.0000,23.6723,18.7711,12.7401,2.9843,-2.7309,17.5045,27.3668,3.0439,16.2733,25.3206,15.4956,10.4851,5.7467,-2.6780,14.4832,1.7596,4.3962,10.7920,6.8784
1378.9062,17.7884,19.2246,10.5051,3.4294,-0.5854,17.9213,22.9861,4.3821,13.9495,20.4159,13.8819,6.9142,5.2420,-3.2896,9.3803,3.7082,2.9712,10.1763,6.6842
1382.8125,10.1101,16.1601,6.4178,2.7817,1.6096,14.3116,12.8551,3.6508,10.3770,14.5036,11.0406,2.1398,3.1200,-3.9595,6.0746,4.7943,0.1475,7.6870,4.9156
1386.7188,4.0543,11.5968,2.6712,2.0296,3.3049,9.1491,1.6784,1.8347,7.4462,10.5047,8.7813,-1.5558,0.4630,-4.0887,5.7628,4.3820,-3.0410,4.8002,2.7186
1390.6250,2.4470,7.9733,1.0646,1.9842,4.2454,5.2720,-5.4037,0.2902,6.2617,10.4188,8.2801,-2.7996,-1.6539,-3.3319,8.3263,2.7416,-5.2695,2.9187,1.2276
1394.5312,6.1355,6.8684,2.1197,2.7600,4.3419,4.3032,-5.4159,-0.1303,6.7241,14.3041,9.5092,-1.6126,-2.6825,-1.9245,12.4613,0.8399,-5.5979,2.7097,0.8939
1398.4375,13.6505,8.2403,4.9704,3.8039,3.5832,5.9833,1.1615,0.5593,7.8981,20.3089,11.4348,0.9871,-2.6746,-0.5774,16.3254,-0.2971,-3.9197,3.9707,1.3519
1402.3438,22.0908,10.6352,7.9953,4.3745,2.0599,8.7225,10.9640,1.7527,8.8317,25.7698,12.8023,3.8409,-1.9802,-0.0303,18.4370,-0.2023,-0.9626,5.9708,1.8335
1406.2500,28.7377,12.2499,9.7591,4.0909,0.0486,10.8811,19.6546,2.8329,9.2545,28.7950,13.0129,6.3298,-0.8809,-0.5838,18.4690,0.8530,2.1208,7.9560,1.7830
1410.1562,32.4980,12.1948,9.7361,3.1830,-1.9641,11.8666,24.0319,3.5904,9.7296,29.4397,12.5766,8.4920,0.5623,-1.9168,17.5680,2.2057,4.3286,9.5082,1.2512
1414.0625,34.3628,11.1453,8.4820,2.3337,-3.3853,12.3484,23.2880,4.2304,11.2266,29.7543,12.8778,10.6663,2.3944,-3.2744,17.9572,3.3760,5.2528,10.6326,0.8536
1417.9688,36.6172,10.9263,7.2539,2.2891,-3.7086,13.5485,18.9743,5.0840,14.4355,32.5800,15.3699,13.0581,4.5671,-3.8581,21.8620,4.4179,5.1919,11.6382,1.3897
1421.8750,41.2640,13.2582,7.3319,3.5169,-2.6789,16.1972,13.9176,6.3290,19.2536,39.7038,20.6321,15.5721,6.8723,-3.1517,30.1796,5.7815,4.9150,12.9364,3.4002
1425.7812,48.6053,18.4629,9.3831,6.0781,-0.3363,19.9175,10.7497,7.9353,24.7190,50.4352,27.8180,17.9428,9.0668,-1.0311,41.5900,7.8100,5.2238,14.8360,6.9046
1429.6875,56.8622,25.0063,13.1306,9.6790,3.0532,23.4390,10.7539,9.7911,29.3883,61.5334,34.8526,19.9336,11.0439,2.3013,52.7408,10.2860,6.5300,17.3528,11.3908
1433.5938,63.1051,30.2441,17.4424,13.7654,7.0901,25.4380,13.4811,11.8046,31.9346,68.6980,39.3516,21.3761,12.8522,6.4021,59.6475,12.4143,8.6435,20.0745,15.9776
1437.5000,64.9547,31.9619,20.7909,17.5805,11.2732,25.3847,17.2013,13.8380,31.6882,68.9068,39.8293,22.0528,14.5081,10.6023,59.7293,13.3031,10.8571,22.1809,19.6474
1441.4062,62.0234,29.7586,21.8994,20.2399,14.9786,23.8251,19.8894,15.5474,28.9126,62.2925,36.5525,21.6405,15.7660,14.0123,53.3940,12.6198,12.2808,22.7199,21.4993
1445.3125,56.2069,25.3848,20.3113,20.9298,17.4902,21.9563,20.2229,16.3447,24.7412,52.4005,31.5242,19.9002,16.0992,15.6679,44.1758,10.9443,12.2690,21.0997,21.0140
1449.2188,50.6489,21.7863,16.6214,19.2341,18.1698,20.8380,18.0986,15.6229,20.8011,44.5404,27.5272,17.0383,14.9996,14.8779,37.1648,9.5318,10.7392,17.5578,18.2820
1453.1250,48.0324,21.4200,12.2354,15.4262,16.7430,20.7873,14.4583,13.1488,18.6360,43.0567,26.6916,13.9136,12.4251,11.6343,36.4645,9.5984,8.2328,13.2686,14.0699
1457.0312,49.2402,24.8569,8.7420,10.4923,13.5293,21.3234,10.6180,9.3366,19.1030,49.0215,29.3573,11.7844,9.0429,6.7985,43.0417,11.5707,5.6839,9.8983,9.6045
1460.9375,53.1501,30.5062,7.1940,5.7748,9.4200,21.6233,7.5834,5.1624,21.9737,59.6590,33.8880,11.6222,6.0059,1.8472,54.1771,14.7743,4.0064,8.7603,6.0881
1464.8438,57.5638,35.5827,7.6681,2.3856,5.5357,21.1281,5.7812,1.7316,25.9442,69.8264,37.5707,13.4139,4.3282,-1.7665,64.8343,17.7535,3.6989,10.0443,4.1563
1468.7500,60.5579,37.6864,9.3320,0.7284,2.7228,19.8847,5.2856,-0.2244,29.1268,74.6952,38.1136,15.9940,4.2574,-3.2957,70.1747,19.0318,4.6590,12.6345,3.5972
1472.6562,61.3581,36.0268,10.9632,0.4314,1.1898,18.4340,6.1975,-0.6021,29.8671,72.1088,34.8938,17.6385,5.1005,-3.0052,67.8323,17.8728,6.2865,14.7075,3.5416
1476.5625,60.2620,31.6093,11.6007,0.7240,0.5261,17.3607,8.7102,0.1853,27.5192,63.3454,29.2453,17.1063,5.6815,-1.8941,58.7794,14.6386,7.8063,14.8009,3.0546
1480.4688,57.8420,26.3838,10.9492,0.9907,0.1028,16.8248,12.6855,1.5254,22.7736,52.0032,23.6393,14.4456,5.1605,-1.0078,46.4795,10.5999,8.6282,12.6976,1.7780
1484.3750,54.1393,21.9905,9.3430,1.1207,-0.4172,16.3737,17.0783,2.8549,17.3305,41.8224,20.2595,10.9941,3.6578,-0.7884,34.9793,7.3469,8.5624,9.5580,0.2082
1488.2812,48.4923,18.9239,7.3759,1.4388,-0.8173,15.1592,19.8414,3.7083,13.0595,34.7847,19.8143,8.5492,2.2338,-0.8794,27.0541,6.1132,7.8038,7.2035,-0.5883
1492.1875,40.1254,16.5803,5.5110,2.3234,-0.5094,12.4469,18.7163,3.6740,11.0937,30.5142,21.2579,8.2685,2.2067,-0.4915,23.2961,7.2981,6.7390,7.0100,0.3407
1496.0938,29.0448,14.0373,3.9451,3.8396,0.9629,8.1454,12.6435,2.4745,11.3530,27.1064,22.5270,10.0506,4.2551,0.9512,22.3682,10.3381,5.7170,9.1231,3.1842
1500.0000,16.5505,10.9315,2.7629,5.6722,3.4604,3.0534,2.9017,0.2291,12.7408,22.6433,21.7936,12.7794,7.9122,3.3387,22.0072,13.9256,4.9159,12.4722,7.1709
1503.9062,4.9249,7.7871,2.1653,7.3815,6.1732,-1.3653,-6.9660,-2.3148,13.8532,16.3551,18.4665,15.1822,11.7890,5.8893,20.1191,16.4777,4.3470,15.5128,10.9497
1507.8125,-3.6000,5.5746,2.4990,8.7351,8.0207,-3.6447,-12.7091,-3.9157,13.7417,8.7858,13.3785,16.6242,14.3709,7.6175,15.4895,16.7089,3.9415,17.1531,13.3066
1511.7188,-8.0258,4.8516,4.0004,9.8211,8.2778,-3.1340,-11.6670,-3.4548,12.2792,1.0671,8.1345,17.2660,14.8539,7.9198,7.9996,14.1274,3.6259,17.2436,13.7761
1515.6250,-9.2348,5.1502,6.4423,10.8460,7.0168,-0.5356,-4.4345,-0.7300,9.9725,-6.0202,4.0990,17.5549,13.4918,6.8979,-1.5116,9.2703,3.3350,16.3762,12.7964
1519.5312,-9.6959,5.1162,9.0114,11.8101,5.0706,2.2084,5.2381,3.1567,7.4474,-12.4880,1.6718,17.5618,11.2895,5.2435,-11.5616,3.5451,2.9878,15.2466,11.3609
1523.4375,-12.3278,3.3690,10.6114,12.3700,3.5405,2.7464,12.3979,6.2426,5.0168,-18.8398,0.2526,16.7795,9.3201,3.8135,-20.4461,-1.3107,2.4903,14.1156,10.4176
1527.3438,-19.0552,-0.4894,10.4627,12.0498,3.1670,-0.4848,13.6089,6.8428,2.6293,-25.3672,-1.1823,14.5910,8.1481,3.1903,-26.7455,-3.9545,1.7960,12.7647,10.3828
1531.2500,-29.7615,-5.4436,8.6091,10.6608,3.9532,-7.3270,8.8220,4.6746,0.1655,-31.6576,-3.3433,11.0220,7.6957,3.4731,-29.8217,-4.0173,0.9825,10.9097,11.0152
1535.1562,-42.1714,-9.5830,5.9520,8.5843,5.2489,-15.8018,1.2749,1.1504,-2.2185,-36.7186,-6.2261,7.1078,7.5298,4.3501,-30.0900,-2.2391,0.2573,8.6717,11.6551
1539.0625,-52.7605,-11.2867,3.7397,6.6479,6.1967,-22.9814,-4.4882,-1.4692,-4.0281,-39.6214,-9.2522,4.4674,7.2673,5.3228,-28.8538,-0.0709,-0.1552,6.6735,11.6381
1542.9688,-58.3034,-10.2960,2.8266,5.6339,6.2340,-26.4001,-5.2487,-1.5635,-4.7237,-40.1590,-11.7601,4.3006,6.7871,5.9137,-27.6844,1.0665,-0.1907,5.6577,10.6453
1546.8750,-57.3416,-7.9223,3.1936,5.7619,5.3474,-25.2361,-0.8194,0.7414,-4.1488,-39.0108,-13.4404,6.5083,6.1585,5.7805,-27.6266,0.4797,-0.0539,5.9197,8.8384
1550.7812,-50.8685,-6.1995,4.0496,6.5332,3.9747,-20.6151,6.1161,3.6602,-2.7426,-37.2955,-14.4041,9.6029,5.4472,4.7661,-28.6861,-1.5103,-0.1381,7.0115,6.7610
1554.6875,-41.9009,-6.5241,4.4293,7.0737,2.6802,-14.9165,11.7971,5.0269,-1.3500,-35.8642,-14.8980,11.5244,4.6215,2.9445,-29.9420,-3.8282,-0.7692,7.9645,5.0842
1558.5938,-34.1570,-8.7129,3.8499,6.7362,1.8420,-10.5500,13.6199,3.8818,-0.7512,-34.8838,-14.9656,10.8336,3.6427,0.6582,-30.2550,-5.2887,-1.9322,7.8804,4.3070
1562.5000,-30.5070,-11.1543,2.5654,5.5283,1.5304,-8.9356,11.4574,1.2234,-1.2510,-34.0132,-14.3834,7.4898,2.6143,-1.5192,-29.1367,-5.2534,-3.1939,6.4595,4.5203
1566.4062,-31.9322,-11.9795,1.2620,4.0570,1.5966,-10.1936,7.3725,-0.6588,-2.6174,-32.9894,-12.9551,2.7347,1.7967,-2.9556,-27.1890,-3.9422,-3.9268,4.0944,5.3242
1570.3125,-37.4036,-10.4542,0.4505,3.0452,1.8513,-13.5338,4.0645,0.1633,-4.3764,-32.0906,-10.9196,-1.7603,1.4187,-3.2306,-25.7702,-2.2510,-3.7251,1.5009,5.9559
1574.2188,-44.5685,-7.6059,0.0322,2.7894,2.1850,-17.8959,3.1227,3.7836,-6.1948,-32.0185,-9.0842,-4.8512,1.4264,-2.3628,-26.0438,-1.2078,-2.7396,-0.7999,5.6092
1578.1250,-50.7587,-5.6113,-0.6334,2.9637,2.5637,-22.3556,4.1893,8.2407,-8.0286,-33.2168,-8.4746,-6.3610,1.4086,-0.8436,-28.0222,-1.3885,-1.6725,-2.7436,3.8284
1582.0312,-53.8113,-6.3287,-2.2081,2.9032,2.9402,-26.1322,5.4805,10.7538,-9.9253,-35.1446,-9.6608,-6.8273,0.8230,0.5743,-30.2760,-2.6174,-1.3804,-4.5604,0.7842
1585.9375,-52.4783,-9.9672,-4.7928,2.1386,3.1861,-28.4317,5.2331,9.5890,-11.6801,-36.1549,-12.2182,-6.8848,-0.5926,1.2327,-30.5949,-4.0951,-2.3065,-6.3682,-2.7332
1589.8438,-46.5161,-14.8036,-7.7160,0.7731,3.1236,-28.4846,3.0670,5.2738,-12.6830,-34.2404,-14.7464,-6.7927,-2.5175,0.8774,-27.2516,-4.8554,-4.1082,-7.8879,-5.6353
1593.7500,-36.6558,-18.1488,-9.8550,-0.5737,2.6513,-25.9061,0.3427,0.3164,-12.1555,-28.2541,-15.5190,-6.3928,-4.1023,-0.2349,-20.0859,-4.2758,-5.7482,-8.5349,-7.0193
1597.6562,-24.5062,-17.9211,-10.2750,-1.1973,1.8856,-21.1230,-0.7359,-2.3898,-9.6531,-18.7886,-13.3967,-5.3969,-4.3915,-1.4680,-10.6860,-2.3594,-6.0325,-7.8220,-6.5580
1601.5625,-12.2570,-13.8052,-8.7594,-0.7851,1.2068,-15.4387,1.3131,-1.4069,-5.4654,-8.0424,-8.4372,-3.6783,-2.8625,-2.0854,-1.5068,0.3409,-4.2913,-5.7580,-4.5880
1605.4688,-2.0569,-7.2954,-5.9010,0.4092,1.1491,-10.5146,6.0730,2.3795,-0.5857,1.3313,-1.8221,-1.3393,0.2525,-1.5423,5.5319,3.0714,-0.7980,-2.9243,-1.8666
1609.3750,4.7998,-0.6929,-2.7287,1.8008,2.1546,-7.4974,11.2792,6.4076,3.7807,7.6885,4.8271,1.4024,4.0507,0.3137,10.0618,5.2594,3.3196,-0.1636,0.8326
1613.2812,8.4643,4.2130,-0.1395,2.9188,4.3021,-6.3535,14.1459,8.1341,6.8659,11.2197,10.2847,4.3041,7.3778,3.1702,13.2411,6.7015,6.6186,1.8983,3.0405
1617.1875,10.4716,6.9400,1.5147,3.7240,7.1567,-5.8954,13.1439,6.6454,8.7203,13.6169,14.1924,7.0392,9.3179,6.3108,16.7430,7.4811,8.0178,3.1652,4.6691
1621.0938,12.9510,8.2030,2.4826,4.5729,9.8510,-4.5294,9.0452,3.1610,10.0859,16.8581,16.9490,9.0979,9.5001,8.8016,21.4977,7.7319,7.2510,4.0283,5.8607
1625.0000,17.5261,9.1571,3.3538,5.8735,11.4054,-1.2460,4.4808,0.1636,11.8691,21.9708,19.2150,9.8738,8.1225,9.7886,27.0865,7.4640,4.8973,5.0399,6.7704
1628.9062,24.5679,10.6168,4.6867,7.6982,11.1614,3.7978,2.2499,-0.2206,14.5731,28.5914,21.4454,9.0201,5.7751,8.8336,32.1942,6.5997,2.0410,6.5531,7.4452
1632.8125,33.2276,12.7433,6.7322,9.6386,9.1259,9.4604,3.5054,2.4628,18.0364,35.5016,23.7526,6.8678,3.2093,6.1581,35.7339,5.1836,-0.2128,8.5519,7.8561
1636.7188,42.1200,15.2563,9.3458,11.0065,6.0346,14.3770,7.0834,6.7881,21.5862,41.6057,26.0752,4.5257,1.1488,2.6477,37.7458,3.5752,-1.1252,10.7213,8.0041
1640.6250,50.0787,17.8479,12.0694,11.2490,3.0759,17.7332,10.4767,10.4047,24.4410,46.5484,28.3843,3.4375,0.1473,-0.4428,39.3493,2.4173,-0.4914,12.6407,7.9761
1644.5312,56.4417,20.4200,14.3073,10.3052,1.3861,19.5337,11.7706,11.4937,26.0855,50.5550,30.6835,4.5750,0.4631,-1.9848,41.7732,2.3418,1.4003,13.9483,7.8936
1648.4375,60.8042,23.0091,15.5305,8.6813,1.5591,20.2761,11.1045,9.7927,26.4332,53.7675,32.8188,7.7849,1.9684,-1.4398,45.2363,3.5871,3.9310,14.4204,7.8051
1652.3438,62.6947,25.5540,15.4620,7.2030,3.4139,20.3910,10.5021,6.5893,25.7801,55.7843,34.3518,11.7823,4.1659,0.9482,48.6208,5.8050,6.3587,14.0119,7.6356
1656.2500,61.7053,27.7607,14.1921,6.5973,6.1304,19.9521,12.0972,3.7647,24.6664,55.9238,34.7500,14.8776,6.3733,4.3318,50.2973,8.2294,8.0366,12.9203,7.2675
1660.1562,58.1512,29.1965,12.1803,7.1501,8.6739,18.8833,16.0497,2.5674,23.7497,54.0787,33.8686,16.0127,8.0417,7.7043,49.5485,10.1285,8.6196,11.6564,6.7179
1664.0625,53.7117,29.5398,10.1315,8.6305,10.2822,17.4458,19.8326,2.9326,23.6940,51.4446,32.3825,15.4530,9.0603,10.3603,47.5032,11.2492,8.2136,11.0189,6.2909
1667.9688,51.2946,28.8096,8.7941,10.5110,10.7737,16.5239,19.6865,3.7691,25.0279,50.3910,31.7445,14.6965,9.8623,12.1364,46.7685,11.9486,7.3937,11.8894,6.5715
1671.8750,53.8349,27.4466,8.7606,12.3345,10.5409,17.3608,13.4386,3.9652,27.9580,53.3421,33.5230,15.6602,11.2278,13.3348,49.8809,12.9211,7.0313,14.8725,8.2105
1675.7812,62.5816,26.2262,10.3287,13.9848,10.2640,20.8231,2.7157,3.3656,32.2119,61.3029,38.4239,19.6243,13.8417,14.4182,57.5874,14.7075,7.9476,19.9414,11.5668
1679.6875,75.9931,26.0456,13.4168,15.6690,10.5087,26.6699,-7.2327,2.9784,37.0216,73.0102,45.6085,26.4962,17.8082,15.6626,68.1509,17.3242,10.5077,26.2815,16.3650
1683.5938,90.1253,27.6228,17.5030,17.6021,11.4118,33.3708,-10.3429,4.2049,41.2996,85.3232,52.8185,34.7059,22.3757,16.9466,78.1854,20.2479,14.3388,32.4386,21.5512
1687.5000,100.4596,31.1585,21.6042,19.5988,12.6014,38.6907,-3.5457,7.6075,43.9539,94.6638,57.3540,41.7028,26.0534,17.7638,84.4738,22.7340,18.3395,36.7302,25.4797
1691.4062,104.1307,36.0853,24.4007,20.8906,13.3839,40.7672,10.9275,12.1309,44.2208,98.6495,57.4142,44.8162,27.1392,17.4370,85.5777,24.2179,21.0374,37.7723,26.4454
1695.3125,101.2129,41.0974,24.6164,20.3903,13.1086,39.0772,26.4130,15.4554,41.9071,97.0012,53.0593,42.2164,24.4838,15.4451,82.2698,24.5267,21.1938,34.9519,23.4136
1699.2188,94.3463,44.5934,21.6205,17.3422,11.5364,34.7366,35.4909,15.3916,37.4982,91.3463,46.2524,33.7375,18.1666,11.7313,76.7033,23.8096,18.4036,28.7127,16.6533
1703.1250,87.0806,45.4189,15.9752,11.9894,9.0233,29.9624,34.2226,11.4355,32.1190,84.2325,39.9525,21.2900,9.7286,6.8567,71.0788,22.3213,13.3945,20.5611,7.9273
1707.0312,82.0805,43.5130,9.5251,5.7825,6.3991,26.9995,24.2928,5.3648,27.3265,78.0367,36.7437,8.5669,1.7456,1.8927,66.7614,20.2762,7.8224,12.7352,0.0168
1710.9375,80.2618,40.0022,4.7777,0.8657,4.5631,27.0953,11.7585,0.3295,24.7023,74.2985,37.7004,-0.1032,-3.1747,-1.9598,64.2603,17.8823,3.5923,7.5481,-4.3395
1714.8438,81.1277,36.5845,3.7472,-0.9714,3.9852,30.0418,3.3099,-1.0893,25.2965,73.5759,42.0218,-1.4879,-3.5551,-3.8927,63.7285,15.4665,1.9983,6.5634,-3.6628
1718.7500,83.7237,34.5538,6.8659,0.7104,4.3899,34.4645,2.4926,1.4188,29.1187,75.5947,47.5544,4.9767,0.2258,-3.8989,65.2918,13.5057,3.1221,9.9215,1.5083
1722.6562,87.3492,34.1392,12.6617,4.6987,4.8466,38.6350,8.2100,5.6336,34.9761,79.4686,51.8951,16.6799,6.0971,-2.8064,68.8500,12.4713,5.8434,16.1849,8.7902
1726.5625,91.5921,34.6669,18.5065,8.7781,4.2750,41.3319,16.1792,8.2588,40.8665,83.9647,53.5286,28.8768,11.3448,-1.8537,73.6249,12.5823,8.4962,22.8899,15.0601
1730.4688,95.9346,35.4266,22.0565,10.9813,2.1184,42.3073,22.0504,7.1593,44.8371,87.9002,52.4708,36.8899,14.0113,-1.9959,78.0838,13.6802,9.8187,27.6257,17.9622
1734.3750,99.5236,36.5204,22.5047,10.6758,-1.2148,42.1720,23.9651,2.8473,45.8846,90.6229,50.1351,38.3158,13.8432,-3.3365,80.5780,15.3535,9.6330,29.1130,16.9985
1738.2812,101.4509,38.8915,20.8349,8.7965,-4.4462,41.8514,22.9806,-1.8489,44.3625,92.2965,48.4902,33.9782,12.2121,-5.0562,80.3534,17.2228,8.8243,27.6867,13.5953
1742.1875,101.3262,43.3454,18.9206,7.0877,-6.0674,41.9721,21.4407,-3.7449,41.6179,93.6841,48.9212,27.0925,11.0591,-5.9222,78.1317,19.1371,8.6226,24.8987,10.1216
1746.0938,99.5913,49.2599,18.1099,6.8791,-5.1854,42.5301,20.7880,-1.5337,39.0725,95.4380,51.3795,21.2215,11.5470,-5.0917,75.6807,21.0902,9.6553,22.4864,8.4671
1750.0000,97.2229,54.1239,18.3075,8.2296,-2.0801,42.9788,20.5221,3.2856,37.3548,97.3498,54.3107,18.3340,13.3103,-2.7063,74.5707,22.9164,11.4180,21.3508,9.0357
1753.9062,95.0118,54.5926,18.2077,10.0019,1.8757,42.6099,18.9701,7.4551,36.0707,98.1937,55.4721,18.1299,14.7908,0.1144,75.0191,24.0566,12.5551,21.1735,10.7282
1757.8125,93.0124,48.6313,16.4879,10.7717,4.9106,40.9551,15.1062,8.2498,34.3518,96.4515,53.2531,18.8677,14.4058,1.8944,75.7471,23.6928,11.7911,20.8677,11.8417
1761.7188,90.6309,37.3426,13.0563,9.8953,5.7700,37.9856,9.8946,5.3895,31.7509,91.5223,47.7593,18.9193,11.7196,1.6584,75.0178,21.2662,8.8881,19.4992,11.2482
1765.6250,87.2852,25.0470,9.3892,7.9726,4.3349,34.0729,6.0501,1.2219,28.7889,84.5296,40.9773,17.8875,7.8041,-0.5034,72.0851,17.0516,4.9579,17.0199,9.0910
1769.5312,83.0629,17.2442,7.6571,6.4026,1.6181,29.8333,6.3222,-0.9381,26.7127,77.9850,35.8232,16.6031,4.5637,-3.4918,67.9029,12.3207,1.8801,14.3281,6.6114
1773.4375,78.7893,17.5516,9.2352,6.3855,-0.8176,25.9910,11.5002,0.8791,26.6177,74.3461,34.5511,16.2184,3.5362,-5.8058,64.4861,8.8585,1.1910,12.6609,5.3076
1777.3438,75.4058,25.5267,13.6558,8.0986,-1.6559,23.2736,19.5448,5.9536,28.5794,74.3643,37.4333,17.2346,5.0161,-6.3084,63.3624,8.0452,3.1712,12.7810,6.0233
1781.2500,73.1534,36.8098,18.7576,10.6097,-0.4093,22.2390,26.4794,11.3965,31.4468,76.4018,42.5221,19.1983,8.0588,-4.7147,64.3018,10.0671,6.7240,14.5137,8.5254
1785.1562,71.2465,45.5422,21.9374,12.5336,2.4585,22.9718,28.5134,14.0978,33.4742,77.3064,46.6723,21.1544,11.2442,-1.5986,65.3395,13.7823,10.0899,16.8979,11.7375
1789.0625,68.3628,47.5534,21.6586,12.9189,5.8356,24.7832,24.1106,12.7041,33.3577,74.3709,47.2467,22.3314,13.5497,1.9767,64.1370,17.3500,11.8831,18.7762,14.3695
1792.9688,63.6288,42.3804,18.2345,11.7463,8.4652,26.2180,14.8145,8.3008,30.9717,67.1170,43.5094,22.4683,14.6999,4.9267,59.7025,19.2327,11.7673,19.3988,15.5085
1796.8750,57.3988,33.0432,13.4657,9.7647,9.4071,25.6041,4.4372,3.4633,27.3443,57.7207,36.9206,21.6404,14.8666,6.4840,53.2083,18.9430,10.3930,18.6943,14.8823
1800.7812,51.2603,23.9927,9.5001,7.8952,8.3232,22.0247,-2.8409,0.4827,23.9722,49.8039,30.2377,19.9612,14.1545,6.3523,47.3130,17.1126,8.7680,17.1555,12.8002
1804.6875,47.2470,18.7053,7.7344,6.6998,5.5628,16.1642,-4.4001,0.0496,22.0051,46.3869,26.0316,17.6106,12.4443,4.7425,44.4913,14.9325,7.5933,15.5374,9.9584
1808.5938,46.7539,18.3472,8.4021,6.2730,2.0611,10.3499,-0.1952,1.2172,21.8285,48.2902,25.5036,15.2208,9.7761,2.3448,45.5550,13.4063,7.0309,14.5907,7.2684
1812.5000,49.7796,21.9653,10.9033,6.5185,-0.9394,7.4937,7.5150,2.4785,23.1873,53.8849,28.1900,14.1450,6.8878,0.1989,49.3259,12.9027,6.9617,14.9016,5.7084
1816.4062,54.8463,27.5925,14.4182,7.4647,-2.3122,9.3743,15.4410,3.0435,25.5657,60.1554,32.5263,16.0656,5.2801,-0.6139,53.5276,13.1956,7.3889,16.7623,6.0976
1820.3125,59.5455,33.2704,18.2794,9.2919,-1.5007,15.2968,20.8418,3.3779,28.4289,64.2586,36.7514,21.9115,6.5089,0.5677,56.1154,13.8093,8.5608,20.0053,8.7642
1824.2188,61.4191,37.4359,21.9257,12.0367,1.1963,22.1230,22.6646,4.7013,31.1740,64.6452,39.5721,30.7520,11.0654,3.5671,56.1086,14.3258,10.6718,23.8780,13.2432
1828.1250,58.8703,38.8626,24.6793,15.2515,4.6894,25.8917,21.7620,7.8984,32.9937,61.3028,40.3394,39.5913,17.6525,7.2695,53.5404,14.4520,13.3999,27.1309,18.2367
1832.0312,51.8685,36.7100,25.7151,17.9583,7.5429,24.1798,20.1414,12.6436,32.9754,55.3284,38.9000,44.5026,23.5050,9.9982,48.8979,13.9229,15.7198,28.4169,21.9774
1835.9375,42.2131,30.9443,24.3623,19.0087,8.6060,17.7384,19.6587,17.3063,30.5337,48.3303,35.4587,42.6060,25.7118,10.2516,42.7287,12.4720,16.2444,26.8709,22.8958
1839.8438,33.1122,22.8023,20.5274,17.6453,7.5064,10.2647,20.8471,19.6584,25.9115,41.9940,30.6210,33.7199,22.7717,7.4354,35.7622,10.0015,13.9513,22.5501,20.2848
1843.7500,27.9959,14.6849,14.8856,13.9068,4.7484,6.3075,22.5395,17.9493,20.3140,37.7852,25.4810,20.6299,15.4206,2.1924,29.2652,6.8427,8.8417,16.4515,14.6300
1847.6562,28.8991,9.2125,8.6598,8.6406,1.3876,8.5309,22.5443,11.7984,15.4509,36.6090,21.4700,7.7834,6.2319,-3.8557,25.0316,3.8386,2.1046,10.0821,7.4509
1851.5625,35.1941,7.8757,3.1285,3.1572,-1.4953,16.0313,19.0418,2.5289,12.6996,38.4085,19.8391,-0.8002,-1.7004,-8.8075,24.6801,2.0720,-4.3278,4.8462,0.7500
1855.4688,43.5254,10.1742,-0.8093,-1.2343,-3.2126,24.7741,11.8973,-7.1691,12.4191,41.9610,20.9867,-3.1953,-6.1555,-11.2512,28.5827,2.3326,-8.5772,1.6119,-3.6722
1859.3750,49.2527,13.9008,-2.7764,-3.5784,-3.5847,29.8797,3.0637,-14.1403,13.8679,45.1845,24.0767,-0.0076,-6.4825,-10.7346,35.1967,4.6458,-9.5443,0.6424,-4.7729
1863.2812,48.7727,16.4556,-2.7971,-3.4385,-2.7848,28.3394,-4.2515,-15.9616,15.7618,45.9723,27.2996,6.3837,-3.4027,-7.7778,41.4321,8.1812,-7.2462,1.7863,-2.5368
1867.1875,41.3920,16.3386,-1.1272,-0.9430,-1.1043,20.5258,-7.2325,-12.0157,17.0634,43.1560,28.7379,13.0965,1.6912,-3.5186,44.0066,11.6126,-2.7045,4.6598,2.0786
1871.0938,29.5564,13.8531,1.7948,3.2171,1.1777,9.6937,-4.9593,-3.9455,17.4635,37.0199,27.3684,17.7913,7.3554,0.7822,41.0498,13.7067,2.4703,8.6504,7.4844
1875.0000,17.2349,10.6305,5.2995,7.8705,3.7804,-0.0549,1.1157,4.8732,17.2811,29.0386,23.5938,19.1743,12.3346,4.1598,33.0148,13.8020,6.6042,12.8194,11.9958
1878.9062,7.4921,8.4081,8.5098,11.6252,6.3603,-5.9946,7.9753,10.7696,16.9417,21.0215,18.9555,17.0783,15.5508,6.1770,22.3848,11.9608,8.4548,15.9479,14.3993
1882.8125,0.8681,7.9288,10.5420,13.3162,8.5217,-7.8923,12.5945,11.5142,16.4716,14.2267,15.1827,12.3514,16.1661,6.9465,12.3970,8.8155,7.5868,16.8820,14.3344
1886.7188,-4.3610,8.6234,10.8072,12.4758,9.9221,-7.5516,13.3053,7.4245,15.3721,8.9714,13.1580,6.5962,13.8685,6.9703,5.5374,5.2859,4.5295,15.0567,12.3047
1890.6250,-10.2971,9.1070,9.2050,9.5548,10.3881,-7.3195,10.2563,1.1572,12.9264,4.8663,12.4311,1.6588,9.1909,6.8506,2.5861,2.3192,0.6151,10.8588,9.3040
1894.5312,-17.3369,8.0144,6.0846,5.7178,9.9431,-8.5968,4.9176,-3.7615,8.6971,1.3687,11.5717,-1.1045,3.5187,6.9754,2.5782,0.6740,-2.5195,5.5349,6.2715
1898.4375,-23.4705,4.6404,2.0534,2.3001,8.7411,-11.1911,-0.8201,-4.8253,2.9029,-1.7876,9.1316,-1.4381,-1.3723,7.3281,3.5387,0.7033,-3.6039,0.6535,3.7188
1902.3438,-25.5339,-0.8195,-2.1582,0.2481,6.9971,-13.7032,-5.3051,-1.7272,-3.5013,-4.5131,4.6257,-0.2081,-4.0384,7.5483,3.5362,2.1621,-2.2666,-2.5507,1.7609
1906.2500,-21.5593,-7.3086,-5.6725,-0.1319,5.0070,-14.5261,-7.2883,3.8357,-9.0304,-6.5363,-1.0529,1.3141,-3.9185,7.2399,1.5793,4.1893,0.8596,-3.5502,0.4745
1910.1562,-12.5412,-13.0724,-7.4217,0.9742,3.2394,-12.8095,-5.8641,9.4710,-12.0739,-7.5857,-6.0145,2.4717,-1.4058,6.3480,-1.9735,5.6176,4.5192,-2.4552,0.2300
1914.0625,-2.3228,-15.9947,-6.3627,3.2219,2.3590,-8.9182,-0.6312,13.5374,-11.4194,-7.4541,-8.3144,3.7473,2.5130,5.3318,-5.6185,5.5677,7.4668,0.3091,1.6264
1917.9688,4.4007,-14.2747,-2.0497,6.3015,3.0412,-4.2654,7.7996,15.7459,-6.8061,-6.0322,-6.9258,6.2668,6.7165,4.9586,-7.4557,4.0166,8.9723,4.2251,4.9751
1921.8750,4.6850,-7.4019,4.7187,9.8337,5.5924,-0.6910,17.3545,16.6529,0.6808,-3.4538,-2.2443,10.5462,10.1975,5.8007,-6.1965,1.9183,8.9391,8.6215,9.6933
1925.7812,-1.1046,3.0339,11.7352,13.1243,9.5902,0.3104,24.7345,16.6437,8.6634,-0.3210,4.0839,15.4554,12.0785,7.7556,-1.9629,0.6789,7.6672,12.4793,14.1541
1929.6875,-9.6969,13.3913,16.0948,15.1168,13.8339,-1.7963,26.6277,15.3620,14.1775,2.2344,9.8603,18.3730,11.6316,9.9490,3.5831,1.2318,5.5314,14.4693,16.2905
1933.5938,-16.9151,19.2619,15.6013,14.7599,16.7513,-6.3683,21.4464,12.1010,14.9047,2.8957,13.1939,16.6841,8.5227,11.1490,7.9599,3.3100,2.8468,13.4348,14.7094
1937.5000,-19.9727,17.5904,10.0967,11.6523,17.1135,-11.8622,10.5689,6.8184,10.3817,0.8617,13.1598,9.7032,3.2116,10.4728,9.1229,5.4713,-0.0294,9.1338,9.6286
1941.4062,-18.7267,8.5077,1.8131,6.5247,14.6758,-16.4952,-1.8467,0.8481,2.4630,-3.5179,10.0508,-0.3748,-2.8458,7.9424,6.5536,5.9596,-2.5481,2.7208,2.9709
1945.3125,-15.3275,-4.3211,-5.6268,1.1315,10.3604,-18.9822,-10.6254,-3.4464,-5.3959,-8.6922,5.1923,-9.3294,-7.5343,4.5263,1.5006,3.8898,-4.0115,-3.5046,-2.5376
1949.2188,-12.6976,-15.2802,-9.0709,-2.5156,5.8531,-18.9729,-12.0795,-4.0154,-9.7995,-12.6380,0.4095,-13.1755,-8.9455,1.6328,-3.8123,-0.0440,-3.8686,-7.1053,-4.7584
1953.1250,-12.8451,-19.6049,-7.4686,-3.1768,2.8246,-16.9853,-5.8885,-0.5729,-9.1525,-14.0070,-2.6977,-10.4113,-6.3290,0.3788,-7.5185,-3.8667,-2.0694,-6.7532,-3.1837
1957.0312,-15.9326,-15.8739,-2.2987,-1.0555,2.1976,-13.9504,4.7004,4.9223,-4.4808,-12.9666,-3.4536,-2.8104,-0.5364,1.0835,-9.1216,-5.4966,0.8090,-2.9629,0.9676
1960.9375,-20.4547,-6.7639,3.4150,2.3191,3.8237,-10.7256,14.4594,9.2081,1.1703,-11.1431,-2.4928,5.7006,6.3501,3.2570,-9.5510,-4.0520,3.8028,2.1605,5.5704
1964.8438,-24.2589,2.3849,6.8232,4.9428,6.6799,-7.9050,18.6816,9.5551,4.4192,-10.6591,-1.5646,11.2674,11.9975,6.0163,-10.2978,-0.4349,6.0264,6.0347,8.7399
1968.7500,-25.7822,6.3970,6.6438,5.4176,9.4155,-5.9575,15.2991,5.3451,3.3374,-12.8632,-2.6856,11.9931,14.8266,8.6026,-12.3010,3.1977,7.0547,6.9235,9.6067
1972.6562,-24.8725,2.9291,3.4979,3.6387,10.9451,-5.4037,5.6430,-1.5866,-1.6523,-17.5509,-6.9356,8.4426,14.5043,10.6758,-15.3776,4.7294,6.9878,4.7271,8.3909
1976.5625,-22.8243,-6.4246,-0.7878,0.7386,10.8326,-6.7014,-6.3502,-7.9993,-8.1850,-23.1287,-13.5333,2.7629,11.7736,12.2766,-18.5281,3.3113,6.2190,0.8615,5.9574
1980.4688,-21.6368,-17.0827,-4.2845,-1.6059,9.3654,-9.8031,-15.9477,-10.9737,-13.3099,-27.5483,-19.8594,-2.7219,7.8924,13.5844,-20.7814,-0.2385,5.1361,-2.6010,3.2950
1984.3750,-22.8664,-23.8809,-5.7761,-2.0589,7.3532,-13.7489,-19.5738,-9.2762,-14.9644,-29.3852,-22.6606,-6.4848,4.0933,14.6972,-21.8787,-4.0541,3.9820,-3.9859,1.2271
1988.2812,-26.6592,-23.6410,-4.9831,-0.2250,5.7599,-16.7819,-16.1458,-3.6819,-12.8049,-28.4375,-19.9340,-7.9662,1.2938,15.5607,-22.3050,-6.3975,2.9135,-2.7184,0.3335
1992.1875,-31.5090,-16.6344,-2.3620,3.2788,5.2955,-17.1417,-7.3720,3.7031,-8.1128,-25.6101,-12.4088,-7.2497,0.0107,16.0192,-22.7396,-6.6227,2.0997,0.5794,0.8761
1996.0938,-34.9359,-6.2970,1.1892,7.2076,6.1055,-14.1310,3.0267,10.5399,-3.0046,-22.3011,-3.5798,-4.7679,0.3137,15.8821,-23.4428,-5.3759,1.6915,4.5133,2.6316
2000.0000,-34.7797,2.5752,4.5660,10.2632,7.6890,-8.7104,10.8811,15.1320,0.5628,-19.7115,1.9814,-1.2534,1.7727,14.9470,-24.0785,-4.0108,1.6627,7.5810,4.7902
2003.9062,-30.4039,6.2149,6.7114,11.5835,9.1172,-3.1037,13.3484,16.7711,1.5565,-18.3998,1.2060,2.2742,3.5267,13.0239,-24.0485,-3.6727,1.7051,8.7856,6.1852
2007.8125,-23.1099,3.6757,6.9933,10.9838,9.4867,0.4232,10.1611,15.6383,0.1740,-18.1735,-5.5384,4.7831,4.6072,10.0287,-22.9796,-4.6342,1.3567,7.9995,5.8939
2011.7188,-15.4984,-2.8397,5.5847,8.9207,8.3901,0.8174,3.7147,12.5145,-2.3371,-18.2502,-14.4515,5.7402,4.4372,6.1340,-20.9255,-6.2191,0.3420,5.9776,3.8839
2015.6250,-10.1377,-9.2506,3.5296,6.2422,6.1338,-1.3206,-2.1603,8.4719,-4.2500,-17.5963,-20.3835,5.4621,3.1939,1.8597,-18.1616,-7.2589,-1.1310,4.0167,1.1946
2019.5312,-8.3081,-11.7854,2.2732,3.8318,3.5528,-4.3700,-4.1968,4.5718,-4.1243,-15.3703,-19.7953,4.9190,1.7239,-2.0271,-14.8482,-6.7509,-2.3976,3.3700,-0.6064
2023.4375,-9.5067,-8.9141,2.8209,2.2789,1.5178,-6.8587,-1.3914,1.5623,-1.4733,-11.3533,-12.7620,5.0367,0.9952,-4.8062,-10.9501,-4.3547,-2.7369,4.6565,-0.4174
2027.3438,-11.9020,-2.0005,5.0546,1.6987,0.4424,-8.2610,4.5923,-0.3427,2.9800,-6.1677,-2.7613,6.0200,1.4500,-6.1297,-6.5229,-0.5317,-1.8760,7.5515,1.6272
2031.2500,-13.3652,5.6256,7.7259,1.7686,0.1073,-8.8823,10.5692,-1.4627,7.6305,-1.1004,5.5819,7.2707,2.7395,-6.1512,-2.0852,3.6661,-0.2032,10.9393,4.1986
2035.1562,-12.4596,10.5594,9.1952,1.9469,-0.0908,-9.0806,13.7991,-2.3748,10.7667,2.4678,9.2844,7.9842,4.0524,-5.3577,1.3532,7.0199,1.5029,13.4538,5.6426
2039.0625,-8.9325,11.0347,8.4270,1.7456,-0.6594,-8.6293,13.4908,-3.5033,11.3785,3.7458,8.5140,7.9002,4.7727,-4.2196,2.7699,8.6072,2.6358,14.1017,5.0679
2042.9688,-3.6404,7.5046,5.5421,0.9137,-1.6441,-6.8680,10.8835,-4.8469,9.5304,2.9134,5.9315,7.5031,4.9218,-2.9217,1.8256,8.1453,3.1672,12.6128,2.8665
2046.8750,1.8802,1.9274,1.5623,-0.5368,-2.6301,-3.5391,7.9611,-6.0318,6.1125,0.9382,4.4882,7.4372,5.0057,-1.3762,-0.7656,6.0903,3.5564,9.3644,0.3012
2050.7812,5.9494,-3.5808,-2.3845,-2.4054,-3.0773,0.4817,5.8393,-6.6299,2.2025,-1.0507,5.3120,7.6370,5.3968,0.5092,-3.5410,3.4281,4.2236,5.0295,-1.4881
2054.6875,7.2700,-7.7607,-5.7245,-4.3701,-2.7105,3.3581,4.0799,-6.4695,-1.4745,-2.3978,7.1360,7.0231,5.7987,2.5501,-5.1191,1.2135,5.0262,0.2661,-2.2722
2058.5938,5.3972,-10.3301,-8.4426,-5.9851,-1.6615,3.4400,1.4314,-5.6750,-4.6286,-3.1281,7.5304,4.2028,5.3206,4.2541,-4.9952,0.0491,5.2078,-4.3356,-2.7107
2062.5000,1.0350,-11.4054,-10.5087,-6.6674,-0.2733,0.5697,-2.6491,-4.4208,-7.0758,-3.6318,4.9005,-1.2506,3.1910,5.1015,-3.7514,-0.2225,3.9284,-8.1100,-3.5797
2066.4062,-4.0544,-10.9221,-11.3278,-5.7951,1.2480,-3.5327,-6.9979,-2.6451,-8.3992,-4.1339,-0.2522,-7.9727,-0.4176,4.9387,-2.5538,-0.4132,1.0070,-10.2530,-4.9118
2070.3125,-7.6634,-8.6234,-9.8273,-2.9754,3.0255,-6.2510,-9.1927,-0.0336,-8.0041,-4.4059,-5.6522,-13.2404,-4.1542,4.1669,-2.3120,-1.4846,-2.7048,-10.0577,-5.7741
2074.2188,-8.1079,-4.5857,-5.2453,1.6200,5.3710,-5.8057,-7.2281,3.6456,-5.5948,-3.9416,-8.7933,-14.5302,-6.1413,3.5438,-3.0806,-3.9079,-5.6604,-7.3780,-4.8942
2078.1250,-5.0683,0.2917,1.9523,7.0818,8.4044,-2.4768,-1.1734,8.0942,-1.6783,-2.4155,-8.5036,-11.1592,-5.1415,3.7009,-4.0683,-7.2659,-6.4918,-2.9727,-1.6648
2082.0312,0.2201,4.4116,9.8060,11.9466,11.7248,1.6041,6.5094,12.3158,2.4091,-0.0142,-5.4562,-4.8287,-1.4352,4.7003,-4.1831,-10.3632,-4.8455,1.6218,3.2347
2085.9375,5.5998,6.2676,15.5943,14.7286,14.4016,3.9415,12.3482,14.9513,5.1181,2.6387,-1.4393,1.3363,3.2195,5.9395,-2.7164,-11.8180,-1.6192,4.7353,8.0642
2089.8438,9.0926,5.3543,17.1797,14.5525,15.3349,3.3262,14.0230,14.9712,5.5872,4.8820,1.8948,4.5776,6.5491,6.4805,0.2467,-10.8189,1.5472,5.3766,10.9281
2093.7500,9.8113,2.5062,14.1283,11.5428,13.7856,0.4608,11.7757,12.2830,4.1922,6.3950,3.8529,3.9158,7.0224,5.5975,3.8716,-7.6125,3.1833,3.7066,10.7369
2097.6562,8.1878,-0.5812,7.9174,6.7542,9.7787,-2.7681,8.0782,7.8387,2.3271,7.2720,4.6666,0.3674,4.6218,3.2070,6.9847,-3.4375,2.7311,0.8760,7.6498
2101.5625,5.5271,-2.2623,1.1723,1.6888,4.1692,-4.6199,5.8441,3.1491,1.5492,7.8178,4.9240,-3.9166,0.7227,-0.0593,8.6251,0.0722,0.7238,-1.6387,2.8593
2105.4688,3.3242,-1.6110,-3.5402,-2.3231,-1.6420,-4.3003,6.5012,-0.4909,2.6805,8.3352,5.1092,-6.7925,-2.7258,-3.1529,8.5044,1.6953,-1.6119,-2.7554,-1.9869
2109.3750,2.8057,1.5198,-4.6901,-4.5655,-6.1991,-1.7100,9.2614,-2.5854,5.4535,9.1208,5.5855,-6.8275,-4.1596,-5.0908,7.1948,1.2164,-3.0235,-2.1455,-5.3443
2113.2812,4.7967,6.8233,-2.1845,-5.0382,-8.4904,3.3326,11.9648,-3.5017,8.8533,10.5938,6.7853,-3.4765,-3.0034,-5.3791,5.9287,-0.4972,-2.8080,-0.1369,-6.1490
2117.1875,9.6548,13.7133,2.7497,-4.2620,-8.2865,11.3321,12.7149,-4.0361,11.7993,13.2684,9.1344,2.8591,0.2368,-4.2027,6.0252,-1.9549,-1.0788,2.6131,-4.0953
2121.0938,17.0213,21.0854,7.9783,-2.9568,-6.1997,22.2770,11.0632,-4.8076,13.6493,17.3972,12.5745,10.6220,4.2586,-2.3296,8.1705,-1.7905,1.3125,5.3793,0.1336
2125.0000,25.5084,27.0133,11.0729,-1.7527,-3.4165,34.3332,8.0148,-5.8614,14.2685,22.5005,16.1246,17.0555,7.4413,-0.7723,11.9745,0.5793,3.1398,7.4690,4.8564
2128.9062,32.7959,29.0487,10.1585,-1.0046,-1.1574,43.4529,5.1147,-6.6867,13.8284,27.2706,18.1235,18.9663,8.4223,-0.3204,16.1817,4.6980,3.3607,8.3005,7.8999
2132.8125,36.4902,25.4144,4.8791,-0.7206,-0.0696,44.8598,3.4935,-6.5848,12.6691,30.1686,17.3127,14.4510,6.7008,-1.1188,19.5377,9.3103,1.7032,7.6161,7.6531
2136.7188,35.4861,16.5101,-2.9887,-0.6094,0.1260,35.9236,3.5567,-5.1377,11.3550,30.4573,14.0907,4.7136,3.0521,-2.5053,21.7821,12.9575,-0.9933,5.7609,4.1753
2140.6250,30.9392,5.5390,-9.8918,-0.2592,0.4621,18.5573,5.2696,-2.5120,10.7087,28.9007,10.8385,-5.5578,-0.5882,-3.2671,23.9773,14.6169,-2.9796,3.7346,-0.4590
2144.5312,25.9364,-2.6275,-12.0518,0.5873,2.0249,-0.8359,8.4438,0.5538,11.5148,27.4290,10.7029,-10.2136,-1.9643,-2.2902,27.7203,14.0751,-2.4253,2.7695,-3.1064
2148.4375,23.7470,-4.0528,-7.5924,1.7907,5.0943,-14.3786,12.5775,3.0664,13.8960,27.7857,15.3927,-5.3538,0.2018,0.6866,33.6134,11.8779,1.4563,3.5514,-1.4549
2152.3438,25.6440,1.7230,2.0389,2.7855,8.6940,-17.1112,16.4528,4.2420,16.8228,30.0558,23.5098,7.5848,5.2050,4.6655,40.1059,8.9282,7.6534,5.6002,4.2873
2156.2500,29.8380,11.0011,12.4875,2.8589,10.9595,-9.9774,18.1753,3.8865,18.3432,32.2571,30.8356,21.8033,10.4321,7.6834,43.8086,5.9900,13.5804,7.3715,11.1782
2160.1562,32.4727,17.8462,18.7976,1.6265,10.2180,0.6877,16.0947,2.4793,16.6790,31.5246,32.7259,28.8147,12.7181,7.7751,41.4411,3.3899,16.3470,7.1972,15.1852
2164.0625,30.2140,17.6039,18.3202,-0.5939,6.1450,7.0288,10.1941,0.8834,11.5953,26.2179,27.1820,23.8124,10.2782,4.1230,32.2871,1.0674,14.4126,4.5236,13.7509
2167.9688,22.7144,9.8099,12.3350,-2.8079,0.2047,4.5086,2.8343,-0.1828,5.0169,17.4477,16.4689,9.1766,3.9597,-2.2982,19.3778,-1.1060,8.5814,0.5563,7.5644
2171.8750,13.1614,-1.4356,5.2123,-3.8309,-5.0160,-5.3749,-2.0837,-0.5957,0.2199,8.7789,5.9841,-6.5484,-3.1334,-9.0473,8.2596,-2.9987,1.6156,-2.2749,0.2327
2175.7812,6.3887,-9.9204,1.5741,-2.9650,-7.2459,-16.2105,-1.3747,-0.8710,-0.0915,4.1390,0.9521,-13.9093,-7.5315,-13.4067,3.8356,-4.1439,-3.3798,-1.8043,-4.0361
2179.6875,5.7781,-11.0304,3.3311,-0.4232,-5.8389,-20.8386,5.1393,-1.7055,4.4048,5.3244,3.1102,-8.7121,-7.5940,-13.7777,7.2785,-3.9944,-4.7876,2.3955,-3.1953
2183.5938,11.1090,-4.3469,8.6073,2.8115,-2.0931,-15.8298,14.0042,-3.2730,11.2702,10.9011,9.6689,5.0885,-4.4992,-10.4580,15.2078,-2.3344,-3.3162,8.6078,1.3495
2187.5000,18.8838,6.4324,13.2573,5.6232,1.6401,-3.4491,19.8886,-4.7762,16.7658,17.3495,15.3141,17.8985,-1.3044,-5.3482,21.9003,0.4668,-1.2866,13.9963,5.8322
2191.4062,24.8922,16.0136,13.8595,7.4727,3.4566,9.9862,18.7698,-4.6691,18.2500,21.6618,15.9121,20.8461,-0.7096,-0.7909,23.1727,3.5855,-0.8783,16.4125,6.8273
2195.3125,27.1496,20.7067,10.0489,8.6865,2.9968,18.1248,10.4901,-1.5430,15.8723,23.4881,11.3713,11.7472,-3.1048,1.7232,19.2706,6.2172,-2.5695,15.7598,3.6411
2199.2188,27.0857,20.2922,4.5878,10.1187,1.4319,18.3594,-1.0432,4.8244,12.3603,25.2250,5.6850,-3.3711,-6.2961,2.2112,14.6643,8.0849,-4.8597,13.9665,-1.2821
2203.1250,28.1551,17.5944,1.2411,12.4215,0.4256,13.1055,-10.1566,12.9625,11.0286,29.9482,4.1277,-14.2239,-7.1097,1.8903,14.7760,9.6049,-5.4367,13.5882,-4.1716
2207.0312,32.9400,16.3327,2.0801,15.4411,0.8738,8.0192,-12.6552,20.1749,13.4143,38.7166,9.5322,-13.0179,-3.7226,2.2053,21.8850,11.5498,-2.9266,16.0110,-2.6126
2210.9375,40.9139,18.7676,6.1504,18.1744,2.3356,8.4545,-7.9005,23.8032,18.2116,49.2803,20.1823,0.5258,2.9494,3.8689,33.1349,14.4063,2.0318,20.4920,2.8157
2214.8438,48.5332,24.5274,10.3438,19.3377,3.5223,16.3421,1.4467,22.5753,22.2359,57.2280,30.7243,19.1350,9.7823,6.5068,42.1649,17.8790,7.1353,24.6697,9.0370
2218.7500,51.6130,31.0752,11.6872,18.1838,3.4150,29.1979,11.4971,17.2482,22.6957,58.8366,35.4602,32.7762,13.5023,9.0487,43.3495,20.9406,9.9180,26.1559,12.6536
2222.6562,48.2952,35.2886,9.3300,15.0450,2.1455,41.6052,19.3513,10.1887,19.1504,53.6429,31.8451,34.9531,12.8218,10.5223,35.7610,22.4640,9.3490,24.1149,12.1988
2226.5625,40.5074,35.1621,4.8963,11.2620,0.9842,48.1563,24.0000,4.1892,13.8158,44.9382,21.9694,26.3985,9.2116,10.6987,24.1004,22.0396,6.4520,19.7997,8.9355
2230.4688,32.9027,30.7936,1.1644,8.5433,1.4655,46.2036,25.6906,1.2297,10.0938,37.8417,11.2124,14.0015,5.8662,10.1967,15.9021,20.3854,3.5912,15.7575,5.7958
2234.3750,30.0308,24.3071,0.2048,8.1202,4.2972,37.0508,24.7754,1.8264,10.4268,36.2614,5.0774,6.0370,5.6569,10.0313,16.8470,18.9798,2.9700,14.2830,5.3575
2238.2812,33.6642,18.8367,2.3083,10.1477,8.8242,25.1240,21.2697,5.1535,14.9416,40.7426,6.2601,7.0203,9.4604,10.9233,27.2729,19.0701,5.3488,16.1075,8.2955
2242.1875,42.0102,17.0287,6.2562,13.6291,13.3767,15.6763,15.4855,9.6547,21.6641,48.5115,13.6581,15.4288,15.8576,12.7919,42.1123,20.6901,9.7449,20.0660,13.2352
2246.0938,51.1928,19.7010,10.4385,16.8693,16.2088,12.2343,8.9686,13.6986,27.9460,55.4984,23.6558,25.3863,22.1943,14.7118,54.1743,22.3985,14.1730,23.8251,17.8680
2250.0000,57.8644,25.3148,13.8460,18.2255,16.3805,15.0479,4.5710,16.0087,31.9951,58.8752,32.5812,30.8029,26.1425,15.3488,58.5236,22.0283,16.8463,25.1543,20.3900
2253.9062,61.1481,30.6512,16.2986,16.8267,14.0692,21.2580,5.1860,15.8811,33.5220,58.4621,38.6519,29.1150,26.7488,13.6432,55.1358,18.0622,17.0737,23.0193,20.3083
2257.8125,62.6767,32.5053,18.0237,12.9644,10.2530,26.6214,11.8614,13.3214,33.2959,56.2695,42.2694,22.3724,24.4883,9.3965,48.2963,10.7731,15.4000,17.9873,18.2895
2261.7188,64.8435,29.5517,19.1650,7.9864,6.1088,27.8334,22.6854,9.1164,32.1849,54.7174,44.7400,15.3503,20.5696,3.4656,43.3938,2.3448,13.0499,11.8547,15.4294
2265.6250,68.5761,23.2482,19.6776,3.7182,2.5444,24.1981,33.4115,4.6926,30.4840,54.8595,46.5495,12.2374,16.1328,-2.5479,43.3599,-4.1872,11.1142,6.7696,12.5865
2269.5312,72.2233,17.0924,19.5623,1.6483,0.0561,17.7833,39.5786,1.6323,27.9457,55.7733,46.5431,14.1331,11.8536,-6.9800,47.0339,-6.5666,9.9679,4.2887,10.1627
2273.4375,72.3819,14.5586,19.0489,2.2598,-1.1865,12.0730,38.8201,0.9677,24.3206,55.4004,42.6659,18.8048,8.0331,-8.8254,50.3187,-4.5139,9.2019,4.7802,8.2626
2277.3438,66.1894,16.9931,18.4591,4.8598,-1.2329,9.9801,31.9428,2.6432,19.8802,52.1500,33.7838,22.5927,4.8966,-8.1220,49.1547,0.2509,8.0362,7.4068,6.9211
2281.2500,53.6072,22.8739,17.8875,8.0198,-0.3188,12.3884,22.2312,5.5417,15.5074,46.1452,21.2831,23.0328,2.7726,-5.7955,42.2824,5.1356,5.9443,10.6663,6.1775
2285.1562,38.1534,28.9551,17.0898,10.3860,1.1565,17.9753,13.5872,8.1383,12.3372,39.3002,9.1883,20.4663,2.0191,-3.0674,32.0703,8.1886,3.1241,13.2013,6.0221
2289.0625,25.4571,32.4857,15.7809,11.3728,2.7436,24.2250,8.7106,9.3850,11.2371,34.2105,2.4494,17.6807,2.7945,-0.7965,23.0470,9.0218,0.5290,14.4398,6.3656
2292.9688,20.3798,32.9070,14.0972,11.3070,4.1352,28.8512,8.2482,9.2273,12.4557,32.6199,4.2804,17.9308,4.8661,0.8390,19.2416,8.6284,-0.6039,14.7077,7.0973
2296.8750,24.4131,31.8290,12.7241,10.9530,5.2958,30.7480,11.0525,8.3998,15.5827,34.4882,14.1762,22.6929,7.5936,2.1525,22.0833,8.3741,0.5033,14.7697,8.1445
2300.7812,34.9725,31.4014,12.4274,10.7859,6.3964,30.0677,15.0576,7.6874,19.7611,38.2783,27.9534,30.6137,10.1121,3.4532,30.0896,8.9792,3.5975,15.1360,9.4207
2304.6875,47.0549,32.4256,13.2947,10.5756,7.5827,27.6679,18.1908,7.2516,24.0081,42.2435,39.9513,38.3027,11.6544,4.6635,40.2925,10.2247,7.4015,15.6482,10.6903
2308.5938,56.1926,33.7262,14.3633,9.6173,8.7695,24.4911,19.0365,6.5659,27.5185,45.7583,46.1219,42.4034,11.8913,5.3703,50.2003,11.4817,10.2815,15.6632,11.5259
2312.5000,60.7532,33.2583,14.1024,7.4500,9.6519,21.2744,17.2358,5.0090,29.8578,49.6336,46.0868,41.5529,11.1291,5.2681,58.8311,12.5015,11.2079,14.6966,11.4972
2316.4062,62.0701,30.0074,11.5220,4.4942,9.9423,18.5659,13.6003,2.6180,30.9733,55.0431,42.8388,36.9520,10.2079,4.6034,66.1659,13.7266,10.3781,12.9969,10.5128
2320.3125,62.4286,25.0825,7.0867,2.0546,9.6307,16.7650,9.7916,0.3488,31.0014,61.7777,40.3068,31.2428,10.0607,4.1966,71.6615,15.8232,9.0326,11.5378,9.0269
2324.2188,62.5441,21.0599,2.6445,1.5910,9.0260,16.0047,7.5010,-0.4343,29.9852,67.2601,40.4635,26.5830,11.1133,4.9359,73.2994,18.8419,8.5424,11.3591,7.8615
2328.1250,60.6283,20.0696,0.3040,3.7292,8.5221,15.9974,7.4410,1.0967,27.7373,67.4591,42.0018,23.3471,12.8987,7.0912,68.3347,21.7838,9.3952,12.7361,7.6944
2332.0312,53.9921,22.1652,1.0360,7.7311,8.2853,16.1218,8.8184,4.5550,24.0525,59.5477,41.5360,20.3792,14.2274,9.9937,55.5732,23.0684,10.8411,14.8601,8.5771
2335.9375,42.1128,25.3029,4.0523,11.8485,8.1481,15.8455,9.8324,8.4516,19.2159,44.6756,36.4856,16.5025,13.9326,12.3938,37.5789,21.6565,11.5038,16.3591,9.8921
2339.8438,28.6966,26.9551,7.4500,14.3599,7.8210,15.2114,9.0536,11.0431,14.4217,28.7046,27.5412,11.9837,11.7630,13.2871,20.8309,17.9753,10.5312,16.3226,10.8319
2343.7500,20.6919,26.0616,9.6325,14.5840,7.2374,14.9406,6.7425,11.3322,11.6171,19.7977,18.8303,8.6515,8.7712,12.5979,13.0081,13.8484,8.3953,15.0432,11.0458
2347.6562,24.3434,23.7568,10.4083,13.1779,6.6963,15.9429,4.9953,9.5577,12.6066,23.8711,15.4960,8.4397,6.7970,11.1753,18.6359,11.3523,6.6638,13.8482,10.9207
2351.5625,40.7435,22.3273,10.9268,11.5471,6.6219,18.5337,6.3548,6.9180,17.8425,40.6683,20.2658,11.4733,7.2683,10.0667,35.8387,11.3805,6.8368,14.0862,11.2338
2355.4688,64.1133,23.2942,12.5457,10.8353,7.1070,21.9832,11.7469,4.8178,25.7447,63.2233,31.3805,15.3467,10.1138,9.6167,56.6489,13.0015,9.1051,16.0325,12.4343
2359.3750,84.4498,26.2030,15.5773,11.2429,7.6595,24.8447,19.3179,4.1912,33.2195,81.4707,43.3771,16.4495,13.6278,9.1201,71.1732,14.1585,12.0177,18.6013,14.1608
2363.2812,93.1818,29.0835,18.9500,12.1330,7.4624,25.9091,25.2643,5.2755,37.2860,87.9802,50.2766,12.5996,15.5238,7.3652,73.2618,13.2548,13.4100,20.1652,15.4479
2367.1875,88.2215,30.1473,21.0641,12.7652,6.0502,25.0903,26.2888,7.7878,36.8680,82.1862,49.1040,5.0669,14.5453,3.7160,64.0693,10.4545,11.9770,19.9064,15.5252
2371.0938,75.0185,29.2951,21.1511,13.0287,3.9056,23.5351,21.9725,11.1819,33.5347,70.3339,41.4867,-1.7013,11.5100,-1.0819,51.0926,7.6869,8.3381,18.6484,14.5890
2375.0000,62.8764,28.2047,20.0219,13.5730,2.4391,22.8289,15.2306,14.7285,30.5743,61.1907,32.4298,-2.7470,8.9630,-5.0426,43.2469,7.2933,4.7577,18.4480,13.8842
2378.9062,59.0408,28.9717,19.5723,15.2319,3.2240,23.8806,10.3522,17.4676,30.9141,60.4491,27.2422,4.0472,9.5582,-6.0314,45.2542,10.2839,3.6639,21.1456,14.9328
2382.8125,64.5405,32.4463,21.3874,18.2017,6.9274,26.3351,9.9609,18.2963,35.2423,67.5744,28.6618,16.2753,14.2138,-3.1094,55.0923,15.4994,5.9951,26.8886,18.4137
2386.7188,74.4096,37.5918,25.4894,21.6299,12.6701,28.9364,13.1448,16.3648,41.5994,77.0332,35.8430,28.2662,21.3086,2.7766,66.0722,20.3168,10.5470,33.7188,23.5096
2390.6250,81.7503,42.2824,30.1604,23.9708,18.3139,30.4990,16.2091,11.6287,46.7052,82.6903,45.4556,34.4942,27.5216,9.2283,71.8372,22.3956,14.7624,38.5858,28.2275
2394.5312,82.4813,44.7811,32.9643,23.8922,21.5557,30.6705,15.5388,5.1592,48.0848,82.0259,53.8040,32.8345,29.7999,13.6634,70.5882,21.1923,16.3754,39.1380,30.5050
2398.4375,77.4479,44.6892,32.2358,21.1218,21.1482,29.8917,10.4186,-1.1126,45.5375,77.2358,58.5224,25.5010,27.1812,14.5943,65.6092,18.1695,14.7564,35.1071,29.3634
2402.3438,70.8236,42.7636,28.0365,16.6691,17.4881,28.6879,3.6510,-5.1657,41.0188,72.8250,59.0828,17.1988,21.3044,12.1692,62.0660,15.6221,11.0997,28.4130,25.3631
2406.2500,66.5592,40.0387,22.0357,12.2907,12.2458,27.0250,-0.5240,-5.7514,37.1727,71.9515,56.3450,11.9843,15.3368,7.7823,62.8433,15.0658,7.4788,22.0076,20.1414
2410.1562,65.8413,37.2177,16.5392,9.5573,7.3559,24.3975,0.3787,-2.8566,35.6582,74.4847,51.8775,11.0899,12.0727,3.1728,66.7271,16.3933,5.5585,18.2847,15.4413
2414.0625,67.3033,34.8431,13.3673,9.0860,4.0485,20.6233,5.2296,2.4318,36.4162,78.0458,47.5046,13.0438,12.4241,-0.3557,70.1645,18.3266,5.8503,18.0377,12.2997
2417.9688,69.2471,33.8153,13.1972,10.3348,2.4769,16.5934,10.1757,8.4598,38.1916,80.7031,44.9722,15.5930,15.1591,-2.2245,70.8453,19.6472,7.8376,20.4391,10.8284
2421.8750,71.5049,35.3376,15.5318,11.9829,2.0118,14.1332,11.5656,13.5478,39.6581,82.6644,45.3948,17.6649,17.8819,-2.4622,69.8716,20.1107,10.6003,23.7836,10.5261
2425.7812,75.1019,39.8791,19.0585,12.6073,1.8343,14.8175,8.6298,16.2994,40.1605,85.3330,48.5025,19.8120,18.5063,-1.5067,70.5175,20.2954,13.3090,26.3508,10.7327
2429.6875,80.0345,45.8533,22.1116,11.2958,1.3694,18.5124,3.8560,15.7416,39.5829,88.5800,52.2443,22.9954,16.3071,-0.1317,74.5327,20.5957,15.2723,26.9027,10.8898
2433.5938,83.3491,49.3702,23.1275,7.9590,0.3655,22.8145,0.8201,11.5148,37.6907,88.8819,53.3846,26.9695,12.0516,0.6030,79.1886,20.3344,15.7554,24.7798,10.5667
2437.5000,79.6539,45.8696,21.1185,3.2970,-1.2344,24.0224,1.2199,4.1764,33.7474,80.4887,49.1120,29.8010,7.3314,-0.3738,77.9094,17.9043,14.0175,19.8747,9.4497
2441.4062,64.2259,32.9675,16.0988,-1.5036,-3.3602,19.1736,3.4560,-4.6087,26.9062,59.3190,38.7991,29.0285,3.6166,-3.5821,64.5530,11.9849,9.7464,12.6928,7.4465
2445.3125,36.6132,12.6137,9.2093,-5.2136,-5.7119,7.8525,3.8750,-12.3472,17.1143,26.8185,24.6815,23.5546,1.5652,-8.4423,38.3755,2.9329,3.5687,4.4190,4.8362
2449.2188,1.9904,-9.2129,2.2989,-7.0043,-7.6394,-7.4204,-0.2909,-16.5811,5.7260,-9.3540,10.8020,14.7287,0.8554,-13.2222,5.8652,-6.8183,-2.9102,-3.2720,2.2416
2453.1250,-30.9355,-25.4536,-2.9627,-6.7296,-8.2444,-22.4443,-8.5558,-15.9897,-4.8200,-38.8016,0.7631,5.7148,0.5073,-15.7290,-22.2566,-13.8336,-7.7810,-8.7725,0.3176
2457.0312,-54.1535,-31.8191,-5.9499,-4.9206,-6.7791,-33.3679,-17.1989,-11.0821,-12.1723,-53.9380,-4.2642,-0.4126,-0.5176,-14.4717,-37.0660,-15.6077,-9.8610,-11.2274,-0.6712
2460.9375,-63.9173,-29.0221,-7.3138,-2.4772,-3.1275,-38.2173,-21.6687,-3.9826,-15.3043,-53.9162,-5.9464,-2.4454,-2.7126,-9.5950,-36.4520,-12.0584,-9.3487,-10.9000,-1.0357
2464.8438,-61.5272,-21.9191,-8.3455,-0.2098,1.9726,-37.1657,-19.6099,2.6282,-14.9502,-44.3714,-7.3832,-1.4661,-5.6788,-2.9368,-25.7997,-5.5663,-7.5872,-8.9274,-1.4001
2468.7500,-51.3819,-16.2268,-9.8820,1.5059,7.1714,-31.7604,-12.3605,6.7926,-12.9711,-33.4064,-10.9418,0.2270,-8.2269,2.9033,-14.1284,0.4419,-6.0843,-6.6065,-2.1506
2472.6562,-38.2284,-15.1191,-11.5739,2.7588,11.0911,-23.9467,-3.9596,8.0047,-11.1632,-26.8076,-16.8488,0.7475,-8.9465,5.9386,-8.5868,3.3851,-5.5239,-4.7030,-3.0355
2476.5625,-25.6485,-17.9428,-12.1231,3.8231,12.9002,-15.5798,1.4848,7.0198,-10.3646,-25.7062,-23.3977,-0.3907,-7.0077,5.7643,-11.0354,2.6843,-5.5026,-3.2445,-3.2839
2480.4688,-16.2844,-21.6263,-10.3758,4.8032,12.5476,-8.4413,2.1699,5.0147,-10.3928,-27.7736,-28.3964,-2.4453,-2.7539,3.5509,-18.5570,-0.4000,-5.1461,-1.8692,-2.2057
2484.3750,-12.6085,-23.4101,-6.4668,5.4818,10.5854,-4.2491,-0.7978,2.7713,-10.6570,-30.3477,-30.6456,-4.3549,2.3153,1.1427,-26.7530,-3.8793,-4.0468,-0.3735,0.1726
2488.2812,-16.7157,-22.7708,-2.1128,5.4843,7.7790,-4.2375,-4.6869,0.4315,-10.8274,-32.7442,-30.4112,-5.5290,6.2393,-0.0956,-32.9497,-6.1919,-2.7323,1.0049,2.9477
2492.1875,-28.8789,-21.2989,0.2447,4.6004,4.7817,-8.4619,-7.1479,-2.1448,-11.0364,-36.1226,-28.7936,-6.0016,7.5913,0.0462,-37.0887,-6.6993,-2.2820,1.7567,4.8058
2496.0938,-46.2005,-20.9926,-1.1077,2.9758,2.0149,-15.4607,-7.5016,-4.8563,-11.5835,-41.5300,-26.7641,-6.1055,6.1537,0.7571,-40.3007,-5.4943,-3.4372,1.5053,4.7792
2500.0000,-63.0467,-22.5469,-6.1023,0.9968,-0.3021,-22.7687,-6.6388,-7.1769,-12.5411,-48.1776,-24.7274,-6.1792,2.8495,0.9184,-42.9862,-3.0057,-5.9562,0.2591,2.7390
2503.9062,-73.6050,-24.9588,-12.9278,-1.0259,-2.1079,-28.1045,-5.9390,-8.4563,-13.6516,-53.5310,-22.7985,-6.5741,-0.9769,-0.1484,-44.2331,0.1455,-8.7465,-1.6810,-0.6921
2507.8125,-74.9873,-26.5008,-19.0506,-3.0754,-3.4958,-30.4260,-6.1757,-8.4037,-14.5446,-55.0109,-21.2356,-7.7341,-4.3723,-2.3448,-42.8467,3.0430,-10.6364,-3.9959,-4.6395
2511.7188,-68.5684,-26.0157,-22.4652,-5.3157,-4.6822,-30.0801,-7.1266,-7.3034,-14.9691,-51.6845,-20.3636,-9.9421,-7.0821,-4.9581,-38.6956,4.5148,-11.1278,-6.4744,-8.4139
2515.6250,-58.4824,-23.4361,-22.3896,-7.7175,-5.8649,-27.9949,-7.9249,-5.7731,-14.7736,-44.5101,-19.9552,-12.7191,-9.1988,-7.0943,-32.9235,3.6068,-10.5262,-8.8449,-11.5439
2519.5312,-48.4888,-19.3435,-19.1773,-9.7704,-7.0205,-24.6834,-7.6866,-4.2962,-13.7111,-35.1854,-18.7754,-14.4428,-10.5661,-8.0820,-26.8579,0.2953,-9.4244,-10.5363,-13.5083
2523.4375,-39.7921,-14.3232,-13.8318,-10.6246,-7.8183,-20.0076,-5.9606,-2.9626,-11.4271,-24.9893,-15.0777,-12.8838,-10.5796,-7.6952,-20.8601,-4.1701,-8.0916,-10.7531,-13.6104
2527.3438,-31.5907,-8.9477,-7.6624,-9.6776,-7.8047,-13.9674,-2.8788,-1.6563,-7.8637,-14.8868,-8.0578,-6.7280,-8.6846,-6.2075,-14.4903,-7.7798,-6.3797,-9.0178,-11.3310
2531.2500,-23.7000,-4.3951,-2.2469,-7.2126,-6.7974,-7.7697,0.8545,-0.5043,-3.8410,-6.6962,0.7571,2.8190,-5.2150,-4.3253,-8.0118,-8.9746,-4.2437,-5.8432,-7.0013
2535.1562,-18.6058,-2.8260,0.6313,-4.5463,-5.2001,-3.9943,4.0448,-0.1244,-1.2044,-3.7238,7.5220,11.7084,-1.7953,-2.9868,-3.6977,-7.7490,-2.3352,-2.9107,-2.1868
2539.0625,-20.5773,-6.6213,-0.5091,-3.4232,-3.9194,-5.2854,5.2655,-1.3414,-2.0809,-9.4232,7.9864,14.7565,-0.7404,-2.9891,-5.1953,-5.7650,-1.9633,-2.3585,0.7793
2542.9688,-31.9902,-16.5803,-5.9227,-4.9417,-3.8295,-12.2610,3.4246,-4.4889,-7.4752,-24.4333,0.3227,8.7089,-3.6341,-4.5245,-14.7808,-5.2478,-4.2207,-5.4469,0.0758
2546.8750,-49.7548,-30.3589,-13.9228,-8.7013,-5.0996,-22.2358,-1.4928,-8.8205,-16.1327,-44.2915,-13.0785,-5.2223,-9.9997,-6.8757,-30.4577,-7.3637,-8.8545,-11.4633,-4.2721
2550.7812,-65.2964,-42.6723,-21.1521,-12.8036,-6.8878,-30.0511,-7.9694,-12.5621,-24.6672,-60.3177,-26.3625,-21.2305,-17.0930,-8.5638,-45.5893,-11.2448,-13.8467,-17.7457,-10.0053
2554.6875,-69.1151,-47.6884,-24.0484,-14.8135,-7.7134,-30.8765,-13.2800,-13.7240,-29.2002,-64.0704,-33.3538,-31.6766,-21.1776,-8.0227,-52.1768,-14.4257,-16.2668,-21.0217,-13.6706
2558.5938,-57.2409,-42.3445,-20.8032,-13.1408,-6.3492,-23.2980,-14.6528,-11.2345,-27.6417,-52.8127,-31.1839,-31.2959,-19.6275,-4.5047,-46.0119,-14.4450,-14.0145,-19.3315,-12.5938
2562.5000,-34.8586,-28.3729,-12.5588,-7.9930,-2.6677,-10.5415,-10.7071,-5.6816,-21.1183,-32.0225,-21.9894,-20.2988,-12.5593,1.3356,-30.0383,-10.4990,-7.3031,-13.2977,-6.5663
2566.4062,-13.8745,-11.4929,-2.9265,-1.2936,2.1533,1.2215,-2.2940,0.8447,-13.4622,-12.5683,-11.4722,-4.3570,-2.9152,7.6265,-13.0784,-3.9828,1.2179,-5.8472,1.8898
2570.3125,-5.4261,1.8710,4.0224,4.3932,6.2546,6.5768,7.8295,5.7683,-8.9251,-3.8866,-5.2237,8.6251,5.1217,12.2277,-4.2838,2.4406,7.9127,-0.4772,8.9200
2574.2188,-12.2319,8.2261,6.0755,7.2762,8.1755,4.2233,16.3302,7.3382,-9.5208,-7.6304,-5.2462,13.0281,8.4442,13.9172,-6.9422,6.5433,10.2888,0.8665,11.5452
2578.1250,-26.2365,8.6050,4.0252,7.2470,7.6994,-2.2453,20.8238,5.5034,-13.7231,-16.3362,-8.9607,8.5882,6.6849,13.0770,-16.0666,7.7921,8.4115,-1.0436,9.2934
2582.0312,-33.5676,7.1507,0.9159,5.7790,5.9273,-6.6932,20.7173,1.8878,-17.3981,-18.3654,-11.2803,0.1968,2.2715,11.4172,-21.7118,7.3381,4.6812,-3.2465,4.2663
2585.9375,-23.7526,7.8236,-0.0726,4.9268,4.5513,-4.4252,17.0205,-1.0983,-16.4017,-5.9796,-8.2649,-5.3677,-1.0865,10.8740,-15.9192,6.8767,2.1665,-2.4844,-0.3138
2589.8438,2.9388,11.5861,2.3091,6.0463,4.8091,4.7621,11.4814,-1.5255,-9.2055,18.9097,0.1143,-3.7322,-0.5473,12.3588,1.4766,7.3091,2.6373,2.7088,-2.0787
2593.7500,34.9978,15.9413,6.6821,8.9721,6.7641,16.3748,5.7411,1.0571,2.0561,45.2817,9.8729,4.3498,4.2941,15.1376,22.2374,8.1812,5.5757,10.9700,-0.7705
2597.6562,56.4036,16.9487,10.0646,12.0909,9.3094,23.9223,0.9814,5.3879,12.6925,59.5347,15.5264,13.4393,11.2092,17.2381,34.7800,8.2083,8.7145,18.7014,1.8995
2601.5625,56.1772,12.1482,9.8479,13.2446,10.8301,22.7776,-1.9859,9.1421,17.9750,53.6991,13.5102,16.7229,16.5133,16.6487,31.4908,6.3670,9.6208,21.9313,3.5351
2605.4688,34.6818,2.3672,5.4251,10.9653,10.1026,12.8487,-2.5944,10.1523,15.5838,30.0730,4.3608,10.2449,16.9424,12.6006,13.4659,2.6962,7.2303,18.4110,2.5751
2609.3750,2.9938,-8.6589,-1.4778,5.3899,6.9434,-1.4169,-0.6727,7.5941,6.6953,-0.3797,-7.5587,-4.3968,11.2981,6.1865,-10.2355,-1.7202,2.4073,8.8621,-0.8667
2613.2812,-23.7284,-16.3829,-7.8263,-1.6353,2.3234,-13.5037,3.2280,2.5009,-4.6966,-24.3746,-16.4474,-20.4909,1.1168,-0.0438,-27.9902,-5.4408,-2.6696,-3.2217,-5.2168
2617.1875,-34.3723,-17.7979,-10.9194,-7.3494,-2.0467,-18.2145,7.7287,-2.7212,-13.6944,-33.1285,-18.0709,-29.6536,-9.9080,-3.2961,-31.9579,-7.4231,-5.7579,-13.0942,-8.4198
2621.0938,-26.6733,-12.6938,-9.6822,-9.4050,-4.4385,-14.0928,11.0468,-5.5759,-16.6295,-25.6934,-11.7224,-26.4405,-17.4905,-1.9139,-21.5166,-7.3346,-5.6382,-16.8735,-9.0261
2625.0000,-6.5754,-3.3711,-4.9982,-7.0638,-3.8318,-3.7506,11.8298,-4.8588,-12.4724,-7.6083,-0.2467,-11.5629,-18.6293,3.7808,-2.2666,-5.3657,-2.4998,-13.2797,-6.8101
2628.9062,16.4160,6.7094,0.9296,-1.6027,-0.3569,7.8036,9.8980,-1.3090,-3.0232,13.3186,11.6864,8.2092,-12.9496,11.6123,17.9934,-1.8974,2.3979,-4.1799,-2.7037
2632.8125,34.4824,14.4979,5.7442,4.3479,4.7398,15.7710,6.3912,2.9169,8.0969,31.0539,20.0534,23.6040,-2.8503,18.5768,33.4315,2.6141,7.4418,6.3533,1.7961
2636.7188,44.4524,18.5019,8.0450,8.2346,9.6347,17.7554,3.2105,5.6613,17.1964,43.1511,23.4584,28.0188,7.6841,22.2595,42.2252,7.5093,11.3455,14.0757,5.3883
2640.6250,47.6699,19.2346,7.9894,9.0036,12.7701,14.5794,2.1118,6.1708,22.2624,50.2510,23.7110,21.3845,15.0656,21.9383,46.0742,11.8467,13.5482,16.7179,7.5485
2644.5312,47.8904,18.9130,7.1693,7.6727,13.5996,9.5096,3.9906,5.5328,23.8938,54.5396,24.7431,10.3698,17.8568,18.8151,48.2972,14.6554,14.2732,15.1193,8.7027
2648.4375,48.9101,20.4491,7.8065,6.6644,12.8101,6.4056,8.6784,5.8085,24.8749,58.3933,30.3638,4.6015,17.3138,15.2580,51.9315,15.4631,14.2999,12.6663,9.9407
2652.3438,53.0099,25.9619,11.5747,8.2524,11.8368,7.7421,15.1773,8.4349,28.4635,63.5688,41.9296,10.9566,16.3764,13.4525,58.5670,14.6964,14.5377,13.2542,12.3920
2656.2500,60.3768,35.3887,18.5647,13.0486,11.9134,13.4553,22.0354,13.0262,36.2214,70.6376,57.1520,29.2578,17.6701,14.1975,67.8929,13.5419,15.5429,18.8679,16.5332
2660.1562,69.2588,46.0064,26.9471,19.4782,13.2334,21.1397,27.6511,17.4687,46.6386,78.5223,70.8066,51.9901,21.7206,16.5129,77.7539,13.2371,17.1803,28.1911,21.7601
2664.0625,76.7209,53.4188,33.6232,24.5945,14.7887,27.4442,30.5366,19.2980,55.5204,84.5438,77.1584,68.2969,26.4950,18.2772,84.7756,14.2322,18.6306,37.1263,26.4762
2667.9688,79.9696,53.7645,35.6581,25.7499,15.0370,29.8971,29.6845,17.4038,58.1426,85.5039,72.9251,69.9399,28.5983,17.5137,85.7080,15.8355,18.8015,41.0003,28.7199
2671.8750,77.9090,46.0018,31.7982,22.1026,12.9850,28.1629,25.0251,12.8377,52.0499,79.6440,59.1768,55.7450,25.4257,13.5633,79.2010,16.6442,16.9636,37.2039,27.0749
2675.7812,72.1082,32.8484,23.2391,15.0612,8.9650,24.0608,17.6991,8.1230,38.8334,68.3378,41.0533,32.0501,16.9646,7.4636,67.0828,15.5060,13.2573,26.7319,21.4400
2679.6875,66.3244,19.6333,13.1730,7.4633,4.5565,20.3955,9.8065,5.5490,23.7071,56.1108,25.3851,9.1413,6.1361,1.3539,54.0893,12.3599,8.7521,13.7420,13.2729
2683.5938,64.4714,11.6159,5.3222,2.0633,1.6830,19.3416,3.5755,5.6725,12.9816,48.4946,17.5026,-4.0184,-2.5673,-2.6780,45.7618,8.3814,4.9874,3.4307,5.1548
2687.5000,68.0822,11.3423,2.2423,0.2602,1.4748,21.3426,0.3487,7.0923,10.8207,48.8091,18.9565,-3.7537,-5.3934,-3.5961,45.4951,5.3396,3.2366,-0.5223,-0.1747
2691.4062,74.9566,17.6047,4.2803,1.7255,3.6391,25.1080,0.0323,7.6160,17.1231,55.9753,27.2592,7.5020,-1.3146,-1.7263,52.5077,4.5971,3.8937,2.4561,-0.9394
2695.3125,80.1504,26.5113,9.6492,4.9492,6.7089,28.5720,1.4122,5.9241,27.7026,64.9948,37.5293,23.2865,7.3761,1.6622,62.1102,6.3857,6.2971,9.9292,2.8443
2699.2188,78.9602,33.8224,15.4458,8.1826,8.9452,30.1182,3.1519,2.5048,36.5865,69.9787,44.9029,36.3579,16.1433,5.1011,68.2414,9.7575,9.0542,17.9464,9.1989
2703.1250,70.1053,37.0234,18.9890,10.1709,9.2673,29.3224,4.7641,-0.7752,39.0787,67.8214,46.3973,41.3207,20.3920,7.4968,66.7835,13.1567,10.6775,22.9713,14.8414
2707.0312,57.0051,36.0062,18.8424,10.3980,7.6620,26.9038,6.8372,-2.0649,33.9334,60.1093,41.5582,35.8942,17.6762,8.3079,57.7085,15.2094,10.2390,23.2594,16.5257
2710.9375,46.1991,32.3288,15.1969,8.9761,4.9570,24.1264,10.3360,-0.7996,23.6426,52.0424,32.0959,21.1651,8.8971,7.4592,44.9262,15.2924,7.7842,19.2170,12.6011
2714.8438,43.7870,27.9246,9.6432,6.4756,2.2685,22.1569,15.5076,2.0679,12.9426,49.1503,21.1318,1.3901,-2.0526,5.2595,34.1566,13.6567,4.3611,12.8695,4.0763
2718.7500,52.0374,24.2226,4.5380,3.8236,0.5371,21.7291,21.2548,4.9432,6.4934,53.9836,12.4519,-16.6758,-10.0469,2.4264,30.1968,11.1564,1.6361,6.8838,-5.4725
2722.6562,68.1546,22.0060,2.1642,2.1518,0.3359,23.1004,25.5240,6.7957,6.8872,64.8075,9.6699,-25.4820,-11.1185,0.0459,34.9872,8.7875,1.1889,3.5630,-11.3600
2726.5625,85.7913,21.6280,3.8592,2.4205,1.8339,26.0662,26.5121,7.7344,13.7519,76.8605,15.0516,-19.6223,-4.3980,-0.7674,47.1079,7.2546,3.7250,4.0658,-10.0995
2730.4688,98.2433,23.0576,9.3616,4.8766,4.7249,29.8927,23.8748,8.5753,24.1179,85.0938,28.1686,0.9563,7.3447,0.5009,62.4979,6.7224,8.5640,8.0041,-1.4180
2734.3750,101.4431,25.6645,16.7103,8.6980,8.1275,33.2975,19.0880,9.8637,33.7401,86.6050,45.1676,29.4674,18.9178,3.2311,75.8509,6.8443,13.7513,13.5683,11.2319
2738.2812,95.2732,28.1669,22.9347,12.2146,10.6924,34.7415,14.6892,11.2377,38.8290,81.5286,59.5855,54.2211,25.1941,5.7392,82.2807,7.0683,16.8879,18.2570,22.1829
2742.1875,82.9005,29.1663,25.4023,13.7655,11.1188,33.1101,12.8868,11.6931,37.5806,72.3366,64.9240,63.8533,23.6756,6.1407,79.0097,7.0850,16.3652,20.0376,26.4577
2746.0938,68.9155,28.1349,23.2176,12.7462,8.9450,28.4812,14.4230,10.5361,30.9423,62.3836,57.9752,53.3902,15.7896,3.6003,66.6789,7.1492,12.3485,18.4321,22.5081
2750.0000,57.4277,26.1010,17.8557,10.1397,5.1003,22.4393,18.3518,8.2172,22.2500,54.6159,41.0362,27.5636,6.1621,-0.8632,49.5919,7.9941,6.8722,14.8896,13.1621
2753.9062,50.9048,25.2751,12.5198,8.0638,1.6748,17.5640,22.7541,6.3049,15.7783,50.8474,21.4329,-1.0417,0.1894,-4.6989,34.3070,10.2800,2.8613,12.0870,4.1164
2757.8125,49.9075,27.5918,10.4427,8.5034,0.8178,16.2317,25.8362,6.5280,14.7684,51.4958,8.2106,-18.4612,1.2002,-5.2563,26.7756,13.8695,2.5478,12.4173,0.7574
2761.7188,53.4313,33.0937,13.0540,11.9896,3.3449,19.3681,26.7286,9.5439,19.8574,55.5789,7.5925,-16.9403,8.7614,-1.5098,29.2999,17.4717,6.1861,16.4983,5.1378
2765.6250,59.4996,39.4166,19.1075,17.1013,7.9926,25.8897,25.6375,14.3246,28.7409,60.9827,19.6920,0.7906,19.0306,5.0533,39.1081,19.0712,11.8506,22.6317,14.8718
2769.5312,65.7896,42.9677,25.3288,21.1719,11.9562,33.1756,23.4758,18.6267,37.2983,65.1348,38.3577,23.1609,26.8797,11.0523,49.6667,17.0638,16.4654,27.6288,24.5579
2773.4375,70.1980,41.1484,28.2245,21.8060,12.5185,38.2878,21.3524,20.2508,41.6096,66.0027,54.2560,36.4076,28.5283,13.0517,54.2238,11.4478,17.4640,28.5846,28.8284
2777.3438,71.2728,34.1078,25.9805,18.2784,8.7754,39.2374,20.1970,18.2766,39.7885,62.9547,59.4734,32.3202,23.2375,9.5200,49.5483,4.2257,14.1062,24.5602,25.2030
2781.2500,68.4334,24.7545,19.3472,11.9528,2.3056,35.6469,20.5250,13.5111,32.6817,56.9125,51.1656,12.5883,13.2840,1.7021,37.5712,-1.4287,7.7251,17.1602,15.1586
2785.1562,61.9592,16.9685,11.0635,5.4770,-3.7238,28.6039,22.2121,7.9349,23.1720,49.6109,32.4774,-12.6031,2.4799,-7.1167,23.9257,-2.8779,0.8614,9.6509,2.9883
2789.0625,52.8287,13.2533,4.2638,1.2719,-6.4885,19.9824,24.2776,3.5571,14.6109,42.4358,10.5773,-30.6295,-5.7537,-13.4700,14.4116,0.4117,-4.1108,5.1445,-6.6714
2792.9688,42.5074,13.4473,0.8597,0.2279,-5.2411,11.7061,24.9242,1.3839,9.3078,35.6821,-6.8678,-33.4096,-9.7207,-15.5450,11.7153,6.4673,-6.0572,4.9167,-11.1315
2796.8750,32.6954,15.2943,0.7885,1.3546,-1.7296,5.2684,22.1316,1.0515,7.8013,28.7874,-14.9034,-21.3304,-9.7076,-13.9328,14.4056,11.8917,-5.3506,7.8136,-10.5734
2800.7812,24.9426,16.2918,2.4116,2.5228,0.9460,1.5218,14.7883,1.2366,9.0691,21.3209,-12.8313,-2.1946,-7.3538,-10.9657,18.5477,13.7903,-3.3679,11.0363,-7.3692
2804.6875,20.0904,15.3600,3.6636,1.8043,0.2811,0.5746,3.8244,0.5429,11.3131,13.8525,-3.7900,13.7385,-4.6790,-9.1688,20.5027,11.3444,-1.6462,11.8002,-4.4596
2808.5938,17.7247,13.1559,3.2206,-1.3793,-4.1211,1.7149,-7.4943,-1.6345,12.7998,7.8694,7.0324,19.4670,-3.2421,-9.7998,18.8874,6.0848,-1.1702,8.9117,-3.7907
2812.5000,16.0552,11.0108,1.0846,-5.9249,-10.3619,3.4708,-14.6746,-4.7059,12.4335,4.6762,14.6092,14.4833,-3.6347,-12.2760,14.5910,0.7885,-2.0473,3.4049,-5.5369
2816.4062,12.5744,9.5523,-1.5987,-9.6713,-15.4003,3.9961,-14.2379,-7.1538,10.0136,4.1199,15.9046,4.0551,-5.3365,-14.6878,9.3335,-2.1981,-3.5756,-2.0674,-8.2817
2820.3125,5.4218,8.2245,-3.2619,-10.6068,-16.7613,1.8105,-5.9327,-7.3715,6.2534,4.2738,10.8349,-4.5524,-6.9432,-14.9933,4.2496,-2.1236,-4.5977,-4.7166,-9.8771
2824.2188,-5.2023,6.0638,-2.7608,-8.0059,-13.7902,-3.3800,6.5370,-4.6798,2.5721,2.5804,2.1449,-6.4287,-6.7902,-12.2013,-0.3488,0.1358,-4.0292,-3.1656,-8.5288
2828.1250,-16.5002,2.9711,0.0382,-2.9013,-7.8448,-10.2444,17.0501,0.0276,0.6088,-2.1832,-5.7769,-1.4504,-3.8471,-6.9578,-4.1154,2.9679,-1.4331,1.7587,-3.6996
2832.0312,-24.0079,0.2678,4.1435,2.3524,-1.4942,-16.1348,20.2935,4.4669,1.5059,-8.5294,-8.8065,6.3092,1.5018,-1.3037,-5.8549,5.0737,2.5750,7.3998,3.4801
2835.9375,-23.7329,-0.0901,7.8129,5.2049,2.7082,-18.1263,14.8745,6.0240,5.2335,-12.6505,-5.0121,11.4561,7.3098,2.2397,-3.8389,5.9616,6.3624,10.6142,10.4832
2839.8438,-14.4035,2.8818,9.2654,4.1548,3.2406,-14.3506,4.3279,3.2035,10.3717,-10.5923,4.2928,10.5028,10.8370,1.8320,2.7425,5.7362,7.8958,9.3744,14.3326
2843.7500,1.4958,8.0443,7.4454,-0.5308,0.0489,-4.9738,-4.8539,-3.3772,14.6157,-0.9301,15.0184,3.5610,9.9615,-2.7970,12.3669,4.5931,5.7535,3.7855,12.9188
2847.6562,18.6227,12.4663,2.5124,-6.9938,-5.6146,7.6935,-7.1786,-11.1426,15.8551,13.8335,22.2236,-6.2429,4.4495,-10.1437,21.2045,2.5688,0.0074,-4.0188,6.1015
2851.5625,31.2238,13.1746,-4.1763,-12.7484,-11.7499,20.0486,-1.6979,-16.8956,13.2699,28.2176,22.6024,-14.9237,-3.7391,-17.5413,25.0016,-0.2495,-7.5985,-11.0148,-4.0149
2855.4688,35.8246,9.1705,-10.5974,-15.8824,-16.3216,28.6422,7.2167,-18.5826,7.8095,36.6448,16.2166,-19.8143,-11.3858,-22.3329,21.7665,-3.3316,-14.3893,-14.7992,-13.8893
2859.3750,32.7070,2.2978,-14.8539,-15.8248,-17.9081,31.5583,12.5836,-16.3678,1.7574,36.5590,6.4921,-20.4337,-15.6566,-23.0419,13.4057,-5.6044,-18.0541,-14.6124,-20.0929
2863.2812,25.4271,-3.6766,-15.8449,-13.2880,-16.1121,29.1019,9.4562,-12.2922,-2.3617,29.8677,-1.5495,-17.7779,-15.4447,-19.9303,5.0105,-5.8722,-17.7333,-11.3451,-20.7925
2867.1875,18.7391,-5.1933,-13.5155,-9.5207,-11.5981,23.4890,-1.4555,-8.7366,-2.9040,21.7961,-3.8433,-12.8850,-11.6105,-14.6512,2.0434,-3.5213,-14.2438,-6.6449,-16.3681
2871.0938,16.1256,-0.8752,-8.6503,-5.4315,-5.7406,17.6983,-13.6773,-6.7606,0.3285,17.8212,0.7942,-5.9380,-6.0881,-9.2183,7.1258,1.0063,-9.3544,-1.7930,-8.8882
2875.0000,18.2289,7.8422,-2.4262,-1.1875,-0.0329,14.0439,-18.6928,-5.5028,6.2575,20.5082,10.3550,3.3942,-0.5865,-4.9323,18.4343,6.3471,-4.6610,2.8873,-0.8590
2878.9062,22.8612,17.6653,3.9869,3.4890,4.4571,13.1604,-11.3020,-3.0820,13.1613,28.0899,20.9433,14.7583,4.1842,-1.9143,30.6740,10.8867,-0.8412,7.7585,5.9376
2882.8125,26.3612,25.2134,9.6116,8.6279,7.3221,13.8825,6.7584,1.6691,19.3109,35.5373,28.7812,26.1989,8.3320,0.5293,37.9532,13.5133,2.2718,13.0418,10.8716
2886.7188,25.4268,28.4610,13.6816,13.5137,8.6749,14.0361,27.3107,7.9449,23.3139,37.3836,31.7387,34.5089,11.9859,3.0591,36.7678,13.9725,5.0013,18.1311,14.0922
2890.6250,18.4751,27.1228,15.6445,16.8203,8.8070,11.6739,40.1508,13.1719,24.1898,30.6027,29.6935,36.8482,14.6770,5.6425,27.3968,12.6784,7.1844,21.6115,15.8427
2894.5312,6.0180,22.0709,15.2454,17.3245,7.9284,6.0684,38.7072,14.6000,21.4038,15.9587,23.8608,32.5725,15.4670,7.5686,13.1627,10.2436,8.1396,22.0046,16.0689
2898.4375,-9.8468,14.4711,12.6440,14.6991,6.1623,-2.0436,23.5295,11.1693,15.0293,-2.7131,15.8242,23.8992,13.7257,8.0855,-1.6595,7.1462,7.2698,18.7193,14.5792
2902.3438,-26.3242,5.3200,8.4345,9.8149,3.7343,-10.9951,1.6409,4.3225,5.9785,-20.5833,6.9803,14.7870,9.8822,7.1174,-13.8434,3.7515,4.7711,12.5473,11.5080
2906.2500,-40.6647,-4.4189,3.5021,4.3357,1.1283,-19.0654,-17.5773,-2.8132,-3.9396,-33.8902,-1.4226,8.6781,5.4696,5.4606,-22.0349,0.5508,1.8047,5.3792,7.5877
2910.1562,-50.5454,-13.4341,-1.2131,-0.1097,-0.9802,-25.1225,-27.2621,-7.2846,-12.3463,-40.8898,-8.0385,6.6112,2.3388,4.2762,-26.2842,-1.7230,-0.0910,-0.6410,3.9312
2914.0625,-54.2364,-19.9802,-4.9029,-2.6199,-1.9979,-28.7168,-25.8420,-7.9118,-16.9991,-41.5376,-11.5151,6.9886,1.5763,4.2594,-27.0253,-2.3232,0.0394,-3.9768,1.4647
2917.9688,-50.8535,-22.3656,-6.9554,-3.1742,-1.6948,-29.7707,-16.5092,-5.5918,-16.6199,-36.6174,-11.0987,7.0986,2.9026,5.1343,-24.4410,-0.9527,1.9400,-4.1198,0.4542
2921.8750,-40.8284,-19.8027,-6.9644,-2.2683,-0.2755,-28.2987,-4.3988,-2.2602,-11.4741,-27.2361,-7.3539,5.2445,4.9624,5.8758,-18.6515,1.8983,4.3199,-1.4960,0.4958
2925.7812,-26.3561,-13.0670,-4.8144,-0.4163,1.7997,-24.4869,6.3186,0.5869,-3.4092,-15.0333,-2.3160,1.9241,6.2637,5.4996,-10.4240,5.0544,5.7096,2.8854,0.9529
2929.6875,-11.3194,-4.4506,-0.8655,2.0838,4.0872,-19.0495,13.6888,2.7010,4.7282,-2.6292,1.3225,-0.7332,6.0779,3.8290,-1.6502,7.2046,5.3824,7.7501,1.4702
2933.5938,-0.3009,3.1085,3.9226,5.0191,6.3109,-13.4290,17.3928,4.7479,10.1304,6.5532,1.6935,-0.7465,4.7172,1.6684,5.0106,7.5741,3.7081,11.7777,2.1597
2937.5000,3.1914,7.3415,8.1644,8.0116,8.3147,-9.4294,17.5094,7.2927,11.1584,9.5190,-0.9933,2.1362,3.1188,0.2733,7.3154,6.2997,1.7599,13.8647,3.3535
2941.4062,-1.4862,7.7249,10.5979,10.4806,9.9306,-8.3174,13.9729,10.0412,8.1027,5.4619,-4.3432,6.2617,2.1644,0.5266,4.7860,4.2934,0.5441,13.5345,5.1896
2945.3125,-11.3770,5.7065,10.7716,11.9293,10.9513,-9.9433,7.1211,11.9701,3.1792,-3.1902,-5.0744,9.3831,2.2636,2.4165,-0.6822,2.7183,0.4435,11.3337,7.4220
2949.2188,-20.9541,3.9019,9.4167,12.3380,11.2790,-12.5823,-1.4269,12.1929,-0.3758,-11.5069,-1.0537,10.3977,3.4103,5.1431,-5.5132,2.4226,1.2212,8.8500,9.6252
2953.1250,-24.6900,4.6440,8.1553,12.3040,11.1250,-13.7949,-8.6879,10.7972,0.1782,-14.5396,7.1632,10.1552,5.4933,7.7002,-6.2493,3.6343,2.4506,8.0988,11.6046
2957.0312,-19.9478,8.6588,8.6125,12.7501,11.0439,-11.8804,-11.4663,8.9409,5.6423,-10.2383,16.3061,10.7289,8.4771,9.4692,-1.5390,5.9977,3.9276,10.4593,13.6242
2960.9375,-8.5874,14.6216,11.4361,14.3665,11.7015,-7.0020,-8.0799,8.1195,14.3065,-0.9586,21.9896,13.7386,12.2702,10.4391,6.8434,8.8112,5.7071,15.7655,16.2142
2964.8438,3.7535,19.8842,15.8581,17.1759,13.5035,-1.1880,0.5598,9.1806,22.6889,7.5629,21.0356,19.0131,16.4534,11.0185,14.6551,11.2800,7.7898,22.1993,19.6759
2968.7500,10.4670,21.9942,20.1086,20.5226,16.3509,2.8599,11.3007,11.8229,27.3153,9.3178,13.1617,24.5865,20.2088,11.7044,17.3086,12.6976,9.8118,27.1772,23.6797
2972.6562,7.4007,20.1286,22.4268,23.4635,19.7081,3.4018,20.2854,14.8952,26.5920,1.4028,1.0869,27.9925,22.6219,12.8905,12.3685,12.5953,11.0914,28.7456,27.2990
2976.5625,-4.9774,15.5686,22.0149,25.2532,22.9215,0.6651,24.6256,17.1741,21.6572,-14.3518,-10.9091,27.8736,23.1853,14.8639,1.0285,10.9100,11.0633,26.6165,29.4953
