Time,Fp1,F3,C3,P3,O1,F7,T3,T5,Fz,Fp2,F4,C4,P4,O2,F8,T4,T6,Cz,Pz
0.0000,9.9536,-0.2597,-1.1501,-2.8636,-2.6188,2.4943,1.6772,-1.3684,0.3329,7.8848,5.3106,-2.0947,-2.4223,-3.1716,2.7791,-4.0789,-4.0732,-2.5551,-2.9565
3.9062,6.7736,-1.7383,0.0740,-3.7620,-3.9839,-2.1048,1.9820,-1.8351,1.1308,4.4446,9.0781,-2.0866,-3.0593,-4.8471,2.6923,-4.9779,-5.1107,-3.4768,-2.1714
7.8125,-0.0324,-3.0702,2.1004,-4.0602,-4.9733,-7.7968,1.7641,-2.3256,1.0359,-1.6861,11.4043,-1.7508,-3.2622,-6.0348,1.8774,-5.4913,-5.1044,-4.0503,-0.5541
11.7188,-9.0196,-3.1393,4.6686,-3.0423,-5.0125,-12.2868,1.2014,-2.4641,0.0742,-8.5280,10.7738,-0.6600,-2.4643,-5.7708,0.2555,-4.6848,-3.1707,-3.3496,1.7382
15.6250,-17.7017,-1.4059,7.2196,-0.4391,-4.0094,-13.7791,0.7300,-1.8401,-1.1957,-13.5419,7.1171,1.3292,-0.5668,-3.7168,-1.6740,-1.7732,0.4245,-0.8392,4.2131
19.5312,-23.6287,1.6729,9.1371,3.3565,-2.4110,-12.0246,0.7720,-0.1826,-1.9527,-14.9782,2.0296,3.9063,1.9567,-0.4134,-2.8436,3.2650,4.2872,3.2019,6.3055
23.4375,-25.2108,4.9219,10.0552,7.4186,-0.9051,-8.3011,1.4655,2.4585,-1.4972,-12.6484,-2.0326,6.4320,4.3520,3.0188,-2.1202,9.3182,6.7882,7.7208,7.6989
27.3438,-21.9851,7.2324,10.0240,10.6743,0.0143,-4.3995,2.5596,5.5883,0.4541,-7.7217,-3.1340,8.2839,6.0506,5.5231,0.8774,14.3783,7.1881,11.3980,8.4613
31.2500,-14.5301,8.2516,9.4041,12.3205,0.3028,-1.4462,3.5169,8.2891,3.6539,-1.8908,-0.9762,9.1816,6.9484,6.6495,5.1746,16.4131,6.1216,13.3104,8.8776
35.1562,-4.4032,8.4340,8.5492,12.0594,0.2726,0.5258,3.7439,9.4566,7.3666,3.3661,2.9381,9.2614,7.2931,6.6412,8.6102,14.4527,5.0418,13.3270,9.1014
39.0625,5.8219,8.4215,7.5056,10.0932,0.2570,2.0015,2.8208,8.2372,10.5128,6.9455,6.1756,8.8663,7.3095,6.0660,8.9018,9.2226,5.0436,12.0113,8.9165
42.9688,12.7724,8.2730,5.9718,6.9693,0.3225,3.0101,0.6486,4.5073,11.9151,7.8503,6.7187,8.2305,6.9182,5.3319,5.0719,2.8502,6.0045,10.1494,7.8472
46.8750,13.1661,7.2227,3.5875,3.4100,0.2673,2.6965,-2.5028,-0.8631,10.6706,5.0645,3.9783,7.3210,5.8269,4.4799,-1.6968,-2.2571,6.7447,8.2690,5.5913
50.7812,5.3033,4.2483,0.3663,0.1924,-0.1018,-0.0878,-6.0294,-6.1900,6.5945,-2.0092,-1.0514,5.9702,3.9429,3.3873,-8.4696,-4.6863,6.0993,6.4855,2.4701
54.6875,-9.6064,-0.9315,-3.0559,-1.9627,-0.6599,-5.6092,-9.1136,-9.6138,0.5346,-12.7503,-6.4429,4.1977,1.7415,2.1542,-12.1242,-4.6136,4.0401,4.7305,-0.4840
58.5938,-27.3186,-7.2113,-5.5954,-2.5519,-0.9099,-12.5131,-10.9455,-9.9376,-5.7130,-24.8783,-10.2846,2.4558,0.2133,1.2870,-11.1403,-3.3192,1.9120,3.1189,-1.9602
62.5000,-42.1348,-12.4049,-6.2794,-1.4854,-0.2709,-18.2866,-11.0261,-7.2248,-10.0151,-35.0217,-11.3854,1.5614,0.3237,1.4609,-6.4546,-1.9925,1.5320,2.1076,-1.1083
66.4062,-49.6017,-14.4288,-4.8633,0.7966,1.4848,-20.7581,-9.4443,-2.8005,-10.8577,-40.2555,-9.5179,2.2894,2.3328,3.0104,-0.8207,-0.7367,3.8068,2.2759,1.8855
70.3125,-48.8421,-12.6259,-2.0974,3.4162,3.9737,-19.5974,-6.9636,1.3875,-8.1704,-39.7605,-5.3410,4.8439,5.4852,5.5459,2.8674,1.4257,7.9309,3.8666,5.7918
74.2188,-43.0403,-8.3269,0.5718,5.3804,6.3384,-16.6707,-4.7921,3.7119,-3.5056,-35.4809,-0.2513,8.5367,8.3495,8.0367,3.1308,5.4866,11.8010,6.4355,8.9455
78.1250,-37.6312,-4.2208,1.7272,5.9923,7.7071,-14.8972,-4.0700,3.5932,0.6332,-31.1883,3.7919,11.9078,9.6159,9.3505,0.3318,11.1201,13.3546,8.9014,10.1074
82.0312,-37.1601,-2.8864,0.7201,5.1263,7.6709,-16.3520,-5.2966,1.6232,2.0236,-30.3834,4.6539,13.2828,8.8184,8.8934,-4.1414,16.1868,11.8518,10.0193,9.0501
85.9375,-42.6578,-5.3798,-2.0138,3.2113,6.4667,-20.9259,-8.0093,-0.9301,-0.1400,-34.2669,0.7937,11.5228,6.4972,6.9116,-9.1135,17.6549,8.1893,9.0052,6.5350
89.8438,-51.1088,-10.7229,-5.2386,0.9488,4.7705,-26.4651,-10.9369,-2.8841,-4.8551,-41.0359,-7.7751,6.6043,3.7284,4.2629,-14.2249,13.4816,4.1063,5.9381,3.7502
93.7500,-57.3308,-16.5484,-7.6189,-1.0438,3.2774,-30.2509,-12.5999,-3.6960,-9.8957,-46.9604,-18.9147,-0.2585,1.4036,1.8563,-19.4727,4.2017,0.9698,1.7080,1.6184
97.6562,-57.1408,-20.4509,-8.4175,-2.4474,2.3682,-30.7551,-12.0691,-3.5295,-13.0402,-48.6144,-28.8035,-7.0323,-0.2099,0.1749,-24.2478,-6.9585,-0.9212,-2.4323,0.4168
101.5625,-49.9418,-21.2259,-7.7995,-3.2240,2.0530,-28.4817,-9.4771,-2.9033,-13.2379,-44.9381,-33.4991,-11.6579,-1.3575,-0.8057,-26.9235,-15.6782,-2.0756,-5.4339,-0.1172
105.4688,-39.2383,-19.3339,-6.6082,-3.4518,2.1535,-25.4198,-5.9855,-2.2466,-11.0645,-37.9369,-30.9440,-12.8724,-2.3127,-1.3244,-25.6275,-18.9010,-2.9570,-6.8282,-0.3700
109.3750,-30.8145,-16.4432,-5.7934,-3.1844,2.5187,-23.6242,-3.2045,-1.6808,-8.2510,-31.6338,-22.2427,-10.6929,-2.9751,-1.4731,-19.7893,-16.4454,-3.3471,-6.7630,-0.4842
113.2812,-29.6152,-14.4178,-5.8480,-2.4488,3.0873,-23.9633,-2.3637,-1.1189,-6.6118,-29.8891,-11.2884,-6.3394,-2.9013,-1.0928,-11.2545,-10.8423,-2.4868,-5.7646,-0.2981
117.1875,-37.0512,-14.3469,-6.5641,-1.3500,3.7821,-25.8180,-3.6793,-0.5120,-7.0156,-34.3000,-2.7774,-1.6363,-1.7334,-0.0026,-3.8883,-5.5848,0.1475,-4.4211,0.4229
121.0938,-50.1678,-16.0871,-7.2099,-0.1465,4.3842,-27.7575,-6.2587,0.0107,-8.9773,-43.3064,0.2922,1.8087,0.3558,1.6642,-1.6324,-3.0263,4.1259,-3.1608,1.6994
125.0000,-63.0917,-18.4624,-6.9854,0.8151,4.5580,-28.5584,-8.5877,0.2355,-11.0474,-52.9460,-1.8794,3.2413,2.6033,3.3447,-6.1587,-3.3182,8.0569,-2.1892,3.2442
128.9062,-69.9657,-19.9403,-5.4839,1.2928,4.0560,-27.8399,-9.3223,0.0898,-11.7160,-58.8248,-6.3324,2.9131,4.0755,4.3053,-15.6743,-4.9374,10.3570,-1.5327,4.6274
132.8125,-67.8232,-19.4178,-2.9149,1.3276,2.9569,-26.0078,-7.9470,-0.2193,-10.2765,-58.2529,-9.4179,1.7281,4.2719,4.1165,-25.7309,-6.1831,10.2382,-1.1073,5.5541
136.7188,-57.9058,-16.7458,0.0064,1.2533,1.7290,-23.7425,-4.9556,-0.3048,-7.1687,-51.4420,-9.1320,0.6403,3.4623,2.9926,-31.5676,-6.4024,8.1853,-0.7684,6.0287
140.6250,-44.7819,-12.7660,2.4158,1.4988,1.0230,-21.5117,-1.4999,0.1197,-3.6577,-41.1962,-6.1978,0.1768,2.5002,1.7226,-30.5417,-6.0705,5.5989,-0.3546,6.2899
144.5312,-33.8222,-8.8641,3.6973,2.2959,1.2973,-19.4220,1.2400,0.9942,-1.1021,-31.3545,-3.2703,0.3246,2.2437,1.2096,-23.2345,-5.8709,3.8979,0.2466,6.5811
148.4375,-28.4927,-6.2800,3.7145,3.4892,2.5198,-17.3818,2.5759,1.9070,-0.2753,-24.9159,-2.9268,0.7547,2.9904,1.9152,-12.7787,-5.7442,3.7256,1.0146,6.9432
152.3438,-28.9946,-5.5453,2.7751,4.5837,4.1550,-15.3410,2.4503,2.3522,-1.1251,-22.9021,-5.8970,1.1367,4.3095,3.5772,-3.0773,-4.8461,4.7491,1.7457,7.1815
156.2500,-32.9218,-6.3524,1.3839,5.0130,5.4645,-13.4122,1.2063,2.0723,-3.0419,-24.4916,-10.7189,1.2974,5.3561,5.3790,2.9094,-2.5066,6.0625,2.0967,7.0176
160.1562,-37.3282,-7.9065,-0.0465,4.4665,5.9370,-11.8575,-0.7555,1.2393,-5.3757,-28.1216,-14.9290,1.1593,5.4290,6.4516,3.9824,0.6663,6.8125,1.7361,6.3061
164.0625,-40.7065,-9.5072,-1.3482,3.0781,5.5818,-11.0257,-3.1439,0.3417,-7.8031,-32.6460,-16.7998,0.6112,4.3952,6.3843,0.5811,2.6355,6.6223,0.5391,5.1600
167.9688,-43.5140,-10.9524,-2.5424,1.3614,4.9001,-11.2811,-5.6720,-0.1423,-10.3028,-37.6918,-16.3380,-0.4901,2.7343,5.4385,-5.7867,1.1242,5.6456,-1.2899,3.9054
171.8750,-46.9868,-12.4923,-3.6575,-0.0695,4.5496,-12.8790,-7.8527,-0.0620,-12.8224,-43.0643,-14.9132,-2.1441,1.2154,4.3591,-13.0951,-4.6007,4.3619,-3.2655,2.8968
175.7812,-51.3091,-14.4031,-4.5979,-0.8394,4.9018,-15.7662,-8.9853,0.3083,-14.9852,-47.8768,-13.9721,-4.0305,0.4296,3.9164,-19.2501,-12.7201,3.3095,-4.8488,2.3018
179.6875,-54.7481,-16.5556,-5.1971,-1.0250,5.7545,-19.4163,-8.4778,0.4448,-16.1704,-50.3828,-13.9494,-5.5741,0.4464,4.4483,-22.6207,-19.5765,2.8542,-5.7469,1.9722
183.5938,-54.6621,-18.3759,-5.4309,-1.1247,6.3747,-22.9021,-6.3418,-0.1008,-15.9966,-48.9496,-14.2371,-6.3112,0.7601,5.6444,-22.6781,-21.8228,2.9998,-6.1095,1.4748
187.5000,-49.7795,-19.2843,-5.6078,-1.7891,5.8647,-25.3017,-3.4707,-1.4276,-14.8583,-43.6012,-14.1506,-6.3277,0.5407,6.6780,-20.4105,-18.6046,3.2822,-6.4763,0.2853
191.4062,-41.9698,-19.2820,-6.3239,-3.4380,3.6670,-26.2545,-1.3786,-3.2109,-14.0177,-36.8590,-13.9814,-6.3866,-0.9273,6.6166,-18.0436,-12.2324,2.8813,-7.4627,-1.9187
195.3125,-35.8573,-19.1659,-8.1229,-5.9548,-0.0578,-26.2600,-1.4322,-4.8426,-14.9960,-32.8771,-15.1338,-7.5234,-3.8065,4.9157,-17.9565,-6.7888,1.0477,-9.3370,-4.9950
199.2188,-36.1077,-20.0801,-11.0369,-8.6304,-4.3938,-26.3929,-4.0067,-5.6916,-18.5245,-35.0357,-19.0891,-10.2865,-7.4798,1.7584,-21.3038,-5.5471,-2.2959,-11.7349,-8.2534
203.1250,-44.0358,-22.6193,-14.3340,-10.4220,-8.0192,-27.5041,-8.1336,-5.3527,-23.7334,-43.4305,-25.9274,-14.1327,-10.6919,-1.9416,-27.2176,-8.9087,-6.1836,-13.7163,-10.6501
207.0312,-55.9515,-26.1112,-16.7191,-10.4304,-9.7859,-29.4216,-11.9388,-3.7901,-28.2375,-54.0642,-33.5939,-17.4748,-12.0663,-4.9096,-33.1781,-14.2098,-8.8701,-14.1834,-11.2251
210.9375,-64.6936,-28.6766,-16.9534,-8.3705,-9.2435,-30.7780,-13.6542,-1.3437,-29.2582,-60.6131,-38.6349,-18.4673,-10.7911,-6.0992,-36.3779,-17.4703,-8.7530,-12.4605,-9.5866
214.8438,-63.6669,-28.1750,-14.5585,-4.7738,-6.8314,-29.7223,-12.5865,1.3831,-25.2152,-57.9342,-38.0806,-16.0900,-7.1139,-5.2104,-35.2143,-15.8818,-5.4413,-8.7145,-6.1708
218.7500,-50.8898,-23.5141,-10.1658,-0.7885,-3.6336,-25.1422,-9.4379,3.7123,-16.8174,-45.1933,-31.2813,-10.8335,-2.3162,-2.8440,-29.9835,-9.4374,-0.2059,-3.9609,-2.0884
222.6562,-30.4027,-15.4840,-5.2638,2.3458,-0.8283,-17.5909,-5.7968,5.0990,-6.9026,-26.5831,-20.4635,-4.5122,1.8907,-0.1796,-22.4490,-0.7869,4.6253,0.3725,1.3948
226.5625,-10.0655,-6.5328,-1.4675,3.8723,0.8642,-9.2377,-3.1638,5.2940,0.9767,-9.0908,-9.5984,0.6976,4.2419,1.6633,-14.7384,6.3921,7.0318,3.0969,3.4589
230.4688,2.8742,0.4424,0.2643,3.8221,1.4330,-2.7834,-2.1587,4.4021,4.4195,1.3342,-2.2781,3.3910,4.5464,2.2169,-8.3780,9.3658,6.5222,3.7775,4.0573
234.3750,5.6407,3.5802,0.0073,2.8805,1.4133,0.0101,-2.3779,2.8129,3.3811,2.8551,0.0819,3.5403,3.6661,1.8523,-3.9878,7.5170,4.3433,2.8441,3.7749
238.2812,0.9000,2.9349,-1.3449,1.9082,1.4458,-0.7472,-2.8957,1.0331,0.0009,-1.7418,-1.3410,2.2567,2.8565,1.4497,-1.5499,2.2835,2.5114,1.2678,3.3327
242.1875,-5.5095,0.2553,-2.7090,1.4190,1.8525,-3.2639,-2.9817,-0.5068,-2.8075,-7.2110,-3.8773,0.9514,2.9126,1.7652,-0.7816,-3.7822,2.3694,0.0126,3.0845
246.0938,-8.3840,-2.1500,-3.4390,1.3299,2.4872,-5.2378,-2.5339,-1.5865,-3.1118,-9.1428,-5.1807,0.4868,3.6941,2.9079,-1.2688,-8.1436,3.7257,-0.4290,2.8447
250.0000,-6.0261,-2.7473,-3.5898,1.1131,2.9149,-5.2526,-2.0105,-2.2240,-0.9998,-6.3130,-4.6019,0.8216,4.3334,4.2619,-2.4302,-9.1126,5.1805,-0.1950,2.1341
253.9062,-0.5993,-1.5330,-3.7234,0.2195,2.7544,-3.5457,-2.0301,-2.6030,1.6680,-0.8345,-3.3477,1.2575,3.9402,4.8933,-3.6213,-6.2871,5.3250,0.1221,0.6306
257.8125,3.8549,0.1704,-4.4486,-1.5179,1.9373,-1.7237,-2.9882,-2.9458,2.5524,3.6465,-3.4506,1.0053,2.2767,4.1642,-4.4906,-0.6770,3.8443,-0.1540,-1.5218
261.7188,4.1790,0.6784,-6.0034,-3.7497,0.7320,-1.6601,-4.9187,-3.3915,0.3385,4.3473,-6.2625,-0.3270,-0.0704,2.1571,-5.2886,5.4977,1.6804,-1.4184,-3.7589
265.6250,-0.1010,-0.9436,-8.0972,-5.7981,-0.4304,-4.2682,-7.5657,-3.9228,-4.4384,0.8668,-11.3902,-2.5529,-2.0944,-0.3433,-6.6919,9.4831,0.2016,-3.5768,-5.4260
269.5312,-6.7814,-4.2655,-10.0381,-7.0120,-1.1643,-8.8602,-10.4748,-4.3662,-9.6611,-4.8621,-16.6658,-5.0091,-3.0012,-2.2630,-9.0719,9.1382,0.1237,-6.0469,-6.1185
273.4375,-12.4522,-7.7017,-11.0248,-7.0597,-1.2307,-13.4306,-12.9997,-4.4680,-12.7643,-9.8698,-19.1594,-6.7924,-2.5954,-2.7687,-11.7477,4.1351,1.0816,-7.9552,-5.7870
277.3438,-14.3885,-9.4008,-10.4526,-6.0103,-0.5204,-15.6817,-14.3148,-4.0232,-12.0649,-11.7882,-16.6957,-7.0357,-1.1979,-1.6107,-12.9956,-3.5204,2.1496,-8.4616,-4.5883
281.2500,-11.8530,-8.2986,-8.1353,-4.2185,0.9786,-14.2279,-13.6134,-3.0059,-7.5917,-9.9593,-9.0936,-5.2088,0.7336,0.8572,-11.0954,-10.2045,2.7800,-7.1164,-2.6747
285.1562,-6.2996,-4.7310,-4.3979,-2.1344,3.1361,-9.3320,-10.5218,-1.6286,-1.0372,-5.5776,1.5326,-1.4160,2.9039,3.9079,-5.7734,-12.4727,3.2903,-4.1121,-0.1458
289.0625,-0.5140,-0.2373,-0.0130,-0.1591,5.5822,-2.7723,-5.4953,-0.2815,5.0894,-0.9198,11.6268,3.4574,5.1623,6.7394,1.1518,-8.9883,4.4605,-0.2931,2.8021
292.9688,2.8866,3.3540,4.0309,1.4158,7.6900,3.1128,0.1541,0.6360,8.6649,1.9368,17.8403,7.9454,7.2672,8.7021,6.6961,-1.3713,6.6237,3.1374,5.7083
296.8750,2.9389,5.0308,6.8834,2.4204,8.7515,6.6965,4.7602,0.9048,8.9260,2.3195,18.6544,10.6018,8.7545,9.4207,8.7705,6.6714,9.1170,5.1205,7.8934
300.7812,1.0604,5.2065,8.1674,2.8152,8.3153,7.9279,7.1063,0.5802,6.7513,1.4675,15.0898,10.7455,9.1297,8.8448,7.8676,11.4839,10.6659,5.2150,8.7743
304.6875,0.4673,5.4023,8.1138,2.6995,6.4863,8.2381,7.0257,-0.0697,4.1125,1.9503,10.0529,8.8863,8.2723,7.2471,6.9151,11.5585,10.4453,3.7759,8.2466
308.5938,4.3335,7.1517,7.3921,2.2884,3.9625,9.4883,5.3863,-0.7328,2.9730,6.1245,6.6452,6.4783,6.6841,5.1457,9.1376,8.2835,8.9069,1.7257,6.8242
312.5000,13.5710,10.8209,6.7204,1.8453,1.7337,12.5890,3.4750,-1.2003,4.2175,14.4143,6.4255,5.0753,5.2863,3.1320,15.3935,4.9156,7.5913,0.0532,5.3787
316.4062,25.6347,15.1786,6.4989,1.6022,0.6012,16.7157,2.2364,-1.3828,7.2168,24.5273,8.7027,5.4133,4.8361,1.6514,23.0766,4.5085,7.9701,-0.6506,4.6316
320.3125,35.4088,18.1015,6.7082,1.7214,0.8116,19.7386,1.9109,-1.2000,10.2974,32.3499,11.3045,7.0483,5.3869,0.8524,27.6411,8.1497,10.2154,-0.3424,4.7567
324.2188,37.9994,18.0258,7.1213,2.3115,2.0229,19.6889,2.2706,-0.4719,11.8386,34.2388,12.2732,8.8034,6.2368,0.6026,25.8151,14.5468,12.9232,0.6781,5.3804
328.1250,31.8551,15.1636,7.6279,3.4520,3.5938,16.3124,3.1534,1.0432,11.3075,29.3715,11.2779,9.6797,6.4502,0.6580,18.1342,21.0380,14.0884,2.1132,5.9597
332.0312,20.1339,11.5736,8.3764,5.1609,4.9682,11.5842,4.7551,3.4414,9.5493,20.5546,9.7096,9.5357,5.5719,0.8582,8.7883,25.1981,12.6047,3.8532,6.2198
335.9375,9.1776,9.9256,9.5869,7.2999,5.8994,8.6996,7.3786,6.4472,8.1401,12.7666,9.3961,9.0230,3.9780,1.1936,2.7554,25.9814,9.1131,5.8700,6.2988
339.8438,4.8731,11.7440,11.1906,9.5052,6.4097,10.1085,10.8624,9.3914,8.2642,10.2439,10.9421,8.8759,2.5786,1.7073,2.3177,23.8463,5.5227,7.9626,6.5003
343.7500,9.2169,16.3577,12.6407,11.2595,6.5996,15.9013,14.2595,11.4968,9.9257,14.0059,13.0435,9.1852,2.1070,2.3391,5.6147,20.0787,3.5942,9.6520,6.8983
347.6562,19.3722,21.3431,13.1443,12.1318,6.5089,23.6729,16.1896,12.3293,12.0719,21.4970,13.4172,9.3049,2.5650,2.8834,8.3618,15.9691,3.7211,10.4069,7.1671
351.5625,29.8071,24.1906,12.2228,12.0526,6.1379,29.9853,15.7215,12.0906,13.5141,28.5423,10.7053,8.4990,3.2697,3.1282,7.3911,12.3711,4.8606,10.0746,6.8186
355.4688,35.9323,24.0054,10.1840,11.4043,5.5547,32.4117,13.1289,11.4835,13.9062,32.1566,5.8505,6.7748,3.4505,3.0660,3.2021,9.7006,5.5976,9.1501,5.6614
359.3750,36.6371,21.9904,8.0782,10.7922,4.9214,30.7471,9.8535,11.1723,13.9770,32.1524,1.7293,5.1319,2.8913,2.9668,-0.5381,8.0843,5.3928,8.5735,4.0767
363.2812,34.0545,20.3430,7.0642,10.5973,4.3533,26.6156,7.5819,11.1969,14.8000,30.4761,1.1378,4.9041,2.0780,3.1977,-0.1672,7.4014,4.9444,9.0985,2.8252
367.1875,31.0573,20.3993,7.5853,10.6198,3.7208,21.9271,7.0611,10.8041,16.6837,29.0048,4.5893,6.6505,1.7325,3.8922,4.7077,7.2560,5.3843,10.6570,2.4877
371.0938,28.7064,21.4726,8.9756,10.1291,2.6119,17.4849,7.5595,8.9145,18.6398,27.7492,9.6843,9.5118,2.1415,4.7474,10.6028,7.1062,7.0566,12.2435,2.9781
375.0000,25.7712,21.3415,9.8615,8.3701,0.5879,12.8459,7.4500,4.9832,18.9853,25.0228,12.7248,11.6632,2.8754,5.1693,12.8798,6.6408,9.0049,12.5139,3.5547
378.9062,20.6135,18.0933,9.1449,5.2260,-2.3896,7.4568,5.5369,-0.3322,16.7232,19.4526,11.5065,11.6376,3.1649,4.7244,9.7359,6.1549,9.6891,10.7589,3.3814
382.8125,13.6637,11.9415,6.8815,1.5494,-5.6825,1.9828,2.1345,-5.2374,12.6371,12.0630,7.1796,9.5329,2.6366,3.5741,4.2102,6.5049,8.3691,7.5648,2.2367
386.7188,8.1360,5.5676,4.3814,-1.1593,-8.1404,-1.4603,-0.9689,-7.6810,9.1253,6.4585,3.6187,7.1022,1.7681,2.5171,2.3321,8.4728,5.9525,4.6226,0.8042
390.6250,8.0565,2.5898,3.3879,-1.6078,-8.6992,-0.5730,-1.7094,-6.5588,8.7084,6.6035,4.5725,6.5335,1.6241,2.5190,8.5124,11.8966,4.4857,3.7187,0.2657
394.5312,14.9946,5.1576,4.8724,0.4279,-7.0654,5.2486,0.7350,-2.4701,12.2000,13.7292,10.6433,8.7646,3.0216,4.0043,21.5660,15.2847,5.5866,5.5518,1.4486
398.4375,26.1778,12.3808,8.3003,3.8379,-4.0066,13.9505,5.2382,2.5132,17.9114,24.8264,18.4447,12.6229,5.7745,6.4185,34.5271,16.4280,9.0456,9.1980,4.1515
402.3438,35.7978,20.7518,11.9180,6.7533,-0.9911,21.7155,9.3881,5.9788,22.6011,34.1643,22.7875,15.5283,8.6533,8.4280,38.7563,13.8109,12.7722,12.6374,7.1692
406.2500,38.8656,26.3120,13.8858,7.6366,0.6423,25.2580,11.0744,6.5291,23.6158,37.0059,20.4593,15.3258,10.1554,8.6880,29.6729,7.9100,14.2279,14.0208,9.0367
410.1562,34.8484,27.0684,13.4692,6.1924,0.4564,23.9197,9.8711,4.5163,20.7343,32.8991,12.8349,11.9108,9.5327,6.6839,10.1489,1.3543,12.2878,12.8255,8.9706
414.0625,28.2644,24.0083,11.4471,3.4938,-0.8853,20.0176,7.2369,1.7041,16.3550,26.0607,5.2490,7.3980,7.2904,3.0649,-10.8516,-2.3969,8.0843,10.1100,7.3305
417.9688,25.5630,20.0824,9.4633,1.2340,-2.1318,17.1356,5.4173,0.0933,13.8214,22.4232,3.3723,4.6388,4.7632,-0.7738,-23.5347,-1.1512,4.1508,7.7030,5.2726
421.8750,30.4075,17.9741,8.8039,0.6047,-2.3187,17.5669,5.8642,0.6695,15.0298,25.3791,9.0866,5.1388,3.0866,-3.5748,-22.9479,4.5061,2.5074,6.9048,3.8631
425.7812,40.7626,18.2720,9.4862,1.5471,-1.4071,20.7443,8.2916,2.8565,19.0154,33.2733,18.8541,7.9098,2.3613,-4.9527,-11.4174,11.3765,3.1651,7.6095,3.3130
429.6875,49.9659,19.2818,10.3000,2.8639,-0.2561,23.7573,10.9741,4.9781,22.5433,40.4696,25.8794,10.1310,1.6640,-5.4755,3.5665,15.4904,4.2035,8.4454,2.8934
433.5938,51.1091,18.4762,9.7357,3.0845,0.0326,23.5167,11.9826,5.3783,22.3058,41.2457,24.6555,9.1654,-0.1007,-6.0670,14.2787,14.4868,3.3520,7.8022,1.5743
437.5000,41.6869,14.4352,7.1066,1.4759,-1.0746,18.9536,10.4282,3.4605,17.1943,33.7498,14.7402,4.4768,-3.1746,-7.1994,17.1194,8.9904,-0.1562,5.0016,-1.1050
441.4062,25.3155,7.8792,3.0583,-1.4855,-3.1429,11.6899,6.8761,0.0026,9.0734,21.2583,1.1148,-1.9349,-6.5622,-8.4875,13.7855,2.1096,-4.8878,0.7945,-4.5844
445.3125,9.4360,1.1560,-0.8655,-4.4673,-5.0523,4.8156,2.7691,-3.3952,1.5615,9.9393,-9.1201,-6.8779,-8.6239,-8.9871,9.0236,-2.5665,-8.1929,-3.1353,-7.5796
449.2188,0.7022,-3.3244,-3.2513,-6.1802,-5.7556,0.7860,-0.5935,-5.3263,-2.2924,4.7923,-11.3890,-8.1067,-8.2310,-7.9754,6.9634,-3.1171,-8.1107,-5.2791,-8.9069
453.1250,1.1954,-4.5486,-3.6934,-6.1906,-4.9881,-0.0078,-2.7530,-5.3963,-1.8312,6.5986,-6.4181,-5.7374,-5.6384,-5.6287,8.6143,-0.2101,-4.7688,-5.2454,-8.2491
457.0312,7.8011,-3.3045,-2.9379,-5.1180,-3.4558,0.9143,-4.0579,-4.3577,1.0568,11.8411,0.6632,-1.9980,-2.4240,-3.0852,11.9038,3.6769,-0.2803,-3.9140,-6.3420
460.9375,14.7604,-1.4310,-2.2660,-4.1353,-2.3899,1.5160,-5.0939,-3.5317,3.4147,15.3920,4.0875,0.4043,-0.5237,-1.8182,13.7335,6.0384,2.7172,-2.7568,-4.4915
464.8438,17.3511,-0.5885,-2.6121,-4.1622,-2.7791,0.6917,-6.1250,-3.9253,3.1954,13.9230,1.3346,0.0686,-1.0303,-2.7339,12.3094,5.8411,2.7691,-2.8407,-3.7836
468.7500,14.2279,-1.4205,-4.0393,-5.3098,-4.7767,-1.2879,-6.9704,-5.6048,0.3895,7.7266,-5.5237,-2.3951,-3.5697,-5.5957,8.1585,3.8010,0.3655,-4.2014,-4.5193
472.6562,7.2395,-3.5299,-5.8679,-6.9132,-7.6368,-3.4647,-7.3158,-7.6911,-3.3309,-0.0394,-11.7409,-5.1096,-6.6377,-9.1490,3.4013,1.4561,-2.6519,-5.9663,-6.1905
476.5625,-0.5935,-6.0585,-7.2657,-8.0645,-10.1790,-5.2491,-7.1065,-8.9441,-6.0195,-5.8360,-13.4846,-6.4339,-8.6072,-11.8471,0.0610,-0.1085,-4.4592,-7.0686,-7.9210
480.4688,-7.2052,-8.3127,-7.8210,-8.2343,-11.4560,-6.9064,-6.6627,-8.5539,-6.8296,-8.0907,-10.4794,-6.0823,-8.7035,-12.7023,-1.3424,-0.9038,-4.3683,-7.0166,-9.0129
484.3750,-12.3090,-10.0237,-7.7120,-7.5598,-11.2121,-9.1425,-6.4489,-6.6535,-6.4413,-7.8991,-5.9656,-5.1244,-7.3345,-11.7381,-2.0602,-1.6757,-3.0071,-6.1969,-9.2455
488.2812,-16.7355,-11.2265,-7.4380,-6.6509,-9.8956,-12.2645,-6.7320,-4.2571,-6.3875,-7.8843,-4.2418,-5.0146,-5.6569,-9.8163,-4.2102,-2.9839,-1.6392,-5.5500,-8.8129
492.1875,-21.1758,-12.0334,-7.3974,-6.1078,-8.2808,-15.7206,-7.4284,-2.6746,-7.8844,-10.2370,-7.6918,-6.4726,-4.7609,-8.0146,-9.3369,-4.5568,-1.2671,-5.8904,-8.0523
496.0938,-25.4169,-12.5503,-7.6526,-6.1154,-6.9791,-18.4282,-8.2393,-2.7587,-11.0096,-15.3186,-15.3354,-9.0272,-5.0394,-6.9828,-17.2769,-5.4513,-2.1466,-7.3494,-7.2103
500.0000,-28.5427,-12.9441,-8.0165,-6.3803,-6.1399,-19.5897,-8.9166,-4.4253,-14.7146,-21.6189,-23.6787,-11.4452,-6.0920,-6.6580,-25.9416,-4.8491,-3.8893,-9.2963,-6.3915
503.9062,-29.7598,-13.4823,-8.3198,-6.4131,-5.4874,-19.2795,-9.4167,-6.7141,-17.5428,-26.8829,-29.0057,-12.6085,-7.1215,-6.4522,-32.1554,-2.7907,-5.8718,-10.7499,-5.6519
507.8125,-29.1266,-14.4056,-8.5988,-5.9194,-4.6169,-18.3125,-9.8320,-8.3409,-18.5025,-29.5450,-29.4479,-12.1583,-7.4877,-5.7313,-33.1812,-0.2190,-7.5661,-10.9847,-5.0944
511.7188,-27.6662,-15.6935,-9.0411,-5.0142,-3.3338,-17.5316,-10.2049,-8.4082,-17.5476,-29.5728,-25.6087,-10.5242,-7.0610,-4.2649,-28.1972,1.7128,-8.6309,-9.9370,-4.8584
515.6250,-26.8317,-16.9309,-9.7454,-4.1264,-1.8209,-17.1336,-10.4186,-6.8655,-15.4534,-28.2996,-19.6951,-8.4653,-6.2137,-2.3907,-18.9222,2.4995,-8.8732,-8.1793,-5.0141
519.5312,-27.6685,-17.4266,-10.5015,-3.6781,-0.5448,-16.5836,-10.2602,-4.4728,-13.2575,-27.4365,-14.0529,-6.5615,-5.5228,-0.8351,-8.9304,2.5955,-8.2455,-6.5132,-5.4582
523.4375,-30.1072,-16.5310,-10.7750,-3.7707,0.0255,-15.1393,-9.5750,-2.3164,-11.6345,-27.8716,-10.1125,-5.0053,-5.3916,-0.3151,-1.8887,2.9148,-6.8869,-5.4544,-5.9008
527.3438,-32.7093,-13.9309,-9.9243,-4.0824,-0.2854,-12.4963,-8.3543,-1.1838,-10.5254,-28.9279,-8.1456,-3.7073,-5.7887,-1.1446,0.3695,3.9389,-5.0786,-4.9218,-5.9538
531.2500,-33.0217,-9.7314,-7.5183,-4.0320,-1.2223,-9.0061,-6.6807,-1.1601,-9.1738,-28.5140,-7.5632,-2.4821,-6.2192,-3.0353,-1.2038,5.2069,-3.0458,-4.3029,-5.2628
535.1562,-28.5179,-4.3256,-3.5716,-3.0985,-2.2008,-5.3339,-4.6192,-1.6591,-6.5287,-24.1653,-7.2864,-1.1130,-5.9398,-5.1832,-3.5369,5.6842,-0.7519,-2.8369,-3.6212
539.0625,-17.8661,1.7715,1.4090,-1.1101,-2.5955,-1.9285,-2.2031,-1.8339,-1.8430,-14.5081,-6.0241,0.6791,-4.3396,-6.6048,-3.3793,4.7856,2.0556,-0.0893,-1.0452
542.9688,-1.9961,7.9531,6.5591,1.6441,-2.0705,1.1780,0.4287,-1.1043,4.7832,-0.3923,-2.6433,3.1717,-1.3359,-6.5811,0.6632,3.2185,5.4512,3.7435,2.1770
546.8750,15.6669,13.4225,10.8853,4.5092,-0.7843,4.0579,2.8684,0.5039,12.1808,14.9836,3.2077,6.3764,2.4130,-5.0199,7.2758,2.8389,8.8450,7.8528,5.4662
550.7812,30.1718,17.1591,13.5089,6.7022,0.6403,6.3891,4.4510,2.3784,18.3887,27.1667,10.4676,9.7252,5.6380,-2.5571,13.2698,5.4087,10.8763,11.1388,8.0128
554.6875,36.9772,18.1434,13.8816,7.5830,1.3783,7.3155,4.5350,3.6642,21.4010,32.3073,16.6171,12.0410,6.9516,-0.3216,15.5094,11.0343,9.9842,12.6697,8.9780
558.5938,33.9792,15.8395,11.9586,6.8735,0.7897,5.9366,2.9182,3.7300,20.0946,28.8643,18.6488,12.0037,5.5178,0.5679,12.6678,17.4699,5.4384,12.0650,7.8299
562.5000,22.5665,10.6729,8.2915,4.7725,-1.2420,2.1392,0.1032,2.5155,14.8810,18.2815,14.7831,8.9620,1.5661,-0.4409,5.7817,21.0124,-1.8422,9.6494,4.6892
566.4062,7.0817,4.1530,3.9758,1.9404,-4.1749,-2.8858,-2.8113,0.5941,7.6953,4.3167,5.9262,3.5900,-3.5541,-2.9970,-2.5263,18.6473,-9.3559,6.3356,0.4842
570.3125,-7.0715,-1.5532,0.3984,-0.6625,-6.9611,-6.9581,-4.5982,-1.0786,1.2473,-8.5730,-4.2474,-2.1259,-7.8684,-5.9190,-9.4332,10.1480,-14.1019,3.3024,-3.2517
574.2188,-15.7040,-4.4641,-1.1926,-2.0699,-8.4396,-7.9957,-4.4680,-1.6147,-2.1442,-16.9451,-10.9621,-5.7093,-9.6096,-7.6829,-12.9874,-1.3063,-14.0983,1.5961,-4.9334
578.1250,-17.3898,-3.6465,-0.1640,-1.6653,-7.8201,-5.2407,-2.4141,-0.6422,-1.5626,-19.4325,-10.9591,-5.4322,-7.9815,-7.1076,-12.4513,-10.5728,-9.3983,1.7858,-3.6151
582.0312,-13.6660,0.3399,3.1858,0.5356,-5.0454,0.1576,0.8275,1.4678,2.1568,-16.8678,-4.4886,-1.2546,-3.4786,-3.9101,-8.1640,-13.3116,-1.9657,3.7799,0.5198
585.9375,-8.0115,5.6460,7.6506,3.8260,-0.8592,5.5973,4.1252,3.7255,6.9018,-11.6761,4.6560,5.1099,2.3797,1.1502,-1.4079,-8.4296,5.4759,6.8610,6.1506
589.8438,-4.2479,9.9008,11.5303,7.0491,3.4741,8.2677,6.3824,4.9729,10.3166,-6.9299,11.2128,11.0576,7.7362,6.6121,5.5958,1.2956,10.8405,9.9419,11.3451
593.7500,-5.0800,11.1965,13.2994,9.0665,6.6870,6.4770,6.8561,4.4571,10.8598,-5.3677,11.4303,14.3885,11.1521,10.9628,9.9341,10.7942,13.4562,11.9679,14.3929
597.6562,-11.2266,8.8640,12.2454,9.2446,8.0316,0.3693,5.3070,2.2265,8.3808,-8.5345,5.1393,14.2946,12.0898,13.2684,8.9164,15.4938,13.8595,12.3179,14.5457
601.5625,-21.2956,3.7109,8.7754,7.7133,7.5587,-8.2577,2.0311,-0.8785,3.9913,-16.2036,-4.3285,11.5306,10.9557,13.4764,1.5170,13.6272,12.9618,11.0292,12.2959
605.4688,-32.3630,-2.3774,4.2206,5.2596,6.0228,-16.8203,-2.1847,-3.6542,-0.6256,-26.3340,-12.2528,7.7667,8.7590,12.2725,-10.5127,6.7623,11.3038,8.7288,9.0595
609.3750,-41.0947,-7.3009,0.2153,2.9189,4.4737,-22.9965,-6.2100,-5.1351,-4.0682,-35.7710,-15.2963,4.5873,6.5979,10.6175,-22.8794,-1.5459,8.9153,6.2942,6.4405
613.2812,-45.0692,-9.6886,-2.0532,1.4934,3.7564,-25.4876,-8.8726,-5.0150,-5.7994,-41.5637,-13.2326,2.7318,5.2117,9.2433,-30.6150,-7.9231,5.7311,4.4160,5.4626
617.1875,-43.7803,-9.4783,-2.3449,1.2533,4.1750,-24.2718,-9.3810,-3.6465,-6.2115,-42.3172,-8.6901,1.9484,4.7676,8.3796,-30.6834,-10.7545,2.0740,3.3011,6.1594
621.0938,-38.8046,-7.8409,-1.3643,1.9435,5.4628,-20.3943,-7.6977,-1.6733,-6.2109,-38.8108,-5.2662,1.4195,4.9248,7.8105,-23.7175,-10.3722,-1.2752,2.6752,7.6985
625.0000,-32.9818,-6.4821,-0.2775,3.0274,7.0116,-15.4887,-4.6364,0.4039,-6.6076,-33.4590,-5.3215,0.4045,5.1022,7.1594,-13.6775,-8.1002,-3.4928,2.0610,8.9188
628.9062,-29.0193,-6.6971,-0.0377,3.9739,8.1830,-11.2346,-1.5623,2.3959,-7.6670,-28.9139,-8.8048,-1.3041,4.8046,6.1819,-5.5526,-5.1091,-4.2465,1.1353,8.9506
632.8125,-28.3129,-8.7012,-0.9024,4.4237,8.5240,-8.8980,0.2060,4.2385,-9.0551,-26.6922,-13.6589,-3.3257,3.8550,4.8874,-2.5542,-1.9369,-3.8840,-0.0639,7.5868
636.7188,-30.6255,-11.5970,-2.3881,4.2082,7.8283,-9.0310,0.0087,5.6754,-10.1499,-26.6667,-17.3105,-4.9754,2.4448,3.4641,-4.5776,1.1928,-3.1069,-1.1917,5.2621
640.6250,-34.6430,-13.9467,-3.6287,3.3201,6.1210,-11.3567,-1.8404,6.1732,-10.4621,-27.6086,-18.1689,-5.6470,1.0132,2.1258,-8.7990,3.8290,-2.3918,-1.8305,2.7450
644.5312,-38.8157,-14.5546,-3.8660,1.9381,3.6726,-14.8438,-4.1920,5.2474,-9.8660,-28.1959,-16.2401,-5.0654,0.0495,1.0350,-11.7971,5.2185,-1.6236,-1.7139,0.7848
648.4375,-41.8134,-12.9781,-2.7724,0.4966,1.0590,-17.9743,-5.5826,3.0044,-8.5071,-27.6606,-12.6838,-3.3199,-0.0698,0.3565,-11.6503,4.8656,-0.2308,-0.7959,-0.0902
652.3438,-42.4423,-9.5393,-0.4721,-0.3304,-0.8438,-19.1947,-4.9024,0.4318,-6.5269,-25.7132,-8.8487,-0.7501,0.8427,0.3545,-8.6941,3.2141,2.2853,0.8231,0.4001
656.2500,-39.5177,-4.9856,2.6349,0.1481,-1.0715,-17.4912,-1.9314,-0.9331,-3.8994,-22.1253,-5.5330,2.1855,2.7667,1.3791,-4.7394,1.7187,5.8270,2.9809,2.3101
660.1562,-32.2965,-0.1560,6.0381,2.2426,0.9951,-12.9190,2.4704,0.1161,-0.5778,-16.6648,-2.8897,4.9771,5.4565,3.6710,-1.6322,2.0300,9.5666,5.4330,5.4171
664.0625,-21.4498,4.1189,9.1536,5.5451,5.1750,-6.8085,6.6182,3.5698,3.1465,-9.6476,-0.8275,7.0975,8.4126,7.0815,-0.2684,4.7926,12.2883,7.7615,9.1142
667.9688,-9.7234,6.9768,11.3111,8.9402,10.3262,-1.3916,8.6625,7.9831,6.4309,-2.5627,0.5908,8.0867,10.9152,10.9259,-0.5320,8.9891,12.9759,9.3709,12.4110
671.8750,-1.2508,7.6399,11.8719,11.0811,14.6968,1.1717,7.4475,11.2029,8.1442,2.1348,1.1517,7.7296,12.2114,14.1498,-1.7768,12.4489,11.2969,9.7098,14.2063
675.7812,0.6457,5.8393,10.5494,11.1273,16.7024,-0.0119,3.2080,11.6647,7.5815,2.4138,0.8679,6.2533,11.8543,15.7848,-3.1783,13.2711,7.7528,8.6538,13.8033
679.6875,-4.0622,2.3136,7.7664,9.2944,15.7320,-3.8394,-2.2982,9.4171,5.1725,-1.5468,0.3258,4.3814,10.0315,15.4477,-3.7148,11.1604,3.4914,6.7825,11.3968
683.5938,-11.2935,-1.1314,4.7205,6.8199,12.4986,-7.5534,-6.4423,6.1406,2.5682,-6.6880,0.5676,3.1161,7.6341,13.5604,-2.1637,7.6592,-0.0815,5.2547,8.1642
687.5000,-14.8721,-2.3445,2.9404,5.2863,8.6806,-8.2044,-6.9809,4.0807,1.8318,-8.5258,2.4482,3.2782,5.9131,11.1232,2.3726,5.0495,-1.7445,5.2231,5.7780
691.4062,-10.5207,-0.0985,3.4657,5.6835,6.0305,-4.5123,-3.3149,4.5724,4.1057,-4.1794,5.8699,5.0294,5.8301,9.1608,9.4720,4.7024,-0.8597,7.0890,5.5334
695.3125,0.7838,4.8932,6.1353,7.8009,5.4683,2.0410,2.9973,7.1516,8.6329,5.0683,9.5074,7.6817,7.4662,8.1904,16.7337,6.1037,2.3546,10.0992,7.5933
699.2188,12.7269,10.0552,9.5115,10.3657,6.7000,7.7638,8.8994,9.8755,12.9234,13.8057,11.3651,9.9779,9.8969,8.0524,20.3816,7.3055,6.7983,12.6447,10.8540
703.1250,17.4172,12.3219,11.6156,11.8613,8.5659,8.8466,11.4228,10.6548,14.1514,15.6164,9.9441,10.7490,11.6876,8.1975,17.2530,6.4784,10.8234,13.1721,13.5723
707.0312,10.7436,10.0633,11.0958,11.5051,9.8574,3.8074,9.3296,8.6993,10.9899,7.4738,5.3061,9.5932,11.7583,8.2016,7.0931,3.4019,12.8971,11.1761,14.4020
710.9375,-4.3775,4.2907,8.0978,9.7420,10.0539,-5.2910,3.8216,5.0935,4.6695,-7.6442,-0.7018,7.1565,10.0799,8.1234,-6.5097,-0.2402,12.3352,7.6134,13.1859
714.8438,-19.3839,-1.7797,4.2377,7.9249,9.5132,-13.7785,-2.1542,2.1135,-1.5401,-22.0159,-5.3059,4.8098,7.7263,8.4363,-17.5522,-1.9952,9.6970,4.4159,10.9916
718.7500,-25.4300,-4.6511,1.6470,7.3942,9.0384,-17.0218,-5.6004,1.7471,-4.2067,-27.7798,-6.2957,3.8813,6.2083,9.5836,-20.8348,-0.3658,6.5372,3.3603,9.3647
722.6562,-19.1624,-2.7372,1.6821,8.5708,9.1704,-13.1577,-5.1185,4.4072,-1.8117,-21.8969,-3.2481,4.8942,6.4985,11.4921,-15.0313,4.1477,4.5660,4.9944,9.2968
726.5625,-4.8868,2.6601,4.1319,10.6632,9.7243,-4.1656,-1.5034,8.6717,4.3248,-8.0718,2.2714,7.2758,8.3832,13.4265,-3.5883,9.4304,4.6710,8.3100,10.5962
730.4688,8.4422,8.2808,7.4322,12.1819,9.8962,5.4148,3.0165,12.1911,10.8914,5.7430,7.6538,9.7199,10.5852,14.3360,7.2151,13.2188,6.4109,11.3791,12.0725
734.3750,13.3284,11.1243,9.7201,11.9196,8.8635,11.2703,6.3022,13.1437,14.6631,12.5707,10.7463,10.9832,11.5952,13.4963,11.8562,14.5273,8.3447,12.5564,12.3949
738.2812,8.6829,10.4374,10.0144,9.7641,6.4600,11.7893,7.5418,11.3123,14.4647,10.7955,10.9873,10.6275,10.6802,11.0307,8.5678,14.0044,9.0340,11.4923,11.0345
742.1875,0.2356,8.1191,8.7536,6.8271,3.4558,8.6861,7.4359,8.1484,11.7769,4.7944,9.5297,9.2657,8.4119,7.9549,-0.0090,13.0691,8.0910,9.3343,8.6592
746.0938,-3.6972,7.3038,7.3906,4.8175,1.2355,5.5296,7.3517,5.8587,9.6524,1.5813,8.3647,8.1745,6.3642,5.6852,-8.6731,12.6248,6.5636,8.0093,6.7273
750.0000,2.0258,10.1360,7.3761,5.0470,1.0495,5.3103,8.1762,6.1163,10.6996,5.9474,9.0579,8.5186,6.1571,5.2856,-12.6345,12.4183,6.3403,9.0351,6.5621
753.9062,16.0621,16.2610,9.2286,7.6591,3.2806,8.6867,9.7213,9.1553,15.4220,17.4081,11.8682,10.6390,8.4295,6.8862,-9.7877,11.5194,8.8892,12.5656,8.5094
757.8125,31.7179,22.9890,12.2557,11.5094,7.1505,13.9066,11.0341,13.6981,21.8838,30.7544,15.6843,13.7945,12.3599,9.5939,-1.2528,9.4339,14.1089,17.2015,11.6972
761.7188,41.3044,26.9158,15.0162,14.7358,11.0346,18.1714,11.2540,17.6600,26.7896,39.4195,18.6742,16.4758,16.0188,11.9292,9.6075,6.8301,20.0529,20.6470,14.5156
765.6250,40.4914,25.8522,16.1418,15.6878,13.2145,19.3218,10.2876,19.1865,27.2410,39.1577,19.1772,17.1119,17.3533,12.5414,18.7466,5.1838,23.7905,20.8451,15.4919
769.5312,29.9376,19.8615,14.9955,13.7246,12.6793,16.7586,8.7919,17.4886,22.1672,29.7862,16.3681,14.8172,15.2647,10.8342,22.7517,5.5654,22.9736,17.0086,14.0419
773.4375,13.8151,10.9419,11.8526,9.5043,9.5856,11.2875,7.5494,13.1271,12.7608,14.4658,10.4953,9.8414,10.2128,7.2149,19.7161,7.5569,17.2221,10.0577,10.7052
777.3438,-2.9863,1.8134,7.6380,4.6605,5.1735,4.3803,6.7952,7.6948,1.8748,-2.3090,2.7609,3.5344,4.0509,2.8872,9.8301,9.2565,8.5076,2.2734,6.8078
781.2500,-16.7984,-5.3019,3.4760,1.0494,1.2039,-2.4434,6.0486,3.0957,-7.1938,-16.4383,-5.0159,-2.1606,-0.8128,-0.6827,-4.3298,8.5059,0.2691,-3.6715,3.7955
785.1562,-25.4626,-9.2861,0.2933,-0.0768,-0.8066,-7.8343,4.5587,0.7501,-11.9697,-24.9818,-10.8890,-5.4912,-2.5131,-2.3755,-18.2233,4.4910,-4.2806,-5.8804,2.6005
789.0625,-27.8621,-10.1012,-1.4313,1.3976,-0.2107,-10.7103,1.9644,1.0446,-11.6811,-26.4101,-13.4185,-5.6439,-0.5673,-1.8494,-26.8574,-1.4918,-3.7358,-4.0872,3.3112
792.9688,-24.0333,-8.5186,-1.7868,4.4354,2.5475,-10.6157,-1.3777,3.2370,-7.5191,-21.0539,-12.3150,-3.1272,3.9272,0.3715,-27.0691,-6.7428,0.8946,0.2008,5.2294
796.8750,-16.0954,-5.9119,-1.4188,7.3443,6.1786,-8.2913,-4.6499,5.8395,-2.1976,-11.7084,-8.7715,0.4232,8.8210,3.1730,-19.3989,-8.8921,6.8516,4.3703,7.2259
800.7812,-8.7859,-4.0562,-1.3317,8.5538,9.1242,-5.8852,-7.1746,7.3063,1.0970,-3.4793,-5.1331,2.9821,11.9094,5.3605,-8.1834,-7.4337,11.1435,5.9067,8.2189
804.6875,-8.1235,-4.6753,-2.4763,7.3076,10.1892,-6.2142,-8.8548,6.7083,0.0453,-2.0303,-3.8489,3.0979,11.9186,6.1737,0.5964,-3.9648,12.0383,3.5707,7.5887
808.5938,-18.1220,-8.6757,-5.2464,3.9441,8.9527,-11.1496,-10.1026,4.0853,-5.7209,-10.5854,-6.1607,0.5928,9.0057,5.5693,2.6458,-0.9746,9.7182,-2.0411,5.3807
812.5000,-37.4565,-15.4384,-9.1645,-0.3566,5.8137,-20.0523,-11.3382,0.3278,-14.3588,-27.4295,-11.3131,-3.3949,4.5401,4.1416,-2.2036,-0.0878,5.8263,-8.8512,2.2286
816.4062,-58.7527,-22.7614,-13.0125,-4.2028,1.7080,-29.4810,-12.4947,-3.3173,-22.6276,-45.9026,-16.8951,-7.0809,0.3109,2.7334,-10.1148,-1.0446,2.2980,-14.3846,-0.9609
820.3125,-71.7895,-27.7575,-15.4242,-6.6494,-2.3166,-34.7354,-12.9510,-5.8344,-27.4495,-57.5099,-20.2438,-9.0470,-2.3882,1.9526,-15.9139,-2.1318,0.2574,-16.9897,-3.4168
824.2188,-69.1738,-28.3492,-15.6256,-7.5373,-5.4563,-32.5374,-11.9634,-6.8237,-27.4118,-56.6007,-20.0802,-8.9998,-3.2995,1.8618,-16.5007,-1.6910,-0.3747,-16.5336,-4.8054
828.1250,-50.9964,-24.4713,-13.8608,-7.3748,-7.3149,-23.2053,-9.2724,-6.5335,-23.3678,-43.7306,-17.2836,-7.8136,-3.1055,2.0000,-12.6436,0.4557,-0.4374,-14.2311,-5.2791
832.0312,-25.2800,-18.1584,-11.2083,-6.8987,-7.8844,-10.8098,-5.4263,-5.6025,-17.7937,-25.4480,-14.2168,-6.8467,-2.8335,1.7035,-7.9712,2.7468,-0.6871,-11.7841,-5.2718
835.9375,-3.6561,-12.3801,-8.8989,-6.6240,-7.4388,-1.0314,-1.5878,-4.7050,-13.3065,-10.5180,-13.0052,-6.9876,-3.1805,0.5163,-6.0212,2.9945,-1.2058,-10.3966,-5.1924
839.8438,5.1375,-9.3329,-7.5892,-6.6495,-6.4275,2.0402,1.0329,-4.2854,-11.2505,-4.9492,-13.9593,-8.0668,-4.1871,-1.5520,-7.6121,0.0641,-1.4596,-10.2434,-5.2195
843.7500,-0.1059,-9.2748,-7.0780,-6.7771,-5.3844,-1.8196,1.7345,-4.4594,-11.1747,-8.9423,-15.2999,-9.0190,-5.4068,-4.0523,-10.4801,-5.1058,-0.8879,-10.6226,-5.3138
847.6562,-13.0609,-10.6248,-6.6271,-6.7844,-4.8147,-9.0397,0.5491,-5.0579,-11.4234,-17.5167,-14.4576,-8.6674,-6.3695,-6.3514,-11.3306,-9.8939,0.4843,-10.5755,-5.3931
851.5625,-24.2289,-11.1868,-5.6158,-6.6162,-5.0363,-14.5693,-1.9168,-5.7506,-10.3558,-24.1109,-10.0709,-6.5746,-6.9549,-7.9400,-8.5848,-11.5598,1.9141,-9.5102,-5.4950
855.4688,-26.6782,-9.6293,-4.0346,-6.3715,-6.0295,-14.9353,-4.8236,-6.2034,-7.3845,-24.6347,-3.2386,-3.3728,-7.4110,-8.6162,-3.6016,-8.9292,2.4012,-7.4574,-5.7739
859.3750,-19.6196,-6.2508,-2.4724,-6.1463,-7.4006,-10.1427,-7.3813,-6.2376,-3.2380,-19.4556,2.9548,-0.3530,-8.0482,-8.4782,0.5795,-3.0875,1.3955,-4.9048,-6.3269
863.2812,-7.9955,-2.6215,-1.6489,-5.9059,-8.5377,-3.3625,-8.9828,-5.9367,0.5792,-12.4416,5.4096,1.3852,-8.8937,-7.7876,1.9188,3.3390,-0.7827,-2.4402,-7.0021
867.1875,1.0969,-0.4671,-1.8723,-5.5111,-8.9159,1.2088,-9.2598,-5.6250,2.6764,-8.1450,3.1475,1.6289,-9.6011,-6.8201,1.2471,7.7885,-3.1184,-0.4861,-7.3778
871.0938,2.5895,-0.6054,-2.8307,-4.8710,-8.3903,0.8701,-8.1663,-5.6829,2.4485,-9.1517,-1.9024,1.1224,-9.6855,-5.7812,1.7074,9.1833,-4.5348,0.7525,-6.9751
875.0000,-4.2056,-2.5914,-3.8390,-4.0728,-7.2844,-4.1945,-6.0751,-6.2720,0.2276,-15.0875,-6.0821,0.9927,-8.8862,-4.7904,6.0823,8.2804,-4.5122,1.2180,-5.5795
878.9062,-15.9770,-5.1671,-4.3164,-3.3571,-6.1959,-11.3115,-3.7536,-7.1499,-3.0174,-23.4160,-6.4031,1.9509,-7.3604,-3.8862,14.0642,6.8281,-3.2617,0.9640,-3.4388
882.8125,-27.7116,-7.0868,-4.1260,-2.9408,-5.6172,-17.0331,-2.1103,-7.7433,-6.1513,-31.0732,-2.5534,3.8223,-5.5515,-3.0180,21.6997,6.1934,-1.3808,0.2095,-1.1782
886.7188,-35.2850,-7.7485,-3.5560,-2.8308,-5.6033,-19.0350,-1.7767,-7.4918,-8.2638,-35.8142,2.8464,5.7021,-3.8450,-2.0386,23.6682,6.4244,0.6855,-0.6155,0.5338
890.6250,-37.0324,-7.3141,-3.0239,-2.7886,-5.7034,-17.1434,-2.7686,-6.2562,-8.8848,-36.7399,5.9152,6.5919,-2.2900,-0.7393,16.9110,6.3570,2.9313,-0.9678,1.3517
894.5312,-33.8747,-6.3935,-2.7762,-2.4878,-5.2098,-13.0908,-4.4753,-4.4915,-8.0410,-34.1549,3.9968,6.0620,-0.6124,1.0540,3.0413,4.6380,5.6081,-0.4486,1.4128
898.4375,-28.3385,-5.5986,-2.8051,-1.7507,-3.5849,-9.3308,-6.0264,-3.0086,-6.1754,-29.1664,-2.6596,4.5029,1.4928,3.3568,-12.2461,0.9133,8.7538,0.9350,1.1945
902.3438,-23.1248,-5.2397,-2.9857,-0.6805,-0.8134,-7.6592,-6.8096,-2.4434,-3.9371,-23.2558,-11.0556,2.8373,4.0166,5.9455,-22.4421,-3.6703,11.8520,2.7148,1.1804
906.2500,-19.8564,-5.2590,-3.2508,0.4063,2.5234,-8.3594,-6.7915,-2.7972,-1.8839,-17.8245,-17.2368,1.9279,6.5095,8.3796,-23.9936,-7.0361,13.9427,4.1922,1.5625
910.1562,-18.4851,-5.3411,-3.6271,1.1861,5.4870,-10.2359,-6.4246,-3.4010,-0.2437,-13.7358,-18.5203,2.0797,8.2689,10.1305,-18.1086,-7.4792,14.1531,4.8198,2.1604
914.0625,-17.6190,-5.1122,-4.1272,1.5066,7.2006,-11.4444,-6.2266,-3.3762,1.0927,-11.0613,-14.8116,2.9242,8.7112,10.7626,-9.5631,-4.8461,12.2821,4.4683,2.5723
917.9688,-15.6614,-4.3672,-4.6487,1.4061,7.2273,-10.6560,-6.3601,-2.2904,2.2915,-9.2910,-8.3852,3.6953,7.6716,10.0895,-3.5273,-0.7789,9.0150,3.3951,2.4246
921.8750,-12.1745,-3.2616,-5.0234,0.9882,5.7374,-7.9352,-6.5319,-0.5342,3.1892,-7.9795,-2.5037,3.6689,5.4494,8.2423,-2.6347,2.2128,5.5960,1.9604,1.5551
925.7812,-8.5968,-2.3671,-5.1981,0.2883,3.4106,-4.8359,-6.2756,0.8789,3.1249,-7.3857,0.1651,2.4947,2.6098,5.6327,-6.0923,2.3209,3.1630,0.3311,0.0480
929.6875,-7.6832,-2.4841,-5.3626,-0.7313,1.1463,-3.5997,-5.3853,0.9805,1.2263,-8.5303,-1.4947,0.2788,-0.2927,2.8262,-11.0394,-0.3430,2.1705,-1.5861,-1.8395
933.5938,-11.8090,-4.2185,-5.8521,-2.0469,-0.2787,-5.8384,-4.1436,-0.4733,-2.9379,-12.4635,-6.9488,-2.5379,-2.8855,0.3729,-14.8318,-3.7177,2.2536,-3.9340,-3.7706
937.5000,-21.1298,-7.5111,-6.8383,-3.4290,-0.4708,-11.4239,-3.1489,-2.7887,-8.7559,-19.1777,-14.4638,-5.3648,-4.9760,-1.3509,-16.5393,-5.0592,2.5836,-6.6004,-5.3897
941.4062,-32.8473,-11.4231,-8.0461,-4.4449,0.4899,-18.2664,-2.8592,-4.7391,-14.4918,-26.9830,-21.6822,-7.6050,-6.4508,-2.2292,-16.8131,-2.7701,2.4528,-9.0870,-6.3689
945.3125,-42.2188,-14.3883,-8.7677,-4.6558,2.1446,-23.1913,-3.1972,-5.3029,-17.9097,-32.9258,-26.1594,-8.7509,-7.2013,-2.3884,-16.6253,2.3789,1.7072,-10.6883,-6.4869
949.2188,-44.8152,-14.8715,-8.2502,-3.8863,3.8821,-23.4817,-3.5285,-4.2294,-17.3206,-34.1110,-25.9643,-8.4914,-7.1499,-2.0813,-16.1336,7.4934,0.7691,-10.8739,-5.7398
953.1250,-38.7003,-12.1029,-6.2320,-2.3709,5.1921,-18.2363,-3.0600,-2.0773,-12.4685,-29.1384,-20.4191,-6.8542,-6.3474,-1.5390,-14.6171,9.2241,0.2641,-9.6169,-4.4144
957.0312,-25.2827,-6.4856,-3.2456,-0.6551,5.8296,-8.7932,-1.3935,0.2377,-4.7473,-18.8020,-10.7296,-4.3180,-5.0502,-0.8821,-11.4122,5.8830,0.5059,-7.4419,-3.0325
960.9375,-8.5143,0.5330,-0.4332,0.6893,5.8193,1.9638,1.1477,2.0103,3.3625,-5.7379,0.0032,-1.7671,-3.6974,-0.1455,-6.9366,-1.3280,1.1709,-5.1726,-2.1465
964.8438,6.8602,7.0208,1.0476,1.3417,5.3196,10.9435,3.6532,3.0264,9.3082,6.6084,7.7581,-0.2132,-2.7771,0.6062,-2.8489,-8.8135,1.3862,-3.5464,-2.0743
968.7500,16.9108,11.2383,0.6595,1.3200,4.4494,16.0466,5.1419,3.4213,11.4103,15.0483,9.3490,-0.3514,-2.6357,1.1765,-1.1274,-12.5755,0.2189,-2.9266,-2.7280
972.6562,19.3459,12.1408,-1.2390,0.8486,3.2064,16.6567,5.1237,3.3281,9.3549,17.3646,4.1116,-2.1642,-3.3157,1.2545,-2.7291,-10.5109,-2.6848,-3.2384,-3.6512
976.5625,13.6815,9.5983,-3.6334,0.1400,1.5382,13.3862,3.8493,2.6644,4.1487,12.7349,-5.5138,-4.8279,-4.5016,0.5759,-6.8248,-3.6142,-6.6881,-4.0987,-4.2553
980.4688,1.2434,4.3903,-5.4238,-0.7266,-0.4866,7.4845,2.1029,1.2480,-2.3169,2.0673,-15.0357,-7.0446,-5.6170,-0.8723,-11.1835,4.6323,-10.2823,-5.0247,-4.1224
984.3750,-14.8279,-1.9535,-5.9569,-1.7504,-2.5511,0.3718,0.6952,-0.8771,-7.8946,-11.8360,-20.1701,-7.6847,-6.0657,-2.7587,-13.4608,10.2604,-11.7719,-5.6137,-3.2051
988.2812,-29.9599,-7.4864,-5.2318,-2.8572,-4.1318,-6.5367,-0.0024,-3.2236,-10.8576,-24.7210,-19.0741,-6.4105,-5.5266,-4.5236,-12.5449,10.9459,-10.2119,-5.6618,-1.8241
992.1875,-39.4033,-10.4015,-3.7459,-3.8148,-4.7241,-11.8910,-0.1930,-4.9919,-10.4881,-32.2538,-13.2443,-3.9079,-4.1584,-5.6538,-9.1296,7.0047,-6.0596,-5.2179,-0.4842
996.0938,-40.2021,-9.7240,-2.1634,-4.3157,-4.1207,-14.6093,-0.3999,-5.5079,-7.3789,-31.9746,-6.5196,-1.5419,-2.5642,-5.9398,-5.2299,0.7936,-1.0790,-4.5594,0.3765
1000.0000,-32.8360,-5.8391,-1.0286,-4.1761,-2.5601,-14.2600,-1.0311,-4.6639,-3.2287,-24.7511,-2.7695,-0.5810,-1.4797,-5.5392,-3.0147,-4.9048,2.5642,-4.0612,0.5767
1003.9062,-21.2530,-0.4738,-0.6257,-3.4897,-0.6365,-11.3713,-2.0772,-3.0344,-0.0812,-14.5879,-3.6515,-1.4217,-1.3259,-4.8119,-3.6635,-8.3797,3.5507,-3.9759,0.2439
1007.8125,-10.8643,4.0182,-0.9532,-2.6052,0.9782,-7.3527,-3.1560,-1.5665,0.7006,-6.5559,-7.7802,-3.2995,-1.9066,-4.0640,-6.8402,-9.4843,2.2316,-4.2375,-0.2767
1011.7188,-5.5424,5.7806,-1.7487,-1.9350,1.8224,-3.9500,-3.8680,-1.0486,-0.8444,-3.9447,-11.7808,-4.7176,-2.5001,-3.4100,-10.9716,-9.0518,0.4293,-4.4464,-0.6132
1015.6250,-5.5818,4.3559,-2.5667,-1.7425,1.7642,-2.5067,-4.1966,-1.7090,-3.3636,-6.4802,-12.5376,-4.3956,-2.3619,-2.8581,-14.1080,-7.9066,0.2323,-4.1163,-0.5815
1019.5312,-8.0815,0.7899,-2.9566,-2.0653,0.9107,-3.4571,-4.6383,-3.1843,-5.1232,-10.8797,-9.2353,-2.1801,-1.3456,-2.5301,-14.9207,-6.2988,2.4916,-3.0711,-0.3352
1023.4375,-9.5076,-3.1461,-2.7252,-2.8118,-0.5793,-6.3071,-5.9117,-4.8259,-5.2192,-13.4095,-3.9317,0.6781,-0.1936,-2.7844,-13.3746,-4.1076,6.0189,-1.7139,-0.3577
1027.3438,-8.5254,-6.0933,-2.1419,-3.9124,-2.5959,-10.0097,-8.3820,-6.0916,-4.2228,-12.6184,-0.3127,2.1373,-0.1981,-4.0685,-10.7563,-1.4716,8.1217,-0.9132,-1.2462
1031.2500,-6.9148,-7.8188,-1.8802,-5.3616,-4.9986,-13.4095,-11.5667,-6.7521,-3.7405,-10.2290,-1.3816,0.5826,-2.3426,-6.5379,-8.9885,0.8295,6.2652,-1.4851,-3.3386
1035.1562,-7.8165,-9.0167,-2.6246,-7.0872,-7.4327,-15.4987,-14.0973,-6.8217,-5.1245,-9.5026,-7.4744,-4.0562,-6.4437,-9.7079,-9.4842,1.6693,-0.1316,-3.5639,-6.3582
1039.0625,-12.6576,-10.3865,-4.5264,-8.7596,-9.2392,-15.4890,-14.2708,-6.3425,-8.2373,-12.3177,-15.7925,-9.9926,-10.9098,-12.4422,-12.0951,0.3643,-8.9396,-6.3026,-9.3155
1042.9688,-19.2319,-11.7347,-6.8900,-9.7477,-9.6176,-12.9018,-10.9591,-5.2397,-11.2182,-17.2216,-21.7622,-14.3476,-13.3989,-13.3922,-14.7991,-2.6656,-16.1833,-8.1815,-10.8223
1046.8750,-22.6072,-11.8434,-8.3932,-9.3407,-8.0166,-7.7983,-4.3799,-3.3763,-11.5340,-20.0273,-21.4697,-14.6180,-12.0784,-11.6841,-14.4977,-5.9234,-18.1009,-7.8115,-9.7476
1050.7812,-18.3623,-9.2731,-7.8068,-7.1491,-4.5310,-1.0103,3.7594,-0.7489,-7.6651,-16.6053,-13.8162,-10.0293,-6.7424,-7.4470,-8.6888,-7.5855,-13.2055,-4.7515,-5.8916
1054.6875,-5.7945,-3.5357,-4.7851,-3.4202,-0.0209,5.9466,10.9132,2.3535,-0.2583,-5.8367,-1.1919,-1.9910,0.9365,-1.8317,2.8374,-6.4699,-3.1291,0.1947,-0.2611
1058.5938,11.3363,4.2562,-0.1754,0.9870,4.1925,11.4445,14.8627,5.3813,8.1050,9.4545,11.6997,6.6212,8.2346,3.5237,17.3382,-2.5793,8.2326,5.4251,5.3058
1062.5000,27.1427,11.8135,4.4292,5.0072,6.9339,14.5718,14.7862,7.7536,14.4321,24.2625,20.2230,12.9472,12.8216,7.2833,30.0925,3.0776,16.7396,9.4649,9.0393
1066.4062,37.3300,16.9479,7.6536,7.9257,7.7560,15.6698,11.6409,9.1413,17.1234,34.5319,22.1058,15.5461,13.9578,9.0037,36.6628,9.1397,20.0083,11.7808,10.1839
1070.3125,41.5887,18.8520,9.1864,9.7280,7.1522,16.1203,7.6269,9.6193,16.8426,39.3849,18.4325,14.9487,12.7358,9.2046,35.2420,14.4944,18.3084,12.9657,9.4168
1074.2188,43.0193,18.5088,9.9186,11.0043,6.2645,17.4220,5.0182,9.5931,15.8843,40.9598,12.8495,13.1111,11.2610,8.9301,27.6984,18.4599,14.0015,14.1960,8.4446
1078.1250,45.2366,17.9671,11.2594,12.4715,6.2497,20.1561,5.0062,9.5518,16.5196,42.2432,9.4830,12.1625,11.3245,9.1077,18.6273,20.6214,10.0191,16.3481,8.9781
1082.0312,49.5157,19.0023,14.0955,14.4385,7.6695,23.5845,7.1910,9.8064,19.4874,44.7344,10.7471,13.2179,13.4045,10.0947,12.8995,20.6901,8.3375,19.3748,11.6936
1085.9375,54.1604,22.0749,18.1228,16.5877,10.2480,26.2066,9.9735,10.3688,23.6464,47.7279,16.2378,15.9181,16.5703,11.6350,13.1196,18.6602,9.2513,22.3487,15.8274
1089.8438,56.3997,26.2331,22.0275,18.2208,13.1133,26.8815,11.5844,11.0262,26.9515,49.5532,23.2575,18.8805,19.2601,13.1733,18.4578,15.1460,11.6676,24.1184,19.6681
1093.7500,55.0861,29.9085,24.3882,18.7917,15.3440,25.6806,11.1284,11.5419,27.9880,49.5004,28.5749,20.6916,20.3644,14.2692,25.4640,11.4808,14.0491,24.1173,21.6458
1097.6562,51.8923,31.9528,24.6610,18.3424,16.4782,23.8115,9.0457,11.8367,26.9559,48.6757,30.3416,20.7940,19.9055,14.8435,30.2578,9.2560,15.3594,22.7767,21.3269
1101.5625,49.9939,32.1819,23.5501,17.5225,16.6867,22.6605,6.7565,12.0273,25.4467,49.0222,29.0338,19.7439,18.9233,15.1406,30.7083,9.4419,15.5023,21.2746,19.6770
1105.4688,51.3017,31.1458,22.5063,17.1645,16.5402,22.6786,5.7435,12.2958,25.2328,51.3402,26.9074,18.7442,18.7095,15.4868,27.3367,11.6826,15.1263,20.7918,18.4232
1109.3750,54.4919,29.4439,22.7101,17.7009,16.5526,22.9652,6.6366,12.6816,26.9535,54.0254,26.3528,18.7995,19.9228,16.0288,22.5654,14.3675,15.0341,21.7602,18.9262
1113.2812,55.4634,27.2002,24.2511,18.8262,16.8060,21.8720,8.8355,12.9473,29.6015,53.7034,28.2001,20.0414,22.1475,16.6175,18.9696,15.5773,15.6020,23.5783,21.2882
1117.1875,49.9569,24.0994,26.0565,19.6430,16.8858,18.1690,10.8630,12.6361,31.1121,47.4211,31.0442,21.6325,24.1368,16.8858,17.7060,14.3358,16.5462,24.9616,24.2602
1121.0938,36.4391,19.8881,26.5967,19.2058,16.1432,11.9020,11.2134,11.3151,29.6218,34.8061,32.0299,22.2844,24.5514,16.4476,18.0308,11.2948,17.1340,24.7022,25.9946
1125.0000,17.2129,14.8562,24.8683,17.1052,14.0970,4.3332,9.1928,8.8655,24.5693,18.5952,28.6385,21.0512,22.7204,15.0904,18.0384,8.3213,16.6775,22.3668,25.1464
1128.9062,-2.8992,9.8506,20.9969,13.7132,10.7142,-2.9258,5.2797,5.6225,16.9949,3.1465,20.3914,17.9063,18.9749,12.8518,16.0108,7.2278,14.9869,18.5192,21.6255
1132.8125,-19.2064,5.7661,16.0993,9.9343,6.4107,-8.8812,0.8294,2.2439,8.9433,-7.9941,9.4114,13.7512,14.3855,9.9486,11.4968,8.5113,12.4788,14.3473,16.5516
1136.7188,-29.2775,2.8973,11.5518,6.6393,1.8053,-13.5084,-2.6818,-0.6427,2.4028,-13.8141,-0.5502,9.8572,10.0927,6.6149,5.5329,10.9735,9.8505,10.9333,11.4928
1140.6250,-33.3710,0.6643,8.1826,4.1558,-2.5872,-17.3237,-4.4385,-2.7960,-1.5993,-15.8441,-6.1025,7.0832,6.6496,2.9608,-0.0163,12.4679,7.5209,8.6145,7.5164
1144.5312,-33.4025,-2.0381,5.8996,2.1437,-6.5197,-20.6505,-4.6707,-4.4772,-3.3161,-16.7520,-6.0907,5.3545,3.7713,-1.0433,-3.5430,11.2253,5.2412,6.8215,4.6643
1148.4375,-31.6320,-6.0836,3.9303,-0.0842,-9.9558,-23.2578,-4.4548,-6.2218,-3.9606,-18.7096,-2.2787,3.7317,0.6354,-5.4273,-4.6050,6.8537,2.2119,4.4898,2.1467
1152.3438,-30.0551,-11.4634,1.4430,-3.0261,-12.8769,-24.6711,-5.0655,-8.4044,-5.0056,-22.6072,1.5665,1.0426,-3.4596,-10.0086,-4.2160,0.4131,-2.2824,0.7967,-0.9393
1156.2500,-30.4968,-17.1971,-1.8842,-6.6031,-15.1325,-24.8381,-7.2437,-10.8973,-7.4747,-28.3066,1.6858,-3.3034,-8.4929,-14.2627,-4.4016,-6.3232,-8.1180,-4.2321,-4.8867
1160.1562,-34.6430,-21.8794,-5.6900,-10.1672,-16.4641,-24.5090,-10.7741,-13.0835,-11.5230,-35.3036,-3.6736,-8.8258,-13.5723,-17.4166,-7.2187,-11.7806,-14.0310,-9.6280,-9.1334
1164.0625,-43.4001,-24.5182,-9.1965,-12.8864,-16.6894,-24.9313,-14.5878,-14.2486,-16.4420,-43.0573,-13.3531,-14.1293,-17.3613,-18.7739,-13.6599,-15.0536,-18.1187,-13.9754,-12.6228
1167.9688,-55.8701,-25.1333,-11.6949,-14.2405,-15.8983,-27.0474,-17.3221,-14.0938,-21.0444,-50.8207,-23.9288,-17.6356,-18.8406,-18.1069,-22.9438,-15.8186,-18.9404,-16.2066,-14.4838
1171.8750,-68.9537,-24.7468,-12.9277,-14.3001,-14.4898,-30.8187,-18.0264,-12.9994,-24.2442,-57.4312,-31.5100,-18.4567,-17.9324,-15.8592,-32.5879,-14.0655,-16.5219,-16.2081,-14.5516
1175.7812,-78.3889,-24.7739,-13.1634,-13.6181,-12.9874,-35.2054,-16.6337,-11.8164,-25.5649,-61.5975,-33.6972,-16.8782,-15.5718,-12.9752,-39.3587,-10.0821,-12.5139,-14.8578,-13.3930
1179.6875,-80.9353,-26.1754,-12.9629,-12.8225,-11.7374,-38.7975,-13.9462,-11.2933,-25.3295,-62.6671,-30.6753,-14.1583,-13.1534,-10.4045,-40.7552,-4.7259,-9.2651,-13.4643,-11.8604
1183.5938,-76.3438,-28.8629,-12.8157,-12.1969,-10.6956,-40.5745,-11.1549,-11.5228,-24.4287,-61.2541,-24.9373,-11.7774,-11.6922,-8.5646,-36.3250,0.4345,-8.3324,-12.9624,-10.5229
1187.5000,-67.6457,-31.6932,-12.8724,-11.5340,-9.4689,-40.2148,-9.1783,-11.8092,-23.7915,-59.0421,-19.8823,-10.6168,-11.2489,-7.1256,-28.0701,3.5549,-9.4296,-13.3818,-9.3845
1191.4062,-59.3831,-33.0636,-12.9245,-10.3635,-7.6146,-37.8163,-8.2058,-11.0920,-23.8634,-57.7031,-18.0908,-10.5804,-11.0150,-5.3019,-19.6065,3.4956,-10.6084,-13.9322,-8.0750
1195.3125,-54.8816,-31.7998,-12.6342,-8.4037,-5.0267,-33.4396,-7.7194,-8.6754,-24.4103,-57.6716,-20.1802,-10.8741,-10.0178,-2.5057,-14.4133,0.7069,-9.6528,-13.6445,-6.3531
1199.2188,-54.4070,-27.8695,-11.8737,-5.9332,-2.1577,-27.0456,-6.9748,-4.7921,-24.7715,-57.7637,-24.7589,-10.7190,-7.9693,1.0593,-14.0904,-2.7744,-5.7841,-12.1383,-4.5350
1203.1250,-55.4266,-22.5357,-10.9624,-3.8176,0.0854,-19.0044,-5.6398,-0.6173,-24.3887,-56.0525,-29.3862,-9.9936,-5.6575,4.2911,-17.6168,-4.4744,-0.4728,-9.9968,-3.5102
1207.0312,-54.6826,-17.8333,-10.6273,-3.1367,0.7465,-10.7290,-4.1673,2.2975,-23.2459,-51.4172,-31.9394,-9.3592,-4.5645,5.7088,-22.0745,-3.1482,3.3055,-8.4871,-4.2902
1210.9375,-50.5180,-15.6034,-11.6601,-4.6056,-0.6872,-4.6968,-3.6321,2.8307,-21.9069,-44.5859,-31.6429,-9.7860,-5.9201,4.3200,-24.4485,0.2045,2.9692,-8.7914,-7.3634
1214.8438,-43.8240,-16.5650,-14.4289,-8.1198,-3.9787,-3.4744,-5.0909,0.8503,-21.1173,-37.8149,-29.2686,-11.8088,-9.8060,0.2991,-23.4508,2.8222,-1.8591,-11.2380,-12.2718
1218.7500,-37.0979,-19.9217,-18.5272,-12.6995,-8.2009,-8.1497,-8.8402,-2.7854,-21.2498,-33.3796,-26.5018,-15.0321,-14.9244,-4.9756,-20.2777,1.9847,-8.8938,-15.0233,-17.7059
1222.6562,-32.5058,-23.7424,-22.8110,-16.8901,-12.1423,-17.1954,-14.0473,-6.7421,-21.9909,-31.9927,-24.9016,-18.2387,-19.2291,-9.5905,-17.8365,-3.0484,-14.4710,-18.6019,-22.0879
1226.5625,-30.4703,-25.9467,-25.8690,-19.4191,-14.8503,-26.6937,-19.0175,-9.8884,-22.5070,-32.3478,-25.0577,-20.0525,-21.0491,-12.0895,-18.8938,-10.3417,-15.7898,-20.5085,-24.3178
1230.4688,-29.7235,-25.3731,-26.7041,-19.7625,-16.0286,-32.0424,-21.9768,-11.7348,-21.9814,-32.1373,-26.3720,-19.7370,-20.0074,-12.1995,-24.2397,-16.3919,-12.6502,-20.1178,-24.2538
1234.3750,-28.5490,-22.3327,-25.2351,-18.3223,-16.0809,-30.2571,-21.9200,-12.4282,-20.1478,-29.7522,-27.5074,-17.6118,-17.1598,-10.8620,-31.9452,-18.3204,-7.5293,-17.9071,-22.6606
1238.2812,-26.0630,-18.3225,-22.2956,-16.1210,-15.7846,-21.5149,-19.0273,-12.3942,-17.4331,-25.3473,-27.1719,-14.8183,-14.2774,-9.5705,-38.1491,-15.6396,-3.9279,-15.0959,-20.6756
1242.1875,-22.5081,-15.0490,-19.0996,-14.1893,-15.7740,-8.9956,-14.4249,-11.9159,-14.5932,-20.4486,-24.7550,-12.5767,-12.7319,-9.4337,-38.9316,-10.3782,-4.0623,-12.8983,-19.1205
1246.0938,-18.4631,-13.3255,-16.4816,-12.9819,-16.1233,2.8816,-9.4742,-10.9284,-12.0851,-16.4241,-20.4778,-11.4014,-12.6792,-10.5264,-32.2528,-5.5273,-7.4058,-11.8226,-18.0546
1250.0000,-13.7936,-12.4953,-14.3825,-12.1432,-16.2659,10.7655,-5.0588,-9.1216,-9.6161,-13.0313,-15.0482,-10.7653,-13.0226,-11.8894,-18.9389,-2.9600,-11.0233,-11.3932,-16.8098
1253.9062,-7.3352,-10.7346,-11.9143,-10.7450,-15.3101,13.8950,-1.3008,-6.2386,-6.2104,-8.2177,-9.1191,-9.4213,-12.1395,-12.1352,-2.2689,-2.3132,-11.4707,-10.4204,-14.4528
1257.8125,2.3589,-6.0759,-7.9704,-7.8557,-12.5814,14.0692,2.1837,-2.3512,-0.7946,0.5834,-2.9332,-6.1846,-8.8946,-10.2690,13.5356,-1.5593,-7.0277,-7.6516,-10.3826
1261.7188,15.7758,2.4213,-1.9959,-3.1204,-8.0815,14.2696,5.7477,2.0609,7.0447,14.5375,3.6292,-0.7008,-3.3202,-6.2415,25.0714,1.2542,1.1561,-2.4592,-4.7136
1265.6250,31.6783,14.0068,5.5707,2.9735,-2.5842,16.8696,9.3176,6.2648,16.6065,32.2143,10.6882,6.2600,3.4129,-0.9487,30.8885,6.4341,9.7122,4.7755,1.7577
1269.5312,47.4008,26.4364,13.4508,9.2844,2.7102,22.4494,12.4087,9.5645,26.2244,49.9444,17.9903,13.1572,9.6639,4.2733,31.5373,12.3687,15.0699,12.7610,7.9488
1273.4375,59.9789,36.9007,20.1504,14.5434,6.7790,29.7228,14.4847,11.5701,33.9521,63.4915,24.8108,18.4609,14.1892,8.3321,28.7039,16.6709,15.5727,19.8212,12.9922
1277.3438,67.3235,43.1835,24.6418,17.9185,9.2829,36.3931,15.3385,12.3155,38.3983,69.9645,30.1930,21.3967,16.6899,10.8492,24.0715,17.8245,12.3961,24.5886,16.5457
1281.2500,68.7418,44.4721,26.6872,19.3092,10.6617,40.3229,15.1825,12.1835,39.2437,68.8527,33.3351,22.2173,17.7475,12.1830,18.6156,16.1341,8.7319,26.5300,18.7563
1285.1562,64.7065,41.4848,26.6729,19.2377,11.7518,40.4086,14.4010,11.6874,37.1836,61.7652,33.8399,21.8622,18.2484,13.0382,12.6748,13.3775,7.7613,26.0537,19.9492
1289.0625,56.3266,35.9594,25.1648,18.4400,13.1577,36.8596,13.2061,11.2204,33.3991,51.3193,31.6929,21.2421,18.6920,13.9244,6.5860,11.5266,10.6602,24.1657,20.2816
1292.9688,45.0532,29.8433,22.5594,17.4284,14.7807,30.9310,11.5210,10.8931,28.9301,40.0271,27.0867,20.6184,18.8347,14.7950,1.2799,11.5019,15.8409,21.8846,19.6102
1296.8750,32.7492,24.6054,19.0757,16.2856,15.8229,24.3553,9.2136,10.5308,24.3484,29.7818,20.3498,19.4858,17.8966,15.0786,-1.7331,12.7636,19.8830,19.7540,17.6689
1300.7812,21.7910,20.9426,15.0311,14.7844,15.2865,18.7386,6.4880,9.8269,19.8865,21.9411,12.1352,17.0454,15.1996,14.0830,-1.1034,13.8562,19.6053,17.7288,14.4333
1304.6875,14.7748,18.9085,11.1028,12.7202,12.6696,15.1207,4.0703,8.5704,15.8434,17.5691,3.7307,12.9651,10.8298,11.5279,3.3574,13.3827,14.0528,15.4710,10.4108
1308.5938,13.7474,18.2782,8.2795,10.2150,8.4223,13.8132,2.9582,6.8285,12.8910,17.4234,-2.8725,7.9152,5.8747,7.8786,10.1746,10.7462,5.2236,12.8291,6.6224
1312.5000,19.3493,18.8812,7.4535,7.7923,3.8677,14.5290,3.8428,4.9909,11.9752,21.6457,-5.4637,3.4798,2.0356,4.2583,16.7132,6.3424,-2.9078,10.1518,4.2311
1316.4062,30.4199,20.7002,8.8999,6.1747,0.6176,16.7029,6.5990,3.6510,13.8083,29.4567,-2.5866,1.4272,0.7925,1.9561,20.5210,1.3212,-6.5202,8.2047,4.0012
1320.3125,44.3347,23.6977,12.0085,5.9322,-0.1841,19.8015,10.2319,3.3777,18.2721,39.1810,5.4881,2.7374,2.5949,1.7921,20.6968,-2.8023,-4.0079,7.7314,5.8951
1324.2188,57.8618,27.5109,15.4941,7.1864,1.6261,23.4261,13.3555,4.4766,24.1663,48.6564,16.4578,6.9709,6.5661,3.6946,18.3429,-4.5577,3.1978,8.9560,9.0542
1328.1250,68.0507,31.2581,17.9914,9.5288,5.2142,27.1612,14.8986,6.8338,29.5539,55.7955,26.7207,12.3855,10.9180,6.7337,15.7142,-3.0032,11.4845,11.3700,12.1894
1332.0312,72.8008,33.6692,18.6934,12.1800,9.1792,30.3417,14.5745,9.9008,32.5810,59.0271,32.9079,16.7674,13.8513,9.5879,14.5796,1.7330,17.0466,13.9581,14.1737
1335.9375,71.1356,33.5802,17.6631,14.2918,12.1586,32.0297,12.8434,12.8284,32.3382,57.5437,33.4296,18.5152,14.4222,11.1731,14.9330,8.1346,17.8286,15.7208,14.5153
1339.8438,63.4324,30.5960,15.6705,15.2469,13.2999,31.3828,10.4790,14.7242,29.2791,51.4920,29.1683,17.3722,12.8859,11.0839,15.0356,13.6332,14.3425,16.1618,13.4744
1343.7500,51.7038,25.5505,13.7038,14.8414,12.4365,28.2802,8.1265,14.9640,24.9690,42.2076,22.9133,14.4195,10.3650,9.6343,12.8721,15.7510,9.0145,15.4475,11.8033
1347.6562,39.6312,20.4175,12.4766,13.3085,9.9913,23.7816,6.1796,13.4555,21.3181,32.3273,17.8657,11.3902,8.1065,7.5427,8.0501,13.5824,4.6108,14.1826,10.2992
1351.5625,31.8486,17.5678,12.2027,11.2037,6.7438,19.9669,4.9787,10.7306,19.7208,25.3879,16.0723,9.7399,6.8186,5.5120,2.7345,8.6668,2.7714,12.9914,9.4381
1355.4688,32.2866,18.6412,12.6893,9.2039,3.5770,19.0414,5.0185,7.7795,20.5197,24.6536,17.6344,9.9961,6.4657,3.9674,0.7560,4.4537,3.4696,12.1916,9.2644
1359.3750,42.1152,23.5887,13.5915,7.8791,1.2532,22.0963,6.8302,5.6506,22.9842,31.4574,21.0163,11.6807,6.5548,3.0546,5.2645,4.4075,5.5220,11.7335,9.5287
1363.2812,58.4473,30.4519,14.6114,7.5058,0.2257,28.2544,10.5152,4.9749,25.7161,43.9294,24.1127,13.7381,6.6158,2.7958,16.3770,9.8078,7.5943,11.3731,9.9237
1367.1875,74.8947,36.1144,15.5329,7.9870,0.5159,34.8157,15.2870,5.6635,27.2392,57.1208,25.3647,15.1401,6.5075,3.2050,30.4264,18.6973,8.9537,10.9049,10.2489
1371.0938,84.1634,37.7456,16.1523,8.9211,1.7208,38.4805,19.4989,6.9686,26.5473,64.9210,24.3311,15.3306,6.3766,4.2478,41.4827,26.8157,9.5665,10.2921,10.4347
1375.0000,81.6000,34.2346,16.2471,9.8035,3.1952,37.0593,21.3383,7.9126,23.4793,63.0697,21.5771,14.3506,6.4030,5.7048,44.3850,30.0595,9.7081,9.6545,10.4752
1378.9062,67.7920,26.8432,15.6686,10.2728,4.3571,30.7265,19.8527,7.8588,18.8501,51.6720,18.1683,12.6986,6.6095,7.1125,37.5304,26.9316,9.5778,9.1857,10.3746
1382.8125,48.6160,18.6792,14.4999,10.2770,4.9669,22.0723,15.6342,6.8895,14.2712,35.6221,15.1798,11.0812,6.9101,7.9101,23.7798,19.3827,9.2705,9.0842,10.1648
1386.7188,32.4689,13.2090,13.1284,10.0671,5.2117,14.8606,10.6304,5.7537,11.6190,22.3953,13.4363,10.1647,7.3161,7.7462,8.9795,11.5013,9.0262,9.5155,9.9571
1390.6250,26.0531,12.5605,12.1164,10.0233,5.5390,12.1314,7.1071,5.4067,12.2443,18.2128,13.4208,10.3624,8.0489,6.7396,-0.9983,6.9565,9.3625,10.5586,9.9472
1394.5312,30.9908,16.4981,11.9056,10.4155,6.3454,14.6538,6.3845,6.4237,16.2217,24.6726,15.1810,11.6632,9.3829,5.4828,-3.0004,6.9029,10.7931,12.1097,10.3227
1398.4375,43.1238,22.5963,12.5292,11.2390,7.7258,20.5389,8.1505,8.6454,22.0572,37.7923,18.1846,13.5553,11.2986,4.7368,2.2913,9.6708,13.2629,13.7961,11.1175
1402.3438,54.8193,27.4859,13.5256,12.2115,9.4413,26.1808,10.7779,11.2585,27.1397,50.0585,21.2705,15.1372,13.2458,4.9892,11.2233,12.2759,15.8000,15.0085,12.1215
1406.2500,58.9003,28.4778,14.1270,12.9110,11.1000,27.9948,12.3966,13.2325,28.8372,54.3105,22.8936,15.4512,14.2881,6.1574,19.2470,12.5499,16.8346,15.1044,12.9303
1410.1562,51.9783,24.7031,13.6166,12.9557,12.3943,24.0469,11.9758,13.8216,25.7182,47.2365,21.6857,13.9285,13.6220,7.6324,22.9515,10.3864,15.1418,13.7113,13.1242
1414.0625,35.4930,17.2394,11.6469,12.1255,13.2151,14.8028,9.7214,12.8421,18.2335,30.5870,17.0925,10.7099,11.1433,8.6378,21.1097,7.3706,10.8034,10.9470,12.4699
1417.9688,14.2487,8.2980,8.3597,10.3942,13.5836,2.7419,6.6264,10.6231,8.4685,9.6865,9.7247,6.6267,7.6403,8.6741,14.5615,5.2850,5.4373,7.4015,11.0199
1421.8750,-6.2991,0.0631,4.2883,7.9138,13.5000,-8.8279,3.6201,7.7542,-0.8747,-9.5468,1.2005,2.8143,4.4275,7.7749,5.3984,4.7334,1.3897,3.8750,9.0601
1425.7812,-22.2520,-6.1238,0.1581,5.0046,12.8735,-17.0912,0.9999,4.8401,-7.6443,-23.1433,-6.4418,0.1777,2.6301,6.4385,-3.9209,4.8913,0.3399,1.0372,6.9642
1429.6875,-31.9109,-9.8738,-3.2891,2.1498,11.6101,-20.5909,-1.4706,2.3847,-10.9057,-29.8753,-11.4457,-0.9694,2.5884,5.3070,-11.1780,4.4402,2.2515,-0.7814,5.0637
1433.5938,-35.0882,-11.3249,-5.4107,-0.0681,9.7747,-19.4096,-3.9842,0.7620,-10.8616,-30.3936,-12.8345,-0.8849,3.7714,4.8046,-14.7521,2.8330,5.4226,-1.5683,3.6025
1437.5000,-32.2367,-10.6944,-5.7814,-1.1485,7.6562,-14.8338,-6.2061,0.1513,-8.3153,-25.9303,-10.5902,-0.0651,5.2196,4.9363,-13.9150,0.8554,7.6265,-1.4661,2.7520
1441.4062,-24.4049,-8.2462,-4.3759,-0.9354,5.6334,-8.8456,-7.3618,0.3955,-4.2206,-17.8299,-5.5983,1.1155,6.1626,5.3225,-9.1158,0.0621,7.5558,-0.6547,2.6027
1445.3125,-14.0100,-4.6789,-1.7613,0.1843,3.9160,-3.6831,-6.8751,0.8963,0.3590,-8.1511,0.5175,2.5101,6.3699,5.4081,-2.0783,1.5501,5.5614,0.6105,3.0849
1449.2188,-5.3791,-1.4958,0.8784,1.3259,2.3762,-1.4680,-5.0452,0.7335,4.0428,-0.3917,5.6706,4.0004,6.0360,4.7198,4.5420,5.0053,3.2011,1.8724,3.8700
1453.1250,-3.8726,-0.8154,2.0573,1.4608,0.6455,-3.7577,-3.1581,-0.9211,5.1541,0.9562,7.8014,5.2143,5.3837,3.0654,8.0049,8.7127,1.9885,2.4511,4.3779
1457.0312,-13.4042,-4.4531,0.6245,-0.0571,-1.5488,-10.9708,-2.8282,-4.2679,2.3000,-7.5584,5.5962,5.4723,4.3731,0.6238,6.5693,10.5017,2.2972,1.6664,3.9756
1460.9375,-33.6338,-12.7043,-3.5603,-3.0860,-4.0472,-21.9036,-4.9566,-8.5688,-4.6953,-25.7642,-0.8103,4.1022,2.7745,-2.0901,0.3168,8.9725,3.2165,-0.7713,2.3136
1464.8438,-58.8558,-23.6438,-9.3333,-6.6821,-6.2106,-33.7397,-9.0249,-12.3470,-14.1777,-48.6607,-9.5954,0.9441,0.5198,-4.3862,-8.7375,4.2464,3.3995,-4.4597,-0.3962
1468.7500,-79.8998,-33.5906,-14.6013,-9.5376,-7.2590,-42.8367,-13.2566,-14.0766,-23.0156,-67.9574,-17.8098,-3.3309,-2.0124,-5.6606,-17.3755,-2.1189,2.1910,-8.3580,-3.3750
1472.6562,-88.4795,-38.7060,-17.2898,-10.6462,-6.8051,-46.1424,-15.5996,-12.9991,-27.9654,-75.9832,-22.6317,-7.3825,-4.0805,-5.6733,-22.4669,-7.8705,0.1442,-11.2317,-5.6103
1476.5625,-81.6236,-36.9202,-16.3848,-9.8115,-5.2031,-42.6049,-14.9132,-9.5659,-27.3402,-69.8168,-22.7000,-9.8127,-5.0189,-4.7057,-22.2486,-10.9862,-1.4432,-12.2491,-6.3634
1480.4688,-63.4372,-29.0651,-12.4602,-7.6938,-3.4234,-33.7766,-11.6062,-5.2101,-21.9344,-53.0426,-18.7384,-9.8666,-4.6959,-3.4689,-17.0213,-10.3827,-1.5586,-11.3536,-5.5465
1484.3750,-42.9222,-18.4875,-7.3500,-5.3708,-2.4790,-23.1661,-7.3342,-1.5683,-14.5571,-33.8664,-13.0490,-7.7806,-3.6042,-2.7535,-8.9556,-6.2474,-0.2211,-9.1819,-3.7199
1488.2812,-29.0473,-9.3216,-3.1313,-3.6927,-2.7573,-14.5981,-3.9847,0.3713,-8.4246,-20.6276,-8.1548,-4.5664,-2.4791,-2.9763,-1.1145,-0.0038,1.6378,-6.6068,-1.7040
1492.1875,-26.0610,-4.4233,-1.0179,-2.8321,-3.7111,-10.4636,-2.6165,0.6787,-5.4308,-17.4500,-5.4424,-1.3999,-1.7269,-3.8928,3.8486,6.0709,3.0190,-4.2369,-0.0632
1496.0938,-31.8890,-4.1644,-0.8247,-2.2907,-4.1440,-10.8358,-2.9998,0.2351,-5.3843,-22.6683,-4.6582,0.9671,-1.1299,-4.6826,4.7218,9.5804,3.6870,-2.2094,1.1898
1500.0000,-40.4148,-6.7171,-1.3008,-1.3233,-2.9384,-13.8919,-3.9713,0.0485,-6.6183,-30.8019,-4.5248,2.4096,-0.0917,-4.4079,2.0478,8.9776,4.2692,-0.3682,2.4688
1503.9062,-45.8884,-9.5070,-1.0761,0.5232,0.2267,-17.2708,-4.2943,0.6146,-7.4276,-36.5140,-3.9710,3.1878,1.7392,-2.5923,-2.3681,4.4079,5.5201,1.3744,4.1658
1507.8125,-46.4215,-10.8230,0.4102,3.1045,4.6180,-19.4464,-3.4376,1.7227,-7.2688,-37.8143,-3.0632,3.5210,3.9583,0.4338,-6.4543,-2.0874,7.3713,2.8128,6.2096
1511.7188,-44.3691,-10.5847,2.5822,5.7726,8.8070,-20.2872,-1.8156,2.7659,-6.9218,-36.5180,-2.9806,3.3298,5.4553,3.6533,-8.8432,-7.3386,8.6120,3.5403,7.9645
1515.6250,-43.7179,-9.9329,4.1635,7.7630,11.4127,-20.6104,-0.4236,3.2574,-7.6287,-36.0352,-5.0914,2.3283,5.0636,5.8945,-9.3498,-8.5907,7.5808,3.2602,8.5631
1519.5312,-46.6855,-10.1196,4.0355,8.5942,11.7760,-21.2417,-0.1794,3.1540,-9.9697,-38.4128,-9.8319,0.3506,2.3891,6.4570,-8.7874,-5.0598,3.4403,2.0427,7.4621
1523.4375,-52.1032,-11.5724,1.9332,8.2365,10.1908,-22.3524,-1.4094,2.7777,-13.3517,-42.8650,-16.2028,-2.3744,-1.7735,5.4560,-8.3171,1.4400,-2.9144,0.3047,4.8460
1527.3438,-56.6118,-13.7418,-1.4432,6.9993,7.6193,-23.5076,-3.7555,2.4574,-16.4442,-46.6993,-22.2173,-5.2254,-5.7659,3.6946,-8.7451,7.3124,-9.0669,-1.4647,1.6025
1531.2500,-57.5045,-15.6923,-4.9073,5.2828,5.1240,-24.2370,-6.4818,2.2151,-18.1424,-47.6590,-25.9602,-7.4668,-7.9520,2.1712,-10.1469,9.1101,-12.3776,-3.0015,-1.1223
1535.1562,-54.8660,-16.8588,-7.4810,3.3937,3.3729,-24.5401,-8.9310,1.7596,-18.2792,-45.7170,-26.5403,-8.5959,-7.6022,1.5466,-11.9642,5.5115,-11.5380,-4.3414,-2.5120
1539.0625,-51.3503,-17.3705,-8.8517,1.5246,2.4560,-24.8684,-10.8416,0.7811,-17.5762,-42.9505,-24.3857,-8.5362,-5.2276,1.8795,-13.4459,-1.8435,-7.3381,-5.6292,-2.4596
1542.9688,-49.8897,-17.7726,-9.3645,-0.1675,2.0198,-25.6390,-12.3740,-0.7155,-16.9753,-41.7387,-20.8513,-7.6012,-2.2025,2.7309,-14.1527,-9.2261,-2.1384,-6.8568,-1.5442
1546.8750,-51.2631,-18.4861,-9.6596,-1.5237,1.5487,-26.7712,-13.8881,-2.3350,-16.9587,-42.8459,-17.5442,-6.3248,0.0212,3.4955,-14.2586,-12.9453,1.5742,-7.7933,-0.6741
1550.7812,-53.5037,-19.5066,-10.2594,-2.4642,0.6028,-27.7081,-15.6366,-3.5635,-17.4025,-44.9441,-15.8110,-5.3059,0.5900,3.7064,-14.5197,-11.4938,2.5657,-8.1976,-0.6428
1554.6875,-53.5889,-20.5603,-11.3604,-3.1193,-1.0671,-27.9281,-17.5520,-4.1859,-17.9863,-45.8761,-16.5218,-5.1153,-0.5465,3.1461,-15.9256,-6.4261,1.2979,-8.1393,-1.8412
1558.5938,-49.9950,-21.4874,-12.8637,-3.8550,-3.4875,-27.4670,-19.2192,-4.5090,-18.6864,-44.5172,-19.9675,-6.1938,-2.8876,1.7834,-19.1690,-1.4143,-0.7388,-8.1161,-4.2055
1562.5000,-44.0162,-22.4159,-14.5052,-5.0916,-6.4416,-26.9161,-20.0292,-5.1746,-19.8242,-41.6450,-25.6696,-8.6594,-5.7856,-0.3144,-24.1425,-0.0113,-2.2105,-8.7866,-7.3255
1566.4062,-38.7689,-23.5117,-15.9377,-6.9889,-9.4509,-26.8181,-19.4332,-6.6562,-21.5851,-39.1121,-32.1795,-12.0786,-8.6898,-2.9707,-29.7108,-3.4332,-2.7726,-10.4538,-10.5831
1570.3125,-36.7007,-24.5315,-16.7508,-9.2148,-11.8294,-26.9689,-17.1956,-8.7914,-23.4606,-38.0774,-37.2231,-15.4048,-11.1452,-5.8037,-33.9611,-9.6942,-3.0370,-12.6781,-13.2659
1574.2188,-37.6519,-24.6758,-16.5341,-11.0107,-12.8747,-26.3270,-13.5571,-10.7174,-24.2268,-37.8748,-38.4682,-17.2831,-12.7101,-8.1910,-34.9560,-14.6508,-3.8428,-14.3746,-14.6979
1578.1250,-39.0786,-23.0393,-15.0643,-11.5793,-12.1655,-23.7879,-9.2433,-11.3128,-22.6670,-36.5717,-34.7336,-16.6972,-13.0025,-9.4235,-31.7258,-14.3993,-5.4789,-14.4230,-14.4397
1582.0312,-38.2854,-19.4341,-12.5471,-10.5814,-9.8175,-19.3237,-5.2967,-9.8935,-18.5901,-32.8281,-26.9510,-13.6343,-11.9156,-9.0327,-24.9907,-7.6544,-7.4535,-12.4281,-12.5152
1585.9375,-34.8507,-14.9306,-9.7053,-8.4108,-6.5166,-14.5361,-2.7559,-6.7105,-13.3323,-27.4887,-18.0995,-9.3065,-9.8161,-7.1016,-17.1068,3.2883,-8.9173,-9.1035,-9.5167
1589.8438,-31.2076,-11.5374,-7.5396,-6.0311,-3.2560,-11.9758,-2.2706,-2.9058,-9.2015,-23.4297,-11.8662,-5.6584,-7.4847,-4.3238,-11.0858,13.6163,-9.3289,-5.9587,-6.4399
1593.7500,-30.7851,-11.0369,-6.8084,-4.4415,-0.8842,-13.4914,-3.7951,0.0721,-8.0853,-23.5354,-10.6444,-4.3357,-5.7321,-1.7128,-9.1048,18.5288,-8.8052,-4.4294,-4.2507
1597.6562,-35.0888,-13.6890,-7.5224,-4.1004,0.2856,-18.7142,-6.5134,1.2332,-10.1315,-28.2502,-14.0696,-5.7011,-4.9068,-0.0995,-11.3331,15.8018,-7.9051,-4.9901,-3.3933
1601.5625,-42.0421,-17.7587,-8.8226,-4.6856,0.5716,-24.8678,-9.0882,0.5223,-13.4754,-34.6713,-19.1115,-8.5434,-4.6556,0.2838,-15.8373,6.9180,-7.0744,-6.8391,-3.5483
1605.4688,-47.0403,-20.3583,-9.4121,-5.3584,0.6621,-28.2522,-10.1903,-1.2721,-15.3288,-38.1295,-21.8220,-10.7473,-4.1624,-0.1337,-19.7198,-3.8817,-6.2503,-8.3923,-3.8382
1609.3750,-46.1185,-19.2004,-8.3416,-5.3596,1.1545,-26.5501,-9.1064,-3.0746,-13.7962,-35.3592,-19.7520,-10.5792,-2.7591,-0.5929,-20.8586,-12.0378,-4.9723,-8.2969,-3.3967
1613.2812,-38.9688,-14.1536,-5.6742,-4.5403,2.1825,-20.4217,-6.1308,-4.1568,-9.2266,-27.0605,-13.5381,-7.8072,-0.5028,-0.5142,-19.1717,-15.1408,-2.9144,-6.3235,-1.9584
1617.1875,-29.5484,-7.5318,-2.5773,-3.4661,3.3561,-13.2406,-2.4979,-4.4454,-4.1581,-17.9316,-6.6164,-3.9267,1.7065,0.1473,-16.5772,-13.9760,-0.3913,-3.5601,-0.0791
1621.0938,-23.7165,-2.8322,-0.7245,-3.0285,4.0398,-9.0563,0.1784,-4.3599,-1.8213,-13.9488,-3.1777,-1.3038,2.6052,0.9224,-15.6529,-11.6022,1.6191,-1.7724,1.1804
1625.0000,-25.4727,-2.6697,-1.3381,-3.8307,3.7716,-10.0888,0.7157,-4.3701,-4.1310,-18.5968,-5.6061,-1.7359,1.3677,1.1858,-17.8596,-11.1509,2.0267,-2.3279,0.9233
1628.9062,-34.3657,-7.2067,-4.4453,-5.7712,2.5454,-15.3969,-1.0014,-4.6345,-10.4404,-30.5296,-12.9809,-5.3228,-1.7913,0.5909,-22.4945,-13.7961,0.4002,-5.3530,-0.9938
1632.8125,-45.8003,-14.0748,-8.8100,-8.1047,0.7816,-21.5718,-3.9419,-4.9753,-17.8478,-44.2067,-21.5641,-10.3590,-5.6287,-0.7191,-27.0528,-18.1587,-2.6059,-9.6434,-3.8389
1636.7188,-53.9342,-19.8130,-12.5842,-9.9256,-0.9712,-24.9419,-6.4951,-5.1559,-22.8499,-53.0805,-26.9527,-14.3195,-8.5259,-2.2460,-28.7345,-21.4124,-5.5153,-13.3625,-6.4320
1640.6250,-55.1322,-21.8786,-14.2839,-10.7284,-2.3797,-23.7988,-7.3865,-5.1868,-23.2998,-53.2701,-26.5614,-15.3207,-9.3856,-3.4920,-26.0877,-21.2376,-6.8652,-15.0756,-7.8338
1644.5312,-49.7132,-19.9572,-13.5032,-10.6546,-3.4705,-19.2150,-6.4036,-5.3696,-19.4788,-45.4442,-20.9430,-13.1505,-8.2101,-4.2563,-19.7476,-17.2798,-6.0834,-14.4767,-7.8372
1648.4375,-41.0617,-15.8133,-10.9689,-10.2660,-4.4833,-14.0362,-4.4720,-6.0148,-13.6982,-33.9128,-13.2211,-9.2515,-6.0031,-4.6616,-11.8952,-11.2048,-3.8309,-12.3854,-6.9479
1652.3438,-33.0180,-11.9036,-7.9591,-10.0266,-5.5575,-10.8565,-3.0139,-7.0534,-8.7788,-23.7527,-7.0925,-5.7187,-4.0714,-4.9108,-4.9310,-5.4682,-1.5735,-10.0729,-5.8987
1656.2500,-27.5017,-9.7505,-5.4994,-9.8815,-6.4999,-10.3809,-2.9845,-7.8796,-6.4103,-17.9286,-4.6876,-3.9918,-3.1882,-4.9924,-0.3077,-1.7728,-0.6510,-8.3960,-5.0684
1660.1562,-23.9159,-9.1555,-3.8559,-9.2519,-6.8290,-11.2100,-4.2190,-7.6155,-6.3893,-16.1542,-5.5800,-4.0780,-3.1604,-4.5949,1.7787,-0.2960,-1.4402,-7.3176,-4.2352
1664.0625,-20.4636,-8.6955,-2.6149,-7.4669,-6.0918,-11.0619,-5.5450,-5.6744,-7.1093,-15.9432,-7.4428,-4.7637,-3.0689,-3.3343,1.8455,-0.1003,-3.1456,-6.1088,-2.8439
1667.9688,-16.1675,-7.0595,-1.2370,-4.3392,-4.2420,-8.5172,-5.6143,-2.2529,-6.8779,-14.8791,-7.8087,-4.6069,-2.0083,-1.1478,0.3321,-0.2356,-4.3431,-4.0597,-0.5888
1671.8750,-12.0273,-4.2433,0.3387,-0.4789,-1.8097,-4.1103,-3.9094,1.6085,-5.1568,-12.4900,-5.7496,-3.0087,0.1762,1.4478,-2.7580,-0.5804,-3.9192,-1.1837,2.1325
1675.7812,-10.5039,-1.7491,1.4864,2.8935,0.2854,-0.0958,-1.2281,4.4871,-2.9274,-10.5519,-2.4261,-0.6414,2.6534,3.4719,-7.5544,-1.7717,-1.8007,1.5963,4.2645
1679.6875,-13.7440,-1.6331,1.2525,4.5496,1.1886,0.9157,0.7312,5.3067,-1.9840,-11.7522,-0.2250,1.0311,4.0488,3.9619,-13.7042,-4.3518,0.9871,2.9419,4.6683
1683.5938,-21.7943,-5.0211,-0.9388,3.9124,0.5621,-2.4068,0.4574,3.8983,-3.6391,-17.6613,-1.1049,0.7928,3.2959,2.5462,-20.0343,-7.8989,2.9579,1.9716,2.8720
1687.5000,-32.0087,-11.0810,-4.7073,1.3792,-1.2443,-9.1750,-2.3127,1.0593,-7.6908,-27.3145,-5.2330,-1.4374,0.3581,-0.2663,-24.8341,-10.9164,3.0822,-1.0613,-0.5094
1691.4062,-40.0685,-17.1709,-8.6883,-1.8789,-3.4071,-16.5703,-6.2839,-1.9057,-12.3271,-37.2785,-10.7639,-4.4667,-3.6483,-3.2985,-26.5999,-11.6449,1.3985,-4.7549,-4.0018
1695.3125,-42.0651,-20.1586,-11.1468,-4.5147,-5.0945,-21.2095,-9.2944,-3.8725,-15.0613,-43.1982,-14.8697,-6.5271,-7.0282,-5.3290,-24.7389,-9.2337,-1.0548,-7.2667,-6.0527
1699.2188,-36.5164,-18.1746,-10.9148,-5.6589,-5.8986,-20.8741,-9.6061,-4.4172,-14.1576,-42.0009,-15.3566,-6.3511,-8.4371,-5.7600,-19.7922,-4.4126,-2.9110,-7.3370,-5.9016
1703.1250,-25.2373,-11.7649,-8.0993,-5.2794,-5.9874,-15.7036,-6.9858,-3.9089,-9.6930,-33.5824,-11.8805,-3.9289,-7.6015,-4.9206,-13.1133,0.8412,-3.2880,-5.0085,-4.0030
1707.0312,-12.5820,-3.7256,-4.1113,-4.0870,-5.9113,-8.2018,-2.8875,-3.1868,-3.6016,-21.0445,-6.0655,-0.4720,-5.3901,-3.8072,-6.2915,4.4313,-2.2046,-1.5968,-1.7328
1710.9375,-3.3845,2.3436,-0.9480,-3.0762,-6.2101,-1.9863,0.3837,-3.0448,1.3582,-9.2842,-0.5177,2.3726,-3.2061,-3.4117,-0.6755,5.3220,-0.3563,1.0802,-0.5517
1714.8438,-0.5776,3.9821,-0.1117,-2.9656,-7.0650,0.1343,1.0120,-3.8053,3.1402,-2.5829,2.6313,3.5442,-2.0888,-4.0496,2.8613,4.0374,1.5409,1.7617,-1.1334
1718.7500,-3.6901,1.2129,-1.7763,-3.8185,-8.1863,-2.2478,-1.3005,-5.1613,1.5657,-2.4245,2.8028,3.1841,-2.0901,-5.1048,4.0256,2.2489,3.3262,0.4716,-2.9797
1722.6562,-9.0541,-3.4883,-4.6880,-5.0129,-8.9699,-6.7998,-5.2103,-6.3190,-1.5733,-6.7266,1.1167,2.4870,-2.3086,-5.3603,3.2264,1.8004,5.4420,-1.5035,-4.7364
1726.5625,-11.7242,-6.5962,-6.8638,-5.5561,-8.8068,-9.6650,-8.5358,-6.3573,-3.5350,-10.9865,-0.3786,2.9087,-1.5431,-3.7271,1.6578,3.7873,8.3999,-2.3560,-5.0018
1730.4688,-8.1804,-5.5248,-6.6920,-4.5892,-7.3722,-7.6630,-9.4684,-4.6642,-2.1957,-10.7972,0.1059,5.2364,0.8601,0.0549,1.0851,8.1305,12.0669,-0.7872,-3.1363
1734.3750,1.6354,-0.0749,-3.8110,-1.8513,-4.7658,-0.2551,-7.4845,-1.2945,2.7210,-4.3816,3.1374,9.0685,4.5025,5.1581,3.1356,13.6994,15.3472,3.2513,0.3875
1738.2812,14.1306,7.4701,0.7175,2.1111,-1.4733,9.9089,-3.4991,2.9081,9.4423,6.3013,7.7611,12.9818,8.0834,10.0010,8.2709,18.7621,16.5990,8.4897,4.2574
1742.1875,23.9069,13.6267,5.0083,6.1056,1.8074,18.2771,0.7256,6.5309,15.0697,16.5515,11.9386,15.2531,10.1029,12.9909,15.0334,21.5229,14.6069,12.9531,7.0168
1746.0938,26.6423,15.6118,7.3612,8.7791,4.3983,20.8423,3.5150,8.1377,17.1028,21.4976,13.4871,14.7217,9.6868,13.2674,20.2410,20.6475,9.4989,14.9035,7.7699
1750.0000,21.3781,12.7789,7.1116,9.2225,5.8576,16.3471,4.0509,6.9404,14.7260,18.7811,11.1237,11.3500,7.0508,11.0571,20.3506,15.7549,2.9653,13.6269,6.5339
1753.9062,10.9298,6.8254,4.8852,7.4053,6.1195,6.9657,2.6473,3.2667,9.1862,9.8335,5.1977,6.2410,3.3596,7.4834,13.4447,7.7651,-2.4495,9.6949,4.1134
1757.8125,0.2870,0.7473,2.1795,4.2082,5.5071,-2.8990,0.4979,-1.4730,3.1077,-0.9241,-2.2258,1.1509,0.1047,3.9740,0.7273,-1.1335,-4.6131,4.6210,1.6384
1761.7188,-5.9469,-2.7751,0.5509,1.0114,4.5948,-8.9372,-0.9151,-5.3786,-0.8423,-8.4091,-8.0821,-2.2501,-1.6235,1.6052,-13.5022,-8.0954,-2.8866,0.1285,0.0417
1765.6250,-5.5614,-2.6331,0.8548,-0.9628,3.9567,-8.9918,-0.4749,-6.9458,-1.2190,-9.3490,-9.6543,-3.0513,-1.5764,0.7142,-23.6320,-10.7119,1.6137,-2.5949,-0.2864
1769.5312,0.7870,0.4360,2.9053,-1.2079,3.9032,-3.7592,2.0919,-5.7692,1.6333,-3.5712,-6.0052,-1.4428,-0.3231,0.9275,-25.4560,-8.1238,6.6917,-3.3043,0.4373
1773.4375,10.5305,4.5480,5.6644,-0.0919,4.3417,4.0474,6.0784,-2.6658,5.9354,6.3891,1.2783,1.4032,1.1511,1.5177,-18.3496,-1.5319,10.2283,-2.6083,1.5643
1777.3438,20.6487,7.8123,7.8156,1.4563,4.8493,11.3330,10.0641,0.8477,9.4946,16.8538,8.6177,3.8700,1.9627,1.8473,-5.6481,6.2572,11.1192,-1.4785,2.3268
1781.2500,28.6731,9.2373,8.4230,2.5316,4.9331,16.0068,12.5167,3.3992,10.8282,24.6995,12.2049,4.6457,1.7052,1.6582,7.0293,12.0777,9.5161,-0.6457,2.1737
1785.1562,32.9458,8.9924,7.3758,2.7528,4.3359,17.4754,12.5067,4.4177,9.8263,28.3355,10.1508,3.3590,0.5581,1.0974,14.5872,13.7930,6.4012,-0.2131,1.0299
1789.0625,32.5499,8.0523,5.4359,2.3965,3.2082,16.3128,10.2007,4.2466,7.6647,27.7601,3.7487,0.7875,-0.8488,0.5366,14.8374,11.1026,2.9288,0.3178,-0.6117
1792.9688,27.4752,7.5602,3.8798,2.1252,2.0432,13.6453,6.8449,3.7218,6.0797,24.0675,-3.0642,-1.5025,-1.7055,0.3365,9.2176,5.4175,0.0089,1.6535,-1.8312
1796.8750,19.0838,8.2884,3.8942,2.5269,1.4180,10.7296,4.1822,3.5644,6.4293,18.9119,-5.9142,-1.9398,-1.3139,0.6987,1.6307,-0.9908,-1.7108,4.2032,-1.6467
1800.7812,10.3077,10.3984,5.9991,3.7720,1.6991,8.7865,3.5681,4.0011,9.0380,14.1461,-2.6089,0.2386,0.6742,1.6503,-3.7288,-6.0060,-1.6837,7.7767,0.5221
1804.6875,4.9072,13.4885,9.7714,5.5784,2.8823,8.8268,5.2670,4.8032,13.1363,11.5056,5.4947,4.5916,4.1203,3.1070,-4.2517,-8.3337,0.5228,11.6571,4.5093
1808.5938,5.7527,16.7996,14.0170,7.4451,4.6356,11.2610,8.3404,5.6099,17.3537,12.1326,14.3241,9.7165,8.3963,4.9242,0.4096,-7.6529,4.9052,14.9770,9.3777
1812.5000,13.0014,19.4607,17.3185,8.9427,6.4833,15.4469,11.1991,6.2205,20.4285,15.9913,19.6452,13.9829,12.5343,6.8861,8.8639,-4.4230,10.6307,17.1317,13.7692
1816.4062,23.4509,20.7144,18.6790,9.8567,7.9965,19.6118,12.4833,6.6297,21.7081,21.5412,19.6584,16.3136,15.5088,8.6643,18.9764,0.3872,16.0053,17.9625,16.4786
1820.3125,31.8041,20.1024,17.9244,10.1357,8.8933,21.4690,11.7358,6.8383,21.2013,26.0825,15.8833,16.5622,16.5762,9.8273,28.5448,5.5354,19.0577,17.6307,16.9593
1824.2188,33.3577,17.5859,15.6555,9.7644,9.0473,19.3632,9.4888,6.6777,19.2585,26.8377,11.7468,15.3215,15.5494,9.9594,35.4273,9.7684,18.5419,16.3381,15.5021
1828.1250,26.5811,13.5631,12.8131,8.7268,8.4711,13.2948,6.7817,5.8643,16.1993,22.3191,9.9191,13.3802,12.8936,8.8626,37.5446,12.1812,14.7675,14.1596,13.0123
1832.0312,13.9923,8.7672,10.1465,7.1062,7.3288,5.1194,4.4964,4.2761,12.1965,13.2245,10.3562,11.2482,9.5816,6.7294,33.3382,12.5670,9.6556,11.1348,10.5368
1835.9375,0.7582,4.0696,7.9130,5.2123,5.9526,-2.3108,2.9599,2.2175,7.4763,2.2765,10.4931,9.0572,6.7429,4.1519,22.7710,11.5025,5.8453,7.5245,8.8081
1839.8438,-8.1226,0.2456,5.9515,3.5592,4.7817,-6.6030,2.0115,0.3985,2.6011,-7.0042,7.4432,6.8104,5.2238,1.9121,8.2094,9.9929,5.2813,3.9638,8.0207
1843.7500,-10.3334,-2.2333,4.0075,2.6250,4.1762,-7.0032,1.3610,-0.4342,-1.5008,-11.9670,0.5364,4.6750,5.2318,0.6281,-5.7807,8.8108,8.0915,1.2908,7.8836
1847.6562,-7.0142,-3.3283,2.0233,2.5229,4.1730,-4.6005,0.8766,0.0045,-3.9058,-12.0392,-7.7716,3.0056,6.2246,0.4401,-14.1580,7.9665,12.4398,0.0916,7.8438
1851.5625,-1.5405,-3.4372,0.1786,2.8357,4.3499,-1.4959,0.5682,1.2746,-4.2651,-8.8184,-13.3972,2.0565,7.1257,0.9253,-13.9786,6.7495,15.4831,0.2685,7.3343
1855.4688,2.7078,-3.2366,-1.3070,2.7946,3.9498,0.4729,0.3484,2.4089,-3.1424,-5.0249,-13.5065,1.6537,6.8159,1.3158,-6.2809,4.4090,14.9066,0.9897,5.9632
1859.3750,4.1331,-3.3659,-2.3936,1.7483,2.2693,0.6412,-0.1196,2.4840,-1.7868,-2.9257,-8.6592,1.1776,4.7051,0.9219,4.1281,1.0240,10.1762,1.1442,3.6422
1863.2812,3.3151,-4.0531,-3.2401,-0.3651,-0.8836,-0.4180,-1.2466,1.2032,-1.3974,-3.1134,-2.5822,-0.0286,1.1085,-0.4670,11.1798,-2.1286,2.8206,0.0508,0.6669
1867.1875,2.0941,-4.8773,-3.9885,-2.8723,-4.9479,-1.5528,-3.0883,-0.8952,-2.3354,-4.2975,0.3514,-2.0846,-2.7956,-2.4285,10.9875,-3.1319,-4.3708,-2.0502,-2.2873
1871.0938,2.2099,-4.8678,-4.5050,-4.6784,-8.7731,-1.8514,-5.0218,-2.7387,-3.8373,-4.1770,-1.8248,-4.2875,-5.4599,-4.0916,4.0947,-0.6773,-8.7472,-4.0810,-4.3228
1875.0000,4.4296,-2.9834,-4.3311,-4.8587,-11.1318,-1.0606,-5.8838,-3.3322,-4.4654,-0.8611,-7.2608,-5.4020,-5.6930,-4.5581,-4.9633,4.8079,-9.0099,-4.7569,-4.6425
1878.9062,8.5351,1.2370,-2.9380,-3.1506,-11.2994,0.5777,-4.6018,-2.2848,-3.0173,5.9840,-11.5276,-4.3898,-3.2375,-3.3301,-10.5500,11.0190,-5.6235,-3.3446,-2.9175
1882.8125,13.8699,7.2461,-0.1189,-0.0293,-9.3626,2.8074,-0.9364,0.0598,0.7192,14.9000,-10.6191,-1.0822,1.1300,-0.5193,-9.3942,14.8913,-0.3035,-0.0376,0.5130
1886.7188,19.8523,13.6108,3.7824,3.6577,-6.0921,5.7044,4.1961,2.9202,5.8762,23.4158,-3.6180,3.6891,6.0408,3.2487,-2.3718,14.3924,5.0295,4.2798,4.7728
1890.6250,26.0838,18.6966,7.9997,7.2168,-2.4880,9.6033,9.1079,5.5602,11.1098,29.3646,6.7709,8.6036,10.2556,7.1417,6.4841,9.8726,9.1952,8.6640,8.8717
1894.5312,32.1389,21.5393,11.7495,10.4185,0.6964,14.6785,12.2273,7.6284,15.4355,31.9785,16.0571,12.6331,13.2259,10.4487,12.9117,4.0477,12.0945,12.6480,12.1684
1898.4375,37.4096,22.3553,14.6175,13.3909,3.1701,20.5352,12.9211,9.1705,18.6908,32.1680,20.7794,15.5225,15.1637,12.7599,15.1629,0.5329,14.3505,16.2957,14.5697
1902.3438,41.2847,22.3449,16.6522,16.2280,4.9885,26.1647,11.7298,10.3803,21.3419,31.8976,20.3665,17.6497,16.6208,13.9586,14.6906,1.7764,16.5712,19.7909,16.3406
1906.2500,43.5819,22.9033,18.1322,18.6582,6.2721,30.3552,9.9043,11.3206,23.8639,33.0843,16.9534,19.4327,17.9152,14.1087,14.4926,7.6474,18.7489,22.9535,17.6897
1910.1562,44.8457,24.7496,19.2363,20.0709,7.0194,32.3166,8.6113,11.8308,26.2312,36.6541,13.5728,20.8002,18.8335,13.3635,16.5343,15.5248,20.1820,25.1294,18.4752
1914.0625,46.1380,27.5308,19.9002,19.9100,7.1524,32.0993,8.3512,11.6727,27.9188,42.2000,12.1684,21.1728,18.8206,11.9550,20.2399,21.7905,19.9410,25.5835,18.2860
1917.9688,48.2941,30.1080,19.9568,18.1440,6.7222,30.4969,8.9032,10.7805,28.3631,48.2601,12.7574,19.9638,17.4906,10.2216,23.0959,23.7745,17.5452,24.0962,16.8459
1921.8750,51.0634,31.2630,19.3905,15.4349,6.0527,28.4608,9.6894,9.4127,27.4502,52.9115,14.0383,17.1751,15.0436,8.5823,22.7300,20.9930,13.3837,21.2699,14.4047
1925.7812,52.7769,30.3243,18.4323,12.8411,5.6565,26.4062,10.1828,8.0824,25.6011,54.3558,14.6798,13.5775,12.2469,7.4101,18.7392,15.0529,8.5969,18.2569,11.7576
1929.6875,50.9740,27.3592,17.3838,11.2309,5.9495,23.9160,10.0642,7.3042,23.4013,51.3810,14.2234,10.3040,9.9765,6.8646,12.8565,8.4798,4.4997,16.0761,9.8158
1933.5938,43.8587,22.9697,16.3355,10.8112,6.9779,20.1304,9.1523,7.3240,21.1397,43.7780,13.0771,8.1710,8.6696,6.8099,7.4672,3.3412,1.9364,15.0216,9.0243
1937.5000,31.8346,18.0047,15.0890,11.1023,8.3820,14.6380,7.3619,8.0068,18.7098,32.7246,11.9048,7.2623,8.1123,6.9119,3.8220,0.5066,0.9861,14.6128,9.0868
1941.4062,18.1032,13.4410,13.4294,11.3677,9.6499,8.2637,4.8748,8.9532,15.9906,20.8905,11.1088,7.0925,7.7266,6.8780,1.4705,-0.1946,1.1776,14.1159,9.2467
1945.3125,7.6603,10.3805,11.5538,11.1793,10.4785,3.0877,2.3934,9.7661,13.3517,11.8712,10.8213,7.1749,7.1218,6.6801,-0.6696,0.6796,1.9949,13.2163,8.9355
1949.2188,4.9022,9.8742,10.2377,10.6975,10.9660,1.4616,1.1129,10.2931,11.7408,8.8027,11.2138,7.4778,6.4495,6.5846,-2.6548,2.6733,3.2504,12.2922,8.2798
1953.1250,11.0023,12.4010,10.4502,10.4677,11.4744,4.4808,2.1710,10.6853,12.1109,12.6292,12.6066,8.3512,6.2558,6.9397,-2.8866,5.4000,5.0270,12.0566,8.0277
1957.0312,22.6261,17.2283,12.5700,10.8939,12.2568,10.8851,5.7765,11.2294,14.5285,21.0275,15.0979,9.9737,6.9287,7.8494,0.6981,8.1812,7.2579,12.8435,8.8956
1960.9375,33.0235,22.2089,15.7628,11.7997,13.1379,17.2523,10.6282,12.0593,17.6768,28.9367,17.9995,11.8173,8.1934,8.9703,8.4231,9.8938,9.3369,14.1255,10.8197
1964.8438,35.2353,24.4567,18.0960,12.4199,13.5130,19.6069,14.2156,12.9413,19.2907,30.8077,19.6929,12.6702,9.1013,9.6036,17.5051,9.3946,10.1744,14.6914,12.7266
1968.7500,25.7977,21.7616,17.5014,11.8514,12.6972,15.6100,14.0537,13.2968,17.4004,23.5331,18.2835,11.3260,8.5891,9.0560,22.9557,6.3490,8.7790,13.4123,13.0872
1972.6562,6.8208,13.9634,13.0595,9.6513,10.3917,5.9903,9.1904,12.4875,11.6113,8.3529,12.7794,7.4869,6.2251,7.0431,20.5223,1.8269,5.0003,10.0519,10.9250
1976.5625,-14.8952,3.3423,5.7530,6.1633,6.9340,-5.7476,0.9981,10.2165,3.5263,-9.5527,4.0083,2.1845,2.5782,3.8709,9.7715,-1.9441,-0.1356,5.5177,6.5667
1980.4688,-31.3179,-6.3811,-1.8863,2.3556,3.1487,-15.2279,-7.3757,6.8027,-4.0380,-23.6953,-5.4407,-2.6639,-1.0947,0.2702,-4.9417,-2.7182,-4.8368,1.3510,1.5683
1984.3750,-37.2400,-11.9177,-7.0842,-0.7018,-0.0951,-19.5382,-12.6526,3.1405,-8.5606,-29.6115,-12.3296,-5.3160,-3.6351,-2.9935,-16.5573,0.3829,-7.5183,-1.1820,-2.1749
1988.2812,-32.5678,-12.0111,-8.2766,-2.3495,-2.3036,-18.5145,-13.1574,0.3330,-9.0658,-26.8761,-14.2989,-5.1626,-4.6681,-5.4651,-19.2973,6.1738,-7.7105,-1.7512,-3.5275
1992.1875,-21.6031,-7.7770,-5.7888,-2.5198,-3.4740,-14.2281,-9.5495,-0.8144,-6.3425,-18.6456,-10.9078,-2.9308,-4.6809,-7.0731,-12.0374,11.9547,-6.2713,-0.9318,-2.6670
1996.0938,-10.0136,-1.6674,-1.3678,-1.5362,-3.8623,-9.1894,-4.1364,-0.1589,-2.1139,-9.2401,-3.6525,-0.0398,-4.4598,-7.9236,1.1032,15.0306,-4.7371,0.4208,-0.7409
2000.0000,-1.6070,4.1098,3.0202,0.2304,-3.6308,-4.6655,0.6802,1.7554,2.1287,-1.5473,4.8967,2.3662,-4.3512,-8.0215,13.2937,14.2428,-4.2526,1.8502,1.0596
2003.9062,3.0404,8.5753,6.2508,2.5420,-2.6815,-0.3396,3.7288,4.0067,5.7670,4.0024,12.2195,3.9899,-3.9565,-7.1791,18.9680,10.5201,-4.8304,3.4840,2.2883
2007.8125,5.5245,11.7886,8.2814,5.1870,-0.8175,4.5592,5.3186,5.7410,8.8190,8.4338,16.6394,5.2021,-2.5218,-5.2092,16.7334,6.1242,-5.4492,5.6094,3.3220
2011.7188,7.3328,13.8800,9.5675,7.7449,1.9104,9.7249,6.4159,6.4934,11.2179,12.3073,17.5798,6.3745,0.2788,-2.2480,9.5524,3.1555,-4.8886,8.0448,4.7396
2015.6250,8.3164,14.3103,10.2741,9.5145,4.9838,13.2614,7.5275,6.2428,12.3657,14.6263,15.4559,7.3562,3.8106,1.0795,2.3852,2.3605,-2.6722,9.9009,6.5675
2019.5312,7.1072,12.1137,9.9932,9.7751,7.5550,12.8021,8.2081,5.2472,11.4359,13.5396,11.4427,7.5538,6.6747,3.8503,-0.9609,3.0004,0.5698,10.0195,8.0473
2023.4375,2.9757,6.9747,8.1929,8.2525,8.8992,7.5153,7.5338,3.8352,8.1986,8.2532,7.1793,6.5265,7.5553,5.3148,0.2321,3.7323,3.5408,7.8173,8.1450
2027.3438,-2.6191,0.1802,4.9695,5.4422,8.8716,-0.6068,5.0765,2.3063,3.6293,0.4745,4.3092,4.5452,6.1159,5.3392,3.8492,3.7353,5.1472,3.8888,6.4043
2031.2500,-6.3298,-5.5327,1.3927,2.4862,8.0236,-7.3946,1.5222,0.9567,-0.3353,-6.0147,3.8545,2.5764,3.2703,4.4889,6.8539,3.2160,5.1248,-0.1568,3.4508
2035.1562,-5.1037,-7.3887,-0.9536,0.5958,7.2581,-8.9118,-1.6133,0.1095,-1.8704,-7.6037,5.6857,1.6389,0.5956,3.6581,7.3838,2.9981,3.9954,-2.5963,0.7022
2039.0625,1.3436,-4.3554,-0.9749,0.3572,7.2326,-4.0688,-2.9698,0.0282,-0.4462,-3.3622,8.4931,2.0304,-0.7064,3.4761,5.6905,3.6514,2.4836,-2.6440,-0.5445
2042.9688,9.7754,2.0056,1.1224,1.3754,7.9089,4.4236,-2.2654,0.7134,2.7606,4.0970,10.4479,3.0685,-0.5575,3.8959,3.5423,4.9528,0.9399,-0.9222,0.0089
2046.8750,15.2274,8.3394,3.8499,2.5107,8.5570,11.5594,-0.4450,1.7371,5.5847,10.1822,10.2585,3.6030,0.0702,4.2549,2.7398,6.1272,-0.7375,0.9908,1.4628
2050.7812,14.2551,11.4901,5.3271,2.5694,8.2117,13.0966,1.0358,2.3051,6.2581,11.3160,7.9590,2.9258,-0.0342,3.7688,3.8455,6.6122,-2.6639,1.6212,2.3434
2054.6875,7.3548,10.3525,4.4410,1.0058,6.2762,8.1635,1.2131,1.6054,4.5057,7.2734,4.8569,1.3570,-1.3909,2.1120,5.9167,6.6130,-4.4748,0.5313,1.5880
2058.5938,-1.2225,6.3383,1.4757,-1.8077,2.8830,-0.2983,0.1376,-0.7129,1.6011,1.2280,2.6259,0.0133,-3.4730,-0.3244,7.2875,6.8902,-5.3158,-1.5092,-0.8147
2062.5000,-6.2031,2.2093,-2.1890,-4.8842,-1.1967,-7.4828,-1.4264,-4.2295,-0.6095,-2.4844,2.1526,-0.0981,-5.1625,-2.6752,6.7788,7.9104,-4.4394,-3.1872,-3.9482
2066.4062,-4.6812,0.1747,-5.0441,-7.2585,-4.9950,-9.6900,-2.7958,-7.8492,-0.9811,-1.2634,2.9602,1.0390,-5.6429,-4.1707,4.5185,9.1047,-1.9697,-3.6309,-6.6976
2070.3125,2.1643,0.6011,-6.3696,-8.5199,-7.8296,-6.3654,-3.9578,-10.3066,0.2606,4.2115,3.6260,2.3043,-5.0379,-4.6332,1.8627,8.9804,0.8429,-2.9977,-8.5020
2074.2188,10.1127,2.1344,-6.4947,-8.9203,-9.5365,-0.0278,-5.4697,-10.8191,1.8628,10.7268,2.8870,2.1980,-4.3224,-4.5682,0.4909,6.1641,2.2195,-2.2777,-9.5891
2078.1250,14.8013,2.9523,-6.3179,-9.0581,-10.3713,5.5958,-7.7905,-9.5162,2.5508,14.8292,0.6149,-0.0355,-4.5943,-4.8106,1.2613,0.6446,0.9855,-2.5074,-10.5897
2082.0312,14.3414,2.0970,-6.5426,-9.4187,-10.7240,7.7947,-10.6516,-7.3918,1.9006,14.9111,-2.0574,-3.7567,-6.2724,-5.9873,3.5586,-5.8001,-2.5646,-4.0017,-11.9078
2085.9375,9.8875,-0.0831,-7.2256,-10.1016,-10.8766,6.0207,-13.0431,-5.7978,0.4579,11.6812,-3.5504,-7.2636,-8.8174,-8.1581,5.5767,-10.4648,-6.7539,-6.1600,-13.3693
2089.8438,4.0347,-2.5483,-7.9187,-10.8712,-10.9324,1.4964,-13.8777,-5.7519,-0.8908,6.9678,-2.9954,-8.9002,-11.1499,-10.8340,5.4048,-11.3661,-9.5773,-7.9446,-14.3967
2093.7500,-1.4739,-4.5746,-8.1884,-11.4093,-10.8822,-4.0501,-12.8230,-7.4189,-1.7250,2.0480,-0.9035,-8.1539,-12.4113,-13.2955,2.2571,-8.5201,-10.0074,-8.6377,-14.5157
2097.6562,-6.8751,-6.2692,-8.0341,-11.5239,-10.6719,-9.4171,-10.6312,-10.0149,-2.4092,-3.0908,1.1213,-5.9667,-12.4769,-14.9478,-2.9505,-3.9026,-8.6083,-8.3046,-13.7456
2101.5625,-13.5542,-8.2258,-7.8578,-11.1630,-10.1879,-14.0784,-8.6743,-12.1588,-3.6908,-9.0758,1.4133,-4.0509,-11.8556,-15.4835,-8.0938,-0.0999,-6.9921,-7.6463,-12.5492
2105.4688,-22.0752,-10.7197,-8.0478,-10.2830,-9.1989,-17.6685,-8.0033,-12.4925,-5.9296,-15.8042,-0.6891,-3.7112,-11.1073,-14.8182,-11.1284,1.3661,-6.5037,-7.3994,-11.4012
2109.3750,-30.8039,-13.2156,-8.5595,-8.7620,-7.3752,-19.5496,-8.6245,-10.2927,-8.6007,-21.7349,-4.4327,-5.0013,-10.2774,-12.9501,-11.3403,0.8229,-7.1067,-7.7625,-10.3511
2113.2812,-36.3821,-14.6593,-8.8673,-6.4933,-4.4597,-19.0124,-9.5198,-5.8308,-10.4999,-24.5707,-8.1155,-6.7731,-8.8185,-9.9204,-9.7120,-0.1748,-7.3240,-8.2776,-8.9555
2117.1875,-35.8686,-14.3294,-8.3464,-3.6098,-0.5244,-15.9885,-9.3932,-0.3397,-10.5367,-22.9191,-10.0864,-7.5258,-6.0706,-5.9213,-8.1467,-0.3025,-5.3193,-8.2300,-6.6519
2121.0938,-29.0479,-12.5341,-6.7908,-0.6339,3.8702,-11.6026,-7.5987,4.4061,-8.5528,-17.6642,-9.6486,-6.4231,-1.9220,-1.4222,-8.0900,0.4386,-0.3593,-7.2374,-3.2861
2125.0000,-19.1975,-10.5502,-4.6592,1.6365,7.7728,-7.9509,-4.6051,6.7584,-5.5703,-11.9136,-7.3611,-3.7829,2.8735,2.8564,-9.5294,0.8494,6.4099,-5.5792,0.6210
2128.9062,-11.6256,-9.8058,-2.8497,2.5007,10.2012,-7.0817,-1.7035,5.8590,-3.2685,-9.3867,-4.6311,-0.7658,6.9997,6.1817,-11.0765,-0.2671,12.4737,-4.0310,4.0827
2132.8125,-10.7865,-10.9099,-2.1543,1.7635,10.5847,-9.7996,-0.1982,2.0219,-3.0136,-12.2308,-2.8833,1.4386,9.3141,8.1326,-11.0420,-2.8665,15.4403,-3.3474,6.1931
2136.7188,-17.7239,-13.2439,-2.7727,-0.1094,9.0302,-15.0986,-0.6348,-3.3635,-5.0586,-19.6668,-2.7848,2.3267,9.5113,8.7865,-8.6811,-5.4461,14.5146,-3.7826,6.6292
2140.6250,-29.3749,-15.3902,-4.2072,-2.2247,6.2515,-20.6188,-2.5372,-8.3997,-8.4068,-28.3216,-3.9348,2.2357,8.2578,8.6252,-4.6888,-6.0747,10.9639,-4.9825,5.7732
2144.5312,-40.1152,-16.0529,-5.5863,-3.7494,3.2044,-23.8459,-4.7476,-11.4789,-11.3971,-34.0141,-5.1727,1.9179,6.7166,8.2160,-0.6297,-3.8649,7.2787,-6.2890,4.4031
2148.4375,-44.6163,-14.8040,-6.1806,-4.3363,0.6471,-23.3245,-6.0941,-11.9282,-12.6319,-33.9051,-5.3384,1.9115,5.8008,7.8831,2.1742,0.2938,5.6128,-7.1966,3.1959
2152.3438,-40.4222,-12.1864,-5.7815,-4.2098,-1.1225,-19.2173,-5.9743,-10.1796,-11.6886,-27.8009,-4.0670,2.1737,5.6587,7.5895,3.3785,4.3369,6.5326,-7.6175,2.3849
2156.2500,-28.9367,-9.2177,-4.7373,-3.8772,-2.2323,-13.0093,-4.5725,-7.3969,-9.2340,-18.0240,-2.1408,2.1915,5.7100,7.0849,3.4214,6.4832,8.8457,-7.7927,1.7690
2160.1562,-14.4783,-6.7439,-3.6798,-3.6939,-2.9773,-6.6618,-2.6718,-4.7930,-6.5407,-8.1169,-1.1243,1.4289,5.1570,6.1761,2.6590,6.3873,10.5249,-7.9706,1.0077
2164.0625,-2.0781,-5.1020,-3.1436,-3.6062,-3.5390,-1.7469,-1.2138,-3.0395,-4.7497,-1.2095,-2.4227,-0.2521,3.5856,4.9017,0.6807,5.0887,10.0362,-8.1465,-0.0458
2167.9688,4.7531,-4.2252,-3.3031,-3.2526,-3.8693,1.0309,-0.8259,-2.0900,-4.3321,1.1204,-6.3145,-2.4930,1.2419,3.4831,-3.4929,3.8680,7.1961,-8.0878,-1.2095
2171.8750,5.2122,-3.9613,-3.9423,-2.3328,-3.7930,1.8240,-1.5108,-1.4616,-5.0327,-0.9066,-11.6144,-4.7002,-1.1716,2.1163,-10.3981,3.0296,3.0862,-7.6176,-2.1038
2175.7812,0.9367,-4.2743,-4.6310,-0.9526,-3.2261,1.2946,-2.6302,-0.7276,-6.2523,-5.7966,-16.2877,-6.4466,-3.0000,0.7963,-19.1232,1.6880,-0.7837,-6.9105,-2.4346
2179.6875,-5.3275,-5.1835,-4.9838,0.3322,-2.3356,0.1775,-3.2167,0.1329,-7.5555,-11.6323,-18.6983,-7.7154,-4.0661,-0.6605,-27.2347,-1.2293,-3.4177,-6.5209,-2.2237
2183.5938,-11.2303,-6.5649,-4.8658,0.8275,-1.5159,-1.0414,-2.5082,0.7532,-8.9306,-16.7806,-18.6637,-8.8248,-4.7308,-2.4020,-31.8771,-5.6283,-4.7656,-7.0632,-1.8389
2187.5000,-15.6356,-8.0514,-4.4498,0.1634,-1.1860,-2.2222,-0.4499,0.7102,-10.6225,-20.2014,-17.5311,-10.1028,-5.5602,-4.3005,-31.3729,-9.7932,-5.4641,-8.7383,-1.8082
2191.4062,-18.4278,-9.1520,-4.1055,-1.4162,-1.5366,-3.4386,2.1462,-0.0969,-12.6825,-21.3824,-17.1340,-11.5568,-6.8473,-5.8937,-26.2168,-11.3998,-6.1878,-11.0478,-2.5252
2195.3125,-19.6784,-9.5015,-4.1800,-3.1469,-2.3920,-4.7132,3.9531,-1.3064,-14.6032,-20.1333,-18.3256,-12.7789,-8.3291,-6.5874,-18.7765,-9.3364,-7.1197,-12.9441,-4.0082
2199.2188,-18.9674,-9.0466,-4.7854,-4.1770,-3.2893,-5.8036,3.8591,-2.2858,-15.3898,-16.5063,-20.1853,-13.1643,-9.3026,-6.0053,-11.9390,-4.8871,-7.8778,-13.3795,-5.8426
2203.1250,-15.4993,-8.0442,-5.7181,-4.0659,-3.7412,-6.2215,1.6593,-2.5169,-14.1183,-10.9509,-20.5857,-12.3078,-9.0704,-4.2584,-7.6514,-1.1794,-7.8670,-11.9333,-7.3491
2207.0312,-8.9981,-6.9040,-6.5657,-3.0347,-3.5378,-5.5293,-1.7469,-1.9071,-10.6541,-4.5562,-17.8158,-10.3111,-7.4253,-1.9461,-6.2710,-1.0848,-6.7341,-9.1136,-7.9057
2210.9375,-0.6652,-5.9949,-6.9428,-1.8100,-2.9034,-3.7410,-4.8266,-0.8277,-6.0070,0.9508,-12.0955,-7.7797,-4.8518,0.1237,-6.9410,-5.0157,-4.5935,-6.1078,-7.2657
2214.8438,6.7295,-5.4971,-6.7002,-1.1635,-2.3995,-1.5081,-6.2774,0.1294,-1.9632,3.7104,-5.7853,-5.4820,-2.2979,1.3341,-8.4618,-10.2883,-1.9069,-4.0965,-5.6932
2218.7500,10.0284,-5.3037,-5.9581,-1.4265,-2.6076,0.1496,-5.7235,0.5068,-0.0941,2.6627,-1.9805,-3.8657,-0.6404,1.5468,-9.9147,-12.6690,0.8289,-3.5275,-3.8202
2222.6562,7.5967,-4.9603,-4.9316,-2.2683,-3.7597,0.4959,-3.7872,0.2332,-0.7115,-1.5857,-2.3863,-2.7469,-0.1698,1.1318,-10.7180,-9.1474,3.3278,-3.7950,-2.2791
2226.5625,0.7161,-3.7060,-3.6836,-2.8639,-5.5321,-0.2979,-1.5179,-0.3543,-2.4762,-6.6171,-5.9863,-1.3973,-0.4160,0.7447,-10.3938,-0.0333,5.5283,-3.5438,-1.3186
2230.4688,-6.6515,-0.7290,-2.0196,-2.3489,-7.1422,-1.0520,0.3708,-0.6991,-3.0255,-9.1354,-9.5386,0.9810,-0.4354,0.9951,-8.5415,11.0973,7.4232,-1.4511,-0.6522
2234.3750,-9.8676,4.3413,0.3460,-0.3112,-7.7215,-0.2105,1.8767,-0.3026,-0.3528,-6.6731,-9.6594,4.6656,0.6018,2.1739,-5.1848,19.5846,8.8902,2.9484,0.3346
2238.2812,-6.3172,10.9130,3.4314,2.9426,-6.7743,3.0959,3.4334,1.0426,5.8535,0.8399,-5.1076,9.0780,2.8759,4.1483,-1.1381,22.4886,9.6876,8.8644,2.1182
2242.1875,2.8472,17.2602,6.7006,6.4789,-4.4688,8.2273,5.2426,3.1481,13.7541,10.6440,2.2947,12.9382,5.7580,6.4315,2.1279,20.1135,9.6209,14.5196,4.6091
2246.0938,13.0714,21.0011,9.1188,9.1366,-1.5886,13.0551,6.7979,5.4737,20.1301,18.2730,8.7279,14.8513,8.1273,8.3679,3.2464,15.3133,8.7305,17.9527,7.0702
2250.0000,18.7368,20.1547,9.6121,10.0393,0.8394,14.9297,7.0498,7.3015,21.9912,19.7183,10.6890,13.9998,8.9776,9.3558,1.8521,11.2254,7.3219,17.9333,8.4827
2253.9062,16.1089,14.2622,7.6987,8.9802,2.0436,12.0825,5.1540,7.9891,18.1191,13.4490,7.0056,10.5481,7.9545,9.0446,-1.1264,9.1285,5.7886,14.5156,8.1625
2257.8125,5.1994,4.8871,3.8927,6.5032,1.8659,4.6522,1.2599,7.2282,9.6865,1.1544,-0.6959,5.5450,5.5181,7.4607,-4.1148,7.9046,4.3527,8.9671,6.2339
2261.7188,-10.4157,-4.9153,-0.4209,3.6533,0.7965,-5.2610,-3.2860,5.2034,-0.3526,-13.1587,-9.1887,0.4175,2.6619,5.0226,-6.0507,5.3353,2.9405,3.1456,3.6347
2265.6250,-25.5169,-11.9626,-3.6261,1.5172,-0.3103,-14.5300,-6.5525,2.5628,-8.7007,-25.1182,-15.5398,-3.6276,0.3875,2.4283,-7.1425,0.1282,1.3250,-1.3214,1.6218
2269.5312,-35.6715,-14.4193,-4.6796,0.7756,-0.6624,-20.3858,-7.0978,0.1847,-13.1666,-31.8606,-18.4341,-5.9738,-0.7425,0.4333,-8.5946,-6.8714,-0.5357,-3.6360,1.0750
2273.4375,-38.8917,-12.5649,-3.6097,1.4756,0.1350,-21.5358,-4.8099,-1.1704,-13.4050,-32.9049,-18.2688,-6.6069,-0.7331,-0.4079,-11.4915,-13.1292,-2.2212,-3.9504,2.0389
2277.3438,-35.9429,-8.4634,-1.4221,3.1160,1.9874,-18.5356,-0.9704,-1.1518,-10.7053,-29.8261,-16.3075,-5.8835,0.0418,0.0709,-15.7523,-16.1187,-2.8945,-3.0357,3.7855
2281.2500,-29.5616,-4.7983,0.5117,4.9772,4.4595,-13.3851,2.4803,0.0918,-7.1150,-25.2141,-13.7282,-4.2800,1.1711,1.6134,-20.0331,-14.9870,-1.7399,-1.7516,5.3345
2285.1562,-23.2406,-3.5808,1.2033,6.4939,7.0273,-8.6538,3.9882,2.0571,-4.4524,-21.6070,-11.2204,-2.2759,2.4227,3.6731,-22.6838,-11.0258,1.4274,-0.6362,6.0694
2289.0625,-20.0910,-5.4054,0.4954,7.4621,9.2770,-6.5252,3.1105,4.1575,-3.6653,-20.8006,-9.1570,-0.3582,3.7262,5.6403,-22.9734,-6.7133,5.7798,0.1973,6.0449
2292.9688,-21.9347,-9.4988,-1.0080,7.9800,10.9621,-8.0452,0.5660,5.9479,-4.7000,-23.5074,-7.8868,0.9841,4.9943,7.0468,-21.5501,-4.0981,9.6498,0.8775,5.8102
2296.8750,-28.6451,-14.3170,-2.4140,8.2007,11.9467,-12.7370,-2.2844,7.1892,-6.7641,-29.1761,-7.7269,1.3705,5.9768,7.6582,-19.7357,-3.6625,11.2673,1.4960,5.9133
2300.7812,-37.9257,-18.2366,-3.0790,8.0930,12.1263,-18.6946,-4.1277,7.7701,-8.7642,-35.9632,-8.6645,0.7117,6.2981,7.4395,-18.2464,-4.3409,9.6978,1.9426,6.4583
2304.6875,-45.8835,-20.0213,-2.8901,7.3961,11.4078,-23.2227,-4.1875,7.6094,-9.7391,-41.1012,-10.1464,-0.6862,5.6665,6.4525,-16.4576,-4.5065,5.4352,1.9535,7.0232
2308.5938,-48.5520,-19.0405,-2.1816,5.8083,9.7596,-23.9299,-2.3871,6.6495,-9.1979,-41.8712,-11.2852,-2.2229,4.0956,4.7730,-12.9159,-3.1324,0.2460,1.3096,6.9710
2312.5000,-43.9001,-15.3825,-1.4261,3.2717,7.2781,-19.9104,0.7125,4.9464,-7.3038,-36.9656,-11.4121,-3.2991,1.9512,2.4797,-6.7708,-0.3610,-3.7137,0.0187,5.9046
2316.4062,-33.2696,-9.9333,-0.9518,0.1329,4.2058,-12.4293,4.0725,2.7508,-4.8442,-27.5322,-10.5378,-3.6382,-0.2340,-0.2916,1.0230,2.7483,-5.0413,-1.6524,3.9324
2320.3125,-21.1806,-4.2995,-0.8594,-2.9610,0.8769,-4.6101,6.4201,0.4640,-2.9444,-17.0898,-9.3143,-3.4244,-2.0606,-3.2842,7.7857,4.9516,-3.8323,-3.3179,1.5701
2324.2188,-13.2435,-0.3905,-1.1281,-5.3840,-2.3695,-0.0695,6.6362,-1.5436,-2.5811,-10.0344,-8.4962,-3.1558,-3.4583,-6.1049,10.5827,5.4839,-1.5690,-4.6723,-0.6177
2328.1250,-13.1248,0.3396,-1.7543,-6.8529,-5.2469,-1.0777,4.2573,-3.1257,-4.0791,-9.3546,-8.3270,-3.2919,-4.6233,-8.2819,8.1183,4.3208,-0.1955,-5.5997,-2.3467
2332.0312,-20.3040,-2.3270,-2.7693,-7.5207,-7.5139,-7.2187,-0.1398,-4.4040,-6.8473,-14.8397,-8.3454,-3.9120,-5.7301,-9.3773,1.7234,2.0669,-0.9139,-6.1187,-3.6646
2335.9375,-30.0987,-7.0617,-4.1100,-7.7698,-8.9299,-15.3876,-4.9861,-5.5998,-9.5414,-22.9579,-7.7581,-4.5950,-6.6304,-9.1184,-5.2728,-0.3021,-3.4251,-6.2183,-4.7050
2339.8438,-36.1590,-11.4765,-5.4715,-7.8548,-9.2479,-21.2702,-8.3484,-6.7677,-10.6404,-28.6672,-6.0613,-4.6033,-6.7904,-7.5022,-9.3820,-1.6955,-6.0867,-5.7372,-5.3687
2343.7500,-34.0914,-13.2643,-6.3090,-7.6668,-8.2992,-21.5880,-8.8991,-7.6500,-9.1921,-28.2295,-3.4215,-3.2791,-5.5697,-4.8450,-8.8254,-1.1812,-6.9125,-4.4115,-5.2229
2347.6562,-24.0681,-11.3963,-6.0620,-6.8098,-6.1548,-15.8771,-6.6799,-7.8013,-5.3540,-21.3878,-0.5561,-0.4447,-2.7022,-1.7470,-4.3219,1.6586,-4.8176,-2.0861,-3.7497
2351.5625,-10.7945,-6.6613,-4.4916,-4.9499,-3.2613,-6.7638,-3.1342,-6.9276,-0.4152,-11.5594,1.7194,3.4068,1.3374,1.0411,1.5371,6.3761,-0.3489,1.0566,-0.7993
2355.4688,-0.7680,-1.1913,-1.9063,-2.1855,-0.4220,1.4714,-0.3039,-5.1977,3.7693,-3.8460,2.8895,7.2478,5.3731,2.8389,5.7954,11.5729,4.5674,4.4434,3.0851
2359.3750,1.5667,2.7651,0.9060,0.8501,1.4396,5.2559,0.3635,-3.2693,5.6857,-2.0007,2.8283,9.9403,8.0289,3.2823,6.6159,15.3103,7.7325,7.3193,6.7502
2363.2812,-3.5638,4.0733,3.0385,3.2586,1.6642,3.6544,-1.1518,-1.9609,4.9440,-6.1749,1.6541,10.7586,8.4439,2.4887,4.0400,15.9539,7.9792,9.1187,8.9381
2367.1875,-11.4949,3.1921,3.9099,4.3549,0.1989,-1.2629,-3.5225,-1.7653,2.4831,-12.8490,-0.3903,9.7457,6.7726,1.0376,-0.1785,13.0267,5.8770,9.7537,8.9309
2371.0938,-16.1049,1.6268,3.5131,4.0313,-2.3134,-5.8335,-5.0312,-2.5359,0.0269,-17.0455,-2.8927,7.6934,4.1345,-0.2687,-3.4704,7.5359,3.3898,9.6075,6.9288
2375.0000,-13.7249,0.7571,2.3115,2.7573,-4.7889,-7.1400,-4.7768,-3.5751,-0.9522,-15.5031,-5.2041,5.7135,1.9928,-0.7746,-3.6946,1.5080,2.6772,9.2090,3.9135
2378.9062,-5.5312,0.8519,0.8674,1.2281,-6.1983,-4.8298,-3.3196,-4.0779,-0.1648,-8.8384,-6.5972,4.6121,1.3122,-0.2898,-0.2733,-3.0246,4.7568,8.8051,1.0777
2382.8125,3.1414,0.9518,-0.5229,-0.0792,-6.0427,-1.2687,-2.3219,-3.6335,1.2732,-1.2780,-6.6876,4.4286,2.0076,0.8252,5.2846,-4.9714,8.8433,8.1470,-0.8149
2386.7188,6.2125,-0.2976,-1.9230,-1.1235,-4.5429,0.0929,-3.4125,-2.4515,1.5495,1.9713,-5.8038,4.4486,3.0370,1.8702,9.8851,-4.5049,12.7684,6.6780,-1.7413
2390.6250,0.8779,-3.4530,-3.5274,-2.1588,-2.4424,-2.8846,-7.0301,-1.1806,-0.5833,-1.8742,-4.8854,3.7227,3.0923,2.1969,10.3862,-2.6411,14.2185,4.0256,-2.2386
2394.5312,-10.3680,-7.5944,-5.3114,-3.3814,-0.5598,-9.4375,-12.0121,-0.4738,-4.7955,-11.1788,-4.8126,1.7769,1.4478,1.5470,5.5138,-0.4729,12.0318,0.4518,-2.9054
2398.4375,-21.1246,-10.7109,-6.8720,-4.6661,0.6202,-16.2056,-16.2064,-0.6135,-9.1552,-20.6792,-5.6083,-0.9721,-1.5810,0.1299,-2.9965,1.3606,6.7741,-3.0961,-3.9628
2402.3438,-25.1190,-10.9729,-7.6249,-5.6150,1.0709,-19.3138,-17.7054,-1.4283,-11.2261,-24.6949,-6.2119,-3.4255,-4.8661,-1.5959,-10.9958,2.6554,0.2908,-5.4385,-5.1716
2406.2500,-20.3013,-8.0510,-7.2358,-5.8748,1.0250,-16.9001,-15.9125,-2.4968,-9.6508,-20.7566,-5.1861,-4.5428,-7.2174,-3.2722,-14.2142,3.2435,-5.4133,-5.8624,-6.1196
2410.1562,-10.2451,-3.5398,-5.9449,-5.4565,0.6488,-10.3942,-11.7865,-3.4302,-5.1647,-11.2650,-1.9601,-4.1172,-8.1350,-4.8608,-10.9642,2.6952,-9.2150,-4.5987,-6.6089
2414.0625,-1.7899,-0.0923,-4.4928,-4.7786,-0.1302,-3.6294,-7.1622,-4.0148,-0.2754,-1.9842,2.3484,-3.0062,-8.0462,-6.5662,-3.4249,0.4832,-11.1921,-2.7218,-6.8158
2417.9688,-0.3891,0.2513,-3.6430,-4.3740,-1.4964,-0.3212,-3.6407,-4.1615,2.2829,1.7390,5.3259,-2.5876,-7.8736,-8.5164,3.5777,-3.4743,-12.1101,-1.4936,-7.0933
2421.8750,-6.2932,-2.5436,-3.6293,-4.4785,-3.4240,-1.5988,-1.7719,-3.7965,1.3397,-1.4524,4.7932,-3.7638,-8.2558,-10.4500,5.6910,-8.3639,-12.5433,-1.5647,-7.5884
2425.7812,-14.2720,-6.3585,-3.9496,-4.8296,-5.4449,-5.2957,-1.0010,-2.8648,-1.9036,-8.0096,0.4556,-6.2042,-8.9948,-11.6766,2.0031,-12.5910,-12.3149,-2.5628,-8.0030
2429.6875,-17.2215,-8.1959,-3.7026,-4.8490,-6.7493,-7.5257,-0.3087,-1.4727,-4.6531,-11.9266,-5.5789,-8.3991,-9.1387,-11.3943,-4.2602,-14.5108,-10.6629,-3.3554,-7.7215
2433.5938,-11.2689,-6.0892,-2.2560,-4.0872,-6.6169,-5.4780,0.9706,-0.0181,-4.4052,-8.9549,-9.9299,-8.5524,-7.6552,-9.1843,-7.9151,-13.3273,-6.9749,-2.8164,-6.2365
2437.5000,1.1852,-0.4041,0.2332,-2.5904,-4.9075,0.5206,2.7220,0.8937,-0.6567,0.2989,-10.0353,-5.7410,-4.2214,-5.3540,-5.4180,-9.5318,-1.5091,-0.5855,-3.5563
2441.4062,12.7347,6.3334,2.8464,-0.9031,-2.2504,7.1368,4.2490,0.7825,4.7417,10.5728,-5.7623,-0.5625,0.4310,-0.8754,2.6494,-4.5576,4.4667,2.6819,-0.2810
2445.3125,15.8163,10.9672,4.4826,0.3033,0.2413,10.2790,4.8665,-0.3331,8.8298,15.3699,0.5877,5.1687,4.8632,3.0665,11.9768,0.1028,9.2529,5.7238,2.7208
2449.2188,7.8486,11.5824,4.5807,0.6949,1.5804,7.8763,4.4034,-1.8370,9.4971,11.2808,5.8511,9.4612,7.7305,5.6386,17.4863,3.6842,11.6224,7.4408,4.7979
2453.1250,-6.9130,8.4997,3.4620,0.4746,1.4496,1.2365,3.2518,-2.8510,6.7886,0.2474,7.9929,11.2209,8.4985,6.6878,16.6904,6.3038,11.4371,7.5017,5.8155
2457.0312,-20.1187,3.8132,2.0527,0.1651,0.3209,-5.9389,1.9788,-2.8330,2.6868,-11.7506,7.1241,10.6737,7.6179,6.6462,11.0626,8.4511,9.5893,6.4072,6.0716
2460.9375,-24.7605,-0.0994,1.2064,0.1504,-0.9172,-10.1170,0.8546,-2.0160,-0.3856,-18.6120,4.9624,8.9494,6.0981,6.1228,4.5868,10.2871,7.3692,5.0256,5.9438
2464.8438,-19.5486,-2.0133,1.1401,0.3392,-1.5607,-10.2143,-0.3098,-1.3200,-1.2084,-17.9087,3.3340,7.2163,4.8254,5.4864,0.7483,11.3415,5.7338,3.9710,5.5729
2468.7500,-9.3156,-2.3070,1.3836,0.2185,-1.5099,-8.0193,-1.8949,-1.7308,-0.3937,-12.0447,2.9379,6.0015,4.0960,4.7197,0.2752,10.8355,4.9488,3.2538,4.8348
2472.6562,-1.4250,-2.2874,1.2333,-0.7420,-1.2467,-6.6016,-4.0109,-3.5485,0.3355,-6.2325,3.2172,5.0978,3.6182,3.5959,1.1695,8.3293,4.7307,2.4015,3.5821
2476.5625,-0.9406,-3.0630,0.3134,-2.6490,-1.4285,-8.0093,-6.2467,-6.0578,-0.4599,-4.9545,3.1897,3.9690,2.8758,1.9886,0.7101,4.1360,4.6340,0.8959,1.9022
2480.4688,-7.9516,-4.8552,-1.2008,-5.0473,-2.4133,-11.9731,-7.8608,-7.9079,-2.9622,-9.4340,2.3468,2.2356,1.5234,0.0482,-2.3430,-0.8386,4.3142,-1.4176,0.1327
2484.3750,-18.5899,-7.1587,-2.8265,-7.1867,-4.0368,-16.4423,-8.2907,-7.9867,-6.2010,-17.6235,0.8306,-0.1296,-0.4586,-1.8820,-7.0474,-5.6695,3.5108,-4.2167,-1.3927
2488.2812,-28.4344,-9.4115,-4.2124,-8.4808,-5.7489,-19.3314,-7.5843,-6.1922,-8.9844,-26.2270,-1.1136,-2.9288,-2.8674,-3.5107,-11.3814,-9.8860,1.9154,-6.9005,-2.6297
2492.1875,-35.3984,-11.4558,-5.3472,-8.8051,-6.9500,-19.9926,-6.3989,-3.5432,-10.7843,-32.8986,-3.6930,-5.9308,-5.4454,-4.7724,-13.9665,-13.4338,-0.7863,-8.8977,-3.8446
2496.0938,-39.9773,-13.3526,-6.3443,-8.4259,-7.2641,-19.2919,-5.5346,-1.5192,-11.8506,-36.9768,-7.4180,-8.8732,-7.9244,-5.7708,-14.8771,-16.1896,-4.5981,-9.8585,-5.2935
2500.0000,-43.1284,-14.7849,-7.0204,-7.6490,-6.5882,-18.3886,-5.3334,-1.0633,-12.5578,-38.5887,-12.2605,-11.2886,-9.9373,-6.5445,-14.9908,-17.5271,-8.8603,-9.6550,-6.8027
2503.9062,-44.0358,-14.7310,-6.7116,-6.4973,-4.9727,-17.3831,-5.3866,-1.9316,-12.6730,-37.3683,-16.9120,-12.4240,-10.9668,-6.8724,-14.7052,-16.4379,-12.2507,-8.2874,-7.6355
2507.8125,-39.9868,-11.9073,-4.5976,-4.6906,-2.5095,-15.0481,-4.7774,-2.8365,-11.2818,-32.2146,-19.0132,-11.4934,-10.4913,-6.3211,-13.3688,-12.2458,-13.3277,-5.8388,-6.8456
2511.7188,-28.6268,-5.7869,-0.3624,-1.9420,0.6480,-9.8962,-2.6985,-2.2904,-7.5051,-22.3986,-16.4795,-8.1983,-8.2948,-4.5386,-10.0270,-5.3975,-11.3609,-2.5250,-3.9303
2515.6250,-10.6809,2.6043,5.3287,1.6710,4.1736,-1.6872,0.9779,0.4163,-1.4141,-8.9593,-9.0605,-3.1347,-4.7124,-1.5833,-4.7664,2.3639,-6.8857,1.2483,0.6849
2519.5312,9.3321,10.8777,10.9811,5.5708,7.5274,7.9050,5.5503,4.7356,5.6672,5.0641,1.0843,2.3073,-0.5734,1.9774,0.7158,8.7274,-1.5197,4.9354,5.7294
2523.4375,25.3065,16.5127,15.0407,8.9022,10.1023,16.0741,9.8244,9.1570,11.8038,16.0691,10.3810,6.6026,3.1845,5.3053,4.0675,12.0394,2.9250,8.0284,9.7407
2527.3438,33.1990,18.3431,16.7718,10.9643,11.5052,20.5540,12.6848,12.0427,15.5859,22.0311,15.8299,8.9118,5.9886,7.7212,4.1338,12.1933,5.4690,10.2491,11.8650
2531.2500,33.3896,17.2286,16.6134,11.5565,11.7755,20.9407,13.5486,12.4633,16.8983,23.6710,16.6384,9.4903,7.8540,9.0313,2.1498,10.5423,6.4248,11.6098,12.2588
2535.1562,29.9740,15.3921,15.7574,11.0234,11.3569,18.7305,12.5062,10.5692,16.7534,23.6751,14.3963,9.3847,9.1965,9.5290,1.1205,8.9002,6.9618,12.2971,11.8304
2539.0625,27.5788,14.8826,15.2704,10.0135,10.8153,16.1664,10.1897,7.3874,16.3733,24.5462,11.7691,9.6352,10.3862,9.6885,3.6761,8.3611,8.0926,12.4851,11.5408
2542.9688,28.1820,16.2778,15.4213,9.1510,10.4949,14.8464,7.5356,4.2720,16.2892,26.7810,10.7339,10.5652,11.3950,9.7912,9.9866,8.7764,9.8254,12.2410,11.7847
2546.8750,30.3003,18.5404,15.6872,8.8263,10.3545,15.0866,5.5432,2.3562,16.1589,28.7953,11.5990,11.6613,11.8123,9.7574,17.3735,9.1956,11.1067,11.5965,12.2722
2550.7812,30.9355,20.0449,15.3613,9.1644,10.0928,16.2883,5.0063,2.2227,15.3585,28.5798,13.3203,12.0764,11.2059,9.2881,21.9753,8.8247,10.6005,10.6942,12.4207
2554.6875,28.4864,19.9051,14.2160,10.0837,9.4499,17.7301,6.1872,3.8125,13.7545,25.6531,14.6018,11.3228,9.5292,8.1826,21.2543,7.6904,7.7346,9.8336,11.8816
2558.5938,24.2041,18.5528,12.6672,11.3346,8.4456,19.0003,8.5421,6.4938,11.9475,21.6801,14.7891,9.6145,7.2498,6.5782,15.5316,6.5009,3.2599,9.3272,10.7695
2562.5000,21.1298,17.1807,11.3402,12.5121,7.3801,19.8107,10.7546,9.2490,10.7891,19.2732,13.9468,7.6413,5.1044,4.9356,7.5520,5.9029,-1.0717,9.2590,9.4600
2566.4062,21.5867,16.5986,10.4611,13.1318,6.6195,19.6354,11.2676,10.9962,10.6386,20.0216,12.3327,6.0297,3.6864,3.7944,0.6101,5.8446,-3.4776,9.3633,8.2056
2570.3125,25.4048,16.5109,9.6517,12.8367,6.3543,17.8096,9.1761,11.0187,11.0568,23.3959,9.9800,4.9650,3.1856,3.4861,-3.2630,5.6441,-3.1000,9.1714,6.9582
2574.2188,30.2721,15.8294,8.3408,11.6567,6.5211,14.2041,4.9734,9.3395,11.2326,27.3651,6.8585,4.2573,3.4470,3.9965,-3.8483,4.7182,-0.3504,8.3607,5.5717
2578.1250,33.6986,13.7364,6.4466,10.1178,6.9247,9.8663,0.5593,6.7900,10.7572,30.0745,3.3956,3.7228,4.2364,5.0367,-2.0158,3.3122,3.4849,7.0469,4.1825
2582.0312,34.7478,10.5655,4.6981,9.0387,7.4290,6.8210,-1.6988,4.6283,10.0269,31.0570,0.6851,3.4823,5.4421,6.2323,1.2848,2.5192,7.0163,5.7751,3.3688
2585.9375,34.0572,7.7097,4.2284,9.0675,8.0430,6.8411,-0.4041,3.8491,9.8724,30.9592,-0.0351,3.8855,7.0341,7.2888,5.3597,3.4663,9.3668,5.1851,3.8580
2589.8438,32.3580,6.5829,5.6844,10.2406,8.8357,9.9684,3.8409,4.5870,10.7197,30.1820,1.6738,5.1383,8.8571,8.0545,9.3770,6.2883,10.3300,5.5879,5.9513
2593.7500,29.1434,7.4656,8.5536,11.8930,9.7796,14.0145,8.5891,6.0320,12.0539,27.8875,4.9165,6.9971,10.5080,8.5066,12.0326,9.7703,10.1507,6.7700,9.1228
2597.6562,23.0023,9.1892,11.3043,13.0295,10.6817,15.6998,10.9316,6.9637,12.7347,22.5327,7.9321,8.8390,11.4784,8.7197,12.0093,12.0551,9.2313,8.1658,12.1703
2601.5625,13.5141,9.9512,12.3276,12.9349,11.2787,12.8392,9.2932,6.5793,11.9681,13.6554,9.3196,10.0673,11.4907,8.8389,9.0676,11.9463,7.9906,9.2435,13.8781
2605.4688,2.9363,8.6392,11.0201,11.6030,11.4165,6.0434,4.4686,5.0513,10.1037,3.3152,9.0437,10.4916,10.7337,9.0231,4.7462,9.8025,6.8598,9.7819,13.7358
2609.3750,-4.2108,5.6349,8.1922,9.6816,11.1494,-1.4097,-0.8320,3.4136,8.4917,-4.3789,8.3293,10.3320,9.7522,9.3295,1.7395,7.2757,6.2437,9.8273,12.1861
2613.2812,-3.8970,2.4883,5.4753,7.9787,10.6619,-5.5975,-3.6684,2.8412,8.3985,-5.7348,8.4543,9.8416,9.0209,9.5933,2.1043,6.0440,6.3444,9.4131,10.2206
2617.1875,4.2222,0.7551,4.1573,6.9057,10.0767,-4.5094,-2.6860,3.8346,9.8295,-0.2426,9.4366,8.9190,8.5331,9.4187,5.6075,6.5013,6.9546,8.3547,8.6415
2621.0938,15.7941,0.9311,4.3232,6.2761,9.3245,0.6821,1.1384,5.8931,11.2923,8.5913,9.8054,7.1278,7.7700,8.3651,9.6616,7.4490,7.4520,6.3761,7.5592
2625.0000,24.1265,2.2915,4.9401,5.5970,8.2088,6.5458,5.2814,7.9079,10.8450,15.2786,7.8096,4.1926,6.1422,6.2684,11.1395,7.0674,7.1184,3.5181,6.5002
2628.9062,24.5048,3.6764,4.7982,4.6037,6.6334,9.8128,7.4051,8.9765,7.7085,15.9938,3.1723,0.5732,3.5958,3.4919,8.7936,4.4402,5.6415,0.4711,5.0045
2632.8125,17.3887,4.5000,3.5566,3.5919,4.8071,9.5134,6.8287,9.0336,3.1699,11.2101,-2.0892,-2.4396,0.9000,0.8909,4.3626,0.4434,3.4566,-1.5440,3.2013
2636.7188,8.0758,5.1312,2.0685,3.2645,3.2402,7.3164,4.7757,8.8377,-0.0480,5.3295,-4.6475,-3.3383,-0.6728,-0.5610,1.3761,-2.7146,1.6390,-1.4044,1.8719
2640.6250,3.0018,6.3662,1.7269,4.1948,2.4972,5.9470,3.3233,9.3361,0.3863,3.5117,-2.1159,-1.3707,-0.1116,-0.2897,2.4909,-2.9775,1.3543,1.1549,1.9223
2644.5312,5.3562,8.5046,3.3365,6.3184,2.8649,6.9888,3.8762,10.8908,4.6957,8.0021,5.0563,2.8365,2.6403,1.5409,7.4260,0.1559,3.1857,5.2101,3.6692
2648.4375,13.1626,10.8622,6.3848,8.8528,4.1654,9.7484,6.2493,12.9370,10.6872,16.6179,13.5268,7.5193,6.5602,4.1042,13.1443,5.3383,6.7530,9.0637,6.4957
2652.3438,21.0545,12.1680,9.2818,10.7220,5.8396,11.9524,8.9287,14.3202,15.1365,24.3968,19.0126,10.7776,10.0904,6.3627,16.1398,10.3412,10.8526,11.1937,9.1564
2656.2500,24.1924,11.5272,10.4012,11.1861,7.2334,11.6048,10.2186,14.0598,15.8839,27.0448,18.9267,11.6529,11.9854,7.6073,14.9805,13.4804,14.0146,11.1169,10.5189
2660.1562,21.3006,9.1485,9.1611,10.2315,7.8879,8.5075,9.3974,12.0007,13.1337,23.5776,13.8567,10.5332,11.9010,7.7469,11.0568,14.4162,15.1478,9.5745,10.2101
2664.0625,14.7294,6.2262,6.3708,8.4770,7.6631,4.3139,7.0949,8.9183,9.0546,16.3469,6.9032,8.6445,10.3811,7.1988,6.9908,13.8330,13.9466,7.9220,8.7292
2667.9688,7.9156,4.0692,3.6249,6.7143,6.6771,1.1971,4.7276,6.0486,6.0577,8.7602,1.4544,7.0698,8.3422,6.5132,4.1401,12.4471,10.9260,7.1727,7.0034
2671.8750,2.5823,3.1824,2.2186,5.4490,5.1755,0.2580,3.4921,4.3913,5.0822,2.7233,-0.9503,6.0594,6.4849,6.0241,1.4113,10.3046,7.1572,7.3790,5.7559
2675.7812,-2.0353,3.0277,2.3666,4.7567,3.4582,0.8944,3.6492,4.2364,5.1428,-2.1733,-1.2189,5.1118,5.0361,5.7533,-3.5034,6.9982,3.8621,7.7624,5.1487
2679.6875,-7.5618,2.6148,3.2321,4.4784,1.8868,1.4987,4.5254,5.1515,4.3749,-7.3184,-1.5479,3.6634,3.9109,5.5639,-11.4617,2.5588,2.0024,7.4337,4.8952
2683.5938,-14.1516,1.3947,3.6647,4.5127,0.8817,0.8036,5.1098,6.3385,1.6814,-13.0150,-3.5607,1.7495,3.0441,5.3739,-20.1190,-1.8770,1.9480,6.1165,4.6659
2687.5000,-19.6742,-0.2931,3.0571,4.9202,0.8142,-1.2229,4.7450,7.0728,-2.3129,-17.6362,-7.1547,0.0709,2.5557,5.2284,-24.8328,-4.3889,3.3117,4.3287,4.4167
2691.4062,-21.2182,-1.5623,1.7131,5.7618,1.8018,-3.5474,3.4463,6.9741,-5.6822,-18.8062,-10.7572,-0.5709,2.6162,5.1921,-21.8405,-3.5131,5.0577,2.9248,4.3878
2695.3125,-17.6396,-1.7812,0.5242,6.8524,3.5425,-5.0225,1.7254,6.0438,-6.6035,-15.5999,-12.5728,0.0328,3.1736,5.1974,-11.3742,0.5079,5.9272,2.4069,4.8206
2699.2188,-10.9161,-1.1327,0.2604,7.6972,5.3434,-5.2624,0.1537,4.5574,-4.6435,-9.8188,-11.7823,1.2729,3.8283,5.0200,1.7892,5.5119,5.0564,2.5649,5.6578
2703.1250,-5.0218,-0.4575,1.0085,7.7197,6.3827,-4.7681,-0.9829,2.9239,-1.0058,-5.1043,-8.9006,2.1543,4.0102,4.4269,11.0057,8.5598,2.4805,2.7131,6.4801
2707.0312,-3.0986,-0.5256,2.1325,6.6314,6.0770,-4.3150,-1.7322,1.5556,2.3468,-4.4169,-5.2757,2.0224,3.3378,3.3669,11.8996,7.7262,-0.8109,2.2981,6.7170
2710.9375,-5.1393,-1.3585,2.7324,4.6534,4.3425,-4.2113,-2.2706,0.7345,3.9595,-7.7824,-2.2983,0.9875,1.8755,2.0249,5.0504,3.3078,-3.3772,1.3601,5.9627
2714.8438,-8.0328,-2.1764,2.2490,2.4017,1.6018,-4.0584,-2.6515,0.4916,3.6261,-12.0798,-0.8812,-0.2759,0.0831,0.6753,-4.6232,-2.3836,-4.1498,0.4706,4.1750
2718.7500,-7.9680,-2.0216,0.8104,0.5079,-1.4439,-3.1587,-2.6940,0.5713,2.1872,-13.1291,-1.3289,-1.1470,-1.5073,-0.5487,-11.2343,-6.4682,-3.0813,0.2058,1.6607
2722.6562,-3.3535,-0.5527,-0.8775,-0.7532,-4.1250,-1.1708,-2.0809,0.5530,0.7050,-8.6190,-3.3663,-1.5548,-2.6359,-1.7628,-11.5875,-7.1671,-1.1977,0.5959,-1.0883
2726.5625,3.9485,1.6208,-1.9934,-1.5677,-6.0226,1.5336,-0.5959,0.0971,-0.2912,0.1896,-6.1508,-1.9487,-3.4329,-3.2062,-6.6558,-4.6157,0.0048,1.0045,-3.5747
2730.4688,9.9305,3.3153,-2.1171,-2.3728,-7.0268,4.0491,1.6347,-0.8401,-0.9867,9.1298,-8.3928,-2.8101,-4.2453,-4.9697,-0.1801,-0.4526,-0.5467,0.5475,-5.4152
2734.3750,11.2163,3.5538,-1.4986,-3.5155,-7.2722,5.4449,4.0351,-1.9920,-1.9068,13.6374,-8.8271,-4.1603,-5.3265,-6.8006,4.2006,3.3080,-2.8714,-1.2643,-6.4081
2738.2812,7.2201,2.1551,-0.9348,-5.0358,-7.0334,5.1945,5.7001,-3.0011,-3.3898,11.3796,-6.9796,-5.4999,-6.6221,-8.1587,5.0552,5.2536,-5.9371,-4.1394,-6.5834
2742.1875,0.2224,-0.2642,-1.3245,-6.6958,-6.6268,3.2848,5.7437,-3.7069,-5.3144,3.3777,-3.7161,-6.2136,-7.7781,-8.5025,3.2095,4.8755,-8.2504,-7.1486,-6.2179
2746.0938,-6.4689,-2.7924,-3.1371,-8.1759,-6.3106,0.0717,3.7480,-4.2559,-7.1896,-6.8640,-0.9717,-6.0640,-8.3272,-7.6033,0.2185,2.3372,-8.6383,-9.2663,-5.7501
2750.0000,-10.7630,-4.7905,-6.0840,-9.2485,-6.1806,-3.8933,0.0791,-4.9159,-8.4357,-15.4231,-0.5747,-5.3284,-7.9102,-5.6661,-3.1298,-1.7734,-6.7674,-9.9106,-5.5736
2753.9062,-12.8394,-6.1094,-9.1887,-9.8090,-6.1084,-7.9390,-4.1619,-5.7332,-8.6300,-19.8691,-2.8774,-4.4670,-6.4163,-3.1907,-7.0060,-6.4028,-3.1785,-9.1325,-5.7975
2757.8125,-14.4764,-6.8950,-11.2471,-9.7988,-5.7963,-11.3264,-7.6103,-6.3433,-7.6337,-20.0462,-6.2638,-3.6427,-4.0195,-0.7045,-11.5031,-9.9140,1.0674,-7.4063,-6.1401
2761.7188,-17.3989,-7.2533,-11.4421,-9.1556,-4.9697,-13.4066,-9.3176,-6.1596,-5.6418,-17.6010,-8.0986,-2.5482,-1.1466,1.4299,-15.5783,-10.3820,4.8576,-5.2629,-6.0724
2765.6250,-21.9261,-7.1136,-9.7665,-7.8752,-3.6093,-13.8786,-9.2346,-4.8644,-3.1891,-14.8018,-6.5797,-0.7262,1.6101,3.0262,-17.1461,-6.5010,7.3797,-3.0671,-5.1517
2769.5312,-26.7692,-6.3891,-6.9973,-6.1325,-2.0529,-12.9654,-8.1644,-2.8326,-1.0479,-13.3696,-2.1409,1.8860,3.6505,3.9734,-14.4151,1.3457,8.2893,-1.0484,-3.3324
2773.4375,-29.9300,-5.2490,-4.2347,-4.3177,-0.8511,-11.3304,-7.1819,-1.1007,0.0437,-13.8260,2.7372,4.6786,4.5882,4.1767,-7.4131,10.7046,7.7347,0.5434,-1.0312
2777.3438,-30.0034,-4.2230,-2.3030,-2.8962,-0.4324,-9.7641,-6.9062,-0.7922,-0.2596,-15.5379,5.2704,6.6459,4.4428,3.6256,1.5809,17.9243,6.2816,1.3812,1.1038
2781.2500,-27.1262,-4.0217,-1.4021,-2.1519,-0.8011,-8.8839,-7.1474,-2.3409,-1.7128,-17.3636,4.3733,7.0313,3.6594,2.5172,9.1227,19.9840,4.7243,1.1939,2.5569
2785.1562,-23.1473,-5.1965,-1.2198,-2.0010,-1.4960,-9.0708,-7.2010,-5.0634,-3.6582,-18.5724,1.3462,5.8351,2.8789,1.2773,12.4562,16.1919,3.7806,-0.0146,3.1842
2789.0625,-20.9700,-7.8730,-1.3713,-2.0321,-1.8694,-10.6158,-6.5733,-7.4461,-5.5216,-19.5249,-1.3342,3.7735,2.5594,0.3935,10.8404,8.6052,3.7655,-1.8671,3.1823
2792.9688,-23.2711,-11.6960,-1.7881,-1.7700,-1.5052,-13.7975,-5.5612,-8.0234,-7.2531,-21.6020,-2.1699,1.7283,2.6945,0.1456,5.5414,0.8187,4.4268,-3.7480,2.8545
2796.8750,-31.0233,-15.9526,-2.7323,-0.9892,-0.4813,-18.6469,-5.1834,-6.2927,-9.3072,-26.2334,-1.9771,0.1352,2.8455,0.4370,-1.2840,-4.1271,5.0865,-5.0940,2.3843
2800.7812,-42.4985,-19.7614,-4.4331,0.1341,0.7067,-24.5071,-6.4419,-3.0565,-12.0979,-33.5240,-3.2468,-1.2045,2.4882,0.8689,-7.8666,-5.3585,5.0388,-5.6501,1.7808
2804.6875,-53.4998,-22.2723,-6.6794,1.1197,1.4898,-29.8398,-9.4423,0.0454,-15.3499,-41.4673,-7.9799,-2.7836,1.4212,1.0135,-13.4194,-4.2988,3.9614,-5.5417,0.9869
2808.5938,-59.1354,-22.9049,-8.7717,1.4417,1.5688,-32.7016,-13.0678,1.4979,-17.9651,-46.5860,-15.7435,-4.8557,-0.0845,0.6734,-17.9059,-3.3583,2.0597,-5.1655,-0.0065
2812.5000,-56.5101,-21.6276,-9.9491,0.7654,1.0013,-31.8129,-15.5392,0.7360,-18.6794,-45.9301,-23.6025,-7.1875,-1.5261,-0.0685,-21.4790,-4.1963,-0.1438,-5.0135,-1.1702
2816.4062,-46.8036,-19.1358,-9.9905,-0.9653,0.0028,-27.5448,-15.5312,-1.6789,-17.1196,-39.2488,-28.1037,-9.2873,-2.6086,-1.0232,-24.1502,-6.7607,-2.1897,-5.5294,-2.5470
2820.3125,-35.1487,-16.7011,-9.4835,-3.5748,-1.3300,-21.9904,-13.0711,-4.5734,-14.4100,-29.7170,-27.8052,-10.8577,-3.5103,-2.1077,-25.8281,-9.6429,-3.9188,-7.0015,-4.3030
2824.2188,-27.8921,-15.5905,-9.4659,-6.7333,-3.1092,-17.8264,-9.5609,-6.9459,-12.6852,-22.3619,-24.3245,-12.0143,-4.7231,-3.3817,-26.4412,-11.2998,-5.3844,-9.4404,-6.5966
2828.1250,-28.6228,-16.2795,-10.6358,-9.9889,-5.4642,-16.5881,-6.8786,-8.4687,-13.6610,-20.9297,-21.0065,-13.0410,-6.5703,-4.8607,-25.8675,-11.1441,-6.5562,-12.4455,-9.3233
2832.0312,-35.5182,-17.9562,-12.7118,-12.7795,-8.2412,-17.5528,-6.1741,-9.4173,-17.2247,-25.2244,-20.2106,-13.9028,-8.7976,-6.2913,-23.7493,-9.7397,-7.1316,-15.1776,-11.9669
2835.9375,-42.0262,-18.7643,-14.4670,-14.5173,-10.8795,-18.1294,-7.1873,-10.1802,-21.1523,-30.8798,-21.3647,-14.0087,-10.6137,-7.1431,-19.5488,-8.1059,-6.6850,-16.5753,-13.7533
2839.8438,-40.7867,-16.7911,-14.4827,-14.7836,-12.6233,-15.6123,-8.5267,-10.7820,-22.3283,-31.9659,-21.3782,-12.5397,-11.2056,-6.9080,-13.0421,-6.8018,-5.0766,-15.8171,-14.0760
2843.7500,-28.3928,-11.2645,-12.1039,-13.5443,-12.9496,-9.1135,-8.6568,-10.7930,-18.7459,-24.8227,-17.1576,-9.1576,-10.3526,-5.5166,-4.9573,-5.5371,-2.7653,-12.8046,-12.9029
2847.6562,-7.8078,-3.1801,-7.8999,-11.2199,-11.8916,-0.2838,-6.8699,-9.6696,-10.9099,-10.5382,-8.2806,-4.5207,-8.6376,-3.5283,2.8685,-3.5550,-0.6911,-8.3359,-10.8323
2851.5625,13.2843,5.1118,-3.2837,-8.5088,-10.0027,7.7342,-3.6013,-7.2404,-1.6199,5.6562,2.2866,-0.1087,-7.0485,-1.8798,8.2092,-0.4079,0.2729,-3.7730,-8.7059
2855.4688,27.1501,11.1543,0.4288,-6.0366,-7.9747,12.3830,0.0259,-3.9580,5.7607,17.6742,10.0545,2.6162,-6.2434,-1.3130,9.7472,3.5214,-0.0790,-0.3451,-7.0378
2859.3750,30.5626,13.6882,2.8153,-4.0548,-6.1992,13.2978,2.9872,-0.7243,9.3551,22.2805,12.0948,3.1388,-6.0527,-1.8770,8.0591,7.1397,-1.1176,1.4903,-5.6965
2863.2812,26.2332,13.1945,4.4233,-2.3940,-4.5990,12.3107,4.8789,1.5944,9.7318,20.7257,9.0518,2.2120,-5.6276,-2.8810,5.4691,9.2850,-1.8232,2.2003,-4.1030
2867.1875,20.3768,11.3880,6.1202,-0.7013,-2.8404,11.9318,5.8839,2.6381,9.1749,17.3715,4.6190,1.3099,-4.1472,-3.3567,4.7125,9.4132,-1.5407,2.7416,-1.8099
2871.0938,18.3772,10.0842,8.2734,1.2247,-0.7268,13.5187,6.3657,2.7145,9.8973,16.5184,2.9313,1.6081,-1.5356,-2.7050,7.2453,7.8899,-0.4619,3.8494,1.0009
2875.0000,21.6761,10.2352,10.4289,3.2558,1.5599,16.5151,6.5232,2.5664,12.5389,19.7763,5.8230,3.2485,1.3910,-1.0584,12.3424,5.7654,0.5668,5.5630,3.5232
2878.9062,27.8287,11.7056,11.7264,5.0415,3.5681,19.2348,6.3862,2.9067,15.9783,25.6711,11.8743,5.4086,3.4954,0.8925,17.5850,4.2315,0.7921,7.3172,4.8742
2882.8125,33.1681,13.7586,11.6802,6.3021,4.9337,20.4323,6.0567,4.0036,18.4327,31.3559,17.7250,7.0630,4.1841,2.4508,20.3520,4.0672,0.2762,8.4917,4.7828
2886.7188,35.6786,15.7220,10.6553,7.0617,5.6726,20.3127,5.8616,5.5469,18.8719,34.7849,20.4751,7.7955,3.8887,3.4033,19.2756,5.2936,-0.0046,8.9620,3.8764
2890.6250,35.8539,17.2843,9.6283,7.6304,6.1529,20.1586,6.1756,6.8517,17.6439,35.6392,19.3686,8.0199,3.7637,4.0779,14.7625,7.1276,1.1755,9.2055,3.3053
2894.5312,35.2158,18.2889,9.4140,8.3493,6.7592,20.9303,7.0219,7.2703,15.9394,34.5787,15.7429,8.4807,4.8019,4.9511,8.4508,8.2577,4.3209,9.8757,3.9500
2898.4375,34.1554,18.3755,9.9859,9.3025,7.5199,22.0713,7.8204,6.5749,14.6767,31.8766,11.6495,9.4975,7.0283,6.1473,2.2113,7.4189,8.6623,11.1920,5.7795
2902.3438,31.1987,16.9364,10.4516,10.2150,8.0065,21.6076,7.5907,5.0924,13.7892,26.9125,8.4372,10.6106,9.3888,7.2461,-2.5614,4.1229,12.4657,12.6419,7.8304
2906.2500,24.4229,13.5354,9.7147,10.6060,7.5957,17.5864,5.5618,3.5062,12.4729,19.0760,6.3302,10.9242,10.4344,7.5493,-5.0817,-0.7962,14.0239,13.2540,8.8218
2910.1562,13.7715,8.4674,7.3094,10.0667,5.8995,9.7927,1.7769,2.4312,10.0961,9.2119,4.9957,9.8506,9.3067,6.5921,-5.0209,-5.2457,12.6599,12.2478,7.9631
2914.0625,2.1323,2.9297,3.7568,8.4605,3.0455,0.3909,-2.7669,2.0136,6.9239,0.0989,4.2661,7.6197,6.3155,4.4884,-2.4981,-6.7579,9.0724,9.5712,5.3966
2917.9688,-6.0115,-1.4642,0.1789,5.9330,-0.3823,-7.0969,-6.5951,1.8190,4.0015,-4.8255,4.2250,5.1186,2.7121,1.8544,1.7040,-3.9005,4.8347,5.9246,2.0140
2921.8750,-7.5494,-3.5858,-2.5097,2.7837,-3.6672,-9.8515,-8.5565,1.1154,2.2835,-3.7798,4.6476,3.1807,-0.1466,-0.6119,6.0596,2.5699,1.4418,2.2630,-1.1585
2925.7812,-3.1284,-3.5043,-4.2032,-0.6572,-6.2939,-7.4812,-8.4261,-0.5995,1.7499,1.7406,4.5136,1.9030,-1.6334,-2.5523,8.7371,9.6500,-0.4414,-0.8349,-3.5416
2929.6875,2.9072,-2.5004,-5.5635,-4.0628,-8.0776,-2.2873,-6.9379,-3.1732,1.2665,7.4236,2.2957,0.5494,-2.1228,-4.0655,8.4733,13.4161,-1.1018,-3.4640,-5.1837
2933.5938,5.0877,-2.3437,-7.4244,-7.0941,-9.0744,2.0382,-5.2756,-5.7948,-0.6536,8.5758,-3.0022,-1.8703,-2.5870,-5.4766,5.2814,11.1350,-1.3294,-6.1641,-6.5221
2937.5000,0.1383,-4.2943,-10.1416,-9.4412,-9.4282,2.3874,-4.3951,-7.4757,-4.7589,2.9527,-10.8486,-5.7873,-3.8753,-6.9960,0.3654,2.9344,-1.8183,-9.3803,-7.9950
2941.4062,-11.1745,-8.4412,-13.3740,-10.9560,-9.3108,-2.3023,-4.5974,-7.7229,-10.4511,-7.9098,-19.1055,-10.6399,-6.1949,-8.5530,-4.7908,-8.0562,-2.8298,-13.0412,-9.8003
2945.3125,-24.7140,-13.7169,-16.3828,-11.7755,-8.9591,-10.7824,-5.5343,-6.9337,-16.0790,-19.6817,-25.0450,-15.1221,-9.0814,-9.9009,-9.4574,-17.2889,-4.2316,-16.5540,-11.8867
2949.2188,-35.4158,-18.4760,-18.5217,-12.2789,-8.6797,-20.2818,-6.5245,-6.1847,-19.8623,-27.7507,-26.7635,-17.9016,-11.7570,-10.8430,-13.9075,-21.2075,-5.7178,-19.1728,-14.0445
2953.1250,-39.7339,-21.2289,-19.4935,-12.8280,-8.7135,-27.7022,-6.9171,-6.5024,-20.7653,-29.5453,-23.9973,-18.2848,-13.5446,-11.3464,-18.5958,-19.0374,-6.9637,-20.4213,-15.9345
