Time,Fp1,F3,C3,P3,O1,F7,T3,T5,Fz,Fp2,F4,C4,P4,O2,F8,T4,T6,Cz,Pz
0.0000,-1.7906,2.1695,-0.2177,-0.0630,-1.2474,-1.3508,-0.1794,0.1147,-0.0575,0.4493,-0.5643,0.0686,0.0148,-1.2722,-2.7550,0.7689,1.2142,0.8248,-0.9947
3.9062,-0.5682,-2.5259,-0.0244,0.0352,-1.3696,-0.4818,-0.0688,0.2046,-0.7029,-0.6597,-0.4235,-0.6229,0.2327,-0.6504,-1.2919,0.5449,1.9594,0.3428,-0.8555
7.8125,0.6124,-8.5638,-0.6044,-0.1730,-1.6532,0.4769,0.0058,0.1884,-1.6086,-1.6886,-0.3726,-1.5322,0.1175,0.0712,1.3976,0.0514,2.4783,-0.6882,-0.9350
11.7188,1.0762,-13.8132,-2.3869,-1.0266,-2.1827,0.9417,-0.3594,-0.2777,-2.6652,-2.4633,-0.6575,-2.5905,-0.6170,0.4493,4.5615,-0.3559,2.2355,-2.3315,-1.5786
15.6250,0.5224,-16.0958,-5.0802,-2.5737,-2.8487,0.6752,-1.3655,-1.3710,-3.6665,-3.0027,-1.3425,-3.5700,-1.9429,0.1848,7.0503,-0.1414,1.0171,-4.2963,-2.8179
19.5312,-0.6869,-14.3811,-7.6561,-4.4029,-3.3172,0.0937,-2.8109,-2.8864,-4.3632,-3.3992,-2.2233,-4.1071,-3.4469,-0.6204,7.8461,1.0734,-0.8777,-5.9587,-4.2401
23.4375,-1.6751,-9.4233,-8.8832,-5.7697,-3.1891,0.0886,-4.1835,-4.2626,-4.5541,-3.6303,-2.9262,-3.8726,-4.5163,-1.4660,6.5573,3.1626,-2.7652,-6.6322,-5.1805
27.3438,-1.5828,-3.4347,-8.1032,-6.0011,-2.2883,1.3985,-5.0020,-4.8890,-4.1805,-3.4827,-3.1296,-2.8162,-4.6917,-1.7606,3.6325,5.3845,-3.9685,-5.9686,-5.1427
31.2500,-0.1398,1.0287,-5.7227,-4.9490,-0.8864,3.9517,-5.1559,-4.5224,-3.3852,-2.6858,-2.7523,-1.3160,-3.9663,-1.2516,0.2000,6.6420,-4.2300,-4.2468,-4.1566
35.1562,2.1185,2.3267,-3.0440,-3.1793,0.3298,6.6993,-4.9722,-3.5241,-2.4985,-1.1754,-1.9806,-0.0868,-2.8290,-0.2762,-2.3836,6.0238,-3.8774,-2.3345,-2.8027
39.0625,4.1547,0.4389,-1.5030,-1.7221,0.5902,8.1614,-4.9359,-2.7140,-1.9399,0.7217,-1.1331,0.1539,-2.0075,0.3781,-3.0750,3.3380,-3.6262,-1.2844,-1.8598
42.9688,5.0579,-3.2162,-1.8034,-1.4879,-0.4937,7.3893,-5.2645,-2.8865,-2.0562,2.3491,-0.4790,-0.9127,-2.0605,-0.0480,-1.5572,-0.6867,-4.1380,-1.7669,-1.8071
46.8750,4.5750,-6.6548,-3.5213,-2.6978,-2.6252,4.6910,-5.6706,-4.2793,-2.9538,3.0250,-0.1436,-2.9870,-3.0662,-1.7613,1.6307,-4.6772,-5.6067,-3.6674,-2.5282
50.7812,3.2011,-8.3486,-5.4370,-4.6980,-4.9040,1.5680,-5.5194,-6.3488,-4.4015,2.4046,-0.1428,-5.2659,-4.5902,-4.2015,5.3031,-7.2425,-7.6224,-6.1033,-3.4230
54.6875,1.7981,-7.8504,-6.3464,-6.3045,-6.2810,-0.1605,-4.2948,-8.0290,-5.8688,0.6669,-0.4711,-6.8377,-5.9362,-6.3002,8.1066,-7.6099,-9.3826,-7.8709,-3.8377
58.5938,1.0346,-5.7838,-5.7904,-6.4815,-6.1245,0.5129,-2.0406,-8.3364,-6.7153,-1.5826,-1.1287,-7.1221,-6.5133,-7.0668,9.0851,-5.9336,-10.1089,-8.0680,-3.4989
62.5000,1.0347,-3.3245,-4.2250,-4.9396,-4.5527,3.1679,0.5529,-6.9476,-6.4676,-3.6134,-2.0490,-6.0999,-6.1028,-6.1367,8.0837,-3.1324,-9.4201,-6.5344,-2.6473
66.4062,1.4346,-1.5247,-2.5780,-2.2852,-2.3299,6.2713,2.4943,-4.3880,-5.0607,-4.8761,-3.0067,-4.2251,-4.8972,-3.9417,5.7867,-0.3897,-7.4696,-3.8671,-1.8016
70.3125,1.7374,-0.8356,-1.5661,0.3573,-0.4045,8.1851,3.0361,-1.7177,-2.9131,-5.1539,-3.6334,-2.1249,-3.3354,-1.4181,3.3422,1.3816,-4.8163,-1.0382,-1.3610
74.2188,1.6648,-1.0149,-1.2784,1.9926,0.6087,8.1451,2.0510,0.0758,-0.7727,-4.5377,-3.5945,-0.3096,-1.8718,0.5374,1.7468,1.8357,-2.1504,1.1215,-1.3568
78.1250,1.2617,-1.3994,-1.2846,2.2605,0.6839,6.5387,0.0129,0.5912,0.6140,-3.3234,-2.8275,0.9375,-0.8129,1.5084,1.3257,1.1551,-0.0435,2.2582,-1.5204
82.0312,0.7418,-1.3674,-1.1116,1.5071,0.2549,4.3614,-2.3495,0.1300,0.8490,-1.9325,-1.6576,1.4873,-0.2788,1.6466,1.6106,-0.2136,1.1750,2.4883,-1.5754
85.9375,0.2723,-0.7488,-0.6735,0.4347,-0.1554,2.3493,-4.4399,-0.6131,0.0647,-0.8633,-0.6596,1.2527,-0.2454,1.4191,1.7031,-1.8400,1.4170,2.1302,-1.4876
89.8438,-0.0946,0.0268,-0.3164,-0.3914,-0.2686,0.5055,-5.9574,-1.0411,-1.1630,-0.5989,-0.3193,0.1852,-0.5996,1.2411,0.9034,-3.4499,0.7859,1.4187,-1.4588
93.7500,-0.3056,0.1381,-0.4740,-0.8404,-0.1331,-1.6198,-6.7959,-0.9962,-2.1232,-1.4168,-0.7128,-1.5974,-1.1631,1.2614,-0.7884,-4.8979,-0.4619,0.4124,-1.6817
97.6562,-0.1599,-1.1483,-1.2407,-1.1539,0.0477,-4.1722,-6.8630,-0.7573,-2.3276,-3.1670,-1.4335,-3.6783,-1.7063,1.4052,-2.6235,-6.0567,-1.9392,-0.8710,-2.0766
101.5625,0.6681,-3.9700,-2.2159,-1.6279,0.1595,-6.4505,-6.0440,-0.7486,-1.7159,-5.1856,-1.8343,-5.3703,-1.9872,1.5766,-3.5436,-6.7356,-3.1786,-2.2472,-2.2545
105.4688,2.3953,-7.6316,-2.7426,-2.3038,0.2889,-7.1233,-4.3634,-1.1986,-0.6044,-6.4905,-1.4263,-5.9631,-1.8279,1.8177,-2.8224,-6.6884,-3.7439,-3.2960,-1.7611
109.3750,4.8467,-10.8155,-2.3466,-2.8939,0.6303,-5.1410,-2.1788,-1.9836,0.5654,-6.2315,-0.1633,-5.0725,-1.1921,2.2933,-0.4974,-5.6996,-3.3843,-3.5244,-0.4249
113.2812,7.3744,-12.1733,-1.0417,-2.9740,1.2924,-0.6859,-0.1764,-2.7336,1.5053,-4.1640,1.5719,-2.8741,-0.2118,3.1314,2.6716,-3.6976,-2.1543,-2.6701,1.4658
117.1875,9.1018,-10.9884,0.7085,-2.2808,2.1809,4.5989,0.9109,-3.0886,2.2050,-0.8466,3.2415,-0.0581,0.8656,4.2714,5.6566,-0.8448,-0.4230,-0.9240,3.3012
121.0938,9.3729,-7.5394,2.3055,-0.8985,3.0533,8.3823,0.6941,-2.9149,2.8428,2.6017,4.4651,2.4816,1.7798,5.4542,7.7061,2.4321,1.2539,1.1019,4.5080
125.0000,8.1197,-2.9577,3.3409,0.7786,3.6897,8.9672,-0.6591,-2.3507,3.5674,5.0665,5.1478,4.0443,2.3526,6.3624,8.6287,5.4927,2.3493,2.6670,4.8652
128.9062,5.8998,1.3235,3.7018,2.2513,4.0259,6.2952,-2.5621,-1.6907,4.3229,5.9888,5.3703,4.3818,2.5268,6.7926,8.6824,7.6256,2.5671,3.2763,4.5579
132.8125,3.5805,4.1944,3.4370,3.1330,4.1347,1.9561,-4.3965,-1.2216,4.8431,5.5578,5.1869,3.7032,2.3432,6.7235,8.2222,8.2602,1.9363,2.9021,3.9573
136.7188,1.8852,5.2209,2.5676,3.2471,4.0780,-1.7955,-5.8508,-1.1236,4.8136,4.4368,4.5400,2.4743,1.8871,6.2397,7.4067,7.1773,0.7599,1.9210,3.3199
140.6250,1.0880,4.5884,1.0467,2.5911,3.7700,-3.3535,-6.9541,-1.4679,4.0778,3.2287,3.3746,1.1628,1.2410,5.3929,6.1722,4.6147,-0.5495,0.8262,2.6402
144.5312,1.0165,2.7759,-1.0892,1.2532,2.9894,-2.5620,-7.8083,-2.2604,2.7417,2.0671,1.8367,0.0736,0.4610,4.1378,4.4475,1.1936,-1.6606,-0.0836,1.7490
148.4375,1.2947,0.2457,-3.5332,-0.6209,1.5541,-0.5592,-8.2836,-3.4558,1.1147,0.6294,0.3444,-0.6860,-0.4243,2.4064,2.3948,-2.3205,-2.4468,-0.8339,0.5455
152.3438,1.6158,-2.6432,-5.6894,-2.7890,-0.4662,1.1149,-7.9812,-4.9206,-0.4478,-1.4328,-0.5874,-1.1552,-1.3980,0.2662,0.4588,-5.2969,-2.9848,-1.6541,-0.8412
156.2500,1.8634,-5.5113,-6.8940,-4.8651,-2.6703,1.4817,-6.5417,-6.3867,-1.6752,-3.9622,-0.6664,-1.4524,-2.4202,-1.9761,-0.8187,-7.4016,-3.4360,-2.7092,-2.0893
160.1562,2.0518,-7.8182,-6.7372,-6.3562,-4.4603,0.5499,-4.0684,-7.4654,-2.4004,-6.0853,-0.0357,-1.7137,-3.3776,-3.8288,-1.0696,-8.5524,-3.8803,-3.8810,-2.8701
164.0625,2.2004,-8.9056,-5.2548,-6.8108,-5.3217,-0.9501,-1.2937,-7.7559,-2.4937,-6.5501,0.8177,-2.0254,-4.0477,-4.8199,-0.2512,-8.7303,-4.2061,-4.7533,-3.0202
167.9688,2.2791,-8.2649,-2.8581,-6.0194,-5.0733,-2.1907,0.7128,-7.0085,-1.8185,-4.4723,1.4260,-2.3440,-4.1257,-4.7304,1.4104,-7.8205,-4.1351,-4.8174,-2.5711
171.8750,2.2653,-5.8703,-0.0787,-4.1499,-3.9415,-2.7355,1.1474,-5.2631,-0.2940,-0.0404,1.7099,-2.4518,-3.3485,-3.7134,3.5939,-5.6465,-3.3884,-3.7695,-1.6508
175.7812,2.2368,-2.3407,2.6563,-1.7297,-2.4286,-2.6089,-0.0239,-2.8843,1.9606,5.3101,2.0572,-2.0180,-1.6809,-2.2293,6.0000,-2.2095,-1.9079,-1.7190,-0.3830
179.6875,2.3909,1.2208,5.0550,0.5328,-1.0746,-2.0379,-2.0254,-0.4679,4.5291,9.4583,3.0202,-0.7841,0.5454,-0.8405,8.3199,2.0337,0.0068,0.8176,1.1035
183.5938,2.9454,3.6643,6.8340,2.0057,-0.2537,-1.1769,-3.7347,1.3491,6.7785,10.6533,4.8379,1.2073,2.6644,0.0161,10.1344,6.0997,1.7566,3.1315,2.5800
187.5000,3.9839,4.2995,7.6283,2.3580,-0.0880,-0.0538,-4.3282,2.1038,8.1246,8.4884,7.1464,3.5014,3.9249,0.1725,10.9175,8.7560,2.6981,4.6277,3.6730
191.4062,5.3588,3.2155,7.1125,1.6631,-0.4750,1.2815,-3.6655,1.6730,8.3367,4.2074,9.1183,5.3582,3.8590,-0.2535,10.2544,9.0589,2.4712,5.0628,3.9919
195.3125,6.7256,1.2525,5.3037,0.3512,-1.1660,2.6187,-2.1874,0.3282,7.6697,0.1173,9.9627,6.0992,2.5600,-0.9454,8.1760,6.8628,1.2080,4.6075,3.3956
199.2188,7.6945,-0.3779,2.7995,-0.9583,-1.8468,3.6453,-0.4688,-1.3479,6.7076,-1.6075,9.4409,5.4909,0.6828,-1.5244,5.3591,2.9862,-0.5117,3.7219,2.2050
203.1250,8.0112,-0.6647,0.6834,-1.6834,-2.2143,4.1801,1.1879,-2.6687,6.0015,-0.0690,8.0336,3.9233,-0.8672,-1.6849,2.9664,-1.1003,-1.9443,2.9284,1.1506
207.0312,7.6755,0.6935,0.0415,-1.4857,-2.0598,4.3679,2.8105,-3.1106,5.7461,3.9110,6.6395,2.2481,-1.3914,-1.2958,2.1274,-3.9205,-2.5414,2.5983,1.0116
210.9375,6.9443,3.0946,1.3427,-0.3882,-1.3475,4.6262,4.4735,-2.5295,5.7208,8.2907,6.0187,1.3445,-0.7304,-0.4357,3.3301,-4.6334,-2.1754,2.8419,2.1420
214.8438,6.2259,5.2915,4.0944,1.2441,-0.2430,5.3280,5.9747,-1.2212,5.5386,10.9462,6.3656,1.6571,0.7231,0.6563,6.1040,-3.3355,-1.1132,3.5264,4.2039
218.7500,5.9029,6.0270,7.0459,2.8587,0.9504,6.4397,6.8042,0.2229,5.0132,10.7726,7.2802,2.9722,2.3166,1.7056,9.2240,-0.8937,0.2112,4.3784,6.3155
222.6562,6.1472,4.7468,8.8581,3.9461,1.9337,7.4067,6.4834,1.2073,4.3556,8.1293,8.1117,4.5530,3.5268,2.5453,11.3419,1.5571,1.4473,5.1029,7.5494
226.5625,6.8062,1.9861,8.8328,4.2452,2.5561,7.4260,5.0163,1.4279,4.0369,4.4390,8.3916,5.5418,4.1892,3.1950,11.6788,3.1556,2.4344,5.4683,7.4663
230.4688,7.4372,-0.8514,7.2460,3.8311,2.8680,5.9678,3.0661,1.0100,4.4028,1.2732,8.0538,5.3923,4.4482,3.8131,10.3697,3.6205,3.1289,5.3453,6.3426
234.3750,7.5174,-2.2754,5.0910,3.0478,3.0508,3.2102,1.6529,0.4151,5.3342,-0.4664,7.3340,4.1051,4.5222,4.5473,8.2803,3.2191,3.4675,4.7231,4.9540
238.2812,6.7579,-1.6319,3.4302,2.3327,3.2788,0.0791,1.5339,0.1715,6.2304,-0.8018,6.4984,2.1770,4.4963,5.3835,6.4430,2.4909,3.3240,3.7230,4.0800
242.1875,5.3467,0.4076,2.7917,2.0263,3.6172,-2.1797,2.6926,0.5882,6.3619,-0.3275,5.6499,0.3357,4.3052,6.1106,5.4824,1.9239,2.6235,2.6019,4.0636
246.0938,3.9322,2.1595,2.9783,2.2569,4.0199,-2.6734,4.3085,1.6085,5.3604,0.3759,4.7519,-0.7793,3.8882,6.4434,5.3605,1.7517,1.5141,1.7090,4.6943
250.0000,3.2881,1.9237,3.3428,2.9262,4.4035,-1.3929,5.2524,2.8663,3.4917,1.0973,3.7972,-0.8476,3.3407,6.2209,5.5404,1.9280,0.4140,1.3687,5.4342
253.9062,3.8117,-0.9217,3.2763,3.7675,4.7065,0.7208,4.7754,3.8816,1.5041,1.9034,2.9244,0.0510,2.8964,5.5298,5.3975,2.2231,-0.1732,1.7136,5.7811
257.8125,5.1711,-5.4250,2.5568,4.4273,4.8700,2.2375,2.9342,4.2649,0.1469,2.7742,2.3459,1.4925,2.7290,4.6500,4.5900,2.3515,0.0107,2.5521,5.5091
261.7188,6.3787,-9.5159,1.3761,4.5503,4.7703,1.9972,0.4907,3.8330,-0.3012,3.3518,2.1420,2.8631,2.7456,3.8512,3.1847,2.0733,0.7399,3.3784,4.6720
265.6250,6.3232,-11.1575,0.1191,3.8819,4.2063,-0.2331,-1.6018,2.6258,-0.1577,3.0734,2.1181,3.5709,2.5837,3.2039,1.5309,1.2675,1.3793,3.5753,3.4553
269.5312,4.4740,-9.4960,-0.8738,2.3964,3.0257,-3.5634,-2.7393,0.8815,-0.0309,1.6117,1.8880,3.2714,1.8791,2.5672,0.0333,-0.0004,1.2857,2.7424,2.0553
273.4375,1.3157,-5.3083,-1.3916,0.4086,1.3476,-6.3632,-2.8716,-0.9785,-0.3167,-0.7384,1.1609,2.0383,0.6348,1.7905,-1.0116,-1.4229,0.2926,0.9801,0.6911
277.3438,-1.8014,-0.5184,-1.3019,-1.4232,-0.2865,-7.0409,-2.2935,-2.3747,-0.8752,-3.0769,0.0208,0.3898,-0.6032,0.9803,-1.4494,-2.4621,-1.0668,-1.0599,-0.3094
281.2500,-3.3535,2.8654,-0.5100,-2.2806,-1.0127,-4.8319,-1.2587,-2.6741,-1.1324,-4.3719,-1.0400,-0.8834,-0.9595,0.6025,-1.2303,-2.4949,-1.8049,-2.4378,-0.5066
285.1562,-2.4844,3.7175,0.9587,-1.5364,-0.0324,-0.1993,0.2316,-1.4173,-0.5372,-4.0810,-1.3998,-1.0611,0.2405,1.2805,-0.3952,-1.0965,-1.0852,-2.4041,0.4718
289.0625,0.5012,2.1448,2.8052,0.8756,2.8927,5.3426,2.2887,1.3968,0.9565,-2.4889,-0.7320,0.1338,2.9486,3.3682,0.8810,1.6453,1.1837,-0.8456,2.6405
292.9688,4.2766,-0.8442,4.4082,4.2885,7.1420,9.8776,4.7732,5.1367,2.7361,-0.5249,0.7162,2.3197,6.2447,6.5714,2.2434,4.9724,4.1611,1.5599,5.4613
296.8750,7.1625,-3.9966,5.0183,7.4771,11.3682,11.8733,7.0436,8.6401,3.8229,0.7985,2.1933,4.5385,8.7011,9.8991,3.1976,7.6200,6.4434,3.5986,7.9301
300.7812,7.9302,-6.3553,4.1386,9.1477,14.0456,10.7313,8.0883,10.6273,3.4198,0.9339,2.8268,5.6314,9.0765,12.0411,3.2709,8.3111,6.7822,4.0774,8.9627
304.6875,6.3061,-7.4663,1.8514,8.5168,14.1585,6.8918,7.0307,10.2604,1.3591,-0.0183,2.0809,4.7499,6.9369,11.9908,2.2272,6.3797,4.7267,2.4003,7.8908
308.5938,2.9756,-7.3448,-1.1612,5.6797,11.6566,1.5307,3.7041,7.5587,-1.8237,-1.5453,0.0108,1.7601,2.8524,9.5625,0.2078,2.1873,0.8249,-1.1333,4.7936
312.5000,-0.8231,-6.4004,-3.9598,1.5700,7.4382,-3.9310,-1.0933,3.4258,-5.1997,-3.1296,-2.8103,-2.6558,-1.9113,5.5048,-2.2964,-2.9446,-3.6917,-5.4623,0.4818
316.4062,-3.8460,-5.3919,-5.8474,-2.4685,2.9025,-8.2639,-5.8656,-0.7479,-7.9134,-4.5087,-5.6060,-7.2562,-5.9875,1.1525,-4.6345,-7.3096,-7.5044,-9.2494,-3.8438
320.3125,-5.2798,-5.2879,-6.6949,-5.2656,-0.6579,-10.6833,-9.0755,-3.7010,-9.5226,-5.6477,-7.7416,-10.7348,-8.4432,-2.1748,-6.2449,-9.6153,-9.7287,-11.4679,-7.0652
324.2188,-4.9532,-6.8912,-6.8821,-6.2703,-2.5052,-10.9316,-9.8169,-4.8110,-10.0571,-6.5482,-8.9190,-12.2307,-9.0082,-3.6987,-6.8364,-9.5609,-10.1204,-11.8012,-8.5219
328.1250,-3.3244,-10.3131,-6.9234,-5.6646,-2.5790,-9.2586,-8.1330,-4.2496,-9.8481,-7.1323,-9.1794,-11.6296,-7.9848,-3.3902,-6.4346,-7.8618,-8.9718,-10.6903,-8.1545
332.0312,-1.2875,-14.6433,-7.0739,-4.1517,-1.3409,-6.3407,-4.8570,-2.7557,-9.2986,-7.3242,-8.7867,-9.5432,-6.0002,-1.8304,-5.3155,-5.7266,-6.8773,-9.0494,-6.4299
335.9375,0.1628,-18.1867,-7.2104,-2.5875,0.4862,-3.1198,-1.1457,-1.2141,-8.7385,-7.2286,-8.0956,-6.9989,-3.7835,0.1227,-3.8959,-4.1398,-4.5458,-7.8237,-4.1418
339.8438,0.3354,-19.3079,-7.0556,-1.6562,2.1349,-0.5484,1.9743,-0.2966,-8.3899,-7.1874,-7.4501,-5.0018,-2.0292,1.6585,-2.6355,-3.4168,-2.6966,-7.6092,-2.1751
343.7500,-0.8345,-17.4456,-6.5361,-1.7117,2.9408,0.7021,3.8161,-0.3236,-8.3797,-7.5942,-7.1049,-4.1652,-1.2950,2.2189,-1.9500,-3.2835,-1.9529,-8.4871,-1.2738
347.6562,-2.7342,-13.6156,-5.9598,-2.7750,2.4750,0.4402,4.0032,-1.3246,-8.7324,-8.5790,-7.1572,-4.5590,-1.8645,1.5857,-2.1100,-3.3467,-2.6545,-10.1006,-1.8265
351.5625,-4.3879,-9.9592,-5.8467,-4.6061,0.6964,-1.0525,2.3857,-3.1544,-9.3462,-9.8247,-7.5126,-5.8047,-3.5994,-0.0920,-3.1263,-3.5391,-4.6388,-11.8889,-3.7148
355.4688,-5.0179,-8.5206,-6.5273,-6.7818,-1.9440,-3.2306,-0.9153,-5.5396,-10.0051,-10.7046,-7.9372,-7.3327,-5.8978,-2.3151,-4.6815,-4.1657,-7.1638,-13.3433,-6.3046
359.3750,-4.5266,-10.0110,-7.8247,-8.7712,-4.5728,-5.5583,-5.3414,-8.0502,-10.4627,-10.6802,-8.2038,-8.6544,-7.8677,-4.3432,-6.1936,-5.5248,-9.1253,-14.1726,-8.6454
363.2812,-3.5651,-13.3997,-9.0882,-10.0460,-6.2052,-7.6760,-9.8080,-10.1007,-10.5662,-9.6796,-8.2599,-9.5256,-8.6964,-5.4354,-7.0383,-7.4518,-9.5434,-14.3337,-9.8463
367.1875,-3.0993,-16.6493,-9.5901,-10.2395,-6.2012,-9.3880,-12.9221,-11.0891,-10.3384,-8.1752,-8.2997,-9.9565,-8.0415,-5.1757,-6.8524,-9.2291,-8.0828,-13.9601,-9.4763
371.0938,-3.7320,-18.1236,-9.0205,-9.3097,-4.6267,-10.5518,-13.5376,-10.6602,-9.9603,-6.9023,-8.6631,-10.1109,-6.2182,-3.7250,-5.7481,-10.0223,-5.2899,-13.2584,-7.7806
375.0000,-5.2474,-17.6995,-7.7298,-7.6076,-2.2774,-11.0229,-11.3894,-8.9484,-9.6705,-6.4311,-9.6013,-10.1804,-4.0549,-1.8178,-4.2868,-9.5470,-2.3665,-12.4383,-5.5779
378.9062,-6.7213,-16.7864,-6.5351,-5.7769,-0.3014,-10.7303,-7.3900,-6.6093,-9.6552,-6.8920,-11.0587,-10.2963,-2.4859,-0.4393,-3.1906,-8.4084,-0.5763,-11.6909,-3.8656
382.8125,-7.1500,-17.2077,-6.2098,-4.4935,0.3977,-9.8015,-3.3074,-4.5611,-9.9963,-8.0150,-12.6239,-10.4927,-2.1036,-0.3164,-2.9406,-7.7477,-0.6094,-11.1844,-3.3313
386.7188,-6.1694,-19.7078,-6.9872,-4.1590,-0.3574,-8.5712,-0.9103,-3.5427,-10.6751,-9.3819,-13.6996,-10.6982,-2.9056,-1.5017,-3.5014,-8.3584,-2.2591,-11.0320,-4.0250
390.6250,-4.3437,-23.1492,-8.3956,-4.7042,-1.9355,-7.3941,-1.0421,-3.7383,-11.5792,-10.6496,-13.7940,-10.7406,-4.3470,-3.3111,-4.3466,-9.9124,-4.5753,-11.2184,-5.3606
394.5312,-2.8006,-25.0260,-9.5201,-5.6147,-3.2619,-6.3825,-3.1824,-4.6953,-12.4773,-11.5796,-12.7565,-10.3790,-5.6322,-4.6744,-4.7746,-10.9505,-6.3775,-11.5290,-6.4316
398.4375,-2.4519,-23.0315,-9.5119,-6.1705,-3.4111,-5.3118,-5.7881,-5.5904,-12.9956,-11.9242,-10.8264,-9.3909,-6.0727,-4.7111,-4.3162,-9.7833,-6.8240,-11.5585,-6.4629
402.3438,-3.3471,-16.6839,-8.0325,-5.7785,-2.0792,-3.8444,-7.2219,-5.6828,-12.6779,-11.3691,-8.4850,-7.7048,-5.3435,-3.1934,-2.9789,-5.7447,-5.7412,-10.8431,-5.1610
406.2500,-4.6118,-7.9257,-5.3887,-4.2244,0.3245,-1.9532,-6.6919,-4.6801,-11.1693,-9.6720,-6.2239,-5.5092,-3.5548,-0.6281,-1.1860,0.1007,-3.5903,-9.0808,-2.7975
410.1562,-5.0122,-0.2413,-2.3177,-1.7228,2.9882,-0.1899,-4.6165,-2.8106,-8.4494,-6.9273,-4.3635,-3.2410,-1.1531,2.0795,0.5217,5.3903,-1.1563,-6.3181,-0.0139
414.0625,-3.7503,3.2317,0.4150,1.2389,5.1874,0.5169,-2.2041,-0.5941,-4.9514,-3.7174,-2.9933,-1.4072,1.2804,4.1562,1.7994,7.8357,0.8371,-2.9765,2.5231
417.9688,-0.9515,1.4821,2.3684,4.1540,6.6505,-0.4897,-0.5544,1.5090,-1.4332,-0.9521,-2.0177,-0.3111,3.2551,5.3560,2.6168,6.6389,2.0022,0.3269,4.4248
421.8750,2.4505,-3.7643,3.5575,6.6960,7.5964,-2.9191,0.1016,3.3266,1.3712,0.5663,-1.2400,0.1519,4.5455,5.9908,3.1304,2.9730,2.3644,3.0732,5.6962
425.7812,5.3020,-8.9693,4.3335,8.7613,8.4644,-5.3860,0.5132,4.9528,3.1206,0.5852,-0.4427,0.4701,5.2507,6.6111,3.4529,-0.8113,2.2657,5.0711,6.6238
429.6875,6.8640,-10.7066,5.1102,10.3628,9.5429,-6.0449,1.8135,6.5283,4.0073,-0.4561,0.5457,1.2365,5.7049,7.5750,3.5292,-2.6978,2.1711,6.4741,7.5251
433.5938,7.0991,-7.4950,6.0961,11.4794,10.7465,-3.6982,4.6339,8.0122,4.5640,-1.6808,1.7863,2.7684,6.2676,8.7969,3.2313,-2.1730,2.4614,7.5759,8.5116
437.5000,6.5084,-0.5331,7.1645,11.9862,11.6749,1.3342,8.5339,9.1257,5.2638,-2.2438,3.1837,4.8688,7.0955,9.8299,2.5857,-0.2687,3.2829,8.5322,9.4056
441.4062,5.7258,7.0128,7.9189,11.7226,11.8937,7.2231,12.1263,9.5050,6.1949,-1.7070,4.4954,6.9016,8.0302,10.2033,1.9210,1.4600,4.4980,9.2109,9.8555
445.3125,5.1796,11.7114,7.9149,10.6462,11.2350,11.5897,13.8134,8.9488,7.0350,-0.1222,5.4186,8.1477,8.6843,9.7682,1.7622,2.1816,5.7535,9.2825,9.5745
449.2188,4.9903,11.5990,6.9201,8.9467,9.9124,12.8392,12.6593,7.5744,7.3273,2.1296,5.7216,8.2150,8.6825,8.8067,2.5016,2.3024,6.6386,8.4846,8.5497
453.1250,5.0545,7.0405,5.0717,7.0119,8.3776,11.0132,8.8702,5.7719,6.8336,4.5383,5.3439,7.2375,7.9053,7.8343,4.0706,2.9069,6.8593,6.8660,7.0823
457.0312,5.1582,0.3611,2.8432,5.2469,7.0213,7.6263,3.6395,3.9956,5.6987,6.5557,4.4030,5.7430,6.5680,7.2360,5.8782,4.6461,6.3472,4.8262,5.6280
460.9375,5.0312,-5.4337,0.8364,3.8572,5.9290,4.6431,-1.4771,2.5418,4.3237,7.6130,3.1196,4.3034,5.0796,6.9898,7.1134,7.0208,5.2556,2.9201,4.5385
464.8438,4.3899,-8.0954,-0.4812,2.7535,4.8633,3.3168,-5.2352,1.4637,3.0828,7.2222,1.7343,3.2194,3.7843,6.6693,7.2420,8.6671,3.8625,1.5628,3.8738
468.7500,3.0630,-7.0031,-0.9413,1.6546,3.4886,3.6457,-7.0516,0.6582,2.1284,5.2274,0.4873,2.4443,2.7738,5.7245,6.3639,8.4178,2.4509,0.8390,3.4137
472.6562,1.1867,-3.1505,-0.6612,0.3264,1.6795,4.7141,-6.9365,0.0318,1.4265,2.0579,-0.3500,1.7527,1.9025,3.8527,5.1664,6.2658,1.2301,0.5267,2.8538
476.5625,-0.6844,1.5589,0.1007,-1.2146,-0.3119,5.5481,-5.1997,-0.4026,0.9420,-1.2891,-0.4829,0.9783,0.9739,1.2132,4.4769,3.4168,0.3134,0.2828,2.0413
480.4688,-1.7316,5.2163,1.0866,-2.6888,-1.9678,5.8107,-2.2192,-0.5758,0.7530,-3.6761,0.2782,0.1139,-0.0657,-1.6463,4.7063,1.3524,-0.2801,-0.1681,1.0708
484.3750,-1.3021,6.5575,2.0697,-3.7527,-2.8381,5.8676,1.5707,-0.5084,0.9497,-4.4712,1.8022,-0.7810,-1.0923,-4.0942,5.5602,0.6476,-0.6337,-0.9653,0.1698
488.2812,0.6209,5.1853,2.7844,-4.2653,-2.8709,6.2780,5.5466,-0.4083,1.3971,-3.9663,3.5018,-1.7387,-1.9498,-5.7414,6.2237,0.5207,-0.9372,-2.1577,-0.5341
492.1875,3.2489,1.4778,2.8865,-4.4158,-2.4980,7.1821,8.8406,-0.6047,1.6165,-3.2008,4.4669,-2.9120,-2.6363,-6.5832,5.9005,-0.4669,-1.4387,-3.7458,-1.1689
496.0938,5.3113,-3.6107,2.0652,-4.5943,-2.3877,8.0690,10.5305,-1.3270,0.9870,-3.2307,3.8982,-4.4007,-3.3418,-6.8903,4.3424,-3.0825,-2.3133,-5.6268,-2.0486
500.0000,5.7267,-8.7525,0.2926,-5.0824,-3.0088,8.0653,10.0424,-2.4763,-0.7991,-4.3318,1.6296,-6.0118,-4.2740,-6.9550,2.0187,-6.5422,-3.4995,-7.4772,-3.4061
503.9062,4.2099,-12.5093,-1.9744,-5.7886,-4.2958,6.4945,7.5280,-3.5738,-3.3563,-5.7396,-1.6141,-7.1937,-5.3979,-6.8868,-0.1748,-8.8678,-4.6228,-8.7256,-5.1233
507.8125,1.4160,-13.7358,-3.8636,-6.2434,-5.6528,3.3077,3.9354,-3.9672,-5.6502,-6.1733,-4.4727,-7.2803,-6.3218,-6.5914,-1.4517,-8.3133,-5.1132,-8.7428,-6.6826
511.7188,-1.4705,-12.0551,-4.4924,-5.8895,-6.3139,-0.8407,0.6492,-3.2006,-6.5368,-4.8020,-5.6463,-5.9292,-6.4724,-5.9175,-1.5511,-4.8050,-4.5013,-7.2076,-7.4187
515.6250,-3.4129,-8.1507,-3.5057,-4.4843,-5.8297,-4.8309,-1.1582,-1.3223,-5.4792,-1.9423,-4.6292,-3.4385,-5.4780,-4.8339,-0.7765,-0.2355,-2.7344,-4.4136,-6.9237
519.5312,-4.0101,-3.5949,-1.3775,-2.3292,-4.3562,-7.4325,-1.1161,1.0784,-2.9380,1.0641,-2.0056,-0.6639,-3.4908,-3.4858,0.3152,2.7447,-0.2948,-1.2527,-5.3292
523.4375,-3.5065,-0.1586,0.7921,-0.1476,-2.5502,-7.6449,0.1679,3.1535,-0.1205,2.7427,0.9153,1.4689,-1.1918,-2.0941,1.3130,2.6468,1.9934,1.2020,-3.2572
527.3438,-2.4064,1.0916,1.9262,1.3269,-1.1438,-5.0114,1.4790,4.2413,1.7747,2.5060,2.9039,2.5422,0.5678,-0.7909,2.1466,0.3632,3.3822,2.2947,-1.4578
531.2500,-1.0567,0.3881,1.6636,1.7818,-0.4906,0.0885,1.7265,4.2085,2.3033,1.0436,3.5260,2.8947,1.2629,0.4586,2.9710,-1.3022,3.5867,2.1718,-0.3776
535.1562,0.4639,-0.8587,0.6160,1.4878,-0.3891,6.2992,0.6173,3.4840,1.9851,-0.2178,3.2941,3.3279,0.9943,1.7733,3.8805,0.4086,2.8959,1.6644,0.0488
539.0625,2.1101,-0.8849,-0.0269,1.0876,-0.2916,11.5340,-1.1405,2.7733,1.8366,-0.1802,3.1730,4.4558,0.3848,3.1734,4.7146,6.0833,1.9389,1.7118,0.2553
542.9688,3.5695,1.3617,0.6934,1.1647,0.2664,13.7227,-2.2487,2.6389,2.5775,1.1360,3.8151,6.1666,0.1532,4.4537,5.1192,13.3819,1.2772,2.7074,0.6738
546.8750,4.2480,5.5504,2.8259,1.8898,1.3288,11.8310,-1.6174,3.2058,4.0939,2.6670,5.0842,7.6178,0.6669,5.2396,4.8150,18.2935,1.1024,4.2268,1.4245
550.7812,3.6455,10.0890,5.4395,2.9751,2.5069,6.5934,0.9317,4.1596,5.5421,3.1755,6.2011,7.8118,1.7757,5.2167,3.8519,17.6674,1.2292,5.3374,2.2879
554.6875,1.8634,12.9486,7.2190,3.9384,3.2851,0.4029,4.4985,5.0062,5.9878,2.2364,6.3813,6.3654,3.0091,4.3831,2.6418,11.3620,1.3514,5.2806,2.9568
558.5938,-0.1968,12.6989,7.3261,4.4653,3.4104,-3.7565,7.5908,5.4076,5.0931,0.5872,5.4699,3.9166,3.9541,3.1371,1.7347,2.5530,1.3388,4.0402,3.3443
562.5000,-1.2045,9.1851,5.9370,4.6104,3.0813,-3.8220,8.9700,5.3757,3.3487,-0.4186,4.0965,1.8384,4.5245,2.1173,1.5007,-4.0591,1.3467,2.3931,3.6900
566.4062,-0.1838,3.5523,4.1086,4.7143,2.8112,0.2668,8.3293,5.2222,1.7206,0.1713,3.2391,1.4142,4.9416,1.8774,1.9449,-5.0237,1.6730,1.4120,4.3720
570.3125,2.7972,-2.2859,3.0934,5.1293,3.0774,6.5893,6.3903,5.3264,1.0134,2.1897,3.5321,3.0191,5.4882,2.5958,2.7730,-0.1432,2.4977,1.7814,5.5780
574.2188,6.5345,-6.3927,3.5885,5.9705,4.0098,12.3553,4.3880,5.8877,1.4330,4.4546,4.8357,5.8660,6.2574,3.9986,3.6343,7.5310,3.7223,3.4105,7.1055
578.1250,9.3181,-7.4377,5.4024,7.0612,5.3293,15.4078,3.3139,6.8114,2.6226,5.5949,6.3710,8.4966,7.0956,5.5351,4.3453,13.6443,5.0241,5.5907,8.4646
582.0312,9.9136,-5.0561,7.6929,8.0828,6.5497,15.1973,3.4204,7.7709,4.0524,4.9757,7.2977,9.6946,7.7544,6.6849,4.9329,15.1445,6.0609,7.5367,9.2168
585.9375,8.2698,0.0687,9.5272,8.7833,7.2764,12.7177,4.2728,8.3751,5.3890,3.0650,7.2854,9.2108,8.0960,7.2037,5.4955,11.9243,6.6471,8.8815,9.2904
589.8438,5.5000,6.3761,10.3528,9.0868,7.3901,9.6069,5.2237,8.3289,6.5499,1.0378,6.6626,7.8304,8.1655,7.1751,6.0242,6.5668,6.7662,9.7684,9.0252
593.7500,3.1684,11.8596,10.1185,9.0464,7.0150,7.1234,5.9016,7.5163,7.4698,-0.0337,6.0669,6.7634,8.0807,6.8703,6.3462,2.4981,6.4456,10.5186,8.9019
597.6562,2.3679,14.7253,9.0957,8.7190,6.3428,5.6633,6.3387,6.0078,7.8790,0.1961,5.9039,6.7914,7.8560,6.5344,6.2438,1.8099,5.6401,11.1941,9.1604
601.5625,3.1842,14.0905,7.6504,8.0941,5.4774,4.9778,6.6952,4.0357,7.3765,1.2945,6.0483,7.7473,7.3390,6.2400,5.6439,4.1149,4.2597,11.4422,9.6001
605.4688,4.8465,10.3934,6.1585,7.1374,4.4198,4.7202,6.8845,1.9609,5.7938,2.4954,6.0068,8.6581,6.3354,5.8814,4.7171,7.0495,2.3325,10.7666,9.7204
609.3750,6.3821,5.2221,5.0388,5.8977,3.1780,4.7863,6.4824,0.2142,3.5380,3.2320,5.3878,8.4285,4.8259,5.2832,3.7923,7.9655,0.1500,9.0073,9.1012
613.2812,7.2738,0.5623,4.7224,4.5622,1.8824,5.2090,5.0526,-0.8181,1.5581,3.3753,4.2840,6.5942,3.0871,4.3352,3.1447,5.6581,-1.7685,6.6271,7.7375
617.1875,7.6672,-2.1639,5.4377,3.3898,0.7859,5.8133,2.6336,-0.9545,0.8544,3.0998,3.2503,3.6542,1.5903,3.0746,2.8144,1.0526,-2.9175,4.5397,6.0762
621.0938,8.0403,-2.7088,6.9224,2.5617,0.1327,6.0544,-0.0518,-0.3461,1.8292,2.6029,2.8902,0.7869,0.7317,1.6829,2.5947,-3.4922,-3.1024,3.5650,4.7222
625.0000,8.6441,-1.8898,8.3366,2.0671,-0.0068,5.2752,-1.9268,0.5298,3.9542,1.9573,3.3730,-0.8456,0.5843,0.4172,2.2013,-5.7200,-2.5699,3.8914,4.0302
628.9062,9.1718,-0.8619,8.5834,1.7215,0.1955,3.2176,-2.2593,1.0559,6.0336,1.1846,4.2635,-0.7558,0.8561,-0.4859,1.5009,-4.8364,-1.8588,4.9376,3.8781
632.8125,8.9191,-0.2936,6.9378,1.3114,0.4135,0.3605,-1.2266,0.7756,6.9185,0.4020,4.8053,0.6419,1.0903,-0.8955,0.6371,-1.8675,-1.4619,5.7200,3.7833
636.7188,7.3249,-0.0276,3.5978,0.7570,0.3585,-2.2343,0.1159,-0.3564,6.1959,-0.1598,4.4587,2.3394,0.9661,-0.8336,-0.0286,1.1180,-1.5305,5.4757,3.2717
640.6250,4.4945,0.5623,-0.2607,0.1708,-0.0538,-3.5075,0.5042,-1.9307,4.3868,-0.3189,3.2997,3.3547,0.4952,-0.4654,-0.1201,2.3446,-1.8226,4.1191,2.2303
644.5312,1.3149,1.8342,-3.0487,-0.2309,-0.6661,-3.0191,-0.6673,-3.2942,2.5453,-0.1290,1.9898,3.2740,-0.0128,-0.0277,0.5381,1.3519,-1.9172,2.2422,0.9936
648.4375,-0.9465,3.3675,-3.6443,-0.2933,-1.1889,-1.1833,-2.9025,-3.9050,1.5632,0.1142,1.3388,2.4049,-0.1728,0.2816,1.8147,-0.8983,-1.5294,0.6980,0.1117
652.3438,-1.3215,4.1085,-2.0418,-0.0433,-1.3790,1.0045,-4.9176,-3.6254,1.6671,0.0955,1.7635,1.4835,0.2219,0.3967,3.3165,-2.7997,-0.7061,0.0769,-0.0325
656.2500,0.3185,3.0975,0.6463,0.3187,-1.1812,2.5099,-5.5103,-2.7805,2.4110,-0.2446,3.0078,1.1464,1.0702,0.3988,4.5410,-3.1837,0.2122,0.4188,0.5060
660.1562,3.1847,0.2418,2.8342,0.5360,-0.7606,2.6988,-4.3826,-1.9551,3.0898,-0.6325,4.2954,1.5015,2.0117,0.4305,5.0608,-1.9893,0.8034,1.2998,1.2468
664.0625,5.9827,-3.4590,3.3384,0.4321,-0.4207,1.4628,-2.3577,-1.6631,3.2208,-0.6814,4.7943,2.0578,2.5962,0.5560,4.6734,-0.1442,0.7847,2.1603,1.5568
667.9688,7.5587,-6.4496,1.9510,-0.0272,-0.4575,-0.9048,-0.8677,-2.0931,2.7533,-0.2495,4.0832,2.0453,2.4700,0.6665,3.4821,1.1671,0.1113,2.6082,1.0011
671.8750,7.4182,-7.5803,-0.5937,-0.7686,-1.0175,-3.8654,-1.0866,-3.0719,1.9236,0.3648,2.3446,0.9210,1.5039,0.5148,1.8828,1.2913,-1.0632,2.5084,-0.4351
675.7812,5.8673,-6.8548,-3.1585,-1.6919,-2.0178,-6.7043,-3.2844,-4.2382,0.9544,0.5807,0.2064,-1.2560,-0.1639,-0.1222,0.4381,0.4209,-2.4834,1.8695,-2.3593
679.6875,3.7611,-5.4585,-4.8613,-2.7302,-3.1662,-8.5869,-6.7610,-5.2892,-0.1273,-0.0473,-1.6256,-3.8146,-2.1663,-1.2531,-0.3491,-0.7080,-3.8687,0.6915,-4.1798
683.5938,2.0392,-5.0433,-5.4644,-3.8533,-4.0846,-8.7665,-10.2933,-6.1335,-1.4271,-1.4696,-2.7085,-5.8402,-4.0264,-2.5956,-0.2877,-1.4318,-4.9611,-1.0660,-5.3808
687.5000,1.2988,-6.7123,-5.3419,-5.0388,-4.4981,-6.9680,-12.7288,-6.8682,-2.9784,-3.1316,-3.0052,-6.6980,-5.3430,-3.6954,0.3587,-1.6039,-5.5899,-3.3715,-5.7341
691.4062,1.5821,-10.3214,-5.1431,-6.2501,-4.4041,-3.7280,-13.3738,-7.6252,-4.6072,-4.3384,-2.8006,-6.3914,-5.9845,-4.1878,0.9593,-1.5701,-5.7704,-5.9811,-5.3762
695.3125,2.4321,-14.4930,-5.4018,-7.4412,-4.1170,-0.3732,-12.0844,-8.4135,-5.9935,-4.7254,-2.4933,-5.5361,-6.1863,-4.0415,0.8426,-1.7714,-5.7720,-8.4213,-4.7425
699.2188,3.1524,-17.3191,-6.2912,-8.5672,-4.1255,1.5062,-9.1967,-9.0719,-6.8685,-4.4785,-2.3981,-4.9737,-6.4526,-3.6135,-0.2913,-2.3541,-6.0507,-10.1494,-4.3904
703.1250,3.1476,-17.3589,-7.5890,-9.5712,-4.8032,0.8681,-5.4523,-9.3542,-7.1746,-4.1396,-2.6490,-5.2767,-7.2646,-3.4561,-2.1285,-3.1273,-7.0077,-10.8071,-4.7682
707.0312,2.2070,-14.4193,-8.8105,-10.3477,-6.1211,-2.1619,-1.9127,-9.0770,-7.0633,-4.1556,-3.2164,-6.4536,-8.7350,-3.9771,-3.8607,-3.8860,-8.6810,-10.4062,-6.0039
710.9375,0.6167,-9.7328,-9.4384,-10.7202,-7.5549,-6.2784,0.2712,-8.2274,-6.7545,-4.5276,-3.9907,-8.0236,-10.4307,-5.1572,-4.6468,-4.7808,-10.5825,-9.3268,-7.8034
714.8438,-0.9612,-5.4429,-9.1726,-10.4802,-8.2920,-9.6361,0.2943,-6.9680,-6.3968,-4.8331,-4.8651,-9.3731,-11.5201,-6.5052,-4.1561,-6.3474,-11.8473,-8.1280,-9.5292
718.7500,-1.8064,-3.6166,-8.1122,-9.4945,-7.6685,-10.7700,-1.8425,-5.5576,-6.0443,-4.6031,-5.7704,-10.1298,-11.2080,-7.2914,-2.8393,-9.0764,-11.6725,-7.2812,-10.4581
722.6562,-1.5186,-5.2274,-6.7664,-7.8282,-5.6033,-9.2614,-5.1869,-4.2524,-5.7396,-3.7586,-6.6480,-10.3018,-9.2221,-6.9386,-1.7107,-12.8091,-9.8072,-6.9729,-10.1202
726.5625,-0.2583,-9.6063,-5.8347,-5.8022,-2.7573,-5.8133,-8.2290,-3.2513,-5.5900,-2.7645,-7.3936,-10.1251,-6.0507,-5.3567,-1.7348,-16.4577,-6.7829,-7.0728,-8.5498
730.4688,1.3032,-14.6855,-5.8238,-3.9311,-0.2830,-1.7851,-9.6950,-2.6931,-5.7352,-2.3680,-7.8268,-9.7829,-2.7646,-3.0392,-3.1851,-18.3794,-3.7116,-7.2649,-6.3041
734.3750,2.3256,-17.9861,-6.7076,-2.7516,0.7307,1.4680,-9.2574,-2.6692,-6.2213,-3.0925,-7.7370,-9.2436,-0.5102,-0.8707,-5.3939,-17.2752,-1.7473,-7.2581,-4.2181
738.2812,2.2565,-17.8825,-7.8694,-2.6170,-0.1779,3.0889,-7.6666,-3.2046,-6.9007,-4.8355,-7.0022,-8.3457,0.0399,0.2629,-7.0859,-13.0652,-1.5187,-6.9595,-3.0130
742.1875,1.1368,-14.4485,-8.4166,-3.5481,-2.5901,2.8918,-6.1827,-4.2036,-7.4675,-6.8410,-5.7166,-7.0388,-1.0288,-0.1242,-7.1160,-7.1318,-2.8560,-6.5161,-2.9633
746.0938,-0.4370,-9.3643,-7.7083,-5.2030,-5.4102,1.2850,-5.6897,-5.4025,-7.6200,-8.0684,-4.2247,-5.5510,-2.9863,-1.8885,-5.1631,-1.6995,-4.9431,-6.1995,-3.7983
750.0000,-1.6708,-4.8949,-5.7582,-6.9733,-7.4107,-0.9190,-6.1178,-6.3919,-7.2227,-7.7273,-2.9964,-4.3069,-4.8661,-4.3039,-1.9437,1.3196,-6.7670,-6.1931,-4.8783
753.9062,-2.0236,-2.5521,-3.2322,-8.1735,-7.8125,-2.7508,-6.5762,-6.7377,-6.3346,-5.6715,-2.3821,-3.6331,-5.9127,-6.3643,1.1951,1.3144,-7.5848,-6.4049,-5.5355
757.8125,-1.4603,-2.2955,-1.0265,-8.2668,-6.5900,-3.4082,-6.0667,-6.1632,-5.0858,-2.4530,-2.3828,-3.4822,-5.8391,-7.2144,3.0539,-0.8055,-7.1688,-6.4396,-5.3851
761.7188,-0.3576,-2.8077,0.2833,-7.0592,-4.3681,-2.6242,-4.2192,-4.7002,-3.5293,0.9510,-2.6009,-3.4193,-4.8182,-6.5140,3.2491,-3.2708,-5.7639,-5.7816,-4.4532
765.6250,0.8415,-2.6420,0.7401,-4.7915,-2.0145,-0.8994,-1.5060,-2.7180,-1.6215,3.5662,-2.4374,-2.9214,-3.2888,-4.5673,2.3691,-4.5468,-3.8660,-4.1176,-3.0814
769.5312,1.9528,-1.4152,0.8527,-2.0758,-0.1877,0.6395,1.1748,-0.7922,0.6261,4.7917,-1.4470,-1.7869,-1.7257,-2.1467,1.5415,-4.1570,-1.9858,-1.6132,-1.6958
773.4375,3.1091,-0.1500,1.1333,0.3291,0.9114,0.8309,3.1564,0.5340,2.9536,4.5700,0.3627,-0.3405,-0.4801,-0.0941,1.7056,-2.7537,-0.5017,1.0527,-0.5845
777.3438,4.5192,-0.4776,1.6898,1.8270,1.4899,-0.7409,4.3501,0.9841,4.8158,3.3268,2.4837,0.7479,0.2896,1.0970,3.0510,-1.4666,0.3947,2.9642,0.2028
781.2500,6.1325,-3.2609,2.1811,2.2362,1.9089,-3.2774,5.0401,0.6580,5.6029,1.7386,4.1619,0.9267,0.6238,1.4931,4.9568,-1.0310,0.7081,3.4328,0.8052
785.1562,7.5020,-7.6732,2.1479,1.8473,2.4180,-5.0276,5.3810,-0.0372,5.0096,0.4385,4.8101,0.1838,0.7291,1.6094,6.4405,-1.2978,0.6289,2.3848,1.4109
789.0625,7.9936,-11.4763,1.4389,1.2406,3.0449,-4.2548,5.1194,-0.5983,3.3030,-0.2194,4.3326,-0.8857,0.9041,2.0485,6.8056,-1.4290,0.4819,0.4287,2.1261
792.9688,7.2239,-12.3782,0.3893,0.9628,3.6739,-0.3684,3.8502,-0.6655,1.2764,-0.2427,3.1744,-1.4242,1.4227,3.1153,6.0740,-0.5928,0.6084,-1.4518,2.9289
796.8750,5.4116,-9.5311,-0.3801,1.2518,4.2209,5.5280,1.6093,-0.1655,-0.1172,0.1013,2.0781,-0.8337,2.4070,4.6490,4.9437,1.3548,1.2070,-2.4010,3.7247
800.7812,3.3624,-4.0962,-0.3734,1.9736,4.7524,11.1123,-0.7597,0.7048,-0.2386,0.5096,1.7050,0.8823,3.7564,6.1701,4.3252,3.6844,2.2135,-2.0880,4.4493
804.6875,2.0523,1.5401,0.4777,2.7962,5.4528,14.1276,-1.9127,1.6298,0.9417,0.8570,2.3344,3.1715,5.1821,7.2262,4.7637,5.2295,3.3058,-0.7758,5.1383
808.5938,2.0613,5.3311,1.8280,3.4574,6.4569,13.6893,-0.8944,2.3582,2.8847,1.2588,3.7798,5.2996,6.3333,7.6858,6.1130,5.1438,4.0476,0.9352,5.8987
812.5000,3.2289,6.7796,3.1909,3.9267,7.6700,10.7707,2.0251,2.8076,4.7980,1.9359,5.5194,6.7432,6.9425,7.7698,7.6498,3.4691,4.0979,2.4779,6.7906
816.4062,4.7647,6.9387,4.2200,4.3465,8.7196,7.5329,5.2673,3.0402,6.0115,2.9709,6.9350,7.3373,6.9053,7.8074,8.5380,1.1346,3.3662,3.5470,7.6957
820.3125,5.7458,7.2650,4.7910,4.8130,9.1028,5.9213,6.8203,3.1451,6.2100,4.1360,7.5397,7.1376,6.2688,7.9103,8.3371,-0.6084,2.0377,4.0743,8.2849
824.2188,5.6751,8.2520,4.8853,5.1918,8.4694,6.4401,5.5460,3.1252,5.4541,4.9404,7.1257,6.1918,5.1684,7.8272,7.2392,-0.9494,0.4745,4.0475,8.1471
828.1250,4.7412,8.9276,4.4549,5.1385,6.8702,7.9004,2.0097,2.8737,4.0602,4.9003,5.8167,4.4663,3.7792,7.1108,5.8979,0.0156,-0.9342,3.3824,7.0366
832.0312,3.6224,7.6264,3.4447,4.3347,4.8025,8.2976,-1.8041,2.2587,2.4482,3.8652,4.0206,2.0073,2.3039,5.4897,4.9750,1.4044,-1.8960,1.9808,5.0909
835.9375,2.9816,3.4620,1.9563,2.7675,2.9869,6.2324,-3.7564,1.2477,1.0131,2.1711,2.2815,-0.8284,0.9602,3.1705,4.7043,2.1625,-2.2857,-0.0799,2.8531
839.8438,2.9927,-2.6373,0.3599,0.8293,1.9779,1.9453,-2.9573,-0.0251,0.0139,0.4878,1.0519,-3.3357,-0.0828,0.8219,4.7531,1.7572,-2.1705,-2.4203,1.0345
843.7500,3.2066,-8.1720,-0.8291,-0.8679,1.8308,-2.7063,-0.3424,-1.3077,-0.5258,-0.5729,0.4682,-4.7447,-0.8096,-0.7827,4.4673,0.4948,-1.8004,-4.4583,0.1228
847.6562,2.8370,-10.5138,-1.2841,-1.8518,2.0422,-5.3164,1.9789,-2.3673,-0.8550,-0.8460,0.2624,-4.6784,-1.4205,-1.2415,3.3383,-0.7446,-1.5428,-5.7135,0.0772
851.5625,1.2810,-8.5823,-1.1602,-2.0745,1.8296,-4.3767,2.1578,-3.1176,-1.3953,-0.7393,-0.0906,-3.4563,-2.2505,-0.7891,1.3892,-1.1671,-1.7398,-6.1057,0.3286
855.4688,-1.4501,-3.6023,-1.0635,-1.9160,0.6131,-0.2136,-0.1538,-3.6431,-2.4931,-0.9923,-1.0289,-1.9826,-3.5371,-0.1535,-0.7723,-0.6693,-2.5189,-6.0109,0.1254
859.3750,-4.6491,1.5954,-1.6436,-1.8985,-1.5863,5.1426,-3.5869,-4.0975,-4.1424,-2.1918,-2.5553,-1.2441,-5.1719,-0.0866,-2.2750,0.0337,-3.6587,-6.0007,-0.9700
863.2812,-7.2312,4.2773,-3.0732,-2.3187,-4.0849,9.0619,-5.9819,-4.5523,-5.8757,-4.3348,-4.1351,-1.7370,-6.6347,-0.8753,-2.4839,-0.1393,-4.6338,-6.4360,-2.7590
867.1875,-8.2711,3.4041,-4.8184,-3.0587,-5.8744,9.7314,-5.8167,-4.9096,-6.9551,-6.7142,-4.9626,-3.2107,-7.2285,-2.1609,-1.3740,-1.8895,-4.8745,-7.2081,-4.4940
871.0938,-7.4655,0.1167,-5.9239,-3.7056,-6.1794,7.0715,-3.1925,-4.9543,-6.7969,-8.2244,-4.4752,-4.8984,-6.5202,-3.1863,0.4463,-4.9910,-4.1269,-7.8277,-5.3476
875.0000,-5.2790,-3.1438,-5.6559,-3.8814,-4.9043,2.6590,0.2343,-4.5169,-5.3739,-7.9420,-2.7880,-6.0574,-4.7113,-3.3021,2.0652,-8.3106,-2.6844,-7.8044,-4.9645
878.9062,-2.7068,-4.2540,-4.0553,-3.5316,-2.7005,-1.2446,2.2875,-3.6348,-3.3119,-5.6762,-0.7336,-6.4237,-2.6518,-2.3940,2.7457,-10.3978,-1.3009,-7.0407,-3.7220
882.8125,-0.7898,-2.7200,-1.9883,-2.9630,-0.6101,-2.9647,1.5914,-2.5904,-1.5790,-2.1837,0.5722,-6.2654,-1.4224,-0.9517,2.2718,-10.2733,-0.7818,-5.9445,-2.5022
886.7188,-0.1425,0.1040,-0.6332,-2.6128,0.4957,-2.2518,-1.6298,-1.7895,-0.9460,1.0906,0.3909,-6.0335,-1.7082,0.2504,0.9858,-7.9275,-1.4822,-5.1691,-2.1137
890.6250,-0.7315,1.9532,-0.7508,-2.7312,0.3470,-0.2425,-5.7115,-1.5487,-1.5587,2.6507,-1.1779,-5.9143,-3.3597,0.6360,-0.4610,-4.2459,-3.0388,-5.1643,-2.7530
894.5312,-1.9986,1.1092,-2.2391,-3.2148,-0.6740,1.3693,-8.5128,-1.9279,-2.8969,1.6695,-3.2513,-5.6579,-5.4510,0.1524,-1.4623,-0.4588,-4.5425,-5.8651,-3.8817
898.4375,-3.2315,-2.5240,-4.2618,-3.7064,-1.8579,1.4067,-8.5921,-2.7108,-4.1345,-1.5601,-4.7133,-4.8295,-6.8270,-0.7608,-1.7070,2.4934,-5.0756,-6.7428,-4.6178
902.3438,-3.9548,-7.3451,-5.8293,-3.8731,-2.6337,-0.1369,-5.9384,-3.5362,-4.6446,-5.6837,-4.9053,-3.2849,-6.8016,-1.5097,-1.2233,4.2846,-4.2859,-7.1813,-4.3792
906.2500,-4.1229,-10.9865,-6.4074,-3.6479,-2.8675,-2.2443,-1.8999,-4.0883,-4.3211,-8.8644,-4.0068,-1.4785,-5.5563,-1.7423,-0.2577,5.0855,-2.6199,-6.9057,-3.3309
910.1562,-4.0303,-11.6800,-6.1539,-3.2608,-2.8229,-3.6862,1.5888,-4.2244,-3.5400,-9.6307,-2.8684,-0.3183,-3.9809,-1.5336,0.8848,5.1960,-1.0508,-6.1593,-2.3152
914.0625,-4.0382,-9.2671,-5.6811,-3.0505,-2.8526,-3.9357,3.0230,-3.9803,-2.8454,-7.5940,-2.4306,-0.6205,-3.0655,-1.2532,1.9391,4.7639,-0.4654,-5.5143,-2.2948
917.9688,-4.3156,-5.2835,-5.5785,-3.2116,-3.0713,-3.5574,2.0340,-3.4831,-2.6129,-3.6661,-3.1325,-2.5307,-3.2548,-1.2346,2.6984,3.7934,-1.1059,-5.4611,-3.6824
921.8750,-4.7619,-2.0822,-6.0536,-3.6670,-3.2535,-3.7884,-0.5636,-2.8587,-2.9093,0.3589,-4.6912,-5.3332,-4.1898,-1.4975,3.0074,2.3695,-2.4332,-6.0753,-6.0135
925.7812,-5.1285,-1.5016,-6.8936,-4.1500,-3.0275,-5.5763,-3.3601,-2.2032,-3.5805,2.6755,-6.3586,-7.8151,-4.9971,-1.7304,2.7808,0.8288,-3.4987,-6.9869,-8.1912
929.6875,-5.2146,-3.8445,-7.6894,-4.4154,-2.2133,-8.7302,-5.1961,-1.6174,-4.4278,2.3549,-7.4303,-8.9657,-4.9158,-1.5465,2.0481,-0.3402,-3.5799,-7.6557,-9.1476
933.5938,-4.9741,-7.7601,-8.0963,-4.4122,-1.0448,-11.8040,-5.7549,-1.2412,-5.3036,-0.2115,-7.6387,-8.5534,-3.8333,-0.8303,0.9744,-0.8334,-2.6603,-7.7407,-8.4868
937.5000,-4.4673,-11.0955,-7.9515,-4.2907,-0.0984,-12.8720,-5.5572,-1.2269,-6.0771,-3.5552,-7.1892,-7.2008,-2.3782,0.0830,-0.1830,-0.8285,-1.4425,-7.3026,-6.6968
941.4062,-3.7292,-12.2060,-7.2403,-4.2543,0.0444,-10.7542,-5.3991,-1.6459,-6.5626,-5.9280,-6.4796,-5.9169,-1.5189,0.5490,-1.1687,-0.9477,-0.8888,-6.7120,-4.8114
945.3125,-2.6999,-10.9256,-6.0295,-4.3825,-0.8183,-5.9086,-5.6413,-2.3974,-6.5368,-6.2185,-5.7628,-5.4147,-1.9413,0.0114,-1.8148,-1.8344,-1.5897,-6.3497,-3.7623
949.2188,-1.2975,-8.6007,-4.4670,-4.5655,-2.3381,-0.3708,-5.8673,-3.2014,-5.8771,-4.4843,-5.0161,-5.6747,-3.6047,-1.5905,-2.0633,-3.6086,-3.3662,-6.3230,-3.8526
953.1250,0.4237,-7.1722,-2.8260,-4.5970,-3.7820,3.2903,-5.1822,-3.7120,-4.7099,-1.8260,-4.0860,-6.0380,-5.7462,-3.6817,-1.9267,-5.6141,-5.3525,-6.3941,-4.6684
957.0312,2.1788,-7.8952,-1.4866,-4.3494,-4.4402,3.4014,-2.9655,-3.6976,-3.4201,0.2913,-2.9531,-5.7406,-7.3101,-5.2994,-1.4447,-6.7086,-6.5011,-6.1589,-5.4445
960.9375,3.5350,-10.5186,-0.7961,-3.8946,-4.0268,0.1249,0.4659,-3.1799,-2.4668,0.8501,-1.8769,-4.5073,-7.5255,-5.6072,-0.6889,-5.9669,-6.1918,-5.3423,-5.6002
964.8438,4.1340,-13.4434,-0.8774,-3.4798,-2.8307,-4.6673,3.8136,-2.4392,-2.1161,-0.2443,-1.2904,-2.7896,-6.2950,-4.3771,0.1929,-3.3513,-4.5771,-4.0058,-5.0821
968.7500,3.8943,-14.7405,-1.5414,-3.3735,-1.5358,-8.4998,5.4930,-1.8751,-2.2832,-2.2609,-1.5184,-1.4858,-4.1940,-2.1420,0.9604,0.1196,-2.4711,-2.5350,-4.3132
972.6562,3.0385,-13.3510,-2.3969,-3.6870,-0.8307,-9.6806,4.6527,-1.7983,-2.6095,-4.1859,-2.5267,-1.3311,-2.1240,0.0832,1.3605,2.8651,-0.8696,-1.4190,-3.8250
976.5625,1.9316,-9.7056,-3.0919,-4.2876,-1.0415,-8.1149,1.8214,-2.2686,-2.7194,-5.3234,-3.8825,-2.3677,-0.8381,1.3565,1.2873,3.6247,-0.3970,-0.9611,-3.8526
980.4688,0.8750,-5.4057,-3.4931,-4.8471,-1.9876,-5.0890,-1.3069,-3.0602,-2.4627,-5.5759,-4.9498,-3.8456,-0.5976,1.3128,0.9097,2.1881,-0.9963,-1.0943,-4.1657
984.3750,0.0311,-2.2356,-3.6534,-4.9872,-3.1080,-2.2502,-2.8722,-3.7589,-1.9589,-5.2776,-5.1872,-4.6253,-1.1057,0.3286,0.6400,-0.4773,-2.0133,-1.3992,-4.2247
988.2812,-0.4805,-1.1708,-3.5979,-4.4299,-3.7550,-0.5152,-2.0021,-3.9312,-1.4212,-4.7755,-4.3684,-3.8292,-1.7090,-0.7343,0.9099,-2.7755,-2.5907,-1.3113,-3.5290
992.1875,-0.4498,-1.9791,-3.1328,-3.0841,-3.4760,0.3682,0.6385,-3.2836,-0.9170,-4.1087,-2.6281,-1.3444,-1.7326,-1.0325,1.8760,-3.3653,-2.1311,-0.4032,-1.9130
996.0938,0.3987,-3.5606,-1.8844,-1.0525,-2.1571,1.3694,3.2767,-1.7592,-0.2758,-3.0353,-0.3565,2.1194,-0.7854,-0.1841,3.2640,-1.8553,-0.5766,1.3971,0.3867
1000.0000,2.1686,-4.6993,0.4081,1.4098,-0.0034,3.2336,4.1631,0.4448,0.7649,-1.3695,1.9614,5.4289,1.0859,1.5915,4.4949,1.0697,1.6100,3.7530,2.9006
1003.9062,4.5163,-4.7081,3.5572,3.9477,2.5780,5.7736,2.6689,2.9265,2.2813,0.6593,3.8828,7.6244,3.4310,3.6736,5.0438,4.1029,3.7073,6.0500,5.1849
1007.8125,6.6229,-3.6303,6.8364,6.1614,5.1086,7.9177,-0.3495,5.1822,3.9820,2.3484,5.0992,8.3580,5.5846,5.4099,4.7974,6.0349,5.0709,7.6474,6.9912
1011.7188,7.5579,-2.0160,9.2676,7.6784,7.1391,8.4658,-3.1165,6.7451,5.2930,2.8692,5.5005,7.9412,6.9270,6.4131,4.1476,6.3113,5.3736,8.1393,8.2626
1015.6250,6.8633,-0.5325,10.1366,8.2502,8.3302,6.9800,-4.0269,7.3334,5.6816,1.8134,5.2083,7.0263,7.1173,6.6348,3.7277,5.1588,4.6691,7.5097,9.0092
1019.5312,4.9460,0.3289,9.3960,7.8503,8.5271,4.1416,-2.5495,6.9562,5.0059,-0.4457,4.5415,6.1588,6.2166,6.2414,3.9547,3.2932,3.3014,6.1172,9.1944
1023.4375,2.9269,0.3658,7.6723,6.7179,7.8180,1.3087,0.5867,5.9234,3.6398,-2.8609,3.8860,5.4921,4.6525,5.4390,4.6983,1.4545,1.7456,4.5243,8.7363
1027.3438,1.9641,-0.3367,5.8687,5.3045,6.5313,-0.3901,3.9561,4.7350,2.2746,-4.2632,3.5058,4.8223,3.0409,4.3896,5.3288,0.0652,0.4548,3.2566,7.6198
1031.2500,2.4816,-1.4393,4.6372,4.1236,5.1362,-0.7414,6.3174,3.8860,1.5195,-4.0189,3.4009,3.8775,1.9388,3.2476,5.1370,-0.8238,-0.2464,2.6105,6.0228
1035.1562,3.8624,-2.4183,4.0756,3.5680,4.0672,-0.4003,7.2407,3.6749,1.5644,-2.3714,3.3251,2.6405,1.6377,2.2309,3.8490,-1.3363,-0.2197,2.5956,4.3361
1039.0625,4.8714,-2.7302,3.8312,3.7786,3.5553,-0.1687,7.1481,4.1082,2.1202,-0.2498,2.9775,1.4673,2.0876,1.6169,1.8787,-1.5093,0.4723,3.0221,3.0358
1042.9688,4.5445,-2.0632,3.4924,4.6275,3.5606,-0.1951,6.8376,4.9430,2.6647,1.3185,2.2551,0.9141,2.9789,1.6285,0.1311,-1.1693,1.5997,3.6580,2.4708
1046.8750,2.9093,-0.5468,2.9598,5.8050,3.8456,0.2257,6.8619,5.8282,2.8132,1.7993,1.3831,1.3782,3.9279,2.2834,-0.5234,-0.0392,2.8473,4.3514,2.6946
1050.7812,1.0006,1.2518,2.5266,6.9505,4.1383,2.0350,7.1594,6.4576,2.5635,1.3762,0.8126,2.7866,4.6589,3.3271,0.2389,1.9954,3.9250,5.0443,3.4460
1054.6875,0.1351,2.5999,2.6328,7.7527,4.2750,5.4241,7.1310,6.6552,2.2583,0.7059,0.9343,4.5455,5.0885,4.3156,2.0283,4.6459,4.6599,5.6914,4.2906
1058.5938,0.9664,2.9971,3.4945,7.9911,4.2333,9.2917,6.0733,6.3763,2.3075,0.4264,1.8056,5.8097,5.2810,4.8111,4.0085,7.1961,5.0221,6.1681,4.8365
1062.5000,3.0127,2.4372,4.8851,7.5452,4.0539,11.6907,3.6971,5.6706,2.8695,0.7768,3.0916,5.9367,5.3295,4.5749,5.4006,8.7633,5.0761,6.2677,4.8999
1066.4062,5.0041,1.3582,6.2158,6.4187,3.7363,11.0841,0.4388,4.6640,3.7102,1.5662,4.2738,4.8726,5.2566,3.6585,5.8887,8.7371,4.8973,5.8186,4.5380
1070.3125,5.7870,0.3304,6.8537,4.7940,3.2137,7.5559,-2.6057,3.5759,4.3328,2.4464,4.9823,3.2389,5.0098,2.3659,5.6899,7.1513,4.5240,4.8539,3.9592
1074.2188,5.1136,-0.2782,6.4651,3.0684,2.4419,3.0492,-4.1092,2.7266,4.2927,3.2276,5.2134,2.0496,4.5492,1.1388,5.3002,4.7506,3.9836,3.7051,3.3898
1078.1250,3.7420,-0.4247,5.1852,1.7951,1.5338,0.3176,-3.1217,2.4719,3.4932,3.9812,5.2722,2.1867,3.9537,0.4282,5.1338,2.6640,3.3683,2.9145,2.9877
1082.0312,2.8040,-0.2596,3.5426,1.4922,0.8153,1.1949,0.4231,3.0506,2.2737,4.8717,5.4871,3.9070,3.4523,0.5826,5.3086,1.8351,2.8835,2.9748,2.8380
1085.9375,2.9448,0.0916,2.2113,2.3822,0.7193,5.3244,5.5610,4.4153,1.2352,5.8886,5.9163,6.6473,3.3352,1.7405,5.6820,2.5218,2.7967,4.0280,2.9990
1089.8438,3.8860,0.6182,1.7287,4.2087,1.5558,10.2488,10.6271,6.1663,0.9091,6.7202,6.2750,9.2486,3.7887,3.7344,6.0479,4.1699,3.2894,5.7106,3.5299
1093.7500,4.7132,1.3190,2.3001,6.2732,3.2970,12.8643,13.9488,7.6739,1.4646,6.8856,6.1461,10.5028,4.7547,6.0550,6.3089,5.7528,4.2958,7.2680,4.4586
1097.6562,4.6299,2.0374,3.7391,7.7222,5.5271,11.3188,14.5838,8.3585,2.6237,6.0288,5.3184,9.7447,5.9132,7.9563,6.4956,6.3872,5.4498,7.9040,5.7078
1101.5625,3.5798,2.4368,5.5450,7.9530,7.6070,6.1317,12.7310,7.9832,3.8203,4.1591,3.9942,7.1823,6.8103,8.7252,6.6543,5.8529,6.2045,7.1842,7.0445
1105.4688,2.2781,2.1839,7.0806,6.9106,8.9614,-0.1577,9.5867,6.7803,4.5005,1.6750,2.6995,3.7868,7.0616,8.0209,6.7343,4.6916,6.0832,5.2622,8.1149
1109.3750,1.6654,1.1966,7.7989,5.0910,9.3203,-4.5273,6.7142,5.3205,4.3863,-0.8152,1.9481,0.7987,6.5209,6.0954,6.5917,3.8198,4.9268,2.7964,8.5716
1113.2812,2.2276,-0.2695,7.4433,3.2452,8.7788,-5.1661,5.2623,4.1938,3.5648,-2.7297,1.8998,-0.8855,5.3266,3.7301,6.1168,3.9018,2.9965,0.6050,8.2330
1117.1875,3.6871,-1.7937,6.1427,1.9631,7.6704,-2.2944,5.4512,3.6933,2.3781,-3.6632,2.2563,-1.1140,3.8201,1.8752,5.3770,4.8878,0.8740,-0.7385,7.1833
1121.0938,5.2423,-3.0877,4.3475,1.3983,6.3639,2.2535,6.5813,3.6947,1.2115,-3.4280,2.4736,-0.4601,2.3990,1.1785,4.6457,6.0192,-0.7865,-1.1390,5.7495
1125.0000,6.1161,-4.1571,2.6278,1.2905,5.1232,6.2240,7.5159,3.7951,0.3153,-2.0663,2.1387,0.1839,1.3845,1.6790,4.2695,6.3049,-1.5222,-0.9296,4.3583
1128.9062,5.9809,-5.1811,1.4245,1.2391,4.0916,8.0684,7.3322,3.6053,-0.2498,0.0970,1.2454,0.1467,0.9469,2.8510,4.4503,5.1670,-1.2211,-0.6079,3.3457
1132.8125,4.9964,-6.2210,0.8716,1.0096,3.3534,7.3906,5.7752,2.9891,-0.5547,2.4093,0.1800,-0.6718,1.0801,3.9608,5.0845,2.8406,-0.1315,-0.5506,2.8163
1136.7188,3.5383,-7.0437,0.7707,0.6483,2.9671,4.7119,3.3049,2.0941,-0.7150,3.9896,-0.5643,-1.8303,1.5979,4.4918,5.7672,0.2710,1.2482,-0.8840,2.6194
1140.6250,1.9115,-7.2637,0.7141,0.3396,2.9176,0.9804,0.7770,1.1715,-0.8531,4.0537,-0.7381,-2.7075,2.1516,4.3636,5.9685,-1.4382,2.3328,-1.5557,2.4470
1144.5312,0.2846,-6.7177,0.2846,0.1443,3.0293,-2.7563,-1.0162,0.3365,-1.1153,2.3569,-0.5080,-2.9411,2.2991,3.8305,5.2866,-1.6870,2.6182,-2.4977,1.9959
1148.4375,-1.1781,-5.7426,-0.7586,-0.1445,2.9522,-5.4569,-1.6922,-0.5377,-1.6802,-0.5263,-0.3372,-2.6576,1.6548,3.1798,3.6504,-0.7502,1.8288,-3.7184,1.1145
1152.3438,-2.1967,-5.0586,-2.3721,-0.8866,2.2966,-6.2104,-1.3717,-1.7041,-2.6878,-3.3472,-0.6616,-2.3550,0.0919,2.4866,1.3828,0.3706,0.0274,-5.2346,-0.1291
1156.2500,-2.4504,-5.2689,-4.2195,-2.2887,0.8723,-4.5754,-0.5350,-3.2861,-4.0946,-4.7728,-1.5752,-2.5343,-2.1038,1.6137,-0.8949,0.5288,-2.3533,-6.9072,-1.4765
1160.1562,-1.8084,-6.3330,-5.7576,-4.1412,-1.1164,-0.9951,0.2353,-5.0791,-5.5526,-4.1178,-2.7210,-3.3332,-4.2517,0.4365,-2.4693,-0.8828,-4.6051,-8.3432,-2.5794
1164.0625,-0.5034,-7.4498,-6.4062,-5.8264,-3.0791,3.1142,0.4894,-6.5775,-6.4465,-1.7680,-3.4474,-4.4031,-5.5192,-0.9152,-2.7811,-3.5331,-5.9780,-8.9953,-3.1229
1167.9688,0.9414,-7.5084,-5.7689,-6.6350,-4.2908,5.8924,0.0326,-7.2390,-6.1423,1.0014,-3.1344,-5.1010,-5.3078,-2.0233,-1.6339,-6.2623,-5.9876,-8.4462,-2.9236
1171.8750,2.0053,-5.8304,-3.8361,-6.1998,-4.2660,6.0087,-1.0835,-6.8274,-4.3547,2.7310,-1.5178,-4.8674,-3.5894,-2.4127,0.7020,-7.6520,-4.6586,-6.7084,-1.9814
1175.7812,2.4577,-2.6857,-1.0739,-4.7544,-3.0356,3.4710,-2.6604,-5.6030,-1.4234,2.5807,1.1412,-3.5565,-0.9928,-1.8890,3.5372,-6.7626,-2.5656,-4.3275,-0.4852
1179.6875,2.4158,0.7862,1.6794,-3.0311,-1.1545,-0.3368,-4.4703,-4.2207,1.7067,0.7436,4.1071,-1.5355,1.4411,-0.7239,5.9710,-3.6682,-0.6146,-2.1815,1.2198
1183.5938,2.1508,3.1900,3.5045,-1.8524,0.5733,-3.4933,-6.3219,-3.3807,3.8509,-1.7496,6.4146,0.4801,2.7279,0.4662,7.2027,0.4877,0.3508,-1.0664,2.6933
1187.5000,1.8457,3.5937,3.7694,-1.6740,1.4973,-4.7094,-8.0414,-3.4391,4.1392,-3.6644,7.2227,1.7456,2.3966,1.0826,6.8346,3.9608,-0.0662,-1.2954,3.4985
1191.4062,1.5354,1.8985,2.4016,-2.3586,1.4230,-4.0138,-9.4021,-4.2093,2.4677,-4.2081,6.1577,1.7960,0.6962,0.9029,5.0336,5.1972,-1.6363,-2.5440,3.3343
1195.3125,1.2675,-1.2839,-0.0688,-3.2981,0.6611,-2.4846,-10.0820,-5.0721,-0.4095,-3.3198,3.5173,0.6263,-1.5446,0.1938,2.4691,3.5875,-3.6185,-4.0223,2.1796
1199.2188,1.2839,-5.0224,-2.7129,-3.7747,-0.1776,-1.2796,-9.7269,-5.3201,-3.2157,-1.5254,0.2295,-1.2958,-3.3177,-0.4859,0.0469,-0.1808,-5.1131,-4.8674,0.3856
1203.1250,1.9671,-8.3793,-4.5506,-3.3244,-0.5042,-0.7466,-8.1212,-4.5350,-4.7446,0.4352,-2.4650,-3.1665,-3.8822,-0.6463,-1.4454,-4.3673,-5.4719,-4.5357,-1.3595
1207.0312,3.5069,-10.5030,-4.8843,-1.9068,-0.0146,-0.3092,-5.3719,-2.7906,-4.4035,1.9228,-3.5143,-4.0990,-3.0423,-0.1438,-1.6224,-6.9485,-4.5709,-3.0022,-2.2362
1210.9375,5.5404,-10.6531,-3.5039,0.1570,1.2192,0.8196,-1.9711,-0.5924,-2.4346,2.5092,-2.5336,-3.4438,-1.1547,0.7886,-0.5983,-6.5780,-2.8231,-0.7068,-1.6297
1214.8438,7.1294,-8.4046,-0.7276,2.3746,2.8320,2.7199,1.3423,1.3869,0.2726,1.9563,-0.0150,-1.0944,1.0929,1.7376,1.1180,-3.2797,-0.9444,1.6759,0.5433
1218.7500,7.2275,-4.0477,2.6942,4.2614,4.3473,4.4428,3.8652,2.6158,2.6478,0.2178,2.8673,2.3531,2.9958,2.3677,2.8537,1.4926,0.3975,3.5015,3.6947
1222.6562,5.3869,1.1301,5.7784,5.4427,5.3604,4.5976,5.1929,2.9044,3.9246,-2.4651,4.7901,5.7154,4.0893,2.5653,4.0100,5.5060,0.8756,4.3475,6.7328
1226.5625,2.1983,5.0934,7.5851,5.7005,5.6618,2.4195,5.3034,2.4221,3.9045,-5.4766,4.8892,7.6403,4.2595,2.4105,4.2167,6.8199,0.6007,4.0944,8.5027
1230.4688,-0.9241,5.9474,7.5269,5.0146,5.2757,-1.5208,4.4324,1.5598,2.9093,-7.9131,3.1266,7.1897,3.6972,2.0495,3.3794,4.7528,-0.0114,2.9143,8.3052
1234.3750,-2.5476,3.0478,5.6125,3.6001,4.4209,-5.5420,2.8619,0.7246,1.5026,-8.9044,0.2313,4.3110,2.7471,1.5917,1.6494,0.2321,-0.5144,1.1991,6.2263
1238.2812,-2.1024,-2.3987,2.4948,1.8853,3.4083,-7.8701,0.8006,0.1662,0.1686,-8.0329,-2.7265,-0.0712,1.7346,1.0977,-0.6368,-4.6762,-0.6915,-0.5588,3.0917
1242.1875,-0.2289,-7.7716,-0.7575,0.3844,2.5114,-7.7006,-1.5591,-0.0953,-0.8749,-5.5938,-4.8610,-4.4319,0.8454,0.6310,-3.0242,-7.8257,-0.6510,-1.9133,0.0594
1246.0938,1.6618,-10.3888,-3.1028,-0.5045,1.8580,-5.5484,-3.8914,-0.2232,-1.6585,-2.5089,-5.8019,-7.3163,0.1059,0.2923,-5.0184,-8.0745,-0.7069,-2.6024,-1.9280
1250.0000,2.3191,-8.9982,-3.9727,-0.6661,1.3998,-2.6917,-5.6778,-0.4277,-2.2981,0.0773,-5.6862,-7.9583,-0.5409,0.1912,-6.1930,-5.8075,-1.1213,-2.6184,-2.5370
1253.9062,1.4391,-4.4767,-3.4730,-0.2848,0.9832,-0.2061,-6.3580,-0.8102,-2.8218,1.2996,-4.8941,-6.5242,-1.1146,0.3794,-6.3165,-2.6207,-1.8780,-2.1683,-2.0799
1257.8125,-0.2143,0.7224,-2.2202,0.3061,0.4869,1.6613,-5.6302,-1.2726,-3.1111,0.9034,-3.7565,-3.8887,-1.5163,0.8130,-5.4541,-0.3673,-2.6412,-1.5399,-1.2135
1261.7188,-1.3890,4.0253,-0.9204,0.8397,-0.0596,3.3687,-3.6871,-1.5543,-2.9871,-0.7262,-2.4317,-1.1156,-1.5508,1.3827,-3.9791,-0.1294,-2.9398,-0.9488,-0.5109
1265.6250,-1.1860,4.1799,0.0328,1.2424,-0.4635,5.4278,-1.1896,-1.3914,-2.3712,-2.7935,-0.9863,1.0323,-1.0509,1.9831,-2.4533,-1.7045,-2.4665,-0.4562,-0.1714
1269.5312,0.4162,1.8129,0.6856,1.5922,-0.4836,7.8313,1.0362,-0.7135,-1.3970,-4.4253,0.4468,2.3022,-0.0290,2.5566,-1.3999,-3.8740,-1.2978,0.0035,-0.0164
1273.4375,2.6540,-1.1598,1.3182,1.9643,-0.0061,10.0258,2.3866,0.2484,-0.3822,-4.9694,1.6050,2.8374,1.2541,3.0730,-1.0666,-5.2389,0.1170,0.5224,0.2767
1277.3438,4.5366,-2.7972,2.0930,2.3101,0.8424,11.3805,2.6949,1.0399,0.3328,-4.1949,2.2005,2.9059,2.3737,3.4739,-1.3050,-5.0778,1.1990,1.1304,0.8955
1281.2500,5.4360,-2.2434,2.8376,2.4839,1.7322,11.6818,2.1558,1.2287,0.5786,-2.3697,2.1118,2.6903,2.9489,3.6529,-1.6542,-3.7040,1.5632,1.7811,1.7581
1285.1562,5.3344,-0.0535,3.1342,2.3930,2.3096,11.2041,1.0690,0.6816,0.4548,-0.1876,1.5022,2.2563,2.8527,3.5132,-1.6045,-2.1397,1.2152,2.4041,2.5864
1289.0625,4.6551,2.3325,2.6418,2.1278,2.4021,10.3298,-0.3595,-0.3147,0.2625,1.4848,0.7544,1.6506,2.2851,3.0625,-0.9075,-1.3720,0.5008,2.9561,3.0993
1292.9688,3.8968,3.5227,1.3993,1.9291,2.1046,9.1120,-2.0031,-1.1978,0.3122,1.9945,0.2549,0.9889,1.6468,2.4527,0.2544,-1.7018,-0.1453,3.4102,3.1687
1296.8750,3.3555,2.9150,-0.1310,1.9805,1.6801,7.2220,-3.6432,-1.4815,0.7291,1.2524,0.1742,0.4346,1.2806,1.8972,1.3548,-2.6002,-0.4766,3.6873,2.8364
1300.7812,3.0722,0.8766,-1.3227,2.1792,1.3345,4.3538,-4.8642,-1.1035,1.3797,-0.1784,0.3954,0.0862,1.2403,1.5019,1.8347,-3.1319,-0.5577,3.6035,2.2077
1304.6875,2.9411,-1.6259,-1.7690,2.0896,1.0273,0.7157,-5.1877,-0.5299,1.9596,-1.3759,0.6294,-0.1185,1.2403,1.1391,1.4525,-2.6298,-0.6693,2.9129,1.3292
1308.5938,2.8332,-3.6418,-1.5224,1.1721,0.4652,-2.8813,-4.4007,-0.5145,2.1803,-1.6069,0.6258,-0.3886,0.8273,0.4914,0.4482,-1.1675,-1.0836,1.4590,0.1582
1312.5000,2.6499,-4.7305,-1.0334,-0.8296,-0.6950,-5.4892,-2.8212,-1.6303,1.9309,-0.7898,0.3261,-0.9564,-0.3234,-0.7247,-0.5960,0.4667,-1.8708,-0.6568,-1.3564
1316.4062,2.3298,-5.1003,-0.8467,-3.6069,-2.5574,-6.6947,-1.2389,-3.8580,1.3210,0.4597,-0.1330,-1.9318,-2.1672,-2.4930,-1.1148,1.2544,-2.8560,-3.0165,-3.1472
1320.3125,1.8629,-5.3613,-1.2658,-6.3335,-4.8132,-6.9229,-0.5008,-6.5037,0.5951,1.2623,-0.5429,-3.2328,-4.2551,-4.3928,-0.9044,0.5748,-3.7335,-5.0180,-4.9633
1324.2188,1.3138,-6.0515,-2.2030,-8.0601,-6.8236,-7.0679,-0.9986,-8.5268,-0.0143,1.0934,-0.7641,-4.6200,-5.9328,-5.7705,-0.2155,-1.3967,-4.2416,-6.1489,-6.4235
1328.1250,0.7986,-7.2093,-3.2831,-8.2332,-7.9396,-7.7045,-2.4292,-9.1015,-0.4045,0.1324,-0.7842,-5.7878,-6.6644,-6.1124,0.4639,-3.7260,-4.2894,-6.2523,-7.1690
1332.0312,0.3889,-8.2625,-4.1048,-7.0190,-7.8737,-8.5181,-4.0177,-8.0817,-0.6399,-0.9342,-0.6758,-6.4442,-6.3027,-5.3840,0.7726,-5.1513,-3.9804,-5.6188,-7.0300
1335.9375,0.0063,-8.3553,-4.4862,-5.2232,-6.8904,-8.4575,-5.0543,-6.0884,-0.9126,-1.5122,-0.5223,-6.3630,-5.1586,-4.0954,0.7107,-4.6831,-3.5508,-4.8401,-6.1212
1339.8438,-0.5660,-6.9756,-4.5546,-3.8507,-5.6793,-6.5554,-5.3561,-4.1659,-1.4581,-1.6297,-0.3896,-5.4414,-3.8388,-3.0229,0.5635,-2.1057,-3.2723,-4.5019,-4.8202
1343.7500,-1.5056,-4.4969,-4.6558,-3.5707,-4.9717,-2.8133,-5.3203,-3.2154,-2.4568,-1.9480,-0.3635,-3.7925,-2.9411,-2.7461,0.5740,1.8181,-3.3567,-4.8891,-3.6410
1347.6562,-2.7144,-2.2151,-5.1459,-4.3983,-5.1295,1.5404,-5.5476,-3.5418,-3.9378,-3.2012,-0.5944,-1.8299,-2.7738,-3.2980,0.6333,5.5310,-3.8771,-5.8651,-3.0530
1351.5625,-3.7385,-1.7182,-6.1777,-5.7612,-5.9571,4.6601,-6.3438,-4.7687,-5.7076,-5.4795,-1.2696,-0.2409,-3.2410,-4.1577,0.2680,7.2306,-4.7183,-6.9797,-3.3098
1355.4688,-3.9871,-3.8849,-7.5791,-6.8810,-6.8544,5.1594,-7.4887,-6.1428,-7.3523,-7.9423,-2.4941,0.2313,-3.9463,-4.5974,-1.0166,5.6301,-5.5902,-7.7328,-4.3498
1359.3750,-3.1558,-8.1467,-8.8891,-7.2270,-7.2127,2.9137,-8.4418,-7.0174,-8.3564,-9.2547,-4.1483,-0.8551,-4.4463,-4.1591,-3.2660,0.6452,-6.1325,-7.8422,-5.8095
1363.2812,-1.5528,-12.5876,-9.5597,-6.7830,-6.7996,-0.9326,-8.7990,-7.2098,-8.3321,-8.4941,-5.8442,-3.3335,-4.5068,-2.9541,-5.8527,-6.3434,-6.0915,-7.3804,-7.1605
1367.1875,-0.0319,-14.9538,-9.2549,-6.0019,-5.8840,-4.6975,-8.6221,-7.0327,-7.2631,-5.8816,-7.0515,-6.4010,-4.2166,-1.5945,-7.7293,-12.8962,-5.4822,-6.7241,-7.9251
1371.0938,0.4994,-14.0160,-8.1025,-5.5087,-5.0261,-7.0839,-8.3683,-7.0098,-5.6125,-2.7776,-7.3578,-8.9549,-3.8983,-0.8083,-8.0546,-16.5282,-4.6221,-6.3592,-7.8840
1375.0000,-0.3072,-10.4100,-6.7327,-5.7365,-4.6730,-7.6964,-8.4783,-7.4809,-4.1857,-0.8954,-6.7201,-10.1456,-3.8814,-0.9858,-6.7820,-15.8941,-3.9831,-6.6431,-7.1708
1378.9062,-1.9527,-6.3575,-6.0180,-6.6922,-4.8352,-6.9370,-8.9573,-8.3486,-3.7725,-1.2569,-5.5474,-9.8241,-4.2829,-1.9414,-4.7810,-11.5061,-3.9284,-7.6366,-6.1977
1382.8125,-3.3764,-4.3808,-6.5985,-7.9585,-5.0626,-5.5287,-9.3016,-9.1118,-4.7457,-3.6042,-4.5397,-8.5934,-4.9410,-3.0263,-3.3497,-5.5193,-4.4973,-9.0731,-5.4422
1386.7188,-3.6605,-5.7990,-8.4461,-8.9065,-4.7388,-4.0994,-8.8494,-9.1487,-6.8433,-6.6542,-4.3477,-7.4130,-5.5382,-3.5055,-3.3995,-0.6285,-5.3831,-10.4695,-5.2052
1390.6250,-2.6735,-9.9414,-10.7498,-8.9968,-3.4989,-3.0697,-7.3074,-8.0620,-9.2708,-8.9750,-5.2293,-6.9983,-5.8260,-2.9636,-4.8462,1.3224,-6.1247,-11.3225,-5.4721
1394.5312,-1.1894,-14.5419,-12.2490,-8.0182,-1.4909,-2.7483,-5.0516,-5.8865,-11.0679,-9.8426,-6.8845,-7.4002,-5.7879,-1.5099,-6.6308,0.1934,-6.3834,-11.3008,-5.9475
1398.4375,-0.3777,-17.0212,-11.8701,-6.1608,0.6901,-3.3648,-2.9610,-3.0593,-11.5282,-9.4966,-8.5662,-8.0364,-5.6241,0.3070,-7.3806,-2.6408,-6.1167,-10.3518,-6.2326
1402.3438,-0.9979,-15.8426,-9.3136,-3.9063,2.3443,-4.9017,-1.8766,-0.2042,-10.4486,-8.6934,-9.4152,-8.1431,-5.5751,1.7878,-6.2926,-5.3582,-5.5464,-8.6881,-6.0367
1406.2500,-2.8405,-11.1850,-5.2457,-1.8116,3.0536,-6.8669,-2.0493,2.1230,-8.1139,-7.9745,-8.8602,-7.3302,-5.7230,2.3935,-3.6595,-6.8823,-4.9751,-6.6778,-5.3065
1410.1562,-4.7844,-4.6885,-0.9797,-0.2980,2.8586,-8.2942,-2.9535,3.5884,-5.0955,-7.2339,-6.8872,-5.8600,-5.9308,1.9257,-0.6976,-7.3847,-4.6113,-4.7049,-4.2212
1414.0625,-5.4259,1.4129,2.1639,0.4588,2.1310,-8.1209,-3.5972,4.0894,-2.0246,-5.8816,-4.0512,-4.4610,-5.9702,0.5276,1.2091,-7.7931,-4.5282,-3.0622,-3.0808
1417.9688,-3.8732,5.2246,3.4518,0.5163,1.2628,-5.7713,-3.1324,3.6783,0.5510,-3.4196,-1.2230,-3.8110,-5.7312,-1.4341,1.3538,-8.7425,-4.7447,-1.9012,-2.1625
1421.8750,-0.2331,5.8021,2.9841,0.0770,0.4103,-1.5621,-1.3820,2.4982,2.2359,0.0534,0.8062,-4.0493,-5.3341,-3.5126,0.1071,-9.8228,-5.2997,-1.2239,-1.6133
1425.7812,4.4537,3.3606,1.5257,-0.6029,-0.5255,3.3759,1.0419,0.7854,2.8559,3.7932,1.6734,-4.6552,-5.0327,-5.2908,-1.3584,-9.7525,-6.2028,-0.8901,-1.4098
1429.6875,8.7281,-0.8339,0.0847,-1.2649,-1.6947,7.6356,3.0987,-1.0968,2.5530,6.8151,1.5755,-4.7783,-4.9757,-6.4548,-1.8131,-7.3919,-7.2871,-0.6408,-1.3826
1433.5938,11.3553,-4.8388,-0.5130,-1.6768,-3.0566,10.1940,3.9419,-2.6794,1.8213,8.4103,1.1193,-3.8044,-5.0288,-6.8583,-0.7058,-2.8363,-8.1258,-0.1674,-1.2950
1437.5000,11.7767,-6.6857,0.1092,-1.6796,-4.3093,10.7922,3.4355,-3.5206,1.3620,8.3980,0.9649,-1.7878,-4.8384,-6.5753,1.5423,2.2840,-8.1707,0.7537,-0.9600
1441.4062,10.2114,-5.2095,1.7979,-1.2690,-5.0607,9.8576,2.2519,-3.4098,1.7341,7.0017,1.4468,0.5272,-4.1316,-5.9025,3.8173,5.6178,-7.0996,2.0994,-0.3607
1445.3125,7.4398,-0.7132,3.9330,-0.6586,-5.1136,8.1057,1.4702,-2.5148,2.9675,4.5602,2.3761,2.1081,-3.0323,-5.2613,4.9469,5.5242,-5.1455,3.5140,0.2864
1449.2188,4.4090,4.9969,5.6096,-0.2428,-4.6370,6.1336,1.8775,-1.3442,4.4190,1.3784,3.1371,2.2083,-2.1185,-5.0050,4.3064,2.1446,-3.1215,4.4017,0.5887
1453.1250,1.8388,9.4207,5.9407,-0.4202,-4.0776,4.2432,3.3713,-0.5007,5.0518,-2.1643,3.0322,0.7720,-2.1019,-5.2141,2.0867,-2.6383,-2.0272,4.2104,0.1679
1457.0312,-0.0122,10.6799,4.4383,-1.3441,-3.8576,2.5152,4.8510,-0.3506,4.0484,-5.4218,1.6935,-1.5527,-3.3064,-5.6117,-0.8570,-6.3336,-2.4327,2.7754,-1.0951
1460.9375,-1.3122,8.5447,1.3202,-2.7593,-4.0780,0.9850,4.7482,-0.8139,1.3898,-7.4957,-0.6655,-3.7704,-5.3101,-5.6839,-3.4299,-7.2984,-4.0474,0.5099,-2.9070
1464.8438,-2.3658,4.4459,-2.4644,-4.0643,-4.4425,-0.2381,1.9787,-1.4243,-2.0016,-7.5876,-3.2997,-5.0386,-7.0537,-4.9713,-4.7577,-5.5567,-5.8040,-1.7189,-4.6257
1468.7500,-3.2289,0.4061,-5.6000,-4.6103,-4.4648,-0.9648,-3.2088,-1.6393,-4.7065,-5.5009,-5.2623,-5.0251,-7.4088,-3.3745,-4.4855,-2.5080,-6.4576,-3.0025,-5.5434
1472.6562,-3.5059,-2.3643,-7.0254,-4.0745,-3.8081,-0.9969,-9.0406,-1.2040,-5.5927,-1.9158,-5.8418,-3.9552,-5.8636,-1.2775,-2.8305,0.1552,-5.3294,-2.8665,-5.2458
1476.5625,-2.5379,-4.1524,-6.4644,-2.6709,-2.5135,-0.2315,-12.9247,-0.3257,-4.4408,1.8282,-4.8782,-2.3768,-2.8685,0.6149,-0.4145,1.5043,-2.7060,-1.5156,-3.8302
1480.4688,0.0550,-6.1636,-4.5219,-1.0449,-0.9621,1.2154,-12.7707,0.4637,-2.0054,4.3661,-2.8052,-0.8233,0.4083,1.6490,2.0289,1.7081,0.3712,0.3122,-1.8443
1484.3750,3.8265,-9.1275,-2.2641,0.0945,0.3865,2.8893,-8.2107,0.6684,0.5132,4.9702,-0.4144,0.4155,2.7668,1.5876,3.9476,1.5485,2.7719,1.7905,0.0184
1488.2812,7.4090,-12.2558,-0.5537,0.3709,1.2766,3.9786,-0.9744,0.1647,2.2038,3.8222,1.5176,1.3104,3.6490,0.7351,5.1436,1.6234,3.9311,2.4565,1.2692
1492.1875,9.0965,-13.5231,0.4040,-0.0881,1.7533,3.5290,5.8842,-0.7205,2.8821,1.7533,2.5452,1.9387,3.3618,-0.2624,5.7489,1.8913,4.0574,2.3822,1.8017
1496.0938,7.8563,-11.2138,1.0012,-0.8026,2.0266,0.9232,9.5349,-1.4401,2.9660,-0.3194,2.6719,2.3111,2.7302,-0.8183,6.0235,1.8508,3.8002,1.9804,1.8104
1500.0000,4.1226,-5.5862,1.7317,-1.2863,2.2336,-3.5766,8.8229,-1.5962,2.9553,-1.8471,2.2454,2.3190,2.4609,-0.7481,6.0975,1.1086,3.6737,1.6260,1.5508
1503.9062,-0.2423,0.7502,2.6697,-1.3333,2.3006,-8.6040,4.7858,-1.1844,2.9632,-2.7160,1.7225,1.8408,2.6825,-0.3295,5.8348,-0.1913,3.6911,1.3902,1.1456
1507.8125,-2.9371,4.2717,3.3444,-1.0601,2.0166,-12.0965,-0.0502,-0.5460,2.6740,-2.9826,1.4389,0.9171,2.9673,-0.0486,4.9351,-1.4316,3.4626,1.0786,0.5787
1511.7188,-2.6065,2.9199,3.1181,-0.7148,1.2484,-12.2825,-3.1426,-0.0793,1.7356,-2.5890,1.4897,-0.1577,2.7714,-0.2173,3.2353,-1.9879,2.6355,0.5085,-0.1502
1515.6250,0.2780,-2.2987,1.7631,-0.4381,0.1155,-8.7464,-3.2778,0.0594,0.2294,-1.3544,1.7465,-0.9265,1.9211,-0.7333,1.0073,-1.6800,1.2870,-0.2304,-0.8764
1519.5312,3.6740,-7.7835,-0.2345,-0.1768,-1.0252,-2.8813,-1.0260,0.0402,-1.2115,0.7321,1.9646,-1.0159,0.7678,-1.1517,-0.9917,-0.8354,-0.0625,-0.7734,-1.2870
1523.4375,5.2482,-9.7099,-1.9094,0.2002,-1.7777,2.6767,1.8608,0.1751,-1.7840,3.1879,1.9048,-0.3828,-0.0931,-1.0119,-1.8260,0.0522,-0.8312,-0.7585,-1.1147
1527.3438,3.8602,-6.6915,-2.4368,0.7130,-1.9351,5.4143,3.6222,0.6266,-1.1290,5.0275,1.4169,0.6136,-0.2926,-0.1753,-0.9125,0.7432,-0.8382,-0.1618,-0.3577
1531.2500,0.2703,-0.8242,-1.6744,1.2001,-1.5607,4.3294,3.4684,1.2541,0.3069,5.1962,0.4745,1.3909,0.0359,1.0736,1.5456,1.3801,-0.4594,0.5992,0.6691
1535.1562,-3.3882,3.6947,-0.2241,1.4470,-0.8682,0.4853,1.8290,1.7266,1.4845,3.2238,-0.8131,1.4828,0.4020,2.2395,4.5373,2.2318,-0.3284,0.9178,1.5232
1539.0625,-4.9908,3.4479,1.0223,1.4085,-0.0078,-3.6361,-0.1315,1.8167,1.4587,-0.3369,-2.1934,0.8328,0.4059,2.9819,6.7103,3.3081,-0.7976,0.4425,1.9396
1542.9688,-3.7178,-1.8308,1.4986,1.3202,1.0555,-5.5895,-1.2930,1.6327,0.0659,-4.0341,-3.2795,-0.1544,0.1286,3.3561,7.0961,4.2148,-1.5796,-0.6192,2.0237
1546.8750,-0.4323,-9.0445,1.2856,1.5713,2.4637,-4.3302,-1.1333,1.5875,-1.8907,-6.1988,-3.6148,-0.8474,0.1362,3.7433,5.6658,4.4097,-1.8716,-1.5898,2.1702
1550.7812,3.0226,-13.7943,0.9345,2.4086,4.2467,-0.6696,0.1955,2.1059,-3.1171,-5.8161,-2.8232,-0.7697,1.0617,4.5133,3.3716,3.6632,-0.9126,-1.7711,2.7544
1554.6875,5.0360,-13.2432,0.9814,3.6967,6.1453,3.3895,2.1541,3.2819,-2.6628,-3.0762,-0.8181,0.1077,3.0573,5.6725,1.6249,2.3355,1.4080,-0.9443,3.8167
1558.5938,5.1054,-7.8243,1.5595,4.9394,7.6420,5.9406,4.1658,4.7508,-0.5543,0.7167,2.0295,1.3480,5.5264,6.7720,1.5061,1.2122,4.3277,0.4412,4.9772
1562.5000,3.8702,-0.7363,2.3913,5.5750,8.2166,6.2482,5.8040,5.8886,2.1884,3.8210,4.8942,2.3084,7.3612,7.1701,3.1669,0.9941,6.5593,1.5389,5.6541
1566.4062,2.4368,4.2593,3.1048,5.3464,7.6692,4.9885,6.8057,6.2073,4.1550,4.9290,6.7455,2.5115,7.5652,6.4849,5.7607,1.8142,7.0118,1.6561,5.4377
1570.3125,1.5858,5.1324,3.5617,4.4809,6.2945,3.6194,7.0401,5.6688,4.3630,3.7559,6.7847,1.8998,5.8704,4.9245,7.9246,3.1451,5.4366,0.7087,4.3670
1574.2188,1.4176,2.4856,3.9077,3.5524,4.7814,3.3718,6.5396,4.6994,2.7778,1.0641,4.8736,0.8361,2.9581,3.2567,8.5121,4.1606,2.6021,-0.7266,2.9278
1578.1250,1.5642,-1.3011,4.3349,3.1310,3.8927,4.5152,5.5623,3.9052,0.2527,-1.8292,1.7096,-0.1203,0.1445,2.4204,7.1608,4.2812,-0.0973,-1.7794,1.7929
1582.0312,1.6582,-3.8315,4.8092,3.4732,4.1156,6.2955,4.5751,3.7018,-2.0083,-3.7469,-1.4041,-0.5003,-1.2742,3.0205,4.4077,3.5124,-1.3548,-1.8060,1.4904
1585.9375,1.6314,-4.0570,5.0463,4.4554,5.4750,7.4937,4.0906,4.1147,-3.0894,-4.1707,-3.1283,-0.1062,-0.6356,5.0212,1.3481,2.3636,-0.5759,-0.7174,2.2036
1589.8438,1.6527,-2.4649,4.7811,5.7546,7.5833,7.2131,4.4269,4.8599,-2.7311,-3.3534,-2.7279,0.9824,1.8397,7.8074,-0.9157,1.4573,1.9066,1.0696,3.7829
1593.7500,1.8615,-0.2743,4.0903,7.0936,9.8518,5.4327,5.5462,5.6030,-1.2866,-2.0329,-0.4369,2.5217,5.2479,10.5409,-1.7228,1.1442,5.0884,2.9651,5.8888
1597.6562,2.1927,1.5447,3.4512,8.3484,11.7180,3.0425,7.0795,6.1751,0.6075,-0.9520,2.6655,4.2266,8.4809,12.5656,-0.9980,1.3909,7.8295,4.5563,8.1280
1601.5625,2.4495,2.7125,3.4327,9.4591,12.7836,1.3699,8.5084,6.5938,2.3883,-0.4529,5.2154,5.8317,10.7011,13.6234,0.8941,1.9675,9.3683,5.7431,10.1029
1605.4688,2.5164,3.4219,4.2387,10.2725,12.8561,1.4499,9.3660,6.9150,3.7567,-0.3366,6.2596,7.0998,11.5933,13.8094,3.4210,2.7280,9.5781,6.6213,11.4155
1609.3750,2.4758,3.8767,5.4815,10.5084,11.9529,3.4146,9.3397,7.0842,4.6662,-0.0324,5.7057,7.8398,11.3374,13.3778,6.0940,3.7393,8.8946,7.2673,11.7231
1613.2812,2.5103,4.0672,6.4030,9.9234,10.3140,6.3283,8.2766,6.9376,5.2009,1.0271,4.2922,7.9670,10.3964,12.5758,8.5319,5.1614,8.0084,7.6192,10.8821
1617.1875,2.6962,3.8991,6.4095,8.5562,8.4000,8.6003,6.1869,6.3603,5.4598,3.0145,3.1235,7.5740,9.2680,11.6042,10.4175,6.9888,7.4987,7.5378,9.1047
1621.0938,2.9118,3.4219,5.5174,6.8338,6.8077,8.8133,3.3190,5.4507,5.5038,5.4954,3.0556,6.9351,8.3097,10.6617,11.4576,8.8701,7.5807,6.9663,6.9820
1625.0000,2.9685,2.8504,4.3596,5.4023,6.0675,6.5461,0.2515,4.5233,5.3547,7.5195,4.2758,6.4003,7.6722,9.9544,11.4227,10.1537,8.0595,6.0351,5.2866
1628.9062,2.8452,2.3498,3.7337,4.7583,6.3843,2.7093,-2.1498,3.9122,5.0162,8.0078,6.2781,6.2160,7.3169,9.6038,10.2619,10.1554,8.4839,5.0177,4.6187
1632.8125,2.7812,1.8409,4.0296,4.9301,7.4697,-0.8653,-3.0146,3.7141,4.5017,6.2892,8.1965,6.3848,7.0788,9.5114,8.2108,8.5079,8.4042,4.1762,5.0914
1636.7188,3.1025,1.0806,4.9649,5.4483,8.6058,-2.4105,-1.9084,3.6833,3.8694,2.5393,9.2706,6.6680,6.7466,9.3219,5.8009,5.4192,7.6008,3.6262,6.2573
1640.6250,3.9135,-0.0203,5.8223,5.6493,8.9644,-1.2277,0.8367,3.3934,3.2556,-2.1222,9.1919,6.7451,6.1456,8.5795,3.7370,1.7212,6.1739,3.3216,7.3446
1644.5312,4.9446,-1.1563,5.9972,5.1159,8.0445,1.9110,4.1710,2.5721,2.8745,-5.9854,8.1863,6.4389,5.2124,7.0278,2.6817,-1.3303,4.4640,3.1611,7.6780
1648.4375,5.7417,-1.7635,5.4404,3.9640,5.9909,5.2345,6.8112,1.3738,2.9567,-7.4504,6.8518,5.8594,4.0459,4.8620,3.0347,-2.4632,2.8708,3.1165,7.0493
1652.3438,6.0734,-1.4866,4.6769,2.7853,3.5976,7.0298,7.9097,0.3771,3.6366,-5.7652,5.8732,5.3714,2.9126,2.7408,4.7916,-0.8915,1.6858,3.2814,5.8284
1656.2500,6.2004,-0.5792,4.4125,2.2977,1.9645,6.6093,7.4935,0.2812,4.8473,-1.4279,5.7497,5.4013,2.1922,1.5021,7.5244,3.2691,1.0343,3.8054,4.7674
1660.1562,6.7120,0.1809,5.0400,2.9366,1.9687,4.5729,6.3750,1.4866,6.3001,3.9797,6.6231,6.1975,2.2627,1.7313,10.4841,8.8847,0.9346,4.7757,4.6146
1664.0625,7.9851,0.0981,6.3990,4.6354,3.8233,2.2490,5.5759,3.8285,7.5773,8.4778,8.2392,7.6855,3.3526,3.4365,12.8005,14.1223,1.3948,6.1302,5.7471
1667.9688,9.6793,-0.7598,7.9235,6.8911,6.9491,0.7621,5.6351,6.6248,8.3015,10.5601,10.0430,9.4896,5.4062,6.0324,13.7377,17.1492,2.4440,7.6547,7.9950
1671.8750,10.7349,-1.4054,9.0176,9.0220,10.2200,0.4081,6.2587,8.9976,8.2876,9.8074,11.3854,11.0942,8.0249,8.6336,12.9505,16.9272,4.0518,9.0453,10.7122
1675.7812,9.9967,-0.5485,9.3665,10.4332,12.4485,0.7364,6.5453,10.2597,7.6000,6.9438,11.7816,12.0447,10.5292,10.4713,10.6549,13.6971,5.9944,9.9855,13.0343
1679.6875,7.0872,2.3845,8.9931,10.7595,12.8637,1.1739,5.6374,10.1493,6.4922,3.3470,11.1186,12.0850,12.1478,11.1818,7.6174,8.8635,7.7890,10.2068,14.1930
1683.5938,2.8879,6.5854,8.0972,9.8798,11.3648,1.6151,3.3670,8.8242,5.2756,0.3268,9.6986,11.1835,12.2738,10.8232,4.9099,4.3030,8.7910,9.5341,13.7665
1687.5000,-0.8008,10.1259,6.8679,7.8792,8.4612,2.4673,0.4692,6.6839,4.1903,-1.4213,8.0705,9.4670,10.6857,9.6632,3.4796,1.4555,8.4450,7.9295,11.7832
1691.4062,-2.2869,11.0651,5.4259,5.0245,4.9753,4.1206,-1.7832,4.1681,3.3288,-1.9307,6.7175,7.1258,7.6301,7.9240,3.7039,0.6925,6.5602,5.5272,8.6660
1695.3125,-1.0560,8.6819,3.8940,1.7446,1.6795,6.3160,-2.3072,1.6412,2.6279,-1.6855,5.7767,4.3502,3.7216,5.6684,5.1643,1.2938,3.4483,2.6218,5.0505
1699.2188,1.8431,3.9827,2.4615,-1.4391,-0.9596,8.0043,-0.8666,-0.6303,1.9135,-1.2103,4.9698,1.3244,-0.2929,2.8854,6.7989,1.9987,-0.1723,-0.4109,1.5562
1703.1250,4.3854,-0.8829,1.3294,-4.0531,-2.8425,7.9079,1.7225,-2.4652,0.9841,-0.8125,3.8055,-1.7340,-3.7881,-0.3150,7.4085,1.7707,-3.4652,-3.2324,-1.3990
1707.0312,4.7752,-3.9092,0.5557,-5.8281,-4.1243,5.4255,3.9574,-3.7756,-0.2841,-0.5813,1.9409,-4.5333,-6.4135,-3.5655,6.2762,0.3296,-5.8032,-5.6260,-3.6714
1710.9375,2.5123,-4.3746,-0.0554,-6.7687,-5.0241,1.2010,4.3901,-4.5876,-1.8372,-0.5335,-0.5304,-6.7131,-8.0882,-6.2809,3.5667,-1.8044,-6.9649,-7.4879,-5.3318
1714.8438,-1.3376,-3.1183,-0.8858,-7.0798,-5.6673,-3.1105,2.3635,-5.0328,-3.4000,-0.7100,-3.0544,-7.9243,-8.8804,-7.8711,0.2676,-3.6954,-7.1156,-8.7386,-6.5244
1718.7500,-4.7991,-1.8551,-2.2631,-6.9974,-6.0323,-5.7717,-1.6206,-5.2830,-4.5390,-1.1218,-4.8888,-7.9674,-8.8751,-8.0150,-2.3074,-4.5220,-6.6183,-9.2490,-7.3327
1722.6562,-6.1241,-2.0505,-4.2026,-6.6520,-6.0132,-5.9627,-6.0832,-5.4589,-4.8368,-1.6251,-5.5028,-6.9254,-8.1256,-6.8473,-3.1800,-3.9566,-5.8109,-8.8764,-7.7316
1726.5625,-4.7204,-4.0910,-6.3230,-6.0672,-5.5513,-4.1759,-9.2194,-5.5805,-4.1088,-1.8982,-4.8634,-5.2090,-6.7137,-4.9596,-2.1608,-2.2512,-4.8805,-7.6197,-7.6483
1730.4688,-1.3752,-7.1897,-8.0117,-5.2868,-4.7571,-1.7707,-9.7301,-5.6021,-2.5415,-1.6117,-3.4380,-3.4509,-4.8532,-3.2103,0.1400,-0.0715,-3.8850,-5.7788,-7.0819
1734.3750,2.2596,-9.9447,-8.7425,-4.5042,-3.9492,-0.0463,-7.4549,-5.5053,-0.6514,-0.6979,-1.9323,-2.2715,-2.9379,-2.4170,2.7076,1.7856,-2.8677,-3.9551,-6.1940
1738.2812,4.5469,-11.1092,-8.3465,-4.0578,-3.5687,0.5043,-3.5005,-5.3712,0.9364,0.5024,-0.9374,-2.0155,-1.4658,-3.0488,4.6496,2.6702,-1.9571,-2.8226,-5.3015
1742.1875,4.6098,-10.1281,-7.0808,-4.2564,-3.9914,0.2862,0.2242,-5.3614,1.7756,1.3815,-0.6948,-2.6053,-0.8569,-5.0365,5.5379,2.2872,-1.3691,-2.7715,-4.7631
1746.0938,2.6115,-7.2643,-5.4769,-5.1479,-5.3197,0.0800,1.8811,-5.6151,1.7824,1.4393,-1.0831,-3.6033,-1.2618,-7.7815,5.4180,0.7914,-1.3058,-3.6609,-4.8128
1750.0000,-0.4707,-3.4077,-4.0822,-6.4136,-7.2677,0.3687,0.5817,-6.1361,1.2053,0.6332,-1.7844,-4.4615,-2.4729,-10.3761,4.5735,-1.2672,-1.8256,-4.8799,-5.4316
1753.9062,-3.3807,0.2512,-3.2432,-7.4951,-9.2262,1.0208,-3.1663,-6.7645,0.4105,-0.5652,-2.4909,-4.8173,-4.0020,-11.9622,3.2801,-3.1613,-2.7771,-5.7190,-6.3250
1757.8125,-5.1453,2.5697,-3.0198,-7.8952,-10.5034,1.4975,-7.6903,-7.2601,-0.3657,-1.4728,-3.0271,-4.6570,-5.2899,-12.0814,1.7262,-4.3010,-3.8495,-5.8210,-7.0283
1761.7188,-5.4267,2.7927,-3.2273,-7.4570,-10.6370,1.3372,-10.9666,-7.4402,-1.1232,-1.6433,-3.3511,-4.2521,-5.9378,-10.8507,0.1044,-4.4940,-4.7113,-5.3957,-7.0966
1765.6250,-4.5446,0.8347,-3.5511,-6.4284,-9.6106,0.5062,-11.6047,-7.2721,-1.9909,-1.1298,-3.4831,-3.9185,-5.8411,-8.8683,-1.2806,-3.9917,-5.1538,-5.0279,-6.2981
1769.5312,-3.1857,-2.6222,-3.6769,-5.2675,-7.8461,-0.6242,-9.4808,-6.8563,-2.9927,-0.3654,-3.4350,-3.7681,-5.1625,-6.8896,-2.0401,-3.2730,-5.1555,-5.1967,-4.7213
1773.4375,-1.9585,-6.3456,-3.4002,-4.3275,-5.9664,-1.5804,-5.6865,-6.3220,-3.8749,0.2277,-3.1861,-3.6267,-4.1814,-5.4470,-1.8825,-2.6981,-4.8411,-5.8472,-2.7405
1777.3438,-1.0381,-9.0623,-2.6918,-3.6412,-4.4635,-2.0732,-1.8436,-5.7248,-4.1541,0.5744,-2.7023,-3.1729,-3.1251,-4.6260,-0.8076,-2.2647,-4.3789,-6.3447,-0.8513
1781.2500,-0.1233,-10.0216,-1.6982,-2.9551,-3.4706,-2.0505,0.8013,-5.0244,-3.3970,0.9353,-1.9770,-2.2003,-2.0923,-4.1201,0.8539,-1.6448,-3.8934,-5.8804,0.5502
1785.1562,1.2372,-9.2819,-0.6699,-1.9738,-2.7729,-1.5523,1.9630,-4.1542,-1.5718,1.5483,-1.0737,-0.8156,-1.1038,-3.5108,2.6006,-0.4801,-3.4468,-4.0718,1.3281
1789.0625,3.1384,-7.5347,0.1534,-0.6305,-2.0371,-0.5891,2.2546,-3.1179,0.7644,2.2219,-0.1577,0.5678,-0.2225,-2.5798,4.0010,1.2785,-3.0772,-1.3369,1.6220
1792.9688,4.9924,-5.5944,0.6345,0.8139,-1.0924,0.7852,2.5564,-2.0289,2.6068,2.2629,0.5040,1.4407,0.3720,-1.4455,4.8253,3.2369,-2.8362,1.2391,1.7084
1796.8750,5.6844,-3.9235,0.7529,1.9125,-0.0651,2.2666,3.2584,-1.0625,2.9460,0.8797,0.6065,1.4761,0.4384,-0.4474,4.9850,4.7314,-2.7740,2.4906,1.7956
1800.7812,4.2169,-2.5311,0.5414,2.3070,0.7244,3.2140,3.9045,-0.3615,1.2979,-2.1701,-0.0566,0.6982,-0.1561,0.1180,4.3820,5.1835,-2.8792,1.8430,1.8877
1804.6875,0.4850,-1.2807,0.0141,1.9426,1.0185,2.8872,3.4987,0.0276,-1.9698,-6.1565,-1.4314,-0.5501,-1.2673,0.2048,2.8629,4.3912,-3.0325,-0.3604,1.8123
1808.5938,-4.3490,-0.3099,-0.8331,1.0842,0.8405,0.9457,1.2909,0.1449,-5.7166,-9.5432,-3.1196,-1.8001,-2.4469,0.0229,0.3887,2.5763,-3.0410,-3.0750,1.3938
1812.5000,-8.2297,-0.1587,-1.9325,0.1422,0.5102,-2.1341,-2.4811,0.0575,-8.5051,-10.7226,-4.4717,-2.6767,-3.1172,-0.1435,-2.6913,0.2051,-2.7555,-5.1560,0.6501
1816.4062,-9.2183,-1.4391,-3.0448,-0.5531,0.4444,-5.0984,-6.4296,-0.1840,-9.2490,-8.9071,-4.8660,-3.0225,-2.8695,-0.1414,-5.5326,-2.2437,-2.1927,-5.9504,-0.1380
1820.3125,-6.5848,-4.2667,-3.7709,-0.8760,0.8906,-6.5132,-8.6207,-0.5272,-7.7094,-4.6354,-4.0519,-2.8908,-1.7057,-0.0060,-7.0648,-4.3948,-1.5581,-5.5266,-0.5551
1824.2188,-1.3108,-7.9144,-3.7310,-0.8704,1.7820,-5.6036,-7.6377,-0.8612,-4.5910,0.4244,-2.3515,-2.4636,-0.0622,0.1678,-6.5712,-5.9517,-1.1260,-4.4587,-0.3061
1828.1250,4.3445,-11.0263,-2.8261,-0.6238,2.8062,-2.7903,-3.4751,-0.9933,-1.1927,4.2660,-0.5642,-1.9710,1.4137,0.4113,-4.2252,-6.6542,-1.0463,-3.3789,0.5666
1832.0312,7.9981,-12.3216,-1.3999,-0.1759,3.6156,0.4856,2.3026,-0.7189,1.2007,5.4914,0.4140,-1.6482,2.1997,0.9335,-1.1685,-6.3502,-1.2248,-2.6234,1.6564
1835.9375,8.3548,-11.3339,-0.1464,0.4626,4.0122,2.6027,7.2764,0.0373,1.8761,3.9149,0.0604,-1.7019,2.1401,1.9547,1.0237,-5.1720,-1.3852,-2.1764,2.3858
1839.8438,5.7819,-8.6678,0.2321,1.2133,3.9817,2.7593,9.3761,1.1058,0.9332,0.5645,-1.4878,-2.2469,1.4488,3.4307,1.2212,-3.6552,-1.2914,-1.8682,2.3061
1843.7500,1.9549,-5.5808,-0.5737,1.8636,3.5904,1.4826,7.8921,2.0892,-0.8793,-2.8563,-3.5050,-3.2224,0.5006,4.9029,-0.5891,-2.6174,-0.9693,-1.6136,1.3230
1847.6562,-1.1544,-3.1815,-2.2730,2.1153,2.8739,0.2884,3.7395,2.5385,-2.6064,-4.7406,-5.0710,-4.3543,-0.4272,5.6461,-3.2990,-2.7767,-0.7456,-1.4925,-0.2779
1851.5625,-2.3181,-1.8121,-4.1139,1.7363,1.8327,0.6802,-1.1250,2.1962,-3.5578,-4.2380,-5.5574,-5.2371,-1.2818,5.0704,-5.3792,-4.3157,-1.0439,-1.6444,-2.0056
1855.4688,-1.5344,-1.0421,-5.2981,0.7063,0.5345,3.1240,-4.7411,1.1490,-3.5756,-1.5615,-4.9327,-5.5352,-2.1693,3.1210,-5.8372,-6.6933,-2.0687,-2.1094,-3.4199
1859.3750,0.2323,-0.2433,-5.4284,-0.7607,-0.8051,6.6723,-6.0290,-0.2226,-3.0034,2.1383,-3.7319,-5.2018,-3.1868,0.3819,-4.8031,-8.8795,-3.6125,-2.7773,-4.3249
1863.2812,1.7819,0.7266,-4.7179,-2.3471,-1.8884,9.5077,-5.0797,-1.4764,-2.4263,5.2667,-2.7391,-4.5583,-4.3071,-2.2234,-3.3579,-9.9067,-5.1518,-3.4871,-4.8134
1867.1875,2.3771,1.2928,-3.8441,-3.8230,-2.5441,10.0814,-2.8258,-2.3728,-2.3467,6.4621,-2.5783,-4.1441,-5.4066,-3.9542,-2.7365,-9.4022,-6.1847,-4.1697,-5.1673
1871.0938,2.0144,0.6061,-3.5396,-5.1534,-2.9125,8.1213,-0.4261,-2.9910,-2.9554,5.1938,-3.4288,-4.3909,-6.3816,-4.6492,-3.4599,-7.7661,-6.5656,-4.8800,-5.6852
1875.0000,1.2014,-1.6420,-4.1592,-6.4357,-3.4143,4.8454,1.2259,-3.6164,-4.0756,2.0064,-4.9766,-5.3158,-7.2191,-4.7244,-4.9857,-5.8888,-6.5769,-5.6714,-6.5156
1878.9062,0.4856,-4.6641,-5.4640,-7.7172,-4.4511,2.2124,1.6575,-4.4844,-5.2688,-1.7407,-6.5795,-6.4455,-7.9348,-4.7843,-6.0952,-4.6042,-6.6634,-6.4257,-7.5601
1882.8125,0.0845,-6.7857,-6.7327,-8.8466,-6.0264,1.6611,0.7248,-5.5691,-6.0349,-4.5485,-7.5421,-7.0592,-8.4310,-5.1382,-5.7269,-4.2325,-7.0237,-6.8191,-8.4819
1886.7188,-0.1653,-6.4078,-7.1383,-9.5032,-7.5876,3.1418,-1.4983,-6.5800,-6.0287,-5.5326,-7.3856,-6.6279,-8.4354,-5.5837,-3.6826,-4.4804,-7.3844,-6.5151,-8.8345
1890.6250,-0.5653,-3.1527,-6.2029,-9.4118,-8.2823,5.0836,-4.7032,-7.1759,-5.2234,-4.8304,-6.0305,-5.1867,-7.6414,-5.6127,-0.7489,-4.7134,-7.1668,-5.4731,-8.2844
1894.5312,-1.2299,1.5844,-4.1015,-8.5968,-7.5158,5.3642,-8.2634,-7.2383,-3.9579,-3.4154,-3.8483,-3.3901,-5.9994,-4.8764,1.8034,-4.3851,-5.9609,-4.1276,-6.8358
1898.4375,-1.9173,5.1505,-1.6545,-7.4672,-5.4389,2.7008,-11.2712,-6.9911,-2.8297,-2.4319,-1.5543,-2.1859,-3.9360,-3.5377,2.9750,-3.3430,-3.9610,-3.2420,-4.9250
1902.3438,-2.1302,5.0313,0.0235,-6.6252,-2.9804,-2.4108,-12.8059,-6.8544,-2.4421,-2.4784,0.0453,-2.2815,-2.2725,-2.2199,2.5553,-1.8574,-2.0053,-3.4651,-3.2774
1906.2500,-1.4231,0.3604,0.0793,-6.4872,-1.3323,-7.8318,-12.3318,-7.1188,-3.0962,-3.3073,0.3836,-3.7168,-1.8013,-1.5657,1.1220,-0.4139,-1.1257,-4.8607,-2.5441
1910.1562,0.2714,-7.3654,-1.5825,-6.9647,-1.1891,-10.9493,-9.9764,-7.6713,-4.5808,-4.1176,-0.5954,-5.8029,-2.7533,-1.7275,-0.3938,0.5640,-1.8691,-6.7452,-2.8988
1914.0625,2.4973,-14.8489,-4.1458,-7.4432,-2.2594,-10.1907,-6.4825,-7.9927,-6.2023,-4.2024,-2.3741,-7.4731,-4.5252,-2.1809,-1.2420,0.9011,-3.8523,-7.9941,-3.8508
1917.9688,4.4149,-18.5932,-6.2107,-7.1153,-3.4140,-5.9612,-2.8527,-7.4620,-7.0831,-3.4623,-4.0730,-7.8440,-5.9133,-2.0348,-1.1639,0.6986,-5.8837,-7.6646,-4.4471
1921.8750,5.1795,-16.6879,-6.4900,-5.4813,-3.4092,-0.4316,0.0795,-5.7838,-6.6043,-2.4122,-4.8620,-6.6634,-5.7734,-0.6471,-0.3682,0.2401,-6.6192,-5.5551,-3.7996
1925.7812,4.3780,-9.8140,-4.5186,-2.7002,-1.7146,3.6910,1.8862,-3.2465,-4.7555,-1.7042,-4.3663,-4.3998,-3.7195,1.8767,0.7057,-0.1543,-5.3609,-2.3431,-1.6458
1929.6875,2.2962,-0.9295,-0.9663,0.4419,1.1119,4.6596,2.4959,-0.6190,-2.1855,-1.5637,-2.8454,-1.9475,-0.4119,4.6579,1.6318,-0.2609,-2.5004,0.7885,1.4167
1933.5938,-0.1505,6.1826,2.6659,2.9402,3.7571,2.5592,2.0004,1.2689,0.0919,-1.6050,-1.0448,-0.1425,2.7669,6.5254,2.1249,-0.0386,0.6657,2.7985,4.1977
1937.5000,-1.8253,8.7230,4.8262,4.1014,4.9638,-0.9194,0.5425,1.9930,1.1818,-1.1916,0.1981,0.6237,4.4632,6.6912,2.0633,0.3570,2.6329,3.3038,5.5493
1941.4062,-1.9355,6.1176,4.7314,3.8726,4.2780,-3.5934,-1.6120,1.7442,0.7225,-0.0661,0.3747,0.4972,4.0726,5.1825,1.4887,0.6433,2.4816,2.6679,4.9901
1945.3125,-0.4599,0.1155,2.7492,2.7861,2.2565,-4.0599,-3.9373,1.1477,-0.9809,1.2666,-0.4696,-0.0390,2.0098,2.7710,0.6158,0.5476,0.3252,1.6609,2.9452
1949.2188,1.8155,-6.2171,0.1316,1.5936,0.0504,-2.3675,-5.6646,0.8304,-3.1395,1.7548,-1.8011,-0.4932,-0.5909,0.4850,-0.1895,-0.0517,-2.7951,0.9603,0.4751
1953.1250,3.7063,-10.0282,-1.7126,0.8525,-1.3004,0.2316,-6.0617,1.0402,-4.8460,0.5238,-2.8918,-0.6131,-2.5129,-0.9511,-0.5307,-1.0635,-5.4533,0.8253,-1.3080
1957.0312,4.2845,-9.9662,-1.9520,0.7195,-1.3822,2.1799,-4.8333,1.5719,-5.4257,-2.3920,-3.1724,-0.4392,-3.0357,-1.4000,-0.1872,-2.2482,-6.5027,1.1089,-1.7735
1960.9375,3.4089,-6.6479,-0.6589,1.0268,-0.4529,2.5376,-2.3483,2.0202,-4.6373,-5.8552,-2.4835,-0.1946,-2.1609,-1.2003,0.7065,-3.3709,-5.5454,1.5136,-0.9724
1964.8438,1.8093,-2.1770,1.3875,1.5090,0.8909,1.3860,0.5123,2.1360,-2.7047,-8.1716,-1.1348,-0.1286,-0.4609,-0.8255,1.6571,-4.3348,-3.0424,1.8454,0.5271
1968.7500,0.6462,0.9758,3.2057,1.9702,2.0955,-0.4272,2.8131,1.9973,-0.2313,-8.0616,0.2256,-0.4196,1.2639,-0.5950,2.0373,-5.1908,-0.0820,2.0714,1.9783
1972.6562,0.7940,1.1643,4.0698,2.2772,2.8037,-1.9148,4.0145,1.8648,1.9598,-5.4433,0.8752,-1.1509,2.2959,-0.6183,1.4370,-6.0110,2.0668,2.1851,2.7390
1976.5625,2.2812,-1.7141,3.6970,2.2480,2.7707,-2.4929,4.1106,1.8537,3.0553,-1.5191,0.3290,-2.3086,2.1799,-0.9274,-0.0687,-6.7268,2.4528,2.0534,2.4056
1980.4688,4.2500,-6.2699,2.1903,1.6100,1.7644,-2.1423,3.4079,1.7180,2.5422,1.8880,-1.4078,-3.7512,0.8069,-1.5986,-1.9111,-7.0756,0.8306,1.4260,0.8612
1984.3750,5.4792,-10.3751,-0.0835,0.1414,-0.3383,-1.2082,2.1914,0.9665,0.4777,3.3320,-3.7611,-5.1698,-1.5349,-2.7061,-3.3003,-6.7305,-2.2003,0.1388,-1.6646
1988.2812,5.1526,-12.2271,-2.5487,-2.0717,-3.2783,-0.0904,0.5946,-0.7318,-2.4181,2.4644,-5.7631,-6.1153,-4.1598,-4.1295,-3.6270,-5.5489,-5.3935,-1.6469,-4.5338
1992.1875,3.3763,-11.1899,-4.4510,-4.4778,-6.2286,0.9260,-1.2296,-3.1498,-4.9822,0.0768,-6.4604,-6.1500,-6.1265,-5.4069,-2.7652,-3.7664,-7.3578,-3.3892,-6.7687
1996.0938,1.0957,-7.9920,-5.0107,-6.1935,-7.9787,1.6323,-2.8628,-5.4486,-6.1191,-2.4989,-5.3926,-5.0837,-6.5746,-5.8269,-1.1167,-1.9784,-7.1762,-4.3965,-7.3704
2000.0000,-0.5455,-4.2069,-3.7619,-6.4282,-7.5154,1.7850,-3.6409,-6.5803,-5.3725,-4.2102,-2.8895,-3.1542,-5.1543,-4.7806,0.6045,-0.8772,-4.8512,-4.2304,-5.8211
2003.9062,-0.9832,-1.3407,-0.9264,-4.9662,-4.6814,1.1025,-3.0692,-5.9235,-3.2229,-4.8168,0.0136,-1.0047,-2.3090,-2.1754,1.7105,-0.8804,-1.3295,-3.0216,-2.4964
2007.8125,-0.6107,-0.0763,2.4702,-2.3820,-0.4443,-0.5697,-1.3595,-3.7260,-0.8889,-4.8515,2.0463,0.5790,0.8205,1.3789,1.8196,-1.8679,1.9382,-1.4696,1.3381
2011.7188,-0.4775,-0.1232,4.9420,0.1912,3.4933,-3.0419,0.4035,-1.0244,0.3075,-5.1022,2.3278,1.0460,2.8962,4.7778,0.9587,-3.1969,3.6878,-0.4974,4.0572
2015.6250,-1.4922,-0.7144,5.2491,1.6434,5.5819,-5.7101,0.7700,0.9471,-0.3370,-5.9911,0.7971,0.3477,3.0504,6.9377,-0.5199,-4.0120,3.4177,-0.7548,4.4976
2019.5312,-3.6765,-1.3493,3.0772,1.4805,5.2843,-7.7475,-1.1029,1.4934,-2.5220,-7.2543,-1.7978,-1.0727,1.3427,7.3260,-2.1287,-3.6986,1.5512,-2.2625,2.5965
2023.4375,-6.0112,-2.1971,-0.7392,0.0717,3.3618,-8.4831,-4.6749,0.8603,-5.1266,-8.1148,-4.3321,-2.5596,-1.2706,6.1909,-3.4341,-2.2482,-0.8679,-4.4003,-0.5590
2027.3438,-7.0307,-3.8277,-4.6204,-1.5957,1.3914,-7.7444,-8.0866,0.0351,-6.8398,-7.8196,-5.8784,-3.6051,-3.4432,4.3680,-4.1709,-0.3352,-2.7364,-6.2291,-3.3235
2031.2500,-5.7971,-6.4586,-7.0413,-2.4949,0.8139,-5.9425,-9.1771,0.0764,-6.8504,-6.1888,-6.0770,-4.0549,-4.1278,2.7966,-4.2576,0.9562,-3.3828,-6.9508,-4.3741
2035.1562,-2.5986,-9.3360,-7.2479,-2.1182,2.1064,-3.8347,-6.8674,1.4144,-5.1950,-3.8176,-5.1194,-4.0447,-3.0598,2.0460,-3.7433,0.6518,-2.7539,-6.2547,-3.3536
2039.0625,1.1286,-10.8469,-5.4902,-0.6946,4.5756,-2.1112,-1.9822,3.5720,-2.6089,-1.7880,-3.4457,-3.7579,-0.7962,2.1129,-2.7372,-1.5804,-1.2820,-4.3940,-0.9217
2042.9688,3.6410,-9.4500,-2.7082,1.0270,6.8584,-1.0653,3.1060,5.4745,-0.0430,-1.0516,-1.4307,-3.2177,1.6516,2.5628,-1.3731,-5.1511,0.4075,-2.0025,1.7449
2046.8750,3.9503,-4.8623,0.0520,2.2574,7.7751,-0.5545,5.8480,6.1266,1.8178,-1.8631,0.7042,-2.2898,3.3429,2.8778,0.1764,-8.6947,1.7579,0.2181,3.6363
2050.7812,2.4068,1.3683,2.1017,2.6097,6.9962,-0.2599,5.0402,5.2202,2.7661,-3.6244,2.7496,-0.8857,3.8033,2.7778,1.6617,-10.6207,2.4210,1.7772,4.3525
2054.6875,0.4164,6.4515,3.2345,2.2626,5.1537,-0.0479,1.5140,3.3033,2.9753,-5.2568,4.3394,0.8171,3.1392,2.3386,2.7531,-9.8381,2.3027,2.5384,4.1120
2058.5938,-0.5060,7.8686,3.5737,1.7973,3.3974,-0.1544,-2.4320,1.4443,2.7603,-5.8744,4.9879,2.3494,1.8953,1.8851,3.1207,-6.3011,1.5773,2.7016,3.4403
2062.5000,0.3003,4.8847,3.3669,1.8415,2.7246,-1.0241,-4.4486,0.6314,2.3978,-5.3306,4.3747,3.1856,0.7826,1.7679,2.5863,-1.0815,0.6750,2.6628,2.8241
2066.4062,2.2996,-0.9493,2.8974,2.7356,3.4840,-2.8793,-3.4644,1.2778,2.0885,-4.2715,2.6734,3.0918,0.4050,2.1723,1.2657,4.0946,0.1839,2.8148,2.5465
2070.3125,4.2299,-6.6831,2.4979,4.3809,5.2922,-5.3057,-0.1147,3.0899,1.9943,-3.6523,0.6283,2.3326,1.0568,3.0542,-0.4083,7.6225,0.6258,3.3639,2.7162
2074.2188,5.0102,-9.6829,2.5259,6.3126,7.3271,-7.1888,3.8843,5.3090,2.2338,-4.0343,-0.7614,1.5626,2.6228,4.2040,-1.8391,8.7021,2.1703,4.2322,3.3506
2078.1250,4.4338,-9.0615,3.2157,7.9287,8.7737,-7.1453,6.8831,7.1314,2.8058,-5.1432,-0.7939,1.4514,4.6101,5.3741,-2.5408,7.5815,4.4593,5.0988,4.3867
2082.0312,3.1934,-5.9171,4.4821,8.7552,9.1734,-4.2783,8.1781,8.0578,3.5214,-6.0018,0.5135,2.2869,6.3288,6.3923,-2.3773,5.2682,6.7007,5.5775,5.6231
2085.9375,2.2849,-2.3235,5.8646,8.6329,8.5398,1.1617,8.1297,8.0193,4.0557,-5.5622,2.4400,3.8171,7.1842,7.2107,-1.6111,2.9210,8.0399,5.4516,6.7083
2089.8438,2.2741,0.1290,6.7289,7.7579,7.2480,7.6441,7.6048,7.2799,4.1351,-3.4187,4.0263,5.4279,6.9599,7.8769,-0.7155,1.2934,8.0177,4.8336,7.2622
2093.7500,2.9630,1.1918,6.6404,6.5620,5.7968,12.9139,7.2483,6.2259,3.7383,-0.1192,4.6761,6.5176,5.9296,8.4474,-0.0667,0.5195,6.8259,4.1352,7.0880
2097.6562,3.6513,1.6938,5.6547,5.4911,4.5668,15.0043,7.0987,5.1654,3.1440,3.1280,4.4788,6.8102,4.7006,8.8857,0.2780,0.2834,5.1781,3.8372,6.3135
2101.5625,3.7324,2.5072,4.2997,4.7839,3.6705,13.1802,6.7215,4.2207,2.7592,5.1517,4.0392,6.4169,3.8523,9.0022,0.5638,0.1821,3.8565,4.1789,5.3259
2105.4688,3.1427,3.6584,3.2401,4.3695,2.9462,8.3046,5.6528,3.3320,2.8349,5.4589,3.9621,5.6554,3.5818,8.4903,1.0997,0.0160,3.2239,4.9639,4.5200
2109.3750,2.3440,4.3173,2.8582,3.9491,2.0940,2.4268,3.7896,2.3490,3.2886,4.4306,4.3873,4.8035,3.5973,7.0744,1.9807,-0.1401,3.0259,5.6310,4.0384
2113.2812,1.9104,3.6411,3.0528,3.2252,0.8914,-2.1719,1.4853,1.1640,3.7814,3.0033,4.9242,3.9845,3.3481,4.7174,2.9851,-0.0552,2.6218,5.5791,3.7051
2117.1875,2.0908,1.7293,3.3893,2.1428,-0.6225,-3.9631,-0.6429,-0.1791,4.0059,2.1041,5.0244,3.2378,2.4555,1.7733,3.7317,0.4941,1.4919,4.5640,3.2144
2121.0938,2.6946,-0.1701,3.4649,0.9802,-2.1114,-2.7000,-2.0182,-1.4574,3.9602,2.2106,4.4888,2.6656,1.0489,-1.0378,3.9790,1.6227,-0.3242,2.9126,2.4282
2125.0000,3.3506,-0.4728,3.1894,0.2048,-3.0988,0.6992,-2.3430,-2.3563,3.9712,3.2496,3.7019,2.4791,-0.2444,-2.8833,3.8314,3.3099,-2.1682,1.3909,1.5394
2128.9062,3.8686,1.4740,2.7657,0.1597,-3.2534,4.7342,-1.6934,-2.6416,4.4176,4.7798,3.3874,2.8668,-0.6839,-3.2121,3.6772,5.3861,-3.1408,0.7708,0.9519
2132.8125,4.3647,4.6479,2.4018,0.7738,-2.6382,7.9967,-0.4835,-2.3238,5.3393,6.2454,4.0457,3.7704,0.0573,-2.0934,3.8834,7.5058,-2.6855,1.3356,0.9449
2136.7188,5.0386,6.7820,2.0158,1.4976,-1.7565,9.6077,0.6684,-1.7085,6.2420,7.1399,5.4872,4.7592,1.5759,-0.2869,4.4701,9.1551,-1.0014,2.6301,1.3702
2140.6250,5.8131,5.7692,1.2018,1.5446,-1.3342,9.3157,1.1494,-1.2788,6.2913,7.0789,6.8257,5.1463,2.8709,1.0472,5.0188,9.7715,0.9956,3.6329,1.6288
2144.5312,6.1905,1.1082,-0.4774,0.3285,-1.9344,7.3626,0.5978,-1.4538,4.8203,5.8820,6.9758,4.3219,2.8842,0.8949,4.9148,8.9764,2.1606,3.2873,0.9882
2148.4375,5.5086,-5.6065,-3.0718,-2.1500,-3.6128,4.2907,-0.9066,-2.3531,1.8349,3.7013,5.3451,2.1201,1.1441,-1.0752,3.7768,6.8048,1.7781,1.1115,-0.9373
2152.3438,3.4442,-11.5076,-6.0195,-5.2008,-5.8150,0.7836,-2.8259,-3.7032,-1.8317,1.0902,2.2626,-1.0032,-1.8758,-4.2768,1.7822,3.7636,0.0004,-2.4561,-3.8469
2156.2500,0.3742,-14.0605,-8.3106,-7.7082,-7.5875,-2.4747,-4.3758,-4.9447,-4.8535,-1.1436,-1.1389,-4.1004,-4.9118,-7.4206,-0.3505,0.6398,-2.1987,-6.1860,-6.7827
2160.1562,-2.7191,-12.4250,-8.9749,-8.6358,-8.0057,-4.9677,-4.8908,-5.4872,-6.0651,-2.3268,-3.5169,-6.1080,-6.5162,-9.0949,-1.7340,-1.8455,-3.5364,-8.6140,-8.5401
2164.0625,-4.7775,-7.7640,-7.6038,-7.5149,-6.6074,-6.5182,-4.1532,-4.9789,-5.0564,-2.3395,-4.0183,-6.2865,-5.7891,-8.4252,-1.8087,-3.3195,-3.1139,-8.7450,-8.2483
2167.9688,-5.2749,-2.4248,-4.5997,-4.6721,-3.6248,-7.3561,-2.5021,-3.4635,-2.3673,-1.7403,-2.6678,-4.5210,-2.8449,-5.4870,-0.6499,-3.7983,-0.9003,-6.5410,-5.8181
2171.8750,-4.4776,1.3779,-1.0153,-1.0927,0.0873,-7.9800,-0.6639,-1.3631,0.8159,-1.4209,-0.2540,-1.3707,1.2308,-1.2686,1.1070,-3.4916,2.2561,-2.9455,-2.0308
2175.7812,-3.1781,2.5366,1.9105,1.9962,3.3816,-8.8317,0.5922,0.6824,3.2637,-1.9610,2.1645,2.1312,4.8985,2.7808,2.6656,-2.5584,5.0838,0.5606,1.7738
2179.6875,-2.1136,1.2085,3.2640,3.6163,5.2594,-9.9529,0.7859,2.0399,4.2541,-3.1369,3.7975,4.8390,6.8759,5.3812,3.5321,-1.0271,6.5414,2.6328,4.2603
2183.5938,-1.5004,-1.7066,2.7698,3.3858,5.2385,-10.8535,-0.1054,2.2883,3.7836,-3.9928,4.4013,5.8921,6.6790,5.9228,3.7565,1.0598,6.3018,2.6262,4.6533
2187.5000,-1.0135,-5.2416,0.7970,1.5988,3.5113,-10.7200,-1.6837,1.3461,2.3788,-3.5085,4.1957,5.0180,4.7391,4.6231,3.8169,3.4258,4.8123,0.7850,3.0392
2191.4062,-0.1957,-8.7081,-1.8886,-0.9562,0.8443,-8.8868,-3.3204,-0.5036,0.6855,-1.4279,3.5570,2.6316,2.0809,2.3158,4.2413,5.5015,2.9367,-1.9900,0.2840
2195.3125,1.0428,-11.6185,-4.4724,-3.3315,-1.7311,-5.3147,-4.4133,-2.6973,-0.8840,1.3636,2.7327,-0.3231,-0.2297,0.0214,5.2159,6.6436,1.4273,-4.6246,-2.3883
2199.2188,2.2320,-13.4503,-6.3754,-4.7618,-3.3102,-0.7877,-4.6289,-4.5640,-2.2464,3.2593,1.7580,-2.7525,-1.5602,-1.4717,6.4230,6.5125,0.5577,-6.3307,-3.9560
2203.1250,2.6172,-13.6041,-7.3708,-4.8887,-3.4335,3.3188,-4.0448,-5.5380,-3.4761,2.9316,0.5842,-3.8619,-1.8793,-1.8416,7.2002,5.3331,0.1152,-6.8241,-4.0268
2207.0312,1.7089,-11.6726,-7.5185,-3.8129,-2.2099,5.6156,-3.1094,-5.3371,-4.5378,0.2555,-0.7176,-3.4652,-1.5857,-1.2298,6.9206,3.8166,-0.2945,-6.2567,-2.9238
2210.9375,-0.2879,-7.8286,-6.9918,-1.9882,-0.2091,5.3518,-2.3824,-4.0340,-5.1444,-3.4923,-1.8555,-1.9964,-1.1600,-0.0707,5.3720,2.7620,-0.8835,-4.9859,-1.4054
2214.8438,-2.4804,-2.9870,-5.9175,-0.0218,1.8117,2.8211,-2.1484,-1.9974,-4.8662,-6.3289,-2.4072,-0.2223,-0.8810,1.1229,2.9189,2.5893,-1.5273,-3.3684,-0.1975
2218.7500,-3.7450,1.4613,-4.3369,1.5319,3.2097,-0.6910,-2.1376,0.2575,-3.4357,-6.7177,-2.0536,1.1718,-0.7669,1.9219,0.3594,3.1146,-1.9215,-1.6932,0.3753
2222.6562,-3.3504,4.2550,-2.3086,2.3159,3.6545,-3.4226,-1.6059,2.2282,-1.0421,-4.4363,-0.8074,1.8760,-0.7295,2.0585,-1.4457,3.7049,-1.9069,-0.2343,0.4480
2226.5625,-1.3658,4.8675,-0.0626,2.2226,3.1603,-3.9035,0.1633,3.5261,1.6059,-0.6298,0.9172,1.9684,-0.7765,1.4456,-1.9748,3.6898,-1.6929,0.6950,0.3598
2230.4688,1.3810,3.7522,1.9445,1.3652,1.9862,-1.6332,3.1983,3.9083,3.5423,2.9194,2.4535,1.6833,-1.0812,0.1734,-1.2698,2.7468,-1.7808,0.7909,0.3001
2234.3750,3.7492,2.0693,3.1720,0.0038,0.4931,2.6557,6.4963,3.2841,4.0134,4.7787,3.1816,1.1368,-1.8528,-1.5030,0.1256,1.0329,-2.6181,-0.0924,0.1297
2238.2812,4.8600,1.0333,3.2851,-1.5379,-0.9640,7.3002,8.3716,1.7394,2.8881,4.4861,2.8178,0.2255,-3.1142,-3.2058,1.4663,-0.9729,-4.2291,-1.8033,-0.4861
2242.1875,4.4890,1.2342,2.3993,-2.9448,-2.0869,10.4627,7.4190,-0.4248,0.7480,2.5157,1.5340,-1.2331,-4.5765,-4.5239,2.1744,-2.7580,-6.1057,-3.8968,-1.7420
2246.0938,3.0946,2.2988,1.0734,-3.9714,-2.6622,10.9827,3.5309,-2.7002,-1.4198,-0.2242,-0.1561,-3.2488,-5.7431,-5.1425,2.0749,-3.9973,-7.4682,-5.8176,-3.4295
2250.0000,1.5197,3.0873,0.0014,-4.4880,-2.5999,8.8937,-1.7602,-4.4840,-2.7612,-2.9114,-1.6732,-5.5121,-6.1976,-4.9637,1.3915,-4.6099,-7.7415,-7.1636,-4.9729
2253.9062,0.5616,2.3356,-0.4160,-4.5041,-1.9776,5.3310,-5.9718,-5.2889,-2.9999,-5.0147,-2.6442,-7.4895,-5.8823,-4.1527,0.5381,-4.6851,-6.9268,-7.8551,-5.7660
2257.8125,0.6371,-0.5794,-0.3137,-4.1527,-1.0427,1.8892,-7.0594,-4.9524,-2.5118,-6.1864,-3.0155,-8.7001,-5.1558,-3.0755,-0.1366,-4.3813,-5.6108,-8.0901,-5.5681
2261.7188,1.6791,-5.1604,-0.2156,-3.6296,-0.1317,-0.2006,-4.6304,-3.7150,-1.9886,-6.1143,-2.9573,-8.9686,-4.5644,-2.1435,-0.4915,-3.8605,-4.5963,-8.1191,-4.6610
2265.6250,3.2593,-9.8735,-0.5760,-3.1079,0.4777,-0.5991,-0.1602,-2.1009,-1.9215,-4.5793,-2.6553,-8.4683,-4.4692,-1.6388,-0.5606,-3.2564,-4.3968,-8.0084,-3.6367
2269.5312,4.8217,-12.7933,-1.3467,-2.6687,0.7012,0.1873,3.9663,-0.6587,-2.2596,-1.7155,-2.1528,-7.5352,-4.7835,-1.6015,-0.4170,-2.6512,-4.9242,-7.5777,-2.9654
2273.4375,5.8877,-12.5047,-1.9246,-2.2862,0.6797,1.3334,5.9529,0.2823,-2.4800,1.7870,-1.3633,-6.4122,-5.0090,-1.8311,-0.0730,-2.0617,-5.5641,-6.5698,-2.6664
2277.3438,6.1579,-8.8062,-1.5717,-1.8761,0.6753,2.3060,5.6116,0.6980,-2.0188,4.8065,-0.2342,-5.1291,-4.5555,-1.9922,0.4971,-1.4662,-5.5707,-4.9283,-2.3262
2281.2500,5.5269,-2.8519,-0.0251,-1.3719,0.8987,3.1358,4.2314,0.7652,-0.7493,6.2746,1.0879,-3.5998,-3.1319,-1.7664,1.2460,-0.8780,-4.5136,-2.9629,-1.4498
2285.1562,4.0843,3.3400,2.1723,-0.7783,1.3821,4.1964,3.4517,0.6691,0.8491,5.7504,2.2507,-1.8313,-0.9433,-0.9794,1.9850,-0.4079,-2.4993,-1.2466,0.1274
2289.0625,2.1446,7.7524,3.9256,-0.1649,1.9857,5.7076,4.0077,0.4770,1.9758,3.7005,2.8926,-0.0416,1.4299,0.3433,2.4636,-0.2351,-0.0657,-0.2830,2.0782
2292.9688,0.2671,9.1762,4.3069,0.3915,2.5212,7.3787,5.2650,0.1623,2.0633,1.2712,2.9143,1.4309,3.3766,1.9925,2.5742,-0.4660,2.1381,-0.1634,3.7924
2296.8750,-0.8376,7.5959,3.2418,0.8656,2.8864,8.4895,5.8435,-0.2665,1.2104,-0.3275,2.6082,2.3610,4.5781,3.6366,2.5237,-0.9721,3.6565,-0.4689,4.7856
2300.7812,-0.5774,4.0474,1.6390,1.2909,3.0945,8.3645,4.7954,-0.6709,0.1671,-0.4493,2.5088,2.8082,5.0940,4.8924,2.7958,-1.3610,4.3425,-0.5190,4.9909
2304.6875,1.1537,0.0992,0.8096,1.7000,3.1708,6.8878,2.4091,-0.8299,-0.1477,0.7182,3.0242,3.0596,5.1759,5.3926,3.8591,-1.1577,4.2690,0.1713,4.7145
2308.5938,3.7357,-2.7619,1.5433,2.0400,3.0035,4.6639,0.0240,-0.6152,0.7186,2.3684,4.0956,3.3655,4.9740,4.8547,5.7825,-0.1093,3.5587,1.5237,4.3089
2312.5000,5.9516,-3.6090,3.4915,2.1345,2.2956,2.6874,-0.9814,-0.1559,2.4030,3.5955,5.1441,3.6763,4.3732,3.1614,8.0296,1.6061,2.2821,2.8838,3.8388
2316.4062,6.5395,-2.3136,5.3232,1.7466,0.7042,1.7407,-0.2409,0.1600,3.9179,3.8863,5.3863,3.6136,3.0934,0.4405,9.6260,3.4379,0.4896,3.4018,3.0218
2320.3125,4.9220,0.4621,5.5877,0.7306,-1.8864,1.9338,1.3081,-0.1080,4.2752,3.3140,4.3377,2.7379,0.9873,-2.8918,9.6547,4.7658,-1.6786,2.5835,1.5026
2324.2188,1.6659,3.4947,3.7033,-0.8117,-5.1360,2.6914,2.1010,-1.1533,3.1310,2.3790,2.1673,0.9327,-1.6890,-6.1749,7.7956,5.2213,-3.9146,0.6576,-0.7520
2328.1250,-1.6951,5.4211,0.3861,-2.4794,-8.2496,3.1774,1.0772,-2.7301,1.0206,1.6490,-0.3529,-1.3905,-4.2534,-8.6618,4.5639,4.7804,-5.7852,-1.4936,-3.2597
2332.0312,-3.4688,5.2615,-2.7905,-3.6952,-10.2710,2.8515,-1.5575,-4.2181,-0.9795,1.4265,-2.2946,-3.4551,-5.8862,-9.7625,1.0766,3.5791,-6.8873,-2.8244,-5.2140
2335.9375,-2.8024,2.8607,-4.4085,-3.9703,-10.5427,1.7935,-4.4544,-4.9312,-1.9376,1.6099,-3.1282,-4.5688,-6.0770,-9.2832,-1.5248,1.6553,-7.0363,-2.7449,-5.9576
2339.8438,-0.2345,-0.9825,-4.0953,-3.1848,-9.0774,0.6137,-5.9979,-4.4955,-1.6481,1.7885,-3.0139,-4.5555,-4.9555,-7.5440,-2.6424,-1.0912,-6.3771,-1.4868,-5.4141
2343.7500,2.5992,-4.8256,-2.6861,-1.7149,-6.6098,0.0467,-5.2994,-3.0701,-0.7243,1.4918,-2.6286,-3.8559,-3.2786,-5.2852,-2.4396,-4.6213,-5.3447,0.0245,-4.1678
2347.6562,3.9629,-7.2263,-1.5633,-0.3019,-4.2642,0.5025,-2.6689,-1.2775,-0.1471,0.4608,-2.6446,-3.2107,-2.0429,-3.3700,-1.6017,-8.3833,-4.4737,0.7295,-3.1124
2351.5625,3.0939,-7.3948,-1.6472,0.3094,-2.9950,1.8264,0.6514,0.1228,-0.5706,-1.1841,-3.2179,-3.1346,-1.9209,-2.4008,-0.8290,-11.2397,-4.1311,0.0959,-2.8837
2355.4688,0.6430,-5.4924,-2.7386,-0.2087,-3.0953,3.3623,3.2130,0.6354,-1.8428,-2.9577,-3.8393,-3.5431,-2.8392,-2.4325,-0.4109,-11.9173,-4.2953,-1.5186,-3.4345
2359.3750,-1.8093,-2.4189,-3.6522,-1.5179,-4.0448,4.2510,4.0549,0.2891,-3.0527,-4.2060,-3.6549,-3.7894,-3.9581,-2.9447,-0.1433,-9.7819,-4.5079,-3.0276,-4.0230
2363.2812,-2.8213,0.7488,-3.0304,-2.7020,-4.7859,3.8231,3.0254,-0.3743,-3.0750,-4.3995,-2.0466,-3.0839,-4.0960,-3.1049,0.3974,-5.3949,-4.0608,-3.2106,-3.6200
2367.1875,-1.9983,3.2997,-0.2706,-2.6829,-4.2829,1.9454,0.7062,-0.5709,-1.2670,-3.3822,0.9129,-1.0105,-2.3847,-2.1996,1.4532,-0.3631,-2.3700,-1.3919,-1.4939
2371.0938,-0.1202,5.1004,4.0523,-0.7673,-2.0639,-0.7912,-1.8809,0.3348,2.1154,-1.4447,4.4265,2.1998,1.2023,-0.0038,2.8497,3.5339,0.6383,2.1913,2.3623
2375.0000,1.5659,6.4253,8.5239,2.9632,1.5411,-3.1439,-3.6140,2.5098,6.0331,0.8212,7.3839,5.7938,5.7571,3.1141,4.0820,5.3932,4.3505,6.5375,7.1884
2378.9062,2.3421,7.6159,11.7332,7.6373,5.5840,-3.6072,-3.6013,5.5495,9.2260,2.8065,8.9530,8.9053,9.8514,6.4065,4.6450,5.6662,7.6483,10.4328,11.7964
2382.8125,2.5611,8.8391,13.0533,11.9711,8.9860,-1.0519,-1.4930,8.6379,10.8749,4.1479,8.9905,10.9614,12.2423,9.1461,4.3685,5.6796,9.4092,13.0594,15.0927
2386.7188,3.3359,10.0586,12.8731,14.8414,11.0522,4.6255,2.3060,10.8941,10.9690,4.8300,8.0383,11.8419,12.4793,10.9671,3.5333,6.5137,9.0838,14.2996,16.5131
2390.6250,5.6157,11.1214,12.1847,15.7504,11.7344,12.1980,6.6860,11.7451,10.1853,5.0977,6.9371,11.7499,11.0751,11.9525,2.7006,8.0671,7.0207,14.5879,16.1758
2394.5312,9.3355,11.8004,11.8530,14.9522,11.5239,19.4150,10.2404,11.1502,9.3881,5.2671,6.3176,10.9573,9.1547,12.4401,2.3787,9.0463,4.3275,14.4608,14.7213
2398.4375,13.2699,11.7552,12.0674,13.2048,11.0721,23.8908,11.9007,9.5705,9.0818,5.5652,6.2746,9.6405,7.8058,12.7072,2.7408,7.9548,2.3189,14.1380,12.9557
2402.3438,15.7085,10.5450,12.3143,11.3243,10.7859,24.1780,11.4529,7.7072,9.1523,6.0688,6.3985,7.9118,7.5221,12.7632,3.5556,4.3854,1.8569,13.4222,11.4901
2406.2500,15.4862,7.8395,11.8406,9.7987,10.6357,20.4504,9.5882,6.1449,9.0314,6.7142,6.1088,5.9659,8.0532,12.3872,4.3476,-0.3649,2.9610,11.9574,10.5383
2410.1562,12.6679,3.7800,10.2551,8.6500,10.2639,14.3838,7.4216,5.0923,8.1438,7.3054,5.0624,4.1638,8.7026,11.3624,4.6697,-3.9006,4.9003,9.6261,9.9324
2414.0625,8.4533,-0.7919,7.8487,7.5662,9.2894,8.2676,5.7792,4.3494,6.3252,7.4963,3.3873,2.9296,8.8326,9.7123,4.3224,-4.2221,6.6770,6.7647,9.3057
2417.9688,4.4129,-4.5435,5.4240,6.1721,7.5948,3.8441,4.7352,3.5070,3.9341,6.8109,1.6063,2.5004,8.2259,7.7473,3.4131,-1.1072,7.5782,4.0191,8.3190
2421.8750,1.6024,-6.3202,3.7601,4.2681,5.4195,1.5427,3.7102,2.2473,1.6019,4.7967,0.3108,2.7124,7.0914,5.8847,2.2557,3.5967,7.4575,1.9368,6.8150
2425.7812,0.1204,-5.8972,3.0802,1.9305,3.2284,0.5312,2.0392,0.5679,-0.1927,1.3163,-0.2121,3.0079,5.7763,4.3829,1.1956,7.0263,6.6222,0.5999,4.8500
2429.6875,-0.6756,-4.2542,2.8832,-0.5282,1.4691,-0.4980,-0.4139,-1.1949,-1.4199,-3.1677,-0.1712,2.7096,4.4504,3.2014,0.4659,7.0420,5.4760,-0.4112,2.6342
2433.5938,-1.5387,-3.0685,2.2577,-2.6736,0.3842,-2.3401,-3.0412,-2.5429,-2.4600,-7.5497,-0.1617,1.4182,3.0202,2.1036,0.1314,3.5310,4.2131,-1.6751,0.4489
2437.5000,-2.7572,-3.6750,0.4838,-4.0811,-0.0245,-4.7196,-4.8160,-3.0821,-3.7625,-10.4249,-0.8107,-0.7168,1.3251,0.9221,0.1144,-1.5558,2.7780,-3.4440,-1.4105
2441.4062,-3.9963,-6.1824,-2.4587,-4.4591,0.0954,-6.4949,-4.9190,-2.7274,-5.4486,-10.7301,-2.3860,-3.0350,-0.5750,-0.2269,0.2523,-5.4247,1.0737,-5.3754,-2.6715
2445.3125,-4.5960,-9.3830,-5.8003,-3.7580,0.5625,-6.4652,-3.2503,-1.7493,-7.1499,-8.3529,-4.6023,-4.7079,-2.2881,-0.9662,0.3438,-6.1111,-0.7939,-6.6992,-3.1402
2449.2188,-4.0730,-11.5496,-8.3716,-2.2339,1.2160,-4.2511,-0.5292,-0.6528,-8.2094,-4.3273,-6.7513,-5.1842,-3.2824,-0.9184,0.1838,-3.5590,-2.4594,-6.7274,-2.7893
2453.1250,-2.4971,-11.5589,-9.2406,-0.4121,1.9033,-0.6959,2.0148,0.0394,-8.1167,-0.4345,-8.0841,-4.4738,-3.2557,-0.0180,-0.3873,0.4985,-3.4908,-5.3582,-1.8353
2457.0312,-0.5405,-9.5397,-8.2207,1.0777,2.4623,2.4559,3.1373,0.0001,-6.8836,1.6233,-8.2216,-3.1061,-2.3989,1.3665,-1.3991,3.6886,-3.6783,-3.2204,-0.7253
2460.9375,0.7959,-6.6173,-5.9655,1.7458,2.7516,3.4085,2.0162,-0.7802,-5.1004,1.0359,-7.3451,-1.8088,-1.3380,2.6069,-2.6623,4.4042,-3.1921,-1.3512,0.0121
2464.8438,0.6242,-4.0309,-3.6255,1.4357,2.7129,1.2089,-1.4857,-2.0077,-3.6347,-1.7675,-6.0586,-1.1239,-0.7759,3.1667,-3.7518,2.6211,-2.4807,-0.6272,-0.0042
2468.7500,-1.4181,-2.3722,-2.2978,0.3366,2.3926,-3.7951,-6.7364,-3.2346,-3.1751,-5.4209,-5.0235,-1.2002,-1.0918,2.8777,-4.1353,-0.2865,-1.9921,-1.3326,-0.8336
2472.6562,-4.9517,-1.5428,-2.5831,-1.2032,1.8730,-10.1390,-12.4241,-4.0830,-3.9154,-8.3825,-4.6089,-1.8644,-2.1812,1.9492,-3.4367,-2.5192,-1.9286,-3.1341,-2.2218
2476.5625,-8.9330,-1.3713,-4.4525,-2.9341,1.1512,-15.9190,-16.8701,-4.4393,-5.5612,-9.7055,-4.7791,-2.8746,-3.6345,0.7287,-1.7135,-2.9748,-2.2127,-5.4230,-3.7979
2480.4688,-12.0280,-2.2237,-7.4056,-4.8293,0.0885,-19.5795,-18.5766,-4.5041,-7.6027,-9.3974,-5.2594,-4.1355,-5.0818,-0.5664,0.4378,-1.8611,-2.6591,-7.7272,-5.3180
2484.3750,-13.1624,-4.9158,-10.7392,-6.9556,-1.4732,-20.4247,-16.8614,-4.6398,-9.6205,-8.2159,-5.8263,-5.7024,-6.4093,-1.9131,2.0781,-0.4834,-3.1811,-9.8700,-6.7628
2488.2812,-12.0093,-9.8536,-13.7433,-9.1686,-3.4535,-18.6777,-12.2623,-5.0781,-11.3972,-7.0861,-6.4806,-7.5714,-7.6716,-3.2836,2.3789,-0.3785,-3.8393,-11.7877,-8.1909
2492.1875,-9.1546,-16.0894,-15.7702,-10.8837,-5.3197,-15.1715,-6.3989,-5.6616,-12.7914,-6.5233,-7.3663,-9.4373,-8.7886,-4.3681,1.1020,-2.3194,-4.6837,-13.2094,-9.4529
2496.0938,-5.8063,-21.2208,-16.2606,-11.1688,-6.1345,-10.9231,-1.2595,-5.8173,-13.5353,-6.3997,-8.5078,-10.6455,-9.3205,-4.5043,-1.1968,-5.7707,-5.5338,-13.5313,-10.0124
2500.0000,-3.1724,-22.5106,-14.8423,-9.2024,-4.9507,-6.8280,1.7417,-4.8402,-13.1901,-6.1559,-9.5927,-10.4393,-8.5741,-2.9652,-3.4082,-9.1113,-5.9174,-12.0685,-9.0873
2503.9062,-1.8458,-18.6258,-11.5161,-4.8561,-1.3890,-3.5518,2.3807,-2.3634,-11.3617,-5.2882,-10.0103,-8.3839,-6.0366,0.5251,-4.4600,-10.5111,-5.2836,-8.5542,-6.1016
2507.8125,-1.5688,-10.7756,-6.8106,0.9850,3.9438,-1.5335,1.5298,1.2730,-8.0556,-3.7858,-9.1670,-4.7023,-1.8530,5.3980,-3.9172,-8.9662,-3.3855,-3.5258,-1.1867
2511.7188,-1.5224,-2.3073,-1.7408,6.6390,9.5091,-0.9627,0.4298,5.0228,-3.8987,-2.2422,-6.8837,-0.2815,3.0214,10.2915,-2.2185,-4.8926,-0.5682,1.7298,4.6260
2515.6250,-0.9469,3.1361,2.4942,10.3304,13.4230,-1.6878,-0.1583,7.5694,-0.0090,-1.5602,-3.5955,3.6855,7.1625,13.5993,-0.3836,0.0778,2.2746,5.7080,9.7212
2519.5312,0.3202,3.7307,4.9607,11.0114,14.3009,-3.1573,-0.3443,7.9749,2.4746,-2.4133,-0.1997,6.2257,9.3449,14.2306,0.6314,3.9881,4.1025,7.3975,12.6037
2523.4375,1.7455,0.4381,5.3527,8.8314,11.9087,-4.5478,-0.8076,6.1660,2.9442,-4.7691,2.3666,6.9774,9.1319,12.1362,0.5205,5.6005,4.2684,6.7362,12.5994
2527.3438,2.4867,-3.8261,4.0611,4.9918,7.2534,-5.1168,-2.0902,2.9593,1.6190,-7.7629,3.5532,6.2380,7.0261,8.2906,-0.2239,4.9677,2.8664,4.5387,10.1423
2531.2500,1.9782,-6.2138,1.9168,1.0924,2.0701,-4.6115,-4.0483,-0.3859,-0.6092,-10.0273,3.3697,4.6843,4.1093,4.1555,-0.6915,3.2109,0.6667,1.9712,6.4817
2535.1562,0.3095,-5.7368,-0.2338,-1.6328,-1.9988,-3.4384,-5.8796,-2.8085,-2.6911,-10.3379,2.2311,2.9778,1.4247,0.9636,-0.2019,1.6951,-1.3255,-0.0728,2.9996
2539.0625,-1.8402,-3.6310,-1.8749,-2.7680,-4.0835,-2.4067,-6.6819,-3.8956,-3.9805,-8.2510,0.6283,1.5016,-0.5032,-0.7659,1.2156,1.1721,-2.4144,-1.3156,0.5519
2542.9688,-3.6216,-2.1603,-2.9202,-2.6698,-4.2957,-2.1519,-6.0966,-3.9111,-4.5031,-4.3946,-1.1274,0.3407,-1.7496,-1.2572,2.8249,1.4411,-2.5380,-2.0034,-0.8017
2546.8750,-4.4739,-2.8381,-3.5596,-2.0589,-3.4380,-2.6313,-4.5550,-3.4645,-4.7894,-0.2417,-2.9234,-0.5638,-2.6977,-1.1352,3.6541,1.6790,-2.1947,-2.5304,-1.5823
2550.7812,-4.3272,-5.3703,-3.9991,-1.5641,-2.4553,-3.0956,-2.9715,-3.0929,-5.4034,2.5389,-4.6666,-1.2579,-3.6349,-0.9954,3.1193,1.1263,-2.0485,-3.0840,-2.3961
2554.6875,-3.4821,-7.9953,-4.2688,-1.4832,-1.9658,-2.6301,-2.1476,-3.0301,-6.4824,2.8362,-6.0947,-1.7310,-4.5224,-1.1506,1.4037,-0.3953,-2.4789,-3.5467,-3.4986
2558.5938,-2.3307,-8.8317,-4.2027,-1.8136,-2.0882,-0.9133,-2.3280,-3.2428,-7.5802,0.5922,-6.7623,-1.9758,-5.0602,-1.6348,-0.6241,-2.4562,-3.3505,-3.6602,-4.6679
2562.5000,-1.1505,-7.1705,-3.5748,-2.4127,-2.5705,1.3852,-3.1771,-3.6045,-7.9063,-3.1849,-6.2437,-2.0470,-4.9457,-2.3508,-1.8753,-4.3952,-4.1268,-3.2716,-5.4082
2566.4062,-0.0730,-3.8259,-2.2970,-3.1164,-3.0630,2.9376,-4.1003,-4.0128,-6.8119,-6.8667,-4.4205,-2.0393,-4.1182,-3.1919,-1.5992,-5.7233,-4.2326,-2.4575,-5.3090
2570.3125,0.8422,-0.4531,-0.5645,-3.7509,-3.3499,2.6521,-4.6073,-4.3702,-4.2291,-8.8749,-1.6544,-2.0103,-2.8288,-4.0582,0.2579,-6.2451,-3.4316,-1.4581,-4.3303
2574.2188,1.5631,1.5136,1.1270,-4.1115,-3.4363,0.4898,-4.4721,-4.5132,-0.7995,-8.2828,1.2866,-1.9419,-1.5195,-4.8172,3.0396,-5.9084,-1.9888,-0.5136,-2.8648
2578.1250,2.1219,1.5126,2.1242,-4.0123,-3.4956,-2.4422,-3.6824,-4.2387,2.3882,-5.1257,3.5255,-1.8051,-0.6136,-5.3096,5.6645,-4.6627,-0.5303,0.2469,-1.5703
2582.0312,2.6523,-0.2049,1.8848,-3.4190,-3.7439,-4.6540,-2.3546,-3.4681,4.3200,-0.3554,4.4490,-1.6727,-0.3406,-5.4318,7.0674,-2.5705,0.3103,0.7903,-1.0694
2585.9375,3.3201,-3.0285,0.2793,-2.5585,-4.3080,-5.3505,-0.7529,-2.4233,4.5619,4.5075,3.9745,-1.7488,-0.6635,-5.2263,6.6361,-0.0968,0.2496,1.0931,-1.6503
2589.8438,4.1521,-6.3045,-2.2236,-1.8709,-5.1335,-4.9802,0.6413,-1.6180,3.4788,7.9000,2.5908,-2.2259,-1.3083,-4.8721,4.5122,1.7845,-0.4862,1.0975,-3.0926
2593.7500,4.9109,-9.2938,-4.6297,-1.7772,-5.9618,-4.7723,1.1981,-1.5878,2.0428,8.7734,1.1571,-3.0432,-1.8657,-4.5491,1.6375,1.9743,-1.2902,0.7672,-4.7000
2597.6562,5.1824,-11.0408,-5.7954,-2.3971,-6.4008,-5.5678,0.4478,-2.5091,1.3210,7.0103,0.5388,-3.7536,-1.9396,-4.2701,-0.5390,0.0154,-1.5176,0.1882,-5.5621
2601.5625,4.6865,-10.5764,-4.9769,-3.4241,-6.0839,-6.8709,-1.5195,-3.9944,1.9062,3.5302,1.2199,-3.6822,-1.3103,-3.8311,-0.6701,-3.2996,-0.8519,-0.4001,-4.9678
2605.4688,3.6023,-7.5388,-2.2743,-4.2782,-4.8654,-6.9680,-3.8879,-5.2675,3.5979,-0.0262,3.0567,-2.3548,-0.0597,-2.9551,1.7782,-6.0783,0.5090,-0.7111,-2.7941
2609.3750,2.6210,-2.7642,1.3166,-4.4639,-2.9503,-4.1760,-5.4210,-5.6491,5.5189,-1.9744,5.3030,0.0702,1.4183,-1.5470,6.0808,-6.3497,1.9503,-0.5957,0.3426
2613.2812,2.5962,1.7880,4.3421,-3.8960,-0.8648,1.6434,-5.1401,-5.0262,6.6154,-1.3617,6.9409,2.7108,2.5621,0.1289,10.4125,-3.3827,2.7667,-0.1663,3.3060
2617.1875,3.9731,4.0046,5.6251,-2.9645,0.7490,8.4950,-2.9578,-3.9537,6.2691,1.5480,7.1976,4.3675,2.8977,1.5086,12.6642,1.6343,2.5334,0.2577,4.9666
2621.0938,6.3858,2.9735,4.8881,-2.2791,1.4244,13.1994,0.1869,-3.2798,4.6687,5.3794,5.9936,4.2368,2.2752,2.0175,11.5582,6.1535,1.3143,0.3634,4.7716
2625.0000,8.7510,-0.2344,2.8880,-2.2573,1.0893,13.3673,2.8324,-3.5382,2.7147,8.3353,4.0493,2.4794,0.9421,1.4126,7.4340,7.8217,-0.3998,0.0771,3.0359
2628.9062,9.8529,-3.0509,0.9666,-2.8304,0.0908,9.0526,3.8316,-4.5373,1.5052,9.1209,2.5370,0.2311,-0.5942,-0.0495,2.1838,6.0198,-1.9694,-0.3571,0.7675
2632.8125,9.0649,-2.9904,0.2827,-3.4630,-0.9830,2.8685,2.9814,-5.4499,1.7065,7.5798,2.4304,-1.0101,-1.8265,-1.7340,-1.7100,2.3022,-2.9200,-0.5142,-0.8761
2636.7188,6.7361,0.6857,1.1964,-3.4715,-1.5745,-1.6120,1.0502,-5.3582,3.1888,4.6760,3.9245,-0.2674,-2.4596,-2.9579,-2.5135,-0.6233,-3.1078,-0.0523,-1.1801
2640.6250,3.9913,6.3810,3.1685,-2.4355,-1.3683,-2.1185,-0.7645,-3.8750,5.1477,1.8517,6.2964,2.3164,-2.4508,-3.3187,-0.1670,-0.7127,-2.6630,1.0753,-0.1676
2644.5312,2.0858,11.1098,5.1964,-0.4486,-0.3557,0.9410,-1.5454,-1.4148,6.6251,0.1831,8.3229,5.5513,-1.8920,-2.8314,3.7630,2.0447,-1.7974,2.5970,1.5430
2648.4375,1.7428,12.3701,6.4608,1.9276,1.2322,4.9264,-1.0699,1.0643,7.0866,-0.1352,9.0097,7.8914,-0.8729,-1.8277,7.0554,5.6448,-0.6459,4.0872,3.1718
2652.3438,2.8715,9.6803,6.7449,3.9489,3.0320,6.8832,0.2616,2.6506,6.6877,0.3137,8.1651,8.3027,0.5365,-0.7290,8.1073,7.4460,0.7338,5.1909,4.1896
2656.2500,4.7732,4.7597,6.3824,5.0290,4.6263,5.5547,1.8103,2.9871,6.0677,0.7514,6.4446,6.7709,2.1700,0.1444,6.7201,5.9344,2.2212,5.7543,4.4598
2660.1562,6.6146,0.2882,5.8413,4.9473,5.5922,2.1012,3.0614,2.3715,5.8345,0.8110,4.8475,4.1809,3.6450,0.6350,3.9761,1.6795,3.5009,5.7963,4.0952
2664.0625,7.8243,-1.8454,5.3002,3.8534,5.5778,-0.8941,3.7440,1.4326,6.1027,0.7345,4.0251,1.7143,4.4087,0.7068,1.3954,-3.1046,4.1002,5.3809,3.2275
2667.9688,8.2023,-1.5986,4.5463,2.1228,4.4387,-1.3237,3.7554,0.6622,6.4036,1.0548,3.8868,0.1908,3.9983,0.3938,-0.0023,-5.9978,3.6293,4.5155,1.9139
2671.8750,7.7882,-0.4843,3.2585,0.1836,2.3833,1.0227,3.0899,0.1493,6.0211,2.0421,3.7655,-0.2539,2.3730,-0.1998,-0.1316,-5.7934,2.0853,3.1650,0.2485
2675.7812,6.6865,-0.2570,1.4294,-1.5953,0.0106,4.4492,1.8986,-0.3256,4.5148,3.3548,2.9931,-0.0388,0.0701,-0.8681,0.3977,-3.0051,-0.0086,1.3667,-1.4668
2679.6875,5.0098,-1.5777,-0.4301,-2.9386,-1.8541,6.6225,0.5986,-0.9662,2.0675,4.1671,1.4412,0.2528,-1.9834,-1.3172,0.8755,0.7041,-1.7806,-0.6596,-2.7082
2683.5938,2.9364,-3.5896,-1.5031,-3.6642,-2.5030,6.1116,-0.1725,-1.6919,-0.5764,3.6851,-0.3807,0.2204,-2.9428,-1.2709,0.9433,3.6170,-2.4477,-2.5132,-2.9676
2687.5000,0.7579,-4.6351,-1.1870,-3.6973,-1.7066,3.1359,0.1398,-2.1450,-2.5376,1.6817,-1.7307,-0.2451,-2.5278,-0.6296,0.6142,4.7977,-1.7690,-3.7621,-2.1117
2691.4062,-1.1774,-3.5456,0.4241,-3.1080,0.1169,-0.8389,1.5931,-1.9618,-3.3079,-1.3178,-2.2220,-1.0670,-1.2068,0.4232,-0.0234,4.2401,-0.2271,-4.1646,-0.5958
2695.3125,-2.5963,-0.5872,2.4397,-2.1403,2.0483,-4.1610,3.5434,-1.0910,-3.0158,-4.3106,-2.1352,-2.1427,0.0472,1.4556,-1.0582,2.4758,1.1953,-3.8349,0.6684
2699.2188,-3.3869,2.5593,3.5632,-1.1857,3.0785,-5.8622,4.8891,0.0868,-2.3053,-6.3477,-2.2147,-3.4132,0.2883,1.9664,-2.6913,0.1067,1.5295,-3.2389,0.7600
2703.1250,-3.5641,3.7450,2.7744,-0.6769,2.5760,-5.8272,4.6929,0.9383,-1.9316,-6.9769,-3.1016,-4.8252,-0.9018,1.6149,-4.9110,-2.3874,0.3297,-2.9992,-0.7452
2707.0312,-3.1618,1.6154,-0.0816,-0.9263,0.5730,-4.4045,2.8036,0.9428,-2.3400,-6.3557,-4.8310,-6.2662,-3.2272,0.3750,-7.2297,-4.5799,-2.1107,-3.5904,-3.5157
2710.9375,-2.1864,-3.5563,-4.1317,-1.9738,-2.2680,-1.9940,0.0463,0.0103,-3.4662,-5.0421,-6.7630,-7.5570,-5.8757,-1.4597,-8.7857,-6.0291,-4.9384,-5.0725,-6.6081
2714.8438,-0.7010,-9.9118,-7.8373,-3.5240,-4.9688,1.0076,-2.1916,-1.4446,-4.8281,-3.6573,-7.9894,-8.5089,-7.9428,-3.4081,-8.8149,-6.4075,-7.1872,-7.0041,-8.9187
2718.7500,1.0379,-14.8673,-9.7015,-5.0303,-6.6586,3.9988,-2.7504,-2.7135,-5.8054,-2.6335,-7.9086,-8.9872,-8.8260,-4.9901,-7.1707,-5.7478,-8.2248,-8.6039,-9.6848
2722.6562,2.5681,-16.3255,-8.9681,-5.9142,-6.9072,6.1184,-1.3761,-3.1668,-5.9235,-2.1283,-6.5609,-8.9341,-8.4098,-5.8872,-4.4907,-4.5449,-7.9752,-9.1076,-8.7821
2726.5625,3.4291,-13.6433,-5.9757,-5.8392,-5.8398,6.6118,1.1297,-2.5838,-5.0125,-2.0539,-4.5195,-8.3578,-7.0196,-6.0257,-1.8494,-3.5392,-6.8489,-8.1606,-6.7153
2730.4688,3.4779,-7.8987,-2.0028,-4.8967,-4.0211,5.4198,3.3671,-1.2685,-3.2164,-2.1337,-2.4669,-7.3356,-5.2436,-5.5721,-0.1130,-3.2877,-5.4781,-6.0413,-4.3622
2734.3750,3.0469,-1.3354,1.3203,-3.5867,-2.1898,3.4483,4.1077,0.1080,-0.9076,-1.9632,-0.7959,-6.0442,-3.7240,-4.8498,0.5631,-3.8392,-4.4228,-3.5712,-2.6179
2738.2812,2.7439,3.7585,2.7549,-2.5636,-0.9570,2.1369,2.9209,0.8653,1.4338,-1.1199,0.4956,-4.7669,-2.9643,-4.1982,0.7563,-4.7583,-3.9718,-1.7217,-2.0684
2742.1875,2.9720,6.1837,2.0081,-2.2606,-0.5778,2.4968,0.3336,0.6979,3.3503,0.6489,1.6080,-3.8112,-3.1566,-3.8102,1.3185,-5.4583,-4.0761,-1.1029,-2.7775
2746.0938,3.5247,6.3709,-0.1636,-2.5986,-0.8701,4.3070,-2.4983,-0.1138,4.5365,3.2285,2.6620,-3.3332,-4.0606,-3.6166,2.7670,-5.5580,-4.3955,-1.6148,-4.2368
2750.0000,3.6308,5.9892,-2.3480,-2.9749,-1.3041,6.1435,-4.3584,-0.7985,4.9443,6.0699,3.5847,-3.1792,-5.0187,-3.2924,4.9269,-4.9867,-4.4264,-2.4801,-5.5176
2753.9062,2.5214,6.7893,-3.1721,-2.5743,-1.2369,6.3421,-4.4580,-0.4790,4.8040,8.3578,4.2233,-2.8933,-5.1778,-2.4139,7.0279,-3.8231,-3.6895,-2.6710,-5.6222
2757.8125,0.1593,9.3473,-1.9496,-0.8517,-0.1975,4.2627,-2.6417,1.3337,4.5198,9.3668,4.5382,-1.9507,-3.8818,-0.7043,8.1447,-2.1034,-1.9388,-1.5037,-3.9317
2761.7188,-2.4434,12.5219,1.0415,2.0954,1.8956,0.9250,0.6946,4.4108,4.4632,8.8124,4.6705,-0.1045,-1.0511,1.7681,7.6822,0.1534,0.6887,0.9459,-0.5491
2765.6250,-3.6740,14.0693,4.7740,5.5071,4.6908,-1.5170,4.8353,7.8540,4.7712,6.9789,4.8102,2.3884,2.6920,4.5746,5.6424,2.7071,3.6774,3.8644,3.6725
2769.5312,-2.3468,12.1276,8.0318,8.3321,7.5553,-1.1671,8.9681,10.5302,5.2797,4.5446,4.9927,4.8488,6.2769,7.1233,2.5929,4.9264,6.3301,6.1608,7.4909
2773.4375,1.3604,6.6471,9.9856,9.7853,9.8474,2.2903,12.3207,11.6625,5.6489,2.2263,5.0252,6.5431,8.7111,8.9584,-0.5694,5.9796,8.0808,7.0904,9.8653
2777.3438,5.7675,-0.2348,10.4752,9.7591,11.1674,7.2563,14.2331,11.2282,5.6103,0.4759,4.6391,7.1005,9.5756,9.9696,-2.9200,5.3805,8.7506,6.6615,10.4530
2781.2500,8.5643,-5.2560,9.8906,8.8367,11.4661,11.1132,14.2386,9.9174,5.1673,-0.5975,3.7551,6.6923,9.1830,10.3753,-3.7897,3.5037,8.5817,5.5765,9.7131
2785.1562,8.2037,-5.9642,8.7965,7.8994,10.9736,11.7632,12.2006,8.6738,4.6032,-1.0939,2.6314,5.8496,8.3006,10.4945,-2.9909,1.5835,8.0224,4.7557,8.5557
2789.0625,4.9134,-2.3075,7.5809,7.5753,10.0204,8.8147,8.4697,8.1126,4.2774,-1.1392,1.7440,5.0636,7.6319,10.4766,-0.9405,1.0328,7.4071,4.7510,7.7654
2792.9688,0.6184,3.1935,6.3451,7.8746,8.8668,3.7090,3.9476,8.1870,4.3451,-0.8249,1.4645,4.4736,7.4038,10.1858,1.4158,2.4605,6.7568,5.4188,7.5720
2796.8750,-2.2250,6.8867,5.0445,8.2305,7.6314,-1.1955,-0.0695,8.3060,4.5978,-0.2968,1.7748,3.8707,7.3214,9.3244,2.9403,5.0897,5.8426,6.0444,7.6295
2800.7812,-2.1512,6.1773,3.7074,7.9041,6.3273,-3.9234,-2.3054,7.7987,4.5469,0.1364,2.2436,2.9889,6.8814,7.7027,2.8225,7.0891,4.4534,5.8123,7.3732
2804.6875,0.4243,1.0867,2.5190,6.4831,4.9435,-3.7725,-2.0503,6.3909,3.7045,0.0372,2.2902,1.8210,5.7809,5.4511,1.0306,6.7037,2.6467,4.3100,6.4663
2808.5938,3.5132,-5.7981,1.6955,4.1568,3.5018,-1.3813,0.4260,4.3755,1.8774,-0.9438,1.5448,0.6772,4.1143,3.0175,-1.6065,3.4644,0.7672,1.7522,5.0080
2812.5000,4.8399,-10.9290,1.2616,1.6046,2.0558,1.8739,3.8688,2.3865,-0.7175,-2.8079,0.0434,-0.0824,2.2340,0.9463,-3.8115,-1.3729,-0.8003,-1.1857,3.3788
2816.4062,3.2478,-11.9091,0.9348,-0.4111,0.6598,4.6498,6.5334,0.9697,-3.5853,-5.1194,-1.8616,-0.4262,0.4242,-0.4061,-4.5821,-5.5163,-1.9492,-3.7794,1.8848
2820.3125,-0.6663,-8.7985,0.2457,-1.4815,-0.6498,6.1244,6.9851,0.2641,-6.2287,-7.1956,-3.7756,-0.8105,-1.3226,-1.0262,-3.7978,-7.0402,-2.9693,-5.6366,0.5072
2824.2188,-5.0374,-3.8835,-1.1639,-1.7499,-1.8418,6.0667,4.7856,-0.0038,-8.3763,-8.4759,-5.4876,-1.9391,-3.2323,-1.1817,-2.3107,-5.5777,-4.3294,-6.8205,-1.0374
2828.1250,-7.9361,-0.1897,-3.2743,-1.7701,-2.8670,4.6470,0.6651,-0.2551,-10.0206,-8.8196,-6.9876,-4.2555,-5.4381,-1.2121,-1.4328,-2.5126,-6.2574,-7.6848,-2.9803
2832.0312,-8.4729,0.2429,-5.6509,-2.1392,-3.6629,2.2340,-3.9342,-0.7543,-11.2709,-8.5237,-8.3039,-7.5258,-7.7012,-1.3324,-2.1253,-0.0533,-8.4419,-8.5707,-5.1983
2835.9375,-7.1297,-2.7105,-7.6796,-3.1402,-4.1962,-0.6996,-7.6688,-1.4878,-12.1606,-8.0540,-9.3439,-10.8374,-9.4245,-1.5775,-4.4014,0.1785,-10.1205,-9.5744,-7.1875
2839.8438,-5.2237,-7.5221,-8.9235,-4.6037,-4.5133,-3.6047,-9.9484,-2.2749,-12.5687,-7.6988,-9.9002,-13.0526,-9.9955,-1.8882,-7.3124,-1.8819,-10.5471,-10.5162,-8.3593
2843.7500,-3.9727,-12.0833,-9.3606,-6.0442,-4.7483,-5.9219,-11.0327,-2.9717,-12.3131,-7.4021,-9.8226,-13.4356,-9.2277,-2.2347,-9.5049,-4.8122,-9.5304,-11.0881,-8.4459
2847.6562,-3.8161,-14.8086,-9.3484,-6.9610,-5.0660,-7.2205,-11.5514,-3.5792,-11.3359,-6.8862,-9.1895,-12.0461,-7.5667,-2.6632,-9.9712,-6.7002,-7.6477,-11.0569,-7.7069
2851.5625,-4.3624,-15.1712,-9.3476,-7.1148,-5.5658,-7.3441,-11.8375,-4.1752,-9.8260,-5.9401,-8.3050,-9.6623,-5.8806,-3.2381,-8.5282,-6.3744,-5.9435,-10.3925,-6.7729
2855.4688,-4.8545,-13.5818,-9.5983,-6.6285,-6.2143,-6.4580,-11.5861,-4.7592,-8.1760,-4.6250,-7.4974,-7.3115,-4.9521,-3.9483,-5.7826,-4.0818,-5.2933,-9.2672,-6.2350
2859.3750,-4.7249,-10.9372,-9.9643,-5.8811,-6.8555,-4.9495,-10.1060,-5.1743,-6.7977,-3.2291,-6.8778,-5.7384,-5.0170,-4.6783,-2.6989,-1.2494,-5.8619,-7.9634,-6.2772
2863.2812,-3.8534,-8.2167,-10.0384,-5.2819,-7.3000,-3.2330,-6.9759,-5.1943,-5.9260,-2.0247,-6.2742,-5.1346,-5.6666,-5.2796,-0.1102,0.4358,-7.0399,-6.7641,-6.6127
2867.1875,-2.4561,-6.2632,-9.4278,-5.0631,-7.4329,-1.5717,-2.6037,-4.7103,-5.5474,-1.0601,-5.4170,-5.2365,-6.1803,-5.6859,1.5321,0.0068,-7.9019,-5.8821,-6.7549
2871.0938,-0.8320,-5.6343,-8.0289,-5.1962,-7.2685,-0.0137,1.7624,-3.8548,-5.4867,-0.1899,-4.2363,-5.6357,-6.0484,-5.9685,2.1194,-2.3172,-7.8593,-5.4351,-6.4040
2875.0000,0.7552,-6.4011,-6.1230,-5.4530,-6.9170,1.5243,4.6269,-2.9487,-5.5688,0.6588,-3.0198,-6.0391,-5.3128,-6.2764,1.7281,-5.3690,-7.0390,-5.4456,-5.6568
2878.9062,1.9917,-7.9697,-4.2433,-5.5537,-6.4923,3.0767,5.0630,-2.3032,-5.7207,1.2225,-2.2688,-6.3192,-4.4912,-6.6942,0.5494,-7.7360,-6.1237,-5.8411,-4.8911
2882.8125,2.4068,-9.1726,-2.9052,-5.3086,-6.0289,4.4598,3.2081,-2.0321,-5.9445,0.9224,-2.3353,-6.3951,-4.1504,-7.1241,-1.0515,-8.4703,-5.7831,-6.4556,-4.4329
2886.7188,1.4895,-8.7883,-2.3588,-4.6845,-5.4680,5.2320,0.1217,-2.0197,-6.2005,-0.7456,-3.1094,-6.1174,-4.4446,-7.2823,-2.4851,-7.4333,-6.1243,-7.0455,-4.2738
2890.6250,-0.9316,-6.3152,-2.4935,-3.7808,-4.7210,4.8552,-2.8631,-2.0608,-6.3233,-3.6831,-4.0172,-5.2952,-4.9525,-6.8224,-3.0716,-5.1819,-6.5684,-7.3316,-4.0636
2894.5312,-4.3001,-2.5031,-2.9297,-2.7521,-3.7610,3.0192,-4.8388,-2.0443,-6.0638,-6.9294,-4.3578,-3.8528,-4.9302,-5.5122,-2.3750,-2.5647,-6.2415,-7.0640,-3.3822
2898.4375,-7.3106,0.8343,-3.2288,-1.7296,-2.6738,-0.0341,-5.6259,-2.0216,-5.2397,-8.9633,-3.7530,-1.9670,-3.8013,-3.3644,-0.5378,-0.3059,-4.5923,-6.0892,-2.0827
2902.3438,-8.4373,1.7895,-3.1007,-0.7802,-1.6265,-3.4120,-5.5575,-2.1034,-3.8788,-8.4856,-2.3793,-0.0428,-1.5452,-0.6570,1.6650,1.2142,-1.7878,-4.4006,-0.4393
2906.2500,-6.7876,-0.3979,-2.4991,0.0943,-0.7692,-5.8427,-4.9997,-2.2793,-2.2265,-5.2376,-0.8136,1.4911,1.2767,2.1513,3.1792,1.9444,1.3866,-2.1534,1.0206
2910.1562,-2.7484,-4.6414,-1.5676,0.9389,-0.1321,-6.2510,-4.0099,-2.3278,-0.5931,-0.3153,0.3931,2.4306,3.8621,4.5626,3.2743,2.0136,4.0320,0.3648,1.8842
2914.0625,2.0646,-8.4121,-0.4852,1.8256,0.4140,-4.3379,-2.3774,-1.9156,0.8555,4.2930,1.0942,2.9116,5.6338,6.1834,2.0226,1.5925,5.6710,2.8086,2.1582
2917.9688,5.6255,-9.1271,0.6843,2.8338,1.0957,-0.7965,0.0334,-0.8301,2.1962,6.7276,1.5958,3.3047,6.5208,6.8363,0.3213,0.8493,6.4385,4.8770,2.2902
2921.8750,6.6341,-5.7216,2.0312,4.0139,2.1003,3.0259,2.9494,0.8215,3.6431,6.2534,2.3492,3.9588,6.8868,6.6122,-0.5955,-0.0151,6.8293,6.4076,2.8810
2925.7812,5.2609,0.5892,3.6930,5.3305,3.4334,5.8561,5.6484,2.5995,5.2987,3.6340,3.5339,4.9710,7.1865,5.8417,0.1269,-0.7315,7.2274,7.4154,4.2778
2929.6875,3.0075,6.8922,5.6634,6.6081,4.8543,7.1693,7.2687,3.9233,6.9489,0.6590,4.8594,6.1341,7.6061,4.9718,2.4601,-0.9939,7.5890,8.0468,6.3151
2933.5938,1.7518,10.1969,7.6504,7.5290,5.9393,7.3693,7.2621,4.3461,8.0809,-0.8839,5.7492,7.0873,7.9355,4.3751,5.5125,-0.5572,7.5090,8.4649,8.3657
2937.5000,2.5804,9.1247,9.1092,7.7224,6.2548,7.3600,5.6952,3.7438,8.1555,-0.1781,5.7741,7.5585,7.7442,4.1730,8.0485,0.6645,6.5974,8.7298,9.6637
2941.4062,5.1510,4.6474,9.4729,6.9314,5.5637,7.8169,3.2144,2.3246,6.9736,2.2622,5.0101,7.5305,6.7248,4.1761,9.1745,2.5640,4.8653,8.7541,9.6962
2945.3125,7.9695,-0.5450,8.4698,5.1796,3.9562,8.6821,0.7105,0.4927,4.8877,4.9977,4.0418,7.2276,4.9590,3.9967,8.7696,4.8791,2.8214,8.3704,8.4331
2949.2188,9.3608,-3.6147,6.3368,2.8309,1.8306,9.2389,-1.1127,-1.3243,2.6886,6.5308,3.5920,6.9386,2.9266,3.2862,7.4269,7.2458,1.2037,7.4747,6.2869
2953.1250,8.4776,-3.1112,3.7744,0.4796,-0.2761,8.6881,-2.0286,-2.7922,1.2060,6.0955,4.0272,6.7987,1.2523,1.9587,5.9921,9.2084,0.5375,6.1465,3.8616
2957.0312,5.7117,0.4111,1.6355,-1.2967,-1.9237,6.7791,-2.3065,-3.7102,0.8606,3.9485,5.0843,6.6770,0.3572,0.2562,5.0279,10.2073,0.8250,4.6536,1.6623
2960.9375,2.3178,4.9406,0.5122,-2.1905,-2.9404,4.0209,-2.4774,-4.0169,1.4473,1.0850,6.0128,6.2451,0.2371,-1.3895,4.5481,9.6464,1.5666,3.3240,-0.0703
2964.8438,-0.4083,8.2465,0.4566,-2.2741,-3.4376,1.3388,-2.9836,-3.7922,2.2912,-1.3569,6.0438,5.1961,0.5011,-2.6031,4.1588,7.1339,2.0842,2.3666,-1.3371
2968.7500,-1.8070,8.9944,1.0023,-1.8936,-3.6602,-0.5318,-3.8969,-3.2423,2.6780,-2.6224,4.8788,3.4874,0.6440,-3.2445,3.4632,2.8425,1.9250,1.7677,-2.2274
2972.6562,-1.9830,7.1401,1.4712,-1.4118,-3.7687,-1.4402,-4.8485,-2.6305,2.2864,-2.5466,2.8895,1.4574,0.3791,-3.3994,2.4227,-2.2439,1.1031,1.3407,-2.7602
2976.5625,-1.4273,3.5624,1.3752,-0.9664,-3.6942,-1.7300,-5.2194,-2.1529,1.3549,-1.4406,0.9099,-0.2695,-0.1682,-3.2011,1.4147,-6.4822,0.0628,0.8984,-2.8238
2980.4688,-0.5280,-0.6274,0.6739,-0.4085,-3.1639,-1.8005,-4.5020,-1.8233,0.4898,0.1669,-0.2348,-1.0656,-0.5237,-2.6433,0.9488,-8.2196,-0.5793,0.4169,-2.2460
2984.3750,0.6255,-4.5725,-0.2511,0.5341,-1.8905,-1.7264,-2.6403,-1.4604,0.2536,1.7468,-0.1716,-0.6282,-0.1515,-1.5506,1.2479,-6.6796,-0.3496,0.0639,-0.9398
2988.2812,2.0495,-7.7274,-0.8629,1.9823,0.1906,-1.2622,-0.1382,-0.8164,0.8033,2.8783,0.8570,0.8268,1.1993,0.2488,2.0022,-2.5499,0.8607,0.0589,0.9694
2992.1875,3.5391,-9.6548,-0.7910,3.7189,2.7884,-0.2019,2.1601,0.2255,1.8040,3.2972,2.1776,2.6353,3.2880,2.6739,2.5027,2.2016,2.7431,0.4698,3.1194
2996.0938,4.5715,-9.9125,-0.0157,5.2397,5.3235,1.2553,3.5147,1.5243,2.6572,2.9507,3.0821,4.0046,5.4440,5.2757,2.1008,5.3211,4.6839,1.1105,5.0171
3000.0000,4.5827,-8.2191,1.1707,6.0345,7.1740,2.4880,3.6993,2.7366,2.8861,2.0487,3.2005,4.4220,6.8802,7.3830,0.7110,5.5479,5.9920,1.6394,6.2323
3003.9062,3.4142,-4.7713,2.3581,5.9204,7.9668,2.8337,3.1087,3.5296,2.4301,1.0323,2.6545,3.9239,7.0980,8.4490,-0.9984,3.3730,6.1726,1.8080,6.5860
3007.8125,1.5470,-0.3893,3.2260,5.1986,7.7524,2.0635,2.4845,3.8039,1.6748,0.3981,1.9368,3.0645,6.1628,8.3703,-1.9068,0.7294,5.1550,1.6804,6.2319
3011.7188,-0.1144,3.7275,3.6433,4.5060,6.9581,0.5576,2.4316,3.7484,1.2084,0.4319,1.6072,2.5886,4.6879,7.5502,-1.1092,-0.2518,3.3686,1.6390,5.5760
3015.6250,-0.7889,6.5368,3.6424,4.4307,6.1442,-0.9629,3.0442,3.6711,1.4635,1.0150,1.9797,2.9943,3.5159,6.6392,1.4429,1.3672,1.5945,2.1378,5.0616
3019.5312,-0.3020,7.6312,3.3336,5.1244,5.6937,-1.9173,3.8855,3.7223,2.4577,1.6675,2.9643,4.2418,3.2625,6.1155,4.7548,4.7263,0.6192,3.3504,4.9287
3023.4375,0.8578,7.3270,2.8430,6.1656,5.6101,-2.1612,4.3128,3.7238,3.7801,1.8492,4.1372,5.7808,3.9779,5.9884,7.2412,7.7791,0.8438,4.9622,5.0847
3027.3438,1.9432,6.3245,2.3019,6.7780,5.5402,-1.8826,3.9038,3.2624,4.8232,1.3469,4.9962,6.8818,5.1291,5.8301,7.6122,8.7128,2.0679,6.2818,5.1754
3031.2500,2.4933,5.2189,1.8544,6.2894,5.0136,-1.2570,2.6890,2.0099,5.1239,0.4816,5.2569,7.0689,5.9260,5.1205,5.6796,7.1981,3.5995,6.6347,4.8268
3035.1562,2.5980,4.2265,1.6312,4.5580,3.7697,-0.2407,1.0679,0.0542,4.6192,-0.0431,5.0189,6.3892,5.8058,3.6649,2.5667,4.5965,4.6499,5.7951,3.9160
3039.0625,2.6971,3.2756,1.6767,2.1011,1.9805,1.2539,-0.4686,-2.0145,3.6727,0.4067,4.6886,5.3541,4.7784,1.7924,0.1323,2.9782,4.7785,4.1617,2.6911
3042.9688,3.1104,2.2924,1.8780,-0.1613,0.2263,2.9515,-1.5691,-3.3664,2.8523,1.9207,4.6823,4.5834,3.4090,0.1849,-0.1030,3.6406,4.0999,2.5332,1.6402
3046.8750,3.7102,1.3550,1.9675,-1.4056,-0.7855,4.0098,-2.0595,-3.4106,2.5794,3.8673,5.0756,4.3677,2.4331,-0.5575,2.1000,6.1591,3.1127,1.6073,1.1740
3050.7812,4.0146,0.5507,1.6357,-1.3535,-0.6162,3.3575,-1.8498,-2.1908,2.8470,5.1620,5.4290,4.4199,2.2451,-0.3230,5.4766,8.6176,2.2737,1.5208,1.3216
3054.6875,3.6182,-0.2983,0.7086,-0.4089,0.6237,0.4627,-0.8987,-0.4267,3.1787,4.8424,4.9490,3.9862,2.6005,0.4149,7.9347,8.8441,1.6317,1.7426,1.6625
