Time,Fp1,F3,C3,P3,O1,F7,T3,T5,Fz,Fp2,F4,C4,P4,O2,F8,T4,T6,Cz,Pz
0.0000,2.7748,2.8256,3.1434,-0.4436,-0.6409,1.6506,1.9427,-0.1427,-0.0078,1.1473,0.5011,1.9504,1.1390,0.2502,-0.1140,-0.3303,-1.1288,1.8277,1.6015
3.9062,0.7216,3.2387,3.1175,-0.6210,0.6687,0.2457,1.5351,-0.5130,-0.3088,0.1353,-0.0907,1.5269,1.0431,0.6176,-0.7398,-0.6390,-0.7897,1.2559,1.9923
7.8125,-1.8652,2.9106,2.0812,-0.9574,1.5166,-2.0721,0.1207,-1.3396,-0.7403,-1.0829,-0.9930,0.4360,0.2089,0.6260,-1.3809,-1.2702,-0.8504,0.1844,1.6518
11.7188,-4.1167,1.5767,-0.1762,-1.2839,1.6061,-4.5049,-2.0734,-2.3339,-1.0087,-1.9234,-1.8410,-1.2006,-1.1977,0.3269,-1.7580,-2.1143,-1.2594,-1.0341,0.5298
15.6250,-5.3023,-0.5976,-3.2349,-1.3472,1.1889,-5.9942,-4.3963,-2.9957,-0.8418,-1.9240,-2.2197,-2.9747,-2.6197,0.0490,-1.7357,-2.9392,-1.6877,-1.8732,-0.9824
19.5312,-5.2640,-3.0635,-6.1455,-0.9591,0.9269,-5.8922,-6.1407,-2.8981,-0.1959,-1.0642,-1.9193,-4.3739,-3.4047,0.1972,-1.3972,-3.4827,-1.7236,-1.9220,-2.2710
23.4375,-4.4903,-5.1394,-7.8899,-0.1397,1.4324,-4.4414,-6.9417,-1.9767,0.6637,0.1819,-1.0777,-5.0196,-3.1811,0.9700,-0.9566,-3.5532,-1.1343,-1.1341,-2.8668
27.3438,-3.7747,-6.3154,-7.9435,0.8469,2.7976,-2.6780,-6.9334,-0.6269,1.2850,1.1251,-0.1026,-4.8099,-2.0668,2.1958,-0.5841,-3.0885,-0.0171,0.1259,-2.7066
31.2500,-3.6857,-6.4371,-6.5812,1.6108,4.4616,-1.7633,-6.5707,0.4813,1.3007,1.2988,0.5841,-3.8879,-0.5684,3.4165,-0.2866,-2.1565,1.2647,1.2774,-2.1103
35.1562,-4.2055,-5.6907,-4.7113,1.8553,5.5438,-2.1804,-6.2689,0.7755,0.6853,0.7650,0.8115,-2.4824,0.7616,4.1753,0.0577,-0.9133,2.3137,1.8502,-1.4972
39.0625,-4.7714,-4.4301,-3.3247,1.5681,5.4410,-3.3750,-6.1355,0.1188,-0.1653,0.0777,0.7589,-0.7552,1.6755,4.3168,0.5462,0.4505,2.9397,1.7502,-1.0519
42.9688,-4.6690,-2.9758,-2.9046,1.0567,4.2833,-4.1333,-5.9804,-1.1041,-0.5950,-0.0711,0.8269,1.2267,2.3535,4.0917,1.1166,1.7566,3.2529,1.3095,-0.5830
46.8750,-3.4970,-1.4967,-3.1772,0.7899,2.9159,-3.4631,-5.5656,-2.2095,-0.0097,0.7167,1.3732,3.3841,3.2186,3.9839,1.5633,2.8712,3.5558,1.0959,0.3203
50.7812,-1.3985,-0.0183,-3.3559,1.1238,2.3890,-1.3585,-4.8698,-2.6130,1.8114,2.3209,2.4893,5.4894,4.5752,4.3716,1.7051,3.7222,4.1165,1.5927,1.9423
54.6875,1.0607,1.4850,-2.7062,2.0761,3.2764,1.1182,-4.1466,-2.1527,4.5767,4.2162,3.9520,7.1360,6.3161,5.2475,1.5696,4.2937,4.9717,2.9256,4.1482
58.5938,3.2386,2.9878,-1.0456,3.2913,5.2738,2.5313,-3.7276,-1.1409,7.5825,5.8170,5.3588,7.8752,7.8976,6.1865,1.4215,4.5961,5.8813,4.7768,6.3493
62.5000,4.7342,4.3609,1.1504,4.2316,7.3491,2.0748,-3.7331,-0.1209,9.9947,6.8008,6.3351,7.4480,8.6044,6.5885,1.5783,4.6208,6.4497,6.5211,7.7631
66.4062,5.4877,5.3896,3.0849,4.4852,8.3594,0.1816,-3.9230,0.5023,11.1772,7.2006,6.6821,5.9612,7.9434,6.0426,2.1329,4.3106,6.3362,7.5078,7.8133
70.3125,5.6586,5.8457,4.1677,4.0083,7.7368,-1.7013,-3.8137,0.7147,10.9223,7.2419,6.3992,3.8795,5.9308,4.5833,2.8032,3.5806,5.4343,7.3472,6.4355
74.2188,5.4275,5.5831,4.3617,3.1480,5.8086,-2.0332,-2.9825,0.8662,9.4953,7.0865,5.6168,1.8280,3.1082,2.6836,3.0587,2.3925,3.9340,6.0714,4.1174
78.1250,4.8807,4.6149,4.1206,2.4233,3.5587,-0.1802,-1.3452,1.3881,7.4874,6.6871,4.5163,0.3181,0.2870,0.9959,2.4676,0.8429,2.2453,4.1012,1.6634
82.0312,4.0276,3.1316,3.9859,2.1972,2.0045,3.1610,0.7771,2.4472,5.5455,5.8515,3.2879,-0.4470,-1.8285,0.0066,1.0327,-0.8035,0.8298,2.0403,-0.1816
85.9375,2.8844,1.4353,4.1455,2.4406,1.6022,6.3677,2.8256,3.7689,4.0946,4.4408,2.1083,-0.5932,-2.9338,-0.1899,-0.7420,-2.1862,0.0187,0.3948,-1.0528
89.8438,1.5197,-0.1949,4.2740,2.7430,2.0570,7.8262,4.2743,4.7539,3.1706,2.5321,1.0982,-0.4490,-3.1915,0.1276,-2.1290,-3.0112,-0.1070,-0.6510,-1.0810
93.7500,0.0231,-1.6412,3.7616,2.5726,2.6346,6.7871,4.8301,4.8271,2.4406,0.4176,0.2504,-0.3758,-3.0617,0.5379,-2.6340,-3.2161,0.2732,-1.2930,-0.7654
97.6562,-1.5547,-2.9988,2.1637,1.6334,2.7375,3.6520,4.4755,3.8068,1.4030,-1.5517,-0.6164,-0.6556,-3.0112,0.7671,-2.3266,-3.0309,0.8183,-1.9701,-0.6795
101.5625,-3.2181,-4.4871,-0.4472,0.0981,2.3494,-0.3830,3.3958,2.0675,-0.3235,-3.1540,-1.8037,-1.4636,-3.2644,0.8576,-1.8143,-2.8737,1.1848,-3.0993,-1.1558
105.4688,-4.9738,-6.2545,-3.4678,-1.4360,2.0509,-4.0046,1.8862,0.3869,-2.7709,-4.3848,-3.5623,-2.8776,-3.7226,1.1190,-1.8707,-3.1253,1.1708,-4.8229,-2.1035
109.3750,-6.7590,-8.1992,-6.0940,-2.2567,2.6035,-6.3402,0.2968,-0.4449,-5.5737,-5.3969,-5.8856,-4.8644,-4.0763,1.8955,-2.9575,-3.9086,0.7754,-6.9063,-3.0514
113.2812,-8.4241,-9.9441,-7.7679,-1.9424,4.3817,-7.1457,-1.0092,-0.0420,-8.1332,-6.3596,-8.4112,-7.2334,-4.0274,3.2951,-4.9472,-5.0084,0.1530,-8.8440,-3.4034
117.1875,-9.7890,-11.0148,-8.4500,-0.6283,7.0308,-6.6666,-1.7382,1.3658,-9.9027,-7.3408,-10.5263,-9.6093,-3.4877,5.0438,-7.2050,-5.9883,-0.4976,-10.1165,-2.7851
121.0938,-10.7254,-11.1293,-8.5581,1.0253,9.5798,-5.3884,-1.7923,3.0393,-10.6348,-8.2802,-11.6478,-11.4913,-2.6391,6.5605,-8.9531,-6.4404,-1.0327,-10.4466,-1.2935
125.0000,-11.1922,-10.4082,-8.6382,2.1529,10.9501,-3.8531,-1.3597,4.0968,-10.4532,-9.0373,-11.5188,-12.4118,-1.8285,7.2222,-9.6696,-6.2166,-1.3924,-9.9126,0.5024
128.9062,-11.1997,-9.3433,-9.0031,2.1210,10.5531,-2.5684,-0.8699,3.9457,-9.7232,-9.4571,-10.3374,-12.1249,-1.3673,6.6787,-9.2905,-5.5019,-1.5586,-8.8593,1.8386
132.8125,-10.7524,-8.5176,-9.5655,0.8486,8.6158,-1.9282,-0.7894,2.5597,-8.8123,-9.4105,-8.6355,-10.7171,-1.3580,5.0466,-8.1413,-4.6852,-1.4996,-7.6766,2.1702
136.7188,-9.8426,-8.2420,-9.9467,-1.1576,6.0409,-2.0982,-1.3609,0.4680,-7.8936,-8.8154,-6.9850,-8.5663,-1.6499,2.8675,-6.7029,-4.1109,-1.1653,-6.5869,1.4861
140.6250,-8.5149,-8.3496,-9.7499,-3.0621,3.8882,-2.9240,-2.4540,-1.5215,-6.8991,-7.6687,-5.7164,-6.1689,-1.9438,0.8471,-5.3859,-3.8682,-0.5478,-5.5677,0.3237
144.5312,-6.9388,-8.2952,-8.7984,-4.1102,2.7873,-3.9667,-3.6387,-2.7156,-5.6269,-6.0922,-4.8155,-3.9379,-1.9771,-0.4905,-4.4265,-3.7483,0.2452,-4.4366,-0.5437
148.4375,-5.3961,-7.5064,-7.1925,-3.9738,2.6222,-4.7037,-4.4452,-2.8445,-3.9099,-4.3531,-4.0304,-2.0873,-1.6742,-1.0466,-3.8940,-3.3945,0.9834,-3.0219,-0.5716
152.3438,-4.1546,-5.7583,-5.1869,-2.8659,2.6635,-4.7963,-4.6363,-2.1449,-1.7361,-2.8050,-3.0874,-0.6515,-1.1800,-1.1564,-3.7309,-2.5465,1.4112,-1.3006,0.2235
156.2500,-3.3059,-3.3295,-3.0213,-1.3852,2.0575,-4.2512,-4.3130,-1.1921,0.7377,-1.7478,-1.8575,0.4030,-0.7672,-1.3584,-3.7681,-1.2249,1.3976,0.5760,1.2737
160.1562,-2.7013,-0.8418,-0.8512,-0.1894,0.3761,-3.3719,-3.7905,-0.5803,3.2525,-1.2737,-0.3864,1.0727,-0.6812,-2.0550,-3.7350,0.2610,1.0371,2.3590,1.8132
164.0625,-2.0632,1.0993,1.1757,0.3296,-2.0900,-2.5454,-3.3477,-0.6153,5.5284,-1.2092,1.1880,1.2995,-1.0127,-3.2556,-3.3271,1.4830,0.6142,3.8084,1.3591
167.9688,-1.2082,2.2202,2.7905,0.2118,-4.4560,-2.0279,-3.0340,-1.1659,7.3135,-1.2101,2.7252,1.0428,-1.6546,-4.5472,-2.3521,2.1356,0.4457,4.7581,0.0244
171.8750,-0.2158,2.6553,3.5785,-0.1273,-5.7013,-1.8705,-2.6656,-1.7393,8.4053,-0.9685,4.1021,0.3779,-2.3453,-5.3041,-0.8866,2.1988,0.7007,5.1203,-1.5265
175.7812,0.6011,2.7607,3.1522,-0.1266,-5.1932,-1.9992,-1.9968,-1.7340,8.6802,-0.4012,5.1701,-0.4669,-2.7610,-5.0183,0.6806,1.9257,1.3258,4.8712,-2.4416
179.6875,0.9182,2.8234,1.4510,0.6422,-2.9874,-2.3346,-0.9287,-0.7458,8.1487,0.3081,5.7301,-1.1727,-2.6139,-3.5651,1.7971,1.6719,2.1249,4.0639,-2.1394
183.5938,0.6527,2.8741,-1.0357,2.2789,0.2386,-2.8301,0.3955,1.2190,7.0062,0.8438,5.5951,-1.4653,-1.7303,-1.2664,2.0398,1.6814,2.9288,2.8728,-0.5890
187.5000,0.0484,2.7170,-3.3299,4.5201,3.5491,-3.4108,1.6640,3.7224,5.6200,0.9777,4.7269,-1.2423,-0.1045,1.2691,1.3854,1.9650,3.7213,1.6193,1.7275
191.4062,-0.4828,2.1250,-4.3616,6.8591,6.1827,-3.9057,2.5723,6.0709,4.4164,0.7177,3.3467,-0.6214,2.0789,3.4214,0.2783,2.3394,4.6208,0.7133,4.1121
195.3125,-0.6466,1.0393,-3.5226,8.7475,7.8190,-4.0848,2.9753,7.6056,3.7044,0.2835,1.9108,0.1204,4.4668,4.7985,-0.5731,2.5861,5.7296,0.5002,6.0050
199.2188,-0.4602,-0.3663,-1.0567,9.7816,8.5645,-3.8079,2.9269,7.9666,3.5266,-0.0695,0.9239,0.6814,6.6133,5.3207,-0.5725,2.6116,6.9649,1.0746,7.1913
203.1250,-0.2080,-1.7815,1.9817,9.8046,8.7226,-3.1734,2.6073,7.2113,3.6319,-0.2492,0.6819,0.8744,8.0946,5.1393,0.4351,2.4968,8.0086,2.1772,7.7722
207.0312,-0.2044,-2.9255,4.2268,8.9048,8.5250,-2.5280,2.2068,5.7393,3.5958,-0.4007,1.0989,0.7000,8.6223,4.4722,2.0721,2.4093,8.4274,3.2561,7.9640
210.9375,-0.5663,-3.6611,4.6949,7.3385,7.9938,-2.3010,1.8402,4.0744,3.0287,-0.8003,1.7319,0.3171,8.1038,3.4711,3.6311,2.4527,7.8956,3.6881,7.8769
214.8438,-1.1841,-4.0019,3.2678,5.4239,6.9950,-2.7688,1.5213,2.6227,1.7612,-1.6397,2.0002,-0.0745,6.6287,2.1952,4.4494,2.5721,6.3799,3.0517,7.4059
218.7500,-1.9083,-4.0506,0.6763,3.4474,5.4131,-3.9138,1.1824,1.5298,-0.0868,-2.8498,1.4756,-0.3802,4.4024,0.6800,4.2421,2.5906,4.1722,1.3120,6.2844
222.6562,-2.7724,-3.9450,-2.0014,1.6031,3.3060,-5.4601,0.7106,0.6970,-2.1724,-4.0880,0.0847,-0.7017,1.6770,-0.9725,3.2131,2.3503,1.7579,-1.1779,4.2498
226.5625,-4.0277,-3.8531,-3.9989,-0.0316,0.9310,-7.0273,-0.0100,-0.0781,-4.0795,-4.9062,-1.8746,-1.3111,-1.2806,-2.5661,1.9008,1.8483,-0.3949,-3.8490,1.2268
230.4688,-5.9163,-3.9806,-5.2501,-1.4839,-1.3687,-8.2645,-1.0497,-0.9389,-5.4688,-4.9985,-3.8909,-2.4994,-4.1874,-3.8738,0.8653,1.2569,-2.0027,-6.1593,-2.5663
234.3750,-8.3415,-4.5247,-6.2681,-2.8406,-3.3338,-8.8829,-2.3867,-1.8880,-6.1677,-4.3818,-5.4686,-4.3684,-6.7472,-4.7531,0.3996,0.8037,-3.0151,-7.7799,-6.6321
238.2812,-10.7168,-5.5536,-7.6196,-4.1797,-4.8983,-8.6396,-3.8900,-2.8264,-6.1846,-3.3996,-6.3086,-6.6814,-8.6927,-5.2287,0.4200,0.5959,-3.5474,-8.6473,-10.3238
242.1875,-12.1736,-6.8763,-9.3839,-5.5028,-6.1695,-7.3882,-5.3555,-3.6647,-5.6661,-2.5459,-6.3687,-8.8778,-9.8606,-5.4779,0.5784,0.5247,-3.7611,-8.8884,-13.0389
246.0938,-12.0443,-8.0244,-10.9912,-6.7025,-7.2959,-5.2411,-6.5871,-4.4085,-4.8257,-2.2065,-5.8052,-10.2752,-10.2488,-5.7153,0.5175,0.3358,-3.7610,-8.6922,-14.4028
250.0000,-10.3094,-8.4189,-11.5672,-7.5887,-8.3131,-2.7218,-7.4723,-5.1433,-3.8696,-2.4558,-4.8509,-10.3720,-10.0017,-6.0449,0.1150,-0.1705,-3.5532,-8.2091,-14.3696
253.9062,-7.6880,-7.6748,-10.5502,-7.9713,-9.0682,-0.7067,-7.9975,-5.9225,-2.9354,-3.0177,-3.7015,-9.0937,-9.3185,-6.3744,-0.4227,-0.9477,-3.0650,-7.5213,-13.2014
257.8125,-5.2762,-5.8734,-8.1484,-7.7598,-9.2746,-0.0601,-8.1892,-6.6459,-2.0658,-3.4101,-2.4598,-6.8464,-8.3393,-6.4540,-0.6720,-1.6707,-2.2112,-6.6711,-11.3398
261.7188,-3.9510,-3.6181,-5.3077,-7.0249,-8.6692,-1.1214,-8.0323,-7.0375,-1.2313,-3.2005,-1.1554,-4.3458,-7.0934,-6.0250,-0.2482,-1.9080,-0.9783,-5.7090,-9.2376
265.6250,-3.9141,-1.7934,-3.1988,-5.9838,-7.1833,-3.3893,-7.4446,-6.7700,-0.3932,-2.2446,0.1814,-2.3188,-5.5537,-4.9936,0.9387,-1.4035,0.5110,-4.7220,-7.2344
269.5312,-4.6612,-1.1338,-2.5576,-4.9157,-5.0277,-5.6949,-6.3461,-5.6767,0.4277,-0.7844,1.4420,-1.2392,-3.7597,-3.5195,2.5770,-0.2819,1.9916,-3.8328,-5.5252
273.4375,-5.3677,-1.8336,-3.3052,-4.0480,-2.6337,-6.8383,-4.7800,-3.9132,1.1260,0.6447,2.4137,-1.2213,-1.9093,-1.9566,4.0662,0.9715,3.1347,-3.1770,-4.2074
277.3438,-5.4211,-3.4298,-4.6714,-3.4685,-0.4689,-6.3105,-2.9839,-1.9390,1.5573,1.4591,2.8431,-2.0827,-0.3284,-0.6669,4.7979,1.7687,3.6951,-2.8698,-3.3332
281.2500,-4.7541,-5.0335,-5.7006,-3.0987,1.1825,-4.6067,-1.3289,-0.2978,1.6301,1.3039,2.5694,-3.4853,0.6872,0.1902,4.4540,1.7685,3.6574,-2.9655,-2.9040
285.1562,-3.8009,-5.7890,-5.7834,-2.7272,2.3596,-2.8847,-0.1436,0.6898,1.3824,0.2245,1.6568,-5.0424,1.0676,0.7692,3.1578,1.1045,3.2888,-3.4141,-2.8009
289.0625,-3.1560,-5.3050,-4.8822,-2.0844,3.3964,-2.1772,0.4666,1.1275,0.9824,-1.3509,0.4341,-6.3503,1.0643,1.4708,1.3992,0.3426,3.0403,-4.0302,-2.7233
292.9688,-3.1908,-3.8214,-3.3724,-0.9355,4.7217,-2.6988,0.6712,1.4917,0.6460,-2.8047,-0.6107,-6.9910,1.1627,2.7173,-0.2129,0.1794,3.3290,-4.5042,-2.2297
296.8750,-3.8639,-2.0327,-1.6915,0.8230,6.5808,-3.7351,0.7908,2.3292,0.5235,-3.5969,-1.0425,-6.5926,1.8400,4.6827,-1.2176,1.0485,4.3165,-4.4801,-0.9153
300.7812,-4.7971,-0.6826,-0.0862,3.0841,8.8301,-4.1879,1.0731,3.8759,0.6343,-3.4728,-0.6833,-4.9727,3.3006,7.1312,-1.4381,2.8626,5.8177,-3.6912,1.3480
304.6875,-5.5121,-0.1668,1.3836,5.5036,10.9371,-3.3808,1.5266,5.8371,0.8921,-2.5219,0.3142,-2.2916,5.3466,9.4663,-0.9349,5.0392,7.4003,-2.0982,4.2570
308.5938,-5.6607,-0.3608,2.6645,7.5688,12.2150,-1.5415,1.9269,7.4909,1.1930,-1.0869,1.5727,0.9109,7.4607,10.9892,0.1457,6.7975,8.6164,0.0469,7.1375
312.5000,-5.1379,-0.7500,3.5694,8.7717,12.1829,0.3719,1.9913,8.0797,1.4898,0.4024,2.7049,3.8727,9.0556,11.2413,1.6843,7.5577,9.2222,2.2661,9.2235
316.4062,-4.0752,-0.7688,3.8370,8.8344,10.8551,1.3513,1.5926,7.2683,1.7891,1.5739,3.4946,5.9079,9.7481,10.2463,3.5650,7.2178,9.2507,4.0327,10.0120
320.3125,-2.7743,-0.1459,3.3506,7.8690,8.7773,1.0162,0.8613,5.3840,2.0772,2.1828,3.9283,6.6827,9.5046,8.5083,5.5445,6.1545,8.9058,4.9788,9.4886
324.2188,-1.6263,0.9337,2.3137,6.3615,6.7668,-0.1914,0.1090,3.2776,2.2457,2.1145,4.0749,6.3038,8.5881,6.7480,7.1530,4.9596,8.3666,5.0234,8.0850
328.1250,-1.0170,1.9301,1.1999,4.9513,5.4889,-1.3933,-0.3644,1.8718,2.0985,1.3683,3.9280,5.1729,7.3578,5.5126,7.7680,4.0743,7.6480,4.3597,6.3984
332.0312,-1.2008,2.2490,0.4763,4.1111,5.1143,-1.9116,-0.4379,1.6621,1.4647,0.0632,3.3517,3.7193,6.0521,4.8834,6.8871,3.5468,6.6130,3.3271,4.8570
335.9375,-2.1684,1.5756,0.3016,3.9136,5.2677,-1.6708,-0.2031,2.4700,0.3511,-1.5439,2.1928,2.1982,4.6926,4.4623,4.4642,3.0608,5.1226,2.2596,3.5433
339.8438,-3.5800,0.0712,0.4419,4.0386,5.3019,-1.0958,0.1402,3.5944,-0.9746,-3.0690,0.4772,0.6815,3.1579,3.6595,1.0860,2.2139,3.2070,1.4043,2.2755
343.7500,-4.8414,-1.6690,0.4859,4.0212,4.7284,-0.6428,0.4334,4.2567,-2.0488,-4.0832,-1.4667,-0.7892,1.3673,2.1163,-2.1746,0.8626,1.1326,0.9320,0.8642
347.6562,-5.3293,-2.8760,0.2050,3.5785,3.5250,-0.3651,0.6435,4.0530,-2.4109,-4.2610,-3.0844,-2.0483,-0.5633,-0.0073,-4.2013,-0.7023,-0.6906,0.9786,-0.6599
351.5625,-4.6731,-2.9626,-0.2311,2.7858,2.1224,0.1444,0.8352,3.1332,-1.8363,-3.5333,-3.8543,-2.8053,-2.3146,-2.0828,-4.3579,-1.8871,-1.9060,1.6267,-2.0213
355.4688,-2.9470,-1.8102,-0.3742,1.9732,1.0774,1.4061,1.0744,2.0125,-0.4758,-2.1594,-3.5771,-2.8268,-3.5325,-3.3953,-2.8007,-2.1713,-2.3920,2.7991,-2.9006
359.3750,-0.6618,0.1492,0.1142,1.4185,0.6600,3.5884,1.3477,1.1671,1.1723,-0.6646,-2.5076,-2.1651,-4.0684,-3.6279,-0.3953,-1.4914,-2.3196,4.1387,-3.2060
363.2812,1.4436,2.1014,1.0945,1.0711,0.6397,6.2796,1.5562,0.7005,2.4469,0.3461,-1.2376,-1.2380,-4.1241,-3.1235,1.7199,-0.3680,-2.0528,5.0118,-3.2041
367.1875,2.7040,3.2004,1.9088,0.5347,0.4326,8.6528,1.5737,0.3074,2.7804,0.4170,-0.4017,-0.6567,-4.1720,-2.7235,2.6812,0.3419,-1.9510,4.7265,-3.3872
371.0938,2.7736,2.9468,1.7481,-0.6444,-0.4827,9.8902,1.3169,-0.4531,1.9223,-0.5890,-0.3822,-0.8820,-4.6665,-3.2484,2.2576,-0.0590,-2.1792,2.9034,-4.1484
375.0000,1.7125,1.4180,0.2080,-2.5747,-2.1556,9.5729,0.7815,-1.7777,0.0474,-2.4547,-1.1801,-1.9263,-5.7127,-4.9355,0.8456,-1.6642,-2.6246,-0.2057,-5.4787
378.9062,-0.0983,-0.7666,-2.3524,-4.7991,-4.0445,7.8180,0.0381,-3.4031,-2.2899,-4.7126,-2.4942,-3.3072,-6.9235,-7.2020,-0.8511,-3.8622,-2.9627,-3.6933,-6.9033
382.8125,-2.1433,-2.7363,-4.9243,-6.4512,-5.2818,5.1521,-0.7881,-4.7076,-4.3466,-6.8281,-3.9205,-4.3009,-7.5965,-8.9132,-2.2348,-5.6607,-2.8402,-6.3576,-7.7247
386.7188,-3.9672,-3.7805,-6.4044,-6.7270,-5.1645,2.2728,-1.5319,-5.0620,-5.4715,-8.3737,-5.1306,-4.3467,-7.1460,-9.0163,-3.0678,-6.2471,-2.0879,-7.3059,-7.4350
390.6250,-5.3027,-3.6748,-6.2553,-5.3835,-3.5659,-0.1477,-2.0103,-4.1994,-5.3763,-9.1251,-5.9410,-3.3602,-5.5322,-7.1596,-3.4549,-5.4407,-0.8560,-6.4626,-6.0495
394.5312,-6.1028,-2.7556,-4.8498,-2.9399,-1.0255,-1.5769,-2.0755,-2.3737,-4.2735,-9.0613,-6.2841,-1.7722,-3.3998,-3.9231,-3.6226,-3.7595,0.4081,-4.6601,-4.1540
398.4375,-6.4848,-1.7028,-3.2665,-0.4459,1.5163,-1.7119,-1.6986,-0.2288,-2.7903,-8.3043,-6.1588,-0.2845,-1.7943,-0.5288,-3.6919,-2.0747,1.1452,-3.2138,-2.6346
402.3438,-6.6227,-1.1515,-2.6506,1.0467,3.1590,-0.5844,-1.0349,1.5137,-1.6639,-7.0552,-5.6183,0.5007,-1.5940,1.7784,-3.6078,-1.0885,0.9562,-3.1987,-2.2467
406.2500,-6.6368,-1.3455,-3.5246,0.9929,3.3986,1.3724,-0.4026,2.3519,-1.3506,-5.5584,-4.7932,0.3723,-2.9895,2.3054,-3.2577,-0.9698,-0.1751,-4.8398,-3.2578
410.1562,-6.5301,-2.0221,-5.4647,-0.4348,2.2469,3.4092,-0.1419,2.1398,-1.7622,-4.0880,-3.8882,-0.4164,-5.3353,1.1356,-2.6555,-1.3577,-1.8296,-7.3785,-5.3404
414.0625,-6.2050,-2.5846,-7.3316,-2.5071,0.1288,4.7433,-0.4096,1.0556,-2.3006,-2.9166,-3.1127,-1.2951,-7.4750,-1.0520,-2.0226,-1.6851,-3.3140,-9.4951,-7.7348
417.9688,-5.5486,-2.4542,-7.9125,-4.3208,-2.3081,4.9253,-1.0338,-0.5100,-2.1987,-2.2386,-2.5676,-1.6418,-8.3478,-3.3752,-1.6796,-1.5750,-3.9603,-10.0344,-9.5706
421.8750,-4.5364,-1.3991,-6.5962,-5.1695,-4.3535,4.0666,-1.5453,-2.0551,-0.9855,-2.0673,-2.1684,-1.0393,-7.5133,-5.0868,-1.8116,-1.0395,-3.4151,-8.6128,-10.1824
425.7812,-3.2826,0.3400,-3.6990,-4.7401,-5.3546,2.7554,-1.4085,-3.0485,1.2047,-2.1764,-1.6790,0.5692,-5.3024,-5.7192,-2.2821,-0.3848,-1.7749,-5.7714,-9.3087
429.6875,-2.0024,2.1784,-0.2781,-3.1238,-4.8583,1.6900,-0.3389,-3.0455,3.6769,-2.1560,-0.8548,2.8574,-2.5493,-5.0823,-2.6508,0.0664,0.4845,-2.6319,-7.1424
433.5938,-0.9059,3.4793,2.4374,-0.7282,-2.8059,1.2636,1.4781,-1.8618,5.5543,-1.5985,0.3882,5.2196,-0.1217,-3.2578,-2.4159,0.2080,2.7231,-0.2982,-4.2578
437.5000,-0.0979,3.8428,3.6589,1.8409,0.3086,1.3769,3.4186,0.2648,6.2570,-0.3309,1.8898,6.9698,1.4465,-0.6555,-1.3390,0.1832,4.3719,0.6371,-1.4482
441.4062,0.4472,3.2532,3.3606,3.9223,3.4827,1.6001,4.7099,2.6666,5.7860,1.4446,3.3082,7.5818,2.0364,1.9593,0.3619,0.2260,5.0852,0.2398,0.5027
445.3125,0.8229,2.0444,2.1619,4.9934,5.5515,1.5479,4.8300,4.4837,4.6497,3.2153,4.2918,6.8919,1.7859,3.6250,2.0940,0.4643,4.7836,-0.9694,1.0753
449.2188,1.0919,0.7362,0.8820,4.8846,5.7349,1.1863,3.7896,5.0788,3.5098,4.4184,4.6547,5.1755,0.8897,3.5799,3.2134,0.8385,3.6300,-2.3708,0.2179
453.1250,1.2319,-0.1674,0.0556,3.8944,4.0901,0.8446,2.1282,4.3961,2.7971,4.7559,4.4527,3.0485,-0.4673,1.7210,3.3956,1.1815,1.9838,-3.5262,-1.6064
457.0312,1.1644,-0.3453,-0.3052,2.6788,1.5504,0.9351,0.6195,3.0105,2.5360,4.3627,3.9249,1.2188,-2.0340,-1.1924,2.8200,1.3711,0.3398,-4.2654,-3.5947
460.9375,0.8323,0.2364,-0.5893,1.9061,-0.5528,1.5969,-0.1518,1.7849,2.4501,3.7069,3.3459,0.2002,-3.4163,-3.8226,2.0460,1.4223,-0.7827,-4.6181,-4.9559
464.8438,0.2536,1.2971,-1.2231,1.8489,-1.2521,2.5319,-0.0967,1.3212,2.2155,3.2700,2.8792,0.1233,-4.1504,-4.9508,1.6550,1.4518,-1.0155,-4.7101,-5.2780
468.7500,-0.5024,2.3068,-2.3304,2.1856,-0.5347,3.1538,0.3619,1.5588,1.6548,3.2115,2.5050,0.7320,-3.9354,-4.1996,1.8791,1.5589,-0.3245,-4.7050,-4.7052
472.6562,-1.3930,2.6539,-3.6462,2.1867,0.6370,2.9454,0.5723,1.8125,0.7527,3.2450,2.0467,1.5482,-2.8653,-2.3061,2.4492,1.7305,0.9174,-4.7883,-3.8115
476.5625,-2.4526,1.8914,-4.7323,1.2109,0.9261,1.7853,0.0679,1.2545,-0.4551,2.8202,1.2719,2.1021,-1.4556,-0.7172,2.7554,1.8438,2.0625,-5.1338,-3.2352
480.4688,-3.7485,-0.0332,-5.3256,-0.8015,-0.5060,0.0381,-1.1353,-0.4681,-1.9667,1.5013,0.0204,2.1051,-0.3877,-0.7151,2.2212,1.7555,2.5048,-5.8245,-3.2931
484.3750,-5.2545,-2.6912,-5.5543,-3.1888,-3.4057,-1.6300,-2.5378,-2.9058,-3.7650,-0.7061,-1.6928,1.4997,-0.1123,-2.6116,0.6634,1.3976,2.0219,-6.7699,-3.8165
488.2812,-6.7412,-5.3151,-5.8494,-4.9171,-6.5063,-2.5833,-3.4572,-5.0221,-5.6796,-3.2927,-3.6416,0.4048,-0.5787,-5.5294,-1.5735,0.8105,0.9274,-7.7013,-4.3098
492.1875,-7.7973,-7.1366,-6.6043,-5.2200,-8.2496,-2.5050,-3.4506,-5.8357,-7.3169,-5.4841,-5.4441,-0.9746,-1.2924,-7.9225,-3.7819,0.1044,-0.0892,-8.2870,-4.3212
496.0938,-8.0114,-7.7561,-7.8263,-4.1103,-7.7108,-1.5129,-2.6041,-5.0738,-8.1878,-6.6181,-6.7030,-2.4106,-1.6745,-8.5079,-5.2476,-0.5992,-0.3677,-8.3115,-3.7712
500.0000,-7.2200,-7.3338,-9.0512,-2.4112,-5.1555,-0.0813,-1.5069,-3.3916,-7.9965,-6.4187,-7.1794,-3.6790,-1.4791,-7.0176,-5.5931,-1.1979,0.3114,-7.8018,-3.0147
503.9062,-5.6552,-6.4830,-9.6150,-1.2685,-1.8912,1.1625,-0.9193,-1.9953,-6.8940,-5.0186,-6.9157,-4.5757,-0.9751,-4.3095,-4.9209,-1.6064,1.5677,-7.0020,-2.5948
507.8125,-3.8720,-5.9184,-9.1156,-1.4522,0.4795,1.6759,-1.3334,-1.8983,-5.4806,-2.7687,-6.2293,-4.9529,-0.7603,-1.8052,-3.7040,-1.7578,2.6273,-6.2080,-2.8593
511.7188,-2.4804,-6.0693,-7.7488,-2.8984,0.9392,1.1951,-2.6938,-3.2885,-4.5038,-0.0157,-5.5603,-4.7698,-1.3347,-0.6441,-2.5093,-1.6389,2.7744,-5.5773,-3.7051
515.6250,-1.8412,-6.8858,-6.2648,-4.7794,-0.4522,-0.1698,-4.4474,-5.4135,-4.4238,2.9816,-5.2452,-4.1243,-2.7292,-1.0962,-1.7248,-1.3354,1.7724,-5.0519,-4.6251
519.5312,-1.9222,-7.9401,-5.5485,-6.0361,-2.7048,-1.9770,-5.8876,-7.0491,-5.1392,5.9677,-5.3453,-3.2311,-4.4412,-2.5542,-1.4316,-1.0289,0.0021,-4.4496,-5.0244
523.4375,-2.4002,-8.7338,-6.0837,-6.0144,-4.5377,-3.6309,-6.5686,-7.2444,-6.0679,8.5642,-5.6360,-2.3483,-5.7164,-4.0301,-1.4609,-0.9093,-1.7566,-3.6485,-4.5895
527.3438,-2.9309,-8.9950,-7.6530,-4.8040,-5.0867,-4.6366,-6.5270,-5.8724,-6.5344,10.2660,-5.7618,-1.6864,-5.9774,-4.7695,-1.5669,-1.0390,-2.7492,-2.7178,-3.4639
531.2500,-3.3877,-8.7799,-9.4638,-3.0995,-4.2694,-4.8138,-6.1778,-3.6581,-6.1951,10.6246,-5.4562,-1.3452,-5.1193,-4.5838,-1.5904,-1.2711,-2.6156,-1.8898,-2.1205
535.1562,-3.9025,-8.3399,-10.6092,-1.7199,-2.6501,-4.3526,-5.9681,-1.6976,-5.2089,9.5133,-4.6803,-1.3011,-3.4961,-3.7493,-1.5144,-1.3033,-1.5019,-1.3877,-1.0289
539.0625,-4.6827,-7.8818,-10.5535,-1.1201,-0.9659,-3.6721,-6.0330,-0.7941,-4.0487,7.2779,-3.5962,-1.4354,-1.6455,-2.6350,-1.3977,-0.8607,0.1129,-1.2400,-0.3475
542.9688,-5.7490,-7.4042,-9.3396,-1.1887,0.3503,-3.1611,-6.0900,-1.0198,-3.1104,4.6409,-2.4090,-1.5807,0.0404,-1.3774,-1.2505,0.1105,1.7261,-1.2209,0.1583
546.8750,-6.7966,-6.7180,-7.4260,-1.4079,1.3610,-2.9607,-5.6428,-1.7449,-2.4161,2.3926,-1.2055,-1.5651,1.4792,0.1678,-0.9536,1.3818,3.0575,-0.9664,0.9272
550.7812,-7.3018,-5.6111,-5.3208,-1.2214,2.4573,-2.9236,-4.3538,-2.0733,-1.6212,1.0550,0.0910,-1.2503,2.8197,2.2020,-0.2872,2.5751,4.1026,-0.1825,2.2806
554.6875,-6.8198,-4.0201,-3.2939,-0.3602,3.9874,-2.7664,-2.3310,-1.3973,-0.3016,0.7211,1.6244,-0.5618,4.2176,4.6926,0.9429,3.4093,5.0111,1.1981,4.1784
558.5938,-5.2843,-2.0855,-1.3514,1.0461,5.9386,-2.2991,-0.1352,0.2566,1.7081,1.1406,3.4548,0.4943,5.6440,7.2472,2.7572,3.8853,5.9056,3.0111,6.2055
562.5000,-3.1068,-0.0724,0.5645,2.5857,7.8700,-1.5708,1.4993,2.2616,4.1742,1.9500,5.4729,1.8369,6.8592,9.2445,4.9306,4.2700,6.7682,4.9858,7.7828
566.4062,-1.0036,1.7576,2.3574,3.7937,9.1220,-0.8388,2.0542,3.7520,6.6012,2.8610,7.4391,3.3330,7.5482,10.1268,7.0426,4.8780,7.4456,6.8865,8.4675
570.3125,0.3494,3.2182,3.7355,4.3564,9.1708,-0.4014,1.4895,4.0894,8.5161,3.6811,9.0957,4.8174,7.5086,9.6657,8.6246,5.7977,7.7397,8.5582,8.1652
574.2188,0.6265,4.1825,4.3827,4.2098,7.9228,-0.4222,0.2356,3.1862,9.6722,4.2002,10.2466,6.0852,6.7605,8.0503,9.3177,6.7537,7.5084,9.8592,7.1487
578.1250,-0.0448,4.5343,4.1922,3.5307,5.7921,-0.8638,-1.0539,1.5374,10.0462,4.0950,10.7427,6.8686,5.5245,5.7831,8.9621,7.2112,6.7238,10.5717,5.9005
582.0312,-1.2238,4.1755,3.3684,2.6552,3.5329,-1.5491,-1.8269,-0.0313,9.6891,2.9946,10.4154,6.8410,4.1091,3.4782,7.5926,6.6675,5.4803,10.4122,4.8835
585.9375,-2.4218,3.1163,2.3151,1.9616,1.9223,-2.2760,-1.8571,-0.7608,8.6143,0.7125,9.0738,5.7072,2.7974,1.6798,5.3853,4.9584,3.9789,9.1842,4.3658
589.8438,-3.3173,1.5823,1.4043,1.7422,1.4555,-2.8895,-1.2787,-0.3070,6.8577,-2.5057,6.6424,3.3789,1.7968,0.7634,2.6258,2.4035,2.5037,6.9896,4.3717
593.7500,-3.8060,0.0279,0.8107,2.0964,2.1917,-3.2798,-0.4633,1.1167,4.6649,-5.9187,3.3868,0.1554,1.2491,0.9014,-0.2738,-0.2847,1.3838,4.3369,4.7508
597.6562,-3.9034,-1.0008,0.5275,2.8871,3.7960,-3.3528,0.1668,2.8626,2.6141,-8.5136,0.0527,-3.2269,1.2489,2.0499,-2.7492,-2.2728,0.9215,2.0261,5.3048
601.5625,-3.6134,-1.0981,0.5186,3.7945,5.7240,-3.0430,0.2978,4.1697,1.4950,-9.4343,-2.2556,-5.7754,1.8259,3.9374,-4.1404,-2.9261,1.2885,0.8310,5.8945
605.4688,-2.8881,-0.1884,0.8378,4.4584,7.4373,-2.3816,-0.1799,4.5258,1.9456,-8.3856,-2.4868,-6.6167,2.8960,6.0876,-3.8802,-2.0447,2.4356,1.1430,6.4798
609.3750,-1.7071,1.4454,1.5811,4.6477,8.5539,-1.5593,-1.1455,3.8917,4.0574,-5.7858,-0.1639,-5.3888,4.2346,7.9230,-1.7690,0.0630,4.0753,2.7856,7.0886
613.2812,-0.1997,3.3091,2.6927,4.3681,8.9001,-0.8979,-2.2871,2.6807,7.2245,-2.5820,4.2744,-2.4264,5.5272,8.9525,1.8138,2.6847,5.7770,5.1113,7.7484
617.1875,1.3120,4.9120,3.8018,3.8477,8.4974,-0.7053,-3.2122,1.5142,10.3717,0.1668,9.5402,1.3850,6.4985,8.9760,5.9196,4.9519,7.1439,7.3211,8.4279
621.0938,2.4139,5.9120,4.2786,3.4078,7.5331,-1.0916,-3.6115,0.8897,12.4417,1.7078,13.9698,5.0095,7.0513,8.1950,9.3214,6.1554,7.9823,8.8123,9.0235
625.0000,2.7957,6.1229,3.5449,3.2897,6.3334,-1.8776,-3.4173,0.9451,12.8439,1.8069,16.1721,7.6793,7.3152,7.1404,10.9790,6.0168,8.3609,9.3541,9.3979
628.9062,2.4076,5.4358,1.4635,3.5297,5.3073,-2.6836,-2.8655,1.4361,11.6006,0.6822,15.5246,9.0899,7.5475,6.4219,10.4502,4.7916,8.5154,9.0169,9.4400
632.8125,1.4614,3.7745,-1.4708,3.9410,4.8256,-3.1643,-2.3969,1.9213,9.1463,-1.2460,12.2953,9.2893,7.9223,6.4086,8.0363,3.1311,8.6492,7.9499,9.1070
636.7188,0.2682,1.1606,-4.3139,4.2023,5.0480,-3.2443,-2.4241,2.0271,5.9782,-3.6087,7.3959,8.3986,8.3370,7.0120,4.5904,1.7404,8.7550,6.1972,8.4201
640.6250,-0.9721,-2.1521,-6.1606,4.0076,5.7857,-3.1946,-3.0867,1.6369,2.4337,-6.1926,1.9635,6.4130,8.3783,7.7038,1.1119,1.0035,8.5808,3.6997,7.4209
644.5312,-2.2695,-5.6051,-6.6449,3.2088,6.5153,-3.4810,-4.1499,0.9066,-1.2603,-8.8625,-2.9888,3.2554,7.5120,7.7833,-1.6411,0.7927,7.7774,0.4798,6.1310
648.4375,-3.7512,-8.4454,-6.1329,1.8961,6.5970,-4.4658,-5.1245,0.1286,-4.7662,-11.4002,-6.7267,-0.9521,5.4152,6.7671,-3.3334,0.5947,6.1488,-3.1426,4.5562
652.3438,-5.4449,-10.0113,-5.4708,0.3835,5.6196,-6.1396,-5.5458,-0.4481,-7.4967,-13.4145,-8.7951,-5.6270,2.2617,4.6906,-3.9896,-0.1038,3.8477,-6.4940,2.7468
656.2500,-7.1146,-10.0480,-5.4432,-0.9011,3.6807,-8.0500,-5.2389,-0.7275,-8.7555,-14.4280,-8.9941,-9.7237,-1.2308,2.1483,-3.8087,-1.4112,1.3850,-8.7468,0.8707
660.1562,-8.3045,-8.8554,-6.2822,-1.5863,1.4118,-9.4850,-4.4024,-0.7567,-8.1258,-14.1222,-7.4230,-12.0729,-4.0599,0.0337,-3.0226,-2.8794,-0.5709,-9.2924,-0.7666
664.0625,-8.6007,-7.1568,-7.5399,-1.5203,-0.3084,-9.8247,-3.4594,-0.6374,-5.8477,-12.5980,-4.5640,-11.9064,-5.3847,-0.8902,-1.8845,-3.7290,-1.4957,-8.0749,-1.8034
667.9688,-7.9486,-5.7501,-8.3954,-0.8449,-0.8127,-8.8816,-2.7846,-0.4413,-2.8807,-10.4687,-1.2827,-9.2680,-4.9206,-0.3609,-0.7310,-3.3284,-1.2398,-5.6756,-1.9825
671.8750,-6.7940,-5.1382,-8.1917,0.0696,-0.0112,-7.0477,-2.4914,-0.1910,-0.5303,-8.6750,1.3574,-5.0620,-3.0562,1.2713,0.0135,-1.6225,-0.0599,-3.0740,-1.3052
675.7812,-5.9074,-5.3436,-6.8535,0.8100,1.5618,-5.1590,-2.4128,0.0970,0.1900,-8.0727,2.4538,-0.7002,-0.6308,3.2363,-0.0252,0.7670,1.5473,-1.2044,-0.0761
679.6875,-5.9602,-5.9861,-4.9227,1.1319,3.0564,-4.1189,-2.2659,0.3640,-0.9046,-8.9929,1.6459,2.4663,1.4907,4.7220,-0.9422,2.8424,3.0898,-0.5441,1.2098
683.5938,-7.0979,-6.5386,-3.1981,1.0746,3.7871,-4.4449,-1.8622,0.5138,-3.0612,-11.0212,-0.6863,3.6469,2.7931,5.2198,-2.3992,3.7453,4.2502,-0.9489,2.0884
687.5000,-8.7811,-6.5856,-2.2179,0.9088,3.5936,-5.9570,-1.2068,0.4822,-4.9792,-13.1422,-3.5357,2.8280,3.2336,4.6664,-3.7009,3.1682,4.8997,-1.8030,2.3354
691.4062,-10.0130,-5.9454,-1.9185,0.9456,2.8727,-7.7824,-0.4311,0.3249,-5.4762,-14.1962,-5.6643,0.6608,3.0820,3.3489,-4.1184,1.4334,4.9990,-2.3762,2.0413
695.3125,-9.8361,-4.6385,-1.6829,1.3319,2.2824,-8.7121,0.3642,0.2480,-4.0516,-13.4172,-6.1064,-1.8679,2.6320,1.6839,-3.2975,-0.7674,4.5058,-2.1838,1.5097
699.2188,-7.8191,-2.7931,-0.7523,1.9614,2.3195,-7.7717,1.2090,0.5348,-1.0555,-10.7675,-4.5460,-3.8155,1.9967,0.0293,-1.5013,-2.7634,3.3861,-1.1694,1.0482
703.1250,-4.2686,-0.5904,1.2559,2.5533,3.0312,-4.7361,2.2120,1.3847,2.5788,-6.9045,-1.4058,-4.5749,1.1158,-1.3772,0.4835,-4.1703,1.7222,0.3429,0.7845
707.0312,-0.0716,1.7208,4.0371,2.8303,4.0156,-0.3148,3.3923,2.7426,5.8367,-2.8226,2.3740,-4.0119,-0.0723,-2.3783,1.7507,-4.9023,-0.1891,1.8552,0.6177
710.9375,3.7142,3.8022,6.6870,2.6658,4.6730,4.1141,4.5326,4.2234,8.0570,0.6077,5.7429,-2.4375,-1.4583,-2.8550,1.7662,-4.9979,-1.8658,2.9265,0.3226
714.8438,6.2861,5.2799,8.1404,2.1014,4.5297,7.1108,5.1899,5.1997,9.0932,2.9510,7.9389,-0.4431,-2.7439,-2.7610,0.6653,-4.4481,-2.8290,3.3199,-0.2771
718.7500,7.3351,5.8914,7.7116,1.2457,3.4445,7.8216,4.8942,5.0429,9.1892,4.2415,8.7127,1.3442,-3.6004,-2.2161,-0.8187,-3.1763,-2.8512,3.0346,-1.1896
722.6562,7.0368,5.6414,5.4368,0.1591,1.6186,6.3359,3.4269,3.4248,8.7178,4.7937,8.3059,2.4923,-3.8864,-1.5591,-1.7509,-1.1768,-2.1030,2.2529,-2.2667
726.5625,5.8681,4.8415,2.0415,-1.1667,-0.5426,3.5809,1.0074,0.5350,7.9687,4.9616,7.2349,2.8783,-3.7557,-1.2657,-1.4904,1.3174,-1.0864,1.2499,-3.3230
730.4688,4.3828,3.9692,-1.4288,-2.7110,-2.5989,0.8336,-1.7355,-2.9088,7.0838,5.0003,6.0096,2.6302,-3.5746,-1.7339,-0.0178,3.7916,-0.3836,0.2964,-4.2685
734.3750,3.0382,3.4062,-4.0945,-4.3004,-4.1911,-0.8734,-4.0046,-5.8964,6.1132,5.0595,4.9225,1.9380,-3.7059,-3.0537,2.0668,5.5877,-0.3699,-0.4367,-5.1535
738.2812,2.0981,3.2165,-5.5847,-5.5877,-5.0923,-1.1479,-5.1631,-7.5221,5.0917,5.2280,3.9876,0.8653,-4.3172,-4.9176,3.8420,6.1525,-1.0680,-0.9551,-6.0991
742.1875,1.5949,3.1111,-6.0842,-6.1963,-5.2362,-0.2815,-4.9885,-7.3687,4.0499,5.5258,3.0160,-0.6960,-5.3404,-6.7558,4.4820,5.2464,-2.2201,-1.4662,-7.1747
746.0938,1.3398,2.6276,-6.1159,-5.9570,-4.7453,1.0096,-3.7422,-5.6892,2.9568,5.8304,1.7567,-2.8882,-6.5911,-8.0313,3.5759,3.0039,-3.5093,-2.3138,-8.3243
750.0000,0.9944,1.4105,-6.2217,-5.0718,-3.9355,1.9538,-2.0411,-3.2864,1.6624,5.8251,0.0160,-5.6649,-7.9344,-8.5212,1.2218,-0.1627,-4.7666,-3.8226,-9.3995
753.9062,0.2076,-0.5875,-6.7257,-4.0645,-3.2401,2.0142,-0.6049,-1.1382,-0.0781,5.0805,-2.2822,-8.6664,-9.3575,-8.4083,-2.0940,-3.7298,-6.0246,-6.1094,-10.2710
757.8125,-1.2195,-3.0988,-7.6647,-3.5119,-3.0383,1.0186,0.0178,0.0495,-2.4738,3.2889,-5.0846,-11.3183,-10.8900,-8.1272,-5.7244,-7.1981,-7.3928,-8.9603,-10.9186
761.7188,-3.2176,-5.7046,-8.8534,-3.7034,-3.4512,-0.8472,-0.3505,0.1400,-5.5196,0.5274,-8.2058,-13.1155,-12.4426,-8.0627,-9.0644,-10.1471,-8.8590,-11.8545,-11.4124
765.6250,-5.4562,-8.0309,-9.9870,-4.4432,-4.2311,-3.1192,-1.4527,-0.4324,-8.8834,-2.6380,-11.3236,-13.9020,-13.7075,-8.2945,-11.6596,-12.2364,-10.1692,-14.1419,-11.7869
769.5312,-7.4807,-9.8394,-10.7164,-5.1304,-4.8477,-5.1826,-2.6992,-0.9442,-11.9506,-5.3284,-14.0014,-13.9396,-14.2268,-8.5472,-13.2280,-13.2145,-10.8814,-15.2957,-11.9107
773.4375,-8.9089,-10.9827,-10.7071,-5.0882,-4.7657,-6.4530,-3.4151,-0.7868,-14.0387,-6.7465,-15.7806,-13.7030,-13.6158,-8.3735,-13.6512,-12.9705,-10.5754,-15.1182,-11.4862
777.3438,-9.5765,-11.3154,-9.7332,-3.9546,-3.7746,-6.6031,-3.1522,0.2228,-14.6904,-6.5676,-16.3453,-13.5389,-11.8130,-7.4537,-12.9784,-11.6038,-9.0972,-13.8030,-10.2339
781.2500,-9.5589,-10.6917,-7.8189,-1.9093,-2.1693,-5.7501,-1.9314,1.7803,-13.8949,-5.0862,-15.6866,-13.4368,-9.1927,-5.8252,-11.4396,-9.4488,-6.6938,-11.8383,-8.1675
785.1562,-9.0785,-9.0975,-5.3524,0.3943,-0.6409,-4.4771,-0.2789,3.2885,-12.1086,-3.0226,-14.1524,-13.0788,-6.4516,-3.9007,-9.4220,-7.0023,-3.9553,-9.8102,-5.7606
789.0625,-8.3742,-6.8249,-3.0479,2.1544,0.0976,-3.6070,1.0032,4.1844,-10.0459,-1.1091,-12.3086,-12.1298,-4.3100,-2.2625,-7.3734,-4.7617,-1.5809,-8.2011,-3.8316
792.9688,-7.6155,-4.5188,-1.6887,2.8209,-0.2501,-3.7915,1.2453,4.2129,-8.3387,0.2831,-10.6530,-10.5427,-3.1796,-1.3503,-5.6429,-3.0463,-0.0796,-7.2526,-3.1404
796.8750,-6.8910,-2.9830,-1.7333,2.3549,-1.3271,-5.1233,0.2921,3.5135,-7.2434,1.2522,-9.3425,-8.6402,-2.9720,-1.2225,-4.3350,-1.8983,0.4505,-6.9220,-3.9046
800.7812,-6.2396,-2.8015,-3.0044,1.2164,-2.2625,-7.0121,-1.3735,2.4976,-6.5575,2.1680,-8.1170,-6.9066,-3.1539,-1.5276,-3.2697,-1.1245,0.3504,-6.9241,-5.5498
804.6875,-5.6737,-3.9877,-4.6851,0.0985,-2.1436,-8.4391,-2.8631,1.6044,-5.7951,3.3265,-6.4992,-5.6444,-3.0275,-1.7056,-2.0981,-0.4579,0.2101,-6.8385,-6.9094
808.5938,-5.1737,-5.8977,-5.6924,-0.4391,-0.5676,-8.4809,-3.3680,1.0782,-4.5209,4.7031,-4.1658,-4.7633,-2.0999,-1.3106,-0.5294,0.2539,0.5444,-6.2618,-6.8286
812.5000,-4.6780,-7.5052,-5.2557,-0.2384,2.0569,-6.8149,-2.6199,0.8782,-2.6464,5.9611,-1.2553,-3.8675,-0.3559,-0.2740,1.4534,0.9501,1.4958,-4.9693,-4.8462
816.4062,-4.1032,-7.9034,-3.3663,0.4234,4.6621,-3.9137,-1.0489,0.7518,-0.5100,6.6906,1.6104,-2.5789,1.7096,1.0423,3.5233,1.4150,2.7311,-3.0277,-1.5381
820.3125,-3.3964,-6.7527,-0.8086,1.0414,6.0716,-0.8093,0.4693,0.4169,1.3085,6.7005,3.6367,-0.8502,3.3271,2.0389,5.1454,1.4602,3.6107,-0.7959,1.7279
824.2188,-2.5790,-4.4125,1.2752,1.2019,5.6469,1.4422,1.1318,-0.2538,2.3305,6.1648,4.3258,0.9777,3.8464,2.2161,5.8562,1.1115,3.5601,1.2154,3.5209
828.1250,-1.7313,-1.6923,2.0423,0.8248,3.6510,2.2930,0.6792,-1.1439,2.4717,5.5391,3.8117,2.4222,3.0881,1.4636,5.5328,0.6656,2.4424,2.5778,3.1461
832.0312,-0.9163,0.6129,1.4315,0.1866,1.1070,1.9420,-0.4685,-1.9436,2.1127,5.3183,2.8368,3.2271,1.4624,0.1388,4.4946,0.5586,0.7074,3.1600,1.0316
835.9375,-0.1025,2.1146,0.1708,-0.2842,-0.7718,1.1624,-1.4880,-2.3107,1.9078,5.7958,2.3671,3.5681,-0.2180,-1.1152,3.3699,1.1104,-0.7942,3.1968,-1.5367
839.8438,0.8353,2.9290,-0.6940,-0.3078,-1.2450,0.8363,-1.6609,-2.0556,2.4470,6.9585,3.0687,3.9306,-1.1390,-1.7081,2.7964,2.3054,-1.2473,3.1635,-3.1735
843.7500,2.0070,3.4641,-0.4545,0.0456,-0.4090,1.4597,-0.7977,-1.2532,3.9638,8.5434,4.9531,4.7391,-0.8861,-1.4050,3.1123,3.7634,-0.3143,3.5169,-3.1793
847.6562,3.3531,4.0686,0.8335,0.3932,0.9409,2.8816,0.6754,-0.2217,6.2381,10.1798,7.3888,6.0093,0.3729,-0.4288,4.1993,4.9359,1.6762,4.4532,-1.8741
851.5625,4.5686,4.7844,2.4143,0.3005,1.8407,4.3998,1.9958,0.6246,8.7197,11.5147,9.4514,7.2857,2.0140,0.6829,5.5481,5.4163,3.9055,5.8232,-0.2936
855.4688,5.1930,5.3456,3.3388,-0.3955,1.7339,5.1463,2.5181,0.9753,10.7748,12.2675,10.3915,7.9245,3.3077,1.3679,6.4994,5.1648,5.4943,7.2462,0.5319
859.3750,4.8481,5.3932,3.0834,-1.4130,0.7448,4.5565,2.0585,0.7770,11.9141,12.2382,9.9531,7.5304,3.7821,1.3120,6.5329,4.4982,5.9293,8.3369,0.2434
863.2812,3.4850,4.7364,1.8885,-2.1241,-0.4847,2.6811,0.9447,0.2668,11.9056,11.3235,8.3985,6.2410,3.4015,0.5694,5.4711,3.8536,5.2502,8.8947,-0.6556
867.1875,1.4736,3.4841,0.6024,-1.8786,-1.2366,0.1873,-0.2185,-0.1300,10.7659,9.5688,6.2760,4.6553,2.4895,-0.4970,3.5222,3.4881,3.9268,8.9398,-1.1767
871.0938,-0.5461,1.9772,0.1350,-0.3591,-1.1213,-1.9516,-0.8925,0.0160,8.6874,7.2192,4.1060,3.4472,1.4853,-1.3931,1.1662,3.3254,2.5497,8.5973,-0.5247
875.0000,-1.9795,0.5845,0.8659,2.2399,-0.1946,-2.9237,-0.8484,0.9548,5.9651,4.7028,2.1647,2.9297,0.7077,-1.6865,-1.0490,3.0538,1.5465,7.9334,1.3717
878.9062,-2.5768,-0.4946,2.3826,5.3085,1.2297,-2.4683,-0.2027,2.6533,2.9475,2.5073,0.4564,2.8637,0.2592,-1.1447,-2.7128,2.3998,1.0713,6.8761,3.8057
882.8125,-2.5346,-1.3022,3.7155,8.1193,2.8757,-0.9888,0.7208,4.8041,-0.0055,0.9885,-1.1603,2.6450,0.0876,0.2051,-3.6801,1.3750,1.0709,5.2843,5.7240
886.7188,-2.3427,-2.0382,3.9298,10.1439,4.6631,0.6689,1.5772,6.9352,-2.5741,0.2126,-2.7989,1.7446,0.1147,2.0926,-4.0795,0.3121,1.4152,3.1158,6.3550
890.6250,-2.4750,-2.8877,2.7128,11.2143,6.6250,1.6504,2.1218,8.5709,-4.5356,-0.0635,-4.4276,0.1092,0.3227,4.0932,-4.2032,-0.3380,1.9796,0.5727,5.6400
894.5312,-3.1158,-3.8661,0.5913,11.4757,8.6913,1.5016,2.2327,9.3854,-5.7968,-0.2468,-5.8583,-1.7420,0.7484,5.7785,-4.3334,-0.3018,2.6513,-1.8893,4.2259
898.4375,-4.0786,-4.7684,-1.3612,11.2036,10.5543,0.3340,1.8746,9.2943,-6.3774,-0.6723,-6.8321,-2.9920,1.4186,6.8873,-4.5877,0.3401,3.3127,-3.7134,3.0576
902.3438,-4.9487,-5.2491,-2.1606,10.6222,11.7592,-1.3270,1.0682,8.4561,-6.3567,-1.4115,-7.1461,-2.9994,2.2986,7.4355,-4.8641,1.2169,3.8665,-4.4801,2.8396
906.2500,-5.3453,-4.9946,-1.5061,9.8246,11.9719,-2.8893,-0.1108,7.1846,-5.8210,-2.2416,-6.7575,-1.6793,3.2933,7.6821,-4.9156,1.9187,4.2962,-4.1050,3.6828
910.1562,-5.1386,-3.9071,0.0337,8.8053,11.2251,-4.0095,-1.5190,5.8100,-4.8476,-2.7910,-5.8101,0.4369,4.2871,7.9423,-4.5094,2.2477,4.6947,-2.8928,5.1153
914.0625,-4.5022,-2.2114,1.3679,7.5476,9.9468,-4.6876,-2.9541,4.5529,-3.5240,-2.7713,-4.5656,2.4871,5.1740,8.3458,-3.5719,2.2944,5.1982,-1.4179,6.4082
917.9688,-3.7919,-0.4218,1.5594,6.0940,8.7317,-5.1165,-4.1977,3.4690,-1.9701,-2.1556,-3.2693,3.7227,5.8542,8.7052,-2.2315,2.2991,5.8486,-0.2905,7.0006
921.8750,-3.3416,0.8376,0.4149,4.5630,8.0025,-5.4320,-5.0707,2.4894,-0.3294,-1.1975,-2.0273,3.8478,6.2151,8.6104,-0.7381,2.4204,6.4887,0.0850,6.7778
925.7812,-3.2995,1.0960,-1.3841,3.1188,7.7822,-5.5642,-5.4723,1.5225,1.2678,-0.2907,-0.7790,3.0678,6.1357,7.7106,0.6751,2.5893,6.7947,-0.3431,6.0624
929.6875,-3.5887,0.2638,-2.7034,1.9177,7.7133,-5.2986,-5.3897,0.5472,2.7287,0.2387,0.5984,1.8584,5.5313,5.9975,1.8809,2.5546,6.4551,-1.2841,5.3547
933.5938,-3.9893,-1.2930,-2.6761,1.0526,7.2888,-4.4840,-4.8878,-0.3665,3.9734,0.2779,2.1062,0.6345,4.4104,3.8737,2.8371,2.0753,5.3821,-2.2600,4.9904
937.5000,-4.2776,-2.8937,-1.2671,0.5098,6.1335,-3.2132,-4.0984,-1.1214,4.8675,-0.0686,3.4863,-0.4614,2.8982,1.9311,3.4854,1.1119,3.7989,-2.8377,4.9232
941.4062,-4.3367,-3.8470,0.6797,0.1601,4.1743,-1.8226,-3.2070,-1.6842,5.1790,-0.6036,4.2516,-1.5282,1.2053,0.5812,3.6713,-0.1206,2.1308,-2.8279,4.7595
945.3125,-4.1888,-3.7767,1.9524,-0.1919,1.6459,-0.7067,-2.4198,-2.1267,4.6293,-1.1990,3.9097,-2.6884,-0.4326,-0.1946,3.1792,-1.2665,0.7714,-2.3561,4.0270
949.2188,-3.9536,-2.7993,1.7210,-0.6985,-1.0143,-0.0854,-1.8986,-2.5697,3.0513,-1.8886,2.2697,-3.8608,-1.7953,-0.7756,1.8829,-2.0165,-0.1073,-1.7677,2.5190
953.1250,-3.7743,-1.4555,0.0550,-1.3450,-3.2922,0.1007,-1.6813,-3.0637,0.5746,-2.8338,-0.3600,-4.6970,-2.6822,-1.5502,-0.0877,-2.2379,-0.5688,-1.4154,0.5049
957.0312,-3.7592,-0.4249,-2.1147,-1.8925,-4.7018,0.0958,-1.6377,-3.4978,-2.2964,-4.1865,-3.2281,-4.7308,-2.9074,-2.5388,-2.2973,-1.9764,-0.7573,-1.4458,-1.3354
960.9375,-3.9584,-0.1743,-3.5530,-1.9524,-4.8833,0.1173,-1.5064,-3.6162,-4.8022,-5.9309,-5.4492,-3.6362,-2.3358,-3.2918,-4.1370,-1.3564,-0.7123,-1.7064,-2.2381
964.8438,-4.3663,-0.7245,-3.4353,-1.1845,-3.7132,0.1977,-1.0143,-3.1520,-6.2176,-7.8008,-6.3970,-1.4147,-0.9722,-3.1638,-5.0745,-0.4790,-0.3083,-1.8338,-1.7679
968.7500,-4.9273,-1.6580,-1.7749,0.4851,-1.3919,0.1950,-0.0240,-1.9950,-6.1650,-9.3275,-5.9574,1.6099,0.9580,-1.7830,-4.8804,0.6069,0.6351,-1.4733,-0.0776
972.6562,-5.5350,-2.3584,0.6719,2.7613,1.5690,-0.0513,1.3776,-0.2827,-4.7745,-10.0103,-4.5082,4.9751,3.0216,0.6236,-3.6999,1.8507,2.1683,-0.5019,2.1428
976.5625,-6.0387,-2.3502,2.9116,5.0726,4.5044,-0.5613,2.9045,1.6491,-2.5992,-9.5404,-2.6653,8.3019,4.7268,3.2975,-1.9494,3.1254,4.1059,0.8783,4.0033
980.4688,-6.2779,-1.5546,4.2717,6.8143,6.8436,-1.1868,4.1976,3.4152,-0.3448,-7.9776,-0.9754,11.4058,5.7405,5.3680,-0.1233,4.2068,6.0823,2.2328,4.8420
984.3750,-6.1449,-0.3280,4.6640,7.5963,8.3047,-1.7321,4.9806,4.7268,1.4282,-5.7849,0.2588,14.2436,6.0312,6.3267,1.3666,4.8351,7.7185,3.1122,4.4955
988.2812,-5.6452,0.7388,4.4432,7.3484,8.9035,-2.1084,5.1562,5.4391,2.4698,-3.6801,0.9613,16.7749,5.8251,6.2242,2.2572,4.8279,8.7624,3.2650,3.2692
992.1875,-4.9052,1.1504,4.0268,6.2363,8.7697,-2.3788,4.8036,5.4939,2.8216,-2.3418,1.1566,18.8785,5.3888,5.4749,2.4310,4.1755,9.1094,2.7252,1.6570
996.0938,-4.1051,0.7847,3.5698,4.4746,7.9115,-2.6468,4.0948,4.8364,2.6821,-2.0958,0.8810,20.4066,4.7912,4.4498,1.9133,3.0630,8.7221,1.7383,0.0086
1000.0000,-3.3669,-0.0428,2.8938,2.1855,6.1262,-2.8863,3.1933,3.4014,2.2733,-2.7392,0.2082,21.3364,3.8268,3.1880,0.8955,1.8027,7.5625,0.5907,-1.6423
1003.9062,-2.6755,-0.7753,1.6603,-0.5988,3.1518,-2.8777,2.1919,1.1985,1.7815,-3.6222,-0.6629,21.8807,2.1761,1.4425,-0.2593,0.7075,5.6275,-0.5439,-3.5027
1007.8125,-1.9025,-0.9703,-0.3773,-3.8101,-1.0301,-2.3374,1.1070,-1.5703,1.3607,-3.9782,-1.3869,22.4372,-0.3008,-1.0013,-1.1019,-0.0360,3.0659,-1.6549,-5.7794
1011.7188,-0.9355,-0.6025,-3.2112,-7.2129,-5.9600,-1.1678,-0.0851,-4.4718,1.1303,-3.3468,-1.5967,23.3772,-3.3518,-4.0085,-1.2858,-0.4376,0.2556,-2.8265,-8.4481
1015.6250,0.1706,-0.1138,-6.5574,-10.3804,-10.7276,0.3659,-1.3990,-6.9421,1.1326,-1.8542,-1.1227,24.8013,-6.3669,-7.0434,-0.7686,-0.6798,-2.2697,-4.1122,-11.1752
1019.5312,1.1391,-0.1447,-9.9164,-12.8014,-14.2754,1.6958,-2.7974,-8.4851,1.2782,-0.1731,-0.1496,26.4319,-8.6481,-9.4236,0.1210,-1.0022,-4.0372,-5.4337,-13.4198
1023.4375,1.5794,-1.0874,-12.6503,-14.0460,-15.8065,2.2464,-4.1650,-8.8522,1.3535,0.8412,0.8303,27.7209,-9.7376,-10.6743,0.8324,-1.5462,-4.8543,-6.5653,-14.6303
1027.3438,1.2055,-2.7429,-14.0902,-13.8885,-15.0617,1.7810,-5.3097,-8.0969,1.1248,0.6340,1.2720,28.1074,-9.5880,-10.7127,0.8977,-2.2400,-4.8664,-7.2121,-14.4277
1031.2500,0.0229,-4.3371,-13.7330,-12.3422,-12.3347,0.5605,-6.0063,-6.4927,0.4881,-0.7337,0.8872,27.2585,-8.4856,-9.7500,0.2061,-2.8029,-4.4056,-7.1448,-12.7145
1035.1562,-1.6558,-4.9429,-11.5278,-9.6389,-8.2813,-0.8022,-6.0848,-4.3969,-0.4436,-2.6375,-0.1949,25.1535,-6.8227,-8.0395,-0.9353,-2.8824,-3.7429,-6.3320,-9.7095
1039.0625,-3.3882,-4.0831,-8.1056,-6.2076,-3.6868,-1.7020,-5.5331,-2.1616,-1.3979,-4.2751,-1.5226,21.9936,-4.9060,-5.7205,-1.9953,-2.2626,-2.9364,-5.0070,-5.9311
1042.9688,-4.8512,-2.1263,-4.7250,-2.6617,0.6731,-1.8777,-4.5533,-0.1308,-2.1183,-5.1355,-2.5995,18.0418,-2.9307,-2.8966,-2.5314,-1.0193,-1.8867,-3.6268,-2.1211
1046.8750,-5.9819,-0.1793,-2.8094,0.2647,4.0828,-1.5108,-3.5177,1.3340,-2.5306,-5.2464,-3.1508,13.5283,-1.0843,0.1404,-2.4069,0.4842,-0.5396,-2.7162,0.9186
1050.7812,-6.9046,0.5153,-3.2251,1.8914,5.9508,-1.0474,-2.8210,1.8926,-2.7678,-5.0500,-3.2030,8.6733,0.3708,2.7943,-1.7743,1.7733,0.9521,-2.6453,2.5694
1054.6875,-7.7072,-0.6661,-5.7052,1.8552,5.9695,-0.8883,-2.6988,1.3587,-3.0241,-5.0149,-2.9513,3.7662,1.1617,4.3378,-0.8698,2.5135,2.2610,-3.4361,2.6372
1058.5938,-8.2565,-3.3022,-8.8412,0.3269,4.3127,-1.1647,-3.1166,-0.1429,-3.3474,-5.2729,-2.5446,-0.8165,1.1924,4.3183,0.1973,2.6805,3.1001,-4.7066,1.4554
1062.5000,-8.2272,-6.1260,-10.7655,-1.9842,1.7044,-1.7230,-3.8010,-2.1306,-3.5436,-5.5413,-1.9668,-4.7141,0.6919,2.9105,1.4880,2.5445,3.4475,-5.8129,-0.2469
1066.4062,-7.3528,-7.7508,-10.1971,-4.1069,-0.7845,-2.2774,-4.3994,-3.9135,-3.2913,-5.3771,-1.1027,-7.7564,0.1590,0.9242,3.0824,2.4830,3.5813,-6.1474,-1.6790
1070.3125,-5.7230,-7.4742,-7.2275,-5.2519,-2.1813,-2.5853,-4.6651,-4.8869,-2.4033,-4.5633,0.0799,-10.0819,0.0861,-0.5966,4.8741,2.7489,3.8738,-5.4503,-2.3541
1074.2188,-3.8856,-5.6505,-3.3263,-5.1763,-2.0695,-2.5201,-4.5572,-4.8120,-1.0466,-3.3295,1.3909,-12.1014,0.6328,-0.9456,6.4967,3.3445,4.4910,-3.9626,-2.2785
1078.1250,-2.6318,-3.4031,-0.5167,-4.2471,-0.7761,-2.0394,-4.2021,-3.9079,0.2613,-2.2404,2.4499,-14.3165,1.4883,-0.1214,7.4663,4.0661,5.2305,-2.3216,-1.8566
1082.0312,-2.5714,-1.8868,-0.2056,-3.1646,0.8485,-1.1415,-3.7676,-2.6969,0.9103,-1.8316,2.8782,-17.1051,2.0466,1.2494,7.4511,4.6621,5.6391,-1.2429,-1.5858
1085.9375,-3.7673,-1.5967,-2.3906,-2.5246,1.9375,0.1066,-3.3510,-1.7032,0.5587,-2.2588,2.5243,-20.6028,1.7990,2.3607,6.4761,4.9778,5.3361,-1.1615,-1.7430
1089.8438,-5.6758,-2.1635,-5.7283,-2.4974,2.0862,1.4849,-2.9598,-1.1927,-0.6329,-3.2118,1.5682,-24.7262,0.6830,2.7236,4.9222,4.9938,4.3104,-2.0300,-2.2550
1093.7500,-7.4326,-2.7256,-8.3853,-2.8101,1.5110,2.5930,-2.5775,-1.1031,-2.0529,-4.1389,0.4422,-29.2778,-0.8485,2.3784,3.3301,4.7613,2.9723,-3.3777,-2.8038
1097.6562,-8.2984,-2.5689,-9.1020,-3.0064,0.8099,2.9760,-2.2363,-1.1761,-2.9421,-4.6031,-0.3711,-34.0313,-2.0869,1.7171,2.1550,4.3261,1.9177,-4.5766,-3.0575
1101.5625,-7.9799,-1.5747,-7.7976,-2.7781,0.5140,2.3789,-2.0198,-1.1729,-2.7671,-4.5065,-0.5399,-38.7444,-2.4825,1.1022,1.6251,3.7238,1.5710,-5.1480,-2.8543
1105.4688,-6.6558,-0.1953,-5.3975,-2.1377,0.7369,0.9685,-1.9875,-1.0190,-1.4491,-4.0419,0.0170,-43.1374,-1.9447,0.5891,1.7539,3.0477,1.9479,-4.9382,-2.2358
1109.3750,-4.7525,0.9588,-3.0994,-1.3437,1.1442,-0.6636,-2.0896,-0.8006,0.6544,-3.4496,1.1443,-46.9216,-0.8515,-0.0475,2.4296,2.5050,2.6873,-4.0981,-1.3572
1113.2812,-2.6731,1.5673,-1.6328,-0.6692,1.2348,-1.7722,-2.1569,-0.6446,2.9622,-2.7991,2.5307,-49.9130,0.2131,-1.0381,3.4711,2.3686,3.3079,-2.9250,-0.3817
1117.1875,-0.6694,1.7486,-0.9894,-0.2037,0.7244,-1.8616,-1.9904,-0.5912,4.9306,-1.9738,3.8038,-52.1657,0.8073,-2.3304,4.6185,2.8154,3.5058,-1.6929,0.5586
1121.0938,1.1080,1.8399,-0.7078,0.1800,-0.2231,-0.9628,-1.4917,-0.5482,6.2318,-0.8526,4.6257,-54.0042,0.8538,-3.5189,5.5250,3.7540,3.3091,-0.5691,1.3476
1125.0000,2.5035,2.0380,-0.3881,0.6995,-1.0504,0.4038,-0.7364,-0.3434,6.8026,0.4871,4.7958,-55.8775,0.6323,-4.0434,5.8432,4.7817,3.0216,0.3739,1.8877
1128.9062,3.3394,2.2166,-0.0046,1.4978,-1.0976,1.5591,0.0652,0.1739,6.7936,1.7341,4.3419,-58.0930,0.5847,-3.5071,5.4046,5.3435,3.0255,1.1061,2.1654
1132.8125,3.5182,2.0638,0.1924,2.5606,0.0487,2.0619,0.6864,1.0493,6.4690,2.5180,3.5402,-60.5971,1.0629,-1.8964,4.3701,5.0191,3.5694,1.6074,2.3291
1136.7188,3.1344,1.4029,0.0295,3.7480,2.3291,1.9060,0.9906,2.1930,6.0864,2.6514,2.8014,-62.9710,2.1469,0.4250,3.1947,3.7651,4.6400,1.8700,2.6753
1140.6250,2.4526,0.4014,-0.3314,4.8805,5.2054,1.4042,0.9550,3.3993,5.7736,2.2364,2.4366,-64.6695,3.5968,2.9080,2.3619,1.9520,5.9507,1.9030,3.4845
1144.5312,1.7237,-0.5247,-0.4782,5.7970,7.8559,0.8799,0.6168,4.3992,5.4406,1.5420,2.4229,-65.3621,4.9396,5.0511,2.0364,0.1648,7.0308,1.7119,4.7822
1148.4375,0.9730,-1.0452,-0.1091,6.3592,9.4856,0.4190,0.0156,4.9378,4.7895,0.7558,2.3389,-65.1491,5.6499,6.5445,1.8888,-1.1089,7.3902,1.2649,6.1999
1152.3438,-0.0444,-1.2071,0.6362,6.4399,9.6293,-0.1308,-0.8026,4.8650,3.4652,-0.1747,1.5681,-64.5021,5.3625,7.2872,1.2680,-1.7115,6.7197,0.4887,7.0819
1156.2500,-1.6369,-1.4241,1.1741,5.9518,8.3351,-0.9384,-1.7264,4.2118,1.3044,-1.4656,-0.3071,-63.9640,4.0352,7.3296,-0.3449,-1.8349,5.0590,-0.6748,6.8213
1160.1562,-3.8444,-2.1450,0.8369,4.9138,6.1472,-1.9479,-2.5415,3.2028,-1.4569,-3.2350,-3.1523,-63.8072,1.9789,6.8057,-2.8923,-1.8385,2.8322,-2.1791,5.2251
1164.0625,-6.2380,-3.4485,-0.6578,3.4994,3.8755,-2.8364,-2.9889,2.1722,-4.1791,-5.2761,-6.2209,-63.8743,-0.2847,5.8795,-5.6357,-2.0011,0.6861,-3.8265,2.6603
1167.9688,-8.0467,-4.8906,-2.9766,2.0003,2.2324,-3.2178,-2.9090,1.4043,-6.0801,-7.0740,-8.4770,-63.6922,-2.2851,4.6954,-7.5130,-2.3700,-0.8313,-5.3257,-0.1363
1171.8750,-8.5719,-5.7557,-5.3478,0.7045,1.5076,-2.9295,-2.3670,0.9891,-6.6477,-8.0929,-9.1428,-62.7652,-3.8427,3.3254,-7.7619,-2.7874,-1.5837,-6.4424,-2.4668
1175.7812,-7.6283,-5.5534,-7.0160,-0.2376,1.4538,-2.1634,-1.6439,0.7947,-5.9598,-8.1383,-8.1483,-60.8428,-5.1273,1.7457,-6.4108,-3.0545,-1.9418,-7.1477,-4.0290
1179.6875,-5.7016,-4.4118,-7.6543,-0.8669,1.4637,-1.3236,-1.0666,0.5890,-4.6956,-7.5199,-6.1979,-58.0019,-6.4815,-0.1197,-4.3032,-3.1076,-2.5548,-7.6512,-4.9892
1183.5938,-3.6995,-3.0761,-7.4661,-1.3534,0.9438,-0.7177,-0.7908,0.2330,-3.7991,-6.8737,-4.3995,-54.5329,-8.1152,-2.2923,-2.6219,-3.0908,-3.9093,-8.2760,-5.7503
1187.5000,-2.4506,-2.4958,-6.9568,-1.8763,-0.3392,-0.3355,-0.7076,-0.2053,-3.9820,-6.7513,-3.6757,-50.7537,-9.8910,-4.6376,-2.2053,-3.2843,-5.9545,-9.2446,-6.6134
1191.4062,-2.2772,-3.2670,-6.5849,-2.5450,-2.1593,0.0923,-0.5688,-0.5220,-5.3603,-7.2613,-4.3066,-46.9039,-11.3765,-6.8636,-3.0868,-3.9365,-8.0665,-10.5168,-7.5961
1195.3125,-2.9034,-5.2865,-6.5504,-3.4129,-4.0414,0.7881,-0.2538,-0.6049,-7.4331,-8.0142,-5.8621,-43.1698,-12.1535,-8.6527,-4.5333,-5.1022,-9.4112,-11.7911,-8.5258
1199.2188,-3.7211,-7.8196,-6.8234,-4.5463,-5.6297,1.6231,0.0330,-0.6446,-9.3907,-8.4049,-7.5221,-39.7649,-12.1718,-9.8566,-5.5303,-6.5744,-9.4858,-12.6708,-9.3003
1203.1250,-4.1945,-9.9059,-7.3106,-6.0480,-6.9451,2.0838,-0.1800,-1.1380,-10.5392,-8.0251,-8.5509,-36.9387,-11.8701,-10.6120,-5.3843,-7.9488,-8.4763,-12.8823,-10.0702
1207.0312,-4.1267,-10.8334,-7.9687,-7.9760,-8.3388,1.5890,-1.3118,-2.6205,-10.5833,-6.9146,-8.6254,-34.8561,-11.9358,-11.2668,-4.0677,-8.7880,-7.1736,-12.4039,-11.1669
1210.9375,-3.6479,-10.4107,-8.7655,-10.1996,-10.1620,-0.0471,-3.3567,-5.2662,-9.6423,-5.4897,-7.8562,-33.4206,-12.8332,-12.1384,-2.1283,-8.8102,-6.4873,-11.4353,-12.8108
1214.8438,-3.0048,-8.9397,-9.5624,-12.3214,-12.3915,-2.3515,-5.7420,-8.6273,-8.0640,-4.2282,-6.5672,-32.1987,-14.4230,-13.2505,-0.2820,-8.0143,-6.8758,-10.2545,-14.8282
1218.7500,-2.3547,-6.9854,-10.0825,-13.7711,-14.4914,-4.3596,-7.5656,-11.7273,-6.2162,-3.3557,-5.0436,-30.5556,-15.9560,-14.2372,1.0109,-6.6812,-8.0672,-9.0767,-16.6161
1222.6562,-1.7162,-5.1181,-10.0522,-14.0582,-15.6387,-5.1515,-8.0983,-13.5035,-4.3897,-2.7590,-3.4345,-27.9637,-16.4801,-14.4990,1.7182,-5.2499,-9.2469,-8.0076,-17.4202
1226.5625,-1.0695,-3.7507,-9.4310,-13.0358,-15.1821,-4.4197,-7.2315,-13.3545,-2.8160,-2.1603,-1.8333,-24.3013,-15.4066,-13.5338,2.0970,-4.1251,-9.5692,-7.0885,-16.7547
1230.4688,-0.4713,-3.0782,-8.5234,-10.9942,-13.0332,-2.6877,-5.5639,-11.4588,-1.6926,-1.3924,-0.4034,-19.9309,-12.8629,-11.2386,2.3991,-3.5074,-8.6439,-6.3562,-14.6818
1234.3750,-0.0572,-3.0653,-7.8299,-8.5021,-9.7301,-1.0191,-4.0486,-8.6591,-1.1295,-0.5490,0.6110,-15.4769,-9.5967,-7.9970,2.6571,-3.3268,-6.6939,-5.8365,-11.7616
1238.2812,0.0756,-3.4511,-7.6931,-6.0903,-6.1320,-0.3920,-3.4196,-5.9802,-1.0383,0.1039,1.0325,-11.4258,-6.5038,-4.4953,2.6973,-3.3058,-4.3237,-5.4710,-8.7120
1242.1875,-0.0067,-3.7984,-7.9853,-3.9848,-2.9544,-1.1270,-3.7612,-4.0800,-1.0818,0.3760,0.9403,-7.8073,-4.1040,-1.3847,2.3402,-3.1116,-2.1040,-5.0524,-6.0141
1246.0938,-0.0645,-3.6374,-8.0911,-2.0655,-0.4479,-2.7203,-4.4940,-2.9667,-0.7902,0.3592,0.7195,-4.1811,-2.3132,1.0053,1.6117,-2.5183,-0.2717,-4.2634,-3.7225
1250.0000,0.1825,-2.6851,-7.2476,-0.0688,1.5869,-4.1610,-4.7664,-2.1335,0.1818,0.4243,0.8796,0.0414,-0.6401,2.7401,0.7952,-1.5070,1.2774,-2.8357,-1.5825
1253.9062,0.8764,-1.0378,-5.0431,2.1220,3.4950,-4.5179,-3.9865,-0.9925,1.8151,0.9996,1.7306,5.1411,1.3563,4.1173,0.2753,-0.2705,2.7563,-0.7446,0.6567
1257.8125,1.9277,0.8042,-1.7446,4.3093,5.4160,-3.4376,-2.1518,0.6955,3.6865,2.2793,3.1429,10.8083,3.6809,5.3865,0.2838,0.8604,4.2229,1.6980,2.9676
1261.7188,3.0700,2.1429,1.7751,6.0593,7.1374,-1.2841,0.2061,2.6690,5.1883,4.0637,4.5828,16.2421,5.8494,6.5371,0.7282,1.5341,5.4843,3.9398,4.9952
1265.6250,4.0095,2.4397,4.4730,6.9675,8.2452,1.1080,2.3842,4.3658,5.8789,5.8346,5.4327,20.5948,7.1832,7.2816,1.2297,1.5036,6.2155,5.4361,6.2528
1269.5312,4.5555,1.6288,5.6564,6.9256,8.4435,2.8841,3.9152,5.3138,5.7332,7.0187,5.3939,23.4853,7.2348,7.2413,1.3556,0.7283,6.1803,5.9094,6.4183
1273.4375,4.6576,0.1911,5.2721,6.2068,7.7993,3.5603,4.7616,5.4415,5.1230,7.2739,4.6944,25.2462,6.0567,6.2140,0.8989,-0.5798,5.3854,5.4662,5.5366
1277.3438,4.3617,-1.0768,3.8192,5.3149,6.7315,3.1765,5.2121,5.1062,4.5434,6.6364,3.9445,26.7305,4.1562,4.3554,0.0236,-2.0035,4.0742,4.5047,4.0102
1281.2500,3.7584,-1.4831,2.0014,4.6990,5.7494,2.1865,5.5975,4.8401,4.2829,5.4596,3.7290,28.7936,2.1947,2.1522,-0.8202,-3.0713,2.5881,3.4820,2.4000
1285.1562,2.9698,-0.8210,0.3770,4.5124,5.1219,1.1860,6.0405,4.9899,4.2628,4.2054,4.2167,31.7853,0.6441,0.1896,-1.1630,-3.4656,1.2046,2.6865,1.1655
1289.0625,2.1549,0.5079,-0.7856,4.5550,4.7059,0.6235,6.3912,5.4869,4.1445,3.2134,5.0617,35.3860,-0.3938,-1.1609,-0.7997,-3.1832,0.0501,2.1451,0.4858
1292.9688,1.4748,1.6981,-1.4344,4.4149,4.0501,0.6143,6.3580,5.8832,3.6089,2.5706,5.6692,38.8917,-1.1275,-1.9447,0.0856,-2.5335,-0.8868,1.6982,0.2398
1296.8750,1.0000,1.9678,-1.5916,3.7115,2.7054,0.9199,5.7123,5.6198,2.5990,2.1327,5.6334,41.7463,-1.8553,-2.5805,1.0243,-1.9458,-1.6789,1.1678,0.1275
1300.7812,0.6260,0.9789,-1.3087,2.3051,0.5439,1.0921,4.4265,4.3605,1.3606,1.6648,5.0278,43.9504,-2.7373,-3.5721,1.5313,-1.6836,-2.3755,0.5048,-0.1466
1304.6875,0.0987,-0.9715,-0.7451,0.3789,-2.1098,0.7220,2.6791,2.1984,0.2753,1.0182,4.3304,46.0557,-3.6820,-5.1313,1.3667,-1.6530,-2.9452,-0.1683,-0.7193
1308.5938,-0.8138,-3.0902,-0.2466,-1.6223,-4.5985,-0.3192,0.7596,-0.3627,-0.3740,0.2449,4.0364,48.7506,-4.3801,-6.9394,0.6432,-1.4575,-3.2530,-0.6240,-1.5009
1312.5000,-2.0951,-4.4836,-0.2670,-3.1480,-6.2147,-1.7737,-1.0371,-2.6208,-0.5378,-0.4111,4.2464,52.3286,-4.4358,-8.2126,-0.2697,-0.6914,-3.0786,-0.6474,-2.2063
1316.4062,-3.3818,-4.6041,-1.1061,-3.7245,-6.4744,-3.1010,-2.4647,-3.9527,-0.3626,-0.6523,4.5479,56.4235,-3.5251,-8.0638,-0.9595,0.7169,-2.1863,-0.1339,-2.4608
1320.3125,-4.1174,-3.5147,-2.6246,-3.1071,-5.2483,-3.7576,-3.3273,-4.0243,-0.0472,-0.3307,4.2964,60.2060,-1.5279,-5.9744,-1.1677,2.3613,-0.4466,0.8696,-1.9389
1324.2188,-3.9121,-1.8394,-4.1761,-1.3677,-2.7359,-3.5040,-3.4770,-2.8605,0.2768,0.3928,3.1038,62.9081,1.3887,-2.1153,-0.8665,3.5446,2.0297,2.1802,-0.4961
1328.1250,-2.8812,-0.4351,-4.8875,1.1043,0.6389,-2.5536,-2.8542,-0.7908,0.5519,1.0397,1.1707,64.3027,4.7516,2.6604,-0.2162,3.6934,4.8171,3.5239,1.7434
1332.0312,-1.7027,0.0291,-4.1735,3.6938,4.3172,-1.4617,-1.5635,1.6702,0.7146,0.9911,-0.8028,64.7967,7.8491,7.1467,0.5244,2.7204,7.2367,4.5922,4.3683
1335.9375,-1.2974,-0.6417,-2.1694,5.7328,7.6576,-0.8165,0.0735,3.9526,0.6263,-0.2131,-2.0891,65.0746,9.8998,10.2561,1.0615,1.0757,8.5674,5.1043,6.7545
1339.8438,-2.2951,-2.1535,0.2314,6.7084,10.0102,-0.9266,1.5580,5.5488,0.1019,-2.6069,-2.4591,65.5633,10.3039,11.4001,1.0965,-0.5564,8.3366,4.8761,8.2348
1343.7500,-4.6207,-3.9543,1.8192,6.4369,10.8749,-1.7055,2.3702,6.1247,-0.9687,-5.7205,-2.3709,66.1205,8.8956,10.6262,0.3734,-1.6985,6.5554,3.8859,8.3334
1347.6562,-7.4876,-5.5419,1.7566,5.1321,10.1257,-2.8147,2.1870,5.6160,-2.4973,-8.7579,-2.6598,66.1895,6.0818,8.5069,-1.2117,-2.3395,3.7717,2.3099,6.9879
1351.5625,-9.8279,-6.6562,0.0942,3.3280,8.1675,-3.9465,1.0476,4.2718,-4.1746,-10.9494,-3.9239,65.3111,2.7630,5.8863,-3.4743,-2.8261,0.8930,0.5035,4.6474
1355.4688,-10.8992,-7.2679,-2.2227,1.6785,5.8689,-5.0246,-0.6377,2.5967,-5.5777,-11.8855,-6.0367,63.6106,0.0258,3.6036,-5.8884,-3.4830,-1.1596,-1.0817,2.1583
1359.3750,-10.6840,-7.4241,-3.8839,0.7121,4.2155,-6.1728,-2.2661,1.1766,-6.3433,-11.6401,-8.1403,61.8776,-1.2862,2.2675,-7.7161,-4.2637,-1.8143,-2.0230,0.4390
1363.2812,-9.8231,-7.1046,-3.9651,0.6486,3.8272,-7.4794,-3.3240,0.4476,-6.2956,-10.6145,-9.1461,61.1444,-0.9268,2.1061,-8.3112,-4.7131,-1.0666,-2.0499,0.0713
1367.1875,-9.1326,-6.2094,-2.4385,1.3605,4.6195,-8.7532,-3.6193,0.5207,-5.4577,-9.2109,-8.4068,62.0361,0.6622,2.9102,-7.4440,-4.2800,0.5523,-1.1192,1.0248
1371.0938,-9.0238,-4.6778,-0.1300,2.4937,5.8531,-9.4815,-3.3262,1.1708,-3.9669,-7.5570,-6.1049,64.3401,2.5946,4.1102,-5.4379,-2.7454,2.2451,0.5848,2.6931
1375.0000,-9.2125,-2.6216,1.8365,3.6799,6.5887,-9.0634,-2.8172,2.0025,-1.9796,-5.4739,-3.1031,67.1030,4.0082,5.0036,-3.0072,-0.4386,3.3314,2.7202,4.2565
1378.9062,-8.9110,-0.3478,2.7458,4.7207,6.2882,-7.1858,-2.3948,2.6965,0.3501,-2.7167,-0.3860,69.1956,4.5080,5.0796,-0.8762,1.9236,3.5591,4.8948,5.1751
1382.8125,-7.3865,1.7645,2.6956,5.6394,5.1721,-4.0963,-2.1052,3.1789,2.8107,0.6769,1.5015,69.9704,4.3328,4.2884,0.5797,3.6565,3.1841,6.7710,5.5011
1386.7188,-4.5250,3.4424,2.4538,6.5727,4.0792,-0.5831,-1.7672,3.6016,5.0639,4.1874,2.6337,69.5762,4.1408,3.0885,1.4374,4.4784,2.7760,8.1331,5.7904
1390.6250,-1.0341,4.6153,2.8804,7.5811,3.9025,2.3434,-1.1929,4.1578,6.6654,6.9407,3.4232,68.7468,4.5424,2.2054,2.0220,4.5790,2.8589,8.9060,6.6476
1394.5312,1.8639,5.3633,4.3063,8.5129,4.9739,3.8904,-0.4301,4.8723,7.2144,8.1282,4.1465,68.2364,5.6736,2.2182,2.5638,4.3726,3.5976,9.1320,8.2055
1398.4375,3.0816,5.7708,6.2770,9.0307,6.8249,3.8030,0.1786,5.5306,6.5717,7.4766,4.6729,68.3001,7.0865,3.2179,2.9890,4.1602,4.7209,8.9247,9.9125
1402.3438,2.2766,5.8197,7.8184,8.7976,8.4904,2.4163,0.1981,5.8030,5.0089,5.4618,4.6102,68.5513,8.0335,4.7545,3.0060,3.9643,5.7286,8.4157,10.8117
1406.2500,0.0584,5.4146,8.0408,7.7039,9.1443,0.4490,-0.5580,5.4711,3.1647,3.1026,3.7300,68.2460,7.9583,6.1048,2.4109,3.6326,6.2406,7.7070,10.1541
1410.1562,-2.3395,4.5159,6.6853,5.9719,8.6112,-1.3220,-1.8029,4.5791,1.7877,1.4293,2.3024,66.7619,6.8587,6.6800,1.3518,3.0725,6.2410,6.8365,7.9292
1414.0625,-3.7334,3.2598,4.2708,4.0539,7.3914,-2.3448,-2.8719,3.3933,1.3817,0.9397,1.0321,63.9462,5.2730,6.3054,0.3117,2.3883,6.0412,5.7713,4.9325
1417.9688,-3.6157,1.9517,1.7746,2.3834,6.2019,-2.4388,-3.1223,2.2042,1.9497,1.3805,0.6055,60.1466,3.9034,5.2131,-0.2098,1.7972,5.9854,4.4442,2.2994
1421.8750,-2.3695,0.9268,0.0746,1.1543,5.3984,-1.7930,-2.3849,1.1401,2.9987,1.9904,1.1819,55.9760,3.1508,3.8056,-0.0853,1.4200,6.1275,2.8342,0.8181
1425.7812,-0.9560,0.3833,-0.4849,0.2883,4.7377,-0.8528,-1.1411,0.1516,3.8247,2.0454,2.2321,52.0150,2.9012,2.4040,0.2939,1.1592,6.1457,1.0618,0.4995
1429.6875,-0.2829,0.3149,-0.1610,-0.3884,3.6707,-0.1413,-0.2598,-0.8168,3.9244,1.3421,2.8773,48.6320,2.7143,1.1678,0.2632,0.8000,5.5948,-0.5644,0.7008
1433.5938,-0.6550,0.5766,0.4727,-0.9045,1.9371,-0.0571,-0.4356,-1.6265,3.2890,0.2986,2.5050,45.9583,2.2577,0.1964,-0.6285,0.2573,4.3247,-1.6105,0.6947
1437.5000,-1.6490,1.0077,0.9261,-1.0467,-0.0298,-0.7032,-1.6971,-1.9203,2.3933,-0.3930,1.2115,43.9330,1.6353,-0.3477,-2.2420,-0.2597,2.7341,-1.7020,0.2485
1441.4062,-2.4732,1.4934,1.0374,-0.5083,-1.2511,-1.8210,-3.3309,-1.3501,1.8753,-0.3109,-0.2606,42.3271,1.3302,-0.2701,-3.8768,-0.3486,1.6147,-0.7553,-0.2258
1445.3125,-2.5524,1.9245,0.9433,0.8117,-0.8517,-2.8837,-4.2974,0.0917,2.1050,0.3497,-1.0549,40.7489,1.7833,0.4565,-4.7131,0.2602,1.6360,0.8845,-0.0587
1449.2188,-1.9302,2.1334,0.8671,2.6009,1.2497,-3.3328,-3.8711,1.9093,2.9256,0.8910,-0.8134,38.7136,2.9333,1.5032,-4.3674,1.4096,2.8187,2.5241,1.0624
1453.1250,-1.2105,1.9242,0.9286,4.2197,4.1443,-2.8533,-2.0790,3.3023,3.7518,0.6274,0.0820,35.8310,4.1057,2.2319,-3.1606,2.5196,4.4026,3.4352,2.7450
1457.0312,-1.0856,1.2340,1.1239,5.0749,6.4303,-1.5365,0.3563,3.6543,3.9804,-0.5573,0.8199,32.0484,4.4009,2.0416,-1.8951,2.9411,5.2682,3.2601,4.1042
1460.9375,-1.7918,0.3108,1.4534,5.0416,7.0996,0.1724,2.5152,2.9937,3.4469,-2.0209,0.7907,27.7833,3.3457,0.8187,-1.2893,2.4278,4.6750,2.2718,4.4031
1464.8438,-2.8932,-0.2731,2.0500,4.6179,6.2043,1.7160,3.8649,2.0730,2.6136,-2.7095,0.0718,23.8004,1.3426,-0.8460,-1.4666,1.3705,2.8182,1.2987,3.6441
1468.7500,-3.5593,0.1314,3.1600,4.6598,4.8275,2.7131,4.5245,1.9507,2.3336,-1.8360,-0.5931,20.8463,-0.4488,-1.8905,-1.8672,0.5949,0.7934,1.3081,2.6539
1472.6562,-3.1489,1.8533,4.9613,5.8338,4.3625,3.1191,5.0493,3.3098,3.3171,0.5642,-0.3119,19.2381,-0.7773,-1.3791,-1.6512,0.8369,-0.0507,2.8593,2.5657
1476.5625,-1.6825,4.6180,7.3511,8.1433,5.5883,3.1727,5.9216,5.9612,5.6369,3.5862,1.3098,18.6618,0.9054,0.9077,-0.3158,2.2539,1.0334,5.7456,4.0475
1480.4688,0.1433,7.6047,9.8743,10.8581,8.1678,3.1860,7.1409,8.8879,8.6006,5.9682,3.8495,18.3208,4.0527,4.2889,1.9011,4.3086,3.6950,9.0532,6.8157
1484.3750,1.4180,9.8492,11.8747,12.9146,10.8957,3.3372,8.2136,10.8305,11.0932,6.8347,6.2916,17.3513,7.3097,7.5462,4.1099,6.0933,6.6788,11.6218,9.7718
1488.2812,1.6342,10.7444,12.7876,13.5366,12.4992,3.6052,8.5382,11.0454,12.1855,6.1842,7.6323,15.2512,9.2996,9.6074,5.2925,6.8598,8.5802,12.6434,11.6655
1492.1875,1.0200,10.3109,12.3991,12.6754,12.4321,3.8695,7.8879,9.7407,11.6356,4.8143,7.4562,12.0762,9.4029,10.1107,4.9155,6.4002,8.6686,12.0492,11.8269
1496.0938,0.3542,9.0691,10.9223,10.9951,11.1413,4.0683,6.6222,7.9095,9.9792,3.7602,6.1225,8.3211,8.0411,9.5023,3.2441,5.0699,7.2576,10.4698,10.4944
1500.0000,0.3984,7.6344,8.8655,9.4319,9.6706,4.2681,5.4696,6.6772,8.1707,3.6413,4.4860,4.6099,6.3231,8.6434,1.1772,3.5145,5.4241,8.8188,8.5644
1503.9062,1.3515,6.3415,6.7931,8.6283,8.9201,4.5723,5.0319,6.5970,7.0154,4.3434,3.3770,1.4046,5.3292,8.2254,-0.2639,2.3429,4.3061,7.7701,6.9864
1507.8125,2.7024,5.1540,5.1139,8.5970,9.0739,4.9364,5.3629,7.3376,6.7391,5.2039,3.1770,-1.1204,5.5062,8.3816,-0.4652,1.9513,4.4509,7.4388,6.2263
1511.7188,3.5665,3.8687,3.9769,8.7884,9.5458,5.0496,5.9140,7.9341,6.9263,5.5116,3.7088,-3.0448,6.5196,8.7079,0.5315,2.5160,5.5949,7.4145,6.1098
1515.6250,3.2533,2.3875,3.2693,8.4663,9.4205,4.4142,5.8787,7.4037,6.8133,4.9452,4.4233,-4.6156,7.5723,8.6113,2.1562,4.0183,6.9365,7.0667,6.0635
1519.5312,1.6710,0.8062,2.6758,7.1272,8.0551,2.6201,4.6980,5.3259,5.7207,3.6682,4.7056,-6.1964,7.9101,7.7092,3.6765,6.1909,7.6542,5.8980,5.5150
1523.4375,-0.6753,-0.7409,1.7758,4.7271,5.4583,-0.3389,2.3951,2.0528,3.3774,2.0869,4.1187,-8.2400,7.1830,6.0267,4.5613,8.4296,7.3303,3.7466,4.1789
1527.3438,-3.0392,-2.3009,0.1862,1.6468,2.2605,-3.9218,-0.4582,-1.5194,0.0048,0.5200,2.5133,-11.2014,5.5004,3.9259,4.6529,9.8505,6.0739,0.7822,2.1070
1531.2500,-4.8557,-4.1344,-2.2607,-1.5119,-0.6386,-7.1974,-3.0901,-4.4238,-3.8113,-0.9445,0.0403,-15.3486,3.2551,1.8841,4.1136,9.6119,4.3662,-2.6202,-0.4255
1535.1562,-5.9529,-6.4775,-5.3707,-4.1531,-2.5014,-9.2529,-4.9479,-6.0523,-7.3442,-2.3307,-2.8858,-20.5464,0.9034,0.2901,3.2408,7.3988,2.7924,-6.0106,-3.0534
1539.0625,-6.4727,-9.2155,-8.5856,-5.8484,-3.0356,-9.6350,-5.9282,-6.3371,-9.9455,-3.5562,-5.6741,-26.1812,-1.1669,-0.6507,2.2848,3.7561,1.8139,-8.9477,-5.3973
1542.9688,-6.6410,-11.7732,-11.1866,-6.4289,-2.4418,-8.5702,-6.3117,-5.6602,-11.2186,-4.3561,-7.7283,-31.3500,-2.6802,-0.9233,1.3576,-0.0334,1.6352,-11.0672,-7.1126
1546.8750,-6.5990,-13.3821,-12.6352,-6.0246,-1.2639,-6.8248,-6.4890,-4.6014,-11.1352,-4.4528,-8.6846,-35.2699,-3.5062,-0.6834,0.4415,-2.5571,2.1494,-12.1783,-7.9723
1550.7812,-6.3988,-13.5704,-12.8560,-5.0410,-0.1415,-5.2764,-6.6792,-3.6699,-10.0628,-3.8349,-8.6050,-37.6810,-3.7179,-0.2284,-0.5402,-3.0399,2.9512,-12.3636,-7.9794
1554.6875,-6.0917,-12.5051,-12.2658,-4.0346,0.4380,-4.4418,-6.8139,-3.1244,-8.6490,-2.8857,-7.9777,-38.9813,-3.6169,0.0744,-1.6398,-1.7793,3.4475,-11.9924,-7.4176
1558.5938,-5.7671,-10.8909,-11.5006,-3.4948,0.3100,-4.2369,-6.6355,-2.9266,-7.5533,-2.1974,-7.4612,-39.9777,-3.6387,-0.0732,-2.8203,0.0640,3.0871,-11.5727,-6.7538
1562.5000,-5.4738,-9.4691,-11.0078,-3.6265,-0.3398,-4.1053,-5.9224,-2.8326,-7.1220,-2.1647,-7.4852,-41.3912,-4.1312,-0.7488,-3.9266,1.2081,1.6456,-11.4804,-6.4109
1566.4062,-5.1020,-8.4907,-10.7869,-4.2711,-1.1175,-3.4288,-4.6888,-2.5842,-7.1891,-2.6540,-7.9567,-43.4267,-5.1276,-1.7547,-4.7065,1.0404,-0.5909,-11.7295,-6.5517
1570.3125,-4.3740,-7.5859,-10.4689,-5.0465,-1.6828,-1.9595,-3.2364,-2.1152,-7.1593,-3.0232,-8.2875,-45.6876,-6.2894,-2.7376,-4.8868,-0.0695,-2.8953,-11.9575,-7.0293
1574.2188,-3.0121,-6.1528,-9.6778,-5.6295,-1.9893,-0.0018,-2.0269,-1.6511,-6.3721,-2.5250,-7.7632,-47.4849,-7.0983,-3.4297,-4.2890,-1.1301,-4.4404,-11.6748,-7.5432
1578.1250,-0.9874,-3.9677,-8.3967,-5.9845,-2.3383,1.7673,-1.4451,-1.6137,-4.5450,-0.8340,-6.0347,-48.3294,-7.1963,-3.8464,-2.9420,-1.2916,-4.7412,-10.6290,-7.8781
1582.0312,1.3453,-1.5139,-7.0396,-6.3559,-3.1761,2.7211,-1.5865,-2.3480,-2.0098,1.6696,-3.4093,-48.2743,-6.6418,-4.2777,-1.1295,-0.4672,-3.9282,-9.0281,-8.0321
1585.9375,3.3659,0.2762,-6.1489,-7.0149,-4.7395,2.6755,-2.1906,-3.8296,0.4335,4.0719,-0.7321,-47.8845,-5.8891,-5.0534,0.6688,0.6179,-2.6684,-7.4441,-8.1331
1589.8438,4.5119,0.7091,-5.9408,-7.9488,-6.7862,1.9969,-2.7700,-5.5656,1.9768,5.4503,1.0814,-47.8641,-5.4917,-6.2430,1.9387,0.9640,-1.7719,-6.4424,-8.2291
1593.7500,4.5942,-0.0764,-6.0609,-8.7550,-8.6294,1.3615,-2.8747,-6.8095,2.2847,5.4047,1.5718,-48.5999,-5.7316,-7.5228,2.3371,0.0293,-1.7290,-6.1896,-8.1541
1597.6562,3.8859,-1.1028,-5.7830,-8.8651,-9.4985,1.3229,-2.3494,-6.9969,1.6846,4.2530,0.9880,-49.9235,-6.4375,-8.3356,1.8497,-1.8603,-2.4664,-6.3280,-7.6195
1601.5625,2.9234,-1.1985,-4.5454,-7.9707,-9.0182,1.9695,-1.4299,-6.1292,0.9391,2.7875,0.1147,-51.2382,-7.1206,-8.2549,0.8213,-3.6934,-3.4577,-6.2213,-6.4873
1605.4688,2.1638,0.1442,-2.4431,-6.3438,-7.4869,2.8841,-0.6119,-4.8262,0.7580,1.7834,-0.2068,-51.9168,-7.3289,-7.3024,-0.1721,-4.4036,-4.0880,-5.4124,-5.0088
1609.3750,1.7358,2.3332,-0.2875,-4.7854,-5.7504,3.4181,-0.3587,-3.9715,1.3676,1.5880,0.4354,-51.7116,-6.9654,-5.9882,-0.5663,-3.5165,-4.0225,-3.9748,-3.8040
1613.2812,1.4348,4.0055,0.8555,-4.1886,-4.7334,3.0927,-0.8221,-4.1574,2.4044,2.0242,1.8115,-50.9280,-6.3517,-5.0329,-0.0691,-1.4033,-3.3575,-2.5080,-3.5428
1617.1875,0.9265,3.9151,0.3559,-4.9833,-4.9198,1.8719,-1.7476,-5.2923,3.1643,2.6002,3.2048,-50.2725,-6.0053,-4.9503,1.1812,0.9780,-2.5034,-1.7800,-4.5204
1621.0938,-0.0142,1.7586,-1.5434,-6.8312,-6.1041,0.1554,-2.6265,-6.6408,3.0148,2.8261,3.8080,-50.4769,-6.2976,-5.7604,2.6437,2.6380,-1.9195,-2.2614,-6.4231
1625.0000,-1.3975,-1.6365,-3.8646,-8.7834,-7.5490,-1.4743,-2.9980,-7.2771,1.7024,2.4190,3.1239,-51.9138,-7.2265,-7.0000,3.5938,3.0419,-1.8848,-3.8605,-8.4607
1628.9062,-3.0755,-4.8717,-5.5235,-9.8034,-8.4219,-2.5671,-2.7105,-6.6506,-0.5936,1.3224,1.1729,-54.3967,-8.4360,-7.9969,3.4465,2.2656,-2.4137,-6.0152,-9.7900
1632.8125,-4.8636,-6.8662,-6.0154,-9.3249,-8.2231,-2.9949,-1.9826,-4.8970,-3.4144,-0.3768,-1.5526,-57.2450,-9.4358,-8.2164,2.0390,0.8082,-3.3081,-8.0408,-9.9553
1636.7188,-6.5994,-7.4427,-5.6807,-7.5061,-6.9706,-2.9323,-1.2426,-2.7117,-6.2198,-2.4969,-4.3138,-59.5614,-9.8545,-7.4801,-0.2664,-0.7456,-4.2635,-9.4765,-9.0709
1640.6250,-8.1061,-7.2362,-5.3745,-5.0623,-5.0959,-2.6910,-0.8682,-0.9114,-8.5003,-4.7291,-6.4007,-60.5877,-9.5716,-5.9798,-2.7142,-1.9889,-4.9622,-10.2081,-7.6614
1644.5312,-9.1397,-7.0601,-5.7861,-2.8339,-3.1810,-2.5344,-0.9995,0.0041,-9.8011,-6.6019,-7.3445,-59.9901,-8.6878,-4.1434,-4.4641,-2.7670,-5.1438,-10.3374,-6.3050
1648.4375,-9.4268,-7.2388,-6.8997,-1.3790,-1.7195,-2.5741,-1.5261,0.0166,-9.7533,-7.5632,-7.0134,-57.9659,-7.4076,-2.4652,-4.9288,-3.1023,-4.6732,-9.9574,-5.3341
1652.3438,-8.8144,-7.3980,-7.9746,-0.8119,-0.9959,-2.7662,-2.2170,-0.5612,-8.1840,-7.2088,-5.5911,-55.1390,-5.9398,-1.3723,-3.9850,-3.0790,-3.6016,-9.0368,-4.7608
1656.2500,-7.4317,-6.8251,-8.0549,-0.9093,-1.0683,-2.9677,-2.8746,-1.3741,-5.2705,-5.5425,-3.4686,-52.2933,-4.4686,-1.1300,-1.9756,-2.7727,-2.1817,-7.5015,-4.4158
1660.1562,-5.7217,-5.0897,-6.6489,-1.3396,-1.7917,-3.0087,-3.4065,-2.2166,-1.6100,-3.0789,-1.1036,-50.0610,-3.1692,-1.7712,0.4689,-2.2398,-0.7941,-5.4269,-4.1490
1664.0625,-4.2781,-2.4544,-4.1174,-1.8480,-2.8636,-2.7655,-3.8012,-3.0307,1.9056,-0.6744,1.0937,-48.7074,-2.2153,-3.0685,2.6779,-1.5356,0.1989,-3.1667,-3.9418
1667.9688,-3.5682,0.2053,-1.5208,-2.3208,-3.9176,-2.2354,-4.0713,-3.7879,4.3917,0.8476,2.8062,-48.1104,-1.7506,-4.6001,4.1395,-0.7378,0.5925,-1.2936,-3.8848
1671.8750,-3.7150,1.8820,-0.0390,-2.7640,-4.6794,-1.5875,-4.2397,-4.4140,5.3014,1.0682,3.7884,-47.9307,-1.8462,-5.9263,4.5888,0.0286,0.3855,-0.3753,-4.0888
1675.7812,-4.4762,1.9700,-0.3397,-3.2601,-5.1202,-1.1387,-4.3703,-4.8334,4.6021,0.1189,3.8292,-47.8627,-2.4813,-6.8050,4.0015,0.5699,-0.2883,-0.7205,-4.6157
1679.6875,-5.4231,0.5187,-2.2669,-3.9297,-5.4845,-1.2234,-4.5838,-5.0630,2.7136,-1.4701,2.7714,-47.8031,-3.5578,-7.3073,2.5457,0.6336,-1.2728,-2.2412,-5.4627
1683.5938,-6.1894,-1.8858,-4.9897,-4.8712,-6.1221,-1.9940,-4.9984,-5.2261,0.2724,-3.1025,0.6143,-47.8315,-4.9238,-7.7320,0.5333,-0.0098,-2.4457,-4.4883,-6.5636
1687.5000,-6.6307,-4.4594,-7.4687,-6.0681,-7.1932,-3.2734,-5.6106,-5.4311,-2.1209,-4.4090,-2.3530,-48.0258,-6.3792,-8.3489,-1.6269,-1.4174,-3.6749,-6.8163,-7.7714
1691.4062,-6.8167,-6.5397,-8.9486,-7.3111,-8.4474,-4.5819,-6.2152,-5.6115,-4.0445,-5.3321,-5.5055,-48.2571,-7.6677,-9.1414,-3.4995,-3.3348,-4.7352,-8.5828,-8.8360
1695.3125,-6.9056,-7.7469,-9.2249,-8.2237,-9.2690,-5.3697,-6.4611,-5.4896,-5.2689,-5.9958,-8.0184,-48.1365,-8.4982,-9.7420,-4.7236,-5.1878,-5.2999,-9.3203,-9.4381
1699.2188,-7.0117,-8.0018,-8.6065,-8.4272,-9.0081,-5.3382,-6.0486,-4.7451,-5.7134,-6.4946,-9.1706,-47.1814,-8.6245,-9.6312,-5.1176,-6.2792,-5.0701,-8.8549,-9.3131
1703.1250,-7.1539,-7.4865,-7.6637,-7.7730,-7.4025,-4.6457,-4.9511,-3.2889,-5.4246,-6.7735,-8.6740,-45.1154,-7.9654,-8.4769,-4.7357,-6.1325,-3.9783,-7.3635,-8.4170
1707.0312,-7.2861,-6.5933,-6.9255,-6.4827,-4.8016,-3.8475,-3.4973,-1.4239,-4.5846,-6.6745,-6.8338,-42.1024,-6.6876,-6.3834,-3.8389,-4.7931,-2.3150,-5.3441,-7.0152
1710.9375,-7.3517,-5.8285,-6.6694,-5.0721,-2.0192,-3.5824,-2.2280,0.2645,-3.4926,-6.0946,-4.4210,-38.7440,-5.1739,-3.8750,-2.7887,-2.8787,-0.6508,-3.4652,-5.6020
1714.8438,-7.3069,-5.6363,-6.8678,-4.0782,0.1007,-4.1931,-1.6006,1.2419,-2.4703,-5.1195,-2.3071,-35.8160,-3.8681,-1.6269,-1.9131,-1.2972,0.4307,-2.3113,-4.6671
1718.7500,-7.1110,-6.1835,-7.2821,-3.7602,1.1209,-5.5162,-1.7273,1.3524,-1.7147,-4.0239,-1.0571,-33.8874,-3.0731,-0.1300,-1.4018,-0.7629,0.6321,-2.1201,-4.4450
1722.6562,-6.7189,-7.2340,-7.6338,-3.9753,1.1736,-6.9677,-2.3195,0.8988,-1.1945,-3.1340,-0.7027,-33.0431,-2.8226,0.4990,-1.2633,-1.3886,0.0794,-2.6567,-4.8041
1726.5625,-6.1040,-8.2278,-7.7615,-4.3103,0.7754,-7.8604,-2.8703,0.4184,-0.6805,-2.6443,-0.8070,-32.8617,-2.8990,0.4748,-1.3412,-2.6115,-0.7843,-3.3211,-5.3423
1730.4688,-5.2972,-8.5568,-7.6759,-4.3598,0.4669,-7.7526,-2.9471,0.3273,0.0889,-2.5074,-0.7557,-32.6419,-2.9759,0.1563,-1.3727,-3.5105,-1.4605,-3.4551,-5.6129
1734.3750,-4.4008,-7.8830,-7.4863,-3.9427,0.5431,-6.6343,-2.4035,0.6989,1.2098,-2.4665,-0.0920,-31.7339,-2.7849,-0.1234,-1.0762,-3.3313,-1.6266,-2.6810,-5.3273
1738.2812,-3.5517,-6.3051,-7.2513,-3.1162,1.0221,-4.8812,-1.3971,1.3200,2.5182,-2.2079,1.2821,-29.7995,-2.2073,-0.1170,-0.2582,-1.9025,-1.1994,-1.0775,-4.4271
1742.1875,-2.8528,-4.2742,-6.8717,-2.0208,1.7830,-3.0542,-0.2431,1.9321,3.6672,-1.5463,3.1087,-26.9015,-1.2671,0.3456,1.0838,0.3008,-0.2430,0.9022,-3.0322
1746.0938,-2.3236,-2.3348,-6.1320,-0.7315,2.6845,-1.6731,0.7620,2.4237,4.3238,-0.5389,4.9294,-23.4328,-0.0722,1.3272,2.7122,2.4632,1.1454,2.6989,-1.3583
1750.0000,-1.9020,-0.8683,-4.8853,0.7370,3.5416,-1.0559,1.4303,2.8031,4.3571,0.5288,6.2866,-19.9646,1.2247,2.6749,4.2057,3.8950,2.8482,3.9228,0.3214
1753.9062,-1.4864,0.0130,-3.2552,2.2821,4.0294,-1.2351,1.6720,3.0061,3.9052,1.2814,6.8852,-17.0777,2.4287,3.9344,5.1320,4.3671,4.6420,4.4775,1.6852
1757.8125,-0.9767,0.4122,-1.6703,3.5977,3.7028,-1.9346,1.4600,2.7688,3.3029,1.4460,6.6855,-15.2040,3.3118,4.4449,5.2691,4.1342,6.1404,4.5067,2.4239
1761.7188,-0.2872,0.5346,-0.6485,4.2641,2.2440,-2.6174,0.8459,1.7579,2.9366,1.0042,5.9263,-14.4857,3.6821,3.6709,4.7487,3.6798,6.8939,4.2550,2.3950
1765.6250,0.6492,0.6205,-0.4357,4.0469,-0.1805,-2.6427,0.0221,-0.0791,3.1105,0.2230,5.0673,-14.6908,3.5026,1.6152,4.0143,3.3844,6.6399,3.9682,1.7925
1769.5312,1.8495,0.9340,-0.7502,3.1888,-2.7470,-1.5355,-0.6578,-2.2241,3.9660,-0.4618,4.6369,-15.2508,2.9771,-0.9855,3.5869,3.3359,5.5348,3.8708,1.1744
1773.4375,3.2138,1.7354,-0.8558,2.4223,-4.2294,0.7309,-0.7821,-3.6671,5.4419,-0.6598,5.0034,-15.4652,2.5049,-2.9038,3.7611,3.3739,4.1597,4.1670,1.2400
1777.3438,4.4745,3.1761,0.0278,2.6031,-3.6304,3.6160,-0.0916,-3.4114,7.2586,-0.2296,6.1614,-14.8129,2.4890,-3.0440,4.4183,3.2876,3.2331,4.9857,2.4341
1781.2500,5.2390,5.1581,2.2240,4.1581,-0.8228,6.1881,1.3310,-1.1263,8.9490,0.6454,7.6681,-13.2139,3.1043,-1.0891,5.0880,3.0034,3.1874,6.2710,4.6271
1785.1562,5.1533,7.2860,5.3516,6.7314,3.2551,7.5597,3.0410,2.5122,9.9819,1.5592,8.8165,-11.0635,4.1908,2.2608,5.2344,2.6324,3.9030,7.7190,7.1234
1789.0625,4.1172,9.0122,8.5233,9.3158,7.0494,7.3523,4.4309,6.0829,9.9814,2.1154,8.9994,-8.9818,5.3698,5.6582,4.5976,2.3733,4.8092,8.8740,9.0548
1792.9688,2.4099,9.9294,10.8675,10.8327,9.2494,5.9025,5.0414,8.1742,8.9586,2.1558,8.0709,-7.4124,6.3222,7.8820,3.3769,2.3695,5.3068,9.3824,9.9270
1796.8750,0.6198,10.0206,12.0133,10.7897,9.5144,4.0643,4.7902,8.1653,7.4001,1.8475,6.4788,-6.3258,7.0307,8.5250,2.1405,2.6346,5.2226,9.2503,9.9444
1800.7812,-0.6076,9.6664,12.1954,9.5635,8.5878,2.7220,3.9719,6.5270,6.1030,1.5733,5.0540,-5.2461,7.7934,8.1429,1.5203,3.0863,4.9594,8.8937,9.8588
1804.6875,-0.8617,9.3697,11.9171,8.1047,7.7289,2.3223,3.0409,4.4527,5.7895,1.6951,4.5558,-3.6045,8.9708,7.7749,1.8804,3.6377,5.2127,8.8836,10.4120
1808.5938,-0.1264,9.3769,11.4466,7.2694,7.8532,2.7119,2.3334,3.0830,6.6976,2.3394,5.2371,-1.1954,10.6312,8.1734,3.1485,4.2559,6.4354,9.5172,11.7490
1812.5000,1.2690,9.4727,10.5500,7.2459,8.9630,3.3469,1.9112,2.8475,8.3982,3.3337,6.6905,1.5815,12.3560,9.2753,4.8820,4.9380,8.4238,10.5122,13.2208
1816.4062,2.8383,9.1155,8.6853,7.4776,10.2286,3.6798,1.6081,3.3364,9.9694,4.3188,8.0648,3.8789,13.3742,10.2661,6.4900,5.6320,10.3287,11.0749,13.7406
1820.3125,4.1196,7.8285,5.5162,7.1178,10.6144,3.4404,1.2073,3.7262,10.4471,4.9430,8.5087,4.8720,12.9696,10.1685,7.4593,6.1767,11.1017,10.3482,12.4695
1824.2188,4.7492,5.5627,1.3416,5.6730,9.5783,2.6479,0.5988,3.4043,9.2904,4.9997,7.5721,4.2387,10.9050,8.5256,7.4730,6.3227,10.0930,7.9649,9.3690
1828.1250,4.4551,2.7602,-2.9187,3.3649,7.3608,1.4319,-0.1912,2.3413,6.5988,4.4357,5.3450,2.3378,7.5835,5.7065,6.4168,5.8281,7.4158,4.3275,5.2513
1832.0312,3.0790,0.0693,-6.2106,0.9651,4.7163,-0.1216,-1.0860,0.9936,2.9855,3.2649,2.3072,-0.0178,3.8419,2.6518,4.3494,4.5742,3.8629,0.4086,1.3035
1835.9375,0.6919,-2.0722,-7.9687,-0.7490,2.3547,-1.9432,-2.0523,-0.1174,-0.7740,1.5009,-0.9597,-2.0203,0.5182,0.2768,1.5058,2.6318,0.4637,-2.8032,-1.5737
1839.8438,-2.2683,-3.6754,-8.4219,-1.4977,0.5409,-3.8231,-3.1065,-0.7873,-4.0761,-0.8066,-3.9919,-3.2439,-1.9182,-1.0263,-1.6741,0.2562,-2.0093,-4.8364,-3.1671
1843.7500,-5.0077,-5.0874,-8.3542,-1.5981,-0.8663,-5.3284,-4.2253,-1.1832,-6.6239,-3.4512,-6.4915,-3.7104,-3.4456,-1.4585,-4.5686,-2.1715,-3.2857,-5.8877,-3.8552
1847.6562,-6.6519,-6.6291,-8.4962,-1.6112,-2.0296,-5.9579,-5.2523,-1.5717,-8.3525,-5.9883,-8.2548,-3.6585,-4.2728,-1.4657,-6.5205,-4.2199,-3.5048,-6.5153,-4.1447
1851.5625,-6.7032,-8.2745,-8.9939,-1.8376,-2.7730,-5.4803,-5.9047,-1.9834,-9.2830,-7.8147,-9.1206,-3.2420,-4.5309,-1.2879,-7.0871,-5.4875,-2.9401,-7.1298,-4.2189
1855.4688,-5.4046,-9.6209,-9.3446,-2.0646,-2.5843,-4.2012,-5.9065,-2.1117,-9.4604,-8.4262,-9.0282,-2.4053,-4.1334,-0.7711,-6.2740,-5.6980,-1.7884,-7.6811,-3.8399
1859.3750,-3.7220,-10.1732,-8.8360,-1.7615,-1.0157,-2.9016,-5.1719,-1.5433,-9.0164,-7.7203,-8.1468,-1.0181,-2.9177,0.4190,-4.5995,-4.8122,-0.1726,-7.7773,-2.6548
1863.2812,-2.8718,-9.7210,-7.1584,-0.5717,1.8183,-2.4211,-3.9112,-0.1416,-8.2615,-6.1404,-6.9411,0.8720,-0.9493,2.3711,-2.9125,-3.1148,1.6993,-7.1285,-0.6473
1867.1875,-3.6378,-8.5269,-4.7353,1.2826,5.0561,-3.1434,-2.5818,1.7202,-7.6670,-4.5305,-6.0567,2.9088,1.2692,4.6449,-2.0310,-1.1973,3.4102,-5.9507,1.6305
1871.0938,-5.8999,-7.1948,-2.5336,3.0071,7.4175,-4.7524,-1.7013,3.2791,-7.6855,-3.7444,-6.0412,4.5554,2.8934,6.3824,-2.3775,0.2149,4.4048,-4.9840,3.2514
1875.0000,-8.6972,-6.3234,-1.4912,3.6775,7.8823,-6.4503,-1.6273,3.7986,-8.5018,-4.2190,-7.0519,5.4089,3.1258,6.7698,-3.8007,0.5577,4.2491,-5.0678,3.4223
1878.9062,-10.8018,-6.1959,-1.9614,2.8268,6.2941,-7.4913,-2.4124,3.0144,-9.8863,-5.7611,-8.7404,5.4715,1.6746,5.5442,-5.6741,-0.2912,2.9062,-6.5596,1.9797
1882.8125,-11.4402,-6.6955,-3.5371,0.7778,3.4937,-7.6489,-3.7919,1.3194,-11.2743,-7.6721,-10.4068,5.1736,-1.0189,3.1968,-7.2120,-1.9220,0.8234,-9.0164,-0.4543
1886.7188,-10.6978,-7.4549,-5.3378,-1.5037,0.8831,-7.2828,-5.2904,-0.4325,-12.0446,-9.1319,-11.3483,5.1228,-3.9456,0.7300,-7.8404,-3.5795,-1.2560,-11.3871,-2.7587
1890.6250,-9.3610,-8.0831,-6.5296,-2.9425,-0.3217,-6.9794,-6.3943,-1.3816,-11.8359,-9.6129,-11.2069,5.7533,-6.0120,-0.8777,-7.4406,-4.5567,-2.6558,-12.6077,-3.8740
1894.5312,-8.3331,-8.3032,-6.7324,-2.9376,0.2868,-7.0620,-6.7313,-1.1100,-10.7161,-9.0888,-10.1186,7.1102,-6.5672,-1.1644,-6.3642,-4.5792,-3.0890,-12.2095,-3.3135
1898.4375,-8.0378,-7.9567,-6.0985,-1.6445,2.1546,-7.3524,-6.2087,0.1655,-9.1138,-7.9490,-8.5963,8.8943,-5.6798,-0.3492,-5.2294,-3.9463,-2.7545,-10.5456,-1.3606
1902.3438,-8.2018,-6.9649,-5.0935,0.1837,4.1344,-7.3532,-5.0662,1.7381,-7.5726,-6.7078,-7.2308,10.6992,-4.0262,0.8921,-4.6063,-3.3341,-2.1674,-8.5098,1.1212
1906.2500,-8.1265,-5.3564,-4.1868,1.6602,5.1352,-6.6831,-3.8034,2.7941,-6.4836,-5.7120,-6.3913,12.2511,-2.4826,1.8592,-4.7394,-3.3725,-1.8433,-6.9652,3.1291
1910.1562,-7.2231,-3.3693,-3.6559,2.2367,4.6839,-5.4070,-2.9799,2.8203,-5.9393,-5.0170,-6.0872,13.4883,-1.6668,2.1894,-5.4345,-4.2561,-2.0264,-6.2733,3.9741
1914.0625,-5.4334,-1.5105,-3.5641,1.9154,3.1190,-4.0028,-2.9538,1.8336,-5.7609,-4.4727,-6.0410,14.4700,-1.6791,1.9590,-6.1621,-5.6312,-2.5990,-6.2115,3.5387
1917.9688,-3.2783,-0.4353,-3.8410,1.1245,1.3518,-3.0104,-3.6856,0.3315,-5.6437,-3.9212,-5.9002,15.2367,-2.1514,1.5218,-6.3328,-6.8230,-3.1920,-6.2748,2.2498
1921.8750,-1.5441,-0.6349,-4.3541,0.3818,0.3591,-2.6566,-4.7366,-0.9948,-5.3202,-3.3528,-5.4495,15.7671,-2.5348,1.2378,-5.6145,-7.2475,-3.4061,-6.0991,0.8142
1925.7812,-0.8426,-2.0960,-4.9328,-0.0266,0.6792,-2.7500,-5.4923,-1.6316,-4.6602,-2.9162,-4.7032,16.0700,-2.4384,1.2709,-4.1243,-6.7376,-3.0153,-5.6887,-0.1420
1929.6875,-1.3126,-4.1702,-5.3766,-0.1634,2.1594,-2.8988,-5.5037,-1.5038,-3.6828,-2.7889,-3.8412,16.3188,-1.8306,1.5520,-2.3782,-5.5772,-2.0610,-5.3122,-0.3564
1933.5938,-2.5909,-5.7960,-5.4976,-0.3123,4.0614,-2.8372,-4.7435,-0.9831,-2.5039,-3.0037,-3.0452,16.8833,-1.0162,1.8807,-1.0056,-4.2408,-0.8127,-5.1832,-0.0088
1937.5000,-4.0046,-5.9886,-5.1867,-0.7066,5.4582,-2.5717,-3.6057,-0.6327,-1.2593,-3.3513,-2.3453,18.1906,-0.4292,2.0647,-0.3775,-3.0346,0.3633,-5.1950,0.4396
1941.4062,-4.8432,-4.3316,-4.4483,-1.2978,5.7130,-2.2394,-2.6342,-0.8256,-0.0403,-3.4309,-1.5801,20.4820,-0.3724,2.0106,-0.3716,-1.8972,1.1603,-4.9217,0.5550
1945.3125,-4.5956,-1.1860,-3.3639,-1.7135,4.7950,-1.8377,-2.1492,-1.4648,1.1352,-2.8335,-0.5051,23.6246,-0.8497,1.7322,-0.4368,-0.5049,1.4433,-3.8911,0.2133
1949.2188,-3.1088,2.4962,-2.0140,-1.4433,3.2654,-1.1056,-2.0203,-1.9896,2.3026,-1.3709,1.0065,27.1098,-1.5726,1.3028,0.0507,1.3913,1.2738,-1.9376,-0.3195
1953.1250,-0.6593,5.6271,-0.4416,-0.1545,1.9428,0.2944,-1.7463,-1.6934,3.4865,0.7638,2.7903,30.2527,-2.1302,0.7970,1.3461,3.6318,0.8419,0.6137,-0.5696
1957.0312,2.0898,7.4381,1.2880,2.0461,1.4332,2.4187,-0.8027,-0.1793,4.6257,2.9999,4.3695,32.4795,-2.2236,0.2517,3.0919,5.5684,0.3433,3.0623,-0.1978
1960.9375,4.2800,7.7018,2.9769,4.5708,1.7942,4.8178,0.9681,2.3236,5.5383,4.5829,5.1339,33.5485,-1.8331,-0.3425,4.4575,6.3295,-0.1270,4.6798,0.7195
1964.8438,5.1837,6.6636,4.2521,6.5810,2.5305,6.6708,3.1809,4.9960,5.9676,4.8969,4.6525,33.6049,-1.2235,-1.0245,4.6110,5.3004,-0.6005,5.0806,1.6744
1968.7500,4.5417,4.8011,4.6866,7.3816,2.9191,7.2325,5.0684,6.8158,5.7071,3.7784,2.9564,33.0727,-0.7791,-1.8262,3.2491,2.5412,-1.1569,4.4026,2.0180
1972.6562,2.7260,2.5984,4.0515,6.7633,2.4621,6.2840,5.8826,7.0776,4.7431,1.6563,0.6166,32.4659,-0.7645,-2.7314,0.8480,-1.1191,-1.7952,3.2122,1.3895
1976.5625,0.5937,0.4515,2.5336,5.0969,1.1827,4.2627,5.2938,5.7379,3.3244,-0.5836,-1.4609,32.2100,-1.1511,-3.6476,-1.5433,-4.3968,-2.3509,2.2063,0.0048
1980.4688,-0.9291,-1.3132,0.7370,3.1216,-0.4118,1.9792,3.5554,3.3937,1.8987,-1.9849,-2.4444,32.5272,-1.6207,-4.4142,-2.8641,-6.1338,-2.5413,1.8872,-1.4046
1984.3750,-1.3146,-2.4082,-0.5864,1.5528,-1.6573,0.1376,1.3534,0.9322,0.9308,-1.9832,-1.9838,33.3967,-1.7523,-4.8503,-2.6289,-5.8430,-2.1373,2.3732,-1.9905
1988.2812,-0.6783,-2.6302,-0.9364,0.7462,-2.1202,-0.9954,-0.5456,-0.9132,0.6923,-0.7029,-0.3926,34.5809,-1.2825,-4.8210,-1.1857,-3.9305,-1.1584,3.4146,-1.2884
1992.1875,0.3393,-1.9797,-0.3438,0.6102,-1.7882,-1.5663,-1.6393,-1.8360,1.1391,1.0941,1.5041,35.7115,-0.2746,-4.2836,0.5003,-1.4741,0.0528,4.5697,0.4956
1996.0938,0.9711,-0.7621,0.6565,0.7915,-0.9662,-1.8404,-1.8509,-1.9388,1.9421,2.4025,2.7804,36.4190,0.9135,-3.2871,1.3991,0.3288,0.9625,5.4272,2.5932
2000.0000,0.7441,0.4372,1.3466,0.9797,0.0088,-1.9190,-1.4596,-1.5091,2.6517,2.5051,2.8592,36.4714,1.8475,-1.9333,0.9635,0.7523,1.1371,5.7611,4.1090
2003.9062,-0.3240,0.9443,1.2357,1.1096,0.9938,-1.7044,-0.8852,-0.7886,2.9020,1.3416,1.7618,35.8624,2.2819,-0.3406,-0.6395,-0.1372,0.5230,5.5677,4.5085
2007.8125,-1.8288,0.2915,0.3075,1.3293,2.0390,-1.1076,-0.4636,0.1081,2.5515,-0.4994,0.0384,34.8038,2.2947,1.3522,-2.7119,-1.5939,-0.4720,4.9973,3.8617
2011.7188,-3.2627,-1.5265,-1.0242,1.7868,3.1810,-0.2735,-0.3224,1.1160,1.7023,-2.1528,-1.5587,33.6189,2.2031,2.9465,-4.4636,-2.6630,-1.1750,4.2456,2.7154
2015.6250,-4.2664,-3.9789,-2.1842,2.4216,4.2289,0.4137,-0.3839,2.1042,0.6140,-2.9797,-2.4634,32.5956,2.3144,4.1600,-5.4161,-2.7369,-1.0220,3.4672,1.7058
2019.5312,-4.7146,-6.1734,-2.7368,2.9375,4.7512,0.5814,-0.4588,2.8555,-0.4261,-2.8902,-2.5342,31.8765,2.6858,4.6764,-5.5456,-1.8795,0.1101,2.7435,1.1738
2023.4375,-4.6510,-7.2270,-2.5477,2.9865,4.3142,0.1724,-0.3672,3.1691,-1.2113,-2.3044,-2.0378,31.4410,3.0610,4.2796,-5.1341,-0.7389,1.8223,2.0946,1.0144
2027.3438,-4.1902,-6.6722,-1.7646,2.4245,2.8136,-0.4656,-0.0314,2.9961,-1.6656,-1.8066,-1.4268,31.1662,3.0317,3.0040,-4.4848,-0.1096,3.4178,1.5028,0.8179
2031.2500,-3.4808,-4.7010,-0.6949,1.4374,0.6454,-0.8054,0.4915,2.4820,-1.8375,-1.7479,-1.0642,30.9150,2.3189,1.1940,-3.7126,-0.4154,4.2941,0.9207,0.1715
2035.1562,-2.7209,-2.1104,0.3127,0.4317,-1.4409,-0.5152,1.0420,1.8665,-1.8579,-2.0641,-1.0546,30.5903,0.9800,-0.6034,-2.7339,-1.4316,4.2641,0.2629,-1.0887
2039.0625,-2.1428,0.0482,0.9415,-0.2399,-2.7351,0.3132,1.4426,1.3143,-1.8853,-2.4098,-1.2575,30.1413,-0.5990,-1.8797,-1.4252,-2.4175,3.6151,-0.5923,-2.8169
2042.9688,-1.9119,0.9581,0.9593,-0.5177,-2.9552,1.2686,1.5929,0.8101,-2.0550,-2.4829,-1.4427,29.5452,-1.9240,-2.4109,0.1878,-2.5784,2.8869,-1.7687,-4.6845
2046.8750,-1.9908,0.4158,0.2885,-0.6615,-2.3722,1.9696,1.5285,0.2048,-2.4466,-2.2872,-1.4767,28.7952,-2.6779,-2.3520,1.8457,-1.5713,2.5230,-3.3235,-6.3712
2050.7812,-2.0954,-1.1036,-0.9242,-1.0427,-1.5933,2.3691,1.4061,-0.6207,-3.0762,-2.1418,-1.4243,27.9054,-2.8813,-2.1138,3.1290,0.2628,2.6178,-5.1777,-7.6859
2054.6875,-1.8333,-2.7323,-2.3087,-1.8483,-1.1576,2.7574,1.4172,-1.6032,-3.9089,-2.4382,-1.5134,26.9126,-2.8270,-2.0920,3.6367,2.0858,2.9037,-7.0882,-8.5632
2058.5938,-0.9712,-3.6839,-3.3899,-2.9090,-1.2214,3.4557,1.6766,-2.4792,-4.8739,-3.3270,-1.9872,25.8614,-2.8449,-2.4218,3.1731,3.0563,2.9623,-8.6920,-8.9810
2062.5000,0.3502,-3.6394,-3.7883,-3.7751,-1.5331,4.4595,2.1537,-2.9251,-5.8607,-4.5587,-2.9285,24.7850,-3.0618,-2.9167,1.8540,2.8254,2.5089,-9.6088,-8.8964
2066.4062,1.6373,-2.8250,-3.3837,-3.9908,-1.6866,5.3451,2.6933,-2.7626,-6.6933,-5.5800,-4.1488,23.7125,-3.3220,-3.2290,0.0986,1.7345,1.5748,-9.5605,-8.2590
2070.3125,2.3340,-1.7572,-2.3350,-3.3843,-1.4548,5.5536,3.1135,-2.0901,-7.1097,-5.8126,-5.2027,22.7163,-3.3147,-3.1202,-1.4851,0.6012,0.4907,-8.4569,-7.0912
2074.2188,2.2091,-0.8442,-0.9447,-2.1906,-0.9644,4.8553,3.3182,-1.2548,-6.7917,-4.9289,-5.5322,21.9612,-2.8167,-2.6563,-2.2879,0.2307,-0.2953,-6.4220,-5.5606
2078.1250,1.5704,-0.1247,0.5214,-0.9363,-0.6056,3.6331,3.3518,-0.6844,-5.4737,-2.9742,-4.6915,21.6863,-1.8820,-2.1932,-1.9103,0.9529,-0.4486,-3.7646,-3.9776
2082.0312,1.1294,0.6813,1.9199,-0.1666,-0.7577,2.7323,3.3592,-0.6813,-3.1025,-0.3077,-2.5615,22.0808,-0.8513,-2.1609,-0.3320,2.4520,0.0939,-0.9119,-2.6976
2085.9375,1.5679,1.8590,3.1687,-0.1758,-1.5294,2.9383,3.4821,-1.2857,0.0382,2.5493,0.5385,23.0998,-0.1762,-2.7827,2.0363,3.9685,1.1021,1.6807,-1.9769
2089.8438,3.0780,3.3654,4.1260,-0.8794,-2.6757,4.4258,3.7619,-2.2622,3.3381,5.0531,3.9072,24.3522,-0.1681,-3.9069,4.4687,4.7296,2.1543,3.6383,-1.8570
2093.7500,5.1765,4.7388,4.5592,-1.8699,-3.7198,6.5636,4.1135,-3.1929,6.0511,6.7311,6.6894,25.1826,-0.8237,-5.0517,6.1926,4.3464,2.8056,4.7800,-2.1418
2097.6562,6.9344,5.3428,4.2810,-2.6067,-4.1786,8.2262,4.3825,-3.6292,7.6041,7.2657,8.1995,24.9647,-1.8235,-5.6342,6.7085,2.9651,2.7594,5.1973,-2.4775
2101.5625,7.4904,4.7914,3.3687,-2.6426,-3.7518,8.4249,4.4439,-3.2513,7.8718,6.6060,8.2103,23.4594,-2.6932,-5.2513,6.0071,1.1249,1.9867,5.2414,-2.4991
2105.4688,6.5383,3.2562,2.2691,-1.8019,-2.3998,6.8670,4.2725,-1.9994,7.2529,5.0669,7.0637,21.0138,-3.0301,-3.8656,4.5630,-0.5521,0.7530,5.3825,-1.9810
2109.3750,4.4930,1.4256,1.6355,-0.2555,-0.3235,4.1071,3.9388,-0.1370,6.4765,3.3093,5.5281,18.4353,-2.6748,-1.8138,3.0944,-1.6410,-0.4664,5.9757,-0.9287
2113.2812,2.2441,0.1173,1.9432,1.5277,2.0985,1.2235,3.5385,1.7962,6.2198,2.1209,4.4418,16.5770,-1.7500,0.3464,2.2081,-2.0247,-1.1666,7.0388,0.4203
2117.1875,0.6580,-0.2120,3.1211,2.9447,4.3827,-0.7636,3.1081,3.1594,6.7370,2.0514,4.3026,15.8609,-0.5693,2.0678,2.1203,-1.8216,-1.0273,8.1796,1.6879
2121.0938,0.1314,0.2649,4.4843,3.4905,6.0398,-1.3884,2.5885,3.4745,7.7169,3.0967,5.0165,16.0324,0.5244,3.0176,2.5996,-1.2285,-0.0600,8.7479,2.5050
2125.0000,0.4475,0.8798,5.0731,2.9710,6.7152,-0.8967,1.8690,2.6640,8.4621,4.6567,5.9566,16.3064,1.3043,3.1780,3.1532,-0.4030,1.3930,8.1651,2.6607
2128.9062,0.9889,0.9212,4.2241,1.5947,6.3407,-0.0287,0.8878,1.1268,8.3033,5.8460,6.3259,15.8261,1.7280,2.8117,3.3339,0.5531,2.8222,6.2619,2.1900
2132.8125,1.1472,0.1050,2.0148,-0.1163,5.2076,0.4092,-0.2760,-0.4198,7.0146,6.0036,5.6352,14.1565,1.9049,2.3159,2.9877,1.5341,3.7970,3.4301,1.3553
2136.7188,0.6692,-1.2469,-0.7245,-1.5667,3.8766,-0.0585,-1.3883,-1.2792,4.9833,5.0862,4.0240,11.5188,1.9943,2.0253,2.3073,2.3789,4.1585,0.4810,0.5223
2140.6250,-0.2577,-2.4350,-2.8614,-2.3580,2.9284,-1.3955,-2.1517,-1.1204,3.0224,3.6802,2.2167,8.6385,2.0905,2.0548,1.6796,2.8941,4.0514,-1.7289,-0.0182
2144.5312,-1.1971,-2.8609,-3.6022,-2.4419,2.6754,-3.1423,-2.3629,-0.1339,1.9250,2.6076,1.1177,6.3205,2.1618,2.2593,1.4384,2.9531,3.7850,-2.7036,-0.1936
2148.4375,-1.7820,-2.4325,-2.9217,-2.0733,3.0111,-4.6953,-2.0453,1.0948,2.0167,2.3812,1.2719,5.0231,2.0787,2.3375,1.6738,2.6035,3.6221,-2.5230,-0.1788
2152.3438,-1.9355,-1.6257,-1.5189,-1.6038,3.5053,-5.6206,-1.4613,1.9238,2.9747,2.8774,2.5209,4.6750,1.7235,2.0326,2.2058,2.0968,3.6350,-1.7488,-0.2795
2156.2500,-1.8585,-1.1560,-0.3488,-1.2551,3.6982,-5.8427,-0.9728,2.0062,4.0258,3.4494,4.0808,4.8112,1.1169,1.3153,2.7197,1.7966,3.7153,-1.0836,-0.7218
2160.1562,-1.8106,-1.4801,-0.0433,-1.0124,3.4062,-5.6180,-0.8152,1.4504,4.4082,3.3989,5.0075,4.9038,0.4823,0.4401,2.9698,2.0010,3.7143,-0.9812,-1.4621
2164.0625,-1.8601,-2.4555,-0.5847,-0.6932,2.8345,-5.3181,-0.9255,0.7084,3.8186,2.4742,4.7656,4.6627,0.1885,-0.1722,2.9229,2.7745,3.5982,-1.4249,-2.1373
2167.9688,-1.8036,-3.3934,-1.4041,-0.1210,2.4202,-5.1603,-0.9533,0.2771,2.5690,1.0415,3.5382,4.1357,0.5833,-0.1604,2.7564,3.8923,3.5001,-1.9870,-2.2115
2171.8750,-1.3361,-3.4798,-1.7931,0.7267,2.5130,-5.0640,-0.4818,0.4045,1.3643,-0.1831,2.0785,3.5785,1.7961,0.5754,2.7193,4.9400,3.6297,-2.1174,-1.2636
2175.7812,-0.3651,-2.3037,-1.3361,1.6976,3.1191,-4.7394,0.6591,0.9750,0.8460,-0.6413,1.2026,3.2131,3.6218,1.8185,2.9444,5.5228,4.1074,-1.4882,0.7357
2179.6875,0.7679,-0.1523,-0.0977,2.5694,3.8900,-3.9571,2.1952,1.6257,1.2020,-0.3091,1.2676,3.0391,5.5629,3.1560,3.3347,5.4710,4.8445,-0.1986,3.3236
2183.5938,1.3638,2.1255,1.5046,3.1941,4.3638,-2.8032,3.4885,2.0025,2.0930,0.3261,1.9822,2.8143,7.0214,4.1921,3.6022,4.9246,5.5558,1.2670,5.7067
2187.5000,0.7570,3.6109,2.9983,3.5755,4.2915,-1.7045,3.8892,1.9869,2.9344,0.6618,2.6705,2.2024,7.5492,4.7226,3.4475,4.2472,5.8993,2.2968,7.1198
2191.4062,-1.1957,3.8630,4.0974,3.8365,3.8114,-1.1563,3.1607,1.7582,3.3306,0.4525,2.7890,0.9889,7.0285,4.7765,2.7711,3.8135,5.6543,2.4789,7.1947
2195.3125,-3.8568,3.1772,4.7438,4.1137,3.3486,-1.3143,1.6953,1.6614,3.3551,0.0054,2.3226,-0.7693,5.6951,4.5262,1.7772,3.7927,4.8298,1.8190,6.1265
2199.2188,-6.0061,2.3881,4.9741,4.4587,3.3015,-1.7540,0.3459,1.9691,3.4730,-0.0447,1.7756,-2.7550,4.0036,4.1541,0.8851,4.0511,3.6496,0.7303,4.5345
2203.1250,-6.4455,2.3335,4.7611,4.8039,3.7359,-1.6331,-0.0599,2.6830,4.1564,0.7774,1.7653,-4.5573,2.4172,3.7666,0.4819,4.2299,2.4396,-0.2016,3.0945
2207.0312,-4.6860,3.3106,3.9770,4.9965,4.2995,-0.2207,0.7670,3.4917,5.4577,2.3868,2.5173,-5.9059,1.2350,3.3941,0.6653,3.9530,1.4913,-0.5543,2.1630
2210.9375,-1.3030,4.8599,2.5092,4.8603,4.4236,2.5277,2.3716,3.9129,6.8469,4.1061,3.6314,-6.8351,0.5306,3.0365,1.1482,3.0445,0.9715,-0.3230,1.6227
2214.8438,2.2775,6.0097,0.4312,4.2493,3.6837,5.7599,3.8079,3.5432,7.4454,5.0256,4.2925,-7.6758,0.2046,2.6923,1.4090,1.6336,0.9005,0.0520,1.0378
2218.7500,4.4643,5.8288,-1.9185,3.0834,2.0833,8.0905,4.2028,2.2816,6.5193,4.5119,3.7827,-8.8668,0.0891,2.3412,1.0073,0.0933,1.1793,-0.0884,0.0088
2222.6562,4.2761,3.9514,-4.0296,1.3801,0.0782,8.3640,3.2725,0.4041,3.9211,2.5390,1.9389,-10.6840,0.0321,1.9097,-0.1318,-1.1435,1.6314,-1.2546,-1.5147
2226.5625,1.7762,0.7706,-5.4439,-0.7118,-1.6728,6.3524,1.4576,-1.5549,0.2038,-0.3401,-0.7492,-13.0440,-0.0755,1.2784,-1.6577,-1.7800,2.0454,-3.4961,-3.1748
2230.4688,-2.0470,-2.7863,-5.9722,-2.8981,-2.6694,2.9241,-0.4035,-3.0537,-3.6514,-3.3125,-3.4455,-15.5032,-0.3143,0.3552,-3.0046,-1.7583,2.2233,-6.3167,-4.4321
2234.3750,-5.8369,-5.7328,-5.7697,-4.7769,-2.8151,-0.4434,-1.6319,-3.7889,-6.7065,-5.6781,-5.4410,-17.4600,-0.7445,-0.8230,-3.7339,-1.2275,2.0405,-8.8704,-4.9131
2238.2812,-8.5138,-7.4559,-5.2273,-5.9379,-2.4045,-2.5093,-2.1166,-3.8012,-8.4475,-7.0549,-6.4665,-18.4458,-1.3766,-2.0359,-3.7735,-0.4210,1.5042,-10.3345,-4.6315
2242.1875,-9.6627,-7.8848,-4.7534,-6.0923,-1.8765,-2.9343,-2.3068,-3.3833,-8.8793,-7.3680,-6.6729,-18.3356,-2.1180,-2.9288,-3.3941,0.4658,0.7773,-10.2667,-3.9309
2246.0938,-9.5275,-7.3709,-4.5808,-5.1738,-1.5044,-2.3536,-2.8189,-2.8541,-8.3526,-6.7388,-6.3677,-17.3666,-2.7452,-3.1565,-2.9571,1.3210,0.1370,-8.7680,-3.2013
2250.0000,-8.7221,-6.4340,-4.7056,-3.3634,-1.2250,-1.8486,-3.9527,-2.3433,-7.3045,-5.4246,-5.7662,-15.9825,-2.9567,-2.5448,-2.6395,2.0728,-0.1324,-6.3940,-2.5900
2253.9062,-7.8903,-5.5563,-4.9665,-1.0301,-0.7083,-2.2006,-5.4604,-1.7259,-6.1029,-3.8493,-4.9596,-14.6254,-2.5090,-1.1865,-2.3598,2.6134,0.1285,-3.8911,-1.9265
2257.8125,-7.4949,-5.1090,-5.1855,1.3785,0.3856,-3.4304,-6.7160,-0.7449,-5.0490,-2.6200,-4.0810,-13.6108,-1.3788,0.5800,-1.9629,2.7664,0.8623,-1.9106,-0.9198
2261.7188,-7.7627,-5.3473,-5.2648,3.4518,2.1367,-4.8969,-7.1408,0.7658,-4.4378,-2.3930,-3.4621,-13.1335,0.1530,2.2917,-1.5050,2.3451,1.7974,-0.8253,0.5286
2265.6250,-8.7054,-6.3672,-5.1865,4.9110,4.2582,-5.8276,-6.5692,2.7176,-4.5366,-3.5684,-3.5656,-13.3330,1.5699,3.5278,-1.3731,1.2751,2.5566,-0.6873,2.1456
2269.5312,-10.1379,-7.9944,-4.9502,5.6715,6.2215,-5.8738,-5.3089,4.7789,-5.4369,-5.9772,-4.6790,-14.3066,2.3404,4.0592,-2.0858,-0.2960,2.8311,-1.2833,3.3969
2273.4375,-11.6958,-9.7040,-4.5290,5.8577,7.5330,-5.3036,-3.8846,6.5502,-6.8871,-8.8076,-6.5842,-16.0230,2.1873,3.9345,-3.8742,-1.9881,2.5375,-2.2299,3.8207
2277.3438,-12.9140,-10.7206,-3.9056,5.7461,7.9829,-4.7381,-2.6915,7.7693,-8.2817,-10.9084,-8.4972,-18.2051,1.2517,3.4679,-6.3464,-3.3055,1.8748,-3.0817,3.3434
2281.2500,-13.3895,-10.3453,-3.1698,5.6213,7.7065,-4.6645,-1.8239,8.3885,-8.8938,-11.3585,-9.4027,-20.3249,0.0366,3.1138,-8.5300,-3.8369,1.2371,-3.4638,2.3285
2285.1562,-12.9652,-8.3707,-2.5850,5.5844,7.0177,-5.0920,-1.1837,8.4666,-8.2569,-9.9766,-8.6245,-21.7896,-0.8670,3.2449,-9.3402,-3.4346,1.0058,-3.2241,1.3071
2289.0625,-11.8043,-5.3182,-2.5343,5.4172,6.1263,-5.5796,-0.7396,7.9703,-6.4634,-7.4338,-6.2680,-22.2545,-1.1297,3.9120,-8.2102,-2.2781,1.3190,-2.5460,0.5709
2292.9688,-10.2791,-2.2860,-3.3322,4.6227,4.9361,-5.5766,-0.6870,6.6684,-4.1637,-4.8630,-3.2231,-21.8630,-0.9036,4.7115,-5.4708,-0.7864,1.9443,-1.9280,-0.0688
2296.8750,-8.7250,-0.4273,-4.9959,2.6837,3.0800,-4.8032,-1.3475,4.2490,-2.2303,-3.1841,-0.6925,-21.2195,-0.7605,4.8851,-2.2054,0.5716,2.3506,-1.9714,-1.1634
2300.7812,-7.2252,-0.3308,-7.1257,-0.5625,0.1976,-3.4043,-2.8689,0.6216,-1.2699,-2.5629,0.4777,-21.0616,-1.3559,3.6684,0.3559,1.4703,1.9746,-3.0391,-3.2054
2304.6875,-5.5841,-1.6715,-9.0005,-4.6559,-3.7025,-1.8021,-4.9662,-3.7990,-1.2718,-2.3490,0.2579,-21.8026,-2.9983,0.7484,1.5277,1.8293,0.5592,-4.9633,-6.1837
2308.5938,-3.5142,-3.3562,-9.8664,-8.5619,-8.0361,-0.3964,-6.9370,-8.0653,-1.6043,-1.5307,-0.5835,-23.2315,-5.3809,-3.4230,1.5117,1.7888,-1.6245,-7.0031,-9.4290
2312.5000,-0.9007,-4.0888,-9.2766,-11.0794,-11.7631,0.6555,-7.9914,-11.0164,-1.3592,0.5903,-0.9403,-24.5737,-7.6538,-7.6887,1.1879,1.5944,-3.8239,-8.1329,-11.8766
2316.4062,2.0539,-3.0266,-7.2989,-11.4158,-13.8137,1.4455,-7.6953,-11.8071,0.1616,3.9411,0.0254,-24.8969,-8.8240,-10.6540,1.5131,1.4677,-5.1322,-7.5402,-12.6010
2320.3125,4.9095,-0.1601,-4.4812,-9.6000,-13.6105,2.1534,-6.2331,-10.3436,3.0878,7.7185,2.4809,-23.6239,-8.2697,-11.3472,2.9254,1.5289,-4.9423,-5.0603,-11.2979
2324.2188,7.2291,3.7662,-1.6007,-6.4668,-11.3873,2.8800,-4.3012,-7.3489,6.9289,10.8764,5.9074,-20.8520,-6.0783,-9.7117,5.1196,1.7942,-3.2778,-1.2878,-8.4293
2328.1250,8.7980,7.6846,0.6651,-3.2013,-8.1035,3.6072,-2.6953,-3.9981,10.8206,12.7231,9.4131,-17.3017,-3.0138,-6.6338,7.2889,2.2202,-0.8019,2.7102,-4.9589
2332.0312,9.6672,10.7006,1.9851,-0.7094,-4.9774,4.2824,-1.8566,-1.3275,13.9095,13.2401,12.1517,-13.9490,-0.1270,-3.4761,8.6312,2.7545,1.5155,5.9155,-1.8533
2335.9375,10.0165,12.3865,2.4466,0.8010,-2.8855,4.9143,-1.6635,0.2363,15.6752,12.9503,13.6315,-11.5686,1.7683,-1.3808,8.7841,3.3614,2.8947,7.8082,0.3603
2339.8438,9.9706,12.7812,2.4559,1.7816,-1.9648,5.5625,-1.5818,0.9578,16.0620,12.4712,13.8171,-10.4373,2.4636,-0.7422,7.9517,4.0214,3.1269,8.4956,1.7533
2343.7500,9.5302,12.2009,2.5369,2.8985,-1.6413,6.2169,-1.0544,1.4654,15.4032,12.0861,13.0530,-10.3192,2.3797,-1.1349,6.7106,4.7191,2.6277,8.4838,2.8335
2347.6562,8.6635,11.0313,3.1089,4.4949,-1.0618,6.6764,0.1319,2.2475,14.2139,11.6192,11.8907,-10.6821,2.2604,-1.6934,5.6713,5.4304,2.1492,8.2765,4.1949
2351.5625,7.4567,9.6066,4.3024,6.3222,0.3341,6.5655,1.7221,3.3034,12.9590,10.6626,10.8825,-10.9931,2.7336,-1.6725,5.2022,6.1092,2.3346,8.0736,6.1803
2355.4688,6.1664,8.1657,5.8577,7.7035,2.4439,5.5297,3.1563,4.1610,11.8837,8.9579,10.3799,-10.9450,3.9900,-0.8364,5.3256,6.6717,3.3775,7.7402,8.7060
2359.3750,5.0975,6.8169,7.1549,7.9905,4.5530,3.5007,3.8859,4.2236,10.9565,6.6438,10.3842,-10.5455,5.7308,0.5215,5.7733,6.9864,4.9653,7.0142,11.2891
2363.2812,4.3874,5.4902,7.4061,6.9888,5.7667,0.8445,3.6399,3.2017,9.9341,4.2067,10.5174,-10.0771,7.3715,1.8695,6.1243,6.8891,6.4996,5.7675,13.2290
2367.1875,3.8696,3.9310,5.9830,5.0657,5.5520,-1.7418,2.5061,1.3406,8.5139,2.1881,10.1693,-9.9710,8.3452,2.7934,5.9625,6.2340,7.4267,4.1217,13.8579
2371.0938,3.1425,1.8105,2.7578,2.8899,4.0552,-3.5598,0.8249,-0.6964,6.5071,0.8674,8.7896,-10.6393,8.3283,3.1742,5.0269,4.9652,7.4739,2.3558,12.7719
2375.0000,1.8119,-1.0521,-1.7260,1.0060,2.0048,-4.2844,-1.0018,-2.2058,3.9477,0.1297,6.1886,-12.3075,7.2910,3.1148,3.3208,3.1670,6.6794,0.7008,9.9734
2378.9062,-0.2604,-4.4770,-6.3974,-0.4609,0.2677,-4.1567,-2.6709,-2.8363,1.0768,-0.4206,2.6633,-14.9049,5.3968,2.7286,1.1316,1.0508,5.2528,-0.8118,5.8727
2382.8125,-2.8763,-7.8915,-10.1015,-1.7882,-0.6606,-3.8663,-4.0453,-2.7554,-1.7925,-1.2082,-1.1529,-18.0674,2.8578,1.9902,-1.0890,-1.1227,3.4001,-2.3374,1.1398
2386.7188,-5.6391,-10.5575,-12.1411,-3.3750,-0.9147,-4.1776,-5.1354,-2.5004,-4.4536,-2.4773,-4.6455,-21.2747,-0.1510,0.7666,-2.9562,-3.1443,1.2385,-4.0717,-3.5408
2390.6250,-8.1958,-11.9650,-12.6147,-5.4122,-1.1128,-5.5049,-6.0365,-2.6214,-6.9169,-4.2380,-7.5606,-24.0682,-3.4833,-1.0065,-4.3752,-4.9135,-1.1645,-6.0920,-7.7026
2394.5312,-10.4039,-12.1536,-12.3358,-7.7284,-1.9057,-7.6740,-6.8562,-3.3406,-9.3741,-6.3543,-10.1044,-26.2355,-6.9602,-3.1533,-5.5989,-6.4177,-3.6920,-8.3050,-11.1944
2398.4375,-12.3195,-11.7362,-12.3500,-9.8813,-3.5087,-10.0030,-7.6521,-4.4250,-12.0273,-8.6683,-12.7229,-27.8486,-10.3295,-5.2374,-7.0469,-7.6604,-6.1180,-10.5184,-14.0919
2402.3438,-14.0490,-11.5741,-13.3112,-11.3965,-5.5091,-11.6583,-8.3896,-5.3336,-14.8824,-11.0596,-15.7002,-29.1302,-13.2884,-6.7203,-8.9761,-8.6054,-8.1465,-12.5503,-16.4779
2406.2500,-15.6046,-12.2724,-15.0732,-11.9736,-7.0650,-12.0964,-8.9396,-5.5345,-17.6330,-13.4191,-18.8451,-30.2299,-15.5571,-7.2019,-11.2213,-9.1935,-9.5236,-14.2693,-18.2369
2410.1562,-16.8754,-13.7971,-16.7331,-11.5428,-7.3654,-11.3520,-9.1299,-4.8006,-19.7177,-15.5902,-21.4827,-31.0612,-16.9461,-6.5934,-13.2025,-9.4168,-10.1443,-15.5294,-19.0039
2414.0625,-17.7100,-15.4502,-17.1020,-10.1884,-6.0701,-10.0171,-8.8342,-3.3235,-20.5295,-17.3473,-22.7712,-31.3065,-17.3659,-5.1231,-14.2215,-9.3789,-10.0804,-16.0726,-18.3136
2417.9688,-18.0082,-16.2328,-15.3410,-8.0513,-3.4720,-8.9143,-8.0536,-1.5960,-19.6774,-18.4364,-22.1521,-30.5877,-16.7762,-3.1905,-13.8659,-9.2639,-9.5126,-15.5230,-15.8637
2421.8750,-17.7269,-15.3958,-11.4251,-5.3072,-0.3111,-8.6318,-6.9327,-0.1532,-17.1746,-18.6489,-19.6616,-28.6871,-15.1253,-1.1698,-12.2520,-9.2110,-8.6126,-13.5384,-11.7354
2425.7812,-16.8111,-12.8757,-6.2135,-2.2284,2.6186,-9.1690,-5.6939,0.6764,-13.4710,-17.8859,-15.9311,-25.6815,-12.3474,0.7183,-9.9490,-9.1806,-7.4530,-10.0643,-6.4437
2429.6875,-15.1553,-9.3793,-1.1217,0.7611,4.8149,-9.8997,-4.5283,0.8761,-9.3265,-16.1921,-11.8971,-21.9149,-8.4504,2.4089,-7.6497,-8.9281,-5.9995,-5.5269,-0.7959
2433.5938,-12.6919,-6.0750,2.4288,3.1315,6.1744,-9.8984,-3.5235,0.6688,-5.5824,-13.7696,-8.4084,-17.8518,-3.6539,3.8969,-5.8215,-8.1365,-4.1887,-0.8106,4.3534
2437.5000,-9.5843,-4.0524,3.5400,4.4146,6.8461,-8.4803,-2.6823,0.3340,-2.9172,-10.9791,-5.9413,-13.9141,1.5153,5.1276,-4.5665,-6.6323,-2.0409,3.0256,8.3266
2441.4062,-6.3654,-3.8195,2.1523,4.4077,6.9824,-5.6655,-2.0153,0.0379,-1.6615,-8.3047,-4.5332,-10.3935,6.2685,5.9541,-3.7379,-4.5331,0.2622,5.1693,10.7443
2445.3125,-3.8507,-5.0811,-0.9529,3.2825,6.5875,-2.2915,-1.6236,-0.2264,-1.7239,-6.2442,-3.9021,-7.4557,9.7633,6.1915,-3.1703,-2.2086,2.3880,5.3962,11.5374
2449.2188,-2.7894,-6.9004,-4.4553,1.5167,5.5640,0.3293,-1.6823,-0.5715,-2.6448,-5.1254,-3.6352,-5.1843,11.4024,5.7289,-2.8136,-0.0739,3.9589,4.1406,10.8943
2453.1250,-3.4272,-8.1667,-7.0081,-0.3236,3.8965,1.0602,-2.3103,-1.0868,-3.7676,-4.9215,-3.3424,-3.6026,11.0752,4.6247,-2.6741,1.6330,4.7066,2.2561,9.1831
2457.0312,-5.2697,-8.1410,-7.7817,-1.8262,1.8074,-0.4414,-3.4083,-1.7427,-4.4737,-5.1938,-2.7394,-2.6576,9.2062,3.1170,-2.6522,2.9161,4.5988,0.5960,6.8598
2460.9375,-7.2472,-6.8068,-6.8093,-2.8648,-0.2588,-3.4878,-4.5976,-2.3940,-4.4030,-5.2506,-1.6878,-2.1989,6.5673,1.5332,-2.4622,3.8807,3.8650,-0.3588,4.3603
2464.8438,-8.2351,-4.8371,-4.9484,-3.5588,-1.8334,-6.6595,-5.3418,-2.8670,-3.5725,-4.4888,-0.2238,-2.0021,3.9397,0.1460,-1.7509,4.5121,2.8976,-0.6407,1.9894
2468.7500,-7.6382,-3.1835,-3.4231,-4.1088,-2.6770,-8.4934,-5.2103,-3.0655,-2.3408,-2.7435,1.4271,-1.8502,1.7962,-0.9418,-0.3522,4.5789,2.0675,-0.6614,-0.1458
2472.6562,-5.6857,-2.5040,-3.1494,-4.6286,-2.9140,-8.1890,-4.1305,-3.0185,-1.2332,-0.4270,2.8824,-1.6368,0.1639,-1.8170,1.5192,3.7802,1.5451,-0.9164,-2.1171
2476.5625,-3.2497,-2.7607,-4.2081,-5.0803,-2.9522,-5.9473,-2.4610,-2.8460,-0.7038,1.6602,3.7063,-1.4264,-1.2711,-2.6679,3.3052,2.0479,1.2270,-1.7099,-4.0677
2480.4688,-1.3033,-3.2442,-5.7925,-5.3368,-3.2332,-2.7746,-0.8176,-2.6776,-0.9391,2.7667,3.5690,-1.4279,-2.8929,-3.6469,4.3800,-0.2383,0.8138,-3.0364,-6.0733
2484.3750,-0.3535,-3.0329,-6.6959,-5.3079,-3.9704,0.1059,0.2582,-2.5890,-1.7825,2.6248,2.4030,-1.8771,-4.8724,-4.7679,4.3917,-2.3353,0.0060,-4.6360,-8.0500
2488.2812,-0.1910,-1.6168,-6.0579,-5.0250,-5.0281,1.8758,0.5931,-2.5946,-2.7997,1.6197,0.4856,-2.8755,-7.0253,-5.8961,3.4536,-3.5191,-1.2863,-6.1381,-9.7581
2492.1875,-0.0865,0.7199,-3.8969,-4.6184,-6.0016,2.4276,0.4584,-2.6810,-3.4449,0.5813,-1.5977,-4.2571,-8.8707,-6.8257,2.0772,-3.5203,-2.8425,-7.1816,-10.8843
2496.0938,0.7170,3.0343,-1.0733,-4.2081,-6.4343,2.2296,0.3858,-2.8319,-3.2589,0.3207,-3.1131,-5.5566,-9.8475,-7.3809,0.9161,-2.6910,-4.2030,-7.4666,-11.1470
2500.0000,2.5302,4.3208,1.2950,-3.7951,-6.0405,1.9045,0.8377,-3.0082,-2.0313,1.1855,-3.4189,-6.1268,-9.5715,-7.4761,0.4877,-1.7563,-4.8863,-6.7681,-10.3717
2503.9062,5.0341,4.1922,2.5636,-3.2445,-4.8226,1.8289,1.9378,-3.1007,0.1204,2.8904,-2.2155,-5.3964,-8.0171,-7.1131,1.0117,-1.3026,-4.6384,-4.9821,-8.5343
2507.8125,7.4624,3.1802,2.9303,-2.3847,-3.0499,1.9999,3.4204,-2.9158,2.7755,4.7029,0.2917,-3.1793,-5.5510,-6.3490,2.3877,-1.3699,-3.5775,-2.2196,-5.7913
2511.7188,9.0074,2.4261,3.1903,-1.1574,-1.1381,2.1977,4.8177,-2.2446,5.3409,5.8514,3.4005,0.1179,-2.8124,-5.2845,4.2543,-1.4525,-2.1504,1.1162,-2.5032
2515.6250,9.2115,2.9427,4.0720,0.2952,0.5000,2.2648,5.7545,-1.0023,7.2546,5.9120,6.1359,3.5458,-0.4874,-4.0848,6.0758,-0.9187,-0.9149,4.3717,0.7879
2519.5312,8.1526,4.9333,5.6568,1.6801,1.5795,2.2652,6.1618,0.6497,8.1928,4.9746,7.6324,5.9698,0.9421,-2.9889,7.2674,0.4583,-0.2615,6.8541,3.4798
2523.4375,6.3733,7.6325,7.3180,2.7172,2.0157,2.4119,6.2785,2.2991,8.1899,3.5404,7.5210,6.6061,1.3765,-2.2550,7.3888,2.2590,-0.2214,8.1303,5.1225
2527.3438,4.6293,9.7816,8.2166,3.3062,1.9304,2.8426,6.4514,3.4369,7.5977,2.2531,6.1153,5.4544,1.1195,-2.0349,6.3709,3.6598,-0.4698,8.2362,5.6253
2531.2500,3.5860,10.4170,7.9612,3.5679,1.5859,3.4446,6.8665,3.6985,6.8845,1.6248,4.2639,3.3433,0.7083,-2.2554,4.6426,3.9891,-0.5293,7.6365,5.3082
2535.1562,3.5771,9.4326,6.9084,3.7195,1.2563,3.8798,7.3873,3.0522,6.3677,1.8699,2.9032,1.4979,0.6116,-2.6147,3.0092,3.1876,-0.0656,6.9195,4.7127
2539.0625,4.4910,7.5469,5.8597,3.8637,1.0830,3.8001,7.6062,1.8098,6.0289,2.8745,2.5379,0.8332,0.9411,-2.7451,2.2633,1.8336,0.8881,6.4019,4.2478
2542.9688,5.8080,5.7294,5.3825,3.8508,0.9882,3.0904,7.0807,0.4462,5.5303,4.2590,2.9495,1.3914,1.3453,-2.4655,2.7151,0.7178,1.9152,5.9041,3.8915
2546.8750,6.7828,4.5216,5.2951,3.3375,0.7137,1.9545,5.6141,-0.6574,4.4371,5.4881,3.3279,2.2955,1.1813,-1.9535,3.9485,0.2929,2.4299,4.8691,3.1730
2550.7812,6.7221,3.7429,4.7431,2.0296,-0.0157,0.7813,3.4090,-1.3857,2.5231,6.0079,2.7714,2.2908,-0.1045,-1.6845,5.0135,0.4121,2.0134,2.7734,1.4939
2554.6875,5.2719,2.7724,2.8465,-0.0429,-1.2849,-0.1053,0.9943,-1.8678,-0.0273,5.4061,0.8683,0.5624,-2.5933,-2.1377,4.9848,0.5390,0.6785,-0.4338,-1.3962
2558.5938,2.5952,1.1642,-0.5519,-2.4140,-2.8658,-0.6261,-1.0331,-2.2946,-2.6486,3.5754,-1.9966,-2.6864,-5.7492,-3.4378,3.5471,0.2494,-1.0964,-4.1616,-5.0902
2562.5000,-0.6475,-0.8859,-4.6061,-4.3366,-4.2683,-0.9297,-2.3020,-2.7135,-4.6405,0.8223,-4.8031,-6.2723,-8.6220,-5.1806,1.2146,-0.3808,-2.5991,-7.4103,-8.6165
2566.4062,-3.5253,-2.5788,-7.8861,-5.1300,-4.9505,-1.2084,-2.8161,-2.9525,-5.4827,-2.1506,-6.4279,-8.6734,-10.2942,-6.5848,-0.9784,-0.8117,-3.2502,-9.2687,-10.9049
2570.3125,-5.1806,-3.0256,-9.2132,-4.5149,-4.5721,-1.5034,-2.8700,-2.7264,-5.0301,-4.4244,-6.2228,-8.8642,-10.3072,-6.8993,-2.1120,-0.4732,-2.8910,-9.3548,-11.3332
2574.2188,-5.1378,-1.8527,-8.3176,-2.7282,-3.1446,-1.6570,-2.7919,-1.8468,-3.4902,-5.1722,-4.2951,-6.8188,-8.8138,-5.8144,-1.9101,0.7423,-1.8199,-7.9257,-10.0000
2578.1250,-3.4456,0.5417,-5.8675,-0.3568,-0.9984,-1.4476,-2.6864,-0.3832,-1.2308,-3.9860,-1.3529,-3.3964,-6.3851,-3.6156,-0.8137,2.3202,-0.5648,-5.6104,-7.5542
2582.0312,-0.6099,3.2505,-2.8928,1.9959,1.3959,-0.7983,-2.3601,1.3431,1.4272,-1.0827,1.7417,0.2570,-3.6266,-0.9858,0.4204,3.4336,0.4557,-2.9822,-4.7277
2585.9375,2.6231,5.4273,-0.0728,3.9931,3.6364,0.1128,-1.4898,2.9299,4.2900,2.7152,4.4018,3.3499,-0.8756,1.4016,1.2708,3.5039,1.1594,-0.2805,-1.9126
2589.8438,5.5192,6.7416,2.5694,5.6388,5.5143,0.9355,0.0783,4.1164,7.2153,6.2467,6.4744,5.7141,1.8345,3.2304,1.7402,2.5999,1.7785,2.5448,0.9263
2593.7500,7.5432,7.4174,5.3690,7.1340,7.0137,1.3715,2.1120,4.9110,9.9797,8.4418,8.0878,7.5988,4.5686,4.6207,2.1922,1.3863,2.6249,5.5477,3.9807
2597.6562,8.4407,7.8858,8.4123,8.6516,8.2301,1.3749,4.0352,5.5461,12.2346,8.7467,9.3698,9.2377,7.2494,5.9294,2.9050,0.6650,3.8248,8.5268,7.2223
2601.5625,8.2352,8.3648,11.1615,10.1945,9.2771,1.1796,5.2327,6.2981,13.6211,7.3578,10.2737,10.5719,9.5984,7.4426,3.7300,0.8471,5.2158,11.0238,10.2387
2605.4688,7.1754,8.7044,12.6629,11.6096,10.2229,1.1295,5.4277,7.2881,13.9808,5.1426,10.6314,11.3317,11.3097,9.1756,4.1441,1.7279,6.4712,12.5964,12.4228
2609.3750,5.6595,8.5937,12.2181,12.7056,11.0562,1.4320,4.8752,8.3872,13.5078,3.2531,10.3585,11.3637,12.2996,10.8820,3.6639,2.7034,7.3412,13.1463,13.3657
2613.2812,4.1403,7.9267,10.0084,13.3560,11.6651,2.0132,4.2205,9.2757,12.7065,2.5961,9.6185,10.8837,12.8047,12.2153,2.2948,3.2400,7.8190,13.0272,13.1438
2617.1875,3.0147,7.0018,7.1667,13.5164,11.8457,2.5803,4.0984,9.6162,12.1519,3.4117,8.8000,10.4120,13.2144,12.8993,0.6485,3.2459,8.1061,12.8182,12.2724
2621.0938,2.5234,6.3739,5.1875,13.1813,11.3764,2.8526,4.7352,9.2430,12.1859,5.1826,8.3172,10.4248,13.7526,12.8093,-0.3827,3.0886,8.4142,12.9155,11.3642
2625.0000,2.6963,6.4649,5.0531,12.3638,10.1687,2.7956,5.8234,8.2733,12.7405,6.9351,8.3827,11.0045,14.2615,11.9682,-0.1732,3.2756,8.7729,13.2464,10.7573
2628.9062,3.3698,7.2328,6.6671,11.1472,8.4276,2.6888,6.7525,7.0837,13.4016,7.7750,8.9149,11.7810,14.2858,10.5298,1.2551,4.0524,9.0045,13.3337,10.3901
2632.8125,4.2629,8.1556,8.9695,9.7616,6.6939,2.9623,7.0275,6.1606,13.6710,7.3621,9.6338,12.2254,13.4234,8.7852,3.2763,5.2081,8.8897,12.6762,9.9949
2636.7188,5.0710,8.5484,10.6270,8.5759,5.6697,3.8916,6.5726,5.8801,13.2579,6.0502,10.2527,12.0661,11.6883,7.1509,5.0712,6.2038,8.3843,11.1697,9.4207
2640.6250,5.5335,7.9817,10.8097,7.9382,5.8557,5.3388,5.7033,6.3060,12.2196,4.6185,10.6179,11.4951,9.5935,6.0608,6.0961,6.5094,7.6985,9.2466,8.7978
2644.5312,5.4639,6.5115,9.5471,7.9282,7.1887,6.7145,4.8019,7.1020,10.8763,3.7677,10.7094,10.9937,7.8568,5.7511,6.2874,5.9092,7.1551,7.6171,8.3971
2648.4375,4.7644,4.5860,7.4946,8.1924,8.9251,7.2126,3.9599,7.6207,9.5794,3.7021,10.5384,10.9156,6.9142,6.0556,5.9116,4.5899,6.9258,6.7866,8.3017
2652.3438,3.4523,2.7351,5.3638,8.0296,9.9112,6.2165,2.8833,7.1674,8.4970,4.0540,10.0563,11.1591,6.5909,6.3877,5.2364,2.9961,6.8536,6.6969,8.1839
2656.2500,1.6966,1.2834,3.4651,6.7443,9.1532,3.6667,1.1590,5.3418,7.5586,4.1823,9.1635,11.2011,6.1873,6.0076,4.3081,1.5816,6.5218,6.7563,7.4154
2660.1562,-0.1768,0.2719,1.6654,4.0901,6.3869,0.1878,-1.3076,2.3018,6.5712,3.6275,7.8068,10.4788,4.9516,4.4743,2.9939,0.6171,5.5444,6.2470,5.4858
2664.0625,-1.7571,-0.4152,-0.2884,0.5308,2.3134,-3.1191,-4.0260,-1.2047,5.4049,2.4144,6.0714,8.8365,2.6302,2.0150,1.2133,0.1381,3.8775,4.8312,2.4482
2667.9688,-2.7000,-0.8735,-2.3969,-2.8792,-1.6638,-5.1420,-6.0704,-4.0938,4.1011,1.0080,4.1720,6.6962,-0.2791,-0.4603,-0.8693,0.0106,1.9199,2.8031,-0.9418
2671.8750,-2.8937,-1.1127,-4.3000,-4.9660,-4.0805,-5.2692,-6.5916,-5.3941,2.8277,-0.0269,2.3381,4.8165,-2.7567,-1.7701,-2.8692,0.0360,0.3141,0.9138,-3.5332
2675.7812,-2.5409,-1.1331,-5.5069,-5.0152,-4.0934,-3.6902,-5.3643,-4.6834,1.7224,-0.4149,0.6787,3.8062,-3.8385,-1.0997,-4.4084,0.0339,-0.4305,-0.1139,-4.3715
2679.6875,-2.0855,-1.0398,-5.7616,-3.1371,-1.8508,-1.3222,-2.9916,-2.2932,0.7510,-0.3427,-0.8653,3.7360,-3.1815,1.5036,-5.3574,-0.1176,-0.2420,-0.0589,-3.2196
2683.5938,-2.0073,-1.0605,-5.2505,-0.2192,1.6166,0.6192,-0.6095,0.8243,-0.3049,-0.3172,-2.4423,4.1076,-1.2752,5.0793,-5.8930,-0.4707,0.4812,0.6379,-0.6985
2687.5000,-2.5926,-1.4332,-4.4974,2.4991,4.8923,1.2004,0.7260,3.5059,-1.7123,-0.8276,-4.1453,4.1838,0.8149,8.1890,-6.3230,-1.0160,1.1205,1.1143,2.0196
2691.4062,-3.8106,-2.2546,-4.0383,3.9927,6.7849,0.2043,0.5788,4.8602,-3.5901,-2.0488,-5.9123,3.4388,1.9988,9.5953,-6.8178,-1.7057,1.1959,0.5638,3.7662
2695.3125,-5.3607,-3.4219,-4.1183,3.8681,6.7714,-1.8096,-0.7314,4.5995,-5.7832,-3.7662,-7.5439,1.8411,1.6883,8.8147,-7.2566,-2.4846,0.6090,-1.3413,3.8696
2699.2188,-6.8467,-4.7172,-4.6113,2.4474,5.1171,-3.8479,-2.4401,3.0844,-7.8942,-5.5269,-8.8139,-0.1740,0.0276,6.2696,-7.3052,-3.3049,-0.3575,-4.3051,2.3557
2703.1250,-7.9584,-5.9567,-5.1816,0.5260,2.6818,-5.0345,-3.8431,1.0970,-9.4521,-6.8785,-9.5814,-1.9653,-2.2477,3.0090,-6.6611,-4.1063,-1.2403,-7.5799,-0.1731
2707.0312,-8.5543,-7.0688,-5.5353,-1.0382,0.5335,-5.0574,-4.6458,-0.5260,-10.1197,-7.5300,-9.8227,-2.9848,-4.2013,0.1931,-5.2819,-4.7716,-1.6454,-10.3175,-2.8543
2710.9375,-8.6234,-8.0342,-5.5758,-1.6961,-0.4729,-4.2628,-4.9612,-1.2289,-9.8213,-7.3751,-9.5776,-2.9554,-5.1215,-1.3810,-3.4379,-5.1073,-1.4070,-11.8989,-4.8963
2714.8438,-8.2005,-8.7549,-5.3841,-1.3867,-0.0136,-3.3641,-5.0402,-0.9160,-8.7383,-6.4387,-8.8795,-1.8965,-4.7963,-1.5141,-1.5655,-4.8990,-0.6106,-12.1047,-5.8092
2718.7500,-7.3311,-8.9985,-5.0824,-0.4789,1.5937,-2.9636,-4.9944,0.0718,-7.2016,-4.8512,-7.7453,-0.0671,-3.5521,-0.5570,-0.0429,-4.0405,0.4734,-11.1000,-5.4981
2722.6562,-6.1226,-8.5087,-4.7107,0.4684,3.5363,-3.1960,-4.7359,1.1503,-5.5614,-2.8868,-6.2422,2.1085,-2.0711,0.8329,0.9586,-2.6596,1.4797,-9.2962,-4.2321
2726.5625,-4.8234,-7.2252,-4.2024,1.0039,4.8768,-3.7110,-4.1472,1.7718,-4.1035,-0.9986,-4.5667,4.1266,-1.0742,1.9953,1.4649,-1.1348,2.0399,-7.1788,-2.5139
2730.4688,-3.8230,-5.4381,-3.4549,1.0038,5.0031,-3.9856,-3.2970,1.6848,-3.0296,0.2519,-3.0527,5.5344,-0.9954,2.5130,1.5794,0.0475,1.8871,-5.1668,-0.8818
2734.3750,-3.5187,-3.7235,-2.4290,0.7103,3.9422,-3.7399,-2.4884,1.0624,-2.4708,0.3989,-2.0738,6.0934,-1.7863,2.3303,1.3639,0.5304,0.9701,-3.5370,0.2894
2738.2812,-4.1043,-2.6681,-1.2142,0.5686,2.3533,-3.1661,-2.0788,0.4288,-2.4951,-0.6850,-1.8909,5.8928,-2.9491,1.7168,0.8110,0.2690,-0.4753,-2.4187,0.8991
2742.1875,-5.4255,-2.5591,-0.0420,0.9403,1.1702,-2.8097,-2.2154,0.3897,-3.0961,-2.6755,-2.5419,5.3075,-3.8058,1.0964,-0.0916,-0.4758,-1.9771,-1.8435,1.0782
2746.0938,-7.0266,-3.2612,0.7477,1.8495,1.0725,-3.1808,-2.7093,1.2799,-4.1793,-4.9198,-3.8408,4.7813,-3.8813,0.8133,-1.2756,-1.3358,-3.0228,-1.8142,1.0167
2750.0000,-8.3883,-4.3703,0.7854,2.9175,2.0883,-4.3558,-3.1640,2.9103,-5.5716,-6.7488,-5.4725,4.5536,-3.1884,0.9445,-2.5633,-2.0868,-3.3154,-2.3421,0.7812
2753.9062,-9.2129,-5.5213,-0.1945,3.5472,3.5779,-5.8427,-3.2673,4.5832,-7.0572,-7.7947,-7.1086,4.5206,-2.2333,1.2664,-3.7236,-2.7648,-2.9331,-3.4173,0.2659
2757.8125,-9.5590,-6.6107,-2.1819,3.2694,4.6199,-6.8100,-3.0169,5.4107,-8.4199,-8.1156,-8.4722,4.3507,-1.7065,1.4029,-4.5714,-3.5531,-2.2673,-4.9230,-0.6673
2761.7188,-9.7207,-7.7573,-4.7616,2.0500,4.5694,-6.5470,-2.6979,4.7960,-9.4647,-8.0592,-9.3400,3.7917,-2.0294,1.0779,-5.0427,-4.5277,-1.7579,-6.5606,-1.9555
2765.6250,-9.9283,-9.0396,-7.1410,0.3612,3.4426,-4.8717,-2.6222,2.8090,-10.0195,-7.9698,-9.5336,2.9477,-3.0390,0.3155,-5.1985,-5.4667,-1.5923,-7.8687,-3.1990
2769.5312,-10.0874,-10.2387,-8.4029,-1.0492,1.8881,-2.2434,-2.8325,0.2190,-9.9399,-7.9453,-8.9504,2.3043,-4.0309,-0.5499,-5.1561,-5.8997,-1.5794,-8.3727,-3.7757
2773.4375,-9.7627,-10.8269,-7.9161,-1.5702,0.7708,0.4792,-3.0059,-1.8733,-9.1431,-7.8000,-7.6310,2.4521,-4.1595,-1.0740,-4.9920,-5.3935,-1.2960,-7.8092,-3.1810
2777.3438,-8.4507,-10.2585,-5.6981,-1.0793,0.6372,2.4752,-2.6484,-2.6201,-7.6662,-7.2322,-5.7998,3.6860,-2.9606,-0.9961,-4.6732,-3.8810,-0.4150,-6.2940,-1.3911
2781.2500,-5.9722,-8.3771,-2.4934,-0.0194,1.3943,3.3324,-1.4517,-1.8975,-5.7057,-6.0585,-3.8122,5.7634,-0.6689,-0.4359,-4.0598,-1.7861,1.0159,-4.3129,1.0097
2785.1562,-2.7138,-5.6328,0.5312,0.8505,2.3851,3.1540,0.4378,-0.3800,-3.5905,-4.3438,-2.0081,8.0071,1.8776,0.1399,-2.9888,0.1748,2.5469,-2.5059,3.0623
2789.0625,0.4677,-2.9211,2.3458,0.8853,2.7896,2.3838,2.4330,0.8388,-1.6752,-2.3545,-0.5595,9.6943,3.6924,0.1732,-1.4061,1.4006,3.5778,-1.3515,3.9218
2792.9688,2.6447,-1.1152,2.5629,-0.0868,2.0902,1.5020,3.7980,0.8668,-0.2041,-0.3990,0.5771,10.4730,4.1753,-0.6594,0.5219,1.7529,3.7206,-0.9304,3.3120
2796.8750,3.2845,-0.5894,1.5902,-1.6784,0.3315,0.7953,4.0350,-0.4840,0.7738,1.3133,1.5583,10.5251,3.4055,-2.2422,2.3931,1.6012,3.0263,-0.9151,1.6682
2800.7812,2.4987,-1.0479,0.3380,-3.1667,-1.9435,0.3203,3.1261,-2.6032,1.3806,2.6989,2.4738,10.3822,2.0335,-4.0579,3.6933,1.5330,1.9280,-0.7969,-0.1223
2804.6875,0.9341,-1.7607,-0.3376,-3.8852,-3.9991,0.0237,1.5057,-4.4450,1.7934,3.7284,3.2312,10.5371,0.8681,-5.4408,4.0255,1.9282,0.9509,-0.2174,-1.2194
2808.5938,-0.6038,-2.0368,-0.1130,-3.5603,-5.2539,-0.1198,-0.1893,-5.1267,2.1173,4.3507,3.6086,11.1269,0.4294,-5.8990,3.3360,2.6941,0.3987,0.7925,-1.2664
2812.5000,-1.5482,-1.6091,0.6884,-2.4186,-5.4872,-0.0787,-1.4229,-4.4102,2.3348,4.4942,3.4476,11.8891,0.7308,-5.3332,1.9970,3.3418,0.2235,1.8097,-0.5173
2816.4062,-1.7625,-0.6986,1.3852,-1.0305,-4.8346,0.1396,-1.9513,-2.7939,2.3589,4.1420,2.8341,12.3822,1.3804,-4.0454,0.6674,3.3443,0.1480,2.2489,0.3907
2820.3125,-1.4624,0.2350,1.4160,0.0008,-3.6282,0.3735,-1.8377,-1.1775,2.1306,3.3976,2.1028,12.2844,1.8871,-2.5526,-0.0249,2.5216,-0.0773,1.6871,0.8449
2824.2188,-0.9869,0.8258,0.6825,0.3311,-2.1988,0.3075,-1.3364,-0.3178,1.6679,2.4561,1.6246,11.5537,1.9487,-1.3170,0.1846,1.1837,-0.4776,0.0935,0.5878
2828.1250,-0.6075,0.9610,-0.4541,-0.0009,-0.7471,-0.3587,-0.7425,-0.4015,1.0147,1.4777,1.5057,10.3635,1.5524,-0.5406,1.0442,-0.0667,-0.8575,-2.1606,-0.2117
2832.0312,-0.4826,0.6783,-1.4922,-0.6661,0.6668,-1.6676,-0.2835,-0.9872,0.1345,0.4578,1.4277,8.9052,0.8654,-0.1279,1.9137,-0.7297,-0.9831,-4.5057,-1.1505
2835.9375,-0.7202,-0.0570,-2.1859,-1.2907,2.0301,-3.2642,-0.0746,-1.3369,-1.1403,-0.7876,0.7786,7.2345,0.0348,0.1726,2.1109,-0.7299,-0.7970,-6.4664,-1.8949
2839.8438,-1.4238,-1.4552,-2.7426,-1.7150,3.2467,-4.4992,-0.1251,-0.9312,-3.0198,-2.4805,-0.9635,5.2758,-0.9445,0.5342,1.2810,-0.4463,-0.5024,-7.8764,-2.4004
2843.7500,-2.6368,-3.7471,-3.6896,-2.1207,4.0547,-4.7575,-0.3747,0.1492,-5.5524,-4.6617,-3.8308,2.9609,-2.2093,0.8681,-0.4219,-0.4371,-0.4579,-8.9043,-2.9265
2847.6562,-4.2227,-6.8663,-5.4997,-2.9453,4.0628,-3.8303,-0.7441,1.2104,-8.4444,-7.0542,-7.2220,0.3704,-3.8844,0.8142,-2.4358,-1.0510,-0.9586,-9.8940,-3.8593
2851.5625,-5.8097,-10.2327,-8.2205,-4.6152,2.9169,-2.0897,-1.1838,1.3211,-11.0651,-9.1237,-10.1419,-2.2413,-5.9313,-0.0657,-4.0981,-2.1894,-2.0528,-11.1220,-5.4574
2855.4688,-6.9060,-12.8691,-11.3431,-7.2339,0.5290,-0.3334,-1.6960,-0.1332,-12.6950,-10.3251,-11.7051,-4.5551,-8.0957,-1.9868,-4.9715,-3.3744,-3.5097,-12.6133,-7.6677
2859.3750,-7.1560,-13.8555,-13.9944,-10.4035,-2.7631,0.6311,-2.3097,-3.0373,-12.9030,-10.3892,-11.6091,-6.3371,-9.9897,-4.7122,-5.0094,-4.0732,-4.9435,-14.1140,-10.1025
2863.2812,-6.5781,-12.8634,-15.3453,-13.3025,-6.2272,0.4227,-3.0197,-6.5208,-11.8247,-9.4715,-10.2899,-7.5137,-11.2516,-7.5546,-4.5003,-4.0570,-6.0023,-15.2257,-12.1829
2867.1875,-5.6004,-10.4158,-15.0095,-15.0101,-8.9863,-0.7192,-3.7286,-9.3456,-10.1446,-8.0732,-8.6689,-8.1281,-11.6863,-9.6461,-3.8606,-3.5567,-6.5032,-15.6152,-13.3712
2871.0938,-4.8380,-7.6661,-13.2217,-14.9235,-10.3807,-2.0912,-4.2473,-10.5000,-8.7587,-6.7891,-7.6483,-8.2337,-11.3115,-10.3439,-3.4182,-3.1115,-6.4479,-15.1799,-13.3829
2875.0000,-4.7312,-5.7965,-10.7137,-13.0488,-10.2472,-2.9281,-4.3703,-9.6723,-8.3043,-6.0411,-7.6519,-7.8308,-10.3024,-9.5458,-3.2952,-3.2093,-5.9463,-14.0831,-12.2853
2878.9062,-5.2739,-5.3883,-8.3636,-10.0056,-8.9521,-2.8013,-3.9897,-7.3527,-8.8315,-5.9411,-8.4664,-6.9029,-8.8897,-7.7267,-3.4179,-3.9539,-5.1256,-12.6546,-10.4497
2882.8125,-6.0088,-6.1496,-6.8002,-6.7398,-7.1591,-1.7860,-3.1751,-4.5301,-9.8140,-6.3235,-9.4364,-5.5216,-7.2857,-5.6713,-3.6024,-4.9736,-4.0951,-11.2254,-8.3882
2886.7188,-6.2905,-7.1547,-6.1502,-4.0993,-5.4708,-0.3343,-2.1620,-2.1773,-10.4798,-6.8737,-9.8612,-3.9195,-5.6710,-4.0625,-3.6501,-5.6338,-2.9751,-9.9911,-6.5564
2890.6250,-5.6490,-7.4324,-6.0335,-2.4956,-4.1620,1.0257,-1.2521,-0.8210,-10.2477,-7.2462,-9.3471,-2.4490,-4.2201,-3.1674,-3.4148,-5.4177,-1.9367,-8.9659,-5.2032
2894.5312,-4.0296,-6.5247,-5.7906,-1.8077,-3.1467,1.9617,-0.6830,-0.4152,-9.0032,-7.1196,-7.9321,-1.4289,-3.1060,-2.7915,-2.8357,-4.2354,-1.1843,-8.0256,-4.3198
2898.4375,-1.7868,-4.6779,-4.8244,-1.5422,-2.1608,2.4341,-0.5393,-0.5314,-7.0683,-6.2257,-5.9662,-0.9688,-2.4415,-2.4962,-1.9489,-2.4642,-0.8619,-6.9902,-3.6854
2902.3438,0.5272,-2.5841,-2.8956,-1.1254,-1.0069,2.6153,-0.7386,-0.6925,-4.9279,-4.4206,-3.8673,-0.8874,-2.1801,-1.9134,-0.8739,-0.7004,-0.9314,-5.6973,-2.9731
2906.2500,2.4237,-0.8788,-0.2408,-0.1654,0.3111,2.7362,-1.0761,-0.6263,-2.9191,-1.8070,-1.9184,-0.7850,-2.0543,-0.9593,0.2338,0.6159,-1.1197,-4.0449,-1.8719
2910.1562,3.6382,0.2580,2.5354,1.4226,1.6252,2.9746,-1.2915,-0.3086,-1.0860,1.1761,-0.2011,-0.2377,-1.6366,0.1621,1.2553,1.4566,-1.0029,-2.0172,-0.1944
2914.0625,4.1457,1.1505,4.7398,3.4358,2.7393,3.4249,-1.1380,0.1617,0.7374,3.8188,1.3439,0.9907,-0.5357,1.1197,2.1703,2.1760,-0.2162,0.2925,2.0452
2917.9688,4.0840,2.3235,5.9106,5.4860,3.5320,4.1084,-0.4598,0.7085,2.7144,5.4082,2.8104,2.8281,1.3605,1.6480,3.0599,3.2177,1.3179,2.6720,4.5968
2921.8750,3.6706,4.0765,6.0215,7.1251,3.9537,4.9696,0.7218,1.3172,4.8303,5.5915,4.2502,4.9161,3.7460,1.6532,4.0316,4.7544,3.2869,4.8234,7.0086
2925.7812,3.1523,6.2233,5.4659,7.9643,3.9577,5.8551,2.1499,1.9583,6.8685,4.6113,5.6524,6.7527,5.9773,1.2056,5.1027,6.5045,5.0984,6.4554,8.7452
2929.6875,2.7636,8.1556,4.8200,7.7846,3.4759,6.5257,3.3687,2.5012,8.5238,3.2253,6.9540,7.8844,7.3641,0.4754,6.1241,7.8546,6.1677,7.4031,9.3750
2933.5938,2.6643,9.1735,4.5023,6.6234,2.4967,6.7468,3.8963,2.7313,9.5518,2.3059,8.0543,8.0665,7.5206,-0.3235,6.8129,8.2178,6.2304,7.7027,8.7584
2937.5000,2.8668,8.8671,4.5180,4.7938,1.1973,6.4296,3.4830,2.4911,9.8580,2.3424,8.8285,7.3404,6.5712,-0.9604,6.8975,7.4034,5.4970,7.5604,7.1415
2941.4062,3.2162,7.3318,4.4483,2.7984,-0.0072,5.7262,2.3125,1.8411,9.5012,3.1642,9.1650,6.0113,5.0821,-1.2189,6.2949,5.7630,4.5483,7.2210,5.0896
2945.3125,3.4679,5.1191,3.7175,1.1471,-0.5942,4.9812,0.9909,1.0970,8.6587,4.0810,9.0318,4.5371,3.7547,-0.9592,5.2040,4.0207,4.0258,6.8205,3.2681
2949.2188,3.4378,2.9836,2.0047,0.1579,-0.2129,4.5389,0.2766,0.6800,7.5992,4.3636,8.5378,3.3641,3.0632,-0.1976,4.0358,2.8911,4.2920,6.3268,2.1697
2953.1250,3.1197,1.5753,-0.4490,-0.1554,1.0553,4.5193,0.6699,0.8573,6.6553,3.7411,7.9250,2.7566,3.0482,0.8578,3.2007,2.7145,5.2538,5.6169,1.9192
2957.0312,2.6695,1.2117,-2.8570,-0.0451,2.6406,4.7231,2.1019,1.5456,6.1420,2.5664,7.4506,2.6831,3.3699,1.8597,2.8681,3.3173,6.4355,4.6289,2.2486
2960.9375,2.2490,1.7980,-4.2698,0.1272,3.7044,4.7472,3.9251,2.3180,6.1992,1.5237,7.1992,2.8137,3.5539,2.4507,2.8453,4.1592,7.2395,3.4640,2.6411
2964.8438,1.8457,2.8909,-4.1318,0.0652,3.5278,4.2452,5.2333,2.6210,6.6276,1.0856,6.9474,2.6500,3.2590,2.3965,2.6658,4.6604,7.2301,2.3480,2.5607
2968.7500,1.2286,3.8676,-2.6733,-0.3675,1.8555,3.1592,5.3305,2.0677,6.8620,1.1203,6.2112,1.7536,2.4087,1.6494,1.8565,4.5102,6.2933,1.4753,1.6570
2972.6562,0.1110,4.1548,-0.8586,-1.1603,-0.9907,1.7647,4.0748,0.6302,6.1918,0.9616,4.5148,-0.0210,1.1491,0.3251,0.2450,3.7958,4.6260,0.8661,-0.1263
2976.5625,-1.5752,3.4564,0.1311,-2.2215,-4.2668,0.5041,1.9079,-1.3662,4.1778,-0.0798,1.7607,-2.4045,-0.2814,-1.3588,-1.8728,2.9071,2.6150,0.3659,-2.5473
2980.4688,-3.5058,1.8928,-0.4055,-3.4218,-7.1223,-0.2695,-0.4196,-3.4129,1.0351,-2.1222,-1.5325,-4.7840,-1.6557,-3.1242,-3.8192,2.2974,0.7067,-0.1962,-5.1415
2984.3750,-5.0636,-0.0304,-2.2502,-4.5904,-8.9026,-0.4704,-2.2363,-5.0305,-2.3054,-4.4876,-4.3340,-6.4587,-2.7788,-4.6406,-4.8548,2.2399,-0.6833,-0.8184,-7.3460
2988.2812,-5.6952,-1.6525,-4.3908,-5.5075,-9.3195,-0.2832,-3.2258,-5.9118,-4.5928,-6.0564,-5.5700,-6.9709,-3.4679,-5.5482,-4.5745,2.6973,-1.2363,-1.2845,-8.6593
2992.1875,-5.3018,-2.5010,-5.6689,-5.9585,-8.4670,-0.0311,-3.4726,-5.9672,-4.9495,-5.9977,-4.7395,-6.3473,-3.5695,-5.5470,-3.1599,3.3527,-0.8148,-1.3387,-8.8102
2996.0938,-4.3832,-2.5676,-5.5500,-5.8556,-6.7324,-0.0271,-3.3225,-5.3103,-3.4617,-4.3760,-2.3129,-5.1130,-3.0398,-4.5426,-1.3316,3.7711,0.4461,-0.9616,-7.8818
3000.0000,-3.7931,-2.3362,-4.5070,-5.3460,-4.6591,-0.4955,-3.1879,-4.2276,-1.2581,-2.1899,0.3768,-4.0527,-2.0309,-2.7526,-0.0026,3.6135,2.1108,-0.5085,-6.3126
3003.9062,-4.2355,-2.5095,-3.7383,-4.7949,-2.7856,-1.5548,-3.4054,-3.1257,0.0498,-0.7767,1.7603,-3.8333,-0.8863,-0.6695,0.1895,2.8031,3.5626,-0.5447,-4.7338
3007.8125,-5.8232,-3.5702,-4.3768,-4.5992,-1.4790,-3.1933,-4.1597,-2.4178,-0.7151,-0.9663,0.8613,-4.6831,-0.0083,1.1443,-0.7894,1.5654,4.2618,-1.4380,-3.6881
3011.7188,-7.9996,-5.4403,-6.6968,-4.9213,-0.8020,-5.2019,-5.4325,-2.3447,-3.5639,-2.5608,-2.1470,-6.3035,0.3401,2.3259,-2.3797,0.3113,4.0187,-2.9888,-3.3681
3015.6250,-9.8826,-7.4671,-9.8451,-5.5198,-0.4824,-7.1253,-6.9602,-2.8080,-7.2696,-4.5021,-6.0048,-8.0589,0.1639,2.8712,-3.7781,-0.5911,3.1011,-4.4075,-3.5294
3019.5312,-10.8032,-8.7638,-12.2843,-5.8217,-0.0361,-8.3424,-8.2473,-3.3429,-10.0316,-5.6134,-9.0342,-9.3303,-0.2932,3.0740,-4.4207,-1.0383,2.0771,-4.7307,-3.6413
3023.4375,-10.6690,-8.7087,-12.6657,-5.2257,0.9863,-8.3219,-8.7056,-3.3092,-10.4878,-5.3948,-10.0306,-9.8245,-0.7153,3.2831,-4.3001,-1.2685,1.4685,-3.4399,-3.1970
3027.3438,-9.9118,-7.2907,-10.5732,-3.4636,2.7464,-6.9455,-7.9144,-2.2392,-8.4562,-4.3108,-8.8513,-9.6640,-0.8899,3.6524,-3.9108,-1.7197,1.4353,-0.8628,-1.9963
3031.2500,-9.0743,-5.0900,-6.6835,-0.7889,4.9998,-4.6800,-5.8815,-0.1486,-4.9543,-3.3730,-6.3686,-9.2223,-0.7682,4.0610,-3.8576,-2.7240,1.7114,1.9539,-0.2355
3035.1562,-8.3513,-2.9220,-2.2954,2.1299,7.1888,-2.4275,-3.1255,2.3970,-1.5146,-3.3298,-3.8546,-8.8348,-0.3890,4.2489,-4.3873,-4.2163,1.8417,3.8568,1.6339
