Time,Fp1,F3,C3,P3,O1,F7,T3,T5,Fz,Fp2,F4,C4,P4,O2,F8,T4,T6,Cz,Pz
0.0000,0.1862,1.9403,2.8427,1.1577,0.3032,0.2756,1.7855,0.3572,3.3148,1.3801,2.2293,2.9364,2.3309,0.2233,2.3926,1.0964,3.1933,2.5427,0.8860
3.9062,-1.1906,1.3862,1.9146,-0.1538,-0.9471,-2.2285,1.8566,-0.5152,0.8487,-0.0963,1.3953,2.2184,1.5124,-0.8887,2.9000,2.0973,3.4998,1.2534,0.6353
7.8125,-1.8919,0.5635,-0.4297,-1.9906,-2.8016,-4.0368,1.7242,-1.8678,-2.6472,-1.5278,0.1808,1.2080,-0.0596,-2.4313,3.2241,3.1742,2.6501,-0.6811,-0.0117
11.7188,-1.3627,-0.4257,-3.5923,-3.8018,-4.6636,-4.0833,1.0713,-3.6063,-6.1407,-2.2466,-1.2292,-0.0901,-2.0497,-3.7986,3.0135,3.7443,0.3510,-2.7459,-0.9505
15.6250,0.2253,-1.3736,-6.3175,-4.9698,-5.8151,-2.2494,-0.3852,-5.5236,-8.4665,-1.9450,-2.6407,-1.6797,-3.8789,-4.3391,2.0039,3.3465,-2.9273,-4.2972,-1.8863
19.5312,1.9795,-2.0154,-7.3638,-5.0999,-5.7957,0.4540,-2.7032,-7.2738,-8.9324,-0.8981,-3.9107,-3.4854,-5.0326,-3.7443,0.2104,1.9418,-6.0832,-4.8750,-2.4616
23.4375,2.8136,-2.1397,-6.2616,-4.1984,-4.6535,2.4668,-5.5502,-8.3949,-7.6834,0.1908,-4.9393,-5.2424,-5.3355,-2.2736,-1.9736,0.0053,-7.9405,-4.4241,-2.4413
27.3438,2.1645,-1.7172,-3.6675,-2.6588,-2.9148,2.6650,-8.1837,-8.4466,-5.6122,0.6270,-5.6309,-6.4863,-5.0174,-0.6529,-3.8739,-1.6709,-7.9011,-3.3084,-1.8553
31.2500,0.3958,-0.9679,-1.0641,-1.0903,-1.2971,1.0764,-9.6646,-7.2428,-3.8836,0.1406,-5.8957,-6.7253,-4.5352,0.3101,-4.8293,-2.3712,-6.2782,-2.1355,-1.0142
35.1562,-1.4253,-0.3020,0.0251,-0.0901,-0.3496,-1.1817,-9.2623,-5.0533,-3.3646,-1.0036,-5.7236,-5.7440,-4.2804,0.1712,-4.5496,-1.8342,-4.0888,-1.5039,-0.3822
39.0625,-2.2513,-0.1429,-1.1647,-0.0552,-0.2334,-2.7040,-6.8682,-2.6020,-4.2762,-2.2621,-5.2768,-3.8509,-4.3677,-0.9130,-3.3278,-0.3999,-2.4404,-1.7995,-0.3656
42.9688,-1.7780,-0.7193,-4.2924,-1.0774,-0.7405,-2.7701,-3.1688,-0.7849,-6.2170,-3.2285,-4.8999,-1.8618,-4.6269,-2.2896,-1.9486,1.1576,-1.9080,-3.1054,-1.1198
46.8750,-0.6581,-1.9542,-8.1768,-2.9209,-1.4893,-1.8037,0.5676,-0.2191,-8.4721,-3.8947,-4.9851,-0.7532,-4.7733,-3.1804,-1.3040,2.0235,-2.2910,-5.2137,-2.4681
50.7812,-0.0499,-3.5244,-11.4558,-5.0771,-2.1378,-1.0181,3.0161,-0.8889,-10.3830,-4.5784,-5.7431,-1.1486,-4.6151,-3.0886,-1.9134,1.7467,-2.8700,-7.6971,-3.9690
54.6875,-0.8292,-5.0524,-13.2204,-6.8984,-2.4872,-1.5429,3.3536,-2.1371,-11.5755,-5.5990,-7.0264,-2.9514,-4.1612,-2.0168,-3.6245,0.4424,-2.9509,-10.0159,-5.1032
58.5938,-3.0216,-6.3019,-13.2871,-7.8057,-2.4632,-3.6776,1.5434,-3.0456,-11.9786,-6.9688,-8.3549,-5.3852,-3.5844,-0.4041,-5.6851,-1.3089,-2.3173,-11.6565,-5.4943
62.5000,-5.8359,-7.2361,-12.0550,-7.5162,-2.0602,-6.7759,-1.7849,-2.9912,-11.7091,-8.3389,-9.1684,-7.4492,-3.1071,1.1325,-7.1531,-2.7964,-1.3154,-12.2892,-5.0676
66.4062,-8.2266,-7.9073,-10.1456,-6.1886,-1.3381,-9.7572,-5.7180,-2.0185,-10.9442,-9.2240,-9.1723,-8.5149,-2.9071,2.0806,-7.4142,-3.5607,-0.5716,-11.8917,-4.0793
70.3125,-9.5342,-8.2741,-8.0977,-4.3913,-0.4755,-11.7837,-9.4132,-0.7854,-9.8585,-9.3176,-8.5483,-8.6730,-3.0920,2.1949,-6.5048,-3.6114,-0.5832,-10.7624,-3.0040
74.2188,-9.7412,-8.1135,-6.2619,-2.8713,0.2003,-12.5825,-12.2106,-0.1128,-8.6223,-8.6532,-7.8694,-8.5953,-3.7129,1.5063,-5.0630,-3.3689,-1.4659,-9.3867,-2.3315
78.1250,-9.2179,-7.1333,-4.8543,-2.2234,0.3014,-12.2589,-13.5447,-0.4429,-7.4093,-7.5128,-7.7382,-9.0025,-4.7574,0.2349,-3.9473,-3.3714,-2.9820,-8.2030,-2.3594
82.0312,-8.2471,-5.2309,-4.0218,-2.6216,-0.4151,-10.8993,-12.8978,-1.5631,-6.3716,-6.1914,-8.3595,-10.1009,-6.0991,-1.3088,-3.7541,-3.9156,-4.7552,-7.3936,-3.0649
85.9375,-6.7663,-2.7064,-3.8144,-3.7505,-1.8330,-8.4195,-10.0033,-2.7629,-5.5820,-4.8249,-9.3198,-11.3745,-7.4474,-2.7918,-4.5021,-4.8405,-6.4697,-6.8197,-4.1029
89.8438,-4.5429,-0.2352,-4.0798,-4.9567,-3.4123,-4.8374,-5.2350,-3.2853,-4.9809,-3.4071,-9.7353,-11.8727,-8.3685,-3.9039,-5.6379,-5.5813,-7.9134,-6.1338,-4.9217
93.7500,-1.5984,1.4477,-4.3969,-5.5197,-4.3595,-0.6964,0.1647,-2.7482,-4.3675,-1.9374,-8.7126,-10.7923,-8.4085,-4.4057,-6.3320,-5.4712,-8.8888,-4.9881,-4.9440
97.6562,1.5369,1.9862,-4.1546,-4.9039,-3.9732,2.8549,4.3837,-1.2652,-3.4584,-0.5268,-5.8703,-7.9650,-7.2710,-4.1795,-5.8919,-4.1285,-9.1322,-3.2077,-3.7536
101.5625,4.0257,1.6771,-2.7889,-2.9024,-1.9867,4.5845,5.9024,0.7589,-2.0091,0.6565,-1.6257,-3.9459,-4.9540,-3.2598,-4.0876,-1.7094,-8.3623,-0.8430,-1.2381
105.4688,5.2720,1.3620,-0.0789,0.3225,1.2767,4.0212,4.4745,2.9438,0.0398,1.5512,2.9259,0.3082,-1.7745,-1.8194,-1.2549,1.1187,-6.4556,1.8855,2.3404
109.3750,5.3779,1.9543,3.6550,4.2545,5.0161,1.9692,1.5387,5.0962,2.4524,2.3009,6.4876,3.9144,1.7261,-0.1180,1.8433,3.4791,-3.6185,4.6639,6.3643
113.2812,5.0985,3.8650,7.5758,8.0799,8.2654,0.1710,-0.3888,7.1174,4.7042,3.1481,8.1504,6.3777,4.9359,1.5571,4.3240,4.7028,-0.4096,7.1238,9.9870
117.1875,5.2642,6.6824,10.6070,10.8290,10.2454,0.1995,0.8547,8.7898,6.1487,4.1702,7.7962,7.6012,7.3195,2.9331,5.5301,4.6380,2.4397,8.8597,12.3668
121.0938,6.0842,9.3275,11.8732,11.6514,10.6048,2.2931,5.6411,9.6867,6.3138,5.0755,6.1152,7.6983,8.5255,3.7831,5.2831,3.6925,4.3167,9.5018,12.9635
125.0000,6.8815,10.6199,11.1159,10.1818,9.4800,4.9962,12.0623,9.3430,5.1902,5.2739,4.2362,6.8318,8.4584,3.9724,3.9397,2.5978,4.9715,8.8822,11.7904
128.9062,6.5163,9.9351,8.8789,6.8263,7.3957,5.9739,16.8256,7.5973,3.3304,4.2417,3.1655,5.2182,7.3165,3.5284,2.2221,2.0315,4.5855,7.2216,9.4863
132.8125,4.2390,7.5733,6.3270,2.7534,5.0729,3.5459,17.1037,4.8441,1.6436,1.9533,3.3168,3.2350,5.5705,2.6958,0.8893,2.3005,3.6498,5.1787,7.1176
136.7188,0.3662,4.6303,4.7346,-0.5058,3.2116,-2.0642,12.2499,1.9723,0.9430,-0.9397,4.3683,1.4462,3.8488,1.9113,0.3991,3.2351,2.7374,3.6472,5.7515
140.6250,-3.7278,2.4496,4.8689,-1.7125,2.2935,-8.6334,4.3111,-0.0186,1.4883,-3.3537,5.5067,0.4242,2.7338,1.6588,0.7336,4.3240,2.2894,3.3444,5.9820
144.5312,-6.3351,1.9622,6.5927,-0.4970,2.4474,-13.1131,-3.0155,-0.4995,2.8100,-4.3230,5.9178,0.4480,2.5455,2.2454,1.4822,4.9945,2.4911,4.4145,7.6558
148.4375,-6.3788,3.2617,8.9328,2.4745,3.4157,-13.3453,-6.3827,0.5032,3.9624,-3.5109,5.2492,1.3045,3.2247,3.6118,2.1287,4.8863,3.2530,6.3049,9.9589
152.3438,-3.9862,5.6037,10.6035,5.8490,4.6480,-9.2487,-4.5706,2.3747,4.0776,-1.3645,3.7850,2.3849,4.3852,5.2966,2.3625,3.9973,4.2615,8.0264,11.8261
156.2500,-0.3265,7.7847,10.6914,8.2442,5.4942,-2.7765,0.9804,4.2495,2.8781,1.1638,2.2371,3.0446,5.5014,6.5929,2.2169,2.6567,5.0683,8.6566,12.4410
160.1562,3.1136,8.6769,9.0847,8.8186,5.4207,3.2439,7.1253,5.3806,0.8098,3.1174,1.2814,2.9835,6.1095,6.8230,1.9528,1.3617,5.2007,7.7767,11.5385
164.0625,5.2956,7.6662,6.3819,7.4455,4.1526,6.5990,10.8184,5.3362,-1.2948,3.9353,1.1269,2.3627,5.9029,5.5907,1.7919,0.5649,4.2891,5.5813,9.3525
167.9688,5.9551,4.8339,3.3655,4.4715,1.6930,6.6136,10.6794,3.9844,-2.7895,3.5423,1.3939,1.5740,4.7089,2.8980,1.7092,0.4989,2.1997,2.6315,6.2992
171.8750,5.3841,0.8600,0.4385,0.3328,-1.7471,4.0838,7.4614,1.3937,-3.6165,2.1737,1.3869,0.8522,2.4406,-0.8918,1.4561,1.1003,-0.8651,-0.5266,2.6611
175.7812,3.9567,-3.2660,-2.5428,-4.6283,-5.8237,0.4635,3.2709,-2.2041,-4.2482,0.1460,0.5910,0.0531,-0.8581,-5.1717,0.8043,2.0538,-4.3459,-3.5863,-1.4744
179.6875,1.8149,-6.6031,-5.9020,-10.0123,-10.0717,-3.0549,0.1142,-6.3550,-5.2191,-2.2397,-0.9382,-1.2076,-4.8633,-9.2100,-0.1779,2.9304,-7.4264,-6.4115,-5.9807
183.5938,-1.0744,-8.5661,-9.5296,-15.0596,-13.8738,-6.0023,-1.3219,-10.3377,-6.6072,-4.6431,-2.5681,-3.1557,-8.8493,-12.2425,-1.0527,3.3589,-9.2543,-8.7958,-10.3729
187.5000,-4.6083,-9.0852,-12.5477,-18.5581,-16.4792,-8.4918,-1.9608,-13.2717,-7.8751,-6.6209,-3.4975,-5.5291,-11.7827,-13.5839,-1.2405,3.1553,-9.2352,-10.3232,-13.7176
191.4062,-8.2972,-8.5617,-13.6182,-19.1974,-17.1604,-10.7373,-3.5824,-14.4068,-8.2218,-7.6992,-3.3259,-7.6133,-12.6987,-12.7975,-0.4217,2.3548,-7.2977,-10.5141,-14.9426
195.3125,-11.3091,-7.6265,-11.7865,-16.2596,-15.4958,-12.6391,-7.5105,-13.4613,-7.2069,-7.5831,-2.3950,-8.6610,-11.2049,-9.8965,1.1641,1.1428,-4.0095,-9.1869,-13.4176
199.2188,-12.7909,-6.8012,-7.3041,-10.2183,-11.6421,-13.6950,-13.5351,-10.7915,-5.1821,-6.3493,-1.6414,-8.3992,-7.7987,-5.4619,2.7540,-0.2581,-0.4523,-6.7467,-9.4380
203.1250,-12.2397,-6.2254,-1.7985,-2.7888,-6.4095,-13.2372,-19.7259,-7.2643,-3.1799,-4.4434,-2.0083,-7.2344,-3.7348,-0.5575,3.4498,-1.6669,2.1410,-4.1225,-4.2509
207.0312,-9.6898,-5.6129,2.4482,3.7174,-1.0422,-10.8162,-23.3078,-3.8863,-2.2880,-2.4468,-3.7735,-5.9765,-0.4502,3.5815,2.7378,-2.9381,2.8640,-2.3187,0.4642
210.9375,-5.6474,-4.4818,3.7371,7.4272,3.2226,-6.5273,-22.1628,-1.4000,-2.9186,-0.7615,-6.2333,-5.2601,1.1500,5.9700,0.8228,-3.8945,1.5210,-1.8468,3.3886
214.8438,-0.8842,-2.5388,1.9388,7.7454,5.6027,-1.1427,-16.1286,-0.0654,-4.4768,0.5609,-7.9845,-5.0834,1.1159,6.2040,-1.4274,-4.2781,-1.2785,-2.4247,4.1646
218.7500,3.7554,0.0247,-1.4238,5.5117,5.9971,4.0183,-7.3055,0.2899,-5.6762,1.7241,-7.6742,-4.8080,0.3278,4.5490,-2.8938,-3.8012,-4.3805,-3.1626,3.4514
222.6562,7.4715,2.5349,-4.0764,2.4075,4.8992,7.4799,0.9043,0.0458,-5.3110,2.9122,-4.7847,-3.6319,-0.0872,1.7723,-2.7353,-2.3030,-6.5847,-3.1248,2.4267
226.5625,9.6076,4.1727,-4.3171,0.0040,3.0874,8.1746,5.5608,-0.4342,-2.9898,4.0600,0.0164,-1.2010,0.5846,-1.1565,-0.7570,0.0718,-7.1298,-1.8925,2.0748
230.4688,9.8018,4.4491,-1.9390,-0.9704,1.2920,5.9651,5.7548,-0.9022,0.6314,4.8532,5.1770,2.0709,2.3118,-3.3453,2.5397,2.8087,-5.9307,0.2334,2.7002
234.3750,8.1571,3.5150,1.7875,-0.7514,0.0004,1.8367,3.0069,-1.2064,4.2386,4.9565,9.0331,5.1933,4.4707,-4.1612,6.1941,5.1565,-3.4834,2.4876,3.9216
238.2812,5.2961,2.0833,4.9891,-0.0870,-0.5681,-2.4431,0.1916,-1.2504,6.5933,4.2870,10.5997,7.1544,6.2996,-3.3373,9.1538,6.4236,-0.5494,4.1360,5.0611
242.1875,2.1795,1.0008,6.3060,0.3980,-0.4044,-5.1222,-0.3854,-1.0096,7.1415,3.1145,9.9372,7.4572,7.3059,-1.0572,10.6127,6.2882,2.1626,4.8558,5.6058
246.0938,-0.2765,0.7451,5.5503,0.5757,0.3311,-5.3273,1.4801,-0.5872,6.1603,1.9144,7.9272,6.3027,7.3740,2.0024,10.2287,4.9457,4.1547,4.7768,5.4340
250.0000,-1.5762,1.1862,3.5845,0.7349,1.3144,-3.4791,3.8062,-0.2152,4.4377,1.0914,5.6598,4.3593,6.6005,4.7679,8.2040,3.0040,5.1278,4.2382,4.7268
253.9062,-1.7732,1.7741,1.6320,1.2033,2.1002,-0.9610,3.9203,-0.1279,2.7679,0.7882,3.8443,2.3429,5.0959,6.0946,5.2328,1.1815,4.9249,3.5095,3.7295
257.8125,-1.2677,2.0105,0.5518,2.0191,2.2700,0.7893,0.5661,-0.3518,1.6004,0.9104,2.5910,0.7126,2.9742,5.2649,2.3117,-0.0243,3.5554,2.7038,2.6037
261.7188,-0.4312,1.8590,0.5241,2.9037,1.6584,1.1913,-4.8505,-0.5652,1.0066,1.3120,1.6298,-0.3651,0.5335,2.4231,0.4238,-0.5190,1.3029,1.8985,1.4748
265.6250,0.6508,1.7797,1.2212,3.5152,0.5135,0.8252,-8.8513,-0.1856,0.8705,1.9584,0.7325,-0.8671,-1.5955,-1.3519,0.1713,-0.5652,-1.2136,1.2851,0.5696
269.5312,2.1183,2.3487,2.1985,3.7356,-0.5606,0.9100,-8.0565,1.2943,1.0791,2.9084,-0.0094,-0.7881,-2.5818,-4.4782,1.5014,-0.5603,-3.1715,1.1455,0.2401
273.4375,4.0130,3.7311,3.1539,3.7325,-0.9128,2.3157,-1.5460,3.8910,1.5480,4.1258,-0.2601,-0.1692,-1.8352,-5.6421,3.6825,-0.7831,-3.8832,1.6272,0.7697
277.3438,5.9743,5.4024,3.9082,3.7431,-0.2484,4.8137,8.2105,6.9119,2.1015,5.2930,0.2050,0.7700,0.5013,-4.4912,5.5885,-1.2507,-3.1679,2.4991,2.0744
281.2500,7.2424,6.3540,4.2309,3.7698,1.1277,7.1189,16.5792,9.1356,2.3688,5.8274,1.1583,1.5718,3.3936,-1.8267,6.1892,-1.7484,-1.5095,3.1313,3.5507
285.1562,7.0354,5.6759,3.7600,3.4664,2.4175,7.7211,19.4308,9.3700,1.8524,5.1546,1.8904,1.6801,5.2988,0.8477,5.0144,-1.9943,0.1440,2.7916,4.2644
289.0625,5.0695,3.1343,2.1518,2.3479,2.7523,5.9343,15.5437,7.1106,0.1818,3.0869,1.5688,0.7297,4.9399,2.1604,2.3587,-1.8330,0.8467,1.0954,3.4297
292.9688,1.8512,-0.6494,-0.6299,0.1980,1.6898,2.4208,7.1909,2.9235,-2.6006,0.0456,-0.2271,-1.2068,2.0220,1.5913,-0.8740,-1.3487,0.1146,-1.6982,0.9017
296.8750,-1.4960,-4.5451,-4.1213,-2.6265,-0.5176,-1.1920,-1.4254,-1.7062,-5.9247,-3.0578,-3.1513,-3.6028,-2.5550,-0.3454,-3.5935,-0.8339,-1.8914,-4.7677,-2.6470
300.7812,-3.7964,-7.5488,-7.4454,-5.2454,-3.0438,-3.3433,-6.7960,-5.0256,-8.8616,-5.2446,-6.1805,-5.7133,-7.1341,-2.5177,-4.9887,-0.6272,-4.5329,-7.1504,-6.0025
304.6875,-4.4324,-9.2790,-9.6586,-6.6673,-4.9140,-3.5048,-8.0327,-5.8405,-10.5083,-5.9525,-8.1229,-6.9098,-10.1260,-3.8752,-4.8126,-0.9024,-7.0555,-8.2231,-7.9860
308.5938,-3.6163,-10.0136,-10.1553,-6.3131,-5.4693,-2.4132,-6.9079,-4.0776,-10.3843,-5.2860,-8.2469,-6.9061,-10.7337,-3.9662,-3.3870,-1.5285,-8.8868,-7.9320,-7.9910
312.5000,-2.1694,-10.2861,-8.8963,-4.3163,-4.6134,-1.4270,-6.1605,-0.7795,-8.6283,-3.8852,-6.6511,-5.7749,-9.1861,-2.9860,-1.3771,-2.1011,-9.7159,-6.6540,-6.1864
316.4062,-0.9793,-10.3700,-6.3603,-1.4195,-2.7476,-1.4828,-7.3847,2.4568,-5.8999,-2.5066,-4.1593,-3.8199,-6.4229,-1.4273,0.5107,-2.1584,-9.4036,-4.8474,-3.3238
320.3125,-0.5030,-10.0486,-3.2944,1.4419,-0.5063,-2.4063,-10.0030,4.2778,-3.0580,-1.5919,-1.8321,-1.4536,-3.5115,0.3313,1.7662,-1.4845,-7.9039,-2.7856,-0.3320
324.2188,-0.6223,-8.8408,-0.4371,3.5784,1.5097,-3.0702,-11.9428,4.1728,-0.7987,-1.0940,-0.4096,0.8396,-1.1794,2.1710,2.1718,-0.3138,-5.3257,-0.5666,2.0349
328.1250,-0.8932,-6.5040,1.6579,4.7354,2.8639,-2.2834,-11.3775,2.5717,0.5679,-0.6511,-0.0143,2.5076,0.3085,4.0446,1.7740,0.7234,-2.0861,1.6564,3.3380
332.0312,-0.9592,-3.4167,2.6742,4.9712,3.2879,0.2328,-8.1767,0.4467,1.1215,0.0396,-0.2425,3.0291,0.9763,5.6781,0.7902,0.9398,1.0365,3.4790,3.4157
335.9375,-0.8062,-0.5241,2.5288,4.3961,2.6601,3.4980,-4.0098,-1.2947,1.1611,0.9268,-0.5148,2.1524,0.9029,6.4800,-0.4894,0.0399,3.1049,4.3166,2.3118
339.8438,-0.6818,1.1584,1.3716,3.0294,1.0436,5.8425,-1.0921,-2.2474,0.9931,1.6115,-0.4209,0.1509,0.1377,5.8047,-1.7692,-1.6049,3.4383,3.7541,0.2743
343.7500,-0.7676,1.1655,-0.4160,0.9004,-1.2405,6.0340,-0.5574,-2.5479,0.8013,1.6595,0.1436,-2.1319,-1.2017,3.4173,-2.7825,-3.0805,1.9960,1.9309,-2.2065
347.6562,-0.8880,-0.0990,-2.2743,-1.7093,-3.6101,4.1921,-1.6682,-2.5665,0.6481,1.0010,1.0612,-3.5873,-2.7928,-0.1867,-3.3088,-3.4367,-0.5478,-0.3578,-4.4418
351.5625,-0.5178,-1.5707,-3.6087,-4.1348,-5.3721,1.8335,-2.4185,-2.5249,0.5624,0.1117,2.1537,-3.4022,-4.1101,-3.8812,-3.1980,-2.2919,-3.1252,-1.9907,-5.7469
355.4688,0.8656,-2.1451,-3.9896,-5.5035,-5.9942,0.9526,-1.0603,-2.3292,0.6151,-0.2012,3.2617,-1.5537,-4.6229,-6.4187,-2.4178,-0.1424,-4.8108,-2.1243,-5.7403
359.3750,3.3070,-1.3230,-3.3185,-5.1766,-5.3517,2.7029,2.5557,-1.7226,0.9055,0.6833,4.2031,1.0980,-4.0794,-7.0532,-1.1164,1.8636,-5.2402,-0.6991,-4.5570
363.2812,6.1228,0.5095,-1.8722,-3.1883,-3.7911,6.5387,6.7645,-0.6131,1.4575,2.7025,4.7065,3.2247,-2.6909,-5.8920,0.3371,2.5834,-4.6692,1.4872,-2.8180
367.1875,8.1016,2.3157,-0.1989,-0.3622,-1.9565,10.4184,9.1196,0.7020,2.1057,4.9847,4.4448,3.7239,-1.0854,-3.7722,1.3905,1.5611,-3.6881,3.2015,-1.3483
371.0938,8.0974,2.9863,1.0808,2.0261,-0.4790,11.9878,7.9475,1.6128,2.4730,6.2398,3.1919,2.2670,-0.0495,-1.7607,1.4597,-0.7146,-2.8342,3.4359,-0.8076
375.0000,5.6765,1.9061,1.4770,2.8745,0.2873,10.0149,3.3905,1.5453,2.0944,5.4669,0.9959,-0.6315,-0.1958,-0.6034,0.1642,-3.1545,-2.3702,1.9039,-1.4488
378.9062,1.4139,-0.7965,0.7638,1.7971,0.3448,5.1543,-2.6950,0.3424,0.6407,2.5542,-1.7845,-4.0322,-1.7203,-0.4422,-2.4536,-4.7816,-2.3245,-0.9112,-3.1156
382.8125,-3.3713,-4.3994,-0.9855,-0.7427,-0.0599,-0.4672,-7.8379,-1.5956,-1.8836,-1.6221,-4.6405,-7.1608,-4.3398,-0.9083,-5.8567,-5.3231,-2.6638,-4.1381,-5.4177
386.7188,-7.3011,-7.9842,-3.4490,-3.7690,-0.6249,-4.5844,-10.2981,-3.5192,-5.0948,-5.6839,-7.1693,-9.7610,-7.4051,-1.4599,-9.1692,-5.2784,-3.3910,-7.0449,-7.9179
390.6250,-9.6304,-10.8324,-6.1649,-6.3652,-1.1256,-6.1744,-9.8408,-4.7512,-8.3810,-8.5249,-9.2444,-12.0089,-10.1248,-1.7082,-11.5203,-5.4385,-4.4739,-9.3688,-10.2107
394.5312,-10.5246,-12.6340,-8.6688,-8.1095,-1.4365,-5.9745,-7.5780,-5.0451,-11.1743,-9.8794,-10.9782,-14.1259,-11.8255,-1.5501,-12.4210,-6.2304,-5.7090,-11.2785,-11.9136
398.4375,-10.7728,-13.4749,-10.6293,-9.1337,-1.4937,-5.8029,-5.1261,-4.6579,-13.1941,-10.3291,-12.5274,-16.0456,-12.1848,-1.1005,-11.9794,-7.3863,-6.7134,-13.0682,-12.6925
402.3438,-11.1586,-13.6883,-11.9420,-9.8398,-1.2875,-7.1699,-3.6908,-4.1222,-14.5283,-10.7735,-13.9202,-17.4246,-11.3767,-0.5544,-10.8344,-8.1854,-7.1395,-14.8534,-12.4070
406.2500,-11.9339,-13.6839,-12.7451,-10.5385,-0.9191,-10.1594,-3.6181,-3.9038,-15.5174,-11.7533,-15.0604,-17.9890,-10.0622,-0.1153,-9.8407,-8.0789,-6.9846,-16.4973,-11.3138
410.1562,-12.7493,-13.8197,-13.3416,-11.2836,-0.6658,-13.3762,-4.5549,-4.1805,-16.5259,-13.1089,-15.9014,-17.9169,-9.1836,-0.0176,-9.6704,-7.2071,-6.7353,-17.7938,-10.1391
414.0625,-13.0552,-14.3231,-14.0542,-11.9859,-0.9531,-14.9952,-5.9566,-4.8568,-17.7388,-14.1933,-16.6125,-17.9013,-9.5953,-0.5552,-10.5348,-6.3891,-7.1620,-18.7242,-9.8584
417.9688,-12.6404,-15.2467,-15.0757,-12.6489,-2.1826,-14.1518,-7.5146,-5.7399,-19.0887,-14.4501,-17.5431,-18.7675,-11.6660,-2.0084,-12.1502,-6.5580,-8.8340,-19.5497,-11.2153
421.8750,-11.8738,-16.4593,-16.3765,-13.4718,-4.4797,-11.6481,-9.2221,-6.6999,-20.3279,-13.8954,-18.9497,-20.8692,-15.0420,-4.4529,-13.9315,-8.0427,-11.6640,-20.6316,-14.2324
425.7812,-11.4453,-17.6865,-17.7054,-14.6911,-7.5107,-9.4277,-11.1073,-7.6848,-21.1720,-13.1264,-20.6739,-23.6891,-18.7179,-7.5590,-15.2819,-10.2285,-14.8131,-22.0951,-18.0422
429.6875,-11.7915,-18.6000,-18.6738,-16.2664,-10.5063,-9.1694,-12.9115,-8.6130,-21.4190,-12.8445,-22.0513,-25.9643,-21.4142,-10.5476,-15.8194,-11.8693,-17.0599,-23.5871,-21.1999
433.5938,-12.6527,-18.9187,-18.8810,-17.6801,-12.5185,-11.0132,-14.0124,-9.2780,-20.9891,-13.2614,-22.1933,-26.3132,-22.0949,-12.4024,-15.4473,-11.8534,-17.4236,-24.3396,-22.3449
437.5000,-13.1340,-18.4735,-18.0342,-18.0662,-12.7997,-13.3696,-13.7014,-9.3869,-19.8931,-13.8543,-20.5096,-23.9941,-20.3753,-12.2790,-14.2780,-9.8985,-15.6506,-23.5379,-20.8382
441.4062,-12.2755,-17.2095,-16.0280,-16.6482,-11.1188,-13.9919,-11.6489,-8.7262,-18.1799,-13.6767,-17.1269,-19.3275,-16.6277,-9.9157,-12.4948,-6.7079,-12.2773,-20.7840,-17.0118
445.3125,-9.7462,-15.1530,-12.9695,-13.2237,-7.8640,-11.5715,-8.2368,-7.3235,-15.9131,-12.0176,-12.8955,-13.5326,-11.7611,-5.8172,-10.2555,-3.5063,-8.2698,-16.3630,-11.9118
449.2188,-6.1584,-12.4008,-9.1498,-8.3688,-3.8951,-6.7130,-4.4917,-5.4626,-13.1885,-8.9305,-8.9509,-8.1003,-6.8223,-1.0957,-7.6899,-1.3043,-4.5164,-11.1446,-6.7364
453.1250,-2.7518,-9.1609,-4.9793,-3.2128,-0.2275,-1.5752,-1.6050,-3.5235,-10.1758,-5.2535,-6.1106,-4.1038,-2.6382,2.9693,-4.9768,-0.3989,-1.5006,-6.1844,-2.3335
457.0312,-0.6413,-5.8099,-0.9152,1.0855,2.3106,1.5783,-0.2970,-1.7681,-7.1520,-2.1096,-4.5093,-1.8381,0.3490,5.4387,-2.4272,-0.4012,0.6898,-2.2749,0.9688
460.9375,-0.1364,-2.8804,2.5934,3.8330,3.3196,1.8960,-0.4092,-0.2413,-4.4968,-0.2491,-3.6987,-0.9289,2.0420,6.0434,-0.4847,-0.6808,2.1254,0.2937,3.1915
464.8438,-0.5892,-0.9161,5.1344,4.9830,2.9033,0.4520,-0.9890,1.1305,-2.6331,0.3141,-3.0993,-0.7374,2.5542,5.1907,0.4048,-0.8350,2.8161,1.6668,4.4212
468.7500,-0.8578,-0.2265,6.3612,4.9448,1.5722,-0.5825,-0.8397,2.3307,-1.9088,0.1609,-2.4416,-0.7445,2.1061,3.6716,0.0238,-0.8334,2.6869,2.1644,4.6749
472.6562,-0.0509,-0.6776,6.0591,4.2144,0.0247,0.5030,0.7808,3.1223,-2.4452,-0.0151,-1.8660,-0.6880,1.0031,2.2423,-1.3976,-0.7936,1.7320,2.0505,4.0009
476.5625,1.9466,-1.6754,4.2629,3.1065,-1.1201,3.7805,3.7257,3.1349,-4.0100,0.1497,-1.6372,-0.4629,-0.3550,1.2967,-3.1270,-0.6548,0.1723,1.4878,2.6747
480.4688,4.4801,-2.4095,1.3719,1.7406,-1.5428,7.6779,7.0444,2.1378,-5.9992,0.5830,-1.7412,0.0316,-1.5191,0.7813,-4.1368,-0.0797,-1.5490,0.6577,1.2579
484.3750,6.5901,-2.2545,-1.8439,0.2165,-1.3106,10.0862,9.5287,0.3088,-7.5891,1.0048,-1.7317,0.9150,-2.1234,0.3618,-3.5418,1.2957,-2.9498,-0.1197,0.3995
488.2812,7.5791,-1.1036,-4.4366,-1.2285,-0.7873,9.7573,10.3886,-1.7186,-8.0404,1.2385,-0.9918,2.1942,-2.0425,-0.2784,-1.0771,3.4624,-3.7387,-0.4288,0.4819
492.1875,7.3155,0.5760,-5.6485,-2.2468,-0.4021,7.0405,9.6647,-3.1027,-7.0341,1.3326,0.7624,3.6197,-1.4594,-1.1882,2.6496,5.8311,-3.9205,0.0183,1.3672
496.0938,6.1556,2.0171,-5.2922,-2.5787,-0.3964,3.5398,8.1537,-3.2104,-4.8601,1.4293,3.1262,4.6978,-0.7691,-2.0831,6.3182,7.4322,-3.7162,1.1327,2.4490
500.0000,4.6332,2.5959,-3.9037,-2.2554,-0.6893,1.0369,6.9120,-1.9561,-2.3281,1.5461,5.1022,4.9025,-0.3559,-2.4935,8.4486,7.4270,-3.3778,2.3826,3.0027
503.9062,3.1681,2.1664,-2.5198,-1.6257,-0.9495,0.4502,6.6289,0.1378,-0.4131,1.4942,5.6342,3.9589,-0.3806,-2.0396,8.0867,5.5979,-3.0464,3.0069,2.6099
507.8125,1.9402,1.0724,-2.1474,-1.1697,-0.8335,1.4500,7.2059,2.1854,0.1871,1.0097,4.2405,1.9972,-0.7206,-0.6785,5.2584,2.4925,-2.7408,2.4053,1.3756
511.7188,0.9047,-0.1616,-3.2081,-1.2296,-0.2425,2.8167,7.7535,3.3390,-0.6567,-0.0369,1.3242,-0.5301,-1.1053,1.2125,0.9377,-0.8587,-2.4402,0.4646,-0.1919
515.6250,-0.1504,-1.2401,-5.2975,-1.8488,0.5746,3.1675,7.0043,3.1328,-2.5222,-1.5535,-2.0406,-3.0985,-1.3487,2.9697,-3.4555,-3.4475,-2.1590,-2.3846,-1.5328
519.5312,-1.5419,-2.3104,-7.4262,-2.8136,1.1502,1.5840,3.9577,1.6246,-4.7254,-3.3365,-4.7000,-5.3376,-1.5047,3.9353,-6.7365,-4.7001,-1.9366,-5.4047,-2.3626
523.4375,-3.5682,-3.8174,-8.6047,-3.8325,1.0909,-2.0862,-1.5237,-0.6806,-6.6851,-5.2490,-6.0019,-7.0812,-1.8216,3.7690,-8.4295,-4.5925,-1.7710,-7.9135,-2.7567
527.3438,-6.2845,-6.0881,-8.4048,-4.6903,0.3462,-7.2058,-8.4427,-3.0404,-8.1285,-7.2609,-6.0228,-8.2471,-2.5167,2.6235,-8.7963,-3.4958,-1.5841,-9.5351,-2.9718
531.2500,-9.2685,-8.9413,-7.1406,-5.2655,-0.7206,-12.4828,-14.8915,-4.7179,-9.0436,-9.2805,-5.3565,-8.7015,-3.5372,1.0914,-8.4679,-1.9362,-1.2823,-10.2142,-3.1721
535.1562,-11.5950,-11.6189,-5.5700,-5.4428,-1.5180,-16.2631,-18.7534,-5.1938,-9.4714,-10.9362,-4.6689,-8.2698,-4.4950,-0.0615,-7.9722,-0.4296,-0.8735,-10.0536,-3.2798
539.0625,-12.1794,-13.1276,-4.3469,-5.0553,-1.5584,-17.0579,-18.6324,-4.3169,-9.3441,-11.5770,-4.3354,-6.9140,-4.8541,-0.2511,-7.4716,0.5820,-0.5287,-9.1539,-3.0509
542.9688,-10.4027,-12.7975,-3.6173,-3.9617,-0.7363,-14.2469,-14.5830,-2.3640,-8.5193,-10.6145,-4.3566,-4.9249,-4.2661,0.6535,-6.8424,0.7839,-0.5035,-7.5972,-2.2944
546.8750,-6.6472,-10.6961,-3.0345,-2.2250,0.6156,-8.6247,-8.2252,0.0314,-6.9813,-8.0231,-4.5257,-2.9245,-2.8300,2.2816,-5.9643,0.0988,-0.9460,-5.5607,-1.0513
550.7812,-2.3198,-7.6144,-2.1512,-0.2318,1.9208,-2.3397,-2.0881,2.0931,-5.0243,-4.6067,-4.6563,-1.6017,-1.0879,3.9590,-4.9497,-1.1947,-1.7313,-3.4127,0.4101
554.6875,0.7784,-4.6169,-0.8650,1.3989,2.6852,1.9703,1.5592,3.2010,-3.2227,-1.7321,-4.6903,-1.3229,0.2626,5.0473,-4.1163,-2.4748,-2.4677,-1.6459,1.7678
558.5938,1.4278,-2.4370,0.4371,2.1169,2.7616,2.5022,1.7918,3.1427,-2.1507,-0.6024,-4.6441,-1.8885,0.7636,5.2388,-3.7318,-3.0104,-2.7050,-0.6442,2.8481
562.5000,-0.2976,-1.1072,1.1539,1.7707,2.4095,-0.6980,-0.5843,2.1817,-2.0200,-1.5154,-4.4905,-2.6393,0.4486,4.6512,-3.7501,-2.3395,-2.2229,-0.4382,3.6955
566.4062,-3.0736,-0.0596,0.9554,0.7276,2.1296,-5.7244,-3.5808,0.8959,-2.5006,-3.6322,-4.1093,-2.8765,-0.2171,3.6813,-3.7764,-0.5682,-1.2024,-0.6541,4.4643
570.3125,-5.1327,1.3799,0.0961,-0.3279,2.3760,-9.8883,-5.1897,-0.1248,-2.8873,-5.4618,-3.3584,-2.3270,-0.6617,2.7239,-3.3229,1.6283,-0.1501,-0.7300,5.2203
574.2188,-5.3177,3.4443,-0.7031,-0.8016,3.3029,-11.2317,-4.4596,-0.5468,-2.5401,-5.7712,-2.2074,-1.3302,-0.5865,1.9407,-2.1844,3.3385,0.3849,-0.2787,5.8120
578.1250,-3.6961,5.6945,-0.7436,-0.5344,4.6701,-9.5061,-1.8519,-0.3833,-1.3220,-4.3182,-0.8218,-0.6081,-0.1501,1.2207,-0.6521,3.8947,0.1224,0.6510,5.9141
582.0312,-1.3555,7.2587,0.1391,0.1460,5.9404,-6.0221,1.2701,0.1130,0.2627,-1.9222,0.4704,-0.7648,0.1562,0.3444,0.6167,3.2054,-0.8055,1.6052,5.2234
585.9375,0.4198,7.3787,1.4212,0.6926,6.5174,-2.5769,3.5932,0.6438,1.3434,0.1464,1.3141,-1.8542,-0.1492,-0.7787,1.0179,1.7512,-1.9560,2.0356,3.6812
589.8438,0.9794,5.9042,2.2270,0.7257,6.0139,-0.2962,4.5763,1.0026,1.2115,1.0063,1.4853,-3.3067,-1.1981,-1.9756,0.4386,0.2807,-2.8332,1.6794,1.5839
593.7500,0.5778,3.4202,1.9397,0.2702,4.4419,0.7919,4.5087,1.0873,-0.2233,0.6521,0.9929,-4.2574,-2.6472,-2.8765,-0.5888,-0.5736,-3.1223,0.7518,-0.4850
597.6562,-0.0232,0.9453,0.6689,-0.3044,2.2453,1.2740,4.0095,0.8420,-2.3367,-0.2033,0.0897,-4.0516,-3.8311,-3.1365,-1.1421,-0.5272,-2.7651,-0.1745,-1.8642
601.5625,-0.2298,-0.5861,-0.7562,-0.5663,0.1557,1.5186,3.4752,0.2364,-4.1100,-0.7362,-0.8008,-2.5965,-4.0895,-2.6541,-0.4398,0.3564,-1.8719,-0.5098,-2.0653
605.4688,-0.0100,-0.7364,-1.2799,-0.3066,-1.0832,1.2854,2.9496,-0.6652,-4.6706,-0.5774,-1.2139,-0.3579,-3.0820,-1.6352,1.6712,1.8072,-0.5833,0.0228,-0.9596
609.3750,0.2705,0.3433,-0.2890,0.3662,-1.0228,0.1267,2.4619,-1.6094,-3.7337,0.0662,-0.8014,1.9530,-0.9333,-0.4662,4.5682,3.4772,0.9860,1.2695,1.1612
613.2812,0.3635,2.1239,1.9644,1.1512,0.2811,-1.8154,2.4206,-2.1641,-1.7036,0.7494,0.5261,3.7655,1.8302,0.5048,7.1420,4.9855,2.6866,2.7768,3.6642
617.1875,0.5094,4.0128,4.4483,1.7653,2.2600,-3.4186,3.5753,-1.9074,0.5862,1.2428,2.5285,4.8638,4.4920,1.1237,8.3636,5.9348,4.2365,4.0496,5.7713
621.0938,1.3039,5.5597,5.8901,2.0715,4.0511,-3.1068,6.4310,-0.7172,2.3166,1.7064,4.6939,5.3453,6.3973,1.4334,7.8130,5.9969,5.2187,4.7574,6.8201
625.0000,3.1379,6.4847,5.4483,2.0621,4.8658,-0.0259,10.5429,1.0412,3.0496,2.4568,6.4280,5.4213,7.1606,1.5611,5.8882,5.0803,5.2422,4.7964,6.5091
628.9062,5.6736,6.6176,3.1428,1.7663,4.3480,5.0237,14.3455,2.6108,2.8476,3.5599,7.3009,5.2419,6.7812,1.6088,3.5916,3.4657,4.1994,4.2346,5.0325
632.8125,7.8257,5.8864,-0.1678,1.2085,2.7526,9.7235,15.8534,3.2276,2.1355,4.6281,7.2198,4.8575,5.6456,1.6445,2.0252,1.7558,2.4506,3.2375,3.0260
636.7188,8.3450,4.4041,-3.2130,0.4610,0.8468,11.5117,13.9044,2.5828,1.4312,5.0222,6.4262,4.2984,4.4041,1.7772,1.8656,0.5995,0.7711,2.0372,1.3197
640.6250,6.6264,2.5581,-4.8920,-0.2785,-0.4327,9.1899,9.1049,1.0583,1.1090,4.3176,5.3184,3.6609,3.7356,2.2045,3.0852,0.3345,0.0302,0.9265,0.5877
644.5312,3.1699,0.9555,-4.7220,-0.7086,-0.4159,3.7409,3.7243,-0.4525,1.2963,2.6650,4.2246,3.1121,4.0617,3.1306,5.0385,0.7953,0.7441,0.2154,1.0548
648.4375,-0.6461,0.1703,-2.9693,-0.5862,0.9738,-2.2425,0.4568,-1.0606,1.9060,0.7523,3.2839,2.8113,5.3278,4.5645,6.8368,1.4462,2.7492,0.1238,2.4074
652.3438,-3.3385,0.4152,-0.4522,0.0703,3.1585,-6.1435,0.7762,-0.4199,2.7410,-0.6151,2.5103,2.8241,6.9721,6.1472,7.7950,1.7700,5.2028,0.6641,3.9583
656.2500,-4.1220,1.3730,1.8542,0.9126,5.1455,-6.8330,3.9592,1.0566,3.5954,-1.0047,1.9662,3.0968,8.1366,7.1780,7.7136,1.6387,6.9483,1.6109,4.9809
660.1562,-3.2264,2.3579,3.2195,1.4330,5.9645,-5.1066,7.4633,2.4488,4.3121,-0.5615,1.8685,3.4980,8.0481,6.9041,6.8699,1.3888,7.0700,2.6067,5.0390
664.0625,-1.5761,2.7608,3.4049,1.2938,5.1082,-2.8402,8.4672,2.8929,4.7956,0.2000,2.4925,3.8733,6.3887,4.9388,5.7592,1.5301,5.3487,3.3524,4.1503
667.9688,-0.1141,2.5028,2.6767,0.5914,2.7737,-1.5628,5.6132,2.0949,5.0012,0.8271,3.9030,4.0638,3.4681,1.5581,4.7661,2.2979,2.3712,3.7526,2.7198
671.8750,0.7398,2.1680,1.6129,-0.1589,-0.2095,-1.4965,-0.1448,0.4745,4.9158,1.2371,5.7108,3.8962,0.1004,-2.3354,3.9651,3.3868,-0.7623,3.9129,1.3068
675.7812,1.1666,2.6637,0.8086,-0.3423,-2.7402,-1.6816,-6.0988,-1.1310,4.5425,1.6773,7.0901,3.2015,-2.7488,-5.5887,3.1586,4.0868,-2.9701,3.9955,0.3634
679.6875,1.5899,4.5717,0.6224,0.3354,-3.9337,-0.9706,-9.3731,-1.9891,3.8951,2.4014,7.1371,1.9028,-4.3640,-7.3102,2.1043,3.7488,-3.6696,4.0519,0.0738
683.5938,2.2160,7.6018,1.0720,1.6234,-3.5090,0.9411,-8.5495,-1.8723,3.0105,3.3466,5.4076,0.1381,-4.5299,-7.2255,0.7660,2.2569,-2.9636,3.9736,0.3481
687.5000,2.8286,10.5429,1.9096,2.8763,-1.8862,3.2291,-4.3857,-1.0976,1.9813,4.0911,2.2978,-1.6768,-3.5264,-5.6910,-0.5823,0.1682,-1.4658,3.6096,0.9388
691.4062,2.9727,11.8253,2.8121,3.4948,0.0604,4.5629,0.7137,-0.2220,0.9897,4.1417,-1.0167,-2.9376,-1.9067,-3.4010,-1.4724,-1.5890,0.0904,2.9593,1.5998
695.3125,2.3610,10.4125,3.5679,3.3581,1.4677,4.1188,4.0633,0.3614,0.3081,3.3370,-3.1160,-3.0877,-0.1992,-1.0016,-1.5031,-2.2597,1.2177,2.2794,2.2097
699.2188,1.1855,6.4935,4.1579,2.9383,1.9250,2.2051,4.0680,0.6440,0.2307,2.0522,-3.0695,-1.8882,1.3088,1.1469,-0.5857,-1.6857,1.8210,1.9917,2.8116
703.1250,0.0922,1.5210,4.6981,2.9989,1.6483,0.0519,0.8671,0.9080,0.9372,1.0291,-0.9420,0.4341,2.6135,2.9581,0.9751,-0.3348,2.0941,2.4258,3.5644
707.0312,-0.1862,-2.4877,5.3013,4.0639,1.2884,-1.0606,-3.9872,1.4245,2.3450,0.9159,2.2364,3.2550,3.8726,4.4359,2.6057,1.0549,2.2893,3.5582,4.6295
710.9375,0.6843,-4.0185,5.9550,6.0087,1.4847,-0.7093,-8.5140,2.1853,4.0451,1.8146,5.0258,5.8024,5.2089,5.5033,3.7179,1.9526,2.5368,4.9360,6.0416
714.8438,2.3407,-2.8770,6.4927,8.0507,2.4324,0.3505,-11.3447,2.8711,5.4006,3.1388,6.3276,7.4525,6.5552,5.9808,3.9517,2.3077,2.8143,5.8597,7.6268
718.7500,3.8171,-0.2635,6.6716,9.1623,3.7322,0.6494,-12.2719,3.0751,5.8058,3.8931,5.8920,7.9263,7.6287,5.7242,3.2934,2.4600,3.0409,5.7384,9.0187
722.6562,4.0151,1.9539,6.2988,8.6570,4.6281,-1.0499,-12.0829,2.6151,4.9966,3.2308,4.3046,7.3170,8.0525,4.8012,2.0366,2.7887,3.1841,4.4189,9.7895
726.5625,2.3195,2.3402,5.3347,6.5986,4.4956,-4.9074,-11.8500,1.7096,3.2412,0.9698,2.5148,5.9834,7.5660,3.5684,0.6307,3.3704,3.2844,2.2994,9.6474
730.4688,-0.9773,0.7096,3.9209,3.7950,3.2774,-9.7515,-12.1282,0.8919,1.2749,-2.2270,1.2425,4.3913,6.2142,2.5785,-0.4973,3.8867,3.3929,0.1666,8.6024
734.3750,-4.6991,-1.8255,2.3358,1.3951,1.5822,-13.5545,-12.5418,0.7191,-0.0256,-5.1213,0.6475,2.9749,4.3992,2.3602,-1.0809,3.8317,3.4956,-1.1557,7.0011
738.2812,-7.2925,-3.5822,0.9102,0.3304,0.3673,-14.3873,-12.0166,1.4597,-0.0720,-6.4805,0.4392,2.0392,2.7448,3.1804,-1.0718,2.8652,3.5054,-1.1614,5.3933
742.1875,-7.5775,-3.3375,-0.0577,0.9065,0.3838,-11.3689,-9.5314,2.9505,1.1378,-5.6678,0.2860,1.7005,1.8199,4.9016,-0.6135,1.0722,3.3304,0.1488,4.2898
746.0938,-5.3391,-1.0182,-0.3685,2.7398,1.7243,-5.1355,-4.9356,4.6900,3.0338,-2.9288,0.1885,1.8674,1.8613,6.9933,0.0502,-1.0348,2.9536,2.3169,3.9396
750.0000,-1.4194,2.3551,0.0368,5.0268,3.7525,2.4083,0.7052,6.0941,4.8016,0.7700,0.5228,2.2851,2.6529,8.6978,0.6919,-2.7611,2.4415,4.6659,4.2484
753.9062,2.7550,5.3761,1.0639,6.9653,5.4623,8.9452,5.5092,6.7595,5.8323,4.2485,1.7178,2.6542,3.6432,9.3009,1.1893,-3.5719,1.8687,6.5936,4.8795
757.8125,5.9304,7.1045,2.4919,8.0991,6.0492,12.7773,7.7343,6.6043,6.0271,6.6705,3.8123,2.7848,4.2465,8.4208,1.5388,-3.3328,1.2303,7.7834,5.4680
761.7188,7.6011,7.4920,4.0451,8.4329,5.3499,13.4916,6.7139,5.8482,5.7768,7.8371,6.2408,2.7034,4.1609,6.2069,1.7882,-2.3304,0.4401,8.2501,5.8189
765.6250,8.0570,7.1472,5.4927,8.3067,3.8972,11.9046,3.1736,4.8802,5.6469,8.0695,8.0501,2.6342,3.5164,3.3435,1.9380,-1.0810,-0.5541,8.2306,5.9800
769.5312,7.9171,6.6825,6.7267,8.1354,2.5757,9.3474,-1.2755,4.0950,5.9815,7.8039,8.4415,2.8482,2.7696,0.8169,1.8951,-0.0493,-1.6215,7.9996,6.1637
773.4375,7.5274,6.1732,7.7644,8.1676,2.1050,6.7745,-5.1162,3.7575,6.6826,7.2086,7.2859,3.4661,2.4130,-0.4888,1.5316,0.5666,-2.4084,7.7181,6.5797
777.3438,6.6983,5.1486,8.6590,8.3784,2.6594,4.3028,-7.6972,3.9245,7.2898,6.1066,5.2487,4.3407,2.6787,-0.1895,0.8172,0.8705,-2.4918,7.3843,7.2818
781.2500,4.9903,3.1092,9.3631,8.5260,3.8275,1.4974,-9.2775,4.4332,7.2797,4.2579,3.4064,5.1002,3.4099,1.4144,-0.0819,1.1167,-1.6617,6.8901,8.1035
785.1562,2.3181,0.1472,9.6446,8.3177,4.8968,-1.8312,-10.3709,4.9657,6.3700,1.7688,2.5781,5.3291,4.1620,3.4865,-0.8498,1.4702,-0.1440,6.1258,8.7054
789.0625,-0.6413,-2.8451,9.1426,7.5828,5.2642,-4.9774,-10.9570,5.1871,4.6374,-0.7267,2.7995,4.7732,4.4527,5.0700,-1.2250,1.8325,1.4249,5.0590,8.7030
792.9688,-2.6418,-4.5964,7.5732,6.3611,4.7306,-6.4479,-10.2377,4.9141,2.4124,-2.3170,3.2937,3.4513,4.0048,5.5474,-1.2360,1.8580,2.3060,3.7492,7.8255
796.8750,-2.6150,-4.2411,4.9849,4.8714,3.5388,-4.8896,-7.1970,4.2305,0.0741,-2.3759,2.9741,1.6228,2.8530,4.8867,-1.2774,1.1730,2.0774,2.3127,6.0529
800.7812,-0.4648,-1.9158,1.8955,3.3929,2.1786,-0.2383,-1.5799,3.4632,-2.0880,-1.0448,1.1680,-0.3411,1.2848,3.5461,-1.9136,-0.3260,0.8934,0.8846,3.6821
804.6875,2.6990,1.2700,-0.8231,2.1325,1.1063,5.7952,5.4733,2.9991,-3.8712,0.7453,-1.8977,-2.0945,-0.3184,2.1237,-3.4890,-2.2901,-0.6094,-0.3901,1.2775
808.5938,5.1382,3.8817,-2.3087,1.1525,0.5373,10.4110,11.7021,3.0316,-5.0839,1.7944,-5.1601,-3.3988,-1.6403,0.9919,-5.7953,-4.0026,-1.7177,-1.3522,-0.5095
812.5000,5.5377,4.9773,-2.1528,0.3886,0.3983,11.2726,14.8312,3.3984,-5.5278,1.3794,-7.2962,-4.1446,-2.5235,0.1468,-8.0561,-4.7216,-2.1010,-1.8495,-1.2080
816.4062,3.8254,4.5438,-0.6671,-0.2650,0.4265,7.9523,13.8147,3.6425,-5.1007,-0.2780,-7.4538,-4.3499,-2.9857,-0.6581,-9.3017,-4.1022,-2.0162,-1.8068,-0.7681
820.3125,1.1860,3.2971,1.2143,-0.8637,0.3337,2.2767,9.4019,3.2941,-3.9457,-2.1579,-5.7013,-4.1539,-3.1839,-1.6268,-8.9369,-2.4387,-2.1105,-1.3095,0.3643
824.2188,-0.7477,2.0600,2.3888,-1.3675,-0.0523,-2.7161,3.6661,2.2086,-2.4936,-3.1149,-2.9518,-3.7928,-3.3475,-2.7078,-7.1430,-0.5586,-2.9501,-0.6231,1.4181
828.1250,-0.9672,1.2127,2.1595,-1.6688,-0.7259,-4.5622,-1.1634,0.7299,-1.3087,-2.6204,-0.4478,-3.5330,-3.6943,-3.6105,-4.8319,0.5935,-4.5919,-0.1023,1.6588
832.0312,0.3126,0.5959,0.5991,-1.6722,-1.5345,-2.7529,-3.7988,-0.4641,-0.8100,-1.0749,0.8540,-3.5698,-4.3445,-4.0239,-3.1557,0.4492,-6.4949,-0.0208,0.7561
835.9375,1.9042,-0.1474,-1.5250,-1.3849,-2.2749,1.1459,-4.2802,-0.7695,-1.0652,0.4987,0.6459,-3.9519,-5.2662,-3.8673,-2.8706,-0.9046,-7.8401,-0.4382,-1.0551
839.8438,2.5144,-1.1538,-3.2305,-0.9691,-2.8049,4.6149,-3.5586,-0.0688,-1.8257,1.1287,-0.7762,-4.5963,-6.2893,-3.3814,-3.9538,-2.8182,-8.0531,-1.2129,-3.1279
843.7500,1.5790,-2.2278,-3.9163,-0.7236,-3.1117,5.7140,-2.7152,1.1317,-2.7900,0.4507,-2.8506,-5.4007,-7.1962,-2.9929,-5.7044,-4.4748,-7.1887,-2.1715,-4.7840
847.6562,-0.5024,-3.1134,-3.7040,-0.9889,-3.2977,4.0117,-2.3948,1.9600,-3.8895,-1.2111,-5.1148,-6.3757,-7.8449,-3.0507,-7.2276,-5.3378,-5.9252,-3.3103,-5.6890
851.5625,-2.8153,-3.8635,-3.3108,-2.0016,-3.4873,0.4310,-2.7383,1.6899,-5.3491,-3.2142,-7.3676,-7.6807,-8.2451,-3.6184,-7.9633,-5.3861,-5.1756,-4.8526,-5.9887
855.4688,-4.6426,-4.9155,-3.5439,-3.7532,-3.7154,-3.6630,-3.6629,0.1925,-7.4420,-5.0736,-9.5793,-9.5038,-8.5333,-4.4589,-7.9146,-5.0246,-5.5636,-7.0727,-6.1324
859.3750,-5.8748,-6.7373,-4.7533,-5.9271,-3.8783,-7.3461,-5.1218,-1.9686,-10.1128,-6.6685,-11.6799,-11.8455,-8.8576,-5.2093,-7.4754,-4.7649,-7.0875,-9.9850,-6.5187
863.2812,-6.8564,-9.3076,-6.6059,-7.9682,-3.8009,-10.3782,-7.1033,-3.8643,-12.7853,-8.0751,-13.4165,-14.3639,-9.2548,-5.6152,-7.0465,-4.8978,-9.1558,-13.1308,-7.2137
867.1875,-7.8750,-11.8930,-8.3224,-9.2884,-3.3897,-12.8055,-9.4373,-4.7472,-14.5677,-9.2475,-14.3974,-16.4193,-9.6107,-5.6674,-6.7515,-5.3510,-10.9387,-15.6716,-7.9333
871.0938,-8.7703,-13.3906,-9.2032,-9.5311,-2.7692,-14.4378,-11.6680,-4.4774,-14.7718,-9.8801,-14.2916,-17.3355,-9.7349,-5.5628,-6.4528,-5.7842,-11.7953,-16.7922,-8.2844
875.0000,-8.9997,-13.0554,-9.0801,-8.7653,-2.2847,-14.7418,-13.1701,-3.5674,-13.4012,-9.6045,-13.0494,-16.7376,-9.4963,-5.5364,-6.0026,-5.8258,-11.5296,-16.1832,-8.0821
878.9062,-8.0996,-11.0871,-8.3951,-7.4928,-2.3371,-13.2531,-13.4425,-2.8394,-11.2422,-8.3573,-11.0015,-14.7649,-8.9192,-5.6904,-5.4824,-5.2898,-10.3703,-14.2774,-7.5121
882.8125,-6.1497,-8.6076,-7.8761,-6.4387,-3.1347,-10.1253,-12.3510,-2.9322,-9.4526,-6.5874,-8.7734,-12.0298,-8.1776,-5.9348,-5.2053,-4.2611,-8.7584,-12.0577,-7.0287
886.7188,-3.8544,-7.0011,-8.0611,-6.2183,-4.5288,-6.3005,-10.1533,-3.9685,-8.9057,-5.0862,-7.0635,-9.3514,-7.5029,-6.0702,-5.4677,-3.0338,-7.1199,-10.5424,-7.0744
890.6250,-2.1686,-7.0740,-9.0048,-7.0517,-6.0596,-3.1105,-7.3480,-5.5652,-9.7348,-4.5374,-6.3960,-7.4290,-7.0842,-5.9471,-6.2566,-1.9651,-5.7555,-10.2754,-7.8210
894.5312,-1.7520,-8.6349,-10.3469,-8.6804,-7.2069,-1.5899,-4.5277,-7.1303,-11.3864,-5.1188,-6.9580,-6.6288,-7.0287,-5.5932,-7.1688,-1.3300,-4.8554,-11.1501,-9.1003
898.4375,-2.6452,-10.7754,-11.6415,-10.5238,-7.6880,-2.0030,-2.3433,-8.2198,-13.1184,-6.4531,-8.5727,-6.9595,-7.3819,-5.2274,-7.6368,-1.2295,-4.5447,-12.6436,-10.5420
902.3438,-4.3584,-12.5924,-12.6652,-11.9774,-7.6034,-3.8860,-1.4893,-8.7193,-14.5470,-7.9283,-10.7904,-8.1814,-8.1494,-5.1500,-7.3130,-1.5716,-4.8732,-14.2488,-11.7916
906.2500,-6.2357,-13.7669,-13.4679,-12.6794,-7.3253,-6.4753,-2.5204,-8.7749,-15.8182,-9.1109,-13.0335,-9.9326,-9.2635,-5.5745,-6.3245,-2.1222,-5.7452,-15.7572,-12.6486
910.1562,-7.7827,-14.5600,-14.1568,-12.6091,-7.2059,-9.1183,-5.4561,-8.5777,-17.2758,-9.9197,-14.7342,-11.8012,-10.5122,-6.4968,-5.1958,-2.6060,-6.8774,-17.1937,-13.0583
914.0625,-8.7392,-15.2887,-14.6300,-11.9972,-7.3135,-11.3631,-9.4187,-8.1940,-18.9098,-10.4475,-15.4345,-13.3592,-11.5160,-7.6766,-4.4772,-2.8287,-7.8704,-18.5014,-13.0200
917.9688,-8.9456,-15.7856,-14.5182,-11.1415,-7.3863,-12.7766,-12.7002,-7.5651,-20.0645,-10.6336,-14.8642,-14.2230,-11.8335,-8.7436,-4.3430,-2.7652,-8.3965,-19.2945,-12.5320
921.8750,-8.2335,-15.3643,-13.4198,-10.2572,-7.0399,-12.8226,-13.4569,-6.6516,-19.7167,-10.1255,-13.0203,-14.1697,-11.1872,-9.3735,-4.4509,-2.5655,-8.3888,-18.9540,-11.6357
925.7812,-6.5143,-13.3781,-11.2661,-9.4341,-6.0780,-11.0592,-10.7611,-5.5794,-17.1948,-8.5106,-10.2455,-13.2589,-9.6813,-9.4392,-4.1799,-2.4637,-8.0896,-17.0566,-10.5085
929.6875,-4.0129,-9.9297,-8.5283,-8.6844,-4.6813,-7.5754,-5.3550,-4.6513,-12.8422,-5.7640,-7.2498,-11.8601,-7.8524,-9.0544,-3.0957,-2.6357,-7.8934,-13.8311,-9.4888
933.5938,-1.4048,-6.1038,-6.0773,-8.0072,-3.3377,-3.2766,0.4947,-4.1954,-8.1037,-2.5370,-4.9906,-10.5280,-6.4706,-8.4886,-1.3292,-3.0943,-8.0691,-10.2573,-8.9584
937.5000,0.3541,-3.4367,-4.7604,-7.4172,-2.5646,0.3381,4.1052,-4.3568,-4.8810,0.0108,-4.3689,-9.7683,-6.1785,-8.0029,0.3975,-3.6887,-8.5483,-7.6524,-9.1311
941.4062,0.4702,-2.9456,-4.9657,-6.9388,-2.6194,1.8820,3.8407,-4.9848,-4.5111,0.7931,-5.8196,-9.8223,-7.1688,-7.7086,1.1347,-4.2093,-8.9395,-6.9646,-9.8958
945.3125,-1.2493,-4.4349,-6.4568,-6.6065,-3.3916,0.8282,0.0138,-5.7024,-7.0043,-0.5789,-8.9917,-10.5926,-9.0973,-7.5356,0.2530,-4.5171,-8.7825,-8.2304,-10.8447
949.2188,-4.2755,-6.6394,-8.5610,-6.4914,-4.5291,-2.2370,-5.3684,-6.1190,-11.0366,-3.5622,-12.7497,-11.7433,-11.2786,-7.3263,-2.1480,-4.6040,-7.8856,-10.5700,-11.4977
953.1250,-7.6542,-8.1468,-10.5531,-6.7215,-5.6821,-6.0527,-9.8508,-6.0464,-14.7072,-7.0048,-15.5947,-12.8948,-13.0393,-6.9879,-5.2087,-4.5441,-6.5182,-12.7357,-11.5835
957.0312,-10.5140,-8.4305,-11.9629,-7.4384,-6.6766,-9.4922,-11.9449,-5.5839,-16.5817,-9.7966,-16.3601,-13.7846,-14.0107,-6.5927,-7.6814,-4.3875,-5.3142,-13.8457,-11.1857
960.9375,-12.4367,-8.2030,-12.6331,-8.6712,-7.5066,-12.1400,-11.7974,-5.0258,-16.3740,-11.4018,-14.8218,-14.3091,-14.2029,-6.3432,-8.5086,-4.0961,-4.9243,-13.8135,-10.6494
964.8438,-13.4600,-8.7868,-12.5658,-10.1965,-8.1867,-14.2247,-10.7403,-4.6656,-14.8785,-11.9373,-11.8404,-14.4548,-13.8547,-6.4155,-7.3147,-3.5824,-5.6204,-13.2042,-10.3062
968.7500,-13.7739,-10.9389,-11.7528,-11.5053,-8.6127,-16.0160,-10.1255,-4.6258,-13.2680,-11.8154,-8.8917,-14.1964,-13.1937,-6.7790,-4.5688,-2.8208,-7.0917,-12.6584,-10.2059
972.6562,-13.3980,-14.0130,-10.1621,-11.9630,-8.5606,-17.2281,-10.3012,-4.8130,-12.2634,-11.2801,-7.2118,-13.4468,-12.2716,-7.1257,-1.3498,-1.9252,-8.5583,-12.3237,-10.0418
976.5625,-12.1141,-16.1337,-7.8895,-11.1192,-7.8306,-16.9715,-10.4211,-5.0058,-11.7281,-10.2129,-7.0623,-12.0862,-10.9654,-6.9771,1.1591,-1.1101,-9.1447,-11.7159,-9.3253
980.4688,-9.6979,-15.3449,-5.3136,-9.0006,-6.4223,-14.3529,-9.1490,-5.0007,-10.9085,-8.3364,-7.5875,-10.0447,-9.1110,-5.9314,2.1969,-0.5457,-8.3134,-10.1099,-7.7007
984.3750,-6.2441,-10.9778,-3.0730,-6.1880,-4.5988,-9.2885,-5.7060,-4.7169,-9.1031,-5.6167,-7.3873,-7.3875,-6.6678,-3.9141,1.7187,-0.2226,-6.1357,-7.1775,-5.2023
988.2812,-2.3036,-4.2949,-1.8185,-3.5911,-2.7883,-2.8909,-0.5253,-4.2098,-6.2698,-2.5123,-5.4679,-4.3644,-3.8150,-1.2837,0.3259,0.0512,-3.2759,-3.4058,-2.2979
992.1875,1.2931,2.0653,-1.8803,-2.0267,-1.3911,2.9238,4.8901,-3.6125,-3.1595,0.1545,-1.9672,-1.4064,-0.9432,1.2833,-1.1083,0.4909,-0.7106,0.0202,0.3002
996.0938,3.8076,5.5134,-3.0811,-1.8371,-0.6250,6.3960,8.7576,-3.0687,-0.9030,1.6278,1.8250,0.9420,1.4413,3.0799,-1.9059,1.1248,0.6790,1.8209,1.9406
1000.0000,4.8992,4.9081,-4.8315,-2.7758,-0.4966,6.8296,9.9193,-2.7083,-0.3433,1.6428,4.1853,2.1600,2.8591,3.6867,-1.8858,1.7034,0.4636,1.3383,2.2863
1003.9062,4.6743,1.0710,-6.4563,-4.2177,-0.8863,4.8623,8.3418,-2.6597,-1.5521,0.5457,3.9710,1.9355,3.0070,3.1568,-1.3527,1.8290,-1.1692,-1.0845,1.4025
1007.8125,3.4947,-3.8387,-7.5389,-5.5447,-1.6492,1.9681,5.0113,-3.0505,-3.8253,-0.9607,1.2978,0.3331,1.8790,1.9793,-0.8182,1.2362,-3.5022,-4.2862,-0.3274
1011.7188,1.7344,-7.6169,-8.0684,-6.4544,-2.6489,-0.4255,1.3910,-3.9524,-6.1222,-2.2499,-2.5300,-2.1576,-0.1897,0.8416,-0.6591,0.0275,-5.5881,-6.9058,-2.3791
1015.6250,-0.3246,-9.1288,-8.3161,-7.0039,-3.7172,-1.6152,-1.2182,-5.2777,-7.6426,-3.0774,-5.7679,-4.7609,-2.5964,0.3131,-0.9437,-1.3272,-6.6428,-8.0545,-4.2546
1019.5312,-2.4153,-8.6065,-8.5559,-7.3980,-4.6098,-1.7158,-2.1189,-6.7047,-8.1739,-3.5739,-7.1775,-6.7142,-4.6620,0.6023,-1.5181,-2.2559,-6.3657,-7.6608,-5.5816
1023.4375,-4.1582,-7.0849,-8.8329,-7.7071,-5.0378,-1.2404,-1.3469,-7.7232,-8.0295,-3.9787,-6.6079,-7.5890,-5.8739,1.4977,-2.2460,-2.4490,-5.0430,-6.3378,-6.1456
1027.3438,-5.0615,-5.4912,-8.9349,-7.7433,-4.7914,-0.5738,0.4749,-7.8368,-7.6827,-4.3492,-4.9199,-7.4508,-6.0655,2.5057,-3.1791,-2.0670,-3.3807,-4.9216,-5.8909
1031.2500,-4.7187,-4.0621,-8.5708,-7.1971,-3.8818,0.2470,2.4404,-6.8455,-7.3902,-4.4766,-3.3806,-6.7609,-5.4381,3.1060,-4.4931,-1.6323,-2.1478,-4.0002,-4.9219
1035.1562,-3.0980,-2.4536,-7.6178,-5.9353,-2.5984,1.3293,3.6928,-5.0448,-7.0729,-4.0683,-2.9357,-6.0757,-4.4157,2.9925,-6.2245,-1.6602,-1.8100,-3.7080,-3.4994
1039.0625,-0.7142,-0.3754,-6.2642,-4.2292,-1.4187,2.5285,3.6697,-3.1825,-6.5089,-3.0535,-3.7652,-5.7315,-3.4229,2.1872,-8.0233,-2.2764,-2.3460,-3.8450,-2.0043
1042.9688,1.4783,1.8008,-4.9461,-2.7131,-0.8020,3.2371,2.1946,-2.1334,-5.6497,-1.7695,-5.2913,-5.7052,-2.7138,0.9875,-9.1627,-3.0847,-3.3274,-4.1594,-0.8438
1046.8750,2.4685,2.9873,-4.1110,-2.0560,-0.9696,2.5947,-0.5693,-2.4344,-4.7790,-0.8628,-6.5405,-5.7124,-2.3304,-0.2032,-8.8698,-3.3892,-4.1931,-4.5481,-0.3097
1050.7812,1.6750,2.0098,-3.9473,-2.5355,-1.7906,0.0404,-4.2089,-3.9387,-4.3528,-0.9270,-6.6264,-5.4414,-2.1733,-1.0638,-6.7928,-2.6363,-4.5366,-5.0303,-0.4495
1054.6875,-0.7113,-1.4579,-4.2458,-3.7983,-2.8331,-4.1374,-8.0917,-5.8274,-4.6159,-2.0864,-5.1405,-4.7415,-2.1009,-1.4680,-3.2922,-0.7952,-4.2455,-5.5496,-1.0245
1058.5938,-3.7176,-6.3091,-4.4878,-4.9952,-3.5667,-8.6420,-11.3351,-7.0225,-5.2916,-3.7929,-2.3441,-3.6508,-1.9853,-1.4864,0.6651,1.5699,-3.4517,-5.8108,-1.6068
1062.5000,-5.9482,-10.2652,-4.1345,-5.2509,-3.6255,-11.5857,-12.8546,-6.8038,-5.6270,-5.0067,0.8804,-2.2926,-1.7225,-1.3081,3.9611,3.5816,-2.3835,-5.3434,-1.7889
1066.4062,-6.1815,-10.9732,-2.9674,-4.2044,-3.0161,-11.3426,-11.6564,-5.2740,-4.8405,-4.7126,3.3196,-0.7719,-1.2475,-1.1415,5.8454,4.5171,-1.2559,-3.8022,-1.4076
1070.3125,-3.9472,-7.3653,-1.2822,-2.2856,-2.1616,-7.4206,-7.3775,-3.3712,-2.7090,-2.5143,3.9187,0.8212,-0.5851,-1.1422,6.1980,4.1839,-0.2606,-1.3125,-0.6488
1074.2188,0.1852,-0.4620,0.2057,-0.5308,-1.7346,-0.8722,-0.7886,-2.3792,0.1229,1.0356,2.3184,2.3225,0.0969,-1.3732,5.4104,2.9983,0.3979,1.4239,0.0498
1078.1250,4.7816,6.9506,0.7324,-0.0116,-2.3225,6.0424,6.1764,-3.1880,2.3888,4.6066,-0.8198,3.4468,0.5187,-1.7814,4.0357,1.7415,0.5268,3.4135,0.2646
1082.0312,8.1502,11.6912,-0.0537,-1.1936,-4.0665,10.8475,11.1234,-5.7300,2.9238,6.7267,-3.9501,3.8916,0.4448,-2.1860,2.4990,1.1473,0.0714,3.9300,-0.1266
1085.9375,9.1282,11.8704,-1.8129,-3.6067,-6.4692,12.0376,12.4109,-8.9305,1.4333,6.5706,-5.2931,3.5676,-0.1022,-2.2991,1.0589,1.5487,-0.7431,3.0074,-0.8206
1089.8438,7.6564,7.9139,-3.6182,-6.0368,-8.5160,9.8331,10.1804,-11.2229,-1.2045,4.4496,-3.7359,2.7787,-0.7318,-1.8087,-0.0325,2.7528,-1.4079,1.5146,-1.2286
1093.7500,4.8169,2.2909,-4.4206,-7.1457,-9.1074,6.0607,6.4597,-11.3421,-3.3515,1.6884,0.5103,2.1682,-0.8130,-0.5179,-0.4118,4.1757,-1.3437,0.7064,-0.8153
1097.6562,2.2665,-1.9122,-3.6223,-6.1700,-7.6089,3.1748,4.0960,-8.9545,-3.5278,-0.0850,5.9200,2.3945,0.1813,1.5223,0.2778,5.1454,-0.2409,1.4922,0.5652
1101.5625,1.3486,-2.7253,-1.4067,-3.3009,-4.2206,2.9288,5.0623,-4.7852,-1.2828,0.1519,10.3967,3.7146,2.3092,3.9745,2.0675,5.2120,1.7024,3.8775,2.5577
1105.4688,2.3739,-0.2919,1.3888,0.4604,0.0661,5.4381,9.1924,-0.2070,2.5284,2.2435,12.3538,5.7597,5.0300,6.3204,4.4180,4.3335,3.8373,6.9440,4.5020
1109.3750,4.4924,3.4391,3.7842,3.8600,3.9325,9.1707,14.2122,3.4399,6.2364,4.9711,11.5040,7.6852,7.4337,8.0677,6.3316,2.8698,5.4158,9.3930,5.8191
1113.2812,6.2370,6.0645,5.2186,6.0135,6.3682,11.8582,17.1115,5.4090,8.3056,6.7875,8.8907,8.6272,8.7150,8.9396,6.8603,1.4091,6.0102,10.3000,6.3356
1117.1875,6.4057,6.2082,5.7969,6.7350,7.1159,11.7691,15.9821,5.7176,8.1479,6.7154,6.1679,8.1816,8.5953,8.9326,5.7159,0.5103,5.7097,9.5938,6.3327
1121.0938,4.7388,4.1889,6.0722,6.4278,6.6752,8.5879,11.1126,4.9208,6.3252,4.8543,4.6093,6.5990,7.4238,8.2205,3.5392,0.4724,4.9556,7.9674,6.2938
1125.0000,1.9883,1.5297,6.5462,5.6841,5.8929,3.4212,4.6390,3.7059,4.0792,2.2057,4.4697,4.5870,5.9013,6.9966,1.5715,1.2242,4.1528,6.3273,6.5340
1128.9062,-0.6229,-0.2402,7.2661,4.9003,5.4258,-1.9686,-0.9394,2.5772,2.5506,-0.0236,5.0548,2.8761,4.6316,5.3888,0.8829,2.3766,3.3690,5.1981,6.9790
1132.8125,-2.1614,-0.5982,7.8175,4.1593,5.4208,-6.1375,-4.2868,1.7729,2.2034,-1.1504,5.3692,1.8519,3.8125,3.5154,1.6604,3.4082,2.3651,4.5014,7.2487
1136.7188,-2.4548,-0.1731,7.7089,3.3999,5.5850,-8.5140,-5.7363,1.3687,2.7664,-1.2985,4.8493,1.4804,3.2615,1.6172,3.0640,3.8997,0.9359,3.8289,6.9811
1140.6250,-2.0025,-0.0186,6.8434,2.6774,5.5386,-9.2851,-6.5114,1.4108,3.6249,-1.0987,3.6929,1.5202,2.7173,0.1179,3.7960,3.7086,-0.7262,2.9526,6.1532
1144.5312,-1.4594,-0.6472,5.7020,2.2703,5.1640,-8.8623,-7.3712,1.9506,4.3169,-1.0823,2.6278,1.8152,2.1622,-0.4931,3.0338,3.0097,-1.9682,2.1481,5.1624
1148.4375,-1.1143,-1.5855,5.0796,2.5350,4.6990,-7.4370,-7.7942,2.9732,4.7817,-1.2379,2.3580,2.4308,1.9105,0.0820,1.0964,2.1891,-2.0169,2.0668,4.6025
1152.3438,-0.7465,-1.7671,5.5476,3.6254,4.5400,-4.9777,-6.3583,4.3199,5.2533,-1.0512,3.1079,3.5489,2.3983,1.7275,-0.6302,1.6543,-0.5044,3.2496,4.8911
1156.2500,0.0667,-0.4200,7.0253,5.3081,4.9334,-1.6005,-2.0211,5.7007,5.9574,0.0298,4.5473,5.2327,3.8334,3.9055,-0.5054,1.6520,2.2057,5.6535,6.0024
1160.1562,1.4691,2.2620,8.7630,7.0316,5.7967,2.0837,4.7171,6.8125,6.8776,2.0694,6.0707,7.2619,5.9603,5.9000,2.3153,2.1781,5.1465,8.5537,7.4793
1164.0625,3.0677,5.1808,9.7485,8.2048,6.7815,5.0273,11.7105,7.4788,7.7485,4.4591,7.1663,9.1662,8.1057,7.1629,7.2514,3.0051,7.2621,10.8978,8.6936
1167.9688,4.1129,7.0677,9.2632,8.4858,7.4957,6.2456,16.2860,7.7038,8.2303,6.2115,7.6118,10.4242,9.4723,7.5304,12.4895,3.7976,7.9588,11.8633,9.1661
1171.8750,3.9892,7.3216,7.2406,7.8857,7.7010,5.4138,16.8270,7.6073,8.0991,6.5278,7.4257,10.6791,9.5005,7.1731,15.8799,4.2517,7.3314,11.2391,8.7458
1175.7812,2.6569,6.3264,4.2519,6.6489,7.3576,3.1095,13.7267,7.2985,7.3235,5.2557,6.7077,9.8441,8.1024,6.3502,16.0086,4.1961,5.9515,9.4111,7.5786
1179.6875,0.7231,5.0458,1.1987,5.0493,6.5441,0.4969,9.0666,6.7970,6.0269,2.9535,5.5512,8.0770,5.6806,5.1886,12.8442,3.6273,4.4243,7.0323,5.9548
1183.5938,-0.9065,4.2468,-1.0551,3.2854,5.3760,-1.3392,5.2791,6.0602,4.4258,0.5552,4.0907,5.7013,2.9615,3.6753,7.6556,2.6865,3.0543,4.6626,4.1806
1187.5000,-1.5443,3.9613,-1.9323,1.5407,4.0153,-1.9497,3.7269,5.0866,2.8086,-1.1146,2.5892,3.1521,0.7421,1.8590,2.3267,1.6052,1.8318,2.6245,2.5497
1191.4062,-1.0588,3.5820,-1.2420,0.1050,2.7339,-1.6062,4.1209,3.9953,1.5317,-1.6762,1.4207,0.9482,-0.3660,0.0576,-1.5016,0.6425,0.6681,1.0977,1.3663
1195.3125,0.1652,2.4854,0.7960,-0.6170,1.9069,-0.9117,5.0514,3.0090,0.9539,-1.2262,0.9077,-0.3777,-0.1342,-1.1597,-3.0258,0.0260,-0.3716,0.2731,0.9182
1199.2188,1.5647,0.6836,3.5645,-0.2848,1.8602,-0.2707,5.1430,2.3449,1.2899,-0.1296,1.1274,-0.4388,1.1985,-1.2700,-2.3965,-0.1056,-1.0501,0.3673,1.3567
1203.1250,2.7623,-1.0002,6.1586,1.1216,2.6432,0.3782,3.9867,2.1015,2.4675,1.2387,1.8570,0.8053,3.0084,-0.1809,-0.4314,0.2463,-1.1430,1.4659,2.5602
1207.0312,3.7044,-1.3676,7.6744,3.1877,3.9168,1.4003,2.2684,2.2305,4.1235,2.6389,2.7295,2.9422,4.5493,1.6061,1.8383,0.9168,-0.6291,3.3502,4.1153
1210.9375,4.5187,0.4047,7.6285,5.2306,5.0992,3.0400,1.1260,2.6101,5.7818,3.9549,3.4924,5.2104,5.3028,3.2255,3.5520,1.6070,0.3003,5.4987,5.4837
1214.8438,5.2486,4.1920,6.2787,6.6684,5.7241,5.0791,1.2742,3.1544,7.1040,5.0956,4.1609,6.8007,5.2306,3.9517,4.2199,1.9824,1.4157,7.3033,6.2740
1218.7500,5.6930,8.8655,4.5702,7.3329,5.7670,6.8345,2.5044,3.8585,8.0090,5.9041,4.9246,7.2011,4.7474,3.6337,3.7443,1.8150,2.6188,8.3477,6.4310
1222.6562,5.4740,12.7453,3.6204,7.4862,5.6769,7.4825,3.8287,4.7413,8.5448,6.1340,5.8633,6.3808,4.3892,2.7426,2.3304,1.1065,3.9181,8.5292,6.1945
1226.5625,4.2730,14.2791,3.9989,7.5173,6.0406,6.4770,4.0829,5.7325,8.6112,5.4995,6.6979,4.7096,4.3666,1.9880,0.3533,0.1155,5.2099,7.9380,5.8457
1230.4688,2.0538,12.6151,5.2749,7.5498,7.0904,3.7952,2.5604,6.6071,7.7949,3.7798,6.8034,2.6835,4.3182,1.7791,-1.7731,-0.7488,6.0846,6.6253,5.4303
1234.3750,-0.8789,7.8733,6.2042,7.2782,8.4119,-0.0946,-0.6843,7.0371,5.5345,0.9513,5.5326,0.6471,3.4826,1.9265,-3.6997,-1.1314,5.9077,4.4950,4.6805
1238.2812,-4.0085,1.0976,5.5097,6.1842,9.0980,-4.4560,-4.9510,6.7393,1.5791,-2.6950,2.6683,-1.3137,1.2285,1.8026,-5.2000,-0.9316,4.2154,1.4514,3.2181
1242.1875,-6.8090,-6.0434,2.7698,3.9905,8.2883,-8.5192,-9.2633,5.6279,-3.5771,-6.5180,-1.2967,-3.2695,-2.3931,0.8412,-6.1822,-0.3775,1.1675,-2.3074,0.9058
1246.0938,-8.8824,-11.7301,-1.1996,1.0099,5.7486,-11.6082,-12.7371,3.8764,-8.6603,-9.6413,-5.2605,-5.2481,-6.4719,-0.9897,-6.6686,0.0811,-2.3189,-6.1172,-1.9129
1250.0000,-9.9669,-14.5487,-4.7661,-1.8911,2.1054,-13.1652,-14.7722,1.8643,-12.1203,-11.2233,-7.9721,-7.0951,-9.6073,-3.0818,-6.7652,0.0131,-4.9482,-9.0050,-4.4793
1253.9062,-9.8736,-13.9779,-6.4481,-3.7164,-1.4250,-12.7640,-15.0448,0.0583,-12.9168,-10.7896,-8.6051,-8.4883,-10.6298,-4.5125,-6.6304,-0.7555,-5.7536,-10.1297,-5.9740
1257.8125,-8.4651,-10.5978,-5.7770,-3.8735,-3.6364,-10.1909,-13.4026,-1.0991,-11.0868,-8.4586,-7.1348,-9.0764,-9.2282,-4.5662,-6.4313,-2.0482,-4.6719,-9.2249,-5.9403
1261.7188,-5.7470,-5.8691,-3.4739,-2.4621,-3.8893,-5.5939,-9.8101,-1.2667,-7.7043,-4.9239,-4.3277,-8.6452,-6.0942,-3.1088,-6.2789,-3.4423,-2.5762,-6.7355,-4.5123
1265.6250,-2.0332,-1.5268,-0.8554,-0.1532,-2.3117,0.3750,-4.4414,-0.2724,-4.2466,-1.1857,-1.3711,-7.2266,-2.5127,-0.6114,-6.1608,-4.5018,-0.7276,-3.5614,-2.3204
1269.5312,1.9474,1.1306,1.0632,2.2125,0.3999,6.5284,2.1002,1.7986,-1.7950,1.8221,0.6471,-5.1301,0.3078,2.1174,-5.9258,-4.9930,-0.0175,-0.6089,-0.1630
1273.4375,5.1375,1.6886,2.1060,4.0058,3.3779,11.3065,8.5939,4.5239,-0.6066,3.5072,1.1499,-2.9141,1.7343,4.2656,-5.3696,-4.9571,-0.5207,1.5281,1.3365
1277.3438,6.4664,0.5741,2.7596,4.9417,5.9089,13.1565,13.2750,7.1669,-0.2997,3.6770,0.2016,-1.3018,1.7741,5.2338,-4.4076,-4.6204,-1.6379,2.5767,1.8982
1281.2500,5.2883,-1.3929,3.4915,4.9701,7.5488,11.0679,14.3254,8.8843,-0.4357,2.4246,-1.6584,-1.0121,0.7737,4.7090,-3.2355,-4.2307,-2.6710,2.3859,1.5492
1285.1562,1.7393,-3.5189,4.1639,4.1226,8.0871,5.0988,10.6978,9.0879,-0.9909,0.0020,-3.7559,-2.4953,-0.9358,2.7010,-2.3395,-3.9444,-3.3652,0.8013,0.4883
1289.0625,-3.1853,-5.4831,4.0498,2.5065,7.5054,-3.3552,2.9010,7.7860,-2.3282,-3.1930,-5.6078,-5.6458,-3.1574,-0.3862,-2.2855,-3.8244,-4.0093,-2.1926,-1.0099
1292.9688,-7.9153,-7.2050,2.4584,0.4423,6.0057,-11.7818,-6.7622,5.6711,-4.7039,-6.5367,-7.0775,-9.6546,-5.6687,-3.7155,-3.3637,-3.9068,-5.0493,-6.1540,-2.6053
1296.8750,-10.8608,-8.5322,-0.5301,-1.4448,4.0457,-17.3285,-14.8385,3.8309,-7.7424,-9.1622,-8.2945,-13.1660,-7.9958,-6.1614,-5.2983,-4.2372,-6.5539,-10.0119,-3.8819
1300.7812,-11.0140,-9.0737,-3.8431,-2.3760,2.2528,-17.9122,-18.1195,3.1870,-10.3663,-10.1557,-9.4065,-14.7608,-9.3965,-6.7109,-7.2427,-4.8135,-7.9800,-12.3319,-4.4118
1304.6875,-8.3327,-8.3702,-5.9544,-1.8159,1.1769,-13.1801,-15.1641,3.9689,-11.3289,-8.9516,-10.3249,-13.5850,-9.1534,-4.9763,-8.1323,-5.4786,-8.4474,-11.9938,-3.9168
1308.5938,-3.7351,-6.2903,-5.8517,0.1257,0.9931,-4.8009,-7.1265,5.5507,-10.0169,-5.7152,-10.6444,-9.8012,-7.0120,-1.5128,-7.2443,-5.8810,-7.3393,-8.9005,-2.4448
1312.5000,1.2897,-3.3326,-3.7529,2.6015,1.3586,4.1623,2.6410,6.7782,-6.9513,-1.4304,-9.8261,-4.5927,-3.4581,2.3187,-4.6518,-5.5957,-4.7974,-4.2210,-0.4290
1316.4062,5.2776,-0.5483,-1.0475,4.3800,1.5552,10.5681,10.0899,6.6097,-3.5962,2.4432,-7.5721,0.3184,0.3829,4.9408,-1.2904,-4.3789,-1.7574,0.0739,1.4373
1320.3125,7.3198,0.9339,0.5207,4.4728,0.8620,12.5615,12.3306,4.6917,-1.5640,4.6102,-4.1701,3.4036,3.1953,5.2936,1.4401,-2.4012,0.5094,2.1706,2.4619
1324.2188,7.2983,0.5112,-0.1151,2.6551,-1.0574,10.2820,8.8778,1.5289,-1.7257,4.5275,-0.5645,3.9329,4.0263,3.2997,2.3482,-0.2760,1.0594,1.3123,2.2181
1328.1250,5.7493,-1.5418,-2.7728,-0.4452,-3.9789,5.5515,1.6681,-1.8334,-3.7912,2.6008,1.9601,2.1628,2.6526,-0.1875,1.0424,1.1874,-0.2510,-1.8889,0.6860
1332.0312,3.4651,-4.1964,-6.2425,-3.7292,-7.2358,0.7540,-6.0773,-4.3936,-6.5898,-0.1181,2.3589,-0.9329,-0.3912,-3.8714,-1.8729,1.3939,-2.7229,-5.8819,-1.7674
1335.9375,1.0674,-6.1976,-9.0827,-6.2155,-10.0303,-2.4324,-11.4637,-5.6789,-8.8142,-2.5368,0.3639,-4.1831,-4.0775,-6.6047,-5.0951,0.2978,-5.1760,-9.0447,-4.5232
1339.8438,-1.2156,-6.6909,-10.4298,-7.4698,-11.7445,-3.7408,-13.1478,-5.8667,-9.7236,-4.0619,-3.3420,-6.6922,-7.2809,-7.7620,-7.2550,-1.5477,-6.4902,-10.4569,-6.8858
1343.7500,-3.4694,-5.6093,-10.3200,-7.6594,-12.1122,-4.1225,-11.6299,-5.5372,-9.4019,-4.7721,-7.4340,-8.0647,-9.1445,-7.2810,-7.5613,-3.2674,-6.0747,-10.1702,-8.2572
1347.6562,-5.7948,-3.6430,-9.4285,-7.2906,-11.2347,-4.8679,-8.6305,-5.2795,-8.5136,-5.1775,-10.5767,-8.3688,-9.3285,-5.5025,-6.1467,-4.1085,-4.1019,-8.9344,-8.3015
1351.5625,-8.0106,-1.8506,-8.5240,-6.8726,-9.5093,-6.6392,-6.0264,-5.4172,-7.8226,-5.7707,-12.0193,-7.9642,-8.1073,-3.0117,-3.9691,-3.7966,-1.4558,-7.6594,-7.0856
1355.4688,-9.5801,-1.1360,-8.0633,-6.7261,-7.5287,-9.0104,-4.9497,-5.9755,-7.8129,-6.6773,-11.8288,-7.3292,-6.2846,-0.5567,-2.3305,-2.6165,0.5865,-6.9742,-5.1310
1359.3750,-9.8450,-1.8423,-8.1406,-6.9794,-5.9453,-10.7547,-5.4463,-6.8164,-8.5757,-7.6045,-10.6676,-6.9341,-4.9092,1.0445,-2.2478,-1.2070,0.8607,-7.0758,-3.2964
1363.2812,-8.4514,-3.6327,-8.6842,-7.6345,-5.2713,-10.6528,-6.7384,-7.7682,-9.8951,-8.0746,-9.3021,-7.1325,-4.8385,1.1341,-3.9619,-0.2175,-1.1458,-7.8209,-2.4619
1367.1875,-5.7001,-5.6825,-9.6214,-8.5725,-5.6467,-8.3094,-7.8416,-8.6414,-11.3649,-7.7574,-8.1698,-8.0370,-6.3104,-0.4421,-6.8080,-0.0248,-4.9560,-8.8840,-3.1156
1371.0938,-2.5716,-7.0851,-10.8315,-9.4900,-6.7013,-4.4939,-8.1786,-9.1717,-12.4547,-6.6837,-7.2549,-9.4186,-8.7528,-3.0978,-9.5105,-0.6276,-9.1866,-9.8586,-5.0483
1375.0000,-0.3447,-7.2848,-11.9633,-9.8865,-7.6506,-0.8251,-7.8949,-9.0187,-12.5912,-5.2314,-6.2891,-10.7249,-10.9959,-5.6347,-10.7778,-1.7160,-12.1050,-10.3137,-7.3614
1378.9062,0.0147,-6.3408,-12.3717,-9.2205,-7.6586,1.0092,-7.7590,-7.9095,-11.3555,-3.9257,-5.0854,-11.2830,-11.8410,-6.7892,-9.9250,-2.8315,-12.4477,-9.8931,-8.8457
1382.8125,-1.6432,-4.8929,-11.3628,-7.2154,-6.3074,0.0711,-8.7214,-5.8659,-8.7799,-3.1945,-3.7559,-10.6355,-10.7097,-5.9361,-7.2260,-3.5356,-10.0756,-8.4939,-8.5771
1386.7188,-4.5634,-3.8391,-8.6778,-4.1344,-3.8971,-3.3886,-11.3584,-3.3414,-5.5540,-3.2144,-2.6878,-8.8407,-8.0076,-3.5049,-3.8086,-3.5481,-6.0784,-6.4336,-6.4277
1390.6250,-7.4847,-3.8793,-4.8946,-0.8082,-1.3573,-8.0665,-15.4737,-1.1168,-2.9091,-3.9000,-2.3310,-6.5409,-4.9667,-0.7918,-1.1293,-2.8495,-2.2264,-4.4513,-3.2050
1394.5312,-9.2987,-5.1580,-1.3979,1.6687,0.2218,-12.2103,-20.0507,0.0450,-2.1142,-4.9965,-2.9616,-4.7118,-3.0269,0.7693,-0.2814,-1.7234,-0.0624,-3.4520,-0.3173
1398.4375,-9.5758,-7.1859,0.1921,2.4399,0.1848,-14.3622,-23.5776,-0.2003,-3.7959,-6.1916,-4.5571,-4.1876,-3.0855,0.4434,-1.4845,-0.6916,-0.1473,-4.0695,0.8868
1402.3438,-8.6490,-9.0694,-1.1177,1.3113,-1.3162,-13.8839,-24.5911,-1.5668,-7.4780,-7.1819,-6.8101,-5.2052,-5.0235,-1.3857,-4.0125,-0.3153,-1.8786,-6.2713,-0.2174
1406.2500,-7.2392,-9.9181,-5.0260,-1.1404,-3.3921,-11.0613,-22.2032,-3.2618,-11.6652,-7.6910,-9.2162,-7.2235,-7.7571,-3.4703,-6.5797,-0.9121,-3.9418,-9.2484,-3.1940
1410.1562,-5.9157,-9.2288,-9.8962,-3.8343,-4.8841,-6.8348,-16.4304,-4.3837,-14.4919,-7.4889,-11.1771,-9.1396,-9.7734,-4.4533,-7.9678,-2.3351,-5.0755,-11.6974,-6.7099
1414.0625,-4.7871,-7.0908,-13.4419,-5.6767,-4.9529,-2.3799,-8.2663,-4.3725,-14.6146,-6.4626,-12.1181,-9.8183,-9.8607,-3.6353,-7.5672,-3.9704,-4.6863,-12.3972,-9.1349
1417.9688,-3.6343,-4.1683,-13.8276,-6.0250,-3.4646,1.2254,0.4777,-3.2622,-11.8650,-4.7333,-11.6523,-8.6741,-7.6726,-1.3008,-5.5833,-5.0136,-3.0083,-10.8113,-9.3027
1421.8750,-2.3471,-1.4926,-10.6136,-4.9191,-0.9929,3.1576,7.5457,-1.6160,-7.3107,-2.7391,-9.7768,-6.0084,-3.8734,1.5402,-2.8612,-4.9067,-0.8175,-7.4130,-7.0767
1425.7812,-1.2716,-0.1239,-5.0316,-3.0041,1.5138,2.9213,10.8433,-0.2032,-2.7077,-1.1733,-6.9936,-2.9114,0.1720,3.7660,-0.4693,-3.6858,1.0371,-3.5403,-3.4410
1429.6875,-1.1231,-0.7411,0.5812,-1.2130,3.1892,0.4803,9.2263,0.3918,0.3499,-0.7237,-4.2120,-0.7514,3.0063,4.7090,0.7351,-2.0102,2.0007,-0.8070,-0.0494
1433.5938,-2.4524,-3.2689,3.9134,-0.3561,3.5974,-3.5400,3.2259,0.0264,1.1314,-1.6963,-2.3888,-0.4894,3.7104,4.3741,0.3918,-0.8170,1.9435,-0.3235,1.5690
1437.5000,-5.0417,-6.7239,3.7899,-0.7843,2.8379,-7.7685,-4.7341,-0.9875,-0.0131,-3.7351,-2.0536,-2.1688,2.2816,3.2673,-1.2876,-0.7846,1.0960,-2.1122,0.7608
1441.4062,-7.7358,-9.4762,0.6795,-2.2631,1.4061,-10.3843,-11.0244,-2.0971,-1.9860,-5.8631,-3.0022,-4.8622,-0.4112,2.0221,-3.6301,-1.9218,-0.1014,-5.0547,-1.9403
1445.3125,-8.9578,-9.9622,-3.6605,-4.1164,-0.0913,-9.8635,-12.3705,-2.8269,-3.6119,-6.9188,-4.3992,-7.1394,-3.0871,1.0593,-5.7439,-3.5375,-1.1711,-7.4607,-5.1322
1449.2188,-7.6631,-7.5867,-7.1881,-5.5888,-1.2284,-5.8819,-7.6346,-3.0408,-4.2787,-6.2037,-5.2815,-7.8307,-4.7163,0.4322,-6.8344,-4.6220,-1.7844,-8.0045,-7.3352
1453.1250,-4.1129,-3.2971,-8.6539,-6.2515,-1.9332,0.1992,1.2294,-3.0109,-4.2191,-3.9652,-5.1655,-6.6744,-5.0460,-0.1270,-6.5123,-4.4164,-1.9310,-6.5170,-7.8152
1457.0312,0.1126,0.6503,-8.1423,-6.2238,-2.4639,5.7387,9.8488,-3.2471,-4.2899,-1.3657,-4.3495,-4.4637,-4.6827,-1.0185,-4.9733,-2.8350,-1.9758,-4.1305,-6.9481
1460.9375,2.9648,1.7989,-6.7946,-6.0572,-3.1916,8.0915,13.6494,-4.1591,-5.3687,0.1278,-3.6736,-2.5780,-4.6515,-2.5220,-2.9369,-0.4984,-2.4941,-2.6175,-5.8914
1464.8438,3.1508,-1.0453,-5.9288,-6.3249,-4.2950,6.1137,10.4912,-5.7293,-7.6983,-0.3788,-3.8734,-2.1469,-5.6671,-4.5674,-1.3151,1.6253,-3.8960,-3.2568,-5.7588
1468.7500,0.9443,-6.8815,-6.1340,-7.1704,-5.5466,0.9711,2.1321,-7.4003,-10.5681,-2.6003,-4.9737,-3.3435,-7.5666,-6.6362,-0.7474,2.7433,-6.0434,-5.9186,-6.8255
1472.6562,-1.9660,-12.8083,-6.9197,-8.1308,-6.3504,-4.3603,-6.5300,-8.2915,-12.5661,-5.1567,-6.1735,-5.2565,-9.2986,-7.8959,-1.2536,2.6164,-8.1526,-8.9941,-8.2975
1476.5625,-3.5177,-15.5293,-7.1241,-8.3957,-6.0584,-6.7239,-10.1655,-7.6672,-12.3204,-6.3523,-6.3458,-6.4494,-9.5336,-7.5763,-2.2310,1.5966,-9.1477,-10.2989,-8.8194
1480.4688,-2.5406,-13.2516,-5.7795,-7.3577,-4.4070,-4.6070,-6.1303,-5.4051,-9.3381,-5.1949,-4.8313,-5.8760,-7.5407,-5.4390,-2.8295,0.3436,-8.3151,-8.4368,-7.4026
1484.3750,0.5590,-6.8102,-2.8349,-5.0831,-1.7946,0.9632,3.9035,-2.1656,-4.4296,-2.0148,-1.9597,-3.5712,-3.7608,-2.0590,-2.4853,-0.5729,-5.8401,-3.7581,-4.1501
1488.2812,4.1077,0.7362,0.7576,-2.3474,0.8190,7.0266,14.8340,0.8842,0.5970,1.7201,1.1015,-0.6578,0.3393,1.3240,-1.2700,-0.9367,-2.8103,1.7488,-0.2730
1492.1875,6.2240,5.8505,3.6427,-0.1732,2.3871,10.4243,21.0088,2.6696,3.8648,4.2818,3.1068,1.3601,3.0889,3.3906,0.1895,-0.8822,-0.5997,5.6170,2.6392
1496.0938,5.9184,6.5495,4.9238,0.8292,2.3628,9.5714,19.3534,2.7819,4.4631,4.6939,3.5829,1.5704,3.6101,3.4654,1.1725,-0.6728,0.0037,6.3931,3.6214
1500.0000,3.5612,3.4710,4.6986,0.8516,1.0320,5.1944,10.9037,1.6725,2.9593,3.2404,3.1586,0.2585,2.3461,1.9288,1.3925,-0.4438,-0.6656,4.4990,2.9382
1503.9062,0.5139,-0.6548,3.9153,0.7154,-0.6381,-0.3282,-0.0324,0.3385,1.0434,1.1834,3.1118,-1.2584,0.7671,0.0131,1.2158,-0.0937,-1.3612,1.8987,1.8846
1507.8125,-1.7290,-2.7431,3.6809,1.2439,-1.5589,-4.4717,-8.3902,-0.2998,0.5016,-0.0742,4.4257,-1.4718,0.4376,-0.9363,1.4043,0.6105,-0.7882,0.8008,1.9159
1511.7188,-2.2940,-1.1708,4.5162,2.6318,-1.1491,-5.8912,-10.9403,0.0689,2.1444,0.1938,7.0144,0.3508,2.0416,-0.2865,2.5515,1.7994,1.4473,2.2610,3.6886
1515.6250,-1.1648,3.4299,6.0607,4.2769,0.3551,-4.7934,-7.5357,1.0385,5.3591,1.7465,9.6809,3.6958,4.9839,1.5077,4.6039,3.3133,4.4645,5.5951,6.6411
1519.5312,1.0886,8.7789,7.3849,5.2089,2.0855,-2.3208,-0.6055,1.8403,8.5534,3.7177,10.8655,7.1212,7.7919,3.2297,6.8047,4.6989,6.5985,8.9390,9.3649
1523.4375,3.7555,12.4236,7.6460,4.8108,3.0811,0.4249,6.4492,1.8923,10.1765,5.2641,9.6824,9.1350,9.0261,3.7162,8.1072,5.4084,6.4553,10.5146,10.4883
1527.3438,6.2577,13.0809,6.6149,3.3053,2.8305,2.9635,10.8607,1.1616,9.6417,6.0378,6.5325,9.0521,8.1041,2.6197,7.7848,5.0858,3.8356,9.7160,9.4821
1531.2500,8.1568,11.0671,4.7481,1.6472,1.5010,5.3068,11.3444,0.1189,7.5673,6.2009,2.8688,7.2968,5.5534,0.6166,5.8419,3.7673,-0.0855,7.3238,6.8947
1535.1562,9.0618,7.7340,2.8315,0.8936,-0.2318,7.4114,8.1130,-0.6359,5.2351,6.0743,0.2822,5.0127,2.6058,-1.0539,2.9834,1.8830,-3.4366,4.8022,3.9397
1539.0625,8.6563,4.4672,1.5039,1.5024,-1.5851,8.7985,2.4408,-0.7782,3.6928,5.7661,-0.4618,3.2966,0.4623,-1.3904,0.2044,0.0626,-4.7382,3.2642,1.7723
1542.9688,6.8900,1.9705,0.9911,3.0508,-2.0312,8.7144,-3.8395,-0.4115,3.1338,5.0882,0.2137,2.5831,-0.2990,-0.2287,-1.7069,-1.1384,-3.7017,2.8492,0.9371
1546.8750,4.1569,0.2186,1.1613,4.5560,-1.4379,6.7016,-8.8158,0.0967,2.9468,3.7970,1.1430,2.5439,0.1346,1.7280,-2.4513,-1.4466,-1.2658,2.8847,1.2734
1550.7812,1.2364,-1.0774,1.7560,5.1456,0.0063,3.0863,-11.0365,0.4215,2.3326,1.9216,1.3129,2.4827,1.0959,3.4116,-2.1848,-0.9247,1.0857,2.5964,2.2208
1554.6875,-1.0522,-1.9742,2.5636,4.5937,1.9472,-1.0517,-10.0796,0.4737,0.9942,-0.1154,0.5538,1.8834,1.8873,4.0457,-1.2921,0.1165,2.2324,1.7635,3.2262
1558.5938,-2.2770,-2.1762,3.4223,3.3676,3.9722,-4.4461,-6.8607,0.3561,-0.6081,-1.7021,-0.4463,0.7181,2.1068,3.5223,-0.1863,1.2697,1.9698,0.8281,3.9714
1562.5000,-2.5974,-1.3423,4.1288,2.1958,5.6441,-6.3456,-3.3331,0.1637,-1.5986,-2.4166,-0.7701,-0.6455,1.7198,2.3065,0.7486,2.1625,0.9151,0.4290,4.3472
1566.4062,-2.5802,0.4727,4.4121,1.5075,6.5303,-6.8510,-1.5432,-0.1647,-1.3502,-2.2998,-0.0478,-1.7943,0.9328,1.0199,1.1267,2.5343,-0.0759,0.7825,4.3041
1570.3125,-2.7548,2.6186,4.0409,1.1481,6.2960,-6.6762,-2.4890,-0.8050,0.0188,-1.8220,1.1957,-2.5709,0.0139,0.0377,0.5890,2.2722,-0.5339,1.4160,3.7668
1574.2188,-3.2342,4.0754,2.9773,0.5481,4.8524,-6.5468,-5.4901,-1.8527,1.6609,-1.5759,1.8715,-3.1096,-0.8323,-0.6333,-1.0293,1.4341,-0.6266,1.4673,2.6848
1578.1250,-3.6764,3.9836,1.4198,-0.8092,2.4665,-6.6907,-8.5331,-3.1522,2.5057,-1.9125,1.0936,-3.6223,-1.5059,-1.1771,-3.4803,0.2557,-0.9180,0.3157,1.1473
1582.0312,-3.6001,2.1553,-0.3194,-2.9619,-0.2576,-6.7670,-9.4472,-4.3091,1.9060,-2.7572,-1.1606,-4.1419,-1.9929,-1.6859,-6.0306,-0.8860,-1.8529,-1.9218,-0.5611
1585.9375,-2.7960,-0.7450,-1.9933,-5.3596,-2.5497,-6.2302,-7.1998,-4.8924,0.0135,-3.6957,-3.9411,-4.4346,-2.3105,-2.0094,-7.6767,-1.5772,-3.3442,-4.3801,-2.0210
1589.8438,-1.5166,-3.4658,-3.4729,-7.1080,-3.7207,-4.8256,-2.5191,-4.6772,-2.3143,-4.2354,-5.8275,-4.1391,-2.4307,-1.8366,-7.5956,-1.5142,-4.7376,-5.9097,-2.8042
1593.7500,-0.3054,-4.7479,-4.6080,-7.3854,-3.3770,-2.8517,2.5133,-3.7490,-3.9703,-4.0611,-5.6997,-3.0062,-2.2134,-0.9205,-5.5875,-0.6266,-5.1646,-5.6879,-2.5760
1597.6562,0.3894,-3.9238,-5.0383,-5.7941,-1.5251,-1.0227,5.6039,-2.4038,-4.1199,-3.1472,-3.2993,-1.0542,-1.4046,0.7336,-2.2315,0.8953,-4.0511,-3.5927,-1.1411
1601.5625,0.5163,-1.2287,-4.2064,-2.4999,1.4467,-0.0480,5.4270,-0.9401,-2.5217,-1.7097,0.7142,1.4561,0.2493,2.8468,1.3695,2.6883,-1.4642,-0.1654,1.5209
1605.4688,0.4193,2.3346,-1.6937,1.8369,4.8781,-0.2090,2.2155,0.4902,0.4522,-0.0758,5.1640,4.1692,2.7983,5.0042,4.1217,4.3656,1.9007,3.7273,5.1792
1609.3750,0.5514,5.5069,2.2943,6.2616,8.0021,-1.1878,-2.4458,1.8761,4.0155,1.4377,8.9146,6.7684,5.9162,6.8414,5.4497,5.6428,5.0660,7.2662,9.2651
1613.2812,1.1335,7.3838,6.6851,9.7801,10.1413,-2.2338,-6.3975,3.2260,7.2500,2.5943,11.2701,9.0003,8.9050,8.1573,5.4979,6.3801,7.2361,9.8879,12.8948
1617.1875,2.0047,7.7882,9.8564,11.6288,10.8993,-2.5694,-7.8351,4.4596,9.3691,3.2627,12.0735,10.6193,10.9427,8.9104,4.9378,6.5503,8.1098,11.3053,15.1086
1621.0938,2.7524,7.2046,10.4598,11.5125,10.2840,-1.8262,-6.0311,5.4108,9.9296,3.4228,11.5751,11.3587,11.4699,9.1397,4.5285,6.1921,7.8878,11.4542,15.2847
1625.0000,3.0009,6.3414,8.2825,9.7293,8.6924,-0.2894,-1.6471,5.9231,8.9696,3.1609,10.2324,11.0103,10.4927,8.8866,4.7071,5.3995,7.0147,10.4728,13.5115
1628.9062,2.6462,5.6341,4.5492,7.0866,6.7335,1.1902,3.4571,5.9358,7.0221,2.6497,8.5553,9.5763,8.5976,8.1683,5.4310,4.3457,5.8548,8.7182,10.6482
1632.8125,1.8940,5.0361,1.3645,4.5915,4.9616,1.6118,6.9148,5.4765,4.9469,2.1087,7.0069,7.3670,6.6445,6.9996,6.3152,3.2872,4.5183,6.7337,7.9574
1636.7188,1.1137,4.2351,0.5561,3.0270,3.6564,0.3884,6.8782,4.5802,3.5877,1.7517,5.9153,4.9292,5.3123,5.4297,6.9288,2.4999,2.9309,5.0992,6.4717
1640.6250,0.6314,3.1020,2.6126,2.6285,2.7759,-2.2435,2.9754,3.2410,3.3826,1.7315,5.3832,2.8113,4.7671,3.5651,7.0461,2.1572,1.0600,4.2013,6.4604
1644.5312,0.5882,1.9840,6.3888,3.0427,2.0972,-5.2396,-3.3308,1.4805,4.1297,2.0884,5.2425,1.3009,4.6442,1.5692,6.7094,2.2235,-0.9055,4.0532,7.3315
1648.4375,0.9098,1.5528,9.7757,3.5953,1.4371,-7.2515,-9.3261,-0.4986,5.0688,2.7085,5.1141,0.3071,4.3250,-0.3553,6.1064,2.4472,-2.5815,4.2913,8.0340
1652.3438,1.3581,2.2720,10.9104,3.7026,0.7955,-7.3710,-12.3959,-2.2184,5.2692,3.3154,4.5769,-0.5330,3.3169,-1.9968,5.3788,2.4740,-3.6193,4.3654,7.7000
1656.2500,1.6217,3.8841,9.1666,3.1708,0.3237,-5.6719,-11.4286,-3.0343,4.1239,3.5287,3.3647,-1.5976,1.5034,-3.1785,4.5071,2.0199,-3.9690,3.8136,6.1134
1660.1562,1.4240,5.3582,5.3401,2.2099,0.1602,-3.1812,-7.4014,-2.4526,1.6631,3.0051,1.4806,-3.0490,-0.8505,-3.8132,3.3433,0.9994,-3.9650,2.4563,3.7266
1664.0625,0.6421,5.4267,0.9953,1.1846,0.2687,-1.2618,-2.7278,-0.4844,-1.4985,1.6179,-0.8362,-4.7697,-3.2846,-3.9474,1.7582,-0.4586,-4.1430,0.4113,1.2627
1667.9688,-0.5978,3.3845,-2.5265,0.2986,0.4090,-0.7861,0.2535,2.2114,-4.5471,-0.4255,-3.2547,-6.4822,-5.3709,-3.7646,-0.2070,-2.0919,-4.8998,-2.0455,-0.7785
1671.8750,-1.9127,-0.4127,-4.7742,-0.5538,0.2645,-1.6393,0.6689,4.5472,-6.9406,-2.6245,-5.5100,-7.9336,-6.8516,-3.5249,-2.2922,-3.6126,-6.2329,-4.6484,-2.3611
1675.7812,-2.7897,-4.7241,-6.1583,-1.6635,-0.3664,-2.8688,-0.5303,5.5170,-8.6630,-4.3934,-7.4771,-9.0016,-7.6537,-3.4509,-4.1049,-4.7778,-7.7449,-7.2132,-3.7635
1679.6875,-2.8107,-8.1611,-7.3639,-3.1987,-1.4420,-3.3413,-1.4230,4.7263,-10.1055,-5.3259,-9.1373,-9.6617,-7.8326,-3.6063,-5.2874,-5.4204,-8.9044,-9.5767,-5.1998
1683.5938,-1.8574,-9.9563,-8.6941,-4.9354,-2.6848,-2.4237,-0.5191,2.6378,-11.6626,-5.3458,-10.4840,-9.8816,-7.5064,-3.8340,-5.6616,-5.4794,-9.3694,-11.4778,-6.5305
1687.5000,-0.1672,-10.2254,-9.8106,-6.2362,-3.7015,-0.2274,2.3113,0.3718,-13.3315,-4.6469,-11.4445,-9.5715,-6.8128,-3.8056,-5.2712,-5.0515,-9.1381,-12.5121,-7.2917
1691.4062,1.7959,-9.5905,-10.0056,-6.3337,-4.1350,2.6652,5.9756,-0.8485,-14.6082,-3.4849,-11.8709,-8.6626,-5.8803,-3.1871,-4.3179,-4.4188,-8.4431,-12.2488,-7.0185
1695.3125,3.5607,-8.5439,-8.7526,-4.7834,-3.7857,5.6609,9.1135,-0.3225,-14.7844,-2.0077,-11.6052,-7.2627,-4.8118,-1.8574,-3.0575,-3.9758,-7.5097,-10.4857,-5.6167
1699.2188,4.8042,-7.1180,-6.1309,-1.8315,-2.6850,8.3635,11.0205,1.7518,-13.4732,-0.2851,-10.5882,-5.7502,-3.6959,-0.0733,-1.7349,-4.0297,-6.4063,-7.5040,-3.5107
1703.1250,5.3594,-5.1422,-2.8555,1.5402,-1.1256,10.3896,11.8070,4.3444,-11.0164,1.4822,-8.9605,-4.6848,-2.6570,1.5333,-0.5863,-4.5664,-5.1221,-4.1429,-1.4632
1707.0312,5.1288,-2.8320,0.0626,3.9729,0.3698,11.0816,11.7736,6.0731,-8.4684,2.7894,-7.1027,-4.5432,-1.9123,2.1768,0.1373,-5.1614,-3.7934,-1.5802,-0.1942
1710.9375,4.0494,-1.1175,1.7765,4.3542,1.1828,9.5801,10.6857,5.8689,-7.1004,2.9291,-5.5641,-5.4279,-1.7614,1.2951,0.2014,-5.1640,-2.8490,-0.8607,-0.0478
1714.8438,2.1974,-1.2887,1.9139,2.4043,0.8434,5.4249,7.7223,3.5082,-7.6831,1.4153,-4.8706,-6.9430,-2.4573,-1.0900,-0.4940,-4.1076,-2.8802,-2.3776,-0.8943
1718.7500,-0.0439,-4.0896,0.6209,-1.1049,-0.7047,-0.6887,2.2750,-0.2523,-9.9743,-1.5227,-5.2649,-8.3493,-3.9981,-4.2434,-1.7711,-2.1006,-4.2615,-5.5888,-2.2837
1722.6562,-1.9522,-8.9114,-1.6028,-4.6672,-2.9855,-6.6955,-5.0349,-4.0218,-12.7554,-4.7804,-6.5145,-8.9354,-5.9835,-6.9537,-3.1348,0.0954,-6.7766,-9.1708,-3.7137
1726.5625,-2.7264,-13.7714,-4.1385,-6.7866,-5.1603,-9.9438,-12.0629,-6.4512,-14.4461,-6.8050,-7.9354,-8.4067,-7.6923,-8.0833,-3.9296,1.4208,-9.5514,-11.6003,-4.8451
1730.4688,-1.9730,-16.2555,-6.4458,-6.7820,-6.4595,-8.7148,-16.0462,-6.9103,-13.9748,-6.4622,-8.6911,-7.0679,-8.4148,-7.1803,-3.6637,1.1358,-11.4142,-11.9061,-5.5828
1734.3750,-0.1161,-14.9058,-8.1887,-5.1999,-6.6520,-3.5420,-15.2479,-5.8051,-11.4061,-3.8286,-8.2541,-5.6907,-7.8829,-4.8104,-2.3273,-0.6847,-11.5026,-10.1964,-6.0412
1738.2812,1.6193,-10.1622,-9.2956,-3.5589,-6.2404,2.6726,-10.2225,-4.3437,-7.9482,-0.3436,-6.7634,-5.1263,-6.5163,-2.3717,-0.4886,-3.1227,-9.7457,-7.6478,-6.4618
1742.1875,1.7749,-4.2197,-9.9394,-3.5134,-6.1962,6.0695,-3.7302,-3.8496,-5.3137,1.8862,-5.0168,-5.8600,-5.2681,-1.4244,0.9446,-4.9073,-6.9105,-5.9097,-7.1170
1746.0938,-0.4738,0.1483,-10.4175,-5.8738,-7.3436,4.0601,0.7821,-4.9932,-4.7890,1.2883,-4.0314,-7.7274,-5.0918,-2.8524,1.2065,-5.1316,-4.1730,-6.2096,-8.1935
1750.0000,-4.6675,1.0895,-10.9500,-10.0479,-9.7550,-2.9764,1.2194,-7.3817,-6.5334,-2.1847,-4.3972,-9.9286,-6.3190,-6.3091,0.1331,-3.7422,-2.4734,-8.6362,-9.6545
1753.9062,-9.0942,-1.3905,-11.4903,-14.2530,-12.5647,-11.6600,-1.9066,-9.7639,-9.4956,-6.9092,-5.8312,-11.3404,-8.3435,-10.2806,-1.6800,-1.5034,-2.0447,-12.0084,-11.1391
1757.8125,-11.5834,-5.5539,-11.6843,-16.4221,-14.3676,-17.3747,-5.8212,-10.7453,-11.9790,-10.4247,-7.2641,-10.9999,-9.8596,-12.7794,-3.1433,0.5137,-2.3760,-14.4361,-12.0050
1761.7188,-10.6740,-8.9678,-11.0563,-15.3173,-14.0056,-16.8472,-7.2221,-9.6054,-12.5290,-10.7839,-7.4657,-8.5657,-9.5714,-12.3363,-3.2371,1.5588,-2.6042,-14.3036,-11.5803
1765.6250,-6.5026,-9.8132,-9.3541,-11.2385,-11.2825,-10.0349,-4.3378,-6.7414,-10.6631,-7.6394,-5.8453,-4.5650,-6.9914,-8.7856,-1.5701,1.5430,-2.0802,-11.1665,-9.5617
1769.5312,-0.8788,-7.7686,-6.8519,-5.9418,-7.1756,-0.2378,1.9203,-3.4888,-7.0832,-2.4563,-2.9098,-0.3008,-2.8586,-3.4357,1.3717,0.9253,-0.7812,-6.0889,-6.3495
1773.4375,3.5352,-4.0816,-4.3891,-1.8192,-3.4076,7.6079,8.3666,-1.4382,-3.3066,2.2425,-0.0523,2.5923,1.0940,1.4734,4.4194,0.2962,0.6454,-1.2256,-3.0772
1777.3438,4.5310,-0.8791,-3.0610,-0.7822,-1.6110,9.4749,11.2599,-1.6452,-0.9401,4.1568,1.2319,2.8080,2.9368,3.7674,6.2606,-0.0062,1.2191,1.1634,-1.2207
1781.2500,1.4654,-0.0880,-3.6892,-3.4085,-2.5395,4.2604,8.3803,-4.1523,-0.9606,2.3273,0.2226,-0.0113,1.5032,2.3219,6.0541,-0.0029,0.1660,-0.1989,-1.9153
1785.1562,-4.3964,-2.4515,-6.3527,-8.7277,-5.7258,-5.7213,0.3682,-8.0216,-3.3102,-2.4483,-2.6020,-4.9896,-2.9823,-2.4197,3.8326,0.1000,-2.6031,-4.9408,-5.3183
1789.0625,-10.4755,-7.0713,-10.2505,-14.6793,-9.7248,-15.9147,-9.3775,-11.7829,-6.9438,-8.0435,-5.8532,-10.2614,-8.9321,-8.6173,0.5111,0.1537,-6.3154,-11.1279,-10.3825
1792.9688,-14.1104,-11.7191,-13.9906,-18.9756,-12.7759,-21.7091,-16.2392,-14.0262,-10.2776,-12.0141,-8.0325,-13.7116,-14.0726,-13.8103,-2.5014,0.1643,-9.5754,-16.0854,-15.2152
1796.8750,-13.8177,-13.8620,-16.1690,-19.9844,-13.5499,-20.5714,-16.6591,-13.8789,-11.8488,-12.7034,-8.3325,-13.9134,-16.4473,-15.9511,-3.9278,0.1977,-10.9566,-17.5969,-17.8843
1800.7812,-9.9703,-11.9883,-15.9497,-17.3067,-11.6559,-13.1727,-10.0554,-11.2466,-10.9281,-9.9605,-6.9603,-10.8162,-15.2678,-14.2505,-3.2221,0.2297,-9.6957,-14.9270,-17.2792
1804.6875,-4.5673,-6.5554,-13.3742,-11.8757,-7.7318,-3.0310,0.6473,-6.8169,-7.8370,-5.1752,-4.8441,-5.8067,-11.2184,-9.4729,-0.8707,0.1207,-6.1449,-9.1708,-13.5920
1808.5938,-0.2090,0.0547,-9.2790,-5.5736,-3.1285,5.1585,10.2928,-1.8649,-3.8117,-0.6120,-2.9792,-1.0663,-6.0788,-3.5627,1.7794,-0.2428,-1.7048,-2.7366,-8.1850
1812.5000,1.2172,4.7152,-4.9004,-0.5024,0.6573,7.7637,14.0681,2.1129,-0.4356,1.6743,-1.8617,1.4786,-1.8620,1.2256,3.1393,-0.7719,1.7942,1.8095,-2.9321
1816.4062,-0.5243,5.3110,-1.3779,1.8338,2.5675,3.9767,10.0703,3.8909,1.1229,0.8527,-1.3392,1.0745,0.1061,3.2926,2.1879,-1.1529,2.9797,2.9698,0.6122
1820.3125,-3.9506,2.0336,0.6218,1.1160,2.3559,-3.8029,0.4002,2.9965,0.6884,-2.2567,-0.8925,-1.5579,-0.2845,2.3148,-0.9351,-1.0425,1.6196,0.9758,1.8048
1824.2188,-6.7162,-2.6716,1.0336,-1.7013,0.6042,-11.2328,-9.9603,-0.0330,-0.8609,-5.6139,-0.0920,-4.6877,-2.0365,-0.7488,-4.9085,-0.3465,-1.2986,-2.4630,1.0156
1828.1250,-6.9375,-5.5951,0.2755,-4.8737,-1.6140,-14.3445,-15.9373,-3.8059,-2.1240,-7.0794,1.0947,-6.5251,-3.6951,-4.2244,-7.8619,0.6494,-4.1467,-5.1751,-0.7323
1832.0312,-4.2430,-4.8085,-1.0095,-6.7095,-3.2497,-11.6597,-15.1823,-6.6408,-2.0224,-5.6324,2.3095,-6.1111,-4.1569,-6.5376,-8.3611,1.4332,-5.5489,-5.7170,-2.3301
1835.9375,0.0626,-0.9247,-2.2165,-6.3470,-3.7114,-4.8819,-9.1746,-7.2928,-0.4588,-1.9715,3.0607,-3.6652,-3.1803,-6.8511,-6.2001,1.6167,-5.0497,-4.0535,-3.0449
1839.8438,3.8243,3.3188,-2.9430,-4.0521,-2.9997,2.2712,-1.9273,-5.4656,1.6309,1.9026,3.0273,-0.2561,-1.3420,-5.2406,-2.5188,1.2223,-3.1738,-1.3592,-2.6845
1843.7500,5.3501,4.9270,-3.0235,-0.8937,-1.5124,6.3878,2.7989,-1.8412,2.8886,3.9063,2.2252,2.9241,0.4728,-2.4177,0.8487,0.6813,-0.9080,0.8743,-1.4711
1847.6562,4.3951,2.7122,-2.4687,1.9715,0.3099,6.3644,3.8502,2.3540,2.4309,3.1486,0.9791,5.1924,1.6761,0.7464,2.4143,0.5283,0.9894,1.8126,0.2133
1851.5625,2.1964,-1.8694,-1.3778,3.9389,2.2378,3.8118,2.9970,5.9557,0.4521,0.4463,-0.2361,6.5430,2.2784,3.5851,1.8255,1.0107,2.3688,1.7021,2.0313
1855.4688,0.5540,-5.7012,0.1194,5.1306,4.2441,1.6435,3.0906,8.2837,-1.8704,-2.2626,-0.9795,7.3308,2.7269,5.7349,-0.0727,1.9033,3.5483,1.5122,3.7542
1859.3750,0.5834,-6.1244,1.8696,6.0533,6.2864,1.8758,5.5302,9.2019,-3.1104,-3.2157,-0.9862,7.7857,3.4496,7.0386,-1.9050,2.6621,4.8427,2.1115,5.2234
1863.2812,1.9898,-2.7082,3.6754,7.0494,8.1012,4.2107,9.0168,8.9091,-2.4870,-1.9591,-0.2464,7.7577,4.4735,7.4466,-2.6832,2.8004,6.1861,3.5977,6.3035
1867.1875,3.3510,2.5431,5.2832,7.9735,9.2204,6.4024,10.5810,7.7103,-0.3320,0.4422,0.9805,6.8855,5.3981,7.0404,-2.3506,2.2108,7.1533,5.2544,6.8929
1871.0938,3.2014,6.6309,6.4090,8.3247,9.2315,6.1072,8.0993,5.9417,2.1533,2.2313,2.2271,5.0311,5.7190,6.1276,-1.6251,1.2071,7.3330,6.1258,6.9746
1875.0000,1.1470,7.5718,6.7992,7.6995,8.0886,2.8252,2.3148,4.0211,3.6605,2.2165,2.9688,2.6101,5.2264,5.2366,-1.3247,0.2824,6.7092,5.7486,6.6389
1878.9062,-1.7799,5.5526,6.3036,6.1827,6.2176,-1.5323,-3.3072,2.4458,3.5332,0.5658,2.8369,0.5113,4.1598,4.9029,-1.7159,-0.2194,5.7055,4.4810,6.0310
1882.8125,-3.7824,2.5001,4.9315,4.3516,4.3033,-3.9091,-4.9224,1.6195,2.0469,-1.3984,1.8113,-0.3913,3.0056,5.3295,-2.3732,-0.2753,4.8445,3.1979,5.2504
1886.7188,-3.5239,0.5157,2.8740,2.8843,2.8958,-2.3081,-1.1650,1.5880,0.0962,-2.2156,0.2832,0.1850,2.1175,6.1739,-2.6168,-0.1050,4.3095,2.6081,4.2900
1890.6250,-1.0709,0.4041,0.4850,2.0830,2.1209,2.6597,5.6343,1.9211,-1.4205,-1.3543,-1.0772,1.6806,1.4786,6.6795,-2.1502,0.0536,3.7976,2.7282,3.0801
1894.5312,2.0854,1.3437,-1.7789,1.6911,1.7074,8.0109,10.8553,1.9249,-2.0750,0.4286,-1.6168,2.9699,0.7988,6.1386,-1.3718,0.1117,2.8185,2.9098,1.6240
1898.4375,3.9288,1.8083,-3.4570,1.1545,1.2979,10.2550,10.6680,1.1167,-1.9697,1.6577,-1.0260,3.0103,-0.1405,4.4066,-1.1100,0.1128,1.2172,2.3798,0.1169
1902.3438,3.1248,0.9071,-4.2076,0.1265,0.7884,7.5935,4.5854,-0.3555,-1.4524,1.1837,0.4703,1.4505,-1.1957,2.0986,-1.9869,0.0794,-0.5156,0.8661,-1.0638
1906.2500,-0.2453,-0.9290,-3.9146,-1.1779,0.4247,0.9722,-4.3039,-1.6865,-0.7835,-1.0519,2.1727,-1.1848,-1.8860,0.2895,-3.9127,-0.1112,-1.4413,-1.1664,-1.5283
1910.1562,-4.8301,-2.3859,-2.7261,-2.0626,0.5847,-6.6290,-11.4984,-1.8671,-0.0158,-4.0346,3.2126,-3.8268,-1.7367,-0.1172,-6.1031,-0.6827,-0.7862,-2.8274,-1.1058
1914.0625,-8.8357,-2.3855,-0.9897,-1.8165,1.4341,-12.0411,-13.9828,-0.3439,0.8842,-6.3832,2.9762,-5.4644,-0.6705,1.0617,-7.6033,-1.7636,1.4634,-3.3930,0.0212
1917.9688,-10.9302,-0.9369,0.8960,-0.2277,2.7500,-13.5627,-11.7741,2.5663,1.8652,-7.1807,1.4457,-5.6214,0.8794,3.1965,-7.9120,-3.1956,4.4352,-2.7197,1.3929
1921.8750,-10.6804,0.9505,2.6401,2.2318,4.0694,-11.4087,-7.1647,5.8155,2.7711,-6.3534,-0.7193,-4.4432,2.2529,5.2727,-7.2361,-4.5226,6.8382,-1.1951,2.5270
1925.7812,-8.3960,2.1726,4.1327,4.6818,5.0484,-6.9180,-2.5030,8.2377,3.4994,-4.4300,-2.4328,-2.4247,3.0394,6.5384,-6.2113,-5.2051,7.7198,0.6760,3.1917
1929.6875,-4.6907,2.4799,5.3953,6.3703,5.7385,-1.3712,1.6075,9.2251,4.1607,-1.9965,-2.6800,-0.0520,3.3768,6.9287,-5.3478,-4.9355,7.0055,2.6673,3.5163
1933.5938,-0.1849,2.6805,6.4537,7.0946,6.5403,4.5995,6.2828,9.0120,5.0379,0.6598,-1.0373,2.3681,3.8238,6.9877,-4.6629,-3.8417,5.4713,4.8729,3.8644
1937.5000,4.4613,3.9233,7.2440,7.2289,7.8467,10.6719,12.6526,8.3980,6.3162,3.4543,2.0513,4.6119,4.8798,7.3739,-3.7903,-2.4350,4.1996,7.3785,4.5564
1941.4062,8.3631,6.6252,7.6366,7.3685,9.6436,16.0726,20.0043,8.1358,7.7902,6.1241,5.4124,6.3428,6.5088,8.3189,-2.4523,-1.3294,3.9045,9.8752,5.6268
1945.3125,10.4237,9.8945,7.5683,7.8578,11.3796,19.2576,25.4398,8.4211,8.8237,7.9868,7.6641,7.0625,8.0370,9.4225,-0.8782,-0.9079,4.5628,11.5919,6.7749
1949.2188,9.7310,11.9392,7.1674,8.5308,12.2291,18.5165,25.5145,8.8215,8.6784,8.1529,7.8667,6.3244,8.5300,9.9142,0.2101,-1.1449,5.5350,11.6748,7.5302
1953.1250,6.1641,11.2169,6.7425,8.8263,11.5800,13.1870,18.7597,8.6490,7.0263,6.1172,5.9625,4.0819,7.4035,9.1832,0.0728,-1.6822,6.0282,9.7774,7.5191
1957.0312,0.7754,7.5443,6.6031,8.1804,9.4206,4.5911,7.2428,7.4852,4.2815,2.3040,2.7621,0.8983,4.8499,7.2129,-1.4631,-2.0973,5.5670,6.4298,6.6620
1960.9375,-4.4252,2.3959,6.8183,6.4323,6.3695,-4.0995,-4.0570,5.4938,1.4672,-1.8868,-0.5106,-2.1935,1.7859,4.6417,-3.7732,-2.1827,4.2016,2.8868,5.1971
1964.8438,-7.2937,-1.8327,7.0992,3.9824,3.3460,-9.1803,-9.7801,3.3429,-0.3489,-4.6715,-2.8432,-4.1541,-0.6468,2.4290,-5.7650,-2.0628,2.4008,0.5078,3.5363
1968.7500,-6.5847,-3.1593,6.9236,1.6081,1.1043,-8.2391,-7.0780,1.8206,-0.7045,-4.8083,-3.8703,-4.4658,-1.7046,1.3441,-6.5577,-2.0827,0.7622,0.0364,2.0569
1972.6562,-2.6158,-1.1465,5.8508,0.0484,-0.0837,-1.4658,2.8662,1.4024,-0.0417,-2.3078,-3.8944,-3.4031,-1.4065,1.5720,-6.0342,-2.5480,-0.2738,1.2101,0.9407
1976.5625,2.8273,2.8231,3.8249,-0.4048,-0.4444,8.2951,15.4861,2.0108,0.5595,1.5134,-3.5406,-1.8772,-0.4445,2.6327,-4.8729,-3.4835,-0.5892,2.9157,0.1293
1980.4688,7.3158,6.2724,1.2586,-0.0699,-0.4648,16.7889,25.1292,3.0625,0.0618,4.6869,-3.3162,-0.9453,0.2639,3.6314,-4.0398,-4.5657,-0.4049,3.7794,-0.6018
1984.3750,8.9028,6.9443,-1.1649,0.3137,-0.5736,20.2602,27.6543,3.7493,-1.8617,5.5955,-3.3668,-1.2662,0.0958,3.7080,-4.0983,-5.2775,-0.1636,2.8621,-1.4884
1988.2812,6.9781,4.0054,-2.8322,0.0435,-0.9127,17.1042,22.0556,3.4173,-4.5835,3.7785,-3.5387,-2.7929,-0.9685,2.4836,-4.8133,-5.1988,-0.3078,0.1188,-2.6026
1992.1875,2.4538,-1.4875,-3.4540,-1.0695,-1.2814,8.5195,10.5647,1.8896,-6.8483,0.1216,-3.6244,-4.8353,-2.3773,0.3105,-5.3113,-4.2582,-1.0181,-3.5609,-3.7314
1996.0938,-2.7570,-7.0987,-3.0897,-2.5002,-1.2514,-2.0829,-2.5269,-0.3993,-7.4728,-3.6413,-3.5584,-6.4233,-3.3234,-1.8104,-4.6794,-2.7891,-2.0397,-6.7207,-4.3931
2000.0000,-6.6592,-10.2569,-1.9883,-3.2592,-0.4066,-10.6071,-12.6505,-2.5478,-6.0184,-5.8303,-3.4207,-6.7708,-3.1759,-2.6645,-2.6095,-1.3488,-2.7472,-7.9599,-4.0364
2003.9062,-8.0313,-9.6072,-0.4307,-2.5098,1.3700,-14.0467,-16.6511,-3.6006,-3.0818,-5.6537,-3.3004,-5.6323,-1.8336,-1.4667,0.3168,-0.4055,-2.4962,-6.5803,-2.3793
2007.8125,-6.8358,-5.7629,1.2816,-0.2110,3.6809,-11.7209,-13.8662,-3.0728,-0.0677,-3.5581,-3.1962,-3.4242,0.1486,1.5892,2.8652,-0.0911,-1.1134,-3.0058,0.2781
2011.7188,-4.0509,-1.0217,2.7211,2.6441,5.6190,-5.4287,-6.2703,-1.3034,1.4281,-0.9340,-3.0795,-1.0798,1.7374,5.2149,3.7618,-0.1780,0.7974,1.2474,2.9913
2015.6250,-1.0751,1.8546,3.2998,4.4346,6.0889,1.5368,2.4024,0.6207,0.3368,0.6537,-3.0619,0.3075,1.8713,7.5233,2.3452,-0.2919,2.0158,4.1305,4.4959
2019.5312,0.9620,1.1593,2.4718,3.8129,4.3764,6.0226,8.2920,1.4160,-3.3766,0.3009,-3.4757,-0.0651,0.0129,6.9754,-1.0756,-0.2126,1.3488,3.9902,3.8357
2023.4375,1.6396,-2.7968,0.1300,0.5874,0.6840,6.4732,9.1397,0.3587,-8.6307,-1.7781,-4.7125,-2.3335,-3.4646,3.2956,-5.3218,-0.0451,-1.5848,0.4507,0.9696
2027.3438,1.2548,-7.8650,-3.0823,-3.9949,-3.7329,3.4720,5.2591,-2.2178,-13.6149,-4.4172,-6.8796,-5.8419,-7.3149,-2.2080,-8.8512,-0.1351,-5.9452,-5.2462,-3.0375
2031.2500,0.4646,-11.3037,-5.8662,-7.8247,-7.0365,-0.8649,-0.8146,-5.0430,-16.5111,-6.1881,-9.5316,-9.3733,-9.9524,-7.1953,-10.4409,-0.7876,-9.9845,-10.7270,-6.4454
2035.1562,-0.1839,-11.3587,-6.8588,-9.0829,-7.7262,-4.2203,-5.8478,-6.6288,-16.2609,-6.2161,-11.7441,-11.6781,-10.2626,-9.4848,-9.7394,-1.9972,-11.9718,-13.6309,-7.7248
2039.0625,-0.5416,-8.2183,-5.4348,-7.2845,-5.5063,-5.3137,-7.7328,-6.1570,-13.0351,-4.6427,-12.5669,-12.0633,-8.2513,-8.2236,-7.4245,-3.3981,-11.1945,-12.8183,-6.4070
2042.9688,-0.8146,-3.7707,-2.2028,-3.5513,-1.5429,-4.3445,-6.5200,-3.9600,-8.1597,-2.4691,-11.5919,-10.7263,-5.1192,-4.3402,-4.8661,-4.4796,-8.3988,-8.9465,-3.3702
2046.8750,-1.2691,-0.3516,1.1983,0.0697,2.1204,-2.5017,-4.0650,-1.2769,-3.4970,-0.8961,-9.2381,-8.6225,-2.6533,0.0017,-3.4263,-4.9083,-5.3684,-4.0507,-0.3483
2050.7812,-1.9314,0.6830,2.9672,1.8130,3.6884,-1.0086,-2.6149,0.5382,-0.5689,-0.5890,-6.5191,-6.9158,-2.2464,2.6175,-3.7383,-4.7141,-3.8886,-0.3736,1.0693
2054.6875,-2.5124,-0.3568,2.1707,1.1552,2.6018,-0.4119,-3.3408,0.8062,0.1214,-1.3370,-4.4239,-6.3220,-4.1182,2.4454,-5.3618,-4.1943,-4.7387,0.8453,0.3390
2058.5938,-2.6127,-1.9387,-0.7160,-1.0576,-0.2336,-0.5387,-5.7972,-0.2178,-0.8007,-2.3013,-3.3338,-6.7374,-7.2141,-0.0491,-7.0391,-3.6180,-7.3269,-0.1129,-1.7928
2062.5000,-2.0421,-2.5012,-4.1225,-3.3317,-3.1132,-0.9904,-8.5602,-1.7381,-2.0939,-2.6503,-2.8873,-7.3791,-9.8480,-3.3784,-7.4385,-2.9745,-10.1510,-1.8914,-3.8433
2066.4062,-1.0011,-1.5439,-6.3589,-4.5458,-4.6379,-1.6441,-10.4411,-3.1061,-2.7193,-2.1267,-2.3850,-7.3380,-10.6889,-6.0342,-5.9625,-1.9879,-11.7415,-3.1043,-4.5718
2070.3125,0.0298,0.1056,-6.6255,-4.5680,-4.5212,-2.7055,-11.3093,-4.2493,-2.4548,-1.1630,-1.4225,-6.1806,-9.4790,-7.3054,-3.1220,-0.4085,-11.4740,-3.2484,-3.7411
2074.2188,0.6207,0.9567,-5.4098,-4.1031,-3.5864,-4.2992,-11.9426,-5.5307,-1.9327,-0.4970,-0.2676,-4.2133,-7.0623,-7.4306,-0.2312,1.6435,-9.7835,-2.8919,-2.1837
2078.1250,0.6953,-0.0754,-4.0443,-3.9808,-3.0163,-6.0262,-13.1261,-7.2014,-2.0999,-0.5973,0.3167,-2.2557,-4.7565,-7.1132,1.3983,3.5755,-7.7392,-3.0804,-1.1685
2082.0312,0.5733,-2.9466,-3.7611,-4.4707,-3.4341,-6.9748,-14.7940,-8.9428,-3.4803,-1.3270,-0.3222,-1.1012,-3.5175,-6.8500,1.2498,4.5919,-6.3355,-4.4486,-1.5230
2085.9375,0.7058,-6.5483,-4.8946,-5.1315,-4.4806,-6.2940,-15.9438,-9.9170,-5.7429,-2.0793,-2.1445,-1.0402,-3.4404,-6.5915,-0.1290,4.1854,-5.9687,-6.6955,-3.1030
2089.8438,1.2903,-9.4353,-6.7436,-5.2555,-5.1624,-3.9366,-15.4073,-9.3334,-7.8646,-2.2634,-4.3160,-1.7518,-3.8751,-5.9335,-1.5394,2.5109,-6.3705,-8.7766,-4.9384
2093.7500,2.0501,-10.6802,-8.1310,-4.5116,-4.6791,-0.9659,-12.8772,-7.1038,-8.7733,-1.7677,-5.6877,-2.5983,-4.0088,-4.6158,-1.9312,0.3612,-6.9363,-9.6388,-5.9150
2097.6562,2.3547,-10.3142,-8.2311,-3.2642,-3.0986,0.9074,-9.3797,-4.0668,-8.0357,-1.0569,-5.5364,-3.0759,-3.4748,-2.8869,-1.0414,-1.2650,-7.1595,-8.9445,-5.5069
2101.5625,1.6191,-9.1553,-7.0888,-2.3221,-1.3797,0.3312,-6.7906,-1.5651,-6.1307,-0.8369,-4.0379,-3.0941,-2.5720,-1.4295,0.5430,-1.7253,-6.8877,-7.2743,-4.0760
2105.4688,-0.2705,-8.2289,-5.5144,-2.3238,-0.7287,-2.7853,-6.6917,-0.6422,-4.1341,-1.5309,-2.1331,-2.9064,-1.9814,-0.9014,1.8961,-1.0589,-6.2945,-5.6896,-2.5726
2109.3750,-2.7805,-8.1727,-4.4806,-3.2305,-1.7516,-7.0830,-9.3304,-1.4049,-3.0279,-2.9345,-0.8709,-2.7847,-2.2121,-1.4456,2.4413,0.1229,-5.6630,-4.9900,-1.8778
2113.2812,-4.9202,-8.9369,-4.4652,-4.3046,-3.9978,-10.4240,-13.3665,-2.9825,-3.0840,-4.2766,-0.6815,-2.7127,-3.1740,-2.5403,2.3229,1.0772,-5.1639,-5.1868,-2.2361
2117.1875,-5.6937,-9.8588,-5.1768,-4.5821,-6.2019,-11.0157,-16.5645,-4.0924,-3.7063,-4.6400,-1.0834,-2.3438,-4.1645,-3.3089,2.2234,1.3850,-4.7658,-5.5333,-3.1324
2121.0938,-4.5726,-9.9999,-5.7992,-3.4993,-7.0491,-8.3285,-16.9974,-3.8242,-3.8143,-3.4706,-1.0220,-1.2618,-4.2738,-3.0771,2.8016,1.1273,-4.3020,-5.0589,-3.6533
2125.0000,-1.7569,-8.5718,-5.5447,-1.2551,-5.9519,-3.3232,-14.0580,-2.1440,-2.5133,-0.8834,0.3860,0.6424,-2.9452,-1.8022,4.1796,0.7148,-3.6224,-3.2291,-3.0680
2128.9062,1.8790,-5.2955,-4.1359,1.2984,-3.3556,2.0475,-8.7427,0.1494,0.3581,2.3793,3.2026,2.9557,-0.3454,-0.0995,5.8447,0.5440,-2.7260,-0.3083,-1.2584
2132.8125,5.1106,-0.5803,-1.9315,3.1233,-0.4251,5.7232,-3.1132,1.9173,4.1113,5.2745,6.5358,4.8568,2.6748,1.1378,7.0023,0.7440,-1.7947,2.7765,1.2387
2136.7188,6.8159,4.5560,0.3304,3.5143,1.6439,6.3520,0.7269,2.2856,7.5601,6.8852,9.0107,5.5127,5.0066,1.2757,7.0973,1.1647,-1.1034,4.9501,3.5619
2140.6250,6.3874,8.8340,1.9657,2.3930,2.2494,3.7363,1.6055,1.0368,9.6137,6.7557,9.5431,4.5280,5.8522,0.3118,6.1240,1.5534,-0.8446,5.5538,4.9996
2144.5312,3.9567,11.2067,2.6809,0.2856,1.6046,-1.1762,-0.2607,-1.3462,9.7740,5.0202,7.9425,2.1876,5.1246,-1.1178,4.5324,1.7460,-0.9652,4.6432,5.3283
2148.4375,0.3403,11.2695,2.6349,-1.9370,0.4963,-6.6830,-3.5109,-3.9208,8.2873,2.3026,4.9891,-0.6500,3.4595,-2.0775,2.8438,1.7237,-1.1282,2.8816,4.8460
2152.3438,-3.2948,9.3566,2.2328,-3.4143,-0.2160,-10.9681,-6.4397,-5.6668,5.9073,-0.5655,1.9577,-2.9560,1.8350,-1.8251,1.2826,1.5326,-0.8655,1.1216,4.1133
2156.2500,-5.9292,6.2630,1.7970,-3.6295,-0.0581,-12.8085,-7.9265,-5.8783,3.4336,-2.9005,-0.1155,-4.0255,1.0085,-0.2052,-0.3143,1.1762,0.1281,-0.0869,3.5712
2160.1562,-7.1333,2.7709,1.3134,-2.6358,0.8636,-12.0938,-7.9985,-4.4607,1.2899,-4.4505,-0.9938,-3.8181,1.0882,2.2426,-2.2719,0.5939,1.7258,-0.8016,3.2590
2164.0625,-7.2216,-0.7021,0.4013,-1.0864,1.9805,-9.8884,-7.7025,-2.0265,-0.6368,-5.4625,-1.3125,-2.9719,1.4901,4.5107,-4.7232,-0.2584,3.3214,-1.6478,2.7904
2167.9688,-7.0131,-4.1132,-1.4613,-0.0001,2.5875,-7.9117,-8.3473,0.3041,-2.8228,-6.4741,-2.1349,-2.4759,1.3165,5.5862,-7.3873,-1.3117,4.0922,-3.4391,1.6106
2171.8750,-7.3063,-7.5013,-4.5543,-0.2841,2.1995,-7.6202,-10.5676,1.3915,-5.7077,-7.9197,-4.2529,-3.1450,-0.0597,4.9400,-9.6257,-2.3648,3.4564,-6.6365,-0.6032
2175.7812,-8.3647,-10.6676,-8.5767,-2.2068,0.7775,-9.3653,-13.8079,0.6646,-9.2957,-9.7734,-7.6350,-5.1484,-2.5560,2.8042,-10.7301,-3.1659,1.4504,-10.9243,-3.6236
2179.6875,-9.7268,-13.1132,-12.5704,-5.1236,-1.2676,-12.1432,-16.5862,-1.5151,-12.9924,-11.4644,-11.3434,-7.8381,-5.3681,0.0822,-10.2612,-3.5250,-1.2333,-15.1615,-6.6430
2183.5938,-10.4683,-14.2905,-15.2188,-7.6933,-3.2791,-14.1434,-17.3899,-3.9804,-15.7911,-12.1506,-13.9790,-10.0010,-7.4067,-2.0932,-8.2514,-3.3745,-3.6033,-17.7984,-8.5926
2187.5000,-9.7655,-13.9570,-15.4349,-8.5485,-4.6606,-13.8044,-15.6148,-5.3706,-16.7348,-11.2084,-14.4185,-10.4482,-7.9235,-2.9381,-5.1870,-2.7520,-4.9119,-17.6020,-8.6697
2191.4062,-7.4158,-12.3254,-12.9517,-7.0694,-5.1250,-10.7398,-11.9101,-4.8977,-15.4185,-8.6406,-12.4333,-8.6632,-6.9354,-2.4216,-1.8084,-1.7569,-5.0353,-14.3280,-6.7902
2195.3125,-3.9981,-9.8901,-8.5667,-3.7842,-4.7612,-5.9609,-7.7012,-2.7902,-12.2569,-5.1376,-8.8368,-5.1583,-5.1848,-1.2548,1.1612,-0.5401,-4.4502,-8.9556,-3.6937
2199.2188,-0.5882,-7.0915,-3.8434,-0.1120,-3.9008,-1.2771,-4.2474,-0.1182,-8.3531,-1.7512,-5.0676,-1.3090,-3.6704,-0.4579,3.2405,0.6692,-3.8410,-3.3089,-0.6120
2203.1250,1.7821,-4.1288,-0.3769,2.4195,-2.8904,1.7175,-1.9173,1.8917,-5.0157,0.6176,-2.4390,1.2929,-3.0605,-0.7556,4.2965,1.5699,-3.6270,0.7777,1.3347
2207.0312,2.5978,-1.0892,0.9870,3.0019,-1.9319,2.4278,-0.1757,2.5961,-3.1657,1.6024,-1.4774,1.6531,-3.3629,-2.1626,4.5110,1.8916,-3.7382,2.3169,1.6775
2210.9375,2.0202,1.7420,0.5287,1.8999,-1.0933,1.3758,1.7749,2.2395,-2.9398,1.4263,-1.7205,-0.0836,-4.0300,-4.0080,4.2459,1.5722,-3.7674,1.5833,0.7702
2214.8438,0.7063,3.7304,-0.5993,0.1387,-0.4453,-0.3032,4.2510,1.6441,-3.6924,0.6534,-2.0723,-2.6733,-4.3783,-5.3661,3.8774,0.8880,-3.3462,-0.1336,-0.4912
2218.7500,-0.5489,4.1418,-1.1002,-1.2196,-0.1709,-1.5653,6.8305,1.5382,-4.3794,-0.1476,-1.4877,-4.3964,-4.0041,-5.6033,3.6782,0.3980,-2.4383,-1.2816,-1.2109
2222.6562,-1.1313,2.6837,-0.2880,-1.6967,-0.5056,-1.8976,8.7418,2.0139,-4.1122,-0.6102,0.4212,-3.9360,-2.9289,-4.6926,3.7927,0.6763,-1.3362,-0.8659,-0.9609
2226.5625,-0.7632,-0.0692,1.5840,-1.5190,-1.5151,-1.3171,9.5247,2.4870,-2.5901,-0.5743,3.1933,-1.0473,-1.4361,-3.1210,4.2834,1.9646,-0.3976,1.1119,0.0879
2230.4688,0.4956,-2.7674,3.5823,-1.2339,-2.8831,-0.0883,9.3883,2.1531,-0.2071,0.0124,5.8133,3.3312,0.2030,-1.5024,5.1768,3.9687,0.2391,3.7905,1.3962
2234.3750,2.3304,-3.9454,4.7186,-1.1808,-3.9296,1.5351,8.9856,0.5900,2.1863,1.1463,7.2818,7.5606,1.8703,-0.1950,6.4413,5.9550,0.7220,6.0132,2.4435
2238.2812,4.2788,-2.8616,4.5088,-1.2474,-3.9362,3.3670,8.8397,-1.9195,3.7121,2.7111,7.1200,10.1006,3.5158,0.8146,7.8994,7.1146,1.2938,6.9451,2.9933
2242.1875,5.8524,0.0374,3.1275,-1.0744,-2.6152,5.1942,8.9484,-4.5391,3.8571,4.3897,5.5535,10.2020,4.9732,1.7158,9.1643,6.9860,2.0212,6.4007,3.0901
2246.0938,6.6693,3.3496,1.1378,-0.5008,-0.4060,6.6979,8.9009,-6.3615,2.6550,5.6765,3.3312,8.1633,5.8905,2.5645,9.7094,5.6860,2.6909,4.7641,2.8538
2250.0000,6.5594,5.4911,-0.9265,0.1530,1.6561,7.4946,8.3577,-6.8819,0.6103,6.0467,1.3341,5.0768,5.8884,3.1225,9.1031,3.8241,2.9685,2.6445,2.2861
2253.9062,5.5821,5.5076,-2.7926,0.2303,2.4792,7.2521,7.4046,-6.1784,-1.5558,5.2004,0.1956,2.2477,4.8434,2.9817,7.2980,2.1733,2.6932,0.5374,1.2647
2257.8125,3.9367,3.4387,-4.3574,-0.7729,1.5544,5.7753,6.4209,-4.7509,-3.1965,3.2278,0.0914,0.6055,3.0623,1.8790,4.7790,1.3014,2.0555,-1.3095,-0.2685
2261.7188,1.8328,0.1096,-5.4301,-2.7426,-0.7145,3.0312,5.5946,-3.1811,-3.9448,0.5853,0.7378,0.3762,1.1794,-0.0415,2.4195,1.3555,1.4980,-2.8083,-2.0943
2265.6250,-0.5676,-3.3890,-5.6049,-4.8770,-3.2171,-0.8114,4.6055,-1.8445,-3.7744,-2.0900,1.5454,1.1180,-0.1844,-2.2211,1.0773,2.0677,1.4009,-3.8652,-3.6860
2269.5312,-3.0776,-6.1467,-4.4479,-6.1059,-4.7624,-5.2656,2.8995,-0.8100,-2.9358,-4.2068,1.8523,2.0359,-0.7684,-3.9498,1.1439,2.9192,1.7899,-4.3114,-4.4421
2273.4375,-5.3563,-7.6011,-1.8999,-5.7382,-4.7350,-9.4115,0.4184,0.0732,-1.8266,-5.3711,1.1660,2.3797,-0.7861,-4.7278,2.3241,3.3494,2.2932,-4.0013,-4.0607
2277.3438,-6.8899,-7.5168,1.4176,-3.9144,-3.3796,-11.9977,-1.8840,0.9870,-0.8604,-5.4389,-0.6479,1.7322,-0.7423,-4.4928,3.7884,2.9336,2.3820,-2.9995,-2.8089
2281.2500,-7.2000,-5.9872,4.2868,-1.5695,-1.5715,-11.9079,-2.3899,1.9571,-0.3725,-4.5242,-3.2883,0.0877,-1.1043,-3.5922,4.6122,1.5115,1.7145,-1.6975,-1.4842
2285.1562,-6.2014,-3.5333,5.4037,0.0668,-0.2592,-8.8549,-0.0203,2.7458,-0.5667,-3.0058,-6.0969,-2.2560,-2.0655,-2.5523,4.2360,-0.7333,0.3370,-0.7348,-1.0479
2289.0625,-4.4476,-1.1453,4.0403,0.1195,0.0436,-3.8642,4.5296,2.8896,-1.4907,-1.4995,-8.2784,-4.8832,-3.5354,-1.8153,2.6876,-3.2710,-1.3876,-0.7311,-2.1195
2292.9688,-2.9990,-0.0389,0.4606,-1.5081,-0.5776,0.9173,8.6033,1.9073,-3.0287,-0.7131,-9.1809,-7.4035,-5.2946,-1.5971,0.4793,-5.3501,-3.0413,-1.9651,-4.6177
2296.8750,-2.8759,-1.1030,-4.1747,-4.1460,-1.6482,3.1848,8.9016,-0.3772,-4.9131,-1.1587,-8.5175,-9.4935,-7.1369,-1.9035,-1.7018,-6.2584,-4.3953,-4.1889,-7.7537
2300.7812,-4.3869,-4.3256,-8.3546,-6.7414,-2.6765,1.7542,3.6332,-3.5661,-6.7683,-2.8372,-6.4425,-10.8692,-8.8735,-2.6264,-3.2981,-5.6363,-5.4666,-6.6969,-10.3885
2304.6875,-6.7931,-8.6210,-10.8924,-8.3636,-3.4103,-2.6381,-5.9589,-6.6842,-8.1937,-5.1113,-3.4771,-11.2739,-10.2376,-3.6143,-4.0322,-3.6852,-6.3813,-8.6292,-11.5637
2308.5938,-8.6154,-12.2828,-11.3542,-8.5650,-3.8421,-7.6122,-15.9053,-8.5475,-8.8686,-6.9255,-0.3483,-10.5457,-10.8466,-4.6702,-3.9033,-1.1293,-7.1816,-9.3532,-10.9266
2312.5000,-8.4805,-13.8554,-10.0538,-7.4591,-4.0355,-10.4450,-21.6695,-8.3703,-8.6445,-7.3245,2.1876,-8.7470,-10.3341,-5.5203,-3.1166,1.0849,-7.7386,-8.7263,-8.8378
2316.4062,-6.0043,-12.8972,-7.7108,-5.5482,-3.9609,-9.6432,-20.8483,-6.2595,-7.5838,-5.9937,3.5119,-6.2540,-8.5993,-5.8313,-2.0174,2.2122,-7.8226,-7.1077,-6.1248
2320.3125,-2.1280,-10.1463,-5.0411,-3.4367,-3.4834,-5.8127,-14.6318,-3.2364,-5.9290,-3.4788,3.3096,-3.6934,-5.9767,-5.3161,-1.0121,2.0369,-7.2592,-5.1330,-3.6360
2324.2188,1.3578,-6.9997,-2.5256,-1.5822,-2.4927,-1.2642,-7.0177,-0.6947,-4.0198,-0.9150,1.7266,-1.7027,-3.1489,-3.8892,-0.4298,0.9349,-6.0445,-3.3898,-1.8424
2328.1250,2.8396,-4.6737,-0.4236,-0.1790,-1.0497,1.3996,-2.2812,0.4143,-2.1991,0.5967,-0.5645,-0.6232,-0.8156,-1.7737,-0.3371,-0.3488,-4.3492,-2.1770,-0.6970
2332.0312,1.8258,-3.5943,1.0858,0.8108,0.5760,0.8280,-2.3721,0.1429,-0.7420,0.5934,-2.5034,-0.3166,0.6687,0.5184,-0.4307,-1.0765,-2.4382,-1.4601,0.1923
2335.9375,-0.7823,-3.3581,1.8131,1.5264,2.0035,-2.3433,-5.9226,-0.5374,0.1815,-0.5315,-3.0314,-0.2504,1.4256,2.3483,-0.1549,-0.8519,-0.5839,-1.0083,1.2018
2339.8438,-3.2499,-3.1826,1.6110,2.0654,2.8900,-5.9604,-9.4117,-0.4315,0.5231,-1.8139,-1.6077,0.1702,1.8530,3.1853,0.9413,0.2322,0.9784,-0.5978,2.3739
2343.7500,-4.0311,-2.4605,0.5170,2.4075,3.0312,-7.6521,-9.5840,1.0400,0.3631,-2.3081,1.4212,1.2159,2.2468,2.8102,2.7975,1.6720,2.0632,-0.1453,3.3427
2347.6562,-2.6135,-1.0488,-1.1526,2.4471,2.3744,-6.1376,-5.4647,3.4414,-0.0993,-1.6090,4.8621,2.6429,2.5402,1.3962,4.6914,2.7918,2.5577,0.2913,3.5566
2351.5625,0.3011,0.8043,-2.8657,2.1042,0.9940,-1.8056,1.2723,5.6373,-0.5964,-0.0101,7.1884,3.8339,2.3693,-0.5586,5.5375,3.0342,2.4677,0.6080,2.6619
2355.4688,3.3190,2.7193,-4.0790,1.4363,-0.9069,3.6529,7.6286,6.5885,-0.8906,1.7450,7.2891,4.1855,1.4198,-2.4147,4.5255,2.1915,1.9461,0.7529,0.8094
2359.3750,5.1953,4.3853,-4.4663,0.6630,-2.9588,8.2135,11.2432,6.0498,-0.8878,2.9166,5.0399,3.4908,-0.2153,-3.6097,1.7071,0.4976,1.2531,0.7568,-1.3220
2363.2812,5.4628,5.5998,-4.0270,0.0782,-4.6222,10.4895,11.6639,4.6791,-0.6964,3.1429,1.3582,2.0622,-1.9545,-3.8290,-1.8908,-1.4576,0.6455,0.6934,-2.8171
2367.1875,4.5267,6.2267,-3.0159,-0.1001,-5.3042,10.2252,10.2282,3.5044,-0.5747,2.5480,-2.2890,0.5245,-3.0104,-3.0735,-4.7656,-2.9701,0.2579,0.6256,-2.9759
2371.0938,3.2636,6.1990,-1.7534,0.1605,-4.5981,8.1805,8.8426,3.1624,-0.7705,1.5880,-4.6205,-0.5727,-2.8519,-1.6165,-5.7757,-3.5230,0.0620,0.5908,-1.6675
2375.0000,2.4433,5.5844,-0.4449,0.7095,-2.5399,5.5850,8.5936,3.4658,-1.3387,0.7734,-5.0804,-1.0540,-1.5326,0.1138,-4.7799,-3.0069,-0.0677,0.6297,0.6145
2378.9062,2.3270,4.6116,0.8799,1.3218,0.2885,3.4840,9.0744,3.5861,-2.0583,0.4323,-3.9046,-1.1378,0.3317,1.6651,-2.6589,-1.7374,-0.2357,0.8114,3.0162
2382.8125,2.6214,3.5729,2.2914,1.8273,2.9168,2.2709,8.7358,2.6826,-2.5173,0.6037,-1.7658,-1.1967,1.9079,2.6587,-0.7100,-0.2516,-0.4503,1.2120,4.7468
2386.7188,2.7347,2.6503,3.8243,2.1678,4.3677,1.5778,5.9293,0.5049,-2.3302,1.0690,0.6881,-1.4531,2.5754,2.8406,0.1669,0.9991,-0.6414,1.8505,5.4234
2390.6250,2.1372,1.8343,5.3917,2.3540,4.0810,0.5558,-0.0057,-2.4375,-1.3592,1.4737,3.0723,-1.8364,2.1837,2.1102,-0.0591,1.8673,-0.7366,2.6392,5.1659
2394.5312,0.6317,1.0501,6.8076,2.3791,2.1665,-1.5816,-8.1715,-5.1982,0.2024,1.4838,5.1792,-2.0808,1.0256,0.5539,-0.7124,2.5015,-0.7066,3.4048,4.4327
2398.4375,-1.5675,0.4036,7.8893,2.1777,-0.6435,-5.0095,-16.2979,-6.9305,1.9328,0.9265,6.7425,-1.9592,-0.3871,-1.5178,-1.0385,3.1287,-0.5313,3.9808,3.7282
2402.3438,-3.9334,0.2979,8.5473,1.6746,-3.3060,-9.0359,-21.5862,-7.2656,3.4005,-0.1355,7.3341,-1.4553,-1.5656,-3.5702,-0.8093,3.7994,-0.1299,4.3049,3.3621
2406.2500,-5.8322,1.2229,8.7860,0.8830,-4.8825,-12.3252,-21.8693,-6.3495,4.3523,-1.4270,6.5450,-0.7445,-2.1758,-4.9370,-0.4610,4.2975,0.6432,4.4391,3.3686
2410.1562,-6.7431,3.3001,8.6152,-0.0391,-4.8674,-13.5287,-16.6182,-4.6266,4.7626,-2.5769,4.3365,-0.0224,-2.0534,-5.0214,-0.6923,4.2923,1.8800,4.4893,3.5862
2414.0625,-6.4218,5.9377,7.9554,-0.8344,-3.3132,-11.9920,-7.3335,-2.5938,4.7415,-3.2730,1.2758,0.6576,-1.1826,-3.5469,-1.8521,3.6177,3.4460,4.4852,3.8072
2417.9688,-4.9678,7.9594,6.6413,-1.2711,-0.7440,-8.1346,2.9334,-0.6702,4.4023,-3.3787,-1.5823,1.3874,0.2991,-0.7390,-3.5962,2.4529,4.9094,4.3233,3.8962
2421.8750,-2.7910,8.2462,4.5609,-1.2591,2.0632,-3.2785,10.8031,0.8348,3.8005,-2.9564,-3.1643,2.2369,2.0827,2.6771,-5.0759,1.2411,5.6925,3.8281,3.8227
2425.7812,-0.5055,6.5008,1.8513,-0.8772,4.3348,0.9633,13.9917,1.7570,2.9795,-2.2096,-2.9412,3.0526,3.7183,5.7014,-5.5207,0.3827,5.4017,2.8908,3.6164
2429.6875,1.2187,3.5640,-1.0018,-0.3031,5.5187,3.3761,12.2214,2.1500,2.0531,-1.3987,-1.2477,3.4058,4.7328,7.4281,-4.7897,-0.0744,4.1214,1.5737,3.2950
2433.5938,1.8266,0.9758,-3.2807,0.2858,5.4251,3.5509,7.1453,2.3081,1.2214,-0.7768,0.8409,2.7730,4.7999,7.4036,-3.4943,-0.5015,2.4341,0.0930,2.8179
2437.5000,1.0623,0.0173,-4.3539,0.7680,4.2681,1.8876,1.3723,2.6323,0.6738,-0.5472,2.0161,0.8659,3.8741,5.8110,-2.6081,-1.4359,1.0983,-1.3044,2.0991
2441.4062,-0.8640,0.8846,-4.0253,1.0730,2.5958,-0.6688,-2.7970,3.3656,0.4462,-0.8019,1.3612,-2.0918,2.2173,3.3995,-2.8341,-3.1651,0.5687,-2.4645,1.0809
2445.3125,-3.2112,2.5929,-2.6849,1.1674,1.1149,-2.9443,-4.2094,4.3829,0.3604,-1.4355,-1.2108,-5.3293,0.3112,1.1895,-4.1548,-5.4427,0.6898,-3.3418,-0.1655
2449.2188,-4.8620,3.6932,-1.1244,1.0850,0.4507,-3.8103,-2.9338,5.2433,0.1296,-2.0913,-4.8960,-7.7938,-1.2948,0.0723,-5.8438,-7.5491,0.8019,-3.8960,-1.3730
2453.1250,-4.7472,3.2910,-0.0938,0.9923,0.9199,-2.4856,0.1989,5.5255,-0.4138,-2.2433,-8.3183,-8.6039,-2.1438,0.4601,-6.9104,-8.6778,0.2148,-3.9815,-2.1123
2457.0312,-2.4232,1.6314,0.1421,1.2026,2.4050,1.0823,4.0627,5.2111,-1.1297,-1.4502,-10.0858,-7.4765,-2.0106,2.1183,-6.6809,-8.4045,-1.2738,-3.3645,-1.9547
2460.9375,1.4967,-0.1563,-0.0456,2.0544,4.3894,5.9030,7.3765,4.7798,-1.5836,0.3195,-9.3733,-4.9154,-1.0054,4.2481,-5.1710,-6.9406,-3.1881,-1.9103,-0.7183
2464.8438,5.3954,-0.9343,0.0833,3.6706,6.1472,10.0285,8.6679,4.8670,-1.3005,2.5126,-6.3152,-2.0570,0.3924,5.8033,-3.0655,-5.0191,-4.6696,0.1791,1.3306
2468.7500,7.3157,-0.3820,1.0953,5.7424,7.0139,11.2726,6.5068,5.6928,-0.1216,4.1527,-2.0422,-0.2193,1.4339,5.9351,-1.3573,-3.4995,-5.0596,2.2795,3.4649
2472.6562,5.9857,0.8309,2.9069,7.5283,6.6343,8.3828,0.2450,6.7122,1.5710,4.3281,1.7002,-0.3340,1.3700,4.3883,-0.8648,-2.9400,-4.3588,3.5421,4.7453
2476.5625,1.6428,1.6161,4.7011,8.1525,5.0893,2.0211,-9.0898,6.8398,2.9443,2.7467,3.2560,-2.5064,-0.1757,1.6631,-1.8686,-3.3769,-3.2256,3.3105,4.4528
2480.4688,-3.8951,1.3152,5.3328,7.0829,2.8623,-5.1879,-18.5268,5.1883,3.1094,-0.0026,1.8164,-5.9154,-2.9116,-1.1651,-4.0099,-4.3955,-2.5039,1.5158,2.4925
2484.3750,-8.0650,0.1810,4.0074,4.5096,0.6599,-9.8093,-24.0949,1.8337,1.6172,-2.6965,-2.1276,-9.1303,-5.8706,-2.9190,-6.4637,-5.3986,-2.6109,-1.2107,-0.4688
2488.2812,-8.8877,-0.8420,0.8272,1.3590,-0.8416,-9.4217,-22.7480,-1.9802,-1.2359,-4.1222,-6.9118,-10.7294,-7.7773,-2.8707,-8.2911,-5.8918,-3.2262,-3.8050,-3.2486
2492.1875,-6.0174,-0.8354,-3.1399,-1.1189,-1.2329,-4.0288,-14.1986,-4.4397,-4.4890,-3.7337,-10.4134,-9.9400,-7.6522,-1.0911,-8.8243,-5.6462,-3.5143,-5.2757,-4.6799
2496.0938,-0.8703,0.4240,-6.3385,-1.9807,-0.5097,3.8850,-1.4094,-4.2434,-6.9613,-1.9073,-11.0406,-6.9834,-5.3366,1.5995,-7.9266,-4.7029,-2.7384,-5.1555,-4.1615
2500.0000,4.2490,2.3093,-7.4962,-1.0792,0.9373,10.7606,10.7643,-1.4670,-7.8295,0.3512,-8.4980,-2.9410,-1.6263,4.0575,-6.0171,-3.2772,-0.8396,-3.6552,-1.9329
2503.9062,7.4616,3.7677,-6.2537,0.8794,2.4798,13.9704,18.0739,2.3865,-7.0213,2.0363,-3.9153,0.7930,2.0882,5.3795,-3.8443,-1.6420,1.4241,-1.4690,1.0685
2507.8125,8.2446,3.9899,-3.3091,2.7435,3.4994,13.1518,19.0083,5.2266,-5.2107,2.6857,0.7384,3.1743,4.4871,5.2869,-2.1150,-0.0441,2.8924,0.6133,3.6808
2511.7188,7.4404,2.8797,-0.0084,3.5496,3.6338,10.0662,15.2545,5.5908,-3.4191,2.5099,3.6405,3.9288,4.9250,4.1341,-1.1687,1.3343,2.7084,2.0522,5.0626
2515.6250,6.4475,1.0732,2.3714,3.0192,2.9178,7.1970,10.3052,3.4762,-2.4445,2.0937,3.9677,3.5250,3.6533,2.5839,-0.8776,2.3759,0.8615,2.7064,5.0267
2519.5312,6.2240,-0.4306,3.2437,1.6508,1.7558,6.1362,7.2390,0.2868,-2.4375,1.9456,2.1816,2.7656,1.5794,1.1968,-0.8211,3.0036,-1.7764,2.7758,4.0195
2523.4375,6.7845,-0.7776,2.9105,0.3861,0.7277,6.8462,7.1424,-2.0331,-2.8591,2.2220,-0.3550,2.2855,-0.2521,0.2017,-0.6166,3.1528,-3.9346,2.6347,2.7987
2527.3438,7.4367,0.3427,2.2630,0.0582,0.3082,8.1452,9.0432,-2.1185,-2.8428,2.7642,-2.1619,2.2608,-1.1502,-0.4474,-0.1807,2.7677,-4.6410,2.6550,2.0069
2531.2500,7.4445,2.5367,2.1854,0.9302,0.6292,8.8431,11.0886,0.1065,-1.7555,3.3172,-2.3744,2.4536,-1.0064,-0.8470,0.2514,1.8441,-3.7132,3.0616,1.8640
2535.1562,6.5457,4.8184,3.0134,2.5529,1.4025,8.5546,11.9109,3.4825,0.3621,3.6939,-1.0654,2.4786,-0.2175,-0.9785,0.3491,0.5004,-1.7804,3.8249,2.1128
2539.0625,4.9668,5.9722,4.3428,3.9923,2.0528,7.6240,11.2184,6.3087,2.7315,3.7579,0.9323,2.0556,0.5797,-0.7493,-0.0249,-0.9784,0.1240,4.6143,2.2139
2542.9688,3.0496,5.0906,5.2794,4.2939,2.0053,6.4147,9.4431,7.2239,4.1940,3.3183,2.5223,1.0827,0.7970,-0.1858,-0.6853,-2.1937,1.1166,4.8707,1.6736
2546.8750,0.9238,2.0907,4.9703,2.9548,0.9907,4.7501,7.0548,5.8021,3.7989,2.1325,2.8597,-0.4451,0.1020,0.4259,-1.2569,-2.7941,0.8381,4.0356,0.3359
2550.7812,-1.4370,-2.0826,3.1145,0.1822,-0.7918,2.1002,4.2715,2.6292,1.3042,0.1074,1.6567,-2.5161,-1.4845,0.6271,-1.4664,-2.6684,-0.5183,1.8735,-1.5021
2554.6875,-3.8482,-5.7907,0.1691,-3.1764,-2.7455,-1.6325,1.3494,-1.0762,-2.6713,-2.4436,-0.7884,-5.0451,-3.5911,0.0870,-1.3622,-2.0368,-2.4544,-1.2845,-3.2103
2558.5938,-5.6562,-7.5122,-2.8536,-6.0006,-4.1519,-5.5003,-1.0237,-4.0446,-6.9083,-4.7532,-3.7597,-7.7147,-5.5975,-1.0974,-1.2803,-1.3463,-4.4672,-4.5623,-4.1255
2562.5000,-5.9647,-6.7065,-4.8767,-7.3942,-4.5105,-7.7890,-1.8448,-5.4649,-10.0963,-5.9183,-6.3704,-9.8911,-6.8333,-2.3577,-1.5678,-1.0012,-6.2004,-6.8788,-3.8821
2566.4062,-4.2956,-4.1598,-5.2634,-7.0748,-3.7588,-7.1648,-0.5186,-5.2313,-11.3226,-5.4410,-7.8031,-10.7810,-6.8261,-2.9488,-2.2702,-1.0929,-7.3992,-7.4518,-2.5941
2570.3125,-1.1830,-1.4979,-4.0715,-5.4612,-2.2541,-3.8556,2.4087,-3.8672,-10.3247,-3.6190,-7.5157,-9.8165,-5.4957,-2.4103,-3.0302,-1.3221,-7.7887,-6.1779,-0.7825
2574.2188,1.8668,-0.1123,-1.9478,-3.4128,-0.5366,0.1572,5.2813,-2.1868,-7.4587,-1.4555,-5.4069,-7.0449,-3.1851,-0.8734,-3.2975,-1.1958,-7.0501,-3.6584,0.9185
2578.1250,3.1862,-0.2113,0.2336,-1.7622,0.9793,2.2788,6.3469,-0.8574,-3.4918,-0.0823,-1.9093,-3.2406,-0.4967,1.0147,-2.7179,-0.3916,-4.9808,-0.8626,2.1003
2582.0312,2.0413,-0.7018,1.7571,-0.9066,2.1946,1.0722,5.0867,-0.0816,0.6316,-0.0642,2.0470,0.3870,1.9720,2.5066,-1.4300,0.9517,-1.7546,1.3441,2.7485
2585.9375,-0.7853,-0.0520,2.2654,-0.6938,3.2801,-2.6348,2.7729,0.4255,3.9690,-1.0732,5.2426,2.7400,3.8298,3.2182,-0.0495,2.2295,1.9238,2.5087,3.1306
2589.8438,-3.4260,2.4447,1.7221,-0.6568,4.4372,-6.2109,1.6427,1.1377,5.7299,-2.1774,6.5308,3.3077,4.9170,3.3088,0.6649,2.6847,4.9485,2.5847,3.4841
2593.7500,-4.1566,5.9416,0.2541,-0.4258,5.6356,-7.0242,3.1631,2.2784,5.4515,-2.5444,5.2477,2.2897,5.1820,3.2575,0.2500,1.8553,6.2385,1.7076,3.7385
2597.6562,-2.5830,8.4478,-1.9443,-0.0263,6.5228,-4.3277,6.6776,3.5375,3.1906,-2.0431,1.5097,0.3350,4.5570,3.4196,-1.2016,-0.1266,5.2632,0.0014,3.4983
2601.5625,0.0722,8.1555,-4.5604,0.1508,6.5894,0.1553,9.5777,4.1782,-0.3810,-1.3010,-3.7442,-1.8776,2.9797,3.7122,-3.1180,-2.5762,2.3684,-2.4012,2.3342
2605.4688,1.8224,4.7571,-7.0472,-0.3091,5.5020,3.4130,9.0344,3.5082,-4.1122,-1.1778,-9.0207,-3.9216,0.5669,3.6797,-4.7946,-4.6111,-1.3183,-5.1628,0.1912
2609.3750,1.3183,-0.2208,-8.6284,-1.4400,3.3913,3.2624,4.0950,1.4243,-6.7704,-2.0578,-12.7724,-5.6186,-2.2120,2.8938,-5.7761,-5.6015,-4.3894,-7.6093,-2.3883
2613.2812,-1.2040,-4.3510,-8.5479,-2.7368,0.8948,-0.1309,-3.4363,-1.3628,-7.5518,-3.5058,-13.9458,-6.8523,-4.5637,1.3798,-6.0361,-5.4461,-5.8125,-8.8827,-4.4331
2617.1875,-4.1131,-5.8696,-6.4890,-3.3911,-1.1019,-4.4359,-10.0815,-3.6303,-6.4367,-4.5558,-12.3541,-7.4356,-5.6724,-0.2748,-5.8738,-4.5344,-5.3843,-8.3766,-5.0393
2621.0938,-5.5662,-4.7569,-2.8984,-2.7899,-1.8875,-6.8967,-13.0310,-4.3270,-4.1679,-4.4242,-8.7181,-7.1879,-5.1313,-1.2409,-5.6347,-3.4544,-3.7389,-6.1832,-3.8914
2625.0000,-4.8225,-2.5776,1.0583,-0.9460,-1.2715,-6.3409,-12.0511,-3.2103,-1.8435,-3.1140,-4.3578,-6.1553,-3.2239,-0.9890,-5.4603,-2.6501,-1.9294,-3.1943,-1.4597
2628.9062,-2.7326,-1.2285,3.9816,1.4422,0.3469,-3.9785,-9.5377,-1.0068,-0.3461,-1.4527,-0.6673,-4.7438,-0.8333,0.3327,-5.2259,-2.2284,-0.8394,-0.6995,1.2650
2632.8125,-1.0623,-1.5396,4.9318,3.3649,2.2171,-2.4164,-8.6400,1.0319,0.0594,-0.5243,1.4011,-3.5761,1.0054,1.9612,-4.6738,-1.9963,-0.7668,0.3244,3.3325
2636.7188,-1.1621,-2.7554,3.9159,4.0779,3.6300,-3.6298,-10.8189,1.9006,-0.2613,-0.9022,1.6338,-3.1115,1.6527,2.9896,-3.6252,-1.6589,-1.3883,-0.2168,4.3216
2640.6250,-2.9588,-3.2438,1.8422,3.5086,4.2325,-7.3893,-14.6387,1.4371,-0.6654,-2.2342,0.5295,-3.2978,1.1740,2.9244,-2.1126,-1.0326,-2.0727,-1.5010,4.4478
2644.5312,-4.9958,-1.8639,-0.0578,2.2320,4.0957,-11.2997,-16.7078,0.3527,-0.7066,-3.4771,-1.0038,-3.5511,0.2225,1.9504,-0.3568,-0.1485,-2.3114,-2.3485,4.2498
2648.4375,-5.4822,1.0422,-0.9892,1.0420,3.5346,-12.4360,-14.1234,-0.3180,-0.4294,-3.6134,-2.0744,-3.1440,-0.4156,0.7350,1.3726,0.7888,-1.9952,-2.0247,4.1059
2652.3438,-3.5955,3.7589,-1.0509,0.4071,2.8289,-9.4199,-6.6907,0.0228,-0.3218,-2.3557,-2.1686,-1.7663,-0.3166,-0.0687,2.8983,1.5342,-1.4021,-0.7610,3.9308
2656.2500,-0.1228,4.3066,-1.1001,0.1697,2.0353,-3.4885,2.6476,1.0703,-0.9875,-0.3636,-1.3148,0.1416,0.3525,-0.2630,4.1763,1.9409,-0.9537,0.3570,3.2570
2660.1562,2.9860,1.7409,-2.1231,-0.3240,1.0002,2.1729,9.4740,1.7563,-2.7580,1.1499,-0.0111,1.5623,0.9898,-0.1867,5.2207,2.0293,-0.9284,0.0703,1.6199
2664.0625,3.8259,-3.2499,-4.5393,-1.7585,-0.4584,4.3652,10.5247,0.9111,-5.4710,1.1460,1.0290,1.5160,0.9686,-0.4024,5.9852,1.9632,-1.3088,-2.2411,-1.0382
2667.9688,1.6950,-8.7902,-7.8999,-4.3520,-2.3412,1.7914,5.5644,-1.9587,-8.5164,-0.6469,1.2018,-0.2724,0.0305,-1.2341,6.3065,1.9498,-1.8279,-6.1272,-4.2276
2671.8750,-2.5231,-12.9108,-11.1578,-7.6343,-4.3708,-4.2474,-2.6230,-6.2529,-11.0978,-3.6160,0.2765,-3.1071,-1.5677,-2.4917,5.9684,2.1180,-2.1481,-10.2784,-7.1151
2675.7812,-6.9185,-14.5291,-13.2981,-10.6253,-6.0695,-10.7158,-9.9774,-10.4732,-12.5624,-6.6321,-1.5071,-5.6586,-3.2091,-3.5708,4.8534,2.4356,-2.0492,-13.2269,-8.9239
2679.6875,-9.6302,-13.7584,-13.8865,-12.2912,-6.9583,-14.6096,-13.4310,-12.9318,-12.6536,-8.6359,-3.5536,-6.7102,-4.2517,-3.8454,3.0793,2.7126,-1.5262,-14.0975,-9.2726
2683.5938,-9.7555,-11.5369,-13.1830,-12.0177,-6.7597,-14.4920,-12.3235,-12.5848,-11.5960,-9.0949,-5.1913,-5.8454,-4.3406,-3.0709,1.0151,2.6999,-0.7704,-12.9725,-8.2766
2687.5000,-7.6219,-8.9978,-11.8005,-9.8578,-5.5026,-10.9573,-8.2857,-9.5465,-9.9932,-8.1319,-5.9891,-3.6496,-3.5428,-1.5213,-0.8574,2.2350,-0.0679,-10.7075,-6.4114
2691.4062,-4.4011,-7.0258,-10.2107,-6.4687,-3.4927,-5.9382,-3.9070,-5.0203,-8.5744,-6.3416,-5.9453,-1.3152,-2.2666,0.2148,-2.1654,1.3544,0.3317,-8.3716,-4.2724
2695.3125,-1.4106,-6.1345,-8.4852,-2.8192,-1.1895,-1.4586,-1.1347,-0.6916,-7.8768,-4.4622,-5.4391,0.0780,-1.0384,1.6191,-2.8192,0.2947,0.3245,-6.6790,-2.3786
2699.2188,0.4727,-6.4922,-6.4453,0.1643,0.9379,1.3729,-0.3172,2.0945,-7.9926,-3.0767,-4.9635,0.1491,-0.2623,2.5334,-3.0292,-0.6293,-0.0006,-5.7266,-1.0813
2703.1250,1.0455,-7.8820,-4.0635,1.8683,2.5186,2.6380,-0.2859,2.9403,-8.5075,-2.4420,-4.7955,-0.6763,-0.0762,3.1603,-3.1492,-1.2035,-0.4080,-5.1219,-0.5447
2707.0312,0.6705,-9.6099,-1.7511,2.1147,3.3300,3.1828,0.7282,2.4760,-8.6939,-2.4572,-4.8110,-1.5554,-0.3587,3.7931,-3.4438,-1.4358,-0.6525,-4.3509,-0.7417
2710.9375,-0.0140,-10.5838,-0.2488,1.1493,3.3074,3.8942,3.9048,1.8841,-7.8892,-2.7477,-4.5730,-1.8217,-0.8648,4.4853,-3.9230,-1.5360,-0.6522,-3.1280,-1.4552
2714.8438,-0.4056,-9.7404,-0.1499,-0.4644,2.5362,5.1324,8.9720,2.1440,-5.8652,-2.8330,-3.6475,-1.3871,-1.4020,4.9103,-4.3468,-1.7590,-0.5921,-1.5358,-2.3212
2718.7500,-0.1749,-6.6919,-1.3879,-2.0145,1.2395,6.5744,14.0941,3.4349,-2.9732,-2.3389,-1.9453,-0.7172,-1.9324,4.5348,-4.3861,-2.2145,-0.8596,0.0794,-2.9405
2722.6562,0.6174,-2.1625,-3.0916,-2.8509,-0.2467,7.4572,16.6183,5.0478,0.0378,-1.1778,0.1408,-0.4345,-2.5305,3.0126,-3.8298,-2.7717,-1.7997,1.3446,-3.0278
2726.5625,1.5610,2.1964,-3.9834,-2.5978,-1.5256,7.0372,14.4191,5.8591,2.4265,0.3893,1.9090,-0.8420,-3.2169,0.5452,-2.7064,-3.1306,-3.4137,2.0699,-2.5151
2730.4688,2.1007,4.6406,-3.1183,-1.2986,-2.2301,5.0281,7.2223,5.0706,3.8376,1.8620,2.7337,-1.6858,-3.7961,-2.0497,-1.2558,-3.0121,-5.2027,2.3182,-1.5420
2734.3750,1.8410,4.3491,-0.5035,0.5814,-2.1368,1.8219,-2.8464,2.7491,4.4126,2.7424,2.4270,-2.3051,-3.8481,-3.6565,0.2037,-2.3391,-6.3158,2.3227,-0.3439
2738.2812,0.7962,1.9445,2.8171,2.3274,-1.2676,-1.6179,-11.9867,-0.1875,4.5744,2.7818,1.3572,-2.0610,-2.9435,-3.4337,1.4089,-1.2820,-5.9802,2.3214,0.8736
2742.1875,-0.5798,-0.8804,5.3027,3.2699,0.0763,-4.1680,-16.5506,-2.5310,4.6514,2.0896,0.2564,-0.7631,-0.9833,-1.3297,2.2074,-0.1409,-3.9873,2.4131,1.9800
2746.0938,-1.6379,-2.4277,5.7701,3.0758,1.3885,-5.0892,-15.0557,-3.5255,4.6186,1.0423,-0.1589,1.1739,1.5652,1.7666,2.5355,0.8491,-0.9269,2.5084,2.8662
2750.0000,-1.9239,-2.0567,4.0496,1.8929,2.1419,-4.4206,-9.1604,-3.2986,4.1420,0.0560,0.4615,2.9412,3.7519,4.3791,2.3895,1.6471,2.0256,2.3973,3.3685
2753.9062,-1.4616,-0.5247,1.0531,0.2702,2.0235,-2.9718,-2.8447,-2.6959,2.8906,-0.6247,1.9533,3.7820,4.5804,5.1589,1.8440,2.3761,3.6930,1.8890,3.2742
2757.8125,-0.7278,0.6189,-1.7688,-1.1065,1.1100,-1.8665,-0.1170,-2.6407,0.8827,-0.9928,3.7330,3.4058,3.5839,3.6025,1.1041,3.1569,3.5296,0.9473,2.4469
2761.7188,-0.3205,0.1626,-3.2270,-1.7262,-0.1255,-1.8723,-2.5897,-3.4696,-1.3878,-1.1762,5.0573,2.1318,1.1839,0.3712,0.5045,3.9346,1.9233,-0.2510,0.9966
2765.6250,-0.5442,-1.8973,-2.9651,-1.4550,-1.0151,-2.9308,-8.4911,-4.7080,-3.1445,-1.2682,5.3173,0.6895,-1.4343,-2.9967,0.3898,4.4372,-0.0289,-1.3688,-0.6511
2769.5312,-1.2060,-4.3416,-1.4844,-0.5361,-1.0346,-4.2136,-13.8364,-5.4398,-3.7192,-1.2298,4.2686,-0.1934,-2.9147,-4.8654,0.9030,4.3197,-1.1472,-2.0470,-1.8814
2773.4375,-1.7699,-5.5671,0.3256,0.5872,-0.1097,-4.6997,-15.0650,-5.0011,-2.8943,-0.9380,2.1390,-0.1705,-2.4705,-4.3652,1.8234,3.4100,-0.8237,-2.0621,-2.1773
2777.3438,-1.7613,-4.6967,1.7951,1.5077,1.2947,-3.8999,-11.4094,-3.4960,-1.0030,-0.3350,-0.4142,0.5843,-0.3312,-1.8563,2.6059,1.8907,0.6797,-1.4229,-1.4068
2781.2500,-1.1251,-2.2043,2.8073,2.0211,2.3823,-2.2191,-5.3775,-1.7567,1.2422,0.4511,-2.5083,1.5341,2.3823,1.2846,2.6600,0.2753,2.4531,-0.3614,0.0745
2785.1562,-0.2738,0.3603,3.6702,2.1511,2.4497,-0.6725,-0.9759,-0.7651,3.0593,1.1245,-3.3646,2.1127,4.2870,3.4507,1.7266,-0.8362,3.5167,0.7744,1.5837
2789.0625,0.2130,1.3590,4.6725,2.0591,1.3013,-0.1255,-0.8660,-0.9367,3.8787,1.3846,-2.6511,2.0298,4.4967,3.7169,0.1056,-1.0882,3.3895,1.6729,2.4556
2792.9688,0.0214,0.1145,5.6942,1.9224,-0.5878,-0.5960,-4.4148,-1.7721,3.4933,1.1255,-0.6709,1.3845,3.0666,2.3430,-1.4496,-0.5827,2.3124,2.1813,2.3789
2796.8750,-0.6480,-2.6481,6.1871,1.8601,-2.2755,-1.1526,-8.0237,-2.1340,2.0784,0.5291,1.7378,0.5560,0.8846,0.5663,-2.1427,0.1721,1.0250,2.3499,1.5419
2800.7812,-1.2012,-5.2356,5.5654,1.9292,-2.8293,-0.5425,-7.5621,-0.9836,0.1247,-0.0273,3.5828,-0.0282,-0.8867,-0.1855,-1.6061,0.5660,0.2753,2.3824,0.5167
2804.6875,-1.0612,-6.0079,3.7343,2.1565,-1.8170,1.8485,-1.2738,1.9004,-1.6920,-0.1971,4.1957,-0.0981,-1.4567,0.8204,-0.1260,0.2671,0.3827,2.5250,-0.0417
2808.5938,-0.0839,-4.3540,1.3541,2.5548,0.4625,5.3818,8.8127,5.6843,-2.7063,0.1210,3.5391,0.3782,-0.7664,3.1848,1.5357,-0.5573,1.1104,2.9446,0.2817
2812.5000,1.3158,-1.0421,-0.4007,3.1021,3.1320,8.3869,17.9362,8.8769,-2.5059,0.7248,2.1634,1.2439,0.6034,5.6455,2.6107,-1.3294,1.8848,3.6476,1.4722
2816.4062,2.4176,2.2355,-0.4946,3.7074,5.1751,9.1473,21.4351,10.1172,-1.1342,1.2509,0.8483,2.2602,1.8540,6.8653,2.7801,-1.4182,2.1838,4.4695,3.1009
2820.3125,2.6674,3.8273,1.2908,4.2056,5.9036,7.0433,17.5248,8.8815,0.8701,1.4268,0.1639,3.1941,2.4263,6.2277,2.3164,-0.5539,1.8319,5.1352,4.5143
2824.2188,2.0579,3.0227,4.0914,4.3985,5.1990,3.0934,8.2824,5.7125,2.6680,1.2664,0.2179,3.8538,2.2226,4.1387,1.8330,0.9615,1.0293,5.3586,5.0955
2828.1250,1.1701,0.3880,6.3091,4.1203,3.4281,-0.5006,-1.6767,1.8771,3.4854,1.0769,0.7092,4.0896,1.5067,1.6652,1.8251,2.3867,0.1286,4.9376,4.4817
2832.0312,0.8454,-2.6111,6.4043,3.2842,1.1373,-1.5656,-7.8737,-1.3132,2.9590,1.2615,1.1864,3.7945,0.6066,-0.2188,2.3176,2.9443,-0.6646,3.8045,2.6574
2835.9375,1.6834,-4.4385,3.6952,1.8831,-1.2538,0.7968,-8.2889,-3.1242,1.2709,2.0376,1.2960,2.9195,-0.3552,-1.2654,2.8520,2.2542,-1.4523,2.0237,-0.0909
2839.8438,3.6558,-4.2802,-1.2733,-0.0354,-3.5740,5.6718,-4.0355,-3.6446,-0.9943,3.2477,0.8690,1.4912,-1.5255,-2.0497,2.8016,0.5376,-2.5546,-0.2426,-3.3104
2843.7500,6.0529,-2.3729,-6.9718,-2.3806,-5.8060,10.7926,1.7610,-3.5793,-3.1570,4.3883,-0.1291,-0.3838,-3.1509,-3.4882,1.7946,-1.5190,-4.2272,-2.7634,-6.5290
2847.6562,7.7880,0.2518,-11.5779,-4.9928,-7.8982,13.6975,5.9325,-3.7601,-4.7126,4.8501,-1.6416,-2.5311,-5.3034,-6.1250,-0.0324,-3.1404,-6.3792,-5.2445,-9.3442
2851.5625,7.9009,2.3915,-13.7372,-7.6045,-9.6600,12.9064,6.8218,-4.6680,-5.4236,4.2377,-3.4595,-4.7210,-7.6959,-9.6745,-2.0961,-3.8415,-8.4943,-7.3285,-11.4426
2855.4688,6.0131,3.2703,-13.0358,-9.8475,-10.8305,8.5121,4.6585,-6.2167,-5.2516,2.5889,-5.1195,-6.6769,-9.7279,-13.1217,-3.6812,-3.5939,-9.8396,-8.6359,-12.5908
2859.3750,2.5255,2.7903,-10.0310,-11.3453,-11.2675,1.9816,0.8632,-7.8752,-4.2681,0.3721,-5.9479,-8.0975,-10.7608,-15.3008,-4.3066,-2.7245,-9.8636,-8.8767,-12.6595
2863.2812,-1.5225,1.3765,-5.9229,-11.8655,-11.0984,-4.5945,-3.0154,-9.0230,-2.6609,-1.7295,-5.3580,-8.7198,-10.4765,-15.5652,-3.9392,-1.6624,-8.5511,-8.0051,-11.7009
2867.1875,-4.8679,-0.3919,-2.0803,-11.4455,-10.6972,-9.3585,-6.0236,-9.3153,-0.8171,-3.1283,-3.2863,-8.4268,-9.1032,-14.1214,-2.9674,-0.7200,-6.5035,-6.3272,-10.0241
2871.0938,-6.5379,-2.0835,0.3898,-10.3983,-10.4734,-11.2809,-7.9135,-8.8537,0.6582,-3.5748,-0.4463,-7.3493,-7.3502,-11.8442,-1.9823,-0.0280,-4.6622,-4.4617,-8.1729
2875.0000,-6.2483,-3.4845,0.9272,-9.1726,-10.6043,-10.3673,-8.8473,-8.0791,1.1152,-3.2244,1.8850,-5.8849,-6.0575,-9.7301,-1.4941,0.3958,-3.8063,-3.1212,-6.7485
2878.9062,-4.5189,-4.4859,-0.3623,-8.1409,-10.8913,-7.5337,-9.0710,-7.4685,0.1905,-2.5224,2.5322,-4.5798,-5.7405,-8.3574,-1.7100,0.5558,-4.1100,-2.7963,-6.1312
2882.8125,-2.4469,-4.9742,-2.7647,-7.4393,-10.8525,-4.2592,-8.7824,-7.2277,-1.9105,-1.9849,1.1586,-3.9040,-6.2960,-7.6737,-2.4547,0.4601,-5.0304,-3.5124,-6.2610
2886.7188,-1.2239,-4.8735,-5.2008,-6.9562,-10.0081,-2.0910,-8.1588,-7.1696,-4.4171,-1.9887,-1.4394,-4.0294,-7.0600,-7.1847,-3.2574,0.1724,-5.6139,-4.8142,-6.6448
2890.6250,-1.6003,-4.3130,-6.6274,-6.4641,-8.1910,-2.0865,-7.3859,-6.8470,-6.3513,-2.6503,-3.7549,-4.7407,-7.2031,-6.3620,-3.5754,-0.1520,-5.0577,-6.0097,-6.6324
2894.5312,-3.5432,-3.7376,-6.4726,-5.7988,-5.6916,-4.3577,-6.6063,-5.8532,-7.0516,-3.8194,-4.4928,-5.5395,-6.2359,-4.9828,-3.0728,-0.3184,-3.1990,-6.5451,-5.8167
2898.4375,-6.2552,-3.7814,-4.9067,-4.9641,-3.1460,-7.9535,-5.8510,-4.0967,-6.5261,-5.1632,-3.3934,-5.8900,-4.3154,-3.2137,-1.8280,-0.2189,-0.6344,-6.2886,-4.3060
2902.3438,-8.5610,-4.9008,-2.7734,-4.1066,-1.2327,-11.2401,-5.0603,-1.8838,-5.3921,-6.2991,-1.3814,-5.4690,-2.1580,-1.4503,-0.3465,0.0738,1.6082,-5.5526,-2.6724
2906.2500,-9.4796,-6.9808,-1.1705,-3.3999,-0.3489,-12.6881,-4.2105,0.2332,-4.4349,-6.9298,0.0844,-4.2941,-0.6133,-0.0735,0.6658,0.3424,2.6543,-4.8486,-1.5909
2910.1562,-8.7001,-9.2139,-0.8760,-2.9360,-0.4454,-11.6880,-3.4326,1.7313,-4.0889,-6.9407,0.0208,-2.6799,-0.1668,0.7084,0.6813,0.3887,2.2744,-4.5399,-1.4028
2914.0625,-6.7149,-10.4106,-1.9369,-2.6993,-1.0959,-8.9109,-2.9873,2.3409,-4.1944,-6.4276,-1.4176,-1.0779,-0.6855,0.8736,-0.3260,0.2051,0.9935,-4.6232,-1.9005
2917.9688,-4.5390,-9.6212,-3.6599,-2.6223,-1.7477,-5.9474,-3.0751,2.0985,-4.1832,-5.6365,-3.0906,0.1040,-1.5503,0.5132,-1.8159,0.0063,-0.2379,-4.7733,-2.4835
2921.8750,-3.1596,-6.7149,-5.0134,-2.6568,-2.0043,-4.3868,-3.6182,1.2379,-3.5407,-4.8371,-3.7208,0.6284,-2.0633,-0.2298,-2.9478,0.0755,-0.6023,-4.6034,-2.5765
2925.7812,-3.0079,-2.5496,-5.1982,-2.7961,-1.7964,-4.8724,-4.1938,0.0350,-2.2009,-4.1833,-2.8207,0.4817,-1.8487,-1.1664,-3.0391,0.5307,0.1323,-3.9510,-2.0097
2929.6875,-3.7353,1.4020,-4.0508,-3.0335,-1.3639,-6.7165,-4.1985,-1.2740,-0.6010,-3.6373,-1.0291,-0.1304,-0.9933,-2.0487,-1.9479,1.1920,1.5197,-2.9876,-1.0945
2933.5938,-4.4147,3.7803,-2.0642,-3.3055,-1.0823,-8.3180,-3.1500,-2.4709,0.6183,-3.0057,0.3732,-0.8419,0.1190,-2.6026,-0.1455,1.6703,2.7290,-2.0870,-0.3513
2937.5000,-4.0610,4.0152,-0.0552,-3.4782,-1.2304,-8.1231,-0.9426,-3.3019,1.0317,-2.0763,0.3963,-1.2515,1.1123,-2.6253,1.5576,1.6209,3.0267,-1.5586,-0.1020
2941.4062,-2.1939,2.5801,1.2875,-3.3928,-1.8201,-5.5376,2.0756,-3.4928,0.6676,-0.7781,-0.9627,-1.1061,1.8206,-2.0926,2.4496,0.9759,2.1601,-1.4384,-0.2327
2945.3125,0.8550,0.6974,1.7062,-2.9320,-2.5641,-1.2516,5.1971,-2.8623,-0.0709,0.7297,-2.7544,-0.4735,2.2580,-1.1914,2.2468,-0.0231,0.4429,-1.4813,-0.2967
2949.2188,4.0557,-0.3216,1.3973,-2.0566,-2.9986,3.1681,7.5329,-1.4638,-0.7043,2.1008,-3.7860,0.2139,2.4322,-0.2416,1.1369,-1.0136,-1.4655,-1.3448,0.1304
2953.1250,6.1571,0.2596,0.8124,-0.7959,-2.7062,6.1143,8.2066,0.3680,-0.9562,2.9562,-3.4638,0.3309,2.1991,0.4482,-0.4297,-1.7666,-2.9278,-0.8249,1.1149
2957.0312,6.2885,2.2680,0.4011,0.7679,-1.5440,6.6920,6.5861,2.1301,-0.8356,3.0635,-2.1579,-0.5900,1.3113,0.6929,-2.0115,-2.3002,-3.6275,0.0176,2.2928
2960.9375,4.3824,4.7525,0.4323,2.4772,0.2314,5.0072,2.5790,3.3706,-0.5249,2.4422,-0.8620,-2.5165,-0.3615,0.4465,-3.3220,-2.7656,-3.6561,0.9079,3.0968
2964.8438,1.2092,6.4775,0.9299,4.0421,2.0144,1.9449,-3.0896,3.8763,-0.2152,1.3398,-0.4492,-4.8179,-2.6219,-0.2624,-4.2057,-3.2141,-3.3805,1.5217,3.0990
2968.7500,-1.9881,6.5161,1.6810,5.0204,3.0821,-1.3277,-8.8456,3.7055,-0.0357,0.1026,-1.0988,-6.5304,-4.9308,-1.3884,-4.5536,-3.4629,-3.1917,1.6328,2.2207
2972.6562,-4.0780,4.6614,2.2844,4.9216,2.9226,-3.8333,-12.6954,3.0610,-0.0954,-0.9863,-2.2934,-6.8735,-6.6322,-2.8455,-4.2968,-3.2011,-3.2815,1.1577,0.6959
2976.5625,-4.5514,1.4834,2.2523,3.4422,1.5119,-5.0631,-13.0920,2.1127,-0.5358,-1.8155,-3.3259,-5.7145,-7.2744,-4.4124,-3.5086,-2.2704,-3.5487,0.1066,-1.1262
2980.4688,-3.7168,-1.9705,1.1926,0.7221,-0.6098,-5.0602,-9.8502,0.9136,-1.4845,-2.4582,-3.8709,-3.6716,-6.8049,-5.6649,-2.5007,-0.8890,-3.6653,-1.4682,-2.9437
2984.3750,-2.4918,-4.6728,-0.9636,-2.5630,-2.5324,-4.3646,-4.5261,-0.5333,-2.9150,-3.0984,-4.1604,-1.7646,-5.5184,-6.0478,-1.7621,0.3961,-3.2558,-3.4599,-4.5081
2988.2812,-1.9117,-6.0685,-3.8174,-5.3990,-3.3782,-3.8442,0.1300,-2.1312,-4.5392,-3.9170,-4.6536,-0.8198,-3.8206,-5.1120,-1.7092,1.0369,-2.1030,-5.6412,-5.5314
2992.1875,-2.6128,-6.2690,-6.5786,-6.8785,-2.7284,-4.3893,1.5016,-3.6147,-5.8730,-4.9941,-5.5116,-1.0152,-2.0096,-2.8084,-2.3948,0.8674,-0.2871,-7.6408,-5.6672
2996.0938,-4.5517,-5.9048,-8.3962,-6.6654,-0.8508,-6.5133,-1.4790,-4.6366,-6.4927,-6.2675,-6.3470,-1.8659,-0.2407,0.3478,-3.4126,0.2448,1.8010,-9.0400,-4.6797
3000.0000,-7.0870,-5.7314,-8.7913,-5.1970,1.4074,-10.0163,-7.6813,-4.9725,-6.3245,-7.5553,-6.4882,-2.6501,1.3264,3.3869,-4.1177,-0.1898,3.5816,-9.5738,-2.7218
3003.9062,-9.3472,-6.2057,-7.9279,-3.4663,3.0339,-13.9302,-14.3310,-4.6851,-5.7480,-8.6245,-5.5697,-2.9654,2.3705,5.2689,-4.0521,0.0162,4.4980,-9.3054,-0.4801
3007.8125,-10.6579,-7.2602,-6.5211,-2.4748,3.3697,-16.8551,-18.4647,-4.0963,-5.3918,-9.2674,-3.9685,-3.0080,2.4429,5.3725,-3.2765,0.7595,4.2364,-8.6231,1.0260
3011.7188,-10.7873,-8.3745,-5.4068,-2.6593,2.4634,-17.5602,-18.4040,-3.5514,-5.7215,-9.3496,-2.6913,-3.3619,1.2455,3.8406,-2.3473,1.4046,2.8681,-8.0072,0.9755
