Time,Fp1,F3,C3,P3,O1,F7,T3,T5,Fz,Fp2,F4,C4,P4,O2,F8,T4,T6,Cz,Pz
0.0000,-6.7677,0.7864,3.2783,2.5027,5.5502,-2.9665,8.2518,6.4281,-1.7270,-5.9873,-4.0746,-0.8801,-0.7953,1.5045,-3.7488,0.7781,-0.1357,-2.5281,-1.1199
3.9062,-15.3366,-4.1596,1.3386,2.1592,5.0744,-6.5211,4.0276,6.0442,-3.4165,-8.3386,-4.4754,-1.4503,-0.8716,1.1391,-4.9684,-0.4710,-1.1585,-3.1086,-0.7153
7.8125,-21.8028,-8.7208,-0.7850,1.5656,4.1020,-9.1203,0.3622,5.2050,-5.9410,-10.7548,-5.2908,-2.0145,-0.5397,1.2802,-5.3143,-1.8722,-0.3504,-4.0746,-0.7240
11.7188,-23.4689,-10.2209,-2.6415,0.5533,2.6615,-9.5250,-1.0682,4.0328,-8.4269,-12.3753,-7.1073,-2.7269,-0.4596,1.3981,-5.3102,-3.5547,0.9861,-5.2654,-1.6901
15.6250,-20.6097,-8.1569,-3.5220,-0.4100,1.2138,-8.1182,-0.2706,2.8808,-9.7324,-12.7241,-9.2977,-3.8142,-1.4341,0.8538,-5.5995,-5.8657,1.2064,-6.1755,-2.9851
19.5312,-16.2949,-4.6589,-3.0566,-0.6494,0.0170,-6.3250,0.5892,1.9880,-9.2133,-12.4774,-10.3924,-5.1762,-2.9251,-0.5475,-6.2093,-7.9255,-0.0837,-6.3299,-3.5892
23.4375,-13.5325,-2.3341,-1.5600,-0.0647,-0.0976,-4.8238,0.0991,1.8038,-7.0181,-11.3740,-9.0410,-6.1347,-3.6966,-1.7391,-6.3347,-8.2160,-1.9408,-5.1479,-2.6167
27.3438,-13.2709,-2.5312,0.3615,1.0693,0.6230,-3.8008,-0.9629,2.6033,-4.6472,-10.4271,-6.0521,-5.9574,-3.0070,-2.3136,-5.9504,-5.7551,-2.5445,-3.3025,-0.5173
31.2500,-13.8422,-4.4863,1.2924,1.4402,1.5750,-3.2811,-1.1823,3.7771,-3.6736,-9.7326,-3.9637,-4.7600,-1.4720,-1.8998,-5.6231,-1.7113,-1.6369,-1.8177,1.2428
35.1562,-13.2800,-6.6172,0.6533,0.4043,1.8545,-3.2086,0.4724,4.2418,-4.8907,-9.6697,-4.6768,-3.2278,-0.4116,-1.1334,-6.3875,1.4936,0.0856,-1.8965,1.7264
39.0625,-11.3811,-7.5710,-1.1774,-1.1768,1.4556,-3.9646,2.2948,3.5337,-7.4161,-9.9228,-7.5955,-2.1632,-0.0709,-0.0748,-7.7172,2.3791,1.4163,-3.4854,0.8714
42.9688,-10.1464,-7.3298,-2.7632,-1.8343,1.5775,-5.4682,2.7044,2.0782,-8.9695,-10.4720,-9.8824,-2.0363,0.0460,1.4685,-7.9791,1.0919,2.6004,-4.7635,0.3076
46.8750,-11.2723,-6.6188,-2.9650,-0.6387,2.7700,-6.9635,0.5612,0.7411,-8.1174,-10.4266,-9.1729,-2.2307,1.1139,3.7214,-5.8781,-0.3804,3.6781,-4.2879,1.1747
50.7812,-14.2611,-5.9548,-1.8911,1.4142,4.9640,-7.6416,-2.0373,0.3700,-5.6267,-9.8634,-5.8802,-2.1356,2.9656,5.8572,-2.3440,-0.8632,4.8756,-2.1399,3.1054
54.6875,-16.3586,-5.2903,-0.8203,2.6994,6.6838,-7.3446,-3.3040,0.7397,-3.4690,-8.4995,-2.6125,-1.5233,4.3195,6.9168,0.1500,-0.3002,5.3154,0.2059,4.5078
58.5938,-14.7065,-4.4651,-0.5578,2.3416,7.0700,-6.0545,-1.8073,1.2241,-2.9219,-6.7583,-1.4115,-0.4021,4.2210,6.2882,-0.3234,0.1338,4.7311,1.4439,3.9881
62.5000,-9.1377,-3.0182,-0.5210,1.2617,5.9843,-4.2358,1.3489,1.4387,-3.5010,-5.3213,-2.2687,0.9891,3.3499,4.7132,-3.0705,-0.1200,3.5997,1.2491,2.1349
66.4062,-2.6809,-0.9236,0.3050,1.2153,4.7583,-2.2837,4.3832,1.5131,-3.2347,-4.3827,-2.8571,2.5999,2.9980,3.5148,-5.5878,-0.7148,3.1776,1.0263,0.9663
70.3125,0.8379,1.2729,2.3072,2.7246,4.0539,-0.5745,4.9705,1.7589,-1.0543,-4.1497,-1.3326,3.8236,4.1409,3.2404,-5.4144,-0.4534,3.8263,2.0867,1.5159
74.2188,-0.3805,3.0300,4.3690,4.6432,3.5551,0.4926,3.2573,1.9608,1.8502,-3.3649,1.8791,4.3245,5.4906,3.1886,-1.8803,1.1211,4.4875,4.0275,3.1732
78.1250,-4.5230,3.6403,5.1286,4.8486,2.3822,0.6884,0.6950,1.6862,3.7793,-1.5727,5.2400,4.0696,5.6728,2.3213,3.3943,3.3857,4.1137,5.3288,4.0481
82.0312,-7.9723,3.6459,4.3295,2.9297,0.2224,0.1480,-0.5711,0.6388,4.2438,1.6870,7.3085,3.8201,3.9445,0.3754,9.1153,5.2112,2.5537,5.3221,3.2457
85.9375,-7.7953,4.0995,3.8669,0.8545,-1.4596,-0.0295,0.8777,-0.1533,4.5389,5.2625,8.2875,4.6546,2.1624,-1.2394,13.8407,6.6156,1.4935,5.1723,2.1099
89.8438,-3.8297,5.9824,5.4344,1.0112,-1.6019,1.0294,4.0476,0.2602,6.9716,7.7503,9.7200,7.2133,2.5844,-1.1326,16.6661,7.9014,2.5775,7.0057,2.9016
93.7500,1.5379,9.2998,9.1260,4.1343,0.3186,3.3126,7.2799,2.4610,11.8941,8.3102,12.4024,11.0366,6.0528,0.7444,17.3284,9.8741,5.7004,11.4758,6.3363
97.6562,6.1211,13.0487,12.8444,8.3881,2.9819,5.8383,8.7610,5.2032,17.1243,7.7086,15.5924,14.6420,10.8598,3.2778,15.8314,12.1431,9.0068,16.7159,10.5830
101.5625,8.0877,15.3535,14.3370,10.7595,4.9275,7.3049,8.6773,7.0977,19.7852,6.9452,17.4763,16.6104,14.1759,4.6113,13.1167,13.8250,10.3180,19.9475,13.2447
105.4688,7.3160,15.4722,13.3829,10.2269,5.4108,7.1658,8.0767,7.2096,18.5620,6.8446,17.2504,16.8606,14.7662,4.4904,10.3389,14.0253,9.2461,19.7065,13.3168
109.3750,4.7123,13.7086,11.6358,8.3086,4.9310,5.8552,8.0415,6.2074,15.3024,6.7827,15.1377,16.0262,13.3344,3.8102,8.6090,13.1385,7.2667,17.1290,12.0151
113.2812,1.7646,11.7254,10.7050,7.0459,4.5563,4.4062,8.0129,5.2253,12.3445,5.9949,12.8224,14.9127,12.0828,3.6039,8.0341,11.9308,6.0927,14.7459,11.2758
117.1875,0.3132,10.3009,10.8911,7.4300,4.8389,3.2819,7.1044,5.1770,11.0266,4.5746,11.1952,13.6984,11.9350,4.4213,8.0752,10.9897,6.2271,13.6997,11.7773
121.0938,0.6894,9.4594,10.7669,8.4979,5.6896,2.3326,5.0028,5.6438,10.3434,2.9961,10.0532,12.0717,12.3086,5.5031,7.4633,10.0358,6.6704,12.9875,12.4509
125.0000,1.5105,8.0199,8.9416,8.5271,6.3216,1.2073,2.6982,5.8979,8.2514,1.6312,8.1225,9.5189,11.5081,6.1031,5.2997,8.4054,6.4986,10.6949,11.6764
128.9062,-0.2803,4.4820,5.1546,6.5188,6.4095,-0.6767,1.3060,5.2128,3.7101,-0.4530,4.2444,5.8054,8.6455,5.8419,1.5150,5.4371,5.2705,5.8323,8.6542
132.8125,-7.3429,-1.1067,0.5411,3.0565,5.6501,-3.9730,0.8445,3.5279,-2.4994,-4.5849,-1.3712,1.2539,4.2115,4.9967,-3.1486,1.6164,3.5772,-0.5860,4.1706
136.7188,-18.3592,-7.5830,-3.7578,-0.5081,3.9540,-7.9899,0.0277,1.3242,-8.7835,-10.7973,-7.7819,-3.6241,-0.2245,4.1095,-7.4645,-2.0087,2.2792,-6.5969,-0.5149
140.6250,-28.0395,-12.8089,-7.2258,-3.2798,1.7157,-11.5232,-2.3994,-1.0704,-13.3858,-16.6317,-12.7651,-8.3438,-3.7151,3.0791,-10.0401,-4.2056,1.3600,-10.8697,-4.5908
144.5312,-30.3671,-15.2185,-9.4091,-4.8178,-0.3338,-13.4323,-5.7219,-3.0898,-15.7714,-19.5510,-15.3488,-11.7991,-5.5819,2.0143,-10.4661,-4.6860,0.7517,-13.1500,-7.5077
148.4375,-23.8350,-14.9954,-10.4182,-5.4493,-1.7438,-13.6409,-8.3213,-3.9128,-16.0317,-18.7321,-15.8595,-13.2221,-6.0860,0.7407,-9.3403,-4.1960,-0.0234,-14.2756,-9.1041
152.3438,-13.4251,-13.7008,-10.3388,-5.9042,-2.4283,-13.1056,-9.0438,-3.9158,-15.2429,-15.5304,-15.2598,-12.8356,-6.2569,-0.8586,-7.9336,-3.9740,-1.5137,-14.6822,-9.4353
156.2500,-6.9421,-13.0301,-9.4860,-6.3639,-2.8014,-13.3598,-8.4349,-3.4816,-14.3619,-13.2891,-14.7774,-11.7204,-6.7091,-2.6915,-7.6311,-4.5565,-3.7056,-14.4503,-9.1153
160.1562,-8.9848,-13.5307,-8.8034,-6.9784,-3.2269,-14.6632,-8.4913,-3.7342,-13.8659,-13.6509,-14.4376,-11.1641,-7.3602,-4.1389,-9.0376,-6.0524,-6.0703,-13.6207,-8.4868
164.0625,-16.9775,-14.1233,-8.4310,-7.1773,-3.3768,-15.6122,-9.3982,-4.7473,-13.7602,-15.7594,-13.9351,-11.6088,-7.7967,-4.3703,-11.5014,-7.6163,-7.4983,-12.4477,-7.9456
167.9688,-23.6726,-13.0384,-7.5461,-6.2616,-2.3282,-14.2787,-9.4841,-5.3544,-13.3814,-17.1534,-12.8916,-12.3189,-7.4323,-3.0918,-13.4066,-8.6212,-7.3482,-10.9298,-7.2483
171.8750,-23.1637,-9.4255,-5.4108,-4.2117,0.0276,-10.1435,-6.9424,-4.5091,-11.9330,-16.4216,-11.4087,-12.0513,-6.0035,-0.9535,-13.5486,-9.2069,-5.6136,-9.0727,-6.0630
175.7812,-16.3517,-4.3088,-2.1071,-1.7265,2.7119,-4.8618,-1.8526,-2.0688,-9.3947,-13.9083,-10.0321,-10.3908,-4.2490,0.7956,-11.5917,-9.7718,-3.3626,-6.7316,-4.3173
179.6875,-8.8748,0.0107,0.7506,-0.1067,4.3486,-1.2081,3.1709,0.5824,-6.6671,-11.5307,-9.2007,-8.2522,-3.1638,0.7772,-8.9344,-10.2689,-2.2761,-4.7479,-2.7556
183.5938,-6.1079,1.3491,1.5689,-0.0341,3.9746,-0.8480,4.9251,1.7034,-4.7471,-10.4907,-8.6897,-6.9071,-3.2986,-0.5033,-7.1439,-10.3548,-2.5865,-3.6786,-2.1774
187.5000,-8.8782,-0.2950,-0.2568,-0.9622,2.7279,-3.3899,2.5522,0.8448,-4.4928,-10.8277,-8.1203,-7.0186,-4.1537,-1.5536,-7.4748,-9.7776,-3.4679,-4.0121,-2.8295
191.4062,-13.1149,-3.5590,-3.3089,-2.1391,2.2725,-6.3072,-1.3817,-0.7996,-5.1637,-11.2937,-7.1238,-7.4979,-4.2706,-1.0177,-8.9870,-8.3272,-3.4788,-4.9556,-3.9393
195.3125,-14.5593,-5.8340,-5.4473,-2.2562,3.6294,-7.5529,-3.6849,-1.3945,-5.5885,-10.8217,-5.6395,-7.0548,-2.8835,1.2873,-10.2320,-6.5244,-1.7739,-5.3726,-3.9846
199.2188,-12.2361,-5.4263,-5.2722,-1.5588,5.8772,-6.5130,-2.9620,-0.5168,-4.9923,-9.2141,-4.2030,-5.3702,-0.3258,4.0568,-9.6211,-4.7338,0.5845,-4.4663,-2.5028
203.1250,-8.2809,-2.9969,-3.6441,-0.8419,6.9661,-4.5094,-0.5361,0.5840,-3.9284,-7.2751,-3.3260,-3.3320,1.6867,5.1762,-7.2708,-3.0102,2.4070,-2.8010,0.0114
207.0312,-5.6062,-0.6897,-2.5633,-0.9412,5.8506,-3.3551,0.5011,0.5580,-3.4350,-6.2588,-3.6154,-2.3818,2.2390,4.0786,-4.8954,-1.4671,2.5023,-1.5885,1.8275
210.9375,-4.8532,-0.3807,-3.1491,-1.7548,3.0095,-3.6886,-0.7506,-1.0649,-4.2922,-6.6587,-5.3144,-3.2219,0.8407,1.4779,-4.1454,-0.4758,1.3140,-1.7950,2.0466
214.8438,-5.1864,-2.4036,-4.6618,-2.2973,0.5253,-5.1617,-3.1877,-3.0928,-5.7868,-8.2647,-7.7651,-4.8880,-1.1606,-0.7471,-5.1934,-0.5655,-0.1203,-2.9822,0.7405
218.7500,-5.7086,-4.9011,-5.1062,-1.6790,-0.2774,-6.5322,-3.9484,-3.5604,-6.6096,-9.8175,-9.4970,-5.5119,-2.5918,-2.0860,-6.4238,-1.7864,-1.1834,-4.0341,-0.9293
222.6562,-6.0456,-6.1139,-3.4547,-0.1251,0.1021,-6.7445,-2.5685,-1.9989,-6.0024,-9.8813,-9.4490,-4.3143,-2.8309,-2.6296,-6.1480,-3.4399,-2.0412,-3.7546,-1.8985
226.5625,-6.3404,-5.7173,-1.1207,0.8191,0.1040,-5.9325,-0.4415,-0.0645,-4.5577,-8.1440,-7.5982,-2.1912,-2.7031,-3.6888,-4.2047,-4.4637,-3.2143,-2.7099,-2.1050
230.4688,-6.2742,-4.6176,-0.3868,-0.1016,-1.7779,-4.7444,0.0550,0.2785,-3.7996,-5.4882,-5.4597,-1.1447,-3.4027,-5.6704,-2.0041,-4.3122,-4.6710,-2.1867,-2.5666
234.3750,-5.3297,-3.7599,-2.4813,-3.2730,-5.2541,-3.5413,-1.4843,-1.7872,-4.2416,-3.7769,-4.5521,-2.3201,-5.0911,-8.1310,-1.1575,-3.2024,-5.7805,-3.1740,-4.4422
238.2812,-3.5266,-3.1993,-5.7217,-6.9670,-8.4471,-1.9887,-2.7083,-5.0030,-5.1591,-3.6977,-5.1766,-4.5548,-6.9552,-9.9714,-2.0845,-2.1195,-5.9431,-5.0727,-7.3081
242.1875,-1.9665,-1.8749,-7.6386,-9.3305,-9.9525,0.4414,-1.7329,-7.1349,-5.0680,-4.4476,-6.2423,-6.0462,-7.7430,-10.3438,-3.1645,-1.6452,-5.1599,-6.5371,-9.5335
246.0938,-2.1077,0.2378,-6.7549,-9.7463,-9.8318,3.3558,1.9171,-6.9732,-3.7380,-5.0208,-6.4067,-5.4919,-7.1831,-9.8592,-3.0214,-1.6619,-3.9877,-6.6405,-9.9324
250.0000,-4.2982,2.1238,-4.7608,-8.9641,-9.3729,5.4225,4.8778,-5.6988,-2.3674,-4.5574,-5.5758,-3.8671,-6.0974,-9.2374,-1.8053,-2.0910,-3.5178,-5.8938,-8.6470
253.9062,-7.3030,2.0129,-4.2235,-8.4672,-9.5955,5.0359,4.2457,-5.0501,-2.5582,-4.1083,-4.9262,-2.9963,-5.4087,-9.0008,-0.9991,-2.4248,-3.7676,-5.4179,-7.2490
257.8125,-8.9600,-0.0398,-6.0171,-8.5576,-10.5276,2.0933,-0.2653,-5.8844,-4.5905,-4.1811,-5.3410,-3.7139,-5.5473,-8.8885,-1.8607,-2.6609,-4.4472,-5.9441,-6.6257
261.7188,-8.5643,-2.9139,-8.3789,-8.4993,-10.9356,-1.7414,-5.8238,-7.1110,-6.8825,-5.0225,-6.2269,-5.0162,-5.5951,-8.3352,-3.8859,-2.5768,-4.7520,-6.4814,-6.7469
265.6250,-7.2272,-5.0445,-8.6480,-7.4452,-10.1027,-4.4304,-8.7322,-7.2949,-7.5527,-5.8695,-6.3974,-5.2930,-5.0020,-7.0818,-5.8650,-2.0544,-4.4781,-6.0913,-6.2867
269.5312,-6.9098,-6.0330,-6.5948,-5.4445,-8.0635,-5.1296,-8.2137,-5.7029,-6.4983,-6.0582,-5.2954,-4.2968,-3.9562,-5.7694,-6.5456,-1.4047,-3.9861,-4.7843,-4.9014
273.4375,-7.8943,-7.4901,-4.4780,-4.0376,-6.3669,-4.2103,-6.0170,-3.8365,-5.6871,-5.7313,-4.2135,-3.5438,-3.9777,-5.5827,-6.4092,-1.6533,-3.8812,-4.2507,-3.9251
277.3438,-8.8333,-10.0806,-5.3930,-4.8850,-6.3672,-2.5684,-5.1005,-3.5127,-7.1280,-5.8365,-5.2536,-5.2032,-6.0198,-7.1163,-7.2328,-3.9152,-5.0512,-6.6528,-5.5951
281.2500,-7.3899,-12.7689,-9.5571,-7.8544,-8.0795,-0.6707,-5.6240,-5.3012,-10.9769,-6.7666,-9.2713,-9.5623,-10.1025,-9.9922,-9.6931,-8.0886,-7.2356,-11.7787,-10.4695
285.1562,-3.2850,-13.4074,-13.7906,-10.9203,-10.2233,1.8200,-5.8709,-7.5443,-14.9081,-8.2109,-14.6693,-14.6574,-14.3134,-12.5091,-13.2108,-12.6589,-9.4333,-17.0314,-16.0268
289.0625,1.0112,-10.5803,-14.3996,-11.7549,-10.6831,4.7895,-3.8572,-8.0693,-16.0576,-9.7285,-18.4524,-17.4553,-16.0128,-13.1304,-16.1336,-15.4228,-10.3477,-18.8599,-18.1573
292.9688,3.0377,-5.8193,-10.2755,-9.2577,-8.6129,7.2935,-0.1611,-5.7582,-13.1918,-10.4387,-18.0253,-16.1797,-13.9736,-11.2091,-17.4000,-14.9914,-9.2808,-15.8144,-14.6745
296.8750,2.2387,-1.5803,-4.1086,-4.7160,-5.0483,8.3864,2.5482,-2.1440,-7.7435,-9.6118,-13.2009,-11.5497,-9.1332,-7.7358,-16.8699,-11.8001,-6.7145,-9.3180,-7.1526
300.7812,0.4129,0.7091,0.4319,-0.4407,-2.0407,8.3548,2.8343,0.4977,-2.0698,-6.9749,-6.5619,-5.8192,-3.9261,-4.4798,-14.7643,-7.7517,-4.1586,-2.9022,0.0132
304.6875,0.5969,2.1221,1.8201,1.6978,-1.0566,8.6781,1.8444,1.2099,1.8171,-2.8192,-1.1045,-1.5005,-0.7656,-2.7855,-11.6687,-4.7195,-2.9122,0.6830,2.6619
308.5938,3.4688,4.0825,1.2474,1.6059,-1.8359,10.3051,1.5603,0.3174,3.9453,1.7460,1.5327,0.2920,-0.3410,-2.7586,-8.0134,-3.1756,-3.4370,1.2790,0.7984
312.5000,7.2186,6.8618,0.5165,0.3040,-3.2610,12.0420,2.9109,-0.5196,4.3560,4.6513,1.4102,0.0324,-1.7091,-3.8386,-4.8932,-2.8981,-4.6011,0.2830,-2.5744
316.4062,8.9270,8.5911,0.5357,-0.9841,-4.1553,12.0535,4.4083,-0.8502,3.3419,4.4801,-0.0727,-1.6749,-3.6331,-4.9341,-4.0042,-3.2890,-5.4124,-1.1474,-4.5502
320.3125,7.5440,7.0940,0.2190,-2.0296,-4.3460,9.4961,3.7828,-0.9554,0.9214,1.1703,-2.3686,-4.3831,-5.3090,-5.7876,-5.9854,-4.1642,-5.7200,-2.8389,-4.3039
324.2188,3.9191,2.6561,-1.7326,-3.1243,-4.4226,5.4693,0.6547,-1.5591,-2.0912,-3.6200,-4.9310,-7.3385,-6.5683,-6.5152,-10.0006,-5.5355,-5.9645,-5.1770,-3.7140
328.1250,0.3869,-2.3183,-4.7415,-4.3811,-5.0467,2.6968,-2.7292,-2.7891,-4.9799,-7.1804,-7.6262,-9.5733,-7.6496,-7.3111,-13.7310,-7.1171,-6.6723,-7.7678,-4.5774
332.0312,-1.1126,-4.6536,-6.8190,-5.5889,-5.8771,2.4984,-3.6270,-3.6172,-6.4813,-8.3030,-9.5561,-10.2554,-8.1472,-8.1242,-14.6370,-8.0018,-7.4419,-9.5138,-6.5844
335.9375,-0.2461,-2.9914,-6.1354,-5.9344,-5.9977,4.1039,-1.1698,-3.4635,-5.8262,-6.4460,-9.2707,-8.7820,-7.6651,-7.9671,-11.7742,-7.5152,-7.3244,-9.0380,-7.7232
339.8438,2.5623,1.6422,-2.6048,-4.9309,-4.6249,5.4921,2.8045,-2.1389,-3.4636,-2.6081,-5.9411,-5.3101,-5.5151,-6.0889,-6.4608,-5.3829,-5.4479,-5.7966,-6.1046
343.7500,5.4614,6.6810,1.8472,-2.5469,-1.9585,5.5093,5.8442,-0.3714,-0.1871,1.5731,-0.4709,-0.9602,-2.2821,-2.8629,-1.3482,-2.6866,-2.2110,-0.9937,-1.9018
347.6562,6.4746,9.7121,5.6361,0.5807,0.7101,4.5276,6.4664,1.1246,2.9200,4.1760,4.4846,2.5444,0.8737,0.6091,1.0759,-0.7589,0.5380,3.4883,2.7377
351.5625,4.4632,9.8554,7.3543,3.3865,2.3046,4.2423,5.4088,2.0540,4.9622,3.9817,6.5114,3.9397,2.7170,2.8615,-0.3281,-0.4228,1.6048,6.0335,5.2277
355.4688,0.7203,7.9496,7.3498,4.8278,2.1878,5.3101,4.2465,2.4460,5.5104,1.6985,5.0378,3.2146,2.7682,3.3776,-4.0599,-1.0676,0.8571,6.3877,4.9171
359.3750,-1.8322,5.6161,6.6399,5.0473,1.6845,7.0142,4.2014,2.9539,4.7136,-0.5436,2.0771,1.7909,2.0527,3.2554,-7.2975,-1.1812,0.0916,5.7646,3.3729
363.2812,-0.8836,4.6539,6.3944,4.9579,2.0620,8.4538,5.2265,3.7990,4.1777,-0.6003,0.5003,1.3144,2.1447,4.1714,-7.2406,0.3102,1.0553,5.6087,2.9516
367.1875,3.7536,5.3128,7.1115,5.4014,4.0206,8.9728,6.7202,5.2606,4.7768,2.1994,1.6769,2.7016,3.7777,6.6318,-3.5110,3.0465,3.8888,6.8666,4.6188
371.0938,8.6658,6.5867,8.1425,6.4890,6.4163,8.6781,7.3812,6.6472,6.8443,5.8120,4.4102,5.1634,6.4021,9.5731,1.6803,5.2816,6.8817,8.7479,7.3687
375.0000,10.0718,7.1351,8.6683,7.4537,7.7235,7.9188,6.5498,7.5477,8.8694,7.5844,6.4561,6.7247,8.2592,10.8731,5.3696,5.2473,7.8570,9.9516,9.1840
378.9062,7.3393,6.3255,7.9822,7.4022,7.1243,7.0807,4.5886,7.4602,9.2804,6.5198,6.4514,6.3407,8.2365,9.7392,5.6355,3.2241,6.4647,9.6424,8.7402
382.8125,3.3578,4.9369,6.4661,6.3776,5.5880,6.0673,3.0543,6.6242,8.0496,3.8939,4.9788,4.8743,6.8114,7.4119,3.4628,1.0948,4.5262,8.3913,6.8891
386.7188,1.4647,4.4446,5.0933,5.3336,4.4581,5.0233,3.0163,5.7215,6.4687,2.4664,3.9818,4.1781,5.4823,6.0956,1.5728,0.8717,4.1135,7.3021,5.2213
390.6250,2.7388,5.5637,4.7562,5.4687,4.4925,4.2843,4.2923,5.4770,6.2788,3.6781,4.7194,5.3267,5.3650,6.8303,1.9323,2.7795,5.6805,7.4039,5.0655
394.5312,4.7077,7.5064,5.8970,6.5932,5.1034,3.8992,6.0997,5.9933,8.0982,6.8132,7.1647,7.9167,6.1955,8.5534,4.4867,5.2266,7.3468,8.4127,6.2161
398.4375,4.7972,8.6580,7.5485,7.5547,5.1051,3.8783,6.7887,6.8433,10.6171,9.8401,10.2574,10.2686,6.9335,9.1580,7.1726,6.2615,7.2628,9.4958,7.4987
402.3438,3.1114,8.2590,8.4323,7.3233,4.2702,3.9536,5.7952,7.1096,11.8962,11.1391,12.5822,10.6940,6.6141,7.5807,8.2918,5.4296,5.1397,9.5324,7.5725
406.2500,2.9668,6.9032,7.8248,5.6924,2.9476,3.8523,4.0107,6.4742,11.0389,11.3295,13.2737,9.4698,5.3016,4.7417,7.9449,3.6195,2.4500,8.2179,6.3462
410.1562,6.7421,5.9413,6.4722,3.6094,1.9946,3.7275,3.5731,5.2208,9.0575,10.8646,12.3022,7.9222,3.8778,2.3824,7.1032,2.5238,1.4271,6.3050,4.4749
414.0625,13.6569,6.3944,5.4744,2.6997,1.7116,3.9537,5.2209,4.1779,7.8561,10.6436,10.2091,7.5172,3.1461,1.7901,6.6956,2.5287,2.4276,4.8580,2.8807
417.9688,19.0950,7.9466,5.7741,3.2913,1.6336,5.1862,8.1171,3.9733,8.2221,10.3282,8.0706,8.1720,3.2498,2.3354,6.5249,3.3493,4.0669,4.4990,2.2730
421.8750,19.0027,9.0742,6.8157,4.6160,1.0981,7.2765,9.9164,4.1043,9.1658,9.5027,6.4093,8.2511,3.1993,2.7625,6.0429,3.8871,4.5202,4.7634,2.1791
425.7812,13.1031,8.5531,7.3480,5.3063,-0.2632,9.2686,8.5446,3.8305,9.0291,8.1446,5.5936,6.4587,2.2696,1.8771,4.9648,3.6286,2.9233,4.9003,2.0413
429.6875,5.2246,6.1942,6.1928,4.6620,-2.2984,9.9309,3.7450,2.5946,6.9713,6.9877,5.2761,3.1047,0.6244,-0.1062,4.2071,2.7538,0.1304,4.1328,1.3743
433.5938,0.4057,3.0871,3.7795,3.0012,-4.0521,9.1302,-1.7067,0.9906,4.1044,6.9914,5.1707,0.3624,-0.7307,-2.3299,4.9113,1.8627,-2.3738,2.9834,0.3935
437.5000,0.9211,1.0824,1.7360,1.5659,-4.8350,7.7447,-4.3477,0.3479,2.5965,8.5938,5.3957,0.5358,-0.7801,-3.5872,7.1563,1.5650,-3.3100,2.4816,-0.1653
441.4062,5.5026,1.0485,1.0686,1.0769,-4.4315,6.9717,-2.7327,1.2552,3.4474,11.1591,6.2018,3.6852,0.3496,-3.6835,9.6624,1.9524,-2.5237,3.0486,-0.0699
445.3125,10.5021,2.5814,1.8641,1.1916,-3.2310,7.3462,1.5497,2.7402,5.7901,13.1759,7.3840,7.4921,1.7142,-3.1326,10.7563,2.5209,-1.1004,4.4179,0.5576
449.2188,12.4916,4.2241,2.8176,1.0422,-2.4780,7.9846,4.6925,3.3193,7.1875,13.5184,8.1913,9.1483,2.0925,-2.7897,9.3985,2.8693,-0.3845,5.5085,1.1592
453.1250,10.7908,4.9288,3.0938,0.5484,-2.4712,7.3456,4.7050,2.2255,6.3997,11.2861,7.9253,7.8427,1.4651,-3.0692,6.4340,2.9427,-0.4921,5.5852,1.2222
457.0312,7.1780,4.7820,2.9209,0.3711,-3.2348,5.4832,1.9406,0.3748,4.4566,8.0091,7.0555,5.4453,0.9177,-3.3329,4.1818,2.8632,-0.6100,5.5178,1.1698
460.9375,4.3379,4.9599,3.4017,1.5666,-3.7378,3.6816,-0.5446,-0.4296,3.8862,5.2890,6.5855,5.0079,2.1014,-2.7139,4.0515,3.3426,0.4478,6.4716,2.0359
464.8438,4.2562,6.4013,5.2355,3.9458,-3.1905,3.7067,-0.3339,0.5538,5.8698,4.5850,7.4427,7.1724,4.8440,-1.1068,6.2098,4.4322,2.8663,8.8278,4.1591
468.7500,7.0310,8.8545,7.9291,6.1760,-1.6420,5.8311,2.5855,2.4708,9.5544,6.2299,9.4572,10.3271,7.6269,1.1241,9.2129,5.5745,5.5372,11.5123,6.9557
472.6562,10.0852,10.8121,10.2101,6.8325,0.1465,8.4411,6.3459,3.6302,12.4023,8.9267,11.7420,12.1073,8.5101,2.5920,11.3630,6.0625,6.8554,12.8872,8.9188
476.5625,11.4479,11.0625,10.8338,5.9068,1.1643,9.3955,8.0375,3.0012,12.6356,11.4510,12.9350,11.6300,7.3279,3.1252,12.2991,5.7179,6.2772,12.1139,9.4263
480.4688,10.3755,9.4427,9.9812,4.4359,1.3947,8.0400,7.4310,1.8577,10.5815,12.1528,12.6023,10.1324,5.7018,2.7283,12.2185,5.3032,4.8143,10.0610,8.6658
484.3750,8.9416,7.0802,8.5062,3.8248,0.8164,5.4060,5.2506,1.5827,7.8845,11.2343,10.9202,9.1861,5.0648,1.9988,11.9132,5.4222,3.7836,8.2493,7.6273
488.2812,9.5119,5.1390,7.0067,4.1310,-0.1177,3.4786,2.6891,2.3852,6.0426,9.6478,8.8244,8.7904,5.4645,1.3338,11.4324,6.2445,3.7587,7.3747,6.6893
492.1875,12.4434,3.9019,5.3688,4.3554,-1.1656,2.6707,0.1411,2.9798,5.3137,8.5327,6.9436,8.1068,5.5976,0.3858,10.4913,6.9301,3.6307,7.0626,5.8961
496.0938,15.4536,3.1261,3.8629,4.0105,-2.1367,2.6225,-2.6198,2.3481,5.1855,9.0310,6.2585,6.4907,4.5022,-0.6013,9.6790,6.8614,2.4314,6.6225,5.0875
500.0000,15.6862,2.4187,2.8672,3.6476,-2.1163,2.3850,-4.6180,0.8199,5.5085,10.8587,7.2263,5.2931,2.9362,-1.2448,9.5542,6.2781,0.5939,6.2480,4.8924
503.9062,12.2202,1.9937,3.3639,4.4560,-0.7863,1.6842,-4.8667,0.0002,6.3957,12.6875,9.2049,5.8923,2.6009,-0.6340,10.4346,6.2238,-0.5588,6.4928,5.7578
507.8125,7.2407,2.0541,5.2710,6.6823,1.3343,1.2823,-2.7735,1.1958,7.6871,13.2943,10.8571,8.4579,3.9767,0.8689,11.3440,7.1176,-0.2058,7.7164,7.1947
511.7188,3.8080,2.3856,7.5325,8.7523,3.0766,1.8297,0.2644,3.6962,8.4026,11.9320,10.9036,10.5480,5.8713,2.3980,10.9474,8.3590,1.2299,9.0520,8.3252
515.6250,3.7303,2.7177,8.6369,9.2029,3.5203,3.3510,2.8000,5.8978,7.6139,9.0733,8.9366,10.1168,6.3314,2.4957,8.5269,8.5356,2.3673,9.1272,8.1099
519.5312,6.4564,3.2204,8.2768,7.4455,2.7064,5.1545,3.8407,6.6236,5.5698,6.7085,6.3890,7.0279,4.6579,1.1180,5.3908,6.9098,1.9924,7.6746,6.5021
523.4375,9.8934,4.1920,6.9897,4.9927,1.7693,6.4896,3.6518,6.0833,3.8578,5.9643,4.8661,3.4264,2.2840,-0.6663,3.8232,4.2483,0.8124,5.5414,4.9418
527.3438,11.8531,5.8070,6.1109,3.5128,1.7839,6.7993,4.0748,5.6285,3.9591,6.6604,5.2302,2.2715,1.3287,-1.3800,4.6507,2.4454,0.2604,4.1258,4.2877
531.2500,11.6156,7.8712,6.5230,3.9741,2.9116,6.2643,5.7095,5.7935,5.6982,8.0976,7.0165,4.0979,2.3420,-0.4413,7.5852,2.8986,1.2900,4.5418,4.9841
535.1562,9.3282,9.5101,7.7744,5.8066,4.4055,5.2699,7.7787,6.2436,7.8927,9.1265,9.2226,7.3340,4.3100,1.2977,10.4984,5.3608,3.2883,6.1483,6.1270
539.0625,6.4374,10.1532,9.1881,7.7250,5.4626,4.4253,8.6700,6.5814,9.2027,10.1494,11.2231,9.8232,5.8442,3.0648,12.2315,8.5557,4.8799,8.2071,7.2285
542.9688,4.9036,9.9180,10.2673,9.1422,6.2275,4.2641,7.9206,6.9954,9.3885,11.3691,12.7298,10.7860,6.7226,4.1085,12.8242,10.5965,5.2592,9.8792,8.4139
546.8750,6.2534,9.2243,10.9420,10.4545,7.0313,4.8400,5.5289,7.8805,9.2546,13.0192,13.7420,10.6602,7.5717,4.8863,12.9783,10.7454,4.7401,11.0022,9.9092
550.7812,11.1094,8.4868,11.3888,11.7191,7.9410,5.7338,3.4747,9.3945,9.6895,14.2486,13.5792,10.3698,8.5681,5.7182,13.0198,9.4680,4.5055,11.8047,11.5785
554.6875,17.5719,8.1447,11.4361,12.5608,8.4910,6.5813,2.5186,10.4352,10.4401,14.6341,12.1933,10.0334,9.3126,6.5171,12.9608,7.9435,4.8018,12.0669,12.4433
558.5938,22.5640,8.4094,11.1007,12.2435,8.2215,7.2856,3.5061,10.3079,10.9930,14.1491,10.1580,9.5527,8.9658,6.6877,12.5430,7.1069,5.2445,11.6083,11.7434
562.5000,23.3242,9.2228,10.2915,10.6684,7.0459,7.9702,5.5542,8.8122,11.0104,13.7733,8.7404,8.7791,7.2349,5.8702,11.8982,7.2804,4.8667,10.3784,9.5795
566.4062,19.7098,10.0222,9.3307,8.4452,5.5569,8.8436,7.8033,6.9446,10.6607,13.9645,8.9138,8.2515,5.0294,4.0846,11.3779,7.7860,3.5948,8.8366,7.0595
570.3125,14.1781,9.8484,8.0847,6.1724,4.2013,9.2136,8.4774,5.5982,9.9715,13.9599,9.9469,7.8050,3.5094,1.9270,11.1310,7.5928,1.9667,7.2308,5.2969
574.2188,10.2660,8.1422,6.6995,4.4802,2.5800,8.3944,6.8561,4.7598,9.0062,12.9991,10.3984,7.1360,2.7768,0.4749,10.6072,6.2776,1.1213,5.9526,4.3183
578.1250,9.7569,5.7285,5.2828,3.2578,0.7574,6.5733,3.8348,4.0391,7.7688,10.5799,9.2245,5.6725,2.3613,-0.1845,9.4035,4.2492,1.2962,4.9919,3.6997
582.0312,12.0478,4.0199,4.3993,2.3466,-1.0304,5.0138,1.2983,2.9323,6.5344,8.0118,7.1203,3.9218,1.8828,0.0194,7.5161,2.6318,2.0940,4.5425,2.9761
585.9375,14.3595,4.3594,4.6401,1.9019,-1.8565,4.8814,0.9783,2.1003,5.9713,6.6058,5.7010,2.7743,1.5379,0.6462,5.7474,2.6579,2.7030,4.7727,2.3087
589.8438,14.5036,6.2534,5.7686,2.0042,-0.9584,6.0160,3.3050,1.8207,6.3864,7.3730,6.0943,3.4127,1.7862,1.4254,5.3916,4.2140,2.8036,5.5664,2.3952
593.7500,12.1743,8.0157,6.7935,2.8850,1.0554,7.3805,6.0561,2.4880,7.4121,9.1904,7.7903,5.4419,2.9983,1.9056,6.8398,6.3720,2.7098,6.2060,3.4777
597.6562,9.4253,8.3117,7.3564,4.1962,2.6910,7.5677,7.3031,3.6168,8.5160,10.6872,9.5870,7.9264,4.8784,2.1553,9.9675,8.1943,3.1196,6.3439,5.2012
601.5625,8.4554,7.2637,7.6826,5.7736,3.1010,6.8239,6.1306,4.9569,9.3946,11.2184,10.5923,9.5568,6.8670,2.5444,13.5988,9.3795,4.2158,6.3510,6.8822
605.4688,10.3865,6.2756,8.3107,7.1926,2.2933,6.0250,3.8231,6.2734,10.3731,11.0408,10.8347,10.0587,8.3932,3.4147,16.0625,10.4474,5.8651,6.9741,8.1848
609.3750,14.1055,6.6225,9.4406,7.8918,1.2532,6.1187,2.5119,7.2939,11.5621,10.7902,10.9294,9.9884,9.3457,4.2717,16.8264,11.7219,7.1566,8.1806,8.7560
613.2812,17.3149,7.7587,9.9831,7.4625,0.4817,6.7175,2.5402,7.4340,12.2981,11.1937,11.1314,9.6738,9.1577,4.6738,15.9586,12.5916,7.4494,9.2399,8.3172
617.1875,18.3605,8.0702,8.7676,5.5862,0.0191,6.6101,3.2509,6.0432,11.4083,11.7512,10.9113,9.2091,7.7267,3.6702,14.2985,12.2661,6.3742,8.7061,6.6523
621.0938,16.9545,5.9988,5.8027,2.9414,-0.5854,5.1787,2.9550,3.2158,8.4168,11.8054,9.7236,7.9085,4.9776,1.4260,12.2713,10.2496,4.2712,6.2658,4.1285
625.0000,13.9033,1.8986,2.2678,0.5893,-1.6403,2.9410,1.1473,0.0864,4.3078,10.6878,7.2644,5.7679,1.8654,-1.0219,9.8066,7.1614,1.8337,2.6730,1.5835
628.9062,10.1806,-2.0782,-0.3108,-0.4299,-2.1539,1.1767,-1.1304,-1.6160,0.7497,8.1330,4.3509,3.2921,-0.2950,-2.5651,6.6823,4.0107,0.1421,0.0557,0.1518
632.8125,6.2776,-3.5643,-1.1941,-0.1818,-1.3695,0.6440,-1.6803,-1.1185,-0.6328,5.0676,1.8484,1.5037,-0.9267,-2.3689,3.3811,1.7868,-0.4647,-0.8422,0.2772
636.7188,2.8954,-1.4376,-0.4140,0.6427,0.5727,1.1502,0.0676,1.0514,0.0982,2.7600,0.7727,0.9938,-0.1002,-0.9499,1.2831,0.9482,-0.1898,-0.0572,1.6971
640.6250,1.3087,3.1306,0.8684,1.4776,2.5967,1.8178,2.8418,3.3590,2.2163,2.5587,1.3254,1.8202,1.2536,0.8655,1.5621,1.0602,0.4690,1.5104,3.1554
644.5312,2.6663,7.9105,2.5951,2.2977,3.7667,2.4852,5.0200,4.2913,4.3742,3.9452,3.0281,2.9922,2.3906,2.1774,3.8959,1.6325,1.2784,3.1540,3.9018
648.4375,7.2084,10.4850,4.5395,3.3436,3.8621,3.0705,5.4008,3.7608,6.0830,5.8294,5.1706,3.8915,3.0573,2.4997,6.7462,2.1777,2.0390,4.6170,4.0564
652.3438,13.3471,10.4232,6.7266,4.7059,3.3444,3.9711,4.2843,3.0341,7.3481,7.2443,7.0238,4.4296,3.7552,2.6095,8.4186,2.9099,2.9808,6.2544,4.4110
656.2500,18.4049,8.7034,8.7653,6.3859,3.5619,4.7437,3.3034,3.5844,8.5105,7.4972,8.1627,5.5682,5.3642,3.1788,8.2073,3.9604,4.2360,8.1705,5.7806
660.1562,20.0612,6.9254,10.0306,7.5972,4.9253,5.0599,3.4769,5.4305,9.3876,7.1147,8.7887,7.3745,7.7644,4.6304,7.0692,5.2493,5.7093,9.7108,7.9906
664.0625,17.6460,5.3543,9.6141,7.7584,6.5777,4.4378,3.8228,7.4078,9.5344,6.5508,8.6022,9.1844,10.1641,6.3211,6.3348,6.2858,6.5989,10.0768,9.8568
667.9688,12.6523,3.4546,7.4561,6.7847,7.1100,2.8955,3.0220,7.6207,8.4059,6.1213,7.6130,9.5389,10.7940,7.0421,6.5226,6.5569,6.3872,8.7410,10.1780
671.8750,8.0264,0.9618,4.1821,4.9388,5.8833,1.3502,0.4136,5.5829,6.0531,5.5461,5.5597,7.4882,9.0295,5.9969,7.0865,5.6188,4.8374,6.2614,8.4232
675.7812,6.4691,-1.3685,1.3229,3.2350,3.6152,0.7284,-2.2726,2.4405,3.2720,5.3163,3.1373,4.4804,5.9320,3.9433,7.6245,4.0312,3.0599,3.6270,5.6195
679.6875,9.1332,-2.2593,0.2888,2.5900,2.0068,1.1205,-3.3049,0.4728,1.4749,6.1970,1.5973,2.6648,3.5733,2.5582,8.1776,2.8837,2.1090,2.2600,3.5961
683.5938,14.2826,-0.8261,1.6340,3.5606,2.4349,2.6117,-1.6681,0.5424,1.4683,8.4253,1.8892,3.6378,3.8155,3.1965,9.1228,3.0236,2.7251,2.6425,3.8863
687.5000,18.9734,2.1287,4.3351,5.5054,4.4236,3.9592,1.4175,2.6241,2.8616,11.1658,3.8267,6.8148,6.1546,5.2861,9.6452,4.5077,4.1778,4.3589,6.4108
691.4062,19.7221,4.7452,6.4439,7.4433,6.6089,4.3349,3.4995,4.8961,4.5501,12.2434,5.8956,9.6974,8.8018,7.3882,8.6587,6.3549,5.3800,6.2885,9.2853
695.3125,15.9937,5.9330,6.9283,8.5512,7.8440,3.6673,3.3980,5.9590,5.8066,10.6603,6.9133,10.2486,9.9454,8.3575,5.5838,7.4199,5.4355,7.4385,10.7337
699.2188,10.1215,6.1651,6.2394,8.7597,8.4610,3.0902,2.6834,5.8659,6.4602,7.5828,7.0825,8.7043,9.3554,8.2047,2.2052,7.4442,5.1661,7.8916,10.4405
703.1250,6.3301,6.7487,6.1546,8.6927,9.2149,3.7066,3.4330,5.9344,7.2100,5.9705,7.5805,7.3123,8.5016,8.0458,1.6415,7.2040,5.4994,8.4099,9.5409
707.0312,7.5849,8.1870,7.4184,9.0085,10.4370,5.8492,6.0000,6.6930,8.5886,7.7590,9.1374,7.5665,8.4023,8.4999,5.0132,7.2313,6.6814,9.2606,9.4415
710.9375,12.7504,9.7653,9.4202,9.4569,11.0722,8.2237,8.3845,7.4512,10.1349,11.7218,11.0174,9.0948,8.9109,8.8413,10.1489,7.2820,7.4180,10.2666,10.1269
714.8438,17.8955,10.1341,10.4223,9.5945,10.0463,8.8692,8.8675,7.1555,10.9153,14.8200,11.5093,10.3158,8.5815,8.1431,13.2390,6.2776,6.7099,10.1702,10.7307
718.7500,18.9085,8.8491,9.3359,8.7719,7.8415,6.9155,6.9779,5.5369,10.2168,14.1262,9.7683,9.7184,7.0026,6.4178,11.8137,3.7001,4.6252,8.7824,10.1537
722.6562,15.0593,6.8640,6.9344,7.4634,6.0307,3.3160,4.2536,3.4600,8.1027,10.2701,6.7215,7.5645,5.0338,5.1337,7.4773,0.8116,2.6656,6.4677,8.6319
726.5625,8.5550,5.5560,4.8031,6.3761,6.0602,0.2913,2.5383,2.3170,5.8657,5.9138,4.3094,5.3326,4.3444,5.6141,4.1231,-0.2963,2.3969,4.7313,7.0857
730.4688,2.8943,5.4215,3.8104,6.1819,7.7235,-0.8528,1.8000,2.5301,4.5497,3.6344,3.8737,4.0937,5.4567,7.7417,4.2073,0.7079,3.9528,4.2582,6.4334
734.3750,0.2390,5.6997,3.6597,6.3406,9.1143,-0.1604,1.3114,3.1008,4.5451,3.8806,5.0219,4.0004,7.2201,9.5131,6.5652,3.1572,5.5947,4.6383,6.5685
738.2812,1.4012,5.5772,3.3454,6.1340,8.2894,1.0340,-0.0672,2.7022,5.3239,5.5277,6.3850,4.0760,7.6197,9.1477,8.5151,4.9219,5.6923,4.8183,6.4759
742.1875,5.1514,4.5658,1.9457,4.5015,5.1650,1.5640,-1.9608,0.6445,5.9178,6.9114,6.4849,3.7328,5.8999,6.3349,7.9602,4.6494,3.8540,4.2539,5.7618
746.0938,9.9528,2.8621,0.0868,1.4335,1.6465,1.1501,-2.9522,-2.3685,5.3191,7.1833,5.0790,2.6746,2.8956,2.6673,5.7820,2.7045,1.3568,2.7996,4.2903
750.0000,13.4228,0.8642,-1.9345,-1.8469,-0.0937,0.4384,-2.6528,-4.7275,3.3611,6.6381,2.6785,1.0443,0.0893,0.1290,3.8777,0.5059,-0.3049,1.0160,2.3948
753.9062,14.0738,-0.8744,-3.2998,-4.1957,0.4441,0.5309,-1.0699,-5.5218,0.4611,6.0420,0.1758,-0.7663,-1.6278,-0.2032,3.3316,-1.0612,-0.5593,-0.6268,0.4399
757.8125,11.8177,-2.1399,-4.0339,-4.7848,1.9073,1.6469,0.2047,-4.7234,-2.0520,5.0080,-1.4186,-2.4771,-2.0757,0.7702,3.0306,-1.9308,0.2484,-2.1325,-1.3229
761.7188,8.9787,-2.2818,-4.1147,-3.8590,2.7486,3.0090,0.7359,-3.8587,-3.0719,3.8230,-1.7579,-3.2338,-1.8125,1.6032,1.9332,-2.3199,1.0602,-3.0692,-2.6602
765.6250,8.0651,-1.0302,-3.9246,-2.8231,2.0007,3.6483,0.1899,-3.7951,-2.1093,3.1732,-0.7217,-2.7508,-1.2880,1.3671,0.2019,-2.4164,1.0824,-3.2288,-3.0172
769.5312,10.0319,0.5791,-3.8610,-2.6241,0.1106,2.8331,-1.1584,-4.9706,-0.0445,3.8106,0.9044,-1.3587,-1.0961,0.0239,-0.4780,-2.2119,0.1360,-2.5703,-2.5611
773.4375,12.0733,1.4424,-4.3218,-3.7379,-1.6563,0.8008,-2.9362,-6.7133,1.3874,5.1231,2.3783,-0.0755,-1.0889,-1.6814,0.9544,-1.8028,-1.2246,-1.7189,-1.9424
777.3438,10.8004,0.3557,-5.3609,-5.1550,-2.5375,-1.1334,-4.9319,-7.9783,1.2892,5.8809,2.6565,-0.1301,-1.4817,-2.6747,3.2258,-1.5202,-2.4693,-1.4795,-1.9832
781.2500,5.5743,-1.8580,-6.3524,-5.5493,-2.3384,-1.9513,-6.2513,-7.9144,-0.0015,4.9993,1.6387,-1.4536,-2.0191,-2.3998,4.3470,-1.5784,-2.8256,-2.0289,-2.7201
785.1562,-0.2079,-3.4483,-6.2652,-4.5374,-1.3585,-1.0966,-5.9934,-6.6108,-1.1629,2.6079,0.0441,-3.2086,-2.3407,-0.9121,2.5433,-1.5617,-2.1249,-2.5773,-3.4961
789.0625,-2.1297,-2.8144,-4.5982,-2.6454,-0.2629,0.8823,-4.3856,-4.9460,-0.9726,0.1124,-0.9506,-4.1457,-1.8996,0.9476,-1.0760,-1.2187,-0.7358,-2.1655,-3.0182
792.9688,1.1433,-0.3890,-1.9963,-1.1590,0.6126,2.6772,-2.1392,-3.6332,0.3273,-0.7369,-0.8971,-3.6106,-0.7706,2.4459,-3.8906,-0.4097,0.5051,-0.5799,-1.3442
796.8750,6.4361,1.8703,-0.1354,-0.5342,0.9716,2.9693,-0.7411,-3.0703,1.8225,0.7694,0.3664,-1.7452,0.4282,2.9741,-3.4840,0.7618,1.3397,1.3185,0.7777
800.7812,8.8276,2.4932,0.4552,-0.3751,1.4057,2.0339,-0.8328,-2.7911,2.5018,3.7351,2.5473,0.6119,1.6392,2.7894,0.0259,2.0393,1.4545,2.6448,2.3289
804.6875,6.5382,1.2824,0.2376,0.1280,1.7446,0.9628,-1.7826,-2.4005,2.6171,6.3770,5.0526,2.8525,2.6114,2.3975,3.9629,2.8739,1.3361,3.1141,2.8023
808.5938,2.3909,-0.2143,0.3306,1.2136,1.9978,0.7432,-2.1449,-1.4980,2.9554,6.8978,6.9409,4.2376,3.2248,1.9945,5.4395,3.1611,1.5298,3.0604,2.8454
812.5000,1.2066,-0.3552,1.3195,2.4226,1.6963,1.5337,-1.7358,-0.6258,3.8002,5.4591,7.3210,4.4489,3.3787,1.8894,3.3524,2.4290,1.8433,3.2341,2.8373
816.4062,4.8281,0.5632,2.6710,2.5522,0.7531,2.4063,-0.7051,-0.3995,4.6296,3.0329,6.0978,3.6556,2.9252,1.5151,-0.4559,1.0226,2.0779,3.6387,3.0915
820.3125,10.6734,1.5327,2.9623,1.3761,-0.6484,2.4486,-0.3841,-1.2055,4.6780,1.7285,3.7501,2.5537,2.0821,0.9487,-2.6489,-0.4719,1.6497,3.7976,3.0710
824.2188,13.7713,1.3203,1.6272,-0.4447,-1.8814,1.4768,-0.8576,-2.9194,3.7870,2.0141,1.3763,1.7320,0.9497,0.3346,-1.9720,-1.5864,0.6434,2.9721,2.2983
828.1250,11.5987,0.2637,-0.5106,-2.0726,-2.1942,-0.0529,-1.4819,-4.8324,2.3762,3.2045,-0.0698,1.4325,0.0260,0.2593,0.4669,-2.0355,-0.6095,1.3537,0.8754
832.0312,6.1561,-0.9782,-2.4305,-3.0509,-1.6258,-1.6140,-1.8883,-6.4132,0.9554,3.7802,-0.6620,1.3988,-0.4938,0.5088,2.0517,-2.1933,-1.7320,-0.1722,-0.5355
835.9375,1.4306,-1.6436,-3.3754,-3.6366,-1.0477,-2.7720,-2.0788,-7.2299,-0.3129,2.6396,-1.0822,0.5798,-1.0656,0.6585,0.9485,-2.4862,-2.4317,-1.3376,-1.5682
839.8438,0.1450,-2.3059,-3.7390,-4.7330,-1.9372,-3.6106,-2.7887,-7.7753,-1.7636,0.6311,-1.7669,-0.9751,-2.1754,-0.1916,-1.6307,-2.9933,-2.7597,-1.7060,-2.2955
843.7500,1.4927,-3.6277,-4.8260,-6.8901,-4.5801,-4.2774,-4.9124,-8.5217,-3.0679,-1.2577,-2.7905,-3.1817,-3.7510,-2.4842,-3.0875,-3.2563,-3.2386,-2.1405,-3.2594
847.6562,2.9070,-5.4414,-7.1141,-9.5030,-8.2540,-4.9355,-7.9824,-9.8934,-3.5528,-1.1758,-3.1075,-4.8349,-5.6995,-5.6287,-1.2787,-3.0022,-4.0146,-2.7710,-4.7552
851.5625,2.7367,-6.3407,-9.2289,-11.5597,-11.0544,-5.4089,-10.0930,-11.1051,-2.5524,0.4239,-2.2060,-5.1601,-6.9717,-7.9464,2.5492,-2.3822,-4.9066,-3.4749,-6.2879
855.4688,2.0497,-4.8457,-9.6013,-12.0348,-11.5448,-5.4112,-9.8051,-11.5811,-0.3049,2.4983,0.0711,-4.0124,-6.9474,-8.5489,5.9548,-1.8557,-5.2727,-3.5173,-6.8366
859.3750,2.6444,-1.0741,-7.1940,-10.4784,-9.8147,-4.0390,-7.2823,-10.6839,2.2089,3.6878,2.7101,-2.1296,-5.4009,-7.3782,6.4341,-1.8886,-4.9022,-2.1166,-5.8591
863.2812,4.5670,2.5791,-3.0727,-7.8160,-7.3508,-1.7090,-3.5152,-8.7117,3.7831,3.4617,4.1932,-0.1262,-3.1688,-5.4550,4.0536,-2.4462,-3.8887,-0.0402,-3.5064
867.1875,5.7720,3.7655,-0.0446,-5.5445,-5.7651,0.7541,-1.1757,-6.7596,3.3499,2.4059,3.7548,0.8487,-1.5566,-4.1155,0.5758,-3.2491,-3.0674,1.6652,-1.3756
871.0938,4.4146,1.4977,0.4327,-4.4187,-5.9264,1.9729,-1.0263,-5.6499,1.3676,1.1673,1.6001,0.8611,-1.3903,-4.0733,-1.8437,-4.2283,-3.0401,1.6050,-0.6129
875.0000,0.9025,-2.3404,-1.5513,-4.8611,-7.0634,1.2116,-2.9171,-5.6117,-1.0109,0.4474,-0.7088,-0.2252,-2.6905,-4.7896,-2.7319,-5.2574,-4.0480,-0.0450,-1.6936
878.9062,-1.7538,-5.2577,-4.3814,-6.0265,-7.9756,-0.8745,-5.4318,-6.5055,-2.6144,0.1221,-2.1877,-2.0075,-4.5507,-5.6635,-2.4075,-6.0900,-5.4585,-2.5725,-4.0349
882.8125,-1.0936,-5.8612,-6.2189,-7.1953,-8.1272,-2.6302,-7.0431,-7.5449,-2.9198,0.3537,-2.3187,-3.7260,-6.0655,-6.3586,-1.4061,-6.5276,-6.4908,-4.3494,-6.3198
886.7188,2.8009,-4.7473,-6.6293,-7.7275,-7.8236,-2.9458,-7.1564,-8.0026,-2.1740,0.6430,-1.8519,-4.9639,-7.0089,-7.1439,-0.5720,-6.3959,-6.7169,-4.8320,-7.7585
890.6250,7.0591,-3.7219,-6.1566,-7.4429,-7.3383,-1.8886,-6.0365,-7.2764,-1.5377,0.3009,-2.1028,-5.5737,-7.3976,-8.2793,-0.5285,-6.0717,-6.5524,-4.5184,-8.2417
894.5312,8.9917,-3.2103,-5.5973,-6.2613,-6.6761,-0.3341,-4.7115,-5.3574,-1.3458,-0.1366,-3.0548,-5.6665,-7.4981,-9.1229,-1.2597,-5.8254,-6.5190,-3.8802,-7.9012
898.4375,8.3313,-2.4746,-4.4869,-4.5231,-5.3012,0.8467,-3.3679,-2.7320,-1.4270,-0.4379,-3.9395,-5.4399,-6.9943,-8.7153,-2.3652,-5.3931,-6.6692,-3.1287,-6.6425
902.3438,7.0068,-0.3804,-2.2972,-2.2698,-2.7527,2.0569,-1.7922,-0.3307,-0.9119,0.5855,-3.3398,-4.5694,-5.4521,-6.3817,-2.7626,-3.9791,-6.3912,-1.6618,-4.2419
906.2500,6.8496,2.9944,0.7492,-0.0144,0.2496,3.7460,-0.0752,1.4373,0.7651,2.8677,-0.8598,-2.9236,-2.6943,-2.5937,-1.7479,-1.4742,-4.9611,0.5484,-0.9659
910.1562,7.6504,6.0440,4.1428,1.9830,2.7441,5.8087,1.8535,2.4650,3.6418,4.9542,2.2966,-0.4500,0.7241,1.1164,0.2925,1.2300,-2.5842,3.6548,2.5054
914.0625,7.8529,7.4531,6.6016,3.5065,4.3887,7.4579,3.8110,3.1525,6.4179,5.6887,4.8183,2.3830,3.8415,3.3454,2.4491,2.7050,0.0252,6.4625,5.0995
917.9688,6.4317,7.1903,7.8131,4.6002,4.9929,7.7680,5.3228,3.5836,7.7693,4.5995,5.6388,4.7745,5.7887,3.8546,3.4308,1.8379,1.7112,7.9898,6.0096
921.8750,4.4487,6.1484,7.6857,4.7961,4.8103,6.5746,6.1561,3.4013,7.2042,2.7757,4.9310,5.6124,5.7859,2.7427,3.5941,-0.2374,1.7992,7.3962,5.1627
925.7812,4.0243,5.2345,6.0499,3.7601,3.3643,4.4548,5.1278,1.9646,5.0324,2.4189,3.4519,4.4629,3.7544,0.6701,4.4249,-1.7463,0.2478,4.9533,2.7585
929.6875,6.2457,4.4743,2.9324,1.2202,0.4052,1.9414,1.6654,-0.7242,2.3730,4.5810,2.0869,1.5884,0.1924,-1.8261,6.9810,-1.1517,-2.3107,1.5744,-0.2347
933.5938,9.3784,3.1991,-0.9877,-1.8145,-3.2351,-0.5705,-3.3669,-3.4701,0.1536,7.8293,1.2110,-1.4834,-3.2367,-4.1619,10.7216,1.3165,-4.5453,-1.3823,-2.9943
937.5000,10.9376,1.6854,-4.0522,-4.0309,-6.0073,-3.3900,-7.4778,-4.8244,-0.7132,10.3885,1.3845,-2.8972,-5.2390,-5.3255,14.0749,4.0257,-5.3177,-2.7237,-4.5085
941.4062,8.9207,0.7908,-4.6727,-4.2682,-6.1371,-5.5135,-8.0893,-3.9956,-0.4034,10.6516,2.4510,-1.9259,-4.7952,-4.6313,15.7489,5.4782,-3.9754,-2.1805,-4.1253
945.3125,3.9287,0.6998,-3.1592,-2.8575,-3.6127,-6.4019,-4.6805,-1.8764,0.4479,9.0185,3.6201,0.6284,-2.9758,-2.8236,15.4476,5.3025,-1.7323,-0.9355,-2.7861
949.2188,-1.5312,0.5741,-1.3065,-1.5485,-0.8490,-5.8087,-0.1477,-0.4943,0.6118,6.7038,3.8665,2.6806,-1.4526,-1.4604,13.9735,3.9406,-0.0665,-0.4251,-1.5485
953.1250,-4.9124,-0.3166,-1.0880,-1.6488,-0.0894,-4.5357,2.2789,-0.8483,0.1663,5.0955,2.7176,2.8959,-1.5889,-1.8376,12.4803,2.5214,-0.2111,-1.1039,-1.2341
957.0312,-4.3157,-1.7703,-2.4521,-2.6398,-1.5292,-3.6459,1.0764,-2.4671,-0.1445,4.4371,1.1959,1.5116,-2.7804,-3.3538,11.5724,1.7400,-1.1899,-2.1368,-1.5267
960.9375,-0.1108,-1.9831,-3.7088,-3.1520,-3.3168,-3.6719,-1.9183,-3.5902,0.5664,4.6019,1.0284,0.3440,-3.2467,-4.2013,11.3854,2.0633,-1.1281,-1.9835,-1.2519
964.8438,5.1519,-0.0326,-3.2802,-2.2712,-3.4107,-3.9155,-3.6012,-3.2140,2.6158,5.0761,2.5907,0.5285,-2.0220,-3.0834,11.6623,3.3639,0.6043,-0.3847,-0.0826
968.7500,8.8579,3.1332,-1.5712,-0.7703,-1.7624,-3.4623,-2.5234,-2.0294,4.2762,5.5022,4.7308,1.6506,0.0705,-0.5655,11.5767,5.0385,3.2642,1.2767,0.9186
972.6562,9.0290,5.1131,-0.4999,-0.2317,-0.2747,-2.0461,-0.4499,-1.3849,3.9408,5.3971,5.0087,1.9253,1.1468,1.1938,10.5420,6.1219,4.3904,1.5403,0.4663
976.5625,6.2367,4.1018,-1.2935,-1.2607,-0.4951,-0.5304,0.4088,-2.2257,1.3526,4.4302,2.3689,0.3445,0.0414,0.8826,8.4407,5.8330,3.0320,-0.1218,-1.4588
980.4688,3.0616,0.8548,-3.4481,-2.8524,-2.2579,0.3463,-0.8583,-3.8556,-1.8432,3.1056,-1.8498,-2.0562,-1.9512,-0.5597,6.3619,4.5490,0.4498,-2.8497,-3.6521
984.3750,2.2108,-1.9374,-4.8749,-3.3292,-3.3981,0.3560,-2.3511,-4.8014,-3.4753,1.6782,-5.0188,-3.5492,-2.9469,-1.2067,5.1182,3.0404,-0.5832,-4.5011,-4.1320
988.2812,4.4675,-2.5090,-4.3682,-2.2318,-2.3783,0.1738,-2.4294,-4.5602,-2.6372,1.2809,-5.3994,-3.0459,-1.7978,0.6216,4.8773,2.2758,0.9036,-4.1753,-2.5187
992.1875,8.0010,-1.0823,-2.5025,-0.6121,0.0368,0.5184,-0.5214,-3.2841,-0.3243,2.2213,-3.6096,-1.1666,0.3216,4.1108,4.9054,2.1913,3.7252,-2.5981,-0.1716
996.0938,9.4974,0.4208,-0.8372,0.1096,2.4166,1.0364,1.5879,-2.1570,0.9612,3.4512,-1.8370,0.2980,1.7913,6.8538,4.0945,2.1696,5.0579,-1.1433,1.3619
1000.0000,7.3581,0.3967,-0.2543,0.0071,3.0115,1.0328,1.5290,-1.4606,0.0902,4.1324,-1.6058,0.1597,1.4757,7.1713,2.3651,1.2491,3.4142,-0.6876,1.6296
1003.9062,2.7910,-1.2377,-0.7335,-0.2469,2.5071,-0.0650,-1.1003,-1.0622,-2.8111,3.3959,-2.9771,-1.6115,0.1544,5.5984,0.4329,-0.6091,0.0569,-1.1727,0.9091
1007.8125,-1.2681,-3.1453,-1.5700,0.0373,2.4210,-1.7412,-4.2001,-0.2626,-6.1677,1.4574,-4.8892,-3.8720,-0.8611,3.8260,-0.8778,-2.5864,-2.3626,-2.1653,0.4217
1011.7188,-2.8641,-4.3911,-2.4921,0.4977,3.6153,-3.0221,-5.6185,0.5727,-8.5845,-0.9216,-6.4939,-5.4747,-0.7067,3.6654,-1.6506,-3.7673,-2.1686,-3.2127,-0.0413
1015.6250,-2.1677,-4.9096,-3.4997,0.5160,5.6009,-3.1815,-4.1874,1.3913,-9.4511,-2.9826,-7.7867,-5.9313,0.1827,5.2136,-2.4787,-3.6496,0.4423,-4.1660,-0.2811
1019.5312,-0.5099,-4.9564,-4.3558,0.0673,7.0187,-2.8043,-1.2161,1.6001,-9.1192,-4.0500,-8.7209,-5.2953,0.8779,7.2052,-3.6803,-2.6751,3.4122,-4.8467,-0.3490
1023.4375,-0.0965,-4.9022,-4.4295,-0.2628,7.1302,-2.7594,1.2498,1.0946,-8.2208,-4.7458,-9.4389,-3.9901,1.2243,8.2663,-5.3208,-1.6510,4.7585,-4.8980,0.0839
1027.3438,-1.8866,-4.2540,-3.3716,0.5521,6.2502,-3.5990,2.0374,0.5269,-7.2827,-5.2452,-9.5070,-2.5572,1.1988,7.9759,-6.5270,-1.4499,4.1323,-4.3057,1.1109
1031.2500,-5.4670,-3.2578,-1.9132,2.3047,5.3087,-4.6193,1.1877,0.4127,-6.4895,-5.6449,-8.7013,-1.5186,1.1935,6.9400,-6.8803,-2.0909,2.6101,-3.3336,2.2263
1035.1562,-8.9297,-2.3467,-0.8204,3.8626,5.0917,-4.8817,0.0802,0.9031,-5.8813,-5.7037,-7.3264,-1.0762,1.4227,6.0533,-6.3993,-2.7234,1.4119,-2.5515,2.8317
1039.0625,-9.9629,-2.1813,-0.5415,4.3793,5.4565,-4.2428,-0.5730,2.0168,-5.2951,-5.1810,-5.8199,-0.9137,1.9008,5.7964,-5.6061,-2.7829,1.3913,-1.7796,3.0166
1042.9688,-7.3104,-2.6516,-0.3919,4.3412,6.1243,-3.2887,-0.5037,3.3171,-4.5031,-4.0641,-4.9455,-0.5760,2.4885,6.2558,-5.0598,-2.0855,2.1196,-0.7204,3.4840
1046.8750,-2.1856,-3.1730,0.3876,4.5807,6.5997,-2.7876,-0.1888,4.4866,-3.1743,-2.9827,-4.9754,0.1783,3.1950,7.0384,-4.9676,-1.2328,2.7666,0.7701,4.9618
1050.7812,2.1746,-2.9003,2.4448,5.6539,7.0384,-3.0788,0.9376,5.3204,-1.9893,-2.9035,-5.6707,1.4449,3.9101,7.5825,-5.7318,-0.8857,2.7766,2.5153,6.8685
1054.6875,3.2689,-1.6077,4.5876,7.2107,7.5864,-3.4545,1.8173,5.5800,-1.4236,-3.6504,-6.1189,2.4697,4.7540,7.9613,-6.8504,-1.3270,2.3338,3.7359,8.2466
1058.5938,0.7282,0.0601,5.7931,8.1332,8.3029,-3.2535,2.1235,5.3058,-1.7548,-4.8622,-5.8126,2.4873,5.5631,8.3896,-7.9893,-2.0197,2.0262,3.9464,8.5656
1062.5000,-2.4554,1.0667,5.7498,8.0384,9.0392,-2.2560,1.5970,4.9001,-2.4030,-5.4597,-4.5084,1.7826,6.4106,9.1008,-8.2702,-2.3693,2.6156,3.6569,8.3548
1066.4062,-3.1925,1.6402,5.1519,7.2433,9.0018,-0.6848,0.8314,4.6525,-2.6318,-4.8737,-3.2241,1.1674,7.0620,9.6537,-7.4089,-2.3060,3.6252,3.5367,8.4435
1070.3125,-0.3390,2.4407,4.9032,6.2872,8.0715,0.8974,0.9801,4.7664,-1.7808,-3.5701,-2.6335,1.2993,7.1841,9.5635,-6.1569,-2.5777,4.4321,4.1240,9.0807
1074.2188,4.4437,3.8804,5.5213,5.5076,6.2240,2.4457,2.5592,5.1690,-0.2416,-2.3735,-3.1865,1.9298,6.4840,8.6948,-5.4640,-3.7978,4.2835,4.8970,9.2987
1078.1250,7.8671,5.7377,6.1772,4.8073,4.1297,3.9003,4.3644,5.5949,1.3385,-1.6981,-3.9932,2.1093,5.0651,7.2279,-5.6207,-5.3587,3.0892,5.2402,8.2996
1082.0312,7.8455,6.7737,6.2570,4.0924,2.8904,4.7542,5.4721,5.9155,2.0044,-2.0865,-4.0749,1.4506,3.7804,6.0602,-6.4155,-5.9924,2.1645,4.5249,6.2731
1085.9375,4.5699,6.0280,5.2387,3.5156,2.9598,4.5895,4.9346,6.2015,1.7100,-3.2646,-3.1216,0.1619,3.2262,5.6799,-7.0774,-4.9645,2.5033,3.2114,4.5781
1089.8438,-0.0833,3.6541,3.5344,3.1463,3.8734,2.9765,3.3011,6.3632,0.7534,-4.6430,-1.7902,-0.6665,3.5541,6.1696,-7.4447,-2.6042,3.9709,1.9070,4.1032
1093.7500,-4.8525,1.0699,2.0390,3.3469,4.9622,0.7730,1.8771,6.3461,-0.1587,-6.3961,-1.1534,-0.4351,4.6412,7.0109,-7.8504,-0.2485,5.7418,1.1528,4.7169
1097.6562,-8.3372,0.0048,1.4197,3.8388,5.7343,-0.8732,1.8929,5.9947,-0.5681,-7.6766,-1.3094,0.7432,5.6771,7.8494,-8.5719,0.8475,6.8120,1.2053,5.5387
1101.5625,-9.8002,1.0651,1.5823,4.2606,6.3909,-0.9889,2.7731,5.5839,-0.4117,-8.3200,-1.6569,1.5939,6.5048,8.5105,-9.2478,0.9882,7.0708,1.7255,5.9871
1105.4688,-8.8773,2.9862,2.2916,4.5406,7.0475,0.5863,3.8485,5.1248,-0.2182,-7.8925,-1.7478,1.6625,6.9738,8.8675,-9.1016,0.9074,6.9619,2.3921,6.0715
1109.3750,-6.3582,4.3684,3.0154,4.7523,7.9087,3.0559,4.3961,4.9287,0.1147,-6.8190,-1.2719,1.0988,7.3899,9.0752,-8.3430,1.5498,7.1776,3.0663,6.6684
1113.2812,-3.1447,4.4476,3.7544,5.3575,8.4901,5.1724,4.5908,5.1211,0.6850,-5.5981,-0.5646,1.2308,8.0168,9.1517,-7.6048,2.8336,7.8631,4.0350,7.7590
1117.1875,-0.1358,3.7237,4.7719,6.7408,8.4601,6.3778,5.0956,6.0859,1.5921,-4.2739,0.2021,2.8466,8.8158,9.3350,-7.3037,4.0468,8.8978,5.1832,9.1444
1121.0938,2.9458,3.2921,6.3205,8.7639,8.1440,6.9888,6.0769,7.5466,2.8541,-2.6148,0.9957,5.4687,9.7018,10.0443,-7.3465,4.5769,9.8100,6.5171,10.0778
1125.0000,6.2180,3.5460,7.9601,10.5942,7.9554,7.2167,7.3290,8.9608,3.5634,-1.0101,1.3428,7.4680,10.1263,10.8192,-6.8854,4.1264,10.3616,7.1372,10.3027
1128.9062,8.6634,4.4220,8.5115,11.3551,7.9441,7.0071,7.7669,9.5324,2.8580,-0.2641,0.6921,7.3739,9.7902,11.0892,-5.8270,3.2757,10.4021,6.4190,9.7396
1132.8125,8.3885,4.9056,7.6367,10.8412,8.1910,5.9091,7.7817,8.8940,1.0913,-1.1076,-0.9716,5.7423,8.6940,10.1428,-4.5678,2.5318,9.7468,4.4395,8.7837
1136.7188,4.6753,4.9041,5.9522,9.4511,8.0619,4.3957,7.7327,7.5588,-0.4565,-2.8170,-2.3531,4.2364,7.4666,8.3777,-3.5518,2.3610,8.8143,2.5294,7.7631
1140.6250,-0.5854,4.1945,4.6813,8.3683,7.7163,3.6626,7.8005,6.5517,-0.3433,-3.8495,-1.8391,4.3088,7.0717,6.9340,-2.6087,2.9607,8.3991,2.0515,6.9778
1144.5312,-3.9869,3.3078,4.5017,7.9647,7.2700,4.4296,7.4579,6.1573,1.5467,-2.8462,1.0569,5.6630,7.6992,6.8173,-1.4356,4.2255,8.8167,3.2838,6.5040
1148.4375,-3.2849,2.5914,4.5346,7.6201,6.5447,6.1624,6.0839,5.8581,4.0537,0.1835,4.8943,6.7943,8.3737,7.9623,-0.1741,5.5570,9.8021,5.1206,6.1099
1152.3438,0.4246,2.0537,3.6126,6.2432,5.2730,7.4224,3.6418,4.5652,4.9837,2.9139,7.0420,6.4133,8.4314,8.9292,0.4964,6.4656,10.4791,5.8719,5.3887
1156.2500,3.5195,2.2537,1.5422,3.9641,3.1755,7.0137,1.3561,2.1476,3.7675,4.0091,6.4634,5.2987,7.6191,8.5855,0.1697,6.5755,10.0753,4.8404,4.5513
1160.1562,3.6341,3.1906,-0.5343,2.0240,0.9396,5.3297,0.1136,-0.3749,1.6474,3.0877,4.5453,5.1943,7.3584,7.1595,-0.7218,6.5164,9.2019,3.2073,4.0324
1164.0625,1.3673,4.7250,-1.2452,1.8982,-0.0685,4.2347,0.2556,-1.2997,0.7763,1.8699,3.7364,6.9818,8.6485,5.8390,-0.4907,6.8091,9.0124,2.9926,4.7105
1167.9688,-0.6294,6.0909,0.4013,3.8236,0.9207,4.9516,1.1974,-0.5997,1.8044,1.7265,5.1852,9.8642,11.5706,5.7867,1.8022,8.0553,10.0627,4.9151,6.8314
1171.8750,0.1595,6.6764,3.9003,6.5814,3.4622,7.7449,2.7972,1.0968,4.2054,3.1484,7.7229,11.9628,14.4097,7.2194,5.6787,9.6250,11.9224,8.3217,9.4796
1175.7812,3.5223,7.0823,7.4289,8.8762,6.1509,11.2770,4.8608,2.8068,6.3338,5.5098,9.2147,12.1924,15.3548,8.9848,8.6411,10.9783,12.9250,11.0130,11.3598
1179.6875,7.0073,8.1782,9.6993,9.7090,7.5246,14.1988,7.2343,4.1453,7.1273,7.3330,8.5575,10.6238,13.9329,9.8207,8.6604,11.4034,11.9666,11.6412,11.5589
1183.5938,8.1030,10.4180,10.0441,9.2214,6.7613,15.7814,9.2990,5.2361,6.8617,8.0228,6.5710,8.3526,10.6591,8.6205,5.4300,10.5084,8.7247,10.0384,9.9122
1187.5000,6.0647,12.6869,8.5836,7.8151,4.8825,15.9660,10.0389,6.3397,5.8946,7.2378,4.8346,5.8217,6.9126,5.5264,0.6777,8.4220,4.4273,7.2155,6.9349
1191.4062,2.6343,13.2466,5.7367,5.6410,2.8517,15.0749,9.1680,6.8137,4.2962,5.7952,3.8619,3.0627,3.1164,1.0614,-2.6985,5.1391,0.3777,4.1768,3.4139
1195.3125,0.4583,10.8948,2.8553,2.4790,1.3601,13.4614,7.3117,6.0136,1.9837,4.4047,3.1205,-0.1773,-0.4040,-3.2441,-3.0842,1.4344,-2.6771,1.3107,-0.0392
1199.2188,1.1310,6.8280,1.0465,-0.9274,0.2159,11.3974,6.2879,3.9861,-0.7603,4.1274,1.8576,-2.8224,-3.8379,-6.3865,-1.0746,-1.8007,-4.6873,-0.8084,-3.1869
1203.1250,3.9924,3.2649,0.8750,-3.5602,-1.0169,9.4083,6.5759,1.8885,-2.9511,4.6571,-0.1333,-4.2956,-6.6784,-7.4153,0.7172,-4.2310,-5.9677,-2.0715,-5.6574
1207.0312,7.1360,2.0016,1.5459,-4.7103,-2.6470,7.7969,7.3241,0.8295,-3.4767,5.1137,-2.4821,-4.2325,-8.2176,-6.6415,-0.0739,-5.7106,-7.0086,-2.2054,-7.0865
1210.9375,7.9905,2.6742,2.1817,-4.3903,-4.2459,6.8303,7.4775,1.1008,-2.1084,4.6082,-4.4275,-3.6311,-8.6277,-5.0192,-3.4045,-6.7350,-7.9774,-1.6127,-7.2994
1214.8438,6.0000,3.9364,2.0094,-3.4282,-4.8039,6.1550,6.0736,1.7330,0.1227,2.6838,-5.2312,-3.6310,-7.9267,-3.4569,-7.1702,-7.3651,-8.3906,-0.7545,-6.4761
1218.7500,2.8903,4.5998,1.6512,-2.4904,-3.7493,5.9104,4.1122,1.6075,2.1456,0.4036,-4.6642,-4.3092,-6.4486,-2.2230,-8.7879,-6.9751,-7.7534,0.0924,-4.6292
1222.6562,1.1938,4.6222,2.1759,-1.7256,-1.6723,6.1207,2.9612,0.6896,3.4988,-0.7324,-2.6471,-4.6716,-4.5114,-1.1275,-7.4305,-5.5763,-6.0420,0.8945,-2.4000
1226.5625,1.9864,4.5790,3.5659,-1.0957,0.2400,6.4649,3.0739,-0.4404,4.0615,-1.0843,-0.1493,-4.0183,-2.3865,-0.3076,-4.9888,-3.8825,-3.5089,2.0657,-0.6008
1230.4688,3.8835,5.0063,4.9577,-0.6175,0.5340,6.6659,3.4082,-1.2961,4.1142,-1.3733,1.8882,-2.8845,-0.8297,0.0444,-4.0072,-3.3034,-1.3381,2.8649,0.0951
1234.3750,4.7885,5.1493,4.9292,-0.2636,-0.4068,6.2657,3.1448,-1.5815,3.6492,-2.3807,2.6180,-1.8475,-0.1933,-0.4340,-5.3689,-4.5088,-0.1905,2.7778,-0.3034
1238.2812,3.5440,4.6160,3.3218,-0.2520,-2.0254,5.7603,2.2958,-1.4747,2.8882,-3.5805,2.0218,-1.6233,-0.5994,-1.1305,-7.6615,-6.2826,0.0726,1.4105,-1.4674
1242.1875,0.8687,3.0051,1.1884,-0.7920,-2.7766,5.3316,1.9442,-1.2872,1.7805,-4.1647,0.5319,-1.8897,-1.2022,-1.1740,-8.8088,-6.6226,-0.0545,-0.8104,-2.5458
1246.0938,-1.7080,0.4360,-0.4018,-1.6708,-2.4012,4.8890,2.7431,-1.0085,0.3328,-3.8407,-1.2795,-1.9990,-1.5361,-0.2482,-8.2889,-4.5549,0.1618,-2.9310,-3.2127
1250.0000,-3.8250,-2.5314,-1.7756,-3.0089,-1.6376,3.6000,3.5781,-1.0646,-1.6603,-3.7080,-3.4517,-2.4594,-2.0309,0.8945,-7.5249,-1.7283,0.3490,-4.6510,-4.1153
1253.9062,-5.5691,-6.0220,-3.7305,-4.8607,-1.9093,0.8196,2.5516,-1.6857,-4.5031,-4.9603,-6.2452,-3.7949,-3.1560,1.0792,-8.1683,-0.5587,-0.1547,-6.2428,-5.8591
1257.8125,-6.7267,-9.2128,-6.4946,-7.1498,-3.6848,-2.5212,-0.6002,-3.0415,-7.7223,-7.0121,-8.9191,-6.2333,-5.3846,-0.5374,-9.9954,-2.6340,-1.7951,-8.0410,-8.3789
1261.7188,-6.7623,-11.1950,-8.8702,-9.1472,-6.1472,-4.9473,-3.9197,-4.4628,-10.2709,-8.5561,-10.6433,-8.7086,-7.9812,-3.4113,-11.0884,-6.6954,-3.8912,-9.8594,-10.6203
1265.6250,-5.4022,-10.9627,-9.5044,-10.2037,-7.6758,-4.7551,-4.9455,-5.2790,-11.1012,-7.8205,-10.4745,-9.8295,-9.6751,-5.8610,-9.8127,-10.0182,-5.4635,-10.8522,-11.6826
1269.5312,-3.5280,-8.5790,-7.7254,-9.5919,-7.3670,-2.0983,-2.6269,-5.0550,-9.6765,-5.0789,-8.6733,-8.6712,-9.5875,-6.5897,-6.6643,-10.7998,-5.8461,-10.3152,-10.8280
1273.4375,-2.7022,-5.0653,-4.3277,-7.4057,-5.1703,1.0940,1.8960,-3.7731,-7.1756,-2.6026,-6.2431,-5.6454,-7.5974,-5.5946,-4.0800,-9.0482,-4.8553,-8.1881,-8.3960
1277.3438,-3.8055,-2.0042,-0.8877,-4.2182,-2.1826,3.0408,5.4652,-2.0124,-4.9391,-2.2715,-4.3404,-2.7329,-4.7835,-3.6408,-4.0045,-6.4912,-3.1561,-5.1379,-5.2078
1281.2500,-5.9636,-0.6406,1.1328,-1.1093,0.2983,3.3650,6.5959,-0.5589,-4.0239,-4.0619,-3.4554,-1.3830,-2.7128,-2.3222,-6.2378,-4.6396,-1.5666,-2.7913,-2.5602
1285.1562,-7.3247,-1.1667,1.3571,0.4716,1.0989,2.8406,5.0977,-0.0222,-4.5324,-6.2740,-3.3823,-2.1829,-2.3269,-2.3987,-9.1542,-4.0088,-1.0705,-2.2070,-1.5507
1289.0625,-6.9592,-2.8389,-0.2403,-0.1049,-0.0120,2.6127,2.7853,-0.6653,-5.7480,-7.0619,-4.0849,-4.3699,-3.9899,-3.9935,-10.7659,-4.1096,-1.8764,-3.5527,-2.5448
1292.9688,-5.0852,-4.3454,-3.1002,-2.8649,-2.8677,2.5226,0.3670,-2.5487,-6.9322,-6.3449,-5.4940,-6.8158,-6.5792,-6.4062,-10.4227,-4.3713,-3.9386,-6.0382,-5.4360
1296.8750,-3.2819,-5.5087,-6.0482,-6.2507,-5.8783,1.5028,-1.3120,-4.6485,-7.9005,-5.4588,-7.4147,-8.4194,-8.8497,-8.5551,-8.7777,-4.5748,-6.0744,-8.4035,-8.7198
1300.7812,-2.8855,-6.5729,-8.1317,-8.6590,-7.4802,-0.9013,-2.6435,-6.1269,-8.7583,-5.5233,-9.0592,-8.9010,-9.6081,-9.2482,-6.9187,-4.9875,-7.1040,-9.8411,-10.8677
1304.6875,-3.7212,-8.0352,-8.9221,-9.1532,-7.0660,-3.9754,-3.6361,-5.8883,-9.7292,-7.0315,-10.1357,-8.7918,-8.8642,-8.4736,-6.1475,-5.6494,-6.5342,-10.8008,-10.8777
1308.5938,-5.1110,-10.0897,-9.1733,-8.5467,-5.3861,-6.3256,-4.2676,-4.5753,-11.1198,-8.6012,-10.7043,-8.9555,-8.0040,-6.9937,-7.0025,-6.6292,-5.4915,-12.2833,-9.7315
1312.5000,-6.1751,-12.1252,-9.6570,-8.2276,-4.0439,-6.7644,-4.4550,-3.1507,-13.0056,-9.0947,-11.4013,-9.9694,-8.1782,-5.7943,-9.3396,-7.6348,-5.3149,-14.8130,-8.9598
1316.4062,-6.8760,-13.4379,-11.0006,-8.8366,-3.9543,-5.5088,-4.2162,-2.9166,-15.0547,-8.3561,-12.9190,-11.3085,-9.5789,-5.4977,-12.3446,-8.7280,-6.5967,-17.4405,-9.7677
1320.3125,-7.5374,-13.1462,-12.3174,-9.7653,-4.3790,-3.3359,-3.8914,-3.7136,-16.2278,-7.2074,-14.5051,-12.1874,-10.5667,-5.4255,-14.5282,-9.5879,-8.4962,-18.7815,-11.3626
1324.2188,-8.3240,-11.4569,-12.1080,-10.0808,-4.0499,-1.2913,-3.0948,-4.2863,-15.6118,-6.9260,-15.1236,-12.2394,-10.1159,-5.2680,-14.5206,-10.0343,-9.7706,-17.9142,-12.4608
1328.1250,-8.9055,-9.2850,-10.2135,-9.0880,-2.6812,-0.2193,-2.1952,-3.7637,-13.3855,-7.4346,-14.0350,-11.5489,-8.4910,-4.9991,-12.2813,-10.3449,-9.8656,-15.6746,-12.4811
1332.0312,-9.4001,-7.8911,-8.0605,-7.9236,-1.8554,0.0004,-2.0568,-2.6028,-10.7980,-7.8777,-11.8113,-11.3697,-7.6403,-5.2471,-9.2463,-11.1420,-9.7002,-13.9786,-12.5403
1335.9375,-10.2734,-8.1623,-7.4328,-7.8295,-2.9303,-0.8372,-2.6349,-1.8070,-9.6732,-8.1826,-10.2468,-12.1682,-9.0101,-6.6020,-7.7040,-12.7363,-10.1710,-14.4761,-14.0599
1339.8438,-11.8646,-9.9111,-9.1784,-9.4181,-5.9071,-2.4737,-4.0881,-2.4758,-10.9343,-8.1839,-10.4167,-13.7339,-12.1369,-8.2902,-8.4117,-14.2358,-11.0952,-16.5870,-16.9359
1343.7500,-13.3419,-11.9606,-12.0305,-11.6858,-8.7073,-4.0609,-5.4814,-4.4353,-13.3631,-8.4052,-11.4770,-14.9544,-14.6819,-9.1906,-10.7262,-14.1166,-11.1233,-18.5395,-19.2801
1347.6562,-12.7854,-12.8606,-13.5988,-13.1649,-9.3548,-4.8931,-5.8214,-6.1526,-14.8711,-9.0611,-11.6264,-14.5430,-14.1882,-8.4808,-12.8035,-11.5594,-9.0675,-18.5718,-19.0489
1351.5625,-8.7229,-11.9507,-12.7812,-12.8154,-7.4675,-4.2284,-5.0070,-6.3879,-14.0280,-9.0886,-9.5835,-12.4849,-10.8538,-6.7124,-13.0530,-7.3970,-5.4125,-16.2575,-16.0075
1355.4688,-1.8962,-9.7850,-10.4078,-11.2024,-5.2914,-2.6852,-3.7666,-5.1072,-11.2168,-7.8491,-6.5351,-9.8714,-7.2114,-5.3897,-11.4145,-3.8709,-2.3677,-13.3790,-12.1109
1359.3750,3.9955,-7.8827,-8.7998,-9.7235,-5.0720,-1.0365,-3.6225,-3.8186,-8.4461,-6.0039,-4.9442,-8.6195,-5.8933,-5.7823,-8.9022,-2.5899,-1.7641,-11.5364,-10.0429
1363.2812,5.0759,-7.5778,-9.4304,-9.6242,-7.5664,-0.0656,-5.0947,-3.8010,-7.4934,-4.7611,-6.3825,-9.4988,-7.5061,-7.6251,-6.7083,-3.4304,-3.8266,-11.7417,-11.1428
1367.1875,0.5885,-9.1776,-11.8005,-10.8759,-11.2030,-0.1252,-7.6870,-5.4059,-8.5587,-4.9144,-9.7816,-11.8092,-10.5303,-10.0009,-5.2958,-4.8573,-7.1248,-13.3421,-13.9867
1371.0938,-6.1936,-11.3868,-13.8207,-12.1796,-13.5585,-0.6016,-10.2540,-7.5234,-10.2556,-5.3888,-12.0453,-13.6347,-12.4652,-11.3840,-4.3927,-5.3686,-9.7547,-14.6436,-16.1755
1375.0000,-10.4332,-12.1741,-13.5899,-11.9158,-13.1418,-1.1238,-11.7005,-8.5342,-10.6682,-4.3989,-10.5328,-13.4180,-12.1102,-11.1006,-3.0529,-4.9806,-10.6580,-14.5833,-15.8920
1378.9062,-9.4439,-10.3937,-10.8930,-9.4689,-10.4999,-1.0412,-11.3015,-7.2393,-8.8530,-0.9247,-5.6992,-10.7294,-9.9670,-9.4209,-0.9804,-4.5147,-10.0812,-12.7917,-13.1225
1382.8125,-4.4630,-6.6375,-6.9731,-5.6593,-6.9622,-0.0012,-8.6577,-4.1876,-5.4651,3.5781,-0.7089,-6.6685,-7.4064,-6.9429,0.8968,-4.5540,-8.5655,-9.5104,-9.1991
1386.7188,0.3819,-2.8783,-3.6610,-2.1900,-3.7325,1.3734,-4.2089,-0.8100,-2.2197,6.1817,1.5452,-2.8703,-5.3854,-4.5037,1.1540,-4.7541,-6.5239,-6.2247,-5.5397
1390.6250,2.1633,-1.1559,-1.8452,-0.5704,-1.3172,2.5988,0.5872,1.2753,-0.6321,5.1354,0.4290,-0.8006,-4.1013,-2.7904,-0.7433,-4.1975,-4.4218,-3.8873,-3.1525
1394.5312,1.3505,-2.1889,-1.6408,-0.7591,0.1459,2.6714,3.5343,1.5681,-0.8953,1.5251,-1.8295,-0.6578,-3.5127,-2.2028,-4.1441,-3.1177,-2.7766,-3.5150,-2.2729
1398.4375,-0.2838,-4.7541,-2.2351,-1.5916,0.5520,1.5237,3.0791,0.3641,-2.1535,-1.5707,-2.9512,-1.6232,-3.3773,-2.7297,-6.3820,-2.5695,-2.5589,-4.6456,-2.6159
1402.3438,-1.1525,-7.1083,-2.9105,-2.2497,-0.1482,-0.0962,-0.3220,-1.3371,-3.3638,-2.0313,-2.1896,-3.1681,-3.8963,-3.7431,-5.6598,-3.5739,-3.7166,-6.4071,-3.7656
1406.2500,-1.6710,-7.8667,-3.8249,-2.7059,-2.2197,-1.3329,-4.5107,-3.0080,-3.8385,-0.1930,-1.1689,-4.8754,-5.4263,-4.8724,-2.1744,-5.7158,-5.6341,-7.9778,-5.5131
1410.1562,-2.2849,-7.0441,-5.5834,-4.3270,-4.9787,-1.5299,-7.0188,-4.6555,-3.9184,1.1948,-1.9658,-7.0790,-7.8109,-6.1526,0.8355,-7.8430,-7.5432,-9.0164,-7.8450
1414.0625,-2.8729,-5.8309,-8.1132,-7.8053,-7.3196,-0.9126,-6.3333,-6.0326,-4.2057,0.2565,-4.8252,-9.7608,-10.6375,-7.6378,0.5814,-8.9222,-8.7990,-10.1918,-10.4554
1417.9688,-2.1155,-4.9087,-10.7407,-12.1656,-8.7075,-0.2587,-3.7736,-6.9133,-5.2430,-2.4535,-7.9723,-12.5148,-13.3841,-9.5628,-3.2479,-9.2859,-9.5611,-11.8050,-13.3363
1421.8750,0.3062,-4.2706,-11.9220,-15.0597,-9.0083,0.3512,-0.9247,-6.3514,-6.9477,-4.3571,-9.1563,-13.9283,-15.2105,-11.4683,-8.1464,-9.9789,-10.0707,-13.2375,-15.8170
1425.7812,3.1040,-3.3457,-10.8491,-14.9904,-8.9761,0.9704,0.9545,-4.6666,-8.2545,-3.7953,-7.9385,-13.2819,-15.8257,-12.8406,-10.7935,-11.0280,-10.5668,-13.5300,-16.8996
1429.6875,3.9091,-1.9322,-7.7857,-12.1418,-9.0809,1.9596,2.2539,-2.6080,-8.1904,-1.2768,-5.5914,-10.6087,-15.1564,-13.2880,-9.6269,-11.4065,-10.8908,-12.1786,-16.2995
1433.5938,1.2130,-0.9437,-4.4805,-8.8583,-9.2432,3.1097,3.4203,-1.6776,-6.8786,0.9622,-4.0117,-7.3546,-13.6058,-12.7212,-6.2288,-9.6521,-10.6631,-9.6142,-14.0985
1437.5000,-3.6411,-0.8404,-2.5906,-7.0612,-8.5290,3.6266,4.4531,-2.3034,-5.0418,0.8762,-3.8050,-5.2331,-11.5366,-11.2433,-3.4561,-6.0214,-9.6827,-7.3427,-11.5300
1441.4062,-7.9231,-1.9887,-2.6657,-7.0921,-6.8741,3.2599,4.4445,-3.4248,-3.8538,-1.5178,-4.5529,-5.3661,-9.5976,-9.1321,-2.6992,-2.9333,-7.9586,-6.5949,-9.7153
1445.3125,-9.0674,-3.7149,-4.1466,-7.6779,-4.4445,1.8155,3.1302,-3.8100,-4.1269,-4.9141,-5.6499,-7.3904,-8.2739,-6.6490,-3.9164,-2.6413,-5.6816,-7.6244,-9.2477
1449.2188,-7.0408,-5.0177,-5.7536,-7.6159,-2.6483,-0.0523,1.0074,-2.5153,-5.5457,-7.1876,-7.2408,-10.0060,-7.9473,-4.1139,-5.3870,-5.5162,-3.8946,-9.8080,-9.7951
1453.1250,-4.0495,-5.7941,-6.6389,-6.9896,-2.1750,-1.4019,-0.4821,-0.6685,-7.4682,-8.0177,-9.6050,-12.1716,-8.6142,-2.1198,-6.3126,-9.0628,-3.0193,-12.0132,-10.6431
1457.0312,-2.5113,-6.3823,-6.9494,-6.4914,-2.8086,-2.1648,-0.9293,0.3249,-9.1040,-7.5632,-12.0028,-13.2473,-9.8333,-1.3019,-6.6003,-10.5522,-3.6024,-13.8749,-11.5002
1460.9375,-3.1045,-7.2617,-7.1003,-6.7131,-3.3768,-2.4783,-0.6622,-0.3326,-9.9919,-6.7369,-13.1635,-13.4257,-10.8229,-1.8878,-6.2100,-9.0247,-5.0279,-15.0767,-12.1888
1464.8438,-4.8487,-7.7575,-7.1041,-6.8802,-2.9546,-2.6981,-0.6274,-1.9230,-9.7801,-5.9400,-11.8775,-12.8988,-10.9509,-3.2046,-5.5581,-6.2493,-6.3096,-15.2010,-12.4459
1468.7500,-6.2786,-6.7344,-6.4555,-5.7129,-1.4804,-2.5388,-0.5671,-2.6805,-8.2255,-5.2480,-8.5468,-11.1990,-9.7261,-4.4044,-4.2801,-4.2349,-6.2445,-13.3514,-11.6885
1472.6562,-6.2271,-3.3303,-4.2542,-2.6516,0.0959,-1.4175,0.2365,-0.9957,-5.0304,-4.2035,-4.4345,-8.2284,-7.4003,-4.6921,-2.6250,-3.3118,-4.8602,-9.4304,-9.2365
1476.5625,-4.6119,1.8343,-0.5231,1.3445,1.3512,0.8745,2.9030,2.5727,-0.6253,-2.4622,-0.7603,-4.3194,-4.7968,-3.9198,-1.1155,-2.2969,-2.7335,-4.2701,-5.1400
1480.4688,-1.8212,7.0690,3.8362,4.8688,2.2804,3.9369,6.4721,6.5170,3.8987,0.0381,2.2741,-0.5774,-2.4182,-2.7959,0.0597,0.0076,-1.2623,0.2262,-0.7048
1484.3750,0.9960,9.9542,7.2510,6.9455,3.4484,6.4438,9.0104,9.0756,7.2134,2.4085,5.0386,1.6354,-0.9218,-2.2177,0.6687,2.9191,-0.9248,2.8708,2.4751
1488.2812,2.9513,9.3788,8.4741,7.3033,5.1671,7.0364,9.2332,9.6662,7.9197,3.4372,7.0136,2.0201,-0.0643,-2.6400,1.1425,4.6504,-1.4100,3.1918,3.6098
1492.1875,3.1027,5.8043,7.0850,6.9959,7.1234,5.4249,7.3723,8.7451,5.9688,2.3428,6.9827,1.2552,0.3361,-3.3976,1.4349,3.8886,-1.3984,2.1625,3.1598
1496.0938,1.7421,1.3171,4.1698,6.4234,8.6560,2.6242,4.9670,7.1603,2.2932,-0.6733,4.1297,0.2561,0.9111,-3.4102,1.4098,1.5080,-0.3608,0.8972,2.1544
1500.0000,-0.0540,-2.1964,1.1526,5.7622,9.0164,-0.0757,3.2928,5.5922,-1.1253,-4.0252,-0.4885,-0.1883,1.7867,-1.7813,0.8090,-0.3115,1.7611,0.1674,1.8023
1503.9062,-1.3526,-3.9769,-0.8219,4.7165,8.5387,-2.0987,2.7462,4.3063,-3.3759,-6.4965,-4.8910,-0.3823,2.6687,1.4413,-0.8387,-0.2551,4.0864,-0.2564,2.0070
1507.8125,-1.9106,-4.4467,-1.8746,2.9324,7.2958,-4.0323,1.3960,3.0163,-3.8487,-7.4703,-6.7847,-0.9471,3.3055,5.3669,-3.3678,0.6908,5.4122,-0.9257,1.9932
1511.7188,-2.7636,-4.6539,-2.4719,0.9962,5.7806,-6.3186,-1.6218,1.9021,-3.5766,-7.8084,-6.0380,-2.1382,3.4279,8.1955,-6.2578,0.8709,5.2813,-1.6703,1.0912
1515.6250,-4.7990,-5.3977,-3.4631,-0.6328,4.0167,-8.7374,-5.7183,0.7193,-3.4661,-8.0149,-4.3291,-3.2790,3.1846,9.3746,-8.4670,-0.6133,4.2611,-2.4968,-0.3626
1519.5312,-7.9941,-6.3715,-5.0791,-1.8724,2.2560,-10.2553,-8.6239,-0.2576,-4.1057,-7.9307,-3.4285,-3.7936,2.5356,9.1231,-9.0898,-2.3756,3.4296,-3.1177,-1.6687
1523.4375,-10.7173,-7.1615,-6.7269,-2.7770,0.7851,-9.7542,-8.6991,-1.2920,-5.0786,-7.0439,-4.3519,-3.5329,1.7616,8.7316,-8.0468,-2.4551,3.3263,-3.7778,-2.5302
1527.3438,-11.1843,-6.9131,-7.6890,-3.5543,0.1943,-7.5319,-6.2155,-2.0077,-5.8139,-5.2127,-5.9973,-3.2326,0.8610,8.8153,-6.1014,-0.4789,3.9698,-4.2931,-2.7102
1531.2500,-9.1209,-5.7710,-7.2955,-3.9879,0.5747,-4.8417,-3.0696,-2.2492,-5.6848,-3.2415,-6.8725,-3.4237,0.0430,9.2837,-4.4811,1.4663,4.4669,-4.6749,-2.6951
1535.1562,-5.4658,-4.5131,-5.7268,-3.6795,1.9701,-3.2043,-1.4405,-1.5387,-4.7393,-2.1836,-6.2043,-4.0784,-0.2903,9.2678,-3.7824,1.3186,4.1247,-4.2458,-2.4298
1539.0625,-2.4140,-3.6986,-3.6558,-2.3398,3.6947,-2.9544,-1.5440,-0.2192,-3.4984,-2.3785,-4.9183,-4.7918,-0.4411,8.1615,-3.7580,-1.2887,2.7495,-3.0270,-1.8671
1542.9688,-2.0791,-3.7552,-2.0129,-0.8246,4.8441,-3.7696,-2.8175,1.5971,-2.7362,-3.6672,-4.0808,-5.4261,-0.5958,5.9671,-4.0133,-4.6551,0.5045,-1.8649,-1.1691
1546.8750,-4.7550,-4.3446,-1.7108,0.0356,4.8113,-4.9460,-3.5156,2.7471,-2.7917,-4.7879,-4.2577,-5.5503,-1.6011,2.8318,-4.1584,-6.3035,-1.9358,-1.2658,-0.4471
1550.7812,-9.0800,-4.8475,-2.5539,-0.0762,3.3902,-6.0880,-3.7969,2.7442,-3.2884,-4.5962,-4.5647,-5.3854,-3.5335,-0.6216,-3.7599,-5.4686,-4.5413,-1.6158,-0.3864
1554.6875,-12.1281,-4.7041,-3.7786,-0.9115,1.0987,-7.1659,-4.0410,1.6545,-3.5899,-2.7193,-3.6248,-4.8326,-5.9120,-4.0961,-2.2981,-3.4616,-6.6856,-2.0522,-0.9311
1558.5938,-11.4533,-3.6719,-4.5655,-1.4267,-0.7515,-7.6893,-4.8083,-0.0811,-2.7438,0.2455,-0.9227,-3.6720,-7.3195,-6.9591,-0.0230,-2.0704,-8.0867,-1.8499,-1.7440
1562.5000,-6.6440,-2.4994,-4.6215,-1.1939,-1.6085,-7.3387,-6.4000,-1.4158,-1.3091,2.6561,2.1444,-2.4595,-7.0436,-8.8404,1.8778,-2.0828,-8.4491,-0.8033,-2.2013
1566.4062,-0.3027,-2.0437,-4.4837,-0.8544,-1.3394,-5.9791,-8.2159,-2.3683,-0.1687,3.4451,3.9548,-1.9829,-5.4992,-9.6211,2.2969,-3.1059,-8.2488,0.0528,-2.2385
1570.3125,3.7247,-2.4337,-4.4525,-0.9903,-0.5203,-4.4036,-9.2085,-2.9127,-0.2546,1.7801,3.4119,-2.8205,-3.9787,-9.4665,0.2892,-4.4326,-7.7902,-0.0756,-1.8402
1574.2188,3.3744,-2.9957,-4.5327,-1.5483,0.0966,-3.4210,-9.2302,-3.3760,-1.2189,-1.1564,1.3605,-4.3656,-3.1667,-8.3239,-2.8980,-5.3650,-7.2219,-0.9177,-1.3606
1578.1250,-0.5967,-2.8552,-4.1348,-1.8762,0.1685,-3.2305,-8.4182,-3.9467,-1.7467,-3.3890,-0.3011,-5.4491,-2.9130,-6.0991,-4.6842,-5.5897,-6.2519,-1.8172,-0.6696
1582.0312,-4.9803,-1.6449,-3.0432,-1.1457,0.0926,-3.3407,-6.8231,-3.9681,-0.9908,-3.1112,-0.7065,-4.8093,-2.3721,-2.3513,-3.3448,-4.6851,-4.2552,-1.7669,0.2421
1585.9375,-7.0202,-0.4219,-1.8410,-0.0531,0.2665,-3.5379,-4.9720,-3.2458,0.4189,-1.0666,0.0148,-2.7053,-0.9362,2.0431,0.3696,-2.8300,-1.1022,-1.1121,1.1776
1589.8438,-6.3865,-0.3317,-1.3491,0.7191,1.3670,-3.6919,-2.9139,-1.9006,1.3741,0.9392,0.4475,-0.4905,0.9340,6.2141,3.6611,-0.3421,2.4345,-0.8366,1.7806
1593.7500,-4.7616,-1.4466,-1.8327,0.3622,2.9110,-4.0589,-1.4218,-0.5829,0.8214,0.9051,0.3361,0.6059,2.7279,8.7701,4.3089,1.6235,5.4305,-1.3912,1.5877
1597.6562,-4.0199,-2.5835,-2.2403,-0.4561,4.4371,-4.8205,0.2635,0.2065,-0.5063,-1.4821,-0.2067,0.6609,3.6282,9.5157,1.7408,2.3420,7.2749,-2.2575,0.9716
1601.5625,-4.3300,-2.4216,-1.4116,-0.4871,5.2365,-5.1749,1.9328,0.4648,-1.3564,-4.8254,-0.5131,0.4692,4.0435,9.1259,-1.7961,1.8942,8.0964,-2.4298,0.2745
1605.4688,-4.9847,-0.6431,0.6099,0.8444,5.0720,-4.5684,2.9958,0.7710,-0.7030,-6.7716,-0.0927,0.5807,4.2362,8.6236,-3.7724,1.3101,8.0931,-1.4624,-0.0541
1609.3750,-4.6903,1.4507,2.6288,2.7668,4.0989,-3.0595,3.3231,1.7009,0.5358,-6.1816,0.5805,0.9399,4.1601,8.1393,-2.8865,1.6377,7.6311,-0.3106,-0.4051
1613.2812,-3.7992,2.2865,3.2639,3.7563,3.0069,-1.3126,2.7379,3.5150,1.1329,-3.6428,1.2358,0.8159,3.6183,7.2998,-0.0065,2.9109,6.7828,0.0166,-0.6993
1617.1875,-3.0197,1.6209,2.3398,3.2112,2.6685,-0.4268,1.9995,5.3914,0.5795,-1.4258,1.6455,0.0304,2.6156,5.3979,2.5529,4.2468,5.4767,-0.7238,-1.1387
1621.0938,-3.5358,0.3215,0.8694,1.7325,3.0231,-0.6540,1.9046,6.8107,-0.2587,-1.0563,1.6509,-0.6006,1.7443,2.9416,3.2167,4.2189,3.9707,-1.6682,-1.1218
1625.0000,-4.9874,0.0643,0.5895,1.0635,3.5781,-1.3974,2.3305,7.2808,-0.4066,-2.7648,1.2465,-0.8143,1.4053,0.8971,1.8662,2.2879,2.4670,-1.7697,-0.5107
1628.9062,-6.7125,1.2154,1.8152,2.0704,3.6507,-1.6883,3.0168,7.2711,0.7914,-5.6635,0.3871,-0.1221,2.0179,-0.1114,-0.6238,-0.2484,1.4063,-0.5419,0.4511
1632.8125,-7.2924,3.5475,4.1653,4.6128,3.2487,-0.6687,3.7630,7.4714,3.2600,-7.1545,-0.3838,1.1439,3.0291,0.1632,-1.9489,-1.9242,0.8541,1.5232,2.0441
1636.7188,-5.7579,6.3987,6.5931,7.5702,3.2916,1.6475,4.8667,8.4422,6.0709,-6.2217,0.1657,2.9920,4.4714,0.9071,-1.2797,-1.0416,1.2938,3.9588,4.1793
1640.6250,-1.9539,9.2346,8.8584,10.0085,4.4635,5.0348,6.8918,9.9518,8.6026,-2.7378,2.7224,5.3580,6.1060,1.5924,1.2123,2.1050,2.7476,6.6860,6.9418
1644.5312,3.2213,11.6878,11.1188,11.4924,6.6144,8.1393,9.8173,11.0296,10.7272,1.9394,7.0197,8.2239,7.6558,1.5912,4.6370,6.0266,4.4780,9.4585,9.8868
1648.4375,8.3785,13.5714,13.0743,11.7180,8.2308,10.0659,12.4635,10.7714,12.1712,6.2227,11.0232,10.9475,8.6235,0.9819,7.4457,8.5652,5.2995,12.0420,12.0673
1652.3438,11.5065,14.3740,14.2032,10.9260,8.1770,10.5278,13.2037,9.2180,12.8267,9.2469,13.1799,12.4556,8.4900,0.0934,9.0628,8.7469,4.3489,13.8720,12.7888
1656.2500,11.2524,14.2648,13.9032,9.4347,6.4825,10.0352,11.8770,6.9977,12.7579,11.0467,13.1926,12.4741,7.3631,-0.3332,9.5363,7.1793,2.2223,14.6530,12.0671
1660.1562,8.3740,13.8664,12.6114,7.9028,4.4455,9.3535,9.7718,5.2522,12.7976,11.7065,12.4194,11.4491,5.8607,-0.3693,9.3897,5.4324,0.1777,14.6582,10.6959
1664.0625,5.1911,13.6867,11.1338,6.6615,3.1691,9.3449,8.6507,4.1108,13.1280,11.5602,12.2388,10.1817,4.5837,-0.0167,8.4121,4.5495,-0.4455,13.9902,9.3459
1667.9688,4.2644,13.3709,10.0419,5.7471,2.7052,9.3893,8.6997,3.2073,13.6670,10.8563,12.4646,8.9788,3.3001,-0.0824,6.6660,4.6893,-0.3575,12.8679,7.9632
1671.8750,5.5812,11.9913,9.1198,4.8737,2.3034,8.9177,8.6692,2.0461,13.2124,9.3148,11.8047,7.3918,1.7866,-0.8409,3.8652,4.7900,-0.5804,10.9651,6.1307
1675.7812,6.8926,8.9965,8.0750,3.9041,1.6531,7.1820,7.4729,0.8820,10.8642,7.4389,9.2480,5.1544,-0.0542,-1.5766,1.1846,4.2266,-1.8202,8.4290,3.7722
1679.6875,5.6697,5.2704,6.7218,3.4400,1.3877,4.6339,4.9200,0.6161,7.5440,5.3593,5.6271,2.7736,-1.1078,-1.2025,-0.2190,3.1437,-3.0087,5.9559,2.0882
1683.5938,1.1793,2.5724,5.3552,3.7019,2.2512,1.8835,2.5565,1.4152,4.6619,3.8394,2.6334,1.2742,-0.8348,1.1764,0.5949,2.1213,-2.6251,4.5721,1.9255
1687.5000,-4.5965,1.5802,4.0007,4.4249,3.9714,-0.4646,1.3420,2.7198,3.4444,2.6971,1.4447,1.2191,0.5936,4.4824,2.4009,1.1902,-0.4369,4.3371,3.1439
1691.4062,-8.5432,1.4639,2.0983,4.4942,4.6720,-2.7402,-0.0026,3.0522,3.1732,1.5816,1.3460,1.6967,1.9534,6.6625,3.6313,0.0880,1.7708,4.0806,3.6319
1695.3125,-9.2628,0.5529,-0.6030,2.7131,2.9376,-5.2040,-2.3357,1.6324,1.8614,0.2068,0.8668,1.2385,1.6121,6.0520,2.8149,-1.6665,2.0547,2.4092,1.8635
1699.2188,-7.9931,-1.8277,-3.9447,-0.7628,-0.8311,-7.6442,-6.1180,-1.2102,-1.0981,-1.6937,-0.6343,-0.8574,-0.2967,2.9246,0.4060,-3.8186,0.0532,-1.0382,-2.0149
1703.1250,-7.0621,-4.7311,-6.3417,-4.3583,-4.5355,-9.1447,-9.1152,-3.8734,-5.0287,-3.9567,-2.8769,-3.9032,-2.6603,-0.3465,-2.1491,-4.9030,-2.1114,-4.8461,-5.7257
1707.0312,-7.7209,-6.1659,-6.5052,-6.1122,-5.3644,-8.9718,-9.0777,-4.6265,-7.3004,-5.9121,-4.1645,-5.9161,-3.5217,-1.4734,-3.5261,-3.8229,-2.4260,-6.6786,-6.7878
1710.9375,-8.6287,-5.4037,-4.6529,-4.9350,-2.8545,-7.1755,-6.0026,-3.0793,-6.5245,-6.9254,-3.7323,-5.4076,-1.9984,0.1497,-3.5705,-0.8254,0.0449,-5.2368,-4.6090
1714.8438,-7.6269,-2.9312,-2.3663,-1.7366,0.9389,-4.4877,-2.0425,-0.3533,-3.4376,-6.1156,-2.1105,-2.6590,0.8166,2.8024,-2.5857,2.5247,3.5243,-1.4568,-1.0114
1718.7500,-4.3485,-0.2267,-1.2671,1.5377,3.4728,-2.2288,0.1250,1.6381,-0.3717,-3.7266,-0.5236,0.8019,3.4334,4.8240,-1.3876,4.2060,5.9325,2.1795,1.7527
1722.6562,-0.9988,1.3091,-1.3419,3.2792,3.5686,-1.3505,0.4227,2.0821,0.8116,-1.4075,-0.2415,3.3710,4.4619,4.6836,-0.0965,3.5594,6.0401,3.9645,2.5749
1726.5625,-0.8191,1.4835,-1.7935,2.8281,2.1554,-1.8677,0.0979,0.8852,-0.2058,-1.4522,-1.7417,3.6210,3.8643,2.8292,1.1057,1.1191,4.4361,3.1197,2.1175
1730.4688,-4.7996,0.2080,-1.7410,1.0927,0.7226,-3.7190,0.0530,-0.4476,-2.5879,-4.6876,-4.5214,1.5030,2.2180,0.4575,1.5063,-1.1979,2.4245,0.5922,1.6018
1734.3750,-10.2642,-2.3396,-1.5642,-0.8282,0.1875,-6.3647,-0.0511,-1.4125,-5.0812,-9.3612,-7.3815,-1.9275,0.0486,-1.3178,0.3040,-2.3059,0.6991,-2.1619,0.9128
1738.2812,-13.1601,-5.6249,-2.3654,-2.2782,-0.0393,-8.9489,-1.7485,-1.9083,-7.1174,-13.0203,-9.5836,-5.5747,-2.1999,-2.5770,-2.8162,-2.4156,-1.1891,-4.8243,-0.6157
1742.1875,-11.4238,-8.4411,-4.5257,-3.3143,-0.6814,-10.6141,-5.0197,-2.3680,-8.6220,-13.1842,-10.5204,-8.1290,-4.3834,-3.2206,-6.8658,-2.4242,-3.4569,-6.7249,-3.4609
1746.0938,-7.4082,-9.5411,-7.0892,-3.9587,-1.7324,-10.7738,-8.2718,-3.1684,-9.4702,-10.4749,-10.2490,-8.8795,-5.8005,-3.6145,-9.6096,-3.4062,-5.6457,-7.8521,-6.2423
1750.0000,-5.3068,-8.4652,-8.6007,-4.2448,-2.1939,-9.8491,-9.6057,-3.7692,-9.5647,-7.1885,-9.1394,-8.4363,-6.1243,-3.3019,-9.2814,-4.8692,-6.3692,-7.8758,-7.0597
1753.9062,-7.6606,-6.0802,-8.1936,-3.9080,-1.0308,-9.0099,-8.5074,-3.7181,-9.1667,-5.6764,-7.8663,-7.7403,-5.3020,-1.8905,-6.2400,-5.7332,-5.0441,-6.9156,-5.0288
1757.8125,-12.5980,-3.9935,-6.8003,-2.9807,1.2582,-9.3599,-6.8482,-2.8329,-8.6193,-6.4386,-7.0110,-7.5408,-3.7522,0.2823,-2.4107,-5.0266,-2.3873,-5.8444,-1.4767
1761.7188,-15.8480,-3.6943,-5.6474,-2.1014,3.2469,-10.6080,-6.2237,-1.8790,-8.6998,-8.1108,-7.0431,-7.8958,-2.4269,2.4096,-0.4923,-3.4524,-0.0403,-5.2557,1.0348
1765.6250,-14.2466,-4.7629,-5.4801,-1.6598,3.3182,-11.3227,-6.9605,-1.5669,-8.8712,-8.5424,-7.7852,-7.8294,-1.7911,3.4957,-1.3027,-2.4051,0.5117,-5.4263,1.3001
1769.5312,-8.9855,-5.4297,-5.0985,-1.2123,1.6610,-10.0522,-7.0372,-1.7281,-8.3583,-7.8052,-8.5654,-6.3253,-1.4191,3.3843,-4.2388,-2.9445,-0.0051,-4.8980,0.4557
1773.4375,-3.5681,-4.4057,-3.0021,0.1099,0.0660,-6.5738,-4.7396,-1.3000,-5.9540,-5.7149,-8.2261,-2.8570,-0.6168,2.8753,-6.8131,-3.9590,-0.7462,-2.2365,0.9750
1777.3438,-1.0478,-1.5730,1.0120,3.1579,0.2959,-2.1742,-0.9892,0.7527,-2.0169,-3.4368,-6.2118,1.4773,1.5024,3.1297,-6.8893,-3.3439,-0.0633,2.5873,4.5159
1781.2500,-1.4878,1.1550,5.8282,7.3728,3.0073,0.6471,2.3167,4.2973,2.0064,-1.4741,-2.7841,5.4871,4.6497,4.4049,-4.0212,-0.3036,1.9021,8.2344,9.8137
1785.1562,-3.0968,2.4274,9.2074,11.0470,6.7489,0.9050,3.3803,7.5577,4.6196,-0.2273,1.0781,7.9631,7.7173,5.9275,0.0863,4.0445,4.3293,12.4364,14.1621
1789.0625,-3.8524,2.0823,10.2994,12.8739,9.4997,-0.6721,2.6150,8.8380,5.5341,0.2830,4.2359,9.0622,9.6641,6.5277,3.5454,7.4715,6.0636,14.1298,15.5704
1792.9688,-3.1969,1.9472,9.8746,12.7235,10.4920,-2.4576,1.6957,7.7934,5.8856,0.0936,6.3175,9.4432,10.4448,6.2968,5.3961,8.0581,6.8855,13.9993,14.4274
1796.8750,-1.4240,3.2247,9.8185,11.8901,10.6500,-2.8313,2.9623,5.9656,6.8358,-0.1632,7.4718,10.0778,10.5928,5.9913,6.1570,6.7203,7.4399,13.5238,13.0137
1800.7812,0.8491,5.7068,10.3122,11.1730,10.9134,-2.1662,5.1787,5.0076,8.4313,-0.0691,7.8473,10.5498,10.7440,6.4868,6.8229,5.0769,8.0718,13.5817,12.9143
1804.6875,3.1713,7.2716,10.3608,10.4525,11.2714,-2.0373,6.5721,5.2605,9.0125,-0.0147,7.0166,10.0998,10.4666,7.1501,7.0612,4.3721,8.3970,13.3912,13.2825
1808.5938,3.6971,6.0935,8.3238,8.9273,10.7189,-3.3927,5.4090,5.7323,7.2481,-0.6740,5.0092,8.2387,9.1282,6.7557,5.8096,4.1004,7.6927,11.5401,12.3319
1812.5000,1.0100,2.9476,4.8221,6.2813,8.6211,-5.9338,3.4638,5.3508,3.4760,-2.7384,2.2377,6.0231,6.6930,4.9502,2.4310,3.3596,6.1542,8.2900,9.0627
1816.4062,-4.2330,0.2987,1.9022,3.8901,5.8423,-7.7340,2.6858,4.0984,0.0343,-4.9468,0.2590,4.9944,4.4127,2.9390,-1.0287,2.1150,4.9328,5.4697,5.2690
1820.3125,-8.8778,0.2655,1.7684,3.2838,4.2765,-7.2206,4.1230,3.4396,-0.7014,-5.6479,0.5725,6.0709,4.1271,2.3357,-1.8920,1.8679,5.1205,5.0367,3.4624
1824.2188,-8.8476,2.7345,4.3413,4.8946,4.3508,-4.2775,5.5426,4.1176,1.6129,-2.9868,3.1202,8.2826,6.0685,3.7555,1.7506,3.6932,6.4659,7.5141,4.8569
1828.1250,-3.3377,5.2723,7.2507,6.8547,5.2372,-0.5332,5.0402,5.3459,5.4651,2.0239,6.5192,9.9183,8.7482,5.6811,8.1074,6.8960,7.6496,10.9294,7.8799
1832.0312,3.7786,5.7594,7.9453,7.1150,5.0287,1.6938,1.8583,5.7493,8.1700,6.2003,8.9938,9.6599,10.0869,5.9564,12.8638,9.5641,7.4638,12.6034,9.6181
1835.9375,7.7400,4.3274,6.0674,4.7545,3.0699,1.9043,-1.4567,4.2998,8.4835,7.1169,9.4716,7.8337,9.0177,3.8957,12.7176,10.0975,5.7959,11.5629,8.7819
1839.8438,5.8861,2.7890,3.5512,1.3031,0.3522,0.4984,-2.0468,1.5097,7.1558,4.1290,8.3341,6.0832,6.5581,0.9270,7.8051,8.8234,4.0629,8.8807,6.3965
1843.7500,0.2111,2.4758,2.1260,-0.8431,-1.2055,-1.5582,0.1322,-0.9564,5.8573,-0.7615,6.2575,5.5181,4.7087,-0.7479,1.7634,7.0770,3.3689,6.4391,4.7149
1847.6562,-4.5233,2.4892,1.7055,-1.3996,-1.4959,-3.7188,2.2990,-2.3407,5.0039,-4.3931,3.9472,5.4952,3.7589,-0.7690,-1.5971,5.8693,3.3896,5.0639,4.2810
1851.5625,-6.4254,1.0942,0.8213,-1.1935,-1.6310,-5.8341,1.5183,-3.0819,3.5637,-5.3472,1.3649,4.6840,2.8297,-0.2424,-1.1703,4.6968,2.9580,3.9528,3.8569
1855.4688,-6.4418,-2.6731,-1.7029,-1.6805,-2.9990,-7.9256,-2.6939,-4.0435,0.6731,-4.1454,-1.0386,2.3368,0.5338,-0.9303,1.0608,2.8274,1.2404,1.9666,1.7246
1859.3750,-7.5700,-7.1986,-5.2062,-3.3259,-5.5565,-9.6343,-7.8761,-5.5367,-3.1057,-3.0020,-3.0375,-0.7040,-2.6157,-3.0513,2.5570,0.0398,-1.3715,-0.6722,-1.9433
1863.2812,-10.6672,-9.9979,-7.6893,-4.8215,-7.8875,-10.8578,-11.2167,-6.8824,-6.2619,-2.9897,-3.8859,-3.1809,-5.5501,-5.5158,2.1481,-2.1773,-3.8170,-2.9504,-5.7252
1867.1875,-13.8637,-9.8557,-7.7602,-5.3769,-8.5919,-11.5849,-11.6270,-7.3184,-7.0434,-4.3795,-3.5778,-4.2842,-6.8031,-7.1645,0.6295,-2.9963,-5.4150,-3.6974,-7.5581
1871.0938,-14.8309,-7.9106,-6.4336,-5.0336,-7.9943,-11.9066,-10.8089,-6.9194,-5.5533,-5.5343,-2.5153,-4.2304,-6.5215,-7.7799,-0.3467,-2.6006,-6.3736,-3.1573,-7.5066
1875.0000,-13.3463,-6.3193,-5.4042,-5.1537,-7.3591,-11.8166,-10.0289,-6.5383,-3.4493,-5.6554,-1.5894,-3.8841,-5.9900,-8.1055,-0.6554,-2.0769,-7.3046,-2.5145,-6.9386
1878.9062,-11.1517,-5.9984,-5.7178,-6.3462,-7.4887,-10.6583,-9.1077,-6.6724,-2.1575,-4.9919,-1.1739,-3.7346,-6.1438,-8.6672,-0.8559,-2.6326,-7.8268,-2.6865,-7.1472
1882.8125,-9.6651,-5.8636,-6.6849,-8.0697,-8.3314,-7.6412,-6.9213,-7.0266,-1.8643,-3.8979,-1.3393,-3.6880,-6.9414,-9.0765,-1.4841,-4.3021,-7.4594,-3.5878,-7.7679
1886.7188,-7.8041,-4.3192,-6.7038,-9.1821,-8.5685,-2.7869,-2.8870,-6.9504,-1.7925,-2.8652,-1.7406,-3.6613,-7.3727,-8.7184,-2.3469,-5.6934,-6.0503,-4.4476,-7.8643
1890.6250,-3.3428,-1.1803,-5.1409,-8.8223,-7.8311,2.4467,1.4727,-6.1009,-0.9506,-1.1035,-1.5172,-3.2017,-6.9216,-7.6258,-2.6047,-5.8145,-4.3642,-4.3707,-6.9840
1894.5312,3.8914,2.3904,-2.4209,-6.9203,-6.5066,6.2860,4.2063,-4.7264,1.0240,2.2521,-0.0731,-1.9962,-5.7295,-6.1341,-1.4614,-4.1420,-3.3087,-3.2030,-4.9818
1898.4375,10.9040,5.3382,0.3280,-4.2897,-5.4181,7.2007,4.5003,-3.0751,3.8382,6.3391,2.6982,0.2039,-4.1580,-4.7069,0.5914,-1.2363,-2.8953,-0.7314,-2.5842
1902.3438,13.5315,6.6659,2.3622,-1.3876,-4.6062,5.6636,3.0659,-1.3738,6.3790,8.8872,5.7331,2.9664,-2.2204,-3.4784,2.3758,1.4149,-2.3566,2.3447,-0.1405
1906.2500,10.0667,6.6494,3.4306,0.8169,-3.8385,3.4162,1.8662,0.1013,7.8179,8.2376,7.3444,5.2399,-0.1771,-2.1741,2.7632,2.9824,-1.1943,5.1846,1.7048
1910.1562,3.4824,5.8848,3.2772,1.8770,-2.8718,2.0776,1.5100,0.7698,7.9552,4.7484,6.4282,5.7885,1.4797,-0.9535,2.1000,2.8089,0.3114,6.5197,2.7416
1914.0625,-0.9552,4.7576,2.1355,1.4506,-1.8357,1.9847,1.6458,0.3026,6.8413,1.1400,3.9334,4.6532,2.3949,0.0878,1.2386,1.6558,1.4208,5.6656,2.6486
1917.9688,-0.6671,3.3432,0.3451,0.0312,-1.0007,2.0190,1.1089,-1.2108,5.1709,0.0512,1.8922,3.0800,2.6049,1.1239,1.0666,0.5495,1.7957,3.4753,1.7054
1921.8750,2.8969,1.7454,-1.0957,-1.5552,-0.4061,0.9335,-0.0753,-3.0237,3.2680,1.5812,1.6391,2.2286,2.3324,2.1535,1.3680,0.3678,1.7808,1.3678,0.7902
1925.7812,5.6616,0.3299,-1.9001,-2.7259,-0.4202,-1.2190,-1.4883,-4.0383,1.4150,3.2242,2.2956,2.1267,1.8829,2.9240,0.7988,0.7747,1.7360,0.3409,0.2438
1929.6875,4.6065,-0.9094,-1.6667,-3.2379,-1.2230,-3.3595,-2.6393,-4.3025,-0.2127,2.4743,2.3070,1.5582,0.9668,2.7521,-1.0509,0.6623,1.3130,0.3657,-0.1969
1933.5938,1.3924,-1.5320,-0.9806,-3.4001,-2.7185,-4.0855,-3.1711,-4.0261,-1.5279,-0.5378,0.5389,-0.0480,-0.4048,1.2052,-3.6312,-0.2526,0.0591,0.5815,-0.8090
1937.5000,-0.6169,-1.4429,0.0220,-3.1136,-4.0798,-2.7246,-3.1364,-3.4873,-1.8056,-2.7052,-1.5155,-1.8244,-1.7485,-0.9306,-4.6060,-1.6530,-1.8996,0.7125,-1.4492
1941.4062,0.2116,-0.5279,0.9858,-1.7472,-4.0353,-0.3930,-2.1704,-2.4169,-0.5554,-1.6045,-1.9256,-1.2973,-1.6820,-2.0810,-2.5586,-1.7283,-2.7883,1.6492,-0.6766
1945.3125,1.9799,0.9637,2.2996,1.2132,-1.9794,1.3017,-0.3210,-0.3350,1.8578,2.3578,0.2896,2.4511,0.5511,-0.8407,1.9111,0.0914,-1.1948,4.1669,2.2054
1949.2188,1.7644,2.7549,4.0150,4.8235,1.3011,1.4827,1.5761,1.7291,4.2899,5.8780,3.9419,7.7841,4.6197,2.1102,6.1841,2.9773,2.1594,7.4899,6.6289
1953.1250,-1.7276,4.1578,5.8098,7.4688,4.1360,0.4766,3.4562,2.6122,5.5067,5.7037,6.2756,11.2748,7.9539,5.1300,7.0788,4.9433,5.4239,9.6900,10.0665
1957.0312,-5.9817,4.5341,7.1935,7.4262,4.5124,-0.5100,4.2892,1.3245,4.8852,1.5267,5.7075,10.6981,8.7940,5.8020,3.9110,4.9165,5.9892,9.0877,10.6144
1960.9375,-7.5137,3.3480,7.1576,5.1648,2.4487,-1.1491,3.4001,-1.3163,3.0905,-3.6934,2.9460,6.9487,6.9780,4.0404,-1.2356,3.3251,3.9546,5.8911,8.1615
1964.8438,-5.5806,0.8117,5.4985,2.0772,-0.1596,-1.2370,1.5629,-3.2833,1.2041,-6.9499,-0.0558,2.6777,4.1380,1.3684,-5.4046,1.6819,1.2613,2.0850,4.4872
1968.7500,-2.5055,-2.0540,2.4935,-0.1324,-1.7251,-1.8042,-0.5695,-3.2056,-0.2899,-7.1571,-2.0865,0.2456,2.0196,-0.0580,-6.6149,0.8320,0.0917,-0.3090,1.3798
1972.6562,-1.8796,-4.3550,-0.5475,-1.1691,-1.4154,-2.9936,-1.5108,-1.6528,-1.4916,-6.0044,-3.0609,-0.1868,1.1694,0.1757,-5.1593,0.4331,0.7550,-1.1099,-0.3803
1976.5625,-4.4139,-5.0975,-2.7466,-1.8405,-0.0837,-4.2825,-1.5210,-0.6798,-2.2668,-5.2957,-3.4996,-0.6007,0.7161,1.2553,-2.6780,-0.1417,1.6853,-1.4108,-1.5706
1980.4688,-8.2262,-4.6706,-3.3828,-2.8099,0.9426,-5.1245,-0.9777,-1.5319,-2.6472,-5.6137,-3.5625,-1.9593,-0.2032,1.7788,-0.9045,-1.1361,1.3530,-2.4100,-2.8302
1984.3750,-10.1813,-4.5050,-2.8885,-4.0952,0.9838,-5.4175,-1.0331,-3.5062,-2.6018,-5.8440,-3.2282,-3.9946,-1.7010,1.2366,-0.0996,-1.8728,-0.4625,-3.8756,-3.9740
1988.2812,-9.1764,-5.3007,-2.4411,-4.7843,0.0966,-5.6837,-2.3908,-4.6428,-2.4707,-4.8246,-2.6752,-5.2216,-3.1043,0.0487,-0.2311,-1.8235,-2.8967,-4.9126,-4.7209
1992.1875,-6.2915,-6.4431,-2.6976,-4.3423,-1.3474,-6.1290,-4.7105,-3.9640,-2.8529,-3.0362,-2.4069,-4.7974,-3.6246,-1.2139,-1.0542,-1.5323,-4.4613,-4.5634,-4.4704
1996.0938,-3.3034,-6.5655,-3.2713,-2.9535,-2.6969,-6.6295,-6.5207,-2.0334,-3.7958,-1.5535,-3.0250,-2.9816,-3.0544,-1.7866,-2.3458,-1.6901,-4.7555,-3.1302,-3.5094
2000.0000,-1.6424,-4.8519,-3.3056,-1.6091,-3.5658,-6.1626,-6.4050,-0.5667,-4.3776,-1.2537,-3.8182,-1.0646,-1.9636,-1.7568,-3.5582,-2.6360,-3.9782,-1.6566,-2.4010
2003.9062,-1.4515,-2.1186,-2.5543,-0.7471,-3.7048,-4.5086,-4.7771,-0.4344,-4.0099,-1.4598,-3.6878,-0.0755,-1.1412,-1.4734,-3.7597,-4.0245,-2.9126,-1.1074,-1.5481
2007.8125,-2.2956,-0.4010,-1.6995,-0.7015,-3.1993,-2.7048,-3.0352,-1.1035,-2.6067,-1.3064,-2.2334,-0.2839,-1.1029,-1.3472,-2.3159,-4.9729,-2.1569,-1.7838,-0.9795
2011.7188,-3.4323,-1.1196,-1.7943,-1.3154,-2.5553,-1.7560,-2.7943,-1.8029,-1.1732,-0.7579,-0.3085,-1.3810,-1.6860,-1.6038,0.1280,-5.0323,-1.7680,-3.2076,-0.9616
2015.6250,-3.6770,-3.6047,-3.0613,-2.3137,-2.2271,-2.2022,-3.7873,-2.4697,-1.0004,-0.2985,0.1485,-2.7875,-2.8225,-2.5153,2.3727,-4.2539,-2.0186,-4.5776,-1.7454
2019.5312,-2.6366,-5.8202,-4.7039,-3.8575,-2.8559,-3.5241,-4.6110,-3.6452,-2.2619,-0.7684,-1.4564,-4.0513,-4.1959,-3.9986,3.4129,-2.9223,-2.6172,-5.4829,-3.4979
2023.4375,-0.6743,-6.3061,-5.6525,-5.8964,-4.7351,-4.7988,-4.0019,-5.6664,-4.0162,-2.3441,-4.6438,-4.7810,-5.5245,-5.7679,2.8804,-1.0490,-3.4401,-5.8568,-5.7613
2027.3438,0.6219,-5.0840,-5.6358,-8.1150,-7.7395,-5.4540,-2.4450,-8.1289,-5.0092,-4.1159,-7.1035,-4.6937,-6.5494,-7.6687,1.6879,1.1167,-4.0921,-5.6875,-7.6071
2031.2500,0.1676,-3.6389,-5.3349,-9.6787,-11.1976,-5.4395,-1.8923,-9.8449,-4.4983,-4.7091,-7.0407,-3.7979,-6.9994,-9.5739,1.1493,3.1452,-4.5637,-5.2859,-8.1907
2035.1562,-1.8439,-2.7764,-5.0951,-9.7625,-14.0042,-4.9202,-3.2046,-10.3381,-2.7458,-3.5146,-4.3310,-2.2542,-6.7680,-11.1792,2.3635,4.2329,-4.6814,-4.2132,-7.2908
2039.0625,-4.0993,-2.2703,-4.8385,-8.3303,-15.2583,-3.9546,-6.2317,-9.9674,-0.7212,-0.8382,-0.6309,-0.7375,-5.7732,-11.8868,5.0306,3.9844,-4.9840,-2.5588,-5.2622
2042.9688,-5.5119,-1.5870,-3.9308,-5.9041,-14.3034,-2.5272,-8.9707,-9.3866,0.5677,1.6128,1.8946,-0.3016,-4.6121,-11.4064,7.7225,2.5305,-5.6051,-0.7228,-3.3244
2046.8750,-5.7643,-0.5671,-2.4359,-3.3829,-11.7904,-1.4516,-10.0897,-8.8259,0.9249,2.0860,2.1222,-1.2406,-3.8797,-10.0704,8.4519,0.5868,-6.4212,0.4593,-2.3769
2050.7812,-5.9296,-0.3529,-0.8039,-1.6210,-8.5756,-1.4779,-9.2986,-7.5741,0.1440,0.2588,0.3790,-2.8820,-3.6603,-8.5217,6.5518,-1.1409,-7.2624,0.4305,-2.3805
2054.6875,-6.4094,-1.5466,0.0267,-0.6548,-5.8522,-2.9010,-7.6777,-5.1148,-1.2465,-2.5400,-1.5639,-3.8162,-3.6390,-7.2615,2.9373,-2.4667,-7.3041,-0.4978,-2.7806
2058.5938,-6.4571,-3.8957,0.0745,-0.1086,-3.9975,-5.0527,-6.2945,-1.8682,-2.7032,-4.4047,-2.4487,-3.2481,-3.1926,-6.1555,-0.3314,-3.0895,-6.3091,-1.6339,-2.7120
2062.5000,-5.2910,-6.0617,-0.4724,0.5519,-3.1398,-6.4042,-6.0211,0.8264,-3.5035,-4.1227,-1.8733,-1.3178,-1.9057,-4.8080,-1.7714,-3.0935,-4.3817,-2.1733,-1.8457
2066.4062,-3.2161,-6.9036,-1.3742,1.0407,-3.0212,-6.1690,-7.0032,1.7532,-3.6613,-2.0647,-0.6570,0.3901,-0.3682,-3.2360,-0.9917,-2.3592,-2.4033,-1.8449,-0.9703
2070.3125,-1.5879,-6.0483,-2.3382,0.6716,-3.8066,-4.5318,-8.0580,1.0396,-3.5119,0.3955,0.0000,0.8040,0.4265,-1.8938,0.9524,-0.8793,-1.0748,-1.2484,-0.6739
2074.2188,-1.7977,-4.0511,-3.1271,-0.6704,-5.1992,-2.5509,-8.3994,-0.3092,-3.1469,1.5849,0.1530,-0.3092,0.0342,-1.8356,3.1583,0.8169,-0.6440,-1.0569,-1.2546
2078.1250,-2.7266,-1.3337,-3.2501,-2.3643,-6.7087,-0.8803,-7.1300,-1.3351,-2.1668,1.5410,0.4648,-1.6460,-1.1195,-3.1753,5.0337,2.6631,-0.5623,-1.1347,-1.7644
2082.0312,-2.1875,1.7892,-2.0550,-3.3065,-7.6809,0.5737,-3.8134,-1.6298,-0.1253,1.8692,1.9362,-1.3058,-2.1790,-5.2308,6.8645,4.1101,-0.3246,-0.5844,-1.4852
2085.9375,1.2535,5.2057,0.6629,-2.4247,-7.5331,1.7318,0.1605,-1.3968,3.3581,3.4203,4.8825,1.3889,-1.9142,-6.4779,8.4888,5.3843,0.2493,1.3206,-0.1555
2089.8438,6.4143,8.1522,4.4502,-0.0720,-6.3545,2.8226,3.6132,-0.9381,7.3203,6.3902,8.4676,5.8538,-0.1246,-6.0715,9.8422,6.6691,0.8797,4.8878,1.9348
2093.7500,10.0679,9.6222,7.7275,3.1139,-4.4518,3.5133,4.7297,-0.2407,10.5600,9.3870,11.4932,10.3107,2.9640,-3.7990,10.4008,8.3455,1.4550,8.8266,4.1231
2097.6562,10.0907,9.1613,9.7281,5.8801,-2.3411,3.3763,3.8395,1.1263,12.2437,11.3538,13.2805,13.4605,6.1688,-0.7582,10.4466,10.1236,1.7509,12.0709,5.9497
2101.5625,7.0789,7.2128,10.4066,7.6558,-0.4379,2.1096,1.9513,2.8711,12.3029,11.3471,13.6804,14.6758,8.5213,1.6466,10.7624,11.3488,2.2272,13.9390,7.5694
2105.4688,3.6330,4.7407,10.1796,8.4182,0.9316,0.2083,0.3125,4.2623,11.1522,9.7981,13.1568,14.3661,9.6265,2.8518,11.5375,11.3318,3.3342,14.0666,9.0928
2109.3750,1.8790,3.1386,9.2898,8.1249,1.6138,-2.1011,-0.2374,4.5946,9.2287,7.5033,11.8172,13.2112,9.4633,2.7663,12.5984,10.3464,4.7667,12.7635,10.0840
2113.2812,1.8635,2.9901,7.8990,7.1346,1.4727,-4.1453,-0.0849,3.9913,7.3737,5.0210,10.1588,12.0431,8.9594,2.0999,13.1921,9.2242,6.2241,10.8277,9.9928
2117.1875,2.3879,3.9243,5.9904,5.6483,0.4778,-5.3639,0.2247,2.8126,6.3853,3.3536,8.7948,11.6090,8.7585,1.5875,13.2245,9.0078,7.3870,9.0835,9.0049
2121.0938,2.4908,5.2139,3.9006,4.0587,-0.6326,-5.0739,-0.1443,1.6163,6.7822,2.7564,8.5005,11.5045,9.2622,1.5805,13.1288,10.2095,8.1806,8.2927,7.6138
2125.0000,2.1811,5.8360,2.2233,2.6150,-1.4097,-3.6857,-1.3355,0.2375,8.2441,3.0893,9.2641,11.1797,9.8495,1.7993,13.2106,11.7112,8.3200,8.5350,6.3763
2128.9062,2.5025,5.2458,1.4889,1.2939,-1.5544,-1.9492,-2.9065,-1.4893,8.9567,3.9468,10.1922,9.8571,9.6084,1.9206,12.9145,12.0967,7.5000,9.0199,5.1727
2132.8125,3.3641,3.4489,1.8818,0.2875,-0.9430,-1.4439,-3.5398,-3.3243,7.5836,4.5762,10.1329,7.7072,7.7714,1.6989,11.4614,10.4813,5.6662,8.6247,3.8818
2136.7188,3.6778,1.1769,2.6583,0.0221,-0.1408,-2.5015,-3.2088,-4.3843,4.4146,4.7740,8.7753,5.7325,5.0527,1.3970,8.6615,7.5853,3.3280,6.9339,2.6256
2140.6250,2.3619,-0.6749,3.2324,0.1061,0.1308,-4.4375,-2.4849,-3.9720,0.9556,4.7165,6.9262,4.6203,2.6550,1.0947,6.1346,4.5088,1.1783,4.5579,1.9114
2144.5312,-0.1520,-1.9521,3.3826,0.6355,-0.4157,-5.6594,-2.0603,-2.3773,-0.6698,4.2891,5.4134,4.3368,1.2709,0.3798,5.3186,2.4317,-0.1109,2.7395,2.0361
2148.4375,-2.2321,-2.4249,2.6474,1.0804,-1.8375,-5.0674,-3.3310,-0.9241,-0.3772,4.1395,4.6266,3.8652,0.7429,-1.1932,6.4407,1.2951,-1.1209,1.9575,2.6896
2152.3438,-2.3041,-2.1951,1.5448,0.9118,-3.3844,-3.0593,-4.7369,-0.3319,0.5357,3.6071,3.5856,2.5597,0.2995,-3.1369,7.4805,0.6221,-1.9765,1.5455,2.8323
2156.2500,-0.3567,-1.3686,0.4553,0.6504,-3.8525,-0.6663,-5.1273,-0.6437,0.5555,2.8575,1.7507,0.6411,-0.4418,-4.5014,6.7408,0.1487,-2.8386,0.8431,2.0810
2160.1562,1.8171,-0.0267,0.2133,0.8464,-2.5921,0.8541,-3.3091,-0.4113,-0.5516,1.7719,-0.4291,-0.7589,-0.9477,-4.2598,4.1186,0.2335,-3.0590,-0.2258,0.8778
2164.0625,2.1114,0.8894,0.6894,1.8760,0.0659,1.2674,-0.7366,0.7699,-1.9355,0.6483,-1.8053,-1.2564,-0.6189,-2.4209,1.3968,1.2979,-2.1839,-1.1416,0.3018
2167.9688,-0.2003,0.6783,1.4546,3.2430,3.0295,0.6443,1.0607,2.6224,-2.0490,-0.0082,-1.1149,-0.6274,0.6338,-0.0227,1.1625,3.0028,-0.1772,-0.9070,0.8571
2171.8750,-3.5064,-1.0642,1.8259,4.0075,4.7435,-0.8231,0.7977,3.5579,-0.8008,0.0650,1.4141,0.7244,2.1778,1.4945,3.7425,4.6818,2.0909,0.2863,2.3109
2175.7812,-5.4947,-3.6892,1.7531,3.6336,4.6142,-3.0503,-1.0715,2.5655,0.8940,0.7937,4.8292,2.4108,3.2869,1.9731,7.5583,5.5854,4.1745,2.1103,3.4333
2179.6875,-4.7478,-5.6493,1.4520,2.4590,2.9562,-5.0468,-2.9192,0.2476,1.8194,2.1556,7.2879,4.2962,3.8410,1.9145,10.2168,5.8098,5.3201,3.4972,3.4709
2183.5938,-1.9128,-5.6657,1.3616,1.2611,0.4433,-5.9661,-3.7118,-2.0145,1.8013,3.5520,8.0459,5.7365,3.7845,1.7841,10.7626,5.6228,5.5676,3.9823,2.4887
2187.5000,0.9699,-3.7853,1.4457,0.4429,-2.2755,-4.9863,-3.6958,-2.8300,1.3576,3.9887,7.0731,5.7770,3.1707,1.0309,9.4506,5.1959,4.7411,3.8234,0.8736
2191.4062,2.8326,-1.6051,1.0493,-0.0172,-4.6033,-2.8391,-4.0365,-2.2369,1.2182,3.4704,5.2008,4.2364,2.0292,-0.6145,7.7212,4.1485,3.1043,3.1716,-0.5076
2195.3125,3.4441,-0.9664,-0.0330,-0.8198,-5.8606,-0.9526,-4.6267,-1.0373,1.1243,2.3515,3.5637,2.0586,0.5530,-3.1997,6.1508,2.6579,1.1225,2.3797,-1.4549
2199.2188,3.9141,-2.3493,-1.4962,-1.8647,-5.4164,-0.7077,-4.6796,-0.4175,0.7324,1.7157,2.6255,0.9997,-0.5424,-5.3141,4.9380,1.2467,-0.4556,1.4846,-1.7378
2203.1250,4.7903,-4.2868,-2.4313,-2.5547,-3.7220,-2.0568,-3.5488,-0.4659,0.0628,2.4273,2.5146,1.8692,-0.9356,-5.6039,3.9119,0.5587,-1.1453,0.8683,-1.5294
2207.0312,5.7541,-4.7006,-1.8835,-2.0936,-1.5772,-4.0400,-1.9620,-1.0393,-0.0449,3.8370,3.2137,3.9369,-0.2250,-3.7584,3.1500,1.0034,-1.0289,0.9041,-0.8331
2210.9375,6.4851,-2.4212,0.0760,-0.2865,-0.0292,-4.9589,-1.0676,-1.4013,1.3593,5.3824,4.4068,5.8215,1.3621,-0.7451,3.5533,2.3248,-0.5030,2.0286,0.3173
2214.8438,7.1741,1.8903,3.1076,2.2928,0.6418,-3.9461,-1.0205,-1.2050,4.4176,6.7221,6.3955,7.0271,3.5091,1.6451,5.9381,4.2712,0.2160,4.3065,2.2148
2218.7500,7.9704,6.7668,6.0402,4.7976,0.8377,-0.9208,-0.8586,-0.4063,8.2794,8.2637,9.2004,8.1693,5.9363,2.9377,9.7588,6.8565,1.6040,7.3714,4.5050
2222.6562,9.0202,10.0477,8.2743,6.4631,1.5085,2.8250,1.1063,0.5762,11.5373,10.2597,12.2175,10.1808,8.0890,3.2407,13.4367,9.9645,3.5763,10.2572,6.9468
2226.5625,9.4411,11.3557,9.6092,7.2345,2.2201,6.4048,4.5410,1.5395,13.0641,12.0171,14.3439,12.5083,9.3165,3.2849,15.0644,12.4838,5.8456,12.4005,8.6077
2230.4688,9.0823,11.4439,10.4269,7.2717,2.1621,9.0279,7.8376,2.2462,13.3037,12.7075,14.7654,13.8335,9.2034,3.3411,14.0877,13.3030,7.1288,13.2776,9.1535
2234.3750,8.5437,11.8572,11.0808,7.0684,1.2999,10.2221,9.1277,2.7643,13.1192,11.5665,13.8558,13.0156,8.0779,3.3872,11.1236,11.8217,6.9455,13.3057,8.3646
2238.2812,9.0235,13.1876,11.7374,6.5940,0.2366,10.1881,8.5989,3.5132,13.3366,9.0147,12.4893,10.6630,6.8570,3.1202,7.6875,8.7270,5.6170,12.9008,7.1007
2242.1875,10.6561,14.8128,12.3036,6.0021,-0.1034,9.5997,7.8010,4.4203,14.0472,6.3272,11.5594,8.6099,6.4208,2.7351,5.0120,5.5996,4.2526,12.6514,5.9224
2246.0938,12.1242,15.0849,12.1726,5.1188,0.5317,8.7734,7.8684,5.1955,14.5219,4.6325,11.3133,7.8440,6.4459,2.1696,3.2670,3.6367,3.4102,12.1736,5.2665
2250.0000,11.6155,13.1377,11.2166,4.2378,1.2279,7.8818,8.1467,5.5008,13.9554,3.9782,10.9585,7.9220,6.1739,1.1738,2.3437,3.0807,2.6764,11.3824,4.9125
2253.9062,8.2522,9.3098,9.5594,3.6718,1.0721,6.7363,7.0108,5.3026,11.9595,3.9155,9.8806,7.2915,4.7849,-0.1741,1.9859,2.9836,1.3519,9.9176,4.4415
2257.8125,3.5479,5.3963,7.1964,3.1234,-0.1242,5.2464,3.8130,4.6437,8.7958,4.0028,7.8338,5.1177,2.3154,-2.1280,2.5206,2.5618,-0.9244,8.1664,3.4413
2261.7188,-0.3048,2.4722,4.1002,1.9704,-1.8522,3.3017,-0.7148,3.6476,5.0641,4.1656,5.1294,2.0469,-0.1189,-3.8757,3.9176,1.6608,-3.5495,5.8842,1.6225
2265.6250,-1.3634,0.8258,0.2750,-0.0071,-2.9712,1.0477,-4.2366,2.1734,1.6341,4.8639,2.5353,-0.5777,-2.0381,-5.1116,6.2856,0.9044,-5.3703,2.8555,-0.5877
2269.5312,0.6599,-0.2723,-3.2286,-2.7744,-3.3471,-0.6749,-4.8502,0.2488,-0.7271,6.1103,0.8658,-1.8056,-3.5010,-5.8578,8.4914,0.8650,-5.8901,-0.4578,-3.0303
2273.4375,5.2695,-1.2250,-5.3756,-4.8530,-3.3603,-1.2842,-3.8640,-1.5536,-1.6045,7.8784,0.7484,-1.9017,-4.4771,-6.0579,9.7463,1.3642,-5.3416,-3.5102,-4.9386
2277.3438,10.5654,-1.6300,-5.1557,-5.1098,-3.1711,-0.7383,-2.3943,-2.3561,-0.7956,9.8904,2.4786,-1.2635,-5.1068,-5.9020,9.5995,1.9941,-4.4482,-4.8850,-5.4431
2281.2500,14.1783,-1.0261,-3.0056,-3.9314,-2.9830,0.2213,-1.9887,-2.0331,0.9683,11.4051,5.3564,-0.4070,-4.8122,-5.5126,9.1069,2.1977,-3.9243,-4.1202,-4.6617
2285.1562,13.7507,-0.0231,-1.2783,-2.7952,-2.7731,-0.1628,-3.2074,-1.4368,2.5439,11.8010,8.0478,0.4634,-3.6221,-4.8980,9.4028,1.9578,-3.6307,-2.2709,-3.1604
2289.0625,8.7120,0.1833,-1.6062,-3.2440,-2.8478,-2.7021,-4.5079,-2.0673,2.9595,10.3971,8.8583,1.5781,-2.1288,-4.5717,11.1923,1.8132,-3.1575,-1.0915,-2.2460
2292.9688,0.9647,-0.5929,-3.8140,-5.1606,-3.4543,-6.6961,-5.0245,-4.2487,2.4503,7.3595,7.8079,2.7252,-1.0003,-4.6545,13.2578,2.3233,-2.3125,-1.5121,-2.3746
2296.8750,-5.0387,-1.7809,-5.8490,-6.8062,-4.3644,-9.7013,-4.3142,-6.7827,2.0265,4.2923,6.2229,3.9645,-0.4242,-4.8101,14.0574,3.4906,-1.0250,-2.3907,-3.0130
2300.7812,-5.9677,-1.5570,-5.3701,-6.3522,-4.9099,-9.5227,-2.1989,-7.7983,2.7974,2.7687,5.5984,5.3347,-0.0145,-4.4740,12.6456,5.1690,0.3956,-2.0727,-2.9664
2304.6875,-1.2856,0.2220,-2.6406,-3.9244,-4.5478,-6.0476,0.1557,-6.3231,4.3393,3.3167,6.4254,6.3274,0.5646,-3.5412,9.5581,6.2018,1.7538,-0.1690,-1.9718
2308.5938,5.6709,2.2250,-0.0221,-1.8915,-3.8217,-1.5206,1.3714,-3.8219,5.5076,5.1386,7.3128,6.2083,0.9539,-2.8099,6.7363,5.8628,1.8515,1.7743,-1.1734
2312.5000,10.2149,2.0155,-0.2748,-2.2814,-3.8543,1.0895,0.4925,-2.5442,4.9635,6.2990,6.5589,4.2709,-0.0308,-3.3933,5.1684,3.8026,0.4051,1.5921,-2.0656
2316.4062,9.6835,-1.0426,-3.4020,-5.3602,-5.2554,0.4276,-2.0009,-3.8864,2.5657,5.8051,3.6864,0.7782,-2.8243,-5.3677,4.8955,0.9733,-2.5044,-1.2833,-4.9040
2320.3125,5.0184,-5.3792,-7.1187,-8.7745,-7.1561,-2.3990,-4.9569,-6.9309,-0.2794,3.5614,-0.1079,-2.6920,-5.7756,-7.3257,4.7823,-1.2103,-5.4835,-5.0975,-8.0575
2324.2188,-0.2321,-8.2956,-8.2693,-9.8728,-7.9951,-5.3046,-6.1964,-9.2560,-2.4076,0.5976,-2.9642,-4.2436,-6.9554,-7.4684,4.1170,-2.0742,-6.4150,-7.1914,-9.2263
2328.1250,-2.6235,-8.4463,-6.1309,-7.9859,-6.7066,-6.4571,-5.4378,-9.1481,-2.8811,-1.3202,-3.7418,-3.3139,-5.1941,-4.6360,3.2550,-1.3591,-4.5497,-6.0962,-7.4664
2332.0312,-1.2913,-6.4535,-2.7416,-4.6162,-3.8027,-6.0081,-3.5143,-7.0034,-2.1255,-1.3192,-2.8107,-0.7975,-1.6247,-0.0623,3.1443,0.1284,-0.7112,-2.9230,-3.6654
2335.9375,1.9048,-4.3174,-0.6850,-2.1619,-1.0110,-5.0857,-2.1904,-4.6385,-0.9396,0.0287,-1.2308,1.1185,1.3478,3.9275,3.8862,1.3415,2.8799,-0.4293,-0.1781
2339.8438,4.5222,-3.2047,-1.2029,-1.6877,0.2554,-4.2970,-2.6436,-3.4743,-0.0706,1.5966,0.2959,1.4537,2.5225,5.6027,4.2119,2.0123,4.5427,0.0183,1.1699
2343.7500,4.6986,-2.9192,-3.2945,-2.4154,0.1348,-3.8858,-4.0165,-3.7491,0.4688,2.2844,1.2018,0.6171,1.9828,4.8602,3.2659,2.2089,3.9454,-1.2312,0.7605
2347.6562,2.5153,-2.6749,-4.9671,-3.0987,-0.9310,-3.3581,-5.3797,-4.4633,0.6087,2.1872,2.0852,-0.1347,0.9761,2.5743,1.4529,2.6414,2.1803,-2.3214,-0.1810
2351.5625,-0.7010,-2.2294,-5.2974,-3.1280,-1.9568,-2.8022,-5.6856,-4.7535,0.3648,1.9811,3.1307,0.3440,0.6818,0.4204,0.2214,3.3610,0.7492,-2.4141,-0.9760
2355.4688,-3.1706,-1.9872,-4.9161,-3.2492,-2.9021,-2.5568,-5.1255,-4.7111,-0.1026,2.6821,4.3375,1.4674,0.6248,-0.9201,1.4517,4.1954,0.4499,-2.0086,-1.4787
2359.3750,-3.2870,-2.3231,-4.8481,-4.2265,-3.8596,-2.7773,-4.3619,-4.6924,-0.8669,4.6518,5.2477,2.2646,0.0873,-1.6428,4.7366,4.5498,0.5443,-2.3960,-2.3440
2363.2812,-1.1057,-3.2844,-5.6675,-6.1214,-5.2374,-2.9864,-4.0211,-5.2053,-1.8297,6.8946,5.0227,1.8841,-1.4513,-2.4717,7.8111,3.9181,0.0753,-4.0383,-3.7248
2367.1875,1.9296,-4.3456,-7.1117,-7.9260,-6.8702,-3.2657,-4.2659,-6.1052,-2.7124,8.1323,3.3867,0.6329,-3.6922,-3.7542,8.2368,2.5885,-1.4822,-6.1976,-5.2138
2371.0938,3.8494,-5.3002,-8.0858,-8.8447,-8.1546,-3.7077,-4.5060,-7.0593,-3.3413,7.0096,0.4924,-0.5319,-5.5021,-5.5571,5.3572,1.3751,-3.8873,-7.3893,-6.1296
2375.0000,3.3509,-5.9154,-8.0186,-8.2092,-8.7648,-4.4854,-4.9248,-7.5813,-3.5037,4.0471,-2.1765,-1.2004,-6.2921,-7.1652,1.3658,1.0728,-5.7211,-6.9399,-6.0992
2378.9062,1.2318,-5.9228,-6.6922,-6.4313,-8.4252,-5.1920,-4.8753,-7.3999,-2.8008,0.9116,-3.2523,-1.0515,-5.8613,-7.7869,-0.9469,1.6963,-5.9505,-5.1994,-5.2329
2382.8125,0.4073,-4.8475,-4.1612,-4.0792,-6.9975,-4.5793,-4.2505,-6.2527,-0.8940,0.0445,-1.4676,-0.3765,-4.5343,-7.0087,-0.1738,2.5326,-4.6380,-2.9209,-3.8890
2386.7188,2.1952,-2.2758,-1.0742,-1.7418,-4.9865,-1.9124,-2.9356,-4.1790,1.6731,1.9825,2.2984,0.5535,-2.8102,-5.4435,2.7074,2.9737,-2.7055,-0.6718,-2.1577
2390.6250,5.7693,1.1385,1.4304,0.1142,-3.3246,2.0026,-1.3594,-2.1050,4.1822,6.2366,6.1109,2.1124,-1.2869,-4.0495,5.6850,2.1939,-1.8212,1.3493,-0.2101
2394.5312,8.2353,4.2749,2.9265,1.1300,-2.6298,5.1812,0.5357,-0.8517,5.5704,9.6583,7.9046,4.0276,-0.3524,-3.8413,6.8728,0.5917,-2.4226,2.7974,1.2893
2398.4375,7.3612,5.3597,2.8374,1.5581,-2.5830,5.6069,1.4776,-0.8380,5.5342,10.4844,7.2869,5.4145,-0.2561,-4.4376,6.0170,-0.6476,-3.9075,3.2248,1.8140
2402.3438,4.1363,4.1492,1.6795,1.6549,-2.4141,3.3114,1.4169,-1.2283,4.6771,8.3419,5.2826,5.6233,-0.5026,-4.7422,4.2897,-0.9971,-4.5971,2.3143,1.3266
2406.2500,1.9076,1.7389,0.5513,1.8474,-0.9527,0.5423,0.6315,-0.8763,3.8018,4.7548,3.4597,4.3524,-0.0732,-3.3398,2.6312,-0.0224,-3.3605,0.7179,0.3491
2410.1562,3.0296,0.0755,0.1643,2.4137,1.4407,-0.5199,0.1954,0.5427,3.5102,2.2606,2.8295,2.7654,1.0916,-0.5448,1.5228,1.8946,-0.4208,-0.1871,0.0341
2414.0625,6.1679,0.0593,0.7444,3.2037,3.7353,0.6754,0.7118,2.4977,3.4751,1.5458,3.0028,2.1686,2.9383,2.1373,0.9565,3.4575,2.5009,0.0755,0.8100
2417.9688,7.8250,1.8155,1.8026,3.8813,4.5269,2.7651,1.7664,3.8192,3.6240,2.6265,3.5132,3.1372,4.4437,3.4496,1.1416,4.1262,3.8727,2.0558,2.4467
2421.8750,5.4915,3.8518,2.7597,4.2465,3.5731,3.8166,2.1475,3.9175,3.6411,3.8657,3.9574,4.7289,5.0366,2.9811,1.9437,3.7668,3.2110,4.3875,4.0733
2425.7812,0.5068,4.9035,3.4623,4.6165,2.5255,3.6041,1.8639,3.7063,3.7707,4.0334,4.1081,5.5433,4.8585,1.8462,2.8714,3.3692,1.6554,5.9682,5.1334
2429.6875,-2.3432,5.3493,3.9832,5.2928,2.6521,3.3629,1.4579,3.9830,4.4967,3.8979,4.3003,5.4728,4.7774,1.4901,3.4950,3.8261,0.5779,6.5940,5.5424
2433.5938,0.1162,6.0433,4.6847,6.5297,4.2759,4.6313,1.9959,4.9914,6.0894,4.7473,5.1225,5.5337,5.5465,2.5819,3.6101,5.1580,0.9795,6.8069,5.8325
2437.5000,7.2216,7.7861,5.6608,7.6662,6.0232,7.6011,4.3037,5.7531,8.2669,7.3408,6.7273,7.0257,6.8447,3.8073,3.5903,6.7867,2.2918,7.3504,6.5080
2441.4062,14.3709,9.9737,6.6514,7.7216,5.9235,10.5275,7.1635,4.9864,10.1277,10.7148,8.6886,9.4603,7.4120,3.6270,4.0516,7.7246,3.1330,8.2425,7.0710
2445.3125,16.9751,11.2499,6.6113,6.0737,3.3877,11.5961,7.9162,2.3817,10.8217,12.4799,9.9935,10.5954,6.5150,1.4488,5.1791,7.0830,2.6240,8.6053,6.8166
2449.2188,14.8229,10.6499,5.5905,3.0040,-0.1571,10.5003,5.9094,-0.6603,9.9857,11.5389,9.8282,8.7012,4.3219,-1.5002,6.5352,5.4758,0.8869,7.5597,5.3428
2453.1250,11.4215,8.4155,3.8505,-0.0671,-2.8922,8.3977,1.9906,-2.7036,7.9539,8.8727,8.0270,4.3109,1.9094,-3.5096,7.7112,3.9053,-0.9070,5.2018,3.0813
2457.0312,10.5085,6.3073,2.1052,-1.9323,-3.9755,6.8394,-1.2353,-3.2260,5.4557,7.3456,5.4885,0.3004,0.2071,-3.6338,8.2674,3.0621,-2.0635,2.5868,0.8243
2460.9375,12.4363,5.3966,0.6053,-2.6752,-3.8408,6.3325,-1.7822,-3.0979,3.3326,7.8466,2.9817,-1.2499,-0.7195,-2.6772,7.7960,2.6458,-2.5664,0.3827,-0.5428
2464.8438,14.1371,5.3668,-0.8716,-2.9815,-4.0795,6.1401,-0.6136,-3.6235,1.6496,9.4815,1.0188,-0.8692,-2.0123,-2.3040,6.4308,1.7052,-3.3228,-1.2954,-1.7923
2468.7500,12.1986,4.7312,-2.7340,-3.8030,-5.2035,5.3874,0.4261,-5.0929,0.0630,9.3164,-0.7052,-0.8945,-4.2200,-3.5576,4.0347,-0.0684,-4.5176,-3.1145,-3.2542
2472.6562,7.1058,2.7678,-4.4537,-5.1952,-6.3801,4.1816,-0.1615,-6.3680,-1.5316,5.8768,-2.4745,-3.2174,-6.6227,-5.6524,1.1488,-2.5846,-5.7494,-5.0670,-5.0472
2476.5625,2.3660,0.3706,-5.2290,-6.0922,-6.2250,3.3429,-1.9809,-5.9914,-3.1204,1.2973,-3.6314,-6.8168,-7.7276,-6.7964,-1.3293,-4.3331,-6.1731,-6.7193,-6.3009
2480.4688,0.9252,-1.0836,-4.4641,-5.4762,-4.3139,3.2901,-3.4553,-3.8324,-4.1205,-1.6345,-3.7077,-9.5025,-7.1226,-5.9598,-3.1127,-4.7624,-5.5778,-7.4009,-5.9438
2484.3750,2.5197,-1.2102,-3.0983,-3.6726,-1.9296,3.1377,-4.1749,-1.4906,-4.6776,-1.4309,-2.9195,-9.6420,-5.5185,-3.8637,-3.9208,-4.2529,-4.6660,-7.1189,-4.2408
2488.2812,3.6110,-0.9291,-2.5980,-2.1543,-0.6182,1.6523,-4.2227,-0.8303,-5.3157,0.0657,-2.6940,-8.0047,-4.4717,-2.0163,-4.1744,-4.0878,-4.2190,-6.8566,-2.5835
2492.1875,1.6184,-1.7281,-4.1222,-2.2566,-0.4798,-1.3059,-4.2919,-2.2391,-6.5807,-0.2439,-4.2259,-6.9978,-4.7971,-1.4161,-4.8012,-4.8102,-4.3200,-7.6258,-2.5584
2496.0938,-2.3824,-3.7807,-6.9484,-3.9322,-0.5906,-4.7598,-4.5533,-4.0432,-8.5890,-3.4410,-7.5755,-8.0721,-5.8502,-1.1736,-6.0889,-6.2802,-4.2786,-9.7434,-4.5524
2500.0000,-4.6290,-5.8816,-9.1619,-5.7431,0.1379,-6.3543,-4.2020,-4.3792,-10.6833,-7.2026,-11.0046,-10.5793,-6.6929,-0.4729,-7.7913,-7.4395,-3.7226,-12.4107,-7.3036
2503.9062,-2.5639,-6.8862,-9.9103,-6.6926,1.6717,-5.1548,-3.2866,-2.7062,-12.5606,-8.5328,-13.2282,-12.9468,-6.9261,0.7292,-9.6065,-8.3581,-3.3567,-14.5324,-9.3581
2507.8125,2.0748,-6.9480,-9.7731,-6.8943,2.4306,-2.4839,-2.8764,-0.7973,-13.9993,-6.8076,-14.1639,-14.4546,-7.3833,1.2948,-11.2038,-9.2733,-4.2954,-16.0563,-10.0002
2511.7188,4.8445,-7.2951,-10.3514,-7.2652,1.3190,-1.1051,-4.0944,-0.5666,-15.3002,-4.4822,-14.7855,-15.4943,-9.0599,-0.2593,-12.3938,-10.7238,-6.8836,-17.0776,-10.1885
2515.6250,2.1510,-8.9999,-12.2174,-8.4289,-0.9892,-2.3996,-6.5810,-2.3311,-16.5232,-4.4324,-15.8713,-16.6199,-11.5228,-3.1870,-13.2125,-12.7072,-9.9276,-17.9784,-10.9149
2519.5312,-4.4543,-11.4586,-14.2195,-9.4883,-2.0408,-5.5758,-8.0043,-4.2707,-17.3774,-7.5050,-17.0979,-17.2065,-12.9013,-5.3202,-13.5746,-14.0476,-10.9235,-18.4990,-12.0241
2523.4375,-10.2109,-12.7243,-14.6162,-9.2613,-0.4467,-8.0026,-6.6855,-4.3561,-17.4895,-10.4924,-17.5201,-16.0057,-11.7103,-4.0856,-13.3582,-13.8053,-8.8956,-17.7892,-12.1875
2527.3438,-10.5059,-11.5156,-12.1867,-7.1495,3.6054,-7.4390,-2.6145,-2.1512,-16.4311,-10.6728,-16.3831,-12.7093,-7.7896,0.4563,-12.4144,-11.8803,-4.7122,-15.4039,-10.1350
2531.2500,-5.2278,-8.1910,-7.5867,-3.8804,7.5333,-4.0819,2.0132,0.6858,-14.1469,-7.2753,-13.6174,-8.0708,-2.9225,5.7912,-10.8677,-8.9591,-0.6681,-11.5151,-6.2476
2535.1562,1.5531,-4.2038,-2.6645,-0.7604,9.4026,0.2005,5.0706,2.5579,-10.8022,-2.8255,-10.0945,-3.8749,0.8541,8.6287,-8.8573,-6.3274,1.3948,-7.1180,-1.7595
2539.0625,5.7184,-0.9030,0.7824,1.3005,8.9321,2.9315,5.9542,3.0878,-6.6707,-0.3929,-6.5627,-1.2815,2.5733,8.1467,-6.8366,-4.6950,1.9393,-3.3484,1.6494
2542.9688,5.3581,0.9966,2.6418,2.8253,7.7236,3.7629,6.0637,3.3930,-2.8525,-0.9690,-3.8807,-0.3955,2.5142,5.8674,-5.4771,-3.8850,2.1492,-0.8179,3.1562
2546.8750,1.8897,1.8835,3.0878,4.1713,7.1167,3.3465,6.3529,4.4141,-0.3326,-2.9260,-2.3580,-0.4147,1.7331,4.3092,-5.3875,-3.5984,2.8438,0.3000,3.2386
2550.7812,-1.7040,2.0970,2.8907,5.3453,7.0490,2.9966,6.9346,5.8871,0.3009,-4.0606,-2.2014,-0.6840,0.8321,4.1879,-6.0387,-3.1053,3.6093,0.5140,2.7592
2554.6875,-3.5732,2.0594,2.3781,5.5256,6.3848,3.2414,6.2860,6.2799,-0.1317,-3.5959,-2.7463,-1.1224,0.2320,4.5439,-6.7177,-2.3862,3.2557,0.5444,2.6420
2558.5938,-3.0703,1.9783,1.9599,4.7513,4.7165,3.8488,4.3531,5.0635,-0.2620,-2.5199,-3.1896,-1.6103,-0.0241,3.9930,-6.3528,-1.6374,1.9706,0.8549,3.0059
2562.5000,-0.7748,2.0272,1.8269,3.4294,2.6862,4.4257,2.2515,3.1227,0.8905,-2.0659,-3.0553,-1.8402,0.1284,2.2588,-4.7777,-1.3124,0.7041,1.8864,3.6154
2566.4062,2.1657,2.2564,2.1920,2.5132,1.5792,4.6989,1.9848,1.9569,3.0372,-2.7304,-2.4426,-1.2764,0.7444,0.7267,-2.9116,-1.4431,0.8853,3.2627,3.7879
2570.3125,4.7683,2.6560,2.8745,2.4376,1.9339,4.9862,3.4883,2.0344,5.0501,-3.6311,-1.4852,-0.0529,1.8748,0.7162,-1.7689,-1.7261,2.5592,4.2719,3.4819
2574.2188,5.8158,3.3586,3.3803,2.6905,2.6091,5.3835,5.3909,2.5665,6.2528,-3.3117,-0.2613,1.5221,2.8533,2.0024,-1.8129,-1.5092,4.1785,4.7694,2.8288
2578.1250,4.8394,4.6510,3.6871,2.6548,2.3879,6.0899,5.7435,2.0148,6.7570,-1.8566,1.4316,2.4710,3.3409,2.9927,-2.2392,-0.5444,4.3081,4.9384,2.4417
2582.0312,2.6218,6.8483,3.7177,1.9699,0.9336,6.9564,4.1502,0.2370,7.2492,0.1107,3.8012,2.5927,3.3798,2.4700,-1.9398,0.7688,2.9308,5.2495,2.8402
2585.9375,0.9066,9.7355,3.8793,1.4064,-0.4709,7.9931,2.5675,-1.4764,8.2968,1.4284,6.0973,2.2968,3.2950,0.8636,-0.9072,2.1120,1.4125,5.9632,3.7278
2589.8438,1.8615,12.1174,4.4381,1.8051,-0.7827,9.0526,2.8791,-1.6667,9.2847,2.5133,7.6930,2.6711,3.2669,-0.1748,0.1714,2.7504,1.4039,6.9178,4.4974
2593.7500,5.3845,12.6893,5.0898,3.0287,0.0919,9.7616,5.2298,-0.0748,9.3237,3.0622,7.6434,3.7425,3.2877,-0.0443,0.0838,2.8946,2.8527,7.3426,4.4167
2597.6562,8.8795,10.3959,4.8810,3.6085,0.5474,9.1381,7.4113,1.8540,7.9227,3.0218,5.8186,4.6155,2.7292,0.7896,-1.1257,2.7508,4.4728,6.6079,3.0839
2601.5625,8.5426,6.0038,3.0522,2.4582,-0.6276,6.9993,6.4960,2.2223,5.1395,1.4263,2.7283,3.7295,1.5217,0.9151,-3.1351,2.5058,4.5466,4.5862,0.8968
2605.4688,3.1042,1.2748,-0.0462,-0.3447,-3.0733,3.7647,2.2160,0.5769,1.9416,-1.7869,-0.8243,0.6669,-0.0175,0.0016,-4.6382,2.0097,2.6855,1.6202,-1.1343
2609.3750,-4.2882,-1.3411,-3.1124,-3.1108,-4.8666,0.8570,-2.1943,-1.8931,-0.6179,-5.3452,-3.8436,-2.9854,-1.3899,-1.3002,-5.3368,1.1382,0.3147,-1.0158,-2.1752
2613.2812,-8.5554,-1.0525,-4.2416,-3.6728,-4.3260,-0.2094,-3.6655,-2.9658,-2.1961,-6.8441,-5.3259,-4.8637,-1.6371,-1.3326,-5.1749,-0.0135,-0.8603,-2.5748,-1.8397
2617.1875,-6.9739,1.1240,-2.4952,-1.5751,-1.5481,0.4777,-0.8066,-1.8618,-2.6885,-5.3761,-4.9613,-3.4847,-0.6921,0.1835,-4.7769,-0.4511,-0.2789,-2.6169,-0.4389
2621.0938,-2.1619,2.4771,0.6527,1.5071,1.1239,2.0025,3.9513,-0.0056,-2.3328,-2.4307,-3.6582,0.0078,0.5273,1.9686,-4.5896,0.0016,1.3323,-1.6741,1.3752
2625.0000,0.6977,1.4219,2.9199,3.2739,1.9430,2.9452,6.7891,0.8515,-1.8566,-0.7659,-2.3991,2.6929,1.0896,2.2334,-4.5669,1.2696,2.4426,-0.7584,2.4739
2628.9062,-1.5190,-1.6619,2.5216,2.4378,0.7013,2.3812,5.6751,-0.2241,-1.6526,-2.1616,-2.2979,2.5439,0.6598,0.5483,-4.5850,2.3958,2.2912,-0.5131,2.7264
2632.8125,-6.6070,-4.6317,0.3683,0.4670,-1.0489,0.6721,1.6875,-2.0910,-1.5896,-5.5114,-3.1899,-0.2181,-0.3850,-1.4442,-4.4209,2.4779,1.4550,-0.7771,2.4928
2636.7188,-9.2403,-5.2115,-1.7040,-0.8751,-1.6330,-0.8483,-1.9196,-3.2068,-1.4963,-7.6868,-4.0798,-3.1036,-1.1322,-2.0643,-4.0756,1.4642,0.8542,-1.0204,2.4713
2640.6250,-6.7612,-3.5556,-2.0511,-0.4344,-0.8889,-1.7152,-3.4117,-2.8750,-1.5556,-7.3801,-4.1302,-4.3128,-1.2929,-1.2673,-4.0579,-0.2057,0.7349,-1.0225,2.5789
2644.5312,-1.5029,-1.6620,-0.9661,0.5979,-0.3356,-1.8241,-2.7327,-1.8216,-2.2062,-4.9349,-3.3594,-3.6761,-1.6899,-0.5126,-5.1323,-2.3574,0.1817,-1.3314,2.2504
2648.4375,1.1538,-1.8815,-0.3892,1.0028,-0.9786,-1.4890,-2.0420,-1.3562,-3.7757,-2.9453,-2.8114,-2.7783,-2.8514,-1.2149,-7.5639,-4.6356,-1.1733,-1.9537,0.9398
2652.3438,-0.6728,-4.1268,-0.7445,0.3389,-2.2803,-1.0596,-1.9663,-1.5380,-5.5494,-2.8810,-3.3949,-2.5184,-4.2206,-2.9573,-10.4602,-6.6415,-3.1116,-2.4617,-0.2740
2656.2500,-4.4421,-6.1685,-1.2167,0.3262,-2.1709,-0.3926,-2.5475,-1.0972,-6.2841,-3.7956,-4.5858,-2.5785,-4.1365,-3.6159,-11.7244,-7.0528,-4.2323,-1.6403,0.0848
2660.1562,-5.2088,-5.7253,0.1810,2.1841,0.3444,0.6651,-1.9692,0.8601,-4.6102,-4.0299,-5.0678,-1.3960,-1.4393,-1.7685,-10.0093,-5.0209,-3.3470,1.0326,2.9482
2664.0625,-1.3946,-2.4691,3.7115,5.8592,4.3450,2.1129,0.0060,4.1589,-0.7945,-2.9699,-3.8168,1.0708,3.0135,1.7772,-6.0077,-1.1520,-0.5895,4.5525,7.5419
2667.9688,3.4118,1.4818,7.3103,8.8411,7.4609,3.4382,2.2155,6.4209,3.0323,-1.6225,-1.2476,3.6234,7.0915,4.9260,-2.4867,2.2943,2.2422,6.8578,11.0275
2671.8750,4.8503,3.7054,8.4631,8.7254,7.5803,3.8303,3.6495,6.2027,4.4331,-1.7993,0.7163,4.2620,8.1434,5.7553,-2.0101,2.9813,3.7658,6.2162,11.1857
2675.7812,1.2765,2.9845,6.0087,5.4204,4.7940,3.1059,3.0773,3.4214,2.3075,-3.9431,0.3065,2.3534,5.9147,4.2443,-5.0613,0.3213,3.2628,3.1621,7.7520
2679.6875,-3.6969,0.2282,1.4321,0.9504,0.8418,1.6550,0.7626,0.0524,-1.9072,-6.1485,-2.4523,-0.9216,2.0401,2.0602,-9.1467,-3.5257,1.3199,-0.5269,2.7766
2683.5938,-6.1439,-2.6448,-2.9840,-2.2887,-2.2048,-0.0702,-1.8406,-2.1053,-5.8329,-7.0579,-6.1943,-3.7674,-1.2955,0.6203,-11.3265,-5.8042,-0.5288,-3.5499,-1.2431
2687.5000,-4.8480,-4.7331,-5.8642,-3.6916,-3.5494,-1.8027,-3.5779,-2.4982,-7.7451,-6.3692,-9.0986,-5.1119,-3.1678,-0.0941,-10.6563,-5.3391,-1.8114,-5.3177,-3.8165
2691.4062,-2.3373,-5.4545,-7.0708,-4.4311,-3.8466,-2.9808,-3.3137,-2.3946,-7.5624,-5.1767,-9.9910,-5.2303,-4.1334,-0.8008,-8.3461,-3.4145,-2.3107,-6.6115,-5.3347
2695.3125,-1.7668,-5.1319,-7.2981,-5.6048,-4.0424,-3.3413,-1.3679,-2.8829,-6.5775,-4.9721,-9.4419,-5.1009,-4.9771,-1.5895,-6.9661,-2.4834,-2.3558,-7.9392,-6.9965
2699.2188,-3.8413,-3.8495,-7.0998,-7.2575,-4.4063,-2.5584,1.1957,-4.1551,-5.8881,-5.8320,-8.3524,-5.4602,-5.9992,-2.0842,-7.6436,-3.7032,-2.1419,-8.8575,-8.5413
2703.1250,-6.3584,-2.1430,-6.4285,-7.9497,-4.7945,-1.0836,2.4513,-5.2402,-5.3660,-6.4832,-7.5533,-6.2936,-6.9213,-1.6625,-9.4840,-6.0845,-2.1343,-8.4161,-9.1207
2707.0312,-6.9825,-1.0256,-5.2399,-7.1791,-4.6417,0.1911,1.5946,-5.4554,-4.7281,-6.4984,-7.2361,-7.1812,-7.0182,-0.8674,-10.5264,-7.8458,-2.6490,-6.6441,-8.4467
2710.9375,-4.9596,-1.4141,-4.4534,-5.6899,-4.5272,0.6075,-1.4031,-5.0224,-3.8557,-5.5838,-7.0877,-8.0178,-6.8871,-1.0242,-9.9918,-8.3322,-4.0034,-4.8662,-7.1705
2714.8438,-2.1997,-3.4275,-4.9888,-5.4410,-5.0811,0.3704,-5.1070,-4.9030,-3.6755,-4.6580,-7.0263,-9.0406,-7.1511,-2.9927,-8.6948,-8.3616,-6.1755,-4.7128,-7.0423
2718.7500,-0.7741,-5.8559,-6.8531,-7.2184,-6.4339,-0.1725,-6.9164,-5.4965,-4.6441,-4.2647,-7.1439,-10.1112,-8.6314,-6.1959,-7.9279,-9.2179,-8.2672,-6.7283,-8.7361
2722.6562,-1.9091,-7.3589,-8.9855,-10.2151,-7.9189,-0.3978,-5.6612,-6.2712,-6.8016,-4.8979,-7.8820,-10.9826,-10.7423,-9.0264,-8.6495,-10.9564,-9.4300,-9.8334,-11.5325
2726.5625,-4.8146,-7.3203,-10.2280,-12.3945,-8.3908,-0.1349,-2.1250,-6.2303,-8.8743,-5.6744,-8.9491,-11.2425,-12.4654,-9.8053,-9.9705,-12.4531,-9.1576,-12.2395,-13.6006
2730.4688,-8.1209,-6.7229,-9.6364,-12.3472,-7.3459,-0.2359,1.4595,-5.0407,-10.2662,-6.6182,-10.2163,-10.7443,-12.6303,-8.3732,-10.6904,-12.6857,-7.8926,-12.9407,-13.6614
2734.3750,-10.5324,-7.0830,-7.9317,-10.2554,-5.2799,-1.2340,2.6639,-3.1351,-10.7695,-7.3373,-10.9594,-9.9071,-11.2078,-5.6346,-10.0848,-11.3752,-6.1677,-12.1418,-11.8135
2738.2812,-11.0871,-8.6428,-6.4363,-7.6905,-3.0618,-3.1625,0.7919,-1.4306,-11.1180,-7.7670,-11.1189,-9.3965,-8.8684,-2.7545,-8.6033,-9.3818,-4.5316,-10.8118,-9.1025
2742.1875,-9.7041,-10.3802,-5.7302,-5.7630,-1.3431,-5.0585,-2.3080,-0.2647,-11.5837,-8.3779,-10.8560,-9.2199,-6.4224,-0.4898,-7.8048,-7.6580,-2.7027,-9.4103,-6.5936
2746.0938,-7.0729,-10.7986,-5.2264,-4.5789,0.0042,-5.8109,-3.8419,0.5006,-11.9218,-8.8752,-10.3876,-8.7713,-4.3409,1.2247,-8.1072,-6.4324,-0.6505,-8.0245,-4.6629
2750.0000,-4.8080,-9.4941,-4.2054,-3.3701,1.3230,-5.3206,-3.4689,1.5403,-11.6228,-9.2629,-9.5936,-7.7020,-2.2966,2.8672,-9.4194,-5.3832,1.4006,-6.3209,-2.8523
2753.9062,-4.9752,-7.7351,-2.2095,-1.4037,2.7428,-4.2097,-1.9020,2.6811,-10.5136,-9.6926,-8.4613,-5.8872,-0.1336,4.6239,-10.6545,-4.3298,3.1097,-4.3565,-0.9926
2757.8125,-8.1212,-6.7976,-0.2327,1.0734,4.0118,-3.5630,-1.5778,3.6585,-9.3312,-10.0407,-6.8675,-3.9664,2.2397,6.5354,-11.2283,-3.2240,4.3368,-2.4321,0.9325
2761.7188,-12.5779,-7.3327,1.2809,3.3780,4.9512,-3.6126,-2.1994,4.1769,-8.3971,-10.2442,-5.3696,-2.2936,4.2681,8.4766,-10.9619,-2.4346,5.4318,-1.0779,2.9224
2765.6250,-15.5269,-8.5870,1.8519,4.8056,5.8456,-3.9569,-2.3479,4.5481,-8.1684,-10.1080,-4.7085,-0.7511,5.7863,10.0895,-9.8706,-1.9734,6.8494,-0.3179,4.6021
2769.5312,-14.9779,-9.2574,2.0510,5.5401,6.6477,-3.7666,-0.5843,5.5128,-8.2065,-9.5231,-5.1089,0.8818,6.6198,10.9629,-8.3948,-1.3690,8.6287,0.1480,5.8868
2773.4375,-11.6058,-8.6238,2.6983,5.8135,7.3234,-3.0938,3.3237,7.0541,-8.1630,-8.1690,-5.9764,2.9918,6.7388,10.6163,-6.5116,-0.2518,9.8792,1.0088,6.8189
2777.3438,-7.8497,-7.0631,3.7377,6.2040,7.5100,-2.2412,6.7183,8.4871,-7.9860,-6.3709,-6.2625,4.8167,6.4233,9.0335,-4.8497,1.2354,9.6535,1.7378,7.2804
2781.2500,-5.8554,-5.3109,4.8587,6.5438,7.1099,-1.5526,7.6849,8.9545,-7.6512,-4.8414,-5.7918,5.3834,5.7732,6.7823,-4.0380,2.2603,7.5735,2.2517,7.3998
2785.1562,-5.9126,-4.0917,5.2034,6.7630,6.1671,-0.7756,5.6013,8.2198,-7.1222,-4.0613,-4.9987,4.3045,5.0634,4.9817,-4.5749,2.2098,4.6783,2.1950,7.1173
2789.0625,-6.3021,-3.8072,4.6991,6.6594,5.2787,0.0215,2.1009,6.6643,-6.5504,-4.1724,-4.7469,2.3602,4.7054,4.4761,-6.0549,1.2237,2.4321,1.9705,6.5300
2792.9688,-6.0915,-4.5090,3.6993,6.4346,4.8170,0.9750,-0.5186,5.1883,-5.9317,-4.8944,-5.3705,0.7121,4.7529,5.2400,-7.3514,0.1759,2.0635,2.0294,5.8240
2796.8750,-5.4505,-5.6368,2.5926,6.1708,4.7171,1.4283,-1.7849,4.2859,-5.5000,-5.6690,-6.2136,-0.0780,5.1065,6.5294,-7.5439,-0.0142,3.2179,2.3036,4.8834
2800.7812,-5.4352,-6.4657,1.7425,5.5155,4.3606,1.3782,-1.6033,3.8487,-5.2955,-6.1383,-6.4074,-0.1227,5.0740,6.7079,-6.2728,0.2330,4.5230,2.3003,3.6492
2804.6875,-6.0654,-5.9599,1.0161,4.1844,3.0516,1.1682,-1.3375,3.1798,-5.2237,-5.9417,-5.6068,-0.3957,4.1079,5.1819,-4.4495,0.3456,4.5383,1.6852,2.1509
2808.5938,-6.2988,-4.0316,0.6605,2.1806,1.1494,1.5027,-0.7766,2.2596,-4.5980,-5.1215,-4.0021,-0.8810,2.5335,2.3024,-2.8065,-0.1955,3.0469,0.7308,0.8770
2812.5000,-4.4439,-1.5233,0.8369,0.2174,-0.7415,2.6413,0.0711,1.0820,-3.1260,-3.2012,-2.3496,-1.1452,0.8939,-0.2761,-1.6414,-1.1614,0.7977,0.1087,0.1242
2816.4062,-1.2815,0.3148,1.6438,-0.4868,-1.2326,4.3648,1.5343,0.1223,-0.9652,-1.0120,-0.9637,-0.6817,0.1465,-1.1657,-0.8360,-1.1828,-0.3017,0.7012,0.2925
2820.3125,0.6944,0.5894,2.7109,-0.1403,-0.0368,5.9978,3.1566,-0.1829,1.0731,0.2526,-0.4640,0.0252,0.7655,0.2326,-0.0116,0.0628,0.2757,1.9213,1.1886
2824.2188,-0.5244,0.0490,3.3792,1.1389,2.4338,6.6744,4.8681,0.0301,2.3342,0.0450,-0.5496,0.5792,1.9708,3.1219,0.5987,2.0299,2.5434,2.9078,2.5268
2828.1250,-4.2193,-0.0695,3.2368,2.3959,4.6084,6.4505,5.5989,0.5217,2.2987,-1.3856,-1.1098,0.1618,2.9631,6.1112,0.5905,2.8472,4.9069,2.6138,3.1895
2832.0312,-6.5940,0.5226,2.4519,2.8021,5.6901,5.3260,5.6635,1.4131,1.0901,-2.6317,-1.8696,-0.6178,3.1603,7.8985,-0.5232,1.6022,5.9861,1.0571,3.0385
2835.9375,-4.5244,1.3904,1.5646,2.5613,5.6136,3.9894,4.8834,2.4747,-0.3665,-2.6604,-2.3837,-1.3951,2.5726,8.1316,-2.7823,-0.9458,5.2158,-0.9274,1.8330
2839.8438,1.2330,1.0439,0.5643,1.4919,4.5508,2.4031,2.9838,3.1519,-1.8473,-1.7952,-2.7225,-2.1044,1.4203,6.8185,-5.4103,-3.6196,3.1459,-2.4285,0.2443
2843.7500,6.5179,-0.7014,-0.6942,-0.0332,2.6716,0.9180,-0.1527,2.5549,-2.8718,-1.0890,-2.9077,-3.2038,-0.1049,4.5255,-7.2722,-5.2189,0.8000,-3.0804,-1.2506
2847.6562,7.0778,-3.0245,-2.5007,-2.1892,0.1606,-0.3117,-3.3995,0.4993,-3.1400,-1.6685,-3.2608,-4.9070,-2.1049,1.5273,-7.8505,-5.6041,-1.2825,-3.0802,-2.5865
2851.5625,2.5740,-3.9374,-4.1243,-4.1873,-2.4883,-0.7751,-5.3828,-2.4055,-2.3316,-2.5923,-3.2580,-6.0581,-3.9329,-1.1512,-7.0286,-5.3686,-2.7987,-2.3146,-3.2141
2855.4688,-2.8714,-2.6487,-4.1832,-5.0304,-4.5335,-0.3507,-5.0578,-4.1776,-0.3420,-3.2195,-2.7620,-5.5845,-4.6236,-2.9962,-5.4997,-4.7239,-3.7789,-0.8837,-2.9213
2859.3750,-4.9963,0.1544,-2.0108,-3.8734,-5.1454,1.0275,-2.5000,-3.7505,2.1474,-2.4460,-1.8657,-3.2700,-3.9860,-3.4793,-3.8752,-4.0157,-4.2463,1.1866,-1.6992
2863.2812,-3.0017,2.9903,1.3050,-1.4943,-4.2999,2.9926,0.5432,-1.4978,4.1874,-1.3424,-1.2304,-0.8823,-2.5002,-2.9446,-2.9213,-3.4710,-4.1605,3.4214,-0.1732
2867.1875,-0.1376,4.3961,3.9740,0.5518,-2.7652,4.9499,2.9326,0.8666,4.4875,-1.8885,-1.9887,-0.5308,-1.6134,-2.5051,-3.2708,-3.7607,-3.6984,4.7301,0.6803
2871.0938,0.5748,4.1259,4.2322,1.2799,-1.6319,6.1168,3.5813,1.9509,2.6763,-4.3934,-4.0987,-2.4291,-1.7985,-2.6433,-4.8603,-5.0402,-2.8901,4.2160,0.5039
2875.0000,-1.4060,2.7116,2.5241,0.4227,-1.2871,6.1064,3.2791,1.3790,-0.1358,-7.6780,-6.5127,-4.9837,-2.7221,-3.0304,-7.3451,-6.9603,-2.0726,2.2925,-0.3447
2878.9062,-3.8272,0.8155,0.5257,-0.6682,-1.4377,4.8331,3.0268,0.3085,-2.7996,-9.5468,-8.1483,-5.8123,-3.4025,-2.7951,-9.8769,-8.0337,-1.3251,0.4303,-1.3069
2882.8125,-4.4684,-1.0818,0.0177,-0.5620,-1.0694,2.7718,3.0077,0.0443,-4.0725,-9.3062,-8.4880,-4.2282,-2.7834,-1.1400,-11.8297,-7.8059,-0.7732,-0.1382,-1.2716
2886.7188,-3.9062,-2.7535,1.2273,1.2239,0.4903,0.4536,3.3316,1.2142,-4.1335,-8.0013,-7.9873,-1.3604,-0.9900,1.9087,-12.7677,-6.4135,0.1270,0.6625,-0.0836
2890.6250,-4.0193,-3.3980,3.3110,4.0717,3.3194,-0.7695,3.6675,3.6397,-3.6161,-7.0810,-7.0652,0.6413,1.2735,5.4304,-12.7738,-5.0531,1.5959,2.3021,2.2419
2894.5312,-6.0349,-2.7279,4.8882,6.6339,6.7112,-0.9414,4.0106,6.5331,-3.1083,-7.5890,-6.1238,1.2887,3.7856,8.3847,-11.7762,-4.1474,3.7384,3.7759,4.8646
2898.4375,-7.8871,-1.4612,5.1254,7.7583,9.3146,-0.5085,3.7063,8.5091,-2.3454,-8.1292,-4.6676,0.8927,5.6774,9.6112,-9.3125,-3.4704,5.5682,4.4709,6.7555
2902.3438,-7.3747,-0.7868,4.0910,7.1012,9.5150,-0.4790,2.3929,8.4331,-1.6500,-6.8514,-2.7798,0.5898,6.2255,8.6498,-4.8785,-2.2548,6.1711,4.1109,7.0778
2906.2500,-3.7881,-1.4998,2.2785,5.1185,7.4021,-1.1259,0.0477,6.2569,-1.1023,-3.1996,-1.0078,0.7024,5.3191,6.2942,0.9240,-0.3924,5.0975,3.0216,5.4934
2910.1562,0.5038,-2.5506,0.8631,3.2570,4.3260,-1.6631,-2.0877,3.1796,-0.7693,1.2915,0.1115,1.0908,3.6870,4.3577,6.2192,1.3642,3.5817,2.0487,3.2415
2914.0625,3.2804,-2.2767,1.0885,3.0818,2.8018,-0.7902,-2.4260,1.3534,-0.4482,4.6588,0.9701,1.6243,2.8607,4.4098,8.7857,2.6532,3.2281,2.0821,2.2771
2917.9688,3.8408,0.3838,3.2399,4.7496,3.9052,2.1988,-0.4339,1.9671,0.2878,5.6068,2.0097,2.2304,3.9580,6.4362,7.9324,3.1761,4.5912,3.3882,3.7491
2921.8750,3.6046,4.6136,6.2727,7.0681,6.6858,6.3971,3.0243,4.5653,1.8557,4.6857,3.3887,2.8629,6.3709,8.9468,4.8917,3.1991,6.7116,5.3566,6.7646
2925.7812,4.3602,8.1750,8.3049,8.0420,8.5777,9.7443,5.8497,6.8944,3.4492,3.5385,4.3955,3.0793,7.9577,9.5139,1.8481,2.5814,7.2064,6.3661,8.7427
2929.6875,6.2531,9.3257,8.3125,6.7256,7.5777,11.0560,7.2642,6.8155,4.1123,3.5242,3.9127,2.5651,6.5007,6.8140,0.5426,1.0113,4.6959,5.6878,7.6443
2933.5938,7.4319,8.2227,6.3431,3.9872,4.1984,10.3260,6.8491,4.5472,3.1746,4.7363,2.1786,1.5329,2.5979,2.0839,0.9103,-1.2872,0.1444,3.7263,4.0417
2937.5000,6.2466,6.0206,3.9617,1.9680,1.3037,8.4542,5.6060,2.0256,1.5373,5.7308,0.2072,0.8072,-0.9886,-1.5184,1.1064,-3.3519,-3.7707,1.9083,0.8550
2941.4062,2.8453,3.8723,2.4640,1.7977,0.8394,6.1598,3.9082,1.3311,0.4154,5.7314,-0.0418,0.8844,-1.9111,-1.9969,0.6936,-4.0557,-4.7171,1.2303,0.1948
2945.3125,-0.2992,1.8660,1.6523,2.7231,2.9285,3.8218,2.0829,2.7201,0.2788,5.0958,1.5779,1.6518,0.0426,0.6703,-0.2446,-2.6049,-2.5443,1.3652,1.9013
2949.2188,-1.5139,0.1115,0.4969,2.8005,5.2542,1.6272,-0.6728,4.3221,0.7347,4.6454,4.2281,1.8882,3.0143,4.3891,-0.4457,-0.0475,0.5947,0.9488,3.2524
2953.1250,0.2753,-1.4071,-0.9795,1.2857,5.8064,0.0287,-2.6222,4.7505,1.0941,5.0375,5.9085,1.3040,4.2833,6.7168,0.7638,1.9942,2.8025,-0.6208,2.6104
2957.0312,3.5414,-1.6637,-2.2130,-0.7516,4.5301,0.0642,-2.7689,3.8014,0.8561,6.1773,5.8002,0.2230,3.3396,6.7905,2.8521,2.2171,3.3001,-2.6739,0.3494
2960.9375,6.4702,-0.2107,-1.9744,-1.5056,3.2970,1.9314,-0.5745,2.7585,0.7062,6.8607,4.2784,-0.1320,2.0908,5.9052,4.5000,0.2400,3.1122,-3.4481,-0.9260
2964.8438,7.4997,2.3106,0.0845,0.3299,3.9357,5.0027,2.9864,3.0862,1.6565,6.1258,2.7254,0.6317,2.4435,5.9079,4.8417,-2.0223,3.7564,-2.2705,0.2893
2968.7500,6.8524,4.8184,3.1134,3.6623,6.4399,8.1131,6.3923,4.7417,3.7680,4.5358,2.2609,2.1410,4.5972,7.1827,4.3041,-2.8786,5.3126,0.3895,3.5020
2972.6562,5.8174,6.3894,5.6960,6.7371,9.2773,9.9647,8.1257,6.7656,6.0117,2.9630,2.9687,3.2581,7.2300,9.0694,3.4720,-1.0458,7.2004,2.9044,6.6655
2976.5625,5.8813,6.7869,6.8789,8.0322,10.6108,10.4861,8.1105,7.8770,7.1950,2.6995,4.3616,3.5804,8.6293,10.2048,3.1342,2.6566,8.5081,4.4933,7.7613
2980.4688,7.3701,6.4029,6.7291,7.4398,10.0071,9.8191,7.2399,7.6004,6.6826,3.4082,5.5260,3.2531,8.2941,9.9602,3.0137,6.4334,9.0498,4.8349,6.9826
2984.3750,9.6225,5.8371,5.7142,6.0480,8.2257,8.4028,6.3747,6.2532,5.4477,4.6155,6.0477,3.1149,6.8217,8.6971,3.1460,8.1874,9.0405,4.6073,5.7190
2988.2812,11.2948,5.2087,4.5250,4.9039,6.3492,6.5675,5.9608,4.6121,4.4941,5.6030,5.7324,3.4369,5.0327,7.1288,3.5896,7.5388,8.5717,4.1208,5.0108
2992.1875,11.0124,4.5041,3.6169,4.2006,5.0693,5.0728,5.6978,3.5484,4.3412,6.3276,5.1178,3.8382,3.6622,5.8866,4.5794,5.7102,7.3996,3.4371,4.7371
2996.0938,8.7908,3.6968,3.1578,3.5823,4.4827,4.2457,5.9929,3.3859,4.5856,7.0798,4.6928,3.9136,2.4588,5.1059,5.8524,4.5171,5.7258,2.3979,4.0212
3000.0000,5.4634,2.6208,2.9908,2.6443,4.0835,4.2263,6.0938,3.9718,4.0992,7.4866,4.2720,2.9868,1.3172,4.5655,6.5449,4.1475,3.7358,0.9258,2.4594
3003.9062,2.5851,1.1435,2.3583,1.2589,3.8400,4.0447,5.6083,4.5878,2.3201,6.9018,3.1104,1.2012,0.2879,4.3743,5.6000,3.4663,1.9829,-1.0536,0.4430
3007.8125,0.7722,-0.5805,0.5857,-0.1385,3.6447,2.5755,3.8334,4.4890,-0.6225,4.6030,0.3127,-1.1511,-0.4855,4.6758,2.5107,0.8515,0.6730,-3.5924,-1.2688
3011.7188,-0.1119,-2.4416,-2.3082,-1.4852,3.8378,0.0145,1.3119,3.8096,-3.7835,1.2920,-3.3576,-3.6810,-1.0130,5.6111,-1.5678,-3.2918,0.1456,-6.4485,-2.5080
3015.6250,-0.6619,-3.2621,-5.2714,-2.1840,4.2242,-2.0724,-0.7352,2.9308,-5.7559,-1.3729,-6.6630,-5.6588,-1.3573,7.1282,-4.9207,-7.2386,0.2568,-8.8605,-3.3918
3019.5312,-0.4139,-2.4653,-6.6500,-1.9996,4.8250,-2.0443,-1.2879,2.9451,-5.6217,-1.6305,-7.4772,-6.7309,-1.6075,8.5541,-5.7776,-8.2880,0.8781,-9.5867,-4.0900
3023.4375,1.8588,0.2247,-5.0629,-0.7241,5.5945,0.9273,0.0374,4.0839,-2.8230,0.2694,-5.1054,-6.6567,-1.2590,9.2531,-4.1131,-5.9324,1.9145,-7.8350,-3.8959
3027.3438,6.6988,4.3487,-0.4217,1.7125,6.7204,5.7468,2.9432,6.4170,1.8760,3.6561,-0.4577,-5.0530,-0.0234,9.0981,-0.8871,-1.7807,2.9776,-3.4219,-1.7351
3031.2500,12.3228,9.5250,5.7903,5.7293,8.6210,10.3336,5.9270,9.1607,7.8179,6.9882,4.7391,-1.6601,3.0134,9.2426,2.8115,2.0941,4.0935,2.6124,2.9085
3035.1562,15.8637,14.4208,12.0787,10.7138,11.2928,13.2142,8.4793,11.7654,13.3317,9.9942,9.3590,3.2697,7.4225,10.5649,6.6348,4.7384,5.3757,8.8889,9.3946
3039.0625,15.8201,17.7896,16.4190,15.5257,13.7348,14.6111,10.5671,13.7683,16.7978,13.4708,12.6964,9.0372,11.6584,12.9095,10.2044,6.4719,6.9193,14.0585,15.3595
3042.9688,13.5208,18.7243,17.6253,18.0488,14.5638,15.4618,12.0036,14.3907,17.6406,16.6710,14.4345,13.5814,14.0709,14.6201,12.6433,8.0469,8.3483,16.7909,18.2045
3046.8750,12.3233,17.6284,15.8207,17.0979,12.6928,16.0623,12.1723,13.3796,16.1714,18.3247,14.6357,14.9373,13.5107,13.9302,13.0733,9.0578,9.1251,16.6597,16.7014
