Time,Fp1,F3,C3,P3,O1,F7,T3,T5,Fz,Fp2,F4,C4,P4,O2,F8,T4,T6,Cz,Pz
0.0000,-0.7271,1.9948,4.6569,3.6643,4.0661,-1.9902,0.7354,4.0602,0.6404,-0.2227,1.3863,2.4615,3.5470,3.7080,2.6139,-2.1111,3.7737,2.1162,4.1788
3.9062,0.5983,0.0191,2.6374,2.9944,3.9060,-2.6474,-0.4589,2.7821,0.1756,0.1566,2.0316,3.5435,3.5280,3.1422,2.3561,0.0842,3.7042,1.2530,3.6716
7.8125,0.5899,-3.2195,-1.1576,1.0969,3.1455,-1.6733,-1.5624,0.6340,-1.1562,-0.8970,1.7728,3.9180,2.5248,1.9797,0.4002,3.0725,2.6915,-0.4873,2.1895
11.7188,-1.3571,-6.8801,-6.0311,-1.8960,1.5429,0.7168,-2.2869,-2.0157,-3.2893,-3.5685,0.1545,2.8170,0.1373,-0.0075,-2.7702,5.8588,0.3560,-2.9249,-0.5106
15.6250,-4.6204,-9.5456,-10.5121,-5.2665,-0.8219,3.4882,-2.5361,-4.5233,-5.5525,-6.9139,-2.4864,0.1976,-3.4024,-2.7662,-5.7596,7.6431,-3.0873,-5.4347,-4.1242
19.5312,-7.4515,-9.9160,-13.0577,-8.0413,-3.5475,5.3835,-2.4583,-6.3022,-6.9135,-9.1696,-5.0952,-3.1548,-7.2511,-5.8964,-7.0669,8.1575,-6.8281,-7.2288,-7.8465
23.4375,-7.9061,-7.6041,-12.9248,-9.5080,-6.1104,5.6130,-2.3739,-7.1447,-6.5659,-8.7341,-6.5072,-6.0855,-10.3818,-8.7989,-6.0530,7.5400,-9.8537,-7.8091,-10.7618
27.3438,-5.0604,-3.5122,-10.6389,-9.5762,-8.1240,4.1897,-2.6111,-7.3069,-4.4920,-5.2153,-6.1848,-7.7637,-12.1332,-10.9517,-3.3827,5.9500,-11.4846,-7.2744,-12.3280
31.2500,0.3155,0.5365,-7.6968,-8.7320,-9.4719,1.7558,-3.3256,-7.2829,-1.5786,0.2073,-4.5475,-8.0979,-12.4866,-12.1239,-0.5957,3.3636,-11.6774,-6.2328,-12.6024
35.1562,6.1460,2.7755,-5.6430,-7.6247,-10.2292,-0.8763,-4.3962,-7.4180,0.8662,5.4402,-2.6303,-7.5783,-11.8759,-12.3788,0.9146,-0.1941,-10.8791,-5.3452,-12.0398
39.0625,10.2926,2.5057,-5.1152,-6.6011,-10.4633,-3.0931,-5.4565,-7.6487,1.9187,8.7651,-1.3126,-6.7113,-10.7046,-11.8868,0.7959,-4.1769,-9.5630,-4.8243,-11.0295
42.9688,11.8221,0.4805,-5.5217,-5.5456,-10.1088,-4.5474,-6.0658,-7.5812,1.6165,9.8711,-0.7059,-5.5505,-8.9900,-10.7282,-0.1375,-7.3328,-7.8366,-4.2888,-9.5705
46.8750,11.4296,-1.6185,-5.5985,-4.1534,-9.0565,-5.0235,-5.9470,-6.8781,0.8763,9.8824,-0.1823,-3.7454,-6.4637,-8.8820,-0.6305,-8.1990,-5.4677,-3.1288,-7.3908
50.7812,10.7429,-2.2952,-4.4640,-2.4109,-7.4041,-4.3671,-5.1689,-5.6688,0.7836,10.3518,0.9664,-1.0859,-3.0741,-6.4338,-0.0116,-6.1126,-2.3314,-1.1373,-4.4495
54.6875,11.0460,-1.1959,-2.3973,-0.8646,-5.6453,-2.6286,-4.1535,-4.6428,1.7595,11.9734,2.7717,1.9402,0.5406,-3.8215,1.2612,-2.0196,1.0966,1.0956,-1.3924
58.5938,12.3748,0.7462,-0.7280,-0.3923,-4.5732,-0.2843,-3.4701,-4.6833,3.2318,14.0035,4.3800,4.1387,3.0896,-1.8513,1.9574,1.6860,3.6735,2.4119,0.5138
62.5000,13.6351,2.0737,-0.8592,-1.5756,-4.8718,1.7730,-3.5027,-6.2376,4.0797,14.8617,4.6312,4.2998,3.2986,-1.3640,1.0729,2.4599,4.1342,1.8690,0.0778
66.4062,13.6041,1.9145,-3.1092,-4.1202,-6.6316,2.6389,-4.1772,-8.8569,3.5366,13.4671,3.0276,2.1435,0.8099,-2.7102,-1.2863,-0.6609,1.9396,-0.4530,-2.9046
70.3125,11.9940,0.6154,-6.2558,-6.8087,-9.1462,2.0077,-4.9389,-11.2831,1.8563,10.2628,0.3232,-1.2323,-3.3540,-5.4041,-3.8251,-6.0813,-2.1836,-3.2603,-7.2156
74.2188,9.7241,-0.5817,-8.2070,-8.1246,-11.2020,0.5222,-5.0428,-12.1149,0.1967,7.0771,-1.8133,-3.8702,-7.2056,-8.2607,-4.8856,-10.2745,-6.4827,-4.7310,-10.7032
78.1250,8.1801,-0.5841,-7.4121,-7.1925,-11.7411,-0.5127,-4.0231,-10.6763,-0.2451,5.8485,-1.9226,-4.2043,-8.9165,-10.0096,-3.5999,-9.8275,-9.1321,-3.7037,-11.5033
82.0312,8.0542,0.5894,-4.0380,-4.3987,-10.4875,0.0121,-2.0643,-7.5218,0.7889,7.1447,0.1162,-2.1948,-7.9315,-10.0179,-0.5352,-3.6895,-9.3009,-0.5658,-9.2211
85.9375,8.7099,1.7090,-0.0280,-1.2196,-8.1051,2.1270,-0.0107,-4.1965,2.2942,9.6255,2.8263,0.5236,-5.2900,-8.6287,2.6550,5.8733,-7.5964,2.8385,-5.2342
89.8438,8.6199,1.2467,2.0916,0.6897,-5.7499,4.5421,1.0480,-2.3458,2.6539,10.9304,4.0407,1.7045,-2.8878,-6.8620,4.3434,14.3739,-5.5568,4.3220,-1.8323
93.7500,6.5817,-1.3396,0.8976,0.5642,-4.2972,5.3334,0.4085,-2.7073,0.8444,9.3965,2.4162,0.1009,-2.1625,-5.6650,4.0246,17.6859,-4.5370,2.8009,-0.7236
97.6562,2.7811,-4.9365,-2.9107,-0.9731,-3.7745,3.1914,-1.7752,-4.6373,-2.6825,5.3481,-1.5055,-3.5049,-3.1190,-5.2452,2.6211,14.5268,-4.7814,-0.9062,-1.9222
101.5625,-1.1520,-7.3256,-6.9057,-2.3480,-3.4109,-1.5864,-4.4985,-6.5043,-6.1405,0.9712,-5.4988,-6.6596,-4.3993,-4.9802,1.7812,7.2538,-5.3547,-4.5207,-3.8076
105.4688,-3.2019,-6.6792,-8.5247,-2.1353,-2.2900,-7.0668,-6.4269,-6.7287,-7.5493,-1.1892,-7.0649,-6.8437,-4.3598,-3.9911,2.6637,0.4295,-4.9808,-5.7509,-4.3364
109.3750,-2.3986,-2.9800,-6.8002,-0.0749,-0.1490,-10.7146,-6.6376,-4.8141,-6.1067,-0.0439,-5.1251,-3.2771,-2.3814,-1.9653,5.0595,-1.9603,-3.1628,-3.7994,-2.5607
113.2812,0.4318,1.6971,-3.0340,2.7029,2.2656,-10.8629,-5.1280,-1.6981,-2.8059,3.2328,-0.8238,2.3415,0.5589,0.4060,7.4647,1.1143,-0.7308,0.0895,0.6354
117.1875,3.1788,4.3719,0.0785,4.4263,3.5952,-7.6871,-2.7653,0.8225,0.1901,6.0074,3.1579,6.7546,2.5114,1.7630,8.0657,7.2314,0.6353,3.4396,3.1347
121.0938,3.8911,3.1148,0.3091,3.9119,2.7951,-3.0592,-0.6993,1.2421,1.0314,6.0485,4.3630,7.2010,1.9725,1.0166,5.9780,12.1727,-0.3905,4.1939,3.1242
125.0000,2.1477,-1.5200,-2.5102,1.4438,-0.0354,0.6176,0.3831,-0.6612,-0.4937,3.1350,2.2235,3.2749,-0.9070,-1.7530,1.9111,12.6234,-3.7027,2.1096,0.4877
128.9062,-0.6005,-6.6052,-6.2589,-1.3173,-3.5289,1.8463,0.6735,-3.6354,-2.7291,-0.7134,-1.5002,-2.6643,-4.2180,-5.1179,-2.1816,8.1821,-7.6151,-1.0411,-2.9552
132.8125,-1.9543,-8.5243,-7.8595,-2.3670,-5.7919,0.8503,1.0427,-5.7071,-3.2204,-2.5296,-3.8262,-6.8614,-5.4445,-7.0634,-4.2515,1.4350,-9.8120,-2.6170,-4.5854
136.7188,-0.1209,-5.2142,-5.3250,-0.6780,-5.5835,-0.7066,2.3482,-5.4175,-0.3968,-0.3184,-2.4995,-6.4785,-3.1413,-6.2568,-3.3789,-3.8688,-8.8038,-0.8645,-2.7582
140.6250,4.9357,2.4439,0.8015,3.0493,-3.1700,-0.8773,4.7000,-2.7722,5.2480,5.6785,2.4841,-1.3929,1.9791,-2.9995,-0.3118,-5.2889,-4.9235,3.8505,1.9744
144.5312,11.4671,10.9730,7.5566,6.7014,-0.2668,1.2711,7.1848,0.6903,11.2705,13.1451,8.7619,5.6602,7.3028,0.8069,3.0002,-3.1808,-0.1934,9.1277,7.0301
148.4375,16.9852,16.1899,11.1742,7.9497,0.9486,4.9955,8.2655,2.7599,14.6349,19.0731,12.9683,10.6861,9.7935,2.7272,4.5779,-0.2594,2.8683,11.8832,9.2717
152.3438,19.6519,15.4930,9.2323,5.6004,-0.8342,8.2214,6.6472,1.8290,13.4683,21.4034,12.7165,10.7714,7.7803,1.2644,3.5720,0.4175,2.7443,10.1293,6.8673
156.2500,19.1445,9.2020,2.0488,0.2851,-5.2139,8.6883,2.1006,-2.1803,8.1379,19.9208,7.9746,5.7341,1.9564,-3.1776,0.7153,-2.3381,-0.2135,4.1148,0.3857
160.1562,16.5512,0.2346,-7.4666,-5.8950,-10.2502,5.2618,-4.2498,-7.7673,1.0285,16.0050,1.0310,-1.8718,-5.0017,-8.4526,-2.1840,-6.9291,-4.0510,-3.8143,-7.5082
164.0625,13.5045,-7.5770,-15.3625,-10.5210,-13.5584,-1.2851,-10.3563,-12.6773,-4.7887,11.5997,-4.8624,-8.3187,-9.9204,-11.8699,-3.3801,-9.9728,-6.4001,-10.4863,-13.5167
167.9688,11.1947,-11.4688,-18.6676,-12.1064,-13.6631,-8.4460,-14.1648,-15.0914,-7.1657,8.1645,-7.2969,-10.8185,-10.8110,-11.7129,-2.2504,-8.5482,-5.8360,-13.5225,-15.4264
171.8750,9.8787,-10.9048,-16.7562,-10.7391,-10.8016,-13.0661,-14.5309,-14.4939,-5.8402,6.2152,-5.8847,-8.9210,-7.7891,-8.1779,0.3716,-2.1839,-2.6087,-12.3929,-13.1078
175.7812,9.0985,-7.3923,-11.3896,-7.8209,-6.7257,-12.8506,-11.6720,-11.7688,-2.2843,5.5496,-2.1861,-4.4548,-2.7950,-3.2029,2.7916,6.7454,1.6083,-8.4088,-8.3372
179.6875,8.3478,-3.2609,-5.5461,-5.1432,-3.6603,-7.5722,-6.9696,-8.5501,1.3469,5.8057,1.4471,-0.1974,1.5990,0.6661,3.5954,14.4753,4.7163,-3.7921,-3.6806
183.5938,7.6683,-0.2546,-1.7882,-3.8870,-3.0683,0.6612,-2.2758,-6.2659,3.4736,6.8762,3.3240,1.8105,3.5428,1.6762,2.5944,18.1645,5.3131,-0.4475,-1.1516
187.5000,7.7501,1.2380,-1.0714,-4.1073,-4.9342,8.3054,0.9063,-5.4391,3.8297,8.9114,3.2742,1.2799,2.6911,-0.2702,0.9419,17.4949,3.3281,0.8762,-1.3514
191.4062,9.4480,1.9863,-2.5551,-4.9192,-7.9227,12.0897,1.9911,-5.5902,3.3387,11.9730,2.4685,-0.4913,0.1029,-3.7248,0.3080,14.4944,-0.0959,0.6610,-3.4351
195.3125,13.0066,3.0395,-4.3740,-5.1873,-10.2324,10.6966,1.4160,-5.7061,3.3067,15.6236,2.4190,-1.7048,-2.5359,-6.6212,1.6292,11.7724,-3.3055,0.0346,-5.7686
199.2188,17.4961,4.8116,-4.8347,-4.2599,-10.5904,5.4874,0.3017,-4.9310,4.4814,18.7572,3.8570,-1.2910,-3.8487,-7.4250,4.2754,10.4861,-4.9888,-0.0340,-6.8420
203.1250,20.8824,6.7126,-3.3416,-2.3261,-8.8257,-0.2128,-0.1435,-3.0609,6.5408,19.8320,6.2056,0.4924,-3.3695,-5.8517,6.2569,9.5459,-4.7327,0.7221,-5.9719
207.0312,20.8286,7.5117,-0.5926,-0.2390,-5.7714,-2.9679,0.7921,-0.6014,8.2835,17.4621,7.9453,2.3777,-1.5855,-2.8186,5.4346,6.6675,-3.0621,1.8423,-3.5155
210.9375,15.8934,6.1589,1.9687,1.0307,-2.6652,-1.2130,2.9886,1.5724,8.3666,11.1329,7.5962,3.0091,0.4776,0.2323,1.0066,0.5086,-1.0236,2.5503,-0.5808
214.8438,6.4988,2.5284,3.0488,0.9559,-0.4665,3.8049,5.5464,2.7024,6.1345,1.6998,4.6742,1.8140,1.8324,2.1691,-5.7119,-7.7247,0.4083,2.2886,1.5651
218.7500,-4.9316,-2.3772,2.2053,-0.2954,0.5187,8.7446,7.2071,2.4955,2.0490,-8.6465,0.0247,-0.7182,1.9640,2.6726,-11.8093,-14.5040,0.7821,1.0407,2.0914
222.6562,-14.8694,-6.8885,-0.0220,-2.0300,0.5696,10.1770,6.9692,1.1762,-2.5172,-17.0685,-4.6469,-3.4489,0.9553,2.1821,-14.3762,-16.0528,0.2703,-0.7197,0.9369
226.5625,-20.2487,-9.5235,-2.5545,-3.4772,0.1854,6.6877,4.6121,-0.7212,-5.9875,-21.2155,-7.7247,-5.3440,-0.6793,1.4198,-12.2370,-10.9234,-0.5764,-2.3630,-1.2458
230.4688,-19.9107,-9.7323,-4.4578,-4.2207,-0.2817,-0.2287,0.8609,-2.6569,-7.3660,-20.2967,-8.5125,-6.0343,-2.3093,0.8622,-6.7269,-1.2834,-1.2317,-3.4693,-3.4729
234.3750,-15.1350,-8.1055,-5.4187,-4.3582,-0.7691,-7.0643,-2.9245,-4.3019,-6.6544,-15.5143,-7.4618,-5.8488,-3.4685,0.4987,-0.9876,8.0689,-1.4981,-3.9848,-4.9223
238.2812,-8.9394,-5.9411,-5.7468,-4.3187,-1.3839,-10.4447,-5.3991,-5.5777,-4.6979,-9.5448,-5.7199,-5.3745,-3.9839,-0.0150,1.8273,12.4168,-1.5431,-4.1013,-5.2772
242.1875,-4.5175,-4.4529,-5.9733,-4.4893,-2.1692,-9.1792,-5.8883,-6.5453,-2.6105,-5.2630,-4.3481,-4.9216,-3.9347,-0.9815,0.3622,9.8562,-1.6871,-3.9916,-4.7659
246.0938,-3.6674,-4.1066,-6.3799,-4.9171,-2.9619,-4.9117,-4.6850,-7.2537,-1.1653,-4.3533,-3.7304,-4.2989,-3.5216,-2.3710,-4.1982,2.3330,-2.1290,-3.6332,-3.9264
250.0000,-6.0489,-4.4731,-6.8095,-5.2879,-3.4560,-0.9636,-2.8190,-7.6564,-0.5150,-6.5512,-3.5121,-3.0490,-2.9547,-3.8313,-8.8693,-5.5963,-2.8171,-2.8694,-3.2791
253.9062,-9.6052,-4.6509,-6.8712,-5.1899,-3.4240,-0.1216,-1.4329,-7.6414,-0.3477,-9.9204,-3.0307,-0.9474,-2.4197,-4.9746,-10.6052,-9.4055,-3.5519,-1.6611,-3.1123
257.8125,-11.8219,-3.9474,-6.3417,-4.4694,-2.9261,-2.8081,-1.1377,-7.1365,-0.2895,-11.9885,-1.8897,1.6216,-2.1043,-5.6994,-7.9910,-6.9879,-4.2077,-0.3142,-3.4673
261.7188,-11.0832,-2.3700,-5.4175,-3.4137,-2.3367,-6.8191,-1.7298,-6.2017,-0.2272,-11.0993,-0.2792,3.7089,-2.2041,-6.2730,-1.9419,0.5145,-4.8618,0.5422,-4.2481
265.6250,-7.4321,-0.6304,-4.6008,-2.6133,-2.1386,-8.7991,-2.4212,-5.0324,-0.3390,-7.2689,1.1336,4.2646,-2.8494,-7.0806,4.8835,9.6402,-5.6919,0.2750,-5.3101
269.5312,-2.4495,0.2918,-4.3064,-2.5763,-2.5965,-6.5003,-2.4112,-3.8628,-0.8718,-2.1545,1.6127,2.7298,-3.9785,-8.2111,9.5074,16.4604,-6.7091,-1.3215,-6.4449
273.4375,1.5552,-0.2947,-4.5160,-3.3534,-3.5273,-0.3723,-1.4221,-2.8364,-1.8936,1.7658,0.7595,-0.6195,-5.2631,-9.2122,10.0531,18.2250,-7.5671,-3.7912,-7.3215
277.3438,2.5925,-2.4736,-4.7891,-4.4451,-4.3422,6.5344,0.1308,-1.9427,-3.2344,2.3486,-1.3250,-4.7904,-6.2002,-9.2607,6.4607,14.1405,-7.6736,-6.1847,-7.5244
281.2500,-0.1595,-5.7757,-4.6540,-5.0843,-4.3819,10.3024,1.4129,-1.0844,-4.6388,-1.2431,-4.1534,-8.5681,-6.3778,-7.7123,0.2856,5.3167,-6.6083,-7.5703,-6.7640
285.1562,-5.9728,-9.4712,-4.0800,-4.7340,-3.3683,8.4478,1.6779,-0.2462,-5.9579,-8.1156,-7.0922,-11.0814,-5.7807,-4.6918,-6.1449,-5.7237,-4.5816,-7.5748,-5.1626
289.0625,-12.7405,-12.8370,-3.6256,-3.4763,-1.6937,1.3978,0.6746,0.3511,-7.1774,-15.8830,-9.5494,-12.1149,-4.9175,-1.2959,-10.7200,-15.7101,-2.5617,-6.5904,-3.3844
292.9688,-17.6633,-15.2412,-4.0758,-2.0203,-0.3300,-7.7080,-1.2732,0.2511,-8.2409,-21.4800,-11.0438,-12.0268,-4.6231,0.8151,-12.2644,-21.4842,-1.8719,-5.4931,-2.4220
296.8750,-18.2807,-16.1126,-5.7852,-1.2923,-0.3512,-14.7162,-3.5042,-1.0242,-8.8389,-22.2971,-11.2162,-11.3783,-5.5842,0.2747,-10.8013,-21.0824,-3.4240,-5.0447,-3.0677
300.7812,-13.5115,-14.9888,-8.2108,-1.8472,-2.3027,-16.6188,-5.3687,-3.6303,-8.4085,-17.2578,-9.8786,-10.5338,-7.8422,-3.1636,-7.3731,-14.7206,-7.0492,-5.3781,-5.3594
304.6875,-4.2552,-11.7538,-10.0434,-3.4712,-5.7752,-12.9517,-6.4613,-7.1251,-6.4399,-7.3972,-7.1174,-9.4725,-10.5945,-8.3412,-3.5408,-5.0345,-11.3879,-5.9167,-8.3746
308.5938,6.8106,-6.9406,-9.9396,-5.2387,-9.4587,-5.7558,-6.6496,-10.4684,-2.9275,4.3860,-3.3704,-7.8963,-12.4743,-13.1578,-0.7326,3.9042,-14.4781,-5.7924,-10.5807
312.5000,16.2551,-1.8114,-7.4125,-6.0132,-11.6990,1.6958,-5.9831,-12.3729,1.3642,14.4050,0.6225,-5.5391,-12.2120,-15.5545,0.3361,8.5509,-14.7387,-4.4844,-10.6073
316.4062,21.3014,1.9963,-3.2814,-5.1045,-11.2950,6.5485,-4.6275,-11.8810,5.0723,19.6626,4.0085,-2.4813,-9.3376,-14.4827,-0.0697,7.7765,-11.7848,-2.2479,-8.0212
320.3125,20.9175,3.1768,0.6581,-2.6978,-8.1288,7.4820,-2.8928,-8.8876,6.8163,19.0355,6.0648,0.7177,-4.5329,-10.3493,-0.9127,3.4368,-6.6108,-0.0396,-3.6479
324.2188,16.0393,1.4335,2.5725,0.1969,-3.2974,4.8503,-1.2832,-4.3221,5.8742,13.5803,6.3742,3.1511,0.5819,-4.7476,-1.0139,-0.8912,-1.0733,1.0219,0.7620
328.1250,8.8875,-2.3134,1.5663,2.2440,1.3272,0.0454,-0.4342,0.1436,2.5602,5.8490,4.8822,3.9142,4.1314,0.3148,0.2022,-2.2884,2.9855,0.3170,3.3498
332.0312,1.8682,-6.3681,-1.8925,2.4513,3.8933,-5.3376,-0.8734,2.7549,-1.9090,-1.3499,1.8791,2.5233,4.7952,3.2480,2.2817,-0.4257,4.4690,-1.9020,3.0092
335.9375,-3.2798,-9.1121,-6.3127,0.6494,3.3434,-10.0321,-2.7040,2.4097,-5.9617,-6.0395,-2.0207,-0.7826,2.3532,3.3830,3.9296,2.2900,3.2777,-4.6420,-0.1466
339.8438,-5.7176,-9.7566,-10.0078,-2.4484,-0.1732,-13.1974,-5.4184,-0.8613,-8.3087,-7.5055,-5.9001,-5.0105,-2.2672,1.0155,3.7525,2.4862,0.0926,-6.6956,-4.8997
343.7500,-5.2527,-8.5554,-11.8719,-5.6003,-5.3954,-14.3073,-8.0124,-5.8821,-8.3503,-6.0499,-8.6429,-8.6984,-7.4113,-2.8796,1.1387,-1.6974,-4.0375,-7.2296,-9.5006
347.6562,-2.0416,-6.4026,-11.6734,-7.5922,-10.4675,-13.1203,-9.3934,-10.7831,-6.2219,-2.4558,-9.2075,-10.4294,-11.3451,-7.0340,-3.2540,-9.1265,-8.0209,-6.1027,-12.3746
351.5625,3.4303,-4.1441,-9.8229,-7.7211,-13.6449,-9.8187,-8.8822,-13.7255,-2.5690,2.4029,-7.0301,-9.3702,-12.8431,-10.2197,-7.7158,-16.1818,-10.8707,-3.7845,-12.6489
355.4688,10.1728,-2.0863,-6.9156,-6.0104,-13.9163,-5.1308,-6.5310,-13.6051,1.7543,7.6672,-2.3664,-5.6055,-11.5167,-11.5118,-10.2987,-18.8666,-11.7930,-1.0049,-10.3423
359.3750,16.6978,0.0029,-3.4306,-3.1181,-11.3379,-0.1892,-3.0832,-10.4680,5.9176,12.4949,3.6694,-0.1205,-7.8366,-10.5196,-9.7708,-15.0859,-10.3645,1.6070,-6.2398
363.2812,21.4689,2.4769,0.2506,-0.0336,-6.9847,3.9256,0.3903,-5.4840,9.2478,16.1971,9.4674,5.5549,-2.9170,-7.5618,-6.1952,-5.6799,-6.7975,3.6903,-1.5759
367.1875,23.6212,5.3329,3.6389,2.2865,-2.5396,6.7044,2.9679,-0.4858,11.3023,18.5050,13.5371,9.8748,1.8322,-3.6701,-0.8632,6.2324,-2.0955,5.0936,2.3459
371.0938,23.4120,8.0342,6.0336,3.2105,0.3423,8.4094,4.2122,2.7557,11.9105,19.7006,15.0508,11.7576,5.0931,-0.3034,4.3182,16.9222,2.1335,5.7208,4.5056
375.0000,21.9627,9.7381,6.6937,2.5800,0.6674,9.7562,4.2241,3.2358,11.1660,20.3523,14.0304,10.8508,5.9905,1.1986,7.6296,23.5885,4.2536,5.4466,4.4224
378.9062,20.3826,9.7468,5.2080,0.6948,-1.5199,11.2567,3.4431,1.1025,9.3488,20.7387,11.1314,7.5426,4.3313,0.2045,8.1537,25.0318,3.3367,4.1766,2.2565
382.8125,18.9207,7.8704,1.7996,-1.8360,-5.1967,12.6929,2.3518,-2.4606,6.8065,20.4107,7.2327,2.7824,0.6548,-2.8955,5.9951,21.5256,-0.3490,1.9959,-1.2824
386.7188,16.8556,4.5000,-2.6728,-4.3220,-8.8495,13.1358,1.2498,-5.8197,3.8719,18.3644,3.1249,-2.1912,-3.9446,-6.8561,2.1115,14.4142,-5.4075,-0.7304,-5.2006
390.6250,13.2872,0.4078,-7.0423,-6.2157,-11.1676,11.5468,0.1898,-7.6732,0.8741,13.8577,-0.5600,-6.1542,-8.1847,-10.1645,-2.1038,5.8112,-9.9424,-3.4057,-8.5591
394.5312,8.2305,-3.5468,-10.2947,-7.2526,-11.5952,7.5624,-0.9357,-7.6374,-1.7875,7.3213,-3.2690,-8.1987,-11.0214,-11.7342,-5.3207,-1.7160,-12.4165,-5.3961,-10.7474
398.4375,3.0777,-6.6315,-11.8936,-7.4571,-10.4632,1.8990,-2.2363,-6.3285,-3.6169,0.5901,-4.5141,-7.9860,-11.9608,-11.3318,-6.7021,-5.8011,-12.2821,-6.2641,-11.5801
402.3438,-0.0841,-8.3257,-11.8234,-7.0285,-8.6544,-3.9298,-3.6825,-4.9028,-4.1361,-3.9094,-4.0404,-5.8603,-11.1314,-9.5284,-6.1417,-5.2768,-10.0746,-5.9115,-11.2069
406.2500,0.0928,-8.3442,-10.4059,-6.1842,-7.0292,-8.4016,-5.0491,-4.3316,-3.1203,-4.5903,-2.0678,-2.7295,-9.1064,-7.2640,-4.2220,-0.9587,-6.9806,-4.5609,-9.9260
410.1562,3.0938,-6.6841,-8.0741,-5.0575,-5.9709,-10.7426,-5.9705,-4.8429,-0.8057,-1.7757,0.6420,0.2954,-6.5895,-5.3264,-1.8948,4.5219,-4.1779,-2.6117,-8.0320
414.0625,6.6585,-3.7037,-5.2627,-3.7105,-5.3100,-11.1490,-6.0904,-5.8624,2.0984,2.4092,3.0477,2.3629,-4.1372,-4.0496,-0.0215,8.0449,-2.3286,-0.4782,-5.7794
417.9688,8.1590,-0.1554,-2.4367,-2.2409,-4.6225,-10.3826,-5.2501,-6.4684,4.6444,5.3139,4.3136,3.2039,-2.0457,-3.3484,0.9835,7.7951,-1.4543,1.4889,-3.4463
421.8750,6.2910,2.9191,-0.1524,-0.8915,-3.6532,-9.1030,-3.6219,-6.0521,6.0056,5.3315,4.1959,3.1223,-0.4191,-2.9718,1.2034,4.3047,-1.1729,2.9726,-1.4095
425.7812,1.8535,4.4547,0.9777,-0.0580,-2.5476,-7.4621,-1.7001,-4.7475,5.7558,2.6651,3.0516,2.6582,0.6798,-2.7453,0.9429,-0.0675,-1.0773,3.6256,-0.1294
429.6875,-2.9287,3.7214,0.4656,-0.1525,-1.7435,-5.2286,-0.1210,-3.3557,3.9388,-1.1773,1.4730,2.1584,1.1360,-2.6364,0.3453,-2.9053,-1.0007,3.0872,-0.0127
433.5938,-5.9742,0.6521,-1.7931,-1.3750,-1.6272,-2.2609,0.6252,-2.8230,0.9652,-4.6360,-0.1424,1.5722,0.8361,-2.6481,-0.7775,-3.4463,-1.0305,1.1502,-1.2017
437.5000,-6.5804,-3.9850,-5.3174,-3.5164,-2.2241,1.1300,0.4463,-3.6199,-2.5100,-7.0275,-1.7169,0.6428,-0.1595,-2.6803,-2.7264,-2.9048,-1.3057,-1.9755,-3.3996
441.4062,-5.4201,-8.6650,-9.0245,-5.9193,-3.1525,4.2708,-0.2826,-5.4163,-5.6285,-8.4226,-3.2018,-0.6370,-1.4518,-2.5013,-5.4368,-3.1358,-1.7614,-5.4711,-5.8395
445.3125,-3.4416,-11.4766,-11.4590,-7.6500,-3.8586,6.5984,-0.8935,-7.2415,-7.3516,-8.7155,-4.1501,-1.6718,-2.3031,-1.8645,-8.1258,-4.7106,-2.0086,-7.9870,-7.4564
449.2188,-0.7265,-10.7506,-11.2450,-7.8317,-3.9487,8.0908,-0.7652,-8.0080,-6.6407,-6.8935,-3.6127,-1.3669,-1.8799,-0.6828,-9.4285,-6.0305,-1.4567,-8.0790,-7.2396
453.1250,3.6169,-5.7858,-7.6445,-6.0087,-3.3862,9.2407,0.3434,-7.0717,-2.8964,-1.4128,-0.6179,1.2559,0.3272,0.8673,-8.0683,-4.3553,0.3535,-4.8815,-4.6603
457.0312,10.3512,2.6180,-1.0285,-2.3880,-2.4447,10.5341,2.1452,-4.5235,3.4959,8.3730,4.9860,6.2615,4.1065,2.3782,-3.6971,1.9002,3.3695,1.2931,-0.0120
460.9375,18.7107,12.1475,6.9774,2.1485,-1.5011,11.8410,3.9352,-1.1047,10.8893,20.8124,11.9228,12.3613,8.3914,3.3526,2.6581,11.3607,6.8270,8.7890,5.5119
464.8438,25.9933,19.6568,13.8529,6.2873,-0.8456,12.2596,4.8982,2.1402,16.7230,31.8909,17.6817,17.2205,11.5419,3.3688,8.9165,19.9203,9.4047,15.0723,10.1095
468.7500,28.7243,22.3829,17.0394,8.7115,-0.6281,10.6396,4.4623,4.2632,18.5143,36.9454,19.5888,18.4685,11.9894,2.2085,12.9240,23.1006,9.7442,17.7121,11.9953
472.6562,24.7424,19.1806,15.0135,8.5728,-0.9076,6.4784,2.5421,4.7008,15.0695,33.2479,16.2198,14.9117,8.9822,-0.0690,13.5361,19.0097,7.1294,15.4575,10.1484
476.5625,14.7520,11.1373,8.0893,5.8335,-1.6816,0.5426,-0.4139,3.4055,7.2357,21.7643,8.3122,7.2767,3.0639,-3.0918,11.1473,9.8247,1.9792,8.8785,4.8537
480.4688,2.1758,1.1648,-1.5155,1.3339,-2.8138,-5.2925,-3.5684,0.8457,-2.3129,6.8154,-1.4212,-1.9621,-4.0016,-6.1953,7.3452,0.6762,-4.1636,0.2152,-2.2574
484.3750,-8.6749,-7.3018,-10.5025,-3.4688,-3.9214,-8.9591,-5.9700,-2.1068,-10.2352,-6.2447,-9.5282,-9.6183,-9.8931,-8.5420,3.9200,-3.4005,-9.2249,-7.5398,-8.7663
488.2812,-14.9214,-11.8537,-15.8828,-7.0169,-4.3770,-9.3098,-6.8669,-4.4092,-14.0502,-13.8709,-13.4256,-13.1704,-12.7049,-9.3647,1.8576,-0.4691,-11.5275,-11.9014,-12.4249
492.1875,-16.4358,-12.0930,-16.2598,-8.2254,-3.5314,-6.7200,-5.9663,-5.1903,-13.2169,-15.9138,-12.5069,-11.7972,-11.7655,-8.2764,0.9285,7.2492,-10.5779,-11.8891,-12.0843
496.0938,-15.4315,-9.5479,-12.3353,-6.8736,-1.0852,-2.8248,-3.5523,-4.1046,-9.2090,-15.0802,-8.2104,-6.6030,-7.8867,-5.4952,0.0698,14.8128,-7.2721,-8.2932,-8.1459
500.0000,-14.7962,-6.6288,-6.3807,-3.6421,2.6216,0.3961,-0.4033,-1.5270,-4.6030,-14.8429,-3.1254,0.0005,-2.9128,-1.8271,-1.7551,17.4329,-3.3890,-3.1285,-2.3127
503.9062,-16.3767,-5.2734,-0.9970,0.2156,6.6317,1.5906,2.4876,1.5586,-1.7319,-17.2882,0.2943,5.3801,1.1831,1.6378,-4.8077,12.9642,-0.6524,1.3882,3.2245
507.8125,-20.2189,-6.0473,2.1172,3.4010,9.7441,0.5259,4.2876,3.9689,-1.6382,-22.1949,0.7374,7.7070,3.1686,3.9777,-8.4018,2.6907,0.0965,3.7917,6.7344
511.7188,-24.9267,-8.1285,2.7188,5.0411,11.0389,-2.0444,4.6310,4.8340,-3.8075,-27.6073,-1.6322,6.5087,2.9334,4.7924,-11.3567,-9.6904,-0.8476,3.8011,7.5507
515.6250,-28.5567,-10.0355,1.6829,4.8972,10.2381,-4.8850,3.7007,3.9394,-6.6908,-31.1621,-5.5038,2.6207,1.2334,4.2536,-12.7220,-19.9596,-2.4766,2.1151,6.0779
519.5312,-29.3618,-10.5580,0.1292,3.2670,7.7040,-6.7850,2.0445,1.7174,-8.6216,-31.1709,-9.1157,-2.3236,-0.9685,2.8443,-12.2917,-25.0165,-3.8357,-0.1947,3.2950
523.4375,-26.1602,-9.3321,-1.3459,0.7072,4.1288,-6.8734,0.2381,-1.0647,-8.6160,-26.9860,-10.9757,-6.5849,-3.1087,0.9919,-10.6157,-23.6725,-4.6060,-2.2822,0.1236
527.3438,-18.5767,-6.8319,-2.8430,-2.2245,0.1726,-4.7966,-1.3990,-3.6938,-6.7085,-18.8911,-10.3719,-8.9191,-5.1947,-1.1365,-8.5722,-16.6594,-5.1365,-3.7990,-2.9482
531.2500,-7.4076,-3.9446,-4.7318,-5.0737,-3.6963,-0.8768,-2.8633,-5.7341,-3.7742,-8.0106,-7.5686,-8.9174,-7.4931,-3.5362,-6.8338,-6.2026,-5.9633,-4.7841,-5.8200
535.1562,5.0684,-1.4946,-7.0455,-7.4531,-7.1069,3.7832,-4.2943,-7.0063,-1.0246,3.6134,-3.6677,-7.0293,-10.0247,-6.0726,-5.5724,4.6224,-7.2213,-5.3698,-8.4509
539.0625,15.3612,0.0074,-9.2225,-8.9901,-9.6124,7.4530,-5.7195,-7.4406,0.5411,13.1326,-0.1786,-4.3121,-12.2905,-8.2678,-4.5446,12.7336,-8.4174,-5.5764,-10.5703
542.9688,19.9447,0.3593,-10.4138,-9.3812,-10.6811,8.3469,-6.9280,-6.9970,0.4946,17.6193,1.5684,-2.0136,-13.4686,-9.3994,-3.4329,16.0150,-8.7480,-5.3479,-11.6882
546.8750,16.9449,-0.4422,-10.1230,-8.5618,-9.9368,5.4778,-7.5762,-5.7435,-0.9649,15.3318,0.9394,-1.1298,-12.9620,-8.9025,-2.1722,14.0773,-7.7269,-4.7587,-11.4165
550.7812,7.3157,-2.2672,-8.6784,-6.8643,-7.4893,-0.6650,-7.4456,-3.9919,-3.2336,6.7905,-1.7941,-2.0777,-10.8936,-6.8088,-1.0454,8.3398,-5.6362,-4.1745,-9.8503
554.6875,-5.4324,-4.8457,-7.1483,-4.9995,-4.0651,-8.1132,-6.6439,-2.3011,-5.6632,-5.2013,-5.6610,-4.5799,-8.1549,-3.8792,-0.5114,1.2524,-3.4289,-4.1764,-7.6906
558.5938,-16.9937,-7.7721,-6.7181,-3.7923,-0.7613,-14.2360,-5.5755,-1.2453,-7.8602,-16.8378,-9.4880,-7.7874,-5.9186,-1.2666,-0.9058,-4.9535,-2.1105,-5.2379,-5.9487
562.5000,-24.4732,-10.5835,-7.9343,-3.7768,1.4803,-16.9805,-4.6787,-1.0617,-9.7591,-25.1789,-12.3920,-10.5838,-4.9141,0.1217,-2.2150,-9.2018,-2.0259,-7.3460,-5.3752
566.4062,-27.5843,-12.8788,-10.3207,-4.8797,2.3469,-15.8194,-4.1169,-1.4427,-11.4355,-29.3796,-13.9919,-11.9637,-4.9589,0.1565,-4.0506,-11.6014,-2.5797,-9.8346,-5.9727
570.3125,-28.0554,-14.3776,-12.6181,-6.4007,2.2522,-11.8488,-3.6587,-1.6838,-12.7972,-30.4618,-14.2752,-11.3611,-5.0862,-0.4590,-5.8126,-12.6555,-2.6290,-11.5891,-6.9324
574.2188,-27.7645,-14.8682,-13.4813,-7.3343,1.9817,-7.0276,-2.8558,-1.1442,-13.3998,-29.8939,-13.3110,-8.8330,-4.2127,-0.6790,-6.9281,-12.3927,-1.3161,-11.5569,-7.0800
578.1250,-27.0660,-14.1238,-12.1923,-6.8745,2.1307,-3.0978,-1.4069,0.2705,-12.5710,-28.1516,-11.0954,-5.0436,-1.9110,0.1534,-7.0390,-10.2182,1.2281,-9.2993,-5.5851
582.0312,-24.6081,-11.9336,-8.9782,-4.8302,2.7214,-0.8670,0.5513,1.9600,-9.8268,-24.4316,-7.6718,-1.0525,1.2323,1.8189,-6.0770,-5.6547,3.8188,-5.2766,-2.5051
585.9375,-18.7621,-8.3134,-4.8130,-1.7337,3.2542,-0.1942,2.4447,2.9542,-5.3270,-17.7401,-3.4049,2.0358,3.9209,3.3162,-4.2470,0.6818,4.8836,-0.6997,1.1791
589.8438,-9.4988,-3.7703,-0.8998,1.4042,3.1298,-0.4826,3.5768,2.5193,-0.0381,-8.4280,0.8814,3.4540,4.9301,3.4974,-1.9717,6.8277,3.4566,2.9854,4.0702
593.7500,0.8318,0.6343,1.8299,3.5466,2.1251,-1.1771,3.5549,0.6432,4.5778,1.1792,4.1131,3.0457,3.8610,1.8454,0.1749,10.3786,-0.1361,4.7203,5.1079
597.6562,8.5386,3.6059,2.9665,4.0589,0.5823,-1.9031,2.5458,-1.9324,7.2213,7.7381,5.4572,1.3146,1.3941,-1.1060,1.5678,10.0324,-4.3472,4.2599,4.1261
601.5625,10.7619,4.2385,2.6002,2.9224,-0.8008,-2.3066,1.1857,-4.1495,7.3866,8.8541,4.7806,-0.7933,-1.1010,-3.9796,1.6996,6.6178,-7.2009,2.2117,1.8997
605.4688,7.2171,2.5709,1.1552,0.6718,-1.4055,-1.9582,0.2017,-5.2415,5.5718,4.6365,2.7337,-2.2970,-2.3360,-5.2670,0.4014,2.7314,-7.3252,-0.3029,-0.3240
609.3750,0.2597,-0.3320,-0.7944,-1.8758,-1.0415,-0.5908,-0.0195,-5.1103,2.9317,-2.3386,0.3678,-2.6065,-1.7770,-4.1237,-1.9838,1.1140,-4.6177,-2.1870,-1.5188
613.2812,-6.7260,-2.9273,-2.6947,-3.9670,0.0035,1.4606,0.3515,-4.2613,0.5844,-8.6702,-1.4818,-1.7721,0.1492,-0.7973,-4.6170,2.8748,-0.1987,-2.8570,-1.4022
617.1875,-11.4003,-4.1004,-4.1925,-5.1983,1.1887,3.0825,0.7017,-3.4005,-0.9969,-12.2087,-2.6367,-0.4390,2.3678,3.5126,-6.4485,6.8343,4.2421,-2.4749,-0.5221
621.0938,-13.5350,-3.8687,-5.3073,-5.6456,2.0146,2.8426,0.3392,-3.0108,-2.1438,-13.1008,-3.5578,0.4709,3.7357,7.2277,-6.6946,10.4496,7.2648,-1.8382,0.0918
625.0000,-14.4580,-3.3996,-6.4780,-5.7936,2.1839,-0.0443,-1.1158,-3.1821,-3.6362,-13.1477,-4.9045,0.1959,3.5389,9.0563,-5.2708,11.6192,8.2041,-1.9784,-0.5129
628.9062,-15.5086,-4.2758,-8.3604,-6.2811,1.5789,-4.8968,-3.5265,-3.7405,-6.0862,-14.0840,-6.9938,-1.5170,1.6859,8.4226,-2.9076,10.0377,7.1999,-3.6398,-2.7440
632.8125,-16.7978,-7.4398,-11.3847,-7.5528,0.1708,-9.6163,-6.3124,-4.4946,-9.4585,-16.1355,-9.5288,-4.3119,-1.3996,5.5297,-0.8151,7.1546,4.8599,-6.8665,-6.2963
636.7188,-17.1925,-12.4791,-15.3028,-9.5745,-1.9997,-11.7837,-8.7369,-5.3751,-13.0100,-17.8968,-11.7571,-7.4060,-5.0357,1.1305,-0.0296,4.8767,1.8548,-10.9013,-10.3195
640.6250,-15.3857,-17.7148,-19.0592,-11.7740,-4.7447,-10.1973,-10.2492,-6.3842,-15.6556,-17.4999,-12.9224,-9.9593,-8.5325,-3.8158,-0.7965,4.0791,-1.3224,-14.4771,-13.8058
644.5312,-11.0725,-21.0534,-21.1911,-13.2852,-7.6634,-5.7976,-10.7142,-7.4643,-16.5223,-14.0706,-12.6945,-11.4506,-11.3700,-8.4521,-2.3717,4.0622,-4.3905,-16.3997,-16.0148
648.4375,-5.2587,-21.0823,-20.6193,-13.4024,-10.2244,-1.2389,-10.4289,-8.4550,-15.3731,-8.3393,-11.3150,-11.8799,-13.3048,-12.2280,-3.3978,3.2880,-7.2173,-16.1442,-16.7583
652.3438,0.4893,-17.7533,-17.3694,-11.9995,-12.0009,0.7328,-9.9250,-9.1923,-12.6858,-2.0192,-9.4036,-11.6960,-14.4035,-14.9832,-2.6666,0.7261,-9.7686,-14.1377,-16.4322
656.2500,5.1680,-12.2768,-12.7119,-9.6438,-12.9027,-0.9370,-9.6493,-9.6419,-9.3713,3.4530,-7.5743,-11.4731,-14.9585,-16.8929,0.1719,-3.2825,-12.0738,-11.5288,-15.7701
660.1562,8.9023,-6.3479,-8.5267,-7.2886,-13.1989,-4.8758,-9.6756,-9.8949,-6.2961,7.7869,-6.0932,-11.4929,-15.2628,-18.2702,4.3781,-7.2795,-14.1412,-9.5243,-15.4095
664.0625,12.5498,-1.2205,-6.2060,-5.6969,-13.2652,-8.1363,-9.6049,-9.9814,-3.8528,11.6961,-4.7472,-11.4606,-15.3223,-19.2746,8.5086,-9.7762,-15.8018,-8.6505,-15.4683
667.9688,16.7580,2.8135,-5.7756,-4.9519,-13.2180,-8.0909,-8.7389,-9.6571,-1.7947,15.9782,-2.9679,-10.5533,-14.6963,-19.6758,11.1822,-10.2574,-16.5833,-8.3945,-15.3753
671.8750,21.3045,6.2782,-5.8476,-4.3996,-12.7342,-4.1103,-6.4833,-8.4107,0.5716,20.6524,-0.1504,-7.8473,-12.6613,-18.8605,11.7682,-9.3193,-15.7931,-7.4969,-14.1190
675.7812,25.2502,9.8731,-4.5171,-3.1097,-11.2572,2.0760,-2.7895,-5.8008,3.9098,24.8609,3.9625,-2.9567,-8.7065,-16.1749,10.6102,-7.9083,-12.8863,-4.7803,-10.8600
679.6875,27.7139,13.7936,-0.6889,-0.5894,-8.5048,7.5286,1.6220,-1.9524,8.3321,27.5623,8.9884,3.4649,-3.1082,-11.4769,8.7028,-6.3558,-7.9746,-0.0335,-5.6021
683.5938,28.5685,17.4523,5.0198,2.7257,-4.9249,9.9356,5.4435,2.1683,13.1341,28.3916,13.8725,9.7119,2.8290,-5.5654,7.0683,-4.0429,-2.1330,5.6270,0.5070
687.5000,28.4710,19.7657,10.4429,5.5810,-1.7125,8.9182,7.3461,5.0113,17.0051,27.9653,17.2135,13.6454,7.1580,-0.1321,6.2260,0.0122,2.8086,10.2194,5.5351
691.4062,28.2485,19.8184,13.0805,6.6151,-0.2633,6.0324,6.6755,5.2078,18.6794,27.4111,17.8920,13.7278,8.2211,2.8838,6.0310,6.1030,5.0223,11.9858,7.7066
695.3125,28.2119,17.5008,11.6568,5.2619,-1.3418,3.6224,3.8963,2.4254,17.7069,27.5441,15.7314,9.9540,5.6468,2.2778,5.9014,13.1575,3.6369,10.4810,6.4452
699.2188,28.0048,13.7376,7.0428,2.2530,-4.4905,3.3999,0.4918,-2.2477,14.8718,28.3638,11.8065,4.1137,0.7817,-1.6471,5.2271,19.0001,-0.6635,6.9772,2.8775
703.1250,27.0881,10.1517,1.9160,-0.6552,-8.1167,5.6560,-1.6927,-6.7163,11.9236,29.2280,8.1085,-0.8850,-3.8060,-7.0268,3.7104,21.4388,-5.8203,3.8706,-0.6006
707.0312,25.3848,8.3186,-0.6982,-1.6288,-10.2791,9.4338,-1.3583,-8.9205,10.6784,29.4766,6.6180,-2.3840,-5.5738,-11.2351,1.4936,19.4906,-9.3401,3.3829,-1.5557
710.9375,23.4629,8.9849,0.8473,0.1717,-9.7438,13.2923,1.5686,-7.9191,11.9711,28.9292,8.2341,0.6521,-3.3338,-12.1578,-0.9157,13.9899,-9.5111,6.2981,1.1165
714.8438,22.0573,11.6628,5.8704,4.0574,-6.6715,16.0108,5.8670,-4.3647,15.1046,27.8502,12.1911,7.0293,2.1042,-9.2496,-2.8300,7.2406,-6.2210,11.4880,6.5019
718.7500,21.3449,14.8321,11.7631,8.1631,-2.5147,16.8477,9.6242,-0.0854,18.1922,26.4886,16.3879,13.8787,8.3690,-3.7747,-3.6027,1.9479,-0.9246,16.5232,12.1104
722.6562,20.6636,16.6771,15.5035,10.4898,0.8128,15.4622,11.1953,2.9653,19.2431,24.6926,18.5223,18.1199,12.7925,1.8967,-2.8504,0.0159,4.1853,19.0096,15.2300
726.5625,19.0255,15.9921,15.3538,10.0084,1.9770,11.8735,10.0045,3.7471,17.3433,22.0341,17.3938,18.0344,13.7636,5.5097,-0.6412,1.7720,7.2926,17.8600,14.4015
730.4688,16.0896,12.7785,11.7202,7.1599,0.8471,6.6502,6.7564,2.5536,13.1839,18.3963,13.5764,14.0600,11.3939,5.9550,2.4330,5.8998,7.7169,13.7559,10.1355
734.3750,12.7941,8.1962,6.6921,3.4737,-1.6404,1.1121,2.9622,0.6171,8.5855,14.5059,9.0177,8.3560,7.1668,3.5600,5.3992,10.0380,5.9430,8.5682,4.4596
738.2812,11.0166,3.8865,2.6036,0.5795,-4.2174,-2.8819,0.0713,-0.7886,5.3206,11.8444,5.7974,3.4226,2.8781,-0.4169,7.2769,11.7834,3.0301,4.1481,-0.3829
742.1875,12.3516,1.0476,0.5604,-0.7454,-6.0929,-3.7366,-1.2855,-1.1519,4.0057,11.8254,4.8302,0.6316,-0.4138,-4.6594,7.5405,9.7229,-0.1324,1.2707,-3.2322
746.0938,16.8222,-0.1888,-0.1311,-0.9044,-7.3054,-1.1382,-1.5159,-0.9491,3.7976,14.7442,5.3535,-0.4280,-2.7740,-8.4315,6.4058,4.0964,-3.2204,-0.6207,-4.4955
750.0000,22.4974,-0.7005,-1.3018,-1.0286,-8.4350,3.4520,-1.6540,-1.2084,3.0905,19.2790,5.5333,-1.4068,-4.9431,-11.6228,4.7237,-3.2320,-6.3232,-2.7600,-5.5542
753.9062,26.4157,-1.6772,-4.4932,-2.0906,-9.9461,7.3750,-2.6008,-2.7473,0.7297,23.0168,3.7836,-3.8433,-7.4526,-14.2980,3.4855,-9.5721,-9.4481,-5.9824,-7.5599
757.8125,26.3046,-3.7396,-9.7262,-4.1984,-11.6702,8.2540,-4.5036,-5.5932,-3.0925,23.7729,-0.0835,-7.9222,-9.9759,-16.2010,3.2156,-12.6795,-12.1179,-9.9755,-10.4733
761.7188,21.9967,-6.4644,-15.2885,-6.5280,-12.8203,5.4905,-6.6635,-8.9370,-6.8785,20.8891,-4.6459,-12.1879,-11.4003,-16.6561,3.6418,-11.8802,-13.4115,-13.3717,-13.0147
765.6250,15.6078,-8.6459,-18.6921,-7.9073,-12.5315,0.7361,-8.0163,-11.6156,-8.7818,15.6585,-7.7420,-14.4291,-10.5845,-14.9841,3.8881,-8.3976,-12.4683,-14.6209,-13.5559
769.5312,10.3457,-9.1232,-18.1884,-7.6285,-10.5444,-3.0814,-7.8666,-12.7888,-7.8287,10.5892,-7.8415,-13.1596,-7.2835,-11.1335,3.0941,-4.6150,-9.1353,-13.0506,-11.3319
773.4375,8.7104,-7.5985,-13.8654,-5.9310,-7.5363,-3.6100,-6.3844,-12.3864,-4.5751,7.9782,-5.0072,-8.7012,-2.5810,-6.0367,1.0666,-2.6364,-4.3076,-9.3898,-7.1255
777.3438,11.2001,-4.8633,-7.6260,-3.8407,-4.8416,-0.5788,-4.5299,-11.0706,-0.7562,8.7016,-0.8206,-3.1150,1.5166,-1.3695,-1.4803,-2.9914,0.3166,-5.3824,-2.9346
781.2500,16.2539,-2.2553,-2.0753,-2.4959,-3.7183,4.0739,-3.4410,-9.7699,1.8266,11.9360,2.6516,1.0095,3.1239,1.2069,-3.2860,-4.3140,2.9820,-2.7305,-0.8145
785.1562,21.3216,-0.7288,0.9479,-2.4348,-4.6272,7.5432,-3.6857,-9.0996,2.4211,15.8659,4.1341,2.1244,1.5260,0.8741,-3.3023,-4.2586,2.7246,-2.0643,-1.6490
789.0625,24.2657,-0.2271,1.2506,-3.3280,-6.9866,8.0281,-4.8797,-9.0315,1.6872,18.7877,3.7998,0.6020,-2.4252,-1.9530,-1.3846,-1.1350,-0.1623,-2.6360,-4.6586
792.9688,24.2044,0.1493,0.0441,-4.3217,-9.5561,5.8207,-5.9414,-9.0062,1.0757,19.8325,2.8890,-1.6750,-6.8270,-5.9151,1.5201,4.7475,-4.3164,-2.9570,-7.9650
796.8750,21.4158,1.2634,-1.1854,-4.7322,-11.1951,2.8740,-5.8326,-8.4005,1.6659,18.9161,2.5994,-2.7398,-9.8441,-9.4892,3.8091,10.9055,-8.0489,-1.9604,-9.8396
800.7812,16.6281,2.9972,-1.8665,-4.5928,-11.5112,1.2143,-4.2991,-7.0356,3.2816,16.1637,3.0645,-1.9995,-10.7403,-11.7753,4.0371,13.8648,-10.2167,0.1069,-9.8123
804.6875,10.4075,4.0094,-2.7414,-4.6575,-10.9997,1.3967,-2.1075,-5.3889,4.5180,11.4628,3.1791,-0.6947,-10.1916,-12.8267,1.6547,11.0762,-10.7299,1.7031,-8.9153
808.5938,3.1635,2.5086,-5.1874,-5.8434,-10.6162,2.1539,-0.6021,-4.3535,3.6964,4.6520,1.4359,-1.0010,-9.7063,-13.3681,-2.7070,2.4876,-10.4191,0.9703,-8.9095
812.5000,-4.3018,-2.3819,-9.9410,-8.4819,-11.0871,1.4892,-0.8548,-4.6756,0.1244,-3.7292,-2.7876,-4.3565,-10.5418,-14.1386,-7.5098,-9.1226,-10.3708,-2.9334,-11.0042
816.4062,-10.3006,-9.5983,-16.1467,-11.8948,-12.4084,-1.6144,-2.9607,-6.4196,-5.1903,-11.7866,-8.4094,-10.1731,-12.8180,-15.3097,-10.9657,-19.2737,-11.1576,-9.0303,-14.9134
820.3125,-12.4747,-16.2633,-21.4582,-14.6063,-13.8402,-6.1664,-5.9384,-8.8104,-9.8945,-16.4715,-12.9399,-15.8735,-15.3912,-16.3484,-11.7516,-23.8163,-12.4480,-14.8214,-18.8649
824.2188,-8.8728,-19.0631,-23.2181,-15.0937,-14.3690,-9.6334,-8.2965,-10.5886,-11.5459,-14.8682,-13.8103,-18.3165,-16.5514,-16.3825,-9.4920,-20.8578,-13.2331,-17.5683,-20.5678
828.1250,0.6605,-16.1238,-20.0011,-12.6315,-13.3179,-9.6136,-8.8927,-10.6921,-9.0179,-5.9810,-9.9347,-15.7236,-15.0831,-14.8018,-4.8590,-11.6367,-12.5148,-15.7989,-18.5333
832.0312,13.7353,-8.2279,-12.5368,-7.7184,-10.7219,-5.5513,-7.5352,-8.8610,-3.1862,8.1095,-2.5007,-8.8429,-11.0088,-11.6926,0.7049,0.0737,-10.0012,-10.1199,-12.9385
835.9375,26.0188,1.4456,-3.4101,-1.8395,-7.2641,0.7333,-4.9720,-5.7968,3.5326,22.6636,5.5642,-0.5714,-5.5651,-7.8331,5.5230,9.7348,-6.3528,-2.8473,-5.5267
839.8438,33.1056,8.9701,4.2844,3.2775,-3.8662,6.0952,-2.3345,-2.7707,8.5096,32.3258,11.1642,5.7347,-0.4692,-4.2711,8.2870,14.1269,-2.8196,3.2977,1.3468
843.7500,32.7222,11.7507,8.4961,6.4608,-1.2294,7.9942,-0.4516,-0.9228,10.2920,33.7893,12.6940,8.1647,3.0114,-1.7697,8.5092,12.7334,-0.5171,6.6093,5.9061
847.6562,25.9840,9.7935,9.0495,7.4959,0.3868,6.0051,0.5103,-0.6889,9.2305,27.5529,10.7693,7.1555,4.5884,-0.4730,6.6383,7.7473,0.1766,7.0882,7.6662
851.5625,16.8729,5.4335,7.3188,6.9574,1.0627,1.9249,0.8963,-1.6959,7.0201,17.6558,7.6113,4.8683,4.7956,0.0142,3.7695,2.7080,-0.2905,6.0601,7.3131
855.4688,10.1141,1.7464,5.0705,5.6561,0.9409,-1.5326,1.0958,-3.1579,5.5038,9.4334,5.5227,3.5434,4.3478,0.2225,1.0719,0.4969,-1.0991,5.0715,5.9498
859.3750,8.6065,0.6628,3.2914,4.0994,0.0315,-2.5292,1.1530,-4.4667,5.5205,6.5387,5.4563,3.9911,3.5368,0.3851,-0.7850,1.7819,-1.7006,4.8366,4.2845
863.2812,11.8693,1.9326,1.7532,2.3017,-1.7334,-1.1911,0.7499,-5.5551,6.4927,8.9529,6.5679,5.2208,2.1125,0.2839,-1.8905,4.7803,-2.1689,4.9037,2.3048
867.1875,16.4009,3.5029,-0.4919,0.0089,-4.2451,0.6542,-0.4574,-6.7890,6.9449,13.1426,6.9742,5.3789,-0.2943,-0.5173,-2.8868,6.4721,-3.0031,4.1763,-0.4082
871.0938,17.7364,2.9788,-4.1238,-2.8795,-6.9886,0.8148,-2.4390,-8.4956,5.5502,14.2498,5.1401,3.2567,-3.5759,-2.2207,-4.4214,4.5513,-4.5434,1.8532,-4.0348
875.0000,13.0073,-0.7915,-8.8085,-6.0274,-9.0798,-1.7882,-4.6604,-10.5071,2.0119,9.0072,0.9515,-0.7297,-6.8828,-4.4544,-6.6075,-1.0528,-6.4661,-1.8873,-8.0633
878.9062,2.5560,-6.9687,-13.2089,-8.7284,-9.6303,-6.4318,-6.3344,-12.0959,-2.7467,-2.3089,-4.2047,-4.7600,-8.9580,-6.3236,-8.8467,-8.0005,-7.7881,-5.9059,-11.3874
882.8125,-10.2392,-13.1920,-15.7244,-10.2770,-8.2619,-11.0255,-6.8813,-12.3897,-7.1316,-15.9498,-8.3307,-6.8369,-8.8835,-6.8710,-10.1465,-12.8169,-7.4434,-8.7670,-12.9027
886.7188,-20.7189,-16.9007,-15.4470,-10.3864,-5.4383,-13.2914,-6.2684,-10.9912,-9.7574,-26.6448,-10.0262,-6.1283,-6.7266,-5.6773,-9.7388,-12.8391,-5.0582,-9.5738,-12.1892
890.6250,-25.2214,-16.6877,-12.7096,-9.3632,-2.3541,-11.9393,-4.9980,-8.3480,-10.1032,-30.2543,-9.2142,-3.4913,-3.6136,-3.2016,-7.6006,-7.6698,-1.3657,-8.4320,-9.8034
894.5312,-22.6613,-12.9355,-8.9001,-7.9179,-0.3694,-7.2321,-3.7684,-5.5700,-8.6088,-25.6816,-6.9775,-0.8529,-1.1313,-0.5946,-4.5348,0.6775,2.0820,-6.2893,-6.9720
898.4375,-14.7260,-7.4737,-5.6909,-6.7331,-0.2771,-0.7841,-3.0539,-3.7712,-6.2658,-15.1629,-4.7330,0.0791,-0.4193,0.9513,-1.7504,8.9324,3.7750,-4.3193,-4.8835
902.3438,-4.8272,-2.5633,-4.1750,-6.0682,-1.8257,5.1507,-2.8834,-3.3650,-4.0472,-3.0102,-3.3726,-1.1280,-1.5273,0.9335,-0.2009,14.2455,3.1392,-3.2747,-4.0388
906.2500,3.4590,0.1727,-4.4036,-5.6537,-3.8100,8.5056,-2.9331,-3.7997,-2.5311,6.3632,-2.9345,-3.4956,-3.4401,-0.1179,-0.0916,15.4059,0.8827,-3.1951,-4.0655
910.1562,7.6697,0.3255,-5.5354,-4.9388,-4.7195,8.0581,-2.8248,-3.9428,-1.8623,10.1255,-2.9199,-5.4318,-4.7357,-0.9391,-0.8490,13.0217,-1.4375,-3.5756,-4.0871
914.0625,7.0162,-1.4161,-6.4381,-3.5293,-3.5969,3.7996,-2.4002,-2.8793,-1.9399,7.7740,-2.9019,-5.8499,-4.4441,-0.3234,-1.5531,8.7804,-2.3517,-3.8095,-3.3729
917.9688,2.2655,-3.8790,-6.3575,-1.5316,-0.6146,-3.0176,-1.7943,-0.5965,-2.6120,0.8767,-2.9166,-4.8313,-2.5756,2.0755,-1.5508,4.4001,-1.3202,-3.5928,-1.8374
921.8750,-4.7658,-6.0983,-5.2884,0.4227,2.9788,-10.2005,-1.2938,1.9163,-3.7335,-7.8345,-3.3640,-3.4325,-0.0316,5.4448,-0.8718,0.9014,1.0252,-3.0592,-0.0798
925.7812,-11.8314,-7.7106,-3.8923,1.5016,5.5255,-15.3096,-1.1179,3.2431,-5.1050,-15.5371,-4.5536,-2.8522,1.9867,8.2286,-0.2042,-1.5274,3.3471,-2.6202,1.0275
929.6875,-16.8615,-8.8919,-3.0605,1.1591,5.8610,-16.5822,-1.2808,2.4330,-6.4169,-20.1858,-6.2971,-3.5793,2.6667,9.0241,-0.4487,-3.2163,4.4309,-2.6554,0.9102
933.5938,-18.5089,-9.9691,-3.3842,-0.5037,3.9341,-13.7262,-1.6137,-0.3645,-7.2940,-20.9818,-7.8840,-5.0932,1.9636,7.4050,-2.1143,-4.5788,3.8453,-3.2523,-0.3464
937.5000,-16.5455,-11.0001,-4.8117,-2.7253,0.7964,-8.1545,-1.8964,-3.9285,-7.4298,-18.3990,-8.4659,-6.2588,0.5098,4.1662,-4.9016,-5.8039,2.0686,-4.1287,-2.0499
941.4062,-11.9407,-11.6105,-6.6486,-4.4399,-2.0098,-2.4247,-1.9875,-6.6424,-6.7133,-13.8189,-7.5650,-6.0835,-0.8085,0.8458,-7.7198,-6.7391,0.0930,-4.7583,-3.3040
945.3125,-6.4978,-11.1943,-7.8888,-4.8100,-3.2843,0.9394,-1.8673,-7.3852,-5.2602,-8.9254,-5.3496,-4.3085,-1.3101,-1.1595,-9.1586,-6.9305,-1.1739,-4.6210,-3.4906
949.2188,-2.1263,-9.3423,-7.6996,-3.6423,-2.7355,0.6751,-1.5877,-6.0914,-3.3394,-5.0838,-2.5081,-1.4846,-0.7689,-1.3272,-8.1959,-5.8024,-1.3285,-3.4571,-2.5476
953.1250,-0.0560,-6.2110,-5.8221,-1.4584,-0.9840,-2.6047,-1.1901,-3.6625,-1.2645,-2.9447,0.1547,1.4384,0.6046,-0.1537,-4.7888,-2.9719,-0.5226,-1.4090,-0.9131
957.0312,-0.3911,-2.5704,-2.6921,0.8054,0.9328,-6.7704,-0.6656,-1.3414,0.6734,-2.4078,2.1039,3.6683,2.3464,1.3218,-0.0213,1.3876,0.7765,1.0137,0.7772
960.9375,-2.2416,0.5222,0.7618,2.2879,2.1995,-9.3334,0.0116,0.0178,2.2072,-2.9088,3.2016,4.9004,3.9372,2.2452,4.3125,6.3520,2.0864,3.1339,2.0243
964.8438,-4.3535,2.2257,3.5182,2.5958,2.6001,-8.7738,0.8015,0.3241,3.0739,-3.8380,3.5507,5.2619,4.9279,2.4239,6.5241,10.4574,3.0771,4.3762,2.6328
968.7500,-5.8695,2.2741,4.8392,1.8883,2.4467,-5.3191,1.5294,0.0833,3.0277,-4.8673,3.2309,4.9955,4.9978,2.2617,5.8425,12.3412,3.5661,4.4724,2.6487
972.6562,-6.7857,0.9681,4.4416,0.6419,2.1819,-0.7690,1.8934,-0.1253,1.9093,-6.0506,2.1544,4.1661,3.9945,2.2604,2.7836,11.5034,3.4395,3.5025,2.1651
976.5625,-7.8520,-1.1588,2.4376,-0.7170,1.9814,2.5031,1.5754,-0.1250,-0.2551,-7.6986,0.1531,2.6143,1.9797,2.4998,-1.1513,8.6846,2.6143,1.7721,1.1694
980.4688,-9.9878,-3.7161,-0.8273,-2.0495,1.6442,2.8104,0.4268,-0.2387,-3.1779,-10.1256,-2.7726,0.1754,-0.7411,2.5052,-4.3012,5.5188,1.0853,-0.3671,-0.4356
984.3750,-13.5618,-6.5680,-4.8647,-3.4535,0.8299,0.0013,-1.3602,-0.9622,-6.2987,-13.3812,-6.2319,-3.0098,-3.6467,1.6138,-5.7314,3.5922,-0.9952,-2.6137,-2.6403
988.2812,-17.9589,-9.5947,-9.0003,-4.9816,-0.5553,-4.5206,-3.2089,-2.4691,-8.8624,-17.0677,-9.4232,-6.3360,-6.1069,-0.4222,-5.6557,3.4893,-3.2853,-4.6730,-5.1062
992.1875,-21.7112,-12.3315,-12.3093,-6.3622,-2.1241,-8.5722,-4.3233,-4.3197,-10.0954,-20.3294,-11.3752,-8.8703,-7.5464,-3.0468,-5.1450,4.4787,-5.3131,-6.1515,-7.1056
996.0938,-23.1697,-13.8632,-13.7299,-6.9713,-3.1178,-10.3218,-4.0365,-5.5988,-9.4662,-22.0798,-11.3567,-9.7428,-7.6165,-5.0498,-5.3176,5.0694,-6.6129,-6.5497,-7.7391
1000.0000,-21.3974,-13.1938,-12.4515,-6.1382,-2.8134,-9.1832,-2.1913,-5.4179,-6.9601,-21.4576,-9.2623,-8.5904,-6.3230,-5.2158,-6.5481,4.0518,-6.8804,-5.4576,-6.3728
1003.9062,-16.8083,-9.9300,-8.4302,-3.6189,-0.9777,-6.0277,0.6715,-3.4703,-3.2350,-18.3507,-5.7679,-5.8027,-4.0638,-3.0881,-8.2199,1.2841,-6.0943,-2.8765,-3.0722
1007.8125,-11.1634,-4.8001,-2.6852,0.0818,1.9204,-2.6350,3.4793,-0.2870,0.4940,-13.6926,-2.1345,-2.4128,-1.5440,0.6394,-9.1836,-2.3183,-4.5604,0.5643,1.2493
1011.7188,-6.8388,0.4589,2.9367,3.7998,4.8834,-0.7018,5.1269,2.9788,2.8994,-9.2504,0.3018,0.3464,0.4416,4.3809,-8.5924,-5.5187,-2.8440,3.7331,5.1275
1015.6250,-5.6789,3.9224,6.5458,6.2309,6.8613,-0.9445,5.0674,5.1281,3.1752,-6.8654,0.7510,1.6162,1.3158,6.4555,-6.5260,-7.6009,-1.5813,5.4973,7.2059
1019.5312,-8.0170,4.5747,7.1705,6.6087,7.2710,-2.7739,3.6528,5.5289,1.5369,-7.4708,-0.6036,1.3310,1.0009,5.9808,-3.9573,-8.6479,-1.2085,5.3554,6.9318
1023.4375,-12.4194,2.9749,5.3186,5.1405,6.2779,-4.6973,1.9864,4.4237,-0.7563,-10.4496,-2.6265,0.2555,0.0203,3.3558,-2.0838,-9.0812,-1.7201,3.7983,4.8913
1027.3438,-16.3467,0.9962,2.7355,2.9195,4.6869,-5.1999,1.3267,2.7649,-1.9783,-13.7972,-3.7531,-0.4018,-0.6953,0.0545,-1.5033,-8.9276,-2.6084,2.1122,2.5467
1031.2500,-17.4200,0.7158,1.4217,1.3337,3.5021,-3.5934,2.3628,1.6739,-0.8729,-15.1053,-2.7931,0.3776,-0.2636,-2.1624,-1.8271,-7.5327,-3.0793,1.6726,1.4697
1035.1562,-14.6227,3.1063,2.4564,1.3009,3.3814,-0.3601,4.7852,1.8228,2.5661,-12.8662,0.3951,2.8568,1.6342,-2.1862,-2.0151,-4.0821,-2.4856,3.1200,2.4710
1039.0625,-8.7967,7.3420,5.3343,2.7668,4.2737,3.1695,7.4165,3.0724,6.9593,-7.3544,4.7380,6.3358,4.4740,-0.1436,-1.1925,1.4191,-0.7526,5.9234,5.1188
1042.9688,-2.1981,11.1748,8.2346,4.7502,5.4339,5.5608,8.8337,4.5565,10.1918,-0.5655,8.4103,9.4196,7.0482,2.6875,0.6429,7.5340,1.4789,8.6185,7.9365
1046.8750,2.5911,12.1721,9.0744,5.8964,5.8205,5.9798,8.1243,5.1622,10.5090,4.7444,9.7011,10.6397,8.0335,4.5708,2.5429,11.8058,3.1356,9.5952,9.1823
1050.7812,3.7823,9.0859,6.7193,5.2118,4.6775,4.4706,5.3476,4.1466,7.4380,6.3613,7.8300,9.1340,6.6778,4.2347,3.2343,12.1064,3.2962,7.9749,7.7760
1054.6875,0.9930,2.5647,1.6351,2.5671,1.9901,1.7440,1.4645,1.5585,2.0095,3.5535,3.2941,5.0672,3.2197,1.5286,2.0138,8.0704,1.7368,4.0673,3.8519
1058.5938,-4.8094,-5.1600,-4.3756,-1.2825,-1.4453,-1.2733,-2.1776,-1.7610,-3.8165,-2.7603,-2.4017,-0.3983,-1.2100,-2.5299,-0.7150,1.5733,-0.9126,-0.8272,-1.3521
1062.5000,-11.8209,-11.3770,-9.1498,-5.1226,-4.3973,-3.7884,-4.4815,-4.5970,-8.1498,-10.5458,-7.4443,-5.5586,-5.1526,-6.3181,-3.6435,-4.2033,-3.5207,-5.1124,-6.1678
1066.4062,-18.0260,-14.1463,-11.2523,-7.8749,-5.8289,-5.2293,-5.0151,-5.9706,-10.0073,-17.4928,-10.4604,-8.8475,-7.5229,-8.4494,-5.3646,-6.6077,-5.0994,-7.6590,-9.3155
1070.3125,-21.7186,-13.0584,-10.5682,-9.0329,-5.4297,-5.1837,-4.0428,-5.6080,-9.5698,-21.7536,-10.9714,-9.4503,-8.0485,-8.4208,-5.2349,-5.0811,-5.3258,-8.2258,-10.4055
1074.2188,-21.8970,-9.2085,-8.1447,-8.7473,-3.7426,-3.4296,-2.2546,-4.0189,-7.8255,-22.3902,-9.4161,-7.5996,-7.2243,-6.7241,-3.7157,-1.4080,-4.6086,-7.3750,-9.8975
1078.1250,-18.5579,-4.5204,-5.4820,-7.5899,-1.8111,-0.1644,-0.4080,-2.1582,-5.9189,-19.5333,-6.8255,-4.4345,-5.8712,-4.4067,-1.9835,1.5226,-3.6815,-6.0250,-8.6337
1082.0312,-12.7901,-0.8306,-3.7432,-6.1882,-0.5667,3.7443,0.9254,-0.8854,-4.6061,-14.2899,-4.3475,-1.4816,-4.6181,-2.3975,-1.1001,1.6316,-3.0363,-4.9442,-7.2994
1085.9375,-6.4692,0.8430,-3.3071,-4.9493,-0.3408,6.8193,1.4474,-0.5430,-4.0545,-8.3692,-2.8109,0.0210,-3.6382,-1.0345,-1.3118,-1.0224,-2.6162,-4.4545,-6.1448
1089.8438,-1.4850,0.5798,-3.8171,-3.9882,-0.7979,7.5342,1.1115,-0.8906,-3.9665,-3.4293,-2.4550,-0.3454,-2.7653,-0.0784,-1.9392,-4.3520,-1.9897,-4.4335,-5.0822
1093.7500,1.2149,-0.6598,-4.5817,-3.2359,-1.3086,5.1752,0.0705,-1.3970,-3.8563,-0.3356,-2.8976,-2.0514,-1.8483,0.8479,-1.9010,-5.6746,-0.8632,-4.5356,-4.0061
1097.6562,2.1816,-1.6106,-5.0376,-2.6130,-1.4816,0.4682,-1.3728,-1.6684,-3.3174,1.2666,-3.3592,-3.9679,-1.0524,1.7468,-0.4980,-3.4943,0.4744,-4.4646,-3.0586
1101.5625,3.1278,-1.3733,-5.0298,-2.1453,-1.4687,-4.5417,-2.8362,-1.7153,-2.2059,2.6959,-3.0870,-5.0195,-0.8718,2.0653,2.0677,1.5380,1.1478,-4.1539,-2.6358
1105.4688,5.7393,0.1247,-4.8141,-1.9642,-1.8240,-7.4438,-3.9664,-1.8875,-0.7223,5.3060,-1.8019,-4.7843,-1.8345,1.0175,4.7701,7.0707,0.1952,-3.7839,-3.1371
1109.3750,10.3372,2.1160,-4.8383,-2.2087,-3.0242,-6.7570,-4.5548,-2.5470,0.6333,9.4085,0.0771,-3.6909,-4.0922,-1.7911,6.3627,10.5559,-2.7379,-3.6498,-4.6419
1113.2812,15.3478,3.4619,-5.4357,-2.9028,-5.0073,-2.7753,-4.5893,-3.7325,1.2664,13.8088,1.6161,-2.6857,-7.1703,-5.8799,6.1157,10.7940,-6.9871,-3.9516,-6.7436
1117.1875,18.0968,3.3695,-6.5827,-3.8827,-7.0848,2.6021,-4.1982,-5.0690,0.8186,16.3988,1.9123,-2.5737,-10.0567,-9.9364,4.2324,8.5242,-11.0559,-4.6183,-8.6666
1121.0938,16.5330,1.9319,-7.8363,-4.8237,-8.3193,6.9804,-3.5187,-5.9937,-0.5396,15.5241,0.6987,-3.4620,-11.6099,-12.4299,1.7119,5.7356,-13.3372,-5.2782,-9.6118
1125.0000,10.7475,0.1257,-8.5035,-5.3626,-8.1230,8.8177,-2.5911,-6.1323,-2.0741,11.2178,-1.3993,-4.6866,-11.0849,-12.4499,-0.2278,4.2176,-12.9542,-5.4245,-9.1473
1128.9062,3.1839,-0.7834,-7.9893,-5.2620,-6.6653,8.1479,-1.3689,-5.5486,-2.8251,5.3857,-3.1814,-5.2880,-8.5132,-10.2412,-0.8000,4.3513,-10.2264,-4.7142,-7.4340
1132.8125,-2.7102,-0.0729,-6.1594,-4.5323,-4.7993,6.2412,0.1521,-4.6798,-2.1748,0.7211,-3.6065,-4.7162,-4.7423,-7.0808,0.0096,4.9487,-6.4892,-3.2294,-5.1722
1136.7188,-4.5407,1.9272,-3.5024,-3.4379,-3.5471,4.4976,1.7872,-4.0048,-0.2881,-0.9544,-2.4659,-3.2637,-1.1063,-4.5547,1.5772,4.2298,-3.3852,-1.5111,-3.2922
1140.6250,-2.3445,4.0255,-0.9524,-2.3700,-3.4816,3.3934,3.1320,-3.6924,1.9141,0.2314,-0.5196,-1.8915,1.1336,-3.6752,3.1194,1.2544,-2.0406,-0.2921,-2.5342
1144.5312,1.6447,4.9650,0.5756,-1.6477,-4.4110,2.2485,3.7088,-3.4992,3.2938,2.4709,1.0284,-1.5396,1.3270,-4.3787,4.1774,-3.1956,-2.5755,-0.0577,-3.1136
1148.4375,4.6302,4.2783,0.6790,-1.3651,-5.5581,-0.0226,3.2228,-3.0035,3.2128,3.6812,1.3575,-2.4007,-0.2947,-5.6910,4.7836,-6.9427,-4.1782,-0.7146,-4.6267
1152.3438,5.0867,2.5814,-0.3321,-1.3855,-6.0953,-3.7355,1.7678,-2.0117,1.9226,2.9947,0.5634,-3.6991,-2.7522,-6.4205,5.2153,-7.7982,-5.6418,-1.6191,-6.2498
1156.2500,3.5015,1.0703,-1.6874,-1.4982,-5.6715,-7.7388,-0.1679,-0.8325,0.3289,1.2336,-0.5036,-4.1859,-4.8037,-5.9164,5.5372,-5.1141,-6.0318,-1.9924,-7.1451
1160.1562,1.5922,0.5727,-2.7171,-1.6319,-4.6022,-9.8019,-1.9190,-0.1941,-0.7160,0.0589,-0.9782,-3.0512,-5.5578,-4.4231,5.3092,-0.4278,-5.1257,-1.4780,-6.8848
1164.0625,0.7318,0.8632,-3.3370,-1.9656,-3.6312,-7.9534,-2.9726,-0.8270,-1.0631,0.5060,-0.7311,-0.6278,-4.9033,-2.8517,3.7567,3.3380,-3.4363,-0.4560,-5.6779
1167.9688,0.8729,0.7879,-4.0870,-2.8264,-3.4561,-1.9476,-3.2191,-2.9728,-1.3492,2.0919,-0.5313,1.6390,-3.5293,-2.1690,0.3825,3.7070,-1.8670,0.1340,-4.2757
1171.8750,0.8088,-0.8413,-5.6545,-4.4161,-4.3344,6.1352,-2.9842,-6.1484,-2.4205,3.2184,-1.4512,1.9991,-2.5194,-2.8267,-4.3553,0.3608,-1.2248,-0.6119,-3.5919
1175.7812,-0.4967,-4.2182,-8.1994,-6.5477,-5.9989,12.6699,-2.8268,-9.3349,-4.5232,2.5632,-3.9331,-0.5041,-2.7419,-4.5792,-8.8286,-4.4454,-1.8509,-2.9264,-4.2337
1179.6875,-2.6530,-8.1578,-10.9942,-8.6056,-7.8894,14.3180,-3.2251,-11.4884,-6.9054,0.3530,-7.2340,-5.3529,-4.3817,-6.7518,-10.8065,-7.1605,-3.5276,-6.1269,-6.1966
1183.5938,-3.7686,-10.7056,-12.7132,-9.8143,-9.5144,9.8985,-4.3219,-12.0674,-8.1955,-1.5346,-9.7202,-10.7403,-6.8778,-8.7248,-8.6327,-5.2014,-5.6621,-8.9492,-8.8889
1187.5000,-1.7357,-10.3787,-12.2582,-9.6870,-10.7037,1.1930,-5.8591,-11.2647,-7.3398,-0.8100,-9.8750,-14.5187,-9.2839,-10.2885,-2.3718,1.2185,-7.6084,-10.2609,-11.4614
1191.4062,4.0380,-7.2040,-9.5847,-8.3704,-11.6156,-7.8495,-7.3185,-9.8253,-4.4345,3.5051,-7.3375,-15.3263,-10.8131,-11.6492,5.8368,8.9271,-8.9438,-9.6966,-13.2399
1195.3125,11.7757,-2.8233,-5.9288,-6.6322,-12.5274,-13.1324,-8.1809,-8.5847,-0.8196,10.1275,-3.2362,-13.2190,-11.2197,-13.1214,12.5964,13.5126,-9.5646,-7.8142,-14.0043
1199.2188,18.0849,0.4314,-3.2002,-5.4514,-13.5615,-12.5619,-8.1678,-8.0154,1.6827,16.0611,0.4436,-9.4789,-10.7960,-14.7478,14.9194,11.9264,-9.5867,-5.6951,-13.9661
1203.1250,19.8979,0.8953,-2.8742,-5.4393,-14.5222,-7.1291,-7.3555,-8.0391,1.8866,18.3185,2.0466,-5.7941,-10.0289,-16.1170,11.8397,4.3721,-9.1462,-4.2800,-13.4979
1207.0312,16.3208,-1.5186,-5.0919,-6.4573,-14.9382,-0.3082,-6.1262,-8.1792,-0.0512,15.6824,1.1966,-3.3610,-9.1889,-16.5077,5.0030,-5.6999,-8.2467,-3.8847,-12.8222
1210.9375,9.1726,-5.4106,-8.5735,-7.6929,-14.2923,3.8992,-4.9956,-7.9228,-2.8140,9.3838,-1.1037,-2.4289,-8.1546,-15.2722,-2.1790,-13.4907,-6.7580,-4.1807,-11.8777
1214.8438,1.8985,-8.8577,-11.4225,-8.1643,-12.3179,3.1720,-4.4041,-7.0540,-4.8493,2.3319,-3.2357,-2.4591,-6.5885,-12.2297,-6.3646,-15.4690,-4.5627,-4.5863,-10.4421
1218.7500,-2.3873,-10.5641,-12.2905,-7.3376,-9.2038,-1.9113,-4.5532,-5.7645,-5.3665,-2.5262,-4.0222,-2.6666,-4.3152,-7.8390,-6.0486,-11.1353,-1.7427,-4.7357,-8.3982
1222.6562,-2.4710,-10.4500,-11.1268,-5.4561,-5.5861,-8.3089,-5.3383,-4.4961,-4.7221,-3.6681,-3.3541,-2.5257,-1.6008,-3.0538,-2.2287,-2.9703,1.3309,-4.6788,-5.9317
1226.5625,0.6705,-9.3744,-9.0211,-3.3614,-2.3091,-12.3092,-6.3837,-3.6333,-3.9606,-1.4773,-2.0162,-1.9360,0.8940,1.0615,2.3776,5.2229,4.0824,-4.6945,-3.5015
1230.4688,4.8518,-8.2888,-7.2781,-1.9253,-0.0607,-11.6076,-7.1600,-3.2438,-3.8935,2.3539,-0.9246,-1.0429,2.4705,3.7524,5.0274,10.4274,5.9482,-4.9047,-1.5906
1234.3750,8.1464,-7.4707,-6.4042,-1.4716,0.9296,-6.4640,-7.1507,-3.0281,-4.4071,5.9643,-0.3811,0.0489,2.8105,4.8172,4.4917,11.6987,6.5960,-5.0187,-0.4131
1238.2812,9.8779,-6.3712,-5.7471,-1.5782,0.9572,0.6611,-6.0350,-2.5127,-4.5027,8.2748,0.1121,1.3967,2.1548,4.5621,1.5405,10.0464,6.0141,-4.4393,0.2122
1242.1875,10.6172,-4.1513,-4.0681,-1.3961,0.6252,6.6543,-3.8437,-1.3776,-3.0448,9.2770,1.3683,3.0739,1.1096,3.5142,-1.8029,7.2938,4.4294,-2.6883,0.7176
1246.0938,11.3581,-0.5086,-0.6565,-0.2752,0.4652,9.4556,-1.0303,0.2773,0.3024,9.6472,3.7341,4.8865,0.2103,2.0702,-3.6398,4.8487,2.1273,0.1292,1.4533
1250.0000,12.5172,3.7850,3.8147,1.7184,0.6252,8.8944,1.6030,1.8990,4.5916,10.0207,6.5812,6.2049,-0.4538,0.2913,-3.2814,3.1601,-0.6913,3.1497,2.3790
1253.9062,13.4249,7.0247,7.3528,3.7409,0.8222,6.2765,3.1458,2.7248,7.9040,10.3787,8.4519,6.1012,-1.2904,-2.0315,-1.4197,1.9799,-3.9173,5.0261,2.9894
1257.8125,12.6231,7.3650,7.6861,4.6205,0.5875,3.1940,2.9342,2.1891,8.3037,9.8986,7.8081,3.7878,-2.8909,-5.0827,0.5678,0.9610,-7.4126,4.5408,2.5467
1261.7188,8.8046,3.8506,3.6768,3.5463,-0.3591,0.4829,0.8797,0.2708,4.9014,7.3910,3.9574,-0.8533,-5.5545,-8.6859,1.5861,0.0064,-10.8629,1.2495,0.5118
1265.6250,1.8677,-2.8747,-3.7794,0.5830,-1.8628,-1.9656,-2.4016,-2.4247,-1.5512,2.1545,-2.3776,-6.9505,-8.9557,-12.1592,1.3892,-0.8456,-13.7289,-4.1795,-3.0561
1269.5312,-6.5412,-10.5976,-11.9643,-3.2892,-3.3784,-4.5443,-5.7660,-4.9120,-8.8520,-5.1978,-9.1836,-12.7607,-12.1655,-14.4874,0.4625,-1.7365,-15.3543,-10.1118,-7.3512
1273.4375,-13.4182,-16.3630,-17.5868,-6.6192,-4.2740,-7.0843,-7.9877,-6.2788,-14.2408,-12.4986,-13.9474,-16.2492,-14.0176,-14.7516,-0.5427,-3.0617,-15.1903,-14.5302,-11.0268
1277.3438,-15.6928,-17.7626,-18.3808,-8.1556,-4.1854,-8.5964,-8.2761,-6.1036,-15.5794,-16.7295,-14.7502,-15.9237,-13.6186,-12.5867,-1.3140,-5.1215,-13.0254,-15.8094,-12.6875
1281.2500,-11.8538,-14.0822,-14.1662,-7.3836,-3.1929,-7.8774,-6.6059,-4.6173,-12.2835,-15.4978,-11.1503,-11.5492,-10.7426,-8.4079,-1.9579,-7.5996,-9.1150,-13.3560,-11.4683
1285.1562,-3.0104,-6.7187,-6.8241,-4.6839,-1.7352,-4.5329,-3.6884,-2.5460,-5.5821,-8.5257,-4.4263,-4.3823,-5.9401,-3.2747,-2.6770,-9.3607,-4.1568,-7.8488,-7.4491
1289.0625,7.3702,1.4082,0.7337,-1.0918,-0.3565,0.4176,-0.6038,-0.7517,2.0296,1.8330,2.9629,3.2489,-0.3469,1.5290,-3.3906,-8.8715,0.8716,-0.9776,-1.7144
1292.9688,15.1318,7.2210,5.9815,2.1721,0.5196,4.9199,1.6974,0.1144,7.9135,11.5941,8.4766,8.8826,4.6994,4.9680,-3.6557,-5.0901,4.9565,5.2091,3.9967
1296.8750,17.6953,8.9535,7.8156,4.1580,0.6660,7.0942,2.7546,-0.2176,10.4665,17.2636,10.6306,10.9644,8.0739,6.5423,-2.9761,1.7218,7.3091,9.0733,7.9303
1300.7812,15.5694,6.9321,6.7375,4.4553,0.0020,6.4596,2.6549,-1.6634,9.7674,17.8260,9.6048,9.4809,9.1771,6.2893,-1.2656,9.8171,7.5739,9.9446,8.9897
1304.6875,12.0338,3.2128,4.2237,3.2208,-1.4551,4.2907,1.8171,-3.9041,7.3439,15.2511,6.9864,5.8534,8.0589,4.5828,0.9031,16.5890,5.9254,8.2341,7.1458
1308.5938,11.0047,0.2657,1.7488,1.0207,-3.5467,2.7872,0.6881,-6.4785,5.1763,13.0488,4.7750,2.1360,5.3302,1.9062,2.4806,19.6879,3.0009,5.0889,3.3917
1312.5000,14.3303,-0.5179,0.0465,-1.4125,-5.8772,3.5719,-0.4504,-8.8167,4.5006,13.7288,4.2063,-0.0567,1.8988,-1.2627,2.4759,18.0332,-0.3264,1.7911,-0.7440
1316.4062,20.3069,0.4185,-1.0328,-3.4172,-7.8116,6.5178,-1.4845,-10.2896,5.1255,16.8898,5.0824,-0.3089,-1.3697,-4.4498,0.5298,12.2202,-3.2635,-0.7796,-3.8914
1320.3125,24.5455,1.2512,-2.0966,-4.5701,-8.6730,9.7083,-2.3543,-10.3623,5.6877,19.3487,6.0179,0.5559,-3.9275,-7.1649,-2.8111,4.1813,-5.3628,-2.3698,-5.3979
1324.2188,22.8002,0.1368,-3.5753,-4.7575,-8.0869,10.5885,-2.9693,-8.8482,4.6851,17.3560,5.4467,1.1355,-5.6391,-8.9684,-6.2817,-3.6611,-6.6089,-3.2140,-5.4833
1328.1250,13.9700,-3.4252,-5.3160,-4.1535,-6.2620,7.5775,-3.2425,-6.1219,1.6084,9.4407,2.7428,0.3827,-6.6681,-9.6274,-8.4554,-9.3305,-7.2823,-3.7001,-4.9471
1332.0312,1.2353,-8.1495,-6.6619,-3.1306,-3.9837,1.1235,-3.2033,-3.1065,-2.5941,-2.1203,-1.2829,-1.7599,-7.2483,-9.2550,-8.3984,-11.9391,-7.6902,-4.0870,-4.6356
1335.9375,-9.5603,-11.7466,-6.9381,-2.1413,-2.2683,-6.4473,-3.0652,-0.9506,-6.0512,-12.3398,-4.8448,-4.3873,-7.4936,-8.3018,-6.1129,-11.8329,-7.9337,-4.4326,-4.9889
1339.8438,-13.3397,-12.3993,-5.9977,-1.5983,-1.8552,-12.1680,-3.1488,-0.5112,-7.1535,-16.4749,-6.3011,-6.2498,-7.3665,-7.3552,-2.5579,-10.2292,-7.8595,-4.7037,-5.9072
1343.7500,-8.8380,-9.9266,-4.4303,-1.7691,-2.8415,-13.9889,-3.6812,-1.9162,-5.5823,-12.9455,-5.1802,-6.5275,-6.7999,-6.8417,0.7755,-8.5072,-7.2146,-4.9022,-6.9493
1347.6562,0.7155,-5.8441,-3.2536,-2.6882,-4.6770,-11.7512,-4.6041,-4.4729,-2.4732,-4.2571,-2.4277,-5.2638,-5.8512,-6.8112,2.5571,-7.4538,-5.8895,-5.0596,-7.6674
1351.5625,9.6964,-2.3058,-3.2561,-4.1085,-6.5067,-7.0821,-5.5416,-7.0025,0.3881,4.6700,0.2715,-3.2247,-4.7481,-6.9447,2.2532,-6.8288,-4.0733,-5.1052,-7.8359
1355.4688,13.5421,-0.6897,-4.4245,-5.5339,-7.6313,-2.3717,-5.9785,-8.4318,1.7645,9.5906,1.6077,-1.3463,-3.7820,-6.7895,0.3714,-5.5347,-2.2197,-4.7621,-7.4553
1359.3750,11.3099,-0.8190,-5.8736,-6.3711,-7.8101,0.5161,-5.5531,-8.3171,1.7098,9.3544,1.4213,-0.1847,-3.1383,-6.0808,-1.8498,-2.3861,-0.8519,-3.6421,-6.6116
1363.2812,5.7827,-1.3264,-6.3839,-6.1832,-7.2662,1.0818,-4.2862,-7.0171,1.3537,6.1325,0.6321,0.2777,-2.8077,-4.9493,-3.1684,2.9078,-0.3385,-1.5463,-5.3690
1367.1875,1.2785,-0.8294,-5.2313,-4.9390,-6.4596,0.1945,-2.5992,-5.4363,1.9282,3.5093,0.4385,0.4122,-2.6523,-3.8830,-3.0690,9.1792,-0.7652,1.2253,-3.8099
1371.0938,0.8114,0.9935,-2.7486,-3.0992,-5.8115,-0.6264,-1.1032,-4.4996,3.7890,3.9464,1.4164,0.5597,-2.5572,-3.4560,-2.0304,14.1480,-1.9378,3.8373,-2.1592
1375.0000,4.5053,3.2250,-0.1929,-1.4344,-5.5384,-0.1733,-0.2813,-4.6537,6.1632,7.3985,3.1853,0.8129,-2.5145,-3.9780,-1.1242,15.6379,-3.4615,5.2845,-0.8224
1378.9062,10.1105,4.5239,1.0477,-0.6255,-5.6334,1.7913,-0.2454,-5.6548,7.7920,11.8668,4.8400,1.1048,-2.5476,-5.2681,-1.1865,12.9811,-4.8283,4.9920,-0.2182
1382.8125,14.9400,4.2525,0.3859,-0.8677,-5.9385,4.4941,-0.7061,-6.7380,7.9389,15.2062,5.7484,1.4511,-2.5482,-6.6944,-2.1389,7.6591,-5.5055,3.2477,-0.4837
1386.7188,17.6606,2.9963,-1.5632,-1.7481,-6.2353,6.6778,-1.1699,-7.0638,6.9558,16.6709,6.0360,2.0506,-2.2163,-7.4797,-2.9888,2.5911,-5.0732,1.1074,-1.2964
1390.6250,18.6920,2.0312,-3.4456,-2.5225,-6.3330,7.3344,-1.2553,-6.2056,5.9366,17.0530,6.3466,3.0736,-1.2436,-7.1238,-2.5798,0.3520,-3.4291,-0.2556,-2.0260
1394.5312,19.1544,2.1394,-4.2051,-2.6459,-6.1555,6.2066,-0.9477,-4.4219,5.7177,17.4680,7.0715,4.2850,0.3364,-5.7134,-0.5922,1.4128,-0.9717,-0.3699,-2.1843
1398.4375,19.4071,2.7369,-3.9349,-2.1990,-5.8004,3.7982,-0.6407,-2.5620,6.0226,17.9189,7.7114,4.8716,1.9159,-3.9261,1.9722,3.6451,1.4095,0.1249,-1.8673
1402.3438,18.4454,2.1056,-3.8521,-1.8759,-5.5067,0.9523,-0.9143,-1.6304,5.4959,16.9109,6.9895,3.7692,2.4822,-2.6896,3.2882,3.6023,2.6542,-0.1534,-1.8056
1406.2500,14.6684,-1.2974,-5.3173,-2.4826,-5.4958,-1.6696,-2.1526,-2.2211,2.7123,12.5259,3.7684,0.4109,1.2082,-2.6545,1.9534,-1.0937,2.0767,-2.3371,-2.8803
1410.1562,7.4250,-7.3561,-8.5683,-4.2619,-5.7577,-3.8408,-4.2128,-4.1304,-2.5203,4.1934,-1.8409,-4.5822,-1.8757,-3.7806,-1.8624,-9.7895,-0.1696,-6.3255,-5.3761
1414.0625,-1.8763,-13.7936,-12.1528,-6.5393,-5.9548,-5.6103,-6.3670,-6.4022,-8.5532,-6.1992,-8.0451,-9.3509,-5.6387,-5.3078,-6.2515,-18.6620,-3.0538,-10.5284,-8.5156
1417.9688,-10.0064,-17.2054,-13.6302,-8.0106,-5.5869,-6.9122,-7.6068,-7.8318,-12.5517,-14.7935,-12.0823,-11.6114,-8.3279,-6.1785,-8.6422,-22.6924,-5.1804,-12.6259,-10.7057
1421.8750,-13.4607,-15.0969,-11.1979,-7.5497,-4.3797,-7.3205,-7.1842,-7.6696,-12.1013,-17.6691,-11.7525,-9.9553,-8.5678,-5.6884,-7.4736,-18.6377,-5.5967,-10.9477,-10.4482
1425.7812,-10.3581,-7.6014,-5.1379,-5.0057,-2.6331,-6.2178,-5.0776,-6.0958,-6.7392,-13.0066,-6.7957,-4.8117,-6.2452,-3.9599,-3.3287,-7.1408,-4.3788,-5.5939,-7.3475
1429.6875,-1.5018,2.3435,2.0339,-1.4057,-1.2135,-3.3055,-2.0696,-4.1230,1.6371,-2.1457,0.8385,1.6452,-2.6300,-1.8968,1.3250,7.4099,-2.5593,1.4850,-2.4950
1433.5938,10.0256,10.6015,6.9970,1.6432,-1.0757,0.9334,0.6718,-2.9298,9.8089,11.0969,8.0881,6.7180,0.4341,-0.6021,3.7001,19.2467,-1.3889,7.5804,2.1183
1437.5000,20.4300,14.2488,7.7714,2.9907,-2.5678,5.2436,2.2849,-3.0280,15.0740,22.3843,12.5646,8.8164,1.7677,-0.6167,2.5342,24.3604,-1.4116,10.8214,4.8262
1441.4062,26.9562,13.2135,5.1026,2.7004,-5.0163,8.1780,2.7372,-3.8391,16.6807,28.8706,13.8522,8.4076,1.6512,-1.5099,-1.0580,22.4716,-2.0268,11.2244,5.3191
1445.3125,28.8304,10.0453,2.0278,1.9602,-6.9773,8.9062,2.8010,-4.0358,15.9305,30.1254,13.4495,7.5789,1.5589,-2.1550,-4.3448,16.6854,-1.9114,10.4713,4.7315
1449.2188,27.0034,7.9715,1.7964,2.1665,-7.0973,7.6826,3.4511,-2.4885,14.9415,27.6046,13.4135,8.4336,2.9615,-1.5520,-4.8540,11.2071,-0.0624,10.5522,4.6881
1453.1250,23.0711,8.5805,5.5232,3.8135,-5.0424,5.6143,5.0762,0.8079,14.9853,23.2359,14.6845,11.4088,6.0429,0.3671,-2.0774,8.7111,3.2813,12.2130,5.9834
1457.0312,18.1990,10.7535,11.2355,6.0107,-1.8209,3.8759,7.0751,4.5171,15.5945,18.1686,16.3130,14.7507,9.3205,2.5685,2.1753,9.0646,6.5669,14.3269,7.8849
1460.9375,12.7445,11.6086,15.0779,7.0372,0.8088,2.9472,8.1832,6.7007,15.0677,12.4876,16.1842,15.6466,10.5597,3.5904,5.0126,10.0773,7.8713,14.6923,8.6388
1464.8438,6.7035,8.8065,13.9371,5.5991,1.5031,2.4433,7.3664,6.0869,11.9878,5.9408,12.7555,12.3364,8.4241,2.6494,4.4274,9.5354,6.2745,11.7508,6.8690
1468.7500,0.5000,2.5718,7.7030,1.9079,0.2711,1.6501,4.6721,3.0080,6.6187,-1.0110,6.5491,5.7367,3.6892,0.3820,0.6402,6.9763,2.6909,6.0164,2.8511
1472.6562,-4.6065,-4.0676,-0.4329,-2.2327,-1.5162,0.3105,1.3916,-0.6936,1.1085,-6.7372,0.2489,-0.6838,-0.9448,-1.3980,-4.0711,3.9762,-0.5186,0.1313,-1.3471
1476.5625,-6.9349,-7.1092,-5.9193,-4.4779,-2.1031,-1.0085,-0.6642,-2.8029,-1.7372,-9.0596,-2.8077,-2.9011,-2.4630,-0.8842,-6.8841,2.8684,-1.0070,-2.6236,-3.0906
1480.4688,-5.4375,-4.2932,-5.7542,-3.4645,-0.6486,-1.3118,-0.3404,-2.1796,-0.3232,-6.6423,-0.8052,1.0010,0.4414,2.3492,-6.2193,4.9232,1.9513,-0.4517,-0.9921
1484.3750,-0.6787,3.1518,-0.4031,0.2334,2.0974,-0.0476,2.0372,0.4870,4.5141,-0.2098,5.1801,9.2837,6.3153,6.7702,-2.6122,9.3241,6.8104,5.6177,3.9587
1488.2812,5.0452,11.0014,6.5535,4.3982,4.2650,2.2649,4.7983,3.1669,9.8181,7.3518,11.6110,17.2762,11.6576,9.6185,1.8211,13.6139,10.5670,12.1256,8.8193
1492.1875,8.7254,14.5356,10.7627,6.5486,4.1835,4.2287,5.9833,3.9101,12.2173,12.2924,14.5314,20.0458,13.0076,8.5706,4.8376,15.2066,10.5673,15.1409,10.4750
1496.0938,8.2985,11.4443,9.8097,5.4876,1.6098,4.5255,4.6226,2.2089,9.9373,12.0344,11.9329,15.3688,9.0720,3.2786,5.3908,12.8707,6.1496,12.5588,7.6123
1500.0000,3.9173,3.2315,4.4912,1.9821,-2.0330,2.9396,1.3660,-0.6641,3.8183,6.7038,4.9210,5.0971,1.5019,-4.2641,3.9832,7.2374,-0.9449,5.2880,1.5476
1503.9062,-2.0654,-5.7974,-2.0860,-1.8589,-4.6045,0.6343,-1.9718,-2.5887,-3.2956,-0.8863,-3.0574,-5.9626,-6.1697,-10.8213,1.9701,0.1840,-7.6400,-3.3947,-4.6514
1507.8125,-6.5200,-11.2733,-6.7877,-4.0467,-4.7136,-0.6074,-3.6275,-2.1370,-8.3491,-6.9072,-8.3826,-12.9212,-10.6908,-13.7892,0.4595,-6.2718,-11.3426,-9.8454,-8.1434
1511.7188,-7.5360,-11.4051,-8.4364,-3.9895,-2.6499,0.3304,-3.0171,0.3869,-9.8519,-8.8564,-9.3884,-13.5747,-10.9205,-12.6320,-0.3599,-10.7366,-11.3205,-12.0847,-8.0344
1515.6250,-5.6883,-7.8152,-8.1613,-2.7251,-0.1158,3.0292,-1.0070,3.1526,-8.5120,-7.0738,-7.0971,-9.3462,-8.1801,-8.9659,-1.0570,-12.5022,-8.8073,-10.6060,-5.7020
1519.5312,-3.6589,-4.1166,-8.0498,-2.0059,1.0342,5.7643,0.8109,4.1052,-6.4244,-4.4022,-4.1987,-3.9476,-5.0375,-5.3111,-2.2171,-11.2155,-5.9025,-7.5945,-3.5884
1523.4375,-4.3618,-3.2947,-9.2631,-2.9413,0.1148,6.7000,1.2730,2.4229,-5.4863,-4.1520,-3.0871,-0.8150,-3.4857,-3.4253,-3.7698,-6.7602,-4.1292,-5.2561,-3.3987
1527.3438,-8.7624,-5.7082,-11.0839,-5.1781,-1.9700,5.1982,0.3827,-0.9120,-6.1680,-7.6826,-4.3328,-1.0844,-3.8007,-3.3683,-4.9141,0.3653,-3.6582,-4.4654,-5.0047
1531.2500,-14.8726,-9.0116,-11.5679,-7.1834,-3.4950,2.2847,-0.8635,-3.8223,-7.4267,-13.2259,-6.5623,-3.3535,-4.7770,-3.8671,-4.6696,8.5193,-3.6369,-4.5795,-6.7850
1535.1562,-18.6935,-9.9481,-9.2304,-7.3910,-3.2847,-0.0682,-1.3682,-4.5993,-7.6982,-16.8054,-7.6842,-5.1601,-5.0055,-3.6016,-2.6161,14.9395,-3.2286,-4.3631,-7.0584
1539.0625,-16.6057,-6.7018,-4.4363,-5.3708,-1.6610,-0.3224,-0.8346,-3.0715,-6.1620,-14.7265,-6.4863,-4.9532,-4.1490,-2.3889,0.7249,16.7343,-2.4880,-3.1938,-5.4919
1542.9688,-7.7150,-0.1972,0.5797,-2.1932,-0.2668,1.5718,0.0043,-0.6700,-3.3566,-6.0490,-3.4637,-3.1303,-3.2506,-1.3770,4.1252,12.4878,-2.3890,-1.6145,-3.4304
1546.8750,5.3604,6.4778,3.0950,0.2489,-0.8891,4.1815,-0.0244,0.6117,-0.7538,6.5719,-0.3699,-1.5170,-3.8881,-2.1251,6.3206,3.4750,-4.0077,-0.8700,-2.9193
1550.7812,17.7959,10.0522,1.6911,0.4729,-4.1302,5.6166,-1.5896,-0.4051,0.3294,18.2485,1.0846,-1.8282,-6.8489,-5.2830,6.6678,-6.4937,-7.5148,-1.8582,-5.1567
1554.6875,25.1708,9.0971,-2.8051,-1.6558,-8.8744,4.8281,-4.2701,-3.3340,-0.3345,24.5850,0.4092,-4.3152,-11.3300,-9.8682,5.3950,-12.7896,-11.7670,-4.3299,-9.5096
1558.5938,25.7874,4.8008,-7.8535,-4.8850,-12.9255,2.2912,-6.7502,-6.5674,-1.7545,24.0700,-1.4153,-7.5556,-15.2590,-13.6932,3.3516,-12.3903,-14.8395,-6.9426,-13.8022
1562.5000,21.3328,0.0980,-10.7943,-7.4128,-14.3683,-0.3418,-7.6473,-8.4019,-2.4428,18.6974,-2.7039,-9.4481,-16.5238,-14.6649,1.4729,-5.5857,-15.1530,-8.1134,-15.6737
1566.4062,15.5879,-2.1745,-10.4081,-8.0063,-12.7294,-1.3222,-6.3853,-8.1253,-1.4453,12.5227,-2.2445,-8.6289,-14.2752,-12.0710,0.3012,4.1085,-12.4337,-7.0486,-14.0710
1570.3125,12.0654,-0.9012,-7.4612,-6.6745,-9.1868,0.1082,-3.5363,-6.3489,1.0223,9.1320,-0.0734,-5.3235,-9.4511,-7.0019,-0.1915,11.8307,-7.8790,-4.2405,-9.8861
1574.2188,12.0219,2.8361,-4.0110,-4.5225,-5.7472,3.2654,-0.4542,-4.4562,3.7131,9.5823,2.6016,-1.1397,-4.2244,-1.6742,-0.4427,13.9482,-3.4509,-1.1382,-5.3658
1578.1250,13.9394,6.5618,-2.0561,-2.9646,-3.9845,6.3878,1.5037,-3.6410,5.1100,11.9803,4.1765,1.9358,-0.7737,1.8441,-0.9519,9.8213,-0.7910,0.7296,-2.7371
1582.0312,14.6416,7.8766,-2.4391,-2.8465,-4.1657,7.5283,1.6558,-4.2179,4.2912,12.8208,3.5690,2.6231,-0.1519,2.6735,-1.9592,1.7974,-0.4398,0.5875,-2.9475
1585.9375,11.2982,5.7257,-4.5980,-4.0094,-5.2667,5.4858,0.2139,-5.6005,1.4005,9.2105,0.7476,0.8917,-1.8824,1.3364,-3.3108,-6.4097,-1.7740,-1.2734,-5.2582
1589.8438,3.1868,0.8571,-7.1380,-5.4862,-5.7713,0.3794,-1.9773,-6.8400,-2.4644,0.7014,-3.3167,-2.1994,-4.4068,-0.8440,-4.5525,-11.8509,-3.5827,-3.7768,-7.8271
1593.7500,-7.6781,-4.6186,-8.7125,-6.1237,-4.6819,-6.3153,-3.9240,-7.2653,-5.7864,-10.2186,-7.1167,-5.1001,-6.0185,-2.6445,-5.1756,-13.6763,-4.8323,-5.6612,-8.8218
1597.6562,-17.3140,-8.2340,-8.6570,-5.2260,-2.1111,-12.2623,-4.8958,-6.7997,-7.2647,-19.1752,-9.1985,-6.4225,-5.7232,-3.5388,-4.8718,-12.9939,-5.1471,-6.0244,-7.3796
1601.5625,-21.5517,-8.2512,-7.1173,-2.8771,0.8451,-15.1583,-4.6216,-5.8331,-6.2870,-21.9518,-8.6610,-5.4204,-3.6148,-3.7053,-3.6613,-11.5588,-4.8013,-4.6036,-3.9361
1605.4688,-18.0282,-4.4076,-4.7774,0.1577,2.7956,-13.7403,-3.2859,-4.8518,-3.1234,-16.5639,-5.4794,-2.2489,-0.6800,-3.6023,-1.8360,-10.3062,-4.3517,-1.7898,0.1294
1609.3750,-7.4993,1.9305,-2.4567,2.8312,2.8603,-8.4868,-1.4044,-4.1263,1.1619,-4.4157,-0.6018,2.0036,1.7751,-3.5048,0.2241,-8.7422,-4.2153,1.5251,3.2384
1613.2812,6.1757,8.2739,-0.7902,4.2874,1.1469,-1.5819,0.3721,-3.6303,5.0510,10.0285,4.2648,5.5887,2.7655,-3.3264,2.2248,-5.5538,-4.4433,4.2075,4.3426
1617.1875,17.5082,12.0277,-0.0561,4.2053,-1.3164,4.0116,1.5050,-3.1562,7.1009,21.0162,7.2264,6.7333,2.0562,-2.7737,3.9991,0.0409,-4.7635,5.2411,3.3334
1621.0938,21.7769,11.6395,-0.1378,2.8936,-3.1158,6.0221,1.7982,-2.4885,6.5152,24.0243,7.0028,4.4887,0.2172,-1.6480,5.4040,7.1862,-4.8014,4.1307,1.0116
1625.0000,17.2734,7.3558,-0.6156,1.1165,-3.1701,4.0960,1.4855,-1.5289,3.5187,17.8924,3.5946,-0.6258,-1.7033,-0.0604,6.1931,13.3557,-4.3290,1.1868,-1.3346
1628.9062,6.2326,1.1515,-0.9908,-0.2771,-1.2857,-0.0024,1.0705,-0.3617,-0.6949,5.4811,-1.6029,-6.6592,-2.7418,1.5627,6.0220,15.5379,-3.4173,-2.5190,-2.5600
1632.8125,-6.1667,-4.2246,-0.9804,-0.7692,1.7099,-3.4500,0.9628,0.7226,-4.4916,-7.6078,-6.4196,-11.1006,-2.5433,2.6512,4.6449,11.9806,-2.4291,-5.6056,-2.2311
1636.7188,-14.3470,-6.6490,-0.7218,-0.4335,4.3320,-4.0986,1.1351,1.2612,-6.5688,-15.7302,-8.9988,-12.1965,-1.5583,2.7294,2.1800,3.4219,-1.8511,-7.0551,-0.8527
1640.6250,-15.1210,-5.7072,-0.7167,0.1087,5.1450,-1.7931,1.0701,0.7630,-6.5563,-15.9639,-8.7458,-9.9426,-0.7737,1.6194,-0.7892,-7.0262,-2.0274,-6.7278,0.4012
1644.5312,-9.1917,-2.8296,-1.4888,0.0422,3.4784,1.6082,0.0959,-1.0360,-5.0982,-9.4473,-6.5622,-6.0961,-1.1043,-0.4571,-3.4344,-15.3898,-2.9251,-5.3888,0.3535
1648.4375,-0.5203,-0.3877,-3.1586,-1.1580,-0.2152,3.5419,-2.0806,-3.9213,-3.3835,-0.5460,-4.2247,-3.1517,-2.8104,-2.9141,-5.1404,-18.9185,-4.0846,-4.2142,-1.4724
1652.3438,6.0362,-0.2891,-5.2538,-3.3963,-4.5669,2.4930,-5.0235,-7.1437,-2.4376,5.6624,-3.3112,-2.9059,-5.3231,-4.9899,-5.8976,-17.5066,-4.8372,-4.0910,-4.5435
1656.2500,7.3824,-2.9198,-6.9471,-5.9884,-7.9637,-1.0133,-7.6922,-9.6691,-2.6244,6.1043,-4.3547,-5.5029,-7.6098,-6.0412,-6.3049,-13.5526,-4.7085,-5.1597,-7.6214
1660.1562,3.5671,-7.0430,-7.5988,-8.0398,-9.3158,-4.8547,-9.0016,-10.6438,-3.6295,1.0587,-6.7107,-9.5134,-8.8357,-5.8163,-7.1131,-10.3034,-3.7620,-6.8573,-9.5052
1664.0625,-2.8141,-10.6421,-7.2144,-8.9247,-8.4813,-6.8469,-8.4511,-9.7983,-4.8427,-6.5377,-9.1163,-12.8864,-8.8494,-4.5445,-8.5903,-9.7136,-2.6171,-8.3593,-9.7215
1667.9688,-8.6217,-12.1143,-6.4420,-8.5525,-6.1236,-6.2616,-6.3788,-7.5186,-5.7956,-13.2174,-10.4765,-14.0691,-8.1325,-2.7545,-10.1788,-11.2168,-2.0552,-9.0547,-8.6864
1671.8750,-12.1652,-11.0649,-6.0637,-7.2679,-3.1474,-4.2554,-3.6652,-4.5349,-6.3384,-17.0849,-10.3460,-12.5892,-7.2563,-0.9180,-10.7557,-12.2613,-2.4314,-8.7317,-7.2412
1675.7812,-13.9166,-8.2974,-6.3386,-5.5038,-0.1327,-2.9464,-1.1204,-1.4616,-6.5009,-18.5886,-8.9000,-8.9026,-6.2879,0.8357,-9.3886,-10.2906,-3.3046,-7.4393,-5.9289
1679.6875,-15.6477,-5.1634,-6.7262,-3.4934,2.8300,-3.8469,0.9733,1.4553,-6.2685,-19.6414,-6.6039,-3.8734,-4.6679,2.6987,-6.0854,-4.8244,-3.6180,-5.2780,-4.5962
1683.5938,-18.7838,-2.8056,-6.2712,-1.2836,5.8183,-6.7877,2.8178,4.1896,-5.5482,-21.8867,-3.9638,1.5628,-1.7396,4.8362,-1.9888,1.8642,-2.4046,-2.4005,-2.6646
1687.5000,-23.2094,-1.7824,-4.4351,0.9690,8.5670,-10.0705,4.6126,6.5250,-4.3932,-25.3938,-1.5531,6.3334,2.4215,6.9634,1.1837,6.0728,0.4151,0.7445,0.1159
1691.4062,-27.3185,-2.1754,-1.7663,2.7092,10.2371,-11.6798,6.0509,7.7730,-3.2636,-28.6353,-0.1556,9.0472,6.5472,8.2234,2.1242,5.1934,3.7209,3.2027,3.0455
1695.3125,-29.1523,-3.9073,0.1577,3.0347,9.7421,-10.6589,6.2645,6.9526,-3.0026,-29.6394,-0.6902,8.1944,8.5768,7.5636,0.6955,-0.2964,5.6816,3.6892,4.5720
1699.2188,-27.7284,-6.8985,-0.3973,1.1773,6.4802,-7.7034,4.3410,3.4204,-4.4025,-27.4073,-3.7535,2.9140,6.8145,4.4445,-2.0392,-6.8520,4.8281,1.2329,3.1846
1703.1250,-23.6256,-10.9237,-4.1471,-2.8551,0.9704,-4.6337,0.0806,-2.4515,-7.5901,-22.5932,-9.0090,-6.0756,1.1433,-0.5948,-4.5269,-10.0325,1.0525,-4.0470,-1.4444
1707.0312,-18.4981,-15.3512,-10.1001,-7.9515,-5.1165,-3.1916,-5.5725,-9.0768,-11.6786,-17.0394,-14.9174,-16.1508,-6.5545,-5.9689,-5.6782,-7.4378,-4.1452,-10.6042,-7.8972
1710.9375,-13.9613,-19.0852,-15.8771,-12.2187,-9.6632,-3.9994,-10.7970,-14.2025,-15.0170,-12.5699,-19.1747,-23.5809,-13.1701,-9.7633,-5.4166,-0.3951,-8.3924,-15.9450,-13.5263
1714.8438,-10.6561,-20.8784,-18.9110,-13.8639,-11.1748,-6.3055,-13.7546,-15.9691,-15.9740,-9.8985,-19.7568,-25.2271,-15.9540,-10.7397,-4.4930,6.8390,-9.7501,-17.7787,-15.8275
1718.7500,-8.0810,-19.8760,-17.8064,-12.1406,-9.5582,-8.5579,-13.5171,-13.8743,-13.8006,-8.3442,-15.9915,-20.2036,-13.9670,-8.9914,-3.7689,9.9073,-7.7876,-15.1924,-13.8291
1722.6562,-5.1930,-16.0455,-13.0205,-7.7611,-6.1095,-9.3311,-10.4763,-9.0385,-9.0245,-6.4538,-8.9718,-10.4361,-8.4947,-5.8063,-3.5308,7.3213,-3.7535,-9.1193,-8.5959
1726.5625,-1.2860,-10.2123,-6.4683,-2.4874,-2.7049,-8.0232,-6.0038,-3.5886,-3.1277,-3.0567,-1.0087,0.3174,-2.1733,-2.8114,-3.3301,1.5354,0.2536,-1.7869,-2.5156
1730.4688,3.4464,-3.6901,-0.3551,1.8584,-0.6974,-5.0059,-1.6224,0.4786,2.2694,1.9293,5.5647,8.4452,2.5964,-0.9625,-2.4253,-2.6364,2.5702,4.5101,2.1604
1734.3750,7.9634,2.2388,3.9804,4.3439,-0.2054,-1.2974,1.7517,2.2738,6.1770,7.3805,9.4997,12.2627,4.9338,-0.0431,-0.4534,-1.2121,2.8894,8.5330,4.5609
1738.2812,10.9241,6.6789,6.4884,5.2441,-0.2156,1.9490,4.0395,2.2769,8.4819,11.5279,10.9838,12.5304,5.6782,1.0097,2.1801,6.2917,2.2637,10.4311,5.4334
1742.1875,11.3419,9.1642,7.9109,5.5637,0.6026,3.8632,5.6450,1.7883,9.5860,12.8095,11.0884,11.4731,6.4565,3.2033,4.4637,16.4562,2.2402,11.1522,6.2832
1746.0938,8.9679,9.4883,8.8206,6.1325,2.9184,4.0607,6.8603,1.9719,9.7789,10.5323,10.7571,11.0308,8.3112,6.6383,5.3486,24.0018,3.7309,11.4310,8.0635
1750.0000,4.2490,7.5533,8.9459,6.9147,6.2225,2.6410,7.4975,3.1041,8.8485,5.0347,10.0523,11.5219,10.8298,10.2819,4.3071,24.8551,6.3500,11.1130,10.3386
1753.9062,-2.0321,3.4013,7.2922,7.0027,9.0789,0.0501,7.0033,4.4630,6.2270,-2.6444,8.1561,11.5565,12.3392,12.4995,1.5288,18.2770,8.6163,9.2918,11.4872
1757.8125,-9.1601,-2.5951,2.9814,5.2830,9.9650,-3.1198,4.9387,4.8646,1.5593,-11.3151,4.0914,9.1742,11.0056,11.9811,-2.2914,6.8889,8.8561,5.1350,9.7853
1761.7188,-16.6600,-9.5638,-3.8035,1.3027,8.1652,-6.3093,1.4451,3.4607,-4.7322,-20.0301,-2.3537,3.3878,6.0974,8.4737,-6.3309,-5.0932,6.2253,-1.2238,4.6321
1765.6250,-24.1203,-16.1702,-11.4770,-4.2562,4.1850,-9.0762,-2.6575,0.2976,-11.3208,-28.0770,-10.1258,-4.8961,-1.3976,2.9047,-9.8824,-14.0491,1.2444,-8.3901,-2.8898
1769.5312,-30.7972,-20.9199,-17.6286,-9.8065,-0.5303,-11.0631,-6.2279,-3.6776,-16.4253,-34.6251,-17.1712,-13.1542,-9.1683,-3.1067,-12.3578,-18.2307,-4.4303,-14.2546,-10.4598
1773.4375,-35.3336,-22.6200,-20.2170,-13.6306,-4.3637,-11.9317,-8.3879,-7.1214,-18.5976,-38.3778,-21.3255,-18.5143,-14.7111,-7.9946,-13.1975,-17.7061,-8.8164,-17.0434,-15.6670
1777.3438,-35.9523,-20.8065,-18.6517,-14.7047,-6.3091,-11.4023,-8.9580,-8.9825,-17.3932,-37.6737,-21.3219,-19.2193,-16.5031,-10.8178,-11.9087,-13.5418,-10.5177,-16.2109,-17.1484
1781.2500,-31.2311,-15.9563,-14.0876,-13.0900,-6.3364,-9.4597,-8.4747,-8.9776,-13.5523,-31.2277,-17.3707,-15.4412,-14.5670,-11.4215,-8.3173,-7.0990,-9.2698,-12.6343,-15.0854
1785.1562,-21.1387,-9.3952,-8.7527,-9.7285,-5.1923,-6.5965,-7.7884,-7.6223,-8.6091,-19.2127,-11.0209,-9.0467,-10.2046,-10.2461,-2.8679,0.1512,-5.9042,-8.0423,-10.8730
1789.0625,-7.6716,-2.9178,-4.7322,-5.8642,-3.8356,-3.8260,-7.5061,-5.8534,-4.1707,-3.9614,-4.4138,-2.5469,-5.1736,-8.0082,3.3052,6.5873,-1.8426,-4.0878,-6.2774
1792.9688,5.5167,1.7740,-2.9573,-2.4893,-2.8886,-2.2772,-7.6272,-4.4955,-1.2548,10.4094,0.6648,2.1159,-0.8524,-5.4564,8.7004,10.7022,1.5620,-1.6405,-2.6267
1796.8750,14.5691,3.6339,-2.9753,-0.1097,-2.4222,-2.5074,-7.5944,-3.8759,0.0001,19.5841,3.4581,4.2919,2.1642,-3.2522,12.0471,11.7917,3.5144,-0.6597,-0.4458
1800.7812,17.2956,2.6288,-3.5528,1.1626,-2.1392,-3.9847,-6.7174,-3.7719,0.1698,21.1410,4.3414,4.5650,3.9407,-1.9023,12.8424,10.5520,3.9233,-0.5853,0.4098
1804.6875,14.3581,-0.2750,-3.6326,1.3992,-1.7547,-5.2208,-4.7002,-3.6676,0.0849,15.9295,4.3654,4.0900,4.7845,-1.6661,11.5007,8.8872,3.2315,-0.8725,0.3687
1808.5938,8.9295,-3.5277,-2.9842,0.7513,-1.2749,-4.6426,-1.9314,-3.1319,0.3549,7.7561,4.5373,3.7984,4.8975,-2.4452,9.0295,8.7567,2.0875,-1.2798,-0.1715
1812.5000,4.8907,-5.6559,-2.1598,-0.4992,-0.9810,-1.7145,0.6548,-2.0847,1.1144,1.3798,5.2470,3.9365,4.3093,-3.7549,6.4513,10.7432,1.0425,-1.7870,-0.9308
1816.4062,4.6124,-5.8647,-1.8837,-1.8742,-1.1682,2.4893,2.0779,-0.8179,2.0737,-0.0686,6.1371,4.1218,3.0505,-4.8651,4.3374,13.4387,0.3865,-2.3256,-1.6725
1820.3125,7.7257,-4.2911,-2.3922,-2.7933,-1.8720,5.7911,1.8699,0.2017,2.7844,3.3338,6.4459,3.7694,1.3387,-5.1064,2.7105,14.2787,0.1317,-2.6337,-2.1562
1824.2188,11.6834,-1.7985,-3.2338,-2.8554,-2.8151,6.2905,0.3453,0.5959,2.9332,8.7166,5.5745,2.5391,-0.4280,-4.2088,1.3062,11.3685,0.0889,-2.4047,-2.2300
1828.1250,13.7155,0.5398,-3.6590,-2.1305,-3.6269,3.7173,-1.5889,0.2391,2.4970,12.5183,3.5111,0.5146,-1.8866,-2.4880,-0.0584,4.9994,-0.0308,-1.6184,-1.9999
1832.0312,12.8047,1.9586,-3.2670,-1.2101,-4.1551,-0.2323,-2.9672,-0.7424,1.7001,12.8373,0.8573,-1.9397,-2.9536,-0.7456,-1.2958,-2.3412,-0.5149,-0.7473,-1.8886
1835.9375,10.2914,2.2412,-2.3772,-0.9004,-4.5982,-2.9141,-3.3045,-2.0848,0.8430,10.4452,-1.5289,-4.4504,-3.8704,0.1052,-2.1582,-7.5750,-1.5436,-0.5903,-2.4442
1839.8438,8.7008,1.6143,-1.8116,-1.7032,-5.3131,-2.4777,-2.7992,-3.4983,0.1367,7.8447,-3.0100,-6.7778,-4.9694,-0.4746,-2.5206,-9.1142,-3.0782,-1.7634,-3.9508
1843.7500,9.6827,0.4574,-2.2345,-3.4233,-6.4183,0.8642,-2.0894,-4.7029,-0.3532,7.1565,-3.4452,-8.7190,-6.3160,-2.3051,-2.5801,-7.8442,-4.7900,-4.1673,-6.0928
1847.6562,12.6135,-0.9277,-3.5579,-5.1991,-7.5126,4.9558,-1.7530,-5.4161,-0.6456,8.4392,-3.1145,-9.9079,-7.5147,-4.4932,-2.7819,-6.2192,-6.1088,-6.8374,-7.9552
1851.5625,14.9217,-2.3493,-4.8924,-5.9877,-7.7887,7.1492,-1.9087,-5.3767,-0.7466,9.6817,-2.4031,-9.7758,-7.8809,-5.8395,-3.5015,-6.1368,-6.4395,-8.3626,-8.4572
1855.4688,13.9229,-3.6147,-5.1265,-5.2178,-6.5465,6.0809,-2.1897,-4.4579,-0.6151,8.4307,-1.5193,-7.8297,-6.9148,-5.4760,-4.7121,-7.2547,-5.4860,-7.6779,-7.0104
1859.3750,8.8240,-4.4567,-3.7375,-3.1840,-3.7812,2.5376,-2.0781,-2.8130,-0.2228,3.7945,-0.4570,-4.1134,-4.7555,-3.3996,-5.9026,-7.1432,-3.5087,-4.7479,-3.9895
1863.2812,1.4303,-4.6184,-1.2405,-0.9037,-0.4024,-1.1591,-1.3258,-0.9168,0.3535,-2.7006,0.8112,0.5104,-2.2512,-0.5745,-6.3457,-3.2752,-1.3146,-0.6824,-0.6584
1867.1875,-4.9547,-4.0476,1.0767,0.4947,2.1587,-2.7572,-0.1359,0.5974,0.9103,-8.0355,2.1292,4.5821,-0.5198,1.5223,-5.5630,4.6218,0.0950,2.8351,1.4827
1871.0938,-7.6241,-3.0134,1.9768,0.4689,2.7693,-1.5037,1.0220,1.2620,1.2203,-9.6965,3.1634,6.7607,-0.2392,1.7117,-3.6721,13.7324,0.0714,4.4818,1.5762
1875.0000,-6.0558,-1.9850,1.0915,-0.6055,1.3281,1.5651,1.7960,1.0629,1.2053,-7.2588,3.6475,6.6221,-1.1450,-0.1708,-1.3540,19.6738,-1.2594,4.0228,-0.0397
1878.9062,-1.9243,-1.3040,-0.8298,-1.6851,-1.1064,4.5561,2.2109,0.4669,1.0465,-2.4289,3.6606,4.9764,-2.1271,-3.1055,0.5703,19.4441,-3.0018,2.3780,-1.9885
1882.8125,2.3297,-0.8796,-2.4105,-1.7327,-2.9319,6.0874,2.5815,0.1190,1.1187,2.3791,3.6603,3.4047,-1.9279,-5.4245,1.6806,13.6984,-3.9836,0.9960,-2.6791
1886.7188,5.2085,-0.1697,-2.5389,-0.3883,-2.9988,6.0768,3.1502,0.3738,1.7508,5.7691,4.1702,3.2426,-0.0232,-5.7797,2.2302,6.5983,-3.4740,0.9368,-1.3090
1890.6250,6.8773,1.4632,-1.0638,1.7830,-1.3479,5.4799,3.7494,0.9785,2.9510,8.0717,5.3082,4.6635,2.9055,-3.9672,2.9227,3.1529,-1.6817,2.2395,1.5805
1894.5312,8.4936,4.2179,1.1404,3.6070,0.7995,5.3322,3.7951,1.1578,4.2844,10.5859,6.5214,6.4989,5.2585,-1.0858,4.3110,5.7889,0.3113,3.9483,4.3613
1898.4375,10.8465,7.5099,2.7366,3.9731,1.7967,5.9202,2.6627,0.0935,5.0229,14.0859,6.7898,6.9615,5.4277,1.0965,6.2359,12.5323,1.1740,4.7446,5.2466
1902.3438,13.4980,10.1110,2.7157,2.4531,0.5822,6.6895,0.1949,-2.4894,4.5190,17.8765,5.2433,4.8184,2.7745,1.1891,7.7457,18.1467,0.1348,3.7631,3.3282
1906.2500,15.1228,10.7670,0.9267,-0.4770,-2.6950,6.8475,-3.0325,-6.0147,2.6138,20.1954,1.8196,0.2494,-1.9363,-1.0089,7.6377,17.5563,-2.5364,1.0994,-0.8963
1910.1562,14.7169,8.9606,-1.9123,-3.6993,-6.7986,6.0770,-5.9004,-9.2491,-0.1557,19.6355,-2.4848,-5.1651,-6.9087,-4.4307,5.3152,9.2914,-5.6788,-2.2528,-5.7948
1914.0625,12.6137,5.3450,-4.6343,-6.0053,-10.1356,4.7690,-7.2908,-10.9035,-2.6945,16.4124,-5.9803,-9.2916,-10.2495,-7.4211,1.3749,-3.3599,-7.9237,-4.9336,-9.4662
1917.9688,10.4008,1.5337,-6.1753,-6.6225,-11.5919,3.6459,-6.6447,-10.2887,-3.8048,12.4016,-7.0986,-10.5599,-10.8948,-8.7185,-2.5435,-14.2838,-8.4719,-5.8743,-10.6682
1921.8750,9.7299,-0.6951,-5.9861,-5.4756,-10.9731,3.1531,-4.2052,-7.6473,-2.7645,9.8386,-5.2053,-8.6683,-9.0137,-8.1203,-4.6403,-18.2959,-7.4849,-4.7401,-9.3065
1925.7812,10.9283,-0.3633,-4.1936,-3.1248,-8.8813,3.1368,-0.8494,-3.9991,0.2406,9.6438,-0.9668,-4.5473,-5.7463,-6.4590,-4.0396,-14.2748,-5.8818,-2.0044,-6.3050
1929.6875,12.5247,2.1193,-1.5395,-0.4878,-6.2390,3.0174,2.3241,-0.6320,4.0641,10.6635,3.9112,0.2354,-2.5319,-4.9813,-1.3517,-5.6850,-4.7184,1.2863,-3.0499
1933.5938,12.1317,5.1039,0.8506,1.5026,-3.8367,2.2371,4.3864,1.4507,6.9991,10.4480,7.4177,4.1597,-0.4599,-4.5817,1.7084,1.7569,-4.5640,3.8980,-0.7721
1937.5000,8.0995,6.5426,1.8453,2.1906,-2.1405,0.5765,4.7873,1.8521,7.5042,7.0349,8.0755,6.1623,0.0541,-5.3632,3.4318,3.6824,-5.2419,4.8130,-0.1516
1941.4062,0.7716,5.0861,0.7776,1.3880,-1.3342,-1.8633,3.4041,0.7840,4.9454,0.4526,5.5177,5.7432,-0.7676,-6.7188,3.2244,-0.3838,-6.0282,3.5687,-1.2125
1945.3125,-7.5379,0.8463,-2.1585,-0.5655,-1.4037,-4.8664,0.5398,-1.1498,-0.0081,-7.1290,0.5997,2.9726,-2.2960,-7.7772,1.9471,-7.0602,-6.1241,0.4606,-3.4188
1949.2188,-13.8040,-4.5994,-5.8409,-2.9044,-2.1400,-8.1862,-3.0877,-3.2295,-5.5761,-12.6754,-4.9512,-1.4473,-3.7549,-7.8839,1.2379,-11.5325,-5.0978,-3.4862,-5.8713
1953.1250,-15.8882,-8.9759,-8.6473,-4.7101,-3.1157,-11.3799,-6.4453,-4.8456,-9.6123,-14.0510,-9.1874,-6.1683,-4.4494,-6.8663,2.2774,-10.6825,-3.0820,-6.8491,-7.5794
1957.0312,-13.4222,-10.4416,-9.2580,-5.2866,-3.7923,-13.6051,-8.4754,-5.6547,-10.5671,-11.0459,-10.6518,-9.4723,-3.9867,-5.0404,4.8695,-4.9150,-0.6923,-8.3784,-7.8035
1960.9375,-7.5346,-8.4749,-7.4083,-4.4768,-3.8103,-13.7313,-8.5354,-5.6678,-8.1799,-5.0697,-8.8942,-9.9329,-2.4641,-3.0587,7.5044,2.3613,1.2361,-7.5672,-6.3847
1964.8438,0.1497,-4.0487,-4.0910,-2.7370,-3.2917,-10.9007,-6.7575,-5.2382,-3.5307,2.0616,-4.5983,-7.1906,-0.5061,-1.6980,8.3822,7.0964,1.9667,-4.8978,-3.8798
1968.7500,8.3507,0.9622,-1.0008,-0.8896,-2.8665,-5.2391,-4.0429,-4.8961,1.5713,9.1982,0.7373,-2.3221,0.9728,-1.6087,6.6848,7.1798,1.1436,-1.5794,-1.3380
1972.6562,16.2033,4.7667,0.4892,0.3325,-3.2794,1.8345,-1.5973,-5.0442,5.4992,15.9654,5.4270,2.5677,1.2481,-3.0243,3.1924,3.6012,-1.0323,1.1099,0.2451
1976.5625,22.6813,6.4551,0.1667,0.6857,-4.7666,8.0691,-0.2375,-5.6506,7.4892,21.9532,8.2442,5.4074,0.2501,-5.5229,-0.2122,-0.4411,-3.8092,2.4875,0.5072
1980.4688,26.1073,6.1882,-0.9421,0.4997,-6.6572,11.4473,0.0858,-6.1593,7.7312,25.8359,8.7808,5.2556,-1.3234,-8.0320,-1.8191,-1.7831,-6.1338,2.7208,-0.0593
1984.3750,24.4517,4.7618,-1.3356,0.3806,-7.5928,11.2183,0.1991,-5.7569,6.9105,25.3861,7.3804,2.7233,-2.4075,-9.2237,-1.2640,0.6159,-7.1061,2.5188,-0.4530
1988.2812,16.4902,2.9292,-0.1296,0.7199,-6.3586,8.2245,1.0701,-3.9158,5.6023,18.6658,4.7661,-0.5497,-2.2852,-8.2190,0.2247,5.0524,-6.4549,2.4999,0.0961
1992.1875,3.1236,0.9762,2.2782,1.3456,-2.8384,4.3149,3.0403,-0.9007,3.9779,5.7134,1.6514,-2.9886,-1.1473,-5.2354,0.6828,8.2489,-4.7577,2.7033,1.4785
1996.0938,-12.1363,-1.1861,4.4386,1.5694,1.5789,1.2560,5.4642,2.1259,1.9976,-10.4850,-1.4179,-3.9887,-0.0731,-1.7186,-1.2109,7.4982,-3.2158,2.5967,2.6259
2000.0000,-24.1060,-3.5632,4.8135,0.6214,4.5271,-0.1311,7.0304,3.5626,-0.1497,-24.6245,-3.9713,-4.0454,-0.3840,0.2592,-5.1713,2.4017,-3.0444,1.5576,2.1163
2003.9062,-28.0102,-5.6873,2.7913,-1.8019,3.9099,-0.0967,6.5727,2.2011,-1.8111,-31.2154,-5.4816,-4.1226,-2.7668,-0.9015,-9.3995,-4.8646,-4.7960,-0.5577,-0.8943
2007.8125,-21.6719,-6.6793,-0.9428,-5.2387,-0.8548,0.5927,3.8334,-2.0280,-2.1297,-27.1485,-5.4377,-4.8165,-6.7525,-5.3419,-11.6606,-10.8620,-8.0170,-3.2045,-6.0197
2011.7188,-6.6423,-5.7844,-4.8941,-8.6125,-8.3627,1.3639,-0.3235,-7.8552,-0.6699,-13.2818,-3.6607,-5.9574,-10.9013,-11.4843,-10.6288,-12.9130,-11.4424,-5.4611,-11.7024
2015.6250,12.3440,-3.0043,-7.7027,-10.7408,-15.8276,2.1406,-4.3770,-13.1708,2.0756,5.8296,-0.6257,-6.8723,-13.5566,-16.6972,-6.6440,-10.5787,-13.5997,-6.6150,-15.9467
2019.5312,29.3037,0.6768,-8.8493,-10.8860,-20.4079,3.0805,-6.9632,-15.9708,4.7648,23.9015,2.5516,-6.9799,-13.6523,-18.5293,-1.4468,-5.7271,-13.4428,-6.5629,-17.2555
2023.4375,39.3551,3.7201,-8.6685,-9.0322,-20.4837,4.0759,-7.5118,-15.2392,5.9331,35.5361,4.6037,-6.1658,-11.0646,-15.8235,2.8752,-1.2384,-10.6685,-5.7260,-15.2117
2027.3438,40.3961,4.8929,-7.7744,-5.7757,-16.2116,4.5321,-6.3452,-11.3165,4.9280,38.1940,4.8412,-4.6517,-6.3871,-9.1382,5.0299,0.7831,-5.6335,-4.5825,-10.4457
2031.2500,33.4820,4.0045,-6.4438,-1.9738,-9.1849,3.6963,-4.2772,-5.6241,2.3958,32.7161,3.6282,-2.5770,-0.4455,-0.3581,5.0661,0.1748,0.9132,-3.2360,-4.1628
2035.1562,21.9750,2.0121,-4.4859,1.5876,-1.5647,1.3289,-2.0680,0.0266,-0.0656,22.4244,2.2086,0.2085,5.9859,8.1538,4.0768,-1.4052,7.9948,-1.4121,2.3535
2039.0625,10.0599,0.4092,-1.6831,4.3258,4.7445,-1.8108,-0.1193,4.1300,-0.9033,11.4923,1.9164,3.8436,12.0680,14.3527,3.3473,-1.7155,14.3761,1.0931,7.9617
2042.9688,1.3278,0.2975,1.6099,5.8186,8.5008,-4.1151,1.4502,5.8728,0.4006,3.4286,3.2644,7.8692,16.6169,16.9393,3.5304,0.5533,18.5350,3.8948,11.6377
2046.8750,-2.1224,1.7508,4.2809,5.7525,9.1363,-3.9369,2.5236,5.1460,3.0141,0.2060,5.5405,10.9479,18.1247,15.4446,4.3376,4.9393,18.9307,5.9233,12.4839
2050.7812,0.0215,3.8642,4.9450,4.0042,6.6490,-0.6085,2.8021,2.3440,5.3192,2.0854,7.2251,11.3371,15.3342,10.1865,4.8637,9.5088,14.6507,5.9469,9.9895
2054.6875,6.4513,5.4041,2.8210,0.8312,1.5967,4.9679,1.9071,-1.8404,5.9566,7.8848,6.9732,7.9685,8.1192,2.2386,4.2689,12.0302,6.1277,3.4134,4.4588
2058.5938,14.7042,5.5811,-1.6187,-3.0122,-4.8485,10.5770,-0.3019,-6.5284,4.6370,15.4357,4.5054,1.4117,-1.9645,-6.6709,2.3640,11.2406,-4.6122,-0.9917,-2.7576
2062.5000,21.8540,4.4367,-6.7219,-6.4160,-11.0228,13.7239,-3.4514,-10.7320,2.2049,22.1415,0.8032,-6.0671,-12.0103,-14.5114,-0.2514,7.4410,-14.5366,-5.5319,-9.5636
2066.4062,25.3740,2.6588,-10.4536,-8.3264,-15.2308,12.9106,-6.6505,-13.5021,-0.0134,25.6639,-2.5047,-11.5617,-18.9709,-19.5836,-2.5512,2.1360,-20.8753,-8.3050,-13.9396
2070.3125,24.0043,1.0575,-11.4200,-8.2178,-16.4134,8.4591,-8.8061,-14.1757,-1.0601,24.6818,-4.1213,-13.1007,-21.1008,-21.1739,-3.6927,-2.9477,-22.3969,-8.2761,-14.8547
2074.2188,18.2983,0.1320,-9.4775,-6.3270,-14.6332,2.4067,-9.0825,-12.6152,-0.7948,19.4714,-3.7509,-10.7069,-18.7349,-19.8120,-3.4856,-6.7831,-19.9082,-5.7817,-12.6941
2078.1250,10.5151,0.0104,-5.5940,-3.4777,-11.0165,-2.5099,-7.2513,-9.2808,0.2998,11.9530,-2.0413,-6.2164,-13.8905,-16.8835,-2.4285,-9.3312,-15.6261,-2.1847,-8.9022
2082.0312,3.7561,0.6950,-1.1414,-0.5953,-7.1190,-4.2615,-3.7606,-5.0530,1.7022,5.0155,0.0750,-1.9830,-8.9430,-13.7742,-1.2946,-11.0922,-11.7907,1.0538,-5.0641
2085.9375,0.6492,2.2910,2.8524,1.7719,-4.0933,-2.5666,0.4760,-0.8863,3.3065,1.3109,2.0961,0.6238,-5.2505,-11.0869,-0.5449,-12.3102,-9.4016,3.2324,-2.0388
2089.8438,2.1967,4.9376,6.0107,3.6068,-2.1950,1.0227,4.4288,2.5073,5.3829,2.0741,4.1815,1.8878,-2.6272,-8.4701,0.0270,-12.4440,-7.8841,4.6234,0.2861
2093.7500,7.3829,8.4527,8.3672,5.1694,-0.9389,4.0605,7.2668,4.7735,8.1054,6.5887,6.7600,3.1631,0.0421,-5.1837,1.1381,-10.3192,-5.8603,5.9573,2.5010
2097.6562,13.7500,12.0100,9.8811,6.5448,0.2492,4.6451,8.5313,5.8076,11.0672,12.5979,9.8629,5.5352,3.5568,-0.9832,3.4053,-4.9205,-2.4364,7.6186,4.8660
2101.5625,18.6082,14.2157,10.1589,7.3609,1.4019,2.5125,8.1566,5.5698,13.2244,17.4260,12.7418,8.7589,7.4755,3.3583,6.6704,3.6588,1.9304,9.1842,6.8370
2105.4688,20.2004,13.6957,8.6383,6.9217,1.8957,-0.8770,6.3969,4.0189,13.3875,19.1813,14.1127,11.2774,10.2118,6.3403,9.7589,13.7400,5.6209,9.6594,7.3179
2109.3750,18.2276,9.9107,5.1115,4.6999,0.9530,-3.3114,3.7231,1.2417,10.9677,17.4102,12.9072,11.3146,10.1055,6.6883,10.9364,22.4422,6.9669,8.2389,5.4798
2113.2812,13.5938,3.6878,0.1812,0.8449,-1.6222,-3.2306,0.7296,-2.3292,6.4757,12.9620,9.0302,8.2380,6.7021,4.3111,8.8722,26.8280,5.4918,5.0271,1.5393
2117.1875,7.7158,-2.9389,-4.7400,-3.6797,-5.0633,-0.6491,-1.9511,-5.8409,1.4185,7.3204,3.6045,3.1874,1.3031,0.5444,3.5417,25.2537,2.3697,1.1700,-3.1130
2121.0938,1.9376,-7.5818,-7.9895,-7.4838,-7.9599,2.9920,-3.7480,-8.2502,-2.3801,1.9182,-1.4906,-1.5078,-3.6559,-2.5618,-3.5341,18.2123,-0.2649,-1.7353,-6.6028
2125.0000,-2.6448,-8.6231,-8.4929,-9.4554,-9.1065,5.8914,-4.2808,-8.8017,-3.6542,-2.1846,-4.5260,-3.7459,-6.0261,-3.4788,-9.9281,8.1946,-0.7149,-2.5854,-7.6616
2128.9062,-5.0759,-5.9975,-6.3900,-9.3398,-8.2950,7.0785,-3.4978,-7.4764,-2.2790,-4.2629,-4.7493,-2.9404,-5.2270,-2.1332,-13.4901,-1.3865,1.1308,-1.4429,-6.3908
2132.8125,-4.5407,-1.2038,-3.0401,-7.8117,-6.4624,6.8620,-1.7569,-5.0862,0.7361,-3.8417,-2.6698,-0.3174,-2.5260,0.1113,-13.3717,-7.6617,3.7096,0.5103,-4.1698
2136.7188,-0.7382,3.4508,-0.3494,-5.9924,-5.0454,6.2449,0.2289,-2.8830,3.8013,-0.8533,0.3154,1.9578,-0.1248,1.4299,-10.2921,-9.4106,4.8554,1.7171,-2.7399
2140.6250,5.5356,5.9469,0.2350,-4.7344,-4.9601,5.8153,1.6195,-1.8718,5.5174,3.9895,2.6912,2.2116,0.3343,0.8224,-5.9418,-7.2766,3.3307,1.2096,-3.0593
2144.5312,12.1130,5.4009,-1.5075,-4.1600,-5.9223,5.0449,1.7863,-2.2489,5.2558,8.9651,3.5311,0.2916,-1.1618,-1.1679,-1.9761,-3.0770,-0.2192,-0.8245,-4.6905
2148.4375,15.9496,2.2509,-4.5018,-3.7605,-6.6162,2.6216,0.6039,-3.3422,3.2812,11.6547,2.7661,-2.4709,-3.0736,-2.8065,0.7275,1.3007,-3.5692,-3.2267,-6.1421
2152.3438,14.3697,-2.2324,-7.0690,-2.9688,-5.6403,-2.3747,-1.4759,-4.1163,0.4209,9.8577,0.9400,-4.2932,-3.4820,-2.3776,2.1327,4.7456,-4.3319,-4.6695,-5.9553
2156.2500,6.4544,-6.7389,-7.9696,-1.7696,-2.5993,-9.3512,-3.6346,-3.9123,-2.4753,2.7020,-1.3116,-4.2343,-1.5583,0.5436,2.5395,7.0720,-1.5962,-4.5435,-3.8135
2160.1562,-6.2598,-10.5111,-7.1404,-0.8652,1.4306,-16.0644,-5.0722,-2.9092,-4.9438,-8.7034,-3.6699,-2.8538,1.6877,4.6156,2.0293,8.5347,3.2898,-3.3355,-0.9097
2164.0625,-20.2676,-13.4020,-5.6303,-1.2186,4.4420,-19.6985,-5.3356,-1.9596,-6.9486,-21.5253,-6.1471,-1.7727,3.9414,7.4100,0.3503,9.1881,7.3543,-2.2406,0.7356
2167.9688,-31.5546,-15.4534,-4.7489,-3.2519,4.7481,-18.4810,-4.3946,-1.8899,-8.5685,-32.2933,-8.7184,-2.4255,3.1097,6.8629,-2.6767,8.6336,7.7266,-2.2523,-0.3784
2171.8750,-37.2348,-16.3883,-4.9953,-6.2719,2.1412,-12.7380,-2.4597,-2.7604,-9.5937,-38.2504,-10.8876,-4.8555,-1.1443,2.6065,-6.6155,6.3587,3.4146,-3.3489,-4.0779
2175.7812,-36.5051,-15.4888,-5.5493,-8.6051,-1.8309,-4.6831,0.2584,-3.6596,-9.3925,-38.2777,-11.6046,-7.4292,-6.9081,-3.6613,-10.2644,2.3902,-3.9747,-4.3681,-8.3555
2179.6875,-30.5459,-12.0594,-4.7803,-8.4734,-4.7122,2.8595,3.5990,-3.2589,-7.2508,-33.0267,-9.7507,-7.7745,-10.9924,-9.0399,-12.1364,-2.3011,-11.0573,-3.7370,-10.4201
2183.5938,-21.6506,-6.2245,-1.5281,-5.1296,-4.6232,7.8762,7.2361,-0.8124,-3.0443,-24.3815,-4.9973,-4.4319,-10.8531,-11.0433,-11.3077,-6.0650,-14.5823,-0.6485,-8.3991
2187.5000,-12.2382,0.5346,3.7045,0.4750,-1.4543,9.8101,10.3993,3.0906,2.2160,-14.6912,1.5176,1.8377,-6.2847,-9.0239,-8.0518,-7.4479,-13.2992,4.0896,-2.6591
2191.4062,-4.2597,5.6490,8.5798,5.9853,3.0039,9.1940,11.8801,6.6142,6.4648,-6.1579,7.2844,8.0442,0.2270,-4.5530,-3.7886,-6.1380,-8.6529,8.1803,4.1372
2195.3125,0.9447,6.6167,10.0965,8.8209,6.1074,6.8167,10.5194,7.6660,7.4619,-0.4776,9.4746,10.4643,4.8185,-0.5174,-0.3406,-3.3082,-3.8762,9.0139,8.3890
2199.2188,2.6450,2.4917,6.4956,7.5853,5.9503,3.2196,5.9941,5.2154,4.0956,1.4103,6.5091,6.8840,4.5127,0.5478,1.0398,-1.0301,-2.0191,5.2747,7.6042
2203.1250,0.8624,-5.2119,-1.3226,2.8704,2.5101,-1.1259,-0.6198,0.0810,-2.6662,-0.4153,-0.7643,-1.7610,-0.9218,-2.0871,0.2681,-1.0363,-4.1054,-2.0068,1.9223
2207.0312,-3.3897,-12.9127,-9.9158,-3.0471,-2.3659,-5.3216,-7.0206,-5.3858,-9.8862,-4.6874,-9.1170,-11.4639,-8.6848,-6.9618,-1.6750,-3.5774,-8.5310,-9.6968,-5.8462
2210.9375,-8.1091,-16.6345,-15.0600,-7.4578,-6.1245,-7.9306,-10.6859,-8.6005,-13.9681,-9.1447,-14.3887,-17.0977,-14.4711,-11.3311,-3.4067,-7.1188,-12.0691,-14.0887,-11.7537
2214.8438,-10.8478,-14.1131,-14.1591,-8.6841,-7.0842,-7.6029,-10.2170,-8.2497,-12.5374,-11.2465,-13.6522,-15.2352,-14.9415,-12.8081,-3.9021,-9.1301,-11.8654,-12.9036,-12.9498
2218.7500,-9.6979,-6.1139,-7.8016,-6.8969,-5.4387,-4.0612,-6.2026,-5.0615,-5.8204,-9.2106,-6.8711,-6.2102,-9.6738,-10.7542,-2.9113,-7.5539,-7.2128,-6.5966,-9.2843
2222.6562,-4.2073,3.8822,0.5587,-3.8304,-3.0687,1.3928,-0.9905,-1.3477,3.3459,-2.8511,2.9644,5.8498,-1.4263,-6.5882,-0.8957,-2.1005,-0.0388,1.8300,-3.3131
2226.5625,4.3603,11.5104,6.6358,-1.6183,-2.2957,6.4272,2.5807,0.4009,10.9519,6.2988,11.3754,15.1322,5.4351,-2.8518,1.3422,5.3988,6.1719,8.4257,1.2870
2230.4688,13.6262,13.8245,7.7823,-1.4910,-4.3684,9.0376,2.7568,-1.0019,13.8983,15.6957,14.7507,17.2230,7.4012,-1.6305,3.0453,11.8130,8.3536,10.3802,1.9199
2234.3750,21.1965,10.7172,4.3499,-3.1182,-8.6196,8.7521,-0.2120,-4.7704,11.5168,22.9247,12.1675,11.4105,3.7234,-3.3074,3.7313,14.2747,5.5601,7.3957,-1.4507
2238.2812,25.5839,4.6575,-0.8553,-4.9400,-12.7919,6.7538,-4.3575,-8.6555,5.6789,26.5987,5.6572,0.9188,-3.3053,-6.3916,3.2754,11.6467,-0.5759,1.6049,-6.4004
2242.1875,26.4448,-1.0006,-4.5570,-5.2137,-14.3080,4.7857,-7.2640,-10.2574,-0.4840,26.5507,-1.1449,-8.9791,-9.7568,-8.4795,1.9319,5.1246,-6.8162,-3.8164,-9.5894
2246.0938,24.1584,-4.0138,-5.0601,-3.0930,-11.7068,3.6802,-7.4849,-8.3265,-4.3900,23.3642,-5.0755,-13.7995,-12.2469,-7.7099,0.3099,-2.3175,-10.0799,-6.4355,-8.7505
2250.0000,19.2316,-4.3115,-3.0532,0.8934,-5.4191,2.6945,-5.2238,-3.3255,-5.2456,17.7259,-5.0026,-12.0027,-9.6172,-3.8123,-0.7826,-7.3360,-8.9626,-5.7008,-3.9204
2253.9062,12.0579,-3.5739,-0.7742,5.1766,2.4965,0.2362,-1.9469,2.9519,-4.0705,10.1269,-2.0576,-5.3656,-3.2652,1.8369,-0.6885,-7.7806,-4.2225,-2.8795,2.7364
2257.8125,3.1666,-3.7750,-0.2781,8.0078,9.4095,-4.5486,0.6879,8.3465,-2.6846,1.0662,1.3844,2.3953,3.8642,7.0832,0.6576,-3.6736,1.8805,-0.0245,8.2584
2261.7188,-6.3803,-5.7637,-2.0723,8.2959,13.3118,-10.5957,1.8041,11.2684,-2.4442,-8.5456,3.1867,7.7445,8.8798,10.1699,2.4755,2.8222,6.8662,1.2712,10.4715
2265.6250,-14.9457,-8.8124,-4.9966,5.9858,13.5218,-15.1905,1.5724,11.1479,-3.5443,-17.2677,2.4722,8.9337,10.2037,10.5003,3.3448,8.4023,9.1640,0.5858,8.9035
2269.5312,-20.8438,-11.3077,-7.2649,1.8910,10.6590,-15.6449,0.7367,8.3465,-5.2029,-23.5309,-0.2754,6.3635,7.9350,8.6331,1.8939,10.1209,8.5569,-1.4304,4.6563
2273.4375,-23.1404,-11.9621,-7.7818,-2.7807,6.0955,-11.2373,-0.1127,3.7867,-6.4150,-26.3408,-3.8371,1.8194,3.3808,5.6868,-2.3467,6.7234,5.8946,-3.6911,-0.4575
2277.3438,-22.1441,-10.6384,-6.7559,-6.8693,1.3102,-3.9856,-0.9255,-1.3908,-6.6524,-25.7732,-7.0292,-2.7042,-1.7632,2.6596,-8.4428,-0.7781,2.4243,-5.3223,-4.8444
2281.2500,-19.1768,-8.2640,-5.2581,-9.4844,-2.5213,2.3945,-1.9908,-6.0186,-6.0477,-22.8688,-9.1247,-5.8573,-6.0744,0.0948,-14.2853,-9.5435,-0.8174,-5.9400,-7.5981
2285.1562,-15.7331,-6.0161,-4.1954,-10.0458,-4.6431,4.7181,-3.3986,-9.0287,-5.0593,-18.9759,-9.8255,-7.1542,-8.6868,-1.8289,-17.5179,-16.1720,-3.2947,-5.5446,-8.4324
2289.0625,-12.6014,-4.4606,-3.5635,-8.3072,-4.6994,2.2692,-4.6669,-9.6511,-3.9884,-14.9990,-9.0414,-6.7341,-9.2850,-3.0331,-16.6943,-18.2205,-4.9492,-4.2868,-7.3854
2292.9688,-9.5656,-3.2811,-2.5480,-4.4615,-2.7496,-2.8229,-4.8842,-7.6927,-2.7571,-11.0779,-6.7889,-5.0354,-8.0130,-3.4153,-12.0264,-15.2619,-6.0168,-2.3601,-4.6568
2296.8750,-5.8890,-1.7261,-0.3412,0.7402,0.6687,-6.9776,-3.2937,-3.7299,-1.0880,-6.8905,-3.3070,-2.6200,-5.4061,-2.9655,-5.3006,-8.9633,-6.8238,-0.0663,-0.6884
2300.7812,-1.2184,0.6352,3.0132,6.0351,4.5658,-7.3708,0.1000,0.9916,1.1128,-2.3127,0.7806,-0.1230,-2.2946,-1.9525,0.9927,-2.1423,-7.6107,2.1096,3.7004
2304.6875,3.7605,3.4484,6.4309,9.9752,7.7514,-3.5481,4.3492,5.0030,3.5038,2.0904,4.4995,1.8285,0.4103,-0.9221,4.8345,2.7106,-8.3855,3.5904,7.3936
2308.5938,7.4143,5.7230,8.4060,11.4558,9.2764,2.4688,7.9512,7.2214,5.3940,5.1273,6.8412,2.8028,2.0324,-0.4211,5.5315,4.6549,-8.8489,3.9728,9.3588
2312.5000,7.9909,6.4442,7.9764,10.1835,8.8381,7.4820,9.5679,7.3878,6.1005,5.5898,7.2013,2.7520,2.3897,-0.6327,3.8404,4.5935,-8.4711,3.2835,9.1234
2316.4062,4.6947,5.1877,5.3255,6.8045,6.8779,8.9091,8.6411,6.0754,5.3256,3.0275,5.6626,2.0277,1.8140,-1.2370,1.3725,4.4770,-6.7687,2.0018,7.0088
2320.3125,-1.6345,2.3366,1.6137,2.5893,4.2664,6.0219,5.5687,4.2565,3.3139,-1.7850,2.9394,1.1548,0.8878,-1.6661,-0.3288,5.8896,-3.6843,0.7855,3.9267
2324.2188,-8.6466,-1.1683,-1.7964,-1.1663,1.7542,0.0894,1.4056,2.6901,0.7229,-6.9698,0.0277,0.4995,0.0602,-1.6001,-0.5215,8.8789,0.1626,0.0692,0.8513
2328.1250,-13.3724,-4.2985,-4.1329,-3.6907,-0.4518,-6.4312,-2.6776,1.5006,-1.6756,-10.2076,-2.2190,0.0712,-0.5914,-1.3225,0.5468,11.7808,3.5840,-0.1842,-1.6774
2332.0312,-13.4691,-6.3105,-5.4804,-4.9388,-2.6867,-11.0849,-5.8574,0.1985,-3.2805,-9.6472,-3.3578,-0.3870,-1.2840,-1.6053,2.0135,12.2124,5.3366,-0.3959,-3.6841
2335.9375,-8.2637,-6.8701,-6.4063,-5.3723,-5.3843,-12.4053,-7.8387,-1.8803,-3.8119,-4.6966,-3.3768,-1.0872,-2.1961,-3.1341,3.0486,8.6764,4.8044,-1.0059,-5.4579
2339.8438,0.8538,-6.0020,-7.3120,-5.5037,-8.5026,-10.3613,-8.7478,-4.9957,-3.3217,3.6110,-2.5437,-1.9140,-3.1446,-5.8522,3.3631,1.7926,2.4397,-2.0958,-7.0775
2343.7500,10.8788,-4.0238,-8.0446,-5.5245,-11.2530,-6.2065,-8.8821,-8.6561,-2.1245,12.8418,-1.2322,-2.4098,-3.5538,-8.7254,3.2918,-5.6789,-0.3667,-3.2796,-8.1527
2347.6562,18.3399,-1.5226,-8.0604,-5.2561,-12.3986,-1.8575,-8.4917,-11.7371,-0.7059,19.9664,0.1730,-2.0770,-2.7991,-10.1853,3.4407,-10.1683,-1.9929,-3.9573,-8.0196
2351.5625,20.7088,0.7042,-6.9877,-4.4261,-10.9982,0.9453,-7.7036,-13.0289,0.3824,22.5070,1.2885,-0.8036,-0.7283,-9.0435,4.1629,-9.2909,-1.5025,-3.7651,-6.2881
2355.4688,17.4587,1.8525,-5.1245,-3.0472,-7.1397,1.3547,-6.5914,-11.9145,0.6501,19.5770,1.7335,0.8911,2.0055,-5.3084,5.2282,-3.3433,0.7786,-2.9101,-3.3517
2359.3750,10.2388,1.4344,-3.4581,-1.5993,-2.1459,-0.3294,-5.3121,-8.7858,-0.1891,12.2958,1.1849,2.0052,4.0941,-0.3460,5.9199,4.6542,3.4127,-2.1371,-0.4482
2363.2812,2.0140,-0.4593,-3.1443,-0.8535,1.9683,-3.0178,-4.1891,-4.9354,-2.1020,3.2829,-0.5037,1.5642,4.2128,3.7846,5.5036,10.5051,4.6900,-2.3103,0.8730
2367.1875,-4.4314,-3.1669,-4.7804,-1.4226,3.5334,-5.6014,-3.6538,-1.9528,-4.7040,-4.5894,-3.1716,-0.7756,1.8215,5.4582,3.7549,11.1561,3.6799,-3.8522,-0.3784
2371.0938,-7.8039,-5.7784,-7.9611,-3.3257,2.1543,-7.6284,-4.0405,-0.9461,-7.3416,-9.5267,-6.2901,-4.3913,-2.3629,4.3894,1.1749,6.4448,0.8475,-6.3904,-3.9459
2375.0000,-8.6418,-7.5857,-11.4271,-5.8677,-1.0589,-9.3968,-5.3418,-2.0247,-9.2770,-11.4385,-9.0417,-7.8691,-6.5752,1.7501,-1.2747,-0.7949,-2.1806,-8.8636,-8.2943
2378.9062,-8.4679,-8.3630,-13.7256,-7.9447,-4.1416,-11.3740,-7.0940,-4.3393,-9.9199,-11.4660,-10.5562,-9.6609,-8.8701,-0.5880,-2.7539,-6.3972,-3.6078,-10.0661,-11.3377
2382.8125,-8.3212,-8.2971,-13.9772,-8.6160,-5.4403,-13.3954,-8.5184,-6.6403,-9.0304,-10.7464,-10.2438,-8.9108,-8.2042,-1.2231,-3.0481,-7.3463,-2.6328,-9.3363,-11.5614
2386.7188,-7.7260,-7.6481,-12.2826,-7.5979,-4.5744,-14.3419,-8.8873,-7.9987,-6.8145,-9.3205,-8.0848,-5.9927,-5.0978,-0.0733,-2.6342,-3.5829,-0.0529,-6.9766,-8.8882
2390.6250,-4.9262,-6.4322,-9.5396,-5.3756,-2.5802,-12.7006,-7.9149,-8.2308,-3.8617,-6.0485,-4.7099,-2.4026,-1.4218,1.6318,-2.2567,1.9986,2.1261,-4.1242,-4.7393
2394.5312,1.6409,-4.3943,-6.8190,-2.8659,-1.1292,-7.7240,-5.9100,-7.7713,-0.9244,0.2940,-1.1723,0.0152,0.6510,2.2197,-2.3203,5.4062,1.9060,-2.1093,-1.2047
2398.4375,11.6008,-1.3158,-4.7196,-0.8555,-1.3202,-0.3550,-3.5678,-7.1289,1.3758,9.4748,1.5181,0.1269,-0.0414,0.7569,-2.5555,4.1335,-1.3739,-1.6642,0.2089
2402.3438,21.9357,2.5694,-3.1212,0.4150,-2.8501,6.8661,-1.5272,-6.3559,2.7679,18.9984,2.8585,-1.7690,-2.8769,-2.2210,-2.2324,-1.1671,-6.4338,-2.4782,-0.5204
2406.2500,28.0394,6.3762,-1.4871,1.2498,-4.1444,11.0121,-0.0144,-4.9692,3.3421,24.8248,3.0212,-4.0567,-5.7555,-4.9280,-0.7938,-7.0384,-10.6264,-3.4136,-1.9736
2410.1562,26.0970,8.7819,0.5055,2.0980,-3.4114,10.3656,1.1496,-2.4224,3.3267,23.3861,2.5891,-4.7893,-6.3840,-5.4037,1.5532,-9.4558,-11.4214,-3.2962,-2.2963
2414.0625,15.3921,8.5744,2.4624,3.0560,0.0487,5.3438,2.1735,1.2053,2.7763,13.7293,2.0117,-3.0023,-3.7906,-2.7995,3.7562,-6.5584,-7.9481,-1.7975,-0.5419
2417.9688,-0.9215,5.2514,3.2921,3.6522,5.1570,-1.8565,2.8648,4.8597,1.4172,-1.5779,1.1733,0.4815,0.8972,1.9387,4.4764,-0.0861,-1.6425,0.1874,2.5374
2421.8750,-17.1319,-0.6412,1.8117,3.1043,9.4969,-8.5875,2.5477,6.8709,-1.1712,-17.4059,-0.5575,3.3675,4.9816,6.4575,2.9608,5.5195,4.4460,0.9852,4.8330
2425.7812,-27.6219,-7.5910,-2.3978,0.9036,10.6649,-13.0815,0.4993,5.8964,-5.0909,-28.3557,-3.7470,3.2541,5.7850,8.2702,-0.3514,5.9153,7.3255,-0.7913,4.2092
2429.6875,-29.3246,-13.5778,-8.4393,-2.6735,7.7029,-14.9061,-3.3497,1.8621,-9.6824,-31.0613,-8.1502,-0.7455,2.3446,6.1718,-3.9202,-0.1593,5.7321,-5.2082,-0.0084
2433.5938,-22.6622,-16.7292,-14.2688,-6.5073,1.7100,-14.4283,-7.9888,-3.7604,-13.4833,-25.2792,-12.3795,-7.1819,-3.8712,0.9469,-5.8801,-9.6661,0.8001,-10.6987,-6.3762
2437.5000,-10.6870,-15.9511,-17.5782,-9.1246,-4.7550,-11.9717,-11.5999,-8.6107,-14.7632,-13.4044,-14.3660,-12.8718,-9.7259,-5.0564,-5.0444,-16.7438,-4.6589,-14.7550,-11.9984
2441.4062,2.7543,-11.3386,-16.9332,-9.4654,-9.0966,-7.5218,-12.4811,-10.6808,-12.4247,0.9723,-12.4666,-14.6545,-12.2160,-9.2173,-1.5428,-16.1174,-7.8047,-15.2669,-14.1506
2445.3125,14.5894,-4.2184,-12.5159,-7.4560,-10.0341,-1.2484,-10.0692,-9.3801,-6.7489,14.4466,-6.5725,-11.2506,-10.1887,-10.0095,3.2595,-6.4036,-7.3227,-11.7150,-11.8526
2449.2188,23.0394,3.2398,-6.0365,-4.0368,-8.0724,5.7221,-5.3580,-5.7576,0.5165,24.4595,1.5262,-4.0563,-4.9071,-7.6400,7.4674,8.7502,-3.9640,-5.4872,-6.3962
2453.1250,27.2157,8.7644,0.1283,-0.6383,-4.8887,11.1942,-0.3747,-1.7673,6.8657,29.2976,8.8484,3.6380,0.8524,-3.6499,9.5453,22.4723,0.1709,0.8715,-0.5118
2457.0312,26.5522,10.8132,4.0525,1.5523,-2.1443,12.8660,2.9843,0.9132,10.1763,27.9801,12.6489,8.5076,4.5297,0.1690,8.9059,28.3883,3.0443,5.0040,3.2530
2460.9375,20.7611,9.1271,4.9973,2.0866,-0.5518,9.8342,3.9959,1.7328,9.6370,20.4631,11.7382,8.9557,5.1912,2.7899,5.9660,24.0515,3.8387,5.8588,3.8831
2464.8438,10.3694,4.7173,3.4165,1.2584,0.2323,3.4963,3.3435,1.2827,5.9471,8.0623,6.9262,5.7174,3.7566,4.2722,1.7698,12.0761,3.1641,3.9559,2.1519
2468.7500,-2.7279,-0.7155,0.3720,-0.2934,0.9510,-2.9948,2.4195,0.5766,0.7464,-6.4186,0.3936,1.0490,2.0244,5.2954,-2.5188,-1.5811,2.3156,0.7587,-0.2518
2472.6562,-15.3639,-5.5964,-3.1477,-2.0419,1.9199,-6.5222,2.2364,0.1940,-4.2879,-19.2840,-5.5321,-2.8194,1.2896,6.3619,-5.9798,-11.0007,2.2138,-2.3180,-2.0018
2476.5625,-24.0426,-9.0412,-6.5394,-3.7657,2.6858,-5.8500,2.7427,-0.0791,-8.0866,-27.1596,-9.4005,-4.8898,1.5467,7.3063,-8.0616,-13.2328,2.8019,-4.5810,-2.8876
2480.4688,-26.2785,-10.8667,-9.4198,-5.4030,2.4048,-2.2092,3.0172,-0.8971,-10.2553,-28.2056,-10.9108,-5.5428,1.7689,7.4545,-8.5432,-9.1412,3.2636,-6.0458,-3.5822
2484.3750,-21.5848,-11.1526,-11.2801,-6.7713,0.6014,1.7927,2.1470,-2.6268,-10.7130,-22.6556,-10.4705,-5.7317,0.9293,6.2510,-7.4721,-1.9932,2.7953,-6.9196,-4.7380
2488.2812,-11.6051,-9.8063,-11.3943,-7.4538,-2.3131,4.1006,0.0863,-4.8512,-9.3546,-12.4688,-8.5631,-5.9878,-1.0825,3.8163,-5.1506,4.9335,1.2856,-7.1039,-6.2112
2492.1875,0.5659,-6.5733,-9.1794,-6.9962,-5.1827,4.5188,-2.1710,-6.5102,-6.1036,-0.4691,-5.4791,-6.0279,-3.3505,0.9741,-2.1504,10.0017,-0.6140,-6.1611,-7.0614
2496.0938,11.4068,-1.5501,-4.7801,-5.2837,-6.8130,4.4396,-3.2404,-6.5827,-1.3169,10.4345,-1.5553,-5.1923,-4.6685,-1.2795,0.7237,13.1887,-2.0392,-3.7651,-6.3279
2500.0000,17.8735,4.2397,0.6132,-2.7871,-6.7149,5.2956,-2.3263,-4.7989,3.8716,17.6421,2.4229,-3.2519,-4.5063,-2.4484,2.5806,14.8077,-2.6112,-0.2313,-3.9424
2503.9062,18.0191,8.8196,5.0912,-0.4362,-5.3401,7.0576,0.2039,-1.8534,7.7164,19.0779,5.1726,-0.8534,-3.4342,-2.8249,2.6986,14.3272,-2.7222,3.3633,-1.0132
2507.8125,11.4207,10.0747,6.9300,0.8567,-3.6605,8.0623,3.0673,1.0356,8.6188,13.6325,5.4426,0.8025,-2.6829,-3.1720,0.8167,10.4422,-3.1888,5.6536,0.8097
2511.7188,-0.5296,7.0344,5.5524,0.7255,-2.4377,6.3770,4.9358,2.8938,6.0652,1.9171,2.8288,0.8112,-3.1888,-4.0593,-2.6581,2.4306,-4.5567,5.7718,0.4601
2515.6250,-14.6645,0.7677,1.9143,-0.4285,-1.7491,1.6326,5.2762,3.5322,1.1020,-13.1729,-1.7339,-0.7309,-4.8684,-5.3859,-6.6540,-8.3376,-6.6069,3.9033,-1.7559
2519.5312,-26.7363,-5.8679,-1.9873,-1.6903,-1.1127,-4.1915,4.5637,3.5004,-4.0649,-26.8457,-6.2608,-2.7331,-6.6679,-6.4722,-9.7210,-18.1545,-8.4450,1.2064,-4.3121
2523.4375,-32.8286,-9.6671,-4.2183,-2.2031,-0.0721,-7.7908,3.7674,3.5322,-7.1862,-34.0757,-8.7073,-3.8382,-7.3317,-6.6504,-10.5579,-22.5470,-9.1022,-0.8662,-5.4715
2527.3438,-31.0036,-8.9008,-3.9436,-1.6780,1.2626,-6.7325,3.5507,3.9314,-7.1387,-31.9348,-8.0596,-3.3203,-6.2866,-5.8705,-8.5831,-18.8333,-8.1860,-1.3916,-4.4340
2531.2500,-22.3020,-4.3413,-1.7535,-0.5014,2.1884,-1.2393,3.8154,4.3663,-4.4201,-21.2598,-4.8155,-1.4756,-3.9724,-4.8091,-4.2647,-7.9528,-6.0936,-0.4002,-1.7999
2535.1562,-10.3691,1.2450,0.8936,0.6188,1.9560,5.7843,3.9112,4.2119,-0.6729,-6.4692,-0.5429,0.7693,-1.3967,-4.3502,1.0177,5.7977,-3.6478,1.3515,0.9690
2539.0625,0.2649,4.8663,2.6979,1.2049,0.4772,10.5613,3.2948,3.1565,2.4180,6.5982,3.1637,2.6916,0.6964,-4.8158,5.5760,17.1046,-1.4631,3.0425,2.6687
2542.9688,6.3575,5.1774,3.3056,1.3529,-1.3877,10.8323,2.0797,1.5864,4.1025,13.6475,5.5990,4.3614,2.3600,-5.5684,8.1910,22.5909,0.4466,4.3693,3.2037
2546.8750,7.3221,3.1902,3.3336,1.6035,-2.2683,7.1733,1.0159,0.4207,4.7848,13.9094,7.1171,6.4816,4.2373,-5.3744,8.6238,22.4450,2.5017,5.6135,3.5246
2550.7812,5.0085,1.3367,3.6569,2.4180,-1.2201,2.3996,0.9021,0.4757,5.3938,9.9535,8.4842,9.5642,6.7599,-3.3570,7.5412,19.6774,4.9578,7.1560,4.6913
2554.6875,2.1390,1.5517,4.5093,3.6346,1.4728,-0.4049,1.8877,1.7963,6.4154,5.5692,9.9446,13.0780,9.3965,0.1205,5.9089,17.5987,7.3546,8.8311,6.7731
2558.5938,0.5031,3.7466,5.0909,4.3363,4.2361,0.2158,3.2224,3.4499,7.3204,3.2227,10.7385,15.2954,10.6084,3.3337,4.2702,17.3390,8.4993,9.6619,8.4507
2562.5000,0.1092,5.7872,4.0297,3.3111,5.0304,3.5138,3.6826,3.9896,6.8340,2.7994,9.4917,14.1120,8.6859,4.0670,2.4364,17.1710,7.1049,8.2777,7.7171
2566.4062,-0.2615,5.0259,0.4369,-0.1171,2.6144,7.4508,2.3986,2.3469,3.8809,2.3406,5.2553,8.4167,2.9864,1.0212,-0.1640,14.0808,2.7268,3.8303,3.2851
2570.3125,-1.6781,0.3201,-5.1630,-5.4067,-2.5357,10.1970,-0.4995,-1.3936,-1.4528,0.0311,-1.5271,-0.8689,-5.2572,-5.1233,-3.7267,6.4012,-3.6209,-3.1752,-4.2362
2574.2188,-3.9907,-6.9108,-10.7368,-10.7661,-8.2696,11.0454,-3.8847,-5.8550,-7.6478,-4.1484,-8.8593,-10.8443,-13.1840,-11.7338,-7.5023,-4.4500,-9.6462,-10.7467,-12.2564
2578.1250,-5.8810,-13.3892,-13.6921,-13.9161,-11.8259,10.2379,-6.3011,-9.0159,-12.4276,-8.3297,-14.0644,-17.8951,-17.5991,-15.4564,-9.9422,-14.4500,-12.7682,-16.1954,-17.4016
2582.0312,-5.9299,-16.0188,-12.3914,-13.3009,-11.3469,8.1627,-6.8568,-9.3202,-14.0097,-10.2007,-15.2243,-19.5222,-16.6338,-14.0187,-9.5938,-19.4018,-11.4267,-17.4925,-17.3579
2585.9375,-3.8036,-13.8894,-7.3166,-9.0659,-6.9824,4.8410,-5.7496,-6.6217,-12.1502,-8.7946,-12.3022,-15.6833,-10.8249,-7.5818,-6.1931,-17.6464,-5.9948,-14.4253,-12.2690
2589.8438,-0.5954,-8.8781,-1.0907,-3.1872,-0.9313,0.2262,-4.0907,-2.3917,-8.3045,-5.2287,-7.2180,-8.8330,-2.9669,1.1608,-1.1696,-11.1706,1.2367,-8.8282,-4.8204
2593.7500,1.9515,-4.4272,2.7914,1.4182,3.6375,-5.0189,-3.1586,0.9788,-4.7688,-1.8584,-2.7777,-2.5975,3.2239,8.2361,2.9026,-4.3370,7.0475,-3.6716,1.0993
2597.6562,2.7217,-3.3130,1.8805,2.3701,4.2118,-9.1424,-3.5796,1.4369,-3.3138,-0.5495,-1.0803,0.1740,4.9238,10.3328,3.6806,-1.1053,8.7691,-1.4739,2.4256
2601.5625,2.0024,-5.8868,-3.7604,-0.9138,0.2304,-9.9379,-4.9569,-1.6039,-4.1484,-1.4110,-2.3652,-1.1448,1.5264,6.3867,0.4318,-2.6296,5.5124,-2.9459,-1.5007
2605.4688,1.1667,-9.9320,-11.4446,-6.8986,-6.6506,-6.1396,-6.1629,-6.9014,-5.8584,-2.9104,-5.0004,-4.8370,-5.2071,-2.0148,-5.4675,-6.8028,-1.4783,-6.6720,-8.6750
2609.3750,1.5501,-12.1826,-17.2439,-12.7529,-13.4446,1.4272,-6.0818,-12.0124,-6.3576,-3.1850,-6.6002,-8.0774,-12.2003,-11.5612,-11.2616,-9.9483,-9.5053,-10.0320,-15.5971
2613.2812,3.4413,-10.4595,-18.1178,-15.8446,-17.3754,9.9191,-4.3273,-14.5726,-4.2616,-1.4502,-5.5597,-8.7330,-16.6951,-18.9053,-14.3312,-9.4004,-15.7581,-10.8054,-19.1684
2617.1875,5.9905,-5.0310,-13.5708,-15.0578,-17.2309,15.9076,-1.5011,-13.5186,0.1698,1.5943,-2.0427,-6.6185,-17.5627,-22.1670,-13.5577,-5.1985,-18.6029,-8.4793,-18.2382
2621.0938,8.0707,1.6216,-5.8811,-11.2003,-13.8227,17.2833,1.1357,-9.5782,5.1042,4.5878,2.1721,-3.4594,-15.6186,-21.4997,-9.7250,0.1651,-18.1651,-4.4654,-13.9807
2625.0000,9.3261,6.3715,1.2131,-6.3401,-9.3620,14.3396,2.3535,-4.7846,8.1701,6.7699,4.8404,-1.6516,-12.8621,-18.5512,-4.8050,3.6066,-15.9544,-1.1291,-8.9957
2628.9062,10.4657,7.2621,4.5638,-2.5566,-6.1655,9.3046,1.5885,-1.3381,7.8102,8.5464,4.6227,-2.6656,-11.1720,-15.2852,-0.6932,3.5219,-13.8169,-0.2914,-5.7581
2632.8125,12.4793,4.4296,3.1825,-0.9024,-5.4498,4.7046,-0.8267,-0.4949,4.1312,10.8482,1.7971,-6.1362,-11.2549,-12.9217,1.7451,0.6509,-12.8577,-2.1780,-5.3542
2636.7188,15.3857,-0.3180,-1.5408,-1.1573,-6.8673,1.7730,-3.9148,-2.1009,-1.2321,13.8307,-2.0855,-10.1904,-12.4289,-11.5709,2.7698,-2.7247,-12.9487,-5.4608,-7.1796
2640.6250,17.6178,-4.8026,-6.9629,-2.3842,-8.9618,0.0292,-6.5884,-4.9519,-6.0905,16.1037,-5.2801,-12.7160,-13.2711,-10.6282,3.1065,-4.5060,-13.0468,-8.2749,-9.6299
2644.5312,16.7584,-7.6966,-10.8265,-3.7651,-10.1767,-1.7723,-8.1332,-7.6486,-8.8572,15.3412,-6.8705,-12.6626,-12.6296,-9.5079,3.1509,-4.1183,-12.0398,-9.4494,-11.2145
2648.4375,11.3071,-8.8983,-12.3428,-5.0792,-9.7591,-4.1767,-8.3907,-9.3588,-9.1779,10.0294,-7.0509,-10.4950,-10.3207,-8.1463,2.6754,-2.5644,-9.5355,-9.0883,-11.3464
2652.3438,2.2497,-8.9921,-12.1259,-6.5296,-8.0402,-6.2680,-7.6120,-10.0406,-7.7297,1.1022,-6.5682,-7.5702,-7.1019,-6.9518,1.2171,-1.3136,-6.0947,-8.1577,-10.3733
2656.2500,-6.8489,-8.3789,-11.2232,-8.1633,-6.0143,-6.2559,-6.1614,-10.1051,-5.4624,-7.8870,-5.8551,-4.9917,-4.0368,-6.3350,-1.2322,-0.9909,-2.8136,-7.4782,-8.9847
2660.1562,-11.5766,-6.8221,-10.0849,-9.4481,-4.5909,-2.9785,-4.3045,-9.8782,-2.8965,-12.4652,-4.5894,-2.8483,-1.7654,-6.2599,-3.8523,-0.9079,-0.6025,-6.9476,-7.5408
2664.0625,-9.2779,-3.7527,-8.2660,-9.4252,-4.0552,2.8511,-2.2080,-9.3077,0.0235,-9.8656,-2.0489,-0.4042,-0.2114,-6.2136,-5.3030,0.2384,0.3191,-5.6138,-5.8514
2667.9688,-0.8455,0.9582,-5.0311,-7.3760,-4.0595,8.6662,-0.0869,-8.1069,3.4949,-0.8713,2.0314,2.9586,1.1154,-5.6310,-4.5425,3.0918,0.3946,-2.5421,-3.5291
2671.8750,9.5799,6.4313,-0.3109,-3.4928,-4.0598,11.4245,1.6851,-6.1557,7.2723,10.4242,6.8296,6.8546,2.5240,-4.4222,-1.5705,6.8244,0.2582,2.2100,-0.5708
2675.7812,16.9492,10.9449,4.8131,1.0090,-3.7999,9.4321,2.6511,-3.7758,10.4766,18.8932,10.6374,9.8502,3.7725,-3.1394,2.4599,9.4636,0.2291,7.3053,2.3614
2679.6875,18.2649,12.8128,8.5488,4.5092,-3.4598,3.3799,2.5227,-1.6180,12.0140,21.2832,11.8619,10.3864,4.2399,-2.5852,5.8722,9.1750,0.1644,10.8123,4.2457
2683.5938,14.2777,11.4065,9.4867,5.9443,-3.3802,-4.0808,1.4303,-0.2349,11.3243,17.9252,10.1481,8.0129,3.5063,-3.1141,7.4159,5.5871,-0.2461,11.4140,4.4036
2687.5000,8.8259,7.6066,7.5513,5.4413,-3.6275,-9.8851,-0.0390,0.3150,8.8785,12.1936,6.7660,3.9605,1.8614,-4.1656,6.8910,0.1897,-1.0304,9.2719,3.0709
2691.4062,6.2412,3.3372,4.0940,4.1579,-3.7918,-12.1683,-1.0978,0.4893,5.9998,8.1413,3.8852,0.5218,0.2847,-4.4544,5.0433,-4.5157,-1.7407,5.9136,1.3655
2695.3125,8.4933,0.4531,1.0343,3.4275,-3.2198,-10.9591,-1.1773,0.8630,4.0708,7.8800,3.1615,-0.4118,-0.1541,-2.7799,2.8593,-6.5548,-1.7194,3.2180,0.6147
2699.2188,13.8945,-0.3068,-0.3480,3.8170,-1.5314,-7.6927,-0.2468,1.6055,3.6599,10.3645,4.6011,1.3596,0.9337,1.0647,0.8158,-5.6695,-0.6432,2.2243,1.4812
2703.1250,18.1538,0.3673,-0.1131,4.7733,0.9831,-4.1003,1.1847,2.2611,4.1898,12.2554,6.5274,4.1791,2.8976,5.9388,-1.3521,-3.3620,1.0919,2.6085,3.5031
2707.0312,17.0633,0.9561,0.6171,5.1097,3.4206,-1.3284,2.3966,2.0468,4.4010,10.1826,6.7277,5.6678,4.4136,9.8730,-4.2075,-1.7906,2.4914,3.1622,5.3889
2710.9375,9.1112,0.2018,0.6643,3.9713,4.7888,0.2205,2.9066,0.4916,3.2999,2.9193,4.0257,4.3982,4.3638,11.1880,-7.8558,-2.2838,2.5699,2.8675,5.8824
2714.8438,-3.5489,-2.0335,-0.2475,1.5696,4.6438,0.4996,2.7494,-2.0485,0.9310,-7.8316,-0.7953,0.9382,2.6271,9.4993,-11.4940,-4.4675,1.0417,1.7429,4.6111
2718.7500,-16.2438,-4.6778,-1.2902,-0.8590,3.3851,-0.5378,2.4082,-4.4165,-1.5676,-18.3592,-5.3632,-2.4800,0.2122,5.9421,-13.6692,-6.5523,-1.4060,0.8335,2.3415
2722.6562,-24.2092,-6.1406,-1.2119,-1.8537,1.9753,-2.8358,2.4571,-5.2729,-2.6652,-24.8411,-7.1497,-3.4507,-1.3830,2.4518,-13.1314,-6.5377,-3.4854,1.3772,0.4770
2726.5625,-24.8162,-5.2995,0.6319,-0.7342,1.2609,-5.7866,3.1564,-3.9375,-1.4204,-25.0389,-5.0219,-1.0277,-1.1643,0.5647,-9.7108,-3.5094,-4.1051,3.7854,0.1424
2730.4688,-18.4339,-2.1518,3.6737,1.8884,1.3635,-7.9856,4.2647,-0.8995,1.9075,-18.9628,0.0826,3.6043,0.6842,0.5199,-4.5932,1.7981,-3.0611,7.1973,1.4657
2734.3750,-7.7418,2.2255,6.3984,4.4416,1.5797,-7.6726,5.1747,2.3638,5.9905,-8.4548,5.7444,7.8515,2.9006,1.2367,0.2411,7.4617,-1.1542,9.9287,3.5076
2738.2812,3.7855,6.2988,7.2810,5.3349,0.8800,-3.7936,5.2682,4.1766,9.1789,3.7504,9.4722,9.3184,3.9535,1.1549,3.0878,11.4764,0.3511,10.4940,4.8531
2742.1875,13.2268,8.8411,5.7365,3.8959,-1.3135,2.9802,4.2669,3.5931,10.3633,14.8564,10.0186,7.2421,3.0308,-0.6354,3.4232,12.7777,0.5725,8.5009,4.4677
2746.0938,18.8191,9.3971,2.4557,0.7238,-4.5913,10.0959,2.3845,0.9112,9.4474,22.4869,7.8474,2.8817,0.5855,-3.7166,2.0830,11.6095,-0.3934,4.8522,2.2964
2750.0000,19.9140,8.2839,-1.0393,-2.7023,-7.6351,14.1716,0.2262,-2.5146,7.2397,24.9930,4.6168,-1.2897,-1.8824,-6.5375,0.6377,9.1582,-1.5023,1.1948,-0.7063
2753.9062,16.7616,6.2716,-3.2559,-4.8524,-8.8887,12.7947,-1.4744,-5.0207,4.9418,21.8452,2.1458,-2.9961,-2.6477,-7.3314,0.4010,6.8158,-1.3943,-0.9685,-3.0756
2757.8125,10.4585,4.2123,-3.4377,-4.8899,-7.4252,6.0234,-2.1391,-5.4910,3.5798,14.0608,1.5309,-1.3120,-0.6931,-5.1677,1.7049,5.5514,0.7693,-0.9545,-3.5515
2761.7188,2.9566,2.7895,-1.7521,-2.9528,-3.4995,-3.3782,-1.5414,-3.8541,3.6412,4.2694,2.8249,3.0151,3.7480,-0.5082,3.8470,5.6472,4.7616,0.9417,-1.6533
2765.6250,-3.2426,2.3872,0.9999,0.0694,1.5257,-11.2188,0.1215,-1.0044,4.9774,-3.9835,5.2544,8.0824,9.2777,5.0181,5.6480,6.7522,9.3384,3.7416,2.1140
2769.5312,-5.9093,3.0095,3.8392,3.0268,5.8189,-14.0101,2.2783,1.7378,6.9039,-7.6435,7.6800,11.7683,13.9428,9.4347,6.1923,8.0656,12.8235,6.2526,6.4553
2773.4375,-4.1187,4.2513,5.9439,4.9753,7.9176,-10.7573,4.1437,3.2875,8.4405,-5.5994,9.0318,12.5957,16.0479,11.3377,5.2857,8.5557,13.9002,7.4805,9.7814
2777.3438,1.1818,5.4257,6.7998,5.4502,7.3243,-3.4102,4.9743,3.2429,8.6820,0.7346,8.6398,10.2302,14.8227,10.4385,3.4316,7.2744,12.2036,6.9195,10.8280
2781.2500,7.6086,5.9110,6.2791,4.5381,4.5967,4.2477,4.3587,1.9486,7.2530,8.2162,6.4900,5.5526,10.7040,7.5215,1.4658,3.8257,8.4485,4.7419,9.1856
2785.1562,12.6744,5.5910,4.7196,2.7987,0.9571,8.6133,2.4287,0.2133,4.6554,13.7896,3.3656,0.3572,5.1501,3.9355,0.1470,-1.1619,4.0700,1.8442,5.5190
2789.0625,15.2152,5.0711,2.9170,1.0610,-2.3222,8.0578,-0.1420,-1.1329,2.2262,16.2068,0.7038,-3.2707,0.0575,0.9357,-0.0826,-5.9269,0.5680,-0.3858,1.3278
2792.9688,15.9306,5.3883,1.8647,0.1046,-4.4374,3.5611,-2.4043,-1.6282,1.5447,16.5120,0.0297,-3.7865,-3.0155,-0.8078,0.8408,-8.1557,-1.1451,-0.6510,-1.7200
2796.8750,16.6046,7.2576,2.2290,0.3021,-5.2570,-2.0550,-3.5678,-1.3561,3.4820,16.9353,2.1031,-0.9618,-3.5073,-1.3612,2.6158,-6.1792,-1.1128,1.5035,-2.6025
2800.7812,18.5193,10.3132,3.8334,1.3963,-5.1789,-5.7741,-3.3834,-0.8484,7.4400,18.9542,6.2424,3.8022,-2.0841,-1.3375,4.6071,-0.1837,-0.2595,5.2081,-1.4740
2804.6875,21.2205,12.9600,5.5713,2.6020,-4.7719,-5.9665,-2.2473,-0.7662,11.3704,21.9267,10.3716,7.9508,-0.2812,-1.4972,5.9638,7.4030,0.0980,8.4900,0.4359
2808.5938,22.6193,13.1414,5.9691,3.0572,-4.4133,-3.0789,-0.9528,-1.5043,12.7605,23.3622,11.9831,8.9862,0.3187,-2.3304,5.9186,12.8395,-1.0646,9.2568,1.5638
2812.5000,20.4781,9.6851,4.1579,2.4040,-4.1059,0.8449,-0.2255,-2.9205,10.1220,20.7421,9.5918,5.8622,-1.0371,-3.8007,4.2138,13.0005,-3.9222,6.5660,0.9909
2816.4062,14.2719,3.3598,0.6178,1.1108,-3.5530,3.4459,-0.3242,-4.3542,4.0714,13.6393,3.8054,-0.2494,-3.8319,-5.3643,1.4020,7.2390,-7.6618,1.3832,-0.9495
2820.3125,6.0316,-3.1920,-2.9059,0.2572,-2.4325,3.3704,-0.9483,-4.9662,-2.7792,4.5554,-2.7681,-6.3909,-6.5599,-6.2607,-1.2741,-2.0178,-10.8536,-3.7564,-2.8550
2824.2188,-0.5936,-6.8107,-4.4009,0.8391,-0.7043,0.9066,-1.4974,-4.2451,-7.1947,-2.2930,-6.8769,-9.3450,-7.5932,-5.9382,-2.4920,-10.4565,-12.1571,-6.1137,-3.1585
2828.1250,-2.5739,-5.7278,-2.9115,3.0190,1.2438,-2.3560,-1.4994,-2.3898,-7.1854,-3.5761,-6.5056,-7.4377,-6.1304,-4.3905,-1.6461,-14.2502,-10.9890,-4.3615,-1.1910
2832.0312,0.4342,-0.7912,0.7159,5.8532,2.7293,-4.5799,-0.9183,-0.3033,-3.2047,0.8700,-2.1171,-1.5492,-2.6504,-2.2011,0.7015,-12.2015,-7.7892,0.5620,2.3006
2835.9375,5.6507,4.8876,4.2575,7.7570,3.1454,-4.7953,-0.1424,0.8668,2.1151,7.6870,3.5715,5.3241,1.4053,-0.2414,3.1013,-6.3179,-3.7400,5.9448,5.5538
2839.8438,8.7783,7.7591,5.5030,7.4765,2.3713,-3.4282,0.3215,0.4175,5.5567,11.9216,7.1941,9.7429,4.5116,0.8298,4.1355,-0.4434,-0.1129,8.8766,6.8815
2843.7500,6.6763,6.0158,3.7082,4.9499,0.9609,-1.9610,0.2254,-1.4029,5.2374,10.0578,6.7372,9.7546,5.9358,0.9779,3.3948,2.1889,2.3690,7.9401,5.7491
2847.6562,-0.6245,0.7116,0.1030,1.4631,-0.0565,-1.9618,-0.2401,-3.4227,1.6402,2.2102,2.6875,5.9294,6.0581,0.8457,1.8210,0.9309,3.7851,3.9731,3.1270
2851.5625,-9.8790,-4.9344,-2.9284,-1.0631,0.2874,-4.0850,-0.5882,-4.1683,-2.8626,-7.9291,-2.3777,0.9034,5.9605,1.3781,1.1134,-2.0114,4.7675,-0.5475,0.8721
2855.4688,-16.5745,-7.6031,-3.4594,-1.2381,2.2980,-7.6393,-0.4014,-2.7548,-5.6154,-15.3217,-5.4535,-2.2580,6.5876,3.2047,2.5503,-3.1281,5.9437,-3.0669,0.5327
2859.3750,-17.5968,-5.9554,-1.3208,0.9152,5.3126,-10.9628,0.3358,0.4857,-5.3287,-16.5330,-4.9401,-1.8599,8.0513,6.1407,6.0203,0.0612,7.4445,-2.4573,2.3486
2863.2812,-12.9414,-1.3832,1.8019,3.9331,7.9173,-12.3560,1.1724,4.0596,-2.7252,-11.5653,-1.5068,1.5231,9.5306,9.1258,9.9512,7.3651,8.7895,0.4411,5.0860
2867.1875,-5.5045,3.0000,3.5284,5.7676,8.6303,-11.0055,1.4509,6.0746,0.1307,-3.5665,2.4705,5.5183,9.8118,10.6888,12.2164,15.9294,9.2049,3.4877,6.7995
2871.0938,0.7396,4.3831,2.3792,4.9880,6.7014,-7.3735,0.7304,5.2945,1.2543,3.1862,4.4311,7.4218,8.0975,9.7164,11.4253,21.7898,8.1528,4.5985,6.0193
2875.0000,2.9143,1.9307,-1.2955,1.5825,2.5779,-2.8745,-0.8996,1.8659,-0.0798,5.6257,3.0964,5.7378,4.5593,6.1098,7.7395,21.9654,5.7294,2.9092,2.6165
2878.9062,0.4791,-2.9259,-5.6527,-3.1063,-2.2507,0.9106,-2.8194,-2.7277,-3.1097,3.1793,-0.9801,0.9105,0.2989,0.9498,2.7054,15.9048,2.6860,-0.9121,-2.1628
2882.8125,-4.9755,-7.6172,-8.6502,-7.2158,-5.9743,2.9979,-4.2018,-6.4646,-6.2976,-2.5013,-5.9619,-5.0670,-3.2321,-3.9543,-1.7206,5.6274,0.0674,-5.2506,-6.4605
2886.7188,-10.9157,-10.0877,-9.3422,-9.4027,-7.3639,3.3317,-4.4616,-7.8630,-8.3547,-8.8270,-9.8629,-9.8073,-4.9862,-6.9162,-4.2501,-5.3059,-1.3151,-8.5316,-8.8485
2890.6250,-15.1137,-9.8495,-8.2842,-9.4494,-6.3602,2.5821,-3.5633,-6.7071,-8.8528,-13.5802,-11.4938,-11.7135,-4.8110,-7.1854,-4.7494,-13.3166,-1.2803,-9.9605,-9.0208
2894.5312,-16.2899,-7.8696,-6.8595,-8.1396,-4.0351,1.6199,-2.0123,-4.0233,-8.1273,-15.5474,-10.7375,-10.5695,-3.4411,-5.2910,-3.9321,-16.1156,-0.3453,-9.6559,-7.7812
2898.4375,-14.0969,-5.5917,-6.1290,-6.5950,-1.9744,1.0267,-0.5533,-1.3848,-6.7313,-14.4519,-8.2121,-7.3576,-2.0588,-2.7389,-2.6396,-13.3857,0.5438,-8.2710,-6.4373
2902.3438,-8.8477,-3.9214,-6.1059,-5.5725,-1.4498,0.9002,0.2261,-0.0192,-4.9765,-10.6191,-4.7503,-3.5876,-1.7056,-1.2290,-1.3134,-6.7660,0.4571,-6.4923,-6.0348
2906.2500,-1.3539,-2.8665,-5.9639,-5.1575,-2.8371,0.9963,0.1510,-0.2619,-2.9067,-4.7653,-1.1003,-0.6024,-2.8500,-1.8102,0.0025,0.7663,-1.1170,-4.7697,-6.8792
2910.1562,7.1070,-1.9176,-4.9314,-4.9573,-5.5526,1.0459,-0.5492,-1.6164,-0.6183,2.0656,2.0753,0.8071,-5.2687,-4.4053,1.2884,5.9695,-4.0751,-3.3593,-8.5364
2914.0625,14.9470,-0.6957,-3.1004,-4.5408,-8.4569,1.0173,-1.4617,-3.2624,1.4603,8.6498,4.1269,0.4409,-8.2129,-7.9215,2.2647,6.6154,-7.7536,-2.4897,-10.1862
2917.9688,20.7011,0.7033,-1.4741,-3.7605,-10.4289,1.1623,-2.2464,-4.5906,2.6529,13.9450,4.5274,-1.4412,-10.7214,-10.8387,2.5215,2.5256,-11.1748,-2.4096,-11.0437
2921.8750,23.5602,1.8747,-1.2020,-2.7540,-10.7842,1.8268,-2.7605,-5.4080,2.4607,17.4703,3.1722,-4.2409,-11.9382,-11.9355,1.9565,-4.1848,-13.3749,-3.2292,-10.6229
2925.7812,23.6041,2.5245,-2.6132,-1.7106,-9.3898,3.1396,-3.0108,-5.7632,0.9816,19.3517,0.6174,-7.1024,-11.3585,-10.7847,1.0752,-9.9909,-13.7063,-4.6995,-8.8024
2929.6875,21.5034,2.7098,-4.8302,-0.6669,-6.5507,4.7705,-3.0249,-5.6488,-1.0436,19.9041,-2.0385,-9.0540,-8.9773,-7.8239,0.7781,-11.7260,-12.0368,-6.1636,-5.7942
2933.5938,17.9067,2.6943,-6.3128,0.4694,-2.8547,5.9279,-2.7835,-4.9011,-2.6376,19.0684,-3.6687,-9.2949,-5.3276,-4.0568,1.6902,-8.3638,-8.8004,-6.8033,-2.1153
2937.5000,13.0453,2.5965,-5.9611,1.6939,0.9162,5.6642,-2.2791,-3.4072,-3.1667,16.2609,-3.7361,-7.5593,-1.3757,-0.6049,3.5321,-1.7415,-4.8820,-6.0786,1.4410
2941.4062,6.9411,2.1947,-3.9603,2.7049,3.8517,3.3816,-1.6397,-1.4274,-2.6813,10.9212,-2.5907,-4.3475,1.7449,1.6633,5.0914,4.3563,-1.3532,-4.0874,3.9312
2945.3125,0.0525,1.0934,-1.7245,2.9548,5.0896,-0.7223,-1.1795,0.3021,-1.7949,3.4115,-1.2203,-0.8224,3.1135,2.3196,4.9408,6.3546,0.8716,-1.5970,4.5476
2949.2188,-6.2934,-0.8913,-0.9466,1.9801,4.1499,-5.5697,-1.2840,0.8734,-1.2318,-4.5302,-0.6226,1.6452,2.3833,1.4044,2.4638,3.0370,1.3484,0.2996,2.9907
2953.1250,-10.2867,-3.4845,-2.4246,-0.2084,1.2855,-9.6169,-2.1711,-0.2239,-1.3994,-10.3993,-1.2384,2.0629,-0.0527,-0.6290,-1.5544,-3.6674,0.2563,0.7158,-0.2813
2957.0312,-10.7928,-6.0799,-5.4980,-2.9808,-2.4178,-11.6103,-3.6862,-2.6623,-2.2755,-12.4150,-2.8307,0.2154,-3.2045,-3.0215,-5.2607,-9.8207,-1.6910,-0.6105,-4.1320
2960.9375,-8.4765,-8.1418,-8.4899,-5.3451,-5.3842,-11.2557,-5.2940,-5.3245,-3.6111,-10.8916,-4.8350,-3.3269,-5.9012,-4.8897,-6.8452,-11.8797,-3.5541,-3.2337,-7.1923
2964.8438,-5.8719,-9.5267,-9.8310,-6.4790,-6.2559,-9.3535,-6.3049,-6.8767,-5.1958,-8.3575,-6.8402,-7.5382,-7.2861,-5.4981,-5.7059,-8.8675,-4.5684,-6.2617,-8.4728
2968.7500,-6.0166,-10.4366,-9.0710,-6.1950,-4.6065,-7.2489,-6.2100,-6.5278,-6.9200,-8.0674,-8.7811,-11.3594,-7.1369,-4.5548,-2.8714,-2.9338,-4.4446,-8.7800,-7.8067
2972.6562,-10.3714,-11.0490,-7.0876,-5.0266,-1.2187,-5.9141,-4.9235,-4.4834,-8.5993,-11.7570,-10.6935,-13.9658,-5.8515,-2.3815,-0.3743,2.0497,-3.4279,-10.1952,-5.8645
