Time,Fp1,F3,C3,P3,O1,F7,T3,T5,Fz,Fp2,F4,C4,P4,O2,F8,T4,T6,Cz,Pz
0.0000,3.5614,2.0039,-2.7640,-1.1840,-0.5595,2.2766,-0.8849,-0.0753,0.9260,5.8543,-1.4100,-3.0392,-2.5309,-0.6606,1.2828,-2.2987,-2.0807,-2.1816,-1.8770
3.9062,2.9612,4.0475,-0.3522,0.0025,0.0263,3.6202,-1.3440,0.5882,1.0991,5.8980,0.2917,-1.5740,-1.1005,-0.1468,0.5626,-1.1460,-0.8755,-1.1994,-0.8171
7.8125,0.4247,5.1067,2.5319,1.6495,1.0032,3.4217,-1.5735,1.6019,0.8703,3.3426,2.0396,0.8628,1.4550,0.6136,-0.8722,0.3539,1.2724,0.4040,0.9333
11.7188,-4.1577,3.9551,4.8496,3.1498,1.9963,0.9032,-1.1772,2.5861,-0.0535,-2.2693,2.8410,3.7386,4.4265,1.3611,-2.9622,1.7011,3.8377,2.2437,2.9412
15.6250,-9.5826,0.6363,5.7847,3.8216,2.4689,-3.2157,0.0118,3.0925,-1.5209,-9.4124,2.1593,6.2557,6.6832,1.7725,-5.2669,2.5061,5.9786,3.7751,4.5440
19.5312,-13.6379,-3.2373,5.2419,3.3164,2.0824,-6.8951,1.8036,2.9168,-2.8792,-15.0176,0.3701,7.6862,7.2572,1.6847,-7.0636,2.6805,6.9552,4.5585,5.1800
23.4375,-14.2010,-5.3171,3.9337,1.8994,1.0179,-7.9625,3.7475,2.3112,-3.2944,-16.1426,-1.3632,7.6595,5.9062,1.2649,-7.6735,2.3897,6.5116,4.4875,4.7045
27.3438,-10.5447,-4.0417,2.9937,0.4158,0.0082,-5.5574,5.3968,1.9275,-2.2701,-11.8888,-1.7531,6.2892,3.3093,0.9878,-6.8487,1.8515,5.0005,3.8619,3.5132
31.2500,-4.0053,0.1809,3.3531,-0.0713,-0.0006,-0.8066,6.5633,2.4832,-0.0082,-4.2451,-0.1641,4.1294,0.7745,1.3982,-4.9600,1.1918,3.1995,3.2740,2.3972
35.1562,2.5213,5.0377,5.2507,1.2015,1.6044,3.8054,7.3841,4.3247,2.6605,2.8536,3.0047,2.0173,-0.3806,2.7837,-2.8171,0.4973,1.9487,3.3576,2.1962
39.0625,6.0653,7.6962,8.1394,4.2819,4.6714,5.9900,8.1471,7.1431,4.7562,5.7796,6.5666,0.8511,0.5636,4.9544,-1.1909,-0.0077,1.8147,4.5035,3.4096
42.9688,5.1946,6.6276,10.9936,8.3899,8.2413,5.0771,8.9894,10.0178,5.7174,3.3721,9.2278,1.3202,3.4323,7.2713,-0.3449,0.1119,2.9188,6.6477,5.9311
46.8750,0.7671,2.6119,12.7958,12.1620,10.9380,2.3287,9.6764,11.7762,5.6651,-2.4081,10.2388,3.6148,7.2662,8.9114,0.0821,1.3001,4.9424,9.2157,9.0124
50.7812,-4.6451,-1.8024,12.9282,14.1438,11.5807,-0.0481,9.6267,11.4879,5.1868,-7.7686,9.6265,7.2074,10.7187,9.2142,0.7204,3.6084,7.2338,11.2634,11.4725
54.6875,-8.2885,-4.0329,11.3113,13.3315,9.6880,-0.4708,8.1938,8.8527,4.8077,-9.4806,7.9451,10.8575,12.5233,7.9233,1.8659,6.4006,8.9539,11.7911,12.0917
58.5938,-8.7593,-3.1913,8.3156,9.5612,5.6329,0.9696,5.0589,4.3183,4.5411,-6.8316,5.8100,12.9540,11.8564,5.2203,3.0753,8.4694,9.2577,10.1394,10.0715
62.5000,-6.6189,-0.6064,4.5740,3.6082,0.4260,2.6683,0.5134,-1.0884,3.8441,-1.9296,3.5679,12.1428,8.5325,1.5913,3.3157,8.6017,7.5345,6.3131,5.4062
66.4062,-3.8064,1.1947,0.8096,-3.0382,-4.7024,2.6915,-4.5313,-6.1128,2.0113,1.7336,1.2810,7.9908,3.0468,-2.3514,1.6434,6.2823,3.6769,1.0776,-0.9908
70.3125,-2.3321,0.2930,-2.2949,-8.6562,-8.6939,0.1161,-8.8233,-9.6596,-1.2690,1.4445,-1.0633,1.3357,-3.5100,-5.9892,-2.0169,2.0712,-1.7379,-4.2506,-7.5008
74.2188,-3.1210,-3.3100,-4.2174,-11.8644,-10.8885,-4.3729,-11.2128,-11.0914,-5.5786,-3.2162,-3.3514,-5.9180,-9.6718,-8.7511,-6.5605,-2.6214,-7.4994,-8.2619,-12.3229
78.1250,-5.6719,-7.7560,-4.7228,-12.0794,-11.0811,-8.9410,-11.0625,-10.3688,-9.8713,-10.3287,-5.3140,-11.5184,-13.9516,-10.1673,-10.1592,-6.2374,-12.1064,-9.9760,-14.1281
82.0312,-8.5974,-10.6466,-3.9516,-9.6765,-9.4837,-11.7059,-8.4635,-8.0089,-12.9443,-16.8891,-6.6541,-13.7750,-15.2719,-9.9816,-11.2709,-7.8029,-14.2936,-9.1980,-12.5737
85.9375,-10.5585,-10.6339,-2.3975,-5.7871,-6.6517,-11.7256,-4.1916,-4.8796,-13.9924,-20.4535,-7.1905,-12.2188,-13.3328,-8.2918,-9.5768,-7.2431,-13.5061,-6.5548,-8.4404
89.8438,-10.9647,-8.1926,-0.7372,-1.8254,-3.3777,-9.3274,0.5557,-1.8926,-12.9425,-20.2051,-6.9042,-7.7051,-8.7550,-5.6160,-6.2181,-5.1543,-10.0929,-3.2092,-3.3184
93.7500,-10.0919,-5.1397,0.4279,1.0379,-0.5281,-5.7448,4.5311,0.2917,-10.4313,-17.0136,-5.8966,-1.9563,-2.9102,-2.7856,-3.1328,-2.2929,-5.1395,-0.3915,1.0174
97.6562,-8.7129,-3.3647,0.7938,2.2218,1.1709,-2.4329,6.7969,1.4279,-7.4878,-12.7093,-4.3514,3.1832,2.5136,-0.6716,-1.8877,0.7979,-0.0489,1.0435,3.2624
101.5625,-7.6068,-3.7011,0.4268,1.7790,1.3274,-0.4845,6.9691,1.6468,-5.1058,-9.1413,-2.5574,6.4020,6.0449,0.1301,-2.7460,3.7847,3.9087,0.8717,2.9871
105.4688,-7.2669,-5.6408,-0.3370,0.1835,-0.0278,-0.3436,5.2868,1.2529,-3.8938,-7.5015,-0.9422,7.2269,6.8538,-0.5138,-4.5744,6.2801,5.8987,-0.5016,0.6610
109.3750,-7.8815,-7.9120,-1.0929,-1.9638,-2.4981,-1.7835,2.4906,0.4917,-3.9174,-8.0876,-0.0095,5.9426,4.9323,-2.3068,-5.6522,7.6626,5.6266,-2.2627,-2.6535
113.2812,-9.4437,-9.3674,-1.5489,-4.1402,-5.4811,-4.0530,-0.4536,-0.5591,-4.7651,-10.4220,-0.1411,3.2852,1.0060,-4.7239,-4.8536,7.2504,3.3117,-3.5324,-5.7530
117.1875,-11.8105,-9.5457,-1.6066,-5.9483,-8.3397,-6.1585,-2.6985,-1.9129,-5.8004,-13.5665,-1.3620,0.1199,-3.7463,-7.2330,-2.4348,4.7701,-0.3870,-3.7108,-7.6979
121.0938,-14.6546,-8.6509,-1.3332,-7.0717,-10.5155,-7.2662,-3.8031,-3.4870,-6.4895,-16.5009,-3.2467,-2.7656,-8.0508,-9.4003,0.0898,0.7697,-4.4742,-2.7052,-8.0498
125.0000,-17.3926,-7.1544,-0.8782,-7.2589,-11.5857,-7.0968,-3.8469,-4.9701,-6.6513,-18.4507,-5.0718,-4.7412,-10.8693,-10.8670,0.9092,-3.3975,-7.8009,-0.9507,-6.9189
128.9062,-19.2062,-5.4189,-0.3960,-6.3999,-11.3134,-6.0606,-3.3149,-5.8796,-6.4833,-19.0422,-6.1397,-5.3646,-11.6318,-11.2978,-0.8895,-6.1091,-9.3577,0.8006,-4.8527
132.8125,-19.2113,-3.5833,-0.0010,-4.6487,-9.7253,-4.9488,-2.8027,-5.8039,-6.3315,-18.2097,-6.0662,-4.4285,-10.3326,-10.4263,-4.6417,-6.2491,-8.6162,1.8480,-2.6171
136.7188,-16.7394,-1.6649,0.2498,-2.4714,-7.1820,-4.2958,-2.6903,-4.6811,-6.3415,-15.9468,-4.8573,-2.0388,-7.4761,-8.2224,-8.3702,-3.7591,-5.7632,1.8954,-0.9279
140.6250,-11.6514,0.3089,0.3605,-0.5337,-4.3565,-3.8602,-2.9567,-2.9207,-6.2499,-12.1540,-2.7760,1.3293,-3.8912,-5.0719,-9.8527,0.3565,-1.6745,1.1969,-0.2063
144.5312,-4.5992,2.2420,0.3865,0.5514,-2.0608,-2.7073,-3.2411,-1.2657,-5.5169,-6.8280,-0.1685,4.8687,-0.4743,-1.7967,-7.8840,4.5437,2.4006,0.3922,-0.4468
148.4375,2.8740,3.9404,0.4030,0.4842,-0.9568,0.0153,-3.1123,-0.4575,-3.7715,-0.5621,2.5763,7.6125,2.0576,0.5763,-3.0226,7.3984,5.3061,0.1087,-1.2635
152.3438,8.5278,5.0445,0.4538,-0.5996,-1.2830,4.0970,-2.3779,-0.8894,-1.2720,5.0404,4.9283,8.7189,3.3210,1.2231,2.5831,8.1665,6.3683,0.5625,-2.1028
156.2500,10.0158,4.9858,0.5115,-2.2109,-2.7507,7.8736,-1.2352,-2.4374,0.9970,7.5699,6.1596,7.7765,3.2916,-0.1021,6.1927,6.8512,5.5305,1.4141,-2.5201
160.1562,5.8077,3.1345,0.4829,-3.7358,-4.6759,8.9202,-0.1592,-4.5381,1.7685,4.8368,5.5321,4.9999,2.2219,-2.9400,5.7778,4.0031,3.2148,1.9857,-2.3747
164.0625,-3.8942,-0.7824,0.2754,-4.6796,-6.2816,5.5506,0.3987,-6.4473,0.2684,-3.7081,2.7309,1.2056,0.5093,-6.3215,0.9885,0.4135,0.0505,1.7112,-1.8405
167.9688,-16.7604,-6.1963,-0.1116,-4.8111,-7.0104,-1.8437,0.2977,-7.5309,-3.1773,-16.0736,-1.7201,-2.4586,-1.4208,-9.1744,-6.6609,-3.1111,-3.3478,0.5314,-1.2441
171.8750,-28.8747,-11.5540,-0.5309,-4.1717,-6.6976,-10.6277,-0.2237,-7.4671,-7.1598,-28.1445,-6.4266,-4.9403,-3.1868,-10.7218,-14.4330,-5.8665,-6.4518,-1.0278,-0.8463
175.7812,-36.1762,-14.8215,-0.7230,-2.9921,-5.5490,-17.2124,-0.7514,-6.3124,-9.8949,-35.4547,-9.6416,-5.6762,-4.4783,-10.6864,-19.5074,-7.3291,-8.7788,-2.1489,-0.7059
179.6875,-36.2112,-14.4987,-0.4387,-1.5867,-3.9798,-19.0696,-1.0260,-4.4522,-10.2111,-35.4168,-10.1168,-4.7620,-5.0651,-9.2543,-20.0979,-7.2516,-9.8585,-2.2007,-0.6950
183.5938,-29.2970,-10.5533,0.4081,-0.2664,-2.4251,-16.1723,-1.1490,-2.4733,-8.1913,-28.6822,-7.7883,-2.8149,-4.8101,-6.8907,-16.0861,-5.7419,-9.3051,-1.0978,-0.6255
187.5000,-18.4147,-4.6082,1.6471,0.7222,-1.2098,-10.9016,-1.4876,-0.9845,-5.0576,-18.7573,-3.8426,-0.6150,-3.6970,-4.1494,-8.9610,-3.2412,-6.9861,0.6685,-0.3800
191.4062,-7.8260,0.8494,2.8773,1.2392,-0.5052,-6.4910,-2.3198,-0.4145,-2.3959,-10.0860,-0.0889,1.2614,-1.8673,-1.5637,-1.1613,-0.3685,-3.1832,2.3144,0.0313
195.3125,-1.1404,3.7855,3.6125,1.2641,-0.3468,-5.0698,-3.4732,-0.8449,-1.2516,-5.7807,1.9891,2.6071,0.3529,0.3886,4.8580,2.3017,1.3735,3.1593,0.4966
199.2188,0.1265,3.6138,3.4864,0.8675,-0.6802,-6.5946,-4.2573,-1.9615,-1.6775,-6.3649,1.9270,3.4828,2.4655,1.3146,7.4490,4.3954,5.6517,2.8987,0.8547
203.1250,-3.2108,1.2282,2.4279,0.1478,-1.4085,-9.2818,-3.8124,-3.1825,-2.9565,-10.1484,0.3298,3.9668,3.8857,0.9760,6.2085,5.7475,8.5962,1.6449,0.9291
207.0312,-8.9416,-1.8707,0.7299,-0.8203,-2.4288,-11.0832,-1.7032,-3.9268,-4.2384,-14.7466,-1.6683,3.9769,4.1110,-0.6139,1.9413,6.2960,9.4384,-0.2008,0.5542
210.9375,-14.8446,-4.6480,-1.0202,-1.9741,-3.6417,-11.0708,1.6273,-3.8913,-5.0807,-18.5692,-3.1196,3.3170,2.9376,-3.1298,-3.7531,5.9850,7.9304,-2.1059,-0.3607
214.8438,-19.6455,-6.9961,-2.1310,-3.1796,-4.9209,-9.7913,4.8972,-3.1758,-5.5345,-21.3135,-3.6860,1.9198,0.6319,-5.9689,-9.0700,4.7824,4.4445,-3.5061,-1.7136
218.7500,-23.0855,-9.3110,-2.0540,-4.1446,-6.0581,-8.4936,6.5842,-2.1774,-5.8223,-23.3625,-3.5769,0.0888,-2.0551,-8.3890,-12.5612,2.8066,-0.0847,-3.8756,-3.1069
222.6562,-25.3019,-11.6415,-0.5995,-4.4344,-6.7342,-7.9687,5.7846,-1.3248,-5.9664,-24.8177,-3.1687,-1.4803,-4.0998,-9.7036,-13.5175,0.4455,-4.3723,-2.8481,-3.8819
226.5625,-26.1622,-13.2124,1.9627,-3.6459,-6.5810,-7.9384,2.8219,-0.8305,-5.7167,-25.0676,-2.6547,-1.9725,-4.5984,-9.4719,-12.0942,-1.6652,-7.1245,-0.4035,-3.3647
230.4688,-25.1074,-12.7943,4.9680,-1.6786,-5.3474,-7.4074,-0.8017,-0.6248,-4.8187,-23.2305,-1.9708,-0.8803,-3.1770,-7.6284,-9.1674,-2.8428,-7.4432,2.9820,-1.2522
234.3750,-21.5897,-9.6609,7.5733,1.0687,-3.1005,-5.6060,-3.1475,-0.4982,-3.3456,-19.0285,-0.9795,1.6768,-0.2095,-4.5258,-5.9681,-2.6482,-5.1650,6.3809,2.0755
238.2812,-15.7068,-4.3531,9.0484,3.7438,-0.3268,-2.7281,-2.8909,-0.3241,-1.7607,-13.2924,0.3049,4.9494,3.2966,-0.8737,-3.6092,-1.1009,-0.9832,8.7259,5.5519
242.1875,-8.4998,1.4140,9.0264,5.3700,2.1775,0.1006,-0.0872,-0.1788,-0.6233,-7.6346,1.6541,7.8800,6.1156,2.4307,-2.6729,1.3047,3.7516,9.2719,7.8146
246.0938,-1.6642,5.6907,7.6123,5.3086,3.6187,1.5521,3.8038,-0.2603,-0.1785,-3.5370,2.7518,9.5624,7.3269,4.5579,-3.0294,3.7919,7.5159,7.9552,7.8344
250.0000,3.1377,7.3901,5.3112,3.5987,3.5736,0.9276,6.6742,-0.6755,-0.1957,-1.5865,3.3685,9.5826,6.6842,5.0202,-3.9783,5.6015,9.1971,5.4196,5.4526
253.9062,4.9095,6.7316,2.8239,0.9632,2.2031,-1.5103,6.8980,-1.2743,-0.2172,-1.4416,3.4265,8.0885,4.6552,3.8547,-4.6595,6.2580,8.5098,2.6753,1.5154
257.8125,3.5456,4.7501,0.8071,-1.5299,0.1779,-4.8580,4.2098,-1.6849,-0.0233,-2.4847,2.9274,5.6134,2.1377,1.6167,-4.5321,5.6971,6.0430,0.5938,-2.4854
261.7188,-0.3742,2.3399,-0.2975,-2.9606,-1.6476,-8.1896,-0.1538,-1.5457,0.0895,-4.5322,1.8611,2.8110,0.0296,-0.8371,-3.6699,4.2274,2.9245,-0.4544,-5.0772
265.6250,-5.9482,-0.3471,-0.3207,-2.9260,-2.6235,-10.9605,-4.1204,-0.7743,-0.5061,-7.9380,0.2277,0.2635,-1.1139,-2.6864,-2.7047,2.3714,0.2864,-0.6165,-5.4241
269.5312,-12.1766,-3.6666,0.6733,-1.6050,-2.5400,-12.9558,-5.8777,0.3298,-2.2169,-12.9609,-1.8134,-1.5811,-1.1854,-3.4435,-2.4408,0.6653,-1.1827,-0.2673,-3.5910
273.4375,-17.9643,-7.6662,2.4580,0.4618,-1.6034,-13.9716,-4.7888,1.2427,-4.7303,-18.9307,-3.8075,-2.3985,-0.3989,-3.0653,-3.3511,-0.4998,-1.3893,0.3449,-0.3763
277.3438,-22.0802,-11.4656,4.6968,2.6929,-0.2202,-13.6279,-1.6392,1.5414,-6.9877,-23.9900,-5.0501,-1.9962,0.9320,-1.8500,-5.2391,-0.9417,-0.6625,1.2525,3.1311
281.2500,-23.3155,-13.4689,6.9680,4.6812,1.2427,-11.5519,1.8876,1.1871,-7.7147,-25.7920,-4.8659,-0.3781,2.5570,-0.2091,-7.2626,-0.6508,0.5768,2.6287,6.0011
285.1562,-20.9044,-12.3529,8.7988,6.2188,2.5773,-7.8014,4.1703,0.5764,-6.1767,-22.8017,-2.9785,2.1792,4.3152,1.5315,-8.3175,0.3008,2.0757,4.4931,7.7158
289.0625,-14.9947,-8.0996,9.7557,7.2009,3.7091,-3.1472,4.4866,0.3264,-2.6505,-15.3418,0.2685,5.1259,6.0641,3.2006,-7.5806,1.8290,3.7900,6.5166,8.1904
292.9688,-6.8230,-2.2412,9.5949,7.5507,4.6111,1.0881,3.2677,0.9278,1.7078,-5.6388,4.0045,7.7641,7.6130,4.7253,-4.9305,3.8303,5.7300,8.1076,7.6597
296.8750,1.6247,2.9426,8.4167,7.2522,5.2619,3.6111,1.6770,2.4709,5.4980,3.2240,7.2121,9.4704,8.7410,6.0464,-1.0341,6.1101,7.7653,8.7423,6.5484
300.7812,8.3717,5.7388,6.7211,6.4521,5.6778,3.8176,0.8247,4.5947,7.7897,8.8206,9.1812,9.9211,9.2958,7.0936,2.9368,8.3251,9.5594,8.3184,5.3729
304.6875,12.2447,5.9081,5.2842,5.5091,5.9605,2.1221,1.1237,6.6666,8.4776,10.4608,9.7871,9.2158,9.2975,7.8375,5.8096,10.0300,10.6904,7.2748,4.6437
308.5938,13.2687,4.5827,4.8560,4.8985,6.2811,-0.2389,2.1714,8.0773,8.1267,9.2471,9.4611,7.8450,8.9583,8.3452,6.8890,10.8465,10.8759,6.3773,4.7270
312.5000,12.4497,3.3115,5.7961,4.9934,6.7820,-1.8123,3.1787,8.4952,7.4990,7.1844,8.8993,6.5118,8.5871,8.7595,6.1929,10.6654,10.1422,6.2880,5.6917
316.4062,11.0886,3.0065,7.8351,5.8534,7.4637,-1.6166,3.6096,7.9739,7.1159,5.9553,8.6919,5.8738,8.4329,9.1862,4.3598,9.7334,8.8238,7.1849,7.2329
320.3125,10.0361,3.5295,10.1214,7.1642,8.1530,0.4164,3.5707,6.8845,7.0944,6.0799,9.0585,6.2959,8.5624,9.5738,2.3035,8.5335,7.3972,8.6616,8.7616
324.2188,9.3192,4.0960,11.5823,8.3754,8.5887,3.4240,3.6800,5.7266,7.2561,6.8520,9.7957,7.7009,8.8483,9.6950,0.8015,7.5069,6.2634,9.9617,9.6550
328.1250,8.3288,4.0425,11.4469,8.9582,8.5695,6.0056,4.5196,4.9011,7.3335,6.9641,10.4235,9.5768,9.0688,9.2777,0.2161,6.7947,5.6073,10.3968,9.5492
332.0312,6.4198,3.3065,9.6603,8.6309,8.0576,6.8609,6.0779,4.5425,7.1077,5.3948,10.4416,11.1514,9.0447,8.2131,0.4593,6.1801,5.3940,9.6959,8.5038
335.9375,3.5291,2.3143,6.9472,7.4415,7.1736,5.4136,7.6057,4.4818,6.4475,2.0713,9.5755,11.6780,8.7218,6.6952,1.1743,5.2797,5.4589,8.0958,6.9398
339.8438,0.4087,1.5070,4.4592,5.6964,6.1088,2.1401,8.0240,4.3644,5.3244,-2.0015,7.9127,10.7296,8.1526,5.1787,1.9953,3.8532,5.6012,6.1515,5.3908
343.7500,-1.6938,1.0039,3.1846,3.8166,5.0415,-1.5977,6.6385,3.8768,3.8624,-5.1857,5.8717,8.3786,7.4082,4.1626,2.7268,2.0162,5.6260,4.4137,4.2293
347.6562,-1.7404,0.6839,3.4441,2.2143,4.1223,-4.2027,3.6819,2.9627,2.3817,-6.0192,4.0192,5.1896,6.5036,3.9312,3.3533,0.2128,5.3499,3.1780,3.5350
351.5625,0.4199,0.5192,4.7637,1.2247,3.5074,-4.6805,0.3078,1.8967,1.3355,-4.0155,2.8198,2.0259,5.4065,4.4127,3.9162,-1.0197,4.6339,2.4388,3.1692
355.4688,3.8221,0.7382,6.1886,1.0647,3.3598,-3.1953,-1.9894,1.1490,1.0997,-0.0503,2.4428,-0.2472,4.1284,5.2388,4.3748,-1.3230,3.4721,2.0307,2.9700
359.3750,6.7822,1.5792,6.8431,1.7784,3.7643,-0.9647,-2.1822,1.1046,1.7190,3.9267,2.7302,-1.0497,2.8234,5.9511,4.5668,-0.6553,2.0893,1.8222,2.9095
363.2812,7.7419,2.8480,6.3960,3.1788,4.6004,0.5050,-0.2573,1.8103,2.8020,5.8054,3.3364,-0.2692,1.8006,6.2220,4.2941,0.7522,0.9482,1.8125,3.0968
367.1875,6.1115,3.7747,5.1681,4.8474,5.5021,0.3942,2.8078,2.9254,3.6930,4.4479,3.9526,1.7131,1.4108,5.9700,3.4645,2.5348,0.6024,2.0768,3.6400
371.0938,2.6485,3.4747,3.8587,6.2545,5.9999,-0.8849,5.5882,3.9280,3.8612,0.4299,4.4741,4.1565,1.8651,5.3435,2.1810,4.3124,1.4383,2.6313,4.4942
375.0000,-0.8428,1.7774,3.1051,6.9813,5.8078,-1.9709,6.9267,4.4471,3.2668,-4.0817,5.0192,6.2226,3.1039,4.6310,0.7260,5.7497,3.4480,3.3492,5.4306
378.9062,-2.3386,-0.2557,3.1655,6.9348,5.0718,-1.5001,6.4192,4.4884,2.4500,-6.3443,5.8067,7.2926,4.8085,4.1699,-0.5294,6.6084,6.1820,4.0171,6.1659
382.8125,-0.5309,-0.7061,3.8939,6.4080,4.3686,0.9245,4.4632,4.3814,2.2492,-4.4514,6.9866,7.2248,6.5533,4.2755,-1.2128,6.8368,8.9231,4.4907,6.5549
386.7188,4.5773,1.9790,4.9454,5.9154,4.3921,4.4218,1.9388,4.4764,3.2950,1.6212,8.5265,6.4223,7.9918,5.1576,-0.9988,6.6528,10.9774,4.8148,6.6885
390.6250,11.6554,7.6759,6.0110,5.8752,5.4862,7.3962,-0.2331,4.8123,5.5722,9.9117,10.1894,5.6288,8.9474,6.8016,0.3412,6.4922,11.9040,5.1810,6.8034
394.5312,18.5497,14.1697,6.9030,6.3283,7.3305,8.5648,-1.4289,5.0188,8.3059,17.3580,11.5748,5.5068,9.3591,8.8572,2.8205,6.7558,11.5639,5.7204,7.0511
398.4375,23.0451,18.1070,7.4825,6.8814,9.0178,7.7103,-1.4637,4.5603,10.2457,21.1751,12.1875,6.2057,9.1530,10.6401,6.0558,7.4677,10.0150,6.2828,7.3015
402.3438,23.5850,16.8646,7.5736,6.9319,9.5211,5.6480,-0.5714,3.1676,10.2126,20.0057,11.5409,7.1906,8.1819,11.3308,9.1574,8.1127,7.4006,6.4032,7.1487
406.2500,19.7433,10.1966,7.0127,6.0490,8.2802,3.5048,0.7118,1.1466,7.6571,14.3330,9.3341,7.4994,6.3274,10.3366,10.8863,7.8745,3.9614,5.5472,6.1593
410.1562,12.3617,0.5861,5.8359,4.2768,5.5463,1.9165,1.7333,-0.6913,2.9830,6.0941,5.6876,6.3347,3.7138,7.6473,10.1547,6.2204,0.1655,3.5156,4.2216
414.0625,3.3375,-7.9779,4.4348,2.1655,2.2686,0.7646,1.9693,-1.4734,-2.5083,-2.1805,1.3152,3.6543,0.8630,3.9604,6.6949,3.4583,-3.2024,0.7327,1.7580
417.9688,-4.9100,-12.0839,3.4812,0.5010,-0.4032,-0.4001,1.2731,-0.8111,-7.0570,-8.2627,-2.5534,0.3630,-1.3852,0.4523,1.4972,0.8054,-5.1725,-1.8311,-0.3757
421.8750,-10.1910,-10.6060,3.5754,-0.1081,-1.6901,-1.6827,-0.0048,0.9219,-9.1301,-10.8561,-4.5948,-2.0779,-2.2127,-1.7252,-3.3741,-0.2143,-4.9770,-3.1235,-1.2861
425.7812,-11.2954,-5.0790,4.8136,0.4557,-1.4958,-2.5506,-1.1474,2.7779,-8.0920,-9.8572,-4.0285,-2.4389,-1.2540,-1.9668,-5.6608,1.2623,-2.5046,-2.6050,-0.5222
429.6875,-8.4354,1.3655,6.5946,1.7825,-0.3168,-2.2158,-1.4511,3.7799,-4.5525,-6.2689,-1.1227,-0.4379,1.1523,-0.4701,-4.1079,4.7492,1.4827,-0.5930,1.6459
433.5938,-3.1399,5.7561,7.8690,3.1780,1.1294,-0.3919,-0.6594,3.4747,-0.1720,-1.8053,2.7943,3.0711,4.0763,1.9096,0.7003,8.5390,5.5785,1.8949,4.3233
437.5000,2.4054,6.6764,7.7375,4.0298,2.2878,2.2304,0.8303,2.1468,3.0602,1.7351,5.9218,6.5666,6.4332,4.1104,6.4374,10.6525,8.3412,3.7237,6.4161
441.4062,6.2709,4.5929,6.0301,4.0852,2.9378,4.2529,2.1669,0.5800,3.7647,3.1473,6.8952,8.6907,7.4897,5.3537,10.1293,10.0242,8.9547,4.2838,7.1460
445.3125,7.4880,1.1347,3.4679,3.5034,3.1157,4.4520,2.5609,-0.4465,1.8381,2.2572,5.4824,8.9182,7.1418,5.4096,9.7024,7.1318,7.5563,3.7779,6.3717
449.2188,6.2034,-2.0616,1.2623,2.6933,2.9210,2.6265,1.7836,-0.5883,-1.5485,-0.1363,2.6331,7.6692,5.8227,4.5372,5.1170,3.6395,5.0484,2.9744,4.5628
453.1250,3.2869,-4.1902,0.3882,2.0636,2.3904,-0.2457,0.2952,-0.0374,-4.6445,-2.8146,-0.1515,5.8616,4.1497,3.2032,-1.5818,1.3090,2.5404,2.6171,2.4841
457.0312,-0.2622,-5.3739,1.0017,1.8328,1.5232,-2.6778,-1.1051,0.7133,-6.1114,-4.8609,-1.7107,4.2769,2.5791,1.7998,-7.3384,0.9398,0.7943,2.9098,0.8049
460.9375,-3.6812,-6.1252,2.3905,1.9832,0.4056,-3.6662,-1.8642,1.2301,-5.7047,-6.0669,-1.7936,3.1921,1.2979,0.5383,-9.6704,2.0520,0.0069,3.4313,-0.1419
464.8438,-6.3949,-6.6511,3.4906,2.3409,-0.6988,-3.2517,-2.0561,1.3698,-4.2297,-6.7405,-0.9629,2.4814,0.3706,-0.4596,-7.8601,3.4610,-0.0034,3.5163,-0.3553
468.7500,-7.7398,-6.5187,3.6171,2.7032,-1.3882,-2.2429,-2.2473,1.2633,-2.8343,-7.0829,0.0273,2.0056,-0.0447,-1.0036,-3.1227,4.2392,0.5682,2.8041,0.0110
472.6562,-6.8665,-4.9145,2.9128,2.9336,-1.2855,-1.3610,-2.9157,1.1323,-2.1519,-6.6703,0.8715,1.8959,0.3505,-0.7868,2.2517,4.3157,1.7226,1.5449,0.8295
476.5625,-3.0814,-1.3207,2.2148,2.9916,-0.2312,-0.5260,-3.8597,1.1170,-1.9065,-4.5518,1.8779,2.4590,1.7852,0.4699,6.1900,4.3033,3.5388,0.4422,2.0455
480.4688,3.5066,3.8559,2.4339,2.9111,1.6029,1.1058,-4.0915,1.2397,-1.2500,-0.0114,3.5521,3.7725,4.0950,2.7524,7.7837,4.7671,5.8439,0.1531,3.5767
484.3750,11.5178,9.1626,3.8721,2.7582,3.7374,4.3456,-2.4010,1.4823,0.4319,6.5212,5.9492,5.3381,6.5599,5.5568,7.4078,5.5835,7.9853,0.8142,5.1723
488.2812,18.4828,12.6560,5.9389,2.5929,5.5336,9.0205,1.7210,1.8583,2.8583,13.1483,8.3303,6.1491,8.0989,7.9385,6.0776,5.9246,8.9653,1.9296,6.3744
492.1875,21.7519,12.8724,7.4548,2.4400,6.4071,13.6296,7.4241,2.3825,4.8498,17.1679,9.4333,5.2265,7.7773,8.8494,4.5590,4.8810,7.9282,2.6917,6.6521
496.0938,19.6953,9.6464,7.3441,2.2704,6.0314,15.9464,12.6280,2.9588,5.0159,16.4268,8.2042,2.2963,5.3441,7.6228,2.8278,2.2081,4.7097,2.4975,5.6544
500.0000,12.5071,4.2488,5.2756,1.9998,4.4640,14.2316,14.9808,3.3072,2.6672,10.5329,4.4944,-1.8760,1.4593,4.3503,0.1899,-1.4029,0.0696,1.3042,3.4359
503.9062,2.1390,-1.2998,1.8618,1.5129,2.1375,8.2912,13.1323,3.0405,-1.6809,1.1389,-0.7546,-5.7761,-2.5622,-0.0769,-4.0628,-4.7409,-4.5885,-0.3971,0.5096
507.8125,-8.5709,-5.3489,-1.6810,0.7143,-0.2988,-0.2744,7.5611,1.8809,-6.5491,-8.8825,-5.9519,-7.9231,-5.3720,-4.3210,-9.9046,-6.8389,-7.8795,-1.9314,-2.3287
511.7188,-17.0325,-7.4638,-4.1765,-0.4151,-2.2437,-8.7460,0.4298,-0.1198,-10.2978,-16.8109,-9.6201,-7.6726,-6.2381,-7.1849,-16.2124,-7.4993,-9.1005,-2.8470,-4.3264
515.6250,-21.6763,-8.4347,-5.0423,-1.7845,-3.3968,-14.4476,-5.4800,-2.5230,-11.9458,-21.1195,-11.0007,-5.5467,-5.3629,-8.1296,-21.0301,-7.2134,-8.5155,-3.1114,-5.0899
519.5312,-22.0821,-9.4415,-4.4561,-3.2034,-3.8622,-15.7611,-8.1526,-4.6741,-11.4985,-21.6354,-10.1944,-2.9045,-3.7065,-7.4460,-22.3665,-6.6169,-7.1120,-3.0082,-4.7261
523.4375,-18.6636,-10.9753,-3.1013,-4.4304,-4.0247,-12.5735,-7.2625,-6.0073,-9.6725,-18.9684,-7.8812,-1.1798,-2.4322,-5.9939,-19.1546,-5.9748,-6.0032,-2.8674,-3.7432
527.3438,-12.3467,-12.3306,-1.7071,-5.2390,-4.2577,-6.1386,-4.1555,-6.2970,-7.3248,-13.8659,-4.9162,-1.1541,-2.2917,-4.6712,-11.9093,-5.1196,-5.8359,-2.8481,-2.7679
531.2500,-4.5115,-12.0975,-0.6845,-5.4749,-4.6416,1.4096,-0.9685,-5.7082,-5.0370,-7.0783,-2.0801,-2.6601,-3.2808,-3.9313,-2.7408,-3.8468,-6.5320,-2.9120,-2.2377
535.1562,2.9352,-9.3493,-0.0488,-5.0913,-4.8888,7.6600,0.5552,-4.6383,-3.0892,0.2574,-0.0336,-4.8120,-4.7234,-3.6305,5.3510,-2.3671,-7.4616,-2.9596,-2.2278
539.0625,7.7541,-4.6422,0.3934,-4.1648,-4.5431,10.5590,-0.1156,-3.4811,-1.6972,6.2868,0.6847,-6.5447,-5.7030,-3.2714,9.6501,-1.3688,-7.8948,-2.9797,-2.4919
542.9688,8.0838,-0.0043,0.7761,-2.8909,-3.3334,9.0493,-2.2338,-2.4727,-1.1772,8.7889,-0.2107,-7.1225,-5.5788,-2.4529,8.8692,-1.5820,-7.4380,-3.0794,-2.6684
546.8750,3.4513,2.2232,1.0348,-1.5528,-1.4351,3.5730,-4.3760,-1.6904,-1.8163,6.2887,-2.5104,-6.3728,-4.3016,-1.2074,3.7319,-3.1724,-6.2151,-3.3755,-2.5124
550.7812,-4.5683,0.9652,0.9839,-0.4528,0.5564,-3.8575,-5.2860,-1.1555,-3.5376,-0.7338,-5.3777,-4.6164,-2.3781,0.0029,-3.3341,-5.4628,-4.7261,-3.8460,-2.0102
554.6875,-12.6772,-2.7057,0.5353,0.1845,1.9433,-10.2761,-4.4751,-0.9171,-5.6899,-9.5163,-7.5576,-2.4246,-0.5387,0.6175,-9.3039,-7.2392,-3.5108,-4.2702,-1.3244
558.5938,-17.2691,-6.0972,-0.1235,0.3024,2.3272,-12.9918,-2.3294,-1.0376,-7.2397,-16.0985,-7.9372,-0.3717,0.6745,0.3888,-11.9576,-7.4531,-2.8373,-4.3178,-0.6354
562.5000,-16.2868,-6.5878,-0.5431,0.0418,1.8219,-10.9120,0.2138,-1.4975,-7.3362,-17.3908,-6.1763,1.1256,1.1540,-0.4272,-10.8807,-5.8346,-2.5964,-3.7373,-0.0097
566.4062,-10.4527,-3.3959,-0.2422,-0.3190,0.9356,-5.2163,2.1539,-2.1170,-5.8918,-13.0119,-2.9968,1.8720,1.1793,-1.2394,-7.5319,-3.0086,-2.4416,-2.5292,0.6010
570.3125,-3.0368,1.7690,0.9738,-0.4967,0.2156,1.1147,2.8145,-2.5809,-3.7518,-5.6740,0.1109,1.8886,1.1369,-1.5248,-4.3336,-0.0849,-2.0683,-1.0001,1.2368
574.2188,1.8408,5.6492,2.8021,-0.3438,-0.0896,4.7846,2.0127,-2.5745,-2.2803,0.2548,1.6438,1.3580,1.2116,-1.1768,-3.2802,1.9495,-1.4479,0.3320,1.7922
578.1250,1.4638,5.3921,4.4886,0.0796,-0.1199,3.9049,0.0395,-1.9525,-2.5923,1.2134,0.8692,0.5220,1.2579,-0.5539,-4.8420,2.6230,-0.8702,0.9334,1.9928
582.0312,-3.9773,0.2740,5.1364,0.5375,-0.2121,-1.0216,-2.4593,-0.8365,-4.9122,-3.5524,-1.8325,-0.4397,0.9308,-0.2098,-7.7872,1.9800,-0.7697,0.4636,1.5353
585.9375,-11.5418,-7.8690,4.1348,0.7332,-0.5991,-7.4438,-4.6576,0.4110,-8.4616,-11.6660,-5.2566,-1.4896,-0.0257,-0.5121,-10.0122,0.3290,-1.4465,-1.0860,0.3086
589.8438,-17.2766,-15.7007,1.4971,0.4447,-1.2385,-12.2309,-5.7807,1.3203,-11.9187,-19.1290,-8.0897,-2.7072,-1.5389,-1.4257,-9.8759,-1.9749,-2.8511,-3.3675,-1.4537
593.7500,-18.4984,-20.1965,-2.0633,-0.3799,-1.8827,-13.3977,-5.3886,1.4860,-14.1286,-22.6703,-9.5867,-4.1480,-3.1781,-2.5886,-7.2292,-4.5454,-4.5617,-5.7670,-3.2088
597.6562,-15.2499,-20.0852,-5.3641,-1.5917,-2.3020,-11.0734,-3.6175,0.7127,-14.6075,-21.4684,-9.8045,-5.6614,-4.3477,-3.5828,-3.5122,-6.8537,-5.9575,-7.5775,-4.3219
601.5625,-10.0742,-16.1617,-7.1999,-2.8710,-2.4578,-7.1902,-1.2268,-0.9011,-13.5734,-17.2552,-9.2997,-6.7994,-4.5649,-4.1716,-0.8555,-8.2037,-6.4778,-8.1980,-4.3417
605.4688,-6.2887,-10.4909,-6.8205,-3.8071,-2.4839,-4.1533,0.6663,-2.9569,-11.5766,-12.8886,-8.5547,-6.9137,-3.6484,-4.3349,-0.7318,-7.9253,-5.8215,-7.3040,-3.1810
609.3750,-5.8590,-5.1600,-4.2504,-4.0228,-2.5122,-3.3493,1.1117,-4.8429,-9.0548,-10.4252,-7.5564,-5.4386,-1.7368,-4.1281,-2.9867,-5.7103,-4.0085,-4.9430,-1.1224
613.2812,-8.1997,-1.3491,-0.3213,-3.3312,-2.5179,-4.3996,-0.1363,-5.9184,-6.1342,-9.9499,-5.8191,-2.2318,0.8112,-3.5436,-5.8619,-1.8629,-1.3266,-1.5370,1.3134
617.1875,-10.6345,0.8749,3.6081,-1.8759,-2.3394,-5.5566,-2.3973,-5.7618,-2.7727,-9.8248,-2.8285,2.2130,3.5194,-2.5350,-7.0279,2.7188,1.7532,2.2059,3.5382
621.0938,-10.2032,2.1468,6.1564,-0.1655,-1.8643,-4.9315,-4.3587,-4.3899,0.9200,-8.0664,1.4082,6.8204,5.8386,-1.1928,-5.0326,6.8299,4.6355,5.4534,5.0289
625.0000,-5.6763,3.1680,6.4637,1.0723,-1.2171,-1.7656,-4.7876,-2.3191,4.4623,-3.8792,6.0913,10.2691,7.1823,0.1092,-0.3045,9.3528,6.6585,7.4540,5.4169
628.9062,1.4738,4.2175,4.5528,1.2025,-0.7618,3.0169,-3.2816,-0.3935,7.0559,1.6379,9.8434,11.4774,7.0476,0.7870,4.9048,9.5729,7.2181,7.7466,4.5711
632.8125,7.7368,4.9742,1.3262,0.0244,-0.8884,7.2604,-0.5977,0.5774,7.8895,5.9935,11.3072,10.0298,5.2423,0.3541,7.6469,7.3422,5.9852,6.3125,2.6774
636.7188,9.4526,4.6492,-1.8341,-2.0632,-1.7364,8.7234,1.6875,0.1954,6.5028,6.6391,9.7946,6.3535,2.0947,-1.2403,5.8591,3.1211,3.1294,3.6052,0.2518
640.6250,4.8020,2.3610,-3.7061,-4.2150,-3.0815,6.2385,2.0406,-1.3416,3.0157,2.3195,5.6282,1.5683,-1.5426,-3.5112,-0.4733,-2.0635,-0.6123,0.4148,-1.9946
644.5312,-5.2247,-2.3422,-3.7962,-5.5673,-4.4863,0.2693,-0.1276,-3.3631,-1.8675,-6.2821,0.0115,-2.9207,-4.5894,-5.6907,-9.2126,-6.7792,-4.1334,-2.4037,-3.4373
648.4375,-17.3408,-8.9932,-2.5323,-5.7067,-5.5984,-7.3629,-4.0636,-5.0884,-7.0408,-16.8402,-5.4684,-5.9105,-6.2147,-7.1692,-17.0675,-9.5382,-6.3749,-4.2342,-3.8394
652.3438,-27.5399,-16.0287,-0.9599,-4.8880,-6.3537,-14.3379,-8.0378,-6.0164,-11.2758,-26.3401,-9.4250,-6.7659,-6.2036,-7.8025,-21.1379,-9.3122,-6.7467,-4.8916,-3.4688
656.2500,-32.7898,-21.1709,-0.1045,-3.8501,-6.9143,-18.7814,-10.2810,-6.1192,-13.5270,-32.1604,-11.0684,-5.5404,-4.9656,-7.8534,-20.1858,-6.0162,-5.3095,-4.6094,-2.9182
660.1562,-31.9935,-22.3507,-0.3738,-3.3366,-7.3984,-19.8439,-9.9442,-5.7518,-13.2239,-32.8437,-10.3031,-2.8508,-3.1759,-7.6250,-15.0148,-0.6698,-2.6220,-3.8443,-2.7066
664.0625,-25.9500,-18.7747,-1.3607,-3.6304,-7.6473,-17.7493,-7.5112,-5.3657,-10.4965,-28.3883,-7.5957,0.3902,-1.3186,-7.1078,-7.8637,4.9405,0.6145,-3.0251,-2.9263
667.9688,-16.6555,-11.5143,-2.1604,-4.4026,-7.2602,-13.4521,-4.4296,-5.2250,-6.2300,-20.1277,-3.7653,3.2541,0.5204,-5.9594,-1.2466,8.9905,3.8482,-2.3970,-3.1915
671.8750,-6.5237,-3.1641,-1.9820,-4.9635,-5.9095,-8.1876,-2.1987,-5.2867,-1.8415,-10.3319,0.2070,5.0086,2.4594,-3.8707,3.1077,10.3726,6.7163,-2.0243,-2.9484
675.7812,2.1223,3.3521,-0.6423,-4.7247,-3.6948,-3.1366,-1.4886,-5.2764,1.2306,-1.6226,3.3604,5.2580,4.4136,-1.0253,4.7242,9.0747,8.8765,-1.8858,-1.9302
679.6875,7.3436,6.1931,1.3808,-3.5486,-1.2259,0.7449,-1.8298,-4.8680,2.1514,3.7396,4.9874,4.0422,5.8677,1.7628,4.1770,6.0174,9.8708,-1.9357,-0.4133
683.5938,7.9407,5.4104,3.3394,-1.7609,0.6856,2.8208,-2.0462,-3.8443,1.1157,4.5745,4.9066,1.8892,6.1005,3.4362,2.5029,2.5194,9.2525,-2.0576,0.9412
687.5000,3.9732,2.6955,4.7397,0.1358,1.5391,2.8927,-1.1287,-2.1735,-0.7101,1.2749,3.6373,-0.2499,4.7631,3.3913,0.6525,-0.2517,6.9727,-1.9749,1.5652
691.4062,-2.8309,0.2701,5.6001,1.7995,1.4846,1.3322,1.0314,-0.0186,-1.7775,-4.2013,2.2893,-1.2594,2.3725,1.9873,-0.7556,-1.5655,3.7397,-1.2637,1.4272
695.3125,-9.2752,-0.3532,6.2619,3.1773,1.2155,-0.8904,3.5346,2.2835,-1.0025,-8.9700,2.0951,-0.2999,0.2639,0.4418,-1.3867,-1.1307,0.9852,0.4366,1.0900
699.2188,-11.7794,0.9999,6.9303,4.3601,1.4652,-2.4185,5.0703,4.2664,1.6029,-10.3362,3.7553,2.7364,-0.0907,0.1113,-1.0523,0.9974,0.2916,3.1003,1.3089
703.1250,-8.0377,3.4145,7.3482,5.3308,2.4653,-1.9819,4.8320,5.4406,4.9099,-6.9438,6.9578,7.0199,1.9919,1.6106,0.3236,4.4300,2.5269,6.1176,2.4491
707.0312,1.5998,5.6899,6.9154,5.8574,3.7674,1.0230,3.1436,5.4753,7.3095,0.5726,10.4191,11.0272,5.8686,4.3767,2.5995,8.3901,7.2148,8.4458,4.1569
710.9375,13.9236,7.0857,5.2113,5.6487,4.5694,6.1259,1.3589,4.3914,7.6523,9.7828,12.5126,13.1976,9.8315,6.9967,5.3090,11.7746,12.5950,9.1166,5.5488
714.8438,24.1660,7.5762,2.5348,4.6526,4.3119,11.8045,1.0561,2.6388,5.9301,17.4577,12.1789,12.7003,12.0467,8.0932,7.7182,13.4846,16.4259,7.8286,5.8037
718.7500,28.2445,7.6138,0.0016,3.2365,3.1072,16.0103,3.0130,0.9564,3.2845,20.9313,9.5841,9.8851,11.5749,7.1771,9.0940,12.9401,17.0995,5.2281,4.7390
722.6562,24.7602,7.7230,-0.9674,2.0685,1.6916,17.0199,6.6166,0.0479,1.3387,19.2065,6.1012,6.1340,8.8256,4.9079,9.0531,10.4676,14.4282,2.6385,2.9619
726.5625,15.6366,8.2373,0.5090,1.7500,0.9425,14.2366,10.1177,0.2485,1.2617,13.3031,3.5844,3.1662,5.1963,2.6266,7.7755,7.2373,9.6562,1.3547,1.4905
730.4688,5.0488,9.2398,4.1502,2.4593,1.3219,8.5418,11.6164,1.3924,3.1316,5.7167,3.3475,2.1774,2.2024,1.5200,5.9244,4.6973,4.7361,1.9257,1.1249
734.3750,-2.7238,10.5617,8.5642,3.8663,2.6427,1.9825,10.1979,2.9742,5.9566,-0.7264,5.4523,3.2926,0.7107,1.9927,4.3033,3.8075,1.3438,3.8845,2.0095
738.2812,-5.3012,11.7319,11.9834,5.3789,4.2930,-3.1016,6.5171,4.4900,8.2990,-4.0606,8.7215,5.6205,0.7345,3.6200,3.4409,4.5507,0.2072,6.0947,3.6617
742.1875,-3.0035,11.9744,13.2381,6.5314,5.7115,-5.1103,2.4562,5.7169,9.0861,-3.8728,11.4481,7.8261,1.7889,5.6141,3.3477,6.0315,1.0564,7.4704,5.3878
746.0938,1.8326,10.4679,12.3569,7.2247,6.7330,-3.8616,0.0506,6.7346,8.1254,-1.2202,12.3511,8.8523,3.4076,7.3897,3.5780,7.0843,3.0756,7.5891,6.7361
750.0000,6.4317,6.9055,10.4291,7.6566,7.5597,-0.5666,0.3353,7.6948,6.0714,2.1052,11.2094,8.3720,5.3763,8.8097,3.5480,6.9722,5.4576,6.8103,7.6573
753.9062,9.0318,2.0386,8.8492,8.0276,8.4190,2.8834,2.8096,8.5394,3.9459,4.5338,8.8395,6.7715,7.5574,9.9945,2.9071,5.7275,7.6920,5.8758,8.3052
757.8125,9.4263,-2.3049,8.4506,8.2769,9.2145,4.9207,5.8243,8.9137,2.5547,5.3880,6.4977,4.7679,9.5557,10.9304,1.7401,3.9597,9.4962,5.3223,8.7018
761.7188,8.4863,-4.0065,9.0701,8.0654,9.4666,5.0360,7.6100,8.3641,2.1339,4.9548,5.1174,2.9548,10.6141,11.2507,0.4844,2.3370,10.5786,5.1307,8.5766
765.6250,7.1954,-1.9389,9.7706,7.0165,8.6004,3.8499,7.2843,6.6795,2.3566,4.0143,4.8340,1.5513,9.9188,10.3928,-0.3722,1.1403,10.5210,4.8279,7.5204
769.5312,5.9303,3.0789,9.5192,5.0246,6.3688,2.5353,5.2309,4.1174,2.6015,3.1832,5.0302,0.4439,7.1286,8.0197,-0.6154,0.1861,8.9219,3.9133,5.3265
773.4375,4.4175,8.4372,7.8590,2.4014,3.1032,1.9995,2.6929,1.3338,2.2836,2.5163,4.8054,-0.5809,2.7357,4.3832,-0.4373,-0.8836,5.7146,2.2713,2.2453
777.3438,2.2512,11.1169,5.1728,-0.2329,-0.3780,2.3602,0.9350,-0.9355,1.0945,1.5946,3.5530,-1.5972,-2.0334,0.3479,-0.2924,-2.2097,1.4180,0.2863,-1.0414
781.2500,-0.5330,9.5224,2.4361,-2.2151,-3.1302,3.0155,0.5632,-2.2167,-0.8954,-0.0173,1.3180,-2.4371,-5.7343,-2.9603,-0.5725,-3.5208,-2.8887,-1.3761,-3.6994
785.1562,-3.3156,4.5516,0.6678,-3.0806,-4.4769,3.1850,1.3964,-2.4345,-3.2528,-2.3268,-1.2337,-2.7577,-7.3216,-4.6656,-1.3260,-4.2635,-5.9068,-2.1249,-5.0758
789.0625,-5.2931,-0.8990,0.4236,-2.6638,-4.2270,2.4805,2.8410,-1.7968,-5.3015,-4.8371,-3.1756,-2.2271,-6.5175,-4.5133,-2.2247,-3.9466,-6.6303,-1.6955,-4.8946
792.9688,-6.0913,-3.7595,1.5883,-1.0827,-2.6595,1.0936,4.3707,-0.5783,-6.3472,-6.8976,-3.7982,-0.7378,-3.7964,-2.9178,-2.8142,-2.4641,-4.7910,-0.1911,-3.2671
796.8750,-6.0832,-2.7499,3.5140,1.2997,-0.3639,-0.4850,5.7141,0.9893,-5.9667,-8.1901,-2.9514,1.4501,-0.1019,-0.7082,-2.8681,-0.2025,-1.0264,2.0233,-0.6073
800.7812,-6.1074,0.8547,5.3728,3.8967,1.9475,-1.9155,6.6767,2.6490,-4.2406,-8.9237,-1.0833,3.7223,3.4922,1.2580,-2.5673,2.1158,3.3242,4.4464,2.4483
804.6875,-6.7419,4.1935,6.5223,5.9644,3.6097,-3.2118,6.8804,3.9956,-1.7675,-9.5341,1.0327,5.3212,6.0494,2.4230,-2.3302,3.7612,6.7324,6.5335,5.1212
808.5938,-7.6619,4.8471,6.7314,6.8042,4.1707,-4.5156,5.7935,4.5023,0.6099,-10.0997,2.7300,5.7059,6.9760,2.6835,-2.3879,4.3393,8.1068,7.8012,6.6543
812.5000,-7.6236,2.5003,6.2023,6.0831,3.5516,-5.6646,3.1516,3.7740,2.2492,-9.9878,3.7926,4.8927,6.1995,2.3461,-2.4343,3.9957,7.2539,7.9954,6.5950
816.4062,-5.2287,-0.9161,5.4120,4.0975,2.1216,-6.0025,-0.5329,1.8820,3.0461,-8.1465,4.5009,3.5536,4.2597,1.9237,-1.6981,3.3789,4.9400,7.2671,5.0807
820.3125,-0.0570,-2.6730,4.8569,1.7522,0.5845,-4.7203,-3.8655,-0.5030,3.4160,-3.9785,5.3417,2.7347,2.1733,1.8508,0.4931,3.3420,2.4812,6.2047,2.9049
824.2188,6.5858,-1.2220,4.8151,0.1700,-0.3358,-1.5662,-5.1375,-2.3606,3.9028,1.7858,6.5612,3.2814,1.0045,2.2365,3.9840,4.4787,1.0441,5.5991,1.2153
828.1250,11.9295,2.7018,5.2366,0.1059,-0.2697,2.6099,-3.3317,-2.8623,4.6816,6.9513,7.8697,5.2853,1.3046,2.7854,7.4526,6.7114,1.0337,6.0045,0.9383
832.0312,13.0421,6.5991,5.8127,1.5187,0.5999,5.9937,1.0756,-1.8664,5.3397,8.7845,8.5361,7.9259,2.7651,2.9669,8.8623,9.1891,1.9372,7.3514,2.2566
835.9375,8.5217,7.9292,6.1802,3.5895,1.6708,6.6880,6.1218,-0.0256,5.1429,5.5909,7.8577,9.8748,4.3756,2.3753,6.5967,10.6384,2.7427,8.9003,4.4862
839.8438,-0.4230,5.7943,6.1306,5.1917,2.3146,3.8402,9.2925,1.5886,3.6344,-2.0203,5.7142,10.0668,5.0592,1.0760,0.6412,10.0512,2.6822,9.6281,6.4612
843.7500,-10.2345,1.4398,5.6867,5.5123,2.2664,-1.7195,8.8732,2.1038,1.1259,-11.0787,2.8123,8.3665,4.3901,-0.3162,-6.9914,7.3417,1.8047,8.8387,7.1938
847.6562,-16.5893,-2.6785,5.0075,4.4318,1.7325,-7.7837,4.9019,1.3059,-1.3236,-17.5909,0.4025,5.6850,2.8871,-0.9427,-13.0116,3.5425,0.9660,6.6100,6.3876
851.5625,-16.4920,-4.5097,4.2134,2.4566,1.1499,-11.8502,-0.8598,-0.3332,-2.4935,-18.5638,-0.3959,3.4471,1.6431,-0.2474,-14.4719,0.3458,1.2079,3.7806,4.5001
855.4688,-9.7417,-3.5567,3.2947,0.3259,0.8017,-12.3145,-5.8948,-2.0215,-1.7797,-13.5310,0.7583,2.7432,1.5386,1.5869,-10.3491,-0.7959,2.9394,1.4885,2.3712
859.3750,1.0165,-0.8607,2.2018,-1.3832,0.6062,-9.0854,-8.2238,-3.1065,0.3828,-4.6889,3.2346,3.7171,2.6082,3.6449,-2.1368,0.5211,5.5097,0.5687,0.7258
863.2812,11.6327,1.9864,1.0481,-2.3895,0.2551,-3.3732,-7.2652,-3.3202,2.7733,4.3783,5.8182,5.5729,4.0325,4.7829,6.9212,3.4433,7.5174,1.1848,-0.1105
867.1875,18.3973,3.9591,0.2253,-2.5849,-0.4204,3.0413,-3.8575,-2.7186,4.1562,10.5536,7.4107,7.1528,4.7613,4.3339,13.4933,6.3910,7.6893,2.8721,-0.1694
871.0938,19.5393,5.0388,0.2622,-1.8838,-1.1845,8.5120,0.4017,-1.4771,4.0384,12.5130,7.5800,7.6542,4.2877,2.5410,15.7202,7.9814,5.7381,4.8759,0.3685
875.0000,15.5972,5.7906,1.4498,-0.2656,-1.4977,11.8566,3.9866,0.2177,2.8895,10.8643,6.6238,6.9990,2.9800,0.4006,13.7971,7.7508,2.5968,6.5021,1.2941
878.9062,8.6833,6.5700,3.4817,2.0026,-0.9469,12.3720,5.9690,2.0944,1.6983,7.2591,5.1801,5.6673,1.7294,-0.9983,9.3778,6.2389,-0.1509,7.2827,2.3072
882.8125,1.2458,7.0708,5.4256,4.2159,0.3282,9.8363,6.1033,3.6778,1.2173,3.2323,3.7298,4.2193,1.2133,-1.1895,4.3571,4.4574,-1.2609,6.9716,2.9206
886.7188,-4.9421,6.5732,6.1548,5.4195,1.5936,4.6716,4.6517,4.3483,1.4626,-0.4649,2.3710,2.9304,1.3820,-0.5943,-0.1060,3.1775,-0.5615,5.5363,2.5687
890.6250,-9.1417,4.6469,5.0398,4.9409,1.9746,-1.8940,2.2006,3.6563,1.8167,-3.7699,0.9832,1.8106,1.5896,-0.1392,-3.7620,2.5435,1.0648,3.2554,0.9817
894.5312,-11.4057,1.7045,2.4588,2.9330,1.1191,-8.0018,-0.4498,1.7063,1.6183,-6.7586,-0.4245,0.9176,1.2640,-0.4976,-6.7351,2.2200,2.4033,0.8323,-1.4121
898.4375,-12.0752,-1.0613,-0.2659,0.4832,-0.4215,-11.8202,-2.4264,-0.7124,0.7575,-9.1784,-1.5239,0.6050,0.5521,-1.5030,-8.8696,1.8587,2.7945,-0.6942,-3.4409
902.3438,-11.3744,-2.3332,-1.5527,-0.9148,-1.4304,-12.3873,-3.0572,-2.4438,-0.1873,-10.4061,-1.8157,1.4036,0.3735,-2.1771,-9.5446,1.4554,2.5500,-0.3693,-3.7049
906.2500,-9.2752,-1.4524,-0.4924,-0.2700,-0.7891,-10.0675,-2.2029,-2.6022,-0.3699,-9.7714,-0.9953,3.5675,1.7685,-1.3841,-8.0975,1.3155,2.6231,2.0786,-1.4397
910.1562,-5.6194,1.2018,2.5527,2.2033,1.7221,-6.2320,-0.3987,-1.1275,0.6727,-6.9505,0.7762,6.6467,4.9956,1.3201,-4.4755,1.7059,3.8002,5.8524,2.8205
914.0625,-0.4041,4.4518,6.0881,5.1017,5.1402,-2.3373,1.3867,1.1373,2.6329,-2.1791,2.9238,9.4897,9.0711,5.2252,0.4436,2.5414,6.0150,9.2731,7.2945
917.9688,5.8899,6.9670,8.3151,6.6230,7.7750,0.9272,2.3002,2.9291,4.5881,3.7442,4.7914,10.7846,12.1508,8.7214,5.1466,3.4024,8.2749,10.5672,9.8054
921.8750,12.0807,7.8818,8.1569,5.6522,8.1442,3.7649,2.1095,3.3064,5.5716,9.5639,5.9823,9.8257,12.5563,10.1340,8.2057,3.8753,9.2427,8.8509,8.9707
925.7812,16.3775,7.0614,5.8609,2.4451,5.8097,6.5869,1.2904,2.1623,5.1431,13.7411,6.4488,6.9829,9.7794,8.6325,8.9265,3.9038,8.0659,4.7095,5.0056
929.6875,16.9236,4.9773,2.8177,-1.5312,1.6141,9.1270,0.6130,0.1874,3.5740,14.7818,6.3030,3.5249,4.8087,4.6789,7.5154,3.8136,4.9010,-0.0338,-0.3637
933.5938,12.6935,2.3855,0.7257,-4.4818,-2.7897,10.2016,0.5380,-1.6491,1.5718,11.7871,5.5693,0.8883,-0.4149,-0.2203,4.7415,3.9543,0.8199,-3.2702,-4.8236
937.5000,4.3238,0.0193,0.6178,-5.3051,-5.7934,8.4726,0.8990,-2.7068,-0.2092,5.0652,4.1394,-0.1327,-4.0347,-4.2747,1.4205,4.2547,-2.7911,-3.7317,-6.6624
941.4062,-5.7031,-1.6143,2.3246,-4.1063,-6.5575,3.7160,1.1335,-2.9523,-1.5104,-3.6013,1.9885,0.2486,-5.1525,-6.2337,-1.8928,4.1103,-4.9279,-1.6266,-5.5254
945.3125,-13.8772,-2.3587,4.6531,-1.9361,-5.2438,-2.4459,0.8726,-2.7671,-2.4691,-11.4203,-0.5542,1.1006,-4.0603,-5.8494,-4.8580,2.7893,-5.3468,1.5691,-2.3678
949.2188,-17.2474,-2.4679,6.1235,-0.0089,-2.7312,-7.1171,0.3816,-2.5007,-3.3557,-15.7670,-2.7775,1.4791,-1.8131,-3.8071,-7.1246,0.1146,-4.4711,4.0009,1.2452
953.1250,-14.9610,-2.5451,5.7999,1.0384,-0.0808,-7.8182,0.4352,-2.1503,-4.2948,-15.5074,-3.9160,1.0558,0.4791,-1.2520,-8.2268,-3.0984,-2.9826,4.4507,3.9844
957.0312,-8.8057,-3.2842,3.7485,1.3820,1.9176,-4.1852,1.6638,-1.4126,-5.1760,-11.6427,-3.6403,0.2695,2.1756,0.7849,-7.7537,-5.2632,-1.4072,2.8985,5.2597
960.9375,-2.3085,-5.0600,0.9151,1.6734,2.9292,1.5843,3.8712,-0.0396,-5.7711,-6.7672,-2.3351,-0.0498,3.2063,1.7772,-5.6760,-4.8726,0.0622,0.3748,5.2108
964.8438,1.1628,-7.5817,-1.4376,2.4471,3.0104,5.9869,5.9093,1.8120,-5.9170,-3.5820,-0.9160,0.7164,3.8292,1.7772,-2.5503,-1.4777,1.4647,-1.7194,4.3620
968.7500,0.1779,-9.8802,-2.3782,3.7132,2.4354,6.4036,6.3067,3.5362,-5.6047,-3.3729,-0.2676,2.5554,4.3032,1.2137,0.6010,3.8530,2.8328,-2.3752,3.2583
972.6562,-4.1759,-10.7338,-1.6902,4.9853,1.5454,2.7465,4.2683,4.3950,-4.9313,-5.4332,-0.6800,4.8329,4.7014,0.5744,2.7027,8.9467,4.0129,-1.4026,2.2890
976.5625,-9.2222,-9.3395,0.1615,5.6610,0.6612,-2.5715,0.3407,3.9781,-3.9913,-7.7862,-1.6738,6.6779,4.9240,0.1491,3.0979,11.6149,4.6730,0.6414,1.6924
980.4688,-12.4537,-5.8221,2.3902,5.4475,0.0351,-6.3030,-3.7642,2.4814,-2.8147,-8.6642,-2.3271,7.4717,4.8308,-0.0494,1.8209,10.7909,4.4891,2.8831,1.6072
984.3750,-12.9362,-1.2336,4.3243,4.5404,-0.1873,-6.4843,-6.1063,0.6148,-1.3924,-7.6858,-1.8648,7.1490,4.3754,-0.1786,-0.4461,7.0582,3.3943,4.6188,2.0673
988.2812,-11.4879,2.9822,5.6767,3.4671,0.0104,-3.5452,-5.6042,-0.7925,0.2550,-5.9240,-0.1074,6.1724,3.6712,-0.3646,-2.6749,2.2919,1.7277,5.5878,2.9539
992.1875,-9.6745,5.7218,6.5344,2.7384,0.5271,0.2688,-2.5704,-1.2265,2.0312,-4.8913,2.4849,5.2363,2.9742,-0.5494,-3.9005,-1.3397,0.1728,5.9343,3.9921
996.0938,-8.4787,6.6803,7.1341,2.5520,1.1958,2.6194,1.5936,-0.7020,3.7648,-5.2599,5.1316,4.8893,2.5935,-0.4917,-3.5959,-2.4222,-0.5211,5.9507,4.8416
1000.0000,-7.6510,6.2653,7.6083,2.7248,1.8481,2.6326,5.2489,0.3418,5.2284,-6.2997,7.1394,5.2702,2.7552,0.0748,-1.9013,-0.8402,0.0907,5.8007,5.2430
1003.9062,-6.1521,5.0929,7.8762,2.8684,2.3581,1.2193,7.3127,1.3542,6.1493,-6.4437,8.1320,6.0718,3.4709,1.2365,0.3826,2.3879,1.8902,5.4074,5.1206
1007.8125,-3.2366,3.4823,7.7455,2.6771,2.6578,0.0837,7.5387,1.9854,6.2355,-4.5299,8.0346,6.7328,4.4893,2.7971,2.1031,5.7795,4.2185,4.5681,4.5850
1011.7188,0.7327,1.3391,7.1314,2.1454,2.7386,0.3127,6.2849,2.2237,5.2640,-0.7701,6.9509,6.7515,5.3915,4.3602,2.3221,8.1303,6.1987,3.2073,3.8585
1015.6250,4.3924,-1.5066,6.2182,1.5899,2.6534,1.6541,4.1238,2.3173,3.2388,3.2802,5.1056,5.9616,5.8065,5.5450,0.9142,8.9495,7.1909,1.5793,3.1923
1019.5312,6.3139,-4.8099,5.4217,1.4631,2.5104,2.9581,1.6482,2.5585,0.5347,5.7254,2.8899,4.6246,5.6222,6.1798,-1.1672,8.4558,7.1033,0.2517,2.8181
1023.4375,6.0331,-7.7031,5.1553,2.0641,2.4341,3.3061,-0.4838,3.0661,-2.1043,5.5787,0.8959,3.2854,5.0400,6.3346,-2.2440,7.2615,6.3583,-0.1644,2.9116
1027.3438,4.3869,-9.0092,5.5517,3.3108,2.4924,2.8508,-1.5207,3.6797,-3.7904,3.3786,-0.2026,2.4686,4.4189,6.1799,-0.8349,5.9905,5.5374,0.6106,3.5286
1031.2500,2.9152,-7.9204,6.3450,4.7186,2.6356,2.6851,-0.8570,4.0181,-3.8659,0.7825,0.0739,2.3973,4.0144,5.8021,3.3248,5.0314,4.9530,2.2926,4.5217
1035.1562,2.7836,-4.5987,7.0136,5.6223,2.7082,3.8732,1.5158,3.6745,-2.2276,-0.5298,1.7358,2.9047,3.8156,5.1428,8.8319,4.4840,4.4635,4.1306,5.5202
1039.0625,4.0189,-0.2680,7.1055,5.5373,2.5582,6.4514,4.7185,2.4641,0.6025,0.1299,4.2568,3.5914,3.6176,4.1246,13.1487,4.2345,3.6697,5.3109,6.0498
1042.9688,5.5857,3.3203,6.5238,4.4566,2.1832,9.2214,7.2369,0.5990,3.7134,2.1763,6.7899,4.1064,3.2743,2.8579,13.9410,4.0612,2.3466,5.4251,5.7778
1046.8750,6.2138,4.7707,5.5684,2.8929,1.8010,10.5317,7.7231,-1.3166,6.2157,4.3053,8.5530,4.3468,2.9093,1.7323,10.4653,3.7152,0.7663,4.6929,4.7413
1050.7812,5.3701,3.7788,4.7024,1.6183,1.7625,9.4812,5.8738,-2.5020,7.5905,5.4412,9.1569,4.4317,2.8758,1.2691,4.1236,2.9805,-0.3713,3.7754,3.3809
1054.6875,3.7042,1.3011,4.2128,1.2375,2.3376,6.6576,2.7414,-2.3471,7.8050,5.4340,8.7092,4.4856,3.4561,1.7996,-2.2279,1.7411,-0.3919,3.2985,2.3115
1058.5938,2.6807,-0.9365,4.0186,1.8512,3.5074,3.8605,0.1582,-0.7215,7.1882,5.0939,7.6801,4.4237,4.5235,3.1926,-5.8484,0.0514,0.8221,3.4165,1.9496
1062.5000,3.6438,-1.3301,3.7706,3.0167,4.9123,2.9842,-0.4167,1.9265,6.1964,5.5981,6.6470,3.9356,5.4617,4.8432,-5.6160,-1.8361,2.6191,3.7244,2.2401
1066.4062,6.8919,0.7762,3.1657,4.0268,6.0085,4.8059,1.1405,4.7460,5.2187,7.6645,6.0476,2.7101,5.4615,5.9619,-2.5534,-3.5391,3.8702,3.5805,2.6789
1070.3125,11.3006,4.7439,2.2285,4.3284,6.3388,8.4668,3.5400,6.8539,4.4824,10.9848,6.0133,0.7358,4.0212,5.9834,0.9051,-4.7053,3.5998,2.6016,2.6254
1074.2188,14.7146,8.9454,1.3365,3.8159,5.7518,11.9485,4.9713,7.7046,4.0261,14.2309,6.2944,-1.5639,1.3067,4.8372,2.3896,-5.1855,1.5494,0.9681,1.7040
1078.1250,14.9300,11.5636,0.9638,2.8380,4.4477,13.2114,4.3629,7.2780,3.6938,15.6447,6.3045,-3.4941,-1.8891,2.9267,0.8721,-5.1003,-1.6750,-0.6782,0.0394
1082.0312,10.8122,11.4879,1.3392,1.9517,2.8589,11.2862,2.1234,6.0155,3.1657,13.9298,5.3311,-4.4562,-4.5542,0.8798,-2.9824,-4.7347,-4.9321,-1.6559,-1.8023
1085.9375,3.0181,8.8493,2.2865,1.6121,1.4733,6.7058,-0.1648,4.5743,2.0845,9.0025,2.9111,-4.2674,-5.9386,-0.7249,-7.4594,-4.3094,-7.0986,-1.6672,-3.0932
1089.8438,-6.0571,4.9115,3.3675,1.9885,0.7084,1.1075,-0.8812,3.5467,0.2914,2.2011,-0.7656,-3.2151,-5.7901,-1.4898,-10.8713,-3.7855,-7.4986,-0.9211,-3.2522
1093.7500,-13.1663,1.3639,4.2047,2.9693,0.8523,-3.6782,0.4747,3.2666,-1.9389,-4.2120,-4.6849,-1.8252,-4.2550,-1.1814,-12.3344,-2.8625,-6.0190,0.0982,-2.0307
1097.6562,-15.5942,-0.6012,4.7130,4.2773,2.0131,-6.4931,2.9203,3.7439,-3.8536,-8.0613,-7.2930,-0.5352,-1.6255,0.2962,-11.8520,-1.2065,-2.9762,1.0027,0.4491
1101.5625,-12.4038,-0.9025,5.0471,5.5734,4.0302,-7.2167,4.6704,4.7010,-4.4967,-8.2797,-7.2092,0.4944,1.7896,2.8200,-9.8637,1.2262,1.0558,1.7099,3.7316
1105.4688,-4.9101,-0.5030,5.3164,6.5019,6.3949,-6.5191,4.3685,5.6692,-3.2279,-5.3906,-4.0247,1.3284,5.5680,5.8980,-6.7557,4.0029,5.3207,2.3520,7.0908
1109.3750,3.9024,-0.6958,5.3355,6.7300,8.3068,-5.2590,2.0047,6.1275,-0.2017,-1.1779,1.3029,2.0660,9.0138,8.6351,-2.7448,6.3344,8.9103,3.0069,9.6529
1113.2812,10.7354,-2.1919,4.6717,6.0513,8.9417,-3.9602,-1.1034,5.6724,3.5168,2.2498,6.7696,2.7054,11.2118,9.9788,1.8458,7.4677,10.9057,3.5196,10.6422
1117.1875,13.3815,-4.6113,3.0147,4.5339,7.8516,-2.7013,-3.2245,4.1796,6.3393,3.4319,10.2411,3.1728,11.4087,9.2056,6.2584,7.1163,10.7009,3.5855,9.7204
1121.0938,11.4399,-6.7362,0.5961,2.5910,5.2611,-1.4408,-3.3681,1.8834,6.8782,2.0076,10.4588,3.4521,9.5141,6.3742,9.3096,5.6458,8.3657,3.0266,7.2444
1125.0000,6.0632,-7.3714,-1.7123,0.8495,2.0272,-0.4687,-1.8964,-0.6945,4.6174,-1.5144,7.5597,3.6522,6.3261,2.4138,9.8527,3.8815,4.7747,2.0077,4.2174
1128.9062,-0.9330,-6.2224,-2.7991,-0.1733,-0.7773,-0.5612,-0.2141,-2.9569,0.1651,-6.3405,2.8526,3.9143,3.2160,-1.2830,7.4359,2.6585,1.3184,0.9805,1.8545
1132.8125,-7.9266,-4.1584,-2.0136,-0.3953,-2.4306,-2.6056,0.2079,-4.4825,-5.0336,-11.8043,-1.9415,4.2342,1.3950,-3.5615,2.7138,2.4019,-0.7165,0.3735,0.9545
1136.7188,-13.8196,-2.6440,0.3096,-0.2503,-2.9188,-6.8739,-1.2014,-5.1693,-9.3440,-17.3222,-5.4754,4.3851,1.2292,-4.0760,-2.7027,2.9930,-0.7535,0.2707,1.4642
1140.6250,-17.8783,-2.7193,2.9144,-0.4152,-2.8419,-12.4637,-3.7726,-5.1910,-11.6014,-22.0958,-7.1637,4.0630,2.0826,-3.3736,-6.9246,3.9631,0.8464,0.3520,2.5485
1144.5312,-19.5438,-4.2634,4.3176,-1.3263,-2.9329,-17.4200,-6.0466,-4.8087,-11.4920,-25.0541,-7.0953,3.1753,2.8120,-2.4577,-8.6386,4.8292,3.0613,0.1636,3.1610
1148.4375,-18.6251,-6.1003,3.7205,-2.8155,-3.5334,-19.6436,-6.6708,-4.1835,-9.5548,-25.3422,-5.7252,2.0338,2.5679,-2.1445,-7.6818,5.3194,4.7910,-0.4859,2.7469
1152.3438,-15.8131,-6.9136,1.5413,-4.1467,-4.4008,-18.1196,-5.1658,-3.3260,-6.8985,-23.1219,-3.6596,1.2422,1.3311,-2.6486,-5.0478,5.3657,5.3652,-1.3203,1.5904
1156.2500,-12.9786,-6.3289,-0.8175,-4.4712,-4.9847,-13.6833,-2.1402,-2.2082,-4.7964,-20.0184,-1.6337,1.2998,-0.1873,-3.6474,-2.3535,4.9521,4.6957,-1.7674,0.5505
1160.1562,-12.7145,-5.3650,-1.8488,-3.4223,-4.9651,-8.7484,1.0792,-0.9383,-4.2987,-18.6499,-0.5232,2.1809,-1.1820,-4.7221,-1.0683,4.0182,3.0707,-1.4009,0.3607
1164.0625,-17.1260,-5.8745,-0.9207,-1.4551,-4.6482,-6.0768,3.1049,0.1508,-5.9376,-21.3139,-1.1733,3.2167,-1.4348,-5.8180,-1.9079,2.5350,0.8277,-0.3364,0.9923
1167.9688,-26.5537,-9.3059,1.2730,0.3037,-4.9109,-7.3201,3.0530,0.5781,-9.5790,-28.6119,-4.0221,3.4084,-1.5325,-7.3787,-4.6762,0.6748,-1.8322,0.7157,1.5468
1171.8750,-39.1331,-15.6171,3.0818,0.6157,-6.7029,-12.2344,0.7890,-0.0831,-14.4663,-38.9646,-8.7553,1.9987,-2.4710,-10.0607,-8.5785,-1.1279,-4.7939,0.7972,0.7772
1175.7812,-51.6016,-23.0872,2.8609,-1.2308,-10.4164,-19.0173,-3.1292,-1.9954,-19.4699,-49.4140,-14.2947,-1.0660,-4.9371,-14.2251,-12.7674,-2.3606,-7.8615,-0.7625,-2.1015
1179.6875,-60.8830,-29.1703,-0.0637,-5.0581,-15.5200,-25.4451,-7.6672,-4.9461,-23.4691,-57.1941,-19.2151,-5.0698,-8.7735,-19.5419,-16.7670,-2.7755,-10.6637,-3.9427,-6.8446
1183.5938,-65.4047,-31.8405,-4.9877,-9.8705,-20.6791,-29.9841,-11.5689,-8.3655,-25.7090,-60.9974,-22.3613,-8.8753,-12.9706,-24.9446,-20.5121,-2.6248,-12.7268,-7.9776,-12.2079
1187.5000,-65.3253,-30.5827,-10.1781,-14.2620,-24.2885,-32.1717,-13.6312,-11.4466,-25.9737,-61.1266,-23.2816,-11.4398,-16.1550,-28.9629,-24.0138,-2.5527,-13.6508,-11.6484,-16.5330
1191.4062,-61.7142,-26.4690,-13.7331,-16.9311,-25.1297,-32.2090,-13.0343,-13.3331,-24.5235,-58.6115,-22.2345,-12.1964,-17.2424,-30.2710,-26.9415,-3.1599,-13.2587,-13.7514,-18.5099
1195.3125,-55.5414,-21.4008,-14.4546,-17.0969,-22.8524,-30.3357,-9.6907,-13.3645,-21.8934,-54.1803,-19.8625,-11.1519,-15.8927,-28.2237,-28.5093,-4.5361,-11.6443,-13.5388,-17.6979
1199.2188,-47.4109,-17.1055,-12.3068,-14.7322,-18.1114,-26.6639,-4.4581,-11.3534,-18.7178,-48.0286,-16.8512,-8.7737,-12.5978,-23.1923,-27.8702,-6.1280,-9.1552,-11.0009,-14.5980
1203.1250,-38.2171,-14.5244,-8.3196,-10.6013,-12.3613,-21.6338,0.9787,-7.8025,-15.6765,-40.5596,-13.8323,-5.8245,-8.4699,-16.5792,-24.8349,-7.0919,-6.3767,-6.9292,-10.3618
1207.0312,-29.9582,-13.8336,-4.0878,-6.0942,-7.4037,-16.5802,4.6389,-3.9002,-13.5022,-33.3219,-11.4917,-3.2220,-4.8844,-10.4656,-20.4127,-6.9093,-4.1050,-2.7331,-6.3626
1210.9375,-25.6254,-14.8451,-1.1471,-2.8326,-4.8159,-13.6589,5.0291,-1.1784,-12.8977,-29.0481,-10.6032,-1.8672,-3.0867,-6.9343,-16.6679,-5.8195,-3.2109,-0.0082,-3.8058
1214.8438,-27.7739,-17.3225,-0.4687,-2.0935,-5.4051,-14.8378,1.8213,-0.8873,-14.2753,-30.3598,-11.7539,-2.3584,-3.7979,-7.2564,-15.7790,-4.7242,-4.3192,0.0648,-3.4307
1218.7500,-36.5636,-20.9409,-2.1885,-4.2412,-8.8648,-20.4899,-3.9442,-3.3674,-17.4263,-37.8488,-14.8523,-4.6518,-6.8864,-11.2683,-18.7474,-4.5954,-7.3958,-2.7255,-5.2944
1222.6562,-48.7665,-25.0153,-5.5964,-8.4623,-13.8107,-28.6300,-10.2759,-7.7868,-21.3717,-48.9636,-18.8183,-7.8956,-11.2614,-17.2893,-24.5505,-5.7966,-11.5099,-7.4112,-8.6886
1226.5625,-58.7944,-28.3685,-9.3740,-13.0308,-18.2635,-35.5551,-15.0824,-12.4630,-24.6075,-58.7514,-21.8480,-10.6736,-15.1620,-22.7298,-30.3727,-7.8010,-15.0412,-12.1787,-12.2970
1230.4688,-61.4249,-29.6155,-12.0377,-16.0552,-20.4349,-37.6976,-17.0280,-15.6471,-25.7117,-62.2465,-22.2614,-11.6584,-16.8510,-25.1883,-32.9273,-9.5193,-16.3618,-15.1672,-14.6502
1234.3750,-54.5982,-27.7885,-12.4756,-16.3497,-19.4678,-33.5792,-15.9708,-16.3431,-24.0045,-57.0703,-19.4603,-10.3491,-15.4370,-23.5084,-30.1729,-10.0016,-14.6749,-15.3437,-14.7443
1238.2812,-40.4525,-22.9116,-10.3843,-13.9422,-15.7474,-24.5870,-12.8142,-14.6867,-19.8683,-44.5667,-14.3380,-7.4136,-11.3661,-18.2321,-22.4239,-9.0210,-10.5044,-12.9560,-12.5127
1242.1875,-23.8972,-16.1185,-6.3943,-9.9259,-10.6060,-14.0484,-8.9291,-11.6822,-14.5168,-28.7706,-8.7986,-4.3450,-6.2348,-11.1958,-12.1833,-7.1427,-5.4821,-9.2849,-8.8475
1246.0938,-9.6993,-9.1933,-1.7916,-5.7648,-5.5960,-5.2411,-5.5115,-8.5119,-9.3585,-13.9902,-4.6509,-2.5857,-1.9663,-4.5213,-2.8007,-5.2734,-1.5053,-5.8438,-5.1113
1250.0000,-0.0498,-3.7936,2.0454,-2.5107,-1.7642,0.3184,-3.2042,-5.8994,-5.3535,-2.6750,-2.6047,-2.6655,0.1858,0.3863,3.2223,-4.0575,0.2395,-3.5386,-2.4167
1253.9062,5.8445,-0.8007,4.2056,-0.4225,0.6572,3.2183,-2.0861,-3.9289,-2.7453,5.0894,-2.0410,-3.9272,0.2008,3.2562,5.2809,-3.5643,-0.2089,-2.3205,-1.1183
1257.8125,10.1141,-0.1316,4.5080,0.8270,2.0202,5.0575,-1.8967,-2.3596,-1.2665,10.4003,-1.6844,-5.0365,-0.9152,4.6242,4.5270,-3.4510,-1.8247,-1.5230,-0.8259
1261.7188,13.9606,-1.0296,3.3712,1.5999,2.7412,6.8594,-2.2688,-1.1041,-0.5872,13.8383,-0.6616,-4.9275,-1.9279,5.1098,2.7862,-3.4022,-3.3725,-0.5888,-0.8792
1265.6250,16.5524,-2.5728,1.4453,1.8705,2.9161,8.2174,-2.8287,-0.4398,-0.6300,14.6960,0.8321,-3.5310,-2.1987,4.8859,1.3379,-3.4451,-4.1664,0.3762,-0.9003
1269.5312,15.8915,-4.0669,-0.7008,1.2730,2.3564,7.7710,-3.1899,-0.7696,-1.5207,11.7448,1.7397,-1.7775,-1.9708,3.7374,0.3644,-3.8673,-4.3063,0.6482,-1.0017
1273.4375,10.9340,-5.1274,-2.6336,-0.4303,0.9881,4.5927,-2.9645,-2.1340,-3.2349,4.8991,1.0620,-0.8767,-1.9587,1.6207,-0.6623,-4.8094,-4.2966,-0.4896,-1.5109
1277.3438,3.3267,-5.4858,-3.8914,-2.8530,-0.7342,-0.5862,-1.8739,-3.9046,-5.2366,-3.5741,-1.1690,-1.3773,-2.5805,-0.7648,-2.0517,-5.8893,-4.3994,-2.9994,-2.4556
1281.2500,-2.5875,-4.7159,-3.8465,-4.8960,-1.7647,-5.2327,0.0911,-4.9645,-6.4064,-9.3364,-3.5519,-2.6579,-3.4171,-1.9154,-3.1622,-6.2094,-4.2417,-5.7810,-3.2469
1285.1562,-1.6193,-2.1068,-1.8303,-5.2034,-0.8663,-6.1006,2.6002,-4.3089,-5.3612,-7.7374,-3.8631,-3.1980,-3.3042,-0.1280,-2.4239,-4.8128,-2.9820,-7.0752,-2.8532
1289.0625,9.6512,3.1787,2.4684,-2.8984,2.7524,-0.8870,5.1030,-1.6616,-1.0248,3.9377,-0.1718,-1.4551,-1.0102,5.5559,1.8547,-1.3061,0.0877,-5.3675,-0.3858
1292.9688,30.9837,11.6688,8.5905,1.8805,8.9540,10.5022,7.0970,2.3295,6.8279,24.9800,8.1116,3.2056,3.9437,14.6585,10.3856,3.7782,4.9416,-0.2506,4.2927
1296.8750,58.2502,23.0340,15.2265,7.9915,16.6296,25.7185,8.3737,6.4645,17.2931,51.2458,19.7904,10.0790,10.8467,25.2699,22.1712,9.1423,10.6452,7.2685,10.3503
1300.7812,84.8270,35.7090,20.6338,13.8342,24.1013,40.7949,9.0746,9.6739,28.4429,76.5083,32.2130,17.3968,18.0036,34.7638,34.5840,13.3219,15.7273,15.1777,16.2989
1304.6875,103.8426,46.9870,23.3729,18.0723,29.7244,51.5650,9.5183,11.5471,37.7935,94.4826,42.1758,23.1000,23.4422,40.8222,44.2447,15.3572,18.8584,21.3260,20.6351
1308.5938,110.3655,53.7385,22.9372,20.1074,32.3859,55.0812,9.9274,12.3742,43.0159,100.7489,47.0076,25.6649,25.7198,42.2359,48.2884,15.1456,19.4248,24.2670,22.4202
1312.5000,102.8820,53.5956,19.8912,20.0855,31.7257,50.5670,10.2478,12.7252,42.6934,94.0307,45.4578,24.6016,24.4291,39.1409,45.4512,13.3161,17.6949,23.6835,21.5123
1316.4062,83.7262,46.1097,15.4499,18.5364,28.0867,39.6444,10.1736,12.9068,36.8681,76.5371,38.1132,20.4820,20.2215,32.7036,36.5276,10.7686,14.5497,20.2811,18.4217
1320.3125,58.3388,33.2457,10.7982,15.9543,22.3113,25.7566,9.3375,12.6895,27.1231,53.2571,27.2032,14.5965,14.4257,24.5298,24.0389,8.1974,10.9910,15.3175,13.9797
1324.2188,33.4561,18.8068,6.6003,12.5920,15.4871,12.9191,7.5228,11.4756,16.0794,30.3084,15.8165,8.4444,8.4896,16.1188,11.2789,5.8704,7.7111,10.0586,9.0418
1328.1250,14.7239,6.9240,2.9788,8.5424,8.6946,4.2065,4.7748,8.7619,6.4521,12.8084,6.7731,3.2504,3.4877,8.5475,1.1423,3.7210,4.9145,5.3966,4.3249
1332.0312,4.6681,0.3152,-0.1228,3.9758,2.7840,0.6200,1.3939,4.5759,0.0646,3.1101,1.6004,-0.3587,-0.1377,2.3997,-4.7871,1.6140,2.4199,1.7204,0.3405
1335.9375,2.0444,-0.7724,-2.5566,-0.6796,-1.7622,0.9294,-2.1195,-0.3887,-2.6975,0.2774,0.1021,-2.4330,-2.5380,-2.1405,-6.5334,-0.4343,-0.0592,-0.9939,-2.6420
1339.8438,3.0385,1.6469,-3.9133,-4.7453,-4.8202,2.6392,-5.1180,-4.9923,-2.7265,1.1431,0.7601,-3.5086,-4.1641,-5.1192,-5.3405,-2.2117,-2.6044,-2.9719,-4.6062
1343.7500,3.7485,4.6330,-3.8467,-7.4847,-6.4620,3.5621,-6.8838,-8.0841,-1.4579,2.3964,1.7600,-4.2106,-5.3590,-6.6349,-2.8486,-3.4305,-4.9005,-4.4139,-5.7152
1347.6562,2.5149,5.9852,-2.5022,-8.3690,-6.7459,3.0551,-6.8044,-8.9300,-0.0231,2.4698,2.0424,-4.8336,-6.0523,-6.7179,-0.2823,-3.8915,-6.2641,-5.3463,-6.1346
1351.5625,0.6523,5.2705,-0.6537,-7.2897,-5.6243,2.1418,-4.6578,-7.4651,1.2094,2.0814,1.7539,-5.1396,-5.7480,-5.3282,1.9484,-3.5708,-5.9160,-5.6077,-5.8469
1355.4688,1.1272,3.6909,0.6397,-4.6263,-3.0640,2.4781,-0.8730,-4.3072,2.5050,3.1739,1.8625,-4.5233,-3.8535,-2.4947,4.0985,-2.5897,-3.4054,-4.9734,-4.6134
1359.3750,6.1068,3.0075,0.6754,-1.1428,0.6958,4.9291,3.4503,-0.5438,4.2549,7.0881,3.2632,-2.4794,-0.1787,1.4818,6.5855,-1.1181,1.0194,-3.3476,-2.1723
1363.2812,15.0860,4.2995,-0.3912,2.2605,4.9715,8.8017,6.8922,2.6450,6.5242,13.3138,6.0369,0.9141,4.7132,5.9161,9.5089,0.6966,6.3279,-0.9069,1.4262
1367.1875,24.9004,7.3362,-1.5677,4.8567,8.7523,12.2861,8.3297,4.4167,8.9769,19.6910,9.3758,4.8352,9.5815,9.8582,12.4882,2.7209,11.0332,1.9006,5.5999
1371.0938,31.5929,10.8552,-1.6076,6.3437,11.1135,13.7490,7.4885,4.5907,11.1539,23.8345,12.1736,8.0388,13.0346,12.4429,14.8624,4.7670,13.8253,4.5106,9.3459
1375.0000,32.8119,13.4194,0.1942,6.9123,11.6911,12.8831,5.0829,3.7037,12.7983,24.6682,13.7805,9.5026,14.2317,13.2905,16.0456,6.5442,14.1940,6.4615,11.6853
1378.9062,29.1017,14.2193,3.4997,7.0764,10.8882,10.8440,2.4209,2.7255,13.9258,22.9468,14.3334,9.0049,13.3296,12.7030,15.7801,7.7065,12.6842,7.5461,12.1779
1382.8125,23.3058,13.3480,7.0453,7.3380,9.6379,9.3072,0.6998,2.5453,14.6055,20.4858,14.4422,7.2583,11.3755,11.4979,14.1700,8.0053,10.6061,7.8154,11.1574
1386.7188,18.6618,11.5082,9.3095,7.8698,8.8430,9.2119,0.4168,3.4926,14.6985,18.8148,14.5387,5.4935,9.6927,10.5561,11.5678,7.4642,9.3350,7.4600,9.5032
1390.6250,16.9824,9.4795,9.3276,8.4095,8.8512,10.1696,1.2385,5.1713,13.8462,18.3187,14.4510,4.7397,9.1294,10.3534,8.4661,6.4490,9.5895,6.6690,8.0860
1394.5312,18.0635,7.7210,7.1792,8.4436,9.3048,10.9462,2.3523,6.7094,11.7629,18.4140,13.5555,5.2413,9.6325,10.7637,5.4562,5.5452,11.0937,5.5639,7.2583
1398.4375,20.4163,6.2754,3.9007,7.5695,9.4483,10.5542,3.0108,7.2695,8.5854,18.3906,11.3639,6.3630,10.3887,11.2344,3.1737,5.2778,12.8032,4.2284,6.7337
1402.3438,22.4852,4.8937,0.9223,5.8018,8.6646,9.0275,2.8975,6.5041,4.9424,18.0515,8.0411,7.0239,10.4128,11.1901,2.1265,5.8246,13.5408,2.7753,5.9211
1406.2500,23.3734,3.2260,-0.6230,3.6198,6.8696,7.2667,2.1325,4.6865,1.6314,17.5841,4.4184,6.3833,9.1889,10.3791,2.4234,6.9130,12.6637,1.3785,4.4542
1410.1562,22.7493,1.0085,-0.3540,1.7234,4.5247,6.1547,1.0329,2.4846,-0.8585,16.9038,1.4924,4.3636,6.9715,8.9529,3.5966,7.9869,10.3936,0.2392,2.5284
1414.0625,20.3977,-1.7319,1.3185,0.6609,2.3110,5.7567,-0.1036,0.5756,-2.5715,15.2665,-0.1758,1.7152,4.5989,7.2774,4.7364,8.5566,7.6592,-0.4795,0.8062
1417.9688,16.0968,-4.4842,3.5058,0.5680,0.7331,5.3222,-1.0237,-0.6289,-3.8445,11.7200,-0.6847,-0.3918,2.9833,5.6594,4.9628,8.5029,5.5787,-0.7000,-0.0274
1421.8750,10.0285,-6.2296,5.2948,1.1696,-0.0769,4.0836,-1.4216,-1.0130,-4.7976,6.1430,-0.5047,-1.0022,2.6126,4.2006,3.9728,8.1211,4.8833,-0.4398,0.2673
1425.7812,3.2474,-5.7796,6.1150,2.0091,-0.2749,2.1189,-0.9356,-0.6203,-5.0320,-0.0677,0.0141,0.1111,3.3404,2.8528,2.2674,7.8628,5.5747,0.1938,1.3220
1429.6875,-2.4639,-2.4686,5.8881,2.7267,-0.0804,0.4573,0.6314,0.4606,-3.8859,-4.4826,0.8714,2.3188,4.5325,1.5801,0.8330,7.9547,6.9589,1.0030,2.3993
1433.5938,-5.5232,3.1482,4.9514,3.2053,0.3764,0.2387,2.9960,2.0732,-1.1373,-5.2045,2.1764,4.4411,5.4315,0.4620,0.4427,8.1796,8.0086,1.7081,2.8538
1437.5000,-5.6646,9.1254,3.8331,3.5264,1.0329,1.5879,5.2922,3.8933,2.3995,-2.4378,3.6848,5.3274,5.5181,-0.3493,1.0542,8.0015,7.8668,2.0127,2.4981
1441.4062,-4.3142,12.8178,2.9979,3.8177,1.7755,3.1836,6.4064,5.4213,4.9649,1.2196,4.6051,4.4216,4.7043,-0.7643,1.7656,6.9662,6.2584,1.7422,1.6555
1445.3125,-3.7746,12.2089,2.6719,4.1312,2.3815,3.0113,5.6413,6.1662,4.7497,2.2005,3.9673,2.0435,3.3130,-0.8484,1.4060,5.0921,3.6275,0.9948,0.9076
1449.2188,-5.6932,7.1327,2.8146,4.4283,2.6126,-0.1669,3.2807,5.9331,1.0841,-1.7370,1.3595,-0.7508,1.8983,-0.7795,-0.6264,2.9485,0.9365,0.1858,0.7362
1453.1250,-9.9159,-0.4350,3.2333,4.6467,2.3900,-5.7233,0.5964,4.9914,-4.9002,-9.9251,-2.5346,-2.6624,1.0043,-0.7049,-3.8692,1.3391,-0.7863,-0.1001,1.2891
1457.0312,-14.6004,-7.3189,3.7596,4.7649,1.8922,-11.3429,-0.8245,3.9510,-10.6711,-19.0618,-6.0909,-2.7556,0.9554,-0.6213,-7.0056,0.7975,-0.9387,0.5931,2.3804
1460.9375,-17.5297,-10.8225,4.3733,4.8083,1.4684,-14.4278,-0.0626,3.3902,-13.5907,-25.1976,-7.5945,-0.8761,1.7482,-0.3855,-8.6431,1.2558,0.3709,2.3180,3.6651
1464.8438,-17.6541,-10.1236,5.1878,4.8110,1.4140,-13.7643,2.4850,3.4888,-12.3174,-26.0779,-6.2497,2.3240,3.0809,0.1475,-8.1334,2.1303,2.4025,4.6616,4.8440
1468.7500,-15.7369,-6.5240,6.3048,4.7885,1.7721,-10.2758,5.2673,3.9376,-7.4544,-22.2875,-2.6661,5.7484,4.5027,0.9665,-5.9003,2.7635,4.1866,6.9579,5.7698
1472.6562,-13.6817,-2.4485,7.6430,4.7495,2.3103,-6.3542,6.5096,4.1951,-1.0933,-16.5561,1.5085,8.3882,5.6091,1.8477,-3.1175,2.8931,5.0236,8.6421,6.4238
1476.5625,-13.1219,0.0882,8.8723,4.7160,2.6814,-4.2804,5.3402,3.8959,4.3731,-11.8883,4.5445,9.7253,6.1823,2.4426,-1.0218,2.7981,4.7903,9.5014,6.8159
1480.4688,-14.3506,0.5245,9.5227,4.7060,2.6408,-4.8510,2.3914,3.1015,7.3834,-9.8919,5.5298,9.8075,6.2056,2.4453,-0.3399,3.0126,3.8866,9.6591,6.8921
1484.3750,-16.3100,-0.2942,9.2130,4.6700,2.1631,-7.0953,-0.5243,2.2099,7.6595,-10.3230,4.6646,9.0156,5.7656,1.7305,-1.1263,3.8311,2.8862,9.3309,6.5121
1488.2812,-17.4975,-1.0451,7.8614,4.4467,1.3959,-9.1295,-1.4700,1.6184,5.9011,-11.8454,2.8780,7.7323,4.9363,0.3942,-2.9610,4.9924,2.1456,8.5784,5.5150
1492.1875,-16.9892,-0.9479,5.7450,3.8158,0.5254,-9.4262,0.4728,1.4228,3.1394,-13.1582,1.1474,6.1503,3.7451,-1.2975,-5.2293,5.7987,1.6347,7.2795,3.8428
1496.0938,-14.8452,-0.1407,3.3766,2.6548,-0.3237,-7.6218,4.6496,1.3948,0.2557,-13.6089,0.0142,4.3177,2.2470,-2.9981,-7.2768,5.5939,1.0787,5.3463,1.6595
1500.0000,-11.7831,0.7221,1.2786,1.1003,-1.0904,-4.4702,9.1611,1.2312,-2.1386,-13.0735,-0.4767,2.3197,0.6251,-4.3707,-8.4686,4.2498,0.2660,2.9920,-0.6167
1503.9062,-8.6104,1.1568,-0.2144,-0.4363,-1.7262,-1.2120,11.8420,0.8408,-3.6322,-11.5753,-0.5534,0.3982,-0.8012,-5.1754,-8.3285,2.2951,-0.7354,0.7789,-2.4241
1507.8125,-5.9624,1.1746,-1.0329,-1.4656,-2.1818,1.0662,11.3240,0.4053,-4.0365,-9.2226,-0.5101,-1.1181,-1.7124,-5.3542,-6.8292,0.5837,-1.6195,-0.6566,-3.2968
1511.7188,-4.4273,1.0039,-1.3238,-1.7332,-2.4649,1.7138,7.6380,0.1613,-3.5590,-6.5349,-0.6649,-2.0160,-1.9872,-5.0793,-4.6409,-0.2535,-2.0915,-1.0300,-3.1211
1515.6250,-4.6590,0.5681,-1.3297,-1.4292,-2.6999,0.5071,2.1179,0.1079,-2.8962,-4.6559,-1.3780,-2.3451,-1.7993,-4.6992,-3.0168,-0.1742,-2.1019,-0.6466,-2.2414
1519.5312,-7.0722,-0.6822,-1.2588,-1.1043,-3.0863,-2.3624,-3.2577,-0.0681,-2.9715,-4.9215,-2.9269,-2.3568,-1.5000,-4.5549,-3.1765,0.3521,-1.8582,-0.2190,-1.3039
1523.4375,-11.2232,-3.3011,-1.1788,-1.2989,-3.7296,-6.1741,-6.7197,-0.7323,-4.3357,-7.8520,-5.2144,-2.2560,-1.3376,-4.7377,-5.4702,0.7883,-1.6012,-0.3450,-0.8800
1527.3438,-15.4884,-7.0827,-0.9574,-2.1117,-4.4578,-9.6363,-7.3727,-1.8911,-6.6230,-12.3305,-7.5454,-1.9679,-1.2182,-4.9507,-8.9051,0.9888,-1.3410,-1.0134,-1.0832
1531.2500,-17.6163,-10.7057,-0.2828,-3.0221,-4.7994,-11.2200,-5.4283,-2.9835,-8.5552,-15.8302,-8.7818,-1.1362,-0.7210,-4.6203,-11.4968,1.3158,-0.7980,-1.5312,-1.4464
1535.1562,-16.0569,-12.2575,1.1981,-3.1379,-4.2153,-9.8912,-1.9728,-3.1169,-8.6511,-15.8367,-7.9374,0.5976,0.5924,-3.2520,-11.3746,2.3171,0.3647,-0.9749,-1.1886
1539.0625,-11.1908,-10.4173,3.6414,-1.7558,-2.4790,-5.8298,1.5839,-1.6525,-6.2454,-11.6112,-4.8785,3.2197,2.7631,-0.8334,-7.9838,4.2049,2.1785,1.1194,0.2586
1542.9688,-5.4259,-5.4821,6.7732,1.1090,0.0536,-0.5581,4.1161,1.2498,-2.0978,-4.9823,-0.6058,6.1668,5.2278,2.0033,-2.5626,6.5349,4.1733,4.3212,2.7999
1546.8750,-1.8476,0.5683,9.8379,4.5840,2.5115,3.7613,5.1771,4.5414,1.9107,0.5692,3.1804,8.5217,7.0192,4.2253,2.4955,8.3416,5.5468,7.4615,5.6267
1550.7812,-2.2385,5.1133,11.8397,7.3163,3.9316,5.4831,5.0124,6.7716,3.8661,2.0281,5.0192,9.4858,7.2980,4.9509,5.0227,8.6629,5.6258,9.2992,7.6415
1554.6875,-5.8974,6.3672,12.0156,8.1652,3.7925,4.3141,4.2241,6.8783,2.9668,-1.2945,4.5033,8.8160,5.8832,3.9719,4.2893,7.1014,4.3072,9.2471,8.1009
1558.5938,-10.2186,4.2785,10.2830,6.8059,2.3168,1.2453,3.3150,4.7889,-0.0740,-7.4971,2.3868,6.9216,3.4115,1.8898,1.2423,4.0490,2.1524,7.6605,7.0484
1562.5000,-12.6932,0.2694,7.3608,3.8958,0.3304,-2.3241,2.4082,1.4593,-3.6424,-13.5908,-0.0864,4.5579,0.9854,-0.2524,-2.3418,0.4397,0.0421,5.5031,5.2397
1566.4062,-12.8470,-3.8995,4.4333,0.7221,-1.2341,-5.5435,1.3186,-1.6525,-6.3759,-17.5977,-2.1144,2.3498,-0.4820,-1.6124,-5.1237,-2.7743,-1.3828,3.6625,3.6144
1570.3125,-12.5745,-7.2212,2.5346,-1.4445,-1.8630,-8.3723,-0.1044,-3.3354,-7.9775,-19.6247,-3.7953,0.5017,-0.7942,-2.0335,-6.9434,-5.0533,-2.0972,2.4238,2.6951
1574.2188,-14.4995,-9.6744,2.0408,-1.9166,-1.6770,-10.9783,-1.6553,-3.1520,-9.0924,-21.1208,-5.7497,-1.0961,-0.5100,-2.0321,-8.5261,-6.3340,-2.6111,1.4795,2.3476
1578.1250,-19.5495,-11.5374,2.6103,-0.7946,-1.2151,-12.8796,-2.7602,-1.4924,-10.3990,-23.0089,-8.2217,-2.4761,-0.4593,-2.2978,-10.4587,-6.7509,-3.4823,0.4266,2.0675
1582.0312,-25.6605,-12.5155,3.5975,1.2346,-0.9737,-12.7350,-2.8298,0.7766,-11.7027,-24.3416,-10.4370,-3.2678,-1.0698,-3.0714,-12.3225,-6.3029,-4.7767,-0.6758,1.5521
1585.9375,-28.7996,-11.5845,4.6119,3.3194,-1.0403,-9.1887,-1.7294,2.7803,-11.8425,-22.7669,-10.8431,-2.7615,-1.9794,-3.8710,-12.7491,-4.7829,-5.8854,-1.1669,1.0907
1589.8438,-25.7746,-7.8347,5.7793,4.8209,-1.0806,-2.2510,0.0186,3.9522,-9.5781,-16.6184,-8.1836,-0.3961,-2.2342,-3.7995,-10.4388,-2.0613,-5.8707,-0.2252,1.4258
1593.7500,-16.8586,-1.6758,7.4828,5.4722,-0.6646,5.9182,1.5122,4.1024,-4.8105,-7.0175,-2.6559,3.6484,-0.9686,-2.2477,-5.3960,1.5031,-4.1371,2.4074,3.1442
1597.6562,-6.2194,4.6890,9.7833,5.3160,0.3259,11.6904,2.0775,3.3277,0.8612,1.8625,3.7687,8.2094,1.8758,0.5054,0.6055,4.9074,-0.9756,5.9669,6.0350
1601.5625,0.3854,8.1766,12.0127,4.5438,1.5192,11.9454,1.7698,1.9042,4.8184,4.9683,8.2470,11.5201,5.2946,3.2533,4.7993,6.8416,2.4151,8.8727,8.9315
1605.4688,-0.7711,6.7148,12.9434,3.3714,2.2459,6.1235,1.3596,0.2264,4.9997,-0.2919,8.6972,12.0655,7.6507,4.4812,5.0168,6.3916,4.4989,9.5500,10.2354
1609.3750,-8.8942,0.8278,11.5228,2.0059,1.9718,-3.1160,1.7568,-1.2496,1.3153,-11.8763,5.0959,9.4290,7.5720,3.2817,1.0437,3.6621,4.2481,7.3738,8.8458
1613.2812,-19.0608,-6.3351,7.6965,0.6674,0.6730,-11.2594,3.2579,-2.1189,-4.1335,-23.8399,-0.4616,4.6042,4.7867,-0.0186,-5.1879,-0.1441,1.7561,3.1284,4.9004
1617.1875,-25.3054,-10.7643,2.7112,-0.4070,-1.1037,-14.5739,5.1830,-2.1865,-8.2673,-29.7570,-5.0144,-0.4471,0.3798,-3.9467,-10.7190,-3.3234,-1.7580,-1.3363,-0.1704
1621.0938,-24.3590,-10.0899,-1.3996,-1.0149,-2.5374,-12.3239,6.2237,-1.5712,-8.9061,-26.6894,-6.4887,-3.7501,-3.7047,-6.6574,-13.2528,-4.6072,-4.5671,-4.0664,-4.3416
1625.0000,-17.5584,-5.1386,-2.8867,-1.0667,-2.9939,-7.0863,5.3219,-0.6541,-6.0577,-17.0473,-4.7970,-4.2371,-5.6442,-6.9302,-12.3151,-3.8245,-5.3152,-4.0117,-6.0282
1628.9062,-9.7014,0.5687,-1.2534,-0.6305,-2.3610,-2.9437,2.4840,0.1315,-1.7557,-7.0282,-1.6043,-2.1304,-4.6480,-4.7885,-9.1958,-1.8399,-3.6636,-1.4987,-4.8421
1632.8125,-5.7008,3.1048,2.4901,0.0959,-1.0670,-2.7650,-1.0631,0.5440,1.4050,-2.6126,0.9934,1.3683,-1.3015,-1.3921,-5.8405,0.1868,-0.3657,2.0654,-1.6608
1636.7188,-7.3446,0.6891,6.4275,0.8692,0.2000,-6.3959,-3.5403,0.6426,1.9987,-5.7632,1.9034,4.8159,2.8088,1.6825,-3.5518,1.6713,3.2147,5.0255,1.9555
1640.6250,-12.3154,-5.2094,8.7857,1.4834,0.8716,-10.9331,-3.7044,0.6780,0.5741,-13.3366,1.5944,7.2172,5.9322,3.2957,-2.3972,2.9408,5.8160,6.3225,4.5836
1644.5312,-16.0256,-10.9339,8.7762,1.8019,0.7451,-12.8173,-1.6462,0.8394,-0.9633,-19.3768,1.4704,8.2984,6.9704,3.2189,-1.6224,4.7593,6.8107,5.8859,5.5142
1648.4375,-14.9092,-13.0861,6.7784,1.7389,-0.0200,-10.2591,1.2404,1.0469,-0.8655,-19.1783,2.6194,8.3243,5.8613,2.0073,-0.6062,7.3997,6.3104,4.4361,4.8422
1652.3438,-8.8839,-10.6562,3.8867,1.2390,-1.0933,-4.3500,3.1111,0.9554,1.1814,-12.3628,4.9149,7.7128,3.4142,0.4602,0.4725,10.0244,4.8907,2.9258,3.1716
1656.2500,-1.3495,-5.4249,1.2292,0.3026,-2.1856,1.8184,2.8053,0.1893,3.9292,-2.9529,7.1355,6.7711,0.7901,-0.9079,0.7961,10.9739,3.1929,2.0130,1.2274
1660.1562,3.1934,-0.4906,-0.4931,-0.9440,-3.1338,5.3112,0.5443,-1.3397,5.6204,3.4890,7.9727,5.6953,-1.0364,-2.0314,-0.2517,8.8952,1.6705,1.8511,-0.3883
1664.0625,2.2310,1.9247,-1.0693,-2.1980,-3.8400,5.2372,-2.2329,-3.2580,5.3829,3.6261,7.1214,4.7200,-1.5830,-3.0537,-2.2776,3.9480,0.5771,2.2202,-1.2656
1667.9688,-3.0561,1.8146,-0.5970,-3.0347,-4.1674,3.0985,-3.7694,-4.8422,3.9010,-1.5356,5.5941,4.1796,-0.8832,-3.9473,-3.8203,-1.8557,0.0873,2.7979,-1.2030
1671.8750,-8.5595,1.0226,0.6744,-3.0910,-3.9300,1.4711,-3.0547,-5.3843,2.8636,-7.5117,4.9891,4.3459,0.6580,-4.3488,-3.2007,-5.5984,0.3604,3.3378,-0.2790
1675.7812,-9.9163,1.5969,2.3445,-2.3007,-3.0207,2.0479,-0.4150,-4.6048,3.6180,-9.4616,6.2436,5.1467,2.4342,-3.7701,0.2604,-5.1931,1.4475,3.6685,1.0608
1679.6875,-5.3023,4.1745,3.8149,-1.0260,-1.5929,4.4550,2.6923,-2.8630,6.0532,-5.3829,8.8067,6.0290,3.7819,-2.0399,5.5244,-0.7787,3.1199,3.6056,2.0534
1683.5938,3.4324,7.5677,4.3942,0.0455,-0.1286,6.6283,4.5177,-1.0181,8.5647,2.7232,10.8815,6.1719,4.1309,0.3750,10.1886,5.2235,4.8030,2.9432,1.9091
1687.5000,11.9160,9.7470,3.6135,0.2374,0.7150,6.3996,3.9852,0.0033,9.1480,10.3307,10.6114,4.9864,3.1943,2.4562,11.7623,9.5180,5.7495,1.5928,0.2539
1691.4062,15.8484,9.3660,1.5766,-0.7115,0.4424,3.1116,1.2510,-0.2977,6.8363,13.3370,7.3932,2.5836,1.1386,3.1366,9.0883,9.9230,5.3983,-0.2277,-2.5449
1695.3125,13.3590,6.6462,-0.9445,-2.4222,-0.9548,-1.8770,-2.4133,-1.7142,2.4424,10.4481,2.3880,-0.1535,-1.3925,1.9241,3.0234,6.6267,3.7057,-1.9466,-5.4318
1699.2188,5.7581,3.0296,-2.8188,-4.0053,-2.9033,-6.1045,-5.3054,-3.4400,-1.9266,3.5435,-2.1386,-2.0161,-3.4933,-0.7498,-4.0222,1.8954,1.2179,-2.8516,-7.1405
1703.1250,-3.5486,-0.0025,-3.1303,-4.5073,-4.4812,-7.6393,-6.1552,-4.5083,-4.2293,-3.9332,-4.1991,-2.1872,-4.3916,-3.6927,-9.3546,-1.5164,-1.1778,-2.4818,-6.8503
1707.0312,-11.0591,-1.9358,-1.6628,-3.4316,-4.8686,-6.2763,-4.7231,-4.3163,-3.7614,-9.2101,-3.2466,-0.7604,-3.8147,-5.5370,-11.2737,-2.1186,-2.6720,-0.9521,-4.6233
1710.9375,-14.7529,-3.2772,1.0154,-1.0160,-3.7548,-3.4998,-1.8563,-2.9302,-1.4727,-11.4729,-0.3534,1.3133,-2.0899,-5.4000,-9.6359,-0.4077,-2.8589,1.0428,-1.3456
1714.8438,-14.4319,-4.7126,3.9056,1.9107,-1.4606,-1.3221,0.9963,-0.9942,0.8281,-11.5344,2.6491,2.8405,0.0987,-3.2442,-5.5244,1.8393,-1.7861,2.5986,1.7957
1718.7500,-10.9926,-6.1734,6.1216,4.4094,1.2880,-0.8710,2.5424,0.6940,1.7496,-10.4876,4.4063,3.1604,2.1434,0.2264,-0.4288,3.0534,0.2371,3.1392,3.9647
1722.6562,-5.4871,-6.6715,7.2752,5.9431,3.7736,-1.7241,2.2973,1.6686,1.1522,-8.6150,4.7747,2.5491,3.8377,4.0031,4.4374,2.9772,2.8738,2.7745,5.0526
1726.5625,1.2245,-5.0904,7.5093,6.5948,5.6149,-2.4008,0.8002,2.0285,0.0052,-5.4402,4.6007,1.9717,5.3637,7.2358,8.3088,2.5940,5.8316,2.2230,5.5637
1730.4688,8.1221,-1.2905,7.2463,6.8610,6.8123,-1.5891,-0.7012,2.2725,-0.5204,-0.7587,4.8130,2.3525,6.9596,9.4566,10.6371,3.0431,8.7447,2.3259,6.1304
1734.3750,13.5717,3.4274,6.8794,7.1844,7.5238,0.8141,-0.9345,2.8596,0.0232,4.3788,5.5833,3.8731,8.5269,10.5098,10.8849,4.4685,11.0285,3.4568,7.0040
1738.2812,15.5094,6.9798,6.6023,7.5648,7.7768,3.5888,0.7057,3.8099,1.1065,7.7402,6.2040,5.7885,9.5015,10.3454,8.6797,5.7604,11.9257,5.2189,7.8612
1742.1875,12.4513,7.8615,6.4067,7.5343,7.3583,5.0601,3.8183,4.6417,1.7654,7.1934,5.7401,6.8899,9.1274,8.9001,4.2670,5.4110,10.8189,6.6394,8.0302
1746.0938,4.7192,6.1935,6.1570,6.5241,5.9836,4.3068,7.1846,4.7034,1.4446,2.3191,3.9065,6.2948,6.9812,6.1816,-1.1634,2.7975,7.6514,6.7535,6.9648
1750.0000,-5.1085,3.6288,5.6509,4.3662,3.6218,1.8478,9.3786,3.6785,0.4537,-4.8882,1.4508,4.0298,3.3916,2.4805,-5.7099,-1.1414,3.1623,5.2124,4.6496
1753.9062,-13.1053,2.1367,4.6768,1.5701,0.7262,-0.6644,9.4660,1.8974,-0.3034,-10.8897,-0.2804,1.0310,-0.5508,-1.4871,-7.5960,-4.4059,-1.2825,2.5353,1.6888
1757.8125,-15.9106,2.5496,3.1234,-0.8458,-1.8321,-1.5208,7.4260,0.2141,-0.0747,-12.5764,-0.2754,-1.4096,-3.4434,-4.6786,-6.1605,-5.2666,-4.2284,-0.1484,-0.9572
1761.7188,-12.5099,3.9648,1.1389,-1.8880,-3.1337,-0.0586,4.0918,-0.4984,1.1326,-9.0676,1.4188,-2.3628,-4.2336,-6.0768,-2.3337,-3.4377,-4.7652,-1.7048,-2.4202
1765.6250,-4.7192,4.4714,-0.7830,-1.1605,-2.6771,2.9458,0.6835,0.0954,2.5636,-2.1408,3.7355,-1.6913,-2.7209,-5.1385,1.8010,-0.2238,-2.9121,-1.5873,-2.3117
1769.5312,3.9720,2.6864,-1.9409,0.8847,-0.6639,5.8289,-1.7818,1.5624,3.3165,4.9678,5.3644,0.0251,0.3686,-2.1000,4.1751,2.4501,0.4352,-0.0816,-0.8711
1773.4375,10.4527,-1.0241,-1.7978,3.1795,2.0711,7.1456,-2.8764,2.9606,3.0464,9.5540,5.6820,1.9313,3.7429,2.0366,3.9383,3.3871,3.9298,1.9027,1.1676
1777.3438,13.6002,-4.5522,-0.3806,4.6141,4.4488,6.5862,-2.7720,3.4229,2.2220,10.9058,5.1439,3.3651,6.1203,5.8550,1.9407,2.8539,6.3213,3.3401,2.9064
1781.2500,14.4488,-5.3148,1.6044,4.6142,5.6406,5.1239,-1.9359,2.6817,1.7497,10.3472,4.8543,4.0686,6.7327,8.0724,0.1778,2.2083,6.8725,3.5970,3.6623
1785.1562,14.9406,-1.9301,3.1076,3.3934,5.4123,4.3281,-0.7554,1.1984,2.2721,9.9851,5.6464,4.1022,5.5582,8.0475,0.5363,2.7569,5.5217,2.6811,3.2480
1789.0625,16.2509,4.8138,3.3658,1.7614,4.1617,5.3086,0.6563,-0.1675,3.6710,11.1185,7.3653,3.6297,3.2428,6.0289,3.6155,4.7220,2.8137,1.1400,2.0417
1792.9688,17.9110,12.3008,2.4020,0.6267,2.6623,7.9646,2.3633,-0.7135,5.1212,13.3954,8.8827,2.7800,0.7950,3.0342,8.3329,7.0584,-0.3105,-0.2934,0.8063
1796.8750,18.3016,17.4629,1.0097,0.4888,1.6623,10.9981,4.3204,-0.3089,5.6158,15.1903,8.8329,1.6586,-0.8185,0.4006,12.5217,8.1948,-2.8023,-1.1073,0.3119
1800.7812,16.0692,18.3014,0.1844,1.1908,1.5326,12.6655,6.1338,0.5743,4.5604,14.8225,6.5439,0.4221,-1.0496,-0.8033,14.1293,7.1132,-3.8353,-1.2688,0.9189
1804.6875,11.3661,14.6934,0.3842,2.0378,2.1123,11.8050,7.0798,1.1892,2.0484,11.7366,2.5182,-0.7149,0.0026,-0.2488,12.3000,3.9951,-3.1148,-1.2210,2.3302
1808.5938,5.9855,8.1830,1.1631,2.1883,2.8082,8.5294,6.4283,0.9602,-1.2842,6.8951,-1.8427,-1.5827,1.6098,1.5251,7.7528,0.0461,-1.0471,-1.6295,3.6740
1812.5000,2.2888,1.0805,1.4744,1.1024,2.8979,4.1827,3.8998,-0.2318,-4.6237,2.2173,-5.0524,-2.1826,2.7138,3.3949,2.3104,-3.2887,1.3617,-3.0012,3.9175
1816.4062,1.6847,-4.5365,0.4451,-1.1759,1.9040,0.5898,-0.0291,-2.0540,-7.2850,-0.5095,-6.3438,-2.7096,2.4150,4.2190,-2.0885,-5.1359,2.9022,-5.3600,2.4203
1820.3125,3.7037,-7.4857,-1.9422,-4.0224,-0.1312,-0.9713,-4.1994,-3.9484,-8.8379,-0.5866,-5.9855,-3.4288,0.4329,3.4024,-4.3294,-5.5322,2.7016,-8.1551,-0.6723
1824.2188,6.2677,-7.7041,-4.7732,-6.5069,-2.6121,-0.4880,-7.2348,-5.3988,-9.1332,1.2615,-4.9959,-4.4881,-2.7137,1.1675,-4.5475,-5.1904,0.6330,-10.4742,-4.4330
1828.1250,6.9410,-6.1328,-6.7997,-7.8002,-4.6383,0.7980,-8.1685,-6.0890,-8.3505,3.2764,-4.5145,-5.8064,-5.9310,-1.6050,-3.8851,-4.9596,-2.6354,-11.4786,-7.5739
1832.0312,4.3482,-4.3400,-7.2737,-7.5282,-5.4341,1.1419,-6.8836,-5.9213,-7.0495,3.5447,-5.2263,-7.1126,-8.0801,-3.8620,-3.7678,-5.3503,-5.9749,-10.8396,-9.0614
1835.9375,-1.0792,-3.8903,-6.4045,-5.9158,-4.7436,-0.6222,-4.1152,-4.9609,-6.0648,0.9639,-7.0979,-8.0863,-8.5213,-4.9071,-5.0882,-6.3323,-8.3113,-8.9253,-8.5907
1839.8438,-7.3668,-5.5564,-5.1121,-3.6651,-2.9740,-4.2903,-1.0204,-3.3876,-6.1266,-4.1102,-9.4532,-8.4841,-7.3661,-4.6790,-7.6937,-7.4019,-9.0275,-6.6114,-6.6709
1843.7500,-12.0036,-8.7055,-4.2910,-1.6333,-0.9934,-8.2736,1.4148,-1.4789,-7.3395,-9.8334,-11.2594,-8.1713,-5.3150,-3.6553,-10.4164,-7.8138,-8.0724,-4.8063,-4.3050
1847.6562,-13.0794,-11.3326,-4.1591,-0.4684,0.3156,-10.4114,2.7742,0.4082,-8.8927,-13.5585,-11.4928,-7.0886,-3.2168,-2.4900,-11.6315,-6.8947,-5.8126,-3.9621,-2.4765
1851.5625,-10.0155,-10.9911,-4.1842,-0.3723,0.4958,-9.1834,3.1987,1.8966,-9.3409,-13.0345,-9.5101,-5.2464,-1.6414,-1.6364,-10.0871,-4.3830,-2.8103,-3.8661,-1.7270
1855.4688,-3.6698,-6.2976,-3.6175,-1.0875,-0.2974,-4.6262,3.0342,2.6882,-7.4436,-7.6125,-5.3600,-2.7960,-0.7093,-1.1783,-5.6086,-0.6833,0.3137,-3.8385,-2.0176
1859.3750,4.0861,1.8551,-2.1887,-2.0853,-1.4524,1.5877,2.4388,2.6563,-3.0879,1.1879,0.0855,-0.1172,-0.2154,-0.9208,0.6867,3.1413,2.9264,-3.2059,-2.8734
1863.2812,11.0705,10.2889,-0.4027,-2.8345,-2.2858,6.9761,1.2590,1.8801,2.3584,10.1745,5.3225,2.2045,0.1128,-0.6186,6.8025,5.7670,4.4586,-1.7475,-3.6714
1867.1875,15.5205,15.0080,0.7966,-3.0147,-2.4095,9.5061,-0.7365,0.6047,6.6236,15.9204,8.7590,3.5801,0.4343,-0.1610,10.7250,6.2911,4.5958,0.1660,-3.9091
1871.0938,16.6289,13.4363,0.7261,-2.5915,-1.8785,8.5601,-3.4649,-0.8489,7.7779,16.4297,9.4140,3.7156,0.7828,0.3908,11.3058,4.8253,3.5092,1.8082,-3.3654
1875.0000,14.7117,6.0704,-0.5215,-1.7653,-1.0751,5.0734,-6.3188,-2.1798,5.3830,12.0868,7.4043,2.8059,1.1570,0.8800,8.7120,2.5606,1.9161,2.5376,-2.1497
1878.9062,10.9220,-3.5867,-2.1414,-0.8580,-0.4534,0.8229,-8.3572,-3.1818,0.7799,5.3005,3.8955,1.4597,1.5722,1.1393,4.2268,1.1399,0.8084,2.1509,-0.6679
1882.8125,6.6052,-10.9139,-3.1945,-0.2031,-0.3251,-2.6378,-8.8212,-3.7819,-3.7026,-0.9644,0.4918,0.3661,2.0087,1.0155,-0.4550,1.6499,0.9185,0.9493,0.4956
1886.7188,2.6086,-12.7895,-3.2399,-0.0584,-0.7857,-4.7298,-7.6307,-4.0366,-6.1114,-4.8634,-1.6004,-0.0854,2.3274,0.3619,-4.0159,3.8770,2.2395,-0.4775,0.7853
1890.6250,-1.0501,-9.3090,-2.5421,-0.5303,-1.7569,-5.8753,-5.5024,-4.0772,-5.9149,-6.5077,-2.1278,0.0265,2.2828,-0.9181,-5.9590,6.3724,3.9558,-1.5682,-0.0612
1894.5312,-4.9177,-3.5177,-1.7285,-1.5079,-3.0451,-6.8900,-3.5678,-4.0123,-4.0768,-7.4624,-1.7303,0.3149,1.6859,-2.7448,-6.5217,7.3559,4.9042,-1.9992,-1.8084
1898.4375,-9.3795,0.6480,-1.2093,-2.6424,-4.3539,-8.2318,-2.7163,-3.8290,-2.1879,-9.3120,-1.3374,0.4443,0.6193,-4.7327,-6.2234,5.8961,4.3131,-1.7001,-3.7242
1902.3438,-13.9631,0.8533,-0.8473,-3.4247,-5.2803,-9.6349,-3.0858,-3.3651,-1.3227,-12.3208,-1.4561,0.4186,-0.4838,-6.2044,-5.4131,2.5807,2.3414,-0.7468,-4.8573
1906.2500,-17.2200,-2.3219,-0.1397,-3.3743,-5.3824,-10.3415,-4.0293,-2.4027,-1.4257,-15.1358,-1.8424,0.5804,-1.0084,-6.4304,-4.1254,-0.7905,0.0402,0.7321,-4.4922
1910.1562,-17.3991,-6.0402,1.2551,-2.2730,-4.3592,-9.7134,-4.5720,-0.8552,-1.5944,-15.7417,-1.7581,1.3321,-0.5035,-5.0158,-2.2968,-2.2930,-1.2621,2.5567,-2.5431
1914.0625,-13.5861,-7.2944,3.0990,-0.3149,-2.2679,-7.7647,-4.0507,1.0668,-0.9620,-12.9965,-0.5987,2.7993,1.0195,-2.2055,-0.1158,-1.0308,-0.7563,4.4471,0.3617
1917.9688,-6.5987,-4.9688,4.6333,1.9365,0.3765,-5.2492,-2.5228,2.8543,0.5289,-7.6705,1.5757,4.6939,3.0510,1.1151,1.8077,2.3846,1.3816,6.0297,3.1807
1921.8750,1.0105,-0.5028,5.0999,3.7902,2.7367,-3.2618,-0.7006,3.9134,2.0350,-2.2414,3.9796,6.4745,4.8463,3.7772,2.6356,6.2868,4.1325,6.9584,4.9857
1925.7812,5.9874,3.2096,4.3289,4.7449,3.9998,-2.6342,0.5149,3.8974,2.4409,0.4594,5.5432,7.6696,5.8133,4.8632,1.7694,8.9736,6.2489,7.0941,5.4025
1929.6875,5.9462,3.8504,2.9260,4.7017,3.7542,-3.5115,0.5827,2.9409,1.2144,-1.1083,5.5393,8.1205,5.7688,4.1122,-0.7026,9.6042,6.9123,6.6085,4.7086
1933.5938,0.6077,1.2235,1.8871,3.9466,2.1747,-5.3434,-0.3842,1.6147,-1.1503,-6.3005,3.9820,7.9789,4.9179,1.9665,-3.8932,8.4584,6.0335,5.9081,3.5556
1937.5000,-8.0060,-2.7047,1.9026,2.9234,-0.0941,-7.2533,-1.7313,0.5919,-3.4147,-12.6946,1.5675,7.5021,3.6222,-0.7410,-6.4656,6.5190,4.0918,5.4026,2.5269
1941.4062,-16.5501,-5.2318,2.8548,1.9549,-2.2784,-8.5355,-2.6715,0.2281,-4.3991,-17.5173,-0.7566,6.8380,2.1663,-3.2307,-7.2959,4.7710,1.7320,5.2620,1.8341
1945.3125,-21.9713,-4.7992,3.8837,1.1009,-3.8216,-8.9943,-2.7288,0.3436,-3.7496,-19.1980,-2.2886,5.9786,0.6992,-5.0681,-6.0982,3.6953,-0.5487,5.3345,1.3381
1949.2188,-22.8815,-2.0489,3.9905,0.2421,-4.5363,-8.9601,-1.9692,0.3812,-2.1635,-18.1169,-2.8414,4.9010,-0.6430,-6.1562,-3.6447,3.1927,-2.4454,5.2874,0.8348
1953.1250,-19.9850,0.6226,2.7643,-0.6805,-4.5105,-9.0058,-0.9224,-0.1494,-0.9461,-16.1514,-2.6795,3.7479,-1.5918,-6.5138,-1.4142,2.8462,-3.7057,4.8825,0.3613
1957.0312,-15.4123,0.6836,0.7294,-1.4624,-3.8915,-9.5344,-0.2657,-1.2431,-1.2011,-15.3597,-2.2356,2.8675,-1.7574,-6.0696,-0.8102,2.2564,-4.0336,4.1962,0.2735
1960.9375,-11.4268,-2.8199,-0.9249,-1.6436,-2.7389,-10.4680,-0.4471,-2.3075,-3.1542,-16.6415,-1.8201,2.6495,-0.8367,-4.6644,-2.3556,1.2507,-3.1904,3.6293,1.0241
1964.8438,-9.2760,-8.5616,-1.0571,-0.7630,-1.0630,-11.2174,-1.4314,-2.5072,-5.9983,-19.1865,-1.4885,3.2668,1.1182,-2.2669,-5.3324,-0.0704,-1.2331,3.6816,2.7936
1968.7500,-8.8084,-13.6735,0.7304,1.2819,1.0020,-10.9833,-2.6883,-1.3379,-8.3211,-21.0239,-1.1001,4.5109,3.5830,0.7767,-8.1255,-1.3868,1.3280,4.6254,5.2377
1972.6562,-8.9753,-15.4406,3.8396,4.0078,3.0561,-9.2618,-3.4373,0.9558,-8.8581,-20.3211,-0.4951,5.8446,5.7125,3.6909,-9.1318,-2.2676,3.6302,6.2716,7.5401
1976.5625,-8.8020,-12.8942,7.0008,6.4358,4.4836,-6.2845,-3.0492,3.4234,-7.1643,-16.6321,0.3303,6.6413,6.6984,5.5171,-7.7323,-2.3445,4.8091,7.9789,8.7606
1980.4688,-8.1528,-7.3471,8.9470,7.5052,4.7144,-3.1039,-1.4177,4.9177,-3.8679,-11.3302,1.1489,6.4646,6.1302,5.5550,-4.7282,-1.5351,4.3954,8.9161,8.2841
1984.3750,-7.7846,-1.5918,9.0342,6.6171,3.5609,-1.1885,0.9009,4.7625,-0.3853,-6.9299,1.5756,5.2385,4.1671,3.7483,-1.9197,-0.2031,2.5248,8.4567,6.1243
1988.2812,-8.6719,1.7131,7.4797,4.0126,1.4161,-1.6717,2.8983,3.1585,1.7606,-5.6680,1.2665,3.2545,1.4579,0.7874,-1.0326,0.9127,-0.1407,6.5128,2.9375
1992.1875,-11.0845,1.4818,5.1479,0.7552,-0.8324,-4.6464,3.6131,1.0715,1.6875,-8.1643,0.1578,1.0596,-1.1094,-2.1452,-2.6430,1.0663,-2.6943,3.6419,-0.2331
1996.0938,-14.0937,-1.3591,3.0692,-1.7082,-2.1581,-8.9439,2.6742,-0.3217,-0.4024,-12.9682,-1.3951,-0.7022,-2.6889,-3.8604,-5.8012,0.0051,-4.2940,0.8648,-2.3382
2000.0000,-15.9252,-4.6248,1.9810,-2.2091,-1.8503,-12.5980,0.5763,-0.2851,-3.3190,-17.2963,-2.6981,-1.4565,-2.6940,-3.6433,-8.6385,-1.7409,-4.3775,-0.7413,-2.6628
2003.9062,-15.0234,-6.2971,2.1056,-0.4089,0.1570,-13.7971,-1.5089,1.1169,-5.4939,-18.5687,-3.0397,-0.8745,-0.9369,-1.5183,-9.5877,-3.0622,-2.7748,-0.5065,-1.0241
2007.8125,-11.1828,-5.7354,3.2024,3.0356,3.2403,-11.8183,-2.3246,3.1332,-5.8040,-15.8694,-2.1152,0.9630,2.2914,1.7916,-8.4153,-2.9312,0.2290,1.5135,2.1890
2011.7188,-5.9807,-3.9740,4.7756,6.7761,6.3379,-7.4156,-1.2133,4.7933,-4.1765,-10.4908,-0.3086,3.4878,6.2155,5.1596,-6.3586,-1.1294,3.8756,4.5112,6.1130
2015.6250,-2.1296,-2.9890,6.2752,9.3800,8.3699,-2.4478,1.4941,5.4142,-1.6436,-5.2503,1.3839,5.7548,9.7064,7.4623,-5.2596,1.4699,7.0394,7.2197,9.6154
2019.5312,-2.0230,-4.4334,7.2012,9.9312,8.6397,1.0349,4.6140,4.8562,0.1938,-2.9777,1.8144,6.7689,11.5885,7.9500,-6.2776,3.3245,8.5405,8.4080,11.5868
2023.4375,-6.2883,-8.6080,7.1298,8.3387,7.0592,1.7363,6.6993,3.4365,0.0058,-5.0251,0.3095,5.9232,11.0661,6.4677,-9.0636,3.1347,7.6217,7.3712,11.2757
2027.3438,-13.2138,-14.2345,5.7557,5.2442,4.1313,-0.3827,6.7541,1.6329,-2.5721,-10.5906,-2.8930,3.3244,8.0959,3.4766,-11.9573,0.6754,4.3780,4.2093,8.5706
2031.2500,-19.4437,-19.0875,3.0178,1.6371,0.7264,-4.2186,4.6915,-0.1907,-6.7436,-17.1471,-6.6710,-0.1931,3.4963,-0.1168,-13.0551,-2.9994,-0.1450,-0.2157,4.1071
2035.1562,-21.6131,-21.0643,-0.7285,-1.5832,-2.2407,-8.0917,1.3212,-1.8765,-10.9229,-21.6611,-9.5201,-3.4130,-1.3128,-3.2720,-11.3992,-6.1199,-4.3303,-4.6092,-0.8890
2039.0625,-18.0554,-19.1037,-4.6302,-3.8815,-4.1127,-10.4271,-2.0773,-3.3862,-13.4457,-21.9381,-10.2653,-5.2784,-4.8612,-5.1680,-7.4927,-7.1819,-6.7175,-7.7146,-5.0092
2042.9688,-9.6830,-13.5513,-7.4992,-5.1192,-4.6726,-10.2698,-4.3375,-4.6624,-13.2597,-17.4845,-8.5984,-5.3505,-6.2270,-5.4849,-2.8609,-5.7468,-6.7076,-8.7409,-7.1813
2046.8750,0.3975,-5.9278,-8.2508,-5.4228,-4.1613,-7.5284,-4.8613,-5.5741,-10.3126,-9.6142,-5.1779,-3.9578,-5.3994,-4.5056,0.9354,-2.6162,-4.8461,-7.6072,-7.0820
2050.7812,8.2934,1.6633,-6.4615,-5.0324,-3.1429,-2.9663,-3.7824,-5.9818,-5.5394,-0.8878,-1.2856,-1.9862,-3.2407,-2.9917,3.0923,0.6473,-2.5159,-4.9450,-5.2524
2054.6875,11.0282,7.1935,-2.7395,-4.2265,-2.2730,2.0210,-1.8358,-5.8529,-0.5207,5.8238,1.7329,-0.4531,-1.0761,-1.8721,3.6602,2.5082,-1.2090,-1.8776,-2.8543
2058.5938,7.7253,9.2494,1.3704,-3.3177,-2.0583,5.8272,-0.0368,-5.3182,3.0483,8.3335,2.9570,-0.0889,-0.1134,-1.8672,3.0398,2.1103,-1.7885,0.3573,-1.1680
2062.5000,-0.2008,7.3931,4.0057,-2.6428,-2.6926,7.1951,0.7033,-4.6205,3.9332,5.9060,2.1301,-1.0993,-0.9545,-3.2026,1.4262,-0.4698,-4.1297,0.8358,-1.0581
2066.4062,-9.8175,2.3080,3.8764,-2.4887,-4.0225,5.7342,-0.0845,-3.9980,1.8315,-0.4440,-0.3598,-3.1562,-3.3951,-5.5351,-1.2776,-4.3626,-7.2895,-0.6998,-2.6432
2070.3125,-17.9567,-4.3436,0.9606,-2.9731,-5.6475,2.1307,-2.2301,-3.5954,-2.4259,-8.2878,-3.6607,-5.5622,-6.5655,-8.1141,-5.0333,-8.2666,-10.0414,-3.7012,-5.3036
2074.2188,-22.4006,-10.4068,-3.4078,-3.9659,-7.0966,-2.1338,-4.9541,-3.4639,-7.0894,-14.7176,-6.7020,-7.4964,-9.3194,-10.0992,-9.1740,-10.8670,-11.4448,-6.9756,-7.9970
2078.1250,-22.4873,-13.9777,-7.1614,-5.1280,-7.9985,-5.4725,-7.1550,-3.6276,-10.1355,-17.5420,-8.4615,-8.2702,-10.6883,-10.8805,-12.3886,-11.2263,-11.1586,-9.1337,-9.7127
2082.0312,-18.9717,-14.1175,-8.5283,-6.0636,-8.1711,-6.9266,-7.8792,-4.1353,-10.1308,-16.1785,-8.2444,-7.5415,-10.2174,-10.2617,-13.3365,-9.0947,-9.4119,-9.1675,-9.8496
2085.9375,-13.3300,-11.1719,-6.9132,-6.4986,-7.6100,-6.5057,-6.7714,-5.0316,-6.9213,-11.7492,-5.9229,-5.4369,-8.0675,-8.4466,-11.4905,-5.0516,-6.7520,-6.9084,-8.3694
2089.8438,-6.9391,-6.4962,-3.1522,-6.3765,-6.4165,-4.9333,-4.2651,-6.2579,-1.7613,-6.3045,-2.0413,-2.5344,-4.8843,-5.8769,-7.5619,-0.3662,-3.7744,-3.1429,-5.7078
2093.7500,-0.5848,-1.7264,0.9795,-5.8255,-4.7378,-2.9996,-1.3730,-7.5719,3.2425,-1.6358,2.3067,0.3137,-1.5286,-3.0433,-3.1403,3.4482,-0.9838,0.6935,-2.5436
2097.6562,5.4666,1.9773,3.7019,-5.0436,-2.7657,-1.0066,0.8379,-8.5754,6.1185,1.5784,5.8285,2.2662,1.1962,-0.3768,0.2270,5.2304,1.2063,3.1152,0.4337
2101.5625,10.9671,4.2757,4.0707,-4.1981,-0.7820,1.2856,1.8043,-8.8710,5.9353,3.7676,7.4864,2.7764,2.7222,1.7497,1.8611,4.6272,2.4312,3.2040,2.6647
2105.4688,15.1911,5.4450,2.2938,-3.4034,0.8230,4.1888,1.7256,-8.2628,3.1500,5.6901,6.8593,1.7514,2.7828,2.9830,2.1111,2.1601,2.3979,0.9662,3.7690
2109.3750,16.9127,5.8708,-0.5654,-2.7617,1.6282,7.4903,1.3650,-6.8725,-0.7457,7.5338,4.2583,-0.4653,1.4166,3.0175,1.8030,-1.1201,1.0083,-2.7159,3.5635
2113.2812,15.0239,5.6820,-3.2327,-2.3921,1.3619,10.2544,1.5137,-5.0879,-4.0305,8.6379,0.5677,-3.2518,-1.0367,1.7407,1.4808,-4.1575,-1.4890,-6.4842,2.1034
2117.1875,9.4775,4.7997,-4.8074,-2.3913,0.0969,11.2597,2.4589,-3.3711,-5.5370,8.0899,-3.0920,-5.9087,-3.9491,-0.5742,1.0704,-6.2719,-4.4392,-9.0589,-0.2659
2121.0938,1.8995,3.3008,-5.0056,-2.7419,-1.6756,9.8229,3.7970,-2.0482,-5.0261,5.7388,-5.7252,-7.8222,-6.4858,-3.1839,0.2049,-7.2179,-6.9114,-9.7040,-2.9167
2125.0000,-4.6984,1.7043,-4.0484,-3.2500,-3.1837,6.4251,4.7083,-1.2062,-3.0615,2.7767,-6.7274,-8.5688,-7.8132,-5.0360,-1.1258,-7.0047,-8.0108,-8.4387,-5.0767
2128.9062,-7.1657,0.8458,-2.3872,-3.5880,-3.6923,2.6478,4.5146,-0.7415,-0.5800,1.3061,-6.0045,-7.9872,-7.4057,-5.1747,-2.2270,-5.7183,-7.2521,-5.9435,-6.0863
2132.8125,-3.8277,1.3591,-0.4823,-3.4425,-2.8482,0.3775,3.1527,-0.4941,1.5476,3.0595,-3.9459,-6.2301,-5.3102,-3.2118,-2.0295,-3.5206,-4.8069,-3.2305,-5.6658
2136.7188,4.4668,3.1556,1.2834,-2.6811,-0.8579,0.7478,1.2572,-0.3533,2.7730,8.1203,-1.2716,-3.7616,-2.1927,0.4025,0.1019,-0.7753,-1.4724,-1.2179,-4.0412
2140.6250,14.5617,5.3578,2.6218,-1.4261,1.6093,3.4827,-0.2006,-0.2639,2.9314,14.5832,1.2183,-1.2452,0.9222,4.5040,3.7195,1.9122,1.6596,-0.3727,-1.8333
2144.5312,22.4661,6.8244,3.3858,0.0186,3.7466,7.0629,-0.4856,-0.1548,2.1996,19.4945,2.9302,0.6914,3.1225,7.7174,7.3702,3.9077,3.6949,-0.5608,0.2508
2148.4375,25.3181,6.9372,3.6570,1.3399,4.9870,9.6191,0.4810,0.1156,1.0205,20.5451,3.7001,1.7266,4.0403,9.0953,9.4282,4.9337,4.3467,-1.1645,1.7610
2152.3438,22.7687,6.0776,3.7781,2.3747,5.2307,10.0139,2.1111,0.7244,-0.0074,17.4608,3.8413,2.0010,3.9918,8.5569,9.1261,5.3317,4.0423,-1.4142,2.6898
2156.2500,17.0410,5.4100,4.2238,3.1605,4.8222,8.4797,3.5439,1.7647,-0.3040,12.2213,3.9720,2.0401,3.7339,6.8900,7.0488,5.9227,3.6626,-0.7781,3.3971
2160.1562,11.6824,6.0884,5.3194,3.8583,4.3183,6.4620,4.1811,3.1313,0.4792,7.9853,4.6859,2.4561,3.9857,5.3176,4.7383,7.4612,4.0485,0.7867,4.3223
2164.0625,9.7382,8.4331,6.9665,4.6089,4.1894,5.7852,4.0231,4.5100,2.3073,7.3907,6.2325,3.5884,5.0012,4.8667,3.6946,10.0215,5.5371,2.8470,5.6573
2167.9688,12.3253,11.6549,8.5870,5.4125,4.6044,7.6202,3.6023,5.4942,4.7717,11.2153,8.3776,5.2957,6.4436,5.8690,4.4793,12.7676,7.7742,4.7494,7.1710
2171.8750,18.2732,14.3159,9.3794,6.0882,5.3746,11.8083,3.5748,5.7607,7.2714,18.0794,10.5168,7.0259,7.6058,7.8333,6.5205,14.3400,9.8881,5.9582,8.2826
2175.7812,24.8690,15.1919,8.7717,6.3228,6.0464,16.8804,4.2474,5.1938,9.2565,25.2150,11.9708,8.1192,7.8137,9.7223,8.6738,13.6606,10.9133,6.2737,8.3409
2179.6875,29.1955,13.9395,6.7934,5.7808,6.0853,20.7385,5.3505,3.8926,10.3866,29.7696,12.2890,8.1538,6.7603,10.4635,10.0519,10.6416,10.2307,5.8205,6.9596
2183.5938,29.3584,11.1478,4.1162,4.2433,5.0853,21.6384,6.1957,2.0844,10.5288,29.9457,11.3996,7.1296,4.6026,9.4323,10.4872,6.3145,7.8135,4.8567,4.2368
2187.5000,25.0793,7.8148,1.7103,1.7353,2.9463,18.9756,6.1055,0.0253,9.6486,25.5144,9.5502,5.3994,1.8238,6.6921,10.3284,2.2731,4.1967,3.5655,0.7538
2191.4062,17.5256,4.6799,0.3112,-1.4078,-0.0411,13.4897,4.8252,-2.0484,7.7215,17.6288,7.1089,3.4214,-1.0046,2.9111,9.8186,-0.2214,0.2341,1.9799,-2.6441
2195.3125,8.6014,1.8858,0.0182,-4.5908,-3.2594,6.8155,2.6563,-3.9183,4.7570,8.1736,4.3659,1.5077,-3.4181,-0.9714,8.6269,-0.9030,-3.2133,0.0692,-5.1856
2199.2188,0.1112,-0.8526,0.2675,-7.1479,-5.9869,0.6593,0.2438,-5.3882,0.9136,-0.9884,1.4543,-0.2781,-5.1458,-4.1563,5.9778,-0.5317,-5.5306,-2.1161,-6.4791
2203.1250,-6.8140,-3.7835,0.1920,-8.6110,-7.7042,-3.9231,-1.8115,-6.3270,-3.4005,-8.5601,-1.5766,-2.0344,-6.1169,-6.2798,1.3434,-0.3122,-6.4785,-4.3759,-6.6532
2207.0312,-11.8191,-6.7448,-0.8513,-8.9202,-8.3260,-6.7494,-3.2433,-6.7247,-7.5395,-13.9669,-4.5990,-3.8301,-6.4309,-7.4603,-4.8003,-1.1005,-6.1946,-6.4261,-6.2603
2210.9375,-15.0016,-9.1478,-2.8889,-8.4315,-8.2025,-8.1759,-4.1296,-6.6891,-10.7563,-17.1381,-7.2668,-5.5473,-6.3051,-8.0882,-10.7582,-2.8993,-5.0892,-8.0290,-5.9827
2214.8438,-16.4357,-10.2884,-5.2843,-7.6841,-7.8571,-8.5215,-4.6592,-6.3482,-12.3959,-18.1166,-9.0073,-6.8598,-5.9819,-8.4818,-14.2226,-4.9137,-3.6672,-9.0665,-6.2731
2218.7500,-15.9006,-9.7388,-7.0424,-7.0519,-7.6033,-7.7285,-4.8690,-5.7160,-12.0625,-16.8050,-9.1864,-7.3589,-5.6002,-8.6160,-13.4326,-6.0748,-2.3293,-9.4954,-7.1090
2222.6562,-13.0355,-7.5675,-7.2883,-6.5076,-7.3011,-5.5390,-4.5734,-4.6469,-9.7238,-13.0778,-7.3970,-6.7507,-5.0963,-8.1032,-8.2277,-5.6740,-1.2263,-9.2387,-7.9956
2226.5625,-7.8454,-4.2992,-5.6745,-5.6789,-6.4467,-2.0385,-3.5419,-2.9640,-5.7532,-7.2194,-3.7396,-5.0147,-4.2207,-6.4661,-0.3440,-3.7337,-0.2400,-8.1408,-8.2262
2230.4688,-1.1904,-0.7011,-2.5355,-4.1744,-4.5714,1.9229,-1.7723,-0.7060,-0.9039,-0.3443,1.0691,-2.4379,-2.7013,-3.5507,7.2814,-0.9422,0.8869,-6.0618,-7.2652
2234.3750,5.1746,2.4651,1.2598,-1.9552,-1.6897,4.8811,0.3743,1.6963,3.8229,5.6405,5.8640,0.4921,-0.4713,0.1887,11.8608,1.7548,2.3407,-3.0580,-5.0401
2238.2812,9.1826,4.6365,4.6735,0.5339,1.5375,5.5022,2.3024,3.5082,7.4393,8.7098,9.4434,3.2789,2.1959,3.7571,12.0425,3.6423,4.0742,0.5003,-1.9790
2242.1875,9.4042,5.5732,6.9154,2.5977,4.0856,3.4388,3.4909,4.0657,9.3022,7.7330,11.0459,5.5924,4.7604,6.0568,8.4428,4.5395,5.8016,3.9980,1.2186
2246.0938,5.8046,5.4125,7.7408,3.7454,5.1491,-0.3532,3.7547,3.2324,9.3545,3.1849,10.6485,7.3364,6.6758,6.4644,3.1589,4.7862,7.1611,6.8175,3.9281
2250.0000,-0.1753,4.6255,7.5075,4.0375,4.6480,-4.1350,3.2748,1.6134,8.1163,-2.9802,8.9225,8.5823,7.6727,5.2009,-1.4175,4.9633,7.9360,8.6032,5.8491
2253.9062,-6.2713,3.8562,6.9703,4.0576,3.3047,-6.4117,2.4103,0.3204,6.3991,-8.2819,6.8810,9.4297,7.8763,3.2469,-3.7750,5.5317,8.1839,9.3752,7.0268
2257.8125,-10.3617,3.6895,6.9020,4.5058,2.2235,-6.7132,1.4766,0.3756,4.9162,-10.8894,5.4278,9.9026,7.6864,1.8361,-3.7722,6.5980,8.1845,9.4342,7.6767
2261.7188,-11.1645,4.4646,7.7190,5.6998,2.2393,-5.5466,0.6867,2.1110,4.0460,-10.2471,5.0658,9.9657,7.5161,1.8201,-2.2253,7.9251,8.2483,9.1546,7.9777
2265.6250,-8.3646,6.2337,9.2914,7.3481,3.4645,-3.5991,0.2748,4.9585,3.8943,-6.8164,5.8793,9.6441,7.5769,3.2796,0.0233,9.1514,8.5215,8.8284,7.9919
2269.5312,-2.3483,8.8473,11.0382,8.7649,5.3158,-0.9209,0.6189,7.7808,4.5394,-1.3152,7.7004,9.1346,7.8417,5.5887,2.8276,10.0449,8.9146,8.6458,7.7469
2273.4375,6.0110,12.0259,12.2519,9.3697,6.9648,3.1184,2.1431,9.5341,6.1685,5.7633,10.2441,8.7767,8.1660,7.8430,6.6825,10.6021,9.1858,8.7567,7.3685
2277.3438,15.2551,15.2912,12.4706,9.0966,7.8726,8.9292,4.9647,9.8281,8.8900,13.8553,13.0788,8.8531,8.4307,9.3523,11.9071,10.9157,9.0989,9.2801,7.1055
2281.2500,23.1526,17.8040,11.6893,8.4136,8.0409,15.5561,8.5265,9.0327,12.3151,21.5498,15.5066,9.3433,8.5826,9.8977,17.7085,10.9312,8.5466,10.1990,7.1877
2285.1562,26.9491,18.3547,10.3043,7.9491,7.8516,20.3736,11.5750,7.9095,15.3043,26.2393,16.5839,9.8390,8.5726,9.6581,21.9582,10.3271,7.5831,11.2303,7.6193
2289.0625,24.3731,15.7569,8.8542,8.0236,7.6770,20.2093,12.6650,7.0716,16.2638,24.9529,15.4546,9.7531,8.3029,8.9496,22.0850,8.6946,6.3937,11.8459,8.0966
2292.9688,15.0537,9.6143,7.7413,8.4520,7.5946,13.3901,10.9892,6.6690,14.0051,16.1998,11.9010,8.7427,7.6908,8.0160,16.6732,5.9580,5.2635,11.5374,8.1715
2296.8750,1.4136,1.0399,7.1104,8.7578,7.4193,1.3371,7.0178,6.4862,8.6816,1.6358,6.7479,7.0675,6.8301,7.0121,6.7359,2.7340,4.5601,10.2043,7.5919
2300.7812,-11.8470,-7.2845,6.9297,8.6135,6.9897,-11.5837,2.4655,6.3053,2.0960,-13.8653,1.7353,5.5870,6.0997,6.1252,-4.3177,0.2829,4.6821,8.3782,6.5833
2304.6875,-19.7579,-12.0465,7.1622,8.1415,6.4351,-20.1468,-0.5051,6.1930,-3.0135,-24.2565,-1.2277,5.3129,6.0635,5.6549,-12.2173,-0.0614,5.9203,7.0460,5.8385
2308.5938,-19.5961,-10.9428,7.8590,7.8277,6.1732,-21.1202,-0.4228,6.4564,-4.4212,-25.5092,-1.0665,6.7580,7.1554,5.9203,-14.0591,2.2874,8.2540,7.0968,6.1633
2312.5000,-12.4027,-4.1321,9.0806,8.1141,6.6131,-15.0718,2.6872,7.3087,-1.7316,-17.9949,1.8190,9.5109,9.3361,7.0291,-9.8743,6.6277,11.2105,8.7201,7.9698
2316.4062,-2.4695,5.4660,10.7112,9.0004,7.7916,-5.9323,7.3284,8.5450,3.3167,-6.4249,5.7351,12.3683,11.9814,8.6907,-2.5366,11.1452,13.9343,11.1792,10.9433
2320.3125,4.9885,13.4058,12.3408,9.9867,9.2359,1.4097,11.3589,9.5337,7.8244,2.7660,8.6407,13.9937,14.1336,10.2524,3.9472,13.8070,15.5081,13.1693,14.1159
2324.2188,6.5902,15.9282,13.3576,10.4195,10.1865,3.9017,13.0995,9.5854,9.4022,5.0130,9.2858,13.7034,14.9936,10.9832,6.6827,13.4777,15.3877,13.5738,16.3280
2328.1250,2.3280,11.9261,13.2399,9.9846,10.0479,1.7332,12.0661,8.4449,7.4799,-0.0357,7.8202,11.8624,14.3485,10.4481,5.2759,10.5642,13.6947,12.1370,16.8098
2332.0312,-4.9300,3.5082,11.8742,8.9639,8.7620,-2.4072,8.9692,6.5332,3.4460,-8.8020,5.5029,9.6192,12.6556,8.7415,1.5908,6.7561,11.1676,9.6070,15.5451
2335.9375,-11.4575,-5.1797,9.6813,8.0484,6.8542,-5.4919,5.1112,4.7299,-0.3951,-16.3067,3.7557,8.1557,10.7357,6.4388,-1.7881,4.0134,8.7741,7.2515,13.2225
2339.8438,-14.7968,-10.1851,7.4433,7.8367,5.1274,-6.1307,1.6569,3.8225,-2.2832,-19.1613,3.2353,7.9560,9.2902,4.3060,-3.2445,3.4367,7.2114,6.0764,10.8390
2343.7500,-14.7120,-9.7418,5.9199,8.3872,4.2084,-5.0708,-0.7774,3.9976,-1.9076,-17.1388,3.5456,8.5769,8.5614,2.9436,-2.8587,4.7297,6.5959,6.2658,9.2083
2347.6562,-12.6451,-4.9479,5.4789,9.1551,4.2291,-4.1193,-2.0845,4.7261,-0.2616,-12.5986,3.7204,9.0443,8.3292,2.5542,-1.8609,6.5459,6.5171,7.1889,8.6445
2351.5625,-10.3814,1.1147,5.9507,9.3597,4.8153,-4.5147,-2.3826,5.1215,1.2796,-8.5375,3.0505,8.5631,8.1859,2.9195,-1.4202,7.4293,6.3858,7.9154,8.9392
2355.4688,-8.9809,5.1638,6.7701,8.5187,5.3498,-6.0326,-1.7990,4.5245,1.8984,-6.7783,1.6165,7.0340,7.8517,3.5532,-1.7625,6.6961,5.8247,7.8424,9.5695
2359.3750,-8.5699,5.3393,7.2923,6.7763,5.3299,-7.3855,-0.4773,2.9273,1.6491,-7.3839,0.1626,5.0440,7.3076,3.9282,-2.2203,4.7132,4.8497,7.0069,9.9730
2363.2812,-8.7973,1.8656,7.0935,4.8164,4.6182,-7.4234,1.2853,0.9794,1.0762,-9.2907,-0.5331,3.3955,6.6983,3.6909,-2.0207,2.4926,3.7636,5.9222,9.7560
2367.1875,-9.3166,-3.3918,6.1148,3.4474,3.4831,-6.0838,2.9831,-0.4013,0.5937,-11.3155,-0.2645,2.5562,6.1438,2.8034,-1.0665,0.9756,2.8903,5.1318,8.7911
2371.0938,-9.8584,-8.0252,4.6282,3.1563,2.4442,-4.3595,4.0513,-0.5428,0.1804,-12.6994,0.4858,2.4286,5.6393,1.5768,-0.0523,0.5230,2.3621,4.8429,7.2302
2375.0000,-10.0162,-10.1838,3.0983,3.9065,2.0185,-3.4088,4.1418,0.6465,-0.4203,-13.0194,0.9764,2.5563,5.1169,0.5633,0.1303,0.8893,2.0986,4.8848,5.4598
2378.9062,-9.2004,-9.2112,2.0218,5.2590,2.4790,-3.6060,3.3222,2.6804,-1.2689,-11.9376,0.8108,2.5514,4.5801,0.3117,-0.8476,1.5677,1.9444,4.9607,3.9944
2382.8125,-7.0188,-5.6951,1.7838,6.6698,3.7194,-4.2992,2.0501,4.7766,-2.0126,-9.2852,0.2379,2.3869,4.1650,1.0715,-2.4759,2.1668,1.8252,4.9434,3.2977
2386.7188,-3.8118,-1.0671,2.5336,7.7496,5.2828,-4.4028,0.9408,6.2279,-2.0896,-5.4571,-0.0621,2.3512,4.0562,2.6054,-3.8160,2.5513,1.7942,4.9742,3.5782
2390.6250,-0.7590,3.0291,4.1028,8.3523,6.5590,-3.2711,0.4866,6.6786,-1.1566,-1.5916,0.4983,2.7494,4.3309,4.2631,-4.2158,2.7389,1.9579,5.3140,4.6608
2394.5312,0.7635,5.3866,6.0231,8.5208,7.0798,-1.1316,0.8835,6.2152,0.6556,0.9190,2.0047,3.6267,4.8745,5.3306,-3.7128,2.7559,2.3735,6.1018,6.0423
2398.4375,0.2310,5.6995,7.6945,8.3955,6.7730,1.2096,2.0139,5.2777,2.8793,1.4150,4.0361,4.7384,5.4540,5.4767,-2.8087,2.6260,3.0156,7.2274,7.1382
2402.3438,-1.4063,4.6534,8.6664,8.1651,6.0232,3.0530,3.5235,4.4508,5.0868,0.6712,6.0106,5.7602,5.8934,5.0062,-1.8634,2.4770,3.8286,8.4004,7.5980
2406.2500,-2.1655,3.5518,8.8832,8.0420,5.4740,4.2605,4.9262,4.2117,7.1296,0.5734,7.5530,6.5271,6.2026,4.7108,-0.6931,2.5874,4.7889,9.3271,7.4906
2410.1562,-0.3900,3.5993,8.7109,8.2052,5.6563,5.1311,5.7240,4.7201,9.0034,2.7837,8.5823,7.0838,6.5422,5.3626,1.2241,3.2289,5.8944,9.8309,7.2240
2414.0625,3.9204,5.1940,8.6719,8.6922,6.6558,5.8970,5.5753,5.7383,10.4748,7.3152,9.0961,7.5125,7.0457,7.1549,4.0757,4.3716,7.0715,9.8334,7.2311
2417.9688,8.8583,7.6416,9.0211,9.3058,8.0298,6.3686,4.4869,6.7380,10.8779,12.1785,8.9060,7.7107,7.6399,9.4713,7.1662,5.5068,8.0862,9.2523,7.6218
2421.8750,11.7550,9.5039,9.4510,9.6382,9.0375,6.0920,2.9146,7.1624,9.3819,14.5520,7.6229,7.3458,8.0126,11.1689,9.0442,5.8153,8.5633,7.9520,8.0387
2425.7812,10.9789,9.4105,9.1808,9.2440,9.0478,4.8775,1.6330,6.7165,5.6230,12.7475,4.9580,6.0613,7.7643,11.2271,8.3403,4.6604,8.1432,5.8230,7.8285
2429.6875,7.0902,6.8525,7.4411,7.8819,7.8710,3.1834,1.3551,5.5155,0.2181,7.5308,1.1104,3.7901,6.6391,9.3535,4.7612,2.0959,6.6921,2.9343,6.4360
2433.5938,2.4770,2.4760,4.0765,5.6708,5.8154,1.9267,2.2904,3.9937,-5.3136,1.7375,-3.1039,0.9195,4.6783,6.1597,-0.5042,-0.9971,4.4238,-0.3776,3.7744
2437.5000,-0.2914,-2.2876,-0.1525,3.0493,3.4599,1.7937,3.9393,2.6253,-9.2772,-1.6289,-6.5456,-1.8428,2.2049,2.7996,-5.3252,-3.3097,1.8421,-3.5799,0.3402
2441.4062,-0.1926,-5.9888,-3.8331,0.5579,1.3212,2.5989,5.3202,1.6401,-10.7216,-1.4544,-8.3116,-3.8279,-0.3266,0.3151,-7.8041,-3.8321,-0.4721,-6.1406,-2.9972
2445.3125,1.7057,-7.8293,-5.6367,-1.4165,-0.3624,3.2771,5.5355,0.9207,-9.9122,0.8024,-8.1861,-4.7432,-2.5020,-0.8872,-7.3088,-2.4474,-2.1023,-7.7221,-5.4043
2449.2188,3.2591,-7.8540,-5.0992,-2.7776,-1.6186,2.6179,4.3165,0.1416,-8.0238,2.3292,-6.6855,-4.7617,-4.0479,-1.1220,-4.6902,-0.0025,-2.9324,-8.2521,-6.4527
2453.1250,3.0169,-6.6524,-2.9502,-3.6743,-2.5713,0.2426,2.1645,-0.9635,-6.2981,1.1762,-4.6891,-4.3282,-4.8509,-1.0772,-1.5887,2.1905,-3.1223,-7.8688,-6.2594
2457.0312,1.3798,-4.8818,-0.7564,-4.3358,-3.2817,-2.9378,-0.0285,-2.4012,-5.2958,-2.2045,-2.9413,-3.8522,-4.9475,-1.3155,0.6370,3.0915,-2.9692,-6.8330,-5.3598
2460.9375,0.2581,-2.9807,-0.0727,-4.9172,-3.7276,-5.2038,-1.6149,-3.9159,-4.7738,-5.2698,-1.7671,-3.5172,-4.5253,-1.9673,1.6085,2.4399,-2.7564,-5.4978,-4.4232
2464.8438,1.4843,-1.2149,-1.6052,-5.4480,-3.9021,-5.1786,-2.6191,-5.1602,-4.2060,-5.3306,-1.1455,-3.3147,-3.9172,-2.7791,1.8251,0.7473,-2.6670,-4.3278,-3.9764
2468.7500,5.1888,0.1067,-4.8736,-5.8815,-3.9109,-2.8479,-3.6359,-5.8908,-3.4594,-1.6832,-0.9968,-3.2207,-3.5315,-3.4134,1.9453,-1.1492,-2.7777,-3.8593,-4.2519
2472.6562,9.3846,0.5409,-8.5388,-6.1749,-3.9571,0.3062,-5.2702,-6.0556,-3.0359,3.6696,-1.3906,-3.3213,-3.6984,-3.7425,2.0698,-2.6236,-3.0976,-4.5144,-5.1803
2476.5625,11.1349,-0.2966,-11.1527,-6.3307,-4.2161,2.2061,-7.5425,-5.7495,-3.6655,7.2672,-2.4816,-3.7624,-4.4978,-3.9246,1.6030,-3.5301,-3.6042,-6.3172,-6.4749
2480.4688,8.5298,-2.3733,-11.8621,-6.3884,-4.7106,1.5336,-9.7224,-5.1328,-5.5827,6.5358,-4.2322,-4.5613,-5.6831,-4.2416,-0.2002,-4.0823,-4.2575,-8.7052,-7.7465
2484.3750,2.1168,-5.0271,-10.6894,-6.4014,-5.2969,-1.3763,-10.7435,-4.4073,-8.0962,1.5742,-6.1798,-5.4537,-6.7761,-4.8474,-3.4346,-4.5076,-4.9925,-10.6413,-8.6153
2488.2812,-5.2028,-7.1440,-8.3221,-6.4302,-5.7756,-4.7132,-9.9261,-3.8502,-9.8497,-4.8516,-7.4946,-5.9362,-7.2983,-5.6225,-7.1374,-4.7730,-5.7051,-11.0652,-8.8111
2492.1875,-9.7751,-7.7097,-5.6455,-6.5435,-6.0297,-6.3326,-7.4990,-3.8045,-9.6451,-9.0733,-7.3619,-5.5187,-7.0041,-6.2270,-9.6647,-4.5907,-6.2460,-9.4725,-8.2543
2496.0938,-9.2996,-6.4279,-3.3497,-6.7966,-6.0750,-5.1186,-4.5502,-4.5385,-7.2645,-8.8315,-5.4796,-4.0403,-5.9799,-6.3081,-9.6855,-3.6842,-6.4417,-6.2739,-7.0901
2500.0000,-4.1739,-4.0131,-1.8052,-7.1794,-5.9967,-1.6979,-2.4327,-6.0196,-3.7158,-4.6327,-2.3551,-1.8399,-4.5716,-5.7285,-7.1622,-2.1042,-6.1581,-2.6780,-5.6502
2503.9062,2.6723,-1.9265,-1.1619,-7.5773,-5.8550,1.9207,-2.0196,-7.7844,-0.7290,0.6296,0.8067,0.3370,-3.2160,-4.6929,-3.6263,-0.3555,-5.4035,-0.1217,-4.3448
2507.8125,7.2940,-1.6439,-1.4803,-7.8066,-5.6711,3.5211,-3.2807,-9.0779,0.1712,3.4210,2.5983,1.6599,-2.2950,-3.7135,-1.4572,0.7781,-4.4194,0.4387,-3.5268
2511.7188,6.7279,-3.8265,-2.7357,-7.7308,-5.5112,1.9278,-5.4122,-9.2599,-1.5544,1.5342,2.0527,1.5925,-2.0717,-3.4267,-2.5003,0.6299,-3.6723,-1.0241,-3.3855
2515.6250,0.4413,-7.8420,-4.6977,-7.3824,-5.5659,-2.3969,-7.3770,-8.2374,-5.2411,-4.8295,-0.8736,0.1456,-2.6720,-4.3128,-6.8198,-0.9464,-3.6803,-3.6580,-3.9093
2519.5312,-9.4073,-11.9303,-6.8315,-6.9740,-6.0870,-7.6784,-8.4758,-6.5948,-9.3964,-13.2954,-5.1997,-2.1085,-4.0372,-6.4099,-12.3827,-3.3970,-4.7059,-6.2105,-4.9075
2523.4375,-18.9186,-13.9850,-8.3749,-6.7434,-7.1583,-11.7889,-8.6049,-5.2639,-12.3786,-20.5227,-9.2525,-4.2549,-5.8387,-9.1457,-15.9735,-5.6342,-6.4745,-7.6303,-6.0593
2527.3438,-24.1182,-12.6067,-8.6181,-6.7193,-8.4522,-13.2362,-8.1094,-4.9010,-13.0252,-23.6506,-11.3102,-5.3927,-7.4429,-11.4155,-14.9229,-6.5043,-8.1305,-7.4655,-6.9644
2531.2500,-22.6111,-7.9053,-7.2521,-6.5927,-9.2095,-11.6732,-7.4051,-5.3960,-11.0207,-21.3533,-10.3128,-4.9942,-8.0520,-11.9639,-8.7042,-5.3564,-8.5562,-5.9088,-7.2062
2535.1562,-14.5706,-1.6043,-4.5786,-5.8478,-8.5684,-7.7868,-6.6545,-5.8931,-6.9731,-14.2324,-6.3566,-3.1293,-7.0452,-9.9733,0.5460,-2.4331,-6.9579,-3.5692,-6.4554
2539.0625,-2.6940,3.6831,-1.4378,-4.1273,-6.1142,-2.8042,-5.6979,-5.3684,-2.2385,-4.5690,-0.7437,-0.4575,-4.3746,-5.5925,8.9629,1.1453,-3.4137,-1.1701,-4.6143
2542.9688,8.8456,5.7113,1.1288,-1.6077,-2.3055,2.0084,-4.2483,-3.3956,1.4912,4.4198,4.4913,2.0342,-0.7586,-0.0872,12.8961,3.8523,0.9729,0.6712,-1.9437
2546.8750,16.0327,3.7653,2.3242,0.9114,1.5571,5.6238,-2.1953,-0.5613,2.7991,9.6452,7.4274,3.4594,2.5183,4.5673,10.8040,4.4947,4.4827,1.5572,0.9256
2550.7812,16.5645,-0.9114,1.9345,2.3463,3.8969,7.3303,0.1866,1.8020,1.1929,9.2768,7.1201,3.4415,4.1664,6.5330,4.0363,2.8501,5.5926,1.3762,3.1633
2554.6875,10.6824,-5.7174,0.4095,1.9534,3.6814,6.7892,2.2672,2.4318,-2.5205,3.5462,4.0594,2.2911,3.5317,4.9949,-3.9364,-0.1609,3.7607,0.3597,4.0615
2558.5938,0.9410,-8.0461,-1.3442,-0.1363,1.0221,4.1859,3.3347,0.9708,-6.4409,-5.1882,-0.0490,0.8360,0.9530,0.6088,-9.3960,-2.9099,-0.2647,-0.9148,3.3677
2562.5000,-8.9435,-6.6585,-2.3615,-2.8445,-2.8219,0.3816,2.9826,-1.7410,-8.4073,-13.2991,-3.1144,-0.0258,-2.3834,-4.7618,-10.2784,-3.9064,-4.7994,-1.6659,1.4461
2566.4062,-15.6143,-2.2946,-2.0342,-4.6429,-6.0580,-3.1688,1.3959,-4.1310,-7.1032,-17.4034,-3.6939,0.1906,-5.0175,-8.9060,-7.0461,-2.5974,-8.0447,-1.2153,-0.8452
2570.3125,-17.2811,2.8329,-0.3677,-4.3676,-7.2463,-4.8933,-0.6568,-4.8202,-2.8175,-15.8509,-1.6755,1.3182,-5.8950,-10.2741,-2.1228,0.3409,-8.9148,0.6565,-2.5215
2574.2188,-14.1389,6.3502,2.0335,-1.8772,-5.9635,-3.8418,-2.1811,-3.4221,2.6398,-9.4300,1.7648,2.6840,-4.7885,-8.6121,1.6709,3.3967,-7.4306,3.5157,-2.9036
2578.1250,-7.9476,7.0461,4.2500,1.8411,-2.9062,-0.2852,-2.5090,-0.7203,6.8891,-0.9056,4.8987,3.5422,-2.2731,-4.9264,2.7005,5.0742,-4.5206,6.4024,-1.8959
2582.0312,-1.1040,5.4235,5.4767,5.1870,0.5638,4.2588,-1.7271,1.8472,8.2723,6.3633,6.4294,3.5163,0.6593,-0.8635,1.2276,4.6953,-1.4234,8.2594,0.0233
2585.9375,4.2979,3.1979,5.3960,6.7815,3.1248,7.7008,-0.6744,3.0338,6.7112,9.9702,6.1376,2.7723,3.0825,2.1094,-1.0471,2.6812,0.9226,8.4420,2.0702
2589.8438,7.0318,2.1267,4.3102,6.1418,4.0610,8.4256,-0.4373,2.4299,3.6152,9.3515,4.8204,1.8345,4.4586,3.2874,-2.1984,0.1777,2.1761,7.0240,3.5259
2593.7500,6.8095,2.9385,2.9648,3.8409,3.4430,6.0935,-1.6047,0.5635,0.9201,5.6232,3.6065,1.1978,4.6983,2.8357,-1.2646,-1.6967,2.5033,4.7244,4.0184
2597.6562,4.0013,5.0024,2.1558,1.1173,1.9252,1.7072,-3.7655,-1.5173,-0.1083,0.6098,3.1289,1.0185,4.0340,1.4799,1.2537,-2.4788,2.2721,2.5136,3.6048
2601.5625,-0.7203,6.8530,2.3310,-0.7929,0.3474,-3.0712,-5.6373,-2.8520,0.4555,-4.2428,3.1123,1.0906,2.8530,0.0350,3.7709,-2.4757,1.7849,1.1380,2.6617
2605.4688,-6.5805,7.1435,3.3934,-1.2151,-0.6366,-6.8638,-5.8227,-2.9997,1.4417,-8.3884,2.6487,1.0946,1.5857,-0.9535,4.5663,-2.3480,1.2020,0.8314,1.6776
2609.3750,-12.6822,5.3947,4.7912,-0.2306,-0.7649,-9.1444,-3.7459,-2.1157,1.5211,-11.9120,0.9595,0.9032,0.6428,-1.3234,2.7557,-2.5035,0.6256,1.3332,1.0500
2613.2812,-17.8931,2.1332,5.8131,1.5079,-0.1830,-10.1076,-0.1369,-0.7398,0.1668,-14.8152,-1.8922,0.6977,0.3369,-1.2046,-1.2023,-2.7635,0.1929,2.1352,0.9503
2617.1875,-20.8771,-1.5412,5.9100,3.1552,0.6822,-10.0715,3.3109,0.5077,-2.0020,-16.5054,-4.8568,0.7986,0.7615,-0.8512,-5.6855,-2.5450,0.0547,2.7601,1.2716
2621.0938,-20.4442,-4.5851,4.8803,4.0240,1.3266,-8.9979,4.9398,1.1571,-3.6904,-15.9652,-6.4600,1.3450,1.6852,-0.5093,-8.6797,-1.4203,0.2456,2.9084,1.6614
2625.0000,-16.1643,-6.4394,2.8763,3.7795,1.3827,-6.5833,4.1461,1.0023,-3.8581,-12.5459,-5.7337,2.0824,2.5679,-0.3556,-8.7993,0.3758,0.5698,2.4509,1.6449
2628.9062,-8.9181,-7.0922,0.2992,2.4745,0.7780,-2.8504,1.7333,0.1293,-2.4591,-6.8103,-2.9063,2.4488,2.7635,-0.4784,-6.0849,1.9038,0.6356,1.3650,0.8308
2632.8125,-0.9463,-6.8829,-2.3210,0.4844,-0.2341,1.3109,-0.6448,-1.1149,-0.5004,-0.7215,0.6196,1.9327,1.8472,-0.8667,-2.1453,2.0402,0.0681,-0.2738,-0.8597
2636.7188,4.8555,-6.2619,-4.4166,-1.6154,-1.2016,4.2410,-1.5810,-2.2278,0.6037,3.1263,3.0221,0.4643,-0.1010,-1.4084,0.5388,0.2510,-1.2186,-2.2299,-3.0579
2640.6250,6.1939,-5.6413,-5.4816,-3.2255,-1.7205,4.3519,-0.8076,-2.7503,-0.0642,2.8710,3.0908,-1.4465,-2.4474,-1.9266,-0.0909,-2.9051,-2.8783,-4.0688,-5.0244
2644.5312,2.5457,-5.3256,-5.2201,-3.9425,-1.6792,1.1839,0.7073,-2.5049,-2.3601,-1.5123,0.8876,-2.9555,-4.2678,-2.2710,-4.4163,-5.9361,-4.2454,-5.2561,-5.9670
2648.4375,-4.4987,-5.4540,-3.7158,-3.7504,-1.3578,-4.1139,1.4971,-1.7391,-5.2051,-8.1328,-2.3636,-3.3821,-4.8168,-2.4320,-10.6853,-7.2121,-4.6764,-5.4038,-5.4704
2652.3438,-12.0363,-5.9384,-1.5013,-3.0650,-1.3030,-9.3150,0.6359,-1.0392,-7.2854,-14.2579,-5.0626,-2.6429,-3.9542,-2.6013,-15.7584,-5.9404,-3.9298,-4.5313,-3.7936
2656.2500,-17.4011,-6.4599,0.5910,-2.5475,-2.0243,-12.3614,-1.6307,-1.0052,-7.8429,-17.8758,-6.1629,-1.3267,-2.2692,-3.1085,-16.7697,-2.7031,-2.3505,-3.1358,-1.8157
2660.1562,-19.5261,-6.5887,1.8002,-2.7322,-3.6672,-12.4762,-4.0615,-1.8481,-7.0343,-18.7113,-5.6515,-0.3350,-0.7921,-4.2236,-12.7846,0.8185,-0.7198,-1.9633,-0.5955
2664.0625,-19.2474,-6.0008,1.8536,-3.6628,-5.8513,-10.3799,-5.2309,-3.1687,-5.6638,-18.0201,-4.3194,-0.3026,-0.4233,-5.9185,-5.4243,2.8090,0.1647,-1.5721,-0.7617
2667.9688,-18.3693,-4.6725,1.1578,-4.7816,-7.7787,-7.5229,-4.4056,-4.1042,-4.5305,-17.3516,-3.0650,-1.1694,-1.3934,-7.7363,1.9913,2.3917,-0.0580,-1.9603,-2.0977
2671.8750,-18.1807,-2.9305,0.5852,-5.1964,-8.5795,-4.9883,-1.9283,-3.8053,-3.8925,-17.2394,-2.2812,-2.1970,-3.0853,-8.9001,6.2960,0.1311,-1.1060,-2.5307,-3.6121
2675.7812,-18.5173,-1.3387,0.9206,-4.2207,-7.7326,-2.9392,1.0644,-1.9833,-3.4426,-16.8449,-1.7707,-2.4477,-4.3589,-8.6646,6.1601,-2.3716,-2.2354,-2.4711,-4.0991
2679.6875,-18.0651,-0.5085,2.2835,-1.8761,-5.3521,-1.0009,3.3216,0.8123,-2.7876,-14.8635,-1.1995,-1.4373,-4.2215,-6.7578,2.5405,-3.5454,-2.7119,-1.3400,-2.8820
2683.5938,-15.6594,-0.9374,3.9153,0.9760,-2.1902,0.8437,4.0893,3.3898,-2.0236,-10.9868,-0.6628,0.4615,-2.4570,-3.6554,-2.3192,-2.8859,-2.2800,0.5273,-0.2807
2687.5000,-11.5332,-2.8984,4.5293,3.0098,0.6604,1.7231,3.3302,4.5086,-1.8945,-6.6977,-0.8361,2.1516,0.1792,-0.4778,-6.5490,-1.2675,-1.3197,2.0992,2.5040
2691.4062,-7.4681,-6.3249,3.0771,3.1412,2.2326,0.3142,1.5460,3.5500,-3.3180,-4.5919,-2.5067,2.4387,2.3513,1.5042,-9.7376,-0.3005,-0.5737,2.2244,4.0454
2695.3125,-5.6225,-10.6684,-0.5089,1.1628,2.1043,-3.9806,-0.5679,0.8844,-6.5644,-6.5396,-5.7969,0.7823,2.9086,1.5240,-12.6845,-1.1517,-0.6133,0.3706,3.4952
2699.2188,-6.8750,-14.8280,-5.0693,-2.0817,0.5641,-10.0503,-2.3894,-2.2816,-10.7047,-11.9939,-9.6997,-2.2986,1.5680,-0.2384,-16.1024,-3.6304,-1.4019,-2.9459,1.0500
2703.1250,-9.9802,-17.3441,-8.6738,-5.1101,-1.5565,-15.2090,-3.4731,-4.5009,-13.8435,-17.8222,-12.3915,-5.4438,-0.9130,-2.7136,-19.3922,-6.2010,-2.2726,-6.3471,-2.1936
2707.0312,-12.2876,-16.9470,-9.5716,-6.5724,-3.2977,-16.5909,-3.5640,-4.8000,-14.1272,-20.0406,-12.2400,-7.1867,-3.1862,-4.5058,-20.5798,-6.9644,-2.3615,-8.3182,-4.8761
2710.9375,-11.5998,-13.2789,-7.1164,-5.9320,-4.0107,-12.9666,-2.6195,-3.1257,-10.9330,-16.4235,-8.8838,-6.7698,-4.1019,-4.6469,-17.6107,-4.9791,-1.2193,-8.0405,-6.0867
2714.8438,-7.8171,-7.3558,-2.1452,-3.6670,-3.5890,-5.7199,-0.8556,-0.2990,-5.4266,-8.1958,-3.6237,-4.5458,-3.3374,-3.0910,-10.0987,-1.0145,0.8270,-5.8193,-5.7140
2718.7500,-3.0911,-1.3450,3.4118,-0.8996,-2.3816,1.7825,1.2646,2.4725,-0.0250,0.4915,1.2199,-1.7242,-1.4764,-0.6447,-0.1721,2.8232,2.8376,-2.8501,-4.2750
2722.6562,-0.2774,2.3962,7.4719,1.2850,-0.8790,6.1071,3.1677,4.2291,2.9740,5.1066,3.6372,0.3671,0.4749,1.6052,8.3675,4.4092,3.8658,-0.4839,-2.4235
2726.5625,-0.7669,2.5632,8.7775,2.4004,0.6015,5.7444,4.3996,4.6861,2.7427,3.6712,3.1052,1.0351,1.7742,2.9766,12.1565,3.0141,3.6015,0.5331,-0.5292
2730.4688,-3.3003,-0.3190,7.3927,2.6751,2.0130,1.9019,4.8160,4.2378,0.3661,-1.9023,0.8433,0.5326,2.3548,3.5291,10.2755,-0.1342,2.5974,0.3790,1.3806
2734.3750,-4.7115,-4.1315,4.5023,2.7118,3.4143,-2.3603,4.6094,3.5842,-1.9260,-7.0126,-1.0196,-0.2328,2.7039,3.8445,4.7886,-2.5562,1.9008,-0.1209,3.3401
2738.2812,-2.1497,-6.3394,1.6903,2.9699,4.7025,-4.0249,4.1539,3.2451,-2.2243,-7.3314,-0.8123,-0.3560,3.3467,4.4469,-0.5658,-2.0756,2.3297,-0.1269,5.1173
2742.1875,4.7705,-5.4138,0.1419,3.4455,5.4965,-1.8127,3.7763,3.2717,-0.1158,-1.5583,1.6745,0.4908,4.3551,5.3144,-2.6591,1.7697,3.8957,0.6750,6.1663
2746.0938,13.4322,-1.6138,0.1958,3.7475,5.3161,3.3071,3.6024,3.3203,3.2030,7.8323,5.1750,1.9220,5.2618,5.8656,-0.7283,7.3675,5.7848,1.9672,5.9496
2750.0000,19.7130,3.3409,1.4169,3.4758,3.9643,8.9240,3.5566,2.9999,5.8965,16.2562,7.8715,3.1786,5.4399,5.4364,3.4776,11.9589,6.9192,3.1353,4.4032
2753.9062,20.5210,7.4352,3.0379,2.5924,1.8244,12.6327,3.4787,2.2265,6.8106,19.8882,8.5865,3.6651,4.6455,3.8841,7.1120,13.2648,6.7119,3.7476,2.1636
2757.8125,15.6776,9.5400,4.4349,1.5014,-0.2006,13.1854,3.2531,1.3176,6.1937,17.8147,7.4464,3.3089,3.2929,1.8400,8.1351,10.7974,5.4828,3.8180,0.3218
2761.7188,7.9481,9.8317,5.3544,0.7767,-1.1452,10.8006,2.8651,0.7569,5.3405,12.1727,5.6343,2.5363,2.2336,0.3856,6.4311,6.0796,4.2442,3.6920,-0.1876
2765.6250,1.3058,9.2554,5.8278,0.7469,-0.5720,6.7044,2.3761,0.8017,5.4800,6.4269,4.4915,1.9408,2.1872,0.3561,3.5336,1.7041,4.0079,3.6986,0.8303
2769.5312,-1.3497,8.5388,5.9370,1.2509,1.1064,2.3908,1.8657,1.2372,6.7720,3.1324,4.6345,1.9141,3.2371,1.7679,1.3605,-0.1347,5.0976,3.8720,2.6874
2773.4375,0.4263,7.5541,5.6624,1.7540,2.8306,-0.9381,1.3924,1.4836,8.1653,2.6913,5.6717,2.4784,4.7603,3.7896,0.9556,1.2513,6.9361,3.9664,4.2330
2777.3438,4.8393,5.5167,4.9373,1.7478,3.5308,-2.5950,0.9870,1.0103,8.2066,3.7260,6.6275,3.3722,5.8402,5.2862,2.0678,4.8679,8.4327,3.7278,4.5740
2781.2500,9.2596,1.8381,3.8326,1.1405,2.7909,-2.4104,0.6603,-0.2356,6.1790,4.5053,6.6914,4.2488,5.8604,5.5495,3.6755,8.7550,8.6776,3.1741,3.6195
2785.1562,11.7453,-3.0579,2.6776,0.3478,1.0973,-0.6764,0.4109,-1.7138,2.7157,4.2399,5.7350,4.8135,4.8582,4.6967,4.8907,11.0636,7.4620,2.6317,2.0861
2789.0625,11.7725,-7.6252,1.9659,0.0013,-0.5053,1.9352,0.2315,-2.6167,-0.5599,3.3734,4.2839,4.8374,3.4062,3.4727,5.5151,10.8682,5.3015,2.4784,0.9743
2792.9688,9.9846,-9.9357,2.0705,0.4715,-1.1194,4.5486,0.1222,-2.4447,-2.0950,2.8767,3.0532,4.1299,2.1439,2.6352,5.9218,8.3780,3.0110,2.7962,0.8795
2796.8750,7.4489,-8.7902,2.9623,1.5414,-0.5842,6.3752,0.0993,-1.4316,-1.4012,3.2880,2.4462,2.5931,1.3289,2.3982,6.5048,4.6142,1.1867,3.2235,1.6083
2800.7812,5.0674,-4.4534,4.1484,2.4777,0.4517,7.0066,0.1787,-0.4895,0.7089,4.2990,2.3771,0.3703,0.7347,2.3467,7.2285,0.8670,-0.0381,3.1565,2.3477
2804.6875,3.4360,1.4601,4.9076,2.4744,1.0138,6.5277,0.3359,-0.6533,2.7560,5.1293,2.4798,-2.0391,-0.0576,1.8623,7.6436,-1.7742,-0.8431,2.1789,2.2495
2808.5938,2.9765,6.8402,4.6892,1.1890,0.4967,5.3724,0.4781,-2.3645,3.6001,5.2694,2.4710,-3.8668,-1.2268,0.7055,7.3000,-2.6925,-1.3774,0.4121,1.0203
2812.5000,3.9829,10.1053,3.4257,-0.9853,-0.9100,4.0326,0.4775,-5.0725,3.0963,4.9268,2.3560,-4.4044,-2.4878,-0.7065,6.1738,-1.8393,-1.5439,-1.4821,-0.8798
2816.4062,6.4354,10.7887,1.5635,-3.0987,-2.3515,2.8392,0.2701,-7.4564,2.0009,4.8328,2.3443,-3.4114,-3.2517,-1.5505,4.7504,0.2990,-1.0979,-2.6715,-2.5410
2820.3125,9.7779,9.4487,-0.1924,-4.1786,-2.8890,1.9554,-0.0527,-8.1698,1.2930,5.6245,2.5950,-1.3237,-3.0480,-1.1880,3.7173,2.8658,0.0377,-2.6580,-3.1866
2824.2188,12.9861,7.1250,-1.2437,-3.7910,-2.1302,1.5246,-0.2607,-6.6594,1.4718,7.3464,3.0453,0.9186,-1.8928,0.3450,3.5299,4.9392,1.5296,-1.5791,-2.6408
2828.1250,15.0355,4.7808,-1.3495,-2.2879,-0.4850,1.7770,-0.1455,-3.5419,2.3260,9.4678,3.4765,2.3594,-0.3313,2.3126,4.1794,5.9025,2.7017,-0.1151,-1.3961
2832.0312,15.5059,3.0402,-0.6514,-0.5980,1.1050,2.9474,0.2727,-0.2901,3.2579,11.3502,3.7490,2.5372,0.8723,3.7342,5.2934,5.7005,2.9048,0.9244,-0.2736
2835.9375,14.8599,2.2151,0.4758,0.3060,1.7617,5.0411,0.6707,1.5882,3.8149,12.7209,3.9758,1.6900,1.1795,3.9867,6.4231,4.8043,1.9347,1.0525,0.0734
2839.8438,14.1059,2.3970,1.6003,-0.0593,1.1920,7.6386,0.6000,1.3811,3.9716,13.7196,4.4458,0.5301,0.5577,3.1334,7.2541,3.8639,0.1894,0.3118,-0.5000
2843.7500,13.9973,3.4274,2.3342,-1.4606,-0.1888,9.9215,-0.1593,-0.4825,3.9620,14.4623,5.3136,-0.2502,-0.5702,1.7728,7.5943,3.2535,-1.5607,-0.8589,-1.6243
2847.6562,14.3010,4.7800,2.3668,-3.1377,-1.5774,10.9332,-1.3247,-2.7597,3.8572,14.5030,6.2910,-0.4016,-1.6383,0.5537,7.2206,2.8223,-2.6438,-1.9652,-2.6942
2851.5625,13.6936,5.5680,1.5125,-4.2767,-2.3134,9.9305,-2.1783,-4.1689,3.2916,12.7117,6.6176,-0.2016,-2.2887,-0.2758,5.8070,2.0500,-2.8815,-2.7566,-3.2305
2855.4688,10.4761,4.8466,-0.1853,-4.4793,-2.2795,6.6522,-2.0116,-4.1323,1.6149,7.8228,5.4176,-0.1747,-2.5403,-0.9768,3.0845,0.5174,-2.6507,-3.3015,-3.1199
2859.3750,3.7559,2.1482,-2.3636,-3.9622,-1.9404,1.4377,-0.6777,-3.0569,-1.6034,-0.5877,2.2746,-0.6769,-2.7077,-2.0435,-0.8334,-1.6508,-2.5910,-3.8322,-2.6360
2863.2812,-5.6082,-2.0649,-4.3897,-3.3943,-2.0278,-4.7674,1.1614,-2.0198,-6.0796,-11.3078,-2.3344,-1.6390,-3.1631,-3.7724,-5.2149,-3.7249,-3.1705,-4.5050,-2.2783
2867.1875,-14.9475,-6.3792,-5.6118,-3.4805,-3.0776,-10.4942,2.3463,-2.0788,-10.7118,-21.4800,-7.0584,-2.6241,-4.1061,-5.9919,-8.8142,-4.7895,-4.4016,-5.2476,-2.5303
2871.0938,-20.7986,-8.9685,-5.7036,-4.5389,-5.0883,-13.9993,1.9511,-3.6284,-13.9823,-27.5742,-10.2062,-3.1211,-5.4610,-8.1202,-10.3648,-4.3851,-5.8716,-5.7812,-3.6384
2875.0000,-20.5743,-8.4706,-4.8738,-6.3026,-7.4787,-13.7804,-0.0435,-6.1606,-14.6504,-26.9722,-10.5404,-2.8508,-6.9169,-9.4871,-9.2329,-2.9154,-7.0301,-5.7750,-5.4771
2878.9062,-14.0450,-4.7369,-3.7543,-8.0469,-9.3538,-9.3023,-2.6274,-8.5441,-12.3390,-19.3894,-7.9058,-1.8885,-8.0536,-9.6912,-5.8532,-1.4971,-7.5162,-5.0230,-7.5407
2882.8125,-3.7897,0.9754,-2.9922,-8.9623,-9.9341,-1.5951,-4.3314,-9.6395,-7.7084,-7.3529,-3.3393,-0.5650,-8.4810,-8.7789,-1.6474,-1.2980,-7.3103,-3.5479,-9.0831
2886.7188,5.7547,6.5061,-2.8020,-8.5679,-8.9358,6.7576,-4.1467,-8.9076,-2.1672,4.6328,1.4032,0.7389,-7.9567,-7.1751,1.5958,-2.7744,-6.6411,-1.5993,-9.3894
2890.6250,10.2978,9.7527,-2.8023,-6.9473,-6.7199,12.5066,-2.1871,-6.6881,2.6874,11.9506,4.6533,1.7560,-6.4672,-5.4472,2.5836,-5.3122,-5.7531,0.4276,-8.0957
2894.5312,7.7971,9.6063,-2.2858,-4.6902,-4.1383,13.2354,0.3591,-4.0189,5.6175,11.9349,5.5427,2.3807,-4.2606,-4.0542,1.1664,-7.5245,-4.7213,2.1124,-5.4109
2898.4375,-0.4498,6.4038,-0.7618,-2.5814,-2.1449,8.6937,1.9631,-2.1025,6.0814,5.1221,4.2707,2.6368,-1.8064,-3.1948,-1.5972,-8.0378,-3.4489,3.1343,-2.1001
2902.3438,-10.3751,1.6944,1.6017,-1.2131,-1.3565,1.1117,1.6928,-1.7054,4.3018,-4.9827,1.8374,2.6357,0.3330,-2.7909,-4.0129,-6.2834,-1.8376,3.3756,0.8066
2906.2500,-17.1643,-2.5348,3.9670,-0.7265,-1.7784,-5.8419,-0.2461,-2.7953,1.1135,-13.5794,-0.5563,2.5538,1.6897,-2.5837,-4.6580,-2.8167,0.0031,2.9678,2.4646
2910.1562,-17.7049,-4.7725,5.2845,-0.8147,-2.8376,-8.9681,-2.6820,-4.5988,-2.3314,-16.8936,-2.0857,2.5950,2.0622,-2.2895,-3.1245,1.0070,1.6751,2.2467,2.5944
2914.0625,-12.1425,-4.5930,4.9303,-0.9634,-3.7102,-7.2293,-4.2036,-6.0376,-4.9318,-13.9757,-2.5665,2.9042,1.5875,-1.7606,-0.1864,3.7753,2.6226,1.6126,1.5799
2917.9688,-3.6888,-2.6919,3.1029,-0.7788,-3.7669,-2.2237,-3.9572,-6.3038,-5.9956,-7.0441,-2.3344,3.4561,0.6707,-1.0822,2.6861,4.7288,2.4192,1.3480,0.2297
2921.8750,3.1980,-0.3838,0.7194,-0.2056,-2.8940,2.8293,-2.0535,-5.2619,-5.4743,-0.1992,-1.8958,4.0124,-0.1960,-0.5484,4.1596,4.0454,1.0455,1.4894,-0.6607
2925.7812,5.2125,1.1373,-1.1114,0.4821,-1.5125,4.9501,0.5801,-3.4621,-3.9546,2.7904,-1.6025,4.2213,-0.6360,-0.5030,3.7170,2.5981,-1.0195,1.8318,-0.6939
2929.6875,1.8214,1.3694,-1.6894,0.8947,-0.2957,2.9827,2.7272,-1.7723,-2.3662,0.4310,-1.5305,3.8337,-0.5236,-1.1105,1.8012,1.3868,-2.9736,2.0731,0.0032
2933.5938,-4.7469,0.6228,-1.0298,0.7981,0.2346,-1.9788,3.4570,-0.8573,-1.5073,-5.8524,-1.5687,2.8944,-0.0011,-2.1942,-0.6001,0.9959,-4.0606,2.0094,0.9491
2937.5000,-11.0008,-0.3226,0.2711,0.2672,-0.0086,-7.4336,2.4830,-0.8206,-1.6216,-12.6496,-1.5888,1.7514,0.6118,-3.2641,-2.5976,1.3566,-3.9399,1.6569,1.6362
2941.4062,-14.1731,-0.7701,1.4663,-0.3661,-0.6741,-10.9436,0.2151,-1.2186,-2.2728,-16.4815,-1.5450,0.8440,0.9667,-3.7526,-3.8282,1.8864,-2.8480,1.2234,1.8085
2945.3125,-13.5168,-0.5128,2.0840,-0.7224,-1.2233,-11.3233,-2.4475,-1.4140,-2.6166,-15.5993,-1.4521,0.4042,0.8365,-3.3323,-4.4284,1.8789,-1.4537,0.9539,1.5470
2949.2188,-10.2778,0.1399,2.1102,-0.5942,-1.2547,-8.9676,-4.4856,-1.0202,-1.9407,-10.7177,-1.3018,0.2928,0.2178,-2.1114,-4.6701,0.9205,-0.4818,0.9661,1.1645
2953.1250,-6.5843,0.6815,1.8884,-0.0320,-0.6962,-5.3374,-5.1788,-0.1325,-0.1584,-4.3978,-1.0248,0.1168,-0.6482,-0.5683,-4.6186,-0.8671,-0.3175,1.1909,1.0174
2957.0312,-4.1008,0.8101,1.8663,0.7466,0.2360,-2.0739,-4.4280,0.8022,2.0564,0.4479,-0.5442,-0.4378,-1.3525,0.7466,-4.1124,-2.8530,-0.8192,1.4537,1.3564
2960.9375,-3.2755,0.6136,2.3582,1.5440,1.2468,-0.2698,-2.8133,1.3705,3.6112,2.0380,0.1295,-1.3004,-1.4782,1.5468,-3.0588,-4.1756,-1.4404,1.6275,2.2671
2964.8438,-3.4795,0.4153,3.4195,2.3226,2.1739,-0.1765,-1.2885,1.5435,3.6382,0.4287,0.8616,-1.9866,-0.7871,1.9610,-1.7446,-4.1516,-1.5745,1.7396,3.6734
2968.7500,-3.7225,0.4249,4.8333,3.1991,3.0563,-1.3163,-0.6149,1.7288,2.0635,-2.8034,1.4661,-1.9014,0.6525,2.3984,-0.8243,-2.6382,-0.9039,1.9538,5.3543
2972.6562,-3.3510,0.4903,6.1781,4.3032,4.0349,-2.8241,-0.8531,2.4734,-0.2570,-5.5824,1.8397,-0.7793,2.4723,3.2315,-0.9142,-0.1711,0.4559,2.4461,6.9649
2976.5625,-2.3174,0.1706,6.9637,5.6154,5.1782,-3.8523,-1.2812,4.0260,-1.9508,-6.4314,2.0425,1.0585,4.1579,4.5193,-2.0799,2.2207,2.0816,3.2686,8.0945
2980.4688,-1.0086,-0.8974,6.8272,6.9093,6.3736,-3.9320,-0.8763,6.0795,-1.8754,-5.0917,2.2472,2.8380,5.2796,5.9596,-3.6507,3.4742,3.5256,4.2990,8.3949
2984.3750,0.0901,-2.6078,5.7342,7.8513,7.3606,-3.1812,0.9023,7.8970,0.2313,-2.4388,2.5873,3.7936,5.6781,7.0862,-4.5801,3.0216,4.5526,5.3036,7.7499
2988.2812,0.6327,-4.2779,4.0682,8.1953,7.8793,-2.2384,3.5702,8.7564,3.5857,0.1506,3.0307,3.6513,5.5046,7.5577,-4.1449,1.1124,5.1830,6.0633,6.3928
2992.1875,0.4933,-4.9446,2.5051,7.9409,7.8280,-1.8758,5.7658,8.4195,6.7874,1.5975,3.3987,2.8054,5.1014,7.3360,-2.4728,-1.2648,5.5489,6.4749,4.8716
2996.0938,-0.2002,-3.8936,1.6840,7.3493,7.3290,-2.4430,6.0858,7.3015,8.5944,1.6809,3.5377,2.0668,4.8036,6.6548,-0.4724,-2.8495,5.7058,6.5750,3.8368
3000.0000,-1.0044,-1.0830,1.8515,6.8045,6.6699,-3.4788,4.0832,6.2192,8.5886,1.1164,3.5136,2.1562,4.7848,5.8392,0.8196,-2.7286,5.5619,6.4929,3.7404
3003.9062,-1.1554,2.8082,2.7151,6.6083,6.1642,-3.8232,0.7220,5.8795,7.3411,1.1430,3.6568,3.2814,5.0253,5.1333,1.0018,-0.7726,4.9817,6.3818,4.6057
3007.8125,0.2124,6.7136,3.6366,6.8331,6.0169,-2.2820,-2.0922,6.4454,5.9959,2.8275,4.3795,5.0635,5.3939,4.6534,0.5870,2.3395,3.9755,6.3659,6.0009
3011.7188,3.5857,9.6502,4.0579,7.3110,6.2579,1.5069,-2.6498,7.4587,5.5439,6.4198,5.8617,6.8261,5.7659,4.4592,0.5569,5.5002,2.8162,6.5094,7.2429
3015.6250,8.5627,11.0297,3.8712,7.7481,6.7597,6.5780,-0.5009,8.1560,6.2386,11.0787,7.8237,8.0179,6.0948,4.6343,1.5162,7.7214,1.9774,6.7930,7.7286
3019.5312,13.7133,10.6810,3.4676,7.8871,7.3136,10.9343,3.2708,7.9596,7.5019,15.1352,9.5798,8.4864,6.4138,5.2747,3.1167,8.5429,1.9219,7.0977,7.2285
3023.4375,17.0720,8.7024,3.4265,7.6289,7.7229,12.5660,6.7433,6.8256,8.3556,16.8193,10.3879,8.4612,6.7994,6.3857,4.2539,8.1212,2.8751,7.2282,6.0025
3027.3438,17.1294,5.3788,4.0821,7.0664,7.8801,10.6275,8.3370,5.2464,8.0864,15.1414,9.9084,8.3290,7.3467,7.7884,3.9572,7.0259,4.7263,7.0070,4.6940
3031.2500,13.7840,1.2820,5.2943,6.4396,7.8078,6.0494,7.6961,3.9438,6.7273,10.5075,8.4833,8.4032,8.1650,9.1474,2.3264,5.9278,7.0986,6.4177,4.0547
3035.1562,8.6271,-2.5716,6.5931,6.0439,7.6500,1.1686,5.7330,3.4716,5.0664,4.7242,7.0341,8.8385,9.3573,10.1293,0.7553,5.3586,9.5179,5.7132,4.6200
3039.0625,4.2684,-4.7903,7.5628,6.1249,7.6098,-1.4533,3.9036,3.9674,4.1931,0.3094,6.5975,9.6768,10.9469,10.5864,1.1551,5.6030,11.5599,5.3766,6.4568
3042.9688,2.9857,-4.0900,8.1399,6.7769,7.8431,-0.3709,3.2759,5.1608,4.8609,-0.6411,7.7396,10.8959,12.7659,10.6137,4.6139,6.6668,12.9065,5.8956,9.0816
3046.8750,5.4342,-0.0483,8.5760,7.8683,8.3502,3.9834,4.0065,6.5656,7.0328,2.4720,10.1798,12.3588,14.3914,10.4236,10.3963,8.2513,13.3341,7.4402,11.5933
