Time,Fp1,F3,C3,P3,O1,F7,T3,T5,Fz,Fp2,F4,C4,P4,O2,F8,T4,T6,Cz,Pz
0.0000,0.4477,0.5081,0.4049,1.6172,3.2172,-1.6458,-4.1341,1.8813,1.6743,-0.0652,0.4422,-2.0873,0.5630,2.9916,-0.4669,-1.5269,1.4238,1.0526,0.5288
3.9062,1.7732,-0.6368,0.7054,2.0566,4.5717,-1.7180,-2.9550,2.6470,1.5946,1.1603,-0.3790,-3.2611,1.5332,4.3076,-1.1327,-2.7234,2.1299,1.3805,0.7664
7.8125,2.6965,-1.7936,1.3241,2.6543,6.0077,-1.2316,-0.7067,3.7593,1.0824,1.9166,-0.9752,-3.9112,2.7895,5.8824,-1.4197,-3.4718,3.0115,1.7552,1.4383
11.7188,2.9008,-2.2438,2.2416,3.2226,6.9178,-0.1820,1.9873,4.8628,0.2104,2.0592,-0.9809,-3.5345,3.9340,7.1973,-1.1214,-3.7509,3.7114,2.0375,2.4446
15.6250,2.5560,-1.3978,3.3261,3.4787,6.7070,1.1985,4.2417,5.4895,-0.7073,1.9746,-0.3915,-2.1534,4.4669,7.6540,-0.3556,-3.8875,3.7897,2.0434,3.3762
19.5312,2.2076,0.8218,4.3175,3.1449,5.0502,2.5763,5.4021,5.2766,-1.2775,2.2952,0.3882,-0.3434,4.0181,6.8212,0.4952,-4.1827,2.9462,1.6030,3.6448
23.4375,2.3703,3.8333,4.8741,2.0776,2.0644,3.6924,5.4117,4.1430,-1.2726,3.3424,0.7900,1.0962,2.5513,4.6510,1.0024,-4.5047,1.2153,0.6530,2.7706
27.3438,3.1125,6.6095,4.7007,0.3702,-1.6862,4.4613,4.8250,2.3268,-0.7953,4.7130,0.4632,1.6167,0.4146,1.5490,0.9175,-4.2182,-0.9928,-0.6768,0.6741
31.2500,3.9494,8.1519,3.7138,-1.6330,-5.3648,4.9408,4.4638,0.2698,-0.2374,5.3830,-0.4735,1.2212,-1.8033,-1.7526,0.2705,-2.5893,-3.0542,-2.0456,-2.2068
35.1562,4.1545,7.9600,2.1397,-3.4396,-8.1466,5.2166,4.9275,-1.5754,-0.0406,4.3522,-1.4934,0.3977,-3.5395,-4.4716,-0.6892,0.5719,-4.4168,-3.0044,-5.0683
39.0625,3.2939,6.2234,0.4484,-4.6030,-9.4939,5.3008,6.2452,-2.9084,-0.4086,1.4319,-2.0005,-0.2546,-4.4937,-6.0718,-1.6313,4.5087,-4.8508,-3.2066,-7.0945
42.9688,1.6061,3.6447,-0.8756,-4.9237,-9.3107,5.1235,7.8598,-3.6427,-1.1634,-2.3911,-1.7124,-0.4310,-4.7017,-6.4343,-2.2571,7.7224,-4.5200,-2.6289,-7.8180
46.8750,-0.0596,1.0290,-1.5990,-4.5484,-7.9219,4.6172,8.9367,-3.8661,-1.8496,-5.3492,-0.8282,-0.2720,-4.4141,-5.8277,-2.3455,8.7509,-3.8426,-1.6554,-7.2816
50.7812,-0.7366,-1.0826,-1.8594,-3.8970,-5.9040,3.8231,8.8117,-3.7496,-2.0230,-5.8714,0.1261,-0.1682,-3.8716,-4.7081,-1.7685,7.0635,-3.2372,-0.9235,-5.9179
54.6875,0.0524,-2.5254,-2.0348,-3.4357,-3.8548,2.9336,7.3390,-3.4636,-1.5346,-3.5442,0.6565,-0.3826,-3.1338,-3.4756,-0.5327,3.4769,-2.9122,-0.9713,-4.2415
58.5938,1.9750,-3.3589,-2.4332,-3.4138,-2.2086,2.2301,4.9699,-3.1266,-0.6246,0.5761,0.6084,-0.7892,-2.0773,-2.3240,1.1530,-0.2276,-2.8150,-1.8754,-2.5646
62.5000,4.0651,-3.6365,-3.0231,-3.7174,-1.1589,1.9493,2.5452,-2.7841,0.2240,4.5243,0.2172,-0.9365,-0.5629,-1.2536,2.8521,-2.2951,-2.7430,-3.1227,-0.9207
66.4062,5.2716,-3.3212,-3.4197,-3.9402,-0.6891,2.1565,0.9199,-2.4057,0.5613,6.5146,-0.1219,-0.4010,1.3497,-0.2072,3.9983,-1.9971,-2.5154,-3.8504,0.7741
70.3125,5.0201,-2.4228,-3.1670,-3.6418,-0.6533,2.6996,0.6069,-1.9014,0.1871,5.8708,-0.1885,0.8256,3.3014,0.7879,4.1175,-0.0175,-2.0813,-3.3591,2.4672
74.2188,3.4492,-1.2187,-2.1244,-2.6403,-0.8464,3.2719,1.5966,-1.1671,-0.8138,3.2419,-0.1346,2.2144,4.7437,1.5817,3.0719,2.0155,-1.5030,-1.6029,3.8384
78.1250,1.2220,-0.3122,-0.6633,-1.1516,-1.0357,3.5534,3.4192,-0.1566,-2.1963,0.0398,-0.3984,2.9624,5.2156,1.9952,1.1770,2.5546,-0.8515,0.6741,4.4215
82.0312,-0.9037,-0.3826,0.5098,0.3192,-0.9818,3.3645,5.3964,1.0512,-3.7058,-2.4616,-1.3834,2.4959,4.6252,1.9709,-0.8969,1.0764,-0.1155,2.2920,3.9143
85.9375,-2.4434,-1.7276,0.8120,1.2713,-0.4947,2.7613,6.9513,2.2317,-5.1356,-3.7580,-3.1140,0.8837,3.3500,1.6563,-2.4041,-1.6294,0.7932,2.3060,2.4589
89.8438,-3.2921,-3.9069,0.2064,1.4947,0.4601,2.0257,7.8225,3.0679,-6.2753,-4.1316,-5.1019,-1.1223,2.0637,1.3393,-2.8363,-3.9734,1.9328,0.5982,0.6645
93.7500,-3.5869,-5.7923,-0.7376,1.1605,1.6543,1.5487,8.0886,3.2591,-6.8572,-4.1688,-6.5346,-2.4717,1.3687,1.2562,-2.1129,-4.5350,3.2002,-1.9905,-0.6917
97.6562,-3.5039,-6.0887,-1.2276,0.6554,2.5826,1.6523,8.0071,2.6342,-6.6088,-4.2187,-6.6968,-2.4007,1.4404,1.3986,-0.5671,-2.8815,4.2787,-4.0963,-1.1232
101.5625,-3.1601,-4.0700,-0.8284,0.2780,2.6133,2.4251,7.7713,1.2136,-5.4243,-4.1911,-5.3825,-0.8590,1.9080,1.4599,1.2400,0.2376,4.7294,-4.5915,-0.7557
105.4688,-2.6510,-0.0892,0.1682,0.0107,1.2835,3.6522,7.3322,-0.7996,-3.5308,-3.7742,-3.0458,1.4781,2.0669,0.9864,2.7702,3.3849,4.2002,-3.2153,-0.2798
109.3750,-2.1200,4.4714,0.8712,-0.4693,-1.3960,4.8762,6.3924,-3.0803,-1.4893,-2.8136,-0.5844,3.6047,1.3188,-0.3339,3.7105,5.2666,2.6488,-0.7082,-0.5304
113.2812,-1.7432,7.8141,0.3536,-1.5444,-4.8104,5.5692,4.5875,-5.2549,0.0285,-1.5112,1.1317,4.7262,-0.4172,-2.4177,4.0521,5.3786,0.4501,1.6137,-1.9426
117.1875,-1.6128,8.5686,-1.7197,-3.3410,-7.9123,5.3393,1.7617,-6.9670,0.5719,-0.2918,1.7079,4.6102,-2.5852,-4.7359,4.0264,4.1130,-1.6964,2.5662,-4.2294
121.0938,-1.6249,6.4000,-4.8237,-5.5628,-9.6602,4.0815,-1.8152,-7.9361,0.1336,0.5227,1.3776,3.5574,-4.2622,-6.5248,3.9323,2.3403,-3.0467,1.6706,-6.5019
125.0000,-1.4947,2.0815,-7.8470,-7.5864,-9.5258,2.0197,-5.4217,-8.0216,-0.8969,0.9502,0.7643,2.0688,-4.6837,-7.1636,3.9311,0.8064,-3.1648,-0.7025,-7.7741
128.9062,-0.9213,-2.9383,-9.7179,-8.7657,-7.7963,-0.3606,-8.0998,-7.2809,-2.0166,1.3175,0.4167,0.4836,-3.7164,-6.5090,3.9248,-0.2418,-2.1735,-3.6261,-7.5462
132.8125,0.2082,-7.1753,-9.9670,-8.7617,-5.4856,-2.4458,-9.0388,-5.9865,-2.9214,2.0181,0.4342,-1.1461,-1.9853,-4.9958,3.6102,-0.9915,-0.7556,-6.1101,-6.1056
136.7188,1.7302,-9.6138,-8.8831,-7.7106,-3.8700,-3.6523,-7.9646,-4.5674,-3.6174,3.2724,0.4487,-2.8766,-0.5571,-3.4375,2.7192,-1.6771,0.1336,-7.5030,-4.3627
140.6250,3.3011,-9.8990,-7.2176,-6.1575,-3.8769,-3.5857,-5.3442,-3.4779,-4.2589,5.0565,-0.0202,-4.5695,-0.3508,-2.6325,1.3165,-2.2096,-0.2690,-7.6390,-3.3267
144.5312,4.5986,-8.2682,-5.6959,-4.8155,-5.6462,-2.1859,-2.2760,-3.0469,-4.8649,7.1855,-1.0974,-5.7473,-1.6161,-2.9911,-0.0586,-2.1280,-2.1166,-6.7581,-3.5483
148.4375,5.4651,-5.3810,-4.6811,-4.2855,-8.4932,0.1825,-0.0718,-3.3840,-5.1682,9.3983,-2.3348,-5.7752,-3.7851,-4.3803,-0.5765,-0.9239,-4.8106,-5.3314,-4.8560
152.3438,5.8879,-2.1537,-4.1685,-4.8518,-11.2830,2.7626,0.3125,-4.3805,-4.7529,11.3371,-2.9446,-4.2773,-5.7840,-6.2502,0.4057,1.5005,-7.2383,-3.8965,-6.5188
156.2500,5.8603,0.4210,-4.0171,-6.4009,-12.9990,4.6193,-1.2622,-5.7854,-3.3988,12.4842,-2.3519,-1.4955,-6.6147,-7.9431,2.8441,4.5909,-8.2911,-2.9208,-7.7005
160.1562,5.2861,1.5308,-4.1699,-8.4543,-13.1942,5.0044,-4.0040,-7.2896,-1.3671,12.2450,-0.6774,1.6952,-5.8721,-8.9946,5.8433,7.3224,-7.4052,-2.6686,-7.9144
164.0625,4.0549,0.8561,-4.6760,-10.3000,-12.1004,3.7258,-6.5150,-8.5707,0.6209,10.2773,1.2268,4.1720,-3.9153,-9.2680,8.0237,8.7078,-4.8398,-3.0889,-7.2247
167.9688,2.2608,-1.2269,-5.5360,-11.2079,-10.3814,1.3054,-7.4286,-9.3082,1.7424,6.9225,2.2582,5.1234,-1.6336,-8.8891,8.2683,8.3035,-1.5465,-3.8061,-6.1250
171.8750,0.3734,-3.7473,-6.5557,-10.6998,-8.7193,-1.2179,-6.0572,-9.2280,1.5402,3.3817,1.7552,4.4274,0.0234,-8.0785,6.3961,6.3841,1.2914,-4.2886,-5.2203
175.7812,-0.8426,-5.5880,-7.3794,-8.7873,-7.4949,-2.7884,-2.7221,-8.2187,0.1790,1.3444,-0.0823,2.6172,0.4776,-7.0225,3.3050,3.6972,2.7954,-4.1592,-4.9213
179.6875,-0.6939,-6.0750,-7.6971,-6.0462,-6.7287,-2.8816,1.4083,-6.4768,-1.6827,2.1274,-2.3415,0.4938,-0.2854,-5.8606,0.4462,1.0029,2.7273,-3.4654,-5.2987
183.5938,0.9889,-5.3412,-7.4505,-3.4335,-6.2594,-1.7704,4.8837,-4.5615,-3.3022,5.7963,-4.0092,-1.3185,-1.7970,-4.7531,-1.0480,-1.2645,1.4864,-2.6974,-6.1146
187.5000,3.6335,-4.1972,-6.8446,-1.8743,-5.9840,-0.3316,6.6394,-3.2470,-4.2418,10.8863,-4.6003,-2.5678,-3.3493,-3.9177,-1.0046,-3.0069,-0.1714,-2.4790,-6.9528
191.4062,6.1492,-3.5574,-6.1356,-1.8047,-5.9642,0.5057,6.4175,-3.1774,-4.4759,15.0421,-4.3557,-3.2439,-4.2588,-3.5568,-0.1840,-4.2149,-1.5013,-3.0968,-7.3620
195.3125,7.5085,-3.7955,-5.3701,-2.9279,-6.3247,0.3258,4.7492,-4.4868,-4.1913,16.3023,-3.8967,-3.3147,-4.0709,-3.7079,0.3766,-4.7374,-2.0366,-4.1991,-6.9840
199.2188,7.3377,-4.4808,-4.3154,-4.3537,-7.0446,-0.5551,2.5619,-6.6312,-3.5005,14.2701,-3.6424,-2.6219,-2.6993,-4.1466,0.1644,-4.3093,-1.6852,-4.9238,-5.6786
203.1250,6.1247,-4.6974,-2.6830,-5.0800,-7.8308,-1.3499,0.6759,-8.5901,-2.3438,10.3980,-3.4733,-1.0689,-0.5078,-4.4680,-0.4541,-2.8308,-0.6970,-4.4367,-3.6376
207.0312,4.8837,-3.7311,-0.4963,-4.5539,-8.2155,-1.3513,-0.5173,-9.3783,-0.6733,7.1350,-2.9097,1.0568,1.7080,-4.3483,-0.5798,-0.6457,0.4208,-2.5468,-1.4243
210.9375,4.4791,-1.6299,1.6998,-2.9883,-7.8463,-0.3877,-1.0544,-8.5898,1.2566,6.4260,-1.6462,2.9590,2.9124,-3.8291,0.4438,1.4741,1.0156,0.0393,0.1502
214.8438,5.0533,0.7813,3.0085,-1.2358,-6.7751,1.1181,-1.1550,-6.6368,2.7968,8.5034,0.0230,3.6302,2.2197,-3.3998,2.4266,2.7086,0.4659,2.0555,0.3345
218.7500,5.9461,2.4540,2.6861,-0.2909,-5.5217,2.4973,-0.9507,-4.5129,3.1823,11.7613,1.2780,2.4669,-0.6364,-3.7550,4.3708,2.6960,-1.5580,2.4395,-1.1787
222.6562,6.1716,2.8373,0.6634,-0.7124,-4.8138,3.3085,-0.3925,-3.2045,2.0501,13.8108,1.3373,-0.2043,-4.9936,-5.3246,5.1420,1.7853,-4.8242,1.0378,-3.9998
226.5625,5.1336,2.2300,-2.2874,-2.3044,-5.1330,3.5748,0.6128,-3.1056,-0.1764,13.0407,0.0862,-3.1159,-9.3565,-7.8697,4.2769,0.8110,-8.4375,-1.2317,-7.1081
230.4688,3.0844,1.4909,-4.9025,-4.2352,-6.3488,3.6220,1.9590,-3.8037,-2.3770,9.6642,-1.7419,-4.6768,-11.9559,-10.4466,2.3288,0.5165,-11.0624,-2.9070,-9.2631
234.3750,0.9965,1.3182,-6.1071,-5.5094,-7.7036,3.6695,3.1950,-4.3717,-3.3331,5.5588,-3.0182,-3.8877,-11.5637,-11.8373,0.4852,1.0307,-11.4697,-2.8890,-9.5778
238.2812,-0.0946,1.6432,-5.6103,-5.5109,-8.2022,3.5227,3.6235,-3.9775,-2.4938,2.9932,-3.0034,-0.9783,-8.1520,-11.2340,-0.2684,1.7803,-9.1735,-1.1519,-7.9520
242.1875,0.1590,1.6173,-4.0340,-4.3100,-7.1969,2.6388,2.6315,-2.4224,-0.4019,3.0747,-1.8867,2.6675,-3.0139,-8.7621,0.1618,1.9077,-4.7992,1.2072,-5.1174
246.0938,1.0933,0.2419,-2.4990,-2.5813,-4.8120,0.5502,0.0824,-0.2679,1.5445,4.9468,-0.6661,5.2792,1.7774,-5.4846,0.9202,0.8941,0.0894,2.6259,-2.2643
250.0000,1.3945,-2.7957,-1.9350,-1.2071,-1.9298,-2.6613,-3.4647,1.5153,1.8960,6.2904,-0.4415,5.6894,4.3304,-2.8383,0.8066,-1.0589,3.6809,2.0385,-0.4498
253.9062,-0.0443,-6.6948,-2.5515,-0.8002,0.2744,-6.2051,-6.8686,2.1380,0.0428,4.8422,-1.6313,3.9395,3.8304,-1.8159,-0.8887,-3.1483,4.7878,-0.4524,-0.1122
257.8125,-3.3080,-9.8669,-3.7850,-1.4056,0.9779,-8.8965,-8.8438,1.4425,-3.3615,-0.0299,-3.6717,1.1558,0.9023,-2.3959,-3.8862,-4.4816,3.4181,-3.5997,-0.9336
261.7188,-7.2334,-10.8329,-4.7192,-2.5212,0.1465,-9.7669,-8.5278,-0.0574,-6.7137,-6.7137,-5.4018,-1.1712,-2.7470,-3.5837,-7.0579,-4.6053,0.7190,-5.7071,-2.0913
265.6250,-9.9632,-9.1051,-4.6765,-3.3985,-1.4957,-8.5828,-5.8920,-1.5366,-8.3249,-12.1374,-5.8314,-2.0184,-5.2056,-4.0484,-9.0719,-3.7041,-1.6796,-5.5700,-2.7204
269.5312,-9.9829,-5.4659,-3.5897,-3.4472,-2.9281,-5.9413,-1.7694,-2.3576,-7.3175,-13.5128,-4.7360,-1.2752,-5.2885,-2.9648,-9.1019,-2.3957,-2.5451,-3.1161,-2.3243
273.4375,-7.0187,-1.4674,-1.9382,-2.5247,-3.4219,-2.8946,2.5381,-2.3810,-4.0386,-9.9916,-2.6859,0.3936,-3.0475,-0.5325,-7.1870,-1.3334,-1.6494,0.6004,-0.9386
277.3438,-2.2391,1.5031,-0.3313,-0.9671,-2.8886,-0.3595,5.8772,-1.9131,0.2123,-3.2249,-0.5534,2.0778,0.3686,2.1435,-4.1032,-0.9055,0.2148,4.0072,0.9849
281.2500,2.3792,2.9717,0.9479,0.6362,-1.8027,1.3153,7.7543,-1.3783,3.9270,3.5287,1.0905,3.1605,3.3829,3.7212,-0.9146,-1.1672,1.7697,5.8521,2.8538
285.1562,5.1461,3.4794,2.1155,1.7797,-0.8001,2.3845,8.4621,-0.9814,6.1411,7.2191,2.2509,3.5565,4.8002,3.4050,1.5013,-1.9232,1.9911,5.7990,4.1987
289.0625,5.5520,4.0240,3.6562,2.2879,-0.2624,3.3791,8.7619,-0.6109,6.7780,6.6723,3.3128,3.5965,4.3324,1.3558,2.7385,-2.8005,0.6217,4.4831,4.8057
292.9688,4.4270,5.2662,5.8504,2.3228,-0.1721,4.6697,9.3333,-0.0444,6.4541,3.1336,4.5984,3.7220,2.5980,-1.4960,2.9062,-3.2659,-1.7901,3.0397,4.6952
296.8750,3.2918,7.0396,8.3917,2.1595,-0.3015,6.2031,10.3388,0.7151,5.9418,-0.5971,6.0511,4.2095,0.6560,-4.0677,2.4989,-2.6996,-4.2727,2.4053,4.0158
300.7812,3.3295,8.4622,10.3815,1.8948,-0.5449,7.5423,11.3720,1.2477,5.6569,-1.8836,7.2645,5.0522,-0.6236,-5.7375,2.1668,-0.6544,-5.9528,2.7904,2.9369
304.6875,4.6309,8.5315,10.7530,1.3118,-1.0966,8.1383,11.7935,0.8571,5.4714,0.2114,7.7800,5.9924,-0.9886,-6.5620,2.4408,2.7597,-6.4098,3.6114,1.5983
308.5938,6.1762,6.7902,8.8987,0.0298,-2.3092,7.6439,11.2011,-1.0017,4.9178,4.4529,7.3834,6.6419,-0.8164,-7.0000,3.4731,6.6408,-5.7157,3.8989,0.1205
312.5000,6.5382,3.6466,5.1262,-2.1371,-4.3249,6.0995,9.7023,-4.2708,3.6102,8.2327,6.1860,6.6354,-0.7485,-7.3938,4.9091,9.5134,-4.2314,2.9351,-1.3603
316.4062,4.8414,0.1897,0.6436,-4.8605,-6.7718,3.9303,7.8156,-8.1271,1.5951,9.1051,4.4899,5.7919,-1.2092,-7.6090,6.0062,10.0290,-2.3578,0.7408,-2.6734
320.3125,1.3756,-2.3478,-2.9599,-7.2864,-8.7991,1.7952,6.1083,-11.2704,-0.5856,6.1499,2.6117,4.2436,-2.1190,-7.1047,6.0186,7.7865,-0.4109,-1.8840,-3.6385
324.2188,-2.4994,-3.1489,-4.4746,-8.4135,-9.4915,0.3717,4.8610,-12.5432,-2.1500,0.4400,0.8271,2.4572,-2.9706,-5.3833,4.6828,3.7165,1.3515,-3.8010,-4.1233
328.1250,-5.0636,-2.1098,-3.6540,-7.6699,-8.4201,0.1442,4.0085,-11.5402,-2.4870,-5.5372,-0.5619,1.0867,-3.1947,-2.4924,2.5155,-0.3171,2.6508,-4.1997,-4.1019
332.0312,-5.1165,0.2165,-1.2918,-5.3205,-5.9579,1.2421,3.3700,-8.8445,-1.4781,-9.0839,-1.1779,0.6835,-2.5549,0.7971,0.6840,-2.5275,3.1901,-3.0839,-3.6680
335.9375,-2.5284,2.9319,1.2509,-2.4035,-3.1201,3.3679,2.9452,-5.7271,0.4492,-8.4657,-0.6739,1.4074,-1.3037,3.2958,0.4485,-2.2072,2.7792,-1.2719,-2.9831
339.8438,1.7800,5.1707,2.7982,-0.1837,-1.0002,5.8594,3.0077,-3.4693,2.5515,-3.5574,1.0302,2.9218,-0.0042,4.0144,2.4525,-0.0648,1.4997,0.1040,-2.1763
343.7500,6.3166,6.3807,2.9637,0.5617,-0.1485,7.8998,3.9078,-2.6933,4.1334,4.1763,3.5541,4.5628,0.8415,2.7120,6.2656,2.3158,-0.2419,0.2906,-1.2564
347.6562,9.6328,6.4354,2.2719,-0.0226,-0.2930,8.8230,5.7509,-3.0898,4.8283,12.2137,6.0960,5.6903,1.0880,0.0274,10.4639,3.5040,-1.8663,-0.6362,-0.1027
351.5625,10.7728,5.5859,1.7567,-0.9997,-0.5793,8.3927,8.2289,-3.6903,4.6546,17.7839,7.7337,5.9999,0.9577,-2.8853,13.2337,3.0249,-2.9282,-1.8524,1.4385
355.4688,9.4602,4.3085,2.3009,-1.2478,-0.1672,6.9115,10.7556,-3.4977,3.8597,18.7588,7.8335,5.5999,0.7815,-4.9856,13.1980,1.4271,-3.3937,-2.3395,3.3946
359.3750,6.0907,3.1138,4.1179,-0.1485,1.2108,5.0909,12.7957,-2.0792,2.7016,14.4572,6.3320,4.8328,0.6852,-5.8498,10.0559,-0.3337,-3.6834,-1.5440,5.5446
363.2812,1.6349,2.3792,6.6635,2.0876,3.0895,3.7274,14.1130,0.2354,1.3399,6.1101,3.7462,4.0042,0.4817,-5.7624,4.7414,-1.6507,-4.4082,0.2845,7.4296
367.1875,-2.5433,2.2511,8.9899,4.6355,4.5965,3.3428,14.7390,2.6378,-0.1025,-3.3190,0.9386,3.2300,-0.1356,-5.3825,-0.9491,-2.5763,-5.9239,2.2809,8.5206
371.0938,-5.0239,2.6329,10.2889,6.6192,5.0265,3.9596,14.7256,4.3822,-1.3969,-10.1282,-1.2186,2.4898,-1.2464,-5.2433,-5.0848,-3.5148,-7.9826,3.5222,8.4664
375.0000,-4.8347,3.2454,10.2872,7.6097,4.2739,5.1126,13.9572,5.2051,-2.1635,-11.4558,-2.1407,1.7862,-2.4945,-5.4240,-6.3867,-4.6426,-9.7341,3.5610,7.2815
378.9062,-1.9601,3.7218,9.2822,7.7296,2.8501,6.0736,12.2590,5.3610,-2.0279,-6.7593,-1.7227,1.2227,-3.2192,-5.5886,-4.7702,-5.6062,-10.1351,2.5891,5.3579
382.8125,2.4528,3.7066,7.8534,7.3565,1.5027,6.1694,9.7511,5.2951,-0.9164,1.6544,-0.4042,0.9082,-2.8769,-5.3202,-1.4221,-5.7783,-8.5572,1.1705,3.2883
386.7188,6.4348,2.9492,6.4744,6.7135,0.7193,5.0523,7.1162,5.2297,0.7298,9.5374,0.9272,0.7841,-1.4602,-4.4842,1.6628,-4.8482,-5.2296,-0.2095,1.5987
390.6250,8.0466,1.3935,5.2739,5.6963,0.4544,2.8249,5.4279,4.9883,2.0400,12.7585,1.2436,0.5761,0.4085,-3.3525,2.5615,-3.2109,-1.2166,-1.4241,0.5403
394.5312,6.3570,-0.7530,4.0656,4.0655,0.2423,-0.0067,5.5145,4.1815,2.1333,9.4808,-0.1348,-0.0107,1.8204,-2.4108,0.3755,-1.7672,2.1002,-2.6275,0.0452
398.4375,2.0030,-3.0171,2.5760,1.8177,-0.4184,-2.7142,7.2604,2.5970,0.6602,1.2252,-3.0656,-0.9646,2.1513,-2.0063,-4.2050,-1.2372,3.7499,-3.9330,-0.1596
402.3438,-3.0450,-4.7811,0.6942,-0.6069,-1.6960,-4.6006,9.4207,0.4739,-1.8869,-7.8576,-6.4376,-1.7893,1.4708,-2.1102,-9.0947,-1.5251,3.6763,-5.1510,-0.3699
406.2500,-6.4470,-5.5274,-1.4126,-2.4970,-3.3254,-5.2464,10.2389,-1.5721,-4.3433,-13.1718,-8.5801,-1.7022,0.4902,-2.3749,-11.7864,-1.6794,2.7013,-5.8309,-0.7686
410.1562,-6.6886,-5.1161,-3.3597,-3.3256,-4.8148,-4.6726,8.5680,-2.9364,-5.4803,-12.1164,-8.1379,-0.1627,0.0694,-2.4474,-10.6799,-0.5573,1.9658,-5.5944,-1.3847
414.0625,-3.8494,-3.9314,-4.7111,-3.1426,-5.7833,-3.3521,4.7480,-3.4399,-4.7116,-5.4151,-4.9530,2.6115,0.6179,-2.2985,-6.0540,2.2567,2.1975,-4.4891,-2.1258
417.9688,0.4768,-2.7618,-5.1446,-2.5727,-6.1718,-2.0418,0.5605,-3.4475,-2.4557,3.3766,-0.3689,5.5538,1.8101,-2.3063,-0.0762,5.9595,3.2695,-3.0579,-2.8210
421.8750,4.0514,-2.4173,-4.5458,-2.3766,-6.1904,-1.4768,-1.8191,-3.5763,0.0887,9.8473,3.3554,7.2486,2.8206,-3.0034,4.2521,8.8728,4.3284,-2.0237,-3.2432
425.7812,5.1489,-3.2635,-3.0272,-2.8651,-6.0705,-2.0402,-1.2215,-4.1863,1.6360,11.0335,4.2717,6.7727,2.9152,-4.6444,4.6863,9.4381,4.3966,-1.7932,-3.1333
429.6875,3.3722,-4.9467,-0.9041,-3.6007,-5.8354,-3.5596,1.7212,-5.0265,1.5481,6.7953,1.8916,4.3437,1.9849,-6.8980,0.9735,7.2103,3.0468,-2.1400,-2.2703
433.5938,-0.2776,-6.5132,1.3529,-3.6345,-5.2751,-5.3463,4.9716,-5.3152,0.1552,-0.3787,-2.4913,1.3102,0.6397,-8.9091,-4.9979,3.1850,0.6984,-2.3241,-0.5961
437.5000,-4.0437,-6.9025,3.1971,-2.1574,-4.1486,-6.4871,6.4415,-4.2404,-1.5291,-6.8737,-6.5598,-0.5739,-0.2076,-9.7313,-10.2393,-0.7591,-1.6532,-1.5986,1.6650
441.4062,-6.3609,-5.5599,4.1297,0.8638,-2.4566,-6.2688,5.3834,-1.5618,-2.4968,-9.8391,-8.3662,-0.1781,0.0153,-8.8833,-12.2959,-2.9400,-3.0844,0.2265,3.9889
445.3125,-6.5822,-2.8090,3.8545,4.5025,-0.5699,-4.5339,2.8577,2.0876,-2.3793,-8.4640,-7.4711,2.3055,1.1148,-6.6742,-10.5207,-2.7950,-3.3287,2.5524,5.6992
449.2188,-5.1392,0.2569,2.4083,7.2949,0.9001,-1.7837,0.9523,5.4196,-1.6156,-4.0824,-5.0902,5.4375,2.2225,-4.0801,-6.2670,-1.0990,-2.9034,4.2768,6.2413
453.1250,-3.1234,2.3306,0.1975,8.0275,1.4194,1.0391,1.3053,7.1184,-1.0578,0.7970,-3.1671,7.3515,2.3557,-2.2226,-1.9384,0.6085,-2.6982,4.4444,5.4517
457.0312,-1.5805,2.5909,-2.0957,6.4197,0.8366,2.9907,3.9563,6.5119,-1.2974,3.9283,-3.0071,6.8364,1.0886,-1.7504,0.4862,0.9991,-3.3043,2.8737,3.6736
460.9375,-0.9291,1.1427,-3.7209,3.2991,-0.5142,3.5645,7.3003,3.9079,-2.1767,4.4750,-4.3932,4.0474,-1.0950,-2.4855,0.5495,-0.2521,-4.5366,0.3720,1.6415
464.8438,-0.8125,-1.0640,-4.1108,0.1847,-1.9720,2.8948,9.1370,0.4290,-2.8336,3.3095,-5.7759,0.4427,-2.9937,-3.5368,-0.5968,-2.2978,-5.4720,-1.6128,0.1815
468.7500,-0.4410,-2.7964,-3.0856,-1.4739,-2.8621,1.6110,8.0689,-2.5320,-2.2740,2.3469,-5.3962,-2.0065,-3.3190,-3.8105,-1.1106,-3.6426,-4.9908,-1.7377,-0.1292
472.6562,0.7901,-3.2620,-0.9395,-0.9809,-2.7847,0.4246,4.3196,-3.9283,-0.1153,3.2743,-2.5849,-1.8861,-1.4037,-2.6261,0.2228,-3.0543,-2.4902,0.4819,0.8146
476.5625,2.7818,-2.5690,1.6326,1.3292,-1.7395,-0.3062,-0.4945,-3.4524,2.9823,6.3647,1.6289,0.8880,2.3969,-0.1029,3.0992,-0.3608,1.6648,4.3130,2.6262
480.4688,4.6399,-1.6487,3.7585,4.3110,-0.0670,-0.7638,-4.3751,-1.5688,5.5101,10.0747,5.0072,4.9921,6.8136,2.8770,5.7817,3.3149,6.2153,8.0498,4.6008
484.3750,5.1125,-1.6725,4.7056,6.5682,1.7197,-1.4790,-6.0058,0.7651,5.8684,11.7613,5.3939,8.3374,10.2041,5.0885,6.1197,6.0531,9.5589,9.7835,5.9926
488.2812,3.3445,-3.2964,4.1844,7.0716,3.1125,-2.8678,-5.2225,2.5298,3.2815,9.2261,2.0180,9.1003,11.2519,5.5388,2.9040,6.1562,10.4657,8.3514,6.2839
492.1875,-0.4831,-6.1762,2.5092,5.5763,3.7444,-4.7976,-2.7505,3.0522,-1.6506,2.2411,-3.9666,6.6256,9.5018,3.9181,-3.2484,3.1624,8.5906,4.0055,5.3603
496.0938,-5.0425,-9.0570,0.5130,2.6958,3.4796,-6.4946,0.4343,2.2603,-7.1021,-6.9113,-10.0076,1.7577,5.5192,0.7314,-10.0240,-1.7403,4.5601,-1.5642,3.5434
500.0000,-8.4157,-10.4142,-0.7855,-0.3711,2.4668,-6.9088,3.6116,0.7023,-10.8317,-14.3724,-13.4327,-3.5577,0.6416,-2.9224,-14.5305,-6.2214,-0.3449,-5.9334,1.4784
503.9062,-9.0628,-9.2992,-0.6419,-2.3475,1.1292,-5.3528,6.4283,-0.6870,-11.2501,-16.7228,-12.7695,-7.2047,-3.5481,-5.8025,-14.8016,-8.0413,-4.7076,-7.0917,-0.0915
507.8125,-6.6688,-5.9108,1.0431,-2.4222,0.0505,-2.0250,8.7178,-1.0118,-8.1998,-12.9438,-8.4178,-7.8888,-5.8025,-7.0073,-10.8484,-6.3358,-7.4472,-4.4822,-0.5944
511.7188,-2.3667,-1.5575,3.6357,-0.6126,-0.2500,1.9403,10.3160,0.1316,-3.0442,-5.1080,-2.3756,-5.6886,-5.6258,-6.2905,-4.6554,-2.1589,-8.0813,0.6262,0.1516
515.6250,1.8186,1.9799,6.0279,2.2252,0.4241,4.9770,11.0543,2.3959,1.9712,2.7043,2.7798,-1.8974,-3.3829,-4.0982,0.8875,2.1119,-6.7477,5.6947,1.8571
519.5312,4.0013,3.3261,7.1242,4.7662,1.7981,5.8788,10.8728,4.7907,4.7585,6.6651,5.0974,1.7259,-0.0840,-1.3316,3.5080,4.1981,-4.0513,8.1662,3.8589
523.4375,3.3559,2.1430,6.3187,5.8166,3.2097,4.4169,9.8727,6.1569,4.3067,5.2703,4.0488,3.8579,3.0434,1.0468,2.6612,3.2901,-0.8317,6.7753,5.3663
527.3438,0.4224,-0.8139,3.7420,4.8631,3.9259,1.4206,8.2284,5.7841,1.0511,-0.0324,0.5787,4.1558,5.0092,2.3880,-0.3921,0.4709,2.0723,2.2007,5.7580
531.2500,-3.3221,-4.1850,0.1958,2.2967,3.5416,-1.7071,6.0692,3.8304,-3.4400,-5.9755,-3.5263,3.1859,5.3643,2.5524,-3.5175,-2.0967,4.0131,-3.3118,4.8166
535.1562,-6.3010,-6.6996,-3.1463,-0.7987,2.2314,-3.7210,3.5174,1.2799,-7.2465,-9.5442,-6.5553,1.8673,4.2559,1.8632,-5.0238,-2.6702,4.6568,-7.1512,2.8163
539.0625,-7.5632,-7.6570,-5.1131,-3.1722,0.6904,-4.0685,0.9145,-0.5651,-8.9366,-9.6141,-7.5886,0.8512,2.2649,0.8733,-4.5362,-1.0847,4.0212,-7.6897,0.4411
542.9688,-7.0224,-6.9845,-4.8594,-3.9583,-0.2188,-2.9540,-0.9822,-0.7754,-8.0821,-7.1814,-6.6971,0.2437,0.1359,0.0892,-2.9366,1.2255,2.4313,-5.0268,-1.4340
546.8750,-5.2054,-4.9844,-2.1012,-2.9774,0.0833,-0.9978,-1.1383,0.7313,-5.2798,-4.2433,-4.6348,-0.2084,-1.4687,-0.2013,-1.5282,2.3278,0.4120,-0.7551,-2.0337
550.7812,-2.8111,-2.0717,2.7268,-0.6793,1.6044,1.1929,1.1877,3.2030,-1.7660,-2.2969,-2.3114,-0.7025,-2.1157,0.0615,-1.0794,1.2032,-1.4474,3.0394,-0.9672
554.6875,-0.4183,1.2693,8.4275,2.1651,3.8086,3.2272,5.7328,5.5209,1.1369,-1.5560,-0.3890,-1.1087,-1.6482,0.8150,-1.4183,-1.5515,-2.6231,4.9029,1.5795
558.5938,1.5374,4.3517,13.2158,4.7974,5.9230,4.8369,10.9211,6.8107,2.4981,-1.3058,0.8184,-1.0626,-0.1735,1.9821,-1.7891,-4.2036,-2.7605,4.6217,4.8307
562.5000,2.6707,6.2449,15.2064,6.6579,7.3184,5.6835,14.3542,6.8250,2.0423,-0.8911,1.2285,-0.3163,1.9769,3.4908,-1.5981,-5.1431,-1.7462,3.0530,7.6392
566.4062,2.6721,6.0665,13.1553,7.4030,7.7409,5.3474,13.9910,5.9039,0.1784,-0.3949,0.8817,0.9823,4.3168,5.2092,-0.9086,-3.9588,0.2593,1.4192,8.9036
570.3125,1.5294,3.5562,7.1665,6.8683,7.2964,3.5968,9.3713,4.6104,-2.1674,-0.4264,-0.0111,2.3452,6.3223,6.8785,-0.2947,-1.5577,2.8418,0.5846,8.0405
574.2188,-0.2391,-0.4521,-1.0553,5.0952,6.2591,0.7501,2.0869,3.3352,-3.8650,-1.2697,-0.9425,3.3106,7.5875,8.1392,-0.2101,0.6834,5.4245,0.7423,5.2927
578.1250,-1.6329,-4.1147,-8.6913,2.4266,4.8771,-2.2117,-4.8999,2.1404,-3.9812,-2.2421,-1.1416,3.8099,7.9648,8.6701,-0.4489,2.0013,7.4252,1.5873,1.6862
582.0312,-1.6264,-5.3729,-12.9469,-0.4449,3.3088,-3.9935,-8.7718,0.9025,-2.1644,-1.9645,0.0742,4.2077,7.6112,8.3605,-0.2111,2.6922,8.4336,2.7182,-1.3915
585.9375,0.1736,-3.0996,-12.3267,-2.6149,1.6961,-3.6671,-8.3306,-0.4108,1.1389,0.5338,2.7557,4.9456,6.8941,7.3906,1.2127,3.5970,8.3342,3.9186,-2.8132
589.8438,3.1222,2.1079,-7.3609,-3.3080,0.2591,-1.2657,-4.5449,-1.5806,4.7833,4.7360,5.9834,6.0659,6.1880,6.1471,3.6675,5.1031,7.3077,5.1451,-2.2210
593.7500,5.7537,8.0730,-0.3367,-2.2657,-0.7111,2.1381,0.1434,-2.2284,7.3676,8.5609,8.1181,7.0221,5.6665,5.0132,5.9441,6.5360,5.7039,6.3170,-0.1527
597.6562,6.6044,12.1486,5.8616,0.0596,-0.9900,4.9864,3.2974,-2.0866,7.8621,9.5708,7.6657,6.9808,5.2089,4.1694,6.4454,6.5035,3.8529,7.1516,2.2772
601.5625,5.1747,12.6664,9.1639,2.6632,-0.5899,6.1077,3.8207,-1.2340,6.1170,6.7342,4.2957,5.4308,4.4850,3.5394,4.3172,3.9805,1.9276,7.2134,3.9535
605.4688,2.3895,9.8305,9.1773,4.4454,0.1808,5.3583,2.3599,-0.1121,2.9576,1.4708,-0.6863,2.6476,3.1798,2.9149,0.2384,-0.6980,-0.0558,6.1501,4.2665
609.3750,0.1760,5.4831,7.0368,4.7136,0.8451,3.6165,0.6109,0.6986,-0.2247,-2.9118,-4.8594,-0.3630,1.2340,2.1647,-3.7682,-5.7364,-2.0996,3.9263,3.2854
613.2812,0.3298,1.8936,4.4123,3.4405,1.0040,2.1423,0.0581,0.7829,-2.1897,-3.1952,-6.0170,-2.4349,-1.0378,1.3709,-5.4767,-8.8194,-4.0503,0.8800,1.5530
617.1875,3.3318,0.3666,2.3577,1.1373,0.5387,1.7321,0.9838,0.0706,-2.4841,1.5844,-3.5241,-2.9351,-3.0317,0.7833,-3.8417,-8.4724,-5.5259,-2.4262,-0.3146
621.0938,7.8679,0.5672,0.7489,-1.5474,-0.3751,2.2290,2.3473,-1.2168,-1.6325,9.2332,1.1894,-2.0897,-4.1148,0.6193,0.2913,-4.9123,-6.0316,-5.4350,-1.9580
625.0000,11.4142,0.9658,-1.3695,-4.2202,-1.4493,2.6949,2.5375,-2.7817,-0.7754,15.4470,5.3885,-0.7300,-3.9341,0.8544,4.6383,0.1538,-5.2241,-7.7445,-3.3550
628.9062,11.6046,0.0425,-4.8370,-6.8662,-2.5224,2.1055,0.4662,-4.4503,-0.9675,16.2462,6.6274,0.3247,-2.6164,1.1645,6.8110,4.5823,-3.1744,-9.1184,-4.6657
632.8125,7.6106,-2.5961,-9.5229,-9.6368,-3.6649,0.0874,-3.6891,-6.2018,-2.5501,10.3327,4.1921,0.7776,-0.7403,1.0864,5.6875,6.9458,-0.4475,-9.4223,-5.9978
636.7188,0.7207,-5.9291,-14.1678,-12.4788,-5.0555,-2.7822,-8.5101,-8.0181,-4.9586,-0.0615,-0.5177,0.9023,0.9221,0.3098,1.9761,7.0636,2.0862,-8.6027,-7.2639
640.6250,-6.2387,-8.2031,-17.0201,-14.8934,-6.7116,-5.2871,-12.0540,-9.6867,-7.0604,-10.3353,-4.8912,1.1507,1.7757,-1.0847,-2.3175,5.7170,3.6331,-6.7557,-8.1991
644.5312,-10.3371,-8.0691,-16.8307,-16.0312,-8.2829,-6.2682,-12.8110,-10.7363,-7.8113,-15.9858,-6.6927,1.6826,1.6902,-2.6032,-5.1133,3.9284,3.8462,-4.2164,-8.4894
648.4375,-10.0388,-5.4010,-13.5549,-15.1041,-9.1059,-5.2593,-10.3835,-10.5964,-6.8449,-14.9451,-5.3222,2.2047,1.0363,-3.5704,-5.3891,2.3809,2.9636,-1.5529,-7.9132
652.3438,-5.9476,-1.3125,-8.3486,-11.8762,-8.5429,-2.7006,-5.5960,-8.9115,-4.6756,-8.5010,-2.0046,2.2270,0.4326,-3.4931,-3.5853,1.2921,1.6256,0.5879,-6.4347
656.2500,-0.4091,2.5372,-2.9382,-6.9330,-6.4245,0.3418,-0.0781,-5.8277,-2.4304,-0.3899,1.1079,1.4878,0.3290,-2.3551,-1.1567,0.6195,0.4701,1.7133,-4.2510
660.1562,3.7777,4.8162,1.1767,-1.5527,-3.3079,2.7297,4.4052,-2.0619,-1.2849,5.3212,2.2589,0.1722,0.6718,-0.6743,0.3484,0.2572,-0.2501,1.6509,-1.8074
664.0625,4.8115,5.0216,3.2064,2.7731,-0.3446,3.7484,6.5650,1.3133,-1.9133,6.3399,0.9918,-1.2603,0.8741,0.7132,0.1087,0.0216,-0.7914,0.5465,0.2390
667.9688,2.7173,3.4190,3.0627,4.9223,1.2208,3.3159,5.9424,3.2827,-4.2168,3.1345,-1.8342,-2.4743,0.1468,1.0362,-1.6555,-0.4594,-1.7033,-1.2820,1.1660
671.8750,-0.8570,0.6428,1.0558,4.5473,0.6685,1.8767,2.9538,3.2983,-7.4187,-1.6201,-4.7638,-3.5193,-1.9727,-0.0520,-3.9315,-1.6778,-3.4020,-3.5045,0.4597
675.7812,-3.6933,-2.6577,-2.3556,2.1271,-1.8054,0.1144,-1.3214,1.4903,-10.4302,-4.7116,-6.6255,-4.7047,-5.2067,-2.3047,-5.4974,-3.8885,-5.8008,-5.8278,-1.8723
679.6875,-4.2672,-5.9080,-6.5717,-1.3147,-5.1508,-1.3458,-5.5204,-1.4164,-12.2856,-4.2033,-7.0208,-6.1779,-8.5131,-4.9740,-5.5178,-6.6878,-8.2362,-7.9247,-5.1360
683.5938,-2.5007,-8.5206,-10.7191,-4.6543,-7.9565,-2.1324,-8.4301,-4.4301,-12.4594,-0.4135,-6.2467,-7.5756,-10.5142,-7.1145,-3.9012,-8.9400,-9.7556,-9.3561,-8.1080
687.5000,0.3774,-9.8750,-13.6585,-7.0635,-9.1137,-2.1861,-9.3427,-6.6990,-10.9683,4.4106,-4.8738,-8.0942,-10.1739,-7.9640,-1.3135,-9.2790,-9.6125,-9.6248,-9.5236
691.4062,2.7090,-9.5079,-14.3042,-8.2070,-8.3067,-1.6958,-8.2019,-7.8097,-8.2680,7.4721,-3.3563,-6.9982,-7.3569,-7.2462,1.1337,-6.9688,-7.6901,-8.3934,-8.6875
695.3125,3.4444,-7.4009,-12.1403,-8.2131,-6.0946,-0.9451,-5.4744,-7.8486,-5.0293,7.0464,-1.9012,-4.2211,-2.9570,-5.2763,2.3944,-2.5534,-4.6133,-5.7425,-5.8686
699.2188,2.7080,-4.0996,-7.5853,-7.4805,-3.5729,-0.1236,-1.8152,-7.2238,-1.8960,3.4333,-0.5598,-0.5907,1.4827,-2.8314,1.9963,2.2249,-1.4854,-2.2689,-2.2209
703.1250,1.5840,-0.4952,-1.9010,-6.4336,-1.8154,0.8056,2.2766,-6.3573,0.6877,-1.2709,0.6450,2.5426,4.4552,-0.8319,0.3084,5.2921,0.6075,1.0990,0.7693
707.0312,1.3164,2.6265,3.3636,-5.3270,-1.3808,2.0891,6.5906,-5.4181,2.5364,-4.4057,1.6909,4.0651,5.1263,0.0441,-1.6003,5.3983,1.0699,3.4989,2.0218
710.9375,2.4628,4.9442,7.0667,-4.1686,-2.1036,3.9790,11.0354,-4.2386,3.6650,-4.2456,2.6024,3.7385,3.6169,-0.3426,-2.4924,2.8262,0.0205,4.5146,1.3774
714.8438,4.5340,6.5886,8.8701,-2.7825,-3.2319,6.4297,15.2998,-2.4586,4.1540,-0.9061,3.4478,2.2781,0.8368,-1.5213,-1.6433,-0.8090,-1.8176,4.2954,-0.3934
718.7500,6.3084,7.7648,9.1129,-0.9844,-3.8161,8.8904,18.6368,0.1814,4.0108,3.8120,4.2218,0.8190,-1.9935,-2.6170,0.6995,-3.5416,-3.4757,3.3381,-2.0734
722.6562,6.5730,8.3269,8.3099,1.2090,-3.1645,10.3876,20.0195,3.5599,3.1090,7.4645,4.6939,0.1425,-3.8693,-2.7628,3.3631,-4.1879,-4.1628,2.0877,-2.6775
726.5625,4.8049,7.6908,6.6866,3.4474,-1.1764,9.9407,18.6678,7.0696,1.2592,8.2266,4.3938,0.1977,-4.3419,-1.5377,4.8198,-2.9281,-3.5666,0.6450,-1.9391
730.4688,1.4001,5.2301,4.1071,5.0851,1.5732,7.1287,14.6408,9.7642,-1.5987,5.6729,2.8356,0.2336,-3.5707,0.7854,3.9938,-1.0229,-1.9247,-1.2011,-0.3593
734.3750,-2.6081,0.9066,0.4276,5.4085,4.0304,2.4775,9.0661,10.7040,-5.1728,0.7593,-0.0985,-0.5714,-2.1289,3.3241,0.8694,0.0867,0.1292,-3.6309,1.1558
738.2812,-6.0792,-4.3417,-4.0349,3.9640,5.0747,-2.6109,3.7534,9.3412,-8.7073,-4.7953,-3.8591,-2.4335,-0.6950,4.9812,-3.4281,-0.3080,1.8559,-6.3976,1.8198
742.1875,-8.1876,-8.8204,-8.3357,0.8196,3.9932,-6.4231,0.3347,5.7629,-11.1069,-9.2509,-7.2558,-4.7091,0.2295,4.9634,-7.1170,-1.8135,2.7070,-8.7037,1.3457
746.0938,-8.5457,-10.8672,-11.2341,-3.3974,0.8194,-7.7208,-0.5750,0.6775,-11.3147,-11.3332,-8.8786,-6.2326,0.4744,3.1557,-8.5558,-3.2727,2.5091,-9.5159,0.0009
750.0000,-7.1006,-9.7604,-11.8459,-7.7281,-3.6272,-6.3219,0.3378,-4.8375,-8.8144,-10.4045,-7.7399,-6.0220,0.1870,0.1556,-6.9579,-3.5396,1.4725,-8.1822,-1.6414
753.9062,-4.0179,-6.1776,-10.1817,-11.2651,-8.0472,-3.1447,1.5653,-9.6997,-4.0079,-6.5015,-3.8117,-3.9014,-0.3235,-3.0459,-2.7120,-2.1945,0.0391,-4.9701,-3.0695
757.8125,0.3038,-1.8942,-7.1899,-13.4801,-11.1927,0.3054,1.7369,-13.1256,1.7749,-0.3873,1.8375,-0.6627,-0.7980,-5.5501,2.7958,0.2079,-1.3427,-1.1384,-4.1008
761.7188,5.1465,1.1229,-4.2466,-14.3153,-12.3756,2.7072,0.4505,-14.7576,6.7229,6.4520,7.4019,2.3114,-1.1787,-6.9270,7.7377,2.4540,-2.3994,1.5917,-4.9115
765.6250,9.4998,1.6995,-2.4018,-14.0102,-11.6964,3.5115,-1.5493,-14.6073,9.2902,12.0843,11.0430,3.7237,-1.6093,-7.2866,10.5297,3.3334,-3.0818,1.9207,-5.8315
769.5312,12.3263,-0.0379,-1.8462,-12.8098,-9.8790,3.0389,-2.9338,-12.9082,8.8821,14.7765,11.6163,2.9573,-2.2756,-7.0391,10.3810,2.2665,-3.4759,-0.2873,-7.0333
773.4375,12.9803,-2.8815,-1.9153,-10.7785,-7.8174,2.0933,-2.6939,-10.0020,6.1060,13.7778,9.0911,0.2944,-3.1843,-6.5333,7.5168,-0.4226,-3.6534,-3.8698,-8.2993
777.3438,11.5177,-5.3072,-1.6071,-7.8646,-6.1051,1.3767,-0.7843,-6.3242,2.4163,9.7658,4.4816,-3.2925,-4.0375,-5.8200,3.0134,-3.6996,-3.5757,-6.9611,-9.0165
781.2500,8.6645,-6.3124,-0.2841,-4.1691,-4.8230,1.0809,1.8763,-2.4586,-0.6772,4.5822,-0.6543,-6.6115,-4.3151,-4.6864,-1.6694,-6.3374,-3.1169,-8.0086,-8.4396
785.1562,5.4334,-5.8683,1.8573,-0.2048,-3.6889,0.8743,3.9784,0.8463,-2.3972,0.3257,-4.8923,-8.7207,-3.5469,-2.9150,-5.2519,-7.4653,-2.1865,-6.6276,-6.1158
789.0625,2.6357,-4.7887,3.8134,3.0910,-2.4364,0.2384,4.5386,2.7947,-3.0217,-1.6724,-7.4578,-9.1989,-1.6223,-0.5710,-7.0432,-6.8683,-0.8527,-3.7905,-2.2576
792.9688,0.6137,-4.1545,4.2751,4.6740,-1.1447,-1.0978,3.3145,2.7978,-3.5449,-1.3479,-8.3445,-8.1604,1.0593,1.8843,-7.0278,-4.9214,0.6257,-1.2381,2.1597
796.8750,-0.6542,-4.6459,2.3393,3.8912,-0.2877,-2.9024,0.7602,0.7508,-4.8863,0.4039,-8.0291,-6.0891,3.7006,3.7290,-5.6386,-2.2710,1.8819,-0.4628,5.6800
800.7812,-1.2167,-6.1379,-1.9276,0.8678,-0.4715,-4.4963,-2.2942,-2.8366,-7.1525,2.5459,-7.0029,-3.6166,5.4248,4.2704,-3.4036,0.4908,2.5697,-1.8684,6.9386
804.6875,-0.9035,-7.7453,-7.3555,-3.4712,-2.0446,-5.0560,-4.9409,-6.9723,-9.4404,4.5833,-5.4447,-1.3337,5.6201,3.1153,-0.7108,2.9471,2.4468,-4.5904,5.2615
808.5938,0.5878,-8.2674,-12.0508,-7.7774,-4.8446,-3.9827,-6.3286,-10.5442,-10.3329,6.6165,-3.2458,0.3339,4.1377,0.2851,2.1788,4.7543,1.3776,-7.0471,0.9988
812.5000,3.3162,-6.8034,-14.1489,-10.8441,-8.2339,-1.1618,-5.7350,-12.7355,-8.7937,8.8110,-0.3427,1.2050,1.2881,-3.8280,4.9464,5.5012,-0.6926,-7.8511,-4.5778
816.4062,6.7443,-3.2408,-12.6177,-12.0365,-11.3713,2.9711,-2.7605,-13.2688,-4.8944,10.8160,2.9194,1.3838,-2.2889,-8.5771,7.0822,4.7564,-3.6981,-6.5234,-9.7504
820.3125,9.7472,1.6167,-7.7386,-11.3673,-13.5208,7.5435,2.3493,-12.3506,0.0990,11.7007,5.7126,1.2398,-5.7673,-13.1606,7.9902,2.3689,-7.3241,-3.6191,-12.9641
824.2188,11.0737,6.3530,-1.0122,-9.2370,-14.2125,11.4854,8.4974,-10.3777,4.3558,10.5326,7.0630,1.2895,-8.2499,-16.7027,7.3124,-1.1770,-10.8819,-0.2736,-13.2979
828.1250,10.0095,9.5442,5.4962,-6.0730,-13.2267,13.8323,13.9519,-7.6207,6.4473,7.1545,6.4144,1.9765,-8.9149,-18.3832,5.2422,-4.6883,-13.3545,2.4718,-10.6474
832.0312,6.8115,10.3798,10.0612,-2.1430,-10.5270,14.0268,17.0428,-4.1148,6.0603,2.5078,4.0351,3.4245,-7.2611,-17.6649,2.5560,-6.6743,-13.7144,4.1230,-5.6489
835.9375,2.6122,8.9917,11.9750,2.3412,-6.2879,12.1279,16.9939,0.1588,4.0379,-1.8180,0.9537,5.2982,-3.4165,-14.5627,0.2720,-6.1014,-11.4262,4.7385,0.5302
839.8438,-1.1626,6.3140,11.6341,6.9524,-1.0335,8.8215,14.3337,4.9401,1.7572,-4.5150,-1.5839,6.8861,1.6779,-9.7901,-0.8783,-3.0390,-6.8623,4.5971,6.4342
843.7500,-3.5006,3.5451,10.0127,10.8781,4.2623,5.1759,10.5454,9.4752,0.2670,-5.2797,-2.8086,7.4142,6.4256,-4.6287,-0.8197,1.2638,-1.3340,3.8516,10.5943
847.6562,-4.2101,1.5064,7.8879,13.0659,8.3149,2.2057,7.1368,12.6459,-0.2677,-4.7943,-2.8257,6.4498,9.1370,-0.5017,-0.0976,4.9966,3.3744,2.4421,11.8753
851.5625,-3.8246,0.2647,5.3528,12.6777,9.9634,0.4427,4.7681,13.4406,-0.4961,-4.0248,-2.4575,4.1705,8.7871,1.5661,0.5291,6.7489,5.7789,0.3000,9.8665
855.4688,-3.1394,-0.7657,1.9583,9.6014,8.7159,-0.2505,3.0607,11.5217,-1.2862,-3.4347,-2.6430,1.3250,5.5592,1.3239,0.5650,6.2112,5.3641,-2.3651,5.1533
859.3750,-2.7242,-2.3099,-2.6198,4.6872,5.0684,-0.4978,1.2158,7.5281,-3.0321,-2.7662,-3.8011,-1.1152,0.8181,-0.7011,-0.0054,4.1735,2.7648,-4.9626,-0.7510
863.2812,-2.7090,-4.6354,-7.8952,-0.4945,0.3383,-0.9533,-1.0660,2.8806,-5.3206,-1.5501,-5.5736,-2.4208,-3.5360,-3.5575,-0.8800,1.8700,-0.6443,-6.7130,-5.9113
867.1875,-2.9049,-7.2568,-12.4301,-4.2990,-3.9562,-1.8516,-3.1318,-0.8578,-7.1519,0.1287,-7.0891,-2.4154,-5.9999,-6.3556,-1.7971,0.1661,-3.5027,-7.0158,-8.7576
871.0938,-3.0843,-9.1396,-14.4439,-5.7327,-6.8297,-2.8578,-3.8059,-2.7284,-7.5427,1.3303,-7.5338,-1.4549,-6.1572,-8.5971,-2.7675,-0.8360,-5.1128,-5.7409,-8.7601
875.0000,-3.1762,-9.2875,-12.8403,-4.8704,-8.2305,-3.3231,-2.4055,-2.8114,-6.1118,0.7892,-6.6325,-0.1134,-4.7355,-10.1917,-3.9828,-1.5536,-5.6241,-3.2601,-6.6013
878.9062,-3.2562,-7.3497,-7.9826,-2.7402,-8.8623,-2.7745,0.4748,-2.0924,-3.2927,-2.0537,-4.7440,1.1999,-3.0316,-11.2249,-5.4868,-2.3210,-5.7034,-0.2267,-3.7130
882.8125,-3.3946,-3.8741,-1.6659,-0.7409,-9.5521,-1.2974,3.1129,-1.8374,-0.0821,-6.3159,-2.5666,2.4334,-2.0928,-11.6945,-6.9103,-2.9689,-5.9637,2.7252,-1.4360
886.7188,-3.5309,-0.0546,3.7505,0.0879,-10.5946,0.4610,3.7454,-2.8336,2.4826,-9.8918,-0.7107,3.7850,-2.1648,-11.4201,-7.5381,-2.9408,-6.5391,5.1649,-0.3092
890.6250,-3.4905,2.8644,6.5348,-0.4423,-11.5137,1.6821,1.8365,-4.9297,3.7873,-10.6056,0.5628,5.3975,-2.7078,-10.1704,-6.7154,-1.8296,-7.0510,6.8665,0.0826
894.5312,-3.1250,4.1686,6.3718,-1.6625,-11.3947,1.8913,-1.4365,-7.1269,3.8053,-7.5753,1.3079,7.1003,-2.8924,-7.8860,-4.3246,0.1456,-6.9258,7.7089,0.6350
898.4375,-2.4517,3.9156,4.3028,-2.4991,-9.5540,1.2400,-3.9098,-8.1574,2.9405,-1.8683,1.6702,8.3981,-2.1959,-4.8224,-0.9843,2.1642,-5.8022,7.6128,1.9731
902.3438,-1.6813,2.7472,1.9367,-2.1238,-6.0888,0.3600,-3.8986,-7.2144,1.7149,4.0080,1.6976,8.7210,-0.7084,-1.5191,2.1926,3.3524,-3.7574,6.5811,3.9403
906.2500,-1.1164,1.4461,0.4924,-0.4461,-1.9449,-0.1004,-1.3509,-4.4338,0.5162,7.4540,1.3309,7.7682,0.9921,1.3602,4.1439,3.4243,-1.2474,4.7862,5.6662
910.1562,-1.0060,0.5280,0.2686,1.8022,1.5307,0.0749,2.1561,-0.8807,-0.4790,7.1093,0.5425,5.7084,2.2320,3.2020,4.3607,2.8862,1.1339,2.5847,6.1403
914.0625,-1.4531,0.0865,0.7710,3.4207,3.2509,0.5494,4.5709,1.9370,-1.2410,3.3873,-0.5380,3.1102,2.5919,3.5538,3.0572,2.6078,2.8863,0.3988,4.8780
917.9688,-2.4096,-0.0927,1.2625,3.3377,2.8560,0.7179,4.8134,2.7635,-1.7954,-1.9807,-1.6447,0.6539,2.0050,2.1879,0.9548,3.0873,3.7017,-1.4759,2.2226
921.8750,-3.7133,-0.2987,1.2752,1.1461,0.7477,0.1750,3.4462,1.1590,-2.1917,-6.9481,-2.5337,-1.1868,0.6238,-0.8180,-1.1220,4.0045,3.4523,-2.9971,-0.8939
925.7812,-5.1028,-0.7207,0.7648,-2.6808,-2.2453,-0.9662,2.1018,-2.3231,-2.5234,-10.0168,-3.1361,-2.3059,-1.3575,-4.9727,-2.5620,4.4477,2.1718,-4.3346,-3.5267
929.6875,-6.1995,-1.4085,-0.0747,-6.9849,-5.2937,-2.1235,2.1436,-6.3997,-2.9199,-10.5373,-3.5593,-2.9025,-3.7455,-9.3265,-3.0502,3.6629,0.0967,-5.6821,-5.2181
933.5938,-6.5148,-2.3175,-1.0689,-10.4236,-7.8193,-2.6122,3.5955,-9.6220,-3.4586,-8.5145,-3.9184,-3.2694,-6.2470,-12.6244,-2.4735,1.7358,-2.2791,-7.0611,-6.1036
937.5000,-5.5578,-3.3430,-2.1547,-12.0382,-9.5031,-2.0681,5.1390,-10.9834,-4.0349,-4.3037,-4.1348,-3.5861,-8.3718,-13.7048,-0.8270,-0.3602,-4.2546,-8.2658,-6.6225
941.4062,-3.0559,-4.3049,-3.2924,-11.6337,-10.1786,-0.6521,5.1395,-10.3153,-4.3103,1.4819,-3.8943,-3.8388,-9.5100,-12.0132,1.7547,-1.4402,-5.1451,-8.9944,-7.1084
945.3125,0.8094,-4.9403,-4.3766,-9.8180,-9.7923,1.0612,2.8875,-8.3158,-3.8394,7.8647,-2.8450,-3.8911,-9.2087,-7.9575,4.8734,-1.0188,-4.6074,-9.0707,-7.5815
949.2188,5.3049,-4.9823,-5.3019,-7.6940,-8.4914,2.3972,-0.8823,-6.2059,-2.3539,13.4819,-0.9311,-3.6400,-7.4900,-2.8607,7.8105,0.2477,-2.8783,-8.5923,-7.8618
953.1250,9.3062,-4.3260,-6.1301,-6.3483,-6.7224,2.8869,-4.5325,-5.1591,-0.0366,16.9076,1.3834,-3.1431,-4.9719,1.5344,9.6791,0.9706,-0.7431,-7.8881,-7.8458
957.0312,11.7014,-3.1669,-7.1356,-6.3522,-5.1652,2.4154,-6.6436,-5.7463,2.4297,17.2723,3.2120,-2.6305,-2.6544,3.7910,9.7822,0.0389,0.7984,-7.3053,-7.6685
960.9375,11.8748,-1.9633,-8.5612,-7.4858,-4.4396,1.2112,-6.8273,-7.6402,4.1441,14.8163,3.6794,-2.3780,-1.4471,3.3729,8.0009,-2.4847,1.0125,-6.9611,-7.5863
964.8438,10.0249,-1.1752,-10.1953,-8.8085,-4.7222,-0.2445,-5.6602,-9.7235,4.4827,10.9509,2.4643,-2.5036,-1.6936,0.8139,4.9714,-5.2481,-0.2021,-6.6265,-7.6738
968.7500,7.1265,-0.9239,-11.1285,-9.0617,-5.5415,-1.3297,-3.9086,-10.5744,3.5128,7.6636,0.1076,-2.8062,-2.9714,-2.5971,1.8928,-6.4043,-2.2629,-5.8282,-7.6064
972.6562,4.5082,-0.8292,-10.0336,-7.2531,-5.9487,-1.4312,-1.7722,-9.1250,2.0267,6.5257,-2.1649,-2.7753,-4.2927,-5.4168,0.0089,-4.8076,-4.1917,-4.1247,-6.7599
976.5625,3.2238,-0.2116,-5.9531,-3.1750,-5.0269,-0.1700,1.1888,-5.1948,1.1119,7.8369,-3.0755,-1.8269,-4.6095,-6.6226,-0.0028,-0.8211,-5.0805,-1.4147,-4.6183
980.4688,3.5254,1.4013,0.8569,2.3892,-2.4639,2.3442,5.3924,0.3581,1.4780,10.4101,-2.0548,0.3139,-3.3599,-5.9163,1.5826,3.7950,-4.4937,1.8929,-1.2271
984.3750,4.7272,3.7864,8.6486,7.9001,1.1659,5.3880,10.4361,5.9524,2.9547,12.1516,0.3275,3.2919,-0.7741,-3.6914,3.6094,6.8432,-2.6242,4.9523,2.6429
988.2812,5.5661,5.9356,14.8094,11.6711,4.6065,7.8004,14.9011,9.9272,4.5129,11.1621,2.5710,6.1020,2.2108,-0.7656,4.5859,6.8933,-0.1634,6.7907,5.7806
992.1875,4.9008,6.5282,17.1336,12.5881,6.5220,8.4804,17.0304,11.2145,4.8476,6.7923,3.0420,7.4797,4.3837,1.9602,3.4657,4.0153,2.0229,6.7335,7.1324
996.0938,2.3856,4.7442,15.0024,10.5938,6.1669,6.9834,15.8402,9.7261,3.1962,0.1005,0.9406,6.5636,4.8334,3.7851,0.2708,-0.3409,3.2512,4.7502,6.3580
1000.0000,-1.2629,0.9128,9.7220,6.6857,3.7570,3.8537,11.8488,6.2906,-0.1142,-6.5479,-3.1346,3.4769,3.3925,4.3761,-3.8018,-4.1726,3.2703,1.5393,4.0095
1003.9062,-4.5890,-3.4698,3.7874,2.4199,0.3530,0.4268,6.8596,2.2037,-3.7538,-10.5665,-7.3938,-0.5518,0.7430,3.8101,-6.9037,-5.9351,2.3230,-1.7221,1.2348
1007.8125,-6.1585,-6.4477,-0.4765,-0.8169,-2.6574,-1.8487,2.9226,-1.3537,-6.0888,-10.3945,-9.7670,-3.6775,-1.8737,2.4941,-7.4616,-5.1862,1.0140,-3.8717,-0.8032
1011.7188,-5.3443,-6.6551,-2.0497,-2.3756,-4.1870,-2.1903,1.1899,-3.7336,-6.0823,-6.2728,-9.0139,-4.3215,-3.2152,0.9896,-5.0240,-2.5934,0.0425,-4.2636,-1.4474
1015.6250,-2.6810,-4.0771,-1.4626,-2.4560,-3.8697,-0.8821,1.4335,-4.8954,-3.8563,-0.1394,-5.3880,-1.9662,-2.6019,-0.2029,-0.5492,0.5937,-0.0938,-3.0094,-0.7297
1019.5312,0.4207,-0.0465,-0.1026,-1.7426,-2.1002,0.9612,2.4885,-5.1673,-0.5871,5.3189,-0.4690,2.5971,-0.2141,-0.8101,4.0537,3.2516,0.6993,-0.8256,0.8249
1023.4375,2.4388,3.5185,0.8565,-0.8385,0.2656,2.1146,3.2206,-4.8946,2.1755,7.9647,3.7185,7.7021,3.0256,-0.8248,6.8887,4.8938,2.0946,1.4182,2.5885
1027.3438,2.5358,5.1491,1.1481,0.1128,2.3505,1.9781,3.2907,-4.2141,3.3277,7.1667,5.7460,11.6408,5.9141,-0.4129,6.9993,5.7556,3.5202,3.1605,4.1406
1031.2500,0.9296,4.4960,1.3153,1.3710,3.6064,0.8584,3.2042,-3.0799,2.6792,3.9157,5.3599,13.3867,7.5176,0.2300,4.7343,6.4644,4.4358,4.3160,5.3224
1035.1562,-1.3410,2.2672,1.9977,3.1686,3.9305,-0.3555,3.7023,-1.4848,0.8388,0.0914,3.3066,12.8139,7.5061,0.9554,1.3824,7.5000,4.5579,5.0499,6.0572
1039.0625,-3.0653,-0.4284,3.1993,5.2427,3.5440,-0.8639,5.0140,0.3126,-1.3183,-2.6275,0.6278,10.3918,6.1132,1.6163,-1.6455,8.7527,3.9106,5.3511,6.1211
1042.9688,-3.5028,-2.8164,4.1010,6.7052,2.7445,-0.5002,6.5367,1.7440,-3.1950,-3.5432,-2.0227,6.6923,3.8017,1.9564,-3.5494,9.4389,2.6947,4.7724,5.0774
1046.8750,-2.6527,-4.7594,3.5550,6.4106,1.6903,0.2080,7.1543,2.1311,-4.6657,-2.9947,-4.5622,2.1249,0.9105,1.5743,-4.3621,8.4630,1.0906,2.6205,2.4740
1050.7812,-1.0670,-6.4848,0.9127,3.6341,0.3361,0.4589,5.9369,1.0235,-5.8483,-1.7941,-7.1061,-2.9240,-2.4433,0.0647,-4.6169,5.0720,-0.8428,-1.4464,-1.7811
1054.6875,0.5803,-8.0369,-3.3841,-1.3583,-1.4541,-0.2487,2.7401,-1.5280,-6.7013,-0.5508,-9.4177,-7.7422,-6.1319,-2.6923,-4.7912,-0.5396,-3.0831,-6.8001,-7.0920
1058.5938,1.8458,-8.9489,-7.8423,-7.2256,-3.6876,-1.7877,-1.6509,-4.9258,-6.8054,0.6069,-10.7013,-11.1340,-9.6520,-6.2713,-4.9668,-7.0422,-5.4330,-11.6990,-12.1299
1062.5000,2.5958,-8.4375,-10.5711,-12.0446,-6.0577,-3.5171,-5.8572,-8.2311,-5.5396,1.7827,-9.9795,-11.7300,-11.9680,-9.6768,-4.9158,-12.3769,-7.3639,-13.8761,-15.1823
1066.4062,2.8592,-5.9981,-10.1723,-14.1209,-7.9153,-4.7104,-8.4664,-10.4990,-2.5563,2.8623,-6.8265,-8.6784,-11.7978,-11.6428,-4.4642,-14.6113,-8.0857,-11.6491,-14.7957
1070.3125,2.6548,-1.9477,-6.3890,-12.6774,-8.4474,-4.9785,-8.5142,-11.0673,1.7771,3.3452,-1.9108,-2.2993,-8.2741,-11.1428,-3.7762,-12.8312,-6.8746,-4.9517,-10.4360
1074.2188,1.9609,2.5275,-0.2054,-8.0756,-6.9945,-4.4136,-5.7248,-9.6817,6.3051,2.6719,3.1023,5.7637,-1.6125,-7.8547,-3.2967,-7.6077,-3.5015,4.3511,-2.8386
1078.1250,0.8233,5.9168,6.6011,-1.5165,-3.3612,-3.4133,-0.5213,-6.4604,9.4936,0.7869,6.3086,13.0777,6.6653,-2.3360,-3.4015,-0.7891,1.4969,13.1377,6.1591
1082.0312,-0.5458,7.1953,12.2073,5.5369,2.0365,-2.3659,6.1027,-1.7963,10.1309,-1.5899,6.5371,17.4053,14.1850,4.1747,-4.0614,5.2759,6.9021,18.4013,14.2656
1085.9375,-1.8122,6.3714,15.4404,11.8680,8.2584,-1.4393,12.7947,3.7111,7.9449,-3.3184,3.9361,17.6303,18.6866,10.2100,-4.8217,8.6943,11.2537,18.6154,19.5828
1089.8438,-2.7020,4.4201,16.1356,16.7139,14.1186,-0.5912,18.1336,9.2733,3.7996,-3.6411,-0.1650,14.1592,19.0162,14.5468,-5.1311,8.7164,13.4358,14.3788,21.2601
1093.7500,-3.1647,2.6577,15.0319,19.6808,18.5207,0.2647,20.9819,13.9470,-0.6389,-2.8192,-3.9839,8.6427,15.6105,16.5028,-4.7558,5.8878,13.1134,8.0275,19.6624
1097.6562,-3.3609,1.9787,13.2816,20.5564,20.7094,1.1077,20.8193,16.7640,-3.6013,-2.0379,-6.1208,3.2213,10.2214,15.9879,-3.9288,1.6814,10.8032,2.4577,16.0102
1101.5625,-3.4659,2.4356,11.8209,19.2243,20.3697,1.8015,17.9215,16.9757,-3.9451,-2.5456,-6.0270,-0.3079,5.0466,13.3762,-3.0956,-2.1556,7.5688,-0.2015,11.7296
1105.4688,-3.4537,3.3871,10.9233,15.7535,17.5991,2.2195,13.2847,14.3304,-1.5865,-4.6191,-3.9495,-1.0500,1.7479,9.3183,-2.4586,-4.2473,4.5209,0.5911,7.8758
1109.3750,-3.0689,4.0532,10.1800,10.5723,12.8335,2.3889,8.2995,9.2486,2.5300,-7.1578,-0.5594,0.8487,0.8561,4.5759,-1.7080,-4.0085,2.3829,3.8064,4.9056
1113.2812,-2.0449,4.0692,8.9210,4.5581,6.7884,2.5252,4.2974,2.7946,6.8766,-8.2956,3.3877,4.4267,1.8003,-0.0942,-0.2033,-1.7477,1.3109,7.5733,2.8300
1117.1875,-0.4079,3.6779,6.8217,-1.0721,0.4123,2.9248,2.1385,-3.5693,9.9819,-6.6628,7.1623,8.3351,3.4391,-4.0248,2.4839,1.5367,0.9993,10.1651,1.5407
1121.0938,1.4034,3.4752,4.2913,-5.0668,-5.2056,3.7859,1.9776,-8.3606,10.9878,-2.4015,10.0153,11.3029,4.7251,-6.7029,6.0641,4.5819,0.9594,10.7370,1.0284
1125.0000,2.7538,3.9256,2.3432,-6.5214,-9.0270,5.0746,3.2740,-10.4628,9.9036,2.8297,11.2019,12.5146,5.1418,-7.8174,9.4710,6.3673,0.7994,9.5141,1.3415
1128.9062,3.2487,4.9925,1.9765,-5.1869,-10.3398,6.5168,5.0340,-9.4148,7.4811,6.9035,10.2112,11.8101,4.7514,-7.2895,11.3591,6.5086,0.3763,7.4390,2.3602
1132.8125,3.0687,6.1157,3.4439,-1.5935,-9.0242,7.7107,6.2145,-5.5440,4.7945,8.5860,7.0975,9.6517,3.9427,-5.2980,10.8639,5.3604,-0.2176,5.5443,3.6199
1136.7188,2.9046,6.5287,5.9093,3.0591,-5.6729,8.2925,6.1544,0.0830,2.7326,8.2280,2.6453,6.8696,3.1055,-2.3053,8.1242,3.7542,-0.7838,4.3996,4.3863
1140.6250,3.4720,5.6951,7.7776,7.2229,-1.4736,8.0685,4.8596,5.8999,1.6310,7.2915,-1.8449,4.2847,2.4265,0.9411,4.2171,2.4883,-1.1737,3.8952,3.9914
1144.5312,4.9125,3.6015,7.5478,9.4636,2.1421,7.0612,2.9859,10.2520,1.2011,7.0828,-5.1054,2.3766,1.8687,3.4937,0.5424,1.8494,-1.3918,3.4252,2.2251
1148.4375,6.5147,0.7578,4.6788,8.9365,3.9683,5.4673,1.4859,11.8984,0.7631,7.6530,-6.4914,1.1495,1.2691,4.4224,-1.9440,1.4572,-1.6071,2.3264,-0.4886
1152.3438,7.0122,-2.0609,-0.0722,5.7137,3.4375,3.5634,1.0806,10.4466,-0.3512,7.7023,-6.2601,0.2458,0.4510,3.1393,-3.1698,0.5448,-2.0738,0.3147,-3.2741
1156.2500,5.3238,-4.1630,-5.0404,0.8089,0.8156,1.6118,1.8564,6.5311,-2.4321,5.5747,-5.3710,-0.7768,-0.7040,-0.3018,-3.8197,-1.4869,-2.9983,-2.3199,-5.2456
1160.1562,1.2901,-5.2010,-8.5163,-4.1604,-2.8997,-0.1903,3.2539,1.6102,-5.2371,0.6184,-4.9361,-2.1687,-2.2140,-5.1035,-4.7749,-4.5960,-4.4088,-4.8555,-5.9357
1164.0625,-4.0722,-5.2420,-9.5428,-7.5776,-6.3423,-1.7073,4.4788,-2.5799,-8.1041,-6.0828,-5.6417,-3.8489,-3.9526,-9.9304,-6.5097,-8.0246,-6.0836,-6.5219,-5.4523
1167.9688,-8.9830,-4.6637,-8.2118,-8.4564,-8.2715,-2.8301,5.0694,-4.6964,-10.2596,-12.1543,-7.4527,-5.4489,-5.6103,-13.3673,-8.8151,-10.6869,-7.5793,-6.9010,-4.2947
1171.8750,-11.7542,-3.9649,-5.3880,-6.8095,-8.0110,-3.4602,5.2096,-4.2856,-11.1627,-15.2677,-9.7084,-6.4839,-6.7127,-14.4304,-10.9742,-11.7767,-8.3621,-6.1197,-2.9880
1175.7812,-11.6043,-3.5870,-2.1557,-3.5817,-5.6690,-3.5461,5.5365,-1.8775,-10.7280,-14.4869,-11.4996,-6.5600,-6.7521,-12.8895,-12.2220,-11.2025,-8.0022,-4.7448,-1.7961
1179.6875,-8.9919,-3.8008,0.6259,-0.1851,-2.0589,-3.1615,6.5575,1.3430,-9.3373,-10.7698,-12.0945,-5.5440,-5.4177,-9.2716,-12.1791,-9.5732,-6.3566,-3.4638,-0.6862
1183.5938,-5.3316,-4.6555,2.4632,2.1281,1.6405,-2.5545,8.1117,4.1006,-7.6526,-6.3701,-11.2155,-3.6467,-2.8196,-4.5916,-11.0086,-7.7552,-3.6610,-2.7486,0.4813
1187.5000,-2.2976,-5.9634,3.1563,2.7483,4.3392,-2.0923,9.3266,5.5406,-6.3169,-3.5855,-9.0819,-1.3896,0.4412,0.0149,-9.2460,-6.3061,-0.4813,-2.6793,1.7245
1191.4062,-1.0972,-7.3071,2.7373,1.8420,5.4113,-2.0796,9.1728,5.4628,-5.6741,-3.6330,-6.2518,0.5671,3.4472,3.5849,-7.4498,-5.1590,2.4654,-2.9832,2.8649
1195.3125,-2.0430,-8.0964,1.5230,0.1274,4.8419,-2.5418,7.2599,4.2301,-5.6233,-6.2293,-3.3631,1.7070,5.3391,5.4833,-5.8965,-3.7546,4.5556,-3.2158,3.6514
1199.2188,-4.5427,-7.7158,0.1671,-1.5420,3.1085,-3.1261,4.2781,2.4687,-5.6762,-9.9489,-0.8871,1.9355,5.7087,5.4621,-4.4940,-1.5155,5.4680,-2.9574,3.9640
1203.1250,-7.4278,-5.7747,-0.5005,-2.5609,0.8869,-3.2441,1.6972,0.7467,-5.2060,-13.0068,1.0009,1.6768,4.7894,3.6899,-2.9426,1.6568,5.2678,-1.9508,3.9104
1207.0312,-9.4405,-2.3853,0.0945,-2.7693,-1.2582,-2.4246,0.8539,-0.6281,-3.7918,-14.0142,2.3777,1.6630,3.3157,0.7474,-1.0361,5.1872,4.3280,-0.1822,3.7224
1210.9375,-9.7039,1.6797,1.7912,-2.4347,-3.0532,-0.6838,2.0262,-1.6500,-1.5051,-12.4338,3.3769,2.4605,2.1094,-2.4829,1.0848,8.0534,3.1261,2.0622,3.5251
1214.8438,-8.0421,5.1070,3.5483,-2.0873,-4.5133,1.3472,4.1510,-2.5360,1.0143,-8.6927,3.9645,3.9949,1.6140,-5.0857,2.8892,9.2904,2.0139,4.1732,3.1648
1218.7500,-5.0534,6.4830,3.8663,-2.3030,-5.8079,2.6753,5.4212,-3.5845,2.7658,-4.0116,3.8545,5.4144,1.6446,-6.4746,3.6796,8.4779,1.0755,5.3032,2.2485
1222.6562,-1.8844,4.9171,1.6225,-3.4968,-7.0982,2.4795,4.3913,-5.0215,2.8185,0.0112,2.6744,5.4764,1.5053,-6.6556,2.9898,5.9460,0.1443,4.6293,0.3927
1226.5625,0.2543,0.5535,-3.1780,-5.7626,-8.4362,0.6198,0.8677,-6.8692,0.7813,2.0148,0.3241,3.3110,0.4167,-6.2013,0.9435,2.6154,-1.0331,1.7524,-2.4762
1230.4688,0.6577,-5.3314,-9.2502,-8.7904,-9.7478,-2.2059,-3.9949,-8.8800,-2.9206,1.5263,-2.7080,-0.8876,-1.9841,-5.8952,-1.6535,-0.4120,-2.5811,-2.9489,-5.9759
1234.3750,-0.4923,-10.7639,-14.6265,-11.8995,-10.8708,-4.7815,-8.4139,-10.5787,-7.1224,-0.6750,-5.3432,-5.7197,-5.3590,-6.2319,-3.5977,-2.2866,-4.3554,-8.2570,-9.3788
1238.2812,-2.1712,-13.8784,-17.6537,-14.2157,-11.5994,-5.9984,-10.9958,-11.4223,-10.3477,-2.7915,-6.3365,-9.1740,-8.7622,-7.0861,-3.8520,-2.6737,-5.9651,-12.4813,-11.9123
1242.1875,-3.0213,-13.7026,-17.7686,-14.9553,-11.7154,-5.4189,-11.3728,-11.0185,-11.4070,-2.8761,-4.9476,-9.6708,-11.0619,-7.7768,-2.1075,-1.7678,-6.9472,-14.1428,-13.0624
1246.0938,-2.0864,-10.5219,-15.5807,-13.7154,-11.0210,-3.4496,-10.1026,-9.2923,-9.8924,0.0564,-1.4571,-6.9514,-11.4560,-7.5016,0.9822,-0.1121,-6.9920,-12.6500,-12.7097
1250.0000,0.6348,-5.6432,-12.2731,-10.6353,-9.3927,-1.0437,-8.0213,-6.5025,-6.3323,5.3313,2.8424,-2.2610,-9.8054,-5.8620,4.0669,1.6550,-6.0858,-8.5899,-11.0536
1253.9062,4.1599,-0.7118,-8.7866,-6.3456,-6.8544,0.8598,-5.5940,-3.0980,-1.9341,10.8397,6.2561,2.3110,-6.6269,-3.1311,5.7650,3.0110,-4.4896,-3.4521,-8.4227
1257.8125,7.0595,3.0284,-5.3613,-1.7247,-3.6324,1.8110,-2.7348,0.4860,1.9548,14.1559,7.5781,4.9519,-2.7869,-0.0903,5.3817,3.6637,-2.5801,1.0777,-5.1254
1261.7188,8.2550,5.1400,-1.7087,2.4105,-0.1528,1.9773,0.8383,3.9482,4.3993,13.9149,6.7321,5.0433,0.8993,2.4424,3.2742,3.5683,-0.6652,3.8711,-1.4352
1265.6250,7.5942,5.9010,2.3883,5.5275,3.0373,1.9030,5.0654,7.0769,5.1732,10.5898,4.7491,3.3489,3.9319,4.0635,0.6402,2.8809,1.0989,4.7532,2.3140
1269.5312,5.8559,5.8636,6.5470,7.4209,5.3977,2.0962,9.2812,9.5941,4.6766,6.1529,3.0807,1.4014,6.1383,4.9118,-1.1695,1.8743,2.6441,4.3588,5.6390
1273.4375,4.1992,5.3924,9.7450,8.0970,6.5212,2.7113,12.4360,11.0433,3.5579,2.8258,2.6704,0.4992,7.4881,5.4102,-1.4246,0.8362,3.8429,3.5857,7.9344
1277.3438,3.4312,4.4798,10.8118,7.6125,6.2172,3.4907,13.6270,10.8657,2.2908,1.7346,3.3755,0.9314,7.8901,5.8348,-0.4202,-0.0312,4.4142,3.0041,8.6406
1281.2500,3.5783,2.9165,9.1134,5.9926,4.5410,3.9583,12.5476,8.6733,0.9714,2.3674,4.1133,1.8749,7.1447,6.0394,0.7462,-0.6746,3.9878,2.5720,7.4757
1285.1562,4.0326,0.6561,4.9744,3.2841,1.7816,3.7226,9.5641,4.5688,-0.5433,3.1841,3.6471,1.9880,5.1021,5.5406,0.9158,-1.1741,2.3238,1.7997,4.6055
1289.0625,4.1439,-1.9037,-0.4137,-0.3006,-1.5782,2.7210,5.4311,-0.7082,-2.2670,2.9420,1.5148,0.3241,1.9205,3.9033,-0.3013,-1.6334,-0.4400,0.2265,0.6580
1292.9688,3.8178,-3.9321,-5.5098,-4.2650,-4.9325,1.2965,0.9131,-5.9471,-3.7693,1.7894,-1.4965,-2.9700,-1.7683,1.1531,-2.1220,-2.0194,-3.6849,-2.1055,-3.4313
1296.8750,3.6707,-4.4861,-9.0358,-7.8453,-7.6607,0.0836,-3.4105,-9.8921,-4.1950,1.3218,-3.6536,-6.5642,-4.9393,-2.0796,-2.9077,-2.0570,-6.4618,-4.4826,-6.6819
1300.7812,4.6051,-2.9737,-10.3634,-10.1970,-9.2661,-0.2472,-7.0886,-11.7134,-2.6887,3.4980,-3.2084,-8.5238,-6.5161,-4.7928,-1.0860,-1.2835,-7.8555,-5.7777,-8.3411
1304.6875,7.0828,0.4944,-9.5512,-10.6869,-9.5021,0.7096,-9.6538,-11.2719,0.9934,9.1110,0.5714,-7.2711,-5.8265,-6.0858,3.8234,0.7060,-7.3889,-5.0121,-8.0832
1308.5938,10.6112,5.0626,-7.1240,-9.1513,-8.4272,2.8747,-10.6131,-9.0527,6.0852,16.8605,6.8691,-2.4562,-2.9441,-5.5844,10.6861,3.9244,-5.2532,-1.9234,-6.0847
1312.5000,13.8408,9.4386,-3.7798,-5.9835,-6.3530,5.6578,-9.6456,-5.8353,10.9597,23.7256,13.5964,4.7040,1.2723,-3.5752,17.1045,7.7664,-2.2313,2.7783,-2.9613
1316.4062,15.2698,12.4205,-0.1679,-1.9921,-3.7063,8.1737,-6.8619,-2.3128,13.8396,26.5134,18.3429,11.8184,5.4838,-0.7932,20.5211,11.0777,0.6540,7.6327,0.4188
1320.3125,14.1325,13.3912,3.2132,1.9076,-0.8815,9.6221,-2.8917,1.1209,13.7078,23.6779,19.4892,16.3043,8.3922,1.9825,19.5001,12.5591,2.5917,11.0439,3.1962
1324.2188,10.8917,12.5295,6.0186,5.0120,1.8314,9.6389,1.3173,4.3254,10.8698,16.2901,16.8964,16.5178,9.2374,4.2778,14.4700,11.3416,3.3060,11.9853,4.7785
1328.1250,6.9902,10.6152,7.9881,6.9865,4.2086,8.4106,4.8794,7.1801,6.7786,7.5272,11.8280,12.4821,8.0452,6.0267,7.4830,7.4404,3.0948,10.4162,5.0000
1332.0312,3.9896,8.5174,8.8475,7.7896,5.9865,6.4697,7.2787,9.3505,3.1739,0.9498,6.1860,5.8321,5.5169,7.4013,1.1124,1.8252,2.5789,7.1811,4.1122
1335.9375,2.6337,6.6513,8.2473,7.4418,6.7880,4.3014,8.4133,10.2358,1.0377,-1.4250,1.5090,-1.0165,2.6282,8.5041,-2.8862,-3.9557,2.3028,3.4499,2.6023
1339.8438,2.4396,4.7380,5.8327,5.8388,6.1718,2.0383,8.3935,9.1731,0.0239,-0.1183,-1.7079,-6.0484,0.1435,9.1304,-4.3774,-8.4165,2.4034,0.0424,0.9207
1343.7500,2.0897,2.0564,1.4847,2.7940,3.8240,-0.5158,7.3021,5.8222,-1.2478,2.3185,-4.0181,-8.5416,-1.7098,8.7631,-4.6627,-10.7177,2.5172,-2.9393,-0.7398
1347.6562,0.3834,-1.9313,-4.3591,-1.6645,-0.1886,-3.5297,5.1404,0.5356,-4.1866,2.9723,-6.4011,-9.1898,-3.2458,6.8243,-5.4666,-10.9108,1.9773,-5.9316,-2.4872
1351.5625,-2.8643,-6.9659,-10.5300,-6.9312,-5.2412,-6.7162,2.0091,-5.5148,-9.1384,0.3763,-9.4233,-9.4158,-5.0083,3.0623,-7.7392,-9.7573,0.2001,-9.3109,-4.5575
1355.4688,-6.5638,-11.8313,-15.3303,-11.7051,-10.1823,-9.1951,-1.6423,-10.5998,-14.9174,-4.6231,-12.7086,-10.3192,-7.3138,-2.1380,-11.0152,-8.2572,-2.9311,-12.8087,-7.0125
1359.3750,-8.9197,-14.8435,-17.1500,-14.3335,-13.6180,-9.8426,-4.9537,-13.0479,-19.2987,-9.4213,-15.0449,-11.9152,-9.9061,-7.7138,-13.6934,-7.1431,-6.8824,-15.3945,-9.4898
1363.2812,-8.4872,-14.7617,-15.2448,-13.5531,-14.3801,-7.9725,-6.9156,-11.9798,-20.2065,-11.2469,-15.0577,-13.1231,-11.9300,-12.2188,-14.0205,-6.5732,-10.5878,-15.7812,-11.1805
1367.1875,-5.0727,-11.5781,-10.2282,-9.2536,-12.0043,-3.9177,-6.8518,-7.8056,-16.8939,-8.8122,-12.0411,-12.4851,-12.2732,-14.3511,-11.1530,-6.1268,-12.8323,-13.2632,-11.1080
1371.0938,0.0660,-6.6553,-3.9238,-2.7820,-7.0097,0.9149,-4.8405,-2.1827,-10.4134,-3.0584,-6.4483,-9.1420,-10.1260,-13.4811,-5.6713,-5.0710,-12.7332,-8.3270,-8.6141
1375.0000,4.8321,-2.0684,1.4263,3.4956,-0.8231,4.6324,-1.7954,2.6282,-3.1137,3.3777,0.2326,-3.4612,-5.4812,-9.9254,0.6970,-2.7720,-10.1080,-2.5775,-3.8203
1378.9062,7.3391,0.4816,4.1907,7.2309,4.6726,5.7824,0.8833,4.7537,2.5151,7.5875,6.1204,3.0403,0.6976,-4.8278,5.9098,0.9124,-5.5639,2.0327,2.1993
1382.8125,6.7914,0.5174,4.0366,7.1975,7.8215,4.0784,1.9296,3.5581,4.9685,7.8443,9.7183,8.3869,6.7557,0.2997,8.4959,5.4179,-0.2736,4.2072,7.6857
1386.7188,3.7366,-1.1244,1.8925,3.8436,7.8349,0.5000,0.8000,-0.0961,4.2260,4.3090,10.4155,11.0207,10.9736,4.1563,8.0585,9.5623,4.4615,3.9056,10.8465
1390.6250,-0.3694,-2.9861,-0.7434,-1.0255,5.0991,-3.2686,-2.0500,-4.3353,1.4447,-1.2790,8.5247,10.3973,12.2566,6.0842,5.2566,11.9593,7.6657,2.1640,10.6185
1394.5312,-3.9510,-3.9711,-2.6765,-5.2416,0.9882,-5.6996,-5.3206,-7.2454,-1.8443,-6.5957,4.9555,7.0710,10.5644,6.1737,1.4099,11.6327,8.9697,0.2934,7.1793
1398.4375,-5.9845,-3.9465,-3.5229,-7.3519,-2.7549,-6.0753,-7.3775,-7.7862,-4.5023,-9.7866,0.7944,2.3467,6.8775,5.0381,-2.0226,8.5501,8.6126,-0.9700,1.9277
1402.3438,-6.2373,-3.5956,-3.5943,-7.1679,-4.7873,-4.6165,-6.9050,-6.1535,-6.1089,-10.0654,-2.9885,-2.2556,2.7179,3.4137,-3.9058,3.7601,7.1926,-1.7818,-3.0982
1406.2500,-5.0726,-3.6926,-3.3547,-5.5351,-4.7169,-2.1240,-3.4500,-3.4355,-6.7930,-7.7211,-5.6640,-5.4933,-0.5442,1.7990,-3.7593,-1.0242,5.3027,-2.8019,-6.1138
1410.1562,-3.0633,-4.3821,-2.9205,-3.5791,-3.1727,0.5483,2.3466,-0.8475,-6.8334,-3.7357,-6.7987,-6.7413,-2.2688,0.2892,-1.9153,-4.2495,3.2328,-4.4528,-6.3653
1414.0625,-0.6983,-5.0151,-1.9933,-1.9866,-1.3838,2.8477,8.9334,0.9401,-6.3688,0.6709,-6.3390,-6.1473,-2.7453,-1.3560,0.5673,-5.3194,0.8811,-6.4250,-4.4098
1417.9688,1.6827,-4.6616,-0.2545,-0.7835,-0.5144,4.5641,14.4001,1.9738,-5.3943,4.3760,-4.6973,-4.5677,-2.9340,-3.4851,2.2913,-4.8850,-2.0874,-7.8255,-1.7632
1421.8750,3.7912,-2.9071,2.1221,0.3242,-1.1179,5.6619,17.2011,2.6573,-3.9659,6.5532,-2.7113,-3.2438,-3.8940,-6.2958,2.1429,-4.4063,-5.9165,-7.8599,-0.1066
1425.7812,5.2911,-0.3251,4.2806,1.3971,-2.9777,6.1165,16.7567,3.1952,-2.3838,6.8056,-1.3753,-3.2568,-6.1835,-9.6597,-0.1147,-5.2110,-10.4388,-6.5235,-0.4640
1429.6875,5.8250,1.7464,5.0263,1.9728,-5.3622,5.8917,13.6561,3.2873,-1.1713,5.2471,-1.4069,-4.9586,-9.5243,-13.0979,-3.6238,-7.6137,-14.9401,-4.7489,-2.7652
1433.5938,5.1602,1.9952,3.5235,1.2880,-7.4850,5.0335,9.3514,2.3053,-0.8411,2.4666,-2.8758,-7.6936,-12.8889,-15.9148,-6.7948,-10.6560,-18.3133,-3.8574,-5.9846
1437.5000,3.3494,-0.0421,-0.1025,-1.1451,-8.8787,3.7509,5.4818,-0.1853,-1.6077,-0.6803,-5.1389,-10.0449,-14.9633,-17.4410,-8.1145,-12.6461,-19.4653,-4.6778,-8.7327
1441.4062,0.7893,-3.6717,-4.6666,-5.0428,-9.4895,2.3845,3.1624,-3.9539,-3.2424,-3.3943,-7.1591,-10.5581,-14.7645,-17.2891,-6.9550,-12.1701,-17.8067,-6.9516,-9.9570
1445.3125,-1.8693,-7.4354,-8.4266,-9.3202,-9.5079,1.2702,2.5931,-8.0416,-5.1625,-5.2015,-8.0372,-8.5686,-12.1158,-15.5128,-3.8924,-8.9429,-13.5813,-9.4511,-9.3889
1449.2188,-3.9226,-9.9232,-9.9198,-12.5857,-9.1121,0.5969,3.1559,-11.1771,-6.6940,-6.0116,-7.4459,-4.6361,-7.7570,-12.5877,-0.3343,-3.9830,-7.8514,-10.7374,-7.5497
1453.1250,-4.8390,-10.4810,-8.6735,-13.8517,-8.3226,0.3452,3.8839,-12.4124,-7.3502,-5.9585,-5.7183,-0.2905,-3.0372,-9.2148,2.3017,0.9616,-2.1127,-10.0496,-5.3831
1457.0312,-4.4327,-9.4112,-5.4147,-13.0125,-7.0495,0.3242,3.9926,-11.5819,-6.9850,-5.1895,-3.5755,2.7822,0.6621,-6.0425,3.3268,4.3351,2.2907,-7.7370,-3.7559
1460.9375,-2.9318,-7.6277,-1.6937,-10.8040,-5.2581,0.2562,3.1740,-9.3223,-5.7803,-3.7995,-1.7050,3.6217,2.4999,-3.4497,2.9836,5.4673,4.6696,-4.9799,-3.0850
1464.8438,-0.9195,-6.0599,0.8630,-8.3045,-3.0997,-0.1388,1.5614,-6.6788,-4.1197,-1.9623,-0.4680,2.4155,2.4798,-1.4979,2.0437,4.6750,5.1634,-3.0251,-3.2334
1468.7500,0.8562,-5.1843,1.2911,-6.3127,-0.8980,-1.0647,-0.4970,-4.5627,-2.4413,-0.0949,0.1181,0.2380,1.3581,-0.0508,1.1513,2.8332,4.5167,-2.4526,-3.6570
1472.6562,1.7612,-4.9011,-0.3193,-4.9756,0.9999,-2.5548,-2.6237,-3.3692,-1.1216,1.1820,0.1883,-1.6640,0.2262,1.0505,0.4057,0.7979,3.6096,-2.9195,-3.6807
1476.5625,1.5525,-4.7181,-2.9261,-3.8458,2.3995,-4.3767,-4.4310,-2.9181,-0.3932,1.3762,-0.1644,-2.5457,-0.0068,1.8909,-0.5418,-0.9264,3.0221,-3.4700,-2.7723
1480.4688,0.5179,-4.0565,-5.0517,-2.2676,3.3395,-6.0085,-5.4478,-2.6763,-0.2754,0.5518,-0.9198,-2.3900,1.0273,2.5207,-2.0076,-2.1462,2.8680,-3.1390,-0.7263
1484.3750,-0.6221,-2.5028,-5.4548,0.1735,4.0292,-6.7703,-5.1417,-2.0898,-0.5228,-0.5091,-1.9912,-1.6263,3.1049,3.0610,-3.8234,-2.7448,2.9451,-1.4483,2.2750
1488.2812,-1.0461,0.0566,-3.6474,3.3938,4.6925,-6.1100,-3.1431,-0.8553,-0.6449,-0.6557,-3.0629,-0.6358,5.6444,3.7413,-5.2803,-2.5445,3.0425,1.4557,5.7250
1492.1875,-0.2496,3.4041,-0.0317,6.8489,5.4237,-3.9117,0.4306,0.9606,-0.0481,0.9015,-3.5791,0.5675,8.0494,4.7837,-5.5222,-1.4104,3.1592,4.9996,8.9641
1496.0938,1.6765,7.0396,4.3818,9.7990,6.1364,-0.6314,4.8100,2.9654,1.7037,3.9519,-2.9450,2.2764,9.9569,6.1883,-4.1028,0.5080,3.4744,8.5032,11.4094
1500.0000,4.0790,10.3147,8.5010,11.6453,6.6251,2.8631,8.7783,4.6128,4.6146,7.2400,-0.8412,4.7515,11.2715,7.5891,-1.3104,2.6441,4.1126,11.4118,12.7558
1503.9062,6.0891,12.6417,11.6208,12.1753,6.6877,5.6838,11.2053,5.4418,8.1280,9.1526,2.5379,7.8905,12.0178,8.3299,1.9528,4.1601,4.9029,13.3698,13.0453
1507.8125,7.0891,13.7010,13.5744,11.6180,6.2330,7.3145,11.6031,5.2934,11.2650,8.7481,6.4703,11.1372,12.1517,7.7670,4.6349,4.3191,5.3455,14.1962,12.5511
1511.7188,7.0229,13.5236,14.5076,10.4858,5.3141,7.7595,10.3315,4.3932,13.0133,6.4373,9.9334,13.6625,11.4775,5.6221,6.0277,2.8547,4.8454,13.8512,11.5269
1515.6250,6.3605,12.3725,14.4712,9.2680,4.0725,7.3703,8.2966,3.2239,12.7831,3.8042,11.9586,14.6664,9.7307,2.1524,6.0003,0.1115,3.0713,12.4185,9.9747
1519.5312,5.7435,10.4883,13.1601,8.1171,2.6267,6.4990,6.3388,2.2242,10.6774,2.6271,11.9453,13.6305,6.7645,-1.9854,4.8974,-3.1069,0.2008,10.0707,7.5977
1523.4375,5.5400,7.8919,10.0383,6.7100,0.9729,5.2492,4.7390,1.4845,7.4024,3.7288,9.8158,10.4496,2.7175,-6.0829,3.2494,-5.8609,-3.1181,6.9940,4.0106
1527.3438,5.5998,4.4287,4.8113,4.4091,-1.0279,3.5071,3.1908,0.6605,3.8603,6.4356,5.9824,5.4771,-1.9425,-9.6917,1.5140,-7.3816,-6.0642,3.3184,-0.8965
1531.2500,5.3714,0.0615,-2.0732,0.6976,-3.5431,1.2139,1.2389,-0.7870,0.6697,9.0273,1.1863,-0.4747,-6.5189,-12.6823,-0.0195,-7.2515,-8.0062,-0.8643,-6.6663
1535.1562,4.3082,-4.7942,-9.2900,-4.3328,-6.5747,-1.3600,-1.1715,-3.1450,-2.0741,9.8782,-3.7016,-6.2186,-10.2712,-15.0341,-1.1836,-5.4722,-8.7092,-5.3642,-12.2728
1539.0625,2.3002,-9.1870,-15.0535,-9.7598,-9.7902,-3.5855,-3.4829,-6.1006,-4.6393,8.5105,-7.8488,-10.4386,-12.6015,-16.5598,-1.8524,-2.4733,-8.2971,-9.7241,-16.4623
1542.9688,-0.1556,-11.9458,-17.9034,-14.0928,-12.5122,-4.7525,-4.8478,-8.7823,-7.2119,5.8422,-10.5709,-12.1046,-13.1846,-16.8296,-1.9157,0.9339,-7.0569,-13.1816,-18.2766
1546.8750,-2.1744,-12.2541,-17.3996,-15.9567,-13.9368,-4.4794,-4.7593,-10.2348,-9.4963,3.4756,-11.4058,-10.9023,-12.0297,-15.4063,-1.3198,3.7275,-5.2668,-14.8703,-17.4691
1550.7812,-2.9746,-10.1215,-14.2871,-14.8376,-13.5125,-2.9653,-3.5045,-10.0437,-10.6924,2.5396,-10.1833,-7.4213,-9.4803,-12.2431,-0.1272,5.0170,-3.1684,-14.2090,-14.5760
1554.6875,-2.3494,-6.4204,-10.0209,-11.4269,-11.2803,-0.9023,-2.0588,-8.6707,-9.9302,2.8988,-7.1040,-2.9261,-6.1476,-7.9348,1.4508,4.4638,-1.0509,-11.2582,-10.6077
1558.5938,-0.8257,-2.4380,-5.9535,-7.3017,-7.9487,0.9034,-1.4465,-7.2135,-6.9092,3.2729,-2.7913,1.2201,-2.7628,-3.5797,3.0632,2.5452,0.6967,-6.7994,-6.5523
1562.5000,0.6021,0.7757,-2.7039,-4.0802,-4.6081,1.9500,-2.0031,-6.6949,-2.3007,2.1697,1.7569,4.1686,0.0401,-0.2797,4.2728,0.4279,1.6850,-2.0413,-2.9831
1566.4062,1.0275,2.8461,-0.0890,-2.5454,-2.2059,2.2389,-3.0800,-7.3429,2.4175,-1.0119,5.3826,5.8711,1.9454,1.4262,4.6606,-0.5849,1.7507,1.9038,0.0233
1570.3125,0.1630,4.0379,2.4005,-2.2757,-1.0788,2.1552,-3.4331,-8.3718,5.6664,-5.4503,7.1374,6.8796,3.0681,1.8247,3.9839,0.2313,1.1447,4.4790,2.6621
1574.2188,-1.4656,4.8316,4.9711,-2.0153,-0.8299,2.1488,-2.0528,-8.4586,6.6057,-9.2828,6.6787,7.8271,3.8703,1.8067,2.3450,2.5743,0.5002,5.8159,5.0682
1578.1250,-2.7911,5.4615,7.2270,-0.5443,-0.6337,2.4438,1.1276,-6.6273,5.5824,-10.6404,4.4865,8.9622,4.8923,2.2985,0.2675,5.2613,0.5411,6.4916,7.1234
1582.0312,-2.8142,5.7586,8.4189,2.5110,0.2213,2.9456,5.1345,-2.9517,3.8806,-8.6944,1.7273,10.0489,6.4309,3.7120,-1.4320,6.9350,1.6847,7.0936,8.5308
1585.9375,-1.2212,5.3842,8.0499,6.4396,1.9008,3.3547,8.5284,1.4094,2.9131,-4.1223,-0.2470,10.6591,8.3491,5.7499,-1.9962,6.9160,3.7906,7.8724,9.0793
1589.8438,1.3349,4.2242,6.3739,9.9022,3.9763,3.3666,10.2569,4.8830,3.3560,1.2007,-0.5555,10.5882,10.1413,7.6561,-1.1607,5.6524,6.2293,8.6727,8.8842
1593.7500,3.4718,2.6031,4.3887,11.7511,5.7657,2.8178,10.2101,6.4182,4.7679,5.0333,0.7414,10.0491,11.2175,8.7030,0.5852,4.4429,8.2292,9.1261,8.3993
1597.6562,3.7354,1.1320,3.2837,11.6641,6.8037,1.7195,9.1379,6.0675,5.9213,5.6590,2.6418,9.4870,11.2302,8.5823,2.1261,4.5723,9.2777,8.9242,8.1619
1601.5625,1.3522,0.3043,3.6938,10.2026,7.1031,0.2135,8.0312,4.8443,5.6157,2.4644,3.7119,9.1689,10.2365,7.4700,2.2420,6.4007,9.3199,7.9763,8.4200
1605.4688,-3.3133,0.1531,5.2572,8.3110,7.0361,-1.4807,7.4253,3.9827,3.4448,-3.9207,2.8503,8.8828,8.5968,5.7889,0.2734,9.0044,8.6551,6.3778,8.8953
1609.3750,-8.8458,0.2367,6.7862,6.6451,6.9500,-3.1016,7.0936,4.1144,0.0433,-11.8476,-0.1123,8.0068,6.6973,3.8913,-3.4435,10.6411,7.6421,4.2713,8.8627
1613.2812,-13.3792,-0.0403,6.9532,5.1951,6.8267,-4.3806,6.3024,4.9053,-3.3107,-19.1114,-4.3123,5.9293,4.6999,1.8993,-7.6463,9.7860,6.4446,1.7482,7.5369
1617.1875,-15.4173,-1.0105,5.0647,3.4292,6.2510,-5.1018,4.4050,5.3538,-5.4521,-23.5619,-8.3005,2.5317,2.4971,-0.2164,-10.7076,6.1101,4.9899,-1.1253,4.5551
1621.0938,-14.4658,-2.5333,1.4465,0.8142,4.7126,-5.1647,1.3552,4.5066,-5.9629,-23.7643,-10.7750,-1.6096,-0.1024,-2.4347,-11.3906,0.7868,3.1352,-4.1945,0.2686
1625.0000,-11.1700,-4.1177,-2.7746,-2.6760,2.0146,-4.6010,-2.1836,2.0975,-5.3179,-19.5298,-11.1822,-5.4519,-3.1040,-4.5547,-9.3937,-4.0830,0.8787,-7.1359,-4.3470
1628.9062,-6.9077,-5.2490,-6.3222,-6.4089,-1.5176,-3.5107,-5.1687,-1.2829,-4.5011,-12.0593,-9.8732,-8.0033,-6.1816,-6.2527,-5.4121,-6.5959,-1.5625,-9.5031,-8.1320
1632.8125,-3.0729,-5.6548,-8.4277,-9.3824,-5.1730,-1.9588,-6.7085,-4.5414,-4.3641,-3.5244,-7.7725,-8.7943,-8.7700,-7.2761,-0.7236,-6.0498,-3.8586,-10.8849,-10.2905
1636.7188,-0.4329,-5.3242,-9.0967,-10.7437,-8.2299,0.0783,-6.4738,-6.6806,-5.1123,3.8261,-5.7913,-8.0182,-10.3386,-7.6117,3.4425,-3.2354,-5.7542,-11.0648,-10.7329
1640.6250,1.1091,-4.3177,-8.8647,-10.2074,-10.2931,2.6473,-4.7864,-7.2622,-6.1848,8.6261,-4.3334,-6.2843,-10.6556,-7.4884,6.4129,0.1321,-7.1723,-10.0693,-10.0127
1644.5312,2.2519,-2.5792,-8.2550,-8.1408,-11.3713,5.6618,-2.3851,-6.5020,-6.5569,10.8888,-3.1517,-4.1786,-9.8679,-7.2069,8.2253,2.4588,-8.1542,-8.0783,-8.9007
1648.4375,3.7170,0.0478,-7.3323,-5.3138,-11.6828,8.7795,-0.0270,-5.0249,-5.2787,11.7301,-1.5976,-1.9298,-8.3568,-6.9219,9.4100,3.1354,-8.7025,-5.2862,-7.8618
1652.3438,5.7083,3.5787,-5.6588,-2.5044,-11.3833,11.4361,1.8705,-3.4930,-1.9858,12.4745,0.9053,0.6172,-6.4904,-6.5374,10.5623,2.7025,-8.6823,-1.8418,-6.7661
1656.2500,7.7347,7.6086,-2.6873,-0.1956,-10.4463,13.0577,3.3856,-2.3279,2.8422,13.7153,4.4250,3.7258,-4.4573,-5.7882,11.9454,2.2694,-7.8858,2.0673,-5.0294
1660.1562,8.8993,11.2439,1.6695,1.5006,-8.7792,13.3280,4.9759,-1.6302,7.9747,14.9560,8.3457,7.3851,-2.2910,-4.4498,13.3145,2.6208,-6.2260,6.0497,-2.1100
1664.0625,8.4768,13.3656,6.6758,2.7085,-6.4571,12.3281,7.1270,-1.2642,11.8463,15.0736,11.5385,11.0710,-0.0412,-2.5329,14.0321,3.6324,-3.9055,9.4212,1.9450
1667.9688,6.4188,13.1145,10.8889,3.5706,-3.8578,10.4449,9.9196,-1.0148,13.1479,13.2675,12.8068,13.8151,2.0626,-0.3383,13.4061,4.3816,-1.4122,11.3239,6.2675
1671.8750,3.4661,10.3280,12.7469,4.0879,-1.5671,8.1139,12.7544,-0.7333,11.3729,9.7967,11.4179,14.5755,3.6029,1.6508,11.0799,3.8533,0.6777,11.0612,9.4413
1675.7812,0.7790,5.6741,11.3375,4.1008,-0.1081,5.5918,14.4606,-0.4273,7.0814,5.9373,7.4873,12.7422,4.1503,2.9667,7.2798,1.7306,1.9643,8.4907,10.1733
1679.6875,-0.7022,0.4061,6.9381,3.4077,0.3145,2.9318,13.8449,-0.2669,1.7399,3.1556,2.0319,8.5331,3.5160,3.3303,2.7870,-1.2916,2.3806,4.2435,8.0043
1683.5938,-0.7769,-4.1278,1.0226,1.9485,-0.1184,0.1714,10.4592,-0.4933,-2.8383,2.0808,-3.3591,3.0633,1.9143,2.7256,-1.3636,-3.8942,2.1479,-0.4006,3.6530
1687.5000,-0.0584,-6.9683,-4.2952,-0.0533,-0.9904,-2.4388,5.1412,-1.2499,-5.2247,2.0489,-7.1201,-1.9894,-0.0757,1.3695,-4.3088,-4.9527,1.5897,-3.9725,-1.2210
1691.4062,0.4491,-7.8099,-7.1236,-2.0805,-1.8906,-4.3867,-0.1030,-2.4183,-4.9479,1.6023,-8.3184,-5.0161,-1.7322,-0.3754,-5.6866,-4.2200,0.9527,-5.4074,-4.7319
1695.3125,0.0078,-6.9733,-6.5567,-3.4814,-2.5752,-5.1246,-2.9713,-3.5794,-2.6330,-0.3660,-7.0019,-5.1395,-2.4794,-2.0956,-5.6999,-2.4048,0.3574,-4.4833,-5.5978
1699.2188,-1.3797,-5.1582,-2.9972,-3.7476,-2.9739,-4.4378,-2.1044,-4.1775,0.3544,-3.6398,-4.1207,-2.5909,-2.0964,-3.4060,-4.9015,-0.6138,-0.1265,-1.8844,-3.6715
1703.1250,-2.9793,-3.1271,2.0714,-2.7850,-3.0933,-2.6855,2.0236,-3.8392,2.5705,-6.6248,-1.0658,1.3975,-0.7656,-4.0212,-3.8485,0.4286,-0.3884,1.1388,0.0681
1707.0312,-3.8075,-1.4579,6.7200,-1.0246,-2.9402,-0.7051,7.1767,-2.6643,3.1266,-7.3255,0.9492,5.1536,1.0321,-3.8223,-2.8425,0.8230,-0.2830,3.3366,4.0156
1710.9375,-3.2636,-0.4380,9.3076,0.7127,-2.5342,0.6032,10.4676,-1.2769,2.0001,-4.7231,1.3665,7.3074,2.7054,-2.9094,-1.8924,1.2971,0.2518,3.9704,6.6496
1714.8438,-1.5028,-0.0966,9.0211,1.5614,-1.9771,0.7592,9.9282,-0.5496,-0.0835,0.4011,0.4129,7.3401,3.7452,-1.6033,-0.8754,2.5394,1.0694,3.0317,7.1123
1718.7500,0.6825,-0.3204,6.0559,1.0041,-1.4787,-0.0645,5.6157,-1.1260,-2.0819,5.8017,-1.1393,5.6727,3.8669,-0.3699,0.2549,4.5695,1.8101,1.1027,5.4358
1722.6562,2.3672,-0.9708,1.4463,-0.8879,-1.2781,-1.2113,-0.4305,-3.0232,-3.1425,9.0761,-2.4234,3.2931,3.0785,0.3320,1.3692,6.6136,2.0628,-1.0185,2.3928
1726.5625,3.0298,-1.9379,-3.3351,-3.4904,-1.4981,-1.9901,-5.3694,-5.5692,-2.9540,9.0779,-2.9055,1.1733,1.6669,0.2298,2.2187,7.5752,1.6050,-2.7040,-0.8890
1730.4688,2.7656,-3.1081,-6.8575,-5.9105,-2.0409,-2.0985,-7.1533,-7.7287,-1.8272,6.4962,-2.5991,-0.1739,0.1015,-0.6309,2.5680,6.7551,0.5568,-3.6999,-3.3568
1734.3750,2.0695,-4.2903,-8.1623,-7.3617,-2.6185,-1.7415,-5.5636,-8.6227,-0.5150,3.2389,-2.0014,-0.7812,-1.1247,-1.8756,2.2811,4.3058,-0.6655,-4.0879,-4.3599
1738.2812,1.3866,-5.1848,-7.0423,-7.4406,-2.9070,-1.3987,-2.0965,-7.9291,0.1286,1.0779,-1.8154,-0.9871,-1.6743,-2.9387,1.3086,1.1146,-1.5746,-4.0920,-3.8057
1742.1875,0.7760,-5.4677,-4.0932,-6.1996,-2.7231,-1.4361,1.1335,-5.9427,-0.4830,0.5016,-2.6012,-1.1027,-1.4956,-3.3067,-0.3704,-1.7733,-1.8762,-3.8873,-2.1372
1746.0938,-0.0754,-4.9788,-0.4994,-4.0320,-2.1059,-1.8561,2.6992,-3.3064,-2.4091,0.5321,-4.5061,-1.2312,-0.8469,-2.7642,-2.7494,-3.7609,-1.6088,-3.5328,-0.1533
1750.0000,-1.5291,-3.9018,2.4061,-1.4792,-1.2603,-2.3493,2.5329,-0.6320,-5.1326,-0.4268,-7.1824,-1.3252,-0.1907,-1.5186,-5.6965,-4.9186,-1.0849,-3.0345,1.2866
1753.9062,-3.6231,-2.7807,3.6606,0.9359,-0.4230,-2.5731,1.6269,1.7366,-7.7561,-3.3490,-9.9154,-1.3645,0.0051,-0.1213,-8.8272,-5.7124,-0.6909,-2.4532,1.5921
1757.8125,-5.9332,-2.2886,3.0547,2.8052,0.2491,-2.4190,1.1067,3.7064,-9.3729,-7.8102,-11.8971,-1.4536,-0.5193,0.7933,-11.4768,-6.4954,-0.6762,-1.9418,0.6880
1761.7188,-7.7547,-2.8271,1.1906,3.8813,0.7003,-2.0534,1.4058,5.2523,-9.4474,-12.1555,-12.5195,-1.7282,-1.6792,0.8315,-12.8592,-7.1639,-1.0466,-1.6660,-0.9432
1765.6250,-8.4567,-4.1879,-0.8295,4.1058,0.9224,-1.7153,2.1044,6.2627,-8.0160,-14.4283,-11.5570,-2.1479,-3.0518,0.0501,-12.3678,-7.2178,-1.5967,-1.6609,-2.4735
1769.5312,-7.7570,-5.5268,-1.9436,3.6188,0.8926,-1.4538,2.4513,6.5508,-5.6094,-13.4103,-9.1768,-2.3763,-4.0344,-1.0704,-9.8690,-6.1434,-2.0354,-1.7393,-3.1261
1773.4375,-5.7670,-5.7437,-1.6281,2.7200,0.5588,-1.0383,2.0791,6.0074,-2.9554,-9.1521,-5.8210,-1.9012,-4.1021,-1.8900,-5.8309,-3.8146,-2.1297,-1.5441,-2.5695
1777.3438,-2.8504,-4.1056,-0.1068,1.7635,-0.1231,-0.1400,1.3292,4.7494,-0.6508,-2.7996,-2.0677,-0.3659,-3.0587,-1.9628,-1.2219,-0.6275,-1.8063,-0.7415,-1.1019
1781.2500,0.5330,-0.7607,1.8235,1.0197,-1.1367,1.3429,0.9555,3.1250,1.0054,4.0114,1.4445,2.1058,-1.1606,-1.2753,2.7719,2.6911,-1.1826,0.7513,0.4953
1785.1562,3.8727,3.1946,3.2391,0.5807,-2.3722,3.0697,1.4823,1.5547,1.9599,9.7461,4.0404,4.8360,0.9655,-0.2258,5.0971,5.4234,-0.5184,2.6487,1.3776
1789.0625,6.5719,6.1875,3.5625,0.3697,-3.6211,4.3423,2.7498,0.3239,2.2410,13.2828,5.0872,6.8700,2.5982,0.6408,5.1459,7.1084,-0.0963,4.3827,1.1158
1792.9688,7.9771,6.9498,2.8267,0.2473,-4.5906,4.4677,4.0120,-0.5247,1.8607,13.9873,4.2082,7.4598,3.2654,0.9704,2.9596,7.5810,-0.0709,5.3612,-0.0310
1796.8750,7.5749,5.1681,1.6198,0.1355,-4.9458,3.1696,4.5035,-1.1327,0.8752,11.7434,1.5758,6.4635,2.9734,0.7927,-0.7370,6.8696,-0.3593,5.2630,-1.2164
1800.7812,5.2868,1.6268,0.7629,0.0610,-4.4050,0.7754,4.0225,-1.6627,-0.4759,7.0327,-1.9327,4.4077,2.1741,0.4483,-4.7251,5.1107,-0.6570,4.2002,-1.4523
1804.6875,1.6491,-2.2391,0.8892,0.0871,-2.8936,-1.9467,3.0781,-2.1630,-1.7377,0.9530,-4.9464,2.1729,1.4697,0.3086,-7.7120,2.5667,-0.6094,2.6497,-0.1747
1808.5938,-2.3095,-5.1109,2.1164,0.1898,-0.6945,-4.1890,2.4963,-2.5524,-2.4320,-5.0041,-6.2112,0.4996,1.2200,0.4847,-8.8664,-0.3096,-0.0624,1.1873,2.3734
1812.5000,-5.4781,-6.4198,3.9540,0.1900,1.5221,-5.4829,2.8050,-2.7163,-2.3875,-9.4330,-5.3130,-0.3803,1.3045,0.7309,-8.2220,-2.8952,0.7660,0.1759,5.1662
1816.4062,-7.1261,-6.4872,5.4888,-0.1826,2.8890,-5.8265,3.8764,-2.6158,-1.9529,-11.5172,-3.0378,-0.7731,1.2134,0.6099,-6.6799,-4.5765,1.3420,-0.4113,6.8466
1820.3125,-7.1223,-6.1350,5.7859,-1.1147,2.7264,-5.5199,5.0868,-2.3162,-1.8594,-11.2265,-1.0222,-1.2175,0.4357,-0.1926,-5.5150,-5.0170,1.1134,-0.9224,6.3945
1824.2188,-5.7912,-6.0504,4.3458,-2.5345,0.9392,-4.8675,5.8399,-1.9188,-2.7363,-9.0762,-0.7820,-2.0545,-1.1038,-1.6189,-5.6044,-4.3430,-0.1155,-1.7517,3.6756
1828.1250,-3.5577,-6.3298,1.4082,-4.0593,-1.8213,-3.9774,6.0130,-1.4596,-4.5758,-5.6562,-2.6784,-3.1502,-2.8674,-3.2256,-6.8348,-3.1106,-1.9854,-3.0186,-0.4230
1832.0312,-0.6939,-6.4823,-2.0707,-5.1180,-4.3840,-2.7909,5.9625,-0.8652,-6.5484,-1.3394,-5.5285,-3.9473,-3.9501,-4.4165,-8.1151,-2.0537,-3.7282,-4.4054,-4.3626
1835.9375,2.6221,-5.8616,-4.8057,-5.1958,-5.6001,-1.2864,6.0948,-0.0037,-7.3833,3.5706,-7.2276,-3.8169,-3.6299,-4.7697,-8.0647,-1.7556,-4.6033,-5.2740,-6.6574
1839.8438,6.0111,-4.2160,-5.7780,-4.0759,-4.9130,0.3278,6.3753,1.2057,-6.1427,8.3967,-6.0859,-2.5047,-1.8812,-4.2567,-5.9863,-2.4231,-4.3527,-5.0223,-6.5653
1843.7500,8.6776,-1.9733,-4.7392,-1.9644,-2.6338,1.6066,6.2224,2.6981,-2.9069,11.8295,-2.0487,-0.4070,0.5004,-3.2311,-2.4773,-3.8612,-3.3657,-3.4860,-4.4147
1847.6562,9.5768,-0.0639,-2.3336,0.5525,0.2354,2.0791,4.9309,4.2394,1.1099,12.2763,3.0449,1.5037,2.2782,-2.2202,0.7851,-5.6193,-2.4218,-1.1422,-1.4058
1851.5625,7.9756,0.6151,0.2534,2.6899,2.5097,1.5433,2.3364,5.4761,4.1507,8.7836,6.4319,2.1002,2.4549,-1.6652,2.0249,-7.2005,-2.1696,1.0385,0.9974
1855.4688,4.0666,-0.2430,1.9319,3.7121,3.3566,0.2433,-0.8085,6.0254,4.8871,1.9629,6.0806,0.6804,0.8442,-1.7622,0.5153,-8.2273,-2.6921,2.0508,1.7603
1859.3750,-0.8361,-2.1279,2.2543,3.1697,2.5683,-1.2039,-3.1078,5.5715,3.1771,-5.8213,2.0006,-2.5843,-1.8132,-2.4571,-2.8636,-8.5144,-3.4576,1.3906,0.7019
1863.2812,-4.7718,-3.9596,1.5430,1.0616,0.4887,-2.1056,-3.3406,3.9608,0.1384,-11.3520,-3.6480,-6.5827,-4.2523,-3.5438,-6.0627,-8.0533,-3.6931,-0.6327,-1.5342
1867.1875,-6.0877,-4.6662,0.5421,-2.1244,-2.2644,-2.0488,-1.2923,1.2897,-2.5088,-12.1674,-7.7464,-9.6636,-5.3524,-4.7598,-7.0560,-6.9382,-2.9207,-3.0068,-3.8920
1871.0938,-4.3237,-3.7565,-0.1519,-5.5238,-5.0519,-1.1137,1.9941,-2.0369,-3.4167,-7.9400,-7.9855,-10.3556,-4.6749,-5.8233,-5.0466,-5.2722,-1.2865,-4.5194,-5.4333
1875.0000,-0.4792,-1.5649,-0.4789,-8.1491,-7.3094,0.1703,4.7698,-5.3318,-2.3148,-0.7371,-4.1367,-8.0818,-2.5884,-6.4326,-0.9267,-3.1069,0.5385,-4.3890,-5.7033
1878.9062,3.5248,0.9465,-0.8626,-9.2184,-8.5350,1.1016,5.6072,-7.7790,-0.0554,6.0640,1.9056,-3.5102,0.0277,-6.2964,3.2768,-0.4727,1.8015,-2.6775,-4.7900
1882.8125,5.8734,2.6948,-1.7800,-8.4370,-8.3147,1.1657,4.2316,-8.6992,1.9681,9.5849,7.2564,1.6674,2.2663,-5.2361,5.5967,2.4823,2.1369,-0.2461,-3.1372
1886.7188,5.7701,3.0023,-3.2904,-6.1060,-6.4757,0.2956,1.6139,-7.8258,2.6341,8.8975,9.5987,5.4599,3.5674,-3.3208,5.2005,5.3150,1.7359,1.7219,-1.2863
1890.6250,3.7237,1.8791,-4.8860,-2.9975,-3.2892,-1.0928,-0.7211,-5.4523,1.6534,5.2812,8.2558,6.4719,3.8218,-0.9340,2.7149,7.2302,1.1257,2.3620,0.3017
1894.5312,1.1088,-0.0413,-5.7803,-0.0442,0.4663,-2.3029,-1.6813,-2.3498,-0.3877,1.2224,4.2694,4.5329,3.2447,1.3106,-0.3151,7.2908,0.7439,1.5702,1.3076
1898.4375,-0.6691,-1.8265,-5.4199,2.0170,3.7220,-2.6927,-1.2180,0.5291,-2.4416,-1.1320,-0.3765,0.7483,2.1832,2.8026,-2.4045,4.8921,0.6316,0.0073,1.5706
1902.3438,-0.8825,-2.6435,-3.8465,2.8882,5.5656,-1.9812,-0.1760,2.4300,-3.5672,-1.0841,-3.8068,-3.0479,0.9957,3.2088,-2.9057,0.2746,0.4608,-1.3139,1.1284
1906.2500,0.3014,-2.0604,-1.6542,2.7475,5.6733,-0.3756,0.4512,3.0757,-3.3361,0.5501,-4.9940,-5.1561,0.0258,2.6364,-2.1560,-5.2780,-0.1431,-1.5980,0.2719
1910.1562,2.1205,-0.1701,0.4030,2.0918,4.4548,1.5385,0.2897,2.7155,-1.9220,2.3047,-3.9382,-4.7558,-0.4093,1.5811,-1.0248,-9.8057,-1.2396,-0.6645,-0.4830
1914.0625,3.7505,2.4569,1.8480,1.4803,2.8005,3.0848,-0.1789,1.9349,0.0793,3.1644,-1.4128,-2.1877,-0.0942,0.6756,-0.2558,-11.5289,-2.4447,1.0268,-0.5833
1917.9688,4.7157,4.9494,2.6491,1.2958,1.5738,3.8064,-0.0570,1.3339,1.9403,3.1508,1.4446,1.3141,0.9547,0.3629,-0.0573,-9.7701,-3.1389,2.6849,0.2537
1921.8750,4.9742,6.3997,3.0387,1.6030,1.1578,3.6342,1.2160,1.2345,3.0524,3.0702,3.5022,4.2457,2.3970,0.6645,-0.1532,-5.3894,-2.8680,3.6072,1.7883
1925.7812,4.7179,6.1669,3.1763,2.1355,1.3203,2.8348,3.3706,1.5462,3.0691,3.6964,3.9325,5.4750,3.6160,1.1644,-0.1652,-0.4148,-1.6700,3.4579,3.2628
1929.6875,4.0992,4.1375,2.9517,2.3991,1.4523,1.7905,5.4312,1.8361,1.9499,5.0183,2.4600,4.6138,3.9299,1.2211,0.0079,2.9789,-0.1113,2.2874,3.7287
1933.5938,3.0963,0.8281,2.0774,1.8656,1.0013,0.7669,6.3444,1.5590,-0.0639,6.0968,-0.4920,2.0168,2.8797,0.3069,0.0955,3.5734,0.9883,0.3620,2.5489
1937.5000,1.5992,-2.7631,0.3673,0.2068,-0.1796,-0.1793,5.6348,0.3465,-2.5216,5.6410,-3.8867,-1.4948,0.4550,-1.6847,-0.3037,1.6570,0.9777,-2.0212,-0.2174
1941.4062,-0.3640,-5.5419,-2.0507,-2.5043,-1.7590,-1.1040,3.6203,-1.7656,-4.8757,2.9369,-6.4643,-4.9919,-2.8492,-4.3123,-1.3380,-1.2812,-0.2956,-4.5961,-3.7950
1945.3125,-2.4373,-6.7852,-4.7610,-5.7195,-3.1336,-1.9863,1.0836,-4.2673,-6.6208,-1.4744,-7.3110,-7.7107,-6.1695,-6.7117,-2.6650,-3.4887,-2.4089,-7.0598,-7.0607
1949.2188,-3.9446,-6.4473,-7.2766,-8.5360,-3.7539,-2.6095,-1.2854,-6.3082,-7.4251,-5.8280,-6.3020,-9.1764,-8.5433,-7.9363,-3.5482,-3.9270,-4.5602,-8.9930,-9.0756
1953.1250,-4.1397,-5.1211,-9.2342,-10.0041,-3.3754,-2.6268,-3.2141,-7.0060,-7.2086,-7.9263,-4.1258,-9.2119,-9.2146,-7.3758,-3.2515,-2.7159,-5.9215,-9.8976,-9.4602
1957.0312,-2.5950,-3.6593,-10.3984,-9.5096,-2.1248,-1.7777,-4.7074,-5.8192,-6.1422,-6.2913,-1.8435,-7.9010,-7.8868,-5.0695,-1.4954,-0.8527,-5.9872,-9.3844,-8.4129
1960.9375,0.4766,-2.6724,-10.5192,-7.0581,-0.3972,-0.0997,-5.6298,-2.8278,-4.5706,-1.0480,-0.2507,-5.5507,-4.8515,-1.7578,1.3124,0.5256,-4.7778,-7.4083,-6.4300
1964.8438,4.1780,-2.2094,-9.2615,-3.3135,1.3213,2.0340,-5.4493,1.2207,-2.8918,5.9738,0.5372,-2.6530,-0.9465,1.3805,4.2331,0.8255,-2.8297,-4.3884,-3.9772
1968.7500,7.2408,-1.8195,-6.3869,0.6420,2.6099,4.0916,-3.4594,5.1524,-1.4405,12.0279,1.0057,0.1837,2.6765,3.2111,6.2619,0.2226,-0.9779,-1.1070,-1.3592
1972.6562,8.5816,-0.9467,-2.1215,3.7213,3.2035,5.6582,0.6143,7.8115,-0.4144,14.7467,1.7446,2.3522,4.9324,3.1369,6.8319,-0.6229,-0.0055,1.5833,1.1688
1976.5625,7.8189,0.6128,2.6045,5.2284,3.0236,6.6116,6.0916,8.5197,0.1396,13.2607,2.9076,3.3997,5.2122,1.3655,6.0510,-1.0915,-0.2941,3.0903,3.2201
1980.4688,5.4558,2.5013,6.3624,5.0683,2.1729,7.0769,11.3826,7.3372,0.2826,8.5365,4.0260,3.1698,3.6471,-1.1872,4.5354,-0.9979,-1.6223,3.2802,4.2698
1984.3750,2.6016,3.9783,7.8923,3.7000,0.9106,7.2111,14.7023,5.0028,0.1147,2.7596,4.3130,1.8711,1.0800,-3.3197,2.9653,-0.6340,-3.2251,2.4515,3.9092
1988.2812,0.3765,4.3614,6.8569,1.8879,-0.3915,7.0029,15.0489,2.5851,-0.2874,-1.8630,3.2334,0.0219,-1.2828,-4.0900,1.6738,-0.5016,-4.1175,1.1251,2.1988
1992.1875,-0.6562,3.4302,4.1357,0.3796,-1.3179,6.2648,12.7939,1.0134,-0.8938,-4.1774,0.9288,-1.7334,-2.4041,-3.2128,0.5518,-0.9531,-3.5584,-0.2171,-0.1785
1996.0938,-0.6935,1.5321,1.3622,-0.3562,-1.5043,4.8348,9.4563,0.7112,-1.7025,-4.4307,-1.8001,-2.8801,-1.8834,-1.1223,-0.6814,-1.9686,-1.4363,-1.3125,-2.1654
2000.0000,-0.4283,-0.6493,-0.0712,-0.2438,-0.7474,2.8310,6.7837,1.4923,-2.6957,-3.7703,-3.9332,-3.2505,-0.1250,1.3108,-2.0720,-3.1679,1.6215,-2.1475,-2.8832
2003.9062,-0.5192,-2.4693,0.1137,0.4522,0.8981,0.7400,5.7405,2.7402,-3.8011,-3.3124,-4.7846,-3.0771,1.8855,3.2366,-3.2290,-4.0065,4.4937,-2.8533,-2.1423
2007.8125,-1.1647,-3.5722,0.9592,1.3098,3.0780,-0.7630,6.0654,3.7582,-4.8760,-3.4398,-4.3072,-2.8228,3.0867,4.2110,-3.5158,-4.0255,6.0601,-3.5395,-0.5382
2011.7188,-2.0587,-3.8729,1.0361,1.9809,5.2000,-1.1621,6.6509,4.1040,-5.7144,-3.7677,-2.9829,-2.8494,2.8765,4.3238,-2.5161,-3.0382,5.7125,-4.1478,0.9691
2015.6250,-2.7200,-3.3622,-0.4152,2.3665,6.6146,-0.3829,6.4279,3.7506,-6.0709,-3.7015,-1.4295,-3.1082,1.4087,4.0381,-0.4187,-1.1879,3.6357,-4.3973,1.7277
2019.5312,-2.9173,-1.9639,-2.7891,2.6414,6.8690,1.1831,5.1084,3.0144,-5.7041,-3.0876,-0.0259,-3.0675,-0.4941,3.8677,1.9989,1.1207,0.7227,-3.8610,1.8454
2023.4375,-2.8576,0.3853,-4.4125,3.0984,5.9184,2.9162,3.2934,2.3157,-4.4596,-2.4256,1.1978,-1.9809,-1.7626,4.0842,3.8084,3.3789,-1.8310,-2.1706,2.0796
2027.3438,-3.0014,3.4776,-3.6886,3.8838,4.1658,4.2894,1.9350,1.9127,-2.3900,-2.4907,2.3823,0.6110,-1.6286,4.6047,4.4855,5.1556,-3.0559,0.7150,3.2158
2031.2500,-3.6612,6.6400,-0.3146,4.7864,2.2716,5.0540,1.6061,1.7606,0.1390,-3.6881,3.5643,4.4390,-0.0225,5.0934,4.1683,6.2307,-2.6115,4.3129,5.3624
2035.1562,-4.7030,8.8508,4.2994,5.2451,0.8136,5.2006,2.1215,1.5673,2.4588,-5.6668,4.5509,8.4448,2.3803,5.1962,3.4367,6.6280,-0.8790,7.6416,7.6856
2039.0625,-5.5779,9.2053,7.7604,4.6336,-0.0089,4.7936,2.7465,1.0087,3.8081,-7.4935,5.0515,11.2204,4.5001,4.7675,2.8075,6.5455,1.2872,9.5457,8.8248
2042.9688,-5.6549,7.4821,8.1374,2.6935,-0.4314,3.8639,2.7722,-0.0294,3.7132,-8.2359,4.9671,11.7555,5.4175,3.9721,2.3724,6.2341,3.0168,9.2329,7.7617
2046.8750,-4.6015,4.4248,5.1834,-0.1467,-0.8944,2.4612,1.9878,-1.3337,2.3527,-7.4874,4.5950,10.0600,4.8748,3.2126,1.8779,5.9007,3.8524,6.7653,4.5779
2050.7812,-2.5461,1.4808,0.5279,-2.8150,-1.6722,0.7961,0.7114,-2.4536,0.6408,-5.4520,4.5556,7.2474,3.4338,2.9236,1.1636,5.6763,3.9257,3.1969,0.5781
2054.6875,0.0534,0.0814,-3.2868,-4.0553,-2.6282,-0.7067,-0.5826,-2.9559,-0.1344,-2.5990,5.4324,4.9666,2.1795,3.3297,0.5380,5.6319,3.7868,0.1903,-2.3496
2058.5938,2.6820,0.8619,-4.3058,-3.0937,-3.2853,-1.5596,-1.6860,-2.6957,0.9869,0.7372,7.3349,4.4803,2.1021,4.2874,0.6919,5.7838,3.9807,-0.7638,-2.7709
2062.5000,4.9585,3.3006,-2.2523,-0.1343,-3.1823,-1.5002,-2.7655,-1.9322,3.9745,4.4247,9.6817,5.9356,3.4943,5.2950,2.1361,6.0585,4.6234,0.8658,-0.5142
2066.4062,6.6401,6.0175,1.4321,3.6322,-2.2645,-0.6951,-4.0788,-1.2045,7.6410,8.2286,11.4013,8.2887,5.7178,5.6836,4.5967,6.2537,5.2428,4.3131,3.2324
2070.3125,7.5349,7.5670,4.5480,6.5567,-1.0111,0.3327,-5.5557,-1.0286,10.1816,11.4859,11.4960,9.9423,7.5030,4.9118,6.9294,6.0714,5.0140,7.8594,6.5767
2074.2188,7.4950,7.2498,5.4401,7.3265,-0.1781,1.0437,-6.6188,-1.5946,10.1896,13.1951,9.6653,9.7049,7.6291,2.8218,7.7567,5.2607,3.2698,9.7051,7.9180
2078.1250,6.5514,5.4548,3.8441,5.5897,-0.3233,1.2564,-6.4331,-2.6497,7.5473,12.6047,6.5968,7.4665,5.5915,-0.2785,6.4490,3.8045,-0.0174,8.8854,6.6971
2082.0312,5.0652,3.3414,0.8426,2.0683,-1.4503,1.2691,-4.4360,-3.6462,3.5954,9.8949,3.6860,4.1727,1.8569,-3.7635,3.7115,2.0081,-4.1035,5.7095,3.5102
2085.9375,3.6799,2.0813,-1.9184,-1.8767,-3.0410,1.6153,-0.7788,-4.0655,0.3934,6.3402,2.2793,1.1436,-2.4406,-6.9938,1.2501,0.3813,-7.8036,1.4889,-0.3924
2089.8438,2.9984,2.1464,-3.1950,-4.9499,-4.4603,2.6215,3.6328,-3.7218,-0.5196,3.6680,2.8532,-0.7856,-6.1507,-9.5998,0.6482,-0.6469,-10.1061,-2.2449,-3.8446
2093.7500,3.1661,3.0743,-2.7215,-6.4836,-5.4326,4.1010,7.5327,-2.8579,0.9152,2.9623,4.6445,-1.7124,-8.6690,-11.5748,2.2236,-0.9923,-10.6861,-4.5323,-6.2764
2097.6562,3.6946,3.8295,-1.1545,-6.5728,-6.2202,5.4319,9.8695,-1.9807,3.2420,3.9079,6.0235,-2.4126,-10.0496,-13.1187,4.7273,-0.9494,-9.9840,-5.3170,-7.7501
2101.5625,3.7476,3.4981,0.4565,-5.7845,-7.3519,5.9746,10.2192,-1.5477,4.4433,5.0159,5.4612,-3.5899,-10.6364,-14.3433,6.1804,-0.9356,-8.7962,-5.1815,-8.6029
2105.4688,2.7657,1.8656,1.2842,-4.7015,-9.0921,5.5189,8.8398,-1.7072,3.2801,4.7670,2.5379,-5.1888,-10.5395,-15.0570,5.3037,-1.1196,-7.6638,-4.7565,-9.0210
2109.3750,0.9961,-0.4783,1.0798,-3.6200,-11.0619,4.4167,6.4167,-2.2528,0.1373,2.8660,-1.6495,-6.2961,-9.4042,-14.8127,2.5106,-1.2258,-6.4963,-4.2615,-8.8631
2113.2812,-0.5185,-2.5428,0.1469,-2.5669,-12.3389,3.2918,3.7090,-2.8115,-3.2004,0.6242,-5.0060,-5.7445,-6.7057,-13.2258,-0.3014,-0.7058,-4.7181,-3.4953,-7.8430
2117.1875,-0.5878,-3.5666,-0.9610,-1.5537,-12.0227,2.5476,1.2980,-3.1300,-4.7084,0.0652,-5.6449,-3.0275,-2.3896,-10.3692,-1.0735,0.8046,-1.8540,-2.2295,-5.9099
2121.0938,1.2262,-3.4658,-1.7993,-0.8163,-9.8989,2.0592,-0.4962,-3.2646,-3.4589,2.3134,-3.0782,1.1132,2.6326,-6.9591,0.8938,3.0736,1.8619,-0.6444,-3.5261
2125.0000,4.0930,-2.8312,-2.2556,-0.8169,-6.7309,1.2992,-1.5869,-3.5483,-0.2465,6.4397,1.3588,4.8851,6.5928,-4.1479,4.3211,5.2455,5.3282,0.5781,-1.6039
2128.9062,6.2259,-2.4988,-2.5500,-1.9723,-3.9356,-0.1822,-2.0632,-4.3537,2.9069,9.7188,5.1700,6.3761,7.6560,-2.9824,6.7197,6.2823,7.0585,0.6284,-1.0881
2132.8125,5.9196,-2.9876,-3.0430,-4.2895,-2.8116,-2.2876,-2.1301,-5.8032,4.0397,9.2866,6.1055,4.6782,4.9800,-3.8205,6.0579,5.6113,6.0496,-0.8393,-2.4078
2136.7188,2.6922,-4.1598,-3.9609,-7.1740,-3.7933,-4.2820,-2.0191,-7.6090,2.4864,4.1557,3.4910,0.5048,-0.6115,-6.0626,2.1872,3.5314,2.4869,-3.3311,-5.1242
2140.6250,-2.2207,-5.3051,-5.1806,-9.5802,-6.1944,-5.1771,-1.8625,-9.1453,-0.7278,-3.7940,-1.3267,-4.1012,-6.8218,-8.3905,-2.9526,1.0747,-2.2002,-5.6610,-8.0091
2144.5312,-6.3927,-5.5749,-6.1900,-10.4517,-8.5924,-4.3378,-1.5855,-9.7122,-3.5546,-10.6187,-5.7052,-6.8227,-10.9108,-9.4104,-6.4985,-0.6136,-6.0220,-6.5670,-9.5539
2148.4375,-7.4887,-4.4861,-6.2674,-9.2122,-9.6045,-1.8925,-0.9105,-8.8459,-4.1903,-12.4972,-7.1879,-6.2792,-11.0153,-8.3529,-6.4272,-0.9713,-7.4655,-5.4134,-8.6648
2152.3438,-4.5604,-2.1940,-4.8185,-6.0315,-8.5868,1.3247,0.4832,-6.5146,-2.1348,-7.9672,-4.8775,-2.7040,-7.0305,-5.4446,-2.7725,-0.3297,-6.2658,-2.5341,-5.1907
2156.2500,1.3978,0.6002,-1.7227,-1.7341,-5.8829,4.2404,2.7031,-3.1240,1.5805,1.1701,0.0813,2.2648,-0.5854,-1.7651,2.4420,0.3544,-3.4586,0.9841,-0.0187
2160.1562,7.9317,3.0075,2.4786,2.5633,-2.5549,6.0799,5.4405,0.6312,5.0536,10.8075,5.1521,6.4966,5.8188,1.3010,6.4361,0.1438,-0.7150,3.9006,5.2931
2164.0625,12.3465,4.3320,6.6556,5.8491,0.1647,6.6293,7.9563,3.9574,6.5803,16.7331,7.7685,8.4153,9.9725,2.6869,7.2395,-1.2998,0.6047,5.3931,9.1323
2167.9688,12.9720,4.2619,9.4112,7.4327,1.3573,6.1062,9.2916,6.1047,5.4702,16.7512,6.6140,7.5869,10.7809,2.0145,4.6453,-3.5673,0.0940,5.2530,10.3770
2171.8750,9.8296,2.8215,9.5319,6.9300,0.6252,4.8192,8.6154,6.4440,2.1940,11.5555,2.1373,4.6007,8.3869,-0.4241,0.0818,-5.8264,-1.7008,3.6596,8.6352
2175.7812,4.4379,0.2063,6.4096,4.1528,-1.9621,2.9231,5.5610,4.5422,-2.0902,4.0198,-3.8840,0.4513,3.6977,-3.9628,-4.3598,-7.3475,-3.8335,0.8013,4.1628
2179.6875,-1.0373,-3.3210,0.3033,-0.8957,-6.0101,0.4516,0.4254,0.2998,-6.2360,-2.5088,-9.3743,-4.0901,-2.2496,-7.8831,-7.0676,-7.8665,-5.6259,-3.3014,-2.3652
2183.5938,-4.8035,-7.3934,-7.6366,-7.8331,-10.8799,-2.4458,-5.8331,-5.8600,-9.5918,-5.8745,-12.9533,-8.6915,-8.6421,-11.5640,-7.5792,-7.5886,-6.9893,-8.6009,-10.0124
2187.5000,-6.1435,-11.4340,-15.6047,-15.6409,-15.6941,-5.3142,-11.8033,-12.8702,-12.0565,-5.8957,-14.3758,-13.1830,-14.8147,-14.4362,-6.5336,-6.9159,-8.2234,-14.6145,-17.5919
2191.4062,-5.5365,-14.6519,-21.6123,-22.6082,-19.3832,-7.4657,-16.0081,-19.1221,-13.8037,-4.0359,-14.2942,-17.0854,-19.9433,-15.8862,-5.0988,-6.1441,-9.5009,-20.1709,-23.6489
2195.3125,-4.2203,-16.2454,-24.0999,-26.6911,-20.8873,-8.3077,-17.3923,-22.8718,-14.9453,-2.3335,-13.6131,-19.3890,-22.8844,-15.2938,-4.2862,-5.3345,-10.4616,-23.6142,-26.6304
2199.2188,-3.4517,-15.7554,-22.5060,-26.2566,-19.5060,-7.7070,-15.7565,-22.8553,-15.3677,-2.2355,-12.8856,-18.8594,-22.4183,-12.2652,-4.4999,-4.3870,-10.2536,-23.4673,-25.3456
2203.1250,-3.8249,-13.3555,-17.5469,-20.8902,-15.2391,-6.1188,-11.9233,-18.8524,-14.8114,-3.8943,-12.0896,-14.7570,-17.8445,-6.9543,-5.4647,-3.1925,-8.0372,-19.2221,-19.5723
2207.0312,-4.9683,-9.8602,-11.0174,-11.8118,-8.9139,-4.3646,-7.4651,-11.8960,-13.0939,-6.1799,-10.8394,-7.5299,-9.5868,-0.2539,-6.4700,-1.7286,-3.6359,-11.7886,-10.4557
2210.9375,-5.7713,-6.3906,-5.1109,-1.5945,-1.9841,-3.1875,-4.0136,-3.9671,-10.3158,-7.3257,-8.8191,1.0183,0.6052,6.3201,-6.7683,-0.0690,2.0968,-3.2966,-0.3617
2214.8438,-5.0370,-3.8591,-1.5208,6.7623,3.9386,-2.8589,-2.4459,2.7308,-6.9252,-5.8785,-6.1202,8.3035,10.0772,11.0673,-5.9452,1.6289,7.4714,3.7025,7.8865
2218.7500,-2.2221,-2.5656,-0.7478,10.9937,7.6135,-3.0675,-2.4001,6.5936,-3.6047,-1.5118,-3.2654,12.0594,16.1949,12.6971,-4.1060,3.1014,10.6530,7.2578,12.0856
2222.6562,2.1524,-2.1353,-1.9772,10.4092,8.5341,-3.1363,-2.4736,7.1511,-1.0241,4.6924,-0.9166,11.3942,17.3621,10.8213,-1.7963,3.9574,10.4985,6.7770,11.5193
2226.5625,6.6862,-1.8144,-3.5938,6.0311,6.9983,-2.4150,-1.0759,5.0840,0.4434,10.6611,0.5342,7.2295,13.6550,6.1271,0.3077,3.7599,7.0987,3.1848,7.1712
2230.4688,9.8000,-0.9259,-4.0487,0.0210,3.9083,-0.6213,2.5215,1.7674,0.9183,14.2701,1.2176,1.8601,6.7710,0.1604,1.7733,2.2617,1.7545,-1.5480,1.1925
2234.3750,10.5467,0.7874,-2.5964,-5.2690,0.4310,2.0253,7.5891,-1.3848,1.0047,14.3228,1.7071,-2.1483,-0.6797,-5.1909,2.6148,-0.3075,-3.5878,-5.2508,-4.0656
2238.2812,9.0389,3.0980,0.4739,-8.1545,-2.3409,4.8994,12.2214,-3.4388,1.5220,11.0267,2.6310,-3.1547,-6.2122,-8.3151,3.1791,-3.1244,-7.1498,-6.3969,-6.9469
2242.1875,6.2323,5.4720,4.1634,-8.0532,-3.6387,7.2086,14.3850,-4.1210,3.0519,5.7079,4.2028,-1.1231,-8.3737,-8.3817,3.7743,-5.0063,-7.9971,-4.6175,-6.9176
2246.0938,3.2364,7.3288,7.3665,-5.4317,-3.1602,8.2659,13.1116,-3.6767,5.5178,-0.0209,5.9705,2.5237,-7.1480,-5.5715,4.3147,-4.9617,-6.2939,-0.7310,-4.4470
2250.0000,0.6495,8.2269,9.3670,-1.4233,-1.1121,7.7179,9.0948,-2.5820,8.0689,-5.0583,6.9847,5.7492,-3.7348,-0.9678,4.2863,-2.7724,-3.0768,3.6803,-0.5598
2253.9062,-1.6151,7.9421,9.9935,2.6522,1.8524,5.6845,4.3116,-1.2997,9.4279,-9.0455,6.3446,6.9727,0.1343,3.8488,3.1340,0.7664,0.2949,6.9618,3.6280
2257.8125,-3.9136,6.5015,9.4747,5.7009,4.8128,2.7731,0.9085,-0.1697,8.5989,-11.9423,3.8335,5.8149,2.9982,7.3625,0.8395,4.1610,2.7328,8.0792,7.1968
2261.7188,-6.2325,4.2274,8.2050,7.1277,6.8632,-0.0692,0.0531,0.5992,5.5613,-13.4013,0.2503,3.1823,4.2258,8.6428,-1.7452,5.9633,3.8009,7.0363,9.5358
2265.6250,-7.8830,1.7453,6.5966,6.9464,7.4209,-1.8635,1.4363,0.9133,1.4966,-12.5901,-2.8302,0.7109,4.1190,7.6289,-3.1533,5.5379,3.7546,4.8302,10.3789
2269.5312,-7.8463,-0.1553,5.0242,5.7010,6.4345,-1.9848,3.6609,0.7967,-1.6978,-8.7679,-3.8209,-0.1078,3.5729,5.0669,-2.1089,3.4005,3.2733,2.9361,9.8231
2273.4375,-5.5737,-0.8533,3.7587,4.1968,4.3839,-0.4640,5.1759,0.3851,-2.4269,-2.2593,-2.0340,1.3292,3.5077,2.1340,1.5702,0.9222,3.0517,2.5344,8.2888
2277.3438,-1.6395,-0.2880,2.8369,3.1144,2.0552,1.9657,5.1240,-0.1280,-0.3849,4.9970,1.7873,4.4599,4.3707,-0.0733,6.5797,-0.4322,3.4565,3.8565,6.3578
2281.2500,2.3200,0.8666,1.9709,2.6841,0.1981,4.1488,3.6282,-0.5898,3.1218,9.9957,5.6854,7.8493,5.9439,-0.9494,10.6014,0.1061,4.4033,6.0129,4.5143
2285.1562,4.4613,1.4701,0.6764,2.6128,-0.7604,5.0196,1.4832,-0.9681,5.8061,10.2280,7.4243,9.8797,7.5187,-0.5119,11.4680,2.2303,5.4825,7.4420,2.9390
2289.0625,3.8664,0.5782,-1.3313,2.3366,-0.8047,4.1088,-0.3955,-1.3432,5.6953,5.3451,5.6799,9.5045,8.3072,0.7624,8.3822,4.7739,6.2344,6.7776,1.5174
2292.9688,1.1696,-1.8713,-3.6975,1.4576,-0.2103,1.7821,-1.3597,-1.8120,2.3400,-2.2633,0.8253,6.7137,7.8466,2.2562,2.4622,6.3613,6.4022,3.6636,0.0835
2296.8750,-1.8102,-4.8355,-5.3326,0.0751,0.6703,-0.9284,-1.1023,-2.3812,-2.8265,-8.5757,-5.1717,2.5056,6.1777,3.4783,-3.7512,6.1144,6.0159,-0.9628,-1.2888
2300.7812,-3.2451,-6.6640,-4.9083,-1.2388,1.5598,-2.8309,0.4276,-2.9508,-7.2569,-10.2191,-9.7379,-1.6072,3.7276,4.1437,-7.5876,4.0428,5.2769,-5.3154,-2.2089
2304.6875,-2.5127,-6.0982,-1.7660,-1.8251,2.2633,-3.1680,3.0240,-3.4088,-8.7652,-6.5352,-11.0476,-4.3053,1.0054,4.0868,-7.6260,0.9587,4.3422,-7.6990,-2.2293
2308.5938,-0.6161,-3.1603,3.3464,-1.4238,2.5874,-1.9907,6.0874,-3.7501,-6.8125,-0.0640,-8.9801,-5.0246,-1.6658,3.1531,-4.3939,-1.9782,3.1780,-7.4009,-1.2784
2312.5000,0.5013,0.6923,8.3313,-0.3944,2.3087,-0.1143,8.5674,-4.0866,-2.7967,4.9546,-5.1279,-4.0954,-4.1960,1.2186,-0.0104,-3.8090,1.6064,-5.0087,0.0972
2316.4062,-0.6989,3.3398,10.7597,0.5209,1.2900,1.3291,9.2602,-4.4925,0.8452,5.1597,-1.8450,-2.4108,-6.5338,-1.6392,2.9981,-4.1425,-0.4700,-1.9752,0.9602
2320.3125,-4.2517,3.2751,9.3353,0.7521,-0.3049,1.5085,7.4810,-4.7859,2.1577,0.0952,-0.8977,-0.8415,-8.3915,-4.9479,3.0309,-3.2032,-2.8224,0.2872,0.6204
2324.2188,-8.5802,0.5801,4.8696,0.3775,-1.8778,0.3562,3.7408,-4.4478,0.8413,-7.6069,-2.5099,0.2502,-9.1368,-7.8235,0.1642,-1.6071,-4.8298,1.2113,-0.7383
2328.1250,-11.4513,-3.0498,0.0291,0.1513,-2.5261,-1.3819,-0.1272,-2.8286,-1.6607,-13.9520,-5.3487,1.1164,-7.9995,-9.2355,-4.0431,-0.0262,-5.6927,1.2908,-1.9442
2332.0312,-11.3502,-5.2877,-2.1222,1.0174,-1.4603,-2.5472,-1.7033,0.4142,-3.1888,-16.0371,-7.4132,2.3193,-4.5274,-8.4669,-7.5013,1.0826,-4.8428,1.6096,-1.4378
2335.9375,-8.3641,-4.5632,0.0558,3.4174,1.4955,-2.2137,0.6775,4.9103,-2.3086,-13.6183,-7.2396,4.2520,0.9812,-5.5177,-8.7079,1.5872,-2.3095,3.0265,1.7231
2339.8438,-4.0236,-0.9864,5.7416,6.8670,5.6408,-0.2290,6.7455,9.5177,0.7851,-8.8472,-4.6753,6.8183,7.3763,-1.1889,-7.4023,1.6314,1.2033,5.5617,7.0997
2343.7500,-0.2676,3.7530,12.0817,10.1101,9.5997,2.6527,14.0888,12.7401,4.4656,-4.5126,-0.7982,9.4737,13.0199,3.2400,-4.4608,1.4980,4.6106,8.3661,12.9017
2347.6562,1.7276,7.4043,15.8318,11.7718,11.9372,5.1266,19.2051,13.4425,6.7857,-2.1196,2.8657,11.5603,16.4573,6.5802,-1.2144,1.4614,6.9612,10.2506,16.8571
2351.5625,2.0750,8.4093,15.1750,11.0963,11.8607,5.9918,19.3151,11.4524,6.7122,-1.1565,5.2304,12.6609,17.0261,8.2268,1.3066,1.6723,7.8688,10.3889,17.4055
2355.4688,1.7681,6.6181,10.5970,8.3088,9.5922,4.7445,13.9074,7.6679,4.6570,0.0262,6.0486,12.7048,15.0475,8.2968,2.7260,2.0901,7.5984,8.7300,14.4715
2359.3750,1.7128,3.1067,4.3536,4.4052,6.1791,1.7922,5.0848,3.5776,2.0015,2.4905,5.6403,11.7791,11.4965,7.3523,3.1394,2.4720,6.7610,5.8925,9.3589
2363.2812,1.9408,-0.6453,-1.0040,0.5540,2.8602,-1.8025,-3.5173,0.4657,0.0277,5.5042,4.2899,9.8578,7.3781,5.9170,2.6646,2.4429,5.8258,2.6886,3.8933
2367.1875,1.5765,-3.5917,-4.0270,-2.4800,0.3848,-4.8660,-8.6128,-1.2235,-0.9470,6.8149,1.8824,6.7450,3.2218,4.1171,1.1707,1.6600,4.7814,-0.3378,-0.5735
2371.0938,-0.4307,-5.4413,-4.8411,-4.5430,-1.2935,-6.6187,-8.8573,-1.9852,-1.6213,4.2664,-1.8806,2.3553,-0.9835,1.6897,-1.5456,0.0402,3.1803,-3.0334,-3.6576
2375.0000,-4.3441,-6.3880,-4.5591,-5.8735,-2.7746,-6.8779,-5.2734,-2.7795,-2.9600,-2.3808,-6.8528,-2.8542,-5.4006,-1.6546,-5.2693,-2.0639,0.5447,-5.3840,-5.7023
2378.9062,-9.1415,-6.6090,-4.2245,-6.6882,-4.6084,-5.9152,-0.3713,-4.2968,-5.2345,-10.7542,-11.9610,-7.6822,-9.8114,-5.7692,-9.0083,-3.8783,-3.1337,-7.1545,-7.1116
2382.8125,-12.8529,-6.0017,-4.0925,-6.8982,-6.7467,-4.1484,3.4034,-6.4262,-7.5857,-16.8894,-15.3818,-10.4996,-13.3564,-9.8453,-11.1844,-4.4919,-7.1418,-7.7686,-7.8300
2386.7188,-13.5493,-4.3560,-3.6792,-6.1433,-8.4196,-1.9122,4.9348,-8.2439,-8.4478,-17.3956,-15.4132,-10.0151,-14.7799,-12.6109,-10.4077,-3.3249,-10.2325,-6.5836,-7.3618
2390.6250,-10.3794,-1.7605,-2.3850,-4.0837,-8.5230,0.5611,4.7389,-8.5139,-6.5524,-11.4234,-11.5215,-6.0562,-13.0685,-12.8809,-6.3906,-0.5375,-11.1706,-3.3943,-5.2619
2394.5312,-4.0463,1.1671,-0.1013,-0.7224,-6.2779,3.0122,4.2799,-6.3933,-1.8255,-1.2111,-4.8338,0.1675,-8.0887,-10.1558,-0.3609,2.9028,-9.3328,1.2092,-1.6607
2398.4375,3.5143,3.4879,2.6742,3.4661,-1.7591,5.0597,4.8607,-1.9366,4.4229,9.1038,2.3258,6.5682,-0.8176,-4.9292,5.4049,5.6203,-5.0306,5.9390,2.6246
2402.3438,10.0174,4.4842,5.2337,7.6744,4.0146,6.2735,6.8092,3.8654,10.1278,15.6503,7.6189,11.2065,6.9916,1.4747,8.7310,6.5371,0.6105,9.3735,6.4959
2406.2500,13.7552,4.1392,7.1714,11.0735,9.4746,6.3874,9.3881,9.5049,13.4970,16.6683,9.8517,13.2325,13.5201,7.4444,8.6875,5.4939,6.1291,10.6706,9.1926
2410.1562,14.1172,3.1781,8.5678,13.1188,13.1590,5.4821,11.3572,13.5901,13.8083,13.0340,9.3824,13.1584,17.5712,11.7194,6.0036,3.3846,10.2954,9.9879,10.6650
2414.0625,11.5588,2.6081,9.7255,13.7013,14.2917,3.9701,11.7489,15.3659,11.5596,7.3458,7.5751,12.3102,18.8839,13.8007,2.4932,1.6691,12.4941,8.3396,11.4417
2417.9688,7.1915,3.0628,10.7263,13.0980,13.0185,2.3675,10.3820,14.8881,8.0040,2.3013,5.7524,11.8382,17.9778,13.9653,-0.1092,1.5157,12.7821,6.9682,12.1219
2421.8750,2.2992,4.4038,11.2169,11.7700,10.2296,1.0070,7.8794,12.8182,4.4523,-0.6058,4.4085,11.9574,15.7096,12.9367,-1.1177,3.0843,11.6714,6.6210,12.8870
2425.7812,-2.0020,5.8449,10.6205,10.1210,7.0923,-0.0920,5.2746,9.9941,1.7683,-1.4113,3.1954,11.9130,12.8431,11.4396,-1.0536,5.4046,9.8040,7.1711,13.3864
2429.6875,-4.9210,6.4995,8.6060,8.3322,4.5317,-1.1001,3.4862,7.0265,0.2504,-1.0735,1.5850,10.6658,9.8529,9.8886,-0.9706,6.9412,7.6933,7.8026,13.0469
2433.5938,-6.0470,5.9625,5.4374,6.3557,2.8923,-2.1075,2.9307,4.1307,-0.1940,-0.5286,-0.3901,7.7982,6.9799,8.3467,-1.5084,6.5061,5.6239,7.6186,11.5445
2437.5000,-5.3766,4.5395,1.9264,4.0721,1.9139,-2.9322,3.4161,1.2540,0.1863,-0.0786,-1.9357,3.9964,4.3987,6.7116,-2.3935,3.9552,3.6945,6.2741,9.0854
2441.4062,-3.3029,3.0006,-0.9669,1.5208,1.0095,-3.1847,4.3052,-1.6197,1.1172,0.5822,-2.0066,0.7641,2.3241,4.9622,-2.7309,0.2480,1.9302,4.2318,6.3152
2445.3125,-0.5141,2.0598,-2.5896,-0.9497,-0.3103,-2.5607,4.8469,-4.2137,2.3183,1.8744,-0.1330,-0.4543,0.9811,3.2845,-1.8193,-3.1355,0.3772,2.4878,3.9580
2449.2188,2.2149,1.9428,-2.8083,-2.7497,-2.0963,-1.1456,4.5341,-5.9548,3.4949,3.8164,3.0784,0.8301,0.4833,1.9980,0.1596,-5.0257,-0.8682,1.9459,2.4559
2453.1250,4.2587,2.3028,-1.9100,-3.3468,-3.9002,0.5143,3.3400,-6.2622,4.3651,5.8482,6.1599,3.8083,0.7253,1.3427,2.1160,-5.1190,-1.7036,2.8313,1.8271
2457.0312,5.2806,2.4877,-0.3670,-2.6395,-5.0457,1.6585,1.7196,-4.9661,4.6973,7.0689,7.5762,6.7920,1.3678,1.2785,2.7163,-3.9561,-2.1009,4.4980,1.7675
2460.9375,5.2094,1.9374,1.3078,-1.1558,-5.0814,1.7302,0.3471,-2.5731,4.3102,6.6899,6.5501,8.1144,1.9234,1.4398,1.2559,-2.4168,-2.1712,5.7409,1.8530
2464.8438,4.1073,0.4545,2.5510,0.1075,-4.1389,0.6845,-0.2982,-0.1554,3.0370,4.4210,3.3906,6.9626,1.8999,1.2860,-1.8735,-1.1287,-2.1620,5.4240,1.6884
2468.7500,2.0673,-1.7757,2.7302,0.1712,-2.9451,-1.0131,-0.2627,1.1332,0.7336,0.6124,-0.8163,3.6782,0.9461,0.3675,-5.4211,-0.1847,-2.3685,3.0656,0.9582
2472.6562,-0.7515,-4.3485,1.3023,-1.3833,-2.4412,-2.6857,-0.1313,0.6636,-2.5986,-3.8605,-4.8483,-0.5735,-1.0303,-1.4427,-8.0116,0.6944,-2.9881,-0.9319,-0.5479
2476.5625,-3.9851,-6.8294,-1.8415,-4.1553,-3.2157,-3.8233,-0.6585,-1.3068,-6.6157,-7.8780,-7.8561,-4.4870,-3.7959,-3.8782,-8.8600,1.7476,-3.9932,-5.4975,-2.8555
2480.4688,-6.9743,-8.8543,-6.0759,-7.1334,-5.1043,-4.2930,-2.2129,-3.7546,-10.5261,-10.4165,-9.4799,-7.2149,-6.8022,-6.3942,-8.0331,2.8549,-5.1006,-9.3941,-5.6937
2484.3750,-8.8850,-10.1469,-10.0961,-9.2546,-7.2282,-4.2771,-4.4067,-5.4439,-13.2497,-10.8631,-9.6739,-8.5781,-9.3027,-8.3943,-6.1961,3.5497,-5.8757,-11.7193,-8.4670
2488.2812,-9.0493,-10.5335,-12.4387,-9.9606,-8.4733,-4.0411,-6.2127,-5.5879,-13.8609,-9.2242,-8.5373,-8.8733,-10.5764,-9.4473,-4.1316,3.3310,-5.9324,-12.1693,-10.4155
2492.1875,-7.3520,-10.0110,-12.2363,-9.4051,-8.1272,-3.7385,-6.5575,-4.2257,-12.1060,-6.1374,-6.3480,-8.5119,-10.2000,-9.4073,-2.3938,2.0219,-5.1297,-11.0012,-10.9377
2496.0938,-4.3949,-8.8291,-9.7422,-8.2106,-6.2841,-3.3868,-5.0251,-2.1046,-8.6667,-2.6324,-3.7118,-7.7673,-8.2563,-8.4240,-1.2555,-0.0955,-3.6668,-8.8053,-9.9030
2500.0000,-1.2801,-7.4754,-6.2484,-6.9846,-3.7761,-2.9799,-2.1751,-0.1758,-4.9453,0.3049,-1.5539,-6.7630,-5.3661,-6.8850,-0.8299,-2.4579,-2.0267,-6.2599,-7.7503
2503.9062,0.9133,-6.4899,-3.3912,-5.9550,-1.6930,-2.5834,0.7939,0.9568,-2.4297,2.1741,-0.7813,-5.6256,-2.4967,-5.3313,-1.1413,-4.5690,-0.8035,-3.9755,-5.2874
2507.8125,1.6665,-6.1611,-2.2466,-4.9613,-0.8042,-2.2879,2.8390,1.2912,-1.9732,3.1666,-1.7483,-4.6107,-0.6079,-4.3476,-2.0423,-6.2570,-0.4921,-2.4224,-3.2993
2511.7188,1.2533,-6.2844,-2.7729,-3.7577,-1.2317,-2.0543,3.7627,1.2684,-3.3960,3.9936,-3.9015,-4.0573,-0.2782,-4.4072,-3.0903,-7.6601,-1.3204,-1.8675,-2.1995
2515.6250,0.5245,-6.1813,-3.9400,-2.3508,-2.5266,-1.6162,4.2612,1.3563,-5.6336,5.4117,-5.9372,-4.1831,-1.4772,-5.6793,-3.5868,-8.9623,-3.1667,-2.2847,-1.9224
2519.5312,0.3764,-5.0485,-4.4514,-1.0955,-4.0328,-0.5981,5.2395,1.6839,-7.3338,7.7185,-6.4688,-4.8802,-3.5841,-7.8785,-2.8699,-10.0882,-5.5674,-3.2969,-2.0925
2523.4375,1.2249,-2.4870,-3.5924,-0.4843,-5.2628,1.1671,6.8776,1.9574,-7.5553,10.5185,-4.8241,-5.6933,-5.6536,-10.2783,-0.7216,-10.5973,-7.8174,-4.2598,-2.3320
2527.3438,2.7868,1.0958,-1.6810,-0.8132,-6.0616,3.3359,8.1887,1.6778,-6.1980,12.8958,-1.4689,-6.0451,-6.8198,-11.9629,2.3866,-9.8866,-9.1635,-4.5375,-2.5004
2531.2500,4.2706,4.4998,0.1347,-1.9924,-6.5229,5.0419,7.5244,0.4820,-3.9735,13.8765,2.2204,-5.5966,-6.6692,-12.2511,5.4121,-7.5999,-9.0686,-3.8688,-2.7333
2535.1562,4.8372,6.2421,0.5811,-3.6280,-6.7961,5.2826,3.7929,-1.6185,-1.9876,12.9052,4.6910,-4.5113,-5.4165,-11.0831,7.1971,-3.9862,-7.4678,-2.5964,-3.2869
2539.0625,4.0570,5.3367,-0.9691,-5.2785,-6.9546,3.5315,-2.4406,-4.2220,-1.1768,10.0847,5.0017,-3.4215,-3.7869,-9.1188,7.0165,0.0420,-4.8834,-1.5537,-4.3103
2542.9688,2.1305,1.9201,-4.1015,-6.6542,-6.9942,0.1919,-8.8464,-6.7115,-1.8674,6.1119,3.2178,-3.0713,-2.6383,-7.4306,4.9229,3.2394,-2.2792,-1.5967,-5.6804
2546.8750,-0.2036,-2.6702,-7.5372,-7.6147,-6.8974,-3.4486,-12.4760,-8.4897,-3.6288,2.0171,0.2615,-3.8210,-2.4851,-6.9143,1.7288,4.6055,-0.6553,-3.0213,-6.9823
2550.7812,-1.9926,-6.4723,-9.7579,-8.0181,-6.6601,-5.8111,-11.5394,-9.1595,-5.4624,-1.1317,-2.6037,-5.3160,-3.1687,-7.7458,-1.3323,3.9064,-0.5501,-5.2408,-7.6352
2554.6875,-2.4611,-7.8620,-9.7382,-7.6246,-6.2453,-5.8597,-6.6603,-8.6092,-6.2498,-2.4762,-4.3173,-6.5621,-3.8810,-9.2251,-3.0919,1.8354,-1.7284,-6.9890,-7.1122
2558.5938,-1.3228,-6.3808,-7.4211,-6.2101,-5.5334,-3.6856,-0.7001,-7.0204,-5.2957,-1.5844,-4.3531,-6.4213,-3.5791,-10.1407,-2.8911,-0.3092,-3.2759,-7.0010,-5.1790
2562.5000,1.0855,-2.9596,-3.7351,-3.8388,-4.3674,-0.4774,2.8520,-4.8221,-2.7413,1.3434,-2.7999,-4.2860,-1.6125,-9.4686,-0.8488,-1.2897,-4.1005,-4.7986,-2.0692
2566.4062,3.8864,0.5981,-0.1759,-1.0623,-2.7117,2.1177,1.9553,-2.5893,0.3703,5.3601,-0.2819,-0.5462,1.7804,-6.9991,2.1269,-0.5894,-3.5764,-1.0957,1.4833
2570.3125,5.9539,2.5795,1.8334,1.1830,-0.8192,2.8699,-2.7655,-0.8848,2.4841,8.9180,2.2059,3.4469,5.4184,-3.5111,4.6212,1.3004,-1.9424,2.4646,4.4102
2574.2188,6.3454,2.2207,1.5124,1.9973,0.7487,1.5744,-8.4540,-0.0792,2.2656,10.3795,3.5626,5.9554,7.6612,-0.3814,5.2607,3.1449,-0.1869,4.1316,5.6546
2578.1250,4.7259,-0.0146,-1.0075,1.0170,1.3279,-0.9357,-11.8183,-0.2298,-0.6586,8.7666,2.9695,5.6901,7.2117,1.1389,3.3592,3.6532,0.5365,2.9689,4.5844
2582.0312,1.5880,-2.8439,-4.8011,-1.3402,0.4997,-3.3263,-11.1052,-1.0891,-5.3668,4.3760,0.3156,2.4679,3.8101,0.5559,-0.6321,2.2095,-0.3868,-0.6506,1.2904
2585.9375,-1.8796,-4.9524,-8.5580,-4.0723,-1.6254,-4.4904,-6.9828,-2.2473,-9.9619,-1.1663,-3.5718,-2.6631,-1.5767,-1.6855,-5.1713,-0.7672,-2.6524,-5.2524,-3.3877
2589.8438,-4.2761,-5.6482,-11.0752,-6.1185,-4.3801,-4.0389,-1.8302,-3.3242,-12.4427,-5.5756,-7.1230,-7.9017,-7.1919,-4.5352,-8.2647,-4.0429,-5.2260,-9.0274,-8.1486
2593.7500,-4.6220,-5.0221,-11.6211,-6.8858,-6.8087,-2.3271,1.9817,-4.0934,-11.6839,-7.0287,-8.6805,-11.5177,-11.3165,-6.9400,-8.4474,-6.2435,-6.9801,-10.7062,-11.7088
2597.6562,-2.8263,-3.6132,-10.0641,-6.4581,-8.0907,-0.0975,3.5882,-4.4791,-7.9876,-5.1172,-7.3333,-12.5890,-13.0281,-8.3333,-5.5876,-6.5924,-7.3642,-10.0620,-13.2548
2601.5625,0.2764,-1.9156,-6.7970,-5.3981,-7.8864,1.9701,3.9113,-4.4635,-2.8977,-1.0501,-3.4675,-11.2842,-12.4840,-8.7452,-1.0202,-5.2908,-6.6764,-7.8255,-12.6666
2605.4688,3.3568,-0.1190,-2.5707,-4.3202,-6.4263,3.5184,4.6348,-4.0094,1.6047,3.0583,1.3301,-8.5928,-10.6116,-8.5335,3.1315,-3.3372,-5.7675,-5.1506,-10.4406
2609.3750,5.2651,1.7599,1.6677,-3.5342,-4.3293,4.4885,6.7082,-3.0777,4.0559,5.4110,5.0229,-5.7029,-8.4433,-7.9785,5.0918,-1.9126,-5.3894,-2.9933,-7.3940
2613.2812,5.5792,3.5370,4.9243,-2.9629,-2.2790,4.9283,9.4986,-1.7254,4.0912,5.5226,6.1403,-3.3946,-6.5160,-7.0402,4.3735,-1.7033,-5.6306,-1.7480,-4.3236
2617.1875,4.7328,4.6691,6.3453,-2.3294,-0.7451,4.8348,11.1798,-0.1877,2.3940,4.3814,4.5011,-1.7680,-4.6887,-5.4328,1.9665,-2.5474,-5.8226,-1.2687,-1.7762
2621.0938,3.6753,4.4471,5.4658,-1.4396,0.1245,4.1531,10.0321,1.1467,0.1446,3.6939,1.2482,-0.4073,-2.4438,-2.9426,-0.3221,-3.5818,-4.9845,-1.1606,0.0040
2625.0000,3.2866,2.4811,2.4390,-0.3678,0.4293,2.8969,5.6868,1.8766,-1.6382,4.7080,-1.8019,1.1676,0.5564,0.2502,-0.9599,-3.7791,-2.5245,-1.1086,0.9827
2628.9062,3.8928,-0.8850,-1.9115,0.5409,0.3452,1.2534,-0.5589,1.7594,-2.4932,7.3627,-3.1169,3.0541,4.0286,3.4742,0.4466,-2.5606,1.2488,-1.0554,1.1916
2632.8125,5.1416,-4.5885,-6.3311,0.8167,-0.0292,-0.4424,-6.5280,0.8025,-2.5208,10.2845,-2.2014,4.7856,7.0258,5.7776,2.9949,-0.1570,5.1323,-1.1798,0.6232
2636.7188,6.2652,-7.3584,-9.6129,0.0670,-0.7235,-1.8581,-10.4402,-0.7682,-2.1317,11.6024,0.2195,5.5122,8.3280,6.3356,5.0618,2.4509,7.5607,-1.7488,-0.7800
2640.6250,6.5331,-8.4223,-11.0836,-1.8389,-1.8251,-2.8261,-11.7811,-2.6121,-1.7804,10.0470,2.6201,4.4414,7.0508,4.8355,5.2095,3.9667,7.3692,-2.9520,-3.0343
2644.5312,5.6148,-7.9357,-10.8169,-4.6453,-3.3322,-3.3929,-11.2396,-4.3595,-1.8317,5.6592,3.4423,1.3006,3.1465,1.6444,2.8923,3.3741,4.3720,-4.7909,-5.9685
2648.4375,3.6666,-6.8354,-9.4441,-7.6856,-5.0198,-3.7235,-9.8969,-5.6365,-2.5436,-0.2836,1.8295,-3.4128,-2.4635,-2.3111,-1.3684,0.4358,-0.5283,-7.0435,-9.1051
2652.3438,1.1512,-6.1988,-7.6901,-10.0090,-6.4115,-3.9390,-8.3599,-6.0723,-4.0472,-6.0087,-1.9887,-8.5245,-8.1861,-5.8746,-6.3221,-4.1097,-5.7212,-9.2938,-11.6677
2656.2500,-1.4412,-6.5349,-5.9466,-10.6787,-6.9070,-4.0165,-6.4753,-5.3672,-6.2581,-10.1502,-6.7921,-12.5791,-12.3356,-8.0398,-10.5624,-8.7347,-9.5316,-11.0203,-12.7744
2660.1562,-3.7701,-7.4694,-4.1619,-9.1662,-6.0336,-3.8202,-3.7499,-3.4413,-8.7706,-12.2687,-10.8695,-14.3682,-13.7288,-8.2265,-13.0222,-11.6423,-10.8133,-11.7343,-11.7789
2664.0625,-5.6240,-8.0213,-2.0924,-5.6605,-3.7088,-3.2331,-0.0474,-0.5820,-10.8677,-12.7401,-12.7039,-13.3658,-12.0498,-6.3794,-13.2261,-11.4473,-9.2610,-11.1417,-8.6181
2667.9688,-6.7755,-7.2706,0.3046,-1.0975,-0.3649,-2.2811,4.0331,2.5474,-11.7326,-12.1968,-11.5656,-9.9025,-7.8713,-2.9093,-11.3093,-7.7682,-5.3871,-9.2724,-3.9717
2671.8750,-6.8821,-4.9778,2.6525,3.1663,3.1555,-1.1591,7.3888,5.1128,-10.8053,-10.9666,-7.7829,-5.0251,-2.3805,1.4495,-7.9004,-1.4860,-0.2618,-6.5160,0.8951
2675.7812,-5.5809,-1.7743,4.2876,5.9029,5.9040,-0.1480,9.0484,6.4521,-8.1043,-8.9105,-2.5950,-0.1209,3.0283,5.7960,-3.9384,5.4816,4.8277,-3.5308,4.5767
2679.6875,-2.7701,1.1625,4.6471,6.5054,7.1867,0.5146,8.7137,6.3651,-4.3226,-5.7480,2.3413,3.5360,7.1272,9.2121,-0.4450,10.8521,8.6867,-1.0484,6.0675
2683.5938,1.0998,2.7205,3.6280,5.1677,6.7979,0.7278,6.8365,5.1666,-0.6147,-1.6016,5.5691,5.1540,9.1010,10.9231,1.7417,12.8594,10.4540,0.3600,5.1364
2687.5000,4.9690,2.3877,1.6651,2.6837,5.0263,0.5512,4.2529,3.4688,1.8436,2.6766,6.3172,4.6049,8.6690,10.4906,2.2188,10.9800,9.7828,0.4727,2.3649
2691.4062,7.4895,0.4483,-0.5078,0.0215,2.4657,0.1792,1.7232,1.8354,2.3251,5.6995,4.6732,2.3934,6.1277,8.0034,1.1583,6.1737,6.9548,-0.5029,-1.1445
2695.3125,7.6315,-2.1994,-2.2214,-2.0671,-0.2370,-0.0999,-0.2789,0.5289,0.8416,6.2123,1.4278,-0.5467,2.3252,4.1687,-0.7482,0.5003,2.8745,-1.9912,-4.2180
2699.2188,5.2625,-4.4485,-3.1085,-3.2222,-2.5637,0.0430,-1.4734,-0.5099,-1.8689,3.8432,-2.2859,-3.1560,-1.4872,0.1882,-2.5439,-3.7469,-1.1300,-3.2458,-6.0035
2703.1250,1.3326,-5.4050,-3.1032,-3.4329,-4.1933,0.8893,-1.6169,-1.4817,-4.6498,-0.5538,-5.3798,-4.5723,-3.9876,-2.6185,-3.3687,-5.0210,-3.7147,-3.6318,-6.1727
2707.0312,-2.5101,-4.6715,-2.2940,-2.9089,-5.0003,2.5393,-0.5518,-2.5091,-6.3989,-5.2328,-7.0919,-4.3897,-4.2711,-3.3396,-2.7802,-3.1752,-4.0339,-2.8969,-4.9264
2710.9375,-4.7142,-2.4355,-0.8160,-1.9892,-5.0501,4.7861,1.5254,-3.5386,-6.5017,-8.4144,-7.1161,-2.7746,-2.3109,-1.9061,-0.9070,0.5159,-2.1472,-1.3052,-2.8706
2714.8438,-4.5906,0.6369,1.1155,-1.0965,-4.5985,7.1008,3.8657,-4.3996,-5.0305,-9.1657,-5.5975,-0.3865,0.8844,0.8147,1.6240,3.9850,0.9148,0.4625,-0.8270
2718.7500,-2.5923,3.6640,3.1092,-0.6566,-4.0370,8.7960,5.3658,-4.9324,-2.6155,-7.7634,-3.0245,1.8869,3.6123,3.3785,3.9542,5.3669,3.5341,1.6389,0.4070
2722.6562,0.0663,5.8922,4.6142,-0.9265,-3.7356,9.3308,5.1957,-5.0621,-0.0513,-5.3225,-0.0452,3.2874,4.2538,4.4394,5.3463,3.8887,4.2183,1.7867,0.3332
2726.5625,2.2038,6.9935,5.1398,-1.7977,-3.8278,8.5955,3.4654,-4.7748,2.1405,-2.9594,2.7490,3.4877,2.1331,3.4099,5.4811,0.2278,2.3241,1.0739,-1.0069
2730.4688,3.3571,7.1721,4.5710,-2.7368,-4.0774,6.9863,1.3767,-4.0546,3.9295,-1.0789,4.9913,2.6945,-2.0296,0.7494,4.5621,-3.8406,-1.5849,0.2181,-2.9619
2734.3750,3.9038,6.9971,3.3323,-2.9841,-3.9657,5.1932,0.5885,-2.8773,5.6304,0.7148,6.5711,1.5049,-6.3826,-2.2808,3.1701,-6.3323,-5.9593,0.0945,-4.4810
2738.2812,4.5608,7.0261,2.2124,-1.9549,-3.0040,3.8104,2.0954,-1.2859,7.4804,3.0263,7.5045,0.5915,-8.8442,-4.2602,1.9270,-6.0283,-8.9772,1.2118,-4.5780
2742.1875,5.6438,7.4284,1.9012,0.3844,-1.0965,3.0125,5.3669,0.5203,9.2403,5.8590,7.7353,0.3807,-8.1652,-4.2958,1.1465,-3.0415,-9.3919,3.3718,-2.8453
2746.0938,6.6627,7.8453,2.5266,3.4210,1.2981,2.5138,8.4301,2.1907,10.1441,8.2413,7.0384,0.8827,-4.5569,-2.3889,0.6822,1.3010,-7.0791,5.7350,0.2747
2750.0000,6.5923,7.6015,3.5242,6.1664,3.3542,1.8401,8.9870,3.3533,9.3096,8.6628,5.1532,1.7399,0.4628,0.6694,0.0812,5.1667,-3.0164,7.2680,3.6429
2753.9062,4.6681,6.1582,3.9685,7.7373,4.3237,0.7278,5.9261,3.7948,6.3957,6.1017,2.1055,2.4415,4.8876,3.7496,-1.0357,7.1069,1.2502,7.3078,5.9506
2757.8125,1.1367,3.5368,3.1794,7.7539,3.9536,-0.6262,0.2383,3.5572,2.0728,0.9440,-1.5047,2.5814,7.2038,5.8852,-2.6168,6.6497,4.3267,5.9042,6.3326
2761.7188,-2.6206,0.4458,1.2196,6.4314,2.5926,-1.6395,-5.3346,2.8801,-2.0685,-4.9052,-4.5171,2.0436,6.9798,6.5678,-4.1010,4.3249,5.4919,3.7553,4.7341
2765.6250,-4.7630,-1.9810,-1.0431,4.3658,0.9193,-1.6900,-7.7815,2.0435,-4.2029,-8.9047,-5.6278,1.0615,4.8068,5.7633,-4.7046,1.2053,4.7968,1.8151,1.8535
2769.5312,-4.0680,-2.6914,-2.3576,2.2080,-0.5044,-0.4981,-5.5460,1.2433,-3.1924,-9.2521,-4.0347,0.1526,1.7602,3.7659,-3.9017,-1.6855,2.8023,0.8429,-1.2505
2773.4375,-0.7079,-1.1967,-1.7463,0.4488,-1.5256,1.7058,0.5768,0.5924,0.8012,-5.8807,0.0686,-0.0422,-1.1916,1.0577,-1.7785,-3.7337,0.2035,1.1572,-3.6233
2777.3438,3.8081,2.2105,0.9796,-0.6057,-2.3376,4.3174,7.9196,0.2134,6.3846,-0.4315,5.4793,1.0127,-3.4687,-1.7500,0.9904,-4.7242,-2.4119,2.6677,-4.7008
2781.2500,7.5080,6.5751,5.1111,-0.7654,-3.1397,6.6806,13.4700,0.2884,11.6414,4.7708,10.5082,3.5003,-4.7934,-3.9562,3.5370,-4.6111,-4.5911,5.0581,-4.3394
2785.1562,9.0846,10.6407,9.3592,0.0511,-3.8180,8.3722,15.4787,0.9645,15.0529,8.0512,13.7556,7.0739,-4.9646,-4.8977,5.3012,-3.3511,-5.9418,7.9265,-2.6935
2789.0625,8.5567,13.2839,12.4033,1.7175,-3.9322,9.2937,14.1874,2.1517,16.1013,9.1659,14.7011,10.8671,-3.7796,-4.1908,6.3007,-0.9735,-6.1231,10.8011,-0.0969
2792.9688,7.0720,13.8687,13.4031,3.7998,-3.0459,9.5727,11.3316,3.3924,15.2697,9.0883,13.7951,13.7658,-1.1967,-1.9679,7.0027,2.1933,-4.9792,13.1176,2.9835
2796.8750,6.0380,12.4343,12.2772,5.6208,-1.1548,9.4053,8.8658,3.9730,13.5409,9.0580,12.0544,14.8802,2.4245,1.0733,7.9131,5.3994,-2.7194,14.3077,5.9774
2800.7812,6.1915,9.6740,9.6773,6.5355,1.1331,8.9637,7.7891,3.2856,11.7811,9.6221,10.4541,14.0000,6.2727,3.9083,9.1839,7.6646,0.0318,14.0458,8.3188
2804.6875,7.2025,6.6955,6.7023,6.2786,2.8466,8.3901,7.7791,1.2377,10.3820,10.3273,9.4738,11.7603,9.3514,5.6284,10.4973,8.2449,2.4295,12.5115,9.6366
2808.5938,8.0055,4.6052,4.4609,5.1394,3.1987,7.8033,7.7345,-1.5768,9.2929,10.1959,9.0013,9.3608,10.9266,5.8477,11.2637,7.0831,3.7800,10.4329,9.9168
2812.5000,7.5607,4.0474,3.6391,3.8140,2.0730,7.2480,6.7328,-4.0996,8.2949,8.5464,8.5486,7.9424,10.8567,4.8415,10.9549,4.9070,3.8747,8.7814,9.4906
2816.4062,5.5139,4.9067,4.2405,3.0065,0.1224,6.6164,4.7103,-5.3201,7.2555,5.5299,7.5860,7.9592,9.5749,3.3412,9.3470,2.8557,3.0688,8.2427,8.8128
2820.3125,2.3630,6.3586,5.6279,3.0361,-1.5919,5.6518,2.4583,-4.7709,6.1963,2.0350,5.8096,8.9297,7.7452,2.1193,6.5711,1.8391,2.0404,8.7885,8.1598
2824.2188,-0.8832,7.2937,6.8681,3.7019,-2.1880,4.1156,1.0384,-2.7111,5.1930,-0.8860,3.2700,9.7405,5.8465,1.6136,3.0381,2.0347,1.3753,9.6568,7.4630
2828.1250,-3.2578,6.9156,7.2164,4.4668,-1.4195,2.0555,1.0889,0.0837,4.2478,-2.5936,0.3790,9.3314,3.9759,1.7841,-0.6426,2.8404,1.2320,9.7908,6.4041
2832.0312,-4.2438,5.1703,6.4694,4.7962,0.2503,-0.0278,2.4874,2.7441,3.2553,-3.0486,-2.1882,7.3402,1.9788,2.2378,-3.7196,3.2974,1.2919,8.4720,4.7093
2835.9375,-3.8649,2.7399,4.9743,4.4033,1.9469,-1.3110,4.5232,4.6528,2.0688,-2.5794,-3.7010,4.3093,-0.2354,2.4990,-5.4161,2.6976,1.0129,5.7443,2.4207
2839.8438,-2.5257,0.5953,3.2953,3.2705,2.8403,-1.0869,6.3653,5.5318,0.5975,-1.5248,-3.6764,1.3432,-2.4533,2.2624,-5.1900,0.9934,0.0231,2.3658,-0.0549
2843.7500,-0.7794,-0.6010,1.7823,1.5158,2.5019,0.7264,7.4639,5.3119,-1.1321,-0.0709,-2.1619,-0.5333,-4.1714,1.5211,-3.0658,-1.2026,-1.5850,-0.6434,-2.1478
2847.6562,0.8528,-0.8443,0.3695,-0.7084,1.0254,3.3632,7.6520,3.9843,-2.9494,1.6452,0.1913,-0.8843,-4.8298,0.5605,0.1967,-2.9659,-3.2249,-2.5276,-3.4102
2851.5625,2.0014,-0.6585,-1.2222,-3.1667,-1.0680,5.4978,6.9918,1.6040,-4.5170,3.3707,2.4025,0.0637,-4.0820,-0.1412,3.3283,-3.5059,-4.0626,-3.0504,-3.6669
2855.4688,2.5449,-0.5954,-3.0226,-5.4098,-3.0369,5.9382,5.5908,-1.5627,-5.3209,4.7558,3.7053,1.7621,-1.9264,-0.0740,5.1612,-2.4716,-3.4043,-2.3694,-2.9459
2859.3750,2.6677,-0.7414,-4.4666,-6.7515,-4.1506,4.3261,3.5876,-4.9161,-4.7452,5.5840,4.0461,3.7820,1.3328,1.1032,5.2955,-0.0356,-1.0392,-0.7226,-1.3029
2863.2812,2.7974,-0.6070,-4.5103,-6.4886,-3.9059,1.3907,1.2995,-7.6003,-2.3024,5.9872,4.1704,6.0032,5.1917,3.3608,4.3576,3.1866,2.6134,1.7655,1.2538
2867.1875,3.3694,0.5020,-2.2403,-4.2917,-2.2016,-1.4339,-0.6613,-8.8022,2.0251,6.3729,5.1469,8.4328,9.0118,6.1928,3.5976,6.2986,6.6070,4.9867,4.6282
2871.0938,4.5005,2.8872,2.3774,-0.5102,0.5842,-2.8166,-1.5112,-8.1061,7.5196,7.0361,7.5709,10.8481,12.0451,8.7136,4.0260,8.3459,9.7815,8.5718,8.3986
2875.0000,5.7838,6.0686,8.1340,3.8600,3.6869,-2.2686,-0.6823,-5.6758,12.7724,7.7505,10.9661,12.6129,13.5221,9.9884,5.6593,8.6161,11.1729,11.7270,11.7250
2878.9062,6.4053,8.9048,12.9392,7.5904,6.2329,-0.3612,1.7465,-2.1502,16.1348,7.7331,13.8399,12.8857,12.8904,9.4756,7.4297,6.9673,10.3720,13.4151,13.5840
2882.8125,5.5893,10.1719,14.7928,9.7884,7.6059,1.6945,4.9004,1.6661,16.4158,6.1299,14.4431,11.1253,10.1385,7.3405,7.8800,4.0153,7.6908,12.8418,13.2705
2886.7188,3.1308,9.2423,12.8438,10.2742,7.7164,2.8164,7.4368,5.1121,13.4644,2.7351,11.8009,7.5427,5.9932,4.4239,6.1969,0.9830,4.0571,9.9442,10.8608
2890.6250,-0.3399,6.4345,7.9123,9.5427,7.0105,2.6757,8.2411,7.8091,8.2909,-1.6019,6.3635,3.1487,1.7755,1.8352,2.8621,-0.8300,0.6585,5.5344,7.2996
2894.5312,-3.5834,2.8358,2.1452,8.3643,6.1974,1.8039,7.1038,9.6090,2.6295,-5.2742,-0.1535,-0.6851,-1.1121,0.3779,-0.5691,-0.7362,-1.5274,0.9665,3.9878
2898.4375,-5.3747,-0.2665,-2.0226,7.3042,5.8428,1.1578,4.9412,10.4677,-1.8256,-6.8153,-5.6506,-2.9000,-1.8343,0.1454,-2.4427,0.9035,-2.1116,-2.4889,2.0807
2902.3438,-5.1598,-1.9846,-3.0379,6.4639,6.0639,1.4621,3.3626,10.3734,-4.0943,-5.8236,-8.6940,-3.2393,-0.5380,0.5345,-2.0788,2.8225,-1.4049,-4.1847,1.9136
2906.2500,-3.3395,-2.1308,-0.9095,5.5604,6.4913,2.7531,3.7749,9.3636,-4.1561,-3.2585,-9.0983,-2.2606,1.7340,0.6632,-0.2009,3.5558,-0.2085,-4.2491,2.9024
2910.1562,-1.0093,-1.1233,2.9225,4.2233,6.5019,4.3837,6.5258,7.5636,-2.7089,-0.8624,-7.7441,-0.8983,3.6059,-0.0743,1.5791,2.3140,0.6100,-3.3160,3.9657
2914.0625,0.6733,0.3527,6.4011,2.2770,5.5715,5.4382,10.5945,5.1687,-0.6658,-0.0654,-5.8427,0.1127,4.0910,-1.6621,1.8649,-0.5236,0.5428,-2.0717,4.1912
2917.9688,1.0982,1.6748,7.8785,-0.1576,3.5535,5.2639,14.0381,2.3708,1.2778,-1.0954,-4.1894,0.5808,3.0638,-3.5185,0.4142,-3.6219,-0.3375,-0.9271,3.3323
2921.8750,0.4381,2.4385,6.8255,-2.7413,0.7614,3.7956,14.9613,-0.6842,2.8011,-2.8801,-2.8730,0.7947,1.2369,-4.8752,-1.7150,-5.4780,-1.4553,0.0168,1.8622
2925.7812,-0.5844,2.4403,3.9112,-5.0541,-2.1491,1.5159,12.4680,-3.8336,3.8495,-3.7842,-1.5375,1.1669,-0.3049,-5.2079,-2.8841,-5.2794,-2.0460,0.7814,0.6025
2929.6875,-1.2033,1.6103,0.4867,-6.6892,-4.4182,-0.8695,7.0714,-6.7635,4.4385,-2.6738,0.0951,1.8734,-0.7158,-4.4521,-1.9581,-3.2944,-1.5393,1.3163,0.1978
2933.5938,-1.0635,0.0008,-2.1973,-7.2970,-5.4427,-2.8148,0.3727,-8.9420,4.5388,0.3776,1.8667,2.7372,0.1977,-2.9237,0.9579,-0.5902,0.1714,1.4668,0.7601
2937.5000,-0.3769,-2.1636,-3.6109,-6.6496,-4.9836,-4.1541,-5.7551,-9.7534,4.0964,4.1461,3.2306,3.3935,1.9468,-1.0703,4.5664,1.6775,2.6792,1.1066,1.8622
2941.4062,0.2537,-4.4582,-4.0911,-4.7626,-3.2645,-5.0697,-9.9815,-8.8193,3.1154,6.9666,3.6183,3.5719,3.6715,0.7359,7.1221,2.9063,5.2345,0.2916,2.8314
2945.3125,0.1988,-6.3392,-4.4736,-2.0120,-0.9155,-5.8773,-11.9010,-6.3118,1.7057,7.6071,2.8239,3.2734,4.5862,2.2419,7.3697,3.2302,7.0467,-0.7204,3.1388
2949.2188,-0.8597,-7.3332,-5.4527,0.8811,1.2473,-6.7807,-11.8712,-3.0133,0.0569,5.8116,1.1313,2.7288,4.3282,3.2372,5.1268,3.2114,7.5888,-1.6137,2.6583
2953.1250,-2.7669,-7.2482,-7.0674,3.0684,2.5431,-7.7372,-10.5407,-0.0159,-1.6242,2.3013,-0.8742,2.1997,3.0664,3.4946,1.2531,3.3406,6.7871,-2.2134,1.6770
2957.0312,-4.9554,-6.2801,-8.6389,3.9207,2.7058,-8.4896,-8.4362,1.7966,-3.1599,-1.6341,-2.6468,1.7893,1.3572,2.8301,-2.8656,3.7203,5.0251,-2.5850,0.6803
2960.9375,-6.6795,-4.9460,-9.2142,3.3017,1.9602,-8.7192,-5.8498,2.1612,-4.4160,-4.6677,-3.9397,1.3985,-0.1608,1.2494,-5.9636,4.1077,2.9618,-2.9624,0.0428
2964.8438,-7.3219,-3.8703,-8.2450,1.5892,0.8310,-8.2243,-2.9908,1.4721,-5.3168,-5.8545,-4.8404,0.8395,-1.0851,-0.9557,-7.3402,4.2036,1.2404,-3.5681,-0.2088
2968.7500,-6.6532,-3.5255,-6.0560,-0.5807,-0.2133,-7.0260,-0.1716,0.4165,-5.8794,-4.8637,-5.6077,0.0050,-1.4352,-3.2742,-6.9695,3.9167,0.2180,-4.4633,-0.4308
2972.6562,-4.9375,-4.0510,-3.7636,-2.6775,-1.0524,-5.3585,2.1790,-0.5332,-6.2418,-2.0390,-6.4448,-1.0339,-1.6110,-5.1974,-5.3356,3.4055,-0.1559,-5.5305,-1.1627
2976.5625,-2.8247,-5.2301,-2.6541,-4.5090,-1.9412,-3.5696,3.6921,-1.4191,-6.6301,1.6999,-7.3498,-2.0573,-2.1354,-6.4573,-3.1470,2.9043,-0.2523,-6.5792,-2.7789
2980.4688,-1.0687,-6.6285,-3.4010,-6.1828,-3.2460,-1.9955,4.2527,-2.6886,-7.2439,5.1211,-8.1109,-2.8191,-3.3102,-7.1241,-1.0689,2.5022,-0.5191,-7.4749,-5.1796
2984.3750,-0.2044,-7.8248,-5.6352,-7.8603,-5.0836,-0.8784,4.0222,-4.7753,-8.1193,7.0790,-8.4343,-3.1737,-4.9858,-7.5038,0.4445,2.0509,-1.2254,-8.1914,-7.7206
2988.2812,-0.3533,-8.6169,-8.1692,-9.5108,-7.1377,-0.3465,3.2612,-7.6818,-9.0796,6.9123,-8.1340,-3.1376,-6.6037,-7.9200,1.1908,1.2536,-2.3401,-8.7646,-9.4725
2992.1875,-1.2561,-9.0932,-9.7384,-10.8584,-8.8069,-0.4329,2.1138,-10.8610,-9.8344,4.6606,-7.2923,-2.8743,-7.5163,-8.5328,1.1535,-0.1435,-3.6051,-9.2109,-9.7123
2996.0938,-2.4868,-9.5248,-9.7650,-11.5521,-9.5887,-1.0845,0.5625,-13.4682,-10.1760,0.9891,-6.2968,-2.6321,-7.3998,-9.3017,0.3967,-2.1767,-4.7306,-9.4945,-8.3741
3000.0000,-3.6845,-10.1335,-8.6343,-11.4130,-9.4143,-2.1405,-1.3927,-14.7942,-10.1274,-3.1141,-5.7038,-2.6692,-6.4915,-10.0751,-0.9911,-4.5840,-5.5631,-9.5720,-6.1722
3003.9062,-4.6462,-10.8794,-7.3174,-10.5627,-8.6767,-3.3135,-3.4963,-14.5861,-9.9176,-6.6737,-5.9592,-3.1824,-5.4713,-10.7020,-2.8494,-6.8329,-6.1069,-9.4694,-4.2731
3007.8125,-5.2536,-11.4241,-6.6353,-9.3371,-7.9213,-4.2296,-5.1933,-13.0759,-9.7942,-8.9323,-7.1161,-4.2410,-5.0416,-11.0713,-4.8362,-8.2526,-6.4031,-9.3126,-3.6723
3011.7188,-5.3624,-11.3251,-6.7053,-8.0662,-7.4330,-4.5571,-5.8940,-10.7584,-9.8282,-9.4190,-8.7394,-5.7386,-5.4720,-11.0772,-6.3940,-8.2660,-6.3910,-9.2744,-4.6365
3015.6250,-4.8226,-10.3605,-6.9524,-6.8926,-7.0380,-4.1759,-5.3842,-8.1167,-9.8854,-8.0130,-10.1107,-7.3922,-6.4207,-10.5903,-6.9181,-6.6865,-5.8940,-9.4709,-6.5529
3019.5312,-3.6698,-8.7616,-6.6351,-5.7632,-6.2833,-3.2742,-4.0448,-5.4805,-9.8046,-5.0932,-10.6605,-8.8112,-7.1645,-9.5135,-6.1076,-3.9537,-4.7752,-9.8830,-8.2840
3023.4375,-2.3310,-7.1558,-5.4559,-4.5737,-4.8580,-2.2762,-2.6462,-3.0505,-9.6295,-1.6711,-10.3644,-9.6276,-7.0875,-7.9096,-4.2873,-1.1239,-3.1527,-10.3549,-8.8123
3027.3438,-1.5978,-6.2035,-3.7836,-3.3288,-2.9293,-1.6052,-1.8045,-0.9845,-9.6622,0.7529,-9.8076,-9.6311,-6.0954,-6.0944,-2.4116,0.5059,-1.4898,-10.6626,-7.7779
3031.2500,-2.2469,-6.1368,-2.3397,-2.1748,-1.1171,-1.4155,-1.4931,0.5826,-10.2252,0.7779,-9.8114,-8.8411,-4.6686,-4.5796,-1.6228,0.0459,-0.4382,-10.5952,-5.5992
