Time,Fp1,F3,C3,P3,O1,F7,T3,T5,Fz,Fp2,F4,C4,P4,O2,F8,T4,T6,Cz,Pz
0.0000,2.5347,5.0544,8.2851,4.8715,0.7375,4.4585,5.2332,0.7785,5.3542,4.8318,7.2532,4.8798,1.8472,-2.8881,9.4055,3.4070,-0.2689,6.3095,2.9842
3.9062,2.9751,4.7608,6.0769,4.2599,1.9111,2.3554,3.3408,0.0406,4.9436,2.7809,6.1479,6.0402,3.2640,-0.2168,8.4048,4.3934,0.6453,7.8754,3.9090
7.8125,3.0648,3.5809,2.5164,2.6049,3.1221,-1.4223,-0.1114,-1.4689,2.8654,-0.4582,3.5769,6.6179,4.5834,3.1802,5.3381,4.9784,1.5818,8.5502,4.7224
11.7188,2.1157,1.2918,-1.9870,-0.1527,3.8081,-6.2464,-4.6792,-3.7521,-1.2386,-4.1951,-0.5067,5.8197,5.3267,6.3437,0.3843,4.6993,2.1750,7.1629,4.9617
15.6250,-0.2951,-2.0120,-6.6784,-3.5769,3.6294,-10.6852,-9.3391,-6.4231,-6.8493,-7.4009,-5.4923,3.4787,5.4336,8.4234,-5.0431,3.6572,2.3252,3.3456,4.4328
19.5312,-3.8721,-5.8776,-10.7858,-6.8678,2.6871,-13.2289,-12.9414,-8.7946,-12.6096,-9.1430,-10.1933,0.3345,5.3577,9.1639,-8.7838,2.5886,2.3925,-2.0304,3.3640
23.4375,-7.5015,-9.5806,-13.8875,-9.2512,1.4417,-13.2320,-14.8022,-10.1954,-16.8505,-8.9626,-13.2564,-2.2484,5.7778,9.0228,-9.0421,2.4709,3.0863,-7.1388,2.2640
27.3438,-9.6805,-12.3320,-16.1065,-10.4189,0.3707,-11.3921,-15.0683,-10.3555,-18.3578,-7.0086,-13.7507,-3.0235,7.0810,8.8208,-5.5163,3.8719,5.0403,-10.1229,1.5518
31.2500,-9.3045,-13.5542,-17.9940,-10.7362,-0.3968,-9.3259,-14.5975,-9.6064,-16.9659,-3.9011,-11.6471,-1.6337,8.9600,9.1462,0.1786,6.4717,8.3022,-10.1451,1.2085
35.1562,-6.3492,-13.1265,-20.1386,-11.0423,-1.1938,-8.4475,-14.3914,-8.7194,-13.6393,-0.4559,-7.9138,1.0893,10.4354,9.9130,5.1757,9.1181,12.0828,-7.9155,0.7208
39.0625,-1.9902,-11.4809,-22.7093,-12.1176,-2.5716,-8.9330,-14.9328,-8.4396,-9.9889,2.5617,-4.1280,3.5295,10.3463,10.3862,6.8392,10.4422,15.0041,-5.3396,-0.5967
42.9688,1.9746,-9.4620,-25.2126,-14.1247,-4.8466,-9.5963,-15.8675,-8.9923,-7.4943,4.5661,-1.7703,4.1806,8.0393,9.6724,4.2507,9.6765,15.7787,-4.4623,-3.0873
46.8750,4.0779,-7.9739,-26.6429,-16.3868,-7.7508,-8.8844,-16.2675,-9.8980,-6.8610,5.1926,-1.5633,2.4926,3.8240,7.3564,-1.1945,7.1502,13.9467,-6.3249,-6.3937
50.7812,3.9306,-7.5622,-25.9928,-17.6853,-10.4430,-6.3312,-15.3227,-10.2527,-7.8396,4.3332,-3.2101,-0.8516,-1.1139,3.8621,-6.4978,4.1213,10.1979,-10.4083,-9.5368
54.6875,2.3015,-8.1572,-22.8594,-16.9428,-11.9047,-3.3474,-12.9965,-9.3224,-9.5474,2.1974,-5.6720,-4.3907,-5.3175,0.2924,-8.7200,2.0229,6.0306,-14.9749,-11.4328
58.5938,0.5089,-9.1412,-17.8040,-13.9008,-11.4902,-2.5810,-10.1772,-7.0718,-11.0427,-0.6601,-7.8035,-6.7747,-7.8268,-2.1491,-6.6541,1.5886,2.9090,-18.0776,-11.5466
62.5000,-0.4480,-9.7304,-12.2323,-9.3797,-9.2980,-6.0911,-8.1848,-4.2706,-11.7910,-3.4383,-8.9605,-7.5246,-8.6489,-2.7942,-1.5280,2.4079,1.4277,-18.6176,-10.2643
66.4062,-0.4311,-9.4584,-7.8240,-4.9493,-6.1510,-13.5330,-7.9400,-2.0885,-11.7814,-5.3420,-9.2204,-7.2060,-8.6516,-1.8166,3.6852,3.1948,1.0145,-16.8467,-8.7208
70.3125,-0.0508,-8.4615,-5.7962,-2.1855,-3.2072,-21.7214,-9.3518,-1.4314,-11.2999,-5.8882,-9.1182,-6.9446,-8.9641,-0.0592,5.9569,2.5998,0.3773,-14.0730,-8.1639
74.2188,-0.0345,-7.3690,-6.3827,-1.9316,-1.4320,-26.1109,-11.3537,-2.4421,-10.5777,-5.0918,-9.1170,-7.6304,-10.2585,1.4732,3.9160,0.0595,-1.5853,-11.8066,-9.2254
78.1250,-0.5702,-6.8478,-8.7906,-3.9612,-1.2029,-23.4280,-12.5792,-4.4743,-9.5718,-3.4061,-9.1970,-9.3215,-12.3409,2.1273,-1.3944,-3.8318,-4.9967,-10.8771,-11.5331
82.0312,-1.1012,-7.0824,-11.6278,-7.1826,-2.2109,-13.8115,-12.2247,-6.5212,-8.0052,-1.4432,-8.8471,-11.1959,-14.2637,1.8472,-7.1258,-7.6328,-8.8490,-11.0122,-13.8852
85.9375,-0.7024,-7.5403,-13.5476,-10.2081,-3.6507,-1.0290,-10.5160,-7.7882,-5.6010,0.3535,-7.4522,-12.0331,-14.8484,1.0842,-10.2154,-9.8268,-11.5731,-11.0602,-14.8688
89.8438,1.2529,-7.2021,-13.7678,-11.9389,-4.5752,9.4636,-8.4704,-8.0274,-2.3226,1.8781,-4.7896,-10.8933,-13.2845,0.5049,-9.0377,-9.5790,-11.9492,-9.6730,-13.5578
93.7500,4.6165,-5.1469,-12.2405,-11.8730,-4.2622,13.4567,-7.1421,-7.4619,1.5442,3.2830,-1.2769,-7.5857,-9.4750,0.7009,-4.2050,-7.0525,-9.7639,-6.0524,-9.9151
97.6562,8.5000,-1.1467,-9.4672,-10.0740,-2.4776,10.1181,-6.8986,-6.4305,5.5030,4.7343,2.2095,-2.6981,-3.9971,2.0215,1.8702,-3.1681,-5.8162,-0.3801,-4.7269
101.5625,11.7675,4.0940,-6.1436,-6.9426,0.4382,2.0815,-7.2381,-5.0704,9.0592,6.2002,4.8253,2.7536,2.2187,4.5291,6.3338,0.9656,-1.3283,6.2482,0.8272
105.4688,13.6349,9.2049,-2.8583,-3.0004,3.6998,-6.4063,-7.2540,-3.2815,11.8902,7.4292,6.2285,7.8027,8.2597,8.0103,7.3768,4.5691,2.7958,12.3152,5.7036
109.3750,13.9895,12.7756,0.0336,1.2080,6.4033,-11.9711,-6.3788,-0.9618,13.8877,8.1258,6.7245,11.8672,13.4671,12.0051,5.0565,7.3722,6.3623,16.5456,9.3622
113.2812,13.2810,13.9843,2.3789,5.1384,7.9443,-13.6603,-4.8438,1.7251,15.0842,8.1747,7.0054,14.8181,17.4882,15.8817,1.0854,9.4430,9.7184,18.4334,11.8538
117.1875,12.1297,12.8940,4.1423,8.3030,8.3355,-12.7703,-3.5133,4.3122,15.5429,7.7311,7.6700,16.8248,20.2145,18.9944,-2.2011,10.8818,13.2233,18.3905,13.6557
121.0938,10.9494,10.2890,5.3471,10.4046,8.2260,-11.3834,-3.2267,6.2861,15.2887,7.0964,8.8351,18.1141,21.6976,20.8999,-3.0791,11.6444,16.7921,17.4475,15.3688
125.0000,9.8063,7.1924,6.0494,11.4703,8.5555,-10.8166,-4.1480,7.4494,14.3059,6.4721,10.0668,18.7752,22.0831,21.5227,-1.2253,11.6128,19.8491,16.6382,17.3969
128.9062,8.5258,4.3581,6.3027,11.8483,9.9944,-11.0388,-5.6123,8.0956,12.5795,5.7823,10.6415,18.6800,21.5457,21.1517,2.2892,10.8193,21.6906,16.3759,19.7072
132.8125,6.9009,2.0036,6.0979,12.0101,12.4873,-11.2495,-6.5812,8.8304,10.1414,4.7177,9.9568,17.5375,20.2157,20.2447,5.6959,9.6062,21.9587,16.1627,21.7592
136.7188,4.8398,-0.1197,5.3225,12.2485,15.1989,-10.9403,-6.3676,10.1452,7.1044,2.9893,7.8544,15.0592,18.1300,19.1520,7.4789,8.5595,20.8672,14.8380,22.6623
140.6250,2.3976,-2.4159,3.8062,12.4699,16.9336,-10.5115,-5.0997,12.0365,3.6809,0.6224,4.7023,11.1868,15.2667,17.9431,7.0583,8.2275,19.0384,11.2861,21.5512
144.5312,-0.2619,-5.1017,1.4694,12.2381,16.7903,-10.9884,-3.6013,13.9467,0.1839,-1.9276,1.2314,6.2859,11.6771,16.4523,4.8932,8.8036,17.1051,5.2340,18.0473
148.4375,-2.9038,-8.0224,-1.5166,11.0533,14.6503,-13.1444,-2.8048,15.0645,-3.0137,-3.9500,-1.7709,1.1814,7.6397,14.4957,2.0282,9.9838,15.3826,-2.3397,12.5740
152.3438,-5.2503,-10.7096,-4.6918,8.6828,11.1892,-16.7769,-3.1477,14.7772,-5.5757,-4.8625,-3.7722,-3.0522,3.6977,12.0828,-0.5948,11.0959,13.8242,-9.4914,6.3061
156.2500,-7.0403,-12.6303,-7.4768,5.3155,7.4207,-20.6976,-4.3825,12.9703,-7.3395,-4.5777,-4.6966,-5.5111,0.4958,9.4499,-2.6393,11.4174,12.2274,-14.2110,0.7062
160.1562,-8.1392,-13.4803,-9.4753,1.4445,4.0940,-23.4110,-5.8902,10.0077,-8.4167,-3.6160,-4.9470,-5.9102,-1.5309,6.8913,-4.4161,10.4914,10.4763,-15.4592,-3.1469
164.0625,-8.6442,-13.3561,-10.7129,-2.4174,1.3588,-23.9502,-7.2006,6.4633,-9.1687,-2.8736,-5.2261,-4.7951,-2.4225,4.5337,-6.4851,8.2718,8.6149,-13.7336,-5.0633
167.9688,-8.8823,-12.6994,-11.6123,-5.9645,-1.0943,-22.3055,-8.2896,2.8394,-10.0160,-3.1622,-6.2037,-3.3403,-2.7059,2.2603,-9.1119,5.0631,6.7281,-10.7926,-5.7575
171.8750,-9.2454,-12.0210,-12.6702,-9.0996,-3.5562,-19.2648,-9.4311,-0.5299,-11.1515,-4.7719,-8.1568,-2.7772,-3.0924,-0.1281,-11.9573,1.3508,4.7905,-8.6504,-6.3318
175.7812,-9.9291,-11.5453,-14.0159,-11.7323,-5.8708,-15.9304,-10.7599,-3.3798,-12.3162,-7.3041,-10.7583,-3.7350,-4.0181,-2.6252,-14.2210,-2.3447,2.6660,-8.4111,-7.5198
179.6875,-10.7429,-10.9819,-15.1552,-13.5673,-7.3940,-13.3056,-11.9357,-5.3835,-12.8042,-9.8654,-13.1541,-5.8690,-5.3217,-4.8419,-15.1501,-5.5256,0.2932,-9.6265,-9.1646
183.5938,-11.1412,-9.5998,-15.1133,-14.0948,-7.3886,-12.1170,-12.2113,-6.1708,-11.7500,-11.5115,-14.3329,-8.0156,-6.2946,-6.1209,-14.5622,-7.7297,-2.1013,-10.5704,-10.2773
187.5000,-10.4918,-6.6211,-12.9451,-12.8382,-5.5726,-12.7234,-10.8838,-5.5288,-8.5835,-11.6951,-13.6155,-8.8116,-6.1042,-5.9082,-13.0102,-8.5897,-3.9838,-9.2769,-9.6603
191.4062,-8.4349,-1.7562,-8.3259,-9.7022,-2.4181,-14.9013,-7.7947,-3.6306,-3.4151,-10.4792,-11.0013,-7.4435,-4.3386,-4.1406,-11.4496,-7.9786,-4.7768,-4.7364,-6.7119
195.3125,-5.1180,4.4308,-1.8548,-5.1622,1.0277,-17.5541,-3.5060,-1.0742,2.8773,-8.4220,-7.1718,-4.1044,-1.3255,-1.3656,-10.6234,-6.1688,-4.2611,2.4447,-1.8997
199.2188,-1.1722,10.5882,5.1374,-0.1268,3.6986,-18.7071,0.9774,1.3625,8.9364,-6.2305,-3.1512,0.0911,1.9901,1.5217,-10.5973,-3.8673,-2.8288,10.2920,3.4070
203.1250,2.5456,15.1137,11.1857,4.4721,5.0820,-16.1460,4.7383,3.1273,13.4593,-4.4009,0.1665,3.6733,4.5421,3.7742,-10.7886,-2.0268,-1.3641,16.4558,7.6541
207.0312,5.2862,16.9128,15.3560,8.1119,5.4494,-8.6298,7.3626,4.1985,15.7116,-3.0544,2.3492,5.5414,5.7168,5.2036,-10.4872,-1.4710,-0.7738,19.3738,9.9315
210.9375,6.6442,15.9606,17.5977,10.8610,5.6241,2.9699,8.9935,5.0716,15.7645,-2.0415,3.4529,5.4539,5.6595,6.2414,-9.4915,-2.5129,-1.4405,18.9684,10.4178
214.8438,6.6151,13.3193,18.5970,13.1952,6.4609,15.4691,10.0578,6.4225,14.3522,-1.2136,3.7941,4.0563,5.1493,7.6144,-8.3686,-4.7799,-2.9463,16.5398,10.1866
218.7500,5.5012,10.5636,19.2389,15.5742,8.3633,24.5416,10.9139,8.6568,12.4461,-0.6612,3.6679,2.4741,5.1362,9.8479,-8.1007,-7.3647,-4.2594,13.9752,10.5123
222.6562,3.7547,8.9187,20.0043,18.0465,11.0911,26.8143,11.6662,11.6228,10.7797,-0.7453,3.2048,1.7175,6.2139,12.9048,-9.3330,-9.2382,-4.2948,12.7379,12.0935
226.5625,1.8232,8.6036,20.6461,20.1222,13.8977,21.7045,12.1997,14.6514,9.5571,-1.8894,2.4099,2.1987,8.3066,16.1523,-11.7695,-9.7148,-2.5305,13.1598,14.6310
230.4688,0.0299,8.7695,20.3142,20.9767,15.8515,11.8276,12.3100,16.8677,8.4643,-4.2599,1.2801,3.5722,10.6967,18.6342,-14.2014,-8.7357,0.6628,14.3548,16.9677
234.3750,-1.4982,8.0765,18.0478,19.8543,16.1527,1.6203,11.7767,17.5735,6.9406,-7.5427,-0.1348,4.9382,12.3408,19.4562,-15.2218,-6.8397,4.1541,14.7335,17.6776
238.2812,-2.8251,5.5742,13.3609,16.4453,14.3398,-5.0309,10.3656,16.4940,4.5506,-10.9682,-1.7626,5.2977,12.3093,18.0836,-14.1633,-4.8589,6.5693,12.8348,15.7741
242.1875,-4.0986,1.3679,6.6148,11.0520,10.3884,-6.7098,7.8707,13.8090,1.2767,-13.5935,-3.5467,4.0591,10.1757,14.4633,-11.5934,-3.5065,6.9303,8.0826,11.1869
246.0938,-5.3663,-3.3246,-1.0182,4.4884,4.7361,-4.7833,4.2905,10.0214,-2.3961,-14.6946,-5.3914,1.3826,6.2298,9.0083,-8.9774,-3.0566,5.1108,1.1444,4.8084
250.0000,-6.4226,-6.7643,-7.9947,-2.2171,-1.7740,-2.0220,0.0594,5.7722,-5.6260,-14.0640,-7.0251,-1.7994,1.4479,2.5137,-7.7031,-3.2564,1.9129,-6.2533,-1.8764
253.9062,-6.8155,-7.6033,-13.0472,-8.1822,-8.0764,-0.5597,-3.8994,1.6661,-7.5279,-12.0673,-7.9291,-4.1348,-2.8018,-3.9758,-8.1368,-3.4969,-1.2680,-11.9889,-7.3925
257.8125,-6.0712,-5.6139,-15.7392,-12.9569,-13.2055,-0.6006,-6.4882,-1.8824,-7.5314,-9.4541,-7.4930,-4.4686,-5.2659,-9.3888,-9.3905,-3.1575,-3.0517,-14.4374,-10.8512
261.7188,-4.0373,-1.8465,-16.6535,-16.6335,-16.6528,-0.6845,-7.0390,-4.7797,-5.6492,-7.0416,-5.4006,-2.4691,-5.3689,-12.9488,-9.9901,-1.9724,-2.7109,-13.2251,-12.2697
265.6250,-1.1272,1.8523,-17.0948,-19.7292,-18.5716,0.8217,-5.8381,-7.3048,-2.5490,-5.4346,-2.0263,1.0537,-3.5851,-14.4952,-8.9926,-0.2433,-0.5635,-9.4961,-12.5048
269.5312,1.7339,3.6961,-18.4186,-22.8659,-19.6662,4.1879,-4.1413,-9.9954,0.6179,-4.8927,1.4752,4.3573,-1.3795,-14.6079,-6.7630,1.2194,2.0793,-5.5079,-12.8228
273.4375,3.4852,2.7494,-21.2982,-26.3618,-20.7724,7.9015,-3.5359,-13.3331,2.5889,-5.3541,3.5602,5.4791,-0.6422,-14.3794,-4.8438,1.4402,3.4422,-3.6651,-14.2828
277.3438,3.4375,-0.7181,-25.3089,-29.9267,-22.3368,9.6646,-4.9705,-17.3422,2.4404,-6.5515,3.0199,3.1474,-2.8088,-14.8657,-4.9838,-0.2291,2.1022,-5.3985,-17.2101
281.2500,1.6160,-5.4435,-29.0739,-32.6518,-24.1005,8.0655,-8.0767,-21.3361,-0.0569,-8.1397,-0.3749,-2.5643,-8.0851,-16.4781,-7.9835,-3.7079,-2.2735,-10.4412,-21.0211
285.1562,-1.2686,-9.7935,-30.9315,-33.3677,-25.1949,3.6933,-11.2837,-24.0391,-4.3328,-9.7936,-5.7239,-10.2050,-15.2122,-18.6783,-13.1370,-8.1134,-8.6487,-16.9104,-24.5035
289.0625,-4.1942,-12.4747,-29.7901,-31.2417,-24.6191,-1.1182,-12.7253,-24.1159,-9.2245,-11.2794,-11.4630,-17.5856,-21.9593,-20.2069,-18.6328,-12.1040,-14.9943,-22.2185,-26.4273
292.9688,-6.3175,-13.0069,-25.7152,-26.3155,-21.8309,-3.7544,-11.3882,-20.8769,-13.4268,-12.5101,-16.1699,-22.7743,-26.1410,-19.7649,-22.6119,-14.4977,-19.1836,-24.3808,-26.1697
296.8750,-7.3041,-11.7923,-19.9228,-19.6616,-17.1091,-2.9830,-7.7574,-14.7623,-16.0005,-13.5745,-19.2095,-24.9280,-26.6421,-16.7765,-24.1608,-14.8430,-19.9770,-23.0302,-24.0175
300.7812,-7.3599,-9.8168,-14.1881,-13.0163,-11.4784,0.3022,-3.5343,-7.2867,-16.7179,-14.7029,-20.8432,-24.5258,-23.9023,-11.7839,-23.6140,-13.6133,-17.5856,-19.5685,-20.9808
304.6875,-7.0224,-8.1753,-10.0045,-8.0418,-6.2423,3.7177,-0.6202,-0.4217,-16.0908,-16.1453,-21.7932,-22.9105,-19.5990,-6.2262,-22.0650,-11.8994,-13.5047,-16.3474,-18.2285
308.5938,-6.8872,-7.6477,-7.9649,-5.5985,-2.3912,4.9226,-0.0412,4.2686,-15.0722,-17.9957,-22.6158,-21.4303,-15.7092,-1.7190,-20.5280,-10.7749,-9.7027,-15.3226,-16.4750
312.5000,-7.4128,-8.4774,-7.6813,-5.4277,-0.2051,2.9997,-1.4969,6.2662,-14.5764,-20.0568,-23.3313,-20.6844,-13.4741,0.7518,-19.3763,-10.7105,-7.6049,-16.9466,-15.6631
316.4062,-8.8282,-10.3799,-8.2268,-6.4128,0.7565,-1.1850,-3.7570,6.1713,-15.0505,-21.8522,-23.5298,-20.2877,-12.8311,1.2683,-18.3964,-11.3851,-7.4225,-19.9418,-15.1058
320.3125,-11.0870,-12.7076,-8.7812,-7.2584,1.3076,-5.7707,-5.5480,5.2053,-16.3027,-22.8239,-22.8128,-19.2526,-12.6011,0.8229,-17.2979,-11.9838,-8.1772,-22.0887,-13.9710
324.2188,-13.8297,-14.6738,-9.0761,-7.1874,2.1451,-9.1901,-6.2875,4.4714,-17.6594,-22.6374,-21.2010,-16.7228,-11.2935,0.6892,-16.1909,-11.7605,-8.3710,-21.5635,-11.8052
328.1250,-16.4028,-15.5713,-9.4119,-6.2678,3.4810,-11.0430,-6.2098,4.4097,-18.3546,-21.4210,-19.1971,-12.6096,-8.0529,1.7046,-15.6153,-10.4832,-6.8985,-18.0339,-8.7944
332.0312,-18.0147,-14.9673,-10.3090,-5.2219,4.9739,-12.0058,-5.9192,4.7247,-17.9375,-19.7700,-17.4767,-7.7599,-3.2164,3.8629,-16.0986,-8.4876,-3.6802,-12.8630,-5.6430
335.9375,-18.0414,-12.8623,-12.0732,-4.8853,5.9690,-12.9486,-5.8079,4.7493,-16.4832,-18.4666,-16.4569,-3.5725,1.8187,6.4074,-17.6061,-6.3529,0.3188,-8.3098,-3.1761
339.8438,-16.3517,-9.7685,-14.5615,-5.6679,5.9007,-13.9806,-5.8053,3.9554,-14.5079,-18.0428,-16.0641,-1.2937,5.3284,8.3196,-19.3407,-4.4755,3.6589,-6.2165,-1.9154
343.7500,-13.4462,-6.6330,-17.2578,-7.3306,4.6399,-14.1685,-5.5989,2.2791,-12.6607,-18.4344,-15.8550,-1.3985,6.1818,8.8944,-20.0959,-2.8715,5.2304,-6.9748,-1.8559
347.6562,-10.2785,-4.5600,-19.5543,-9.1679,2.6006,-12.1763,-5.0661,0.0964,-11.3871,-18.9590,-15.3838,-3.3991,4.4323,8.0809,-18.9617,-1.3429,4.8268,-9.3884,-2.5349
351.5625,-7.8262,-4.3917,-21.0337,-10.4426,0.5458,-7.4091,-4.5115,-2.0754,-10.7673,-18.6745,-14.5481,-6.1783,1.2505,6.4279,-15.9398,0.1451,3.1694,-11.4951,-3.3244
355.4688,-6.6573,-6.3261,-21.6008,-10.7992,-0.8179,-0.8622,-4.5021,-3.9195,-10.6136,-16.9514,-13.6925,-8.6537,-1.7742,4.6995,-12.0810,1.1929,1.3950,-11.8358,-3.7843
359.3750,-6.7527,-9.7882,-21.4536,-10.4403,-1.2513,4.9836,-5.4477,-5.4890,-10.7420,-13.9343,-13.4351,-10.3965,-3.5769,3.3955,-9.0599,1.0470,0.3138,-10.3913,-3.9127
363.2812,-7.6689,-13.6748,-20.9811,-10.0139,-1.1763,7.2865,-7.2885,-7.1304,-11.2181,-10.6055,-14.3515,-11.8536,-4.2712,2.4412,-8.4222,-0.9857,-0.1208,-8.6227,-4.1883
367.1875,-8.8903,-16.8823,-20.6683,-10.3088,-1.5242,4.4015,-9.5482,-9.2418,-12.3895,-8.3711,-16.7041,-14.0416,-5.1156,1.2126,-10.8843,-5.0561,-0.8165,-8.5941,-5.3850
371.0938,-10.1035,-18.8401,-21.0081,-11.9166,-3.2826,-3.0459,-11.6937,-12.0173,-14.6588,-8.3678,-20.3227,-17.8684,-7.7703,-1.1138,-15.9941,-10.5529,-3.0012,-11.7069,-8.2137
375.0000,-11.2174,-19.7361,-22.3642,-14.9813,-6.9478,-12.2567,-13.4842,-15.3018,-18.1262,-10.8567,-24.6378,-23.4590,-13.2311,-5.0614,-22.2669,-16.2977,-7.4284,-17.7930,-12.9161
378.9062,-12.1766,-20.2912,-24.7657,-19.0951,-12.1601,-19.5590,-15.0085,-18.5957,-22.3394,-15.0405,-28.8129,-29.8715,-21.0443,-10.4540,-27.7186,-21.0400,-13.7803,-25.0879,-18.9787
382.8125,-12.7877,-21.2165,-27.7252,-23.3545,-17.7234,-22.2317,-16.3889,-21.1875,-26.3392,-19.4068,-31.9387,-35.3932,-29.2800,-16.3267,-30.5982,-23.9523,-20.6206,-31.0866,-25.1286
386.7188,-12.7562,-22.6978,-30.2403,-26.5749,-22.0267,-19.8412,-17.4309,-22.3612,-29.0243,-22.4148,-33.2768,-38.2876,-35.3333,-21.2138,-30.0657,-24.8531,-25.9581,-33.7823,-29.6814
390.6250,-11.9365,-24.2427,-31.0920,-27.6381,-23.6837,-14.3378,-17.5686,-21.6258,-29.6579,-23.1638,-32.5141,-37.6106,-37.1454,-23.6971,-26.5532,-24.0883,-28.1377,-32.5999,-31.1559
394.5312,-10.5861,-24.9912,-29.3790,-25.8915,-22.0951,-8.8733,-16.2217,-18.9074,-28.2389,-21.7114,-29.9315,-33.6616,-34.1838,-22.9692,-21.6213,-22.2170,-26.5871,-28.5474,-28.9036
398.4375,-9.3739,-24.2863,-25.0379,-21.4512,-17.6755,-6.0514,-13.3268,-14.6313,-25.5193,-18.9230,-26.3667,-27.8288,-27.6459,-19.1479,-17.2995,-19.7368,-22.0219,-23.5692,-23.4447
402.3438,-9.0609,-22.1262,-19.0362,-15.2441,-11.6511,-6.6382,-9.6212,-9.6351,-22.6436,-15.9843,-22.9205,-21.9166,-19.7895,-13.1964,-15.1617,-16.9958,-16.0161,-19.5156,-16.3037
406.2500,-10.0272,-19.2029,-13.0647,-8.7146,-5.5360,-9.4455,-6.3956,-4.9105,-20.5936,-13.8635,-20.5108,-17.3241,-12.7902,-6.4925,-15.5862,-14.2696,-10.2003,-17.3033,-9.3779
410.1562,-11.9653,-16.5086,-8.8256,-3.2821,-0.5365,-12.3427,-4.8125,-1.2610,-19.7361,-12.9813,-19.4930,-14.5082,-7.7724,-0.2621,-17.6266,-11.8625,-5.5471,-16.6712,-4.1304
414.0625,-13.9711,-14.7763,-7.2622,0.2064,2.8537,-13.6562,-5.2175,0.9736,-19.7098,-13.1872,-19.5624,-12.9873,-4.5226,4.8507,-19.6150,-10.1044,-2.1230,-16.5701,-1.0118
417.9688,-15.0004,-14.1119,-8.1344,1.7555,4.9054,-13.0294,-6.9056,1.9878,-19.7015,-13.9666,-19.9956,-11.8236,-1.9651,8.8845,-20.1762,-9.2277,0.6145,-15.8848,0.5887
421.8750,-14.4165,-14.0296,-10.1730,2.0844,6.3623,-11.2623,-8.5146,2.3409,-18.9434,-14.7126,-20.0816,-10.2673,0.9638,12.3177,-19.0400,-9.2257,3.2289,-14.0644,1.8474
425.7812,-12.2965,-13.8205,-11.7340,2.1575,7.9651,-9.3976,-8.8006,2.6437,-17.1522,-14.9310,-19.4807,-8.1857,4.5926,15.6393,-17.1305,-9.8154,5.8279,-11.3517,3.7515
429.6875,-9.3304,-12.9825,-11.6031,2.6486,10.0286,-7.8381,-7.3107,3.2737,-14.6684,-14.3368,-18.3145,-6.0675,8.3382,18.9777,-15.8641,-10.5512,7.9925,-8.5647,6.5093
433.5938,-6.4121,-11.4400,-9.5363,3.6369,12.2722,-6.1828,-4.5542,4.2651,-12.2357,-12.8804,-16.9739,-4.6585,11.1018,21.9792,-16.1245,-11.0236,9.1086,-6.6143,9.4474
437.5000,-4.1926,-9.4666,-6.2828,4.6797,13.9853,-3.8548,-1.6177,5.4001,-10.5621,-10.7457,-15.8182,-4.4890,11.9305,23.9877,-17.6174,-11.0188,8.8362,-6.0417,11.4272
441.4062,-2.8486,-7.4374,-3.1276,5.1723,14.4385,-0.9341,0.4842,6.4077,-9.9238,-8.3229,-14.9770,-5.5765,10.5345,24.4106,-19.0575,-10.5531,7.3783,-6.7886,11.5146
445.3125,-2.1439,-5.6247,-1.2388,4.7449,13.3258,1.5738,1.3051,7.1250,-10.0360,-6.1215,-14.3587,-7.4468,7.4014,23.0653,-19.0593,-9.7849,5.3765,-8.2704,9.5053
449.2188,-1.6745,-4.1580,-1.1734,3.4480,10.9952,2.3453,1.0468,7.5259,-10.2501,-4.6070,-13.8020,-9.4095,3.5184,20.3141,-17.1057,-8.8893,3.5252,-9.6682,6.0143
453.1250,-1.1127,-3.1061,-2.7624,1.6437,8.3236,0.7882,0.2577,7.6299,-9.9429,-4.0026,-13.2147,-10.8951,-0.0828,16.9166,-13.9079,-7.9864,2.1813,-10.2886,2.1120
457.0312,-0.3181,-2.5375,-5.3602,-0.2807,6.2838,-2.3323,-0.5942,7.3879,-8.8558,-4.1569,-12.5876,-11.6570,-2.7040,13.6824,-10.9103,-7.1542,1.2306,-9.8364,-1.2425
460.9375,0.6905,-2.4663,-8.2459,-2.1544,5.4309,-5.2989,-1.3861,6.6441,-7.1834,-4.5704,-11.9010,-11.7591,-4.1350,11.1160,-9.3052,-6.4847,0.2773,-8.5046,-3.6203
464.8438,1.8246,-2.7310,-10.9202,-4.0485,5.6007,-6.6836,-2.3176,5.2142,-5.3787,-4.6024,-11.0423,-11.4038,-4.5799,9.2509,-9.2703,-6.1043,-0.9946,-6.8584,-5.1629
468.7500,2.9954,-2.9550,-13.1507,-6.0825,6.0134,-6.5032,-3.6697,3.0318,-3.8204,-3.7706,-9.8367,-10.7334,-4.4495,7.7644,-9.9590,-6.1188,-2.5443,-5.5647,-6.2638
472.6562,4.1313,-2.6927,-14.8057,-8.1623,5.7470,-6.3110,-5.5289,0.2742,-2.5716,-1.9940,-8.1847,-9.7297,-4.1295,6.2967,-10.2128,-6.5060,-3.9566,-5.0762,-7.1390
476.5625,5.1669,-1.7053,-15.6518,-9.8486,4.3247,-7.9851,-7.6405,-2.6077,-1.3843,0.3602,-6.1877,-8.2541,-3.8077,4.7773,-9.4361,-7.0410,-4.6758,-5.4054,-7.5850
480.4688,6.0352,-0.1711,-15.2970,-10.4644,2.0725,-11.9998,-9.4546,-4.9776,0.0675,2.6594,-4.1325,-6.1901,-3.4141,3.5480,-7.9730,-7.3291,-4.3252,-6.0962,-7.0820
484.3750,6.6815,1.3675,-13.3430,-9.3940,0.0195,-16.4907,-10.3232,-6.1879,1.9076,4.3356,-2.3105,-3.5937,-2.6923,3.1932,-6.7232,-6.9634,-2.9125,-6.4204,-5.1645
488.2812,7.0899,2.3381,-9.6568,-6.4075,-0.6283,-17.9989,-9.7548,-5.7826,3.9402,5.1902,-0.7891,-0.7582,-1.3785,4.1725,-6.3167,-5.7350,-0.8161,-5.7157,-1.8047
492.1875,7.3105,2.5576,-4.5781,-1.8302,0.8447,-13.6182,-7.6247,-3.6610,5.7904,5.5097,0.6894,1.8560,0.5960,6.4848,-6.4980,-3.7739,1.4089,-3.7014,2.4517
496.0938,7.4750,2.4401,1.0881,3.5312,4.2325,-3.1926,-4.2602,-0.1474,7.2025,5.9241,2.5772,3.8112,2.9993,9.5855,-6.2088,-1.5152,3.2805,-0.6090,6.6908
500.0000,7.7842,2.8129,6.3161,8.6665,8.4653,9.9830,-0.3553,4.0742,8.2742,7.0681,5.2200,4.9206,5.3768,12.6251,-4.3252,0.5196,4.5665,2.9440,10.0534
503.9062,8.4528,4.4199,10.2201,12.7095,12.1347,20.6166,3.2689,8.1579,9.4372,9.2206,8.5785,5.3987,7.2990,14.8751,-0.5166,2.0250,5.3321,6.2633,12.1220
507.8125,9.6042,7.4128,12.3445,15.2012,14.1986,24.2654,5.9658,11.3688,11.1669,12.1123,12.1671,5.8336,8.6371,16.0827,4.3958,3.1187,5.8723,8.8942,13.0506
511.7188,11.1540,11.1598,12.7462,16.1683,14.4787,19.8513,7.4830,13.3204,13.6041,15.0159,15.2669,6.9531,9.6787,16.5406,8.8387,4.3034,6.5762,10.7636,13.3870
515.6250,12.7518,14.5054,11.8558,16.0025,13.6819,10.2704,7.9751,14.0618,16.3470,17.0814,17.2840,9.2635,10.9681,16.8374,11.3640,6.1592,7.7703,12.0773,13.7145
519.5312,13.8542,16.3323,10.2210,15.2075,12.9436,0.7106,7.7970,13.9623,18.5751,17.7444,18.0255,12.7270,12.9365,17.4556,11.4103,8.9137,9.5760,13.0539,14.3308
523.4375,13.9334,16.0942,8.2788,14.1304,13.1530,-4.2773,7.2027,13.4534,19.4502,16.9874,17.7219,16.6606,15.5369,18.4692,9.4799,12.1443,11.8264,13.6854,15.1219
527.3438,12.7299,14.0263,6.2502,12.7973,14.4287,-3.1807,6.1553,12.7700,18.5594,15.3096,16.7973,19.9505,18.1322,19.5104,6.6989,14.8353,14.0868,13.6941,15.6578
531.2500,10.4052,10.9507,4.1606,10.9317,16.0205,1.9674,4.3861,11.8382,16.1343,13.4308,15.5669,21.5212,19.7452,19.9925,4.1412,15.8294,15.8054,12.7287,15.4186
535.1562,7.4875,7.8359,1.9234,8.1483,16.6768,7.1125,1.6706,10.3619,12.9278,11.9057,14.0852,20.8491,19.5612,19.4232,2.3833,14.4719,16.5558,10.6790,14.0212
539.0625,4.6337,5.3815,-0.5826,4.2303,15.2716,8.6604,-1.8781,8.0338,9.8406,10.8782,12.2545,18.2646,17.4053,17.6168,1.5062,11.0907,16.2667,7.8984,11.3694
542.9688,2.3467,3.8319,-3.4555,-0.6553,11.3677,5.3999,-5.7289,4.7300,7.5326,10.1128,10.1063,14.8654,13.9216,14.7221,1.3883,7.0022,15.3064,5.1677,7.7096
546.8750,0.8227,3.0502,-6.7072,-5.9210,5.4475,-1.1328,-9.1492,0.5834,6.2319,9.2573,8.0230,12.0617,10.3391,11.1190,1.9555,3.9769,14.3481,3.3853,3.6092
550.7812,0.0028,2.7329,-10.1679,-10.7239,-1.2686,-7.8161,-11.5760,-4.0592,5.8031,8.1490,6.6900,10.9584,7.9437,7.3036,3.1733,3.4118,14.0588,3.1434,-0.1384
554.6875,-0.2446,2.6074,-13.3890,-14.2402,-7.2899,-11.7448,-12.8717,-8.7066,5.9680,6.9563,6.7507,11.8758,7.5284,3.8316,4.8558,5.6490,14.7645,4.4246,-2.6931
558.5938,0.0263,2.5185,-15.6307,-15.9022,-11.3681,-11.5976,-13.2646,-12.7403,6.5005,6.0676,8.3598,14.2412,9.0896,1.2884,6.5558,9.8235,16.2749,6.5959,-3.4187
562.5000,0.8352,2.4109,-16.0193,-15.4861,-12.8370,-7.9573,-13.0169,-15.4032,7.2777,5.8212,10.9355,16.8937,11.8952,0.2021,7.7260,14.3297,17.9677,8.7068,-2.1304
566.4062,2.1331,2.2744,-13.8784,-13.0576,-11.6921,-2.6741,-12.0902,-15.8777,8.1973,6.2640,13.3212,18.6365,14.8510,0.8633,8.0750,17.6395,19.0881,9.9263,0.7793
570.3125,3.6611,2.1089,-9.1155,-8.8808,-8.4594,2.1653,-10.1096,-13.5491,9.0689,7.1006,14.3102,18.7508,16.9610,3.1303,7.8175,19.0041,19.1005,9.8827,4.4306
574.2188,4.9540,1.9208,-2.4601,-3.4037,-3.9815,5.0677,-6.7139,-8.4040,9.5874,7.8433,13.2487,17.2251,17.6597,6.3676,7.5529,18.6476,17.9011,8.7380,7.7537
578.1250,5.5198,1.7298,4.6197,2.6615,0.7794,5.4698,-2.0642,-1.3339,9.4163,8.0422,10.3560,14.6179,16.8916,9.6214,7.7898,17.3796,15.7940,6.9893,9.8672
582.0312,5.0769,1.5571,10.3529,8.2773,4.8935,3.6410,2.8911,5.9284,8.3218,7.4399,6.5624,11.6691,14.9575,11.9831,8.4460,15.9105,13.2700,5.1427,10.3540
585.9375,3.6849,1.3896,13.2903,12.1961,7.6024,0.3808,6.6730,11.3501,6.2667,5.9815,2.9589,8.8956,12.2547,12.9493,8.7311,14.3292,10.7325,3.4587,9.3115
589.8438,1.6820,1.1366,12.8311,13.3172,8.4659,-3.2933,7.9741,13.4240,3.4152,3.7361,0.1974,6.3836,9.0735,12.5665,7.5696,12.0813,8.3277,1.8976,7.1801
593.7500,-0.5075,0.6108,9.3911,11.1621,7.4831,-6.4057,6.3834,11.8482,0.0663,0.8439,-1.7957,3.8582,5.5477,11.2754,4.3267,8.4537,5.9546,0.2562,4.4781
597.6562,-2.5452,-0.4363,4.1299,6.2019,5.1036,-8.2447,2.6425,7.6478,-3.4281,-2.4512,-3.6343,0.9469,1.7557,9.5700,-0.6613,3.2346,3.4210,-1.6261,1.5950
601.5625,-4.2188,-2.2105,-1.6116,-0.2116,2.0700,-8.5483,-1.7730,2.6253,-6.7154,-5.7341,-5.9614,-2.5397,-2.1321,7.7039,-6.1424,-2.8982,0.6334,-3.7345,-1.2707
605.4688,-5.3687,-4.7205,-6.8612,-6.3481,-0.8755,-7.5923,-5.4984,-1.5676,-9.4653,-8.4302,-8.9539,-6.4664,-5.7868,5.6339,-10.5867,-8.5402,-2.2906,-5.8866,-4.0525
609.3750,-5.8235,-7.6474,-11.2700,-10.8144,-3.2855,-6.0995,-7.9964,-4.2033,-11.3939,-9.9648,-12.1587,-10.4243,-8.8059,3.2108,-12.9945,-12.2045,-5.0426,-7.8468,-6.7263
613.2812,-5.4462,-10.3380,-14.9810,-13.1092,-5.1409,-4.9535,-9.6736,-5.6560,-12.3096,-10.0164,-14.7408,-13.9058,-10.9073,0.4470,-13.3419,-13.0684,-7.2529,-9.4475,-9.2601
617.1875,-4.2749,-11.9986,-18.2558,-13.7253,-6.7452,-4.8178,-11.3421,-6.9254,-12.1716,-8.7056,-15.9616,-16.4878,-12.1014,-2.3617,-12.3954,-11.3822,-8.6570,-10.6362,-11.6148
621.0938,-2.6206,-12.0564,-21.1394,-13.7677,-8.4499,-5.8431,-13.4416,-8.8605,-11.1216,-6.5791,-15.5747,-17.9290,-12.7078,-4.7647,-11.0700,-8.3001,-9.2184,-11.4358,-13.7564
625.0000,-0.9914,-10.5158,-23.3941,-14.3298,-10.3900,-7.6364,-15.6126,-11.6023,-9.4596,-4.3750,-13.9111,-18.1668,-13.1741,-6.4445,-9.8173,-5.2500,-9.1524,-11.8714,-15.6468
628.9062,0.1530,-8.0703,-24.7230,-15.9801,-12.3994,-9.5347,-16.9487,-14.5777,-7.5648,-2.7017,-11.6421,-17.2605,-13.7953,-7.4442,-8.4741,-3.2213,-8.8382,-11.9271,-17.2190
632.8125,0.6554,-5.8204,-25.0873,-18.5968,-14.1439,-11.0404,-16.7487,-16.9745,-5.7950,-1.8186,-9.4089,-15.3418,-14.5089,-8.1481,-6.6355,-2.3802,-8.6507,-11.5593,-18.3744
636.7188,0.7199,-4.6857,-24.8434,-21.5460,-15.3511,-12.1431,-15.1909,-18.3035,-4.4103,-1.6265,-7.5564,-12.5987,-14.9093,-9.0054,-4.2231,-2.1971,-8.7764,-10.7423,-19.0151
640.6250,0.7040,-4.8425,-24.5520,-24.0117,-15.9513,-13.2798,-13.3832,-18.6288,-3.5437,-1.8303,-6.1038,-9.2828,-14.4854,-10.1709,-1.7791,-1.9494,-9.0979,-9.5041,-19.0842
644.5312,0.7861,-5.5797,-24.5582,-25.2610,-16.0189,-14.8928,-12.6818,-18.3303,-3.2145,-2.1367,-4.9126,-5.7089,-12.9373,-11.3124,-0.2399,-1.2514,-9.2156,-7.9309,-18.5627
648.4375,0.7729,-5.7450,-24.6331,-24.7629,-15.5735,-16.8427,-13.7195,-17.6302,-3.3607,-2.3632,-3.8973,-2.2327,-10.3705,-11.7295,-0.3408,-0.2788,-8.6232,-6.1558,-17.4094
652.3438,0.2302,-4.5606,-23.9660,-22.2284,-14.4265,-18.1164,-15.8356,-16.2899,-3.8665,-2.4390,-3.1285,0.7919,-7.2479,-10.7350,-2.0875,0.4213,-6.9720,-4.3505,-15.4961
656.2500,-1.1235,-2.2813,-21.5773,-17.6805,-12.2418,-17.1757,-17.3570,-13.7492,-4.5754,-2.3674,-2.7767,3.0655,-4.1385,-8.0791,-4.6820,0.3668,-4.2941,-2.7178,-12.6280
660.1562,-3.0521,-0.1967,-16.9356,-11.5676,-8.8168,-12.8983,-16.6019,-9.6280,-5.2962,-2.2195,-2.9582,4.4031,-1.4363,-4.1632,-6.9704,-0.4842,-1.0557,-1.4568,-8.6864
664.0625,-4.7732,0.1216,-10.4011,-4.8030,-4.4001,-5.5961,-12.9652,-4.2219,-5.8173,-2.1564,-3.5985,4.7948,0.7712,0.0839,-8.1137,-1.6700,2.0123,-0.6809,-3.8321
667.9688,-5.3610,-2.1050,-3.2004,1.4069,0.2097,2.6165,-7.3684,1.4024,-5.9458,-2.4011,-4.4083,4.4417,2.6178,3.6077,-8.0413,-2.5025,4.2334,-0.3223,1.3804
671.8750,-4.3489,-6.1787,3.0791,5.9659,3.9226,8.5546,-1.7693,5.8330,-5.5731,-3.1084,-4.9944,3.7243,4.2435,5.6943,-7.4103,-2.4923,5.2814,-0.1032,6.1007
675.7812,-2.1205,-10.1526,7.1900,8.3419,5.8729,9.5737,1.9497,8.0217,-4.7451,-4.1790,-5.0519,3.0695,5.6160,6.2631,-7.1296,-1.6476,5.2873,0.3549,9.4908
679.6875,0.2225,-11.8971,8.7256,8.7953,5.8956,5.1749,3.0008,7.8334,-3.6899,-5.1671,-4.5345,2.7480,6.5180,5.8468,-7.7722,-0.4672,4.6985,1.3011,11.0889
683.5938,1.4860,-10.3553,8.1620,8.2009,4.6571,-2.4387,1.9919,6.0931,-2.7538,-5.4145,-3.7020,2.7056,6.6994,5.2843,-9.2308,0.3512,3.9877,2.6312,11.0136
687.5000,1.1288,-6.1711,6.4722,7.5286,3.3272,-9.3659,0.3812,4.1090,-2.2406,-4.4008,-2.9966,2.5560,6.0803,5.2897,-10.7824,0.2964,3.4017,3.8412,9.8814
691.4062,-0.3636,-1.2798,4.5833,7.2824,2.9591,-12.1107,-0.4982,2.9731,-2.2171,-2.1240,-2.7940,1.7894,4.8569,6.1117,-11.4787,-0.7058,2.9057,4.2461,8.4811
695.3125,-1.7495,2.2567,2.9876,7.2424,3.9281,-9.5645,-0.1995,3.0470,-2.4124,0.7461,-3.1652,0.1065,3.4367,7.4397,-10.6286,-2.3027,2.3337,3.3747,7.3940
699.2188,-1.8096,3.3830,1.6685,6.6661,5.7434,-3.6304,0.7181,3.8945,-2.3222,3.0862,-3.8100,-2.3280,2.2368,8.5898,-8.1470,-3.9429,1.6106,1.3055,6.7637
703.1250,-0.1580,2.4201,0.2811,4.8118,7.3300,1.9337,1.1759,4.6276,-1.5189,3.8268,-4.2432,-4.9034,1.4640,8.8635,-4.6472,-5.1607,0.8611,-1.2962,6.3069
707.0312,2.4319,0.5111,-1.5913,1.4447,7.6029,3.7450,0.2633,4.4126,-0.0087,2.4752,-4.1455,-6.8813,1.0000,7.8961,-1.2588,-5.7462,0.3224,-3.5024,5.5099
710.9375,4.4148,-1.3578,-4.2501,-2.9884,6.0080,0.7033,-2.3171,2.8471,1.6120,-0.6353,-3.6480,-7.8263,0.4574,5.8237,0.7775,-5.7254,0.1371,-4.6283,3.8795
714.8438,4.3640,-2.9933,-7.7893,-7.5972,2.7553,-5.5835,-6.2289,0.0629,2.3796,-4.4928,-3.3117,-7.8532,-0.6110,3.1952,0.6264,-5.2032,0.2094,-4.6008,1.1438
718.7500,1.8375,-4.8449,-12.0441,-11.5147,-1.3369,-12.0202,-10.7679,-3.4063,1.5119,-7.8470,-3.7467,-7.5000,-2.4440,0.6946,-1.7002,-4.2043,0.2624,-3.9449,-2.6296
722.6562,-2.3007,-7.2725,-16.5514,-14.2824,-5.2502,-15.9815,-15.1434,-6.8484,-1.0234,-9.6999,-5.0890,-7.2917,-4.8688,-1.1696,-5.2130,-2.6385,0.0716,-3.3947,-6.9877
726.5625,-6.3056,-9.9070,-20.5799,-15.9333,-8.1867,-16.6960,-18.6185,-9.5720,-4.3164,-9.6317,-6.7212,-7.3018,-7.2768,-2.2391,-8.2913,-0.4236,-0.3098,-3.3962,-11.1321
730.4688,-8.4837,-11.6952,-23.3155,-16.7723,-9.8012,-15.2540,-20.5623,-11.0466,-6.9089,-7.8799,-7.5180,-7.0464,-8.8234,-2.6679,-9.4482,2.3116,-0.5345,-3.8407,-14.0885
734.3750,-8.0984,-11.6537,-24.1937,-17.0452,-10.1809,-13.4535,-20.5612,-11.0089,-7.6097,-5.2133,-6.5562,-5.8229,-8.7908,-2.7186,-8.1618,5.0929,-0.2044,-4.2051,-15.0215
738.2812,-5.7345,-9.7480,-23.2156,-16.7248,-9.6460,-12.4622,-18.6291,-9.5386,-6.2443,-2.6834,-3.8476,-3.2772,-6.9482,-2.5386,-5.2710,7.1665,0.7900,-3.9799,-13.6025
742.1875,-2.9275,-7.1572,-21.0068,-15.5306,-8.5095,-12.2606,-15.3603,-7.0559,-3.8240,-1.3036,-0.5550,0.2108,-3.7082,-2.0557,-2.6002,7.7857,2.1075,-3.0636,-10.2333
746.0938,-1.2848,-5.6198,-18.4915,-13.1304,-6.9218,-12.1148,-11.8002,-4.1819,-1.9608,-1.6995,1.5684,3.6283,0.0395,-1.0514,-1.9220,6.5989,3.1387,-1.8328,-5.9397
750.0000,-1.6108,-6.2656,-16.3181,-9.3769,-4.8546,-11.5092,-8.9693,-1.4732,-1.8527,-3.8172,1.2412,5.8886,3.3613,0.6495,-3.8406,3.9267,3.4479,-0.8472,-1.9206
753.9062,-3.5245,-8.7713,-14.4008,-4.4485,-2.2112,-10.6756,-7.2698,0.8488,-3.4935,-6.8424,-1.4598,6.4819,5.7432,3.0039,-7.3226,0.7330,3.1665,-0.4202,1.0276
757.8125,-5.7594,-11.4875,-11.9372,1.1476,1.0062,-10.2931,-6.1881,2.9988,-5.6541,-9.4631,-5.0248,5.7722,7.3030,5.7031,-10.2583,-1.7523,3.0165,-0.3823,2.8662
761.7188,-6.9387,-12.4927,-7.9782,6.6768,4.5615,-10.6857,-4.5864,5.4535,-6.6850,-10.4467,-7.3777,4.7328,8.6033,8.2813,-10.7762,-2.5996,3.8832,-0.2155,4.2077
765.6250,-6.3589,-10.8536,-2.2313,11.3293,7.9635,-11.3033,-1.4903,8.5641,-5.6269,-9.2840,-7.1632,4.3074,10.1759,10.3098,-8.4923,-1.6378,6.1808,0.5488,5.8029
769.5312,-4.3397,-7.2116,4.4435,14.3987,10.5943,-11.0374,3.1087,12.1818,-2.8767,-6.5315,-4.6116,4.8363,12.0730,11.5651,-4.8517,0.4636,9.4407,1.9677,7.9584
773.4375,-1.9763,-3.3016,10.2474,15.4706,11.9546,-9.2012,8.0012,15.5533,0.0551,-3.6005,-1.3882,5.9239,13.7601,12.0821,-2.2847,2.5551,12.4387,3.6260,10.2853
777.3438,-0.4887,-0.7789,13.3200,14.5810,11.9126,-6.3824,11.3107,17.6033,1.5421,-2.0536,0.4798,6.7892,14.4405,12.0803,-2.6901,3.6109,13.8277,4.9053,11.9517
781.2500,-0.5762,-0.2060,12.7718,12.2579,10.8155,-4.3751,11.5587,17.4788,0.9101,-2.7967,-0.1275,6.7995,13.5923,11.8184,-6.2351,3.2199,12.8927,5.3645,12.2540
785.1562,-2.1393,-0.8971,9.2133,9.3685,9.3640,-5.0578,8.5807,15.0445,-1.1687,-5.6425,-2.8158,5.7887,11.3366,11.4579,-11.2730,1.6738,9.9451,4.9426,11.0905
789.0625,-4.4745,-1.6568,4.4106,6.7782,8.2733,-8.9199,3.6842,11.0212,-3.2252,-9.5016,-6.1130,3.9740,8.3664,10.9991,-15.4297,-0.3747,6.1031,3.8554,8.9950
792.9688,-6.7504,-1.7966,0.2581,4.9586,7.8802,-14.3027,-1.0799,6.6570,-4.0887,-13.0499,-8.5868,1.6205,5.4809,10.3058,-17.1203,-2.4242,2.6145,2.3082,6.7193
796.8750,-8.4371,-1.6383,-2.2878,3.7605,7.9215,-18.0208,-4.0810,3.1103,-3.7340,-15.4207,-9.8128,-1.2031,3.0700,9.1975,-16.4700,-4.4318,0.1770,0.2951,4.6899
800.7812,-9.4407,-2.1479,-3.6339,2.5207,7.6462,-17.1119,-4.9644,0.9083,-3.2634,-16.4817,-10.5009,-4.5420,0.9379,7.5687,-15.0393,-6.6923,-1.3016,-2.3273,2.7626
804.6875,-9.9287,-4.0185,-5.0678,0.4909,6.2450,-10.6778,-4.6656,-0.1968,-4.0278,-16.5806,-11.7365,-8.2202,-1.3917,5.4873,-14.5914,-9.3863,-2.3848,-5.5418,0.4653
808.5938,-10.0431,-6.9377,-7.7038,-2.6279,3.3820,-0.6578,-4.6140,-0.8974,-6.5251,-16.0326,-13.9519,-11.5839,-4.1150,3.2344,-15.7916,-12.1557,-3.5035,-8.9121,-2.4558
812.5000,-9.7411,-9.6244,-11.5666,-6.3639,-0.4768,8.9840,-5.6907,-1.7571,-9.8878,-14.7936,-16.4362,-13.6324,-6.7751,1.2566,-17.7500,-14.0737,-4.5315,-11.6250,-5.6190
816.4062,-8.8766,-10.6319,-15.4338,-9.5940,-4.1636,14.2191,-7.6454,-2.7803,-12.3699,-12.5916,-17.7785,-13.5519,-8.4022,0.0296,-18.7020,-14.1045,-4.8593,-12.8817,-8.0659
820.3125,-7.4335,-9.3440,-17.5503,-11.0839,-6.3301,12.9556,-9.3424,-3.4198,-12.5271,-9.3981,-16.9286,-11.3206,-8.1243,-0.1308,-17.3201,-11.7863,-3.9102,-12.4100,-8.8023
824.2188,-5.7034,-6.4545,-16.7569,-10.1719,-6.1347,5.9950,-9.6282,-3.0239,-10.2793,-5.8310,-14.0899,-7.9332,-5.8415,0.7636,-13.7244,-7.6735,-1.7138,-10.7396,-7.4632
828.1250,-4.2402,-3.5926,-13.2997,-7.2053,-3.7215,-3.4973,-8.1989,-1.4213,-7.0964,-3.0940,-10.7688,-5.0149,-2.4750,2.3122,-9.4969,-3.1993,0.9033,-9.0129,-4.6432
832.0312,-3.5912,-2.3562,-8.7983,-3.4610,-0.2127,-11.6193,-5.8672,0.7665,-5.1421,-2.3973,-8.9035,-4.0021,0.4277,3.8282,-6.7035,0.0086,2.6830,-8.4037,-1.6497
835.9375,-3.9685,-3.3968,-5.3837,-0.5670,2.8034,-15.5404,-4.0558,2.3328,-5.9195,-4.1999,-9.6539,-5.3817,1.5144,4.5877,-6.6004,0.9583,2.6474,-9.4825,0.1688
839.8438,-5.0799,-6.1245,-4.5398,0.2686,4.0220,-14.5920,-3.8767,2.1248,-9.3082,-7.7942,-12.6655,-8.4606,0.3581,4.1307,-8.8794,-0.2358,0.6953,-11.9120,0.0967
843.7500,-6.2425,-9.1554,-6.3465,-1.2008,3.0097,-10.2202,-5.4209,-0.2692,-13.6245,-11.5566,-16.2898,-11.8018,-2.3678,2.4745,-11.9144,-2.5206,-2.3099,-14.6542,-1.6808
847.6562,-6.7304,-11.1475,-9.5518,-4.2366,0.3250,-4.9901,-7.7234,-4.2144,-16.6582,-13.7640,-18.5927,-14.0428,-5.3671,0.1240,-13.8013,-4.5806,-5.0272,-16.5540,-4.3335
851.5625,-6.1650,-11.4823,-12.3751,-7.5954,-2.8626,-1.2531,-9.3970,-8.3109,-17.0046,-13.5004,-18.4800,-14.5903,-7.5223,-2.1462,-13.4998,-5.5837,-6.3979,-16.9475,-6.9436
855.4688,-4.7320,-10.4288,-13.5152,-10.2114,-5.4102,-0.1474,-9.4903,-11.1004,-14.8445,-11.1156,-16.2396,-13.8001,-8.4994,-3.6416,-11.3785,-5.5484,-6.2098,-15.9499,-8.9822
859.3750,-3.1024,-8.7984,-12.7570,-11.6738,-6.7212,-1.3412,-8.0016,-11.7794,-11.7100,-7.9784,-13.2245,-12.5963,-8.7912,-4.0601,-8.8910,-5.1556,-5.1360,-14.2919,-10.4297
863.2812,-2.0961,-7.3913,-10.8719,-12.2469,-6.8779,-3.5153,-5.7476,-10.5029,-9.4455,-5.6959,-10.9607,-11.8277,-9.2212,-3.5954,-7.6523,-5.1930,-4.2523,-12.8427,-11.5361
867.1875,-2.2576,-6.5892,-8.9729,-12.4745,-6.3715,-5.2289,-3.7402,-8.1363,-9.0646,-5.2732,-10.2817,-11.7728,-10.2767,-2.7718,-8.5024,-6.0194,-4.3543,-12.1185,-12.4580
871.0938,-3.5579,-6.2765,-7.8043,-12.6747,-5.6612,-5.6743,-2.5389,-5.6575,-10.2245,-6.6818,-10.9928,-12.0623,-11.7233,-2.0947,-11.0849,-7.3742,-5.4949,-12.0477,-13.0533
875.0000,-5.3797,-6.0527,-7.4265,-12.6802,-4.8715,-4.9540,-2.0236,-3.6080,-11.5924,-9.0254,-12.1778,-12.0029,-12.7372,-1.7202,-14.1181,-8.5989,-7.0005,-12.0912,-12.9700
878.9062,-6.8046,-5.5522,-7.4399,-11.9950,-3.8096,-3.8133,-1.6965,-1.9228,-11.7982,-11.1337,-12.8629,-11.0588,-12.4448,-1.3525,-16.1451,-9.0781,-7.9175,-11.6119,-11.9412
882.8125,-7.0738,-4.6868,-7.5015,-10.2385,-2.2473,-3.0792,-1.2311,-0.1909,-10.3291,-12.2045,-12.5947,-9.1976,-10.5066,-0.4512,-16.3210,-8.6071,-7.5930,-10.2715,-10.0613
886.7188,-5.9971,-3.7041,-7.7014,-7.5462,-0.2269,-3.1937,-0.8199,1.8884,-7.8143,-12.1458,-11.6169,-6.9268,-7.3797,1.3578,-14.8236,-7.4844,-6.0343,-8.2424,-7.8397
890.6250,-4.0961,-3.0512,-8.4983,-4.6200,1.8511,-4.1134,-1.0429,4.1889,-5.5810,-11.4901,-10.6168,-5.0329,-4.1101,3.9211,-12.6991,-6.3191,-3.8575,-6.1415,-5.9817
894.5312,-2.3851,-3.1146,-10.2638,-2.3668,3.4316,-5.5624,-2.3556,6.1896,-4.8218,-11.0034,-10.2588,-4.1877,-1.7939,6.4984,-11.2492,-5.6935,-1.8913,-4.7398,-5.0207
898.4375,-1.8809,-3.9627,-12.7949,-1.3591,4.1510,-7.3626,-4.5958,7.3018,-5.9139,-11.2471,-10.7962,-4.6282,-1.0286,8.0889,-11.2982,-5.8721,-0.7020,-4.6089,-5.0215
902.3438,-3.0790,-5.2374,-15.2017,-1.4864,4.0709,-9.5256,-6.9096,7.2450,-8.2791,-12.3219,-11.9641,-6.0637,-1.6570,7.9835,-12.7352,-6.6880,-0.3269,-5.8796,-5.5342
906.2500,-5.6692,-6.2927,-16.3207,-2.0501,3.6183,-12.0064,-8.1999,6.2085,-10.7966,-13.8821,-13.1697,-7.8480,-2.9204,6.2144,-14.5893,-7.6416,-0.3559,-8.2203,-5.8406
910.1562,-8.6449,-6.5507,-15.4173,-2.2560,3.2643,-14.3311,-7.8108,4.7073,-12.4538,-15.3502,-13.8427,-9.3226,-3.9125,3.6033,-15.6081,-8.1541,-0.2778,-11.0182,-5.3676
914.0625,-10.7534,-5.8886,-12.7086,-1.7801,3.1633,-15.4757,-5.9743,3.2506,-12.8187,-16.1811,-13.7332,-10.1488,-4.0688,1.3383,-15.0143,-7.8612,0.1477,-13.6455,-4.0437
917.9688,-11.0551,-4.7963,-9.3288,-1.0275,3.0112,-14.2371,-3.6972,2.0547,-12.0947,-16.0392,-12.9943,-10.4434,-3.4324,0.3073,-12.9871,-6.8096,0.7299,-15.6582,-2.3876
921.8750,-9.3124,-4.1419,-6.7220,-0.8986,2.2358,-9.9706,-2.1483,0.9775,-10.8059,-14.8377,-12.0138,-10.6364,-2.5718,0.5860,-10.5562,-5.4512,0.9899,-16.8419,-1.2621
925.7812,-6.0369,-4.6280,-5.8396,-2.2038,0.4026,-3.2372,-1.9571,-0.3087,-9.3833,-12.6834,-11.1137,-11.1337,-2.2223,1.4065,-8.9521,-4.4182,0.4971,-17.1291,-1.4109
929.6875,-2.2152,-6.2630,-6.6567,-5.1047,-2.4305,4.1320,-2.8901,-2.0425,-7.9370,-9.8120,-10.3200,-12.0028,-2.8686,1.6376,-8.8159,-4.1860,-0.8310,-16.5040,-3.0394
933.5938,1.1126,-8.2220,-8.3073,-8.9402,-5.6476,9.7214,-4.1018,-4.1761,-6.3324,-6.5754,-9.3725,-12.9041,-4.5048,0.4882,-9.7903,-4.8177,-2.6659,-15.0047,-5.6893
937.5000,3.2133,-9.2542,-9.7230,-12.5529,-8.3537,11.6516,-4.7584,-6.3680,-4.4655,-3.4680,-7.9794,-13.3350,-6.6923,-2.0037,-10.7764,-5.9600,-4.4792,-12.8325,-8.4957
941.4062,3.8362,-8.4315,-10.3240,-14.9119,-9.8313,9.5065,-4.5858,-8.1489,-2.5025,-1.1147,-6.1446,-13.0271,-8.8533,-4.9961,-10.6959,-7.1108,-5.8784,-10.4563,-10.6802
945.3125,3.1953,-5.7701,-10.3043,-15.6519,-9.9033,4.5199,-3.9787,-9.1582,-0.8929,-0.1388,-4.3096,-12.2023,-10.5935,-7.3553,-9.2417,-7.9823,-6.8331,-8.5589,-11.9741
949.2188,1.8299,-2.3032,-10.3546,-15.2144,-8.9972,-1.0825,-3.6401,-9.3243,-0.1268,-0.9073,-3.1584,-11.4604,-11.8418,-8.3149,-7.0901,-8.6927,-7.6305,-7.7638,-12.7001
953.1250,0.4113,0.4735,-11.0688,-14.5286,-7.8898,-5.1933,-4.0539,-8.9066,-0.3985,-3.2609,-3.1723,-11.3294,-12.7265,-7.8659,-5.4243,-9.6154,-8.5885,-8.2561,-13.4563
957.0312,-0.4637,1.4448,-12.4800,-14.4392,-7.2935,-6.7467,-5.1800,-8.3858,-1.4057,-6.4086,-4.2283,-11.7780,-13.2985,-6.6501,-5.1015,-10.9644,-9.7304,-9.5480,-14.6116
960.9375,-0.4693,0.4722,-14.0418,-15.2198,-7.5163,-5.9854,-6.5578,-8.2462,-2.4452,-9.1250,-5.5563,-12.0696,-13.3311,-5.4685,-6.0566,-12.4246,-10.6609,-10.6027,-15.9598
964.8438,0.3155,-1.6261,-15.0255,-16.4284,-8.3574,-4.0377,-7.6831,-8.7366,-2.7803,-10.2324,-6.1480,-11.1420,-12.3801,-4.7598,-7.3626,-13.1524,-10.7563,-10.3354,-16.7762
968.7500,1.4087,-3.6620,-15.0010,-17.1581,-9.2571,-2.1718,-8.3302,-9.7105,-2.0852,-9.1692,-5.3959,-8.3292,-10.1048,-4.3947,-7.8973,-12.2383,-9.5658,-8.2453,-16.2559
972.6562,2.1049,-4.8167,-14.0442,-16.5231,-9.5908,-1.2107,-8.5787,-10.6339,-0.7048,-6.3438,-3.5505,-3.9655,-6.6419,-3.8941,-7.1335,-9.3735,-7.1631,-4.8034,-14.0458
976.5625,1.7796,-5.0456,-12.5545,-14.1174,-8.9513,-1.3769,-8.5710,-10.7864,0.4409,-3.0486,-1.6692,0.5695,-2.7531,-2.8737,-5.5005,-5.2595,-4.2038,-1.3209,-10.5195
980.4688,0.1761,-4.9324,-10.8827,-10.2276,-7.2999,-2.4956,-8.2542,-9.5889,0.2881,-0.9242,-1.0537,3.4750,0.4160,-1.3768,-4.0896,-1.4127,-1.6238,0.6804,-6.6111
984.3750,-2.4868,-5.1665,-9.1004,-5.7119,-4.9473,-4.2671,-7.3625,-6.9072,-1.8130,-1.2127,-2.5113,3.4991,1.8809,0.1458,-3.9484,0.6001,-0.1444,0.2640,-3.3215
988.2812,-5.6450,-6.0518,-7.1012,-1.6255,-2.3995,-6.3682,-5.6749,-3.1695,-5.7044,-4.1651,-5.8911,0.6773,1.3642,1.1779,-5.4702,0.0579,0.1176,-2.4083,-1.2138
992.1875,-8.6669,-7.3753,-4.9255,1.2241,-0.1458,-8.3775,-3.3294,0.7846,-10.4046,-8.8992,-10.1618,-3.6201,-0.4933,1.5416,-8.2571,-2.4549,-0.3027,-6.1431,-0.2064
996.0938,-11.0923,-8.6594,-3.0010,2.5767,1.5227,-9.7241,-0.9067,4.0553,-14.4946,-13.7683,-13.9458,-7.3825,-2.4153,1.5580,-11.4519,-5.3435,-0.5446,-9.3244,0.2464
1000.0000,-12.6904,-9.5432,-2.0487,2.7341,2.5925,-9.8535,0.8290,6.0469,-16.7194,-17.0481,-16.1590,-9.0013,-3.1362,1.8453,-14.2086,-6.8932,0.0744,-10.7172,0.7432
1003.9062,-13.3413,-9.9829,-2.6736,2.2884,3.2719,-8.5874,1.3648,6.6491,-16.5141,-17.6068,-16.3898,-8.0690,-2.0648,2.8930,-15.9531,-6.2165,1.6709,-10.0259,1.5731
1007.8125,-12.8914,-10.1513,-4.9293,1.7155,3.8265,-6.4080,0.7272,6.1505,-14.2022,-15.2682,-14.8824,-5.5039,0.3980,4.7076,-16.3467,-3.6895,3.7363,-7.9323,2.6044
1011.7188,-11.1529,-10.1776,-8.1910,1.0686,4.3873,-4.3538,-0.5962,4.9713,-10.7895,-10.7621,-12.2523,-2.9749,3.0583,6.7776,-15.1606,-0.6434,5.4212,-5.6430,3.4317
1015.6250,-8.0863,-9.9793,-11.4556,-0.0361,4.8408,-3.4500,-2.0344,3.4063,-7.4781,-5.3531,-9.1878,-1.9866,4.5361,8.3787,-12.3209,1.4502,5.9841,-4.2369,3.6363
1019.5312,-4.0344,-9.3333,-13.8732,-2.1142,4.8773,-3.9776,-3.3143,1.5418,-5.1518,-0.3597,-6.2940,-3.1319,3.9572,9.0192,-8.1572,1.7791,5.1591,-4.1665,2.9890
1023.4375,0.2119,-8.1075,-15.1504,-5.3655,4.1859,-5.1150,-4.5476,-0.6291,-4.0740,3.2400,-4.0571,-5.8715,1.3844,8.7370,-3.5985,0.5224,3.2707,-5.1372,1.5191
1027.3438,3.6358,-6.4277,-15.5620,-9.3694,2.6938,-5.3397,-5.9705,-3.0165,-3.9034,5.0091,-2.8000,-8.8809,-2.2083,8.0695,0.0076,-1.3992,1.0754,-6.3592,-0.5152
1031.2500,5.4227,-4.6142,-15.6047,-13.1469,0.7032,-3.4827,-7.5685,-5.3381,-3.9677,5.0558,-2.5644,-10.7192,-5.3793,7.7343,1.5122,-2.9068,-0.5559,-6.9873,-2.6907
1035.1562,5.3395,-2.9325,-15.5768,-15.5854,-1.1739,0.2037,-8.9166,-7.2028,-3.6226,3.8959,-3.0018,-10.4631,-6.8464,8.2300,0.6783,-3.2867,-0.9614,-6.5147,-4.4924
1039.0625,3.8181,-1.3822,-15.3947,-15.9869,-2.2683,3.7726,-9.3948,-8.3113,-2.5235,2.2379,-3.4366,-8.0314,-6.0048,9.5961,-1.5471,-2.3922,0.0990,-4.9551,-5.4268
1042.9688,1.6815,0.2601,-14.7513,-14.4030,-2.1638,4.5105,-8.6339,-8.6119,-0.7226,0.7457,-3.1756,-4.1217,-3.1212,11.4444,-3.5172,-0.5266,2.3850,-2.7786,-5.1925
1046.8750,-0.3113,2.1355,-13.4461,-11.5421,-0.8951,0.6824,-6.8421,-8.2844,1.3920,-0.1676,-1.9345,0.1431,0.8447,13.2024,-3.9122,1.7998,5.2602,-0.6697,-3.8488
1050.7812,-1.8084,3.9655,-11.5980,-8.3125,1.0780,-6.9599,-4.7410,-7.5518,3.2415,-0.4571,-0.1047,3.6649,4.6765,14.4001,-2.6512,4.0447,7.8896,0.7688,-1.8585
1054.6875,-2.8900,4.9946,-9.5624,-5.2982,3.1067,-15.0027,-3.1234,-6.4596,4.2243,-0.4235,1.3673,5.7331,7.3865,14.8415,-1.0213,5.6928,9.5080,1.2457,0.0851
1058.5938,-3.7986,4.3567,-7.6256,-2.5047,4.6669,-18.9053,-2.3345,-4.7947,3.8851,-0.5443,1.4814,6.1929,8.5469,14.6058,-0.8511,6.2904,9.6944,0.8628,1.4068
1062.5000,-4.5988,1.6914,-5.7372,0.4750,5.5836,-15.5264,-2.0456,-2.2238,2.0820,-1.2159,-0.2077,5.3992,8.3580,13.9322,-3.2224,5.5555,8.5543,0.0294,1.9851
1066.4062,-5.0277,-2.3901,-3.5154,4.0121,6.0553,-5.1656,-1.4838,1.4211,-0.8806,-2.5211,-3.2455,4.0158,7.4613,13.0833,-7.5794,3.5534,6.7092,-0.7433,2.2515
1070.3125,-4.6407,-6.3645,-0.5539,8.0306,6.4832,8.2169,0.0360,5.8931,-4.2268,-4.1383,-6.4260,2.7519,6.6126,12.2548,-11.8770,0.8004,5.0507,-1.0616,2.9499
1074.2188,-3.1427,-8.4485,3.1769,11.9183,7.2107,18.8974,2.6301,10.4870,-6.8719,-5.4507,-8.3621,2.1299,6.3610,11.5366,-13.7344,-1.8483,4.3350,-0.7764,4.6722
1078.1250,-0.6579,-7.5272,7.1268,14.8117,8.3186,22.3857,5.7214,14.2521,-7.7748,-5.8157,-8.1587,2.3476,6.8557,10.8989,-11.8839,-3.5407,4.8016,0.0417,7.4454
1082.0312,2.2595,-3.8203,10.3252,16.0589,9.5745,17.7731,8.3258,16.3606,-6.3661,-4.8685,-5.8213,3.2577,7.8333,10.1907,-6.9913,-3.8342,6.0266,1.2429,10.6379
1085.9375,4.8910,1.1412,11.8277,15.5577,10.5511,8.0475,9.5524,16.4413,-2.8429,-2.7120,-2.2019,4.4556,8.7682,9.1718,-1.3216,-2.9171,7.1218,2.7418,13.2598
1089.8438,6.7271,5.2682,11.1890,13.7694,10.8370,-1.7533,9.0214,14.7112,1.8495,0.1045,1.4513,5.4440,9.1165,7.6078,2.5425,-1.4841,7.2049,4.5498,14.4864
1093.7500,7.7170,7.0056,8.6845,11.4280,10.2272,-7.3585,6.9987,11.8457,6.3871,2.8106,4.0793,5.8319,8.5627,5.4164,3.1352,-0.3174,5.8994,6.6628,14.0917
1097.6562,8.2478,6.1516,5.1683,9.1518,8.7997,-7.3294,4.2374,8.6618,9.6314,4.7379,5.2455,5.5063,7.1789,2.7980,0.8424,0.1807,3.5866,8.8886,12.5360
1101.5625,8.8838,3.9356,1.6645,7.1891,6.8508,-3.2481,1.6502,5.7758,11.1074,5.5895,5.2435,4.7110,5.4287,0.2524,-2.4527,0.2121,1.2546,10.7687,10.6677
1105.4688,10.0295,2.3053,-1.0687,5.4180,4.7400,1.8237,-0.0283,3.4004,11.1523,5.5334,4.8789,3.9779,3.9992,-1.5658,-4.5252,0.4222,0.0197,11.7076,9.2321
1109.3750,11.7165,2.8265,-2.7741,3.5497,2.7380,5.4079,-0.4851,1.3711,10.6669,5.0889,5.0580,3.9132,3.5148,-2.1097,-4.0389,1.4522,0.5784,11.2858,8.4868
1113.2812,13.6184,5.8241,-3.6347,1.3865,0.9643,6.8299,0.0781,-0.6249,10.6210,4.8713,6.3713,4.9186,4.2551,-1.1874,-1.1563,3.4886,2.8894,9.5845,8.1434
1117.1875,15.2680,10.2481,-3.9899,-1.0098,-0.5624,6.9968,1.0288,-2.7496,11.5855,5.3252,8.8415,6.9841,6.0195,0.9445,2.7342,6.0989,6.2407,7.2987,7.6456
1121.0938,16.3366,14.3245,-4.0161,-3.3024,-1.8129,7.2020,1.5679,-4.8181,13.5270,6.5625,11.9308,9.6738,8.2208,3.6987,5.9091,8.4631,9.6311,5.5151,6.5913
1125.0000,16.8164,16.5933,-3.5626,-4.9972,-2.6714,8.0081,1.1052,-6.3271,15.9312,8.3630,14.7966,12.3265,10.1680,6.4127,7.2524,9.8599,12.2252,5.2232,5.0281
1128.9062,17.0046,16.7177,-2.2420,-5.6335,-2.9664,9.0037,-0.4134,-6.7098,18.1309,10.3074,16.6749,14.3612,11.3827,8.5912,6.7376,10.0979,13.6289,6.8064,3.4395
1132.8125,17.2988,15.5895,0.2704,-4.9793,-2.6052,9.4251,-2.4227,-5.6788,19.6215,11.9572,17.2025,15.5050,11.7600,9.9992,5.2678,9.6125,13.8772,9.7944,2.4283
1136.7188,17.9130,14.6804,3.8946,-3.1720,-1.7203,8.9638,-4.0028,-3.4549,20.1917,12.9913,16.5093,15.8054,11.4802,10.5817,4.0507,9.1536,13.2171,13.0257,2.2913
1140.6250,18.6700,15.0388,7.9695,-0.7448,-0.7106,8.0306,-4.3902,-0.7312,19.8346,13.2472,15.0325,15.4293,10.7414,10.3069,3.8952,9.2536,11.8751,15.1381,2.7467
1144.5312,18.9942,16.5388,11.3742,1.4975,-0.1117,7.2974,-3.4489,1.6241,18.5482,12.6781,13.1686,14.4035,9.5094,9.0727,4.7885,9.8100,9.9612,15.1290,2.9947
1148.4375,18.1313,17.8388,12.9284,2.7380,-0.3470,6.9781,-1.7937,2.9630,16.1865,11.2777,10.9851,12.4926,7.4755,6.7578,5.9204,10.0632,7.5257,12.6972,2.1025
1152.3438,15.5024,17.0865,11.8881,2.4521,-1.5006,6.5098,-0.4508,3.1215,12.4822,9.0357,8.1836,9.3183,4.2643,3.3720,6.0910,9.0021,4.6573,8.2312,-0.4885
1156.2500,11.0257,12.9724,8.2913,0.6176,-3.2599,4.9319,-0.2407,2.4080,7.2446,5.9595,4.3501,4.6507,-0.2459,-0.8202,4.2824,5.9661,1.5000,2.5172,-4.6138
1160.1562,5.2403,5.5404,2.9696,-2.2785,-5.0824,1.6634,-1.2663,1.3467,0.6255,2.1518,-0.6674,-1.3219,-5.7214,-5.3196,0.1373,1.0792,-1.8385,-3.6101,-9.3992
1164.0625,-0.8350,-3.6932,-2.7815,-5.4501,-6.4970,-2.9379,-2.8412,0.3601,-6.7090,-2.1054,-6.5007,-7.9287,-11.4368,-9.5601,-5.8428,-4.7478,-5.3880,-9.4677,-13.6378
1167.9688,-6.0494,-12.3651,-7.7085,-8.1369,-7.3605,-7.6596,-3.9121,-0.4055,-13.6325,-6.3260,-12.3039,-14.2077,-16.5673,-13.1165,-12.4409,-10.2458,-9.2939,-14.5179,-16.3272
1171.8750,-9.5151,-18.2943,-11.0409,-9.8845,-7.9116,-11.0780,-3.7110,-1.0328,-18.8695,-9.8989,-17.0838,-19.2418,-20.5098,-15.8091,-18.1433,-14.3812,-13.6258,-18.2685,-17.0760
1175.7812,-10.8821,-20.3849,-12.6884,-10.6627,-8.5879,-12.2871,-2.2288,-1.6532,-21.4626,-12.2654,-20.1300,-22.4536,-23.0247,-17.6373,-21.6712,-16.7622,-18.1220,-20.2595,-16.1747
1179.6875,-10.3944,-18.9857,-13.1598,-10.8025,-9.7221,-11.2578,-0.2306,-2.3103,-21.1947,-13.1286,-21.3028,-23.7271,-24.1381,-18.6097,-22.4290,-17.6413,-22.0705,-20.2255,-14.3306
1183.5938,-8.7392,-15.5989,-13.2968,-10.8213,-11.3082,-8.7164,1.1694,-2.9800,-18.7500,-12.5958,-21.0342,-23.3451,-23.9294,-18.6175,-20.7067,-17.5678,-24.4743,-18.3542,-12.2656
1187.5000,-6.7816,-12.1538,-13.9559,-11.2290,-12.9824,-5.7667,1.0873,-3.7046,-15.4976,-11.1639,-20.0761,-21.8285,-22.4118,-17.4692,-17.5547,-16.9574,-24.4722,-15.4301,-10.4330
1191.4062,-5.2965,-10.2248,-15.7307,-12.3663,-14.2263,-3.5329,-0.7397,-4.6827,-12.9616,-9.5369,-19.1538,-19.7729,-19.6175,-15.0785,-14.3703,-15.8701,-21.7982,-12.6845,-8.9933
1195.3125,-4.7765,-10.5268,-18.7537,-14.2860,-14.6620,-2.9079,-3.9328,-6.1804,-12.2107,-8.3468,-18.7061,-17.7219,-15.8122,-11.6706,-12.3469,-14.1144,-17.0057,-11.3437,-7.9960
1199.2188,-5.3475,-12.8288,-22.6044,-16.6852,-14.2596,-4.3203,-7.7607,-8.2880,-13.4619,-7.9194,-18.8018,-16.0628,-11.6299,-7.8409,-12.0042,-11.5571,-11.2987,-12.0789,-7.5663
1203.1250,-6.7870,-16.2209,-26.3705,-18.9281,-13.3344,-7.4964,-11.5132,-10.7055,-16.0879,-8.2008,-19.2180,-14.9395,-7.9578,-4.3959,-13.0052,-8.3897,-6.0432,-14.6645,-7.9159
1207.0312,-8.6260,-19.5459,-28.9067,-20.2126,-12.3462,-11.4068,-14.7451,-12.7626,-19.0007,-8.8726,-19.5970,-14.2189,-5.5870,-2.0489,-14.3560,-5.1534,-2.2206,-18.0539,-9.1584
1210.9375,-10.3048,-21.7997,-29.2564,-19.8793,-11.6272,-14.6597,-17.3039,-13.7305,-21.1785,-9.5691,-19.6028,-13.5686,-4.8366,-1.1431,-14.9164,-2.5122,-0.1163,-20.8566,-11.0838
1214.8438,-11.3409,-22.3795,-27.0775,-17.7498,-11.2029,-16.3204,-19.1998,-13.2547,-22.0400,-10.0497,-19.0301,-12.6543,-5.4071,-1.5547,-13.9835,-0.9364,0.6158,-21.9653,-13.1072
1218.7500,-11.4562,-21.1525,-22.8468,-14.3090,-10.8062,-16.6725,-20.4393,-11.6197,-21.5008,-10.2242,-17.8536,-11.3670,-6.5748,-2.8058,-11.6547,-0.5021,0.5942,-21.0063,-14.4882
1222.6562,-10.6270,-18.3873,-17.6869,-10.5765,-10.0687,-17.2242,-20.9228,-9.6347,-19.7663,-10.0464,-16.2158,-9.9342,-7.6104,-4.2972,-8.7694,-0.9106,0.2991,-18.4004,-14.7117
1226.5625,-9.0535,-14.6185,-12.8677,-7.6769,-8.7695,-19.6504,-20.4470,-8.1857,-17.0851,-9.3978,-14.3616,-8.8158,-8.1548,-5.5186,-6.4533,-1.6775,-0.1480,-15.0510,-13.7808
1230.4688,-7.0875,-10.5045,-9.2443,-6.3118,-6.9899,-24.2000,-18.8065,-7.7271,-13.6721,-8.1006,-12.5454,-8.4268,-8.3217,-6.1496,-5.5150,-2.3546,-0.9179,-11.8763,-12.2049
1234.3750,-5.1631,-6.7093,-6.9581,-6.4293,-5.0798,-28.7506,-15.9573,-8.0421,-9.8383,-6.0941,-10.9565,-8.8605,-8.4914,-6.0590,-6.0462,-2.6700,-2.2087,-9.4512,-10.6697
1238.2812,-3.7478,-3.8081,-5.5741,-7.2928,-3.4512,-29.5212,-12.1752,-8.4220,-6.1634,-3.6638,-9.7047,-9.8062,-8.9649,-5.2680,-7.4575,-2.5630,-3.9837,-7.9107,-9.5967
1242.1875,-3.2867,-2.2022,-4.5446,-7.9228,-2.3233,-23.3787,-8.1181,-8.1344,-3.4858,-1.5263,-8.8658,-10.7288,-9.7192,-3.9258,-8.9158,-2.1616,-5.8858,-7.0928,-8.8868
1246.0938,-4.0983,-2.0375,-3.6757,-7.6528,-1.5789,-10.3783,-4.7038,-6.8657,-2.6130,-0.6328,-8.5400,-11.1922,-10.4096,-2.2876,-9.8923,-1.7480,-7.3743,-6.7647,-8.0259
1250.0000,-6.2221,-3.1496,-3.2805,-6.4762,-0.8330,5.3162,-2.7963,-4.8639,-3.8877,-1.7291,-8.8503,-11.0994,-10.5776,-0.6512,-10.4592,-1.7027,-7.9876,-6.7711,-6.4806
1253.9062,-9.2895,-5.0785,-3.9257,-4.9890,0.3103,17.1438,-2.8145,-2.7271,-6.8906,-4.8927,-9.8516,-10.6797,-9.8965,0.7616,-11.1428,-2.3905,-7.5627,-7.0355,-4.1135
1257.8125,-12.5293,-7.1850,-5.9669,-3.9851,1.9652,19.7416,-4.4737,-1.0228,-10.5138,-9.3276,-11.3943,-10.2350,-8.2918,1.9223,-12.4441,-3.9836,-6.2850,-7.4604,-1.3258
1261.7188,-14.9771,-8.8565,-9.2027,-3.9639,3.8247,12.2208,-6.8452,-0.0053,-13.4076,-13.5841,-13.0493,-9.8373,-5.8961,3.0148,-14.3678,-6.2950,-4.5492,-7.8327,1.1743
1265.6250,-15.8471,-9.7263,-12.8812,-4.8415,5.2848,-1.0994,-8.7554,0.4111,-14.5658,-16.1408,-14.1885,-9.2093,-2.9236,4.3040,-16.2951,-8.7422,-2.7350,-7.8273,2.8221
1269.5312,-14.9027,-9.8049,-16.0397,-6.0114,5.7809,-13.1610,-9.3339,0.4752,-13.7255,-16.0816,-14.2257,-7.8914,0.4075,5.9103,-17.3001,-10.5158,-1.0428,-7.1291,3.5539
1273.4375,-12.6260,-9.4495,-17.9389,-6.6893,5.1360,-18.3510,-8.4078,0.3993,-11.3892,-13.5348,-12.9147,-5.5936,3.8455,7.6377,-16.7036,-10.9119,0.5102,-5.6200,3.8168
1277.3438,-10.0650,-9.1784,-18.3250,-6.3237,3.7002,-15.7093,-6.5172,0.2922,-8.5079,-9.6535,-10.5386,-2.4941,7.0187,8.9972,-14.5026,-9.6704,1.9490,-3.5278,4.2137
1281.2500,-8.4002,-9.4171,-17.4022,-4.8504,2.1784,-9.0919,-4.5585,0.2315,-6.0432,-6.1377,-7.8629,0.7279,9.4066,9.4521,-11.4047,-7.1401,3.1741,-1.4374,5.0202
1285.1562,-8.4198,-10.2981,-15.6057,-2.6826,1.2450,-4.2854,-3.2920,0.3491,-4.6302,-4.5063,-5.8376,3.1707,10.4540,8.7525,-8.4645,-4.1753,3.9176,-0.1091,5.9108
1289.0625,-10.1470,-11.5992,-13.3635,-0.4787,1.1876,-5.1090,-3.0195,0.8025,-4.4397,-5.4358,-5.1676,4.1503,9.8077,7.1491,-6.5701,-1.8090,3.8841,-0.1408,6.1067
1292.9688,-12.7906,-12.8307,-10.9870,1.1691,1.8050,-11.1338,-3.5953,1.6266,-5.1955,-8.4481,-5.9508,3.5554,7.5541,5.3312,-6.0888,-0.8587,2.9996,-1.6126,4.8804
1296.8750,-15.0487,-13.4177,-8.6892,1.9711,2.6119,-18.3981,-4.6937,2.5949,-6.2708,-12.0885,-7.5676,1.9178,4.3032,4.1040,-6.8366,-1.6330,1.5842,-3.9117,2.1042
1300.7812,-15.6408,-12.8996,-6.6434,2.0054,3.1936,-22.3660,-6.0922,3.2427,-6.8439,-14.5391,-8.9050,0.1583,1.0259,3.9845,-8.3093,-3.8438,0.2813,-5.8959,-1.5198
1304.6875,-13.8574,-11.0913,-5.0012,1.6019,3.4533,-20.9085,-7.7564,3.0944,-6.1478,-14.4280,-8.8499,-0.8661,-1.3171,4.9490,-9.9738,-6.7324,-0.2711,-6.3938,-4.7307
1308.5938,-9.9041,-8.1703,-3.8710,1.1152,3.5813,-15.2907,-9.6982,1.9602,-3.8064,-11.4899,-6.8458,-0.7848,-2.1918,6.4710,-11.4454,-9.3454,0.1567,-4.8255,-6.3483
1312.5000,-4.8835,-4.6696,-3.3060,0.7034,3.7885,-8.7681,-11.7671,0.0937,-0.1241,-6.7517,-3.2453,0.1036,-1.7357,7.8124,-12.5151,-10.8587,1.1901,-1.5963,-5.9103
1316.4062,-0.3886,-1.3512,-3.3260,0.2341,4.0308,-4.1370,-13.5782,-1.9250,3.8861,-2.1052,0.7537,0.9890,-0.6747,8.3894,-13.1051,-10.8436,2.0491,2.0213,-3.9178
1320.3125,2.1627,1.0373,-3.9324,-0.6154,3.9605,-2.1671,-14.6562,-3.5168,6.8735,0.5897,3.6201,0.9880,0.0858,8.0141,-13.2361,-9.3783,2.0732,4.5254,-1.5272
1324.2188,2.1776,2.0590,-5.0552,-2.0953,3.1749,-1.9199,-14.6871,-4.4216,7.8144,0.4550,4.2432,-0.3401,0.0070,6.9122,-13.0126,-6.9546,1.2529,5.0234,0.1366
1328.1250,0.2080,1.8062,-6.4368,-4.0914,1.5980,-2.3514,-13.6774,-4.7787,6.6172,-1.9031,2.5543,-2.6606,-0.6989,5.5588,-12.5665,-4.2125,0.3854,3.7727,0.6432
1332.0312,-2.2671,0.8978,-7.5601,-5.9863,-0.2882,-3.6110,-11.8961,-4.9060,4.2670,-4.6567,-0.3515,-4.9135,-1.0919,4.4613,-11.9319,-1.6263,0.6830,2.0630,0.5002
1335.9375,-3.5505,0.1968,-7.7521,-6.8049,-1.5638,-6.8154,-9.6523,-4.9389,2.3416,-5.7018,-2.7195,-5.7615,0.0249,4.0095,-10.9235,0.6819,3.0196,1.4666,0.8376
1339.8438,-2.5987,0.3527,-6.4936,-5.6277,-1.3109,-12.4679,-7.0982,-4.6043,2.1267,-3.8074,-3.0461,-4.2434,3.4099,4.4278,-9.1540,2.8865,7.2810,2.8926,2.7212
1343.7500,0.4081,1.4085,-3.7881,-2.0948,0.8785,-18.9379,-4.2250,-3.3257,3.8478,0.6660,-0.9087,-0.2980,8.8468,5.7856,-6.2671,5.1907,12.2624,6.0242,6.4929
1347.6562,4.1401,2.7217,-0.3326,3.2655,4.6294,-22.5162,-1.0578,-0.6285,6.5064,5.9012,2.7698,5.1296,15.0949,8.0019,-2.2918,7.5291,16.2322,9.4927,11.5035
1351.5625,6.8281,3.2905,2.6929,9.0913,8.9081,-19.4003,2.1179,3.4079,8.4456,9.5585,6.2017,10.4757,20.3859,10.8228,2.1197,9.4655,17.8448,11.6731,16.3608
1355.4688,7.2208,2.3396,4.1689,13.6506,12.4665,-8.4214,4.7155,7.9743,8.3128,9.9927,7.7053,14.2434,23.2131,13.8166,5.8003,10.3889,16.8481,11.5954,19.5335
1359.3750,5.2370,-0.1658,3.6256,15.5311,14.3618,7.4195,6.0812,11.7987,5.8387,7.0772,6.6070,15.6226,22.9826,16.4479,7.5505,9.9009,14.1474,9.4146,19.9853
1363.2812,1.9317,-3.3914,1.5237,14.2411,14.2951,21.8900,5.8824,13.7526,1.9695,2.1963,3.5536,14.7288,20.1847,18.2488,6.7616,8.1289,11.2072,6.1941,17.5485
1367.1875,-1.1781,-5.9977,-0.9602,10.4370,12.6451,28.6145,4.3902,13.4589,-1.6933,-2.5393,0.0748,12.3780,16.0328,19.0200,3.8056,5.7305,9.1898,3.2128,12.9196
1371.0938,-2.9873,-6.8126,-2.5311,5.6568,10.2403,24.5300,2.4366,11.5319,-3.7794,-5.3698,-2.3113,9.5811,11.8221,18.9398,-0.0759,3.5527,8.3785,1.2796,7.3476
1375.0000,-3.3234,-5.4422,-2.4188,1.6662,8.0088,11.6260,1.0214,9.2735,-3.8275,-5.6505,-2.8988,7.0713,8.3843,18.4836,-3.3614,2.1581,8.2091,0.4638,2.1814
1378.9062,-2.8198,-2.4759,-0.7179,-0.2970,6.6487,-4.0749,0.7792,7.9654,-2.4004,-3.9448,-2.0460,5.1008,5.8971,18.1630,-4.9963,1.5283,7.8124,0.3103,-1.5557
1382.8125,-2.2929,0.8254,1.7237,-0.0411,6.4128,-15.6711,1.6183,8.1488,-0.6475,-1.5083,-0.7975,3.5405,4.0579,18.2160,-4.8779,1.1441,6.6493,0.2772,-3.4495
1386.7188,-2.0980,3.1748,3.7529,1.5396,7.0545,-18.8300,2.7596,9.3123,0.3673,0.4492,-0.1814,2.1281,2.4236,18.4416,-3.8181,0.3791,4.8161,0.0499,-3.7669
1390.6250,-1.9253,3.8809,4.4301,2.9353,7.9560,-13.6394,3.1701,10.1935,0.1806,1.2899,-0.6398,0.6737,0.6955,18.3091,-3.0289,-1.0627,2.8826,-0.4317,-3.2825
1394.5312,-1.1561,3.1137,3.3728,2.7962,8.4158,-4.0228,2.1525,9.5417,-0.9443,1.0453,-1.9033,-0.8696,-1.1556,17.3120,-3.4399,-2.9545,1.4652,-1.1252,-2.8927
1398.4375,0.5108,1.7013,0.8260,0.6461,8.0035,4.6983,-0.2438,6.9125,-2.2650,0.1553,-3.2964,-2.4319,-2.8898,15.3680,-5.2180,-4.7014,0.8884,-1.9864,-3.1520
1402.3438,2.6431,0.6023,-2.4996,-2.8271,6.8172,8.5852,-3.2234,3.0208,-2.9926,-0.8988,-4.2078,-3.8582,-4.0467,13.0054,-7.7132,-5.7034,1.1510,-2.9045,-3.9514
1406.2500,4.1919,0.3652,-5.7098,-6.0783,5.4793,6.7198,-5.6600,-0.5761,-2.6857,-1.8369,-4.4176,-4.9077,-4.0315,11.1774,-9.8122,-5.6657,2.1391,-3.5746,-4.5458
1410.1562,4.0777,0.8642,-8.0303,-7.4803,4.8249,1.0419,-6.6900,-2.3072,-1.4575,-2.6158,-4.1307,-5.2655,-2.2878,10.7726,-10.4924,-4.6667,3.8353,-3.5231,-3.9689
1414.0625,1.8550,1.4315,-9.0487,-6.1763,5.4242,-5.2136,-6.1490,-1.4574,0.0593,-3.3258,-3.7766,-4.6339,1.4249,12.0956,-9.3076,-2.9956,6.3152,-2.3807,-1.6358
1417.9688,-1.9812,1.2859,-8.8266,-2.5470,7.2161,-9.4100,-4.6086,1.4294,0.9691,-4.0640,-3.7475,-2.8977,6.7558,14.6423,-6.6033,-0.9265,9.5383,-0.2472,2.2272
1421.8750,-6.2241,0.0024,-7.8237,1.9747,9.4972,-10.6696,-3.0013,4.8539,0.5088,-4.8595,-4.2173,-0.2603,12.6920,17.3360,-3.3865,1.3895,13.1397,2.1613,6.6162
1425.7812,-9.5444,-2.2297,-6.6414,5.6543,11.3010,-9.8208,-2.0625,7.1936,-1.5557,-5.6554,-5.0844,2.7701,17.8389,19.1040,-0.9029,3.8641,16.4408,3.7927,10.2607
1429.6875,-11.0564,-4.6881,-5.6953,7.3474,11.9458,-8.3998,-1.9217,7.5726,-4.7131,-6.3201,-6.0078,5.5768,20.9803,19.4489,-0.0841,6.3414,18.7179,3.8596,12.3022
1433.5938,-10.5526,-6.4737,-5.0017,7.0269,11.4036,-7.4668,-2.0837,6.2654,-7.8152,-6.6750,-6.5040,7.7022,21.6242,18.6546,-1.0899,8.5402,19.5517,2.3766,12.7016
1437.5000,-8.3673,-6.9401,-4.2241,5.6502,10.2529,-6.9911,-1.8014,4.4223,-9.5221,-6.5474,-6.1007,9.0116,20.1867,17.4964,-3.1707,10.1355,19.0039,0.2305,12.1094
1441.4062,-5.0739,-5.9706,-2.9693,4.4757,9.2524,-6.1136,-0.6036,3.3232,-8.9115,-5.8477,-4.5343,9.6447,17.6719,16.6455,-4.9657,10.9177,17.5009,-1.3162,11.3025
1445.3125,-1.2739,-3.9843,-1.1458,4.2636,8.8284,-4.0107,1.3537,3.6321,-5.9512,-4.6418,-1.9322,9.8031,15.0381,16.1684,-5.1565,10.9000,15.5257,-1.3965,10.5961
1449.2188,2.4208,-1.7050,0.8701,4.8515,8.8159,-0.7143,3.3318,5.0905,-1.5710,-3.1673,1.1329,9.5481,12.6627,15.4593,-3.1863,10.2931,13.3528,-0.0789,9.6495
1453.1250,5.3217,0.1536,2.3920,5.3384,8.6068,2.6882,4.4203,6.7807,2.7285,-1.7675,3.7968,8.7640,10.2522,13.6559,0.3399,9.3692,11.0079,1.6755,7.7904
1457.0312,6.7105,1.1290,2.8115,4.7176,7.5767,4.6130,4.0609,7.7272,5.5414,-0.7688,5.2393,7.3015,7.2292,10.2618,3.8394,8.3199,8.4341,2.6019,4.5990
1460.9375,6.0900,1.1000,1.9527,2.5323,5.4844,3.9175,2.3661,7.4254,6.1544,-0.3671,5.0470,5.1689,3.2925,5.5569,5.4925,7.1968,5.6900,1.8671,0.3088
1464.8438,3.5234,0.2580,0.1516,-0.8547,2.5919,0.5970,0.0504,5.9910,4.7861,-0.5795,3.4069,2.6041,-1.2583,0.5207,4.1843,5.9502,2.9955,-0.5047,-4.2632
1468.7500,-0.1941,-0.9658,-1.9772,-4.5038,-0.5264,-4.1967,-1.9677,3.9152,2.3847,-1.2722,1.0169,-0.0316,-5.6439,-3.6746,0.1480,4.5082,0.5978,-3.7318,-8.1825
1472.6562,-3.7245,-1.9810,-3.8996,-7.4481,-3.3007,-8.7732,-3.0446,1.6705,0.1355,-2.2217,-1.2393,-2.4401,-9.0432,-6.2674,-5.0615,2.8331,-1.4079,-6.7490,-10.8863
1476.5625,-5.7146,-2.1616,-5.3845,-9.1750,-5.3785,-11.7044,-3.0940,-0.5297,-1.0520,-3.1655,-2.6763,-4.4922,-10.9964,-7.2193,-9.2751,0.9370,-3.1233,-8.7091,-12.3384
1480.4688,-5.4014,-1.0577,-6.4561,-9.7601,-6.6310,-12.2922,-2.5395,-2.6814,-0.8539,-3.8307,-3.0590,-6.1667,-11.4975,-7.0686,-10.7367,-1.1101,-4.7015,-9.2339,-12.7793
1484.3750,-2.9583,1.3360,-7.1721,-9.6348,-7.0365,-10.5138,-2.0001,-4.7552,0.4437,-3.9674,-2.6273,-7.3936,-10.7729,-6.4701,-8.9186,-3.1533,-6.1285,-8.3800,-12.3367
1488.2812,0.6173,4.4046,-7.4542,-9.2081,-6.6078,-6.6797,-1.9173,-6.5152,2.1431,-3.4161,-1.9245,-7.9628,-9.0026,-5.7602,-4.7204,-4.9204,-7.1275,-6.4821,-10.8634
1492.1875,4.0100,7.0176,-7.1308,-8.6167,-5.4452,-1.2270,-2.3308,-7.5653,3.4373,-2.1982,-1.5398,-7.6086,-6.2527,-4.8376,0.0134,-6.0388,-7.2925,-4.0393,-8.1554
1496.0938,6.1956,7.9775,-6.1506,-7.7474,-3.8458,5.1385,-2.9052,-7.6000,3.7061,-0.5736,-1.8728,-6.2241,-2.6727,-3.4019,3.3714,-6.1393,-6.3720,-1.6658,-4.3614
1500.0000,6.8272,6.6393,-4.7601,-6.4615,-2.3129,11.1587,-3.1645,-6.6648,2.7294,0.9931,-2.9887,-4.0333,1.2590,-1.3416,4.1997,-5.0188,-4.4939,-0.0024,-0.2034
1503.9062,6.2236,3.3457,-3.4556,-4.8271,-1.3802,15.0535,-2.7970,-5.2193,0.7639,1.9675,-4.5926,-1.5686,4.7232,1.0260,2.4983,-2.7802,-2.1567,0.4873,3.2382
1507.8125,5.0314,-0.6463,-2.7135,-3.1831,-1.3321,15.1458,-1.8710,-3.9354,-1.5525,1.9288,-6.1401,0.5513,6.8778,3.0349,-0.7305,0.1388,0.0193,-0.2405,5.0711
1511.7188,3.8047,-3.7869,-2.6947,-2.0009,-2.0214,10.8517,-0.8509,-3.3537,-3.4588,0.7196,-7.0693,1.8873,7.3082,4.0109,-4.0418,3.0721,1.6051,-1.7266,5.0787
1515.6250,2.7568,-5.0751,-3.1611,-1.6446,-2.9400,3.3711,-0.3946,-3.6141,-4.4018,-1.4944,-7.0810,2.3074,6.2626,3.6402,-6.2191,5.3142,2.5248,-3.2255,3.7795
1519.5312,1.7912,-4.5962,-3.6779,-2.1858,-3.5244,-4.5559,-1.0096,-4.4181,-4.2855,-4.2588,-6.3289,1.9072,4.4593,2.1335,-6.7626,6.3075,2.9626,-4.1443,2.0043
1523.4375,0.7309,-3.3886,-3.9489,-3.3790,-3.4987,-9.8973,-2.7321,-5.2293,-3.4985,-6.9281,-5.3819,0.8287,2.5755,0.0940,-6.0145,5.7648,3.1000,-4.4186,0.3066
1527.3438,-0.4446,-2.7020,-4.0287,-4.7994,-3.0230,-10.9299,-5.0122,-5.5778,-2.6907,-8.8021,-4.9265,-0.8489,0.7790,-1.8134,-4.9058,3.7136,2.8814,-4.5391,-1.3570
1531.2500,-1.5221,-3.1373,-4.2559,-6.0633,-2.5612,-8.1911,-6.9171,-5.3011,-2.4161,-9.2996,-5.3534,-3.0578,-1.3504,-3.1983,-4.4577,0.4791,1.9769,-5.1743,-3.4553
1535.1562,-2.1717,-4.2627,-4.9832,-7.0156,-2.5810,-4.1196,-7.5960,-4.6145,-2.8524,-8.1614,-6.4866,-5.6079,-4.4490,-4.1083,-5.2606,-3.3832,-0.0333,-6.6465,-6.3835
1539.0625,-2.1565,-4.9853,-6.3330,-7.7991,-3.3067,-1.5554,-6.7787,-4.0100,-3.7578,-5.6243,-7.6638,-8.1374,-8.8139,-4.9558,-7.1664,-7.2108,-3.3727,-8.6493,-10.0418
1542.9688,-1.4826,-4.4249,-8.1705,-8.7700,-4.6793,-2.0353,-5.0043,-4.0471,-4.6799,-2.4582,-8.1585,-10.2511,-14.0598,-6.2634,-9.3452,-10.4019,-7.8489,-10.4380,-13.8157
1546.8750,-0.3957,-2.6655,-10.2858,-10.2940,-6.5003,-4.9679,-3.3963,-5.1223,-5.2689,0.2269,-7.6890,-11.7672,-19.2174,-8.3562,-10.6959,-12.5761,-12.8154,-11.3716,-16.9453
1550.7812,0.7520,-0.8303,-12.5948,-12.5137,-8.5962,-8.1853,-3.0636,-7.2893,-5.4955,1.3903,-6.6648,-12.8669,-23.1814,-11.1438,-10.4224,-13.6487,-17.3240,-11.4120,-18.9682
1554.6875,1.6518,-0.3995,-15.1594,-15.2046,-10.8527,-9.4610,-4.4683,-10.1899,-5.6514,0.5200,-5.9756,-13.9822,-25.1914,-14.0920,-8.4868,-13.7672,-20.3941,-11.1998,-19.8839
1558.5938,2.1001,-2.2396,-18.0011,-17.8107,-13.1084,-7.9681,-7.1612,-13.1373,-6.1629,-2.1077,-6.4363,-15.4561,-25.0509,-16.4046,-5.6916,-13.1485,-21.3008,-11.6281,-19.9451
1562.5000,1.9524,-6.0236,-20.8852,-19.6634,-15.0369,-4.7523,-10.0768,-15.3487,-7.3533,-5.5446,-8.2531,-17.2063,-23.0218,-17.3458,-3.3283,-11.9317,-19.7955,-13.2033,-19.2989
1566.4062,1.0538,-10.4426,-23.2990,-20.2790,-16.1693,-1.9969,-12.2139,-16.2475,-9.2950,-8.6359,-10.8730,-18.6555,-19.5621,-16.5558,-2.5585,-10.1589,-16.1935,-15.6385,-17.8175
1570.3125,-0.7427,-14.0413,-24.6909,-19.5674,-16.0875,-1.6442,-13.2503,-15.6930,-11.8011,-10.5862,-13.3226,-19.0111,-15.1405,-14.2003,-3.8463,-7.8975,-11.2914,-17.9617,-15.2794
1574.2188,-3.4316,-16.0663,-24.8044,-17.8226,-14.6618,-4.2850,-13.6606,-14.0003,-14.5099,-11.3006,-14.8007,-17.7289,-10.2244,-10.8733,-6.7313,-5.3921,-6.1247,-19.0632,-11.7403
1578.1250,-6.6693,-16.7377,-23.8351,-15.5017,-12.1563,-8.9339,-14.2434,-11.7235,-16.9868,-11.3073,-15.1197,-14.8523,-5.3597,-7.3096,-10.0517,-3.0935,-1.6457,-18.3190,-7.7553
1582.0312,-9.7160,-16.8066,-22.2628,-12.9423,-9.1174,-13.6750,-15.3841,-9.3269,-18.8071,-11.3262,-14.7088,-11.0107,-1.1784,-4.0858,-12.4883,-1.4976,1.5431,-15.9043,-4.2205
1585.9375,-11.6295,-16.8047,-20.4782,-10.2258,-6.1324,-16.6500,-16.5983,-6.9611,-19.6339,-11.7722,-14.2129,-7.0990,1.7331,-1.4957,-13.1508,-0.8855,3.2736,-12.6505,-1.9185
1589.8438,-11.6794,-16.6014,-18.5082,-7.2928,-3.6328,-16.7997,-16.7281,-4.5037,-19.3149,-12.5064,-14.0037,-3.8735,3.0285,0.3434,-11.9317,-1.1604,3.6851,-9.5951,-1.1059
1593.7500,-9.7756,-15.6124,-16.0832,-4.2312,-1.8668,-14.1028,-14.7136,-1.8398,-17.9704,-12.9718,-13.9558,-1.7172,2.7057,1.2745,-9.4931,-1.9181,2.9892,-7.5281,-1.4541
1597.6562,-6.6355,-13.4551,-13.0166,-1.5047,-1.0019,-9.4316,-10.4371,0.8300,-15.9976,-12.5913,-13.6229,-0.6685,1.0478,0.9973,-6.9322,-2.7156,1.3077,-6.7599,-2.3805
1601.5625,-3.5262,-10.4747,-9.5908,0.0993,-1.2015,-4.2766,-5.0461,2.9132,-13.9341,-11.1436,-12.6419,-0.5980,-1.5366,-0.7779,-5.2952,-3.3371,-1.2919,-7.1432,-3.4903
1605.4688,-1.6576,-7.6537,-6.6011,-0.1619,-2.5497,-0.4306,-0.4802,3.6868,-12.2091,-8.8808,-11.0381,-1.3442,-4.6341,-3.9934,-5.1448,-3.8503,-4.5920,-8.2313,-4.7759
1609.3750,-1.5374,-5.9221,-4.9527,-2.5038,-4.8609,0.4731,1.5450,2.7504,-10.9182,-6.3479,-9.2072,-2.7134,-7.8392,-7.9898,-6.3366,-4.4142,-8.0395,-9.4477,-6.4337
1613.2812,-2.6628,-5.3970,-5.0631,-6.3429,-7.5618,-2.3578,0.4775,0.3531,-9.7766,-4.0754,-7.6176,-4.4179,-10.7215,-11.6066,-8.0850,-5.0160,-10.7851,-10.2380,-8.4890
1617.1875,-3.7681,-5.1955,-6.5126,-10.4638,-9.8311,-8.1881,-2.7922,-2.6656,-8.3215,-2.3745,-6.4911,-6.1007,-12.8776,-13.6870,-9.3031,-5.3910,-12.0119,-10.2346,-10.5897
1621.0938,-3.5331,-4.0591,-8.2462,-13.5788,-10.9981,-14.5637,-6.4755,-5.3236,-6.2686,-1.3524,-5.7240,-7.5045,-14.1147,-13.7230,-9.1042,-5.2429,-11.3930,-9.4323,-12.1813
1625.0000,-1.3784,-1.3944,-9.2416,-14.9703,-10.9668,-18.0512,-8.8998,-7.0505,-3.8054,-1.0736,-5.0972,-8.6723,-14.6432,-12.2082,-7.2699,-4.6168,-9.3798,-8.2774,-12.9401
1628.9062,2.1115,2.0418,-9.1999,-14.8245,-10.3427,-15.8347,-9.3659,-7.9686,-1.6160,-1.6751,-4.5839,-9.9722,-15.0619,-10.4014,-4.4551,-4.1021,-7.0825,-7.5372,-13.0855
1632.8125,5.4074,4.3934,-8.7625,-14.0397,-10.0954,-7.4287,-8.3581,-8.6967,-0.5757,-3.2912,-4.4733,-11.8403,-16.0243,-9.5706,-1.9780,-4.6186,-5.7427,-7.9239,-13.2535
1636.7188,6.8151,3.8251,-9.0665,-13.6155,-10.9069,4.5559,-7.0494,-9.8050,-1.2635,-5.8155,-5.1772,-14.3596,-17.7231,-10.1621,-1.2271,-6.8347,-6.0682,-9.6377,-13.9555
1640.6250,5.4016,-0.2014,-10.9078,-13.9962,-12.6135,15.2841,-6.4803,-11.3043,-3.5653,-8.6940,-6.8407,-16.9749,-19.5417,-11.4384,-2.9423,-10.5737,-7.8112,-12.1152,-15.0134
1644.5312,1.5547,-6.3753,-14.0761,-14.7755,-14.1461,19.9659,-6.9484,-12.5417,-6.6147,-10.9679,-9.0577,-18.6057,-20.1911,-11.8629,-6.7496,-14.6440,-9.8528,-14.2043,-15.4455
1648.4375,-3.1531,-12.1357,-17.3298,-14.9471,-14.0798,16.3465,-7.9544,-12.5930,-9.1358,-11.6361,-10.9375,-18.1678,-18.3593,-10.0378,-11.2450,-17.2908,-10.7659,-14.7304,-13.9922
1652.3438,-6.7394,-15.0783,-19.0613,-13.5497,-11.5011,5.9750,-8.6633,-10.8914,-10.0279,-10.1786,-11.5309,-15.2156,-13.5334,-5.6307,-14.6409,-17.0631,-9.5547,-13.1432,-9.9945
1656.2500,-7.8088,-14.2804,-18.2359,-10.3075,-6.6616,-6.5566,-8.5180,-7.6577,-8.8865,-6.9305,-10.3571,-10.2892,-6.4724,0.2917,-15.6525,-13.5973,-6.1683,-9.8439,-4.0342
1660.1562,-6.2224,-10.7068,-14.9993,-5.8683,-0.9808,-16.0074,-7.5861,-3.8301,-6.1771,-3.0384,-7.6869,-4.7151,1.0177,5.7492,-14.1323,-7.8457,-1.5212,-5.9645,2.1569
1664.0625,-3.0729,-6.4735,-10.5577,-1.4885,3.6516,-19.1266,-6.4324,-0.5308,-2.9621,0.0450,-4.3863,0.0496,6.9325,8.8837,-11.0777,-1.6113,2.9734,-2.7162,6.5500
1667.9688,0.0017,-3.4918,-6.4111,1.6539,5.8847,-16.0191,-5.6432,1.5752,-0.3248,1.2867,-1.4136,3.1399,10.0593,8.9478,-8.0027,3.3296,6.0911,-0.7048,7.9459
1671.8750,1.7567,-2.3822,-3.4451,3.1026,5.6356,-9.5492,-5.3540,2.6086,1.1933,0.6199,0.7037,4.6376,10.5245,6.6891,-6.0508,6.0081,7.3440,0.3563,6.6756
1675.7812,1.9761,-2.3191,-1.4781,3.3346,4.0984,-3.3334,-5.1174,3.2878,1.8235,-1.0194,2.0788,5.3601,9.5818,3.9368,-5.3867,6.5361,7.1215,1.3597,4.4108
1679.6875,1.4451,-1.8180,0.4410,3.4023,3.0273,0.3093,-4.2200,4.3707,2.3358,-2.2154,3.2337,6.2388,8.7928,2.6469,-5.2327,5.7953,6.3842,3.1302,3.1715
1683.5938,1.3068,0.1252,3.1834,4.2179,3.7103,1.2070,-2.2463,6.1031,3.4751,-1.8787,4.5991,7.6895,9.1069,3.9317,-4.5013,4.8039,6.0984,5.7975,4.1161
1687.5000,2.2278,3.3035,6.7151,5.9107,6.2328,0.6672,0.4875,8.0294,5.4031,0.1197,6.0947,9.3504,10.3785,7.5624,-2.6021,4.1590,6.7158,8.6155,6.8417
1691.4062,3.9104,6.4067,9.8703,7.6656,9.4467,0.0345,2.9542,9.2643,7.4955,2.8599,7.0883,10.3188,11.5585,12.1458,0.1020,3.8395,7.9589,10.3433,9.6137
1695.3125,5.2577,7.8267,10.9254,8.1690,11.6412,-0.3650,3.9354,9.0316,8.6375,4.8887,6.7764,9.7084,11.3860,15.8289,2.4762,3.3954,9.0030,9.9563,10.3922
1699.2188,5.0796,6.6067,8.6568,6.4251,11.5148,-1.1706,2.7614,7.1314,7.8592,5.0435,4.7452,7.1804,9.1433,17.1554,3.3041,2.3346,8.9382,7.2605,8.0541
1703.1250,2.8760,2.9636,3.2310,2.4656,8.8900,-3.0500,-0.1852,4.0752,4.9355,3.1035,1.3395,3.1545,5.0560,15.6797,2.0343,0.4557,7.2596,3.0505,3.1078
1707.0312,-0.8075,-1.8571,-3.6535,-2.4853,4.7900,-5.7865,-3.5540,0.8542,0.5861,-0.1094,-2.4192,-1.3813,0.1774,12.0982,-0.8882,-2.0366,4.1338,-1.2664,-2.4988
1710.9375,-4.6747,-6.2240,-9.5117,-6.5204,0.8757,-8.2237,-5.7047,-1.4880,-3.8485,-3.2230,-5.3375,-5.3143,-4.1044,7.8931,-4.3004,-4.6418,0.3293,-4.3484,-6.3554
1714.8438,-7.4220,-8.8483,-12.2978,-7.9703,-1.4004,-9.1469,-5.6050,-2.2418,-7.0587,-5.0932,-6.6743,-7.8436,-6.6335,4.6839,-7.0148,-6.7981,-3.1206,-5.5095,-6.7979
1718.7500,-8.4474,-9.2391,-11.4048,-6.2192,-1.4408,-8.3595,-3.4050,-1.2185,-8.3585,-5.3985,-6.5029,-8.7025,-6.8562,3.5864,-8.4883,-8.1046,-5.3197,-4.9131,-3.6871
1722.6562,-8.0858,-7.7440,-7.8621,-1.9632,0.3753,-6.9982,-0.3200,1.2788,-7.8914,-4.7194,-5.5920,-8.1104,-4.8910,4.8421,-9.0647,-8.4386,-5.7770,-3.3116,1.6339
1726.5625,-7.2608,-5.2673,-3.6459,3.2126,3.0860,-6.7081,2.1185,4.6148,-6.3877,-4.1001,-4.8993,-6.5508,-1.3632,7.8479,-9.6727,-7.9446,-4.4574,-1.5417,7.1205
1730.4688,-6.8256,-2.8534,-0.5553,7.6589,5.7544,-8.2306,2.9711,8.0164,-4.6921,-4.3996,-5.0096,-4.5378,2.8507,11.5244,-11.1880,-6.9310,-1.6769,-0.1008,11.0624
1734.3750,-7.0448,-1.3100,0.6541,10.3928,7.9021,-10.5173,2.3728,10.7477,-3.3846,-5.8287,-5.8734,-2.4907,6.8518,14.8120,-13.8515,-5.7416,2.0284,0.9568,12.7848
1738.2812,-7.5337,-0.9736,0.3924,11.3340,9.5430,-11.1782,1.2817,12.2538,-2.6905,-7.9123,-6.9806,-0.7319,9.8783,17.0491,-17.0722,-4.6600,5.9782,1.7982,12.6714
1742.1875,-7.6369,-1.6637,-0.3688,10.9877,10.8745,-8.1117,0.6830,12.2681,-2.6313,-9.8227,-7.8089,0.4637,11.4130,18.0742,-19.7031,-3.8696,9.3953,2.4696,11.5901
1746.0938,-6.9388,-2.8351,-0.9424,9.8697,11.9026,-1.2227,0.8138,10.8597,-3.2000,-10.8256,-8.2092,0.8618,11.2559,18.0670,-20.6179,-3.4493,11.5124,2.7034,10.1583
1750.0000,-5.5447,-3.8750,-1.4138,8.0989,12.2885,7.0435,0.9687,8.3966,-4.3792,-10.5713,-8.4621,0.3395,9.5529,17.2776,-19.2713,-3.3673,11.7846,2.0233,8.3366
1753.9062,-3.9728,-4.4181,-2.4635,5.4246,11.5238,12.8779,0.0409,5.4260,-6.0088,-9.1281,-8.9932,-1.0168,6.7451,15.8316,-15.9633,-3.4625,10.1255,0.0777,5.5904
1757.8125,-2.7805,-4.5080,-4.7046,1.6235,9.3019,13.3428,-2.5657,2.5180,-7.6772,-6.8465,-9.9846,-2.8810,3.4229,13.7088,-11.6973,-3.4507,7.0026,-3.0335,1.4609
1761.7188,-2.2119,-4.4926,-8.0431,-3.0592,5.8137,8.2405,-6.2955,0.1349,-8.8112,-4.2075,-11.1851,-4.7878,0.1238,10.8635,-7.7273,-3.0146,3.2661,-6.6713,-3.8793
1765.6250,-2.0950,-4.6960,-11.5320,-7.7701,1.7608,0.3814,-9.5498,-1.4357,-8.9628,-1.7389,-12.0544,-6.3323,-2.8356,7.3706,-5.0273,-1.9920,-0.2396,-9.8814,-9.4802
1769.5312,-2.0106,-5.0783,-13.8171,-11.3320,-1.9267,-5.9604,-10.5196,-2.0908,-8.0910,0.0414,-12.1202,-7.3488,-5.3990,3.4950,-3.9383,-0.5781,-3.0601,-11.7994,-13.9837
1773.4375,-1.5712,-5.1372,-13.8631,-12.7766,-4.4853,-7.4473,-8.2338,-1.8978,-6.5976,0.7405,-11.2716,-7.9447,-7.6477,-0.3391,-4.1431,0.6198,-5.2530,-11.9946,-16.2594
1777.3438,-0.6134,-4.1684,-11.4786,-11.7907,-5.5929,-3.4687,-3.1654,-1.0784,-5.0476,0.2691,-9.7791,-8.3514,-9.5825,-3.6312,-4.9524,0.7971,-7.1543,-10.5726,-15.8993
1781.2500,0.7781,-1.7543,-7.3381,-8.8142,-5.3885,3.7063,2.9715,0.0261,-3.7629,-1.0306,-8.0567,-8.6886,-10.9522,-5.8870,-5.7283,-0.6026,-8.9444,-8.0216,-13.2845
1785.1562,2.3576,1.8384,-2.5627,-4.7667,-4.2842,10.3803,8.0891,1.0392,-2.6091,-2.4569,-6.3851,-8.8108,-11.2607,-6.6946,-6.2030,-3.4499,-10.3380,-4.9447,-9.2414
1789.0625,3.8069,5.6421,1.8055,-0.6080,-2.7281,13.5039,10.7209,1.6861,-1.1718,-3.2611,-4.8252,-8.3632,-9.9854,-5.8220,-6.5207,-6.8128,-10.6481,-1.8567,-4.5718
1792.9688,4.7786,8.4096,5.0994,2.9965,-1.0622,12.1426,10.5850,1.9236,0.7839,-3.0547,-3.3748,-7.0282,-6.9023,-3.3438,-6.9981,-9.3238,-9.2168,0.8723,0.2200
1796.8750,4.9389,9.2331,7.0009,5.7519,0.4896,7.6125,8.4730,1.9718,2.9259,-2.0534,-2.1980,-4.8026,-2.3272,0.2660,-7.7789,-9.8899,-5.9260,2.9709,4.8686
1800.7812,4.0720,7.9808,7.3602,7.5889,1.7727,2.4213,5.6420,2.1900,4.3801,-0.9709,-1.6798,-2.1072,2.8882,4.1738,-8.6279,-8.3330,-1.4222,4.2265,9.0884
1804.6875,2.2356,5.2945,6.1076,8.4684,2.6829,-1.2131,3.1313,2.8387,4.2228,-0.6024,-2.2051,0.3664,7.6292,7.4150,-9.0262,-5.5314,3.1240,4.5168,12.3852
1808.5938,-0.1472,2.1853,3.3584,8.2934,3.1968,-2.4174,1.3745,3.8627,2.1344,-1.3501,-3.8022,1.9882,10.9270,9.2431,-8.5198,-2.9229,6.5872,3.8808,14.1288
1812.5000,-2.3800,-0.4773,-0.4179,6.9729,3.3980,-1.8404,0.2259,4.8465,-1.2469,-2.9943,-5.9456,2.4984,12.2920,9.4265,-7.0887,-1.6420,8.4186,2.5434,13.8574
1816.4062,-3.7811,-2.2525,-4.3883,4.5582,3.4319,-1.0403,-0.7352,5.1985,-4.5568,-4.8440,-7.7222,2.1050,11.8144,8.3140,-5.2668,-1.8367,8.8053,0.8455,11.5927
1820.3125,-4.0186,-3.0737,-7.6216,1.3311,3.3917,-1.5252,-1.8627,4.4749,-6.4120,-6.1452,-8.3055,1.3252,10.0174,6.6213,-3.8945,-2.6132,8.3889,-0.8823,7.9256
1824.2188,-3.2747,-3.0031,-9.5091,-2.2272,3.2176,-3.9395,-3.2434,2.6514,-6.1514,-6.4659,-7.4349,0.6865,7.5809,5.0602,-3.6363,-2.6524,7.7734,-2.4123,3.7865
1828.1250,-2.1147,-2.0787,-10.0651,-5.5734,2.7055,-7.7286,-4.6834,0.1696,-4.1435,-5.8274,-5.5702,0.4724,5.0928,4.0269,-4.5712,-1.0990,7.1715,-3.6207,0.0277
1832.0312,-1.1343,-0.4102,-9.8859,-8.2664,1.6472,-11.3765,-5.8323,-2.2731,-1.4899,-4.5596,-3.6106,0.6350,2.9171,3.5156,-6.1366,1.8580,6.4046,-4.4347,-2.9387
1835.9375,-0.6233,1.5816,-9.7709,-10.0766,0.0178,-13.1009,-6.3637,-4.0615,0.6448,-3.0583,-2.3717,0.8739,1.1724,3.2599,-7.4820,5.0733,5.1943,-4.8134,-5.2438
1839.8438,-0.4746,3.0676,-10.2434,-10.9972,-1.9283,-11.7209,-6.1396,-4.9182,1.6257,-1.6515,-2.1766,0.7855,-0.2375,2.9605,-8.0179,7.1137,3.4833,-4.8146,-7.3618
1843.7500,-0.3852,3.0723,-11.2669,-11.1668,-3.7308,-7.3145,-5.2956,-4.9323,1.5098,-0.6394,-2.8198,-0.0043,-1.5715,2.4341,-7.8053,7.0485,1.5326,-4.6880,-9.7336
1847.6562,-0.1835,1.0219,-12.3141,-10.7464,-4.9283,-1.3240,-4.1948,-4.3755,0.7577,-0.3828,-3.8764,-1.7496,-3.1555,1.6175,-7.5273,4.8677,-0.2576,-4.8641,-12.4223
1851.5625,-0.0196,-2.7714,-12.7104,-9.8156,-5.2608,4.0110,-3.2476,-3.4608,-0.2187,-1.2571,-5.0839,-4.5032,-5.2176,0.4957,-8.0474,1.3300,-1.6363,-5.7580,-14.9782
1855.4688,-0.2663,-7.0776,-12.0150,-8.3395,-4.7428,6.6680,-2.6749,-2.2230,-1.3195,-3.4125,-6.4936,-8.0316,-7.6913,-0.9257,-9.8232,-2.5601,-2.6607,-7.4605,-16.5822
1859.3750,-1.1977,-10.2896,-10.2164,-6.2295,-3.5812,5.7959,-2.3587,-0.5945,-2.6686,-6.4897,-8.2903,-11.7710,-10.1086,-2.5523,-12.5332,-6.0449,-3.6062,-9.5245,-16.4011
1863.2812,-2.6898,-11.2545,-7.6667,-3.4669,-2.0203,2.0876,-1.9012,1.4100,-4.3006,-9.5542,-10.4469,-14.9035,-11.7025,-4.1044,-15.1494,-8.7779,-4.7091,-11.0467,-13.9926
1867.1875,-4.1760,-9.8755,-4.8427,-0.2134,-0.2292,-2.6409,-0.8896,3.5680,-5.9097,-11.4086,-12.5079,-16.5839,-11.7298,-5.1185,-16.4230,-10.6615,-5.9439,-11.0615,-9.5599
1871.0938,-4.9160,-7.0889,-2.0988,3.1764,1.7064,-6.4134,0.7927,5.5069,-6.8781,-11.1814,-13.6964,-16.2379,-9.8580,-5.1095,-15.5219,-11.6029,-7.0014,-9.0362,-3.9156
1875.0000,-4.4132,-4.2291,0.4552,6.2667,3.7245,-8.0296,2.8241,6.9166,-6.5762,-8.8535,-13.2918,-13.7801,-6.3764,-3.8250,-12.4817,-11.4455,-7.4672,-5.1608,1.8484
1878.9062,-2.7160,-2.2153,2.9053,8.7159,5.7353,-7.4526,4.5890,7.7582,-4.7287,-5.3686,-11.0312,-9.6243,-2.0735,-1.4258,-8.2333,-10.1283,-7.0591,-0.2464,6.8253
1882.8125,-0.4151,-1.1112,5.3516,10.3895,7.6226,-5.5105,5.5223,8.2919,-1.6028,-2.2014,-7.2740,-4.4894,2.1607,1.5400,-4.1905,-7.9034,-5.7567,4.6857,10.6332
1886.7188,1.6537,-0.3307,7.6846,11.3174,9.2685,-3.2203,5.4103,8.8690,2.0848,-0.6010,-2.8415,0.8661,5.7520,4.3680,-1.5931,-5.3736,-3.7604,8.8355,13.4215
1890.6250,2.8185,0.7053,9.4342,11.5137,10.5453,-1.2463,4.4320,9.6129,5.4626,-0.9419,1.3478,5.8198,8.5994,6.4923,-0.9245,-3.2600,-1.3501,11.7981,15.5328
1894.5312,2.8605,1.9840,9.8054,10.8060,11.2597,0.1738,2.9200,10.2122,7.8165,-2.5640,4.6178,9.9009,10.8785,7.6716,-1.7007,-2.0280,1.2289,13.4255,17.0458
1898.4375,2.0470,2.8423,7.9527,8.8435,11.1115,0.9012,1.0443,9.9991,8.7699,-4.1886,6.6819,12.7235,12.6602,7.9832,-2.7620,-1.6225,3.7793,13.5744,17.5326
1902.3438,0.9273,2.4840,3.4280,5.3422,9.7592,0.5546,-1.3102,8.3022,8.2979,-4.6548,7.5811,13.9731,13.6588,7.6789,-2.9498,-1.4948,6.0933,12.0202,16.2430
1906.2500,0.0279,0.6726,-3.4040,0.4284,7.0102,-1.4563,-4.3519,4.8748,6.6388,-3.5445,7.5193,13.5161,13.3276,7.0304,-1.8186,-0.9034,7.9180,8.6482,12.6363
1910.1562,-0.3901,-1.9505,-11.2505,-5.1777,3.0381,-5.4533,-8.0206,0.1294,4.1851,-1.3533,6.7253,11.5543,11.2535,6.2512,0.0396,0.6909,9.0099,3.7653,6.9028
1914.0625,-0.4081,-4.2067,-18.2371,-10.3364,-1.5452,-10.8913,-11.7626,-4.9815,1.3908,0.8481,5.4005,8.6555,7.5536,5.4892,1.3140,3.3516,9.2532,-1.7790,0.0826
1917.9688,-0.3506,-5.1709,-22.6297,-13.9890,-5.8695,-16.1439,-14.6729,-9.3885,-1.3141,2.0285,3.7260,5.5511,2.9545,4.8142,0.8217,6.6191,8.7465,-6.8577,-6.3661
1921.8750,-0.5799,-4.8511,-23.5883,-15.7020,-9.1772,-18.9994,-15.9675,-12.3916,-3.6169,1.7232,1.8739,2.7695,-1.5461,4.1626,-1.6034,9.6650,7.7676,-10.6149,-11.3135
1925.7812,-1.2957,-4.2460,-21.5357,-15.8989,-11.1701,-17.7389,-15.4786,-13.9314,-5.4017,0.2022,-0.0108,0.3346,-5.2247,3.2824,-4.7896,11.5469,6.6142,-12.9360,-14.5354
1929.6875,-2.4367,-4.7003,-17.9066,-15.5917,-12.0974,-12.2411,-13.8150,-14.4988,-6.7699,-1.7592,-1.8433,-2.2371,-8.0059,1.7809,-6.7992,11.4832,5.4156,-14.4852,-16.7217
1933.5938,-3.7280,-6.9779,-14.4043,-15.7490,-12.5072,-4.4173,-12.0407,-14.7479,-7.9679,-3.3281,-3.6160,-5.5854,-10.3899,-0.6721,-6.1475,9.1029,4.0501,-16.2310,-18.8859
1937.5000,-4.8373,-10.6845,-12.1806,-16.6845,-12.8124,2.4283,-11.0522,-15.0495,-9.2411,-4.0100,-5.3761,-9.9903,-12.9654,-4.0574,-2.9202,4.6272,2.2437,-18.7427,-21.5538
1941.4062,-5.5391,-14.4337,-11.3920,-17.8493,-12.9552,5.1346,-11.0476,-15.2426,-10.6772,-3.8028,-7.1671,-15.0092,-15.8298,-7.8140,1.0226,-1.0880,-0.1827,-21.7133,-24.2666
1945.3125,-5.7856,-16.6476,-11.3292,-18.1528,-12.4011,2.3674,-11.4233,-14.7168,-12.1148,-3.0790,-8.9532,-19.5128,-18.3160,-10.9082,3.0441,-6.7298,-3.0618,-24.0218,-25.7281
1949.2188,-5.6499,-16.4539,-10.9630,-16.6036,-10.4759,-4.5063,-11.1570,-12.7721,-13.1621,-2.3211,-10.5536,-22.1228,-19.2296,-12.1958,1.4126,-10.9257,-5.7914,-24.2986,-24.5074
1953.1250,-5.2070,-14.1057,-9.5330,-12.8743,-6.8400,-11.9638,-9.4311,-9.0547,-13.3257,-1.8840,-11.6259,-21.8238,-17.4808,-10.9281,-3.4145,-12.7303,-7.5091,-21.6465,-19.8629
1957.0312,-4.4734,-10.6979,-6.8621,-7.4822,-1.8075,-16.1371,-6.1222,-3.8466,-12.2071,-1.8959,-11.7363,-18.4267,-12.7484,-7.1510,-8.8475,-11.9744,-7.4840,-16.1038,-12.2076
1960.9375,-3.4736,-7.4401,-3.3270,-1.5412,3.6737,-14.9423,-1.8989,1.9326,-9.7023,-2.2983,-10.5335,-12.6696,-5.7986,-1.7863,-11.6736,-9.2851,-5.5437,-8.6372,-2.9935
1964.8438,-2.3812,-5.0091,0.3589,3.7031,8.3628,-9.2830,2.0843,7.0074,-6.1284,-2.9364,-7.9778,-5.9396,1.7204,3.6621,-10.1274,-5.7540,-2.2927,-0.7424,5.8585
1968.7500,-1.5749,-3.3820,3.3569,7.2797,11.1978,-2.5315,4.6873,10.1896,-2.2040,-3.6109,-4.5062,0.2228,7.9063,7.6560,-5.1497,-2.4353,1.0475,6.0873,12.6435
1972.6562,-1.4815,-2.1650,4.8486,8.6892,11.6750,1.4834,5.2170,10.8020,1.1491,-4.0717,-0.9947,4.6228,11.3501,9.1997,0.0871,0.0540,3.1591,10.7838,16.3628
1976.5625,-2.2419,-1.0772,4.2012,7.9236,9.9988,0.7744,3.6224,8.9179,3.1396,-4.0156,1.5348,6.7402,11.6615,8.2189,2.1766,1.6330,3.2733,12.9140,16.8983
1980.4688,-3.4345,-0.1894,1.2261,5.4221,6.9827,-3.6953,0.4328,5.3291,3.4414,-3.1693,2.3601,6.8079,9.5537,5.5929,-0.2788,2.5587,1.5954,12.6997,14.9162
1984.3750,-4.1325,0.2305,-3.5520,2.0103,3.7662,-8.8436,-3.4740,1.2502,2.3511,-1.4698,1.4183,5.6358,6.4673,2.8185,-5.6946,3.1122,-0.7627,10.8863,11.6011
1988.2812,-3.3892,0.0728,-8.8526,-1.2391,1.4400,-11.6939,-7.1597,-2.1276,0.6493,0.7562,-0.6508,4.2413,3.9110,1.4131,-10.5019,3.3913,-2.3500,8.4701,8.2836
1992.1875,-0.9186,-0.4079,-13.0144,-3.3058,0.6797,-11.4394,-9.8801,-4.0598,-0.7970,2.7722,-2.8378,3.4111,2.8128,2.2794,-11.4867,3.3225,-2.1537,6.3053,6.0092
1996.0938,2.4871,-0.7417,-14.7110,-3.6368,1.4998,-9.8433,-11.2461,-4.4720,-1.4877,3.6713,-4.2907,3.3697,3.1738,5.2996,-7.9020,2.8347,-0.1396,4.7082,5.1555
2000.0000,5.1827,-0.6343,-13.6340,-2.4679,3.2426,-9.6329,-11.2587,-3.8917,-1.5311,2.8151,-4.7185,3.7180,4.1799,9.3679,-1.9204,2.0324,2.7713,3.2735,5.2750
2003.9062,5.5270,-0.2609,-10.6883,-0.7990,4.8493,-12.0424,-10.2184,-3.1273,-1.5147,0.2438,-4.4266,3.6975,4.7097,12.8843,2.8722,1.2297,5.2840,1.0878,5.3060
2007.8125,2.9033,-0.1845,-7.5047,0.0616,5.3295,-15.3903,-8.5577,-2.8594,-2.0738,-3.2061,-3.9895,2.6586,3.9633,14.4941,3.8887,0.8189,6.5013,-2.6797,4.1195
2011.7188,-1.7551,-0.9161,-5.5192,-0.8134,4.2103,-15.9258,-6.6817,-3.3541,-3.4279,-6.2078,-3.8144,0.4750,1.8711,13.6988,1.1866,1.0638,6.3974,-8.1012,1.1400
2015.6250,-6.3432,-2.4424,-5.1849,-3.4429,1.7188,-10.5320,-4.8907,-4.4364,-5.1909,-7.5542,-3.9135,-2.3453,-0.9376,11.0078,-2.7676,1.9489,5.6936,-14.1562,-3.3144
2019.5312,-8.7044,-4.1030,-5.8183,-6.9075,-1.4145,0.6011,-3.3943,-5.7048,-6.5853,-6.7486,-4.0287,-4.9255,-3.5561,7.5546,-4.9979,3.1697,5.2475,-19.0192,-8.1844
2023.4375,-7.8304,-4.9563,-6.1624,-9.8533,-4.4098,13.3683,-2.3581,-6.8326,-6.9250,-4.2412,-3.9726,-6.4932,-5.3201,4.4235,-4.1979,4.2635,5.3969,-20.8860,-12.2187
2027.3438,-4.3940,-4.4017,-5.2691,-11.2242,-6.8560,21.8752,-1.9047,-7.7525,-6.0487,-1.1742,-3.8837,-6.7603,-6.0850,2.1114,-1.6333,4.8097,5.7310,-18.8969,-14.5671
2031.2500,-0.2880,-2.6163,-3.1082,-10.7797,-8.8191,22.0076,-2.0507,-8.6195,-4.4200,1.2129,-4.1661,-5.9803,-6.1080,0.4469,-0.1427,4.6065,5.4483,-13.6237,-15.0587
2035.1562,2.5131,-0.4808,-0.5286,-9.1112,-10.5899,14.0424,-2.6465,-9.6027,-2.8364,2.1712,-5.1462,-4.6846,-5.6788,-1.0325,-1.9735,3.7442,4.0311,-6.8332,-14.0534
2039.0625,3.0309,0.9657,1.3297,-7.2113,-12.2866,2.4921,-3.4138,-10.6793,-1.9525,1.7067,-6.7191,-3.3215,-4.8302,-2.5666,-7.0081,2.5466,1.7304,-0.6696,-12.0673
2042.9688,1.6461,1.1617,1.7174,-5.9228,-13.6403,-6.7187,-4.1081,-11.5956,-1.9306,0.4234,-8.2844,-2.0640,-3.3806,-3.9263,-12.6471,1.4014,-0.5180,3.2749,-9.5012
2046.8750,-0.3930,0.3075,0.5894,-5.6154,-14.1481,-9.8025,-4.7090,-12.0326,-2.4279,-0.8904,-9.0537,-0.8916,-1.2751,-4.6200,-15.4372,0.5636,-1.7043,4.5124,-6.6563
2050.7812,-1.8808,-0.8810,-1.5859,-6.2222,-13.4887,-7.0115,-5.4733,-11.8533,-2.8860,-1.6481,-8.5288,0.1776,1.0820,-4.3761,-13.3202,0.0365,-1.4542,3.6164,-3.9304
2054.6875,-2.3292,-1.7378,-4.2725,-7.4913,-11.8713,-1.7922,-6.7575,-11.2416,-2.8958,-1.6172,-6.8050,0.9444,2.8433,-3.4971,-6.9713,-0.3910,-0.3186,1.7215,-1.9129
2058.5938,-2.0098,-2.1033,-7.1807,-9.1941,-10.0169,1.9212,-8.6897,-10.6136,-2.3931,-0.8361,-4.4892,1.1197,3.1595,-2.7714,0.6424,-0.9590,0.5738,-0.0894,-1.1885
2062.5000,-1.4740,-2.3490,-10.2361,-11.1375,-8.7387,2.1806,-10.9242,-10.3490,-1.5989,0.5458,-2.3052,0.5734,1.7669,-2.9663,6.1245,-1.7193,0.2636,-1.2064,-1.9494
2066.4062,-1.0291,-2.9915,-13.3151,-13.0413,-8.4048,-0.4049,-12.7021,-10.5247,-0.8149,2.3342,-0.6926,-0.4902,-0.7334,-4.2667,7.6418,-2.4438,-1.4214,-1.6138,-3.7434
2070.3125,-0.6019,-4.2306,-16.0501,-14.4745,-8.6726,-4.0382,-13.2459,-10.8396,-0.2656,4.2280,0.3110,-1.6180,-3.1771,-6.0844,5.7498,-2.7532,-3.8054,-1.7778,-5.6393
2074.2188,-0.0425,-5.7799,-17.9134,-14.9806,-8.7069,-7.5850,-12.2631,-10.7875,-0.0966,5.7432,0.8551,-2.4257,-4.5712,-7.4053,2.6203,-2.4066,-5.8836,-2.4179,-6.7776
2078.1250,0.4766,-7.1105,-18.5220,-14.3305,-7.7432,-11.2518,-10.2094,-9.9619,-0.4706,6.2770,0.9510,-2.9023,-4.7606,-7.4411,0.3419,-1.5560,-7.0262,-4.2275,-6.9368
2082.0312,0.3848,-7.8874,-17.8914,-12.6992,-5.6058,-15.6213,-8.0889,-8.2878,-1.6060,5.3550,0.3448,-3.4407,-4.5308,-6.1236,-0.4690,-0.7582,-7.3517,-7.5691,-6.6784
2085.9375,-0.9024,-8.2288,-16.4062,-10.5947,-2.8245,-20.0957,-6.8757,-6.0351,-3.6533,2.9392,-1.2726,-4.5274,-5.0301,-4.0968,-0.8253,-0.6871,-7.5144,-12.2081,-6.9118
2089.8438,-3.4236,-8.5681,-14.5210,-8.5601,-0.2840,-22.3662,-6.9140,-3.6273,-6.4720,-0.4218,-3.8781,-6.3027,-6.8937,-2.2328,-2.3003,-1.7050,-8.0903,-17.2225,-8.1651
2093.7500,-6.4094,-9.2323,-12.4431,-6.8598,1.3259,-19.6695,-7.6995,-1.4016,-9.5040,-3.7440,-6.8846,-8.3284,-9.6898,-1.0422,-5.5963,-3.5782,-9.0386,-21.2274,-10.0933
2097.6562,-8.6009,-10.0911,-10.0740,-5.3877,1.8690,-11.0232,-8.2014,0.5080,-11.9115,-6.0275,-9.3145,-9.7705,-12.1005,-0.4113,-9.8213,-5.5536,-9.6467,-22.9064,-11.6189
2101.5625,-8.9883,-10.5860,-7.2649,-3.8684,1.7059,1.3368,-7.5270,2.1034,-12.9706,-6.7253,-10.3277,-9.9046,-12.7377,0.1717,-12.9923,-6.7714,-8.9982,-21.6339,-11.6390
2105.4688,-7.4697,-10.1465,-4.1677,-2.1939,1.3171,12.6289,-5.4933,3.3610,-12.4951,-6.0059,-9.7690,-8.6023,-11.0393,1.1127,-13.3984,-6.7540,-6.6192,-17.8414,-9.8126
2109.3750,-4.9568,-8.6832,-1.3637,-0.6315,0.9249,18.0724,-2.7345,4.1335,-10.9978,-4.6643,-8.3452,-6.4556,-7.6366,2.3408,-10.8549,-5.6440,-2.8322,-12.8790,-6.8650
2113.2812,-2.8366,-6.7651,0.3768,0.2648,0.3968,15.6360,-0.2874,4.2073,-9.4405,-3.7396,-7.2693,-4.4455,-3.9557,3.3559,-6.9642,-4.0376,1.4197,-8.4039,-4.1856
2117.1875,-2.1529,-5.3151,0.5477,-0.0244,-0.5321,7.1326,1.0525,3.4685,-8.6957,-4.0448,-7.5655,-3.3734,-1.3519,3.6393,-4.1803,-2.5454,5.1286,-5.6246,-2.9963
2121.0938,-3.0571,-5.0262,-0.7709,-1.6623,-1.9375,-3.0193,1.1674,2.0297,-9.0520,-5.8405,-9.4614,-3.4353,-0.3744,3.0918,-4.2853,-1.4055,7.7442,-4.8237,-3.6585
2125.0000,-4.8621,-5.9160,-2.9780,-4.3570,-3.5617,-10.4218,0.5697,0.1969,-10.0867,-8.7780,-12.2460,-4.1999,-0.6275,2.1507,-7.2682,-0.4276,9.3046,-5.4070,-5.5643
2128.9062,-6.5987,-7.3436,-5.3612,-7.5256,-4.9587,-12.9369,-0.0648,-1.7108,-10.9890,-12.0902,-14.6733,-4.9656,-1.2425,1.4994,-11.3313,0.7047,10.1372,-6.3903,-7.6222
2132.8125,-7.6327,-8.4681,-7.5366,-10.5692,-5.7907,-11.2479,-0.4317,-3.5431,-11.1139,-14.9032,-15.6533,-5.2257,-1.5534,1.5945,-14.0102,2.0218,10.4158,-6.9820,-8.9408
2136.7188,-7.9140,-8.8065,-9.5765,-13.0489,-6.0198,-7.7675,-0.8112,-5.3398,-10.3884,-16.5268,-14.8119,-4.9258,-1.4775,2.3669,-13.6857,3.0766,9.9467,-6.9063,-9.2299
2140.6250,-7.7496,-8.4843,-11.7331,-14.6743,-5.8403,-4.9696,-1.8083,-7.1499,-9.2979,-16.6326,-12.6078,-4.3850,-1.3806,3.3016,-10.5357,3.1425,8.3516,-6.3354,-8.7057
2144.5312,-7.3631,-8.0193,-13.9845,-15.1947,-5.4228,-4.2920,-3.8026,-8.7811,-8.4740,-15.2982,-9.9839,-3.9906,-1.6183,3.8094,-6.3538,1.6794,5.4821,-5.5778,-7.6836
2148.4375,-6.6391,-7.8292,-15.7821,-14.3612,-4.7082,-5.9780,-6.5003,-9.6947,-8.1841,-12.9397,-7.8039,-3.9123,-2.1657,3.5991,-3.3914,-1.2602,1.7097,-4.7979,-6.2467
2152.3438,-5.2615,-7.8518,-16.2284,-12.0418,-3.4444,-9.4145,-8.9210,-9.1776,-8.0909,-10.1667,-6.4164,-4.0203,-2.6313,2.7935,-2.9855,-4.9680,-2.1668,-3.9506,-4.2541
2156.2500,-3.1095,-7.5569,-14.5873,-8.3977,-1.4463,-13.3676,-9.8637,-6.7241,-7.4538,-7.5936,-5.5708,-4.0144,-2.6090,1.7545,-4.8322,-8.4088,-5.3516,-2.9057,-1.6269
2160.1562,-0.5512,-6.3222,-10.7672,-3.9324,1.1413,-16.0254,-8.5777,-2.3882,-5.6305,-5.6502,-4.6765,-3.6255,-2.0401,0.8064,-7.3201,-10.7161,-7.4961,-1.5843,1.3935
2164.0625,1.6490,-3.8752,-5.4329,0.6969,3.8222,-15.2819,-5.2179,3.1411,-2.5306,-4.4455,-3.2108,-2.7381,-1.2625,0.0884,-8.6454,-11.5408,-8.8132,0.0383,4.2927
2167.9688,2.7856,-0.4817,0.3325,5.0132,6.0243,-9.6295,-0.7943,8.8144,1.2887,-3.7447,-1.0310,-1.3847,-0.6948,-0.3804,-7.9523,-11.0681,-9.7655,2.0473,6.6311
2171.8750,2.7091,3.2207,5.5691,8.9514,7.4773,0.6436,3.3567,13.6827,4.9355,-3.0916,1.5562,0.3211,-0.4160,-0.5422,-5.7725,-9.7629,-10.5686,4.6597,8.4047
2175.7812,1.9857,6.5726,9.8074,12.7723,8.3909,12.8644,6.2524,17.2499,7.6756,-2.0461,3.9605,2.2215,-0.0032,-0.2434,-3.5389,-8.0767,-10.9081,8.1084,10.0831
2179.6875,1.5746,9.1474,13.0314,16.6747,9.2642,22.7770,7.6788,19.5003,9.2644,-0.4440,5.5867,4.0963,1.2045,0.6375,-2.5688,-6.3181,-10.1205,12.3586,12.2269
2183.5938,2.2181,10.7585,15.3241,20.3685,10.4393,26.5822,8.1042,20.6196,9.9225,1.4528,6.0792,5.6583,3.5905,1.9836,-3.2301,-4.7119,-7.7318,16.8645,14.9361
2187.5000,3.9479,11.3045,16.5149,22.9538,11.7260,23.0310,8.1863,20.6456,10.0245,3.0158,5.4417,6.6395,6.8831,3.3671,-4.8319,-3.4943,-3.9539,20.6065,17.5547
2191.4062,6.0340,10.6700,16.1387,23.2686,12.4041,14.1503,8.2298,19.3345,9.7712,3.5264,4.0135,6.9664,10.2276,4.2344,-6.2457,-2.8722,0.2688,22.4856,18.9177
2195.3125,7.4054,8.8205,13.7620,20.5400,11.6502,4.0431,7.9720,16.3629,9.0961,2.5576,2.3427,6.9069,12.6953,4.2615,-6.7609,-2.8249,3.7590,21.8868,18.0448
2199.2188,7.2662,6.0123,9.4368,14.9397,9.1228,-3.4509,6.8359,11.7263,7.8494,0.2673,1.0061,7.0375,13.8849,3.6294,-6.5440,-2.9143,5.8465,19.0630,14.8434
2203.1250,5.5268,2.8859,3.9232,7.6667,5.3075,-6.6625,4.4569,6.0330,6.0747,-2.5717,0.4234,7.9694,14.1816,2.9928,-6.3937,-2.3371,6.8328,15.0650,10.3323
2207.0312,2.8169,0.2686,-1.5309,0.4750,1.3614,-6.4010,1.0904,0.4406,4.1244,-4.8606,0.7119,9.9452,14.4662,3.1271,-7.0051,-0.3087,7.8234,11.2181,6.1815
2210.9375,0.1216,-1.2521,-5.7577,-5.0882,-1.4670,-4.7515,-2.4118,-3.7793,2.4983,-5.6661,1.6295,12.5472,15.4497,4.4702,-8.3094,3.3895,9.9906,8.4448,3.8137
2214.8438,-1.7056,-1.6967,-8.2328,-8.2906,-2.4890,-3.5207,-5.0671,-5.8110,1.5242,-4.6721,2.6529,14.7394,17.0849,6.8642,-9.3858,8.0492,13.7304,6.8437,3.6127
2218.7500,-2.2749,-1.7045,-9.2696,-9.3421,-1.8897,-3.5329,-6.3553,-5.6591,1.1363,-2.3504,3.1874,15.2888,18.4709,9.6632,-9.0256,12.1650,18.2704,5.7770,4.7325
2222.6562,-1.7092,-2.1214,-9.7117,-9.0340,-0.5274,-5.0205,-6.5267,-4.0948,0.9395,0.2477,2.8411,13.3760,18.3448,12.1207,-6.5607,14.0778,22.0016,4.3930,5.6356
2226.5625,-0.4689,-3.4094,-10.3207,-8.1789,0.6317,-8.2958,-6.3978,-2.2248,0.5226,1.9769,1.6303,9.0616,15.8578,13.7813,-2.3918,12.8177,23.3387,2.2335,5.0296
2230.4688,0.8898,-5.2794,-11.2540,-7.2164,1.0681,-13.6957,-6.7658,-0.9456,-0.2143,2.1075,-0.0080,3.3315,11.1405,14.6213,2.1353,8.6636,21.5758,-0.4637,2.6262
2234.3750,1.8969,-6.8151,-11.9717,-6.1817,0.9168,-20.6383,-7.8388,-0.5828,-0.9724,0.6097,-1.4325,-2.3330,5.2914,14.8767,5.4137,3.0649,17.2238,-2.9426,-0.7319
2238.2812,2.2605,-7.0226,-11.6237,-4.9570,0.7398,-26.7373,-9.0686,-0.8753,-1.2783,-1.9041,-2.1408,-6.6359,-0.2029,14.7274,6.3810,-2.0598,11.6630,-4.4396,-3.6323
2242.1875,1.9058,-5.4529,-9.6617,-3.5510,1.0605,-28.2168,-9.4961,-1.2442,-0.8518,-4.5038,-2.0439,-9.0271,-4.2462,14.0917,4.9657,-5.2618,6.3726,-4.6696,-4.9667
2246.0938,0.9919,-2.4966,-6.2741,-2.1797,1.9904,-21.9417,-8.3689,-1.1483,0.1612,-6.3456,-1.5007,-9.8367,-6.6241,12.6800,1.9678,-6.2070,2.2262,-3.9709,-4.5623
2250.0000,-0.1174,0.8214,-2.3623,-1.1139,3.1809,-7.9121,-5.6263,-0.3272,1.2617,-6.9698,-1.0826,-9.9282,-7.9243,10.2492,-1.4767,-5.6757,-0.7621,-3.0410,-3.1887
2253.9062,-0.9707,3.3903,0.9210,-0.4475,4.0968,9.6856,-1.9577,1.1461,1.9137,-6.4122,-1.2187,-10.0989,-8.9791,6.8532,-4.4831,-4.9612,-3.1838,-2.4758,-1.9682
2257.8125,-1.2285,4.5505,2.7766,0.0105,4.3926,24.0470,1.5561,2.9608,1.8605,-5.1446,-1.9547,-10.5942,-10.2215,2.9002,-6.7367,-5.0634,-5.7196,-2.4355,-1.5993
2261.7188,-0.8511,4.3187,3.1325,0.6301,4.1339,29.3017,3.9583,4.7169,1.2136,-3.9030,-2.9835,-11.0151,-11.3750,-1.0087,-8.4375,-6.1637,-8.6964,-2.6435,-1.9036
2265.6250,-0.1427,3.2307,2.5756,1.7237,3.7323,23.8652,4.7782,6.0602,0.2809,-3.4422,-3.9050,-10.6412,-11.6484,-4.3222,-9.9835,-7.6530,-11.9192,-2.6656,-1.9771
2269.5312,0.4173,1.9729,1.9244,3.3564,3.6690,11.3556,4.1012,6.7887,-0.6920,-4.2443,-4.5068,-8.9277,-10.2664,-6.6796,-11.6049,-8.6140,-14.7598,-2.2236,-0.8211
2273.4375,0.4859,1.0507,1.7375,5.3274,4.2076,-1.5866,2.4138,6.9267,-1.6391,-6.2495,-4.8413,-5.8459,-6.9619,-7.8736,-13.1298,-8.3899,-16.3700,-1.3023,1.9801
2277.3438,0.1145,0.6508,2.0596,7.3086,5.2758,-9.1578,0.3900,6.7388,-2.5634,-8.7447,-5.0438,-1.8665,-2.1213,-7.7241,-13.9744,-6.8716,-15.9137,-0.0037,5.9746
2281.2500,-0.2353,0.6951,2.5122,9.0092,6.5551,-9.4383,-1.2845,6.6336,-3.3320,-10.5503,-5.0639,2.3506,3.4552,-6.0360,-13.3658,-4.3834,-12.8104,1.6710,10.1039
2285.1562,0.0298,0.9789,2.6022,10.2364,7.6759,-4.8153,-2.0703,6.9552,-3.6083,-10.5252,-4.5798,6.3003,8.9496,-2.7418,-10.7308,-1.3508,-7.0095,3.8656,13.2921
2289.0625,1.2195,1.2921,2.0023,10.8358,8.3685,0.1680,-1.7582,7.7477,-3.0487,-8.2015,-3.2398,9.7462,13.7785,1.8475,-6.1095,1.9349,0.7758,6.6404,14.9467
2292.9688,3.0742,1.4886,0.6426,10.6124,8.4980,1.8390,-0.6307,8.6505,-1.6505,-4.1998,-1.0955,12.5461,17.5611,6.8994,-0.3854,5.2683,9.0521,9.6360,15.0665
2296.8750,4.8207,1.5150,-1.3682,9.3610,8.0207,-0.6993,0.5579,9.0442,0.0360,-0.1157,1.1180,14.3804,19.9215,11.2223,4.8577,8.2831,15.9078,11.9462,13.9669
2300.7812,5.5651,1.4111,-3.8378,7.0369,6.9656,-5.6950,0.9021,8.4184,1.0683,2.1661,2.1696,14.6700,20.3888,13.7407,7.8912,10.2966,19.7148,12.4205,11.9161
2304.6875,4.7971,1.2663,-6.4810,3.9552,5.4901,-10.3232,-0.1183,6.7551,0.6246,1.4199,0.9899,12.8385,18.5671,14.0509,7.6052,10.4868,19.8593,10.3087,9.0046
2308.5938,2.6950,1.1345,-8.8378,0.8322,3.9569,-12.3616,-2.2097,4.6565,-1.4345,-2.2310,-2.5643,8.7855,14.4967,12.7087,4.0900,8.3769,17.0679,5.8557,5.3370
2312.5000,0.0426,0.9500,-10.2828,-1.4462,2.9040,-10.9798,-4.2988,3.0691,-4.3473,-7.2974,-7.3633,3.2256,8.9109,11.0157,-1.3312,4.3130,13.0596,0.3984,1.3298
2316.4062,-2.1837,0.5229,-10.2553,-2.2581,2.8338,-6.6036,-5.1278,2.7149,-6.7742,-11.6252,-11.3987,-2.4254,3.1090,10.3589,-6.6991,-0.4571,9.6510,-4.2095,-2.2223
2320.3125,-3.2970,-0.3439,-8.6453,-1.6424,3.8904,-0.4570,-4.0920,3.5678,-7.5096,-13.4357,-12.7792,-6.6505,-1.5809,11.4514,-10.3480,-4.2746,7.8131,-6.5744,-4.4779
2324.2188,-3.1612,-1.6722,-6.0694,-0.3855,5.6342,5.7414,-1.7501,4.7424,-6.1610,-12.1352,-10.7725,-8.6039,-4.4559,13.9183,-11.6407,-5.9099,7.2496,-6.5598,-5.0971
2328.1250,-2.1110,-3.1952,-3.7507,0.3165,7.1260,10.0097,0.4192,4.9335,-3.3786,-8.4761,-6.2658,-8.5754,-5.7747,16.4931,-11.0882,-5.2560,6.7595,-5.3777,-4.5926
2332.0312,-0.6401,-4.4296,-2.9474,-0.5179,7.3613,10.6434,0.9444,3.1947,-0.4951,-4.0505,-1.3459,-7.8224,-6.5129,17.7338,-9.8231,-3.4199,5.1457,-4.8678,-4.1443
2335.9375,0.8931,-4.9210,-4.2138,-3.0834,5.8542,7.1178,-0.6132,-0.4066,1.1991,-0.4677,1.7638,-7.8315,-7.6581,16.8458,-8.8056,-2.1110,2.0731,-6.3779,-4.9047
2339.8438,2.3448,-4.5100,-6.9741,-6.6118,3.0108,0.7867,-3.2591,-4.6883,1.1111,1.3110,1.7970,-9.4380,-9.4931,14.1244,-8.2985,-2.6715,-1.6808,-9.9278,-7.2213
2343.7500,3.6413,-3.4259,-9.7567,-9.7282,0.0089,-5.4028,-5.1300,-7.9184,-0.4316,1.1842,-1.0357,-12.3311,-11.3587,10.7505,-7.9206,-5.3232,-4.7296,-14.1747,-10.3182
2347.6562,4.5793,-2.1345,-11.0268,-11.1675,-1.8145,-8.3799,-4.6996,-8.7463,-2.4727,-0.3136,-5.3244,-15.2352,-12.0794,8.0635,-7.1688,-9.0744,-5.9814,-17.1983,-12.7066
2351.5625,4.7777,-1.0507,-10.1291,-10.4544,-1.7414,-6.8227,-1.8260,-6.9524,-4.0096,-2.4202,-9.2855,-16.6434,-10.7951,6.7555,-5.9712,-12.3146,-5.3361,-17.6161,-13.1005
2355.4688,3.8563,-0.3350,-7.7269,-8.1529,-0.1368,-2.1124,2.0876,-3.5608,-4.5089,-4.4739,-11.6153,-15.6541,-7.6534,6.4792,-4.8395,-13.7133,-3.7333,-15.3481,-11.2454
2359.3750,1.7272,0.0773,-5.4123,-5.5246,1.7248,2.4639,4.9563,-0.2344,-4.0873,-6.0457,-11.9310,-12.4303,-3.8864,6.1073,-4.5133,-12.8796,-2.5505,-11.5963,-8.1009
2363.2812,-1.2194,0.2648,-4.6966,-3.7820,2.4154,3.8401,5.3347,1.6913,-3.3162,-6.9310,-10.6770,-8.0569,-1.1894,4.4861,-5.3720,-10.4276,-2.7682,-8.0982,-5.2365
2367.1875,-4.1927,0.1416,-6.0101,-3.3626,1.2579,1.1590,3.3194,1.9639,-2.8195,-7.1102,-8.6908,-3.9359,-0.7591,1.2226,-7.0575,-7.4791,-4.4296,-6.1426,-3.8277
2371.0938,-6.3222,-0.4907,-8.3586,-3.6529,-1.1783,-3.8149,0.4441,1.5122,-2.9102,-6.7238,-6.7440,-1.0964,-2.5719,-2.9701,-8.5937,-4.9601,-6.6899,-5.9304,-3.9041
2375.0000,-7.0368,-1.6675,-9.8695,-3.3373,-3.3202,-8.1222,-1.3279,1.8392,-3.4475,-6.0243,-5.2749,0.2095,-5.3341,-6.5786,-8.9304,-3.1290,-8.3556,-6.6037,-4.3352
2378.9062,-6.2842,-2.9949,-8.8952,-1.1861,-3.4622,-9.7453,-0.8233,4.0758,-3.9514,-5.2597,-4.3463,0.4676,-7.1324,-8.0673,-7.5537,-1.5810,-8.5390,-6.8487,-3.5493
2382.8125,-4.4880,-3.6788,-4.9926,3.1668,-0.7618,-8.8083,1.7009,8.2505,-3.8799,-4.5209,-3.7408,0.5170,-6.4112,-6.6810,-4.7797,0.3329,-7.0488,-5.6693,-0.5181
2386.7188,-2.3071,-2.9373,0.8032,8.9045,4.2251,-6.9958,4.8412,13.1859,-2.9156,-3.6649,-3.1040,1.0707,-2.7409,-2.8259,-1.5762,2.9614,-4.3601,-2.8991,4.6055
2390.6250,-0.3650,-0.5737,6.5375,14.3586,9.7861,-5.8110,6.9771,17.0615,-1.1257,-2.4103,-2.1043,2.3811,3.0035,2.1572,0.9465,6.0119,-1.2769,0.7739,10.5553
2394.5312,0.9118,2.6992,10.3454,17.8073,13.9249,-5.2225,7.1842,18.3119,1.0661,-0.5800,-0.5965,4.1725,9.0931,6.6682,2.0597,8.5941,1.4663,4.2011,15.6274
2398.4375,1.3177,5.4767,11.3011,18.2950,15.3568,-3.8769,5.5789,16.3701,3.0647,1.6615,1.2545,5.8174,13.7380,9.5763,1.6847,9.6172,3.4594,6.3282,18.5151
2402.3438,0.8253,6.3619,9.6580,16.0229,14.0700,-0.6812,2.9946,11.8847,4.3449,3.7622,2.9792,6.6457,15.8088,10.6217,0.3185,8.3349,4.6633,6.6275,18.8197
2406.2500,-0.4406,4.7349,6.4478,12.1165,11.1740,3.6608,0.3347,6.3492,4.6280,4.9957,3.9844,6.2426,15.1686,10.3299,-1.2877,4.7750,5.3048,5.2379,17.0093
2410.1562,-2.1985,1.0997,2.7768,7.9404,8.1843,6.6142,-1.9191,1.3854,3.9169,4.8272,3.8482,4.6160,12.5372,9.5671,-2.5061,-0.1530,5.7132,2.8012,13.9576
2414.0625,-4.0301,-3.2205,-0.7295,4.3758,6.1935,5.5173,-3.7798,-1.9377,2.4026,3.2080,2.5574,2.1712,9.0356,9.0400,-3.0958,-4.9400,6.1682,0.1043,10.4097
2417.9688,-5.4851,-6.8412,-4.0568,1.4693,5.3966,-0.2198,-5.4943,-3.4408,0.3270,0.6213,0.5200,-0.4901,5.6744,9.0188,-3.2545,-8.0479,6.7995,-2.2968,6.6955
2421.8750,-6.2576,-9.0354,-7.5365,-1.3874,5.1802,-8.2052,-7.2366,-3.7348,-2.0975,-2.1429,-1.6756,-2.8480,3.0193,9.3802,-3.4483,-8.5297,7.5600,-4.3053,2.7986
2425.7812,-6.3378,-9.9764,-11.4348,-4.9112,4.6375,-14.3175,-8.9915,-3.8091,-4.6718,-4.3394,-3.6023,-4.6775,1.1354,9.8520,-4.1038,-6.4223,8.2823,-6.2601,-1.3509
2429.6875,-6.0298,-10.4064,-15.6726,-9.3806,3.1469,-15.3495,-10.6448,-4.5503,-7.1507,-5.5491,-5.2034,-6.0822,-0.2354,10.2387,-5.3160,-2.7197,8.7892,-8.6712,-5.6022
2433.5938,-5.7966,-11.0230,-19.8081,-14.4132,0.6717,-11.1606,-12.1254,-6.4072,-9.2329,-5.7652,-6.7197,-7.3332,-1.4108,10.4605,-6.7491,1.0701,8.9856,-11.8459,-9.5185
2437.5000,-6.0109,-12.0204,-23.2347,-19.1582,-2.3415,-4.7763,-13.4373,-9.2989,-10.6535,-5.2926,-8.3929,-8.6151,-2.5712,10.4079,-7.8220,3.5731,8.8541,-15.6073,-12.5517
2441.4062,-6.7534,-13.0574,-25.4347,-22.7308,-5.3292,-0.3713,-14.5606,-12.7337,-11.3213,-4.5558,-10.1662,-9.8420,-3.7176,9.7642,-8.0961,4.0887,8.3421,-19.2702,-14.3302
2445.3125,-7.7739,-13.5884,-26.1401,-24.5909,-7.9640,-0.6021,-15.3314,-16.0299,-11.3800,-3.9142,-11.6067,-10.6632,-4.7629,7.9829,-7.6160,2.7706,7.2291,-21.9012,-14.8682
2449.2188,-8.6243,-13.2525,-25.3408,-24.6524,-10.2677,-5.1512,-15.4305,-18.5273,-11.1003,-3.5430,-12.1130,-10.6560,-5.6665,4.5015,-6.9319,0.4075,5.1166,-22.7237,-14.5600
2453.1250,-8.8720,-12.0344,-23.1744,-23.1228,-12.4480,-11.3553,-14.5108,-19.7287,-10.6484,-3.3906,-11.2688,-9.5837,-6.5061,-0.9039,-6.7251,-2.0256,1.6177,-21.4427,-13.9532
2457.0312,-8.2731,-10.1392,-19.7915,-20.2515,-14.6025,-16.2344,-12.3783,-19.3605,-9.9009,-3.2232,-9.1111,-7.5625,-7.4398,-7.8352,-7.2564,-3.7789,-3.3238,-18.3193,-13.4278
2460.9375,-6.8312,-7.7616,-15.2849,-16.1977,-16.5091,-18.3033,-9.1029,-17.3804,-8.4832,-2.7565,-6.1505,-5.0442,-8.5894,-15.2510,-8.0479,-4.5137,-9.1926,-13.9843,-12.9710
2464.8438,-4.7498,-4.9856,-9.7274,-11.0945,-17.6429,-17.9140,-5.0036,-13.9539,-6.0592,-1.8432,-3.1567,-2.6395,-9.9243,-21.7497,-8.1053,-4.2525,-14.9386,-9.1331,-12.1817
2468.7500,-2.3360,-1.8945,-3.2969,-5.2127,-17.4043,-16.1382,-0.5430,-9.4142,-2.6946,-0.6196,-0.8532,-0.8877,-11.2154,-26.0178,-6.6116,-3.2284,-19.3312,-4.2950,-10.5101
2472.6562,0.0868,1.2394,3.5917,0.9499,-15.4130,-13.3444,3.7878,-4.2076,0.9803,0.5030,0.3149,-0.0840,-12.0797,-27.2186,-3.6371,-1.7800,-21.4518,0.2199,-7.5949
2476.5625,2.2313,3.9053,10.2420,6.7573,-11.6988,-8.7517,7.5356,1.1687,3.9795,1.0456,0.2617,-0.2211,-12.0916,-25.1519,-0.3158,-0.3331,-21.0409,4.2253,-3.5035
2480.4688,3.8668,5.5460,15.7775,11.6434,-6.7051,-1.3465,10.3056,6.2215,5.4503,0.7651,-0.7853,-1.0368,-10.9202,-20.1764,1.7340,0.6086,-18.5042,7.5340,1.2530
2484.3750,4.8126,5.8759,19.3672,15.2714,-1.1395,8.6201,11.7694,10.4962,5.1321,-0.1574,-2.3998,-2.1337,-8.4670,-13.0240,1.4185,0.5686,-14.6075,9.9027,5.9130
2488.2812,4.9128,5.0770,20.4722,17.5084,4.2189,18.8421,11.6883,13.5916,3.4663,-1.2205,-4.1013,-3.1336,-4.9768,-4.6570,-1.0848,-0.6901,-10.0905,11.0615,9.7268
2492.1875,4.0165,3.6980,18.9969,18.2437,8.6606,25.6533,9.9598,15.1771,1.2716,-1.9786,-5.5127,-3.8280,-1.0757,3.7883,-4.4109,-2.9572,-5.4451,10.7806,12.1313
2496.0938,2.0056,2.3046,15.2773,17.2295,11.6168,25.8869,6.6776,15.0364,-0.7874,-2.4386,-6.4955,-4.2645,2.3338,11.0581,-6.9200,-5.5321,-0.9461,8.9314,12.7854
2500.0000,-1.0953,1.1313,9.9414,14.1374,12.7053,18.7346,2.1986,13.1421,-2.5538,-3.1483,-7.1872,-4.7024,4.3562,15.9654,-7.8171,-7.4279,3.1898,5.5495,11.5412
2503.9062,-4.9557,-0.0065,3.7406,8.8618,11.8018,6.4267,-2.8196,9.7278,-4.3004,-4.8239,-7.8760,-5.4188,4.4970,17.7255,-7.6612,-7.7485,6.7149,0.9245,8.4682
2507.8125,-8.8342,-1.4720,-2.5631,1.8767,9.1240,-6.6828,-7.4700,5.2979,-6.2952,-7.7002,-8.7405,-6.4462,2.9780,16.2945,-7.8513,-6.0531,9.4284,-4.3118,3.9636
2511.7188,-11.6763,-3.4251,-8.2499,-5.6562,5.2509,-16.0863,-10.8083,0.5269,-8.3702,-11.0542,-9.6114,-7.4136,0.7409,12.4658,-9.4266,-2.5291,11.3244,-9.2040,-1.1681
2515.6250,-12.4778,-5.5999,-12.7052,-12.2154,0.9969,-19.0881,-12.2171,-3.9416,-9.8625,-13.3137,-9.9522,-7.6512,-0.9622,7.5703,-12.0526,2.0897,12.6125,-12.7041,-5.8368
2519.5312,-10.7938,-7.4314,-15.5548,-16.5814,-2.8624,-15.8339,-11.7779,-7.7175,-10.0198,-12.8131,-9.1462,-6.5697,-1.2491,2.8708,-13.9848,6.7885,13.5102,-14.1013,-9.0587
2523.4375,-7.1133,-8.4529,-16.8406,-18.4643,-5.9001,-9.0549,-10.4038,-10.7935,-8.5954,-8.8015,-6.9524,-4.1198,-0.1863,-1.0291,-13.1219,10.5811,13.9228,-13.4468,-10.4588
2527.3438,-2.8126,-8.6727,-17.1022,-18.6862,-8.2122,-2.7725,-9.5369,-13.4997,-6.1797,-2.0740,-3.8261,-1.0233,1.1180,-4.3931,-8.4730,12.7534,13.2835,-11.6798,-10.5614
2531.2500,0.3983,-8.6323,-17.2253,-18.7466,-10.3325,-0.5598,-10.4539,-16.2895,-3.9811,5.2315,-0.8317,1.4425,1.0482,-8.0267,-1.0314,12.9979,10.7642,-10.2679,-10.6029
2535.1562,1.3045,-9.0663,-18.0433,-19.9814,-12.9065,-4.0174,-13.5174,-19.4629,-3.1524,10.6247,0.8702,2.0513,-1.6082,-12.6039,6.5738,11.4417,5.8072,-10.4725,-11.8815
2539.0625,-0.1611,-10.3741,-19.8708,-22.8016,-16.2931,-12.0096,-17.8417,-22.9726,-4.0971,12.4957,0.6744,0.2945,-6.8951,-18.0775,11.4542,8.5725,-1.3460,-12.6327,-14.9928
2542.9688,-2.8492,-12.2642,-22.2493,-26.4652,-20.3142,-20.9873,-21.6638,-26.4137,-6.2174,10.8741,-1.1034,-3.3088,-13.5479,-23.5604,11.9876,5.0641,-9.5148,-15.9174,-19.4280
2546.8750,-4.9966,-13.8356,-24.1108,-29.5198,-24.2901,-26.3876,-23.2776,-29.1929,-8.2764,7.2809,-3.4114,-7.4740,-19.5942,-27.7612,8.5478,1.5301,-16.9903,-18.7481,-23.8196
2550.7812,-5.1810,-14.0806,-24.3228,-30.6350,-27.3325,-24.6528,-21.9965,-30.7731,-9.1337,3.7935,-5.1016,-10.8415,-23.3519,-29.6858,3.0564,-1.7025,-22.2979,-19.6751,-26.7035
2554.6875,-3.0818,-12.5096,-22.3289,-29.3200,-28.7214,-15.0262,-18.5339,-30.8598,-8.3811,1.9020,-5.6150,-12.6730,-24.2331,-29.1437,-2.2438,-4.6775,-24.8596,-18.1910,-27.3220
2558.5938,0.3909,-9.5115,-18.5131,-26.1135,-28.1624,-0.2204,-14.5393,-29.4454,-6.5024,1.8188,-5.2702,-13.1338,-22.8935,-26.7399,-5.9559,-7.6809,-25.1543,-14.9901,-25.9604
2562.5000,3.6472,-6.2200,-14.0653,-22.1821,-25.8153,14.5264,-11.5790,-26.7260,-4.5161,2.5776,-4.9843,-13.0199,-20.6883,-23.3942,-7.9596,-10.9560,-24.2963,-11.5385,-23.6285
2566.4062,5.2879,-3.9595,-10.4159,-18.6267,-22.1295,23.6976,-10.2254,-22.9722,-3.3903,2.7659,-5.6409,-13.1595,-18.8224,-19.7478,-9.0144,-14.4360,-23.3167,-9.2495,-21.3424
2570.3125,4.7695,-3.5913,-8.5600,-15.9380,-17.6251,24.0072,-9.8419,-18.4424,-3.6093,1.3924,-7.5425,-13.8986,-17.7281,-15.8711,-9.9843,-17.6747,-22.5967,-8.7846,-19.5120
2574.2188,2.5133,-5.1260,-8.6356,-13.8972,-12.7514,15.9043,-9.1656,-13.3722,-5.0976,-1.6128,-10.2876,-14.9824,-16.9985,-11.4463,-11.2714,-20.0278,-21.7664,-9.8654,-17.8278
2578.1250,-0.5067,-7.7867,-9.9526,-11.9001,-7.8693,3.2850,-7.2459,-8.0082,-7.4259,-5.4676,-13.0899,-15.8270,-15.8129,-6.2488,-12.7454,-20.9661,-20.0574,-11.6117,-15.6599
2582.0312,-3.3505,-10.4382,-11.4043,-9.4326,-3.3068,-8.4397,-4.0787,-2.6350,-10.0619,-9.0246,-15.2489,-15.9201,-13.5005,-0.5444,-14.0240,-20.3028,-16.8277,-13.0925,-12.6226
2585.9375,-5.4819,-12.1040,-12.0054,-6.3843,0.6016,-14.9046,-0.5393,2.4367,-12.4818,-11.3237,-16.4252,-15.0446,-9.8810,4.8944,-14.7527,-18.1941,-11.9271,-13.7071,-8.8842
2589.8438,-6.7587,-12.2957,-11.2859,-3.0557,3.5434,-14.6640,2.2577,6.9038,-14.1503,-11.9137,-16.5786,-13.2250,-5.2535,9.1606,-14.6648,-14.9470,-5.7429,-13.2290,-5.0366
2593.7500,-7.1840,-11.0440,-9.4008,0.0582,5.3097,-9.4842,3.6510,10.4978,-14.5268,-10.8643,-15.7217,-10.5432,-0.1724,11.6953,-13.4979,-10.8211,1.0034,-11.6349,-1.6915
2597.6562,-6.7132,-8.7212,-6.9775,2.5096,5.8725,-3.0382,3.6805,12.9913,-13.2274,-8.5857,-13.7800,-7.0610,4.7564,12.5418,-11.0108,-5.9988,7.5103,-8.9803,0.8502
2601.5625,-5.3017,-5.8386,-4.8218,4.0160,5.4060,1.1817,2.7913,14.2101,-10.2966,-5.6370,-10.7207,-2.9550,8.9387,12.2173,-7.2187,-0.7424,13.0573,-5.4652,2.6169
2605.4688,-3.1292,-2.9401,-3.6107,4.4502,4.2411,1.5799,1.3264,14.0787,-6.3806,-2.6206,-6.8395,1.2711,11.7850,11.3288,-2.6892,4.4257,17.0617,-1.6012,3.7254
2609.3750,-0.7521,-0.5750,-3.6613,3.8020,2.7779,-1.0628,-0.7269,12.6952,-2.5925,-0.1343,-2.9086,4.7519,12.7829,10.2272,1.4280,8.7288,19.1220,1.7605,4.1447
2613.2812,1.0312,0.7644,-4.8310,2.1960,1.3900,-4.4726,-3.5300,10.3816,-0.0537,1.3062,0.0421,6.5516,11.7030,8.9258,3.8220,11.3948,19.1052,3.6929,3.7026
2617.1875,1.5820,0.8130,-6.5815,-0.0541,0.3381,-6.5009,-6.9383,7.6382,0.6628,1.4149,1.2507,6.1573,8.8138,7.2906,3.7228,12.0210,17.2412,3.6522,2.3295
2621.0938,0.8315,-0.2568,-8.2037,-2.4500,-0.2917,-6.4732,-10.2387,4.9836,-0.1575,0.2972,0.7143,3.8414,4.9009,5.3047,1.4227,10.7803,14.1136,1.8324,0.3007
2625.0000,-0.6123,-1.7660,-9.1267,-4.4473,-0.6069,-5.4669,-12.3676,2.7476,-1.5312,-1.5016,-0.7399,0.5950,0.9863,3.1808,-1.8015,8.2966,10.4828,-0.8684,-1.7809
2628.9062,-1.7827,-2.7520,-9.1672,-5.6866,-0.8605,-5.3787,-12.5004,0.9433,-2.3462,-3.1497,-1.9261,-2.3859,-2.1263,1.2444,-4.4026,5.2573,6.9957,-3.2984,-3.3060
2632.8125,-1.9182,-2.4443,-8.5685,-6.1698,-1.3284,-7.3982,-10.5776,-0.6818,-2.0109,-3.8628,-2.0533,-4.3565,-4.2001,-0.2978,-5.4909,2.0343,3.9419,-4.6523,-4.0533
2636.7188,-0.9059,-0.7375,-7.7795,-6.2388,-2.1501,-10.8925,-7.3585,-2.4240,-0.7894,-3.2663,-1.2606,-5.3856,-5.5678,-1.4985,-5.3627,-1.4126,1.2044,-4.8343,-4.3323
2640.6250,0.6933,1.6682,-7.0905,-6.3374,-3.2146,-13.4872,-3.9415,-4.3601,0.3885,-1.5857,-0.5407,-6.1754,-6.7872,-2.6047,-5.2534,-5.2869,-1.5680,-4.3550,-4.7281
2644.5312,2.0519,3.6171,-6.3612,-6.6976,-4.1716,-12.3871,-1.0907,-6.2172,0.5306,0.4616,-1.0534,-7.4558,-8.1917,-3.8391,-6.4559,-9.5621,-4.6808,-3.8565,-5.6148
2648.4375,2.6347,4.1796,-5.0511,-7.1587,-4.5883,-6.1662,1.1471,-7.4761,-0.7658,2.0382,-3.2560,-9.3716,-9.6547,-5.2097,-9.3726,-13.7562,-8.1829,-3.6125,-6.8078
2652.3438,2.5257,3.2477,-2.5783,-7.2505,-4.1842,4.0984,3.2807,-7.6600,-3.0117,2.6285,-6.4316,-11.2855,-10.7218,-6.4967,-13.1239,-17.0613,-11.8333,-3.3520,-7.6406
2656.2500,2.3117,1.6371,1.1946,-6.4924,-3.0115,15.1159,5.8200,-6.6308,-5.0609,2.2987,-8.9654,-12.1330,-10.9886,-7.4244,-15.9700,-18.7442,-15.2252,-2.5089,-7.4358
2660.1562,2.6225,0.5918,5.6705,-4.7137,-1.4711,22.9810,8.7618,-4.7026,-5.7444,1.6196,-9.2408,-11.0871,-10.4227,-7.8744,-16.2815,-18.5295,-17.9520,-0.6937,-6.0256
2664.0625,3.6638,0.9901,9.6560,-2.1859,-0.1382,25.1418,11.4957,-2.4915,-4.5314,1.2915,-6.6145,-8.0815,-9.3789,-7.9648,-13.4647,-16.6977,-19.7018,1.9684,-3.9237
2667.9688,5.0741,2.7759,11.9046,0.5133,0.5179,21.5717,13.1831,-0.5854,-1.8257,1.6978,-1.8606,-3.8535,-8.2949,-7.9229,-8.3024,-13.8465,-20.2537,4.8770,-1.9906
2671.8750,6.1927,5.0044,11.7762,2.8062,0.3734,14.5157,13.3216,0.7678,1.2690,2.6620,3.2041,0.4970,-7.3026,-7.8392,-2.5563,-10.5196,-19.4377,7.3372,-0.8182
2675.7812,6.5306,6.4759,9.6223,4.3925,-0.2726,7.0966,12.0936,1.7703,3.5668,3.5583,6.6890,4.1115,-6.0603,-7.4881,1.8933,-6.9846,-17.1415,9.0008,-0.2764
2679.6875,6.0942,6.5197,6.6457,5.3348,-0.8217,1.7283,10.2739,2.9202,4.4210,3.6991,7.6002,6.7334,-3.9546,-6.3610,3.8700,-3.3089,-13.3860,10.0471,0.4280
2683.5938,5.3259,5.3810,4.2848,5.9280,-0.6394,-0.7400,8.7804,4.6862,3.9791,2.7396,6.2337,8.6149,-0.5519,-3.9184,3.2796,0.3714,-8.4165,10.9728,2.1926
2687.5000,4.7148,3.9482,3.4566,6.4652,0.6635,-0.8587,8.1646,7.1979,2.9384,0.8415,3.7948,10.0949,4.0034,0.0797,0.9359,3.6498,-2.7178,12.1413,5.3330
2691.4062,4.3794,3.0379,4.0851,7.0646,3.0523,0.1791,8.3408,10.1194,1.9968,-1.4877,1.5477,11.1985,8.9255,5.3639,-1.9735,5.9232,3.0927,13.4175,9.2479
2695.3125,3.9577,2.7826,5.1917,7.6523,6.0689,1.1923,8.6693,12.7691,1.3902,-3.7260,0.0827,11.5739,13.1240,11.1946,-4.4510,6.7298,8.4564,14.1659,12.6913
2699.2188,2.9181,2.5874,5.5041,8.0799,9.0096,1.1960,8.3102,14.4171,0.8457,-5.5678,-0.8227,10.8206,15.7515,16.6360,-6.0112,6.1188,13.0477,13.6480,14.4981
2703.1250,1.0873,1.6963,4.2429,8.2687,11.2072,-0.6814,6.6512,14.6066,-0.0204,-6.8852,-1.7091,8.9594,16.6344,20.9142,-6.6640,4.7736,16.8270,11.5777,14.2996
2707.0312,-1.0009,-0.0707,1.6295,8.2622,12.2874,-5.0682,3.6195,13.3394,-1.1661,-7.4896,-2.7207,6.6671,16.3275,23.6635,-6.6483,3.7603,19.9369,8.4617,12.7551
2710.9375,-2.2457,-1.9982,-1.1949,8.1465,12.2706,-11.7979,-0.2390,11.0359,-1.8928,-6.9597,-3.2488,5.0460,15.7503,24.9303,-6.1094,4.0198,22.4913,5.4565,11.1276
2714.8438,-1.5958,-2.8759,-2.8211,7.8925,11.4570,-19.3036,-3.9463,8.2963,-1.1756,-4.7801,-2.2527,5.0107,15.6062,24.9476,-4.9232,5.8845,24.3720,3.7665,10.4490
2718.7500,1.2166,-1.8763,-2.4361,7.2394,10.1535,-24.6602,-6.4902,5.5889,1.5901,-0.7837,0.9174,6.6627,15.9133,23.8347,-2.7778,8.8863,25.1548,3.9068,10.7901
2722.6562,5.3185,0.7215,-0.3931,5.7272,8.4142,-24.6776,-7.2851,3.0408,5.9248,4.4012,5.7755,9.0699,15.9232,21.4331,0.5162,11.9478,24.2331,5.2839,11.1058
2726.5625,9.0109,3.5294,1.8817,2.9115,5.9881,-17.6732,-6.4756,0.4582,10.2071,9.3033,10.6175,10.6482,14.5030,17.4210,4.6646,13.8445,21.1164,6.3976,9.7935
2730.4688,10.6354,4.8474,2.6437,-1.3209,2.5533,-4.8674,-4.8902,-2.4234,12.3959,12.1481,13.2713,9.9732,10.8026,11.6734,8.7280,13.7086,15.7827,5.6195,5.6711
2734.3750,9.4954,3.7567,0.8380,-6.5015,-1.8833,9.6472,-3.6120,-5.6043,11.1723,11.7631,12.2798,6.5747,4.8561,4.6544,11.3439,11.3550,8.9034,2.1380,-1.1841
2738.2812,6.2616,0.7594,-3.2337,-11.5756,-6.6994,20.6137,-3.3760,-8.6308,6.8021,8.3107,7.7831,1.2482,-2.2289,-2.4495,11.3139,7.3191,1.7771,-3.4779,-9.2475
2742.1875,2.5815,-2.5020,-8.0195,-15.2274,-10.7474,24.1562,-4.1560,-10.7172,1.1240,3.3336,1.5165,-4.3102,-8.6497,-8.0336,8.2901,2.6219,-4.0738,-9.4641,-16.1684
2746.0938,0.1058,-4.2938,-11.5840,-16.4489,-12.8641,19.7022,-5.2361,-11.1630,-3.4097,-1.0007,-4.1128,-8.3476,-12.7026,-10.7417,3.1544,-1.6300,-7.5083,-13.7374,-19.9018
2750.0000,-0.4769,-3.9187,-12.7455,-15.0901,-12.5418,10.1284,-5.7573,-9.8382,-5.0928,-3.0534,-7.3125,-9.9016,-13.5967,-10.1598,-2.2160,-4.6486,-8.2900,-14.9828,-19.7395
2753.9062,0.2048,-2.1712,-11.7956,-12.0752,-10.3305,0.0499,-5.3896,-7.4120,-3.8970,-2.5751,-7.7672,-9.1834,-11.8364,-7.1150,-5.7806,-6.2159,-7.2226,-13.3246,-16.6632
2757.8125,0.6845,-0.8142,-10.3337,-9.0869,-7.6497,-6.7048,-4.6480,-5.1205,-1.3905,-0.7429,-6.5696,-7.3092,-8.9371,-3.3383,-6.3735,-6.6747,-5.7611,-10.1853,-12.8004
2761.7188,-0.3348,-1.4303,-10.2846,-7.7968,-6.0402,-8.9325,-4.5879,-4.1431,0.2992,0.6392,-5.3309,-5.5803,-6.6030,-0.6135,-4.3598,-6.6561,-5.2461,-7.4215,-10.2708
2765.6250,-3.0961,-4.4052,-12.6796,-8.9982,-6.2695,-8.1971,-6.0501,-4.9287,-0.1880,0.2637,-5.0974,-4.7577,-5.8162,0.1338,-1.4808,-6.6736,-6.1590,-6.2628,-10.0609
2769.5312,-6.5970,-8.6888,-16.9463,-12.1103,-7.8430,-7.3430,-8.9715,-6.8884,-2.6646,-1.9361,-5.7845,-4.7433,-6.3548,-0.7185,0.0979,-6.8038,-7.8311,-6.6916,-11.5510
2773.4375,-9.2137,-12.4451,-21.1472,-15.3698,-9.2527,-8.4187,-12.2687,-8.6739,-5.6208,-4.8531,-6.4432,-4.8027,-7.0097,-1.7792,-0.9678,-6.6515,-8.8126,-7.6057,-12.9410
2777.3438,-9.7291,-14.1172,-23.0223,-16.6587,-8.8397,-11.3335,-14.4153,-8.9045,-7.2491,-6.9793,-6.0893,-4.1261,-6.3601,-1.4958,-4.3819,-5.6427,-7.7197,-7.6089,-12.3064
2781.2500,-8.0954,-13.2101,-21.2021,-14.5527,-5.7505,-14.0414,-14.3417,-6.9151,-6.5610,-7.3450,-4.4671,-2.3484,-3.6306,0.9478,-8.3282,-3.4814,-4.0741,-5.8909,-8.6614
2785.1562,-5.4401,-10.3438,-15.8758,-9.0295,-0.4109,-14.0796,-12.0514,-3.0789,-3.8813,-6.0325,-2.2169,0.2771,0.8763,5.2200,-10.4958,-0.4774,1.3732,-2.6443,-2.4409
2789.0625,-3.3296,-6.6598,-8.5716,-1.4617,5.7470,-10.4629,-8.5466,1.4699,-0.4720,-4.0011,-0.3793,3.0980,5.9989,10.1215,-9.4298,2.4990,7.0375,1.1887,4.8084
2792.9688,-2.7876,-3.0727,-1.2626,6.0795,11.0897,-4.7136,-5.1415,5.5080,2.3742,-2.4225,0.3614,5.4715,10.3967,14.3154,-5.4100,4.4496,11.3741,4.5925,11.2655
2796.8750,-3.7062,0.1103,4.6054,11.7974,14.5902,-0.2955,-2.6648,8.3450,4.1122,-2.0005,0.1361,7.0742,13.2340,16.9996,-0.3247,4.8279,13.6852,7.0759,15.6628
2800.7812,-5.0119,3.0226,8.5959,14.8834,16.1590,-0.6514,-1.0929,10.0220,5.1001,-2.6795,-0.2524,7.9415,14.4514,18.1060,3.3986,3.8987,14.3582,8.8022,17.6548
2804.6875,-5.4326,5.7682,11.0887,15.6274,16.3766,-6.9155,0.1880,11.0221,6.1118,-3.8351,0.0714,8.2788,14.5154,17.9783,4.1735,2.6277,14.4078,10.2267,17.6259
2808.5938,-4.3341,8.0847,12.6691,14.9607,15.9031,-16.6893,1.7570,11.7620,7.6261,-4.7277,1.4451,8.2264,13.8972,16.8533,2.1261,2.1365,14.6508,11.5629,16.1954
2812.5000,-2.0837,9.4154,13.5721,13.7804,15.0071,-24.7994,3.6643,12.2474,9.4132,-4.8982,3.4591,7.7520,12.6806,14.5850,-1.0628,3.0368,15.0830,12.4891,13.8081
2816.4062,0.2496,9.3056,13.5271,12.4741,13.5052,-25.8688,5.4048,12.1178,10.6662,-4.3166,5.2312,6.7123,10.5721,10.8317,-3.2408,5.0431,14.8820,12.2947,10.6486
2820.3125,1.5920,7.7728,12.0215,10.8715,11.0730,-17.4026,6.3098,10.9948,10.5178,-3.3066,5.9142,4.9915,7.2730,5.5554,-3.1369,7.0980,13.0326,10.3365,6.8351
2824.2188,1.4613,5.3307,8.7253,8.5619,7.6435,-1.6008,6.0015,8.8407,8.5427,-2.3935,5.0705,2.5957,2.9188,-0.5705,-1.1673,7.9340,9.1471,6.4738,2.6542
2828.1250,0.0879,2.6407,3.7740,5.3109,3.5954,15.3307,4.5667,6.0529,4.9244,-2.1817,2.7213,-0.3467,-1.7496,-6.1927,0.7937,6.7420,3.9172,1.2018,-1.3787
2832.0312,-1.9396,0.0687,-2.2344,1.3128,-0.3649,26.2039,2.3775,3.2467,0.2554,-3.2491,-0.8455,-3.6291,-5.6144,-9.7893,0.5405,3.5711,-1.1191,-4.5594,-4.6694
2835.9375,-4.1674,-2.4940,-8.4562,-2.8375,-3.4998,26.5991,-0.2145,0.9129,-4.7981,-5.9832,-5.2672,-6.9793,-7.6769,-10.3642,-3.1052,-0.7352,-4.3602,-9.8387,-6.7651
2839.8438,-6.5168,-5.3978,-14.0611,-6.3842,-5.3041,17.1825,-3.0239,-0.7911,-9.6988,-10.3487,-10.1297,-10.0287,-7.5190,-7.9109,-9.5102,-4.9856,-4.9851,-13.9124,-7.4776
2843.7500,-9.1177,-8.7766,-18.4086,-8.7053,-5.6117,3.2049,-5.9211,-1.9950,-14.0216,-15.7051,-14.8674,-12.3085,-5.4775,-3.3889,-16.4789,-8.1876,-3.3458,-16.4086,-6.8566
2847.6562,-11.9227,-12.2353,-21.1254,-9.5205,-4.5736,-8.5143,-8.6326,-2.9036,-17.3443,-20.8553,-18.7339,-13.3603,-2.4672,1.7294,-21.3937,-9.9049,-0.7036,-17.2636,-5.0987
2851.5625,-14.4614,-14.9470,-22.1272,-8.9515,-2.5979,-13.2821,-10.7052,-3.6189,-19.2418,-24.4123,-20.9856,-12.9548,0.4131,6.0477,-22.5878,-10.2864,1.4798,-16.6506,-2.5086
2855.4688,-15.9806,-16.1065,-21.6022,-7.4396,-0.2956,-10.7164,-11.7230,-4.1320,-19.4509,-25.3654,-21.2209,-11.2934,2.2775,8.6626,-20.1729,-9.8318,2.2403,-14.9369,0.4678
2859.3750,-15.8973,-15.4102,-19.9268,-5.5602,1.6200,-4.2796,-11.6058,-4.4435,-18.0759,-23.5583,-19.6358,-9.0212,2.6937,9.2755,-15.8723,-9.0814,1.4125,-12.6313,3.2330
2863.2812,-14.2339,-13.2084,-17.4976,-3.7946,2.5448,1.2413,-10.7042,-4.6502,-15.6265,-19.7918,-16.9729,-6.9766,1.7276,8.0763,-11.9877,-8.4018,-0.5462,-10.2515,5.1659
2867.1875,-11.6898,-10.2339,-14.5467,-2.3425,2.2661,2.5085,-9.5607,-4.8788,-12.7931,-15.4603,-14.1437,-5.7848,-0.1572,5.5642,-10.1140,-7.9381,-2.9797,-8.1271,5.8808
2871.0938,-9.2607,-7.1352,-11.0739,-1.0706,1.1496,-1.0235,-8.5022,-5.1052,-10.0836,-11.8997,-11.7512,-5.5391,-2.2790,2.4088,-10.3358,-7.6850,-5.3777,-6.2610,5.4622
2875.0000,-7.6452,-4.1846,-6.9890,0.3446,0.0451,-7.6522,-7.4074,-5.0397,-7.5869,-9.7946,-9.8271,-5.7853,-3.9514,-0.6581,-11.3381,-7.5824,-7.4554,-4.3884,4.4685
2878.9062,-6.8414,-1.3747,-2.4082,2.1307,-0.1208,-14.9556,-5.8805,-4.2350,-5.0565,-8.9589,-7.9576,-5.8395,-4.7010,-2.9853,-11.3301,-7.5712,-9.0292,-2.2489,3.6374
2882.8125,-6.2185,1.2123,2.1094,4.1500,1.1271,-20.9615,-3.7257,-2.4006,-2.2757,-8.5838,-5.7050,-5.2443,-4.4382,-4.1787,-9.2220,-7.5975,-9.8950,0.0905,3.4404
2886.7188,-5.0230,3.1129,5.6079,5.8418,3.4909,-24.2960,-1.3344,0.2882,0.5586,-7.7938,-3.0356,-4.0728,-3.5042,-4.2260,-5.3692,-7.6026,-9.8626,2.1002,3.7762
2890.6250,-2.9895,3.5687,7.1170,6.4661,6.0132,-23.7745,0.3827,3.1405,2.7299,-6.1947,-0.4748,-2.8866,-2.5391,-3.4549,-1.4598,-7.5253,-8.9126,2.9806,4.0277
2894.5312,-0.6520,1.9835,6.1666,5.5368,7.5878,-18.4182,0.5499,5.2516,3.2858,-4.1300,1.0951,-2.3890,-2.1918,-2.3116,0.3917,-7.3193,-7.2974,2.0923,3.4623
2898.4375,0.8524,-1.5768,3.0984,3.1778,7.5597,-8.3371,-1.0078,5.9959,1.5511,-2.5304,0.8540,-3.0032,-2.7940,-1.0851,-1.1602,-6.9606,-5.4369,-0.6481,1.7191
2902.3438,0.3760,-6.2409,-1.0639,0.1448,6.0470,4.1864,-3.5000,5.3878,-2.4502,-2.4457,-1.5623,-4.6391,-4.1625,0.2311,-5.8668,-6.4302,-3.6390,-4.6688,-0.9386
2906.2500,-2.5894,-10.7049,-5.1285,-2.5431,3.7999,14.6900,-5.5677,4.0609,-7.9208,-4.4950,-5.8737,-6.7601,-5.6478,1.8344,-11.8847,-5.6825,-1.8560,-9.0019,-3.7606
2910.1562,-7.5643,-13.8960,-8.3117,-4.1533,1.7207,18.2988,-6.1214,2.8606,-13.5925,-8.4910,-11.2084,-8.6616,-6.4159,3.8400,-16.6163,-4.6324,0.2981,-12.7193,-5.9239
2914.0625,-13.2038,-15.4766,-10.5065,-4.6247,0.3702,12.5369,-5.0568,2.3151,-18.2076,-13.4148,-16.3281,-9.7598,-5.8249,6.0552,-17.9601,-3.1912,3.2239,-15.2580,-6.9392
2917.9688,-17.8090,-15.8496,-12.0967,-4.5329,-0.2379,-0.6835,-3.3416,2.3230,-20.9148,-17.7624,-19.9472,-9.7393,-3.7071,7.9947,-15.3339,-1.3442,6.9101,-16.4616,-6.8004
2921.8750,-19.9742,-15.6948,-13.4939,-4.6613,-0.4834,-15.5467,-2.4003,2.2522,-21.4248,-20.1279,-21.0946,-8.5482,-0.4280,9.1530,-9.9482,0.7715,10.7229,-16.3956,-5.8377
