Time,Fp1,F3,C3,P3,O1,F7,T3,T5,Fz,Fp2,F4,C4,P4,O2,F8,T4,T6,Cz,Pz
0.0000,-3.1510,-1.0925,-0.3819,4.4707,5.7089,-1.9490,-9.6512,4.8393,-4.9111,-2.7291,-5.0481,-4.7510,2.9520,7.5518,-2.3068,-0.1363,2.0723,-2.6695,1.3005
3.9062,-2.0021,-2.0025,-0.6206,4.9601,5.2662,-2.2866,-14.9600,5.2715,-4.9773,-2.6587,-4.8959,-2.7665,4.4487,8.0250,-4.5871,2.3134,3.6261,-0.6734,1.8280
7.8125,0.3395,-3.1361,-0.5336,4.2904,3.4240,-2.3617,-18.1119,4.7152,-4.8213,-2.0064,-4.1963,-0.0510,4.4279,7.3086,-6.7676,4.6745,4.7962,1.6467,2.0170
11.7188,3.3353,-4.0189,-0.3974,2.2141,0.2662,-2.0755,-16.4426,2.9540,-4.0949,-0.5321,-2.7618,2.7414,2.3090,5.0920,-7.4472,5.9456,4.8300,3.7123,1.6172
15.6250,6.2002,-4.1713,-0.2988,-0.5925,-3.2534,-1.5251,-9.6802,0.4599,-2.5176,1.6970,-0.7514,4.9984,-1.1038,1.8286,-5.8272,5.7014,3.5206,5.2056,0.8758
19.5312,8.3154,-3.3034,0.1678,-2.8228,-5.8088,-1.0262,-0.5947,-1.8429,-0.1562,4.2052,1.2831,6.3831,-3.9873,-1.5183,-2.3145,4.4539,1.3625,6.1464,0.4447
23.4375,9.4492,-1.4252,1.7028,-3.3929,-6.5756,-1.0311,6.4094,-3.1803,2.4211,6.2375,2.6197,6.8444,-4.7103,-4.0994,1.6579,3.3956,-0.7670,6.6579,0.8977
27.3438,9.6653,1.1488,4.6177,-2.2821,-5.8567,-1.9267,8.0602,-3.4771,4.2998,7.0979,2.7779,6.4875,-3.0457,-5.7112,4.5281,3.6136,-2.1835,6.6581,2.1896
31.2500,9.0654,3.8743,8.1671,-0.7014,-4.9406,-3.7599,4.5339,-3.4276,4.6873,6.5277,1.8758,5.4870,-0.4360,-6.8224,5.6123,5.2713,-2.8092,5.8041,3.5050
35.1562,7.6508,6.0942,10.5370,-0.3559,-5.2062,-6.0280,-0.4075,-3.9845,3.4460,4.8942,0.6685,4.1351,0.9912,-8.0656,5.4970,7.3443,-3.1152,3.8149,3.6945
39.0625,5.4683,7.1791,9.7329,-2.2452,-7.0767,-7.7116,-1.7891,-5.6028,1.3258,3.0536,0.1750,2.9235,0.0089,-9.6011,5.5094,8.1767,-3.6410,0.9417,2.0568
42.9688,2.9138,6.6844,4.9166,-5.8582,-9.6060,-7.6490,3.1439,-7.8016,-0.3403,1.9324,1.0710,2.4591,-2.7014,-10.8894,6.6305,6.5667,-4.4693,-1.8534,-1.0861
46.8750,0.8604,4.5031,-2.7271,-9.4147,-11.0801,-5.1501,12.7854,-9.4168,-0.3763,2.0465,3.2195,3.1291,-4.9458,-11.1078,8.6418,2.6891,-5.0797,-3.2905,-4.4777
50.7812,0.3537,0.9629,-10.3261,-11.0740,-10.2778,-0.5389,21.9286,-9.4293,1.4902,3.2199,5.6707,4.6988,-4.6246,-9.9272,10.1613,-1.7955,-4.7249,-2.5770,-6.6840
54.6875,1.9549,-3.1896,-14.8138,-10.2891,-7.5090,4.7399,25.0735,-7.7985,4.3742,4.6648,7.1868,6.1983,-1.4075,-8.0312,9.5968,-4.5902,-3.0612,-0.0718,-7.0236
58.5938,5.1692,-6.9460,-14.6876,-8.2976,-4.6401,8.6309,20.1040,-5.6699,6.6984,5.3875,7.0018,6.3480,2.7969,-6.8978,6.3769,-4.0792,-0.5542,2.7524,-6.0140
62.5000,8.4482,-9.3013,-10.8717,-7.3063,-3.9923,9.4150,9.7967,-4.7216,7.1368,4.7179,5.3433,4.3898,5.0154,-7.8948,1.5891,-0.2949,1.6758,4.1547,-4.9960
66.4062,9.9246,-9.5464,-6.0697,-8.8627,-6.8011,6.6128,0.0707,-6.0239,5.4550,2.6922,3.3617,0.8093,3.2613,-11.2777,-2.4658,5.0737,2.4995,3.2844,-5.1762
70.3125,8.5040,-7.4950,-3.0135,-12.5502,-12.2653,1.3235,-3.8561,-9.1693,2.6965,0.0955,2.4801,-2.6251,-1.9898,-15.8103,-3.5643,9.6180,1.4832,0.8506,-6.7524
74.2188,4.6137,-3.5743,-2.7800,-15.9901,-17.8494,-4.2346,-0.7662,-12.3064,0.5761,-1.8716,3.5511,-3.7074,-7.9794,-19.3295,-0.8800,11.4809,-0.8309,-1.2297,-8.7371
78.1250,0.0548,1.2466,-4.2966,-16.2540,-20.6754,-7.7624,6.0525,-13.1389,0.4559,-2.1586,6.3464,-1.1166,-11.4098,-19.9338,4.5105,10.1814,-3.2518,-1.0484,-9.6057
82.0312,-3.0224,5.6877,-5.3185,-11.8037,-19.1323,-7.9472,11.3600,-10.3122,2.5563,-0.4012,9.6942,4.5973,-10.5452,-17.0474,10.2487,6.5698,-4.6397,1.9974,-8.3236
85.9375,-3.3907,8.5093,-4.1361,-3.6699,-13.7231,-5.0025,11.6928,-4.3317,5.8906,2.8407,12.1728,11.0658,-6.2250,-11.7039,14.0318,2.1006,-4.5067,6.7122,-5.0555
89.8438,-1.4272,8.9081,-0.7951,4.9308,-6.6993,-0.4371,7.6135,2.5650,8.9258,6.2923,12.9134,15.2778,-1.1481,-5.9291,14.8233,-1.9801,-3.1559,10.7729,-1.0991
93.7500,1.2568,6.8312,2.9912,10.3146,-0.8123,3.7581,2.9661,7.5167,10.5056,8.5587,12.0200,15.2355,1.9796,-1.6801,13.2180,-4.9987,-1.3450,12.1310,1.8711
97.6562,2.9820,3.0657,5.0935,10.2979,2.0042,6.0433,1.8168,8.4771,10.4353,8.8318,10.3793,11.0993,2.0880,-0.0158,10.8156,-6.6790,0.2225,10.2226,2.7233
101.5625,3.1509,-0.9897,4.4358,5.2178,1.2948,5.9284,5.3862,5.1670,9.4047,7.3350,9.0391,5.1158,0.0866,-0.9159,9.0877,-6.7869,1.2129,6.2107,1.3731
105.4688,2.5758,-3.8346,1.6411,-2.5092,-2.1113,4.0196,11.1897,-0.9359,8.3901,5.2324,8.5878,0.3648,-2.1628,-3.6691,8.4991,-5.0466,1.6340,2.1621,-1.3650
109.3750,2.7605,-4.4655,-1.5308,-9.8574,-6.8021,1.5861,14.9138,-7.4601,8.0004,4.0022,8.9222,-0.9164,-3.3243,-7.4018,8.4216,-1.4610,1.5959,-0.2282,-4.3671
113.2812,4.6552,-2.7917,-3.4607,-14.6880,-11.4459,-0.0988,13.5605,-12.2899,8.1989,4.5939,9.4876,1.5506,-3.3784,-11.3507,7.8193,3.2728,1.1332,-0.5100,-6.7797
117.1875,7.7871,0.3433,-3.7123,-16.4236,-15.0816,-0.3544,7.5441,-14.3756,8.5102,6.8491,9.7523,6.1267,-3.2312,-14.8096,6.1809,7.7367,0.2467,0.5519,-8.2513
121.0938,10.4101,3.5545,-3.1386,-15.7262,-17.0782,0.5946,0.2913,-13.8786,8.4676,9.5502,9.5534,10.3229,-3.6211,-17.0021,4.0358,10.3714,-0.9080,1.7421,-8.7932
125.0000,10.5992,5.5259,-3.0739,-13.6631,-17.0373,1.7089,-4.2432,-11.7513,7.9376,11.1001,9.0990,12.1843,-4.3161,-17.1792,2.6931,10.3684,-1.9156,2.2565,-8.5094
128.9062,7.5544,5.5383,-4.2706,-11.0427,-14.8513,1.6227,-4.2763,-9.1238,7.1155,10.4516,8.6896,11.1845,-4.2901,-14.9973,3.3800,8.2428,-2.2471,2.0601,-7.4634
132.8125,2.2290,3.6769,-6.3442,-8.2795,-10.8863,-0.6380,-1.2132,-6.8503,6.2737,7.7334,8.4242,8.2250,-2.7219,-10.9227,6.3587,5.5996,-1.6053,1.6005,-5.7582
136.7188,-3.1348,0.6720,-8.0617,-5.6540,-6.0740,-5.0255,1.5942,-5.3605,5.5159,4.1966,8.1288,4.9076,0.0309,-6.2991,10.6248,4.1601,-0.2231,1.2290,-3.6964
140.6250,-6.2462,-2.4855,-8.1969,-3.5607,-1.7261,-10.2948,1.3008,-4.7378,4.7313,1.5185,7.5411,2.6226,2.3288,-2.9071,14.4108,4.6756,1.1370,0.8457,-1.8220
144.5312,-5.9770,-4.9387,-6.3409,-2.4625,0.9109,-14.4813,-2.5530,-4.8596,3.7397,0.8891,6.5678,1.9745,2.1877,-2.1894,16.1881,6.4818,1.5380,0.0250,-0.7604
148.4375,-2.8152,-6.2094,-3.1652,-2.6136,1.1438,-15.8782,-7.9344,-5.4962,2.4616,2.4179,5.3872,2.7448,-1.3789,-4.5591,15.5314,8.0222,0.3862,-1.5408,-0.9452
152.3438,1.6155,-6.2557,-0.0524,-3.8453,-0.9012,-14.0092,-11.8319,-6.3688,0.9614,5.1658,4.3099,4.2383,-7.5660,-9.1755,13.2910,7.9795,-2.2021,-3.6818,-2.4076
156.2500,5.5392,-5.3890,1.6164,-5.6384,-4.3591,-9.9998,-12.1683,-7.2148,-0.6302,7.7142,3.5306,5.7039,-14.0894,-14.3004,10.9727,6.2198,-5.4040,-5.7673,-4.7471
160.1562,7.8408,-4.1111,1.1043,-7.4291,-7.9901,-6.0453,-8.8274,-7.8677,-2.1829,8.8811,2.9986,6.6076,-18.3852,-18.0337,9.7428,3.8879,-8.0563,-7.0586,-7.2739
164.0625,8.2825,-2.9120,-1.3843,-8.8808,-10.6397,-4.2162,-3.3426,-8.3023,-3.5133,8.1883,2.5390,6.7265,-18.9001,-19.0623,9.7192,2.6058,-9.1665,-7.0994,-9.2243
167.9688,7.1890,-2.0646,-4.8084,-9.8980,-11.6103,-5.2934,2.2237,-8.5886,-4.2587,5.9149,2.1339,6.1562,-15.6970,-17.1071,10.0118,3.3565,-8.3055,-5.8615,-9.9649
171.8750,5.0177,-1.4965,-7.7071,-10.4135,-10.8416,-8.3453,6.2913,-8.7700,-3.8627,2.8531,2.1128,5.3005,-10.1384,-12.9361,9.4622,5.8340,-5.7205,-3.6111,-9.1546
175.7812,2.1937,-0.8320,-8.7828,-10.2092,-8.8717,-11.3189,8.1148,-8.7588,-1.8134,-0.0017,3.0406,4.8096,-4.0268,-8.0025,7.5611,8.6738,-2.1806,-0.6973,-6.8715
179.6875,-0.7534,0.3599,-7.4735,-9.0062,-6.6042,-12.2690,7.6101,-8.3545,1.9359,-1.6844,5.3159,5.3868,1.1753,-3.8770,4.9043,10.3425,1.3212,2.5127,-3.6696
183.5938,-3.0398,2.2200,-4.2919,-6.7977,-4.9433,-10.4578,5.1445,-7.4014,6.6520,-1.4478,8.7383,7.4503,4.6519,-1.6798,2.8696,10.0375,3.8723,5.5278,-0.4872
187.5000,-3.7822,4.3793,-0.7142,-4.1303,-4.4200,-6.6677,1.5782,-5.9803,10.9224,1.0048,12.3756,10.7933,6.1196,-1.7053,2.7303,8.0163,4.8717,7.6549,1.6479
191.4062,-2.4919,6.0688,1.4497,-2.0079,-4.9709,-2.6150,-1.6471,-4.4729,13.2347,5.2536,14.8955,14.4695,5.6229,-3.3785,4.7996,5.2440,4.1636,8.1695,2.0484
195.3125,0.4230,6.5564,0.9801,-1.3712,-6.0046,0.0722,-2.8078,-3.4104,12.7565,10.0470,15.2212,17.0648,3.4956,-5.5737,8.1735,2.7324,2.0686,6.7345,0.7257
199.2188,3.5886,5.6599,-2.0169,-2.4665,-6.7494,0.6305,-0.7347,-3.1762,9.8399,13.5658,13.1374,17.3038,0.4533,-7.1654,11.2357,1.0808,-0.7002,3.7958,-1.5588
203.1250,5.2240,3.9672,-6.0433,-4.5757,-6.7053,-0.7269,4.2441,-3.7607,5.9051,14.1087,9.4824,14.7092,-2.4311,-7.5512,12.5972,0.4638,-3.2376,0.5951,-3.6410
207.0312,4.0716,2.5525,-8.9489,-6.3612,-5.9274,-3.2714,10.0137,-4.7507,2.7416,10.9379,5.7998,9.9556,-4.0443,-6.8741,11.8836,0.9039,-4.7237,-1.3310,-4.5418
210.9375,0.1410,2.3254,-9.1026,-6.6451,-4.9572,-6.3357,13.5079,-5.5831,1.6388,4.8080,3.6428,4.6898,-3.7406,-5.8261,9.9170,2.4609,-4.6929,-0.9279,-3.9579
214.8438,-5.2218,3.4439,-6.2940,-5.1065,-4.4408,-9.5720,12.3747,-5.8939,2.8543,-2.1984,3.9075,0.8761,-1.7065,-5.1660,8.2284,5.1183,-3.1911,1.8094,-2.3500
218.7500,-10.0049,5.2225,-1.7954,-2.4241,-4.6946,-12.7993,6.4999,-5.7186,5.6862,-7.5374,6.5248,-0.0214,1.1094,-5.2603,8.2214,8.4879,-0.7582,5.8576,-0.5775
222.6562,-12.5391,6.6325,2.4509,0.2165,-5.5170,-15.7019,-1.6276,-5.3986,9.0139,-9.3520,10.6076,2.3752,3.5017,-5.9395,10.4579,11.6741,1.7576,9.7656,0.6722
226.5625,-12.2470,7.0465,4.9665,1.8712,-6.3774,-17.7251,-8.0524,-5.2724,11.8960,-7.2923,14.9003,7.2556,4.6251,-6.7412,14.4027,13.5427,3.4821,12.4303,1.2619
230.4688,-9.7363,6.6651,5.4317,2.2936,-6.8398,-18.2984,-9.3887,-5.4020,13.8591,-2.5777,18.2653,12.9899,4.3219,-7.3459,18.6894,13.3036,3.7989,13.5323,1.5301
234.3750,-6.2836,6.2703,4.5171,1.7996,-6.9100,-17.2025,-4.5950,-5.5648,14.7953,2.6895,19.9949,17.7413,2.9737,-7.8814,21.7275,11.0212,2.5494,13.3843,1.8293
238.2812,-3.1090,6.4601,3.0734,0.7183,-7.0501,-14.7657,4.4883,-5.5315,14.6866,6.5393,19.8926,20.0385,1.0531,-8.8726,22.3615,7.6711,0.0936,12.3857,2.0416
242.1875,-0.8939,6.9519,1.3714,-1.0582,-7.8403,-11.7159,14.0467,-5.3991,13.4582,7.9288,18.1921,19.1328,-1.2418,-10.8616,20.3146,4.6595,-2.7889,10.5588,1.4838
246.0938,0.2619,6.5546,-0.9757,-3.9926,-9.5171,-8.7959,20.0512,-5.6644,11.0898,6.9688,15.4140,15.1245,-3.9754,-13.9487,16.2530,3.0948,-5.1414,7.5607,-0.6422
250.0000,0.5802,3.9461,-4.3387,-8.2932,-11.7000,-6.4222,19.9370,-6.8936,7.8547,4.5968,12.2144,8.9227,-7.1115,-17.5479,11.4449,3.2585,-6.1500,3.1760,-4.5017
253.9062,0.3373,-1.2295,-8.2143,-13.2540,-13.4871,-4.6067,13.5058,-9.1706,4.4277,1.9901,9.2310,2.0707,-10.1247,-20.5155,7.1546,4.5645,-5.4335,-2.1055,-9.1023
257.8125,-0.2093,-7.7454,-10.9638,-17.1514,-13.8650,-3.1277,2.8743,-11.7393,1.7065,0.0591,6.9280,-3.5981,-11.9590,-21.5900,4.0560,5.9621,-3.1868,-6.9249,-12.4475
261.7188,-0.7427,-13.1926,-10.5321,-17.9546,-12.1982,-1.7604,-8.2980,-13.1999,0.4289,-0.7964,5.4803,-6.5048,-11.4660,-19.9340,1.9813,6.4800,-0.1086,-9.5379,-12.4300
265.6250,-0.8556,-15.2528,-5.7879,-14.5178,-8.5447,-0.3819,-15.9684,-12.2564,0.8346,-0.6824,4.7562,-5.9538,-8.0992,-15.5444,0.1716,5.6046,2.8591,-8.7194,-8.0348
269.5312,-0.2131,-13.0595,2.4181,-7.4964,-3.6642,1.0687,-16.9965,-8.5936,2.5923,-0.0706,4.4272,-2.5634,-2.4277,-9.3708,-2.1005,3.3705,4.8657,-4.5370,-0.1452
273.4375,1.1522,-7.7516,11.2942,0.6910,1.2513,2.6447,-10.3179,-3.2830,5.0107,0.3873,4.1597,1.8343,3.8933,-3.0892,-4.9376,0.2489,5.4164,1.5143,8.6037
277.3438,2.6605,-1.8257,17.3848,6.9648,4.9919,4.3479,2.3553,1.6430,7.3611,0.0750,3.7820,4.9404,8.7455,1.4225,-7.6825,-3.0263,4.4714,7.1484,14.9572
281.2500,3.3471,2.3092,18.3833,9.1705,6.7308,6.0208,16.7553,4.2747,9.1038,-1.3479,3.3361,5.1146,10.4603,2.7621,-9.3804,-5.6376,2.3777,10.3570,16.6007
285.1562,2.3718,3.6529,14.3784,7.2085,6.2819,7.3378,27.4455,3.9264,9.9391,-3.7380,2.9937,2.2854,8.5549,0.5918,-9.5368,-6.9034,-0.2926,10.3209,13.2907
289.0625,-0.3931,2.9838,7.7468,3.0021,4.1294,8.0073,30.0612,1.5401,9.7672,-6.4102,2.9084,-1.9383,3.9226,-4.1374,-8.6048,-6.5469,-2.9151,7.6798,6.9053
292.9688,-4.0836,2.1072,1.7446,-0.6964,1.2101,8.0907,23.4586,-0.9008,8.6853,-8.3294,3.1056,-5.1257,-1.5968,-9.5075,-7.7821,-4.9053,-4.9512,4.0618,0.3746
296.8750,-7.1135,2.5467,-1.3404,-1.9421,-1.4786,8.1613,10.5985,-1.6011,7.0495,-8.5263,3.4740,-5.4213,-6.0288,-13.4327,-8.1966,-2.8908,-6.0508,1.1874,-3.8887
300.7812,-7.9149,4.5664,-1.3539,-0.6754,-3.2772,9.0693,-2.5352,-0.0447,5.4836,-6.5683,3.8397,-2.6535,-8.0588,-14.5840,-10.0554,-1.6067,-6.1274,0.0605,-5.1443
304.6875,-5.7663,7.1228,-0.0852,1.4128,-4.0664,11.3594,-9.6648,2.7538,4.7002,-2.8448,4.0560,1.5578,-7.4588,-12.9531,-12.4218,-1.7618,-5.3836,0.6520,-4.4115
308.5938,-1.2443,8.6860,0.0948,2.1152,-4.1616,14.7091,-7.2839,4.9832,5.1426,1.5019,4.0469,4.8047,-5.0030,-9.7289,-13.8531,-3.2271,-4.2474,2.1649,-3.5050
312.5000,3.9748,8.3043,-2.1183,0.2433,-3.9696,17.8437,3.5646,5.2491,6.6565,4.9993,3.7987,5.3951,-1.9788,-6.5502,-13.4763,-5.0605,-3.2079,3.6422,-3.6890
316.4062,7.8904,6.1979,-6.0502,-3.5238,-3.6472,19.1203,17.7941,3.4527,8.4651,6.4434,3.3385,3.3964,0.4343,-4.5886,-11.6988,-6.0433,-2.6049,4.5269,-4.8371
320.3125,9.1373,3.5483,-9.4052,-7.0188,-3.0202,17.5064,28.8179,0.7727,9.5575,5.4122,2.7374,0.5401,1.6182,-4.0247,-9.9729,-5.4215,-2.4794,4.8675,-5.6276
324.2188,7.6397,1.7125,-9.6426,-7.9576,-1.8398,13.3457,31.7667,-1.1928,9.2979,2.4734,2.1354,-0.9465,1.6245,-4.2122,-9.7315,-3.3793,-2.5813,5.1016,-4.6048
328.1250,4.6194,1.4282,-5.5332,-5.4341,-0.1938,8.3683,25.6832,-1.5063,7.8556,-1.0086,1.7427,0.1981,0.9420,-4.3545,-11.2629,-0.9292,-2.5404,5.6084,-1.3602
332.0312,1.9528,2.5039,2.0113,-0.5936,1.2665,4.8523,13.6401,-0.4574,6.1303,-3.4011,1.7826,3.4839,0.0988,-4.1700,-13.3871,0.7057,-2.1034,6.3413,2.9842
335.9375,1.2010,4.1119,10.2902,3.9468,1.5289,4.3936,0.9151,0.7339,5.1758,-3.4771,2.3866,7.0596,-0.6577,-4.0611,-14.2295,0.8111,-1.2920,6.7876,6.3329
339.8438,2.8102,5.4093,16.1228,5.5892,-0.2026,7.0146,-7.6282,0.8232,5.4916,-0.9694,3.5007,8.9794,-1.4226,-4.6860,-12.5717,-0.4564,-0.3879,6.2937,6.8626
343.7500,5.9001,6.0548,17.3813,3.2563,-3.9106,11.1501,-9.5429,-0.5885,6.6739,3.2411,4.8713,8.4728,-2.4195,-6.2896,-8.8064,-2.2553,0.2379,4.5611,4.1495
347.6562,8.7593,6.3239,13.9384,-1.9898,-8.5725,14.5223,-5.3220,-2.7990,7.6821,7.4380,6.1314,6.3745,-3.6660,-8.3299,-4.7889,-3.6147,0.3396,1.9968,-0.5391
351.5625,9.8004,6.8076,7.5833,-7.5607,-12.5703,15.3852,2.4850,-4.4941,7.5540,9.8067,6.9432,4.4773,-4.7645,-9.7143,-2.6680,-3.9646,-0.0729,-0.3355,-4.9599
355.4688,8.4635,7.9283,1.0233,-10.8012,-14.5079,13.4253,10.7826,-4.6142,6.0804,9.3042,7.1248,4.3026,-5.0039,-9.5032,-3.5012,-3.3272,-0.7519,-1.1950,-7.1535
359.3750,5.5701,9.5764,-3.4501,-10.4339,-13.9606,9.8377,17.1717,-3.0200,3.9753,6.2386,6.7049,6.1333,-3.7682,-7.5908,-6.5919,-2.1305,-1.3466,0.1587,-6.4797
363.2812,2.9050,11.0811,-4.9293,-7.1754,-11.7049,6.5910,20.4579,-0.5645,2.4359,2.2199,5.9027,8.9165,-1.0343,-4.8817,-9.9495,-0.8600,-1.5711,3.4746,-3.8489
367.1875,2.2336,11.5403,-4.0428,-3.2285,-9.2904,5.3450,20.5325,1.4144,2.4041,-0.5730,5.0603,11.0167,2.3723,-2.8343,-11.4973,0.1840,-1.3253,7.5188,-1.0907
371.0938,4.2915,10.3490,-2.3032,-1.0002,-8.2079,6.6301,18.0361,1.8219,4.0363,-0.4902,4.5572,11.2530,5.0050,-2.6638,-10.2072,0.9034,-0.7306,10.6372,0.0999
375.0000,8.3209,7.6513,-1.0899,-1.7951,-9.1324,9.7013,14.1089,0.3289,6.7073,2.6849,4.7131,9.5426,5.4794,-4.6999,-6.5014,1.2739,-0.0790,11.5980,-0.9740
378.9062,12.4333,4.4428,-0.8601,-5.1886,-11.6426,13.0733,10.2188,-2.5528,9.4854,7.5373,5.6785,6.8236,3.2816,-8.2571,-1.8330,1.2414,0.2846,10.2535,-3.7599
382.8125,14.6078,2.1927,-1.0174,-9.3601,-14.5207,15.3755,7.8500,-5.7978,11.6948,11.6869,7.3418,4.4332,-0.7819,-12.0325,2.1320,0.7431,0.1181,7.6309,-6.8465
386.7188,13.7653,2.1053,-0.4609,-12.1353,-16.4220,16.0242,7.9533,-8.3715,13.1719,13.0042,9.3124,3.4115,-4.8382,-14.7463,4.2038,-0.1806,-0.5792,5.3741,-8.7086
390.6250,10.3159,4.3832,1.5544,-12.1408,-16.5385,15.3550,10.3730,-9.6577,14.0953,10.7341,11.0302,4.1274,-6.8657,-15.6669,3.9724,-1.3037,-1.5163,4.8359,-8.4097
394.5312,5.8887,7.9389,4.7931,-9.4679,-14.9395,14.1960,13.6825,-9.6524,14.6060,5.9109,11.9891,6.3095,-5.8086,-14.8015,1.8042,-2.2484,-2.2069,6.3403,-5.9719
398.4375,2.4290,10.8152,8.0514,-5.5324,-12.4613,13.1957,15.7303,-8.8786,14.5705,0.8231,11.9719,9.2968,-2.2316,-12.7475,-1.2958,-2.6241,-2.1962,9.0447,-2.3078
402.3438,1.2017,11.1762,9.8185,-2.2474,-10.2389,12.3592,14.7387,-8.0719,13.6892,-2.1852,11.1550,12.2855,1.9344,-10.3467,-3.9168,-2.1881,-1.3125,11.4834,1.2156
406.2500,2.2539,8.3471,9.2037,-0.9651,-9.1155,11.1000,10.3541,-7.7635,11.8436,-1.9205,10.0039,14.4951,4.4786,-8.3118,-4.6638,-0.9486,0.2132,12.4584,3.3912
410.1562,4.5873,3.2764,6.5644,-1.7531,-9.2105,8.7676,3.9586,-7.9492,9.3757,1.1073,9.0096,15.3245,4.2120,-6.9628,-2.7683,0.8219,1.8522,11.7293,3.7131
414.0625,6.8563,-1.9115,3.4250,-3.3999,-9.8574,5.2789,-2.0244,-8.0454,7.0367,5.0701,8.4271,14.5567,1.6817,-6.1613,1.3810,2.6519,3.0614,10.0785,2.5943
417.9688,8.1300,-5.0557,1.6864,-4.1619,-9.9655,1.3858,-5.4427,-7.2262,5.6088,7.8956,8.1827,12.5251,-1.1829,-5.4745,6.2120,3.9999,3.5674,8.7215,1.1265
421.8750,8.2704,-5.1259,2.5494,-2.8595,-8.6506,-1.6549,-5.5205,-5.0180,5.4547,8.3912,7.9983,10.0566,-2.3066,-4.5076,9.6604,4.4355,3.4632,8.4521,0.4598
425.7812,7.7666,-2.7147,5.7670,0.3003,-5.8113,-2.8232,-3.0561,-1.8108,6.3098,6.7660,7.6238,8.0932,-0.8105,-3.2307,10.2877,3.8294,3.0592,9.0854,1.1175
429.6875,7.2079,0.4246,9.6746,3.6940,-2.3028,-1.9919,0.3556,1.0976,7.4488,4.2787,6.9962,7.1427,2.4195,-2.0748,8.1270,2.4612,2.6147,9.5736,2.6540
433.5938,6.7817,2.4675,12.0121,5.1399,0.4490,-0.0293,3.4605,2.0825,8.0932,2.2794,6.2123,6.9150,5.3338,-1.6733,4.6351,0.9436,2.1672,8.7262,3.9079
437.5000,6.1276,2.5242,11.1001,3.2102,1.2280,1.7431,5.9933,0.1503,7.7797,1.2930,5.3600,6.4577,6.1077,-2.3630,1.7219,-0.0536,1.5955,6.0679,3.7434
441.4062,4.6317,0.9528,6.7247,-1.7744,-0.2387,2.3615,8.3940,-4.2916,6.4775,0.7573,4.3779,4.7906,4.3901,-3.7824,0.5180,-0.1518,0.8541,2.2604,1.8338
445.3125,1.9617,-1.1302,0.2510,-7.7189,-3.0607,1.7269,10.8993,-9.4044,4.4571,-0.4048,3.0916,1.6621,1.5537,-4.9148,0.7734,0.5391,0.1622,-1.2056,-1.0336
449.2188,-1.5113,-2.7186,-6.0789,-11.8100,-5.6573,0.4625,12.8337,-12.7699,2.0822,-2.7787,1.4211,-2.0991,-0.2416,-4.6527,1.3198,1.5288,-0.0523,-2.8679,-3.3720
453.1250,-4.6964,-3.5392,-10.2562,-12.0897,-6.6657,-0.7238,12.7873,-12.7000,-0.3021,-5.7502,-0.4107,-4.9398,0.4546,-2.5700,1.2041,2.3109,0.5486,-2.1592,-3.8963
457.0312,-6.2433,-4.0533,-11.4124,-8.6108,-5.7219,-1.6342,9.6598,-9.2345,-2.3518,-7.6717,-1.8740,-5.4804,3.3530,0.6420,0.5620,2.7245,1.8901,0.2711,-2.3318
460.9375,-5.2677,-4.9369,-10.0640,-3.4337,-3.6149,-2.6400,3.7998,-4.1859,-3.6939,-6.9012,-2.3985,-3.3957,6.5841,3.4575,0.4996,3.0287,3.4163,2.9740,0.4064
464.8438,-1.9565,-6.4827,-7.6328,0.5783,-1.7112,-4.1688,-2.7188,-0.1568,-4.0096,-3.0699,-1.7537,0.3073,7.9511,4.4243,2.0609,3.6135,4.3817,4.5782,2.7904
468.7500,2.3137,-8.3456,-5.5803,1.4531,-1.0382,-6.0863,-7.0720,0.9060,-3.2251,2.3147,-0.2662,3.8293,6.4268,3.1290,5.1327,4.5671,4.3269,4.5623,3.6325
472.6562,5.4875,-9.7377,-4.6630,-0.7505,-1.6374,-7.5665,-7.3677,-1.2425,-1.6565,6.4680,1.3208,5.6223,2.8649,0.5464,8.2370,5.4692,3.3924,3.4488,2.7890
476.5625,5.7814,-9.8534,-4.6799,-4.0660,-2.6134,-7.6591,-3.8913,-5.1108,0.0645,6.8900,2.2928,5.2912,-0.5618,-1.5213,9.4753,5.6311,2.2190,2.3433,1.1689
480.4688,2.6165,-8.2147,-4.7657,-5.9133,-2.8239,-6.1512,1.0079,-8.4297,1.3012,2.9556,2.4212,3.7919,-1.8155,-1.5895,7.9444,4.6427,1.4818,2.1632,0.0791
484.3750,-2.9663,-4.8004,-3.9848,-4.7342,-1.7219,-3.9832,4.3849,-9.4868,1.7724,-3.5144,2.1042,2.8025,-0.3551,0.5269,4.5156,2.8016,1.3914,3.0690,0.3676
488.2812,-8.6812,-0.0496,-1.8812,-0.9448,0.2250,-2.7509,4.5539,-8.0268,1.6883,-9.1624,2.0608,3.6514,2.5026,3.5507,1.3159,1.0344,1.5402,4.4287,1.9197
492.1875,-12.0226,5.1171,1.2651,3.3559,1.8108,-3.5330,2.0636,-5.2327,1.5236,-10.9939,2.7646,6.4405,4.4388,5.5073,0.2478,0.2893,1.2236,5.2671,3.7858
496.0938,-11.4421,9.2807,4.5236,5.6726,1.8591,-5.8989,-0.8553,-2.8918,1.5646,-8.1112,4.0033,9.8762,3.6163,4.9103,1.6481,0.8159,0.0111,4.8494,4.7888
500.0000,-7.0738,10.7224,6.6437,4.5526,-0.0326,-7.9412,-1.9390,-2.3196,1.5652,-2.1929,4.8922,11.9037,-0.1841,1.6116,4.0950,1.8952,-1.8607,3.0225,4.1862
503.9062,-0.6382,8.0256,6.4916,0.3116,-3.2346,-7.4801,-0.4423,-3.6868,0.8125,3.5712,4.3731,10.7994,-5.4670,-3.1750,5.5050,2.2913,-3.5788,0.1684,2.0000
507.8125,5.3998,0.9531,3.4830,-5.2896,-6.4359,-3.6867,2.4833,-6.0714,-1.3786,6.3877,1.9039,6.1392,-9.9471,-7.5972,4.6751,1.1582,-4.2801,-3.0867,-1.0933
511.7188,8.9507,-8.8974,-2.0845,-10.0803,-8.3382,2.0421,4.7752,-8.0941,-5.0521,5.3885,-2.0979,-0.8529,-11.8421,-10.1084,2.1061,-1.2474,-3.6434,-6.1361,-4.1422
515.6250,9.1201,-18.2563,-8.9284,-12.5250,-8.2652,6.6903,5.0107,-8.6940,-9.3203,1.8581,-6.3528,-7.7573,-10.7263,-10.0694,-0.4774,-3.6028,-2.1223,-8.4705,-6.2978
519.5312,6.3708,-23.3835,-15.0406,-12.2156,-6.3777,7.4223,3.3641,-7.6075,-12.6614,-1.8606,-9.3206,-11.9970,-7.5153,-7.7831,-1.4910,-4.3392,-0.6550,-9.6304,-7.0266
523.4375,2.0668,-21.8588,-18.3493,-9.7111,-3.4665,3.4104,1.3207,-5.3700,-13.6825,-3.9424,-9.9624,-11.9764,-3.7465,-4.1389,-0.6619,-2.6991,-0.0634,-9.2230,-6.1658
527.3438,-2.2474,-13.9947,-17.5971,-6.0374,-0.5288,-3.5509,0.4576,-2.9489,-11.9004,-4.0560,-8.2321,-7.7858,-0.7094,-0.2135,0.8649,0.7102,-0.5608,-7.1124,-3.9119
531.2500,-5.4288,-2.9543,-13.0312,-2.2463,1.6178,-10.0763,1.2671,-1.2684,-8.0485,-3.1826,-5.0379,-1.1373,1.0546,2.9666,1.5086,4.2618,-1.6941,-3.6748,-0.7908
535.1562,-6.9612,6.6588,-6.4667,0.7931,2.5412,-13.1865,2.8955,-0.8581,-3.7052,-2.5766,-1.7290,5.4415,1.7153,4.5504,0.5182,6.3137,-2.7162,0.1403,2.4330
539.0625,-6.8745,11.0608,-0.5440,2.4735,2.2214,-11.9511,3.9144,-1.7180,-0.4593,-2.7392,0.5839,9.7685,1.7907,4.0383,-1.4507,6.1736,-3.0910,3.1254,4.9662
542.9688,-5.5459,9.1493,2.5362,2.5737,0.9776,-7.7563,3.4537,-3.3788,0.8894,-3.1588,1.5022,10.9527,1.7968,1.5390,-2.8436,4.3837,-2.7698,4.4179,6.2849
546.8750,-3.5300,2.9115,2.1360,1.4333,-0.6501,-3.1520,1.8075,-5.0873,0.6353,-2.9124,1.3863,9.6542,2.1044,-2.0760,-2.3667,2.1987,-2.0883,4.0279,6.3748
550.7812,-1.4286,-3.8354,-0.5165,-0.0292,-2.0537,-0.1769,0.1071,-6.0645,-0.1578,-1.5455,1.0086,7.5483,2.9506,-5.3742,0.0816,0.7009,-1.4263,2.8965,5.7417
554.6875,0.2666,-7.6016,-3.0907,-0.6643,-2.7493,0.6935,-0.5939,-5.7873,-0.3638,0.5216,1.0486,6.3119,4.4259,-6.9722,3.3451,0.2037,-0.9277,2.3597,5.1356
558.5938,1.3697,-7.0156,-3.5791,0.2459,-2.5666,0.3974,-0.0532,-4.2218,0.5633,2.3847,1.7225,6.7145,6.3458,-6.2758,5.7825,0.3077,-0.4939,3.3003,5.1181
562.5000,2.1270,-3.2640,-1.5278,2.3967,-1.7499,0.2540,1.1502,-1.9071,2.3726,3.4880,2.7321,8.3209,8.1069,-3.8842,6.2830,0.4476,-0.0149,5.5319,5.7210
566.4062,3.1177,0.9462,1.7159,4.4241,-0.8895,0.9246,2.2349,0.1959,4.2863,4.1732,3.5216,9.9317,8.7384,-1.3375,4.8560,0.4226,0.3881,7.8493,6.4108
570.3125,4.8886,3.1544,3.9238,4.6105,-0.6781,2.0928,2.8670,1.0822,5.5283,5.4376,3.6674,10.4410,7.2702,-0.2963,2.5089,0.4886,0.3428,8.7636,6.3929
574.2188,7.4904,2.5418,3.5054,1.9980,-1.5823,2.9422,3.2837,0.1693,5.7646,8.0332,3.1584,9.5430,3.3029,-1.6254,0.6135,1.0036,-0.5304,7.4764,5.0930
578.1250,10.2271,0.1847,0.6323,-2.8011,-3.5833,2.9048,3.8478,-2.3728,5.2210,11.5955,2.4082,7.8507,-2.5466,-4.9347,0.1951,1.9913,-2.2828,4.4617,2.5452
582.0312,11.8610,-1.8466,-2.7932,-7.7150,-6.1248,2.0514,4.5183,-5.6240,4.4657,14.5291,2.0015,6.3950,-8.6552,-8.8401,1.4912,3.0300,-4.4710,1.2583,-0.5315
585.9375,11.2447,-1.8794,-4.3469,-10.3051,-8.3205,0.8994,4.7945,-8.2945,4.0397,14.8528,2.3349,5.8857,-12.9681,-11.7540,3.8893,3.5618,-6.3032,-0.4212,-3.0260
589.8438,8.0543,0.3505,-2.7018,-9.2288,-9.3490,-0.0662,4.2404,-9.3234,4.1684,11.5073,3.3750,6.2499,-13.9133,-12.7073,6.1934,3.3380,-7.0277,0.2835,-3.9680
593.7500,3.1730,3.6107,1.4054,-5.1471,-8.8600,-0.6762,3.1235,-8.3939,4.6941,5.2517,4.6806,6.7445,-11.1963,-11.7392,7.1215,2.6006,-6.3243,2.8582,-3.0473
597.6562,-1.5600,5.9511,5.5218,-0.4469,-7.1810,-0.9395,2.5081,-6.0816,5.2282,-1.4954,5.6696,6.5224,-6.0320,-9.7014,5.9078,1.8342,-4.4609,5.7140,-0.8533
601.5625,-4.1676,5.8157,6.9542,2.1163,-5.1812,-0.7087,3.5544,-3.5343,5.4037,-5.8477,5.9588,5.2221,-0.6396,-7.6836,2.7846,1.3101,-2.1326,7.1149,1.3240
605.4688,-3.5136,2.8484,4.4537,1.0447,-3.8180,0.4183,6.4658,-1.8445,5.0831,-5.9923,5.5625,3.1666,2.7820,-6.4351,-0.9574,0.8397,-0.0911,6.1644,2.0933
609.3750,0.0729,-1.9853,-0.9561,-3.0085,-3.5816,2.7457,9.9378,-1.4619,4.4230,-2.1852,4.8328,1.0673,3.0933,-6.0824,-3.5261,-0.0130,1.2087,3.2719,0.7044
613.2812,4.8709,-6.9183,-6.5298,-7.6326,-4.1652,5.9172,11.7022,-1.9903,3.7726,3.3618,4.1978,-0.5005,0.7260,-6.2145,-3.6352,-1.4129,1.7533,-0.1346,-2.4517
617.1875,8.5240,-10.1918,-9.3880,-10.0929,-4.6141,8.6762,9.9727,-2.4952,3.4642,7.6153,3.8845,-1.4368,-2.6135,-6.2170,-1.3926,-2.8771,1.8475,-2.4337,-5.9150
621.0938,9.1259,-10.7394,-8.1721,-8.9228,-3.9375,9.3213,4.8567,-2.1403,3.6010,8.2400,3.8091,-2.0279,-4.9098,-5.6556,1.5853,-3.4205,1.8213,-2.6647,-7.8588
625.0000,6.1223,-8.4823,-3.7868,-4.7274,-1.8563,6.7108,-1.3077,-0.7620,3.9622,4.7112,3.6935,-2.5442,-4.9645,-4.5434,3.0823,-2.2016,1.7521,-0.9451,-7.1145
628.9062,0.6041,-4.2127,1.1580,0.2300,0.8044,1.1841,-5.0734,0.9883,4.1021,-1.4926,3.3089,-2.8938,-3.0645,-3.3962,1.7502,0.7733,1.3723,1.7189,-3.9554
632.8125,-5.1533,0.7898,3.8161,3.3421,2.4135,-5.2844,-3.8655,2.0330,3.6265,-7.6371,2.6696,-2.6522,-0.8084,-3.0460,-1.8239,4.4362,0.2298,4.0434,-0.1319
636.7188,-8.7001,5.2078,2.6046,3.0572,1.4423,-9.9288,2.4002,1.5474,2.5149,-10.9931,2.0543,-1.4677,-0.1614,-4.2554,-5.2558,7.1610,-1.9755,5.1170,1.9610
640.6250,-8.5102,8.0546,-2.0765,-0.4211,-2.5238,-10.6074,11.0929,-0.5038,1.2858,-10.0036,1.8561,0.4891,-2.2575,-7.2720,-5.7388,7.6996,-5.0653,4.7526,0.5854
644.5312,-4.6472,8.8861,-8.1970,-5.4297,-8.3239,-6.9619,18.2034,-3.3192,0.8430,-4.8594,2.3724,2.4479,-6.6340,-11.5371,-1.8087,5.9384,-8.2754,3.4241,-4.2999
648.4375,1.3253,7.8423,-13.2083,-9.8354,-13.6712,-0.6358,20.4440,-5.7259,2.0030,2.7087,3.6534,3.4808,-11.3646,-15.7506,5.6657,2.9682,-10.4851,1.9057,-10.8893
652.3438,7.1403,5.5332,-15.2585,-12.0850,-16.3145,5.5635,16.8906,-6.8445,4.9218,10.2484,5.4639,3.1938,-14.0534,-18.3414,13.9257,0.4250,-10.7186,0.8591,-16.3995
656.2500,10.9077,2.8069,-13.9194,-11.7638,-15.2382,9.0481,9.2919,-6.5258,8.7665,15.5994,7.3390,2.1427,-13.1535,-18.1637,19.8797,-0.4589,-8.6825,0.5792,-18.4815
660.1562,11.8974,0.4681,-10.1736,-9.4967,-11.1764,8.6010,1.0026,-5.3061,11.9125,17.6340,8.6958,1.5873,-8.8684,-15.0732,21.7249,0.5170,-5.0321,0.9752,-16.3778
664.0625,10.6176,-0.9617,-5.7985,-6.4179,-6.1445,4.7268,-4.7391,-3.9767,12.6716,16.4416,8.9912,2.6525,-3.1205,-10.0653,19.6273,2.5682,-1.1736,1.7255,-11.1930
667.9688,8.2109,-1.3583,-2.5032,-3.6028,-2.3086,-0.8518,-6.2275,-3.1128,10.2203,12.9748,7.9284,5.4335,1.4107,-4.8857,15.2035,4.5370,1.3512,2.4746,-5.1850
671.8750,5.6205,-0.9515,-1.2071,-1.7528,-0.9107,-6.1509,-3.7596,-2.8923,5.2011,8.4532,5.6645,8.6950,2.6491,-1.3159,10.3848,5.6112,1.5959,2.9586,-0.5582
675.7812,3.1093,-0.1666,-1.7280,-1.1740,-1.8722,-9.7794,0.8766,-3.2647,-0.4188,3.8957,2.8964,10.4591,0.1419,-0.4967,6.5443,5.6898,-0.3352,3.0231,1.5311
679.6875,0.4466,0.5575,-2.9768,-1.8991,-4.2004,-11.3169,5.4479,-4.2349,-4.2541,-0.0043,0.6849,9.1805,-4.7961,-2.5928,4.3468,5.2412,-3.3683,2.5740,1.2538
683.5938,-2.4336,0.8879,-3.5654,-3.7759,-6.7909,-11.1762,8.2667,-5.9400,-4.7341,-2.7282,0.0014,4.7723,-9.8464,-6.8728,4.0851,4.8542,-6.0328,1.5419,-0.3427
687.5000,-4.8775,0.6296,-2.5680,-6.4568,-9.0220,-10.1690,8.7157,-8.4005,-1.9720,-3.7778,1.1834,-1.1982,-12.8976,-12.0579,5.9004,4.8438,-7.2035,-0.0831,-2.1095
691.4062,-5.5881,-0.2902,-0.0690,-9.3601,-10.7922,-9.0601,7.2028,-11.1534,2.2612,-2.7537,3.6351,-6.3015,-13.0345,-16.7211,9.5542,5.1559,-6.5956,-2.1539,-3.3883
695.3125,-3.3983,-1.8250,2.8126,-11.7243,-12.1213,-8.2998,4.7118,-13.1512,5.4941,0.3340,6.0330,-8.5414,-10.8093,-19.6062,14.0209,5.5477,-4.7617,-4.2809,-4.1335
699.2188,1.7616,-3.7810,4.4963,-12.8104,-12.7586,-7.9689,2.2339,-13.1685,5.9220,4.7824,7.0104,-7.3548,-7.7315,-19.8631,17.5092,5.8296,-2.6479,-5.8604,-4.6309
703.1250,8.4295,-5.7997,3.8406,-12.1921,-12.1775,-7.8761,0.3615,-10.5634,3.3937,9.2532,5.9476,-3.7355,-5.3386,-17.2467,18.2370,5.9600,-1.0232,-6.2693,-5.1094
707.0312,14.1317,-7.4202,0.8607,-9.9853,-9.9768,-7.7204,-0.7991,-5.9028,-0.5626,12.2675,3.3647,0.5020,-4.4021,-12.2565,15.5780,5.9560,-0.1370,-5.1763,-5.5291
710.9375,16.6214,-8.2362,-3.1980,-6.8759,-6.3452,-7.2523,-1.4218,-0.9441,-3.6863,12.8996,0.6228,3.7630,-4.6816,-6.1096,10.7077,5.7567,0.2264,-2.8121,-5.6405
714.8438,15.0722,-8.0789,-6.5253,-3.8911,-2.1839,-6.3913,-1.6603,2.1571,-4.3220,11.2360,-0.9133,5.3439,-5.2902,-0.4450,6.0900,5.2073,0.4061,-0.0113,-5.2045
718.7500,10.4566,-7.1003,-7.7680,-1.9880,1.2600,-5.2676,-1.5057,2.0166,-2.3358,8.2843,-0.7126,5.4163,-5.3738,3.2062,3.9816,4.2083,0.5220,2.0762,-4.1867
722.6562,4.8842,-5.6771,-6.7643,-1.6340,3.0153,-4.1639,-0.9265,-1.1394,0.9310,5.3800,0.6500,4.5339,-4.6547,3.9792,4.9460,2.9056,0.3869,2.5215,-2.7971
726.5625,0.3793,-4.1760,-4.5154,-2.5796,2.8454,-3.3611,-0.1567,-5.5226,3.5988,3.4816,1.9758,3.1691,-3.5120,1.9853,7.4768,1.7294,-0.2847,1.1451,-1.3770
730.4688,-2.0717,-2.7359,-2.4247,-3.9588,1.2507,-2.9435,0.1906,-8.7447,4.4551,2.8109,2.3412,1.6428,-2.5933,-1.7918,9.0709,1.1873,-1.5514,-1.2734,-0.2278
734.3750,-2.6291,-1.2273,-1.3489,-4.7106,-0.9413,-2.6570,-0.5564,-9.1365,3.6581,3.0282,1.7690,0.3827,-2.2589,-5.9583,8.0218,1.5092,-3.0728,-3.2859,0.5118
738.2812,-1.9467,0.5744,-1.1320,-4.1399,-3.0786,-1.9292,-2.4624,-6.6385,2.5196,3.7360,1.1865,0.1129,-2.2724,-9.2834,4.6375,2.3893,-4.2474,-3.4760,0.8763
742.1875,-0.3944,2.7295,-0.9371,-2.3356,-4.9423,-0.1022,-4.4594,-2.7369,2.5519,4.8745,1.6935,1.6208,-1.9785,-11.1051,0.9900,3.0458,-4.5867,-1.2245,0.9832
746.0938,2.1715,4.9988,-0.0906,-0.1867,-6.6382,3.1778,-4.5338,0.4838,4.4249,6.6854,3.6728,5.1486,-0.8712,-11.4164,-0.6215,2.6305,-4.0725,2.8830,0.9025
750.0000,5.9225,6.9532,1.2425,1.0653,-8.2761,7.5908,-0.8073,1.5688,7.5031,9.2786,6.3945,9.8707,0.8496,-10.6718,0.6262,0.7773,-3.2328,7.2658,0.5767
753.9062,10.3113,8.2577,2.1082,0.5378,-9.7089,12.0280,7.0031,0.4583,10.2300,12.1629,8.4180,13.9781,2.1740,-9.4699,3.4309,-2.0531,-2.8504,10.0991,-0.1412
757.8125,13.7863,8.9003,1.5349,-1.7131,-10.5174,14.8963,16.7470,-1.6323,11.0764,14.1609,8.5219,15.5050,1.8048,-8.2781,5.1990,-4.6910,-3.4595,10.2177,-1.3253
761.7188,14.3607,9.1671,-0.5610,-4.6148,-10.2241,14.8046,24.4447,-3.0798,9.4445,13.8602,6.5187,13.4646,-0.9446,-7.2859,3.7318,-5.8334,-4.9464,7.6937,-2.7704
765.6250,10.7726,9.3567,-3.0653,-6.6018,-8.5786,11.3439,26.2835,-2.8913,5.9928,10.3799,3.3957,8.5573,-5.4396,-6.4025,-1.4059,-4.7810,-6.5203,3.7867,-3.8943
769.5312,3.4704,9.4619,-4.2591,-6.4743,-5.7444,5.5302,20.9327,-1.2790,2.2533,3.9993,0.7075,2.9273,-9.7217,-5.3703,-8.6804,-1.9019,-7.1068,0.3184,-3.8713
773.4375,-5.2930,9.1023,-2.9384,-4.0848,-2.3082,-0.4304,10.6689,0.5431,-0.1659,-3.7413,-0.3449,-0.9397,-11.3412,-3.9522,-15.5265,1.4823,-5.9480,-1.1695,-2.0003
777.3438,-12.4151,7.8213,0.7421,-0.4205,0.8759,-4.0600,0.3995,1.1716,-0.3075,-10.5582,0.4694,-1.5178,-8.6270,-2.1200,-19.6829,3.7662,-3.0605,-0.0384,1.8581
781.2500,-15.4201,5.5601,5.3268,2.9883,2.9553,-3.8049,-5.0018,-0.0734,1.8276,-14.3242,2.4540,1.0473,-1.6793,-0.1461,-20.0947,3.9192,0.7239,3.3110,7.0380
785.1562,-13.6059,2.9349,8.9868,4.9719,3.3992,0.1315,-3.4508,-2.6713,5.4393,-13.9371,4.5602,5.1888,7.5076,1.4866,-17.0415,2.0274,4.1629,7.7527,12.2056
789.0625,-8.2392,1.0371,10.6426,5.3642,2.2814,5.8351,3.2668,-5.1144,9.3480,-9.7753,6.0286,8.8767,15.8972,2.3450,-11.7268,-0.8142,6.2122,11.9474,15.8565
792.9688,-1.7697,0.8082,10.4721,4.9801,0.3903,10.6513,10.8079,-5.6739,12.4213,-3.5561,6.6630,10.6278,20.7722,2.3368,-5.7804,-3.1990,6.4830,14.7743,16.9216
796.8750,3.4141,2.3829,9.4786,4.9677,-0.9696,12.5786,15.1002,-3.2904,13.8686,2.3507,6.6508,10.0025,20.8643,1.8235,-0.9000,-4.2650,5.3007,15.5541,15.1592
800.7812,5.9928,4.8752,8.5229,5.9911,-0.5036,11.2965,14.7825,1.8688,13.4043,5.8825,6.1984,7.4735,16.6868,1.4279,1.4651,-4.1660,3.3799,14.1119,11.1430
804.6875,6.0347,6.8157,7.6289,7.8000,2.4031,8.2275,11.6442,8.4424,11.3199,6.1215,5.3497,3.9805,10.0090,1.6129,0.5464,-3.8573,1.3675,10.7899,5.9141
808.5938,4.6101,7.0098,6.1313,9.4513,7.2150,5.6010,8.8842,14.4360,8.4506,3.6256,4.1379,0.5723,2.9039,2.3022,-3.2907,-4.3395,-0.4302,6.4447,0.5524
812.5000,3.0361,5.2794,3.5315,9.9785,12.2932,5.0930,8.5542,18.0026,5.9690,0.0617,2.8851,-1.7238,-3.0378,2.8336,-8.4446,-5.8664,-1.9826,2.3428,-4.0823
816.4062,2.1879,2.6047,0.3186,9.0024,15.5241,6.8752,10.0989,18.0749,4.9870,-2.7099,2.3047,-1.9841,-6.9614,2.3417,-12.6360,-7.6569,-3.2391,-0.1535,-7.3821
820.3125,2.1858,0.5671,-2.0088,6.8515,15.2542,9.6378,11.0344,14.6137,6.0867,-3.6244,3.2019,0.3357,-8.5368,0.3631,-13.9997,-8.3248,-3.8840,-0.0898,-8.9355
824.2188,2.5435,0.4420,-1.8722,4.1594,11.0560,11.5320,9.1775,8.4683,9.0106,-2.8986,5.9048,4.9504,-7.6522,-2.7275,-12.0984,-6.7619,-3.3847,2.5961,-8.5724
828.1250,2.6451,2.4980,1.1315,1.3130,3.9266,11.3968,4.6600,1.0206,12.7137,-1.6957,9.8238,10.4693,-4.3616,-5.7701,-8.1672,-2.9073,-1.3448,6.9085,-6.5449
832.0312,2.2731,5.8965,5.6162,-1.7714,-4.1545,9.4776,0.1176,-6.1815,15.7962,-1.1676,13.5136,14.7045,0.8682,-7.3767,-4.3546,2.0988,2.0782,11.1272,-3.6698
835.9375,1.8728,9.1890,9.0060,-5.3484,-11.0374,7.1936,-1.1633,-11.6961,17.1066,-1.5230,15.3024,15.6273,6.8863,-6.6768,-2.4267,6.4761,6.0196,13.5411,-1.1963
839.8438,2.3473,11.0640,9.0560,-9.2733,-15.1565,6.1404,2.2149,-14.3988,16.2042,-1.8052,14.1679,12.5132,11.9309,-3.8096,-2.7894,8.7281,9.1895,13.2179,-0.3192
843.7500,4.4296,10.9077,5.3041,-12.6754,-15.9220,7.0046,8.4624,-13.7143,13.4565,-0.6066,10.3487,6.5335,14.1893,0.1250,-4.4585,8.3596,10.4709,10.3922,-1.5531
847.6562,7.9830,8.9371,-0.5491,-14.2402,-13.6987,9.1044,13.5973,-9.8673,9.7726,2.7438,5.3100,0.2983,12.6172,3.6040,-5.9117,5.9862,9.4800,6.2621,-4.3654
851.5625,11.7253,5.9486,-5.6267,-13.0055,-9.5317,10.8488,14.1027,-4.0112,6.1699,7.3904,1.0554,-3.4915,7.5426,5.3830,-6.1480,2.8400,6.7451,2.3289,-7.3700
855.4688,13.7072,2.9078,-7.5964,-9.1420,-4.8036,10.8054,9.3700,1.9652,3.4188,11.2279,-0.8470,-3.5005,0.6509,4.9788,-5.1958,0.0457,3.3942,-0.3242,-9.0431
859.3750,12.4139,0.6021,-6.0066,-4.1226,-0.9013,8.6817,2.1802,6.0346,1.8998,12.1776,0.0011,-0.4199,-5.7077,2.7330,-3.8067,-1.8731,0.5542,-1.4158,-8.5617
863.2812,7.8682,-0.5480,-2.3948,-0.0622,1.1190,5.5915,-3.1262,6.8546,1.6470,9.6378,2.7167,3.5846,-9.5401,-0.4856,-2.7112,-3.0161,-1.1690,-1.3492,-6.2495
867.1875,1.9683,-0.5265,0.8337,1.4206,0.8492,3.4394,-3.4994,4.4164,2.4683,5.0729,5.6810,6.2708,-10.0213,-3.7156,-2.0910,-3.7572,-1.8403,-0.7497,-3.3474
871.0938,-2.3241,0.3550,1.9643,0.1103,-1.3025,3.8093,0.9336,0.1061,4.0498,1.2397,7.4261,6.6560,-7.6888,-6.2554,-1.6499,-4.3451,-1.9488,0.0045,-1.2553
875.0000,-2.5998,1.6316,0.9455,-2.7257,-4.2679,7.0357,7.1848,-3.9570,6.0332,0.4898,7.3818,5.4588,-3.9815,-7.8349,-1.1098,-4.7347,-1.9891,0.9691,-0.7287
878.9062,1.5240,2.9167,-0.7875,-5.1557,-6.8435,12.0048,11.5728,-6.0233,8.0865,3.2598,6.0893,4.4266,-0.4529,-8.6235,-0.6090,-4.7028,-2.1706,2.4644,-1.5282
882.8125,8.0355,4.0941,-1.4198,-5.7973,-8.3720,16.7714,12.1264,-5.6674,9.9656,7.7710,4.7922,5.0583,1.8762,-9.1297,-0.6141,-4.0836,-2.4150,4.7107,-2.7153
886.7188,13.5824,5.3352,-0.0098,-4.6672,-9.1747,19.5964,9.5650,-4.0318,11.5234,11.1511,4.6487,7.5803,2.7097,-10.0244,-1.4271,-2.9073,-2.5747,7.5243,-3.3631
890.6250,15.3594,6.8826,2.9084,-3.1483,-10.4002,19.7905,6.3337,-3.1749,12.6390,11.2364,6.0191,10.8031,2.2256,-11.9004,-2.7578,-1.3557,-2.6602,10.2593,-3.2037
894.5312,12.6818,8.7171,5.6804,-3.1083,-13.2817,17.9172,4.5956,-4.8579,13.1198,7.8766,8.2383,12.8841,0.6673,-15.0111,-3.7838,0.3736,-2.8898,12.0242,-2.7985
898.4375,7.2875,10.3611,6.5431,-5.7163,-18.2058,15.3207,4.7463,-9.4459,12.6931,2.9422,10.0067,12.4573,-1.8758,-19.0816,-3.7031,2.1329,-3.5362,12.0558,-3.1412
902.3438,2.2243,11.0344,4.6430,-10.6592,-24.1751,13.3285,5.4830,-15.5536,11.1648,-0.8782,10.1697,9.4265,-5.3419,-23.2992,-2.3476,3.7489,-4.7011,10.0746,-4.9566
906.2500,0.0638,10.1379,0.4915,-16.1937,-29.0636,12.6128,5.2153,-20.6474,8.6767,-1.6464,8.4184,4.9939,-9.3541,-26.5274,-0.3585,4.8949,-6.1919,6.4686,-8.1313
910.1562,1.5468,7.7539,-4.3265,-19.9808,-30.5910,13.0147,3.6085,-22.2854,5.8483,0.8611,5.4825,0.9837,-12.9865,-27.6792,1.2252,5.0848,-7.5825,2.2189,-11.6161
914.0625,5.3971,4.7630,-7.9588,-20.2275,-27.4968,13.8134,2.0279,-19.3330,3.6028,5.2462,2.6917,-1.1008,-14.9226,-26.1110,1.6446,3.8800,-8.4091,-1.4306,-13.8647
917.9688,9.2551,2.3982,-9.1523,-16.5430,-20.2567,14.1774,2.5490,-12.5326,2.6758,9.3799,1.1801,-0.7707,-14.0342,-21.8912,0.8500,1.2212,-8.3740,-3.4575,-13.5799
921.8750,11.0264,1.4658,-7.7601,-10.1162,-10.9512,13.5125,6.2960,-4.1749,3.0871,11.4290,1.2340,1.3145,-10.0971,-15.8620,-0.6044,-2.3470,-7.4561,-3.5120,-10.3929
925.7812,9.8333,1.7634,-4.6933,-3.1843,-2.3830,11.5901,12.3512,2.9038,3.9710,10.4774,2.1935,3.7615,-4.2009,-9.4854,-2.0409,-5.7639,-5.9057,-2.1127,-5.1412
929.6875,6.1620,2.1599,-1.3942,1.9019,3.0542,8.5320,18.0324,6.4707,3.9939,6.6274,2.9573,5.1460,1.4752,-4.5053,-3.0798,-7.8657,-4.1654,-0.4437,0.3922
933.5938,1.3567,1.3680,0.8779,3.5698,4.1806,4.7837,20.3601,5.6536,2.1898,0.8020,2.7439,4.6560,4.5118,-2.4815,-3.6792,-7.9164,-2.7580,0.2029,4.1687
937.5000,-3.0829,-1.0684,1.5899,1.5020,1.1882,1.1077,17.7458,1.0381,-1.2969,-5.5129,1.6072,2.4089,3.3485,-4.2837,-3.8447,-5.9499,-2.1512,-0.9129,4.7175
941.4062,-6.0111,-4.2606,1.0483,-3.4396,-4.7692,-1.5053,10.8623,-5.8161,-5.0960,-10.5558,0.3806,-0.6555,-1.9211,-9.6979,-3.3614,-2.7229,-2.5985,-3.5708,1.7367
945.3125,-6.8416,-6.3543,0.0571,-9.7234,-12.2007,-2.1252,2.2572,-13.1074,-7.2862,-12.7128,0.1133,-3.2115,-9.4837,-17.3338,-1.8604,0.6857,-3.9916,-6.6778,-3.7818
949.2188,-5.5428,-5.6283,-0.6444,-15.7942,-19.7499,-0.3312,-4.9447,-19.4011,-6.5003,-11.0827,1.3901,-4.0974,-16.5293,-24.9716,0.8043,3.3849,-5.8120,-8.8289,-9.9547
953.1250,-2.5386,-1.6357,-0.7993,-20.5480,-26.3562,3.4196,-8.4614,-23.8949,-2.7786,-5.9445,3.9707,-2.7422,-20.4265,-30.3049,4.2097,5.0046,-7.2657,-9.0332,-14.7511
957.0312,1.4560,4.3519,-0.6446,-23.4690,-31.1948,7.8042,-7.7002,-26.3438,2.3829,1.2189,6.9410,0.6750,-19.7967,-31.8141,7.4090,5.6970,-7.5997,-7.2015,-16.7511
960.9375,5.6581,9.9050,-0.5449,-24.4749,-33.6123,11.1424,-3.7755,-26.8227,6.8311,8.2795,9.2238,5.3319,-15.0111,-29.3739,9.4100,5.8696,-6.4735,-4.1351,-15.6029
964.8438,9.4185,12.6724,-0.5672,-23.6746,-33.2036,12.1851,1.1426,-25.5350,8.9010,13.3479,10.0978,10.0277,-7.9339,-24.2745,9.7520,5.8563,-4.1812,-1.0636,-12.0160
968.7500,12.2652,11.5549,-0.3761,-21.2498,-30.0107,10.7309,4.7898,-22.7793,8.2028,15.4552,9.4378,13.4885,-1.0828,-18.6167,8.7350,5.7312,-1.5698,0.9682,-7.3513
972.6562,13.7441,7.1540,0.4132,-17.5250,-24.6729,7.6811,5.7278,-19.0322,5.6139,14.6423,7.6205,14.6653,3.3906,-14.3672,7.1126,5.3411,0.3358,1.5191,-3.0303
976.5625,13.2328,1.3108,1.6802,-13.1065,-18.3608,4.4895,3.9300,-15.0035,2.5771,11.5086,5.2562,13.0337,4.4765,-12.5431,5.4918,4.4831,0.8152,0.7998,-0.0302
980.4688,10.0278,-3.9028,2.5344,-8.8808,-12.4478,2.3615,0.7982,-11.5335,0.2319,6.6824,2.9471,8.8692,2.5594,-12.9165,3.9211,3.0844,-0.2202,-0.5754,1.3571
984.3750,3.8509,-7.1149,1.6876,-5.7616,-8.0520,1.7103,-1.4923,-9.3221,-1.0636,0.6882,1.1642,3.3649,-0.8981,-14.3398,2.0021,1.2793,-2.2305,-1.9192,1.4628
988.2812,-4.4802,-8.0341,-1.6574,-4.2766,-5.6724,2.1682,-1.1364,-8.6218,-1.6081,-5.7313,0.1983,-1.6025,-4.0740,-15.4601,-0.5618,-0.6316,-4.3655,-2.6991,0.9608
992.1875,-12.7926,-7.2088,-6.9817,-4.2605,-5.1043,3.0393,2.1990,-9.0865,-1.8566,-11.2650,0.1137,-4.1379,-5.5933,-15.4149,-3.4320,-2.2783,-5.9010,-2.6218,0.5148
996.0938,-18.1857,-5.4675,-12.3512,-4.8971,-5.6540,3.7832,6.9890,-9.8984,-1.9858,-14.2048,0.7069,-3.2188,-5.0823,-14.1573,-5.5831,-3.3120,-6.5429,-1.6417,0.4982
1000.0000,-18.4425,-3.4494,-15.2795,-5.1420,-6.5088,4.1655,10.5699,-10.1339,-1.8297,-13.2804,1.5524,0.6567,-3.2259,-12.2986,-5.8487,-3.4705,-6.4480,0.0407,0.8865
1003.9062,-13.4356,-1.4713,-14.1226,-4.2972,-7.0464,4.0526,10.6944,-9.1797,-1.1534,-8.6669,2.1882,5.5388,-1.3021,-10.6242,-3.7285,-2.6370,-5.9906,2.0030,1.3516
1007.8125,-5.5211,0.3041,-9.1365,-2.3867,-6.9420,3.1634,7.0280,-6.9814,0.0261,-2.3483,2.3713,8.9283,-0.4300,-9.5911,0.1028,-0.9097,-5.4522,3.7086,1.5007
1011.7188,1.5626,1.6309,-2.4707,-0.1065,-6.0920,1.1275,1.5799,-4.0115,1.3587,2.6577,2.2251,9.0904,-0.9379,-9.0920,3.9734,1.3503,-4.8425,4.7048,1.1287
1015.6250,4.7665,2.1123,2.9689,1.6022,-4.4980,-2.1087,-2.3474,-1.0110,2.3739,3.9149,2.1395,6.0098,-2.2223,-8.5979,6.0319,3.5544,-3.9561,4.8146,0.3371
1019.5312,3.4839,1.3850,5.1053,2.0712,-2.2548,-5.8799,-2.1385,1.3301,2.7934,1.0371,2.4604,1.3606,-3.1991,-7.5707,5.2500,5.0491,-2.6141,4.1764,-0.5585
1023.4375,-0.2190,-0.5611,3.7423,1.2029,0.3472,-8.8681,2.4634,2.5943,2.6830,-4.0035,3.1885,-2.5375,-3.0762,-5.8854,2.0298,5.3693,-0.9152,3.0785,-1.2687
1027.3438,-3.1126,-3.1637,0.4551,-0.5798,2.7420,-9.7901,9.1101,2.7067,2.3373,-8.0230,3.9340,-4.1252,-1.9426,-3.9857,-1.9445,4.4686,0.6873,1.7061,-1.7397
1031.2500,-3.0616,-5.3774,-2.5380,-2.6135,4.2039,-8.3249,14.2349,1.8992,2.0121,-8.5466,4.1914,-3.4530,-0.7520,-2.6491,-4.5508,2.7860,1.5673,0.0217,-2.1517
1035.1562,-0.4727,-6.1116,-3.7325,-4.2707,4.1999,-5.5880,15.1914,0.6397,1.7364,-5.2780,3.7424,-1.9241,-0.6592,-2.4724,-4.3382,1.0796,1.2881,-2.0805,-2.6731
1039.0625,2.0834,-4.8368,-3.0459,-5.0795,2.7993,-3.6656,11.7545,-0.4605,1.3493,-0.1895,2.8755,-1.1432,-2.1241,-3.3902,-1.3219,0.0862,-0.0584,-4.4371,-3.1406
1042.9688,1.8058,-2.0212,-1.5058,-4.7147,0.8334,-4.3691,6.0407,-0.7975,0.7172,3.7755,2.2315,-1.7109,-4.4035,-4.5645,2.9691,0.1746,-1.7629,-6.3854,-2.9441
1046.8750,-2.2297,0.9192,-0.2665,-3.0005,-0.4034,-7.9880,0.9959,0.0024,-0.0612,4.4961,2.3687,-2.8280,-5.8408,-4.7898,6.2498,1.1766,-2.7636,-6.9127,-1.2910
1050.7812,-8.2947,2.2449,0.2812,-0.0141,0.1686,-12.9285,-1.4498,1.8658,-0.6365,1.8085,3.3658,-2.9743,-4.8452,-3.2283,6.6847,2.4921,-2.1781,-5.1951,2.2416
1054.6875,-13.1095,0.8319,0.6829,3.7813,2.7396,-16.5759,-1.3129,4.2161,-0.6015,-2.6518,4.7554,-1.1427,-0.9640,-0.0328,3.9108,3.4119,0.1697,-1.2092,7.2141
1058.5938,-14.0298,-3.0910,1.8175,7.5448,6.3859,-16.8823,-0.0606,6.1843,0.2372,-6.6513,5.8331,2.2880,4.6594,3.5789,-0.7058,3.4834,3.5378,4.0310,12.2741
1062.5000,-10.7860,-7.8946,4.0208,10.3158,9.5021,-13.6418,0.7724,7.0306,1.6976,-8.7211,6.1057,5.6851,9.7899,5.9289,-4.7759,2.7240,6.5407,8.8567,15.6847
1066.4062,-5.6078,-11.3198,6.6033,11.4301,10.6741,-8.6032,0.7421,6.5391,3.2790,-8.8196,5.5535,7.2066,12.3020,5.8527,-6.2068,1.5773,7.8178,11.7746,16.1876
1070.3125,-1.7300,-11.6852,8.1259,10.8427,9.4663,-4.3509,0.5930,5.1221,4.4022,-8.0038,4.5502,6.0194,11.3577,3.4511,-4.3832,0.6528,6.7544,12.2426,13.6998
1074.2188,-1.3765,-8.8228,7.2582,9.1251,6.6268,-2.7258,1.3533,3.5349,4.6969,-7.4897,3.5588,2.8592,7.8426,0.1236,-0.4892,0.4021,3.8492,10.8900,9.4108
1078.1250,-4.5742,-4.1417,3.6564,7.1180,3.5873,-3.8447,3.2591,2.3777,4.1820,-7.8023,2.8712,-0.4173,3.8080,-2.1803,3.2496,0.9113,0.4887,9.0467,5.1991
1082.0312,-9.4578,0.2519,-1.7011,5.4668,1.5951,-6.3202,5.4212,1.7303,3.2489,-8.5350,2.5723,-1.9383,1.2778,-2.0546,4.9386,1.9095,-1.7731,7.9022,2.7063
1085.9375,-13.6537,2.8271,-6.9266,4.3479,1.0480,-8.4263,6.4976,1.1893,2.4547,-8.7673,2.6756,-0.8419,1.1516,0.5921,4.1154,2.9669,-2.0373,7.8517,2.5968
1089.8438,-15.6814,3.4566,-10.1370,3.5505,1.4389,-9.3186,5.8003,0.2846,2.2186,-7.7767,3.2225,2.3844,2.8314,4.5452,1.8655,3.7540,-0.5119,8.4247,4.3895
1093.7500,-15.4728,3.2456,-10.3481,2.8031,1.8862,-9.4497,3.9097,-1.0411,2.5700,-5.5631,4.2008,6.3366,4.7285,8.0273,-0.0916,4.2056,1.6692,8.7734,6.8743
1097.6562,-13.8716,3.4891,-7.8794,2.0667,1.8297,-9.9609,2.2709,-2.2749,3.0933,-2.8867,5.3564,9.5111,5.2758,9.6770,-0.6611,4.4990,3.1480,8.3204,8.7960
1101.5625,-11.6999,4.5121,-4.0964,1.5604,1.3962,-11.5829,2.0703,-2.6518,3.1393,-0.8336,6.1350,10.9776,3.8170,9.1667,-0.0561,4.8691,3.1429,7.1108,9.3961
1105.4688,-9.1657,5.2514,-0.6807,1.5242,1.2162,-13.9069,3.2750,-1.7372,2.2277,-0.1792,5.9233,10.6022,0.8847,7.1591,0.5863,5.3846,1.8688,5.6771,8.5803
1109.3750,-5.9854,3.9358,1.1609,1.9419,1.8806,-15.5674,4.5990,0.1631,0.4252,-0.9109,4.4877,8.8569,-2.2128,4.7619,0.3255,5.8386,0.3435,4.5964,6.7478
1113.2812,-1.9965,-0.5604,1.1511,2.4806,3.4658,-15.1928,4.4322,2.1009,-1.5573,-2.1914,2.2809,6.4562,-4.1755,2.9229,-0.6268,5.8436,-0.2726,4.1103,4.4927
1117.1875,2.3001,-7.6224,-0.1192,2.7201,5.4631,-12.4276,2.0178,3.0615,-2.6746,-2.8169,0.3110,4.0449,-4.3835,2.1368,-0.9130,5.0929,0.6209,4.0719,2.3718
1121.0938,5.7123,-14.8531,-1.6591,2.4987,7.1217,-8.3017,-2.0199,2.6305,-2.1335,-1.9501,-0.4222,2.0319,-3.1041,2.5196,0.9448,3.6356,2.7465,4.1953,0.7973
1125.0000,6.8900,-19.1937,-2.6427,2.0922,7.9193,-4.6856,-6.1668,1.2751,0.0974,0.2993,0.4416,0.5689,-1.1890,4.0129,5.2526,1.9715,5.1737,4.3574,0.0022
1128.9062,5.0971,-18.5417,-2.7497,2.0572,7.8142,-3.1900,-9.0885,0.0324,3.2124,2.8558,2.3874,-0.3505,0.4943,6.4489,10.5976,0.8636,6.8989,4.6984,0.0160
1132.8125,0.7855,-12.8850,-2.1413,2.8237,7.1409,-4.2090,-10.3960,-0.1852,6.0258,4.3361,4.3820,-0.7083,1.5344,9.4219,14.5395,0.9290,7.3862,5.4636,0.6533
1136.7188,-4.3432,-4.2954,-1.1765,4.3194,6.2894,-6.6827,-10.5096,0.8140,7.6876,4.0388,5.5712,-0.2979,2.0892,12.1665,15.1146,2.2328,6.7450,6.7418,1.5635
1140.6250,-7.8705,4.1426,-0.1303,5.9026,5.4494,-8.6994,-9.8099,2.4116,8.1669,2.5982,5.7915,1.2592,2.6148,13.6977,12.1049,4.1462,5.4924,8.3163,2.3586
1144.5312,-7.6384,9.7729,0.8742,6.6812,4.6043,-8.5716,-7.8976,3.6383,8.1381,1.7399,5.5117,4.2141,3.4203,13.2592,7.1721,5.6044,4.1321,9.7341,2.7649
1148.4375,-2.8204,11.3611,1.7149,6.0352,3.7361,-5.7931,-3.7388,3.8476,8.3314,3.1284,5.2754,8.2284,4.3650,10.8346,2.7737,5.6663,2.8740,10.5221,2.7069
1152.3438,5.4020,9.2200,2.1020,4.0296,3.0290,-1.3826,3.2656,3.1362,8.8210,6.9953,5.1280,12.1082,4.9124,7.3401,0.6416,4.0714,1.6768,10.3946,2.2794
1156.2500,14.0162,4.6313,1.6204,1.4610,2.8740,2.5522,12.0963,2.2416,8.8235,11.5466,4.5348,14.1026,4.5193,4.2825,0.8776,1.4558,0.5257,9.3420,1.6496
1160.1562,19.3560,-0.9175,0.0285,-0.5082,3.6418,3.8234,19.8963,2.0125,7.2286,13.7620,2.8929,12.8038,3.0945,3.0152,2.2177,-0.9316,-0.3301,7.6029,0.9800
1164.0625,18.8839,-6.2157,-2.4026,-0.9443,5.3770,1.2745,23.1850,2.8210,3.5397,11.2726,0.2280,8.1850,1.1881,4.0144,3.1470,-1.8757,-0.4205,5.5864,0.4162
1167.9688,12.6771,-10.4121,-4.8273,0.3411,7.6302,-4.5347,19.9019,4.2933,-1.4616,4.1551,-2.5292,2.0295,-0.2670,6.6118,2.9827,-0.8405,0.6108,3.7864,0.1054
1171.8750,3.6679,-12.9026,-6.1931,2.6345,9.5563,-11.4390,10.9286,5.5065,-5.8753,-4.6431,-3.9944,-2.7406,-0.5266,9.3435,2.1712,1.7622,2.6208,2.6742,0.1700
1175.7812,-3.7291,-13.2942,-5.8446,4.6368,10.2507,-16.5931,-0.0602,5.5054,-7.6642,-10.7359,-3.2385,-3.6205,0.4636,10.7077,1.7225,4.8253,4.8571,2.5477,0.6209
1179.6875,-5.9856,-11.5388,-3.9354,5.1317,9.1637,-17.8201,-8.4929,3.8312,-5.8569,-10.8345,-0.4847,-0.0554,2.0099,9.9010,2.3510,7.1484,6.2772,3.3779,1.2890
1183.5938,-2.4706,-8.1024,-1.3058,3.6798,6.3970,-14.7200,-11.4007,0.7841,-1.1805,-4.8077,2.9585,6.0878,3.1394,7.1516,4.0219,8.0163,6.1458,4.7606,1.8828
1187.5000,4.1810,-3.9538,1.1270,0.9471,2.7416,-8.9255,-8.9081,-2.6877,4.3105,4.1038,5.5233,11.5275,3.2870,3.5229,6.1608,7.4287,4.5270,6.0589,2.1873
1191.4062,9.6651,-0.2865,3.0143,-1.5794,-0.5868,-3.3019,-3.7509,-5.3988,8.3718,11.1252,6.3832,13.4855,2.7024,0.3473,8.2009,5.9081,2.3181,6.6980,2.2698
1195.3125,10.6280,1.9059,4.7299,-2.4120,-2.4343,-0.4767,0.7933,-6.4438,9.7369,12.7007,5.9027,11.2926,2.2500,-1.3951,9.9079,4.0897,0.7562,6.4509,2.4970
1199.2188,6.6599,2.1719,6.8678,-0.9882,-2.2315,-1.4967,3.0916,-5.5986,8.5958,8.4317,5.2216,6.6416,2.7169,-1.4616,11.2143,2.4035,0.6861,5.5254,3.2786
1203.1250,0.3954,0.6909,9.4570,1.8730,-0.3032,-5.3726,3.9368,-3.4285,6.1689,1.0331,5.3074,2.3621,4.1382,-0.3535,11.8152,1.0317,2.0604,4.3982,4.6836
1207.0312,-4.2932,-1.8909,11.5654,4.3520,2.2318,-9.7578,5.4443,-1.0320,3.7728,-5.5348,6.2017,0.5961,5.6736,1.0164,11.0439,0.0811,3.9954,3.5175,6.2275
1210.9375,-4.7682,-4.7401,11.7254,4.7090,3.9855,-12.3277,8.9609,0.4917,2.0601,-8.4444,7.0137,1.6081,6.1786,1.8142,8.3000,-0.2568,5.3465,3.0843,7.0566
1214.8438,-1.1298,-7.0773,8.9829,2.4274,4.0165,-12.0136,13.6004,0.6021,0.8945,-7.3640,6.6354,3.9438,5.0784,1.6869,3.7625,0.2512,5.4098,3.0405,6.4680
1218.7500,4.1477,-8.3103,3.8192,-1.3471,2.3356,-9.3793,16.5585,-0.4063,-0.1841,-4.0907,4.6127,5.6609,2.8833,0.8704,-1.2422,1.6517,4.2822,3.2121,4.4198
1222.6562,8.0401,-8.0885,-1.8162,-4.4486,-0.1272,-6.0079,15.0402,-1.6102,-1.3634,-0.9460,1.5192,5.6543,0.9161,-0.0552,-4.6756,3.5997,2.6626,3.4397,1.6418
1226.5625,8.9137,-6.3363,-5.5228,-5.0757,-2.1179,-3.4028,8.4303,-2.0664,-2.3073,0.8309,-1.4068,4.1694,0.4097,-0.6213,-4.8757,5.4058,1.2776,3.5822,-0.7796
1230.4688,7.3015,-3.2854,-5.8913,-3.0218,-2.8594,-2.1558,-0.8858,-1.4616,-2.3952,1.6326,-3.0400,2.3222,1.6265,-0.8382,-1.5940,6.3751,0.3800,3.4441,-2.0761
1234.3750,5.1682,0.5262,-3.3717,0.1198,-2.5280,-1.8680,-8.7106,-0.3591,-1.2084,2.7820,-2.9673,1.1934,3.6728,-1.1974,3.7717,6.2255,-0.3063,2.7913,-2.2514
1238.2812,4.3826,4.3321,0.0692,1.9918,-2.0603,-1.7312,-11.4818,0.1758,1.1303,5.2577,-1.5220,1.2545,5.1672,-2.2547,8.9529,5.2744,-1.1763,1.5498,-1.9864
1242.1875,5.5386,7.3002,2.2751,1.0970,-2.4036,-1.2394,-8.3465,-0.6324,3.9843,8.8109,0.6498,2.4428,5.2704,-4.0555,12.0797,4.2199,-2.2229,0.0650,-2.0736
1246.0938,7.8354,8.7431,2.2721,-2.1062,-3.7375,-0.4856,-1.5035,-2.5968,6.5202,12.0299,3.0443,4.5599,4.2832,-5.8412,12.5781,3.6394,-2.8626,-0.8572,-2.8228
1250.0000,9.8712,8.3148,0.7172,-5.4439,-5.2526,0.1110,5.3375,-4.5339,8.0511,13.2039,5.3932,7.4356,3.3350,-6.3505,11.1373,3.5563,-2.3065,-0.3223,-3.8918
1253.9062,10.6119,6.1378,-0.8425,-6.5026,-5.6953,0.3410,9.2615,-4.9747,8.2081,11.3551,7.3993,10.6345,3.3850,-4.6309,8.8927,3.4046,-0.2417,1.9906,-4.6519
1257.8125,9.8590,2.8166,-1.2715,-4.3523,-4.3289,0.5132,9.6644,-3.1969,6.9401,6.8244,8.4786,13.0724,4.3146,-0.8621,6.5333,2.4461,2.6957,5.3178,-4.7661
1261.7188,8.0797,-0.6906,-0.6801,-0.3134,-1.6219,1.2673,8.0816,0.1306,4.4772,1.1640,7.8836,13.1469,4.8540,3.4158,4.0245,0.3620,5.0766,7.9178,-4.4889
1265.6250,5.9585,-3.3425,-0.1654,2.8073,0.8710,3.0383,6.6608,3.1885,1.3421,-3.5071,5.2316,9.6116,3.4701,5.9529,1.0790,-2.4040,5.4520,7.9055,-4.4316
1269.5312,4.0972,-4.3641,-0.7173,2.5333,1.4161,5.6095,6.5062,4.0512,-1.6554,-5.3465,1.0473,2.7051,-0.4009,5.0181,-2.1192,-4.8198,3.2728,4.3945,-4.9894
1273.4375,2.9697,-3.5401,-2.2218,-1.6278,-0.7900,8.1222,7.0787,1.8877,-3.5828,-3.5144,-3.1785,-5.3760,-5.6932,0.4674,-4.6378,-5.8668,-0.6661,-1.7814,-5.9223
1277.3438,2.9168,-1.2976,-3.4154,-7.8069,-5.0560,9.5632,6.9538,-2.4682,-3.7409,1.4402,-5.6011,-11.2623,-10.1627,-6.0531,-5.2734,-5.1760,-4.5944,-8.3083,-6.4711
1281.2500,3.9702,1.5018,-2.8785,-12.9173,-9.5657,9.3911,5.2195,-6.9685,-2.0355,7.6895,-4.9865,-12.1736,-11.6979,-11.9489,-3.4496,-3.2699,-6.7504,-12.5422,-5.9558
1285.1562,5.6019,3.9804,-0.3032,-14.5492,-12.4371,7.8660,2.3865,-9.5461,0.9136,12.7922,-1.4124,-7.5783,-9.6237,-15.0764,0.1820,-1.2408,-6.3712,-12.9056,-4.3933
1289.0625,6.7451,5.6517,2.9975,-12.3767,-12.7785,5.8677,0.1305,-9.2961,4.0730,14.7581,3.7605,0.3831,-5.1343,-14.8482,3.9577,-0.0765,-4.0749,-9.6848,-2.6233
1292.9688,6.3158,6.5789,4.8209,-8.2175,-11.0831,4.3472,0.0999,-6.9117,6.5531,13.0629,8.6245,8.0586,-0.5940,-12.3932,6.1412,-0.0710,-1.4210,-4.7645,-1.8017
1296.8750,4.0133,7.1949,3.5889,-4.8042,-8.7774,3.7883,2.6967,-4.1516,8.0463,9.0263,11.6809,12.3056,1.7991,-9.7366,5.9401,-0.6983,0.0380,-0.5140,-2.6092
1300.7812,0.7965,7.9122,-0.4374,-4.1304,-7.2953,4.0184,6.7099,-2.7308,8.8325,5.1904,12.4309,12.0802,1.1298,-8.5712,3.8953,-1.0120,-0.3908,1.4466,-4.7586
1304.6875,-1.4776,8.7955,-5.1452,-6.4087,-7.2997,4.4401,10.0260,-3.3542,9.3590,3.9127,11.3319,8.6535,-1.9637,-9.3875,1.4066,-0.2999,-2.2742,0.8836,-7.1640
1308.5938,-1.1815,9.5194,-7.8215,-10.1766,-8.4932,4.4876,10.8902,-5.4492,9.7519,5.9598,9.3022,4.4911,-5.8751,-11.4238,-0.2140,1.4313,-4.4498,-1.2654,-8.6454
1312.5000,1.9101,9.6272,-6.8425,-13.3235,-10.0174,3.9948,8.8803,-7.6676,9.6801,10.0183,7.2097,1.7033,-8.9702,-13.3381,-0.4699,3.4327,-5.7571,-3.6463,-8.6603
1316.4062,6.2846,8.8921,-2.6879,-14.3158,-11.0816,3.2713,5.0369,-8.7625,8.7167,13.5255,5.6622,1.1065,-10.2910,-14.0891,0.2792,4.6493,-5.6365,-5.2189,-7.5620
1320.3125,9.5443,7.5163,2.3444,-12.9211,-11.4038,2.8892,1.2005,-8.2880,6.9100,14.3526,5.0780,2.3282,-9.7413,-13.4842,1.3761,4.3312,-4.2977,-5.5676,-6.2619
1324.2188,9.9339,6.0302,5.4740,-10.1565,-11.2624,3.3462,-0.9433,-6.7641,5.0545,12.2426,5.7711,4.5635,-7.8688,-12.1582,2.5007,2.4588,-2.4769,-4.7956,-5.6058
1328.1250,7.4932,4.9767,4.9378,-7.6500,-11.2351,4.8051,-0.5623,-5.3042,4.3434,9.0109,7.8327,7.2207,-5.5304,-11.1171,3.8636,-0.2485,-1.0178,-3.2773,-5.9252
1332.0312,4.0136,4.6026,0.7767,-6.8275,-11.8435,7.0204,2.1307,-4.9818,5.5630,7.3287,10.8656,9.9833,-3.6219,-11.1755,5.8454,-2.7139,-0.5227,-1.5093,-7.0215
1335.9375,1.8312,4.7533,-5.4066,-8.2933,-13.2811,9.4455,6.1079,-6.2806,8.3995,8.8921,13.8657,12.4499,-2.8550,-12.5695,8.4368,-4.0371,-1.1802,-0.0669,-8.4712
1339.8438,2.3173,5.0028,-11.3851,-11.5896,-15.2930,11.4379,9.9550,-8.8627,11.4213,13.2183,15.5096,13.8967,-3.5136,-14.8572,10.9797,-3.8860,-2.7441,0.5033,-9.9282
1343.7500,5.1139,4.8973,-15.3008,-15.3741,-17.2107,12.4705,12.3349,-11.7178,12.8511,17.8856,14.7989,13.5410,-5.2463,-17.0823,12.4536,-2.5612,-4.6086,-0.0518,-11.1859
1347.6562,8.5686,4.1562,-16.2333,-17.9548,-18.1476,12.2831,12.4168,-13.6089,11.6653,20.0397,11.6817,11.1449,-7.0927,-18.1308,12.0999,-0.7436,-5.9773,-1.4108,-12.0360
1351.5625,10.9364,2.7587,-14.2587,-18.0174,-17.3479,10.9464,10.1917,-13.6323,8.2802,18.1394,7.2047,7.4125,-7.8852,-17.1887,9.9133,0.8970,-6.1429,-2.6686,-12.1575
1355.4688,11.4134,0.9435,-10.1967,-15.2563,-14.5939,8.8319,6.5205,-11.6531,4.3395,12.8039,3.0235,3.7448,-6.8962,-14.1557,6.6426,2.0017,-4.8230,-2.7586,-11.2188
1359.3750,10.3146,-0.8247,-5.2742,-10.5717,-10.4648,6.4991,2.7842,-8.4000,1.7208,6.2936,0.5362,1.4501,-4.3356,-9.8118,3.3255,2.5819,-2.3879,-1.1217,-9.1392
1363.2812,8.4464,-1.9310,-0.7941,-5.6534,-6.2259,4.5277,0.2120,-5.1274,1.4113,1.0960,0.1768,0.9835,-1.3065,-5.5762,0.7295,2.8491,0.2040,1.8293,-6.2702
1367.1875,6.3414,-1.7888,2.1978,-2.1126,-3.3085,3.3432,-0.7653,-2.9814,2.9826,-1.3834,1.3015,1.7960,0.8341,-2.8911,-0.9004,2.9625,1.8179,4.8377,-3.2991
1371.0938,4.0297,-0.1354,3.2059,-0.6575,-2.6181,3.0867,-0.6979,-2.4138,4.9692,-1.2399,2.7070,2.8897,1.3183,-2.5241,-1.6627,2.8863,1.7196,6.5112,-0.9126
1375.0000,1.4621,2.6720,2.4071,-0.8469,-4.0833,3.5785,-0.6452,-3.0101,5.8476,0.4662,3.4039,3.6109,0.4252,-4.2082,-1.6295,2.4534,-0.0138,6.1618,0.5268
1378.9062,-0.9189,5.5823,0.4830,-1.5993,-6.7541,4.3982,-1.3225,-3.8703,4.9452,2.6160,3.1410,4.0430,-0.7837,-6.8733,-0.6594,1.5796,-2.5209,4.1997,1.0476
1382.8125,-2.1053,7.1665,-1.7811,-2.0987,-9.4049,5.0643,-2.4689,-4.3010,2.7204,4.5979,2.3905,4.7215,-1.2661,-9.3471,1.4138,0.4478,-4.6294,1.8115,0.8636
1386.7188,-1.1465,6.2700,-3.8789,-2.4142,-11.2410,5.2513,-2.9419,-4.3322,0.3276,6.2441,1.8935,5.9722,-0.7454,-11.0633,4.3746,-0.5084,-5.4923,0.1710,0.1243
1390.6250,1.9815,2.6874,-5.6752,-3.3347,-12.2300,4.9428,-1.5355,-4.6522,-1.1508,7.4050,2.1364,7.4783,0.1478,-12.2899,7.3904,-0.8488,-5.0015,-0.2393,-1.1256
1394.5312,6.0020,-2.5489,-7.1525,-5.5210,-12.8614,4.4276,2.0400,-5.9757,-1.2707,7.6766,3.1078,8.4612,0.4201,-13.7301,9.2417,-0.4409,-3.7457,0.2648,-2.7386
1398.4375,8.8708,-7.5016,-8.0577,-8.6514,-13.5708,4.1092,6.7486,-8.3094,-0.2886,6.5709,4.4296,8.3125,-0.5029,-15.8152,8.9614,0.3986,-2.5859,1.0339,-4.2499
1402.3438,8.9410,-10.1694,-7.8107,-11.3111,-14.3175,4.2122,10.7323,-10.7207,1.1895,3.9730,5.6793,7.1230,-2.3711,-18.2401,6.4803,1.0836,-2.1529,1.6826,-4.9518
1406.2500,5.9730,-9.4097,-5.8434,-11.8440,-14.6590,4.5651,12.4010,-11.8760,2.6308,0.4473,6.6271,5.6413,-4.3718,-20.1038,2.8053,1.1760,-2.5724,2.3202,-4.3183
1410.1562,1.2909,-5.4614,-2.1588,-9.6066,-14.2372,4.6322,11.3414,-11.0253,3.7714,-2.9227,7.2378,4.6918,-5.7949,-20.5345,-0.4597,0.7563,-3.5214,3.2633,-2.4869
1414.0625,-3.0151,0.1951,2.3510,-5.6629,-13.2256,3.8336,8.4161,-8.6977,4.5375,-5.0893,7.5098,4.5434,-6.5190,-19.2964,-1.9960,0.4474,-4.4873,4.5408,-0.3614
1417.9688,-5.2786,5.5303,6.1733,-2.2802,-12.3012,1.9896,5.0403,-6.5042,4.8723,-5.5922,7.3452,4.7637,-6.9078,-16.8919,-1.5042,1.0090,-5.0105,5.6804,0.8744
1421.8750,-5.0595,8.8352,7.9535,-1.4561,-12.0992,-0.4059,2.2414,-6.0669,4.6815,-4.7164,6.5909,4.6683,-7.2356,-14.0948,0.1861,2.7357,-4.7932,6.0141,0.5689
1425.7812,-3.1190,9.3496,7.2843,-3.4798,-12.5782,-2.3184,0.2258,-7.7848,3.9483,-3.1798,5.2178,3.9645,-7.1976,-11.3284,1.7065,5.0769,-3.7167,5.2730,-0.8463
1429.6875,-0.7316,7.4144,4.9396,-6.6025,-12.8632,-2.7013,-1.2809,-10.3550,2.8836,-1.6259,3.4725,3.0227,-6.0206,-8.4448,2.0489,6.7981,-1.8811,3.9498,-2.0507
1433.5938,1.1014,4.1694,2.3533,-8.1509,-11.7998,-1.1219,-2.3210,-11.5056,1.9251,-0.3091,1.8430,2.5344,-3.1879,-5.1282,1.1787,6.6566,0.3061,3.0607,-1.7347
1437.5000,2.0341,1.0009,0.6869,-6.3766,-8.8810,1.9221,-2.3302,-9.5348,1.5300,0.8414,0.8289,2.8574,0.7801,-1.5944,-0.0402,4.2006,2.1017,3.4204,0.3896
1441.4062,2.2523,-1.0074,0.1429,-1.7583,-4.8492,5.2357,-0.5123,-4.6184,1.8909,1.9153,0.6589,3.6294,4.2018,1.0530,-0.5429,0.1699,2.6119,4.9697,3.2174
1445.3125,2.1182,-1.4209,0.0051,3.1936,-1.4447,7.5881,3.3022,1.0696,2.7903,2.7850,1.1520,4.0186,5.0450,1.2447,0.1100,-3.7966,1.2056,6.7059,4.8681
1449.2188,1.9297,-0.5024,-0.6436,5.5431,-0.3739,8.3835,8.0664,4.6005,3.7188,3.1562,1.8229,3.4365,2.2349,-2.0185,1.3600,-6.0097,-2.0468,7.3317,3.9308
1453.1250,1.9145,1.0299,-2.0817,3.8662,-2.1709,7.9055,11.8158,4.1229,4.1922,2.8531,2.1681,2.1212,-3.4369,-8.2174,2.0063,-5.6328,-6.2201,6.1809,0.4959
1457.0312,2.3079,2.4153,-3.6310,-0.8026,-5.7557,6.9949,12.7941,0.0702,4.0516,2.0713,1.9490,1.0741,-9.5087,-15.1959,1.0562,-3.1005,-9.8527,3.7475,-3.7669
1460.9375,3.3024,3.2371,-4.1133,-5.6530,-9.0382,6.4229,10.6502,-5.0823,3.5418,1.3522,1.3003,1.3365,-13.1331,-20.0898,-1.5172,0.1786,-11.6211,1.4063,-6.5845
1464.8438,4.8337,3.5748,-2.7561,-7.9247,-10.1898,6.4209,6.8017,-8.3609,3.1196,1.2533,0.6072,3.1336,-12.6729,-20.7965,-4.6574,2.6211,-10.9897,0.5040,-6.4789
1468.7500,6.3989,3.8271,0.1226,-6.6320,-8.7332,6.6866,3.6218,-8.1192,3.1272,1.9320,0.2419,5.5463,-8.5951,-17.0808,-6.8640,3.2667,-8.4366,1.4525,-3.6582
1472.6562,7.1459,4.3118,3.1694,-3.0530,-5.7289,6.7997,2.9579,-4.9531,3.5521,2.9494,0.3293,6.9944,-3.1065,-10.6310,-7.1803,2.1280,-5.1217,3.4564,0.1829
1476.5625,6.2838,4.9192,4.7915,0.2749,-2.9672,6.6612,4.9951,-1.1448,4.0301,3.4619,0.6810,6.2148,1.1977,-4.0645,-5.8548,-0.0330,-2.2239,5.0534,2.9941
1480.4688,3.5929,5.0951,4.1722,1.3063,-1.7506,6.5733,8.2368,0.9348,4.0882,2.7136,0.9261,3.0669,2.7815,0.4572,-4.1948,-2.2637,-0.3828,5.0812,3.6596
1484.3750,-0.3146,4.2210,1.8317,-0.2025,-2.1009,6.8976,10.5713,0.3713,3.4705,0.5453,0.7537,-1.3660,1.8209,2.1542,-3.6739,-3.9223,0.4269,3.4149,2.6019
1488.2812,-4.1891,2.1589,-0.6389,-2.6463,-2.8936,7.6068,10.6394,-1.8046,2.3455,-2.3928,0.1182,-5.4024,-0.2443,1.6257,-4.8761,-4.8511,0.5820,1.0095,1.3468
1492.1875,-6.7112,-0.4440,-1.5029,-3.7340,-2.7691,8.1596,8.5614,-3.4445,1.2617,-4.8817,-0.7129,-7.6683,-1.8389,0.0842,-7.0085,-5.2224,0.3619,-0.7347,1.3965
1496.0938,-7.1108,-2.3765,0.1052,-2.0470,-1.1652,7.8730,5.6220,-2.8195,0.8597,-5.7380,-1.2978,-7.7182,-2.2591,-1.5576,-8.3584,-5.2643,-0.2773,-0.8406,3.1816
1500.0000,-5.4999,-2.5462,3.6691,1.9954,1.2180,6.5278,3.2867,0.1618,1.4880,-4.4818,-1.2714,-6.0773,-1.9451,-3.1520,-7.4373,-5.0889,-1.5560,0.6812,5.7556
1503.9062,-2.7656,-0.7031,7.5456,6.3065,2.7934,4.6989,2.3440,3.8157,2.9320,-1.7020,-0.5648,-3.8112,-1.9611,-5.1337,-4.0683,-4.6940,-3.5133,2.8653,7.3780
1507.8125,-0.1173,2.2995,9.7945,8.2643,2.0275,3.4642,2.7386,5.6722,4.4279,1.1339,0.5332,-1.9597,-3.1417,-7.9465,0.3292,-4.0509,-5.7632,4.3386,6.5696
1511.7188,1.4666,4.9342,9.1046,6.1165,-1.6433,3.6308,4.0247,3.9471,4.9994,2.4016,1.5194,-1.1265,-5.5011,-11.5318,3.4975,-3.1485,-7.5874,4.0421,2.9803
1515.6250,1.6396,5.8812,5.3510,-0.0951,-7.4361,5.0372,5.8754,-1.3841,3.9825,1.2432,1.9544,-1.3229,-8.2374,-15.1999,3.6935,-1.9573,-8.3161,1.7613,-2.4132
1519.5312,0.7843,4.8027,-0.4271,-8.5071,-13.5386,6.5081,8.1338,-8.4979,1.4735,-1.8205,1.7211,-2.0268,-10.2414,-17.9092,0.7840,-0.3908,-7.7217,-1.7532,-7.8240
1523.4375,-0.2173,2.5023,-6.5299,-16.2447,-17.9002,6.5921,10.4067,-14.6171,-1.5714,-5.0047,1.1067,-2.4072,-10.7306,-18.7363,-3.6231,1.6290,-6.1426,-5.0957,-11.5334
1527.3438,-0.4389,0.3668,-11.2852,-20.6524,-19.0828,4.6220,11.7170,-17.3624,-3.7067,-6.1467,0.6437,-1.7007,-9.6285,-17.2827,-7.1083,3.9978,-4.2601,-6.8140,-12.6389
1531.2500,0.6051,-0.5296,-13.6136,-20.3965,-16.8028,1.3515,10.7609,-15.8509,-3.7056,-3.9362,0.7810,0.3265,-7.5332,-13.8578,-7.8518,6.2711,-2.7032,-6.0839,-11.3275
1535.1562,2.6854,-0.0681,-13.2846,-15.9893,-11.9828,-1.3238,6.8098,-11.0229,-1.2505,1.2189,1.5689,3.0393,-5.3682,-9.4091,-5.6615,7.6894,-1.7618,-3.1693,-8.6229
1539.0625,4.9613,0.9321,-10.8423,-9.5239,-6.3398,-1.4289,0.6466,-5.0992,2.7894,7.2589,2.5494,5.0052,-3.9430,-5.2358,-2.0147,7.4518,-1.3791,0.5803,-5.8130
1542.9688,6.4428,1.3460,-7.2985,-3.7272,-1.6967,1.9282,-5.2946,-0.4868,6.7020,11.5122,2.9444,4.6166,-3.6319,-2.5599,0.8507,5.1213,-1.3706,3.2826,-3.8690
1546.8750,6.5571,0.5490,-3.7436,-0.7339,0.7107,8.0425,-7.9629,1.3130,8.7597,12.1373,2.0659,1.0467,-4.2799,-2.0673,1.1899,0.9278,-1.6575,3.4356,-3.1085
1550.7812,5.4598,-1.1297,-1.0090,-1.1463,0.6585,15.0376,-5.4268,0.2797,8.0992,9.1043,-0.2608,-5.0045,-5.3354,-3.5970,-1.4057,-4.2292,-2.3195,0.7504,-3.2017
1554.6875,3.8622,-2.5701,0.5326,-3.8472,-1.0876,20.8865,1.7770,-2.3109,5.1632,4.1161,-3.4978,-11.3291,-6.1360,-6.1553,-5.9987,-9.0999,-3.4424,-3.5857,-3.4568
1558.5938,2.4777,-2.5110,0.9970,-6.6813,-3.2273,24.3286,10.6527,-4.6878,1.4489,-0.4676,-6.5517,-15.1423,-6.2202,-8.3198,-10.9911,-12.5540,-4.9076,-7.4416,-3.2158
1562.5000,1.4929,-0.2795,0.8608,-7.6577,-4.5903,25.1463,17.2516,-5.5547,-1.2939,-2.9990,-8.2334,-14.4922,-5.5271,-8.8916,-14.9780,-13.9555,-6.3165,-8.8392,-2.1729
1566.4062,0.4841,3.8023,0.7241,-6.0218,-4.6700,23.7879,18.8195,-4.7088,-1.9568,-3.3336,-7.8049,-9.3430,-4.3835,-7.4797,-17.2403,-13.2740,-7.1366,-7.0141,-0.4919
1570.3125,-1.1149,8.5145,1.0365,-2.6064,-3.7617,20.7812,15.2607,-3.0037,-0.5612,-2.5916,-5.3388,-1.6734,-3.2876,-4.6992,-17.6999,-10.9380,-6.9820,-2.8192,1.2949
1574.2188,-3.3429,12.2448,1.8756,0.7064,-2.6688,16.4440,9.0073,-1.7348,1.8960,-2.1481,-1.7035,5.4918,-2.6181,-1.8687,-16.5550,-7.5696,-5.8427,1.7645,2.5236
1578.1250,-5.4040,13.6402,2.8691,2.0629,-2.1955,11.0551,3.4027,-1.8564,4.0884,-2.6137,1.8260,9.5578,-2.4562,-0.3680,-13.9870,-3.7618,-4.1103,4.7049,2.6532
1582.0312,-6.0609,12.1294,3.3240,0.6078,-2.7391,5.2104,0.6589,-3.5008,5.0790,-3.5063,4.1419,9.5168,-2.6306,-1.0015,-10.1757,0.0181,-2.3838,4.9349,1.4447
1585.9375,-4.5281,8.1337,2.5468,-3.1755,-4.1853,-0.0738,0.6948,-6.0391,4.7043,-3.7744,4.7795,6.2111,-2.9276,-3.6698,-5.5427,3.4207,-1.1751,2.7448,-0.9582
1589.8438,-1.2157,2.9074,0.2438,-7.8429,-6.0753,-3.7174,1.5486,-8.5482,3.4715,-2.7065,4.0647,1.6965,-3.2709,-7.4542,-0.9165,6.1726,-0.6791,-0.5760,-4.0288
1593.7500,2.2961,-1.9312,-3.1915,-11.7440,-7.8488,-5.1771,1.0102,-10.3099,2.1317,-0.5255,2.8751,-1.8186,-3.6938,-10.9963,2.6339,8.0519,-0.7188,-3.5080,-6.9228
1597.6562,4.1381,-5.0157,-6.6871,-13.6677,-8.9839,-4.8279,-1.6612,-11.0181,1.2511,1.7417,2.1564,-2.8732,-4.1110,-12.9686,4.2869,8.8911,-0.8724,-4.9656,-8.6305
1601.5625,3.3221,-5.7558,-8.8644,-13.0969,-9.0185,-3.7911,-5.0897,-10.6515,1.0263,2.9598,2.4533,-1.1544,-4.1045,-12.4769,3.9738,8.5965,-0.6998,-4.5385,-8.2487
1605.4688,0.3625,-4.5375,-8.6520,-10.1304,-7.5856,-3.2921,-6.6282,-9.2465,1.3683,2.5877,3.6910,2.5920,-2.9933,-9.3344,2.5300,7.1868,0.0415,-2.3617,-5.3431
1609.3750,-3.1177,-2.4891,-5.8573,-5.3269,-4.5759,-3.9842,-4.1378,-6.8511,2.0892,0.8882,5.2903,6.9418,-0.2623,-4.1752,1.3137,4.8605,1.2811,1.1049,-0.2657
1613.2812,-5.5214,-0.9105,-1.3851,0.3633,-0.3737,-5.7005,2.4495,-3.7145,3.0038,-1.4280,6.5189,10.2864,3.8878,1.6469,1.4634,2.0723,2.6630,5.1698,5.7694
1617.1875,-6.3149,-0.6502,3.0615,5.6471,4.0531,-7.7624,10.7825,-0.4914,3.8938,-3.7529,6.8665,11.3637,8.2992,6.4346,3.2265,-0.4506,3.7024,8.9137,10.9963
1621.0938,-6.2056,-1.7536,5.7013,9.1293,7.4065,-9.5569,17.1864,1.8452,4.4422,-5.8628,6.2515,9.7526,11.2322,8.7543,5.7823,-1.8407,4.0093,11.3177,13.7493
1625.0000,-6.3671,-3.5532,5.4896,9.8297,8.6278,-10.9294,18.5483,2.4682,4.2930,-7.7531,4.9931,6.1576,11.2605,8.0507,7.7079,-1.3926,3.4818,11.6450,13.1903
1628.9062,-7.3590,-5.1127,2.6253,7.7580,7.4767,-12.1249,13.9014,1.2675,3.2737,-9.2633,3.6206,2.2526,8.1813,4.9423,7.8445,1.0726,2.3768,9.9217,9.7437
1632.8125,-8.6219,-5.7435,-1.5132,4.1279,4.7286,-13.4022,4.8469,-0.9235,1.6475,-9.9074,2.6610,-0.0006,3.3287,0.9673,6.0670,4.9909,1.2117,7.1496,4.9719
1636.7188,-8.9514,-5.3048,-4.9878,0.9140,1.8052,-14.6970,-5.3279,-2.7180,0.1721,-9.1229,2.5047,0.6870,-0.9930,-2.1454,3.4861,9.1756,0.5407,4.9629,0.9077
1640.6250,-7.5463,-4.1669,-6.1829,-0.1285,0.0313,-15.6362,-13.2414,-3.0012,-0.1629,-6.7533,3.3562,4.2088,-2.6763,-3.2964,1.9210,12.2894,0.7173,4.8129,-0.8400
1644.5312,-4.7424,-2.9369,-4.5240,1.5657,-0.0212,-15.8773,-16.8178,-1.6437,1.3661,-3.3350,5.2087,9.0694,-0.8879,-2.4509,2.9012,13.4581,1.7668,7.1447,0.2407
1648.4375,-1.7830,-2.1507,-0.6914,5.0416,1.3062,-15.4511,-15.8351,0.4308,4.7615,0.1202,7.8010,13.1994,3.5916,-0.4428,6.7466,12.6842,3.4219,11.1155,3.4428
1652.3438,0.2245,-2.0848,3.7611,8.3956,3.1531,-14.7763,-11.5391,1.9117,9.1831,2.7460,10.5866,15.1301,8.9305,1.6851,12.2633,10.8007,5.2760,15.0761,7.2925
1656.2500,1.3141,-2.7125,7.1781,9.9221,4.7608,-14.3018,-5.7564,2.0487,13.2671,4.3880,12.8042,14.7930,13.2891,3.3378,17.2679,8.9689,6.9423,17.5220,10.2902
1660.1562,2.7403,-3.7406,8.5668,9.1007,5.8563,-14.0722,-0.0910,1.1882,15.7263,5.6578,13.7069,13.4204,15.6462,4.5806,19.6882,8.0084,8.1295,17.8907,11.5328
1664.0625,5.9544,-4.6808,7.9680,6.7885,6.5589,-13.6091,4.4453,0.4921,15.9036,7.3886,12.8942,12.6079,15.9396,5.8114,18.6418,7.9641,8.6295,16.6957,10.9243
1667.9688,11.2093,-4.9794,6.2629,4.5152,6.9621,-12.2648,7.3951,1.0359,13.9881,9.8756,10.5729,13.1690,14.5941,7.1947,14.8838,8.1728,8.2961,14.9632,8.9541
1671.8750,16.9043,-4.2378,4.5539,3.3946,6.8039,-9.8088,8.6696,2.9522,10.8183,12.4753,7.5611,14.5549,11.9491,8.3227,10.3596,7.7788,7.0876,13.4291,6.2694
1675.7812,20.2994,-2.4704,3.4976,3.4085,5.5469,-6.7864,8.4344,5.2635,7.4357,13.8981,4.9735,15.2248,8.1018,8.3753,7.1197,6.3638,5.1718,12.0920,3.3399
1679.6875,19.2137,-0.2320,2.9927,3.5387,2.8369,-4.3280,7.0734,6.5356,4.6664,13.0225,3.7215,13.7064,3.2599,6.6623,6.2267,4.2890,2.9945,10.4171,0.3912
1683.5938,13.5435,1.5562,2.4081,2.6119,-1.0331,-3.4972,5.0992,5.8723,2.9275,9.6717,4.0985,9.6308,-1.7917,3.1417,7.2920,2.5380,1.1961,7.9775,-2.4369
1687.5000,5.5038,2.0842,1.1876,0.2289,-5.0653,-4.6287,2.9321,3.5233,2.2781,4.8087,5.6900,4.0662,-5.6611,-1.4617,8.8862,2.1643,0.3548,4.9976,-4.9013
1691.4062,-1.6167,1.1871,-0.5858,-2.8819,-8.0205,-7.1321,0.6740,0.6813,2.5761,0.0209,7.6565,-1.0328,-6.9721,-6.0105,9.5286,3.6870,0.6776,2.3647,-6.6292
1695.3125,-5.3420,-0.4349,-2.0833,-5.3190,-9.1123,-9.8958,-1.8827,-1.3457,3.5895,-3.3426,9.2103,-3.8721,-5.2861,-9.5196,8.6112,6.7844,1.8377,1.0930,-7.2906
1699.2188,-5.2544,-1.5414,-2.2005,-5.9257,-8.4485,-11.9784,-4.8954,-1.9579,5.0095,-4.7960,9.9914,-3.6918,-1.6252,-11.5495,6.6858,10.4383,3.0967,1.6481,-6.8387
1703.1250,-2.8148,-1.0936,-0.3243,-4.5275,-6.9092,-13.0740,-7.9651,-1.4984,6.4349,-4.7224,10.1307,-0.9824,1.9108,-12.2206,4.9793,13.4073,3.6738,3.6309,-5.6131
1707.0312,-0.0227,1.0483,3.1226,-2.0040,-5.5615,-13.4321,-9.9231,-0.8058,7.4321,-3.8459,10.0039,2.9773,3.3139,-11.9358,4.5135,14.7498,3.1536,6.0391,-4.1965
1710.9375,2.0131,3.9673,6.7732,0.3049,-5.0388,-13.3569,-9.2599,-0.5081,7.6957,-2.6231,9.8843,6.8668,1.8935,-11.0819,5.4388,14.1409,1.6850,7.8957,-3.0959
1714.8438,3.5452,6.2408,9.0450,1.4108,-5.3099,-12.7458,-5.0967,-0.6351,7.2204,-1.0225,9.7485,9.8671,-1.2915,-9.9269,7.0027,11.8901,-0.1462,8.7827,-2.4673
1718.7500,5.4624,6.8728,9.0617,1.1576,-5.9485,-11.0825,1.8962,-0.8117,6.3414,1.1772,9.3552,11.7407,-4.1393,-8.7116,8.1094,8.7307,-1.6786,8.9265,-2.0858
1722.6562,8.0737,5.9705,7.1607,0.1006,-6.6233,-7.9165,9.3720,-0.7878,5.5727,3.8586,8.5068,12.5429,-4.9109,-7.7580,8.0313,5.5271,-2.5323,8.8305,-1.6034
1726.5625,10.4687,4.6635,4.6301,-1.0455,-7.3884,-3.4367,14.2903,-0.7956,5.3135,6.2859,7.2687,12.2773,-3.3871,-7.4218,6.7787,3.0112,-2.7431,8.7770,-0.9176
1730.4688,11.0299,4.2726,2.8354,-1.9472,-8.5397,1.3636,14.5710,-1.3927,5.6006,7.3695,5.9703,10.7835,-0.9817,-7.8883,4.9342,1.5918,-2.6215,8.5803,-0.3752
1734.3750,8.7309,5.2860,2.3260,-2.7935,-10.1753,5.1370,10.4063,-2.9122,6.0785,6.3521,4.9845,7.9234,0.2667,-8.9743,3.1675,1.2490,-2.4700,7.7532,-0.6216
1738.2812,4.1946,6.8783,2.5362,-3.9772,-11.8462,6.9692,4.2996,-4.9915,6.2220,3.4505,4.4660,3.9059,-0.8733,-10.1209,1.8430,1.5421,-2.3688,5.9374,-2.1480
1742.1875,-0.3795,7.3728,2.2963,-5.5899,-12.6254,6.9354,-0.3332,-6.6109,5.6835,-0.0362,4.2615,-0.5128,-3.9539,-10.6191,0.9878,1.7719,-2.1638,3.2731,-4.8206
1746.0938,-2.4811,5.3918,0.7937,-7.1319,-11.6001,6.0032,-1.1904,-6.6722,4.5524,-2.3143,4.0722,-4.1393,-7.1192,-9.9379,0.5444,1.2862,-1.6308,0.4541,-7.7316
1750.0000,-0.9115,0.9339,-1.6997,-7.6750,-8.4703,5.3381,1.5675,-4.7143,3.3612,-2.0790,3.7451,-5.7710,-8.3125,-7.9617,0.5880,-0.1792,-0.6748,-1.5598,-9.5382
1753.9062,3.3728,-4.3866,-3.8771,-6.4107,-3.8468,5.5169,5.5659,-1.2566,2.8208,0.6897,3.4534,-4.7599,-6.5955,-5.0337,1.2511,-2.3136,0.5731,-1.9945,-9.1515
1757.8125,7.8055,-8.1717,-4.2294,-3.2491,0.9532,6.2244,7.9299,2.4596,3.4251,4.6202,3.5939,-1.4312,-2.7216,-1.8391,2.4073,-4.3464,1.8018,-0.6341,-6.3885
1761.7188,9.7962,-8.6516,-2.1168,0.9125,4.4839,6.6399,7.3125,5.1213,5.1349,7.6325,4.4415,2.8957,1.3521,0.7752,3.4393,-5.4506,2.6474,2.0481,-2.1870
1765.6250,8.2957,-5.7779,1.6574,4.4597,5.7809,6.1908,4.8353,5.9354,7.3089,8.0367,5.8054,6.3770,3.6317,1.9963,3.4089,-5.2212,2.8123,5.0357,1.7859
1769.5312,4.3253,-1.2765,5.1916,5.7833,4.6936,5.0721,3.2579,4.8315,8.9322,5.4257,6.9688,7.4528,3.1690,1.2852,1.6210,-3.9335,2.1430,7.1255,3.9449
1773.4375,0.1845,2.3912,6.5698,4.1090,1.8452,4.1179,4.9162,2.2897,9.0503,0.8632,7.0220,5.6307,0.4498,-1.3335,-1.7918,-2.3918,0.6864,7.3844,3.5834
1777.3438,-2.0605,3.5032,5.0104,0.0023,-1.6626,4.1242,9.8539,-0.9415,7.2269,-3.7130,5.4213,1.8143,-3.0163,-5.0494,-5.7437,-1.4429,-1.2557,5.5577,1.2137
1781.2500,-1.7735,2.0509,1.3544,-4.7609,-4.6207,5.1620,15.4808,-4.0058,3.8159,-6.5034,2.4204,-2.0754,-5.5378,-8.3456,-8.7171,-1.4558,-3.1190,2.2529,-1.7334
1785.1562,0.1003,-0.3887,-2.4183,-7.9673,-6.0490,6.4398,18.0774,-5.9965,-0.1007,-6.6901,-0.9397,-4.0722,-6.0095,-9.5340,-9.6329,-2.1156,-4.2020,-1.2428,-3.6814
1789.0625,1.9044,-1.7649,-4.3484,-8.0554,-5.4775,6.8587,15.1996,-6.1155,-3.1272,-4.6696,-3.3315,-3.2419,-4.2837,-7.6218,-8.4746,-2.6784,-3.9609,-3.5225,-3.7296
1792.9688,2.4600,-0.9024,-3.6209,-4.9731,-3.1480,5.8598,7.4018,-4.0547,-4.1721,-1.6258,-3.8627,-0.2432,-1.1202,-3.0489,-6.2138,-2.5208,-2.3630,-3.7777,-2.0813
1796.8750,1.7437,1.7816,-0.9828,-0.3130,-0.0365,3.9218,-1.8830,-0.4192,-2.9914,1.2170,-2.5846,3.0114,2.1486,2.2452,-4.0884,-1.6105,-0.0692,-2.2896,0.1356
1800.7812,0.6701,4.6178,1.7733,3.4302,2.4309,2.3106,-8.2632,3.2083,-0.3607,3.1742,-0.4649,4.4588,4.1017,5.6583,-2.7689,-0.5663,1.7649,-0.3452,1.5398
1804.6875,0.2562,5.8087,2.9183,4.1527,2.9727,2.2350,-8.8972,4.8462,2.2684,4.2053,1.1755,3.1253,3.7782,5.3260,-2.0351,-0.2555,2.0621,0.4702,1.2813
1808.5938,0.8396,4.5730,1.8049,1.2999,1.1310,4.0083,-4.0151,3.1694,3.5037,4.5887,1.4242,-0.2591,1.1618,1.2845,-1.1878,-1.1964,0.4867,-0.7551,-0.4894
1812.5000,1.9065,1.5792,-0.8104,-3.7837,-2.3555,6.8156,3.4484,-1.5688,2.7667,4.5011,0.2785,-3.6823,-2.6324,-4.3808,0.1572,-3.1731,-2.2321,-3.6174,-2.7231
1816.4062,2.5861,-1.5543,-3.3103,-8.5654,-5.7959,9.2446,9.7823,-7.4217,0.6277,3.8592,-1.4128,-5.0715,-5.7068,-8.6091,1.5605,-5.3277,-4.6019,-6.5478,-4.0839
1820.3125,2.3812,-3.3063,-4.2694,-10.7256,-7.3774,10.1909,12.6912,-11.6614,-1.5143,2.5354,-2.5151,-3.5584,-6.2728,-9.0871,1.9847,-6.6744,-5.1986,-7.7344,-3.7287
1824.2188,1.5709,-3.1400,-3.3602,-9.4377,-6.1580,9.4980,12.3636,-12.2499,-2.2656,0.7387,-2.3168,0.0189,-3.6972,-5.5833,0.6225,-6.6926,-3.5506,-6.2749,-1.8120
1828.1250,1.0043,-1.6982,-1.5486,-5.7596,-2.6259,7.9178,10.8418,-8.9736,-1.1066,-0.8097,-0.9429,3.6935,0.9364,-0.0464,-2.3093,-5.6159,-0.4982,-2.8181,0.5860
1832.0312,1.4682,-0.2695,-0.4576,-1.9018,1.5509,6.4870,10.2577,-3.5198,1.2424,-1.1387,0.7653,5.6388,5.2387,4.6030,-5.4666,-4.2446,2.2593,0.7600,2.0820
1835.9375,3.1025,0.0481,-1.2886,0.1580,4.4647,5.8182,11.2040,1.5512,3.2187,0.3721,1.7997,5.2906,6.8156,6.2227,-7.1269,-3.4265,3.1945,2.4770,1.8111
1839.8438,5.2713,-1.0649,-3.9791,-0.1691,5.0292,5.8125,12.3490,4.2612,3.3644,3.4460,1.6036,3.5914,4.7361,4.6288,-6.3062,-3.5558,1.9173,1.4578,-0.0426
1843.7500,6.9407,-3.1027,-7.1504,-1.8784,3.5046,5.9292,11.5118,4.1769,1.2471,6.8349,0.3761,2.2289,0.2112,1.4833,-3.4584,-4.3938,-0.5703,-1.5429,-2.3425
1847.6562,7.2631,-5.1223,-8.9145,-3.2053,1.1769,5.7150,7.4160,2.3365,-2.2316,8.8488,-1.0990,2.4190,-4.0518,-0.9661,-0.2478,-5.2841,-2.5303,-4.6476,-3.6867
1851.5625,5.9565,-6.2203,-8.0678,-2.8960,-0.5595,5.1308,0.8873,0.3233,-5.3539,8.2193,-1.9613,4.0745,-5.5043,-1.4051,1.4621,-5.5755,-2.6516,-6.0556,-3.2766
1855.4688,3.2732,-5.8179,-4.9239,-1.0430,-1.0827,4.4363,-5.3569,-0.7995,-6.6218,4.7801,-1.7855,5.9096,-3.3912,-0.2106,0.7158,-4.9711,-0.9529,-5.1470,-1.4240
1859.3750,-0.3232,-3.7285,-1.2326,1.0601,-0.8053,3.7887,-8.2406,-0.9807,-5.6664,-0.4569,-0.7938,6.3719,0.7224,1.0100,-2.0613,-3.6180,1.1946,-2.7878,0.6411
1863.2812,-4.4543,-0.1752,0.8114,1.8990,-0.6793,2.9607,-6.2205,-0.8854,-3.4553,-5.8688,0.3261,4.7304,3.9231,0.7109,-5.4788,-1.9511,1.9710,-0.6754,1.5574
1867.1875,-8.8506,4.1247,-0.1150,0.8416,-1.3388,1.4752,-0.3239,-1.1728,-1.6690,-10.0641,0.8536,1.5705,3.8239,-1.4007,-8.1197,-0.4496,0.3617,-0.1986,0.7249
1871.0938,-13.1270,7.9057,-3.6357,-1.4104,-2.5132,-0.9144,6.3425,-1.9517,-1.6370,-12.4684,0.4434,-1.6125,0.1322,-4.0960,-9.3234,0.5348,-3.0687,-1.5745,-1.2682
1875.0000,-16.5686,9.5846,-7.8622,-3.3136,-3.1429,-3.7904,10.3304,-2.7808,-3.5036,-13.3236,-0.7167,-3.3935,-5.1052,-5.4385,-9.3325,0.8265,-6.4168,-3.7975,-2.9686
1878.9062,-18.2056,7.9002,-10.4921,-3.5481,-2.1262,-6.0837,9.7780,-3.1161,-6.1375,-13.1824,-2.0549,-3.2730,-8.7277,-4.0997,-8.8377,0.4098,-7.5685,-5.3718,-2.9312
1882.8125,-17.2286,2.7310,-10.1423,-1.9038,0.8203,-6.6114,5.3802,-2.7800,-7.8319,-12.3202,-2.9550,-1.8407,-8.3587,-0.2847,-8.3681,-0.5821,-5.5127,-5.2897,-0.5976
1886.7188,-13.5068,-4.4463,-7.1039,0.6090,4.7931,-4.8086,-0.1338,-2.0734,-7.3520,-10.5158,-3.0832,-0.2065,-3.7831,4.3324,-8.0041,-1.8661,-1.0091,-3.6127,3.3626
1890.6250,-7.8446,-10.9392,-3.0781,2.4648,8.1011,-1.1482,-3.6305,-1.4847,-4.6858,-7.3561,-2.5332,0.8311,2.9955,7.5878,-7.5444,-3.0582,3.8049,-1.3224,7.4367
1894.5312,-1.7512,-14.0656,-0.1031,2.6308,9.2048,3.0595,-3.2891,-1.2789,-1.0520,-2.8179,-1.7313,1.2631,8.9515,8.0691,-6.8731,-3.8194,6.6189,0.3820,10.1072
1898.4375,3.1842,-12.6030,0.6316,1.1914,7.6061,6.3718,0.5827,-1.3104,1.8208,2.3436,-1.1702,1.6907,11.6754,5.8424,-6.1472,-4.0487,6.2215,0.8306,10.6167
1902.3438,5.9603,-7.5597,-0.6386,-0.7965,4.1348,7.9671,6.0028,-1.1932,2.6925,6.7444,-1.1179,2.6870,10.4805,2.2687,-5.6391,-3.9853,3.0897,0.1947,9.2247
1906.2500,6.4922,-1.6815,-2.5805,-2.0670,0.4575,7.9753,10.6160,-0.6636,1.4924,9.0274,-1.4581,4.2239,6.4533,-0.8955,-5.4139,-4.1000,-1.0070,-0.7745,6.8755
1910.1562,5.4457,2.1003,-3.7086,-1.9846,-1.8816,7.2203,12.9780,0.1613,-0.7074,8.6142,-1.7558,5.6012,1.6090,-2.5122,-5.1769,-4.7929,-4.0831,-1.3356,4.5666
1914.0625,3.7324,2.3489,-3.3123,-0.9127,-2.3030,6.6038,13.0933,0.8223,-2.3843,6.0480,-1.5261,5.9123,-2.2251,-2.5862,-4.4828,-6.0741,-5.0182,-1.2460,2.8359
1917.9688,2.0071,-0.1420,-1.8048,0.0912,-1.4213,6.5572,12.0320,0.8104,-2.4930,2.6750,-0.5690,4.6793,-4.1681,-2.0580,-3.1614,-7.4604,-4.0283,-0.8432,1.6478
1921.8750,0.4504,-3.0324,-0.3463,0.0140,-0.5484,6.8842,11.0247,-0.0988,-1.0727,-0.1468,0.8274,2.1921,-4.4030,-2.0786,-1.6071,-8.1977,-2.3314,-0.7101,0.6616
1925.7812,-1.0993,-4.0727,-0.0448,-1.4236,-0.7980,7.0161,10.6611,-1.6792,0.8196,-1.8036,1.9691,-0.6680,-3.7698,-3.2464,-0.6525,-7.6963,-1.2943,-1.1858,-0.3631
1929.6875,-2.8328,-2.5828,-1.2550,-3.5402,-2.3468,6.4395,10.6282,-3.3284,1.8014,-2.6506,2.1215,-2.9460,-3.1652,-5.2461,-1.0700,-5.9011,-1.6079,-2.0562,-1.3069
1933.5938,-4.7133,0.2107,-3.3784,-5.0441,-4.3006,5.0066,10.0234,-4.3172,1.0582,-3.5695,0.9733,-4.0811,-3.0639,-7.0500,-3.0374,-3.3450,-2.9542,-2.6197,-1.7242
1937.5000,-6.4210,2.1554,-5.2353,-4.7480,-5.2504,2.9865,7.9634,-4.0929,-1.1078,-5.1734,-1.0863,-4.0285,-3.3358,-7.5218,-5.9421,-0.8453,-4.2923,-2.0835,-1.1266
1941.4062,-7.4868,1.7367,-5.7573,-2.2615,-4.1882,0.9115,4.1414,-2.5364,-3.4162,-7.2222,-3.0894,-3.0488,-3.3922,-6.0751,-8.6560,0.9499,-4.5387,-0.0554,0.6606
1945.3125,-7.4964,-0.8887,-4.6003,1.6927,-1.2383,-0.6360,-0.8910,-0.0999,-4.3693,-8.6736,-3.9905,-1.4305,-2.5869,-3.0448,-10.0891,1.8584,-3.2257,3.1506,3.2617
1949.2188,-6.2584,-4.0772,-2.3528,5.5017,2.2455,-1.1948,-5.7851,2.2431,-3.1817,-8.3662,-3.2743,0.5938,-0.6962,0.4009,-9.6666,2.1227,-0.7833,6.5670,5.7712
1953.1250,-3.8964,-5.8957,-0.2386,7.3413,4.3082,-0.5493,-8.7864,3.2872,-0.3056,-5.8847,-1.2894,2.7127,1.7747,2.7618,-7.4822,2.1055,1.6846,8.9725,7.0592
1957.0312,-0.8664,-5.4314,0.5360,6.0186,3.4236,1.1682,-8.3927,2.0867,2.7908,-2.0106,0.9270,4.4041,3.6979,2.8890,-4.1317,1.9884,2.9884,9.4554,6.2735
1960.9375,2.1097,-3.2892,-0.5383,1.5989,-0.6341,3.4235,-4.1108,-1.5347,4.4830,1.5856,2.2597,5.0552,3.8909,0.5428,-0.4187,1.7140,2.4908,7.8708,3.3312
1964.8438,4.2241,-1.0033,-2.9243,-4.4997,-6.5645,5.3662,3.0155,-6.7346,3.9737,3.2611,2.1890,4.3512,1.8907,-3.4367,2.8789,1.1960,0.4645,4.9610,-0.8602
1968.7500,4.8745,0.1151,-5.2388,-10.0378,-12.0951,6.1119,10.4923,-11.8759,1.7872,2.3613,1.0985,2.6567,-1.5484,-7.4460,5.1383,0.5824,-2.0183,2.0555,-4.6515
1972.6562,3.9636,-0.1866,-5.9490,-12.9097,-15.0317,5.1464,15.2649,-15.1895,-0.5468,-0.3870,0.0085,1.0175,-4.6552,-9.8066,5.9901,0.3003,-3.6197,0.4644,-6.3525
1976.5625,2.0230,-1.1499,-4.2322,-12.0871,-14.2588,2.6345,15.1377,-15.5654,-1.4403,-3.3103,-0.0943,0.6405,-5.5609,-9.5252,5.4368,0.7906,-3.4284,0.8442,-5.0929
1980.4688,0.0192,-1.7902,-0.5237,-8.0857,-10.1940,-0.5889,10.0022,-13.0439,-0.2367,-4.7850,1.1039,2.1115,-3.4509,-6.7685,3.9222,2.1138,-1.4472,2.8497,-1.3775
1984.3750,-1.1248,-1.7313,3.5986,-2.7157,-4.5126,-3.3983,2.0831,-8.7424,2.3819,-4.1693,3.0587,4.8765,0.7911,-2.8102,2.2190,3.7618,1.3969,5.2702,3.0384
1988.2812,-1.0425,-1.4243,6.1934,1.7601,0.6517,-4.9352,-5.1101,-4.2840,4.8353,-2.0937,4.7508,7.4187,4.9484,0.5446,1.0979,4.8862,3.7460,6.6120,5.9723
1992.1875,-0.1376,-1.6191,6.0002,3.6320,3.5937,-5.0082,-8.6361,-1.0785,5.6607,0.0483,5.3791,8.1174,6.7165,1.7886,0.9363,4.8424,4.5448,5.8553,5.9311
1996.0938,0.6800,-2.5568,3.1589,2.4217,3.6035,-4.0872,-7.6958,0.1581,4.4632,1.0556,4.9003,6.2947,5.0883,0.3928,1.5428,3.6720,3.6014,3.0074,2.8942
2000.0000,0.6072,-3.5634,-0.8225,-1.0498,1.0427,-2.9113,-3.9330,-0.5255,2.2043,0.6908,4.0639,2.7719,0.9881,-2.9929,2.3643,2.1465,1.6439,-0.8371,-1.6989
2003.9062,-0.4827,-3.3909,-3.8484,-5.1525,-2.9743,-1.9939,-0.2482,-2.5464,0.6459,-0.2215,3.9284,-0.4751,-3.2830,-6.9035,2.9548,1.2912,-0.1602,-3.9771,-5.7529
2007.8125,-1.9103,-1.0726,-4.3181,-8.1923,-7.0578,-1.3695,1.1018,-5.0813,1.2946,-0.4076,5.1751,-1.4049,-5.4577,-9.7855,3.3443,1.6953,-0.9277,-4.9023,-7.6331
2011.7188,-2.6178,3.3278,-1.9086,-9.0625,-9.9778,-0.7370,-0.1400,-7.2769,4.4862,0.9543,7.6500,0.8871,-4.6686,-10.7073,3.9798,3.1008,-0.5766,-3.0242,-6.9442
2015.6250,-1.8800,8.5988,2.3359,-7.5924,-10.9747,0.1499,-2.3000,-8.4059,9.1437,3.6447,10.3977,5.5793,-1.9042,-9.7090,5.2325,4.5829,0.1867,1.0094,-4.5636
2019.5312,0.1919,12.9624,6.5758,-4.5544,-9.9432,1.1814,-3.1454,-8.0749,13.3243,6.5087,12.1461,10.5056,0.7051,-7.6496,6.8502,5.2074,0.3886,5.5662,-2.0028
2023.4375,2.7188,14.9465,9.0284,-1.3875,-7.4772,1.9394,-1.5319,-6.4730,15.2117,8.1876,11.9455,13.2955,1.2655,-5.6790,7.8558,4.6905,-0.5291,8.7318,-0.5554
2027.3438,4.6666,14.0105,8.6556,0.2943,-4.7181,2.0709,1.8483,-4.4681,13.9962,8.0048,9.6259,12.6266,-0.7339,-4.6405,7.1036,3.5708,-2.3122,9.1449,-0.7400
2031.2500,5.5759,10.6274,5.4455,-0.6781,-2.9669,1.6856,5.0888,-3.3284,10.2023,6.4430,5.8727,8.9058,-4.2003,-4.7138,4.1867,2.7628,-4.0360,6.5934,-2.2683
2035.1562,5.8787,5.9215,0.3143,-4.4530,-3.1423,1.4218,6.5076,-4.0621,5.3671,4.9014,1.9392,4.0340,-7.1919,-5.4549,0.0302,2.8300,-4.6795,2.1090,-4.4029
2039.0625,6.5451,1.1906,-5.2080,-9.9007,-5.3203,2.0548,5.7872,-6.7095,1.3081,4.8649,-0.8362,0.4160,-8.0929,-6.1608,-3.3717,3.5399,-3.7510,-2.4821,-6.3776
2042.9688,8.2720,-2.4216,-9.3899,-14.9166,-8.6287,3.8738,3.9994,-10.0887,-0.6286,6.9703,-1.5071,-0.2500,-6.4665,-6.3224,-4.0521,4.0568,-1.5695,-5.3559,-7.6338
2046.8750,10.7755,-4.0756,-10.7832,-17.2925,-11.6233,6.2724,2.6062,-12.2972,-0.0199,10.5216,0.1648,2.2114,-3.1441,-5.9010,-1.3448,3.6364,0.9459,-5.4768,-7.8539
2050.7812,12.7141,-3.3441,-8.7420,-15.7966,-12.9865,7.9030,2.3069,-11.7749,2.6059,13.7582,3.6348,6.4144,0.3676,-5.2864,3.5363,2.2854,2.8050,-3.0156,-6.9305
2054.6875,12.3769,-0.3721,-3.8078,-10.8732,-12.1716,7.3880,2.6522,-8.2931,6.0932,14.7572,7.7608,10.1441,2.7050,-4.9907,8.0859,0.8519,3.4393,0.7977,-4.9876
2058.5938,8.7617,4.0003,2.3126,-4.4850,-9.6188,4.1875,2.6565,-3.1952,9.1559,12.4976,11.2020,11.4879,3.2176,-5.2840,9.9646,0.4371,2.8767,4.3140,-2.4221
2062.5000,2.3894,8.3567,7.3428,0.8969,-6.4240,-0.9275,1.7994,1.3350,10.8505,7.5080,12.9064,9.8062,2.0800,-6.0080,8.4091,1.5522,1.5616,6.2777,0.1552
2066.4062,-4.6751,11.1704,9.4510,3.6070,-3.6901,-6.1365,0.5096,3.5472,10.8711,1.7273,12.5002,6.0599,0.0449,-6.6833,4.6727,3.6681,0.0187,6.3981,2.1386
2070.3125,-9.6700,11.4667,8.1844,3.6074,-1.9782,-9.4629,-0.2850,3.1240,9.5785,-2.3892,10.4013,2.3179,-1.9279,-6.8391,1.2006,5.5378,-1.3866,5.3873,3.2022
2074.2188,-10.4220,9.3218,4.7534,2.3013,-1.1899,-9.7964,-0.1095,1.2503,7.7730,-3.0793,7.5947,0.6766,-2.9943,-6.3483,0.0818,6.0872,-2.4711,4.4644,3.4285
2078.1250,-6.3986,5.8706,1.4156,1.4670,-0.8925,-7.4482,0.5142,-0.2740,6.3138,-0.1760,5.1763,2.1467,-2.6566,-5.5479,1.7909,5.2182,-3.1182,4.6145,3.1691
2082.0312,1.0146,2.7713,0.2534,2.0254,-0.8002,-3.9155,0.5184,-0.2632,5.7556,4.7859,3.8990,6.1070,-0.9255,-5.0597,5.0168,3.9000,-3.2004,6.0285,2.7273
2085.9375,9.1252,1.4111,2.0412,3.4619,-1.0387,-1.0008,-0.5621,1.1142,6.1671,9.3410,3.9456,10.6423,1.6105,-5.4226,7.6283,3.4367,-2.6542,8.0306,2.1106
2089.8438,15.1046,2.2955,5.8633,4.2718,-2.0120,0.1935,-1.7463,2.5517,7.1981,11.3540,5.0038,13.5886,3.8911,-6.7680,8.0813,4.4258,-1.6493,9.5110,1.0633
2093.7500,17.1394,4.9324,9.6805,3.0948,-4.0002,-0.1836,-0.9584,2.5813,8.3324,10.1080,6.5356,13.6960,4.7239,-8.7393,6.3312,6.1873,-0.6764,9.5886,-0.6404
2097.6562,15.0582,8.2082,11.4608,-0.2565,-6.8084,-0.9252,3.4484,0.6153,9.1677,6.6377,8.0411,11.2399,3.2870,-10.6898,3.7109,7.1299,-0.4076,8.1123,-2.8851
2101.5625,10.2210,10.9755,10.1932,-4.5708,-9.7367,-0.5595,11.0444,-2.6404,9.5746,3.1359,9.1787,7.7426,-0.4243,-12.0187,1.9652,5.8462,-1.3475,5.7297,-5.1574
2105.4688,4.8135,12.5033,6.2542,-7.9439,-11.8929,1.7362,18.8960,-5.6316,9.6780,1.7712,9.7500,5.0169,-5.4588,-12.4263,2.1625,2.1820,-3.4723,3.5189,-6.8125
2109.3750,0.9201,12.6004,1.0568,-8.9152,-12.6318,5.6140,22.9440,-6.9120,9.7189,3.5741,9.6655,4.1542,-10.2046,-11.9544,4.1933,-2.4881,-6.1042,2.4226,-7.4646
2113.2812,-0.2212,11.4566,-3.6753,-7.2821,-11.8354,9.6937,20.4648,-5.9730,9.8984,7.9841,8.9820,5.0791,-13.0223,-10.8399,7.0774,-6.0084,-8.1492,2.8042,-7.1856
2117.1875,1.4757,9.3998,-6.5638,-4.1077,-9.8913,12.2534,11.9964,-3.4523,10.2802,13.2517,7.9793,6.8834,-12.9285,-9.3336,9.7188,-6.7328,-8.6048,4.3374,-6.3554
2121.0938,5.1145,6.7474,-6.9140,-0.9931,-7.4387,12.0893,1.3424,-0.6683,10.7634,17.3960,7.1470,8.6172,-10.0051,-7.6264,11.5063,-4.5098,-7.0709,6.2389,-5.2946
2125.0000,9.3011,3.8087,-4.7677,0.8603,-5.0776,9.1080,-6.4797,1.1680,11.1058,19.1416,6.9865,9.9335,-5.3381,-5.9015,12.3830,-0.7303,-3.9808,7.6842,-3.9990
2128.9062,12.6992,0.9658,-0.8147,1.2199,-3.2025,4.3839,-8.0788,1.5780,10.9972,18.3424,7.6963,11.1402,-0.5199,-4.4081,12.4809,2.5519,-0.4224,8.1912,-2.2150
2132.8125,14.4409,-1.2817,3.7672,0.7520,-1.9857,-0.3147,-3.5056,0.9590,10.1948,15.7658,8.9578,12.6864,3.0464,-3.4327,11.7544,3.8174,2.3574,7.8063,0.1983
2136.7188,14.2859,-2.3827,7.5997,0.4610,-1.4350,-3.2893,4.0737,0.2387,8.7050,12.5047,10.0304,14.5355,4.7035,-3.1521,9.9849,2.8382,3.5045,7.0324,2.9260
2140.6250,12.5483,-1.9106,9.5459,1.0277,-1.4489,-3.6245,10.5162,0.2785,6.9179,9.4424,10.1657,15.9443,4.6905,-3.4883,7.1619,0.5974,2.8874,6.5394,5.1861
2144.5312,9.8899,0.2124,9.1672,2.4042,-1.8634,-1.5463,13.1590,1.3498,5.5502,7.0582,9.0944,15.8439,3.8198,-4.1219,3.8730,-1.4487,1.0624,6.7778,6.1001
2148.4375,7.0883,3.5405,6.9103,3.8172,-2.5262,1.7168,12.0035,2.9328,5.3245,5.5587,7.2383,13.5507,2.8670,-4.7066,1.2813,-2.2123,-1.0747,7.6653,5.1909
2152.3438,4.8427,7.0843,3.8233,4.1243,-3.3984,4.5134,9.0265,3.9343,6.4945,5.0847,5.4561,9.2891,2.0354,-5.1480,0.5795,-1.4122,-2.7394,8.5187,2.6454
2156.2500,3.6258,9.5240,0.9130,2.3588,-4.6034,5.5373,6.3334,3.2363,8.5045,5.7453,4.4650,4.1542,0.8469,-5.7135,2.2407,0.5272,-3.5725,8.3255,-0.8290
2160.1562,3.5701,9.6533,-1.4348,-1.7374,-6.3328,4.4317,4.5794,0.3328,10.0872,7.4305,4.3429,-0.4506,-1.4267,-6.8383,5.6014,2.8823,-3.6718,6.2836,-4.4096
2164.0625,4.3994,6.9216,-3.5299,-7.4039,-8.6120,1.9204,2.7487,-4.2695,9.8701,9.5850,4.4893,-3.5015,-5.0306,-8.7254,9.1190,4.9993,-3.3708,2.3565,-7.4955
2167.9688,5.4564,1.8270,-5.8542,-12.9670,-11.0770,-0.6301,-0.6836,-9.1429,7.2097,11.2008,4.1067,-4.7294,-9.1902,-11.0312,11.1894,6.4455,-2.9338,-2.4925,-9.7507
2171.8750,5.8808,-4.0953,-8.3335,-16.4300,-12.9729,-2.0163,-6.1725,-12.5491,2.7333,11.1467,2.8670,-4.5124,-12.2247,-12.9186,11.0075,7.0042,-2.3803,-6.6088,-10.9173
2175.7812,4.9328,-8.7897,-10.0242,-16.3768,-13.4676,-1.9316,-12.3019,-13.2910,-1.8347,8.7050,1.2566,-3.4753,-12.3928,-13.5081,8.9190,6.6686,-1.5499,-8.4210,-10.6791
2179.6875,2.3584,-10.5377,-9.5780,-12.7633,-12.1382,-1.1784,-16.3478,-11.3345,-4.5656,4.0157,0.2975,-2.1430,-9.0336,-12.4509,6.0599,5.6837,-0.3534,-7.2957,-8.7972
2183.5938,-1.3888,-8.7649,-6.2550,-7.1059,-9.3080,-1.1781,-15.8294,-7.8122,-4.4522,-1.8529,0.7956,-0.8654,-3.2652,-10.2112,3.5707,4.5343,0.9902,-3.9681,-5.4569
2187.5000,-5.2314,-4.3765,-0.7671,-1.8371,-5.9619,-3.0262,-10.0448,-4.3761,-2.0627,-7.2820,2.6407,0.0492,2.3291,-7.8165,1.9457,3.7572,1.9406,-0.2425,-1.5001
2191.4062,-7.8904,0.5851,4.7413,0.9031,-3.2339,-6.6686,-0.6583,-2.2859,0.7346,-10.7556,4.6949,0.2289,5.0012,-6.2085,0.9488,3.6179,1.9161,1.9189,1.7650
2195.3125,-8.4815,3.8158,7.7048,0.3677,-1.7837,-10.7630,8.9550,-1.8087,1.8575,-11.4716,5.4179,-0.6639,3.4196,-5.6362,0.0991,3.8855,0.7176,1.4138,3.1766
2199.2188,-6.9890,3.7380,6.5519,-2.4906,-1.4847,-13.4005,15.1891,-2.3061,0.2520,-9.6243,3.8556,-2.6904,-1.4539,-5.5397,-0.6851,3.9502,-1.1934,-1.4676,2.3811
2203.1250,-4.3385,0.1355,1.6067,-5.7199,-1.6522,-13.3018,15.7236,-2.9055,-3.4867,-6.2489,0.3361,-5.4718,-6.8190,-5.0329,-0.7942,3.2988,-2.8110,-5.2977,0.0617
2207.0312,-1.9806,-5.8212,-5.1248,-7.6316,-1.6493,-10.7434,10.4080,-3.2368,-7.4998,-2.7309,-3.6159,-8.2878,-9.6331,-3.6561,0.7669,2.0396,-3.1048,-8.3641,-2.4810
2210.9375,-1.1714,-12.1052,-11.1332,-7.7888,-1.4201,-7.5693,1.2422,-3.6737,-9.7924,-0.2216,-6.1187,-10.3934,-8.3973,-1.8411,4.6671,1.0473,-1.6687,-9.5707,-4.1397
2214.8438,-2.3211,-16.6289,-14.7523,-7.0650,-1.5336,-6.1898,-8.4212,-4.8977,-9.3754,0.7805,-5.9965,-11.3159,-4.0069,-0.7068,10.6199,1.5041,0.9219,-8.8439,-4.6383
2218.7500,-4.7718,-17.9710,-15.8069,-6.7718,-2.6772,-8.1294,-15.1076,-7.1354,-6.7120,0.5210,-3.3904,-10.9102,0.8870,-1.2751,17.2764,4.0639,3.3334,-6.8687,-4.5423
2222.6562,-7.1343,-15.8090,-15.2306,-7.5203,-4.9630,-13.0170,-16.4761,-9.6899,-3.2531,-0.2502,0.4435,-9.1716,3.6069,-3.6336,22.7429,8.2026,4.2216,-4.4407,-4.6487
2226.5625,-8.0020,-10.9834,-14.0607,-8.6704,-7.5803,-18.6787,-12.2051,-11.1946,-0.4465,-0.7089,3.9640,-6.0429,3.1478,-6.6524,25.4299,12.2767,3.0842,-1.9471,-5.2313
2230.4688,-6.6505,-5.2164,-12.6136,-8.7919,-9.1165,-22.3185,-4.1760,-10.4753,1.0862,-0.3588,6.2197,-1.4803,0.7443,-8.5183,24.7488,14.3604,0.6768,0.6635,-5.7390
2234.3750,-3.3522,-0.5565,-10.4353,-6.8088,-8.3955,-22.0792,4.2079,-7.4283,1.6936,0.7772,7.2069,4.2002,-1.0554,-7.7966,21.2917,13.3784,-1.3280,3.4710,-5.2039
2238.2812,0.8283,1.3355,-6.9915,-2.9838,-5.3037,-18.0348,9.4100,-3.2691,2.1580,2.2453,7.5463,9.9809,-0.1828,-4.3637,16.4448,9.7997,-1.3028,6.1312,-3.0784
2242.1875,4.5939,-0.1466,-2.4960,1.0044,-1.0429,-12.0264,9.3296,0.0766,2.9476,3.4499,7.7998,14.2047,3.4774,0.3898,11.7005,5.4049,1.2980,7.8102,0.1298
2246.0938,6.9902,-4.2086,1.8117,3.0008,2.3989,-6.4870,4.3135,1.0684,3.8273,3.9708,7.9665,15.2099,7.9052,4.2312,8.0478,2.2473,5.4647,7.6243,2.9355
2250.0000,7.7061,-8.8665,4.2139,1.7205,3.2682,-3.0244,-2.9604,-0.5701,4.0897,3.7455,7.5219,12.2630,10.1721,5.2409,5.7223,1.4612,9.0566,5.3000,3.6882
2253.9062,7.0207,-11.7304,3.5492,-2.3913,0.9700,-1.6410,-8.7731,-3.7425,3.1978,3.0530,5.9340,6.2061,8.2912,2.7817,4.3586,2.6733,9.9256,1.5607,1.6137
2257.8125,5.5335,-11.0729,0.0476,-7.3431,-3.6246,-1.0151,-10.2309,-6.6684,1.3323,2.3499,3.2342,-0.6924,2.5221,-2.2335,3.3849,4.3618,7.1138,-2.0875,-2.5925
2261.7188,3.8863,-6.6752,-4.6060,-10.6922,-8.6261,0.4247,-6.7457,-7.8932,-0.5813,2.0699,0.1859,-5.7261,-4.6691,-7.8554,2.4051,4.8894,1.4378,-4.0965,-7.0238
2265.6250,2.6007,0.0087,-8.0584,-10.8512,-12.0439,3.3772,-0.3189,-6.9914,-1.4096,2.4703,-2.0976,-7.0707,-9.9478,-12.0342,1.3745,3.5196,-4.8780,-3.7017,-9.5358
2269.5312,2.0074,6.4987,-8.4934,-7.8417,-12.6738,7.2094,5.5480,-4.6120,-0.5569,3.5423,-2.8293,-4.6792,-10.9299,-13.4608,0.5106,0.7893,-9.3088,-1.3230,-8.8682
2273.4375,2.1813,10.4377,-5.5886,-3.1472,-10.5425,10.3900,7.7445,-1.9674,1.5882,4.9705,-2.0464,-0.2311,-7.4255,-11.9505,0.0327,-1.9264,-10.2623,1.6950,-5.2874
2277.3438,2.8618,10.6538,-0.7105,1.1257,-6.7730,11.4722,5.2262,-0.1726,3.8171,6.1498,-0.5789,3.8128,-1.4525,-8.3234,-0.0944,-3.3047,-7.7762,3.8287,-0.4283
2281.2500,3.4513,7.6022,3.7529,3.2365,-3.0182,9.9794,-0.4234,0.1843,4.7953,6.3144,0.4910,5.4768,3.9038,-3.9745,-0.2410,-2.8296,-3.3611,4.1548,3.5299
2285.1562,3.2156,3.0105,5.5927,2.4653,-0.7499,6.6822,-5.8296,-0.8842,3.8656,4.8146,0.5115,4.1435,6.0875,-0.3815,-0.9556,-0.9884,0.8517,2.7331,4.8958
2289.0625,1.6789,-1.0166,3.9214,-0.7454,-0.6870,3.1697,-7.5988,-2.9130,1.4712,1.4782,-0.3681,0.6278,4.2604,1.3079,-2.6535,1.1107,3.1444,0.4424,3.2031
2292.9688,-0.9893,-2.9324,-0.3137,-5.0641,-2.5469,1.0343,-4.0796,-5.1652,-1.0653,-3.1373,-1.3689,-3.4485,-0.4727,0.5743,-5.3414,2.3774,2.8947,-1.5597,-0.6499
2296.8750,-3.8902,-2.2843,-4.7443,-8.7623,-5.1891,1.1396,3.7968,-6.7764,-2.2903,-7.8138,-1.6601,-6.5193,-5.8034,-2.3013,-8.5615,2.2371,0.6344,-2.4120,-4.8630
2300.7812,-5.7742,0.3037,-6.7811,-10.2852,-7.1009,3.3157,13.0064,-6.9293,-1.4693,-11.1320,-0.9404,-7.6927,-9.4437,-6.2595,-11.6059,0.7670,-2.4199,-1.8788,-7.5585
2304.6875,-5.7261,3.5566,-5.0358,-8.8053,-7.0599,6.5446,19.9647,-5.1278,0.9515,-12.1284,0.3565,-6.9149,-10.1838,-9.7574,-13.8680,-1.4901,-5.0266,-0.3436,-7.6085
2308.5938,-3.7392,6.1069,-0.2084,-4.6184,-4.7040,9.4747,22.2937,-1.4957,3.5516,-10.7756,1.3539,-4.7727,-8.2940,-11.3246,-15.0960,-3.8440,-6.4151,1.4416,-5.1185
2312.5000,-0.7707,6.9623,5.1318,0.8334,-0.7375,11.0117,19.9146,3.1030,4.7180,-7.9635,1.3069,-2.1635,-5.1575,-10.1842,-15.3790,-5.7304,-6.4405,2.6925,-1.3579
2316.4062,1.8108,5.7929,7.8801,5.4643,3.3708,10.7664,14.9230,7.2971,3.5786,-4.9593,0.0836,0.0117,-2.4017,-6.6277,-14.9024,-6.8643,-5.4341,2.8876,1.8576
2320.3125,3.0420,3.0304,6.1921,7.4758,6.0878,9.2139,10.3374,9.7612,0.5587,-2.6803,-1.7485,1.1056,-1.0149,-1.8961,-13.6996,-7.2845,-3.9191,1.9566,3.0717
2324.2188,2.8880,-0.2352,0.7117,6.2950,6.5719,7.4967,8.4034,9.8195,-2.7780,-1.2644,-3.2605,0.9493,-0.9044,2.4211,-11.6501,-7.3017,-2.3611,0.3271,1.9547
2328.1250,2.1003,-2.5923,-5.5733,2.9684,5.0731,6.9104,9.3770,7.7499,-4.5472,-0.2270,-3.6927,-0.0197,-1.0988,5.1602,-8.7752,-7.3459,-1.0386,-1.1988,-0.4820
2332.0312,1.5170,-2.8443,-8.8994,-0.3206,2.7413,8.2477,11.4656,4.6007,-3.5736,0.9251,-2.8462,-0.8645,-0.4526,6.0859,-5.6032,-7.7293,-0.0341,-1.7333,-2.3946
2335.9375,1.3452,-0.5679,-6.8799,-1.4394,0.9425,11.3086,11.9845,1.6226,-0.0413,2.1023,-1.1214,-0.5677,1.5612,5.8198,-3.2435,-8.4120,0.6963,-0.6786,-2.1257
2339.8438,0.9988,3.5995,0.0248,0.4421,0.4736,14.8791,9.0982,-0.3506,4.6253,2.5465,0.7814,1.3774,4.4272,5.2515,-2.9619,-8.9229,1.2185,1.9698,0.7915
2343.7500,-0.3411,8.1719,8.6454,4.2884,1.1316,17.2852,3.1460,-1.2312,8.5881,1.3661,2.2800,4.5415,6.7842,4.8211,-5.4169,-8.5451,1.5220,5.5613,5.2187
2347.6562,-2.8483,11.4969,14.8223,7.7037,1.8792,17.2916,-3.2688,-1.5702,10.6296,-1.6727,3.1861,7.6354,7.1401,4.1638,-10.0406,-6.7249,1.4711,9.0364,8.8735
2351.5625,-5.5591,12.5666,15.7027,8.2579,1.4974,14.8424,-6.5746,-2.1266,10.7574,-5.6958,3.6950,9.1435,4.7017,2.3773,-15.0493,-3.4898,0.8499,11.3762,9.4749
2355.4688,-6.7347,11.4773,11.2516,4.8790,-0.6663,11.1617,-4.2511,-3.3820,10.0077,-9.0076,4.1365,8.1864,-0.1492,-1.2397,-18.2085,0.3995,-0.4927,12.0271,5.9794
2359.3750,-4.9329,9.2431,4.1120,-1.4893,-4.2813,8.0783,3.5687,-5.2521,9.5984,-9.9946,4.6768,5.0766,-5.9948,-6.4607,-17.9690,3.7112,-2.4600,11.0789,-0.7696
2363.2812,-0.0812,7.0775,-2.0263,-8.3346,-8.1692,6.9437,13.8875,-7.1075,10.0135,-8.0763,5.1719,1.1819,-11.0389,-11.9289,-14.2976,5.3151,-4.6062,9.1234,-8.3536
2367.1875,6.2311,5.6247,-4.4995,-12.8575,-10.8956,7.8210,22.2405,-8.0660,10.6565,-4.0695,5.2630,-1.8450,-13.9027,-15.6865,-8.6806,4.7521,-6.2269,6.9097,-13.9095
2371.0938,11.5208,4.6677,-2.9490,-13.3657,-11.4872,9.4977,24.9795,-7.4188,10.3215,0.2843,4.6435,-2.9818,-14.1344,-16.1809,-3.2935,2.4647,-6.6516,5.0170,-15.4914
2375.0000,13.7889,3.5062,0.8415,-10.0386,-9.9059,10.3496,21.1701,-5.0209,8.1636,3.3184,3.3228,-2.3074,-12.2142,-13.1748,0.1404,-0.4472,-5.6085,3.7126,-12.9552
2378.9062,12.6213,1.7059,4.2646,-4.7163,-7.0604,9.4946,13.0128,-1.4808,4.4816,4.3192,1.7098,-0.7501,-9.1484,-8.0053,1.1071,-2.7966,-3.4453,3.0146,-7.9242
2382.8125,9.3024,-0.3687,5.4365,0.0965,-4.3711,7.4412,4.5400,1.9677,0.7304,3.7461,0.4479,0.6564,-5.9482,-2.9993,0.2730,-3.8617,-1.0369,2.8372,-2.8918
2386.7188,5.9081,-1.6832,4.0524,2.4416,-3.1080,5.7494,-0.6432,3.9271,-1.3006,2.7241,0.0811,1.4499,-3.2855,-0.3399,-1.1896,-3.6143,0.6144,3.0761,0.0352
2390.6250,4.0259,-1.2748,1.2026,1.7261,-3.8048,5.9014,-1.2448,3.4812,-0.6253,2.2197,0.7351,1.8738,-1.4332,-0.9974,-2.3871,-2.5411,0.8869,3.5826,0.0868
2394.5312,3.9653,0.9225,-1.5185,-1.1878,-6.0112,8.1532,1.2913,0.7250,2.2447,2.4755,1.9992,2.4333,-0.3969,-4.3036,-3.0760,-1.2397,-0.1409,4.0990,-1.9915
2398.4375,4.9175,3.8095,-2.9406,-4.5721,-8.4967,11.1970,4.0064,-3.1439,5.5345,3.0381,3.0945,3.2795,-0.0647,-8.3816,-3.4722,-0.0840,-1.7583,4.2671,-4.5525
2402.3438,5.8263,5.6754,-2.7663,-6.7467,-9.8247,12.9245,4.4623,-6.3153,7.2374,3.2680,3.2544,3.9467,-0.2701,-11.1673,-3.7796,0.8393,-3.0483,3.7542,-6.0554
2406.2500,6.2493,5.2394,-1.4537,-6.8654,-9.0464,11.8133,2.2789,-7.2610,6.2842,2.9008,2.1198,3.6644,-0.7900,-11.4475,-3.8795,1.5486,-3.4159,2.4210,-5.8831
2410.1562,6.5628,2.4684,0.1961,-5.2378,-6.1869,7.9913,-0.7787,-5.5747,3.1013,2.2420,-0.0646,1.9945,-1.3659,-9.3713,-3.4255,1.9490,-2.8929,0.3961,-4.5407
2414.0625,7.4123,-1.4133,1.4112,-3.0870,-2.2751,3.2267,-2.1593,-2.2610,-0.7722,1.8859,-2.5667,-0.7282,-1.7909,-6.2103,-2.2235,1.7981,-2.0339,-2.0136,-3.1865
2417.9688,8.9040,-4.7399,1.6322,-1.8954,1.1218,-0.1838,-0.3872,0.7480,-3.7142,2.2003,-4.5347,-3.5247,-2.0056,-3.5686,-0.5418,0.9054,-1.4839,-4.5137,-2.8309
2421.8750,10.2224,-6.4732,0.5713,-2.6565,2.6447,-0.8878,3.8292,1.6241,-4.9910,2.9783,-5.4113,-5.3890,-2.1003,-2.5125,0.9356,-0.5946,-1.5114,-6.9521,-3.7032
2425.7812,10.0269,-6.7701,-1.7345,-5.3750,1.7937,0.6863,7.9744,-0.3482,-5.0475,3.5161,-5.1647,-5.9207,-2.1880,-3.0823,1.5020,-2.1474,-1.8224,-9.2645,-5.1453
2429.6875,7.3727,-6.6687,-4.8594,-9.0406,-0.8565,2.6866,9.3300,-4.3680,-4.9882,3.0727,-4.2192,-5.4835,-2.2367,-4.3941,0.8919,-2.9976,-1.7789,-11.2726,-6.0509
2433.5938,2.4997,-7.1674,-8.0199,-12.0858,-3.9844,3.1183,6.7330,-8.5597,-5.6739,1.4006,-3.1518,-4.7815,-2.0207,-5.2088,-0.5127,-2.6216,-0.8751,-12.5226,-5.5444
2437.5000,-3.0965,-8.4117,-10.2975,-13.1184,-6.2040,1.1431,1.3261,-11.0047,-7.0938,-1.0052,-2.3612,-4.2172,-1.2812,-4.6238,-1.8636,-1.0828,0.8559,-12.3741,-3.4753
2441.4062,-7.3972,-9.6130,-11.0062,-11.5835,-6.7236,-2.4886,-4.1798,-10.7677,-8.4360,-3.1170,-1.9202,-3.5724,-0.0121,-2.5276,-2.2916,0.9616,2.7840,-10.3731,-0.4561
2445.3125,-8.9373,-9.7485,-10.0058,-8.0368,-5.6325,-6.1128,-7.2219,-8.3393,-8.7625,-3.9308,-1.6794,-2.2875,1.3540,0.3768,-1.3485,2.6506,4.0229,-6.7013,2.5304
2449.2188,-7.5502,-8.4808,-7.7562,-3.8841,-3.7020,-8.3818,-6.9373,-5.2740,-7.7647,-3.0476,-1.5100,-0.1016,2.0685,2.9453,0.7749,3.4597,3.9553,-2.3535,4.6797
2453.1250,-4.3548,-6.5548,-5.0598,-0.7008,-1.8670,-9.1236,-4.5483,-3.2679,-6.0350,-0.9345,-1.4675,2.5107,1.4989,4.1494,3.3224,3.5182,2.6056,1.1883,5.7398
2457.0312,-1.0596,-5.3143,-2.6502,0.5434,-0.7182,-9.2322,-2.3755,-3.2191,-4.6475,1.2984,-1.7269,4.5390,-0.3742,3.5470,5.2787,3.4598,0.6264,2.7013,6.0322
2460.9375,0.9329,-5.6649,-0.8806,-0.0359,-0.2819,-9.7411,-2.1879,-4.7870,-4.3449,2.4973,-2.3244,5.1874,-2.7526,1.4627,5.7922,3.8917,-1.0851,1.9730,6.1691
2464.8438,1.0941,-7.2638,0.3187,-1.3115,-0.1620,-10.8522,-4.0082,-6.6568,-4.9185,2.1058,-2.9187,4.6014,-4.3200,-1.1862,4.5844,4.8580,-1.8913,0.0548,6.6744
2468.7500,-0.2267,-8.5923,1.2416,-1.7576,0.1057,-11.7037,-6.1440,-7.3214,-5.2471,0.4775,-2.8106,3.9415,-3.9351,-3.3262,2.1903,5.7039,-1.7239,-1.2339,7.7226
2472.6562,-2.2106,-7.9455,2.1450,-0.2998,0.7365,-11.0689,-6.3779,-5.9287,-4.0143,-1.3359,-1.2934,4.6428,-1.3213,-4.2211,-0.1346,5.4804,-1.0241,-0.3391,9.0968
2476.5625,-4.0355,-4.6891,3.1091,3.0464,1.5998,-8.4375,-3.4837,-2.7431,-0.6516,-2.2069,1.8429,7.3422,2.6903,-3.7853,-0.9218,3.6365,-0.3854,3.0509,10.3343
2480.4688,-5.1196,0.1026,4.0724,7.1116,2.3630,-4.6148,1.9316,1.0027,4.1239,-1.5950,5.9915,11.2785,6.5489,-2.5631,0.7325,0.5131,-0.1480,7.7092,10.9595
2484.3750,-5.1198,4.1270,4.9531,10.1539,2.7477,-1.3299,7.7707,3.7641,8.5678,0.1614,9.8627,14.6727,8.7987,-1.3780,4.5066,-2.7334,-0.2114,11.4974,10.7021
2488.2812,-3.8609,5.2049,5.7263,10.7972,2.7282,-0.1027,11.6840,4.4910,10.8510,2.1057,12.0659,15.8853,8.8403,-0.8411,8.7700,-4.7608,-0.1660,12.5903,9.6303
2492.1875,-1.3769,2.6618,6.3965,8.8187,2.5578,-1.2012,12.3655,3.1646,10.1303,3.3023,11.8305,14.5362,7.1937,-0.9929,11.2846,-4.8096,0.3649,10.5761,8.1561
2496.0938,1.9276,-2.1406,6.9163,5.3329,2.6269,-3.4749,10.1020,0.7911,7.0911,3.4171,9.4297,11.7587,5.1332,-1.2978,10.4157,-3.0910,1.4140,6.7529,6.8903
2500.0000,5.1749,-6.4747,7.1449,2.2409,3.2420,-5.2020,6.3346,-1.1369,3.6103,2.8433,6.0301,9.3687,3.9480,-1.0087,6.1715,-0.5426,2.5931,3.4173,6.3734
2503.9062,7.1785,-7.7344,6.8960,1.2292,4.4463,-5.3259,2.6479,-1.4238,1.7229,2.2991,3.0478,8.5371,4.2821,0.3055,0.3845,1.8415,3.2975,2.5578,6.7872
2507.8125,6.9158,-4.8784,6.0376,2.8675,5.9663,-4.1646,-0.0784,0.2112,2.4935,2.2125,1.4046,8.9426,5.9066,2.3945,-4.1752,3.6005,3.0566,4.7259,7.8023
2511.7188,4.0990,0.9736,4.5662,6.3074,7.3047,-3.0706,-1.8353,3.0068,5.4520,2.3702,1.1420,9.0467,7.9748,4.3620,-5.2909,4.8911,1.8165,8.7470,8.6893
2515.6250,-0.5072,7.0904,2.6154,9.7427,7.9366,-3.3156,-2.9855,5.5793,8.9085,2.1117,1.6055,7.3062,9.5181,5.1091,-2.5117,6.0477,-0.0108,12.4145,8.6865
2519.5312,-5.2908,10.4992,0.4296,11.3628,7.5262,-5.0548,-3.5979,6.6545,10.9376,0.9206,2.0277,3.4367,9.8644,3.9403,2.6402,7.0216,-1.7487,13.7264,7.4455
2523.4375,-8.4951,9.4581,-1.6475,10.2711,6.0700,-7.1602,-3.1847,5.7141,10.4357,-1.0587,2.0805,-1.2126,8.7955,0.9891,7.5655,7.2083,-2.7873,11.9361,5.2923
2527.3438,-9.0788,4.3175,-3.1653,6.8900,3.9072,-8.0507,-1.0718,3.2225,7.6426,-3.0140,2.0101,-4.4672,6.4858,-2.7782,9.9962,5.8613,-2.8628,7.8542,3.1200
2531.2500,-7.2500,-2.6124,-3.6117,2.6894,1.5915,-6.8867,2.8745,0.3435,3.8756,-4.0095,2.2925,-4.7514,3.3801,-5.9747,9.0680,2.8083,-2.1499,3.3166,1.9451
2535.1562,-4.3409,-8.1062,-2.5857,-0.5559,-0.3172,-4.2265,7.7377,-1.6664,0.7064,-3.6736,3.1048,-2.1113,0.1198,-7.3982,5.5073,-1.1101,-1.1404,0.2054,2.3705
2539.0625,-2.0599,-9.5018,-0.0745,-1.5736,-1.4496,-1.6480,11.7169,-2.0509,-0.8784,-2.4749,4.0485,1.8730,-2.5223,-6.5290,0.9996,-4.3029,-0.3903,-0.4087,4.2615
2542.9688,-1.5334,-5.9540,3.3273,-0.0948,-1.7315,-0.6201,12.9767,-0.8463,-0.8449,-1.3391,4.3717,5.1838,-3.8121,-3.7135,-2.7301,-5.3128,-0.2653,1.3879,6.8125
2546.8750,-2.6978,1.1214,6.4685,3.1020,-1.3681,-1.4612,10.7093,1.2203,0.1260,-0.8827,3.5495,6.6531,-3.3680,-0.0037,-4.5729,-3.7544,-0.8022,4.5597,8.9397
2550.7812,-4.4101,8.6555,8.0582,6.5422,-0.7401,-3.1473,5.7424,3.1105,1.2183,-0.8800,1.7885,6.5220,-1.4795,3.2371,-4.2138,-0.6468,-1.7332,7.6392,9.7620
2554.6875,-5.2157,13.3531,7.2972,8.6155,-0.2682,-4.0877,0.2612,3.9180,1.9603,-0.4292,0.0365,5.9335,0.8209,4.8037,-1.9919,2.1361,-2.6464,9.2594,8.9135
2558.5938,-4.3011,13.2720,4.3720,8.1590,-0.2944,-3.2793,-3.2642,3.1903,2.3117,1.2570,-0.5795,5.8154,2.1021,4.0558,1.2977,2.9685,-3.1952,8.5363,6.5801
2562.5000,-2.0321,8.7496,0.4655,4.9029,-0.9906,-0.9976,-3.3631,1.0480,2.3963,4.0376,0.4623,6.0434,1.2131,1.1642,4.5721,1.4158,-3.2541,5.2912,3.3263
2566.4062,0.2684,2.1613,-2.8025,-0.3542,-2.2901,1.4446,-0.3236,-1.8853,2.1892,6.6804,2.6218,5.5283,-2.0430,-2.8858,6.7063,-1.5832,-2.9449,0.1433,-0.1333
2570.3125,1.1648,-3.3899,-4.2267,-5.9467,-3.8533,2.6397,4.0250,-4.6925,1.4592,7.5627,4.5339,3.1596,-6.6434,-6.5776,6.9394,-4.3754,-2.5214,-5.5616,-3.1017
2574.2188,0.0326,-5.7319,-3.6611,-9.9240,-5.1044,2.0152,7.3812,-6.4556,0.0256,5.7769,4.8414,-1.1061,-10.6938,-8.3928,5.2856,-5.6149,-2.1752,-10.0729,-4.9944
2578.1250,-2.5375,-4.6833,-2.0461,-10.8335,-5.3798,0.1026,8.2568,-6.5634,-1.9062,1.8393,3.0985,-5.8351,-12.2508,-7.4091,2.6095,-4.9693,-1.8747,-11.8151,-5.4119
2582.0312,-5.1167,-1.9101,-0.7825,-8.3645,-4.1737,-1.9686,6.7043,-4.9382,-3.6553,-2.5454,0.1365,-8.7281,-10.2053,-3.7012,0.1540,-3.1065,-1.3454,-10.0467,-4.2222
2585.9375,-6.3386,0.2885,-0.8390,-3.4978,-1.3940,-3.2961,4.0547,-2.0772,-4.3694,-5.5185,-2.3867,-7.8938,-4.7885,1.6823,-1.2723,-1.0803,-0.2258,-5.2641,-1.6273
2589.8438,-5.7249,0.4649,-2.1595,1.9660,2.5073,-3.7134,1.8550,1.1412,-3.5465,-6.1638,-2.9931,-2.9868,2.5197,7.1888,-1.8680,0.3829,1.6684,0.9284,1.8452
2593.7500,-3.8977,-1.1701,-3.7516,6.2768,6.6292,-3.6641,0.7220,3.8196,-1.4043,-4.8916,-1.3064,4.4801,9.5834,11.4431,-2.6488,1.2057,4.1253,6.4955,5.4497
2597.6562,-2.0681,-3.0917,-4.3902,8.5180,9.9283,-3.6433,-0.0955,5.3999,1.1942,-2.8904,1.7079,11.8109,14.3968,13.7702,-4.5097,1.7530,6.5154,9.8627,8.3912
2601.5625,-1.1870,-3.6510,-3.4676,8.8520,11.6060,-3.7249,-2.1004,5.8293,3.2328,-1.1373,4.3442,16.3715,15.7372,14.2806,-7.2068,2.3585,8.0224,10.5367,9.9885
2605.4688,-1.3581,-2.2534,-1.4313,8.1164,11.3862,-3.5646,-6.2386,5.4518,4.1198,0.2287,5.2142,16.7274,13.4876,13.5230,-9.1269,2.9963,8.0331,9.1167,9.7959
2609.3750,-1.9005,0.2738,0.4696,7.0878,9.5590,-2.8364,-11.7794,4.7163,3.9566,1.7017,4.0838,13.1448,8.5957,11.9891,-8.2190,3.3293,6.4790,6.7460,7.6961
2613.2812,-1.9732,2.3273,0.9524,5.9483,6.7939,-1.6873,-16.2266,3.9035,3.3363,3.6093,1.9724,7.3224,2.7305,9.8370,-3.5604,3.0355,3.9247,4.4023,3.9878
2617.1875,-1.2677,2.6739,-0.5119,4.3266,3.8481,-0.7805,-16.4906,3.0503,2.8636,5.4611,0.4833,1.5924,-2.2609,7.0081,3.5784,2.1062,1.3294,2.4995,-0.5663
2621.0938,-0.2480,1.2751,-3.3683,1.8565,1.3280,-0.8432,-10.7282,2.0956,2.7762,6.0767,0.8207,-2.0044,-4.9620,3.5979,10.0911,0.8701,-0.4038,1.0076,-4.8211
2625.0000,0.2302,-0.7545,-6.2567,-1.2034,-0.4113,-2.0582,0.2457,1.1027,2.9414,4.4732,3.1183,-2.4116,-4.8735,0.1344,12.7666,-0.2503,-0.8438,-0.1012,-7.5321
2628.9062,-0.3820,-1.9634,-7.6746,-3.8063,-1.2508,-3.7905,12.9045,0.3507,3.1712,0.8200,6.4594,0.1841,-2.5694,-2.5215,10.3026,-1.0249,-0.1785,-0.5117,-7.7941
2632.8125,-1.8527,-1.5353,-6.6231,-4.6112,-1.2623,-4.9105,22.4742,0.1887,3.5324,-3.3602,9.5024,4.5585,0.5971,-3.6432,4.2045,-1.5020,0.9794,0.3384,-5.4442
2636.7188,-3.2885,0.2435,-2.9427,-2.8490,-0.7005,-4.5270,25.1743,0.7343,4.3351,-6.0280,11.2560,9.0094,3.1510,-3.1590,-2.1127,-1.8417,1.9938,2.7622,-1.1986
2640.6250,-3.7699,2.2723,2.6884,1.0173,-0.0116,-2.6272,20.0232,1.6407,5.7716,-5.9678,11.5149,12.0485,4.1977,-1.8328,-5.4460,-2.0574,2.5544,6.3151,3.5920
2644.5312,-3.0280,3.3911,8.9475,5.3179,0.2213,-0.1654,9.2433,2.1419,7.5151,-3.6533,10.7514,12.9482,3.7852,-0.9237,-4.7074,-1.9058,2.7582,9.7247,7.4630
2648.4375,-1.6552,3.0536,14.1216,7.9357,-0.5394,1.4835,-2.8881,1.4177,8.6798,-0.9481,9.6419,11.9161,2.7093,-1.4978,-1.3294,-1.0360,2.8971,11.4229,9.3636
2652.3438,-0.6790,1.5216,16.4472,7.3835,-2.5120,1.3590,-12.0445,-0.8990,8.2994,0.2059,8.6134,9.8350,1.8923,-3.8135,2.0109,0.7056,3.1250,10.4058,8.9388
2656.2500,-0.8039,-0.4214,14.6280,3.5840,-5.3717,-0.4963,-15.6288,-4.3730,6.0556,-0.8092,7.7097,7.7274,1.7483,-7.1590,3.3418,3.0469,3.2628,6.8806,6.4894
2660.1562,-1.8764,-1.9315,8.4840,-2.0751,-8.2516,-3.0584,-13.5016,-7.8199,2.7244,-2.8190,6.7930,6.2460,1.9642,-10.2312,2.5945,5.3224,2.8976,2.2558,2.7333
2664.0625,-2.9701,-2.4259,-0.5780,-7.4198,-10.0503,-4.9184,-7.5127,-9.7971,-0.0656,-3.6967,5.8448,5.4617,1.8352,-11.8144,1.2746,6.7671,1.7175,-1.5588,-1.4425
2667.9688,-3.0382,-1.6685,-9.7154,-10.5217,-9.9505,-5.0673,-0.3233,-9.3208,-0.7134,-1.9342,5.0928,5.0184,0.8897,-11.3610,1.0168,6.8940,-0.1554,-3.1376,-5.1474
2671.8750,-1.6685,0.2562,-15.6375,-10.5583,-7.8994,-3.3944,5.7659,-6.4463,1.3625,2.1715,4.8646,4.5001,-0.6747,-9.1833,2.2312,5.7290,-2.0944,-2.2306,-7.6221
2675.7812,0.6040,2.9425,-16.1231,-8.1116,-4.7663,-0.6405,9.4805,-2.3814,5.2803,6.5829,5.3096,3.7528,-2.0843,-6.2214,3.8762,3.7791,-3.2481,0.2252,-8.4287
2679.6875,2.6547,5.6528,-11.2711,-4.8099,-2.0272,2.1084,10.6413,0.9824,9.1368,8.8219,6.2334,2.9840,-2.5506,-3.5725,4.4338,1.7713,-3.0215,2.7363,-7.6620
2683.5938,3.5458,7.4518,-3.6406,-2.5065,-1.0740,4.0380,9.8536,1.9459,11.0956,7.6243,7.1910,2.6401,-1.8658,-2.0366,3.2120,0.3235,-1.4535,4.1198,-5.9984
2687.5000,3.1726,7.5847,2.9998,-2.3694,-2.4737,4.9602,8.0796,-0.1246,10.4465,3.8181,7.7710,3.1898,-0.5611,-1.8483,0.8958,-0.2805,0.7633,4.1049,-4.4065
2691.4062,2.3214,5.9543,5.7268,-4.2886,-5.5847,5.2331,6.2470,-4.3881,7.9750,-0.1694,7.8487,4.9330,0.5216,-2.6482,-1.0589,-0.1226,2.6521,3.3725,-3.5674
2695.3125,2.0976,3.3547,4.1172,-6.8936,-8.7890,5.3587,4.9411,-8.8491,5.4258,-1.8482,7.6131,7.8597,0.9257,-3.6689,-1.6328,0.4920,3.4910,3.0746,-3.3535
2699.2188,3.1216,1.1726,0.4332,-8.2317,-10.2903,5.5563,4.2357,-11.3157,4.4206,-0.2353,7.3555,11.5301,0.9911,-4.0838,-1.0226,1.2467,3.1871,4.1421,-2.8048
2703.1250,5.0470,0.6131,-1.8633,-6.8405,-9.0949,5.6005,3.7523,-10.5376,5.5131,3.5389,7.1954,14.9979,1.6076,-3.4273,-0.3560,1.9726,2.2577,6.7481,-0.7770
2707.0312,6.7308,1.8956,-0.3778,-2.6872,-5.6445,5.0132,2.9876,-6.9189,7.9355,6.9308,6.9695,16.9090,3.4383,-1.9261,-0.5991,2.6773,1.4446,10.1700,3.0671
2710.9375,6.9412,3.9929,4.6174,2.5871,-1.7047,3.4554,1.7608,-2.3701,10.1277,7.5078,6.3786,15.9071,6.1759,-0.5329,-1.5833,3.4456,1.2200,13.0843,7.6173
2714.8438,5.1350,5.1871,10.3207,6.3786,0.4991,1.0278,0.4708,0.6768,10.6719,4.3484,5.2831,11.3099,8.4395,-0.5411,-1.9760,4.2967,1.5053,14.1499,10.6169
2718.7500,1.8155,4.1675,13.2186,6.5117,-0.5262,-1.7418,-0.1072,0.5857,9.0627,-1.4731,3.9143,3.7404,8.4996,-2.8773,-0.2494,5.1136,1.7753,12.6339,9.9003
2722.6562,-1.7277,0.9713,11.4014,2.5562,-4.6761,-4.2194,0.5532,-2.5779,5.9180,-7.5005,2.8266,-4.7370,5.4200,-7.4329,4.0998,5.7140,1.4616,8.8162,4.8577
2726.5625,-4.0909,-2.8952,5.8419,-3.7586,-10.2248,-6.0505,2.1045,-7.0945,2.6010,-11.1636,2.5989,-11.2604,-0.1450,-12.8739,10.0229,6.0238,0.3792,3.9735,-2.8722
2730.4688,-4.4127,-5.3116,-0.2247,-9.4004,-14.6997,-7.3072,3.2516,-10.5919,0.5344,-10.9672,3.4792,-13.4202,-6.0887,-17.1605,15.4749,6.2115,-1.1066,-0.1035,-10.0755
2734.3750,-2.6602,-4.8744,-3.4147,-11.7500,-16.1869,-8.2637,2.4733,-11.4201,0.5757,-7.0393,5.2076,-10.4916,-9.9175,-18.5723,18.6157,6.6370,-2.2766,-1.8970,-13.7098
2738.2812,0.5215,-1.8517,-2.3956,-10.1585,-14.3283,-8.9672,-0.8206,-9.5788,2.7045,-0.9032,7.1308,-3.9064,-10.1127,-16.6646,18.7682,7.5886,-2.4839,-0.8967,-12.6616
2742.1875,4.1909,1.8881,1.2855,-6.3378,-10.4346,-8.9744,-5.5124,-6.6322,6.0763,5.2715,8.5308,3.4069,-6.9385,-12.5489,16.5070,8.9684,-1.5366,2.1131,-8.3680
2746.0938,7.4476,3.9741,4.2843,-3.2647,-6.6605,-7.5474,-9.0933,-4.6707,9.3651,9.5260,8.9611,8.5192,-2.1917,-8.2716,12.9699,10.1806,0.1952,5.4293,-3.8606
2750.0000,9.5942,2.9968,3.7126,-3.2416,-4.7491,-4.2639,-9.0963,-4.9748,11.2575,10.7494,8.4041,10.0016,1.9315,-5.6415,9.0534,10.3928,1.9934,7.3283,-1.8347
2753.9062,10.1886,-0.5760,-0.9325,-6.3535,-5.1050,0.3756,-4.8093,-7.2194,10.9531,8.9524,7.1947,8.5580,4.1106,-5.2323,5.1329,9.0724,3.1758,7.0126,-2.9990
2757.8125,9.1235,-4.6104,-7.4183,-10.3561,-6.7336,4.8630,1.9297,-9.7113,8.5100,5.1763,5.8017,6.4282,4.5124,-6.1882,1.4022,6.4584,3.4118,5.0508,-5.7765
2761.7188,6.7586,-6.5275,-12.1898,-12.1155,-8.0263,7.3461,7.5811,-10.4868,4.8759,1.0973,4.6129,5.9420,4.3925,-6.9353,-1.6520,3.5886,2.8016,3.0157,-7.5086
2765.6250,3.9600,-4.7989,-12.5887,-9.6857,-7.8455,6.7270,9.0262,-8.5592,1.5272,-1.5855,3.8262,8.1046,5.0165,-6.2991,-3.2284,1.7664,1.7186,2.5056,-6.3115
2769.5312,1.8582,0.1757,-8.4352,-3.6623,-6.1997,3.4908,5.6323,-4.5273,-0.1896,-1.8277,3.4484,12.0396,6.6620,-4.2708,-2.7878,1.7475,0.5519,4.1336,-2.3303
2773.4375,1.3131,6.3100,-2.0113,3.0969,-4.1110,-0.3680,-0.1775,-0.1877,0.2781,0.2598,3.3455,15.5654,8.3770,-1.9328,-0.7669,3.1858,-0.4764,7.1132,2.4085
2777.3438,2.3565,11.0119,3.4538,7.2172,-2.8227,-2.3969,-4.3668,2.5648,2.3762,3.3529,3.2943,16.4966,8.6377,-0.6473,1.2632,4.7583,-1.3334,9.7090,5.3710
2781.2500,4.0256,12.5807,5.7516,6.8837,-2.9283,-1.1136,-3.8769,2.8305,4.7029,5.4380,3.0322,13.8762,6.4374,-1.1112,1.3164,4.9501,-2.0740,10.2749,5.1369
2785.1562,4.8326,11.0023,4.8574,2.8966,-4.0093,3.1083,1.3585,1.1227,5.7424,4.7742,2.3348,8.4540,2.0572,-2.9365,-1.7824,3.0068,-2.7273,8.2255,2.1918
2789.0625,3.6924,7.7326,2.6301,-1.9532,-4.9944,8.3022,8.3899,-1.0927,4.6852,0.8572,1.1223,2.2177,-3.0025,-5.0035,-7.5030,-0.5881,-3.2640,4.3415,-1.5577
2792.9688,0.7382,4.6808,1.3629,-4.7367,-4.9393,12.1620,13.2963,-2.3713,1.8647,-5.1543,-0.4531,-2.6748,-6.8799,-6.2694,-13.7352,-4.4438,-3.6486,0.2469,-4.1105
2796.8750,-2.5774,3.0701,2.2031,-4.2177,-3.6655,13.4508,13.9064,-2.1258,-1.4482,-10.8762,-2.0157,-4.9349,-8.4261,-6.4208,-17.9401,-7.1685,-3.9053,-2.5675,-4.5931
2800.7812,-4.2834,2.8775,4.4663,-1.4752,-1.8263,12.6157,11.2829,-0.8201,-3.7700,-13.8607,-3.1086,-4.6249,-7.7941,-5.9177,-18.6085,-8.2095,-4.1168,-3.5355,-3.5938
2804.6875,-3.1551,3.1429,6.2288,1.0243,-0.4018,11.2274,8.8751,0.5207,-4.2186,-12.8858,-3.4180,-2.9116,-6.1824,-5.4651,-16.0870,-8.0426,-4.3454,-3.1513,-2.5006
2808.5938,0.3867,2.8676,5.7316,1.2012,-0.0205,10.7043,9.8953,1.0851,-2.9435,-8.6250,-2.9577,-1.3135,-4.9475,-5.3705,-12.2542,-7.6199,-4.5438,-2.4499,-2.4133
2812.5000,4.4063,1.8504,2.6322,-1.2474,-0.6022,11.2835,14.7775,0.7897,-0.9533,-3.2592,-2.0945,-0.8876,-4.7175,-5.3056,-9.3034,-7.5418,-4.5507,-2.2629,-3.4212
2816.4062,6.6184,0.8796,-1.7233,-4.7620,-1.5474,12.0003,20.5846,0.2176,0.5102,0.7876,-1.3804,-1.7713,-5.1114,-4.6468,-8.4493,-7.6200,-4.2069,-2.7816,-4.7045
2820.3125,5.8649,1.1496,-5.1669,-7.1297,-2.2854,11.6615,22.8880,0.0792,0.6548,2.2487,-1.2749,-3.2733,-5.2270,-3.1076,-9.3704,-7.1721,-3.5242,-3.6775,-5.3040
2824.2188,2.9149,3.3101,-6.1278,-7.1018,-2.7385,10.0373,18.8779,0.6155,-0.5094,1.6850,-1.9081,-4.4044,-4.5103,-1.1448,-10.6559,-5.7936,-2.7712,-4.5942,-4.9526
2828.1250,0.0136,6.8172,-4.6593,-5.2821,-3.3391,8.3095,9.5315,1.3765,-2.2865,0.9943,-3.0129,-4.5174,-3.3370,0.2117,-10.8631,-3.9464,-2.3756,-5.5572,-4.3614
2832.0312,-0.5503,10.0703,-2.3926,-3.6837,-4.5917,8.3619,-0.7350,1.5310,-3.7360,2.0688,-4.0576,-3.6839,-2.8430,0.0178,-9.4495,-2.8228,-2.6617,-6.9462,-4.7632
2835.9375,2.0887,11.2953,-1.4391,-4.2815,-6.5267,11.3750,-6.7748,0.4886,-4.1408,5.4779,-4.5006,-2.5967,-4.0810,-1.8953,-7.0079,-3.5072,-3.5804,-9.0461,-7.0330
2839.8438,6.8548,9.6265,-2.9626,-7.5756,-8.4887,16.7491,-5.9669,-1.6017,-3.2648,10.0518,-4.0376,-2.0769,-7.0970,-4.7012,-4.7431,-6.0434,-4.6323,-11.5551,-10.9874
2843.7500,11.4901,5.6865,-6.3781,-12.1631,-9.4731,22.1924,0.1875,-3.8407,-1.3439,13.6504,-2.7310,-2.5161,-10.6304,-7.0106,-3.6083,-9.1516,-5.0856,-13.5012,-15.3438
2847.6562,14.0369,1.2744,-9.7313,-15.6269,-8.8219,25.0064,7.1941,-5.0964,1.0850,14.5982,-0.9801,-3.6312,-12.7477,-7.6932,-3.6857,-10.9031,-4.4049,-13.7371,-18.3941
2851.5625,14.0103,-1.6555,-11.0278,-16.1500,-6.8065,23.7457,10.6005,-4.7416,3.3732,12.8064,0.6351,-4.7070,-12.0685,-6.5684,-4.1743,-9.9542,-2.6381,-11.7382,-18.9941
2855.4688,12.4870,-2.0895,-9.6193,-13.7703,-4.6642,19.1437,8.8328,-3.1377,4.9013,9.8122,1.5719,-5.1574,-8.7866,-4.5317,-3.9453,-6.4925,-0.4970,-8.1542,-17.2642
2859.3750,11.1401,-0.4539,-6.6808,-10.4233,-3.9905,13.6804,3.9284,-1.5265,5.1972,7.7138,1.5260,-4.9911,-4.7544,-3.0465,-2.2876,-2.2137,0.9676,-4.6659,-14.5552
2863.2812,10.9887,1.7589,-4.4043,-8.7167,-5.8127,10.0815,-0.2107,-1.3488,4.0712,7.7477,0.5521,-4.8123,-2.4814,-3.3179,0.6131,0.6950,0.9449,-3.1352,-12.6705
2867.1875,11.7850,2.9521,-4.4291,-10.2262,-9.9006,9.7322,-0.6939,-3.3703,1.7448,9.5001,-0.9455,-5.3215,-3.6235,-5.6327,3.7361,0.8912,-0.6449,-4.5226,-12.7869
2871.0938,12.4266,2.3479,-6.5980,-14.4194,-14.7544,12.0106,2.4255,-7.1407,-1.1299,11.2903,-2.3690,-6.6761,-7.9176,-9.2257,5.7789,-1.3570,-3.0635,-8.2475,-14.7197
2875.0000,11.9871,0.3186,-8.9638,-18.9201,-18.3211,14.8885,6.4510,-11.1380,-3.6555,11.4279,-3.1926,-8.2244,-13.2714,-12.7103,5.8847,-4.4587,-5.1609,-12.4320,-17.0016
2878.9062,10.5119,-2.0011,-9.1242,-20.9565,-19.0578,16.3128,8.2119,-13.5494,-5.0603,9.4320,-3.2278,-8.8912,-16.9925,-14.8115,4.1316,-6.5930,-6.0511,-14.9280,-17.7656
2882.8125,8.9523,-3.4857,-6.0069,-19.0748,-16.7506,15.4154,6.4220,-13.2532,-5.0877,6.3432,-2.7470,-7.9970,-17.4009,-14.9994,1.5080,-6.8279,-5.6486,-14.5321,-15.9239
2886.7188,8.3160,-3.6421,-0.8405,-14.0291,-12.6284,12.8102,2.5056,-10.4298,-4.1655,3.9246,-2.3632,-5.9139,-14.8094,-13.7103,-0.6204,-5.5257,-4.7201,-11.6489,-11.9164
2890.6250,8.7388,-2.7240,3.4566,-8.2949,-8.7042,9.9027,-0.6234,-6.4356,-3.2076,3.3549,-2.6834,-4.0004,-11.2563,-12.0674,-1.2555,-3.8444,-4.3987,-8.0005,-7.5331
2894.5312,9.2495,-1.3648,4.1486,-4.5326,-6.7093,7.8016,-0.8199,-3.0149,-3.1140,4.3731,-3.9085,-3.7438,-9.1731,-11.2616,-0.3009,-2.7864,-5.4508,-5.5621,-4.8764
2898.4375,8.4536,-0.0745,0.5740,-3.9956,-7.2028,6.6171,1.7180,-1.3245,-4.2381,5.4967,-5.6201,-5.6490,-9.8508,-11.9128,1.4288,-2.5198,-7.7530,-5.3901,-5.0823
2902.3438,5.6492,1.0187,-5.2709,-5.8857,-9.3355,5.5910,4.6982,-1.3586,-6.1450,5.1542,-6.9286,-8.6785,-12.6710,-13.7323,2.7328,-2.4325,-10.3155,-7.0660,-7.6040
2906.2500,1.5315,2.0331,-9.9284,-8.0260,-11.3760,3.8847,5.5474,-2.1077,-7.8296,2.9100,-6.9531,-10.7418,-15.5586,-15.6616,2.7703,-1.8026,-11.8464,-9.0826,-10.5315
2910.1562,-2.0617,2.9731,-10.7005,-8.3695,-11.6851,1.4067,3.3793,-2.3233,-8.2878,-0.0973,-5.3775,-10.0117,-16.3167,-16.4250,1.5737,-0.5197,-11.5068,-9.8949,-11.7621
2914.0625,-3.2257,3.4753,-7.4018,-6.3373,-9.5947,-0.9383,-0.3511,-1.3811,-7.1059,-1.8309,-2.7410,-6.2224,-13.9693,-15.2138,0.0129,0.7172,-9.3860,-8.9391,-10.2872
2917.9688,-1.1616,2.9007,-2.4469,-3.1374,-5.7174,-1.7737,-2.9487,0.3130,-4.7137,-0.6917,-0.2362,-1.0415,-9.2827,-12.1357,-0.7653,0.8808,-6.4074,-6.9611,-6.7768
2921.8750,3.3213,0.7483,0.7877,-0.9043,-1.5565,-0.2112,-2.4661,1.6228,-2.1412,3.3767,0.9180,2.8122,-4.2097,-8.1771,-0.0710,-0.5795,-3.7442,-5.4621,-3.1019
2925.7812,8.2550,-2.8870,0.2022,-1.2727,1.3275,3.3946,0.9073,1.4694,-0.4313,8.7315,0.1868,3.1834,-0.6967,-4.6885,1.8831,-3.2071,-2.1345,-5.6508,-1.1311
2929.6875,11.5576,-7.1427,-3.7102,-4.3258,2.1076,7.4134,5.0348,-0.4186,-0.0673,12.9003,-1.9238,-0.2133,0.3554,-2.6836,4.0965,-5.6830,-1.5325,-7.6057,-1.5932
2933.5938,11.9923,-10.6714,-8.3180,-8.5612,1.0178,9.7039,7.3816,-3.2824,-0.7595,13.9084,-4.1099,-5.6453,-0.6278,-2.3500,5.3783,-6.5742,-1.2920,-10.1947,-3.7216
2937.5000,9.5307,-12.2597,-10.6828,-11.8178,-0.9003,8.7538,6.7331,-5.7637,-1.6982,11.2640,-5.0033,-10.4509,-2.4154,-3.0464,5.0534,-5.2035,-0.7208,-11.7811,-5.8392
2941.4062,5.0837,-11.4476,-9.4477,-12.5024,-2.4166,4.5389,3.8480,-6.6958,-2.0872,6.0840,-3.9731,-12.6211,-3.8261,-3.7559,3.3538,-2.0805,0.3961,-11.2272,-6.4212
2945.3125,-0.0525,-8.7912,-5.5050,-10.3365,-2.7079,-1.4022,0.6782,-5.7439,-1.6085,0.4011,-1.5114,-11.8334,-4.3068,-3.6919,1.2751,1.3729,1.6574,-8.5336,-4.9100
2949.2188,-4.6477,-5.6019,-1.1068,-6.2479,-1.6216,-6.7365,-1.1390,-3.5161,-0.5418,-3.8671,1.0373,-9.3256,-3.9302,-2.6804,0.0005,3.6208,2.3622,-4.7343,-1.8081
2953.1250,-7.7558,-3.2870,1.7981,-1.6387,0.4444,-9.5222,-1.3393,-1.1304,0.4957,-5.7177,2.2475,-6.8185,-2.9749,-1.1211,0.2306,3.8453,2.0364,-1.1836,1.8708
2957.0312,-8.8224,-2.6465,2.7419,2.3803,2.8635,-9.1566,-0.9102,0.4398,0.9828,-5.3005,1.4273,-5.3243,-1.5389,0.3746,1.7884,2.3346,0.7896,1.2407,5.2845
2960.9375,-7.8361,-3.5073,2.6486,5.2982,5.0544,-6.5749,-1.0203,0.8244,0.8119,-3.6149,-0.9939,-4.6696,0.4629,1.3713,3.7033,0.2409,-0.7386,2.4925,8.0720
2964.8438,-5.4734,-4.8883,2.7204,7.0056,6.5756,-3.6254,-1.9412,0.2877,0.3232,-1.9148,-3.7039,-3.9610,2.9442,1.7599,4.7270,-1.1005,-1.7875,3.1196,10.1646
2968.7500,-3.0053,-5.5874,3.3045,7.4414,7.0958,-2.0143,-2.8319,-0.5921,0.0894,-1.1159,-5.1925,-2.5068,5.3065,1.6258,4.0256,-0.8801,-1.9418,3.7102,11.4036
2972.6562,-1.7926,-4.8432,3.6790,6.4890,6.3865,-2.4348,-2.5113,-1.3195,0.6314,-1.4105,-4.4733,-0.4112,6.5085,1.0190,1.7121,0.8324,-1.3413,4.4878,11.4057
2976.5625,-2.5169,-2.6941,2.8868,4.2272,4.4185,-4.3479,-0.5394,-1.6978,2.2257,-2.1985,-1.4660,1.6116,5.6249,-0.1373,-1.0578,3.2296,-0.5208,5.3283,9.8500
2980.4688,-4.6146,0.1402,0.8585,1.2505,1.4947,-6.4677,2.2946,-1.7955,4.8443,-2.3548,3.0788,2.9883,2.5452,-1.9155,-2.5225,5.2640,-0.0300,6.0873,6.9435
2984.3750,-6.3918,2.7323,-1.1905,-1.3420,-1.7378,-7.5879,4.4752,-1.7811,8.1601,-0.7672,7.9621,3.9108,-1.7185,-4.1571,-1.1433,6.1939,-0.1185,6.8727,3.6107
2988.2812,-5.9223,4.4465,-1.5182,-2.4345,-4.4848,-7.2283,4.8462,-1.7857,11.5594,3.0382,11.9634,5.2479,-5.4310,-6.3793,3.5304,5.8910,-0.6799,7.9775,1.1389
2992.1875,-2.2784,5.1594,0.7591,-1.5671,-6.1248,-5.7545,3.4178,-1.8611,14.1989,8.4718,14.1417,7.7556,-7.0582,-7.9305,10.4001,4.7936,-1.4371,9.5244,0.4572
2996.0938,3.6692,5.1271,4.7536,0.7339,-6.4346,-4.0016,1.2816,-1.9746,15.2093,13.9187,14.0015,11.2157,-6.1281,-8.2965,17.0727,3.5864,-2.1689,11.1768,1.5688
3000.0000,9.4614,4.6812,8.1754,3.3026,-5.5488,-2.7287,-0.2530,-1.9704,14.0759,17.3170,11.6067,14.2646,-3.4276,-7.3266,20.8167,2.8188,-2.7870,12.2569,3.5925
3003.9062,12.2518,4.0324,8.8382,5.1762,-3.6917,-2.2803,-0.5782,-1.5139,11.0451,17.0612,7.6574,15.1816,-0.3785,-5.2135,19.8206,2.6673,-3.2268,12.2726,5.4242
3007.8125,10.3422,3.3150,6.2557,6.3227,-0.9240,-2.6099,-0.0317,-0.1404,7.2588,12.7916,3.4254,13.1478,1.9840,-2.2823,14.1279,2.9401,-3.3031,11.4555,6.5420
3011.7188,4.1622,2.7628,2.1358,7.6473,2.8322,-3.5351,0.6717,2.4983,4.3893,5.6453,0.4158,9.0424,3.6909,1.1905,5.7251,3.2817,-2.7149,10.8118,7.3338
3015.6250,-3.8815,2.7602,-0.6685,10.1825,7.4500,-4.9546,1.2708,6.2641,3.8357,-2.1872,-0.2253,5.1007,5.6593,4.9408,-2.3250,3.4341,-1.2541,11.5108,8.6690
3019.5312,-10.5964,3.6198,-0.0793,14.0170,12.2006,-6.8461,2.2768,10.2960,5.8972,-8.3815,1.7002,3.5587,8.7535,8.5039,-7.2885,3.4046,0.9291,13.9728,11.0261
3023.4375,-13.5522,5.2137,3.7502,17.8109,15.7063,-9.0925,4.4534,13.1844,9.4684,-11.4050,5.2395,5.1908,12.7775,11.0839,-7.9744,3.4511,3.2440,17.3443,13.8629
3027.3438,-12.1448,6.8041,8.4871,19.4027,16.4580,-11.3407,7.8738,13.6018,12.5605,-10.9961,8.7099,8.7965,16.2075,11.7662,-5.1213,3.9032,4.8918,19.8622,15.7850
3031.2500,-7.6699,7.3467,11.1735,17.2326,13.6938,-13.0617,11.4061,11.0928,13.4406,-8.0208,10.6030,12.0690,16.9876,10.0613,-0.7867,4.9198,5.3052,19.9879,15.4796
