Time,Fp1,F3,C3,P3,O1,F7,T3,T5,Fz,Fp2,F4,C4,P4,O2,F8,T4,T6,Cz,Pz
0.0000,-0.7979,-1.8623,-3.2563,-2.4124,-4.2019,1.8793,-2.1906,-0.4363,-8.5414,1.8231,-5.8839,-3.4686,-4.5749,-2.6362,3.2463,1.1616,-4.4522,-4.5247,-3.6344
3.9062,-5.1089,0.0899,-2.0043,-3.3490,-3.9410,2.1309,-0.7141,-1.5667,-4.2664,0.6524,-1.5603,0.9447,-3.6300,-2.4123,-0.4312,3.7291,-3.5734,-3.2074,-2.2287
7.8125,-8.0990,0.3588,-1.6935,-4.6898,-3.6034,3.0907,1.1891,-3.2492,0.3404,-0.9141,2.8740,5.1968,-2.5127,-2.1002,-4.6766,5.7244,-2.1422,-2.3171,-1.1747
11.7188,-7.3774,-0.8308,-2.1051,-5.3045,-2.6201,4.7416,2.6351,-4.5460,4.1776,-2.2604,6.0725,7.7523,-1.2049,-1.3206,-7.9560,6.3709,-0.1348,-1.7592,-0.4737
15.6250,-2.4352,-1.8369,-2.1624,-4.0071,-0.3829,6.4580,2.6918,-4.4045,6.9089,-2.7019,7.5947,8.0152,0.4694,0.3307,-9.0707,5.7985,2.3309,-0.8674,0.4328
19.5312,4.6839,-0.6020,-0.6063,-0.3651,3.2780,7.2292,1.0916,-2.2856,9.1229,-1.8338,8.1808,6.7513,2.7154,2.9818,-7.8381,5.0332,4.9769,1.1867,2.2958
23.4375,10.4056,3.8645,3.0446,4.8148,7.7580,6.2452,-1.3154,1.4241,11.7813,0.2281,9.1823,5.6101,5.5248,6.2455,-5.2596,5.2741,7.4048,4.7397,5.4172
27.3438,11.7743,10.5633,7.9209,9.6944,11.7539,3.4736,-2.7942,5.4819,15.3151,2.8370,11.4994,5.9945,8.4672,9.2144,-3.0763,6.8999,9.1767,9.1751,9.1752
31.2500,8.3089,16.8612,12.0733,12.2501,13.7884,-0.1985,-1.6600,8.3229,19.0216,5.0349,14.7457,8.0050,10.6853,10.7556,-2.9404,8.9155,9.9022,13.0163,12.1123
35.1562,2.2900,19.9697,13.4879,11.3016,12.9352,-3.4149,2.5891,8.7750,21.2519,5.8981,17.2518,10.1945,11.1715,10.0054,-5.6074,9.3129,9.3088,14.6003,12.6324
39.0625,-2.7265,18.5905,11.2369,7.1432,9.3514,-5.1288,8.6889,6.5864,20.3592,4.8746,16.9829,10.3728,9.2473,6.8336,-10.5223,6.2241,7.3096,12.9778,9.9409
42.9688,-4.1431,13.6368,6.0506,1.4276,4.3043,-5.1861,14.0654,2.5215,15.8442,2.0198,12.8414,7.0138,5.0208,2.0243,-15.9735,-0.8169,4.0869,8.5141,4.6560
46.8750,-1.7885,7.5741,-0.0312,-3.6184,-0.3491,-4.3044,16.1750,-1.9863,8.9496,-1.9256,5.5539,0.3955,-0.4445,-2.9606,-19.7483,-10.3030,0.1670,2.8197,-1.3224
50.7812,2.2971,2.8810,-4.6987,-6.2113,-2.9793,-3.4627,13.9630,-5.4310,2.2616,-5.6509,-2.4316,-7.2648,-5.4120,-6.5644,-20.0328,-19.2679,-3.5924,-1.9721,-5.6689
54.6875,5.4557,0.7057,-6.4719,-5.7426,-2.8924,-3.1468,8.5289,-6.8081,-1.5143,-7.6092,-8.0255,-12.8137,-8.1460,-7.8022,-16.2054,-24.6156,-6.1905,-4.1852,-6.7605
58.5938,6.1577,0.5954,-5.2577,-2.9064,-0.5883,-3.0028,2.5499,-5.9441,-0.9130,-6.5511,-8.9719,-13.7456,-7.6910,-6.6806,-9.1971,-24.5267,-6.8440,-3.3067,-4.4569
62.5000,4.6984,1.3581,-2.1471,0.7668,2.5424,-2.1529,-1.1993,-3.4772,3.5875,-2.1215,-4.9184,-9.4721,-4.3579,-4.1463,-1.2317,-19.2102,-5.3746,-0.0657,-0.1145
66.4062,2.5299,2.2918,1.3128,3.6830,4.9154,0.0633,-1.3161,-0.5210,9.9209,4.7335,2.4738,-1.5840,0.3765,-1.5780,4.9993,-10.6948,-2.3889,4.0946,4.1527
70.3125,0.9354,3.7937,3.9007,4.8858,5.5039,3.4745,1.6566,1.8417,15.6141,11.8322,10.3951,6.9824,4.5611,-0.0852,7.4069,-1.8907,0.9210,7.8070,6.5432
74.2188,0.1372,6.8781,5.1673,4.3938,4.2855,7.0493,5.8233,3.0190,19.0759,16.4273,16.2333,13.3639,6.7281,0.0134,5.3480,4.5510,3.3177,10.3773,6.4021
78.1250,-0.5586,11.9959,5.4308,3.0715,2.1891,9.4813,9.1999,3.1151,20.2449,16.3158,18.6936,16.0009,6.6123,-0.7438,-0.1623,7.0997,4.1271,11.9071,4.4188
82.0312,-1.8653,18.1145,5.4560,2.1350,0.5861,9.9699,10.7735,2.7767,20.2740,10.9275,18.1671,15.1035,5.2319,-1.3602,-6.9689,5.7041,3.5637,12.9613,2.1567
85.9375,-3.7175,22.8639,6.0430,2.5393,0.5924,8.6531,10.7325,2.7648,20.5376,1.8312,16.2506,12.2509,4.2773,-0.9895,-12.7487,1.6661,2.5670,14.0621,1.2190
89.8438,-5.2410,23.7961,7.6943,4.5317,2.5362,6.4211,9.8997,3.4931,21.6468,-7.6995,14.7558,9.4666,5.1495,0.6132,-15.9244,-2.8596,2.2437,15.3412,2.4967
93.7500,-5.4590,19.9746,10.4322,7.5804,5.8562,4.2906,8.9591,4.8149,23.1024,-13.9772,14.7579,8.2912,8.1924,3.0452,-16.0810,-5.6210,3.2546,16.5338,5.8423
97.6562,-4.0891,12.8110,13.7818,10.7000,9.4624,2.8171,8.1132,6.1910,23.7546,-14.5030,16.1503,9.2555,12.5433,5.5951,-13.7779,-5.1189,5.5049,17.2527,10.2586
101.5625,-1.7615,5.5064,16.9226,12.9916,12.3401,1.9463,7.3504,7.1212,22.6977,-9.1227,17.8573,11.8743,16.6471,7.7081,-10.0136,-1.2815,8.2858,17.3084,14.4367
105.4688,0.4794,1.3512,18.9899,14.0984,14.0512,1.3456,6.9375,7.5368,19.9606,-0.1494,18.5136,15.0327,19.1005,9.2699,-5.7517,4.3806,10.7186,16.8485,17.3458
109.3750,1.9281,1.8914,19.4348,14.3242,14.8616,0.8887,7.5534,7.8678,16.5316,8.6384,17.2140,17.5237,19.3286,10.5594,-1.7594,9.3514,12.1960,16.2422,18.6086
113.2812,2.5970,6.0812,18.2882,14.3658,15.4577,0.8771,9.8120,8.7276,13.7387,13.6588,13.9595,18.5197,17.7527,11.9634,1.3029,11.2806,12.5815,15.8280,18.5346
117.1875,2.9646,10.9372,16.1697,14.8418,16.4588,1.8057,13.5061,10.4319,12.4460,13.0521,9.6302,17.8430,15.4443,13.6924,2.8173,9.2169,12.1414,15.7226,17.8550
121.0938,3.3912,13.2951,13.9992,15.9129,18.0328,3.8473,17.2431,12.6941,12.6164,7.3563,5.5658,15.9823,13.5475,15.6904,2.3813,4.2222,11.3578,15.8190,17.3141
125.0000,3.7443,11.6082,12.5412,17.2063,19.8233,6.4580,18.9333,14.7158,13.4956,-0.9402,2.9996,13.8667,12.8146,17.7484,0.1516,-1.0473,10.7766,15.9374,17.3095
128.9062,3.5345,6.7424,12.0312,18.0512,21.1794,8.4359,16.9531,15.6108,14.2126,-8.6710,2.6042,12.4736,13.4365,19.6686,-2.9517,-3.6453,10.9173,15.9770,17.7281
132.8125,2.3829,1.3664,12.1062,17.8472,21.5052,8.4674,11.2436,14.8761,14.3306,-13.4040,4.3053,12.4190,15.1335,21.3199,-5.4740,-1.8496,12.1591,15.9390,18.0415
136.7188,0.3651,-1.6131,12.0921,16.3523,20.5225,5.8718,3.5598,12.6216,13.9805,-14.3030,7.3827,13.7064,17.3476,22.5629,-6.0867,3.9372,14.5505,15.8263,17.6210
140.6250,-2.0543,-0.6004,11.4809,13.7832,18.3568,1.1164,-3.3647,9.4681,13.5755,-12.0994,10.7785,15.7597,19.4255,23.1754,-4.3227,11.3810,17.6350,15.5571,16.1369
144.5312,-4.3666,4.0150,10.3092,10.7542,15.4882,-4.2174,-7.2281,6.2570,13.4238,-8.3442,13.4880,17.7334,20.7811,22.9239,-0.9078,17.3717,20.4893,15.0267,13.8486
148.4375,-6.2535,10.3008,9.1899,8.1319,12.6481,-8.0521,-7.2521,3.7880,13.5739,-4.4658,14.9026,18.9351,21.0695,21.7807,2.5663,19.5032,22.0839,14.3004,11.6104
152.3438,-7.4681,15.8925,8.9508,6.8239,10.6785,-8.7609,-4.3122,2.6861,13.9598,-1.1833,14.9838,19.1274,20.3395,20.1078,4.4571,17.1185,21.8326,13.7515,10.5228
156.2500,-7.5441,19.0203,10.0656,7.4768,10.3033,-6.0066,-0.1543,3.3272,14.6011,1.4787,14.1879,18.5463,19.0458,18.5880,3.8919,11.4675,19.9810,13.9335,11.3499
160.1562,-5.7731,18.9314,12.2121,10.1117,11.8032,-1.0500,3.6494,5.6986,15.5649,3.7379,13.1571,17.6480,17.8294,17.8561,1.1362,5.0101,17.5156,15.1641,13.9890
164.0625,-1.7000,15.7242,14.2555,13.8707,14.7263,3.6904,6.2855,9.2144,16.6592,5.5869,12.3198,16.7710,17.1306,18.0466,-2.6271,0.2918,15.5828,17.0800,17.3245
167.9688,4.1397,10.0186,14.7456,17.1400,17.8736,5.7189,7.5662,12.6813,17.1760,6.6727,11.6360,15.9491,16.8794,18.6063,-5.8799,-1.0729,14.7806,18.5590,19.6447
171.8750,9.9111,2.8619,12.7259,18.1822,19.7293,3.7277,7.4252,14.6345,16.0871,6.5830,10.6798,14.9935,16.5240,18.5833,-7.3410,1.0769,14.8271,18.2329,19.4889
175.7812,13.1104,-4.1294,8.4353,16.0768,19.2245,-1.5848,5.6416,14.0280,12.7756,5.2728,9.0566,13.7646,15.4489,17.2563,-6.3025,5.5390,14.8629,15.3963,16.4979
179.6875,11.9625,-8.7852,3.4698,11.4429,16.4302,-7.6511,2.1033,10.9320,7.8676,3.2610,6.9003,12.4106,13.5236,14.6822,-2.7479,10.3290,14.1786,10.7374,11.7571
183.5938,6.7129,-8.9555,0.2099,6.3916,12.6938,-11.1950,-2.6269,6.7332,3.4556,1.4066,5.0736,11.3698,11.3584,11.7422,2.6092,13.4831,12.8117,6.3012,7.3580
187.5000,-0.1708,-3.5894,0.7066,3.5526,10.0153,-9.9094,-7.0300,3.5583,2.2784,0.4076,4.8254,11.1079,10.0061,9.6070,8.3374,13.7752,11.5413,4.5240,5.3464
191.4062,-5.2250,6.2984,5.5624,4.6274,9.9487,-3.7771,-9.0561,3.1436,6.1459,0.3873,7.0131,11.7647,10.2474,8.9733,12.4953,11.0932,11.2639,6.8195,6.6276
195.3125,-5.9746,17.5721,13.4226,9.3291,12.6807,4.7416,-7.1366,5.8067,14.5506,0.8765,11.3561,12.9747,11.9576,9.6180,13.1987,6.3601,12.2389,12.5850,10.4733
199.2188,-2.4069,26.1663,21.4248,15.4267,16.8920,11.8442,-1.1652,10.1967,24.4778,1.2066,16.2670,14.0188,14.0635,10.6118,9.4683,1.0759,13.8214,19.3295,14.9485
203.1250,3.0631,29.0159,26.4575,19.9513,20.5267,14.2769,7.2156,14.0344,31.7457,1.0154,19.5136,14.2406,15.2097,11.0449,1.9487,-3.2750,14.9396,23.9450,18.0210
207.0312,7.1321,25.5892,26.6168,20.8596,21.9952,10.9484,15.2455,15.4035,33.2005,0.4831,19.4291,13.4702,14.7214,10.7273,-7.0245,-5.6640,14.9769,24.3930,18.6902
210.9375,7.6357,18.0226,22.1094,18.1224,21.0392,3.3762,20.2326,13.7796,28.4530,0.1292,15.9678,12.1729,13.1754,10.3274,-14.2455,-5.6434,14.3583,20.7753,17.4526
214.8438,4.7419,9.7289,15.1207,13.5651,18.7146,-5.2374,20.6259,10.1635,20.0635,0.3443,10.9101,11.2147,12.1121,10.8285,-17.0331,-3.2133,14.3239,15.1424,15.8426
218.7500,0.5981,3.3936,8.7170,9.6145,16.5501,-11.7033,16.4678,6.3018,12.0491,1.0437,6.9889,11.3778,13.0143,12.7024,-14.4533,1.3493,15.9829,10.2021,15.3709
222.6562,-2.2136,-0.2972,5.3611,7.8148,15.4968,-14.3167,9.1681,3.5840,7.6534,1.7335,6.3867,12.9194,16.2223,15.4315,-7.6617,7.5058,19.3276,7.7910,16.5516
226.5625,-2.3100,-2.3858,5.8065,8.0856,15.3895,-13.3294,0.8983,2.3695,7.7583,1.9443,9.4765,15.4288,20.5507,17.7658,0.8194,14.3186,22.9792,8.0651,18.6249
230.4688,-0.1763,-4.1647,8.9073,9.1283,15.2472,-10.3305,-6.0508,2.1247,10.8346,1.6845,14.5804,18.0465,23.9194,18.5558,8.4058,20.3813,24.9421,9.8222,20.1146
234.3750,2.4215,-5.7228,12.3802,9.5748,14.1351,-7.0945,-9.8122,2.1325,14.2858,1.5177,18.9186,19.8917,24.6239,17.5685,13.5292,24.0732,23.9099,11.5864,19.8271
238.2812,3.7177,-5.7170,14.0702,8.9992,11.9344,-4.6697,-9.4226,2.1525,16.1734,2.1534,20.2022,20.4484,22.4196,15.6942,15.9076,24.1782,20.2315,12.6176,17.6447
242.1875,2.9902,-2.5888,13.0524,8.0891,9.4757,-3.1727,-5.2209,2.5225,16.1904,3.8190,17.9255,19.7201,18.7091,14.3846,16.0393,20.5849,15.8441,13.1706,14.6371
246.0938,0.7407,3.7362,10.0199,7.9377,7.9689,-2.2091,1.0469,3.6791,15.3840,5.8791,13.5933,18.1243,15.6994,14.7043,14.4642,14.5898,13.1643,13.9406,12.4481
250.0000,-1.9355,11.0867,6.7933,9.0517,8.1491,-1.4669,6.6970,5.5436,15.0244,7.0222,9.7599,16.2276,15.0584,16.6294,11.3910,8.4615,13.6290,15.2258,12.3407
253.9062,-4.2255,15.9912,5.2225,10.8219,9.7127,-1.0349,9.1752,7.3011,15.5175,5.9350,8.4606,14.4654,16.8896,19.0246,6.8777,4.3529,16.7918,16.4821,14.4304
257.8125,-6.0978,15.7995,6.0573,11.8143,11.3831,-1.3074,7.2891,7.7738,16.0975,2.0488,9.9655,12.9467,19.6168,20.2571,1.2538,3.1038,20.5112,16.5887,17.4934
261.7188,-8.1687,10.4882,8.3973,10.6319,11.5260,-2.6521,1.8829,6.1189,15.4053,-4.1111,12.5889,11.3943,20.8048,19.0130,-4.7024,3.6563,22.0744,14.5862,19.4218
265.6250,-11.1174,2.8075,10.0709,6.7468,8.9423,-5.1169,-4.5578,2.3585,12.4617,-11.1572,13.6674,9.2454,18.4245,14.8434,-10.0429,3.5344,19.5790,10.3377,18.1142
269.5312,-15.0647,-3.4057,8.8233,0.8001,3.4436,-8.3260,-9.2397,-2.5967,7.3756,-17.4596,11.1487,5.9217,11.8883,8.2419,-14.1377,0.2532,12.8343,4.6787,12.4383
273.4375,-19.2758,-5.5914,3.7207,-5.7127,-3.9951,-11.5432,-10.5447,-7.3872,1.4023,-21.7499,4.8862,1.2179,2.3813,0.3836,-16.9003,-7.0579,3.4032,-0.9760,2.8853
277.3438,-22.3286,-3.8716,-4.0338,-11.0805,-11.5037,-13.8243,-8.7244,-10.7718,-3.5934,-23.4030,-3.1057,-4.3513,-7.5996,-7.2226,-18.5155,-16.7463,-6.1065,-5.2490,-8.3734
281.2500,-22.6798,-0.5798,-11.4490,-13.9630,-16.8958,-14.2448,-5.3943,-11.9978,-5.9284,-22.3802,-9.6059,-9.4861,-15.2377,-13.0386,-18.9143,-25.0646,-13.0872,-7.2738,-18.1375
285.1562,-19.4153,1.6244,-15.2130,-13.7334,-18.4098,-12.2351,-2.2522,-10.8856,-4.7819,-19.0488,-11.8500,-12.4952,-18.4912,-15.8106,-17.5491,-27.8676,-15.8663,-6.8658,-23.3802
289.0625,-12.8819,1.6164,-13.5282,-10.5968,-15.4150,-7.9687,0.0183,-7.7633,-0.5432,-14.0940,-8.9946,-12.0806,-16.8685,-14.9641,-13.8292,-22.7892,-14.2339,-4.4712,-22.5471
292.9688,-4.8692,0.3294,-7.2280,-5.5569,-8.8066,-2.5825,1.8911,-3.4016,5.2684,-8.5376,-2.5713,-8.1457,-11.5901,-10.9727,-7.9954,-10.7627,-9.4398,-1.0309,-16.3351
296.8750,1.8857,-0.2869,0.5838,-0.2047,-0.8166,2.0524,4.1866,1.0619,10.5158,-3.6879,4.3337,-2.1164,-5.0598,-5.4148,-1.7122,4.0110,-3.6791,2.2181,-7.4776
300.7812,4.8124,1.0723,6.2593,3.7510,5.8316,4.0867,7.0518,4.3545,13.2794,-0.8435,8.7188,3.5439,0.1647,-0.4783,2.3019,15.7852,0.7766,4.0780,0.4781
304.6875,2.7875,4.0928,7.6933,5.1590,9.1242,2.6695,9.6095,5.5241,12.7251,-0.7849,9.1972,6.4805,2.4645,1.9899,1.6453,19.9162,2.4896,3.8620,4.8324
308.5938,-3.1160,7.1988,5.4579,4.0083,8.6996,-1.4430,10.5668,4.4390,9.5620,-3.3291,6.5528,5.6468,1.7853,1.4048,-4.1590,15.1083,1.4000,1.7914,4.9452
312.5000,-9.9584,8.7944,2.2363,1.5043,5.9473,-6.1366,9.2561,1.9682,5.7302,-7.2769,3.0358,1.8306,-0.5441,-1.2680,-12.9308,4.0509,-1.2972,-1.0110,2.3028
316.4062,-14.3261,8.3163,0.9166,-0.5598,3.1252,-9.0322,6.2046,-0.4117,3.3507,-10.8759,0.8798,-2.8547,-2.7138,-4.1155,-20.6444,-7.9478,-3.9159,-3.0856,-0.5889
320.3125,-14.0957,6.3248,2.6284,-0.8656,1.9878,-8.8202,2.7230,-1.4569,3.4807,-12.5928,0.9922,-6.2216,-3.5249,-5.4474,-23.4661,-15.6362,-5.2522,-3.5157,-1.7829
324.2188,-9.5504,3.7568,6.0649,0.5910,2.7827,-5.9920,-0.1530,-0.9313,5.4692,-11.7774,2.6299,-7.2139,-2.9958,-4.7793,-19.8442,-16.3597,-5.1652,-2.5472,-0.9408
328.1250,-3.1482,1.1601,8.5521,2.4909,4.2755,-2.4660,-2.4451,0.2399,7.4204,-8.8588,4.2020,-6.2942,-2.1011,-2.9664,-11.3648,-11.0865,-4.3887,-1.4452,0.7838
332.0312,1.9551,-1.3677,8.0878,3.1002,4.7779,-0.3268,-5.0033,0.6112,7.5436,-5.0080,4.5732,-4.7985,-1.8458,-1.4110,-1.8313,-3.4227,-3.7275,-1.5778,1.8632
335.9375,3.7279,-3.5731,4.8696,1.5188,3.4519,-0.5065,-8.3806,-0.7485,5.4992,-1.5061,3.9149,-3.7716,-2.3581,-0.9301,4.8638,2.6901,-3.2565,-3.3200,1.6622
339.8438,2.3100,-4.5307,1.1880,-1.6052,0.9566,-2.2817,-11.7597,-3.5512,2.7541,0.8132,3.4892,-3.1543,-2.6866,-1.1248,6.7753,5.1479,-2.1678,-5.5959,0.9252
343.7500,-0.3327,-2.9666,-0.2561,-4.4416,-1.0271,-3.8991,-12.9708,-6.4395,1.6032,1.7918,4.5439,-1.9289,-1.4944,-0.7246,4.6646,4.4550,0.5561,-6.4907,1.1456
347.6562,-1.8489,1.5976,1.6143,-5.2104,-1.0434,-3.8629,-9.8445,-7.9091,3.4775,1.8229,7.1638,0.9013,1.8346,1.3474,1.1486,2.7981,5.1210,-4.5962,3.3120
351.5625,-1.0565,7.7847,5.3687,-3.4261,1.0388,-1.9808,-2.0344,-7.3454,7.7414,1.5278,9.9814,5.2652,6.5007,4.9905,-1.0979,2.2514,10.3559,-0.1597,6.9880
355.4688,1.3893,12.4755,8.0177,-0.2598,3.8875,0.5290,8.0911,-5.4192,11.9087,1.4267,11.0326,9.7540,10.5720,8.7808,-0.9265,3.4294,14.1380,4.8352,10.4374
359.3750,3.5717,12.4080,7.1417,2.2528,5.6346,1.8912,16.3621,-3.5470,13.2182,1.7195,9.1862,12.4004,12.1181,10.8060,0.8072,5.4439,14.6260,7.8060,11.7290
363.2812,3.6662,6.3746,2.6733,2.6011,5.1884,0.9537,19.1288,-2.8175,10.5127,2.2152,5.1114,11.9798,10.4333,9.9007,2.0015,6.9812,11.4839,7.1990,10.0352
367.1875,1.1450,-3.5356,-2.9582,0.7995,2.9764,-2.1009,15.5029,-3.1841,5.0963,2.4143,1.0302,8.8767,6.4950,6.4040,0.6972,7.4912,6.2116,3.4866,6.1922
371.0938,-2.9080,-12.7221,-6.4459,-1.7045,0.5958,-5.9222,7.9710,-3.5283,-0.0610,1.7402,-0.6493,4.8511,2.3268,1.9125,-3.7670,7.4821,1.2884,-1.1656,2.1293
375.0000,-6.4837,-16.6028,-5.8559,-3.1181,-0.3451,-8.8227,0.8916,-2.5482,-2.2447,-0.1343,1.0810,1.8373,-0.2987,-1.7727,-10.4135,7.7337,-1.3385,-4.3367,-0.4122
378.9062,-7.8233,-13.3341,-1.9432,-2.5825,0.6676,-9.6697,-2.1562,0.1888,-0.7206,-3.0065,5.1059,0.6357,-0.9228,-3.7412,-17.1377,8.1882,-1.4084,-4.8863,-0.9614
382.8125,-6.3491,-4.9414,2.3613,-0.7245,2.7906,-8.3084,-0.4094,3.8155,2.9068,-6.0957,8.8279,0.4546,-0.5237,-4.3546,-21.6786,7.5895,-0.3711,-3.5341,-0.4657
386.7188,-2.8681,3.9067,3.9118,0.8843,4.5429,-5.4000,3.9680,6.6847,5.8951,-8.3331,9.7516,-0.3603,-0.6625,-4.7073,-22.5345,4.3352,-0.2786,-2.1303,-0.4575
390.6250,0.9539,8.6859,1.4079,0.9322,4.9323,-1.9487,7.6579,7.4742,6.2399,-8.8849,6.9774,-2.9448,-2.2916,-5.6317,-19.4757,-2.0397,-2.3151,-2.2009,-1.8771
394.5312,3.4614,7.5746,-3.7943,-0.6516,4.1482,1.1140,8.5073,6.0910,3.9287,-7.6118,1.6757,-6.9067,-5.0597,-7.0089,-13.5542,-9.9600,-5.9532,-3.8384,-4.3861
398.4375,3.7471,2.2234,-8.5714,-2.6307,3.3429,3.1180,6.7634,3.7397,0.7852,-5.1541,-3.6672,-10.4411,-7.5522,-7.8752,-6.6945,-16.3531,-9.2714,-5.7037,-6.6125
402.3438,1.9483,-3.5812,-9.9541,-3.3285,3.7091,3.6995,4.4665,2.1157,-0.8663,-2.5532,-6.6552,-11.4970,-8.2470,-7.2021,-1.0309,-18.4108,-10.1776,-6.0748,-7.1011
406.2500,-0.9451,-6.3241,-6.8273,-1.8006,5.5527,2.8561,3.6095,2.2886,0.2793,-0.6453,-6.1390,-9.1625,-6.5051,-4.7459,1.8100,-15.3391,-7.7158,-4.1326,-5.2932
410.1562,-3.6112,-4.6640,-0.4370,1.4937,8.0173,1.0285,4.5340,4.0254,3.8080,0.3602,-2.5288,-4.2896,-2.9574,-1.3412,1.2602,-8.7907,-2.6433,-0.5597,-1.9009
414.0625,-4.9937,0.2097,6.4334,4.9405,9.6223,-0.9377,5.7700,5.9757,8.0376,0.8267,2.7055,1.0484,0.8913,1.5597,-2.0174,-1.6329,3.0129,2.9270,1.5057
417.9688,-4.7256,5.6886,10.9731,6.7373,9.2074,-2.0881,5.3883,6.5524,11.1476,1.2254,7.8414,4.8377,3.5161,2.7644,-6.4371,4.0166,7.0673,4.7167,3.3725
421.8750,-3.2074,9.3721,11.6394,5.9315,6.6475,-1.8397,2.7807,4.9113,12.1614,1.6477,11.5009,6.2231,4.1280,2.0334,-10.1814,7.9685,8.2628,4.2916,2.9495
425.7812,-1.3104,10.1562,8.6498,2.9086,2.9139,-0.3491,-0.5439,1.4233,11.2166,1.7037,12.8590,5.7100,2.9380,0.1549,-11.9711,11.4414,6.7531,2.4194,0.5827
429.6875,0.1433,8.3181,3.6190,-0.8966,-0.4929,1.5320,-1.8299,-2.5963,9.1474,0.9046,11.6329,4.4569,0.8853,-1.5969,-11.5450,15.2979,3.8263,0.5154,-2.5574
433.5938,0.8367,4.8713,-1.3108,-3.8274,-2.3507,2.7500,0.9312,-5.6739,6.8330,-0.7858,8.0897,3.2958,-0.9255,-2.2396,-9.6209,18.5441,1.1245,-0.3105,-5.0884
437.5000,1.0712,0.8206,-4.4013,-4.8741,-2.3162,2.6827,7.2720,-6.9852,4.7775,-2.7294,3.1021,2.2393,-1.7624,-1.6217,-7.3950,18.4803,-0.1904,0.1246,-6.0489
441.4062,1.4505,-3.2064,-4.9757,-4.1465,-1.0652,1.4668,14.0406,-6.7520,3.0754,-3.9885,-1.9356,0.7778,-1.5678,-0.4608,-5.8915,12.6203,0.0551,1.1120,-5.3024
445.3125,2.3217,-6.8975,-3.6155,-2.7704,0.0217,-0.2190,16.9685,-6.0680,1.6061,-4.0834,-5.5052,-1.3801,-0.9549,0.0664,-5.5373,1.0327,1.0432,1.5968,-3.5838
449.2188,3.3449,-10.0049,-1.8386,-2.3074,-0.5468,-1.7429,13.0969,-6.3007,0.2309,-3.5520,-6.5824,-3.7921,-0.9218,-1.0837,-6.1628,-12.7543,1.4244,0.8169,-2.1791
453.1250,3.5069,-12.1681,-1.3397,-3.9730,-3.7198,-3.0165,2.5867,-8.3815,-1.0933,-3.7965,-5.1156,-5.4364,-2.3688,-4.3332,-7.3427,-23.2356,0.0314,-1.3275,-2.3323
457.0312,1.6240,-12.8967,-3.0810,-7.9861,-9.4067,-4.4999,-11.1736,-12.3051,-2.2313,-6.1890,-2.0089,-5.4148,-5.5779,-9.2683,-8.7802,-26.0360,-3.4604,-4.2723,-4.5979
460.9375,-2.9380,-11.6727,-6.6766,-13.3338,-16.3323,-6.7022,-23.2018,-17.0443,-2.7861,-10.9839,1.4309,-3.6381,-9.8988,-14.7371,-10.4439,-20.6169,-8.2445,-7.0411,-8.4456
464.8438,-9.7383,-8.1233,-10.4688,-18.0971,-22.3828,-9.5699,-29.3244,-20.9253,-2.1172,-16.8045,4.2291,-0.9469,-13.8713,-19.2107,-12.3737,-10.7004,-12.6579,-8.5892,-12.3784
468.7500,-17.2281,-2.2644,-12.3563,-20.2596,-25.4075,-12.2609,-28.0117,-22.3302,0.3945,-21.1491,6.1615,1.4347,-15.8364,-21.3065,-14.3393,-2.0253,-14.9467,-8.1535,-14.5988
472.6562,-23.2236,5.2199,-10.9653,-18.6707,-24.1891,-13.5192,-20.7480,-20.4451,4.8532,-21.6908,7.5981,2.7044,-14.7867,-20.3210,-15.6637,1.1494,-14.1601,-5.5656,-13.9259
476.5625,-25.6501,12.8313,-6.4770,-13.6881,-19.1089,-12.4126,-10.9381,-15.7055,10.4231,-17.5931,8.9609,2.9577,-10.9841,-16.5683,-15.4263,-1.4684,-10.6806,-1.4375,-10.4612
480.4688,-23.2530,18.4839,-0.5771,-7.1149,-12.0919,-8.9245,-2.1326,-9.6877,15.3776,-10.0282,10.2675,3.0066,-5.9302,-11.3431,-12.9896,-6.3011,-6.0537,2.9344,-5.5852
484.3750,-16.0584,20.2074,4.4619,-1.3891,-5.7669,-4.0039,3.4159,-4.4376,17.8025,-1.5865,11.1290,3.7028,-1.6346,-6.4598,-8.5361,-8.4429,-2.1850,6.0319,-1.2505
488.2812,-5.5057,17.0971,6.9924,1.5854,-2.2363,0.9219,5.2289,-1.5395,16.6561,5.0290,11.1657,5.2637,0.4198,-3.5315,-3.2374,-4.9448,-0.3691,6.8137,1.0200
492.1875,5.7721,9.9910,6.7356,1.3323,-2.1201,4.6029,4.1342,-1.4009,12.5259,8.2119,10.4358,7.0641,-0.0098,-3.3166,1.1266,3.2389,-0.7326,5.2866,0.8335
496.0938,14.5370,1.3713,4.6418,-1.0866,-4.4051,6.3596,1.3960,-3.1466,7.4996,7.8951,9.4672,8.0057,-1.9666,-5.4563,2.9437,11.7735,-2.4046,2.5607,-1.0669
500.0000,17.8802,-5.6079,2.0743,-3.7928,-7.1535,6.0582,-1.9267,-5.1813,4.1052,5.1114,8.8361,7.1971,-4.0225,-8.7281,1.5171,15.4937,-4.2429,0.2753,-3.4174
503.9062,14.3126,-8.5160,-0.0370,-5.1902,-8.6104,3.8624,-5.0842,-6.0906,3.9266,1.1352,8.6592,4.5180,-5.1732,-11.6623,-2.6387,11.3763,-5.5806,-0.3033,-5.1975
507.8125,4.6113,-6.7048,-1.4827,-4.7702,-8.0400,0.0972,-7.3583,-5.3567,6.7698,-3.1410,8.4773,0.7665,-5.2935,-13.1831,-8.1096,0.2378,-6.4843,1.0476,-6.0316
511.7188,-8.0647,-1.4438,-2.4135,-3.1726,-5.8533,-4.6259,-7.8369,-3.4969,10.9235,-7.2355,7.6958,-2.6483,-4.9006,-12.9613,-13.2763,-13.6679,-7.3994,3.5050,-6.0446
515.6250,-19.0680,4.8936,-2.7657,-1.5587,-3.0824,-9.2048,-5.5970,-1.6050,14.3195,-10.6655,6.2524,-4.2899,-4.4959,-11.3700,-16.9483,-24.7751,-8.5272,5.8523,-5.4200
519.5312,-23.9812,10.0516,-2.0519,-0.7908,-0.6599,-12.1266,-0.2923,-0.6487,15.7914,-12.6058,4.9250,-3.3035,-4.0548,-9.1664,-18.5887,-28.8515,-9.4693,7.3091,-4.1128
523.4375,-20.4856,12.7948,0.2488,-0.9872,0.9966,-12.0269,7.2363,-0.9827,15.5853,-12.0520,4.9203,0.1663,-3.0861,-7.1340,-18.1177,-24.8533,-9.4490,7.9406,-1.9847
527.3438,-9.5111,13.0584,4.0122,-1.6967,1.9033,-8.5183,14.8314,-2.3408,14.8391,-8.4882,6.9518,4.9060,-1.2055,-5.8579,-15.6084,-15.1951,-7.9572,8.3671,0.7714
531.2500,4.9528,11.4545,8.1031,-2.4627,2.1419,-2.7466,19.6454,-4.2123,14.4934,-2.5964,10.4804,8.9933,1.2652,-5.6538,-11.2380,-4.4294,-5.3191,9.0312,3.3429
535.1562,17.3909,8.6274,10.7327,-3.2857,1.5964,2.8295,19.3399,-6.2540,14.4841,3.5972,13.7602,10.5377,3.2115,-6.5619,-5.5786,2.9718,-2.7074,9.6265,4.5027
539.0625,23.0083,4.9358,10.4017,-4.6090,0.0421,5.4988,13.2777,-8.4203,13.8179,7.4380,14.7840,8.5510,3.3116,-8.3288,0.0807,4.6714,-1.5200,9.1771,3.2813
542.9688,19.7051,0.5940,6.8239,-6.8524,-2.5012,3.6940,3.0493,-10.7539,11.4460,6.9481,12.5500,3.5313,0.9338,-10.3954,3.8489,1.3810,-2.5059,6.7548,-0.3238
546.8750,8.9185,-3.9875,1.1888,-9.8854,-5.4872,-2.0846,-8.0249,-13.0664,7.2479,1.9932,7.7806,-2.6305,-3.2861,-11.9849,3.9927,-3.8111,-5.2215,2.3141,-5.1327
550.7812,-5.0273,-8.0436,-4.4432,-12.8852,-7.9243,-9.4209,-16.2510,-14.8254,2.3570,-5.4366,2.5620,-7.5004,-7.6322,-12.3498,0.0074,-7.3464,-8.1951,-3.0064,-9.2882
554.6875,-16.7782,-10.6762,-8.2359,-14.7328,-8.8390,-15.2044,-19.1550,-15.3899,-1.4477,-12.1160,-0.8888,-9.3309,-10.1907,-11.1113,-6.7389,-7.2854,-9.7171,-7.4044,-11.2175
558.5938,-22.2257,-11.3194,-9.4705,-14.6943,-7.8323,-17.2624,-16.5532,-14.4469,-2.8689,-15.2418,-1.5143,-7.9779,-9.8888,-8.5069,-13.4184,-4.3652,-8.7807,-9.4517,-10.4588
562.5000,-20.2363,-10.1099,-8.7140,-12.9052,-5.3541,-15.4778,-10.5817,-12.3155,-1.9438,-13.9588,0.0767,-4.9235,-7.0532,-5.3652,-17.1939,-1.3621,-5.6195,-8.9550,-7.8376
566.4062,-13.0826,-7.8864,-7.2422,-10.3133,-2.4968,-11.7447,-4.6629,-9.8599,-0.0261,-9.8649,2.1707,-2.3483,-3.1753,-2.7657,-16.9085,-1.1423,-1.5631,-7.0542,-4.9074
570.3125,-5.3545,-5.7997,-6.1724,-8.1155,-0.4330,-8.7967,-1.8867,-8.0287,1.0845,-6.1522,3.1205,-1.8195,-0.0820,-1.5430,-13.8884,-4.6600,1.6612,-5.4920,-3.0427
574.2188,-1.7902,-4.7679,-5.8916,-7.0751,0.1590,-8.5944,-3.5554,-7.3176,0.2622,-5.8142,2.2904,-3.4402,0.9553,-1.9062,-11.1852,-10.2603,2.7565,-5.5578,-2.7679
578.1250,-4.9937,-5.0864,-6.0858,-7.1780,-0.6506,-11.2112,-8.5739,-7.5173,-2.3209,-9.9098,0.1750,-6.0075,-0.3222,-3.3950,-11.5973,-14.7944,1.3842,-7.4021,-3.6996
582.0312,-14.1265,-6.3825,-6.2392,-7.8246,-2.2154,-14.8479,-13.9866,-7.9202,-5.4385,-16.8724,-2.2574,-8.0252,-3.2944,-5.1919,-15.6963,-15.7962,-1.8214,-10.1311,-5.0434
585.9375,-25.2554,-7.8887,-6.1656,-8.3693,-3.7491,-16.9387,-16.4366,-7.8359,-7.6858,-23.2749,-4.3888,-8.8137,-6.9611,-6.5957,-21.2085,-13.1825,-5.6647,-12.5289,-6.2271
589.8438,-33.2387,-8.8560,-6.1728,-8.5869,-4.7321,-15.6735,-13.8692,-7.0547,-8.3534,-25.6381,-6.2761,-8.8974,-10.4266,-7.3666,-24.2802,-9.2388,-8.9578,-13.8478,-7.2130
593.7500,-34.2260,-8.8948,-6.7670,-8.7267,-5.0593,-11.0426,-6.6375,-5.9377,-7.7238,-22.2762,-8.2753,-9.4003,-13.1080,-7.7400,-21.9144,-6.8786,-10.9591,-14.1194,-8.3105
597.6562,-27.4949,-8.1064,-8.1465,-9.1448,-4.9018,-4.8140,2.5881,-5.0842,-6.6634,-14.1672,-10.3549,-10.9364,-14.6735,-8.1248,-14.0347,-7.4494,-11.5218,-13.8437,-9.6924
601.5625,-15.6897,-6.9801,-9.8849,-9.8267,-4.4345,0.4988,10.1229,-4.8284,-5.8814,-4.4098,-11.7560,-12.8847,-14.9039,-8.7024,-3.8098,-9.7292,-10.9546,-13.3843,-11.0206
605.4688,-3.4000,-6.1220,-11.0578,-10.2006,-3.6443,3.0275,13.1459,-4.9393,-5.4159,3.3687,-11.3655,-13.6627,-13.6616,-9.2061,4.0282,-10.9010,-9.7235,-12.5831,-11.4935
609.3750,5.0788,-5.9336,-10.7573,-9.4216,-2.3411,2.4697,11.1442,-4.7518,-4.6925,6.7347,-8.5734,-11.8485,-10.9931,-9.0360,5.8512,-8.8061,-8.1637,-10.8967,-10.3039
613.2812,7.5714,-6.3758,-8.6576,-6.9557,-0.3492,0.0337,6.0969,-3.6479,-3.0504,5.3904,-3.9385,-7.3314,-7.2374,-7.6470,1.1468,-3.7725,-6.3417,-7.9208,-7.1974
617.1875,4.5544,-6.9277,-5.2475,-3.0539,2.2699,-2.4792,1.2585,-1.5573,-0.3020,0.9488,0.9308,-1.5965,-2.9938,-4.9600,-7.3167,1.4205,-4.1164,-3.8650,-2.7374
621.0938,-1.6554,-6.7788,-1.5549,1.2376,5.1195,-3.8197,-0.7634,0.8789,3.1063,-4.1614,4.3073,3.1346,1.0753,-1.5236,-15.1709,3.5024,-1.3492,0.4197,1.9204
625.0000,-8.3424,-5.1939,1.4730,4.5756,7.5735,-3.9369,0.5171,2.6121,6.4269,-7.9424,5.4772,5.3370,4.4869,1.6988,-18.8521,1.1895,1.8697,3.9056,5.6121
628.9062,-13.5325,-1.8943,3.5254,6.0296,9.0364,-3.7682,3.3483,2.7792,9.1541,-9.5527,5.2440,5.1705,7.0582,3.8095,-17.2730,-3.6821,5.1216,6.0087,7.7428
632.8125,-16.3057,2.7251,5.0326,5.5628,9.2215,-4.3931,5.0484,1.2169,11.3355,-9.2628,5.3770,4.2998,8.8375,4.4494,-11.9052,-7.2850,7.7690,6.9112,8.5030
636.7188,-16.4267,7.6667,6.7337,4.0029,8.3016,-6.1684,3.8780,-1.4125,13.4060,-7.8687,7.3263,4.6691,9.9298,3.9923,-5.4720,-6.4499,9.2416,7.3589,8.6200
640.6250,-13.8711,11.6794,9.0046,2.5547,6.8593,-8.4216,0.2378,-3.9413,15.6887,-6.0357,11.0960,7.1138,10.3887,3.3512,-0.2454,-0.9385,9.3591,8.1026,8.8467
644.5312,-8.7371,13.7535,11.4521,2.1864,5.6661,-9.8622,-3.6122,-5.2498,17.9830,-3.9556,15.1122,10.8156,10.2807,3.5174,2.9966,6.3230,8.5129,9.4108,9.5488
648.4375,-1.5662,13.5551,13.1320,3.2600,5.3979,-9.3744,-5.1126,-4.7281,19.6145,-1.4217,17.2593,13.9885,9.8668,5.0922,4.8861,11.2586,7.5852,11.0091,10.6491
652.3438,6.3459,11.6178,13.3092,5.5651,6.4086,-6.6385,-3.1702,-2.4221,19.9615,1.8338,16.4156,15.2801,9.7131,8.0529,6.5607,11.4860,7.6084,12.4621,11.9095
656.2500,13.1150,9.1998,12.2394,8.6279,8.6392,-2.2077,1.0972,1.1367,19.0769,5.7964,13.4222,14.8468,10.5557,11.8383,8.6762,7.9666,9.3021,13.6652,13.2807
660.1562,17.0003,7.8441,11.3437,12.0170,11.6734,2.9117,5.1634,5.2433,17.9004,10.0110,10.7438,14.3029,12.9245,15.6601,10.9705,4.2962,12.7018,15.0330,15.0090
664.0625,17.3002,8.7925,12.5060,15.4406,14.9001,7.8015,6.8951,9.2715,17.8138,13.6806,10.9607,15.5668,16.7375,18.8501,12.5463,4.1541,17.0723,17.2071,17.3984
667.9688,14.8014,12.4766,16.8412,18.6508,17.7251,11.9115,6.1057,12.7804,19.7773,15.9764,15.0459,19.4346,21.1669,21.0867,12.5688,8.7248,21.1834,20.4917,20.4186
671.8750,11.4140,18.2934,23.7301,21.3413,19.7714,14.9829,4.7775,15.5221,23.6248,16.4407,21.5809,24.9095,24.9450,22.4468,10.8873,15.8950,23.8560,24.4527,23.5086
675.7812,9.1610,24.7757,30.8466,23.2068,21.0092,16.8346,5.7765,17.4438,28.0370,15.3013,27.4753,29.7754,26.9963,23.3193,8.2123,21.7421,24.5323,28.0193,25.7985
679.6875,9.1252,30.1072,35.2942,24.1522,21.7531,17.3163,10.9083,18.7112,31.2643,13.5025,29.7715,32.0113,27.0334,24.2364,5.7855,23.2274,23.5761,30.0626,26.6514
683.5938,10.9854,32.7784,35.2191,24.4552,22.4939,16.5150,19.5942,19.6881,32.1483,12.3416,27.4006,31.0634,25.7309,25.6587,4.7538,20.2017,22.1049,30.0736,26.1429
687.5000,13.3877,32.1180,30.8955,24.6784,23.6029,15.0013,29.0131,20.7909,30.7725,12.8034,21.7823,28.1080,24.3269,27.7425,5.5916,15.3760,21.3945,28.4784,25.0883
691.4062,14.8662,28.4995,24.5749,25.3110,25.0417,13.7810,35.5902,22.2330,28.3204,14.9249,15.9212,25.1703,23.8709,30.1604,7.8690,12.3562,22.1461,26.3725,24.5276
695.3125,14.7128,23.1816,19.1830,26.3665,26.2584,13.8267,36.8789,23.8044,26.2669,17.6130,12.6186,23.7568,24.5810,32.0938,10.4850,13.1588,24.0371,24.8597,24.9884
699.2188,13.2816,17.8934,16.6906,27.2561,26.3927,15.4386,32.7186,24.8709,25.4728,19.1529,12.9446,23.9625,25.7269,32.4956,12.2448,16.9154,25.8555,24.4423,26.0521
703.1250,11.6153,14.3339,17.1724,27.0976,24.7379,17.9122,25.1001,24.6722,25.7864,18.2185,15.8809,24.6328,26.1233,30.5864,12.4656,20.5928,26.1958,24.8499,26.5767
707.0312,10.7107,13.7171,19.0772,25.3073,21.2278,19.8491,16.9925,22.7864,26.3596,14.8096,19.2324,24.3900,24.9230,26.3665,11.2685,21.1658,24.3377,25.3746,25.4741
710.9375,10.9315,16.4203,20.4233,22.0883,16.6444,20.0013,10.9258,19.4853,26.3749,10.4760,21.1027,22.7431,22.2034,20.8342,9.3898,17.7349,20.7756,25.4304,22.5299
714.8438,11.9273,21.7820,20.0694,18.4611,12.3725,18.1150,8.0947,15.7298,25.6277,7.5823,20.9513,20.4877,18.9771,15.7029,7.6594,12.1900,17.0472,24.9394,18.6915
718.7500,13.0573,28.1394,18.2671,15.7781,9.7954,15.1763,8.2724,12.7660,24.5759,7.9851,19.6423,19.1473,16.6384,12.6846,6.5278,8.0352,14.9328,24.3105,15.5991
722.6562,13.9818,33.2232,16.2657,15.0155,9.6569,12.8454,10.3151,11.5380,23.9107,11.9345,18.6237,19.8956,16.2122,12.6969,5.9999,8.1953,15.4949,24.0920,14.6535
726.5625,14.9841,34.9219,15.3779,16.2854,11.7544,12.4295,12.8094,12.2524,24.0413,17.9140,18.9080,22.7376,17.8677,15.4365,6.0076,13.2274,18.5356,24.5894,16.2271
730.4688,16.7734,32.2004,16.1790,18.8548,15.1212,14.0842,14.5424,14.3342,24.8907,23.5351,20.5357,26.5012,20.9435,19.5706,6.8733,21.0253,22.7805,25.7130,19.5093
734.3750,19.8677,25.7424,18.2802,21.6082,18.5507,16.7764,14.7406,16.7671,26.0884,26.8988,22.7580,29.5971,24.3796,23.4284,9.3663,28.1108,26.6291,27.1018,23.0293
738.2812,23.9642,17.8874,20.6563,23.6120,21.1182,19.0059,13.1826,18.5855,27.3140,27.5234,24.6476,30.9781,27.2192,25.7746,14.1387,31.6317,28.9690,28.3596,25.4572
742.1875,27.7574,11.7370,22.1859,24.4285,22.4074,19.7522,10.2611,19.2346,28.4572,26.2616,25.6324,30.6441,28.8836,26.2226,20.8563,30.8285,29.5643,29.1954,26.1572
746.0938,29.4280,9.7794,22.0778,24.0614,22.3986,18.9837,6.9381,18.6470,29.4854,24.3597,25.6326,29.4059,29.1586,25.1124,27.7240,27.1544,28.8647,29.4020,25.2273
750.0000,27.6090,12.7195,20.0906,22.7055,21.2239,17.4208,4.4950,17.0927,30.2106,22.4185,24.8582,28.1610,28.0633,23.0431,31.9686,23.1096,27.4906,28.7806,23.1644
753.9062,22.2933,19.1475,16.6226,20.5768,19.0511,15.8132,4.0773,14.9802,30.2524,20.0501,23.5603,27.2424,25.8019,20.4513,31.2085,20.6132,25.8217,27.1726,20.5188
757.8125,15.1102,26.2267,12.7133,17.9588,16.1875,14.3397,6.2017,12.7508,29.3027,16.4650,21.9647,26.2895,22.8343,17.5276,24.9343,19.9312,23.9542,24.6303,17.7963
761.7188,8.7129,31.0036,9.8497,15.3523,13.2481,12.6056,10.4762,10.8728,27.4791,11.4923,20.3616,24.6672,19.9131,14.4557,15.0928,19.7519,21.9522,21.5844,15.5557
765.6250,5.5399,31.6249,9.4483,13.4827,11.1349,10.2120,15.6996,9.8288,25.4113,6.1844,19.1392,22.0640,17.9034,11.6876,5.2638,18.2556,20.0807,18.7988,14.4326
769.5312,6.6003,27.8786,12.1092,13.0301,10.7104,7.3924,20.3105,10.0041,23.8928,2.4514,18.6136,18.8054,17.3883,9.9457,-1.1622,14.4407,18.7650,17.0412,14.9008
773.4375,10.9599,20.9510,17.0441,14.2049,12.3219,5.1327,22.9742,11.4937,23.3047,1.9010,18.7470,15.6742,18.2980,9.8795,-2.6975,8.8730,18.2998,16.6332,16.8772
777.3438,16.2101,12.7406,22.1675,16.4832,15.5129,4.5807,23.0455,13.9597,23.2687,4.6738,19.0266,13.4046,19.8684,11.6093,-0.3017,3.4303,18.5780,17.1904,19.5233
781.2500,19.6504,5.1964,25.0148,18.7621,19.1758,6.1227,20.7298,16.6795,22.8617,9.1148,18.7042,12.2460,21.0468,14.5157,3.5171,0.2403,19.1144,17.7773,21.5308
785.1562,19.5314,-0.0740,24.0795,19.9114,22.1026,8.8249,16.9139,18.8106,21.2988,12.5725,17.3042,11.8992,21.1256,17.4812,6.3630,0.4727,19.3835,17.4309,21.8303
789.0625,15.7297,-2.0087,19.7653,19.4045,23.6028,10.7484,12.7726,19.7506,18.5949,12.8579,15.0401,11.8303,20.1782,19.4661,7.2441,3.6906,19.2086,15.7401,20.2826
792.9688,9.6095,-0.3060,14.2782,17.6223,23.7914,10.0556,9.3258,19.3970,15.6828,9.4610,12.7845,11.6913,18.9740,20.0543,6.7332,8.1068,18.8644,13.1103,17.8467
796.8750,3.2843,4.3247,10.4325,15.6290,23.3798,6.2446,7.1298,18.1655,13.8513,3.7960,11.5443,11.5258,18.4118,19.6175,6.0939,11.5621,18.7854,10.5449,16.0385
800.7812,-1.2626,10.1236,10.0689,14.5575,23.1441,0.6831,6.2193,16.7646,13.8865,-1.6294,11.7818,11.6376,18.8654,19.0070,6.1633,12.6606,19.1027,9.0894,15.9996
804.6875,-2.8115,14.7454,13.0650,14.9897,23.4462,-3.9891,6.3034,15.8539,15.5404,-4.5777,13.0736,12.2607,19.9160,18.9900,6.8108,11.4408,19.4060,9.2878,17.7880
808.5938,-1.1661,16.2306,17.5354,16.6866,24.1073,-5.3147,7.0712,15.7554,17.7148,-4.1828,14.3836,13.3051,20.6647,19.7993,7.2227,9.2451,18.9673,10.9619,20.3656
812.5000,2.8871,14.0344,21.0276,18.7799,24.6521,-2.4894,8.3794,16.3356,19.2159,-1.2312,14.7760,14.3645,20.3932,21.0499,6.5998,7.8798,17.3004,13.3840,22.2732
816.4062,7.8243,9.4519,21.9004,20.2543,24.6807,3.0527,10.1573,17.0857,19.5128,2.4163,14.0661,14.9577,19.0868,22.0215,4.6406,8.5230,14.6372,15.6730,22.5209
820.3125,11.8236,5.0444,20.0401,20.4212,24.0867,8.3331,12.0772,17.3539,18.9567,4.8577,12.9379,14.8058,17.4437,22.0849,1.5268,10.9585,11.9332,17.1593,21.1070
824.2188,13.3929,3.2927,16.6051,19.1681,23.0096,10.4451,13.2825,16.6400,18.3507,5.0772,12.4448,13.9526,16.3821,21.0124,-2.3548,13.5513,10.3518,17.5616,18.8809
828.1250,12.0331,5.2505,13.1594,16.9373,21.6401,8.1768,12.5264,14.8466,18.2563,3.3578,13.2451,12.6795,16.4191,19.0359,-6.5162,14.0215,10.5606,16.9849,16.9339
832.0312,8.5896,10.0132,10.8577,14.5200,20.0843,2.7059,8.8449,12.3740,18.5882,1.0613,15.1072,11.3200,17.3632,16.6890,-10.1541,10.6681,12.3188,15.8324,15.9757
835.9375,4.9516,15.2996,10.1279,12.7605,18.3849,-3.0428,2.4512,9.9804,18.7705,-0.0720,17.0007,10.1188,18.4980,14.5555,-11.9493,3.4350,14.6201,14.6809,16.0702
839.8438,3.0769,18.7174,10.8070,12.2285,16.6231,-6.0226,-4.7865,8.4167,18.2560,1.2099,17.6794,9.1944,19.0596,13.0362,-10.3743,-5.7625,16.2647,14.0929,16.7725
843.7500,3.8044,18.8834,12.3759,12.9183,14.9418,-4.7622,-9.8348,7.9797,16.9327,5.0008,16.3419,8.5524,18.6212,12.1871,-4.6134,-13.7090,16.4535,14.3377,17.4307
847.6562,6.1945,15.7647,14.0267,14.0919,13.4250,-0.1862,-9.9500,8.2275,15.0818,10.0594,12.9696,8.0717,17.1317,11.6581,4.4398,-17.3105,15.0373,15.1120,17.3971
851.5625,7.9373,10.2345,14.6435,14.4228,11.9381,4.8868,-4.3838,8.0745,12.9742,14.2397,8.2164,7.4630,14.6728,10.7718,13.9569,-15.0910,12.3474,15.4629,16.0946
855.4688,6.7148,3.3858,13.0039,12.5088,10.1128,7.2697,4.7367,6.3000,10.5181,15.3797,3.0385,6.2894,11.2323,8.7717,20.1840,-7.9884,8.8402,14.0971,13.0835
859.3750,1.7317,-3.8027,8.3551,7.5964,7.5599,5.0955,13.1010,2.2468,7.3291,12.2577,-1.6429,4.1368,6.7434,5.1941,20.2743,1.0020,4.8679,10.0413,8.2596
863.2812,-5.5834,-10.2965,1.1090,0.1492,4.1885,-1.2528,16.3154,-3.6780,3.2109,5.1505,-5.0933,0.8978,1.3681,0.1994,13.8319,8.1827,0.7102,3.3329,2.1144
867.1875,-12.2362,-14.7348,-6.8995,-8.1276,0.3857,-9.4346,12.3031,-10.0297,-1.3597,-4.2875,-6.7955,-3.0106,-4.2530,-5.3477,3.1281,10.8116,-3.2556,-4.7043,-4.1997
871.0938,-15.3492,-15.6160,-12.9994,-14.9344,-3.1160,-16.4284,2.5762,-14.9263,-5.2181,-13.7458,-6.5195,-6.6979,-9.0802,-10.1676,-8.1899,8.2046,-6.4913,-11.8780,-9.2113
875.0000,-13.8469,-12.1093,-14.9664,-18.4204,-5.6235,-20.0341,-8.4689,-16.9308,-7.0973,-21.1781,-4.4848,-9.1716,-12.1229,-13.1232,-17.0442,1.7685,-8.4660,-16.1069,-11.8009
878.9062,-9.1062,-5.0177,-12.2923,-18.0637,-6.8628,-19.7840,-15.9075,-15.7378,-6.4634,-25.4507,-1.4840,-9.8450,-12.9836,-13.7508,-22.2533,-5.9326,-8.9576,-16.4504,-11.8163
882.8125,-4.1888,2.9284,-6.6132,-14.8810,-7.0859,-16.8603,-16.9389,-12.2901,-4.0074,-26.4702,1.2376,-8.8645,-12.1076,-12.4443,-24.4792,-12.4509,-8.2408,-13.5925,-10.1988
886.7188,-2.1656,7.9737,-0.9396,-10.8450,-6.8430,-13.2215,-12.2727,-8.2767,-1.3970,-24.8954,2.4174,-7.0263,-10.5330,-10.1714,-25.0747,-16.3521,-6.9883,-9.4805,-8.4710
890.6250,-4.5546,7.1698,1.9059,-7.8597,-6.5975,-10.5447,-5.4559,-5.3125,-0.3967,-21.7469,1.3481,-5.3261,-9.2877,-7.8938,-24.8633,-17.3701,-5.9236,-6.3180,-7.8777
894.5312,-10.7265,0.1213,0.7277,-6.8877,-6.4609,-9.5879,-0.6135,-4.2460,-1.8966,-18.1678,-1.7469,-4.4355,-8.8289,-6.0574,-23.7888,-15.9764,-5.4516,-5.4898,-8.7261
898.4375,-18.4614,-10.4883,-3.5626,-7.6910,-6.2028,-10.2029,-0.0271,-4.9283,-5.4502,-15.3312,-5.7942,-4.4503,-8.8821,-4.4614,-21.5470,-12.8477,-5.5020,-7.0120,-10.3387
902.3438,-25.1617,-20.0876,-8.6400,-9.2327,-5.4748,-11.7935,-3.0222,-6.4805,-9.5798,-14.2992,-9.3952,-5.0488,-8.7517,-2.5594,-18.4733,-8.6403,-5.6590,-9.7554,-11.6091
906.2500,-28.9767,-24.5747,-12.1386,-10.3987,-4.0543,-13.7931,-6.7680,-7.8394,-12.6259,-15.6916,-11.5069,-5.8950,-7.8611,0.0359,-15.7957,-4.1232,-5.4646,-12.2284,-11.7477
910.1562,-29.3461,-22.5354,-12.8695,-10.5736,-1.9618,-15.8574,-8.3834,-8.2729,-13.6243,-19.2829,-11.9024,-6.9564,-6.1631,3.1834,-14.9780,-0.3820,-4.6985,-13.4153,-10.7199
914.0625,-26.9273,-16.0348,-11.2560,-9.8000,0.5369,-17.7712,-6.9598,-7.6516,-12.7453,-23.8702,-11.1859,-8.4882,-4.1946,6.1920,-16.7181,1.2533,-3.5087,-13.2163,-9.1514
917.9688,-23.1749,-9.4992,-8.8938,-8.5710,2.9414,-19.3069,-4.2195,-6.4381,-11.1298,-27.6882,-10.4058,-10.7190,-2.8076,8.1154,-20.4889,-0.3390,-2.3791,-12.3288,-7.8704
921.8750,-19.8361,-7.3018,-7.6292,-7.5122,4.4995,-20.2527,-3.4173,-5.4755,-10.2804,-29.2878,-10.5095,-13.5061,-2.7802,8.1496,-25.0331,-5.4654,-1.9907,-11.7456,-7.4662
925.7812,-18.4505,-11.3958,-8.6932,-7.1755,4.2659,-20.6124,-7.1900,-5.6814,-11.3277,-28.3891,-11.9134,-16.2502,-4.5118,5.9176,-29.3647,-13.2386,-3.0137,-12.2015,-8.1334
929.6875,-19.8519,-20.2884,-12.2535,-7.9750,1.3925,-20.7573,-15.6923,-7.7263,-14.4788,-26.1166,-14.3443,-18.1493,-7.8822,1.5577,-33.3509,-21.6920,-5.8411,-13.8444,-9.7756
933.5938,-23.7625,-29.8775,-17.4507,-10.1466,-4.3522,-21.3039,-26.1681,-11.7580,-18.8483,-24.3620,-16.9653,-18.6092,-12.2537,-4.3261,-37.3033,-28.3737,-10.3131,-16.2242,-12.1432
937.5000,-28.7192,-35.6478,-22.7838,-13.6298,-12.1043,-22.7069,-34.2457,-17.2593,-22.7528,-24.6049,-18.7082,-17.5281,-16.5896,-10.7741,-40.9275,-31.1708,-15.5722,-18.5308,-14.8290
941.4062,-32.5464,-35.0162,-26.6613,-17.9233,-19.8799,-24.8264,-36.2320,-23.1305,-24.4079,-26.9346,-18.7066,-15.2923,-19.7112,-16.6318,-42.6709,-29.0565,-20.2260,-19.9460,-17.1843
945.3125,-33.3101,-28.5933,-27.9582,-22.0916,-25.2391,-26.8239,-31.1126,-28.0288,-22.7973,-29.9378,-16.7010,-12.5569,-20.7034,-20.8151,-40.3179,-22.5295,-22.8772,-19.9817,-18.3808
949.2188,-30.3240,-19.7529,-26.4212,-25.0493,-26.4290,-27.5527,-21.1430,-30.8596,-18.3215,-31.5697,-13.2575,-10.0184,-19.3648,-22.6805,-32.6827,-13.6202,-22.8308,-18.6995,-17.7641
953.1250,-24.6368,-12.8110,-22.7705,-26.0488,-23.3821,-26.2657,-10.7168,-31.2024,-12.8221,-30.4719,-9.6496,-8.3243,-16.4607,-22.3631,-21.2006,-5.4043,-20.5795,-16.7265,-15.3534
957.0312,-18.6673,-10.8261,-18.4066,-25.0934,-17.9101,-23.2056,-4.1562,-29.4431,-8.8217,-26.8971,-7.3651,-8.0714,-13.5370,-20.8461,-10.0310,-1.0524,-17.6985,-15.0245,-12.1089
960.9375,-15.1444,-14.1697,-14.8132,-22.9841,-12.8603,-19.6723,-3.6385,-26.5371,-8.2615,-22.6470,-7.4073,-9.7216,-12.2614,-19.6021,-4.2087,-2.6215,-16.0897,-14.4652,-9.6469
964.8438,-15.9153,-20.5589,-12.9304,-20.9180,-10.6601,-17.4660,-8.3451,-23.5341,-11.3983,-20.0652,-9.7418,-13.3460,-13.5738,-19.8976,-6.8023,-10.0376,-16.9459,-15.3890,-9.4409
968.7500,-21.2165,-26.4323,-12.8374,-19.8512,-12.0956,-17.9880,-15.1938,-21.1361,-16.5515,-20.7024,-13.2396,-18.3262,-17.1314,-22.1117,-16.9046,-20.8299,-20.0415,-17.3894,-11.9582
972.6562,-29.6757,-28.8551,-13.9088,-20.0127,-16.0484,-21.4854,-20.6267,-19.5203,-20.9479,-24.4423,-16.2212,-23.3079,-21.4248,-25.4877,-29.8753,-30.9615,-23.8125,-19.4803,-16.3028
976.5625,-38.8849,-26.9122,-15.3116,-20.8575,-20.3089,-26.8448,-22.3960,-18.4721,-22.2429,-29.5560,-17.3390,-26.6145,-24.5579,-28.5121,-39.8138,-36.5609,-26.2153,-20.5990,-20.6495
980.4688,-46.1722,-21.9063,-16.4849,-21.4627,-22.9006,-32.0284,-20.4064,-17.6728,-19.8245,-33.5955,-16.2867,-27.0133,-25.2568,-29.7310,-42.7547,-35.7639,-25.8598,-20.1728,-23.2295
984.3750,-49.2913,-16.3809,-17.2821,-21.0835,-23.0659,-34.9199,-16.3142,-16.9075,-15.0894,-34.5987,-13.8971,-24.4095,-23.5066,-28.5237,-38.5993,-29.6614,-22.7344,-18.4112,-23.2525
988.2812,-46.9643,-12.6281,-17.7277,-19.5084,-21.3591,-34.1771,-12.3246,-16.0688,-10.5090,-31.9805,-11.5599,-19.9894,-20.4363,-25.3702,-30.6605,-21.7355,-18.1051,-16.1311,-21.1903
992.1875,-39.2997,-11.5453,-17.6520,-17.0285,-18.9378,-29.7290,-9.9965,-15.0134,-8.0741,-26.7210,-10.3291,-15.6359,-17.5540,-21.4745,-23.2736,-16.0114,-13.7049,-14.2159,-18.2902
996.0938,-27.9864,-12.4015,-16.5635,-14.1162,-16.6649,-22.7485,-9.6908,-13.4620,-8.1094,-20.8333,-10.2939,-12.9157,-15.8399,-18.0244,-19.1283,-14.9299,-10.7630,-13.0480,-15.7046
1000.0000,-16.0148,-13.4882,-13.9231,-11.0981,-14.6740,-15.1507,-10.7601,-11.0926,-9.1912,-16.4085,-10.6037,-12.2473,-15.2686,-15.5815,-18.0111,-18.1399,-9.4749,-12.2809,-13.8446
1003.9062,-6.7526,-13.1520,-9.6490,-8.0700,-12.6240,-8.8393,-12.1139,-7.8087,-9.1732,-14.6766,-10.0988,-12.7666,-15.0176,-13.9714,-17.5802,-22.8727,-9.1750,-11.0992,-12.3566
1007.8125,-2.5889,-10.5940,-4.4596,-5.0812,-10.3187,-5.0004,-12.7002,-3.9938,-6.6117,-15.4898,-8.0991,-12.9619,-14.1534,-12.6707,-15.4199,-25.6137,-8.9890,-8.8022,-10.6447
1011.7188,-3.7884,-6.0928,0.2574,-2.3946,-8.1224,-3.7278,-11.7131,-0.5294,-1.6674,-17.4591,-4.8293,-11.6485,-12.2971,-11.3473,-10.8800,-24.0551,-8.4672,-5.3349,-8.4881
1015.6250,-8.2895,-0.7018,3.0437,-0.5651,-6.8116,-4.1361,-8.6788,1.5089,4.0412,-18.6997,-1.2342,-8.6604,-9.8342,-10.1373,-5.5072,-18.2315,-7.7782,-1.4320,-6.2794
1019.5312,-12.7339,4.2742,3.1011,-0.2180,-6.9818,-4.9136,-3.6434,1.3486,8.4510,-17.8452,1.6340,-4.8538,-7.5825,-9.4731,-1.9162,-10.3089,-7.4059,1.7181,-4.7381
1023.4375,-14.2480,7.7308,0.7152,-1.6476,-8.4913,-5.0391,2.5451,-1.0671,10.2279,-14.8092,3.2157,-1.4935,-6.2008,-9.6348,-1.9705,-3.3088,-7.6393,3.0848,-4.3516
1027.3438,-11.9473,9.0262,-2.8814,-4.5097,-10.4007,-4.2832,8.1763,-4.9978,9.3807,-10.8439,3.6518,0.5244,-5.7622,-10.3991,-5.5006,0.4318,-8.2572,2.3250,-4.9818
1031.2500,-7.2393,8.0918,-6.1182,-7.8482,-11.4855,-3.2090,11.1697,-9.2183,7.0397,-7.8016,3.5421,1.1185,-5.7529,-11.0800,-10.3514,0.2706,-8.6229,-0.0553,-5.9199
1035.1562,-2.7577,5.4441,-7.8185,-10.4852,-10.9738,-2.6784,10.0844,-12.5597,4.6841,-6.9861,3.5089,0.9297,-5.4455,-10.9481,-13.6705,-2.6286,-8.0894,-2.9635,-6.3298
1039.0625,-0.6549,2.0840,-7.6644,-11.5704,-9.0002,-3.1813,5.1074,-14.3874,3.3802,-8.2893,3.9089,0.8607,-4.3549,-9.7256,-13.6137,-5.9579,-6.4050,-5.2250,-5.7478
1042.9688,-1.3824,-0.7531,-6.1893,-10.9711,-6.4783,-4.4324,-1.7102,-14.7711,3.4688,-10.1870,4.8518,1.6091,-2.4755,-7.7915,-10.4338,-7.2922,-3.8403,-6.0444,-4.2934
1046.8750,-3.6991,-1.9590,-4.3569,-9.2729,-4.5059,-5.5086,-7.3251,-14.2834,4.7502,-10.6538,6.4062,3.4621,-0.1917,-5.9379,-6.3162,-5.0465,-0.9765,-5.2048,-2.4855
1050.7812,-5.7528,-0.8755,-2.9815,-7.3942,-3.7219,-5.4314,-9.2922,-13.5739,6.8828,-8.4399,8.7249,6.3601,2.0128,-4.8406,-4.0418,0.9417,1.6622,-2.9711,-0.8412
1054.6875,-6.3502,2.5784,-2.2980,-6.0471,-4.0267,-3.7865,-7.1017,-12.9759,9.6410,-3.8793,11.9160,10.0420,3.8113,-4.6112,-5.2314,9.3662,3.8603,0.1712,0.4333
1058.5938,-5.4916,7.9929,-1.8908,-5.3675,-4.7945,-0.9473,-2.3702,-12.3675,12.8774,1.3167,15.7393,14.0911,5.0937,-4.7441,-9.1886,17.9487,5.6811,3.7431,1.4516
1062.5000,-3.8998,14.6154,-1.0096,-4.9288,-5.3717,2.2382,2.2739,-11.3462,16.3024,5.1523,19.4047,17.8707,5.8411,-4.4953,-13.0797,24.3073,7.2120,7.3387,2.3917
1066.4062,-2.0832,21.3835,0.9013,-4.1155,-5.4948,5.0404,4.8574,-9.5894,19.3349,6.5885,21.7291,20.5041,5.9705,-3.4373,-13.4625,26.8445,8.3042,10.5454,3.2044
1070.3125,0.1969,26.8523,3.7619,-2.6080,-5.3664,7.2654,5.1468,-7.1620,21.2086,6.0983,21.6663,21.0608,5.3109,-1.8107,-8.3725,25.2514,8.5358,12.8546,3.5355
1074.2188,3.5761,29.2671,6.7936,-0.6572,-5.3882,9.1901,4.4455,-4.5638,21.3185,5.1832,18.9432,18.9535,3.7556,-0.4307,1.2567,20.4040,7.4661,13.7162,2.9489
1078.1250,8.1663,27.0707,8.9312,1.0423,-5.7743,11.1009,4.3594,-2.4631,19.6095,5.2342,14.4005,14.3551,1.4855,-0.1966,11.7850,13.7820,5.0343,12.7875,1.3138
1082.0312,12.9035,19.8297,9.5152,1.8180,-6.3158,12.8407,5.5378,-1.2639,16.7636,6.5616,9.7769,8.3627,-0.9185,-1.5089,18.7119,6.8295,1.8256,10.2605,-0.9123
1085.9375,15.8486,9.0881,8.8314,1.5308,-6.4426,13.7721,7.3639,-0.7717,14.0366,8.2686,6.9833,2.7393,-2.6018,-3.9600,19.1722,0.6577,-1.0234,7.0333,-2.7347
1089.8438,15.3748,-1.5840,8.0884,0.7904,-5.5301,13.2307,8.7731,-0.1930,12.7768,9.0189,7.2212,-0.7152,-2.7841,-6.4937,13.5709,-3.8544,-2.3007,4.5201,-3.0412
1093.7500,11.4319,-7.7820,8.7338,0.6973,-3.2593,11.1376,9.4511,1.4831,13.8196,8.1078,10.4017,-0.9013,-1.1592,-7.9452,5.2911,-5.8878,-1.3490,4.0842,-1.1948
1097.6562,5.9156,-6.3529,11.4721,2.2310,0.1732,8.2808,10.3360,4.9038,17.0363,6.0641,15.1724,2.0755,1.8802,-7.6508,-1.4018,-4.8465,1.5125,6.3332,2.5301
1101.5625,1.7523,2.7207,15.6244,5.6378,4.1022,5.9974,12.9131,9.9016,21.2763,4.3718,19.5411,6.8893,5.3465,-5.7802,-3.9428,-0.9025,5.0544,10.6723,6.9489
1105.4688,1.2113,15.8763,19.3408,10.2015,7.6729,5.4295,17.8007,15.4546,24.7898,4.5353,21.7849,11.5187,8.0747,-3.2096,-2.8545,4.5361,7.7104,15.4426,10.4661
1109.3750,4.5299,27.4869,20.6458,14.5607,10.2139,6.8503,23.7846,20.1189,25.9966,7.1380,21.2003,14.1192,9.2601,-1.0145,-1.0290,9.0617,8.3729,18.6668,11.8540
1113.2812,9.7556,32.6602,18.7089,17.4106,11.5320,9.5206,28.2048,22.7190,24.2648,11.4897,18.3464,13.8718,8.8435,0.1286,-1.4206,10.4210,6.9765,19.0560,10.9082
1117.1875,13.9136,29.7554,14.4956,18.1844,11.9905,12.1663,28.5953,22.9218,20.3033,16.0186,14.6945,11.4005,7.5390,0.3059,-4.7643,8.0103,4.5355,16.7231,8.6078
1121.0938,14.7527,21.1157,10.3007,17.3189,12.3326,13.7416,24.4650,21.3779,15.9107,19.0823,11.8842,8.5100,6.4861,0.3046,-8.9233,3.6430,2.6133,13.1659,6.6545
1125.0000,11.9907,11.5665,8.3863,15.9531,13.3237,13.9710,17.8994,19.3548,13.1397,19.6902,10.9630,7.3050,6.7056,1.1687,-10.3294,0.8016,2.5262,10.4835,6.6098
1128.9062,7.3547,5.6096,9.5794,15.2513,15.3747,13.3554,12.4351,18.0695,13.2657,17.8009,11.9726,9.0946,8.6392,3.6170,-6.5045,2.5961,4.7316,10.2464,9.0849
1132.8125,3.4941,5.0375,12.7541,15.7544,18.3213,12.7108,10.8875,18.0863,16.1023,14.1895,14.0514,13.6513,11.9957,7.6283,2.0970,9.6726,8.7117,12.6602,13.4233
1136.7188,2.4971,8.3644,15.5640,17.1288,21.4651,12.6019,13.5790,19.0904,20.0592,10.0917,15.9619,19.2601,15.9431,12.4028,12.1982,19.5320,13.3542,16.5028,18.0473
1140.6250,4.8744,12.2604,15.9622,18.4295,23.8578,13.0366,18.1619,20.1232,22.9507,6.8250,16.7429,23.5759,19.5052,16.7083,19.6546,27.8529,17.5403,19.8535,21.2625
1144.5312,9.4835,13.8994,13.5152,18.6878,24.6947,13.5506,21.1339,20.1204,23.1400,5.4511,16.1466,24.8353,21.9337,19.4277,21.8979,31.0196,20.5753,21.1682,22.0686
1148.4375,14.2811,12.6460,9.6548,17.4646,23.6395,13.5366,20.0016,18.4544,20.3980,6.4768,14.6574,22.7404,22.8912,20.0333,19.2443,28.1697,22.2675,20.0690,20.5432
1152.3438,17.3794,10.0817,6.7214,15.0620,20.9391,12.5723,14.6632,15.2138,16.0048,9.6417,13.1301,18.5138,22.4220,18.7660,14.3206,21.3978,22.7247,17.4191,17.6377
1156.2500,17.8496,8.5504,6.4450,12.3080,17.2931,10.5871,7.1962,11.1161,12.0396,13.9364,12.2833,14.1287,20.8105,16.4506,10.1734,14.0789,22.1103,14.7059,14.5674
1160.1562,15.9634,9.3603,8.8486,10.0696,13.5471,7.8712,0.3645,7.1306,10.2585,17.9587,12.3423,11.2190,18.4468,14.0597,8.4369,8.6254,20.5573,13.1528,12.1775
1164.0625,12.8919,11.8870,12.2487,8.7807,10.3503,5.0041,-4.0255,4.0153,11.1796,20.5138,13.0025,10.3370,15.7488,12.2525,8.7176,5.3199,18.2535,13.0916,10.6246
1167.9688,10.0953,14.1002,14.2960,8.2294,7.9248,2.7351,-5.8209,1.9883,13.8678,21.1455,13.6841,10.9472,13.1085,11.1156,9.3726,2.9447,15.5398,13.9122,9.4826
1171.8750,8.6892,14.0342,13.3640,7.6975,6.0477,1.7814,-5.9699,0.6840,16.5060,20.2532,13.8831,12.0299,10.8142,10.2240,8.8996,0.4857,12.8638,14.5306,8.1327
1175.7812,9.0253,11.1463,9.4435,6.3657,4.2605,2.5295,-5.3340,-0.5851,17.4091,18.6965,13.4032,12.7926,8.9585,8.9765,6.8992,-1.6171,10.5792,14.0367,6.1789
1179.6875,10.6183,6.6781,4.0789,3.7831,2.2125,4.7504,-3.8637,-2.3821,15.9105,17.1531,12.3646,12.9997,7.4070,7.0191,4.0829,-1.7384,8.7520,12.1431,3.6786
1183.5938,12.4306,2.8633,-0.5138,0.1774,-0.0339,7.5372,-0.7602,-4.7362,12.6473,15.6946,11.0460,12.8008,5.8994,4.5206,1.5819,1.4070,7.1622,9.2406,1.1213
1187.5000,13.3813,1.5634,-2.5730,-3.5527,-1.9240,9.6109,4.5595,-7.0084,9.1232,13.8939,9.7055,12.3328,4.2570,2.1326,0.2322,7.3303,5.5357,6.1119,-0.7897
1191.4062,12.8403,3.2047,-1.5572,-6.1894,-2.6542,9.9155,11.4875,-8.1545,6.8278,11.3657,8.4960,11.5021,2.5617,0.6369,0.3168,13.7123,3.8373,3.5133,-1.4420
1195.3125,10.8571,6.6050,1.7578,-6.7601,-1.6524,8.1777,18.0381,-7.3013,6.4172,8.2818,7.4847,10.1201,1.1496,0.4626,1.7256,17.8500,2.3709,1.8426,-0.6033
1199.2188,8.0113,9.6950,5.7696,-5.0619,0.9587,5.0654,21.6729,-4.3423,7.4059,5.4030,6.6961,8.2072,0.3773,1.3537,4.1450,18.4425,1.5627,1.0140,1.4020
1203.1250,4.9960,10.6355,8.8043,-1.8636,4.2278,1.8039,20.6503,-0.1861,8.5155,3.5432,6.1042,6.1127,0.3007,2.4167,7.0016,16.2344,1.5652,0.5573,3.7181
1207.0312,2.2132,8.6965,9.7867,1.3775,6.7347,-0.5312,15.0469,3.5621,8.4576,2.8617,5.5761,4.2727,0.5164,2.5743,9.2816,12.9788,1.9965,-0.1186,5.2373
1210.9375,-0.3494,4.4862,8.5947,3.2036,7.3189,-1.5922,6.8151,5.3834,6.6960,2.5699,4.8571,2.7911,0.3422,1.2086,9.6113,9.6162,2.0725,-1.3967,5.0815
1214.8438,-2.8973,-0.4835,6.0189,2.9251,5.7850,-1.8428,-1.1563,4.6826,3.7595,1.3673,3.6754,1.2490,-0.7203,-1.3732,6.8144,5.2880,1.1120,-3.1904,3.0913
1218.7500,-5.4544,-4.5817,3.3754,1.0389,3.1364,-2.1252,-6.4154,2.1704,0.9476,-1.6301,1.9509,-0.9964,-2.5307,-3.9616,0.7043,-1.8474,-0.9109,-4.8887,0.0462
1222.6562,-7.6420,-6.7603,1.9160,-0.9894,1.1258,-3.0456,-7.9793,-0.4911,-0.3867,-6.1219,-0.0298,-4.1743,-4.2090,-5.0067,-7.4705,-12.5474,-3.1794,-5.5887,-2.5841
1226.5625,-8.8080,-6.8554,2.2641,-1.5198,1.3125,-4.6122,-6.5108,-1.6271,0.4429,-10.6107,-1.6367,-7.6224,-4.5376,-3.4513,-15.3784,-24.8752,-4.4146,-4.5569,-3.3118
1230.4688,-8.4307,-5.4124,4.1267,0.3061,4.1523,-6.3417,-3.6653,-0.5401,3.1262,-13.2280,-2.1699,-9.9255,-2.6806,0.6284,-20.6569,-34.5511,-3.6372,-1.6962,-1.4094
1234.3750,-6.5092,-3.2120,6.4427,4.0080,8.6667,-7.6852,-1.1018,2.0553,6.5753,-12.8825,-1.2562,-9.6908,1.2167,5.9627,-22.0330,-37.2940,-0.8360,2.2706,2.6437
1238.2812,-3.6499,-0.8104,7.9303,7.9706,12.9184,-8.4095,0.2255,4.4430,9.5297,-9.9607,0.8880,-6.4697,5.9590,10.6837,-19.7920,-31.5814,2.9134,6.0758,7.3420
1242.1875,-0.7792,1.6423,7.7711,10.3307,15.0420,-8.6475,0.1482,4.9352,11.1873,-6.1047,3.5308,-1.1626,9.8651,13.2655,-15.3336,-19.8068,6.0012,8.5466,10.9004
1246.0938,1.3232,4.2352,6.0628,10.0440,14.2368,-8.6280,-1.1403,2.9011,11.5220,-3.2129,5.8321,4.4277,11.6679,13.2874,-10.1981,-6.9223,7.1997,9.2560,12.1658
1250.0000,2.3561,6.9481,3.7806,7.4949,11.1597,-8.3561,-3.5467,-0.8340,11.1639,-2.3253,7.3428,8.6235,11.2214,11.5883,-5.2839,2.5164,6.3868,8.7686,11.1803
1253.9062,2.5041,9.4101,2.2578,4.2718,7.5157,-7.5334,-7.1181,-4.4594,10.9685,-3.1013,8.2642,10.7814,9.5827,9.7378,-0.7498,6.8379,4.6324,8.2868,9.0848
1257.8125,2.1850,10.9741,2.4760,2.2351,5.1236,-5.7889,-11.5781,-6.2183,11.5517,-4.1735,9.2713,11.4695,8.4081,9.1432,3.4851,7.6108,3.5881,8.8803,7.4420
1261.7188,1.7795,11.0819,4.5629,2.4429,5.0125,-3.0236,-15.7549,-5.3764,13.0289,-4.0770,10.9939,11.8353,9.0125,10.3131,7.1884,7.8242,4.5423,10.7774,7.3891
1265.6250,1.5549,9.6703,7.7629,4.5813,7.0328,0.4165,-17.5161,-2.5447,15.0419,-2.1269,13.4914,12.6668,11.6322,12.6810,9.7220,9.4139,7.6893,13.1863,9.0930
1269.5312,1.7836,7.3158,10.8642,7.2283,10.1159,3.8760,-14.5738,0.7894,16.9839,1.2718,16.0811,13.8447,15.2992,15.0361,10.4689,11.9957,12.0152,14.7841,11.7695
1273.4375,2.8526,4.9894,12.8087,8.7582,12.9323,6.7238,-5.8943,3.1766,18.2645,4.9665,17.6622,14.5477,18.3649,16.2529,9.3597,13.5871,15.8302,14.5690,14.1782
1277.3438,5.1450,3.5661,13.1381,8.3046,14.5198,8.6287,7.1298,3.9755,18.4900,7.7269,17.3453,13.9909,19.3506,15.8645,6.9919,12.5304,17.6126,12.5222,15.2623
1281.2500,8.6741,3.4040,12.0653,6.1924,14.5610,9.5976,20.6615,3.5326,17.5290,8.7933,14.9980,12.0956,17.6517,14.1717,4.2030,8.9904,16.6947,9.6398,14.5827
1285.1562,12.7139,4.2556,10.2035,3.6111,13.2660,9.8020,29.8797,2.7378,15.5046,8.0434,11.3626,9.5799,13.7533,11.8996,1.4577,4.8882,13.4576,7.3155,12.3820
1289.0625,15.7783,5.5340,8.1751,1.7933,11.0606,9.3776,31.2959,2.3208,12.7611,5.8283,7.6841,7.4390,8.9097,9.6879,-1.3993,2.4497,9.0137,6.4804,9.3407
1292.9688,16.1303,6.7228,6.3549,1.2532,8.3344,8.3639,24.6308,2.3747,9.8172,2.7139,5.0890,6.2454,4.5207,7.7645,-4.7698,2.5994,4.6236,7.0642,6.2269
1296.8750,12.6496,7.6527,4.8711,1.5641,5.3826,6.7984,13.0701,2.3949,7.2856,-0.6789,4.0906,5.8041,1.5415,5.9777,-8.5937,4.4245,1.1894,8.1126,3.6209
1300.7812,5.5864,8.5003,3.7946,1.7693,2.4861,4.8348,1.6430,1.7522,5.7355,-3.7163,4.4764,5.3857,0.1828,4.0965,-11.9284,5.9829,-0.9549,8.4528,1.7897
1304.6875,-3.2882,9.5686,3.3182,1.1005,-0.0170,2.7553,-5.3692,0.2359,5.5152,-5.7962,5.5658,4.3111,-0.0322,2.1131,-13.2641,5.6840,-1.9477,7.4419,0.6902
1308.5938,-11.3175,11.0222,3.7430,-0.4955,-1.7777,0.8661,-6.4595,-1.7126,6.5917,-6.4920,6.6066,2.4258,0.0499,0.3131,-11.4564,3.1640,-2.1605,5.3089,0.0493
1312.5000,-16.1047,12.7175,5.2408,-2.3556,-2.5774,-0.6135,-3.1917,-3.2273,8.4864,-5.7595,7.0539,0.1461,-0.3824,-0.9244,-6.6391,-0.8433,-1.9963,2.9043,-0.5080
1316.4062,-16.5694,14.1683,7.5500,-3.5794,-2.4427,-1.5646,1.2609,-3.5388,10.3666,-4.0511,6.6321,-1.8767,-1.7645,-1.4235,-0.4248,-5.2600,-1.8032,1.0843,-1.2893
1320.3125,-13.3467,14.6345,9.8602,-3.6195,-1.6187,-1.8974,4.2340,-2.4417,11.3029,-2.1988,5.2739,-3.1501,-3.9707,-1.3545,4.8299,-9.2637,-1.8491,0.1866,-2.3565
1324.2188,-8.3245,13.3421,11.0667,-2.5653,-0.3967,-1.5173,4.9117,-0.4069,10.6327,-1.0688,3.0994,-3.4894,-6.3211,-1.0897,7.2601,-12.2883,-2.2581,-0.0436,-3.4100
1328.1250,-3.6057,9.8589,10.3437,-0.9439,1.0922,-0.4232,4.1269,1.7197,8.2994,-1.1513,0.5009,-2.8829,-7.7808,-0.8572,6.4469,-13.6675,-2.8794,-0.0663,-3.8237
1332.0312,-0.4954,4.5470,7.7362,0.7785,2.9610,1.1186,3.0348,3.2285,5.0070,-2.3106,-1.7721,-1.2886,-7.3074,-0.4494,3.5044,-12.5122,-3.1884,-0.0212,-2.8665
1335.9375,0.9339,-1.1644,4.3719,2.5986,5.4461,2.5117,1.8662,3.9397,2.0656,-3.8350,-2.7102,1.3915,-4.2558,0.7689,0.3079,-8.1335,-2.3715,0.5189,-0.0436
1339.8438,1.5186,-5.0243,2.0532,4.9638,8.6428,3.0341,-0.1946,4.2395,0.9240,-4.7614,-1.4087,5.1170,1.3058,3.4980,-1.5793,-0.7002,0.3331,2.3057,4.5960
1343.7500,2.2028,-4.8700,2.3493,8.3350,12.2742,2.2498,-3.9399,4.7527,2.5446,-4.3070,2.4336,9.4917,8.5169,7.9857,-1.5968,8.5078,5.1629,5.8314,10.3560
1347.6562,3.3137,0.1086,5.6592,12.6423,15.6745,0.3568,-8.8237,5.8734,6.9023,-2.2038,8.1759,13.7732,15.9600,13.6936,-0.1576,17.5960,11.5070,10.8062,16.0799
1351.5625,4.3817,8.4802,10.8169,17.0537,18.0494,-1.8313,-12.6165,7.4634,12.8769,1.2036,14.3241,17.1784,22.1532,19.4068,1.9234,24.9763,18.0021,16.0780,20.5720
1355.4688,4.5970,16.7954,15.5534,20.2780,18.8945,-3.3275,-12.5252,8.9140,18.6482,5.1169,19.0822,19.2933,26.1020,23.7798,4.0393,29.9730,23.0927,20.0986,23.0712
1359.3750,3.5674,21.1037,17.6314,21.2571,18.3257,-3.5702,-7.1192,9.5318,22.4441,8.6092,21.1199,20.2816,27.6546,26.0184,6.0194,32.6238,25.7880,21.6863,23.5510
1363.2812,1.8308,19.0855,16.0397,19.8091,17.0870,-2.7493,2.3171,8.9966,23.2938,10.9712,20.1586,20.7214,27.4723,26.2751,7.9144,32.9182,26.1647,20.6371,22.6863
1367.1875,0.7285,11.5539,11.5545,16.7863,16.1758,-1.6042,12.0859,7.5847,21.4122,11.9353,17.0643,21.1733,26.6115,25.4853,9.6219,30.2733,25.2645,17.8194,21.4840
1371.0938,1.6599,2.2764,6.3281,13.6106,16.2616,-0.8305,17.9931,6.0012,18.0317,11.6943,13.4111,21.7829,25.9234,24.7152,10.7150,23.8920,24.3998,14.6964,20.7472
1375.0000,5.1593,-3.9756,2.7374,11.4614,17.2352,-0.5467,17.7015,4.9254,14.7818,10.7266,10.7570,22.1930,25.5947,24.4255,10.6369,13.8579,24.2830,12.5578,20.6470
1378.9062,10.3866,-4.0935,2.1646,10.6315,18.1928,-0.2430,12.0086,4.5736,12.9486,9.5313,10.0029,21.8141,25.0982,24.1436,9.1182,2.0593,24.5568,11.9056,20.6466
1382.8125,15.3981,1.5915,4.3968,10.4710,17.9210,0.7359,4.2533,4.5880,12.9788,8.4250,11.1246,20.2600,23.6028,22.8001,6.5009,-8.0158,24.0754,12.3331,19.8473
1386.7188,18.0907,9.5537,7.9330,9.9519,15.6384,2.5517,-1.7006,4.3443,14.4302,7.5068,13.3424,17.6625,20.6195,19.5533,3.7152,-12.7762,21.7929,12.9304,17.5932
1390.6250,17.2952,15.2228,10.9353,8.4657,11.5566,4.6000,-3.5624,3.4746,16.3248,6.7874,15.5818,14.6847,16.4919,14.5677,1.8856,-10.4537,17.6751,12.9337,13.9918
1394.5312,13.3864,15.7127,12.2155,6.3016,6.8877,5.8567,-1.5095,2.2258,17.6695,6.3544,16.9697,12.2444,12.3897,9.1888,1.7760,-2.1604,12.9802,12.2041,10.0126
1398.4375,8.0647,11.4399,11.7052,4.4598,3.2428,5.6103,2.4964,1.3623,17.8819,6.4105,17.1503,11.1088,9.7408,5.3113,3.3814,8.6704,9.6362,11.2436,7.0455
1402.3438,3.4537,5.6760,10.2411,3.9104,1.7428,4.0255,6.2775,1.6314,16.9528,7.1116,16.3196,11.5472,9.3842,4.2688,5.8915,18.0856,9.0505,10.7617,6.1191
1406.2500,1.0501,2.4025,8.9151,4.8080,2.3694,2.0910,8.7188,3.1397,15.3361,8.3008,15.0178,13.1719,10.9490,5.9267,8.0594,23.4507,11.1130,11.0936,7.2259
1410.1562,1.1095,3.8739,8.4389,6.2286,3.9625,0.9659,9.9713,5.1027,13.6669,9.3603,13.8057,15.0230,12.8839,8.5947,8.7991,24.2071,14.0857,11.8673,9.1891
1414.0625,2.7478,9.3786,8.8616,6.6647,4.8881,1.1982,10.6808,6.2118,12.4511,9.3738,12.9838,15.8899,13.2118,9.8851,7.7150,21.3236,15.5308,12.1580,10.2163
1417.9688,4.5953,15.8326,9.6933,4.9979,3.9837,2.3947,11.0494,5.4456,11.8510,7.6005,12.4814,14.7932,10.6328,8.0451,5.2874,16.1656,13.7509,11.0503,8.8745
1421.8750,5.5482,19.6723,10.2560,1.3203,1.2133,3.5787,10.5574,2.8129,11.6436,4.0192,11.9543,11.4634,5.3430,2.9651,2.6007,9.7623,8.8500,8.2576,4.9357
1425.7812,5.1911,18.8049,10.0220,-2.9588,-2.3557,3.9584,8.5584,-0.4947,11.3673,-0.4147,11.0271,6.5813,-0.9505,-3.7548,0.7419,2.8895,2.7327,4.4023,-0.4175
1429.6875,3.7499,13.5145,8.8060,-5.8397,-5.2149,3.5236,5.2135,-2.7059,10.5947,-4.0410,9.5371,1.5913,-5.8855,-9.7171,0.1982,-3.4463,-1.9826,0.7606,-5.1749
1433.5938,1.7490,6.0041,6.8015,-5.8653,-6.2873,3.0300,1.9250,-2.4927,9.2059,-5.2417,7.6323,-1.9133,-7.7132,-13.0470,0.6069,-7.8892,-3.4793,-1.3858,-7.5511
1437.5000,-0.3222,-0.9215,4.5132,-2.9630,-5.4688,3.3935,0.7837,0.2247,7.5083,-3.3007,5.6709,-2.9681,-6.2463,-13.3162,1.0207,-9.3299,-1.7629,-1.4093,-6.9043
1441.4062,-2.1404,-5.1691,2.6128,1.5271,-3.5388,4.9457,3.2859,4.2117,6.1119,1.0962,3.9952,-1.7602,-2.9227,-11.5468,0.5305,-7.7841,1.4162,0.3744,-4.0007
1445.3125,-3.5056,-6.0264,1.7262,5.6402,-1.5567,7.0877,9.1567,7.6453,5.6010,6.0340,2.7421,0.4396,0.0545,-9.3813,-1.1569,-4.7082,3.6467,2.9355,-0.4977
1449.2188,-4.2860,-4.0685,2.1867,7.8896,-0.1726,8.5767,16.1321,9.1715,6.1754,9.1729,1.8228,1.9441,0.9842,-8.0142,-3.5759,-2.2683,3.2558,5.1076,2.0184
1453.1250,-4.4649,-0.5994,3.8588,8.0089,0.7038,8.2412,20.9685,8.6269,7.4827,8.8035,1.0762,1.5665,-0.4090,-7.5760,-5.8890,-1.9417,0.1824,6.1593,2.8718
1457.0312,-4.2370,2.9776,6.1508,6.9258,1.7074,5.6625,21.1648,6.9972,8.7665,4.6422,0.4655,-0.7278,-2.9177,-7.2925,-7.5143,-3.4640,-4.1295,6.0530,2.5558
1460.9375,-3.9973,5.6202,8.2585,6.0639,3.4809,1.4321,16.3992,5.6926,9.2708,-2.0120,0.1534,-3.7949,-4.6421,-6.2009,-8.5139,-4.9739,-7.6498,5.3128,2.3270
1464.8438,-4.1333,6.8833,9.5362,6.4664,6.1837,-3.1034,8.8075,5.6516,8.6761,-8.8156,0.3899,-5.9101,-4.1084,-3.8736,-9.4311,-4.3386,-8.8722,4.6561,3.4247
1468.7500,-4.7198,6.9537,9.7901,8.2726,9.3487,-6.4165,1.8930,6.8456,7.3100,-13.3463,1.3016,-5.6456,-1.0531,-0.6765,-10.6955,-0.7510,-7.4773,4.6340,6.3711
1472.6562,-5.3628,6.4833,9.3126,10.7788,12.1260,-7.4000,-1.3501,8.4339,5.9999,-14.0586,2.7561,-2.5782,3.5157,2.5173,-12.0856,4.5350,-4.2840,5.4387,10.6875
1476.5625,-5.3820,6.2330,8.6292,12.9105,13.6983,-5.7834,-0.0519,9.3638,5.6330,-10.8343,4.4125,2.4773,7.8995,4.8521,-12.7388,8.8361,-0.6854,6.8772,15.0913
1480.4688,-4.2773,6.6240,8.1073,13.7252,13.5866,-2.2772,4.0912,8.9550,6.6513,-4.9413,5.9066,7.7489,10.5028,5.8418,-11.7966,9.5856,1.9953,8.4248,18.0032
1484.3750,-2.1710,7.4114,7.6617,12.6660,11.7091,1.5869,7.8012,7.1051,8.7357,1.5224,7.0035,11.1459,10.4029,5.3688,-9.2396,5.7662,2.8935,9.3075,18.1118
1488.2812,0.1250,7.6966,6.7357,9.5628,8.2673,3.9267,8.0780,4.1016,10.8425,6.4293,7.5817,11.0274,7.5178,3.4771,-6.2353,-1.5982,1.6953,8.6625,14.8129
1492.1875,1.5323,6.3437,4.5901,4.5861,3.6452,3.2268,3.8873,0.3206,11.5974,8.3366,7.4886,6.8842,2.4937,0.2691,-4.6075,-10.0063,-1.3925,5.8512,8.4456
1496.0938,1.3758,2.6262,0.7728,-1.6765,-1.5636,-0.9284,-3.2755,-3.8775,9.9088,6.8626,6.4635,-0.2821,-3.4761,-3.9382,-5.6804,-16.5839,-5.6370,0.8860,0.3010
1500.0000,-0.1572,-3.2264,-4.4439,-8.0856,-6.4651,-7.4790,-10.2514,-7.9943,5.5667,2.6465,4.3044,-8.0967,-8.8228,-8.3473,-9.2826,-19.1062,-9.7808,-5.2501,-7.6271
1503.9062,-2.1138,-9.8889,-9.8815,-13.0126,-9.9028,-14.1909,-13.9995,-11.2142,-0.4349,-3.0142,1.2395,-13.5806,-11.8795,-11.6568,-13.6770,-16.6511,-12.2569,-10.6876,-13.1683
1507.8125,-3.3935,-15.3205,-13.6861,-14.8201,-10.7701,-18.6319,-13.2545,-12.5097,-6.0642,-8.6523,-1.7965,-14.3996,-11.3957,-12.5122,-16.5847,-9.9345,-11.7487,-13.3132,-14.7043
1511.7188,-3.4782,-17.5368,-13.9953,-12.6701,-8.5381,-19.3885,-9.1110,-11.1284,-8.9603,-13.0538,-3.3358,-10.0927,-7.2062,-10.2878,-16.6771,-1.3777,-7.9427,-11.7857,-11.8718
1515.6250,-2.7769,-15.4780,-9.8653,-7.2313,-3.7217,-16.8410,-4.2372,-7.2035,-7.4936,-15.5150,-2.1049,-2.6005,-0.6867,-5.7160,-14.5187,5.2889,-2.0306,-6.4171,-5.9071
1519.5312,-2.3565,-9.6290,-2.0684,-0.7514,2.0545,-12.9908,-1.2488,-2.0308,-1.7306,-15.9338,2.0274,4.3786,5.4476,-0.8455,-12.2623,6.1712,3.4941,0.6424,0.6333
1523.4375,-3.2630,-2.1049,6.7233,3.7492,6.5551,-10.3723,-1.2580,2.3093,6.2317,-14.7791,7.5136,7.0791,8.1512,1.8185,-12.2452,-1.0022,5.8566,6.1774,4.7855
1527.3438,-5.9096,3.9383,12.6974,3.8796,7.8441,-10.6582,-3.4596,3.8911,12.8998,-12.9647,11.5199,3.6146,5.5036,0.6024,-15.4105,-15.2290,3.4158,7.3660,4.3960
1531.2500,-9.9258,5.4720,12.4852,-0.8456,5.1780,-13.7788,-5.9275,1.9516,14.8560,-11.6080,11.2348,-4.8970,-2.1573,-4.3487,-20.6271,-31.8572,-3.3018,3.2094,-0.9019
1535.1562,-14.4954,0.9582,4.9123,-8.6077,-0.5938,-18.0683,-7.0170,-2.6420,10.4269,-11.6700,5.4508,-14.7508,-12.1476,-11.0104,-25.3745,-44.1776,-11.6268,-4.8480,-9.4473
1539.0625,-18.8535,-8.7003,-8.0361,-16.0712,-7.3671,-21.3057,-6.4183,-7.7840,0.6741,-13.5577,-4.5213,-21.4811,-20.5891,-16.4459,-27.3283,-46.5186,-17.9502,-13.4988,-18.2172
1542.9688,-22.5402,-20.2062,-21.7488,-19.9999,-12.7260,-21.9812,-5.1948,-11.1979,-10.9101,-16.8709,-15.2434,-22.1285,-24.2671,-18.2953,-25.7766,-37.2494,-19.5302,-19.1121,-24.1225
1546.8750,-25.2647,-29.1016,-30.9778,-18.8564,-15.0236,-20.0285,-4.8615,-11.5918,-19.9518,-20.4847,-22.7383,-16.6922,-22.2036,-15.9630,-21.9478,-19.8790,-15.9263,-19.4573,-25.3330
1550.7812,-26.5973,-31.7538,-32.3562,-13.5254,-14.0567,-16.6571,-6.2089,-9.2625,-23.2309,-23.0191,-24.4272,-7.9863,-16.0731,-10.8495,-18.1017,-1.4288,-9.2445,-14.7339,-22.0019
1554.6875,-25.8771,-27.1284,-26.0800,-6.7828,-11.0001,-13.5047,-8.7159,-5.8351,-20.1341,-23.5082,-20.3340,-0.0505,-9.2360,-5.5258,-16.0702,11.0970,-3.0307,-7.3891,-16.0521
1558.5938,-22.5472,-17.3598,-15.7542,-1.8171,-7.6603,-11.7010,-10.9397,-3.3190,-12.7677,-21.9138,-12.9051,3.9198,-4.9420,-2.3398,-16.2495,14.1206,-0.4086,-0.8470,-10.1530
1562.5000,-16.7477,-6.7116,-6.4287,-0.6111,-5.4702,-11.3919,-11.5608,-3.0262,-4.7320,-19.1644,-5.6223,2.9663,-4.7068,-2.2314,-17.6425,8.8324,-2.4762,2.1691,-6.4194
1566.4062,-9.7156,0.5575,-1.9346,-3.0344,-4.7746,-11.8984,-10.3057,-4.9346,0.7005,-16.6655,-1.2721,-1.5742,-7.7163,-4.3786,-18.7825,-0.1658,-7.8187,0.8611,-5.4896
1570.3125,-3.5930,2.2438,-3.0569,-7.0841,-4.7819,-12.2853,-8.0893,-7.8024,1.9882,-15.5578,-0.8468,-7.1755,-11.5013,-6.8078,-18.7858,-7.8811,-13.3598,-3.4617,-6.4291
1574.2188,-0.6238,-0.9749,-7.5566,-10.0842,-4.1807,-11.9339,-6.3034,-9.9170,-0.3576,-16.1681,-3.5569,-11.5972,-13.4179,-7.5793,-17.7995,-11.6667,-16.0470,-8.2620,-7.4624
1578.1250,-2.1371,-6.3122,-11.8887,-10.1624,-2.0429,-10.8184,-5.8062,-10.0430,-4.4941,-17.9673,-7.7004,-13.8598,-12.0806,-5.8782,-16.6382,-12.1105,-14.4436,-11.1851,-7.0911
1582.0312,-7.8815,-10.6354,-13.4303,-7.2157,1.5236,-9.4255,-6.3682,-8.0621,-8.3947,-20.0077,-11.6686,-14.2951,-8.0024,-2.4301,-16.0156,-11.8283,-9.3997,-11.2262,-4.9618
1585.9375,-16.0715,-12.0650,-11.8082,-2.8853,5.3595,-8.4446,-6.9745,-4.9941,-10.7042,-21.4930,-14.4577,-13.8560,-3.1843,0.9476,-16.0133,-13.2242,-3.5019,-9.0580,-2.0019
1589.8438,-24.0889,-10.5159,-8.6234,0.3987,7.8878,-8.4108,-6.7278,-2.4220,-10.9532,-22.0830,-15.5627,-13.2609,0.0381,2.3854,-16.1508,-16.7522,0.3506,-6.4116,0.2245
1593.7500,-29.4474,-7.1075,-5.9874,0.7545,8.0216,-9.4340,-5.6424,-1.6530,-9.2960,-21.7792,-14.6397,-12.5322,0.2400,1.0110,-15.9014,-20.6763,0.4682,-4.9371,0.5267
1597.6562,-30.5715,-3.1398,-5.0269,-2.1581,5.8062,-11.0961,-4.6915,-3.0624,-6.1949,-20.5901,-11.4349,-11.1453,-2.3932,-2.5602,-15.1547,-22.2639,-2.7920,-5.2354,-1.1611
1601.5625,-27.1480,0.5237,-5.3817,-7.0025,2.4137,-12.5614,-5.0299,-5.9543,-2.3351,-18.3421,-6.1426,-8.5978,-6.2219,-6.5529,-14.2218,-19.5196,-7.2717,-6.6186,-3.7454
1605.4688,-20.0633,3.3512,-5.8800,-11.5167,-0.5041,-12.8961,-6.9514,-8.9770,1.3125,-14.8481,0.1486,-4.9685,-9.0331,-8.9831,-13.3932,-12.4002,-10.1678,-7.6853,-5.6584
1609.3750,-11.0756,4.7188,-5.6821,-13.6981,-1.7113,-11.4954,-9.3771,-10.8340,3.5960,-10.2967,5.4765,-1.0769,-9.1670,-8.6940,-12.4547,-2.9146,-9.4803,-7.2956,-5.8101
1613.2812,-2.3387,3.8564,-4.9137,-12.7510,-0.9979,-8.4178,-10.3329,-10.8794,3.6465,-5.4713,7.7723,1.8830,-6.3112,-5.8910,-10.6218,5.8190,-4.9993,-5.2942,-4.1945
1617.1875,4.1637,0.4539,-4.3190,-9.3029,0.8402,-4.4188,-8.1747,-9.2876,1.5135,-1.5014,6.0536,3.0340,-1.5748,-1.8894,-7.0290,10.9955,1.6566,-2.5248,-1.7808
1621.0938,7.1896,-4.5189,-4.3263,-4.8495,2.5947,-0.6239,-2.7722,-6.7649,-1.5320,0.7709,1.2605,2.4101,3.1652,1.7472,-1.4782,11.3338,7.9323,-0.1723,0.1977
1625.0000,6.6275,-8.6467,-4.4129,-0.8420,3.4073,1.9923,4.1627,-4.0550,-3.4410,1.3493,-3.9716,1.0502,6.2682,4.1303,5.0798,7.5564,11.6538,1.0702,1.0465
1628.9062,3.4690,-9.0862,-3.4084,1.9993,3.2163,3.0092,9.8661,-1.5858,-2.5147,1.0705,-6.6673,0.4533,7.1286,5.4597,10.7075,1.9599,12.0557,1.3990,0.9604
1632.8125,-0.7125,-4.3766,-0.5607,3.7746,2.6475,2.6027,11.9699,0.5403,1.4133,0.9260,-5.2631,1.6535,6.3426,6.6929,13.2626,-2.7173,9.9946,1.5867,0.7260
1636.7188,-4.5575,4.1463,3.5082,4.9617,2.4856,1.2434,9.7252,2.2966,6.5659,1.1710,-0.6406,4.4692,5.1988,8.7274,11.3967,-4.5956,7.2984,2.2168,1.0519
1640.6250,-7.5317,12.5078,6.8437,5.8624,3.1279,-0.6814,4.2918,3.5063,10.0235,0.9410,4.3148,7.4598,4.8471,11.6713,5.2522,-3.4644,5.6922,3.0838,2.0561
1644.5312,-9.9580,16.0625,7.3503,6.3807,4.3896,-3.0087,-1.9940,3.8842,9.4038,-1.1927,6.4640,8.7344,5.6741,14.7042,-3.4810,-0.6478,5.9436,3.2713,3.2858
1648.4375,-12.4434,12.2392,4.3578,6.2639,5.7421,-5.6067,-6.8318,3.3366,4.4413,-5.9925,4.4172,7.1953,7.2440,16.6135,-12.1545,2.0157,7.6809,1.9106,4.2128
1652.3438,-15.1183,2.3425,-0.6082,5.5427,6.7486,-8.0573,-8.8994,2.2466,-2.5680,-12.5063,-0.4973,3.4322,8.7650,16.6182,-18.1171,3.4595,9.8828,-0.9298,4.7638
1656.2500,-17.2730,-8.8541,-4.5398,4.7336,7.3423,-9.5607,-8.0782,1.4299,-7.8506,-18.0797,-4.9679,-0.3935,9.6963,14.8948,-19.6451,4.0916,11.6254,-3.9399,5.4219
1660.1562,-17.7037,-15.6357,-4.7767,4.5643,7.7498,-9.2503,-5.0696,1.6850,-8.2109,-19.6434,-5.7124,-1.7291,10.0505,12.4440,-16.5000,5.3941,12.5721,-5.1898,6.7896
1664.0625,-15.5433,-14.5338,-0.7430,5.3961,8.1655,-6.7545,-0.8738,3.2104,-2.8564,-15.5775,-1.4993,0.7925,10.2188,10.4119,-9.9266,8.6483,12.9441,-3.3471,8.9577
1667.9688,-10.9582,-6.2575,5.6221,6.8154,8.4834,-2.5911,3.4686,5.3371,6.1112,-6.9358,6.1080,6.3919,10.5195,9.3595,-2.1015,13.6725,13.1139,1.3277,11.2241
1671.8750,-5.1635,4.7806,11.0727,7.7892,8.3374,1.9513,6.8583,6.8565,14.8458,2.8782,13.7322,12.4799,10.8759,8.9964,4.7546,18.5287,13.2124,6.9453,12.4560
1675.7812,0.2829,13.0138,13.0991,7.3610,7.4330,5.4361,8.1702,6.7939,19.8535,9.9146,18.2153,16.1490,10.8943,8.5316,9.2293,20.5229,13.0688,11.0246,11.8895
1679.6875,4.3811,14.7883,11.4236,5.4152,5.8915,7.0133,6.6348,5.1125,19.7925,11.8863,18.3768,15.8961,10.2645,7.3423,11.1483,17.9011,12.4809,11.9705,9.7740
1683.5938,7.1006,10.1775,7.9676,2.9177,4.2918,6.7741,2.4746,2.8216,15.9539,9.3852,15.4153,12.4735,9.1224,5.4459,11.3648,11.0995,11.5280,10.0294,7.3375
1687.5000,8.9979,2.6328,5.3868,1.3787,3.3209,5.5042,-2.7055,1.3532,11.2521,5.3218,11.8291,8.3294,8.0367,3.4369,11.0273,2.6695,10.6066,7.0855,6.0229
1691.4062,10.3890,-3.1317,5.2525,1.8491,3.2668,4.0529,-6.3006,1.6026,8.4462,2.9581,9.7098,6.0363,7.5941,1.9768,10.7568,-4.1030,10.1243,5.4359,6.5048
1695.3125,10.8139,-3.6940,7.1367,4.1404,3.7455,2.7989,-5.9178,3.2989,8.7027,3.8293,9.5925,6.7584,7.9055,1.2605,10.2540,-6.9749,10.1083,6.3537,8.1892
1699.2188,9.3213,1.4593,9.1506,6.8448,3.9100,1.5945,-0.8124,5.1671,11.2778,6.9013,10.5405,9.7303,8.4524,0.8852,8.6094,-5.7691,10.0870,9.3699,9.5829
1703.1250,5.4350,9.9271,9.4273,8.1872,3.0360,0.1707,7.3910,5.7854,14.3213,9.4706,11.2082,12.9870,8.4385,0.2148,5.1284,-2.0723,9.4030,12.6863,9.2987
1707.0312,0.0371,17.7472,7.4235,7.1549,1.0801,-1.3717,15.3075,4.5453,16.1307,9.1425,10.9673,14.7329,7.4064,-1.0612,0.1101,2.0303,7.7527,14.3748,7.0019
1710.9375,-4.6442,21.2676,4.1426,4.1370,-1.2060,-2.4206,19.5075,2.0403,16.0226,5.5285,10.2515,14.3755,5.6441,-2.6274,-4.9985,5.2118,5.5262,13.5325,3.6398
1714.8438,-6.1490,18.6531,1.2455,0.6446,-2.7260,-2.2050,18.3416,-0.3812,14.3879,0.5302,9.9681,12.5909,4.0401,-3.7524,-8.2598,7.3275,3.6396,10.6726,0.8047
1718.7500,-3.3665,10.5122,-0.1766,-1.6894,-2.7717,-0.3934,12.7370,-1.5658,12.1072,-2.9434,10.5700,10.5407,3.4603,-3.8655,-8.3492,8.8955,2.9272,7.2039,-0.3131
1722.6562,2.4974,-0.4322,-0.2271,-2.1433,-1.5458,2.5096,5.4715,-1.3276,9.8780,-2.9303,11.5978,8.9340,4.0915,-3.0668,-5.4068,10.2281,3.5162,4.4588,0.3393
1726.5625,8.3206,-10.3919,0.1590,-1.2911,-0.1097,5.2719,-0.5580,-0.5138,7.9324,0.2711,12.0589,7.6392,5.2386,-2.1770,-1.0653,10.9737,4.6504,2.9557,1.7238
1730.4688,10.7003,-15.9016,0.1528,-0.5202,0.2285,6.5012,-3.9100,-0.3520,6.2160,4.2820,11.2862,6.0421,5.7383,-2.2590,2.3983,10.3853,5.1205,2.3189,2.4503
1734.3750,7.8500,-15.1090,-0.2769,-1.0528,-1.2935,5.3261,-5.0195,-1.5735,4.7279,6.1652,9.5206,3.7577,4.7086,-3.9143,3.2783,8.0067,4.0231,1.7794,1.6671
1738.2812,0.5992,-8.5236,-0.4657,-3.1361,-4.4064,1.8068,-5.3373,-3.9293,3.6544,4.2708,7.7069,1.0859,2.1208,-6.8143,1.2913,4.1613,1.3342,0.8127,-0.4761
1742.1875,-8.0876,1.1067,0.2036,-5.9032,-7.9064,-3.1013,-5.9751,-6.3945,3.1865,-0.7823,6.6691,-1.1273,-1.1745,-9.7696,-2.4172,-0.1472,-2.0782,-0.5296,-3.0143
1746.0938,-14.7162,9.8402,1.6061,-7.9299,-10.2566,-7.9517,-6.9246,-7.8619,3.2368,-6.5786,6.3737,-2.0616,-3.9443,-11.3026,-6.0479,-3.7987,-4.9801,-1.7407,-4.7753
1750.0000,-16.9943,14.1495,2.8604,-8.0813,-10.3383,-11.3485,-7.3839,-7.8116,3.3801,-10.4724,5.9425,-1.4565,-5.2340,-10.3999,-8.1740,-6.1187,-6.4584,-2.2505,-4.9689
1753.9062,-14.7302,12.4177,3.0417,-6.1223,-7.9631,-12.4194,-6.7945,-6.5296,3.1422,-11.2137,4.4574,0.2748,-4.7780,-7.0425,-8.4055,-7.0473,-6.3271,-1.7718,-3.4459
1757.8125,-9.5631,5.6265,2.0315,-2.7842,-3.9334,-11.0974,-5.6156,-4.8087,2.4315,-9.6034,1.9174,2.3669,-2.9797,-2.2645,-7.3735,-6.9079,-5.0588,-0.4054,-0.6157
1761.7188,-3.9013,-3.1043,0.7702,0.6654,0.3242,-8.1493,-5.0951,-3.4167,1.7420,-7.8039,-0.4765,4.1563,-0.5836,2.2699,-6.1710,-6.0853,-3.3870,1.4834,2.7816
1765.6250,0.2130,-9.9167,0.6369,3.0522,3.3547,-4.9070,-6.1500,-2.7071,1.9020,-7.7939,-1.0378,5.3378,1.6937,4.9681,-5.6740,-4.9087,-1.9002,3.4664,5.8773
1769.5312,1.7673,-11.8843,2.3880,3.7948,4.2600,-2.7227,-8.2710,-2.5658,3.4969,-9.9831,1.1579,5.9254,3.3822,4.9953,-6.1487,-3.7450,-0.8655,5.2013,7.8443
1773.4375,0.8579,-8.1874,5.4739,3.0838,3.0626,-2.3189,-9.4489,-2.6180,6.3785,-12.8820,5.4358,6.0745,4.3134,2.6629,-7.2846,-3.0475,-0.2847,6.4947,8.1246
1777.3438,-1.6003,-0.3145,8.2979,1.7202,0.7097,-3.3584,-7.3857,-2.4851,9.6382,-14.0381,9.7844,5.9734,4.6010,-0.6618,-8.5155,-3.1491,-0.0268,7.3148,6.7174
1781.2500,-4.2795,8.7023,9.2763,0.7133,-1.3177,-4.5532,-1.2347,-1.9408,12.0997,-11.6470,12.1024,5.8595,4.5976,-3.1324,-9.3597,-3.8915,0.1033,7.7793,4.3533
1785.1562,-5.8530,15.5961,7.9434,0.8004,-1.6793,-4.3700,7.3917,-0.9585,13.0055,-5.8092,11.5692,6.0368,4.7905,-3.2794,-9.5866,-4.4548,0.3553,8.1019,2.3191
1789.0625,-5.4180,18.1328,5.2975,2.0826,0.1477,-1.9952,14.9876,0.2819,12.4320,1.3813,9.1607,6.7599,5.5868,-0.7570,-9.1789,-3.6922,0.9860,8.4829,1.8753
1792.9688,-2.8588,15.8634,3.1307,3.9523,3.5407,2.0381,18.0625,1.4051,11.1692,7.0088,6.9414,8.0139,7.0481,3.4265,-8.1921,-0.8818,2.1187,8.9848,3.5326
1796.8750,1.0408,10.1437,2.8255,5.3946,6.9951,6.0257,15.2017,1.9338,10.1770,9.0523,6.6457,9.3906,8.7546,7.3855,-6.6417,3.6040,3.5951,9.4816,6.6456
1800.7812,4.9111,3.4859,4.4639,5.5510,8.9088,8.0490,7.9469,1.5119,10.0084,7.5696,8.5442,10.2424,9.9584,9.3501,-4.5005,8.2676,4.9784,9.7400,9.6634
1804.6875,7.4739,-1.4737,6.8472,4.2531,8.4852,7.1487,-0.0588,0.1868,10.5695,4.5821,11.3534,10.0782,10.0020,8.6445,-1.8078,11.2452,5.7774,9.5902,10.9606
1808.5938,8.2207,-2.9906,8.3597,2.1893,6.2202,3.9563,-5.0869,-1.4511,11.3130,2.7158,13.1773,8.9290,8.7550,6.0716,1.1769,11.4170,5.7738,9.0589,9.7692
1812.5000,7.6375,-0.8137,8.0473,0.5586,3.6457,0.3528,-5.2248,-2.4482,11.6703,3.4640,12.7710,7.3817,6.7584,3.4446,3.8823,9.1090,5.2095,8.3558,6.6320
1816.4062,6.7839,3.8730,6.1967,0.3876,2.4569,-1.6374,-1.0725,-1.9660,11.4151,6.2107,10.2725,6.2144,4.9488,2.5260,5.5072,5.8624,4.6680,7.7287,3.0984
1820.3125,6.4933,9.1286,4.1069,1.9347,3.5475,-0.9981,4.9866,0.2112,10.7706,8.6757,7.0093,5.8793,4.1347,4.0137,5.3177,3.3804,4.7081,7.3178,0.8736
1824.2188,6.7642,13.2151,3.2998,4.5686,6.5444,1.8039,10.2694,3.4796,10.2746,8.5082,4.6458,6.2187,4.5750,7.1880,3.0693,2.3575,5.5075,7.1397,0.9559
1828.1250,6.7987,15.3356,4.7057,7.1919,10.1023,5.2567,13.0395,6.6957,10.5348,4.9669,4.2995,6.6226,5.9255,10.4038,-0.6757,2.0016,6.7674,7.1989,3.2410
1832.0312,5.6666,15.7667,8.2508,8.9018,12.7158,7.7694,12.9091,8.7684,11.9786,-0.4637,6.1200,6.4942,7.5284,12.0701,-4.5928,0.6033,7.9249,7.5811,6.7182
1835.9375,3.0938,15.3618,12.9349,9.4219,13.4952,8.4895,10.4788,9.1815,14.6274,-4.9738,9.3935,5.6542,8.7744,11.4769,-7.1043,-3.2003,8.4803,8.3753,10.0101
1839.8438,-0.2292,14.7917,17.2172,9.0374,12.4403,7.5031,6.7497,8.1233,17.9211,-6.2613,12.9094,4.3853,9.2694,8.9954,-7.1604,-9.2841,8.1905,9.4337,11.8964
1843.7500,-3.0513,14.0621,19.5028,8.1601,10.1518,5.4637,2.7787,6.1997,20.6975,-4.0497,15.3241,3.1310,8.7678,5.6425,-4.8526,-15.7587,7.0297,10.1879,11.6218
1847.6562,-4.3581,12.6442,18.6390,6.9352,7.3196,3.0814,-0.3696,4.0045,21.4849,-0.2324,15.4755,2.1433,7.0781,2.4164,-1.4337,-19.7656,5.0518,9.7811,9.0270
1851.5625,-3.9494,10.1139,14.3901,5.2374,4.4158,0.8867,-1.6616,1.8848,19.1423,2.4783,12.7489,1.3925,4.1616,-0.1183,1.3567,-18.9118,2.3639,7.5720,4.6203
1855.4688,-2.3799,6.8014,7.7618,3.0416,1.7578,-0.6709,-0.3880,0.0246,13.6152,2.4665,7.4876,0.7843,0.4061,-1.8054,2.2952,-12.5607,-0.7268,3.7347,-0.4160
1859.3750,-0.3794,3.9139,0.9110,0.7988,-0.2620,-1.0793,3.3608,-1.3330,6.3420,0.3398,1.1917,0.4366,-3.2116,-2.6190,1.3626,-2.3019,-3.5673,-0.5046,-4.4464
1863.2812,1.7109,2.9398,-3.5591,-0.5994,-1.1313,0.1092,8.4169,-1.8233,-0.0945,-1.5503,-3.8315,0.6989,-5.3871,-2.4860,-0.3742,8.6219,-5.2740,-3.2991,-5.9513
1867.1875,3.9883,4.6703,-3.7796,-0.3586,-0.5140,2.8754,12.8144,-1.1955,-3.0789,-0.8916,-5.4330,1.8337,-5.1759,-1.3963,-1.6470,16.6402,-5.1813,-3.1458,-4.2949
1871.0938,6.4961,8.4880,0.2888,1.5350,1.3241,6.3997,14.6213,0.3249,-1.3224,2.7488,-2.7870,3.6154,-2.7048,0.3342,-2.0347,19.3015,-3.3686,0.1660,-0.2533
1875.0000,8.6650,12.4598,6.5598,4.0325,3.3771,9.1972,12.8916,1.8936,4.3223,7.3515,2.9653,5.2327,0.6541,1.9644,-2.3921,16.1988,-0.8328,5.2505,4.1502
1878.9062,9.2820,14.2729,11.6870,5.4535,4.2973,9.7913,8.1668,2.3510,11.1519,9.6085,9.1224,5.6726,2.9114,2.5908,-4.2566,8.9912,0.9470,9.7239,6.5832
1882.8125,7.1699,12.5077,12.7603,4.4267,3.1598,7.5468,2.2170,0.8516,15.9380,7.0952,12.7729,4.3740,2.5903,1.6486,-8.5549,0.5600,0.8709,11.3990,5.6555
1886.7188,2.1561,7.4999,8.9035,0.7454,0.0838,3.0895,-2.8177,-2.5808,16.5690,0.0105,12.3338,1.6796,-0.3613,-0.7068,-14.4899,-6.2722,-1.0542,9.3873,1.7249
1890.6250,-4.4114,1.2775,1.8123,-4.4305,-3.7567,-2.0021,-5.3795,-6.9630,13.0769,-8.6834,8.3469,-1.2722,-4.5035,-3.6397,-19.4753,-9.8416,-3.6508,4.4891,-3.2877
1894.5312,-10.0902,-3.4051,-5.1294,-9.1538,-6.7773,-6.0318,-5.0435,-10.8041,7.4900,-14.8365,3.0621,-3.1767,-7.7515,-6.0833,-20.3445,-10.0587,-5.2662,-1.2847,-6.9924
1898.4375,-12.5457,-4.4029,-8.6435,-11.6634,-7.8533,-7.9761,-2.4775,-12.8056,2.6559,-15.4106,-0.8854,-3.2891,-8.5702,-7.2772,-15.2078,-8.0114,-4.7725,-5.7047,-7.8440
1902.3438,-10.7953,-1.1794,-7.2015,-11.1499,-6.8284,-7.7273,1.0259,-12.3784,0.7587,-10.0938,-1.8470,-1.7581,-6.7262,-7.0279,-4.8314,-5.0728,-2.1906,-7.2479,-5.8441
1906.2500,-5.7087,5.0015,-1.5978,-7.9255,-4.3635,-5.7486,4.1194,-9.7234,2.3447,-1.3313,0.2086,0.6195,-3.1622,-5.5749,7.3743,-2.0828,1.4631,-5.5448,-2.2450
1910.1562,0.5169,11.7064,5.7497,-3.0575,-1.3365,-2.5479,5.8286,-5.5609,6.2745,7.0938,4.0267,2.9917,0.7877,-3.2705,16.8601,0.9251,4.9283,-1.3037,1.4329
1914.0625,5.5166,16.3996,12.1898,2.1650,1.6898,1.5347,5.7750,-0.8018,10.4585,11.9625,7.9381,4.9347,4.1861,-0.4019,20.1425,4.3740,7.4489,4.0646,4.3145
1917.9688,7.8090,17.4263,16.0198,6.5887,4.5342,6.0845,4.2383,3.6231,12.8720,11.9130,10.6246,6.5153,6.7277,2.7073,16.4913,8.5039,8.9803,8.8902,6.3956
1921.8750,7.1893,14.5268,16.8595,9.3234,7.0523,10.2455,2.0826,6.8110,12.3578,7.6001,11.3978,7.9701,8.3938,5.4907,8.1888,12.9256,9.7986,11.6743,8.0429
1925.7812,4.4433,8.7784,15.2656,9.8186,8.8086,12.7303,0.5086,8.0140,8.9765,0.9544,10.0923,9.3238,8.9981,7.1557,-0.7323,16.6557,9.9606,11.5291,9.3009
1929.6875,0.7868,2.1016,12.0996,8.0501,9.1747,12.4060,0.6181,6.9580,3.9148,-5.7995,6.9300,10.2630,8.1423,7.0647,-6.5366,18.5416,9.1573,8.5659,9.6442
1933.5938,-2.5436,-3.4194,8.1685,4.7302,7.8562,9.1123,2.9080,4.1906,-0.9389,-10.8307,2.5711,10.3344,5.6713,5.2627,-7.5182,17.7453,7.1177,4.0162,8.4039
1937.5000,-4.4467,-6.1647,4.2560,1.2574,5.4025,4.0577,6.9463,1.1065,-3.6474,-12.9899,-1.7883,9.2793,2.2000,2.6966,-4.5720,14.0093,4.1874,-0.1438,5.5053
1941.4062,-4.0807,-5.4013,1.2611,-0.7836,3.1740,-0.6530,11.4590,-0.5740,-2.9718,-11.9095,-4.5988,7.2403,-0.8645,0.8244,-0.4277,7.6907,1.4881,-2.0495,1.8697
1945.3125,-1.1750,-1.4263,0.0838,-0.4141,2.6271,-3.1773,14.8615,0.2978,1.0386,-8.0997,-4.5651,4.7282,-2.0022,0.7626,1.9481,-0.2544,0.3766,-0.8934,-0.9206
1949.2188,3.5621,4.5690,1.1896,2.1404,4.3482,-3.0398,15.9881,3.5645,6.9362,-2.9564,-1.4013,2.4247,-0.5465,2.5324,0.9236,-8.2367,1.5226,2.6148,-1.5202
1953.1250,8.3450,10.8607,4.1641,5.5121,7.5498,-1.3954,14.6272,7.7368,12.4424,1.5729,3.8075,0.9751,2.7899,4.9782,-3.0132,-14.1095,4.3113,6.6359,0.3471
1957.0312,10.8865,15.6790,7.6835,7.9737,10.4688,-0.2164,11.5637,10.7948,15.5220,3.7611,9.0145,0.8421,6.2956,6.4906,-7.5747,-15.6601,7.1079,9.2635,3.7199
1960.9375,9.5584,17.6999,10.0734,8.4742,11.4650,-0.9226,8.1180,11.3634,15.4207,3.0153,12.2528,2.1864,8.3442,6.0799,-9.8845,-11.5990,8.2876,9.6097,7.0152
1964.8438,4.5120,16.4176,10.1805,7.2385,10.0794,-3.3858,5.4609,9.5052,13.0329,0.3544,12.6891,4.7419,8.4282,4.0572,-7.9638,-2.6224,7.3294,8.2132,8.9888
1968.7500,-2.0390,12.3031,8.0184,5.5190,7.3101,-5.9900,4.0966,6.6056,10.3230,-1.9941,11.0100,7.7616,7.4054,1.8386,-1.7717,8.2379,5.1808,6.5220,9.3856
1972.6562,-6.7429,6.6909,4.7595,4.6817,4.9142,-6.6980,3.7746,4.4357,9.1253,-1.7915,8.8983,10.1891,6.7941,1.0025,6.7070,16.5752,3.6124,5.8481,8.8871
1976.5625,-6.8363,1.3985,2.0702,5.2853,4.2377,-4.3913,3.8236,4.0362,10.0841,1.8820,7.9663,11.1107,7.6582,2.2639,14.3818,18.6850,4.0181,6.5453,8.4836
1980.4688,-1.6740,-1.8404,1.2052,6.7961,5.3969,0.4085,3.6647,5.1678,12.4169,8.0014,8.8534,10.3020,9.8965,5.0703,18.5485,13.6820,6.5102,7.9627,8.7739
1984.3750,6.8901,-1.9618,2.4034,8.0979,7.3493,5.8728,3.1919,6.6457,14.6194,14.1178,11.0272,8.4956,12.4157,8.0587,18.2080,4.2858,9.9208,9.1239,9.6715
1988.2812,15.5284,1.0446,4.8977,8.3707,8.7333,9.9705,2.8123,7.2555,15.5758,17.7420,13.3106,7.0805,13.9844,9.9934,14.5272,-4.4360,12.6452,9.5465,10.6355
1992.1875,21.2444,6.1327,7.4504,7.6677,8.8225,11.5913,3.1420,6.5735,15.2746,17.7475,14.6874,7.3109,14.0854,10.4997,10.1801,-7.7918,13.6736,9.5537,11.1585
1996.0938,22.8599,11.6126,9.0405,6.7955,7.9250,11.0054,4.5414,5.1536,14.6537,14.9423,14.8435,9.4960,13.1549,10.1134,7.9033,-4.0491,13.0933,9.8770,11.1166
2000.0000,21.3334,15.8104,9.3135,6.6481,7.0176,9.4820,6.7553,4.0360,14.7616,11.5044,14.1846,12.7403,12.1210,9.7080,9.0452,4.7500,11.8044,10.9258,10.7652
2003.9062,18.8415,17.6716,8.6141,7.5389,6.9758,8.4310,8.8807,4.0049,15.9148,9.6943,13.4650,15.4741,11.6865,9.7986,12.9055,14.2530,10.7857,12.3566,10.4698
2007.8125,17.3140,17.0294,7.6795,9.0223,7.9944,8.6533,9.7347,5.1268,17.4866,10.6618,13.3546,16.4538,11.9303,10.2443,17.2282,20.5492,10.5140,13.3006,10.4309
2011.7188,17.3665,14.4571,7.2112,10.2758,9.5665,10.0926,8.4816,6.8202,18.4405,14.0156,14.1817,15.5481,12.4606,10.5008,19.5510,22.3724,10.9032,13.0548,10.6002
2015.6250,18.1982,10.8603,7.5333,10.6829,10.9257,12.0909,5.2151,8.2949,18.1404,18.2745,15.8627,13.7497,12.8761,10.1428,18.6202,21.3391,11.6547,11.6554,10.7859
2019.5312,18.3486,7.0927,8.4541,10.1568,11.5424,13.8582,1.1502,8.9908,16.7885,21.7726,17.9130,12.4024,13.0777,9.2098,15.0525,20.2105,12.5972,9.8565,10.8022
2023.4375,16.7040,3.7935,9.3554,9.0195,11.3221,14.8370,-1.7690,8.7468,15.1798,23.4101,19.4974,12.2102,13.1787,8.1409,10.8780,20.5408,13.6972,8.5309,10.5370
2027.3438,13.1160,1.4326,9.4746,7.6363,10.4716,14.8210,-1.7437,7.7121,14.0220,22.8796,19.6066,12.7506,13.1727,7.4242,8.2649,21.4410,14.7962,7.9861,9.9353
2031.2500,8.3688,0.3756,8.2867,6.1743,9.2725,13.8850,1.9223,6.1925,13.3988,20.4277,17.4432,12.8373,12.7467,7.2948,8.2022,20.3121,15.4196,7.7586,8.9887
2035.1562,3.6794,0.8032,5.8350,4.6795,8.0062,12.2577,8.3006,4.5876,12.7994,16.4961,12.9204,11.4443,11.4815,7.7073,9.9201,14.9521,14.9466,7.0528,7.7843
2039.0625,0.1313,2.5100,2.8351,3.3321,7.0389,10.2253,15.0976,3.3878,11.6495,11.5545,6.9709,8.4980,9.2963,8.5280,11.3725,5.4796,13.0768,5.4657,6.5648
2042.9688,-1.6509,4.8053,0.4420,2.5592,6.8617,8.0740,19.6510,3.0900,9.8754,6.1811,1.3586,4.9743,6.7282,9.6924,10.4728,-5.2989,10.2126,3.4016,5.6893
2046.8750,-1.5393,6.7336,-0.2621,2.8178,7.9005,6.0510,20.2004,3.9658,8.0315,1.1906,-2.0407,2.2687,4.7376,11.1447,6.3457,-13.3093,7.3865,1.8372,5.4581
2050.7812,0.2155,7.5926,1.1766,4.1921,10.1580,4.3444,16.7777,5.8177,6.9040,-2.4297,-2.1420,1.3356,4.1239,12.6302,-0.1278,-15.4269,5.7102,1.6187,5.9029
2054.6875,3.1067,7.4257,4.2893,6.1691,12.9873,3.0855,11.2247,7.9604,6.9352,-3.8400,0.7997,2.2109,4.9861,13.6020,-6.7614,-11.0526,5.7173,2.8436,6.7170
2058.5938,6.4541,7.0742,7.8447,7.8543,15.2765,2.3574,6.2852,9.5430,7.9367,-2.7584,5.3512,4.1839,6.6570,13.4343,-11.2268,-2.1754,7.0786,4.8072,7.4196
2062.5000,9.4851,7.6201,10.4074,8.5316,16.0242,2.1616,4.2113,10.0506,9.2914,0.3086,9.6803,6.3826,8.1763,11.8547,-12.2521,7.8878,8.8863,6.5382,7.6610
2066.4062,11.4504,9.5135,11.0127,8.1582,14.9432,2.3338,5.5933,9.6289,10.4341,4.1871,12.4669,8.2765,8.9389,9.2549,-10.1946,16.1130,10.2657,7.4906,7.4426
2070.3125,11.7590,11.9958,9.6058,7.3913,12.6425,2.4813,9.0402,8.9575,11.1939,7.4698,13.3977,9.7583,9.0160,6.5704,-6.7059,20.7972,10.8406,7.8553,7.0745
2074.2188,10.0982,13.3360,7.0312,7.0909,10.2198,2.0727,11.9125,8.7289,11.7428,9.0477,13.0175,10.8690,8.9222,4.7343,-3.7248,21.6575,10.7346,8.2820,6.8963
2078.1250,6.5339,11.8696,4.6042,7.6650,8.5387,0.7412,11.7787,9.1164,12.2599,8.4983,12.1437,11.5157,9.0560,4.0709,-2.3891,19.3348,10.1989,9.2727,6.9883
2082.0312,1.6118,7.2345,3.5055,8.7682,7.7256,-1.3272,7.8574,9.6559,12.6660,6.1932,11.3006,11.4764,9.3032,4.1007,-2.4693,14.8595,9.2618,10.7537,7.1221
2085.9375,-3.5746,0.9557,4.2973,9.6082,7.2644,-3.2122,1.6671,9.6668,12.6917,3.1308,10.5247,10.6730,9.1468,3.9449,-2.6106,9.3760,7.7413,12.1624,7.0119
2089.8438,-7.4738,-4.1222,6.7628,9.6401,6.6063,-3.5473,-3.5504,8.9056,12.2165,0.5973,9.5713,9.4193,8.1946,3.0675,-1.2167,4.0374,5.6088,12.9560,6.6704
2093.7500,-8.4739,-5.3239,10.0930,9.1066,5.7946,-1.2616,-4.4413,7.9265,11.5407,-0.2316,8.2735,8.3654,6.6739,1.7944,2.5246,-0.1519,3.3385,13.1107,6.5629
2097.6562,-5.5981,-1.6881,13.2902,8.9708,5.5742,3.6081,0.5894,7.8108,11.2897,1.3438,6.7672,8.1353,5.4504,1.1809,8.0269,-2.5827,1.8514,13.1961,7.3820
2101.5625,0.7866,5.3779,15.5831,10.2355,6.8406,9.5911,10.2563,9.3932,11.9625,5.2847,5.4649,8.9404,5.4975,2.2626,13.4210,-3.1781,1.9850,13.9518,9.5520
2105.4688,8.7244,12.7492,16.6720,13.1064,9.8110,14.2899,20.7245,12.5192,13.4661,10.7277,4.8614,10.4777,7.1794,5.1959,16.3434,-2.2355,3.8425,15.6780,12.7978
2109.3750,15.2424,17.1527,16.7120,16.6047,13.5498,15.5552,27.3464,15.8885,15.0293,16.1367,5.3186,12.1765,9.8740,8.9135,15.0195,-0.0725,6.5336,17.8919,16.1002
2113.2812,17.6334,16.7386,16.0725,18.9405,16.2660,12.6745,26.9535,17.6534,15.6095,19.7029,6.9089,13.5523,12.2271,11.5839,9.1383,3.1609,8.5705,19.4974,18.1139
2117.1875,14.8233,11.8039,15.0233,18.4509,16.2597,6.8281,19.4662,16.4192,14.5273,19.9081,9.3132,14.3539,12.8864,11.6188,0.1230,7.2245,8.7096,19.3585,17.8210
2121.0938,7.9944,4.3924,13.5428,14.5335,12.9247,0.4754,7.9047,12.0152,11.8797,16.0774,11.7848,14.4111,11.2419,8.5909,-9.3279,11.2420,6.6898,16.9104,15.0389
2125.0000,0.0001,-2.8414,11.3774,8.0187,7.1567,-3.9868,-3.2223,5.5632,8.4621,8.7147,13.2658,13.4078,7.7283,3.4867,-16.2452,13.4500,3.3777,12.4641,10.5051
2128.9062,-6.1544,-7.7953,8.3264,0.7883,0.9015,-5.4740,-10.2272,-1.1546,5.2926,-0.5312,12.7477,10.9195,3.5508,-1.8442,-18.5244,11.7906,0.2343,7.0847,5.5183
2132.8125,-8.8466,-9.5567,4.5648,-5.1007,-3.8677,-4.6068,-11.9249,-6.5877,3.1059,-9.2989,9.8165,6.8245,0.0608,-5.6738,-15.7124,5.2844,-1.5277,2.1716,1.3667
2136.7188,-8.4261,-8.3959,0.7634,-8.2843,-6.1131,-3.0508,-9.7767,-10.0177,2.1471,-15.2306,5.1020,1.8069,-1.8414,-7.2114,-9.1060,-4.6484,-1.5605,-1.0287,-1.1545
2140.6250,-6.5270,-5.3572,-2.1230,-8.5266,-6.0899,-2.3031,-6.5734,-11.5809,2.3067,-16.7452,0.2612,-2.5383,-1.9958,-6.8131,-1.1234,-14.0442,-0.4345,-1.8002,-1.9321
2144.5312,-4.6717,-1.7663,-3.3087,-6.5993,-4.9696,-2.7674,-4.6300,-11.8419,3.3692,-13.6003,-2.6652,-4.2910,-0.9142,-5.5669,5.7404,-17.9748,0.8099,-0.1546,-1.4188
2148.4375,-3.2406,1.1760,-2.6058,-3.7853,-4.0542,-3.7117,-4.6783,-11.3122,5.1044,-7.0323,-2.2794,-2.2688,0.5173,-4.6017,9.8488,-13.2395,1.2580,3.1665,-0.3396
2152.3438,-1.5895,2.7054,-0.5624,-1.3200,-4.0935,-4.0609,-6.0438,-10.2534,7.1485,0.6068,1.3451,3.0803,1.3963,-4.5612,10.7792,-0.6087,0.4982,6.8918,0.6103
2156.2500,0.8068,2.7181,1.7699,-0.0203,-5.0750,-3.3933,-7.7396,-8.8239,8.8658,6.6078,6.5802,9.6082,1.1054,-5.4910,8.9685,14.9257,-1.3575,9.6138,0.9610
2160.1562,3.1688,1.8117,3.2877,-0.1795,-6.5028,-2.3948,-9.4874,-7.3468,9.4358,8.7964,11.0221,14.3925,-0.5071,-7.0790,4.9681,26.3379,-3.8987,10.2836,0.5195
2164.0625,3.2944,1.0188,3.2353,-1.6612,-7.8850,-2.4384,-11.8403,-6.4025,8.2120,6.2291,12.6921,15.1815,-3.1093,-8.9859,-1.1044,28.1076,-6.6706,8.6132,-0.6904
2167.9688,-1.1412,1.2485,1.3731,-4.0612,-9.0713,-4.5970,-15.3674,-6.6143,5.1292,-0.5561,10.9399,11.5233,-6.0513,-11.0133,-9.4556,19.0962,-9.3133,5.1744,-2.5327
2171.8750,-10.6480,2.6971,-2.0685,-6.8378,-10.2370,-8.7903,-19.6472,-8.2438,0.8395,-9.7976,6.5352,4.9193,-8.6612,-13.0301,-19.8756,3.0647,-11.5797,1.1134,-4.8296
2175.7812,-22.7809,4.6113,-6.4962,-9.3793,-11.5684,-13.6711,-22.9977,-10.8766,-3.5708,-19.1310,0.9908,-2.0543,-10.5270,-14.7759,-30.9320,-13.4542,-13.3026,-2.3853,-7.3527
2179.6875,-32.8486,5.6279,-11.0145,-11.0495,-12.9039,-17.3384,-23.2950,-13.4388,-7.1162,-26.3126,-4.3497,-7.1066,-11.5933,-15.7456,-39.8516,-24.6390,-14.3622,-4.5985,-9.7496
2183.5938,-36.3083,4.5394,-14.4964,-11.2809,-13.6075,-18.4161,-19.3638,-14.5976,-9.3474,-29.8045,-8.8430,-9.2924,-12.0115,-15.3029,-43.4764,-28.1794,-14.6588,-5.4731,-11.5001
2187.5000,-31.4524,1.0146,-15.8205,-9.7591,-12.8145,-16.8145,-11.9373,-13.3790,-10.4153,-29.1054,-12.4440,-9.2479,-11.8661,-13.0099,-39.9317,-25.8892,-14.0894,-5.4874,-12.0102
2191.4062,-20.6512,-4.1969,-14.3361,-6.6587,-9.9551,-13.7327,-3.4605,-9.7112,-10.7853,-24.8294,-15.2205,-8.6022,-11.0249,-9.0048,-30.0318,-22.0161,-12.5638,-5.3241,-10.8845
2195.3125,-9.2565,-9.6993,-10.3638,-2.7982,-5.2698,-10.9559,3.1644,-4.6200,-10.8698,-18.5698,-16.9836,-9.0004,-9.2846,-4.1899,-17.4215,-20.4758,-10.1043,-5.5875,-8.2667
2199.2188,-2.7540,-14.2045,-5.3581,0.4564,0.0178,-9.9217,6.0470,0.0565,-10.8605,-12.5494,-17.3605,-11.2896,-6.7405,-0.0518,-7.1400,-22.7022,-7.0113,-6.6897,-5.0217
2203.1250,-3.8742,-17.0832,-1.4548,1.6196,4.0596,-11.1022,5.0529,2.3590,-10.8278,-9.0374,-16.2123,-15.2192,-4.0783,1.8862,-3.2698,-27.2282,-3.9715,-8.8509,-2.5546
2207.0312,-11.3724,-18.3937,-0.5070,-0.2693,5.1789,-13.9849,1.4602,1.0396,-10.9094,-9.5931,-13.9906,-19.6872,-2.4698,0.7700,-6.9730,-30.9668,-1.9511,-12.0808,-2.2514
2210.9375,-21.0814,-18.4957,-3.1194,-5.0918,2.7298,-17.5389,-3.0465,-3.8326,-11.3509,-14.3685,-11.6762,-23.3216,-3.0130,-3.0725,-16.0394,-31.2176,-1.8177,-16.0864,-4.7851
2214.8438,-28.4145,-17.6659,-8.2961,-11.5348,-2.4567,-20.7992,-7.2514,-10.8037,-12.3297,-21.8308,-10.2917,-25.1033,-6.0146,-8.1248,-26.1780,-27.1819,-3.8460,-20.2047,-9.6727
2218.7500,-30.6998,-16.0645,-13.9751,-17.5696,-8.3454,-23.2148,-10.6321,-17.5962,-13.7235,-29.1892,-10.3250,-24.7765,-10.6027,-12.2725,-33.2450,-20.2510,-7.4084,-23.5216,-15.3784
2222.6562,-28.0463,-14.0260,-18.1449,-21.3417,-12.6108,-24.6378,-13.0415,-22.0784,-15.0619,-33.4992,-11.4695,-22.8953,-14.9967,-13.7524,-35.1018,-13.1103,-11.1107,-25.2164,-19.9520
2226.5625,-22.5378,-12.2966,-19.8335,-22.0063,-13.7338,-25.0769,-14.3753,-23.1829,-15.7483,-32.9949,-12.8345,-20.4894,-17.3462,-11.9914,-32.1423,-8.2987,-13.3817,-24.9632,-21.8765
2230.4688,-16.6121,-11.8420,-19.3497,-20.0371,-11.6870,-24.4630,-14.6207,-21.3005,-15.3957,-27.9634,-13.4389,-18.4921,-16.6625,-7.8726,-26.4345,-7.0130,-13.2263,-23.1052,-20.6725
2234.3750,-11.7931,-13.2228,-17.6987,-16.8333,-7.8298,-22.6079,-14.1653,-17.9391,-14.0059,-20.6261,-12.6456,-17.2150,-13.2870,-3.2653,-20.2485,-8.6848,-10.7147,-20.4350,-16.9688
2238.2812,-8.4212,-15.9848,-15.6886,-13.8840,-4.0951,-19.3774,-13.8671,-14.8464,-11.8507,-14.0057,-10.3194,-16.1801,-8.6386,-0.0648,-14.9533,-11.4158,-6.9215,-17.7003,-12.0751
2242.1875,-6.1813,-18.6230,-13.4399,-12.0171,-1.9643,-14.9483,-14.5409,-13.1065,-9.1869,-10.3592,-6.7460,-14.4575,-4.4370,0.7180,-10.8153,-12.9703,-3.3577,-15.1871,-7.3655
2246.0938,-4.7342,-19.3178,-10.6487,-11.1795,-1.8297,-9.9704,-16.1118,-12.7256,-6.0910,-10.0516,-2.5005,-11.3507,-1.8986,-0.6828,-7.5219,-11.8246,-1.2372,-12.6990,-3.8218
2250.0000,-3.9189,-17.0379,-7.3156,-10.8092,-3.0659,-5.5056,-17.1822,-12.9037,-2.5997,-11.5184,1.6254,-7.0065,-1.3473,-3.1369,-4.8315,-7.7979,-0.9888,-9.9543,-1.8975
2253.9062,-3.5467,-12.2474,-4.2452,-10.4479,-4.6638,-2.7245,-15.6358,-12.7461,0.9666,-12.3241,4.7129,-2.5091,-2.3516,-5.3947,-2.8477,-2.0119,-2.2317,-7.0687,-1.6178
2257.8125,-3.2219,-6.6594,-2.7805,-10.1008,-5.9378,-2.4582,-10.1357,-11.8979,3.8462,-10.6650,5.9700,0.6798,-4.1523,-6.7705,-1.8459,3.7460,-4.1329,-4.6886,-2.7113
2261.7188,-2.5368,-2.1402,-3.8616,-10.0834,-6.8280,-4.7825,-1.5284,-10.6768,5.1263,-6.4076,5.1522,1.6251,-6.0306,-7.3237,-1.9473,7.8870,-5.8628,-3.5871,-4.6524
2265.6250,-1.5308,0.4856,-7.0973,-10.5173,-7.6542,-8.8335,7.0172,-9.6600,4.3962,-1.0696,2.9011,0.5741,-7.4271,-7.5053,-2.9513,9.6392,-6.8828,-3.9818,-6.6673
2269.5312,-0.9268,1.8641,-10.6282,-10.9347,-8.5893,-12.9954,11.5559,-9.0799,2.2994,3.1762,0.6540,-1.1181,-7.8862,-7.6086,-4.3984,9.1176,-6.9820,-5.1169,-7.8510
2273.4375,-1.7550,3.4392,-12.0311,-10.3774,-9.3010,-15.4580,9.7800,-8.5182,0.4634,4.8000,-0.0035,-1.8039,-7.0421,-7.4681,-5.7080,6.9060,-6.1670,-5.5318,-7.4670
2277.3438,-4.4909,6.1532,-9.7511,-7.9941,-9.0597,-14.9593,2.6961,-7.1505,0.6621,3.7060,1.7411,-0.5945,-4.7662,-6.6213,-6.2540,3.5366,-4.5647,-3.9491,-5.3103
2281.2500,-8.3429,9.4936,-4.1115,-3.7241,-7.2347,-11.3832,-5.7064,-4.3745,3.6500,1.0962,5.3149,2.0505,-1.3840,-4.7710,-5.4339,-0.7070,-2.4115,-0.2185,-1.8893
2285.1562,-11.3496,11.6422,2.7971,1.4569,-3.8041,-5.8862,-10.7528,-0.3529,8.4516,-1.3970,8.9366,4.6109,2.2733,-2.1448,-2.8995,-5.5225,-0.0680,4.3781,1.7534
2289.0625,-11.4107,10.7019,8.2947,5.9708,0.5076,-0.4242,-9.9005,3.9438,12.7012,-2.6831,10.5802,5.4980,5.1386,0.5676,1.0381,-10.1440,2.0409,7.7686,4.5314
2292.9688,-7.6549,6.1702,10.5840,8.5050,4.5725,3.1429,-4.2002,7.2554,13.9582,-2.6848,9.1693,4.1007,6.4111,2.6818,5.1159,-13.2219,3.5924,8.3347,5.8381
2296.8750,-1.2168,-0.3923,9.5750,8.7372,7.4448,3.9209,2.5831,8.7569,11.2290,-2.1176,5.2422,1.1939,5.9898,4.0327,7.3581,-13.3368,4.5395,5.9525,5.7761
2300.7812,5.1683,-6.0367,6.6145,7.4200,8.7841,2.3461,6.5458,8.4874,5.6975,-1.8550,0.6414,-1.5553,4.5263,5.1103,5.9920,-9.9444,5.1422,2.1105,4.9538
2304.6875,8.5575,-8.0657,3.4396,5.7683,8.8532,-0.1784,6.1037,7.1963,0.1219,-2.3705,-2.5793,-2.6477,3.0224,6.6590,0.6266,-4.1003,5.7802,-1.0161,4.0017
2308.5938,7.3295,-5.5992,1.1564,4.5921,8.1494,-2.1755,2.6503,5.7420,-2.7837,-3.5832,-3.3227,-1.6761,2.2069,8.9976,-7.1026,1.6906,6.6374,-1.9412,3.1552
2312.5000,1.9365,-0.0666,-0.0866,3.7985,6.9916,-2.9768,-0.9124,4.5027,-1.9685,-5.0810,-1.9505,0.4739,2.0990,11.5724,-14.0466,4.6311,7.4750,-0.7735,2.1985
2316.4062,-5.4747,5.6706,-0.6562,2.6245,5.3923,-3.0396,-2.5413,3.2328,1.3901,-6.4294,0.1536,2.2517,2.0622,13.1362,-17.0982,3.2082,7.6943,0.9620,0.7987
2320.3125,-12.1990,8.9832,-0.7371,0.4275,3.2950,-3.4817,-2.4761,1.4576,4.7596,-7.3019,1.6049,2.4652,1.3326,12.5196,-14.8945,-1.7990,6.7124,1.4748,-1.0246
2324.2188,-16.1079,8.8831,-0.0232,-2.5618,0.9455,-5.1298,-2.6756,-0.9167,6.0010,-7.4015,1.9153,1.0442,-0.3182,9.5129,-8.5556,-7.6091,4.4502,0.0468,-2.6667
2328.1250,-16.2188,6.3639,1.9391,-5.1181,-0.9612,-7.7232,-4.7906,-3.2740,4.8375,-6.3728,1.7016,-0.9174,-2.2433,5.2359,-0.9445,-10.9547,1.6039,-2.3587,-3.1609
2332.0312,-12.6522,3.5803,5.0726,-5.6947,-1.5615,-9.8469,-8.3556,-4.5372,3.0597,-3.9162,2.1415,-1.8353,-3.1747,1.6654,5.0493,-9.9385,-0.5434,-3.6521,-1.7661
2335.9375,-6.3257,2.4805,8.3756,-3.4792,-0.3971,-9.7115,-10.7224,-3.8644,3.3106,-0.0996,4.1077,-0.5900,-1.9715,0.5425,8.0208,-5.0797,-0.7504,-1.9880,1.4428
2339.8438,1.2834,3.7567,10.2369,0.8902,2.1221,-6.3228,-8.9103,-1.3089,7.2351,4.3814,7.5629,2.8063,1.5802,2.3240,8.3645,1.1084,1.4342,2.9459,5.3914
2343.7500,8.2976,6.6638,9.3440,5.4909,4.7573,-0.2856,-2.0259,2.0478,14.2059,8.2925,11.5594,7.2001,6.4327,5.8630,7.3355,5.7312,5.2615,9.5710,8.4187
2347.6562,12.7667,9.6634,5.5930,8.1418,6.0634,6.3182,7.6073,4.6406,21.4744,10.3737,14.7671,10.9210,10.6836,9.0660,5.7505,7.2827,9.0265,15.2348,9.1159
2351.5625,13.3127,11.3748,0.3613,7.6869,5.2621,10.9646,15.5832,5.3249,25.6796,10.0110,16.1498,12.6689,12.5525,10.1477,3.4375,6.4597,10.9160,17.6924,7.1396
2355.4688,9.8647,11.2409,-4.0960,4.7261,2.8073,12.0278,18.1222,4.0636,24.7825,7.6221,15.4006,12.1731,11.3845,8.7025,-0.1461,5.5446,10.0151,16.3328,3.5104
2359.3750,3.9585,9.6094,-5.7956,1.3041,0.2235,9.6163,14.4919,1.9440,19.2366,4.4469,12.9687,10.2758,8.0678,5.9069,-4.7459,6.7967,6.8751,12.4163,0.1702
2363.2812,-1.7978,7.3337,-4.0474,-0.2892,-0.7608,5.4107,7.4412,0.5003,11.7066,1.8266,9.7664,8.4123,4.5664,3.7119,-8.7335,10.8865,3.2508,8.2327,-1.0188
2367.1875,-4.9617,5.2430,0.2304,1.1122,0.7088,1.6423,1.3572,0.7697,5.5576,0.4253,6.7740,7.7834,2.8000,3.5363,-9.8166,16.3336,1.1043,5.7496,0.6951
2371.0938,-4.5149,3.8028,5.0416,4.8469,4.0020,-0.1249,-0.5506,2.6752,3.0663,-0.0862,4.7234,8.6808,3.5237,5.3008,-6.6492,20.2540,1.4482,5.5926,4.4806
2375.0000,-1.3413,3.0822,8.3448,8.8247,7.2883,0.3192,1.8964,5.1150,4.4042,-0.6652,3.9325,10.3493,5.9048,7.4383,-0.1221,19.9483,3.7449,6.9297,8.3220
2378.9062,2.4058,2.9315,9.0194,10.7894,8.6032,2.0051,6.1291,6.6873,7.8898,-2.1001,4.2889,11.4781,8.0857,7.8921,6.7722,14.4214,6.2705,8.2330,10.1173
2382.8125,4.6392,3.1966,7.3042,9.6863,7.0726,3.5711,8.8719,6.5864,11.2070,-4.3411,5.3628,11.0544,8.4077,5.4836,10.5767,5.0351,7.2448,8.3656,8.8892
2386.7188,4.4971,3.8432,4.5817,6.3204,3.5389,4.0752,8.3780,5.1154,12.7566,-6.4377,6.6274,9.0788,6.5313,0.7847,9.4290,-4.9944,6.0209,7.2938,5.4154
2390.6250,2.6038,4.9620,2.6962,2.9218,0.1765,3.3461,5.3151,3.5170,12.3494,-7.1455,7.7199,6.6912,3.7264,-4.0647,4.1040,-11.9569,3.5538,6.0296,1.8876
2394.5312,0.3725,6.6811,3.1507,1.8896,-0.7067,1.7994,1.8793,3.2411,10.9656,-5.7915,8.6187,5.5771,2.1216,-6.4983,-2.6708,-13.2179,1.8177,5.9103,0.7510
2398.4375,-1.0463,9.0243,6.4907,4.4464,2.0258,0.0328,0.0365,5.0937,9.9037,-2.8040,9.5996,6.9612,3.3718,-4.9413,-8.0572,-8.3232,2.5256,7.7136,3.3605
2402.3438,-1.3899,11.7566,12.0641,9.9645,7.7008,-1.4274,0.3069,8.7579,9.9368,0.4715,10.9434,10.7745,7.5890,0.3362,-10.7203,0.7860,5.9791,11.1501,9.2092
2406.2500,-1.1172,14.2890,18.2106,16.3046,14.2301,-2.1148,1.9016,12.9354,10.9560,2.5605,12.5450,15.5219,13.2165,7.4079,-11.0904,10.5087,10.8040,14.9975,16.1668
2410.1562,-0.7318,15.7413,22.8291,20.9290,19.2736,-1.5575,3.8469,16.0014,12.1824,2.7367,13.7053,18.9791,17.9183,13.7626,-10.2761,16.9742,14.7514,17.7435,21.5829
2414.0625,-0.2399,15.2302,24.1655,22.1453,21.4545,0.5608,5.9667,16.7969,12.6860,1.4125,13.3368,19.3515,19.9076,17.5880,-8.7050,17.5481,16.0448,18.3378,23.6221
2417.9688,0.7989,12.3232,21.5555,19.8200,20.9157,3.9941,8.8289,15.1378,11.8624,-0.1981,10.5732,16.2344,18.8765,18.5260,-5.7318,11.8558,14.4022,16.6502,22.0872
2421.8750,2.7158,7.4382,15.8054,15.2492,18.9511,7.6223,12.7493,11.8076,9.6697,-0.9012,5.4716,10.8208,15.9876,17.5284,-0.5753,1.9004,11.0967,13.4451,18.3183
2425.7812,5.1998,1.9083,8.9710,10.3543,17.0272,9.6803,16.8418,8.0839,6.6257,-0.2712,-0.6512,5.2539,13.0156,16.0135,6.2446,-8.7734,8.0687,9.9583,14.3080
2429.6875,7.2894,-2.4514,3.5433,6.7027,15.8578,8.6465,19.1278,5.0840,3.6536,1.1614,-5.5697,1.5237,11.2578,14.9176,12.3313,-16.4955,6.7157,7.3383,11.6070
2433.5938,7.9389,-4.1449,1.3598,4.8803,15.1026,4.3459,17.8296,3.2833,1.8211,2.3745,-7.1227,0.5550,10.9146,14.2317,14.4531,-18.8310,7.1542,6.2243,10.6504
2437.5000,6.7211,-2.7644,2.7666,4.4806,13.8169,-1.5253,12.9066,2.4385,1.9743,2.6198,-4.3411,1.9682,11.2547,13.2468,10.6675,-15.3164,8.3783,6.6094,10.8171
2441.4062,4.1099,0.7377,6.4853,4.6056,11.2885,-6.0257,6.5377,1.9159,4.3209,1.9415,1.9007,4.5488,11.3275,11.2599,2.0199,-7.3515,9.1131,7.9781,11.0633
2445.3125,1.1320,4.4920,10.2902,4.5128,7.6773,-6.5829,1.9691,1.1988,8.1459,1.0906,9.1334,7.0340,10.6594,8.2198,-7.5577,2.5389,8.7201,9.5921,10.6548
2449.2188,-1.3121,6.6649,12.1494,4.0130,4.0386,-2.6627,1.4169,0.2575,11.9065,0.9061,14.3796,8.6953,9.4654,4.8715,-13.3136,11.6211,7.5427,10.7720,9.5342
2453.1250,-2.9074,6.3794,11.2106,3.4296,1.7323,3.6481,4.5268,-0.4439,13.8100,1.6154,15.5397,9.4193,8.3174,2.3170,-12.4678,17.6636,6.5238,11.0681,8.1632
2457.0312,-3.8260,4.0618,8.0992,3.2139,1.6101,8.6939,8.5876,-0.3002,12.6765,2.5725,12.3530,9.3828,7.6020,1.3030,-5.8958,19.3345,6.4405,10.2998,7.0420
2460.9375,-4.2253,1.0276,4.4114,3.5198,3.4952,9.4166,10.4214,0.9582,8.6287,2.6540,6.4392,8.6868,7.2084,1.7167,2.4364,16.4001,7.3324,8.5137,6.2939
2464.8438,-3.8472,-1.3875,1.7616,4.0424,6.2621,5.2954,8.6103,2.9914,3.1571,1.0725,0.4289,7.2797,6.6568,2.6299,7.9446,9.8325,8.5033,5.9346,5.6147
2468.7500,-2.1418,-2.5686,0.9791,4.2258,8.4500,-1.2381,4.4217,4.9801,-1.5634,-1.9492,-3.3218,5.2048,5.5247,2.8663,8.2044,1.7444,9.0418,2.9511,4.5919
2472.6562,1.1230,-2.7719,1.8890,3.6860,9.0267,-6.2650,0.7471,6.0909,-3.7646,-5.1418,-3.7532,2.9029,3.8162,1.7288,4.2600,-5.0721,8.4474,0.1068,3.1271
2476.5625,5.2578,-2.6641,3.6853,2.5336,7.8598,-6.8372,-0.1467,5.9720,-2.9634,-6.8860,-1.3787,1.2189,1.9946,-0.5798,-0.3154,-8.0914,6.9202,-1.9722,1.6214
2480.4688,8.6170,-2.6608,5.5268,1.3464,5.6542,-2.8443,1.6527,4.9351,-0.1141,-6.2402,2.2211,0.9955,0.6763,-3.1069,-1.9198,-6.2008,5.1522,-2.7545,0.7575
2484.3750,9.3147,-2.5812,6.9161,0.7882,3.4492,2.9416,3.8195,3.6939,3.0473,-3.6368,5.3246,2.4910,0.2410,-4.7616,0.6755,-0.4226,3.8278,-2.0360,1.0160
2488.2812,6.3054,-1.8440,7.6910,1.1428,2.0206,6.6823,3.6835,2.8474,5.0595,-0.7526,6.8981,5.0704,0.6574,-4.9735,5.5518,6.3742,3.2289,-0.0798,2.2799
2492.1875,0.1440,0.0119,7.8131,2.1185,1.5621,5.9603,0.4764,2.4916,5.5715,0.4385,6.9583,7.4869,1.6422,-3.9560,8.9435,10.8384,3.2171,2.4790,3.8506
2496.0938,-7.0968,2.9402,7.2815,3.0977,1.8064,1.3149,-3.7898,2.2587,5.4902,-1.1095,6.3905,8.6592,3.0015,-2.4072,7.7467,10.9338,3.5594,4.9743,4.9196
2500.0000,-12.7390,6.4399,6.3033,3.6707,2.4413,-4.1515,-5.5445,1.7536,6.3907,-4.7648,6.4035,8.4472,4.8569,-0.8793,1.6414,7.1174,4.2884,7.1071,5.1975
2503.9062,-14.7299,9.9460,5.5074,4.0362,3.4712,-6.7921,-2.1635,1.0330,9.5322,-8.4420,7.8977,7.8424,7.5370,0.7054,-6.5083,2.1065,5.7613,9.1065,5.2268
2507.8125,-12.5280,13.1544,5.8226,4.9034,5.2179,-4.7176,6.0069,0.7034,14.9998,-9.7202,10.9852,8.3369,11.1679,2.9984,-12.2480,-0.7254,8.3178,11.4687,6.0720
2511.7188,-7.2336,15.9494,7.8721,6.8837,7.9286,1.0843,15.5422,1.4905,21.3953,-7.2268,14.8164,10.8088,15.2442,6.6214,-12.1922,0.6065,11.7634,14.3804,8.5023
2515.6250,-1.0020,18.0080,11.2156,9.7857,11.2815,7.4418,21.8398,3.5596,26.2465,-1.4825,17.7920,14.6664,18.5391,11.4357,-6.1619,5.4768,15.0945,17.2317,12.1941
2519.5312,3.9032,18.5301,14.0933,12.3923,14.2206,10.9586,21.7591,6.1285,27.0062,5.2885,18.1532,17.9143,19.5334,16.2566,2.5154,11.0284,16.7725,18.6571,15.5727
2523.4375,5.9880,16.5194,14.1380,13.0286,15.3703,9.9535,15.3078,7.7605,22.2672,10.2800,14.7986,18.2337,17.2165,19.3272,8.8065,13.9117,15.5027,17.2450,16.5592
2527.3438,5.0474,11.5800,9.8463,10.6599,13.8703,5.2371,5.4281,7.2468,12.6708,11.5216,7.9952,14.4664,11.8215,19.3374,8.8941,12.2834,11.0979,12.5574,13.8683
2531.2500,2.1980,4.6436,1.9063,5.8032,10.1065,-0.5827,-3.7737,4.5061,1.0135,8.8121,-0.4331,7.5400,5.0079,16.3402,2.5150,6.8160,4.8609,5.7770,8.0434
2535.1562,-0.5858,-2.0895,-6.6538,0.5381,5.7705,-4.6663,-9.1132,0.8330,-8.6830,3.6931,-7.6982,0.1571,-0.7382,11.9043,-6.7293,0.1486,-0.8547,-0.5853,1.4598
2539.0625,-1.3470,-6.2162,-11.8763,-2.5449,3.0635,-5.3792,-9.5331,-1.7740,-12.8818,-1.4657,-11.2792,-4.6525,-3.2699,8.3011,-13.3865,-4.7734,-3.7641,-3.9145,-2.8666
2542.9688,0.8240,-6.6186,-11.1445,-1.8867,3.4347,-2.8693,-6.0321,-1.8312,-10.2684,-4.7247,-10.2009,-5.2506,-1.9092,7.1751,-13.3844,-6.3481,-2.8587,-2.9831,-3.0242
2546.8750,5.0554,-4.3017,-4.8845,1.9976,6.6309,1.3073,-0.7657,0.6647,-2.5644,-5.5010,-5.6077,-2.2913,2.1207,8.5360,-6.5659,-4.9365,1.0158,1.2393,0.5828
2550.7812,8.7543,-1.8223,3.5117,6.7121,10.7200,5.0852,3.9386,4.2002,6.1724,-4.7206,-0.1973,1.7852,6.2786,10.7462,3.0511,-2.1969,5.5954,6.0503,5.3917
2554.6875,8.6909,-1.5328,9.6287,9.3655,13.1591,6.7705,6.2269,6.6975,11.5407,-4.1832,3.2452,4.3360,8.0389,11.5450,9.5282,0.2501,8.4356,8.5442,8.1847
2558.5938,2.7629,-3.8227,10.6445,8.3011,12.2833,5.5886,5.0838,6.8363,11.0421,-5.5116,3.3634,4.1346,6.2418,9.4637,8.4726,1.8371,8.2337,7.2755,7.0278
2562.5000,-8.4461,-6.6941,6.9127,4.0706,8.2814,1.8640,0.6389,4.8590,5.2902,-9.2206,0.8486,1.9660,1.6759,4.7281,-0.3647,3.0846,5.4529,3.0103,2.4115
2566.4062,-21.3241,-7.1363,1.4746,-0.9619,3.0318,-3.0962,-5.6179,2.3300,-2.5449,-14.3442,-2.2305,-0.1534,-3.4448,-0.9153,-12.9109,4.7574,1.8964,-1.8967,-3.1309
2570.3125,-30.5768,-3.4303,-2.1155,-4.1005,-1.0789,-7.3959,-11.0564,1.0428,-8.6939,-18.7925,-3.9227,-0.5397,-6.7786,-5.2899,-23.0728,6.8712,-0.4598,-5.0472,-6.6526
2574.2188,-31.7700,3.2869,-2.1105,-3.9029,-2.5625,-9.2269,-12.8444,1.8410,-10.8916,-20.2881,-3.6698,0.9257,-7.1263,-7.0525,-26.0643,8.3538,-0.6120,-5.4220,-6.5795
2578.1250,-23.7532,9.4582,0.5565,-0.8782,-1.5494,-7.6900,-9.3762,4.1449,-9.3055,-17.4747,-2.4741,2.7520,-4.9213,-6.3223,-20.7655,7.6580,1.0528,-3.7702,-3.5042
2582.0312,-9.5388,11.4002,3.3409,3.0492,0.5799,-3.3840,-1.3997,6.4480,-5.8135,-10.6849,-1.8715,2.9855,-1.7181,-4.3527,-9.8563,3.9217,3.2466,-1.8105,0.4412
2585.9375,5.0103,7.9024,4.1690,5.8263,2.2857,1.6780,8.0138,7.3692,-2.3186,-1.9605,-2.5154,0.7032,0.8846,-2.5869,2.0678,-2.1362,4.7452,-0.9159,3.0826
2589.8438,14.0833,1.2449,2.9137,6.4016,2.8474,4.9920,14.8854,6.4999,0.5767,5.7743,-3.4813,-3.2159,2.1302,-1.8064,11.0068,-8.2494,5.1138,-1.2529,3.4897
2593.7500,14.8463,-4.2016,1.1972,5.0253,2.5603,4.9541,16.4218,4.5001,3.5778,10.0643,-2.8781,-6.5858,2.2587,-1.9133,15.1635,-11.6330,4.7318,-1.9276,2.2259
2597.6562,8.7686,-4.8973,0.7945,2.7104,2.1244,1.9201,12.5199,2.4771,7.5131,10.1515,0.6502,-7.3147,1.9668,-2.3639,14.9721,-10.4357,4.2103,-1.9031,0.5647
2601.5625,0.6387,-0.5443,2.0017,0.4158,1.8223,-1.8114,5.7255,1.1734,12.0518,7.4047,6.6614,-4.7327,1.7001,-2.7938,12.0190,-4.7674,3.7473,-0.8963,-0.5913
2605.4688,-4.1099,5.7351,3.3220,-1.4193,1.1966,-3.2382,-0.3242,0.5590,15.4982,4.6344,12.9041,0.0440,1.3570,-3.3086,7.9074,3.2984,2.9613,0.4542,-1.2338
2609.3750,-2.2153,9.5955,2.7324,-2.7634,-0.5102,-0.4621,-2.9567,0.0498,15.9563,4.5798,16.6651,4.8954,0.5811,-4.2597,3.8101,10.7367,1.3148,1.2287,-1.9088
2613.2812,5.9756,8.4870,-0.4986,-3.5963,-3.5494,6.0392,-1.7309,-0.9132,12.9955,8.3628,16.5590,8.0145,-0.6969,-5.7743,0.6588,15.0075,-1.2635,1.0969,-2.9408
2617.1875,17.0588,3.3631,-4.9469,-3.7076,-7.2044,13.5145,1.7511,-2.4182,8.4350,14.7846,13.4697,8.8322,-2.0066,-7.5026,-0.6552,15.1058,-4.1193,0.6673,-3.9751
2621.0938,26.5458,-2.0893,-7.8930,-2.9165,-10.1188,18.4159,5.1380,-4.0913,5.4517,20.8978,9.9364,7.9897,-2.6525,-8.8320,0.4304,11.6907,-6.2428,1.0006,-4.2694
2625.0000,30.9843,-4.0819,-7.3125,-1.4920,-11.2149,18.3617,6.7132,-5.4806,6.4860,23.5477,8.3951,6.5210,-2.3594,-9.3985,3.5074,6.3321,-7.0101,2.6592,-3.4781
2628.9062,29.1045,-1.3024,-3.4839,-0.3162,-10.5032,13.3828,5.9898,-6.4493,11.4118,21.0042,9.5179,4.9537,-1.6887,-9.4563,6.8749,0.4407,-6.7132,5.0527,-2.2174
2632.8125,21.6723,4.3512,1.0503,-0.5173,-9.1351,5.7207,3.3823,-7.2473,17.3477,13.7661,11.8202,3.0099,-1.8070,-9.7653,8.1175,-5.4068,-6.4338,6.6333,-1.8433
2636.7188,10.5689,9.2720,3.1876,-2.7527,-8.6186,-1.6123,-0.4797,-8.2303,20.3566,4.1439,12.7778,0.0623,-3.6983,-11.0439,5.4692,-11.3504,-7.3178,5.8479,-3.5219
2640.6250,-2.0663,10.6678,1.3918,-6.6608,-9.7617,-6.5308,-5.0971,-9.4952,17.9235,-5.0202,10.6212,-4.0950,-7.3828,-13.3953,-0.8895,-17.5133,-9.7708,2.1848,-7.2783
2644.5312,-14.1356,8.2623,-3.3182,-10.9303,-12.1265,-8.7632,-9.8961,-10.7531,10.5309,-11.6626,5.5262,-8.8128,-11.7542,-16.1547,-8.5888,-23.2693,-13.1638,-3.4212,-11.7860
2648.4375,-23.4879,4.0690,-8.2058,-14.0029,-14.3923,-9.4900,-13.8714,-11.5480,1.2930,-15.1002,-0.5814,-12.8397,-15.2070,-18.2944,-14.2321,-27.1421,-16.2565,-9.0956,-15.1178
2652.3438,-27.9971,0.6125,-10.7981,-14.9567,-15.3433,-10.1572,-15.6675,-11.6402,-6.0285,-15.7531,-5.3621,-15.0586,-16.6383,-19.1038,-15.3365,-27.5116,-18.0112,-13.0724,-15.9493
2656.2500,-26.2120,-0.9527,-10.5184,-13.9870,-14.7384,-11.3983,-14.2827,-11.2447,-9.2225,-14.4187,-7.5132,-15.1471,-16.1199,-18.6590,-11.8342,-23.6963,-18.2080,-14.5814,-14.3594
2660.1562,-18.3736,-1.4510,-8.8179,-12.1939,-13.4357,-12.8050,-9.9510,-10.9429,-8.6082,-11.7497,-7.3333,-13.6910,-14.7773,-17.7591,-6.1627,-16.6438,-17.4553,-14.0558,-11.6772
2664.0625,-7.0473,-2.7341,-7.8466,-10.8749,-12.7197,-13.5956,-4.4583,-11.3426,-6.3326,-8.2799,-6.1489,-11.7223,-13.9882,-17.3891,-1.8892,-8.6684,-16.6624,-12.6593,-9.5395
2667.9688,3.3739,-6.0592,-8.7923,-10.8269,-13.3667,-13.5569,-0.4752,-12.7360,-4.7182,-4.8069,-5.2031,-10.0777,-14.4922,-18.0938,-1.7433,-2.3127,-16.4161,-11.5632,-8.8826
2671.8750,8.3997,-11.0852,-11.1719,-12.0806,-15.1394,-13.4656,-0.2037,-14.9720,-4.9206,-2.5950,-4.9148,-9.0565,-16.0217,-19.6670,-6.2472,0.9577,-16.7043,-11.4624,-9.5769
2675.7812,5.6325,-16.1587,-13.5174,-14.1233,-17.0304,-14.6252,-4.1786,-17.5706,-6.7093,-3.0037,-4.9829,-8.5613,-17.6365,-21.3115,-13.6627,1.3649,-17.0974,-12.5113,-10.8588
2679.6875,-3.8454,-19.5123,-14.7616,-16.3216,-17.9995,-17.8391,-10.9934,-19.9396,-9.2113,-6.6590,-5.0652,-8.4946,-18.4294,-22.1015,-21.1043,0.3387,-17.1333,-14.5086,-12.0922
2683.5938,-15.8349,-20.3609,-15.1201,-18.1946,-17.6184,-22.5788,-18.0971,-21.5342,-11.7702,-12.7496,-5.3082,-8.9937,-18.0483,-21.4300,-26.0162,-0.6762,-16.5557,-17.0405,-13.1896
2687.5000,-25.0929,-19.1038,-15.7464,-19.4107,-16.1793,-26.9890,-23.0936,-21.9191,-14.1690,-19.0683,-6.2144,-10.2636,-16.7112,-19.2122,-27.1572,-1.2304,-15.2725,-19.4695,-14.3853
2691.4062,-28.0104,-16.6520,-17.4910,-19.6625,-14.2861,-28.7983,-24.7207,-20.8123,-16.1798,-22.9502,-7.9766,-12.1497,-14.8286,-15.8243,-24.7078,-1.9451,-13.2020,-20.9170,-15.6431
2695.3125,-24.3652,-13.5932,-19.8481,-18.6597,-12.3383,-26.5902,-23.0189,-18.1891,-17.0596,-22.6219,-9.9275,-13.8602,-12.6378,-11.9084,-19.7093,-3.6252,-10.2708,-20.4638,-16.3117
2699.2188,-17.1252,-9.9374,-21.0298,-16.3184,-10.3326,-20.6479,-18.8348,-14.4125,-15.6618,-18.1302,-10.6985,-14.1719,-10.1655,-8.1693,-13.3582,-6.1562,-6.6333,-17.5985,-15.4217
2703.1250,-10.4552,-5.5924,-19.1939,-12.9785,-8.0828,-12.8604,-13.2106,-10.2466,-11.2341,-11.2504,-9.0892,-12.0915,-7.4846,-5.1999,-6.5926,-8.1416,-2.8899,-12.6537,-12.4532
2707.0312,-7.1641,-1.0477,-13.9109,-9.3921,-5.5839,-5.7606,-7.1215,-6.6341,-4.2896,-4.4276,-5.0184,-7.5617,-4.9407,-3.3105,-0.0804,-7.6999,0.0167,-6.8616,-7.9513
2710.9375,-7.1565,2.4392,-6.7256,-6.3918,-3.1483,-1.2695,-1.5699,-4.2879,3.2492,0.5668,0.2179,-1.7053,-3.0490,-2.3865,5.5678,-3.9140,1.3099,-1.8637,-3.4255
2714.8438,-7.7960,3.4281,-0.3318,-4.4231,-1.1793,0.1556,2.3346,-3.3202,8.9208,3.4156,4.6611,3.6261,-2.0871,-1.8756,9.6366,2.1630,0.9922,1.1030,-0.4998
2718.7500,-5.8800,1.2629,3.0902,-3.2869,0.2026,-0.4437,3.6589,-3.1703,11.1020,5.0384,6.9171,6.7816,-1.7282,-1.0080,11.3763,7.8202,0.0581,1.8500,0.1239
2722.6562,0.0685,-3.3118,3.2079,-2.3130,1.3101,-1.2408,2.2468,-2.9245,9.9440,6.6247,7.0116,7.1697,-1.1012,0.7818,10.3103,10.2608,0.0111,1.2860,-0.8631
2726.5625,8.6513,-8.3751,1.6231,-0.8787,2.6292,-0.6387,-0.8224,-1.8643,7.1969,8.6467,6.2436,5.5309,0.6489,3.4445,6.6283,8.4136,1.8926,0.8233,-1.8451
2730.4688,16.3002,-11.7748,0.6878,1.0844,4.3212,1.9514,-3.4233,0.0843,5.0450,10.5358,6.1430,3.4623,3.6468,6.1958,1.4199,3.6995,5.4533,1.5143,-1.3989
2734.3750,19.3803,-12.1775,1.9018,2.9583,5.8935,5.9139,-3.3288,2.2790,4.7669,11.2006,7.3020,2.4875,6.9512,7.8325,-3.4798,-0.8462,9.0925,3.4578,0.7020
2738.2812,16.3877,-9.5859,4.9817,3.7879,6.3572,9.8332,0.5481,3.7073,6.1264,9.9594,8.9495,3.2267,8.9228,7.3523,-6.1067,-2.5395,10.7047,5.8197,3.2891
2742.1875,8.9121,-5.0930,8.1754,2.8881,4.8287,12.2401,7.3688,3.5410,7.8335,7.1935,9.5848,5.1423,8.1448,4.5338,-5.2524,-0.7496,8.9527,7.4142,4.5480
2746.0938,0.8116,-0.1404,9.5383,0.3161,1.1917,12.3241,14.5958,1.5796,8.6556,4.2511,8.2164,6.9832,4.3493,0.1269,-1.1689,2.8446,4.1646,7.4573,3.2299
2750.0000,-3.8775,4.2195,8.2910,-3.0780,-3.6370,10.2940,19.1905,-1.6412,8.3547,2.6696,5.3084,7.6418,-1.2288,-4.4536,4.3934,5.6006,-1.7227,6.0492,-0.4482
2753.9062,-3.0619,7.6861,5.4080,-6.0256,-8.0320,7.2534,19.1544,-5.0918,7.8371,3.2519,2.7421,6.9125,-6.3098,-7.7417,8.9955,5.8815,-6.1371,4.1507,-4.7667
2757.8125,2.4526,10.6252,3.1232,-7.3935,-10.3863,4.6788,14.5709,-7.6764,8.5024,5.6149,2.7852,5.7096,-8.5889,-8.7855,10.8204,4.2389,-7.1561,3.1235,-7.3330
2761.7188,9.6344,13.6987,3.7022,-6.6101,-9.8083,3.7582,7.5834,-8.6258,11.3119,8.4903,6.7270,5.6097,-6.7638,-7.3862,9.7205,2.9860,-4.3487,4.1071,-6.2821
2765.6250,15.0440,17.4219,8.1975,-3.7826,-6.4179,4.8995,1.3320,-7.7033,16.1931,10.5545,14.0404,7.9651,-1.0546,-3.9677,7.2852,4.4967,1.2357,7.5248,-1.1887
2769.5312,16.7011,21.8156,15.8376,0.4723,-1.1452,7.6267,-1.5788,-5.1871,22.0840,11.2278,22.5670,13.0699,6.9834,0.7476,5.7880,9.4531,7.7904,12.9013,6.7518
2773.4375,14.9514,26.2762,24.3186,5.3353,4.7688,10.8836,-0.2901,-1.6846,27.4786,10.9329,29.5728,19.8453,15.1810,6.0292,6.6418,16.2540,13.6618,19.0242,15.2982
2777.3438,11.9268,29.7641,30.8219,10.0664,10.2632,13.5605,4.0228,2.1229,31.0920,10.6820,33.0326,26.2392,21.6254,11.2729,9.3983,21.9443,17.9329,24.3718,22.1563
2781.2500,10.0275,31.3122,33.2654,14.1673,14.7179,14.9643,8.8971,5.7032,32.3121,11.3064,32.4456,30.1519,25.2990,16.0070,12.0254,23.9716,20.4823,27.6565,25.9032
2785.1562,10.3976,30.6539,31.2145,17.4065,17.9537,15.0098,11.9492,8.7810,31.3178,12.8679,28.8362,30.4140,26.2734,19.8687,12.3329,21.5800,21.6707,28.2873,26.4463
2789.0625,12.3267,28.5759,26.0290,19.7330,20.0706,14.0948,12.1280,11.2923,28.9177,14.6513,24.0745,27.3032,25.4550,22.6113,9.5841,16.0057,21.9596,26.5596,24.8639
2792.9688,13.9154,26.6411,20.1623,21.1363,21.2581,12.8002,10.1749,13.2261,26.2140,15.7444,19.9674,22.3334,24.0411,24.1236,5.1523,9.5188,21.6820,23.4706,22.7531
2796.8750,13.5591,26.2837,15.9372,21.5332,21.6572,11.6203,8.0341,14.4659,24.1812,15.8042,17.5788,17.4486,22.9381,24.4153,1.7187,4.0926,20.9937,20.2254,21.4186
2800.7812,11.2846,27.7787,14.4198,20.7644,21.3071,10.8486,7.5478,14.7630,23.2710,15.4648,17.0221,14.0747,22.3914,23.5674,1.5314,0.5814,19.9228,17.6781,21.2965
2804.6875,9.0397,29.8243,15.0093,18.7341,20.1793,10.5995,9.2217,13.8975,23.2063,16.0540,17.6902,12.5460,21.9883,21.6985,4.9109,-1.2160,18.4351,16.0060,21.8792
2808.5938,9.6637,30.1884,15.9860,15.6229,18.2820,10.8507,11.8479,11.9393,23.1205,18.7266,18.7109,12.1827,21.0161,18.9968,10.0149,-1.8960,16.5036,14.7943,22.1477
2812.5000,15.0943,27.1458,15.6993,12.0159,15.7871,11.4290,13.2853,9.4162,22.0453,23.5355,19.3782,11.9106,18.9761,15.7932,13.9925,-1.8061,14.1902,13.4573,21.2430
2816.4062,24.8962,20.7863,13.6551,8.8002,13.0909,11.9698,11.9569,7.2151,19.5190,29.0626,19.3867,11.0034,15.9559,12.5835,14.7140,-0.8536,11.7132,11.7104,18.9778
2820.3125,36.0696,13.2244,10.7998,6.8164,10.7321,11.9699,8.1069,6.2065,15.9388,32.9417,18.8143,9.4982,12.6325,9.9205,11.9375,1.2350,9.4317,9.7807,15.8993
2824.2188,44.3654,7.4310,8.8060,6.4376,9.1702,11.0013,3.9341,6.7818,12.3877,33.0738,17.9121,8.0656,9.9006,8.1972,7.2424,4.5246,7.7060,8.2313,12.9009
2828.1250,46.4166,5.3831,8.8406,7.3407,8.5357,9.0110,2.4003,8.5915,9.9965,28.8683,16.8361,7.4701,8.3524,7.4541,2.9383,8.6583,6.6941,7.5407,10.6635
2832.0312,41.4626,6.7876,10.6666,8.6482,8.5220,6.4942,5.3943,10.6728,9.2314,21.7554,15.4761,7.9888,7.9338,7.3591,0.7728,12.8843,6.2197,7.7408,9.2973
2835.9375,31.6577,9.2989,12.7173,9.3899,8.5222,4.3511,12.4093,11.9205,9.5891,14.5828,13.4854,9.1572,7.9903,7.3970,1.2263,16.1985,5.8320,8.3600,8.3942
2839.8438,20.7922,10.1231,13.1192,9.0183,7.9672,3.4273,20.6224,11.6382,9.9236,10.1519,10.5101,9.9809,7.6663,7.1574,3.6226,17.5010,5.0486,8.7022,7.4097
2843.7500,12.2164,7.9095,10.9766,7.6706,6.6727,3.9871,26.3840,9.8611,9.2060,9.6808,6.4998,9.4806,6.4101,6.5339,6.7157,15.8252,3.6417,8.2657,6.0842
2847.6562,7.2188,3.6101,7.0456,6.0362,4.9861,5.4803,27.2188,7.2905,7.2160,12.0753,1.9171,7.2581,4.2885,5.7206,9.2433,10.7539,1.7873,7.0399,4.6257
2851.5625,4.7767,-0.2728,3.3384,4.9460,3.6371,6.8145,23.1191,4.9195,4.7068,14.4585,-2.3059,3.7874,1.9544,5.0445,10.2124,2.9595,-0.0108,5.5162,3.5724
2855.4688,2.7032,-1.4873,1.9184,4.9565,3.3762,7.0238,16.3873,3.5868,2.9347,13.6974,-5.0966,0.2873,0.3193,4.7845,9.0279,-5.4868,-1.1618,4.4371,3.4768
2859.3750,-0.6712,0.4069,3.6673,6.1563,4.6019,5.9169,10.2164,3.6832,2.8541,8.0889,-5.7358,-1.7710,0.1264,5.0994,5.6632,-11.4931,-1.2427,4.4359,4.6233
2863.2812,-5.4232,3.7770,7.7819,8.2325,7.1647,4.2521,6.9469,5.0948,4.4777,-1.7296,-4.2821,-1.3197,1.6244,6.0591,0.8363,-12.1679,-0.1412,5.7364,6.9053
2867.1875,-10.2258,6.0475,12.2484,10.6583,10.4204,3.2575,7.0219,7.3171,6.7800,-13.1279,-1.6882,1.7567,4.4583,7.6679,-4.0854,-6.4404,1.9396,8.0173,9.8454
2871.0938,-13.5661,5.3514,14.9327,12.8410,13.4742,3.7512,9.0994,9.6291,8.1879,-22.8615,0.5164,6.4268,7.7875,9.7902,-7.6548,3.8428,4.5605,10.4740,12.6881
2875.0000,-15.0550,1.5680,14.6176,14.1880,15.4954,5.4259,11.0243,11.2687,7.3865,-28.6829,0.8996,10.8180,10.5838,12.0293,-9.1889,14.2181,7.1511,12.0721,14.5503
2878.9062,-15.8665,-3.8220,11.4634,14.1824,15.9883,6.8095,10.9456,11.6185,4.0296,-30.3087,-1.1239,12.9743,12.0234,13.7237,-9.2962,19.4837,9.1323,11.9486,14.6796
2882.8125,-17.9771,-8.7457,6.7825,12.5648,14.9509,6.0157,7.9966,10.4139,-0.9793,-29.2768,-4.8520,11.7924,11.8486,14.1918,-9.5546,16.3590,10.0719,9.8508,12.8262
2886.7188,-22.7263,-11.5828,2.3845,9.5825,12.8788,1.8890,2.4127,7.9097,-5.7687,-27.8808,-8.4654,7.6944,10.5395,13.1564,-11.3757,5.4878,9.8546,6.4145,9.5756
2890.6250,-29.6943,-11.6172,-0.1447,6.1155,10.5971,-5.1474,-4.6756,4.8850,-8.2478,-27.8631,-9.8356,2.6260,9.1630,11.0744,-14.7951,-8.4770,8.7786,3.0732,6.3667
2894.5312,-36.6953,-8.8960,0.0233,3.4767,8.9478,-13.0944,-11.5225,2.3984,-7.0422,-29.6147,-7.6419,-0.7548,8.8959,9.0688,-18.1547,-18.9854,7.4771,1.5162,4.9970
2898.4375,-40.9481,-3.9704,2.7041,2.8687,8.4351,-19.2979,-16.1067,1.3467,-2.2259,-32.2650,-2.2272,-0.3945,10.4138,8.3869,-19.1163,-20.9167,6.6497,2.8693,6.7290
2902.3438,-40.7222,2.0916,6.7442,4.7407,8.9898,-21.7960,-16.6767,2.0305,4.5144,-34.4971,4.3344,3.9897,13.4682,9.6502,-16.4602,-13.3446,6.7189,7.0006,11.4551
2906.2500,-36.4495,7.5266,10.3770,8.4294,9.9954,-20.3323,-12.5182,3.9720,10.4535,-35.5154,9.1037,10.5707,16.9234,12.3712,-11.4089,-0.1671,7.6128,12.3762,17.4775
2910.1562,-30.6192,10.0262,11.8531,12.3519,10.5901,-16.4539,-4.6173,6.1132,12.9675,-35.5577,9.6999,16.1895,19.2765,15.1022,-7.3777,11.8452,8.8147,16.6417,22.1716
2914.0625,-26.5102,7.5618,10.1644,14.7047,10.0956,-12.6459,4.3048,7.3075,10.7340,-35.6651,5.5294,17.9136,19.3926,16.1951,-8.0729,16.5832,9.6640,17.6954,23.2540
2917.9688,-26.4852,-0.3853,5.5362,14.3100,8.3351,-11.0074,10.6939,6.8548,4.3697,-36.8963,-1.8845,14.5540,17.0407,14.7386,-15.0518,11.7960,9.7304,14.7040,19.9529
2921.8750,-30.7959,-12.0112,-0.6163,11.1501,5.6635,-12.2244,11.7424,4.8037,-3.8753,-39.5135,-9.6922,7.2859,12.9361,11.0961,-26.3618,0.1807,9.0416,8.5073,13.3807
2925.7812,-37.5278,-23.5642,-6.3160,6.3104,2.7186,-15.3888,6.8464,1.8894,-11.2377,-42.6716,-15.1985,-0.9956,8.2971,6.6981,-37.2765,-12.2251,8.0451,1.1884,5.8790
2929.6875,-43.6631,-30.9531,-9.9338,1.3922,0.0734,-18.7001,-1.9309,-0.8343,-15.7644,-44.8271,-17.1842,-7.2255,4.2118,3.2116,-42.8052,-19.4090,7.3399,-4.9484,-0.2565
2933.5938,-46.6487,-31.7382,-10.8793,-2.2614,-1.9861,-20.5744,-10.7507,-2.4664,-17.0983,-44.6313,-16.3209,-9.7349,1.1826,1.5940,-40.4840,-18.5699,7.3346,-8.4314,-3.8980
2937.5000,-45.6282,-26.2900,-9.6953,-4.1163,-3.4557,-20.4862,-15.8160,-2.6128,-16.3198,-41.7610,-14.4952,-8.9518,-0.9472,1.5989,-31.7524,-11.3271,7.9953,-9.1677,-5.4226
2941.4062,-41.7142,-17.3934,-7.5637,-4.5324,-4.4515,-19.0857,-15.1406,-1.4901,-15.0326,-37.1634,-13.5283,-6.8937,-2.7398,1.9984,-21.1083,-2.3609,8.7872,-8.2650,-6.1701
2945.3125,-37.2128,-8.6002,-5.6004,-4.4080,-5.0605,-17.6027,-9.3484,0.2328,-14.3399,-32.5421,-14.1174,-5.8393,-4.8008,1.3509,-13.6096,3.5634,8.8339,-7.3143,-7.4742
2949.2188,-34.2543,-2.4363,-4.4016,-4.6246,-5.3194,-16.9777,-1.1769,1.7622,-14.3601,-29.3776,-15.6232,-7.0231,-7.5062,-1.1623,-12.2423,4.3042,7.2585,-7.5675,-9.9055
2953.1250,-33.5831,0.4249,-4.0541,-5.5862,-5.2917,-17.2821,5.9215,2.5321,-14.5031,-28.0765,-16.7374,-10.1093,-10.8770,-5.2971,-16.6274,1.1615,3.6114,-9.4123,-13.1196
2957.0312,-34.1556,0.6969,-4.4452,-7.0583,-5.1170,-17.7551,9.2863,2.4298,-14.1786,-27.7715,-16.4913,-13.6516,-14.5537,-9.8936,-23.6181,-2.5429,-1.7751,-12.3161,-16.2403
2960.9375,-33.7533,-0.6632,-5.5085,-8.3417,-4.9374,-17.3674,7.9729,1.7995,-13.3410,-26.8951,-14.9001,-16.1189,-17.8277,-13.4611,-29.2006,-4.0126,-7.7064,-15.1576,-18.3930
2964.8438,-30.2695,-3.2633,-7.1694,-8.6627,-4.7376,-15.5013,2.8368,1.2204,-12.4664,-24.1658,-12.8440,-16.7681,-19.7631,-14.8498,-30.4874,-2.8688,-12.4585,-16.7209,-19.0218
2968.7500,-22.9592,-7.1561,-9.0789,-7.5741,-4.2449,-12.3075,-4.0525,1.1712,-12.0326,-19.3695,-11.3412,-15.8405,-19.4642,-13.6824,-26.7676,-1.1497,-14.4670,-16.1413,-17.8984
2972.6562,-12.9588,-12.0488,-10.4631,-5.1758,-3.0199,-8.5535,-10.3028,1.7635,-11.9617,-13.4630,-10.7613,-14.0790,-16.4535,-10.3991,-19.3136,-1.5494,-13.0725,-13.1793,-14.9974
