Time,Fp1,F3,C3,P3,O1,F7,T3,T5,Fz,Fp2,F4,C4,P4,O2,F8,T4,T6,Cz,Pz
0.0000,-1.2232,-2.9649,-1.9207,-2.0731,-2.7703,-3.1968,-2.4637,-2.2855,-1.7098,-0.9806,-1.5768,-1.9979,0.0077,-1.4838,-0.9488,2.1826,-0.9806,-1.4439,-1.1330
3.9062,-0.1826,-1.6437,0.6205,1.1013,-0.2671,-2.5584,-0.8274,0.7580,-0.7015,0.4925,0.0514,-1.1414,0.5764,-0.9111,0.2082,2.0800,-0.5993,-0.2682,1.0855
7.8125,1.9208,0.4245,3.8242,5.5711,3.1550,-1.4166,1.2276,5.1483,0.9302,2.8470,2.4153,0.3020,1.5070,0.4025,1.0994,1.0631,-0.1487,1.2949,4.0703
11.7188,5.0170,2.9407,6.6800,10.2430,6.7239,0.2412,2.9835,9.6463,3.0407,5.8754,5.1015,2.1834,2.7793,2.3779,1.5629,-0.7814,0.2474,2.9908,7.0690
15.6250,8.3504,5.3798,8.2638,13.7646,9.5537,2.2671,3.8175,12.7067,5.2077,8.9250,7.4422,4.1942,4.2648,4.6301,1.7867,-2.8024,0.5248,4.5398,9.2929
19.5312,10.6436,7.1955,8.2523,15.1444,11.0256,4.3369,3.5390,13.2452,6.8359,10.9958,8.7226,5.9483,5.7146,6.6147,2.0854,-4.1051,0.7221,5.7151,10.2775
23.4375,10.7150,8.0570,7.0950,14.2221,11.0292,6.0140,2.4707,11.2083,7.4087,11.1349,8.4735,7.0923,6.7922,7.8650,2.5504,-4.0823,0.9446,6.3779,10.0428
27.3438,8.2331,7.9727,5.7150,11.7159,9.9434,6.8863,1.2349,7.5971,6.7564,8.9809,6.7200,7.4120,7.1584,8.1817,2.8724,-2.8038,1.2620,6.4742,8.9725
31.2500,4.1074,7.2171,4.9145,8.8125,8.3938,6.7257,0.4005,3.9236,5.1640,5.1329,4.0363,6.9087,6.5843,7.6664,2.5222,-0.9951,1.6093,6.0126,7.5139
35.1562,0.1807,6.1184,4.8650,6.5308,6.9400,5.6038,0.2204,1.4293,3.2340,1.0506,1.3447,5.8212,5.0518,6.6017,1.1920,0.3977,1.7729,5.0500,5.9105
39.0625,-1.6777,4.8715,5.0169,5.2271,5.8672,3.9095,0.5969,0.5277,1.5818,-1.5521,-0.4589,4.5750,2.7996,5.2767,-0.8197,0.7775,1.5031,3.6970,4.1403
42.9688,-0.5574,3.5304,4.4920,4.5219,5.1710,2.2555,1.2416,0.7727,0.5644,-1.5275,-0.8631,3.6536,0.2866,3.8825,-2.5981,0.2358,0.7050,2.1342,2.0798
46.8750,3.0271,2.1847,2.7068,3.6730,4.7000,1.2897,1.8735,1.3047,0.2171,1.1309,0.1083,3.4162,-1.9274,2.5291,-3.0431,-0.5391,-0.4110,0.6173,-0.2451
50.7812,7.4625,1.1484,-0.1762,2.1480,4.3358,1.4610,2.3176,1.4402,0.4048,5.2918,2.0064,3.9213,-3.3531,1.3300,-1.4960,-0.7081,-1.3410,-0.5561,-2.5164
54.6875,10.9093,0.9384,-3.2622,0.0346,4.0896,2.8085,2.4816,1.0254,1.0273,9.2476,4.2227,4.8429,-3.7443,0.4500,1.8338,0.2172,-1.5006,-1.1275,-4.2037
58.5938,12.1523,1.9583,-5.3925,-1.9661,4.0723,4.8657,2.3052,0.3836,2.0749,11.4917,6.2192,5.5468,-3.2015,0.0490,5.9176,2.1135,-0.5489,-0.9854,-4.8279
62.5000,10.9464,4.0602,-5.7775,-2.9502,4.3817,6.7571,1.7761,-0.0244,3.4737,11.2805,7.5974,5.3345,-2.1528,0.1584,9.3973,4.3471,1.3623,-0.2497,-4.2412
66.4062,7.7919,6.3273,-4.4154,-2.3637,4.9980,7.5065,1.0152,0.0602,4.8645,8.7514,8.0346,3.7702,-1.1959,0.5991,11.2142,6.1280,3.5832,0.7216,-2.7471
70.3125,3.4700,7.3401,-2.0736,-0.3570,5.7571,6.4646,0.3230,0.5778,5.5605,4.6716,7.2353,0.9430,-0.8495,1.0340,11.0155,6.8892,5.2459,1.4356,-0.9853
74.2188,-1.2501,5.8861,0.1195,2.2666,6.4106,3.6586,0.0759,1.2754,4.8174,0.0766,5.0233,-2.4853,-1.3208,1.1456,9.1588,6.4993,5.6985,1.4496,0.3538
78.1250,-5.5971,1.7230,1.2071,4.4581,6.7266,-0.1441,0.4784,1.9088,2.3019,-3.9993,1.5559,-5.5004,-2.4029,0.8278,6.4011,5.2461,4.8528,0.5618,0.8298
82.0312,-8.6931,-4.0977,0.7799,5.4317,6.5724,-3.7463,1.3279,2.3465,-1.5548,-6.6808,-2.5123,-7.1429,-3.5655,0.2546,3.5236,3.6581,3.2397,-1.0828,0.4188
85.9375,-9.6848,-9.6159,-0.9464,4.9907,5.9474,-6.0775,2.0045,2.5289,-5.6010,-7.4068,-6.1082,-6.9104,-4.1990,-0.2280,1.1065,2.2737,1.7337,-3.0244,-0.5128
89.8438,-8.1807,-12.8781,-3.2986,3.5239,4.9716,-6.6959,1.7784,2.3896,-8.4411,-6.1293,-8.1107,-4.9511,-3.8919,-0.3151,-0.4960,1.4526,1.0995,-4.6431,-1.3883
93.7500,-4.6907,-12.8536,-5.4094,1.7396,3.8504,-5.9294,0.3008,1.8673,-9.0803,-3.4380,-7.8449,-1.9535,-2.6009,0.0840,-1.0892,1.2785,1.6193,-5.3656,-1.6587
97.6562,-0.6119,-9.8201,-6.4573,0.3277,2.8270,-4.5621,-2.0280,1.0266,-7.3542,-0.4130,-5.4132,1.1973,-0.6390,0.8212,-0.6122,1.5702,3.0016,-4.8420,-1.0056
101.5625,2.4173,-5.0388,-5.8609,-0.2724,2.1173,-3.2676,-4.1052,0.1608,-3.9122,1.8474,-1.6542,3.7965,1.4825,1.6301,0.8084,1.9951,4.5960,-3.0453,0.5426
105.4688,3.4598,-0.0038,-3.4558,0.0589,1.8289,-2.1770,-4.6448,-0.2794,0.1746,2.8011,2.2517,5.5273,3.2535,2.2823,2.7990,2.2369,5.7599,-0.2904,2.5993
109.3750,2.8561,4.2123,0.3543,1.1574,1.8939,-0.8920,-2.9202,0.0464,3.8821,2.7398,5.2912,6.4136,4.2991,2.6669,4.7779,2.1391,6.1516,2.8111,4.5157
113.2812,1.9482,7.1409,4.5697,2.6370,2.0688,1.0557,0.7007,1.0723,6.4958,2.5103,6.9500,6.6019,4.4154,2.7584,6.1184,1.7398,5.8025,5.4586,5.5737
117.1875,2.0649,8.6545,7.8071,3.9562,2.0412,3.6369,4.7864,2.2503,7.6107,2.8088,7.2202,6.1576,3.5517,2.5430,6.3571,1.1761,4.9751,6.8457,5.2374
121.0938,3.4738,8.6249,8.7738,4.5320,1.6145,6.0940,7.4845,2.8202,7.0342,3.5439,6.3636,5.0259,1.8010,1.9993,5.3297,0.5298,3.9442,6.4104,3.3825
125.0000,5.0858,6.8747,6.8445,3.9330,0.8723,7.2794,7.4607,2.2959,4.7969,3.7790,4.6517,3.1702,-0.5820,1.1690,3.1690,-0.2592,2.8536,4.0814,0.3945
128.9062,5.1758,3.4847,2.4459,2.0987,0.1997,6.3775,4.6246,0.8430,1.2947,2.3645,2.2660,0.7533,-3.1825,0.2468,0.2003,-1.3273,1.7175,0.3939,-2.9375
132.8125,2.6174,-0.8538,-3.0057,-0.5479,0.1062,3.5181,0.2267,-0.7435,-2.6266,-1.1684,-0.6256,-1.8115,-5.5056,-0.4239,-3.1731,-2.7121,0.5220,-3.6394,-5.7181
136.7188,-2.2807,-4.8584,-7.6534,-3.2125,0.9260,-0.1875,-3.7474,-1.4881,-5.8707,-6.1346,-3.7474,-4.0122,-7.1371,-0.4983,-6.5333,-4.2172,-0.6772,-6.9018,-7.3040
140.6250,-7.9669,-7.1959,-9.9937,-5.0557,2.5730,-3.2707,-5.5692,-0.8341,-7.5845,-11.0500,-6.7009,-5.5053,-7.9028,0.1513,-9.4692,-5.4631,-1.7340,-8.6387,-7.5428
144.5312,-12.7092,-7.2520,-9.5139,-5.5679,4.5272,-4.8020,-4.6159,1.0119,-7.6644,-14.5926,-9.0847,-6.3016,-7.9128,1.3049,-11.6149,-6.1252,-2.4707,-8.7693,-6.7599
148.4375,-15.6964,-5.5772,-6.8402,-4.7706,6.0933,-4.9429,-1.6229,3.2255,-6.8710,-16.4414,-10.6485,-6.7161,-7.4401,2.4725,-12.7295,-6.1920,-2.7604,-7.8504,-5.5049
152.3438,-17.3127,-3.6093,-3.3383,-3.1223,6.7912,-4.7432,1.7768,4.8971,-6.3661,-17.3098,-11.3423,-7.0920,-6.7056,3.1604,-12.7722,-6.0180,-2.5776,-6.6981,-4.2129
156.2500,-18.3892,-2.7707,-0.4084,-1.2071,6.6302,-5.2923,3.9515,5.5781,-6.9008,-18.0969,-11.2225,-7.4823,-5.7256,3.1609,-11.8921,-6.0797,-1.9990,-5.8853,-2.9915
160.1562,-19.0841,-3.5106,1.1305,0.5690,6.0779,-6.8049,4.0998,5.4659,-8.2033,-18.8126,-10.3119,-7.5262,-4.3464,2.6674,-10.3023,-6.5782,-1.1765,-5.4267,-1.6599
164.0625,-18.3893,-4.9610,1.2638,2.0691,5.7297,-8.3060,2.5598,5.1242,-9.0473,-18.1996,-8.5652,-6.6384,-2.4518,2.1294,-8.1167,-7.1916,-0.3024,-4.8509,0.0015
167.9688,-14.7984,-5.4844,0.5633,3.2742,5.8967,-8.1960,0.4611,4.9731,-8.0381,-14.5128,-5.9983,-4.4178,-0.1869,1.9427,-5.2939,-7.2103,0.4313,-3.6060,1.9768
171.8750,-7.7294,-3.7868,-0.2662,4.0617,6.3893,-5.3696,-1.0352,4.9406,-4.6310,-7.0239,-2.8837,-1.0157,1.9921,2.1876,-1.7765,-6.0190,0.8889,-1.5228,3.9164
175.7812,1.4030,0.1393,-0.7786,4.1425,6.6513,-0.1519,-1.4347,4.5288,0.3206,2.8445,0.1790,2.7889,3.5144,2.5949,2.2416,-3.6094,1.0506,0.9825,5.2923
179.6875,9.4352,4.8812,-0.9152,3.2488,6.1511,5.6112,-1.1291,3.2312,4.9124,11.7346,2.4417,5.8865,4.0204,2.7582,6.1307,-0.7370,1.0346,3.1057,5.7022
183.5938,13.0798,8.3887,-0.8722,1.4422,4.7584,9.4449,-1.0295,0.9795,7.2574,16.0167,3.3743,7.3521,3.5878,2.4352,8.9316,1.4365,1.0373,4.1227,5.1116
187.5000,10.9447,9.1770,-0.8602,-0.7249,2.8420,9.6158,-1.8706,-1.7134,6.6008,13.9463,2.9884,6.8833,2.6791,1.7273,9.7834,2.0151,1.2026,3.8163,3.8666
191.4062,4.5740,7.1845,-0.9353,-2.3782,1.0309,6.1528,-3.6442,-4.0113,3.7639,6.9038,1.8845,4.9177,1.8321,1.0129,8.4534,0.9084,1.4949,2.5901,2.4723
195.3125,-2.2733,3.7662,-0.9805,-2.7614,-0.1821,0.8861,-5.5310,-5.2161,0.6379,-1.1806,0.9531,2.3736,1.3046,0.6892,5.6186,-1.1300,1.6810,1.2128,1.2995
199.2188,-5.7172,0.8699,-0.7983,-1.6635,-0.6994,-3.5285,-6.3720,-5.1074,-0.9219,-5.9554,0.8965,0.1835,0.9331,0.9051,2.6474,-2.9945,1.4645,0.3818,0.4258
203.1250,-3.9154,-0.0567,-0.2179,0.4681,-0.7638,-5.0218,-5.3811,-3.9472,-0.0919,-5.0405,1.8619,-1.1131,0.3149,1.4656,0.9336,-3.9089,0.7055,0.3932,-0.2841
207.0312,2.0577,1.2401,0.8473,2.8221,-0.6526,-3.1357,-2.6446,-2.1978,2.6261,0.7761,3.4092,-1.5081,-0.8116,1.9664,1.1412,-3.8343,-0.4255,1.1011,-0.9402
210.9375,9.0777,3.8806,2.3879,4.7229,-0.3809,0.9006,0.9039,-0.2007,5.8987,8.2152,4.8163,-1.3625,-2.2624,2.0611,2.8178,-3.3499,-1.4874,2.1351,-1.4258
214.8438,13.9150,6.5271,4.2965,5.9857,0.3358,5.0220,4.0077,1.9456,8.4263,13.5316,5.5142,-1.0807,-3.4110,1.6853,4.6364,-3.1359,-2.0030,3.1825,-1.4052
218.7500,14.9661,8.1886,6.3581,6.8864,1.8133,7.5459,5.7749,4.2512,9.5945,14.5694,5.3806,-0.8299,-3.5153,1.1005,5.1476,-3.4548,-1.7378,4.1338,-0.5456
222.6562,12.7679,8.6671,8.2641,7.7992,4.0288,8.0254,6.1057,6.6005,9.5642,11.6341,4.7373,-0.4566,-2.1633,0.7393,3.6084,-3.9993,-0.8313,5.0299,1.2022
226.5625,9.1973,8.4542,9.6866,8.8020,6.4492,7.2781,5.6205,8.6387,8.8861,6.8446,4.0953,0.3768,0.4515,0.9525,0.4023,-4.1770,0.3204,5.9037,3.4772
230.4688,6.1050,8.2451,10.4045,9.5667,8.2289,6.6556,5.1751,9.8916,8.0163,2.6107,3.8391,1.9316,3.5922,1.8038,-3.1808,-3.5883,1.3430,6.6710,5.6434
234.3750,4.3502,8.4343,10.4102,9.6195,8.6753,7.0659,5.2978,10.0340,7.0839,0.3124,4.0380,4.1592,6.3257,3.0188,-5.6510,-2.3367,2.1114,7.1519,7.1088
238.2812,3.7281,8.8981,9.9091,8.7604,7.6777,8.3730,5.9073,9.1075,5.9925,-0.0766,4.4587,6.6141,7.9341,4.1057,-6.0861,-0.9766,2.7506,7.1847,7.6206
242.1875,3.5657,9.1441,9.1904,7.2962,5.7992,9.5312,6.4595,7.5257,4.6698,0.5549,4.7210,8.5614,8.1578,4.5789,-4.5353,-0.1785,3.4067,6.7223,7.3476
246.0938,3.3558,8.6809,8.4453,5.8855,3.9575,9.3404,6.3869,5.8613,3.2141,1.3024,4.4800,9.2419,7.1812,4.1739,-1.8845,-0.3771,3.9804,5.8400,6.7100
250.0000,2.9583,7.3643,7.6679,5.0934,2.8965,7.3306,5.5207,4.5557,1.8402,1.7376,3.5523,8.1963,5.4379,2.9564,0.6702,-1.6200,4.0622,4.6773,6.0882
253.9062,2.3860,5.5289,6.7253,4.9886,2.7879,4.2037,4.2210,3.7306,0.7275,1.8405,1.9756,5.5212,3.3991,1.2809,2.2066,-3.6419,3.1673,3.3929,5.6158
257.8125,1.5683,3.8546,5.5554,5.0982,3.2082,1.5349,3.1497,3.1950,-0.0496,1.6648,0.0273,1.9395,1.4618,-0.3732,2.4210,-6.0183,1.1348,2.1857,5.1826
261.7188,0.4280,3.0509,4.3410,4.7719,3.4830,0.8851,2.8524,2.6194,-0.4420,1.1824,-1.7950,-1.3758,-0.0556,-1.6037,1.6256,-8.2524,-1.5982,1.3423,4.6208
265.6250,-0.7829,3.5184,3.5038,3.7052,3.1598,2.8443,3.4250,1.7667,-0.2998,0.4689,-2.8633,-3.1972,-0.8887,-2.2213,0.4967,-9.7852,-4.0782,1.2155,3.9177
269.5312,-1.2919,5.1401,3.4862,2.2438,2.3086,6.5867,4.4744,0.6678,0.6250,-0.0209,-2.6119,-2.7266,-0.8477,-2.2567,-0.2464,-10.0472,-5.2699,2.0760,3.2952
273.4375,-0.1216,7.2966,4.4504,1.2411,1.4848,10.2333,5.3857,-0.3264,2.4761,0.5030,-0.8010,0.0272,0.1060,-1.8508,-0.0943,-8.6569,-4.5954,3.8959,3.1000
277.3438,3.1508,9.1005,6.1069,1.5513,1.4018,11.8436,5.7210,-0.6400,5.0139,2.6498,2.2655,4.1627,1.7846,-1.1162,1.1090,-5.7089,-2.2453,6.2134,3.5810
281.2500,7.7165,9.7515,7.8039,3.4800,2.5211,10.4775,5.4959,0.2985,7.4966,6.1688,5.7133,8.1667,3.7668,-0.0745,3.1165,-1.9428,0.9227,8.2185,4.6965
285.1562,11.5593,8.8560,8.8355,6.5350,4.7785,6.7103,5.1557,2.7439,8.8828,9.6784,8.3418,10.4804,5.4839,1.2769,5.3183,1.4159,3.8208,9.0606,6.0643
289.0625,12.3816,6.5683,8.7692,9.6081,7.5640,2.2964,5.2575,6.3589,8.3023,11.1764,9.0753,10.1212,6.3682,2.8195,6.8945,3.1518,5.6234,8.2289,7.0707
292.9688,8.9720,3.4993,7.5879,11.4561,9.9359,-0.8133,6.0489,10.1412,5.5359,9.1589,7.4296,7.0876,6.0105,4.2125,7.0915,2.6491,6.0398,5.7876,7.0794
296.8750,2.1506,0.4569,5.5864,11.2023,10.9656,-1.5141,7.2131,12.6841,1.2166,3.6712,3.7701,2.3614,4.2801,4.9471,5.5560,0.2203,5.2666,2.3357,5.6538
300.7812,-5.3991,-1.8391,3.1439,8.6326,10.0863,-0.0315,7.9716,12.7489,-3.3763,-3.4356,-0.7765,-2.4992,1.3832,4.5671,2.5797,-3.0443,3.7385,-1.2660,2.7287
304.6875,-10.4191,-2.9350,0.5722,4.2214,7.3339,2.4093,7.5311,9.9172,-6.8225,-9.3010,-4.7278,-5.9901,-2.1563,2.9412,-0.9015,-5.8287,1.8867,-4.2257,-1.3028
308.5938,-10.7618,-2.6724,-1.8518,-1.0360,3.3943,4.4691,5.6346,4.9631,-8.1015,-11.4810,-6.7947,-7.2295,-5.6078,0.4102,-3.6111,-7.2150,0.0422,-6.0314,-5.6203
312.5000,-6.4723,-1.1329,-3.7476,-5.8808,-0.5871,5.5309,2.8690,-0.3358,-6.9251,-9.1599,-6.3450,-6.2219,-8.2337,-2.3048,-4.4369,-7.0237,-1.5342,-6.4826,-9.1531
316.4062,0.3591,1.4042,-4.5824,-9.0867,-3.4030,5.9436,0.4866,-3.9448,-3.7622,-3.4456,-3.6045,-3.7321,-9.5274,-4.4074,-2.9083,-5.7211,-2.6189,-5.6202,-10.8981
320.3125,6.8289,4.4505,-3.8510,-9.7821,-4.2524,6.5522,-0.2304,-4.5292,0.3862,3.3614,0.4629,-0.8708,-9.3934,-5.3796,0.5814,-4.0290,-3.0754,-3.6706,-10.2957
324.2188,10.7431,7.3098,-1.4197,-7.7482,-3.0731,7.8943,1.2754,-2.1046,4.3323,9.0024,4.5343,1.3886,-8.1696,-5.1877,4.9213,-2.5275,-2.9595,-1.0456,-7.5004
328.1250,11.5318,9.2039,2.2185,-3.5658,-0.5540,9.6737,4.4264,2.0002,7.0579,12.2358,7.4202,2.5479,-6.4566,-4.2318,8.7323,-1.4832,-2.5581,1.6717,-3.3776
332.0312,10.1287,9.5687,6.0344,1.5269,2.2071,10.9199,7.7517,5.8676,8.0143,13.0634,8.4986,2.6675,-4.8270,-3.0857,10.9196,-0.9279,-2.2693,3.8595,0.8293
335.9375,8.0773,8.4107,8.9388,6.0906,4.2409,10.7387,9.7014,7.9968,7.3113,12.2741,7.9344,2.2236,-3.5697,-2.1896,11.0915,-0.8361,-2.3633,5.1159,4.0369
339.8438,6.5606,6.4922,10.3859,9.0793,5.1505,9.1088,9.5687,8.0217,5.7174,10.7814,6.5893,1.8490,-2.6126,-1.6624,9.6772,-1.2220,-2.7797,5.5066,5.7881
343.7500,5.9639,5.1324,10.7007,10.2606,5.2126,7.1092,7.9348,6.7515,4.4060,9.2356,5.6285,2.0766,-1.6631,-1.3178,7.6980,-2.0919,-3.1276,5.5952,6.3792
347.6562,6.0962,5.6141,10.8555,10.2013,5.0853,6.3346,6.3107,5.5537,4.4757,8.0428,5.9602,3.1521,-0.4744,-0.8418,6.2863,-3.3304,-2.9187,6.1499,6.5592
351.5625,6.7051,8.4474,11.7819,9.8032,5.3114,7.8376,6.1496,5.4792,6.4149,7.5478,7.7476,4.9403,0.9331,-0.0177,6.1479,-4.6499,-1.8977,7.6416,6.9716
355.4688,7.7744,12.9078,13.6394,9.6618,5.9293,11.3010,7.8373,6.6480,9.7776,8.0423,10.2502,6.9327,2.2301,1.1177,7.2067,-5.6629,-0.2504,9.8375,7.6848
359.3750,9.3699,17.1792,15.5405,9.6591,6.4333,15.0445,10.3247,8.2244,13.2830,9.5049,12.1254,8.3795,2.9387,2.2528,8.6192,-6.0300,1.4562,11.7866,8.1174
363.2812,11.2362,19.1224,15.9630,9.0659,6.1029,16.9319,11.6883,8.9448,15.3503,11.3220,12.0921,8.5515,2.6956,2.9203,9.1989,-5.5829,2.5732,12.2751,7.4264
367.1875,12.5919,17.3223,13.6425,7.1057,4.4945,15.6400,10.3101,7.8617,14.8269,12.3630,9.6372,7.0770,1.4731,2.7129,8.0756,-4.3595,2.7215,10.5191,5.1303
371.0938,12.4183,11.8638,8.4117,3.6213,1.7973,11.4827,5.9548,4.8930,11.5421,11.5421,5.3729,4.2132,-0.3518,1.5216,5.2532,-2.5702,1.9886,6.6828,1.5745
375.0000,10.1197,4.3944,1.4652,-0.5982,-1.1587,6.2511,0.0556,0.9118,6.3949,8.5722,0.8090,0.8790,-2.1040,-0.3080,1.7240,-0.5484,0.8676,1.8928,-2.0732
378.9062,6.0777,-2.5920,-5.1237,-4.0738,-3.2439,2.1586,-4.9904,-2.6253,0.9398,4.3600,-2.3747,-1.6439,-3.0414,-2.0025,-0.9936,1.2873,-0.0002,-2.2815,-4.3312
382.8125,1.6329,-6.8883,-9.3568,-5.3544,-3.5388,0.5584,-7.1024,-4.3045,-3.2920,0.6475,-3.1680,-2.2627,-2.6275,-2.6200,-1.6890,2.4922,-0.1206,-4.5806,-4.1478
386.7188,-1.5912,-7.5325,-10.1968,-3.7942,-1.7585,1.2352,-5.6076,-3.3554,-5.3781,-0.9815,-1.7063,-0.6230,-0.7620,-1.4802,-0.1956,2.7158,0.6665,-4.6100,-1.4701
390.6250,-2.6222,-5.1033,-7.9225,0.0533,1.5988,2.6916,-1.5158,0.0109,-5.2319,-0.1198,0.8886,2.6463,2.1062,1.4224,2.4409,1.8623,2.1635,-2.9070,2.6725
394.5312,-1.7081,-1.2486,-3.8377,4.6407,5.4237,3.2018,3.1288,4.6402,-3.4362,2.1294,3.1904,6.1582,5.0424,5.2605,4.5210,0.1927,3.9189,-0.5420,6.6078
398.4375,-0.1233,2.2395,0.4165,8.1116,8.4037,1.9316,6.3738,8.8374,-0.8643,3.7920,4.2451,8.3798,6.8951,8.6210,4.6847,-1.7366,5.3860,1.4553,8.7436
402.3438,0.6731,4.2638,3.5303,9.1034,9.5000,-0.5798,7.2841,10.9973,1.6644,3.2675,3.9711,8.3204,6.7180,10.0992,2.7409,-3.3109,6.0882,2.4998,8.2164
406.2500,-0.0337,4.7461,4.8752,7.2838,8.3211,-2.8343,6.1866,10.2376,3.5518,0.3713,2.9812,5.9501,4.2034,8.9680,-0.1988,-4.1445,5.7659,2.5151,5.1847
410.1562,-1.8102,4.3496,4.4892,3.4122,5.2633,-3.3599,4.2185,6.7790,4.4301,-3.5137,2.0189,2.1570,-0.0770,5.5668,-2.3864,-4.2303,4.4822,1.7383,0.6994
414.0625,-3.4340,3.8731,2.8616,-1.0322,1.3660,-1.6139,2.5656,1.8869,4.1424,-6.2757,1.4489,-1.6828,-4.7806,1.1816,-2.4954,-3.8426,2.6426,0.4950,-3.7252
417.9688,-3.7257,3.7462,0.7115,-4.4411,-2.0710,1.7449,1.8773,-2.6361,2.7892,-6.3356,1.1607,-4.2647,-8.2611,-2.5402,-0.3976,-3.2597,0.8855,-0.8815,-6.6271
421.8750,-2.2649,3.9183,-1.1591,-5.6337,-3.9701,5.3155,2.1330,-5.2012,0.8159,-3.5074,0.9089,-4.7754,-9.2195,-4.3388,2.8330,-2.5138,-0.1479,-1.9908,-7.0231
425.7812,0.4694,4.1291,-1.9942,-4.2028,-3.8691,7.7911,2.9029,-5.0873,-0.9890,1.0582,0.7599,-3.0517,-7.2454,-3.8651,5.6685,-1.3692,-0.0794,-2.3251,-4.6625
429.6875,3.5508,4.2849,-1.2685,-0.5886,-2.0611,8.6311,3.7276,-2.6869,-1.7025,5.7141,1.2287,0.4729,-2.9933,-1.7317,7.1144,0.4429,1.0362,-1.3981,-0.0916
433.5938,6.2460,4.6151,1.0851,4.0999,0.5736,8.1983,4.3556,0.7645,-0.6647,9.2983,2.9327,4.9181,2.0910,0.8860,7.2757,2.9021,2.7363,0.9634,5.4669
437.5000,8.3614,5.4797,4.5375,8.4447,2.9596,7.3644,4.7508,3.8135,2.1204,11.5945,5.9935,9.1396,6.3590,2.8433,7.1508,5.5441,4.3639,4.3535,10.4226
441.4062,10.0924,6.9815,8.0580,11.1623,4.2568,6.8987,4.9595,5.4330,5.8389,13.0551,9.6628,11.9730,8.5900,3.4952,7.8317,7.6134,5.3560,7.7831,13.2786
445.3125,11.5869,8.7042,10.4740,11.5077,4.1390,7.0288,4.9850,5.3680,9.1331,14.1293,12.5402,12.5728,8.3937,2.8453,9.6856,8.4455,5.4547,10.0353,13.1400
449.2188,12.6436,9.8240,10.9504,9.5054,2.8281,7.3953,4.7543,4.0603,10.7082,14.7804,13.3321,10.7769,6.2493,1.3820,12.0730,7.8279,4.7455,10.2383,10.0801
453.1250,12.8167,9.5783,9.3480,5.9122,0.9157,7.3592,4.1649,2.2687,9.9860,14.5601,11.6812,7.2984,3.2167,-0.2378,13.7669,6.1022,3.5421,8.3381,5.1763
457.0312,11.8328,7.7986,6.2636,1.9148,-0.9010,6.4376,3.1554,0.6462,7.4361,13.1160,8.4846,3.5455,0.4806,-1.4728,13.7528,3.9495,2.2115,5.1789,0.1411
460.9375,9.9423,5.1334,2.7368,-1.3208,-2.0451,4.6167,1.7612,-0.4949,4.3687,10.6630,5.4299,1.0437,-1.0819,-2.0449,11.8564,2.0150,1.0453,2.1126,-3.3367
464.8438,7.8724,2.7626,-0.2140,-3.0490,-2.1822,2.3949,0.1555,-1.1557,2.2622,7.9963,4.0035,0.7018,-1.1681,-1.9460,8.8051,0.6186,0.2108,0.3378,-4.2595
468.7500,6.3784,1.7382,-1.9803,-3.1232,-1.2480,0.5614,-1.3282,-1.4539,1.9828,6.0200,4.6016,2.3271,-0.0860,-1.3635,5.7397,-0.2895,-0.2466,0.3286,-2.6867
472.6562,5.7366,2.3488,-2.4977,-1.8970,0.5746,-0.1722,-2.2270,-1.4286,3.3334,5.1718,6.3298,4.7114,1.4237,-0.5786,3.5537,-0.9532,-0.3979,1.6610,0.3733
476.5625,5.6003,3.9231,-2.1065,0.0575,2.9016,0.4853,-2.0815,-0.9775,5.2032,5.2082,7.6245,6.2847,2.5066,0.1302,2.5031,-1.5804,-0.4273,3.3138,3.4805
480.4688,5.3623,5.2267,-1.2596,2.2308,5.2176,2.2496,-0.6607,0.0510,6.2443,5.5212,7.2881,5.9861,2.5421,0.5651,2.2846,-2.2183,-0.5928,4.2577,5.4232
484.3750,4.7528,5.2361,-0.2573,4.3013,6.9794,4.3822,1.8210,1.6893,5.6893,5.7147,5.2592,3.8473,1.3907,0.6487,2.4318,-2.7816,-1.1143,4.0023,5.6972
488.2812,4.1838,3.8173,0.8596,6.0721,7.7434,6.0569,4.6549,3.7168,3.8266,5.9499,2.6300,0.9517,-0.5546,0.4143,2.6839,-3.1577,-2.0164,2.8140,4.5972
492.1875,4.5105,1.8759,2.2310,7.3221,7.2803,6.7987,6.8563,5.6471,1.8426,6.7496,0.9276,-1.1883,-2.5405,-0.0478,3.0631,-3.2799,-3.0239,1.5175,2.9301
496.0938,6.3287,0.8557,3.9799,7.7271,5.6328,6.7517,7.5945,6.8584,1.1115,8.3942,1.1477,-1.4548,-3.7772,-0.6480,3.6587,-3.1275,-3.6179,1.0122,1.5424
500.0000,9.3109,1.8627,6.0173,6.9496,3.1024,6.5850,6.6140,6.8278,2.3480,10.4026,3.1602,0.3242,-3.7739,-1.3152,4.3549,-2.6933,-3.2713,1.7747,0.9179
503.9062,12.1138,4.9317,7.9592,4.8599,0.1799,7.0441,4.3957,5.3782,5.1309,11.5668,5.8277,3.3663,-2.5348,-1.9616,4.7664,-1.9815,-1.7619,3.5992,1.0249
507.8125,13.0140,8.8840,9.2167,1.7407,-2.5451,8.3914,1.9345,2.8284,8.0869,10.6150,7.7096,6.4026,-0.5329,-2.4330,4.4633,-1.0435,0.6287,5.6962,1.4424
511.7188,10.9089,11.8828,9.2373,-1.6802,-4.4782,10.0973,0.2435,-0.0465,9.6364,7.0889,7.8758,8.3076,1.5196,-2.5057,3.3272,0.0018,3.1775,7.0853,1.6600
515.6250,6.0391,12.3866,7.7989,-4.4279,-5.1212,11.0305,-0.1338,-2.2657,8.8637,1.8213,6.3453,8.5563,2.9886,-1.9617,1.7540,1.0139,5.0446,7.0828,1.3860
519.5312,-0.0500,9.9680,5.2098,-5.6236,-4.1835,10.0980,0.6748,-3.0246,6.0102,-3.3648,3.9504,7.3374,3.5819,-0.7051,0.5181,1.9233,5.6940,5.6456,0.7208
523.4375,-5.2967,5.5470,2.2910,-4.8007,-1.6852,6.9727,2.0525,-2.0361,2.3181,-6.5928,1.7917,5.3646,3.4449,1.1613,0.3433,2.7748,5.1651,3.4079,0.1271
527.3438,-8.1620,0.9255,0.1104,-2.0423,1.9980,2.4482,3.3182,0.3456,-0.6553,-6.9308,0.6552,3.5412,3.0545,3.3624,1.4397,3.6426,4.0314,1.3950,0.2113
531.2500,-8.2903,-2.1002,-0.4334,2.0999,6.1969,-1.8408,4.1160,3.3025,-1.8361,-4.8306,0.7108,2.6216,2.9609,5.5700,3.3087,4.4504,3.0607,0.5493,1.4045
535.1562,-6.4428,-2.5570,1.0105,6.8205,10.1221,-4.2073,4.5413,5.9479,-1.0919,-1.7628,1.5843,2.9527,3.4896,7.5264,4.9612,4.8445,2.7750,1.2944,3.6754
539.0625,-3.8548,-0.6314,4.0886,11.2776,13.0879,-3.7643,4.9640,7.7255,0.8585,0.6797,2.6686,4.3341,4.5329,9.0805,5.4384,4.2850,3.1618,3.3398,6.4161
542.9688,-1.5082,2.5863,7.8786,14.7195,14.6892,-0.8535,5.7036,8.5887,2.9504,1.6185,3.4457,6.0446,5.5373,10.1178,4.3362,2.3673,3.7009,5.8111,8.5857
546.8750,0.2086,5.7262,11.2391,16.5323,14.8572,3.1720,6.7842,8.8705,4.3380,1.1667,3.6565,7.0734,5.7125,10.4611,2.0202,-0.8077,3.6796,7.6299,9.0947
550.7812,1.3261,7.7476,13.1944,16.2798,13.7870,6.6428,7.9122,8.9525,4.6874,0.0562,3.2896,6.5230,4.3912,9.8595,-0.5947,-4.4983,2.6082,7.9537,7.2833
554.6875,1.8694,8.2331,13.1880,13.7999,11.8040,8.3229,8.6576,8.9634,4.1042,-1.0406,2.4712,4.0383,1.3864,8.1190,-2.5690,-7.5854,0.5031,6.4768,3.2736
558.5938,1.5970,7.3130,11.1452,9.3381,9.2535,7.8233,8.6918,8.7107,2.8569,-1.9877,1.3637,0.0457,-2.8302,5.3109,-3.4489,-9.1268,-2.1054,3.4846,-1.9923
562.5000,0.1424,5.3925,7.3985,3.6224,6.4626,5.5501,7.9267,7.8747,1.1604,-3.1433,0.1313,-4.3563,-7.2310,1.9055,-3.4522,-8.8617,-4.4232,-0.3121,-7.0755
566.4062,-2.5593,2.9155,2.5764,-2.2260,3.7585,2.3419,6.4963,6.3120,-0.8253,-4.8843,-1.0380,-7.8326,-10.5881,-1.2992,-3.2246,-7.3200,-5.7472,-4.0418,-10.5845
570.3125,-5.9322,0.2908,-2.4927,-6.9720,1.4820,-0.9239,4.6382,4.2383,-2.8438,-7.0940,-1.9124,-9.3613,-11.9260,-3.4575,-3.3372,-5.4490,-5.7410,-6.9121,-11.6869
574.2188,-8.8392,-2.0738,-6.8885,-9.6481,-0.0484,-3.5692,2.5879,2.1580,-4.4442,-9.0309,-2.2552,-8.6186,-10.8697,-4.0287,-3.8682,-4.0086,-4.5144,-8.3669,-10.3540
578.1250,-10.1132,-3.7727,-9.7762,-9.8718,-0.6219,-5.1860,0.5565,0.5922,-5.1027,-9.7157,-1.9328,-6.0270,-7.7482,-3.0076,-4.3637,-3.1612,-2.5093,-8.1737,-7.2603
582.0312,-9.2235,-4.5215,-10.6544,-7.9520,-0.2218,-5.6413,-1.2264,-0.1989,-4.5323,-8.5912,-1.0423,-2.4956,-3.4418,-0.9097,-4.2110,-2.5411,-0.2875,-6.4750,-3.4398
585.9375,-6.6257,-4.3292,-9.5721,-4.7370,0.9461,-5.0828,-2.4891,-0.3079,-2.9586,-5.9884,0.0395,0.9564,0.9210,1.4688,-3.1627,-1.7270,1.6649,-3.7989,0.0970
589.8438,-3.5246,-3.5579,-7.1663,-1.2821,2.5048,-3.9167,-2.9814,-0.0367,-1.1157,-3.0364,0.7658,3.5015,4.2831,3.3733,-1.6142,-0.7296,3.0436,-0.9742,2.6157
593.7500,-1.1618,-2.7586,-4.4336,1.5150,4.0185,-2.6763,-2.6128,0.3584,0.1085,-1.0143,0.6844,4.6477,5.9016,4.3362,-0.3937,-0.0840,3.7387,1.0957,3.7391
597.6562,-0.0730,-2.3410,-2.3053,3.1666,5.1175,-1.7792,-1.5669,0.8403,0.1901,-0.5350,-0.2622,4.2762,5.4953,4.2605,-0.1663,-0.4411,3.7951,1.7623,3.4242
601.5625,0.1978,-2.2955,-1.2366,3.6640,5.5898,-1.2949,-0.2786,1.5635,-0.6913,-1.1066,-1.5953,2.6458,3.3063,3.3619,-0.8697,-1.9561,3.3625,0.9290,1.9272
605.4688,0.7177,-2.1912,-1.0410,3.3735,5.4196,-0.8986,0.7609,2.6841,-1.7400,-1.4111,-2.4661,0.3672,0.0618,2.0456,-1.6285,-3.9648,2.6507,-0.8647,-0.2251
609.3750,2.3438,-1.4915,-1.0708,2.8284,4.7706,-0.0945,1.2770,4.1646,-2.0391,-0.1838,-2.1062,-1.7288,-3.2060,0.7757,-1.2936,-5.2603,1.8798,-2.6663,-2.3169
613.2812,4.9962,0.0045,-0.6412,2.4997,3.9237,1.4049,1.3858,5.7225,-1.1488,2.8383,-0.3373,-2.8802,-5.4891,-0.0438,0.7031,-4.8439,1.2183,-3.5690,-3.6387
617.1875,7.5231,1.9089,0.5471,2.6233,3.1845,3.3896,1.5209,6.9535,0.5797,6.5342,2.1805,-2.7605,-6.1959,-0.1822,3.7654,-2.6511,0.7245,-3.1738,-3.7638
621.0938,8.2968,3.3861,2.2280,3.1343,2.7851,5.1657,2.1150,7.5325,2.1879,8.8964,4.1770,-1.7082,-5.4181,0.3345,6.2957,0.2753,0.3300,-1.7952,-2.7669
625.0000,6.2015,3.6241,3.7187,3.7311,2.8142,5.8859,3.2182,7.3479,2.6813,8.1720,4.4099,-0.6182,-3.8920,1.2241,6.5929,2.3318,-0.1103,-0.2801,-1.2195
628.9062,1.4023,2.3341,4.2933,4.0468,3.2061,5.0008,4.3183,6.4961,1.6246,3.9686,2.3735,-0.4750,-2.6149,2.0719,3.9580,2.2962,-0.7104,0.4665,0.0891
632.8125,-4.6075,-0.0578,3.5603,3.8561,3.7942,2.5587,4.5419,5.1777,-0.6100,-2.3775,-1.3515,-1.7665,-2.2971,2.5462,-0.7276,0.0600,-1.4474,-0.0197,0.5751
636.7188,-9.7366,-2.6525,1.6512,3.2162,4.3975,-0.8028,3.1767,3.5994,-3.0843,-8.4383,-5.3432,-4.1413,-2.9658,2.5886,-5.3824,-3.3152,-2.1296,-1.5249,0.1768
640.6250,-12.3695,-4.5845,-0.8486,2.4602,4.8884,-4.1261,0.2215,1.9597,-4.8451,-11.9708,-8.0624,-6.5602,-3.9835,2.4488,-7.8811,-6.2367,-2.4756,-3.3077,-0.6407
644.5312,-12.1259,-5.4445,-3.1539,2.0347,5.2059,-6.4819,-3.4039,0.4984,-5.4237,-12.0589,-8.6372,-7.8802,-4.4913,2.5125,-7.2774,-7.4843,-2.2728,-4.5335,-1.2058
648.4375,-9.8574,-5.3522,-4.5724,2.2639,5.3240,-7.2272,-6.1902,-0.4769,-4.9798,-9.4244,-7.2524,-7.5184,-4.0046,3.0151,-4.3149,-6.8141,-1.5250,-4.7237,-1.0750
652.3438,-6.9315,-4.6734,-4.7089,3.1747,5.2210,-6.1277,-6.7798,-0.6550,-4.0416,-5.7617,-4.9355,-5.7756,-2.7629,3.8293,-0.9019,-4.9389,-0.4942,-3.9560,-0.2917
656.2500,-4.3193,-3.6370,-3.5285,4.4876,4.8927,-3.3938,-4.7069,0.1363,-3.0601,-2.5821,-2.9016,-3.6136,-1.5819,4.4864,1.1002,-2.9898,0.4020,-2.7180,0.7063
660.1562,-2.1142,-2.1592,-1.2952,5.7750,4.4051,0.3236,-0.6881,1.8049,-2.0971,-0.3623,-1.8722,-2.0356,-1.2804,4.4459,0.9851,-1.8660,0.7885,-1.5343,1.4575
664.0625,0.2148,-0.0078,1.5489,6.6826,3.9283,4.0174,3.7322,3.9801,-0.8508,1.4523,-1.7610,-1.4717,-2.0557,3.4512,-0.4947,-1.8690,0.5168,-0.6151,1.8556
667.9688,3.0632,2.8338,4.5039,7.0664,3.6868,6.5650,6.9745,6.1237,1.0206,3.6533,-1.8620,-1.5528,-3.2368,1.7374,-1.7802,-2.7508,-0.2646,0.2473,2.2529
671.8750,6.0253,5.8996,7.0875,6.9609,3.8176,7.1243,8.1744,7.6938,3.5177,6.3145,-1.3649,-1.3931,-3.6094,-0.0583,-1.6342,-4.0110,-1.1887,1.4795,3.1991
675.7812,7.8655,8.3045,8.8629,6.4207,4.2174,5.5287,7.4444,8.2596,6.1311,8.4155,0.1381,-0.1728,-2.1341,-1.2428,0.0241,-5.1686,-1.8413,3.3602,4.9879
679.6875,7.2180,9.1309,9.4471,5.3740,4.5013,2.4350,5.5382,7.5342,8.0112,8.3721,2.4349,2.3513,1.3860,-1.4550,2.1176,-5.8571,-1.9252,5.7300,7.3302
683.5938,3.5740,7.9065,8.5497,3.6300,4.1512,-0.9317,3.2115,5.3789,8.3840,5.1479,4.8328,5.7005,6.1049,-0.8537,3.2018,-5.7951,-1.3402,7.9703,9.4003
687.5000,-2.1273,4.8790,6.0752,1.0661,2.8062,-3.3456,0.7601,1.8612,6.9706,-0.8109,6.5227,8.9328,10.5216,0.0074,2.4877,-4.7879,-0.1655,9.2789,10.2544
691.4062,-7.7516,0.9332,2.2643,-2.1224,0.5330,-4.1479,-1.9447,-2.6221,4.1700,-7.4885,6.9508,11.1040,13.2065,0.5255,0.4048,-2.8384,1.4006,9.0831,9.3654
695.3125,-10.9701,-2.7817,-2.2170,-5.3086,-2.1113,-3.4705,-4.9982,-7.2583,0.9018,-12.1836,6.0299,11.6493,13.4275,0.3854,-1.6563,-0.2841,3.0815,7.3469,6.9340
699.2188,-10.4190,-5.2953,-6.3531,-7.5897,-4.2995,-1.9938,-7.9919,-10.9191,-1.8025,-12.8576,4.1339,10.5068,11.3309,-0.3239,-2.2352,2.2073,4.5230,4.5883,3.7764
703.1250,-6.3261,-6.1128,-9.0666,-8.1799,-5.3359,-0.4281,-9.9600,-12.5106,-3.2427,-9.1464,1.9177,7.9958,7.6482,-1.2631,-0.7384,3.8629,5.2958,1.6030,0.8612
707.0312,-0.2609,-5.2730,-9.6325,-6.8313,-5.0092,0.9130,-9.8558,-11.4484,-3.3012,-2.4581,0.0548,4.6011,3.1989,-2.1318,2.1744,4.1470,4.9656,-0.9297,-1.2044
710.9375,5.7790,-3.2140,-8.0108,-4.0207,-3.6780,2.1702,-7.2547,-7.9951,-2.3888,4.8423,-1.0042,0.8264,-1.4460,-2.8716,4.9860,2.9937,3.2584,-2.7124,-2.4140
714.8438,10.3493,-0.5576,-4.8854,-0.7546,-2.0289,3.6425,-2.7673,-3.2146,-1.1396,10.6257,-1.1640,-2.8209,-5.9431,-3.6345,6.2350,0.7668,0.2655,-3.8129,-3.1853
718.7500,13.0308,2.0901,-1.3404,1.9303,-0.6525,5.4106,2.1746,1.4884,-0.0427,13.8632,-0.6573,-5.7715,-9.8913,-4.5438,5.3736,-2.0122,-3.4317,-4.4034,-3.9047
722.6562,14.2032,4.2770,1.6699,3.4991,0.3010,7.1908,6.0648,5.0120,0.7738,14.7362,0.1269,-7.3860,-12.5841,-5.4341,3.0496,-4.9451,-6.8339,-4.4667,-4.5118
726.5625,14.3991,5.7710,3.7555,4.1716,1.1710,8.5156,8.1190,7.0154,1.4921,14.0736,0.8663,-7.0793,-13.0699,-5.7821,0.6614,-7.8221,-8.8179,-3.7058,-4.4186
730.4688,13.7540,6.5497,5.1636,4.7392,2.5175,9.0723,8.5960,7.9244,2.3437,12.5921,1.4548,-4.5565,-10.5605,-4.9165,-0.5176,-10.4356,-8.5555,-1.7479,-2.8373
734.3750,11.9406,6.7302,6.4535,6.0488,4.7060,8.9086,8.4449,8.5084,3.3358,10.4715,1.9968,-0.0378,-4.9536,-2.4051,-0.0887,-12.3387,-5.8653,1.4893,0.6812
738.2812,8.6002,6.4770,8.0017,8.4582,7.6123,8.3493,8.5555,9.3215,4.1795,7.5065,2.6713,5.6836,2.8866,1.6194,1.3157,-12.8191,-1.3178,5.5427,5.8398
742.1875,3.9274,5.9523,9.6809,11.5866,10.6272,7.7168,9.1492,10.3767,4.4971,3.6586,3.5835,11.4389,11.3154,6.4061,2.5575,-11.2027,3.9740,9.4832,11.5901
746.0938,-1.0380,5.3416,10.9374,14.5050,12.9518,7.1095,9.7259,11.2384,4.1766,-0.4424,4.7239,16.0816,18.5028,10.8592,2.8467,-7.3248,8.7878,12.3300,16.5514
750.0000,-4.6697,4.9182,11.2012,16.2432,13.9963,6.4256,9.5571,11.4179,3.6043,-3.4673,6.0505,18.9037,23.1184,13.9884,2.3487,-1.8271,12.2366,13.5522,19.6151
753.9062,-5.4681,5.0447,10.3302,16.3041,13.6442,5.5946,8.3274,10.7583,3.5503,-3.9378,7.5898,19.8437,24.7314,15.2832,2.1116,3.9817,14.0131,13.3246,20.3859
757.8125,-2.8461,6.0342,8.7612,14.8890,12.2468,4.7899,6.4337,9.5322,4.7109,-1.0778,9.4192,19.3630,23.7353,14.8137,3.3247,8.6781,14.3303,12.3542,19.2229
761.7188,2.4555,7.9072,7.2627,12.7274,10.3864,4.4108,4.7346,8.2166,7.1752,4.5487,11.4948,18.0584,20.9052,13.0423,6.3821,11.3668,13.6288,11.3837,16.8995
765.6250,8.5760,10.2117,6.4722,10.6521,8.5785,4.8234,3.9605,7.1518,10.1905,11.0532,13.4536,16.2517,16.9137,10.5066,10.3956,12.0128,12.2477,10.7126,14.1338
769.5312,13.2919,12.0991,6.5492,9.1946,7.0952,6.0651,4.2340,6.3652,12.4508,15.9770,14.5952,13.8273,12.1200,7.5968,13.5442,11.2652,10.2617,10.0650,11.2912
773.4375,14.9572,12.7038,7.1717,8.4237,5.9781,7.7570,5.0492,5.6800,12.7891,17.4234,14.1499,10.4322,6.7236,4.5472,14.0942,9.9142,7.5739,8.8912,8.4118
777.3438,13.1632,11.6426,7.8374,8.0654,5.1738,9.2956,5.6931,4.9841,10.8594,14.9488,11.7183,5.9081,1.1001,1.5921,11.4529,8.3607,4.1790,6.8702,5.4723
781.2500,8.7914,9.3008,8.2055,7.7551,4.6528,10.1651,5.7635,4.4009,7.3575,9.6889,7.5953,0.6440,-3.9974,-0.8956,6.5500,6.4457,0.4000,4.2349,2.6314
785.1562,3.4496,6.6598,8.2134,7.2222,4.4144,10.1219,5.3875,4.1902,3.6144,3.6338,2.7229,-4.4199,-7.5843,-2.4396,1.2746,3.7252,-3.0876,1.6727,0.2478
789.0625,-1.3836,4.7154,7.9120,6.3096,4.3954,9.1334,4.9956,4.4449,0.8128,-1.5145,-1.7381,-8.1751,-8.8853,-2.6820,-2.6684,-0.0301,-5.4870,-0.1247,-1.3433
792.9688,-5.0216,3.8468,7.2112,4.8841,4.3880,7.1936,4.8629,4.8451,-0.6527,-5.1880,-4.9514,-9.8753,-7.7831,-1.6399,-4.6993,-4.4582,-6.2435,-0.9192,-2.1072
796.8750,-7.6625,3.5823,5.8055,2.7888,4.0774,4.2616,4.8008,4.7144,-1.2452,-7.9654,-6.6983,-9.4636,-4.9624,0.2001,-5.4588,-8.5984,-5.3171,-1.0428,-2.3983
800.7812,-9.8829,2.9644,3.3943,-0.0698,3.2073,0.4545,4.2596,3.4011,-1.7577,-10.7587,-7.2393,-7.4906,-1.6277,2.0494,-6.0146,-11.2475,-3.2008,-1.0844,-2.7634
804.6875,-11.8900,1.3001,0.0425,-3.5469,1.7685,-3.6396,2.7710,0.7452,-2.5866,-13.7572,-6.8916,-4.7165,1.0321,3.1559,-6.7977,-11.4700,-0.6789,-1.3965,-3.5895
808.5938,-13.0717,-1.2235,-3.6243,-7.1522,0.0669,-6.8571,0.3953,-2.7036,-3.3548,-15.9177,-5.6920,-1.7190,2.3009,3.1082,-7.1048,-9.0044,1.5148,-1.8165,-4.8553
812.5000,-12.2178,-3.5200,-6.6024,-10.1430,-1.4033,-7.8117,-2.1711,-5.8925,-3.1807,-15.4508,-3.4445,1.2013,2.0575,1.9258,-5.6007,-4.4071,2.9319,-1.8353,-6.1724
816.4062,-8.3545,-4.2523,-7.9998,-11.8063,-2.2153,-5.6234,-3.9243,-7.7822,-1.4146,-11.0667,-0.1292,3.7892,0.5617,-0.0781,-1.5012,1.0849,3.4248,-1.0904,-7.0775
820.3125,-1.6846,-2.7420,-7.5162,-11.7642,-2.2256,-0.6040,-4.0983,-7.8418,1.6939,-3.1704,3.6690,5.5436,-1.8531,-2.5139,4.4365,5.8996,3.0008,0.2089,-7.3399
824.2188,6.0151,0.4714,-5.5804,-10.1076,-1.6040,5.5983,-2.5682,-6.2192,4.9057,5.8535,6.7181,5.7124,-4.9033,-5.0263,9.9214,8.5883,1.6870,1.2877,-7.0378
828.1250,11.9170,3.8224,-3.0523,-7.2797,-0.6607,10.6053,0.1291,-3.5249,6.5914,12.5815,7.6223,3.6952,-8.2098,-7.2362,12.2629,8.2933,-0.4513,1.2866,-6.3568
832.0312,13.4046,5.5690,-0.7086,-3.8150,0.3946,12.4056,3.1253,-0.4355,5.6521,14.2354,5.5729,-0.3874,-11.0707,-8.6237,9.9514,5.0869,-3.1460,-0.1110,-5.3029
835.9375,9.4104,4.7716,1.1215,-0.1366,1.5726,10.3420,5.6449,2.5814,2.1671,10.1248,0.8817,-5.4077,-12.4590,-8.5511,3.6520,0.0190,-5.7806,-2.3711,-3.6170
839.8438,1.0714,1.8004,2.5397,3.4509,3.0061,5.4244,7.2570,5.2624,-2.6368,1.9909,-5.0654,-9.5510,-11.4062,-6.5228,-4.0633,-5.2270,-7.4587,-4.3705,-1.0198
843.7500,-8.6895,-1.9104,3.7515,6.6197,4.7124,-0.2013,7.8609,7.3574,-7.0426,-6.9237,-10.4166,-11.1560,-7.6132,-2.5717,-10.0835,-9.0036,-7.3459,-5.0723,2.3732
847.6562,-16.4378,-4.6598,4.7384,8.9156,6.4149,-4.3132,7.5167,8.4987,-9.6831,-13.4798,-13.6482,-9.5930,-1.8791,2.5021,-12.3586,-10.4083,-5.1297,-4.1524,5.8179
851.5625,-19.6779,-5.3199,5.2146,9.8629,7.5993,-5.6096,6.3166,8.3124,-10.0536,-15.9719,-14.0884,-5.6209,4.0280,7.2828,-10.7571,-9.6571,-1.3102,-2.1500,8.1608
855.4688,-17.7475,-3.7520,4.9036,9.2626,7.8038,-4.1469,4.3962,6.7193,-8.4721,-14.5082,-11.9505,-0.9734,8.1065,10.2898,-6.7610,-7.8723,2.9106,-0.0576,8.4603
859.3750,-11.7944,-0.6641,3.8870,7.4709,6.9570,-1.0816,2.0302,4.1753,-5.6509,-10.4236,-7.9970,2.5800,9.0988,10.6641,-2.3545,-6.3672,6.1366,1.3410,6.6309
863.2812,-3.9965,2.8778,2.7010,5.3965,5.5105,2.0375,-0.3366,1.6039,-2.2598,-5.2854,-3.1449,4.1259,7.1420,8.5954,1.0824,-5.8315,7.4273,1.9133,3.6483
867.1875,3.4623,5.9340,2.0508,4.1238,4.2394,4.0088,-2.2079,-0.0136,1.2373,-0.1656,1.7591,3.9369,3.6911,5.2279,3.2183,-5.9193,6.7264,2.1243,1.1137
871.0938,9.1435,7.9376,2.3278,4.3469,3.8118,4.4050,-3.2497,-0.1527,4.4765,4.4918,5.9941,3.1184,0.7446,2.0882,4.4683,-5.5100,4.8316,2.5797,0.4035
875.0000,12.5889,8.7034,3.2959,5.9664,4.4003,3.5798,-3.4407,0.9741,7.0507,8.5677,9.0092,2.8765,-0.1753,0.3573,5.3779,-3.4917,2.9366,3.5436,1.9261
878.9062,14.1178,8.3413,4.2127,8.1307,5.5898,2.3536,-3.0350,2.5733,8.5482,11.9391,10.5623,3.8906,1.2870,0.3851,6.2254,0.4308,2.0225,4.7825,4.9488
882.8125,14.4354,7.1957,4.3330,9.7181,6.6391,1.5811,-2.3555,3.7632,8.7816,14.4151,10.8718,6.1065,4.2993,1.6698,7.0466,5.4240,2.4318,5.8060,8.0824
886.7188,14.2702,5.8009,3.4461,9.9578,6.9167,1.7881,-1.5733,4.0771,7.9960,15.8978,10.5812,8.9354,7.4073,3.2392,7.8686,9.9138,3.8177,6.2671,10.0805
890.6250,14.1320,4.7670,2.0573,8.7944,6.2224,2.9923,-0.6409,3.6492,6.8242,16.5143,10.4329,11.6072,9.2882,4.1641,8.7955,12.4284,5.4213,6.1858,10.4334
894.5312,14.1880,4.5559,1.0634,6.7841,4.8075,4.7477,0.5689,2.9905,5.9489,16.5264,10.7942,13.4298,9.2645,3.9239,9.8191,12.3685,6.4671,5.8388,9.4224
898.4375,14.2551,5.2379,1.1354,4.6357,3.1249,6.3743,2.0340,2.5479,5.6835,16.0856,11.3640,13.8946,7.3894,2.5009,10.5748,10.2434,6.4574,5.4403,7.6951
902.3438,13.9243,6.3941,2.2250,2.7416,1.5220,7.2714,3.4521,2.3748,5.7758,15.0887,11.3228,12.7269,4.2062,0.2604,10.3886,7.2713,5.2733,4.9069,5.7373
906.2500,12.8086,7.2696,3.5302,1.0207,0.0966,7.1682,4.3286,2.1366,5.5904,13.3179,9.8786,9.9754,0.4296,-2.2457,8.7244,4.6381,3.1218,3.9084,3.6265
910.1562,10.8137,7.1227,3.9417,-0.8577,-1.2219,6.1938,4.2408,1.4147,4.5515,10.7820,6.8534,6.1010,-3.2697,-4.4535,5.7365,2.8869,0.4255,2.1620,1.1877
914.0625,8.2615,5.5761,2.6816,-3.0819,-2.4827,4.7395,3.1018,0.0613,2.5359,7.9423,2.8886,1.9185,-6.3583,-5.9253,2.4371,1.7764,-2.2939,-0.2767,-1.6478
917.9688,5.7419,2.7785,-0.2553,-5.4549,-3.6030,3.2135,1.2431,-1.6579,-0.0491,5.5517,-0.8913,-1.6894,-8.4975,-6.4678,0.2144,0.6195,-4.5401,-2.9649,-4.6076
921.8750,3.7412,-0.6855,-4.0896,-7.4766,-4.4261,1.8476,-0.7400,-3.2229,-2.5302,4.1441,-3.5211,-4.1722,-9.6125,-6.2054,-0.0554,-1.1739,-5.9863,-5.2992,-7.1528
925.7812,2.2801,-4.0383,-7.6284,-8.6643,-4.8707,0.6722,-2.2791,-4.1800,-4.3546,3.5434,-4.6882,-5.5554,-9.9154,-5.5365,1.3271,-3.6961,-6.5904,-6.8320,-8.7787
929.6875,0.8401,-6.5467,-9.7665,-8.8483,-5.0077,-0.3542,-3.0729,-4.3817,-5.3199,2.8215,-4.7444,-6.3151,-9.7868,-4.9270,2.9846,-6.4828,-6.5886,-7.4335,-9.2852
933.5938,-1.3069,-7.6586,-9.8577,-8.2192,-4.9670,-1.1909,-3.1418,-3.9833,-5.5177,0.8457,-4.2834,-6.9275,-9.5106,-4.6125,3.3433,-8.7610,-6.3165,-7.2037,-8.8080
937.5000,-4.5309,-7.0654,-7.8423,-7.1137,-4.7434,-1.6761,-2.6943,-3.2317,-5.1014,-2.8966,-3.6531,-7.4092,-9.0144,-4.3912,1.7122,-9.8139,-5.9261,-6.2551,-7.6236
941.4062,-8.4068,-4.7691,-4.1774,-5.7350,-4.0910,-1.6393,-1.9283,-2.2348,-4.1101,-7.7591,-2.7907,-7.2088,-7.8347,-3.6867,-1.2096,-9.2611,-5.1923,-4.5912,-5.9197
945.3125,-11.7428,-1.1749,0.3144,-4.0441,-2.6471,-1.0703,-0.9167,-0.9020,-2.5057,-12.1075,-1.4737,-5.5779,-5.4077,-1.9067,-3.7816,-7.1595,-3.5878,-2.2043,-3.7345
949.2188,-13.1290,2.8717,4.6134,-1.9065,-0.2447,-0.1981,0.3454,0.8971,-0.3739,-14.1532,0.2820,-2.1819,-1.5506,1.0989,-4.5228,-3.9347,-0.6507,0.6944,-1.1018
953.1250,-11.7289,6.2264,7.6965,0.6337,2.8106,0.5927,1.7806,3.0854,1.9114,-12.9534,2.0620,2.4910,3.1917,4.7897,-3.0821,-0.2133,3.5621,3.5439,1.7532
957.0312,-7.8540,7.8035,8.7818,3.1915,5.7473,0.9475,3.0871,5.2458,3.7442,-8.9654,3.3003,7.2417,7.6220,8.1106,-0.3953,3.3769,8.2549,5.5744,4.3643
960.9375,-2.9726,7.0196,7.5861,5.1475,7.6839,0.6882,3.7431,6.7325,4.5611,-3.8399,3.7306,10.7441,10.4131,10.0376,2.0464,6.3802,12.1230,6.1782,6.1979
964.8438,0.8716,4.0889,4.4861,5.9752,8.1446,-0.1776,3.2012,6.9866,4.1548,0.3738,3.6326,12.2072,10.7924,10.1727,3.2386,8.6053,13.9626,5.2706,6.9287
968.7500,1.9257,-0.0231,0.4681,5.5760,7.3974,-1.5580,1.1999,5.8733,2.7994,2.1091,3.6136,11.6760,8.9610,9.0043,3.2342,10.0893,13.3180,3.3794,6.6148
972.6562,-0.5636,-3.9911,-3.1579,4.3941,6.3662,-3.3649,-1.9681,3.8310,1.0957,0.7799,4.0528,9.8040,5.9744,7.6430,2.8532,10.9395,10.7541,1.3843,5.6433
976.5625,-6.1155,-6.6701,-5.1828,3.2310,6.1349,-5.4877,-5.3974,1.7305,-0.3542,-3.2479,4.6552,7.3211,3.1565,7.1780,2.8205,11.1381,7.5576,0.0711,4.5021
980.4688,-13.2951,-7.5065,-4.8907,2.8689,7.3357,-7.6735,-7.8125,0.5032,-1.2269,-9.0086,4.5246,4.6191,1.4156,8.0485,3.0590,10.4513,5.0318,-0.2154,3.5519
984.3750,-20.2930,-6.6378,-2.2759,3.7138,9.7897,-9.4521,-8.0572,0.7234,-1.5486,-15.2934,2.7812,1.7443,0.8807,9.8161,2.7263,8.5462,3.8158,0.3742,2.9481
988.2812,-25.5086,-4.6928,1.9703,5.6310,12.6065,-10.2354,-5.6393,2.3482,-1.5608,-20.8430,-0.6926,-1.2613,1.0411,11.4640,0.9763,5.2831,3.6431,1.4068,2.7150
992.1875,-27.9232,-2.4538,6.6679,8.0194,14.6594,-9.5902,-1.0621,4.7370,-1.5187,-24.4500,-4.9433,-4.0143,1.2323,12.0125,-2.1650,1.0045,3.6655,2.4503,2.8481
996.0938,-27.2136,-0.5678,10.4819,10.0490,15.1385,-7.5158,4.2674,6.9348,-1.5695,-25.1458,-8.3559,-5.7749,1.1026,11.0564,-5.5387,-3.4078,3.0966,3.2299,3.3174
1000.0000,-23.6744,0.6064,12.3083,10.9447,13.8678,-4.5133,8.5799,8.0840,-1.7493,-22.5258,-9.5478,-5.8242,0.7527,8.9039,-7.4795,-6.8136,1.7396,3.6086,3.9691
1003.9062,-18.0422,1.0357,11.6360,10.2239,11.2598,-1.3577,10.5218,7.7807,-2.0235,-17.0465,-8.1488,-3.9651,0.5028,6.2779,-6.9182,-8.3219,0.0668,3.5020,4.4441
1007.8125,-11.2852,0.9910,8.7751,7.8410,8.0086,1.3039,9.7890,6.2201,-2.2860,-10.0228,-4.9399,-0.7703,0.5071,3.8156,-4.1587,-7.7383,-1.1605,2.8645,4.2471
1011.7188,-4.3909,0.9753,4.8198,4.2106,4.7492,3.2575,7.2639,4.0748,-2.3172,-3.2005,-1.2823,2.6174,0.5261,1.7091,-0.7409,-5.6707,-1.4381,1.7773,2.9782
1015.6250,1.8030,1.5527,1.2719,0.0937,1.8700,4.7100,4.5352,2.1652,-1.8033,1.9245,1.7218,5.0044,0.0248,-0.2969,1.5376,-3.2190,-0.8538,0.5195,0.5872
1019.5312,6.6745,3.0567,-0.5958,-3.6458,-0.4801,5.9519,3.0212,1.0748,-0.5123,4.6433,3.7206,5.6369,-1.4724,-2.5857,1.7468,-1.4339,-0.0070,-0.5172,-2.5386
1023.4375,9.7491,5.2609,-0.3757,-6.3460,-2.2785,6.9296,3.1651,0.8884,1.4096,5.0830,4.9242,4.3743,-4.0192,-5.2659,0.2903,-0.8720,0.3951,-1.0885,-5.7356
1027.3438,10.5585,7.2153,1.1814,-7.7858,-3.5275,7.0486,4.1699,1.1751,3.2154,3.7501,5.4407,1.5160,-7.1145,-7.9583,-1.6099,-1.4929,-0.0283,-1.3671,-8.3810
1031.2500,8.5755,7.4465,2.4418,-8.2297,-4.2216,5.4001,4.4573,1.2267,3.6514,0.9227,4.7269,-2.4956,-9.8839,-9.9050,-3.0020,-2.8957,-1.1427,-1.9824,-10.1578
1035.1562,3.3819,4.5638,1.6733,-8.2370,-4.3648,1.3318,2.6194,0.4395,1.4612,-3.6086,1.6829,-7.2261,-11.4648,-10.3326,-4.0219,-4.6691,-2.4398,-3.7126,-11.1055
1039.0625,-4.9106,-1.9441,-2.0240,-8.3264,-3.9887,-4.9502,-1.6690,-1.3467,-3.8800,-10.1818,-4.5497,-12.1668,-11.3891,-8.8563,-5.7819,-6.5816,-3.3721,-6.9572,-11.4595
1042.9688,-15.1897,-11.1238,-8.1277,-8.6783,-3.1522,-12.1258,-7.3116,-3.7208,-11.5931,-18.4795,-13.5814,-16.5705,-9.7840,-5.7102,-9.3558,-8.5092,-3.6538,-11.3121,-11.4292
1046.8750,-25.1751,-20.5624,-14.7773,-9.0469,-1.9454,-18.0603,-12.2432,-5.8567,-19.5755,-26.9047,-23.2934,-19.4595,-7.3256,-1.7021,-14.5850,-10.2298,-3.3710,-15.5535,-11.0877
1050.7812,-31.8591,-27.1137,-19.5191,-8.9289,-0.5204,-20.5878,-14.4353,-6.8866,-25.0645,-32.7079,-30.3570,-19.9316,-4.9938,2.0652,-19.6313,-11.3326,-2.8917,-18.1049,-10.4277
1054.6875,-32.5567,-28.1045,-20.3485,-7.8848,0.8661,-18.4398,-12.9029,-6.3146,-25.7424,-33.0382,-31.6264,-17.6342,-3.7349,4.5632,-21.7417,-11.3913,-2.6802,-17.7601,-9.4947
1058.5938,-26.1673,-22.5024,-16.5449,-5.8239,1.8550,-11.8834,-8.1609,-4.2662,-20.7727,-26.4676,-25.7154,-13.1014,-4.1453,5.1461,-18.8633,-10.3091,-3.1210,-14.2727,-8.4517
1062.5000,-13.9956,-11.4897,-8.9318,-3.0941,2.0812,-2.7396,-1.9094,-1.4461,-11.2586,-14.1223,-13.8949,-7.6880,-6.2666,3.7039,-11.1172,-8.5589,-4.3979,-8.4982,-7.5051
1066.4062,0.4265,1.8617,0.4919,-0.3411,1.3491,6.2748,3.8349,1.1852,0.1105,0.3576,0.2227,-3.0680,-9.5525,0.6462,-1.1339,-7.0684,-6.4193,-2.0386,-6.7558
1070.3125,12.6100,13.7085,9.3092,1.7746,-0.2024,12.6208,7.6486,2.8577,10.0667,12.2082,12.1099,-0.5397,-13.0277,-3.2375,7.0825,-6.7427,-8.7891,3.3972,-6.1114
1074.2188,18.9651,20.8703,15.4654,2.8509,-2.0586,14.9486,9.1659,3.3390,15.9694,17.6771,18.1856,-0.4968,-15.6027,-6.9816,10.1922,-7.8992,-10.8600,6.5886,-5.3477
1078.1250,18.3484,21.9599,17.7917,2.8858,-3.4711,13.5753,8.9204,3.0023,16.6933,15.8025,17.2277,-2.3288,-16.4404,-9.6647,7.3014,-9.9997,-11.9135,7.1150,-4.2809
1082.0312,12.4946,17.7367,16.1753,2.2452,-3.7418,10.1943,7.7723,2.5814,12.8691,8.8503,10.7047,-4.7730,-15.2393,-10.6187,0.4514,-11.8998,-11.4444,5.3341,-2.9181
1085.9375,5.0819,10.5828,11.4401,1.4918,-2.5179,6.9646,6.3457,2.7482,6.4550,1.1261,1.9436,-6.5098,-12.3140,-9.6036,-6.4837,-12.4953,-9.4264,2.1380,-1.4702
1089.8438,-0.0915,3.3974,5.0563,1.1597,0.0437,5.4526,4.8299,3.7454,-0.1089,-3.2242,-5.4007,-6.7014,-8.4447,-6.9056,-9.8611,-11.3674,-6.3917,-1.3603,-0.2192
1093.7500,-0.8641,-1.5555,-1.2334,1.5608,3.3219,5.9771,3.2010,5.2769,-4.7855,-2.2414,-8.8293,-5.2438,-4.5653,-3.3057,-8.1313,-9.0098,-3.2334,-4.1119,0.6580
1097.6562,2.4959,-3.3426,-5.8201,2.6916,6.4600,7.6824,1.6116,6.7089,-6.5368,3.0755,-7.7905,-2.6719,-1.4296,0.1215,-2.4763,-6.4883,-0.8011,-5.3571,1.1852
1101.5625,7.7948,-2.3709,-7.6163,4.2706,8.6723,9.2387,0.5890,7.4515,-5.4626,9.6131,-3.5247,0.1878,0.6112,2.3615,4.0620,-4.7563,0.4921,-4.7827,1.5505
1105.4688,12.3185,0.1632,-6.3350,5.8884,9.5005,9.7141,0.8353,7.2887,-2.5134,14.0452,1.8229,2.6262,1.6518,2.8586,8.3878,-4.0747,0.8223,-2.5806,1.9896
1109.3750,14.2838,3.0090,-2.5544,7.1983,8.9302,9.0796,2.7391,6.4655,1.0399,14.6630,6.2966,4.3404,2.1134,1.7888,9.0252,-3.9048,0.7806,0.6326,2.6805
1113.2812,13.5402,5.3783,2.4813,8.0516,7.3441,8.0732,5.9489,5.5010,4.1295,12.1071,8.8847,5.4881,2.5367,0.0474,6.7357,-3.3239,0.9906,4.0350,3.7018
1117.1875,11.2427,7.0371,7.2734,8.5046,5.3560,7.5679,9.3566,4.8676,6.1961,8.6695,9.6365,6.5058,3.3739,-1.0971,3.8149,-1.6682,1.7685,6.8766,5.0380
1121.0938,8.8384,8.0421,10.5376,8.7002,3.5996,7.8985,11.5783,4.7505,7.1847,6.6861,9.2161,7.7909,4.8457,-0.5602,2.5702,1.0270,3.0302,8.6906,6.5809
1125.0000,7.0639,8.3909,11.5570,8.7110,2.5532,8.5968,11.6769,5.0250,7.2981,7.0330,8.2531,9.4184,6.8933,2.0456,3.9118,4.0587,4.4696,9.3445,8.1142
1128.9062,5.5540,7.8649,10.3108,8.4646,2.4483,8.6877,9.6779,5.4322,6.6956,8.6153,6.9144,11.0466,9.2271,6.2077,6.8622,6.5029,5.8447,8.9422,9.3278
1132.8125,3.2325,6.1739,7.3827,7.8205,3.2715,7.3296,6.5367,5.7994,5.3488,9.0982,4.9343,12.0748,11.4468,10.7397,9.2165,7.7520,7.1451,7.6869,9.9129
1136.7188,-0.8180,3.2987,3.7381,6.7573,4.8257,4.3833,3.5690,6.1419,3.1603,6.4017,2.0400,11.9789,13.1841,14.3257,8.9192,7.7920,8.5222,5.8246,9.7313
1140.6250,-6.5456,-0.2187,0.4711,5.5326,6.8044,0.5811,1.7097,6.5905,0.2720,0.0795,-1.5429,10.6442,14.2135,16.0913,5.3443,7.0789,10.0540,3.7040,8.9588
1144.5312,-12.6234,-3.2572,-1.4229,4.6726,8.8400,-2.7549,1.0860,7.2239,-2.6600,-8.1695,-4.8689,8.5041,14.4854,15.8915,-0.2387,6.1626,11.5420,1.8642,8.0786
1148.4375,-16.7921,-4.4413,-1.2473,4.7498,10.5265,-4.2483,1.1708,7.9510,-4.4725,-15.0952,-6.5240,6.3986,14.0765,14.1795,-5.2417,5.3581,12.5168,1.0066,7.6788
1152.3438,-16.6725,-2.6797,1.2193,6.0509,11.4445,-2.9770,1.3746,8.5292,-3.8813,-17.2514,-5.2516,5.2185,13.0991,11.5756,-7.0301,4.6918,12.4737,1.7752,8.1409
1156.2500,-10.6999,2.3256,5.6019,8.3324,11.2249,1.2281,1.6146,8.6924,-0.1073,-12.4437,-0.6198,5.5207,11.6323,8.4380,-4.1921,4.1126,11.1867,4.4181,9.4041
1160.1562,1.1756,9.8425,10.9376,10.8307,9.6561,7.7345,2.4169,8.2825,6.5891,-0.6398,6.6453,7.3048,9.7234,4.7282,2.8433,3.7467,8.8913,8.5300,10.9589
1164.0625,17.2630,18.2664,15.8859,12.5612,6.8020,15.2656,4.4533,7.3005,14.8013,15.9747,14.8582,10.0411,7.4550,0.2589,12.0934,3.9451,6.2083,13.0744,12.0873
1167.9688,34.4632,25.6250,19.1314,12.7731,3.0706,22.2233,7.8550,5.8807,22.4240,33.7240,22.0161,12.9041,5.0239,-4.8531,20.9781,5.0451,3.8552,16.7399,12.2154
1171.8750,49.0757,30.2434,19.8605,11.3362,-0.8131,27.1342,11.8472,4.2630,27.4756,48.6089,26.5604,15.0775,2.7638,-9.8604,27.3897,7.0014,2.3178,18.4800,11.1818
1175.7812,57.8468,31.3077,18.1089,8.8592,-3.9416,29.1169,15.0488,2.8154,28.8876,57.4676,27.8795,15.9920,1.0773,-13.4581,30.3342,9.1779,1.6688,17.9617,9.2931
1179.6875,58.9200,29.1061,14.7931,6.4685,-5.4366,28.1848,16.2933,2.0641,26.8581,58.7658,26.3371,15.4324,0.2986,-14.2841,29.9132,10.5029,1.6140,15.6764,7.1674
1183.5938,52.3619,24.8469,11.3611,5.3356,-4.6883,25.1948,15.4110,2.6196,22.6095,52.8254,22.8814,13.5252,0.5525,-11.6012,26.8193,9.9558,1.7043,12.6552,5.4710
1187.5000,40.0827,20.1309,9.1819,6.1560,-1.5666,21.4086,13.3819,4.9258,17.7194,41.5164,18.5100,10.6576,1.6774,-5.7818,21.7704,7.1196,1.5731,9.9455,4.6734
1191.4062,25.2088,16.3099,8.9428,8.8111,3.4491,17.8816,11.6896,8.9108,13.4208,27.6107,13.9116,7.3706,3.2512,1.6931,15.2777,2.4718,1.0746,8.1393,4.8966
1195.3125,11.1782,14.0204,10.3514,12.3762,9.2841,15.0447,11.2891,13.7633,10.2399,14.0686,9.4516,4.2464,4.7121,8.7476,7.8520,-2.7679,0.2840,7.1983,5.8852
1199.2188,0.8931,13.0973,12.3126,15.4979,14.4741,12.7507,11.9250,18.0637,8.1022,3.4731,5.4228,1.7959,5.5367,13.4911,0.4086,-7.1522,-0.5943,6.6470,7.0984
1203.1250,-3.8354,12.8844,13.5190,16.9958,17.5618,10.7355,12.3345,20.3110,6.7412,-2.3180,2.3086,0.3648,5.4207,14.8886,-5.5404,-9.5994,-1.3332,5.9942,7.9212
1207.0312,-2.5026,12.7469,13.1667,16.4218,17.5850,9.1252,11.2470,19.6201,6.0863,-2.3654,0.8108,0.0844,4.4038,13.0230,-8.1984,-9.7591,-1.7518,5.1226,7.9526
1210.9375,4.1391,12.4889,11.4160,14.2866,14.4628,8.5591,8.4881,16.1926,6.3707,3.2183,1.5760,0.8845,2.8847,8.8772,-6.2454,-8.0011,-1.7402,4.4179,7.2536
1214.8438,14.3141,12.4401,9.3244,11.8009,9.0711,9.7736,5.3569,11.2513,7.9245,13.1990,4.7868,2.5525,1.4933,3.8043,0.3555,-5.1037,-1.2666,4.5600,6.3934
1218.7500,25.6273,13.1759,8.2521,10.2151,2.9123,12.9250,3.9090,6.4325,10.8332,25.3401,9.8998,4.8023,0.8395,-1.0283,10.0228,-1.8615,-0.3830,6.0924,6.1845
1222.6562,35.6393,15.0510,9.0396,10.0868,-2.5071,17.1746,5.5514,2.9693,14.7113,36.8543,15.7363,7.3153,1.2282,-4.9690,19.9940,1.1721,0.7725,9.0080,7.1805
1226.5625,42.5160,17.8346,11.4145,10.8929,-6.2868,20.9171,9.8895,1.1430,18.7395,45.1713,20.9073,9.7528,2.4799,-7.8945,27.4005,3.7269,1.9935,12.5918,9.2051
1230.4688,45.5156,20.6677,13.9918,11.2548,-8.4009,22.5695,14.6679,0.3142,21.9281,48.7568,24.3407,11.7673,3.9771,-9.9790,30.4580,5.7054,3.0522,15.6271,11.2476
1234.3750,45.0427,22.3740,14.9200,9.7077,-9.4707,21.4110,16.9434,-0.5182,23.4488,47.5747,25.6142,13.0474,4.9489,-11.3979,29.1513,7.0545,3.7632,16.8901,11.8880
1238.2812,42.1900,21.9604,12.8545,5.6036,-10.1905,17.9020,14.7981,-2.0082,22.8735,42.9034,24.9396,13.3935,4.8659,-12.1382,25.0609,7.7163,4.0339,15.7005,10.0820
1242.1875,38.0014,19.0525,7.7350,-0.3832,-10.7836,13.2769,8.5080,-4.0560,20.2540,36.5724,22.8655,12.7828,3.7184,-12.0041,20.4489,7.6601,3.8755,12.2544,5.8481
1246.0938,32.9179,14.0646,0.9202,-6.4845,-10.8554,8.7349,0.4202,-5.9335,16.0710,30.0491,19.9333,11.3672,1.9974,-10.7950,17.1214,6.9313,3.3686,7.5612,0.3957
1250.0000,26.7868,8.0531,-5.4140,-10.7084,-9.7525,4.8284,-6.3771,-6.8156,11.1127,23.9161,16.5055,9.3877,0.3641,-8.5432,15.6736,5.6505,2.6022,3.0020,-4.4574
1253.9062,19.4333,2.3452,-9.2994,-11.8657,-7.1810,1.4670,-9.7360,-6.3410,6.3100,18.0233,12.8259,7.0539,-0.7939,-5.6654,15.4682,3.9580,1.6235,-0.2740,-7.2625
1257.8125,11.3617,-1.8865,-9.8648,-10.1486,-3.6369,-1.5505,-9.4399,-4.8354,2.5315,12.1394,9.1906,4.4790,-1.6223,-2.9159,15.2669,1.9544,0.4314,-1.8077,-7.7079
1261.7188,4.0026,-3.9457,-7.6170,-6.9213,-0.3012,-3.9790,-6.9654,-3.0784,0.3628,6.5834,6.0469,1.7397,-2.6664,-1.1198,14.0914,-0.2972,-0.9761,-1.9028,-6.6705
1265.6250,-0.7867,-3.7383,-3.9964,-3.8575,1.5898,-5.0545,-4.2974,-1.7969,-0.0494,2.3504,3.9233,-0.9593,-4.3906,-0.7854,11.8199,-2.6922,-2.5219,-1.2842,-5.5014
1269.5312,-1.7106,-1.6899,-0.5060,-1.9592,1.5154,-4.0012,-2.6553,-1.2278,1.0106,0.6331,3.2438,-3.1312,-6.6527,-1.7910,9.2320,-4.9808,-3.9901,-0.5516,-5.0126
1273.4375,1.1583,1.4853,2.0549,-1.0568,0.0648,-0.7184,-1.9478,-1.0226,3.0245,2.0942,4.1689,-4.0141,-8.5158,-3.3454,7.5509,-6.7283,-5.0421,0.2343,-4.8581
1277.3438,6.3608,5.0627,3.8221,-0.0773,-1.3458,3.9257,-1.1950,-0.5282,5.5277,6.4278,6.5618,-2.8236,-8.6110,-4.3120,7.7810,-7.4090,-5.3331,1.5663,-3.7541
1281.2500,11.8973,8.5137,5.4828,2.1159,-1.2964,8.4768,0.5168,0.7534,8.2996,12.5171,10.0601,0.8169,-5.9142,-3.7888,10.1930,-6.6220,-4.6949,4.0785,-0.4299
1285.1562,16.3780,11.5574,7.5806,5.8606,0.7708,11.7047,3.2829,2.8184,11.3123,19.0360,14.1506,6.4788,-0.5069,-1.6542,14.1800,-4.3412,-3.2918,7.9547,5.3084
1289.0625,19.6648,14.0494,9.9869,10.3527,4.1898,13.2515,6.3268,5.1286,14.4613,25.0141,18.1712,12.8195,6.1684,1.2490,18.4913,-1.0625,-1.6431,12.5385,12.1209
1292.9688,22.5297,15.7967,11.8837,14.0267,7.4451,13.6398,8.5831,6.8955,17.2815,29.9412,21.2835,17.9075,11.7877,3.4617,21.6936,2.2582,-0.4604,16.4307,17.6274
1296.8750,25.5713,16.4386,12.2508,15.4014,9.0481,13.6538,9.4137,7.5005,18.8971,33.3884,22.5381,19.9082,14.1647,3.6628,22.6431,4.4927,-0.3479,18.0682,19.5854
1300.7812,28.2070,15.5016,10.5237,13.8628,8.3663,13.5806,8.9220,6.8045,18.3137,34.5425,21.1216,17.8385,12.2785,1.4317,20.7987,4.7581,-1.5109,16.4794,17.0481
1304.6875,28.5538,12.6260,6.9804,9.9187,5.8995,12.8986,7.6887,5.1736,14.9179,32.1574,16.7175,12.0184,6.7433,-2.4318,16.2981,2.7839,-3.6340,11.7812,10.8106
1308.5938,24.4086,7.8355,2.6056,4.8123,2.8678,10.6487,6.2033,3.2186,8.8809,25.1169,9.7786,3.9742,-0.5360,-6.2587,9.8213,-0.9489,-6.0113,5.1290,2.9090
1312.5000,14.7482,1.6740,-1.4753,-0.2127,0.4164,6.2050,4.4611,1.4124,1.2013,13.3126,1.4986,-4.1826,-7.3171,-8.3696,2.3397,-5.3848,-7.8681,-1.8468,-4.4765
1316.4062,0.7585,-4.8979,-4.6168,-4.5097,-1.0272,-0.1243,2.0313,-0.1732,-6.6521,-1.7674,-6.5603,-10.5974,-12.0343,-7.9526,-5.1302,-9.3187,-8.7002,-7.7752,-10.0239
1320.3125,-14.3371,-10.8073,-6.9212,-8.1242,-1.8412,-7.0947,-1.4738,-1.8344,-13.2836,-17.2179,-13.0099,-14.3156,-14.3162,-5.4376,-11.6780,-11.8710,-8.4416,-12.0215,-13.6009
1324.2188,-26.6211,-15.2099,-8.9838,-11.3721,-2.7266,-13.1027,-5.8940,-3.9061,-17.7876,-29.6798,-17.0559,-15.4259,-14.7786,-2.1410,-16.5522,-12.7792,-7.3844,-14.6643,-15.8213
1328.1250,-33.2334,-17.6909,-11.2894,-14.2387,-4.0229,-16.9329,-10.3547,-6.3363,-19.8498,-36.6114,-18.5902,-14.6935,-14.3079,0.5867,-19.1815,-12.3678,-5.9242,-16.0651,-17.2230
1332.0312,-33.5418,-18.2506,-13.6764,-16.0535,-5.3097,-18.2064,-13.5650,-8.4624,-19.5823,-37.2144,-17.9705,-12.9567,-13.3461,2.1642,-19.2532,-11.2383,-4.3149,-16.3823,-17.6753
1335.9375,-29.1430,-17.1446,-15.2463,-15.7162,-5.5824,-17.3331,-14.4010,-9.2012,-17.3095,-32.5843,-15.6987,-10.6693,-11.6415,3.0181,-16.8700,-9.8810,-2.5929,-15.3898,-16.4217
1339.8438,-22.8258,-14.7251,-14.8203,-12.3785,-3.8938,-15.1276,-12.4377,-7.6222,-13.4926,-25.0984,-12.2342,-7.8411,-8.5966,4.1203,-12.6900,-8.4476,-0.7017,-12.7235,-12.7090
1343.7500,-17.1783,-11.3854,-11.6918,-6.1674,-0.0473,-12.4125,-8.1630,-3.6033,-8.7966,-17.4183,-8.0214,-4.3469,-3.9364,6.1560,-7.8868,-6.8062,1.2951,-8.3586,-6.5510
1347.6562,-13.5919,-7.5933,-6.2133,1.5347,5.1107,-9.8154,-2.8082,1.8485,-4.1299,-11.5734,-3.6189,-0.3338,1.7857,8.9015,-3.8237,-4.8067,3.0945,-2.9495,0.9104
1351.5625,-12.0382,-3.9082,0.1599,8.4974,9.9988,-7.7368,2.0885,6.8836,-0.4833,-8.4326,0.2684,3.5932,7.2127,11.2494,-1.5173,-2.5385,4.2398,2.2505,7.7202
1355.4688,-11.5075,-0.8886,5.4427,12.5750,13.0359,-6.3335,5.1957,9.6354,1.4333,-7.6410,2.9533,6.5542,10.7587,11.8763,-1.1559,-0.3778,4.3766,5.8834,11.9431
1359.3750,-10.7074,1.0986,8.0191,12.6823,13.3843,-5.4473,5.8151,9.1622,1.5440,-7.9451,4.0381,7.8305,11.3945,10.1133,-1.9890,1.2179,3.5174,7.1097,12.5371
1363.2812,-8.6585,2.0454,7.3875,9.2836,11.2929,-4.5738,4.1123,5.9700,0.4787,-7.7825,3.5946,7.2623,9.1749,6.4420,-2.7360,2.0095,2.1292,5.9831,9.7819
1367.1875,-5.0313,2.3097,4.3583,4.1339,7.8879,-3.0334,1.0774,1.7857,-0.7492,-5.9850,2.1030,5.3441,5.2020,2.2898,-2.3456,2.1329,0.9607,3.3664,5.0586
1371.0938,-0.2480,2.4191,0.6182,-0.5733,4.5757,-0.3657,-1.8081,-1.3200,-1.3011,-2.3759,0.1794,2.9548,1.0612,-0.7392,-0.6811,1.9713,0.6840,0.4601,0.1508
1375.0000,4.6074,2.7730,-2.0889,-3.1816,2.4105,3.2641,-3.1361,-1.9741,-0.9636,2.0125,-1.7212,0.8978,-1.9294,-1.7058,1.3074,1.8251,1.5405,-1.7607,-3.5163
1378.9062,8.0797,3.4215,-2.7305,-3.1716,1.7453,6.9624,-2.1753,-0.1265,-0.2078,5.3008,-3.4329,-0.4698,-3.2442,-0.7393,2.0830,1.6284,3.1869,-2.8940,-5.3190
1382.8125,8.8464,4.0564,-1.3406,-1.1428,2.2750,9.4690,0.7642,3.0654,0.1714,5.6506,-4.9840,-1.3125,-3.2034,1.1956,0.4427,0.9560,4.8327,-3.1078,-5.4166
1386.7188,6.3179,4.2135,1.1507,1.7011,3.3559,9.8214,4.4260,5.9707,-0.4132,2.2917,-6.3962,-2.0873,-2.6015,2.9515,-3.6768,-0.6442,5.6076,-2.8759,-4.4106
1390.6250,1.0706,3.5578,3.4546,4.1980,4.3662,7.9161,7.1760,7.3691,-1.9784,-3.8721,-7.5547,-3.1804,-2.1813,3.8207,-8.9985,-3.2036,4.9799,-2.6609,-2.9570
1394.5312,-5.1798,2.0876,4.5233,5.6485,4.9228,4.5994,7.7917,6.9770,-3.9773,-10.4882,-8.2390,-4.6321,-2.2592,3.7621,-13.4506,-6.1038,3.0218,-2.7137,-1.5431
1398.4375,-10.1586,0.1656,3.9455,5.8798,4.9092,1.2317,6.0709,5.3800,-5.6124,-14.7735,-8.2557,-6.0903,-2.6676,3.1776,-15.1572,-8.2715,0.3914,-3.0314,-0.4635
1402.3438,-11.9543,-1.6088,2.0275,5.0678,4.3907,-0.9802,2.9307,3.5217,-6.2115,-14.8129,-7.5353,-6.9852,-2.9728,2.4869,-13.3188,-8.7244,-1.9633,-3.4072,0.1182
1406.2500,-9.8339,-2.5977,-0.3933,3.5422,3.5266,-1.4647,-0.0551,2.1369,-5.4451,-10.4359,-6.1148,-6.8082,-2.7902,1.8351,-8.5184,-7.1422,-3.2369,-3.5029,0.1545
1410.1562,-4.5369,-2.3192,-2.2789,1.7125,2.5313,-0.3421,-1.4268,1.4745,-3.3319,-3.2061,-4.0556,-5.3484,-2.0044,1.1153,-2.3411,-4.0966,-3.1263,-2.9354,-0.2290
1414.0625,2.0909,-0.6046,-2.7510,0.0816,1.6595,1.8511,-0.5092,1.3984,-0.1501,4.4171,-1.4232,-2.7942,-0.8028,0.2224,3.4132,-0.7852,-1.9369,-1.4157,-0.6913
1417.9688,7.9033,2.2873,-1.4054,-0.7976,1.1644,4.4738,2.3400,1.6858,3.6056,10.2217,1.6036,0.3208,0.4555,-0.7054,7.4611,1.5732,-0.3803,1.0589,-0.7588
1421.8750,11.2733,5.6272,1.4831,-0.5083,1.2107,6.8977,5.9723,2.2451,7.1994,13.0511,4.5726,3.2904,1.4348,-1.2687,9.3593,2.3199,0.8308,4.0456,-0.0475
1425.7812,11.5498,8.3147,4.9458,0.9716,1.7885,8.4539,8.9928,3.0970,9.6831,12.9225,6.7277,5.4597,1.9771,-1.0307,9.3561,1.5856,1.3685,6.6737,1.4907
1429.6875,9.0324,9.1727,7.5695,3.1348,2.6967,8.4338,10.3110,4.1825,10.1117,10.5613,7.2351,6.4287,2.1560,0.1832,7.9832,0.0856,1.4388,7.9232,3.4724
1433.5938,4.6112,7.3984,8.0022,5.0936,3.6277,6.3253,9.4719,5.2055,7.9428,6.7827,5.6041,6.1688,2.2219,2.1315,5.6927,-1.3370,1.6106,7.0892,5.2369
1437.5000,-0.6597,3.0003,5.5620,5.9906,4.3148,2.2114,6.7054,5.6856,3.4263,2.1412,2.0587,5.0145,2.4757,4.2567,2.7366,-2.1148,2.4304,4.2018,6.1840
1441.4062,-5.8468,-3.0172,0.6739,5.4508,4.6541,-2.9789,2.7622,5.2198,-2.2883,-3.0135,-2.4074,3.5336,3.1298,5.9753,-0.7162,-2.0984,4.0616,0.1431,6.0991
1445.3125,-10.2389,-8.8946,-5.1353,3.7908,4.7246,-7.6685,-1.3514,3.7767,-7.4798,-8.2618,-6.3900,2.3252,4.2128,6.9694,-4.3830,-1.4372,6.1715,-3.6560,5.2607
1449.2188,-13.3536,-12.7523,-9.7777,1.8375,4.6952,-10.2990,-4.6608,1.7986,-10.5205,-12.9419,-8.6836,1.8209,5.5544,7.3031,-7.7715,-0.3669,8.1266,-5.8222,4.2626
1453.1250,-14.9633,-13.3708,-11.4907,0.4548,4.6820,-10.1244,-6.4914,0.0069,-10.5672,-16.2826,-8.8110,2.1500,6.8470,7.3056,-10.2774,0.9157,9.3516,-5.6507,3.6602
1457.0312,-15.1746,-10.7494,-9.6585,0.0625,4.6468,-7.6456,-6.6674,-0.9976,-7.9294,-17.7846,-7.1906,3.0965,7.7439,7.3046,-11.4277,2.2298,9.6061,-3.4105,3.6561
1460.9375,-14.4990,-6.1597,-5.1412,0.4337,4.3995,-4.3895,-5.5727,-1.1010,-3.9325,-17.5898,-4.8777,4.1442,7.9455,7.3754,-11.1369,3.3189,9.0013,-0.2006,4.0089
1464.8438,-13.8033,-1.6418,0.0877,0.8753,3.7004,-2.1484,-4.0108,-0.7768,-0.3573,-16.5654,-3.0543,4.6035,7.2436,7.2568,-9.8241,3.8177,7.7832,2.5520,4.2007
1468.7500,-14.0693,0.8370,3.8344,0.6623,2.4076,-2.1264,-2.8789,-0.8383,1.2721,-15.9911,-2.5496,3.8154,5.5414,6.4872,-8.3021,3.3431,6.0811,3.6926,3.7454
1472.6562,-15.9978,0.1803,4.6601,-0.5442,0.5931,-4.4677,-2.7802,-1.9684,0.2428,-16.9700,-3.5953,1.4119,2.8860,4.6993,-7.4569,1.6663,3.8465,2.7620,2.4547
1476.5625,-19.6079,-3.4284,2.4522,-2.5231,-1.4260,-8.3631,-3.7603,-4.2830,-3.1451,-19.8413,-5.8543,-2.4437,-0.4698,1.9184,-7.8406,-1.1387,1.0443,0.0902,0.5250
1480.4688,-24.0457,-8.6638,-1.6684,-4.6290,-3.1555,-12.5595,-5.3121,-7.1797,-7.7573,-23.8964,-8.6211,-6.9655,-4.0166,-1.3070,-9.3691,-4.6519,-2.0615,-3.4213,-1.5721
1484.3750,-27.7717,-13.6453,-5.9959,-6.1237,-4.0747,-15.9032,-6.6544,-9.5674,-12.0755,-27.5728,-11.0692,-10.9183,-7.0280,-4.0438,-11.2976,-8.1825,-4.7972,-6.6883,-3.3071
1488.2812,-29.1397,-16.6919,-9.0535,-6.5115,-3.8201,-17.6353,-7.1355,-10.3732,-14.7438,-29.0905,-12.4728,-13.0567,-8.7440,-5.3523,-12.5303,-10.9242,-6.3068,-8.8274,-4.2944
1492.1875,-27.1593,-16.9194,-10.1446,-5.7189,-2.3395,-17.4049,-6.5435,-9.0678,-15.0265,-27.2752,-12.3901,-12.6594,-8.6622,-4.7315,-12.1481,-12.1520,-6.0283,-9.4012,-4.3904
1496.0938,-22.0763,-14.4596,-9.4156,-4.0721,0.0484,-15.1721,-5.1641,-5.9420,-13.0270,-22.1867,-10.7949,-9.8815,-6.7963,-2.3967,-9.8959,-11.4351,-4.1107,-8.4710,-3.6767
1500.0000,-15.4184,-10.2672,-7.5190,-2.1248,2.7318,-11.1788,-3.5787,-1.9950,-9.5913,-15.2121,-8.1100,-5.6989,-3.7408,0.7825,-6.3548,-8.8302,-1.4560,-6.4784,-2.3716
1503.9062,-9.3910,-5.6561,-5.1712,-0.4364,5.0054,-6.0096,-2.3377,1.5024,-5.9319,-8.5134,-5.0873,-1.4441,-0.4658,3.6766,-2.6784,-4.9748,0.7028,-4.0342,-0.7405
1507.8125,-5.8675,-1.7983,-2.8928,0.6037,6.3168,-0.6137,-1.6989,3.5410,-3.1320,-4.0560,-2.5433,1.8132,2.0729,5.4188,-0.0182,-0.9779,1.4603,-1.7125,0.9491
1511.7188,-5.4963,0.6058,-1.0245,0.8520,6.4474,3.8533,-1.5597,3.7430,-1.7568,-2.7092,-1.0497,3.6741,3.3036,5.7638,1.0376,1.9356,0.7269,0.0671,2.4200
1515.6250,-7.4435,1.3948,0.1172,0.3832,5.5443,6.3731,-1.5839,2.4113,-1.7530,-3.9244,-0.7406,4.3778,3.1921,5.0850,0.6797,2.9263,-0.7622,1.0491,3.3658
1519.5312,-9.9526,0.7984,0.1747,-0.6018,4.0009,6.4361,-1.4188,0.2851,-2.6582,-6.1967,-1.3420,4.3925,2.1193,4.0354,-0.3782,1.9442,-1.9216,1.0921,3.4748
1523.4375,-11.4185,-0.7843,-1.0972,-1.8647,2.2690,4.2349,-0.8701,-1.8239,-3.9622,-8.0489,-2.4005,3.9570,0.6016,3.1133,-1.4512,-0.2206,-1.9625,0.1442,2.5336
1527.3438,-11.3282,-2.9452,-3.5417,-3.1644,0.7167,0.5758,0.0444,-3.3180,-5.3768,-8.9357,-3.5621,2.9197,-0.9489,2.4233,-2.3538,-2.3296,-0.8081,-1.6985,0.5873
1531.2500,-10.4843,-5.3038,-6.4172,-4.2294,-0.4058,-3.4325,1.1515,-3.9177,-6.8510,-9.4823,-4.7223,0.9876,-2.2884,1.7705,-3.4601,-3.3520,0.9570,-4.0856,-1.9393
1535.1562,-10.3662,-7.4664,-8.5393,-4.7302,-0.9199,-6.7489,2.2203,-3.6123,-8.3605,-10.8961,-5.9642,-1.8277,-3.2554,0.9770,-5.3036,-3.0142,2.5156,-6.3698,-4.2754
1539.0625,-12.0494,-9.0030,-8.7632,-4.3307,-0.6844,-8.6794,3.0316,-2.5684,-9.6729,-13.9442,-7.3517,-4.9452,-3.6795,0.1475,-7.9963,-1.9067,3.3070,-7.7411,-5.5513
1542.9688,-15.4052,-9.5147,-6.5736,-2.8526,0.3567,-9.0056,3.4004,-1.0786,-10.3107,-18.2138,-8.7445,-7.3837,-3.4125,-0.3403,-10.9068,-1.0749,3.2640,-7.5437,-5.1851
1546.8750,-19.1242,-8.7829,-2.4337,-0.4768,2.0638,-7.9759,3.1829,0.4551,-9.7867,-22.2079,-9.7822,-8.2899,-2.4779,-0.1223,-12.8856,-1.3484,2.6981,-5.6336,-3.2118
1550.7812,-21.5574,-6.9130,2.3477,2.1756,4.0381,-6.1887,2.3162,1.5781,-7.9677,-24.2630,-10.0667,-7.4651,-1.1923,0.8190,-12.9645,-2.8339,1.9875,-2.5546,-0.3400
1554.6875,-21.8051,-4.3683,6.1937,4.2183,5.7068,-4.3796,0.8959,1.9303,-5.3037,-23.6845,-9.4325,-5.5104,-0.1014,2.0578,-11.0977,-4.8860,1.3301,0.6243,2.3539
1558.5938,-20.3037,-1.8461,7.9773,4.9131,6.5661,-3.1428,-0.7567,1.4404,-2.7251,-21.2968,-8.1259,-3.4739,0.2923,2.9726,-8.4231,-6.5518,0.7212,2.7716,3.9614
1562.5000,-18.4913,-0.0340,7.4917,4.1163,6.4535,-2.6806,-2.1216,0.4337,-1.2201,-18.9672,-6.7581,-2.2345,-0.1518,3.1758,-6.7748,-7.1745,0.1157,3.2233,4.2065
1566.4062,-17.7620,0.6481,5.4388,2.4647,5.6660,-2.7188,-2.6442,-0.4639,-1.3212,-18.3576,-6.0228,-2.0355,-1.0850,2.8034,-7.6450,-6.7559,-0.4097,2.0843,3.5526
1570.3125,-18.4116,0.2147,2.9913,1.1204,4.8167,-2.6737,-1.9909,-0.6214,-2.7948,-19.7135,-6.3035,-2.4566,-1.8627,2.4291,-11.1759,-5.8615,-0.6522,0.1346,2.8697
1574.2188,-19.2974,-0.8696,1.2218,1.1637,4.4937,-2.0069,-0.2617,0.2557,-4.7097,-21.5188,-7.3752,-2.7908,-1.9546,2.6385,-15.8136,-5.1726,-0.4418,-1.5874,2.8669
1578.1250,-18.4683,-1.8209,0.7258,2.9721,4.9252,-0.5459,1.9918,1.9550,-5.8443,-21.3015,-8.3821,-2.5197,-1.2974,3.5681,-18.9137,-5.0106,0.1795,-2.2677,3.6557
1582.0312,-14.3818,-1.7707,1.5907,5.9777,5.8667,1.4569,4.0042,3.8818,-5.2137,-17.1231,-8.1576,-1.5572,-0.3298,4.7514,-18.0446,-5.1506,0.9210,-1.5964,4.7262
1585.9375,-6.9447,-0.0460,3.6141,8.9736,6.7818,3.5822,5.1936,5.4117,-2.4659,-8.8364,-5.7787,-0.1489,0.3279,5.4057,-12.3098,-5.0158,1.3944,0.2583,5.3451
1589.8438,2.2573,3.5640,6.5272,10.7907,7.1909,5.6157,5.4946,6.2430,2.0009,1.6553,-1.1105,1.4117,0.3283,4.9682,-2.9618,-4.0892,1.3494,2.8742,5.0880
1593.7500,10.6548,8.6293,10.0308,10.9144,6.9507,7.7047,5.4015,6.5151,7.1955,11.2664,4.9508,2.9776,-0.1425,3.5058,7.0477,-2.2602,0.8217,5.7876,4.1331
1597.6562,15.8629,14.0762,13.6472,9.6487,6.2830,10.1065,5.6492,6.6141,11.8558,17.1691,10.7118,4.5063,-0.4965,1.7001,14.3617,0.0922,0.0945,8.5515,3.1116
1601.5625,16.6446,18.4186,16.5777,7.7453,5.5494,12.6730,6.6889,6.8037,14.8097,17.9596,14.3408,5.8683,-0.1834,0.4129,16.6902,2.2851,-0.4893,10.6725,2.6257
1605.4688,13.2048,20.2104,17.7851,5.7846,4.9492,14.4998,8.2782,6.9468,15.2814,13.9787,14.6615,6.7292,0.8694,0.1299,13.7209,3.6352,-0.7248,11.5811,2.7817
1609.3750,6.8190,18.5823,16.3646,3.7681,4.3640,14.1477,9.4772,6.5253,13.0937,6.7960,11.6826,6.6601,2.1337,0.6624,7.0628,3.7071,-0.6295,10.7678,3.0705
1613.2812,-0.8250,13.6441,12.0418,1.2249,3.4616,10.4715,9.1203,4.9681,8.7247,-1.6460,6.5771,5.4168,2.7678,1.3020,-0.6574,2.4201,-0.3886,8.0590,2.6823
1617.1875,-8.1471,6.5429,5.4952,-2.2427,1.9865,3.5965,6.5318,2.0924,3.1897,-9.6710,1.1100,3.1634,2.1286,1.3069,-7.0118,0.0325,-0.2295,3.8522,1.0444
1621.0938,-13.8855,-0.8984,-1.7329,-6.3757,0.0349,-4.6544,2.0708,-1.6196,-2.2511,-16.0549,-3.1800,0.4433,0.1717,0.3864,-10.6802,-2.9382,-0.3197,-0.8969,-1.7733
1625.0000,-17.1293,-6.8373,-7.7506,-10.0895,-1.8767,-11.3360,-2.8510,-5.0904,-6.4829,-19.9383,-5.6078,-2.0997,-2.5096,-1.1282,-11.6811,-5.8259,-0.7221,-4.9981,-5.0366
1628.9062,-17.4065,-10.0776,-11.0238,-11.8960,-3.0021,-13.7811,-6.3509,-7.0457,-8.8842,-20.8006,-6.4602,-4.0453,-5.0090,-2.5036,-10.9607,-7.9640,-1.3863,-7.5151,-7.7000
1632.8125,-14.8937,-10.4385,-10.9309,-10.6950,-2.7090,-11.0537,-6.9736,-6.5485,-9.4783,-18.6538,-6.5959,-5.3251,-6.5700,-3.0385,-9.6861,-8.8631,-2.1412,-8.1453,-8.8997
1636.7188,-10.5585,-8.6628,-7.9123,-6.4494,-0.7861,-4.5426,-4.4286,-3.4121,-8.8112,-14.2731,-6.8096,-6.0749,-6.9026,-2.4230,-8.6520,-8.3655,-2.7010,-7.2714,-8.3040
1640.6250,-5.9602,-5.9338,-3.1834,-0.3195,2.4393,2.7395,0.2419,1.6883,-7.6108,-9.1240,-7.3504,-6.3582,-6.2006,-0.8272,-8.0506,-6.6926,-2.7341,-5.6664,-6.1702
1644.5312,-2.6359,-3.2725,1.8041,5.8358,6.2153,7.7827,5.1598,7.4387,-6.4029,-4.8276,-7.8469,-6.0137,-4.9121,1.2698,-7.6034,-4.3377,-2.0158,-4.0422,-3.1514
1648.4375,-1.3550,-1.1355,5.8770,10.3047,9.6397,9.1554,8.5096,12.3394,-5.2881,-2.3976,-7.6220,-4.7689,-3.4519,3.3465,-6.8820,-1.8541,-0.6000,-2.7139,-0.0136
1652.3438,-1.7371,0.5917,8.4245,12.2372,11.9706,7.5667,9.3630,15.2089,-4.0027,-1.7631,-6.1646,-2.5395,-2.0325,5.0287,-5.6144,0.3419,1.1203,-1.5610,2.5965
1656.2500,-2.5763,2.2450,9.3990,11.8642,12.8571,5.1042,8.0172,15.5570,-2.2264,-1.9728,-3.4765,0.3330,-0.6711,6.1338,-3.8519,2.0433,2.5598,-0.2687,4.2811
1660.1562,-2.7488,3.9236,9.1185,10.1675,12.4189,3.6954,5.7087,13.7043,0.0480,-2.0097,-0.1364,3.1192,0.6927,6.6296,-1.9685,3.1882,3.2571,1.3317,4.9403
1664.0625,-2.1177,5.2313,8.0154,8.2553,11.1588,3.8320,3.8945,10.6099,2.3175,-1.6589,2.9071,5.0238,2.0772,6.5956,-0.5205,3.7529,3.1717,3.0484,4.7618
1667.9688,-1.7593,5.4038,6.4466,6.8214,9.7403,4.3917,3.4946,7.4758,3.6996,-1.7536,4.6861,5.5883,3.4078,6.2237,-0.0149,3.7209,2.7435,4.3661,4.1430
1671.8750,-3.2431,3.7688,4.6171,5.9532,8.7092,3.6274,4.4756,5.2789,3.3632,-3.5309,4.5678,4.9094,4.5382,5.8102,-0.6563,3.1626,2.6350,4.7070,3.5325
1675.7812,-7.3667,0.2686,2.6079,5.3165,8.2742,0.6020,5.9501,4.4234,1.0441,-7.4895,2.5107,3.5466,5.3097,5.6765,-2.1708,2.3427,3.2973,3.7624,3.2311
1679.6875,-13.2088,-4.2876,0.4716,4.5310,8.2473,-3.9451,6.7044,4.6603,-2.6510,-12.5810,-0.8470,2.2049,5.6168,6.0186,-3.8170,1.7194,4.6533,1.7145,3.2573
1683.5938,-18.2481,-8.4375,-1.6573,3.4845,8.1867,-7.9044,5.8678,5.3034,-6.3702,-16.4243,-4.3189,1.4152,5.4671,6.7743,-4.6353,1.7748,6.1333,-0.7697,3.3769
1687.5000,-19.6302,-10.6722,-3.4939,2.4169,7.6786,-9.0716,3.3930,5.6310,-8.5622,-16.5542,-6.5333,1.3920,5.0160,7.6184,-3.8599,2.7540,7.0603,-2.7729,3.3052
1691.4062,-15.8690,-10.1241,-4.6226,1.7712,6.6100,-6.5320,0.1232,5.2710,-8.1904,-11.9586,-6.4391,2.0940,4.5452,8.1276,-1.2965,4.4934,7.1230,-3.4903,2.9566
1695.3125,-7.8946,-6.9577,-4.6200,1.9348,5.2740,-1.2365,-2.5762,4.3809,-5.2382,-3.8784,-3.7551,3.3644,4.3601,8.0308,2.5501,6.4721,6.5922,-2.5608,2.5638
1699.2188,1.2888,-2.2458,-3.2424,3.0314,4.2388,4.5901,-3.4462,3.5459,-0.7185,4.7334,0.8744,5.0099,4.6244,7.3840,6.6957,8.0723,6.1070,-0.2210,2.5583
1703.1250,8.2028,2.5886,-0.5914,4.8633,4.0447,8.7848,-1.9286,3.4622,3.8291,10.8216,6.1376,6.7770,5.2162,6.5384,10.1299,8.8762,6.1669,2.7858,3.2707
1707.0312,10.8012,6.4336,2.8338,6.9982,4.8958,10.4346,1.5514,4.5698,7.0795,12.9089,10.6237,8.2993,5.7121,5.9046,12.2456,8.8037,6.6978,5.5067,4.6448
1710.9375,9.5098,8.8745,6.2403,8.9210,6.5175,10.1720,5.7497,6.8074,8.4879,11.7856,13.3994,9.1291,5.5521,5.6529,13.0018,8.0182,7.0247,7.1470,6.1673
1714.8438,6.7765,10.1145,8.7671,10.1571,8.2530,9.4644,9.1369,9.5833,8.3813,9.7953,14.2781,8.8934,4.3258,5.5485,12.7581,6.7138,6.3066,7.3440,7.0748
1718.7500,5.4533,10.5483,9.7368,10.3274,9.3373,9.4557,10.5483,11.9593,7.5707,9.2263,13.6648,7.5001,2.0278,5.0417,11.9378,4.9800,4.1543,6.2340,6.7223
1722.6562,7.0521,10.3208,8.8352,9.1630,9.2054,10.1686,9.6372,12.9637,6.7681,10.8766,12.1384,5.2647,-0.8735,3.5797,10.7728,2.8673,1.0036,4.3096,4.9027
1726.5625,10.9407,9.1958,6.1689,6.5436,7.6895,10.5767,6.9238,11.9249,6.1866,13.6916,10.0913,2.8587,-3.6048,0.9694,9.2895,0.5869,-2.0299,2.1688,1.9507
1730.4688,14.8927,6.8196,2.2140,2.5955,5.0461,9.4293,3.4464,8.7189,5.5468,15.6172,7.6655,1.0864,-5.4051,-2.4193,7.4945,-1.3616,-3.7439,0.2932,-1.3919
1734.3750,16.5369,3.1767,-2.2965,-2.1923,1.8375,6.2139,0.2267,3.8559,4.4253,15.0126,4.9657,0.5857,-5.8176,-5.7297,5.5627,-2.3110,-3.5135,-1.0496,-4.2449
1738.2812,14.7442,-1.1120,-6.5083,-6.9364,-1.2530,1.5976,-2.1503,-1.6299,2.6649,11.6689,2.3045,1.5785,-4.8124,-7.9490,3.8457,-1.7809,-1.6128,-1.7805,-5.8562
1742.1875,10.1456,-4.8962,-9.5923,-10.5121,-3.6015,-2.9138,-3.6282,-6.4671,0.5592,6.8412,0.2211,3.7685,-2.7151,-8.3328,2.6876,0.1562,0.9898,-1.9237,-5.7872
1746.0938,4.6076,-6.9767,-10.9004,-11.8970,-4.7805,-5.8181,-4.4408,-9.5254,-1.2809,2.4112,-0.7776,6.4221,-0.0274,-6.7292,2.2086,2.7770,3.1984,-1.5382,-4.0048
1750.0000,0.1439,-6.6732,-10.1095,-10.5803,-4.6418,-6.3804,-4.7416,-10.1548,-2.2455,-0.1658,-0.5459,8.6141,2.7361,-3.6582,2.2551,5.0030,4.3419,-0.6914,-0.8968
1753.9062,-2.0165,-4.1355,-7.3069,-6.8313,-3.3358,-4.8563,-4.3717,-8.3592,-1.9962,-0.4537,0.5885,9.5687,5.1304,-0.1214,2.5711,5.9469,4.3920,0.5444,2.8019
1757.8125,-1.7382,-0.2233,-2.9701,-1.6544,-1.2588,-2.1283,-2.9365,-4.7414,-0.5423,1.0734,2.0527,8.9778,6.8043,2.7728,3.0570,5.3810,3.7833,2.0984,6.1972
1761.7188,0.3194,3.9396,2.1611,3.5880,1.0703,0.9026,-0.1476,-0.2583,1.8486,3.5741,3.4302,7.1557,7.5305,4.2185,3.8840,3.8307,3.0398,3.9048,8.5188
1765.6250,3.2462,7.4543,7.2701,7.7186,3.1741,3.7287,3.7993,4.1016,4.7710,6.3422,4.7108,4.9280,7.2701,4.0038,5.3453,2.2358,2.4930,5.8766,9.3993
1769.5312,6.2999,9.9128,11.6301,10.1875,4.7636,6.2382,8.0827,7.5889,7.7364,8.9775,6.1737,3.2642,6.2322,2.5797,7.5382,1.3997,2.2476,7.8415,8.9991
1773.4375,9.0600,11.3653,14.7024,11.1941,5.8051,8.4387,11.4912,9.8330,10.1969,11.2873,7.9926,2.8117,4.8497,0.8752,10.1338,1.5716,2.3256,9.4894,7.8856
1777.3438,11.4103,12.1086,16.1801,11.4467,6.4777,10.2249,12.9476,10.8432,11.6445,13.1800,9.9048,3.5751,3.6332,-0.0802,12.4489,2.4024,2.7890,10.4139,6.7171
1781.2500,13.4859,12.4843,16.0188,11.7138,7.0416,11.4131,12.0482,10.9145,11.8290,14.7117,11.2598,4.9335,2.9529,0.4015,13.8139,3.2566,3.6949,10.2846,5.9127
1785.1562,15.6041,12.7860,14.4789,12.4196,7.6753,11.9896,9.3126,10.4859,10.9774,16.1924,11.4642,6.0000,2.8657,2.3373,13.9952,3.6389,4.9171,9.0807,5.5064
1789.0625,18.1071,13.2397,12.1346,13.4797,8.3565,12.2969,5.9855,9.9818,9.8041,18.1226,10.4950,6.1167,3.0937,5.0059,13.3658,3.4504,6.0182,7.2221,5.2579
1792.9688,21.0951,13.9598,9.7742,14.4245,8.8371,12.9111,3.4757,9.6655,9.1922,20.8613,9.0483,5.1848,3.1741,7.2060,12.6849,2.9392,6.3473,5.4545,4.9091
1796.8750,24.1970,14.8515,8.1553,14.6943,8.7298,14.2229,2.7171,9.5407,9.6714,24.2222,8.1453,3.6393,2.6977,7.7615,12.6250,2.4340,5.3684,4.4918,4.3824
1800.7812,26.6082,15.5506,7.6905,13.9323,7.6754,16.0184,3.7759,9.3560,11.0258,27.3583,8.4355,2.1089,1.5086,6.0624,13.3665,2.0790,3.0313,4.6041,3.7771
1804.6875,27.5015,15.5314,8.2373,12.1389,5.5316,17.4265,5.8968,8.7363,12.3559,29.1507,9.7098,1.0159,-0.2323,2.3867,14.5336,1.7579,-0.0741,5.4314,3.1975
1808.5938,26.6182,14.4095,9.1537,9.6537,2.5002,17.3699,7.9398,7.4007,12.6322,28.9267,11.0213,0.3940,-2.1280,-2.1729,15.4993,1.2331,-2.9222,6.1859,2.5876
1812.5000,24.6242,12.2853,9.6402,7.0146,-0.8742,15.2870,8.9592,5.3561,11.4199,27.0116,11.3720,0.0282,-3.7088,-6.1679,15.8315,0.3685,-4.5259,6.1582,1.7437
1816.4062,22.8854,9.8671,9.1936,4.7695,-3.8584,11.6396,8.6140,2.9473,9.2752,24.6571,10.4891,-0.2239,-4.5949,-8.4258,15.5638,-0.7384,-4.4161,5.2109,0.5185
1820.3125,22.6896,8.2015,7.8909,3.3004,-5.7915,7.8072,7.2158,0.7121,7.4892,23.3006,9.1095,-0.2079,-4.6068,-8.5447,15.1153,-1.8076,-2.8533,3.9137,-0.9503
1824.2188,24.3678,8.0920,6.3011,2.6940,-6.3446,5.3516,5.4286,-0.8868,7.2899,23.6110,8.5235,0.4543,-3.8095,-7.0058,14.9363,-2.5577,-0.6660,3.1911,-2.2046
1828.1250,26.9235,9.5379,5.0580,2.6925,-5.6561,5.0747,3.8309,-1.7004,9.0001,24.9803,9.6579,2.0245,-2.4996,-4.8638,15.1401,-2.8791,1.1704,3.6825,-2.7104
1832.0312,28.4940,11.5798,4.3669,2.7547,-4.2736,6.4759,2.6036,-1.9577,11.7209,25.8496,12.3295,4.2902,-1.1393,-3.2041,15.3755,-2.8770,1.9644,5.2292,-2.2466
1835.9375,27.4244,12.7245,3.7920,2.2398,-2.9249,8.0030,1.5130,-2.1206,13.7767,24.6906,15.1996,6.4769,-0.2356,-2.6682,15.0174,-2.7618,1.5319,6.8490,-1.1582
1839.8438,23.2999,11.7591,2.5072,0.6732,-2.2290,7.9954,0.1676,-2.6213,13.6653,21.0064,16.4967,7.5480,-0.1805,-3.2811,13.5452,-2.6786,0.1484,7.2528,-0.2560
1843.7500,17.2767,8.4922,-0.1157,-2.0104,-2.4817,5.7601,-1.6321,-3.6396,10.9238,15.7002,15.0509,6.7467,-1.1025,-4.6161,10.8752,-2.5983,-1.6778,5.6057,-0.3746
1847.6562,11.4944,3.9663,-3.9517,-5.3704,-3.5962,2.1019,-3.6781,-5.0370,6.3880,10.5887,10.9896,4.0619,-2.7964,-6.1324,7.4634,-2.3506,-3.4482,2.0709,-1.8492
1851.5625,7.9387,-0.0160,-7.9833,-8.5835,-5.1950,-1.0550,-5.4055,-6.4533,1.7242,7.4016,5.6810,0.3276,-4.7824,-7.4541,4.1422,-1.7757,-4.8176,-2.1976,-4.2508
1855.4688,7.4528,-1.8009,-10.7165,-10.7577,-6.7793,-1.7619,-6.1780,-7.4826,-1.4394,6.9066,1.0022,-3.1204,-6.4849,-8.4418,1.7919,-0.8955,-5.6216,-5.6099,-6.5693
1859.3750,9.4612,-0.7237,-10.9439,-11.3014,-7.8946,0.7846,-5.6406,-7.8236,-2.2535,8.6604,-1.5892,-5.0565,-7.4554,-9.0864,1.0077,0.0092,-5.8460,-6.9215,-7.7566
1863.2812,12.4845,2.5802,-8.4220,-10.1772,-8.2466,5.7010,-3.9412,-7.3538,-0.8891,11.4358,-1.6479,-4.9234,-7.5410,-9.3706,1.8965,0.4776,-5.5948,-5.8086,-7.3103
1867.1875,15.0417,6.5366,-4.0708,-7.9199,-7.7653,10.8304,-1.7045,-6.1412,1.7389,13.9639,0.2566,-3.0571,-6.9207,-9.2348,4.0652,0.0750,-5.0683,-2.9609,-5.5566
1871.0938,16.3630,9.4283,0.4191,-5.4128,-6.6222,13.8713,0.2213,-4.4279,4.4881,15.5137,2.9995,-0.4836,-6.0005,-8.6614,6.7879,-1.3733,-4.5234,0.3005,-3.4726
1875.0000,16.5484,10.1796,3.3514,-3.5275,-5.1875,13.5619,1.1154,-2.5926,6.4250,16.0348,5.4690,1.5888,-5.2239,-7.7751,9.2737,-3.6410,-4.1940,2.6326,-2.1632
1878.9062,16.2022,8.7374,3.7545,-2.7904,-3.9122,10.2521,0.6695,-1.0660,7.0235,15.9072,6.9377,2.3217,-4.8834,-6.8312,10.9240,-6.1358,-4.1922,3.2000,-2.2921
1882.8125,15.8760,5.9268,1.7282,-3.2127,-3.1462,5.5831,-0.9063,-0.1850,6.1805,15.5513,7.1460,1.5812,-5.0107,-6.0698,11.4707,-8.1110,-4.4500,1.9203,-3.7695
1886.7188,15.6877,2.9440,-1.7047,-4.3380,-2.9665,1.5311,-2.9782,-0.0304,4.1716,15.1422,6.2034,-0.0815,-5.3808,-5.5374,10.9479,-8.9703,-4.7487,-0.6043,-5.8358
1890.6250,15.2949,0.8031,-5.0963,-5.4642,-3.1201,-0.5846,-4.7276,-0.3470,1.5992,14.5346,4.4560,-1.7669,-5.6214,-5.0302,9.5412,-8.5295,-4.8309,-3.3746,-7.4588
1894.5312,14.1647,-0.0034,-7.1486,-5.9309,-3.1445,-0.5765,-5.4348,-0.6291,-0.7290,13.3750,2.3848,-2.6937,-5.3778,-4.2291,7.4404,-7.1049,-4.5319,-5.3670,-7.8194
1898.4375,11.9416,0.4567,-7.1300,-5.3519,-2.6266,0.8336,-4.7138,-0.3660,-2.0558,11.3273,0.4981,-2.5586,-4.4699,-2.9469,4.8128,-5.3748,-3.8483,-5.8780,-6.6490
1902.3438,8.7254,1.7339,-5.0308,-3.7112,-1.4538,2.6631,-2.6292,0.6765,-2.0080,8.3330,-0.8174,-1.6174,-2.9756,-1.3081,1.9131,-4.0641,-2.9053,-4.7514,-4.2844
1906.2500,5.1468,3.2427,-1.4749,-1.3068,0.1027,4.2593,0.3329,2.3099,-0.8169,4.8118,-1.4466,-0.4663,-1.2010,0.2823,-0.7858,-3.5984,-1.8491,-2.4179,-1.4568
1910.1562,2.2154,4.4689,2.5392,1.4113,1.5422,5.4741,3.4317,4.0185,0.7732,1.6756,-1.5818,0.3365,0.4557,1.3704,-2.6137,-3.8997,-0.7457,0.2873,1.0612
1914.0625,0.9802,5.1136,5.9978,4.0305,2.4400,6.4222,5.9273,5.2554,1.9283,0.0634,-1.5632,0.5947,1.6878,1.7304,-2.9513,-4.4332,0.4427,2.4909,2.7847
1917.9688,2.1080,5.1898,8.2445,6.3139,2.7133,7.1297,7.3424,5.7682,2.2620,0.8430,-1.5821,0.5645,2.4233,1.4933,-1.5905,-4.4916,1.7854,3.6925,3.6906
1921.8750,5.5514,5.0613,9.2458,8.2426,2.6751,7.4181,7.6323,5.7539,2.1386,4.1190,-1.4341,0.7798,2.8486,1.0467,1.0491,-3.5743,3.2660,4.0170,4.1770
1925.7812,10.4844,5.3653,9.6046,9.9504,2.8344,7.1244,7.1840,5.7451,2.5075,9.0649,-0.5317,1.7238,3.2908,0.7846,4.0602,-1.6636,4.7019,4.1479,4.8341
1929.6875,15.5838,6.7594,10.2390,11.5806,3.5669,6.4313,6.6246,6.2882,4.3161,14.2508,1.7604,3.5335,4.0111,0.8848,6.5209,0.7489,5.7623,4.9320,6.1208
1933.5938,19.5470,9.5304,11.8103,13.1160,4.8559,5.9481,6.5013,7.5951,7.8363,18.3179,5.6223,5.8832,5.0172,1.2498,8.0098,2.8993,6.0884,6.8345,8.0782
1937.5000,21.5733,13.2347,14.1744,14.2583,6.2582,6.3599,6.9712,9.3631,12.3153,20.5816,10.4162,8.0841,5.9991,1.6183,8.7940,4.1183,5.4580,9.5429,10.2118
1941.4062,21.5426,16.6234,16.2115,14.4382,7.1086,7.8329,7.6595,10.8640,16.1920,21.1635,14.7367,9.3364,6.4406,1.7395,9.5199,4.1289,3.9140,11.9739,11.6220
1945.3125,19.8168,18.0237,16.2477,13.0065,6.8506,9.6349,7.7879,11.2639,17.7961,20.5808,16.9367,9.0289,5.8672,1.4932,10.6060,3.1182,1.7913,12.7415,11.3715
1949.2188,16.8562,16.1126,12.9575,9.5829,5.3230,10.3622,6.5558,10.0270,16.1757,19.1428,15.9104,6.9947,4.1228,0.9132,11.7908,1.5669,-0.3720,10.8870,8.9637
1953.1250,12.9665,10.7383,6.2996,4.4241,2.8756,8.7627,3.6137,7.2185,11.6260,16.6665,11.7342,3.6550,1.5364,0.1583,12.2185,-0.0401,-2.0048,6.5003,4.7194
1957.0312,8.3691,3.3111,-2.0808,-1.3985,0.2723,4.6736,-0.6092,3.5633,5.6475,12.7782,5.7968,-0.0131,-1.1190,-0.5158,11.0578,-1.4384,-2.6892,0.8767,-0.1622
1960.9375,3.4920,-3.5732,-9.3265,-6.1987,-1.5752,-0.5856,-4.9253,0.2160,0.3437,7.5698,0.2847,-2.7361,-2.8901,-0.7844,8.2231,-2.6208,-2.2957,-3.9349,-3.9665
1964.8438,-0.8426,-7.2196,-12.5893,-8.2716,-1.9493,-4.7404,-7.8059,-1.6801,-2.4698,2.0311,-2.7728,-3.4128,-3.0370,-0.3380,4.6335,-3.6958,-1.0218,-6.0242,-5.1533
1968.7500,-3.6069,-6.1343,-10.4036,-6.6627,-0.6252,-5.7864,-8.0327,-1.4645,-2.0410,-2.2075,-2.4470,-1.6432,-1.3881,0.9532,1.7447,-4.6982,0.6772,-4.5291,-3.0814
1972.6562,-4.0956,-0.8385,-3.4698,-1.7205,1.9970,-3.1812,-5.2767,0.7550,1.0118,-3.7586,0.6487,1.9514,1.5242,2.8658,0.6270,-5.4981,2.2409,-0.0960,1.6066
1976.5625,-2.4253,6.3085,5.6132,4.9206,5.0071,1.7757,-0.3035,4.1559,5.0122,-2.3812,4.6726,5.8679,4.6437,4.7925,1.2455,-5.8711,3.1891,5.3800,7.1896
1980.4688,0.4240,12.2489,13.5506,11.0011,7.3409,6.6667,5.3176,7.5819,8.0261,0.8120,7.4970,8.3643,6.8382,5.9609,2.5020,-5.6618,3.2762,9.6352,11.6191
1984.3750,3.1490,14.7334,17.8447,14.6386,8.2423,9.3562,9.8675,10.0668,8.7766,4.0804,7.7936,8.3354,7.4097,5.8398,3.0666,-4.9057,2.5610,11.1013,13.4595
1988.2812,4.9157,13.3566,17.7768,15.1389,7.6087,9.1808,12.1658,11.2188,7.2176,6.2347,5.6806,5.9340,6.4079,4.4938,2.4161,-3.8123,1.3647,9.5948,12.5166
1992.1875,5.8230,9.5406,14.3985,13.1586,6.0186,7.1651,11.9608,11.2592,4.4557,7.3797,2.5652,2.5244,4.5645,2.6209,1.2900,-2.6325,0.1328,6.2681,9.8040
1996.0938,6.6514,5.5142,9.6490,10.1478,4.4017,5.1457,9.8619,10.7178,2.0516,8.6083,0.2731,-0.0720,2.8709,1.1852,1.1534,-1.5306,-0.7447,2.8672,6.8704
2000.0000,8.0433,2.9442,5.2149,7.4433,3.5256,4.4211,6.9199,10.0080,1.0923,10.8258,-0.0266,-0.6223,2.0326,0.8445,2.9871,-0.5771,-1.0802,0.7446,4.8975
2003.9062,9.7337,2.0785,1.8359,5.5926,3.6012,4.8646,4.1305,9.1801,1.5860,13.6098,1.5392,0.8223,2.1176,1.5446,6.2768,0.1336,-0.9398,0.2116,4.1164
2007.8125,10.4837,1.9049,-0.6064,4.3143,4.2481,5.1119,2.1296,8.0174,2.5621,15.0811,3.7235,3.0310,2.6091,2.5740,9.0188,0.3671,-0.5756,0.5944,3.8824
2011.7188,8.8809,1.1513,-2.4356,3.0419,4.8263,3.6890,1.1715,6.3799,2.8180,13.0586,5.0174,4.4337,2.8145,3.0628,8.8818,-0.2118,-0.2772,0.9031,3.3114
2015.6250,4.4990,-0.6079,-3.5554,1.5893,4.8956,0.2764,1.2798,4.5023,1.8192,6.7784,4.6227,4.1370,2.3561,2.5861,4.8235,-1.8004,-0.2166,0.6238,2.0066
2019.5312,-1.4392,-2.5319,-3.3686,0.4040,4.4718,-3.8070,2.3736,2.9733,0.1267,-2.0755,2.9026,2.4358,1.4068,1.4457,-1.9460,-4.1610,-0.3701,0.0725,0.3579
2023.4375,-6.4827,-3.0944,-1.3192,0.2017,3.9045,-6.2964,4.2487,2.3639,-0.9810,-9.9181,1.0271,0.4902,0.5137,0.4183,-8.4048,-6.5121,-0.5587,0.0631,-0.7939
2027.3438,-8.3075,-1.2711,2.3723,1.2617,3.4808,-5.4433,6.4641,2.7545,-0.4699,-13.2155,0.0815,-0.5739,0.1392,0.1509,-11.4042,-7.7815,-0.5810,1.1394,-0.8684
2031.2500,-6.1666,2.5028,6.3935,2.9525,3.0750,-1.2889,8.3019,3.5271,1.5685,-10.6450,0.2774,-0.4784,0.2615,0.6401,-9.5768,-7.1505,-0.3567,2.9517,-0.0924
2035.1562,-1.4599,6.3179,8.7989,3.9107,2.1392,4.1254,8.9344,3.6274,3.7765,-4.0321,0.8318,0.0704,0.3394,1.1863,-4.2346,-4.5810,0.0106,4.2867,0.5505
2039.0625,3.0090,7.8163,8.0465,2.8257,0.0779,7.8172,7.7723,2.1703,4.3173,2.6229,0.6063,0.0116,-0.3044,0.8695,1.3718,-0.9628,0.2977,3.8060,-0.0285
2042.9688,4.6624,5.6509,3.9759,-0.6838,-3.2460,7.5860,4.8021,-1.0009,2.1237,5.4757,-0.9486,-1.1528,-1.9418,-0.7863,4.0184,2.2851,0.3149,1.0295,-2.2128
2046.8750,2.6462,0.4499,-1.9369,-5.7190,-7.2484,3.3542,0.6855,-5.1826,-2.2224,3.0836,-3.2357,-2.8485,-4.1318,-3.4306,2.4883,3.9708,0.0509,-3.1272,-5.2915
2050.7812,-1.7331,-5.3601,-7.2787,-10.5509,-10.8266,-2.7015,-3.4784,-9.2075,-6.6245,-2.8212,-4.7713,-3.7303,-5.8986,-6.0605,-1.6690,3.7991,-0.2968,-6.6958,-7.7985
2054.6875,-5.8735,-8.8238,-9.9789,-13.5956,-12.9295,-7.3281,-6.6187,-12.1088,-8.6171,-8.4646,-4.1281,-2.6105,-6.3103,-7.6311,-5.0812,2.5277,-0.4379,-7.7384,-8.3864
2058.5938,-7.4616,-8.0934,-9.4076,-14.2773,-13.1398,-8.0043,-8.1378,-13.6148,-6.8402,-10.3196,-0.9326,0.6340,-5.0881,-7.6880,-4.6266,1.4894,-0.1917,-5.5149,-6.6678
2062.5000,-5.7816,-3.4817,-6.6353,-13.2237,-11.8948,-4.3357,-8.1030,-14.1676,-1.9156,-7.1340,3.7664,4.8246,-2.8292,-6.6019,0.6196,1.7641,0.3566,-0.9875,-3.4702
2066.4062,-1.9975,2.6739,-3.7107,-11.7047,-10.2102,1.7470,-7.1112,-14.4919,3.8401,-0.5373,8.0282,8.1049,-0.6763,-5.2795,8.7255,3.5110,0.8581,3.6855,-0.3391
2070.3125,1.6637,7.2461,-2.4158,-10.7313,-9.0886,7.0685,-5.9332,-15.0407,7.7010,6.0137,10.1176,9.0329,0.3682,-4.5704,15.9016,5.8733,0.8825,6.3719,1.3823
2074.2188,3.2454,7.9488,-3.2550,-10.4311,-8.9770,8.9350,-5.1424,-15.6945,8.0306,9.2146,9.4662,7.4367,0.0453,-4.7704,18.5538,7.5005,0.1823,6.1561,1.3122
2078.1250,2.1006,4.4778,-5.2610,-10.0855,-9.5780,6.5399,-4.8987,-15.8825,5.1027,7.6493,6.9014,4.4980,-1.0249,-5.5119,15.2117,7.3549,-1.1206,3.7812,0.1702
2082.0312,-0.8949,-1.4111,-6.6751,-8.7396,-10.0808,1.3097,-4.9501,-14.9913,0.8083,2.3894,4.0452,2.0368,-1.7568,-6.0565,7.2843,5.3077,-2.5502,1.1055,-0.7421
2085.9375,-3.9541,-6.8550,-6.0414,-5.9286,-9.6347,-3.9377,-4.8077,-12.7626,-2.4919,-3.7208,2.3203,1.4648,-1.2896,-5.7577,-1.7039,2.1955,-3.4973,-0.0470,-0.3580
2089.8438,-5.3733,-9.3081,-3.0439,-2.0384,-7.7865,-6.5073,-4.0049,-9.4405,-3.2311,-7.5836,2.2142,3.0435,0.4792,-4.4078,-7.9017,-0.6501,-3.5271,1.0824,1.5459
2093.7500,-4.3555,-7.6887,1.3665,1.8846,-4.6799,-5.1709,-2.3455,-5.6396,-1.2939,-7.3457,3.2199,5.8424,2.8367,-2.3072,-8.9596,-2.0812,-2.5964,3.8723,4.2744
2097.6562,-1.2994,-2.7216,5.5558,4.6867,-0.9753,-0.6544,-0.0570,-2.0890,2.2000,-3.1855,4.3875,8.3458,4.6817,-0.0887,-4.9847,-1.6389,-1.0617,6.8348,6.6451
2101.5625,2.4914,3.5906,8.0862,5.6453,2.4205,4.9109,2.2230,0.5763,5.7034,2.8898,5.0322,9.2970,5.1515,1.5644,1.7539,0.3362,0.5151,8.5565,7.6234
2105.4688,5.4635,8.9931,8.3660,4.7043,4.6807,9.1797,3.6630,1.9117,8.0622,8.0600,5.0964,8.2945,4.0709,2.1687,8.0811,2.9526,1.6393,8.4530,6.7962
2109.3750,6.5117,11.9327,6.7450,2.3691,5.3311,10.7244,3.6035,1.7095,8.8825,10.0201,4.9718,5.8639,1.9859,1.5942,11.4153,5.1698,2.0773,6.9131,4.4785
2113.2812,5.4248,11.9932,4.1042,-0.5753,4.3998,9.5116,1.9160,0.0640,8.3557,8.0145,4.9869,3.0529,-0.1889,0.1071,10.7764,6.1494,1.8798,4.8415,1.4735
2117.1875,2.9009,9.7068,1.2738,-3.3265,2.4026,6.5592,-0.8547,-2.5604,6.8180,3.1075,4.9891,0.8335,-1.6642,-1.7029,6.9144,5.4592,1.2588,2.9840,-1.3262
2121.0938,0.1316,5.9895,-1.3394,-5.2232,0.1619,3.1110,-3.6916,-5.3640,4.4340,-2.4398,4.3541,-0.3511,-2.1228,-3.1097,1.6537,3.1458,0.4322,1.5075,-3.2816
2125.0000,-1.8554,1.6191,-3.7264,-5.8355,-1.4883,-0.0916,-5.5859,-7.4266,1.2216,-6.3781,2.4274,-0.6880,-1.7565,-3.5121,-3.0935,-0.2825,-0.4548,0.0778,-4.1608
2128.9062,-2.7649,-2.9289,-5.9475,-5.0410,-1.9922,-2.9896,-6.0371,-8.0473,-2.6601,-7.6380,-0.9092,-0.7403,-1.0299,-2.6653,-6.1186,-3.9595,-1.2939,-1.6836,-4.0875
2132.8125,-3.1927,-7.2680,-7.7951,-3.0736,-1.2222,-5.8101,-5.2648,-7.0255,-6.6447,-6.8179,-4.9474,-1.0180,-0.3552,-0.7541,-7.1920,-6.8736,-1.9253,-3.7345,-3.3624
2136.7188,-4.2556,-10.7887,-8.7265,-0.4786,0.5774,-8.4824,-3.9906,-4.7006,-9.7847,-5.7180,-8.3697,-1.6358,0.1212,1.7491,-6.8310,-8.1761,-2.1006,-5.4941,-2.2764
2140.6250,-6.8855,-12.6084,-8.1502,2.0678,2.9936,-10.3801,-2.9255,-1.7247,-11.1289,-6.2055,-9.8887,-2.2615,0.5139,4.3612,-5.8307,-7.4935,-1.5628,-6.1723,-1.0136
2144.5312,-11.2159,-11.9558,-5.8938,4.0089,5.6457,-10.6491,-2.3097,1.2699,-10.2579,-9.1121,-8.9636,-2.3931,1.0138,6.8132,-4.8820,-5.0995,-0.2143,-5.3305,0.3171
2148.4375,-16.4591,-8.7993,-2.5298,5.0906,8.2500,-8.9187,-1.8209,3.8778,-7.6463,-13.8424,-6.1914,-1.7956,1.6640,9.0625,-4.4494,-1.8474,1.7337,-3.2914,1.5720
2152.3438,-21.3680,-4.2628,0.7077,5.3687,10.5397,-5.8540,-0.9121,5.8917,-4.5901,-18.8987,-3.1356,-0.8076,2.2531,11.0902,-4.8509,1.1253,3.7507,-1.0952,2.4935
2156.2500,-24.9750,-0.4071,2.4466,5.0581,12.1647,-3.0545,0.6752,7.1352,-2.6707,-22.9127,-1.6401,-0.2691,2.4017,12.6624,-6.3388,2.7934,5.1602,0.0170,2.7597
2160.1562,-27.0942,0.6768,1.8864,4.3590,12.7266,-2.2311,2.6120,7.3780,-2.9944,-25.4373,-2.9414,-1.0526,1.7990,13.2887,-9.0210,2.5792,5.4297,-0.6954,2.1738
2164.0625,-28.2301,-1.9707,-0.7104,3.4019,11.9925,-4.1228,4.1338,6.4735,-5.5975,-26.9576,-7.0048,-3.4476,0.4493,12.4734,-12.6424,0.5155,4.4350,-3.0031,0.8780
2167.9688,-28.9679,-7.4559,-4.0645,2.3382,10.1537,-7.8666,4.5544,4.6348,-9.3515,-28.1706,-12.4220,-6.8005,-1.2304,10.1235,-16.4256,-2.7839,2.5521,-5.7701,-0.5772
2171.8750,-29.3188,-13.2783,-6.4879,1.4637,7.9113,-11.3077,3.7759,2.5901,-12.4579,-29.1372,-16.9592,-9.6986,-2.5412,6.8166,-19.1931,-6.3061,0.5200,-7.5329,-1.4166
2175.7812,-28.5551,-16.5224,-6.7423,1.2180,6.2508,-12.1531,2.4224,1.3917,-13.3065,-29.0132,-18.5354,-10.6565,-2.8128,3.6882,-19.8242,-8.9249,-0.8674,-7.2760,-1.0167
2179.6875,-25.7229,-15.3784,-4.6686,2.0009,5.9858,-9.3043,1.4911,1.9033,-11.2655,-26.6195,-16.1891,-8.9293,-1.7327,1.9400,-17.8438,-9.7425,-1.0920,-4.9584,0.7385
2183.5938,-20.5000,-10.1235,-1.2232,3.9081,7.3306,-3.5551,1.7522,4.2665,-6.9892,-21.4607,-10.5679,-4.9556,0.4858,2.2397,-13.7866,-8.4149,-0.1101,-1.4973,3.3558
2187.5000,-13.7632,-2.9779,2.0981,6.5758,9.7741,2.7923,3.3052,7.7197,-2.0819,-14.4184,-3.6827,-0.1465,3.1902,4.3724,-9.0590,-5.3386,1.6665,1.7624,5.9685
2191.4062,-7.3797,3.0945,4.1093,9.2752,12.3407,7.1744,5.5736,10.9424,1.6998,-7.5423,1.9820,3.8587,5.5820,7.3559,-5.3031,-1.5670,3.5803,3.7652,7.7725
2195.3125,-3.2660,5.9467,4.5556,11.2234,14.0730,8.1325,7.7094,12.7397,3.2755,-2.9936,4.5855,6.0168,7.0536,9.9425,-3.5892,1.5862,5.0198,4.2316,8.3889
2199.2188,-2.2886,5.2835,4.1601,11.9327,14.4412,6.0055,9.1027,12.6433,2.6734,-1.8150,3.7366,6.2983,7.3953,11.2023,-3.8906,3.1229,5.6530,3.6662,7.9397
2203.1250,-3.7341,2.6260,4.1042,11.3959,13.4596,2.5961,9.6556,11.0600,0.8762,-3.3489,0.6006,5.4974,6.7902,10.8665,-5.1562,2.8293,5.5097,2.9452,6.8342
2207.0312,-5.7268,0.3115,5.2880,10.0201,11.5117,0.0830,9.6850,8.9118,-0.7751,-5.6946,-2.7286,4.6267,5.6432,9.2934,-5.9430,1.3530,4.8977,2.7812,5.4632
2210.9375,-6.3525,0.1710,7.8149,8.3847,9.0759,-0.1374,9.5932,7.0525,-1.2580,-6.9029,-4.2614,4.3199,4.3712,7.1591,-5.2491,-0.1984,4.2172,3.3930,4.0376
2214.8438,-4.7864,2.6382,10.9719,6.9852,6.5655,1.9591,9.5825,5.8650,-0.2733,-6.1251,-3.0357,4.5921,3.2692,5.1075,-3.0716,-0.9252,3.7701,4.5232,2.6570
2218.7500,-1.7267,6.7023,13.6525,6.0988,4.3559,5.2299,9.6085,5.2693,1.7654,-4.0031,0.4975,5.0155,2.4856,3.5523,-0.3923,-0.6668,3.6506,5.7037,1.4865
2222.6562,1.1016,10.5924,14.9270,5.8008,2.8869,8.1162,9.5442,5.0488,4.0518,-2.1177,4.7670,5.0940,2.0624,2.6723,1.3744,-0.0516,3.7519,6.5391,0.8308
2226.5625,2.0183,12.7114,14.4347,6.0652,2.6671,9.4389,9.3687,5.1839,5.7798,-1.9205,7.8574,4.5490,1.9743,2.5129,1.1414,-0.0213,3.8714,6.8287,0.9960
2230.4688,0.3520,12.3074,12.4475,6.8637,4.1039,8.8366,9.2044,5.9245,6.4123,-3.8567,8.3737,3.3782,2.1404,3.0759,-1.2953,-1.1395,3.8506,6.5197,2.0388
2234.3750,-3.2607,9.6330,9.6692,8.2083,7.2512,6.7294,9.1831,7.5688,5.7682,-7.1835,6.0009,1.7545,2.4341,4.3407,-5.1723,-3.1496,3.6773,5.6197,3.6295
2238.2812,-7.3402,5.6611,6.9454,10.1264,11.6627,3.9685,9.2830,10.1548,3.9929,-10.4986,1.5495,-0.0789,2.7195,6.2299,-9.1414,-5.0884,3.4977,4.1891,5.1817
2242.1875,-10.4257,1.6096,5.0209,12.5830,16.4803,1.4186,9.2945,13.3174,1.4902,-12.5669,-3.4775,-1.8350,2.9080,8.5613,-11.8880,-5.8931,3.5285,2.4166,6.1862
2246.0938,-11.7902,-1.4895,4.3709,15.3714,20.7220,-0.3508,8.9551,16.4076,-1.1641,-12.9254,-7.5579,-3.1887,2.9864,11.0144,-12.6703,-5.0976,3.9115,0.6642,6.5021
2250.0000,-11.6368,-3.0592,5.0742,18.0209,23.6024,-1.2091,8.1389,18.7587,-3.3542,-11.9744,-9.7486,-3.8591,2.9765,13.1249,-11.5472,-3.1537,4.5905,-0.6298,6.3732
2253.9062,-10.7721,-3.0737,6.7318,19.8030,24.7154,-1.4485,6.9348,19.8958,-4.6126,-10.6071,-9.9573,-3.7721,2.8479,14.3312,-9.2354,-1.1619,5.2877,-1.1746,6.1573
2257.8125,-10.0474,-1.9981,8.5090,19.9078,24.0261,-1.6257,5.5499,19.5786,-4.7976,-9.6725,-8.8017,-3.1725,2.4664,14.1120,-6.7090,-0.1937,5.6143,-1.0264,5.9921
2261.7188,-9.9258,-0.5889,9.3789,17.7842,21.7566,-2.2864,4.1280,17.7380,-4.1554,-9.5789,-7.1694,-2.5304,1.6562,12.2136,-4.7556,-0.6519,5.2710,-0.5910,5.6855
2265.6250,-10.3742,0.4037,8.5374,13.4985,18.2827,-3.6639,2.6533,14.4532,-3.2002,-10.1969,-5.7355,-2.2346,0.3648,8.8803,-3.6977,-2.0772,4.2301,-0.3884,4.9326
2269.5312,-11.0504,0.5272,5.8072,7.8802,14.0940,-5.5058,1.0382,10.0340,-2.4640,-11.0366,-4.7014,-2.2708,-1.1829,4.9267,-3.3921,-3.4979,2.7866,-0.7251,3.6803
2273.4375,-11.5959,-0.2209,1.7917,2.2869,9.7647,-7.1638,-0.6714,5.1179,-2.2572,-11.5547,-3.8795,-2.1605,-2.4930,1.5153,-3.4651,-4.0667,1.4242,-1.5047,2.3105
2277.3438,-11.8331,-1.4632,-2.3554,-1.9656,5.8577,-7.9395,-2.1607,0.6073,-2.5748,-11.4266,-3.0289,-1.2783,-3.0305,-0.3336,-3.6159,-3.5595,0.5581,-2.3162,1.4411
2281.2500,-11.7704,-2.6872,-5.4455,-4.2203,2.7574,-7.4939,-2.9341,-2.6288,-3.1771,-10.6572,-2.1789,0.6276,-2.5603,-0.2741,-3.7823,-2.4405,0.3002,-2.7359,1.4529
2285.1562,-11.4490,-3.5063,-6.7766,-4.7663,0.5273,-6.0461,-2.6145,-4.1594,-3.7538,-9.4921,-1.6850,3.0875,-1.3804,1.1168,-4.0604,-1.5031,0.3957,-2.6145,2.1018
2289.0625,-10.7616,-3.7749,-6.3702,-4.5909,-1.0824,-4.2096,-1.2636,-4.2307,-4.0482,-8.1866,-1.9532,5.0354,-0.2584,2.5788,-4.4499,-1.3651,0.3807,-2.1450,2.5510
2292.9688,-9.3877,-3.5198,-4.8244,-4.7250,-2.4475,-2.5665,0.5132,-3.6355,-3.8859,-6.7807,-3.0267,5.3811,-0.0655,2.8148,-4.6453,-2.1558,-0.1285,-1.6806,1.8591
2296.8750,-6.9232,-2.7942,-2.9253,-5.5966,-3.8098,-1.2950,1.7896,-3.2541,-3.1615,-5.0449,-4.3665,3.6678,-1.3093,1.1890,-4.0908,-3.5532,-1.1965,-1.4694,-0.3901
2300.7812,-3.1652,-1.6148,-1.2869,-6.8136,-5.1241,-0.1351,1.7671,-3.5501,-1.8688,-2.6686,-5.0526,0.3668,-3.8501,-1.9394,-2.3372,-5.0769,-2.5338,-1.5268,-3.7576
2304.6875,1.6071,-0.0467,-0.2136,-7.5131,-6.1219,1.2719,0.2002,-4.3526,-0.1897,0.4084,-4.3347,-3.3911,-6.9725,-5.4457,0.5133,-6.3844,-3.6844,-1.7290,-7.1606
2308.5938,6.5556,1.6548,0.2202,-7.0215,-6.5378,2.9418,-2.4436,-5.0575,1.4519,3.7625,-2.1807,-6.4493,-9.7561,-8.0794,3.6202,-7.3648,-4.3039,-2.0129,-9.4813
2312.5000,10.5268,3.0220,0.0374,-5.3526,-6.3177,4.3796,-5.1708,-5.0839,2.4918,6.5667,0.5804,-8.1788,-11.4982,-9.1068,5.7026,-8.0150,-4.3362,-2.4699,-10.1567
2316.4062,12.5385,3.5625,-0.6672,-3.1953,-5.6468,4.8619,-6.8880,-4.2529,2.5002,7.9982,2.6735,-8.6014,-11.9352,-8.5753,5.7260,-8.2597,-3.9735,-3.2195,-9.3637
2320.3125,12.2496,3.0642,-1.6377,-1.4175,-4.7834,3.9851,-6.8489,-2.8417,1.4767,7.7233,3.1175,-8.0825,-11.1757,-7.0965,3.5664,-7.9119,-3.4514,-4.1629,-7.7289
2324.2188,10.1099,1.7850,-2.3949,-0.4644,-3.8475,2.0503,-4.9283,-1.3246,-0.0661,6.1057,1.8055,-6.9204,-9.4722,-5.3694,0.1853,-6.8370,-2.8517,-4.8580,-5.8316
2328.1250,7.0631,0.3436,-2.3566,-0.0945,-2.7532,-0.0507,-1.6431,-0.0458,-1.3581,3.9456,-0.4665,-5.1955,-7.0507,-3.8037,-2.8648,-5.1928,-2.0777,-4.6924,-3.8831
2332.0312,3.9736,-0.6578,-1.1445,0.3622,-1.3491,-1.4100,2.0486,0.9195,-1.8453,1.9119,-2.5407,-2.9726,-4.1277,-2.4694,-4.3327,-3.5214,-1.0249,-3.2948,-1.7870
2335.9375,1.1639,-1.0273,1.1056,1.4369,0.3484,-1.7261,5.0687,1.6484,-1.5648,0.0944,-3.6215,-0.6104,-1.0538,-1.3173,-3.9780,-2.5513,0.2016,-0.8979,0.5342
2339.8438,-1.6000,-1.0949,3.6775,3.0769,2.0386,-1.4907,6.5589,2.1601,-1.1253,-1.9444,-3.6762,1.1851,1.6073,-0.4126,-2.6163,-2.7785,1.2214,1.6499,2.8579
2343.7500,-4.6526,-1.4368,5.5615,4.6535,3.2627,-1.5697,6.1494,2.3391,-1.2576,-4.6137,-3.2556,1.7105,3.2123,0.0487,-1.4667,-4.0869,1.5614,3.3002,4.6730
2347.6562,-7.8563,-2.3933,5.9624,5.3989,3.6983,-2.4823,4.0794,2.0720,-2.2311,-7.6639,-2.9194,0.7886,3.3492,-0.0510,-1.2710,-5.6940,0.9795,3.4072,5.4731
2351.5625,-10.3980,-3.7366,4.7216,4.9350,3.3975,-3.9331,1.1179,1.4556,-3.5638,-10.0393,-2.7455,-0.9725,2.1133,-0.5307,-1.8259,-6.5218,-0.3108,2.1160,5.0942
2355.4688,-11.1976,-4.7512,2.3884,3.4999,2.7649,-4.9832,-1.7167,0.8362,-4.2803,-10.4531,-2.3211,-2.4687,0.1233,-0.9221,-2.2660,-5.8174,-1.7125,0.2631,3.8286
2359.3750,-9.6956,-4.6924,-0.1035,1.7270,2.2621,-4.7535,-3.5503,0.5783,-3.5776,-8.3446,-1.2144,-2.8030,-1.7794,-0.7688,-1.8661,-3.6507,-2.6022,-1.1525,2.2386
2363.2812,-6.4306,-3.3059,-1.9398,0.1729,2.0471,-3.1256,-3.9959,0.7149,-1.4405,-4.4998,0.4794,-1.9076,-2.9721,-0.0097,-0.7191,-0.9547,-2.7376,-1.5671,0.8227
2367.1875,-2.8885,-1.0333,-2.7925,-1.0301,1.8244,-0.8794,-3.2765,0.7928,1.2504,-0.7593,2.0135,-0.6006,-3.3412,0.8677,0.2772,0.9608,-2.4177,-1.1176,-0.2167
2371.0938,-0.6101,1.2466,-2.8501,-2.1408,1.0489,0.8697,-2.0503,0.1187,3.2381,1.1223,2.4595,0.0146,-3.2298,1.0787,0.1667,1.1571,-2.2561,-0.4180,-0.9591
2375.0000,-0.1238,2.7644,-2.5468,-3.4458,-0.6363,1.5247,-1.0218,-1.6910,3.7022,0.7284,1.4648,-0.6048,-3.0940,0.0727,-1.1417,-0.3721,-2.7048,-0.0412,-1.5668
2378.9062,-0.4895,3.3086,-2.2200,-4.8745,-3.0295,1.4872,-0.5499,-4.2414,2.8087,-0.5838,-0.2925,-1.9734,-3.1309,-2.0100,-2.5230,-2.6819,-3.6641,-0.0997,-2.0898
2382.8125,0.1263,3.2743,-1.9356,-5.9154,-5.3469,1.8612,-0.4769,-6.3704,1.6002,-0.4891,-1.3705,-2.8640,-3.1559,-4.2995,-2.2343,-4.4254,-4.4754,-0.2241,-2.4326
2386.7188,3.1531,3.2976,-1.5695,-5.9182,-6.6013,3.5675,-0.2825,-6.7357,1.2846,2.7083,-0.4592,-2.1761,-2.8125,-5.6480,0.8674,-4.6424,-4.3315,0.0699,-2.4800
2390.6250,8.4743,3.7575,-1.0355,-4.5737,-6.1677,6.5273,0.5314,-4.6601,2.4015,8.7585,2.6730,0.2254,-1.9430,-5.3104,6.3237,-3.3058,-2.8429,0.9245,-2.2513
2394.5312,14.2851,4.5069,-0.4535,-2.2206,-4.1866,9.5553,2.0644,-0.6839,4.4366,15.3897,6.8559,3.3139,-0.8174,-3.4228,12.0503,-1.2956,-0.3698,1.9514,-1.9360
2398.4375,18.1357,5.0172,-0.1143,0.2518,-1.5524,11.0985,3.8903,3.5822,6.1512,19.6127,10.0986,5.5158,-0.0204,-0.9653,15.4122,0.1688,2.1211,2.4660,-1.7778
2402.3438,18.5082,4.8230,-0.2566,1.8619,0.5202,10.3227,5.2738,6.2764,6.4111,19.5920,10.7525,5.7304,-0.0532,0.7773,14.7635,0.2737,3.5971,1.9857,-1.8990
2406.2500,15.8636,3.9439,-0.8147,2.0720,1.1062,7.7738,5.6089,6.3083,4.9660,15.8533,8.5279,4.0662,-0.9274,0.9337,10.4757,-0.9227,3.5528,0.6386,-2.1964
2410.1562,12.4262,2.9835,-1.3280,1.0800,0.0270,5.1222,4.8115,3.9755,2.6706,11.0250,4.7181,1.8013,-2.0557,-0.4833,4.7961,-2.5628,2.2797,-0.8103,-2.3779
2414.0625,10.8248,2.8247,-1.1087,-0.2960,-2.0787,4.1428,3.4134,0.8091,1.0064,8.2889,1.4961,0.6101,-2.5436,-2.6077,0.6352,-3.5126,0.6575,-1.3565,-2.1068
2417.9688,12.4849,4.0989,0.3900,-1.0540,-4.0790,5.6111,2.2813,-1.2481,1.2091,9.5498,0.7248,1.5736,-1.7145,-4.2067,0.0431,-2.9896,-0.3730,-0.3378,-1.1636
2421.8750,16.8164,6.7474,3.1943,-0.5142,-4.8840,8.8418,2.1199,-0.8458,3.5326,14.4615,2.9917,4.5958,0.4668,-4.3206,3.2700,-0.9286,-0.3098,2.1462,0.4469
2425.7812,21.6717,9.9326,6.6380,1.3638,-3.9246,12.1379,3.0569,2.1397,7.0726,20.8157,7.3917,8.5328,3.3362,-2.7122,8.8625,2.0692,0.7263,5.2230,2.4630
2429.6875,24.6925,12.3621,9.5324,3.9823,-1.3727,13.8068,4.5691,6.6358,10.2230,25.8965,12.0879,11.8606,5.8676,0.0742,14.5767,5.0902,2.1750,7.6409,4.4013
2433.5938,24.6193,12.8702,10.6480,6.3856,1.9620,13.0661,5.7994,10.9713,11.4795,27.8627,15.2463,13.4126,7.1831,3.0094,18.4545,7.3056,3.4032,8.3480,5.6570
2437.5000,21.7671,10.9723,9.2991,7.6656,4.9778,10.3157,6.0647,13.6636,10.1477,26.3667,15.8031,12.7646,6.9284,5.0360,19.4735,8.2060,3.9956,6.9515,5.6747
2441.4062,17.5212,7.1255,5.7330,7.3118,6.7059,6.7243,5.2338,13.9912,6.6085,22.2598,13.7315,10.1684,5.3224,5.4636,17.5924,7.6380,3.8273,3.8468,4.1642
2445.3125,13.3596,2.5600,1.0885,5.3732,6.6420,3.5184,3.7374,12.1300,2.0625,16.8374,9.8192,6.2412,2.9175,4.1685,13.4327,5.7449,2.9651,-0.0121,1.2741
2449.2188,10.1195,-1.2493,-3.1039,2.3899,4.8730,1.4575,2.2183,8.8890,-2.0662,11.2366,5.2107,1.7075,0.2774,1.5810,7.9624,2.9219,1.5525,-3.5538,-2.3874
2453.1250,7.8907,-3.2287,-5.6436,-0.8554,1.9798,0.7365,1.0763,5.2561,-4.7427,6.2796,0.9923,-2.6710,-2.2116,-1.4839,2.3489,-0.2088,-0.2074,-6.0093,-5.9394
2457.0312,6.3924,-3.1521,-6.2125,-3.6444,-1.2163,1.2051,0.2313,1.9944,-5.6679,2.5993,-2.0475,-6.0768,-4.3225,-4.0815,-2.1253,-2.8807,-1.9994,-7.1225,-8.5562
2460.9375,5.3796,-1.6614,-5.4333,-5.5499,-3.9438,2.6092,-0.7261,-0.5509,-5.2338,0.6973,-3.5042,-7.7250,-5.8605,-5.4220,-4.2871,-4.3920,-3.3927,-7.0860,-9.7643
2464.8438,4.7459,0.1477,-4.3955,-6.4913,-5.6936,4.6534,-2.1167,-2.4093,-4.1681,0.7602,-3.3705,-7.1446,-6.5946,-5.1276,-3.4861,-4.3870,-3.9788,-6.2920,-9.5516
2468.7500,4.3580,1.3332,-3.9456,-6.6268,-6.2957,6.9085,-3.8101,-3.7863,-3.0940,2.4005,-2.0152,-4.5163,-6.3413,-3.3864,0.0054,-3.0500,-3.6035,-5.0739,-8.2518
2472.6562,3.9138,1.5505,-4.2037,-6.1837,-5.8752,8.7495,-5.2190,-4.8463,-2.2536,4.6392,-0.1058,-0.7997,-5.1441,-0.9247,4.9158,-1.0562,-2.5271,-3.5992,-6.3195
2476.5625,3.0526,1.0704,-4.6213,-5.3537,-4.7471,9.4714,-5.6911,-5.6043,-1.5343,6.2763,1.5572,2.5416,-3.3864,1.2385,9.3769,0.7352,-1.3540,-1.9580,-4.1675
2480.4688,1.6465,0.3957,-4.5257,-4.3116,-3.3111,8.5568,-5.0308,-5.9741,-0.7455,6.4543,2.2763,4.1574,-1.7008,2.1948,11.6645,1.6860,-0.7207,-0.3422,-2.1481
2484.3750,-0.0255,-0.2253,-3.7413,-3.3003,-1.9671,5.9324,-3.7506,-5.9170,0.0705,5.0303,1.6886,3.4699,-0.6809,1.5512,10.9081,1.6441,-0.9131,0.8639,-0.6110
2488.2812,-1.4401,-1.0091,-2.8116,-2.6531,-1.0373,2.0490,-2.8156,-5.5638,0.5376,2.5096,-0.0974,0.9994,-0.5557,-0.3603,7.4157,0.9253,-1.6622,1.2047,0.1105
2492.1875,-2.2354,-2.3967,-2.6272,-2.6648,-0.6795,-2.2506,-3.0027,-5.1901,0.1584,-0.3574,-2.5140,-1.8498,-1.0379,-2.5975,2.4848,0.0534,-2.2711,0.4454,-0.1416
2496.0938,-2.5088,-4.5376,-3.7149,-3.3599,-0.8154,-5.9920,-4.3026,-5.0359,-1.2847,-2.9680,-4.6998,-3.4565,-1.4617,-4.0228,-2.1611,-0.5401,-2.0157,-1.1618,-1.1388
2500.0000,-2.7099,-6.9181,-5.7187,-4.3321,-1.1273,-8.3351,-5.8086,-5.0936,-3.4292,-4.9635,-5.7804,-2.7655,-1.1467,-3.8330,-5.0306,-0.6641,-0.5796,-2.8662,-2.2134
2503.9062,-3.1872,-8.4842,-7.4978,-4.8353,-1.1737,-8.7849,-6.2321,-5.0480,-5.3905,-6.0672,-5.1954,0.2090,0.2201,-1.9430,-5.3697,-0.3071,1.7429,-3.7420,-2.5079
2507.8125,-3.7850,-8.2548,-7.8242,-4.1544,-0.6029,-7.3319,-4.7471,-4.4655,-6.2049,-5.9613,-2.9721,4.3974,2.4066,0.9744,-3.3834,0.5184,4.1929,-3.1946,-1.4479
2511.7188,-3.9016,-6.0279,-6.2097,-2.0693,0.6310,-4.5019,-1.6104,-3.1412,-5.4056,-4.4609,0.1800,8.1767,4.7544,3.8137,-0.1452,1.8503,5.9452,-1.3387,0.8493
2515.6250,-3.0410,-2.6569,-3.2657,0.8954,2.1838,-1.2515,1.8809,-1.3571,-3.3522,-1.9079,3.0552,10.0930,6.5098,5.5542,2.7843,3.6866,6.5105,1.0177,3.5380
2519.5312,-1.4330,0.3628,-0.3140,3.6508,3.4484,1.3398,4.1128,0.1792,-1.0663,0.6105,4.4169,9.4568,7.1662,5.7011,3.9508,5.8093,5.9186,2.8091,5.4674
2523.4375,-0.1492,1.7720,1.4983,5.1098,3.8531,2.5100,4.1205,0.7432,0.3546,1.5896,3.5772,6.5578,6.6362,4.4335,2.6343,7.6991,4.6085,3.3147,5.8335
2527.3438,-0.4888,1.3138,1.9593,4.8253,3.1827,2.1764,2.1873,0.1088,0.3823,-0.0495,0.8090,2.4492,5.2000,2.4164,-0.7608,8.6742,3.1390,2.5569,4.6543
2531.2500,-2.9980,-0.1385,1.8913,3.3026,1.7403,0.9744,-0.3042,-1.1915,-0.6481,-4.1188,-2.6707,-1.5416,3.3170,0.4225,-4.8061,8.2217,1.9162,1.2519,2.7589
2535.1562,-6.8540,-1.1822,2.5204,1.7660,0.2488,-0.1059,-1.6759,-2.0896,-1.7754,-8.9779,-5.2038,-4.3196,1.4444,-1.0066,-7.6788,6.3341,1.0895,0.3623,1.3025
2539.0625,-10.1487,-0.7950,4.5735,1.4918,-0.4672,-0.2947,-0.9058,-1.5932,-2.0068,-12.2742,-5.4608,-5.3249,-0.0421,-1.6854,-8.0437,3.6290,0.6306,0.5531,1.1276
2542.9688,-10.9648,1.0733,7.7418,3.0951,0.1408,0.5402,1.8443,0.5926,-0.8715,-12.2148,-3.0785,-4.5525,-0.8413,-1.6822,-5.7041,1.1443,0.4882,1.8884,2.3678
2546.8750,-8.5270,3.6084,10.8743,6.1897,2.0940,1.9162,5.4085,3.8466,1.4066,-8.5475,1.1819,-2.3705,-0.7215,-1.1215,-1.6249,-0.1088,0.6837,3.9177,4.5000
2550.7812,-3.6224,5.8025,12.7352,9.6096,4.8739,3.1723,8.3334,6.9655,4.1690,-2.5890,5.8334,0.7014,0.4127,-0.0628,2.6943,0.3895,1.2828,6.0260,6.7342
2554.6875,1.9882,7.1573,12.7752,12.0417,7.6339,3.9759,9.6566,8.8334,6.7726,3.6898,9.3783,4.1179,2.4011,1.4560,6.0905,2.4212,2.2826,7.7723,8.4360
2558.5938,6.7059,7.9009,11.3981,12.6864,9.5237,4.5013,9.2939,8.9862,8.8913,8.8378,10.9395,7.3221,4.7621,3.2682,8.2812,5.1231,3.5212,9.0035,9.3251
2562.5000,9.9271,8.6081,9.5986,11.5822,9.9843,5.1439,7.8786,7.7295,10.4963,12.5103,10.4975,9.7368,6.7872,4.9707,9.7417,7.3711,4.6941,9.7400,9.4122
2566.4062,12.0003,9.5795,8.2972,9.4591,8.9133,6.0248,6.2512,5.7953,11.6128,15.1160,8.6933,10.8475,7.8060,5.9883,11.0618,8.2742,5.4822,10.0038,8.8373
2570.3125,13.4514,10.5086,7.8583,7.2705,6.6687,6.7322,4.9696,3.8374,12.1173,16.9272,6.4063,10.4036,7.5048,5.8180,12.3044,7.5555,5.7092,9.7695,7.7928
2574.2188,14.2000,10.7101,8.0681,5.7029,3.9343,6.5740,4.1209,2.1356,11.7689,17.4796,4.3871,8.6329,6.1119,4.3235,12.8796,5.6515,5.4232,9.0659,6.5652
2578.1250,13.4715,9.7146,8.4629,4.9185,1.4936,5.1804,3.4641,0.6630,10.4437,15.8289,3.0968,6.2890,4.3150,1.8950,12.0366,3.4867,4.8456,8.0932,5.5652
2582.0312,10.5064,7.7259,8.6562,4.6005,-0.0243,2.9626,2.7166,-0.6342,8.3479,11.4902,2.7152,4.4075,2.9254,-0.6512,9.5837,2.0221,4.2171,7.1857,5.1972
2585.9375,5.4696,5.5439,8.3979,4.1944,-0.3608,0.9866,1.7492,-1.6488,5.9898,5.2657,3.1774,3.8226,2.4552,-2.4118,6.2455,1.7837,3.6385,6.5853,5.5760
2589.8438,-0.2481,3.9820,7.4065,3.1766,0.2701,0.2598,0.5814,-2.1995,3.8925,-0.8224,4.1610,4.6749,2.8361,-2.8173,3.3277,2.5998,3.0065,6.1816,6.2866
2593.7500,-4.6894,3.2299,5.2566,1.2355,1.2496,0.9256,-0.7509,-2.3007,2.2548,-4.6064,5.0819,6.2106,3.4360,-1.9244,1.8884,3.6877,2.0839,5.4526,6.4330
2597.6562,-6.5302,2.6794,1.5716,-1.6474,1.7930,2.0078,-2.2943,-2.3310,0.8376,-5.1471,5.2231,7.0531,3.3709,-0.4248,2.0147,4.0581,0.6599,3.7280,5.0533
2601.5625,-5.9305,1.3926,-3.5291,-5.1779,1.2822,1.9913,-4.1322,-2.8806,-0.8070,-3.3917,4.0448,5.8719,1.9524,0.6508,2.7554,3.0335,-1.2970,0.6591,1.7077
2605.4688,-4.3703,-1.1064,-9.0766,-8.7736,-0.4497,-0.0985,-6.2223,-4.3343,-2.9086,-1.5633,1.5454,2.1314,-0.9501,0.4054,2.7945,0.6031,-3.5802,-3.4002,-3.1268
2609.3750,-3.5617,-4.3075,-13.3818,-11.6597,-3.0232,-3.8741,-8.2589,-6.4978,-5.1698,-1.6537,-1.5722,-3.4857,-4.8048,-1.4849,1.4016,-2.5782,-5.8077,-7.3846,-8.1408
2613.2812,-4.2324,-6.8796,-14.7319,-13.0752,-5.6680,-7.6546,-9.6996,-8.5926,-6.8269,-4.0666,-4.1158,-9.2497,-8.6081,-4.5776,-1.0204,-5.5365,-7.5632,-9.9454,-11.7565
2617.1875,-5.6758,-7.4605,-12.3169,-12.5584,-7.5639,-9.4484,-9.9871,-9.6815,-7.0778,-7.3735,-4.9621,-13.1125,-11.2774,-7.8220,-3.1939,-7.4587,-8.5385,-10.1054,-12.8636
2621.0938,-6.3783,-5.5525,-6.8138,-10.1932,-8.2026,-8.2153,-8.8549,-9.2519,-5.6108,-9.3461,-3.6712,-13.6558,-12.0673,-10.0179,-3.8577,-8.0272,-8.6144,-7.7780,-11.3148
2625.0000,-5.2198,-1.9152,-0.2134,-6.6630,-7.5840,-4.5504,-6.5300,-7.5416,-2.8816,-8.5132,-0.7908,-10.7789,-10.8383,-10.3677,-2.6673,-7.4416,-7.8650,-3.8562,-7.9173
2628.9062,-2.3242,1.8191,5.0730,-3.0264,-6.1504,-0.3158,-3.6918,-5.3597,0.0568,-5.1268,2.3669,-5.7616,-8.0742,-8.8503,-0.4674,-6.1702,-6.5066,0.1807,-3.9711
2632.8125,1.0683,4.0676,7.3387,-0.2861,-4.5038,2.5306,-1.1834,-3.5279,2.0862,-0.8817,4.3864,-0.6476,-4.6550,-6.2091,1.2615,-4.6404,-4.8261,2.9334,-0.6510
2636.7188,3.5689,4.1747,6.3157,1.0431,-3.0708,3.1193,0.3806,-2.3438,2.6074,2.3470,4.4938,2.7463,-1.4906,-3.5438,1.4116,-3.0798,-3.1086,3.6858,1.4281
2640.6250,4.6728,2.7176,3.1475,1.1317,-1.9059,2.0923,0.8949,-1.4543,1.8436,3.7946,2.9691,3.6877,0.8215,-1.7152,0.0328,-1.5721,-1.5679,2.6641,2.2859
2644.5312,5.0589,1.0970,-0.3137,0.6832,-0.7393,1.0367,0.7752,-0.2179,0.7058,4.1970,0.9965,2.8032,2.1654,-0.8994,-1.6271,-0.2128,-0.2907,0.8608,2.3498
2648.4375,5.9456,0.7100,-2.4352,0.5127,0.7704,1.3661,0.6900,1.7260,0.3148,5.0560,0.0353,1.6289,2.8351,-0.5596,-1.8601,0.8166,0.7824,-0.4618,2.1321
2652.3438,8.0244,2.2129,-2.4575,1.0957,2.7386,3.4178,1.1638,4.1046,1.4455,7.3770,1.0557,1.6896,3.2773,0.1396,0.4504,1.3450,1.8080,-0.3456,2.0019
2656.2500,10.8033,5.2673,-0.6112,2.3415,4.8983,6.3227,2.2803,6.1330,4.1710,10.8267,4.0476,3.6229,3.7984,1.7283,5.1026,1.3962,2.9236,1.4643,2.1259
2660.1562,12.8625,8.8313,2.2295,3.7128,6.6886,8.6503,3.6594,7.0135,7.8534,13.9018,8.0465,6.8445,4.4075,4.0267,10.5961,1.2769,4.1175,4.4552,2.5300
2664.0625,12.8241,11.7546,5.0679,4.6011,7.5470,9.3389,4.7181,6.4589,11.4474,14.9428,11.6392,9.9377,4.8764,6.2172,14.8660,1.4424,5.1740,7.6233,3.1860
2667.9688,10.3175,13.3157,7.1945,4.7223,7.2432,8.3008,5.0536,4.8898,13.9469,13.2408,13.6623,11.5250,4.9671,7.3618,16.3018,2.1930,5.7575,9.9514,4.0600
2671.8750,6.2494,13.4440,8.3453,4.2925,6.0596,6.3785,4.7045,3.2013,14.7634,9.4736,13.7183,11.0891,4.6607,7.0349,14.5028,3.4134,5.6182,10.8552,5.1125
2675.7812,2.2178,12.5799,8.6357,3.8823,4.7005,4.7640,4.1211,2.2821,13.8852,5.2253,12.2539,9.2407,4.2222,5.6423,10.4033,4.5673,4.8036,10.3826,6.2728
2679.6875,-0.4791,11.3170,8.3761,4.0453,3.9577,4.2875,3.8560,2.5885,11.7757,1.9872,10.1916,7.2737,4.0433,4.1956,5.7526,4.9942,3.7254,9.0771,7.4083
2683.5938,-1.5429,10.0468,7.8727,4.9489,4.2951,4.9861,4.1764,3.9848,9.0969,0.3383,8.3555,6.2989,4.3599,3.6677,2.2579,4.3276,2.9980,7.6006,8.3061
2687.5000,-1.6528,8.7923,7.2862,6.2285,5.5685,6.1448,4.8566,5.8625,6.4167,-0.1939,7.0367,6.5188,5.0407,4.3463,0.8310,2.7551,3.1082,6.3508,8.6861
2691.4062,-1.8221,7.3007,6.5930,7.1563,7.0447,6.7327,5.3074,7.4109,4.0552,-0.5974,5.9466,7.1209,5.6046,5.6175,1.2924,0.9317,4.1026,5.3110,8.2717
2695.3125,-2.6331,5.3340,5.6708,7.0400,7.7391,5.9912,4.9787,7.9060,2.1305,-1.5948,4.5661,6.8621,5.4844,6.3393,2.6370,-0.4038,5.4971,4.2195,6.9226
2699.2188,-3.8594,2.9859,4.4791,5.6379,6.9284,3.8950,3.7863,6.9613,0.7366,-3.1353,2.6456,4.9672,4.3844,5.5788,3.6836,-0.8564,6.4982,2.9259,4.7839
2703.1250,-4.6584,0.8218,3.2290,3.3706,4.5881,1.2701,2.2764,4.7180,0.0876,-4.4282,0.5145,1.7433,2.5105,3.2493,3.7417,-0.5646,6.4339,1.6598,2.3537
2707.0312,-4.1300,-0.2913,2.4062,1.2064,1.5156,-0.5230,1.3913,1.9165,0.4849,-4.4309,-1.0217,-1.5066,0.5185,0.2400,2.9362,-0.0380,5.1489,0.9879,0.3785
2710.9375,-1.8659,0.3701,2.5628,0.2569,-0.9653,-0.2515,1.9422,-0.2601,2.0854,-2.4723,-1.1511,-3.2402,-0.8041,-2.0430,2.0199,0.2265,3.1240,1.4460,-0.4321
2714.8438,1.7985,2.8829,3.9477,1.2543,-1.6167,2.4582,4.0867,-0.6270,4.6193,1.3113,0.4003,-2.6330,-0.9488,-2.4499,1.7994,0.0754,1.2336,3.0794,0.2388
2718.7500,5.8923,6.4225,6.1917,4.1496,0.0689,6.7118,7.1225,1.3975,7.2826,5.9145,3.1006,-0.1320,0.0377,-0.7168,2.5275,-0.2511,0.2707,5.2213,2.0827
2722.6562,9.1662,9.4734,8.2971,8.0277,3.5248,10.5723,9.7449,5.3374,8.9579,9.7875,5.8017,2.7425,1.5603,2.3950,3.6499,-0.3716,0.5112,6.7112,4.2165
2726.5625,10.5432,10.4766,9.0286,11.4117,7.2853,11.9261,10.6546,9.6940,8.7110,11.4338,7.2830,4.2297,2.7531,5.4969,4.0874,-0.1260,1.5654,6.4745,5.5381
2730.4688,9.5323,8.6126,7.5541,12.8554,9.6343,9.6041,9.2103,12.5768,6.3093,10.0719,6.8297,3.2906,2.8773,7.2541,2.9068,0.2187,2.5978,4.1334,5.2301
2734.3750,6.4896,4.2949,3.9822,11.5773,9.4278,4.1346,5.7884,12.6639,2.4456,6.0922,4.5263,0.1368,1.6398,6.9768,-0.0238,0.0765,2.7798,0.2790,3.1535
2738.2812,2.5990,-0.9281,-0.5491,7.8413,6.6635,-2.3654,1.6601,9.9511,-1.5029,1.0527,1.1393,-3.9532,-0.7082,4.8430,-3.8143,-1.0921,1.7188,-3.7758,-0.0823
2742.1875,-0.5080,-5.0500,-4.3408,2.8809,2.4857,-7.1883,-1.5633,5.8091,-4.0878,-2.8896,-2.2833,-7.3754,-3.5139,1.7037,-6.9368,-3.3879,-0.3679,-6.6303,-3.4165
2746.0938,-1.4249,-6.5300,-5.9440,-1.6281,-1.3941,-8.4069,-2.6545,2.2608,-4.4571,-3.9408,-4.8409,-9.0388,-6.0130,-1.3704,-8.0185,-6.3132,-2.8053,-7.4602,-5.8439
2750.0000,0.3438,-4.9852,-4.8757,-4.3084,-3.5545,-5.8451,-1.3247,0.8738,-2.7214,-1.5791,-6.0319,-8.8288,-7.6237,-3.5545,-6.5903,-8.9616,-4.8246,-6.3502,-6.8576
2753.9062,4.0649,-1.3112,-1.8444,-4.6700,-3.5331,-1.0905,1.6529,1.9275,0.1613,3.0999,-5.7908,-7.4874,-8.1162,-4.5438,-3.3604,-10.4600,-5.9206,-4.1427,-6.5987
2757.8125,8.0723,2.8022,1.6382,-3.2459,-1.9504,3.4386,4.8076,4.3449,2.8886,7.8645,-4.4091,-6.0545,-7.6081,-4.5570,0.1408,-10.4149,-6.0182,-1.9355,-5.6547
2761.7188,10.5785,5.6758,4.0348,-1.2130,-0.0490,5.8023,6.6561,6.4084,4.4112,10.4567,-2.4448,-5.2423,-6.4229,-4.1156,2.3308,-9.1057,-5.3941,-0.5360,-4.6500
2765.6250,10.5670,6.3521,4.5125,0.2747,1.0503,5.4652,6.3890,6.7916,4.3143,9.7328,-0.6362,-5.1040,-4.9123,-3.7306,2.3216,-7.3149,-4.4474,-0.1678,-3.8880
2769.5312,8.2429,4.8920,3.2411,0.6531,0.9269,3.3672,4.2346,5.2716,2.8364,6.1860,0.2463,-5.1462,-3.3452,-3.6505,0.2515,-5.8954,-3.4866,-0.5380,-3.2571
2773.4375,4.7807,2.1841,1.1405,0.0994,-0.0458,1.2028,1.3267,2.7274,0.5972,1.5588,-0.3491,-4.7662,-1.9103,-3.7864,-2.9213,-5.3250,-2.6553,-1.1603,-2.4427
2777.3438,1.5561,-0.5654,-0.7239,-0.7769,-1.0897,0.4157,-0.8607,0.4981,-1.7525,-2.1928,-2.4789,-3.7184,-0.7959,-3.8383,-5.9741,-5.4997,-2.0073,-1.6985,-1.2845
2781.2500,-0.6252,-2.3786,-1.7197,-1.4572,-1.5930,1.4890,-1.2341,-0.4429,-3.7596,-3.9334,-5.5719,-2.3226,-0.2457,-3.5440,-7.9769,-5.8731,-1.6280,-2.1257,-0.0195
2785.1562,-1.8160,-2.8441,-1.8781,-1.8738,-1.4766,3.8429,0.3991,0.0152,-5.2008,-3.7740,-8.5813,-1.2878,-0.5064,-2.8931,-8.5649,-5.8410,-1.6727,-2.6318,0.7787
2789.0625,-2.6032,-2.1482,-1.6942,-2.3653,-1.1430,6.2678,3.2625,1.1983,-5.9851,-2.7086,-10.4016,-1.2604,-1.6647,-2.1627,-7.8687,-5.1275,-2.2645,-3.3782,0.5537
2792.9688,-3.4742,-0.8567,-1.6839,-3.2797,-1.0923,7.5671,6.0144,2.1618,-6.0553,-1.8012,-10.3443,-2.3690,-3.4807,-1.7380,-6.2540,-3.9384,-3.3178,-4.2823,-0.8087
2796.8750,-4.3659,0.4006,-2.0114,-4.5395,-1.5094,7.0846,7.3973,2.2680,-5.3816,-1.5101,-8.4147,-4.0563,-5.3667,-1.8276,-4.1012,-2.8040,-4.4403,-4.9885,-2.7824
2800.7812,-4.7130,1.1855,-2.4257,-5.5206,-2.1184,4.9341,6.7968,1.4784,-4.0421,-1.5671,-5.2471,-5.3330,-6.5963,-2.2750,-1.7548,-2.2349,-5.0391,-5.0573,-4.4055
2804.6875,-3.9209,1.3506,-2.5180,-5.3739,-2.3880,1.9194,4.4438,0.2540,-2.3054,-1.3914,-1.7714,-5.3379,-6.6705,-2.6200,0.4002,-2.4229,-4.6258,-4.2600,-4.8054
2808.5938,-1.8761,0.9844,-2.0879,-3.5976,-1.9198,-0.7901,1.2043,-0.7931,-0.6210,-0.6474,1.1690,-3.8854,-5.6312,-2.4011,1.8922,-3.1769,-3.1580,-2.7892,-3.7357
2812.5000,0.8970,0.2805,-1.3365,-0.4680,-0.7311,-2.1244,-1.8769,-1.2387,0.5198,0.4959,3.0427,-1.6536,-4.0981,-1.5050,2.2746,-4.1079,-1.1824,-1.2292,-1.7716
2816.4062,3.5361,-0.5668,-0.7308,2.9921,0.7605,-1.5774,-4.0138,-0.9877,0.7973,1.5597,3.6472,0.1445,-2.9546,-0.3109,1.3720,-4.9055,0.3642,-0.2706,-0.0057
2820.3125,5.3520,-1.3835,-0.6270,5.5275,2.0245,0.5207,-4.8915,-0.1911,0.2355,2.1892,3.0211,0.4541,-2.8347,0.5063,-0.5116,-5.5016,0.6352,-0.3183,0.6005
2824.2188,6.1632,-1.9719,-0.9277,6.3402,2.7638,3.0978,-4.6138,0.9439,-0.7771,2.4369,1.3827,-0.9662,-3.7190,0.4168,-2.6228,-6.0166,-0.6250,-1.2292,-0.1812
2828.1250,6.2236,-2.0852,-1.0522,5.5223,3.0854,4.8264,-3.4985,2.3062,-1.6557,2.6507,-0.8650,-3.3403,-4.9068,-0.5621,-4.0918,-6.5629,-2.8714,-2.3592,-1.6720
2832.0312,5.8374,-1.4962,-0.2926,3.9607,3.3977,4.7964,-1.8861,3.9051,-1.9083,3.0630,-3.1468,-5.2784,-5.4089,-1.7869,-4.4130,-7.0826,-5.0006,-2.9214,-2.6677
2835.9375,4.9958,-0.1538,1.6482,2.7817,4.1281,3.0028,-0.0576,5.7773,-1.3978,3.4352,-4.8444,-5.5715,-4.5322,-2.3144,-3.7741,-7.3595,-5.9298,-2.4527,-2.1501
2839.8438,3.3456,1.6729,4.3039,2.6961,5.4599,0.3388,1.7495,7.8585,-0.4277,3.0915,-5.5364,-3.8949,-2.2949,-1.4475,-2.9791,-7.1910,-5.1810,-1.1063,0.1020
2843.7500,0.5389,3.4008,6.5596,3.6559,7.2465,-1.9253,3.3135,9.9116,0.4143,1.3866,-5.2043,-0.9873,0.5854,0.8416,-2.9500,-6.5677,-3.1182,0.4281,3.3767
2847.6562,-3.2836,4.3536,7.2291,5.0155,9.1247,-2.8611,4.4545,11.5713,0.5827,-1.6893,-4.2334,1.8097,3.1186,3.8799,-4.0790,-5.6997,-0.6979,1.3381,6.4403
2851.5625,-7.2479,4.1109,5.7735,6.0577,10.7233,-2.3419,5.1107,12.4929,-0.1047,-5.2063,-3.1611,3.3585,4.6045,6.6715,-5.8421,-4.8570,1.1051,1.1903,8.2357
2855.4688,-9.9690,2.7820,2.7133,6.5184,11.8250,-0.9677,5.3890,12.5316,-1.3389,-7.5664,-2.3242,3.3716,4.9798,8.4375,-6.9659,-4.1546,1.8363,0.2049,8.4439
2859.3750,-10.1693,1.0119,-0.5468,6.7582,12.4039,0.4475,5.5216,11.8450,-2.4655,-7.2619,-1.6555,2.5037,4.7524,8.9806,-6.1073,-3.4658,1.7399,-0.8654,7.5912
2863.2812,-7.3613,-0.3209,-2.4104,7.4768,12.5512,1.4272,5.7237,10.8359,-2.8263,-3.7161,-0.7869,1.8633,4.6017,8.6667,-2.6716,-2.5461,1.4995,-1.1754,6.6710
2867.1875,-2.2055,-0.5491,-1.9032,9.1616,12.3610,2.0344,6.0337,9.9387,-2.0950,2.2756,0.6118,2.2835,4.9260,8.0751,2.7229,-1.2712,1.7455,-0.2674,6.5354
2871.0938,3.6753,0.4681,0.8599,11.6348,11.8476,2.6303,6.2471,9.3536,-0.4121,8.7696,2.5153,3.8230,5.6218,7.5787,8.4357,0.2129,2.6656,1.6978,7.4167
2875.0000,8.3528,2.3551,4.8037,13.9991,10.9268,3.4479,6.0067,8.8895,1.7512,13.4729,4.5009,5.7864,6.2043,7.1350,12.5615,1.5670,3.9559,4.0765,8.8301
2878.9062,10.4079,4.5302,8.5013,15.0376,9.4602,4.3595,5.0145,8.0382,3.8947,14.7231,6.0243,7.2018,6.1488,6.4024,13.8326,2.5126,5.0962,6.1282,9.8699
2882.8125,9.5119,6.5813,10.8694,13.8503,7.3430,5.0221,3.2422,6.2664,5.7506,12.1840,6.8096,7.4199,5.2206,5.0717,12.1667,3.0550,5.7223,7.3930,9.7073
2886.7188,6.5073,8.4279,11.5517,10.3698,4.6088,5.2392,1.0076,3.3717,7.3344,6.9467,7.0486,6.4611,3.6048,3.1670,8.5956,3.4752,5.8272,7.8421,8.0180
2890.6250,2.9632,10.1552,10.8291,5.4621,1.5077,5.1841,-1.1463,-0.3173,8.7681,1.0256,7.2446,4.9404,1.8009,1.1112,4.6819,4.0735,5.6761,7.7534,5.1418
2894.5312,0.4325,11.6636,9.2134,0.5520,-1.4980,5.2487,-2.7116,-4.0324,10.0232,-3.4904,7.8092,3.6775,0.3858,-0.4820,1.8009,4.8651,5.5386,7.4436,1.9252
2898.4375,-0.2207,12.4441,7.0552,-3.0304,-3.8549,5.6233,-3.4691,-6.9104,10.7883,-5.2387,8.7132,3.2598,-0.2166,-1.1482,0.6691,5.4878,5.4598,7.0518,-0.6587
2902.3438,0.8989,11.7191,4.4314,-4.6315,-5.1316,5.9801,-3.5809,-8.3918,10.5845,-4.0037,9.4627,3.7993,0.1292,-0.8323,1.2793,5.4341,5.2412,6.5009,-1.9341
2906.2500,2.9479,8.9334,1.3454,-4.4814,-5.2202,5.5895,-3.4570,-8.4373,9.0760,-0.6234,9.4308,4.9637,1.2405,0.0822,3.1295,4.4549,4.6312,5.6266,-1.8046
2910.1562,4.9236,4.2954,-1.9594,-3.4285,-4.3962,3.8565,-3.4653,-7.4479,6.3810,3.5083,8.3127,6.1972,2.6716,0.9808,5.5074,2.8233,3.5653,4.3600,-0.7664
2914.0625,6.2390,-1.0214,-4.8364,-2.3678,-3.1676,0.8949,-3.6567,-5.9607,3.1716,7.0652,6.3798,6.9809,3.8408,1.3365,7.6666,1.2236,2.2731,2.8460,0.3633
2917.9688,6.9477,-5.2302,-6.3708,-1.6972,-1.9749,-2.3300,-3.6810,-4.3293,0.4700,9.2362,4.3555,7.0225,4.2269,0.9699,8.9051,0.3121,1.1750,1.4375,0.8868
2921.8750,7.4992,-6.7110,-5.7527,-1.1167,-0.9212,-4.4683,-2.9634,-2.5831,-0.7697,9.8304,3.0032,6.3343,3.6008,0.1241,8.6671,0.2599,0.6474,0.5898,0.6225
2925.7812,8.2116,-4.8046,-2.6784,0.1170,0.2816,-4.5816,-1.0574,-0.5309,-0.0791,9.0773,2.7099,5.2136,2.1957,-0.6655,6.7364,0.6285,0.8231,0.7093,0.0411
2929.6875,8.8502,-0.1733,2.4368,2.6353,2.0853,-2.7201,2.0286,1.9875,2.3186,7.3195,3.3289,4.1425,0.6990,-0.8333,3.4392,0.6976,1.5532,2.0105,0.0368
2933.5938,8.6393,5.4805,8.5328,6.4376,4.7202,0.1285,5.7263,4.8745,5.6061,4.8137,4.3475,3.6266,0.0056,-0.0502,-0.3361,0.0217,2.5381,4.4116,1.4250
2937.5000,6.7370,10.1789,14.2130,10.7195,7.8947,2.6729,9.0985,7.7031,8.7027,1.7287,5.2182,4.0055,0.8060,1.6217,-3.4329,-1.1958,3.5208,7.4942,4.4236
2941.4062,2.8636,12.4964,18.1427,14.1557,10.7895,4.0687,11.2273,9.8241,10.6529,-1.7364,5.6110,5.2972,3.1996,3.7464,-4.9645,-2.2083,4.4066,10.5509,8.4065
2945.3125,-2.3621,12.0272,19.3870,15.4780,12.3795,4.2569,11.5885,10.5810,10.9022,-5.2776,5.4424,7.1410,6.5453,5.6875,-4.8122,-2.2601,5.2350,12.7356,12.0846
2949.2188,-7.6445,9.3160,17.6035,14.0266,11.9133,3.7008,10.2192,9.5384,9.3783,-8.5495,4.7289,8.8758,9.6487,6.8529,-3.7541,-1.1738,6.0346,13.2889,14.0320
2953.1250,-11.6691,5.3920,13.0727,9.9930,9.2823,2.8093,7.6238,6.6574,6.4070,-11.3047,3.4409,9.7264,11.2102,6.9024,-3.0771,0.4401,6.6674,11.7712,13.2900
2957.0312,-13.7541,1.2413,6.5943,4.2773,5.0867,1.5669,4.5155,2.3841,2.5574,-13.4450,1.5081,9.0363,10.3272,5.8359,-3.8318,1.5242,6.7764,8.2171,9.7481
2960.9375,-14.0486,-2.4918,-0.7022,-1.8954,0.3868,-0.3064,1.5695,-2.3779,-1.5014,-14.8797,-1.0213,6.4799,6.8303,3.9433,-6.1412,1.2440,5.8943,3.1504,4.1461
2964.8438,-13.1638,-5.4947,-7.5892,-7.3568,-3.6993,-2.8085,-0.6941,-6.4411,-5.1104,-15.2831,-3.8132,2.2124,1.3400,1.6691,-8.9893,-0.4686,3.6856,-2.5392,-2.2479
2968.7500,-11.5540,-7.6119,-12.9713,-11.2097,-6.3432,-5.2309,-1.9061,-8.6596,-7.7216,-14.0143,-6.2461,-3.0723,-4.9333,-0.5280,-10.6749,-2.8690,0.2139,-7.8096,-8.0783
2972.6562,-9.1651,-8.7231,-16.0784,-12.8756,-7.1704,-6.3167,-1.8279,-8.3292,-9.0157,-10.4144,-7.6369,-8.2179,-10.5329,-2.2572,-9.7347,-4.8719,-3.9062,-11.7050,-12.2558
2976.5625,-5.6638,-8.7851,-16.5940,-12.0984,-6.2439,-5.0128,-0.4108,-5.5047,-9.0091,-4.4237,-7.5798,-11.8553,-14.1271,-3.2180,-5.8477,-5.7075,-7.5919,-13.5653,-14.1269
2980.4688,-1.0847,-7.9621,-14.6972,-9.0037,-3.9569,-1.3237,2.0803,-1.0547,-8.0717,2.8771,-6.1836,-12.8182,-14.8305,-3.2058,-0.1915,-5.3171,-9.6298,-13.1688,-13.4962
2984.3750,3.6535,-6.6658,-11.0057,-4.1908,-0.9131,3.3975,5.0021,3.6251,-6.7899,9.3018,-4.0335,-10.6069,-12.4297,-2.1486,5.0092,-4.2469,-9.1659,-10.7783,-10.5861
2988.2812,6.8834,-5.3913,-6.4158,1.2814,2.1896,7.0450,7.4587,7.1457,-5.6943,12.3819,-1.8823,-5.6879,-7.4655,-0.1747,7.5608,-3.1584,-6.1298,-7.0605,-5.9850
2992.1875,7.0325,-4.4235,-1.8664,6.1313,4.6986,7.9449,8.6290,8.6624,-4.9859,10.6476,-0.2595,0.5688,-1.1178,2.3409,6.4468,-2.3329,-1.3637,-2.8844,-0.5656
2996.0938,3.6592,-3.6413,1.9094,9.2823,6.1723,5.8678,8.1453,8.1510,-4.4473,4.6022,0.7435,6.3621,5.1201,4.8245,2.3932,-1.5208,3.6589,0.9399,4.6689
3000.0000,-2.0741,-2.6255,4.5473,10.2746,6.5153,2.1690,6.2896,6.2922,-3.6437,-3.3262,1.3643,10.1541,9.9000,6.6678,-2.5064,-0.2232,7.4322,3.8700,8.8078
3003.9062,-7.9220,-1.0613,6.0496,9.4069,5.9902,-1.0814,3.8587,4.0485,-2.3284,-9.9832,1.8125,11.2464,12.4405,7.4539,-5.9373,1.8245,9.0547,5.6879,11.2517
3007.8125,-11.8085,0.8310,6.6083,7.4961,5.0642,-2.4213,1.7493,2.1760,-0.7920,-13.1872,1.9390,9.9450,12.7218,7.1250,-6.6351,4.3268,8.5735,6.3923,11.8286
3011.7188,-12.9845,2.1966,6.3563,5.3796,4.1488,-1.8860,0.4984,0.9280,0.1337,-12.8625,1.2186,7.2550,11.3575,5.9899,-5.0224,6.4980,6.8501,6.0272,10.7545
3015.6250,-12.2785,1.9577,5.2096,3.4630,3.3785,-0.8600,0.0539,0.0706,-0.4881,-10.8376,-0.8678,4.3173,9.2139,4.5478,-2.8093,7.4794,5.0253,4.5945,8.4713
3019.5312,-11.2572,-0.4514,2.9261,1.5912,2.5679,-0.9975,-0.1019,-0.8544,-3.0353,-9.4188,-4.2729,1.9243,6.9778,3.2209,-1.8002,6.8224,3.8891,2.1355,5.4579
3023.4375,-10.9167,-4.5080,-0.6278,-0.6937,1.3795,-2.9700,-0.5730,-2.2074,-6.8734,-9.7174,-8.0612,0.3442,4.8939,2.1446,-2.6799,4.7255,3.5115,-1.0899,2.1064
3027.3438,-10.9104,-8.6514,-5.1717,-3.6934,-0.3997,-5.9315,-1.6672,-4.0504,-10.4894,-10.9264,-10.6650,-0.5575,2.7854,1.1400,-4.5954,1.8925,3.3218,-4.5004,-1.3073
3031.2500,-9.9446,-11.0535,-9.8886,-7.2048,-2.6500,-8.0912,-3.2367,-6.1418,-12.2455,-11.1001,-10.6985,-1.0965,0.3026,-0.1152,-5.8350,-0.8721,2.5540,-7.3205,-4.5855
3035.1562,-7.0830,-10.6946,-13.6135,-10.4986,-4.9080,-8.0023,-4.7969,-8.0752,-11.3453,-8.8888,-7.8863,-1.6374,-2.7646,-1.8190,-5.1496,-3.0569,0.7634,-8.9125,-7.5510
3039.0625,-2.9378,-8.0447,-15.2642,-12.6181,-6.5589,-5.6466,-5.7980,-9.4459,-8.3860,-4.9225,-3.4781,-2.5678,-6.2795,-3.8408,-2.7803,-4.5916,-1.8912,-9.1048,-9.9980
3042.9688,0.2946,-4.8293,-14.2769,-12.7966,-7.1118,-2.5119,-5.8517,-9.9562,-5.0667,-1.7046,0.2510,-4.2373,-9.7390,-5.7071,-0.4204,-5.6976,-4.7328,-8.2582,-11.6570
3046.8750,0.1973,-2.9347,-10.8020,-10.7546,-6.4033,-0.5608,-4.8066,-9.4421,-3.1484,-1.9264,1.2509,-6.7381,-12.4133,-6.7936,-0.0667,-6.5836,-6.9178,-6.9751,-12.1885
3050.7812,-3.9496,-3.1195,-5.5714,-6.7622,-4.6343,-0.7881,-2.7045,-7.8671,-3.2911,-6.3157,-1.0062,-9.5984,-13.5657,-6.6238,-2.5309,-7.2145,-7.8175,-5.6284,-11.2391
3054.6875,-10.1086,-4.4022,0.4371,-1.5164,-2.2558,-2.4029,0.2578,-5.3394,-4.5428,-12.6103,-5.0248,-11.6644,-12.6773,-5.1143,-6.6751,-7.3073,-7.2262,-4.0575,-8.5885
