Time,Fp1,F3,C3,P3,O1,F7,T3,T5,Fz,Fp2,F4,C4,P4,O2,F8,T4,T6,Cz,Pz
0.0000,-10.5680,-5.5211,-4.7104,-3.1183,-3.3329,-2.5327,-3.9241,-1.9309,-7.7371,-11.9788,-7.8464,-4.3267,-3.9543,-4.3852,-8.9288,-4.1359,-4.9119,-5.2526,-3.9436
3.9062,-7.5409,-3.6008,-3.5122,-2.1006,-1.4522,-1.3194,-3.1917,-0.9823,-5.3738,-7.4477,-4.8271,-1.3066,-0.8209,-2.1538,-5.3863,-0.2926,-1.8491,-3.8966,-2.5458
7.8125,-3.2266,-1.0394,-1.8459,-0.8932,0.9443,0.0817,-1.4291,-0.1562,-1.9602,-1.5000,-0.8359,2.3728,3.1535,0.8959,-0.7859,4.2542,2.3673,-1.8833,-0.4163
11.7188,1.2732,1.4263,-0.0771,0.2161,3.1121,1.1770,1.1096,0.2004,1.6068,4.0637,3.0190,5.6087,6.8690,4.0637,3.4619,8.0575,6.7572,0.3502,1.9522
15.6250,4.4369,2.9168,1.3414,1.0273,4.3560,1.4643,3.6135,0.0408,4.1353,7.1668,5.4395,7.3564,9.2069,6.5442,5.8094,9.7889,10.1384,2.1835,3.8238
19.5312,5.0019,2.8167,2.0700,1.5152,4.4259,0.6660,5.0707,-0.3152,4.6864,6.4374,5.4959,7.1266,9.5746,7.8010,5.3072,8.8712,11.6444,3.0660,4.5560
23.4375,2.6928,1.1223,2.0341,1.7850,3.6588,-1.0918,4.8179,-0.3651,3.0827,2.0184,3.0952,5.1994,8.1858,7.8010,2.1318,5.7503,11.0888,2.7565,3.9305
27.3438,-1.4241,-1.4664,1.4439,1.9402,2.7664,-3.2540,2.9400,0.2518,0.0862,-4.2593,-0.8734,2.4428,5.9056,6.9781,-2.3862,1.6696,8.9880,1.4323,2.2789
31.2500,-5.2764,-3.7973,0.6744,1.9737,2.4017,-5.0196,0.2532,1.5051,-2.8949,-9.5539,-4.8248,-0.1444,3.7585,5.9618,-6.2964,-1.9240,6.2528,-0.3825,0.3154
35.1562,-6.7734,-4.7746,0.0820,1.7812,2.7910,-5.6847,-2.1257,2.9721,-4.4605,-11.3270,-7.1163,-1.8928,2.3983,5.2447,-7.9035,-4.0188,3.7535,-2.0261,-1.2241
39.0625,-4.9789,-3.8862,-0.1375,1.3007,3.6672,-4.9945,-3.3404,4.0950,-3.8981,-8.6767,-6.7675,-2.6695,1.8573,4.9838,-6.5738,-4.4043,1.9997,-2.9386,-1.9218
42.9688,-0.7814,-1.4714,0.0246,0.6685,4.5275,-3.3134,-3.1331,4.5285,-1.5146,-2.9515,-3.9151,-2.7570,1.6947,5.0258,-3.0584,-3.6107,1.0762,-2.8245,-1.7975
46.8750,3.4284,1.4300,0.4696,0.2519,5.0114,-1.4884,-1.7851,4.3499,1.5750,2.7959,0.2503,-2.5319,1.4041,5.0930,0.8588,-2.5068,0.7899,-1.6869,-1.1664
50.7812,5.0007,3.5862,1.1005,0.4858,5.1176,-0.4473,0.2112,3.9890,4.0813,5.3302,4.0600,-2.1847,0.7790,4.9733,3.2376,-1.8051,0.8725,0.2401,-0.3704
54.6875,2.5169,4.1757,1.8711,1.5889,5.1139,-0.7347,2.4482,3.9273,5.2196,2.9467,6.1680,-1.6622,-0.0048,4.5923,2.9370,-1.7401,1.0926,2.5909,0.4098
58.5938,-3.3669,3.1577,2.7467,3.3398,5.2311,-2.2481,4.6416,4.3629,5.0342,-3.5994,6.1425,-0.8405,-0.6121,3.9588,0.1425,-2.0638,1.2551,4.9437,1.1413
62.5000,-10.2639,1.2191,3.6234,5.0906,5.4027,-4.3264,6.4547,5.0654,4.2007,-11.5078,4.5323,0.2335,-0.8707,3.0837,-3.8104,-2.3087,1.1718,6.8638,1.7788
66.4062,-15.3845,-0.6484,4.2986,6.0586,5.2770,-6.1303,7.3671,5.5177,3.4799,-17.4569,2.4082,1.2414,-0.9256,1.9788,-7.1907,-2.1324,0.7083,7.9578,2.1397
70.3125,-17.0115,-1.6748,4.5473,5.7513,4.5139,-7.0731,6.8198,5.2564,3.2197,-19.3153,0.7047,1.7382,-1.0953,0.7549,-8.7442,-1.5252,-0.0864,7.9719,1.9660
74.2188,-15.2037,-1.6361,4.2726,4.2761,3.1458,-7.0397,4.6097,4.1908,3.2406,-17.0168,-0.2094,1.4626,-1.5407,-0.2792,-8.1789,-0.7700,-0.8729,6.9198,1.1592
78.1250,-11.3550,-0.8220,3.6215,2.3280,1.7085,-6.2892,1.2330,2.6929,3.1464,-12.1458,-0.4915,0.5976,-2.0135,-0.6452,-6.0404,-0.2009,-1.0760,5.1605,0.0036
82.0312,-7.0326,0.2757,2.9636,0.8372,0.9970,-5.1578,-2.1644,1.3936,2.7826,-6.6478,-0.4275,-0.2225,-1.9065,0.1010,-3.1609,0.0662,-0.1436,3.3377,-0.8423
85.9375,-2.9845,1.3122,2.7166,0.4690,1.5797,-3.8067,-4.3048,0.8082,2.4621,-1.6320,-0.0429,-0.2051,-0.6085,2.0902,-0.1280,0.2453,2.1118,2.1596,-0.6509
89.8438,0.9896,2.2512,3.1184,1.2729,3.3959,-2.1977,-4.4711,1.0256,2.7655,2.9202,0.9464,1.1603,2.0629,4.9739,2.8632,0.7583,5.3086,2.1058,0.9346
93.7500,5.3120,3.2719,4.0946,2.6928,5.7319,-0.2855,-2.8932,1.6611,4.0612,7.4619,2.8054,3.7803,5.6544,8.0171,5.7489,1.9592,8.5972,3.2152,3.6252
97.6562,9.7299,4.5328,5.3153,3.9311,7.6189,1.7608,-0.5416,2.1080,6.1197,11.8884,5.3611,6.9560,9.2496,10.4282,8.2418,3.8824,11.0475,5.0840,6.5898
101.5625,13.0517,5.9787,6.3955,4.4347,8.4026,3.5122,1.5316,1.9331,8.1354,15.1372,7.8685,9.7101,11.9207,11.7359,9.7548,6.1767,12.1027,7.0735,8.8987
105.4688,13.7999,7.3096,7.0925,4.1924,8.1051,4.4661,2.8181,1.1615,9.1633,15.7672,9.3255,11.2447,13.1637,11.9745,9.7216,8.2520,11.8159,8.5989,10.0213
109.3750,11.3124,8.1002,7.3556,3.6600,7.3351,4.3291,3.4848,0.2607,8.6641,13.0889,9.0364,11.2578,13.0449,11.5584,8.0626,9.5305,10.7165,9.3201,10.0431
113.2812,6.4263,7.9713,7.2094,3.3743,6.8140,3.1793,3.9484,-0.1722,6.7728,7.9265,7.0195,9.9494,11.9935,10.9405,5.3804,9.6390,9.3969,9.1398,9.4633
117.1875,1.1616,6.7201,6.5965,3.5337,6.8509,1.3920,4.2853,0.1810,4.1213,2.3374,3.9586,7.7627,10.4247,10.2948,2.6577,8.4492,8.1042,8.0693,8.7411
121.0938,-2.4317,4.3897,5.3556,3.8454,7.1363,-0.5975,4.0148,1.1324,1.3888,-1.5920,0.7491,5.0756,8.4830,9.4484,0.6388,6.0079,6.6233,6.1262,7.9407
125.0000,-3.4638,1.2988,3.4005,3.7595,6.9995,-2.4967,2.4917,2.1043,-1.0581,-3.0267,-2.0078,2.0726,6.0840,8.1042,-0.6361,2.4806,4.5354,3.3920,6.7535
128.9062,-2.5974,-1.9639,0.9830,2.9297,5.9433,-4.1718,-0.3777,2.5201,-3.1755,-2.7948,-4.1882,-1.1325,3.1954,6.1808,-1.7544,-1.8030,1.6737,0.1960,4.8771
132.8125,-1.3981,-4.6300,-1.2005,1.5685,4.0744,-5.5010,-3.7041,2.2047,-4.9550,-2.6219,-5.9119,-4.2541,0.1131,4.0099,-3.3310,-6.2394,-1.5523,-2.7585,2.4486
136.7188,-1.1542,-5.9722,-2.2330,0.4120,2.1145,-6.2441,-5.9153,1.5080,-6.1446,-3.7545,-7.1476,-6.7105,-2.5093,2.2309,-5.3392,-9.9262,-4.2126,-4.5270,0.1661
140.6250,-2.0346,-5.6177,-1.4765,0.2777,0.9741,-6.0963,-5.6879,1.0523,-6.2742,-5.9878,-7.5370,-7.7720,-3.9302,1.4435,-6.9176,-11.8512,-5.2896,-4.3420,-1.0445
144.5312,-3.1419,-3.7962,0.9473,1.4896,1.1760,-4.9311,-2.8886,1.2678,-5.0063,-7.8013,-6.6168,-6.9277,-3.7148,1.8606,-6.8647,-11.2790,-4.2271,-2.1023,-0.6126
148.4375,-3.3307,-1.3318,4.0466,3.5704,2.5241,-3.0403,1.1711,2.0462,-2.5292,-7.4718,-4.2597,-4.2337,-1.9826,3.2018,-4.5059,-8.1418,-1.2545,1.4066,1.2576
152.3438,-2.1086,0.6972,6.3741,5.4468,4.2415,-1.1362,4.4160,2.7757,0.3685,-4.3261,-0.9437,-0.3870,0.6620,4.8995,-0.3035,-3.1787,2.7135,4.7880,3.6562
156.2500,0.0531,1.4931,6.7835,6.0790,5.4806,-0.0312,5.2143,2.7577,2.6746,0.7691,2.4206,3.5628,3.4667,6.4620,4.2637,2.3110,6.5275,6.7226,5.5103
160.1562,2.1685,0.9682,5.0927,5.1256,5.8563,-0.1607,3.3257,1.7317,3.7574,5.9828,5.0179,6.7085,5.9076,7.7341,7.5127,7.0017,9.3264,6.6896,6.2471
164.0625,3.5344,-0.1996,2.2388,3.2132,5.6508,-1.2602,-0.0133,0.1394,3.7723,9.6949,6.6201,8.6967,7.8728,8.8831,8.5321,10.0768,10.8354,5.2773,6.1317
167.9688,4.2564,-0.9331,-0.1887,1.6178,5.5759,-2.4347,-2.8740,-1.0692,3.5721,11.4307,7.6659,9.8164,9.5754,10.1517,7.6877,11.4759,11.3236,3.8673,6.0578
171.8750,5.1579,-0.3218,-0.7686,1.5474,6.2814,-2.6074,-3.7296,-0.9768,4.1778,11.9836,8.8712,10.7387,11.3070,11.5916,6.3650,11.7501,11.3243,3.8679,6.9443
175.7812,7.2212,1.9530,1.0559,3.4673,7.9533,-1.0837,-2.1637,0.7636,6.1824,12.7797,10.6825,12.0897,13.2246,12.9964,6.1708,11.6564,11.3422,5.9537,9.1480
179.6875,11.0050,5.5613,4.7842,6.8718,10.2484,2.1005,1.1526,3.7373,9.4793,15.0238,12.9978,14.1138,15.2896,14.0769,8.1238,11.7570,11.7073,9.7470,12.2640
183.5938,16.3981,9.7970,9.2160,10.6048,12.5538,6.2270,5.0269,7.0200,13.4442,19.1695,15.3440,16.5837,17.3284,14.7162,12.2736,12.2300,12.5729,14.0842,15.3909
187.5000,22.7348,13.9384,13.0807,13.4844,14.3333,10.2658,8.3706,9.6741,17.3553,24.8820,17.3153,18.9386,19.0925,15.0637,17.8293,12.9236,13.9374,17.6413,17.6236
191.4062,29.0450,17.4480,15.5490,14.8239,15.2995,13.3231,10.5052,11.1518,20.7046,31.2803,18.8718,20.5170,20.2413,15.3546,23.5600,13.5299,15.5920,19.5164,18.4267
195.3125,34.2413,19.9565,16.3935,14.5711,15.3322,14.9310,11.1359,11.3790,23.2106,37.1783,20.2429,20.7600,20.2984,15.5785,28.1872,13.7375,17.0323,19.4706,17.6953
199.2188,37.2606,21.1758,15.8396,13.0841,14.2911,15.0933,10.2445,10.5587,24.6425,41.2713,21.5483,19.3551,18.7230,15.2827,30.6685,13.3115,17.4902,17.8101,15.5842
203.1250,37.3197,20.9292,14.3245,10.8005,11.9649,14.1598,8.1154,8.9248,24.7314,42.4254,22.5189,16.3564,15.1763,13.7375,30.4483,12.1531,16.2078,15.1187,12.3457
207.0312,34.3255,19.3342,12.3552,8.0717,8.2697,12.6515,5.4430,6.6695,23.3356,40.1731,22.6299,12.2819,9.8863,10.4357,27.7259,10.3908,12.8935,12.0646,8.3456
210.9375,29.2100,16.9622,10.4814,5.2319,3.5655,11.1102,3.2726,4.0650,20.7446,35.2069,21.5889,8.1068,3.8541,5.6136,23.6030,8.4634,8.0952,9.3365,4.1987
214.8438,23.8246,14.7485,9.2545,2.7390,-1.2000,9.9707,2.6059,1.5992,17.8060,29.4326,19.7727,5.0389,-1.3415,0.4005,19.8578,7.0739,3.1812,7.5887,0.7956
218.7500,20.2361,13.5871,9.0611,1.1559,-4.7397,9.4445,3.8218,-0.0912,15.6475,25.2946,18.1876,4.0659,-4.1563,-3.5975,18.2429,6.9317,-0.1855,7.2649,-0.9537
222.6562,19.7195,13.8238,9.8788,0.8950,-6.0150,9.4524,6.3186,-0.5284,15.0888,24.5879,17.8835,5.4549,-3.8311,-5.0999,19.5779,8.3589,-0.8612,8.3345,-0.5910
226.5625,22.0770,15.0078,11.1509,1.8882,-4.8265,9.6772,8.7220,0.2546,16.1329,27.4593,19.2093,8.5108,-0.8343,-3.8692,23.1947,11.0045,1.1397,10.1518,1.5192
230.4688,25.7981,16.1345,11.9626,3.4724,-2.0078,9.7607,9.6235,1.6114,17.9362,32.3183,21.4825,11.8239,3.3209,-0.8743,27.2022,13.9087,4.6047,11.6522,4.2471
234.3750,29.0346,16.2749,11.5075,4.6595,0.9646,9.5570,8.4044,2.5772,19.3350,36.8229,23.3745,13.9569,6.8420,2.2432,29.5422,15.9648,7.7694,11.8859,6.2507
238.2812,30.7649,15.1870,9.5922,4.6823,2.7541,9.2709,5.5968,2.4207,19.5944,39.3382,23.7825,14.2131,8.5872,4.1007,29.2273,16.5378,9.3012,10.6000,6.7315
242.1875,31.3420,13.4851,6.8470,3.4712,2.8758,9.3550,2.5423,1.0978,18.8572,39.8789,22.5781,13.0129,8.6106,4.3395,26.9477,15.8416,9.0309,8.4666,5.9032
246.0938,32.0311,12.2320,4.4581,1.7221,1.8998,10.1954,0.5980,-0.7085,17.9738,39.8650,20.6884,11.6108,7.9912,3.7458,24.5995,14.7934,7.9731,6.7414,4.8338
250.0000,33.8718,12.2221,3.5426,0.4802,1.0230,11.7834,0.4346,-2.0102,17.8372,40.8608,19.4460,11.2941,8.0549,3.6577,24.0096,14.4008,7.6114,6.5150,4.7278
253.9062,36.6928,13.4415,4.5272,0.4924,1.2870,13.6083,1.8481,-2.1237,18.7032,43.2105,19.6694,12.5542,9.4801,5.0378,25.7001,15.0691,8.8935,8.0286,6.1032
257.8125,39.0078,15.0620,6.9020,1.7499,2.9339,14.8661,4.0920,-1.0708,19.9753,45.5652,21.1153,14.7591,11.8461,7.8006,28.5158,16.2962,11.5717,10.5090,8.4063
261.7188,38.8796,15.9515,9.4905,3.5155,5.2855,14.8678,6.3724,0.4816,20.5878,45.6557,22.6526,16.5368,13.8930,10.8087,30.3495,16.9732,14.3017,12.6387,10.3250
265.6250,35.1534,15.3407,11.0634,4.7999,7.1827,13.3899,8.1236,1.6733,19.6931,41.7742,22.9864,16.6190,14.3079,12.5270,29.4488,16.1037,15.4359,13.3464,10.5924
269.5312,28.2227,13.2138,10.9379,4.9582,7.6733,10.7602,8.9717,1.9752,17.1754,33.9420,21.4057,14.5977,12.5252,11.9095,25.4348,13.4642,14.0050,12.3870,8.7569
273.4375,19.8588,10.2255,9.2462,4.0191,6.5148,7.6580,8.6174,1.4486,13.6787,24.0050,18.0851,11.1227,9.0455,8.9791,19.4177,9.7705,10.2833,10.3536,5.4294
277.3438,12.2933,7.2792,6.7815,2.5719,4.2193,4.7947,6.9121,0.6143,10.2035,14.6672,13.8491,7.4560,5.1074,4.7752,13.2569,6.2541,5.6129,8.1734,1.8873
281.2500,7.2010,5.0963,4.5666,1.3422,1.6852,2.6812,4.1437,0.0750,7.6021,8.1670,9.6864,4.7197,1.9638,0.7566,8.5578,3.9491,1.6368,6.5009,-0.6637
285.1562,5.1774,4.0247,3.4033,0.7816,-0.3000,1.5769,1.2325,0.1728,6.2950,5.4229,6.3868,3.3471,0.2407,-1.9407,6.0603,3.1644,-0.5601,5.4489,-1.6748
289.0625,5.8553,4.1019,3.6038,0.9325,-1.3713,1.5529,-0.5019,0.8870,6.2958,6.0226,4.4579,3.0542,-0.2363,-2.9506,5.6702,3.4622,-0.8892,4.8015,-1.3453
292.9688,8.3618,5.1972,4.9701,1.5994,-1.5806,2.5361,-0.0229,1.9751,7.3853,8.8042,4.1872,3.2674,-0.1032,-2.6279,6.8820,4.0972,-0.0733,4.4608,-0.2513
296.8750,11.7050,7.0631,6.9601,2.6291,-1.1665,4.2725,2.7048,3.1934,9.2264,12.4837,5.6232,3.6328,0.1079,-1.6300,9.1410,4.5714,0.9626,4.7013,1.1519
300.7812,14.9278,9.2887,8.9324,4.0503,-0.3197,6.2803,6.5282,4.4211,11.3564,15.9664,8.4173,4.2286,0.3564,-0.4557,11.9007,4.9179,1.6901,5.9831,2.7792
304.6875,17.1746,11.2925,10.3770,5.9669,0.8950,7.9226,9.7045,5.6236,13.1762,18.3956,11.7146,5.3613,1.0591,0.7690,14.5087,5.5559,2.2034,8.4514,4.7741
308.5938,17.8949,12.4840,11.0645,8.3087,2.4468,8.6479,10.9603,6.7322,14.0923,19.2320,14.3456,7.1566,2.7004,2.1843,16.2365,6.8738,2.9955,11.5384,7.1473
312.5000,17.1831,12.5565,11.0732,10.6592,4.1963,8.2874,10.2891,7.5669,13.8100,18.5145,15.3558,9.2933,5.3837,3.9195,16.6055,8.8646,4.5049,14.0447,9.5215
316.4062,15.9785,11.7123,10.6830,12.3242,5.8400,7.2041,8.8959,7.8689,12.5877,17.1143,14.5869,11.1026,8.6408,5.8766,15.8067,11.0652,6.7618,14.7326,11.2074
320.3125,15.8117,10.6172,10.1786,12.6225,6.9914,6.1545,8.2951,7.4140,11.2132,16.6127,12.8802,11.9600,11.6165,7.7214,14.8171,12.8142,9.3430,13.0756,11.5738
324.2188,18.0770,10.0598,9.6635,11.2274,7.3419,5.9098,9.1928,6.1226,10.6362,18.6382,11.6699,11.6816,13.4966,9.0564,14.9767,13.6231,11.6142,9.6563,10.4502
328.1250,23.2111,10.5123,9.0041,8.3516,6.7953,6.8601,10.9560,4.1013,11.4476,23.9480,12.1584,10.6356,13.9009,9.6310,17.2067,13.4149,13.0595,5.9216,8.2785
332.0312,30.3205,11.8818,7.9537,4.6784,5.5003,8.8414,12.0468,1.6167,13.5398,31.8424,14.5914,9.4976,13.0130,9.4456,21.3739,12.5043,13.4868,3.4201,5.9061
335.9375,37.5525,13.6078,6.3892,1.0897,3.7788,11.2719,11.1022,-0.9646,16.1749,40.3682,18.1140,8.8300,11.4055,8.7019,26.2623,11.3830,13.0228,2.9874,4.1575
339.8438,43.0067,15.0213,4.4974,-1.6544,1.9996,13.4796,7.8843,-3.2426,18.4104,47.2501,21.3043,8.7698,9.7014,7.6602,30.2065,10.4731,11.9595,4.3623,3.4497
343.7500,45.6102,15.7038,2.7622,-3.1374,0.4605,14.9910,3.4581,-4.8572,19.5886,50.9727,23.0102,9.0142,8.2829,6.5084,31.9791,9.9840,10.5860,6.4292,3.6641
347.6562,45.4187,15.6136,1.7318,-3.3434,-0.6838,15.6204,-0.4657,-5.5755,19.5785,51.3277,22.9282,9.0687,7.1917,5.3096,31.3554,9.9023,9.0998,7.8876,4.3070
351.5625,43.2260,14.9419,1.7042,-2.5676,-1.4328,15.3665,-2.5069,-5.3694,18.6564,49.1300,21.5691,8.5613,6.2253,4.0313,29.0285,10.0527,7.6024,7.9209,4.8178
355.4688,39.8451,13.8652,2.5393,-1.2521,-1.8922,14.2641,-2.2438,-4.4295,17.1809,45.3976,19.7097,7.4148,5.1301,2.6140,26.0092,10.1661,6.1300,6.4973,4.8303
359.3750,35.6076,12.4125,3.7314,0.1831,-2.1823,12.3377,-0.1746,-3.0809,15.3363,40.6401,17.7830,5.8072,3.7686,1.0368,22.9766,9.9385,4.6772,4.2118,4.2706
363.2812,30.3973,10.5369,4.6993,1.4591,-2.3399,9.6824,2.7851,-1.6307,13.1253,34.7517,15.6554,4.0081,2.1892,-0.6401,20.0120,9.1064,3.2143,1.8614,3.2955
367.1875,24.1019,8.3005,5.1018,2.4744,-2.2770,6.5726,5.7937,-0.2411,10.5664,27.5047,12.9199,2.2414,0.5956,-2.2636,16.8205,7.5514,1.7270,0.0496,2.1585
371.0938,17.0639,5.9824,4.9738,3.2484,-1.8440,3.4635,8.2315,1.0768,7.8909,19.1826,9.4358,0.6614,-0.7476,-3.6181,13.1823,5.3917,0.2756,-0.9763,1.0901
375.0000,10.1599,3.9967,4.6054,3.7993,-0.9929,0.8447,9.5627,2.3332,5.5507,10.8165,5.6739,-0.5921,-1.6321,-4.5055,9.2624,2.9859,-0.9700,-1.2588,0.2217
378.9062,4.4545,2.6671,4.2644,4.0187,0.0522,-0.9723,9.2303,3.3899,4.0093,3.8272,2.5899,-1.3622,-2.0099,-4.8566,5.5717,0.8091,-1.7790,-0.9751,-0.4553
382.8125,0.6907,2.0246,3.9605,3.6294,0.7508,-1.9912,6.8252,3.8926,3.4653,-0.6758,1.0906,-1.5384,-2.0487,-4.8177,2.6580,-0.7563,-1.9993,-0.3412,-1.1046
386.7188,-1.0326,1.7773,3.4055,2.2752,0.4186,-2.5032,2.4521,3.3897,3.7045,-2.4494,1.4505,-1.1846,-2.1001,-4.7319,0.7826,-1.6011,-1.7118,0.3834,-2.0138
390.6250,-1.2250,1.4718,2.1871,-0.2779,-1.4182,-2.9145,-3.0341,1.5928,4.1809,-2.1835,3.0576,-0.6162,-2.5635,-4.9837,-0.2040,-1.9285,-1.2771,0.8621,-3.4871
394.5312,-0.6969,0.7357,0.0386,-3.9269,-4.6656,-3.5383,-8.1968,-1.3802,4.2772,-1.0887,4.6583,-0.3258,-3.6799,-5.7594,-0.7450,-2.1221,-1.1983,0.7214,-5.6711
398.4375,-0.2080,-0.5444,-2.9522,-8.1294,-8.5240,-4.4600,-11.5569,-4.9370,3.5923,-0.3074,4.9667,-0.7519,-5.3506,-6.8636,-1.3313,-2.5186,-1.8399,-0.3016,-8.3867
402.3438,-0.2481,-2.1892,-6.2980,-11.9913,-11.7054,-5.5255,-12.1798,-8.1773,2.1166,-0.4877,3.3090,-2.0101,-7.0970,-7.7295,-2.2709,-3.2183,-3.1608,-2.1704,-11.0761
406.2500,-0.9822,-3.8189,-9.2349,-14.5274,-12.9437,-6.4304,-9.9677,-10.2150,0.2304,-1.6775,-0.0254,-3.7554,-8.2198,-7.6648,-3.5609,-4.0367,-4.6430,-4.4459,-12.9387
410.1562,-2.2953,-5.0028,-10.9549,-14.9933,-11.5610,-6.8632,-5.5606,-10.4950,-1.4562,-3.4825,-3.8936,-5.2868,-8.1127,-6.2253,-4.8858,-4.6119,-5.4973,-6.3708,-13.2353
414.0625,-3.8860,-5.4095,-10.8706,-13.1527,-7.8005,-6.6530,-0.0373,-8.9721,-2.3569,-5.3379,-6.8161,-5.8699,-6.5784,-3.5082,-5.7495,-4.5990,-5.0626,-7.1443,-11.6309
417.9688,-5.4116,-4.9368,-8.8390,-9.3816,-2.7533,-5.8798,5.3298,-6.1029,-2.1741,-6.7788,-7.6685,-5.1217,-3.9784,-0.1830,-5.7319,-3.8461,-3.1854,-6.2790,-8.4052
421.8750,-6.6816,-3.7966,-5.2771,-4.5783,2.0844,-4.8986,9.2038,-2.6897,-1.0795,-7.6579,-6.2371,-3.2521,-1.1215,2.7769,-4.8011,-2.4788,-0.3615,-3.8735,-4.4130
425.7812,-7.8228,-2.5075,-1.1016,0.0860,5.3986,-4.2327,10.3603,0.3566,0.2854,-8.2584,-3.3687,-1.0201,1.0612,4.5247,-3.5125,-0.8721,2.4505,-0.6536,-0.7916
429.6875,-9.2725,-1.7422,2.5352,3.5003,6.5170,-4.3450,8.0875,2.2749,1.0384,-9.2173,-0.6129,0.5915,1.8975,4.7017,-2.8968,0.4681,4.2541,2.2659,1.4586
433.5938,-11.5171,-2.0426,4.6534,4.9409,5.5599,-5.3782,2.7166,2.6850,0.4554,-11.2066,0.5123,0.8361,1.2312,3.5479,-3.9708,1.0757,4.4620,3.8198,1.8410
437.5000,-14.6772,-3.5202,4.8395,4.2986,3.2728,-7.0199,-4.1034,1.7293,-1.6382,-14.4687,-0.7123,-0.4280,-0.5486,1.7312,-7.0657,0.7022,3.1459,3.4456,0.5256
441.4062,-18.2111,-5.7233,3.4262,2.1250,0.6733,-8.6077,-9.7863,0.0516,-4.7076,-18.4658,-3.8096,-2.6475,-2.6891,0.0201,-11.3857,-0.5527,0.9818,1.3455,-1.7435
445.3125,-21.0078,-7.7929,1.3433,-0.5383,-1.3092,-9.4575,-11.8706,-1.4261,-7.7081,-21.9396,-7.3217,-4.8157,-4.3610,-1.0157,-15.1740,-2.2220,-1.0615,-1.5778,-3.9417
449.2188,-21.9116,-8.8664,-0.3129,-2.5143,-2.0729,-9.2375,-9.2584,-1.8690,-9.5694,-23.4693,-9.5561,-5.9349,-4.9306,-1.1477,-16.5318,-3.6057,-2.1297,-4.1006,-5.1305
453.1250,-20.4150,-8.5170,-0.7762,-2.9065,-1.4277,-8.1555,-2.8772,-0.8817,-9.7105,-22.2782,-9.4667,-5.4760,-4.1340,-0.4610,-14.4899,-4.0423,-1.8053,-5.2071,-4.7652
457.0312,-17.0839,-6.9723,0.0771,-1.4158,0.4438,-6.8316,4.7111,1.3371,-8.2976,-18.8033,-7.1783,-3.6078,-2.1312,0.7660,-9.6878,-3.2136,-0.2258,-4.5295,-2.8485
460.9375,-13.4059,-4.9849,1.7445,1.5734,3.0896,-5.9323,10.5780,4.1242,-6.1090,-14.6170,-3.8617,-1.0866,0.5533,2.1823,-4.1864,-1.3303,2.0232,-2.4885,0.1004
464.8438,-11.0977,-3.4388,3.3966,5.1677,5.9143,-5.8075,12.8192,6.6873,-4.1105,-11.6680,-1.0579,1.1278,3.1837,3.4455,-0.4479,0.9255,4.1684,-0.0756,3.2330
468.7500,-11.2529,-2.9343,4.2672,8.3073,8.3054,-6.3606,11.2573,8.4402,-3.0067,-11.2514,0.1311,2.3228,5.0299,4.2742,-0.0501,2.7004,5.5462,1.6162,5.6476
472.6562,-13.8120,-3.5817,3.9319,10.1157,9.7501,-7.2136,7.1391,9.1446,-3.0125,-13.3192,-0.4917,2.3105,5.5887,4.4956,-2.8819,3.3726,5.8174,1.8794,6.6624
476.5625,-17.6385,-5.0756,2.3810,10.1145,9.9234,-8.0143,2.1878,8.8119,-3.9181,-16.5442,-2.3175,1.3989,4.7270,4.0853,-7.2793,2.8380,5.0219,0.6680,5.9999
480.4688,-21.1212,-6.9403,-0.0748,8.2520,8.7331,-8.6489,-2.2750,7.4946,-5.3260,-19.0862,-4.4492,0.1002,2.6736,3.1649,-10.9832,1.5140,3.4678,-1.4568,3.8228
484.3750,-22.9409,-8.7581,-2.9602,4.7984,6.3160,-9.2168,-5.6241,5.1675,-6.8703,-19.5860,-6.2468,-1.2300,-0.1417,1.9386,-12.3280,0.0595,1.5265,-3.6618,0.6169
488.2812,-22.6016,-10.2605,-5.7709,0.2087,2.9964,-9.8308,-7.6750,1.8135,-8.2975,-17.8096,-7.5590,-2.5948,-3.3077,0.5949,-10.9859,-1.0199,-0.5465,-5.2715,-3.0164
492.1875,-20.5070,-11.2946,-8.0752,-4.9612,-0.7658,-10.4373,-8.3272,-2.3539,-9.4304,-14.6183,-8.5619,-4.2744,-6.5656,-0.7571,-7.9232,-1.6354,-2.6565,-6.0696,-6.5538
496.0938,-17.6296,-11.7650,-9.5955,-10.0733,-4.4217,-10.8229,-7.5269,-6.7286,-10.1168,-11.3703,-9.4112,-6.5165,-9.7559,-2.0620,-4.7151,-2.0875,-4.7544,-6.3209,-9.6300
500.0000,-14.9975,-11.6286,-10.2645,-14.4077,-7.3746,-10.7999,-5.5536,-10.3828,-10.2399,-9.1674,-10.0074,-9.2010,-12.6144,-3.2143,-2.6886,-2.7728,-6.6455,-6.5149,-11.9767
503.9062,-13.2490,-10.9331,-10.2137,-17.2124,-9.0401,-10.3989,-3.2420,-12.3836,-9.7735,-8.3732,-10.0414,-11.7069,-14.5877,-3.9629,-2.3586,-3.8266,-7.8778,-6.9816,-13.2882
507.8125,-12.4189,-9.8298,-9.6646,-17.8371,-8.9437,-9.8845,-1.7474,-12.1831,-8.8112,-8.5972,-9.2482,-13.0978,-14.8653,-3.9259,-3.3588,-4.9471,-7.8388,-7.6062,-13.1501
511.7188,-11.9934,-8.5072,-8.7611,-15.9264,-6.8551,-9.5482,-1.8670,-9.8509,-7.5180,-9.0354,-7.6420,-12.5519,-12.7010,-2.7501,-4.7678,-5.5261,-6.0556,-7.8244,-11.1401
515.6250,-11.1714,-7.0781,-7.4496,-11.5933,-2.9149,-9.4260,-3.3854,-6.0153,-6.0333,-8.8919,-5.5411,-9.8097,-7.8862,-0.3341,-5.5732,-5.0069,-2.5418,-6.9315,-7.0965
519.5312,-9.2058,-5.5035,-5.5107,-5.4791,2.3174,-9.1590,-5.0102,-1.5633,-4.4002,-7.6362,-3.3623,-5.3855,-1.0779,3.0339,-5.0459,-3.2357,2.0465,-4.5457,-1.4045
523.4375,-5.6773,-3.6208,-2.7449,1.3647,7.9548,-8.1247,-5.0652,2.7135,-2.5693,-5.0223,-1.3409,-0.4010,6.2828,6.7449,-2.9204,-0.5714,6.6033,-0.9553,4.9211
527.3438,-0.5929,-1.2566,0.8061,7.7653,13.0214,-5.7696,-2.5300,6.3394,-0.4545,-0.9607,0.6281,3.8952,12.5073,10.1365,0.6143,2.3218,10.0655,2.8967,10.5005
531.2500,5.7082,1.6606,4.7708,12.7981,16.7643,-1.9381,2.2864,9.1761,2.0230,4.5846,2.9206,6.6882,16.4058,12.8141,5.0592,4.8640,11.9510,5.8410,14.1475
535.1562,12.7420,5.0648,8.5789,16.0858,18.9081,2.9969,7.9105,11.3060,4.9346,11.5558,5.9347,7.9495,17.8319,14.8261,9.8159,6.8717,12.6152,7.1298,15.4517
539.0625,20.0048,8.7946,11.7427,17.8849,19.7221,8.2550,12.5734,12.9008,8.3459,19.6153,9.8108,8.3948,17.6985,16.5752,14.3776,8.5838,13.0380,6.9375,15.0432
542.9688,26.9435,12.6444,14.0993,18.9036,19.8525,12.9256,15.1580,14.1463,12.2530,27.9443,14.2721,9.0667,17.4333,18.5111,18.4152,10.3849,14.2298,6.3884,14.3290
546.8750,32.8325,16.3620,15.8463,19.9232,19.9901,16.2495,15.5964,15.2153,16.4465,35.2149,18.6615,10.7582,18.1748,20.7956,21.7222,12.4175,16.5910,7.0268,14.7888
550.7812,36.7517,19.6068,17.3461,21.4057,20.5399,17.8099,14.5580,16.2355,20.4070,39.8804,22.1590,13.5775,20.1647,23.1489,24.0797,14.3595,19.6130,9.9699,17.1870
554.6875,37.8361,21.9549,18.8397,23.2827,21.4612,17.6180,12.8123,17.2258,23.3773,40.7673,24.0951,16.8807,22.6691,24.9760,25.1894,15.5413,22.1170,15.1989,21.1387
558.5938,35.7707,23.0256,20.2683,25.0250,22.3522,16.1178,10.8301,18.0396,24.6715,37.7452,24.2417,19.6024,24.4491,25.6917,24.7984,15.3567,22.9056,21.4029,25.2837
562.5000,31.2531,22.7041,21.3154,25.9404,22.7117,14.1040,8.8802,18.3808,24.0926,32.1148,22.9613,20.8065,24.4783,25.0430,22.9987,13.7200,21.4500,26.5100,27.9794
566.4062,26.0540,21.3216,21.6253,25.5256,22.2182,12.5213,7.3817,17.9239,22.1967,26.3978,21.1309,20.1721,22.4966,23.2396,20.5004,11.2730,18.2132,28.6625,28.1293
570.3125,22.4810,19.6374,21.0420,23.6920,20.8705,12.1547,7.0286,16.4930,20.1787,23.4763,19.8376,18.1723,19.1170,20.8326,18.6117,9.1866,14.4305,27.1466,25.7000
574.2188,22.4156,18.5740,19.7266,20.7782,18.9405,13.3145,8.4265,14.2029,19.3729,25.3904,19.9547,15.8725,15.4880,18.4404,18.7951,8.6363,11.4928,22.7963,21.6783
578.1250,26.4101,18.8245,18.1069,17.3905,16.8046,15.6885,11.4777,11.4740,20.6202,32.3550,21.7834,14.4606,12.7479,16.4945,21.9500,10.2298,10.2950,17.6621,17.5394
582.0312,33.3530,20.5441,16.7160,14.1829,14.7779,18.4797,15.0740,8.9006,23.8585,42.5189,24.9392,14.7415,11.5729,15.1353,27.8061,13.6916,10.9009,14.0975,14.5486
585.9375,40.9119,23.2960,16.0064,11.6706,13.0320,20.7863,17.5003,7.0290,28.1660,52.6451,28.5413,16.8114,11.9953,14.2672,34.8201,17.9696,12.6568,13.6962,13.2518
589.8438,46.5230,26.2606,16.1892,10.1048,11.5940,22.0127,17.4092,6.1436,32.2094,59.4146,31.6035,20.0281,13.4925,13.6790,40.7155,21.6983,14.6145,16.5680,13.3514
593.7500,48.4071,28.5677,17.1218,9.4016,10.3737,22.0669,14.7285,6.1528,34.8173,60.7360,33.4156,23.2569,15.2266,13.1290,43.4335,23.7758,15.9823,21.2771,13.9459
597.6562,46.1392,29.5737,18.2779,9.1388,9.1872,21.2471,10.8289,6.6262,35.3727,56.4625,33.7311,25.2792,16.3195,12.3706,42.0208,23.7727,16.3716,25.4666,13.9652
601.5625,40.6084,28.9900,18.8627,8.6765,7.8114,19.9374,7.7635,6.9822,33.8850,48.2575,32.7131,25.2213,16.1136,11.1822,37.0112,22.0057,15.7882,26.9014,12.6220
605.4688,33.5441,26.8896,18.1125,7.4375,6.1184,18.3651,7.0454,6.7644,30.8262,38.7932,30.7395,22.8685,14.4065,9.4734,30.1429,19.2875,14.4854,24.4798,9.7505
609.3750,26.9297,23.6695,15.6996,5.2727,4.2732,16.6007,8.7607,5.8947,26.9119,30.7410,28.2249,18.7631,11.6096,7.4552,23.6001,16.5162,12.8327,18.7636,5.9519
613.2812,22.5280,20.0024,12.0284,2.7058,2.8589,14.7666,11.5784,4.7677,22.9441,25.9990,25.5473,14.0375,8.7203,5.7455,19.1726,14.3133,11.2637,11.7643,2.4726
617.1875,21.5475,16.7272,8.1816,0.8298,2.7539,13.2285,13.6021,4.0909,19.6905,25.3594,23.0496,10.0047,7.0119,5.2480,17.6988,12.8589,10.2468,6.0366,0.7790
621.0938,24.3801,14.6190,5.4374,0.7911,4.6975,12.5403,13.4667,4.4974,17.7153,28.5525,21.0194,7.6376,7.4756,6.7528,18.9512,11.9551,10.1820,3.4679,1.9049
625.0000,30.4061,14.0664,4.5657,3.0767,8.7166,13.1086,10.9940,6.1074,17.1512,34.4779,19.5951,7.1480,10.2467,10.4102,21.9006,11.2369,11.2042,4.3412,5.8258
628.9062,37.9840,14.8100,5.3208,7.0336,13.7761,14.7890,7.0893,8.3005,17.5409,41.4747,18.6502,7.8818,14.3465,15.3886,25.1608,10.4002,13.0021,7.1715,11.2195
632.8125,44.7747,15.9359,6.5007,10.9924,17.9882,16.7296,3.0884,9.8956,17.9248,47.6032,17.7754,8.6242,17.9778,20.0008,27.4207,9.3350,14.8123,9.4603,15.8691
636.7188,48.4032,16.2129,6.6175,13.0395,19.4147,17.6442,0.0507,9.7173,17.2321,50.9803,16.4308,8.2058,19.3142,22.3493,27.7454,8.1185,15.6773,9.0258,17.6408
640.6250,47.2431,14.6563,4.8112,12.0505,17.0943,16.4170,-1.5943,7.2689,14.8167,50.1806,14.2194,6.1163,17.4116,21.2172,25.7242,6.9070,14.8794,5.2183,15.5823
644.5312,40.9919,11.0398,1.4409,8.3738,11.6934,12.7106,-1.9728,3.1202,10.8356,44.6375,11.1266,2.7981,12.7373,16.7344,21.4934,5.8128,12.3238,-0.6554,10.5188
648.4375,30.7895,6.0771,-2.0409,3.7162,5.3217,7.2318,-1.4686,-1.2635,6.2279,34.9170,7.5794,-0.5507,6.9904,10.4164,15.6854,4.8503,8.6399,-5.9659,4.7305
652.3438,18.8635,1.1682,-3.8775,0.2551,0.5292,1.5031,-0.4581,-4.2040,2.2935,22.7444,4.2911,-2.5684,2.2819,4.5061,9.3345,3.9858,4.9226,-8.1292,0.8147
656.2500,7.8881,-2.1635,-2.9820,-0.5117,-0.9849,-2.7379,0.8045,-4.6424,0.1147,10.7152,1.9926,-2.3940,0.1199,0.9456,3.7366,3.2486,2.2481,-5.9565,0.3429
660.1562,0.2962,-2.8708,0.4926,1.4942,0.7909,-4.2181,2.1798,-2.6537,0.1443,1.6972,1.1976,-0.0485,0.7590,0.5223,0.2257,2.8169,1.2270,-0.2413,3.0878
664.0625,-2.3033,-0.7611,5.2897,5.0125,4.2839,-2.5980,3.5867,0.6392,2.1408,-1.9819,2.0869,3.6490,3.2512,2.6308,-0.1624,2.9968,1.8250,6.7144,7.2623
667.9688,0.4526,3.4615,9.7381,8.2296,7.2899,1.4235,4.9220,3.6773,5.3935,0.6389,4.4942,7.5380,6.1088,5.7323,2.9057,4.0813,3.5093,12.3182,10.6000
671.8750,7.4823,8.4513,12.5237,9.7428,8.1776,6.3632,5.9587,5.2292,9.0290,8.6191,7.9317,10.6558,8.1446,8.2001,8.7462,6.1567,5.5886,14.9336,11.5956
675.7812,16.4148,12.6498,13.1067,9.1304,6.6293,10.4574,6.2876,4.8841,12.2215,19.1893,11.6340,12.5668,8.9922,9.0629,15.6608,8.9711,7.5317,14.4809,10.1661
679.6875,24.2263,14.7569,11.6629,6.8854,3.5500,12.2634,5.4187,3.0616,14.2879,28.5851,14.6755,13.3571,9.0577,8.2754,21.4080,11.9519,9.0997,12.1588,7.4098
683.5938,28.2885,14.1312,8.7592,3.9040,0.3266,11.1783,3.0985,0.6353,14.7665,33.4436,16.2184,13.3850,9.0299,6.4744,24.0584,14.3776,10.2757,9.5750,4.7335
687.5000,27.4498,11.0137,5.0722,0.9543,-2.0088,7.6853,-0.2989,-1.5409,13.5538,32.2016,15.8450,12.9929,9.3245,4.4680,22.8653,15.6163,11.0908,7.8625,2.9841
691.4062,22.5804,6.4720,1.2973,-1.5514,-3.1911,3.1830,-3.6330,-2.9400,11.0365,25.7886,13.8014,12.3461,9.8163,2.8027,18.6593,15.3130,11.4842,7.2547,2.1259
695.3125,16.1648,2.0264,-1.8526,-3.4660,-3.5653,-0.5995,-5.3837,-3.4242,8.0524,17.1647,10.9459,11.4339,9.9746,1.6129,13.4522,13.4477,11.2724,7.2347,1.5581
699.2188,11.0287,-0.9480,-3.7491,-4.7242,-3.6216,-2.3826,-4.5032,-3.1528,5.5827,9.8419,8.3428,10.1592,9.2415,0.7344,9.3749,10.2726,10.2228,7.0255,0.7221
703.1250,8.8452,-1.7962,-4.1024,-5.2910,-3.6303,-1.9353,-1.2549,-2.4681,4.2772,6.1273,6.6907,8.4272,7.3800,-0.0843,7.5168,6.2085,8.1793,6.0668,-0.4826
707.0312,9.2958,-0.8385,-3.1889,-5.2567,-3.5998,-0.1510,2.5997,-1.8024,4.0994,6.0552,5.9368,6.2095,4.6011,-1.0237,7.3697,1.7757,5.1876,4.2511,-1.7206
710.9375,10.4294,0.8621,-1.7904,-4.9006,-3.4637,1.4835,4.5893,-1.5582,4.3686,7.6312,5.3671,3.6088,1.4695,-2.1239,7.2651,-2.4181,1.5864,1.9121,-2.5439
714.8438,10.0405,2.1256,-0.7558,-4.5479,-3.2250,1.7526,2.9767,-1.9217,4.2308,8.2546,4.1680,0.9391,-1.2884,-3.2515,5.5849,-5.6877,-1.9673,-0.3174,-2.6748
718.7500,7.2200,2.3340,-0.4200,-4.2605,-2.8823,0.4170,-2.0013,-2.6801,3.2861,6.4729,2.1200,-1.2384,-2.9566,-4.0658,2.0022,-7.3520,-4.5870,-1.6834,-2.0212
722.6562,3.0830,1.7638,-0.2985,-3.6188,-2.2300,-1.6651,-7.9589,-3.2020,1.9460,2.9953,-0.0530,-2.2184,-2.9691,-4.0345,-2.0635,-6.9137,-5.3921,-1.5227,-0.4951
726.5625,0.1691,1.3687,0.6459,-1.8636,-0.7962,-3.0763,-11.5027,-2.6978,1.2440,0.3267,-0.9708,-1.4336,-1.0689,-2.5899,-4.1358,-4.2802,-3.8589,0.4696,2.0837
730.4688,0.8494,2.1385,3.2640,1.5815,1.8991,-2.7127,-10.0942,-0.6905,2.1805,1.2123,0.5933,1.1864,2.5029,0.5575,-2.1561,0.0925,-0.1489,3.9807,5.7967
734.3750,5.7205,4.4256,7.4837,6.5205,5.8754,-0.4621,-3.5337,2.5754,5.0104,6.8165,4.8525,4.9952,6.8935,5.0895,4.1339,5.2375,4.7808,8.0048,10.2499
738.2812,12.9950,7.6543,12.1101,11.7757,10.3655,2.7121,5.8347,6.0902,8.9439,15.7338,10.6437,8.7513,10.7701,9.9773,12.7583,9.9206,9.4290,11.1150,14.3667
742.1875,19.3020,10.5893,15.3676,15.6081,13.9651,5.3104,14.3046,8.5137,12.4759,24.4518,15.8332,11.1005,12.7714,13.7718,20.3267,13.0132,12.3234,12.0649,16.6688
746.0938,21.4589,12.0024,15.8822,16.5931,15.2748,6.1211,18.6517,8.8831,14.1591,29.0495,18.3068,11.2067,12.1330,15.2178,23.6769,13.8516,12.6706,10.4457,16.0134
750.0000,18.2043,11.3397,13.4867,14.4285,13.6730,4.8476,17.5750,7.1752,13.3614,27.2094,17.0153,9.1827,9.1510,13.8763,21.4357,12.4470,10.7365,6.9997,12.3595
753.9062,10.9170,9.0107,9.3305,10.1485,9.7096,2.2153,12.0236,4.3540,10.5706,19.4544,12.5098,6.0561,5.1532,10.3706,14.6680,9.4703,7.7169,3.3299,7.0059
757.8125,2.9443,6.1570,5.2302,5.5779,4.8265,-0.4469,4.4354,1.8447,7.0985,8.9590,6.6930,3.2623,1.8993,6.0707,6.3150,6.0223,5.1295,1.0997,2.0346
761.7188,-2.0596,4.0622,2.6841,2.3472,0.5526,-1.8744,-2.4914,0.7386,4.3992,0.0562,1.9394,1.9379,0.6866,2.3710,-0.2157,3.2680,4.0395,1.1562,-0.7817
765.6250,-1.8747,3.5442,2.1631,1.0638,-2.3199,-1.4245,-6.7779,1.2012,3.4050,-3.7664,0.0474,2.4044,1.6610,-0.0161,-2.5486,2.0554,4.5450,3.0992,-0.9533
769.5312,3.3512,4.6447,3.0659,1.1199,-4.0625,0.7167,-7.5537,2.4283,4.2233,-1.3731,1.5320,4.1115,3.7491,-1.3335,-0.2109,2.6426,5.8065,5.5686,0.4902
773.4375,11.3698,6.7297,4.2739,1.2003,-5.6617,3.7015,-4.9772,3.1439,6.2786,5.7041,5.5445,6.0336,5.2735,-2.4748,5.4347,4.6267,6.5885,7.0819,1.6623
777.3438,19.0380,8.8842,4.8829,0.1289,-8.0584,6.4187,-0.0069,2.3203,8.7285,14.1815,10.3763,7.2580,4.8985,-4.3220,12.0091,7.1103,5.9853,6.9122,0.9690
781.2500,23.7543,10.3514,4.6453,-2.4653,-11.4851,7.9154,5.8031,-0.3004,10.8721,20.6056,14.2409,7.4210,2.3561,-7.1529,17.1876,9.0507,3.9064,5.4802,-1.9626
785.1562,24.3930,10.7931,3.9259,-6.0051,-15.2961,7.6887,10.5720,-4.1311,12.3440,22.7680,15.9540,6.7801,-1.4547,-10.4685,19.5128,9.6645,1.0614,4.0428,-6.1181
789.0625,21.3766,10.2907,3.3136,-9.3309,-18.3342,5.7838,12.5894,-8.0718,13.0667,20.3261,15.2444,5.9438,-5.0138,-13.2999,18.6728,8.7217,-1.5047,3.8992,-9.7263
792.9688,16.0421,9.1613,3.2158,-11.2858,-19.5424,2.7170,10.9923,-10.9975,13.0868,14.4984,12.6439,5.4647,-7.0089,-14.7564,15.2836,6.6043,-3.0153,5.6115,-11.2446
796.8750,9.8176,7.7489,3.6873,-11.1822,-18.4363,-0.7126,6.2844,-12.1387,12.4532,7.2045,9.1029,5.5440,-6.9563,-14.4666,10.4252,4.1063,-3.3415,8.6925,-10.0960
800.7812,3.7243,6.3129,4.5228,-8.9722,-15.2188,-3.6493,0.2816,-11.2315,11.2228,0.2249,5.5665,5.9818,-5.2968,-12.6852,5.2167,2.0724,-2.9633,11.9002,-6.7966
804.6875,-1.6004,5.0384,5.4593,-5.1538,-10.5840,-5.3877,-4.6431,-8.4822,9.5525,-5.2168,2.7001,6.3501,-2.9983,-10.0767,0.5884,1.0430,-2.5856,13.9161,-2.5263
808.5938,-5.5779,4.0873,6.3107,-0.5519,-5.4189,-5.5310,-6.6739,-4.4569,7.7624,-8.4334,0.8268,6.2533,-0.9731,-7.3659,-2.7684,1.0647,-2.6781,13.9930,1.4975
812.5000,-7.4946,3.5918,6.9709,3.9082,-0.5790,-4.0909,-5.3856,0.0407,6.2704,-9.1091,0.0057,5.5315,0.3335,-5.0640,-4.4043,1.7323,-3.2145,12.2334,4.4681
816.4062,-6.7329,3.5593,7.3501,7.3978,3.2286,-1.5191,-1.7905,4.1179,5.3994,-7.3013,0.1277,4.3220,1.0016,-3.3688,-4.1794,2.4256,-3.7361,9.4120,6.1003
820.3125,-3.3262,3.7612,7.3442,9.3558,5.5256,1.3564,2.4062,7.0007,5.1674,-3.6431,0.9553,2.9851,1.4077,-2.2099,-2.3843,2.6184,-3.6557,6.5151,6.4937
824.2188,1.6147,3.7387,6.8759,9.6156,6.1636,3.5297,5.8313,8.2701,5.2197,0.5291,2.1264,1.9493,1.9201,-1.3532,0.2211,2.1289,-2.5979,4.2824,5.9441
828.1250,6.0801,3.0034,5.9628,8.4293,5.4043,4.1488,8.0799,8.0161,4.9959,3.4715,3.2085,1.5463,2.7111,-0.5082,2.5969,1.2114,-0.5834,2.9717,4.8274
832.0312,8.0456,1.3677,4.7425,6.3533,3.8743,2.8963,9.6007,6.7938,4.0798,3.8137,3.8528,1.8946,3.7425,0.5700,3.8531,0.4594,2.0140,2.4070,3.5476
835.9375,6.6227,-0.7938,3.4318,4.0256,2.3438,0.2375,11.0117,5.3622,2.5335,1.4454,3.9952,2.8647,4.8519,1.9837,3.7250,0.5520,4.6743,2.2133,2.4753
839.8438,2.7330,-2.5754,2.2572,1.9476,1.4039,-2.6518,12.4091,4.3253,0.9839,-2.1297,3.9512,4.1314,5.8389,3.6284,2.7857,1.9295,6.9607,2.0777,1.8437
843.7500,-1.2481,-2.9363,1.4087,0.3761,1.2195,-4.3460,13.1873,3.8717,0.3437,-4.4007,4.2733,5.2902,6.4974,5.2066,2.1778,4.5255,8.6498,1.9018,1.6581
847.6562,-2.8091,-1.3022,1.0223,-0.6456,1.5018,-3.8606,12.4774,3.7556,1.2734,-3.2547,5.3841,5.9855,6.6179,6.3304,2.9293,7.6800,9.7109,1.7899,1.6967
851.5625,-0.8511,1.9679,1.1568,-1.1911,1.7052,-1.2315,9.8517,3.5136,3.6803,1.5914,7.1868,5.9976,6.0045,6.6577,5.2242,10.3104,10.1722,1.9039,1.6240
855.4688,3.4924,5.5687,1.7335,-1.3913,1.3145,2.3720,5.7679,2.7687,6.5785,8.0612,8.9308,5.2598,4.5247,5.9760,8.0957,11.3088,9.9688,2.2757,1.1463
859.3750,7.3361,7.7716,2.4730,-1.4490,0.0519,5.1333,1.4366,1.4339,8.4541,12.5621,9.4972,3.8233,2.1686,4.1943,9.8086,10.0154,8.8773,2.6887,0.1098
863.2812,7.6057,7.2499,2.9163,-1.6627,-2.0734,5.4657,-1.7895,-0.2834,7.9850,11.8367,8.0008,1.8196,-0.9131,1.2966,8.7763,6.5462,6.6028,2.7154,-1.4937
867.1875,2.7794,3.7642,2.5913,-2.3548,-4.8205,2.8226,-3.0972,-2.0315,4.7343,4.7854,4.3634,-0.5390,-4.4002,-2.6318,4.4980,1.7988,3.0042,1.9208,-3.5589
871.0938,-6.2182,-1.6755,1.2832,-3.6754,-7.7690,-2.0155,-2.5497,-3.4865,-0.5745,-6.8200,-0.5197,-2.9284,-7.8095,-7.2556,-2.0551,-2.8923,-1.6449,0.1473,-5.8549
875.0000,-16.4797,-7.2721,-0.7504,-5.3874,-10.3269,-7.3397,-0.9309,-4.4295,-6.3652,-19.1743,-5.1750,-4.9090,-10.5214,-11.8094,-8.8650,-6.2976,-6.5197,-2.2794,-7.9609
878.9062,-24.6271,-11.2736,-2.7948,-6.8204,-11.7635,-11.3716,0.7349,-4.7174,-10.9373,-28.3427,-8.3057,-6.0108,-11.8627,-15.0913,-13.8727,-7.7659,-10.3736,-4.5777,-9.2490
882.8125,-28.4636,-12.7282,-3.9786,-7.1094,-11.3725,-13.0965,1.6680,-4.2291,-13.2122,-32.1261,-9.4537,-5.9126,-11.2895,-15.7891,-15.9763,-7.4030,-11.9551,-5.8137,-9.0404
886.7188,-27.8412,-11.7791,-3.7243,-5.6473,-8.7812,-12.6227,1.5840,-2.8814,-13.1072,-30.8467,-9.1496,-4.6328,-8.6458,-13.0819,-15.4417,-5.8882,-10.5643,-5.3609,-6.9454
890.6250,-24.3490,-9.3964,-2.0813,-2.4953,-4.2588,-10.9178,0.6744,-0.7305,-11.3721,-26.7068,-8.4501,-2.5988,-4.3785,-7.2109,-13.5151,-4.0570,-6.4714,-3.2668,-3.2152
894.5312,-20.1400,-6.7547,0.2859,1.5344,1.2089,-9.1368,-0.5587,1.9261,-9.0372,-22.2289,-8.1558,-0.5011,0.4709,0.3764,-11.5169,-2.4846,-0.9262,-0.2863,1.1700
898.4375,-16.6610,-4.6269,2.4748,5.2312,6.2266,-7.9661,-1.4831,4.5629,-6.8192,-18.7709,-8.2191,1.0383,4.5974,7.5164,-9.9960,-1.2768,4.3258,2.4880,4.8491
902.3438,-14.0106,-3.1072,3.8717,7.6098,9.5876,-7.3470,-1.4934,6.6034,-4.8170,-15.9729,-7.7388,1.8173,7.0035,12.2824,-8.4597,-0.1348,7.8318,4.2245,6.7597
906.2500,-11.2008,-1.7553,4.4946,8.4379,10.8525,-6.6847,-0.1853,7.6820,-2.6278,-12.3542,-5.5649,2.2100,7.5234,13.9019,-5.8224,1.3864,9.1237,4.8378,6.7741
910.1562,-7.0587,-0.0206,4.9247,8.3347,10.5538,-5.3599,2.4307,7.8284,0.2341,-6.5867,-1.1391,2.9906,6.9698,13.0959,-1.2750,3.5828,8.9157,5.0428,5.8605
914.0625,-1.1807,2.3233,5.8577,8.3542,9.8709,-3.2074,5.7610,7.4390,3.8928,1.3901,4.9622,4.8794,6.7352,11.6110,4.9695,6.4111,8.6562,5.9028,5.5844
917.9688,5.6242,4.9761,7.5585,9.2916,9.9383,-0.6817,8.6704,7.0291,7.9067,10.0837,11.1480,8.0439,8.0045,11.1902,11.5240,9.4624,9.6516,8.1086,7.1732
921.8750,11.6404,7.2403,9.5815,11.1334,11.1875,1.3734,9.8463,6.9123,11.4196,17.1443,15.5572,11.8519,10.9999,12.5781,16.3943,12.0880,12.2473,11.4258,10.6860
925.7812,15.1181,8.4006,10.9610,12.9980,13.1101,2.2074,8.4191,7.0110,13.5778,20.6122,17.0084,15.0571,14.7193,15.1362,17.9817,13.6180,15.5474,14.6795,14.8159
929.6875,15.2209,8.1432,10.7793,13.6214,14.5794,1.6154,4.5501,6.9262,13.9757,19.9857,15.6050,16.3589,17.3713,17.2741,15.9731,13.5992,17.8590,16.3356,17.5009
933.5938,12.5034,6.7719,8.7698,12.1130,14.5284,0.0938,-0.3810,6.2255,12.8736,16.4836,12.6375,15.0556,17.3064,17.4153,11.6029,11.9755,17.6221,15.3659,17.0331
937.5000,8.6147,5.0758,5.5727,8.5419,12.5840,-1.4148,-4.2237,4.7658,11.0488,12.3337,9.8328,11.4341,13.9365,14.9180,7.0815,9.1366,14.3021,11.8831,13.0391
941.4062,5.3544,3.8929,2.4599,4.0082,9.3022,-2.0682,-5.0381,2.8397,9.3457,9.4801,8.3816,6.6719,8.1227,10.4354,4.4450,5.7950,8.7350,7.1481,6.7714
945.3125,3.6166,3.6027,0.6724,0.1573,5.9011,-1.6567,-2.1620,1.0524,8.1810,8.4714,8.3098,2.2966,1.8103,5.5660,4.4380,2.7240,2.7405,2.9258,0.5432
949.2188,2.8934,3.8679,0.7571,-1.5952,3.6751,-0.7803,3.2308,0.0131,7.3175,8.2313,8.5676,-0.5034,-2.8817,2.0514,6.0938,0.4704,-1.7607,0.5683,-3.3668
953.1250,1.7274,3.8377,2.3028,-0.7050,3.4228,-0.5000,8.4934,0.0366,6.0866,6.9259,7.7965,-1.3457,-4.6143,0.9963,7.3292,-0.8078,-3.6210,0.3738,-3.7397
957.0312,-1.0796,2.7508,4.2370,2.3174,5.1621,-1.6104,10.7330,1.0332,3.9699,3.4550,5.3232,-0.6656,-3.3304,2.4959,6.2887,-1.2874,-2.8671,1.5939,-0.8516
960.9375,-5.2590,0.5901,5.4994,6.2338,8.2164,-3.9570,8.3343,2.6256,1.1817,-1.3820,1.7727,0.6837,-0.0978,5.7750,2.6646,-1.2494,-0.4755,3.0429,3.8339
964.8438,-8.7493,-1.6648,5.6713,9.6921,11.5550,-6.2773,1.9600,4.3790,-1.1698,-4.9090,-1.1175,1.9611,3.5371,9.6556,-1.8644,-0.8391,2.2672,3.8855,8.4559
968.7500,-8.6638,-2.4484,5.1682,11.7759,14.1859,-6.7767,-5.5930,5.9734,-1.5577,-3.9796,-1.4381,2.8666,6.2805,13.0558,-4.4698,0.0024,4.4030,4.0777,11.5620
972.6562,-3.1202,-0.5355,4.8768,12.2293,15.4405,-4.1934,-10.7082,7.2201,1.0390,2.9513,1.7000,3.4959,7.5324,15.2961,-2.8941,1.3720,5.5997,4.1959,12.5425
976.5625,7.1802,4.0474,5.4782,11.3198,15.0932,1.2645,-10.7866,7.9620,6.2950,14.3673,7.4268,4.0159,7.3930,16.1593,2.9643,3.1255,6.0301,4.8148,11.5857
980.4688,18.7356,9.7286,6.9039,9.5126,13.3462,7.7397,-5.6111,7.9931,12.3542,25.9017,13.3132,4.3393,6.3587,15.7887,10.6502,4.7234,6.0233,5.9074,9.3233
984.3750,26.7407,13.9984,8.2879,7.1973,10.7290,12.5197,2.5378,7.1075,16.5362,32.3326,16.4784,4.0645,4.9629,14.5404,16.3179,5.3803,5.7768,6.7131,6.4455
988.2812,27.5593,14.6501,8.4570,4.6103,7.9410,13.4240,10.0898,5.2655,16.6323,30.3379,15.0390,2.7401,3.5655,12.8530,16.8672,4.4908,5.3038,6.1842,3.4796
992.1875,20.7397,10.9667,6.6475,1.9215,5.6458,9.9912,14.0227,2.7416,12.0882,20.4201,9.1112,0.2664,2.3329,11.1360,11.7832,2.0808,4.5826,3.7068,0.7558
996.0938,9.3381,4.1536,2.9910,-0.6594,4.2487,3.7503,13.2705,0.1051,4.3814,6.8144,0.8106,-2.8700,1.3157,9.6628,3.5291,-1.0315,3.7237,-0.4069,-1.5466
1000.0000,-1.6786,-3.2483,-1.5344,-2.8873,3.7338,-2.5992,8.9351,-2.0034,-3.6506,-4.6317,-6.7539,-5.7298,0.5060,8.4840,-3.7897,-3.5347,2.9851,-4.9980,-3.3747
1003.9062,-8.0108,-8.6290,-5.6356,-4.5984,3.6542,-6.6163,3.2928,-3.1814,-9.1709,-9.4081,-10.9391,-7.3734,-0.1654,7.4120,-6.7007,-4.2625,2.6101,-8.6674,-4.8138
1007.8125,-8.0784,-10.5281,-8.3635,-5.8222,3.3234,-7.3130,-1.6620,-3.4563,-10.6423,-6.4592,-10.7105,-7.3578,-0.8452,6.1142,-4.2116,-2.8199,2.6205,-10.5042,-6.0668
1011.7188,-3.4408,-9.1505,-9.4840,-6.7595,2.1524,-5.4535,-5.1671,-3.2240,-8.3819,1.6350,-6.9193,-5.9665,-1.7164,4.2943,1.8414,0.1726,2.7367,-10.4727,-7.3424
1015.6250,2.4661,-5.9865,-9.3766,-7.6048,-0.0259,-2.8773,-7.5919,-2.9707,-4.1579,10.3276,-1.6771,-4.0326,-2.8930,1.8776,8.0485,3.3696,2.5063,-9.2495,-8.6825
1019.5312,6.3358,-2.8748,-8.6086,-8.3389,-2.8231,-1.3510,-9.5217,-2.9673,-0.1639,15.5020,2.7371,-2.4800,-4.3206,-0.9080,11.4094,5.3647,1.5617,-7.6882,-9.8508
1023.4375,6.5131,-1.1055,-7.5379,-8.6675,-5.4464,-1.6688,-10.8422,-3.1442,2.0069,15.2367,4.8340,-1.8748,-5.7746,-3.6105,10.8162,5.3546,-0.1645,-6.3189,-10.4033
1027.3438,3.3248,-1.0175,-6.2227,-8.1920,-7.0697,-3.4603,-10.5982,-3.2189,1.8820,10.1789,4.3224,-2.2464,-6.9791,-5.7565,7.2597,3.4541,-2.4030,-5.2130,-9.9453
1031.2500,-1.6209,-2.1536,-4.6432,-6.7157,-7.2279,-5.6542,-7.7784,-2.9630,0.0064,2.7003,1.9285,-3.2284,-7.7691,-7.0628,2.8690,0.5368,-4.6966,-4.2287,-8.4307
1035.1562,-6.4365,-3.6997,-2.9770,-4.4662,-6.0121,-7.1670,-2.4260,-2.3945,-2.5380,-4.3765,-1.1129,-4.3587,-8.1643,-7.5314,-0.4099,-2.2517,-6.6099,-3.3575,-6.2867
1039.0625,-9.5870,-4.8639,-1.6339,-2.0415,-3.9607,-7.3567,3.8355,-1.7469,-4.6257,-8.7382,-3.5675,-5.2984,-8.2776,-7.3698,-1.6391,-4.0064,-7.8529,-2.8360,-4.2344
1042.9688,-10.0024,-5.0347,-0.9684,-0.0788,-1.7195,-6.0729,8.4011,-1.2452,-5.3800,-8.9833,-4.5230,-5.8407,-8.1091,-6.7855,-0.8763,-4.3481,-8.2581,-2.9067,-2.8698
1046.8750,-7.0039,-3.7971,-0.8852,1.1482,0.3181,-3.4619,9.1350,-0.8739,-4.2785,-4.6932,-3.5200,-5.7735,-7.3834,-5.7870,1.3727,-3.4028,-7.6771,-3.4279,-2.2524
1050.7812,-0.4269,-0.9763,-0.6913,1.9250,2.1754,0.1931,5.7423,-0.3329,-1.2080,3.5305,-0.5827,-4.7839,-5.5850,-4.1233,4.6490,-1.5781,-5.9297,-3.6918,-1.7817
1054.6875,9.0304,3.2313,0.5996,2.9301,4.1825,4.4602,0.1079,0.7666,3.4626,14.0399,3.7988,-2.5458,-2.2222,-1.4146,8.6145,0.6875,-2.8841,-2.6844,-0.4805
1058.5938,19.6029,8.1541,3.6378,4.7951,6.6835,8.6762,-4.6899,2.6005,8.8645,24.3845,8.7624,1.0330,2.8177,2.5928,12.8034,3.0767,1.3706,0.3103,2.4437
1062.5000,28.8053,12.7449,8.1882,7.6689,9.7633,12.0032,-6.0989,4.9445,13.7997,32.0196,13.2886,5.5839,9.0427,7.7891,16.4480,5.4234,6.3986,5.1405,7.0790
1066.4062,34.3554,15.9373,13.0632,11.0631,13.1505,13.7106,-3.4597,7.2414,17.1273,35.3002,16.5044,10.2689,15.4250,13.6196,18.6696,7.6665,11.4611,10.6507,12.6355
1070.3125,35.1992,17.0964,16.6430,14.0656,16.3237,13.5437,1.8166,8.8773,18.2094,34.2090,17.9512,14.0445,20.7448,19.1998,18.9522,9.7807,15.7418,15.1231,17.7248
1074.2188,31.9860,16.2895,17.6965,15.7746,18.7062,11.9052,7.2883,9.4744,17.1603,30.2927,17.6757,16.0674,24.0255,23.5643,17.5144,11.7054,18.6309,17.0652,20.9349
1078.1250,26.6551,14.1906,16.0052,15.6826,19.8131,9.6762,10.9745,9.0067,14.7288,25.7539,16.0994,16.0104,24.8235,25.9211,15.2372,13.2776,19.8948,15.9028,21.3895
1082.0312,21.3884,11.6772,12.4180,13.8105,19.2945,7.7584,12.3008,7.6932,11.8786,22.2426,13.7650,14.1237,23.2471,25.8143,13.1575,14.1939,19.6385,12.1996,19.0220
1085.9375,17.6046,9.3877,8.3344,10.5861,16.9421,6.6321,11.9645,5.7911,9.3319,20.1378,11.1358,11.0483,19.7618,23.1772,11.8917,14.0532,18.1129,7.3287,14.4897
1089.8438,15.6008,7.5237,4.9686,6.6174,12.7625,6.2221,10.9887,3.4763,7.3596,18.7767,8.5624,7.5353,14.9628,18.3270,11.4160,12.5188,15.5322,2.8310,8.8585
1093.7500,14.9455,5.9910,2.8540,2.5291,7.1361,6.1372,9.7753,0.9009,5.9155,17.4008,6.3866,4.2439,9.4733,11.9491,11.3372,9.5585,12.0470,-0.1733,3.2648
1097.6562,15.1876,4.7193,1.8340,-1.0860,0.9432,6.0800,7.8881,-1.6481,4.9548,16.0502,5.0310,1.6829,3.9849,5.0556,11.3876,5.6355,7.8873,-1.2600,-1.3079
1101.5625,16.2709,3.8815,1.4394,-3.6818,-4.5285,6.1073,4.6779,-3.6736,4.6532,15.6771,4.9284,0.2267,-0.6964,-1.1530,11.7009,1.6913,3.5360,-0.6365,-4.1423
1105.4688,18.3503,3.8274,1.3202,-4.8472,-7.9825,6.5516,0.1991,-4.6048,5.3317,17.3490,6.2826,0.0926,-3.7526,-5.5731,12.6160,-1.1527,-0.2559,1.1111,-4.8725
1109.3750,21.2343,4.7872,1.4259,-4.4745,-8.6837,7.6801,-4.3599,-4.1043,7.1376,21.1304,8.8174,1.2393,-4.6416,-7.5721,14.1758,-2.0784,-2.7019,3.2802,-3.5875
1113.2812,24.0076,6.5882,1.8812,-2.8854,-6.8797,9.3678,-7.1284,-2.3349,9.7459,25.5396,11.7319,3.2756,-3.4141,-7.2698,15.7753,-0.9911,-3.3586,5.2420,-0.8867
1117.1875,25.2688,8.6363,2.7486,-0.7573,-3.7586,11.0512,-6.6182,0.0323,12.3585,28.1142,13.9825,5.5167,-0.8137,-5.5195,16.3451,1.3890,-2.4068,6.5830,2.2386
1121.0938,23.9409,10.2210,3.9320,1.1917,-0.8720,12.0242,-2.6621,2.1353,14.0814,26.8526,14.8001,7.2519,1.9981,-3.5135,15.0505,3.8757,-0.6098,7.2307,4.7586
1125.0000,20.1423,10.9619,5.3129,2.6086,0.7074,11.8891,3.4268,3.3979,14.4787,21.6444,14.1675,8.1160,4.0108,-2.1620,12.0559,5.4559,1.0867,7.5271,6.0827
1128.9062,15.4852,11.0938,6.9688,3.7390,1.0068,10.8616,9.5810,3.8696,13.9382,14.7299,12.9551,8.3385,4.9250,-1.5800,8.7733,5.8681,2.1058,8.1512,6.4027
1132.8125,12.4923,11.3680,9.2188,5.2913,1.1512,9.7159,14.0825,4.1921,13.5600,9.7900,12.5634,8.6666,5.3467,-1.0069,7.3040,5.7595,2.6064,9.8271,6.6505
1136.7188,13.3627,12.5927,12.3627,7.9601,2.6850,9.3822,16.3146,5.1855,14.5583,10.0885,14.1964,9.9459,6.4496,0.7432,9.3036,6.2838,3.4073,12.8933,8.0111
1140.6250,18.7333,15.0640,16.2472,11.8723,6.5850,10.4133,16.7281,7.2904,17.4779,16.6632,18.1130,12.5659,9.2532,4.5206,14.9056,8.3384,5.4732,16.9499,11.2053
1144.5312,27.1119,18.2282,19.9907,16.3011,12.5372,12.6110,16.1658,10.2028,21.6801,27.5503,23.2652,16.0973,13.9174,10.2021,22.3572,11.8833,9.2431,20.8248,15.9358
1148.4375,35.3145,20.7957,22.1568,19.8528,18.9162,15.0154,15.1138,12.9303,25.4374,38.4705,27.5689,19.3597,19.4701,16.5638,28.6347,15.7759,14.2046,22.9599,20.8393
1152.3438,39.7282,21.2842,21.3872,21.0610,23.5001,16.2717,13.4332,14.2491,26.6531,44.6439,28.7428,20.9211,24.1498,21.7654,30.7620,18.2688,18.9890,22.0776,24.0239
1156.2500,37.8212,18.7251,17.1704,19.0793,24.5305,15.2101,10.7031,13.3135,23.8690,42.8569,25.3449,19.7753,26.1949,24.1913,27.1718,17.9206,21.9658,17.8060,23.9406
1160.1562,29.2202,13.1751,10.2734,14.1078,21.5436,11.3790,6.8332,10.0873,17.0412,32.8182,17.5022,15.8356,24.6610,23.1877,18.4287,14.3986,22.0158,10.9311,20.1402
1164.0625,15.8818,5.7604,2.5220,7.3367,15.5444,5.2902,2.4144,5.3753,7.6630,17.2150,6.9498,9.9806,19.8379,19.3033,6.9726,8.6954,19.0582,3.1259,13.5201
1167.9688,1.2933,-1.7784,-4.0065,0.4446,8.4779,-1.7418,-1.4914,0.4570,-1.8538,0.4974,-3.6702,3.6369,13.0677,13.9362,-3.9666,2.6166,14.0479,-3.7265,5.9295
1171.8750,-10.9352,-7.8238,-7.9505,-5.0888,2.3139,-8.1059,-3.9795,-3.4781,-9.2326,-13.0093,-11.9176,-1.8720,6.0900,8.6187,-11.7419,-2.1616,8.4639,-8.2904,-0.6605
1175.7812,-18.4625,-11.5341,-9.2577,-8.5354,-1.7760,-12.5261,-4.8834,-5.8122,-13.2841,-20.7923,-16.5222,-5.8676,0.2717,4.3385,-15.2990,-4.9097,3.5915,-10.2623,-5.0108
1179.6875,-20.9834,-13.0878,-9.0796,-10.1040,-3.7793,-14.5310,-4.8813,-6.6822,-14.2760,-22.8930,-17.7388,-8.4866,-3.8982,1.2294,-15.3776,-6.0645,-0.0076,-10.3728,-7.0823
1183.5938,-20.0535,-13.4125,-9.0453,-10.7138,-4.6456,-14.5414,-5.0478,-6.8123,-13.5624,-21.4386,-16.9507,-10.4261,-6.8386,-1.2773,-13.8721,-6.7563,-2.5788,-9.9320,-7.9178
1187.5000,-18.1143,-13.5646,-10.3378,-11.4859,-5.7009,-13.5467,-6.1608,-7.1038,-12.7178,-19.2935,-15.7918,-12.4332,-9.4735,-3.9952,-12.7305,-7.9797,-4.8249,-10.1502,-9.0235
1191.4062,-17.2471,-14.1124,-13.0730,-13.1868,-7.9778,-12.5531,-8.2272,-8.1863,-12.6779,-18.5859,-15.2965,-14.8228,-12.6351,-7.4913,-12.9821,-9.9464,-7.3684,-11.5470,-11.5593
1195.3125,-18.2979,-14.8644,-16.2849,-15.8551,-11.7429,-12.1072,-10.5120,-10.1272,-13.3517,-19.8798,-15.5225,-17.2721,-16.5679,-11.7892,-14.3899,-12.0107,-10.3432,-13.7096,-15.7174
1199.2188,-20.7759,-15.0794,-18.4643,-18.7594,-16.3768,-12.1425,-12.0030,-12.4107,-13.8734,-22.3496,-15.7803,-18.9813,-20.7494,-16.3537,-15.8599,-13.1664,-13.3177,-15.4952,-20.5672
1203.1250,-23.4726,-14.0124,-18.3231,-20.6992,-20.6147,-12.1944,-11.9745,-14.1726,-13.2822,-24.7079,-15.2403,-19.0994,-24.0871,-20.3030,-16.3077,-12.7473,-15.5425,-15.5879,-24.4321
1207.0312,-25.3400,-11.4563,-15.3895,-20.5226,-23.0334,-11.8107,-10.3034,-14.5732,-11.1953,-26.2075,-13.5073,-17.1924,-25.3900,-22.7257,-15.4287,-10.8598,-16.3484,-13.1643,-25.6303
1210.9375,-26.0696,-7.9585,-10.1884,-17.6446,-22.6008,-10.8795,-7.4117,-13.1428,-8.0827,-27.0524,-10.8433,-13.5187,-23.9077,-22.9816,-13.8929,-8.2926,-15.4694,-8.3750,-23.2503
1214.8438,-26.0632,-4.5895,-3.9980,-12.3438,-19.0859,-9.6781,-3.9718,-9.9584,-5.0218,-28.0022,-7.9800,-8.9808,-19.7067,-20.9032,-12.8608,-6.0132,-13.1475,-2.4124,-17.6150
1218.7500,-25.9167,-2.4116,1.6400,-5.7078,-13.1706,-8.6459,-0.6194,-5.5952,-3.1236,-29.5283,-5.7158,-4.7777,-13.7117,-16.8512,-13.1515,-4.6192,-10.0018,2.8955,-10.2156
1222.6562,-25.8403,-1.9557,5.4346,0.7470,-6.2144,-8.0619,2.1668,-0.8985,-2.9770,-31.1834,-4.5573,-1.9173,-7.3774,-11.6124,-14.6186,-4.0945,-6.7565,5.8148,-3.1293
1226.5625,-25.4281,-2.9849,6.7185,5.6162,0.2330,-7.8500,4.0466,3.3056,-4.3974,-31.6695,-4.5641,-0.8035,-2.1139,-6.1683,-16.1423,-3.9672,-3.9593,5.4525,1.8257
1230.4688,-23.8991,-4.6371,5.6056,8.0759,4.9641,-7.6218,4.7984,6.4355,-6.5531,-29.5689,-5.3808,-1.0767,1.2807,-1.4049,-16.2422,-3.6827,-1.8002,2.1800,3.8164
1234.3750,-20.5894,-5.8327,2.9229,8.0954,7.4582,-6.9000,4.3908,8.2381,-8.3393,-24.2269,-6.3579,-1.7770,2.9083,2.1280,-13.9120,-2.8988,-0.0955,-2.4764,3.2651
1238.2812,-15.3378,-5.7196,-0.0654,6.3362,7.9073,-5.3635,3.1009,8.7400,-8.7902,-16.1757,-6.6998,-1.7636,3.6226,4.3156,-9.1556,-1.5335,1.5633,-6.4544,1.5404
1242.1875,-8.5449,-3.9645,-2.0869,3.8170,6.9531,-2.9800,1.5279,8.1317,-7.3769,-6.8432,-5.6568,-0.2231,4.5027,5.3991,-2.9304,0.3720,3.5457,-8.0197,0.2273
1246.0938,-0.9632,-0.8188,-2.3260,1.5091,5.3123,0.0022,0.3988,6.6668,-4.1407,2.1966,-2.7908,2.9455,6.2131,5.7692,3.3987,2.7711,5.9169,-6.4891,0.3423
1250.0000,6.5467,3.0054,-0.7525,0.0216,3.4950,3.1396,0.2191,4.6182,0.3207,9.8804,1.7465,7.0387,8.5957,5.7449,8.6995,5.5681,8.3043,-2.4862,1.8825
1253.9062,13.1073,6.5659,1.8566,-0.5269,1.7373,5.8807,0.9763,2.2809,4.9981,15.8071,7.0954,10.8102,10.7291,5.4493,12.4248,8.4622,9.9990,2.3832,3.9224
1257.8125,17.7944,8.9629,4.2550,-0.4425,0.1178,7.6443,2.1070,-0.0241,8.7452,19.9059,11.8945,12.9956,11.4352,4.8325,14.5605,10.8785,10.2867,6.2735,5.1827
1261.7188,19.6870,9.6026,5.2970,-0.2524,-1.2811,7.9297,2.7889,-1.9860,10.6473,22.0282,14.8118,12.8802,9.9601,3.8047,15.3514,12.1470,8.8613,7.9085,4.7523
1265.6250,18.1557,8.3937,4.4667,-0.4576,-2.3078,6.4850,2.3934,-3.3791,10.3707,21.8832,15.1626,10.6442,6.4401,2.3826,15.0869,11.8774,6.0886,7.0818,2.5749
1269.5312,13.3111,5.7977,2.0905,-1.3297,-2.8178,3.4807,0.8232,-4.1413,8.3220,19.4010,13.2581,7.2962,1.8842,0.7509,14.0878,10.2785,2.9283,4.6320,-0.5506
1273.4375,6.3016,2.6760,-0.8800,-2.8187,-2.8201,-0.4309,-1.4756,-4.4009,5.4922,15.1870,10.2418,4.1982,-2.3243,-0.8046,12.7955,8.1441,0.5001,1.9380,-3.4311
1277.3438,-0.8616,-0.0375,-3.3812,-4.5949,-2.5634,-4.2709,-3.8157,-4.4256,3.0184,10.5966,7.4807,2.3995,-5.1209,-2.0516,11.7538,6.4434,-0.4956,0.2088,-5.1273
1281.2500,-6.0097,-1.7038,-4.7474,-6.1971,-2.4710,-7.0818,-5.6673,-4.5068,1.6702,7.2277,5.8676,2.1262,-6.2540,-2.9588,11.3890,5.7480,-0.1707,-0.0694,-5.4229
1285.1562,-7.7331,-2.2001,-4.9332,-7.2196,-2.9416,-8.3099,-6.8829,-4.8361,1.5463,6.1032,5.4584,2.7121,-6.3067,-3.7380,11.7224,5.8830,0.6011,0.7340,-4.8640
1289.0625,-5.9876,-1.8731,-4.3591,-7.4573,-4.1306,-8.0093,-7.6174,-5.4332,2.1523,7.1164,5.6484,3.0309,-6.2593,-4.7366,12.2904,6.0693,0.6850,1.7160,-4.3709
1292.9688,-2.0051,-1.2535,-3.5341,-6.9556,-5.8480,-6.7424,-8.0423,-6.1613,2.8061,9.1778,5.7322,2.1971,-6.8680,-6.2237,12.4287,5.4891,-0.6369,2.0119,-4.6662
1296.8750,2.4612,-0.7102,-2.7274,-5.9566,-7.6362,-5.2296,-8.1025,-6.8120,3.1073,11.0152,5.4485,0.1378,-8.2288,-8.1788,11.7943,3.9072,-3.2051,1.2908,-5.8538
1300.7812,6.1082,-0.2581,-1.8943,-4.7792,-8.9828,-3.9558,-7.5208,-7.2058,3.1728,12.0867,5.1455,-2.3088,-9.7554,-10.2063,10.7530,1.9219,-6.0186,-0.0852,-7.3721
1304.6875,8.6856,0.3748,-0.8524,-3.6864,-9.5334,-2.9615,-6.0545,-7.2455,3.5029,12.9552,5.4857,-3.8350,-10.5379,-11.6341,10.2917,0.6657,-7.7419,-1.2984,-8.3166
1308.5938,10.8941,1.4888,0.4780,-2.7810,-9.1775,-1.9243,-3.7951,-6.8931,4.5891,14.8360,6.9325,-3.3901,-9.8292,-11.7618,11.4316,1.1441,-7.3807,-1.5414,-7.9091
1312.5000,13.7109,3.1651,1.9820,-1.9533,-7.9641,-0.4501,-1.2454,-6.0932,6.5484,18.6309,9.3914,-0.7624,-7.3645,-10.1308,14.5020,3.6403,-4.7302,-0.4290,-5.8357
1316.4062,17.6340,5.2085,3.4782,-0.8921,-5.9249,1.6316,0.9375,-4.7099,9.0351,24.1460,12.2480,3.3218,-3.3712,-6.6830,18.7954,7.5543,-0.3697,1.8673,-2.2868
1320.3125,22.3621,7.3185,4.9426,0.8294,-2.9479,4.1569,2.3864,-2.5398,11.4848,30.0865,14.7533,7.6234,1.6581,-1.7348,22.9028,11.7458,4.7330,4.8007,2.2594
1324.2188,27.0899,9.3527,6.6144,3.5936,1.1841,6.7532,3.3312,0.5801,13.5122,34.8737,16.4807,11.0630,7.2217,4.1931,25.5623,15.1280,9.7133,7.7948,7.3161
1328.1250,31.1557,11.4746,8.8599,7.5450,6.5880,9.0915,4.5009,4.6208,15.1844,37.7295,17.5548,13.2374,12.9190,10.5720,26.4686,17.1344,14.0953,10.5233,12.5356
1332.0312,34.5349,14.0568,11.8701,12.4459,13.0358,11.0811,6.6234,9.2613,16.9788,39.2497,18.5323,14.4992,18.3983,16.9711,26.4735,17.8230,17.7591,12.9760,17.6670
1335.9375,37.7964,17.3864,15.4211,17.6764,19.8457,12.8751,9.8306,13.9198,19.4501,41.0146,20.0423,15.6129,23.2685,23.0354,27.0056,17.6507,20.7172,15.3212,22.4256
1339.8438,41.5436,21.3709,18.9041,22.4197,26.0204,14.6946,13.3962,17.9267,22.8245,44.4472,22.4235,17.2478,27.1226,28.3964,29.0723,17.1510,22.9346,17.7090,26.4358
1343.7500,45.7553,25.4544,21.6410,25.9662,30.5885,16.6069,16.0468,20.7625,26.7828,49.6747,25.5541,19.6259,29.6968,32.6227,32.5179,16.7381,24.3409,20.1651,29.3295
1347.6562,49.5393,28.8292,23.2799,27.9807,32.9702,18.4244,16.7112,22.2371,30.5731,55.1914,28.9266,22.4910,31.0417,35.2756,36.0532,16.6941,24.9854,22.6180,30.9270
1351.5625,51.5423,30.8323,23.9870,28.5755,33.1593,19.8033,15.2429,22.5152,33.3854,58.6172,31.8854,25.3334,31.5282,36.0465,38.0617,17.2270,25.1453,24.9846,31.3387
1355.4688,50.7944,31.2931,24.2827,28.1444,31.6224,20.4817,12.6241,21.9806,34.7650,58.1254,33.8896,27.6681,31.6234,34.8857,37.6518,18.4574,25.2352,27.1929,30.8747
1359.3750,47.4347,30.6183,24.6252,27.0668,28.9945,20.4932,10.4682,21.0244,34.8282,53.6464,34.6968,29.1881,31.5588,32.0365,35.2540,20.3057,25.5374,29.1051,29.8107
1363.2812,42.8112,29.5604,25.0407,25.4870,25.7743,20.2024,10.1005,19.8794,34.1652,47.0713,34.4229,29.7647,31.1360,27.9607,32.3643,22.3981,25.9550,30.4206,28.1955
1367.1875,38.8379,28.8045,25.0783,23.3216,22.2034,20.1195,11.7919,18.5792,33.5017,41.2922,33.4751,29.3875,29.8484,23.2126,30.6057,24.1331,26.0020,30.7004,25.8749
1371.0938,36.9904,28.6186,24.1443,20.4815,18.3684,20.6003,14.6422,17.0357,33.3172,38.6491,32.3854,28.1482,27.2778,18.3377,30.7321,24.9332,25.0866,29.5787,22.7452
1375.0000,37.5655,28.7674,21.9932,17.1280,14.3940,21.6234,17.1835,15.1567,33.6283,39.7154,31.5930,26.2785,23.5007,13.8213,32.2206,24.5382,22.9164,27.0639,19.0465
1378.9062,39.6622,28.7250,19.0259,13.7455,10.5396,22.7942,18.3023,12.9234,34.0368,43.1296,31.2567,24.1501,19.1937,10.0550,33.6886,23.1230,19.7385,23.7135,15.4353
1382.8125,41.8620,28.0411,16.1651,10.9435,7.1068,23.5826,17.8695,10.3988,33.9869,46.5173,31.1851,22.1512,15.3134,7.2757,33.8203,21.1338,16.2280,20.4921,12.7109
1386.7188,43.1278,26.6287,14.3615,9.1105,4.2399,23.6490,16.6809,7.7072,33.0704,47.8834,30.9290,20.4635,12.5310,5.4852,32.1682,18.9454,13.0825,18.3205,11.3347
1390.6250,43.3155,24.7988,14.0417,8.1732,1.8186,23.0459,15.7879,5.0380,31.2083,46.6127,30.0029,18.8902,10.8057,4.4251,29.3175,16.5937,10.6010,17.5511,11.0718
1394.5312,42.9905,23.0357,14.8544,7.6563,-0.4169,22.1620,15.7121,2.6841,28.6330,43.5262,28.1205,16.9101,9.4200,3.6855,26.3636,13.8050,8.5526,17.7089,11.0535
1398.4375,42.7425,21.6719,15.8791,7.0279,-2.5556,21.4421,16.0898,1.0591,25.7211,40.0870,25.3252,14.0016,7.5034,2.9434,24.1193,10.3269,6.4413,17.7162,10.2889
1402.3438,42.5510,20.6825,16.1654,6.1004,-4.2481,21.0705,15.9693,0.6169,22.8075,37.3718,21.9646,10.0850,4.7253,2.2094,22.6261,6.3362,3.9967,16.5232,8.3352
1406.2500,41.7028,19.7344,15.2654,5.1995,-4.7324,20.8361,14.5205,1.6563,20.1056,35.5118,18.5544,5.8005,1.6961,1.9043,21.2889,2.6079,1.5479,13.7932,5.6881
1410.1562,39.3490,18.4565,13.4439,4.9688,-3.2180,20.2779,11.6492,4.0911,17.7596,33.9096,15.6315,2.3978,-0.2228,2.6682,19.4964,0.2750,0.0026,10.2191,3.6022
1414.0625,35.3036,16.7459,11.4680,5.9264,0.5712,19.0238,8.1149,7.3411,15.9528,31.9757,13.6631,1.2272,0.3728,4.9710,17.2413,0.2790,0.4081,7.2390,3.4096
1417.9688,30.4798,14.8987,10.1378,8.0686,6.0436,17.0966,5.1196,10.4574,14.9469,29.7783,12.9996,3.0697,4.1123,8.7457,15.2693,2.8281,3.3409,6.2759,5.7299
1421.8750,26.5898,13.4650,9.8500,10.7828,11.8429,14.9745,3.6898,12.4715,14.9769,28.1062,13.8050,7.6631,10.4028,13.2806,14.6281,7.1954,8.4856,7.9171,10.0448
1425.7812,25.2339,12.9084,10.4304,13.1228,16.3895,13.3506,4.2471,12.8026,16.0443,27.8975,15.9352,13.6899,17.6099,17.4584,15.9229,11.9888,14.6527,11.5004,14.8899
1429.6875,26.9363,13.2804,11.2810,14.2678,18.5644,12.7280,6.5550,11.5019,17.7487,29.4613,18.8264,19.2543,23.7531,20.2207,18.7891,15.7498,20.2288,15.3554,18.5424
1433.5938,30.7430,14.1205,11.7102,13.8852,18.1489,13.1004,9.9310,9.1898,19.3107,32.0719,21.5222,22.6264,27.3247,21.0037,21.9584,17.5578,23.8233,17.5833,19.8106
1437.5000,34.6538,14.6582,11.2524,12.2134,15.7984,13.9204,13.4793,6.7229,19.8367,34.2596,22.9329,22.9092,27.8173,19.9199,23.8992,17.3390,24.7908,16.9718,18.5089
1441.4062,36.6452,14.2137,9.8382,9.8711,12.6212,14.3836,16.2078,4.7852,18.7295,34.6381,22.2762,20.3403,25.7556,17.6275,23.6438,15.7613,23.4037,13.5785,15.4201
1445.3125,35.6995,12.5762,7.7904,7.5544,9.6507,13.8717,17.1172,3.6322,16.0333,32.7474,19.4942,16.1213,22.3048,15.0000,21.3098,13.8209,20.6357,8.7003,11.8403
1449.2188,32.2747,10.1495,5.6893,5.7913,7.4957,12.3057,15.4339,3.1036,12.5097,29.3787,15.3931,11.8741,18.7119,12.7845,18.0204,12.3546,17.6869,4.2604,8.9834
1453.1250,28.0027,7.7831,4.1685,4.8254,6.2801,10.2138,11.0202,2.8421,9.3600,26.1768,11.3681,8.9637,15.8384,11.3796,15.2960,11.7038,15.4698,1.9186,7.5200
1457.0312,24.8215,6.3666,3.6839,4.5932,5.7721,8.4719,4.7292,2.5350,7.6965,24.7511,8.7991,7.9595,13.9287,10.7637,14.2741,11.6453,14.2578,2.3190,7.3919
1460.9375,24.0037,6.3837,4.3018,4.7387,5.5384,7.8455,-1.6491,2.0183,7.9974,25.7909,8.3999,8.4426,12.6282,10.5359,15.1637,11.5688,13.6236,4.8063,7.9057
1464.8438,25.5230,7.6306,5.5861,4.6682,5.0423,8.5544,-6.0213,1.2140,9.8105,28.6308,9.8465,9.2285,11.1954,10.0436,17.1677,10.7922,12.6813,7.7228,8.0261
1468.7500,27.9893,9.2262,6.6738,3.7012,3.7360,10.0706,-6.9730,0.0124,11.8594,31.4430,11.8780,8.9169,8.8320,8.5962,18.8413,8.8714,10.5323,9.1454,6.7783
1472.6562,29.1335,9.9183,6.5761,1.3410,1.2361,11.2565,-4.5463,-1.7497,12.5304,31.9208,12.8269,6.5373,5.0383,5.7534,18.6757,5.7860,6.7265,7.7409,3.6500
1476.5625,26.6519,8.5704,4.6194,-2.4193,-2.4321,10.8052,-0.2943,-4.1574,10.5427,28.1497,11.3301,2.0068,-0.1260,1.5914,15.6587,1.9352,1.5244,3.3645,-1.1381
1480.4688,19.1348,4.6449,0.8205,-6.9402,-6.6737,7.8127,3.4912,-7.0204,5.5173,19.3591,6.9076,-3.8149,-5.9985,-3.2092,9.6414,-2.0438,-4.1783,-2.8666,-6.6329
1484.3750,6.7808,-1.5091,-4.0215,-11.0828,-10.4317,2.2437,4.9489,-9.7826,-1.7990,6.3380,0.1731,-9.5051,-11.5440,-7.5722,1.4411,-5.5408,-9.2396,-9.0635,-11.4766
1488.2812,-8.3818,-8.6904,-8.6088,-13.6506,-12.6004,-4.9248,3.5262,-11.6598,-9.7571,-8.6016,-7.3809,-13.7048,-15.7702,-10.4871,-7.3271,-8.1860,-12.7742,-13.3988,-14.4590
1492.1875,-22.9342,-15.2078,-11.6851,-13.9201,-12.5537,-11.9747,0.0807,-11.9706,-16.3832,-22.1461,-13.9073,-15.6726,-18.1153,-11.4882,-14.6564,-9.8966,-14.4926,-14.8845,-15.0315
1496.0938,-33.1111,-19.4429,-12.5536,-11.9624,-10.4676,-17.0491,-3.7696,-10.4809,-20.0696,-30.9089,-17.8187,-15.4834,-18.5804,-10.8540,-18.7154,-10.7446,-14.6854,-13.7147,-13.5009
1500.0000,-36.1107,-20.3915,-11.2988,-8.5678,-7.2125,-18.8392,-6.5566,-7.5504,-20.0919,-32.5270,-18.2637,-13.7912,-17.5303,-9.3745,-18.4245,-10.7474,-13.8744,-11.0078,-10.7751
1503.9062,-31.1390,-17.9645,-8.6150,-4.8232,-3.8663,-17.0575,-7.5615,-3.9858,-16.7530,-26.5382,-15.3124,-11.3303,-15.3077,-7.8153,-13.8387,-9.7447,-12.3716,-8.1067,-7.8102
1507.8125,-19.7087,-12.9379,-5.3825,-1.6007,-1.1607,-12.4873,-6.8488,-0.6861,-11.1366,-14.6370,-9.8232,-8.4776,-11.9504,-6.4280,-6.1606,-7.4739,-10.0504,-5.8388,-5.0997
1511.7188,-5.0284,-6.6018,-2.2665,0.7428,0.7810,-6.6046,-4.9137,1.7130,-4.6241,-0.1154,-3.0811,-5.1448,-7.2428,-4.8488,2.6600,-3.8135,-6.4997,-4.1597,-2.5317
1515.6250,9.2395,-0.2929,0.4368,2.3199,2.2691,-0.9721,-2.3342,3.0062,1.5799,13.3384,3.6255,-1.0525,-1.0942,-2.4683,10.5960,0.9669,-1.4657,-2.3717,0.3075
1519.5312,20.2664,4.9807,2.6786,3.4172,3.6041,3.2979,0.3222,3.3412,6.7156,22.9646,9.3249,3.8191,6.0216,0.9756,16.2029,6.1448,4.7195,0.2461,3.6127
1523.4375,26.8132,8.6972,4.4272,4.1941,4.7186,5.7840,2.4229,3.0018,10.4767,27.7698,13.4897,8.9219,12.9163,5.0033,18.9914,10.7485,11.0342,3.8102,7.0042
1527.3438,29.1976,10.7741,5.5464,4.5812,5.1763,6.6579,3.3028,2.2170,12.8510,28.5131,15.9881,13.2081,18.0139,8.4932,19.3827,13.9337,16.0991,7.6212,9.6093
1531.2500,28.6528,11.4245,5.8813,4.4099,4.5177,6.3842,2.5679,1.1123,13.9545,26.9336,16.9561,15.5720,20.0296,10.2426,18.3254,15.3157,18.7719,10.5098,10.5496
1535.1562,26.5322,11.0267,5.4615,3.6310,2.6768,5.4318,0.5027,-0.2100,13.9691,24.7106,16.6914,15.4236,18.6198,9.6366,16.8031,15.0708,18.6641,11.5264,9.5136
1539.0625,23.7952,10.0459,4.6192,2.4379,0.1484,4.1411,-1.8076,-1.5703,13.1820,22.7439,15.6075,13.0617,14.6116,7.0045,15.4726,13.7679,16.2857,10.5370,7.0293
1542.9688,20.9327,8.9699,3.8848,1.2031,-2.2257,2.7520,-2.9085,-2.6970,12.0293,21.0772,14.2077,9.6156,9.6565,3.4494,14.5571,12.0609,12.7562,8.3508,4.2439
1546.8750,18.1812,8.2069,3.6947,0.2886,-3.6981,1.4861,-1.8209,-3.3249,11.0356,19.3484,13.0051,6.5606,5.4856,0.2766,13.9536,10.4307,9.2636,6.2953,2.3369
1550.7812,15.7257,7.9490,4.1122,-0.1268,-3.9842,0.5651,1.2297,-3.3350,10.6277,17.3305,12.3597,5.0368,3.1622,-1.6273,13.4127,9.0917,6.5759,5.4965,1.9162
1554.6875,13.6841,8.0698,4.7695,-0.0955,-3.3329,0.1250,4.7463,-2.8292,10.9041,15.1284,12.2878,5.3075,2.7010,-2.1234,12.6520,8.0374,4.8280,6.2851,2.7445
1558.5938,11.8972,8.1452,5.0902,0.1787,-2.3034,0.0868,6.7050,-2.0854,11.5023,12.9085,12.3650,6.6258,3.2005,-1.7413,11.3642,7.1169,3.6278,8.0567,3.9237
1562.5000,9.7422,7.6219,4.6529,0.4678,-1.4403,0.0942,5.6986,-1.4202,11.6751,10.4292,11.8256,7.5845,3.3622,-1.3156,9.1862,6.0706,2.3593,9.6315,4.3992
1566.4062,6.2084,6.0673,3.4540,0.6094,-1.0621,-0.4073,1.7707,-1.0481,10.5771,6.8251,9.8664,6.7991,2.1150,-1.5766,5.7429,4.5520,0.5075,9.8833,3.4904
1570.3125,0.3110,3.3767,1.8994,0.5342,-1.2377,-1.9530,-3.5825,-1.0133,7.6503,0.9430,6.0392,3.6095,-0.9276,-2.8753,0.8199,2.2299,-2.1142,8.2868,1.1889
1574.2188,-8.3117,-0.1659,0.5471,0.2649,-1.8668,-4.7915,-8.2150,-1.2170,2.9355,-7.8731,0.5482,-1.5288,-5.3255,-5.0906,-5.3901,-0.9972,-5.2774,5.1244,-1.8754
1578.1250,-18.9312,-3.9896,-0.2144,-0.0828,-2.7393,-8.6885,-10.4084,-1.4971,-2.8425,-19.0179,-5.7104,-7.1713,-9.9874,-7.6777,-12.1259,-4.7771,-8.3879,1.3032,-4.7292
1582.0312,-29.6872,-7.4326,-0.3400,-0.3079,-3.5345,-12.9024,-9.5784,-1.7043,-8.4725,-30.4271,-11.4122,-11.4949,-13.5753,-9.8182,-18.1396,-8.2690,-10.6598,-2.0764,-6.4482
1585.9375,-38.0806,-9.9361,-0.0677,-0.1799,-3.8366,-16.3729,-6.2892,-1.7427,-12.6722,-39.1962,-15.2784,-13.1256,-14.9974,-10.6660,-22.0689,-10.4275,-11.3925,-4.1753,-6.4920
1589.8438,-41.8471,-11.1677,0.2934,0.4435,-3.2609,-18.0793,-1.7420,-1.5768,-14.5554,-42.7746,-16.5589,-11.7839,-13.8269,-9.6671,-22.9725,-10.5260,-10.2775,-4.7110,-4.8772
1593.7500,-39.8444,-11.0619,0.5551,1.4945,-1.6763,-17.4421,2.8169,-1.2246,-13.9512,-40.1153,-15.3121,-8.4107,-10.4871,-6.8478,-20.7670,-8.6211,-7.5972,-4.0041,-2.1501
1597.6562,-32.5449,-9.7956,0.7031,2.6701,0.6214,-14.5952,6.4197,-0.7439,-11.4269,-32.1492,-12.3445,-4.6874,-6.0940,-2.9057,-16.3124,-5.6256,-4.1760,-2.7892,0.8318
1601.5625,-21.8789,-7.7127,0.8202,3.5651,2.9575,-10.3750,8.4118,-0.2013,-7.9930,-21.3176,-8.8270,-2.1733,-1.9849,1.0225,-11.0528,-2.8649,-1.0442,-1.8681,3.2365
1605.4688,-10.4747,-5.2033,0.9893,3.9137,4.5863,-5.9827,8.4267,0.3764,-4.6225,-10.4298,-5.7519,-1.5081,0.8779,3.8624,-6.3694,-1.3328,1.0499,-1.7332,4.5884
1609.3750,-0.6385,-2.5605,1.2757,3.7876,5.0952,-2.4446,6.4979,1.0466,-1.8209,-1.4818,-3.4929,-2.1075,2.3313,5.1241,-2.9760,-1.0975,2.0157,-2.3058,4.9452
1613.2812,6.4414,0.1273,1.7840,3.5978,4.6401,-0.1335,3.2523,1.9451,0.5289,4.9422,-1.6944,-2.5288,3.0190,5.1276,-0.6907,-1.2591,2.4392,-2.9244,4.8234
1617.1875,10.8866,2.9669,2.6954,3.8599,3.8345,1.3710,-0.0770,3.2025,2.9541,9.4345,0.4312,-1.3135,3.9486,4.7611,1.2887,-0.5294,3.1958,-2.6306,4.8905
1621.0938,13.6496,6.0967,4.1873,4.8470,3.3473,2.9628,-2.0265,4.8067,5.9274,12.9322,3.5333,2.1447,5.8269,4.8931,3.7582,1.8969,4.8584,-0.6663,5.5738
1625.0000,15.6546,9.4288,6.2437,6.3476,3.4723,5.3698,-1.5719,6.4926,9.4107,15.8392,7.5842,7.1785,8.5500,5.7925,6.8895,5.7175,7.2527,3.0382,6.7905
1628.9062,17.0535,12.4522,8.4855,7.6952,3.9527,8.5542,1.2962,7.7516,12.6814,17.6133,11.6864,12.0927,11.1572,6.9294,9.9742,9.5440,9.4455,7.6469,7.9477
1632.8125,17.0278,14.2672,10.1850,8.0741,4.1709,11.5309,5.4995,8.0011,14.5663,17.0177,14.3781,14.9448,12.2966,7.2960,11.6802,11.5820,10.2018,11.6392,8.2185
1636.7188,14.2582,13.9118,10.5333,6.9376,3.5665,12.7723,9.4071,6.8610,13.9825,12.8489,14.3184,14.4542,10.9568,6.0588,10.6910,10.5830,8.6665,13.4218,6.9541
1640.6250,7.8137,10.8658,9.0574,4.3120,2.0067,11.0252,11.6693,4.4053,10.5148,4.7313,11.0098,10.5966,7.0648,3.1406,6.4049,6.5309,4.8885,12.0725,4.0329
1644.5312,-2.0291,5.4729,5.9590,0.8330,-0.1111,6.0994,11.8307,1.2481,4.7362,-6.4161,5.1716,4.6226,1.6264,-0.6231,-0.6439,0.6948,-0.1055,7.8524,-0.0115
1648.4375,-13.5029,-0.9817,2.1556,-2.4855,-2.0533,-0.8344,10.3640,-1.6116,-1.8955,-18.4482,-1.4571,-1.4713,-3.6665,-3.8495,-8.8367,-4.9546,-4.7305,2.2103,-4.1313
1652.3438,-23.8098,-6.6530,-1.0450,-4.6276,-3.0942,-7.6488,8.1737,-3.1455,-7.5307,-28.5799,-6.8132,-5.7600,-7.1640,-5.2841,-15.9818,-8.6361,-7.5396,-2.7668,-7.1195
1656.2500,-30.1733,-9.8547,-2.5017,-4.9321,-2.8155,-12.1927,5.9676,-2.7141,-10.6107,-34.3042,-9.3815,-7.1454,-7.9713,-4.4151,-20.1011,-9.5073,-7.8548,-5.2344,-8.0539
1660.1562,-31.0364,-9.7972,-1.7631,-3.3124,-1.2436,-13.2850,3.9367,-0.3676,-10.4716,-34.3545,-8.8385,-5.7608,-6.3247,-1.7120,-20.2100,-7.9449,-6.0430,-4.4082,-6.6816
1664.0625,-26.8615,-6.9866,0.7061,-0.2895,1.1797,-11.2591,1.9097,3.1128,-7.6349,-29.3622,-6.1750,-2.8817,-3.4752,1.6082,-16.7925,-5.2819,-3.3311,-0.9357,-3.5939
1667.9688,-20.1211,-3.0607,3.7126,3.1625,3.7407,-7.7786,-0.2170,6.4752,-3.6542,-21.8742,-3.2498,-0.3776,-1.1371,4.1444,-11.7366,-3.1649,-1.2556,3.3719,-0.0816
1671.8750,-14.3896,-0.0942,5.8612,5.9286,5.6721,-5.0185,-2.1492,8.4772,-0.5344,-15.5511,-1.9692,0.1014,-0.7318,4.9285,-7.6557,-2.8251,-0.9855,6.3551,2.3439
1675.7812,-12.8432,0.3378,6.1833,7.1536,6.4178,-4.6215,-3.2250,8.4005,0.0976,-13.7008,-3.4375,-2.1103,-2.7423,3.8260,-6.7791,-4.5586,-2.8000,6.5153,2.6191
1679.6875,-16.7931,-2.0887,4.5830,6.5979,5.8866,-6.9328,-2.7774,6.3773,-2.2494,-17.7099,-7.4346,-6.3146,-6.4576,1.5625,-9.8589,-7.6208,-5.9433,3.7483,0.6947
1683.5938,-24.9495,-6.2499,1.8887,4.7819,4.5694,-10.8715,-0.5705,3.3604,-6.6063,-26.1596,-12.4530,-10.6809,-10.2501,-0.6202,-15.6530,-10.5799,-8.9411,-0.5689,-2.3277
1687.5000,-33.8488,-10.0656,-0.5295,2.7950,3.3931,-14.4798,2.9703,0.7183,-10.8848,-35.2256,-16.3153,-13.0553,-12.2993,-1.5297,-21.3636,-11.9933,-10.2699,-4.2229,-4.6485
1691.4062,-39.3459,-11.4797,-1.4146,1.7987,3.2968,-15.8708,6.8500,-0.3829,-12.8176,-40.3469,-17.1398,-12.0108,-11.4520,-0.5650,-23.9417,-11.1077,-9.0938,-5.2606,-4.6616
1695.3125,-38.5079,-9.4727,-0.2464,2.4408,4.7132,-14.1164,9.8414,0.4808,-11.0879,-38.4106,-14.2377,-7.6177,-7.8001,2.0149,-21.6439,-8.2353,-5.7064,-2.9997,-1.8388
1699.2188,-30.9726,-4.5913,2.4816,4.4962,7.2630,-9.6553,10.9003,2.8075,-6.0552,-29.3007,-8.4973,-1.4886,-2.6498,5.2367,-14.9865,-4.5842,-1.4157,1.5846,2.9084
1703.1250,-19.0576,1.3010,5.4935,6.9663,9.9060,-4.0420,9.5224,5.4524,0.3666,-15.9288,-2.0135,3.9874,2.1425,7.9218,-6.4991,-1.5994,2.1200,6.3396,7.6485
1707.0312,-6.5600,5.9501,7.3774,8.6147,11.5200,0.8177,5.9642,7.2366,5.6756,-2.7049,2.9132,6.8538,5.1402,9.3065,0.6407,-0.1613,3.7839,9.0595,10.4437
1710.9375,3.0856,7.8358,7.3175,8.6508,11.5822,3.5468,1.2702,7.5518,8.0870,6.6729,4.9140,6.5833,6.0669,9.4377,4.3197,-0.1071,3.6273,8.6550,10.3896
1714.8438,8.2698,6.8818,5.5098,7.1583,10.5113,3.8451,-2.9629,6.6240,7.4256,10.8369,4.2054,4.2923,5.8812,9.1094,4.5277,-0.3775,2.8442,5.7140,8.0704
1718.7500,9.5229,4.3588,3.0186,5.0080,9.4176,2.4451,-5.1061,5.2944,5.0760,10.9068,2.3661,2.0391,6.1225,9.3619,3.1036,0.2820,3.0645,2.1206,5.1547
1722.6562,8.6391,2.0443,1.1412,3.3086,9.3886,0.5454,-4.1843,4.4615,3.0274,9.2627,1.3392,1.6093,7.9028,10.8264,2.3867,2.4922,5.3517,-0.0572,3.3807
1726.5625,7.2862,1.1440,0.6445,2.7317,10.7593,-0.9261,-0.4342,4.5310,2.6121,7.8578,2.2364,3.4951,11.1462,13.3041,3.6683,5.8020,9.4907,0.2323,3.5477
1730.4688,6.0273,1.6152,1.3211,3.1277,12.8449,-1.7896,4.6078,5.2028,3.7281,7.1851,4.6637,6.6518,14.5399,15.8296,6.4393,8.9164,14.0033,2.4356,5.1130
1734.3750,4.3090,2.2834,2.1291,3.6550,14.3144,-2.5788,8.6517,5.7060,5.0043,6.4360,6.9809,9.1398,16.2332,17.1763,8.8640,10.4378,16.9009,4.7504,6.5967
1738.2812,1.2612,1.6495,1.8311,3.3244,13.9711,-4.0643,9.6571,5.3131,4.7583,4.5163,7.3280,9.2393,14.8716,16.5003,9.0792,9.6442,16.7395,5.1971,6.5013
1742.1875,-3.3854,-1.1312,-0.2516,1.6142,11.4468,-6.6645,6.8087,3.8004,2.0944,1.0354,4.7734,6.3773,10.3643,13.7522,6.3972,6.8300,13.3706,2.7613,4.1685
1746.0938,-8.9482,-5.6951,-3.8093,-1.2088,7.3990,-10.1156,0.9418,1.5819,-2.5442,-3.4448,-0.1199,1.3762,3.9641,9.6567,1.6372,3.0512,7.9804,-2.0451,0.0935
1750.0000,-14.1916,-10.6434,-7.6736,-4.2201,3.1385,-13.5759,-5.8274,-0.5348,-7.6536,-7.9402,-5.6175,-4.0285,-2.3376,5.3323,-3.5174,-0.4877,2.4486,-7.4753,-4.4026
1753.9062,-18.0700,-14.2802,-10.4005,-6.3049,-0.0351,-16.0573,-11.0764,-1.7876,-11.5032,-11.7594,-9.7624,-8.0410,-6.7185,1.8124,-7.5600,-2.9717,-1.5542,-11.4553,-7.8616
1757.8125,-20.1937,-15.4350,-10.9575,-6.6766,-1.3781,-16.8908,-13.1370,-1.8212,-12.9507,-14.7359,-11.3240,-9.5329,-8.2356,-0.2752,-9.8253,-4.1319,-3.2195,-12.5551,-9.3081
1761.7188,-20.7027,-13.9103,-9.1502,-5.1844,-0.8690,-15.9629,-11.7122,-0.7899,-11.7841,-16.8185,-10.2071,-8.3327,-7.0314,-0.7785,-10.4025,-4.0450,-2.7154,-10.5252,-8.5163
1765.6250,-19.7718,-10.3924,-5.6185,-2.3151,0.9746,-13.6497,-7.8078,0.7968,-8.5438,-17.5054,-7.2049,-5.0845,-4.0590,0.0710,-9.5624,-2.8622,-0.8417,-6.2273,-5.9204
1769.5312,-17.2983,-6.0141,-1.4926,1.0360,3.4066,-10.5778,-3.1184,2.3378,-4.1289,-15.8143,-3.4212,-0.9018,-0.5903,1.7710,-7.3306,-0.7487,1.4550,-1.1475,-2.3573
1773.4375,-13.1389,-1.9020,2.0564,3.8714,5.6730,-7.4020,0.7442,3.3528,0.4713,-11.0358,0.1822,2.9603,2.2086,3.6191,-3.6362,1.9307,3.4004,3.1732,1.1723
1777.3438,-7.7259,1.0695,4.1612,5.3625,7.0986,-4.6997,2.8068,3.5733,4.2335,-3.7759,2.8863,5.3521,3.5117,4.8034,1.1062,4.4223,4.4634,5.5523,3.6828
1781.2500,-2.4527,2.3389,4.4229,5.0475,7.1446,-2.9311,2.9052,2.9475,6.1425,3.6429,4.1060,5.4654,2.9300,4.6068,5.5960,5.6908,4.3134,5.3894,4.3955
1785.1562,0.7176,1.6983,2.9409,2.9582,5.5476,-2.3608,1.5271,1.6257,5.4591,8.0331,3.3926,3.1111,0.5765,2.7214,7.9793,4.9038,2.8525,2.7842,2.9953
1789.0625,0.3864,-0.5824,0.2692,-0.3469,2.5172,-2.9063,-0.4990,-0.0511,2.2012,7.1601,0.7116,-1.0564,-2.8828,-0.4819,6.9012,2.0348,0.3632,-1.4172,-0.1354
1792.9688,-3.1085,-3.6406,-2.6952,-3.8968,-1.1708,-4.0245,-2.3161,-1.5995,-2.4979,1.4028,-3.1895,-5.5774,-6.2929,-3.9443,2.6092,-1.8549,-2.3752,-5.7392,-3.9002
1796.8750,-7.4124,-6.1336,-4.9338,-6.5962,-4.3474,-4.8038,-3.2808,-2.5205,-6.5746,-5.9797,-6.7361,-8.6374,-8.3026,-6.2805,-2.7613,-4.9588,-4.2162,-8.4814,-6.8287
1800.7812,-9.2123,-6.7127,-5.6449,-7.6264,-5.8975,-4.3339,-3.1244,-2.4886,-7.8955,-10.4160,-8.0819,-8.8362,-7.8734,-6.3974,-6.1307,-5.6018,-4.0900,-8.3861,-7.7036
1804.6875,-6.1823,-4.7163,-4.5945,-6.7930,-5.2773,-2.2153,-2.0196,-1.5080,-5.4289,-8.6535,-6.1056,-5.9193,-4.8020,-4.0604,-5.2223,-3.1801,-1.5832,-5.3040,-6.1752
1808.5938,1.3519,-0.6922,-2.2955,-4.6285,-2.8121,1.0887,-0.5264,0.0675,-0.0270,-0.8747,-1.2689,-1.0356,0.0421,-0.0839,-0.0579,1.4026,2.6906,-0.4548,-3.0032
1812.5000,10.1775,3.6538,0.1450,-2.1619,0.4203,4.3338,0.6031,1.6857,5.7652,9.0932,4.3070,3.7059,4.9674,3.9910,6.8055,6.1085,7.2152,3.9888,0.2644
1816.4062,15.7322,6.1949,1.5083,-0.4395,3.0798,6.0537,0.7293,2.8433,8.9171,15.7547,7.7719,6.2216,8.1522,6.5893,11.5717,8.7815,10.2051,5.8990,2.0472
1820.3125,14.6513,5.4891,1.0764,-0.0312,4.1737,5.3410,-0.3619,3.2911,7.5346,15.0421,7.0755,5.4875,8.4705,6.8130,11.3495,8.2598,10.4507,4.2979,1.5317
1824.2188,6.8577,1.6475,-0.9460,-0.7800,3.4747,2.4183,-2.2722,3.0928,1.9823,6.7420,2.2293,2.0664,6.0340,4.8173,5.8974,4.9782,7.9252,-0.0483,-0.9136
1828.1250,-4.0889,-3.5735,-3.4530,-1.9266,1.5557,-1.3578,-4.0498,2.5256,-5.1724,-5.1857,-4.4865,-2.1654,2.1580,1.6817,-2.0806,0.7369,3.8184,-4.9240,-3.9297
1832.0312,-12.6938,-7.5839,-4.9429,-2.5377,-0.5433,-4.1157,-4.5286,1.9084,-10.4142,-14.6200,-9.5838,-4.9549,-1.2561,-1.1297,-8.3038,-2.2284,-0.0308,-7.7456,-5.8566
1835.9375,-14.3925,-8.2820,-4.2807,-2.0120,-1.8262,-4.4159,-2.8645,1.4592,-11.0706,-16.5099,-10.1659,-4.7851,-2.6241,-2.4378,-9.2001,-2.3801,-2.0099,-6.8742,-5.5615
1839.8438,-7.9958,-5.1761,-1.3359,-0.3992,-1.7865,-2.0252,0.9400,1.2387,-6.6742,-9.5346,-5.4805,-1.5966,-1.4261,-1.8361,-3.8391,0.3692,-1.4696,-2.4617,-2.9903
1843.7500,3.6553,0.3246,2.8548,1.6222,-0.6038,1.9131,5.7970,1.1689,0.8264,3.2524,2.6394,3.2233,1.5703,0.1990,5.5524,4.6523,1.0310,3.6186,0.8095
1847.6562,15.2028,5.6325,6.5217,3.0868,0.9721,5.4365,9.7986,1.0859,8.0972,16.1074,10.6983,7.5455,4.7135,2.5827,14.7630,8.3735,4.0600,8.7127,4.1859
1851.5625,21.6219,8.3448,8.0154,3.2268,1.9856,6.7837,10.9894,0.8023,12.1246,23.6514,15.3247,9.5270,6.2959,4.1317,19.8107,9.7825,6.0342,10.6984,5.6509
1855.4688,20.8431,7.5128,6.6624,1.8629,1.7367,5.3508,8.3556,0.1837,11.7008,23.6240,14.9606,8.4606,5.3982,4.0807,18.9961,8.3503,5.9623,9.0001,4.5705
1859.3750,14.7152,4.1263,3.1749,-0.4837,0.1384,2.0634,2.5187,-0.7648,7.9359,17.8696,10.5655,5.0636,2.3376,2.3968,13.6967,5.0047,3.8697,4.8153,1.4660
1863.2812,7.8101,0.5431,-0.6366,-2.8086,-2.1996,-1.0696,-4.3291,-1.8403,3.5677,11.0738,4.9983,1.0978,-1.4927,-0.2281,7.4927,1.6073,0.7338,0.4744,-2.2048
1867.1875,4.7690,-0.8293,-2.7467,-4.0723,-4.2286,-2.0199,-9.3534,-2.6792,1.4592,7.9971,1.4500,-1.4794,-4.3063,-2.6931,4.1191,-0.0571,-2.0112,-1.7187,-4.7002
1871.0938,7.6983,1.1213,-1.9608,-3.6725,-4.9645,0.1319,-10.4589,-2.9150,3.0759,10.7711,1.7872,-1.4323,-4.7860,-3.9748,5.3841,0.7590,-3.1537,-0.5919,-4.7911
1875.0000,15.0853,5.5870,1.4352,-1.7192,-3.9935,4.6321,-7.3659,-2.3965,7.7384,17.7763,5.6802,1.1898,-2.6968,-3.5678,10.2207,3.3790,-2.2530,3.3680,-2.3345
1878.9062,22.8258,10.2908,5.8002,1.0239,-1.7015,9.4069,-1.7181,-1.3236,13.0350,24.7275,10.9393,5.1020,1.0458,-1.6815,15.4095,6.1108,0.1890,8.2950,1.6629
1882.8125,26.7342,12.7712,9.0059,3.5112,0.9230,12.1809,3.8880,-0.1792,16.1654,27.3261,14.8194,8.4218,4.8680,0.8985,17.5589,7.2284,3.0038,11.8750,5.5416
1886.7188,25.0401,11.7812,9.5900,4.9221,2.8253,11.7556,7.3841,0.5449,15.4874,23.9111,15.5384,9.5879,7.3211,3.2127,15.1802,5.9700,4.9418,12.4691,7.8099
1890.6250,19.3881,8.0074,7.5483,5.0485,3.4581,8.7124,8.2959,0.6695,11.4181,16.5242,13.1714,8.1170,7.7504,4.5907,9.6178,2.9734,5.2845,9.8852,7.8704
1894.5312,13.7598,3.6981,4.3111,4.3590,3.0542,5.1069,7.7195,0.4754,6.1917,9.7319,9.4617,4.8243,6.5242,4.9384,4.2595,-0.0978,4.1836,5.4336,6.2673
1898.4375,12.0049,1.4140,1.9154,3.7069,2.4318,3.3066,7.2686,0.5455,2.6188,7.9077,6.7219,1.4071,4.7470,4.7143,2.4968,-1.5036,2.5638,1.2552,4.3278
1902.3438,15.5149,2.6245,1.8623,3.8442,2.4597,4.6434,7.7622,1.3774,2.5582,12.6296,6.5064,-0.3864,3.6534,4.6267,5.6865,-0.3745,1.6427,-0.7229,3.4093
1906.2500,22.4686,6.9501,4.3304,5.0169,3.5228,8.6768,8.6123,3.0175,5.9705,21.7852,8.8278,0.4262,4.0205,5.2318,12.3721,2.8977,2.3147,0.3245,4.1849
1910.1562,29.0724,12.4537,8.1846,6.8659,5.3225,13.4956,8.3651,4.9751,11.0635,30.9061,12.3202,3.6601,5.8852,6.6549,19.2304,7.0097,4.7122,3.8188,6.3638
1914.0625,31.9531,16.7538,11.7179,8.6778,7.1179,16.8494,6.0005,6.4951,15.3779,35.8537,15.1567,8.1349,8.6490,8.5647,23.1111,10.5498,8.1547,8.1625,8.9632
1917.9688,30.1503,18.2681,13.6214,9.8156,8.2231,17.3983,2.0087,7.0176,17.1202,35.1437,16.0933,12.2651,11.4381,10.3815,22.8503,12.7116,11.4911,11.5489,10.9179
1921.8750,25.4707,16.8706,13.5758,10.0530,8.4119,15.3272,-1.6179,6.5111,15.9524,30.4899,15.0031,14.7300,13.4846,11.5683,19.7266,13.4938,13.6349,12.7431,11.6282
1925.7812,21.0739,13.6700,12.1561,9.6096,7.9672,12.0132,-2.5714,5.4485,12.8602,25.3499,12.6603,14.9013,14.3443,11.8373,16.3550,13.3543,14.0153,11.4645,11.1343
1929.6875,19.3227,10.1769,10.2206,8.8839,7.3700,9.0485,0.1760,4.4403,9.3272,22.5577,10.0546,12.9108,13.9133,11.1831,14.8505,12.6681,12.7379,8.2825,9.8821
1933.5938,20.3538,7.4625,8.2775,8.0895,6.8790,7.3040,5.4773,3.7855,6.4485,22.6539,7.7835,9.4487,12.3350,9.7792,15.5252,11.4327,10.4246,4.2169,8.3189
1937.5000,22.2609,5.8139,6.2783,7.0623,6.3166,6.6192,10.4861,3.2610,4.5507,23.9413,5.9328,5.4833,9.9139,7.8508,16.9480,9.4271,7.8686,0.3385,6.6338
1941.4062,22.6396,4.9731,3.9271,5.3886,5.2200,6.2180,12.2458,2.3035,3.4404,24.0533,4.4222,2.0257,7.0854,5.6187,17.2023,6.6496,5.7064,-2.4530,4.8042
1945.3125,20.3369,4.6302,1.1929,2.7757,3.2444,5.4507,9.3897,0.4590,2.9280,21.8025,3.4257,-0.0592,4.3913,3.3258,15.3688,3.6323,4.2498,-3.5082,2.8479
1949.2188,16.1879,4.7218,-1.4261,-0.5951,0.5187,4.2805,2.8906,-2.2174,3.1218,17.9861,3.4366,-0.2586,2.3783,1.2677,12.1648,1.3180,3.4977,-2.5183,1.0167
1953.1250,12.3083,5.3224,-3.1276,-4.0038,-2.3185,3.1967,-4.5536,-5.0976,4.2442,14.6633,4.8717,1.3626,1.3972,-0.2584,9.3497,0.5301,3.2461,0.3033,-0.2735
1957.0312,10.5467,6.3010,-3.3662,-6.5004,-4.4508,2.6976,-10.0271,-7.3070,6.1696,13.5501,7.5287,4.0393,1.3930,-1.0978,8.4089,1.3965,3.1974,4.0596,-0.7542
1960.9375,11.2516,7.1251,-2.3161,-7.4183,-5.3697,2.8082,-11.8183,-8.2249,8.1517,14.7717,10.3906,6.4606,1.8438,-1.3798,9.5223,3.1636,3.0316,7.2671,-0.6061
1964.8438,13.2060,7.0784,-0.8496,-6.7629,-5.1802,3.0389,-9.9592,-7.8253,9.0858,16.8815,12.0540,7.2698,1.9621,-1.5142,11.5530,4.5919,2.4717,8.3655,-0.4657
1968.7500,14.7010,5.7982,0.0082,-5.2056,-4.4993,2.8206,-5.7494,-6.6332,8.2233,18.0830,11.5933,5.7503,1.1226,-1.9673,13.0154,4.7275,1.3935,6.5088,-1.0433
1972.6562,14.9097,3.7375,-0.1997,-3.6566,-3.9946,2.0658,-0.7845,-5.3333,5.8597,17.7139,9.3016,2.3431,-0.6910,-2.9017,13.2689,3.5691,-0.0289,2.2224,-2.5564
1976.5625,14.5618,2.1456,-0.9668,-2.6730,-3.8614,1.3974,3.8024,-4.3008,3.4579,16.8972,6.7650,-1.3565,-2.6968,-3.9043,13.0536,2.1875,-1.2400,-2.5418,-4.3678
1980.4688,15.4659,2.4765,-1.0571,-2.0894,-3.6046,1.8333,7.4932,-3.3708,3.0115,17.8905,6.1292,-3.2321,-3.5649,-4.0395,13.9944,2.1795,-1.4052,-5.1488,-5.1435
1984.3750,19.2556,5.5425,0.7395,-1.1351,-2.3160,4.1195,10.0671,-2.0033,5.9636,22.5944,8.9408,-1.6616,-2.0549,-2.2976,17.4424,4.7420,0.2513,-3.5467,-3.5320
1988.2812,26.2398,10.9368,4.7866,1.0051,0.6804,8.1628,11.2556,0.2656,12.3121,31.2343,15.2360,3.5974,2.2538,1.7500,23.4657,9.8861,3.9845,2.5870,0.9842
1992.1875,35.1015,17.1034,10.2258,4.5326,5.2043,12.9512,10.7278,3.3830,20.4440,42.0551,23.4050,11.1406,8.5420,7.4676,30.6552,16.2471,9.1909,11.4759,7.5761
1996.0938,43.5608,22.0303,15.2897,8.7143,10.0405,17.0128,8.4021,6.6471,27.8059,52.1565,30.8994,18.4532,14.9272,13.1975,36.8274,21.6197,14.4501,19.9214,14.2532
2000.0000,49.4934,24.1688,18.1361,12.1492,13.3913,19.1218,4.7775,8.9922,32.0385,58.8718,35.3724,23.0113,19.2236,16.9142,40.1296,23.9632,18.0291,24.7292,18.7162
2003.9062,51.7834,23.0708,17.7410,13.5027,13.7704,18.8287,0.9532,9.5386,31.9698,60.8493,35.6476,23.4051,19.9459,17.2064,39.8624,22.3805,18.6679,24.1640,19.4506
2007.8125,50.4963,19.4466,14.3728,12.2763,10.8503,16.5524,-1.7481,8.0893,27.9976,58.3160,32.0737,19.9335,17.0486,14.0584,36.6097,17.5827,16.2522,18.7019,16.4722
2011.7188,46.4704,14.7039,9.4206,9.1312,5.7551,13.2639,-2.3441,5.2738,21.7659,52.5907,26.2038,14.4020,11.9956,8.9590,31.7482,11.6089,11.9800,10.7306,11.3126
2015.6250,40.7658,10.2926,4.7028,5.5384,0.5737,10.0117,-0.6213,2.2370,15.3943,45.3282,20.0651,9.2561,7.0903,4.2141,26.7440,6.9282,7.8653,3.4004,6.2422
2019.5312,34.3607,7.2006,1.6300,2.9411,-2.6851,7.5511,2.7845,0.0358,10.6669,37.9723,15.3997,6.4937,4.3848,1.7970,22.6486,5.3399,5.7839,-0.7639,3.1465
2023.4375,28.1541,5.7661,0.6332,1.9245,-3.1355,6.1963,6.6400,-0.9220,8.4977,31.5808,13.1537,6.8595,4.7155,2.3501,19.9454,7.1849,6.5420,-0.8363,2.6455
2027.3438,23.0315,5.7538,1.0961,1.8998,-1.4705,5.8471,9.5343,-1.0759,8.7855,26.8500,13.3029,9.6457,7.3484,4.8842,18.6299,11.2289,9.4631,2.3267,3.8978
2031.2500,19.7263,6.5439,1.7746,1.5034,0.4420,6.0882,10.2954,-1.4218,10.5980,24.0836,14.9713,13.1095,10.3956,7.3376,18.3194,15.2596,12.7218,6.6510,5.1505
2035.1562,18.4525,7.3334,1.4683,-0.5188,0.6080,6.3165,8.3156,-2.8875,12.5604,23.0284,16.7594,15.2618,11.7650,7.6774,18.3068,17.0999,14.2515,9.8016,4.7082
2039.0625,18.5837,7.3482,-0.3761,-4.4654,-1.9746,5.9203,3.7612,-5.7169,13.3310,22.7571,17.2099,14.6674,10.1541,4.9458,17.6454,15.5547,12.7506,10.0967,1.8057
2042.9688,18.7301,6.0988,-3.3876,-9.3679,-6.7417,4.5277,-2.3727,-9.2184,12.0628,21.8544,15.3198,10.9551,5.6105,-0.2877,15.3987,10.8595,8.2749,7.0664,-3.0321
2046.8750,17.3348,3.6361,-6.4245,-13.3982,-11.8300,2.2446,-8.4380,-12.0337,8.7282,18.9866,10.9519,4.8984,-0.5589,-6.2528,11.0639,4.4663,2.1516,1.5381,-8.2661
2050.7812,13.5243,0.6606,-8.0764,-14.7632,-15.0177,-0.2787,-12.5802,-12.7987,4.1775,13.6196,4.9655,-1.9058,-6.4188,-10.8516,4.9743,-1.6701,-3.6829,-4.7041,-12.0606
2054.6875,7.6953,-1.6718,-7.2987,-12.5988,-14.8198,-2.0791,-13.3688,-10.8499,-0.1551,6.4497,-1.0528,-7.6117,-10.2305,-12.6014,-1.6092,-5.9231,-7.5479,-9.5577,-13.0745
2058.5938,1.4098,-2.2652,-3.9161,-7.4032,-11.1787,-2.3699,-10.3731,-6.6014,-2.8393,-0.7992,-5.4091,-10.7552,-11.1025,-11.2038,-6.9010,-7.5610,-8.6632,-11.3609,-10.9846
2062.5000,-3.4259,-0.7096,1.2145,-0.8237,-5.4456,-1.0451,-4.4028,-1.3936,-3.1115,-6.2025,-7.0288,-10.7437,-9.2358,-7.5477,-9.3854,-6.8571,-7.3287,-9.5486,-6.5709
2066.4062,-5.6498,2.3344,6.4599,5.0499,0.2658,1.1215,2.7402,3.1008,-1.2948,-8.6684,-5.9457,-8.0524,-5.7416,-3.2426,-8.6247,-4.7955,-4.6503,-4.9604,-1.3919
2070.3125,-5.5388,5.2878,9.9996,8.5147,3.9893,2.7710,8.9163,5.6056,1.2738,-8.5719,-3.2923,-4.0517,-2.1674,0.0475,-5.6121,-2.5889,-2.0159,0.3879,2.7865
2074.2188,-4.6518,6.3535,10.5271,8.8372,4.6503,2.6455,12.4205,5.7406,2.8331,-7.5725,-0.7672,-0.5041,0.0712,1.1842,-2.3987,-1.2382,-0.5713,4.0688,4.5985
2078.1250,-4.8841,4.4422,7.7790,6.3863,2.3665,0.2997,12.5355,4.0671,2.0532,-7.6699,0.1663,1.1019,0.1645,-0.1288,-1.1178,-1.2638,-0.8704,4.2823,3.5293
2082.0312,-7.3063,-0.1855,2.6608,2.3350,-1.7427,-3.5887,9.6564,1.6979,-1.2703,-10.0384,-1.0557,0.1272,-1.8513,-3.3457,-2.8995,-2.6330,-2.7679,0.7052,0.0698
2085.9375,-11.5219,-5.9589,-3.1111,-1.8851,-6.0875,-7.5302,4.9884,-0.2975,-6.0659,-14.3464,-3.9118,-2.9808,-5.1580,-7.3469,-7.2821,-4.8419,-5.5377,-5.2937,-4.4879
2089.8438,-15.9571,-10.7458,-7.7222,-5.1379,-9.2386,-10.0115,-0.0000,-1.3843,-10.4883,-18.9989,-7.1705,-6.9080,-8.5035,-10.8663,-12.4803,-7.1101,-8.1614,-11.2398,-8.5596
2093.7500,-18.8923,-12.9198,-10.0177,-6.9393,-10.4239,-10.3154,-4.1215,-1.7232,-12.8298,-22.1512,-9.5923,-10.0615,-10.7070,-12.9281,-16.3769,-8.6443,-9.6966,-14.6907,-10.8986
2097.6562,-19.5393,-12.1484,-9.9454,-7.4995,-9.7229,-8.8870,-6.8070,-1.9540,-12.3503,-22.8356,-10.5467,-11.2546,-11.1144,-13.1415,-17.6612,-8.9064,-9.6082,-14.3562,-11.0754
2101.5625,-18.4315,-9.4522,-8.4524,-7.4629,-7.9038,-7.0176,-8.1384,-2.7464,-9.5695,-21.4454,-10.1897,-10.1652,-9.8016,-11.7424,-16.4275,-7.7925,-7.9378,-10.6190,-9.5738
2105.4688,-16.8632,-6.5137,-6.8765,-7.4764,-5.9831,-6.0325,-8.6014,-4.3639,-5.8698,-19.2550,-9.1361,-7.3663,-7.4395,-9.3826,-13.8819,-5.6444,-5.2375,-5.2023,-7.4436
2109.3750,-15.7944,-4.6697,-6.1605,-7.8044,-4.7123,-6.4738,-8.6943,-6.4730,-2.6677,-17.3329,-7.8900,-3.9573,-4.9124,-6.7866,-11.3852,-3.0857,-2.3002,-0.2104,-5.6945
2113.2812,-15.0490,-4.2086,-6.3379,-8.1961,-4.2452,-7.7905,-8.5922,-8.2947,-0.6744,-15.6733,-6.4615,-1.0319,-2.9134,-4.4630,-9.5110,-0.7728,0.1729,2.8870,-4.7735
2117.1875,-13.4538,-4.3928,-6.6057,-8.0874,-4.1610,-8.7325,-8.0532,-9.0219,0.3030,-13.2440,-4.4666,0.7255,-1.7359,-2.6075,-7.7916,0.8084,1.7956,3.7700,-4.4323
2121.0938,-9.8889,-4.1506,-5.9477,-7.0238,-3.8192,-8.2072,-6.6356,-8.2773,0.9365,-8.9910,-1.6498,1.1462,-1.3300,-1.2035,-5.3344,1.4197,2.5176,3.0729,-4.0440
2125.0000,-4.5042,-2.9441,-3.9165,-5.0360,-2.8216,-6.0514,-4.1123,-6.3550,1.6719,-3.0768,1.5741,0.4321,-1.5089,-0.1907,-1.8398,1.0457,2.4907,1.7296,-3.1381
2128.9062,0.8591,-1.2069,-1.0497,-2.7091,-1.2776,-3.2112,-0.8200,-4.0933,2.2839,2.6428,4.0372,-1.0498,-2.0988,0.4536,1.7849,-0.1400,1.9246,0.3627,-1.7686
2132.8125,3.5119,-0.0468,1.3916,-0.8645,0.3043,-1.1933,2.3198,-2.4316,2.0409,5.4399,4.3890,-2.8568,-2.9082,0.7777,3.7734,-1.7549,1.0540,-0.8849,-0.4505
2136.7188,1.5991,-0.4194,2.2295,-0.0381,1.4167,-1.1197,4.1866,-1.8899,0.3730,3.4359,2.0257,-4.4284,-3.5819,0.9738,2.6699,-3.1835,0.2095,-2.0506,0.2895
2140.6250,-4.4805,-2.3557,1.2035,-0.0976,1.9483,-2.9860,4.0628,-2.2755,-2.4624,-2.9147,-2.2485,-5.0611,-3.5400,1.3901,-1.4754,-3.6720,-0.1405,-2.9268,0.4068
2144.5312,-11.9504,-4.8007,-0.7450,-0.2780,2.2712,-5.6050,2.0845,-2.8012,-5.2638,-10.6848,-6.3797,-4.0733,-2.1723,2.3505,-6.7852,-2.6141,0.4833,-2.9322,0.4805
2148.4375,-17.0412,-6.1988,-1.9735,0.3564,2.9393,-7.2782,-0.7610,-2.5536,-6.4869,-15.9337,-8.0854,-1.1734,0.7519,3.8723,-10.4531,0.0655,2.2739,-1.4442,1.3515
2152.3438,-17.0664,-5.4370,-1.1315,2.3078,4.2188,-6.7671,-3.1127,-1.0334,-5.1976,-15.9073,-6.1721,3.1794,4.7258,5.5031,-10.3429,3.6831,4.8551,1.6404,3.4834
2156.2500,-11.8603,-2.4951,1.9996,5.3021,5.8160,-3.9440,-3.8955,1.5641,-1.7012,-10.5497,-1.2956,7.7367,8.5197,6.4707,-6.2339,6.9642,7.2702,5.5867,6.5114
2160.1562,-3.6435,1.6482,6.3883,8.4472,7.0463,0.2785,-2.7503,4.4975,2.6442,-2.3149,4.4022,10.9239,10.6991,6.1346,0.1418,8.6313,8.3742,9.0864,9.3584
2164.0625,4.5575,5.7801,10.4483,10.7973,7.3583,4.6519,0.0038,6.9493,6.3624,5.5804,8.6280,11.6568,10.4290,4.4920,6.2961,8.1302,7.4855,11.0322,10.9093
2167.9688,10.8298,9.3330,13.0799,11.9507,6.8410,8.4194,3.7768,8.5057,8.9114,11.2394,10.4158,10.0652,8.0977,2.3904,10.5782,6.0506,4.9221,11.3136,10.8228
2171.8750,15.3168,12.7300,14.3465,12.2794,6.3176,11.6912,8.1223,9.3364,11.0893,15.0607,10.7647,7.6330,5.3166,1.2410,13.0551,3.9208,2.0423,11.0571,9.9104
2175.7812,19.5913,16.9275,15.3232,12.6427,6.9001,15.1244,12.8280,9.9786,14.4473,18.9729,11.9645,6.5549,4.1934,2.3280,15.0991,3.4252,0.6647,12.0514,9.7568
2179.6875,25.0032,22.4686,17.2251,13.7832,9.2680,19.1653,17.6369,10.9019,20.0610,24.5648,16.0011,8.5819,6.2200,6.0874,18.0541,5.4706,2.1300,15.6373,11.7529
2183.5938,31.2785,28.7420,20.4341,15.8157,13.1492,23.4300,21.8924,12.1717,27.4998,31.5470,23.0755,13.9820,11.3883,11.7786,22.0205,9.6549,6.5176,21.7366,16.1283
2187.5000,36.4456,34.0273,24.1092,18.1422,17.3720,26.7071,24.5004,13.4376,34.7532,37.7233,31.2307,21.2378,18.0624,17.7639,25.6882,14.4611,12.4906,28.6571,21.6151
2191.4062,38.1784,36.3826,26.6681,19.8278,20.4769,27.6305,24.3814,14.2261,39.2471,40.5247,37.3757,27.7094,23.7197,22.2576,27.3433,18.0684,17.8953,33.8572,26.0085
2195.3125,35.5868,34.8332,26.8143,20.1689,21.5071,25.5880,21.1846,14.2994,39.3425,38.9791,39.0812,30.9345,26.1859,24.1370,26.2747,19.3002,20.8117,35.2600,27.3319
2199.2188,30.1223,30.0790,24.4097,19.0769,20.4784,21.2473,15.7671,13.8037,35.3526,34.6347,36.0100,29.8599,24.7005,23.3838,23.4858,18.1695,20.4852,32.3588,24.9324
2203.1250,24.8662,24.2201,20.5947,17.0527,18.2550,16.3107,10.0172,13.1073,29.4036,30.6786,30.0792,25.3272,20.2507,20.9462,21.1177,15.7498,17.6386,26.4712,19.8568
2207.0312,22.5994,19.6181,17.0701,14.8109,15.9483,12.6134,6.0110,12.4669,24.1998,29.7874,24.2679,19.5587,15.0098,18.1433,20.9394,13.4980,14.0098,20.0064,14.2883
2210.9375,23.9328,17.5696,15.0192,12.8313,14.2509,11.1082,4.9487,11.7932,21.4569,32.1764,20.8385,14.9480,11.2011,15.9667,22.9730,12.4481,11.3911,15.1790,10.3723
2214.8438,26.7795,17.5963,14.3782,11.1261,13.1204,11.3602,6.5081,10.7031,20.9664,35.2312,20.0820,12.8340,9.9942,14.6529,25.2631,12.7072,10.6995,12.9050,9.1035
2218.7500,27.5852,17.7834,13.9248,9.3409,11.9651,11.8630,9.0316,8.8298,20.8524,35.0612,20.3308,12.9102,10.9948,13.7128,25.0295,13.4740,11.5648,12.4717,9.8894
2222.6562,23.5919,15.9726,12.1169,7.0857,10.1543,10.9891,10.4564,6.1675,18.8361,29.0369,19.1697,13.5503,12.5573,12.3491,20.4914,13.5093,12.6238,12.1147,10.9977
2226.5625,14.7374,11.1141,8.1459,4.2710,7.4991,8.0149,9.4508,3.2030,13.7315,17.7192,15.0550,12.8210,12.7247,9.9999,12.1938,11.7948,12.3299,10.1303,10.6011
2230.4688,4.0135,4.0115,2.5578,1.2592,4.4219,3.6317,6.1015,0.7396,6.2907,4.9629,8.3573,9.6117,10.2942,6.7184,2.9775,8.0779,9.8309,5.8952,7.8252
2234.3750,-3.9576,-2.9544,-2.9191,-1.2302,1.7615,-0.3420,1.7926,-0.4705,-1.0659,-3.9063,1.2426,4.2830,5.4756,3.2129,-3.4071,3.0823,5.4616,0.2624,3.2439
2238.2812,-5.3279,-6.9658,-6.2162,-2.3914,0.3792,-1.8870,-1.5949,-0.0575,-5.4564,-4.8106,-3.4812,-1.4775,-0.1718,0.5519,-4.2309,-1.7021,0.6096,-4.8382,-1.4050
2242.1875,0.9273,-6.1697,-5.9512,-1.6526,0.7970,0.1461,-2.6595,1.8470,-5.0042,2.9601,-3.8572,-5.4870,-4.4712,-0.3055,0.8270,-4.5888,-2.9568,-7.3527,-4.0932
2246.0938,12.4046,-0.6261,-2.0913,1.0740,3.0216,5.3703,-1.0850,4.7211,0.1977,16.3264,0.2115,-6.1460,-5.6592,1.0647,9.5461,-4.4232,-3.9486,-6.1118,-3.4913
2250.0000,24.3857,7.6523,4.0502,5.2907,6.5697,11.9339,2.3828,7.8756,8.0876,29.8384,6.9307,-3.2252,-3.2130,4.3530,18.2691,-1.1701,-2.1706,-1.4098,0.4140
2253.9062,32.0503,15.5709,10.4201,10.0024,10.6217,17.2957,6.4540,10.6470,15.5565,38.1575,13.5037,2.0120,1.9115,8.6100,23.5989,3.9396,1.4037,5.1036,6.3416
2257.8125,32.6621,20.2987,15.0913,13.9904,14.2280,19.3373,9.9222,12.5025,19.8186,38.3772,17.4290,7.3873,7.7207,12.5778,23.8394,8.8474,5.1160,11.1393,12.3068
2261.7188,26.6913,20.4537,16.9717,16.2063,16.5285,17.2954,12.0506,13.0902,19.5823,31.1438,17.5548,10.7918,12.0685,15.1120,19.5629,11.5506,7.4064,14.7382,16.4559
2265.6250,17.4087,16.5909,16.0775,16.1472,16.9667,12.0802,12.6063,12.2969,15.5056,20.1577,14.4241,11.1004,13.5543,15.5351,13.1574,11.0299,7.5026,15.0453,17.7471
2269.5312,9.2261,10.8018,13.3279,14.0492,15.4608,5.8321,11.6892,10.3175,9.7681,10.3734,9.8320,8.5980,12.0328,13.8149,7.6538,7.7386,5.6951,12.5513,16.2102
2273.4375,5.6202,5.6565,10.0328,10.7916,12.4677,0.9255,9.5895,7.6710,4.9941,5.7569,5.8863,4.7512,8.5518,10.5440,5.3906,3.3784,3.1093,8.7342,12.7580
2277.3438,7.6188,3.0190,7.3426,7.5391,8.8822,-1.1058,6.7871,5.0916,3.0507,7.6088,4.0560,1.4796,4.8175,6.7601,7.0757,0.0670,1.1410,5.3178,8.7269
2281.2500,13.5198,3.3028,5.8911,5.2860,5.7776,-0.2063,4.0047,3.2954,4.2814,14.1786,4.6410,0.3000,2.4770,3.6695,11.6114,-0.6550,0.8598,3.5262,5.3970
2285.1562,19.8988,5.4799,5.7232,4.5160,4.0633,2.2979,2.1162,2.7205,7.5053,21.6944,6.8423,1.7405,2.5305,2.3262,16.7140,1.5426,2.6461,3.6727,3.6627
2289.0625,23.3473,7.7651,6.4481,5.1145,4.1814,4.4528,1.8077,3.3705,10.7301,26.2645,9.3065,5.2399,5.0571,3.3109,20.0125,5.7878,6.1541,5.2139,3.8859
2292.9688,22.0581,8.5625,7.4718,6.5254,5.9514,4.6773,3.1217,4.8427,12.1742,25.7003,10.8090,9.4971,9.2726,6.4839,20.1048,10.5545,10.5217,7.1526,5.8678
2296.8750,16.5131,7.1793,8.1826,8.0218,8.6208,2.4927,5.2066,6.5113,11.0748,20.3765,10.7350,13.0397,13.8290,10.9186,17.0781,14.3709,14.6719,8.5261,8.8864
2300.7812,9.0324,4.0017,8.0611,8.9509,11.1147,-1.3579,6.5612,7.7643,7.9135,12.7835,9.1892,14.7483,17.2438,15.1192,12.2943,16.3080,17.5911,8.7486,11.8284
2304.6875,2.5476,0.1576,6.7756,8.8875,12.4199,-5.3889,5.7807,8.1888,4.0414,6.1326,6.7976,14.1686,18.3682,17.5324,7.6300,16.1002,18.5618,7.7235,13.4874
2308.5938,-0.6962,-3.0491,4.3247,7.7206,11.9901,-8.1231,2.4441,7.6625,0.9882,2.8423,4.3986,11.5821,16.7977,17.2000,4.6314,14.0110,17.3627,5.7872,13.0291
2312.5000,0.1252,-4.6088,1.1927,5.7095,10.0192,-8.6977,-2.4111,6.3639,-0.1523,3.6939,2.7983,7.8828,13.0949,14.2601,4.0175,10.6565,14.4044,3.5916,10.4644
2316.4062,4.4541,-4.0200,-1.6235,3.4877,7.4365,-7.0623,-6.6153,4.7238,0.9894,7.9401,2.6250,4.3117,8.6816,9.9996,5.6845,6.8931,10.7017,1.9627,6.8404
2320.3125,10.9156,-1.2995,-2.8720,1.9314,5.5555,-3.7912,-7.9249,3.3137,4.1001,14.0512,4.2047,2.0784,5.3428,6.3431,9.0244,3.7054,7.5878,1.6923,3.9165
2324.2188,17.9432,3.0619,-1.5944,1.8405,5.4693,0.2666,-5.2592,2.6578,8.3855,20.4776,7.3945,1.9280,4.4713,4.9608,13.2288,1.9697,6.1955,3.2279,3.3500
2328.1250,24.1264,8.1228,2.2605,3.5158,7.4487,4.2592,0.6140,2.9984,12.7681,25.9784,11.4395,3.7863,6.3754,6.4241,17.3796,2.0934,6.9113,6.3419,5.7543
2332.0312,28.2672,12.5668,7.5313,6.4545,10.6718,7.4385,7.3870,4.1176,16.0534,29.5223,15.0257,6.6763,10.0252,9.8628,20.4096,3.7218,9.1025,9.9844,10.1719
2335.9375,29.3794,14.9689,12.1400,9.4083,13.4937,9.1798,12.3723,5.3509,17.1466,30.1357,16.6637,9.0402,13.4440,13.3452,21.1833,5.7729,11.3329,12.5292,14.3604
2339.8438,26.8611,14.2865,13.9660,10.8795,14.1944,9.0541,13.8427,5.8520,15.3845,27.0719,15.3331,9.4134,14.6224,14.8167,18.8672,6.9080,12.0301,12.4344,15.8510
2343.7500,20.8416,10.3980,11.9036,9.8621,11.8567,6.9963,11.7758,5.0229,10.8954,20.3242,11.0798,7.1655,12.5170,13.1242,13.4633,6.2474,10.2880,9.0566,13.2625
2347.6562,12.4632,4.3731,6.5256,6.4344,6.9090,3.4730,7.6137,2.8843,4.7708,11.1114,5.1896,2.9144,7.6159,8.5957,6.1473,3.9176,6.3781,3.1743,7.1397
2351.5625,3.8001,-1.7762,-0.0623,1.8356,1.0129,-0.5186,3.2769,0.1551,-1.1571,1.8523,-0.2563,-1.6631,1.7514,2.8852,-0.9319,1.0622,1.6733,-3.1523,-0.1990
2355.4688,-2.7011,-5.8499,-5.1602,-2.0710,-3.6772,-3.7155,0.1137,-2.0495,-4.9451,-4.5714,-3.2812,-4.5890,-2.7553,-1.8237,-5.4266,-0.7481,-1.9940,-7.4246,-5.7698
2359.3750,-5.0881,-6.3994,-6.7399,-3.7007,-5.5137,-5.0537,-1.5674,-2.7660,-5.3372,-5.9964,-2.9185,-4.5505,-4.1874,-3.8397,-5.7977,-0.3942,-3.2125,-7.8826,-7.4076
2363.2812,-2.7017,-3.3902,-4.3853,-2.5402,-4.1066,-4.1231,-2.2013,-1.6914,-2.3499,-2.0057,0.3559,-1.5746,-2.2156,-2.7108,-2.0287,2.1299,-1.6633,-4.4122,-4.8283
2367.1875,3.4606,1.7504,0.5601,0.5850,-0.4650,-1.3850,-2.2748,0.6243,2.6618,5.7516,4.8763,2.9466,1.9877,0.6253,4.3295,5.6557,1.7401,1.3126,0.2820
2371.0938,10.9917,6.7322,5.6642,3.9015,3.4991,1.9675,-1.8447,3.0024,7.5134,14.1339,8.5613,6.8912,6.3103,4.3040,10.7944,8.4088,5.2784,6.5538,5.1527
2375.0000,16.8627,9.3582,8.5116,5.5158,5.8162,4.4603,-0.6329,4.1548,10.0553,19.7123,9.7860,8.3715,8.6249,6.3461,14.9336,8.8831,7.1843,8.7473,7.2688
2378.9062,18.4817,8.4048,7.6925,4.2545,5.2383,4.9153,1.4361,3.2346,9.0157,20.0748,7.9489,6.5481,7.6403,5.4502,15.2434,6.5510,6.3740,6.6411,5.4616
2382.8125,14.6690,4.0652,3.2684,0.1266,1.6361,2.9272,3.7701,0.1704,4.4823,14.7129,3.5569,1.9283,3.3407,1.4545,11.6055,2.0726,2.8514,0.7993,0.2540
2386.7188,6.1972,-2.1822,-3.3815,-5.7532,-4.0752,-0.9469,5.1878,-4.3304,-2.1472,5.1924,-2.0853,-3.9334,-3.1010,-4.6646,5.2397,-3.0436,-2.3399,-6.7198,-6.5850
2390.6250,-4.3477,-8.1794,-10.1583,-11.6768,-10.3592,-5.3652,4.5818,-9.0656,-8.7012,-5.4154,-7.3647,-9.1330,-9.8267,-11.2041,-1.7532,-7.1053,-7.5520,-13.3006,-12.9295
2394.5312,-13.4249,-11.9125,-14.9960,-16.0151,-15.6162,-8.7006,1.7227,-12.7657,-13.0451,-13.6318,-10.8452,-12.1710,-14.9789,-16.3703,-7.0907,-8.8939,-11.1604,-16.8529,-17.1442
2398.4375,-17.8700,-12.2503,-16.5173,-17.7682,-18.6780,-9.6843,-2.3986,-14.5085,-13.8706,-16.8336,-11.6580,-12.4547,-17.3136,-18.8964,-9.0725,-8.0488,-12.1462,-16.5696,-18.5431
2402.3438,-16.1843,-9.3383,-14.4337,-16.8142,-19.1146,-7.9411,-6.0007,-13.9961,-11.1714,-14.2304,-9.7535,-10.3913,-16.5466,-18.4300,-7.1957,-5.0752,-10.4234,-13.0903,-17.3844
2406.2500,-9.1919,-4.5055,-9.6086,-13.8251,-17.2947,-4.1675,-7.4787,-11.6239,-6.2141,-7.1593,-5.9469,-7.0932,-13.3439,-15.5651,-2.3830,-1.0391,-6.8013,-8.0837,-14.5479
2410.1562,0.3009,0.2918,-3.7553,-9.9350,-14.1973,0.1563,-6.2936,-8.3179,-0.9991,1.4788,-1.6766,-3.8568,-8.9847,-11.5331,3.3476,2.8831,-2.6104,-3.4858,-11.1184
2414.0625,8.7347,3.2765,1.1659,-6.3073,-11.0331,3.4160,-3.2110,-5.1820,2.5757,8.4425,1.5172,-1.6360,-4.8458,-7.6951,7.7202,5.8054,0.8450,-0.7334,-8.0410
2417.9688,13.3307,3.5657,3.6690,-3.7599,-8.8035,4.5685,0.2318,-3.0761,3.4790,11.4846,2.6180,-0.7255,-1.9171,-5.0545,9.1995,7.3381,2.7653,-0.2877,-5.9150
2421.8750,13.1602,1.4666,3.2952,-2.5699,-7.9637,3.5463,2.6421,-2.2968,1.8808,10.1564,1.5557,-0.7704,-0.5422,-3.9823,7.6435,7.5503,3.0631,-1.6049,-4.9237
2425.7812,9.2457,-1.7858,0.7390,-2.5017,-8.3306,1.1587,3.4603,-2.5151,-1.0890,5.7036,-0.8238,-1.0768,-0.4613,-4.2313,4.2379,6.7619,2.2378,-3.5200,-4.8744
2429.6875,3.7383,-4.7018,-2.5313,-3.0162,-9.2580,-1.4305,3.0271,-3.0090,-4.0011,0.1914,-3.2536,-1.0485,-1.0841,-5.1742,0.7434,5.3158,1.0299,-4.8420,-5.3212
2433.5938,-1.2687,-6.2563,-4.9783,-3.5420,-9.9748,-3.3281,2.0939,-3.0725,-5.8256,-4.5814,-4.7238,-0.5085,-1.8122,-6.1076,-1.4920,3.4739,0.0669,-4.8796,-5.7341
2437.5000,-4.6066,-6.2721,-5.6663,-3.6817,-9.9027,-4.2777,1.2125,-2.3751,-6.2935,-7.7523,-4.9402,0.2713,-2.2411,-6.4788,-2.1588,1.4696,-0.3198,-3.6633,-5.6665
2441.4062,-6.1931,-5.3050,-4.5651,-3.2824,-8.8120,-4.5945,0.4567,-1.0750,-5.7799,-9.3786,-4.3059,0.8299,-2.1825,-5.9818,-1.9112,-0.3766,-0.0738,-1.7900,-4.8713
2445.3125,-6.6084,-4.1687,-2.3779,-2.3867,-6.7935,-4.7857,-0.3858,0.3616,-4.8756,-9.9546,-3.4950,0.8831,-1.5784,-4.5607,-1.7325,-1.6412,0.7125,-0.0108,-3.3419
2449.2188,-6.5369,-3.4354,-0.0541,-1.1424,-4.1363,-5.1611,-1.3858,1.4950,-3.9776,-9.9531,-2.9505,0.5416,-0.4371,-2.3924,-2.2419,-1.9626,1.8858,1.1920,-1.2855
2453.1250,-6.4734,-3.2052,1.6977,0.2559,-1.2238,-5.6954,-2.2133,2.1739,-3.1542,-9.7294,-2.6556,0.2348,1.1428,0.1284,-3.4179,-1.3045,3.2214,1.8133,0.9442
2457.0312,-6.7515,-3.2139,2.6473,1.5813,1.5114,-6.1792,-2.2864,2.5613,-2.2924,-9.7058,-2.2892,0.4012,2.9005,2.4425,-4.8420,-0.1041,4.3815,2.2365,2.9351
2460.9375,-7.6373,-3.1074,2.9758,2.5911,3.6219,-6.4680,-1.2285,2.9389,-1.3182,-10.4480,-1.5756,1.1752,4.4114,3.9737,-6.1452,0.8774,4.9578,2.9446,4.3199
2464.8438,-9.2121,-2.6430,3.0402,3.0942,4.7467,-6.5846,0.7227,3.4555,-0.2676,-12.3325,-0.5134,2.2967,5.2281,4.3626,-7.2192,0.9833,4.6506,4.2263,4.8860
2468.7500,-11.0572,-1.7036,3.1586,3.0618,4.7809,-6.5872,2.6936,4.0161,0.8386,-14.9495,0.6898,3.3066,5.1198,3.6811,-8.0148,0.1198,3.4968,6.0389,4.6620
2472.6562,-12.0815,-0.2137,3.5130,2.7049,4.0123,-6.3536,3.6088,4.3868,2.1436,-16.7921,1.8779,3.8746,4.2550,2.4780,-8.1765,-1.0884,1.9718,8.0614,3.9334
2476.5625,-10.8638,1.8637,4.1451,2.4324,3.0834,-5.5343,2.8281,4.4199,3.9072,-15.7575,3.1201,4.0162,3.1802,1.5717,-6.9670,-1.6135,0.8417,9.8546,3.1500
2480.4688,-6.5323,4.3670,4.9617,2.6678,2.7205,-3.8062,0.5787,4.2097,6.2102,-10.4375,4.6017,4.0426,2.5692,1.6545,-3.7307,-0.6622,0.7996,11.0104,2.7434
2484.3750,0.3006,6.7417,5.7219,3.6066,3.3354,-1.2880,-2.1008,4.0431,8.6178,-1.4733,6.2957,4.2976,2.8724,2.9071,1.3499,1.7644,2.0873,11.2341,2.9346
2488.2812,7.2739,8.0554,6.0596,5.0638,4.7318,1.2214,-3.8890,4.1709,10.1308,8.0487,7.7195,4.8929,4.0765,4.8522,6.8144,4.7762,4.3328,10.3863,3.6340
2492.1875,11.1182,7.3725,5.6143,6.5214,6.1280,2.4684,-3.8751,4.5716,9.6049,13.7396,8.0598,5.6438,5.7172,6.5565,10.3208,7.0617,6.7144,8.5381,4.4947
2496.0938,9.3382,4.3584,4.2634,7.3766,6.5394,1.4168,-2.0207,4.9038,6.4744,12.1892,6.6781,6.2403,7.1317,7.0968,9.8449,7.6433,8.3598,6.0413,5.0977
2500.0000,1.8146,-0.2644,2.3255,7.2608,5.3374,-2.0060,0.8673,4.7122,1.3281,3.1099,3.6731,6.5002,7.7952,6.0503,5.0103,6.4434,8.7524,3.5387,5.1695
2503.9062,-8.7235,-4.7968,0.5598,6.2504,2.6702,-6.5992,3.6146,3.7695,-4.1125,-10.0519,0.0594,6.4910,7.5487,3.7475,-2.3604,4.3028,7.9283,1.8192,4.7171
2507.8125,-17.8274,-7.2808,-0.1250,4.8454,-0.5124,-10.3197,5.3154,2.3176,-7.7306,-21.6154,-2.6621,6.4206,6.6110,1.1467,-8.9816,2.4502,6.3867,1.5040,4.0147
2511.7188,-21.5719,-6.5347,0.8480,3.7230,-2.8771,-11.3045,5.7517,1.0155,-8.1174,-26.5709,-3.3506,6.3897,5.4016,-0.6110,-11.8296,1.7660,4.7994,2.6855,3.4529
2515.6250,-18.6793,-2.9176,3.3098,3.3930,-3.3644,-8.9317,5.3628,0.5840,-5.4086,-23.2556,-1.9683,6.2148,4.2938,-0.7469,-9.8680,2.2926,3.6905,4.7342,3.3278
2519.5312,-11.2726,1.6784,6.2657,3.9311,-1.7438,-4.2818,4.8070,1.3401,-1.3251,-14.2275,0.2843,5.4790,3.4295,0.7732,-4.7073,3.2594,3.2275,6.4489,3.6693
2523.4375,-3.7656,4.6931,8.2576,4.9237,1.2289,0.3248,4.4154,2.9110,1.6646,-4.8083,1.5803,3.7936,2.6671,3.2032,0.2508,3.5550,3.1836,6.5517,4.1851
2527.3438,-0.4888,4.1981,8.0291,5.6519,4.1448,2.5007,3.9061,4.3331,1.6238,-0.1510,0.4897,1.0909,1.6679,5.3461,1.7091,2.3378,3.0548,4.3233,4.3575
2531.2500,-3.3983,-0.0673,5.1696,5.4323,5.6057,1.0375,2.5757,4.5236,-1.8318,-2.5417,-3.1922,-2.2534,0.0811,6.1039,-1.7009,-0.5508,2.2862,0.0513,3.6718
2535.1562,-11.1535,-6.4988,0.4033,3.9613,4.8987,-3.4657,-0.1250,2.8834,-7.3306,-10.4379,-8.3007,-5.5469,-2.2369,4.9987,-8.7209,-4.5278,0.5450,-4.9702,1.8971
2539.0625,-20.0213,-12.3857,-4.6478,1.5040,2.3490,-8.9291,-3.9955,-0.3046,-12.4505,-19.6511,-12.9047,-8.0619,-5.0476,2.4278,-16.2397,-8.5118,-2.0426,-8.9389,-0.7045
2542.9688,-25.9838,-15.2203,-8.1364,-1.1733,-0.8226,-12.8699,-7.8891,-3.9263,-14.9259,-25.8048,-15.2754,-9.2932,-7.6930,-0.4791,-21.0067,-11.3009,-4.8069,-10.3249,-3.3723
2546.8750,-26.7695,-13.8678,-8.7922,-3.1159,-3.0752,-13.6216,-10.1185,-6.5359,-13.7051,-26.5421,-14.6545,-9.0620,-9.2598,-2.3538,-21.2415,-11.9401,-6.7014,-8.5648,-5.1028
2550.7812,-22.6777,-9.0112,-6.4797,-3.6130,-3.2828,-11.0407,-9.2980,-7.0553,-9.3291,-22.2793,-11.4301,-7.4704,-8.9312,-2.2173,-17.2643,-10.0071,-6.7203,-4.3277,-5.0959
2554.6875,-15.8864,-2.6948,-2.2515,-2.5456,-1.2709,-6.3829,-5.1583,-5.3054,-3.5110,-15.3167,-6.7249,-4.8032,-6.3947,0.0537,-10.9427,-5.7834,-4.4096,0.7770,-3.1862
2558.5938,-8.8824,2.7302,2.1279,-0.4677,2.1103,-1.5101,1.1472,-2.0829,1.7817,-8.1374,-1.7456,-1.4739,-2.0979,3.6559,-4.4732,-0.2575,-0.2059,4.9071,-0.0135
2562.5000,-3.1138,5.6788,4.9641,1.6458,5.4156,2.0632,7.4525,1.2541,5.2148,-2.0933,2.6801,1.9833,2.8207,7.2320,0.6742,5.1029,4.6285,6.7690,3.2051
2566.4062,1.3208,5.8944,5.3548,2.8727,7.3234,3.7559,11.5026,3.4644,6.5087,2.7651,6.1590,4.9487,6.9481,9.5060,4.0731,8.8111,8.5069,6.1094,5.2272
2570.3125,4.9369,4.2948,3.5218,2.8011,7.2769,3.8989,11.9096,4.0043,6.2665,6.8533,8.4902,6.8496,9.1832,9.8631,5.9292,9.9181,10.2312,3.7121,5.3854
2574.2188,7.8147,2.2938,0.6209,1.7243,5.7251,3.2515,8.6716,3.2116,5.4231,10.0469,9.4324,7.3704,9.2025,8.5815,6.4432,8.4172,9.5419,0.9474,3.9101
2578.1250,9.1464,1.0294,-1.8476,0.4657,3.8480,2.4495,3.0656,2.0296,4.6956,11.3848,8.7426,6.6262,7.5613,6.6139,5.5229,5.2638,7.2039,-0.8720,1.7905
2582.0312,7.7857,0.9133,-2.7199,-0.0701,2.9250,1.7366,-2.9373,1.4542,4.3402,9.7546,6.4811,5.1651,5.3786,5.0538,3.0592,1.9541,4.5752,-1.0135,0.2509
2585.9375,3.3978,1.6644,-1.6199,0.6226,3.6784,1.0786,-7.3957,2.0207,4.2729,5.0327,3.3151,3.7499,3.7729,4.5782,-0.5262,-0.1583,2.8982,0.4822,0.1292
2589.8438,-2.7216,2.6907,0.9885,2.3937,5.9217,0.4662,-8.9705,3.5841,4.3608,-1.2547,0.4841,3.0027,3.3341,5.1438,-4.0154,-0.4726,2.6917,2.9511,1.4828
2593.7500,-7.9312,3.5063,4.0982,4.5168,8.6593,0.0997,-7.2338,5.4612,4.6079,-6.4087,-0.7062,3.0839,3.8768,6.0570,-5.7921,0.6229,3.5424,5.4508,3.5980
2597.6562,-9.6473,3.9155,6.6019,6.0347,10.5531,0.2740,-2.7451,6.7994,5.0800,-8.0368,0.3577,3.5780,4.5631,6.3375,-4.7799,1.9897,4.3634,7.1046,5.3492
2601.5625,-7.0367,3.9089,7.6668,6.1758,10.5073,1.0460,3.0689,6.9517,5.6538,-5.6409,3.0559,3.6552,4.3076,5.1758,-1.3297,2.3151,3.9505,7.3249,5.6968
2605.4688,-1.8444,3.4343,6.9282,4.6447,8.1094,1.9690,8.2534,5.6856,5.8416,-1.2243,5.6394,2.4524,2.2801,2.2830,2.6187,0.7400,1.5567,5.9078,4.0925
2609.3750,2.3358,2.2858,4.5164,1.6918,3.7712,2.1650,10.9147,3.1888,4.9166,1.6275,6.0512,-0.4879,-1.6934,-1.9780,4.3783,-2.7387,-2.7537,3.0545,0.6622
2613.2812,2.0548,0.2346,0.9780,-2.0182,-1.4393,0.7772,9.9464,-0.0598,2.3432,-0.2172,3.0750,-4.9130,-6.9726,-6.6920,1.9909,-7.2386,-8.0847,-0.6544,-3.8483
2617.1875,-3.8845,-2.6833,-2.8686,-5.6483,-6.1767,-2.4458,5.5889,-3.4512,-1.7444,-7.4512,-2.8470,-9.8412,-12.2545,-10.6686,-4.5039,-11.3229,-13.0021,-4.3635,-8.3130
2621.0938,-13.5105,-5.9619,-6.1468,-8.4483,-9.2660,-6.8156,-0.5367,-6.3860,-6.3699,-17.6200,-9.6599,-13.8702,-16.0064,-12.8193,-12.8132,-13.5543,-16.0327,-7.1759,-11.5787
2625.0000,-22.5803,-8.7099,-8.1914,-9.9599,-10.0780,-10.8859,-6.0769,-8.3858,-10.0485,-26.2034,-14.6581,-15.7189,-17.0484,-12.5334,-19.4012,-13.0689,-16.2054,-8.4848,-12.8493
2628.9062,-26.8182,-10.0303,-8.7865,-10.1198,-8.7150,-13.1026,-9.0375,-9.1887,-11.5013,-28.9479,-15.8634,-14.7788,-15.0578,-9.9260,-21.2681,-9.9560,-13.4443,-8.2544,-11.9796
2632.8125,-24.2072,-9.4848,-8.2288,-9.2284,-5.9359,-12.5755,-8.7504,-8.8103,-10.3435,-24.1566,-13.0453,-11.4149,-10.7519,-5.8352,-17.5207,-5.2814,-8.6391,-7.0543,-9.5382
2636.7188,-16.0208,-7.3462,-7.1317,-7.7839,-2.8317,-9.5360,-6.1516,-7.5315,-7.3179,-13.6474,-7.7957,-6.8364,-5.6150,-1.5199,-9.8482,-0.7031,-3.3194,-5.7567,-6.5611
2640.6250,-6.0484,-4.4663,-6.0438,-6.2480,-0.3753,-5.2221,-3.1788,-5.7932,-3.9017,-1.8472,-2.6228,-2.5660,-1.2563,1.8464,-1.6374,2.1974,0.9655,-5.0213,-4.0702
2644.5312,1.4755,-1.8367,-5.1149,-4.8593,0.9535,-1.2673,-1.6374,-4.0386,-1.5075,6.4616,0.3998,0.2450,1.2925,3.6543,3.7728,2.5899,3.2870,-4.8791,-2.5958
2648.4375,4.0267,-0.1119,-4.0547,-3.6067,1.2788,1.0583,-2.2100,-2.5821,-0.7529,8.5051,0.6526,1.2980,1.9680,4.0518,4.7306,0.7495,3.6724,-4.7150,-1.9844
2652.3438,1.8656,0.6222,-2.4449,-2.3779,1.1239,1.3540,-4.1869,-1.5711,-1.2263,4.7466,-0.8886,1.1644,1.5398,3.7365,1.9405,-2.1071,2.9475,-3.7132,-1.6218
2656.2500,-2.4312,0.7352,-0.1975,-1.1700,1.0252,0.1235,-6.0229,-1.0314,-1.8558,-1.5880,-2.3893,0.8408,1.0445,3.4698,-2.1252,-4.4382,2.1778,-1.5024,-0.9286
2660.1562,-5.5636,0.7224,2.2006,-0.1820,1.2164,-1.6015,-6.3106,-0.9235,-1.6112,-6.3277,-2.2686,1.1221,1.1532,3.6167,-4.6627,-5.1286,2.0387,1.4444,0.2137
2664.0625,-5.2556,0.9079,3.8949,0.3183,1.5852,-2.7875,-4.5454,-1.1362,-0.0919,-6.4893,-0.0234,2.1727,1.8645,4.0081,-3.9968,-3.9748,2.4966,3.9809,1.4185
2667.9688,-1.2446,1.3637,4.2395,0.2851,1.9113,-2.8008,-1.2659,-1.4232,2.3375,-1.6251,3.6518,3.5416,2.6897,4.2055,-0.3049,-1.6553,2.9763,4.9804,2.1705
2671.8750,4.8808,2.0381,3.3485,0.1163,2.1870,-1.5427,2.3973,-1.3726,4.8814,6.2163,7.4094,4.5671,3.1515,3.9641,4.6919,0.7599,2.8762,4.1243,2.3382
2675.7812,10.7406,2.9316,2.1859,0.5775,2.7522,0.6518,5.3699,-0.5151,6.8452,13.7727,10.0494,4.8694,3.2148,3.5462,8.8040,2.4439,2.0667,2.2426,2.4119
2679.6875,14.4585,4.1463,2.0509,2.3896,4.1088,3.2241,7.0523,1.4238,8.0109,18.3385,11.0998,4.5946,3.3339,3.6331,10.5809,3.2179,1.0361,0.9225,3.2393
2683.5938,15.5162,5.7625,3.7464,5.6988,6.5249,5.5962,7.3410,4.2582,8.6499,19.0892,10.9112,4.2708,4.0970,4.8705,10.0152,3.5210,0.5962,1.5779,5.4070
2687.5000,14.7986,7.6544,6.9773,9.7886,9.7131,7.3180,6.4032,7.2680,9.2249,17.3135,10.3125,4.4133,5.7458,7.3578,8.4158,4.0203,1.3609,4.5437,8.7045
2691.4062,13.8963,9.4140,10.4124,13.2854,12.8363,8.1552,4.4854,9.4364,10.0123,15.4923,10.0869,5.1739,7.9292,10.4437,7.5690,5.1374,3.3442,8.7724,12.0849
2695.3125,14.0830,10.4740,12.4037,14.8037,14.8776,8.1232,1.9094,9.9237,10.8879,15.7595,10.5523,6.2682,9.8677,12.9974,8.6609,6.7768,5.9257,12.3449,14.1947
2699.2188,15.5241,10.3714,11.9197,13.6742,15.1545,7.4546,-0.8237,8.5199,11.3820,18.5937,11.4191,7.1927,10.8036,14.0008,11.5464,8.3845,8.1763,13.4994,14.1445
2703.1250,17.1467,8.9941,9.1048,10.3158,13.6599,6.4959,-3.0229,5.7949,10.9509,22.4786,11.9516,7.5476,10.4176,13.0947,14.7709,9.2633,9.3201,11.5751,12.0098
2707.0312,17.2736,6.6705,5.1421,6.0216,11.0278,5.5664,-4.0056,2.8307,9.3088,24.7573,11.3538,7.2392,8.9494,10.7474,16.3664,8.9463,9.0647,7.3408,8.7457
2710.9375,14.7109,4.0640,1.5584,2.2879,8.1738,4.8509,-3.4179,0.6797,6.6606,23.2487,9.2295,6.4649,6.9896,7.9682,15.0201,7.4424,7.6577,2.5665,5.6008
2714.8438,9.6974,1.9479,-0.5505,0.0928,5.8511,4.3858,-1.4524,-0.1378,3.7317,17.7291,5.9251,5.5512,5.1362,5.7669,10.9779,5.2582,5.7055,-0.8646,3.4442
2718.7500,4.1224,0.9650,-0.9172,-0.4692,4.3780,4.1358,1.2064,0.1853,1.5622,10.3888,2.5602,4.7929,3.7555,4.6921,6.1340,3.2091,3.8969,-1.7984,2.4335
2722.6562,0.7716,1.4431,0.0184,-0.0386,3.6390,4.0891,3.6863,0.9557,1.1133,4.9023,0.6412,4.3840,2.9524,4.6787,3.1711,2.1024,2.7611,-0.2051,2.1640
2726.5625,1.9088,3.2893,1.5324,0.5030,3.2760,4.2811,5.2909,1.4186,2.8190,4.5325,1.3587,4.4146,2.6700,5.2183,4.1555,2.4078,2.5197,2.9693,2.0927
2730.4688,7.9373,5.9731,2.9962,0.5338,2.9073,4.7233,5.7193,1.1462,6.2814,10.2917,4.8896,4.8585,2.7712,5.6814,9.3470,4.0414,3.0390,6.3123,1.8865
2734.3750,16.9355,8.6340,4.0117,-0.0753,2.2643,5.3026,5.0738,0.1759,10.3034,20.2177,10.1175,5.5242,3.0357,5.5948,16.9216,6.3687,3.8860,8.5265,1.4826
2738.2812,25.4236,10.3393,4.3597,-1.0452,1.2468,5.7621,3.7370,-1.1110,13.3253,30.2331,15.0244,6.0387,3.1440,4.7689,23.8192,8.4594,4.4942,8.8585,0.9256
2742.1875,30.0262,10.4485,3.9550,-1.9436,-0.0548,5.8210,2.2349,-2.2330,14.1197,36.1592,17.6299,5.9548,2.7625,3.2953,27.2733,9.5042,4.4109,7.2875,0.2158
2746.0938,29.1452,8.9339,2.9091,-2.4144,-1.3591,5.3699,1.1228,-2.8132,12.4051,35.7796,16.9913,4.9851,1.7446,1.4782,26.1691,9.1941,3.5231,4.4706,-0.6634
2750.0000,23.7129,6.4557,1.6128,-2.2817,-2.2642,4.5902,0.8410,-2.6746,9.0237,29.8157,13.6751,3.2294,0.3123,-0.2625,21.4618,7.8463,2.1287,1.4795,-1.5892
2753.9062,16.5978,4.0824,0.6593,-1.5518,-2.4253,3.8740,1.5122,-1.8532,5.5317,21.3133,9.3929,1.2155,-0.9633,-1.5170,15.4567,6.1851,0.7806,-0.6104,-2.2187
2757.8125,11.0136,2.7528,0.5489,-0.3806,-1.7752,3.5611,2.7693,-0.5787,3.3907,13.8667,6.0048,-0.3266,-1.4377,-2.0279,10.4367,4.8989,-0.0201,-1.1557,-2.1309
2761.7188,8.8529,2.7724,1.3453,0.9709,-0.6256,3.6690,3.8010,0.7733,3.2110,9.7575,4.5000,-0.8420,-0.7707,-1.7891,7.4993,4.2522,-0.0848,-0.2188,-1.1222
2765.6250,9.8887,3.6671,2.5699,2.2210,0.4871,3.8358,3.7231,1.7997,4.4964,9.0684,4.5899,-0.2337,0.8626,-1.0170,6.2860,4.0097,0.4343,1.4837,0.5903
2769.5312,12.2456,4.5229,3.4879,3.2014,1.1708,3.5713,2.1458,2.2636,6.0476,10.1823,5.1404,1.1413,2.8961,0.0176,5.6742,3.7216,1.2622,2.9754,2.4621
2773.4375,13.7802,4.6270,3.6299,3.9733,1.5170,2.6842,-0.4191,2.2719,6.7755,11.2134,5.1151,2.7514,4.7493,1.1960,4.8713,3.1598,2.2842,3.5657,3.9747
2777.3438,13.4849,4.0024,3.1682,4.8042,2.1131,1.5871,-2.6638,2.2859,6.4095,11.3802,4.3634,4.2285,6.1694,2.6282,4.1154,2.5704,3.6404,3.2322,4.9769
2781.2500,12.0560,3.4637,2.8277,5.9548,3.6292,1.2112,-3.1556,2.8762,5.6554,11.4382,3.7138,5.5124,7.2740,4.5002,4.4962,2.5359,5.5213,2.5975,5.7241
2785.1562,11.3125,4.1194,3.3547,7.3806,6.2099,2.4998,-1.2116,4.3137,5.7060,12.9435,4.3271,6.7180,8.2721,6.7778,7.0394,3.5239,7.8123,2.5109,6.5668
2789.0625,12.8652,6.6127,4.9225,8.5805,9.1212,5.7496,2.6032,6.2556,7.4263,16.8893,6.7817,7.8705,9.1174,9.0001,11.7181,5.4503,9.9023,3.5041,7.5459
2792.9688,16.8959,10.5915,6.9405,8.7840,10.9972,10.2261,6.7448,7.7926,10.7371,22.6611,10.5435,8.7642,9.4170,10.3831,17.1149,7.5981,10.8879,5.4742,8.2556
2796.8750,21.8318,14.7716,8.4456,7.4394,10.6320,14.3618,9.6098,7.9159,14.5872,28.0489,14.1953,9.0843,8.7130,10.2392,21.0241,8.9897,10.1091,7.7865,8.1352
2800.7812,25.1543,17.5872,8.8055,4.7095,7.8319,16.5053,10.5146,6.1676,17.5235,30.3829,16.2730,8.6916,6.9300,8.4589,21.6592,8.9817,7.6598,9.6918,6.9819
2804.6875,24.8837,18.0460,8.1996,1.5969,3.7231,15.8260,10.0596,3.0586,18.4995,28.1352,16.1452,7.8094,4.6023,5.6968,18.7186,7.6760,4.4685,10.7485,5.2566
2808.5938,20.8559,16.2699,7.4915,-0.4803,0.2208,12.8401,9.6071,-0.0633,17.4285,22.0055,14.3610,6.9136,2.6381,3.0735,13.6421,5.8582,1.8193,10.9649,3.8775
2812.5000,14.9981,13.3985,7.5630,-0.4705,-1.0624,9.2068,10.2273,-1.6784,15.1705,14.7826,12.2593,6.3789,1.7435,1.5433,8.8828,4.5008,0.5935,10.6112,3.5974
2816.4062,10.3818,10.9242,8.6066,1.6531,0.2245,6.8685,11.8556,-0.9203,12.9968,9.9814,11.1270,6.1633,1.9292,1.3475,6.6179,4.1710,0.7502,9.9091,4.4213
2820.3125,9.5556,9.8730,9.9218,4.8086,2.9941,7.0032,13.2726,1.9392,11.8808,9.9894,11.4617,5.8198,2.5080,1.9434,7.6421,4.7400,1.4355,8.8745,5.5407
2824.2188,13.1042,10.3119,10.3949,7.3996,5.4611,9.3922,12.9404,5.6502,12.0316,14.7717,12.7834,4.8810,2.6347,2.4771,11.0565,5.5706,1.6713,7.4371,5.8949
2828.1250,19.2819,11.4415,9.3229,8.2395,6.3108,12.5701,10.1170,8.6857,12.9047,21.8852,14.0555,3.3455,2.0143,2.4659,14.8808,6.0189,1.1461,5.7005,4.9787
2832.0312,24.9525,12.1640,6.9734,7.2261,5.5077,14.6689,5.4777,10.0499,13.6218,27.8028,14.3836,1.8683,1.2314,2.1858,17.1841,5.8801,0.5252,4.0741,3.2905
2835.9375,27.3049,11.7486,4.4617,5.3406,4.2093,14.4619,0.8194,9.7108,13.5067,29.7927,13.5251,1.4397,1.4056,2.4579,17.0714,5.4736,1.0232,3.1029,2.0504
2839.8438,25.3484,10.1961,3.0246,3.9883,3.8724,12.0040,-1.9365,8.4407,12.4162,27.2755,11.9195,2.7156,3.3696,3.9681,14.9987,5.3385,3.5015,3.0810,2.3476
2843.7500,20.3248,8.1305,3.2129,4.1192,5.1953,8.5193,-1.7692,7.2292,10.7087,21.9116,10.2877,5.4545,6.9460,6.6153,12.3160,5.7898,7.7153,3.7440,4.3187
2847.6562,14.8377,6.3458,4.5681,5.6882,7.6271,5.6415,1.0274,6.6793,8.9314,16.4363,9.1195,8.4868,10.8635,9.3872,10.3826,6.6653,12.2529,4.3208,6.9603
2851.5625,11.2749,5.3287,5.9876,7.7594,9.7564,4.4870,5.2060,6.7487,7.4637,13.0083,8.4000,10.3001,13.4217,10.8978,9.8062,7.4344,15.2515,3.9789,8.7336
2855.4688,10.5074,5.0481,6.4858,9.1264,10.2656,5.1072,9.3336,6.9299,6.3505,12.0869,7.7297,9.8981,13.4861,10.2439,10.2220,7.5679,15.4469,2.3984,8.5543
2859.3750,11.6295,5.1009,5.8004,9.0121,8.7660,6.6058,12.3964,6.6745,5.4053,12.4695,6.7159,7.3909,11.1562,7.5961,10.6705,6.8939,12.8889,0.0834,6.4819
2863.2812,12.8023,5.0665,4.4493,7.4167,5.9546,7.7815,13.9158,5.7449,4.4723,12.3475,5.3416,3.9375,7.6718,4.1129,10.2702,5.6914,8.8772,-1.8339,3.6439
2867.1875,12.5594,4.8048,3.2612,4.9700,3.0431,7.8559,13.7002,4.2918,3.6309,10.6042,4.0426,1.0791,4.6319,1.2276,8.7451,4.4772,5.1841,-2.2150,1.4691
2871.0938,10.6841,4.4971,2.7689,2.4723,0.9130,6.8361,11.6321,2.6723,3.1717,7.4807,3.4304,-0.1189,3.0492,-0.2189,6.5067,3.6517,3.0659,-0.6007,0.7697
2875.0000,8.1265,4.4217,2.8955,0.4631,-0.3982,5.3384,7.7746,1.1904,3.3441,4.2346,3.8336,0.3970,2.8331,-0.4376,4.3086,3.2532,2.6642,2.4497,1.2829
2878.9062,6.1328,4.6418,3.1031,-0.9424,-1.5642,4.0591,2.7036,-0.0542,4.0551,2.1347,4.9655,1.7347,2.9797,-0.4706,2.7581,2.9717,3.1024,5.5665,1.9274
2882.8125,5.2910,4.8485,2.8240,-1.9375,-3.3536,3.2898,-2.3270,-1.1392,4.7609,1.5766,5.9641,2.6314,2.2823,-1.4734,2.0291,2.3962,3.1420,7.2101,1.5408
2886.7188,5.2083,4.4975,1.8322,-2.7964,-6.0112,2.8015,-5.7200,-2.1881,4.6905,1.9606,5.8381,2.1664,0.0841,-3.9784,1.9406,1.3251,1.9521,6.3963,-0.4187
2890.6250,5.0173,3.1747,0.3197,-3.7117,-9.0638,2.1387,-6.3037,-3.2532,3.3130,2.3718,4.0902,0.2204,-3.3596,-7.5819,2.2844,-0.0512,-0.4492,3.1440,-3.6233
2894.5312,4.2740,0.9589,-1.3017,-4.7570,-11.6372,1.0733,-4.0586,-4.2856,0.7700,2.4923,1.1520,-2.5119,-7.0477,-11.1859,3.1155,-1.1914,-3.2652,-1.5461,-7.1436
2898.4375,3.5104,-1.4805,-2.6680,-5.9193,-13.0106,-0.1337,-0.2491,-5.1816,-2.0350,3.0045,-1.6737,-4.8945,-9.7495,-13.5845,4.7553,-1.4388,-5.3779,-6.1348,-9.9733
2902.3438,3.9708,-3.1628,-3.6067,-7.1205,-13.0148,-0.8626,3.2242,-5.8437,-3.8206,5.1304,-2.8050,-5.8819,-10.5580,-14.0256,7.4889,-0.3316,-5.8939,-9.1882,-11.4619
2906.2500,6.6774,-3.3301,-4.1177,-8.2128,-12.0465,-0.5704,4.8871,-6.2129,-3.6172,9.6090,-1.2381,-4.9707,-9.2304,-12.4789,11.1753,2.1474,-4.5131,-9.9482,-11.4701
2910.1562,11.4928,-1.9337,-4.2900,-8.9949,-10.7566,0.7778,4.4744,-6.2694,-1.3789,15.8539,2.7943,-2.4112,-6.2379,-9.5551,15.0711,5.4821,-1.6084,-8.6113,-10.2853
2914.0625,16.8830,0.2365,-4.2601,-9.2890,-9.6690,2.5911,2.9085,-6.0243,1.8676,21.9410,7.7639,0.8737,-2.5711,-6.2066,18.0344,8.7367,1.9477,-6.2157,-8.4474
2917.9688,20.6171,1.9007,-4.2194,-9.0443,-8.9633,3.9471,1.5041,-5.5156,4.4724,25.5097,11.4822,3.6296,0.6063,-3.3773,19.0192,10.8464,5.0974,-4.1766,-6.5869
2921.8750,20.9947,1.9545,-4.3881,-8.3811,-8.4958,4.1181,0.9722,-4.8001,4.9988,25.0401,12.1420,4.7588,2.3560,-1.7150,17.5804,10.9979,6.9416,-3.6466,-5.2713
2925.7812,17.8254,0.0917,-4.8999,-7.5192,-7.9703,2.9942,0.9344,-3.9371,2.9916,20.7094,9.2301,3.7808,2.3044,-1.3968,14.0987,8.9604,7.0203,-4.9682,-4.8285
2929.6875,12.5444,-2.9776,-5.6544,-6.6335,-7.1286,1.1367,0.2816,-2.9783,-0.7542,14.3045,3.8228,1.0655,0.7846,-2.0970,9.6114,5.2248,5.4513,-7.4799,-5.1896
2933.5938,7.4041,-5.8560,-6.2785,-5.7578,-5.8841,-0.5659,-1.8964,-1.9918,-4.5786,8.2700,-1.9042,-2.2962,-1.3202,-3.1336,5.3610,0.8647,2.8688,-9.8023,-5.8722
2937.5000,4.2570,-7.1689,-6.2898,-4.8276,-4.3910,-1.4177,-5.4873,-1.1186,-6.7843,4.4798,-5.6977,-4.9579,-3.0031,-3.7793,2.3074,-2.8472,0.1672,-10.5009,-6.1989
2941.4062,3.6614,-6.2680,-5.3956,-3.8320,-3.0444,-1.2895,-9.2313,-0.6099,-6.4560,3.4297,-6.2529,-5.9143,-3.6323,-3.6254,0.8269,-4.9134,-1.8578,-8.8084,-5.6835
2945.3125,4.7990,-3.5445,-3.7189,-2.9280,-2.3789,-0.6303,-11.3876,-0.7701,-3.8430,4.2402,-3.7304,-4.9293,-3.2368,-2.8029,0.6893,-4.9707,-2.8098,-5.0292,-4.3535
2949.2188,6.1732,-0.1824,-1.7588,-2.3780,-2.8327,-0.1291,-10.7444,-1.7809,-0.1329,5.3684,0.4622,-2.5754,-2.3942,-1.8941,1.2705,-3.3728,-2.7879,-0.3959,-2.7581
2953.1250,6.6192,2.5037,-0.0713,-2.3109,-4.4350,-0.2420,-7.3148,-3.4864,3.2266,5.5736,4.4603,0.1268,-1.7754,-1.5419,1.8852,-0.9724,-2.2306,3.5594,-1.5982
2957.0312,6.0310,3.7803,1.1241,-2.4809,-6.5885,-0.8689,-2.3065,-5.2965,5.2778,4.6318,6.8741,2.2601,-1.6380,-1.9700,2.1228,1.2814,-1.6033,5.7834,-1.1895
2960.9375,5.4316,3.8768,2.1292,-2.2520,-8.1497,-1.3575,2.5534,-6.3410,5.9970,3.4871,7.4000,3.4528,-1.6096,-2.7296,2.0796,2.7398,-1.1046,6.2126,-1.1277
2964.8438,6.3943,3.8417,3.5870,-0.9011,-7.8764,-0.8239,5.8728,-5.8598,6.2347,3.8146,6.8531,3.9976,-0.9118,-2.8749,2.3872,3.2783,-0.5554,5.7506,-0.4255
2968.7500,10.1449,4.9606,6.0347,1.9044,-5.0765,1.3813,7.1246,-3.6371,7.2133,7.1947,6.6580,4.6251,1.1197,-1.5031,3.9618,3.2756,0.4785,5.7474,1.9086
2972.6562,16.7892,8.0336,9.4796,5.7695,-0.1014,5.2925,6.6349,-0.2153,9.8447,14.2235,8.0727,6.0860,4.5611,1.6526,7.5053,3.3821,2.4028,7.2716,6.1902
2976.5625,25.0261,12.8717,13.2714,9.6327,5.6452,10.2051,5.1751,3.2823,14.1869,23.9220,11.5124,8.7515,8.7746,5.9430,12.9402,4.1848,5.2988,10.5531,11.7056
2980.4688,32.4859,18.2507,16.3530,12.2434,10.2619,14.8582,3.4927,5.6554,19.2883,33.7573,16.2673,12.3887,12.6869,10.0201,19.0975,5.9005,8.7605,14.8476,16.9231
2984.3750,36.5895,22.3521,17.7316,12.7862,12.2114,17.8518,2.0452,6.1885,23.4971,40.4069,20.7307,16.1706,15.2724,12.4405,23.9394,8.2141,11.9433,18.7505,20.1672
2988.2812,35.6042,23.5047,16.9021,11.2796,11.0341,18.1468,0.9901,4.9549,25.1219,41.0829,23.0506,18.9083,15.9466,12.3286,25.3559,10.3423,13.8253,20.7837,20.3872
2992.1875,29.4635,20.9162,14.0231,8.5165,7.5345,15.4684,0.3098,2.7018,23.1786,34.8917,21.9420,19.4537,14.6948,9.7636,22.2244,11.3314,13.6012,19.9961,17.6173
2996.0938,19.9595,15.0804,9.8133,5.6055,3.3594,10.4627,-0.0699,0.4114,17.9007,23.5422,17.3216,17.1788,11.9666,5.7321,15.1764,10.5039,11.0749,16.3517,12.9266
3000.0000,10.1442,7.6734,5.2762,3.4139,0.2226,4.5244,-0.2243,-1.1880,10.7666,10.9095,10.4685,12.3690,8.4916,1.7192,6.5768,7.8674,6.8806,10.7812,7.9319
3003.9062,3.1293,0.9512,1.3927,2.2351,-0.8119,-0.6695,-0.2097,-1.8889,3.9885,1.5006,3.5960,6.3241,5.1308,-0.8510,-0.3930,4.2662,2.3853,4.8848,4.1420
3007.8125,0.7911,-3.1208,-1.1307,1.8245,0.3385,-3.7681,-0.0465,-1.9486,-0.3515,-1.5219,-1.0255,1.0122,2.7452,-1.1064,-3.1548,1.1312,-0.7682,0.3806,2.4205
3011.7188,2.9877,-3.6464,-2.0242,1.6984,2.9042,-4.2583,0.2805,-1.8120,-1.1511,2.2182,-2.0322,-1.6876,1.9927,0.9894,-0.9390,-0.1297,-1.3495,-1.5213,2.7504
3015.6250,7.6817,-1.1447,-1.5057,1.4566,5.6970,-2.6575,0.7696,-1.8224,1.2572,10.1583,0.4231,-0.8628,3.0351,4.6179,4.8566,1.1565,0.8335,-0.5890,4.3337
3019.5312,11.9119,2.6956,-0.1928,0.9399,7.5975,-0.2875,1.3045,-2.0829,5.2551,18.0253,4.7105,2.8723,5.2956,8.3570,11.3406,4.4819,4.7068,2.3166,5.9505
3023.4375,13.1221,5.7409,1.1258,0.1898,7.9037,1.2814,1.5898,-2.4948,8.6202,21.7979,8.4151,7.4936,7.4961,10.6536,15.4641,8.2567,8.2934,5.5612,6.4371
