Time,Fp1,F3,C3,P3,O1,F7,T3,T5,Fz,Fp2,F4,C4,P4,O2,F8,T4,T6,Cz,Pz
0.0000,2.7722,1.3166,-0.6632,0.7998,2.7335,-4.3841,-0.7801,0.8718,-2.8017,-0.1424,2.3947,0.9061,3.6698,4.0827,-1.8822,-0.4922,1.8975,0.6258,2.8405
3.9062,4.1559,-2.5160,1.5153,3.1658,4.0994,-3.4594,0.4465,2.1548,-1.2886,-1.7055,1.5915,1.5465,4.8957,4.8163,-2.4465,-1.2700,2.9319,1.9622,4.4301
7.8125,4.7465,-7.3958,4.0108,5.4713,4.8201,-0.6894,2.1554,3.0936,0.8668,-3.0931,-0.0634,2.2107,5.5175,4.6625,-2.1031,-2.1408,3.7926,3.0632,5.7087
11.7188,3.5758,-11.4838,5.8941,6.6293,4.1966,3.3370,3.7918,3.0679,3.0840,-3.8023,-2.4914,2.4768,4.8485,3.1982,-0.6881,-2.8992,4.0640,3.2462,5.9042
15.6250,0.5496,-12.9286,6.4990,6.0717,2.1783,7.1597,4.7364,1.9549,4.8384,-3.7188,-5.1958,2.0992,2.7645,0.6968,1.3340,-3.2821,3.6261,2.3412,4.6786
19.5312,-3.1798,-10.9533,5.8252,4.1217,-0.5116,9.2400,4.6437,0.2705,5.9312,-3.1377,-7.3738,1.2042,-0.1533,-1.9361,3.0697,-3.0408,2.7052,0.8936,2.3548
23.4375,-5.6624,-6.3768,4.5342,1.7959,-2.7437,8.8791,3.6493,-1.1109,6.4988,-2.4867,-8.2162,0.2530,-2.8960,-3.6659,3.7003,-2.0603,1.6922,-0.1223,-0.2362
27.3438,-5.2736,-1.1767,3.5317,0.1583,-3.6329,6.6491,2.3146,-1.4979,6.7752,-1.9638,-7.2659,-0.2208,-4.5595,-3.9580,2.9785,-0.4748,0.8666,0.0722,-2.1911
31.2500,-1.8366,2.6461,3.4076,-0.3347,-3.0500,4.0364,1.3332,-0.8238,6.8117,-1.3743,-4.6661,0.0592,-4.7990,-3.1070,1.3947,1.2945,0.2342,1.5043,-2.9777
35.1562,3.0397,4.1402,4.0964,-0.0484,-1.6552,2.5281,1.1684,0.3137,6.3850,-0.3130,-1.1752,0.9228,-3.9356,-2.0232,-0.1017,2.6385,-0.4059,3.3488,-2.6236
39.0625,6.7348,3.6955,4.9589,0.1931,-0.4336,2.7409,1.8256,1.0491,5.1815,1.4266,2.0652,1.8204,-2.6792,-1.6105,-0.6505,2.9840,-1.2256,4.3750,-1.5782
42.9688,7.0913,2.4103,5.2083,-0.2321,-0.0517,4.1435,2.8762,0.8161,3.1249,3.5225,3.9230,2.1048,-1.6800,-2.1570,0.0502,2.0555,-2.1521,3.6697,-0.3875
46.8750,3.6729,1.0832,4.3939,-1.2633,-0.4704,5.5077,3.7048,-0.2913,0.6048,5.1506,3.6868,1.3693,-1.1997,-3.1593,1.6379,0.0480,-2.8476,1.1903,0.5846
50.7812,-2.0043,-0.3516,2.6588,-2.1950,-1.0591,5.7471,3.8386,-1.5937,-1.5765,5.4123,1.3561,-0.3330,-1.0787,-3.7030,3.3817,-2.3908,-2.9071,-2.1774,1.2391
54.6875,-7.4019,-2.4950,0.6695,-2.1828,-1.1027,4.5900,3.1927,-2.2684,-2.5285,3.9160,-2.2912,-2.4808,-0.9564,-3.1327,4.6538,-4.3871,-2.1384,-5.0541,1.6489
58.5938,-10.4157,-5.5505,-0.6826,-0.8391,-0.3283,2.7022,2.1235,-1.8494,-1.6807,1.1362,-5.8979,-4.2705,-0.5561,-1.5456,5.2607,-5.1887,-0.7259,-6.2065,1.9246
62.5000,-10.4068,-8.6104,-0.6185,1.5038,0.9153,1.2601,1.2770,-0.4684,0.9523,-1.7156,-7.9691,-4.9095,0.1556,0.2298,5.4377,-4.4863,0.8345,-5.0325,2.1595
66.4062,-8.2051,-9.8681,1.2780,4.0200,1.9261,1.2927,1.3019,1.2861,4.7736,-3.2768,-7.4400,-3.9138,0.9930,1.1528,5.5595,-2.5551,1.9821,-1.7020,2.4538
70.3125,-5.2408,-7.7556,4.9163,5.9046,2.1471,3.1746,2.5390,2.7483,8.8347,-2.7552,-4.1670,-1.3226,1.6855,0.6311,5.8073,-0.1462,2.3590,2.9984,2.9289
74.2188,-2.5373,-2.2380,9.6380,6.7915,1.5318,6.4770,4.8149,3.5201,12.1510,-0.3716,0.8921,2.2400,2.0023,-1.1135,6.0379,1.8337,1.9429,7.9348,3.6530
78.1250,-0.2985,4.7287,14.2646,6.8035,0.5338,10.1574,7.4367,3.5773,13.9648,2.7378,5.9590,5.7011,1.8095,-3.1982,5.9331,2.7128,0.9976,11.8750,4.5117
82.0312,1.7310,10.0443,17.3408,6.2688,-0.2386,12.9408,9.4252,3.1312,13.8936,5.1085,9.1308,7.8722,1.0824,-4.6215,5.2943,2.3342,-0.0886,13.7159,5.1519
85.9375,3.5920,11.1653,17.6119,5.3857,-0.4292,13.7503,9.9205,2.4084,11.9774,5.6986,9.2124,7.8956,-0.0731,-4.8283,4.2491,1.0924,-0.9599,12.7566,5.1125
89.8438,4.7913,7.5764,14.6123,4.1241,-0.1152,12.0925,8.5952,1.5330,8.6603,4.3900,6.2852,5.6366,-1.3856,-3.9465,3.2106,-0.2870,-1.3725,9.0092,4.1165
93.7500,4.6441,1.0763,9.0698,2.4283,0.3398,8.3049,5.8697,0.5760,4.7176,1.9805,1.6978,1.8295,-2.4234,-2.5927,2.6205,-1.1111,-1.2049,3.3978,2.3452
97.6562,2.9668,-5.2851,2.8182,0.5223,0.6137,3.5442,2.7871,-0.3155,1.1168,-0.3058,-2.5537,-2.1325,-2.7062,-1.4240,2.6674,-1.0374,-0.4506,-2.3669,0.4796
101.5625,0.4676,-8.8917,-1.8677,-0.9788,0.6768,-0.5739,0.5729,-0.8583,-1.1908,-1.4996,-4.7550,-4.7168,-1.9149,-0.7496,3.1816,-0.1860,0.7712,-6.3261,-0.5806
105.4688,-1.5827,-8.7955,-3.2582,-1.2999,0.7886,-2.6137,0.0782,-0.7269,-1.5194,-1.3751,-4.2341,-4.8701,-0.0986,-0.4322,3.7753,0.9946,2.2037,-7.0593,-0.1877
109.3750,-2.2043,-5.8306,-0.9763,0.0415,1.2641,-1.9689,1.3930,0.2502,0.3261,-0.4886,-1.5669,-2.4620,2.2586,-0.0927,4.1141,2.0073,3.4844,-4.3411,1.6669
113.2812,-1.4079,-1.7521,3.8254,2.8644,2.2001,0.8437,3.8328,1.9293,3.9218,0.2307,1.8414,1.6459,4.3842,0.5567,4.1158,2.5596,4.2431,0.7035,4.2954
117.1875,-0.1388,1.8599,9.0323,6.3023,3.3579,4.4598,6.3005,3.8491,8.2550,0.0821,4.5172,5.9352,5.5242,1.4787,3.9367,2.6485,4.2334,6.0710,6.6300
121.0938,0.5310,4.2016,12.5710,9.1656,4.2735,7.3989,7.8161,5.4032,11.9474,-0.9675,5.5754,8.8185,5.2557,2.3077,3.7736,2.4595,3.4308,9.7574,7.7274
125.0000,0.3225,5.1501,13.3003,10.4793,4.5002,8.8265,7.9231,6.0922,13.6582,-2.2615,4.9424,9.2339,3.6464,2.5563,3.6527,2.1831,2.0426,10.5992,7.1744
128.9062,-0.0005,4.8325,11.3422,9.8860,3.8218,8.8854,6.7770,5.7181,12.5765,-2.8525,3.1131,7.0164,1.1945,1.8951,3.3825,1.8912,0.4281,8.6658,5.1889
132.8125,0.6863,3.3739,7.7628,7.7145,2.3221,8.4041,4.9206,4.4306,8.8229,-2.0819,0.7002,2.9257,-1.3945,0.3550,2.7176,1.5485,-1.0255,5.0599,2.4157
136.7188,2.7700,1.0177,3.8914,4.7327,0.3182,8.2075,2.9351,2.6299,3.5449,0.0028,-1.8880,-1.6592,-3.4660,-1.6419,1.6042,1.1211,-2.0121,1.3024,-0.4106
140.6250,5.3067,-1.6333,0.7174,1.7785,-1.7595,8.5153,1.1915,0.8016,-1.4357,2.6353,-4.4543,-5.2504,-4.5940,-3.4297,0.3044,0.6680,-2.3712,-1.3414,-2.7228
144.5312,6.5160,-3.6598,-1.3311,-0.5175,-3.4611,8.8303,-0.1771,-0.6297,-4.3482,4.7196,-6.7834,-6.7780,-4.6362,-4.3579,-0.7253,0.3280,-2.1049,-2.2732,-4.1957
148.4375,5.0917,-4.2810,-2.2265,-1.8163,-4.3762,8.3591,-1.1312,-1.3801,-4.2607,5.3855,-8.4328,-5.9403,-3.6955,-4.0602,-1.1350,0.2126,-1.3575,-1.5959,-4.6797
152.3438,1.3495,-3.4107,-2.0466,-2.0131,-4.2046,6.6334,-1.5707,-1.3277,-1.5065,4.3884,-8.7749,-3.2523,-2.0438,-2.6223,-0.9493,0.3031,-0.3638,0.1328,-4.1254
156.2500,-2.7382,-1.8194,-0.8198,-1.1622,-2.8687,3.8832,-1.3126,-0.5098,2.5218,2.1485,-7.3216,0.2204,-0.0499,-0.5716,-0.5914,0.4503,0.6349,2.2213,-2.5946
160.1562,-4.7733,-0.6809,1.3788,0.5287,-0.6308,0.9259,-0.2280,0.8780,6.1250,-0.5458,-4.1370,3.3120,1.8800,1.3204,-0.6184,0.4894,1.4820,4.0692,-0.3470
164.0625,-3.6024,-0.7866,4.1994,2.6508,1.8807,-1.3108,1.5632,2.4841,8.1574,-2.9502,-0.0470,5.1846,3.3544,2.3486,-1.3344,0.3745,2.1538,5.2453,2.0942
167.9688,-0.1987,-2.0281,6.8905,4.5846,3.8133,-2.2748,3.5930,3.8346,8.4660,-4.6349,3.5409,5.5362,4.0430,2.1554,-2.5481,0.2134,2.7165,5.4697,4.0018
171.8750,2.9491,-3.5629,8.4423,5.6135,4.3874,-1.9767,5.1375,4.4256,7.6544,-5.4922,5.1699,4.5255,3.7167,0.8424,-3.6511,0.1586,3.1946,4.5919,4.6516
175.7812,3.5548,-4.5347,7.9829,5.1636,3.2239,-0.8255,5.4852,3.8773,6.3896,-5.5598,3.9725,2.5143,2.2789,-1.1410,-3.9791,0.2372,3.4314,2.6177,3.5979
179.6875,1.1359,-4.7556,5.2329,3.0715,0.5335,0.6862,4.2591,2.1040,4.8073,-4.8540,0.0984,-0.1699,-0.2012,-3.2613,-3.2206,0.2699,3.0610,-0.2234,0.8849
183.5938,-2.6693,-4.7796,0.7638,-0.2649,-2.9391,2.1957,1.6360,-0.5759,2.5017,-3.3661,-5.2816,-3.2832,-3.4548,-5.1566,-1.6072,-0.0276,1.6665,-3.4334,-2.9164
187.5000,-5.3055,-5.3015,-4.1073,-3.9597,-6.2005,3.4833,-1.6522,-3.4705,-0.8668,-1.2162,-10.4030,-6.5182,-6.9938,-6.7303,0.2263,-0.8110,-0.9255,-6.2912,-6.8727
191.4062,-5.1427,-6.4002,-7.7772,-6.9356,-8.3844,4.3851,-4.5518,-5.7150,-4.8338,1.1957,-13.5761,-9.3192,-10.1469,-8.0442,1.6040,-1.9124,-4.3838,-8.0198,-9.9880
195.3125,-2.6081,-7.3054,-8.9852,-8.3266,-9.0428,4.7701,-6.0739,-6.5887,-7.9280,3.2141,-13.8068,-10.8732,-12.1824,-9.1070,2.1509,-2.8499,-7.8392,-8.0410,-11.5184
199.2188,0.2079,-6.9511,-7.3371,-7.8054,-8.2346,4.6382,-5.6810,-5.8159,-8.3289,4.1773,-11.1223,-10.3795,-12.5110,-9.7306,1.9087,-3.0699,-10.1632,-6.2246,-11.1845
203.1250,1.1525,-4.9145,-3.4857,-5.6814,-6.4072,4.2242,-3.5113,-3.6991,-5.0612,3.7562,-6.4959,-7.4958,-10.9048,-9.5752,1.1992,-2.2807,-10.4512,-3.0117,-9.2117
207.0312,-0.3853,-1.9695,1.1228,-2.7280,-4.1640,3.9409,-0.3374,-0.9998,1.0782,2.1548,-1.4395,-2.7007,-7.6376,-8.3707,0.3703,-0.6575,-8.4635,0.6689,-6.2090
210.9375,-3.0511,0.2623,4.8332,0.1631,-2.0466,4.1215,2.7326,1.3869,7.5962,0.0186,2.5427,2.6859,-3.4733,-6.1689,-0.3857,1.2188,-4.7770,3.6869,-2.9550
214.8438,-4.5739,0.3786,6.4350,2.3192,-0.4208,4.7236,4.6853,2.8019,11.4915,-1.9114,4.4162,6.9054,0.5125,-3.4512,-1.0480,2.6515,-0.5597,5.0964,-0.1890
218.7500,-3.4916,-1.7905,5.5877,3.4469,0.5188,5.2500,4.9720,3.0417,10.8960,-3.1807,3.8456,8.4300,3.2203,-1.0037,-1.6614,3.1592,2.9071,4.4592,1.5209
222.6562,-0.2769,-4.9962,2.8344,3.5681,0.6785,5.0194,3.6565,2.3257,6.1471,-3.7937,1.1656,6.5845,3.8306,0.3845,-2.2320,2.6536,4.7023,1.9717,1.8199
226.5625,2.9444,-7.3822,-0.7670,2.8199,0.0093,3.6523,1.2900,1.0630,-0.4061,-4.0723,-2.8200,1.8288,2.0365,0.2382,-2.7097,1.3920,4.5120,-1.6473,0.5672
230.4688,3.8586,-7.7152,-4.1711,1.2932,-1.4826,1.4347,-1.3895,-0.4111,-5.7542,-4.3197,-7.0929,-4.4234,-1.8527,-1.4301,-3.0463,-0.2160,2.5871,-5.4387,-2.1461
234.3750,1.5539,-6.1554,-6.7407,-0.9659,-3.6599,-0.7391,-3.7614,-1.9516,-7.8852,-4.5437,-10.6497,-10.3490,-6.9605,-4.1526,-3.2506,-1.7915,-0.4786,-8.5222,-5.9421
238.2812,-2.8676,-4.0437,-8.3304,-3.7979,-6.1723,-1.8643,-5.4768,-3.5198,-6.7278,-4.4487,-12.6974,-14.3796,-12.0417,-7.1923,-3.3803,-3.0633,-3.9708,-10.3319,-10.1182
242.1875,-7.0247,-2.9185,-9.0848,-6.7574,-8.4495,-1.4583,-6.4273,-4.9929,-3.8670,-3.7075,-12.8335,-15.7118,-15.8031,-9.7733,-3.4851,-3.8495,-7.1724,-10.7117,-13.7160
246.0938,-8.7691,-3.5070,-9.1486,-9.0996,-9.8207,0.1070,-6.6098,-6.0462,-1.3332,-2.3098,-11.1922,-14.4887,-17.2723,-11.2642,-3.5681,-4.0341,-9.4013,-9.8799,-15.7514
250.0000,-7.4343,-5.3730,-8.5094,-9.9993,-9.7425,1.8270,-6.0186,-6.2261,-0.3242,-0.7150,-8.4699,-11.6116,-16.1011,-11.2897,-3.6104,-3.5992,-10.0763,-8.3042,-15.5509
253.9062,-4.0558,-7.3552,-7.0601,-8.9094,-8.0408,2.7168,-4.6466,-5.1883,-0.6632,0.3361,-5.7330,-8.2875,-12.6806,-9.7876,-3.6273,-2.6838,-8.8798,-6.5265,-13.0423
257.8125,-0.5555,-8.3495,-4.7946,-5.8554,-5.0368,2.4607,-2.5739,-2.9443,-1.2209,0.2521,-4.0009,-5.5031,-7.9988,-7.0249,-3.6815,-1.5873,-5.9636,-4.9739,-8.8263
261.7188,1.4578,-7.8415,-1.9569,-1.4855,-1.4691,1.6088,-0.0567,0.0550,-0.8716,-1.0192,-3.7611,-3.6523,-3.2819,-3.5581,-3.8090,-0.6621,-2.0433,-3.8068,-3.9638
265.6250,1.4855,-5.9265,0.9806,3.1563,1.7707,1.1673,2.4691,3.0645,0.7284,-2.9170,-4.6890,-2.4787,0.4285,-0.1094,-3.9139,-0.1435,1.7562,-2.8740,0.4282
269.5312,0.1448,-3.0281,3.4850,7.0011,3.9678,1.8505,4.4822,5.3297,3.0118,-4.5784,-5.7923,-1.3663,2.5726,2.6289,-3.7466,-0.0407,4.2982,-1.8282,3.5548
273.4375,-1.4374,0.2936,5.1446,9.2703,4.8083,3.5065,5.5181,6.3478,4.9806,-5.3403,-5.9778,0.1695,3.1180,4.1898,-3.0453,-0.1834,4.8941,-0.3778,5.1017
277.3438,-2.3456,3.2881,5.7434,9.6074,4.3903,5.1311,5.2922,5.9765,5.8532,-5.1005,-4.7495,2.0619,2.3730,4.4311,-1.7793,-0.4020,3.5739,1.4436,5.1278
281.2500,-2.2858,4.9463,5.2234,8.0424,3.0437,5.4991,3.7780,4.3871,5.4297,-4.2997,-2.6062,3.6070,0.7132,3.4870,-0.3190,-0.6999,1.0075,3.1658,3.8260
285.1562,-1.5738,4.2690,3.6387,4.9093,1.1032,4.0168,1.2479,1.9564,4.0265,-3.5495,-0.8361,3.8103,-1.5914,1.6184,0.6440,-1.2644,-1.8741,4.0419,1.3678
289.0625,-0.8545,0.9153,1.2019,0.8148,-1.1990,1.2285,-1.7175,-0.8049,2.1753,-3.1821,-0.7638,2.0041,-4.3489,-0.9161,0.4446,-2.2792,-4.3217,3.4428,-2.0373
292.9688,-0.7646,-4.2021,-1.5960,-3.3526,-3.6531,-1.3926,-4.2894,-3.2737,0.3851,-3.0530,-2.8745,-1.6116,-7.2685,-3.8662,-1.1252,-3.6663,-6.0093,1.2826,-5.9288
296.8750,-1.6532,-8.9897,-3.9377,-6.4925,-5.8939,-2.2858,-5.5758,-4.7648,-0.8993,-2.7426,-6.3725,-5.8544,-9.7993,-6.8742,-3.5848,-4.9672,-6.9582,-1.7857,-9.4452
300.7812,-3.3968,-11.1497,-4.8611,-7.5471,-7.3176,-0.7759,-4.9372,-4.6912,-1.2523,-2.0009,-9.5021,-9.0000,-11.1624,-9.3679,-5.9188,-5.4963,-7.2571,-4.5628,-11.4519
304.6875,-5.3549,-9.5846,-3.6768,-5.9144,-7.2409,2.4381,-2.3262,-2.8241,-0.3351,-1.0814,-10.4997,-9.5878,-10.6293,-10.6238,-7.0624,-4.7147,-6.8344,-5.8268,-10.9833
308.5938,-6.5555,-5.2746,-0.4210,-1.8322,-5.2803,5.6138,1.5465,0.4813,1.8677,-0.6714,-8.6297,-7.1723,-7.9331,-10.0592,-6.4446,-2.5988,-5.4875,-4.9277,-7.7949
312.5000,-6.1420,-0.8773,3.9641,3.5228,-1.7320,6.9511,5.3830,4.2743,4.8184,-1.4144,-4.6726,-2.6060,-3.5771,-7.6246,-4.2708,0.2410,-3.1652,-2.1361,-2.6873
316.4062,-3.9192,0.8567,7.9188,8.3660,2.3311,5.6506,7.8057,7.2979,7.4715,-3.3412,-0.5441,2.3164,1.1819,-4.0335,-1.3886,2.7972,-0.2741,1.4501,2.6589
320.3125,-0.6635,-1.1227,9.9456,10.9817,5.4032,2.4000,7.9817,8.4913,8.7011,-5.6375,1.7542,5.6757,4.7432,-0.6053,1.1648,4.1396,2.2793,4.4005,6.3326
324.2188,2.1029,-5.3959,9.3321,10.4487,6.2197,-1.0170,6.0288,7.4625,7.9159,-6.9823,1.2364,6.2892,5.8197,1.2862,2.6596,3.8658,3.4367,5.6000,7.0353
328.1250,2.8748,-8.9254,6.5062,7.0556,4.4149,-2.7601,2.9525,4.6779,5.4654,-6.3081,-1.5623,4.1860,4.0352,0.8984,2.9443,2.2767,2.5688,4.7288,4.6831
332.0312,1.0644,-9.0226,2.8048,2.1859,0.7725,-1.9911,0.1254,1.2541,2.5216,-3.5149,-4.9635,0.4858,0.1453,-1.4568,2.3871,0.1946,-0.0741,2.3536,0.4402
335.9375,-2.5360,-5.1294,-0.2193,-2.2867,-3.1162,0.6889,-1.4093,-1.5475,0.4547,0.3422,-7.1554,-3.2083,-4.2639,-4.5340,1.5791,-1.4625,-3.3714,-0.3901,-3.8456
339.8438,-6.0968,0.7859,-1.5597,-4.8051,-5.6337,3.6744,-1.4135,-2.8664,0.0735,3.5597,-7.2143,-5.5590,-7.4830,-6.7916,0.9961,-2.1084,-5.8600,-2.3431,-6.5202
343.7500,-7.7485,5.4745,-1.1645,-4.7607,-5.9347,5.3742,-0.4507,-2.5612,1.2139,4.7128,-5.5258,-6.0059,-8.4480,-7.1957,0.7928,-1.7036,-6.4962,-2.8237,-6.8586
347.6562,-6.6332,6.4475,0.2041,-2.6658,-4.3178,5.1691,0.5609,-1.1694,2.9361,3.4449,-3.3884,-4.8214,-7.1782,-5.7292,0.7967,-0.6760,-5.1974,-1.8541,-5.2943
351.5625,-3.3476,3.4543,1.5239,0.1834,-1.9707,3.7217,0.9396,0.4305,4.1846,0.6408,-2.0911,-2.7628,-4.6575,-3.3138,0.6639,0.3717,-2.8288,-0.0338,-3.0531
355.4688,0.4859,-1.5214,2.1168,2.3663,-0.2563,2.4712,0.6044,1.4552,4.4585,-2.1137,-2.0741,-0.5769,-2.2371,-1.2155,0.1042,0.9860,-0.6499,1.8345,-1.4247
359.3750,3.2042,-5.6430,1.9498,2.9898,0.0334,2.6615,0.0172,1.5339,4.0440,-3.4420,-2.7114,1.3327,-0.9053,-0.3124,-0.9273,1.0417,0.4228,3.1477,-1.0825
363.2812,3.9807,-6.9854,1.4955,2.0302,-0.9697,4.5256,-0.2174,0.7834,3.6725,-2.9026,-2.8391,2.9073,-0.8389,-0.6694,-2.1594,0.6997,0.2710,3.7137,-1.8146
367.1875,3.0629,-5.5305,1.2988,0.2291,-2.4146,7.1304,0.1980,-0.3457,3.8701,-1.1188,-1.6683,4.1606,-1.4719,-1.6442,-3.1015,0.2013,-0.5125,3.6821,-2.7764
371.0938,1.3251,-2.8518,1.5602,-1.3650,-3.3193,8.9511,1.0529,-1.3321,4.4778,0.7064,0.5375,4.8837,-1.9988,-2.3993,-3.2895,-0.3484,-1.1475,3.2834,-3.0805
375.0000,-0.4341,-0.8534,2.0094,-1.9485,-3.1542,8.7987,1.7905,-1.8109,4.7024,1.5408,2.4989,4.5919,-1.9600,-2.4521,-2.5722,-1.0510,-1.2365,2.5871,-2.3547
378.9062,-1.9078,-0.4847,2.1357,-1.3195,-2.0776,6.5258,1.9028,-1.6723,3.6879,1.0683,2.6895,2.8153,-1.5277,-1.9078,-1.2679,-2.0815,-0.9905,1.4714,-0.9402
382.8125,-3.1740,-1.2554,1.6038,0.1228,-0.7294,3.1058,1.2853,-1.0229,1.2262,-0.2612,0.3742,-0.4320,-1.3187,-1.2702,-0.0594,-3.4402,-0.9827,-0.1633,0.3638
386.7188,-4.2779,-1.7636,0.5631,1.6859,0.2278,0.0713,0.3214,-0.0772,-1.8940,-1.6324,-3.7530,-4.3426,-1.8879,-1.0171,0.3670,-4.7808,-1.6446,-2.1077,0.8285
390.6250,-4.9500,-0.7890,-0.3761,2.7824,0.4981,-1.3313,-0.3561,0.9351,-4.1906,-2.4065,-7.7791,-7.4638,-3.2658,-1.2671,-0.2518,-5.4851,-2.8860,-3.7415,0.2511
394.5312,-4.7446,1.7868,-0.5104,3.1709,0.2355,-0.7819,-0.2685,1.7954,-4.3129,-2.4608,-9.5593,-8.3304,-4.8640,-1.7624,-1.5368,-4.9996,-4.1113,-4.2746,-0.9417
398.4375,-3.4919,4.7790,0.4647,2.9257,-0.1820,1.0082,0.5917,2.2717,-1.9054,-2.1585,-7.9183,-6.2746,-5.8160,-2.1434,-2.6356,-3.2515,-4.6073,-3.2392,-1.9939
402.3438,-1.6556,6.2905,2.1594,2.2164,-0.4893,2.7416,1.7267,2.1107,2.0400,-2.0321,-3.3525,-1.9279,-5.5209,-2.2798,-2.7180,-0.8587,-4.0167,-0.9181,-2.3145
406.2500,-0.2349,4.7284,3.6134,1.1049,-0.7290,3.2525,2.4042,1.1055,5.6058,-2.4143,2.1888,2.9427,-4.0289,-2.3987,-1.5046,1.0675,-2.5682,1.6292,-1.8430
410.1562,-0.2082,-0.3074,3.8091,-0.4650,-1.1793,2.1086,2.0776,-0.7610,6.9519,-3.2419,6.3075,6.2409,-2.0227,-2.9139,0.5178,1.4752,-0.9250,3.0494,-1.0604
414.0625,-1.8889,-7.7028,2.2889,-2.4802,-2.0877,-0.1977,0.7103,-3.1823,5.3370,-4.1147,7.3501,6.5669,-0.4267,-4.0866,2.3535,-0.0195,0.2179,2.4492,-0.6578
417.9688,-4.6611,-15.2244,-0.4992,-4.6453,-3.4172,-2.5347,-1.1807,-5.5216,1.5628,-4.5377,5.1122,3.8841,0.0920,-5.7674,3.0826,-2.8516,0.5003,-0.0403,-1.0931
421.8750,-7.3022,-20.4412,-3.3665,-6.3588,-4.7910,-3.7242,-2.7881,-7.0034,-2.4294,-4.1907,0.7224,-0.5449,-0.5790,-7.4114,2.4085,-5.7585,0.0066,-3.2690,-2.3217
425.7812,-8.6851,-21.7444,-4.9886,-6.9631,-5.6815,-3.1353,-3.4351,-7.0503,-4.5890,-3.0849,-4.1114,-4.8824,-2.0455,-8.3630,0.8243,-7.4372,-0.9004,-5.6766,-3.8539
429.6875,-8.3988,-18.9860,-4.6084,-6.1362,-5.7175,-0.9845,-2.9149,-5.5972,-3.8240,-1.5485,-7.9556,-7.6421,-3.7081,-8.2310,-0.6927,-7.2188,-1.8514,-6.1466,-5.0703
433.5938,-6.9051,-13.4254,-2.4194,-4.1567,-4.9138,1.7974,-1.5600,-3.1848,-0.5062,-0.0672,-10.1063,-8.2798,-5.0839,-7.1207,-1.2505,-5.3558,-2.6445,-4.5795,-5.5681
437.5000,-5.1864,-7.0263,0.5928,-1.8275,-3.6744,4.0501,-0.0135,-0.7410,3.8386,0.9335,-10.5014,-7.1717,-5.9495,-5.5860,-0.5183,-2.7749,-3.2364,-1.8465,-5.3214
441.4062,-4.1586,-1.4947,3.2391,-0.0657,-2.5710,4.9622,1.1530,0.8626,7.4214,1.2644,-9.3425,-5.1205,-6.2716,-4.3398,1.1566,-0.4905,-3.6212,0.8090,-4.5837
445.3125,-4.2229,2.3975,4.7716,0.6006,-2.0270,4.4388,1.7400,1.2396,9.1028,1.0353,-6.8254,-2.7991,-6.0462,-3.8879,3.0094,0.9222,-3.7368,2.5040,-3.6428
449.2188,-5.1584,4.8404,5.1898,0.3085,-2.0921,3.0759,1.9661,0.6564,8.8074,0.5809,-3.1964,-0.5046,-5.2095,-4.2816,4.2909,1.4855,-3.4829,3.1117,-2.6193
453.1250,-6.3103,6.4248,5.0564,-0.2691,-2.4325,1.7857,2.2461,-0.1654,7.2742,0.2916,0.9837,1.6937,-3.6993,-5.1010,4.6077,1.5770,-2.8189,3.1134,-1.4451
457.0312,-6.8928,7.4481,4.9929,-0.3748,-2.5367,1.3055,2.8611,-0.4940,5.4074,0.4331,4.7051,3.6359,-1.6116,-5.6659,4.0141,1.5353,-1.8411,3.0861,-0.0180
460.9375,-6.2611,7.6227,5.2193,0.3510,-2.0234,1.8728,3.7360,-0.0150,3.7106,1.0421,6.7521,4.9022,0.6778,-5.3689,2.8775,1.4206,-0.7718,3.2305,1.5940
464.8438,-4.1322,6.4029,5.4417,1.6534,-0.8838,3.2136,4.4661,1.0083,2.1641,1.9383,6.2669,4.9561,2.5388,-3.9866,1.6512,1.0703,0.1250,3.2679,3.0513
468.7500,-0.7694,3.6580,5.1289,2.8297,0.4708,4.7849,4.5649,1.9210,0.5527,2.8273,3.2874,3.4932,3.2773,-1.8338,0.6923,0.3434,0.6248,2.7351,3.8256
472.6562,2.9247,0.1158,3.9506,3.1508,1.3885,6.0717,3.7658,2.0778,-1.0784,3.4241,-1.1257,0.7274,2.4144,0.3151,0.1871,-0.6829,0.5723,1.4185,3.4321
476.5625,5.5588,-2.8481,2.0597,2.2716,1.2970,6.7562,2.1890,1.2104,-2.2310,3.5335,-5.3091,-2.6027,-0.0716,1.5270,0.1707,-1.7231,-0.1225,-0.4057,1.6902
480.4688,5.7476,-4.0039,0.0328,0.4041,0.0066,6.7207,0.2828,-0.4424,-2.1991,3.0716,-7.7514,-5.5159,-3.6518,1.1235,0.5879,-2.4604,-1.4592,-2.0892,-1.1221
484.3750,2.8287,-3.0956,-1.4682,-1.8037,-2.1600,5.9846,-1.4043,-2.2826,-0.5853,2.0577,-7.7614,-7.1820,-7.3598,-0.9722,1.3449,-2.7202,-3.2721,-2.9838,-4.3083
488.2812,-2.5712,-1.0756,-2.0707,-3.5749,-4.4843,4.6887,-2.4705,-3.6566,2.2912,0.6108,-5.7017,-7.2106,-10.0938,-4.1324,2.3172,-2.4977,-5.1611,-2.8021,-6.9846
492.1875,-8.5491,0.4725,-1.8601,-4.3173,-6.1641,3.1340,-2.7932,-4.1294,5.4059,-1.0454,-2.7189,-5.7295,-11.0117,-7.2468,3.3095,-1.8588,-6.5357,-1.7442,-8.4138
496.0938,-12.6734,0.3497,-1.2625,-3.8187,-6.6658,1.7687,-2.5045,-3.6084,7.4910,-2.6043,-0.1724,-3.2886,-9.8653,-9.1899,4.0052,-0.8548,-6.8185,-0.3491,-8.2981
500.0000,-13.1629,-1.5085,-0.7523,-2.2872,-5.9429,1.0243,-1.8666,-2.3096,7.6688,-3.7491,0.9208,-0.6834,-7.1164,-9.3184,3.9822,0.4335,-5.7322,0.7920,-6.8903
503.9062,-9.8488,-4.0603,-0.5874,-0.2703,-4.4184,1.0462,-1.1416,-0.6452,5.8744,-4.2551,0.2015,1.2450,-3.7571,-7.7494,2.8693,1.7627,-3.4990,1.2759,-4.8610
507.8125,-4.3190,-5.9072,-0.7239,1.5063,-2.7582,1.5223,-0.5159,0.8904,2.8242,-4.0543,-2.0149,1.8343,-0.8950,-5.2800,0.6241,2.6750,-0.8033,0.9807,-2.9774
511.7188,0.8937,-6.1991,-0.9251,2.3513,-1.5729,1.8146,-0.0853,1.8169,-0.4140,-3.2130,-4.9430,0.8367,0.6973,-2.9951,-2.2180,2.6662,1.4892,0.0265,-1.7629
515.6250,3.6280,-5.0577,-0.9668,1.8379,-1.2033,1.3928,0.1274,1.7709,-2.9599,-1.8427,-7.6456,-1.4182,0.8386,-1.7747,-4.5555,1.5223,2.7025,-1.3148,-1.3230
519.5312,3.1365,-3.2898,-0.7998,-0.0165,-1.6723,0.2961,0.1461,0.6317,-4.4434,-0.0399,-9.3621,-4.0685,-0.1210,-1.9454,-5.1326,-0.4188,2.6016,-2.7036,-1.4297
523.4375,0.2556,-1.7116,-0.5866,-2.7068,-2.7735,-0.7580,0.0103,-1.3771,-4.9612,2.0577,-9.7560,-6.0385,-1.6074,-3.2268,-3.2317,-2.3321,1.4042,-3.8024,-1.7883
527.3438,-3.3296,-0.6587,-0.6029,-5.3885,-4.1966,-0.7976,-0.2595,-3.6904,-4.7705,4.1175,-8.9868,-6.5244,-3.1535,-4.9505,0.7402,-3.3336,-0.4024,-4.3502,-2.2845
531.2500,-6.1782,-0.0387,-1.0653,-7.1842,-5.6039,0.6650,-0.6793,-5.5672,-3.9835,5.5112,-7.5613,-5.3910,-4.5392,-6.4015,5.2147,-3.0206,-2.2857,-4.2351,-3.0229
535.1562,-7.8042,0.2098,-1.9745,-7.5249,-6.6543,3.1089,-1.2767,-6.3809,-2.4998,5.4460,-6.0280,-3.2289,-5.6873,-7.1059,8.1452,-1.7428,-3.7983,-3.5322,-4.1284
539.0625,-8.5827,-0.2603,-3.0583,-6.3702,-7.0343,5.1543,-2.0215,-5.8998,-0.2247,3.3724,-4.6961,-1.0154,-6.4591,-6.9563,8.1065,-0.3808,-4.6013,-2.4733,-5.4770
542.9688,-9.0242,-2.0855,-3.8605,-4.2074,-6.5512,5.4046,-2.7574,-4.4031,2.5994,-0.5227,-3.5674,0.4200,-6.5766,-6.1680,5.1602,0.2436,-4.4702,-1.3580,-6.6008
546.8750,-9.0425,-5.5965,-3.9538,-1.8357,-5.2640,3.4616,-3.2078,-2.5520,5.2296,-5.0887,-2.5269,0.7983,-5.7788,-5.1266,0.8917,-0.0779,-3.3630,-0.4510,-6.8966
550.7812,-7.8352,-10.1993,-3.1774,-0.0399,-3.5493,0.3874,-3.0902,-1.0735,6.6272,-8.5235,-1.6160,0.4283,-4.1065,-4.2053,-2.4738,-0.8122,-1.5272,0.0885,-6.0280
554.6875,-4.5286,-14.2663,-1.7600,0.7053,-2.0017,-1.8030,-2.2920,-0.4226,5.9972,-9.1833,-1.1174,-0.0963,-2.0600,-3.6128,-3.3597,-1.0790,0.4773,0.2359,-4.2291
558.5938,0.8486,-15.7387,-0.2286,0.3885,-1.1687,-1.3720,-0.9883,-0.5985,3.3753,-6.4862,-1.3103,-0.2947,-0.4388,-3.3192,-1.7052,-0.2843,1.9449,0.1044,-2.2511
562.5000,6.8061,-13.1393,0.8756,-0.5706,-1.2550,1.9762,0.4065,-1.2004,-0.1257,-1.3534,-2.0603,-0.0222,0.0933,-3.0908,1.1454,1.4554,2.3434,-0.0692,-0.9373
566.4062,10.7788,-6.4142,1.3137,-1.5207,-1.9884,6.8027,1.4542,-1.6739,-2.6689,4.1500,-2.6303,0.5800,-0.5682,-2.6341,3.4292,3.3855,1.6031,0.0161,-0.6962
570.3125,10.3899,2.8740,1.2889,-1.8668,-2.7603,10.7539,1.9498,-1.6016,-2.5695,7.8391,-2.0128,1.2845,-1.8713,-1.7952,4.1280,4.6092,0.1633,0.5939,-1.2482
574.2188,4.9112,12.0782,1.2949,-1.3388,-2.9789,11.9815,2.0369,-0.8898,0.7304,8.5246,0.3079,1.9221,-2.9476,-0.7070,3.5087,4.6428,-1.2868,1.6552,-1.8443
578.1250,-3.9756,18.4197,1.7492,-0.1214,-2.4184,10.2313,2.0835,0.2244,6.1618,6.5562,3.6851,2.3670,-3.1805,0.2220,2.7222,3.6574,-2.2179,2.8404,-1.8180
582.0312,-12.6780,19.9226,2.6545,1.2305,-1.3415,6.8941,2.3846,1.3182,11.3783,3.4712,6.3326,2.4417,-2.6116,0.5068,2.8273,2.2850,-2.5463,3.5256,-1.0802
585.9375,-17.3076,16.0117,3.5327,2.0752,-0.3162,4.0242,2.8966,1.9863,13.8716,0.9870,6.2404,1.9063,-1.8990,-0.1241,3.9964,1.1815,-2.6000,3.1301,-0.1957
589.8438,-15.6010,7.6659,3.6990,2.0304,0.1441,3.0218,3.2061,2.0003,12.2872,-0.0139,2.5119,0.6073,-1.8529,-1.5236,5.4659,0.6682,-2.8014,1.4979,0.0167
593.7500,-8.1153,-2.8484,2.7076,1.1887,-0.1237,3.8629,2.7804,1.3699,7.1938,0.1246,-3.7745,-1.3186,-2.8778,-3.1557,6.1922,0.6621,-3.3124,-0.9038,-0.9274
597.6562,1.9795,-12.6088,0.6691,0.0564,-0.8848,5.3313,1.3521,0.3050,0.8278,0.2699,-9.8908,-3.3893,-4.7068,-4.3632,5.6456,0.8582,-3.9090,-3.1645,-2.8241
601.5625,10.4340,-18.9315,-1.7734,-0.7638,-1.7055,5.9982,-0.8177,-0.8804,-4.0795,-0.5793,-12.9228,-4.9793,-6.5921,-4.7162,4.1250,0.9683,-4.1710,-4.4348,-4.9013
605.4688,13.9800,-20.3023,-3.7850,-0.9522,-2.2279,5.2131,-2.9829,-1.8744,-5.7243,-2.5314,-11.5008,-5.6710,-7.7830,-4.2163,2.4126,0.8408,-3.8246,-4.4514,-6.3006
609.3750,11.8310,-16.9667,-4.7570,-0.6548,-2.3178,3.4424,-4.2506,-2.4454,-4.0715,-4.6983,-6.6488,-5.4902,-7.9303,-3.2238,1.1363,0.4437,-2.9633,-3.7043,-6.5523
613.2812,5.8502,-10.8161,-4.5260,-0.3274,-2.0107,1.8160,-4.0160,-2.4788,-0.6391,-5.7832,-1.1358,-4.8215,-7.1481,-2.1644,0.4089,-0.1801,-1.9679,-3.0832,-5.7145
617.1875,-0.6428,-4.4964,-3.2890,-0.3332,-1.3501,1.3017,-2.2432,-1.9738,2.5920,-4.9360,2.2914,-4.0454,-5.7468,-1.2280,0.0198,-0.8938,-1.1909,-3.2004,-4.1305
621.0938,-4.7080,-0.1128,-1.3367,-0.5808,-0.2935,2.1224,0.5531,-1.0162,4.4230,-2.3049,2.6269,-3.1833,-3.9049,-0.2747,-0.0694,-1.4090,-0.6534,-3.8567,-2.0613
625.0000,-5.2223,1.7721,1.1502,-0.4868,1.2123,3.7666,3.5795,0.2541,5.0527,1.0478,1.1292,-1.8615,-1.5708,0.9869,0.5448,-1.3117,0.0026,-4.0579,0.4733
628.9062,-3.1588,2.2453,4.0858,0.6609,3.0519,5.4610,6.1096,1.6657,5.7217,3.7638,0.3167,0.3312,1.3252,2.6864,2.4184,-0.2486,1.2582,-2.6350,3.5120
632.8125,-0.6662,3.1618,7.2877,3.1544,4.8294,6.6716,7.7168,3.0234,7.6885,4.9110,2.1478,3.3394,4.5386,4.5749,5.6044,1.8016,3.3334,0.9088,6.8056
636.7188,0.3900,5.8013,10.3103,6.5036,5.9650,7.2724,8.3106,4.1130,11.2550,4.3712,6.6377,6.3967,7.3623,6.0690,9.2164,4.3700,5.9398,5.8874,9.6380
640.6250,-0.5080,9.9089,12.4841,9.5412,5.9736,7.3569,8.0250,4.7201,15.4743,2.7223,11.8203,8.2904,8.8368,6.5316,11.6965,6.6193,8.3352,10.6253,11.0333
644.5312,-2.4656,13.7266,13.1716,10.9784,4.7501,6.9740,7.0737,4.6773,18.6820,0.7843,15.0118,8.0220,8.2246,5.6058,11.7278,7.7242,9.6407,13.2718,10.2615
648.4375,-4.0273,14.9933,12.0811,10.0951,2.6570,6.0821,5.6666,3.9297,19.4495,-0.8269,14.4655,5.4460,5.4582,3.3981,9.1726,7.2900,9.2319,12.7503,7.3139
652.3438,-4.2625,12.2766,9.4309,7.1520,0.3479,4.7620,4.0071,2.5906,17.3256,-1.8775,10.3175,1.4567,1.2770,0.4224,5.3105,5.5422,7.0089,9.2850,3.0180
656.2500,-3.3036,5.8166,5.8720,3.2754,-1.5537,3.4400,2.3258,0.9482,12.9467,-2.4029,4.3002,-2.4184,-3.0316,-2.6193,2.1196,3.1692,3.4529,4.2293,-1.2928
660.1562,-2.0016,-2.5854,2.2405,-0.1080,-2.7091,2.8214,0.8900,-0.6007,7.5528,-2.4878,-1.4293,-4.7690,-6.1407,-5.0696,1.0432,0.9395,-0.5091,-0.6464,-4.3559
664.0625,-1.0351,-10.4862,-0.7099,-1.9562,-3.1047,3.4666,-0.0448,-1.6766,2.3144,-2.1520,-5.4704,-4.9488,-7.1812,-6.4551,2.0878,-0.6495,-3.7649,-3.9611,-5.4693
667.9688,-0.2251,-15.9230,-2.4823,-2.0404,-2.9042,5.2790,-0.3289,-2.0574,-2.0840,-1.4165,-7.6311,-3.2700,-6.0220,-6.5356,3.8756,-1.4862,-5.3494,-5.2001,-4.6686
671.8750,1.3548,-18.1074,-2.9124,-0.9254,-2.2721,7.3229,-0.0082,-1.7637,-5.4249,-0.4476,-8.5372,-0.7140,-3.2651,-5.3324,4.6074,-1.7182,-4.7943,-4.7018,-2.5855
675.7812,4.4965,-17.4227,-2.1864,0.4242,-1.3203,8.2099,0.6482,-1.0443,-7.6601,0.3951,-8.8771,1.5938,-0.0081,-3.1725,3.2572,-1.5457,-2.3866,-3.2914,-0.1464
679.6875,8.8685,-14.9105,-0.8092,1.1609,-0.1915,6.8890,1.2247,-0.2568,-8.6534,0.6957,-8.9060,2.8321,2.5300,-0.6999,0.1977,-1.1089,0.8208,-1.8342,1.7298
683.5938,12.7467,-11.6697,0.5319,0.9281,0.8440,3.3551,1.3348,0.3034,-8.1781,0.2293,-8.4945,2.6851,3.4235,1.2445,-3.1061,-0.5123,3.3598,-0.9141,2.3715
687.5000,13.8378,-8.5029,1.2384,-0.0453,1.4241,-1.2120,0.8269,0.5434,-6.1428,-0.8665,-7.5238,1.3263,2.3861,1.9069,-5.0488,0.1134,3.9950,-0.7016,1.5428
691.4062,10.7712,-5.8830,1.1226,-1.1171,1.2884,-5.0167,-0.0926,0.6066,-2.8349,-2.1455,-6.1920,-0.6918,-0.0837,0.9670,-4.8111,0.6298,2.3726,-0.9694,-0.4375
695.3125,4.2778,-4.0821,0.5727,-1.5564,0.4927,-6.6033,-0.9198,0.7753,1.0244,-3.1228,-4.9536,-2.5790,-2.8668,-1.2552,-2.7084,0.9981,-0.7141,-1.2146,-2.7394
699.2188,-2.8345,-3.2702,0.3734,-0.8817,-0.5458,-5.6187,-1.1090,1.2872,4.4682,-3.5819,-4.1728,-3.5034,-4.6935,-3.8958,0.1292,1.3537,-3.6756,-0.8768,-4.3136
703.1250,-7.0589,-3.5022,1.2014,0.9063,-1.2579,-2.9217,-0.4055,2.1639,6.6062,-3.6981,-3.8183,-2.8763,-4.7299,-5.9365,2.4142,1.9247,-4.9626,0.3806,-4.3784
707.0312,-6.1702,-4.6433,3.0814,3.2858,-1.2710,0.0037,0.9475,3.1534,6.9169,-3.8712,-3.4672,-0.6522,-2.9786,-6.6835,3.2609,2.8044,-3.9250,2.4276,-2.8583
710.9375,-0.6008,-6.3252,5.2011,5.4048,-0.6516,1.9398,2.2931,3.8347,5.4011,-4.3707,-2.6130,2.5365,-0.2457,-6.0573,2.4216,3.7530,-1.1666,4.6210,-0.4742
714.8438,6.6760,-7.9826,6.3030,6.4528,0.1472,2.5727,2.9332,3.8456,2.5812,-5.0455,-1.0360,5.5699,2.3288,-4.5304,0.2432,4.2329,1.8397,6.0486,1.6437
718.7500,11.7357,-8.9590,5.4815,6.0637,0.6180,2.5068,2.5844,3.1158,-0.6242,-5.3292,1.0275,7.3275,3.9050,-2.7724,-2.5033,3.7224,3.6447,5.9890,2.6298
722.6562,11.8413,-8.6599,2.8821,4.5426,0.5800,2.7040,1.6172,1.9707,-3.1277,-4.5787,2.9994,7.2264,4.3489,-1.2483,-4.8494,2.1174,3.6581,4.3423,2.4147
726.5625,6.8832,-6.7400,-0.2040,2.7600,0.3283,3.7506,0.8852,1.0232,-3.9883,-2.5449,4.2363,5.4872,4.1644,-0.0287,-5.9356,-0.0827,2.4049,1.7591,1.7399
730.4688,-0.6739,-3.3036,-1.9929,1.7251,0.4266,5.4369,1.2069,0.8833,-2.7567,0.3417,4.2865,2.9546,4.0271,1.0879,-5.3802,-1.9860,1.0717,-0.6429,1.6173
734.3750,-7.2199,0.9654,-1.2490,2.0400,1.2736,6.8974,2.8124,1.8201,0.2809,3.0961,3.0324,0.5966,4.2632,2.2614,-3.5398,-2.8114,0.6828,-1.8335,2.5894
738.2812,-9.9081,4.8730,1.9382,3.5381,2.7438,7.1909,5.1188,3.5562,4.1169,4.6741,0.7343,-0.9853,4.6387,3.3459,-1.4169,-2.3444,1.4685,-1.3812,4.3050
742.1875,-7.9662,7.0698,6.1450,5.3296,4.1609,5.9219,7.0104,5.3236,7.3688,4.5431,-1.9875,-1.7220,4.5848,3.8712,-0.1323,-1.0213,2.8168,0.3649,5.7134
746.0938,-2.7972,6.6143,9.3886,6.2506,4.6434,3.5100,7.4694,6.1852,8.8555,2.9673,-4.2572,-1.8593,3.6631,3.2876,-0.2142,0.4190,3.7778,2.5010,5.7453
750.0000,2.9909,3.4878,10.2054,5.4797,3.6124,0.9559,6.1722,5.4826,8.1414,0.8168,-5.2006,-1.5851,1.9152,1.3204,-1.1896,1.4555,3.7205,4.0421,4.0090
753.9062,6.9464,-1.2560,8.3768,2.9853,1.1521,-0.7188,3.6778,3.1952,5.7585,-0.9723,-4.3332,-0.8268,-0.1525,-1.7854,-1.8492,2.0874,2.6859,4.3688,1.0324
757.8125,7.7863,-5.8683,4.9131,-0.4329,-1.9877,-0.9958,1.0996,0.0199,2.9628,-1.9285,-1.9042,0.6057,-1.9068,-5.2727,-1.1035,2.6978,1.2450,3.4360,-2.0817
761.7188,5.6822,-8.6667,1.3918,-3.5155,-4.7324,-0.0435,-0.5171,-2.8888,1.1218,-2.2159,1.0600,2.6557,-2.9757,-8.1305,1.1292,3.5979,0.0354,1.6974,-4.3090
765.6250,1.8999,-8.7829,-0.8783,-5.1186,-6.1610,1.5039,-0.7186,-4.4113,1.0379,-2.3470,3.1498,4.7569,-3.4012,-9.4744,3.6726,4.6245,-0.6504,-0.1533,-5.2026
769.5312,-1.8661,-6.4747,-1.3708,-4.6982,-5.8707,2.9766,0.2356,-3.9580,2.5499,-2.6673,3.2589,5.9432,-3.4816,-8.8841,4.7512,5.1275,-0.9519,-1.4758,-4.9390
773.4375,-4.1407,-2.8325,-0.3295,-2.4895,-4.0763,4.0170,1.6714,-1.7295,4.6221,-3.0033,1.1818,5.3359,-3.4731,-6.5664,3.1778,4.3870,-1.2055,-1.9038,-3.9740
777.3438,-4.1405,0.9136,1.6117,0.6612,-1.4538,4.6522,2.9724,1.3866,5.8828,-2.7507,-2.2536,2.7216,-3.4054,-3.2928,-0.7369,2.1683,-1.6284,-1.4413,-2.6431
781.2500,-2.0221,4.0360,3.8359,3.6926,1.1530,5.1130,3.9003,4.2293,5.3503,-1.3565,-5.6199,-1.1667,-3.1426,-0.1326,-5.2204,-0.9973,-2.1752,-0.4238,-1.0224
785.1562,1.1404,6.4979,5.9277,5.7566,3.0247,5.5793,4.5863,5.8805,2.9831,1.1476,-7.6234,-4.8870,-2.5965,1.9300,-8.0465,-4.0260,-2.6406,0.6470,0.8914
789.0625,3.7215,8.6072,7.6203,6.5029,3.7695,6.0437,5.2607,6.0304,-0.2346,3.9604,-7.6913,-6.9505,-1.8781,2.3625,-7.8663,-5.8585,-2.8681,1.3428,2.9035
792.9688,4.2343,10.4282,8.6685,6.1231,3.3987,6.3525,5.9549,5.0193,-2.7445,5.8472,-6.0879,-6.5474,-1.2420,1.2878,-4.9815,-6.0169,-2.8616,1.5206,4.5314
796.8750,2.1116,11.4138,8.8179,5.1616,2.2755,6.3422,6.3973,3.5612,-3.2022,5.8143,-3.5768,-3.9384,-0.8755,-0.5818,-1.0691,-4.7833,-2.7106,1.3813,5.2127
800.7812,-1.8437,10.5770,7.9061,4.1906,0.9487,5.9381,6.1650,2.3196,-1.2046,3.7021,-0.9348,-0.3045,-0.7284,-2.2752,1.9168,-2.9167,-2.4250,1.3154,4.6555
804.6875,-5.7021,7.1415,6.0015,3.5045,-0.0799,5.1531,4.9732,1.5746,2.4447,0.3236,1.3420,2.8452,-0.5505,-3.0204,2.9064,-1.1429,-1.8603,1.6109,3.0530
808.5938,-7.3619,1.2601,3.4523,2.9877,-0.5699,4.0370,2.9058,1.1553,6.1108,-2.9336,3.0065,4.3787,-0.1215,-2.6038,2.1965,0.2183,-0.8322,2.2106,0.9907
812.5000,-5.7558,-5.7042,0.7973,2.2318,-0.6328,2.6677,0.4413,0.6479,8.1655,-4.7950,3.8458,3.9920,0.5112,-1.4402,1.0211,1.2589,0.6571,2.7001,-0.8857
816.4062,-1.5904,-11.6005,-1.4142,0.8473,-0.6409,1.2148,-1.7357,-0.2674,7.8204,-4.6747,3.5376,2.2002,0.9936,-0.3101,0.5981,2.1747,2.2692,2.5548,-2.1999
820.3125,2.9112,-14.4477,-2.8008,-1.2058,-0.9890,0.0010,-3.0329,-1.5655,5.4601,-2.8475,1.7328,-0.0801,0.8722,0.0839,1.3249,2.9202,3.4053,1.4882,-2.9534
824.2188,5.2117,-13.4094,-3.2567,-3.4775,-1.8436,-0.5510,-3.2044,-2.8610,2.2763,-0.1942,-1.6915,-2.0880,-0.1017,-0.5136,2.6126,3.1041,3.4883,-0.3444,-3.3811
828.1250,3.9321,-9.2199,-2.9608,-5.1872,-3.0299,-0.1161,-2.4414,-3.6292,-0.5440,2.2662,-6.3956,-3.5883,-1.7992,-1.8260,3.3670,2.2170,2.2744,-2.4298,-3.7082
832.0312,-0.3145,-3.7969,-2.2915,-5.6159,-4.1315,1.3019,-1.2615,-3.5190,-2.5131,3.7803,-11.5202,-4.8466,-3.7944,-3.2745,2.7241,0.0303,-0.0040,-4.1949,-4.0028
835.9375,-5.2820,0.7493,-1.6601,-4.5103,-4.7423,3.2857,-0.2517,-2.5676,-3.9286,4.0399,-15.8423,-6.2474,-5.6204,-4.3557,0.5684,-3.1112,-2.7452,-5.2876,-4.2051
839.8438,-8.4519,3.1428,-1.3123,-2.2565,-4.7101,5.1723,0.2139,-1.1921,-5.3002,3.1436,-18.0812,-7.8191,-6.9980,-4.9203,-2.4231,-6.3152,-5.2480,-5.6375,-4.2580
843.7500,-8.5479,3.4213,-1.1896,0.2834,-4.2188,6.3920,0.1361,0.0275,-6.5829,1.4547,-17.2723,-9.0079,-7.8759,-5.1864,-5.1510,-8.4949,-6.9765,-5.2938,-4.1988
847.6562,-6.2382,2.6221,-0.9618,2.1765,-3.6623,6.7503,-0.1583,0.6395,-6.8796,-0.5462,-13.1510,-8.9079,-8.3026,-5.5051,-6.6269,-8.8645,-7.6929,-4.2402,-4.1432
851.5625,-3.5790,1.9189,-0.2667,2.8317,-3.4003,6.4523,-0.2632,0.5187,-4.9709,-2.3810,-6.4592,-6.8654,-8.2899,-6.0637,-6.4114,-7.3187,-7.4517,-2.4119,-4.2028
855.4688,-2.5819,1.7787,0.9509,2.1933,-3.5569,5.8538,0.0022,-0.1275,-0.3961,-3.6822,0.9891,-3.0987,-7.8267,-6.7362,-4.7977,-4.5126,-6.5333,0.0478,-4.4373
859.3750,-3.8672,1.6777,2.2280,0.6453,-3.9856,5.1456,0.4240,-0.9279,5.6987,-4.2839,6.6779,1.0945,-7.0417,-7.1830,-2.6935,-1.6136,-5.3833,2.5115,-4.8840
863.2812,-6.3098,0.5390,2.7067,-1.2696,-4.4058,4.2284,0.4910,-1.5766,10.6971,-4.2548,8.2382,3.7726,-6.3471,-7.1218,-1.2373,0.1548,-4.5511,3.8844,-5.6139
867.1875,-7.9096,-2.4138,1.5992,-3.1226,-4.6114,2.8877,-0.2728,-1.9888,11.7745,-3.8318,4.5209,3.2772,-6.3700,-6.5772,-1.2695,-0.0148,-4.5694,3.0585,-6.7210
871.0938,-7.2858,-6.9531,-1.2549,-4.7159,-4.6099,1.1221,-1.9446,-2.3050,7.6140,-3.2728,-3.6322,-0.8328,-7.6265,-5.9314,-2.8744,-2.2016,-5.7473,-0.3945,-8.2146
875.0000,-4.7579,-11.7543,-5.1140,-6.0257,-4.6107,-0.6686,-4.0575,-2.7611,-0.5192,-2.7171,-13.4363,-7.3799,-10.1185,-5.7304,-5.2440,-5.7099,-7.9523,-5.7349,-9.8957
878.9062,-2.2474,-14.9859,-8.5855,-7.0666,-4.8817,-1.8291,-5.7997,-3.5107,-9.1390,-2.1517,-21.1774,-13.9765,-13.1442,-6.3591,-7.0098,-9.3000,-10.5292,-11.1645,-11.3431
882.8125,-2.0234,-15.2394,-10.3135,-7.7963,-5.5668,-1.8625,-6.4591,-4.5084,-14.2591,-1.5086,-23.7902,-18.0711,-15.5132,-7.7831,-6.9430,-11.6219,-12.4743,-14.5778,-12.0723
886.7188,-5.1092,-12.2738,-9.7053,-8.1174,-6.5746,-0.8071,-5.8352,-5.5138,-13.5094,-0.8124,-20.2221,-18.1016,-16.1033,-9.5178,-4.6611,-11.7133,-12.8460,-14.5807,-11.7896
890.6250,-10.4145,-7.1851,-7.2399,-7.9497,-7.5925,0.7214,-4.3464,-6.2072,-7.3991,-0.2511,-11.8744,-14.1741,-14.4571,-10.8502,-0.9140,-9.3845,-11.2276,-11.2050,-10.5719
894.5312,-15.2057,-1.9426,-4.1569,-7.2981,-8.2114,1.8873,-2.7554,-6.3439,1.0212,-0.0938,-1.9117,-7.9487,-11.0673,-11.1936,2.7717,-5.3348,-7.9918,-5.9071,-8.8372
898.4375,-16.6556,1.4576,-1.7196,-6.2635,-8.0900,2.1484,-1.6896,-5.8570,7.8679,-0.5036,6.1654,-1.8411,-7.1699,-10.3760,4.9133,-0.9199,-4.1948,-0.8547,-7.1118
902.3438,-13.5170,1.8315,-0.5204,-4.9897,-7.0833,1.5691,-1.2692,-4.8543,10.4732,-1.3824,9.9393,2.0360,-4.1496,-8.7033,4.8738,2.3744,-1.1215,2.0975,-5.7438
906.2500,-6.8815,-0.6937,-0.2504,-3.5891,-5.2870,0.7197,-1.0818,-3.5221,8.6013,-2.3720,8.8487,2.6943,-2.8807,-6.7645,3.1583,3.5551,0.3023,2.2046,-4.7449
910.1562,0.4249,-4.6990,-0.0404,-2.0972,-2.9992,0.2619,-0.5043,-2.0124,4.2392,-3.0263,4.1016,0.5337,-3.3471,-5.0994,1.0376,2.5652,-0.0657,0.0334,-3.8519
914.0625,5.4043,-8.0222,0.8870,-0.4924,-0.6320,0.5288,0.8450,-0.3970,0.2384,-3.0473,-2.0556,-2.9842,-4.7232,-3.9267,-0.2360,0.3122,-1.5404,-2.9560,-2.7524
917.9688,6.4392,-8.6775,2.6773,1.2198,1.3838,1.3827,2.8164,1.2696,-1.3062,-2.4365,-7.2915,-6.0485,-5.8455,-3.1000,-0.1191,-1.7742,-2.9736,-5.1767,-1.3257
921.8750,3.9353,-5.8301,4.7289,2.8950,2.6739,2.3912,4.7657,2.8269,-0.0332,-1.4764,-10.0026,-7.2814,-5.8190,-2.3114,1.0307,-2.4688,-3.3451,-5.6470,0.2391
925.7812,-0.2140,-0.3858,6.0245,4.1828,2.9805,3.1287,5.8770,3.9339,2.7665,-0.5705,-9.7802,-6.2842,-4.4548,-1.4049,2.3092,-1.3959,-2.2847,-4.3794,1.4973
929.6875,-3.8729,5.1976,5.6819,4.5805,2.2198,3.3640,5.5728,4.1438,5.0735,-0.0512,-7.4437,-3.7432,-2.3377,-0.5735,2.8752,0.7713,-0.2600,-2.2970,1.9356
933.5938,-5.7806,7.9652,3.4175,3.6399,0.5400,3.0529,3.7963,3.1336,5.2954,-0.0547,-4.6209,-1.0527,-0.5059,-0.2831,2.4161,2.6993,1.6713,-0.7421,1.2071
937.5000,-5.9080,5.9926,-0.2836,1.2623,-1.6515,2.2477,1.0494,0.9684,3.0444,-0.4993,-2.9684,0.3919,0.0905,-0.9463,1.2318,3.1766,2.4239,-0.7922,-0.6740
941.4062,-5.0074,-0.4129,-4.3350,-2.0805,-3.7485,1.0854,-1.8013,-1.7851,-0.7758,-1.1429,-3.3228,-0.0927,-0.9174,-2.5595,-0.0257,1.8428,1.4732,-2.6894,-3.2572
945.3125,-3.8403,-8.6149,-7.4629,-5.3845,-5.1252,-0.1246,-3.8580,-4.2241,-4.5180,-1.6766,-5.2245,-2.1289,-3.1242,-4.5727,-0.7352,-0.5840,-0.8475,-5.6689,-5.7564
949.2188,-2.6955,-14.8897,-8.7091,-7.4835,-5.3963,-0.8650,-4.5374,-5.5166,-6.6474,-1.8332,-7.1725,-4.5093,-5.5600,-6.1292,-0.5897,-2.7421,-3.5107,-8.3152,-7.3350
953.1250,-1.4878,-16.4127,-7.8377,-7.6143,-4.6321,-0.5979,-3.8092,-5.3348,-6.4810,-1.4984,-7.5707,-5.9107,-7.1984,-6.5595,0.3182,-3.4683,-5.3408,-9.3049,-7.4861
957.0312,-0.2338,-12.8360,-5.4649,-5.8642,-3.3783,0.8526,-2.2220,-4.0427,-4.4584,-0.7916,-5.8287,-5.6834,-7.4882,-5.8116,1.5788,-2.5165,-5.6392,-8.1471,-6.3215
960.9375,0.5852,-6.4425,-2.8032,-3.1891,-2.4074,2.9897,-0.6670,-2.4873,-1.8071,-0.0607,-2.8619,-4.2230,-6.6082,-4.5065,2.6429,-0.6832,-4.5310,-5.4769,-4.5715
964.8438,0.1481,-0.7127,-1.0767,-0.9190,-2.2904,4.7276,0.0551,-1.4891,0.2350,0.2479,-0.5481,-2.6701,-5.2990,-3.5384,3.0305,0.7500,-2.8342,-2.6851,-3.2287
968.7500,-2.1286,1.8175,-0.8745,-0.0020,-3.0269,4.9477,-0.3340,-1.3385,1.2058,-0.1923,-0.4180,-2.1176,-4.3802,-3.4622,2.5180,0.8871,-1.5386,-1.0762,-2.9937
972.6562,-5.9807,1.0178,-1.8164,-0.4530,-3.9860,3.2228,-1.4152,-1.6297,1.7081,-1.3955,-2.4729,-2.8565,-4.2606,-4.0862,1.2336,-0.1925,-1.2252,-1.0787,-3.8554
976.5625,-10.1437,-1.0250,-2.7891,-1.3886,-4.2553,0.1955,-2.3131,-1.5658,2.9456,-3.0267,-5.0378,-4.1846,-4.7506,-4.5834,-0.4049,-1.5321,-1.7901,-2.0285,-5.1001
980.4688,-12.8577,-1.6961,-2.6726,-1.6609,-3.2308,-2.7233,-2.2590,-0.5556,5.7248,-4.5597,-5.8702,-4.9223,-5.2832,-4.0870,-1.9059,-2.0205,-2.6291,-2.6811,-5.7847
984.3750,-12.7778,0.1557,-1.1218,-0.6915,-1.0915,-4.1959,-1.1418,1.2877,9.5783,-5.5344,-3.8070,-4.2758,-5.3654,-2.3799,-2.9575,-1.2283,-3.1276,-2.1017,-5.3821
988.2812,-9.7538,3.3409,1.1330,1.0676,1.1792,-3.7737,0.3420,3.0995,12.7039,-5.7453,0.2527,-2.4230,-4.9255,-0.1836,-3.5438,0.2403,-3.0992,-0.3115,-4.1496
992.1875,-4.9965,5.1995,2.7333,2.3936,2.3019,-2.1017,1.1040,3.7443,12.9417,-5.2425,3.8264,-0.3886,-4.3037,1.2076,-3.8270,1.1488,-2.8615,1.7710,-2.9405
996.0938,-0.5087,3.5978,2.6368,2.1343,1.4712,-0.3523,0.4220,2.5446,9.2765,-4.1798,4.5443,0.7086,-3.9107,0.7524,-3.8848,0.5123,-2.9109,3.0386,-2.5661
1000.0000,1.9148,-1.3858,0.9266,0.0747,-1.0826,0.6901,-1.4602,-0.2012,2.8584,-2.6665,1.8745,0.4795,-3.8365,-1.5846,-3.5410,-1.6521,-3.4552,3.0239,-3.1605
1003.9062,1.5862,-7.3138,-1.1192,-2.7792,-4.1231,1.1967,-3.3461,-3.2654,-3.2955,-0.7690,-2.4074,-0.4603,-3.7387,-4.6837,-2.4819,-4.2460,-4.1721,2.2219,-4.0282
1007.8125,-0.7414,-10.9136,-1.8128,-4.7330,-6.0550,2.0718,-3.7777,-5.1106,-5.9365,1.3391,-5.4169,-0.9866,-3.1238,-6.8720,-0.6223,-5.7507,-4.3957,1.6655,-4.1213
1011.7188,-3.2595,-10.2168,-0.2056,-4.4365,-5.8257,4.1015,-1.9965,-4.7318,-3.6183,3.2411,-5.2143,-0.3691,-1.8207,-6.9260,1.5739,-5.1853,-3.6112,2.0789,-2.8305
1015.6250,-4.0069,-5.8347,3.1849,-1.7548,-3.5393,7.1372,1.4637,-2.2270,2.2153,4.3444,-2.2252,1.1027,-0.2651,-4.8387,3.1542,-2.7146,-1.8983,3.2676,-0.5179
1019.5312,-1.8587,-0.5130,6.6053,2.0863,-0.4045,9.9710,4.9824,1.2384,7.9324,4.1862,1.0410,2.2718,0.6705,-1.8489,3.2039,0.4869,0.0186,4.2266,1.6175
1023.4375,2.8556,2.6840,8.1368,5.1746,1.9523,11.0464,6.7708,4.0454,9.8965,2.7912,1.8207,1.9712,0.2382,0.2984,1.5363,2.9956,1.1797,3.9098,2.2866
1027.3438,8.3941,2.2983,6.9089,5.9786,2.3944,9.5164,5.9357,4.9541,6.7906,0.7946,-0.8282,-0.0205,-1.6079,0.3965,-0.9674,3.9916,1.0002,2.0876,0.9702
1031.2500,12.3127,-0.7488,3.6537,4.1606,0.8664,5.8888,3.0145,3.6945,0.5574,-0.8305,-5.2079,-2.6348,-4.0391,-1.5213,-2.7129,3.6475,-0.3298,-0.3577,-1.6917
1035.1562,12.5656,-3.9354,0.2508,0.6898,-1.6507,1.7969,-0.3462,1.0224,-4.7170,-1.3136,-8.0400,-4.0717,-5.7419,-4.2390,-2.3078,2.8526,-1.9262,-1.9374,-4.2429
1039.0625,8.5196,-4.8183,-1.4065,-2.7279,-3.7404,-0.9322,-2.3446,-1.7278,-5.3115,-0.5444,-6.6777,-2.9160,-5.6380,-6.0958,0.5388,2.5327,-2.7177,-1.5116,-5.2394
1042.9688,1.3965,-2.4536,-0.4607,-4.4953,-4.3088,-1.2620,-1.9947,-3.3011,-0.1801,0.8816,-0.9317,0.9355,-3.4701,-5.9151,4.7624,3.0653,-2.0478,0.9895,-4.0086
1046.8750,-6.1229,2.2752,2.5921,-3.7559,-3.0571,0.6535,0.4624,-3.0325,8.4070,2.0772,6.7383,6.1558,0.1188,-3.5633,8.5521,4.1584,0.0035,4.5778,-0.8754
1050.7812,-11.0194,7.4236,6.4224,-0.5572,-0.4554,3.8155,3.8815,-0.9963,16.2644,2.4481,12.7621,10.7487,4.0286,0.1338,10.4374,5.1934,2.7423,7.9090,3.2063
1054.6875,-11.2860,11.1654,9.7701,4.3767,2.6628,7.0981,6.9684,2.1825,19.7969,2.0285,14.6396,13.1757,7.3303,3.9629,10.1226,5.7123,5.2948,10.1342,7.2672
1058.5938,-6.8493,12.5944,12.0789,9.9931,5.5621,9.7750,8.9432,5.6671,18.0014,1.3330,12.3096,13.1217,9.6452,6.9579,8.5113,5.6825,7.0442,11.2864,10.7255
1062.5000,0.4208,11.8010,13.4957,15.1595,7.8331,11.5571,9.7353,8.6885,12.7696,0.8607,7.8942,11.4567,11.0572,8.7145,6.9459,5.3935,7.8136,11.9650,13.3558
1066.4062,7.6354,9.4370,14.3659,18.7876,9.3213,12.2988,9.7029,10.6690,7.4459,0.6620,4.1428,9.5028,11.7068,9.2916,6.2411,5.1352,7.7529,12.6234,14.9737
1070.3125,12.2675,6.2317,14.7005,19.9543,9.9154,11.7842,9.1830,11.2288,4.6948,0.3255,2.7121,8.1514,11.4458,8.9016,6.2104,4.9490,7.0934,13.0447,15.1988
1074.2188,13.2603,2.7676,14.0465,18.1264,9.4323,9.8583,8.2245,10.1849,5.0636,-0.5919,3.3832,7.4026,9.8630,7.6915,5.9879,4.6373,5.9821,12.4261,13.5570
1078.1250,11.2940,-0.5058,11.8416,13.4378,7.7199,6.7797,6.6583,7.6114,7.0428,-2.0427,4.5639,6.5622,6.6831,5.7720,4.8443,3.9895,4.4946,10.0138,9.8768
1082.0312,8.1219,-3.2213,7.9609,6.8394,4.8988,3.4015,4.3873,3.9339,8.3954,-3.3247,4.5550,4.8767,2.2276,3.4063,2.8440,3.0096,2.7608,5.8120,4.6634
1085.9375,5.4089,-5.1236,3.0419,-0.0590,1.5280,0.8919,1.6417,-0.0505,7.7573,-3.4701,2.6648,2.1433,-2.4460,1.1237,0.8485,1.9527,1.0533,0.8343,-0.8743
1089.8438,3.7670,-6.1100,-1.6507,-5.4719,-1.4875,0.0977,-0.9913,-3.3253,5.4689,-1.9468,-0.4764,-1.0879,-5.8979,-0.4122,-0.1074,1.1513,-0.2605,-3.3047,-5.2314
1093.7500,2.5312,-6.1545,-4.7380,-8.0635,-3.2527,1.0033,-2.7790,-4.9799,3.2077,0.8444,-3.4301,-3.7883,-6.9782,-0.7390,0.4382,0.7831,-0.8718,-5.2010,-7.2321
1097.6562,0.3745,-5.1375,-5.3143,-7.4288,-3.3163,2.7242,-3.1560,-4.5866,2.7904,3.6828,-4.8224,-4.9840,-5.4102,0.0949,2.0752,0.7693,-0.6761,-4.3641,-6.5117
1101.5625,-3.6288,-2.7876,-3.3077,-4.2070,-1.9179,4.0892,-1.9695,-2.4324,4.9651,5.2275,-4.0214,-4.2184,-1.9317,1.4909,3.8663,0.8756,0.1931,-1.4027,-3.6019
1105.4688,-9.1263,1.0656,0.5227,0.2142,0.1169,4.4060,0.4421,0.5453,8.9115,4.8451,-1.3325,-1.7328,2.0784,2.5949,5.0270,0.9191,1.4472,2.3585,0.3742
1109.3750,-14.3313,6.0003,4.8877,4.2543,1.7916,3.8495,3.3410,3.1312,12.6640,2.9877,2.2320,1.6565,5.2445,2.7612,5.3941,0.9097,2.7656,5.5381,4.1782
1113.2812,-16.7318,10.6582,8.4019,6.7077,2.4295,3.1930,5.8054,4.3525,14.1352,0.8482,5.3874,4.8605,6.7319,1.8897,5.3362,1.0097,3.8715,7.2333,6.8407
1117.1875,-14.3514,12.9833,9.9918,7.0997,1.9605,3.1109,7.0042,3.8900,12.1520,-0.4721,7.0118,6.8530,6.4167,0.4261,5.2252,1.3495,4.5419,7.1930,7.8220
1121.0938,-6.9380,11.1389,9.1764,5.7214,0.8479,3.6054,6.4668,2.1652,6.9954,-0.7003,6.4834,6.9470,4.6912,-0.9652,4.9404,1.8475,4.6011,5.6584,6.9895
1125.0000,3.5589,4.6662,6.1686,3.3737,-0.2790,4.0075,4.2632,0.0611,0.2427,-0.5165,3.8631,4.9772,2.1237,-1.8287,3.8476,2.1809,3.9562,3.0860,4.5379
1128.9062,13.5569,-4.8653,1.7802,0.9598,-1.0403,3.5400,1.0104,-1.5635,-5.9551,-0.9805,-0.1321,1.3676,-0.7761,-2.1670,1.3090,1.9466,2.6749,-0.0388,0.9409
1132.8125,19.2924,-14.2636,-2.8426,-0.8843,-1.5027,1.9894,-2.3303,-2.2895,-9.8000,-2.6730,-4.3925,-2.9443,-3.5821,-2.3616,-2.6529,0.9166,1.0369,-3.2290,-3.0775
1136.7188,18.5148,-20.0969,-6.5705,-1.9670,-2.0409,-0.0520,-4.8057,-2.2554,-10.5601,-5.1634,-7.8362,-6.7446,-5.8534,-2.8449,-7.0646,-0.7759,-0.5202,-5.9500,-6.6264
1140.6250,11.5870,-20.3368,-8.6084,-2.4707,-2.9755,-1.5738,-5.8217,-1.9386,-8.7638,-7.1948,-9.7916,-8.9030,-7.0963,-3.7637,-10.3650,-2.6435,-1.5731,-7.6331,-8.8455
1144.5312,1.3802,-15.3383,-8.6749,-2.7087,-4.2500,-1.8730,-5.3329,-1.7700,-5.8062,-7.4836,-10.1496,-8.7517,-6.8995,-4.8664,-11.2442,-4.0573,-1.9188,-7.8164,-9.1822
1148.4375,-8.0552,-7.6265,-7.0140,-2.8740,-5.3901,-1.0718,-3.7915,-1.8480,-3.1910,-5.6097,-9.2385,-6.3446,-5.1941,-5.6833,-9.4406,-4.5627,-1.6882,-6.3674,-7.6388
1152.3438,-13.3872,-0.6578,-4.2832,-2.9384,-5.7895,-0.0392,-1.9119,-1.9344,-1.8224,-2.4045,-7.5701,-2.4860,-2.4533,-5.8670,-5.9835,-4.1342,-1.2859,-3.6575,-4.8514
1156.2500,-13.4615,2.7253,-1.3819,-2.7502,-5.1383,0.2198,-0.3877,-1.7098,-1.7368,0.4312,-5.6710,1.5027,0.3520,-5.4509,-2.7171,-3.2285,-1.1785,-0.5567,-1.9202
1160.1562,-9.5348,1.3643,0.7567,-2.2336,-3.6902,-0.7422,0.3138,-1.0815,-2.3963,1.2638,-4.0868,4.2108,2.0920,-4.8479,-1.3712,-2.5875,-1.6529,1.8087,-0.0162
1164.0625,-4.2074,-4.0130,1.4199,-1.5200,-2.1643,-2.5257,0.0382,-0.3050,-3.2929,-0.5424,-3.4333,4.6250,1.9739,-4.5884,-2.6989,-2.8657,-2.6752,2.4775,0.0967
1167.9688,0.2336,-11.3369,0.3954,-0.8917,-1.3205,-4.1758,-1.0520,0.1817,-4.3918,-4.2459,-4.2782,2.5067,-0.0599,-4.9737,-6.1349,-4.2557,-3.9197,1.0897,-1.5819
1171.8750,3.0022,-18.0740,-1.8342,-0.5739,-1.4806,-4.8111,-2.5170,0.0922,-6.0543,-8.1071,-6.7890,-1.4855,-3.2571,-5.8759,-10.1150,-6.3103,-4.9353,-1.8740,-4.2433
1175.7812,4.8208,-22.0534,-4.1522,-0.5415,-2.3199,-4.1431,-3.7301,-0.4549,-8.4806,-10.2927,-10.3674,-6.0015,-6.3696,-6.8156,-12.8493,-8.0873,-5.3536,-5.2082,-6.6044
1179.6875,6.8591,-22.0597,-5.2198,-0.5102,-3.0804,-2.5614,-4.0550,-0.9649,-11.1303,-9.7933,-13.6420,-9.4880,-8.2124,-7.2630,-13.1405,-8.5831,-5.0385,-7.4629,-7.5033
1183.5938,9.4582,-18.1457,-4.1223,-0.1441,-3.0700,-0.7972,-3.1060,-0.8765,-12.6724,-6.8705,-15.0211,-10.7841,-8.1889,-6.9616,-10.8663,-7.2593,-4.1252,-7.5977,-6.4729
1187.5000,11.6217,-11.6187,-0.9212,0.6703,-2.1138,0.5430,-0.9844,0.0527,-11.6655,-2.8380,-13.5863,-9.5734,-6.5137,-6.0606,-6.9501,-4.3844,-2.9483,-5.4901,-3.9751
1191.4062,11.6663,-4.6177,3.2540,1.7019,-0.6504,1.2512,1.6703,1.5558,-7.6000,0.6460,-9.7565,-6.4737,-4.0264,-4.9750,-2.8907,-0.9864,-1.8992,-2.0112,-1.1378
1195.3125,8.5486,0.6900,6.7130,2.5203,0.5848,1.4660,3.9135,3.0001,-1.5564,2.3684,-5.1906,-2.7099,-1.7091,-4.0771,-0.1054,1.5951,-1.2631,1.4064,0.8832
1199.2188,2.8594,3.0222,8.0756,2.8096,1.0635,1.4177,4.9405,3.7703,4.1061,2.0290,-1.8759,0.4710,-0.1861,-3.4383,0.6182,2.3416,-1.0966,3.4896,1.5454
1203.1250,-3.2914,2.5311,6.9981,2.6047,0.7980,1.2054,4.4999,3.6308,6.9825,0.2037,-0.9440,2.3354,0.5107,-2.8072,-0.6505,1.0502,-1.2030,3.7319,1.1642
1207.0312,-7.4588,0.6026,4.3010,2.2462,0.2756,0.7665,3.0127,2.8221,6.0400,-2.0890,-2.0152,2.8646,0.7891,-1.8473,-3.1241,-1.5746,-1.2352,2.5369,0.5954
1210.9375,-8.2878,-1.0614,1.4080,2.0645,0.0510,0.0250,1.3015,1.8367,2.2674,-3.9261,-3.5557,2.5395,1.0752,-0.4729,-5.6867,-4.2738,-0.8992,0.8313,0.5616
1214.8438,-6.1831,-1.5466,-0.5372,2.0391,0.2992,-0.9304,0.0884,1.0468,-1.9406,-4.8228,-4.0253,1.8828,1.4152,0.9589,-7.3356,-5.8453,-0.1630,-0.5796,1.0834
1218.7500,-2.8094,-1.2832,-1.2950,1.7254,0.6607,-1.7889,-0.4123,0.4571,-4.3033,-4.7555,-3.0088,1.0806,1.3844,1.7627,-7.4948,-5.6945,0.6594,-1.4802,1.4315
1222.6562,0.1253,-1.6347,-1.4946,0.5655,0.4998,-2.1289,-0.5373,-0.2382,-4.0670,-3.9496,-1.5082,-0.0619,0.3897,1.3104,-6.1208,-4.0639,1.0303,-2.2284,0.6641
1226.5625,1.8608,-3.7592,-1.9982,-1.6052,-0.6002,-1.6327,-0.8336,-1.3371,-2.3465,-2.6467,-1.1673,-1.8174,-1.8188,-0.5347,-3.6293,-1.8554,0.4855,-3.2970,-1.6004
1230.4688,2.6655,-7.5361,-3.1415,-4.2249,-2.4523,-0.2777,-1.5840,-2.7885,-1.1631,-1.0277,-2.9793,-4.1275,-4.7780,-3.2113,-0.7274,-0.1698,-1.0485,-4.7304,-4.7205
1234.3750,3.0993,-11.3690,-4.4046,-6.1425,-4.2700,1.5954,-2.5422,-4.0887,-1.8762,0.6928,-6.4230,-6.4140,-7.3724,-5.6414,1.7838,0.1983,-3.1153,-5.9434,-7.2437
1238.2812,3.2057,-13.0999,-4.7532,-6.2136,-5.0816,3.3755,-3.0735,-4.5228,-4.1387,2.1398,-9.6789,-7.7880,-8.3545,-6.7320,3.2148,-0.9165,-4.8805,-6.0448,-7.7093
1242.1875,2.3856,-11.4705,-3.4107,-4.0179,-4.3056,4.4061,-2.6073,-3.6191,-6.1396,2.8011,-10.8028,-7.5503,-7.0461,-5.9363,3.1934,-3.0279,-5.5245,-4.4854,-5.5528
1246.0938,0.0702,-7.1267,-0.5161,-0.2449,-2.1343,4.2570,-1.0878,-1.5308,-5.9598,2.2637,-9.0392,-5.6558,-3.7957,-3.5651,1.8273,-5.2491,-4.6687,-1.5710,-1.5316
1250.0000,-3.4257,-2.4133,2.7988,3.5254,0.5051,2.9330,0.8946,0.9152,-3.0594,0.5393,-5.3558,-2.8133,0.1109,-0.6692,-0.2667,-6.6853,-2.5967,1.5512,2.6111
1253.9062,-6.7000,-0.0044,4.9855,5.5533,2.3887,0.9149,2.3896,2.5668,1.2011,-1.7606,-1.8221,-0.1238,3.0707,1.4554,-2.1447,-6.7891,-0.1367,3.4833,5.0474
1257.8125,-8.0252,-1.2257,4.9485,4.7886,2.5896,-1.0095,2.6157,2.5207,4.4108,-3.5856,-0.2643,1.5343,3.9722,1.8873,-2.9036,-5.5343,1.7347,3.3955,4.7949
1261.7188,-6.5721,-5.1680,2.6689,1.3822,0.9184,-2.0679,1.4033,0.6084,4.7536,-3.9210,-1.1082,1.9892,2.7358,0.5130,-2.0791,-3.3474,2.3567,1.5544,2.1505
1265.6250,-3.1377,-9.1943,-0.7803,-3.3875,-1.9961,-1.8265,-0.7084,-2.4745,2.2974,-2.3328,-3.1641,1.8213,0.2890,-1.9362,0.1465,-0.8533,1.6735,-0.7869,-1.5640
1269.5312,0.2563,-10.5322,-3.8055,-7.6952,-4.9962,-0.3460,-2.7564,-5.4706,-0.9784,0.7445,-4.4481,1.9403,-1.9818,-4.2484,3.0610,1.4222,0.2162,-2.0850,-4.7270
1273.4375,1.6692,-7.9383,-5.0868,-9.9383,-6.8966,1.9117,-3.8332,-7.1402,-2.4411,4.1706,-3.4549,2.9629,-2.9683,-5.3064,5.8051,3.2278,-1.1932,-1.3701,-6.1658
1277.3438,0.5036,-2.3891,-4.1492,-9.3318,-6.9688,4.3511,-3.4882,-6.8163,-0.4906,6.6429,-0.0582,4.7801,-2.3511,-4.5967,7.7887,4.5547,-1.8464,1.2362,-5.5531
1281.2500,-2.2120,3.5945,-1.4459,-6.1112,-5.2122,6.5076,-1.8620,-4.6645,4.4480,7.3162,4.4675,6.5806,-0.6424,-2.4194,8.8848,5.4445,-1.4659,4.6352,-3.3476
1285.1562,-4.7118,7.4958,2.0018,-1.3318,-2.3163,8.1440,0.4596,-1.5377,10.2351,6.1545,8.2125,7.3076,1.1917,0.2778,9.3049,5.7979,-0.3013,7.3906,-0.4350
1289.0625,-5.8434,8.2087,5.1350,3.5832,0.6496,9.1549,2.7429,1.4664,14.3456,3.8402,9.6358,6.2693,2.2612,2.3474,9.2887,5.3513,1.0169,8.4868,2.2709
1292.9688,-5.8353,6.4451,7.2541,7.3390,2.6808,9.4100,4.3824,3.4935,15.2939,1.3395,8.2200,3.5405,2.1356,2.9533,8.8689,3.8701,1.7828,7.7657,4.0891
1296.8750,-5.9252,3.9915,8.1185,9.1320,3.2186,8.7168,5.0462,4.2182,13.2670,-0.5884,4.5101,-0.0609,0.9259,1.9110,7.9017,1.4385,1.5411,5.8372,4.6613
1300.7812,-7.2035,2.4166,7.7925,8.7877,2.3066,6.9715,4.6831,3.8168,9.6959,-1.6542,-0.3150,-3.3859,-0.8933,-0.2857,6.3257,-1.3773,0.2971,3.5918,3.9398
1304.6875,-9.6340,2.1252,6.4231,6.6708,0.4648,4.3940,3.4510,2.7047,6.2146,-1.9728,-4.9863,-5.5011,-2.7579,-2.7449,4.4194,-3.6608,-1.4812,1.6636,2.1394
1308.5938,-12.0260,2.3402,4.1343,3.4509,-1.6256,1.6288,1.6395,1.2426,3.7737,-1.7894,-8.5124,-6.0711,-4.2292,-4.6094,2.8068,-4.5501,-3.0722,0.1747,-0.3244
1312.5000,-12.9386,1.9150,1.1104,-0.1461,-3.4381,-0.4317,-0.3760,-0.3951,2.4240,-1.2335,-10.3032,-5.3996,-5.0828,-5.4249,2.1526,-3.6934,-3.8343,-1.1260,-2.9208
1316.4062,-11.7492,0.3244,-2.2178,-3.4886,-4.7414,-1.0490,-2.1599,-2.1313,1.7342,-0.2719,-10.1507,-4.1551,-5.2936,-5.2692,2.7406,-1.4669,-3.5049,-2.4791,-5.1125
1320.3125,-9.0300,-1.8810,-5.0696,-6.0553,-5.5157,-0.0223,-3.2595,-3.7849,1.3819,1.1367,-8.1904,-2.9716,-4.9719,-4.6023,4.2403,1.2037,-2.3139,-3.7783,-6.4581
1324.2188,-5.9927,-3.4398,-6.4510,-7.3865,-5.7560,2.2016,-3.2941,-4.9490,1.4437,2.8395,-4.8740,-2.1483,-4.2896,-3.9477,5.8569,3.3276,-0.8452,-4.5213,-6.6815
1328.1250,-3.5450,-3.2519,-5.5459,-7.0900,-5.3506,4.7781,-2.0845,-5.0851,2.2392,4.4212,-0.9116,-1.5912,-3.4145,-3.6005,6.7820,4.3491,0.2809,-4.0860,-5.7069
1332.0312,-1.7911,-1.1134,-2.1874,-4.9774,-4.1528,6.9091,0.2297,-3.8094,3.9515,5.3424,2.8588,-0.9917,-2.4669,-3.5230,6.6484,4.3572,0.7225,-2.1611,-3.6843
1335.9375,-0.3633,2.1823,2.8718,-1.2776,-2.1985,8.1906,3.1558,-1.1932,6.3623,5.2026,5.6500,-0.1157,-1.5207,-3.4667,5.6823,3.8911,0.5446,0.9404,-1.0101
1339.8438,0.8008,5.3858,8.1109,3.2370,0.1195,8.6533,5.9509,2.1334,8.8834,3.9596,6.8892,0.9709,-0.6564,-3.2139,4.4668,3.4928,0.0926,4.2896,1.6966
1343.7500,1.0469,7.5288,11.8145,7.3732,2.1035,8.5211,7.8525,5.1758,10.8021,1.9640,6.3231,1.8705,-0.0273,-2.7668,3.5107,3.3173,-0.2917,6.6908,3.7172
1347.6562,-0.5507,8.3193,12.8061,9.9086,3.0525,7.9200,8.3510,6.9773,11.5389,-0.2012,4.0758,2.0462,0.1299,-2.3613,2.9460,3.0663,-0.5078,7.2035,4.4661
1351.5625,-4.1840,7.9770,10.9526,10.0790,2.6355,6.7868,7.3786,7.0096,10.7893,-1.9700,0.6837,1.1457,-0.4064,-2.3066,2.5658,2.2812,-0.7201,5.5713,3.7415
1355.4688,-8.6428,6.7529,7.1557,7.8922,1.0807,5.0475,5.3159,5.3414,8.5745,-2.9822,-2.9239,-0.7138,-1.6682,-2.7728,2.1414,0.7870,-1.1589,2.3458,1.8421
1359.3750,-11.7094,4.6189,2.8388,4.0810,-0.9671,2.8994,2.8118,2.5222,5.2858,-3.1316,-5.5812,-2.8770,-3.3648,-3.6747,1.7394,-1.0306,-1.8557,-1.3536,-0.5561
1363.2812,-11.5159,1.4407,-0.7556,-0.2682,-2.8308,0.9242,0.5137,-0.7046,1.7140,-2.4974,-6.2426,-4.3825,-4.9258,-4.7255,1.7569,-2.3259,-2.5302,-4.3217,-2.7259
1367.1875,-7.9202,-2.5017,-3.0453,-4.1707,-4.1599,-0.1227,-1.1454,-3.6663,-1.0589,-1.2553,-4.4590,-4.4233,-5.7544,-5.6091,2.6170,-2.2384,-2.7358,-5.7569,-4.2299
1371.0938,-2.8148,-6.1379,-4.1120,-7.0110,-5.0105,0.2528,-2.0048,-5.8671,-2.0100,0.3561,-0.7380,-2.8146,-5.5670,-6.1426,4.3420,-0.4230,-2.1790,-5.5372,-5.0580
1375.0000,0.9843,-7.8373,-4.3140,-8.5121,-5.6070,1.9220,-2.0856,-6.9520,-0.6799,2.0154,3.4937,-0.1994,-4.5961,-6.3195,6.3482,2.6614,-0.9820,-4.1717,-5.4722
1378.9062,1.5551,-6.2685,-3.8482,-8.5350,-5.9922,4.1286,-1.4571,-6.6575,2.4628,3.3206,6.4293,2.1766,-3.4871,-6.2230,7.6702,5.9010,0.3167,-2.4835,-5.6820
1382.8125,-0.8853,-1.3838,-2.6083,-6.9573,-5.8691,5.8943,-0.1786,-4.8671,6.1094,3.8849,6.7239,3.0606,-2.9129,-5.8985,7.5191,8.0529,1.0553,-1.2000,-5.6059
1386.7188,-4.1984,5.1772,-0.4329,-3.7843,-4.7926,6.5978,1.6405,-1.7686,8.7097,3.5154,4.1949,1.8679,-3.1396,-5.3003,5.8201,8.3686,0.8548,-0.6563,-4.9162
1390.6250,-5.8340,10.6702,2.4829,0.5845,-2.5906,6.3488,3.7315,2.0189,9.2723,2.3671,-0.0465,-0.9403,-3.8373,-4.3611,3.3515,6.9694,-0.1326,-0.7396,-3.3538
1394.5312,-4.5309,12.5784,5.3883,5.2006,0.3113,5.8950,5.6330,5.5152,7.8710,0.9376,-4.1503,-4.0264,-4.2854,-3.1260,1.3530,4.7633,-1.3014,-1.0654,-1.0728
1398.4375,-1.0202,9.9358,7.2227,8.7581,2.9475,6.1042,6.8142,7.6952,5.5230,-0.1514,-6.4704,-5.8383,-3.8548,-1.8345,0.8186,2.9454,-1.9485,-1.2551,1.2699
1402.3438,2.6720,3.8416,7.2046,10.1276,4.2792,7.3493,6.9192,7.9230,3.5252,-0.4882,-6.3452,-5.4187,-2.4496,-0.8652,1.9132,2.3574,-1.6761,-1.1453,2.8029
1406.2500,4.6939,-3.1443,5.3812,8.9447,3.7916,9.2049,5.9875,6.2637,2.7080,-0.1179,-4.2703,-2.9096,-0.6036,-0.5594,3.8843,3.0591,-0.5862,-0.8218,2.9453
1410.1562,4.4890,-8.3399,2.7327,5.8665,1.8245,10.6655,4.4949,3.4698,3.0950,0.4774,-1.4148,0.5342,0.8352,-1.0323,5.5277,4.3434,0.8315,-0.4898,1.7933
1414.0625,2.8352,-10.2138,0.7000,2.2815,-0.6014,10.7607,3.1515,0.6277,4.1321,0.6818,1.1467,3.3662,1.2196,-2.0984,5.9095,5.1734,2.0117,-0.2968,0.1008
1417.9688,0.9610,-8.8954,0.3828,-0.3946,-2.3647,9.1748,2.5459,-1.3514,5.2144,0.1545,2.9554,4.4360,0.4670,-3.3601,4.8862,4.7801,2.5994,-0.2443,-1.1635
1421.8750,-0.4339,-5.7619,1.8856,-1.4283,-2.8638,6.4702,2.8271,-2.1133,6.0564,-0.9281,4.1323,3.4973,-0.9628,-4.4013,3.1051,3.0781,2.5389,-0.2470,-1.4124
1425.7812,-1.4747,-2.5072,4.2186,-1.0638,-2.2889,3.7639,3.6085,-1.9191,6.6427,-1.9734,4.9038,1.1826,-2.4313,-4.9656,1.5173,0.6771,1.9593,-0.2809,-0.8022
1429.6875,-2.6142,-0.3145,5.8272,-0.2476,-1.3973,2.0631,4.1647,-1.3800,6.9001,-2.3623,5.1307,-1.4727,-3.5491,-5.0211,0.7489,-1.4881,0.9972,-0.4891,-0.1236
1433.5938,-3.9054,0.4551,5.4523,0.0124,-0.9733,1.6919,3.8265,-1.0570,6.4838,-1.8686,4.2654,-3.6214,-4.3627,-4.7045,0.7552,-2.6649,-0.2823,-1.1389,-0.2878
1437.5000,-4.7533,0.0750,2.8345,-0.7586,-1.3426,2.1797,2.3721,-1.1678,4.9604,-0.8094,1.8101,-4.9525,-5.1976,-4.2135,0.9660,-2.6289,-1.8202,-2.4346,-1.7368
1441.4062,-4.3750,-0.9142,-1.1215,-2.2996,-2.2425,2.6774,0.1997,-1.5521,2.2790,0.1852,-2.0718,-5.6506,-6.3123,-3.7336,0.7842,-1.7020,-3.4466,-4.3102,-4.1475
1445.3125,-2.5536,-1.9490,-4.7951,-3.8675,-3.0853,2.6058,-1.8223,-1.8657,-0.8936,0.6245,-6.3023,-6.0853,-7.6479,-3.4264,0.0601,-0.4920,-4.8574,-6.3567,-6.6018
1449.2188,-0.0087,-2.5060,-6.6531,-4.7254,-3.3918,2.0810,-2.7709,-1.8452,-3.3551,0.5007,-9.2872,-6.4966,-8.8584,-3.4387,-0.8013,0.4379,-5.7464,-7.9606,-8.1007
1453.1250,1.9676,-2.1449,-5.9852,-4.5393,-3.0863,1.8066,-2.1526,-1.4673,-4.0457,0.2615,-9.7849,-6.8794,-9.5762,-3.8696,-1.1663,0.7716,-6.0096,-8.5873,-8.1041
1457.0312,2.3399,-0.6856,-3.2154,-3.4770,-2.4796,2.4932,-0.2066,-0.9244,-2.7619,0.4191,-7.6966,-7.0790,-9.6793,-4.6849,-0.6863,0.4481,-5.8502,-8.0400,-6.7878
1460.9375,0.9854,1.5297,0.3281,-2.0296,-2.0022,4.2085,2.1421,-0.4730,-0.3529,1.0798,-4.2276,-6.9555,-9.3448,-5.6402,0.3799,-0.4341,-5.6696,-6.5396,-4.9054
1464.8438,-1.3047,3.5381,3.0325,-0.7423,-1.9095,6.1367,3.6821,-0.2805,1.7957,1.7599,-1.2610,-6.4623,-8.8541,-6.3093,1.2710,-1.6841,-5.7847,-4.5937,-3.3788
1468.7500,-3.4146,4.0464,3.6937,-0.0301,-2.1684,6.9650,3.4850,-0.3733,2.6429,1.6589,-0.3077,-5.6043,-8.3287,-6.2555,1.1880,-3.0059,-6.1650,-2.7549,-2.8672
1472.6562,-4.5812,2.0762,1.9711,-0.1314,-2.5681,5.6886,1.3599,-0.6958,2.0943,0.2307,-1.6849,-4.3723,-7.6297,-5.2793,-0.1955,-3.9764,-6.3941,-1.4261,-3.5308
1476.5625,-4.6631,-2.3717,-1.5600,-1.1181,-2.9320,2.3204,-2.0422,-1.2006,0.8934,-2.3417,-4.4272,-2.7685,-6.5183,-3.5882,-2.5096,-4.1303,-5.9188,-0.8004,-5.0558
1480.4688,-3.9160,-8.0725,-5.7196,-2.8664,-3.2437,-1.9749,-5.5303,-1.8788,-0.0734,-5.1194,-6.9565,-0.9360,-4.9537,-1.7558,-4.8762,-3.1812,-4.4479,-0.9054,-6.8594
1484.3750,-2.6123,-12.9806,-9.2052,-4.9829,-3.5941,-5.4405,-7.9195,-2.6950,-0.4754,-6.8814,-8.0508,0.7290,-3.2779,-0.4583,-6.3656,-1.2670,-2.2401,-1.6472,-8.3331
1488.2812,-0.9103,-15.1218,-11.0195,-6.7898,-4.0106,-6.6501,-8.5309,-3.4869,-0.6719,-6.8085,-7.4921,1.6312,-2.1114,-0.1265,-6.4320,0.9754,-0.0742,-2.7900,-9.0192
1492.1875,0.9450,-13.5113,-10.7004,-7.4838,-4.3279,-5.2314,-7.3964,-3.9329,-1.2012,-4.9384,-6.0237,1.2375,-1.9999,-0.7219,-5.1031,2.6214,1.1102,-3.9155,-8.6938
1496.0938,2.3941,-8.6173,-8.3460,-6.4747,-4.2284,-1.9706,-5.1053,-3.6591,-2.1023,-2.1116,-4.7263,-0.5885,-3.0514,-1.7803,-2.8907,2.8846,0.7013,-4.4792,-7.3889
1500.0000,2.6814,-2.1554,-4.5177,-3.7493,-3.4486,1.7141,-2.4365,-2.4574,-2.7077,0.5306,-4.2853,-3.4044,-4.8183,-2.6982,-0.5467,1.5219,-1.2476,-4.0332,-5.3801
1503.9062,1.3693,3.6353,-0.1128,-0.0296,-2.0101,4.5500,-0.0233,-0.4910,-2.1588,2.1546,-4.6353,-6.3126,-6.5148,-3.0787,1.1858,-1.0299,-4.0247,-2.5327,-3.1388
1507.8125,-1.1353,6.8507,3.7825,3.4277,-0.3025,5.9489,1.7761,1.6628,-0.2606,2.5676,-5.1610,-8.3452,-7.4237,-2.9191,1.7601,-3.8708,-6.5904,-0.5110,-1.2231
1511.7188,-3.5564,6.5449,6.1064,5.3476,1.0651,6.0434,2.8038,3.2034,2.0634,2.1238,-5.2313,-8.8869,-7.2274,-2.5261,0.9709,-6.0670,-8.0336,1.0753,-0.1064
1515.6250,-4.4018,2.9334,6.1368,5.0276,1.5739,5.3226,2.9758,3.4698,3.2072,1.3451,-4.6497,-7.8874,-6.0644,-2.2343,-0.9340,-7.0325,-7.9063,1.3352,0.0084
1519.5312,-2.9210,-2.7895,3.8329,2.6957,1.0864,4.2146,2.2619,2.2942,2.0087,0.5657,-3.7141,-5.7597,-4.3182,-2.1315,-3.2394,-6.6616,-6.2904,0.0163,-0.6976
1523.4375,0.3167,-8.8727,0.0173,-0.5606,-0.0592,2.9181,0.8030,0.1471,-1.2321,-0.1721,-2.9017,-3.0740,-2.3234,-1.9846,-4.9487,-5.1996,-3.6254,-2.2100,-1.6952
1527.3438,3.6910,-13.5192,-3.7942,-3.2704,-1.2108,1.5267,-0.9614,-2.0300,-4.6654,-0.9618,-2.4611,-0.2747,-0.2085,-1.4161,-5.1842,-3.0129,-0.4533,-3.9983,-2.3052
1531.2500,5.5123,-15.3745,-5.9528,-4.2291,-1.7336,0.2405,-2.3330,-3.2426,-5.9305,-1.8046,-2.2377,2.3989,2.0302,-0.2078,-3.6484,-0.4468,2.7507,-4.0374,-1.9866
1535.1562,5.0531,-13.9053,-5.4197,-3.0149,-1.3277,-0.5855,-2.6267,-2.9094,-3.6941,-2.5136,-1.8499,4.7860,4.3120,1.4792,-0.8735,2.1542,5.5940,-1.8283,-0.5925
1539.0625,2.9263,-9.5680,-2.3115,-0.1433,-0.1649,-0.6264,-1.5506,-1.1406,1.3530,-2.8167,-1.0602,6.6269,6.3007,3.1203,1.9452,4.3514,7.6880,1.9428,1.5299
1542.9688,0.5829,-3.6853,2.0927,3.1901,1.2154,0.1503,0.5582,1.3147,6.7582,-2.5552,-0.0394,7.5238,7.4326,4.0728,3.4966,5.5964,8.6016,5.6936,3.6504
1546.8750,-0.6711,1.9759,5.9499,5.6452,2.1847,1.3882,2.8366,3.4289,9.7095,-1.8142,0.6908,7.1082,7.1515,3.8999,2.9895,5.3807,7.9461,7.7592,4.9436
1550.7812,-0.4391,5.8068,7.7736,6.3121,2.3280,2.5211,4.3265,4.3830,8.6897,-0.8962,0.6118,5.3140,5.2237,2.5823,0.5075,3.4905,5.5779,7.2744,4.8407
1554.6875,0.6935,6.9147,7.1787,5.0858,1.6252,3.1072,4.4919,3.9390,4.3406,-0.1792,-0.3870,2.5614,1.9487,0.5070,-3.1052,0.2050,1.8011,4.6227,3.2950
1558.5938,1.7158,5.4066,5.0275,2.6887,0.4354,3.0701,3.5067,2.5181,-0.9704,0.0319,-1.8433,-0.3057,-1.8634,-1.7344,-6.7126,-3.7081,-2.5858,1.2123,0.8394
1562.5000,1.8890,2.2738,2.8908,0.3296,-0.6969,2.6730,2.1243,0.9543,-4.5469,-0.4130,-2.9318,-2.3310,-5.1578,-3.6090,-9.3798,-7.2231,-6.4869,-1.2786,-1.6136
1566.4062,1.0868,-1.0713,2.1305,-0.8652,-1.3156,2.2708,1.2060,0.0499,-4.8239,-1.4840,-2.9414,-2.8574,-7.0368,-4.8262,-10.6045,-9.4076,-8.9014,-1.7537,-3.1631
1570.3125,-0.3579,-3.3966,3.1285,-0.4047,-1.2830,2.0554,1.1983,0.1592,-2.0476,-2.9548,-1.7328,-1.8248,-7.1231,-5.3780,-10.2454,-9.7321,-9.3315,-0.1996,-3.3407
1574.2188,-2.0455,-4.1193,5.0957,1.2910,-0.8580,1.9930,1.8816,1.0077,2.1027,-4.3894,0.1101,0.2024,-5.7182,-5.4570,-8.3478,-8.2153,-7.9909,2.3941,-2.3564
1578.1250,-3.7598,-3.4423,6.5539,3.0570,-0.5782,1.9683,2.5378,1.8430,5.5730,-5.1966,1.5433,2.2948,-3.6659,-5.3241,-5.1016,-5.3739,-5.6821,4.5981,-1.0175
1582.0312,-5.3951,-2.1212,6.2021,3.5510,-0.9858,1.9650,2.4209,1.8442,6.9727,-4.8200,1.6083,3.5784,-1.9631,-5.1910,-0.9797,-2.0254,-3.3887,5.2658,-0.3260
1585.9375,-6.7017,-1.0127,3.6734,1.9667,-2.3151,2.0908,1.2344,0.5831,6.0485,-3.0319,-0.0416,3.6128,-1.2912,-5.1509,3.1315,0.9732,-1.7997,4.0479,-0.9322
1589.8438,-7.1429,-0.6583,-0.2293,-1.4775,-4.3008,2.4110,-0.6725,-1.7069,3.4837,-0.1747,-2.9316,2.5460,-1.7054,-5.1624,6.0632,2.9676,-1.0305,1.4789,-2.7412
1593.7500,-6.0545,-1.1247,-3.9332,-5.5619,-6.2250,2.7552,-2.4965,-4.2062,0.3176,2.8473,-5.9946,0.9733,-2.6646,-5.0852,6.8179,3.6591,-0.7010,-1.3585,-4.9124
1597.6562,-3.0390,-2.1485,-5.8928,-8.6221,-7.2151,2.7147,-3.4313,-5.9007,-2.5949,4.9013,-8.1102,-0.4166,-3.3952,-4.7582,5.1144,3.1281,-0.3099,-3.3850,-6.2898
1601.5625,1.6566,-3.4307,-5.3470,-9.3564,-6.6612,1.9005,-3.1014,-6.0804,-4.8038,5.1480,-8.6430,-1.2096,-3.3784,-4.0915,1.6438,1.7289,0.3500,-4.0031,-6.0380
1605.4688,7.0219,-4.8257,-2.6391,-7.4398,-4.5363,0.2952,-1.7308,-4.6725,-6.1485,3.4608,-7.6701,-1.4298,-2.6463,-3.1218,-2.1965,-0.0841,1.0262,-3.2727,-4.1077
1609.3750,11.5134,-6.2598,1.0460,-3.6039,-1.4326,-1.5871,0.0366,-2.2244,-6.4969,0.4906,-5.7812,-1.3966,-1.6779,-1.9879,-4.9741,-1.9009,1.2196,-1.7246,-1.2385
1613.2812,13.5609,-7.4566,4.3500,0.8326,1.7204,-2.9050,1.5353,0.4362,-5.5827,-2.6650,-3.6090,-1.3667,-0.9591,-0.8298,-5.8896,-3.3989,0.6369,0.0485,1.5130
1617.1875,12.1775,-7.7571,6.4202,4.6649,4.1018,-2.9649,2.4430,2.6413,-3.0940,-4.9793,-1.4263,-1.2209,-0.5272,0.3201,-5.0377,-4.2930,-0.4487,1.7529,3.4129
1621.0938,7.4708,-6.3190,7.2127,7.2857,5.3455,-1.6523,2.8882,4.1421,1.0066,-5.8957,0.8950,-0.4567,0.1255,1.5531,-3.1473,-4.2916,-1.2312,3.4687,4.4227
1625.0000,0.8326,-2.7107,7.2658,8.6812,5.5857,0.4765,3.2402,5.0410,6.1232,-5.4159,3.5286,1.4353,1.6493,2.9593,-1.0517,-3.1647,-0.8475,5.3816,5.0405
1628.9062,-5.3865,2.4562,7.1204,9.0294,5.1926,2.5066,3.7303,5.4824,10.9109,-3.9133,6.2134,4.4199,4.1706,4.4212,0.7141,-0.9358,0.9812,7.3642,5.7185
1632.8125,-8.7566,7.3891,6.7925,8.2787,4.4034,3.6612,4.1653,5.3704,13.6139,-1.8786,8.0569,7.5848,6.8560,5.4861,1.9571,1.9295,3.5793,8.7395,6.2892
1636.7188,-7.9432,9.7826,5.6813,6.0858,3.1228,3.6553,3.9553,4.3573,12.8299,0.2178,7.8755,9.3553,8.1151,5.4609,2.5986,4.5303,5.5292,8.4796,5.8689
1640.6250,-3.6087,8.0703,3.0178,2.1989,1.0502,2.7139,2.4767,2.1447,8.3655,1.9176,4.9480,8.2577,6.4448,3.7505,2.4770,5.8321,5.4113,5.8091,3.3926
1644.5312,1.5763,2.5341,-1.4197,-3.0079,-1.9542,1.3143,-0.4341,-1.1177,1.6662,2.7533,-0.2833,3.8435,1.4472,0.2724,1.4078,5.1550,2.6543,0.8698,-1.5261
1648.4375,4.0590,-4.5210,-6.8165,-8.3109,-5.5375,-0.1139,-4.1851,-4.6612,-4.5709,2.3483,-6.0876,-2.8021,-5.6482,-4.3142,-0.5468,2.5671,-2.0320,-5.0191,-7.9979
1652.3438,1.2469,-9.8193,-11.4586,-12.0067,-8.8271,-1.3282,-7.5673,-7.3443,-7.5702,0.6325,-10.1126,-9.3673,-12.3770,-8.7575,-2.8799,-1.0923,-6.9413,-9.7808,-14.0060
1656.2500,-6.9105,-10.8925,-13.5123,-12.7379,-10.7789,-2.2333,-9.3071,-8.2156,-5.8963,-1.9897,-10.5606,-13.3673,-16.2055,-11.7151,-4.7645,-4.6194,-10.2343,-11.5437,-17.3112
1660.1562,-17.5823,-7.5341,-12.0281,-10.2763,-10.7065,-2.7905,-8.7400,-7.0504,-0.3291,-4.7056,-7.2249,-13.4026,-15.8248,-12.3596,-5.4941,-7.0572,-10.8815,-9.6391,-16.6221
1664.0625,-26.2908,-1.9942,-7.5612,-5.7439,-8.6650,-3.0079,-6.2023,-4.5033,6.3649,-6.6236,-1.7620,-9.9134,-11.8173,-10.7559,-4.9399,-8.1405,-9.1416,-5.0477,-12.3247
1667.9688,-29.1086,2.2649,-1.9990,-1.0919,-5.4489,-3.0041,-2.8892,-1.7651,10.7178,-7.1875,3.0107,-4.9857,-6.3164,-7.8018,-3.6759,-8.3054,-6.3246,-0.0007,-6.3224
1671.8750,-24.5915,2.5208,2.3387,1.8610,-2.2140,-3.0204,-0.2480,0.0619,10.2290,-6.4088,4.4425,-1.3033,-1.8886,-4.7819,-2.6449,-8.2892,-4.0275,3.0735,-1.0821
1675.7812,-14.3733,-1.7362,3.8088,2.2508,0.0348,-3.2882,0.7378,0.4728,4.5205,-4.7698,1.3087,-0.8235,-0.3052,-2.7932,-2.5785,-8.6111,-3.3211,2.6886,1.5371
1679.6875,-2.1777,-8.6722,2.1339,0.3888,0.7926,-3.8130,-0.0482,-0.3426,-4.5968,-2.8913,-5.6370,-3.8833,-1.8764,-2.3497,-3.5616,-9.2769,-4.3376,-1.0718,1.0082
1683.5938,8.0473,-15.3095,-1.6810,-2.6672,0.0914,-4.2754,-1.9734,-1.8160,-14.0712,-1.2197,-14.0408,-9.1596,-5.6077,-3.3239,-5.0141,-9.8598,-6.4101,-6.7169,-1.9226
1687.5000,13.7439,-19.2174,-6.0587,-5.8234,-1.7023,-4.2006,-4.1588,-3.4479,-20.9574,0.0520,-20.9961,-14.4157,-9.9290,-5.1705,-6.0599,-9.8364,-8.5669,-12.1339,-5.8962
1691.4062,14.3195,-19.6353,-9.6824,-8.4496,-4.1237,-3.3343,-5.9966,-5.0518,-23.4501,0.8345,-24.2135,-17.5696,-13.4736,-7.2428,-5.9983,-8.9064,-10.0238,-15.5292,-9.6926
1695.3125,10.6873,-17.4497,-11.9454,-10.4046,-6.7173,-1.9427,-7.3383,-6.6541,-21.2328,0.9708,-22.8044,-17.5352,-15.4877,-9.0200,-4.5861,-7.1010,-10.4119,-16.0663,-12.6167
1699.2188,4.4063,-14.2568,-12.8468,-11.7090,-9.0158,-0.7472,-8.2837,-8.1957,-15.2421,0.2606,-17.4415,-14.5031,-15.8001,-10.1876,-2.0356,-4.6875,-9.7253,-13.9867,-14.4093
1703.1250,-2.8994,-11.2832,-12.5667,-12.2236,-10.5199,-0.4590,-8.8066,-9.3322,-7.2034,-1.2975,-9.9582,-9.6699,-14.5802,-10.6229,1.1399,-2.0339,-8.1581,-10.3013,-14.9383
1707.0312,-9.6402,-8.8834,-11.1438,-11.6296,-10.7979,-1.2131,-8.5716,-9.5351,0.7966,-3.2667,-2.6382,-4.6619,-12.1688,-10.3650,4.2554,0.4314,-6.0102,-6.2997,-14.0326
1710.9375,-14.2049,-6.7985,-8.5237,-9.7117,-9.6918,-2.3466,-7.1336,-8.4401,6.6855,-4.8147,2.5283,-0.9496,-9.0756,-9.5913,6.5135,2.1861,-3.6972,-3.1093,-11.6246
1714.8438,-15.1913,-4.7944,-4.9063,-6.6823,-7.4819,-2.7622,-4.3963,-6.1759,8.8515,-5.1250,4.3991,0.5590,-6.0188,-8.5672,7.1033,2.6578,-1.7564,-1.4169,-8.0509
1718.7500,-12.0092,-3.1039,-1.0422,-3.2486,-4.8507,-1.6870,-0.9669,-3.4087,6.6662,-3.9459,2.9146,-0.3075,-3.8155,-7.5429,5.4600,1.4475,-0.7291,-1.3644,-4.1926
1722.6562,-5.4545,-2.3532,1.8525,-0.3369,-2.6152,0.6963,1.9262,-1.0420,0.8566,-1.8772,-1.0262,-3.0148,-3.0753,-6.6388,1.6297,-1.3485,-0.9201,-2.5890,-1.2388
1726.5625,2.2955,-3.0918,2.6244,1.3471,-1.3686,3.2350,2.9968,0.2403,-6.5835,-0.1185,-5.9719,-6.5108,-3.8598,-5.8057,-3.5062,-4.9627,-2.1819,-4.3839,-0.1488
1730.4688,8.4745,-5.3125,0.8668,1.6279,-1.2401,4.4799,1.6466,0.2947,-13.0572,0.2232,-10.4314,-9.5270,-5.5596,-4.9148,-8.4015,-8.1416,-3.9023,-5.9377,-1.1333
1734.3750,10.9376,-8.2915,-2.6770,0.8622,-1.9044,3.6184,-1.5746,-0.4778,-16.3453,-1.1688,-13.2788,-10.9307,-7.1239,-3.9244,-11.4386,-9.6711,-5.2533,-6.5822,-3.4889
1738.2812,9.0880,-10.8136,-6.2992,-0.3123,-2.8026,1.0258,-5.1189,-1.4029,-15.4172,-3.5921,-13.9220,-10.0438,-7.5445,-2.9867,-11.6592,-8.9597,-5.5761,-5.9614,-5.9057
1742.1875,3.9896,-11.6251,-8.0668,-1.2795,-3.4141,-1.9566,-7.1673,-1.8791,-10.6761,-5.7389,-12.2662,-6.8392,-6.3207,-2.3791,-9.2037,-6.3163,-4.6743,-4.0733,-7.0770
1746.0938,-2.3194,-9.9059,-6.7528,-1.6230,-3.4267,-3.8662,-6.5489,-1.5979,-3.6054,-6.4850,-8.6221,-1.9638,-3.6487,-2.2806,-5.1863,-2.7487,-2.8492,-1.2108,-6.2774
1750.0000,-7.8107,-5.6319,-2.4709,-1.1555,-2.7608,-4.0046,-3.3425,-0.5757,3.8813,-5.5308,-3.6822,3.4224,-0.2583,-2.5602,-1.0916,0.5730,-0.6815,2.1293,-3.6239
1753.9062,-11.1706,0.2574,3.3330,0.1095,-1.5123,-2.7648,1.1711,0.9369,10.0193,-3.4919,1.4746,7.9596,2.9711,-2.7673,1.9256,2.8339,1.2785,5.3281,0.0642
1757.8125,-11.9751,5.9940,8.5567,1.9691,0.1029,-1.2162,5.1797,2.5684,13.5495,-1.4276,5.5358,10.5012,5.3895,-2.3807,3.4345,3.7796,2.7245,7.7510,3.6907
1761.7188,-10.4942,9.5257,11.4635,4.0518,1.7876,-0.2867,7.2675,3.9301,13.9404,-0.1763,7.4007,10.5337,6.7783,-1.1649,3.6681,3.5822,3.6235,8.9337,6.3680
1765.6250,-7.4365,9.4085,11.5429,5.9324,3.2300,-0.1412,7.1036,4.7358,11.5870,0.0450,6.7939,8.4557,7.3352,0.6305,3.1692,2.5830,4.1134,8.8295,7.7578
1769.5312,-3.7773,5.6836,9.7514,7.3502,4.2270,-0.1712,5.5376,4.9426,7.8848,-0.4370,4.6382,5.5384,7.5036,2.4002,2.4451,1.1598,4.3823,7.9668,8.1408
1773.4375,-0.5607,0.1683,7.9680,8.3930,4.8052,0.4519,4.0607,4.8320,4.8998,-1.1530,2.7626,3.4646,7.7363,3.5780,1.8203,-0.2325,4.6013,7.3157,8.1978
1777.3438,1.4627,-4.2364,7.9062,9.4545,5.2225,2.0992,3.9305,4.9145,4.4870,-1.8532,2.8900,3.5465,8.2693,4.0171,1.4585,-1.0151,4.8974,7.7983,8.5918
1781.2500,2.2713,-5.0591,10.0532,10.9025,5.7877,4.3672,5.4319,5.6288,7.1632,-2.5631,5.4207,5.9718,8.9770,4.0707,1.4047,-0.6351,5.3162,9.6535,9.5397
1785.1562,2.7304,-1.7854,13.2630,12.6542,6.5864,6.3136,7.6849,6.9832,11.4597,-3.3537,8.8573,9.5364,9.3892,4.2997,1.5655,1.0894,5.7688,12.0806,10.6118
1789.0625,4.1643,3.6140,15.3243,14.0113,7.3238,7.0469,9.1313,8.4076,14.4253,-4.0873,10.4708,12.1498,8.9215,5.0202,1.7016,3.6847,6.0265,13.5212,10.9300
1792.9688,7.4372,7.6831,14.2785,13.9931,7.4612,6.2636,8.4608,9.0041,13.2891,-4.3924,8.0203,11.9712,7.2676,6.0390,1.5593,6.1120,5.8319,12.5660,9.7284
1796.8750,12.1099,7.5655,9.7652,12.0463,6.6151,4.4207,5.4749,8.1181,7.4077,-3.8999,1.5173,8.5864,4.7563,6.7888,1.1382,7.3092,5.1072,8.9963,6.9881
1800.7812,16.3546,2.9262,3.5563,8.6582,4.9550,2.4986,1.3795,5.8819,-0.8117,-2.5333,-6.2155,3.4910,2.4116,6.7767,0.8925,6.8850,4.1250,4.2585,3.7247
1804.6875,17.8755,-3.5785,-1.1595,5.3646,3.2740,1.5439,-1.7215,3.3214,-6.8601,-0.5972,-10.8048,-0.5322,1.5661,6.0037,1.6087,5.4686,3.4736,0.9228,1.6435
1808.5938,15.3567,-7.7194,-1.4500,4.0026,2.5989,2.2355,-1.9111,1.8705,-6.6181,1.4142,-8.8388,-0.9003,3.1531,5.0271,3.9048,4.3912,3.7660,1.3086,2.2485
1812.5000,9.4869,-6.2163,3.6498,5.6039,3.5453,4.6263,1.4560,2.5374,1.0552,3.1259,-0.1254,3.2410,7.0606,4.5933,7.6292,4.8400,5.2341,6.0495,5.8901
1816.4062,2.7965,1.1849,12.4149,9.6455,5.8466,8.0990,7.2936,5.2454,13.3116,4.4450,11.8125,10.3806,11.9858,5.0991,11.6269,7.0330,7.4806,13.5062,11.3606
1820.3125,-1.6907,11.3976,21.1839,14.2083,8.4172,11.5276,13.2499,8.7983,24.6548,5.4491,21.4771,17.3410,15.9700,6.2766,14.1715,10.0021,9.5997,20.4664,16.3762
1824.2188,-2.1734,19.6568,26.2045,17.0139,9.9558,13.6289,16.8711,11.5228,29.9126,6.1171,24.4125,20.9544,17.3747,7.3409,13.9083,12.1665,10.6447,23.7848,18.7352
1828.1250,0.9373,22.1394,25.5249,16.7135,9.7108,13.4515,16.8222,12.1957,27.0510,6.1709,19.6722,19.7450,15.7448,7.5065,10.7350,12.3279,10.1728,22.0181,17.4910
1832.0312,5.3662,17.9640,19.8648,13.6149,7.9038,10.8382,13.4820,10.6750,18.1331,5.2112,10.2243,14.6350,12.0311,6.5102,6.0069,10.4122,8.5131,16.1120,13.4284
1835.9375,8.3909,9.4572,12.0336,9.4054,5.5329,6.6211,8.6066,7.8640,7.9210,3.0795,1.0881,8.2961,8.0264,4.7812,1.8597,7.4650,6.5715,8.7878,8.5585
1839.8438,8.3913,0.6891,5.3380,6.0913,3.7111,2.3599,4.3108,5.0882,1.1034,0.1660,-3.5757,3.5936,5.3604,3.1545,0.0428,4.9340,5.2863,3.0628,4.9639
1843.7500,5.5952,-4.7076,1.9677,4.8705,3.0065,-0.3261,1.9990,3.3316,-0.1028,-2.6086,-2.5985,2.0871,4.6707,2.3448,1.0001,3.7661,5.0873,0.8033,3.7233
1847.6562,1.6868,-5.1485,2.2405,5.6368,3.2237,-0.5116,1.8543,2.8210,3.3689,-4.1833,2.0484,3.4422,5.4338,2.5460,3.7722,3.9406,5.7009,2.0807,4.5480
1851.5625,-1.3128,-1.3898,4.9550,7.3307,3.7189,1.6256,3.0888,3.1479,8.6074,-3.8863,6.9499,5.9790,6.4974,3.4028,6.7302,4.7064,6.4123,5.5294,6.2582
1855.4688,-2.1214,4.3562,8.4007,8.7721,3.9589,4.9894,4.6675,3.7352,12.7318,-1.7734,9.4933,7.8755,6.9045,4.3241,8.5992,5.2746,6.5842,9.2985,7.6735
1859.3750,-0.6486,9.7251,11.2838,9.3533,3.8829,8.2154,5.9628,4.2554,14.3880,1.4240,9.1823,8.2173,6.4583,4.8803,9.0793,5.4152,6.0808,11.9545,8.2839
1863.2812,2.2461,13.1443,13.0644,9.1752,3.8281,10.3620,6.9354,4.7205,13.9714,4.6675,7.3517,7.3020,5.7021,5.0136,8.7215,5.5350,5.3298,12.8914,8.3095
1867.1875,5.3422,14.0934,13.7254,8.6794,4.1345,11.2110,7.8287,5.2629,12.7784,7.0434,5.7827,6.1639,5.4167,4.9597,8.2738,6.2380,5.0167,12.2310,8.2467
1871.0938,7.5811,12.8639,13.3800,8.1800,4.7883,11.0598,8.7190,5.8607,11.9173,8.0242,5.3821,5.7696,6.0440,4.9998,8.0633,7.7541,5.6416,10.4976,8.3516
1875.0000,8.3218,10.2016,12.1129,7.6845,5.3979,10.2652,9.3195,6.2638,11.7384,7.5017,5.8476,6.4488,7.4349,5.2481,7.8707,9.6812,7.2267,8.3535,8.4772
1878.9062,7.3833,7.0707,10.1239,7.0788,5.5041,8.9507,9.1852,6.1723,11.9719,5.7034,6.3548,7.8490,9.0306,5.6096,7.3152,11.2118,9.3224,6.4751,8.3347
1882.8125,5.0046,4.5009,7.9143,6.4215,4.9507,7.1015,8.1207,5.4938,12.2063,3.1147,6.5091,9.2905,10.2629,5.8855,6.3522,11.6374,11.2502,5.4530,7.8750
1886.7188,1.7708,3.3567,6.2044,6.0214,4.0012,4.8966,6.4227,4.4481,12.2077,0.4194,6.6867,10.1683,10.8327,5.9025,5.4245,10.7401,12.3887,5.5999,7.4054
1890.6250,-1.5350,3.9830,5.5300,6.1927,3.1119,2.8963,4.7284,3.4249,11.8756,-1.6348,7.4853,10.1150,10.6802,5.5652,5.1205,8.8122,12.3414,6.7137,7.3001
1894.5312,-4.1759,5.9010,5.7962,6.8886,2.5533,1.8212,3.5642,2.7042,11.0204,-2.5029,8.8032,8.9113,9.7401,4.8267,5.6211,6.3502,10.9551,7.9921,7.5393
1898.4375,-5.7118,7.8302,6.1712,7.5424,2.1909,2.0312,2.9420,2.2584,9.2908,-2.1377,9.4164,6.3557,7.7603,3.6506,6.4068,3.7099,8.2777,8.2673,7.4875
1902.3438,-6.1180,8.1760,5.4910,7.2900,1.5954,3.1360,2.3367,1.7792,6.3943,-1.0852,7.5524,2.3118,4.3991,2.0229,6.5062,0.9940,4.5497,6.5234,6.1675
1906.2500,-5.7065,5.8263,2.9661,5.4511,0.3808,4.1308,1.0939,0.8948,2.4425,-0.2112,2.1637,-3.0449,-0.4230,0.0041,5.1531,-1.7751,0.2421,2.4368,2.9022
1910.1562,-4.9360,0.8501,-1.2672,1.9459,-1.5028,4.0615,-1.0112,-0.5845,-1.8920,-0.1508,-6.0068,-8.9830,-6.1786,-2.2453,2.3914,-4.3882,-3.9390,-3.3818,-2.1078
1914.0625,-4.2556,-5.3300,-6.1242,-2.6215,-3.7399,2.7640,-3.4797,-2.5525,-5.5862,-0.8268,-14.4149,-14.2379,-11.6964,-4.5066,-0.8147,-6.3455,-7.1725,-9.5961,-7.6937
1917.9688,-4.0474,-10.4755,-10.1103,-7.2357,-5.8707,1.0932,-5.3020,-4.6651,-7.7451,-1.4235,-19.9115,-17.4047,-15.5406,-6.5832,-3.0750,-7.0369,-8.7720,-14.6923,-12.2191
1921.8750,-4.5800,-12.5823,-12.0799,-10.8894,-7.5534,0.3875,-5.5653,-6.4876,-8.0495,-0.9237,-20.4528,-17.5442,-16.6340,-8.3424,-3.3692,-6.0985,-8.4604,-17.5611,-14.3758
1925.7812,-5.8589,-10.9291,-11.7532,-12.8880,-8.6502,1.4949,-4.0567,-7.6267,-6.8983,1.0973,-16.2488,-14.6636,-14.7750,-9.6732,-1.6450,-3.7024,-6.5142,-17.8299,-13.7884
1929.6875,-7.4100,-6.5491,-9.7097,-12.9278,-9.1032,4.0625,-1.4492,-7.7999,-5.1771,3.9760,-9.6172,-9.7750,-10.7476,-10.4033,1.1483,-0.5746,-3.6802,-15.8378,-11.0843
1933.5938,-8.2347,-1.7962,-6.9286,-11.0269,-8.7679,6.6527,1.0699,-6.8735,-3.7958,6.1777,-3.6398,-4.4733,-5.9654,-10.2822,3.5977,2.2826,-0.8881,-12.3590,-7.4420
1937.5000,-7.1872,0.8554,-4.2124,-7.4663,-7.4143,7.6676,2.4976,-4.9137,-3.2394,6.1744,-0.4735,-0.2534,-1.8578,-9.0991,4.6003,4.0150,1.1023,-8.2760,-3.9530
1941.4062,-3.7322,0.1833,-1.8573,-2.8111,-4.9508,6.4599,2.5930,-2.2382,-3.3387,3.4531,-0.3474,2.0644,0.6674,-6.8894,3.9253,4.2629,1.9518,-4.3600,-1.1957
1945.3125,1.3646,-3.0191,0.2712,2.0596,-1.7030,3.8374,1.9657,0.5947,-3.3671,-1.0161,-1.7949,2.5103,1.4307,-4.0805,2.2662,3.2678,1.7849,-1.1968,0.7722
1949.2188,6.0254,-6.3147,2.3703,6.0490,1.5109,1.5793,1.6211,2.9113,-2.4454,-5.1973,-2.8674,1.6977,0.8156,-1.4331,0.7844,1.7069,1.0282,0.7981,2.1009
1953.1250,7.8039,-7.0436,4.3199,8.1155,3.6426,1.2749,2.2590,4.1341,-0.1139,-7.0694,-2.4915,0.3236,-0.6002,0.2395,0.4243,0.3507,0.1437,1.3535,2.7990
1957.0312,5.3781,-4.0427,5.5494,7.6215,3.8980,3.2740,3.7677,3.9753,3.1906,-5.7143,-1.1089,-1.2353,-2.3721,0.4287,1.3763,-0.2949,-0.6084,0.3521,2.6075
1960.9375,-0.3626,1.3830,5.2452,4.5729,2.1440,6.4543,5.2316,2.5043,6.0671,-1.7629,-0.2558,-2.9993,-4.3068,-0.8480,2.9743,-0.1997,-1.2674,-2.1251,1.1617
1964.8438,-6.5093,5.9515,2.7898,-0.3841,-1.0255,8.9372,5.4482,0.0664,6.6758,3.0275,-1.4252,-5.1303,-6.3643,-3.0954,4.0767,0.2208,-2.0955,-5.7437,-1.6952
1968.7500,-9.7044,6.2268,-1.8008,-6.1923,-4.6004,9.2442,3.6448,-2.8730,3.7287,6.7474,-4.9705,-7.5658,-8.4716,-5.6134,3.7261,0.3675,-3.3717,-9.8899,-5.6723
1972.6562,-8.2084,0.7770,-7.6830,-11.6988,-7.6348,7.1315,-0.0234,-5.8485,-2.5528,8.2522,-9.7343,-9.8280,-10.4060,-7.8128,1.7347,-0.1772,-5.1679,-13.7220,-10.0188
1976.5625,-3.1038,-8.6609,-13.3636,-15.9088,-9.5952,3.6208,-4.4720,-8.4255,-10.1424,7.5328,-13.6024,-11.1727,-11.8298,-9.3821,-1.1355,-1.3759,-7.2263,-16.3367,-13.7451
1980.4688,2.2596,-17.8295,-17.2053,-18.1186,-10.4035,0.3095,-8.1699,-10.1836,-15.9385,5.4479,-14.6285,-11.0045,-12.4424,-10.2460,-3.5184,-2.7210,-9.0177,-17.0403,-15.9564
1984.3750,4.3333,-22.1638,-18.0537,-17.9738,-10.2264,-1.5150,-9.8341,-10.7417,-17.2704,3.1123,-12.0714,-9.2912,-12.1378,-10.4081,-4.1529,-3.5073,-9.9649,-15.6352,-16.1436
1988.2812,1.6430,-19.3190,-15.7070,-15.5179,-9.2291,-1.4148,-8.9740,-9.8693,-13.3745,1.3507,-6.7916,-6.6919,-11.0647,-9.8412,-2.5745,-3.2464,-9.7268,-12.5733,-14.3272
1992.1875,-4.2387,-10.5228,-11.0105,-11.2441,-7.4907,0.2125,-6.0432,-7.6391,-5.9278,0.4675,-0.8389,-4.2889,-9.5676,-8.5229,0.5976,-1.9744,-8.3944,-8.8545,-11.0357
1996.0938,-9.6908,0.0625,-5.5328,-6.0886,-5.1235,2.5155,-2.1827,-4.5098,1.7649,0.3192,3.4950,-3.0654,-8.0659,-6.5794,3.9472,-0.2600,-6.4911,-5.6706,-7.1639
2000.0000,-11.3679,7.5780,-0.9830,-1.2931,-2.4655,4.5969,1.2624,-1.2610,6.5055,0.5212,4.6587,-3.4398,-6.9565,-4.4012,5.9628,1.0957,-4.7704,-3.9511,-3.7702
2003.9062,-8.3172,8.9690,1.3612,1.8773,-0.1551,5.7428,3.2092,1.2193,6.8294,0.6396,2.4048,-5.1272,-6.5739,-2.6067,5.7594,1.4788,-3.9109,-4.0394,-1.8484
2007.8125,-2.5179,4.3220,0.9865,2.4913,1.0209,5.5150,3.1214,2.2051,3.5595,0.3364,-2.2518,-7.3851,-7.1682,-1.8334,3.4313,0.7421,-4.2535,-5.6575,-2.0901
2011.7188,2.4534,-3.6030,-1.8292,0.2680,0.4582,3.8478,1.0815,1.3604,-0.9777,-0.5033,-7.5697,-9.4506,-8.8311,-2.4545,-0.1143,-0.8036,-5.6892,-8.1334,-4.6550
2015.6250,3.6925,-11.1621,-6.2001,-4.2537,-1.9208,1.1827,-2.2880,-1.1378,-4.4734,-1.6747,-11.8094,-10.8755,-11.3512,-4.3678,-3.6781,-2.6346,-7.7208,-10.7091,-9.0082
2019.5312,0.6803,-15.7388,-10.8797,-9.7646,-5.5015,-1.5148,-5.9895,-4.6010,-5.8715,-2.6741,-13.8378,-11.5661,-14.0904,-6.9709,-6.3039,-4.2973,-9.6429,-12.7354,-13.9235
2023.4375,-4.5925,-16.6853,-14.4996,-14.4823,-9.1032,-3.0426,-8.8843,-7.9634,-5.5881,-2.9137,-13.4068,-11.5737,-16.0335,-9.3425,-7.5521,-5.5445,-10.7634,-13.6951,-17.7451
2027.3438,-9.0276,-14.9726,-15.8362,-16.6752,-11.3824,-2.5460,-10.0013,-10.0602,-4.7539,-2.0771,-11.0708,-10.8662,-16.1129,-10.5680,-7.4572,-6.2940,-10.6069,-13.1694,-18.9128
2031.2500,-10.3273,-12.0810,-14.1586,-15.3004,-11.3688,-0.0934,-8.8802,-10.0259,-4.1822,-0.4050,-7.8437,-9.3068,-13.7312,-10.0886,-6.3295,-6.5226,-9.0692,-10.9117,-16.6033
2035.1562,-8.1869,-9.0237,-9.5973,-10.5263,-8.9122,3.1787,-5.8180,-7.6961,-3.8530,1.3217,-4.7697,-6.8770,-9.2189,-7.9442,-4.5994,-6.2360,-6.4906,-7.0718,-11.2108
2039.0625,-4.1484,-6.1016,-3.3255,-3.8595,-4.8230,5.5712,-1.8539,-3.8073,-3.2084,2.1702,-2.5778,-3.9502,-3.9116,-4.8014,-2.7752,-5.5415,-3.6007,-2.4109,-4.3743
2042.9688,-0.4098,-3.3340,2.6771,2.3094,-0.5947,5.7664,1.5878,0.1905,-1.8862,1.6197,-1.5349,-1.3438,0.3075,-1.7243,-1.4254,-4.7165,-1.3058,1.7435,1.5667
2046.8750,1.5179,-1.0148,6.3228,5.6502,2.2095,3.6482,3.2894,2.7172,-0.2162,-0.0589,-1.5141,-0.0181,1.8426,0.2485,-1.0574,-4.1417,-0.3546,3.9319,4.5150
2050.7812,1.4639,0.1607,6.3097,4.9221,2.6369,0.4438,2.7840,2.7950,0.9405,-1.8846,-2.2032,-0.5601,0.1711,0.5483,-1.8801,-4.0877,-1.0152,3.2351,3.5275
2054.6875,0.2988,-0.4756,2.7419,0.5459,0.7489,-1.9619,0.5438,0.5285,0.8486,-2.6981,-3.3221,-2.7894,-3.8765,-0.6823,-3.6066,-4.5061,-2.9397,-0.1966,-0.7800
2058.5938,-0.9334,-2.9404,-2.9142,-5.6352,-2.4806,-2.1531,-2.3171,-2.9752,-0.5203,-1.8257,-4.7342,-5.7832,-8.5384,-2.6981,-5.4980,-5.0230,-5.3256,-5.1187,-6.5719
2062.5000,-1.7742,-6.3225,-8.5586,-11.3067,-5.7213,-0.0505,-4.6675,-6.2280,-2.4769,0.5328,-6.4113,-8.3555,-12.0271,-4.5772,-6.7107,-5.1979,-7.3175,-9.7524,-11.7098
2066.4062,-2.5075,-9.1408,-12.4686,-14.8090,-7.9772,3.0301,-5.9397,-8.1574,-4.1782,3.4265,-8.3077,-9.7077,-13.4017,-5.7286,-6.7759,-4.8867,-8.4333,-12.6291,-14.7430
2070.3125,-3.6981,-10.1513,-14.0008,-15.7759,-8.9969,5.1736,-6.3141,-8.5785,-5.2886,5.6830,-10.2467,-9.8351,-12.9049,-6.1750,-5.8957,-4.4225,-8.7597,-13.2271,-15.4292
2074.2188,-5.5195,-9.0761,-13.5942,-14.9426,-9.1735,5.0206,-6.4052,-8.0607,-6.1708,6.4989,-11.8997,-9.4139,-11.5978,-6.4281,-4.8247,-4.4251,-8.7948,-12.0323,-14.5331
2078.1250,-7.3909,-6.7575,-12.1475,-13.3261,-9.0441,2.5715,-6.6822,-7.3239,-7.4280,5.7427,-12.8652,-9.2444,-10.5698,-7.0385,-4.3790,-5.3289,-9.0406,-10.0317,-13.1009
2082.0312,-8.2072,-4.6186,-10.2549,-11.4033,-8.7767,-0.8342,-7.0388,-6.6290,-9.1577,3.8453,-12.7920,-9.6270,-10.2533,-8.1280,-4.8849,-6.9632,-9.6214,-8.0125,-11.7230
2085.9375,-7.0367,-3.7750,-7.8512,-8.8770,-8.0333,-3.3226,-6.8262,-5.6210,-10.5502,1.4296,-11.4899,-10.1079,-10.2766,-9.2416,-5.9435,-8.5260,-10.1885,-6.1422,-10.2706
2089.8438,-3.8372,-4.3698,-4.4961,-5.1743,-6.3190,-3.5657,-5.3464,-3.7346,-10.2335,-1.0373,-9.0103,-9.7909,-9.9082,-9.6409,-6.6878,-9.0364,-10.1804,-4.0828,-8.2388
2093.7500,0.3050,-5.5631,-0.0508,-0.2626,-3.5500,-1.5002,-2.4716,-0.8414,-7.2070,-3.3627,-5.7073,-8.0239,-8.7424,-8.8494,-6.3732,-7.9907,-9.2576,-1.5058,-5.4054
2097.6562,3.6283,-6.1705,4.7961,4.8770,-0.3919,1.6989,1.0486,2.3811,-1.7344,-5.5108,-2.2679,-5.0037,-7.1256,-7.0676,-4.9111,-5.7694,-7.6091,1.4002,-2.2925
2101.5625,4.6234,-5.5186,8.5969,8.5383,1.9385,4.3190,3.8446,4.6824,4.4718,-7.4060,0.3642,-1.8606,-6.0126,-5.1509,-2.9837,-3.4835,-5.9108,3.8246,-0.0648
2105.4688,2.8879,-3.9277,9.8383,9.2060,2.3299,5.0411,4.6321,4.9581,8.9952,-8.8316,1.2557,-0.1076,-6.3421,-4.1351,-1.6547,-2.3248,-4.9487,4.7394,0.1087
2109.3750,-0.6408,-2.4781,7.8472,6.4995,0.4745,3.5783,2.9539,2.9728,10.0005,-9.4898,-0.0753,-0.7438,-8.3429,-4.6079,-1.7214,-2.8360,-5.1452,3.5661,-2.1712
2113.2812,-4.2534,-2.1975,3.3322,1.5083,-2.8650,0.7129,-0.4923,-0.4129,7.2912,-9.1600,-3.2420,-3.5522,-11.2351,-6.3347,-3.2194,-4.5811,-6.2872,0.6698,-6.1315
2117.1875,-6.5009,-3.2310,-1.8048,-3.7118,-6.2094,-2.2134,-4.1455,-3.6737,2.4898,-7.8365,-6.9088,-7.0520,-13.5329,-8.3727,-5.3918,-6.4350,-7.6209,-2.6613,-10.0753
2121.0938,-7.0194,-4.6130,-5.3194,-7.1626,-8.1235,-4.0206,-6.3348,-5.4284,-1.7966,-5.7669,-9.2668,-9.2009,-13.7874,-9.5939,-7.1375,-7.2982,-8.2494,-4.7857,-12.1647
2125.0000,-6.5947,-4.8790,-5.6833,-7.8206,-7.9124,-4.2207,-6.0816,-5.1140,-3.3647,-3.3920,-8.9576,-8.4963,-11.3477,-9.2797,-7.6640,-6.7707,-7.5993,-4.5382,-11.3069
2128.9062,-6.4252,-3.1681,-2.8003,-5.9458,-5.8586,-3.1196,-3.5333,-3.1423,-1.5841,-1.2351,-5.9683,-4.8707,-6.7296,-7.4401,-6.9494,-5.3673,-5.7026,-1.8732,-7.6743
2132.8125,-7.1179,-0.0578,1.9715,-2.7110,-2.9267,-1.5139,0.1642,-0.5222,2.2920,0.2177,-1.8912,0.1454,-1.4134,-4.7189,-5.7449,-4.1676,-3.1729,2.0358,-2.6081
2136.7188,-8.1649,2.5341,6.4707,0.5138,-0.1943,-0.2176,3.4416,1.7347,5.8297,0.6319,0.7726,4.1262,2.7963,-2.0100,-5.1196,-4.1503,-0.9210,5.3156,2.0071
2140.6250,-8.3140,2.4545,8.7181,2.7601,1.6196,0.3077,5.0141,3.0403,6.7342,-0.0753,0.0021,4.9762,4.5214,-0.0534,-5.8093,-5.6307,0.2277,6.2891,4.5633
2144.5312,-6.5843,-1.2114,7.7727,3.6769,2.2999,0.0577,4.3852,3.2988,4.0734,-1.6772,-4.4465,2.0328,3.3283,0.7803,-7.7407,-8.1076,-0.1523,4.3082,4.3590
2148.4375,-3.1697,-7.2852,4.0894,3.4023,1.9902,-0.6497,1.9579,2.7095,-1.2366,-3.6739,-10.6806,-3.5472,-0.1765,0.4837,-10.0014,-10.5554,-1.9479,0.1052,1.7891
2152.3438,0.4804,-12.9240,-0.7512,2.3134,0.9622,-1.4059,-1.2385,1.5395,-6.9154,-5.4451,-15.5832,-9.3306,-4.6626,-0.7094,-11.2879,-11.9458,-4.5646,-4.5250,-1.9336
2156.2500,2.5237,-15.1842,-4.7950,0.8446,-0.5152,-1.8883,-4.0363,0.0348,-10.4877,-6.4796,-16.5284,-12.7942,-8.6292,-2.4336,-10.6052,-11.7032,-7.1430,-7.5680,-5.3594
2160.1562,1.9424,-12.7843,-6.5981,-0.5950,-2.1752,-1.9301,-5.6092,-1.5411,-10.5029,-6.5772,-12.8813,-12.5249,-10.9548,-4.2500,-7.8498,-9.8942,-8.8564,-7.7420,-7.4133
2164.0625,-0.7568,-6.9370,-5.8396,-1.6805,-3.7177,-1.5234,-5.7512,-2.8727,-7.1709,-5.9154,-6.3494,-8.8161,-11.2300,-5.7024,-3.9539,-7.1196,-9.1899,-5.0801,-7.7790
2167.9688,-3.8709,-0.6897,-3.3822,-2.2616,-4.8440,-0.8238,-4.8659,-3.6626,-2.1248,-4.9366,0.0308,-3.3862,-9.7694,-6.4206,-0.4876,-4.2130,-8.0961,-0.8539,-6.9059
2171.8750,-5.6181,2.8285,-0.7616,-2.4340,-5.3606,-0.1588,-3.6943,-3.7739,2.4946,-4.1142,3.6273,1.5689,-7.3339,-6.2530,1.1030,-1.8989,-5.9661,3.1037,-5.6605
2175.7812,-5.2462,2.1436,0.6275,-2.4951,-5.2631,0.0224,-2.9192,-3.3200,5.0891,-3.7202,3.5800,4.4413,-4.7215,-5.3429,0.2380,-0.5396,-3.4268,5.2983,-4.8124
2179.6875,-3.3796,-1.9067,0.2185,-2.7569,-4.7154,-0.6834,-2.8377,-2.6059,5.2282,-3.7144,1.0071,4.8332,-2.4357,-4.0728,-2.4640,-0.0542,-1.0709,5.2140,-4.6268
2183.5938,-1.4427,-6.9136,-1.5264,-3.3237,-3.9348,-2.3854,-3.2577,-1.9527,3.5905,-3.8045,-1.9507,3.4755,-0.5915,-2.8923,-5.4580,-0.0319,0.7399,3.3854,-4.7845
2187.5000,-0.6694,-10.4329,-3.4828,-4.0014,-3.0819,-4.7207,-3.6668,-1.5368,1.3802,-3.6344,-3.5122,1.5990,0.9253,-2.1305,-7.0259,0.0074,1.9046,0.9351,-4.6627
2191.4062,-1.4260,-11.2630,-4.5538,-4.4240,-2.2448,-6.9139,-3.5694,-1.3593,-0.3600,-2.9995,-3.1438,0.1939,2.1808,-1.9038,-6.1342,0.3270,2.4653,-1.0874,-3.7981
2195.3125,-3.2295,-9.7241,-4.2539,-4.3105,-1.5093,-8.1084,-2.7949,-1.3402,-1.1484,-1.9793,-1.4935,-0.4135,3.0076,-2.1488,-2.9535,0.8187,2.4594,-2.1617,-2.2346
2199.2188,-5.2486,-6.9730,-2.8559,-3.6503,-1.0144,-7.8100,-1.5930,-1.4252,-1.0496,-0.9226,0.3804,-0.4918,3.0564,-2.7122,1.2280,1.0876,1.8729,-2.3268,-0.5261
2203.1250,-6.7614,-4.0414,-1.0646,-2.6668,-0.8973,-6.1611,-0.4628,-1.5932,-0.3995,-0.2848,1.8001,-0.4906,2.0659,-3.4033,4.6479,0.7485,0.7335,-1.8721,0.6118
2207.0312,-7.2377,-1.3431,0.5133,-1.5906,-1.1469,-3.8463,0.1712,-1.7613,0.4670,-0.3932,2.7178,-0.6112,0.1674,-3.9786,5.9374,-0.2403,-0.7436,-0.9812,0.7784
2210.9375,-6.1929,1.1123,1.7249,-0.4376,-1.4952,-1.6718,0.2291,-1.7032,1.3279,-1.2523,3.3839,-0.6452,-2.0013,-4.1269,4.7703,-1.4376,-2.1020,0.3948,0.1773
2214.8438,-3.2363,3.1850,2.8372,1.0070,-1.4872,-0.1021,0.0217,-1.1026,2.0553,-2.5016,3.8668,-0.1468,-3.4837,-3.5438,1.9775,-2.1033,-2.7730,2.3745,-0.4735
2218.7500,1.4823,4.3619,4.1924,2.9684,-0.7359,0.9266,0.0521,0.2494,2.5911,-3.5631,3.9110,1.2238,-3.4141,-2.1100,-0.9065,-1.6211,-2.3362,4.8670,-0.3522
2222.6562,6.7581,4.0877,5.8530,5.3990,0.7977,1.7926,0.7134,2.2525,2.9878,-3.9159,3.2565,3.4381,-1.4139,-0.0563,-2.4119,0.1040,-0.7461,7.4380,1.0043
2226.5625,10.3973,2.3868,7.5184,7.8805,2.7206,2.7621,2.0789,4.4695,3.4535,-3.3483,2.0961,6.0928,2.2535,2.0476,-1.8163,2.5518,1.6381,9.4649,3.4792
2230.4688,10.2234,0.1765,8.7693,9.8242,4.4226,3.7020,3.9068,6.3365,4.2841,-2.0394,1.2026,8.6462,6.8457,3.5553,0.5929,4.8884,4.2558,10.4939,6.5160
2234.3750,5.6093,-1.1140,9.4352,10.8465,5.4693,4.1770,5.8250,7.4869,5.6579,-0.4233,1.5290,10.7271,11.4988,4.1360,3.7799,6.4831,6.6547,10.5503,9.4908
2238.2812,-1.5308,-0.4355,9.7806,11.0380,5.8963,3.8584,7.5421,7.9537,7.4211,1.0680,3.5340,12.3067,15.5446,4.0364,6.5698,7.2936,8.6964,10.1663,12.0416
2242.1875,-7.2560,2.1136,10.3412,10.9039,6.1703,2.9026,8.9338,8.0873,9.0596,2.2033,6.7382,13.6196,18.6066,3.9848,8.2544,7.8423,10.5168,10.0737,14.1309
2246.0938,-7.6554,5.2430,11.5047,10.9870,6.8155,1.9553,9.9622,8.2342,9.9424,2.9607,9.8703,14.8851,20.4670,4.7333,8.8631,8.7769,12.2692,10.7328,15.8256
2250.0000,-1.3205,7.2333,13.1328,11.4270,7.9550,1.7291,10.5286,8.4097,9.7114,3.3691,11.5323,16.0134,20.8679,6.5013,8.9688,10.3047,13.8376,11.9853,16.9915
2253.9062,9.3993,7.0017,14.5092,11.7774,9.1059,2.4578,10.4123,8.2245,8.5468,3.3507,10.9530,16.5062,19.4609,8.6972,9.1841,11.9025,14.7411,13.0592,17.1684
2257.8125,19.3671,4.7511,14.6901,11.2383,9.4078,3.6709,9.3809,7.1447,7.1034,2.7384,8.3645,15.6581,16.0024,10.1546,9.6845,12.5419,14.3334,12.9554,15.7645
2261.7188,23.4430,1.7921,13.0641,9.1847,8.1678,4.5069,7.4118,4.9238,6.1439,1.4942,4.8280,12.9890,10.6976,9.7935,10.0835,11.3347,12.2080,11.0277,12.4822
2265.6250,19.4271,-0.2826,9.7855,5.6651,5.3731,4.3661,4.8590,1.9055,6.1213,-0.0506,1.6972,8.6775,4.4479,7.3202,9.7487,8.2033,8.5735,7.4481,7.7040
2269.5312,9.3228,-0.4842,5.8115,1.5515,1.8270,3.4104,2.4112,-1.0280,6.9911,-1.1861,0.0734,3.7209,-1.2333,3.5206,8.3522,4.1399,4.3562,3.2873,2.5615
2273.4375,-1.8611,1.1813,2.5031,-1.7731,-1.2002,2.4954,0.8198,-2.8557,8.3518,-1.1618,0.4917,-0.3340,-4.6934,-0.0660,6.2666,0.8441,0.9289,0.1259,-1.4185
2277.3438,-8.9854,3.9531,0.9971,-3.0334,-2.6069,2.5397,0.5374,-2.9290,9.7616,0.2881,2.8521,-2.0209,-4.8198,-1.9243,4.4979,-0.0890,-0.4304,-0.6570,-2.9476
2281.2500,-9.5208,6.8845,1.6790,-1.6623,-2.0022,3.7780,1.4831,-1.2906,10.9650,2.5981,6.4839,-0.6497,-1.5817,-1.3393,4.1421,2.0124,0.9021,1.4182,-1.5681
2285.1562,-4.5456,9.2860,4.0187,1.9229,0.1505,5.4689,3.0837,1.3732,11.8759,4.5154,10.2761,3.3000,3.8721,1.2766,5.6851,6.5249,4.5932,5.6052,2.1108
2289.0625,2.3979,10.7993,6.8375,6.4935,2.8424,6.3191,4.5725,4.0917,12.3910,4.7425,12.9249,8.3251,9.6509,4.6733,8.5971,11.7978,9.4527,10.1798,6.6665
2292.9688,7.6251,11.2022,8.8549,10.5306,5.0617,5.3676,5.3676,6.0526,12.2552,2.7200,13.3432,12.5376,13.8957,7.4619,11.5128,15.8909,13.8869,13.1860,10.4800
2296.8750,9.2570,10.2434,9.2442,12.8387,6.2417,2.7185,5.3128,6.8888,11.1466,-0.9523,11.1342,14.4741,15.5060,8.7857,12.9182,17.3769,16.4913,13.3307,12.4037
2300.7812,7.7175,7.7253,7.9486,12.9749,6.3836,-0.3961,4.6638,6.6984,8.9428,-4.7616,6.8637,13.6666,14.4637,8.5887,11.9428,15.8162,16.5169,10.5829,12.1556
2304.6875,4.7908,3.7946,5.6462,11.3257,5.8550,-2.2847,3.8706,5.8598,5.9593,-7.0716,1.8928,10.7104,11.6284,7.3943,8.7896,11.7426,14.0307,6.1695,10.2785
2308.5938,2.1546,-0.8061,3.4258,8.8384,5.0573,-1.7626,3.3231,4.7990,2.9548,-6.9767,-2.2132,6.8584,8.1797,5.8234,4.5738,6.2842,9.7581,1.9803,7.7492
2312.5000,0.4447,-4.7794,2.3457,6.5663,4.2033,1.1999,3.2201,3.8434,0.8646,-4.7043,-4.3774,3.4210,5.0576,4.2135,0.7131,0.6981,4.7473,-0.2973,5.4936
2316.4062,-0.6731,-6.6784,3.0618,5.2526,3.3253,5.5137,3.6007,3.1970,0.4137,-1.3611,-4.3775,1.3010,2.7079,2.5768,-1.7340,-3.9467,0.0467,0.1322,4.0724
2320.3125,-1.7345,-5.5184,5.6318,5.1274,2.4514,9.5944,4.4442,2.9793,1.8192,1.7502,-2.6877,0.8379,1.2039,0.8617,-2.4139,-6.8799,-3.4858,2.9668,3.6482
2324.2188,-2.7515,-1.3047,9.5058,5.9622,1.7648,12.1301,5.7081,3.2453,4.7048,3.7723,0.0151,1.9090,0.5532,-0.7445,-1.5974,-7.6402,-5.2449,7.0975,4.1449
2328.1250,-3.1072,4.7989,13.6618,7.2900,1.5835,12.5503,7.2499,3.9532,8.2148,4.5203,3.2453,4.1029,0.8939,-1.7508,0.1543,-6.1166,-4.9111,11.1497,5.4032
2332.0312,-2.1119,10.7941,16.8445,8.6345,2.1477,11.0330,8.7153,4.9180,11.2558,4.2623,6.6909,6.8281,2.4040,-1.6218,2.2908,-2.6480,-2.5325,13.9666,7.1922
2335.9375,0.2388,14.5890,17.8929,9.6307,3.3604,8.2108,9.5427,5.8174,12.8150,3.3330,9.8700,9.3646,5.0010,-0.1887,4.3753,1.9251,1.3703,14.8629,9.1054
2339.8438,2.8990,14.8790,16.1268,10.0278,4.6935,4.8554,9.1713,6.2902,12.3204,1.9183,11.8780,10.9683,8.1007,2.0954,6.0341,6.4007,5.8005,13.6707,10.5050
2343.7500,4.1351,11.7600,11.6882,9.6520,5.3764,1.7065,7.3769,6.0908,9.9494,0.1401,11.6107,11.0924,10.6894,4.2726,6.9235,9.5812,9.5010,10.7008,10.6706
2347.6562,2.4880,6.7212,5.6623,8.4173,4.7960,-0.5867,4.5200,5.2131,6.6920,-1.7135,8.4457,9.6424,11.7358,5.3345,6.8255,10.7263,11.3775,6.6878,9.1434
2351.5625,-2.1897,1.9305,-0.1813,6.3972,2.8761,-1.5354,1.4971,3.8955,3.9980,-3.0878,2.9096,7.0789,10.7101,4.7449,5.8184,9.8477,10.9441,2.6684,6.0639
2355.4688,-8.2612,-0.8755,-4.0261,3.8879,0.1831,-0.9451,-0.6459,2.4929,3.0516,-3.3460,-3.2438,4.2330,7.8720,2.7068,4.3478,7.6579,8.5358,-0.2873,2.2419
2359.3750,-12.8110,-1.2805,-4.7896,1.3701,-2.3333,0.9670,-1.2434,1.2877,4.0376,-2.1393,-7.7512,1.9017,4.1304,0.0143,3.0738,5.1870,5.1317,-1.4698,-1.1605
2363.2812,-13.0415,-0.2918,-2.6524,-0.6498,-3.8310,3.5975,-0.3685,0.3624,5.9133,0.3019,-8.9740,0.4681,0.5689,-2.3991,2.5448,3.2845,1.8683,-0.8650,-3.1855
2367.1875,-7.9233,0.4608,0.9959,-1.8412,-4.0027,6.1571,1.2189,-0.3796,6.9737,3.1824,-6.7338,-0.1988,-2.0526,-3.9249,2.9030,2.2905,-0.4789,0.8046,-3.5474
2371.0938,0.8385,-0.0665,4.2243,-2.1670,-3.1837,7.9372,2.5142,-1.0605,5.9631,5.4706,-2.3142,-0.5063,-3.5177,-4.4848,3.8269,2.0387,-1.7457,2.4250,-2.7159
2375.0000,9.2530,-1.5486,5.5064,-1.8518,-2.0876,8.4869,2.8307,-1.6622,3.0130,6.3495,2.3239,-0.7618,-4.0215,-4.4049,4.7493,2.1325,-2.2462,3.0510,-1.5707
2378.9062,12.9178,-2.5384,4.4156,-1.2404,-1.3606,7.6397,2.1319,-1.9885,-0.3160,5.5391,5.5466,-0.9643,-3.8734,-4.1096,5.1945,2.2661,-2.4038,2.3415,-0.8743
2382.8125,9.4303,-1.6274,1.6783,-0.6655,-1.2547,5.4682,0.9389,-1.8116,-2.0402,3.3546,6.6238,-0.9290,-3.3097,-3.8772,5.0049,2.3689,-2.4409,0.5967,-0.9182
2386.7188,-0.0547,1.2972,-1.4097,-0.4038,-1.6161,2.2897,-0.0937,-1.1148,-1.1756,0.5333,5.6437,-0.6263,-2.5473,-3.8011,4.3273,2.5104,-2.3428,-1.5923,-1.5521
2390.6250,-11.1886,4.6709,-3.7957,-0.7018,-2.1492,-1.2582,-0.6256,-0.2423,1.4528,-2.0441,3.0530,-0.4191,-1.9589,-3.9156,3.4192,2.6913,-2.0734,-3.7908,-2.5056
2394.5312,-18.6937,6.1344,-5.1815,-1.7668,-2.7180,-4.2112,-0.7975,0.1951,3.6827,-3.6209,-0.6744,-0.9425,-2.1126,-4.3136,2.4586,2.7235,-1.8096,-5.9138,-3.6998
2398.4375,-19.2771,4.1366,-5.9454,-3.6536,-3.4388,-5.5034,-1.0261,-0.3482,3.5193,-3.7709,-4.9897,-2.6593,-3.5292,-5.1171,1.5014,2.3123,-1.9495,-8.0438,-5.2760
2402.3438,-13.4195,-0.8772,-6.6141,-6.1010,-4.4955,-4.4304,-1.6113,-1.9771,0.6096,-2.5203,-9.0466,-5.4150,-6.2724,-6.3142,0.5868,1.2828,-2.8479,-10.0743,-7.3251
2406.2500,-4.8862,-6.5945,-7.3364,-8.4757,-5.8466,-1.1057,-2.4592,-4.1980,-3.4298,-0.3477,-11.7283,-8.3606,-9.6960,-7.6174,-0.1441,-0.2276,-4.4789,-11.5414,-9.5708
2410.1562,1.7373,-10.2534,-7.7668,-9.9588,-7.0866,3.4306,-3.1289,-6.1217,-6.1356,1.9800,-12.1217,-10.3622,-12.6188,-8.5034,-0.4492,-1.7693,-6.3188,-11.8486,-11.3184
2414.0625,3.8684,-10.3769,-7.4238,-9.9358,-7.6124,7.6261,-3.1606,-6.9363,-5.9821,3.7136,-10.1579,-10.6486,-13.9045,-8.4585,-0.1274,-2.7871,-7.5885,-10.7434,-11.7845
2417.9688,2.2459,-7.6028,-6.2028,-8.3662,-7.0026,10.1642,-2.4340,-6.3604,-3.4938,4.4363,-6.8559,-9.2519,-13.1041,-7.2823,0.8069,-2.9036,-7.7189,-8.6480,-10.6070
2421.8750,-0.0663,-4.0566,-4.6005,-5.8667,-5.3378,10.5895,-1.2914,-4.7851,-0.8247,4.2021,-3.8265,-6.9367,-10.7228,-5.2397,2.0567,-2.1036,-6.7113,-6.5179,-8.1608
2425.7812,-0.1789,-1.7869,-3.4401,-3.4040,-3.2160,9.3985,-0.3347,-3.0096,-0.1031,3.3971,-2.2831,-4.6813,-7.9113,-2.9503,3.1410,-0.7234,-5.1269,-5.2614,-5.4204
2429.6875,2.4717,-1.4464,-3.2860,-1.7700,-1.4338,7.5543,-0.0425,-1.7506,-1.7991,2.4155,-2.2722,-3.0998,-5.7757,-1.0874,3.5962,0.7172,-3.7087,-5.1255,-3.4264
2433.5938,5.8560,-2.1497,-3.9954,-1.1777,-0.5477,5.7997,-0.4754,-1.2551,-4.3778,1.3933,-2.7509,-2.2107,-4.7746,-0.0860,3.1621,1.7268,-2.9110,-5.5240,-2.7092
2437.5000,7.0741,-2.4861,-4.7652,-1.2480,-0.6112,4.2836,-1.2603,-1.2605,-5.5140,0.2183,-2.5074,-1.6707,-4.6003,-0.0279,1.8714,1.9949,-2.6781,-5.4731,-3.0527
2441.4062,4.6902,-1.7764,-4.6633,-1.3773,-1.2471,2.7545,-1.8458,-1.2961,-3.9257,-1.1882,-1.2268,-1.2270,-4.5850,-0.7275,0.0416,1.4556,-2.6123,-4.3374,-3.7406
2445.3125,-0.1204,-0.5401,-3.2730,-1.2024,-1.9646,1.1083,-1.8376,-1.0756,-0.3910,-2.5647,0.1675,-0.9933,-4.2925,-1.8954,-1.7962,0.2868,-2.3716,-2.3348,-4.0834
2449.2188,-4.4625,0.1428,-0.9940,-0.8173,-2.4689,-0.2217,-1.1982,-0.6880,2.8491,-3.2867,0.2304,-1.3300,-3.8408,-3.2375,-3.0183,-1.1387,-1.9701,-0.4189,-3.8449
2453.1250,-5.9193,-0.2615,1.2011,-0.6036,-2.7482,-0.4216,-0.2085,-0.4651,3.8247,-2.7316,-1.7546,-2.4592,-3.7350,-4.4537,-3.1003,-2.3611,-1.7481,0.3748,-3.2916
2457.0312,-4.3316,-1.1876,2.3634,-0.8434,-2.9236,1.0652,0.7359,-0.6621,2.3199,-0.8026,-5.0019,-4.1723,-4.3762,-5.2214,-1.8692,-3.0110,-2.0531,-0.3743,-2.8888
2460.9375,-1.7773,-1.5014,2.0941,-1.4525,-3.0395,3.9159,1.3336,-1.2229,-0.0809,1.8041,-7.6273,-5.9027,-5.6614,-5.2743,0.2896,-3.0034,-2.9101,-2.2479,-2.9164
2464.8438,-0.7941,-0.6747,0.6663,-2.0591,-2.9980,6.8657,1.4651,-1.8224,-1.4197,3.8686,-8.0146,-7.1194,-7.0045,-4.5807,2.4424,-2.6291,-3.9609,-4.3751,-3.3073
2468.7500,-2.2601,0.4488,-1.2779,-2.3599,-2.6942,8.3498,1.1475,-2.1447,-1.0962,4.3451,-6.1279,-7.7105,-7.7641,-3.4823,3.4464,-2.4351,-4.7262,-6.0926,-3.7974
2472.6562,-4.6193,0.0762,-3.1719,-2.4403,-2.2146,7.4515,0.4423,-2.1623,-0.4646,3.0272,-3.7081,-8.0245,-7.7399,-2.6285,2.5256,-2.9066,-4.9824,-7.3416,-4.2227
2476.5625,-5.0898,-3.1164,-4.7785,-2.7643,-1.8933,4.4919,-0.5922,-2.1800,-1.7433,0.6949,-3.0976,-8.5173,-7.3455,-2.6630,-0.2230,-4.1241,-4.9435,-8.5060,-4.6909
2480.4688,-1.9487,-8.6470,-6.1150,-3.8062,-2.1333,0.8286,-1.8729,-2.5965,-6.0519,-1.3922,-5.4973,-9.2988,-7.3142,-3.8304,-3.7439,-5.6403,-5.0966,-9.8645,-5.4764
2484.3750,3.8680,-14.1024,-7.1866,-5.5995,-3.1039,-2.0021,-3.2347,-3.5640,-12.1407,-2.3136,-9.9512,-9.9721,-8.1534,-5.7721,-6.5014,-6.7115,-5.8144,-11.1538,-6.7267
2488.2812,9.1132,-16.4883,-7.7978,-7.5720,-4.5486,-3.1960,-4.4109,-4.8109,-16.9039,-2.0378,-13.8693,-9.9338,-9.7516,-7.6897,-7.3007,-6.7781,-7.0407,-11.6477,-8.2267
2492.1875,10.3301,-14.1834,-7.6122,-8.8315,-5.8730,-3.0207,-5.0886,-5.7732,-17.4060,-1.3150,-14.7759,-8.9171,-11.4208,-8.8006,-5.9657,-5.8827,-8.2919,-10.7229,-9.4262
2496.0938,6.2060,-8.1112,-6.4122,-8.7273,-6.4767,-2.3984,-5.0171,-5.9462,-12.9667,-1.0166,-12.0479,-7.3366,-12.3366,-8.7925,-3.4368,-4.7154,-8.9710,-8.4653,-9.7360
2500.0000,-1.5052,-1.2636,-4.3487,-7.2924,-6.1109,-2.1036,-4.1215,-5.2087,-5.7544,-1.4385,-7.3875,-6.1174,-12.0581,-7.9667,-1.2032,-4.2094,-8.7632,-5.8051,-8.9000
2503.9062,-9.1150,3.1122,-1.9877,-5.2500,-5.0194,-2.2009,-2.5760,-3.8988,0.5711,-2.1041,-3.6801,-6.0928,-10.7795,-6.9788,-0.4251,-4.9302,-7.8353,-4.0197,-7.1947
2507.8125,-13.3366,3.4150,-0.1146,-3.5835,-3.7793,-2.1220,-0.8075,-2.6047,3.1937,-2.2061,-3.0534,-7.3992,-9.1776,-6.3689,-1.3121,-6.6743,-6.7199,-3.9341,-5.3330
2511.7188,-13.1761,0.4130,0.5836,-2.9696,-2.9598,-1.2675,0.5881,-1.8317,1.7905,-1.3290,-5.5082,-9.3282,-7.9999,-6.2242,-3.1440,-8.5712,-5.9954,-5.3903,-4.1325
2515.6250,-10.1451,-3.5862,-0.2082,-3.4512,-2.8276,0.3743,1.0223,-1.7636,-1.6083,0.1294,-9.0500,-10.7631,-7.6768,-6.2007,-4.8761,-9.6408,-5.9874,-7.3625,-4.1373
2519.5312,-6.8272,-6.3969,-2.3012,-4.5212,-3.2624,2.0900,0.1575,-2.2409,-4.3079,1.1806,-11.1520,-10.8914,-8.1666,-5.8557,-5.8717,-9.4298,-6.6573,-8.6188,-5.3736
2523.4375,-4.9652,-7.2334,-5.0251,-5.4936,-3.8835,2.8922,-1.8689,-2.9109,-4.8433,0.9611,-10.4578,-9.6807,-9.0482,-5.0142,-6.2351,-8.2804,-7.6799,-8.4416,-7.3243
2527.3438,-4.4458,-6.8071,-7.3768,-5.8662,-4.2628,2.2183,-4.3710,-3.4112,-3.7045,-0.5948,-7.5325,-7.7885,-9.7302,-3.8850,-6.5357,-7.0386,-8.5935,-6.9155,-9.1043
2531.2500,-3.7763,-6.3808,-8.2885,-5.4564,-4.0905,0.3633,-6.2974,-3.4778,-2.5006,-2.6322,-4.2263,-6.0036,-9.6468,-2.8602,-7.1660,-6.4045,-8.9211,-4.6495,-9.7664
2535.1562,-1.5302,-6.6352,-6.9999,-4.3148,-3.2483,-1.6588,-6.6584,-2.9747,-2.3796,-3.9004,-2.2271,-4.6619,-8.4018,-2.1863,-7.8538,-6.3898,-8.2572,-2.2312,-8.6573
2539.0625,2.3826,-7.2035,-3.4467,-2.5918,-1.8298,-2.7153,-5.0257,-1.9081,-3.0111,-3.5578,-1.9025,-3.4787,-5.9004,-1.7890,-7.7307,-6.2818,-6.3809,0.1267,-5.7239
2542.9688,6.5096,-7.1126,1.5225,-0.5208,-0.1493,-2.2100,-1.8359,-0.4673,-2.8994,-1.7014,-2.2259,-1.9051,-2.4728,-1.3937,-5.9475,-5.1571,-3.4140,2.4956,-1.6525
2546.8750,8.7583,-5.6687,6.2981,1.4922,1.2809,-0.3933,1.7074,0.9474,-0.7006,0.7125,-1.7398,0.2848,1.0901,-0.8309,-2.4119,-2.6035,0.0692,4.8379,2.2716
2550.7812,7.6957,-3.0778,9.0824,2.8332,1.8726,1.8127,4.1391,1.7971,3.5450,2.4553,0.2322,2.6430,3.7091,-0.2583,1.8906,0.8475,3.1239,6.7048,4.6053
2554.6875,3.3706,-0.3914,8.6769,2.8512,1.2012,3.3122,4.4083,1.6094,8.2320,2.7024,3.0210,4.2123,4.4185,-0.0964,5.2692,3.8859,4.7685,7.3351,4.3538
2558.5938,-2.7705,1.0947,5.0914,1.2130,-0.7269,3.3565,2.3768,0.2374,11.1741,1.3848,5.0613,4.1055,2.8437,-0.7108,6.2094,5.1030,4.4436,6.1258,1.4694
2562.5000,-8.6675,0.5353,-0.3810,-1.7731,-3.3522,1.8526,-1.1223,-1.9855,10.9910,-0.9136,4.9752,2.0992,-0.5201,-2.0773,4.2351,3.7699,2.3293,3.1345,-3.0331
2566.4062,-12.5669,-2.0702,-5.7056,-5.1213,-5.7169,-0.6155,-4.6843,-4.3202,7.9014,-3.3379,2.5080,-1.1568,-4.4383,-3.6939,0.2195,0.2466,-0.7038,-0.7713,-7.4487
2570.3125,-13.6002,-5.8872,-8.9900,-7.5139,-6.8630,-3.0096,-6.9617,-5.9124,3.4448,-5.1336,-1.3027,-4.4384,-7.4618,-4.8162,-4.0496,-4.2026,-3.5205,-4.2521,-10.0924
2574.2188,-11.8820,-9.5351,-9.2454,-7.8771,-6.2716,-4.2166,-7.1962,-6.1463,-0.5345,-5.8360,-4.7706,-6.5498,-8.5787,-4.8601,-6.7966,-8.0476,-5.2812,-6.1172,-10.0008
2578.1250,-8.2724,-11.5152,-6.6539,-5.8732,-4.0923,-3.4877,-5.4187,-4.8749,-2.8583,-5.2999,-6.5370,-6.8581,-7.6351,-3.7019,-7.1425,-10.1992,-5.7995,-5.8494,-7.2827
2582.0312,-4.0025,-10.7157,-2.2826,-2.0466,-1.0318,-0.8030,-2.2969,-2.4246,-3.3370,-3.6831,-6.2447,-5.4842,-5.3025,-1.6996,-5.4567,-10.3989,-5.4947,-3.7476,-2.9744
2585.9375,-0.2723,-6.9263,2.5022,2.4345,2.0131,3.0139,1.2186,0.5838,-2.4347,-1.4334,-4.5460,-3.1155,-2.6448,0.5365,-3.0171,-9.1392,-5.0049,-0.6737,1.4827
2589.8438,2.1311,-1.1525,6.5601,6.2730,4.3484,6.5611,4.2436,3.4659,-0.7334,0.7838,-2.5400,-0.6173,-0.5630,2.4391,-1.2187,-7.2390,-4.7427,2.3852,4.8461
2593.7500,3.0960,4.5674,9.2167,8.5162,5.6798,8.4602,6.1769,5.6439,1.3352,2.2946,-1.0614,1.3256,0.5684,3.6639,-0.8039,-5.3661,-4.6819,4.6811,6.4763
2597.6562,3.1717,7.9710,10.2326,8.8117,6.0545,8.0268,6.7715,6.7288,3.4034,2.7226,-0.2669,2.3899,0.9149,4.0985,-1.5418,-3.7739,-4.4750,5.8619,6.4099
2601.5625,3.1916,7.7167,9.6736,7.3991,5.6569,5.6310,6.1123,6.5585,5.0057,2.2096,0.2807,2.6081,0.9186,3.7825,-2.4933,-2.3482,-3.7686,5.9447,5.1573
2605.4688,3.6859,4.2062,7.8287,4.9137,4.6411,2.5021,4.5473,5.2293,5.6516,1.3619,1.1485,2.2420,0.9669,2.8461,-2.6556,-0.8662,-2.4718,5.2047,3.3867
2609.3750,4.4516,-0.5329,5.1873,2.1190,3.1047,0.0623,2.5819,3.1038,5.1467,0.8980,2.5228,1.6188,1.1924,1.5015,-1.5777,0.7361,-0.8085,4.0447,1.6512
2613.2812,4.6342,-3.9762,2.3827,-0.3324,1.1783,-0.8191,0.7369,0.7423,3.8536,1.2048,3.9859,0.9888,1.4734,0.0334,0.4150,2.2646,0.8334,2.8590,0.2448
2617.1875,3.3586,-4.6026,0.0353,-2.0495,-0.8865,-0.1942,-0.6010,-1.2635,2.5739,2.1005,4.7252,0.4466,1.5728,-1.2721,2.4875,3.3855,2.1102,1.8997,-0.7985
2621.0938,0.5177,-2.7817,-1.4524,-2.9326,-2.7228,1.1716,-1.2722,-2.4918,2.0443,2.9752,4.0568,-0.0554,1.3006,-2.2452,3.8472,3.8643,2.8373,1.1941,-1.5979
2625.0000,-2.8697,-0.4121,-2.0133,-3.0833,-3.9521,2.3929,-1.3336,-2.8163,2.4062,3.2081,1.9386,-0.6085,0.6128,-2.8997,4.2089,3.7474,2.9713,0.5807,-2.2690
2628.9062,-5.0991,0.4752,-1.8517,-2.6501,-4.3148,3.0024,-0.9567,-2.3788,3.0895,2.5588,-0.8695,-1.2228,-0.3763,-3.3705,3.8752,3.3419,2.5332,-0.1275,-2.7949
2632.8125,-4.8327,-0.8165,-1.2431,-1.7104,-3.7492,3.0769,-0.3116,-1.4414,3.2448,1.2665,-3.1506,-1.7691,-1.4426,-3.7404,3.4039,2.9878,1.5721,-0.9461,-2.9976
2636.7188,-2.0916,-3.1536,-0.3573,-0.2745,-2.3979,2.9384,0.4819,-0.2343,2.4149,-0.1804,-3.9154,-2.0443,-2.3259,-3.8906,3.1157,2.7677,0.2068,-1.6390,-2.6376
2640.6250,1.5442,-4.4068,0.7578,1.5865,-0.5654,2.7436,1.3165,1.0910,0.9222,-1.3889,-3.0139,-1.9197,-2.7968,-3.5132,2.8072,2.3754,-1.3076,-1.8369,-1.5934
2644.5312,3.7828,-3.0224,2.0399,3.6005,1.3462,2.3349,2.0382,2.3960,-0.3455,-2.2458,-1.2579,-1.4515,-2.6981,-2.3091,1.8863,1.2869,-2.5700,-1.2876,0.0010
2648.4375,3.0608,0.7876,3.2744,5.2964,2.9237,1.4725,2.4524,3.4792,-0.5951,-2.8337,0.0705,-0.8423,-1.9504,-0.2414,-0.1504,-0.8247,-3.1236,-0.0515,1.7708
2652.3438,-0.3457,5.0738,4.1201,6.2106,3.8607,0.2173,2.4238,4.1053,0.2789,-3.2128,0.0389,-0.2605,-0.5410,2.3449,-3.2343,-3.6890,-2.6165,1.5148,3.2821
2656.2500,-4.3288,7.3530,4.3157,6.1898,4.0788,-0.9169,2.0009,4.1527,1.6353,-3.3108,-1.3275,0.3338,1.4690,4.8346,-6.5926,-6.3640,-0.9595,2.9840,4.2737
2660.1562,-6.1804,6.1392,3.9103,5.5596,3.7743,-1.2418,1.4473,3.7605,2.6080,-3.0440,-3.0797,1.1804,3.8903,6.6090,-9.0940,-7.6300,1.5848,4.1131,4.7658
2664.0625,-4.3369,1.7779,3.3009,4.9751,3.3180,-0.4291,1.1152,3.3144,2.7999,-2.5504,-4.0153,2.4788,6.3245,7.2830,-9.8681,-6.6860,4.4188,4.9210,4.9512
2667.9688,0.4750,-3.8863,2.9970,4.9927,3.0232,1.1261,1.2241,3.2193,2.5993,-2.2753,-3.5219,4.0790,8.1462,6.7700,-8.7998,-3.7283,6.7440,5.5257,4.9463
2671.8750,5.4981,-8.6590,3.2557,5.6345,2.9156,2.4577,1.6980,3.5885,2.8562,-2.7428,-1.9878,5.3783,8.6443,5.1857,-6.5752,0.0033,7.8002,5.8934,4.6102
2675.7812,7.5616,-11.1304,3.8594,6.2818,2.6809,2.6561,2.1951,4.0878,4.1497,-4.1226,-0.4752,5.5949,7.3407,2.7352,-4.2534,2.8327,7.1653,5.7438,3.6156
2679.6875,5.1154,-11.1141,4.2318,6.0359,1.8748,1.5412,2.3315,4.0977,6.1981,-5.9218,0.0981,4.3090,4.3506,-0.2849,-2.6479,3.6007,5.0053,4.7408,1.7623
2683.5938,-0.6031,-9.3048,3.8344,4.3514,0.2886,-0.1350,1.9476,3.1323,7.8718,-7.1073,-0.3484,1.9084,0.5462,-3.3863,-1.9150,2.3890,2.1280,2.8489,-0.6903
2687.5000,-6.0936,-6.6037,2.5654,1.5144,-1.7807,-1.1560,1.2243,1.2429,7.8485,-6.6743,-1.0247,-0.4379,-2.6741,-5.8502,-1.5883,0.5250,-0.2678,0.5599,-2.9633
2691.4062,-7.6160,-3.6633,0.8597,-1.3983,-3.5824,-0.6931,0.5525,-0.8982,5.4904,-4.3306,-0.9267,-1.3695,-3.9888,-6.9050,-0.9914,-0.1931,-1.1052,-1.2524,-4.0990
2695.3125,-3.5380,-0.8727,-0.5953,-3.1052,-4.3044,1.0510,0.2458,-2.3367,1.3650,-0.8301,0.3223,-0.1759,-2.8463,-6.1042,0.2733,1.3880,0.0232,-1.8215,-3.5322
2699.2188,4.4570,1.4129,-1.3262,-2.8880,-3.5746,2.8826,0.3045,-2.4062,-2.9442,2.3184,2.1041,2.6559,0.1659,-3.6729,2.0784,5.0074,2.5870,-1.0063,-1.5148
2703.1250,12.1478,2.7547,-1.3751,-1.0326,-1.7292,3.3511,0.4118,-1.1560,-5.6396,3.6360,3.2091,5.5984,3.5500,-0.5368,3.8913,9.0631,5.3394,0.5453,0.9376
2707.0312,15.1811,2.7956,-1.2063,1.3607,0.3548,1.7007,0.1755,0.6614,-5.6498,2.4891,2.7169,6.9182,5.6572,2.0778,5.1341,11.5081,6.9579,1.7576,2.5990
2710.9375,11.6847,1.5608,-1.2891,3.0706,1.7727,-1.5955,-0.5547,2.0472,-3.1658,-0.5578,0.6880,5.7024,5.5662,3.2750,5.5228,11.0368,6.7608,1.8087,2.7588
2714.8438,3.4564,-0.4064,-1.6790,3.4795,2.1099,-5.0715,-1.5243,2.3603,0.5215,-4.0547,-1.8480,2.4373,3.5622,2.9534,5.1837,7.8465,5.0666,0.6816,1.6402
2718.7500,-5.0777,-2.2413,-1.9358,2.8409,1.6123,-7.1157,-2.1966,1.6675,3.7606,-6.4356,-3.5822,-1.2380,0.9205,1.7778,4.5160,3.5272,2.9651,-0.8092,0.2144
2722.6562,-9.5475,-3.1810,-1.4743,1.9344,0.9001,-6.8761,-2.0894,0.6161,5.4178,-6.7834,-3.7615,-3.4644,-0.8800,0.6580,3.9288,0.1664,1.6271,-1.5647,-0.4864
2726.5625,-8.2928,-2.9338,-0.1091,1.3847,0.4434,-4.6642,-1.1080,-0.0659,5.3862,-5.1769,-2.5629,-3.2200,-1.0373,0.0862,3.6243,-0.7794,1.5828,-0.9773,-0.1059
2730.4688,-3.2772,-1.7747,1.6158,1.1591,0.1922,-1.6568,0.3465,-0.0863,4.4486,-2.4931,-0.8046,-0.8726,0.1288,-0.2011,3.5323,0.8029,2.4201,0.5809,0.7537
2734.3750,1.3539,-0.3583,2.6090,0.6184,-0.3555,0.8479,1.5743,0.2387,3.6022,0.1362,0.6899,2.0706,1.4214,-0.9852,3.3972,3.7525,3.0847,1.9030,0.9151
2738.2812,2.1453,0.5910,1.8796,-0.9077,-1.6876,2.1187,1.9640,0.2672,3.2858,1.8673,1.5305,3.8335,1.5315,-2.9080,2.9484,6.3668,2.5779,1.6673,-0.5494
2742.1875,-1.2758,0.5452,-0.7296,-3.4363,-3.7530,2.2285,1.3474,-0.4384,3.0348,2.4145,1.7132,3.3364,-0.1491,-5.8552,2.0708,7.3229,0.6081,-0.6965,-3.5801
2746.0938,-5.9195,-0.6601,-4.2089,-6.0488,-5.7811,1.7863,0.1191,-1.7119,1.8401,1.9868,1.2726,0.7290,-3.1392,-8.8296,0.9058,6.2706,-2.2013,-4.5253,-6.9681
2750.0000,-7.5088,-2.7369,-6.7262,-7.2619,-6.6226,1.4352,-0.9415,-2.8030,-0.9683,1.0236,0.0880,-2.7431,-6.1030,-10.4342,-0.1650,3.8374,-4.6428,-8.1348,-8.9084
2753.9062,-3.5487,-4.9447,-6.5271,-5.8657,-5.4294,1.4774,-1.0523,-2.8212,-4.8950,-0.0732,-1.8879,-5.3994,-7.5425,-9.6720,-0.6723,1.1490,-5.5639,-9.6298,-7.9690
2757.8125,4.6949,-6.2616,-2.9159,-1.7208,-2.2444,1.8268,0.1788,-1.3195,-8.1454,-1.0755,-4.1802,-5.9275,-6.5464,-6.5557,-0.3042,-0.7913,-4.4263,-7.8785,-3.9223
2761.7188,12.7102,-5.7864,3.2381,3.9932,1.8900,2.2260,2.5373,1.3590,-8.4447,-1.9131,-5.6480,-3.9409,-3.2060,-2.1442,0.8719,-1.5153,-1.4975,-3.1252,2.0401
2765.6250,15.4996,-3.2563,9.7901,9.2620,5.4038,2.5017,5.2662,4.2025,-4.4313,-2.5738,-4.9954,-0.0760,1.4747,2.0084,2.3589,-1.1381,2.3624,3.0807,7.8371
2769.5312,10.8066,0.6231,14.2925,12.2026,6.9879,2.6641,7.3800,6.0554,3.2226,-3.0104,-1.7255,4.3500,6.0739,4.6417,3.4342,-0.1153,6.1266,8.5990,11.4842
2773.4375,0.6822,4.3486,15.1553,11.9764,6.2445,2.8199,8.0941,6.2341,11.7744,-3.1177,3.1731,7.9231,9.3646,5.3485,3.5357,1.0736,8.9811,11.6827,12.0067
2777.3438,-9.6638,6.3309,12.3844,9.1492,3.8342,3.0232,7.1713,4.8697,17.6509,-2.7904,7.4738,9.6930,10.7432,4.6101,2.6064,2.1195,10.4910,11.7308,9.8050
2781.2500,-14.9997,5.7945,7.5093,5.3201,1.0564,3.2128,5.0231,2.7908,18.3377,-2.0224,8.9238,9.4835,10.3045,3.3512,1.1566,2.8830,10.5514,9.4440,6.3099
2785.1562,-13.1794,3.2966,2.7516,2.2474,-0.8711,3.2867,2.5083,1.0325,13.7909,-0.9792,6.6794,7.8421,8.5891,2.3343,-0.0390,3.2719,9.2392,6.3344,3.1503
2789.0625,-6.2536,0.4657,-0.0997,0.9672,-1.4163,3.2309,0.5233,0.2759,6.4699,0.0210,1.9414,5.6810,6.1958,1.7638,-0.4350,3.1395,6.7020,3.8834,1.3131
2792.9688,1.0377,-0.9425,-0.4952,1.3752,-0.8993,3.1743,-0.4070,0.5395,-0.0716,0.6383,-2.7425,3.8037,3.4992,1.3014,-0.0661,2.3138,3.1569,2.8138,0.7516
2796.8750,4.3217,-0.1013,0.8027,2.4595,-0.1703,3.3044,-0.3241,1.2742,-3.1806,0.6996,-5.0924,2.5664,0.6287,0.4277,0.5098,0.7602,-1.0170,2.8626,0.6301
2800.7812,2.1978,2.3929,2.3579,2.9985,-0.0311,3.7028,0.2822,1.7637,-2.4483,0.3310,-4.5130,1.8467,-2.3093,-1.1112,0.6627,-1.2358,-5.1811,3.1410,0.0166
2804.6875,-3.1937,4.9025,2.9826,2.2965,-0.7525,4.2331,0.8206,1.5642,0.3928,-0.0721,-2.3070,1.3037,-4.9594,-3.0560,0.2199,-3.0249,-8.4426,2.8188,-1.4237
2808.5938,-7.8239,5.7453,2.3801,0.5374,-1.9584,4.5878,0.9558,0.7192,2.8510,-0.0545,-0.5519,0.7304,-6.6396,-4.7264,-0.3292,-3.7873,-9.8401,1.6903,-3.1713
2812.5000,-8.4211,4.1617,1.1567,-1.4077,-2.9125,4.4843,0.7610,-0.3441,3.3449,0.6144,-0.4906,0.2416,-6.5924,-5.3925,-0.1444,-2.9159,-8.6965,0.2706,-4.1888
2816.4062,-4.3839,0.6784,0.2713,-2.5564,-3.0055,3.8853,0.5896,-1.1317,2.0474,1.7656,-1.6449,0.1620,-4.4657,-4.7030,1.3244,-0.4015,-5.0125,-0.6139,-3.6315
2820.3125,2.1220,-3.2704,0.3342,-2.4045,-2.1414,3.0864,0.7763,-1.3859,0.4346,2.8960,-2.3022,0.7034,-0.7260,-2.9258,3.8186,3.0202,0.3119,-0.4424,-1.4709
2824.2188,7.7119,-6.1387,1.2222,-1.1847,-0.7962,2.5863,1.3792,-1.1925,-0.0045,3.4566,-0.9791,1.6867,3.3143,-0.8597,6.2751,6.0955,5.6176,0.6028,1.3773
2828.1250,9.8127,-6.9798,2.2218,0.3169,0.2665,2.7925,2.1272,-0.8619,1.0953,3.1825,2.2712,2.5373,5.9705,0.5398,7.3982,7.5808,9.0276,1.7231,3.5099
2832.0312,7.8974,-5.7458,2.5392,1.2291,0.4365,3.7267,2.5838,-0.7009,2.7881,2.2385,5.7117,2.5835,5.9557,0.6229,6.4372,6.8102,9.1981,2.0038,3.7932
2835.9375,3.3455,-3.1691,1.7942,1.0462,-0.4128,4.9147,2.3950,-0.8432,3.6160,1.0727,7.0513,1.4552,3.0248,-0.6522,3.6497,3.9896,5.9242,0.9805,1.9531
2839.8438,-1.7001,-0.4144,0.1831,-0.1775,-1.8879,5.5597,1.4590,-1.2275,2.7200,0.0823,5.0123,-0.6952,-1.8872,-2.7345,0.1399,0.0561,0.2649,-1.1026,-1.3413
2843.7500,-5.5787,1.3277,-1.7289,-1.9359,-3.3280,4.9433,-0.0561,-1.6914,0.4220,-0.6592,0.1967,-3.2949,-7.1212,-4.7951,-2.8022,-3.8051,-5.9097,-3.4776,-4.8972
2847.6562,-7.7051,1.2488,-3.3570,-3.5505,-4.1709,2.8608,-1.8003,-2.0763,-2.0922,-1.3950,-5.3307,-5.6736,-11.0699,-6.1536,-4.3977,-6.6872,-10.7268,-5.3119,-7.6082
2851.5625,-8.3585,-0.7036,-4.3158,-4.4384,-4.2134,-0.1513,-3.3424,-2.2646,-3.6597,-2.3892,-9.3645,-7.3532,-12.8214,-6.5747,-4.6483,-8.2270,-13.0446,-6.1080,-8.8692
2855.4688,-8.0718,-3.6394,-4.4121,-4.2726,-3.6355,-2.9628,-4.2386,-2.1621,-3.8801,-3.5680,-10.7972,-8.1087,-12.3396,-6.2802,-4.0509,-8.4959,-12.7389,-5.8099,-8.6143
2859.3750,-7.1679,-5.9589,-3.5455,-3.0453,-2.8209,-4.3528,-4.1131,-1.6975,-3.1849,-4.4022,-9.9470,-7.8242,-10.1752,-5.7046,-3.0392,-7.6717,-10.4541,-4.6377,-7.0890
2863.2812,-5.7156,-6.1000,-1.7226,-1.0853,-2.1190,-3.6446,-2.8047,-0.8906,-2.2837,-4.1823,-7.9129,-6.3596,-7.0059,-5.1718,-1.6183,-5.7846,-7.0628,-2.8685,-4.6325
2867.1875,-3.7787,-3.5208,0.7644,0.9725,-1.6978,-1.1338,-0.5511,0.0552,-1.5151,-2.5426,-5.6116,-3.6327,-3.3554,-4.7083,0.5253,-2.7575,-3.2223,-0.7702,-1.6526
2871.0938,-1.6349,0.6965,3.1795,2.3317,-1.5435,1.9693,1.9320,0.7434,-0.6430,0.1326,-3.2850,0.0955,0.3612,-4.0971,3.5468,1.2892,0.7041,1.2987,1.2606
2875.0000,0.2476,4.1806,4.4727,2.3313,-1.5537,4.1183,3.6340,0.7390,0.7750,2.7565,-0.7633,3.9845,3.6150,-3.1120,7.0066,5.7259,4.3990,2.8068,3.3137
2878.9062,1.4298,4.5728,3.7810,0.8082,-1.6274,4.2634,3.7031,-0.1607,2.8125,4.0936,1.9019,6.7250,5.6632,-1.7561,9.8620,9.3922,7.2984,3.1768,3.7503
2882.8125,1.7063,1.1022,1.0523,-1.6909,-1.6914,2.4760,1.9588,-1.7106,4.9061,3.5072,4.0967,7.0743,5.7586,-0.3335,10.9494,10.9756,8.5669,2.1222,2.2809
2886.7188,1.1360,-4.6250,-2.6691,-4.0525,-1.6799,-0.0307,-0.8775,-3.2406,6.1356,1.4157,4.9366,4.5550,3.5805,0.6922,9.6466,9.6172,7.4352,-0.0399,-0.6020
2890.6250,-0.0674,-9.3180,-5.6200,-5.1103,-1.5217,-1.5594,-3.4622,-3.9649,5.8242,-0.8811,3.9385,-0.1396,-0.4160,0.9622,6.2593,5.3975,3.7091,-2.3927,-3.7198
2894.5312,-1.6307,-9.9296,-6.2509,-4.2806,-1.1706,-0.9225,-4.5317,-3.4233,3.9826,-1.9426,1.4693,-5.3532,-5.0223,0.4428,1.8736,-0.5967,-1.8903,-3.8399,-5.7508
2898.4375,-3.1968,-5.6603,-4.1732,-1.9321,-0.6584,1.8124,-3.6306,-1.7808,1.2642,-1.0513,-1.4356,-9.2287,-8.7203,-0.5335,-2.2111,-6.6702,-7.8180,-3.7248,-5.9197
2902.3438,-4.2523,1.3075,-0.4825,0.7763,-0.1146,5.3030,-1.3926,0.2213,-1.4926,1.3478,-3.7445,-10.5889,-10.3203,-1.4296,-5.0825,-11.1685,-12.2309,-2.2409,-4.3958
2906.2500,-4.1892,6.9513,2.8181,2.5271,0.2755,7.6901,0.8384,1.6567,-3.7416,3.9198,-5.0356,-9.4193,-9.4418,-1.7862,-6.4806,-13.0473,-13.7088,-0.3349,-2.1374
2910.1562,-2.6004,7.7969,3.9752,2.5655,0.3511,7.6889,1.8298,1.9126,-5.3647,5.2486,-5.5591,-6.7023,-6.6070,-1.4824,-6.6449,-12.1246,-11.8280,0.8592,-0.2989
2914.0625,0.3226,3.0513,2.4949,1.0575,0.0328,5.3361,1.1954,0.9912,-6.4298,4.6626,-5.7656,-3.7730,-2.9565,-0.8430,-5.9628,-8.9875,-7.3387,0.6820,0.3895
2917.9688,3.6066,-4.8998,-0.6436,-1.1265,-0.6795,1.9173,-0.4360,-0.5586,-6.8666,2.5551,-5.7777,-1.6431,0.2080,-0.5268,-4.7331,-4.6892,-1.8847,-0.7279,-0.1302
2921.8750,5.7882,-11.9519,-3.6851,-3.0263,-1.7447,-0.8753,-1.9171,-2.0109,-6.4010,0.0270,-5.3080,-0.6802,1.8350,-1.2210,-3.1892,-0.4074,2.6067,-2.6358,-1.4606
2925.7812,5.6346,-14.7292,-5.2122,-4.1693,-3.0940,-1.9947,-2.3832,-2.8784,-4.8198,-1.8615,-4.0860,-0.7211,1.3816,-3.2532,-1.6563,2.8435,4.6373,-4.2462,-3.1752
2929.6875,2.9032,-12.4339,-4.9228,-4.7267,-4.5840,-1.6012,-1.7943,-3.1156,-2.3091,-2.7016,-2.3592,-1.3863,-1.0655,-6.3020,-0.5818,4.4372,3.6976,-5.1598,-5.0690
2933.5938,-1.3716,-6.9744,-3.5975,-5.1932,-5.9317,-0.7742,-0.8587,-3.0222,0.4864,-2.8075,-0.9181,-2.2962,-4.7788,-9.3790,-0.3085,4.2945,0.4653,-5.4458,-7.0487
2937.5000,-5.3325,-1.4466,-2.3727,-5.8787,-6.7237,-0.6053,-0.4294,-2.9604,2.7981,-2.7581,-0.5149,-3.0771,-8.5190,-11.1630,-0.7322,2.9219,-3.4609,-5.3491,-8.8233
2941.4062,-7.2884,1.8756,-1.9109,-6.6155,-6.5632,-1.3378,-0.8466,-3.1051,4.2141,-2.8047,-1.1289,-3.2955,-10.8756,-10.5912,-1.1718,1.2422,-6.2336,-4.9416,-9.7568
2945.3125,-6.6537,2.6727,-2.0705,-6.8912,-5.3098,-2.1828,-1.7147,-3.3798,4.8924,-2.6272,-1.7691,-2.5407,-10.7939,-7.4435,-0.6802,0.2081,-6.5809,-4.0471,-9.1257
2949.2188,-4.2434,2.2082,-2.2451,-6.2770,-3.2580,-1.9524,-2.2627,-3.5751,5.2956,-1.6398,-1.1290,-0.7055,-8.0967,-2.5944,1.3077,0.3365,-4.4082,-2.5065,-6.6625
2953.1250,-1.7277,1.9420,-2.0145,-4.7982,-1.0964,-0.0492,-1.9835,-3.5204,5.6520,0.3864,1.3082,1.7427,-3.6931,2.2639,4.4161,1.4195,-0.8491,-0.5323,-2.9694
2957.0312,-0.5926,2.2857,-1.5336,-2.9540,0.3892,2.9225,-1.0459,-3.1734,5.6230,2.8867,4.5861,3.8097,0.7384,5.3503,7.3178,2.6221,2.3094,1.2065,0.5976
2960.9375,-1.2703,2.4244,-1.3328,-1.3792,0.7250,5.4054,-0.1504,-2.5869,4.5309,4.6462,6.6679,4.4601,3.5174,5.6252,8.4048,2.9686,3.5620,1.9282,2.6112
2964.8438,-2.9800,1.2393,-1.7149,-0.4176,0.0184,5.8707,0.0552,-1.8235,2.0417,4.5003,5.7724,3.3053,3.7978,3.2775,6.7859,1.9590,2.4794,1.3072,2.4227
2968.7500,-4.3363,-1.4917,-2.2862,0.0638,-1.1042,3.8669,-0.4584,-0.9159,-1.2358,2.1398,1.7446,1.0159,1.9869,-0.4112,2.9666,-0.0632,-0.0905,-0.1639,0.5965
2972.6562,-4.2803,-4.6186,-2.0791,0.4898,-1.8748,0.4031,-1.0177,0.0884,-3.7984,-1.5504,-3.5753,-0.9156,-0.5210,-3.7528,-1.2914,-2.0461,-2.5333,-1.3487,-1.4104
2976.5625,-2.7102,-6.2758,-0.2545,1.1815,-1.8472,-2.6243,-0.7385,1.0515,-4.0612,-4.9023,-7.3498,-1.0159,-2.1565,-5.4988,-3.9184,-2.8162,-3.3910,-1.1375,-2.1527
2980.4688,-0.4350,-5.1886,3.1149,2.0708,-1.1449,-3.5929,0.7583,1.7369,-1.4430,-6.3989,-7.4909,1.2151,-2.0460,-5.3647,-3.7291,-1.7721,-2.1495,0.8079,-1.0983
2984.3750,1.4420,-1.6430,6.8118,2.7494,-0.3204,-2.1379,2.9527,1.9141,3.0610,-5.5387,-3.9624,4.8704,-0.4212,-3.9616,-1.1036,0.7410,0.5575,3.7481,1.0805
2988.2812,2.2402,2.6210,9.0663,2.8180,0.0837,0.6844,4.6875,1.5305,7.3195,-3.0670,1.2576,8.0607,1.6569,-2.2317,2.2896,3.6090,3.4053,6.2458,3.0211
2992.1875,2.0385,5.5380,8.6552,2.2667,-0.0219,3.1328,4.9421,0.8310,9.3163,-0.4364,5.5081,8.9836,3.0437,-0.7891,4.5493,5.5667,5.1658,7.0169,3.6366
2996.0938,1.4722,6.0673,5.7848,1.5905,-0.1421,3.9020,3.5848,0.3193,8.4099,1.1303,7.1230,6.9902,3.2251,0.4056,4.6887,5.8792,5.3278,5.7215,2.8699
3000.0000,1.2172,4.8136,2.1245,1.5304,0.5030,2.8862,1.5550,0.5405,5.7335,1.3444,6.3107,2.9923,2.5513,1.8453,3.1379,4.6833,4.2090,3.1924,1.7173
3003.9062,1.5609,3.4987,-0.1049,2.5928,2.4131,1.1175,0.3050,1.7796,3.4342,0.8751,4.7129,-1.0361,1.8818,3.9225,1.3134,2.8200,2.5776,0.9564,1.5073
3007.8125,2.3260,3.6801,0.5451,4.6534,5.3350,-0.0148,0.8465,3.8337,3.2425,0.7269,4.0724,-3.1456,1.9193,6.4253,0.5955,1.3014,1.1026,0.3519,2.9250
3011.7188,3.1125,5.6203,3.8396,6.9063,8.2083,0.2974,3.0336,5.9970,5.3294,1.4415,5.0139,-2.4292,2.6979,8.4526,1.4291,0.7621,0.0138,1.7740,5.4457
3015.6250,3.6056,8.0771,7.9392,8.2098,9.6187,1.8038,5.5761,7.3063,8.2120,2.6953,6.7515,0.5934,3.5561,8.8413,3.1391,1.2076,-0.8532,4.4780,7.5681
3019.5312,3.7128,9.1273,10.4364,7.6526,8.5390,3.4502,6.7995,6.9622,9.7505,3.5553,7.7983,4.3731,3.5934,6.8653,4.5233,2.1535,-1.7349,7.0127,7.7127
3023.4375,3.4901,7.4369,9.7214,5.0438,4.9485,4.1340,5.6804,4.7418,8.5484,3.1877,7.0454,7.1938,2.2925,2.7778,4.7471,3.0020,-2.6224,7.9937,5.2201
3027.3438,2.9998,3.1281,5.8665,1.0702,-0.0371,3.4352,2.5013,1.1908,4.8294,1.4979,4.4191,7.9766,-0.0981,-2.1517,3.8827,3.3859,-3.1868,6.7738,0.8196
3031.2500,2.2614,-2.2918,0.5297,-2.9686,-4.6332,1.8550,-1.2842,-2.5365,0.2560,-0.7480,0.7562,6.6277,-2.6622,-6.1682,2.7333,3.2827,-2.9861,3.6787,-3.7237
