Time,Fp1,F3,C3,P3,O1,F7,T3,T5,Fz,Fp2,F4,C4,P4,O2,F8,T4,T6,Cz,Pz
0.0000,9.0093,3.3548,0.0870,0.9110,3.0823,-2.2824,0.4877,1.3193,-0.9018,4.0922,4.1522,1.4948,4.1089,4.0859,0.9437,-0.1105,2.3330,1.2239,2.5633
3.9062,9.0667,-0.3403,2.7507,3.6179,4.4673,-1.5815,1.7395,2.7490,1.2313,1.7654,3.4652,3.0854,6.0419,5.1422,0.6440,0.5018,4.1794,3.2750,4.8403
7.8125,6.3667,-5.6604,5.5326,6.2891,5.1830,0.2552,3.1633,3.7990,3.5165,-1.9663,1.4147,4.8685,7.5586,5.5232,0.4763,1.5557,6.1734,5.0622,7.0668
11.7188,0.0528,-11.0142,7.2086,7.6510,4.4792,2.5633,4.1027,3.7479,4.8900,-6.6108,-2.1744,5.9185,7.6124,4.6670,0.2795,2.6801,7.5487,5.4823,8.1307
15.6250,-8.6384,-14.3919,7.0108,6.9797,2.2583,4.2643,4.0113,2.3966,4.7658,-11.0336,-6.6586,5.5045,5.6748,2.5855,-0.1885,3.3168,7.6731,4.0770,7.2931
19.5312,-16.3746,-14.4085,5.1428,4.5760,-0.7555,4.5844,2.8081,0.2675,3.4796,-13.7425,-10.6299,3.5765,2.1017,-0.0812,-1.0220,3.0228,6.3367,1.4499,4.6378
23.4375,-19.2585,-11.0765,2.7160,1.6062,-3.3609,3.6166,0.9901,-1.6576,2.1101,-13.4956,-12.4746,0.8742,-1.9857,-2.4132,-2.0130,1.7531,3.8312,-0.9938,1.0762
27.3438,-15.1968,-5.8093,1.1111,-0.6047,-4.5489,2.2879,-0.5945,-2.5147,1.7474,-9.9926,-11.2009,-1.4433,-5.2483,-3.7400,-2.7209,-0.0596,0.8028,-1.8802,-2.1007
31.2500,-5.6300,-0.6579,1.1582,-1.3617,-4.0744,1.7128,-1.1954,-2.0808,2.6953,-4.2667,-7.0791,-2.4357,-6.7747,-3.9942,-2.7522,-1.6959,-2.0092,-0.7501,-3.8542
35.1562,4.6929,2.7163,2.6537,-0.9402,-2.5550,2.3805,-0.5662,-0.8894,4.1778,1.5395,-1.6863,-1.8919,-6.4480,-3.6464,-2.0581,-2.5041,-3.9991,1.5975,-3.8428
39.0625,10.0675,3.6859,4.5148,-0.2678,-1.0344,3.7676,0.9137,0.1400,4.8003,5.0315,2.7386,-0.4020,-4.8485,-3.2816,-1.0134,-2.2113,-4.8035,3.5553,-2.4553
42.9688,7.0572,2.5912,5.4553,-0.1947,-0.3088,4.6757,2.4661,0.3101,3.4923,4.6855,4.3272,1.0365,-2.8138,-3.1333,-0.1840,-1.0128,-4.3095,3.6825,-0.4763
46.8750,-3.3917,0.1723,4.7459,-0.8783,-0.4684,4.0673,3.3422,-0.4148,0.3147,0.6464,2.4607,1.6124,-0.9708,-2.9281,0.0747,0.5894,-2.6352,1.5872,1.3595
50.7812,-16.3523,-2.9672,2.6078,-1.7043,-0.9469,1.8182,3.2002,-1.4239,-3.4212,-5.2763,-1.9583,1.1265,0.4773,-2.1591,-0.0996,2.0777,-0.1282,-1.8254,2.6603
54.6875,-25.6792,-6.4392,0.0577,-1.7658,-1.0099,-1.1333,2.2365,-1.8945,-5.8202,-10.4634,-6.9615,0.0252,1.6384,-0.5855,-0.1414,3.1506,2.6453,-4.8614,3.4041
58.5938,-27.4322,-9.7310,-1.6309,-0.5297,-0.3158,-3.3183,1.0425,-1.3375,-5.4437,-12.7488,-10.4224,-0.9168,2.6552,1.4260,0.5473,3.7767,4.9904,-5.9465,3.7827
62.5000,-21.8269,-11.8898,-1.5026,1.7867,0.8495,-3.5641,0.3030,0.1109,-2.0811,-11.3957,-10.9392,-1.0239,3.5034,2.9986,2.1370,4.0807,6.2820,-4.3757,4.0263
66.4062,-12.5633,-11.6911,0.7479,4.3679,1.8063,-1.5690,0.5057,1.8190,3.1910,-7.2657,-8.2940,-0.0052,4.0034,3.2481,4.1834,4.1802,6.2071,-0.5194,4.3148
70.3125,-4.1362,-8.3408,4.7449,6.3246,1.9882,2.0833,1.7725,3.0808,8.6341,-2.1477,-3.3646,2.0005,3.9905,1.8620,5.8696,4.0984,4.9189,4.5040,4.7616
74.2188,0.9720,-2.2493,9.5868,7.1897,1.3404,6.3518,3.8345,3.5210,12.7146,2.2877,2.3491,4.5468,3.4766,-0.6448,6.5332,3.7978,2.9888,9.3703,5.3934
78.1250,3.3569,4.7600,14.0605,7.0531,0.3346,10.2297,6.1176,3.2271,14.6868,5.2617,7.2982,7.0325,2.6639,-3.1815,6.1158,3.2792,1.1549,12.9614,6.0918
82.0312,5.4751,10.1211,16.8901,6.3058,-0.3856,12.9848,7.9099,2.5689,14.6241,6.9732,10.3266,8.8111,1.8129,-4.6842,5.2127,2.6481,-0.0024,14.5166,6.5581
85.9375,9.2274,11.7685,17.0685,5.2601,-0.4467,14.1310,8.5871,1.8907,13.0312,8.0628,10.8977,9.2934,1.0890,-4.6836,4.6695,2.0885,-0.2797,13.6447,6.3948
89.8438,14.1951,9.2061,14.2589,3.9704,0.0446,13.3575,7.8564,1.3150,10.4121,8.9082,9.1371,8.1140,0.5188,-3.4877,4.9903,1.7629,0.1485,10.3821,5.3296
93.7500,17.7882,3.7301,9.1057,2.3806,0.6523,10.6254,5.9251,0.7805,7.1162,9.2607,5.7445,5.3531,0.0813,-1.8982,5.9631,1.7185,0.9194,5.3392,3.4696
97.6562,17.1130,-2.3135,3.2060,0.6348,0.9775,6.3960,3.4833,0.2364,3.5063,8.4399,1.7968,1.6880,-0.1613,-0.6791,6.7690,1.8704,1.7189,-0.2306,1.3986
101.5625,11.1356,-6.7387,-1.3931,-0.7535,0.9516,1.7336,1.4515,-0.1964,0.2135,5.9024,-1.5505,-1.6952,-0.0304,-0.1335,6.5187,2.0735,2.4115,-4.6577,-0.0109
105.4688,1.5862,-8.4463,-3.0329,-1.0689,0.8491,-1.9566,0.5761,-0.2414,-1.8332,1.7588,-3.4102,-3.4971,0.6527,-0.0340,4.8655,2.2263,3.0045,-6.4320,-0.0153
109.3750,-7.9678,-7.6021,-1.2166,0.1797,1.0363,-3.5209,1.0754,0.3447,-1.7421,-3.1155,-3.4483,-2.8830,1.8733,0.1018,2.2877,2.3297,3.5087,-4.8962,1.5737
113.2812,-14.1431,-5.1543,3.1214,2.8649,1.6656,-2.6402,2.5419,1.5600,0.7903,-7.4325,-1.9801,0.0398,3.3052,0.6152,-0.1565,2.4580,3.8285,-0.6634,4.2162
117.1875,-15.4571,-2.1794,8.0371,6.1717,2.5452,-0.0005,4.1722,3.0827,5.0660,-10.0729,0.1740,4.1299,4.3769,1.4593,-1.4565,2.6645,3.7711,4.5428,6.8449
121.0938,-12.7201,0.4871,11.4846,8.9303,3.2595,3.1006,5.1942,4.3977,9.4390,-10.5525,2.0085,7.6111,4.5101,2.2335,-1.2652,2.8931,3.1668,8.6065,8.3413
125.0000,-8.1198,2.2462,12.2200,10.1594,3.4266,5.4715,5.2362,5.0400,11.9177,-9.1485,2.6797,8.8160,3.3992,2.4408,-0.1148,2.9651,2.0040,9.9494,8.0289
128.9062,-3.8571,2.6252,10.2337,9.4998,2.8976,6.6029,4.4258,4.8025,11.0758,-6.6817,1.7451,6.9321,1.1764,1.7842,0.9043,2.6612,0.4782,8.1955,5.9314
132.8125,-1.2673,1.3581,6.5402,7.3064,1.7778,6.7480,3.1895,3.7933,6.8139,-4.1192,-0.7572,2.3980,-1.6210,0.3331,0.8079,1.8547,-1.0794,4.2492,2.6958
136.7188,-0.7390,-1.3301,2.5366,4.3919,0.3074,6.5225,1.9271,2.3381,0.5437,-2.1997,-4.3479,-3.2440,-4.2499,-1.5030,-0.6821,0.6184,-2.3407,-0.2047,-0.7281
140.6250,-2.0573,-4.5406,-0.6508,1.6205,-1.2621,6.3661,0.8003,0.8191,-5.3616,-1.2145,-8.2069,-7.9730,-6.0163,-3.1452,-2.9621,-0.7683,-3.0967,-3.4802,-3.4577
144.5312,-4.6227,-6.9448,-2.4912,-0.4067,-2.6923,6.2635,-0.2317,-0.4451,-8.6238,-0.9940,-11.3180,-10.1160,-6.4796,-4.0651,-4.9036,-1.9256,-3.2928,-4.5543,-4.9285
148.4375,-7.3996,-7.4553,-2.9727,-1.4442,-3.7048,5.8731,-1.1963,-1.2356,-8.1074,-1.0813,-12.6932,-9.0144,-5.5524,-3.9696,-5.5261,-2.5437,-2.9886,-3.3506,-4.9707
152.3438,-8.9550,-5.9211,-2.3182,-1.5110,-3.9684,4.8879,-1.9215,-1.4192,-4.3175,-1.0345,-11.6906,-5.2522,-3.5025,-2.9055,-4.5897,-2.5299,-2.2959,-0.6054,-3.7591
156.2500,-8.0049,-3.3220,-0.7672,-0.7576,-3.2216,3.3024,-2.0594,-0.9506,0.9155,-0.7420,-8.3483,-0.3673,-0.8828,-1.2597,-2.7616,-2.0493,-1.3436,2.5292,-1.7171
160.1562,-4.3816,-1.2471,1.4302,0.5914,-1.4954,1.3927,-1.3322,0.0813,5.3840,-0.5894,-3.5616,3.8067,1.5937,0.3545,-1.2609,-1.4372,-0.2752,4.9285,0.5800
164.0625,0.2848,-0.9645,3.8705,2.2055,0.7269,-0.5136,0.1754,1.3972,7.5505,-1.3330,1.0696,5.8677,3.2247,1.3093,-1.1888,-1.0277,0.7453,5.8229,2.5049
167.9688,2.9684,-2.7074,5.8980,3.6139,2.5854,-2.2314,1.9090,2.5357,7.1164,-3.6663,3.7598,5.3213,3.5095,1.2061,-2.9187,-0.9931,1.5453,4.9467,3.4988
171.8750,0.8698,-5.6535,6.7122,4.2661,3.1863,-3.6986,3.0417,2.9758,4.8423,-7.6647,3.2521,2.6240,2.3014,0.0414,-5.8804,-1.2806,1.9705,2.5244,3.2052
175.7812,-6.6010,-8.5572,5.6836,3.7116,2.0514,-4.7923,2.8867,2.3477,1.8301,-12.4423,-0.5944,-1.1727,-0.1477,-1.8032,-8.8384,-1.6759,1.9030,-0.8547,1.5737
179.6875,-16.8660,-10.5238,2.7186,1.8263,-0.5921,-5.2045,1.2840,0.6346,-1.1876,-16.3063,-6.6487,-4.9505,-3.2818,-3.7618,-10.4942,-1.9470,1.2597,-4.4147,-1.1127
183.5938,-25.1568,-11.3562,-1.5435,-1.0494,-3.8767,-4.5555,-1.2731,-1.7518,-4.0547,-17.4446,-12.8941,-7.9334,-6.4363,-5.3728,-10.0864,-1.9778,-0.0109,-7.3752,-4.3033
187.5000,-27.0846,-11.3016,-5.8486,-4.1608,-6.6971,-2.6992,-3.8509,-4.0896,-6.8019,-14.8439,-17.1994,-9.7962,-9.0405,-6.4853,-7.6928,-1.8126,-1.8968,-9.1029,-7.3161
191.4062,-21.2843,-10.5363,-8.7483,-6.5888,-8.2244,0.0273,-5.5041,-5.6222,-9.0502,-8.9415,-18.1330,-10.4916,-10.7326,-7.2538,-4.1279,-1.5927,-4.2464,-9.2163,-9.4996
195.3125,-10.4122,-8.9220,-9.1599,-7.5951,-8.2414,2.8542,-5.6860,-5.8694,-9.7898,-1.6066,-15.4651,-9.9998,-11.3546,-7.9263,-0.5447,-1.4395,-6.6927,-7.6508,-10.3773
199.2188,0.2393,-6.2830,-6.8283,-6.9066,-7.1256,4.9479,-4.4369,-4.8227,-7.8570,4.5977,-10.1713,-8.2281,-10.8765,-8.5740,2.0297,-1.3664,-8.6619,-4.6905,-9.7519
203.1250,5.7055,-2.9429,-2.4786,-4.8033,-5.5327,5.8536,-2.2907,-2.9273,-2.8712,7.5192,-3.9847,-5.1571,-9.3404,-8.9604,3.0152,-1.2792,-9.5199,-0.9578,-7.7562
207.0312,4.0567,0.0382,2.4246,-1.9740,-4.0067,5.6896,0.0071,-0.8621,4.0441,6.3259,1.2679,-1.1204,-6.8862,-8.6569,2.3710,-1.0575,-8.8282,2.6703,-4.8381
210.9375,-2.7995,1.2835,6.2297,0.7800,-2.7611,4.9507,1.8025,0.7628,10.4012,1.7715,4.2611,3.0268,-3.8422,-7.3467,0.4950,-0.6599,-6.5885,5.2485,-1.6728
214.8438,-10.6006,-0.0206,7.7321,2.8377,-1.7370,4.0823,2.7178,1.6342,13.4551,-4.2690,4.4882,6.0482,-0.7933,-5.1205,-1.9718,-0.1777,-3.3317,6.0302,0.9868
218.7500,-15.4295,-3.4299,6.6079,3.9066,-0.8487,3.1630,2.6745,1.7758,11.6913,-9.7057,2.2435,6.7768,1.4698,-2.5619,-4.3576,0.1956,0.0228,4.7275,2.4844
222.6562,-15.8883,-7.3306,3.4525,3.9791,-0.2100,1.9424,1.7987,1.4043,5.7585,-13.1044,-1.6461,4.6561,2.1537,-0.5493,-6.1468,0.2573,2.4835,1.6410,2.4075
226.5625,-13.5016,-9.8573,-0.5807,3.1685,-0.1662,0.1889,0.3002,0.7147,-1.8037,-14.1279,-6.1769,0.0648,0.7564,0.1271,-7.1160,-0.1045,3.3312,-2.4283,0.6699
230.4688,-11.3256,-10.0467,-4.3383,1.5683,-1.0971,-1.9518,-1.6016,-0.2531,-7.9304,-13.4199,-10.4560,-5.7742,-2.6794,-0.8760,-7.3824,-0.8596,2.3367,-6.4651,-2.4770
234.3750,-11.8339,-8.4185,-7.1181,-0.7531,-3.1190,-3.9002,-3.6817,-1.5751,-10.6602,-12.0804,-13.8360,-11.2671,-7.4819,-3.3033,-7.3198,-1.8494,-0.2165,-9.5971,-6.4866
238.2812,-15.4216,-6.5596,-8.7904,-3.6197,-5.8802,-4.9582,-5.6709,-3.2627,-10.0147,-11.0352,-15.9134,-15.0615,-12.4942,-6.4136,-7.3462,-2.8482,-3.6616,-11.3543,-10.5948
242.1875,-20.3000,-6.0066,-9.5762,-6.5947,-8.5961,-4.7645,-7.2284,-5.0788,-7.6235,-10.5957,-16.4763,-16.4961,-16.4082,-9.2714,-7.6693,-3.6384,-7.1375,-11.7227,-13.9387
246.0938,-23.6284,-7.2170,-9.6853,-8.9592,-10.3266,-3.5379,-7.9754,-6.5041,-5.4286,-10.3852,-15.4937,-15.7027,-18.1682,-11.0639,-8.1358,-4.0681,-9.7690,-11.0057,-15.7269
250.0000,-23.0969,-9.3302,-9.0871,-9.9036,-10.3661,-1.9178,-7.6007,-6.9137,-4.3933,-9.6449,-13.1775,-13.3766,-17.3018,-11.3201,-8.3047,-4.0829,-10.8347,-9.6083,-15.4503
253.9062,-18.1157,-10.8246,-7.5703,-8.8638,-8.5524,-0.5240,-6.0033,-5.8839,-4.0752,-7.7723,-10.0528,-10.3897,-14.0619,-9.9855,-7.7357,-3.7256,-9.9447,-7.8754,-13.0665
257.8125,-10.1376,-10.5447,-5.0248,-5.8236,-5.3458,0.4209,-3.4003,-3.4547,-3.2675,-4.8364,-6.9238,-7.4515,-9.3341,-7.3778,-6.3325,-3.1097,-7.2100,-6.0429,-9.0639
261.7188,-2.0969,-8.3714,-1.7125,-1.4028,-1.6428,1.1167,-0.3306,-0.1855,-1.1501,-1.7835,-4.6603,-4.9427,-4.3415,-4.0694,-4.5099,-2.3707,-3.3101,-4.2691,-4.3382
265.6250,2.7586,-5.1500,1.6961,3.3310,1.5783,1.8500,2.4718,3.0386,1.9335,-0.1477,-3.8549,-2.9306,-0.2528,-0.7348,-3.0411,-1.6151,0.6478,-2.6706,0.0908
269.5312,2.2379,-2.0677,4.3659,7.2315,3.6111,2.5864,4.2980,5.3465,4.6327,-1.3132,-4.5246,-1.3000,2.1665,2.0124,-2.6377,-0.8964,3.4981,-1.3182,3.3963
273.4375,-3.7011,-0.0153,5.6640,9.4348,4.2134,2.8510,4.6908,6.1905,5.5255,-5.6482,-6.0618,0.0813,2.7281,3.7524,-3.5084,-0.2362,4.4790,-0.2185,5.1423
277.3438,-12.6451,0.6514,5.4100,9.5553,3.5710,2.0413,3.5849,5.4833,4.1197,-11.9961,-7.5237,1.2204,1.7608,4.3170,-5.1846,0.3146,3.5451,0.6626,5.2769
281.2500,-20.5386,-0.0467,3.8686,7.6858,2.0879,-0.0255,1.3125,3.5383,1.1885,-17.9137,-8.1406,1.9260,-0.1423,3.7486,-6.7571,0.6194,1.3338,1.3139,3.9732
285.1562,-23.4853,-1.9390,1.5412,4.2844,0.1484,-2.7479,-1.5077,0.8980,-1.7686,-20.6874,-7.7535,1.8448,-2.4276,2.1950,-7.4038,0.4635,-1.2173,1.5877,1.4694
289.0625,-19.7781,-4.7124,-1.0563,0.0638,-2.0009,-4.8853,-4.1427,-1.8286,-3.5043,-18.6907,-6.8949,0.6298,-4.7686,-0.1750,-6.8925,-0.3450,-3.3731,1.2076,-1.9534
292.9688,-11.0271,-7.7379,-3.4671,-4.0753,-4.1887,-5.2011,-5.9165,-4.0581,-3.7177,-12.3601,-6.4246,-1.7979,-7.0358,-3.1551,-5.7285,-1.8176,-4.9066,-0.0653,-5.8415
296.8750,-1.5409,-10.0336,-5.2237,-7.1231,-6.1512,-3.2285,-6.3528,-5.2762,-2.9998,-4.1797,-6.9198,-5.0171,-9.0888,-6.3899,-4.8276,-3.6630,-6.0156,-2.1705,-9.4282
300.7812,3.9431,-10.6182,-5.7897,-8.1465,-7.4223,0.3415,-5.2823,-5.1048,-2.1520,2.4375,-8.2081,-8.0718,-10.5625,-9.2762,-4.8962,-5.3024,-6.9368,-4.5635,-11.6765
304.6875,2.9862,-9.1359,-4.6795,-6.5999,-7.4247,3.9392,-2.9088,-3.4264,-1.4632,4.8428,-9.3732,-9.7410,-10.8496,-11.0262,-5.9036,-6.0643,-7.5699,-6.2902,-11.6053
308.5938,-3.0321,-6.2838,-1.7615,-2.6491,-5.7731,5.9382,0.1973,-0.5192,-0.5247,2.5125,-9.2842,-9.0650,-9.3699,-10.9554,-7.0041,-5.4906,-7.4328,-6.3703,-8.7928
312.5000,-9.6838,-3.5956,2.4451,2.6928,-2.6270,5.5411,3.2161,2.9061,1.2881,-2.7081,-7.3480,-5.8927,-6.0115,-8.8874,-7.0056,-3.6054,-6.0262,-4.3341,-3.7767
316.4062,-12.2324,-2.5764,6.7496,7.7798,1.1551,3.1981,5.3118,5.8573,4.0727,-7.6484,-4.0107,-1.1363,-1.4657,-5.4234,-5.1342,-0.9841,-3.3603,-0.6137,1.9433
320.3125,-8.6926,-3.7142,9.6775,10.8932,4.2379,0.3061,5.9199,7.3908,7.0161,-9.5746,-0.6532,3.4785,2.8300,-1.8395,-1.6318,1.4456,-0.2310,3.4896,6.4068
324.2188,-1.2297,-6.0809,10.1301,10.9352,5.3721,-1.6224,4.9666,6.9921,8.7288,-7.6663,1.1100,6.1218,5.2229,0.4309,2.2141,2.8026,2.0370,6.3242,8.0160
328.1250,5.0968,-7.8766,7.9599,7.9322,4.0282,-1.8135,2.9036,4.8217,8.1072,-3.3626,0.3354,5.7078,4.6386,0.4979,4.6889,2.6604,2.2951,6.6723,6.2802
332.0312,5.5295,-7.6047,4.1050,3.0755,0.7383,-0.5975,0.5180,1.6843,5.1321,0.5998,-2.6836,2.4407,1.2060,-1.4934,4.5958,1.2501,0.2994,4.3896,2.0759
335.9375,-1.2744,-5.0872,0.1616,-1.7586,-3.0921,0.9103,-1.4018,-1.2874,1.0236,1.8534,-6.5466,-2.2548,-3.6818,-4.4021,1.9734,-0.6580,-3.0354,0.5306,-2.7471
339.8438,-12.2364,-1.6133,-2.3885,-4.8092,-5.8492,1.5850,-2.3840,-3.1000,-2.3860,-0.2392,-9.5039,-6.4069,-7.9798,-6.6820,-1.8705,-2.1461,-6.0765,-3.1458,-6.2379
343.7500,-21.6335,0.8877,-2.8692,-5.1806,-6.5093,1.0228,-2.4185,-3.3047,-3.6670,-4.3292,-10.3899,-8.4268,-9.9861,-7.2070,-5.0703,-2.6120,-7.3753,-5.0428,-7.2495
347.6562,-24.5289,1.0782,-1.6380,-3.1856,-5.1303,-0.2234,-1.8701,-2.1524,-2.5434,-8.0246,-9.1703,-7.7996,-9.1777,-5.8535,-6.2582,-2.0554,-6.4802,-4.4975,-5.9082
351.5625,-19.6690,-0.9838,0.2482,-0.1208,-2.7558,-1.0295,-1.2255,-0.4334,0.0791,-9.3907,-6.7937,-5.1800,-6.4064,-3.4992,-5.3248,-1.0289,-4.1467,-2.0348,-3.4121
355.4688,-10.0454,-3.9762,1.6965,2.4060,-0.7916,-0.4416,-0.8277,0.9155,2.7724,-8.0483,-4.4850,-1.8852,-3.3376,-1.4514,-3.4046,-0.2822,-1.8127,1.0186,-1.2932
359.3750,-0.8789,-6.2233,2.1601,3.2551,-0.2208,1.6971,-0.7383,1.2467,4.4536,-5.2253,-2.9719,0.8734,-1.4670,-0.6650,-2.0870,-0.3037,-0.6835,3.3085,-0.5671
363.2812,3.5590,-6.7242,1.8111,2.2544,-1.1094,4.6109,-0.7817,0.4745,4.8876,-2.8169,-2.1586,2.5494,-1.3042,-1.2267,-2.3571,-1.0307,-1.0138,4.1443,-1.2421
367.1875,2.2149,-5.6253,1.2570,0.1830,-2.6669,7.0034,-0.7182,-0.9332,4.5512,-2.1487,-1.4381,3.3090,-2.2055,-2.3989,-3.9605,-1.9009,-2.0379,3.7112,-2.4412
371.0938,-2.7191,-3.9097,1.0398,-1.7173,-3.7899,7.7471,-0.4233,-2.2232,4.0485,-3.2708,-0.3818,3.6127,-2.9294,-3.1540,-5.6235,-2.2192,-2.5626,2.7331,-3.0259
375.0000,-7.7852,-2.6171,1.2692,-2.4180,-3.7315,6.4433,0.0335,-2.7385,3.5641,-5.1879,0.7300,3.6872,-2.5348,-2.8342,-5.9852,-1.6138,-1.8130,1.8685,-2.3280
378.9062,-10.7078,-2.1693,1.6214,-1.5966,-2.4966,3.5659,0.4469,-2.2195,2.7701,-6.7541,0.9659,3.2922,-1.0355,-1.5246,-4.6082,-0.2992,0.0266,1.2781,-0.5498
382.8125,-11.6067,-2.2156,1.6656,0.2924,-0.7574,0.1723,0.6204,-0.8851,1.2358,-7.5220,-0.5934,1.9607,0.6046,0.0613,-2.3559,1.0280,1.9149,0.6481,1.3886
386.7188,-12.2755,-2.0119,1.2527,2.3560,0.6069,-2.6067,0.4974,0.7203,-1.0064,-7.9214,-4.0257,-0.4692,1.1204,1.0614,-0.8452,1.6032,2.6149,-0.3896,2.4349
390.6250,-14.2490,-1.0155,0.6697,3.7649,1.0283,-4.0173,0.1961,2.0032,-3.2132,-8.6911,-8.1765,-3.4437,-0.1885,0.9782,-1.3174,1.0670,1.4827,-1.7960,2.0437
394.5312,-17.2028,0.6954,0.4341,4.1127,0.5104,-3.8952,-0.0726,2.5609,-4.2531,-10.0588,-11.0595,-5.7577,-2.9321,-0.0860,-3.6962,-0.2944,-1.1001,-3.0046,0.4799
398.4375,-18.9124,2.3894,0.8719,3.4596,-0.4885,-2.6217,-0.1506,2.2742,-3.3274,-11.3525,-10.8876,-6.1312,-5.7773,-1.5771,-6.4986,-1.6958,-3.8957,-3.2655,-1.3782
402.3438,-16.8131,3.0087,1.7901,2.1127,-1.4199,-0.9091,-0.0444,1.2491,-0.6015,-11.3827,-7.1344,-3.9706,-7.1742,-2.8707,-7.7038,-2.2966,-5.4574,-2.2179,-2.5866
406.2500,-10.0281,1.6675,2.5043,0.3609,-1.9908,0.4800,0.0724,-0.3018,2.7252,-9.3298,-0.9654,0.1679,-6.2215,-3.6252,-6.0316,-1.6773,-4.8739,-0.2617,-2.6768
410.1562,-0.3838,-1.8971,2.2457,-1.6278,-2.2764,1.0059,-0.0263,-2.1316,5.0249,-5.4633,5.2508,4.7323,-3.1652,-3.8992,-1.7972,-0.0684,-2.2150,1.5796,-1.8700
414.0625,8.3566,-7.0984,0.6967,-3.7040,-2.5649,0.5552,-0.4572,-3.9531,5.1793,-1.1279,9.0818,7.8894,0.7320,-4.0086,3.2161,1.7866,1.5215,2.2521,-0.8684
417.9688,12.5787,-12.6055,-1.7068,-5.5712,-3.0814,-0.5035,-1.1270,-5.4076,3.2601,2.0332,9.1670,8.3981,3.8376,-4.2583,6.7818,3.0370,4.8857,1.3360,-0.3946
421.8750,10.8614,-16.7875,-3.9341,-6.7566,-3.7970,-1.4739,-1.7659,-6.1048,0.5058,3.0755,5.7321,6.1542,4.9282,-4.7367,7.4882,3.1534,6.6116,-0.6737,-0.7846
425.7812,4.6714,-18.3552,-4.9112,-6.8061,-4.4468,-1.6781,-2.0846,-5.7705,-1.4075,2.2648,0.2784,2.1399,3.6889,-5.2878,5.4510,2.1516,6.1173,-2.6652,-1.8625
429.6875,-2.6769,-16.9168,-4.1293,-5.5936,-4.7260,-0.8420,-1.9539,-4.4342,-1.3469,0.7577,-5.2622,-2.1319,0.7273,-5.6504,2.0913,0.5236,3.6743,-3.5877,-3.1238
433.5938,-8.0466,-13.1371,-1.9263,-3.5072,-4.5134,0.7069,-1.4862,-2.5157,0.6562,-0.2830,-9.3561,-5.3159,-2.8186,-5.6559,-0.7946,-1.0433,0.2190,-3.0527,-4.0579
437.5000,-10.1550,-8.3713,0.7356,-1.3356,-3.9652,2.1874,-0.9545,-0.7025,3.5134,-0.4710,-11.2630,-6.6995,-5.8130,-5.3553,-2.0383,-1.9847,-3.0764,-1.4755,-4.3904
441.4062,-9.9030,-3.9569,2.8460,0.1224,-3.4171,2.8114,-0.5978,0.3602,5.8047,-0.3201,-10.9444,-6.2683,-7.5176,-5.0016,-1.5772,-2.0628,-5.2709,0.2956,-4.1221
445.3125,-9.3095,-0.5941,3.9002,0.4931,-3.1611,2.2681,-0.4454,0.4049,6.6189,-0.6711,-8.7544,-4.4724,-7.7136,-4.8944,-0.2234,-1.3947,-5.9659,1.5613,-3.3987
449.2188,-9.9040,1.7891,4.0838,0.0258,-3.2433,0.9325,-0.2869,-0.3051,5.9691,-1.9079,-5.2333,-1.9273,-6.5884,-5.1731,0.9971,-0.3395,-5.3429,2.1483,-2.3519
453.1250,-11.6860,3.6243,4.0020,-0.5822,-3.4114,-0.3508,0.1788,-1.1181,4.5680,-3.5824,-1.1134,0.7639,-4.5378,-5.6735,1.4490,0.6759,-3.9498,2.3534,-1.0389
457.0312,-13.2662,5.0901,4.1733,-0.6268,-3.2539,-0.7718,1.1098,-1.3659,3.1967,-4.7195,2.6212,3.0496,-2.0209,-5.9469,1.0970,1.3179,-2.3730,2.5587,0.4919
460.9375,-12.9659,5.8114,4.6513,0.1752,-2.4565,-0.0178,2.3604,-0.7491,2.1636,-4.5414,4.8633,4.4327,0.4798,-5.4649,0.3116,1.4454,-0.9873,2.8524,2.0826
464.8438,-10.0620,5.1454,5.0226,1.5297,-1.0339,1.5982,3.5057,0.4922,1.2347,-3.0460,4.7790,4.5451,2.4455,-3.9330,-0.4783,1.1299,0.0935,2.9524,3.4075
468.7500,-5.3700,2.8450,4.7534,2.7575,0.5981,3.3862,4.0462,1.7185,0.0403,-1.0216,2.2791,3.2940,3.3519,-1.5512,-1.0186,0.5969,0.8769,2.4699,4.0407
472.6562,-0.8747,-0.4549,3.6127,3.1900,1.7670,4.6906,3.6647,2.2494,-1.4085,0.4675,-1.7757,0.9798,2.8039,0.9472,-1.2439,0.1195,1.3071,1.2862,3.6303
476.5625,1.2716,-3.4021,1.8701,2.5242,1.8481,5.1715,2.3849,1.7239,-2.5328,0.7019,-5.8552,-1.7313,0.7380,2.5538,-1.1656,-0.0910,1.2022,-0.2602,2.0912
480.4688,-0.2364,-4.7206,0.1412,0.9520,0.5846,4.8146,0.5471,0.2687,-2.5102,-0.4061,-8.4401,-4.0101,-2.4254,2.4511,-0.7889,0.0515,0.3760,-1.5266,-0.2881
484.3750,-5.3192,-4.0883,-0.9888,-0.9615,-1.7424,3.7702,-1.3609,-1.5936,-0.8886,-2.4802,-8.7334,-5.1635,-5.8181,0.4534,-0.1370,0.5089,-1.1478,-1.9452,-2.8944
488.2812,-12.5785,-2.4193,-1.2946,-2.5386,-4.3915,2.2326,-2.9023,-3.2045,1.9698,-5.0409,-6.9977,-4.8932,-8.3975,-2.8305,0.6644,1.1577,-3.0127,-1.3617,-4.9939
492.1875,-19.7954,-1.2747,-0.9785,-3.2432,-6.4645,0.4755,-3.8137,-4.0422,4.9684,-7.6987,-4.3353,-3.4028,-9.3674,-6.2333,1.3467,1.8240,-4.6263,-0.1093,-6.0170
496.0938,-24.6137,-1.7762,-0.4667,-2.8422,-7.2903,-1.0557,-4.0183,-3.8812,6.8607,-10.0460,-2.0686,-1.3189,-8.5361,-8.5591,1.5691,2.2904,-5.4414,1.2032,-5.7967
500.0000,-25.2438,-3.7993,-0.1054,-1.4624,-6.7027,-1.7987,-3.5762,-2.8153,6.9547,-11.4577,-1.0925,0.5330,-6.4022,-9.1287,1.0767,2.3090,-5.2362,2.0256,-4.6378
503.9062,-21.0774,-6.0484,0.0240,0.4370,-5.0778,-1.3625,-2.6351,-1.1895,5.4611,-11.1384,-1.5498,1.4221,-3.8957,-8.0451,-0.1377,1.6697,-4.1998,2.1017,-3.1628
507.8125,-13.0571,-6.9703,0.0685,2.1733,-3.1274,0.1196,-1.4094,0.4985,3.2593,-8.5398,-2.9446,0.9826,-1.9082,-6.0554,-1.7542,0.3390,-2.7716,1.4975,-1.9969
511.7188,-3.5716,-5.8448,0.2090,3.0351,-1.5742,1.8959,-0.1669,1.7091,1.2696,-3.8966,-4.5502,-0.6315,-0.8855,-4.1169,-3.1799,-1.4076,-1.3677,0.4656,-1.4618
515.6250,4.2618,-3.2604,0.4713,2.5400,-0.8792,2.9541,0.8119,1.9944,-0.1118,1.5723,-5.8280,-2.7826,-0.7233,-2.9361,-3.7389,-2.9846,-0.2080,-0.7174,-1.4596
519.5312,7.7764,-0.6545,0.6774,0.6633,-1.1408,2.6705,1.3042,1.1523,-1.1187,6.0703,-6.6282,-4.5951,-1.0065,-2.7268,-2.9558,-3.7097,0.6458,-1.8342,-1.6247
523.4375,5.9045,0.7007,0.5564,-2.0867,-2.1644,1.2964,1.2097,-0.6557,-2.2115,8.0691,-7.1065,-5.3296,-1.3970,-3.2655,-0.8318,-3.1621,1.1205,-2.7197,-1.6453
527.3438,-0.3117,0.4894,-0.0741,-4.8252,-3.6098,-0.1410,0.5670,-2.9028,-3.4969,7.0699,-7.4648,-4.7148,-1.8707,-4.1336,2.0307,-1.4787,1.0354,-3.2291,-1.5265
531.2500,-8.1805,-0.6484,-1.1764,-6.6392,-5.1079,-0.5382,-0.4836,-4.8619,-4.4397,3.7829,-7.7074,-3.0561,-2.6292,-4.9565,4.5829,0.6372,0.2200,-3.2454,-1.5933
535.1562,-14.5886,-1.8413,-2.4845,-6.9697,-6.3102,0.4498,-1.7509,-5.8931,-4.1325,-0.3650,-7.5775,-1.0534,-3.7669,-5.5114,5.7688,2.2570,-1.2224,-2.7377,-2.2122
539.0625,-17.3431,-2.8081,-3.6093,-5.8379,-6.9085,2.0795,-3.0169,-5.7207,-1.9827,-4.0218,-6.7281,0.5702,-4.9917,-5.7078,5.0671,2.7383,-2.7552,-1.8210,-3.4293
542.9688,-15.9232,-4.0888,-4.2000,-3.8034,-6.6928,3.0128,-4.0298,-4.5511,1.6546,-6.4566,-5.0363,1.4016,-5.6742,-5.5345,2.8238,2.0821,-3.5720,-0.7639,-4.8127
546.8750,-11.3443,-6.4855,-4.0839,-1.6886,-5.6545,2.3343,-4.5158,-2.9601,5.3837,-7.5736,-2.8583,1.4396,-5.2526,-5.0467,0.1225,0.8861,-3.0681,0.0836,-5.6576
550.7812,-5.3968,-10.1428,-3.3308,-0.2149,-4.0656,0.3508,-4.2547,-1.6046,7.3807,-7.5496,-1.0098,0.9436,-3.7167,-4.3831,-1.7978,-0.0789,-1.3207,0.4222,-5.4421
554.6875,0.1556,-13.9962,-2.2132,0.2755,-2.4367,-1.4741,-3.2111,-0.9148,6.4232,-6.5185,-0.3879,0.1897,-1.7768,-3.7444,-2.2487,-0.3727,0.8048,0.1459,-4.2117
558.5938,3.9660,-16.0674,-1.0726,-0.0931,-1.3195,-1.4842,-1.6303,-0.9274,2.7348,-4.5985,-1.3831,-0.6517,-0.5151,-3.2946,-1.4653,-0.1111,2.0853,-0.5627,-2.5882
562.5000,5.0767,-14.4841,-0.1448,-0.8412,-1.0386,0.9575,0.0017,-1.3297,-1.9020,-2.1721,-3.4425,-1.4394,-0.6975,-3.0394,-0.3731,0.2394,1.6856,-1.2442,-1.3616
566.4062,2.8360,-8.6057,0.5646,-1.3708,-1.5163,4.8951,1.1652,-1.6686,-4.9247,-0.0380,-5.1565,-1.9080,-2.2125,-2.7945,0.1088,0.3167,-0.2752,-1.3177,-0.9418
570.3125,-2.8929,0.4224,1.2692,-1.2289,-2.3153,8.3075,1.5795,-1.5943,-4.3078,0.8630,-4.9769,-1.6597,-4.0669,-2.3129,-0.2581,0.1926,-2.7543,-0.3595,-1.0759
574.2188,-11.2615,9.9914,2.2314,-0.3026,-2.8909,9.4077,1.3661,-1.0119,0.2809,0.0536,-2.2429,-0.4098,-5.0023,-1.5100,-0.8755,0.3010,-4.4359,1.6044,-1.0627
578.1250,-20.1439,17.0224,3.5167,1.1256,-2.9008,7.8113,0.9679,-0.0888,7.1390,-2.0112,2.1254,1.6555,-4.3447,-0.6154,-0.7962,1.0183,-4.5779,3.9621,-0.3291
582.0312,-26.5200,19.1211,4.8297,2.4934,-2.3747,4.7497,0.8492,0.8567,13.2479,-4.0699,5.8379,3.7224,-2.5043,-0.1020,0.4994,2.2444,-3.4734,5.6821,1.0525
585.9375,-27.6211,15.4130,5.5694,3.2131,-1.6439,2.1889,1.1610,1.5039,15.7218,-4.8127,6.4073,4.6278,-0.7567,-0.3948,2.6257,3.3549,-2.1994,5.7756,2.3059
589.8438,-22.3289,6.8166,5.1164,2.9610,-1.0970,1.4963,1.6058,1.6469,13.2467,-3.7851,2.6849,3.5017,-0.4294,-1.5441,4.4895,3.6075,-1.8308,3.8448,2.4262
593.7500,-11.9919,-4.2484,3.2057,1.8504,-0.9378,2.6008,1.6142,1.2457,6.7496,-1.7656,-4.2053,0.3806,-2.0353,-3.1067,5.0295,2.7117,-2.6790,0.3928,0.8699
597.6562,-0.0581,-14.5993,0.1615,0.3793,-1.1083,4.2056,0.7387,0.4170,-1.0621,-0.2804,-11.2378,-3.6564,-4.9359,-4.3527,3.9494,1.1108,-4.0937,-3.3455,-2.0230
601.5625,9.3911,-21.2940,-3.1647,-0.8388,-1.3960,4.8295,-0.9851,-0.6126,-7.0411,-0.5515,-15.0743,-6.9963,-7.7466,-4.6842,1.8992,-0.2739,-4.9551,-6.0118,-5.1704
605.4688,13.4424,-22.6371,-5.7337,-1.4075,-1.6114,3.8771,-2.9573,-1.5686,-9.1008,-2.6223,-13.9621,-8.3639,-9.1834,-3.9841,-0.0144,-0.6716,-4.4830,-6.8349,-7.3455
609.3750,11.5133,-18.8202,-6.7498,-1.3337,-1.6807,1.9766,-4.2791,-2.1957,-7.0810,-5.3014,-8.7468,-7.4923,-8.7635,-2.6482,-0.9899,0.0083,-2.7702,-5.9989,-7.8083
613.2812,5.3078,-11.8428,-5.9475,-0.9357,-1.5942,0.4136,-4.2155,-2.3158,-2.5593,-6.9730,-2.3185,-5.1444,-6.9114,-1.2763,-0.9722,1.1571,-0.6660,-4.4185,-6.5605
617.1875,-2.2704,-4.6140,-3.6041,-0.5340,-1.2877,0.1646,-2.5795,-1.8661,2.2099,-6.6814,2.1915,-2.4880,-4.4730,-0.2427,-0.4581,1.9832,0.8816,-3.0560,-4.1171
621.0938,-8.5133,0.4274,-0.3222,-0.1457,-0.5975,1.2772,0.1814,-0.9045,5.5742,-4.6970,3.3163,-0.2869,-2.0560,0.5379,0.1240,2.1644,1.5236,-2.2385,-1.0497
625.0000,-11.8338,2.4769,3.2540,0.5785,0.6305,3.0093,3.2256,0.4148,7.2485,-2.1690,2.0365,1.5016,0.2947,1.4789,0.8997,2.1147,1.7349,-1.4479,2.3094
628.9062,-11.8841,2.6339,6.6257,2.0979,2.3456,4.5187,5.7248,1.8818,8.1898,-0.1670,0.9590,3.4470,2.8766,2.9199,2.4595,2.6382,2.4158,0.2561,5.7984
632.8125,-9.1114,3.0624,9.4720,4.5631,4.1738,5.4942,7.1971,3.2680,9.7495,1.1253,2.4713,5.9269,5.7831,4.7539,5.2437,4.2219,4.1706,3.4577,9.1195
636.7188,-4.2830,5.5036,11.5826,7.5308,5.5072,6.2280,7.6030,4.3503,12.6755,2.4318,7.1008,8.5506,8.5030,6.3626,8.9136,6.5195,6.7866,7.7877,11.6325
640.6250,1.6496,10.0336,12.7869,10.0436,5.7848,7.1335,7.2033,4.9303,16.5681,4.6032,13.1281,10.2056,10.0154,6.9220,12.2685,8.4535,9.2710,11.9280,12.5037
644.5312,7.4124,14.8456,12.9374,11.0708,4.7963,8.1818,6.3160,4.8639,20.0632,7.6573,17.6327,9.7397,9.3581,5.8830,13.8627,8.8989,10.4083,14.2454,11.1623
648.4375,11.3908,17.2133,11.9462,10.0624,2.8129,8.7861,5.1436,4.1104,21.5675,10.4278,18.2244,6.8083,6.2922,3.3154,12.9171,7.4667,9.4597,13.6652,7.7491
652.3438,12.0750,15.0591,9.8437,7.2798,0.4589,8.2701,3.7632,2.7830,20.0807,11.1759,14.3448,2.2799,1.6116,-0.0901,9.8681,4.8136,6.5735,10.2557,3.2138
656.2500,8.8979,8.1884,6.8340,3.7019,-1.5843,6.5439,2.2487,1.1639,15.6544,8.7937,7.4097,-2.1105,-3.1211,-3.3386,6.1392,2.2428,2.7014,5.1941,-1.0440
660.1562,2.9437,-1.5229,3.3349,0.5590,-2.8535,4.3974,0.7994,-0.3493,9.3074,3.7498,-0.1305,-4.6556,-6.2658,-5.5572,3.2793,0.8733,-0.8669,0.1759,-3.7851
664.0625,-3.1224,-11.0473,-0.0324,-1.2370,-3.2096,3.0894,-0.2493,-1.3697,2.5288,-1.9515,-6.1012,-4.5577,-6.8393,-6.2947,2.0536,0.9542,-3.0583,-3.3623,-4.4375
667.9688,-6.1768,-17.6594,-2.5575,-1.4639,-2.7698,3.4546,-0.5753,-1.6756,-3.3256,-5.8712,-9.4916,-2.2836,-4.9195,-5.5897,2.0774,1.7810,-3.3985,-4.7944,-3.2456
671.8750,-4.3952,-20.1047,-3.6830,-0.5958,-1.7782,5.1612,-0.1013,-1.3195,-7.4612,-6.6406,-10.5586,0.7598,-1.5643,-3.8555,2.1769,2.2319,-2.1203,-4.4117,-1.0555
675.7812,1.3326,-18.9278,-3.3003,0.5083,-0.5329,6.6988,0.8472,-0.6213,-9.7671,-4.8947,-10.3285,2.9604,1.6611,-1.7079,1.1656,1.5200,-0.0339,-3.1377,1.0766
679.6875,7.3361,-15.9195,-1.9181,1.0435,0.6129,6.1969,1.6015,-0.0291,-10.6610,-2.9899,-9.9513,3.2062,3.3104,0.1834,-1.4843,-0.3457,1.7614,-2.0581,2.2462
683.5938,8.7987,-13.1006,-0.5170,0.6143,1.2635,2.5960,1.4515,0.1009,-10.7717,-3.6127,-10.2553,1.2416,2.5946,1.2226,-5.4309,-2.6492,2.2592,-1.9775,1.9378
687.5000,2.4378,-11.8021,-0.0670,-0.6230,1.0944,-3.5666,0.0585,-0.3033,-10.5998,-8.0927,-11.5619,-2.3672,-0.3378,1.0282,-9.7043,-4.4653,0.9443,-3.1249,0.1518
691.4062,-11.2101,-12.2357,-0.9327,-2.0546,0.0490,-10.2743,-2.2606,-0.9743,-10.2897,-15.4439,-13.6479,-6.5070,-4.4577,-0.4236,-13.1474,-5.1907,-1.9321,-5.0646,-2.5645
695.3125,-27.3586,-13.6464,-2.5538,-2.8845,-1.5244,-15.0043,-4.5869,-1.4337,-9.6135,-22.7472,-15.7841,-9.8692,-8.2421,-2.7351,-14.8106,-4.7834,-5.3699,-6.8429,-5.2330
699.2188,-38.9610,-14.8713,-3.6887,-2.4904,-2.9508,-15.9987,-5.8256,-1.2531,-8.1971,-26.7029,-16.9173,-11.3108,-10.2743,-5.1888,-14.2264,-3.6459,-8.0097,-7.3689,-6.7675
703.1250,-40.3106,-14.9991,-3.1683,-0.7315,-3.5470,-13.1153,-5.3020,-0.3131,-5.8941,-25.4918,-16.0786,-10.2098,-9.8309,-7.0139,-11.5950,-2.3248,-8.7644,-5.9370,-6.4507
707.0312,-30.3596,-13.8292,-0.7263,1.9249,-3.0128,-7.8192,-3.1857,1.0874,-3.0961,-19.8856,-12.9259,-6.7474,-7.1810,-7.6950,-7.8618,-1.2522,-7.3685,-2.6699,-4.3382
710.9375,-13.7998,-11.9324,2.6620,4.5510,-1.6353,-2.3830,-0.4569,2.3523,-0.7406,-12.9505,-8.1179,-1.9576,-3.4243,-7.1498,-4.5484,-0.6395,-4.5067,1.3828,-1.3070
714.8438,0.9447,-10.2874,5.2344,6.1574,-0.1375,1.2182,1.6087,2.8936,0.0756,-8.4768,-3.2013,2.5851,0.0741,-5.6776,-3.2275,-0.4916,-1.4174,4.6323,1.3705
718.7500,5.9316,-9.6703,5.4833,6.1781,0.7588,2.1257,2.1569,2.4630,-1.2748,-8.9757,0.0453,5.3890,2.3510,-3.7289,-4.7685,-0.6589,0.8020,5.6944,2.7284
722.6562,-2.1098,-10.1331,3.1432,4.7861,0.7808,0.7652,1.2421,1.3232,-4.4465,-14.3411,0.4835,5.6913,3.2305,-1.6659,-8.7598,-0.9001,1.7492,4.1102,2.6545
726.5625,-19.9555,-10.9028,-0.5337,2.8378,0.2600,-1.6138,-0.2309,0.1450,-8.1038,-21.9063,-1.8176,3.7600,3.2140,0.3278,-13.5546,-0.9842,1.7861,0.6224,1.9001
730.4688,-39.5036,-10.8219,-3.4434,1.4342,-0.1169,-3.6948,-1.0845,-0.3330,-10.4964,-27.8603,-5.6764,0.6569,2.9802,2.1541,-17.0570,-0.8316,1.6162,-3.1810,1.5193
734.3750,-51.9632,-9.1169,-3.8507,1.3205,0.2026,-4.7198,-0.6091,0.2885,-10.3601,-29.2355,-9.4794,-2.3896,2.8599,3.6368,-17.8499,-0.6110,1.7054,-5.6725,2.1066
738.2812,-52.2881,-6.0246,-1.4092,2.4638,1.2341,-4.7018,1.0031,1.8171,-7.6289,-25.3847,-11.9937,-4.5966,2.6510,4.4476,-15.9554,-0.6751,1.9725,-5.9819,3.3657
742.1875,-41.4378,-2.8310,2.6565,4.0614,2.4067,-4.1990,2.8009,3.5164,-3.5126,-18.1781,-12.8071,-5.8387,1.8786,4.2045,-12.7006,-1.3069,1.9474,-4.3426,4.3170
746.0938,-25.3672,-1.2142,6.2955,4.9861,2.8943,-3.8544,3.6870,4.4453,0.1487,-10.8892,-12.2056,-6.3807,0.2704,2.6854,-9.7657,-2.4240,1.2317,-1.8317,3.9975
750.0000,-11.5388,-2.2412,7.8106,4.4141,2.1087,-3.9840,3.0956,3.9230,1.8970,-6.4540,-10.7085,-6.4072,-1.9328,0.0099,-8.0760,-3.4824,-0.1272,0.2874,2.1505
753.9062,-5.0670,-5.6377,6.7387,2.2810,0.0477,-4.4245,1.3032,1.8878,1.4444,-6.0758,-8.6828,-5.7638,-4.0733,-3.3329,-7.3263,-3.7330,-1.6443,1.2069,-0.5814
757.8125,-6.5908,-9.8168,3.9451,-0.6799,-2.6911,-4.6764,-0.7906,-1.0301,-0.2264,-8.8659,-6.3093,-4.1356,-5.4971,-6.6224,-6.4574,-2.7229,-2.7631,0.8622,-3.0783
761.7188,-12.7594,-12.6904,0.9760,-3.3108,-5.2000,-4.2213,-2.2254,-3.7604,-1.5062,-12.5686,-3.8271,-1.5154,-5.9672,-9.1242,-4.6911,-0.7099,-3.2646,-0.2163,-4.4520
765.6250,-18.6538,-12.7771,-0.8393,-4.5854,-6.6595,-2.8200,-2.4937,-5.2476,-1.1567,-14.8355,-1.7413,1.4469,-5.7556,-10.2812,-2.3021,1.3459,-3.3823,-1.3060,-4.5256
769.5312,-20.5290,-9.9319,-0.9780,-4.0513,-6.6346,-0.6420,-1.6975,-4.8971,0.9303,-14.3147,-0.7273,3.5674,-5.3605,-9.8293,-0.5146,2.2844,-3.5387,-1.8768,-3.7729
773.4375,-17.3993,-5.2722,0.2641,-1.9606,-5.1686,1.8160,-0.3144,-2.8143,3.6574,-11.0619,-1.2519,3.7339,-5.0915,-7.8522,-0.5850,1.4554,-3.9356,-1.7695,-2.8244
777.3438,-10.9237,-0.4046,2.1939,0.9187,-2.7051,3.9533,1.1904,0.2626,5.3662,-6.2414,-3.1949,1.6297,-4.8564,-4.7957,-2.7678,-0.8309,-4.3490,-1.1477,-1.9591
781.2500,-4.0691,3.4989,4.1944,3.6696,0.0754,5.3132,2.6087,3.2891,4.8290,-1.4413,-5.7815,-1.9202,-4.3040,-1.4179,-5.9610,-3.4340,-4.3062,-0.3233,-0.9747
785.1562,0.4933,6.1719,5.9420,5.5831,2.4429,5.7459,3.9479,5.3468,2.0159,1.9911,-7.9092,-5.2570,-3.1846,1.3783,-8.3211,-5.0298,-3.4991,0.4244,0.4990
789.0625,1.4700,8.0171,7.3168,6.3667,3.8093,5.4327,5.2026,5.9861,-1.8007,3.3509,-8.6629,-6.7134,-1.6191,2.8397,-8.4176,-4.8599,-2.0881,0.9614,2.5295
792.9688,-0.7709,9.4186,8.1914,6.1562,3.9080,4.7719,6.1669,5.3354,-4.6774,2.6762,-7.6992,-5.4861,-0.0578,2.6831,-6.1111,-3.1091,-0.6359,1.3215,4.6474
796.8750,-4.5775,10.1611,8.3291,5.3595,2.8999,4.1756,6.4614,3.9484,-5.0303,0.6241,-5.3032,-2.0573,1.0261,1.2590,-2.5647,-0.6992,0.2864,1.6433,6.0426
800.7812,-7.7807,9.4157,7.4808,4.4149,1.3245,3.8619,5.7583,2.4791,-2.5038,-1.8066,-2.1653,2.0626,1.4481,-0.5850,0.5645,1.3138,0.5100,2.0472,6.0460
804.6875,-8.6021,6.3321,5.5940,3.5702,-0.1345,3.7400,4.0327,1.3589,1.8073,-3.6462,0.9157,5.1043,1.3761,-1.9223,2.1428,2.3208,0.3656,2.5098,4.5445
808.5938,-6.4514,0.8321,2.9564,2.7825,-0.9817,3.4681,1.6519,0.6364,5.9206,-4.3185,3.2270,5.8887,1.1144,-2.2299,2.1031,2.3616,0.3896,2.8169,2.0502
812.5000,-2.2837,-5.9639,0.1577,1.7971,-1.1583,2.6831,-0.7597,0.0544,8.0086,-3.8338,4.2111,4.3137,0.8104,-1.6471,1.2342,1.8956,0.8722,2.6537,-0.5945
816.4062,1.7769,-12.0226,-2.1211,0.3710,-1.0415,1.2980,-2.5879,-0.6980,7.3366,-2.6725,3.5041,1.2691,0.3436,-0.8406,0.4935,1.3770,1.6055,1.8026,-2.6495
820.3125,3.5416,-15.2851,-3.3805,-1.4808,-1.1730,-0.3153,-3.4646,-1.7159,4.5539,-1.3911,1.0252,-1.9183,-0.5130,-0.5549,0.3861,0.9554,2.0286,0.3265,-3.7709
824.2188,2.0938,-14.6599,-3.4998,-3.3765,-1.8796,-1.4096,-3.3576,-2.7604,1.1825,-0.1968,-2.9103,-4.1789,-1.8106,-1.1369,0.7980,0.4742,1.6506,-1.4073,-4.0354
828.1250,-1.4595,-10.5485,-2.7708,-4.6907,-3.0325,-1.2213,-2.5068,-3.3718,-1.3584,1.1867,-7.5589,-5.1607,-3.2800,-2.3418,1.2695,-0.3005,0.4251,-2.9043,-3.7660
832.0312,-4.4460,-4.6079,-1.7507,-4.8655,-4.1149,0.5772,-1.2841,-3.1505,-2.5477,3.2127,-11.8695,-5.2323,-4.4641,-3.5387,1.4007,-1.4258,-1.2051,-3.8093,-3.3212
835.9375,-4.2030,1.0961,-0.9895,-3.7354,-4.5614,3.6091,-0.0587,-2.0352,-2.8518,5.9551,-14.7312,-5.0644,-5.0260,-4.1601,1.0789,-2.6825,-2.6064,-4.0605,-2.9669
839.8438,0.1338,5.0497,-0.7489,-1.6669,-4.1453,6.9069,0.8898,-0.4032,-3.0676,8.7408,-15.2459,-5.0641,-4.9788,-4.0848,0.4473,-3.6671,-3.3582,-3.8072,-2.8376
843.7500,6.8246,6.8347,-0.8581,0.5834,-3.1541,9.3718,1.4115,1.0805,-3.4289,10.3357,-12.9545,-5.0315,-4.6477,-3.6970,-0.2499,-3.9891,-3.4654,-3.1646,-2.9408
847.6562,12.3728,7.0015,-0.8167,2.2124,-2.2324,10.3116,1.4892,1.7883,-3.1973,9.6672,-8.0092,-4.2903,-4.4072,-3.6004,-0.7838,-3.4619,-3.2640,-2.0419,-3.1808
851.5625,13.6242,6.4336,-0.1357,2.7181,-1.9925,9.7297,1.2033,1.4457,-1.1444,6.6306,-1.3010,-2.2479,-4.4244,-4.1955,-0.9831,-2.2138,-3.1427,-0.2476,-3.4229
855.4688,9.8202,5.6528,1.2530,2.0583,-2.6465,8.2022,0.6650,0.2576,3.3323,2.3918,5.5303,0.9585,-4.6268,-5.4115,-0.7753,-0.6938,-3.3192,2.1517,-3.6103
859.3750,3.2411,4.5132,2.7883,0.5641,-3.8901,6.4575,-0.0500,-1.2206,9.2671,-1.1066,10.3656,4.1988,-4.9071,-6.7589,-0.2675,0.4420,-3.8144,4.5067,-3.8727
863.2812,-2.0584,2.4552,3.4703,-1.2981,-5.1023,4.9664,-0.9198,-2.3884,14.1684,-2.1824,11.2545,5.7516,-5.3530,-7.6484,0.2124,0.5658,-4.5727,5.6448,-4.5158
867.1875,-2.6858,-0.8871,2.4145,-3.1477,-5.7248,3.8101,-1.9237,-2.9042,15.2396,-0.3491,7.3028,4.2374,-6.2549,-7.7553,0.2454,-0.6156,-5.5581,4.4288,-5.8318
871.0938,1.9903,-5.1593,-0.5336,-4.7756,-5.5827,2.8583,-2.9579,-2.8246,11.1250,3.4440,-0.6307,-0.4410,-7.8361,-7.1997,-0.3737,-2.8183,-6.7128,0.5402,-7.8192
875.0000,9.3763,-9.2213,-4.5349,-6.0968,-4.9642,2.0477,-3.8057,-2.5207,3.0438,7.3886,-9.9298,-6.7713,-9.9128,-6.4513,-1.3590,-5.1805,-7.8326,-5.0410,-10.0163
878.9062,15.0894,-11.6277,-8.0790,-7.0598,-4.4307,1.4977,-4.2206,-2.4410,-5.5470,9.7963,-17.1270,-12.2192,-11.7971,-6.0442,-1.9646,-6.5897,-8.5241,-10.2802,-11.6298
882.8125,15.3973,-11.3898,-9.7608,-7.6068,-4.4853,1.3653,-4.0924,-2.8639,-10.7090,9.8473,-19.4028,-14.4740,-12.5969,-6.2845,-1.4255,-6.2298,-8.3560,-13.0295,-11.9437
886.7188,9.2282,-8.5726,-9.0538,-7.7052,-5.2919,1.5938,-3.5720,-3.7701,-10.1954,7.7210,-15.9236,-12.6548,-11.7576,-7.1091,0.4348,-4.0545,-7.1411,-12.1602,-10.7684
890.6250,-1.3255,-4.3721,-6.5875,-7.3959,-6.5836,1.8203,-3.0285,-4.8764,-4.7019,4.2012,-8.2606,-7.7629,-9.4717,-8.1463,2.8928,-0.8780,-5.1379,-8.1976,-8.6112
894.5312,-12.1397,-0.6094,-3.7319,-6.7902,-7.7888,1.5793,-2.8217,-5.7833,2.5960,0.1775,0.3810,-2.1110,-6.6434,-8.9161,4.6367,2.0172,-2.9890,-3.0512,-6.4123
898.4375,-19.0761,1.1043,-1.7449,-6.0006,-8.2919,0.6785,-3.0215,-6.1381,7.9334,-3.5856,6.7060,1.9201,-4.4001,-9.0524,4.5892,3.5529,-1.3995,1.0098,-4.9868
902.3438,-19.7957,0.1205,-1.0315,-5.0552,-7.6975,-0.5598,-3.2822,-5.7385,9.0902,-6.3915,8.7942,3.0510,-3.4632,-8.4425,2.6992,3.4044,-0.7611,2.5222,-4.5361
906.2500,-14.5745,-2.9342,-0.9877,-3.8692,-5.9851,-1.4224,-3.0004,-4.5558,6.4674,-7.5458,6.7308,1.5523,-3.7895,-7.2347,0.1012,2.0967,-0.9735,1.4598,-4.5585
910.1562,-5.9297,-6.4210,-0.5143,-2.3123,-3.5083,-1.2533,-1.6945,-2.7133,2.5236,-6.5505,2.1904,-1.1918,-4.6953,-5.7346,-1.5489,0.6071,-1.5719,-0.9758,-4.2227
914.0625,2.5979,-8.4131,1.1557,-0.3424,-0.8586,0.0833,0.6244,-0.4633,0.0493,-3.5119,-2.6288,-3.6165,-5.3401,-4.2533,-1.1543,-0.2441,-2.0464,-3.1863,-2.9520
917.9688,7.9181,-7.5810,3.8623,1.8721,1.3353,2.0654,3.3417,1.8225,0.4389,0.5973,-6.0509,-4.7894,-5.2234,-2.9924,1.0708,-0.2216,-2.1183,-4.0768,-0.8316
921.8750,8.5548,-3.8702,6.5294,3.9144,2.5927,3.8109,5.4842,3.6778,3.0145,4.1888,-7.4441,-4.6731,-4.3842,-2.0220,3.7228,0.3192,-1.8048,-3.5216,1.4132
925.7812,5.1076,1.3397,7.7567,5.2062,2.6949,4.6003,6.1932,4.6241,5.6953,5.8247,-7.1348,-3.8340,-3.2455,-1.3515,5.1400,0.7828,-1.2898,-2.2294,2.8276
929.6875,-0.1436,5.7311,6.6127,5.2028,1.7143,4.2593,5.1538,4.3235,6.4386,5.0537,-5.9670,-2.9322,-2.2874,-1.0276,4.4983,0.7575,-0.7573,-1.2121,2.7484
933.5938,-4.3433,7.0660,3.1662,3.6391,-0.0257,3.1634,2.7449,2.7525,4.4830,2.7204,-4.8248,-2.3640,-1.8014,-1.1660,2.3196,0.2314,-0.3311,-1.2199,1.1287
937.5000,-5.4166,4.3064,-1.5155,0.7285,-2.0341,1.9190,-0.1517,0.2991,0.6765,0.4605,-4.2939,-2.2063,-1.8475,-1.8669,0.0643,-0.4864,-0.1232,-2.4201,-1.4758
941.4062,-3.0441,-1.7237,-5.8549,-2.7920,-3.7653,1.0004,-2.5542,-2.3077,-3.1702,-0.3324,-4.4893,-2.3520,-2.3481,-3.0606,-0.8681,-1.0119,-0.2747,-4.3943,-4.1881
945.3125,1.2579,-8.5705,-8.4569,-5.8478,-4.7613,0.5949,-3.7785,-4.2517,-5.3833,0.6166,-5.0450,-2.6436,-3.1716,-4.4119,-0.0207,-1.0983,-0.8847,-6.3667,-6.1718
949.2188,5.0139,-13.2827,-8.6753,-7.4253,-4.8053,0.6872,-3.6614,-4.9721,-5.2892,2.3413,-5.3052,-2.9127,-4.1349,-5.4030,1.9287,-0.7053,-1.8598,-7.5369,-6.9165
953.1250,6.1303,-13.9192,-6.8288,-7.0355,-4.0325,1.2033,-2.5555,-4.4256,-3.4178,3.3315,-4.7203,-2.9909,-4.9806,-5.5977,3.7134,0.0451,-2.8395,-7.4103,-6.3783
957.0312,3.9144,-10.5993,-4.0115,-5.0002,-2.9205,2.0206,-1.1449,-3.1088,-1.0558,2.5397,-3.2940,-2.7864,-5.4346,-4.9369,4.3033,0.9288,-3.3343,-6.0306,-4.9737
960.9375,-0.8110,-5.4322,-1.5919,-2.3556,-2.1084,2.8397,-0.1661,-1.8015,0.5127,-0.0068,-1.7684,-2.4104,-5.3656,-3.8428,3.4283,1.6526,-3.0396,-4.0086,-3.4314
964.8438,-6.4709,-1.2927,-0.6007,-0.3551,-2.0867,3.1155,-0.1231,-1.1486,0.6681,-3.3680,-1.2971,-2.2173,-4.9305,-3.0047,1.5223,1.9002,-2.1118,-2.2795,-2.5152
968.7500,-11.7604,-0.1353,-1.2625,0.1948,-2.9053,2.2427,-1.0826,-1.3098,-0.2692,-6.4244,-2.6791,-2.6335,-4.5523,-2.9414,-0.7424,1.4454,-1.1667,-1.6405,-2.6862
972.6562,-16.1692,-1.8825,-2.9001,-0.6200,-4.0892,-0.0277,-2.6328,-1.8890,-1.2430,-8.5825,-5.6271,-3.8287,-4.6843,-3.6228,-2.9042,0.3035,-0.9417,-2.2922,-3.8567
976.5625,-19.6852,-4.6056,-4.2991,-1.8953,-4.8598,-3.2305,-4.0608,-2.1999,-1.0485,-9.9392,-8.6554,-5.4635,-5.4948,-4.4406,-4.8281,-1.1946,-1.8206,-3.6702,-5.4042
980.4688,-22.0441,-5.8894,-4.3895,-2.4971,-4.5842,-6.2278,-4.7029,-1.7224,0.9513,-10.8572,-9.8335,-6.7569,-6.7019,-4.6004,-6.4929,-2.5155,-3.5492,-4.7276,-6.4957
984.3750,-22.2956,-4.4882,-2.8838,-1.8166,-3.1970,-7.7375,-4.3050,-0.4734,4.3351,-11.3802,-8.0195,-6.9016,-7.6963,-3.6987,-7.7203,-3.1979,-5.3523,-4.5393,-6.5661
988.2812,-19.2249,-1.1657,-0.4789,-0.1997,-1.3183,-7.0609,-3.1774,0.9481,7.6782,-11.0208,-3.7458,-5.5714,-7.8853,-2.0806,-8.1179,-3.1133,-6.3838,-2.8613,-5.6489
992.1875,-12.4570,1.8436,1.5523,1.2584,0.0526,-4.5139,-2.0132,1.6924,9.2376,-9.1324,0.9423,-3.1536,-7.0211,-0.6882,-7.2987,-2.5151,-6.2019,-0.2669,-4.3168
996.0938,-3.4045,2.3774,2.1701,1.4501,0.1197,-1.2333,-1.4473,1.1821,7.9787,-5.5778,3.6994,-0.5154,-5.2966,-0.4541,-5.1988,-1.8207,-4.9582,2.2387,-3.2497
1000.0000,4.8337,-0.1658,1.2758,0.0489,-1.2000,1.5342,-1.6236,-0.4872,4.3503,-1.1494,3.3687,1.5364,-3.1767,-1.6363,-2.2508,-1.2900,-3.2101,3.8597,-2.7297
1003.9062,8.8563,-4.4040,-0.1693,-2.1780,-3.1705,3.1713,-2.0707,-2.5249,0.2408,2.6474,0.7046,2.6995,-1.1311,-3.5683,0.7162,-0.8602,-1.5415,4.4510,-2.4443
1007.8125,6.9090,-7.8838,-0.7383,-3.7756,-4.6302,3.9403,-2.0010,-3.8363,-2.0123,4.3646,-2.2177,3.1920,0.5148,-5.0382,2.7856,-0.2835,-0.2884,4.4570,-1.7708
1011.7188,0.1417,-8.6789,0.5093,-3.4904,-4.6640,4.5888,-0.8634,-3.6133,-1.0548,3.4422,-3.5106,3.3528,1.5365,-5.0752,3.3045,0.5425,0.4634,4.4235,-0.3486
1015.6250,-7.7735,-6.5861,3.3445,-1.0798,-3.1474,5.6325,1.2170,-1.7916,2.5108,0.5457,-2.8140,3.1900,1.6947,-3.6193,2.1248,1.3436,0.6906,4.4912,1.4972
1019.5312,-12.5985,-3.1487,6.4303,2.4738,-0.8287,6.8687,3.4215,0.8855,6.3360,-2.8141,-1.4768,2.2976,0.7436,-1.6072,-0.3291,1.5752,0.2882,4.2815,2.8392
1023.4375,-11.9389,-0.5620,8.1120,5.4783,1.0970,7.4870,4.6818,3.2281,7.7220,-5.1265,-1.4288,0.2647,-1.3657,-0.3956,-3.1703,0.8354,-0.8604,3.2748,2.7297
1027.3438,-6.6216,-0.2488,7.4340,6.4533,1.6574,6.6843,4.3111,4.1831,5.3864,-5.6559,-3.5703,-2.7283,-4.2304,-0.8915,-5.3149,-0.7213,-2.6492,1.3734,0.8931
1031.2500,-0.1608,-2.0429,4.7260,4.9072,0.6167,4.3209,2.4249,3.3317,0.4451,-4.6923,-6.8864,-5.6420,-6.9471,-2.9596,-5.8571,-2.3222,-4.5815,-0.8168,-1.9685
1035.1562,3.3765,-4.4301,1.3991,1.5485,-1.4447,1.1393,-0.1075,1.0591,-4.1118,-3.1926,-8.9836,-6.9576,-8.4123,-5.4846,-4.4448,-2.9776,-5.8732,-2.2462,-4.4917
1039.0625,1.7853,-5.5725,-0.8824,-2.1132,-3.4814,-1.5943,-2.1284,-1.6492,-5.2044,-2.1118,-7.7099,-5.5383,-7.8499,-7.0248,-1.4807,-2.0995,-5.8197,-2.0595,-5.3874
1042.9688,-4.0623,-4.3904,-1.0937,-4.4781,-4.5142,-2.7609,-2.7683,-3.6465,-1.6034,-1.8784,-2.7245,-1.4101,-5.2321,-6.6120,2.0044,0.1007,-4.1927,-0.1458,-4.1032
1046.8750,-10.8932,-1.0638,0.7396,-4.4733,-4.0302,-1.9240,-1.7951,-4.0707,5.2284,-2.3088,4.0948,4.1051,-1.2932,-4.2013,4.8066,2.7333,-1.3832,2.8088,-0.9928
1050.7812,-15.0851,3.2188,3.7904,-1.8264,-2.0809,0.5632,0.4137,-2.6173,11.9610,-2.9322,9.7074,9.0470,2.8884,-0.5486,6.1197,4.7958,1.8156,5.8004,3.0517
1054.6875,-14.7456,6.9582,7.0608,2.9924,0.8806,3.8450,3.1732,0.4244,15.3746,-3.4259,11.7211,11.8681,6.4534,3.3059,5.9016,5.7801,4.6286,8.1470,7.1695
1058.5938,-10.5289,9.0242,9.9132,8.9866,4.2389,6.9832,5.8244,4.3173,14.2338,-3.8220,9.7636,12.2049,9.0817,6.5492,4.8088,5.8919,6.6299,9.8088,10.8660
1062.5000,-4.7915,9.0081,12.1733,14.8572,7.3763,9.2573,7.9082,8.1079,9.8928,-4.3412,5.5681,10.8930,10.8687,8.7882,3.7484,5.7505,7.7782,11.1640,13.9181
1066.4062,0.2101,7.2178,13.8396,19.2136,9.7212,10.2771,9.1558,10.8640,5.3092,-5.0018,1.8066,9.2686,11.9093,9.9094,3.3451,5.8246,8.1972,12.4514,16.0289
1070.3125,3.7893,4.4470,14.7248,20.8419,10.7721,9.9953,9.4105,11.8808,3.1665,-5.3317,0.4917,8.2605,11.9681,9.8469,3.6692,6.0493,7.9291,13.3499,16.6195
1074.2188,6.9742,1.6464,14.3651,19.0581,10.1940,8.7050,8.6021,10.8478,4.3221,-4.4677,1.9402,7.8757,10.5441,8.5265,4.3606,5.9088,6.8866,13.0635,15.0211
1078.1250,11.2913,-0.4285,12.2901,14.0401,7.9861,6.9942,6.8027,7.9533,7.5056,-1.6658,4.8265,7.3648,7.3187,6.0463,4.9945,4.8998,5.0294,10.8823,10.9807
1082.0312,17.1049,-1.5088,8.4562,6.9373,4.6095,5.5630,4.2928,3.8847,10.3400,3.0608,7.1313,5.8807,2.6471,2.9014,5.3747,3.0042,2.5930,6.8218,5.1048
1085.9375,22.7442,-1.8962,3.5165,-0.3926,0.9370,4.8989,1.5479,-0.3165,10.9363,8.6118,7.3200,3.1502,-2.3127,-0.0163,5.5473,0.8018,0.1424,1.8623,-1.1379
1089.8438,25.1162,-2.2125,-1.2848,-5.9825,-2.0225,4.9810,-0.8735,-3.5429,9.0302,13.0863,5.0884,-0.2693,-6.0045,-1.7523,5.5907,-0.8552,-1.6304,-2.4141,-5.9414
1093.7500,21.4947,-2.8736,-4.5601,-8.4549,-3.5201,5.2576,-2.4838,-4.9785,6.0205,14.6336,1.3890,-3.2542,-7.1987,-1.7879,5.4326,-1.3552,-2.2343,-4.5773,-7.9356
1097.6562,11.3669,-3.6097,-5.3339,-7.5010,-3.3803,4.9979,-2.9824,-4.3920,3.9918,12.4331,-2.1333,-4.6817,-5.5982,-0.3692,4.9001,-0.6561,-1.6016,-4.0323,-6.7603
1101.5625,-2.8518,-3.4450,-3.4304,-3.9259,-2.0521,3.8298,-2.3053,-2.2303,4.3936,7.2196,-3.9383,-3.9538,-1.9593,1.5889,3.9675,0.7767,-0.0642,-1.2416,-3.1334
1105.4688,-16.7271,-1.3188,0.4615,0.7428,-0.3600,2.0737,-0.6305,0.5500,7.1660,0.9827,-3.2696,-1.2406,2.3134,2.9964,2.9432,2.3212,1.8658,2.5816,1.5653
1109.3750,-25.8350,2.9479,5.0385,4.8771,0.9115,0.5773,1.6272,2.8629,10.7568,-4.0498,-0.4832,2.5923,5.8139,3.1796,2.3465,3.5443,3.7230,6.0577,5.8924
1113.2812,-27.7600,8.0084,8.8165,7.3182,1.3699,0.1117,3.8470,3.9225,12.9433,-6.5820,3.0702,6.2664,7.6372,2.1961,2.4832,4.2989,5.1726,8.1457,8.7854
1117.1875,-23.0052,11.2712,10.5869,7.6748,1.1161,0.7493,5.3092,3.5272,11.9674,-6.8831,5.5776,8.4609,7.5164,0.6904,3.0256,4.5665,5.9545,8.3514,9.6971
1121.0938,-14.4707,10.1540,9.7585,6.2817,0.5581,1.7071,5.4067,2.0656,7.3961,-6.5033,5.5314,8.1979,5.6544,-0.5873,2.9827,4.2543,5.8275,6.6655,8.5099
1125.0000,-5.9813,3.6577,6.5030,3.9068,0.0726,1.8235,3.9015,0.2532,0.3186,-7.2573,2.4110,5.1806,2.4866,-1.2630,1.1996,3.1700,4.6412,3.4114,5.4280
1128.9062,-0.7585,-6.7302,1.6716,1.3748,-0.2641,0.3623,1.0892,-1.2503,-7.1672,-10.1131,-3.0641,-0.0133,-1.4303,-1.5077,-2.8724,1.2162,2.5122,-0.8466,0.9698
1132.8125,-0.5377,-17.4783,-3.4844,-0.7249,-0.7033,-2.4390,-2.2535,-2.1349,-12.9005,-14.6718,-9.2740,-6.0079,-5.3966,-1.8149,-8.6508,-1.3662,-0.0604,-5.3256,-3.9914
1136.7188,-5.4846,-24.6625,-7.6962,-2.1511,-1.5975,-5.4955,-5.1573,-2.4960,-15.5801,-19.5253,-14.4710,-11.0340,-8.5696,-2.5777,-14.5497,-3.9457,-2.3100,-9.0851,-8.2969
1140.6250,-14.5849,-25.9180,-10.0408,-2.9443,-3.0771,-7.6100,-6.8550,-2.6501,-15.2341,-23.2093,-17.5578,-13.5636,-10.1338,-3.7761,-18.7505,-5.7418,-3.5511,-11.2250,-10.7891
1144.5312,-26.0936,-21.5823,-10.1737,-3.2664,-4.8571,-8.2960,-7.0853,-2.8567,-13.0384,-25.1082,-18.4391,-12.9152,-9.6321,-4.9855,-20.1738,-6.2330,-3.5637,-11.2002,-10.7555
1148.4375,-37.8653,-14.4159,-8.3843,-3.2610,-6.3278,-8.0949,-6.1559,-3.1389,-10.6160,-25.7439,-17.8062,-9.5430,-7.2691,-5.6815,-19.0606,-5.4658,-2.7436,-9.1046,-8.3102
1152.3438,-47.6743,-8.1457,-5.4875,-3.0125,-6.8918,-8.1609,-4.7560,-3.3141,-9.2258,-26.3262,-16.5934,-4.8587,-3.9591,-5.6119,-16.8168,-4.0534,-1.8857,-5.7496,-4.4701
1156.2500,-53.6785,-5.7091,-2.5965,-2.5993,-6.3413,-9.4204,-3.6372,-3.1917,-9.2971,-27.9233,-15.5297,-0.6697,-1.0196,-4.9749,-15.2358,-2.8598,-1.7150,-2.4444,-0.8206
1160.1562,-54.9797,-8.1219,-0.8120,-2.1629,-5.0184,-11.9108,-3.3206,-2.7734,-10.5365,-30.8153,-15.0497,1.5023,0.3679,-4.2867,-15.5745,-2.5615,-2.4651,-0.5370,1.1219
1164.0625,-52.0020,-14.3902,-0.8696,-1.8984,-3.6346,-14.7577,-3.9360,-2.2927,-12.4457,-34.4080,-15.4772,0.9259,-0.3394,-4.0396,-17.9994,-3.3402,-3.7742,-0.8942,0.5661
1167.9688,-46.3947,-22.2541,-2.8246,-1.9424,-2.8463,-16.7749,-5.2152,-2.0538,-14.8087,-37.6747,-17.1482,-2.1781,-2.8389,-4.3882,-21.6456,-4.8537,-4.9552,-3.5353,-2.1913
1171.8750,-40.4256,-29.2053,-5.9159,-2.2326,-2.8601,-17.2355,-6.6057,-2.1879,-17.7411,-39.7687,-20.2267,-6.8144,-6.1620,-5.0728,-25.1573,-6.4555,-5.4470,-7.5808,-5.8881
1175.7812,-36.1528,-33.3008,-8.7522,-2.4687,-3.3323,-16.2771,-7.4667,-2.5168,-21.2589,-40.4077,-24.3166,-11.6009,-9.1327,-5.6216,-27.3521,-7.5118,-5.1493,-11.5586,-8.8639
1179.6875,-34.7851,-33.5972,-9.8477,-2.2517,-3.6376,-14.7034,-7.3070,-2.6439,-24.7442,-39.8565,-28.2640,-15.2087,-10.8631,-5.6848,-27.6670,-7.6537,-4.4406,-13.9676,-9.8177
1183.5938,-36.4777,-30.2694,-8.3246,-1.3443,-3.3218,-13.3862,-6.0029,-2.2237,-26.8493,-38.6260,-30.4958,-16.7340,-11.0557,-5.2645,-26.2454,-6.8781,-3.8994,-13.8838,-8.3913
1187.5000,-40.5045,-24.4894,-4.4303,0.1199,-2.4238,-12.7224,-3.8999,-1.2232,-26.0953,-37.1522,-29.8322,-15.9170,-9.9964,-4.6839,-23.7348,-5.4991,-3.9286,-11.3456,-5.2866
1191.4062,-45.5706,-18.0546,0.4649,1.6492,-1.4356,-12.5052,-1.7090,0.0184,-21.8764,-35.6529,-26.2668,-13.1602,-8.2872,-4.3146,-20.9649,-4.0015,-4.5135,-7.3300,-1.8549
1195.3125,-50.0993,-12.7611,4.4697,2.6579,-0.9281,-12.2303,-0.2014,0.9857,-15.1684,-34.1772,-21.1144,-9.3364,-6.4844,-4.2573,-18.6575,-2.8557,-5.2351,-3.3074,0.6228
1199.2188,-52.5248,-9.6924,6.0935,2.8213,-1.1149,-11.5539,0.1668,1.3081,-8.3270,-32.7268,-16.3208,-5.4527,-4.8452,-4.2112,-17.2393,-2.3484,-5.5018,-0.5807,1.5654
1203.1250,-51.7044,-8.7872,4.9774,2.2724,-1.6830,-10.5533,-0.5166,0.9810,-3.9380,-31.3206,-13.3408,-2.3114,-3.3171,-3.6518,-16.7708,-2.4866,-4.8612,0.2564,1.2766
1207.0312,-47.4143,-9.0112,2.0040,1.4833,-2.0236,-9.6325,-1.6915,0.3297,-3.3755,-29.9704,-12.3497,-0.3207,-1.7608,-2.2250,-16.9775,-3.0138,-3.2440,-0.5374,0.5898
1210.9375,-40.6441,-9.1203,-1.2784,0.9001,-1.7070,-9.1852,-2.6753,-0.2531,-6.0111,-28.6235,-12.3476,0.4708,-0.2479,-0.1038,-17.3647,-3.5422,-1.0419,-2.1595,0.2195
1214.8438,-33.3511,-8.5607,-3.5517,0.5960,-0.8500,-9.2787,-3.0722,-0.6022,-9.6421,-27.1479,-12.0712,0.1926,0.7900,1.9570,-17.3826,-3.7389,1.0113,-3.8015,0.2537
1218.7500,-27.6178,-7.8712,-4.3848,0.2137,-0.0908,-9.5728,-2.9727,-0.8836,-11.8933,-25.3814,-11.0183,-1.0058,0.7171,2.9574,-16.5939,-3.4674,2.1219,-5.0622,0.1405
1222.6562,-24.6133,-8.2329,-4.2610,-0.7277,-0.1618,-9.5046,-2.8082,-1.4267,-11.6614,-23.2118,-9.8027,-2.9507,-0.8845,2.2208,-14.7983,-2.8078,1.7934,-5.9830,-0.8149
1226.5625,-24.0120,-10.4238,-4.0175,-2.3651,-1.3457,-8.6065,-2.9680,-2.4011,-9.6283,-20.6361,-9.5650,-5.2918,-3.7737,-0.1365,-12.0870,-1.9589,0.1084,-6.7302,-2.7888
1230.4688,-24.2946,-13.9237,-4.1282,-4.2104,-3.1958,-6.7660,-3.4577,-3.5793,-7.5200,-17.7746,-10.8952,-7.3770,-6.9118,-3.1412,-8.8256,-1.1000,-2.2147,-7.2132,-5.0968
1234.3750,-23.7524,-16.8996,-4.3423,-5.3035,-4.7309,-4.3006,-3.8522,-4.3763,-6.6812,-14.8393,-13.1207,-8.3515,-8.8113,-5.3886,-5.5662,-0.3158,-4.0754,-6.9727,-6.4618
1238.2812,-21.4953,-17.2176,-3.9202,-4.7555,-4.9969,-1.8250,-3.5844,-4.1701,-7.0255,-12.0636,-14.5525,-7.5234,-8.2592,-5.7480,-2.8935,0.3763,-4.4777,-5.4715,-5.7662
1242.1875,-17.7601,-13.8755,-2.2747,-2.3576,-3.6427,0.0162,-2.3687,-2.7161,-7.1343,-9.6053,-13.5703,-4.8071,-5.0279,-3.9651,-1.2210,0.9430,-3.0261,-2.5953,-2.8175
1246.0938,-13.3728,-7.8720,0.4526,1.1399,-1.1543,0.8317,-0.4613,-0.3895,-5.4256,-7.4541,-9.7864,-0.9332,-0.1345,-0.8199,-0.6047,1.2866,-0.1603,1.0192,1.3841
1250.0000,-8.9010,-1.8395,3.3026,4.2855,1.3826,0.6584,1.4264,1.9082,-1.5142,-5.4027,-4.4432,2.7877,4.5624,2.2491,-0.6772,1.2869,3.0199,4.1321,5.0826
1253.9062,-4.2720,1.4232,4.9761,5.6012,2.8308,-0.0559,2.5026,3.1485,3.2735,-3.1382,0.2643,5.0775,7.2444,3.8475,-0.7855,0.9040,5.2609,5.5071,6.6622
1257.8125,0.8049,0.6189,4.5796,4.3065,2.5393,-0.6638,2.3176,2.6712,6.6614,-0.4403,2.5034,5.3440,7.0128,3.2805,-0.3044,0.2537,5.7251,4.6281,5.4749
1261.7188,6.0369,-3.2468,2.1696,0.7068,0.5993,-0.6210,0.9802,0.5176,6.9615,2.6247,1.8914,3.9830,4.2790,0.8331,1.0348,-0.4116,4.3253,2.0699,2.1265
1265.6250,10.2163,-7.4486,-1.2289,-3.9346,-2.2553,0.2854,-0.9285,-2.5622,4.3190,5.6739,-0.3255,2.1389,0.4719,-2.4255,3.0180,-0.8084,1.6846,-0.7360,-1.8968
1269.5312,11.8764,-9.1325,-4.1212,-7.9376,-4.9888,1.9188,-2.6451,-5.4208,0.7815,8.2202,-2.0528,1.0743,-2.7223,-5.1663,5.1370,-0.7345,-1.2002,-2.2202,-4.9887
1273.4375,10.5792,-6.9056,-5.2492,-9.8720,-6.6533,3.9873,-3.5290,-6.9834,-0.8748,10.0295,-1.5402,1.5266,-4.1322,-6.3676,6.9916,-0.1135,-3.3672,-1.4590,-6.1146
1277.3438,7.7872,-1.4626,-4.1145,-9.0519,-6.6852,6.2938,-3.2393,-6.6610,1.2110,11.3734,1.7468,3.4135,-3.4832,-5.6748,8.6185,1.0335,-4.1767,1.4222,-5.0976
1281.2500,6.4022,5.0425,-1.0803,-5.6964,-5.0500,8.8354,-1.7656,-4.5389,6.9275,12.9448,6.9979,5.9994,-1.2824,-3.4485,10.4769,2.6236,-3.4177,5.4185,-2.4654
1285.1562,9.0193,10.3647,2.9189,-0.7652,-2.2363,11.6518,0.6182,-1.2871,14.3377,15.4141,12.5879,8.3497,1.5955,-0.5496,13.0500,4.4938,-1.2967,9.2262,0.9289
1289.0625,16.0156,13.3478,6.8312,4.4094,0.8930,14.5340,3.4148,2.1369,20.8288,18.8828,16.8386,9.7662,4.3074,2.0077,16.3243,6.3377,1.6110,11.8556,4.2412
1292.9688,24.9057,14.2225,9.8422,8.5417,3.3733,16.8556,5.9776,4.8462,24.4595,22.6212,18.5962,9.9795,6.2334,3.3993,19.5472,7.6911,4.4535,12.9393,6.7937
1296.8750,31.6012,13.9880,11.4952,10.7341,4.4673,17.7422,7.6391,6.2919,24.6972,25.3385,17.4654,9.0833,6.9845,3.2397,21.5122,8.0543,6.2972,12.6394,8.0988
1300.7812,32.8533,13.4561,11.6155,10.6591,3.9285,16.5548,7.9051,6.3495,22.2592,25.8864,13.7849,7.3586,6.3793,1.6749,21.2516,7.1413,6.4500,11.3224,7.8741
1304.6875,28.2594,12.6844,10.1916,8.5557,2.0674,13.3985,6.6520,5.2315,18.3917,23.9862,8.4961,5.1450,4.4945,-0.7020,18.7046,5.1138,4.7971,9.2769,6.1098
1308.5938,20.4793,11.1588,7.3526,5.0690,-0.4236,9.2849,4.2225,3.3162,14.1918,20.5138,2.9539,2.8078,1.7455,-3.0944,14.8926,2.6168,1.9438,6.6585,3.1453
1312.5000,13.5688,8.4997,3.4724,1.0234,-2.7924,5.7681,1.3452,1.0085,10.3690,17.1384,-1.3638,0.7367,-1.1436,-4.8204,11.4447,0.5341,-0.9947,3.6457,-0.3496
1316.4062,10.6315,5.0913,-0.7071,-2.7723,-4.5113,4.2202,-1.1007,-1.3020,7.4034,15.5088,-3.2630,-0.7063,-3.3614,-5.5698,9.7473,-0.4307,-2.9054,0.6323,-3.5337
1320.3125,12.3643,2.1181,-4.0951,-5.6268,-5.3713,5.1692,-2.3730,-3.2080,5.7559,16.4542,-2.2404,-1.2930,-4.3430,-5.4745,10.2417,-0.0994,-3.2244,-1.7323,-5.6446
1324.2188,17.2753,0.9506,-5.5222,-6.9957,-5.3809,8.0944,-2.0870,-4.2681,5.8395,19.6312,1.3170,-1.0138,-4.0102,-4.9585,12.2936,1.1258,-2.1883,-2.7279,-6.2197
1328.1250,23.0874,2.3057,-4.2047,-6.5201,-4.6070,11.7808,-0.3022,-4.0890,7.7593,23.7625,6.2775,-0.0607,-2.7559,-4.4589,14.6663,2.5329,-0.6305,-1.8852,-5.2000
1332.0312,28.0974,5.7719,-0.1918,-4.1319,-3.1199,14.9795,2.5217,-2.5067,11.0859,27.2752,11.2036,1.2835,-1.1818,-4.1893,16.2505,3.5130,0.5440,0.7344,-2.9030
1335.9375,31.5793,10.0311,5.4791,-0.1968,-1.0873,16.9508,5.6612,0.2393,14.9154,28.9793,14.8583,2.7616,0.2238,-4.0861,16.5814,3.8453,0.8627,4.4625,0.0827
1339.8438,33.3110,13.6143,11.0756,4.4282,1.0989,17.6046,8.3199,3.4784,18.2235,28.4856,16.5382,4.1703,1.2496,-3.9492,15.8849,3.6922,0.4576,8.2066,3.0315
1343.7500,33.0572,15.6676,14.8333,8.5468,2.8392,17.2540,9.8478,6.2987,20.2727,26.2542,16.1411,5.3023,1.8933,-3.6558,14.7423,3.3570,-0.1593,10.8203,5.2295
1347.6562,30.7076,16.2155,15.6802,10.9927,3.5562,16.2533,9.9383,7.8874,20.7979,23.3332,14.0505,5.8994,2.1768,-3.2820,13.6876,3.0224,-0.5083,11.5102,6.1454
1351.5625,26.9237,15.7961,13.6422,11.0659,3.0135,14.8042,8.7277,7.8430,19.8978,20.9165,10.9817,5.7227,2.0386,-3.0490,13.0084,2.6738,-0.4332,10.1135,5.5936
1355.4688,23.4332,14.8044,9.7161,8.8008,1.4853,13.0179,6.7237,6.2855,17.8053,19.8571,7.8509,4.7342,1.4026,-3.1514,12.7855,2.2357,-0.0983,7.1357,3.8128
1359.3750,22.2639,13.0930,5.2966,4.9098,-0.3886,11.0883,4.5672,3.7183,14.7783,20.2805,5.6059,3.2472,0.3379,-3.6154,13.0038,1.7665,0.2337,3.5357,1.3799
1363.2812,24.1824,10.1736,1.5080,0.4395,-1.9912,9.3559,2.7389,0.7544,11.1920,21.4649,4.9432,1.8687,-0.8778,-4.2988,13.5572,1.5061,0.4129,0.3429,-1.0375
1367.1875,27.5560,5.8854,-1.1709,-3.6434,-3.0886,8.1679,1.3856,-2.1005,7.6774,22.1151,5.9649,1.1854,-1.9001,-5.0229,14.1452,1.7017,0.4266,-1.7315,-2.9689
1371.0938,28.8487,0.9952,-2.8129,-6.6956,-3.8848,7.6473,0.3799,-4.4840,5.0659,20.9987,7.9872,1.3597,-2.5769,-5.7080,14.2294,2.3468,0.2602,-2.5207,-4.2942
1375.0000,24.8311,-2.8215,-3.6317,-8.3765,-4.7161,7.5861,-0.4277,-6.0676,4.0594,17.6777,9.7245,1.9261,-3.0964,-6.3850,13.2211,3.0652,-0.2202,-2.3692,-5.1578
1378.9062,15.1360,-3.7599,-3.6131,-8.4849,-5.6197,7.5920,-0.9561,-6.4669,4.8154,12.9215,9.8782,1.9971,-3.8504,-7.0672,10.8734,3.2888,-1.2006,-1.8670,-5.7094
1382.8125,3.2374,-1.0071,-2.4910,-6.8721,-6.1378,7.4077,-0.8533,-5.3237,6.7705,8.4840,7.8565,0.8151,-5.0677,-7.6008,7.6254,2.6429,-2.6885,-1.5001,-5.8749
1386.7188,-5.1501,4.5304,-0.0860,-3.5665,-5.5613,7.1650,0.2653,-2.5638,8.8933,6.2722,4.1896,-1.6777,-6.4931,-7.6540,4.5884,1.2722,-4.3259,-1.4117,-5.3547
1390.6250,-5.4332,10.4446,3.2742,0.9774,-3.4811,7.3586,2.4483,1.3469,10.2380,7.3248,0.3271,-4.6484,-7.4036,-6.9046,3.0676,-0.1566,-5.4587,-1.4014,-3.8812
1394.5312,2.9235,13.9606,6.6284,5.7538,-0.2503,8.5171,5.1881,5.3806,10.4321,11.1893,-2.1168,-6.7416,-7.0242,-5.3147,3.8410,-0.8233,-5.4842,-1.1438,-1.5545
1398.4375,15.9079,13.3600,8.7332,9.4186,3.0201,10.7694,7.5508,8.2722,9.7679,16.0842,-2.2366,-6.8221,-5.0904,-3.2854,6.6335,-0.2714,-4.2552,-0.4725,1.0165
1402.3438,27.2875,8.8553,8.7269,10.8249,4.9983,13.5980,8.6285,9.0668,8.8669,19.7647,-0.2879,-4.6442,-2.1496,-1.5361,10.1498,1.2767,-2.2302,0.4666,2.9308
1406.2500,32.1887,2.4080,6.6864,9.6003,4.8857,15.9687,8.0475,7.5900,8.2041,20.5977,2.5574,-1.0260,0.6566,-0.7456,12.6986,3.0331,-0.2229,1.2948,3.4780
1410.1562,29.5658,-3.3640,3.6860,6.3964,2.8922,16.7950,6.2033,4.5493,7.8580,18.2479,4.9717,2.5847,2.2272,-1.1698,13.0622,4.1254,1.0994,1.6545,2.5813
1414.0625,22.0960,-6.5126,1.2668,2.6056,0.1123,15.4928,4.0537,1.1865,7.6342,13.6566,6.2341,4.8781,2.1384,-2.4869,11.1067,4.1264,1.6129,1.4565,0.8857
1417.9688,13.9022,-6.5587,0.6016,-0.3259,-2.1230,12.3162,2.5835,-1.3287,7.3837,8.4352,6.4979,5.3088,0.8489,-3.9804,7.7833,3.2773,1.7339,0.9358,-0.6035
1421.8750,7.9226,-4.4075,1.8432,-1.6007,-2.9962,8.2805,2.2638,-2.4215,7.1830,4.0943,6.4261,4.2214,-0.6709,-4.9445,4.5470,2.2634,2.0117,0.4706,-1.1291
1425.7812,4.7148,-1.5925,4.0380,-1.3838,-2.5825,4.7009,2.8275,-2.2697,7.1932,1.5179,6.5042,2.4574,-1.6223,-5.0540,2.5564,1.7069,2.6192,0.2830,-0.6519
1429.6875,3.1628,0.5856,5.6552,-0.5668,-1.6535,2.5778,3.4806,-1.5499,7.3366,0.8411,6.5521,0.7540,-1.8982,-4.4786,2.1199,1.7373,3.1337,0.2365,0.1255
1433.5938,2.0823,1.5266,5.4259,-0.1647,-1.0927,2.1473,3.4019,-0.9734,7.1319,1.6181,5.8033,-0.6576,-2.0872,-3.7022,2.6670,1.9327,2.7914,-0.1155,0.2044
1437.5000,1.2369,1.2832,3.0257,-0.7283,-1.3382,2.8332,2.2305,-0.9041,5.9247,3.0775,3.4998,-2.0287,-2.9844,-3.2021,3.1978,1.6623,1.0489,-1.2426,-1.0718
1441.4062,1.0502,0.2396,-0.7535,-2.1077,-2.2024,3.6308,0.2677,-1.2617,3.4031,4.3499,-0.4230,-3.7273,-4.9720,-3.2072,2.8975,0.5796,-1.9461,-3.2919,-3.5830
1445.3125,1.5592,-1.1490,-4.4063,-3.6462,-3.1203,3.7096,-1.6908,-1.7019,-0.0003,4.6813,-5.0621,-5.8320,-7.7061,-3.6613,1.5581,-1.0835,-5.3193,-5.9081,-6.4645
1449.2188,1.7993,-2.4169,-6.4536,-4.6194,-3.5893,2.8907,-2.7800,-1.9011,-3.1902,3.6657,-8.9099,-7.9760,-10.3048,-4.3525,-0.3929,-2.6253,-7.9115,-8.3425,-8.5723
1453.1250,0.3423,-3.0709,-6.1401,-4.6263,-3.4753,1.7101,-2.5147,-1.7487,-4.9977,1.4357,-10.6506,-9.5245,-11.8754,-5.0662,-2.2110,-3.3105,-8.9107,-9.7906,-9.0947
1457.0312,-3.4164,-2.7065,-3.7624,-3.7306,-3.0108,1.0147,-1.0472,-1.3533,-4.8892,-1.3377,-9.8957,-9.9362,-12.0062,-5.6447,-3.2757,-2.8413,-8.2689,-9.7639,-7.9589
1460.9375,-8.3828,-1.3045,-0.5080,-2.3500,-2.5582,1.3357,0.8748,-0.9215,-3.2891,-3.7333,-7.4004,-9.0580,-10.9135,-5.9550,-3.4086,-1.5567,-6.6574,-8.2977,-5.8307
1464.8438,-12.2033,0.5023,2.0856,-1.0320,-2.3581,2.4431,2.2203,-0.6316,-1.2817,-5.0634,-4.6418,-7.1883,-9.2125,-5.8558,-2.9297,-0.2442,-5.0281,-5.9118,-3.7545
1468.7500,-12.8438,1.4951,2.7835,-0.2681,-2.4463,3.3943,2.1217,-0.5936,0.0763,-5.2845,-3.0323,-4.9159,-7.5312,-5.2506,-2.4714,0.3039,-4.0865,-3.3875,-2.6636
1472.6562,-10.1627,0.3919,1.1329,-0.3937,-2.7482,3.0789,0.2644,-0.8821,0.3175,-5.0630,-3.2513,-2.8762,-6.2488,-4.2044,-2.6764,-0.2901,-3.9966,-1.4985,-3.0122
1476.5625,-6.2658,-3.3942,-2.4125,-1.5312,-3.2173,0.9278,-2.9509,-1.5634,-0.3871,-5.4277,-5.0627,-1.5672,-5.4837,-3.0134,-3.9257,-1.8258,-4.4452,-0.8012,-4.6650
1480.4688,-4.3227,-9.2231,-6.7314,-3.5205,-3.8695,-2.6771,-6.5531,-2.6489,-1.6428,-7.2088,-7.6532,-1.2766,-5.2420,-2.1165,-6.1924,-3.6745,-4.9492,-1.5121,-7.0253
1484.3750,-6.6581,-15.3143,-10.4913,-5.8599,-4.6837,-6.5653,-9.3982,-3.9936,-3.2803,-10.5925,-10.2013,-2.0733,-5.5327,-1.8600,-9.0491,-5.1125,-5.1690,-3.4460,-9.2848
1488.2812,-13.4056,-19.4837,-12.6062,-7.7519,-5.4772,-9.4114,-10.6372,-5.2306,-5.4082,-15.0235,-12.2832,-3.8010,-6.3362,-2.2583,-11.8028,-5.6386,-5.0459,-6.0099,-10.6823
1492.1875,-22.5248,-20.1545,-12.5267,-8.3332,-5.8956,-10.4208,-10.0316,-5.8403,-8.0184,-19.4473,-13.8860,-6.0688,-7.4777,-2.9369,-13.7124,-5.1327,-4.7354,-8.3038,-10.7094
1496.0938,-30.9799,-17.0919,-10.3073,-7.0492,-5.5713,-9.6372,-7.9690,-5.3663,-10.5412,-22.7026,-15.1036,-8.2928,-8.5666,-3.3326,-14.2338,-3.8344,-4.4429,-9.3801,-9.2464
1500.0000,-36.1726,-11.4804,-6.5117,-4.0001,-4.3613,-7.7216,-5.2017,-3.6819,-11.8576,-23.8652,-15.8124,-9.8409,-9.1099,-3.0439,-13.2227,-2.2069,-4.2897,-8.6333,-6.6143
1503.9062,-36.7964,-5.3566,-2.0494,-0.0371,-2.4984,-5.4361,-2.4827,-1.1478,-10.9303,-22.4772,-15.6150,-10.2531,-8.7564,-2.0996,-11.0211,-0.7675,-4.2697,-6.1541,-3.5086
1507.8125,-32.9144,-0.7493,2.0031,3.5074,-0.5368,-3.2401,-0.3105,1.4561,-7.6622,-18.7021,-14.1206,-9.4276,-7.5015,-0.9515,-8.3680,0.0691,-4.2775,-2.8193,-0.7954
1511.7188,-25.6414,1.0314,4.6144,5.3719,0.8930,-1.2697,1.1040,3.2269,-3.2947,-13.4179,-11.3523,-7.6531,-5.6932,-0.1813,-6.1352,0.1176,-4.1548,0.0262,0.7957
1515.6250,-16.8503,-0.3049,5.0750,4.9422,1.3819,0.3780,1.7116,3.5317,0.1000,-8.1434,-7.9553,-5.4477,-3.8213,-0.1112,-4.9780,-0.5045,-3.7299,1.2067,0.9701
1519.5312,-8.9280,-4.1236,3.2949,2.5534,0.9241,1.3906,1.5034,2.3051,0.8298,-4.6480,-4.9942,-3.2945,-2.2321,-0.5821,-5.0553,-1.3988,-2.8593,0.3574,0.0113
1523.4375,-4.2745,-9.1714,-0.0237,-0.6425,-0.1060,1.3092,0.5248,0.1005,-1.2779,-4.2524,-3.4170,-1.4331,-0.9625,-1.0529,-5.9667,-2.0343,-1.4843,-1.8125,-1.3244
1527.3438,-4.4003,-13.9253,-3.5137,-3.1874,-1.1506,-0.0889,-0.9955,-2.1380,-4.6368,-7.1101,-3.5130,0.1660,0.2007,-0.9560,-6.9620,-1.9876,0.3091,-3.8415,-2.1392
1531.2500,-9.0031,-16.9342,-5.6325,-3.9581,-1.7248,-2.4191,-2.5583,-3.4793,-6.8210,-11.9337,-4.7333,1.6403,1.4878,-0.0723,-7.3340,-1.1683,2.2658,-4.2934,-1.8045
1535.1562,-15.7721,-17.1821,-5.3517,-2.6385,-1.6066,-4.7049,-3.5044,-3.3999,-6.1076,-16.4843,-6.0270,3.0063,2.9053,1.3169,-6.8021,0.1016,4.0009,-2.5724,-0.2565
1539.0625,-21.3871,-14.4485,-2.7035,0.1776,-0.8951,-5.8733,-3.3291,-1.9964,-2.6424,-18.6948,-6.5072,4.0281,4.1443,2.5911,-5.6875,1.2191,5.0975,0.6936,1.9654
1542.9688,-23.3430,-9.5184,1.1568,3.2781,0.0616,-5.4329,-2.0175,0.0777,1.5589,-17.8280,-6.0267,4.2837,4.6938,3.1460,-4.7842,1.5867,5.2230,3.9437,3.9538
1546.8750,-21.4671,-4.0424,4.4840,5.3699,0.8223,-3.8385,-0.1470,1.9152,3.8114,-14.9371,-5.2695,3.4062,4.0919,2.7127,-4.9836,0.9001,4.2263,5.5059,4.8329
1550.7812,-18.0075,0.0374,5.8354,5.6298,1.0338,-2.2366,1.3756,2.7651,2.4170,-12.2651,-5.2653,1.3662,2.1861,1.4555,-6.8284,-0.7159,2.1953,4.5045,4.1439
1554.6875,-16.0773,1.3192,4.8436,4.0475,0.5780,-1.7209,1.8235,2.3657,-2.2526,-11.8812,-6.6108,-1.3679,-0.7175,-0.1755,-10.1929,-2.7812,-0.5259,1.3568,2.0584
1558.5938,-17.4373,-0.3685,2.4203,1.4230,-0.3679,-2.6005,1.0934,1.0515,-7.8968,-14.3757,-8.9088,-3.9025,-3.8846,-1.7110,-14.2276,-4.6760,-3.3713,-2.4054,-0.6687
1562.5000,-21.1799,-3.8331,0.2454,-0.9838,-1.3976,-4.1924,-0.2194,-0.4222,-11.5397,-18.4449,-10.8345,-5.2265,-6.3680,-2.8699,-17.5964,-5.8669,-5.6649,-4.8922,-2.9899
1566.4062,-24.3257,-7.0955,-0.1912,-2.0246,-2.0645,-5.2877,-1.1923,-1.2635,-11.1362,-21.6538,-10.8677,-4.6430,-7.3568,-3.6114,-18.9376,-6.0450,-6.8228,-4.7936,-3.9983
1570.3125,-24.0020,-8.4235,1.5402,-1.2195,-2.1246,-4.9709,-1.1729,-1.0616,-6.6291,-21.9184,-8.2914,-2.1425,-6.5414,-4.0495,-17.4044,-5.1617,-6.5944,-2.0291,-3.3367
1574.2188,-19.6985,-7.2680,4.5248,0.9589,-1.7098,-3.2307,-0.2220,-0.0265,0.0646,-18.7882,-3.8428,1.4715,-4.3301,-4.3299,-13.0950,-3.4148,-5.2252,2.1988,-1.4025
1578.1250,-13.9537,-4.5521,6.9732,3.2459,-1.3116,-0.9642,0.8959,1.0882,6.0347,-13.7356,0.4483,4.8116,-1.7658,-4.5558,-7.1733,-1.2259,-3.4100,5.9587,0.7737
1582.0312,-10.8675,-2.1176,7.1949,4.1648,-1.5395,0.5963,1.1834,1.3671,8.7495,-9.2835,2.2318,6.4462,-0.1077,-4.7793,-1.5517,0.8106,-2.0011,7.4775,1.9725
1585.9375,-13.3364,-1.6375,4.5391,2.7773,-2.7539,0.6290,0.0540,0.2387,7.1293,-7.5178,0.1231,5.5378,-0.2299,-5.0165,1.8226,2.0556,-1.5870,5.9454,1.3781
1589.8438,-20.8358,-3.6369,-0.2059,-0.7741,-4.7744,-0.8437,-2.2523,-2.1623,1.8754,-8.8927,-5.4358,2.2741,-2.1449,-5.2439,1.8180,2.0479,-2.1782,1.8695,-0.9702
1593.7500,-29.2805,-7.2216,-5.1700,-5.2461,-6.8585,-3.0601,-4.7471,-4.9910,-4.9921,-12.0334,-12.2716,-2.1588,-4.9477,-5.3759,-1.3085,0.7358,-3.2055,-3.1786,-4.1303
1597.6562,-33.1945,-10.6724,-8.3179,-8.8457,-8.0085,-5.0276,-6.2244,-7.0742,-11.0858,-14.6302,-17.5302,-6.0956,-7.2650,-5.2639,-5.9736,-1.4239,-3.8603,-7.2927,-6.6872
1601.5625,-28.9562,-12.5153,-8.4347,-10.0835,-7.4705,-6.0740,-5.9293,-7.4867,-14.6216,-14.8757,-19.1133,-8.1598,-7.9817,-4.7466,-10.0182,-3.6060,-3.5784,-9.0802,-7.4576
1605.4688,-17.1916,-12.3638,-5.6618,-8.4665,-5.1543,-6.1204,-3.9703,-6.0075,-14.9888,-12.5913,-16.6912,-7.8736,-6.8160,-3.7342,-11.7985,-4.9624,-2.3638,-8.2114,-6.0813
1609.3750,-2.8641,-10.9840,-1.3207,-4.6524,-1.7233,-5.5849,-1.2395,-3.1980,-12.7211,-9.3831,-11.7212,-5.7669,-4.3848,-2.2691,-11.0099,-4.9979,-0.7372,-5.4077,-3.1485
1613.2812,7.0816,-9.5689,2.8479,-0.0066,1.7137,-5.0494,1.0982,-0.0696,-8.9702,-7.7214,-6.5003,-2.9365,-1.7238,-0.5143,-8.7437,-3.7636,0.6471,-1.9141,0.2108
1617.1875,7.2907,-8.7674,5.5801,4.1337,4.1415,-4.9148,2.2377,2.4482,-4.8321,-9.4503,-2.8570,-0.3525,0.3986,1.3189,-6.7209,-1.7693,1.4430,1.2076,3.0051
1621.0938,-3.1101,-8.1984,6.6092,7.0215,5.0954,-5.2113,2.1133,3.9133,-0.9288,-14.5690,-1.2875,1.6281,1.8858,3.0394,-6.1778,0.3100,1.7923,3.5301,4.8715
1625.0000,-19.8475,-6.8397,6.5348,8.5703,4.7730,-5.6200,1.3146,4.4166,2.5379,-21.0029,-1.0276,3.2224,3.1460,4.4759,-7.1177,1.9308,2.1100,5.1991,6.0497
1628.9062,-35.4544,-4.0251,6.1676,8.9767,3.7575,-5.6621,0.6114,4.2917,5.3850,-25.5523,-0.9212,4.7193,4.4907,5.4094,-8.4161,2.8128,2.6371,6.4547,6.8809
1632.8125,-42.8852,-0.2886,5.8114,8.2637,2.5554,-4.9702,0.3998,3.7350,7.0949,-25.5507,-0.4252,5.9217,5.5801,5.5198,-8.6879,2.8836,3.1078,7.1319,7.2376
1636.7188,-38.9671,2.6636,4.9859,6.1500,1.2686,-3.5247,0.4297,2.6374,6.8922,-20.3296,-0.0224,6.0135,5.4050,4.4444,-7.3018,2.1595,2.8181,6.5658,6.3696
1640.6250,-25.9197,2.9684,2.8077,2.3799,-0.3815,-1.7339,-0.0051,0.7552,4.3091,-11.6570,-0.7484,4.0382,2.9154,1.9760,-4.8281,0.7140,1.0978,4.0444,3.3703
1644.5312,-10.1455,-0.0239,-1.2066,-2.7419,-2.7071,-0.2808,-1.5291,-1.9184,-0.1357,-2.8699,-3.1884,-0.2826,-2.0834,-1.6958,-2.6114,-1.2339,-2.1126,-0.4718,-2.0029
1648.4375,1.0802,-5.0118,-6.4742,-8.0746,-5.6416,0.2250,-4.1497,-4.8903,-4.7238,2.8268,-6.7006,-5.9755,-8.4093,-5.8715,-1.7950,-3.2207,-5.9907,-5.8975,-8.7422
1652.3438,3.2663,-9.2717,-11.3333,-11.9456,-8.5722,-0.3926,-7.0923,-7.2584,-7.1448,3.9331,-9.5004,-10.9772,-13.8111,-9.4871,-2.5103,-4.5932,-9.1032,-10.2641,-14.7384
1656.2500,-3.2320,-10.2440,-13.7954,-12.9436,-10.5575,-1.7430,-9.1470,-8.1473,-5.7254,1.2117,-9.6544,-13.0754,-16.0290,-11.5019,-3.8191,-4.7730,-10.1067,-11.6380,-17.7087
1660.1562,-13.7913,-7.1897,-12.6569,-10.7283,-10.8123,-3.0942,-9.3393,-7.2186,-0.5735,-3.0237,-6.3864,-11.1332,-14.0161,-11.3488,-4.4355,-3.6034,-8.4810,-9.2237,-16.4033
1664.0625,-22.2840,-1.8067,-8.2843,-6.3172,-9.1542,-3.8417,-7.5121,-4.9056,6.1380,-6.3723,-0.8331,-5.8641,-8.5819,-9.2071,-3.6873,-1.5423,-4.8561,-3.9700,-11.3592
1667.9688,-24.3621,2.6633,-2.5519,-1.6236,-6.1336,-3.9067,-4.4492,-2.2048,11.0578,-7.6158,4.3051,0.3590,-2.0535,-5.9393,-2.0129,0.4746,-0.7383,1.7462,-4.7119
1671.8750,-19.4068,3.3172,2.0712,1.4921,-2.7786,-3.7569,-1.4561,-0.1518,11.2972,-7.0570,6.0871,4.6104,2.8553,-2.7248,-0.6483,1.4659,2.2083,5.2361,0.8436
1675.7812,-10.2255,-0.7218,3.7518,2.0842,-0.1286,-4.0046,0.3346,0.6751,5.9141,-5.8711,2.8870,4.8391,4.3121,-0.5829,-0.7491,0.8989,2.9169,4.8074,3.3329
1679.6875,-1.0087,-7.8619,2.1148,0.4010,1.1615,-4.8702,0.4942,0.3168,-3.5931,-5.0776,-4.7051,0.8398,2.0792,-0.0253,-2.5873,-1.0429,1.3179,0.5444,2.2927
1683.5938,4.9694,-15.0711,-1.7867,-2.5119,0.9501,-5.9399,-0.6460,-0.7947,-14.0189,-4.9233,-14.1289,-5.7325,-2.6372,-0.9770,-5.3696,-3.5651,-1.7770,-5.8352,-1.3071
1687.5000,6.5128,-19.6519,-6.2447,-5.5369,-0.5205,-6.4532,-2.3923,-2.2346,-21.9406,-5.0575,-22.0690,-12.2485,-7.9842,-2.9448,-7.7564,-5.6583,-5.1633,-11.8996,-5.8294
1691.4062,4.1294,-20.6170,-9.8520,-8.0301,-2.8450,-5.9407,-4.2047,-3.8374,-25.1276,-5.2187,-25.9485,-16.3570,-12.3616,-5.2904,-8.6725,-6.5456,-7.7946,-15.6451,-9.8582
1695.3125,-1.1558,-18.8775,-12.0383,-9.8804,-5.5887,-4.7186,-5.9448,-5.6322,-23.2062,-5.7580,-24.9339,-16.9427,-14.9383,-7.4585,-7.8569,-5.9526,-9.1152,-16.2594,-12.6718
1699.2188,-8.6540,-16.2944,-12.9428,-11.1707,-8.2864,-3.7986,-7.6975,-7.5597,-17.4433,-7.4917,-20.0416,-14.3755,-15.6371,-9.0821,-5.8582,-4.1155,-9.0849,-14.2058,-14.1461
1703.1250,-17.8924,-14.3637,-12.8741,-11.8048,-10.4046,-4.1979,-9.3630,-9.2474,-9.9879,-10.9665,-13.4485,-10.0702,-14.7955,-9.9845,-3.6027,-1.6070,-7.9909,-10.7360,-14.3498
1707.0312,-27.8436,-13.4281,-11.8629,-11.4354,-11.3999,-6.1148,-10.4079,-10.0704,-3.0653,-15.7411,-7.4724,-5.7142,-12.8402,-10.1370,-1.9121,0.8821,-6.2297,-7.2069,-13.2578
1710.9375,-36.4301,-12.8271,-9.6804,-9.7411,-10.9105,-8.6072,-10.0527,-9.4924,1.5742,-20.3310,-3.7374,-2.5949,-10.1820,-9.6162,-1.2731,2.7137,-4.1844,-4.5697,-10.8233
1714.8438,-41.0097,-11.7126,-6.2797,-6.8056,-8.9777,-10.0880,-7.8288,-7.4520,2.9252,-22.9675,-2.8178,-1.2907,-7.2906,-8.5650,-1.8755,3.4236,-2.2070,-3.1998,-7.2984
1718.7500,-39.7077,-9.8578,-2.2577,-3.2676,-6.1239,-9.3618,-4.1114,-4.5060,0.8386,-22.6885,-4.3623,-1.7282,-4.7526,-7.1522,-3.7188,2.8222,-0.6312,-3.0085,-3.4607
1722.6562,-32.7015,-7.9003,1.1099,-0.1000,-3.1938,-6.4964,-0.1907,-1.6085,-3.9674,-19.9911,-7.4914,-3.4289,-3.1622,-5.5390,-6.6059,1.0725,0.2597,-3.6626,-0.4672
1726.5625,-22.4940,-6.9211,2.4077,1.8450,-1.0204,-2.8942,2.2728,0.3440,-10.0459,-16.5680,-11.2102,-5.7437,-2.8655,-3.8789,-10.0420,-1.3171,0.3184,-4.7580,0.6561
1730.4688,-12.8826,-7.7010,0.9116,2.2268,-0.0944,-0.4703,2.1408,0.9227,-15.5749,-14.2923,-14.6578,-7.9779,-3.7336,-2.3557,-13.2202,-3.6336,-0.3841,-5.8919,-0.4125
1734.3750,-7.2055,-10.1386,-2.8160,1.3162,-0.4130,-0.4701,-0.5040,0.3008,-18.8649,-14.1255,-17.1518,-9.4343,-5.1451,-1.2194,-15.2331,-5.2117,-1.5491,-6.6630,-3.0285
1738.2812,-6.8819,-13.1459,-6.9903,-0.2030,-1.5572,-2.7127,-4.3069,-0.9172,-18.8329,-15.6393,-18.1144,-9.4729,-6.2259,-0.7509,-15.4437,-5.6781,-2.7418,-6.6664,-5.8198
1742.1875,-10.9913,-15.0473,-9.3720,-1.5591,-2.9143,-5.7460,-7.3041,-2.0217,-15.2557,-17.3799,-17.0405,-7.6614,-6.2267,-1.1265,-13.7717,-5.0579,-3.5426,-5.5446,-7.3067
1746.0938,-16.9439,-14.2893,-8.3584,-2.1532,-3.9064,-7.7726,-7.9297,-2.4781,-8.7590,-17.7519,-13.6353,-3.9957,-4.8353,-2.2408,-10.6855,-3.6901,-3.6837,-3.1150,-6.5711
1750.0000,-21.7187,-10.1822,-3.8185,-1.6802,-4.1350,-7.7065,-5.7925,-2.0537,-0.6394,-15.8377,-8.1094,0.9286,-2.2706,-3.6199,-6.9130,-2.0223,-3.1063,0.4643,-3.6343
1753.9062,-23.0377,-3.3929,2.7821,-0.1527,-3.4381,-5.6912,-1.8017,-0.8124,7.3742,-11.7480,-1.4344,5.9544,0.8641,-4.5405,-3.1066,-0.4222,-1.9255,4.5922,0.6166
1757.8125,-20.1094,4.0641,9.0520,2.1168,-1.9023,-2.8319,2.3872,0.9493,13.4294,-6.4806,4.7232,9.7026,3.8712,-4.3460,0.2883,0.9008,-0.3378,8.3102,4.8765
1761.7188,-13.8620,9.4735,12.8160,4.5863,0.1565,-0.4288,5.2532,2.7872,16.0181,-1.5273,8.5531,11.1373,6.2406,-2.8013,2.9156,1.8659,1.4659,10.6325,8.0098
1765.6250,-6.6693,10.5800,13.1558,6.6625,2.2701,0.7387,6.1220,4.2359,14.5829,1.5506,8.9715,10.1044,7.8013,-0.2619,4.3482,2.4659,3.3336,11.0196,9.5067
1769.5312,-1.5321,6.7956,10.8201,7.9730,3.9763,0.6705,5.3609,4.9892,9.9886,1.5449,6.3263,7.5117,8.6903,2.4745,4.1389,2.7487,5.1212,9.7385,9.6206
1773.4375,-0.7822,-0.2273,7.7761,8.5893,5.0116,-0.0755,4.0203,5.0668,4.4342,-1.9351,2.3967,4.9543,9.1684,4.5702,2.1354,2.8246,6.6310,7.8292,9.1354
1777.3438,-4.7327,-7.1591,6.1154,9.0017,5.4262,-0.8051,3.1786,4.8402,0.5787,-8.0489,-0.4989,3.8865,9.3835,5.5647,-1.1746,2.8331,7.5808,6.5864,8.8766
1781.2500,-11.0432,-10.5998,6.8788,9.7803,5.5204,-1.0067,3.3604,4.8356,0.1678,-14.6657,-0.8682,4.7710,9.2201,5.5542,-4.6344,2.8462,7.6561,6.7915,9.2080
1785.1562,-15.4745,-8.9377,9.4558,11.0983,5.6183,-0.4564,4.3182,5.3876,2.9449,-18.9613,0.9679,6.7356,8.3485,5.0370,-6.8507,2.7753,6.6562,8.1697,9.7961
1789.0625,-13.9979,-3.3467,11.9355,12.4733,5.8295,0.8046,5.2554,6.3662,6.6580,-18.6292,3.0179,8.0437,6.4924,4.5545,-6.8762,2.4013,4.6762,9.4932,9.8200
1792.9688,-5.2593,2.8039,12.2714,12.9932,5.9826,2.5052,5.3454,7.2031,8.3731,-13.1592,2.9557,7.1906,3.7833,4.3825,-4.6947,1.5746,2.2145,9.3715,8.5591
1796.8750,8.1196,5.9081,9.6200,11.9614,5.8018,4.1873,4.2643,7.2553,6.4075,-4.3865,-0.1380,3.9911,0.9635,4.4687,-1.1718,0.4723,0.0973,7.2804,6.0310
1800.7812,20.4525,4.3181,5.0461,9.5394,5.2019,5.3450,2.4497,6.2912,1.6400,4.1994,-4.8233,-0.0647,-0.7731,4.6140,2.4889,-0.3137,-0.8102,4.1400,3.2469
1804.6875,25.8636,-0.6022,1.1035,6.8855,4.4614,5.6867,0.9328,4.7515,-2.7831,9.1645,-7.9293,-2.5217,-0.3189,4.7127,5.3923,-0.0217,-0.0081,1.9639,1.8231
1808.5938,21.5616,-5.2751,0.4514,5.5851,4.1044,5.3841,0.8097,3.5621,-3.3121,8.9387,-6.5122,-1.3976,2.6750,4.8426,7.2601,1.7763,2.3206,2.6940,3.0808
1812.5000,9.5424,-6.1050,4.2784,6.6732,4.5408,5.0754,2.6193,3.5789,1.6920,4.6397,0.0745,3.5066,7.4043,5.1386,8.2556,4.7280,5.2857,6.9079,7.1451
1816.4062,-4.3745,-1.7054,11.4792,9.8882,5.7217,5.5116,5.9724,5.0218,10.7109,-0.6191,9.4196,10.2742,12.1117,5.5769,8.5707,7.6777,7.6346,13.2437,12.6382
1820.3125,-13.6514,6.2272,19.1100,13.6993,7.0870,7.0097,9.6648,7.2852,19.7664,-3.5392,17.2327,15.8046,14.8719,5.8808,8.1785,9.1933,8.3375,18.9745,17.2509
1824.2188,-14.4462,13.9048,23.8916,16.1459,7.8790,9.0972,12.2417,9.2683,24.6696,-2.4776,19.8051,17.5007,14.5716,5.6634,6.9652,8.3891,7.1171,21.4384,18.9285
1828.1250,-7.3688,17.6364,23.8897,15.9742,7.6224,10.6675,12.7172,10.0118,23.4038,1.7661,16.2007,14.7093,11.5177,4.7240,5.0865,5.5293,4.6214,19.4782,16.9855
1832.0312,3.2965,15.8459,19.4133,13.3398,6.4313,10.6294,11.0452,9.2244,17.1537,6.6204,8.7626,9.0450,7.2869,3.2702,3.1684,1.9828,2.1152,14.0332,12.4679
1835.9375,12.2314,9.7607,12.6745,9.6406,4.9199,8.6545,8.0815,7.3743,9.4163,9.3705,1.6291,3.4245,3.8775,1.8770,2.0952,-0.5005,0.8379,7.5704,7.5385
1839.8438,15.9103,2.5201,6.5104,6.6281,3.7866,5.5040,5.0831,5.3303,3.8821,8.7190,-1.7404,0.4268,2.6524,1.1781,2.4887,-0.7666,1.3726,2.7567,4.2751
1843.7500,14.0498,-2.5915,2.9872,5.4125,3.3760,2.6738,3.0651,3.8372,2.4898,5.3913,-0.4187,0.9795,3.6952,1.4904,4.2755,1.1244,3.3782,1.1877,3.6238
1847.6562,9.1213,-3.6924,2.6607,5.9866,3.5324,1.5650,2.3987,3.1803,4.7845,1.5499,3.8618,4.0993,5.9309,2.6238,6.6993,4.0172,5.8193,2.8508,5.1133
1851.5625,4.5361,-0.8702,4.7553,7.4885,3.8229,2.7137,2.8406,3.2087,8.7342,-0.5085,8.1932,7.7158,7.8797,4.0037,8.7913,6.4133,7.5449,6.4714,7.4045
1855.4688,2.7206,4.2825,7.9244,8.9018,3.9235,5.5653,3.8830,3.6084,12.2160,0.4305,10.4270,9.9504,8.5312,5.0114,9.9477,7.3404,7.8692,10.3521,9.2146
1859.3750,4.1096,9.6463,10.9915,9.6529,3.8510,8.8903,5.1214,4.1602,14.1198,4.0068,10.2406,10.0389,7.8016,5.3101,10.1845,6.7849,6.8408,13.1364,9.9787
1863.2812,7.3863,13.4549,13.2586,9.7399,3.8700,11.5064,6.3797,4.7926,14.5073,8.6593,8.7926,8.4382,6.3653,4.9553,9.9178,5.4731,5.0961,14.1479,9.8858
1867.1875,10.5758,14.7567,14.3970,9.4363,4.1808,12.8154,7.5716,5.4486,14.0357,12.5363,7.4915,6.2443,5.0805,4.2625,9.5085,4.2447,3.4514,13.3359,9.4210
1871.0938,12.2534,13.4987,14.2441,8.9233,4.6755,12.8691,8.4978,5.9531,13.2971,14.4008,6.9533,4.4507,4.4599,3.5694,8.9891,3.5138,2.5127,11.0871,8.8725
1875.0000,12.2069,10.4124,12.7916,8.1826,4.9816,12.0558,8.8200,6.0423,12.5746,14.0872,6.8944,3.5405,4.5256,3.0747,8.1982,3.1757,2.5121,8.1040,8.2028
1878.9062,11.2809,6.7908,10.3614,7.1901,4.7646,10.7412,8.2716,5.5534,12.0148,12.3581,6.8449,3.5450,5.0465,2.8334,7.1630,2.9421,3.3820,5.3245,7.3150
1882.8125,10.5816,4.1154,7.7058,6.1638,4.0308,9.1427,6.9329,4.6048,11.8352,10.3222,6.8853,4.3228,5.8647,2.8472,6.3223,2.7532,4.9167,3.7257,6.3922
1886.7188,10.5714,3.5134,5.7837,5.5687,3.1623,7.4405,5.3024,3.5870,12.2423,8.7692,7.6587,5.7126,6.9889,3.1206,6.3131,2.8913,6.8490,3.9400,5.9304
1890.6250,10.6493,5.2082,5.2444,5.8098,2.6350,5.9108,4.0400,2.9348,13.1085,7.7902,9.6041,7.4264,8.3759,3.6168,7.4317,3.6950,8.8001,5.8447,6.3655
1894.5312,9.5535,8.2750,5.9524,6.8393,2.6315,4.8739,3.5263,2.8334,13.7731,6.8829,12.1022,8.8557,9.6207,4.1629,9.2175,5.1228,10.2121,8.4308,7.5711
1898.4375,6.3925,10.9494,6.9380,8.0063,2.8577,4.4743,3.5640,3.0751,13.2773,5.4604,13.3849,9.0893,9.8905,4.4225,10.5682,6.5586,10.4220,10.1476,8.6665
1902.3438,1.6189,11.4363,6.8923,8.3162,2.7168,4.5134,3.4763,3.1727,10.9671,3.4347,11.4871,7.2820,8.2660,4.0040,10.3993,7.0723,8.9287,9.6140,8.3765
1906.2500,-2.8442,8.8357,4.9335,6.9547,1.7128,4.5484,2.5774,2.6493,7.0343,1.4718,5.6616,3.1971,4.3268,2.6571,8.4073,5.9960,5.7242,6.3100,5.7766
1910.1562,-4.6252,3.6724,1.1553,3.7411,-0.2181,4.2406,0.7006,1.3033,2.5472,0.7016,-2.7777,-2.4548,-1.4096,0.4219,5.3654,3.4160,1.4585,0.8385,0.9450
1914.0625,-2.5388,-2.2902,-3.4007,-0.7689,-2.6818,3.6841,-1.5979,-0.7100,-1.1121,2.0181,-10.8926,-8.1742,-7.5341,-2.3750,2.6963,0.2179,-2.7311,-5.3870,-4.9295
1917.9688,2.3097,-6.8737,-7.3197,-5.5548,-5.0947,3.4121,-3.3300,-2.9895,-3.0354,5.4087,-15.6554,-12.3009,-12.3118,-5.2702,1.5927,-2.3734,-5.6854,-10.8117,-10.0830
1921.8750,6.9280,-8.5201,-9.5499,-9.5589,-7.0067,4.0137,-3.6817,-5.0716,-3.2560,9.7820,-15.6098,-13.7597,-14.4586,-7.8395,2.2963,-3.4677,-6.7395,-14.3532,-13.0314
1925.7812,8.3373,-7.0064,-9.8402,-12.0050,-8.2288,5.6207,-2.5250,-6.5520,-2.5890,13.4601,-11.5813,-12.4883,-13.6799,-9.7794,4.0292,-2.9641,-5.9909,-15.6407,-13.2275
1929.6875,5.7900,-3.4935,-8.6557,-12.4919,-8.7071,7.6735,-0.4899,-7.1168,-1.9945,15.0620,-6.0080,-9.3195,-10.6844,-10.8680,5.5929,-1.5108,-4.1654,-14.8574,-11.1586
1933.5938,1.6603,0.0955,-6.7144,-10.9432,-8.3242,9.1927,1.4480,-6.5505,-1.9319,14.2239,-1.3991,-5.4466,-6.7182,-10.9020,6.1790,-0.0317,-2.1743,-12.4249,-7.9043
1937.5000,0.1094,2.0493,-4.5144,-7.5707,-6.8692,9.4087,2.5759,-4.8029,-2.1306,11.7040,1.0341,-1.8411,-2.9505,-9.7272,5.8222,0.8461,-0.6445,-8.8057,-4.5027
1941.4062,4.1857,1.7214,-2.1656,-2.9187,-4.2620,8.3071,2.8369,-2.1061,-1.8687,8.8377,1.7263,1.0278,-0.0752,-7.3915,5.2228,1.0939,0.2995,-4.5289,-1.5358
1945.3125,13.2972,-0.1599,0.4154,2.0954,-0.8612,6.6849,2.7610,0.9666,-0.5123,6.7436,1.9984,3.0740,1.7026,-4.3114,5.1417,1.1530,0.9020,-0.3124,0.8660
1949.2188,22.9754,-1.9071,3.1516,6.2911,2.4381,5.6544,3.0103,3.6069,2.0454,5.8195,2.8421,4.2658,2.4105,-1.2801,5.8375,1.5109,1.4294,2.9313,2.7144
1953.1250,27.3830,-1.8562,5.5794,8.5349,4.4901,5.9270,3.8646,5.0457,5.2543,5.8067,4.1357,4.3943,2.0517,0.7672,6.9256,2.2900,1.8693,4.3136,3.8477
1957.0312,23.0738,0.5614,6.9167,8.1348,4.4512,7.3633,4.9920,4.8607,8.0764,6.2580,4.7742,3.1354,0.5590,1.1447,7.6822,3.1186,1.8830,3.3207,3.8620
1960.9375,11.4769,4.2580,6.3876,5.1028,2.2546,9.0759,5.6341,3.1348,9.3208,6.9617,3.5299,0.3540,-2.0381,-0.2591,7.5110,3.3487,1.0283,0.0796,2.3311
1964.8438,-1.7006,6.8576,3.6119,0.1365,-1.3215,9.9828,5.0597,0.3727,8.0385,7.9669,-0.0129,-3.5937,-5.4108,-2.9283,6.2386,2.4662,-0.9134,-4.6359,-0.8581
1968.7500,-9.9110,5.9293,-1.1447,-5.6598,-5.0551,9.4172,2.9931,-2.7592,3.9189,9.2316,-5.0715,-7.8123,-8.9016,-5.9772,4.1061,0.4356,-3.7273,-9.6694,-5.2920
1972.6562,-9.8312,0.4854,-6.9696,-11.1395,-7.8972,7.4147,-0.2249,-5.6928,-2.4049,10.2659,-10.0205,-11.1554,-11.7323,-8.5604,1.5714,-2.2138,-6.8005,-13.8727,-10.0796
1976.5625,-3.3643,-8.1305,-12.5410,-15.3769,-9.4115,4.5714,-3.7905,-8.0677,-9.3245,10.1683,-13.1974,-12.7086,-13.3297,-10.1881,-0.8751,-4.5970,-9.3673,-16.4350,-14.1364
1980.4688,3.7494,-16.6010,-16.5114,-17.7564,-9.7838,1.6665,-6.7717,-9.6696,-14.6733,8.1396,-13.6508,-12.1953,-13.5544,-10.7839,-2.7808,-5.8558,-10.8119,-17.0380,-16.5429
1984.3750,5.7577,-21.1888,-17.9109,-17.9555,-9.4595,-0.6544,-8.4281,-10.3101,-16.5647,4.1442,-11.4569,-10.0811,-12.6905,-10.5113,-3.7470,-5.5237,-10.8714,-15.8392,-16.8165
1988.2812,0.6155,-19.6932,-16.4480,-15.9427,-8.7180,-1.9788,-8.3986,-9.7926,-14.3012,-0.7824,-7.5505,-7.3319,-11.2259,-9.5490,-3.5036,-3.7138,-9.6763,-13.3537,-15.0110
1992.1875,-8.8024,-12.6942,-12.6152,-12.0451,-7.5072,-2.0842,-6.7499,-8.0236,-8.8271,-4.8768,-3.2738,-4.9724,-9.5980,-8.0016,-2.0633,-1.0684,-7.6648,-10.2989,-11.6658
1996.0938,-16.6536,-3.3299,-7.5600,-7.0280,-5.6424,-0.9324,-3.9463,-5.1961,-2.3672,-6.4961,0.0964,-3.6889,-8.0856,-5.9989,0.1594,1.4884,-5.4514,-7.4360,-7.6715
2000.0000,-17.8427,4.2968,-2.7582,-2.0628,-3.1910,1.2198,-0.7774,-1.8991,2.6332,-4.9731,1.6828,-3.6625,-6.8931,-3.8673,2.4099,3.0832,-3.6985,-5.4206,-4.1020
2003.9062,-11.0768,7.1670,0.4076,1.4975,-0.7224,3.7107,1.7779,0.9600,4.6751,-0.9694,1.1752,-4.6651,-6.3050,-2.1877,3.8644,3.1848,-2.9826,-4.6798,-2.0159
2007.8125,0.5445,4.6892,1.0292,2.5104,0.8073,5.5771,2.7961,2.4309,3.7889,3.8681,-1.1438,-6.2971,-6.7146,-1.6262,3.9753,1.7594,-3.6344,-5.3403,-2.2060
2011.7188,11.5286,-1.3492,-1.0843,0.4738,0.5153,5.9554,1.7410,1.8877,1.2131,7.7179,-4.5009,-8.1857,-8.4205,-2.5975,2.6906,-0.7473,-5.5752,-7.2138,-4.9132
2015.6250,17.1361,-8.0350,-5.3453,-4.1819,-1.8639,4.6011,-1.2355,-0.6657,-1.5440,9.3938,-7.8616,-10.0285,-11.2830,-4.9559,0.4311,-3.5769,-8.2351,-9.8221,-9.5973
2019.5312,15.7456,-12.9113,-10.5034,-10.0840,-5.6823,2.1675,-5.2077,-4.4925,-3.5809,8.7478,-10.2498,-11.5028,-14.4915,-7.9234,-2.1244,-5.9084,-10.6541,-12.4431,-14.9132
2023.4375,9.2401,-14.9457,-14.9268,-15.2561,-9.5356,-0.0375,-8.7297,-8.2971,-4.8471,6.5315,-11.0550,-12.1770,-16.6922,-10.3402,-4.2955,-7.1077,-11.7930,-14.2000,-19.0133
2027.3438,1.5117,-14.4778,-17.0350,-17.7533,-11.8337,-0.7647,-10.3891,-10.6541,-5.7066,3.8774,-10.2014,-11.5681,-16.5266,-11.1436,-5.5785,-6.9073,-10.9594,-14.2446,-20.1670
2031.2500,-3.8083,-12.4583,-15.8223,-16.4118,-11.5179,0.3942,-9.4373,-10.5648,-6.2925,1.7106,-8.1081,-9.3810,-13.3570,-9.8455,-5.7340,-5.4718,-8.1519,-12.0566,-17.4960
2035.1562,-5.0865,-9.6802,-11.3161,-11.4196,-8.5752,2.6753,-6.1782,-7.9243,-6.2444,0.3708,-5.4782,-5.8075,-7.7711,-6.7758,-4.8405,-3.3336,-4.1342,-7.7777,-11.4909
2039.0625,-3.1122,-6.5391,-4.7442,-4.4069,-4.0888,4.5354,-1.8858,-3.6625,-5.0485,-0.4117,-3.0393,-1.6692,-1.5232,-2.9655,-3.3287,-1.2189,-0.1698,-2.3875,-3.9976
2042.9688,-0.2401,-3.3345,1.7760,2.0909,0.2178,4.5789,1.7485,0.5731,-2.6683,-1.2188,-1.3565,1.7613,3.1453,0.2804,-1.9262,0.1897,2.4754,2.4750,2.4217
2046.8750,1.0969,-0.6684,6.0016,5.6499,2.7355,2.4561,3.3803,3.1096,0.1158,-2.4956,-0.7635,3.2469,4.5032,1.9259,-1.4286,0.4803,3.0317,5.0831,5.5258
2050.7812,-0.3364,0.5385,6.4898,5.0103,2.6628,-0.8532,2.5978,3.0065,2.0138,-4.1957,-1.3755,2.1597,2.1300,1.6141,-2.3267,-0.3565,1.4910,4.3759,4.3516
2054.6875,-4.1279,-0.4706,3.2268,0.6235,0.2972,-3.5880,0.0246,0.4795,2.0059,-5.7354,-3.1129,-1.1735,-2.9104,-0.2427,-4.4864,-1.9488,-1.4679,0.5065,-0.3923
2058.5938,-8.7171,-3.6518,-2.3942,-5.6243,-3.2131,-4.2704,-3.0996,-3.2600,0.0195,-6.3163,-5.7059,-5.5734,-8.6182,-2.7255,-7.1256,-3.7168,-4.8286,-5.1520,-6.7144
2062.5000,-12.4595,-7.8972,-8.2616,-11.3817,-6.5050,-2.6253,-5.6024,-6.6719,-3.0193,-5.4520,-8.7047,-9.5325,-13.0184,-4.8825,-9.1826,-5.1259,-7.6673,-10.5945,-12.3073
2066.4062,-14.5669,-11.4363,-12.5243,-14.9484,-8.6599,0.2326,-6.9272,-8.6709,-5.8042,-3.3673,-11.5417,-11.8904,-15.0094,-6.1694,-9.8949,-5.8961,-9.4582,-14.0724,-15.5743
2070.3125,-15.3358,-12.7259,-14.3170,-15.9026,-9.5173,2.4798,-7.2414,-9.0604,-7.4721,-0.9722,-13.6533,-12.2938,-14.6678,-6.6253,-9.2203,-6.0660,-10.1417,-14.7983,-16.1741
2074.2188,-15.5480,-11.2836,-13.8559,-14.9202,-9.4962,2.7160,-7.0911,-8.3801,-8.0182,0.6283,-14.6161,-11.1994,-12.9145,-6.7080,-7.8037,-5.8824,-9.9821,-13.1015,-14.8458
2078.1250,-15.5265,-7.9365,-11.9436,-12.9979,-9.0969,0.8368,-6.8749,-7.3292,-8.0230,0.7924,-14.2319,-9.4550,-10.8258,-6.9041,-6.5021,-5.5902,-9.3342,-10.0108,-12.7093
2082.0312,-14.6248,-4.3250,-9.2930,-10.6741,-8.4609,-1.9047,-6.5169,-6.2087,-7.9567,-0.2875,-12.5321,-7.7410,-9.0419,-7.3691,-5.8024,-5.2576,-8.4589,-6.5844,-10.5324
2085.9375,-11.6530,-1.9758,-6.1539,-7.8013,-7.3109,-3.6877,-5.5671,-4.7913,-7.6517,-1.7864,-9.7368,-6.2281,-7.6066,-7.8274,-5.5500,-4.7479,-7.4646,-3.4249,-8.4263
2089.8438,-6.0220,-1.5166,-2.4639,-3.9886,-5.3062,-3.2673,-3.6503,-2.6914,-6.3908,-2.8948,-6.2319,-4.6514,-6.2572,-7.7957,-5.1781,-3.8589,-6.3673,-0.6372,-6.1021
2093.7500,1.2664,-2.4885,1.6675,0.6776,-2.5316,-0.7525,-0.9285,0.0793,-3.5638,-3.4308,-2.5867,-2.7209,-4.8869,-6.9774,-4.2482,-2.5373,-5.2020,1.8413,-3.4315
2097.6562,7.6824,-3.8154,5.5792,5.2425,0.2809,2.4614,1.7781,2.8368,0.6179,-3.9339,0.4448,-0.5595,-3.8137,-5.5553,-2.8785,-1.0207,-4.1042,3.8614,-0.8556
2101.5625,10.4662,-4.5769,8.1412,8.1851,2.0193,4.5465,3.3403,4.4890,4.9254,-5.1435,2.0382,1.1611,-3.6574,-4.1700,-1.7272,0.2022,-3.3106,4.9529,0.6848
2105.4688,8.3650,-4.5620,8.3090,8.2571,1.8129,4.3265,2.9469,4.1900,7.6517,-7.2617,1.5784,1.5284,-4.9061,-3.5791,-1.5443,0.6126,-3.0747,4.5827,0.2814
2109.3750,2.5431,-4.2624,5.8016,5.2961,-0.3967,1.9140,0.6153,1.9291,7.5752,-9.6089,-0.9788,-0.0180,-7.4727,-4.2033,-2.6319,-0.0526,-3.5347,2.5963,-2.2945
2113.2812,-4.1010,-4.3520,1.4462,0.4459,-3.7320,-1.4621,-2.7406,-1.3694,4.7286,-11.0022,-4.8779,-3.1753,-10.5460,-5.8456,-4.6168,-1.6196,-4.5956,-0.4826,-6.2623
2117.1875,-8.8143,-5.0518,-3.0683,-4.3781,-6.8036,-4.2694,-5.7361,-4.3188,0.4746,-10.6184,-8.6881,-6.7045,-12.8579,-7.7592,-6.6918,-3.5174,-5.8896,-3.5282,-10.0604
2121.0938,-10.7133,-5.8605,-5.9193,-7.4357,-8.4174,-5.5575,-7.1812,-5.8016,-3.1683,-8.6770,-10.8437,-8.9170,-13.2354,-9.0191,-8.1287,-5.0365,-6.8584,-5.2643,-12.0278
2125.0000,-11.0530,-5.8761,-5.9696,-7.9340,-8.1250,-5.3569,-6.6071,-5.4866,-4.5543,-6.3781,-10.4024,-8.5104,-11.1488,-8.9722,-8.6876,-5.6715,-6.9489,-4.8618,-11.1762
2128.9062,-11.8323,-4.5175,-3.2560,-6.2053,-6.3075,-4.4075,-4.3884,-3.8360,-3.2146,-5.0838,-7.6224,-5.3125,-6.9821,-7.5132,-8.6501,-5.3653,-5.8580,-2.3692,-7.6487
2132.8125,-13.8493,-2.1346,1.0664,-3.2945,-3.8127,-3.5025,-1.4601,-1.6821,-0.0316,-5.3448,-3.9773,-0.5005,-1.9078,-5.0666,-8.5106,-4.5138,-3.7151,1.2511,-2.6528
2136.7188,-15.8091,-0.0227,5.2515,-0.3196,-1.4471,-2.9643,1.1505,0.2772,3.2527,-6.5286,-1.5000,3.8733,2.5596,-2.3371,-8.5934,-3.7269,-1.0970,4.5051,2.0703
2140.6250,-15.2961,0.2692,7.6857,1.9757,0.3380,-2.6023,2.7101,1.7225,4.8925,-7.3678,-1.7371,5.8463,5.1241,-0.0069,-8.8757,-3.4743,1.1651,6.0021,4.9651
2144.5312,-10.9259,-2.0475,7.4962,3.2975,1.4320,-2.1046,2.9345,2.6131,3.9252,-7.0270,-4.8766,4.5146,5.1568,1.4645,-9.0967,-3.8184,2.3185,5.0620,5.2486
2148.4375,-3.9685,-6.3324,4.8307,3.6285,1.8496,-1.4756,1.9378,2.9359,0.5519,-5.8606,-9.5679,0.4960,2.8720,1.8925,-9.0050,-4.3853,2.0128,2.0271,3.1377
2152.3438,1.9616,-10.6999,0.7382,3.0575,1.5616,-1.1312,0.0931,2.5754,-4.0069,-5.2459,-13.5897,-4.3649,-0.8097,1.3258,-8.5343,-4.5968,0.4488,-1.8670,-0.3356
2156.2500,3.1019,-13.0288,-3.2829,1.7571,0.5214,-1.5659,-2.0999,1.4208,-8.0678,-6.5796,-15.0214,-7.9034,-4.6413,-0.0097,-7.8063,-4.0308,-1.7259,-5.0223,-3.8111
2160.1562,-1.9102,-12.2133,-5.8939,0.0486,-1.1740,-2.8830,-4.1281,-0.4115,-10.1927,-10.1814,-13.2583,-8.6770,-7.5151,-1.7539,-7.0304,-2.7034,-3.7220,-6.1838,-6.1717
2164.0625,-11.0111,-8.8595,-6.4488,-1.6092,-3.1742,-4.6034,-5.5833,-2.4786,-9.7513,-14.9331,-9.2860,-6.6077,-8.8318,-3.4712,-6.4298,-1.1037,-4.9530,-4.9967,-6.9605
2167.9688,-19.9904,-4.9635,-5.2213,-2.7877,-4.9581,-5.9536,-6.2846,-4.1642,-7.1198,-18.9342,-5.0711,-2.9138,-8.6284,-4.7560,-6.2399,0.0444,-5.2421,-2.1454,-6.4713
2171.8750,-25.1583,-2.7545,-3.2110,-3.3155,-6.0703,-6.4371,-6.3368,-4.9975,-3.4553,-20.6935,-2.4537,0.5910,-7.4259,-5.3640,-6.7021,0.1658,-4.8015,1.0015,-5.4846
2175.7812,-25.5041,-3.4334,-1.6089,-3.3723,-6.3378,-6.2425,-6.0572,-4.9035,-0.1700,-19.9968,-2.2120,2.4223,-5.8909,-5.2986,-7.9501,-0.8477,-4.0273,3.0601,-4.7879
2179.6875,-22.9047,-6.5878,-1.1924,-3.3450,-5.9068,-6.1433,-5.7770,-4.2005,1.6452,-17.8716,-3.8237,2.0830,-4.4939,-4.7857,-9.8063,-2.5560,-3.2500,3.2675,-4.7342
2183.5938,-20.4542,-10.5978,-1.9744,-3.5355,-5.0905,-6.9344,-5.6319,-3.3616,1.5940,-15.7694,-5.9825,0.1495,-3.3467,-4.1415,-11.6595,-4.1670,-2.5880,1.7601,-5.0812
2187.5000,-20.3222,-13.6796,-3.2934,-3.9404,-4.1679,-8.8156,-5.4906,-2.7301,0.0084,-14.6452,-7.4592,-2.1824,-2.2893,-3.6122,-12.6163,-4.9020,-1.9663,-0.6188,-5.1985
2191.4062,-22.7046,-14.8408,-4.2705,-4.2751,-3.2897,-11.1926,-5.0893,-2.3912,-2.3149,-14.6029,-7.7378,-3.7814,-1.1481,-3.2865,-11.9500,-4.3451,-1.2587,-2.8290,-4.5154
2195.3125,-26.3699,-14.1642,-4.3319,-4.2110,-2.5318,-13.0525,-4.2810,-2.2542,-4.5050,-15.2488,-7.0826,-4.1095,0.0206,-3.1202,-9.6131,-2.6170,-0.4408,-4.1393,-2.9299
2199.2188,-29.9888,-12.3815,-3.4725,-3.6276,-1.9902,-13.6328,-3.2116,-2.2184,-5.9391,-16.3033,-6.1206,-3.3507,0.8765,-3.0264,-6.4496,-0.3074,0.3450,-4.3551,-0.9161
2203.1250,-32.9480,-10.1951,-2.1232,-2.6675,-1.7804,-12.8804,-2.2693,-2.2513,-6.3875,-17.8625,-5.3296,-2.1482,0.9790,-2.9410,-3.8766,1.7811,0.8485,-3.6998,0.7435
2207.0312,-35.0419,-7.9063,-0.7664,-1.5627,-1.9119,-11.3672,-1.8243,-2.3183,-5.9763,-20.0744,-4.8044,-1.1594,0.1005,-2.8126,-3.1407,2.9606,0.8526,-2.5102,1.4369
2210.9375,-35.6120,-5.5583,0.3998,-0.3961,-2.1587,-9.7603,-1.9397,-2.2615,-5.0389,-22.5684,-4.3922,-0.6928,-1.5284,-2.5506,-4.5719,2.9234,0.3160,-0.9931,1.1106
2214.8438,-33.2840,-3.3337,1.5107,0.9782,-2.0898,-8.2936,-2.2748,-1.7899,-3.9344,-24.2434,-3.9764,-0.5964,-3.2066,-2.0143,-7.3107,1.8523,-0.5585,0.8008,0.3229
2218.7500,-26.8996,-1.7376,2.7993,2.7707,-1.3057,-6.6760,-2.2696,-0.6439,-2.8950,-23.7483,-3.6128,-0.4089,-4.0132,-1.0967,-9.7202,0.3363,-1.3643,2.8236,-0.0660
2222.6562,-17.0262,-1.3265,4.3018,4.9841,0.2616,-4.5017,-1.4916,1.1755,-1.9474,-20.3954,-3.4008,0.3483,-3.1984,0.1465,-10.2695,-0.8763,-1.6294,4.8716,0.6345
2226.5625,-6.6451,-2.1878,5.7668,7.2774,2.2266,-1.8077,0.0969,3.3115,-0.9415,-14.8285,-3.2441,1.9051,-0.5163,1.4420,-8.3733,-1.1937,-1.0005,6.5884,2.6028
2230.4688,-0.0385,-3.6482,6.8532,9.1182,3.9453,0.7196,2.1365,5.2072,0.3134,-8.8789,-2.7717,4.1283,3.6617,2.4114,-4.6904,-0.4312,0.6006,7.6523,5.4811
2234.3750,-0.2664,-4.5515,7.4566,10.1354,4.9308,2.1158,4.1234,6.4288,1.8643,-4.6124,-1.5512,6.5983,8.4899,2.8179,-0.7133,1.1253,2.9215,8.0118,8.6438
2238.2812,-6.8842,-3.9830,7.8787,10.4022,5.1976,1.8438,5.7197,6.9241,3.5010,-3.1677,0.5423,8.8167,12.9589,2.7852,2.0947,2.8838,5.4615,7.9787,11.5449
2242.1875,-15.6377,-1.9282,8.6612,10.4042,5.2608,0.2929,6.8898,7.0081,4.8122,-4.1503,3.1028,10.4283,16.2141,2.7970,3.1003,4.2592,7.6634,8.0743,13.9075
2246.0938,-20.6193,0.6506,10.1600,10.6719,5.7510,-1.3517,7.7767,7.0723,5.4118,-5.9614,5.3274,11.3328,17.7479,3.4168,2.7779,4.9609,9.1251,8.6956,15.6549
2250.0000,-17.6708,2.4165,12.1585,11.3245,6.8950,-1.8318,8.4379,7.2275,5.2023,-6.8131,6.4456,11.6287,17.4235,4.8708,2.3250,5.0855,9.7185,9.8031,16.6831
2253.9062,-6.9138,2.5291,13.8250,11.8650,8.2389,-0.6412,8.6761,7.1603,4.4847,-5.7562,6.1494,11.4331,15.3841,6.7744,2.8645,4.9636,9.5526,10.8412,16.6960
2257.8125,7.1709,1.1674,14.1090,11.4199,8.8455,1.6328,8.1234,6.3347,3.8112,-3.1136,4.7269,10.7138,11.9527,8.2291,4.7120,4.8748,8.8193,10.9801,15.2777
2261.7188,18.1137,-0.6509,12.3660,9.3106,7.8736,3.7003,6.5387,4.4156,3.6589,-0.1567,2.8374,9.2758,7.5976,8.2947,7.1398,4.8405,7.6442,9.5809,12.2012
2265.6250,20.7929,-1.7863,8.8327,5.6056,5.1731,4.4184,4.0972,1.6210,4.1442,1.6635,1.1286,6.9492,2.9600,6.5762,8.7814,4.6499,6.0649,6.6412,7.7778
2269.5312,13.8295,-1.6893,4.6357,1.2856,1.5005,3.5061,1.4399,-1.2591,4.9852,1.4342,-0.0180,3.8721,-1.1414,3.5578,8.4489,4.1031,4.1610,2.9585,2.9830
2273.4375,-0.0879,-0.6142,1.2971,-2.1187,-1.8059,1.6442,-0.5895,-3.2140,5.7353,-0.8934,-0.4813,0.6536,-3.8272,0.4412,5.8940,3.2769,2.2256,-0.1256,-0.8001
2277.3438,-15.7781,0.7449,-0.0038,-3.2399,-3.5028,-0.0685,-1.3724,-3.5257,6.1070,-4.6090,-0.2473,-1.7584,-4.4224,-1.4518,2.0589,2.5865,0.8062,-1.3245,-2.3461
2281.2500,-27.9419,1.8378,0.9954,-1.5500,-3.0669,-0.8835,-0.8381,-2.1339,6.1354,-8.6005,0.6702,-2.5002,-2.7724,-1.3716,-1.3560,2.5563,0.5158,-0.0686,-1.1804
2285.1562,-33.1399,2.5798,3.5380,2.3657,-0.9086,-0.8461,0.5221,0.3544,6.0629,-11.7636,2.1281,-1.2835,0.5761,0.4837,-2.7884,3.4396,1.6858,3.1216,2.1394
2289.0625,-30.6988,3.1939,6.2600,7.0738,1.9190,-0.6344,1.9524,2.9943,6.0551,-13.3431,3.6917,1.3601,4.4931,3.1285,-1.6686,4.9633,4.0822,6.7928,6.2389
2292.9688,-22.5012,3.7724,7.8740,10.9466,4.3048,-0.9543,2.8470,4.9567,6.0000,-13.1428,4.6522,4.2808,7.6915,5.3729,1.2673,6.4095,6.9059,9.2200,9.5526
2296.8750,-11.9743,3.9871,7.7621,12.8577,5.5988,-1.9449,3.0309,5.8534,5.5774,-11.5437,4.3372,6.2841,9.2779,6.4586,4.4007,7.0121,9.1265,9.2604,11.0323
2300.7812,-2.6928,3.2443,6.1919,12.5859,5.7915,-3.0048,2.7625,5.7906,4.5601,-9.2815,2.5644,6.7519,9.1294,6.3637,6.1459,6.4146,9.9737,6.9520,10.5626
2304.6875,2.9647,1.2088,4.0991,10.7674,5.3167,-3.1314,2.5010,5.1844,3.1174,-7.0377,-0.0959,5.9400,7.8734,5.6259,5.8165,4.8778,9.2861,3.5243,8.8779
2308.5938,4.6291,-1.6966,2.6094,8.4798,4.6700,-1.5240,2.6201,4.4917,1.8709,-5.0472,-2.4939,4.7781,6.4742,4.8566,3.9360,3.1007,7.5083,0.7998,7.0697
2312.5000,3.8434,-4.2282,2.5678,6.7109,4.1130,1.9333,3.2468,4.0163,1.6379,-2.9846,-3.4473,4.3120,5.6796,4.3062,1.8401,1.7873,5.3640,0.3078,6.0033
2316.4062,3.0399,-4.8227,4.2818,5.9846,3.6323,6.5698,4.2884,3.8616,3.0145,-0.2547,-2.3192,5.1372,5.6699,3.7757,0.8573,1.2654,3.4519,2.5833,5.9807
2320.3125,4.1013,-2.4141,7.5132,6.2893,3.1244,11.2080,5.5680,3.9986,6.0486,3.4603,0.7376,7.1499,6.1142,2.9064,1.5928,1.4072,2.0402,6.9952,6.7914
2324.2188,7.3314,2.8921,11.6153,7.2677,2.6230,14.6277,6.9315,4.3584,10.1659,7.7658,4.9742,9.7018,6.5525,1.5996,3.7199,1.8615,1.1574,12.1262,8.0241
2328.1250,11.4373,9.6780,15.6823,8.4890,2.3691,15.9784,8.2382,4.8752,14.3415,11.5630,9.4503,11.9843,6.7961,0.2288,6.3183,2.3755,0.8298,16.4210,9.3574
2332.0312,14.4567,15.7060,18.6710,9.6233,2.6506,15.0001,9.2692,5.4633,17.4020,13.5440,13.3148,13.3663,7.0362,-0.5397,8.4442,2.9383,1.2058,18.7344,10.6156
2335.9375,14.9188,18.8273,19.5635,10.4452,3.5184,12.0342,9.6713,5.9745,18.3570,12.8795,15.8136,13.5170,7.5835,-0.2080,9.5343,3.6475,2.4198,18.5616,11.6028
2339.8438,12.4463,17.8938,17.6530,10.7412,4.5994,7.8811,9.0430,6.1931,16.7165,9.6743,16.1935,12.3481,8.4571,1.1332,9.4537,4.4431,4.2994,15.9882,11.9317
2343.7500,7.5538,13.2622,12.9218,10.2643,5.1826,3.5681,7.1624,5.9043,12.7543,4.9384,13.8092,9.9406,9.1754,2.7429,8.3093,4.9751,6.1988,11.5506,11.0796
2347.6562,1.0994,6.6535,6.3125,8.8249,4.5830,0.0882,4.2291,5.0074,7.5937,0.1514,8.5495,6.5671,8.9596,3.6005,6.3015,4.7600,7.1836,6.1425,8.7086
2351.5625,-5.9333,0.4115,-0.3689,6.4705,2.5844,-1.8300,0.9407,3.6057,2.9452,-3.2742,1.3248,2.7694,7.2460,2.9927,3.7724,3.5418,6.5271,0.9385,5.0377
2355.4688,-12.1348,-3.5166,-5.0379,3.6027,-0.3253,-1.8639,-1.7051,2.0008,0.4527,-4.3645,-5.8583,-0.6615,4.1472,0.9427,1.3462,1.5824,4.2036,-2.8060,0.9517
2359.3750,-15.3985,-4.3921,-6.2239,0.8957,-3.1154,-0.1226,-2.8317,0.5756,0.8804,-2.7426,-10.5303,-2.9071,0.5136,-1.7908,-0.0987,-0.3675,1.0132,-4.1475,-2.3198
2363.2812,-13.4554,-2.8746,-3.8251,-0.9840,-4.7219,2.9165,-2.1206,-0.3803,3.6116,1.3074,-10.8941,-3.4739,-2.4831,-4.1405,0.2234,-1.4435,-1.8039,-2.8992,-3.8137
2367.1875,-5.3550,-0.4854,0.7406,-1.7005,-4.6197,6.5022,-0.0174,-0.7986,6.8697,6.7890,-6.8194,-2.4620,-3.9818,-5.3105,2.4857,-1.1583,-3.2481,0.1567,-3.3609
2371.0938,7.0259,1.3454,5.1575,-1.4069,-3.1154,9.7061,2.4376,-0.8329,8.6638,12.0644,-0.0343,-0.5496,-3.8679,-5.1586,5.9348,0.3099,-3.1013,3.5131,-1.6781
2375.0000,18.8682,2.0648,7.3233,-0.6355,-1.1689,11.5553,4.0896,-0.7325,7.9385,15.2475,6.6702,1.3237,-2.7481,-4.1804,9.1040,2.2155,-1.9815,5.5835,0.0486
2378.9062,24.4180,2.1237,6.3447,0.0027,0.1470,11.2661,4.2143,-0.6785,5.1778,14.9555,10.7736,2.3807,-1.5297,-3.1578,10.5288,3.6551,-0.8993,5.4123,0.8179
2382.8125,20.2733,2.3824,2.8574,0.1048,0.2174,8.5726,2.8323,-0.7026,2.0177,11.1017,11.1076,2.2807,-0.9253,-2.7264,9.5535,4.0186,-0.6382,3.0397,0.2822
2386.7188,7.8408,3.2457,-1.4860,-0.4240,-0.8628,4.0113,0.6289,-0.7452,0.0999,5.1914,8.1062,1.1111,-1.2082,-3.1208,6.7027,3.2232,-1.3705,-0.6702,-1.2391
2390.6250,-6.9603,4.1890,-5.0053,-1.4753,-2.4806,-1.0661,-1.4613,-0.7966,-0.0338,-0.2462,3.2278,-0.8215,-2.3032,-4.1919,3.3524,1.6429,-2.7183,-4.5808,-3.1435
2394.5312,-16.9384,4.0672,-6.8372,-2.9062,-3.9682,-4.9001,-2.7504,-0.9924,0.7938,-2.9202,-1.9364,-3.1905,-4.0306,-5.6000,0.9090,-0.1536,-4.1314,-7.8268,-4.9933
2398.4375,-17.8824,2.0099,-7.1570,-4.6051,-5.0000,-6.0562,-3.0889,-1.5571,1.1542,-2.0282,-6.2734,-5.6921,-6.2411,-7.0047,0.0349,-1.6612,-5.2563,-10.0340,-6.6935
2402.3438,-10.9998,-1.7703,-6.7465,-6.4108,-5.6620,-4.1286,-2.8091,-2.6139,0.1969,1.3142,-9.2406,-7.9647,-8.7332,-8.1369,0.4124,-2.5678,-6.0367,-11.1811,-8.3152
2406.2500,-1.8468,-5.9091,-6.3112,-7.9971,-6.1964,0.0098,-2.4036,-4.0024,-1.6808,4.7855,-10.6486,-9.5510,-11.0906,-8.7710,1.1440,-2.7579,-6.5446,-11.3440,-9.7758
2410.1562,3.5153,-8.6778,-6.0543,-8.8935,-6.6650,4.6143,-2.1768,-5.2668,-3.2153,6.2748,-10.5088,-10.0305,-12.6822,-8.7011,1.4462,-2.2750,-6.7627,-10.5957,-10.6960
2414.0625,2.4381,-9.0881,-5.7560,-8.6986,-6.8203,7.9410,-2.1028,-5.8696,-3.3986,5.0728,-9.1037,-9.2689,-12.9296,-7.7971,1.1296,-1.2981,-6.5475,-9.1245,-10.5911
2417.9688,-3.0178,-7.5054,-5.1897,-7.3600,-6.2921,9.0825,-1.9540,-5.5115,-2.4058,2.0759,-7.0926,-7.5795,-11.6928,-6.1152,0.5672,-0.1203,-5.8039,-7.3801,-9.2596
2421.8750,-8.1364,-5.3097,-4.4638,-5.2967,-4.9355,8.2754,-1.5691,-4.3380,-1.5190,-1.0476,-5.3544,-5.6157,-9.4605,-3.9638,0.2566,0.9190,-4.6872,-5.9987,-7.0486
2425.7812,-9.2196,-3.8630,-3.9832,-3.2260,-3.0530,6.5318,-1.0387,-2.8748,-2.0479,-3.0486,-4.5144,-4.0161,-7.1410,-1.8413,0.3673,1.5526,-3.6079,-5.4576,-4.7527
2429.6875,-6.0765,-3.5693,-4.0686,-1.7792,-1.2955,4.8902,-0.6595,-1.7175,-4.1029,-3.7635,-4.4799,-3.0427,-5.5462,-0.2590,0.6226,1.6888,-2.9880,-5.6958,-3.1832
2433.5938,-1.6100,-3.7337,-4.5777,-1.1624,-0.2979,3.8141,-0.6956,-1.1830,-6.2653,-3.8472,-4.4395,-2.4895,-4.9235,0.4483,0.5699,1.4194,-2.9499,-6.0482,-2.7037
2437.5000,0.8814,-3.2907,-4.8802,-1.1045,-0.3070,3.1166,-1.1376,-1.1618,-6.5332,-3.9205,-3.4734,-1.9455,-4.8818,0.2175,-0.0152,0.9176,-3.2071,-5.6373,-3.0586
2441.4062,0.3457,-1.7846,-4.2593,-1.1249,-1.0673,2.3807,-1.6538,-1.2666,-3.8868,-3.9204,-1.3905,-1.2118,-4.7732,-0.7714,-0.9256,0.3114,-3.2756,-4.0068,-3.6070
2445.3125,-1.5616,0.2014,-2.4592,-0.9123,-2.0297,1.4806,-1.7915,-1.1559,0.7434,-3.2219,0.8821,-0.5337,-4.2403,-2.1924,-1.6656,-0.3540,-2.8556,-1.5377,-3.7765
2449.2188,-2.4029,1.5080,0.0355,-0.5268,-2.7150,0.7676,-1.2917,-0.7876,4.9279,-1.4066,1.7822,-0.4436,-3.5026,-3.6570,-1.8090,-1.0301,-2.0798,0.6952,-3.4077
2453.1250,-1.4649,1.3536,2.2150,-0.2850,-2.9629,0.7783,-0.2922,-0.4186,6.3516,1.0282,0.2257,-1.3220,-3.1568,-4.7632,-1.2911,-1.5480,-1.4124,1.5709,-2.7655
2457.0312,-0.5850,-0.0298,3.1204,-0.4464,-2.9136,1.7237,0.7347,-0.3682,4.4018,2.7207,-3.4557,-3.0258,-3.6470,-5.1541,-0.4344,-1.6193,-1.2672,0.6307,-2.2623
2460.9375,-2.4859,-1.6215,2.3874,-0.9756,-2.7842,3.1976,1.2755,-0.7436,0.5222,2.3439,-7.5266,-4.9000,-4.8342,-4.6373,0.2746,-1.0199,-1.6537,-1.6593,-2.1406
2464.8438,-7.9697,-2.5147,0.4005,-1.5838,-2.6579,4.3699,1.1001,-1.3489,-2.9425,-0.2893,-9.9155,-6.1907,-6.0273,-3.3374,0.4717,0.1515,-2.1526,-4.2692,-2.3621
2468.7500,-14.3951,-2.7273,-2.0082,-2.0106,-2.4594,4.5409,0.3906,-1.8468,-4.5156,-3.8058,-9.6226,-6.5546,-6.4783,-1.7642,0.0759,1.3636,-2.2657,-6.3027,-2.7519
2472.6562,-16.9452,-3.2010,-4.0663,-2.2934,-2.1181,3.6335,-0.4113,-2.0373,-4.5890,-5.9721,-7.4251,-6.2665,-5.9734,-0.6781,-0.7313,1.8534,-1.8710,-7.5016,-3.2330
2476.5625,-11.9833,-4.9287,-5.4182,-2.7755,-1.7466,2.2390,-0.9270,-2.0266,-4.8830,-5.1150,-5.3094,-5.9556,-5.0560,-0.7494,-1.6314,1.0740,-1.4067,-8.1999,-3.9237
2480.4688,-0.0482,-7.9042,-6.1320,-3.8172,-1.6500,1.1696,-1.1006,-2.1458,-6.8126,-1.2904,-5.0075,-6.0785,-4.6839,-2.1794,-2.2947,-0.8908,-1.5990,-8.8238,-5.0069
2484.3750,13.8436,-10.7894,-6.4357,-5.4302,-2.1284,0.8520,-1.2067,-2.6779,-10.0967,3.6398,-6.7160,-6.5480,-5.5472,-4.5263,-2.4700,-3.2640,-2.9048,-9.3904,-6.4832
2488.2812,22.9907,-11.6778,-6.4388,-7.1432,-3.2158,1.0221,-1.6018,-3.6044,-12.7652,7.1107,-8.9731,-6.8259,-7.5384,-6.8875,-2.0641,-4.9682,-5.0787,-9.4479,-8.0285
2492.1875,23.0327,-9.4613,-6.0584,-8.2374,-4.5721,0.9528,-2.3989,-4.5687,-12.6186,7.4015,-9.8097,-6.4119,-9.7615,-8.3622,-1.2251,-5.2583,-7.2099,-8.5142,-9.0978
2496.0938,14.4548,-4.7939,-5.1714,-8.2058,-5.6349,0.0428,-3.3116,-5.0908,-9.0257,4.5964,-8.3171,-5.3369,-11.0820,-8.5219,-0.3716,-4.1829,-8.2389,-6.6420,-9.2238
2500.0000,1.9455,0.1121,-3.8358,-7.1069,-5.9468,-1.6762,-3.7995,-4.8817,-3.6398,0.3639,-5.4363,-4.2491,-10.8393,-7.5951,-0.0783,-2.5509,-7.6183,-4.6083,-8.3118
2503.9062,-8.7667,2.7795,-2.3905,-5.5531,-5.4350,-3.4958,-3.4395,-4.0372,0.5789,-3.2145,-3.3442,-3.9901,-9.2418,-6.2556,-0.8054,-1.4141,-5.6712,-3.5133,-6.7323
2507.8125,-14.2859,1.9735,-1.3557,-4.3403,-4.4552,-4.4842,-2.2781,-2.9845,1.3502,-4.9189,-3.8659,-4.9638,-7.2034,-5.1722,-2.6012,-1.4090,-3.4128,-4.0460,-5.1583
2511.7188,-14.8919,-1.6039,-1.2043,-3.9811,-3.5715,-4.1096,-0.9104,-2.2300,-1.3875,-4.9300,-7.0797,-6.7767,-5.7686,-4.6265,-4.9882,-2.4018,-1.9650,-5.9584,-4.2553
2515.6250,-13.2531,-5.8651,-2.1383,-4.4544,-3.2230,-2.5919,-0.1954,-2.0791,-5.5069,-4.3684,-11.1488,-8.4332,-5.5209,-4.4406,-7.1583,-3.6620,-1.9483,-8.1522,-4.3973
2519.5312,-11.8091,-8.6885,-3.9667,-5.3054,-3.4842,-0.7479,-0.7504,-2.4957,-8.2243,-4.2756,-13.5078,-8.9579,-6.3266,-4.2198,-8.3920,-4.4144,-3.2133,-9.3302,-5.5293
2523.4375,-10.8878,-9.1189,-6.1127,-5.9696,-4.0476,0.5422,-2.5229,-3.1550,-7.9722,-4.8003,-12.5497,-7.9976,-7.5021,-3.6946,-8.4300,-4.3604,-5.0129,-8.7520,-7.1908
2527.3438,-8.8243,-7.6657,-7.7357,-6.0656,-4.4090,0.8692,-4.7159,-3.6232,-5.2594,-5.1333,-8.6194,-5.9802,-8.2208,-2.9023,-7.5381,-3.8014,-6.4389,-6.5759,-8.6545
2531.2500,-3.7449,-5.6499,-7.9655,-5.4811,-4.1305,0.4828,-6.1468,-3.5495,-1.9937,-4.1664,-3.6611,-3.7472,-7.8893,-2.0982,-6.2217,-3.3064,-6.8321,-3.6018,-9.1380
2535.1562,4.4900,-4.1996,-6.2305,-4.2778,-3.0466,0.0433,-5.8664,-2.7927,0.0875,-1.3723,0.1473,-1.9654,-6.3287,-1.5119,-4.8183,-3.2045,-5.9744,-0.6755,-8.0706
2539.0625,13.6344,-3.6250,-2.5984,-2.5844,-1.3445,0.1418,-3.7022,-1.4671,0.6316,2.6911,1.7513,-0.7644,-3.7768,-1.1703,-3.3023,-3.3045,-4.0633,1.7684,-5.3699
2542.9688,20.0849,-3.5092,2.0496,-0.6094,0.4836,0.9110,-0.4223,0.0748,0.6655,6.5481,1.6386,0.1569,-0.8029,-0.9340,-1.4706,-3.0563,-1.5856,3.7160,-1.6189
2546.8750,20.7958,-3.2852,6.1890,1.2570,1.7895,1.9484,2.5851,1.3210,1.5129,8.5051,1.1398,1.0913,1.8074,-0.6973,0.6377,-2.0297,0.8161,5.2223,2.0046
2550.7812,14.8354,-2.7805,8.2085,2.4183,1.9859,2.5545,3.9580,1.7485,3.5859,7.4604,1.2517,1.9418,3.2322,-0.5564,2.4597,-0.3371,2.4847,6.0729,4.1196
2554.6875,3.7699,-2.3450,7.1487,2.2608,0.7887,2.1167,3.0042,1.0288,6.0153,3.4106,1.8984,2.2227,2.8939,-0.7766,3.0712,1.3332,2.9388,5.7987,3.7483
2558.5938,-9.1003,-2.5586,3.2398,0.5123,-1.5998,0.4346,0.0230,-0.7841,7.3460,-2.5421,2.1360,1.4581,0.7728,-1.5580,1.7690,2.1263,2.0930,4.0616,0.8521
2562.5000,-20.0397,-3.7921,-2.0944,-2.4521,-4.4693,-2.1408,-3.8371,-3.1906,6.6773,-8.6115,1.0568,-0.3339,-2.4280,-2.7805,-1.3038,1.5971,0.3833,1.0986,-3.5161
2566.4062,-26.0665,-5.9183,-6.8270,-5.6069,-6.8067,-4.7799,-7.0887,-5.3802,4.3380,-12.9629,-1.3513,-2.4560,-5.4449,-3.9416,-4.9711,0.0516,-1.3463,-2.1601,-7.5902
2570.3125,-25.7146,-8.2851,-9.2180,-7.6510,-7.6812,-6.4281,-8.5211,-6.5317,1.6246,-14.3173,-4.0474,-3.8198,-6.9575,-4.3711,-7.5025,-1.5954,-2.2176,-4.4484,-9.6472
2574.2188,-19.3488,-9.9071,-8.5294,-7.5879,-6.6443,-6.1829,-7.6403,-6.1431,-0.1088,-12.3507,-5.5838,-3.5411,-6.2116,-3.6004,-7.5360,-2.3644,-1.7838,-4.7925,-8.7678
2578.1250,-9.0675,-9.7918,-5.2057,-5.1947,-3.9375,-3.6975,-4.7739,-4.2263,-0.2756,-7.7876,-5.0698,-1.4634,-3.4187,-1.6482,-4.8977,-1.8087,-0.3071,-3.0116,-5.2122
2582.0312,1.8451,-7.3520,-0.4937,-1.1253,-0.3882,0.5419,-0.8552,-1.2789,0.7721,-2.1710,-2.7723,1.7172,0.3177,0.9580,-0.7917,-0.2805,1.3543,0.2130,-0.2386
2585.9375,9.9199,-2.8140,4.2035,3.3892,2.9569,5.2405,2.9682,1.9309,2.2094,2.6302,0.0386,4.7889,3.5329,3.4305,2.7860,1.2964,2.2125,3.7061,4.5031
2589.8438,12.7207,2.5847,7.8463,7.0569,5.2651,8.7124,5.7247,4.6406,3.3543,5.0389,1.8644,6.6096,5.0981,5.0790,4.0842,1.9939,1.7034,6.3489,7.6649
2593.7500,9.7832,6.8713,9.9338,8.9919,6.1941,9.5828,6.8790,6.3045,3.9468,4.3178,1.8570,6.6099,4.7068,5.5709,2.4940,1.4287,-0.0055,7.4984,8.6515
2597.6562,2.7826,8.1603,10.3884,8.9399,5.8977,7.4641,6.4153,6.6849,4.0046,0.8577,0.2680,4.9749,2.9115,4.9825,-1.1816,-0.0398,-2.1262,7.1121,7.6749
2601.5625,-5.2228,5.7095,9.3736,7.2341,4.8092,3.2285,4.7602,5.8478,3.5638,-3.9120,-1.7557,2.4706,0.7415,3.6672,-5.1874,-1.5572,-3.6941,5.6181,5.4832
2605.4688,-11.1228,0.5688,7.2161,4.5725,3.3675,-1.3284,2.5919,4.1073,2.6483,-7.9938,-2.8586,0.0543,-0.8435,2.0582,-7.7017,-2.2943,-4.0633,3.6773,2.9623
2609.3750,-13.0061,-4.7385,4.4275,1.7430,1.8453,-4.3095,0.5995,1.9442,1.4873,-9.5434,-2.2339,-1.5261,-1.3679,0.5099,-7.6566,-1.9093,-3.1756,1.9531,0.8037
2613.2812,-10.7604,-7.5139,1.6808,-0.6075,0.3418,-4.6059,-0.7356,-0.1086,0.6668,-7.6085,-0.0476,-1.9857,-0.9468,-0.7780,-5.1102,-0.6878,-1.4984,0.9225,-0.6589
2617.1875,-5.8504,-6.4665,-0.3632,-2.1127,-1.1091,-2.3780,-1.2628,-1.6099,0.8991,-2.6060,2.6625,-1.5413,-0.1064,-1.7675,-1.0771,0.6940,0.2691,0.7314,-1.4395
2621.0938,-0.5266,-2.5624,-1.3226,-2.7116,-2.4199,1.1194,-1.1437,-2.3372,2.4571,3.7002,4.5317,-0.7500,0.5309,-2.5410,3.0018,1.6040,1.5149,1.1336,-1.7687
2625.0000,3.0963,1.5124,-1.2661,-2.5614,-3.4037,4.2347,-0.7052,-2.3275,4.7190,8.7953,4.5657,-0.2271,0.5274,-3.2207,5.8459,1.8052,1.9046,1.5846,-1.9125
2628.9062,3.7266,3.0311,-0.6334,-1.8842,-3.8232,5.7211,-0.2465,-1.7983,6.3058,10.4191,2.6347,-0.3586,-0.2225,-3.8603,6.7356,1.5161,1.4096,1.5112,-2.0140
2632.8125,1.2016,0.9913,0.0660,-0.8359,-3.4997,5.2115,0.0948,-0.9951,5.8821,7.5767,-0.4868,-1.1325,-1.4922,-4.3521,5.6282,1.1735,0.2454,0.6470,-2.0248
2636.7188,-3.5756,-3.2118,0.5669,0.5189,-2.4217,3.1804,0.3460,-0.0671,3.1259,1.0754,-3.5473,-2.1656,-2.8270,-4.4179,3.0307,1.0789,-1.2033,-0.7632,-1.7594
2640.6250,-8.9863,-6.6827,0.9476,2.1107,-0.7986,0.5355,0.5959,0.9407,-0.8602,-6.7327,-5.4730,-2.9107,-3.6987,-3.7235,-0.2604,1.1771,-2.4487,-2.0520,-1.0431
2644.5312,-13.2262,-6.9142,1.4541,3.7399,0.9777,-1.8430,0.8754,1.9913,-4.0878,-12.9439,-5.8733,-2.9289,-3.6651,-2.0792,-3.4392,1.1127,-2.9906,-2.4871,0.1403
2648.4375,-14.8732,-3.4159,2.2094,5.0574,2.4651,-3.3594,1.1220,2.9565,-4.8844,-15.3827,-5.1128,-2.0777,-2.4998,0.3885,-5.9057,0.5175,-2.4588,-1.6857,1.6005
2652.3438,-13.3133,1.9733,3.0579,5.7210,3.3511,-3.7234,1.2484,3.6250,-2.9486,-13.5376,-3.9421,-0.5267,-0.2680,3.2099,-7.3740,-0.6786,-0.7762,0.1788,3.0304
2656.2500,-8.8944,6.2379,3.6719,5.6394,3.5920,-2.8875,1.2463,3.8352,0.4794,-8.6959,-2.9690,1.3670,2.6623,5.7239,-7.8707,-2.1379,1.7400,2.4989,4.1666
2660.1562,-2.8013,6.9840,3.8234,5.1086,3.4149,-1.0583,1.2169,3.6251,3.4572,-3.2502,-2.3541,3.2076,5.6743,7.3231,-7.6549,-3.2903,4.4217,4.5735,4.8930
2664.0625,3.2334,3.7096,3.5767,4.6783,3.1551,1.2190,1.2822,3.2525,4.5945,0.4163,-1.9242,4.6304,8.0176,7.6509,-7.1060,-3.6805,6.4540,5.9180,5.2074
2667.9688,7.2743,-2.1623,3.2284,4.7797,3.0043,3.0660,1.4394,3.0249,3.8488,0.8854,-1.5603,5.2950,8.9814,6.6583,-6.6152,-3.2506,7.1722,6.3530,5.0880
2671.8750,7.5913,-8.3169,3.0359,5.3592,2.8394,3.5295,1.4934,3.0448,2.3427,-1.9058,-1.4870,4.8968,8.1116,4.5369,-6.4912,-2.3652,6.3269,5.8835,4.3993
2675.7812,3.2129,-12.8270,2.9705,5.8135,2.2763,2.0679,1.1582,3.0731,1.4007,-6.8767,-2.1641,3.2853,5.4221,1.6279,-6.8741,-1.5622,4.1982,4.5515,2.9626
2679.6875,-5.4210,-14.8669,2.7205,5.3427,0.9587,-1.0049,0.2888,2.6575,1.5417,-12.3538,-3.8257,0.6583,1.5038,-1.6129,-7.6618,-1.2046,1.4992,2.4373,0.7789
2683.5938,-16.0448,-14.6060,1.9623,3.5298,-1.0916,-4.4681,-0.9251,1.4755,2.1504,-16.6389,-6.0494,-2.3277,-2.5715,-4.6113,-8.4905,-1.2727,-0.9002,-0.1893,-1.7661
2687.5000,-24.9067,-12.6430,0.6841,0.7496,-3.3207,-6.7022,-1.9792,-0.3407,2.0179,-18.4328,-7.7813,-4.7002,-5.5895,-6.7279,-8.8212,-1.4311,-2.3182,-2.7518,-3.9225
2691.4062,-28.1362,-9.5555,-0.7202,-1.9201,-4.8471,-6.5552,-2.3275,-2.1592,0.3130,-17.1352,-7.9182,-5.5853,-6.6739,-7.4366,-8.1499,-1.3037,-2.5264,-4.4850,-4.8941
2695.3125,-23.7392,-5.8621,-1.6929,-3.2844,-4.9477,-4.0760,-1.7559,-3.1661,-2.7297,-13.0660,-6.0896,-4.6912,-5.6864,-6.5779,-6.2736,-0.7487,-1.8045,-4.8049,-4.2971
2699.2188,-13.1385,-2.2339,-1.9217,-2.7532,-3.5278,-0.6241,-0.5947,-2.8639,-5.8782,-7.5340,-3.0595,-2.5455,-3.3108,-4.5147,-3.4737,0.0664,-0.7507,-3.7058,-2.4514
2703.1250,-1.0812,0.4345,-1.5876,-0.7154,-1.2444,1.7905,0.4136,-1.4170,-7.6492,-2.5668,-0.3886,-0.2796,-0.7301,-2.0327,-0.4790,0.8259,0.0651,-1.8680,-0.2669
2707.0312,6.4689,1.3141,-1.2330,1.7024,0.8370,1.6052,0.5476,0.4112,-7.2076,-0.2103,0.4764,0.9649,0.9616,0.0196,1.8185,1.3207,0.4138,-0.3255,1.2554
2710.9375,5.5226,0.1314,-1.3233,3.3356,1.8554,-1.3965,-0.4219,1.7071,-4.8350,-1.5938,-0.9145,0.6632,1.2887,1.1514,2.7724,1.5889,0.4990,0.1400,1.6043
2714.8438,-3.5326,-2.5411,-1.8413,3.6643,1.6378,-5.9313,-2.0425,1.9505,-1.7127,-6.2417,-3.7638,-0.8250,0.5591,1.4309,2.2911,1.8333,0.7553,-0.5197,1.0331
2718.7500,-15.9640,-5.4834,-2.2547,3.0130,0.7189,-9.9109,-3.4245,1.2831,0.7878,-12.1160,-6.5657,-2.5236,-0.4356,1.3110,0.8589,2.1908,1.4702,-1.6155,0.3210
2722.6562,-25.3662,-7.4403,-1.9312,2.1515,-0.1159,-11.5729,-3.7857,0.3275,1.8372,-16.5126,-8.0345,-3.4746,-0.9907,1.1875,-0.7527,2.5491,2.4730,-2.2317,0.1635
2726.5625,-27.4197,-7.7614,-0.7231,1.6103,-0.4417,-10.3755,-2.9504,-0.3073,1.4761,-17.3963,-7.7784,-3.3323,-0.9649,1.0086,-1.9133,2.5732,3.1211,-1.9202,0.6051
2730.4688,-22.3320,-6.6684,0.7320,1.2354,-0.5120,-7.1514,-1.4729,-0.4684,0.3987,-14.4237,-6.3151,-2.5449,-0.8586,0.2467,-2.4388,1.9376,2.6332,-1.0940,0.9232
2734.3750,-14.3331,-5.0189,1.2833,0.3285,-1.0361,-3.4893,-0.2907,-0.5292,-0.6157,-9.0394,-4.5439,-2.0254,-1.4473,-1.7021,-2.5883,0.5987,0.5895,-0.8160,0.0879
2738.2812,-8.5661,-3.7721,0.0102,-1.7094,-2.5562,-0.7810,-0.1211,-1.0343,-1.2451,-3.5929,-3.1542,-2.5398,-3.2073,-4.9420,-2.7705,-1.0967,-2.7085,-2.0829,-2.4679
2742.1875,-7.5220,-3.5015,-3.0240,-4.6963,-4.8706,0.4633,-0.9831,-2.1824,-1.7986,-0.0362,-2.3981,-4.1977,-5.8999,-8.7376,-3.1701,-2.5530,-6.2582,-5.0526,-6.2637
2746.0938,-9.5126,-4.1971,-6.5364,-7.4740,-6.9460,0.6618,-2.1524,-3.5353,-2.9077,0.9895,-2.2618,-6.3388,-8.5723,-11.6961,-3.5601,-3.2258,-8.7668,-8.7262,-9.7841
2750.0000,-10.2429,-5.3660,-8.5408,-8.4120,-7.4409,0.6425,-2.5827,-4.1946,-4.9138,0.1670,-2.7142,-7.8522,-9.9786,-12.4256,-3.4382,-2.8843,-9.2280,-11.3271,-11.1496
2753.9062,-6.3238,-6.2918,-7.3836,-6.3489,-5.5406,0.9826,-1.5377,-3.3585,-7.3435,-1.2643,-3.7003,-7.7239,-9.1824,-10.2963,-2.4037,-1.6804,-7.3478,-11.1942,-9.1023
2757.8125,1.8498,-6.3111,-2.7204,-1.3926,-1.5677,1.6649,0.9475,-0.8998,-8.8676,-2.4332,-4.8826,-5.5195,-6.0177,-5.8459,-0.5178,-0.0194,-3.6135,-7.6906,-3.7586
2761.7188,9.9974,-5.0502,4.1480,4.9421,3.0507,2.2316,4.0463,2.4309,-7.8919,-3.2584,-5.4780,-1.5873,-1.1864,-0.5723,1.6121,1.6495,0.9786,-1.6171,3.3087
2765.6250,12.7795,-2.6016,10.8067,10.3905,6.4762,2.2488,6.5636,5.3377,-3.5328,-4.1523,-4.5391,3.0727,4.0300,3.7751,3.1112,2.9806,5.3435,5.1042,9.7342
2769.5312,7.5816,0.4204,14.8619,13.0407,7.4165,1.6991,7.5480,6.6636,3.5836,-5.3503,-1.6394,7.1895,8.2824,6.0038,3.3269,3.7664,8.6491,10.3076,13.4345
2773.4375,-3.4288,3.0419,15.0724,12.2635,5.7836,1.0150,6.7508,6.0151,11.2709,-6.4761,2.5340,9.6927,10.6505,5.9499,2.2273,3.9119,10.4600,12.5616,13.5402
2777.3438,-14.4564,4.3371,11.8781,8.9543,2.6750,0.7579,4.6921,3.9504,16.6690,-6.7225,6.2608,10.1053,10.9163,4.3898,0.4490,3.4282,10.7071,11.7498,10.7071
2781.2500,-19.6785,3.9268,7.0677,4.9751,-0.2861,1.2101,2.3346,1.6295,17.6766,-5.5089,7.6830,8.7072,9.5234,2.4983,-1.0546,2.4655,9.5779,8.9840,6.6635
2785.1562,-16.8414,2.2719,2.8022,2.1353,-1.8439,2.1880,0.5721,0.1503,14.1189,-3.0717,6.0007,6.3895,7.2667,1.1918,-1.5604,1.3216,7.4051,5.9342,3.2602
2789.0625,-8.4637,0.5089,0.5489,1.2944,-1.7179,3.2004,-0.1793,-0.0258,7.9079,-0.4798,2.1074,4.2369,4.8771,0.7159,-0.9835,0.3544,4.5742,3.9552,1.5461
2792.9688,0.0393,-0.1540,0.4943,2.0637,-0.6081,3.8077,-0.0841,0.7670,2.0279,0.9995,-1.8797,3.0169,2.7128,0.6613,0.1099,-0.1901,1.4474,3.4768,1.3684
2796.8750,3.9038,0.8426,1.7037,3.2194,0.3480,3.9024,0.3283,1.7078,-1.0839,0.7460,-3.9517,2.8404,0.7224,0.3432,0.8994,-0.3201,-1.6758,3.9596,1.6866
2800.7812,1.8147,3.0284,2.8583,3.5302,0.3020,3.7127,0.5407,2.0373,-0.7823,-0.7733,-3.4863,3.1928,-1.3041,-0.7062,0.8674,-0.2790,-4.5279,4.3930,1.3777
2804.6875,-3.7737,5.1250,3.0885,2.4924,-0.8288,3.5548,0.3541,1.4930,1.6681,-2.3090,-1.5461,3.3316,-3.3632,-2.4137,0.1576,-0.3401,-6.7780,4.0074,0.0256
2808.5938,-8.7209,5.7553,2.4064,0.5578,-2.3837,3.5518,-0.0412,0.3882,4.1163,-2.6775,0.0289,2.8057,-5.0135,-4.1777,-0.5046,-0.5496,-7.9590,2.7607,-1.7966
2812.5000,-10.0417,4.2131,1.5263,-1.2296,-3.4191,3.5503,-0.2454,-0.6677,4.9614,-1.5589,0.0516,1.7537,-5.5059,-5.1973,-0.2965,-0.6271,-7.5441,1.3081,-2.9222
2816.4062,-7.5629,0.8412,1.2504,-1.9216,-3.2988,3.2949,0.0549,-1.1859,4.0364,0.3112,-1.1397,0.7734,-4.2510,-4.9303,1.1161,-0.1424,-5.2250,0.4991,-2.4057
2820.3125,-3.5037,-3.1662,1.8600,-1.2412,-2.0623,2.7107,0.8652,-1.0766,2.4123,1.6743,-2.0309,0.4501,-1.3467,-3.4270,3.2718,1.1214,-1.2736,0.7471,-0.2261
2824.2188,-0.5971,-6.3654,2.9117,0.2845,-0.3797,2.0501,1.8635,-0.6378,1.3837,1.6162,-1.2221,0.8846,2.2092,-1.3540,5.1051,2.8783,3.2730,1.7009,2.5861
2828.1250,-0.2410,-7.7046,3.5472,1.6721,0.8461,1.7614,2.5790,-0.3071,1.4494,0.1656,1.3500,1.5735,4.8482,0.3155,5.5410,4.3697,6.8340,2.4464,4.4910
2832.0312,-1.8855,-6.9002,3.0746,2.0570,0.9750,2.1528,2.6426,-0.3742,2.0412,-1.7629,4.2183,1.7438,5.1848,0.7844,4.1408,4.7512,7.9185,2.1056,4.3135
2835.9375,-3.8029,-4.4523,1.4175,1.1411,-0.0584,3.0977,1.9556,-0.8392,2.1315,-2.9940,5.3889,0.9058,2.7768,-0.1716,1.3998,3.6086,5.8749,0.4321,1.9016
2839.8438,-4.4223,-1.3911,-0.8545,-0.7198,-1.7658,4.0197,0.6970,-1.4745,1.1727,-2.8237,3.7855,-0.7820,-1.5792,-2.1116,-1.4909,1.2593,1.3157,-1.9994,-1.8257
2843.7500,-3.2127,1.1118,-2.8922,-2.7719,-3.4054,4.2109,-0.7958,-2.0003,-0.4072,-1.3694,0.0461,-2.6046,-6.2208,-4.1869,-3.2799,-1.3804,-4.0855,-4.1312,-5.4291
2847.6562,-0.6711,2.1638,-4.0422,-4.2543,-4.3629,3.2970,-2.1652,-2.2286,-1.5415,0.6321,-3.9165,-3.7696,-9.4526,-5.5963,-3.3062,-3.2905,-8.3634,-5.0534,-7.7095
2851.5625,2.2726,1.5158,-4.1099,-4.6928,-4.4054,1.5403,-3.1062,-2.0974,-1.4043,2.3563,-6.2344,-3.9137,-10.3448,-5.9760,-1.7885,-3.8858,-10.1756,-4.5051,-8.2016
2855.4688,4.7957,-0.2730,-3.2878,-3.9932,-3.7044,-0.2453,-3.3778,-1.6237,-0.1134,3.3462,-6.2831,-3.2659,-9.0425,-5.5109,0.3954,-3.2560,-9.3452,-2.9357,-7.1626
2859.3750,6.3092,-2.0320,-1.8971,-2.3869,-2.6710,-1.1469,-2.8252,-0.8689,1.3200,3.6126,-4.8970,-2.3715,-6.4659,-4.7301,2.2711,-1.9803,-6.7456,-1.1384,-5.1884
2863.2812,6.3400,-2.5720,-0.2054,-0.3388,-1.7309,-0.7088,-1.4677,0.0305,1.7679,3.4129,-3.5204,-1.6257,-3.6732,-4.1387,3.3133,-0.6838,-3.6608,0.2448,-2.8195
2867.1875,4.5768,-1.4344,1.5342,1.5328,-1.1636,0.7601,0.3832,0.8100,0.8863,2.9711,-3.0213,-1.0025,-1.3320,-3.9250,3.6558,0.3364,-1.0630,1.0007,-0.4181
2871.0938,1.2320,0.6698,2.9240,2.5735,-1.0504,2.3402,2.1040,1.1046,-0.5645,2.3821,-3.0974,-0.1945,0.3986,-3.9060,3.8775,1.1725,0.7507,1.2621,1.6845
2875.0000,-2.6131,2.1334,3.3906,2.3028,-1.3050,3.0439,2.9451,0.6108,-1.2448,1.7259,-2.6838,0.9682,1.6063,-3.7138,4.5350,2.0625,2.0042,1.2161,3.0264
2878.9062,-5.2071,1.4272,2.4384,0.6793,-1.7344,2.4261,2.3967,-0.6828,-0.2245,1.2035,-0.9742,2.1911,2.2832,-3.0710,5.7447,3.0685,2.9798,0.8910,3.0942
2882.8125,-5.0483,-1.7668,0.0733,-1.7448,-2.1006,0.8796,0.5395,-2.3637,2.2856,1.0907,1.7848,2.7859,2.2105,-1.9743,7.0557,3.9378,3.6342,0.2007,1.6586
2886.7188,-2.0275,-6.0552,-2.9404,-3.9551,-2.1869,-0.5817,-1.8740,-3.7062,4.9880,1.4957,4.3381,2.1277,1.1544,-0.6837,7.6650,4.2420,3.5728,-0.8221,-0.8951
2890.6250,2.1075,-8.9495,-5.2890,-4.9187,-1.8714,-0.9358,-3.7331,-4.0167,6.2884,2.1331,5.2426,0.1652,-0.8137,0.4461,6.8379,3.6722,2.3783,-1.8547,-3.5676
2894.5312,4.5658,-8.3576,-5.7728,-4.1330,-1.1867,0.2126,-4.1469,-3.0295,5.2658,2.3810,3.8233,-2.4125,-3.1557,1.1691,4.3133,2.2618,0.0297,-2.3760,-5.1828
2898.4375,3.3076,-4.0360,-4.0453,-1.9446,-0.3204,2.3765,-2.9509,-1.0981,2.1806,1.6825,0.5843,-4.5072,-5.0247,1.4595,0.5039,0.3875,-2.8964,-1.9950,-5.0277
2902.3438,-1.3338,2.0031,-0.9198,0.5982,0.4621,4.4778,-0.8095,0.9590,-1.7487,0.0538,-3.1441,-5.2314,-5.6564,1.4779,-3.5875,-1.4248,-5.3932,-0.7721,-3.2711
2906.2500,-6.4551,6.5186,2.0214,2.3063,0.9385,5.5073,1.1750,2.2842,-5.0678,-1.7089,-5.9808,-4.4024,-4.7528,1.4251,-6.7069,-2.7373,-6.4718,0.7305,-0.8651
2910.1562,-8.2125,6.9295,3.3154,2.4859,1.0146,5.1265,2.1078,2.4175,-6.8014,-2.3824,-7.1343,-2.6010,-2.6387,1.3690,-7.8316,-3.3342,-5.6464,1.7357,1.0061
2914.0625,-4.3927,2.8704,2.4430,1.2529,0.7108,3.8137,1.7853,1.4810,-6.7669,-1.1060,-6.5778,-0.8013,-0.1377,1.1408,-6.6265,-3.2266,-3.2126,1.6808,1.5536
2917.9688,3.7622,-3.6076,0.0531,-0.6643,0.0656,2.4589,0.7047,0.0143,-5.4370,1.8773,-4.8411,0.1437,1.7276,0.3673,-3.6852,-2.5976,-0.1894,0.4923,0.6781
2921.8750,11.8344,-9.3242,-2.5403,-2.4650,-0.9508,1.6844,-0.3832,-1.4002,-3.5812,5.0706,-2.7197,-0.1630,2.0662,-1.3465,-0.3972,-1.7594,2.0549,-1.4659,-1.2030
2925.7812,14.6457,-11.8838,-4.2215,-3.7700,-2.4148,1.3751,-1.0377,-2.4617,-1.9427,6.3797,-1.0861,-1.6329,0.3905,-4.1382,1.5857,-1.1133,2.3583,-3.6818,-3.5716
2929.6875,9.3869,-10.9536,-4.6930,-4.7312,-4.3021,0.7721,-1.3971,-3.2230,-1.0460,4.2758,-0.7349,-3.8522,-3.1897,-7.6408,1.1161,-1.0404,0.2965,-5.7657,-6.0915
2933.5938,-2.5230,-8.1211,-4.4593,-5.7218,-6.3239,-0.9031,-1.9638,-3.9066,-1.0801,-1.2062,-2.0982,-6.2338,-7.8807,-10.9299,-1.8001,-1.6982,-3.5315,-7.4981,-8.5484
2937.5000,-16.0762,-5.5478,-4.2624,-6.8871,-7.9052,-3.7186,-3.0894,-4.6377,-1.8124,-8.2626,-4.8631,-8.0840,-12.3099,-12.7749,-5.8523,-2.8251,-7.6374,-8.6769,-10.5770
2941.4062,-25.4432,-4.4466,-4.4504,-7.9228,-8.3936,-6.7348,-4.5715,-5.3050,-2.6076,-14.0958,-7.8051,-8.6819,-14.9061,-12.1562,-8.9536,-3.7347,-10.2188,-8.9854,-11.5230
2945.3125,-27.1411,-4.4569,-4.7713,-8.2572,-7.4183,-8.4204,-5.6953,-5.6368,-2.6776,-16.2770,-9.1816,-7.5060,-14.5119,-8.8310,-9.2665,-3.6146,-9.9793,-8.0866,-10.6904
2949.2188,-21.6686,-4.2672,-4.7117,-7.4901,-5.1774,-7.5757,-5.7154,-5.4120,-1.5474,-13.9557,-7.6762,-4.5807,-10.9821,-3.6275,-6.2166,-2.0278,-6.8105,-5.9333,-7.8742
2953.1250,-12.7338,-2.9058,-4.0533,-5.7377,-2.4377,-4.1829,-4.4266,-4.6281,0.5156,-8.2613,-3.3783,-0.7036,-5.4166,1.7620,-0.9093,0.6901,-1.9426,-3.0376,-3.7664
2957.0312,-4.7699,-0.6574,-3.1427,-3.6087,-0.1939,0.4053,-2.3858,-3.5039,2.4736,-1.7004,1.9377,2.7337,0.2098,5.4670,4.3510,3.4533,2.5919,-0.3993,0.1729
2960.9375,-0.4371,1.1003,-2.6141,-1.8225,0.8350,4.1247,-0.5908,-2.3305,3.0615,3.0946,5.6207,4.3845,3.9244,6.2857,7.2408,4.9502,4.9545,0.9790,2.4310
2964.8438,0.3790,0.9943,-2.7720,-0.7535,0.5675,5.3446,0.1793,-1.3002,1.6570,4.5911,5.6819,3.7376,4.7026,4.2395,6.6599,4.4013,4.4291,0.7275,2.3351
2968.7500,-0.2806,-1.1702,-3.1569,-0.2400,-0.4488,3.8033,-0.1064,-0.4453,-1.1036,2.9462,2.1049,1.5359,2.9407,0.5152,3.3206,2.0738,1.7489,-0.5548,0.5129
2972.6562,-0.2631,-4.0778,-2.7233,0.2097,-1.4124,0.7450,-0.7213,0.2833,-3.4851,-0.2717,-2.9976,-0.5461,0.1605,-3.1812,-0.6739,-0.8105,-1.3746,-1.5695,-1.4531
2976.5625,1.2708,-5.6968,-0.5916,0.9827,-1.7617,-1.8341,-0.7157,0.8834,-3.6306,-3.0073,-6.5852,-0.8671,-1.8922,-5.4851,-3.0329,-2.7597,-3.2370,-1.0979,-2.0082
2980.4688,3.6475,-4.6495,3.1406,2.0326,-1.4672,-2.3699,0.3762,1.2426,-0.7947,-3.7762,-6.5211,1.1377,-2.2105,-5.9513,-2.5589,-2.8719,-3.0465,1.1836,-0.6152
2984.3750,5.5341,-1.1821,7.1649,2.9083,-0.9378,-0.6218,2.1635,1.2140,4.0033,-2.3354,-2.8486,4.5193,-0.9752,-5.0417,0.2410,-1.3213,-1.2216,4.4009,1.9173
2988.2812,5.9780,2.9546,9.5886,3.1201,-0.6256,2.2532,3.6393,0.7782,8.4272,0.3145,2.3192,7.3170,0.7479,-3.5950,3.5518,0.8337,1.0406,6.9354,4.0075
2992.1875,4.8415,5.6335,9.0923,2.5706,-0.6181,4.4524,3.8808,0.1638,10.1798,2.5391,6.1911,7.7255,1.8137,-2.1758,5.3797,2.3754,2.5804,7.3832,4.3976
2996.0938,2.5090,5.7100,5.8740,1.7265,-0.5150,4.6181,2.7258,-0.1843,8.4238,2.9519,7.0182,5.2096,1.7503,-0.7511,4.7099,2.6838,2.9195,5.4306,3.0329
3000.0000,-0.6244,3.6969,1.7077,1.3875,0.3068,2.6038,0.9460,0.1967,4.3343,1.1290,5.0213,0.8646,0.9765,1.1062,2.0064,2.0298,2.3519,2.0940,1.1188
3003.9062,-4.2982,1.3351,-1.0001,2.1805,2.2039,-0.5060,-0.2228,1.5143,0.3948,-2.1881,2.0081,-3.1938,0.3882,3.6623,-1.1885,1.2476,1.5144,-0.8301,0.3050
