Time,Fp1,F3,C3,P3,O1,F7,T3,T5,Fz,Fp2,F4,C4,P4,O2,F8,T4,T6,Cz,Pz
0.0000,-2.3920,-5.3038,-3.5827,-1.4812,1.3239,-2.2783,-2.2994,1.2554,-3.4237,-2.8774,-3.8634,-5.7133,-4.2201,-0.2182,-5.0385,-4.0294,-2.9762,-4.4220,-2.3238
3.9062,-2.6504,-5.9658,-5.3973,-3.3703,0.2922,-3.1133,-1.3142,-0.0636,-4.5634,-3.2767,-5.3429,-6.5622,-4.9725,-1.5660,-5.7160,-4.1430,-3.6071,-5.8341,-4.1657
7.8125,-3.0240,-6.3657,-7.2929,-5.8694,-1.1962,-4.0653,0.6402,-2.1097,-5.7942,-3.6041,-6.8714,-7.2585,-5.5884,-3.4881,-6.0078,-4.2752,-4.3454,-7.2537,-6.4812
11.7188,-3.4240,-6.1936,-8.7033,-8.3307,-2.9129,-4.8463,2.7843,-4.5765,-6.4923,-3.6607,-7.7395,-7.2514,-5.7308,-5.5203,-5.4593,-4.1079,-4.8853,-8.0790,-8.6160
15.6250,-3.6812,-5.2824,-9.2276,-10.0133,-4.4730,-5.1687,4.0203,-6.8921,-6.1327,-3.3247,-7.4185,-6.1414,-5.1763,-7.0051,-3.9446,-3.3082,-4.9019,-7.8756,-9.8617
19.5312,-3.5861,-3.6960,-8.7706,-10.3973,-5.4519,-4.8531,3.5942,-8.4071,-4.5966,-2.6107,-5.8810,-3.9310,-3.9178,-7.3887,-1.8206,-1.8027,-4.2286,-6.5943,-9.7633
23.4375,-2.9949,-1.7384,-7.5121,-9.3850,-5.5492,-3.9026,1.6093,-8.6562,-2.2842,-1.6713,-3.6635,-1.0853,-2.1683,-6.5109,0.1785,0.0638,-2.9699,-4.5891,-8.3161
27.3438,-1.9620,0.1306,-5.7518,-7.2926,-4.7285,-2.5140,-0.9590,-7.5740,0.0453,-0.7472,-1.6145,1.6471,-0.2727,-4.7135,1.2790,1.6403,-1.4662,-2.4331,-5.9502
31.2500,-0.8013,1.4575,-3.7509,-4.6657,-3.2631,-1.0204,-2.7820,-5.5513,1.6296,-0.0853,-0.4624,3.5637,1.4172,-2.6884,1.0617,2.3300,-0.1287,-0.6484,-3.3251
35.1562,0.0092,1.9851,-1.6644,-2.0429,-1.6519,0.2220,-2.9137,-3.2893,2.0631,0.1522,-0.4523,4.3062,2.6382,-1.1414,-0.2992,1.9792,0.7519,0.5011,-1.0505
39.0625,0.0791,1.7891,0.4167,0.2012,-0.4343,0.9667,-1.2941,-1.5114,1.4718,-0.0328,-1.2571,3.9702,3.2482,-0.4622,-2.0867,1.0207,1.1045,1.0581,0.5210
42.9688,-0.6145,1.2826,2.3838,1.8844,0.0147,1.1782,1.2689,-0.6669,0.4215,-0.4434,-2.2006,2.9889,3.2120,-0.5869,-3.3592,0.2413,1.0369,1.2722,1.3497
46.8750,-1.6111,1.0534,4.0696,2.9562,-0.3819,1.0504,3.5943,-0.7729,-0.3749,-0.7351,-2.6443,1.8821,2.5823,-1.1178,-3.3750,0.2948,0.7143,1.4345,1.6224
50.7812,-2.1411,1.5897,5.2879,3.4335,-1.4033,0.9198,4.7715,-1.4679,-0.3891,-0.5504,-2.3061,1.0254,1.5048,-1.6068,-1.9160,1.2693,0.2615,1.7455,1.6064
54.6875,-1.5404,3.0245,5.9189,3.3863,-2.6542,1.0990,4.5743,-2.2382,0.5181,0.3039,-1.3357,0.5564,0.2343,-1.8173,0.6367,2.6029,-0.2412,2.2669,1.5316
58.5938,0.3285,5.0424,5.9730,2.9586,-3.7467,1.7071,3.4489,-2.6858,2.0986,1.7320,-0.1350,0.4331,-0.8817,-1.8113,3.4970,3.4212,-0.6964,2.9511,1.5412
62.5000,2.9275,7.0187,5.5853,2.3716,-4.4510,2.5914,2.1545,-2.6953,3.8948,3.3680,0.9427,0.5715,-1.4846,-1.8369,5.8327,3.0964,-0.9487,3.7079,1.6988
66.4062,5.2993,8.3270,4.9503,1.8671,-4.7494,3.3967,1.3145,-2.4237,5.4819,4.7578,1.8206,0.9587,-1.3347,-2.1178,7.1234,1.6764,-0.8349,4.4652,2.0113
70.3125,6.6038,8.6503,4.2431,1.6094,-4.7858,3.7549,1.1384,-2.1435,6.6495,5.6140,2.7259,1.6801,-0.4240,-2.6934,7.3608,-0.0836,-0.2996,5.2012,2.4380
74.2188,6.6089,8.1205,3.5777,1.6108,-4.7512,3.4949,1.4244,-2.0543,7.4446,5.9847,4.0148,2.8609,1.0083,-3.4010,7.0124,-1.1105,0.5261,5.9399,2.8935
78.1250,5.8169,7.2156,3.0144,1.7408,-4.7713,2.7478,1.7810,-2.1742,8.0744,6.2094,5.9094,4.5673,2.5871,-3.9806,6.7738,-0.5876,1.3753,6.7204,3.2677
82.0312,5.1343,6.4891,2.5954,1.8287,-4.8471,1.8792,1.9029,-2.3592,8.7390,6.6700,8.3011,6.7268,3.9929,-4.2083,7.2239,1.6179,2.0208,7.5558,3.4802
85.9375,5.2887,6.3008,2.3778,1.7996,-4.8664,1.2850,1.7496,-2.4089,9.4902,7.4920,10.7321,9.1072,5.1244,-3.9711,8.5415,4.9053,2.4554,8.4102,3.5510
89.8438,6.3709,6.7026,2.4481,1.7583,-4.6662,1.1755,1.5504,-2.1722,10.1973,8.4071,12.5696,11.3679,6.1359,-3.2618,10.4158,8.2716,2.9332,9.2159,3.6439
93.7500,7.7916,7.5127,2.9198,1.9609,-4.1125,1.4797,1.6615,-1.5897,10.6360,8.8956,13.2899,13.1758,7.3181,-2.1394,12.1978,10.8195,3.8151,9.9281,4.0365
97.6562,8.6722,8.4908,3.9142,2.6839,-3.1614,1.9260,2.3581,-0.6713,10.6460,8.5334,12.7348,14.3427,8.8925,-0.7141,13.2184,12.1653,5.3103,10.5804,5.0052
101.5625,8.4006,9.4727,5.5160,4.0615,-1.8837,2.2410,3.6686,0.5378,10.2564,7.3159,11.2108,14.9229,10.8405,0.8337,13.1154,12.5472,7.2919,11.2867,6.6680
105.4688,6.9928,10.3838,7.6996,5.9776,-0.4487,2.3317,5.3322,1.9566,9.6950,5.7233,9.3722,15.2043,12.8716,2.2426,12.0004,12.6061,9.3241,12.1639,8.8651
109.3750,5.0491,11.1613,10.2493,8.0727,0.9249,2.3310,6.9018,3.4323,9.2675,4.4625,7.9371,15.5668,14.5513,3.2236,10.3805,12.9749,10.8867,13.2093,11.1558
113.2812,3.3732,11.6884,12.7305,9.8648,2.0326,2.4847,7.9429,4.7195,9.1820,4.0420,7.3749,16.2582,15.5132,3.5797,8.8894,13.8969,11.6469,14.2232,12.9607
117.1875,2.5295,11.8257,14.5734,10.9289,2.7432,2.9650,8.2272,5.5258,9.4335,4.4644,7.7275,17.2097,15.6363,3.3268,7.9830,15.0690,11.5976,14.8597,13.7992
121.0938,2.6201,11.5301,15.2755,11.0567,3.0286,3.7417,7.8175,5.6249,9.8344,5.2483,8.6596,18.0159,15.0881,2.7238,7.7716,15.7946,10.9876,14.8094,13.5102
125.0000,3.3717,10.9591,14.6421,10.3254,2.9546,4.5979,7.0067,4.9758,10.1703,5.7678,9.7020,18.1257,14.2180,2.1637,8.0648,15.3737,10.1208,14.0122,12.3351
128.9062,4.4067,10.4480,12.9245,9.0480,2.6347,5.2713,6.1554,3.7647,10.3705,5.6770,10.5351,17.1594,13.3658,1.9716,8.5686,13.5287,9.1836,12.7482,10.8023
132.8125,5.4705,10.3345,10.7425,7.6271,2.1722,5.6179,5.5293,2.3289,10.5577,5.1278,11.1285,15.1664,12.6930,2.2252,9.0836,10.6305,8.2137,11.5137,9.4638
136.7188,6.4683,10.7282,8.7972,6.3807,1.6225,5.6855,5.2212,1.0065,10.9236,4.6350,11.6521,12.6582,12.1253,2.7090,9.5698,7.5762,7.1949,10.7318,8.6195
140.6250,7.3414,11.3822,7.5200,5.4252,0.9980,5.6532,5.1730,0.0036,11.5091,4.6899,12.2280,10.3767,11.4266,3.0350,10.0549,5.3581,6.1661,10.4768,8.1882
144.5312,7.9362,11.7800,6.8683,4.6727,0.3104,5.6913,5.2491,-0.6399,12.0547,5.3965,12.7174,8.9247,10.3598,2.8560,10.4810,4.5468,5.2344,10.4075,7.7999
148.4375,8.0065,11.4117,6.4051,3.9419,-0.3810,5.8454,5.2981,-0.9818,12.0598,6.3809,12.7176,8.4757,8.8432,2.0462,10.6336,4.9879,4.4866,9.9751,7.0589
152.3438,7.3623,10.0827,5.6226,3.1137,-0.9564,6.0219,5.1867,-1.0784,11.0507,7.0263,11.8004,8.7258,7.0195,0.7518,10.2266,5.9009,3.8904,8.7855,5.8115
156.2500,6.0449,8.0628,4.3055,2.2304,-1.2763,6.0725,4.8327,-0.9456,8.9006,6.8620,9.8363,9.0992,5.2028,-0.7001,9.0949,6.3384,3.2949,6.8746,4.2515
160.1562,4.3816,5.9679,2.6902,1.4689,-1.2627,5.9041,4.2588,-0.6115,5.9860,5.8361,7.1683,9.0590,3.7308,-1.9620,7.3509,5.7346,2.5495,4.7033,2.7915
164.0625,2.8602,4.4317,1.3054,0.9974,-0.9683,5.5296,3.6371,-0.2113,3.0488,4.3025,4.4817,8.3361,2.7988,-2.8014,5.3750,4.2092,1.6540,2.8659,1.7856
167.9688,1.8955,3.7530,0.5941,0.8105,-0.5862,5.0300,3.2499,-0.0253,0.8260,2.7581,2.4289,6.9653,2.3633,-3.1522,3.6277,2.4423,0.8099,1.7073,1.2850
171.8750,1.6313,3.7309,0.5779,0.6636,-0.3800,4.4703,3.3311,-0.3979,-0.3340,1.5324,1.2479,5.1651,2.1661,-3.0891,2.3982,1.2082,0.3151,1.1103,0.9935
175.7812,1.8921,3.7904,0.8034,0.1755,-0.5646,3.8473,3.8529,-1.5606,-0.6287,0.6453,0.6374,3.1855,1.8675,-2.7687,1.6597,0.8767,0.3651,0.6033,0.4553
179.6875,2.2977,3.3334,0.6288,-0.9418,-1.2016,3.1181,4.4239,-3.4638,-0.6312,-0.0961,-0.0132,1.2347,1.2177,-2.3772,1.1347,1.2035,0.9024,-0.2866,-0.6453
183.5938,2.4603,2.1164,-0.3290,-2.6631,-2.1690,2.2878,4.4341,-5.7303,-0.9062,-0.8626,-1.1832,-0.5023,0.1762,-2.0921,0.5290,1.5380,1.6214,-1.6774,-2.2670
187.5000,2.1608,0.4336,-1.8902,-4.5863,-3.2235,1.4833,3.4267,-7.7739,-1.6573,-1.6202,-2.8618,-1.8257,-1.0818,-2.0438,-0.2262,1.2949,2.1280,-3.2178,-4.0187
191.4062,1.4303,-1.0102,-3.3691,-6.0898,-4.1209,0.9386,1.4766,-9.0297,-2.6271,-2.1292,-4.5150,-2.5393,-2.2665,-2.2738,-0.8913,0.3691,2.1404,-4.2938,-5.3806
195.3125,0.5265,-1.4751,-3.9796,-6.6399,-4.7275,0.8833,-0.7152,-9.1821,-3.2987,-2.1132,-5.4017,-2.5358,-3.1185,-2.7104,-1.0577,-0.7794,1.6037,-4.4146,-5.9958
199.2188,-0.1763,-0.6102,-3.3364,-6.0787,-5.0655,1.3947,-2.1486,-8.2823,-3.2527,-1.4646,-5.0335,-1.8792,-3.5159,-3.1934,-0.4241,-1.4188,0.6630,-3.5255,-5.8501
203.1250,-0.3435,1.3138,-1.7291,-4.7257,-5.2754,2.3134,-2.1195,-6.7169,-2.4456,-0.3415,-3.4831,-0.8088,-3.4957,-3.5569,0.9717,-1.0197,-0.4567,-2.0503,-5.2452
207.0312,0.1601,3.4986,0.0163,-3.2317,-5.5263,3.2837,-0.7029,-5.0583,-1.2411,0.8992,-1.3592,0.3533,-3.1996,-3.7297,2.7135,0.3937,-1.5642,-0.6530,-4.6073
210.9375,1.1702,4.9973,1.0059,-2.2645,-5.9292,3.9083,1.2276,-3.8678,-0.1998,1.8750,0.5152,1.3253,-2.7965,-3.7897,4.1893,2.2262,-2.5429,0.1174,-4.2670
214.8438,2.2452,5.1789,0.7841,-2.2005,-6.4956,3.9309,2.4981,-3.5207,0.2214,2.3402,1.5010,1.9361,-2.4310,-3.9224,4.8875,3.6276,-3.3221,0.0775,-4.3415
218.7500,2.8353,4.0275,-0.4388,-2.9870,-7.1523,3.3468,2.3402,-4.0999,-0.1277,2.2519,1.3886,2.1135,-2.2113,-4.3009,4.6351,3.9475,-3.8376,-0.5761,-4.7572
222.6562,2.5457,2.1204,-1.9669,-4.2316,-7.7892,2.3839,0.8319,-5.3833,-1.0829,1.7308,0.3867,1.8381,-2.2115,-4.9593,3.6524,3.0729,-4.0268,-1.4579,-5.3555
226.5625,1.3598,0.3084,-3.0739,-5.4480,-8.3084,1.3743,-1.2229,-6.9318,-2.3120,0.9727,-1.0707,1.1409,-2.4574,-5.7481,2.4119,1.4791,-3.8610,-2.2450,-5.9873
230.4688,-0.3142,-0.7139,-3.4303,-6.3058,-8.6511,0.5955,-2.8748,-8.2569,-3.4918,0.1709,-2.5408,0.1640,-2.8954,-6.4073,1.3971,-0.0144,-3.3782,-2.8290,-6.5419
234.3750,-1.8281,-0.7122,-3.2362,-6.7499,-8.8019,0.1670,-3.6443,-9.0124,-4.4089,-0.5204,-3.6916,-0.7870,-3.3783,-6.7145,0.8968,-0.6463,-2.6887,-3.3038,-6.9272
238.2812,-2.6215,0.0571,-3.0039,-6.9447,-8.7797,0.0433,-3.7333,-9.1268,-4.9595,-0.9957,-4.3180,-1.3005,-3.7075,-6.6122,0.9294,-0.0781,-1.9562,-3.8311,-7.0575
242.1875,-2.5079,1.0672,-3.1677,-7.1086,-8.6275,0.0870,-3.7169,-8.8086,-5.1092,-1.2029,-4.3265,-1.0604,-3.7316,-6.2325,1.3065,1.4418,-1.3770,-4.4936,-6.8878
246.0938,-1.7505,1.8291,-3.8039,-7.3592,-8.4043,0.1626,-3.9933,-8.4176,-4.8815,-1.1492,-3.7561,-0.0927,-3.4521,-5.8094,1.7718,3.1852,-1.1634,-5.2310,-6.4740
250.0000,-0.8857,2.0970,-4.6455,-7.6683,-8.1769,0.1960,-4.4424,-8.2721,-4.3923,-0.8980,-2.8232,1.1250,-3.0609,-5.5449,2.1254,4.2703,-1.5107,-5.8857,-6.0036
253.9062,-0.4123,1.8798,-5.3521,-7.9395,-8.0113,0.1776,-4.5598,-8.5026,-3.8784,-0.5463,-1.9192,1.8231,-2.8701,-5.5206,2.2751,4.0637,-2.5226,-6.3164,-5.7509
257.8125,-0.5344,1.3102,-5.8136,-8.1380,-7.9641,0.1290,-3.9370,-9.0306,-3.6517,-0.1915,-1.5009,1.3264,-3.1616,-5.7060,2.2074,2.4690,-4.1156,-6.4992,-5.9647
261.7188,-1.0971,0.5083,-6.2413,-8.3616,-8.0751,0.0700,-2.6800,-9.6648,-3.9619,0.0925,-1.8912,-0.5428,-4.0408,-6.0375,1.9239,-0.0391,-5.9693,-6.5514,-6.7450
265.6250,-1.7167,-0.4437,-6.9632,-8.7862,-8.3568,0.0121,-1.4081,-10.2278,-4.8280,0.2605,-3.0941,-3.2978,-5.3759,-6.4928,1.3998,-2.6540,-7.5916,-6.6541,-7.9751
269.5312,-1.9962,-1.4148,-8.0683,-9.5077,-8.7784,-0.0222,-0.8197,-10.6163,-5.9487,0.2924,-4.7371,-5.9795,-6.8498,-7.0917,0.6069,-4.6246,-8.5046,-6.9123,-9.3407
273.4375,-1.6947,-2.1324,-9.1722,-10.3864,-9.2452,0.0190,-1.1684,-10.7670,-6.7733,0.2037,-6.1910,-7.6006,-8.0804,-7.8243,-0.4083,-5.5766,-8.4567,-7.2314,-10.4229
277.3438,-0.7907,-2.2074,-9.5144,-11.0159,-9.5907,0.2060,-2.0728,-10.5838,-6.7259,0.0736,-6.8140,-7.5892,-8.7379,-8.5681,-1.4404,-5.5928,-7.5297,-7.2961,-10.8244
281.2500,0.5354,-1.3169,-8.3751,-10.8753,-9.6028,0.5796,-2.8154,-9.9218,-5.4815,0.0631,-6.2062,-5.9905,-8.6122,-9.0762,-2.1114,-5.0304,-6.0640,-6.6969,-10.2901
285.1562,1.9476,0.5480,-5.5696,-9.6068,-9.0921,1.0900,-2.8918,-8.6723,-3.1566,0.3808,-4.3649,-3.3629,-7.6409,-9.0689,-1.9753,-4.2213,-4.4539,-5.1681,-8.8004
289.0625,3.0149,2.9402,-1.7010,-7.2651,-7.9844,1.5642,-2.3649,-6.8922,-0.3122,1.1786,-1.6971,-0.4871,-5.9297,-8.3843,-0.7274,-3.2768,-2.9622,-2.8170,-6.6121
292.9688,3.3170,5.0497,2.0224,-4.3796,-6.3888,1.7416,-1.7350,-4.8639,2.2372,2.4214,1.0999,1.9120,-3.7758,-7.0931,1.5732,-2.1302,-1.6849,-0.1972,-4.2221
296.8750,2.6126,6.0302,4.3356,-1.7617,-4.5937,1.3832,-1.4358,-3.0037,3.7262,3.8151,3.2423,3.3156,-1.6547,-5.4968,4.3987,-0.7614,-0.6701,1.8650,-2.2294
300.7812,1.0139,5.4075,4.5365,-0.1361,-2.9740,0.4140,-1.3803,-1.6497,3.7249,4.8709,4.0994,3.4515,-0.1100,-3.9988,6.8646,0.5998,-0.0574,2.6457,-1.1172
304.6875,-0.9574,3.3533,2.8346,0.2113,-1.8432,-0.9724,-0.9601,-0.8667,2.2969,5.1060,3.4144,2.3211,0.4567,-2.9149,8.0563,1.4929,-0.0799,1.9218,-1.0342
308.5938,-2.5358,0.6662,0.2384,-0.4255,-1.3209,-2.3219,0.4565,-0.4110,-0.0225,4.2919,1.4372,0.2583,0.0122,-2.3287,7.4381,1.4971,-0.8810,0.1615,-1.6924
312.5000,-3.0692,-1.5488,-1.9463,-1.3270,-1.2863,-3.0695,2.8956,0.1025,-2.4124,2.6082,-1.1092,-2.0476,-1.0158,-2.0668,5.1451,0.5730,-2.2798,-1.6354,-2.4668
316.4062,-2.3849,-2.3589,-2.7299,-1.7175,-1.4417,-2.7885,5.5243,0.9340,-4.0455,0.6032,-3.2592,-3.6872,-1.8835,-1.8018,1.9863,-0.7913,-3.6986,-2.4009,-2.6801
320.3125,-0.9250,-1.4153,-1.8505,-1.1489,-1.4541,-1.4286,7.0291,2.0338,-4.3641,-1.0372,-4.1741,-3.8615,-1.8840,-1.2228,-0.8703,-1.7817,-4.3761,-1.5361,-1.9388
324.2188,0.4775,0.8940,0.1990,0.3046,-1.1015,0.5865,6.4180,3.0643,-3.2590,-1.7917,-3.4931,-2.2770,-0.7242,-0.1868,-2.3937,-1.7143,-3.7797,0.7732,-0.3357
328.1250,1.0789,3.6224,2.4934,2.1324,-0.3573,2.4877,3.7086,3.6146,-1.0875,-1.5184,-1.4819,0.6431,1.3020,1.2194,-2.1230,-0.4536,-1.9494,3.6492,1.6061
332.0312,0.6792,5.6940,4.1501,3.6873,0.6167,3.4881,0.0236,3.4602,1.4808,-0.4715,1.1164,3.9172,3.4751,2.7254,-0.3232,1.4956,0.4792,5.9839,3.2231
335.9375,-0.2412,6.3925,4.7156,4.5235,1.5529,3.1739,-2.9901,2.6985,3.7359,0.8785,3.4627,6.5001,5.0649,4.0044,2.2046,3.3004,2.6246,7.0225,4.0739
339.8438,-0.8011,5.6870,4.3068,4.5938,2.1901,1.7585,-4.0455,1.6835,5.2084,2.1059,5.0262,7.8400,5.7539,4.8212,4.5417,4.3183,3.8688,6.7456,4.1626
343.7500,-0.2459,4.2437,3.4816,4.2203,2.3714,0.0460,-2.8512,0.8209,5.8384,3.0269,5.7877,8.1519,5.8023,5.1370,6.0701,4.4798,4.1971,5.8434,3.9011
347.6562,1.6021,3.1082,2.9363,3.8813,2.0975,-0.9141,-0.1380,0.3649,5.9534,3.7292,6.1371,8.2233,5.8522,5.1211,6.6790,4.2879,4.1472,5.3041,3.8417
351.5625,4.2391,3.2005,3.1778,3.9451,1.5210,-0.3348,2.8651,0.3311,6.0631,4.4381,6.5512,8.8684,6.4953,5.0602,6.6850,4.4455,4.4149,5.8524,4.3501
355.4688,6.7592,4.8609,4.3062,4.4868,0.8833,1.8884,5.1180,0.5431,6.5736,5.3115,7.2695,10.3817,7.8824,5.1979,6.5534,5.3703,5.3929,7.5517,5.4069
359.3750,8.3219,7.6667,5.9873,5.2686,0.4113,5.0694,6.1942,0.7486,7.5665,6.2905,8.1679,12.3411,9.6210,5.5854,6.6052,6.9203,6.9462,9.7808,6.6400
363.2812,8.5211,10.6156,7.6150,5.8722,0.2105,8.0106,6.2621,0.7227,8.7576,7.0953,8.8860,13.8765,11.0145,6.0262,6.8738,8.4938,8.5456,11.5805,7.5448
367.1875,7.4733,12.5840,8.5845,5.9081,0.2087,9.5415,5.7574,0.3272,9.6531,7.3664,9.0956,14.2167,11.4791,6.1636,7.1654,9.4151,9.6286,12.1669,7.7501
371.0938,5.6430,12.8281,8.5522,5.1998,0.1888,9.0541,5.0395,-0.4621,9.8127,6.8715,8.7150,13.1555,10.8706,5.6799,7.2464,9.3374,9.9222,11.3215,7.1806
375.0000,3.5705,11.2804,7.5590,3.8619,-0.0918,6.7664,4.2506,-1.5379,9.0704,5.6590,7.9341,11.1513,9.5269,4.4999,7.0217,8.4122,9.5257,9.4564,6.0452
378.9062,1.6772,8.5086,5.9627,2.2414,-0.7554,3.5921,3.3920,-2.6687,7.5969,4.0679,7.0574,9.0264,8.0272,2.8722,6.5896,7.1458,8.7504,7.3389,4.6878
382.8125,0.2116,5.3943,4.2256,0.7520,-1.7210,0.6952,2.4725,-3.5650,5.7809,2.5816,6.2945,7.4836,6.8436,1.2648,6.1542,6.0694,7.8763,5.6532,3.4030
386.7188,-0.7146,2.7295,2.6867,-0.3168,-2.7448,-1.0355,1.5756,-4.0116,4.0202,1.6022,5.6492,6.7492,6.1076,0.1210,5.8693,5.4484,7.0158,4.6571,2.3184
390.6250,-1.0906,0.9445,1.4537,-0.9196,-3.5657,-1.3319,0.8080,-4.0021,2.5545,1.2662,4.9721,6.5348,5.6213,-0.3760,5.7236,5.1947,6.1479,4.1248,1.3944
394.5312,-1.0021,0.0765,0.4674,-1.2408,-4.0602,-0.5663,0.2087,-3.7755,1.4375,1.4060,4.1241,6.2994,5.0705,-0.3820,5.5475,5.0022,5.2502,3.5888,0.5217
398.4375,-0.6224,-0.0715,-0.3308,-1.5530,-4.2992,0.5249,-0.2799,-3.6941,0.6409,1.6774,3.1287,5.6190,4.2809,-0.2561,5.1403,4.5899,4.3908,2.7152,-0.3531
402.3438,-0.1513,0.2715,-0.8712,-2.0324,-4.4613,1.2429,-0.7520,-4.0111,0.1951,1.7763,2.2144,4.4430,3.3508,-0.3007,4.4434,3.8975,3.7097,1.5701,-1.1458
406.2500,0.2889,0.9532,-0.9790,-2.6432,-4.6673,1.2405,-1.2467,-4.6811,0.2466,1.6188,1.7276,3.1193,2.5890,-0.5551,3.6500,3.1364,3.3241,0.6074,-1.6489
410.1562,0.7175,1.8759,-0.5409,-3.1632,-4.8655,0.6136,-1.7089,-5.3594,0.9772,1.3764,1.9757,2.2078,2.3177,-0.7900,3.1768,2.6880,3.2534,0.3866,-1.6356
414.0625,1.2461,2.9097,0.3196,-3.3351,-4.8676,-0.2367,-2.0275,-5.6210,2.4339,1.3509,3.0836,2.2020,2.6699,-0.7106,3.4893,2.9161,3.4231,1.2002,-1.0017
417.9688,1.9228,3.8458,1.2173,-3.0410,-4.5200,-0.8665,-2.1094,-5.2625,4.3920,1.7704,4.9245,3.2888,3.5016,-0.2251,4.8557,3.9805,3.7281,2.8494,0.1327
421.8750,2.5849,4.4455,1.6908,-2.3827,-3.8823,-1.0231,-1.9203,-4.4755,6.3591,2.6292,7.1332,5.2387,4.4578,0.4225,7.1475,5.7261,4.0824,4.7132,1.4300
425.7812,2.8621,4.5583,1.4982,-1.6162,-3.2619,-0.7396,-1.4691,-3.7512,7.7463,3.6658,9.1890,7.4599,5.1425,0.7656,9.7972,7.6945,4.4141,6.0699,2.4583
429.6875,2.3765,4.2224,0.8156,-0.9912,-3.0495,-0.2599,-0.7706,-3.5654,8.1196,4.4818,10.5456,9.1989,5.2945,0.4127,11.9611,9.2656,4.6275,6.4722,2.8755
433.5938,1.0323,3.6752,0.1759,-0.6147,-3.4530,0.1422,0.1556,-4.0555,7.3947,4.7263,10.7878,9.8274,4.8784,-0.6718,12.8396,9.8940,4.5976,5.9507,2.5761
437.5000,-0.8100,3.2597,0.1541,-0.4346,-4.3196,0.3421,1.2375,-4.9186,5.8682,4.2466,9.7816,9.1084,4.0573,-2.1042,12.0283,9.3530,4.2296,4.9342,1.7179
441.4062,-2.4328,3.2741,0.9888,-0.3450,-5.1915,0.4365,2.2973,-5.6079,4.0780,3.1422,7.7624,7.3240,3.0793,-3.2928,9.7389,7.8718,3.5450,3.9584,0.6151
445.3125,-3.1162,3.8393,2.3920,-0.3193,-5.5789,0.6686,3.0613,-5.6937,2.5735,1.7212,5.3017,5.1808,2.1488,-3.7907,6.7713,6.0750,2.7116,3.3593,-0.4326
449.2188,-2.5430,4.8377,3.6845,-0.4542,-5.2768,1.2481,3.2591,-5.1373,1.7181,0.3985,3.1290,3.5103,1.3550,-3.5600,4.2196,4.7226,1.9694,3.1389,-1.2686
453.1250,-0.9955,5.9427,4.1830,-0.8807,-4.5049,2.1737,2.7653,-4.2906,1.6034,-0.4264,1.8579,2.8940,0.6895,-2.9735,3.0205,4.3563,1.4898,3.0596,-1.8927
457.0312,0.7969,6.7269,3.5938,-1.6081,-3.7694,3.1736,1.6926,-3.6292,2.0832,-0.4910,1.7325,3.4045,0.1246,-2.5602,3.5403,5.0317,1.2690,2.8735,-2.3661
460.9375,2.0729,6.8202,2.1687,-2.4290,-3.5330,3.8195,0.3702,-3.4153,2.8781,0.2266,2.5240,4.6028,-0.3078,-2.6686,5.3989,6.2858,1.1399,2.5177,-2.6915
464.8438,2.4616,6.0728,0.5368,-2.9759,-3.9146,3.7646,-0.7880,-3.5257,3.6889,1.4596,3.6471,5.7983,-0.5006,-3.2666,7.6338,7.3756,0.8990,2.1536,-2.7626
468.7500,2.1498,4.6655,-0.6581,-2.9058,-4.6154,2.9710,-1.4493,-3.5547,4.2874,2.7158,4.4548,6.4273,-0.3305,-3.9919,9.1493,7.6694,0.4544,2.0512,-2.4173
472.6562,1.7045,3.1014,-1.0715,-2.0902,-5.1095,1.7819,-1.4719,-3.1042,4.5783,3.4753,4.5709,6.3402,0.2489,-4.3923,9.2472,6.9824,-0.1083,2.4200,-1.5510
476.5625,1.6852,2.0480,-0.7386,-0.6774,-4.9598,0.7747,-0.9130,-2.0519,4.6323,3.4648,4.0897,5.8493,1.1525,-4.1820,7.9781,5.6763,-0.5795,3.3051,-0.1996
480.4688,2.3067,2.0678,0.0866,1.0119,-4.0525,0.4640,0.0428,-0.6230,4.6726,2.8670,3.5326,5.5267,2.1940,-3.3573,6.1267,4.4681,-0.7437,4.5978,1.4656
484.3750,3.3599,3.3495,1.1723,2.6716,-2.6195,1.0240,1.1730,0.7596,4.9928,2.3058,3.5728,5.8839,3.1834,-2.1343,4.8183,4.0562,-0.4720,6.1191,3.2179
488.2812,4.4112,5.5803,2.4377,4.1375,-1.0785,2.1951,2.2726,1.7198,5.8108,2.5562,4.6609,7.1074,4.0200,-0.7989,4.9356,4.7658,0.2567,7.6912,4.8572
492.1875,5.1124,8.0420,3.8815,5.3656,0.1733,3.4294,3.1626,2.0965,7.1165,4.0940,6.7394,8.9735,4.7092,0.4079,6.6421,6.3955,1.3744,9.1478,6.2263
496.0938,5.3947,9.9016,5.3952,6.2963,0.8805,4.1820,3.6798,1.9472,8.6009,6.7404,9.1984,10.9540,5.2866,1.3105,9.2661,8.3281,2.7283,10.2975,7.1654
500.0000,5.4242,10.5523,6.6367,6.7400,0.9375,4.1661,3.6850,1.4284,9.7375,9.6409,11.1063,12.4357,5.7156,1.7668,11.6141,9.8262,4.0563,10.9087,7.4708
503.9062,5.3818,9.8358,7.1009,6.4069,0.3506,3.4269,3.1045,0.6713,10.0045,11.6412,11.6185,12.9491,5.8542,1.6663,12.5532,10.3498,4.9924,10.7643,6.9376
507.8125,5.2609,8.0475,6.3759,5.0962,-0.7666,2.2202,1.9884,-0.2521,9.1469,11.8812,10.3725,12.3269,5.5411,0.9945,11.5585,9.7446,5.1755,9.7774,5.4958
511.7188,4.8583,5.7551,4.4321,2.9205,-2.1624,0.8150,0.5478,-1.2696,7.3385,10.2711,7.6782,10.7542,4.7553,-0.0922,8.9394,8.2400,4.4538,8.0999,3.3567
515.6250,3.9836,3.5580,1.7553,0.3963,-3.4519,-0.6211,-0.8677,-2.2335,5.1461,7.5661,4.4077,8.7067,3.7242,-1.2769,5.6439,6.3012,3.0612,6.1430,1.0470
519.5312,2.7327,1.9236,-0.7776,-1.6995,-4.2276,-1.9809,-1.8597,-2.9125,3.3057,4.9850,1.6318,6.7890,2.8718,-2.2219,2.7683,4.4333,1.6019,4.4744,-0.7423
523.4375,1.6006,1.1492,-2.2284,-2.6496,-4.2511,-3.0844,-2.1131,-3.0700,2.4242,3.5870,0.1751,5.5164,2.6021,-2.7656,1.0519,3.0256,0.7741,3.6260,-1.4412
527.3438,1.3001,1.4026,-1.9669,-2.1164,-3.5986,-3.6004,-1.5102,-2.5735,2.7558,3.7628,0.3022,5.1157,3.0440,-3.0296,0.6210,2.2705,0.9588,3.8952,-0.8640
531.2500,2.3540,2.7474,0.0959,-0.2760,-2.6277,-3.1354,-0.1662,-1.4566,4.1515,5.1132,1.6785,5.4405,3.9379,-3.3246,1.0788,2.1460,1.9382,5.2304,0.7115
535.1562,4.7052,5.1001,3.5021,2.3015,-1.7462,-1.4650,1.6395,0.1068,6.1799,6.7490,3.6055,6.0671,4.7706,-3.8846,1.8358,2.4444,2.9771,7.2522,2.7095
539.0625,7.6114,8.1521,7.4382,4.9423,-1.1246,1.2418,3.6007,1.8856,8.3314,7.8063,5.3941,6.5467,5.1053,-4.6014,2.4566,2.8432,3.2726,9.4044,4.5723
542.9688,9.9369,11.3466,11.0148,7.1514,-0.5699,4.3764,5.5027,3.6656,10.1992,7.8691,6.6722,6.6919,4.9055,-4.9677,2.8279,3.0293,2.5129,11.1701,6.0385
546.8750,10.7097,13.9811,13.5170,8.7350,0.3172,7.0886,7.2389,5.2651,11.5654,7.0891,7.4766,6.7240,4.6341,-4.3126,3.0949,2.8542,1.1700,12.2645,7.2191
550.7812,9.6330,15.4249,14.5542,9.7318,1.7876,8.6357,8.7135,6.5020,12.3920,5.9901,8.1089,7.1687,5.0354,-2.2171,3.4645,2.4498,0.2917,12.7142,8.4372
554.6875,7.2523,15.3550,14.1029,10.2439,3.6464,8.6917,9.7190,7.1710,12.7539,5.1210,8.8658,8.5291,6.7059,1.1467,4.0300,2.2108,0.8815,12.7877,9.9509
558.5938,4.6732,13.8901,12.4691,10.3072,5.2635,7.4585,9.9248,7.0844,12.7636,4.7708,9.8176,10.9102,9.7006,4.9840,4.7217,2.5994,3.2406,12.8064,11.7428
562.5000,2.9949,11.5539,10.2000,9.8917,5.9350,5.5463,9.0534,6.1830,12.5126,4.8773,10.7581,13.8255,13.4105,8.2057,5.3754,3.8384,6.6946,12.9368,13.5085
566.4062,2.7832,9.0865,7.9585,9.0121,5.3799,3.7205,7.1727,4.6523,12.0376,5.1321,11.3328,16.3244,16.7890,9.9430,5.8303,5.6699,9.8960,13.0829,14.8342
570.3125,3.8723,7.1903,6.3641,7.8473,4.0223,2.6543,4.8902,2.9541,11.3106,5.1823,11.2419,17.3982,18.8023,9.9587,5.9734,7.3630,11.5293,12.9475,15.4305
574.2188,5.5705,6.3106,5.8172,6.7564,2.8281,2.7696,3.2346,1.7091,10.2592,4.8138,10.3809,16.4556,18.8578,8.7250,5.7178,8.0288,10.9924,12.2316,15.2596
578.1250,7.1001,6.5145,6.3505,6.1480,2.7505,4.1604,3.1806,1.4499,8.8134,4.0385,8.8412,13.6073,16.9944,7.1364,4.9701,7.1017,8.6556,10.8470,14.4772
582.0312,7.9824,7.4871,7.5720,6.2621,4.1165,6.5588,5.0394,2.3456,6.9671,3.0703,6.7995,9.6074,13.7683,6.0284,3.6553,4.7021,5.5736,8.9999,13.2457
585.9375,8.1573,8.6332,8.7581,6.9897,6.3479,9.3382,8.0967,4.0418,4.8255,2.2164,4.4064,5.4931,9.9430,5.7666,1.8075,1.6364,2.8658,7.0820,11.5701
589.8438,7.8264,9.2630,9.1044,7.8484,8.2092,11.6093,10.8060,5.7240,2.6125,1.7350,1.7752,2.1333,6.1767,6.1071,-0.3339,-1.0039,1.1595,5.4406,9.2917
593.7500,7.1945,8.8260,8.0632,8.1566,8.4519,12.4654,11.5238,6.4144,0.6321,1.7183,-0.9151,-0.0681,2.8672,6.3686,-2.3126,-2.4116,0.4097,4.1855,6.2633
597.6562,6.3204,7.1321,5.6269,7.3392,6.4763,11.3414,9.4115,5.3897,-0.8015,2.0550,-3.2940,-1.1780,0.1865,5.8039,-3.5712,-2.4479,0.1394,3.1748,2.5944
601.5625,5.1721,4.4736,2.4065,5.2210,2.6381,8.3343,4.9659,2.5325,-1.4398,2.4957,-4.7899,-1.4948,-1.7791,3.9798,-3.6571,-1.5952,-0.1185,2.1914,-1.2147
605.4688,3.8033,1.5718,-0.5762,2.1550,-1.9496,4.2812,-0.1727,-1.5617,-1.1653,2.7906,-4.8136,-1.2522,-2.9193,1.0019,-2.4161,-0.5238,-0.4901,1.1798,-4.3746
609.3750,2.4750,-0.6676,-2.3245,-1.0905,-5.9668,0.4843,-4.0595,-5.7912,-0.0410,2.8234,-3.0792,-0.4702,-3.1049,-2.4986,-0.0757,0.4121,-0.7360,0.3544,-6.1272
613.2812,1.5937,-1.5111,-2.3357,-3.6442,-8.4598,-1.8293,-5.4433,-8.9832,1.6614,2.6550,0.1172,0.9607,-2.2946,-5.5986,2.8235,1.3842,-0.4989,0.0795,-6.1186
617.1875,1.4893,-0.7153,-0.8600,-4.8958,-9.1456,-2.0502,-4.3387,-10.3565,3.4766,2.4450,3.8593,3.0398,-0.6526,-7.4422,5.6105,2.8527,0.3848,0.5877,-4.6046
621.0938,2.1870,1.3474,1.2082,-4.7334,-8.3513,-0.4400,-1.8551,-9.7922,4.8320,2.3080,6.8999,5.4499,1.4295,-7.5826,7.7018,5.0649,1.7396,1.7357,-2.3534
625.0000,3.3390,3.8254,2.7714,-3.5419,-6.7091,2.0410,0.5554,-7.7958,5.2089,2.2108,8.1726,7.5531,3.4440,-6.1641,8.7701,7.6798,3.1611,2.9851,-0.2823
628.9062,4.3725,5.7268,3.0743,-1.9766,-4.8227,4.2270,1.9255,-5.1962,4.3331,1.9981,7.2678,8.6261,4.9612,-3.8555,8.8150,9.8325,4.2869,3.6475,0.9726
632.8125,4.7592,6.3051,2.0517,-0.6486,-3.0790,5.2788,2.1642,-2.7617,2.3002,1.5313,4.6089,8.2107,5.7913,-1.5508,8.1205,10.6317,5.0221,3.2456,1.3090
636.7188,4.2420,5.3162,0.2828,0.1070,-1.6416,4.9766,1.8404,-0.9341,-0.4487,0.8314,1.2156,6.3687,6.0135,0.0243,7.1149,9.7548,5.5522,1.7589,1.0954
640.6250,2.8997,3.0469,-1.4144,0.2681,-0.5572,3.6610,1.6003,0.2066,-3.3128,0.0978,-1.8197,3.6800,5.8509,0.6042,6.1803,7.7094,6.1281,-0.4029,0.8441
644.5312,1.0495,0.1330,-2.4934,-0.0144,0.1355,1.9265,1.6772,0.7831,-5.7875,-0.4339,-3.8471,0.9725,5.4713,0.4147,5.4822,5.5498,6.7737,-2.6643,0.8363
648.4375,-0.9145,-2.7206,-2.9784,-0.6071,0.3609,0.2896,1.8160,0.9112,-7.6437,-0.6993,-4.8763,-1.0671,4.8468,-0.0651,4.9038,4.2209,7.1317,-4.5972,0.9379
652.3438,-2.6408,-4.9773,-3.3682,-1.4929,0.0342,-0.9844,1.6007,0.5873,-8.9213,-0.9069,-5.3905,-2.1808,3.7740,-0.4552,4.1341,3.9728,6.5879,-6.0743,0.7190
656.2500,-3.8626,-6.3725,-4.2203,-2.7164,-0.8736,-1.8530,0.8721,-0.2671,-9.7534,-1.4278,-5.9048,-2.5749,2.0496,-0.7146,2.8847,4.2455,4.6337,-7.1869,-0.2138
660.1562,-4.4038,-6.8789,-5.6971,-4.2353,-2.2766,-2.3629,-0.1038,-1.6587,-10.1613,-2.5197,-6.5742,-2.7088,-0.3117,-1.1126,1.1208,4.1012,1.2595,-8.0286,-1.9022
664.0625,-4.2046,-6.5987,-7.3865,-5.8150,-3.9546,-2.5443,-0.8343,-3.4005,-9.9882,-4.0801,-7.1134,-2.9897,-2.9744,-1.9634,-0.8419,2.8974,-2.8790,-8.5382,-3.9575
667.9688,-3.3736,-5.6751,-8.5276,-7.0732,-5.5924,-2.4041,-0.9875,-5.1130,-9.0434,-5.6266,-7.0713,-3.5671,-5.3863,-3.3224,-2.4610,0.7401,-6.6598,-8.5358,-5.7776
671.8750,-2.2142,-4.2768,-8.5071,-7.6745,-6.8753,-1.9910,-0.6564,-6.3633,-7.3617,-6.5567,-6.2582,-4.3385,-7.0487,-4.8752,-3.2629,-1.5856,-8.9879,-7.9238,-6.9206
675.7812,-1.1626,-2.6501,-7.3069,-7.5540,-7.6132,-1.4526,-0.3051,-6.8656,-5.3769,-6.5340,-5.0116,-5.1239,-7.7926,-6.1133,-3.1329,-3.1347,-9.3198,-6.8877,-7.3883
679.6875,-0.6347,-1.1719,-5.6052,-7.0125,-7.8333,-1.0236,-0.4524,-6.6278,-3.8374,-5.7348,-4.0879,-5.8578,-7.8821,-6.6796,-2.4016,-3.4038,-7.9215,-5.9209,-7.6294
683.5938,-0.8557,-0.3243,-4.4439,-6.5966,-7.7796,-0.9479,-1.3382,-5.9597,-3.4641,-4.7673,-4.2238,-6.6463,-7.8642,-6.6343,-1.6475,-2.6076,-5.7071,-5.6189,-8.2535
687.5000,-1.7693,-0.5537,-4.6477,-6.8118,-7.7935,-1.3807,-2.8014,-5.3356,-4.5359,-4.2930,-5.6372,-7.6465,-8.2453,-6.4366,-1.3227,-1.4707,-3.7456,-6.3520,-9.6316
691.4062,-3.0761,-2.0498,-6.3324,-7.8271,-8.1200,-2.3200,-4.4141,-5.1744,-6.6643,-4.5918,-7.7954,-8.8589,-9.1842,-6.6374,-1.4438,-0.7120,-2.7189,-8.0187,-11.6311
695.3125,-4.3623,-4.5541,-8.7933,-9.3453,-8.7443,-3.5859,-5.7232,-5.6407,-8.9170,-5.3595,-9.6190,-9.9963,-10.3834,-7.4848,-1.5653,-0.5843,-2.6310,-10.0341,-13.6426
699.2188,-5.2336,-7.3234,-10.8404,-10.7174,-9.3650,-4.8421,-6.4097,-6.5571,-10.2403,-5.8786,-10.0192,-10.5420,-11.2389,-8.7166,-1.0747,-0.7643,-2.9138,-11.5683,-14.8764
703.1250,-5.3877,-9.3177,-11.3910,-11.2432,-9.5399,-5.6569,-6.2899,-7.4711,-9.9442,-5.4525,-8.4625,-9.9874,-11.1518,-9.6892,0.3723,-0.6264,-2.8304,-11.9053,-14.7502
707.0312,-4.6354,-9.5733,-9.9975,-10.4988,-8.9334,-5.6086,-5.2510,-7.8524,-7.9857,-3.8256,-5.2454,-8.1164,-9.8195,-9.7648,2.5606,0.3134,-1.9206,-10.7387,-13.1570
710.9375,-2.9264,-7.6111,-7.0379,-8.5267,-7.5247,-4.4330,-3.2639,-7.3382,-4.9192,-1.3292,-1.3430,-5.1709,-7.3597,-8.7019,4.7684,2.0809,-0.2340,-8.2737,-10.4868
714.8438,-0.4154,-3.6928,-3.4961,-5.8050,-5.6501,-2.1733,-0.5166,-5.9157,-1.5887,1.3155,2.0587,-1.8005,-4.2336,-6.7980,6.1428,4.2250,1.7440,-5.1194,-7.4302
718.7500,2.4736,1.2138,-0.4794,-3.0318,-3.8482,0.7480,2.4547,-3.9486,1.2373,3.3872,4.0751,1.1784,-1.0493,-4.7043,6.1652,6.0642,3.3845,-2.0473,-4.6881
722.6562,5.0805,5.7628,1.2638,-0.8386,-2.5962,3.6068,4.8242,-2.0259,3.0946,4.4949,4.4237,3.0889,1.6382,-3.0465,4.9199,7.0158,4.2281,0.2680,-2.7335
726.5625,6.7035,8.7215,1.5951,0.4331,-2.0860,5.6138,5.8047,-0.6975,3.8567,4.6708,3.4115,3.6237,3.4532,-2.1015,3.0119,6.8192,4.1547,1.4393,-1.7022
730.4688,6.9031,9.4165,0.9284,0.8111,-2.1602,6.2208,5.0986,-0.2265,3.6426,4.2254,1.6855,2.9110,4.2457,-1.7208,1.2056,5.5720,3.3629,1.4472,-1.4150
734.3750,5.7533,7.9545,-0.0511,0.6176,-2.4313,5.3543,3.1735,-0.4879,2.7170,3.5115,-0.0763,1.4188,4.0883,-1.5143,0.0218,3.6192,2.2206,0.6102,-1.4869
738.2812,3.8645,5.1453,-0.7149,0.2944,-2.5041,3.4525,1.1220,-1.0644,1.4424,2.7658,-1.3863,-0.2390,3.2414,-1.1464,-0.4712,1.3931,1.0878,-0.5373,-1.4785
742.1875,2.1229,2.1809,-0.7038,0.2116,-2.1733,1.2867,0.1190,-1.4836,0.2560,2.1007,-2.0225,-1.5098,2.0777,-0.5450,-0.5795,-0.7160,0.1860,-1.4212,-1.0524
746.0938,1.2768,0.2151,0.0365,0.5370,-1.4993,-0.3436,0.7746,-1.4594,-0.3919,1.5930,-1.9905,-2.0556,0.9621,0.0931,-0.7136,-2.4300,-0.4584,-1.6084,-0.0990
750.0000,1.6061,0.0007,1.3553,1.2116,-0.7350,-0.8924,2.7873,-1.0044,-0.1601,1.3575,-1.4341,-1.8132,0.1251,0.4728,-1.1122,-3.6028,-0.9915,-0.9288,1.2176
753.9062,2.8718,1.6967,3.0368,2.0311,-0.1578,-0.2118,5.1293,-0.3608,1.0581,1.5359,-0.5377,-0.9525,-0.3934,0.4202,-1.7153,-4.2066,-1.6312,0.5065,2.5358
757.8125,4.5572,4.8801,4.8911,2.7852,0.1026,1.4697,6.6630,0.1883,3.0908,2.2154,0.5599,0.2463,-0.6787,0.0154,-2.2186,-4.2944,-2.5097,2.3946,3.4822
761.7188,6.2197,8.7280,6.7699,3.3811,0.1520,3.6776,6.8046,0.5016,5.5663,3.3528,1.8203,1.5443,-0.7845,-0.4283,-2.2396,-3.9535,-3.5231,4.3869,3.8864
765.6250,7.7077,12.2938,8.5310,3.8811,0.2896,5.8519,5.8226,0.6410,8.0630,4.7650,3.3011,2.8483,-0.6055,-0.5130,-1.4915,-3.2728,-4.2922,6.2125,3.8958
769.5312,9.1038,14.7858,10.0024,4.4300,0.8489,7.4819,4.6000,0.7850,10.2304,6.1895,5.0721,4.2065,0.0958,0.0477,0.0974,-2.3430,-4.3081,7.7197,3.9010
773.4375,10.4634,15.7668,10.9853,5.1146,1.9956,8.2066,4.0347,1.0642,11.8151,7.3681,7.0827,5.6924,1.4878,1.2802,2.3359,-1.2836,-3.2273,8.8330,4.2936
777.3438,11.5743,15.2282,11.3027,5.8477,3.5877,7.8899,4.4773,1.4330,12.6194,8.1051,9.0635,7.2509,3.4294,2.9154,4.7897,-0.2592,-1.1512,9.4853,5.1983
781.2500,11.9501,13.5364,10.8763,6.3677,5.1929,6.6632,5.5566,1.6683,12.4881,8.2950,10.5607,8.6248,5.3989,4.4920,6.8800,0.5564,1.3175,9.5980,6.3643
785.1562,11.0986,11.2882,9.7964,6.3812,6.2816,4.9061,6.4752,1.5021,11.3933,7.9403,11.1310,9.4461,6.7168,5.5630,8.0674,1.0709,3.3416,9.1452,7.3115
789.0625,8.8984,9.1350,8.3488,5.7794,6.5133,3.1411,6.5513,0.8131,9.5759,7.1767,10.6113,9.4685,6.9712,5.9204,8.0813,1.3657,4.3208,8.2591,7.6605
792.9688,5.8152,7.6239,6.9705,4.7934,5.9566,1.8583,5.6431,-0.2364,7.6064,6.2797,9.2900,8.7988,6.3680,5.7172,7.0897,1.7077,4.2719,7.2847,7.4310
796.8750,2.7762,7.0803,6.1221,3.9616,5.0926,1.3351,4.1989,-1.2072,6.2323,5.6063,7.8310,7.9463,5.7172,5.3989,5.6832,2.4314,3.8362,6.7014,7.0879
800.7812,0.7381,7.5351,6.1056,3.8864,4.5658,1.5363,2.9351,-1.5534,6.0235,5.4500,6.9410,7.5996,5.9850,5.4484,4.6202,3.7271,3.8579,6.9101,7.2680
804.6875,0.1901,8.7054,6.8986,4.8884,4.8067,2.1465,2.3817,-0.8861,7.0024,5.8589,6.9490,8.2181,7.6498,6.0731,4.4260,5.4514,4.7797,7.9860,8.3383
808.5938,0.8902,10.0493,8.1018,6.7594,5.7532,2.7225,2.5934,0.7960,8.5194,6.5278,7.5615,9.6763,10.2857,7.0276,5.0631,7.0885,6.2701,9.5519,10.0747
812.5000,2.0015,10.9210,9.0689,8.7837,6.8631,2.8914,3.1901,3.0392,9.5264,6.8652,7.9813,11.2138,12.6948,7.7148,5.8931,7.9228,7.3723,10.8877,11.6998
816.4062,2.5601,10.8087,9.2011,10.0601,7.4373,2.5051,3.6638,5.0949,9.1473,6.2462,7.3654,11.7843,13.5682,7.5426,6.0019,7.3618,7.1251,11.2619,12.2972
820.3125,2.0072,9.5764,8.2743,9.9726,7.0667,1.6858,3.7248,6.2581,7.2245,4.3457,5.3702,10.6450,12.2896,6.3340,4.7321,5.2555,5.2634,10.3312,11.3662
824.2188,0.4822,7.5826,6.6132,8.5500,5.9167,0.7572,3.4609,6.2264,4.4890,1.3752,2.4484,7.8530,9.3667,4.5215,2.1216,2.0443,2.5152,8.3805,9.1676
828.1250,-1.2824,5.5763,4.9727,6.4913,4.6503,0.1009,3.2286,5.2828,2.2102,-1.9218,-0.3126,4.3500,6.1900,2.9663,-1.0299,-1.3538,0.2576,6.2417,6.6242
832.0312,-2.3915,4.3763,4.1497,4.8148,4.0156,0.0043,3.3742,4.1739,1.5055,-4.5363,-1.7481,1.5445,4.2456,2.4772,-3.5280,-3.8781,-0.2823,4.9001,4.8136
835.9375,-2.2811,4.4774,4.5242,4.3088,4.3508,0.5579,3.9858,3.7152,2.7139,-5.6057,-1.2545,0.5986,4.2682,3.3085,-4.3863,-4.7361,1.2201,4.9839,4.3553
839.8438,-0.9916,5.7960,5.8038,5.0880,5.3219,1.6393,4.8366,4.3207,5.2140,-4.7729,0.8703,1.8199,5.8562,4.9521,-3.3203,-3.7073,3.9683,6.4206,5.0675
843.7500,0.9218,7.7111,7.1529,6.5120,6.0653,2.9823,5.5402,5.7210,7.7928,-2.3275,3.5954,4.5090,7.7716,6.3623,-0.8497,-1.2071,6.5040,8.4602,6.1012
847.6562,2.7578,9.3918,7.6561,7.5171,5.6524,4.2966,5.7973,7.0491,9.3297,0.9300,5.7359,7.3522,8.7062,6.4876,2.0329,1.9128,7.5485,10.0647,6.4575
851.5625,4.0718,10.2221,6.8483,7.1742,3.5899,5.3781,5.5628,7.2667,9.3751,4.0260,6.5973,9.1266,8.0133,4.7954,4.4150,4.7302,6.6949,10.4449,5.5594
855.4688,4.8574,10.0729,4.9821,5.1580,0.0584,6.1531,5.0239,5.7023,8.2889,6.1952,6.3051,9.3097,5.9654,1.4945,5.9087,6.6159,4.5386,9.4437,3.5275
859.3750,5.4120,9.2633,2.8601,1.8722,-4.2278,6.6351,4.4201,2.3961,6.8988,7.1447,5.6375,8.2572,3.4383,-2.6367,6.7474,7.4326,2.2128,7.5580,1.0194
863.2812,6.0045,8.2606,1.3365,-1.8142,-8.4196,6.8299,3.8377,-1.9363,5.9384,7.1012,5.4910,6.8822,1.2939,-6.6687,7.5193,7.4932,0.6702,5.6121,-1.2267
867.1875,6.5949,7.3365,0.8078,-5.0353,-11.9247,6.6615,3.1355,-6.2861,5.6370,6.6419,6.3197,6.0654,-0.1058,-9.9191,8.7366,7.3237,0.1777,4.2963,-2.8231
871.0938,6.8176,6.4198,1.0179,-7.3212,-14.5710,5.9896,2.0603,-9.8414,5.6916,6.3945,7.8864,6.1635,-0.9717,-12.1279,10.5094,7.3685,0.2984,3.8433,-3.8709
875.0000,6.2514,5.2401,1.2886,-8.7038,-16.4973,4.7272,0.4813,-12.2989,5.5812,6.7426,9.4460,6.8856,-1.7774,-13.3861,12.4956,7.7901,0.2935,4.0056,-4.7565
878.9062,4.7920,3.6475,1.0047,-9.5264,-17.9038,2.9885,-1.4179,-13.8481,4.9654,7.6622,10.2091,7.5624,-2.8486,-13.9455,14.1134,8.4460,-0.3775,4.2965,-5.7921
882.8125,2.8560,1.8640,0.0212,-10.1236,-18.8547,1.1549,-3.1365,-14.8868,3.8961,8.7611,9.7820,7.5932,-4.1502,-14.0612,14.8568,9.0141,-1.7843,4.3091,-6.9677
886.7188,1.2498,0.4696,-1.2644,-10.5929,-19.2472,-0.2170,-4.0749,-15.6865,2.7375,9.4968,8.3279,6.7837,-5.3764,-13.9324,14.5270,9.1658,-3.5931,3.9167,-7.9717
890.6250,0.7589,0.1128,-2.1944,-10.7871,-18.9213,-0.6290,-3.8613,-16.2231,1.9038,9.4674,6.4054,5.3954,-6.2087,-13.6984,13.2812,8.6887,-5.3389,3.2705,-8.4306
894.5312,1.7061,1.1266,-2.2713,-10.4897,-17.7990,0.1004,-2.5975,-16.2537,1.6298,8.6285,4.6389,3.9335,-6.5114,-13.4213,11.5213,7.5269,-6.6631,2.6550,-8.1668
898.4375,3.7531,3.2974,-1.4367,-9.6236,-15.9527,1.7013,-0.8710,-15.5482,1.9180,7.3229,3.4471,2.8515,-6.3256,-13.0423,9.7194,5.7779,-7.3668,2.3263,-7.2907
902.3438,6.0649,5.9288,-0.0608,-8.3407,-13.5848,3.5288,0.4893,-14.0996,2.6404,6.1054,2.9610,2.3622,-5.7192,-12.3726,8.2693,3.6940,-7.3195,2.4214,-6.0884
906.2500,7.7225,8.1499,1.2928,-6.9446,-10.9663,4.8166,0.7857,-12.1726,3.6545,5.4519,3.1014,2.4295,-4.6648,-11.1813,7.3987,1.6857,-6.3814,2.9406,-4.8248
910.1562,8.1284,9.2718,2.1341,-5.7122,-8.3843,4.9791,-0.2399,-10.1728,4.8070,5.5093,3.6863,2.8807,-3.0803,-9.3636,7.1301,0.2689,-4.4612,3.7525,-3.6232
914.0625,7.1820,8.9939,2.1885,-4.7385,-6.1035,3.8134,-2.3168,-8.4285,5.8358,6.0187,4.4648,3.5186,-1.0000,-7.0752,7.2743,-0.0959,-1.6805,4.5939,-2.4943
917.9688,5.1819,7.3902,1.4006,-3.8927,-4.3081,1.5238,-4.7991,-7.0189,6.3017,6.4523,5.0915,4.1588,1.2881,-4.7106,7.4681,0.7636,1.5097,5.0967,-1.4468
921.8750,2.5894,4.7587,-0.1037,-2.8943,-3.0158,-1.4038,-6.9575,-5.7368,5.6881,6.2854,5.1403,4.6139,3.2932,-2.6992,7.2777,2.5612,4.4114,4.8938,-0.5505
925.7812,-0.1571,1.4822,-2.0144,-1.4564,-2.0174,-4.3832,-8.2506,-4.1973,3.6744,5.2560,4.2355,4.6981,4.5662,-1.2435,6.3618,4.5973,6.3653,3.7986,0.1189
929.6875,-2.6864,-2.0080,-3.8206,0.5714,-0.9247,-6.8748,-8.4552,-2.0399,0.4216,3.4803,2.2641,4.2957,4.9689,-0.1904,4.6346,6.0595,7.0763,1.9636,0.5924
933.5938,-4.6533,-5.1992,-4.8929,3.1058,0.6348,-8.4659,-7.6333,0.8635,-3.3545,1.3762,-0.4775,3.4560,4.7570,0.8481,2.3367,6.4397,6.7580,-0.1169,1.0435
937.5000,-5.7436,-7.5045,-4.7305,5.7991,2.7532,-8.9094,-6.0019,4.2787,-6.6308,-0.5445,-3.3431,2.4219,4.3904,2.1885,-0.0452,5.8091,5.9818,-1.8173,1.6652
941.4062,-5.7875,-8.3951,-3.2799,8.0931,5.0742,-8.1560,-3.7988,7.6199,-8.5428,-1.8946,-5.6130,1.5319,4.1943,3.7959,-1.9870,4.7528,5.3172,-2.7118,2.4532
945.3125,-4.9086,-7.6257,-1.1020,9.3686,6.8705,-6.3851,-1.2099,10.1221,-8.7927,-2.5322,-6.8349,1.0335,4.1216,5.2416,-3.1551,3.9798,4.9984,-2.8182,3.0789
949.2188,-3.5520,-5.4184,0.8100,9.1731,7.3753,-3.9959,1.6320,11.1268,-7.7439,-2.5436,-7.0107,0.9291,3.8059,5.9480,-3.5269,3.8530,4.8388,-2.5734,3.0055
953.1250,-2.2970,-2.4563,1.5376,7.4476,6.2000,-1.5201,4.6051,10.3671,-6.1395,-2.1304,-6.5073,0.9759,2.8856,5.5603,-3.3411,4.1598,4.4461,-2.5306,1.8287
957.0312,-1.5313,0.3563,0.7959,4.6295,3.5843,0.5412,7.5491,8.1076,-4.6340,-1.4872,-5.7605,0.8562,1.3679,4.1862,-2.9229,4.2851,3.5787,-2.9699,-0.3679
960.9375,-1.2013,2.2653,-0.8305,1.5342,0.3084,1.8955,10.2362,5.0488,-3.4494,-0.7411,-4.9905,0.4077,-0.2503,2.3322,-2.5037,3.6707,2.3880,-3.6918,-2.9146
964.8438,-0.8430,2.9759,-2.1764,-0.9714,-2.6969,2.5608,12.3754,2.0202,-2.3751,0.0320,-4.1321,-0.2470,-1.2232,0.5822,-2.1459,2.2346,1.3658,-4.1482,-4.8364
968.7500,0.0882,2.7332,-2.1748,-2.3546,-4.8107,2.8306,13.6617,-0.3804,-1.0835,0.7539,-3.0131,-0.7717,-1.0246,-0.7547,-1.7956,0.4540,1.0260,-3.8270,-5.3791
972.6562,1.7866,2.1355,-0.5133,-2.6446,-5.9751,3.1074,13.8653,-2.0056,0.4862,1.3151,-1.6229,-0.8387,0.2704,-1.7799,-1.3933,-0.9409,1.5350,-2.6234,-4.4555
976.5625,3.8617,1.7907,2.1519,-2.3563,-6.6004,3.6819,12.9349,-3.1149,1.9696,1.6044,-0.2402,-0.3456,1.9620,-2.8392,-0.9408,-1.4328,2.5486,-0.9305,-2.7126
980.4688,5.4811,2.0003,4.5637,-2.1440,-7.2109,4.5641,11.0585,-4.1133,2.7642,1.5780,0.6949,0.5285,3.1028,-4.1858,-0.4774,-1.0066,3.3781,0.6087,-1.1597
984.3750,5.8213,2.6274,5.5748,-2.4008,-8.0783,5.4505,8.6263,-5.2532,2.4312,1.3084,0.8750,1.4607,3.0474,-5.7239,-0.0083,-0.0704,3.3922,1.5084,-0.5867
988.2812,4.5450,3.1962,4.7488,-3.0568,-9.0794,5.8459,6.0854,-6.4956,1.0207,0.9571,0.3538,2.2049,1.8283,-7.0159,0.5213,0.8935,2.4010,1.7061,-1.1377
992.1875,2.0017,3.1526,2.4975,-3.7055,-9.8406,5.2921,3.7472,-7.6049,-0.9161,0.6651,-0.4812,2.7261,0.1216,-7.5464,1.1519,1.6560,0.7821,1.5051,-2.2999
996.0938,-0.9652,2.1483,-0.2750,-3.9567,-10.0352,3.6061,1.6596,-8.3770,-2.6479,0.4242,-1.1882,3.1501,-1.1689,-7.0530,1.7760,2.2885,-0.7315,1.2544,-3.2855
1000.0000,-3.4703,0.2205,-2.7307,-3.7581,-9.6056,1.0209,-0.3603,-8.8120,-3.6992,0.0245,-1.6020,3.5793,-1.4414,-5.6952,2.0690,2.9212,-1.4669,1.0265,-3.5359
1003.9062,-5.0093,-2.2057,-4.4798,-3.4465,-8.7617,-1.8460,-2.5323,-9.0901,-4.1123,-0.8562,-1.9644,3.9308,-0.7094,-3.9544,1.5859,3.4504,-1.1760,0.5491,-3.0188
1007.8125,-5.6168,-4.4827,-5.5856,-3.4888,-7.7829,-4.2030,-4.8692,-9.3743,-4.3670,-2.4416,-2.7458,3.9373,0.4738,-2.3413,0.0181,3.4821,-0.1385,-0.5511,-2.1589
1011.7188,-5.7121,-6.0042,-6.2856,-4.1010,-6.7929,-5.4013,-7.0474,-9.6058,-5.0254,-4.6410,-4.2753,3.3245,1.4012,-1.1126,-2.5311,2.6070,1.0400,-2.3821,-1.4944
1015.6250,-5.7843,-6.4572,-6.7025,-5.0324,-5.6845,-5.2199,-8.5022,-9.4749,-6.3452,-6.9728,-6.4406,2.0378,1.6437,-0.1765,-5.4459,0.8095,1.7919,-4.5833,-1.3206
1019.5312,-6.1246,-5.9560,-6.7706,-5.6884,-4.2530,-3.9776,-8.7165,-8.6190,-8.1101,-8.7137,-8.6713,0.3464,1.2606,0.7689,-7.7821,-1.3277,1.8901,-6.4595,-1.5529
1023.4375,-6.7384,-4.9906,-6.3893,-5.5213,-2.4336,-2.3958,-7.5414,-6.9232,-9.7612,-9.2220,-10.2197,-1.2590,0.6873,1.9702,-8.6740,-2.8434,1.5190,-7.3715,-1.8586
1027.3438,-7.4182,-4.1944,-5.6229,-4.4209,-0.4655,-1.2569,-5.3491,-4.7064,-10.7164,-8.2653,-10.5475,-2.3096,0.4122,3.4027,-7.7489,-2.9443,1.1043,-7.1106,-1.9220
1031.2500,-7.8776,-4.0244,-4.7411,-2.8234,1.1462,-1.0206,-2.9105,-2.6357,-10.6558,-6.1546,-9.5679,-2.5754,0.6731,4.7362,-5.3116,-1.5174,1.0295,-5.9930,-1.6408
1035.1562,-7.8532,-4.5043,-4.0471,-1.4520,1.8605,-1.5957,-1.0551,-1.3964,-9.6083,-3.5881,-7.6078,-2.1151,1.3602,5.4976,-2.1841,0.7639,1.4215,-4.6061,-1.1353
1039.0625,-7.1599,-5.1686,-3.6306,-0.8557,1.3862,-2.4004,-0.2934,-1.3088,-7.8294,-1.2858,-5.1551,-1.1458,2.1567,5.3335,0.7084,2.8445,2.1216,-3.3893,-0.6048
1042.9688,-5.7367,-5.2642,-3.2548,-1.0558,-0.1423,-2.6854,-0.6038,-2.1289,-5.6025,0.3673,-2.5913,0.1465,2.7916,4.2259,2.7709,3.9477,2.8330,-2.3468,-0.1623
1046.8750,-3.7025,-4.1279,-2.4878,-1.5380,-2.1981,-1.9490,-1.4806,-3.1578,-3.1227,1.4453,-0.0914,1.7002,3.2194,2.5468,3.9453,4.0448,3.3295,-1.0952,0.2290
1050.7812,-1.3896,-1.5620,-1.0005,-1.5929,-4.0771,-0.2160,-2.2000,-3.6008,-0.5352,2.2958,2.2726,3.5046,3.6132,0.9174,4.5923,3.8095,3.5850,0.7847,0.6913
1054.6875,0.7094,1.9917,1.1678,-0.7810,-5.1853,1.9726,-2.1588,-2.9737,1.9346,3.1731,4.3399,5.4282,4.1914,-0.0665,5.1403,4.0843,3.7467,3.3341,1.3054
1058.5938,2.1025,5.5819,3.5542,0.7757,-5.2619,3.8446,-1.1359,-1.3430,3.8928,3.9513,5.7557,7.1047,5.0092,-0.1170,5.7312,5.2210,3.9796,6.0249,2.0159
1062.5000,2.5040,8.1283,5.4562,2.4461,-4.4559,4.7852,0.6191,0.7119,4.8399,4.1349,6.0545,7.9992,5.8583,0.5918,6.0851,6.7507,4.2925,7.9312,2.6226
1066.4062,1.9644,8.8679,6.2341,3.4338,-3.2395,4.6060,2.4800,2.3714,4.3806,3.1872,4.8991,7.6496,6.3452,1.4862,5.6697,7.6184,4.4697,8.1762,2.8497
1070.3125,0.8327,7.6493,5.5617,3.1873,-2.2078,3.5549,3.6774,2.9366,2.4666,0.9687,2.3338,5.9486,6.0993,1.8584,4.0788,6.8456,4.1678,6.3992,2.4497
1074.2188,-0.4353,4.9422,3.5163,1.6387,-1.8453,2.0892,3.5951,2.1094,-0.4801,-2.0209,-1.1058,3.2876,4.9856,1.2173,1.3926,4.2038,3.1331,2.9803,1.3010
1078.1250,-1.5085,1.5816,0.5120,-0.8291,-2.3432,0.5761,2.0321,0.0849,-3.6613,-4.7981,-4.5112,0.4575,3.1980,-0.4522,-1.7078,0.4667,1.4121,-1.0967,-0.5279
1082.0312,-2.3074,-1.6017,-2.8519,-3.6175,-3.5372,-0.8846,-0.6735,-2.5598,-6.1956,-6.3934,-6.9179,-1.6631,1.1788,-2.6637,-4.1725,-2.9242,-0.5873,-4.6660,-2.7630
1085.9375,-2.9596,-4.0734,-5.9523,-6.1765,-4.9894,-2.4165,-3.7394,-5.1117,-7.4763,-6.3995,-7.6922,-2.4776,-0.5865,-4.6598,-5.0720,-4.5984,-2.2459,-6.8650,-4.9772
1089.8438,-3.6333,-5.6889,-8.2806,-8.1561,-6.1817,-4.1535,-6.2482,-6.9893,-7.4175,-5.2211,-6.8148,-1.9215,-1.7828,-5.7774,-4.0953,-3.9748,-3.0346,-7.4482,-6.7104
1093.7500,-4.3764,-6.5868,-9.5439,-9.4039,-6.7328,-6.0226,-7.5492,-7.9183,-6.4557,-3.8474,-4.9140,-0.4716,-2.3694,-5.7461,-1.7757,-1.5627,-2.7994,-6.7913,-7.6245
1097.6562,-5.0738,-6.9873,-9.7091,-9.8744,-6.5299,-7.6834,-7.5466,-7.9487,-5.2936,-3.2692,-2.9969,1.0848,-2.5206,-4.7538,0.7162,1.3148,-1.8515,-5.6073,-7.6155
1101.5625,-5.5379,-7.0225,-8.9605,-9.5423,-5.7118,-8.6765,-6.6991,-7.3215,-4.5104,-3.8910,-1.9686,2.0154,-2.4468,-3.2588,2.1438,3.2081,-0.7891,-4.5330,-6.8123
1105.4688,-5.6522,-6.6781,-7.5688,-8.3771,-4.5185,-8.6827,-5.7078,-6.2691,-4.2395,-5.3029,-2.1585,1.9805,-2.2104,-1.6781,1.8554,3.2679,-0.1404,-3.7952,-5.4507
1109.3750,-5.4525,-5.8414,-5.7317,-6.3724,-3.1055,-7.7185,-5.0676,-4.8673,-4.0963,-6.5510,-3.1098,1.1946,-1.6543,-0.1545,0.1534,1.6341,-0.0418,-3.1240,-3.6966
1113.2812,-5.0824,-4.3969,-3.4864,-3.5906,-1.4413,-6.1304,-4.7643,-3.0268,-3.4067,-6.7318,-3.7855,0.3382,-0.4936,1.4608,-1.8471,-0.6913,-0.1571,-1.9480,-1.5450
1117.1875,-4.6543,-2.3048,-0.7648,-0.1884,0.6454,-4.3862,-4.3196,-0.6257,-1.6201,-5.5326,-3.1231,0.2492,1.4835,3.4208,-2.8207,-2.3913,0.1035,0.2372,1.1240
1121.0938,-4.1167,0.3603,2.4371,3.5829,3.3049,-2.8031,-3.1611,2.3093,1.3281,-3.3828,-0.6491,1.5263,4.2330,5.8352,-1.9639,-2.4976,1.2001,3.5288,4.3598
1125.0000,-3.2296,3.4029,5.9007,7.3936,6.4975,-1.3989,-1.0665,5.4992,4.9229,-1.1384,3.2079,4.2258,7.4113,8.5347,0.5659,-0.8320,3.1674,7.4919,7.9601
1128.9062,-1.6850,6.5159,9.1744,10.8637,9.9293,0.0299,1.6270,8.4659,8.3150,0.4747,7.3149,7.8024,10.5052,11.1279,3.7684,1.9765,5.5968,11.3217,11.4413
1132.8125,0.6850,9.3111,11.7485,13.6103,13.1319,1.6583,4.1963,10.7170,10.7644,1.2874,10.4482,11.3335,13.0536,13.1940,6.4040,4.8660,7.8968,14.2032,14.2075
1136.7188,3.7304,11.3957,13.3096,15.3201,15.6337,3.3993,5.9684,11.9503,12.0192,1.7114,11.9547,13.9225,14.8212,14.4714,7.7095,6.8796,9.6347,15.6720,15.8227
1140.6250,6.9496,12.4998,13.8941,15.8324,17.1221,4.8736,6.7083,12.1552,12.3973,2.3681,12.0555,15.0822,15.8160,14.9242,7.7850,7.5828,10.7124,15.7814,16.2097
1144.5312,9.6493,12.6159,13.8258,15.1977,17.5183,5.6351,6.6904,11.5614,12.5297,3.5968,11.6096,14.9068,16.1601,14.6727,7.4274,7.1717,11.2634,15.0038,15.6466
1148.4375,11.2406,12.0653,13.4775,13.6767,16.9522,5.5155,6.4245,10.4864,12.9400,5.1877,11.5151,13.9583,15.9263,13.8708,7.5466,6.2719,11.3814,13.9457,14.5725
1152.3438,11.5274,11.4166,13.0339,11.6696,15.6820,4.8428,6.2611,9.1894,13.7382,6.5273,12.1591,12.9489,15.0788,12.6335,8.5684,5.5805,10.9280,13.0542,13.3485
1156.2500,10.8251,11.2552,12.4311,9.6016,14.0083,4.3465,6.1848,7.8132,14.6190,7.0499,13.2772,12.4027,13.5645,11.0547,10.2140,5.5536,9.6058,12.4725,12.1339
1160.1562,9.8192,11.8985,11.5087,7.8061,12.2044,4.7650,5.9382,6.4158,15.1416,6.6789,14.2765,12.4642,11.4732,9.2630,11.7729,6.2643,7.2599,12.0886,10.9377
1164.0625,9.2139,13.2154,10.2390,6.4462,10.4503,6.3798,5.3526,5.0269,15.0731,5.9470,14.7419,12.9182,9.1143,7.4331,12.6396,7.4422,4.1640,11.6981,9.7593
1167.9688,9.3555,14.6709,8.8331,5.4897,8.7727,8.7823,4.5879,3.6652,14.5478,5.7020,14.7309,13.3565,6.9114,5.7127,12.7183,8.6180,1.0246,11.1540,8.6673
1171.8750,10.0570,15.5985,7.6209,4.7397,7.0212,11.0480,4.0635,2.3078,13.9434,6.5899,14.6458,13.3729,5.1655,4.1168,12.4212,9.2920,-1.3576,10.4178,7.7361
1175.7812,10.7537,15.5620,6.7942,3.9120,4.9388,12.2414,4.1175,0.8667,13.5896,8.6561,14.8164,12.6971,3.8617,2.4933,12.2983,9.0912,-2.5570,9.5245,6.8997
1179.6875,10.9158,14.6013,6.2245,2.7501,2.3371,11.9523,4.6724,-0.7673,13.5467,11.3235,15.1572,11.2561,2.6944,0.6262,12.6072,7.9064,-2.7724,8.5315,5.8814
1183.5938,10.4650,13.2142,5.5289,1.1501,-0.6930,10.5305,5.2035,-2.6151,13.6189,13.7507,15.2027,9.1963,1.3292,-1.5635,13.1527,5.9882,-2.6441,7.5140,4.3178
1187.5000,9.9035,12.0742,4.3638,-0.7544,-3.6770,8.8667,5.0803,-4.5075,13.5751,15.3175,14.5112,6.8860,-0.2674,-3.8552,13.5057,3.9392,-2.7490,6.5968,2.0402
1191.4062,10.0230,11.6450,2.7406,-2.6045,-5.8775,7.8536,4.0465,-6.0911,13.3731,15.9132,13.1179,4.8673,-1.6916,-5.7449,13.4033,2.5418,-3.1443,5.9603,-0.6784
1195.3125,11.3375,11.9129,1.1119,-3.9514,-6.6343,7.8576,2.4724,-6.9762,13.1818,15.8510,11.6448,3.7092,-2.3055,-6.6762,12.9949,2.4361,-3.3253,5.7666,-3.1240
1199.2188,13.5955,12.3908,0.1320,-4.4699,-5.7592,8.5229,1.1577,-6.9607,13.1658,15.5024,10.9232,3.7703,-1.6858,-6.3702,12.7210,3.7783,-2.6600,6.0267,-4.4541
1203.1250,15.7239,12.3886,0.2329,-4.1411,-3.7401,9.0153,0.7963,-6.1852,13.2082,14.9386,11.3638,4.9715,-0.0172,-5.0499,12.9074,6.0764,-0.9941,6.5048,-4.1693
1207.0312,16.3120,11.3902,1.3025,-3.2848,-1.5861,8.5410,1.4803,-5.1027,12.8306,13.8541,12.5330,6.7312,1.8742,-3.3947,13.3913,8.3445,1.0472,6.7615,-2.4519
1210.9375,14.3958,9.3286,2.7004,-2.4002,-0.3541,6.8193,2.6089,-4.2560,11.4361,11.8338,13.2817,8.1578,2.9260,-2.2217,13.4934,9.5440,2.3367,6.3544,-0.1368
1214.8438,10.0817,6.6137,3.6121,-1.8953,-0.6074,4.2365,3.2864,-3.9864,8.7458,8.7660,12.3956,8.4443,2.4560,-2.0661,12.4026,9.0934,1.9560,5.0936,1.6953
1218.7500,4.6098,3.9159,3.5135,-1.8745,-2.1271,1.6170,2.9316,-4.2549,5.1190,5.0883,9.3602,7.2619,0.5884,-2.9099,9.7315,7.1639,-0.1484,3.1880,2.2679
1222.6562,-0.2237,1.8329,2.4371,-2.1308,-4.0617,-0.2288,1.6661,-4.6952,1.4812,1.6621,4.7356,4.9217,-1.8075,-4.2295,5.8655,4.5847,-3.0442,1.1605,1.4733
1226.5625,-2.9728,0.6171,0.8721,-2.3600,-5.4374,-0.9099,0.2047,-4.8734,-1.1520,-0.6702,-0.1103,2.1968,-3.6474,-5.3344,1.8519,2.4088,-5.3456,-0.4406,-0.1622
1230.4688,-3.2628,0.0938,-0.6161,-2.4512,-5.7253,-0.6046,-0.6701,-4.5969,-2.2735,-1.5574,-3.7417,-0.0926,-4.2906,-5.7899,-1.1143,1.3899,-6.0504,-1.3671,-1.8688
1234.3750,-1.9144,-0.2058,-1.7704,-2.6346,-5.1214,0.0896,-0.6691,-4.0725,-2.2020,-1.3216,-5.3946,-1.4814,-3.8958,-5.6584,-2.2931,1.6627,-5.1128,-1.8167,-3.1146
1238.2812,-0.4185,-0.7740,-2.7624,-3.3499,-4.3738,0.4919,-0.1930,-3.8042,-1.8766,-0.7203,-5.2723,-2.0094,-3.2432,-5.4104,-1.7256,2.7814,-3.3703,-2.2881,-3.8694
1242.1875,-0.0864,-1.8517,-3.9683,-4.8912,-4.2757,0.1709,-0.0328,-4.2761,-2.2338,-0.4428,-4.2589,-2.0507,-3.1562,-5.5648,-0.1176,4.0496,-1.9052,-3.2143,-4.5013
1246.0938,-1.3687,-3.2766,-5.5691,-7.0647,-5.1457,-0.8772,-0.7944,-5.6064,-3.5656,-0.6773,-3.2938,-1.9681,-3.9216,-6.2983,1.6067,4.9153,-1.3137,-4.6013,-5.4023
1250.0000,-3.7077,-4.5273,-7.2667,-9.1207,-6.6180,-2.2628,-2.4528,-7.3884,-5.2857,-1.0384,-2.8299,-1.8400,-5.0975,-7.2814,2.7805,5.2002,-1.3980,-5.9144,-6.6136
1253.9062,-5.9468,-4.9523,-8.3350,-10.0636,-7.8622,-3.4051,-4.3391,-8.8331,-6.2758,-0.8977,-2.6918,-1.4436,-5.8237,-7.8596,3.2325,5.0682,-1.4633,-6.3141,-7.7100
1257.8125,-7.0086,-4.0895,-8.0026,-9.1899,-8.0888,-3.8002,-5.5468,-9.1607,-5.5968,0.1143,-2.3524,-0.4833,-5.4047,-7.4713,3.2026,4.8084,-0.9500,-5.1268,-8.0224
1261.7188,-6.4320,-1.9261,-5.9379,-6.5313,-7.0259,-3.2322,-5.4700,-8.0304,-3.1093,1.7865,-1.3833,1.1153,-3.7655,-6.0435,3.0652,4.6051,0.0954,-2.2779,-7.0532
1265.6250,-4.4958,1.0394,-2.5283,-2.9113,-5.0902,-1.8408,-4.1130,-5.7650,0.3973,3.4114,0.2408,3.0688,-1.4870,-4.1091,3.0698,4.4405,1.0613,1.5777,-4.8135
1269.5312,-1.9335,3.9934,1.2394,0.4488,-3.1627,-0.0159,-1.9989,-3.2261,3.6503,4.2292,2.1545,4.8599,0.5742,-2.5617,3.2531,4.1685,1.2705,5.3272,-1.8636
1273.4375,0.5290,6.1863,4.2537,2.5554,-2.1135,1.8223,0.2204,-1.3860,5.6264,3.9358,3.8767,6.0417,1.8101,-2.1816,3.5276,3.6852,0.5447,7.9365,0.9737
1277.3438,2.5168,7.3075,5.8473,3.1346,-2.3457,3.4409,2.1653,-0.8205,6.1139,2.9190,5.1327,6.5193,2.1889,-3.2042,3.8393,3.0751,-0.5903,8.9574,3.0547
1281.2500,4.0618,7.6406,6.1352,2.7041,-3.5971,4.8804,3.8803,-1.4041,5.7669,2.0586,6.0128,6.6220,2.2071,-5.1750,4.2651,2.6356,-1.2046,8.7250,4.2436
1285.1562,5.4059,7.8892,5.9217,2.2021,-5.0881,6.3498,5.6702,-2.3853,5.6424,2.2132,6.8802,6.9134,2.5413,-7.1646,4.9873,2.7597,-0.5416,8.1376,4.9327
1289.0625,6.7291,8.7439,6.2183,2.4127,-5.9225,7.9911,7.7605,-2.8140,6.5303,3.7108,8.1045,7.8512,3.6443,-8.2191,6.1695,3.7301,1.5287,8.1492,5.7438
1292.9688,7.9915,10.4315,7.6390,3.5343,-5.5382,9.6651,10.0207,-2.0895,8.4847,6.1505,9.7844,9.4956,5.5160,-7.8043,7.8184,5.5281,4.4642,9.2515,7.0925
1296.8750,8.9685,12.5155,10.0125,5.1200,-3.9946,10.9185,11.9215,-0.3231,10.8201,8.6219,11.6191,11.4278,7.7386,-6.0266,9.7135,7.7634,7.3881,11.2232,8.8773
1300.7812,9.4190,14.0905,12.4341,6.3859,-1.9671,11.1824,12.7479,1.6914,12.5325,10.1924,13.0003,12.9282,9.6989,-3.5461,11.4481,9.7837,9.5441,13.2597,10.4847
1304.6875,9.2501,14.2754,13.7368,6.6678,-0.4469,10.1007,11.9452,2.8895,12.8701,10.3678,13.2888,13.3200,10.8581,-1.2533,12.5694,10.9406,10.5825,14.3977,11.1164
1308.5938,8.5705,12.7276,13.1238,5.7646,-0.2715,7.7873,9.4216,2.5074,11.7197,9.2786,12.1476,12.3114,10.9546,0.1263,12.7631,10.8942,10.5721,13.9996,10.2581
1312.5000,7.6173,9.8740,10.6152,4.0086,-1.6900,4.8436,5.6640,0.5059,9.6220,7.5299,9.7672,10.1702,10.0977,0.3260,11.9961,9.7955,9.8378,12.0614,8.0246
1316.4062,6.6308,6.7223,7.0670,2.0819,-4.1761,2.1118,1.6131,-2.3748,7.4569,5.8501,6.8546,7.6431,8.7450,-0.3764,10.5464,8.2263,8.7924,9.2128,5.1796
1320.3125,5.7743,4.3652,3.7575,0.7154,-6.6071,0.3074,-1.6543,-4.9497,6.0058,4.7579,4.3597,5.6469,7.5634,-1.3019,8.8871,6.8984,7.8443,6.4355,2.8055
1324.2188,5.1405,3.4669,1.7773,0.4199,-7.7664,-0.2571,-3.3131,-6.1326,5.6260,4.4082,3.0497,4.8637,7.1823,-1.6815,7.4691,6.2656,7.3347,4.6488,1.7918
1328.1250,4.8093,4.0183,1.5511,1.3324,-6.9504,0.2846,-3.0900,-5.4167,6.1672,4.6396,3.1396,5.4252,7.9004,-1.0132,6.5091,6.2719,7.4306,4.3440,2.4081
1332.0312,4.8754,5.4669,2.7309,3.1894,-4.3754,1.5294,-1.3447,-3.0736,7.1196,5.1315,4.1838,6.8441,9.4791,0.6815,5.9025,6.4008,7.9942,5.4110,4.1827
1335.9375,5.3955,7.0969,4.4775,5.4089,-1.1424,3.0550,1.1124,-0.0017,7.8797,5.5566,5.3113,8.2425,11.1698,2.8253,5.3227,6.0110,8.5526,7.2111,6.1457
1339.8438,6.2834,8.4049,5.9361,7.2662,1.2613,4.5783,3.3873,2.6785,8.0062,5.6700,5.6940,8.7811,12.0241,4.5197,4.4574,4.7659,8.4850,8.8581,7.3042
1343.7500,7.2442,9.2560,6.6324,8.1379,1.6942,5.9549,4.8761,4.0909,7.3754,5.3480,4.9965,8.0781,11.3701,4.9599,3.2445,2.8895,7.3859,9.5910,7.1038
1347.6562,7.8382,9.7802,6.5991,7.7483,-0.0589,7.0778,5.4584,3.9323,6.2055,4.6143,3.5533,6.3993,9.1976,3.8384,1.9587,1.0840,5.3862,9.0918,5.6502
1351.5625,7.6773,10.1389,6.2195,6.3099,-3.1768,7.7996,5.4254,2.5418,4.9594,3.6589,2.1715,4.5117,6.2109,1.5226,1.0870,0.1519,3.1770,7.6117,3.6006
1355.4688,6.6567,10.3572,5.9339,4.4628,-6.2311,7.9589,5.2091,0.7021,4.1627,2.8137,1.6761,3.2766,3.4909,-1.1051,1.0574,0.5481,1.6551,5.8454,1.8063
1359.3750,5.0735,10.3301,5.9963,3.0024,-7.9171,7.4922,5.0977,-0.7291,4.1916,2.4472,2.4617,3.2074,1.9476,-3.0731,1.9796,2.1241,1.3874,4.6023,0.9048
1363.2812,3.5318,9.9665,6.3962,2.5150,-7.6798,6.5317,5.1146,-1.1934,5.1034,2.7925,4.2989,4.2312,1.8850,-3.7820,3.5494,4.2032,2.2498,4.4245,1.0658
1367.1875,2.6628,9.3255,6.9360,3.1091,-5.9035,5.3955,5.1122,-0.6477,6.5836,3.7923,6.4817,5.7735,2.9230,-3.2480,5.1687,5.9203,3.5023,5.3350,1.9918
1371.0938,2.8051,8.6189,7.3704,4.3893,-3.5973,4.4557,4.9763,0.4694,8.0465,5.0648,8.1964,7.0886,4.2936,-2.0068,6.2133,6.6178,4.2636,6.8394,3.1331
1375.0000,3.8223,8.0641,7.5077,5.6789,-1.8044,3.9562,4.7635,1.4927,8.8617,6.0392,8.8858,7.6238,5.2874,-0.7640,6.2993,6.0830,4.0565,8.1679,3.9750
1378.9062,5.1609,7.6982,7.2363,6.3493,-1.0964,3.8884,4.6564,1.8711,8.6101,6.2056,8.4173,7.2069,5.5615,-0.0259,5.4168,4.5371,3.0465,8.6236,4.2390
1382.8125,6.1098,7.3013,6.5020,6.0664,-1.4179,3.9940,4.7741,1.4142,7.2487,5.3476,7.0130,5.9861,5.1475,0.0713,3.8815,2.4359,1.8218,7.8508,3.9163
1386.7188,6.1193,6.5065,5.2903,4.8452,-2.2980,3.8904,5.0022,0.3286,5.1059,3.6267,5.0434,4.2190,4.2352,-0.3252,2.1483,0.2315,0.9064,5.9101,3.1576
1390.6250,5.0214,5.0424,3.6404,2.9423,-3.2202,3.2529,5.0003,-0.9491,2.7151,1.4792,2.8417,2.0924,2.9497,-1.0063,0.5952,-1.7747,0.3838,3.1698,2.1226
1394.5312,3.0659,2.9528,1.6773,0.7150,-3.8871,1.9686,4.4148,-1.9944,0.5806,-0.6026,0.6338,-0.2976,1.3087,-1.8588,-0.6198,-3.4478,-0.0896,0.1220,0.8959
1398.4375,0.7909,0.6449,-0.3746,-1.4523,-4.2435,0.2027,3.1598,-2.5625,-1.0023,-2.2712,-1.4202,-2.8197,-0.6378,-2.8478,-1.5705,-4.7464,-0.9217,-2.7567,-0.4911
1402.3438,-1.1931,-1.2812,-2.2245,-3.1548,-4.3239,-1.6503,1.5556,-2.6012,-1.9990,-3.4025,-3.1610,-5.1757,-2.6523,-3.8791,-2.4518,-5.6426,-2.1829,-5.0633,-1.9736
1406.2500,-2.4158,-2.3335,-3.5910,-3.9989,-4.1073,-3.1165,0.2032,-2.1567,-2.5608,-4.0417,-4.4188,-6.9118,-4.3230,-4.7055,-3.4137,-6.0934,-3.5030,-6.4894,-3.3930
1410.1562,-2.7021,-2.3848,-4.2907,-3.7288,-3.5210,-3.8425,-0.3513,-1.2877,-2.8990,-4.2901,-5.0753,-7.6109,-5.2833,-5.0048,-4.4342,-6.0754,-4.3529,-6.8753,-4.5278
1414.0625,-2.2324,-1.7372,-4.3008,-2.4100,-2.5787,-3.7633,0.0502,-0.0728,-3.1864,-4.2258,-5.1490,-7.1573,-5.4840,-4.6005,-5.3093,-5.6505,-4.4837,-6.3027,-5.2080
1417.9688,-1.4819,-0.9525,-3.7682,-0.5223,-1.5085,-3.1471,1.0690,1.3088,-3.5234,-3.8999,-4.8319,-5.8846,-5.2887,-3.6533,-5.7749,-5.0117,-4.1611,-5.1464,-5.4315
1421.8750,-1.0294,-0.5454,-2.9583,1.1752,-0.7165,-2.4702,2.0648,2.5363,-3.9475,-3.3758,-4.4359,-4.4773,-5.2781,-2.6431,-5.6932,-4.4639,-3.9889,-3.9857,-5.3865
1425.7812,-1.2788,-0.7107,-2.1559,1.9978,-0.5695,-2.1612,2.4781,3.2405,-4.4407,-2.7471,-4.2657,-3.6489,-5.8653,-2.1094,-5.1776,-4.3229,-4.4415,-3.3587,-5.3445
1429.6875,-2.2114,-1.2374,-1.5559,1.7205,-1.1337,-2.3477,2.1579,3.2136,-4.9140,-2.0990,-4.4772,-3.7727,-6.9836,-2.3080,-4.5534,-4.7652,-5.4628,-3.4699,-5.4782
1433.5938,-3.3223,-1.6539,-1.1892,0.7330,-2.0693,-2.7668,1.4324,2.5917,-5.1914,-1.4436,-4.9918,-4.6802,-8.0780,-3.0280,-4.1472,-5.7021,-6.4484,-4.0428,-5.7260
1437.5000,-3.8308,-1.5173,-0.9292,-0.1759,-2.7862,-2.9191,0.8836,1.8429,-5.0403,-0.6949,-5.5113,-5.7525,-8.4251,-3.7145,-4.0308,-6.7675,-6.6455,-4.4459,-5.8054
1441.4062,-3.1012,-0.6793,-0.5854,-0.3007,-2.7844,-2.3947,0.9732,1.5108,-4.2666,0.2712,-5.6371,-6.2559,-7.5776,-3.8281,-3.9088,-7.4615,-5.6842,-4.0536,-5.3838
1445.3125,-1.0510,0.6243,-0.0449,0.5305,-1.9642,-1.1722,1.7538,1.8505,-2.8410,1.4954,-5.0518,-5.7294,-5.6406,-3.1970,-3.2680,-7.3977,-3.8554,-2.6349,-4.3062
1449.2188,1.7161,1.9101,0.6219,1.8404,-0.6984,0.3181,2.8356,2.6062,-0.9747,2.8372,-3.6881,-4.2103,-3.2010,-2.1165,-1.7386,-6.5219,-1.9307,-0.5230,-2.7304
1453.1250,4.1766,2.7280,1.1687,2.8102,0.3875,1.4311,3.6185,3.1171,0.9194,3.9801,-1.8042,-2.1794,-0.9726,-1.1284,0.5595,-5.1529,-0.6550,1.5531,-1.0708
1457.0312,5.4323,2.9178,1.3099,2.8140,0.7919,1.7068,3.6416,2.7262,2.3838,4.5609,0.0870,-0.2770,0.6001,-0.6357,2.9444,-3.7966,-0.2711,2.8764,0.2262
1460.9375,5.2136,2.6863,0.9179,1.8309,0.4360,1.1721,2.8442,1.2458,3.1161,4.3541,1.4246,1.0382,1.5254,-0.6240,4.4802,-2.8313,-0.4019,3.1375,0.9348
1464.8438,4.0213,2.4606,0.1539,0.4628,-0.2956,0.3330,1.5953,-0.8337,3.1018,3.4047,1.8553,1.6918,2.1435,-0.6776,4.5171,-2.2679,-0.3487,2.5735,1.1706
1468.7500,2.8035,2.6054,-0.5686,-0.4477,-0.7885,-0.1491,0.4900,-2.5584,2.6021,2.0290,1.4114,1.9589,2.8203,-0.2733,3.1280,-1.7591,0.4221,1.7794,1.2950
1472.6562,2.3623,3.1819,-0.7946,-0.3431,-0.5584,0.1088,0.0351,-3.0440,2.0020,0.6821,0.5060,2.2340,3.6803,0.8528,1.1363,-0.8710,1.9437,1.3265,1.6628
1476.5625,2.8636,3.8984,-0.2988,0.7145,0.4709,0.9592,0.3990,-2.0097,1.6033,-0.2362,-0.2716,2.7574,4.5446,2.5048,-0.3243,0.5583,3.7671,1.4337,2.3727
1480.4688,3.7619,4.2864,0.7467,2.0957,1.9150,1.8212,1.3478,0.0185,1.4737,-0.5385,-0.4630,3.4636,5.0819,4.1109,-0.4672,2.2261,5.2714,1.8818,3.1822
1484.3750,4.1759,3.9926,1.8248,2.9813,3.1113,2.0639,2.3831,1.9644,1.4291,-0.3042,0.0121,4.0335,5.0383,5.0219,0.6803,3.4937,6.0220,2.1926,3.6395
1488.2812,3.4655,3.0043,2.3309,2.8117,3.4274,1.4194,2.9923,2.7686,1.1471,0.1757,0.8066,4.1047,4.3863,4.8366,2.3021,3.7686,5.9381,1.9337,3.3513
1492.1875,1.6386,1.6660,1.8927,1.5436,2.5443,0.1557,2.8779,1.9375,0.3459,0.5257,1.3260,3.5027,3.3168,3.5790,3.2945,2.8935,5.2096,0.9584,2.2189
1496.0938,-0.6557,0.4752,0.5671,-0.3974,0.5969,-1.0953,2.0576,-0.2302,-1.0633,0.4282,1.0384,2.3482,2.1185,1.6642,2.9262,1.2752,4.0873,-0.5428,0.5017
1500.0000,-2.5180,-0.2162,-1.2006,-2.3890,-1.8702,-1.7336,0.8083,-2.8398,-2.9213,-0.2670,-0.2567,0.9791,1.0449,-0.2936,1.2426,-0.3387,2.7381,-2.1763,-1.3224
1503.9062,-3.3103,-0.4100,-2.8248,-3.9218,-4.1071,-1.5510,-0.4942,-4.8804,-4.8821,-1.4982,-2.3433,-0.2527,0.2463,-1.7209,-1.0187,-1.2911,1.2576,-3.5619,-2.8057
1507.8125,-2.9801,-0.4526,-3.8863,-4.7862,-5.4425,-0.8380,-1.5451,-5.7105,-6.5569,-3.0261,-4.7167,-1.1775,-0.2332,-2.2782,-2.9118,-1.3720,-0.2196,-4.5115,-3.7369
1511.7188,-2.0336,-0.8153,-4.3183,-5.0811,-5.5449,-0.1907,-2.2059,-5.3031,-7.6736,-4.5369,-6.8357,-1.8692,-0.4343,-1.9588,-3.8347,-0.8773,-1.4536,-5.0893,-4.1920
1515.6250,-1.2177,-1.7964,-4.3756,-5.0905,-4.5578,-0.1539,-2.4984,-4.1627,-8.1817,-5.7727,-8.3476,-2.5384,-0.4739,-1.0757,-3.8043,-0.3543,-2.1724,-5.5427,-4.4196
1519.5312,-1.1206,-3.3212,-4.4219,-5.1134,-3.0398,-0.9176,-2.5264,-3.0017,-8.2521,-6.6263,-9.1716,-3.3352,-0.5361,-0.1406,-3.3236,-0.2204,-2.2442,-6.1454,-4.6468
1523.4375,-1.9054,-4.9508,-4.6730,-5.3145,-1.7176,-2.2265,-2.3849,-2.3692,-8.1729,-7.1455,-9.4256,-4.1988,-0.8255,0.3416,-2.9812,-0.5069,-1.8080,-7.0228,-4.9323
1527.3438,-3.2794,-6.0926,-5.0525,-5.6420,-1.1518,-3.5259,-2.1106,-2.4171,-8.1894,-7.4437,-9.2757,-4.8558,-1.4682,0.0954,-3.0728,-0.8702,-1.2351,-8.0414,-5.1454
1531.2500,-4.6716,-6.2944,-5.2374,-5.8359,-1.4724,-4.2457,-1.6921,-2.8923,-8.3743,-7.5766,-8.8227,-4.9714,-2.4043,-0.7870,-3.4737,-0.8252,-0.9154,-8.8242,-5.0692
1535.1562,-5.5106,-5.4679,-4.8621,-5.5392,-2.3266,-4.0718,-1.1190,-3.3281,-8.6030,-7.4809,-8.0939,-4.3532,-3.3509,-1.8754,-3.7991,-0.0291,-1.0003,-8.9076,-4.5523
1539.0625,-5.4820,-3.9377,-3.7586,-4.4864,-3.0764,-3.0873,-0.4337,-3.3165,-8.6551,-7.0333,-7.1278,-3.0791,-3.8917,-2.6077,-3.7017,1.5503,-1.2804,-7.9831,-3.6155
1542.9688,-4.6737,-2.3024,-2.0988,-2.6923,-3.1502,-1.7360,0.2448,-2.7231,-8.3840,-6.2004,-6.0704,-1.4756,-3.6747,-2.5736,-3.1008,3.6392,-1.3007,-6.1047,-2.4594
1546.8750,-3.5542,-1.1819,-0.3614,-0.5341,-2.3621,-0.6327,0.7381,-1.7467,-7.8498,-5.1675,-5.1970,0.0284,-2.6204,-1.7234,-2.2209,5.7769,-0.6608,-3.7384,-1.3837
1550.7812,-2.7783,-0.9690,0.8598,1.3462,-1.0266,-0.2981,0.8590,-0.8102,-7.3211,-4.3279,-4.8262,1.0710,-1.0200,-0.3861,-1.4533,7.4583,0.6767,-1.6052,-0.6757
1554.6875,-2.8807,-1.6842,1.1101,2.2952,0.1914,-0.9230,0.4783,-0.3540,-7.1315,-4.1012,-5.1651,1.4562,0.5424,0.8995,-1.1477,8.2485,2.2665,-0.3845,-0.5288
1558.5938,-3.9858,-2.9858,0.2673,1.9359,0.6063,-2.2629,-0.4118,-0.6431,-7.4691,-4.6773,-6.1759,1.1544,1.4206,1.6305,-1.4437,7.8790,3.3450,-0.4296,-1.0155
1562.5000,-5.6900,-4.3196,-1.4101,0.3361,-0.1524,-3.7224,-1.6632,-1.6765,-8.2296,-5.8517,-7.5415,0.2543,1.1832,1.5187,-2.2042,6.3446,3.2100,-1.6400,-2.0966
1566.4062,-7.2098,-5.1430,-3.3941,-2.0296,-1.9643,-4.6097,-2.9839,-3.2228,-9.0285,-7.0792,-8.7586,-1.0657,-0.1886,0.5345,-3.0525,3.9728,1.6213,-3.5382,-3.6309
1570.3125,-7.7525,-5.1345,-5.0965,-4.4890,-4.2748,-4.4553,-4.0106,-4.9325,-9.3746,-7.7311,-9.3164,-2.5246,-2.2693,-1.1523,-3.4984,1.3975,-0.9988,-5.4798,-5.3708
1574.2188,-6.9269,-4.3073,-6.0813,-6.4271,-6.3379,-3.2404,-4.4294,-6.4554,-8.9076,-7.4047,-8.8836,-3.7327,-4.3360,-3.2424,-3.1229,-0.6154,-3.6903,-6.8704,-6.9666
1578.1250,-4.9625,-2.9827,-6.1934,-7.4619,-7.5249,-1.4156,-4.1045,-7.5153,-7.5668,-6.0968,-7.4243,-4.2587,-5.6337,-5.3354,-1.7711,-1.4533,-5.3645,-7.2993,-8.0210
1582.0312,-2.6011,-1.6350,-5.5680,-7.4910,-7.5626,0.3129,-3.1563,-7.9472,-5.6039,-4.1454,-5.2020,-3.7899,-5.6542,-6.9422,0.3285,-0.9175,-5.3025,-6.5890,-8.2116
1585.9375,-0.7116,-0.6702,-4.5334,-6.6472,-6.6118,1.3253,-1.9392,-7.7232,-3.4437,-1.9969,-2.6740,-2.3032,-4.3190,-7.5537,2.6055,0.6947,-3.4868,-4.8062,-7.4382
1589.8438,0.1612,-0.2340,-3.4585,-5.2270,-5.1618,1.3880,-0.9094,-6.9766,-1.4785,0.0339,-0.3181,-0.1209,-1.9881,-6.8017,4.3808,2.7594,-0.5880,-2.2637,-5.9029
1593.7500,0.0630,-0.1321,-2.6046,-3.6198,-3.7897,0.7607,-0.4307,-5.9885,0.1009,1.8657,1.5497,2.2292,0.7173,-4.6441,5.2058,4.6642,2.3976,0.5237,-4.0450
1597.6562,-0.4247,0.0891,-2.0314,-2.2178,-2.8871,0.0596,-0.6063,-5.0979,1.3647,3.5783,2.8996,4.2986,3.2033,-1.4514,5.1319,6.1229,4.6661,2.9829,-2.3315
1601.5625,-0.5161,0.9259,-1.5925,-1.2933,-2.4815,-0.0532,-1.2246,-4.5420,2.5799,5.2574,3.9952,5.9695,5.1631,2.0981,4.7283,7.2740,5.9915,4.7137,-1.0118
1605.4688,0.3593,2.6445,-1.0305,-0.8849,-2.2524,0.7945,-1.8573,-4.3145,4.0557,6.8841,5.2588,7.4847,6.6649,5.2762,4.7940,8.5009,6.7544,5.6890,0.0039
1609.3750,2.2570,5.0738,-0.1464,-0.7813,-1.7545,2.4753,-2.0727,-4.1556,5.9542,8.3309,7.0241,9.2001,8.0072,7.5699,5.8923,10.0806,7.5925,6.2588,1.0374
1613.2812,4.6718,7.5747,1.0267,-0.6616,-0.7401,4.3781,-1.6594,-3.7245,8.1385,9.4345,9.2811,11.2046,9.4147,8.7951,7.9707,11.8853,8.8876,6.8924,2.3487
1617.1875,6.7469,9.2367,2.1462,-0.3385,0.6075,5.6517,-0.7420,-2.8680,10.1337,10.0621,11.5557,13.0786,10.7645,9.0147,10.3056,13.3382,10.4131,7.7874,3.8449
1621.0938,7.6417,9.2555,2.6579,0.0573,1.7005,5.5872,0.2812,-1.7960,11.2576,10.1284,13.0369,14.0069,11.5393,8.3635,11.8349,13.6776,11.3851,8.6208,5.0090
1625.0000,6.9084,7.3408,2.0690,0.1156,1.8598,3.9813,0.9571,-1.0031,10.9113,9.5906,12.9455,13.2361,11.0787,6.9432,11.7147,12.3995,10.9140,8.6729,5.1453
1628.9062,4.7282,3.9547,0.2751,-0.5686,0.7526,1.3062,1.0400,-0.9440,8.9246,8.4777,10.9849,10.6151,9.0079,4.8696,9.7920,9.6225,8.5919,7.3136,3.8216
1632.8125,1.8928,0.2213,-2.2519,-2.0386,-1.3186,-1.4306,0.6477,-1.6660,5.7691,6.9629,7.6217,6.8542,5.5799,2.4031,6.7242,6.1434,4.8489,4.5495,1.2286
1636.7188,-0.4948,-2.5087,-4.5756,-3.8148,-3.4954,-3.1166,0.2112,-2.6799,2.4727,5.4089,3.9902,3.2794,1.6881,-0.0040,3.6724,3.1124,0.8342,1.2249,-1.8055
1640.6250,-1.5048,-3.2687,-5.7085,-5.0988,-4.8088,-3.0783,0.2283,-3.2141,0.2063,4.2900,1.4079,1.1725,-1.5063,-1.8557,1.7344,1.4755,-2.1345,-1.3396,-4.2021
1644.5312,-0.8376,-1.9642,-5.1337,-5.2570,-4.7449,-1.4586,0.9517,-2.7285,-0.2854,3.9748,0.7288,1.0712,-3.1467,-2.8960,1.4246,1.4871,-3.2417,-2.1057,-5.2077
1648.4375,0.9970,0.5410,-3.1320,-4.2718,-3.5758,0.8069,2.1952,-1.3507,0.9039,4.4798,1.8926,2.4656,-3.1199,-3.3198,2.4716,2.5822,-2.5748,-0.9927,-4.8038
1652.3438,2.9175,2.8337,-0.6886,-2.8285,-2.2262,2.4520,3.3880,0.0938,2.8523,5.3828,3.9506,4.0991,-2.0929,-3.7085,4.0233,3.7095,-1.0275,1.0065,-3.6798
1656.2500,3.8414,3.6762,1.0109,-1.9325,-1.7349,2.5642,3.8671,0.5311,4.2854,6.0087,5.5825,4.7134,-1.1163,-4.6715,5.1258,3.9535,0.2218,2.3952,-2.7786
1660.1562,3.2845,2.6699,1.2223,-2.2794,-2.6346,1.1084,3.2517,-0.6908,4.2707,5.8182,5.8188,3.7873,-1.0263,-6.4061,5.2057,3.0816,0.3395,2.0919,-2.7036
1664.0625,1.6323,0.4811,0.0431,-3.7905,-4.6349,-1.0311,1.6796,-3.3456,2.7310,4.7604,4.5496,1.8169,-1.9993,-8.4836,4.3071,1.6739,-0.7862,0.1070,-3.3684
1667.9688,-0.1007,-1.5216,-1.6777,-5.6383,-6.8043,-2.5444,-0.2418,-6.3983,0.4658,3.3355,2.5222,-0.0300,-3.5103,-10.0441,2.9855,0.7349,-2.5998,-2.4737,-4.1105
1671.8750,-0.8907,-2.0331,-2.8683,-6.7579,-8.1225,-2.4560,-1.7513,-8.5732,-1.3324,2.2970,0.8461,-0.6581,-4.6914,-10.3018,1.9525,1.0155,-4.2751,-4.1842,-4.1764
1675.7812,-0.3172,-0.5572,-2.8718,-6.5103,-8.0493,-0.7014,-2.3354,-9.0630,-1.7687,2.1732,0.3272,0.2836,-4.8482,-9.0387,1.6925,2.4791,-5.1783,-4.0940,-3.2463
1679.6875,1.2213,2.2980,-1.7962,-5.0606,-6.7622,1.8287,-1.9773,-7.9322,-0.7206,2.9326,1.0455,2.2163,-3.8193,-6.7519,2.2620,4.2745,-5.1263,-2.3446,-1.6473
1683.5938,2.8200,5.1469,-0.3716,-3.2315,-4.9508,3.8074,-1.1121,-5.9846,1.1734,4.0274,2.4113,4.0273,-1.9920,-4.3528,3.3570,5.2588,-4.3392,0.0159,-0.1308
1687.5000,3.6868,6.5910,0.5678,-1.9491,-3.3498,4.2407,-0.3279,-4.2186,2.9629,4.7878,3.6167,4.7720,-0.0197,-2.6186,4.5665,4.7482,-3.1915,1.7500,0.6181
1691.4062,3.6390,5.9866,0.6230,-1.6656,-2.3371,3.0265,-0.0066,-3.2474,3.9545,4.8857,4.1510,4.2323,1.5437,-1.7644,5.6283,3.0046,-1.9645,2.1981,0.4020
1695.3125,3.1479,3.7870,0.0469,-2.1304,-1.8391,0.9841,-0.1259,-3.0441,4.0392,4.5334,4.0433,2.9975,2.4639,-1.4091,6.5197,1.1270,-0.7578,1.6051,-0.4037
1699.2188,2.9235,1.2849,-0.4748,-2.6282,-1.5476,-0.6354,-0.3310,-3.1186,3.6136,4.2766,3.7124,2.0536,2.8120,-0.9316,7.3425,0.3990,0.4336,0.8490,-1.1298
1703.1250,3.3541,-0.0787,-0.2956,-2.4811,-1.2392,-0.8447,-0.2073,-2.9407,3.2124,4.5382,3.5857,2.1706,2.7924,0.0515,8.1100,1.5095,1.5859,0.8176,-1.2423
1707.0312,4.2062,0.5529,0.7966,-1.4651,-0.9480,0.5839,0.4348,-2.2952,3.1436,5.2532,3.7867,3.4740,2.5776,1.4203,8.6125,4.1406,2.5891,1.8729,-0.6331
1710.9375,4.7914,3.0612,2.5069,0.1153,-0.8846,3.0713,1.4433,-1.3572,3.3664,5.8711,4.1058,5.4335,2.2645,2.6623,8.4874,7.1761,3.3085,3.7201,0.3940
1714.8438,4.4702,6.4718,4.2866,1.6906,-1.1955,5.5994,2.4325,-0.4968,3.6445,5.7299,4.2377,7.2255,1.9438,3.2532,7.4688,9.3699,3.7017,5.6880,1.3948
1718.7500,3.1298,9.4713,5.7011,2.8094,-1.7668,7.2405,3.0302,-0.0039,3.8084,4.5394,4.0740,8.2053,1.7804,3.0247,5.6549,10.0356,3.8803,7.1648,2.1047
1722.6562,1.3093,11.0246,6.6526,3.3796,-2.2261,7.5544,3.0980,0.0731,3.9042,2.6284,3.8163,8.2067,2.0052,2.2725,3.5940,9.3321,4.0546,7.8906,2.5993
1726.5625,-0.1027,10.7921,7.3354,3.6449,-2.1391,6.6906,2.7965,-0.0988,4.1314,0.7833,3.8301,7.5347,2.8016,1.5568,2.0926,8.0260,4.3941,7.9711,3.2145
1730.4688,-0.3834,9.1853,8.0023,3.9664,-1.2572,5.2177,2.4759,-0.2751,4.6423,-0.2121,4.3579,6.7208,4.1692,1.3601,1.8250,6.9508,4.9095,7.6952,4.3037
1734.3750,0.6281,7.0928,8.7358,4.5868,0.3458,3.8241,2.4715,-0.2593,5.3788,-0.0239,5.3092,6.2270,5.8705,1.8395,2.9598,6.5446,5.4426,7.3382,5.9918
1738.2812,2.4781,5.4431,9.3833,5.5228,2.3230,3.0418,2.9263,0.0525,6.0773,1.0793,6.2753,6.2638,7.5105,2.8163,5.0245,6.7274,5.7749,7.0797,8.0627
1742.1875,4.3774,4.8116,9.6743,6.6115,4.2326,3.0855,3.7290,0.6867,6.4315,2.4399,6.7516,6.7699,8.7072,3.9597,7.0981,7.1048,5.7743,7.0292,10.0235
1746.0938,5.6108,5.2247,9.4107,7.6363,5.7262,3.8220,4.5811,1.6088,6.2931,3.4175,6.4147,7.5025,9.2502,5.0039,8.2356,7.2726,5.4761,7.2665,11.3023
1750.0000,5.8425,6.2190,8.5941,8.4323,6.6505,4.8536,5.1503,2.7139,5.7717,3.7174,5.2894,8.1536,9.1647,5.8459,7.9001,6.9913,5.0460,7.8253,11.4883
1753.9062,5.1950,7.1087,7.4294,8.9246,7.0429,5.6852,5.2329,3.8227,5.1832,3.4582,3.7314,8.4500,8.6631,6.4886,6.1878,6.1693,4.6603,8.6384,10.5211
1757.8125,4.1211,7.3394,6.2363,9.1130,7.0631,5.9283,4.8580,4.7252,4.8978,2.9933,2.2744,8.2385,8.0361,6.9169,3.7522,4.7745,4.3989,9.5195,8.7569
1761.7188,3.1776,6.7699,5.3456,9.0430,6.9099,5.4739,4.2853,5.2691,5.1855,2.6544,1.4406,7.5611,7.5523,7.0308,1.4970,2.8350,4.2276,10.2345,6.8733
1765.6250,2.8074,5.7552,5.0314,8.7873,6.7460,4.5492,3.8935,5.4352,6.1291,2.5939,1.5891,6.6943,7.4007,6.6948,0.2066,0.5637,4.0778,10.6331,5.6297
1769.5312,3.1913,4.9842,5.4706,8.4353,6.6361,3.6158,4.0008,5.3339,7.6144,2.7955,2.8236,6.0971,7.6689,5.8625,0.2772,-1.5225,3.9494,10.7476,5.5651
1773.4375,4.1982,5.1441,6.7034,8.0813,6.5099,3.1435,4.6993,5.1188,9.3698,3.1854,4.9514,6.2453,8.3296,4.6731,1.6344,-2.6700,3.9452,10.7815,6.7662
1777.3438,5.4426,6.5690,8.5875,7.8087,6.1813,3.3739,5.7939,4.8841,11.0338,3.7237,7.5024,7.4008,9.2296,3.4384,3.8182,-2.2051,4.1983,10.9869,8.8284
1781.2500,6.4429,9.0469,10.7832,7.6764,5.4452,4.2022,6.8884,4.6277,12.2467,4.3988,9.8389,9.4338,10.1037,2.5178,6.1636,0.0434,4.7359,11.5098,11.0431
1785.1562,6.8278,11.8805,12.8107,7.7066,4.2239,5.2417,7.5797,4.3060,12.7585,5.1480,11.3554,11.8102,10.6420,2.1527,7.9991,3.4820,5.3856,12.2982,12.7208
1789.0625,6.4975,14.1694,14.1816,7.8637,2.6816,6.0255,7.6520,3.9194,12.5207,5.7941,11.7088,13.7786,10.6056,2.3561,8.8151,6.8669,5.8101,13.1186,13.4723
1792.9688,5.6488,15.1724,14.5514,8.0280,1.2169,6.2217,7.1505,3.5387,11.7056,6.0751,10.9614,14.6727,9.9412,2.9136,8.3808,8.7911,5.6730,13.6595,13.2986
1796.8750,4.6436,14.5781,13.8179,7.9888,0.3032,5.7425,6.2957,3.2346,10.6221,5.7722,9.5400,14.1769,8.8218,3.4931,6.7968,8.3172,4.8436,13.6550,12.4593
1800.7812,3.7973,12.5756,12.1225,7.4968,0.2504,4.7100,5.3030,2.9716,9.5605,4.8644,8.0149,12.4265,7.5748,3.7999,4.4679,5.4285,3.5085,12.9761,11.2371
1804.6875,3.2180,9.7229,9.7731,6.3858,1.0212,3.3324,4.2430,2.5740,8.6517,3.6038,6.8164,9.9069,6.5220,3.7050,1.9917,1.0659,2.1028,11.6644,9.7712
1808.5938,2.7926,6.7000,7.1431,4.7107,2.2203,1.7898,3.0453,1.8263,7.8295,2.4458,6.0524,7.2249,5.8166,3.2833,-0.0185,-3.2691,1.0876,9.9107,8.0662
1812.5000,2.3074,4.0639,4.5942,2.8001,3.2699,0.1963,1.6373,0.6516,6.9152,1.8478,5.5283,4.8782,5.3711,2.7492,-1.1243,-6.1472,0.6973,7.9870,6.1374
1816.4062,1.6044,2.0969,2.4264,1.1473,3.6754,-1.3643,0.1015,-0.7713,5.7613,2.0292,4.9365,3.1255,4.9242,2.3201,-1.1967,-6.7864,0.8144,6.1484,4.1493
1820.3125,0.6655,0.7818,0.8351,0.1631,3.2332,-2.7866,-1.2870,-2.0624,4.3560,2.8267,4.0816,1.9900,4.2128,2.0798,-0.4389,-5.3191,1.0527,4.5418,2.4117
1824.2188,-0.4069,-0.1059,-0.1321,-0.0700,2.0798,-3.9283,-2.1888,-2.8541,2.8306,3.7413,3.0005,1.3582,3.1548,1.9205,0.7146,-2.6526,1.0082,3.1741,1.2260
1828.1250,-1.4563,-0.8345,-0.5900,0.1332,0.5828,-4.6443,-2.4126,-3.0194,1.3917,4.1843,1.9253,1.1069,1.9387,1.6080,1.7842,-0.0107,0.5266,1.9759,0.6978
1832.0312,-2.3121,-1.5460,-0.7625,0.2472,-0.8404,-4.8416,-2.0517,-2.7479,0.2483,3.8082,1.1437,1.1901,0.9628,0.9455,2.4332,1.6231,-0.1800,0.9371,0.6722
1835.9375,-2.7862,-2.1559,-0.8578,-0.1155,-1.8738,-4.5174,-1.4387,-2.4093,-0.4157,2.7364,0.8615,1.6506,0.6502,-0.0581,2.5786,1.8985,-0.6446,0.2177,0.8522
1839.8438,-2.6872,-2.3839,-0.9373,-0.9219,-2.3667,-3.7658,-0.9427,-2.3016,-0.4431,1.5376,1.1325,2.5500,1.2269,-1.1288,2.3761,1.1513,-0.4258,0.1230,1.0135
1843.7500,-1.9120,-1.9260,-0.8744,-1.7090,-2.3233,-2.7656,-0.7540,-2.4656,0.2601,0.9196,1.8553,3.8508,2.5764,-1.8403,2.0955,0.1111,0.6115,0.9090,1.1476
1847.6562,-0.5922,-0.6928,-0.4575,-1.8795,-1.8595,-1.7596,-0.8079,-2.6949,1.6226,1.2994,2.7957,5.3135,4.2451,-1.8565,1.9557,-0.5570,2.1828,2.5168,1.4158
1851.5625,0.8262,1.0208,0.4118,-1.1212,-1.1626,-1.0206,-0.8935,-2.7179,3.2988,2.5067,3.6126,6.4857,5.6004,-1.1662,2.0098,-0.6071,3.7067,4.4262,1.9443
1855.4688,1.6968,2.5669,1.5572,0.3318,-0.4565,-0.7863,-0.8521,-2.4064,4.6685,3.8259,3.9119,6.8297,6.0708,-0.1583,2.1382,-0.2587,4.5869,5.7828,2.6207
1859.3750,1.4876,3.2068,2.5364,1.7827,0.0381,-1.1620,-0.7091,-1.8588,5.0270,4.3854,3.3590,5.9618,5.3595,0.5314,2.1437,0.0652,4.4835,5.7845,3.0627
1863.2812,0.1292,2.4918,2.8447,2.4602,0.1531,-2.0329,-0.6437,-1.3150,3.9177,3.6694,1.8366,3.8912,3.5402,0.3324,1.8832,0.1071,3.4222,4.1267,2.8093
1867.1875,-1.8515,0.5533,2.2047,1.9676,-0.1858,-3.0518,-0.8294,-0.9914,1.4248,1.8342,-0.4355,1.1149,1.0103,-0.9588,1.3515,-0.0246,1.7034,1.2293,1.6214
1871.0938,-3.5512,-1.8868,0.7589,0.5129,-0.9375,-3.7443,-1.2788,-0.9651,-1.7740,-0.3807,-2.9161,-1.5221,-1.6564,-3.0564,0.6720,0.0336,-0.2961,-1.9172,-0.3039
1875.0000,-4.1738,-3.8225,-0.9633,-1.2094,-1.9497,-3.7103,-1.8124,-1.1752,-4.6714,-2.0917,-4.9272,-3.1624,-3.8727,-5.3028,0.0157,0.5693,-2.2779,-4.2169,-2.3544
1878.9062,-3.4811,-4.4372,-2.2931,-2.3901,-2.9773,-2.8241,-2.1718,-1.4972,-6.3889,-2.7706,-5.9305,-3.3064,-5.1547,-6.9524,-0.4837,1.5146,-4.0359,-4.9763,-3.7583
1882.8125,-1.9146,-3.4895,-2.7397,-2.4985,-3.7135,-1.3196,-2.1852,-1.8036,-6.5697,-2.4788,-5.7489,-2.0207,-5.1829,-7.4662,-0.7597,2.4493,-5.3579,-4.1666,-3.9378
1886.7188,-0.3007,-1.4005,-2.1999,-1.4852,-3.8540,0.3028,-1.8659,-1.9676,-5.4826,-1.6993,-4.6082,0.1251,-3.8446,-6.6841,-0.7810,2.9005,-5.9431,-2.3214,-2.7769
1890.6250,0.6653,0.9936,-0.9612,0.2661,-3.2085,1.5109,-1.3865,-1.8504,-3.7925,-0.9190,-2.9902,2.3427,-1.2949,-4.8364,-0.5076,2.7069,-5.4598,-0.1837,-0.6792
1894.5312,0.8111,2.8703,0.4718,2.1490,-1.8406,1.9945,-0.9638,-1.3491,-2.1622,-0.2839,-1.3965,3.9635,1.9830,-2.4391,0.1093,2.1537,-3.7525,1.6482,1.5913
1898.4375,0.5085,3.7905,1.6097,3.5681,-0.1539,1.8061,-0.7446,-0.5111,-0.9403,0.4217,-0.1601,4.6566,5.1918,-0.1503,1.0712,1.7582,-1.0711,2.8793,3.2068
1902.3438,0.3420,3.8304,2.1561,4.1083,1.1716,1.3181,-0.7497,0.3767,-0.1033,1.4805,0.6183,4.4547,7.3883,1.3783,2.2711,1.8723,1.8680,3.4621,3.5893
1906.2500,0.6840,3.4489,2.0774,3.6304,1.4327,1.0284,-0.8817,0.8516,0.5637,2.8870,1.0255,3.6471,7.8041,1.6543,3.4963,2.4234,4.0952,3.4633,2.6330
1910.1562,1.4759,3.2089,1.5795,2.3138,0.2544,1.3211,-0.9591,0.5217,1.2217,4.2361,1.2569,2.6516,6.1980,0.5011,4.5153,3.0137,4.8048,3.0069,0.7565
1914.0625,2.3411,3.5170,1.0239,0.6324,-2.1517,2.3015,-0.7632,-0.6351,1.8522,4.9597,1.5502,1.9309,3.0480,-1.8287,5.1938,3.2984,3.7517,2.3228,-1.2477
1917.9688,2.9060,4.4899,0.8039,-0.7762,-5.0093,3.7689,-0.1093,-2.1485,2.3224,4.7412,2.1271,1.9291,-0.5649,-4.6710,5.5468,3.3207,1.3909,1.7985,-2.5334
1921.8750,3.0731,5.9588,1.1935,-1.3540,-7.3156,5.3184,1.0463,-3.2544,2.5601,3.7840,3.1140,2.9634,-3.3676,-7.1487,5.6782,3.4977,-1.3314,1.8978,-2.5715
1925.7812,3.0586,7.5570,2.2130,-0.8889,-8.3276,6.5071,2.5091,-3.3362,2.6825,2.7168,4.4510,5.0619,-4.4072,-8.5000,5.6544,4.2372,-3.4123,2.9306,-1.3963
1929.6875,3.2004,8.8377,3.5822,0.3563,-7.9082,7.0078,3.8527,-2.3230,2.9726,2.1919,5.8550,7.8402,-3.3997,-8.3793,5.4282,5.4917,-4.1965,4.8117,0.4237
1933.5938,3.7055,9.3976,4.8274,1.7743,-6.5135,6.6993,4.5960,-0.7458,3.7133,2.4655,6.9092,10.5472,-0.7414,-6.9615,4.8985,6.6441,-3.5353,7.0069,2.1055
1937.5000,4.5199,9.0041,5.5218,2.7641,-4.8347,5.6819,4.5020,0.6272,4.9898,3.2629,7.2720,12.3324,2.7786,-4.7856,4.0751,6.8789,-1.6706,8.7571,3.0999
1941.4062,5.3846,7.7019,5.5384,3.0951,-3.3430,4.2317,3.8148,1.3402,6.5861,4.0093,6.8863,12.6232,6.3512,-2.4446,3.2036,5.7939,0.9987,9.4709,3.3951
1945.3125,5.9974,5.8458,5.1440,3.0303,-2.0605,2.7184,3.2301,1.5873,8.0355,4.2370,6.0340,11.3877,9.3648,-0.3312,2.7072,3.7757,4.0582,9.0324,3.4662
1949.2188,6.1547,4.0069,4.8393,3.0947,-0.7169,1.5078,3.5297,2.0556,8.8009,3.8593,5.1655,9.0976,11.3806,1.3958,2.9319,1.8066,7.0425,7.8105,3.8788
1953.1250,5.8002,2.7571,5.0136,3.6235,0.8353,0.8677,5.0546,3.3476,8.4979,3.1304,4.6015,6.4061,11.9894,2.6369,3.8598,0.8042,9.3303,6.3605,4.7990
1957.0312,5.0051,2.4177,5.6295,4.4035,2.2761,0.8907,7.3499,5.3781,7.0701,2.3648,4.3217,3.7573,10.7724,3.1501,5.0270,0.9745,10.1775,5.0266,5.7529
1960.9375,3.9372,2.9031,6.1619,4.6823,2.8416,1.4587,9.2638,7.2035,4.8446,1.6767,4.0135,1.2122,7.4962,2.5395,5.7677,1.6830,9.0004,3.7306,5.8369
1964.8438,2.8413,3.7572,5.8640,3.5850,1.7471,2.2635,9.5113,7.4655,2.4409,0.9585,3.3646,-1.3858,2.4414,0.4986,5.6625,1.9638,5.7898,2.0995,4.2732
1968.7500,1.9943,4.3745,4.2134,0.6870,-1.2633,2.8928,7.3953,5.2089,0.5481,0.1002,2.3802,-4.0422,-3.4131,-2.8483,4.8825,1.2885,1.3513,-0.1634,0.9557
1972.6562,1.6008,4.2942,1.2558,-3.6304,-5.6290,2.9645,3.2414,0.5489,-0.3543,-0.7645,1.4614,-6.3531,-8.5943,-6.7882,4.1426,-0.0039,-2.8950,-2.9356,-3.3887
1976.5625,1.6585,3.4096,-2.3771,-8.2851,-10.1764,2.2659,-1.7407,-5.2575,-0.2133,-1.2328,1.1442,-7.6032,-11.7255,-10.2324,4.2370,-0.9674,-5.5540,-5.6158,-7.5515
1980.4688,1.8956,1.9928,-5.7871,-12.0034,-13.7029,0.8421,-6.0893,-10.4048,0.5634,-0.8903,1.6663,-7.1986,-12.1960,-12.2272,5.4407,-0.8111,-5.9973,-7.4037,-10.4867
1984.3750,1.8713,0.5377,-8.2525,-13.9173,-15.5628,-1.0071,-8.8216,-13.4324,1.3067,0.3288,2.6912,-5.1350,-10.4839,-12.4481,7.2032,0.4314,-4.7280,-7.7371,-11.8246
1988.2812,1.2258,-0.4730,-9.5093,-13.8879,-15.8742,-2.8270,-9.8092,-13.8756,1.4421,1.9708,3.4385,-2.1362,-7.8773,-11.3349,8.3959,1.8721,-3.0755,-6.6006,-11.9219
1992.1875,-0.0603,-0.7541,-9.7125,-12.3990,-15.2334,-4.1604,-9.6000,-12.3094,0.8152,3.2521,3.1788,0.6831,-5.7243,-9.7506,7.9981,2.4324,-2.3564,-4.5138,-11.4409
1996.0938,-1.5770,-0.2794,-9.1570,-10.1473,-14.1739,-4.6848,-8.8666,-9.8317,-0.2096,3.5090,1.7676,2.4294,-4.6642,-8.3835,5.7845,1.7037,-3.0180,-2.2264,-10.7833
2000.0000,-2.6541,0.7716,-8.0003,-7.6420,-12.7763,-4.2801,-7.8999,-7.3791,-0.9571,2.6088,-0.1734,2.8992,-4.3384,-7.3085,2.5415,0.3222,-4.3414,-0.3370,-9.7982
2003.9062,-2.7095,2.1148,-6.2122,-5.0686,-10.7133,-3.0189,-6.5048,-5.3221,-0.8478,1.0328,-1.5977,2.5682,-3.7710,-6.0273,-0.3625,-0.4757,-4.9348,0.9242,-7.9838
2007.8125,-1.5718,3.4431,-3.7821,-2.4556,-7.6813,-1.1207,-4.3389,-3.5438,0.2363,-0.4281,-1.7009,2.1083,-2.1697,-3.9685,-1.7878,0.1728,-3.7230,1.6420,-5.0336
2011.7188,0.4115,4.4633,-1.0011,0.0452,-3.8769,1.0851,-1.4098,-1.8479,1.8544,-1.1559,-0.4752,1.7906,0.3975,-1.0867,-1.4907,1.9762,-0.7760,1.9798,-1.3194
2015.6250,2.5345,4.9106,1.4400,2.0168,-0.1368,3.1711,1.6681,-0.3364,3.2383,-1.0447,1.2349,1.2282,2.9158,1.8926,-0.2102,3.5211,2.6000,1.9618,2.0682
2019.5312,4.0568,4.5828,2.6757,2.9018,2.4020,4.6431,3.8757,0.5360,3.7109,-0.4865,2.2311,-0.3228,4.0067,3.7966,0.8739,3.1652,4.6093,1.4332,3.8034
2023.4375,4.5109,3.4099,2.1146,2.3114,2.9168,5.0453,4.3422,0.2514,3.0368,-0.0506,1.7051,-3.2995,2.8086,3.7080,0.9405,0.2109,4.0899,0.2132,3.0519
2027.3438,3.8554,1.5344,-0.1629,0.2990,1.3862,4.1489,2.8868,-1.3713,1.5073,-0.1023,-0.2491,-7.2802,-0.4136,1.5769,0.0597,-4.4451,1.2826,-1.6884,-0.0115
2031.2500,2.4386,-0.6576,-3.3328,-2.5950,-1.3763,2.1421,0.1934,-3.9712,-0.2625,-0.6202,-2.6722,-10.9676,-4.3252,-1.6834,-0.8784,-8.6541,-2.2562,-3.9607,-4.2223
2035.1562,0.8276,-2.6037,-6.1646,-5.5608,-4.1633,-0.3180,-2.5056,-6.7805,-1.6730,-1.3030,-4.2925,-12.7769,-7.2074,-4.6904,-0.7664,-10.1567,-4.5483,-6.0749,-7.9754
2039.0625,-0.4201,-3.7375,-7.6021,-7.8670,-6.0035,-2.2978,-4.0500,-9.0041,-2.4098,-1.8482,-4.2460,-11.6837,-7.8480,-6.3499,0.9875,-7.8192,-4.3194,-7.5108,-9.9843
2042.9688,-0.9677,-3.7100,-7.2723,-9.1357,-6.5964,-2.9868,-3.9195,-10.1896,-2.5140,-2.1789,-2.5399,-7.8121,-6.1111,-6.3836,4.0532,-2.2285,-1.6594,-7.9864,-9.8296
2046.8750,-0.8295,-2.5602,-5.6447,-9.4124,-6.3201,-2.1170,-2.4386,-10.3653,-2.2691,-2.4643,-0.0172,-2.4064,-2.8919,-5.3133,7.3216,4.6502,2.1527,-7.5560,-8.0340
2050.7812,-0.3573,-0.7387,-3.7625,-9.0345,-5.8695,-0.1458,-0.5356,-9.9022,-2.0136,-2.9416,2.1104,2.7757,0.4452,-3.9749,9.4761,10.4759,5.4737,-6.5356,-5.6892
2054.6875,-0.0514,1.0509,-2.6986,-8.4080,-5.7979,1.9413,0.7820,-9.2307,-1.9933,-3.6908,2.8728,6.2724,2.7645,-2.9496,9.6464,13.5765,7.1993,-5.3259,-3.8891
2058.5938,-0.2553,2.1388,-3.0242,-7.8293,-6.2462,3.1384,0.9403,-8.6132,-2.2993,-4.5291,1.9759,7.4711,3.5958,-2.3094,7.7977,13.5081,7.1948,-4.2481,-3.2709
2062.5000,-0.8976,2.1699,-4.5526,-7.4205,-6.9718,2.9535,0.0486,-8.0893,-2.8733,-5.0966,-0.1226,6.6618,3.1394,-1.8013,4.7012,10.9658,6.0782,-3.4797,-3.8455
2066.4062,-1.4744,1.2408,-6.4652,-7.1689,-7.5803,1.6536,-1.2141,-7.5757,-3.5471,-5.0729,-2.4753,4.6663,1.9524,-1.2529,1.5549,7.2587,4.6305,-3.0892,-5.1154
2070.3125,-1.3469,-0.1816,-7.7355,-7.0092,-7.7651,0.0674,-1.9850,-7.0053,-4.1060,-4.3831,-4.0895,2.3435,0.5784,-0.8289,-0.5329,3.7053,3.2999,-3.1035,-6.3581
2074.2188,-0.2108,-1.5121,-7.6313,-6.8866,-7.4143,-0.9271,-1.6711,-6.3977,-4.3773,-3.2681,-4.3499,0.2565,-0.6602,-0.9202,-0.9734,1.2120,2.1120,-3.5314,-6.9326
2078.1250,1.5789,-2.3264,-6.0559,-6.7763,-6.5797,-0.9043,-0.2491,-5.8339,-4.3207,-2.1793,-3.2607,-1.3865,-1.6613,-1.7607,0.1098,0.1061,0.9400,-4.3188,-6.5102
2082.0312,3.1076,-2.5136,-3.5778,-6.6647,-5.3992,-0.0720,1.7254,-5.3864,-4.0615,-1.5526,-1.4210,-2.6032,-2.4298,-3.1032,1.9769,0.1710,-0.1739,-5.2781,-5.1841
2085.9375,3.4364,-2.2310,-1.1483,-6.5170,-4.0559,0.9598,3.3949,-5.0728,-3.8147,-1.5792,0.2564,-3.4822,-2.9823,-4.2464,3.6121,0.8156,-0.9495,-6.0720,-3.4334
2089.8438,2.2564,-1.7218,0.3495,-6.2552,-2.7763,1.6318,4.0234,-4.8644,-3.7157,-2.0879,0.9717,-4.1009,-3.3234,-4.4362,4.1795,1.3426,-1.1014,-6.2989,-1.9376
2093.7500,0.1982,-1.1383,0.5005,-5.7665,-1.8088,1.7861,3.3552,-4.7221,-3.6697,-2.6077,0.4265,-4.5109,-3.4629,-3.3657,3.4052,1.2632,-0.6502,-5.6617,-1.2828
2097.6562,-1.4786,-0.4950,-0.4810,-4.9476,-1.3382,1.6850,1.7305,-4.6180,-3.3537,-2.5943,-1.0236,-4.7243,-3.4130,-1.4080,1.7015,0.5457,-0.0187,-4.1336,-1.6657
2101.5625,-1.6693,0.2354,-1.8983,-3.7725,-1.3727,1.7233,-0.0963,-4.5248,-2.4238,-1.7230,-2.5494,-4.6737,-3.1530,0.5990,-0.0505,-0.3463,0.2052,-2.0191,-2.7471
2105.4688,-0.1706,0.9878,-2.9383,-2.3472,-1.6972,2.0811,-1.3306,-4.3934,-0.8189,-0.0990,-3.2885,-4.1821,-2.6036,1.8731,-0.9692,-0.6972,-0.3185,0.1416,-3.7638
2109.3750,2.1442,1.5723,-3.0580,-0.9056,-1.9615,2.5930,-1.4992,-4.1489,1.0588,1.7426,-2.8095,-3.0101,-1.6579,2.1591,-0.6461,0.0351,-1.4040,1.7941,-3.8824
2113.2812,3.8824,1.8009,-2.1905,0.2794,-1.8729,2.9304,-0.6101,-3.7162,2.4663,3.0786,-1.3328,-0.9950,-0.2678,1.8377,0.6483,1.8521,-2.4145,2.6148,-2.6300
2117.1875,4.0706,1.6892,-0.6814,1.0426,-1.3643,2.9371,0.9491,-3.0502,2.7352,3.3789,0.4276,1.7862,1.4774,1.6255,2.1512,4.1498,-2.6505,2.6597,-0.1656
2121.0938,2.8322,1.5634,0.9755,1.4502,-0.6112,2.8356,2.6782,-2.1427,1.7406,2.6254,1.7046,4.9437,3.3513,2.0979,3.0776,6.0213,-1.7839,2.3390,2.7729
2125.0000,1.3217,1.9411,2.4193,1.8088,0.1272,3.1126,4.2141,-1.0042,0.1022,1.3741,2.1225,7.8614,5.0806,3.3638,3.0794,6.7595,-0.0450,2.2259,5.2289
2128.9062,0.9454,3.2140,3.5480,2.5180,0.7261,4.1417,5.4175,0.3472,-1.0730,0.4974,1.8676,9.9158,6.4646,5.0767,2.4096,6.2505,1.9420,2.7814,6.4962
2132.8125,2.3991,5.3230,4.4335,3.8241,1.3004,5.8144,6.2830,1.8569,-0.8004,0.7247,1.4899,10.7114,7.4319,6.7134,1.7005,5.0107,3.5338,4.1205,6.4322
2136.7188,5.1816,7.6577,5.1274,5.6146,2.1022,7.4706,6.7874,3.3733,1.1738,2.2307,1.4888,10.2117,7.9965,7.8800,1.5213,3.8490,4.3859,5.9287,5.4524
2140.6250,7.9103,9.2987,5.5321,7.3970,3.2762,8.2228,6.8241,4.6165,4.1548,4.5085,1.9763,8.7128,8.1611,8.4378,2.0164,3.3681,4.5257,7.5765,4.2401
2144.5312,9.2075,9.4991,5.4604,8.5137,4.6649,7.4894,6.2913,5.2446,6.8371,6.6068,2.6409,6.7005,7.8663,8.4169,2.8564,3.6166,4.1925,8.3947,3.3723
2148.4375,8.5507,8.1353,4.8533,8.5008,5.8348,5.3992,5.2689,5.0282,8.0136,7.6079,3.0205,4.6850,7.0500,7.8607,3.5081,4.0953,3.6184,7.9977,3.0907
2152.3438,6.5310,5.8483,3.9882,7.3912,6.3365,2.7960,4.1330,4.0473,7.2392,7.0849,2.8720,3.0826,5.7786,6.7698,3.6183,4.1009,2.9228,6.5034,3.3226
2156.2500,4.3963,3.7680,3.4849,5.7692,6.0272,0.8242,3.4813,2.7677,5.0519,5.2937,2.3678,2.1613,4.3348,5.1891,3.2413,3.1853,2.1611,4.5299,3.8768
2160.1562,3.2354,2.9554,4.0360,4.5133,5.2134,0.3348,3.8678,1.8944,2.6337,3.0106,1.9818,2.0169,3.1507,3.3331,2.7708,1.4529,1.4243,2.9396,4.6315
2164.0625,3.3575,3.8625,5.9838,4.3450,4.4830,1.4530,5.4788,2.0318,1.1331,1.1208,2.1535,2.5542,2.5883,1.5900,2.6431,-0.4759,0.8527,2.4299,5.5654
2167.9688,4.2344,6.0982,8.9981,5.4287,4.3188,3.5343,7.9435,3.3248,1.0643,0.1902,2.9712,3.4833,2.6967,0.3537,3.0301,-1.8105,0.5316,3.1686,6.6265
2171.8750,4.9614,8.6169,12.0853,7.2543,4.7545,5.5074,10.4111,5.3047,2.1264,0.2435,4.0978,4.3730,3.1292,-0.2126,3.7247,-2.0412,0.3713,4.6740,7.5775
2175.7812,4.8740,10.2209,13.9813,8.8801,5.3273,6.3911,11.8863,7.0653,3.5057,0.8461,4.9875,4.7866,3.3183,-0.2904,4.2829,-1.2365,0.1168,6.0331,7.9853
2179.6875,3.9227,10.1157,13.7476,9.4105,5.3830,5.7164,11.6667,7.7017,4.4350,1.4200,5.2432,4.4694,2.8375,-0.2860,4.3156,-0.0105,-0.4626,6.3685,7.4167
2183.5938,2.6291,8.2510,11.2554,8.4455,4.5416,3.6751,9.6678,6.7711,4.6461,1.6070,4.8754,3.4980,1.7282,-0.5407,3.7444,0.8330,-1.3219,5.3131,5.7361
2187.5000,1.7344,5.3070,7.2849,6.2561,3.0037,0.9756,6.4677,4.5112,4.4531,1.4738,4.2944,2.2951,0.5622,-1.0767,2.8706,0.7821,-2.0336,3.2260,3.2982
2191.4062,1.7916,2.3620,3.1800,3.6035,1.4743,-1.4855,3.0493,1.6914,4.4533,1.4490,4.0460,1.4672,0.1567,-1.5699,2.2259,-0.0581,-1.9642,1.0165,0.8741
2195.3125,2.9133,0.4151,0.2411,1.3280,0.7363,-2.9770,0.3651,-0.8042,5.0662,2.0277,4.4594,1.5219,1.0812,-1.5828,2.2926,-1.0041,-0.6745,-0.3329,-0.6863
2199.2188,4.7375,-0.0172,-0.8246,-0.0439,1.1478,-3.1838,-1.0574,-2.4006,6.2130,3.4135,5.4226,2.6009,3.2477,-0.8933,3.2354,-1.1980,1.7021,-0.2745,-0.8741
2203.1250,6.5701,0.9368,-0.1203,-0.4538,2.3976,-2.2797,-1.2782,-3.0192,7.3332,5.3087,6.4171,4.3737,5.8513,0.3155,4.7783,-0.1478,4.3758,1.0551,0.2261
2207.0312,7.6315,2.6321,1.6258,-0.1763,3.6868,-0.8112,-0.8068,-2.9501,7.7167,6.9954,6.7877,6.1640,7.7307,1.5425,6.2852,1.9275,6.2195,2.9728,2.0013
2210.9375,7.3484,4.2440,3.4983,0.4685,4.2173,0.5597,-0.2604,-2.5471,6.9387,7.6831,6.0930,7.2578,7.9653,2.2714,7.0183,4.1797,6.3388,4.6649,3.6493
2214.8438,5.6164,5.1422,4.8183,1.3320,3.6704,1.3470,-0.0212,-1.9807,5.1307,6.9371,4.3455,7.2411,6.3698,2.2735,6.4641,5.6075,4.5644,5.6108,4.5805
2218.7500,2.9105,5.1223,5.3353,2.4338,2.3630,1.4344,-0.0892,-1.2195,2.9229,4.9360,2.0159,6.1864,3.5946,1.7022,4.5765,5.6347,1.5635,5.7583,4.6457
2222.6562,0.1327,4.3976,5.1454,3.7634,0.9921,1.0685,-0.1974,-0.2213,1.0928,2.3915,-0.1983,4.5883,0.7648,0.9216,1.8096,4.4242,-1.5116,5.3829,4.0781
2226.5625,-1.8054,3.3846,4.4607,5.0695,0.1457,0.6518,-0.0889,0.8491,0.1280,0.1641,-1.7154,3.0824,-1.1397,0.2056,-1.0917,2.7255,-3.6403,4.7741,3.2282
2230.4688,-2.4774,2.4306,3.4238,5.8381,-0.0897,0.4601,0.2503,1.5774,-0.0380,-1.1976,-2.3452,2.1060,-1.8061,-0.4714,-3.4437,1.3697,-4.4586,3.9962,2.2960
2234.3750,-2.2087,1.6531,2.0849,5.5263,-0.1741,0.4701,0.5687,1.5030,0.0380,-1.7096,-2.3528,1.6915,-1.7147,-1.4035,-4.9310,0.7577,-4.3922,2.8930,1.2396
2238.2812,-1.8932,0.9767,0.5149,3.9189,-0.7893,0.4203,0.5516,0.4402,-0.3359,-1.8423,-2.2784,1.5045,-1.8036,-2.9066,-5.6930,0.6835,-4.3351,1.3063,-0.1003
2242.1875,-2.4118,0.3082,-1.0835,1.3596,-2.3678,0.0705,0.0918,-1.3136,-1.5550,-2.1312,-2.6153,1.0863,-2.8791,-5.0329,-6.1463,0.5832,-5.0733,-0.6788,-1.7820
2246.0938,-4.0005,-0.3081,-2.3961,-1.3355,-4.7800,-0.5346,-0.5872,-3.0598,-3.4674,-2.7804,-3.5298,0.1412,-5.1210,-7.4486,-6.6640,-0.0041,-6.8000,-2.6725,-3.6314
2250.0000,-6.0058,-0.6962,-3.1677,-3.2743,-7.3711,-1.0192,-1.0690,-4.0536,-5.4556,-3.5344,-4.7820,-1.3102,-7.9665,-9.5620,-7.3283,-1.1138,-8.9945,-4.1634,-5.3036
2253.9062,-7.2453,-0.7229,-3.4035,-3.9682,-9.3161,-0.9239,-1.0606,-3.9301,-6.7954,-3.9031,-5.8933,-2.9887,-10.4249,-10.8251,-7.9170,-2.3936,-10.7204,-4.8241,-6.4904
2257.8125,-6.7825,-0.4978,-3.4336,-3.5958,-10.0639,-0.1017,-0.6576,-2.9337,-7.0722,-3.5693,-6.4487,-4.5547,-11.6180,-11.0215,-8.1173,-3.4297,-11.1515,-4.7162,-7.1146
2261.7188,-4.6146,-0.4089,-3.7490,-2.8733,-9.6096,1.0341,-0.3412,-1.8008,-6.3963,-2.6775,-6.3397,-5.7820,-11.2239,-10.3680,-7.7924,-4.0695,-10.0180,-4.2413,-7.3583
2265.6250,-1.7907,-0.9068,-4.6792,-2.6025,-8.4503,1.6407,-0.6763,-1.3522,-5.2944,-1.7802,-5.7916,-6.5811,-9.5750,-9.3736,-7.0937,-4.4707,-7.7248,-3.8618,-7.4962
2269.5312,0.1630,-2.1470,-6.1123,-3.1747,-7.2786,0.9391,-1.8993,-2.0292,-4.3556,-1.4698,-5.1617,-6.8757,-7.3876,-8.5457,-6.3320,-4.8485,-5.0985,-3.7786,-7.6527
2273.4375,0.1643,-3.7416,-7.4595,-4.3349,-6.6045,-1.2216,-3.6859,-3.6358,-3.8646,-1.9480,-4.6557,-6.4684,-5.3175,-8.1098,-5.7154,-5.1555,-2.9287,-3.7824,-7.6615
2277.3438,-1.7465,-4.8423,-7.9261,-5.3429,-6.5135,-4.1197,-5.2819,-5.4239,-3.6512,-2.8397,-4.1659,-5.0518,-3.6203,-7.8915,-5.1686,-4.9946,-1.5746,-3.3753,-7.1431
2281.2500,-4.4160,-4.5693,-6.9519,-5.4117,-6.6647,-6.4526,-5.9338,-6.4595,-3.2376,-3.3860,-3.3533,-2.4087,-2.1049,-7.4118,-4.3897,-3.8777,-0.8472,-2.0796,-5.7555
2285.1562,-6.2681,-2.5516,-4.5577,-4.1414,-6.4938,-7.0369,-5.3407,-6.0612,-2.1719,-2.8932,-1.9165,1.3251,-0.3665,-6.1335,-3.1122,-1.6484,-0.2010,0.2632,-3.4536
2289.0625,-6.2317,0.7661,-1.3768,-1.6925,-5.4916,-5.5004,-3.8245,-4.0852,-0.3231,-1.1453,0.1462,5.5442,1.8813,-3.7316,-1.3663,1.2674,0.9066,3.3833,-0.5748
2292.9688,-4.3217,4.2809,1.6653,1.3685,-3.4222,-2.5251,-2.1015,-0.9368,2.0452,1.4764,2.4814,9.3452,4.5941,-0.2636,0.4754,4.0106,2.7078,6.7078,2.3127
2296.8750,-1.5337,6.7968,3.8388,4.4052,-0.4075,0.5291,-0.8100,2.6559,4.4505,4.2160,4.5853,11.9290,7.4152,3.8243,1.9284,5.7662,5.0285,9.6252,4.7018
2300.7812,0.8357,7.6727,4.9723,6.9900,3.1231,2.4007,-0.1144,5.9563,6.4816,6.3417,6.1331,12.9986,9.8776,7.8375,2.7437,6.2424,7.4182,11.7244,6.3872
2304.6875,1.9795,7.1612,5.4730,8.9680,6.5646,2.6257,0.3486,8.4616,8.0117,7.4686,7.1959,12.8926,11.6335,11.0505,3.1130,5.8168,9.3884,12.8941,7.4992
2308.5938,1.9908,6.2313,5.9990,10.3227,9.2963,1.7393,1.1569,9.9806,9.2050,7.6463,8.1781,12.3516,12.5674,12.9138,3.5594,5.2547,10.6078,13.2665,8.3186
2312.5000,1.6766,5.9822,6.9962,11.0059,10.8298,0.8804,2.6426,10.5600,10.3348,7.2235,9.4983,12.0585,12.7553,13.1885,4.5728,5.2095,10.9656,13.0820,9.0109
2316.4062,1.9506,7.0051,8.3910,10.8904,10.9230,1.0741,4.6048,10.3497,11.5436,6.6271,11.2265,12.2460,12.3404,11.9854,6.2337,5.8517,10.5232,12.5672,9.4706
2320.3125,3.2189,9.0658,9.6277,9.8871,9.6426,2.6468,6.3861,9.5009,12.6986,6.1938,12.9296,12.6169,11.4396,9.7195,8.0916,6.8522,9.4368,11.8783,9.3888
2324.2188,5.1324,11.2712,10.0180,8.1207,7.3561,5.1089,7.2596,8.1492,13.4229,6.1024,13.8522,12.6116,10.1425,7.0008,9.3898,7.6750,7.9226,11.1018,8.4997
2328.1250,6.8237,12.5905,9.1761,5.9992,4.6425,7.5209,6.8695,6.4630,13.2762,6.3687,13.3376,11.8270,8.5769,4.4867,9.4980,7.9311,6.2610,10.2760,6.8355
2332.0312,7.4403,12.4057,7.2697,4.0911,2.1353,9.0624,5.4427,4.6909,11.9821,6.8565,11.2379,10.3008,6.9599,2.7198,8.2804,7.5509,4.7844,9.4073,4.8099
2335.9375,6.6366,10.7878,4.9392,2.8643,0.3396,9.4354,3.6490,3.1467,9.5894,7.3040,8.0592,8.4879,5.5699,1.9830,6.1838,6.7177,3.7988,8.4774,3.0571
2339.8438,4.7451,8.3827,2.9508,2.4518,-0.5110,8.8931,2.2123,2.1142,6.4981,7.4052,4.7552,6.9699,4.6429,2.2192,4.0133,5.6889,3.4565,7.4575,2.1153
2343.7500,2.5590,6.0250,1.8049,2.5933,-0.5040,7.9480,1.5209,1.7162,3.3457,6.9554,2.2847,6.1118,4.2620,3.0569,2.5512,4.6778,3.6657,6.3332,2.1450
2347.6562,0.8868,4.3242,1.5287,2.7931,0.0189,7.0040,1.4707,1.8314,0.7994,5.9983,1.1849,5.8871,4.3199,3.9522,2.2325,3.8545,4.1215,5.1299,2.8499
2351.5625,0.1501,3.4421,1.7552,2.5937,0.6195,6.1569,1.6133,2.1234,-0.6666,4.8620,1.3830,5.9565,4.5832,4.4054,3.0209,3.3830,4.4715,3.9200,3.6500
2355.4688,0.2435,3.1367,2.0036,1.8047,0.9435,5.2513,1.4954,2.1895,-0.9250,4.0186,2.3194,5.9096,4.8229,4.1627,4.4932,3.3833,4.5257,2.8071,4.0011
2359.3750,0.7082,2.9947,1.9722,0.5670,0.8506,4.0995,0.9721,1.7594,-0.2198,3.8196,3.2836,5.4986,4.9326,3.3072,6.0447,3.8129,4.3768,1.8968,3.6778
2363.2812,1.0824,2.6939,1.6696,-0.7529,0.4404,2.6787,0.3037,0.8358,0.9511,4.2681,3.7633,4.7306,4.9684,2.1929,7.1144,4.3918,4.3424,1.2711,2.8669
2367.1875,1.1952,2.1545,1.3390,-1.7514,-0.0295,1.1764,-0.0091,-0.3032,2.0432,4.9861,3.6303,3.8104,5.0940,1.2566,7.3647,4.7028,4.7556,0.9765,2.0361
2371.0938,1.2185,1.5208,1.2582,-2.1453,-0.2871,-0.1230,0.4524,-1.2462,2.6635,5.4176,3.0945,3.0075,5.4660,0.8066,6.7814,4.4629,5.7351,1.0173,1.6699
2375.0000,1.4537,1.0120,1.5621,-1.8387,-0.1795,-1.0131,1.7405,-1.6553,2.6651,5.1471,2.4896,2.5400,6.1230,0.8995,5.6685,3.7789,7.0803,1.3476,2.0232
2378.9062,2.0077,0.7439,2.1838,-0.9085,0.2645,-1.4837,3.4583,-1.4237,2.1067,4.1305,2.0307,2.5092,6.9318,1.3597,4.5206,3.1607,8.3567,1.8601,3.0173
2382.8125,2.6000,0.6302,2.9174,0.4397,0.8650,-1.7204,4.9282,-0.7043,1.1321,2.7003,1.6830,2.8759,7.6187,1.9110,3.7926,3.2170,9.1151,2.3903,4.3055
2386.7188,2.6641,0.4257,3.5252,1.9072,1.3847,-2.0001,5.5155,0.1865,-0.1275,1.3576,1.2112,3.4613,7.8742,2.3291,3.6647,4.2139,9.1096,2.7507,5.4470
2390.6250,1.7126,-0.1032,3.8100,3.1351,1.6306,-2.5435,4.9312,0.9160,-1.5528,0.5028,0.3741,3.9872,7.4906,2.5275,3.9379,5.8202,8.3900,2.7944,6.0855
2394.5312,-0.2605,-0.9782,3.6327,3.7614,1.5114,-3.3936,3.3516,1.2441,-2.9519,0.2747,-0.8498,4.1765,6.4711,2.5417,4.1538,7.2580,7.2382,2.4813,6.0529
2398.4375,-2.6213,-1.9068,2.9140,3.5198,1.0374,-4.3673,1.3053,1.0511,-3.9898,0.5696,-2.1459,3.8973,5.0573,2.4500,3.8990,7.7914,6.0086,1.9084,5.3784
2402.3438,-4.3288,-2.3688,1.6724,2.3529,0.2862,-5.0988,-0.5917,0.3110,-4.2388,1.1802,-2.9483,3.2738,3.6492,2.3008,3.1141,7.2189,4.9816,1.2809,4.2349
2406.2500,-4.4575,-1.8745,0.0970,0.4806,-0.6271,-5.1676,-1.8922,-0.9273,-3.3695,1.9294,-2.7050,2.6714,2.6502,2.0988,2.1914,6.0122,4.3012,0.8350,2.8720
2410.1562,-2.7102,-0.2652,-1.4087,-1.6321,-1.5540,-4.2717,-2.4297,-2.5201,-1.3794,2.7123,-1.1974,2.5234,2.3094,1.8463,1.7627,4.9903,4.0030,0.7501,1.5646
2414.0625,0.3932,2.1273,-2.2959,-3.4177,-2.3063,-2.3797,-2.2571,-4.1953,1.3022,3.4580,1.2666,3.0805,2.6446,1.5919,2.2845,4.7548,4.0756,1.0907,0.5766
2417.9688,3.7716,4.5821,-2.0735,-4.4102,-2.6767,0.2122,-1.5024,-5.5761,3.9397,4.0794,3.9177,4.2367,3.4827,1.4370,3.6866,5.2897,4.4992,1.7986,0.1212
2421.8750,6.3284,6.3233,-0.5694,-4.4237,-2.5105,2.9587,-0.2727,-6.3026,5.8069,4.4729,5.8431,5.5546,4.5793,1.4836,5.3320,6.0051,5.2317,2.7210,0.3089
2425.7812,7.4621,6.9099,1.9020,-3.6255,-1.8072,5.2553,1.3179,-6.2180,6.5178,4.5601,6.4053,6.4914,5.7287,1.7579,6.3460,6.1820,6.1662,3.6530,1.0961
2429.6875,7.2566,6.4551,4.5926,-2.4660,-0.7919,6.6543,3.0373,-5.5039,6.1751,4.3253,5.5408,6.6870,6.7907,2.1650,6.1255,5.4892,7.1001,4.3771,2.2663
2433.5938,6.2852,5.5412,6.6092,-1.4909,0.1124,7.0054,4.4695,-4.6499,5.2530,3.8110,3.7730,6.1350,7.6300,2.5101,4.7124,4.2067,7.7551,4.7058,3.4703
2437.5000,5.2073,4.8779,7.3059,-1.1139,0.4308,6.4642,5.1031,-4.2268,4.3018,3.0914,1.9341,5.1408,8.0482,2.5806,2.7931,3.0206,7.8542,4.5356,4.3272
2441.4062,4.4320,4.9081,6.5784,-1.4422,-0.1497,5.3840,4.5738,-4.5666,3.6692,2.2677,0.7533,4.1151,7.8046,2.2464,1.3220,2.5579,7.2311,3.9046,4.5544
2445.3125,4.0307,5.5891,4.8950,-2.2316,-1.6050,4.1660,2.9266,-5.5355,3.4045,1.5019,0.5399,3.3547,6.7539,1.5229,1.0032,2.9957,5.9261,3.0207,4.0756
2449.2188,3.8785,6.4626,3.0485,-2.9926,-3.5372,3.1363,0.7141,-6.5546,3.3670,1.0390,1.1171,2.9448,5.0194,0.5679,1.9388,3.9898,4.2167,2.2172,3.0568
2453.1250,3.8534,6.9450,1.7674,-3.2041,-5.3116,2.4827,-1.1745,-6.8877,3.4151,1.1465,2.0077,2.8088,3.0558,-0.3823,3.6347,4.9217,2.5487,1.8270,1.8502
2457.0312,3.9219,6.6462,1.3988,-2.5457,-6.3100,2.2373,-1.9011,-6.0464,3.5147,1.9525,2.7286,2.8198,1.5019,-1.1046,5.3203,5.2586,1.3764,2.0167,0.8603
2460.9375,4.0748,5.5352,1.8199,-1.0434,-6.1814,2.2842,-1.0855,-4.0816,3.6909,3.2733,3.0110,2.8679,0.8664,-1.4690,6.3639,4.7910,0.9693,2.6719,0.3872
2464.8438,4.2143,3.8900,2.5953,0.9332,-4.9746,2.3938,0.9896,-1.5879,3.8898,4.5801,2.8430,2.8501,1.2264,-1.4777,6.5403,3.6488,1.2782,3.4142,0.5085
2468.7500,4.1325,2.1129,3.2553,2.8192,-3.1005,2.3042,3.4931,0.5871,3.8967,5.1958,2.3609,2.6395,2.1461,-1.2563,6.0336,2.1684,1.9428,3.7693,1.0534
2472.6562,3.6247,0.5482,3.5199,4.0747,-1.1559,1.8442,5.4178,1.7601,3.4099,4.6548,1.7038,2.1178,2.9012,-1.0047,5.2369,0.7471,2.4577,3.4091,1.6813
2476.5625,2.6521,-0.5985,3.3530,4.3761,0.3001,1.0436,6.0162,1.7198,2.2360,3.0101,0.9402,1.2856,2.8931,-0.9244,4.5073,-0.2359,2.4231,2.3369,2.0345
2480.4688,1.4067,-1.2445,2.8564,3.7010,0.9241,0.1468,5.0828,0.7611,0.4655,0.8651,0.0957,0.3649,2.0034,-1.1445,4.0238,-0.4598,1.7490,0.9008,1.8963
2484.3750,0.2090,-1.3862,2.1116,2.2886,0.6640,-0.5175,2.9653,-0.5464,-1.5135,-0.9300,-0.7744,-0.2232,0.6595,-1.6664,3.7883,0.2760,0.6955,-0.3837,1.2835
2488.2812,-0.6972,-1.0910,1.0994,0.5205,-0.2690,-0.7566,0.3329,-1.6940,-3.1897,-1.7481,-1.5470,-0.0492,-0.4303,-2.3476,3.7156,1.9531,-0.2742,-1.1037,0.4295
2492.1875,-1.2921,-0.5188,-0.2488,-1.2066,-1.4988,-0.6825,-2.1535,-2.4653,-4.1756,-1.5197,-2.0624,1.0592,-0.7029,-2.9363,3.7238,4.2660,-0.7435,-1.1544,-0.3327
2496.0938,-1.7459,0.0825,-1.9118,-2.5639,-2.6083,-0.6880,-4.0996,-2.9410,-4.3622,-0.7096,-2.1958,2.8525,-0.0530,-3.1536,3.7706,6.6638,-0.5481,-0.7551,-0.7256
2500.0000,-2.2235,0.4581,-3.6620,-3.3198,-3.2530,-1.2066,-5.4574,-3.3106,-3.8839,0.0426,-1.9061,4.7294,1.1546,-2.8005,3.8414,8.5170,0.1723,-0.2706,-0.6413
2503.9062,-2.6800,0.4810,-5.0690,-3.3406,-3.2397,-2.3932,-6.4195,-3.6430,-2.9447,0.3631,-1.2287,6.0261,2.3597,-1.8507,3.9233,9.3255,1.0881,0.0460,-0.1558
2507.8125,-2.8215,0.2526,-5.6426,-2.5969,-2.5597,-3.9477,-7.2148,-3.7833,-1.6558,0.3540,-0.2316,6.3553,3.1640,-0.4852,3.9957,8.8611,1.8689,0.2183,0.5525
2511.7188,-2.2848,0.0788,-5.0511,-1.1852,-1.3698,-5.2336,-7.9249,-3.4437,-0.0155,0.4354,1.0140,5.7882,3.5338,0.9582,4.0381,7.1936,2.3304,0.5110,1.3235
2515.6250,-0.9236,0.3064,-3.3018,0.6534,0.0644,-5.6483,-8.4176,-2.4252,1.9599,0.9546,2.4179,4.7748,3.7338,2.1083,4.0421,4.6441,2.4701,1.2143,2.0910
2519.5312,1.0048,1.1028,-0.7937,2.5485,1.4434,-5.0153,-8.4229,-0.8157,4.0763,1.8685,3.8317,3.8677,4.0702,2.7103,4.0159,1.7367,2.4073,2.3932,2.8634
2523.4375,2.8996,2.3173,1.7869,4.0683,2.4990,-3.7318,-7.6994,0.9726,5.9242,2.7434,5.0389,3.4305,4.6398,2.7277,3.9865,-0.8380,2.2950,3.7704,3.6248
2527.3438,4.1058,3.5163,3.6875,4.8324,3.0378,-2.5545,-6.1955,2.3640,7.0260,3.0739,5.8127,3.4979,5.2534,2.3426,3.9997,-2.3185,2.2591,4.8310,4.2346
2531.2500,4.2495,4.1825,4.3433,4.6350,2.9662,-2.1494,-4.1161,2.8931,7.0810,2.6768,6.0171,3.8358,5.5650,1.8492,4.1142,-2.1049,2.3750,5.0915,4.4163
2535.1562,3.4099,3.9630,3.5752,3.5315,2.3095,-2.6967,-1.8605,2.4406,6.1414,1.8522,5.6828,4.1200,5.2960,1.4951,4.3745,-0.0902,2.6504,4.3690,3.8757
2539.0625,2.0234,2.8300,1.6653,1.8516,1.2277,-3.8058,0.1290,1.3008,4.5881,1.1803,4.9908,4.1018,4.3978,1.3626,4.7620,3.0968,3.0017,2.8879,2.4969
2542.9688,0.5990,1.0760,-0.7182,0.1194,0.0101,-4.7844,1.5274,0.0468,2.9208,1.0925,4.1648,3.6813,3.0649,1.3591,5.1483,6.1715,3.2468,1.1649,0.4998
2546.8750,-0.5568,-0.8281,-2.7330,-1.1046,-0.9796,-5.0710,2.2229,-0.7351,1.5058,1.5304,3.3426,2.8936,1.6217,1.3195,5.2976,7.6824,3.1562,-0.2482,-1.5591
2550.7812,-1.4295,-2.4155,-3.6467,-1.4135,-1.4130,-4.5382,2.3213,-0.7047,0.4545,1.9503,2.5218,1.8675,0.3824,1.1508,4.9455,6.7247,2.5725,-1.0033,-2.9800
2554.6875,-2.1637,-3.3482,-3.0970,-0.7038,-1.1273,-3.4861,2.0836,0.1036,-0.2982,1.6848,1.6267,0.7971,-0.4336,0.9181,3.9369,3.4829,1.5400,-1.0430,-3.2261
2558.5938,-2.8283,-3.4519,-1.2219,0.7837,-0.2079,-2.3678,1.8367,1.3358,-0.7946,0.4203,0.6504,-0.0812,-0.7126,0.8089,2.3531,-0.7605,0.3470,-0.5161,-2.1844
2562.5000,-3.2680,-2.6931,1.4049,2.5648,1.0389,-1.4685,1.8837,2.5156,-0.9058,-1.5368,-0.2358,-0.5403,-0.4282,0.9963,0.5427,-4.2225,-0.5803,0.3864,-0.2290
2566.4062,-3.1584,-1.1586,4.0185,4.1191,2.2239,-0.7675,2.4167,3.2793,-0.3657,-3.3865,-0.7000,-0.4494,0.3593,1.4945,-0.9833,-5.5226,-0.8976,1.5443,1.9557
2570.3125,-2.2333,0.9345,5.9794,5.1099,3.0555,-0.0541,3.4395,3.5307,1.0206,-4.2728,-0.4058,0.1498,1.4816,2.1082,-1.7577,-4.3828,-0.5478,2.8956,3.7009
2574.2188,-0.5242,3.2259,7.0151,5.5059,3.4570,0.8233,4.7353,3.4500,3.1410,-3.7517,0.7802,1.0414,2.6597,2.5185,-1.5605,-1.7215,0.1860,4.3355,4.6501
2578.1250,1.5633,5.2487,7.2676,5.5414,3.5512,1.7853,5.9310,3.3641,5.4952,-2.0035,2.6617,1.9320,3.5601,2.4541,-0.5118,0.8968,0.8285,5.6357,4.8656
2582.0312,3.4111,6.5474,7.1339,5.5456,3.5279,2.5597,6.6693,3.5567,7.3567,0.3177,4.7532,2.5977,3.9071,1.8425,0.9980,2.1216,0.9778,6.4792,4.7043
2585.9375,4.5024,6.8485,7.0017,5.7449,3.4931,2.8938,6.8205,4.1224,8.1083,2.4721,6.4785,2.9886,3.5997,0.8515,2.4997,1.4930,0.5260,6.6161,4.5563
2589.8438,4.7017,6.1985,7.0408,6.1585,3.4070,2.7695,6.5976,4.9359,7.5586,4.0060,7.4231,3.2212,2.7645,-0.1960,3.6563,-0.4123,-0.2957,6.0410,4.6140
2593.7500,4.3245,4.9800,7.1658,6.6358,3.1508,2.4544,6.4583,5.7415,6.0522,4.8968,7.5085,3.4716,1.7102,-0.9737,4.3807,-2.3795,-1.0662,5.0604,4.8031
2597.6562,3.9439,3.7714,7.1729,6.9885,2.6604,2.3417,6.8071,6.2959,4.3054,5.4270,6.9998,3.8440,0.8035,-1.2833,4.8125,-3.2237,-1.4129,4.1746,4.8915
2601.5625,4.0434,3.0967,6.9341,7.1052,2.0087,2.6895,7.6690,6.4726,3.0555,5.9111,6.3498,4.3051,0.3235,-1.1132,5.1787,-2.3563,-1.1972,3.8210,4.6743
2605.4688,4.7190,3.1836,6.4994,6.9624,1.3587,3.4357,8.5709,6.2680,2.7146,6.4655,5.9598,4.7091,0.3561,-0.6240,5.6279,-0.0022,-0.5563,4.1201,4.0968
2609.3750,5.6104,3.8528,6.0296,6.5372,0.8144,4.2143,8.7633,5.7200,3.2051,6.9509,5.9730,4.8770,0.7642,-0.0930,6.1261,2.9634,0.1894,4.7803,3.2402
2613.2812,6.1096,4.6061,5.6144,5.7152,0.2922,4.5627,7.6847,4.8173,4.0440,7.0889,6.1978,4.6617,1.2377,0.1601,6.4638,5.4205,0.6877,5.2289,2.2030
2617.1875,5.7280,4.8772,5.1283,4.3030,-0.4646,4.1944,5.3768,3.4826,4.6095,6.6551,6.1954,3.9697,1.4066,-0.1352,6.3620,6.4530,0.6857,4.9061,0.9920
2621.0938,4.4095,4.3244,4.2592,2.1703,-1.7040,3.1762,2.5506,1.6596,4.4422,5.6201,5.4996,2.7629,0.9846,-1.0896,5.6185,5.6795,0.1041,3.5628,-0.4776
2625.0000,2.6007,3.0158,2.7272,-0.5626,-3.4287,1.9125,0.2235,-0.5526,3.4344,4.1679,3.8740,1.0823,-0.1030,-2.5602,4.2242,3.3712,-0.9440,1.4022,-2.2622
2628.9062,1.0269,1.4068,0.5566,-3.4426,-5.2810,0.9501,-0.8565,-2.8268,1.8375,2.5997,1.4861,-0.8961,-1.6606,-4.1404,2.3965,0.3296,-2.1840,-1.0072,-4.2381
2632.8125,0.2939,0.1147,-1.7998,-5.8025,-6.6608,0.7065,-0.6179,-4.6798,0.1135,1.1925,-1.0978,-2.8268,-3.2732,-5.2863,0.5158,-2.4318,-3.2630,-2.9925,-6.0465
2636.7188,0.5392,-0.3957,-3.6117,-7.0465,-7.0336,1.2555,0.3681,-5.6777,-1.2819,0.0907,-3.1224,-4.2466,-4.4629,-5.5534,-1.0107,-4.0850,-3.8799,-4.0693,-7.1991
2640.6250,1.3319,-0.0564,-4.2476,-6.9423,-6.2428,2.2708,1.3267,-5.6632,-2.0793,-0.7222,-3.9775,-4.7353,-4.8869,-4.8269,-1.9056,-4.2981,-3.9190,-4.1154,-7.3026
2644.5312,1.8863,0.7597,-3.5620,-5.7409,-4.6206,3.1543,1.7951,-4.8583,-2.2727,-1.3734,-3.5004,-4.1177,-4.4781,-3.3949,-2.1338,-3.3117,-3.5078,-3.3590,-6.2721
2648.4375,1.4751,1.4175,-2.0434,-4.0446,-2.8159,3.2923,1.8396,-3.7620,-2.0782,-2.0124,-2.0832,-2.5872,-3.4511,-1.7958,-1.9191,-1.7548,-2.9419,-2.2138,-4.4024
2652.3438,-0.1782,1.3303,-0.6010,-2.5074,-1.4429,2.3269,1.8392,-2.8925,-1.8086,-2.7329,-0.5060,-0.6589,-2.1696,-0.5171,-1.6489,-0.3119,-2.5004,-1.0728,-2.2513
2656.2500,-2.7384,0.2470,-0.0892,-1.5470,-0.7702,0.3240,2.0386,-2.5268,-1.7255,-3.5395,0.4357,1.0396,-0.9597,0.2606,-1.6961,0.5599,-2.2640,-0.1746,-0.4006
2660.1562,-5.4075,-1.6220,-0.8388,-1.2329,-0.6446,-2.2386,2.2568,-2.5982,-1.9297,-4.3628,0.3204,2.0293,0.0158,0.6954,-2.2346,0.7188,-2.0747,0.4105,0.7723
2664.0625,-7.2957,-3.6887,-2.4737,-1.3821,-0.6821,-4.6540,2.0064,-2.8105,-2.3313,-5.0993,-0.7038,2.1540,0.7528,1.0659,-3.1390,0.2383,-1.6838,0.7038,1.1964
2667.9688,-7.8154,-5.2323,-4.1249,-1.7603,-0.5841,-6.2517,0.9385,-2.8840,-2.7059,-5.6474,-2.0278,1.5856,1.2940,1.4606,-4.0295,-0.7404,-0.9973,0.7340,1.0497
2671.8750,-6.9050,-5.6843,-4.9214,-2.2344,-0.3610,-6.6262,-0.7570,-2.7619,-2.8101,-5.9240,-2.9350,0.6860,1.6110,1.6170,-4.4576,-2.0534,-0.2310,0.5117,0.5998
2675.7812,-4.9966,-4.8419,-4.4702,-2.7856,-0.3196,-5.7407,-2.3551,-2.6364,-2.5064,-5.8708,-2.9969,-0.1769,1.5785,1.0562,-4.1507,-3.4378,0.1671,0.0695,0.0442
2679.6875,-2.7838,-2.9383,-3.0558,-3.4128,-0.8332,-3.8912,-3.0541,-2.7823,-1.8422,-5.4739,-2.2916,-0.7603,1.0630,-0.5587,-3.1885,-4.4631,-0.1966,-0.4841,-0.5668
2683.5938,-0.9344,-0.5662,-1.4575,-4.0358,-2.0570,-1.5854,-2.5673,-3.3195,-1.0466,-4.8041,-1.3310,-0.9855,0.0546,-3.0897,-2.0083,-4.6332,-1.3571,-0.9662,-1.3029
2687.5000,0.1115,1.5129,-0.5093,-4.4941,-3.7745,0.5979,-1.3878,-4.0780,-0.4434,-4.0522,-0.7553,-0.9089,-1.2663,-5.8729,-1.2138,-3.6786,-2.8991,-1.2011,-2.2569
2691.4062,0.1989,2.6130,-0.6652,-4.6449,-5.4724,2.1304,-0.4859,-4.6647,-0.3154,-3.5136,-0.9820,-0.6713,-2.5886,-8.0200,-1.2729,-1.8557,-4.1732,-1.1388,-3.4444
2695.3125,-0.5903,2.3577,-1.8049,-4.4787,-6.5928,2.6451,-0.6245,-4.6983,-0.7810,-3.4878,-2.0054,-0.4494,-3.6234,-8.8963,-2.2574,0.0197,-4.6921,-0.9232,-4.7523
2699.2188,-2.0138,0.8286,-3.3627,-4.1529,-6.8153,2.0461,-1.7874,-4.0620,-1.7395,-4.1177,-3.4402,-0.4065,-4.2439,-8.4686,-3.7708,0.9406,-4.4365,-0.8443,-5.9629
2703.1250,-3.7173,-1.4391,-4.6703,-3.9121,-6.2149,0.5868,-3.1553,-3.0154,-2.9132,-5.2527,-4.7536,-0.6366,-4.5195,-7.2971,-5.1153,0.3145,-3.8519,-1.1832,-6.8396
2707.0312,-5.2650,-3.6403,-5.3018,-3.9508,-5.2250,-1.1532,-3.6776,-2.0950,-3.9679,-6.4429,-5.5360,-1.1207,-4.6269,-6.1838,-5.6222,-1.5818,-3.5304,-2.0384,-7.2335
2710.9375,-6.2048,-5.0164,-5.2361,-4.3146,-4.4352,-2.4476,-2.8460,-1.8619,-4.6557,-7.1115,-5.6623,-1.7278,-4.7128,-5.7166,-4.9771,-3.6593,-3.7975,-3.2459,-7.1562
2714.8438,-6.1979,-5.1742,-4.7797,-4.9013,-4.3290,-2.7270,-1.1150,-2.6368,-4.9097,-6.8447,-5.2820,-2.2793,-4.8082,-5.9966,-3.3707,-4.6259,-4.4961,-4.4512,-6.7777
2718.7500,-5.1802,-4.2521,-4.3309,-5.5446,-5.0780,-1.8644,0.3433,-4.3562,-4.8454,-5.6438,-4.6809,-2.6444,-4.8493,-6.6953,-1.3991,-3.7957,-5.1156,-5.2953,-6.3397
2722.6562,-3.4568,-2.8292,-4.1442,-6.1074,-6.4773,-0.2661,0.3944,-6.6074,-4.6736,-3.9745,-4.1162,-2.8050,-4.7744,-7.3537,0.2299,-1.5654,-5.1729,-5.5974,-6.0276
2726.5625,-1.6347,-1.6109,-4.2226,-6.5247,-8.0452,1.3234,-1.3091,-8.8066,-4.5722,-2.5526,-3.7149,-2.8390,-4.6094,-7.6903,1.0261,0.7895,-4.5674,-5.4227,-5.8749
2730.4688,-0.3787,-1.0514,-4.3790,-6.7882,-9.2471,2.2199,-4.0872,-10.4299,-4.5907,-1.9613,-3.4655,-2.8341,-4.4712,-7.7154,0.9174,1.8990,-3.6617,-4.9986,-5.7669
2734.3750,-0.0898,-1.1274,-4.4007,-6.9172,-9.7450,2.1775,-6.6512,-11.2024,-4.6335,-2.3153,-3.2741,-2.7993,-4.4850,-7.6187,0.2382,1.1672,-3.0304,-4.5474,-5.5475
2738.2812,-0.6779,-1.3932,-4.2049,-6.9581,-9.5562,1.5103,-7.8846,-11.1809,-4.5238,-3.1732,-3.0307,-2.6491,-4.6785,-7.5619,-0.4622,-0.8420,-3.0559,-4.1553,-5.1654
2742.1875,-1.5748,-1.2866,-3.8926,-7.0047,-9.0323,0.8782,-7.4720,-10.7091,-4.1064,-3.7648,-2.6501,-2.2775,-4.9329,-7.5492,-0.6731,-2.7507,-3.6466,-3.7625,-4.7504
2746.0938,-2.0066,-0.4977,-3.6762,-7.1953,-8.6569,0.8691,-6.0002,-10.2590,-3.3306,-3.4123,-2.0823,-1.6655,-5.0304,-7.4591,-0.1193,-3.2143,-4.2640,-3.2691,-4.5526
2750.0000,-1.4008,0.8226,-3.7372,-7.6470,-8.7627,1.6423,-4.5200,-10.2144,-2.2787,-1.9087,-1.3195,-0.9338,-4.7722,-7.1773,1.1650,-1.7201,-4.2386,-2.6676,-4.7682
2753.9062,0.2885,2.1379,-4.1048,-8.3508,-9.3296,2.8496,-3.8964,-10.6807,-1.1414,0.3579,-0.4166,-0.2963,-4.0976,-6.7025,2.8723,1.1466,-3.1728,-2.0976,-5.3701
2757.8125,2.5137,2.8333,-4.6335,-9.1067,-9.9936,3.8634,-4.3538,-11.4133,-0.1682,2.5931,0.4769,0.0519,-3.1401,-6.1415,4.5219,4.0885,-1.1939,-1.7820,-6.0754
2761.7188,4.3708,2.5598,-5.0914,-9.5774,-10.2727,4.1455,-5.4470,-11.9214,0.3860,3.9791,1.1068,0.0252,-2.1936,-5.6189,5.5842,5.8317,1.0773,-1.8924,-6.4984
2765.6250,5.0207,1.4166,-5.3034,-9.4614,-9.8741,3.5197,-6.4009,-11.7131,0.3172,4.0377,1.1643,-0.3468,-1.6052,-5.1941,5.6167,5.7425,2.8053,-2.4390,-6.4009
2769.5312,4.0873,-0.1189,-5.2547,-8.6884,-8.8859,2.2081,-6.5655,-10.5676,-0.4575,2.7988,0.4075,-0.9861,-1.6413,-4.8618,4.4120,3.9995,3.3108,-3.2557,-5.8677
2773.4375,1.8399,-1.4428,-5.0848,-7.4980,-7.7234,0.6665,-5.7279,-8.6800,-1.8239,0.7293,-1.1821,-1.8278,-2.3745,-4.6176,2.1244,1.3306,2.3516,-4.0795,-5.2703
2777.3438,-0.9160,-2.0932,-4.9721,-6.3231,-6.8601,-0.6329,-4.1565,-6.5841,-3.4285,-1.4910,-3.2905,-2.8096,-3.6365,-4.5069,-0.6942,-1.4205,0.2043,-4.6607,-5.0201
2781.2500,-3.1759,-1.8924,-4.9822,-5.5326,-6.5242,-1.3327,-2.4136,-4.8839,-4.7326,-3.2125,-5.2977,-3.7957,-5.0578,-4.5901,-3.2172,-3.6083,-2.4684,-4.8322,-5.2719
2785.1562,-4.1438,-0.9266,-4.9864,-5.1940,-6.5667,-1.2174,-1.0654,-3.9447,-5.1880,-3.9836,-6.4745,-4.5219,-6.1923,-4.8381,-4.6290,-4.8649,-4.8868,-4.5179,-5.7853
2789.0625,-3.5363,0.5663,-4.7152,-5.0224,-6.5899,-0.2113,-0.4292,-3.7248,-4.4830,-3.6294,-6.2926,-4.6518,-6.6817,-5.0559,-4.4735,-5.0337,-6.4429,-3.7110,-6.0562
2792.9688,-1.6674,2.2995,-3.9254,-4.5647,-6.2414,1.5773,-0.4558,-3.8473,-2.7326,-2.2720,-4.7016,-3.9486,-6.3883,-4.9247,-2.8886,-4.1180,-6.8868,-2.4702,-5.6438
2796.8750,0.7089,3.9814,-2.5781,-3.5078,-5.4620,3.7852,-0.7888,-3.8567,-0.4799,-0.3100,-2.2087,-2.4579,-5.4263,-4.1640,-0.5750,-2.3095,-6.3391,-0.9433,-4.4719
2800.7812,2.7296,5.3305,-0.9052,-1.9082,-4.5120,5.8076,-0.9759,-3.4942,1.5373,1.6658,0.3192,-0.5537,-4.0694,-2.7135,1.5281,-0.0292,-5.1365,0.6208,-2.8947
2804.6875,3.7944,6.1240,0.6939,-0.1823,-3.7608,6.9847,-0.7322,-2.8162,2.7559,3.0501,2.0653,1.2238,-2.5847,-0.8000,2.7131,2.1457,-3.6046,1.9236,-1.4720
2808.5938,3.8245,6.3005,1.8747,1.1440,-3.3958,6.9241,-0.1064,-2.0931,3.0913,3.4681,2.6785,2.4630,-1.0925,1.1731,2.8692,3.6982,-1.8934,2.7404,-0.6008
2812.5000,3.2894,6.0566,2.5575,1.7701,-3.2636,5.7753,0.5673,-1.5760,2.9840,2.9821,2.4580,3.1221,0.4598,2.8496,2.5280,4.4258,0.0264,3.0557,-0.2537
2816.4062,2.9726,5.8372,2.9877,1.8189,-2.9566,4.2428,0.9326,-1.2984,3.1410,2.1207,2.1841,3.5484,2.1966,4.1109,2.5473,4.5551,2.2141,3.1111,0.0004
2820.3125,3.5650,6.1628,3.5986,1.7666,-2.0819,3.2624,0.9281,-1.0507,4.1094,1.6576,2.6714,4.2512,4.1613,5.1076,3.6020,4.6123,4.5769,3.3080,0.7078
2824.2188,5.2767,7.3478,4.7483,2.1462,-0.5211,3.4874,0.9254,-0.5366,5.9372,2.2164,4.2926,5.5713,6.2250,6.1184,5.7736,5.1141,6.8051,3.9960,2.1718
2828.1250,7.6704,9.2638,6.4838,3.2120,1.4951,4.8878,1.5397,0.4059,8.1287,3.9059,6.7520,7.4616,8.1264,7.3380,8.4763,6.2662,8.4937,5.2648,4.2599
2832.0312,9.8279,11.3109,8.4720,4.7792,3.5349,6.7241,3.1930,1.6731,9.9232,6.2110,9.2427,9.5169,9.6142,8.7370,10.7657,7.8527,9.3792,6.8686,6.4895
2835.9375,10.7882,12.6554,10.1428,6.3380,5.2192,7.9390,5.7124,2.9438,10.7214,8.2296,10.8929,11.2168,10.5854,10.0761,11.8463,9.3709,9.5158,8.3382,8.3161
2839.8438,10.0392,12.6347,10.9632,7.3657,6.4034,7.7455,8.2768,3.8703,10.3965,9.1414,11.2327,12.2083,11.1145,11.0480,11.4825,10.3069,9.2478,9.2187,9.4169
2843.7500,7.7969,11.1132,10.6958,7.6368,7.1785,6.0677,9.8145,4.2831,9.3085,8.6410,10.4050,12.4430,11.3540,11.4413,10.0800,10.3825,8.9780,9.2912,9.7943
2847.6562,4.9143,8.5865,9.5042,7.3377,7.7220,3.5755,9.6381,4.2782,8.0389,7.0811,9.0153,12.1031,11.3844,11.2230,8.4116,9.6497,8.8916,8.6556,9.6614
2851.5625,2.4643,5.9647,7.8637,6.9205,8.1302,1.3072,7.9055,4.1385,7.0411,5.2483,7.7405,11.4062,11.1374,10.5064,7.1731,8.4224,8.8387,7.6392,9.2297
2855.4688,1.2273,4.1453,6.3367,6.7974,8.3550,0.1132,5.5771,4.1479,6.4371,3.9199,6.9594,10.4559,10.4593,9.4524,6.6451,7.1245,8.4705,6.6086,8.5712
2859.3750,1.3628,3.6053,5.3362,7.0768,8.2740,0.2429,3.8629,4.4192,6.0730,3.4808,6.6310,9.2481,9.2716,8.1824,6.6523,6.1417,7.5354,5.8114,7.6466
2863.2812,2.4317,4.2269,4.9898,7.5075,7.8190,1.2872,3.5035,4.8367,5.7531,3.8247,6.4645,7.8132,7.7079,6.7590,6.8101,5.7236,6.1173,5.3320,6.4578
2867.1875,3.7239,5.4318,5.1489,7.6633,7.0533,2.4687,4.3498,5.1369,5.4560,4.5624,6.2284,6.3595,6.1147,5.2301,6.8650,5.9356,4.6364,5.1563,5.1788
2871.0938,4.6780,6.5273,5.5099,7.2375,6.1443,3.0837,5.5108,5.0659,5.3644,5.3577,5.9633,5.2819,4.9005,3.6879,6.8872,6.6525,3.6056,5.2610,4.1453
2875.0000,5.1430,7.0588,5.7667,6.2515,5.2611,2.8455,5.9568,4.5166,5.6907,6.1401,5.9494,4.9982,4.3272,2.2919,7.1854,7.6021,3.3169,5.6386,3.6864
2878.9062,5.3557,6.9772,5.7180,5.0379,4.4853,1.9661,5.1676,3.5687,6.4401,7.0524,6.4614,5.7026,4.3828,1.2306,8.0128,8.4632,3.6789,6.2373,3.9085
2882.8125,5.6845,6.5563,5.2961,4.0141,3.7968,0.9755,3.4099,2.4261,7.3008,8.1964,7.4948,7.1955,4.8134,0.6403,9.2773,8.9914,4.3092,6.8752,4.5832
2886.7188,6.3283,6.1436,4.5357,3.4029,3.1332,0.4049,1.4961,1.3028,7.7618,9.3944,8.6671,8.9064,5.2851,0.5272,10.4748,9.1068,4.7993,7.2307,5.2286
2890.6250,7.1593,5.9166,3.5280,3.0974,2.4679,0.5113,0.2323,0.3335,7.3936,10.1707,9.3752,10.1150,5.5608,0.7374,10.9150,8.8829,4.9509,6.9604,5.3507
2894.5312,7.7909,5.7922,2.3975,2.7682,1.8433,1.1677,-0.0583,-0.4405,6.1131,9.9986,9.1181,10.2625,5.5797,1.0035,10.1174,8.4384,4.8252,5.9025,4.7086
2898.4375,7.8108,5.5276,1.3045,2.1391,1.3459,1.9548,0.3535,-1.0165,4.2585,8.6569,7.7868,9.1941,5.4076,1.0539,8.1346,7.8139,4.6037,4.2407,3.4517
2902.3438,7.0289,4.9265,0.4450,1.2371,1.0509,2.3889,0.8714,-1.3607,2.4256,6.4497,5.7447,7.2206,5.1214,0.7418,5.5940,6.9384,4.3984,2.4996,2.0499
2906.2500,5.6015,4.0041,0.0125,0.4278,0.9838,2.1698,0.9898,-1.3858,1.1690,4.1210,3.6554,4.9749,4.7294,0.1236,3.4181,5.7304,4.1727,1.3350,1.0592
2910.1562,3.9762,3.0006,0.1189,0.1950,1.1199,1.3277,0.5746,-1.0028,0.7445,2.4974,2.1597,3.1417,4.1909,-0.5607,2.3745,4.2626,3.8219,1.2093,0.8507
2914.0625,2.6968,2.2401,0.7125,0.8035,1.4078,0.2017,-0.1292,-0.2157,1.0302,2.0660,1.5837,2.1871,3.5095,-1.0098,2.7049,2.8466,3.3257,2.1309,1.4451
2917.9688,2.1697,1.9317,1.5562,2.0758,1.7892,-0.7332,-0.6986,0.8120,1.6465,2.7398,1.8245,2.2063,2.8167,-1.0251,4.0337,1.9325,2.8285,3.6178,2.5298
2921.8750,2.4921,2.0455,2.3036,3.4476,2.2008,-1.1023,-0.7694,1.7839,2.1765,3.9419,2.4511,2.9433,2.3612,-0.6232,5.5899,1.8525,2.5692,4.9238,3.6340
2925.7812,3.4102,2.3407,2.6503,4.2759,2.5673,-0.8051,-0.1775,2.3939,2.3530,4.9406,2.9440,3.9537,2.3885,-0.0258,6.6032,2.5734,2.7117,5.4115,4.3549
2929.6875,4.4204,2.5232,2.4775,4.2018,2.8070,-0.0404,1.0148,2.4800,2.1267,5.2306,2.9402,4.8155,2.9748,0.4713,6.6554,3.6477,3.2066,4.8640,4.5126
2933.5938,4.9796,2.4267,1.8947,3.3298,2.8539,0.8226,2.5497,2.1113,1.6144,4.7453,2.3674,5.2783,3.9202,0.6696,5.8143,4.4324,3.7899,3.5604,4.1638
2937.5000,4.7472,2.1015,1.1463,2.1123,2.6827,1.4457,4.0215,1.5425,0.9963,3.8109,1.4265,5.2872,4.7804,0.5700,4.5159,4.4577,4.1172,2.0815,3.4935
2941.4062,3.7611,1.7628,0.4426,1.0361,2.3177,1.6827,4.9614,1.0602,0.4324,2.9081,0.4545,4.8957,5.0442,0.3416,3.2925,3.7084,3.9382,0.9713,2.6735
2945.3125,2.4546,1.6418,-0.1644,0.3383,1.8182,1.6161,4.9943,0.8186,0.0320,2.4010,-0.2503,4.1537,4.3764,0.1860,2.5058,2.6254,3.2058,0.4646,1.7880
2949.2188,1.4792,1.8396,-0.7638,-0.0536,1.2572,1.4702,4.0373,0.7767,-0.1434,2.3777,-0.5589,3.0642,2.8081,0.1949,2.2093,1.8156,2.0718,0.4322,0.8658
2953.1250,1.3845,2.2725,-1.4344,-0.3412,0.7085,1.4653,2.4244,0.7791,-0.0795,2.6538,-0.5498,1.6427,0.7659,0.2997,2.1761,1.6573,0.8064,0.5501,-0.0257
2957.0312,2.2968,2.7262,-2.0797,-0.6003,0.2460,1.7007,0.8265,0.7171,0.1720,2.8937,-0.4513,0.0251,-1.0900,0.3373,2.0447,2.0580,-0.2994,0.5521,-0.7208
2960.9375,3.7695,2.9695,-2.4006,-0.6709,-0.0606,2.1167,-0.0530,0.6422,0.4734,2.7645,-0.5262,-1.4818,-2.1564,0.1708,1.4979,2.5193,-1.0105,0.3865,-1.0040
2964.8438,4.9192,2.8524,-2.0660,-0.2901,-0.1716,2.5323,0.1420,0.7380,0.6163,2.0554,-0.9507,-2.4842,-2.1690,-0.2331,0.4015,2.4578,-1.2084,0.1817,-0.7549
2968.7500,4.8267,2.3447,-0.9854,0.6361,-0.1123,2.7229,1.2065,1.1609,0.3984,0.7413,-1.7369,-2.6943,-1.3288,-0.8180,-1.1378,1.5688,-0.9388,0.0765,-0.0853
2972.6562,3.0285,1.5263,0.5197,1.8484,0.0128,2.5054,2.4929,1.8686,-0.2593,-1.0024,-2.7208,-2.1134,-0.1956,-1.5138,-2.8043,0.0034,-0.4223,0.0678,0.6503
2976.5625,-0.1542,0.5666,1.8141,2.8140,0.0602,1.8136,3.3113,2.5809,-1.2138,-2.8298,-3.6148,-1.0658,0.6064,-2.2910,-4.1824,-1.7325,0.0162,0.0106,1.0203
2980.4688,-3.6499,-0.2863,2.3053,3.0455,-0.0668,0.7544,3.3601,2.9264,-2.0935,-4.3041,-4.0995,-0.0371,0.7188,-3.1398,-4.9116,-3.0699,0.1042,-0.2264,0.7760
2984.3750,-6.0684,-0.7259,1.8454,2.4429,-0.3419,-0.3802,2.8944,2.6908,-2.4181,-5.0274,-3.9290,0.5973,0.2276,-3.9945,-4.8334,-3.6636,-0.2083,-0.5785,0.0373
2988.2812,-6.3466,-0.4594,0.8935,1.4026,-0.6134,-1.1802,2.5131,1.9918,-1.8142,-4.7870,-3.0152,0.7796,-0.4129,-4.6885,-4.0649,-3.5102,-0.6852,-0.7408,-0.7384
2992.1875,-4.2930,0.6614,0.2819,0.5912,-0.7002,-1.2730,2.7119,1.2430,-0.2245,-3.6548,-1.4700,0.7753,-0.6672,-5.0072,-2.9518,-2.8600,-0.9271,-0.3298,-1.0161
2996.0938,-0.7332,2.5076,0.6993,0.5227,-0.5317,-0.5165,3.5158,0.9090,2.0071,-1.9770,0.4193,0.9747,-0.2405,-4.8205,-1.9065,-2.0175,-0.6299,0.8419,-0.5192
3000.0000,2.8488,4.6371,2.2191,1.2274,-0.2281,0.8773,4.4558,1.2086,4.2491,-0.2376,2.2829,1.6319,0.7688,-4.1955,-1.2018,-1.1671,0.1855,2.5770,0.5790
3003.9062,5.0179,6.4298,4.2078,2.2469,-0.0432,2.3911,4.9060,1.9692,5.8617,1.1470,3.8077,2.7206,1.9779,-3.3803,-0.8330,-0.3177,1.1529,4.3484,1.7515
3007.8125,5.0858,7.3666,5.7114,2.9658,-0.1823,3.4419,4.5409,2.7413,6.5091,1.9998,4.8670,3.9978,3.0119,-2.6441,-0.5348,0.6341,1.7941,5.5908,2.4585
3011.7188,3.4299,7.3130,6.0920,3.0520,-0.6102,3.7018,3.5842,3.1026,6.3297,2.4291,5.5680,5.2069,3.7712,-2.0752,0.0406,1.7865,1.8631,6.0507,2.5170
3015.6250,1.2540,6.6303,5.4892,2.6997,-0.9949,3.3116,2.6676,2.9459,5.8530,2.7225,6.1720,6.2495,4.4826,-1.4935,1.0789,3.1348,1.5561,5.9547,2.2485
3019.5312,-0.0851,6.0113,4.7738,2.5020,-0.8594,2.8317,2.3981,2.5501,5.6903,3.1532,6.9058,7.1858,5.4906,-0.5668,2.4351,4.5309,1.4127,5.8675,2.2887
3023.4375,0.1850,6.0987,4.9887,3.0384,0.1261,2.9226,2.9376,2.3811,6.1662,3.8099,7.7625,8.0684,6.9309,0.9290,3.6507,5.7006,1.9492,6.3168,3.1644
3027.3438,1.8599,7.0910,6.6247,4.4545,1.8866,3.9235,3.8921,2.7552,7.1050,4.5461,8.4208,8.7565,8.5244,2.8828,4.1625,6.3073,3.2620,7.4235,4.9045
3031.2500,3.9212,8.5712,9.2116,6.3172,3.8963,5.5830,4.5882,3.5965,7.9104,5.0719,8.3657,8.8883,9.6548,4.8259,3.5956,6.0529,4.8852,8.7805,6.9433
3035.1562,5.1430,9.6788,11.5131,7.8415,5.4018,7.1232,4.5408,4.4555,7.8998,5.1243,7.1765,8.0764,9.7071,6.1542,1.9798,4.7997,6.0190,9.6644,8.3949
3039.0625,4.7761,9.5478,12.2273,8.3389,5.8011,7.6254,3.7855,4.7830,6.7018,4.6115,4.8299,6.2111,8.4569,6.4611,-0.2335,2.6809,5.9989,9.4521,8.5442
3042.9688,2.9100,7.7704,10.7569,7.6036,4.9610,6.5278,2.8421,4.2804,4.4796,3.6477,1.8223,3.6537,6.2589,5.7690,-2.3666,0.1344,4.7054,7.9854,7.2580
3046.8750,0.3283,4.6285,7.5688,6.0044,3.2851,3.9494,2.3344,3.0986,1.8474,2.4646,-0.9998,1.1513,3.9011,4.5102,-3.8238,-2.1920,2.6519,5.6662,5.0710
3050.7812,-2.0108,0.9665,3.9220,4.2482,1.4922,0.6556,2.5311,1.7581,-0.4644,1.2645,-2.8406,-0.5118,2.2068,3.2769,-4.3513,-3.6650,0.7004,3.2374,2.8954
3054.6875,-3.5162,-2.2134,1.1508,2.9825,0.2365,-2.3123,3.1272,0.8464,-1.9894,0.1138,-3.3730,-0.9299,1.6213,2.5084,-4.1229,-3.9372,-0.4097,1.3960,1.5325
3058.5938,-4.1935,-4.2027,-0.0449,2.4816,-0.2075,-4.1269,3.4248,0.6832,-2.7235,-1.0547,-2.9204,-0.2983,2.0238,2.3079,-3.6136,-3.1294,-0.4281,0.4658,1.2720
3062.5000,-4.4596,-4.8459,0.1223,2.5771,-0.0246,-4.5155,2.7992,1.1563,-3.0422,-2.3343,-2.2780,0.6978,2.8577,2.4768,-3.3358,-1.8047,0.3419,0.3008,1.8001
3066.4062,-4.7247,-4.5009,0.8019,2.8284,0.3142,-3.7906,1.1408,1.8114,-3.4139,-3.7052,-2.2602,1.2640,3.4716,2.6991,-3.5744,-0.7173,1.2780,0.4358,2.4399
3070.3125,-5.0653,-3.7702,1.0998,2.7878,0.3463,-2.5989,-1.0269,2.1203,-4.1070,-4.9645,-3.2377,0.9157,3.4502,2.7231,-4.2546,-0.4482,1.7931,0.3616,2.5555
3074.2188,-5.2150,-3.1874,0.5858,2.1929,-0.1565,-1.5728,-2.8451,1.7533,-5.0695,-5.7856,-4.9396,-0.3099,2.7480,2.4256,-5.0039,-1.1212,1.5956,-0.2390,1.8712
3078.1250,-4.8540,-3.0314,-0.5853,1.0047,-1.1490,-1.0888,-3.6491,0.7034,-6.0281,-5.8842,-6.6405,-1.9505,1.5874,1.7591,-5.3714,-2.3626,0.7391,-1.4006,0.5363
3082.0312,-3.9570,-3.3289,-1.9485,-0.6723,-2.4410,-1.2334,-3.3916,-0.7808,-6.7076,-5.1983,-7.6089,-3.4339,0.2385,0.6811,-5.0878,-3.5378,-0.5007,-2.9294,-1.0609
3085.9375,-2.9205,-3.9814,-3.1406,-2.6831,-3.8627,-1.9282,-2.6798,-2.3756,-7.0056,-3.9685,-7.5384,-4.3990,-1.1460,-0.8330,-4.2269,-4.1345,-1.8007,-4.5274,-2.5715
3089.8438,-2.3653,-4.8897,-4.1367,-4.8488,-5.3335,-3.0739,-2.3911,-3.8465,-7.0155,-2.6593,-6.6978,-4.8337,-2.5321,-2.6858,-3.1789,-4.0662,-2.9043,-5.9012,-3.8626
3093.7500,-2.7480,-5.9911,-5.1609,-6.9315,-6.7939,-4.5931,-3.1019,-5.1022,-6.9105,-1.7573,-5.7240,-4.9797,-3.8734,-4.5569,-2.4456,-3.7091,-3.6428,-6.8200,-4.9891
