Time,Fp1,F3,C3,P3,O1,F7,T3,T5,Fz,Fp2,F4,C4,P4,O2,F8,T4,T6,Cz,Pz
0.0000,-2.1521,1.9692,-0.7711,-2.4183,-2.0204,2.6423,1.8856,-2.2243,-1.6758,-6.8394,-1.5277,0.1410,-2.0628,-2.3318,-4.7621,-2.4113,-2.0161,-2.1578,-1.4801
3.9062,-2.8558,1.7607,1.2511,-1.5025,-1.9039,2.2161,3.2207,-1.2229,0.2479,-5.5624,1.4181,2.3099,-1.0926,-2.3168,-1.4957,1.2078,-0.5689,0.0980,-0.6022
7.8125,-3.6026,0.6705,2.8450,-0.8179,-2.3624,0.7261,3.9250,-0.1585,2.2168,-2.6713,3.8696,3.4544,-0.6575,-2.5541,2.8373,5.1255,0.7628,2.5125,-0.4630
11.7188,-3.6178,-0.9813,3.2515,-0.6355,-3.2931,-1.3488,3.4037,0.6709,3.6211,1.8976,4.9089,2.4621,-1.2783,-2.9855,7.2981,7.8719,1.3383,4.1816,-1.4583
15.6250,-2.0375,-2.2471,2.4030,-0.8299,-4.1169,-2.8584,1.7937,1.2301,4.2692,7.4503,4.6207,-0.6381,-2.9161,-3.3493,10.7661,8.3916,0.8903,4.5293,-3.3134
19.5312,1.4118,-2.0635,1.0530,-0.8746,-4.0273,-2.6396,0.0024,1.8071,4.4771,12.6105,4.0757,-4.4290,-4.8239,-3.2589,12.3474,6.6635,-0.2264,3.6684,-5.0850
23.4375,5.8400,-0.0057,0.3500,-0.1472,-2.4775,-0.3612,-0.8018,2.7969,4.7691,15.7934,4.5323,-6.7914,-5.8424,-2.3883,11.7127,3.7595,-1.1673,2.3554,-5.6172
27.3438,9.2390,3.2192,1.0980,1.6182,0.3837,3.0385,0.0556,4.3329,5.4052,15.8915,6.3869,-6.1874,-5.0351,-0.6860,9.2411,1.2826,-1.0784,1.5423,-4.2178
31.2500,9.3509,5.9409,3.1799,4.0239,3.6313,5.7057,2.2600,6.0324,6.0925,12.8213,8.6626,-2.7245,-2.3034,1.5024,5.9116,0.5063,0.3498,1.7963,-1.1465
35.1562,5.0002,6.3449,5.5342,6.0850,5.9499,5.8787,4.6219,7.0820,6.1157,7.6178,9.5008,1.7578,1.4177,3.4969,2.9636,1.7171,2.6141,2.9518,2.4182
39.0625,-2.9067,3.4846,6.7185,6.6965,6.3047,2.9326,5.7377,6.6636,4.8220,1.9986,7.4087,4.7329,4.5662,4.5454,1.4313,4.1280,4.6188,4.2169,4.9590
42.9688,-11.4581,-2.1345,5.7120,5.2409,4.5168,-2.2287,4.7608,4.4735,2.1330,-2.3734,2.4339,4.5453,5.7776,4.1859,1.7301,6.3820,5.2888,4.6665,5.4275
46.8750,-17.0362,-8.7667,2.4675,1.9781,1.3999,-7.7090,1.7904,0.9936,-1.2716,-4.5270,-3.5818,1.4736,4.6615,2.5320,3.4917,7.3213,4.2192,3.8112,3.8065
50.7812,-17.1907,-14.3010,-2.0927,-2.0218,-1.6328,-11.7331,-2.3207,-2.6834,-4.2290,-4.3903,-7.9153,-2.4228,2.0592,0.3120,5.7661,6.5767,1.9623,1.8926,1.0960
54.6875,-11.9865,-17.2505,-6.5690,-5.3673,-3.2657,-13.5877,-6.5215,-5.3821,-5.6528,-2.5231,-8.4870,-4.5956,-0.3967,-1.4009,7.5305,4.6775,-0.2387,-0.2587,-1.2561
58.5938,-3.9710,-17.2765,-9.7121,-6.9693,-2.8857,-13.7752,-10.0392,-6.3970,-5.0302,0.3708,-5.0134,-3.5945,-1.1779,-1.6663,8.2507,2.6841,-1.1243,-1.6854,-2.1233
62.5000,3.2563,-15.0175,-10.8191,-6.4503,-0.7702,-13.3320,-12.4704,-5.7369,-2.5867,3.7872,0.9367,0.0922,0.3097,-0.1360,8.1602,1.6011,-0.1103,-1.7859,-1.2136
66.4062,7.0016,-11.4697,-9.7623,-4.1514,2.1936,-12.8682,-13.5410,-3.9423,0.9099,7.4043,6.9541,4.4640,3.4395,2.7473,8.0523,1.9016,2.4024,-0.5405,0.9389
70.3125,6.7612,-7.4215,-6.7971,-0.8105,5.0373,-12.0689,-12.8796,-1.6545,4.5122,10.8004,11.1318,7.3579,6.7616,5.9298,8.6750,3.3776,5.2616,1.5980,3.4244
74.2188,4.0899,-3.3130,-2.4011,2.8287,7.1484,-10.0394,-10.1177,0.7398,7.3857,13.2289,12.8541,7.7666,8.8124,8.2255,10.1074,5.3240,7.1842,4.0092,5.5057
78.1250,1.2655,0.4996,2.7255,6.2278,8.3915,-6.2266,-5.3141,3.1536,8.9316,13.7506,12.6278,6.2477,8.8393,8.8528,11.5592,6.9074,7.3917,6.1742,6.9060
82.0312,-0.2592,3.4307,7.5989,9.0168,8.9203,-1.1931,0.6538,5.5585,8.8087,11.7484,11.2816,4.2340,7.0426,7.7543,11.7991,7.5215,5.9181,7.7615,7.7017
85.9375,-0.5540,4.6860,11.0437,10.8432,8.8857,3.3970,6.1493,7.7035,6.9867,7.5109,9.2709,2.8407,4.2733,5.5474,9.9927,6.9880,3.4674,8.5552,7.9863
89.8438,-0.6679,3.6939,12.0496,11.3168,8.2772,5.6594,9.4152,9.0615,3.8609,2.4354,6.6315,2.0868,1.4648,3.1607,6.4104,5.5591,0.9693,8.3742,7.6202
93.7500,-1.3821,0.6464,10.2591,10.1549,6.9962,4.6745,9.4677,9.0845,0.3076,-1.4206,3.5108,1.0853,-0.8043,1.3734,2.4868,3.7594,-0.8734,7.1089,6.2928
97.6562,-2.2932,-3.3107,6.2690,7.4418,5.0732,1.1614,6.6678,7.5933,-2.4873,-2.2966,0.6796,-1.0016,-2.3773,0.5120,0.1015,2.1526,-1.7992,4.8659,3.8581
101.5625,-1.9846,-6.4893,1.4801,3.7891,2.8362,-2.8502,2.5530,5.0105,-3.4696,0.3130,-0.5732,-4.0230,-3.2781,0.4407,0.4782,1.1285,-1.9074,2.0840,0.6782
105.4688,0.8124,-7.5003,-2.4963,0.2219,0.8772,-5.1722,-1.0056,2.2408,-2.2442,5.2834,0.7637,-6.6740,-3.4342,0.7981,3.3883,0.7907,-1.4174,-0.5291,-2.3300
109.3750,5.9513,-6.0156,-4.5621,-2.2022,-0.1867,-4.7020,-2.7974,0.2497,0.6297,10.3438,4.4940,-7.2752,-2.6260,1.2948,7.1990,0.9802,-0.4734,-2.2620,-4.0497
113.2812,11.5150,-2.9518,-4.5658,-2.8456,-0.0197,-1.9760,-2.7918,-0.4022,3.8218,13.2022,8.9275,-4.9504,-0.7090,1.8736,9.7772,1.4088,0.8732,-2.7265,-3.7458
117.1875,14.7620,0.0678,-3.1979,-1.7537,1.2426,1.2813,-1.8914,0.2149,5.8632,12.7041,11.6194,-0.3517,2.0846,2.6490,9.7090,1.8209,2.5276,-2.0305,-1.5173
121.0938,13.8116,1.6522,-1.4485,0.4172,3.0306,3.2722,-1.1541,1.5290,5.9056,9.3867,10.7755,4.6059,5.0413,3.6999,7.0810,2.0924,4.2093,-0.6686,1.6782
125.0000,8.9302,1.4039,0.0030,2.7528,4.5861,3.1685,-1.0595,2.8354,4.1718,5.1350,6.4335,7.8439,7.2027,4.8884,3.3552,2.2236,5.4512,0.8118,4.4705
128.9062,2.4969,0.0489,1.0797,4.4971,5.2872,1.4510,-1.3123,3.6581,1.8214,2.1588,0.6061,8.3277,7.8359,5.8514,0.4481,2.2594,5.7875,2.1485,5.7538
132.8125,-2.3895,-1.1138,2.1416,5.3089,4.8987,-0.5821,-1.2542,3.8996,0.2983,1.8691,-3.7698,6.6010,6.8533,6.1885,-0.3787,2.2220,5.0308,3.4809,5.2135
136.7188,-3.7714,-1.0693,3.5384,5.2620,3.6432,-1.7332,-0.5103,3.7446,0.5314,4.2540,-4.4583,4.3434,4.9053,5.7271,0.8700,2.1219,3.4568,5.1701,3.4243
140.6250,-1.9438,0.2841,5.2300,4.6634,2.0790,-1.6280,0.6389,3.4434,2.4369,8.0298,-1.1412,3.2900,3.0743,4.6831,3.1273,2.0327,1.7522,7.4483,1.4931
144.5312,0.8995,2.0948,6.7404,3.8498,0.8540,-0.8229,1.4321,3.1451,4.9901,11.4033,4.4772,4.2241,2.3377,3.5960,5.0627,2.1411,0.7154,10.1433,0.4759
148.4375,2.2171,3.0880,7.4518,3.0895,0.4470,-0.3187,1.1918,2.8750,6.7979,12.9795,9.6720,6.6352,3.1025,3.0594,5.9030,2.6850,0.8573,12.6651,0.8980
152.3438,0.8140,2.3175,7.0144,2.5989,1.0025,-0.8676,-0.1575,2.6214,6.8380,12.3411,12.1604,9.1564,5.0590,3.4050,5.7674,3.7792,2.1223,14.2677,2.6065
156.2500,-2.4327,-0.2963,5.5892,2.5887,2.3209,-2.5263,-1.9990,2.4310,4.9697,10.0726,11.1901,10.4192,7.3990,4.5322,5.3881,5.2426,3.9021,14.4196,4.9756
160.1562,-5.2428,-3.9112,3.7854,3.2436,3.9944,-4.6791,-3.4110,2.4254,1.9815,7.3269,7.7393,9.7814,9.2455,5.9871,5.5032,6.5813,5.3494,13.0633,7.2864
164.0625,-5.4787,-7.1625,2.3626,4.6184,5.6099,-6.4340,-3.7396,2.7352,-0.8021,5.2414,3.8647,7.5537,10.0438,7.2356,6.3699,7.1982,5.8258,10.6298,9.0450
167.9688,-2.5032,-8.7620,1.8991,6.5248,6.9107,-7.0907,-2.9524,3.4072,-2.1181,4.5114,1.6473,4.7039,9.7232,7.9521,7.6842,6.7331,5.2297,7.8336,10.0814
171.8750,2.5230,-7.9937,2.6009,8.5133,7.8331,-6.4096,-1.5551,4.3564,-1.2779,5.2669,2.2697,2.2943,8.5956,8.1410,8.8752,5.3198,4.0160,5.3863,10.4354
175.7812,7.5094,-4.9158,4.2987,10.0074,8.4194,-4.5932,-0.1750,5.3894,1.6074,7.2050,5.5724,0.9805,7.1013,8.0279,9.5036,3.5663,2.9001,3.7788,10.1657
179.6875,10.7917,-0.2611,6.5624,10.5443,8.6913,-2.0852,0.8653,6.2827,5.7322,9.8157,10.1722,0.7913,5.5810,7.8226,9.4924,2.2382,2.4312,3.1977,9.2481
183.5938,12.0259,4.8503,8.8407,10.0054,8.5982,0.6404,1.6936,6.8740,9.9344,12.5563,14.0379,1.2365,4.2004,7.5440,9.0908,1.8341,2.7020,3.5570,7.6458
187.5000,12.0740,9.2415,10.5862,8.7098,8.0953,3.1837,2.6858,7.1304,13.1055,14.9184,15.3125,1.6517,3.0404,7.0486,8.6683,2.3306,3.3687,4.5857,5.5009
191.4062,12.0725,11.9549,11.3818,7.3131,7.2940,5.2195,4.0976,7.1680,14.5204,16.4321,13.1075,1.6093,2.2524,6.2431,8.5012,3.2681,3.9536,5.9302,3.2916
195.3125,12.4336,12.4386,11.0738,6.5430,6.5415,6.4653,5.7984,7.2053,13.9945,16.6862,7.9487,1.1969,2.1304,5.3051,8.6496,4.1133,4.2099,7.2577,1.7965
199.2188,12.5152,10.6377,9.8561,6.8798,6.3088,6.6870,7.2758,7.4485,11.8495,15.4126,1.6214,0.9978,3.0075,4.7052,8.9322,4.6334,4.2863,8.3474,1.8083
203.1250,11.1681,6.9871,8.2164,8.3100,6.8952,5.7548,7.8808,7.9370,8.7331,12.6198,-3.6068,1.7314,5.0025,4.9557,8.9725,5.0083,4.5686,9.1313,3.6998
207.0312,7.7260,2.2964,6.7046,10.2595,8.1226,3.7134,7.1412,8.4243,5.3806,8.7004,-6.0612,3.7089,7.7673,6.2168,8.3254,5.5934,5.3064,9.6391,7.0715
210.9375,2.7008,-2.4627,5.6094,11.7476,9.2507,0.8209,4.9612,8.3846,2.4085,4.4272,-5.4739,6.4280,10.4279,8.0332,6.7045,6.5107,6.2976,9.8519,10.7149
214.8438,-2.3232,-6.4187,4.7394,11.7289,9.2479,-2.4712,1.6326,7.1991,0.1999,0.7883,-3.0489,8.6245,11.8295,9.4274,4.2548,7.3802,6.8801,9.5516,12.9938
218.7500,-5.5289,-9.0311,3.4846,9.5138,7.3300,-5.5953,-2.3022,4.4751,-1.1135,-1.3148,-0.7161,8.8607,11.0237,9.3601,1.7003,7.4201,6.2786,8.2955,12.5202
222.6562,-5.8816,-10.2031,1.1862,5.1100,3.4767,-7.9921,-6.2289,0.3479,-1.6102,-1.4014,-0.0193,6.3591,7.7635,7.3198,0.1684,5.8871,4.1035,5.6010,8.8183
226.5625,-3.6694,-10.2324,-2.3695,-0.6680,-1.3978,-9.2570,-9.5997,-4.4160,-1.5237,0.3717,-1.3352,1.5569,2.7227,3.6870,0.6462,2.5845,0.6776,1.2851,2.6330
230.4688,-0.2648,-9.6201,-6.6307,-6.3979,-5.7664,-9.2676,-12.0020,-8.6136,-1.1915,3.2373,-3.8941,-4.0434,-2.7239,-0.3682,3.3066,-1.8965,-3.0369,-4.2279,-4.3022
234.3750,2.6841,-8.8200,-10.3632,-10.5116,-8.1648,-8.2316,-13.1729,-11.0425,-0.9851,6.1146,-6.5102,-8.7046,-7.0778,-3.4233,7.1404,-6.3675,-5.8912,-9.8529,-9.9531
238.2812,4.1045,-8.0388,-12.1405,-11.8490,-7.8657,-6.6072,-12.9911,-10.9828,-1.1948,8.0605,-8.4332,-11.4549,-9.3556,-4.4828,10.2503,-9.5627,-7.1157,-14.1405,-12.7966
242.1875,3.9044,-7.1778,-11.0074,-10.0810,-5.1900,-4.9035,-11.4688,-8.4918,-1.8887,8.6545,-9.6779,-12.5631,-9.4447,-3.4252,10.7756,-10.6857,-6.6649,-15.8192,-12.3686
246.0938,2.7839,-5.9508,-6.9754,-5.8263,-1.3068,-3.4558,-8.7654,-4.3792,-2.8217,8.1077,-10.6346,-13.1214,-7.9948,-0.9888,7.9643,-9.6892,-5.1546,-14.3202,-9.3069
250.0000,1.6667,-4.1320,-1.1014,-0.4215,2.3395,-2.3156,-5.2264,0.1067,-3.4950,7.0249,-11.3561,-14.0023,-5.9437,1.6582,2.7140,-7.1787,-3.4588,-10.0225,-4.9303
253.9062,1.1350,-1.8193,4.8755,4.5459,4.6454,-1.3507,-1.4323,3.7132,-3.3997,5.9592,-11.2055,-14.9649,-3.9905,3.4950,-2.8294,-4.0587,-2.2358,-4.1070,-0.6264
257.8125,1.1644,0.4312,9.1519,7.7451,5.2024,-0.5145,1.8010,5.5525,-2.3549,5.0441,-9.2643,-14.6438,-2.3382,4.0589,-6.4398,-1.1515,-1.6628,1.8777,2.6263
261.7188,1.2337,1.7078,10.4606,8.4672,4.2737,-0.0965,3.5411,5.2884,-0.7399,3.9573,-5.2635,-11.5517,-0.8225,3.5165,-7.0395,1.0214,-1.4951,6.5167,4.4151
265.6250,0.6835,1.0953,8.4409,6.7540,2.5034,-0.7304,3.0102,3.1410,0.5705,2.2625,-0.2967,-5.4454,0.7257,2.4350,-5.2083,2.2584,-1.3521,8.8914,4.7700
269.5312,-0.8740,-1.8488,3.7061,3.3056,0.5817,-3.0630,-0.0557,-0.2283,0.6090,-0.0966,3.3721,1.9645,2.1895,1.4406,-2.6518,2.5848,-1.0062,8.7286,3.9514
273.4375,-3.2769,-6.7198,-2.3565,-0.7570,-0.9571,-7.2263,-5.1238,-3.8880,-1.1215,-2.5146,3.4721,7.6262,3.1781,0.9582,-1.0019,2.1647,-0.4901,6.3767,2.3301
277.3438,-5.7805,-12.2223,-7.9677,-4.1910,-1.7683,-12.4503,-10.8531,-6.8372,-4.2518,-3.9162,-0.8145,8.8557,3.3362,1.1263,-0.7730,1.2731,0.0114,2.6857,0.3974
281.2500,-7.3141,-16.5612,-11.4392,-5.9349,-1.6472,-17.1394,-15.4506,-8.2318,-7.5973,-3.3698,-8.0787,5.0930,2.7114,1.8590,-1.1694,0.2953,0.3731,-1.1811,-1.2041
285.1562,-6.9732,-18.1529,-11.6634,-5.3733,-0.5061,-19.4922,-17.3068,-7.6062,-9.6925,-0.7525,-15.1999,-1.4919,1.8846,2.9659,-0.8292,-0.3051,0.6789,-4.0189,-1.7688
289.0625,-4.5565,-16.3454,-8.4864,-2.5137,1.5828,-18.3907,-15.6468,-5.0211,-9.5484,2.9966,-18.9223,-7.0652,1.7296,4.2514,1.0700,-0.0809,1.2125,-4.9303,-0.7762
292.9688,-0.8597,-11.7787,-2.8133,1.9902,4.3278,-14.0613,-10.8817,-1.0586,-7.2003,6.2731,-17.5616,-8.2996,2.9239,5.5631,4.1542,1.2683,2.3013,-3.6514,1.8212
296.8750,2.5291,-6.1593,3.6525,7.0115,7.2250,-8.0852,-4.4719,3.3631,-3.7109,7.6744,-11.8234,-4.3212,5.5178,6.7976,7.1001,3.7853,4.1190,-0.6861,5.4673
300.7812,3.9593,-1.5133,8.9971,11.2985,9.6780,-2.6875,1.6516,7.2961,-0.5997,6.8212,-4.2841,2.8032,8.8406,7.8832,8.5742,7.2086,6.5556,2.8799,9.1604
304.6875,2.6634,0.7335,11.7993,13.8885,11.1957,0.3356,5.8408,10.0638,0.9810,4.6087,2.0814,9.3576,11.8140,8.7532,8.1650,11.0036,9.2206,5.8528,11.8584
308.5938,-0.6171,0.3877,11.6484,14.4247,11.5770,0.4652,7.3161,11.4317,0.8495,2.7058,5.4100,12.2311,13.4925,9.3282,6.6448,14.4651,11.5694,7.4711,12.9287
312.5000,-3.7857,-1.4890,9.2368,13.2394,10.9942,-1.3778,6.3424,11.5942,-0.1676,2.6017,5.6549,10.7119,13.5169,9.5244,5.4167,16.8810,13.0968,7.7200,12.4016
316.4062,-4.3757,-3.1707,5.9892,11.1678,9.9299,-3.4187,3.9687,11.0186,-0.7671,4.7889,4.2161,6.7148,12.2332,9.2986,5.5870,17.7347,13.5225,7.2325,10.8971
320.3125,-0.9072,-3.1561,3.4173,9.1831,8.9931,-3.9993,1.5043,10.2406,0.0547,8.5700,2.8718,3.3649,10.4402,8.7076,7.3285,16.8927,12.8964,6.8374,9.2818
324.2188,6.1384,-0.8991,2.5133,8.0206,8.6836,-2.3894,-0.0077,9.7021,2.4302,12.5553,2.7119,2.9080,8.9380,7.9353,9.9234,14.6930,11.5829,7.0251,8.2508
328.1250,14.3280,2.9647,3.4410,7.9515,9.1945,0.9582,-0.1139,9.6655,5.5549,15.4684,3.6417,5.3156,8.1478,7.2448,12.3423,11.8552,10.1196,7.6556,8.0521
332.0312,20.3358,6.9577,5.6067,8.7747,10.3291,4.7485,1.0058,10.1864,8.1201,16.7199,4.6181,8.4504,7.9966,6.8609,13.8606,9.2131,9.0047,8.0732,8.4618
335.9375,21.5197,9.4499,8.0001,9.9850,11.5705,7.5044,2.7187,11.1151,8.9724,16.4357,4.3800,9.6236,8.0894,6.8467,14.2769,7.3782,8.5026,7.5418,8.9798
339.8438,17.1856,9.3512,9.6080,11.0043,12.2842,8.1755,4.2280,12.1163,7.6480,15.0532,2.2493,7.4758,8.0242,7.0591,13.7019,6.5117,8.5611,5.7251,9.1050
343.7500,8.9010,6.5209,9.7357,11.3680,11.9786,6.4605,4.8604,12.7290,4.5520,12.9028,-1.3833,2.9427,7.6384,7.2236,12.2533,6.3394,8.8752,2.9294,8.5474
347.6562,-0.2480,1.7910,8.1787,10.8188,10.5110,2.8245,4.2829,12.4885,0.7667,10.1385,-5.1001,-1.3099,7.0477,7.0825,10.0183,6.4021,9.0562,-0.0094,7.2973
351.5625,-7.0156,-3.3390,5.2622,9.3290,8.1497,-1.6795,2.6121,11.1001,-2.3643,7.0348,-7.0188,-2.5894,6.4814,6.5205,7.3301,6.3785,8.8074,-2.0980,5.5668
355.4688,-9.2801,-7.1896,1.7802,7.0990,5.4658,-5.6916,0.3947,8.6057,-3.6845,4.3097,-5.6589,0.1005,6.0564,5.5893,5.0300,6.2687,8.0201,-2.5909,3.6775
359.3750,-6.7086,-8.4262,-1.1718,4.5532,3.1174,-7.9071,-1.5516,5.4557,-2.5663,3.0646,-0.7293,5.4277,5.6697,4.4375,4.3195,6.3241,6.7675,-1.2268,1.9726
363.2812,-0.6372,-6.4953,-2.4859,2.3066,1.6333,-7.5085,-2.4120,2.4221,0.9181,4.2326,6.5795,10.5811,5.1053,3.2307,6.1229,6.7957,5.2445,1.7738,0.7870
367.1875,6.6272,-1.8557,-1.4187,1.0500,1.2837,-4.5529,-1.6882,0.3537,6.0154,7.8585,14.0297,13.0347,4.2909,2.1403,10.3408,7.7039,3.7189,5.8766,0.4476
371.0938,12.7056,4.1059,2.0673,1.3366,2.0613,-0.0980,0.5709,-0.1459,11.4973,12.7638,19.3528,12.0797,3.5118,1.3990,15.5871,8.8080,2.5136,10.4295,1.2433
375.0000,15.9068,9.5098,7.1706,3.3274,3.7252,4.1230,3.7418,1.0210,16.0212,16.9550,21.3292,9.1456,3.3777,1.3301,19.7363,9.7932,1.9776,14.7875,3.3182
378.9062,15.6521,12.6727,12.4510,6.6220,5.8565,6.4447,6.8471,3.3772,18.5523,18.6332,20.2983,6.7293,4.4913,2.2463,21.0432,10.5133,2.3885,18.3559,6.5089
382.8125,12.5171,12.7919,16.3357,10.3001,7.9121,6.1047,8.9578,6.0473,18.7062,17.2052,17.7729,6.6621,6.9789,4.2209,19.1406,11.0795,3.7903,20.6111,10.2219
386.7188,7.9333,10.3104,17.7380,13.2161,9.3123,3.6936,9.6011,8.1175,16.8686,13.6380,15.3964,8.8733,10.1905,6.8720,15.2453,11.7093,5.8581,21.1662,13.4781
390.6250,3.6631,6.7488,16.5053,14.4447,9.5938,0.8960,8.9689,9.0142,14.0344,9.8984,13.9364,11.4738,12.8322,9.3557,11.4178,12.4518,7.9175,19.8992,15.1949
394.5312,1.2092,4.0396,13.4768,13.6750,8.5959,-0.4014,7.8050,8.7139,11.4289,7.8164,13.0023,12.0984,13.5477,10.6637,9.3559,13.0251,9.1780,17.0840,14.6386
398.4375,1.3456,3.6608,10.1102,11.3446,6.5788,0.8462,7.0035,7.6740,10.0710,8.0898,11.6575,9.6021,11.6726,10.1140,9.5036,12.9330,9.0979,13.4332,11.8401
402.3438,3.9161,5.9781,7.8454,8.4359,4.1696,4.2537,7.1157,6.5279,10.4477,10.0385,9.4373,4.9592,7.7237,7.7575,11.0083,11.8179,7.6869,9.9735,7.7282
406.2500,7.9515,10.1113,7.5023,6.0319,2.1248,8.2264,8.0279,5.7265,12.4046,12.2080,6.9636,0.7514,3.2997,4.4379,12.4597,9.8082,5.5603,7.7564,3.8412
410.1562,12.0419,14.3754,8.9865,4.8695,1.0215,10.8558,9.0025,5.3430,15.2619,13.3664,5.6449,-0.4187,0.3977,1.4380,12.8353,7.5973,3.6931,7.4985,1.7098
414.0625,14.8307,17.0651,11.4240,5.1168,1.0565,10.9564,9.0872,5.1572,18.0901,13.2236,6.6558,2.4739,0.4968,-0.0980,12.0211,6.1577,2.9997,9.3067,2.2037
417.9688,15.4818,17.2077,13.6378,6.4598,2.0654,8.6493,7.6821,4.9457,20.0483,12.4494,9.9700,8.3186,3.8951,0.3561,10.6584,6.2442,3.9567,12.6241,5.1801
421.8750,13.9916,14.9473,14.7175,8.3909,3.7176,5.1999,4.9510,4.7552,20.6747,12.0715,14.2122,14.6714,9.6257,2.5687,9.5666,7.9832,6.4421,16.4375,9.6076
425.7812,11.2348,11.4133,14.3986,10.4797,5.7172,2.2701,1.8237,4.9387,20.0246,12.7314,17.4752,19.2936,15.9299,5.7634,9.2288,10.7883,9.8174,19.6508,14.0661
429.6875,8.6676,8.1613,13.0746,12.4513,7.8454,1.0563,-0.4445,5.8938,18.5846,14.3048,18.5072,21.3239,20.9694,8.9925,9.6595,13.6334,13.1599,21.4443,17.3156
433.5938,7.7141,6.4467,11.4631,14.0669,9.8306,1.7776,-0.9333,7.6711,16.9730,16.0720,17.3785,21.3104,23.4027,11.4387,10.6048,15.5053,15.5187,21.4549,18.6349
437.5000,9.0372,6.6520,10.1351,14.9631,11.2040,3.7150,0.4269,9.7439,15.5662,17.2290,15.1564,20.2160,22.6330,12.5412,11.7773,15.7931,16.1382,19.7308,17.8302
441.4062,12.0562,8.1233,9.1892,14.6505,11.3451,5.6777,2.7878,11.1534,14.2680,17.3396,12.9055,18.2913,18.7877,12.0081,12.8999,14.4574,14.6542,16.5599,15.0550
445.3125,15.0661,9.5004,8.2602,12.7398,9.7806,6.5928,4.8179,10.9961,12.6024,16.4527,10.8653,14.7892,12.6089,9.8384,13.6033,11.9731,11.2612,12.3308,10.6746
449.2188,16.0392,9.4011,6.8457,9.2685,6.5678,5.9359,5.4028,8.9693,10.1157,14.9035,8.4898,8.7998,5.3485,6.3909,13.4223,9.1334,6.7704,7.5225,5.2929
453.1250,13.7596,7.1369,4.7229,4.8752,2.4637,3.8706,4.2124,5.6161,6.8388,13.0356,5.2845,0.5389,-1.4053,2.4028,12.0461,6.7923,2.4373,2.7717,-0.1674
457.0312,8.6297,3.0872,2.1637,0.6386,-1.3263,1.1098,1.8130,2.0845,3.4586,11.0726,1.6657,-8.0268,-6.1009,-1.1718,9.6899,5.5832,-0.4851,-1.1404,-4.5584
460.9375,2.5802,-1.4923,-0.2162,-2.3875,-3.7341,-1.4070,-0.7289,-0.4730,0.9948,9.1783,-1.0060,-13.9124,-7.7841,-3.5159,7.2259,5.6489,-1.3233,-3.5005,-6.8891
464.8438,-1.9718,-5.1471,-1.8814,-3.6784,-4.3950,-2.9010,-2.4904,-1.4890,0.1249,7.5593,-1.3933,-14.8723,-6.5892,-4.3182,5.8140,6.4836,-0.3749,-4.0186,-6.8412
468.7500,-3.5232,-7.0130,-2.7689,-3.4618,-3.7997,-3.0768,-3.1833,-1.1925,0.6096,6.4463,0.5650,-10.9856,-3.7913,-3.8980,6.1530,7.0336,1.1811,-3.0895,-5.0523
472.6562,-2.3483,-7.2423,-3.3377,-2.4973,-2.8954,-2.2461,-3.1931,-0.3238,1.2875,5.9344,3.1963,-4.8596,-1.2295,-2.9541,7.8567,6.1337,1.9050,-1.7014,-2.8600
476.5625,-0.2290,-6.7921,-4.1882,-1.5468,-2.3860,-1.1675,-3.1739,0.4318,0.7643,5.8317,4.0001,-0.1448,-0.3171,-2.0682,9.4794,3.1539,0.9461,-0.9287,-1.5472
480.4688,0.7856,-6.6985,-5.4889,-0.8812,-2.2209,-0.6453,-3.4942,0.8961,-1.5822,5.6981,1.4250,0.7383,-1.1988,-1.3042,9.3191,-1.4770,-1.3853,-1.2542,-1.5200
484.3750,-0.2571,-7.3089,-6.6322,-0.1587,-1.6556,-1.0809,-3.9326,1.4315,-4.9651,5.1123,-3.7492,-1.8612,-2.6264,-0.2119,6.5456,-6.2383,-3.7213,-2.1598,-1.9905
488.2812,-2.6697,-7.9993,-6.4408,1.2382,0.1255,-2.2438,-3.8423,2.5521,-7.4396,4.0075,-8.5481,-5.0977,-2.7151,1.7315,1.9032,-9.1210,-4.4112,-2.3273,-1.4617
492.1875,-4.7531,-7.5945,-3.8858,3.6357,3.2488,-3.4269,-2.6784,4.4074,-7.0021,2.8210,-9.5421,-5.5718,-0.1722,4.5407,-2.5462,-8.6239,-2.5310,-0.4262,1.2208
496.0938,-5.0860,-5.2334,1.1011,6.6669,6.8083,-3.9137,-0.5168,6.5172,-2.8916,2.3127,-5.0909,-1.6510,4.7616,7.4413,-4.5466,-4.6049,1.4907,3.9446,5.9170
500.0000,-3.4897,-1.1000,7.2697,9.3296,9.2363,-3.4625,1.8228,7.9629,3.7521,3.1276,3.4429,5.3798,10.2780,9.1492,-2.9547,1.5295,6.0283,9.7584,11.0088
503.9062,-0.9671,3.4882,12.4641,10.4958,9.1968,-2.4760,3.1818,7.9221,10.3513,5.3615,12.3834,12.0779,13.9347,8.5881,1.5860,7.4537,9.1140,14.8782,14.1831
507.8125,1.2583,6.7244,14.6426,9.5639,6.4460,-1.7289,2.7665,6.2028,14.2285,8.3987,17.8955,14.9627,13.9979,5.5989,7.0044,11.0373,9.4790,17.0720,13.7432
511.7188,2.7550,7.2862,12.9388,6.8435,2.0941,-1.8324,0.7023,3.4316,14.0044,11.1198,18.1629,12.5792,10.3823,1.1666,10.9253,11.3140,7.1674,15.1666,9.6369
515.6250,4.0725,5.0260,8.1370,3.4335,-1.9180,-2.8135,-1.9422,0.7764,10.2031,12.3646,14.1740,6.2168,4.6449,-3.0123,11.8407,8.7768,3.4000,9.6764,3.5522
519.5312,5.9370,0.9652,2.2751,0.6653,-3.8239,-4.1095,-3.7127,-0.6324,4.7525,11.4084,8.7161,-1.0367,-0.9066,-5.3820,9.6673,4.8991,-0.1650,2.5619,-1.9825
523.4375,8.1557,-3.3486,-2.3941,-0.5545,-2.9257,-4.9830,-3.5898,-0.2491,-0.2158,8.2429,4.4175,-6.1392,-4.4041,-5.2936,5.5001,1.2489,-2.2916,-3.7185,-4.9324
527.3438,9.2491,-6.6666,-4.4783,-0.1355,0.1217,-5.0576,-1.5824,1.6562,-3.4565,3.5800,2.2504,-7.6160,-5.2077,-3.2519,0.8846,-1.2354,-2.6533,-7.3096,-4.7214
531.2500,7.2952,-8.5321,-3.9730,1.2595,3.7429,-4.5840,1.2597,4.1672,-4.9459,-1.3766,1.4353,-5.9331,-3.9241,-0.5380,-2.8710,-2.4265,-1.7524,-7.6352,-2.3078
535.1562,1.4682,-9.2161,-2.0186,2.6400,6.2824,-4.2483,3.4115,6.1585,-5.4043,-5.2926,0.5924,-2.7609,-1.7960,1.5221,-5.0110,-2.6708,-0.4389,-5.3839,0.5647
539.0625,-6.9021,-9.2688,-0.1292,3.2027,6.7603,-4.6657,3.6721,6.7623,-5.4960,-7.1021,-0.8887,0.1683,0.0595,2.2028,-5.3068,-2.2963,0.6079,-1.9548,2.3938
542.9688,-14.6857,-9.0763,0.6075,2.6596,5.1805,-5.9285,1.7404,5.6681,-5.3342,-6.3568,-2.3292,1.8513,1.1094,1.6059,-3.9378,-1.3622,1.1411,1.2431,2.5956
546.8750,-18.6445,-8.7148,-0.0664,1.2594,2.3371,-7.5296,-1.7203,3.1767,-4.5883,-3.4265,-2.4032,2.1532,1.4058,0.4238,-1.4558,0.2037,1.2871,3.2770,1.5288
550.7812,-17.3696,-8.1113,-1.6818,-0.4337,-0.6644,-8.7041,-5.4967,0.0474,-2.9955,0.5573,-0.3433,1.5057,1.2914,-0.5464,1.2207,2.2624,1.3103,3.8307,0.0185
554.6875,-12.1293,-7.2870,-3.4593,-1.8371,-2.8751,-8.9394,-8.4225,-2.7747,-0.8013,4.0593,3.2643,0.5524,1.0923,-0.8299,2.9757,4.2539,1.3996,3.0852,-1.2074
558.5938,-6.0474,-6.4550,-4.7323,-2.5729,-3.7714,-8.2982,-9.8234,-4.4578,1.2201,5.7133,6.6764,-0.0730,0.9704,-0.4382,2.9194,5.3368,1.5845,1.5028,-1.8201
562.5000,-2.2035,-5.9213,-5.1757,-2.5567,-3.3009,-7.3524,-9.6302,-4.5398,2.1469,4.8822,7.9882,0.0744,0.9253,0.2518,0.8893,4.8130,1.7620,-0.3798,-1.8601
566.4062,-1.9624,-5.9202,-4.8278,-1.9707,-1.7900,-6.7986,-8.2143,-3.0718,1.3770,1.9315,6.1855,0.9946,0.8376,0.7743,-2.3227,2.5527,1.7592,-2.1264,-1.5462
570.3125,-4.5782,-6.5408,-4.0056,-1.1670,0.2028,-7.0237,-6.1305,-0.5979,-1.1345,-1.9355,1.5830,2.0072,0.4962,0.8360,-5.2658,-0.8705,1.3921,-3.5319,-1.1318
574.2188,-8.1205,-7.7655,-3.1905,-0.5349,2.0545,-7.8910,-3.9303,2.0433,-4.9325,-5.2119,-4.4871,1.8522,-0.3505,0.4422,-6.5580,-4.4195,0.5305,-4.6555,-0.8707
578.1250,-10.8485,-9.5053,-2.8826,-0.3532,3.2561,-8.8397,-2.0844,4.0344,-9.2454,-6.7209,-10.3503,-0.6725,-1.8586,-0.1428,-5.6342,-7.0548,-0.8138,-5.6949,-1.0069
582.0312,-11.9927,-11.5234,-3.3996,-0.6646,3.5694,-9.1986,-0.9487,4.8844,-13.1053,-6.0384,-14.5360,-5.7667,-3.8988,-0.5576,-3.0423,-8.1444,-2.4103,-6.7288,-1.6825
585.9375,-11.5675,-13.2919,-4.6651,-1.2333,3.0932,-8.5142,-0.7070,4.5793,-15.4104,-3.5340,-16.0108,-12.0238,-5.9581,-0.5438,-0.1026,-7.6286,-3.8256,-7.4882,-2.7883
589.8438,-9.7029,-13.9776,-6.1214,-1.6386,2.1848,-6.7389,-1.2962,3.5085,-15.1086,-0.0835,-14.2761,-16.7880,-7.2861,-0.0897,1.8472,-5.9228,-4.5829,-7.3715,-3.9055
593.7500,-6.3158,-12.7259,-6.9029,-1.4915,1.2589,-4.2294,-2.3896,2.2128,-11.6313,3.3349,-9.5643,-17.5184,-7.2820,0.5489,2.1386,-3.6855,-4.4158,-5.7889,-4.4691
597.6562,-1.4887,-9.1836,-6.2592,-0.6778,0.5707,-1.5978,-3.5027,1.1014,-5.4287,5.9503,-3.0845,-13.4297,-5.9148,0.9705,0.9939,-1.5936,-3.4669,-2.6770,-4.1166
601.5625,3.8709,-3.9447,-4.0245,0.5182,0.1163,0.5137,-4.1951,0.2976,1.7978,7.3241,3.0368,-6.3084,-3.8744,0.8374,-0.7752,-0.1892,-2.2773,1.1709,-2.9956
605.4688,7.9141,1.4551,-0.8367,1.5090,-0.2886,1.6613,-4.2593,-0.3136,7.5336,7.3464,6.4370,0.2020,-2.2862,0.0676,-2.3120,0.2218,-1.5262,4.2713,-1.7760
609.3750,8.7048,5.1279,2.0807,1.6966,-0.8113,1.7606,-3.7792,-0.8940,9.5261,6.1988,5.6831,2.5790,-2.1018,-1.0984,-3.1180,-0.3479,-1.6528,5.1283,-1.2926
613.2812,5.5863,5.7413,3.4953,0.8067,-1.4333,1.1088,-3.0269,-1.4659,6.9745,4.3231,1.2664,-0.5055,-3.5276,-2.2038,-3.1069,-1.5278,-2.5858,3.0717,-2.0194
617.1875,-0.0012,3.2188,2.7882,-0.9346,-1.9392,0.2363,-2.2809,-1.8678,1.0963,2.3517,-4.3406,-7.3405,-5.8623,-2.8065,-2.3892,-2.6598,-3.7596,-1.2644,-3.7282
621.0938,-5.0672,-1.2086,0.2642,-2.9020,-2.0822,-0.3629,-1.6909,-1.8863,-5.3665,0.9399,-7.8360,-14.1399,-7.8725,-2.7150,-1.0397,-3.0166,-4.4238,-6.1633,-5.5865
625.0000,-6.8055,-5.6391,-3.0168,-4.4012,-1.8107,-0.4773,-1.2685,-1.4664,-9.4950,0.5211,-6.8959,-17.2298,-8.4866,-2.1021,0.9499,-2.1087,-4.0659,-9.6575,-6.6509
628.9062,-4.3733,-8.4288,-5.7591,-5.0296,-1.3854,-0.2435,-0.9703,-0.8364,-9.6271,1.1108,-1.5400,-15.0830,-7.3790,-1.4346,3.5297,0.0659,-2.6965,-10.4861,-6.4319
632.8125,0.5747,-8.8523,-6.9820,-4.8431,-1.2779,0.0278,-0.7752,-0.4319,-6.0379,2.3066,5.8565,-8.9571,-5.0873,-1.2488,6.4310,2.9805,-0.8324,-8.6092,-5.1458
636.7188,5.0441,-7.1541,-6.3139,-4.2253,-1.8853,0.1520,-0.6788,-0.6363,-0.5126,3.5274,11.9697,-1.8393,-2.6073,-1.8793,9.1596,5.7906,0.8037,-5.0077,-3.4886
640.6250,6.7595,-4.0837,-3.9490,-3.5507,-3.2258,0.2788,-0.6175,-1.4906,4.8381,4.3697,14.4777,3.5001,-0.7461,-3.2610,11.1844,7.6979,1.6825,-0.9618,-2.0991
644.5312,5.6588,-0.3306,-0.4069,-2.8774,-4.8121,0.8279,-0.4172,-2.5727,8.7232,4.8508,13.3137,6.0423,0.3479,-4.8980,12.1951,8.2787,1.7382,2.6830,-1.0975
648.4375,3.7640,3.7300,3.6885,-1.8940,-5.8097,2.1690,0.1530,-3.1552,11.0924,5.3671,10.4569,6.7300,1.1923,-6.0209,12.2562,7.6166,1.3672,5.7984,-0.0251
652.3438,3.5679,7.8752,7.6968,-0.1762,-5.4229,4.2606,1.2254,-2.5857,12.6985,6.3783,8.4841,7.3965,2.5368,-5.8893,11.7550,6.1968,1.1781,8.6963,1.7740
656.2500,6.1510,11.6952,10.9639,2.4076,-3.3150,6.5203,2.6829,-0.6792,14.2425,8.0269,8.9026,9.2838,4.7883,-4.1248,11.1868,4.6485,1.6433,11.5793,4.5988
660.1562,10.3991,14.4413,12.8700,5.4224,0.1641,8.0527,4.1346,2.1141,15.7538,9.9585,11.3516,12.1808,7.6638,-0.9333,10.9043,3.4807,2.8456,14.1642,8.0493
664.0625,13.8314,15.2454,12.9868,7.9402,4.0759,8.1117,5.0599,4.8841,16.5909,11.4797,14.0835,14.6670,10.2826,2.9077,10.9593,2.9299,4.4448,15.7485,11.1290
667.9688,14.3571,13.5819,11.2652,8.9569,7.2758,6.5022,5.0435,6.6933,15.9583,11.9625,15.2449,15.1523,11.6280,6.3276,11.0956,2.9506,5.8675,15.6386,12.7264
671.8750,11.6505,9.6375,8.0995,7.9212,8.8938,3.6722,3.9614,7.0259,13.4931,11.2305,14.0049,12.9237,11.0944,8.4068,10.8816,3.3120,6.6099,13.5981,12.1687
675.7812,7.2098,4.3176,4.1779,5.0560,8.6742,0.4573,2.0168,6.0001,9.5071,9.6759,10.8238,8.5213,8.8025,8.7750,9.9293,3.7347,6.4908,9.9917,9.5214
679.6875,3.1912,-1.1193,0.1923,1.2730,7.0194,-2.3234,-0.3633,4.2385,4.7903,8.0309,6.8633,3.3109,5.5204,7.7488,8.1258,4.0154,5.7287,5.5530,5.4949
683.5938,0.9818,-5.5598,-3.3946,-2.2649,4.7414,-4.1544,-2.6747,2.5030,0.2104,6.9508,3.1491,-1.3359,2.2671,6.1196,5.7823,4.1068,4.8081,0.9917,1.0758
687.5000,0.5494,-8.3684,-6.3597,-4.6642,2.6726,-4.8537,-4.4323,1.3301,-3.5717,6.6750,0.1550,-4.6714,-0.1580,4.7040,3.6015,4.1326,4.2145,-3.2473,-2.8594
691.4062,0.9097,-9.4149,-8.5194,-5.6031,1.3424,-4.4226,-5.2060,0.8787,-6.1291,6.9669,-1.9870,-6.6686,-1.4578,3.9182,2.4133,4.3210,4.1825,-6.9147,-5.7366
695.3125,1.1733,-8.8823,-9.5158,-5.2785,0.8545,-2.9151,-4.6655,1.0308,-7.1553,7.3388,-3.0284,-7.6664,-1.8106,3.6259,2.7501,4.8652,4.5935,-9.6920,-7.2568
699.2188,1.2716,-7.0669,-8.8262,-4.1095,0.9737,-0.4645,-2.6990,1.6126,-6.4348,7.3845,-2.4730,-7.9226,-1.6066,3.3371,4.4706,5.7608,5.0668,-11.0175,-7.2876
703.1250,1.8288,-4.3213,-6.0765,-2.4553,1.3145,2.5715,0.4198,2.5302,-4.0019,6.9983,-0.0139,-7.4131,-1.1562,2.6030,6.6838,6.7098,5.1805,-10.2318,-5.8432
707.0312,3.3917,-1.1312,-1.4892,-0.5544,1.5061,5.5262,3.9474,3.7187,-0.3688,6.3634,3.7943,-5.9751,-0.5653,1.3313,8.1063,7.1762,4.6882,-7.0215,-3.2038
710.9375,5.7298,1.8144,3.8585,1.3169,1.2694,7.5538,6.8055,4.9721,3.4187,5.7623,7.2947,-3.6259,0.1603,-0.1847,7.7359,6.6121,3.6099,-1.8795,-0.0589
714.8438,7.8051,3.6931,8.2264,2.6708,0.4344,7.9565,7.9572,5.8440,6.0523,5.3742,8.3499,-0.7953,0.8996,-1.5150,5.4874,4.7740,2.1718,3.7682,2.5178
718.7500,8.4327,3.7851,9.8501,2.8504,-1.0357,6.5216,6.8718,5.7670,6.4790,5.2004,5.6125,1.7075,1.2921,-2.4103,2.3971,1.9658,0.6618,7.9557,3.3775
722.6562,7.1023,1.7722,7.7382,1.3536,-2.9869,3.6456,3.8208,4.3664,4.3899,5.1450,-0.3569,2.9932,0.8510,-2.9432,0.2126,-0.9507,-0.6877,8.9667,1.8075
726.5625,4.3408,-2.0513,2.2096,-1.7452,-5.0304,0.1632,-0.1874,1.7695,0.3975,5.1544,-6.9750,2.5069,-0.7160,-3.3743,0.5362,-2.8372,-1.7237,6.1438,-2.0146
730.4688,1.3831,-6.7637,-5.1213,-5.5917,-6.5985,-3.0053,-3.8278,-1.3247,-4.2001,5.2869,-10.7924,0.3513,-3.1841,-3.8668,3.9694,-2.7601,-2.3259,0.2982,-6.9138
734.3750,-0.5581,-11.0196,-11.9175,-8.7852,-7.1381,-5.1664,-6.0176,-3.9114,-7.9330,5.6530,-9.3488,-2.6458,-5.7353,-4.2908,9.7219,-0.4526,-2.3708,-6.5138,-11.0942
738.2812,-0.8913,-13.4215,-15.9803,-9.9917,-6.3777,-5.9743,-6.3165,-5.1531,-9.6903,6.2771,-2.6345,-5.1855,-7.2490,-4.2853,15.8944,3.4809,-1.7734,-11.7734,-12.8760
742.1875,0.2296,-12.9639,-16.0163,-8.6115,-4.5176,-5.3715,-4.9792,-4.7824,-9.0438,6.9966,6.7587,-6.0048,-6.8476,-3.5438,20.2763,7.7502,-0.5899,-13.4980,-11.4487
746.0938,2.2000,-9.4291,-12.0229,-5.1116,-2.2103,-3.4959,-2.6931,-3.1983,-6.2913,7.4886,14.9323,-4.4431,-4.3992,-2.1071,21.2479,10.8958,0.9056,-11.0234,-7.2666
750.0000,4.3432,-3.5923,-5.2073,-0.8188,-0.3088,-0.6818,-0.2050,-1.2138,-2.2850,7.4207,18.6776,-0.8054,-0.6720,-0.4373,18.3762,11.9044,2.2631,-5.2434,-1.8742
753.9062,6.0899,2.8915,2.4560,2.7082,0.4968,2.4551,1.9281,0.3681,1.8448,6.6372,17.0234,3.6876,2.9772,0.7974,12.4998,10.6283,3.0299,1.7751,2.7559
757.8125,6.9436,7.9599,8.8408,4.3723,-0.0347,4.9938,3.3710,1.0919,4.9877,5.2658,11.4967,7.3958,5.2304,1.0879,5.3656,7.8031,2.9667,7.6196,5.0543
761.7188,6.4437,9.8637,12.2737,3.9303,-1.6277,5.8978,3.9042,0.9336,6.3337,3.6842,5.0615,8.9928,5.4132,0.3608,-0.9704,4.6580,2.1708,10.4497,4.4637
765.6250,4.3130,7.8645,11.9890,1.9318,-3.6497,4.4221,3.3516,0.1552,5.5975,2.3672,0.4661,8.0699,3.7577,-1.0044,-4.7562,2.3246,1.0226,9.6344,1.5696
769.5312,0.7495,2.5902,8.3287,-0.6761,-5.3886,0.5511,1.6504,-0.9105,3.1198,1.6925,-1.0212,5.2838,1.2044,-2.4033,-5.0330,1.3462,-0.0157,5.8743,-2.2566
773.4375,-3.3932,-4.1604,2.6185,-3.0054,-6.3010,-4.8115,-0.9820,-1.9858,-0.2269,1.7886,0.1329,1.9619,-1.1149,-3.3153,-1.9238,1.5271,-0.6261,0.7980,-5.4878
777.3438,-6.7857,-10.1191,-3.2802,-4.5078,-6.1450,-10.0821,-3.9494,-2.8481,-3.3374,2.4768,2.4171,-0.6070,-2.4151,-3.5112,3.3443,2.1636,-0.7560,-3.7607,-7.0406
781.2500,-8.1791,-13.4598,-7.6184,-5.0157,-4.9943,-13.6102,-6.3934,-3.2863,-5.2850,3.3177,4.3180,-1.7893,-2.5435,-3.0724,8.7508,2.4917,-0.5824,-6.4767,-6.6077
785.1562,-7.0588,-13.5071,-9.3692,-4.6296,-3.1794,-14.3822,-7.5292,-3.1151,-5.6672,3.7555,5.0445,-1.7925,-1.9115,-2.2720,12.1162,2.0833,-0.3678,-6.9411,-4.6427
789.0625,-4.0017,-10.9182,-8.5309,-3.5844,-1.1872,-12.4564,-7.0276,-2.2655,-4.7219,3.3343,4.6180,-1.3601,-1.1691,-1.4240,11.9020,0.9884,-0.3121,-5.6258,-2.0672
792.9688,-0.4839,-7.2721,-5.9742,-2.1570,0.4803,-8.8989,-5.2049,-0.8660,-3.1510,1.9289,3.4899,-1.2154,-0.8312,-0.7757,7.8708,-0.4051,-0.4785,-3.4809,0.1438
796.8750,1.8012,-4.2771,-2.9091,-0.5997,1.4822,-5.2529,-2.8764,0.7903,-1.7438,-0.1011,2.1027,-1.6200,-1.0425,-0.4518,1.2819,-1.6497,-0.8017,-1.4026,1.3400
800.7812,1.7714,-2.9836,-0.2570,0.9304,1.7947,-2.8165,-0.9374,2.4014,-0.9919,-1.9466,0.7232,-2.2934,-1.5619,-0.4256,-5.5353,-2.4528,-1.1364,0.1562,1.4160
804.6875,-0.4985,-3.3695,1.7272,2.4261,1.7484,-2.1025,0.0875,3.8251,-0.8913,-2.6262,-0.4348,-2.6794,-1.9282,-0.5170,-10.0930,-2.7137,-1.3046,1.2653,0.8093
808.5938,-3.8022,-4.4828,3.3874,4.0030,1.8750,-2.7458,0.2532,5.1138,-1.0217,-1.4402,-1.0319,-2.3277,-1.7004,-0.4464,-10.7497,-2.4195,-1.1335,2.2943,0.2792
812.5000,-6.4026,-5.0554,5.2234,5.7542,2.6021,-3.8758,0.0401,6.3620,-0.8471,1.6033,-0.6190,-1.1338,-0.6632,0.0330,-7.3486,-1.5384,-0.5058,3.5540,0.5397
816.4062,-6.9232,-4.2696,7.3763,7.5537,3.9605,-4.7201,-0.0566,7.4760,-0.0655,5.6437,1.1071,0.6725,1.0754,0.9725,-1.2021,-0.0285,0.5731,5.0213,1.8948
820.3125,-5.0903,-2.2743,9.3839,8.9599,5.5004,-5.0754,0.0817,8.0666,1.1882,9.2543,3.9952,2.7012,3.1194,2.1391,5.5438,2.0383,1.9260,6.3006,4.0460
824.2188,-1.9304,-0.1536,10.3723,9.3453,6.5077,-5.3695,0.0866,7.6013,2.3979,11.0811,7.3361,4.5653,4.9281,3.0904,10.8422,4.3540,3.2247,6.8316,6.1894
828.1250,0.7292,0.6687,9.5691,8.2339,6.4171,-6.2833,-0.6490,5.7584,2.9516,10.5267,10.0826,5.9278,6.0100,3.4049,13.5287,6.3871,4.1017,6.2136,7.3812
832.0312,1.2455,-0.7097,6.8170,5.6591,5.1710,-8.1763,-2.5225,2.7509,2.4942,8.0936,11.2830,6.4680,6.0893,2.9367,13.6181,7.5652,4.3060,4.4616,7.0027
835.9375,-0.8713,-4.0313,2.7667,2.2953,3.2894,-10.6962,-5.3687,-0.6292,1.1469,5.1559,10.4785,5.8951,5.1817,1.9267,12.0301,7.5283,3.8113,2.0509,5.0845
839.8438,-4.5661,-7.8681,-1.3697,-0.7657,1.5958,-12.8500,-8.4417,-3.3265,-0.5398,3.2454,7.8617,4.0855,3.5604,0.8865,9.9456,6.2910,2.8065,-0.2686,2.3116
843.7500,-7.7097,-10.3090,-4.3570,-2.4977,0.7721,-13.5264,-10.7524,-4.5289,-1.8681,3.2411,4.1618,1.2832,1.6479,0.3241,8.1550,4.2110,1.5783,-1.7867,-0.2908
847.6562,-8.2306,-9.9898,-5.4542,-2.4044,1.0263,-12.1592,-11.5591,-4.0571,-2.3404,4.9294,0.3802,-1.8049,-0.0987,0.4917,6.7462,1.8008,0.3752,-2.1087,-1.8155
851.5625,-5.2805,-6.8702,-4.6351,-0.6929,2.0732,-9.1107,-10.7108,-2.3929,-1.8599,7.2053,-2.4720,-4.1656,-1.2606,1.3174,5.2819,-0.4754,-0.6494,-1.2590,-1.8240
855.4688,0.2578,-2.2767,-2.4382,1.9285,3.4074,-5.5210,-8.6518,-0.3432,-0.6731,8.7995,-3.5714,-4.8723,-1.4902,2.5430,3.3395,-2.2865,-1.3849,0.4162,-0.4263
859.3750,6.2400,1.8342,0.4012,4.6732,4.6520,-2.7099,-6.1176,1.4295,0.8769,9.0865,-2.4469,-3.5253,-0.5493,3.9447,1.0631,-3.3868,-1.6699,2.4656,1.8992
863.2812,10.4225,3.9468,3.2793,7.0340,5.7370,-1.5097,-3.7491,2.7046,2.5868,8.4661,0.8451,-0.4832,1.6083,5.4637,-0.6576,-3.5410,-1.2727,4.5268,4.5850
867.1875,11.5907,3.7301,5.8292,8.8676,6.8063,-1.9429,-1.8738,3.6616,4.4300,8.0626,5.5853,3.2654,4.7286,7.1581,-0.5741,-2.5553,-0.0022,6.3905,7.1657
871.0938,9.9729,2.0076,7.8055,10.2126,7.9626,-3.4084,-0.5558,4.5762,6.3672,8.9158,10.4288,6.5254,8.2044,9.0346,2.1232,-0.4440,2.1015,7.9203,9.3016
875.0000,6.7557,0.0268,8.9151,11.0361,9.0746,-5.1880,0.1982,5.5065,8.0978,11.1741,13.7337,8.3769,11.1690,10.9109,7.0575,2.3864,4.6406,8.9212,10.7007
878.9062,3.1403,-1.4302,8.7910,11.1381,9.8086,-6.8771,0.2984,6.2043,8.9975,13.8229,14.1407,8.4579,12.7603,12.4281,12.4882,5.1229,6.9248,9.0874,11.0776
882.8125,-0.3390,-2.4636,7.1830,10.2966,9.8654,-8.4358,-0.3518,6.3082,8.3772,15.1744,11.1776,6.9370,12.4657,13.2123,15.9492,6.8033,8.2383,8.1083,10.2394
886.7188,-3.7612,-3.7229,4.2554,8.5379,9.2386,-9.8719,-1.6146,5.6641,5.9554,13.8683,5.5750,4.2741,10.3830,13.0735,15.4673,6.7602,8.1801,5.9020,8.2627
890.6250,-7.1625,-5.6073,0.7662,6.3054,8.2937,-10.8650,-2.9366,4.5268,2.2434,9.7937,-0.9159,0.9862,7.2478,12.1079,10.7078,5.0023,6.8820,2.8366,5.6192
894.5312,-9.9031,-7.6302,-2.0636,4.3680,7.5931,-10.6932,-3.4495,3.4878,-1.4652,4.3503,-6.1667,-2.4158,4.1873,10.6500,3.3450,2.2853,4.9705,-0.2246,3.1164
898.4375,-10.6840,-8.4788,-3.0067,3.4901,7.5766,-8.5927,-2.3853,3.1626,-3.5856,-0.1678,-8.4994,-5.3296,2.2985,9.1241,-3.6574,-0.2096,3.2857,-2.1448,1.6292
902.3438,-8.3383,-6.8013,-1.4134,4.0562,8.3044,-4.3355,0.4121,3.8360,-2.9956,-1.7619,-7.3270,-6.9811,2.2386,7.8944,-7.5326,-1.4291,2.5073,-1.9455,1.7391
906.2500,-2.8817,-2.2221,2.3835,5.8754,9.4242,1.3762,4.2222,5.2884,0.3542,0.1698,-3.3396,-6.5565,3.9990,7.1825,-7.1417,-0.9251,2.8818,0.7379,3.4691
910.1562,3.9811,4.1147,7.0947,8.2807,10.3723,7.0038,7.6585,6.9044,5.3255,4.4606,1.8103,-3.5872,6.9425,7.0489,-3.5109,1.0039,4.1716,5.4017,6.2573
914.0625,9.3964,9.8888,10.9679,10.4514,10.6745,10.7471,9.2993,7.9943,10.0523,8.7709,6.1543,1.6060,10.0642,7.3983,0.8607,3.5590,5.8210,10.7714,9.1813
917.9688,10.7577,12.6887,12.5402,11.7711,10.1644,11.2931,8.4059,8.1389,12.7423,10.8316,8.1102,7.7308,12.3564,7.9847,3.5156,5.9000,7.2244,15.2341,11.3210
921.8750,7.1602,11.2201,11.2856,12.0323,9.0123,8.3509,5.3196,7.3709,12.4179,9.6411,6.9898,12.8388,13.1435,8.4417,3.4561,7.5312,7.9626,17.4312,12.0885
925.7812,0.0196,5.9586,7.8403,11.4143,7.5834,2.7457,1.3097,6.1170,9.2581,5.9419,3.1663,15.0885,12.2805,8.3798,1.6046,8.4147,7.9186,16.7541,11.3932
929.6875,-7.5463,-1.0895,3.6892,10.2969,6.2403,-3.9003,-2.0362,4.9569,4.4355,1.7297,-2.1157,13.6043,10.1652,7.5522,0.0472,8.7980,7.2602,13.5347,9.6031
933.5938,-12.2342,-7.3319,0.4788,9.0462,5.2093,-9.6993,-3.5364,4.3430,-0.4128,-0.8951,-7.2019,8.9577,7.5685,6.0180,0.5666,8.9253,6.3317,8.8643,7.3534
937.5000,-12.1153,-10.7048,-0.7020,7.8882,4.5673,-13.0371,-2.8775,4.4189,-3.8081,-0.8522,-10.5978,2.9694,5.3434,4.1956,3.4178,8.8398,5.5095,4.1447,5.3018
941.4062,-7.4076,-10.4110,0.2788,6.9095,4.3138,-13.0042,-0.6211,5.0050,-4.8970,1.4547,-11.4523,-2.1014,4.1174,2.7389,7.1250,8.3918,5.0678,0.5842,3.9263
945.3125,-0.1370,-7.0230,2.6772,6.1370,4.4470,-9.6645,2.1671,5.7260,-3.6318,4.5444,-9.7895,-4.5590,4.0853,2.2679,9.4178,7.4123,5.0873,-1.1510,3.4233
949.2188,6.9988,-2.0405,5.3453,5.6203,4.9752,-4.0944,4.4184,6.1981,-0.6620,6.8218,-6.4124,-3.9394,4.9900,3.0772,8.6897,5.9046,5.4304,-1.0175,3.7203
953.1250,11.8690,2.7916,7.3088,5.4553,5.8573,1.8926,5.4401,6.1838,2.9760,7.4753,-2.5358,-1.0231,6.2925,4.9740,5.0458,4.1185,5.8005,0.5655,4.5728
957.0312,13.6213,6.0968,8.1495,5.7415,6.9251,6.3485,5.0574,5.6606,6.2434,6.7823,0.6812,2.7368,7.4429,7.3307,0.2876,2.4662,5.8723,2.9870,5.6949
960.9375,12.6389,7.2292,8.0395,6.5058,7.8646,7.9428,3.5515,4.7983,8.4278,5.7158,2.5055,5.9851,8.1108,9.3307,-3.1287,1.3485,5.4491,5.6761,6.8620
964.8438,9.9632,6.3446,7.4835,7.6425,8.3000,6.5183,1.4946,3.8750,9.3056,5.1888,2.7713,7.9847,8.2621,10.2930,-3.4904,1.0027,4.5725,8.2024,7.9461
968.7500,6.6348,4.2181,6.9689,8.9008,7.9537,3.1223,-0.4420,3.1722,9.0911,5.4677,1.7865,8.6645,8.0620,9.9285,-0.7267,1.4497,3.5234,10.2512,8.8779
972.6562,3.3289,1.8886,6.7280,9.9275,6.7930,-0.5596,-1.6779,2.8762,8.2131,6.1086,0.1004,8.2976,7.6843,8.4238,3.6835,2.5309,2.6964,11.5475,9.5693
976.5625,0.3845,0.2389,6.6981,10.3482,5.0640,-3.0738,-1.9020,3.0075,7.0457,6.3839,-1.7412,7.1296,7.1584,6.3225,7.6491,3.9768,2.3986,11.8201,9.8542
980.4688,-1.9512,-0.3396,6.6332,9.8645,3.1747,-3.8677,-1.1900,3.3947,5.7435,5.8388,-3.3645,5.2361,6.3492,4.2653,9.6105,5.4477,2.6736,10.8537,9.4966
984.3750,-3.3428,-0.0535,6.2580,8.3503,1.4846,-3.3707,0.0084,3.7160,4.2658,4.5790,-4.6322,2.6668,5.0760,2.7080,9.2010,6.5491,3.2463,8.6132,8.2825
988.2812,-3.4295,0.4755,5.3883,5.9299,0.1366,-2.4822,1.0524,3.6196,2.5550,3.1295,-5.6076,-0.3024,3.2897,1.7512,7.1323,6.8712,3.6354,5.3695,6.1617
992.1875,-2.0876,0.5995,4.0062,3.0144,-0.9550,-1.8590,1.4063,2.8950,0.7321,2.0309,-6.4388,-3.0650,1.1924,1.1642,4.5288,6.1084,3.3897,1.7427,3.3705
996.0938,0.3252,0.0291,2.3092,0.2559,-1.9445,-1.5065,0.9026,1.6197,-0.8403,1.5098,-7.1973,-4.8550,-0.7833,0.5886,2.2462,4.2429,2.3345,-1.3990,0.4537
1000.0000,2.9738,-1.0121,0.7156,-1.6096,-2.8418,-0.9299,-0.1866,0.1848,-1.6912,1.4520,-7.7423,-5.1126,-2.1394,-0.1973,0.6154,1.6963,0.6946,-3.1914,-1.8647
1003.9062,4.8648,-1.9594,-0.2355,-2.0232,-3.4177,0.3153,-1.3264,-0.8560,-1.5038,1.6483,-7.7101,-3.8173,-2.5515,-1.1187,-0.3340,-0.6892,-0.9848,-3.1121,-2.9491
1007.8125,5.3174,-2.3084,-0.1269,-0.8781,-3.3267,2.1177,-2.0512,-1.0669,-0.3556,2.0623,-6.6944,-1.5775,-2.0619,-1.8544,-0.4843,-1.9163,-2.0937,-1.2716,-2.5600
1011.7188,4.2949,-1.9960,1.0228,1.3332,-2.3799,3.7316,-2.2547,-0.3908,1.2115,2.8738,-4.5696,0.5838,-1.1163,-2.0674,0.5127,-1.2786,-2.2613,1.5005,-1.0453
1015.6250,2.3689,-1.5201,2.5727,3.6349,-0.7625,4.1744,-2.2593,0.7842,2.3481,4.2550,-1.7732,1.6462,-0.3941,-1.6506,2.9533,1.2186,-1.5394,3.8868,0.7285
1019.5312,0.3302,-1.7031,3.4076,4.9647,1.0006,2.8006,-2.6142,1.8301,2.2288,6.0676,0.6849,1.0206,-0.4761,-0.7979,6.5776,4.7190,-0.3554,4.6102,1.7442
1023.4375,-1.2981,-3.2201,2.4632,4.6999,2.3573,-0.3386,-3.7397,2.2618,0.4270,7.7475,1.5993,-1.1829,-1.4971,0.1686,10.2737,7.7985,0.7472,3.0655,1.3684
1027.3438,-2.5110,-6.1531,-0.5984,3.0351,3.1209,-4.5481,-5.6204,2.0643,-2.8218,8.5066,0.2025,-4.1462,-2.9754,1.0927,12.3327,9.0898,1.4278,-0.2594,-0.2217
1031.2500,-3.6640,-9.8284,-4.9730,0.9591,3.6469,-8.8383,-7.7259,1.7329,-6.5910,7.7448,-3.2923,-6.6077,-3.9594,2.1586,11.2336,7.9498,1.7310,-3.8541,-2.0001
1035.1562,-5.0308,-13.0427,-8.9025,-0.2216,4.6148,-12.2896,-9.2045,1.9679,-9.5199,5.4140,-7.6059,-7.3364,-3.4779,3.7667,6.5541,4.8069,2.0129,-5.8135,-2.5517
1039.0625,-6.4149,-14.5802,-10.4738,0.4065,6.5129,-14.2292,-9.2552,3.1977,-10.3089,2.1089,-10.9003,-5.6692,-1.0948,6.1510,-0.5456,0.9735,2.6540,-4.7790,-0.8488
1042.9688,-7.1264,-13.7673,-8.6376,2.8135,9.1661,-14.2397,-7.4950,5.2413,-8.2916,-1.1556,-11.6576,-1.8940,2.7385,9.0033,-7.6153,-1.9951,3.7476,-0.7196,3.0687
1046.8750,-6.3766,-10.7933,-3.8530,5.9736,11.6606,-12.1681,-4.1558,7.3480,-3.8362,-3.3391,-9.4547,2.7415,6.7723,11.4170,-11.9039,-3.0505,4.9794,4.9028,7.9306
1050.7812,-3.8400,-6.6418,2.0562,8.3700,12.7710,-8.2465,-0.0305,8.6065,1.6536,-3.7432,-5.1895,6.4856,9.4966,12.2693,-11.5680,-2.0932,5.7918,9.7442,11.7537
1054.6875,-0.0000,-2.6720,6.7893,8.7800,11.6521,-3.2425,3.7979,8.4616,6.2236,-2.2191,-0.6244,7.8607,9.8650,10.8481,-6.4927,0.1247,5.7337,11.6958,12.8044
1058.5938,3.9617,-0.0531,8.6975,6.8876,8.3559,1.5805,6.3274,6.9989,8.1887,0.8061,2.4968,6.3877,7.8026,7.3242,1.6748,2.5413,4.7637,9.9266,10.4826
1062.5000,6.6830,0.6828,7.5098,3.3845,3.8361,4.8323,6.9636,4.8202,6.9211,4.4555,3.2697,2.8445,4.2054,2.7380,10.2703,4.4098,3.2947,5.2914,5.6228
1066.4062,7.2530,-0.2154,4.2817,-0.4589,-0.5538,5.5886,5.6908,2.6252,3.2074,7.6642,1.9732,-1.1333,0.4343,-1.5167,16.7497,5.6164,1.9423,-0.1115,0.0474
1070.3125,5.6338,-1.9018,0.6870,-3.4455,-3.7328,3.8771,3.0437,0.8180,-1.0457,9.5557,-0.1804,-3.9137,-2.3816,-4.3847,19.6743,6.5238,1.1429,-3.9692,-4.3493
1074.2188,2.7051,-3.3170,-1.8495,-4.9225,-5.3038,0.7282,-0.0915,-0.5797,-3.6441,9.8429,-1.6813,-4.6870,-3.8144,-5.5744,19.1233,7.5024,0.9027,-4.7948,-6.4402
1078.1250,-0.0380,-3.5806,-2.6613,-4.8416,-5.4887,-2.2882,-2.7645,-1.6810,-3.0802,9.0559,-1.3867,-3.7444,-4.1245,-5.4656,16.4173,8.5158,0.8506,-2.4480,-6.1745
1082.0312,-0.9996,-2.2529,-1.8072,-3.4944,-4.7243,-3.7943,-4.2443,-2.3988,0.8210,8.3799,1.0731,-2.0662,-3.8421,-4.6273,13.3558,9.0764,0.5568,2.0447,-4.2728
1085.9375,0.9270,0.5748,0.2953,-1.2146,-3.2812,-3.1893,-4.2197,-2.3486,6.8719,9.0582,5.2386,-0.5379,-3.2835,-3.3405,11.3616,8.6066,-0.1072,7.1377,-1.6219
1089.8438,5.8267,4.3261,3.1844,1.6992,-1.2015,-0.7870,-2.8713,-1.1224,13.0706,11.6098,10.0429,0.6301,-2.3544,-1.4916,10.9186,6.9456,-0.8262,11.4365,1.1805
1093.7500,12.4799,8.0830,6.3900,4.8332,1.4444,2.5039,-0.7979,1.2543,17.4260,15.3383,14.1789,1.8597,-0.7601,1.1091,11.5234,4.6223,-1.0205,14.0539,3.8670
1097.6562,18.5680,10.8238,9.2922,7.5123,4.2582,5.7033,1.1927,4.0678,18.6801,18.5392,16.5102,3.5994,1.5781,4.2735,12.1196,2.6689,-0.2316,14.6148,6.2277
1101.5625,21.5013,11.7551,11.0977,8.9143,6.4953,8.1681,2.3857,6.1495,16.6741,19.4186,16.4440,5.6620,4.2540,7.2614,11.7684,2.0668,1.5488,13.1251,7.8660
1105.4688,19.6700,10.6613,11.1326,8.4895,7.4235,9.7083,2.4594,6.5373,12.3026,17.2377,14.1713,7.0966,6.4972,9.0871,10.2061,3.1723,3.8298,9.9351,8.2739
1109.3750,13.5200,8.1055,9.3240,6.4303,6.8302,10.4466,1.6557,5.1536,7.1563,12.9495,10.6601,6.7981,7.6311,9.1373,7.9988,5.4964,5.8883,5.8336,7.2177
1113.2812,5.7248,5.2955,6.4921,3.8137,5.2967,10.5834,0.7055,3.0131,3.0043,8.8278,7.3410,4.4768,7.5504,7.6629,6.2152,7.9802,7.1771,2.0856,5.1263
1117.1875,0.0894,3.5773,4.1151,2.2013,3.9845,10.2209,0.4897,1.7399,1.2530,7.2107,5.5584,1.2562,6.8671,5.7606,5.7947,9.5925,7.6132,0.1853,3.1133
1121.0938,-0.4137,3.7609,3.5905,2.8428,4.0175,9.3134,1.5648,2.6339,2.5099,9.0924,6.0188,-0.6597,6.5908,4.7999,6.9696,9.8744,7.5720,1.2942,2.5061
1125.0000,4.6010,5.6615,5.4109,5.9371,5.8285,7.7359,3.7984,5.8486,6.3810,13.4662,8.5073,0.8009,7.5269,5.6330,9.0890,9.1092,7.6050,5.6184,4.1206
1128.9062,12.5292,8.1840,8.8059,10.4186,8.8781,5.4358,6.3500,10.2048,11.6034,17.8843,12.0245,6.1864,9.7650,8.0849,10.9740,8.0491,8.0719,12.1178,7.7340
1132.8125,19.1352,9.9628,12.1279,14.4399,11.9176,2.6108,8.0626,13.7789,16.5055,19.9200,15.2614,13.8646,12.5787,11.0414,11.6131,7.4069,8.9147,18.8020,12.1097
1136.7188,20.9570,10.1866,13.7691,16.2914,13.6270,-0.1777,8.0817,14.9226,19.6223,18.6076,17.1437,20.6206,14.7902,13.0735,10.7793,7.4452,9.6984,23.5220,15.5804
1140.6250,17.2855,9.0606,13.0303,15.2341,13.2495,-2.0781,6.3519,13.1110,20.1851,14.9311,17.1560,23.2528,15.3759,13.2069,9.1672,7.8947,9.8738,24.8506,16.8470
1144.5312,10.4375,7.5643,10.3965,11.7820,10.8855,-2.2766,3.6764,9.1436,18.2455,11.0459,15.3245,20.2683,13.9581,11.3839,7.9242,8.2012,9.0928,22.5802,15.5331
1148.4375,4.1305,6.6375,7.0852,7.3161,7.3430,-0.4868,1.2785,4.6294,14.4048,8.7600,11.9659,12.6835,10.9269,8.3833,7.8438,7.9000,7.3950,17.6039,12.2161
1152.3438,1.0392,6.3645,4.2161,3.3003,3.6940,2.6727,0.1132,1.1090,9.3676,8.2973,7.4450,3.4647,7.1699,5.3047,8.7355,6.8717,5.1786,11.3173,7.9917
1156.2500,1.1770,5.7739,2.1773,0.5698,0.8045,5.7287,0.3450,-0.6662,3.6434,8.1808,2.1308,-4.0484,3.6036,2.9575,9.4242,5.3514,2.9944,4.9407,3.8833
1160.1562,2.1704,3.4722,0.5728,-0.9374,-0.9513,6.9475,1.3078,-0.9356,-2.4056,6.3282,-3.4470,-7.8089,0.7809,1.5058,8.4557,3.7431,1.2911,-0.8525,0.4403
1164.0625,1.1805,-1.2714,-1.2925,-1.9316,-1.7212,5.2319,1.9536,-0.5937,-8.2588,1.6416,-8.4217,-7.8893,-1.2381,0.5248,5.1221,2.3969,0.2471,-5.8674,-2.3124
1167.9688,-2.9189,-7.7416,-3.7933,-3.2216,-2.0070,0.8067,1.4923,-0.5962,-12.9901,-4.9722,-11.6213,-6.0787,-2.7344,-0.6250,0.1613,1.4877,-0.2446,-10.0474,-4.6402
1171.8750,-8.6402,-13.8914,-6.6675,-5.2066,-2.3992,-4.7751,-0.1801,-1.4669,-15.3890,-10.8632,-11.9131,-4.5968,-4.0330,-2.3570,-4.3790,1.0239,-0.4587,-13.1695,-6.7845
1175.7812,-12.8610,-17.3650,-9.1736,-7.6637,-3.3136,-9.3836,-2.4950,-3.1279,-14.4941,-13.0829,-8.7490,-4.7402,-5.2516,-4.6027,-6.1436,0.9170,-0.6736,-14.8049,-8.7535
1179.6875,-12.9571,-16.8063,-10.5424,-9.8912,-4.8102,-11.4071,-4.5959,-5.0508,-10.2474,-10.1576,-2.6296,-6.2378,-6.2307,-6.8581,-3.8190,1.0234,-1.0513,-14.5460,-10.2955
1183.5938,-8.5828,-12.6227,-10.3791,-11.0795,-6.5599,-10.5248,-5.8025,-6.5656,-3.8159,-3.1045,4.8186,-7.6046,-6.6653,-8.4756,1.9612,1.1448,-1.6089,-12.3136,-11.0223
1187.5000,-1.9021,-6.7201,-8.7756,-10.7002,-7.9874,-7.6952,-5.8649,-7.1442,2.7207,4.9574,11.3019,-7.1880,-6.3368,-9.0234,8.7495,1.0424,-2.2652,-8.5193,-10.6027
1191.4062,3.8134,-1.4065,-6.1469,-8.7371,-8.5452,-4.4157,-4.9255,-6.5559,7.2343,10.4250,14.7416,-4.2345,-5.2894,-8.5094,13.4780,0.5339,-2.9001,-3.9751,-8.9458
1195.3125,6.2000,1.8170,-2.9876,-5.6785,-7.9899,-1.7932,-3.3195,-4.8919,8.5194,11.1544,14.2123,0.6378,-3.8334,-7.3526,14.0942,-0.3405,-3.3774,0.3897,-6.3043
1199.2188,5.0898,2.8405,0.2611,-2.3021,-6.5049,-0.0513,-1.4170,-2.5029,6.8334,7.6266,10.4655,5.7797,-2.3666,-6.1255,10.7227,-1.1938,-3.5253,3.8416,-3.2468
1203.1250,2.3372,2.6382,3.2044,0.6344,-4.5935,1.2567,0.4020,0.1041,3.7019,2.6649,5.6997,9.4084,-1.1295,-5.2245,5.6521,-1.3549,-3.1270,6.0334,-0.4800
1207.0312,0.4733,2.4055,5.4582,2.6537,-2.8031,2.5888,1.7180,2.3915,1.1064,-0.1503,2.5795,10.5180,-0.0634,-4.6667,2.1017,-0.1689,-1.9790,7.0158,1.4233
1210.9375,1.1759,2.7825,6.7028,3.6628,-1.4596,3.8758,2.1296,3.9213,0.5081,1.5109,2.9237,9.3070,1.1153,-4.1392,2.4250,2.5840,-0.0278,7.1136,2.2670
1214.8438,4.4850,3.6394,6.8277,3.8775,-0.5738,4.5211,1.4419,4.4683,2.2222,7.4264,6.7345,6.9389,2.6632,-3.2653,6.7614,6.3982,2.4898,6.7624,2.3061
1218.7500,9.0589,4.4334,6.0499,3.6424,0.0414,3.9072,-0.1361,4.0837,5.4274,14.9599,12.1447,4.8377,4.5527,-1.9079,12.9205,10.1138,5.0228,6.3863,2.0956
1222.6562,13.0777,4.7527,4.8819,3.2744,0.5665,1.9723,-1.9771,3.0887,8.7329,20.5608,16.3991,3.9534,6.4117,-0.2975,17.5915,12.3918,6.8742,6.3447,2.1930
1226.5625,15.1406,4.6121,3.9373,3.0161,1.0565,-0.6163,-3.2900,1.9942,10.9453,21.7679,17.3848,4.3963,7.7323,1.1087,18.2034,12.3793,7.5193,6.9206,2.8927
1230.4688,14.7299,4.3391,3.6860,3.0888,1.4917,-2.8303,-3.5137,1.3626,11.6212,18.5549,14.8418,5.5829,8.2225,1.9388,14.3774,10.1933,6.9011,8.2951,4.1459
1234.3750,12.2158,4.2310,4.3000,3.7345,1.9207,-3.8998,-2.5918,1.6363,11.1506,13.2381,10.5091,6.7227,8.0409,2.1596,8.1324,6.9139,5.5030,10.4711,5.6839
1238.2812,8.6099,4.3039,5.6442,5.1400,2.5263,-3.7170,-0.9340,2.9656,10.3813,9.0050,7.0682,7.3006,7.7136,2.0778,2.7247,4.0433,4.1112,13.1558,7.2159
1242.1875,5.2303,4.3122,7.3563,7.2375,3.5051,-2.7549,0.8984,5.0934,10.0284,7.9569,6.4935,7.2648,7.7516,2.0805,0.7960,2.7125,3.3746,15.6817,8.5325
1246.0938,3.2897,3.9625,8.9228,9.5229,4.8288,-1.6266,2.5338,7.3635,10.1979,9.8564,8.8205,6.8593,8.2253,2.3118,2.9036,3.0875,3.4259,17.0730,9.4510
1250.0000,3.4112,3.1028,9.7325,11.0837,6.0890,-0.6704,3.8986,8.9014,10.2847,12.3448,12.1077,6.2824,8.6191,2.5417,7.2746,4.3270,3.8156,16.3222,9.6938
1253.9062,5.2351,1.7435,9.1730,10.9289,6.6072,0.1255,5.0358,8.9404,9.3034,12.4910,13.6234,5.4475,8.1166,2.3468,10.8991,5.1199,3.8192,12.8232,8.8740
1257.8125,7.4191,-0.0399,6.8448,8.4999,5.7978,0.8667,5.8318,7.1727,6.4864,8.7011,11.5068,4.0184,6.1579,1.4796,11.2955,4.4835,2.9337,6.7718,6.6762
1261.7188,8.2211,-2.1567,2.8457,4.0717,3.5691,1.4630,5.9365,3.9478,1.8300,1.7993,5.8654,1.6768,2.8933,0.1424,7.9084,2.3417,1.2368,-0.7099,3.1451
1265.6250,6.4791,-4.4128,-2.0528,-1.2327,0.4760,1.6069,4.9992,0.1828,-3.7221,-5.3845,-1.3359,-1.5788,-0.7977,-1.0625,2.3505,-0.4529,-0.6347,-7.8710,-1.1374
1269.5312,2.4277,-6.3762,-6.5377,-5.8777,-2.5043,1.0595,3.0505,-3.0044,-8.5948,-9.6433,-7.4395,-5.3106,-3.7589,-1.4942,-2.5915,-2.6486,-1.8791,-12.9736,-5.1651
1273.4375,-2.2398,-7.4032,-9.2381,-8.5808,-4.4480,-0.0252,0.6918,-4.7672,-11.2671,-9.2146,-10.5108,-8.7607,-5.1860,-0.8919,-4.5524,-3.3328,-2.0313,-14.9840,-7.8920
1277.3438,-5.2370,-6.9340,-9.3561,-8.8347,-4.9076,-1.0717,-1.1397,-4.8600,-10.9856,-4.6977,-10.1355,-11.1166,-5.0067,0.4639,-2.8481,-2.4306,-1.2336,-13.9535,-8.6721
1281.2500,-5.0325,-4.9316,-7.0957,-7.0068,-4.0230,-1.4519,-1.7360,-3.6534,-8.1348,1.4152,-7.2470,-11.7664,-3.7712,1.9749,1.2717,-0.6858,-0.0957,-10.8867,-7.4912
1285.1562,-1.8535,-2.1474,-3.6144,-4.0136,-2.2933,-1.0048,-1.1332,-1.8525,-4.0728,6.1991,-3.3170,-10.4508,-2.1741,3.1689,5.4169,0.8207,0.7448,-7.1973,-4.8788
1289.0625,2.3195,0.0544,-0.5017,-0.8303,-0.2210,-0.2889,-0.1790,-0.1156,-0.5282,7.7966,0.4067,-7.3336,-0.5939,4.0195,7.3505,1.2867,1.0442,-4.0853,-1.6138
1292.9688,4.8076,0.3094,0.9277,1.8391,1.8900,-0.3178,-0.0563,1.1863,1.1191,6.1052,3.1432,-3.0444,0.9930,4.8840,6.0412,0.5689,1.0551,-2.1905,1.5431
1296.8750,3.7181,-2.0227,0.1386,3.5818,3.8607,-1.9076,-1.5566,1.9472,0.3249,2.4197,4.3637,1.3183,2.6830,6.0920,1.9846,-0.8563,1.2482,-1.6507,3.9385
1300.7812,-1.0211,-6.4581,-2.5527,4.1030,5.4113,-5.0755,-4.5951,2.1225,-2.5475,-1.5325,3.5770,4.3364,4.2084,7.4990,-3.2160,-2.2543,1.8684,-2.3976,4.9855
1304.6875,-7.6502,-11.5742,-6.2897,3.1231,6.0493,-8.9182,-8.2895,1.5577,-6.5110,-4.4509,0.5046,4.6768,4.8175,8.3766,-7.6421,-3.0459,2.6640,-4.3707,4.1860
1308.5938,-13.5236,-15.6821,-10.1068,0.5162,5.2466,-12.0759,-11.5308,0.0299,-10.3821,-5.7588,-4.4212,1.6911,3.6600,7.7824,-9.7821,-3.0261,3.0059,-7.4466,1.3451
1312.5000,-16.4072,-17.5988,-13.2236,-3.3858,2.8374,-13.4866,-13.6259,-2.4981,-13.1447,-5.3863,-9.7334,-4.0705,0.4594,5.2026,-8.9388,-2.3189,2.3268,-11.1617,-3.1119
1316.4062,-15.4049,-17.0988,-15.1196,-7.6077,-0.6530,-12.9449,-14.5680,-5.6021,-14.1629,-3.4454,-13.2745,-10.8052,-4.0234,1.0393,-5.3224,-1.1848,0.5767,-14.5369,-7.9990
1320.3125,-11.1080,-14.8446,-15.4903,-10.7195,-4.0433,-11.1255,-14.7882,-8.3500,-13.2671,-0.1532,-13.2211,-16.0578,-8.1480,-3.4157,0.0519,0.1435,-1.6349,-16.2787,-11.6544
1324.2188,-5.0514,-11.9120,-14.2345,-11.4085,-5.9652,-9.0929,-14.6297,-9.6045,-10.7542,3.9804,-9.2048,-17.7857,-10.1775,-6.5570,5.6036,1.4970,-3.3303,-15.3545,-12.6269
1328.1250,1.0998,-9.2168,-11.5159,-9.1430,-5.5371,-7.6393,-13.9759,-8.5556,-7.2977,8.0029,-2.7241,-15.3517,-9.2387,-7.2716,9.5975,2.7202,-3.7151,-11.6092,-10.4160
1332.0312,6.1726,-7.1440,-7.8037,-4.5159,-2.8456,-6.8644,-12.3185,-5.1880,-3.7297,10.7126,3.5644,-9.8565,-5.8477,-5.5051,10.7338,3.6437,-2.6378,-5.9862,-5.7970
1335.9375,9.6789,-5.5114,-3.7737,0.9766,1.0636,-6.2192,-9.2001,-0.3899,-0.7237,11.2033,7.3237,-3.5671,-1.6421,-2.2659,8.7594,4.1485,-0.6669,-0.1390,-0.4742
1339.8438,11.6244,-3.8157,-0.0637,5.6186,4.6940,-4.9402,-4.6870,4.3900,1.4826,9.4166,7.8543,1.2651,1.5340,0.9173,4.7664,4.2786,1.2569,4.3733,3.7710
1343.7500,12.1676,-1.6036,2.9694,8.2334,6.8113,-2.5852,0.4854,7.7671,3.1337,6.2745,6.3686,3.5113,2.6240,2.7579,0.8747,4.2811,2.3631,6.8083,5.9306
1347.6562,11.3834,1.2067,5.3054,8.5931,6.9628,0.6362,5.1969,8.9968,4.6853,3.2212,5.0279,3.5516,1.8254,2.7725,-0.7128,4.4908,2.4462,7.4283,6.1075
1351.5625,9.2750,4.1861,7.0776,7.2994,5.5427,3.9043,8.4603,8.2089,6.3538,1.4314,5.3892,2.7522,0.2769,1.3719,1.1271,5.0968,1.8830,7.0667,5.1748
1355.4688,6.0006,6.5160,8.2991,5.2910,3.4303,6.1722,9.8381,6.2156,7.8038,1.1967,7.3312,2.4279,-0.7774,-0.4983,5.7117,5.9482,1.2958,6.4240,4.0450
1359.3750,2.1301,7.3566,8.7478,3.3356,1.4665,6.6988,9.5394,4.0484,8.2610,1.8958,9.1973,2.9934,-0.7732,-1.9134,10.7721,6.5614,1.1100,5.6208,3.0829
1363.2812,-1.3035,6.3312,8.1479,1.8065,0.0876,5.4746,8.2113,2.5013,7.0644,2.5522,9.0602,3.8449,-0.0635,-2.4024,13.6092,6.3746,1.3032,4.3280,2.0501
1367.1875,-3.1007,3.8818,6.5358,0.7922,-0.7125,3.3176,6.6127,1.9036,4.3253,2.5797,6.2284,3.9898,0.4921,-2.0535,12.5893,5.1188,1.4992,2.3394,0.5628
1371.0938,-2.4608,1.2395,4.4995,0.3390,-1.1505,1.5453,5.3561,2.1696,1.1970,2.1974,1.9399,2.9249,0.2494,-1.3009,8.1073,3.0722,1.3178,0.0976,-1.3435
1375.0000,0.4829,-0.0853,3.0248,0.5654,-1.3711,1.3327,4.7784,3.0037,-0.5578,2.2326,-1.2757,1.1148,-0.7116,-0.5720,2.4008,1.0046,0.7220,-1.3095,-3.0156
1378.9062,4.5255,0.8888,2.9484,1.5362,-1.3250,3.0500,4.8945,4.0853,0.4390,3.4548,-1.1980,-0.2777,-1.6392,-0.0278,-1.7319,-0.1998,0.1052,-0.7813,-3.5428
1382.8125,7.8320,3.9401,4.3451,3.0199,-0.8740,5.9527,5.3890,5.1312,4.1930,5.8943,2.5398,-0.2169,-1.6717,0.4553,-2.5761,-0.0489,0.0440,1.9237,-2.4389
1386.7188,8.7810,7.5472,6.2931,4.3798,-0.0123,8.4572,5.6771,5.8669,9.0207,8.6112,7.9733,1.4067,-0.5077,1.0799,-0.5168,1.2188,0.8734,5.7012,-0.1467
1390.6250,6.7474,9.5402,7.2642,4.7761,0.9952,8.9338,5.1072,6.0190,12.2269,10.0965,11.7601,3.5754,1.2902,1.8591,2.2206,2.6915,2.3794,8.4341,2.0380
1394.5312,2.3555,8.2290,5.9839,3.6221,1.6949,6.6164,3.2951,5.4082,11.5000,9.1048,11.0571,4.7038,2.5840,2.4959,2.9893,3.2509,3.8430,8.0629,2.6452
1398.4375,-2.9288,3.4095,2.2641,1.0248,1.7215,2.1084,0.4361,4.1108,6.2745,5.4629,5.2535,3.6224,2.3814,2.5253,0.4655,2.2209,4.4511,3.8161,0.9244
1402.3438,-7.5657,-3.3442,-2.7170,-2.1007,1.0900,-2.8498,-2.6387,2.5567,-1.7335,0.3985,-3.4442,0.3694,0.5364,1.6568,-4.3473,-0.1598,3.8342,-3.1306,-2.5983
1406.2500,-10.5456,-9.3210,-6.9018,-4.3752,0.2840,-6.2609,-4.7880,1.4317,-9.1784,-3.8346,-10.9447,-3.6952,-2.0223,0.0957,-8.5130,-2.7370,2.3839,-9.9975,-6.2624
1410.1562,-11.4898,-11.9426,-8.3598,-4.6125,0.0392,-6.9108,-5.1515,1.3760,-12.6285,-4.9139,-13.2645,-6.5266,-3.7101,-1.4068,-8.7957,-3.9697,1.1079,-13.6230,-8.0640
1414.0625,-10.3470,-10.0026,-6.2535,-2.4323,0.9176,-4.9727,-3.6665,2.6228,-10.2134,-1.5765,-8.5566,-6.4202,-3.1372,-1.8742,-3.6264,-2.7527,1.0666,-11.9480,-6.6720
1417.9688,-7.1257,-4.2351,-1.2369,1.5160,2.9270,-1.8420,-1.1669,4.8064,-2.5403,5.6158,1.8628,-2.8702,0.0832,-0.6573,5.7396,0.8982,2.7086,-5.0138,-2.1239
1421.8750,-2.0326,3.0449,4.9002,5.8550,5.4384,0.6649,1.0424,7.0934,7.5556,14.2879,14.0105,3.1606,5.0354,2.1093,15.5870,5.6947,5.5200,5.0073,4.1568
1425.7812,4.0550,8.9983,10.0979,9.1379,7.4822,1.2489,1.9026,8.5992,16.2579,21.1273,23.0065,9.6479,9.8887,5.4553,21.4973,9.6033,8.2318,14.7299,10.0084
1429.6875,9.2993,11.4575,12.9124,10.5066,8.2653,-0.3250,1.1754,8.8582,20.3813,23.2941,25.2452,14.3494,12.7735,8.0143,20.5797,10.8279,9.4967,20.9589,13.4976
1433.5938,11.3382,9.7130,12.9847,10.0001,7.5960,-3.3047,-0.4756,8.0576,18.6049,19.7274,19.9288,15.6899,12.6787,8.7258,12.9837,8.7531,8.6465,21.9305,13.7248
1437.5000,8.4825,4.6200,10.9442,8.3836,5.9509,-6.4861,-1.9267,6.8804,11.8429,11.6936,9.2732,13.3333,9.9033,7.3920,1.8820,4.3335,6.0787,17.8855,11.1064
1441.4062,1.0155,-1.8937,7.9202,6.6398,4.1439,-8.8095,-2.2636,6.0465,2.7046,2.2567,-2.6203,8.2632,5.8478,4.7522,-8.0565,-0.3120,3.0376,10.8061,7.0548
1445.3125,-8.3752,-7.6095,4.9937,5.4396,2.8191,-9.6896,-1.2578,5.8453,-5.6152,-5.1006,-11.5924,2.3858,2.2891,2.0357,-12.8822,-2.9213,0.9236,3.5134,3.2680
1449.2188,-15.5963,-10.7528,2.8641,4.8910,2.1057,-9.0135,0.6102,5.9664,-10.5028,-8.0187,-15.0378,-2.1771,0.5434,0.2799,-11.1109,-2.1981,0.5455,-1.4454,0.9979
1453.1250,-17.2101,-10.4682,1.8102,4.6661,1.6598,-6.9792,2.5334,5.7504,-10.7087,-6.1810,-12.6028,-3.8517,0.9446,-0.1641,-4.1525,1.5716,1.7516,-2.6654,0.6351
1457.0312,-12.3751,-6.9649,1.8413,4.3780,1.0491,-3.9805,3.8776,4.6997,-6.5381,-1.1791,-5.8181,-2.1603,2.8619,0.3403,4.6776,6.7122,3.6241,-0.2033,1.7574
1460.9375,-3.4178,-1.3600,2.8668,3.9411,0.1948,-0.5990,4.4864,2.9152,0.5014,4.5112,2.9260,2.1584,5.1770,1.1142,11.9100,11.0292,5.0739,4.7031,3.5434
1464.8438,5.4109,4.7129,4.7729,3.6862,-0.4563,2.4120,4.6582,1.1608,8.3625,8.8007,11.4094,7.5161,6.9172,1.6816,15.4510,12.8697,5.4497,10.3201,5.2905
1468.7500,10.2803,9.6349,7.4018,4.1738,-0.1660,4.2978,4.8857,0.4916,15.1405,10.7906,18.1303,12.1838,7.7026,2.0534,15.1484,11.8164,4.8140,15.1649,6.7506
1472.6562,9.7916,12.3282,10.4995,5.8317,1.6023,4.6321,5.5637,1.6619,19.5499,10.7634,22.2981,15.0194,7.8127,2.6230,12.2888,8.7037,3.7809,18.4819,8.1326
1476.5625,5.4514,12.5944,13.6916,8.6385,4.7646,3.6189,6.8230,4.6605,21.0958,9.5584,23.5659,15.8617,7.8983,3.7986,8.5332,5.0445,3.0865,20.2700,9.8125
1480.4688,0.4226,11.1047,16.5023,12.0230,8.5493,2.1151,8.5115,8.6440,19.9764,7.8694,21.8740,15.3902,8.5310,5.6547,5.0285,2.2539,3.1866,20.9207,11.9462
1484.3750,-2.5259,9.0122,18.3935,15.0209,11.8280,1.2609,10.2506,12.2897,16.8352,5.9502,17.5604,14.5443,9.8346,7.8366,2.1776,1.0963,4.0926,20.7206,14.2206
1488.2812,-2.5190,7.3411,18.8165,16.6040,13.6317,1.8672,11.5029,14.3608,12.4990,3.8328,11.5794,13.8511,11.3670,9.7434,0.0298,1.5718,5.4638,19.5372,15.8834
1492.1875,-0.6588,6.4552,17.3031,16.0416,13.5508,3.9014,11.6612,14.1873,7.7909,1.7593,5.5105,13.0803,12.2969,10.8319,-1.1759,3.1656,6.8228,16.8887,16.0455
1496.0938,1.1546,5.9070,13.6345,13.1776,11.8255,6.4018,10.2129,11.8639,3.4398,0.3950,1.1626,11.4534,11.7945,10.8407,-0.8293,5.2101,7.7426,12.3719,14.1136
1500.0000,1.7033,4.7836,8.0686,8.5517,9.1527,7.9134,6.9923,8.1448,0.0542,0.5967,-0.1148,8.2887,9.4755,9.8413,1.6839,7.1289,7.9457,6.1934,10.1557
1503.9062,1.1962,2.3856,1.5167,3.3303,6.3870,7.2399,2.4192,4.1569,-1.8916,2.8769,1.9515,3.6748,5.7065,8.1612,6.3341,8.5039,7.3541,-0.5379,5.0309
1507.8125,0.8772,-1.1500,-4.4964,-0.9686,4.3062,4.1130,-2.4458,1.0692,-2.0968,6.9509,6.3967,-1.2840,1.6115,6.2823,12.0346,9.0554,6.1366,-5.9969,0.2044
1511.7188,1.9250,-4.6834,-8.2001,-2.9309,3.4853,-0.5774,-6.1559,-0.2019,-0.5067,11.7073,11.4425,-4.8625,-1.2804,4.7607,16.8572,8.6593,4.7298,-8.2999,-2.7176
1515.6250,4.5051,-6.5324,-8.2196,-1.7724,4.2081,-5.1199,-7.4053,0.7635,2.6073,15.6533,15.2924,-5.5723,-1.6559,4.1296,18.8531,7.4306,3.7537,-6.3535,-2.5909
1519.5312,7.6235,-5.3654,-4.2359,2.2620,6.3508,-7.7195,-5.6100,3.7210,6.6091,17.5774,16.8723,-3.0044,0.9420,4.7276,17.0416,5.7826,3.7698,-0.4832,0.7456
1523.4375,9.8055,-1.0466,2.6828,7.8487,9.2781,-7.2839,-1.2459,7.7440,10.5520,17.0519,16.1321,1.8376,5.7647,6.4796,11.9888,4.3416,4.9580,7.5016,6.2642
1527.3438,10.0608,5.0693,10.3215,12.9917,11.8935,-3.8989,4.2589,11.4444,13.3575,14.5229,13.8035,6.9275,11.0237,8.7650,5.6223,3.6906,6.8992,14.8921,12.0018
1531.2500,8.4654,10.6138,16.1010,15.7750,12.9503,1.2027,9.0563,13.4340,14.0979,10.9975,10.8205,10.1347,14.5622,10.5305,0.3632,4.0539,8.6484,19.0855,15.7415
1535.1562,6.0175,13.2442,18.0745,15.1394,11.5657,6.1338,11.5947,12.8732,12.3045,7.5444,7.7817,10.1781,14.7567,10.6841,-1.9665,5.1182,9.1287,18.5766,15.8753
1539.0625,3.9261,11.7066,15.6645,11.3047,7.6907,9.0711,11.1816,9.8458,8.1738,4.8782,4.7679,7.1231,11.2225,8.6135,-0.9064,6.1244,7.6663,13.4973,12.0734
1542.9688,2.8305,6.3647,9.7904,5.6151,2.2428,8.8930,8.1447,5.3322,2.5645,3.1929,1.5788,2.2000,4.9772,4.5491,2.5572,6.2145,4.3678,5.4844,5.4330
1546.8750,2.4393,-1.0577,2.3574,-0.1101,-3.2334,5.5046,3.5555,0.7573,-3.2494,2.2608,-1.8145,-2.8936,-2.0193,-0.4606,6.5631,4.8588,0.1098,-3.0336,-1.9889
1550.7812,1.7869,-8.3256,-4.5917,-4.3775,-7.2367,-0.2215,-1.2982,-2.6663,-7.9888,1.6927,-4.9470,-6.7910,-7.7080,-4.9805,9.2710,2.1391,-3.8637,-9.7821,-8.0464
1554.6875,-0.0658,-13.6360,-9.6121,-6.5604,-8.9599,-6.7966,-5.4096,-4.4470,-10.7792,1.2130,-6.9310,-8.9392,-10.7393,-7.8117,9.6422,-1.2543,-6.5090,-13.4010,-11.3570
1558.5938,-3.3067,-16.1735,-12.1614,-6.9467,-8.5727,-12.5826,-8.2949,-4.9062,-11.3944,0.8182,-6.9372,-9.5836,-10.8811,-8.4802,7.7757,-4.3040,-7.4051,-13.7334,-11.7352
1562.5000,-7.0637,-16.0986,-12.4469,-6.3551,-7.0084,-16.2172,-9.9363,-4.8391,-10.2527,0.7402,-4.8187,-9.3719,-8.9049,-7.3534,4.7088,-6.0775,-6.8261,-11.6137,-10.0438
1566.4062,-9.7415,-14.1497,-11.0551,-5.6071,-5.4131,-16.9168,-10.5482,-4.9832,-8.2021,1.2237,-1.4717,-8.8817,-6.0959,-5.3650,1.8285,-6.0838,-5.4816,-8.3502,-7.6181
1570.3125,-9.8885,-11.2153,-8.6573,-5.1661,-4.5862,-14.6478,-10.3640,-5.6245,-6.2128,2.2354,1.3720,-8.3544,-3.6817,-3.5322,0.1920,-4.4336,-4.1215,-5.1900,-5.6157
1574.2188,-7.1510,-8.1250,-5.9278,-5.0812,-4.6954,-10.1617,-9.5715,-6.5465,-5.0968,3.2971,1.9124,-7.7366,-2.4310,-2.5233,0.0705,-1.7654,-3.2327,-2.9825,-4.6168
1578.1250,-2.7367,-5.6418,-3.5800,-5.1567,-5.3476,-4.8555,-8.3848,-7.2847,-5.3150,3.6115,-0.7578,-6.9208,-2.5213,-2.4576,0.9191,1.0088,-2.9442,-2.0943,-4.5945
1582.0312,1.0013,-4.4470,-2.3152,-5.1537,-5.8889,-0.4112,-7.1257,-7.4620,-6.8739,2.4925,-6.0379,-5.9720,-3.6202,-2.9657,1.7771,3.0303,-3.1071,-2.4914,-5.1418
1585.9375,1.7746,-4.9492,-2.5790,-4.8812,-5.7231,1.7555,-6.1884,-6.9722,-9.3006,-0.1083,-11.9529,-5.1677,-5.0727,-3.4241,1.8830,3.7749,-3.4363,-3.8570,-5.7415
1589.8438,-1.2514,-6.9798,-4.2399,-4.1816,-4.5097,1.0601,-5.8655,-5.9318,-11.7200,-3.3248,-16.0305,-4.8340,-6.1201,-3.2360,1.1643,3.1980,-3.6227,-5.6775,-5.9318
1593.7500,-6.7382,-9.6446,-6.4601,-2.9197,-2.2250,-1.9493,-6.1503,-4.5080,-13.0759,-5.6151,-16.4811,-5.0976,-6.1296,-2.0647,0.3069,1.6997,-3.4074,-7.3105,-5.3703
1597.6562,-11.6893,-11.5806,-7.9652,-1.0638,0.8475,-5.7803,-6.6798,-2.8055,-12.4933,-5.4957,-13.0421,-5.7335,-4.8167,0.0324,0.3322,-0.0659,-2.6499,-8.0984,-3.8891
1601.5625,-13.0488,-11.5997,-7.6626,1.1712,4.1520,-8.6646,-6.9031,-0.9122,-9.6777,-2.4050,-7.0362,-6.2225,-2.3971,2.5970,1.9147,-1.4536,-1.4053,-7.5504,-1.5934
1605.4688,-9.5052,-9.3750,-5.2764,3.2571,6.9417,-9.4017,-6.3968,0.9575,-5.1548,2.8197,-0.6488,-6.0021,0.4304,4.9057,4.8531,-2.0511,0.0386,-5.5397,1.0551
1609.3750,-2.3864,-5.7134,-1.5896,4.4861,8.4588,-7.9193,-5.1262,2.3901,-0.1726,8.1968,4.1249,-4.7707,2.7289,6.2290,8.0552,-1.7730,1.2316,-2.4046,3.3040
1613.2812,4.9868,-2.1737,1.9126,4.3006,8.2125,-5.2138,-3.4628,2.8965,3.7652,11.5148,6.2755,-2.6686,3.7339,6.1387,10.0892,-0.8079,1.7544,1.1355,4.3956
1617.1875,9.1711,-0.2136,3.8376,2.6513,6.2490,-2.6995,-1.9297,2.2016,5.5496,11.4201,5.9509,-0.2221,3.2444,4.7321,9.9862,0.5259,1.4538,4.2432,3.9755
1621.0938,8.5769,-0.3833,3.6601,0.1547,3.2528,-1.3628,-0.8426,0.5129,4.9766,8.0698,4.0667,1.9240,1.7748,2.6501,7.7997,1.9226,0.5744,6.2917,2.3869
1625.0000,4.3224,-2.0713,2.0078,-2.0914,0.3604,-1.2521,-0.0998,-1.4425,2.8341,2.9899,1.7212,3.3339,0.3500,0.8436,4.5600,3.1593,-0.3191,7.0941,0.6189
1628.9062,-0.5547,-3.9493,0.2804,-2.9780,-1.2790,-1.6058,0.7181,-2.6983,0.4989,-1.7473,-0.2074,3.9699,0.0167,0.1714,1.6577,4.0903,-0.6153,6.9167,-0.1348
1632.8125,-2.9973,-4.8047,-0.1727,-1.9134,-1.0091,-1.4961,1.9960,-2.5218,-0.7457,-4.5267,-1.1598,4.1230,1.3098,1.0106,0.0631,4.6160,0.0196,6.2736,0.8992
1636.7188,-1.7114,-4.2086,1.1773,0.8635,1.0139,-0.5172,3.7273,-0.8190,-0.3093,-4.8134,-0.8443,4.1277,3.9544,3.0678,-0.1067,4.6783,1.4504,5.6260,3.6137
1640.6250,2.2714,-2.6139,3.7696,4.3536,3.8621,0.9601,5.4156,1.7726,1.5031,-3.1205,0.7431,4.0556,6.9615,5.4860,0.5822,4.2966,3.1286,5.1588,7.0091
1644.5312,6.5030,-0.8909,6.3224,7.2220,6.2339,2.1224,6.3259,4.1748,3.7612,-0.4661,3.1768,3.6177,9.0755,7.2027,1.4806,3.6024,4.3610,4.7607,9.6594
1648.4375,8.7851,0.3165,7.5934,8.3798,7.0266,2.3590,5.9304,5.3953,5.4616,2.2626,5.5204,2.3839,9.3519,7.3987,2.4061,2.8276,4.6424,4.2090,10.4138
1652.3438,8.4503,0.9489,7.0749,7.4556,5.8173,1.7259,4.2536,5.0109,6.0378,4.6478,6.5433,0.2045,7.5883,5.8405,3.7235,2.2296,3.8800,3.4373,8.9563
1656.2500,6.4836,1.3948,5.2317,4.9504,3.0341,0.8834,1.8851,3.3540,5.5617,6.6669,5.2708,-2.4536,4.4191,2.9787,5.8989,1.9975,2.4130,2.7045,5.9405
1660.1562,4.5699,2.0259,3.1825,2.0134,-0.2487,0.5670,-0.3482,1.3164,4.5784,8.3844,1.5896,-4.5411,1.0485,-0.2300,8.8877,2.1969,0.8476,2.5356,2.6529
1664.0625,3.8537,2.7907,2.0399,-0.0599,-2.7833,0.9987,-1.8317,-0.1126,3.7186,9.7060,-3.5143,-4.9014,-1.2382,-2.6924,11.8589,2.7821,-0.1918,3.4348,0.4067
1667.9688,4.2861,3.1735,2.2981,-0.3896,-3.6707,1.6859,-2.4509,-0.3246,3.3315,10.3769,-8.3377,-2.9574,-1.5724,-3.5900,13.5240,3.6455,-0.2850,5.5168,-0.0203
1671.8750,4.9012,2.5278,3.5902,1.1120,-2.7014,1.7583,-2.5585,0.6497,3.3233,10.1776,-11.3077,0.8110,0.1888,-2.6679,12.8875,4.6487,0.6582,8.2699,1.3411
1675.7812,4.6623,0.5210,4.9131,3.7124,-0.3834,0.5897,-2.6847,2.2094,3.2457,9.1197,-11.7951,4.9437,3.4359,-0.2953,9.9115,5.6057,2.3842,10.6194,3.7443
1679.6875,3.1770,-2.6269,5.1641,6.1905,2.3269,-1.7559,-3.2111,3.5107,2.5507,7.4663,-10.3796,7.6580,7.0444,2.7109,5.6248,6.2544,4.3779,11.3081,6.0817
1683.5938,0.7975,-6.2498,3.6896,7.3702,4.4430,-4.5717,-4.2166,3.8613,0.8728,5.5698,-8.3958,7.7453,9.7643,5.4119,1.5916,6.2906,6.0154,9.4394,7.3164
1687.5000,-1.8231,-9.5682,0.5775,6.6043,5.3149,-6.9922,-5.5492,2.9815,-1.7726,3.6773,-7.0630,5.1866,10.6180,7.0742,-0.9072,5.5012,6.7511,4.9275,6.8186
1691.4062,-4.2290,-11.9967,-3.4208,3.9888,4.7944,-8.5345,-7.0125,1.0311,-4.9332,1.8805,-6.7632,1.1220,9.1834,7.3649,-1.4415,3.9447,6.2921,-1.3685,4.5162
1695.3125,-6.2564,-13.2488,-7.2558,0.2367,3.1687,-9.2943,-8.4940,-1.5563,-7.8123,0.2578,-6.9167,-2.7991,5.6943,6.3616,-0.4209,2.0431,4.6975,-7.9030,0.8594
1699.2188,-7.6922,-13.2514,-10.0259,-3.6760,0.9538,-9.6755,-9.9411,-4.2916,-9.4943,-0.9209,-6.4877,-5.2826,0.9543,4.4251,1.3968,0.4691,2.3566,-12.9813,-3.3488
1703.1250,-7.9022,-12.0334,-11.2842,-6.8777,-1.3103,-9.9053,-11.2333,-6.7611,-9.2559,-1.1413,-4.7545,-5.9489,-3.8908,2.0385,3.4493,-0.1711,-0.1517,-15.3398,-7.1803
1707.0312,-5.9205,-9.7359,-11.0905,-8.8005,-3.1639,-9.7552,-12.0878,-8.6204,-6.8811,0.1306,-1.8397,-5.2927,-7.6545,-0.2961,5.5532,0.3017,-2.2601,-14.5285,-9.8027
1710.9375,-1.1228,-6.7413,-9.8370,-9.1746,-4.2327,-8.7294,-12.1111,-9.5240,-2.8526,3.0273,1.3008,-4.1538,-9.4103,-2.0923,7.6433,1.4692,-3.5817,-10.9670,-10.6479
1714.8438,5.9200,-3.7637,-7.9837,-7.9281,-4.2171,-6.6008,-10.9899,-9.1146,1.7008,6.9317,3.3788,-3.1052,-8.7234,-2.9055,9.3633,2.4910,-3.9760,-5.7000,-9.5046
1718.7500,13.0967,-1.7241,-5.8593,-5.1410,-2.9468,-3.8710,-8.7068,-7.1501,5.3499,10.4946,3.4411,-2.1729,-5.7587,-2.4206,9.9364,2.5718,-3.5032,0.0074,-6.5359
1722.6562,17.3806,-1.3725,-3.6140,-1.1129,-0.5041,-1.7346,-5.6341,-3.7206,6.9155,12.1273,1.3446,-1.0187,-1.2315,-0.6018,8.5217,1.4670,-2.3214,5.0591,-2.2363
1726.5625,16.2738,-2.8292,-1.3019,3.5366,2.6739,-1.4551,-2.4326,0.5983,6.0030,10.7863,-2.1584,0.6233,3.7939,2.1849,4.8607,-0.2909,-0.6059,8.7763,2.6559
1730.4688,9.3220,-5.3329,0.9986,7.8910,5.8358,-3.4989,0.2012,4.8147,3.2548,6.6393,-5.7103,2.6234,8.2030,5.1992,-0.2567,-1.6150,1.4649,10.9560,7.2796
1734.3750,-1.2219,-7.4244,3.1218,10.9703,8.1439,-7.0035,1.8099,7.8473,0.1497,1.1986,-7.8598,4.4842,11.1326,7.5613,-5.1125,-1.4446,3.6704,11.7641,10.8019
1738.2812,-11.1019,-7.5624,4.8391,12.1019,9.0062,-10.0067,2.3339,8.9739,-1.6175,-3.2414,-7.6058,5.6674,12.1714,8.6140,-7.7958,0.6381,5.7120,11.5340,12.5850
1742.1875,-15.8967,-4.9062,5.9361,11.2221,8.3375,-10.4080,2.0816,8.1574,-0.9164,-4.6438,-4.7963,5.9373,11.3976,8.2236,-7.1663,4.1114,7.2363,10.5610,12.3408
1746.0938,-13.1007,0.1421,6.2817,8.9093,6.5885,-7.1571,1.5328,6.0507,2.2516,-2.2315,-0.2392,5.4515,9.2620,6.8354,-3.4814,7.7169,7.9258,8.9840,10.2260
1750.0000,-3.3866,5.9630,5.8588,6.1091,4.5166,-0.9747,1.0801,3.6617,6.7028,3.0847,4.5582,4.5530,6.3920,5.2305,1.6887,10.0545,7.6177,6.8112,6.8325
1753.9062,9.6069,10.3744,4.7726,3.7070,2.8248,5.8526,0.8355,1.8646,10.6032,9.1092,7.9752,3.4708,3.4158,4.1141,6.2143,10.2407,6.3863,4.0872,3.0594
1757.8125,20.8615,11.6371,3.2680,2.2012,1.8766,10.5423,0.6048,1.0355,12.3488,13.4071,8.9746,2.2059,0.8694,3.7723,8.4089,8.2836,4.5447,1.1087,-0.1071
1761.7188,26.1634,9.3218,1.7494,1.6460,1.6370,11.1857,0.0492,1.0069,11.3633,14.4503,7.5778,0.7154,-0.8183,3.9965,7.7527,5.0015,2.5615,-1.4591,-1.8424
1765.6250,23.8441,4.5736,0.7507,1.8440,1.8418,7.6749,-1.0462,1.3304,8.3952,12.2662,4.8468,-0.7651,-1.3210,4.3034,5.0006,1.5748,0.9290,-2.6944,-1.6898
1769.5312,15.3089,-0.4032,0.7971,2.5988,2.2503,1.6967,-2.5464,1.6460,5.1397,8.2713,2.3371,-1.5729,-0.4564,4.2913,1.6902,-0.9944,0.0287,-1.7763,0.3290
1773.4375,4.2036,-3.4082,2.1677,3.8258,2.8010,-4.1723,-3.9322,1.9099,3.3563,4.4280,1.2958,-0.8628,1.7167,3.8959,-0.6448,-2.2358,0.0328,1.5527,3.7174
1777.3438,-5.2949,-3.3193,4.6690,5.4579,3.5745,-7.7409,-4.5128,2.3476,3.9358,2.2238,2.0403,1.8311,4.7983,3.3854,-1.1530,-2.2405,0.8624,6.6683,7.6171
1781.2500,-10.2265,-0.6058,7.5797,7.2635,4.6141,-8.1561,-3.7973,3.1985,6.4136,2.0337,3.8628,6.0698,8.0408,3.1196,0.0537,-1.4299,2.2100,12.1142,11.0080
1785.1562,-9.8696,2.9940,9.8687,8.7737,5.7596,-6.0702,-1.8219,4.4553,9.2067,3.1626,5.4922,10.4242,10.5004,3.2546,2.0868,-0.2542,3.6265,16.0735,12.9635
1789.0625,-5.6814,5.4485,10.6305,9.4294,6.6338,-3.0401,0.7736,5.7895,10.4653,4.4557,5.8196,12.9969,11.3343,3.6095,3.7959,1.0010,4.6597,17.0876,12.9093
1792.9688,-0.3175,5.5128,9.5257,8.8824,6.8149,-0.5941,2.9980,6.7135,9.0881,5.0525,4.4636,12.3349,10.1346,3.7877,4.3473,2.2271,5.0080,14.6887,10.8146
1796.8750,3.7176,3.3155,6.9735,7.2429,6.0895,0.4752,3.9761,6.8642,5.3500,4.8315,1.8862,8.2370,7.1430,3.4696,3.5975,3.3804,4.6339,9.6281,7.2354
1800.7812,5.1406,0.1571,3.9626,5.0857,4.6221,0.2590,3.3818,6.2191,0.7881,4.3319,-0.9371,1.9782,3.2243,2.6690,2.0998,4.3686,3.7817,3.5741,3.1636
1804.6875,4.2301,-2.3076,1.5702,3.1801,2.9232,-0.6227,1.5975,5.1105,-2.5998,4.2760,-3.0454,-4.2179,-0.4280,1.7708,0.7574,5.0277,2.8767,-1.5812,-0.2944
1808.5938,2.3676,-2.9883,0.4522,2.1025,1.6236,-1.5340,-0.4853,4.0450,-3.4073,5.0356,-3.9131,-8.1976,-2.7441,1.3146,0.3139,5.2015,2.3404,-4.4726,-2.2993
1812.5000,1.0927,-1.8520,0.5895,1.9698,1.1787,-2.1323,-1.9036,3.4508,-1.5440,6.3738,-3.5845,-8.8490,-3.1939,1.6624,0.9585,4.8562,2.4037,-4.7253,-2.5620
1816.4062,1.1964,0.2303,1.4122,2.4497,1.6658,-2.3450,-2.0582,3.4992,1.7608,7.5850,-2.5367,-6.5175,-1.9719,2.7668,2.2595,4.1387,3.0104,-2.9444,-1.4000
1820.3125,2.3270,2.0946,2.1933,3.0211,2.7796,-2.1631,-0.9331,4.0756,4.6584,7.9021,-1.4070,-2.6762,0.1428,4.1900,3.4441,3.3288,3.8588,-0.2921,0.4593
1824.2188,3.2924,2.9225,2.4548,3.2989,4.0100,-1.5156,0.9705,4.8776,5.6725,6.9077,-0.7335,0.9216,2.1807,5.3565,3.8325,2.7033,4.5584,2.0932,2.2266
1828.1250,2.8607,2.5421,2.1496,3.2119,4.8901,-0.3639,2.9003,5.5560,4.4213,4.7229,-0.7948,3.1067,3.4295,5.8690,3.1487,2.3895,4.8139,3.5433,3.3679
1832.0312,0.5823,1.3077,1.5530,2.9400,5.1737,1.0844,4.1586,5.8269,1.6881,1.9132,-1.5672,3.7038,3.6980,5.6778,1.5408,2.2918,4.5396,3.9831,3.7371
1835.9375,-2.8561,-0.2438,0.9893,2.6849,4.8597,2.2930,4.3257,5.5302,-1.1402,-0.7849,-2.7837,3.3150,3.2667,5.0045,-0.6323,2.1397,3.8475,3.7387,3.4792
1839.8438,-5.9611,-1.6722,0.6047,2.4566,4.0852,2.6151,3.3592,4.6520,-2.8847,-2.7455,-4.0565,2.6890,2.5763,4.0922,-3.0223,1.6358,2.9344,3.1983,2.8052
1843.7500,-7.2500,-2.6992,0.3279,2.0354,2.9842,1.7307,1.5867,3.3312,-3.1403,-3.6133,-5.0102,2.1272,1.8698,2.9813,-5.3231,0.6298,1.9486,2.5463,1.8082
1847.6562,-6.0629,-3.1257,0.0079,1.1395,1.6236,-0.0061,-0.3833,1.8458,-2.3013,-3.3229,-5.3714,1.3185,1.0306,1.4936,-7.1287,-0.7731,0.9264,1.7165,0.4506
1851.5625,-2.8854,-2.7812,-0.4073,-0.3134,0.0605,-1.6176,-1.8301,0.5629,-1.1215,-2.0401,-4.9901,-0.3062,-0.2657,-0.5465,-7.8399,-2.2288,-0.1627,0.5599,-1.2767
1855.4688,0.9835,-1.6145,-0.7989,-2.0340,-1.5315,-2.0106,-2.1578,-0.1569,-0.1739,-0.1036,-3.8337,-2.9710,-2.1910,-3.0047,-6.8534,-3.2942,-1.2990,-0.9129,-3.1609
1859.3750,4.1588,0.1367,-0.9591,-3.4077,-2.7819,-0.6639,-1.1379,-0.0722,0.4114,2.0092,-2.0169,-6.1514,-4.4534,-5.2859,-4.0258,-3.6209,-2.3142,-2.3951,-4.7098
1863.2812,5.8035,1.8807,-0.7512,-3.7634,-3.1907,1.9536,0.9533,0.8539,0.7947,3.7320,0.1107,-8.6891,-6.2885,-6.5001,-0.0891,-3.1084,-2.8963,-3.3633,-5.3217
1867.1875,5.7937,2.8499,-0.2189,-2.7293,-2.3503,4.5467,3.4012,2.4342,1.0585,4.5313,1.9116,-9.3936,-6.8119,-5.9018,3.4066,-1.9394,-2.7205,-3.3391,-4.6087
1871.0938,4.4278,2.4770,0.4372,-0.4809,-0.2156,5.6892,5.3307,4.3054,0.9808,4.1101,2.5945,-7.7551,-5.5427,-3.3600,4.7929,-0.4827,-1.6427,-2.1749,-2.6758
1875.0000,2.0325,0.7582,0.9954,2.2691,2.7469,4.6460,6.0772,6.0212,0.1870,2.6131,1.6060,-4.2947,-2.7640,0.4392,3.3097,0.8825,0.1590,-0.1777,-0.1578
1878.9062,-1.1389,-1.6410,1.3583,4.5578,5.6585,1.8224,5.4648,7.1565,-1.4071,0.6935,-0.8709,-0.3060,0.5353,4.2206,-0.2133,1.9285,2.1951,2.0207,2.0464
1882.8125,-4.6383,-3.6333,1.6075,5.6092,7.5700,-1.4312,3.8490,7.4083,-3.2232,-0.6642,-3.6704,2.8560,3.1406,6.6915,-3.5935,2.6455,3.8470,3.7833,3.2151
1886.7188,-7.5090,-4.1999,1.9370,5.2033,7.8920,-3.5378,1.9180,6.6841,-4.0894,-0.5527,-4.9770,4.4788,4.2413,7.1557,-4.4624,3.1891,4.6412,4.7873,3.1681
1890.6250,-8.3924,-2.8668,2.5198,3.7845,6.6834,-3.5110,0.3726,5.1621,-2.8323,1.3935,-3.2436,4.7377,3.8298,5.8307,-1.7111,3.7449,4.4681,5.1474,2.3398
1894.5312,-6.2225,0.0667,3.3955,2.2364,4.6260,-1.4143,-0.3442,3.2813,0.9238,4.7305,1.7618,4.3524,2.6275,3.6896,3.7255,4.3911,3.6211,5.2695,1.5074
1898.4375,-1.1397,3.6446,4.4353,1.4256,2.6764,1.7494,-0.1575,1.6231,6.2813,8.3278,8.4740,3.9388,1.5886,1.9172,9.3229,5.0300,2.6202,5.5287,1.3279
1902.3438,5.0958,6.6372,5.3849,1.7426,1.5702,4.5972,0.6876,0.6908,11.3015,10.8639,14.0857,3.5407,1.2958,1.2806,12.4402,5.4215,1.9119,5.9782,1.9472
1906.2500,9.7153,8.0138,5.9419,2.8806,1.4438,6.0332,1.7615,0.6626,13.8998,11.4534,15.9802,2.6830,1.6231,1.7507,11.8867,5.2979,1.6140,6.2778,2.9010
1910.1562,10.4200,7.3178,5.8301,3.9773,1.7844,5.6848,2.5954,1.2536,12.9181,10.0570,13.2476,0.8919,1.8661,2.5636,8.5705,4.5083,1.4576,5.8882,3.3617
1914.0625,6.8641,4.8195,4.8659,4.0571,1.7384,3.9478,2.8051,1.7945,8.7462,7.4348,7.3220,-1.7262,1.2427,2.6659,4.8183,3.1266,0.9732,4.4146,2.5946
1917.9688,1.1021,1.4046,3.0286,2.5494,0.6107,1.6973,2.1958,1.5339,3.1224,4.6796,1.2577,-4.3105,-0.5551,1.2971,2.8501,1.4762,-0.1806,1.8935,0.3796
1921.8750,-3.4557,-1.7639,0.5305,-0.3839,-1.7193,-0.1464,0.8358,0.0354,-1.7634,2.6276,-1.9758,-5.6509,-3.0977,-1.5896,3.4441,0.0482,-1.9384,-1.1440,-2.8163
1925.7812,-4.0449,-3.6918,-2.1581,-3.8806,-4.6956,-0.9941,-0.9421,-2.5410,-4.3294,1.5200,-1.1454,-4.9307,-5.3989,-5.2661,5.6520,-0.6732,-3.7802,-3.8662,-6.0034
1929.6875,-0.2561,-3.9383,-4.3882,-6.7559,-7.3522,-0.7772,-2.6513,-5.4443,-4.2351,1.1078,2.6687,-2.3114,-6.4289,-8.5418,7.6633,-0.4251,-4.9656,-5.4891,-8.0933
1933.5938,5.6887,-2.7691,-5.5354,-8.0365,-8.8022,0.0899,-3.8571,-7.6481,-2.2969,1.0761,6.8909,1.0390,-5.6700,-10.2944,8.1293,0.6684,-4.9376,-5.6083,-8.3883
1937.5000,10.3141,-0.9953,-5.2666,-7.3923,-8.6859,0.9326,-4.3779,-8.3306,0.1500,1.4300,9.0830,3.5083,-3.4118,-9.9743,6.9966,2.0715,-3.6678,-4.3703,-6.9157
1941.4062,11.0386,0.4335,-3.7376,-5.2682,-7.3406,1.1285,-4.3587,-7.2726,1.9949,2.5211,8.3237,3.8504,-0.6411,-7.8629,5.3340,3.0078,-1.7351,-2.4247,-4.4493
1945.3125,7.6898,0.8751,-1.5920,-2.6719,-5.6106,0.3798,-4.1592,-4.9700,2.7800,4.6701,5.5209,1.7721,1.4071,-4.9686,4.3952,2.7929,-0.0701,-0.6829,-2.1912
1949.2188,2.4311,0.2493,0.2735,-0.7327,-4.4121,-1.1739,-4.1205,-2.4070,2.6738,7.6753,2.6080,-1.9951,1.8085,-2.6007,4.6855,1.1936,0.5098,0.0270,-1.2408
1953.1250,-1.7592,-1.0232,1.0853,-0.2401,-4.2888,-3.0516,-4.3679,-0.6139,2.1567,10.6288,1.2955,-6.0982,0.3572,-1.7993,5.7148,-1.3686,-0.2736,-0.7063,-2.0854
1957.0312,-2.9554,-2.3285,0.5243,-1.3557,-5.1865,-4.6825,-4.7825,-0.2292,1.6968,12.2720,2.2211,-9.1516,-2.3555,-2.8709,6.5388,-3.9085,-2.0051,-2.6761,-4.3583
1960.9375,-1.2394,-3.2039,-1.1544,-3.5995,-6.5430,-5.6719,-5.1482,-1.2639,1.5950,11.7357,4.9169,-10.1996,-5.2062,-5.2442,6.5867,-5.2620,-3.7791,-5.0826,-6.9998
1964.8438,1.7795,-3.5107,-3.2633,-6.0807,-7.6105,-5.9363,-5.3468,-3.1467,1.9829,9.1926,8.3766,-8.9098,-7.0127,-7.7227,6.1052,-4.6049,-4.6423,-6.8090,-8.7576
1968.7500,4.3621,-3.3641,-4.9903,-7.8525,-7.8168,-5.6456,-5.4350,-4.9910,2.8518,5.9466,11.6592,-5.5421,-6.9985,-9.0209,5.9004,-1.8485,-4.0352,-6.8655,-8.7758
1972.6562,5.8387,-2.9225,-5.7017,-8.2355,-6.9729,-5.0425,-5.5342,-5.9428,4.0388,3.8187,14.1177,-0.8091,-5.0473,-8.3326,6.6349,2.2925,-2.0059,-4.8205,-6.9628
1976.5625,6.7640,-2.2185,-5.1000,-6.9987,-5.2519,-4.2756,-5.6234,-5.4664,5.2171,4.1494,15.2905,4.3016,-1.6643,-5.6614,8.2609,6.6051,0.8884,-1.0132,-3.9458
1980.4688,8.0483,-1.1572,-3.2185,-4.3644,-3.0084,-3.3608,-5.4191,-3.4865,5.9898,7.0063,14.8023,8.7500,2.2973,-1.7707,10.0272,9.8996,3.8932,3.5672,-0.6641
1984.3750,9.8687,0.3380,-0.3339,-0.8824,-0.5884,-2.2736,-4.4746,-0.3741,6.0997,11.0861,12.5372,11.7086,5.9745,2.1888,11.0246,11.4809,6.3856,7.6804,2.1307
1988.2812,11.2831,2.1612,3.1000,2.7434,1.7448,-1.0727,-2.4701,3.1874,5.6259,14.3825,8.9764,12.7953,8.7259,5.1634,10.8288,11.3470,8.0432,10.3065,4.1546
1992.1875,10.8629,3.9745,6.4695,5.8121,3.7620,0.0583,0.4958,6.4054,4.9821,15.2366,5.3052,12.1419,10.1781,6.5505,9.7658,10.0507,8.8103,10.9555,5.5010
1996.0938,7.8477,5.3113,9.0386,7.7460,5.1890,0.8949,3.8261,8.5995,4.6462,13.1747,2.9946,10.2371,10.1501,6.2975,8.6489,8.3504,8.7517,9.6969,6.3036
2000.0000,2.9141,5.7658,10.1020,8.1946,5.7230,1.3143,6.6422,9.3924,4.7786,9.0893,2.9946,7.6321,8.5926,4.7771,8.2392,6.8644,7.9392,6.9739,6.4527
2003.9062,-2.0451,5.1618,9.2656,7.1379,5.1816,1.3890,8.1919,8.8185,5.0200,4.7151,5.0794,4.7221,5.6468,2.5782,8.8368,5.9024,6.4612,3.3893,5.6236
2007.8125,-4.9987,3.6309,6.7312,4.9632,3.7034,1.3588,8.2129,7.3093,4.6857,1.7374,7.8868,1.7738,1.7929,0.3411,10.2406,5.5087,4.5284,-0.3885,3.6271
2011.7188,-4.9610,1.5914,3.3807,2.4445,1.8428,1.5029,7.0457,5.5455,3.2852,1.0255,9.7348,-0.8365,-2.0601,-1.3287,11.9934,5.6210,2.5616,-3.5969,0.8205
2015.6250,-2.4894,-0.3488,0.5207,0.5601,0.4404,1.9955,5.4404,4.2164,1.0259,2.3561,9.7173,-2.4188,-4.7072,-1.9200,13.6466,6.2021,1.1504,-5.3760,-1.7750
2019.5312,0.7865,-1.5501,-0.6595,0.1598,0.2900,2.8237,4.1775,3.7740,-1.0996,4.6936,8.3184,-2.0746,-5.0367,-1.1094,14.8553,7.2584,0.8633,-4.9424,-2.8292
2023.4375,3.2198,-1.5498,0.3386,1.5998,1.7628,3.7933,3.7113,4.2820,-1.7884,6.8140,7.0903,0.8309,-2.5212,1.1186,15.3377,8.7625,1.9994,-1.9470,-1.3778
2027.3438,4.0672,-0.2748,3.0413,4.5322,4.5997,4.5957,4.0065,5.4254,-0.2198,7.9241,7.5814,6.0900,2.4606,4.4058,14.8782,10.5678,4.4256,3.1781,2.5842
2031.2500,3.7311,1.8474,6.2028,7.9940,7.9969,4.9033,4.6191,6.6758,3.3378,7.9822,10.2376,12.4074,8.6826,8.0943,13.4760,12.3988,7.6006,9.1556,7.9798
2035.1562,3.2817,3.9878,8.4082,10.7952,10.9457,4.4790,4.9538,7.5335,7.5307,7.6002,14.0192,17.7758,14.5193,11.4418,11.5292,13.9330,10.7774,14.2319,13.1048
2039.0625,3.6588,5.2503,8.7603,12.0320,12.6442,3.2895,4.5609,7.7299,10.5829,7.6104,16.9850,20.3678,18.5620,13.8720,9.8214,14.9222,13.2745,16.8646,16.4043
2042.9688,5.0739,5.1049,7.2779,11.4616,12.7713,1.5829,3.3441,7.2965,11.2351,8.5369,17.4531,19.4532,20.0888,15.1170,9.1878,15.2740,14.6762,16.3831,17.1225
2046.8750,6.9173,3.6794,4.8006,9.5385,11.5073,-0.1416,1.5971,6.4768,9.3991,10.2504,14.9966,15.7755,19.1720,15.1725,10.0125,15.0468,14.8771,13.2584,15.4794
2050.7812,8.1435,1.7051,2.4828,7.1038,9.3415,-1.3141,-0.1361,5.5453,6.1476,11.9975,10.6892,11.1313,16.4318,14.1265,11.9077,14.3709,13.9878,8.8290,12.3447
2054.6875,7.8719,0.1164,1.1867,4.9216,6.8086,-1.5743,-1.3122,4.6460,3.0817,12.8013,6.5195,7.3926,12.6417,12.0109,13.8580,13.3528,12.1941,4.6426,8.6829
2058.5938,5.8890,-0.4687,1.1128,3.3391,4.3109,-0.9954,-1.6309,3.7491,1.4834,12.0209,4.3686,5.5603,8.4372,8.8146,14.7896,12.0198,9.6740,1.7846,5.1426
2062.5000,2.8234,-0.0619,1.8398,2.2574,2.0911,-0.0808,-1.1463,2.7519,1.7454,9.7442,5.1212,5.3962,4.2583,4.6626,14.1957,10.3365,6.6176,0.5378,1.9961
2066.4062,-0.0879,0.7807,2.6891,1.3933,0.3174,0.5147,-0.1851,1.6514,3.3406,6.7699,8.3056,5.7891,0.4713,0.0257,12.3879,8.2745,3.3120,0.4909,-0.6360
2070.3125,-1.5679,1.3709,3.1589,0.6221,-0.8208,0.3905,0.8773,0.6684,5.2457,4.1738,12.3363,5.5473,-2.5006,-4.2290,10.2046,5.8964,0.2035,0.9469,-2.5306
2074.2188,-0.9647,1.3298,3.1687,0.1535,-1.0976,-0.3382,1.8399,0.2163,6.4948,2.7204,15.1802,4.0905,-4.1843,-7.0493,8.4095,3.4035,-2.1455,1.3447,-3.3103
2078.1250,1.3214,0.7613,3.0066,0.4132,-0.3388,-1.1275,2.7411,0.7030,6.5518,2.4910,15.1688,1.6573,-4.2196,-7.6066,7.2296,1.1156,-3.2198,1.4730,-2.6401
2082.0312,3.9353,0.0671,3.0600,1.7116,1.4336,-1.4086,3.7169,2.2645,5.3837,2.9582,11.6876,-0.9855,-2.5696,-5.6961,6.3511,-0.6208,-2.7722,1.4291,-0.5164
2085.9375,5.2255,-0.4180,3.5232,3.9297,3.8876,-1.0305,4.7548,4.5862,3.3218,3.4313,5.5060,-3.0389,0.3671,-1.9081,5.3150,-1.5649,-0.9897,1.4365,2.5715
2089.8438,4.1493,-0.6734,4.2558,6.4436,6.3818,-0.4097,5.5442,6.9410,0.8733,3.5361,-1.4251,-4.0293,3.8214,2.5377,3.9468,-1.6968,1.5007,1.6690,5.7374
2093.7500,0.8921,-0.9452,4.8558,8.3527,8.1169,-0.2475,5.5734,8.4570,-1.4226,3.3754,-6.7264,-3.8818,6.8704,6.2255,2.4519,-1.2531,3.8178,2.1594,8.0060
2097.6562,-3.2158,-1.4750,4.8784,8.8896,8.4071,-1.0011,4.4456,8.4947,-3.1058,3.2664,-8.6520,-2.8061,8.7048,8.0501,1.1221,-0.6491,5.1452,2.7809,8.6705
2101.5625,-6.4718,-2.2581,4.0685,7.7727,6.9763,-2.4966,2.2045,6.9433,-3.9193,3.2908,-6.9759,-1.1850,8.8472,7.5792,-0.0549,-0.3125,5.0447,3.2617,7.5301
2105.4688,-7.7752,-3.0481,2.4820,5.3138,4.1390,-3.9983,-0.5809,4.2767,-3.9305,3.0565,-3.1971,0.4498,7.2654,5.1422,-1.4879,-0.5031,3.6205,3.2306,4.9275
2109.3750,-7.1573,-3.6030,0.4508,2.2395,0.7517,-4.7154,-3.0760,1.3361,-3.5564,1.9194,0.1489,1.4411,4.3703,1.6424,-3.6323,-1.2122,1.4481,2.3302,1.6076
2113.2812,-5.5310,-3.9525,-1.5744,-0.6495,-2.0930,-4.3966,-4.6414,-1.0484,-3.4082,-0.4532,0.7804,1.1704,0.9089,-1.8063,-6.4454,-2.1953,-0.6987,0.4107,-1.5300
2117.1875,-3.8965,-4.4291,-3.2090,-2.7846,-3.5205,-3.5647,-5.1903,-2.4018,-3.9731,-3.6055,-2.1190,-0.6204,-2.2357,-4.2690,-9.1126,-3.1137,-2.1912,-2.2709,-3.7030
2121.0938,-2.6391,-5.3938,-4.2512,-3.9602,-3.2662,-3.1869,-5.1847,-2.7430,-5.2969,-6.3221,-7.4561,-3.5370,-4.3049,-5.2740,-10.3546,-3.7013,-2.7915,-4.9897,-4.4769
2125.0000,-1.4601,-6.8470,-4.6779,-4.2692,-1.7918,-3.9804,-5.2589,-2.4679,-6.8738,-7.2430,-12.8091,-6.5371,-4.9176,-4.9096,-9.1962,-3.8634,-2.6882,-6.7477,-3.8924
2128.9062,0.0536,-8.2404,-4.5417,-3.9355,-0.0443,-5.8306,-5.7212,-2.0632,-7.8507,-5.7097,-15.6954,-8.3562,-4.2161,-3.7197,-5.7010,-3.6699,-2.3258,-6.7015,-2.4388
2132.8125,1.7620,-8.6852,-3.8550,-3.1711,1.0302,-7.7453,-6.2853,-1.8226,-7.4654,-2.2710,-14.8005,-8.1818,-2.8230,-2.4506,-1.1422,-3.2744,-2.1433,-4.6255,-0.8587
2136.7188,2.8439,-7.4698,-2.5579,-2.1314,0.9535,-8.4094,-6.2328,-1.7231,-5.4778,1.5242,-10.5156,-6.1778,-1.5981,-1.7506,2.5657,-2.8339,-2.3700,-1.1417,0.1521
2140.6250,2.3955,-4.5644,-0.6194,-0.9602,-0.0968,-6.9980,-4.9133,-1.5127,-2.3509,3.9518,-4.5839,-3.4881,-1.2849,-1.9364,3.8595,-2.4788,-2.9763,2.4641,0.2219
2144.5312,0.2889,-0.7775,1.7833,0.1494,-1.4737,-3.7335,-2.2534,-0.9424,0.9209,4.0426,0.8273,-1.6519,-2.2008,-2.9090,2.3452,-2.3239,-3.7679,4.7885,-0.5765
2148.4375,-2.4717,2.5567,4.1397,0.9498,-2.4860,0.1597,1.0640,0.0114,3.2378,2.0358,4.0650,-1.7415,-4.1086,-4.2359,-1.0418,-2.4697,-4.5287,4.9546,-1.8191
2152.3438,-4.3124,4.1825,5.6740,1.2136,-2.7859,3.0625,3.8780,1.0735,3.8466,-0.8921,4.4999,-3.7375,-6.3231,-5.3449,-4.5911,-2.9573,-5.1085,3.0142,-2.9715
2156.2500,-4.2356,3.4785,5.6409,0.8525,-2.4790,3.7638,5.1228,1.7997,2.6061,-3.3864,2.5111,-6.5240,-7.9938,-5.7368,-6.7173,-3.6957,-5.4178,-0.1037,-3.6324
2160.1562,-2.6676,0.6832,3.7306,0.0088,-1.9162,2.0103,4.3609,1.8417,-0.0229,-4.6346,-0.8655,-8.5136,-8.4330,-5.1318,-6.6745,-4.4340,-5.3726,-3.0601,-3.6462
2164.0625,-1.2602,-3.2776,0.3549,-0.9392,-1.3441,-1.4447,1.9885,1.1947,-3.2071,-4.6130,-4.3640,-8.5257,-7.3554,-3.5121,-4.7413,-4.8352,-4.8697,-4.7311,-3.0536
2167.9688,-1.6771,-7.2090,-3.3918,-1.4795,-0.6785,-5.2448,-0.9713,0.2720,-6.0545,-3.8028,-6.8457,-6.4026,-4.9484,-1.0753,-1.8900,-4.6380,-3.8358,-4.6678,-1.9579
2171.8750,-4.2268,-10.0768,-6.1382,-1.1467,0.4297,-8.0250,-3.3451,-0.2605,-7.8863,-2.6937,-7.5712,-3.0297,-1.7702,1.8539,0.7667,-3.8133,-2.3196,-3.1872,-0.4303
2175.7812,-7.4132,-11.2816,-6.8353,0.2829,2.2841,-8.9120,-4.3022,0.1732,-8.3941,-1.4807,-6.3964,0.2033,1.4617,4.9078,2.4190,-2.6036,-0.5452,-1.1018,1.4750
2179.6875,-8.8465,-10.7345,-5.2424,2.6581,4.8087,-7.7615,-3.6495,1.7168,-7.6677,-0.1366,-3.8327,2.1423,4.1032,7.7272,2.7300,-1.4054,1.1332,0.7235,3.6230
2183.5938,-6.9315,-8.7837,-2.0369,5.4406,7.4312,-5.1142,-1.8387,3.9321,-6.1037,1.2971,-0.8769,2.3839,5.7494,9.9794,1.7834,-0.5597,2.3640,1.7476,5.7153
2187.5000,-2.1147,-6.0597,1.5141,7.8418,9.2812,-1.9396,0.2723,5.9497,-4.2287,2.5244,1.3983,1.3229,6.2862,11.3604,-0.0376,-0.1869,2.9369,1.9029,7.3087
2191.4062,3.2600,-3.2833,4.1403,9.0779,9.5953,0.7276,1.7879,6.8657,-2.4924,3.1244,2.3373,-0.2072,5.8299,11.6094,-2.1374,-0.1667,2.8421,1.5020,7.9506
2195.3125,6.4317,-1.0731,5.0990,8.6601,8.0943,2.1424,2.1268,6.1882,-1.1140,2.9041,2.0130,-1.4256,4.6083,10.5584,-3.7774,-0.2598,2.2226,1.0003,7.3616
2199.2188,6.0002,0.1944,4.3882,6.6023,5.1247,2.0791,1.2285,4.0920,-0.0594,2.1638,1.1581,-1.9419,2.8594,8.2183,-4.2102,-0.2680,1.2721,0.7505,5.5674
2203.1250,2.7411,0.4227,2.5766,3.4417,1.4994,0.8392,-0.4708,1.3356,0.8286,1.6077,0.7329,-1.8109,0.7995,4.8646,-2.9231,-0.1144,0.1608,0.8508,2.9121
2207.0312,-1.0812,-0.2783,0.4030,0.0391,-1.8596,-0.9665,-2.2871,-1.1232,1.6216,1.9009,1.3712,-1.3717,-1.3476,1.0520,0.0812,0.1900,-0.9680,1.1230,-0.0546
2210.9375,-3.3402,-1.7150,-1.6002,-2.7695,-4.2917,-2.7483,-3.6464,-2.6062,2.1558,3.1718,3.0168,-1.0334,-3.3205,-2.5006,4.1215,0.6241,-1.9655,1.2063,-2.7635
2214.8438,-3.3957,-3.6807,-3.2583,-4.5109,-5.6123,-4.1914,-4.3623,-3.0217,2.0633,4.8253,4.9393,-1.1334,-4.8543,-5.1511,7.9385,1.1736,-2.6798,0.7234,-4.8116
2218.7500,-2.2316,-5.9202,-4.6466,-5.2320,-6.1007,-5.2863,-4.6705,-2.8373,0.9977,5.8343,6.0948,-1.8825,-5.7872,-6.6027,10.0870,1.7464,-3.0315,-0.5331,-6.0761
2222.6562,-1.4131,-8.0391,-5.8511,-5.3876,-6.2942,-6.1443,-4.9964,-2.7450,-1.0721,5.3443,5.6285,-3.3320,-6.1681,-7.0388,9.4935,2.0687,-3.1147,-2.4583,-6.7104
2226.5625,-1.7788,-9.4877,-6.7850,-5.5193,-6.6911,-6.7672,-5.6100,-3.2297,-3.6964,3.2068,3.2836,-5.3144,-6.2595,-7.0068,5.9464,1.6995,-3.2171,-4.6021,-7.0210
2230.4688,-2.9059,-9.7209,-7.1891,-5.9096,-7.4938,-6.9732,-6.4099,-4.2957,-6.0480,0.1102,-0.4319,-7.3912,-6.3878,-7.0722,0.2885,0.2396,-3.6891,-6.2881,-7.2749
2234.3750,-3.6932,-8.4972,-6.8094,-6.4198,-8.5046,-6.5575,-6.9999,-5.5059,-7.2752,-2.7561,-4.3632,-8.9035,-6.7102,-7.4337,-5.8029,-2.3486,-4.7037,-6.8709,-7.5366
2238.2812,-3.4797,-6.1358,-5.6294,-6.6171,-9.2284,-5.5598,-7.0136,-6.2876,-6.9204,-4.2796,-7.0742,-9.1884,-7.0604,-7.7570,-10.3876,-5.5229,-6.0606,-6.0378,-7.6351
2242.1875,-2.7049,-3.5151,-3.9963,-6.1139,-9.1497,-4.4018,-6.4459,-6.3039,-5.1645,-3.9089,-7.3748,-7.9090,-7.0130,-7.3769,-11.9636,-8.2466,-7.1996,-4.0102,-7.2986
2246.0938,-2.5368,-1.7355,-2.5396,-4.8985,-8.0493,-3.7351,-5.7278,-5.6572,-2.7477,-1.8176,-4.8542,-5.3229,-6.1671,-5.7820,-10.0169,-9.4083,-7.4680,-1.5180,-6.3845
2250.0000,-3.7774,-1.5892,-1.8996,-3.4285,-6.1831,-4.0609,-5.4530,-4.8060,-0.6064,1.2543,-0.1958,-2.2919,-4.4771,-3.0758,-5.1983,-8.3832,-6.5087,0.4830,-5.0492
2253.9062,-5.9777,-3.1321,-2.3927,-2.3984,-4.1934,-5.3778,-5.9308,-4.2605,0.5714,4.3209,4.9439,0.0436,-2.3880,-0.0800,0.9285,-5.4172,-4.5233,1.2410,-3.7142
2257.8125,-7.5486,-5.6214,-3.7932,-2.3056,-2.7676,-7.1192,-6.8877,-4.2510,0.6314,6.4623,8.5559,0.7999,-0.6390,2.0482,6.4470,-1.5891,-2.2217,0.5814,-2.8130
2261.7188,-6.8627,-7.8676,-5.3645,-3.0849,-2.2286,-8.4462,-7.5627,-4.5750,-0.0548,7.0533,9.1880,-0.1834,0.1783,2.4876,9.7234,1.6579,-0.4562,-0.9782,-2.4698
2265.6250,-3.5339,-8.8058,-6.1570,-4.0607,-2.3133,-8.7062,-7.1680,-4.7116,-0.8491,5.9201,6.6989,-2.2215,0.0252,1.2912,9.8929,3.1776,0.2459,-2.4479,-2.3444
2269.5312,1.1119,-7.9675,-5.4474,-4.2799,-2.3066,-7.7530,-5.4229,-4.1320,-1.1848,3.4353,2.4104,-4.1024,-0.5030,-0.5812,7.0727,2.6288,-0.0369,-2.8273,-1.7932
2273.4375,4.7715,-5.6214,-3.1081,-3.0518,-1.4812,-5.9344,-2.7977,-2.6247,-0.7969,0.4916,-1.5009,-4.6890,-0.5110,-1.7971,2.2924,0.5819,-0.7012,-1.5814,-0.2870
2277.3438,5.6090,-2.5584,0.2892,-0.3797,0.4167,-3.8030,-0.2893,-0.4533,0.2428,-1.7298,-3.0853,-3.4813,0.6375,-1.4370,-2.7979,-1.7968,-1.0039,1.1030,2.1769
2281.2500,3.3998,0.3070,3.7057,2.9778,2.9527,-1.7950,1.1378,1.7402,1.6489,-2.1954,-1.5867,-0.8328,2.8947,0.4636,-6.3730,-3.2897,-0.5023,4.4044,4.9614
2285.1562,-0.3894,2.2936,6.1004,5.8668,5.2184,-0.1060,1.0919,3.2353,3.0934,-0.4997,2.2538,2.2824,5.5212,2.9669,-6.9647,-3.1249,0.7283,7.2421,7.0932
2289.0625,-3.5711,3.1313,6.9000,7.3263,6.3619,1.2000,-0.0522,3.5863,4.3297,2.8776,6.7105,4.8011,7.5145,4.8445,-3.9786,-1.2214,2.2146,8.7546,7.8225
2292.9688,-4.5259,2.9578,6.2408,7.0822,6.1055,2.0183,-1.4050,2.8549,5.2473,6.7406,10.0635,6.0954,8.2028,5.3521,1.9777,1.8725,3.4334,8.6616,7.0918
2296.8750,-2.9479,2.2172,4.8751,5.6842,4.9223,2.1816,-2.0701,1.6107,5.8843,9.7450,11.4691,6.2170,7.6323,4.6718,9.1553,5.2599,4.1423,7.3693,5.6118
2300.7812,0.3271,1.5279,3.8084,4.2276,3.7617,1.6428,-1.5887,0.6967,6.4286,11.0776,11.2293,5.7711,6.5151,3.7553,15.2114,8.0532,4.4805,5.8008,4.4892
2304.6875,4.1033,1.5319,3.8649,3.8221,3.4978,0.7080,-0.0810,0.8637,7.1950,10.8572,10.3924,5.5442,5.7970,3.6962,18.1167,9.6731,4.8076,5.0401,4.6400
2308.5938,7.5556,2.7135,5.3838,5.0830,4.4506,0.0708,1.9364,2.4381,8.5355,10.0129,10.0198,6.1150,6.1326,5.0501,17.0476,10.0031,5.4223,5.9235,6.3396
2312.5000,10.4341,5.2039,8.1479,7.8795,6.2625,0.5295,3.8841,5.1742,10.6668,9.7053,10.5957,7.6399,7.5851,7.5238,12.8070,9.3667,6.3681,8.7061,9.1532
2316.4062,12.7701,8.6520,11.5106,11.4227,8.1738,2.5143,5.3843,8.3564,13.4704,10.6371,11.8801,9.8631,9.6877,10.1906,7.4965,8.3458,7.4434,12.9049,12.2279
2320.3125,14.4834,12.2521,14.6150,14.6152,9.4890,5.7290,6.3295,11.1037,16.3847,12.6593,13.1787,12.2738,11.7660,12.0485,3.5491,7.5150,8.3763,17.3799,14.7189
2324.2188,15.2711,14.9634,16.6112,16.4837,9.9285,9.1730,6.7852,12.7304,18.4997,14.8864,13.7671,14.2881,13.2792,12.5533,2.5949,7.2031,9.0125,20.6648,16.0904
2328.1250,14.8244,15.8568,16.8457,16.5204,9.6735,11.5703,6.8431,12.9930,18.8699,16.2189,13.1990,15.3840,13.9847,11.8245,4.7517,7.3946,9.3804,21.4746,16.1798
2332.0312,13.1128,14.4553,15.0414,14.8248,9.1317,11.9738,6.5407,12.1195,16.9338,15.9405,11.3952,15.1919,13.8924,10.4644,8.6988,7.8129,9.6030,19.2274,15.0964
2335.9375,10.4520,10.9378,11.4564,12.0236,8.6241,10.2074,5.8800,10.6302,12.8406,14.0529,8.5828,13.5790,13.1235,9.1638,12.4529,8.1299,9.7487,14.3619,13.1079
2339.8438,7.3258,6.1353,6.9470,9.0215,8.2113,6.9225,4.9101,9.0678,7.5099,11.2069,5.2084,10.7331,11.8148,8.3537,14.3821,8.1669,9.7448,8.2731,10.6011
2343.7500,4.1762,1.3252,2.8226,6.6774,7.7453,3.2811,3.7971,7.7874,2.3654,8.3384,1.8737,7.1956,10.1239,8.0741,13.9057,7.9624,9.4208,2.8392,8.0770
2347.6562,1.3861,-2.1251,0.4468,5.5204,7.0690,0.4656,2.8298,6.8977,-1.1583,6.2529,-0.7531,3.7741,8.2784,8.0672,11.5643,7.6779,8.6414,-0.2923,6.0773
2351.5625,-0.5669,-3.1836,0.6871,5.6037,6.1983,-0.7460,2.3395,6.3443,-2.1347,5.3660,-2.1032,1.3122,6.5738,7.9862,8.5398,7.4321,7.4310,-0.3533,5.0052
2355.4688,-1.0455,-1.5408,3.4572,6.5449,5.3605,-0.1973,2.5601,6.0399,-0.4807,5.6602,-1.9243,0.3860,5.2845,7.5884,5.9866,7.2041,6.0046,2.2588,4.9251
2359.3750,0.4873,2.1876,7.6216,7.7310,4.8803,1.6524,3.4834,5.9422,3.0188,6.7866,-0.4299,1.0685,4.5462,6.8418,4.5601,6.8889,4.6957,6.1864,5.4980
2363.2812,3.9505,6.5786,11.3896,8.5920,5.0037,3.9114,4.7890,6.0386,7.0013,8.2133,1.7403,2.8906,4.3096,5.9356,4.3230,6.4580,3.8361,9.7082,6.1427
2367.1875,8.2743,9.8833,13.0726,8.8236,5.7716,5.5577,5.9139,6.2827,10.0199,9.3706,3.7638,5.0392,4.4147,5.2098,4.9441,6.0813,3.6563,11.4422,6.3564
2371.0938,11.6103,10.7354,11.8620,8.4662,7.0033,5.8062,6.2705,6.5590,11.0619,9.8042,4.9665,6.7035,4.7333,5.0254,5.9770,6.0809,4.2340,10.8484,5.9995
2375.0000,12.1944,8.7743,8.2329,7.8233,8.3730,4.4388,5.5311,6.7202,9.9015,9.3366,5.0634,7.4007,5.2627,5.6017,7.0436,6.7164,5.4754,8.3448,5.3539
2378.9062,9.4060,4.8452,3.7453,7.2812,9.5227,1.9482,3.8312,6.6716,7.1511,8.1766,4.1915,7.1211,6.0847,6.8762,7.8871,7.9417,7.1079,5.0375,4.9159
2382.8125,4.3090,0.6104,0.3164,7.1226,10.1576,-0.6313,1.7504,6.4277,3.9764,6.8782,2.7487,6.2316,7.2077,8.4626,8.3626,9.3249,8.6930,2.2240,5.0561
2386.7188,-0.7915,-2.2694,-0.6871,7.4117,10.1052,-2.1977,0.0449,6.0858,1.5842,6.0991,1.1633,5.2082,8.4134,9.7578,8.4283,10.2239,9.6991,0.8857,5.7670
2390.6250,-3.6047,-2.9565,0.9125,7.9765,9.3398,-2.1558,-0.7424,5.7287,0.7015,6.2422,-0.2688,4.3600,9.2456,10.1746,8.1414,10.1341,9.6621,1.3474,6.6499
2394.5312,-3.1690,-1.8008,4.0510,8.4761,7.9832,-0.7762,-0.5698,5.3338,1.2904,7.1766,-1.4116,3.7032,9.1887,9.4009,7.6178,8.9946,8.3960,3.2029,7.1330
2398.4375,-0.3857,-0.0355,6.9760,8.5211,6.2817,0.9029,0.0991,4.7740,2.6475,8.2370,-2.2151,3.0530,7.9550,7.5527,6.9468,7.2478,6.1509,5.5133,6.7761
2402.3438,2.5861,1.0070,8.1257,7.8228,4.5610,1.6242,0.5930,3.9288,3.8370,8.5531,-2.6248,2.2627,5.7102,5.1430,6.1182,5.6082,3.6005,7.2059,5.4930
2406.2500,3.6915,0.6910,6.8924,6.3389,3.1650,0.6266,0.4574,2.8380,4.2246,7.5502,-2.5505,1.4461,3.0894,2.8858,5.0416,4.6778,1.6163,7.5349,3.5973
2410.1562,2.2370,-0.5856,3.8992,4.3644,2.3913,-1.8777,-0.2510,1.7829,3.8117,5.3328,-1.9174,1.0159,0.9701,1.4345,3.6759,4.6444,0.9052,6.4211,1.6811
2414.0625,-0.7284,-1.6875,0.6650,2.5005,2.4304,-4.7439,-0.9833,1.2118,3.1812,2.7073,-0.7678,1.4809,0.1041,1.1716,2.1828,5.2325,1.6855,4.5090,0.4020
2417.9688,-3.0990,-1.4630,-1.1652,1.4601,3.3118,-6.4441,-1.0186,1.5228,3.0957,0.8054,0.6504,3.0980,0.7892,2.1132,0.9637,5.9107,3.5748,2.8786,0.2509
2421.8750,-2.9948,0.5527,-0.6396,1.7450,4.8573,-5.8349,0.1013,2.8128,3.9958,0.5063,1.8736,5.5899,2.7328,3.9275,0.5016,6.2039,5.7563,2.5155,1.3553
2425.7812,0.1409,3.8445,2.0261,3.3317,6.6651,-2.7494,2.2689,4.7379,5.7002,1.9746,2.3307,8.1287,5.1644,6.0328,1.0737,5.9203,7.3432,3.7851,3.3689
2429.6875,5.2256,7.1547,5.5386,5.5482,8.1612,1.8680,4.7945,6.5788,7.4774,4.5605,1.5573,9.6453,7.1309,7.7415,2.5171,5.1832,7.7537,6.1916,5.5104
2433.5938,10.0922,9.0727,8.1223,7.2674,8.7459,6.3239,6.6743,7.5067,8.4241,7.1025,-0.5607,9.3262,7.8426,8.4382,4.2252,4.2955,6.9131,8.5717,6.7929
2437.5000,12.5389,8.6478,8.3310,7.3863,8.0169,8.8557,7.0053,6.9393,7.9152,8.4600,-3.6395,7.0267,6.9321,7.7665,5.4092,3.5522,5.2044,9.6452,6.4078
2441.4062,11.3163,5.7504,5.6947,5.3796,5.9797,8.3355,5.3681,4.8283,5.8741,8.0034,-6.8603,3.3547,4.5459,5.7700,5.4803,3.1086,3.2272,8.6390,4.1158
2445.3125,6.6328,1.0811,0.9173,1.6358,3.1261,4.7288,2.0325,1.7381,2.7545,5.8409,-9.2632,-0.6363,1.2598,2.9100,4.3226,2.9471,1.5111,5.6537,0.4361
2449.2188,0.0384,-4.1090,-4.4450,-2.6420,0.2952,-0.8588,-2.0891,-1.3398,-0.6971,2.7129,-10.1616,-3.9755,-2.1294,-0.0842,2.2987,2.9129,0.3294,1.5820,-3.5109
2453.1250,-6.1972,-8.4484,-8.6608,-5.9669,-1.6614,-6.5701,-5.7384,-3.3843,-3.7283,-0.3608,-9.4686,-6.2161,-4.8614,-2.4930,0.0095,2.7775,-0.3253,-2.3575,-6.4785
2457.0312,-9.9617,-10.8854,-10.5449,-7.2854,-2.2689,-10.4943,-7.7800,-3.7981,-5.7845,-2.5049,-7.7472,-7.5374,-6.4369,-3.8912,-2.0146,2.3105,-0.6353,-5.2054,-7.6661
2460.9375,-10.1224,-11.0216,-9.9136,-6.5103,-1.6752,-11.4177,-7.6845,-2.7126,-6.5982,-3.3043,-5.9352,-8.4688,-6.7513,-4.2961,-3.4892,1.3678,-0.8144,-6.6489,-7.0906
2464.8438,-6.9916,-9.2376,-7.5942,-4.5762,-0.6056,-9.3165,-5.8142,-0.9786,-6.2127,-2.8970,-4.8831,-9.4349,-6.0980,-4.1022,-4.3367,-0.0152,-1.0063,-7.0394,-5.5515
2468.7500,-2.2111,-6.5476,-5.0071,-2.9654,-0.0210,-5.3526,-3.3337,0.1968,-4.9786,-1.8261,-4.9539,-10.4290,-5.0404,-3.8413,-4.5207,-1.5683,-1.2571,-7.0801,-4.2063
2472.6562,1.9562,-4.2062,-3.5241,-2.9386,-0.6350,-1.3484,-1.7172,-0.1689,-3.5043,-0.7325,-5.8983,-11.0240,-4.1862,-3.8995,-3.9296,-2.8359,-1.5393,-7.3973,-3.9845
2476.5625,3.6575,-3.2157,-3.8878,-4.8695,-2.5275,1.0239,-2.0429,-2.3074,-2.5061,-0.0445,-7.0571,-10.7010,-3.9409,-4.3351,-2.4374,-3.3487,-1.7868,-8.2318,-5.1456
2480.4688,2.3047,-3.9594,-5.9448,-8.0353,-5.0594,0.9387,-4.4251,-5.5129,-2.5546,0.1752,-7.7598,-9.2648,-4.3394,-4.8757,-0.1145,-2.8554,-1.9162,-9.3863,-7.1942
2484.3750,-1.2174,-6.1403,-8.7925,-10.9799,-7.1466,-1.3429,-7.9090,-8.4321,-3.8155,0.1433,-7.6938,-7.0641,-5.0395,-5.0792,2.5805,-1.4837,-1.8402,-10.4065,-9.1681
2488.2812,-5.1288,-9.0378,-11.2521,-12.2655,-7.7763,-4.7698,-10.9238,-9.7189,-5.9396,0.0901,-7.0569,-4.8745,-5.5041,-4.5743,4.8171,0.2812,-1.4927,-10.8645,-10.1353
2492.1875,-7.7886,-11.9010,-12.4281,-11.2234,-6.5239,-8.1059,-12.0691,-8.7293,-8.2033,-0.0004,-6.4353,-3.5245,-5.3063,-3.2807,5.6890,1.8109,-0.8771,-10.5954,-9.6545
2496.0938,-8.5569,-14.2251,-12.0830,-8.3153,-3.8189,-10.4633,-10.8045,-5.8807,-9.8513,-0.4393,-6.4852,-3.5025,-4.4111,-1.5238,4.6735,2.6269,-0.1186,-9.7841,-7.9965
2500.0000,-7.9555,-15.7636,-10.6576,-4.9150,-0.8148,-11.4869,-7.6661,-2.4675,-10.4512,-1.5938,-7.5700,-4.7706,-3.2726,0.0143,2.0013,2.6012,0.5214,-8.8830,-6.0375
2503.9062,-7.0634,-16.3438,-8.9510,-2.6206,1.1037,-11.1907,-3.9137,-0.0152,-10.0494,-3.4937,-9.5142,-6.8563,-2.6512,0.5245,-1.3045,1.9550,0.7086,-8.4018,-4.8669
2507.8125,-6.6082,-15.7093,-7.6486,-2.4468,0.9658,-9.6875,-0.8469,0.4854,-9.0429,-5.5714,-11.5866,-9.1085,-3.2041,-0.5619,-3.8025,1.0778,0.1802,-8.6507,-5.2634
2511.7188,-6.4207,-13.5811,-6.9525,-4.3017,-1.2850,-7.0826,0.8013,-0.9406,-7.8691,-6.7853,-12.7474,-10.9276,-5.0429,-3.2045,-4.2747,0.3094,-1.0797,-9.5355,-7.2520
2515.6250,-5.6494,-9.9285,-6.4993,-7.0090,-4.6885,-3.6050,1.0817,-3.2971,-6.7286,-6.1454,-12.0888,-11.8433,-7.5090,-6.5816,-2.3267,-0.1667,-2.7272,-10.4983,-9.9539
2519.5312,-3.5656,-5.2277,-5.5833,-8.8602,-7.6478,0.1965,0.6140,-5.1428,-5.5135,-3.3632,-9.2901,-11.4667,-9.3421,-9.2817,1.3705,-0.2713,-4.0962,-10.6619,-11.8500
2523.4375,-0.3387,-0.4444,-3.5497,-8.4221,-8.6425,3.4568,0.1513,-5.3016,-3.9566,0.7942,-4.8537,-9.4529,-9.2149,-9.8673,5.3456,0.0931,-4.4215,-9.1593,-11.4057
2527.3438,2.8408,3.3406,-0.1534,-5.2109,-6.9481,5.3127,0.2098,-3.3958,-1.8655,4.7410,0.0510,-5.5965,-6.4006,-7.5893,7.9903,1.0868,-3.1801,-5.5369,-7.8131
2531.2500,4.4484,5.4643,4.2721,0.0763,-3.0069,5.3739,0.9271,0.0337,0.7293,6.8395,4.1128,-0.0566,-1.2304,-2.8790,8.2992,2.8181,-0.4007,-0.0550,-1.4953
2535.1562,3.6798,6.0138,8.8820,5.8614,1.7512,4.0118,2.1262,3.8257,3.5842,6.2836,6.5117,6.4366,4.9236,2.7080,6.3148,5.1351,3.2340,6.2726,5.9172
2539.0625,1.1256,5.7027,12.5693,10.3524,5.5650,2.2092,3.4526,6.7257,6.3486,3.5695,7.2796,12.5833,10.1713,7.1456,3.0579,7.4998,6.5876,11.9566,12.1898
2542.9688,-1.4533,5.3436,14.2985,12.2617,7.1516,1.0130,4.4808,7.8851,8.6486,0.2450,7.1316,16.8233,12.8971,8.8851,-0.0129,9.0985,8.5214,15.5342,15.4103
2546.8750,-2.1687,5.2679,13.4354,11.2645,6.2578,0.9246,4.7943,7.1366,10.0907,-1.9357,6.8439,17.8699,12.4334,7.5872,-1.7182,9.1900,8.3945,16.0869,14.7905
2550.7812,-0.2162,5.1039,9.9969,8.0297,3.6827,1.6323,4.0963,4.9768,10.2458,-1.9639,6.5906,15.2399,9.2851,4.2211,-1.6750,7.5148,6.3596,13.5552,10.9449
2554.6875,3.5363,4.0892,4.7484,3.8611,0.7846,2.2734,2.3652,2.3096,8.7332,-0.0762,5.7440,9.5212,4.8117,0.4775,-0.3588,4.5093,3.2854,8.7288,5.5228
2558.5938,6.9903,1.7232,-0.9221,0.1455,-1.2328,2.0539,-0.0259,0.0750,5.4524,2.4741,3.3651,2.2461,0.5620,-2.1472,1.2856,1.1689,0.3362,2.9465,0.4192
2562.5000,8.0410,-1.6860,-5.3766,-2.1411,-1.8561,0.8121,-2.3548,-1.0912,0.8590,4.2114,-0.8767,-4.5839,-2.3725,-3.0468,2.4367,-1.3884,-1.5688,-2.3393,-3.0004
2566.4062,5.8450,-4.9753,-7.2641,-2.6807,-1.3501,-0.8451,-3.8068,-1.0441,-3.9290,4.3063,-5.9941,-9.1175,-3.6592,-2.5944,2.8440,-2.4185,-2.1199,-5.9460,-4.2789
2570.3125,1.3657,-6.6553,-6.0293,-1.7599,-0.4065,-1.9181,-3.8439,-0.0984,-7.3717,3.0114,-9.7797,-10.1851,-3.5788,-1.6390,2.8877,-1.8341,-1.6160,-7.1803,-3.7348
2574.2188,-3.1244,-5.7194,-2.1576,0.0015,0.3839,-1.6498,-2.4782,1.1932,-8.0776,1.4442,-9.8298,-7.5812,-2.5969,-0.8034,3.2407,-0.1371,-0.6319,-5.8866,-2.0093
2578.1250,-5.2798,-2.2545,2.9873,1.9765,0.8916,-0.0132,-0.2779,2.3404,-5.4633,0.8868,-4.9745,-2.0606,-0.9685,-0.0750,4.3587,1.9176,0.4098,-2.3992,0.3663
2582.0312,-3.9340,2.5069,7.6896,3.7556,1.4364,2.2477,1.9101,3.1349,-0.1475,2.0385,3.7591,4.8972,1.3632,1.0560,6.1170,3.7014,1.4743,2.5331,3.1219
2585.9375,0.3347,6.7277,10.5362,5.1914,2.4503,4.0309,3.3609,3.6738,6.1747,4.6397,13.3317,11.4711,4.5285,3.0538,7.8245,4.9215,2.8149,7.8401,6.1011
2589.8438,5.6049,8.8097,10.9056,6.2914,4.0707,4.4869,3.7736,4.1860,11.3767,7.6468,20.0464,15.9565,8.3514,5.8084,8.6231,5.5955,4.6282,12.2909,9.0090
2593.7500,9.6993,8.1085,9.0920,7.0629,5.9430,3.4732,3.3326,4.7878,13.7856,9.8144,21.3770,17.2282,12.1280,8.5170,8.0489,5.8858,6.7313,14.7716,11.3067
2597.6562,11.3142,5.1851,6.0646,7.4258,7.3624,1.6139,2.5413,5.3425,12.8930,10.3438,17.2611,15.1067,14.7710,10.0670,6.4187,5.9543,8.5147,14.6460,12.3693
2601.5625,10.5649,1.5099,3.0316,7.2471,7.6570,-0.0448,1.9577,5.5285,9.5533,9.2540,10.1348,10.4875,15.2862,9.6676,4.7865,5.9271,9.2304,12.0652,11.8146
2605.4688,8.6957,-1.2109,1.0230,6.4654,6.5687,-0.5833,1.9717,5.0727,5.5750,7.3116,3.6968,5.1132,13.3180,7.3136,4.4383,5.9349,8.4386,8.0416,9.7773
2609.3750,7.2033,-1.7706,0.6287,5.2094,4.4046,0.3250,2.6894,3.9839,2.8985,5.5974,1.0866,0.9825,9.4310,3.7963,6.1688,6.1254,6.3137,4.1670,6.9298
2613.2812,6.9410,0.0526,1.9104,3.8170,1.8876,2.2631,3.9213,2.6129,2.7400,4.9564,3.4295,-0.4291,4.9320,0.2843,9.7316,6.5833,3.5973,2.0254,4.2182
2617.1875,7.7425,3.4482,4.4387,2.7274,-0.1837,4.3039,5.2477,1.4882,5.0838,5.6132,9.4378,1.1858,1.3012,-2.2416,13.8046,7.2027,1.2162,2.5280,2.4571
2621.0938,8.7386,6.9651,7.4195,2.2977,-1.2636,5.5069,6.1544,1.0305,8.7366,7.1222,16.1587,4.7829,-0.4698,-3.3587,16.5447,7.6362,-0.1953,5.4820,2.0063
2625.0000,9.0852,9.1597,9.9047,2.6464,-1.2170,5.4187,6.2275,1.3379,11.8982,8.6445,20.3937,8.3874,-0.2822,-3.2142,16.4811,7.4134,-0.5746,9.6214,2.6858
2628.9062,8.5656,9.2094,11.0799,3.6033,-0.2735,4.3030,5.3537,2.1716,12.9733,9.3854,20.0796,9.9692,1.1237,-2.2596,13.2814,6.1968,-0.3559,13.1148,3.9347
2632.8125,7.6509,7.2117,10.5510,4.7835,1.1379,2.9590,3.8129,3.1333,11.2540,8.9693,15.0573,8.3761,2.6204,-0.9401,7.9702,4.0235,-0.1196,14.3293,5.0885
2636.7188,7.0098,4.0421,8.4979,5.7345,2.5575,2.2132,2.1687,3.8922,7.1804,7.5849,7.0129,3.8735,3.2766,0.4638,2.4713,1.3662,-0.2114,12.5017,5.6213
2640.6250,6.8750,0.8649,5.5855,6.0859,3.5994,2.3777,0.9697,4.3081,2.0949,5.8654,-1.2642,-1.9679,2.7608,1.8048,-1.2805,-1.0436,-0.5684,8.0250,5.2629
2644.5312,6.7883,-1.4294,2.6463,5.6469,4.0011,3.0142,0.4211,4.3968,-2.3589,4.5916,-6.9536,-6.9731,1.3912,2.9552,-2.1839,-2.5305,-0.8310,2.2498,4.0020
2648.4375,5.9584,-2.5577,0.3001,4.4433,3.6590,3.1796,0.2521,4.2089,-4.8984,4.3630,-8.2119,-9.3010,-0.1339,3.7494,-0.3469,-2.7443,-0.6277,-3.0735,2.0435
2652.3438,3.9766,-2.8014,-1.2696,2.7023,2.6616,2.0308,-0.1014,3.7455,-5.0395,5.3569,-4.7973,-8.1824,-1.1349,4.0334,3.1293,-1.7474,0.1681,-6.4474,-0.2351
2656.2500,1.3194,-2.6722,-2.2595,0.7920,1.2869,-0.5811,-1.0853,2.9761,-3.1632,7.2365,1.8771,-4.1586,-1.2643,3.7588,6.7469,0.0794,1.3561,-7.1166,-2.3376
2660.1562,-0.8205,-2.5387,-2.9718,-0.8863,-0.0829,-3.9126,-2.6608,1.9182,-0.2494,9.2190,9.2764,1.2161,-0.6158,3.0181,9.2149,2.2008,2.5118,-5.2440,-3.7608
2664.0625,-1.3301,-2.4528,-3.5334,-2.0395,-1.1265,-6.6742,-4.2513,0.6819,2.5580,10.2996,14.6903,6.0087,0.3657,1.9782,9.7824,4.0444,3.1710,-1.7649,-4.1710
2667.9688,-0.0406,-2.2436,-3.8071,-2.6057,-1.7471,-7.7190,-5.0699,-0.5800,4.3664,9.6080,16.2523,8.5898,1.0867,0.7655,8.2766,5.0541,2.9848,1.9887,-3.5813
2671.8750,2.0213,-1.7479,-3.5402,-2.7843,-2.1238,-6.6518,-4.6272,-1.7715,4.7971,6.8187,13.6331,8.1292,1.0274,-0.5915,5.0057,4.7579,1.7995,4.7560,-2.4093
2675.7812,3.2628,-0.9786,-2.6155,-2.9238,-2.5897,-3.9983,-3.0804,-2.9005,4.0406,2.4450,8.1107,4.7961,-0.0745,-2.1059,0.6845,2.9240,-0.3122,5.7622,-1.3313
2679.6875,2.6363,-0.1161,-1.2038,-3.3024,-3.3928,-0.8743,-1.1854,-4.0071,2.7075,-2.1895,1.9747,-0.3407,-2.1133,-3.7057,-3.6280,-0.2307,-3.0316,4.9490,-0.9647
2683.5938,0.4185,0.6183,0.2874,-3.9274,-4.4874,1.5868,0.1176,-5.0218,1.5254,-5.4150,-2.4823,-5.6634,-4.6086,-5.1514,-6.7197,-3.9407,-5.8032,2.9289,-1.5383
2687.5000,-1.9677,1.0621,1.4106,-4.4924,-5.5082,2.6755,0.2102,-5.6877,0.9779,-5.9946,-3.9370,-9.5244,-6.8343,-6.0936,-7.6361,-7.0673,-7.9301,0.6615,-2.7542
2691.4062,-3.0144,1.0929,1.8586,-4.5522,-5.9647,2.2066,-0.9238,-5.6550,1.0361,-3.8405,-2.5404,-10.8065,-8.0747,-6.2579,-6.1809,-8.5610,-8.7896,-1.0236,-3.9465
2695.3125,-2.3047,0.5488,1.5165,-3.8222,-5.5437,0.3500,-2.7829,-4.7206,1.1362,-0.2177,0.2593,-9.3418,-7.9269,-5.6383,-3.1763,-8.0025,-8.1103,-1.8321,-4.4645
2699.2188,-0.8892,-0.7653,0.4028,-2.4121,-4.3223,-2.5536,-4.6854,-3.0490,0.4727,2.8001,2.4692,-6.0020,-6.5064,-4.5534,-0.1926,-5.8921,-6.1617,-2.1136,-4.0538
2703.1250,-0.5106,-2.9041,-1.3776,-0.8175,-2.7443,-6.0095,-6.1029,-1.1854,-1.5003,3.4196,2.5113,-2.3639,-4.4262,-3.5019,1.2253,-3.4584,-3.7084,-2.5888,-2.9926
2707.0312,-2.2010,-5.5415,-3.5874,0.3501,-1.3659,-9.2682,-6.7987,0.1974,-4.6255,1.1695,-0.0532,-0.0446,-2.5211,-2.8884,0.4252,-2.0387,-1.6977,-3.8296,-1.8905
2710.9375,-5.3066,-7.8908,-5.7613,0.7358,-0.5323,-11.3421,-6.7638,0.6817,-7.9513,-2.7478,-4.3489,0.0184,-1.4366,-2.7890,-1.9517,-2.3643,-0.8155,-5.7957,-1.2723
2714.8438,-7.7406,-8.9608,-7.2122,0.4747,-0.1950,-11.3221,-6.0957,0.3676,-10.1124,-6.0681,-8.6034,-2.0003,-1.2983,-2.9053,-4.3472,-4.1667,-1.1490,-7.7218,-1.2150
2718.7500,-7.3765,-8.0770,-7.2446,0.1242,0.0154,-8.9102,-4.9591,-0.1743,-10.0153,-6.7223,-10.9330,-4.8962,-1.6503,-2.7433,-5.2357,-6.3376,-2.1510,-8.4575,-1.2783
2722.6562,-3.6240,-5.3572,-5.5136,0.3298,0.5182,-4.8153,-3.6330,-0.2455,-7.4429,-3.9915,-10.1301,-7.0057,-1.7083,-1.9074,-4.0405,-7.5382,-2.9337,-7.0869,-0.7797
2726.5625,1.9656,-1.7850,-2.3073,1.4318,1.4953,-0.6441,-2.5274,0.5558,-3.2094,1.1321,-6.1264,-6.9968,-0.7973,-0.3358,-1.4124,-6.8952,-2.7324,-3.4786,0.7517
2730.4688,6.5517,1.2393,1.4764,3.2543,2.7681,1.7930,-2.0592,2.0944,1.2343,6.5722,0.0143,-4.4984,1.2610,1.6587,1.2887,-4.3952,-1.2862,1.5462,3.2254
2734.3750,7.7618,2.6315,4.6996,5.1896,3.8986,1.4217,-2.4132,3.7796,4.5026,10.3422,6.5069,-0.2812,4.0148,3.5494,2.9105,-0.8124,1.0504,6.5156,5.9548
2738.2812,5.1437,2.1796,6.5026,6.5059,4.4272,-1.4787,-3.3601,4.8971,5.8592,11.5127,11.4553,4.0791,6.5658,4.8480,3.1649,2.7126,3.4955,9.9070,7.9552
2742.1875,0.3300,0.5622,6.6568,6.6823,4.0908,-5.3993,-4.3079,4.9699,5.3688,10.4189,13.4407,6.8852,7.9711,5.2989,2.5970,5.1558,5.1990,10.7337,8.4021
2746.0938,-4.1382,-1.1654,5.5531,5.6003,2.9070,-8.4262,-4.6115,3.9455,3.6195,8.1176,11.9401,7.0412,7.6651,4.9209,1.9774,5.9169,5.5844,8.8653,7.0042
2750.0000,-6.4383,-2.2428,3.8792,3.5399,1.1234,-9.2714,-3.9593,2.1495,1.3021,5.5994,7.5050,4.5176,5.7122,3.9125,1.6532,4.8925,4.5366,5.0049,4.1215
2753.9062,-6.3931,-2.5632,2.2433,1.0482,-0.8926,-7.8837,-2.5734,0.0936,-1.0264,3.3418,1.6671,0.3781,2.7918,2.5141,1.3749,2.4107,2.3975,0.4151,0.6111
2757.8125,-5.1436,-2.5027,0.9924,-1.2218,-2.7447,-5.2997,-1.0722,-1.7174,-2.8909,1.4268,-3.4545,-3.6312,-0.0648,0.9260,0.6873,-0.8615,-0.1815,-3.4603,-2.4941
2761.7188,-3.9740,-2.4133,0.2792,-2.6578,-4.0636,-2.8947,-0.0826,-2.8987,-3.7425,-0.0414,-5.8204,-5.7734,-1.8728,-0.6837,-0.5071,-4.0206,-2.4555,-5.3779,-4.3281
2765.6250,-3.2885,-2.2251,0.2187,-2.8335,-4.5675,-1.5666,0.1299,-3.2331,-2.9910,-0.7024,-4.2632,-5.0238,-2.0691,-2.1234,-1.7387,-6.1100,-3.8094,-4.6335,-4.4452
2769.5312,-2.5271,-1.5022,0.9223,-1.6605,-4.1545,-1.3725,-0.2375,-2.7026,-0.3405,-0.1537,0.8986,-1.5019,-0.7207,-3.1532,-2.3171,-6.4235,-3.9392,-1.3127,-2.9339
2773.4375,-0.9970,0.0825,2.3538,0.5079,-2.9888,-1.7810,-0.7415,-1.5185,3.7748,1.5714,7.7793,3.5559,1.5210,-3.5389,-1.9356,-4.8391,-2.9457,3.6439,-0.3748
2777.3438,1.1610,2.2484,4.1563,2.9262,-1.4949,-2.2601,-1.0443,-0.0945,8.0468,3.7408,13.5640,8.2896,3.7031,-3.1631,-0.9833,-1.9763,-1.2973,8.6638,2.3489
2781.2500,2.7493,4.0323,5.6760,4.7138,-0.2036,-2.7218,-1.1300,1.0890,10.7051,5.2198,15.6973,10.9724,4.9747,-2.1201,-0.2409,0.9945,0.3468,12.0657,4.3495
2785.1562,2.3005,4.2844,6.2602,5.2414,0.5037,-3.4963,-1.2384,1.7027,10.3649,5.2073,13.0907,10.6938,4.9266,-0.7231,-0.1722,2.8681,1.3990,12.7105,5.0484
2789.0625,-0.6979,2.4343,5.6543,4.4380,0.6032,-4.8945,-1.5975,1.7448,6.8332,3.8771,6.7078,7.6634,3.7068,0.5999,-0.4073,2.9923,1.5772,10.4766,4.3740
2792.9688,-5.1118,-1.0119,4.1880,2.8147,0.4388,-6.7352,-2.1887,1.5336,1.3389,2.3793,-0.8498,3.0116,1.8638,1.4720,0.0790,1.5833,0.9935,6.2854,2.7398
2796.8750,-8.6190,-4.6407,2.5582,1.1569,0.5003,-8.2446,-2.7434,1.4831,-4.0175,2.0997,-6.5918,-1.7824,0.0178,1.7164,2.1366,-0.4358,0.0506,1.6312,0.8027
2800.7812,-9.1017,-6.9132,1.3206,0.0602,1.0973,-8.4593,-2.9707,1.7895,-7.3140,3.6466,-8.5725,-5.5286,-1.4441,1.4154,5.5636,-1.9885,-0.7920,-2.1473,-0.8694
2804.6875,-6.0597,-7.0802,0.4610,-0.3915,2.1479,-6.8911,-2.8270,2.2531,-7.7461,6.2907,-6.7309,-7.7218,-2.4779,0.8622,8.9091,-2.4543,-1.2473,-4.4492,-2.0289
2808.5938,-1.0813,-5.6330,-0.5993,-0.5885,3.2337,-3.9955,-2.5941,2.3914,-5.9207,8.3030,-2.7041,-8.5451,-3.2563,0.4331,10.2197,-1.9639,-1.2983,-5.5274,-2.7480
2812.5000,2.9733,-3.9860,-2.5076,-1.0235,3.8915,-1.0874,-2.6793,1.7991,-3.3709,8.0181,1.2195,-8.5556,-3.9213,0.4402,8.2874,-1.2209,-1.1262,-6.1021,-3.2112
2816.4062,3.5864,-3.5762,-5.3184,-1.8466,3.9420,0.3116,-3.2716,0.5177,-1.6263,4.9319,3.3570,-8.2691,-4.4045,1.0167,3.5412,-0.9896,-0.9396,-6.7412,-3.4656
2820.3125,0.0242,-4.9373,-8.1584,-2.6688,3.6219,-0.6606,-4.1120,-0.8605,-1.3996,0.1104,3.3882,-7.8687,-4.4395,2.0702,-2.0681,-1.5909,-0.8280,-7.4056,-3.3215
2824.2188,-6.2193,-7.3187,-9.5282,-2.7645,3.4227,-3.6437,-4.5716,-1.4693,-2.3158,-4.3505,2.2653,-7.1588,-3.7504,3.3140,-6.1423,-2.7152,-0.7297,-7.4352,-2.4770
2828.1250,-12.1725,-9.0853,-8.1248,-1.5496,3.7460,-7.1532,-4.0210,-0.6847,-3.2579,-6.4555,1.4585,-5.7453,-2.2716,4.3677,-7.1639,-3.6383,-0.5161,-5.9725,-0.7757
2832.0312,-14.8656,-8.6652,-3.7034,0.9806,4.6172,-9.3271,-2.2662,1.4391,-3.0642,-5.3324,2.0615,-3.3370,-0.2433,4.8973,-5.2196,-3.6739,-0.1169,-2.5627,1.5974
2835.9375,-12.7506,-5.5050,2.5658,4.1392,5.6517,-8.9198,0.2354,4.0998,-1.1805,-1.5879,4.2542,-0.0263,1.8748,4.7476,-1.7251,-2.5754,0.4069,2.4158,4.1248
2839.8438,-6.4015,-0.4947,8.4944,6.8325,6.2925,-5.9887,2.5361,6.1107,2.0324,3.0961,7.3131,3.5742,3.5982,4.0085,1.5504,-0.6666,0.8870,7.7251,6.1663
2843.7500,1.7542,4.3763,11.8340,8.0637,6.1488,-1.8734,3.6630,6.4966,5.4324,6.7873,10.0247,6.4297,4.5858,2.9794,3.4393,1.3365,1.1432,11.6662,7.2249
2847.6562,8.4896,6.9638,11.2896,7.3675,5.2106,1.5324,3.1298,4.9854,7.5783,8.0775,11.2097,7.4317,4.6952,2.0386,3.7342,2.6786,1.0823,12.7260,7.1048
2851.5625,11.1446,6.0393,7.0816,4.9638,3.8168,2.8126,1.2064,2.1318,7.3608,6.5154,10.1392,5.8975,3.9428,1.4778,2.8971,2.8995,0.7457,10.2081,5.8984
2855.4688,8.7476,1.9487,0.8198,1.6104,2.4287,1.7742,-1.2020,-0.9674,4.5386,2.6666,6.7687,2.0052,2.4547,1.3873,1.5355,2.0068,0.2880,4.5936,3.8713
2859.3750,2.4355,-3.4810,-5.1958,-1.7127,1.3820,-0.5194,-3.0006,-3.1866,-0.0479,-2.0920,1.7962,-3.0926,0.4734,1.6482,0.1130,0.4447,-0.0882,-2.5204,1.3694
2863.2812,-5.0273,-7.7683,-8.8977,-4.1243,0.7711,-2.4366,-3.4353,-3.8367,-4.7269,-5.9710,-3.4765,-7.6248,-1.6071,2.0290,-0.9793,-1.0974,-0.2054,-8.9217,-1.1945
2867.1875,-10.4570,-8.9545,-9.2121,-5.0732,0.4967,-2.7665,-2.4345,-2.8802,-7.6696,-7.3428,-7.5154,-9.9296,-3.2663,2.3157,-1.2554,-1.9508,0.0324,-12.5759,-3.3292
2871.0938,-11.6571,-6.5581,-6.3965,-4.4652,0.3945,-1.4089,-0.5994,-0.8483,-7.7196,-5.4019,-9.1145,-9.2148,-4.0078,2.3950,-0.2192,-1.7174,0.6123,-12.4229,-4.5352
2875.0000,-8.3490,-1.8168,-1.8719,-2.6913,0.3296,0.6441,1.1338,1.4417,-4.9655,-0.6540,-7.9343,-5.9341,-3.5923,2.2494,2.2419,-0.4175,1.4161,-8.8372,-4.4984
2878.9062,-2.1541,2.9303,2.3627,-0.5337,0.2126,1.9985,1.9664,3.2171,-0.7174,5.1104,-4.7104,-1.5495,-2.2115,1.8953,5.4895,1.5247,2.2588,-3.5071,-3.3103
2882.8125,4.3445,5.4233,4.5220,1.0832,-0.0184,1.7650,1.6009,4.0046,3.1470,9.5249,-0.9372,2.2009,-0.4609,1.3345,8.2254,3.4672,2.9576,1.2632,-1.5402
2886.7188,8.9131,4.6134,3.7384,1.4586,-0.3828,0.1028,0.3203,3.7467,5.1279,10.7949,1.8634,4.1151,0.9156,0.5719,9.1648,4.8352,3.4067,3.5403,-0.0395
2890.6250,10.6045,1.1436,0.3982,0.4552,-0.8012,-1.9273,-1.2235,2.7723,4.8018,8.6712,2.8838,3.9661,1.3818,-0.3131,7.9060,5.3753,3.6198,2.5747,0.4626
2894.5312,9.8411,-3.0746,-4.0500,-1.3879,-1.0618,-3.0722,-2.3685,1.6414,2.8763,4.6231,2.3322,2.3757,0.8593,-1.1154,5.3505,5.2434,3.7088,-0.9505,-0.2506
2898.4375,7.7403,-5.9378,-7.7478,-3.0849,-0.8914,-2.6724,-2.7399,0.9147,0.6083,1.0148,1.1118,0.2945,-0.2732,-1.5430,3.2625,4.8779,3.8038,-5.3383,-1.7563
2902.3438,5.2552,-6.2606,-9.2467,-3.6999,-0.1301,-1.0188,-2.3407,0.9238,-0.9991,-0.2709,0.1238,-1.5138,-1.4161,-1.3524,3.1647,4.7306,3.9602,-8.7169,-3.2235
2906.2500,2.7464,-4.3008,-8.1073,-2.8444,1.0972,0.9127,-1.4291,1.6343,-1.6915,1.0784,-0.3068,-2.6665,-2.0622,-0.5013,5.2934,5.0170,4.1180,-9.8517,-3.8690
2910.1562,0.2030,-1.4460,-4.9982,-0.8818,2.3607,2.1208,-0.3098,2.6717,-1.8673,3.7013,-0.4878,-3.0119,-1.9943,0.7909,8.3631,5.6338,4.1475,-8.5404,-3.3584
2914.0625,-2.2101,0.6858,-1.2871,1.2968,3.1221,2.1658,0.8075,3.5073,-2.0433,5.5143,-0.9023,-2.3917,-1.2795,2.1353,10.3637,6.2822,3.9591,-5.4745,-1.9190
2917.9688,-3.8397,1.1540,1.6234,2.7884,3.0520,1.3149,1.8011,3.7176,-2.3391,5.0999,-1.6394,-0.6098,-0.1162,3.1720,9.8901,6.7012,3.6003,-1.7488,-0.1277
2921.8750,-3.8102,0.0800,2.8594,3.1674,2.2593,0.2121,2.5318,3.1806,-2.3797,2.6270,-2.1930,2.3193,1.3174,3.7471,7.1090,6.8448,3.2644,1.6542,1.4481
2925.7812,-1.7009,-1.6470,2.2966,2.6453,1.2529,-0.6344,2.7664,2.1043,-1.6733,-0.2790,-1.8153,5.8575,2.8998,3.9462,3.6947,6.8853,3.1866,4.1481,2.5074
2929.6875,1.9090,-3.0659,0.4252,1.8248,0.6279,-1.1682,2.2332,0.8784,-0.1394,-1.5996,-0.1654,8.8971,4.4839,3.9615,1.7606,7.0489,3.4831,5.5400,3.0239
2933.5938,5.5146,-3.7424,-1.9682,1.2400,0.6673,-1.7114,0.8016,-0.1561,1.6522,-0.2111,2.2568,10.1435,5.8002,3.8899,2.4923,7.4091,4.0361,5.8670,3.0626
2937.5000,7.4198,-3.9022,-4.1001,1.0058,1.1349,-2.6108,-1.3374,-0.8764,2.7480,3.4230,4.2665,8.7661,6.4662,3.6198,5.3798,7.7952,4.5150,5.2473,2.5968
2941.4062,6.6761,-4.0787,-5.3701,0.8097,1.4204,-3.9002,-3.6378,-1.3872,2.4154,7.5450,4.6860,4.9274,6.1420,2.9074,8.5396,7.8922,4.5452,3.8425,1.5034
2945.3125,3.6117,-4.5856,-5.4468,0.2293,0.9664,-5.2290,-5.3783,-1.8770,0.6642,10.1374,3.1246,-0.1584,4.7550,1.6072,9.8963,7.4776,3.9414,1.9054,-0.2471
2949.2188,-0.3828,-5.2140,-4.3242,-0.8673,-0.3009,-6.0834,-5.9804,-2.4243,-1.6848,10.0298,0.3226,-4.7015,2.6477,-0.1010,8.4580,6.6374,2.8731,-0.1770,-2.3636
2953.1250,-3.6384,-5.3617,-2.3583,-2.1353,-1.8348,-6.1175,-5.2939,-2.8914,-3.4361,7.4427,-2.1833,-7.0887,0.5275,-1.6686,4.8951,5.8020,1.8440,-1.9248,-4.1854
2957.0312,-5.0436,-4.4912,-0.2219,-2.9249,-2.7487,-5.3538,-3.6849,-2.9812,-3.6830,3.7370,-2.8777,-6.5240,-0.7996,-2.3946,1.1087,5.5450,1.4685,-2.8990,-4.9205
2960.9375,-4.4474,-2.5878,1.2859,-2.7052,-2.3621,-4.1361,-1.8703,-2.4272,-2.2943,0.6154,-1.0885,-3.2787,-0.8011,-1.8066,-0.8955,6.2337,2.1368,-2.8743,-4.0783
2964.8438,-2.4968,-0.2971,1.5463,-1.4585,-0.6775,-2.9015,-0.5822,-1.2000,0.0388,-0.7286,2.6332,1.4834,0.4870,0.0071,-0.1251,7.7299,3.7463,-1.9697,-1.8397
2968.7500,-0.1395,1.3667,0.4103,0.2265,1.5248,-1.9462,-0.2303,0.4075,2.1771,-0.0846,6.7443,6.1519,2.4126,2.3318,2.9199,9.3392,5.6617,-0.6601,0.8945
2972.6562,1.8383,1.5761,-1.6921,1.4439,3.0608,-1.3255,-0.7251,1.8801,3.0878,1.8297,9.3965,9.1948,3.9714,4.1034,6.6136,10.0890,6.9666,0.3700,2.8695
2976.5625,3.0188,0.1819,-3.9002,1.4830,2.9903,-0.9107,-1.5385,2.7230,2.2955,3.8243,9.2475,9.6330,4.2876,4.4117,9.1262,9.2341,6.9090,0.5133,3.1015
2980.4688,3.3237,-2.1431,-5.2679,0.2599,1.1694,-0.5191,-1.9665,2.7124,0.0553,4.8271,6.0657,7.3818,3.0861,2.9739,9.3461,6.7310,5.3220,-0.4326,1.4287
2984.3750,2.9092,-4.1987,-5.1384,-1.5949,-1.6169,-0.0147,-1.4729,2.0124,-2.7692,4.3467,0.9140,3.3589,0.8953,0.3194,7.3235,3.3972,2.7784,-2.0636,-1.3389
2988.2812,2.0961,-4.8334,-3.3865,-3.0547,-4.0275,0.6655,0.0441,1.0868,-5.0374,2.6497,-4.1620,-0.7596,-1.1694,-2.4305,4.0824,0.6082,0.3596,-3.4527,-3.7942
2992.1875,1.3204,-3.4988,-0.4458,-3.2484,-4.8492,1.5384,2.1853,0.4563,-5.7480,0.6093,-6.8785,-3.1572,-1.9737,-4.0924,1.0041,-0.3620,-0.8710,-3.5583,-4.6588
2996.0938,1.0294,-0.5004,2.8584,-1.9320,-3.6162,2.6030,4.2274,0.4382,-4.4115,-0.7001,-5.6637,-2.6788,-0.9964,-3.9908,-0.8246,0.9762,-0.4188,-1.7966,-3.4674
3000.0000,1.5099,3.1732,5.5979,0.3881,-0.8327,3.8387,5.4732,1.0193,-1.2519,-0.4977,-0.4416,0.5745,1.3475,-2.2716,-0.9669,4.0174,1.3844,1.5387,-0.8125
3003.9062,2.7392,6.3360,7.0632,2.7525,2.3195,5.1780,5.6084,1.9267,2.8579,1.3392,7.1598,5.2395,3.9187,0.2126,0.4096,7.3429,3.5810,5.3070,2.0123
3007.8125,4.3773,8.1430,7.0311,4.2958,4.6187,6.4773,4.8758,2.8388,6.7317,4.2162,14.3943,9.3670,5.5220,2.3838,2.8273,9.4768,5.1490,8.0665,3.7829
3011.7188,5.9299,8.4111,5.8844,4.7267,5.4312,7.5160,3.9542,3.5949,9.3504,7.1076,18.6076,11.4440,5.6445,3.5218,5.7823,9.6965,5.5929,8.8678,4.0778
3015.6250,6.9862,7.5882,4.5026,4.4629,4.9869,8.0417,3.5905,4.2633,10.2634,9.0431,18.5061,11.1658,4.7946,3.6215,8.8256,8.4083,5.1996,7.8242,3.5207
3019.5312,7.3895,6.4369,3.9130,4.3428,4.1631,7.8701,4.1822,5.0304,9.7071,9.5384,14.7921,9.4782,4.1870,3.3179,11.4583,6.8371,4.7869,6.0727,3.3657
3023.4375,7.2641,5.6395,4.8161,5.0884,3.9172,7.0137,5.5563,5.9960,8.3904,8.7458,9.7636,7.8656,4.9360,3.4311,13.0278,6.2032,5.0989,5.1028,4.6623
3027.3438,6.9287,5.5351,7.2090,6.8428,4.7098,5.7734,7.0798,7.0258,7.0850,7.2738,6.0587,7.3597,7.2590,4.4096,12.8341,6.8949,6.2394,5.8435,7.5206
3031.2500,6.7745,6.0780,10.3276,9.0616,6.2556,4.6998,8.0342,7.7785,6.2654,5.8205,5.2454,7.9241,10.2290,6.0279,10.4893,8.1762,7.5317,8.0794,10.9533
3035.1562,7.1405,6.9618,12.9785,10.8235,7.7428,4.3760,8.0187,7.9001,5.9839,4.8548,7.0673,8.6007,12.2795,7.5356,6.3350,8.6437,7.9247,10.5779,13.4214
3039.0625,8.1711,7.7771,14.1074,11.3679,8.3709,5.0827,7.1329,7.2635,5.9952,4.5096,9.7610,8.2763,12.1752,8.1721,1.5915,7.1606,6.7032,11.8529,13.7576
3042.9688,9.6630,8.1229,13.3015,10.5335,7.8677,6.5364,5.8474,6.0910,5.9948,4.6818,11.2060,6.5104,9.8318,7.7095,-1.9891,3.6740,4.0414,11.0802,11.8903
3046.8750,11.0025,7.6829,10.9517,8.8367,6.6561,7.9151,4.6809,4.8737,5.7981,5.2002,10.1775,3.8579,6.4379,6.6518,-2.8968,-0.6249,1.0177,8.5870,8.9039
3050.7812,11.3382,6.3301,8.0077,7.1573,5.5671,8.2519,3.9250,4.1312,5.3846,5.9150,6.9595,1.5038,3.7730,5.9300,-0.6823,-3.9251,-0.9532,5.6268,6.3910
3054.6875,10.0191,4.2655,5.4971,6.2365,5.2852,7.0248,3.5932,4.1575,4.8460,6.6701,3.0267,0.5048,3.1365,6.2672,3.6690,-4.8257,-0.9363,3.6160,5.5046
3058.5938,7.0935,2.0887,4.0959,6.2970,5.8847,4.5817,3.5791,4.9013,4.3296,7.2409,0.0896,1.1698,4.5643,7.6297,8.0932,-3.1324,0.9650,3.3386,6.3034
3062.5000,3.4981,0.6586,3.9559,6.9947,6.7613,2.0704,3.8482,6.0332,4.0138,7.3520,-0.8540,2.9555,6.8248,9.1450,10.4126,0.0700,3.6571,4.6006,7.7882
3066.4062,0.6804,0.7089,4.8081,7.6975,7.0073,0.8305,4.4755,7.1355,4.0847,6.8102,0.0860,4.8682,8.1895,9.5827,9.4189,3.0936,5.6813,6.4910,8.5777
3070.3125,-0.2237,2.3874,6.1933,7.8873,5.9936,1.5783,5.4957,7.8867,4.6625,5.6720,1.9796,6.0399,7.4856,8.1170,5.4881,4.6278,6.0298,8.0078,7.7750
3074.2188,0.8558,5.0250,7.6539,7.4299,3.7838,3.9067,6.7104,8.1385,5.6958,4.3085,3.7520,6.1065,4.7779,4.8924,0.3930,4.4117,4.6582,8.6206,5.4831
